Name: Barite BaSO_4
Type: Mineral
Class: Sulfate
Subclass: None
Particle Size: Medium
Sample No.: SO-3A
Owner: JPL
Wavelength Range: VSWIR
Origin: USA, South Carolina, Cherokee County, Kings Creek.
Collection Date: N/A
Description: Particle size was 45-125um. Collected by:  Ward's Original ASTER Spectral Library name was jpl.perkin.mineral.sulfate.none.medium.so03a.spectrum.txt
Measurement: Hemispherical reflectance
First Column: X
Second Column: Y
X Units: Wavelength (micrometers)
Y Units:Reflectance (percent)
First X Value:  2.5000
Last X Value:  0.4000
Number of X Values: 2101
Additional Information: mineral.sulfate.none.medium.vswir.so-3a.jpl.perkin.ancillary.txt

 2.5000	87.0713
 2.4990	86.9153
 2.4980	87.1632
 2.4970	87.0338
 2.4960	87.1079
 2.4950	87.0916
 2.4940	86.9222
 2.4930	86.9511
 2.4920	86.9281
 2.4910	87.0664
 2.4900	87.1183
 2.4890	87.0094
 2.4880	87.1587
 2.4870	87.0135
 2.4860	87.0766
 2.4850	87.3525
 2.4840	87.2144
 2.4830	87.2131
 2.4820	87.3503
 2.4810	87.3314
 2.4800	87.1610
 2.4790	87.2209
 2.4780	87.2972
 2.4770	87.3950
 2.4760	87.3490
 2.4750	87.4195
 2.4740	87.2643
 2.4730	87.4268
 2.4720	87.5857
 2.4710	87.3974
 2.4700	87.5854
 2.4690	87.6185
 2.4680	87.6548
 2.4670	87.6786
 2.4660	87.6911
 2.4650	87.6659
 2.4640	87.7112
 2.4630	87.7814
 2.4620	87.7292
 2.4610	87.7522
 2.4600	87.7454
 2.4590	87.6868
 2.4580	87.8259
 2.4570	87.8707
 2.4560	87.9585
 2.4550	88.0972
 2.4540	88.0143
 2.4530	87.9824
 2.4520	87.8707
 2.4510	88.0598
 2.4500	88.0412
 2.4490	88.1508
 2.4480	88.2082
 2.4470	88.1009
 2.4460	88.1963
 2.4450	88.1929
 2.4440	88.1607
 2.4430	88.2903
 2.4420	88.3284
 2.4410	88.1648
 2.4400	88.2776
 2.4390	88.2644
 2.4380	88.3062
 2.4370	88.3332
 2.4360	88.4680
 2.4350	88.4353
 2.4340	88.3940
 2.4330	88.4639
 2.4320	88.4917
 2.4310	88.4463
 2.4300	88.4191
 2.4290	88.4758
 2.4280	88.5887
 2.4270	88.7128
 2.4260	88.7301
 2.4250	88.7525
 2.4240	88.7611
 2.4230	88.7764
 2.4220	88.7392
 2.4210	88.7533
 2.4200	88.7753
 2.4190	88.8416
 2.4180	88.9019
 2.4170	88.8167
 2.4160	88.8928
 2.4150	88.8008
 2.4140	88.9582
 2.4130	89.0609
 2.4120	89.0343
 2.4110	89.0264
 2.4100	89.0265
 2.4090	89.0670
 2.4080	89.0796
 2.4070	89.1214
 2.4060	89.2574
 2.4050	89.2461
 2.4040	89.3376
 2.4030	89.2831
 2.4020	89.2491
 2.4010	89.2342
 2.4000	89.2025
 2.3990	89.3570
 2.3980	89.3727
 2.3970	89.3798
 2.3960	89.4174
 2.3950	89.4364
 2.3940	89.4643
 2.3930	89.4743
 2.3920	89.5014
 2.3910	89.5651
 2.3900	89.6511
 2.3890	89.6717
 2.3880	89.6450
 2.3870	89.6881
 2.3860	89.7168
 2.3850	89.6560
 2.3840	89.7295
 2.3830	89.7702
 2.3820	89.8233
 2.3810	89.9431
 2.3800	89.9174
 2.3790	89.8955
 2.3780	89.9491
 2.3770	89.9490
 2.3760	89.9571
 2.3750	90.0549
 2.3740	90.0722
 2.3730	90.0547
 2.3720	90.0900
 2.3710	90.0826
 2.3700	90.0818
 2.3690	90.1738
 2.3680	90.2178
 2.3670	90.2513
 2.3660	90.2970
 2.3650	90.2587
 2.3640	90.2599
 2.3630	90.3368
 2.3620	90.3553
 2.3610	90.3765
 2.3600	90.4687
 2.3590	90.4862
 2.3580	90.4256
 2.3570	90.4021
 2.3560	90.4338
 2.3550	90.5397
 2.3540	90.6341
 2.3530	90.6269
 2.3520	90.5689
 2.3510	90.5078
 2.3500	90.5662
 2.3490	90.6507
 2.3480	90.5750
 2.3470	90.5656
 2.3460	90.6633
 2.3450	90.7115
 2.3440	90.7775
 2.3430	90.7610
 2.3420	90.6955
 2.3410	90.6866
 2.3400	90.6690
 2.3390	90.7288
 2.3380	90.7201
 2.3370	90.7338
 2.3360	90.7951
 2.3350	90.7931
 2.3340	90.7253
 2.3330	90.7320
 2.3320	90.7625
 2.3310	90.7783
 2.3300	90.8028
 2.3290	90.7429
 2.3280	90.7686
 2.3270	90.8546
 2.3260	90.8690
 2.3250	90.8871
 2.3240	90.8277
 2.3230	90.8488
 2.3220	90.8516
 2.3210	90.8496
 2.3200	90.8717
 2.3190	90.8699
 2.3180	90.8689
 2.3170	90.9031
 2.3160	90.8827
 2.3150	90.9134
 2.3140	90.8841
 2.3130	90.9178
 2.3120	90.9296
 2.3110	90.9173
 2.3100	90.9919
 2.3090	90.9481
 2.3080	90.9387
 2.3070	90.8761
 2.3060	90.8473
 2.3050	90.8723
 2.3040	90.9638
 2.3030	91.0110
 2.3020	90.9592
 2.3010	90.9600
 2.3000	91.0832
 2.2990	90.9833
 2.2980	90.9615
 2.2970	90.9708
 2.2960	91.0136
 2.2950	91.0031
 2.2940	91.0165
 2.2930	91.0107
 2.2920	91.0303
 2.2910	91.0915
 2.2900	91.0541
 2.2890	91.0352
 2.2880	91.0195
 2.2870	91.0575
 2.2860	91.0847
 2.2850	91.1238
 2.2840	91.0757
 2.2830	91.0806
 2.2820	91.1141
 2.2810	91.0998
 2.2800	91.0835
 2.2790	91.0901
 2.2780	91.0908
 2.2770	91.0730
 2.2760	91.0608
 2.2750	91.0774
 2.2740	91.1717
 2.2730	91.1105
 2.2720	91.0147
 2.2710	91.1410
 2.2700	91.1300
 2.2690	91.0789
 2.2680	91.1271
 2.2670	91.0039
 2.2660	91.1458
 2.2650	91.0423
 2.2640	91.1069
 2.2630	91.0841
 2.2620	91.0868
 2.2610	91.0264
 2.2600	91.1147
 2.2590	91.1562
 2.2580	91.1052
 2.2570	91.1874
 2.2560	91.2399
 2.2550	91.0995
 2.2540	91.1781
 2.2530	91.2438
 2.2520	91.1966
 2.2510	91.2726
 2.2500	91.2518
 2.2490	91.2648
 2.2480	91.2380
 2.2470	91.1395
 2.2460	91.2619
 2.2450	91.1479
 2.2440	91.3408
 2.2430	91.2658
 2.2420	91.2113
 2.2410	91.2991
 2.2400	91.3801
 2.2390	91.3608
 2.2380	91.3023
 2.2370	91.3884
 2.2360	91.2677
 2.2350	91.2788
 2.2340	91.3076
 2.2330	91.3423
 2.2320	91.4218
 2.2310	91.4800
 2.2300	91.3465
 2.2290	91.5037
 2.2280	91.4765
 2.2270	91.4078
 2.2260	91.4742
 2.2250	91.3762
 2.2240	91.4963
 2.2230	91.3962
 2.2220	91.4174
 2.2210	91.4716
 2.2200	91.4949
 2.2190	91.5417
 2.2180	91.5968
 2.2170	91.4930
 2.2160	91.5883
 2.2150	91.5212
 2.2140	91.6444
 2.2130	91.6496
 2.2120	91.6210
 2.2110	91.7328
 2.2100	91.6696
 2.2090	91.7373
 2.2080	91.6787
 2.2070	91.6621
 2.2060	91.9137
 2.2050	91.8005
 2.2040	91.8339
 2.2030	91.8662
 2.2020	91.9176
 2.2010	91.9967
 2.2000	92.0126
 2.1990	91.8934
 2.1980	92.0362
 2.1970	92.0073
 2.1960	92.0092
 2.1950	92.0227
 2.1940	92.0180
 2.1930	92.0429
 2.1920	91.9854
 2.1910	92.0006
 2.1900	92.1282
 2.1890	92.0001
 2.1880	92.0462
 2.1870	92.1227
 2.1860	92.0446
 2.1850	92.0907
 2.1840	92.1980
 2.1830	92.1796
 2.1820	92.1544
 2.1810	92.2896
 2.1800	92.2017
 2.1790	92.3142
 2.1780	92.2779
 2.1770	92.3693
 2.1760	92.3638
 2.1750	92.2944
 2.1740	92.4488
 2.1730	92.4542
 2.1720	92.4323
 2.1710	92.4708
 2.1700	92.5119
 2.1690	92.5316
 2.1680	92.5094
 2.1670	92.5392
 2.1660	92.6263
 2.1650	92.6484
 2.1640	92.6025
 2.1630	92.6320
 2.1620	92.6571
 2.1610	92.8098
 2.1600	92.7405
 2.1590	92.7091
 2.1580	92.8504
 2.1570	92.8336
 2.1560	92.8193
 2.1550	92.9050
 2.1540	92.8741
 2.1530	92.9737
 2.1520	92.8634
 2.1510	92.9154
 2.1500	92.8986
 2.1490	92.9057
 2.1480	92.9844
 2.1470	92.8690
 2.1460	92.9149
 2.1450	92.9184
 2.1440	92.9473
 2.1430	92.9215
 2.1420	92.9395
 2.1410	92.8477
 2.1400	92.8940
 2.1390	92.8670
 2.1380	92.8825
 2.1370	92.8806
 2.1360	92.8965
 2.1350	92.8512
 2.1340	92.7786
 2.1330	92.7314
 2.1320	92.6867
 2.1310	92.6554
 2.1300	92.6293
 2.1290	92.6930
 2.1280	92.7104
 2.1270	92.5891
 2.1260	92.5447
 2.1250	92.4613
 2.1240	92.4649
 2.1230	92.3890
 2.1220	92.2930
 2.1210	92.2550
 2.1200	92.2007
 2.1190	92.1626
 2.1180	92.0461
 2.1170	92.0560
 2.1160	92.0087
 2.1150	91.9190
 2.1140	91.8766
 2.1130	91.7986
 2.1120	91.7883
 2.1110	91.7635
 2.1100	91.6834
 2.1090	91.6209
 2.1080	91.6658
 2.1070	91.5831
 2.1060	91.4837
 2.1050	91.4713
 2.1040	91.4221
 2.1030	91.3602
 2.1020	91.2944
 2.1010	91.2479
 2.1000	91.2330
 2.0990	91.1952
 2.0980	91.2882
 2.0970	91.2638
 2.0960	91.2228
 2.0950	91.1720
 2.0940	91.1564
 2.0930	91.2291
 2.0920	91.2636
 2.0910	91.3306
 2.0900	91.3570
 2.0890	91.2868
 2.0880	91.2687
 2.0870	91.2783
 2.0860	91.2774
 2.0850	91.3351
 2.0840	91.3391
 2.0830	91.2945
 2.0820	91.2696
 2.0810	91.2630
 2.0800	91.2852
 2.0790	91.3659
 2.0780	91.4003
 2.0770	91.4116
 2.0760	91.3013
 2.0750	91.2442
 2.0740	91.2863
 2.0730	91.3022
 2.0720	91.3250
 2.0710	91.2992
 2.0700	91.3043
 2.0690	91.3681
 2.0680	91.3647
 2.0670	91.3355
 2.0660	91.3568
 2.0650	91.3385
 2.0640	91.3671
 2.0630	91.3807
 2.0620	91.3222
 2.0610	91.4008
 2.0600	91.4290
 2.0590	91.4107
 2.0580	91.4173
 2.0570	91.4051
 2.0560	91.4353
 2.0550	91.5049
 2.0540	91.5285
 2.0530	91.4441
 2.0520	91.3976
 2.0510	91.4664
 2.0500	91.4909
 2.0490	91.4768
 2.0480	91.4062
 2.0470	91.4089
 2.0460	91.5035
 2.0450	91.5032
 2.0440	91.4943
 2.0430	91.4529
 2.0420	91.4273
 2.0410	91.4504
 2.0400	91.4486
 2.0390	91.4162
 2.0380	91.4760
 2.0370	91.4889
 2.0360	91.4474
 2.0350	91.3989
 2.0340	91.4271
 2.0330	91.3923
 2.0320	91.3417
 2.0310	91.3747
 2.0300	91.3713
 2.0290	91.3211
 2.0280	91.2251
 2.0270	91.2463
 2.0260	91.3349
 2.0250	91.3070
 2.0240	91.2134
 2.0230	91.1934
 2.0220	91.2167
 2.0210	91.1369
 2.0200	91.0638
 2.0190	91.0372
 2.0180	91.0168
 2.0170	91.0216
 2.0160	91.0021
 2.0150	90.9984
 2.0140	90.8726
 2.0130	90.8568
 2.0120	90.8791
 2.0110	90.8571
 2.0100	90.8839
 2.0090	90.8700
 2.0080	90.8679
 2.0070	90.9648
 2.0060	90.9394
 2.0050	90.8882
 2.0040	90.8868
 2.0030	90.8708
 2.0020	90.8871
 2.0010	90.9013
 2.0000	90.8458
 1.9990	90.8726
 1.9980	90.8348
 1.9970	90.7879
 1.9960	90.7605
 1.9950	90.6822
 1.9940	90.6852
 1.9930	90.6533
 1.9920	90.6447
 1.9910	90.4937
 1.9900	90.5193
 1.9890	90.4866
 1.9880	90.4665
 1.9870	90.4850
 1.9860	90.3315
 1.9850	90.3143
 1.9840	90.4486
 1.9830	90.2911
 1.9820	90.3260
 1.9810	90.2148
 1.9800	90.2028
 1.9790	90.1534
 1.9780	90.0207
 1.9770	90.0187
 1.9760	90.0491
 1.9750	89.9814
 1.9740	89.9441
 1.9730	89.9055
 1.9720	89.7947
 1.9710	89.8144
 1.9700	89.7793
 1.9690	89.7333
 1.9680	89.6984
 1.9670	89.6776
 1.9660	89.6867
 1.9650	89.6224
 1.9640	89.6246
 1.9630	89.4895
 1.9620	89.5223
 1.9610	89.4832
 1.9600	89.4568
 1.9590	89.5327
 1.9580	89.4580
 1.9570	89.3917
 1.9560	89.3244
 1.9550	89.3468
 1.9540	89.3890
 1.9530	89.3740
 1.9520	89.3023
 1.9510	89.4037
 1.9500	89.3219
 1.9490	89.2370
 1.9480	89.3616
 1.9470	89.3459
 1.9460	89.1849
 1.9450	89.2196
 1.9440	89.2102
 1.9430	89.1636
 1.9420	89.1206
 1.9410	89.1707
 1.9400	89.1385
 1.9390	89.1663
 1.9380	89.1782
 1.9370	89.2293
 1.9360	89.1393
 1.9350	89.1798
 1.9340	89.1309
 1.9330	89.1616
 1.9320	89.1635
 1.9310	89.1840
 1.9300	89.2303
 1.9290	89.2017
 1.9280	89.3262
 1.9270	89.2886
 1.9260	89.1117
 1.9250	89.2474
 1.9240	89.2815
 1.9230	89.2927
 1.9220	89.4378
 1.9210	89.3460
 1.9200	89.5430
 1.9190	89.5643
 1.9180	89.5744
 1.9170	89.6418
 1.9160	89.5543
 1.9150	89.7041
 1.9140	89.7390
 1.9130	89.7642
 1.9120	89.7510
 1.9110	89.8546
 1.9100	89.9601
 1.9090	89.9700
 1.9080	90.0998
 1.9070	90.1443
 1.9060	90.1904
 1.9050	90.2320
 1.9040	90.3566
 1.9030	90.4179
 1.9020	90.5695
 1.9010	90.6032
 1.9000	90.7026
 1.8990	90.7916
 1.8980	90.9069
 1.8970	90.9719
 1.8960	91.0654
 1.8950	91.0903
 1.8940	91.2062
 1.8930	91.3300
 1.8920	91.4304
 1.8910	91.6026
 1.8900	91.6509
 1.8890	91.7635
 1.8880	91.8642
 1.8870	91.9775
 1.8860	91.9961
 1.8850	92.1313
 1.8840	92.2873
 1.8830	92.2615
 1.8820	92.2454
 1.8810	92.3785
 1.8800	92.5219
 1.8790	92.6441
 1.8780	92.6755
 1.8770	92.6746
 1.8760	92.7188
 1.8750	92.7232
 1.8740	92.7864
 1.8730	92.8765
 1.8720	92.9563
 1.8710	92.9467
 1.8700	93.0188
 1.8690	93.0016
 1.8680	93.0147
 1.8670	93.1448
 1.8660	93.0768
 1.8650	93.0775
 1.8640	93.1051
 1.8630	93.1944
 1.8620	93.2134
 1.8610	93.1545
 1.8600	93.2597
 1.8590	93.2126
 1.8580	93.2152
 1.8570	93.2114
 1.8560	93.2542
 1.8550	93.2983
 1.8540	93.3244
 1.8530	93.2873
 1.8520	93.3152
 1.8510	93.3369
 1.8500	93.3259
 1.8490	93.3876
 1.8480	93.3711
 1.8470	93.3759
 1.8460	93.3564
 1.8450	93.4033
 1.8440	93.4065
 1.8430	93.4468
 1.8420	93.4280
 1.8410	93.4794
 1.8400	93.4296
 1.8390	93.4150
 1.8380	93.4677
 1.8370	93.3352
 1.8360	93.3668
 1.8350	93.4104
 1.8340	93.4551
 1.8330	93.4881
 1.8320	93.3870
 1.8310	93.3992
 1.8300	93.4259
 1.8290	93.4712
 1.8280	93.4349
 1.8270	93.4258
 1.8260	93.4756
 1.8250	93.4897
 1.8240	93.4510
 1.8230	93.4481
 1.8220	93.4812
 1.8210	93.5090
 1.8200	93.5283
 1.8190	93.5072
 1.8180	93.4826
 1.8170	93.4995
 1.8160	93.4474
 1.8150	93.4155
 1.8140	93.4527
 1.8130	93.5191
 1.8120	93.5345
 1.8110	93.4873
 1.8100	93.4579
 1.8090	93.5056
 1.8080	93.4928
 1.8070	93.4995
 1.8060	93.5624
 1.8050	93.5702
 1.8040	93.5063
 1.8030	93.5046
 1.8020	93.5112
 1.8010	93.5922
 1.8000	93.6147
 1.7990	93.5479
 1.7980	93.5147
 1.7970	93.6107
 1.7960	93.6066
 1.7950	93.5698
 1.7940	93.5730
 1.7930	93.5792
 1.7920	93.5590
 1.7910	93.4659
 1.7900	93.4449
 1.7890	93.5297
 1.7880	93.5549
 1.7870	93.4931
 1.7860	93.4862
 1.7850	93.4746
 1.7840	93.4626
 1.7830	93.4458
 1.7820	93.4175
 1.7810	93.4694
 1.7800	93.4904
 1.7790	93.5815
 1.7780	93.5739
 1.7770	93.4729
 1.7760	93.4733
 1.7750	93.4667
 1.7740	93.4576
 1.7730	93.4610
 1.7720	93.5008
 1.7710	93.4813
 1.7700	93.4870
 1.7690	93.4598
 1.7680	93.4881
 1.7670	93.5031
 1.7660	93.4746
 1.7650	93.5157
 1.7640	93.5609
 1.7630	93.5040
 1.7620	93.5007
 1.7610	93.5106
 1.7600	93.4709
 1.7590	93.5065
 1.7580	93.5397
 1.7570	93.5304
 1.7560	93.5662
 1.7550	93.5985
 1.7540	93.5257
 1.7530	93.5925
 1.7520	93.6061
 1.7510	93.4568
 1.7500	93.4511
 1.7490	93.5160
 1.7480	93.5355
 1.7470	93.5449
 1.7460	93.5945
 1.7450	93.6130
 1.7440	93.5744
 1.7430	93.5326
 1.7420	93.5347
 1.7410	93.5784
 1.7400	93.6267
 1.7390	93.5532
 1.7380	93.5826
 1.7370	93.6492
 1.7360	93.6531
 1.7350	93.6061
 1.7340	93.6208
 1.7330	93.6670
 1.7320	93.6342
 1.7310	93.6129
 1.7300	93.6984
 1.7290	93.6766
 1.7280	93.7184
 1.7270	93.7328
 1.7260	93.7180
 1.7250	93.7065
 1.7240	93.6532
 1.7230	93.6396
 1.7220	93.6271
 1.7210	93.6558
 1.7200	93.7054
 1.7190	93.7306
 1.7180	93.6513
 1.7170	93.6931
 1.7160	93.7129
 1.7150	93.7619
 1.7140	93.7269
 1.7130	93.6953
 1.7120	93.6642
 1.7110	93.6630
 1.7100	93.7334
 1.7090	93.7316
 1.7080	93.6742
 1.7070	93.6674
 1.7060	93.6556
 1.7050	93.6803
 1.7040	93.6810
 1.7030	93.7029
 1.7020	93.7197
 1.7010	93.6527
 1.7000	93.6259
 1.6990	93.6885
 1.6980	93.6094
 1.6970	93.6078
 1.6960	93.6616
 1.6950	93.6896
 1.6940	93.6398
 1.6930	93.6310
 1.6920	93.6325
 1.6910	93.6155
 1.6900	93.6742
 1.6890	93.6615
 1.6880	93.7023
 1.6870	93.5969
 1.6860	93.5678
 1.6850	93.6623
 1.6840	93.7023
 1.6830	93.6806
 1.6820	93.6620
 1.6810	93.5546
 1.6800	93.5568
 1.6790	93.6294
 1.6780	93.6046
 1.6770	93.6900
 1.6760	93.6777
 1.6750	93.6878
 1.6740	93.6632
 1.6730	93.5952
 1.6720	93.6557
 1.6710	93.6844
 1.6700	93.6285
 1.6690	93.6483
 1.6680	93.6299
 1.6670	93.6509
 1.6660	93.6655
 1.6650	93.6213
 1.6640	93.5450
 1.6630	93.5135
 1.6620	93.5920
 1.6610	93.6871
 1.6600	93.6685
 1.6590	93.7161
 1.6580	93.6113
 1.6570	93.6175
 1.6560	93.6143
 1.6550	93.7614
 1.6540	93.6714
 1.6530	93.7274
 1.6520	93.5833
 1.6510	93.7503
 1.6500	93.6396
 1.6490	93.6808
 1.6480	93.6951
 1.6470	93.6173
 1.6460	93.6129
 1.6450	93.5904
 1.6440	93.6676
 1.6430	93.6656
 1.6420	93.6596
 1.6410	93.6967
 1.6400	93.6053
 1.6390	93.6920
 1.6380	93.6593
 1.6370	93.6080
 1.6360	93.6885
 1.6350	93.6047
 1.6340	93.5840
 1.6330	93.6561
 1.6320	93.6582
 1.6310	93.6954
 1.6300	93.6377
 1.6290	93.6326
 1.6280	93.6743
 1.6270	93.5664
 1.6260	93.6427
 1.6250	93.7105
 1.6240	93.6037
 1.6230	93.6029
 1.6220	93.5985
 1.6210	93.6819
 1.6200	93.6491
 1.6190	93.7105
 1.6180	93.5420
 1.6170	93.6566
 1.6160	93.6077
 1.6150	93.7102
 1.6140	93.6684
 1.6130	93.6325
 1.6120	93.6305
 1.6110	93.6315
 1.6100	93.6399
 1.6090	93.6740
 1.6080	93.6105
 1.6070	93.6981
 1.6060	93.7338
 1.6050	93.6369
 1.6040	93.6742
 1.6030	93.6709
 1.6020	93.6203
 1.6010	93.6519
 1.6000	93.6712
 1.5990	93.6690
 1.5980	93.5955
 1.5970	93.6039
 1.5960	93.6078
 1.5950	93.6404
 1.5940	93.6071
 1.5930	93.6440
 1.5920	93.6337
 1.5910	93.6226
 1.5900	93.6355
 1.5890	93.5523
 1.5880	93.6378
 1.5870	93.5778
 1.5860	93.5900
 1.5850	93.5848
 1.5840	93.5192
 1.5830	93.5367
 1.5820	93.5983
 1.5810	93.5728
 1.5800	93.5392
 1.5790	93.5829
 1.5780	93.6438
 1.5770	93.6034
 1.5760	93.6054
 1.5750	93.6130
 1.5740	93.4947
 1.5730	93.6166
 1.5720	93.6086
 1.5710	93.6011
 1.5700	93.5756
 1.5690	93.6078
 1.5680	93.6185
 1.5670	93.5487
 1.5660	93.5059
 1.5650	93.5574
 1.5640	93.5158
 1.5630	93.4222
 1.5620	93.4745
 1.5610	93.4442
 1.5600	93.4908
 1.5590	93.4481
 1.5580	93.4946
 1.5570	93.5389
 1.5560	93.5140
 1.5550	93.4420
 1.5540	93.4216
 1.5530	93.4892
 1.5520	93.4709
 1.5510	93.4476
 1.5500	93.4490
 1.5490	93.4867
 1.5480	93.5122
 1.5470	93.4614
 1.5460	93.4357
 1.5450	93.4732
 1.5440	93.4191
 1.5430	93.3787
 1.5420	93.3194
 1.5410	93.3775
 1.5400	93.4696
 1.5390	93.4558
 1.5380	93.4157
 1.5370	93.4029
 1.5360	93.4365
 1.5350	93.3982
 1.5340	93.4081
 1.5330	93.3494
 1.5320	93.3220
 1.5310	93.3823
 1.5300	93.3765
 1.5290	93.3688
 1.5280	93.3057
 1.5270	93.3301
 1.5260	93.3366
 1.5250	93.2932
 1.5240	93.2983
 1.5230	93.3166
 1.5220	93.3215
 1.5210	93.3278
 1.5200	93.2905
 1.5190	93.2185
 1.5180	93.2201
 1.5170	93.2519
 1.5160	93.2557
 1.5150	93.2519
 1.5140	93.1906
 1.5130	93.1669
 1.5120	93.1836
 1.5110	93.2055
 1.5100	93.1875
 1.5090	93.1780
 1.5080	93.1902
 1.5070	93.1743
 1.5060	93.1400
 1.5050	93.0731
 1.5040	93.1428
 1.5030	93.1976
 1.5020	93.1301
 1.5010	93.0819
 1.5000	93.1084
 1.4990	93.1398
 1.4980	93.1148
 1.4970	93.0671
 1.4960	93.0451
 1.4950	93.0817
 1.4940	93.0941
 1.4930	93.0286
 1.4920	92.9908
 1.4910	93.0077
 1.4900	93.0380
 1.4890	93.0446
 1.4880	92.9925
 1.4870	92.9680
 1.4860	92.9800
 1.4850	92.9889
 1.4840	92.9499
 1.4830	92.9402
 1.4820	92.9508
 1.4810	92.8674
 1.4800	92.9106
 1.4790	93.0237
 1.4780	92.9335
 1.4770	92.8702
 1.4760	92.8165
 1.4750	92.8189
 1.4740	92.8298
 1.4730	92.8502
 1.4720	92.8863
 1.4710	92.9080
 1.4700	92.8345
 1.4690	92.7794
 1.4680	92.8306
 1.4670	92.8133
 1.4660	92.7919
 1.4650	92.7726
 1.4640	92.7501
 1.4630	92.8267
 1.4620	92.7782
 1.4610	92.7763
 1.4600	92.7494
 1.4590	92.7239
 1.4580	92.7699
 1.4570	92.7684
 1.4560	92.7966
 1.4550	92.7900
 1.4540	92.7856
 1.4530	92.8344
 1.4520	92.7982
 1.4510	92.6768
 1.4500	92.7390
 1.4490	92.7466
 1.4480	92.7486
 1.4470	92.7908
 1.4460	92.7531
 1.4450	92.7680
 1.4440	92.7841
 1.4430	92.8385
 1.4420	92.7883
 1.4410	92.7433
 1.4400	92.6869
 1.4390	92.7909
 1.4380	92.8112
 1.4370	92.8103
 1.4360	92.8031
 1.4350	92.7726
 1.4340	92.7691
 1.4330	92.8261
 1.4320	92.8148
 1.4310	92.8377
 1.4300	92.8257
 1.4290	92.7943
 1.4280	92.8010
 1.4270	92.7910
 1.4260	92.8726
 1.4250	92.8597
 1.4240	92.8888
 1.4230	92.8924
 1.4220	92.8772
 1.4210	92.8712
 1.4200	92.8497
 1.4190	92.9069
 1.4180	92.9251
 1.4170	92.9151
 1.4160	92.9073
 1.4150	92.9140
 1.4140	92.9589
 1.4130	92.9850
 1.4120	93.0293
 1.4110	92.9945
 1.4100	93.0246
 1.4090	93.0590
 1.4080	93.0220
 1.4070	93.0258
 1.4060	93.1066
 1.4050	93.2353
 1.4040	93.2195
 1.4030	93.1630
 1.4020	93.1604
 1.4010	93.2670
 1.4000	93.2135
 1.3990	93.1938
 1.3980	93.2897
 1.3970	93.3399
 1.3960	93.3758
 1.3950	93.3969
 1.3940	93.3984
 1.3930	93.4068
 1.3920	93.4980
 1.3910	93.5542
 1.3900	93.4749
 1.3890	93.5455
 1.3880	93.4949
 1.3870	93.5572
 1.3860	93.5365
 1.3850	93.5727
 1.3840	93.5314
 1.3830	93.5528
 1.3820	93.5899
 1.3810	93.6309
 1.3800	93.6010
 1.3790	93.5572
 1.3780	93.6341
 1.3770	93.6376
 1.3760	93.6251
 1.3750	93.6235
 1.3740	93.6272
 1.3730	93.5828
 1.3720	93.7043
 1.3710	93.6267
 1.3700	93.5599
 1.3690	93.6161
 1.3680	93.6194
 1.3670	93.7140
 1.3660	93.7084
