Name: Rutile TiO_2
Type: Mineral
Class: Oxide
Subclass: None
Particle Size: Fine
Sample No.: O-2A
Owner: JPL
Wavelength Range: VSWIR
Origin: Unknown.
Collection Date: N/A
Description: Particle size was 0-45um.Collected by:  JPL Original ASTER Spectral Library name was jpl.perkin.mineral.oxide.none.fine.o02a.spectrum.txt
Measurement: Hemispherical reflectance
First Column: X
Second Column: Y
X Units: Wavelength (micrometers)
Y Units:Reflectance (percent)
First X Value:  2.5000
Last X Value:  0.4000
Number of X Values: 2101
Additional Information: mineral.oxide.none.fine.vswir.o-2a.jpl.perkin.ancillary.txt

 2.5000	46.9548
 2.4990	46.9616
 2.4980	47.1976
 2.4970	47.0443
 2.4960	46.8333
 2.4950	47.0713
 2.4940	47.0454
 2.4930	46.9229
 2.4920	47.0469
 2.4910	46.9784
 2.4900	46.9569
 2.4890	46.9977
 2.4880	46.8790
 2.4870	46.8304
 2.4860	47.0864
 2.4850	46.8931
 2.4840	46.9349
 2.4830	46.9737
 2.4820	46.8783
 2.4810	46.8902
 2.4800	47.0487
 2.4790	46.9207
 2.4780	46.9655
 2.4770	46.8487
 2.4760	46.9169
 2.4750	46.7749
 2.4740	46.8732
 2.4730	46.7366
 2.4720	46.9288
 2.4710	46.8263
 2.4700	46.8185
 2.4690	46.8812
 2.4680	46.8713
 2.4670	46.8705
 2.4660	46.9443
 2.4650	46.6803
 2.4640	46.9349
 2.4630	46.8954
 2.4620	46.9308
 2.4610	46.8287
 2.4600	46.9998
 2.4590	46.8539
 2.4580	46.9692
 2.4570	46.8300
 2.4560	46.9753
 2.4550	46.9617
 2.4540	46.8716
 2.4530	46.9096
 2.4520	46.9039
 2.4510	46.8155
 2.4500	46.9470
 2.4490	46.9011
 2.4480	46.9329
 2.4470	46.8586
 2.4460	46.8984
 2.4450	46.8609
 2.4440	47.0180
 2.4430	46.9759
 2.4420	47.1218
 2.4410	46.9358
 2.4400	46.9753
 2.4390	46.9355
 2.4380	47.1004
 2.4370	47.0093
 2.4360	47.0620
 2.4350	46.9175
 2.4340	47.0850
 2.4330	46.9870
 2.4320	47.0290
 2.4310	46.9313
 2.4300	46.9102
 2.4290	46.9502
 2.4280	47.0311
 2.4270	47.0099
 2.4260	47.0418
 2.4250	46.9680
 2.4240	47.0014
 2.4230	46.9357
 2.4220	46.9811
 2.4210	46.9534
 2.4200	46.9575
 2.4190	47.0125
 2.4180	47.0070
 2.4170	46.9239
 2.4160	47.0449
 2.4150	47.0185
 2.4140	47.0374
 2.4130	47.0750
 2.4120	47.0373
 2.4110	47.0152
 2.4100	46.9823
 2.4090	46.9149
 2.4080	47.0392
 2.4070	47.0085
 2.4060	46.9902
 2.4050	46.9719
 2.4040	47.0379
 2.4030	47.0022
 2.4020	46.9341
 2.4010	46.9264
 2.4000	46.9238
 2.3990	46.8952
 2.3980	46.8896
 2.3970	46.8607
 2.3960	46.9273
 2.3950	46.8988
 2.3940	46.8880
 2.3930	46.8453
 2.3920	46.9098
 2.3910	46.9609
 2.3900	46.9263
 2.3890	46.8683
 2.3880	46.9122
 2.3870	46.9495
 2.3860	47.0177
 2.3850	46.8991
 2.3840	46.9250
 2.3830	46.9744
 2.3820	46.9776
 2.3810	46.9562
 2.3800	46.9876
 2.3790	46.9690
 2.3780	47.0030
 2.3770	47.0379
 2.3760	47.0369
 2.3750	47.0514
 2.3740	47.0197
 2.3730	46.9796
 2.3720	47.0227
 2.3710	47.0302
 2.3700	47.0632
 2.3690	47.0581
 2.3680	47.0421
 2.3670	47.0613
 2.3660	47.0493
 2.3650	47.0167
 2.3640	47.0735
 2.3630	47.1232
 2.3620	47.0728
 2.3610	47.0820
 2.3600	47.0934
 2.3590	47.0849
 2.3580	47.0842
 2.3570	47.0685
 2.3560	47.1083
 2.3550	47.1386
 2.3540	47.1506
 2.3530	47.1131
 2.3520	47.1206
 2.3510	47.0688
 2.3500	47.0226
 2.3490	47.1365
 2.3480	47.1382
 2.3470	47.0802
 2.3460	47.0838
 2.3450	47.1260
 2.3440	47.1174
 2.3430	47.0344
 2.3420	46.9742
 2.3410	47.0199
 2.3400	47.0191
 2.3390	47.0656
 2.3380	47.0078
 2.3370	46.9639
 2.3360	46.9916
 2.3350	46.9713
 2.3340	46.9660
 2.3330	46.9567
 2.3320	46.9165
 2.3310	46.8346
 2.3300	46.8268
 2.3290	46.8588
 2.3280	46.8016
 2.3270	46.7566
 2.3260	46.7165
 2.3250	46.7010
 2.3240	46.6715
 2.3230	46.6675
 2.3220	46.5825
 2.3210	46.5960
 2.3200	46.5950
 2.3190	46.6670
 2.3180	46.6177
 2.3170	46.5922
 2.3160	46.5251
 2.3150	46.4982
 2.3140	46.4592
 2.3130	46.5008
 2.3120	46.4621
 2.3110	46.4850
 2.3100	46.4273
 2.3090	46.4610
 2.3080	46.4466
 2.3070	46.4865
 2.3060	46.4444
 2.3050	46.4738
 2.3040	46.4549
 2.3030	46.5013
 2.3020	46.4373
 2.3010	46.4667
 2.3000	46.3941
 2.2990	46.4097
 2.2980	46.4495
 2.2970	46.4934
 2.2960	46.4572
 2.2950	46.5175
 2.2940	46.5483
 2.2930	46.5369
 2.2920	46.5382
 2.2910	46.6135
 2.2900	46.4803
 2.2890	46.5311
 2.2880	46.5751
 2.2870	46.5725
 2.2860	46.5404
 2.2850	46.5689
 2.2840	46.5156
 2.2830	46.5618
 2.2820	46.5439
 2.2810	46.6871
 2.2800	46.6087
 2.2790	46.7072
 2.2780	46.6489
 2.2770	46.6632
 2.2760	46.6514
 2.2750	46.6744
 2.2740	46.6163
 2.2730	46.7128
 2.2720	46.6243
 2.2710	46.6889
 2.2700	46.6733
 2.2690	46.6630
 2.2680	46.6441
 2.2670	46.7065
 2.2660	46.7023
 2.2650	46.6479
 2.2640	46.6769
 2.2630	46.7420
 2.2620	46.7079
 2.2610	46.6567
 2.2600	46.6938
 2.2590	46.6844
 2.2580	46.6725
 2.2570	46.6529
 2.2560	46.6538
 2.2550	46.6047
 2.2540	46.6430
 2.2530	46.7185
 2.2520	46.6592
 2.2510	46.6199
 2.2500	46.6582
 2.2490	46.6469
 2.2480	46.6331
 2.2470	46.6957
 2.2460	46.6108
 2.2450	46.6313
 2.2440	46.5487
 2.2430	46.7162
 2.2420	46.6090
 2.2410	46.6411
 2.2400	46.6142
 2.2390	46.6742
 2.2380	46.6063
 2.2370	46.5923
 2.2360	46.6138
 2.2350	46.6806
 2.2340	46.6552
 2.2330	46.6504
 2.2320	46.5660
 2.2310	46.7406
 2.2300	46.5620
 2.2290	46.7078
 2.2280	46.5888
 2.2270	46.6678
 2.2260	46.6244
 2.2250	46.6653
 2.2240	46.5377
 2.2230	46.6811
 2.2220	46.6844
 2.2210	46.6874
 2.2200	46.6082
 2.2190	46.6303
 2.2180	46.7670
 2.2170	46.6808
 2.2160	46.5731
 2.2150	46.7225
 2.2140	46.6966
 2.2130	46.6581
 2.2120	46.6055
 2.2110	46.6384
 2.2100	46.7417
 2.2090	46.7793
 2.2080	46.6783
 2.2070	46.8014
 2.2060	46.7280
 2.2050	46.7335
 2.2040	46.7173
 2.2030	46.7567
 2.2020	46.7122
 2.2010	46.7889
 2.2000	46.7673
 2.1990	46.7568
 2.1980	46.7155
 2.1970	46.8664
 2.1960	46.7846
 2.1950	46.8070
 2.1940	46.7628
 2.1930	46.8225
 2.1920	46.7829
 2.1910	46.8145
 2.1900	46.7549
 2.1890	46.9180
 2.1880	46.8253
 2.1870	46.8407
 2.1860	46.8039
 2.1850	46.8144
 2.1840	46.7549
 2.1830	46.8011
 2.1820	46.6929
 2.1810	46.9068
 2.1800	46.7986
 2.1790	46.8389
 2.1780	46.8458
 2.1770	46.8926
 2.1760	46.8130
 2.1750	46.8674
 2.1740	46.8583
 2.1730	46.9808
 2.1720	46.8817
 2.1710	46.8251
 2.1700	46.8690
 2.1690	46.9060
 2.1680	46.9050
 2.1670	46.9947
 2.1660	46.8670
 2.1650	46.8968
 2.1640	46.9179
 2.1630	46.9754
 2.1620	46.9318
 2.1610	46.9994
 2.1600	47.0099
 2.1590	47.0211
 2.1580	46.9686
 2.1570	47.0539
 2.1560	47.0065
 2.1550	47.0544
 2.1540	46.9861
 2.1530	47.0140
 2.1520	46.9868
 2.1510	47.0983
 2.1500	46.9968
 2.1490	47.0132
 2.1480	46.9679
 2.1470	46.9386
 2.1460	46.9648
 2.1450	46.9649
 2.1440	47.0192
 2.1430	47.0137
 2.1420	46.9920
 2.1410	47.0139
 2.1400	46.9246
 2.1390	46.9616
 2.1380	46.9436
 2.1370	46.9329
 2.1360	46.8640
 2.1350	46.9218
 2.1340	46.8280
 2.1330	46.8740
 2.1320	46.8560
 2.1310	46.8337
 2.1300	46.7465
 2.1290	46.8045
 2.1280	46.7710
 2.1270	46.7194
 2.1260	46.6349
 2.1250	46.6256
 2.1240	46.6357
 2.1230	46.5732
 2.1220	46.5141
 2.1210	46.5194
 2.1200	46.5437
 2.1190	46.5585
 2.1180	46.5232
 2.1170	46.5185
 2.1160	46.4091
 2.1150	46.3753
 2.1140	46.3485
 2.1130	46.3353
 2.1120	46.2534
 2.1110	46.2299
 2.1100	46.1965
 2.1090	46.2195
 2.1080	46.1484
 2.1070	46.1113
 2.1060	46.1153
 2.1050	46.1368
 2.1040	46.1055
 2.1030	46.0556
 2.1020	45.9649
 2.1010	46.0020
 2.1000	46.0214
 2.0990	46.0038
 2.0980	45.9732
 2.0970	45.9895
 2.0960	45.9468
 2.0950	45.9586
 2.0940	45.9467
 2.0930	45.9247
 2.0920	45.9763
 2.0910	46.0168
 2.0900	45.9676
 2.0890	45.9292
 2.0880	45.9905
 2.0870	45.9251
 2.0860	45.9232
 2.0850	46.0068
 2.0840	45.9993
 2.0830	46.0028
 2.0820	45.9583
 2.0810	45.9860
 2.0800	45.9470
 2.0790	45.8728
 2.0780	45.9123
 2.0770	45.9566
 2.0760	45.9572
 2.0750	45.9460
 2.0740	45.9697
 2.0730	46.0157
 2.0720	45.9395
 2.0710	45.8712
 2.0700	45.9177
 2.0690	45.9541
 2.0680	45.9585
 2.0670	45.9993
 2.0660	45.9869
 2.0650	45.9559
 2.0640	45.9466
 2.0630	45.9475
 2.0620	45.9568
 2.0610	45.9611
 2.0600	45.9609
 2.0590	45.9971
 2.0580	45.9818
 2.0570	45.9383
 2.0560	45.9913
 2.0550	46.0269
 2.0540	45.9940
 2.0530	45.9307
 2.0520	45.9816
 2.0510	45.9992
 2.0500	45.9777
 2.0490	45.9845
 2.0480	45.9732
 2.0470	45.9329
 2.0460	45.9602
 2.0450	45.9226
 2.0440	45.9625
 2.0430	45.9796
 2.0420	45.9772
 2.0410	45.9005
 2.0400	45.9468
 2.0390	45.9409
 2.0380	45.9229
 2.0370	45.9218
 2.0360	45.9358
 2.0350	45.8731
 2.0340	45.8808
 2.0330	45.8951
 2.0320	45.9216
 2.0310	45.9039
 2.0300	45.9323
 2.0290	45.9155
 2.0280	45.9662
 2.0270	45.8864
 2.0260	45.8591
 2.0250	45.8622
 2.0240	45.8458
 2.0230	45.8387
 2.0220	45.8728
 2.0210	45.8755
 2.0200	45.8476
 2.0190	45.8123
 2.0180	45.8374
 2.0170	45.7849
 2.0160	45.7772
 2.0150	45.7977
 2.0140	45.8498
 2.0130	45.8026
 2.0120	45.8484
 2.0110	45.7781
 2.0100	45.7447
 2.0090	45.7163
 2.0080	45.8245
 2.0070	45.7579
 2.0060	45.8124
 2.0050	45.7344
 2.0040	45.7070
 2.0030	45.6637
 2.0020	45.7196
 2.0010	45.7077
 2.0000	45.7890
 1.9990	45.7114
 1.9980	45.6849
 1.9970	45.5797
 1.9960	45.6200
 1.9950	45.5920
 1.9940	45.6851
 1.9930	45.6366
 1.9920	45.6038
 1.9910	45.5888
 1.9900	45.5798
 1.9890	45.5501
 1.9880	45.5411
 1.9870	45.5109
 1.9860	45.5630
 1.9850	45.4525
 1.9840	45.4232
 1.9830	45.4523
 1.9820	45.5264
 1.9810	45.4501
 1.9800	45.4416
 1.9790	45.4058
 1.9780	45.4145
 1.9770	45.4111
 1.9760	45.3977
 1.9750	45.3614
 1.9740	45.3886
 1.9730	45.3311
 1.9720	45.3696
 1.9710	45.2868
 1.9700	45.3796
 1.9690	45.3078
 1.9680	45.4044
 1.9670	45.2564
 1.9660	45.3026
 1.9650	45.2342
 1.9640	45.2398
 1.9630	45.2230
 1.9620	45.2980
 1.9610	45.1802
 1.9600	45.2321
 1.9590	45.1967
 1.9580	45.3216
 1.9570	45.1317
 1.9560	45.2608
 1.9550	45.1888
 1.9540	45.2063
 1.9530	45.2100
 1.9520	45.1748
 1.9510	45.1723
 1.9500	45.2057
 1.9490	45.1547
 1.9480	45.1777
 1.9470	45.0836
 1.9460	45.1340
 1.9450	45.1168
 1.9440	45.2149
 1.9430	45.1265
 1.9420	45.1026
 1.9410	45.0782
 1.9400	45.0864
 1.9390	45.1404
 1.9380	45.0906
 1.9370	45.0561
 1.9360	45.1156
 1.9350	45.0410
 1.9340	45.1122
 1.9330	45.0711
 1.9320	45.0802
 1.9310	44.9933
 1.9300	45.1707
 1.9290	45.0403
 1.9280	45.1816
 1.9270	45.0633
 1.9260	45.0376
 1.9250	45.0432
 1.9240	45.0835
 1.9230	45.0522
 1.9220	45.0496
 1.9210	45.0203
 1.9200	45.0901
 1.9190	45.0275
 1.9180	45.0437
 1.9170	45.0316
 1.9160	45.0303
 1.9150	45.0894
 1.9140	45.1125
 1.9130	45.1241
 1.9120	45.1197
 1.9110	45.0057
 1.9100	45.0664
 1.9090	45.0465
 1.9080	45.1046
 1.9070	45.0191
 1.9060	45.0923
 1.9050	45.0178
 1.9040	45.1708
 1.9030	44.9733
 1.9020	45.1176
 1.9010	45.1161
 1.9000	45.1130
 1.8990	45.0897
 1.8980	45.0930
 1.8970	45.1535
 1.8960	45.1489
 1.8950	45.1067
 1.8940	45.1567
 1.8930	45.0667
 1.8920	45.0939
 1.8910	45.0511
 1.8900	45.0917
 1.8890	45.0709
 1.8880	45.2044
 1.8870	45.0090
 1.8860	45.1311
 1.8850	45.1119
 1.8840	45.1437
 1.8830	45.0643
 1.8820	45.1137
 1.8810	45.0696
 1.8800	45.0382
 1.8790	45.0029
 1.8780	45.1329
 1.8770	45.0135
 1.8760	44.9987
 1.8750	45.0139
 1.8740	45.0306
 1.8730	45.0172
 1.8720	45.0652
 1.8710	45.0448
 1.8700	45.0828
 1.8690	44.9913
 1.8680	45.0592
 1.8670	45.0454
 1.8660	45.0506
 1.8650	45.0613
 1.8640	45.0921
 1.8630	44.9792
 1.8620	44.9940
 1.8610	44.9501
 1.8600	45.0290
 1.8590	45.0214
 1.8580	44.9996
 1.8570	44.9461
 1.8560	45.0309
 1.8550	45.0395
 1.8540	44.9983
 1.8530	44.9376
 1.8520	44.9268
 1.8510	44.9263
 1.8500	44.9646
 1.8490	44.8886
 1.8480	44.9026
 1.8470	44.9206
 1.8460	44.9047
 1.8450	44.9020
 1.8440	44.8461
 1.8430	44.8523
 1.8420	44.9198
 1.8410	44.8364
 1.8400	44.8719
 1.8390	44.8450
 1.8380	44.7984
 1.8370	44.8226
 1.8360	44.8867
 1.8350	44.8183
 1.8340	44.8301
 1.8330	44.8484
 1.8320	44.8929
 1.8310	44.8734
 1.8300	44.8633
 1.8290	44.7759
 1.8280	44.8032
 1.8270	44.8015
 1.8260	44.8208
 1.8250	44.7382
 1.8240	44.7491
 1.8230	44.7074
 1.8220	44.7083
 1.8210	44.7115
 1.8200	44.6910
 1.8190	44.7231
 1.8180	44.7397
 1.8170	44.7135
 1.8160	44.6765
 1.8150	44.6646
 1.8140	44.7120
 1.8130	44.6912
 1.8120	44.6679
 1.8110	44.6969
 1.8100	44.7332
 1.8090	44.6684
 1.8080	44.6649
 1.8070	44.6259
 1.8060	44.6523
 1.8050	44.6299
 1.8040	44.6621
 1.8030	44.6456
 1.8020	44.6099
 1.8010	44.6227
 1.8000	44.6472
 1.7990	44.6196
 1.7980	44.5821
 1.7970	44.5585
 1.7960	44.5523
 1.7950	44.5508
 1.7940	44.6125
 1.7930	44.5722
 1.7920	44.5350
 1.7910	44.5547
 1.7900	44.4890
 1.7890	44.4787
 1.7880	44.5118
 1.7870	44.4934
 1.7860	44.5251
 1.7850	44.4907
 1.7840	44.4640
 1.7830	44.4818
 1.7820	44.4906
 1.7810	44.4962
 1.7800	44.4542
 1.7790	44.4192
 1.7780	44.4565
 1.7770	44.4954
 1.7760	44.4384
 1.7750	44.4175
 1.7740	44.4422
 1.7730	44.4418
 1.7720	44.4078
 1.7710	44.4246
 1.7700	44.4050
 1.7690	44.4086
 1.7680	44.3698
 1.7670	44.3864
 1.7660	44.3656
 1.7650	44.3348
 1.7640	44.3429
 1.7630	44.3541
 1.7620	44.2966
 1.7610	44.3086
 1.7600	44.2969
 1.7590	44.2816
 1.7580	44.2427
 1.7570	44.2770
 1.7560	44.3027
 1.7550	44.3026
 1.7540	44.2765
 1.7530	44.2344
 1.7520	44.2361
 1.7510	44.2664
 1.7500	44.2249
 1.7490	44.2386
 1.7480	44.2119
 1.7470	44.2079
 1.7460	44.2158
 1.7450	44.2517
 1.7440	44.2070
 1.7430	44.2511
 1.7420	44.2058
 1.7410	44.2386
 1.7400	44.2093
 1.7390	44.2280
 1.7380	44.1946
 1.7370	44.2242
 1.7360	44.1678
 1.7350	44.1903
 1.7340	44.1415
 1.7330	44.1964
 1.7320	44.1276
 1.7310	44.2228
 1.7300	44.1696
 1.7290	44.2285
 1.7280	44.1419
 1.7270	44.1613
 1.7260	44.1409
 1.7250	44.1703
 1.7240	44.1103
 1.7230	44.1700
 1.7220	44.1325
 1.7210	44.0785
 1.7200	44.0630
 1.7190	44.1103
 1.7180	44.0931
 1.7170	44.1584
 1.7160	44.1027
 1.7150	44.1184
 1.7140	43.9966
 1.7130	44.0619
 1.7120	43.9618
 1.7110	44.0221
 1.7100	44.0016
 1.7090	44.0250
 1.7080	43.9735
 1.7070	44.0623
 1.7060	44.0114
 1.7050	43.9570
 1.7040	43.9960
 1.7030	44.0469
 1.7020	43.8976
 1.7010	44.0063
 1.7000	43.8915
 1.6990	43.9429
 1.6980	43.8888
 1.6970	43.9597
 1.6960	43.8943
 1.6950	43.9701
 1.6940	43.8976
 1.6930	43.9662
 1.6920	43.8693
 1.6910	43.9621
 1.6900	43.8236
 1.6890	43.9216
 1.6880	43.7955
 1.6870	43.8790
 1.6860	43.8647
 1.6850	43.9302
 1.6840	43.8527
 1.6830	43.8906
 1.6820	43.8522
 1.6810	43.8799
 1.6800	43.7624
 1.6790	43.8220
 1.6780	43.7808
 1.6770	43.8231
 1.6760	43.8147
 1.6750	43.8609
 1.6740	43.7913
 1.6730	43.8222
 1.6720	43.7537
 1.6710	43.8204
 1.6700	43.7516
 1.6690	43.8267
 1.6680	43.6332
 1.6670	43.7553
 1.6660	43.7278
 1.6650	43.6902
 1.6640	43.6622
 1.6630	43.7807
 1.6620	43.6198
 1.6610	43.7158
 1.6600	43.6828
 1.6590	43.7276
 1.6580	43.6111
 1.6570	43.7793
 1.6560	43.6393
 1.6550	43.6941
 1.6540	43.6521
 1.6530	43.7381
 1.6520	43.6377
 1.6510	43.7327
 1.6500	43.6757
 1.6490	43.6165
 1.6480	43.5377
 1.6470	43.6003
 1.6460	43.5328
 1.6450	43.6341
 1.6440	43.5519
 1.6430	43.6461
 1.6420	43.5968
 1.6410	43.5412
 1.6400	43.6307
 1.6390	43.4954
 1.6380	43.5876
 1.6370	43.6821
 1.6360	43.5579
 1.6350	43.6657
 1.6340	43.5167
 1.6330	43.6454
 1.6320	43.5317
 1.6310	43.6018
 1.6300	43.5167
 1.6290	43.5027
 1.6280	43.4390
 1.6270	43.5794
 1.6260	43.5188
 1.6250	43.4794
 1.6240	43.4335
 1.6230	43.6250
 1.6220	43.4974
 1.6210	43.4993
 1.6200	43.4424
 1.6190	43.6373
 1.6180	43.5091
 1.6170	43.5535
 1.6160	43.4868
 1.6150	43.4891
 1.6140	43.4632
 1.6130	43.5378
 1.6120	43.3525
 1.6110	43.4516
 1.6100	43.4293
 1.6090	43.5375
 1.6080	43.4072
 1.6070	43.5185
 1.6060	43.4511
 1.6050	43.4963
 1.6040	43.4139
 1.6030	43.4730
 1.6020	43.4176
 1.6010	43.4124
 1.6000	43.4160
 1.5990	43.5134
 1.5980	43.4739
 1.5970	43.4918
 1.5960	43.3864
 1.5950	43.4183
 1.5940	43.3580
 1.5930	43.4435
 1.5920	43.3888
 1.5910	43.4569
 1.5900	43.3565
 1.5890	43.4118
 1.5880	43.3651
 1.5870	43.3469
 1.5860	43.3647
 1.5850	43.4591
 1.5840	43.3348
 1.5830	43.3483
 1.5820	43.3414
 1.5810	43.3841
 1.5800	43.2744
 1.5790	43.3200
 1.5780	43.2980
 1.5770	43.3484
 1.5760	43.3321
 1.5750	43.3476
 1.5740	43.2934
 1.5730	43.3714
 1.5720	43.3093
 1.5710	43.2829
 1.5700	43.3131
 1.5690	43.3593
 1.5680	43.3410
 1.5670	43.3425
 1.5660	43.3240
 1.5650	43.3034
 1.5640	43.2525
 1.5630	43.2736
 1.5620	43.2865
 1.5610	43.3038
 1.5600	43.2393
 1.5590	43.3076
 1.5580	43.3030
 1.5570	43.3190
 1.5560	43.2391
 1.5550	43.2615
 1.5540	43.2468
 1.5530	43.2532
 1.5520	43.2275
 1.5510	43.2811
 1.5500	43.2245
 1.5490	43.2295
 1.5480	43.2038
 1.5470	43.2243
 1.5460	43.2098
 1.5450	43.2556
 1.5440	43.2246
 1.5430	43.2393
 1.5420	43.2219
 1.5410	43.2110
 1.5400	43.1872
 1.5390	43.2034
 1.5380	43.2264
 1.5370	43.2413
 1.5360	43.2374
 1.5350	43.2444
 1.5340	43.1927
 1.5330	43.2294
 1.5320	43.1702
 1.5310	43.2226
 1.5300	43.1938
 1.5290	43.2046
 1.5280	43.1943
 1.5270	43.2483
 1.5260	43.2199
 1.5250	43.1931
 1.5240	43.1267
 1.5230	43.0968
 1.5220	43.0861
 1.5210	43.1282
 1.5200	43.1312
 1.5190	43.1415
 1.5180	43.1549
 1.5170	43.1200
 1.5160	43.1426
 1.5150	43.1694
 1.5140	43.1339
 1.5130	43.1270
 1.5120	43.1381
 1.5110	43.1447
 1.5100	43.0984
 1.5090	43.1187
 1.5080	43.1070
 1.5070	43.1031
 1.5060	43.1041
 1.5050	43.1048
 1.5040	43.0917
 1.5030	43.1197
 1.5020	43.1097
 1.5010	43.1058
 1.5000	43.1060
 1.4990	43.0910
 1.4980	43.1043
 1.4970	43.0907
 1.4960	43.1158
 1.4950	43.1146
 1.4940	43.0730
 1.4930	43.0160
 1.4920	43.0319
 1.4910	43.0614
 1.4900	43.0677
 1.4890	43.0873
 1.4880	43.0657
 1.4870	43.0055
 1.4860	43.0564
 1.4850	43.0605
 1.4840	43.0481
 1.4830	43.0344
 1.4820	43.0596
 1.4810	43.0709
 1.4800	43.0414
 1.4790	43.0300
 1.4780	43.0462
 1.4770	43.0601
 1.4760	43.0423
 1.4750	43.0075
 1.4740	43.0478
 1.4730	43.0431
 1.4720	42.9909
 1.4710	43.0007
 1.4700	43.0541
 1.4690	43.0136
 1.4680	43.0067
 1.4670	42.9808
 1.4660	43.0005
 1.4650	42.9594
 1.4640	43.0132
 1.4630	43.0159
 1.4620	43.0140
 1.4610	43.0111
 1.4600	43.0275
 1.4590	43.0454
 1.4580	43.0231
 1.4570	43.0039
 1.4560	42.9816
 1.4550	42.9765
 1.4540	42.9937
 1.4530	42.9565
 1.4520	43.0081
 1.4510	42.9652
 1.4500	42.9600
 1.4490	42.9069
 1.4480	42.9435
 1.4470	42.9073
 1.4460	42.9804
 1.4450	42.9663
 1.4440	42.9859
 1.4430	42.9183
 1.4420	42.9452
 1.4410	42.8845
 1.4400	43.0163
 1.4390	42.9854
 1.4380	42.9598
 1.4370	42.9320
 1.4360	43.0007
 1.4350	42.9518
 1.4340	42.9765
 1.4330	42.9380
 1.4320	42.9754
 1.4310	42.8812
 1.4300	42.9751
 1.4290	42.8769
 1.4280	42.9535
 1.4270	42.8961
 1.4260	42.9234
 1.4250	42.9126
 1.4240	42.9579
 1.4230	42.8866
 1.4220	42.9400
 1.4210	42.8816
 1.4200	42.9295
 1.4190	42.8358
 1.4180	42.9050
 1.4170	42.8618
 1.4160	42.8910
 1.4150	42.8716
 1.4140	42.9249
 1.4130	42.8510
 1.4120	42.8863
 1.4110	42.8238
 1.4100	42.9298
 1.4090	42.8848
 1.4080	42.8921
 1.4070	42.7863
 1.4060	42.8505
 1.4050	42.7947
 1.4040	42.9053
 1.4030	42.8034
 1.4020	42.8425
 1.4010	42.7813
 1.4000	42.7795
 1.3990	42.7149
 1.3980	42.8038
 1.3970	42.7496
 1.3960	42.8659
 1.3950	42.7803
 1.3940	42.7115
 1.3930	42.6268
 1.3920	42.7721
 1.3910	42.7758
 1.3900	42.9417
 1.3890	42.8190
 1.3880	42.9176
 1.3870	42.8323
 1.3860	42.9401
 1.3850	42.8363
 1.3840	42.9305
 1.3830	42.8443
 1.3820	42.8811
 1.3810	42.8164
 1.3800	42.9538
 1.3790	42.8377
 1.3780	42.9617
 1.3770	42.8311
 1.3760	42.8944
 1.3750	42.9144
 1.3740	42.8642
 1.3730	42.8753
 1.3720	42.9088
 1.3710	42.7881
 1.3700	42.8997
 1.3690	42.8788
 1.3680	42.8993
 1.3670	42.8197
 1.3660	42.8284
 1.3650	42.8307
 1.3640	42.8724
 1.3630	42.8992
 1.3620	42.8123
