Name: Sepiolite Mg_4Si_6O_15(OH)_2.6H_2O
Type: Mineral
Class: Silicate
Subclass: Phyllosilicate
Particle Size: Fine
Sample No.: PS-5A
Owner: JPL
Wavelength Range: VSWIR
Origin: USA, Nevada, Two Crows.
Collection Date: N/A
Description: Particle size was 0-45um. Collected by:  Clay Mineral Society Original ASTER Spectral Library name was jpl.perkin.mineral.silicate.phyllosilicate.fine.ps05a.spectrum.txt
Measurement: Hemispherical reflectance
First Column: X
Second Column: Y
X Units: Wavelength (micrometers)
Y Units:Reflectance (percent)
First X Value:  2.5000
Last X Value:  0.4000
Number of X Values: 2101
Additional Information: mineral.silicate.phyllosilicate.fine.vswir.ps-5a.jpl.perkin.ancillary.txt

 2.5000	24.3825
 2.4990	24.1653
 2.4980	24.7334
 2.4970	24.6123
 2.4960	24.5972
 2.4950	24.9456
 2.4940	25.1380
 2.4930	25.0192
 2.4920	25.3706
 2.4910	25.2508
 2.4900	25.6268
 2.4890	25.3472
 2.4880	25.9612
 2.4870	25.7360
 2.4860	26.0053
 2.4850	26.0113
 2.4840	26.2701
 2.4830	26.1987
 2.4820	26.6546
 2.4810	26.5445
 2.4800	26.7986
 2.4790	26.8865
 2.4780	27.0909
 2.4770	27.2016
 2.4760	27.2983
 2.4750	27.2666
 2.4740	27.7346
 2.4730	27.6087
 2.4720	27.9243
 2.4710	27.8817
 2.4700	27.9965
 2.4690	28.0850
 2.4680	28.3445
 2.4670	28.2529
 2.4660	28.5811
 2.4650	28.6449
 2.4640	28.8316
 2.4630	28.7978
 2.4620	28.8903
 2.4610	28.9690
 2.4600	29.1903
 2.4590	29.0557
 2.4580	29.4244
 2.4570	29.2808
 2.4560	29.4835
 2.4550	29.4795
 2.4540	29.6548
 2.4530	29.7080
 2.4520	29.8274
 2.4510	29.8262
 2.4500	29.9206
 2.4490	30.0086
 2.4480	30.1169
 2.4470	30.0711
 2.4460	30.2258
 2.4450	30.1806
 2.4440	30.3561
 2.4430	30.4348
 2.4420	30.5383
 2.4410	30.5374
 2.4400	30.6814
 2.4390	30.6032
 2.4380	30.7172
 2.4370	30.6552
 2.4360	30.8199
 2.4350	30.7815
 2.4340	30.9063
 2.4330	30.9161
 2.4320	31.0333
 2.4310	31.0268
 2.4300	31.1174
 2.4290	31.1490
 2.4280	31.2890
 2.4270	31.2334
 2.4260	31.3679
 2.4250	31.3393
 2.4240	31.4255
 2.4230	31.4727
 2.4220	31.6494
 2.4210	31.5458
 2.4200	31.7385
 2.4190	31.7486
 2.4180	31.7876
 2.4170	31.8307
 2.4160	31.9525
 2.4150	32.0094
 2.4140	32.1393
 2.4130	32.1048
 2.4120	32.2050
 2.4110	32.2186
 2.4100	32.3192
 2.4090	32.3984
 2.4080	32.4767
 2.4070	32.4832
 2.4060	32.6014
 2.4050	32.5574
 2.4040	32.5848
 2.4030	32.6271
 2.4020	32.7473
 2.4010	32.7791
 2.4000	32.7680
 2.3990	32.7238
 2.3980	32.7800
 2.3970	32.7788
 2.3960	32.8050
 2.3950	32.8103
 2.3940	32.8632
 2.3930	32.8097
 2.3920	32.9025
 2.3910	32.8964
 2.3900	32.9569
 2.3890	33.0347
 2.3880	33.1299
 2.3870	33.2025
 2.3860	33.2777
 2.3850	33.3989
 2.3840	33.5928
 2.3830	33.7624
 2.3820	33.9886
 2.3810	34.2263
 2.3800	34.4912
 2.3790	34.7380
 2.3780	34.9790
 2.3770	35.2042
 2.3760	35.5345
 2.3750	35.9015
 2.3740	36.1933
 2.3730	36.4240
 2.3720	36.7128
 2.3710	37.0133
 2.3700	37.3483
 2.3690	37.5833
 2.3680	37.8685
 2.3670	38.1315
 2.3660	38.3920
 2.3650	38.6318
 2.3640	38.8579
 2.3630	39.1322
 2.3620	39.3892
 2.3610	39.5989
 2.3600	39.8305
 2.3590	40.0214
 2.3580	40.2236
 2.3570	40.4212
 2.3560	40.6610
 2.3550	40.8559
 2.3540	41.0513
 2.3530	41.2960
 2.3520	41.4729
 2.3510	41.6534
 2.3500	41.8666
 2.3490	42.1125
 2.3480	42.2595
 2.3470	42.4095
 2.3460	42.6009
 2.3450	42.7923
 2.3440	42.9421
 2.3430	43.1185
 2.3420	43.2624
 2.3410	43.3869
 2.3400	43.4893
 2.3390	43.5736
 2.3380	43.6194
 2.3370	43.7201
 2.3360	43.7534
 2.3350	43.6763
 2.3340	43.6196
 2.3330	43.5724
 2.3320	43.4573
 2.3310	43.3006
 2.3300	43.1409
 2.3290	43.0106
 2.3280	42.7311
 2.3270	42.4786
 2.3260	42.2092
 2.3250	41.9423
 2.3240	41.5757
 2.3230	41.2903
 2.3220	40.9852
 2.3210	40.6801
 2.3200	40.2976
 2.3190	39.9991
 2.3180	39.6946
 2.3170	39.4949
 2.3160	39.2815
 2.3150	39.1916
 2.3140	39.0407
 2.3130	39.0027
 2.3120	38.9993
 2.3110	39.0850
 2.3100	39.1594
 2.3090	39.3402
 2.3080	39.4933
 2.3070	39.7483
 2.3060	39.9329
 2.3050	40.2759
 2.3040	40.5896
 2.3030	40.9260
 2.3020	41.2276
 2.3010	41.5986
 2.3000	41.9234
 2.2990	42.2569
 2.2980	42.5518
 2.2970	42.8555
 2.2960	43.1436
 2.2950	43.4253
 2.2940	43.6358
 2.2930	43.9212
 2.2920	44.0978
 2.2910	44.4445
 2.2900	44.7229
 2.2890	45.0077
 2.2880	45.2547
 2.2870	45.6084
 2.2860	45.9250
 2.2850	46.2339
 2.2840	46.6215
 2.2830	47.0101
 2.2820	47.3284
 2.2810	47.7376
 2.2800	48.0868
 2.2790	48.5278
 2.2780	48.9739
 2.2770	49.3416
 2.2760	49.6208
 2.2750	50.0130
 2.2740	50.3045
 2.2730	50.6311
 2.2720	50.8911
 2.2710	51.1224
 2.2700	51.4256
 2.2690	51.6359
 2.2680	51.8316
 2.2670	52.0238
 2.2660	52.1589
 2.2650	52.3653
 2.2640	52.4928
 2.2630	52.6131
 2.2620	52.7569
 2.2610	52.9341
 2.2600	53.0507
 2.2590	53.1910
 2.2580	53.2773
 2.2570	53.4550
 2.2560	53.5940
 2.2550	53.6649
 2.2540	53.7193
 2.2530	53.8801
 2.2520	53.9272
 2.2510	54.1697
 2.2500	54.1851
 2.2490	54.3023
 2.2480	54.2665
 2.2470	54.3897
 2.2460	54.4567
 2.2450	54.6014
 2.2440	54.6299
 2.2430	54.7057
 2.2420	54.6240
 2.2410	54.7249
 2.2400	54.7066
 2.2390	54.8196
 2.2380	54.8556
 2.2370	54.9115
 2.2360	54.8827
 2.2350	54.9377
 2.2340	54.9233
 2.2330	55.0483
 2.2320	55.0136
 2.2310	55.1690
 2.2300	55.0951
 2.2290	55.1904
 2.2280	55.1508
 2.2270	55.3100
 2.2260	55.2961
 2.2250	55.4238
 2.2240	55.4824
 2.2230	55.5170
 2.2220	55.5716
 2.2210	55.6981
 2.2200	55.7152
 2.2190	55.8998
 2.2180	55.8188
 2.2170	56.0004
 2.2160	55.9837
 2.2150	56.0871
 2.2140	56.1581
 2.2130	56.3731
 2.2120	56.3341
 2.2110	56.3325
 2.2100	56.4368
 2.2090	56.6236
 2.2080	56.5543
 2.2070	56.7334
 2.2060	56.7868
 2.2050	56.9222
 2.2040	56.9310
 2.2030	57.1313
 2.2020	56.9941
 2.2010	57.2208
 2.2000	57.2013
 2.1990	57.2868
 2.1980	57.2291
 2.1970	57.3247
 2.1960	57.2442
 2.1950	57.4378
 2.1940	57.3687
 2.1930	57.3214
 2.1920	57.3063
 2.1910	57.4088
 2.1900	57.3093
 2.1890	57.5177
 2.1880	57.4222
 2.1870	57.4715
 2.1860	57.5147
 2.1850	57.5436
 2.1840	57.5195
 2.1830	57.6379
 2.1820	57.5331
 2.1810	57.7113
 2.1800	57.7393
 2.1790	57.8605
 2.1780	57.8312
 2.1770	57.9376
 2.1760	57.9503
 2.1750	57.9619
 2.1740	58.0005
 2.1730	58.0758
 2.1720	58.1259
 2.1710	58.2738
 2.1700	58.2109
 2.1690	58.2220
 2.1680	58.2550
 2.1670	58.3380
 2.1660	58.3262
 2.1650	58.4347
 2.1640	58.3782
 2.1630	58.3776
 2.1620	58.3694
 2.1610	58.4183
 2.1600	58.4700
 2.1590	58.4993
 2.1580	58.3852
 2.1570	58.4271
 2.1560	58.4255
 2.1550	58.5166
 2.1540	58.3461
 2.1530	58.4661
 2.1520	58.4626
 2.1510	58.4896
 2.1500	58.4761
 2.1490	58.4857
 2.1480	58.4277
 2.1470	58.4612
 2.1460	58.4216
 2.1450	58.5218
 2.1440	58.5126
 2.1430	58.5211
 2.1420	58.5007
 2.1410	58.5002
 2.1400	58.4966
 2.1390	58.5067
 2.1380	58.4311
 2.1370	58.5006
 2.1360	58.4998
 2.1350	58.4738
 2.1340	58.3821
 2.1330	58.3768
 2.1320	58.3970
 2.1310	58.3774
 2.1300	58.3027
 2.1290	58.2130
 2.1280	58.1512
 2.1270	58.1495
 2.1260	58.0333
 2.1250	57.9105
 2.1240	57.7791
 2.1230	57.7627
 2.1220	57.6941
 2.1210	57.6431
 2.1200	57.5090
 2.1190	57.4364
 2.1180	57.3470
 2.1170	57.2620
 2.1160	57.1324
 2.1150	57.0446
 2.1140	56.9839
 2.1130	56.8891
 2.1120	56.8073
 2.1110	56.7737
 2.1100	56.6651
 2.1090	56.5736
 2.1080	56.4395
 2.1070	56.4175
 2.1060	56.2866
 2.1050	56.1766
 2.1040	56.0406
 2.1030	55.9323
 2.1020	55.8357
 2.1010	55.7273
 2.1000	55.5834
 2.0990	55.5292
 2.0980	55.4492
 2.0970	55.3771
 2.0960	55.2717
 2.0950	55.2267
 2.0940	55.2034
 2.0930	55.1241
 2.0920	55.0259
 2.0910	55.0122
 2.0900	54.9458
 2.0890	54.8937
 2.0880	54.8269
 2.0870	54.7819
 2.0860	54.7078
 2.0850	54.6633
 2.0840	54.6418
 2.0830	54.5572
 2.0820	54.4467
 2.0810	54.4515
 2.0800	54.4062
 2.0790	54.2926
 2.0780	54.2755
 2.0770	54.2604
 2.0760	54.1663
 2.0750	54.1502
 2.0740	54.1409
 2.0730	54.0660
 2.0720	54.0123
 2.0710	53.9945
 2.0700	53.9013
 2.0690	53.8753
 2.0680	53.8504
 2.0670	53.7507
 2.0660	53.7156
 2.0650	53.6836
 2.0640	53.6071
 2.0630	53.5590
 2.0620	53.5408
 2.0610	53.4747
 2.0600	53.4724
 2.0590	53.4465
 2.0580	53.3735
 2.0570	53.3030
 2.0560	53.2255
 2.0550	53.2184
 2.0540	53.2217
 2.0530	53.1403
 2.0520	53.0542
 2.0510	53.0048
 2.0500	52.9470
 2.0490	52.8636
 2.0480	52.8447
 2.0470	52.7713
 2.0460	52.6991
 2.0450	52.5884
 2.0440	52.5588
 2.0430	52.4871
 2.0420	52.4292
 2.0410	52.3723
 2.0400	52.2775
 2.0390	52.1112
 2.0380	51.9973
 2.0370	51.8479
 2.0360	51.7457
 2.0350	51.6321
 2.0340	51.4738
 2.0330	51.2967
 2.0320	51.1898
 2.0310	51.0429
 2.0300	50.8730
 2.0290	50.6845
 2.0280	50.5658
 2.0270	50.3325
 2.0260	50.1662
 2.0250	49.9983
 2.0240	49.8459
 2.0230	49.6149
 2.0220	49.4568
 2.0210	49.2561
 2.0200	49.0279
 2.0190	48.8327
 2.0180	48.6402
 2.0170	48.4537
 2.0160	48.2503
 2.0150	48.0344
 2.0140	47.8698
 2.0130	47.6251
 2.0120	47.5222
 2.0110	47.2429
 2.0100	47.0833
 2.0090	46.8200
 2.0080	46.6173
 2.0070	46.3321
 2.0060	46.1727
 2.0050	45.9423
 2.0040	45.7729
 2.0030	45.5486
 2.0020	45.3366
 2.0010	45.1181
 2.0000	44.9385
 1.9990	44.6705
 1.9980	44.4393
 1.9970	44.2576
 1.9960	44.0669
 1.9950	43.8362
 1.9940	43.7026
 1.9930	43.4976
 1.9920	43.3163
 1.9910	43.1188
 1.9900	42.9296
 1.9890	42.7687
 1.9880	42.6675
 1.9870	42.4401
 1.9860	42.3022
 1.9850	42.1430
 1.9840	42.0245
 1.9830	41.8807
 1.9820	41.7580
 1.9810	41.6475
 1.9800	41.5679
 1.9790	41.4100
 1.9780	41.3962
 1.9770	41.2095
 1.9760	41.1659
 1.9750	41.0084
 1.9740	41.0622
 1.9730	40.9446
 1.9720	40.8658
 1.9710	40.7950
 1.9700	40.7795
 1.9690	40.7706
 1.9680	40.7420
 1.9670	40.5986
 1.9660	40.5896
 1.9650	40.5550
 1.9640	40.6068
 1.9630	40.5561
 1.9620	40.5285
 1.9610	40.4658
 1.9600	40.5266
 1.9590	40.4575
 1.9580	40.4386
 1.9570	40.3620
 1.9560	40.3927
 1.9550	40.3177
 1.9540	40.3359
 1.9530	40.2257
 1.9520	40.2277
 1.9510	40.0677
 1.9500	40.0491
 1.9490	39.9710
 1.9480	39.8442
 1.9470	39.7143
 1.9460	39.6479
 1.9450	39.3920
 1.9440	39.2914
 1.9430	39.0037
 1.9420	38.8317
 1.9410	38.5007
 1.9400	38.2197
 1.9390	37.8305
 1.9380	37.4909
 1.9370	36.8834
 1.9360	36.5438
 1.9350	35.8974
 1.9340	35.3766
 1.9330	34.6266
 1.9320	33.9647
 1.9310	33.2025
 1.9300	32.4603
 1.9290	31.5223
 1.9280	30.8550
 1.9270	29.8989
 1.9260	29.0014
 1.9250	28.2518
 1.9240	27.6030
 1.9230	26.7513
 1.9220	26.2006
 1.9210	25.5638
 1.9200	25.2165
 1.9190	24.6907
 1.9180	24.4643
 1.9170	24.1298
 1.9160	24.0088
 1.9150	23.8386
 1.9140	23.8140
 1.9130	23.7280
 1.9120	23.9229
 1.9110	23.8562
 1.9100	23.9807
 1.9090	24.0597
 1.9080	24.3064
 1.9070	24.4449
 1.9060	24.7305
 1.9050	25.1178
 1.9040	25.6635
 1.9030	26.1545
 1.9020	26.8919
 1.9010	27.5411
 1.9000	28.5444
 1.8990	29.4952
 1.8980	30.5387
 1.8970	31.6228
 1.8960	32.8185
 1.8950	33.9560
 1.8940	35.3226
 1.8930	36.5927
 1.8920	37.9224
 1.8910	39.1342
 1.8900	40.5101
 1.8890	41.7309
 1.8880	42.9851
 1.8870	44.1490
 1.8860	45.2203
 1.8850	46.2499
 1.8840	47.2858
 1.8830	48.2321
 1.8820	49.4051
 1.8810	50.3448
 1.8800	51.3629
 1.8790	52.2927
 1.8780	53.2447
 1.8770	54.1482
 1.8760	55.1081
 1.8750	56.0714
 1.8740	57.0772
 1.8730	57.9516
 1.8720	58.8865
 1.8710	59.7722
 1.8700	60.5751
 1.8690	61.2661
 1.8680	61.9769
 1.8670	62.5076
 1.8660	62.9527
 1.8650	63.4080
 1.8640	63.8038
 1.8630	64.1637
 1.8620	64.5412
 1.8610	64.8551
 1.8600	65.2426
 1.8590	65.5125
 1.8580	65.7815
 1.8570	66.0394
 1.8560	66.2374
 1.8550	66.5143
 1.8540	66.6656
 1.8530	66.7938
 1.8520	67.0465
 1.8510	67.2070
 1.8500	67.4183
 1.8490	67.5350
 1.8480	67.7250
 1.8470	67.8077
 1.8460	67.9755
 1.8450	68.0926
 1.8440	68.2068
 1.8430	68.2363
 1.8420	68.3925
 1.8410	68.4138
 1.8400	68.5543
 1.8390	68.6408
 1.8380	68.7464
 1.8370	68.8066
 1.8360	68.8911
 1.8350	68.9292
 1.8340	69.0122
 1.8330	69.0719
 1.8320	69.1578
 1.8310	69.1909
 1.8300	69.2190
 1.8290	69.2855
 1.8280	69.3684
 1.8270	69.4095
 1.8260	69.4011
 1.8250	69.4236
 1.8240	69.5089
 1.8230	69.5043
 1.8220	69.5035
 1.8210	69.4872
 1.8200	69.5257
 1.8190	69.5264
 1.8180	69.6144
 1.8170	69.6684
 1.8160	69.6654
 1.8150	69.6173
 1.8140	69.6054
 1.8130	69.6354
 1.8120	69.6232
 1.8110	69.6036
 1.8100	69.6478
 1.8090	69.6204
 1.8080	69.5769
 1.8070	69.5840
 1.8060	69.6226
 1.8050	69.6299
 1.8040	69.6248
 1.8030	69.5840
 1.8020	69.5294
 1.8010	69.5225
 1.8000	69.5605
 1.7990	69.5276
 1.7980	69.5257
 1.7970	69.5292
 1.7960	69.4799
 1.7950	69.4817
 1.7940	69.5249
 1.7930	69.5317
 1.7920	69.6033
 1.7910	69.6454
 1.7900	69.6663
 1.7890	69.6878
 1.7880	69.7578
 1.7870	69.7709
 1.7860	69.7834
 1.7850	69.8595
 1.7840	69.9334
 1.7830	70.0077
 1.7820	70.0758
 1.7810	70.1713
 1.7800	70.2340
 1.7790	70.2398
 1.7780	70.3178
 1.7770	70.3785
 1.7760	70.4277
 1.7750	70.5382
 1.7740	70.7226
 1.7730	70.8182
 1.7720	70.8698
 1.7710	70.9315
 1.7700	70.9560
 1.7690	71.0426
 1.7680	71.1142
 1.7670	71.1537
 1.7660	71.2088
 1.7650	71.2917
 1.7640	71.3950
 1.7630	71.4827
 1.7620	71.5727
 1.7610	71.6617
 1.7600	71.6943
 1.7590	71.7650
 1.7580	71.8154
 1.7570	71.9087
 1.7560	72.0079
 1.7550	72.1054
 1.7540	72.1692
 1.7530	72.2456
 1.7520	72.3025
 1.7510	72.4181
 1.7500	72.4818
 1.7490	72.5564
 1.7480	72.6158
 1.7470	72.6335
 1.7460	72.6968
 1.7450	72.7854
 1.7440	72.7869
 1.7430	72.8108
 1.7420	72.8278
 1.7410	72.8701
 1.7400	72.8832
 1.7390	72.9168
 1.7380	72.9604
 1.7370	72.9854
 1.7360	73.0113
 1.7350	73.0426
 1.7340	73.0730
 1.7330	73.0694
 1.7320	73.0894
 1.7310	73.1772
 1.7300	73.1477
 1.7290	73.2010
 1.7280	73.2652
 1.7270	73.2576
 1.7260	73.2701
 1.7250	73.3835
 1.7240	73.3532
 1.7230	73.3735
 1.7220	73.3929
 1.7210	73.4917
 1.7200	73.4750
 1.7190	73.5612
 1.7180	73.5666
 1.7170	73.6813
 1.7160	73.6602
 1.7150	73.7273
 1.7140	73.7940
 1.7130	73.8458
 1.7120	73.8302
 1.7110	73.8851
 1.7100	73.9979
 1.7090	74.0404
 1.7080	74.0117
 1.7070	74.0314
 1.7060	74.0948
 1.7050	74.1628
 1.7040	74.1740
 1.7030	74.1704
 1.7020	74.1835
 1.7010	74.2346
 1.7000	74.2066
 1.6990	74.3096
 1.6980	74.3342
 1.6970	74.3465
 1.6960	74.3138
 1.6950	74.3925
 1.6940	74.3393
 1.6930	74.4138
 1.6920	74.4088
 1.6910	74.4005
 1.6900	74.4258
 1.6890	74.4725
 1.6880	74.4215
 1.6870	74.4818
 1.6860	74.4409
 1.6850	74.4944
 1.6840	74.4762
 1.6830	74.5048
 1.6820	74.4783
 1.6810	74.5264
 1.6800	74.4682
 1.6790	74.5859
 1.6780	74.4710
 1.6770	74.5436
 1.6760	74.4853
 1.6750	74.4742
 1.6740	74.4474
 1.6730	74.4795
 1.6720	74.4629
 1.6710	74.5321
 1.6700	74.5006
 1.6690	74.5374
 1.6680	74.4847
 1.6670	74.5160
 1.6660	74.5780
 1.6650	74.4964
 1.6640	74.4486
 1.6630	74.5342
 1.6620	74.4963
 1.6610	74.5036
 1.6600	74.4575
 1.6590	74.5101
 1.6580	74.3929
 1.6570	74.4627
 1.6560	74.5332
 1.6550	74.4714
 1.6540	74.3471
 1.6530	74.3761
 1.6520	74.4691
 1.6510	74.3968
 1.6500	74.3977
 1.6490	74.3458
 1.6480	74.3785
 1.6470	74.3905
 1.6460	74.3264
 1.6450	74.3668
 1.6440	74.3555
 1.6430	74.3703
 1.6420	74.4047
 1.6410	74.3423
 1.6400	74.3414
 1.6390	74.2545
 1.6380	74.1743
 1.6370	74.2655
 1.6360	74.2690
 1.6350	74.2870
 1.6340	74.1696
 1.6330	74.2128
 1.6320	74.0844
 1.6310	74.1665
 1.6300	74.1849
 1.6290	74.0777
 1.6280	73.9995
 1.6270	74.0594
 1.6260	74.0257
 1.6250	74.1279
 1.6240	73.9877
 1.6230	74.0082
 1.6220	74.0527
 1.6210	73.8952
 1.6200	73.8796
 1.6190	73.9254
 1.6180	73.8953
 1.6170	73.8637
 1.6160	73.8021
 1.6150	73.9124
 1.6140	73.8071
 1.6130	73.7785
 1.6120	73.7628
 1.6110	73.7858
 1.6100	73.7971
 1.6090	73.7388
 1.6080	73.6771
 1.6070	73.7603
 1.6060	73.7168
 1.6050	73.6634
 1.6040	73.6812
 1.6030	73.6010
 1.6020	73.6136
 1.6010	73.5774
 1.6000	73.5121
 1.5990	73.4774
 1.5980	73.4802
 1.5970	73.4058
 1.5960	73.4594
 1.5950	73.4184
 1.5940	73.3289
 1.5930	73.2986
 1.5920	73.2851
 1.5910	73.2370
 1.5900	73.2217
 1.5890	73.1676
 1.5880	73.1351
 1.5870	73.0181
 1.5860	73.0473
 1.5850	73.1119
 1.5840	73.0569
 1.5830	73.0190
 1.5820	72.9467
 1.5810	72.9029
 1.5800	72.8906
 1.5790	72.8415
 1.5780	72.7508
 1.5770	72.7028
 1.5760	72.7546
 1.5750	72.6319
 1.5740	72.5661
 1.5730	72.5633
 1.5720	72.4314
 1.5710	72.4453
 1.5700	72.4642
 1.5690	72.3783
 1.5680	72.2876
 1.5670	72.2434
 1.5660	72.2044
 1.5650	72.1619
 1.5640	72.0612
 1.5630	72.0220
 1.5620	71.9894
 1.5610	71.9426
 1.5600	71.8575
 1.5590	71.8226
 1.5580	71.7235
 1.5570	71.6935
 1.5560	71.6667
 1.5550	71.5945
 1.5540	71.4618
 1.5530	71.4547
 1.5520	71.2955
 1.5510	71.2168
 1.5500	71.1725
 1.5490	71.1271
 1.5480	71.0307
 1.5470	70.9685
 1.5460	70.9491
 1.5450	70.8611
 1.5440	70.7616
 1.5430	70.6747
 1.5420	70.5832
 1.5410	70.5262
 1.5400	70.4561
 1.5390	70.4117
 1.5380	70.3296
 1.5370	70.2496
 1.5360	70.1050
 1.5350	70.0387
 1.5340	69.9693
 1.5330	69.8917
 1.5320	69.7407
 1.5310	69.6772
 1.5300	69.6402
 1.5290	69.5832
 1.5280	69.4227
 1.5270	69.3084
 1.5260	69.2285
 1.5250	69.1368
 1.5240	69.0575
 1.5230	68.9861
 1.5220	68.8958
 1.5210	68.8009
 1.5200	68.7043
 1.5190	68.6060
 1.5180	68.4735
 1.5170	68.3865
 1.5160	68.2809
 1.5150	68.1437
 1.5140	68.0384
 1.5130	67.9390
 1.5120	67.8004
 1.5110	67.7201
 1.5100	67.5934
 1.5090	67.4862
 1.5080	67.3630
 1.5070	67.1989
 1.5060	67.0987
 1.5050	67.0169
 1.5040	66.8273
 1.5030	66.6172
 1.5020	66.4606
 1.5010	66.3780
 1.5000	66.2230
 1.4990	66.0488
 1.4980	65.8908
 1.4970	65.7453
 1.4960	65.5531
 1.4950	65.3926
 1.4940	65.2257
 1.4930	65.0272
 1.4920	64.8481
 1.4910	64.6084
 1.4900	64.4633
 1.4890	64.2445
 1.4880	63.9776
 1.4870	63.7875
 1.4860	63.5256
 1.4850	63.2267
 1.4840	63.0294
 1.4830	62.7261
 1.4820	62.4276
 1.4810	62.1840
 1.4800	61.9523
 1.4790	61.6821
 1.4780	61.3814
 1.4770	61.0625
 1.4760	60.8299
 1.4750	60.5909
 1.4740	60.3278
 1.4730	60.0397
 1.4720	59.8256
 1.4710	59.7388
 1.4700	59.6407
 1.4690	59.5000
 1.4680	59.4270
 1.4670	59.3750
 1.4660	59.3351
 1.4650	59.2261
 1.4640	59.1811
 1.4630	59.1567
 1.4620	59.1636
 1.4610	59.0638
 1.4600	59.0704
 1.4590	59.0486
 1.4580	58.9983
 1.4570	58.8947
 1.4560	58.8661
 1.4550	58.7088
 1.4540	58.5608
 1.4530	58.4092
 1.4520	58.2407
 1.4510	58.0235
 1.4500	57.7832
 1.4490	57.5546
 1.4480	57.3653
 1.4470	57.1159
 1.4460	56.9761
 1.4450	56.8382
 1.4440	56.7372
 1.4430	56.6777
 1.4420	56.6224
 1.4410	56.5728
 1.4400	56.6004
 1.4390	56.6027
 1.4380	56.6782
 1.4370	56.6635
 1.4360	56.6896
 1.4350	56.6615
 1.4340	56.6347
 1.4330	56.6419
 1.4320	56.5562
 1.4310	56.3941
 1.4300	56.3686
 1.4290	56.2272
 1.4280	56.1125
 1.4270	55.9116
 1.4260	55.7142
 1.4250	55.5268
 1.4240	55.3784
 1.4230	55.0787
 1.4220	54.8549
 1.4210	54.6266
 1.4200	54.5024
 1.4190	54.2287
 1.4180	54.1323
 1.4170	54.0126
 1.4160	53.9766
 1.4150	53.9632
 1.4140	54.0500
 1.4130	54.1619
 1.4120	54.4552
 1.4110	54.7254
 1.4100	55.1271
 1.4090	55.4959
 1.4080	55.9649
 1.4070	56.5553
 1.4060	57.1748
 1.4050	58.0305
 1.4040	58.7520
 1.4030	59.3961
 1.4020	60.2705
 1.4010	61.0353
 1.4000	61.9073
 1.3990	62.5717
 1.3980	63.2419
 1.3970	63.9918
 1.3960	64.5152
 1.3950	64.7858
 1.3940	64.8934
 1.3930	64.8073
 1.3920	64.4699
 1.3910	63.4131
 1.3900	61.5886
 1.3890	58.9746
 1.3880	56.8874
 1.3870	56.3111
 1.3860	57.9885
 1.3850	61.2896
 1.3840	64.9475
 1.3830	67.8051
 1.3820	69.7868
 1.3810	70.8131
 1.3800	71.5687
 1.3790	72.1219
 1.3780	72.5323
 1.3770	73.0675
 1.3760	73.5649
 1.3750	74.0381
 1.3740	74.7179
 1.3730	75.2797
 1.3720	75.6927
 1.3710	75.9535
 1.3700	76.2876
 1.3690	76.6490
 1.3680	76.8070
