Name: Cerussite PbCO_3
Type: Mineral
Class: Carbonate
Subclass: None
Particle Size: Medium
Sample No.: C-10A
Owner: JPL
Wavelength Range: VSWIR
Origin: USA, Arizona, Flux Mine.
Collection Date: N/A
Description: Particle size was 45-125um.Collected by:  JPL Original ASTER Spectral Library name was jpl.perkin.mineral.carbonate.none.medium.c10a.spectrum.txt
Measurement: Hemispherical reflectance
First Column: X
Second Column: Y
X Units: Wavelength (micrometers)
Y Units:Reflectance (percent)
First X Value:  2.5000
Last X Value:  0.4000
Number of X Values: 2101
Additional Information: mineral.carbonate.none.medium.vswir.c-10a.jpl.perkin.ancillary.txt

 2.5000	64.2160
 2.4990	63.9493
 2.4980	63.9198
 2.4970	63.6702
 2.4960	63.3472
 2.4950	63.2007
 2.4940	63.0639
 2.4930	62.9072
 2.4920	62.6514
 2.4910	62.6864
 2.4900	62.2494
 2.4890	62.0678
 2.4880	62.3639
 2.4870	61.8937
 2.4860	62.0236
 2.4850	61.9621
 2.4840	61.8146
 2.4830	61.5801
 2.4820	61.5908
 2.4810	61.4814
 2.4800	61.4209
 2.4790	61.1223
 2.4780	61.2634
 2.4770	61.0177
 2.4760	61.0607
 2.4750	61.0234
 2.4740	60.8664
 2.4730	60.7787
 2.4720	60.6840
 2.4710	60.6449
 2.4700	60.5994
 2.4690	60.4987
 2.4680	60.4783
 2.4670	60.3930
 2.4660	60.4380
 2.4650	60.3772
 2.4640	60.3799
 2.4630	60.2649
 2.4620	60.3578
 2.4610	60.3533
 2.4600	60.4111
 2.4590	60.1967
 2.4580	60.4075
 2.4570	60.3764
 2.4560	60.4403
 2.4550	60.6123
 2.4540	60.6507
 2.4530	60.6580
 2.4520	60.7534
 2.4510	60.7980
 2.4500	60.9038
 2.4490	61.0897
 2.4480	61.2546
 2.4470	61.3920
 2.4460	61.4102
 2.4450	61.5231
 2.4440	61.6961
 2.4430	61.7018
 2.4420	61.8303
 2.4410	61.8800
 2.4400	61.9923
 2.4390	62.1002
 2.4380	62.1617
 2.4370	62.2376
 2.4360	62.3932
 2.4350	62.3603
 2.4340	62.4707
 2.4330	62.4493
 2.4320	62.5356
 2.4310	62.6457
 2.4300	62.6518
 2.4290	62.5700
 2.4280	62.7519
 2.4270	62.7527
 2.4260	62.8472
 2.4250	62.8302
 2.4240	62.8980
 2.4230	62.9777
 2.4220	63.0779
 2.4210	63.1421
 2.4200	63.2314
 2.4190	63.3902
 2.4180	63.5010
 2.4170	63.5858
 2.4160	63.6801
 2.4150	63.8095
 2.4140	64.0113
 2.4130	64.1439
 2.4120	64.3495
 2.4110	64.4239
 2.4100	64.4819
 2.4090	64.5781
 2.4080	64.7526
 2.4070	64.9004
 2.4060	65.0771
 2.4050	65.2183
 2.4040	65.3401
 2.4030	65.5172
 2.4020	65.6918
 2.4010	65.7910
 2.4000	65.9249
 2.3990	66.0904
 2.3980	66.2496
 2.3970	66.3554
 2.3960	66.5258
 2.3950	66.6835
 2.3940	66.8296
 2.3930	66.9470
 2.3920	67.0811
 2.3910	67.1285
 2.3900	67.3070
 2.3890	67.4610
 2.3880	67.5554
 2.3870	67.6996
 2.3860	67.8835
 2.3850	67.9985
 2.3840	68.1099
 2.3830	68.2423
 2.3820	68.4525
 2.3810	68.5972
 2.3800	68.7064
 2.3790	68.8617
 2.3780	69.0291
 2.3770	69.1816
 2.3760	69.3135
 2.3750	69.3770
 2.3740	69.5485
 2.3730	69.7525
 2.3720	69.8673
 2.3710	69.9778
 2.3700	70.1548
 2.3690	70.2935
 2.3680	70.4215
 2.3670	70.5732
 2.3660	70.7279
 2.3650	70.8335
 2.3640	70.9767
 2.3630	71.1604
 2.3620	71.3170
 2.3610	71.4362
 2.3600	71.5657
 2.3590	71.7244
 2.3580	71.8705
 2.3570	71.9216
 2.3560	72.0461
 2.3550	72.1992
 2.3540	72.3164
 2.3530	72.4728
 2.3520	72.5491
 2.3510	72.6540
 2.3500	72.7960
 2.3490	72.9165
 2.3480	73.0755
 2.3470	73.2230
 2.3460	73.3432
 2.3450	73.4721
 2.3440	73.5851
 2.3430	73.6860
 2.3420	73.8799
 2.3410	74.0348
 2.3400	74.1096
 2.3390	74.2342
 2.3380	74.3696
 2.3370	74.4788
 2.3360	74.5875
 2.3350	74.6958
 2.3340	74.8034
 2.3330	74.9533
 2.3320	75.0805
 2.3310	75.1744
 2.3300	75.2275
 2.3290	75.3019
 2.3280	75.3888
 2.3270	75.5551
 2.3260	75.6820
 2.3250	75.7812
 2.3240	75.9002
 2.3230	76.0167
 2.3220	76.0833
 2.3210	76.1702
 2.3200	76.3125
 2.3190	76.4002
 2.3180	76.4342
 2.3170	76.5701
 2.3160	76.6756
 2.3150	76.7748
 2.3140	76.8572
 2.3130	76.9977
 2.3120	77.0980
 2.3110	77.2290
 2.3100	77.3131
 2.3090	77.4027
 2.3080	77.4802
 2.3070	77.4882
 2.3060	77.6212
 2.3050	77.7282
 2.3040	77.8268
 2.3030	77.8765
 2.3020	78.0380
 2.3010	78.0529
 2.3000	78.1100
 2.2990	78.1887
 2.2980	78.2785
 2.2970	78.3569
 2.2960	78.3756
 2.2950	78.4129
 2.2940	78.4855
 2.2930	78.5856
 2.2920	78.6442
 2.2910	78.6951
 2.2900	78.7109
 2.2890	78.7385
 2.2880	78.7940
 2.2870	78.9094
 2.2860	78.9379
 2.2850	78.9872
 2.2840	79.0327
 2.2830	79.0274
 2.2820	79.0453
 2.2810	79.1189
 2.2800	79.1780
 2.2790	79.2012
 2.2780	79.1758
 2.2770	79.2461
 2.2760	79.3107
 2.2750	79.2971
 2.2740	79.3367
 2.2730	79.3454
 2.2720	79.3578
 2.2710	79.4210
 2.2700	79.3715
 2.2690	79.3242
 2.2680	79.3396
 2.2670	79.3408
 2.2660	79.3218
 2.2650	79.4075
 2.2640	79.3775
 2.2630	79.3667
 2.2620	79.2875
 2.2610	79.3599
 2.2600	79.3806
 2.2590	79.3060
 2.2580	79.3002
 2.2570	79.3339
 2.2560	79.2869
 2.2550	79.2728
 2.2540	79.2402
 2.2530	79.2269
 2.2520	79.2653
 2.2510	79.3848
 2.2500	79.3995
 2.2490	79.3878
 2.2480	79.5020
 2.2470	79.4689
 2.2460	79.4895
 2.2450	79.5802
 2.2440	79.5262
 2.2430	79.7259
 2.2420	79.7119
 2.2410	79.7327
 2.2400	79.7263
 2.2390	79.8323
 2.2380	79.7584
 2.2370	79.8631
 2.2360	79.8879
 2.2350	79.9355
 2.2340	79.9548
 2.2330	80.0153
 2.2320	80.0322
 2.2310	80.1741
 2.2300	80.1948
 2.2290	80.2980
 2.2280	80.3021
 2.2270	80.4532
 2.2260	80.4425
 2.2250	80.5915
 2.2240	80.6720
 2.2230	80.8438
 2.2220	80.9507
 2.2210	81.0325
 2.2200	81.0784
 2.2190	81.2257
 2.2180	81.3069
 2.2170	81.4011
 2.2160	81.3447
 2.2150	81.5315
 2.2140	81.5623
 2.2130	81.6370
 2.2120	81.6412
 2.2110	81.7402
 2.2100	81.8066
 2.2090	81.8377
 2.2080	81.9090
 2.2070	81.9478
 2.2060	82.0406
 2.2050	82.0908
 2.2040	82.1094
 2.2030	82.1827
 2.2020	82.2652
 2.2010	82.3046
 2.2000	82.4449
 2.1990	82.3296
 2.1980	82.2613
 2.1970	82.5182
 2.1960	82.4923
 2.1950	82.5502
 2.1940	82.5436
 2.1930	82.6861
 2.1920	82.6270
 2.1910	82.6819
 2.1900	82.6316
 2.1890	82.7493
 2.1880	82.7964
 2.1870	82.7703
 2.1860	82.8434
 2.1850	82.8520
 2.1840	82.9094
 2.1830	83.0790
 2.1820	83.0310
 2.1810	83.0715
 2.1800	83.0753
 2.1790	83.1915
 2.1780	83.1862
 2.1770	83.1752
 2.1760	83.2479
 2.1750	83.3255
 2.1740	83.3476
 2.1730	83.3675
 2.1720	83.4286
 2.1710	83.4765
 2.1700	83.4266
 2.1690	83.4948
 2.1680	83.5883
 2.1670	83.5875
 2.1660	83.5802
 2.1650	83.6733
 2.1640	83.7033
 2.1630	83.6642
 2.1620	83.7406
 2.1610	83.7834
 2.1600	83.7784
 2.1590	83.8516
 2.1580	83.8893
 2.1570	83.8635
 2.1560	83.8544
 2.1550	83.9244
 2.1540	83.8970
 2.1530	83.9699
 2.1520	83.9579
 2.1510	83.9486
 2.1500	83.9060
 2.1490	83.9675
 2.1480	83.9756
 2.1470	83.9671
 2.1460	83.9438
 2.1450	83.9523
 2.1440	83.9625
 2.1430	83.9526
 2.1420	83.8808
 2.1410	83.8654
 2.1400	83.8619
 2.1390	83.8336
 2.1380	83.8305
 2.1370	83.8311
 2.1360	83.6855
 2.1350	83.6927
 2.1340	83.6892
 2.1330	83.6219
 2.1320	83.6057
 2.1310	83.5754
 2.1300	83.5150
 2.1290	83.4400
 2.1280	83.4011
 2.1270	83.3327
 2.1260	83.2743
 2.1250	83.2402
 2.1240	83.1552
 2.1230	83.0632
 2.1220	83.0199
 2.1210	83.0098
 2.1200	82.8855
 2.1190	82.7908
 2.1180	82.7218
 2.1170	82.5997
 2.1160	82.4998
 2.1150	82.4292
 2.1140	82.3222
 2.1130	82.2701
 2.1120	82.2080
 2.1110	82.1095
 2.1100	82.0442
 2.1090	82.0015
 2.1080	81.9253
 2.1070	81.7808
 2.1060	81.6690
 2.1050	81.6259
 2.1040	81.5397
 2.1030	81.4533
 2.1020	81.3761
 2.1010	81.2681
 2.1000	81.1397
 2.0990	81.0996
 2.0980	81.0300
 2.0970	80.9242
 2.0960	80.8449
 2.0950	80.7740
 2.0940	80.6048
 2.0930	80.5607
 2.0920	80.5183
 2.0910	80.4670
 2.0900	80.3556
 2.0890	80.2459
 2.0880	80.1516
 2.0870	80.0642
 2.0860	80.0087
 2.0850	79.9953
 2.0840	79.9929
 2.0830	79.9677
 2.0820	80.0100
 2.0810	80.0824
 2.0800	80.0877
 2.0790	80.1717
 2.0780	80.2739
 2.0770	80.3554
 2.0760	80.3884
 2.0750	80.4059
 2.0740	80.4846
 2.0730	80.5694
 2.0720	80.6485
 2.0710	80.6708
 2.0700	80.6976
 2.0690	80.7639
 2.0680	80.7872
 2.0670	80.8296
 2.0660	80.8948
 2.0650	80.9008
 2.0640	80.9109
 2.0630	80.9646
 2.0620	80.9721
 2.0610	81.0359
 2.0600	81.0779
 2.0590	81.0504
 2.0580	81.0819
 2.0570	81.1705
 2.0560	81.2200
 2.0550	81.2120
 2.0540	81.2642
 2.0530	81.3131
 2.0520	81.3404
 2.0510	81.3726
 2.0500	81.4193
 2.0490	81.4425
 2.0480	81.4071
 2.0470	81.4196
 2.0460	81.4947
 2.0450	81.4969
 2.0440	81.5399
 2.0430	81.5745
 2.0420	81.6032
 2.0410	81.6281
 2.0400	81.6864
 2.0390	81.6014
 2.0380	81.5517
 2.0370	81.5931
 2.0360	81.6709
 2.0350	81.6818
 2.0340	81.6993
 2.0330	81.6676
 2.0320	81.6302
 2.0310	81.6927
 2.0300	81.6481
 2.0290	81.6166
 2.0280	81.6535
 2.0270	81.6775
 2.0260	81.6737
 2.0250	81.6404
 2.0240	81.6765
 2.0230	81.6444
 2.0220	81.6568
 2.0210	81.6778
 2.0200	81.6118
 2.0190	81.5734
 2.0180	81.5064
 2.0170	81.5274
 2.0160	81.5065
 2.0150	81.4988
 2.0140	81.4651
 2.0130	81.4682
 2.0120	81.4119
 2.0110	81.3817
 2.0100	81.3630
 2.0090	81.2746
 2.0080	81.2659
 2.0070	81.2933
 2.0060	81.2288
 2.0050	81.1661
 2.0040	81.1501
 2.0030	81.0831
 2.0020	81.0716
 2.0010	81.0291
 2.0000	80.9944
 1.9990	80.9021
 1.9980	80.8284
 1.9970	80.7456
 1.9960	80.6771
 1.9950	80.6264
 1.9940	80.5824
 1.9930	80.4964
 1.9920	80.4110
 1.9910	80.2883
 1.9900	80.2077
 1.9890	80.1982
 1.9880	80.1711
 1.9870	80.0850
 1.9860	79.9795
 1.9850	79.9173
 1.9840	79.8243
 1.9830	79.7470
 1.9820	79.7618
 1.9810	79.6900
 1.9800	79.5911
 1.9790	79.5256
 1.9780	79.4756
 1.9770	79.4793
 1.9760	79.4113
 1.9750	79.2815
 1.9740	79.2950
 1.9730	79.2514
 1.9720	79.2242
 1.9710	79.0841
 1.9700	79.1310
 1.9690	79.0527
 1.9680	79.0262
 1.9670	78.9811
 1.9660	78.9390
 1.9650	78.9464
 1.9640	78.8753
 1.9630	78.8634
 1.9620	78.8150
 1.9610	78.7759
 1.9600	78.8606
 1.9590	78.8593
 1.9580	78.7860
 1.9570	78.7486
 1.9560	78.8318
 1.9550	78.7361
 1.9540	78.7593
 1.9530	78.7369
 1.9520	78.7665
 1.9510	78.7961
 1.9500	78.7073
 1.9490	78.6937
 1.9480	78.7580
 1.9470	78.6736
 1.9460	78.7211
 1.9450	78.6754
 1.9440	78.7294
 1.9430	78.6514
 1.9420	78.7276
 1.9410	78.6867
 1.9400	78.7403
 1.9390	78.6626
 1.9380	78.6433
 1.9370	78.6614
 1.9360	78.7539
 1.9350	78.6752
 1.9340	78.7955
 1.9330	78.7391
 1.9320	78.7621
 1.9310	78.8364
 1.9300	78.7563
 1.9290	78.9176
 1.9280	78.9972
 1.9270	78.9685
 1.9260	78.9636
 1.9250	79.1041
 1.9240	79.1287
 1.9230	79.1790
 1.9220	79.2000
 1.9210	79.2797
 1.9200	79.3085
 1.9190	79.3202
 1.9180	79.4183
 1.9170	79.4273
 1.9160	79.6211
 1.9150	79.6406
 1.9140	79.6690
 1.9130	79.7949
 1.9120	79.8224
 1.9110	79.9278
 1.9100	79.9387
 1.9090	80.0130
 1.9080	80.1665
 1.9070	80.2276
 1.9060	80.3488
 1.9050	80.3559
 1.9040	80.5212
 1.9030	80.6421
 1.9020	80.6960
 1.9010	80.8425
 1.9000	81.1017
 1.8990	81.1479
 1.8980	81.3413
 1.8970	81.4980
 1.8960	81.6360
 1.8950	81.6658
 1.8940	81.8530
 1.8930	81.9928
 1.8920	82.1172
 1.8910	82.3377
 1.8900	82.3641
 1.8890	82.5355
 1.8880	82.7738
 1.8870	82.7689
 1.8860	82.9368
 1.8850	83.0787
 1.8840	83.2123
 1.8830	83.2714
 1.8820	83.3916
 1.8810	83.5213
 1.8800	83.6176
 1.8790	83.7048
 1.8780	83.7594
 1.8770	83.8097
 1.8760	83.8970
 1.8750	83.9231
 1.8740	84.0550
 1.8730	84.1165
 1.8720	84.1290
 1.8710	84.2061
 1.8700	84.1998
 1.8690	84.2245
 1.8680	84.3129
 1.8670	84.3207
 1.8660	84.3131
 1.8650	84.4340
 1.8640	84.4828
 1.8630	84.5204
 1.8620	84.5183
 1.8610	84.5277
 1.8600	84.5419
 1.8590	84.5752
 1.8580	84.6476
 1.8570	84.6132
 1.8560	84.6149
 1.8550	84.6097
 1.8540	84.6359
 1.8530	84.6952
 1.8520	84.6332
 1.8510	84.6505
 1.8500	84.6615
 1.8490	84.7051
 1.8480	84.6970
 1.8470	84.6682
 1.8460	84.6824
 1.8450	84.7167
 1.8440	84.7720
 1.8430	84.7337
 1.8420	84.7597
 1.8410	84.7315
 1.8400	84.7635
 1.8390	84.7025
 1.8380	84.6865
 1.8370	84.6823
 1.8360	84.6472
 1.8350	84.6578
 1.8340	84.7024
 1.8330	84.7185
 1.8320	84.6051
 1.8310	84.6307
 1.8300	84.6934
 1.8290	84.6719
 1.8280	84.6852
 1.8270	84.6436
 1.8260	84.6464
 1.8250	84.7014
 1.8240	84.7248
 1.8230	84.7039
 1.8220	84.7277
 1.8210	84.7172
 1.8200	84.7516
 1.8190	84.7324
 1.8180	84.7305
 1.8170	84.7718
 1.8160	84.7519
 1.8150	84.7352
 1.8140	84.7783
 1.8130	84.7669
 1.8120	84.7553
 1.8110	84.7991
 1.8100	84.7765
 1.8090	84.7719
 1.8080	84.8013
 1.8070	84.7713
 1.8060	84.7746
 1.8050	84.7905
 1.8040	84.8098
 1.8030	84.8849
 1.8020	84.9290
 1.8010	84.8111
 1.8000	84.7870
 1.7990	84.8576
 1.7980	84.9059
 1.7970	84.9211
 1.7960	84.8599
 1.7950	84.8397
 1.7940	84.8933
 1.7930	84.9363
 1.7920	84.9094
 1.7910	84.8656
 1.7900	84.8691
 1.7890	84.9012
 1.7880	84.8436
 1.7870	84.8506
 1.7860	84.9288
 1.7850	84.9125
 1.7840	84.9132
 1.7830	84.9560
 1.7820	85.0022
 1.7810	85.0014
 1.7800	84.9250
 1.7790	84.9146
 1.7780	84.9772
 1.7770	84.9827
 1.7760	84.9542
 1.7750	85.0107
 1.7740	85.0003
 1.7730	84.9833
 1.7720	84.9831
 1.7710	84.9897
 1.7700	85.0513
 1.7690	85.0666
 1.7680	85.0020
 1.7670	85.0059
 1.7660	85.0425
 1.7650	85.0191
 1.7640	85.0500
 1.7630	85.0620
 1.7620	85.0735
 1.7610	85.0859
 1.7600	85.1191
 1.7590	85.0876
 1.7580	85.0260
 1.7570	85.0976
 1.7560	85.1392
 1.7550	85.1253
 1.7540	85.1189
 1.7530	85.1496
 1.7520	85.2120
 1.7510	85.2143
 1.7500	85.1258
 1.7490	85.1571
 1.7480	85.2169
 1.7470	85.2235
 1.7460	85.2075
 1.7450	85.2299
 1.7440	85.2518
 1.7430	85.2643
 1.7420	85.2922
 1.7410	85.2854
 1.7400	85.3017
 1.7390	85.2675
 1.7380	85.3035
 1.7370	85.3425
 1.7360	85.3482
 1.7350	85.2887
 1.7340	85.2465
 1.7330	85.2636
 1.7320	85.2624
 1.7310	85.3462
 1.7300	85.2976
 1.7290	85.3098
 1.7280	85.3293
 1.7270	85.3479
 1.7260	85.3136
 1.7250	85.3745
 1.7240	85.2897
 1.7230	85.2793
 1.7220	85.2771
 1.7210	85.3772
 1.7200	85.3552
 1.7190	85.4141
 1.7180	85.4055
 1.7170	85.3796
 1.7160	85.4013
 1.7150	85.4208
 1.7140	85.3426
 1.7130	85.3697
 1.7120	85.3450
 1.7110	85.3524
 1.7100	85.4000
 1.7090	85.4138
 1.7080	85.3744
 1.7070	85.3855
 1.7060	85.3140
 1.7050	85.3238
 1.7040	85.4194
 1.7030	85.3854
 1.7020	85.3947
 1.7010	85.3984
 1.7000	85.2863
 1.6990	85.2888
 1.6980	85.3688
 1.6970	85.4190
 1.6960	85.3384
 1.6950	85.3585
 1.6940	85.3894
 1.6930	85.4273
 1.6920	85.4592
 1.6910	85.3401
 1.6900	85.4253
 1.6890	85.3659
 1.6880	85.3710
 1.6870	85.4348
 1.6860	85.4153
 1.6850	85.4266
 1.6840	85.3331
 1.6830	85.3598
 1.6820	85.3924
 1.6810	85.4351
 1.6800	85.3232
 1.6790	85.3572
 1.6780	85.3967
 1.6770	85.3503
 1.6760	85.4873
 1.6750	85.4471
 1.6740	85.4012
 1.6730	85.4140
 1.6720	85.3516
 1.6710	85.4215
 1.6700	85.4716
 1.6690	85.5122
 1.6680	85.4455
 1.6670	85.4526
 1.6660	85.3759
 1.6650	85.3925
 1.6640	85.3456
 1.6630	85.3820
 1.6620	85.4236
 1.6610	85.4154
 1.6600	85.4229
 1.6590	85.3577
 1.6580	85.4117
 1.6570	85.4182
 1.6560	85.3150
 1.6550	85.4596
 1.6540	85.4242
 1.6530	85.3960
 1.6520	85.3860
 1.6510	85.4052
 1.6500	85.3613
 1.6490	85.3891
 1.6480	85.3344
 1.6470	85.3308
 1.6460	85.3990
 1.6450	85.3589
 1.6440	85.3448
 1.6430	85.3635
 1.6420	85.3587
 1.6410	85.3888
 1.6400	85.3035
 1.6390	85.3768
 1.6380	85.4312
 1.6370	85.3048
 1.6360	85.3561
 1.6350	85.3538
 1.6340	85.3969
 1.6330	85.4111
 1.6320	85.4612
 1.6310	85.3699
 1.6300	85.3590
 1.6290	85.3564
 1.6280	85.3929
 1.6270	85.4433
 1.6260	85.3297
 1.6250	85.3706
 1.6240	85.4075
 1.6230	85.4305
 1.6220	85.4307
 1.6210	85.4649
 1.6200	85.5014
 1.6190	85.3997
 1.6180	85.3961
 1.6170	85.3594
 1.6160	85.4125
 1.6150	85.3708
 1.6140	85.2980
 1.6130	85.4144
 1.6120	85.3247
 1.6110	85.3716
 1.6100	85.4406
 1.6090	85.3786
 1.6080	85.4342
 1.6070	85.3907
 1.6060	85.4296
 1.6050	85.3777
 1.6040	85.4061
 1.6030	85.4482
 1.6020	85.4304
 1.6010	85.4027
 1.6000	85.4261
 1.5990	85.5051
 1.5980	85.3737
 1.5970	85.4131
 1.5960	85.3510
 1.5950	85.3730
 1.5940	85.3581
 1.5930	85.3522
 1.5920	85.2845
 1.5910	85.4103
 1.5900	85.3849
 1.5890	85.3317
 1.5880	85.3272
 1.5870	85.3449
 1.5860	85.3555
 1.5850	85.3951
 1.5840	85.4061
 1.5830	85.3811
 1.5820	85.3520
 1.5810	85.3417
 1.5800	85.3692
 1.5790	85.3818
 1.5780	85.3425
 1.5770	85.3777
 1.5760	85.3476
 1.5750	85.3157
 1.5740	85.2744
 1.5730	85.2781
 1.5720	85.2920
 1.5710	85.2601
 1.5700	85.3170
 1.5690	85.2960
 1.5680	85.2792
 1.5670	85.2748
 1.5660	85.2538
 1.5650	85.2541
 1.5640	85.2988
 1.5630	85.2575
 1.5620	85.2534
 1.5610	85.2340
 1.5600	85.2249
 1.5590	85.2297
 1.5580	85.1988
 1.5570	85.1879
 1.5560	85.1968
 1.5550	85.2168
 1.5540	85.2074
 1.5530	85.2224
 1.5520	85.2206
 1.5510	85.1794
 1.5500	85.2155
 1.5490	85.2364
 1.5480	85.1675
 1.5470	85.1509
 1.5460	85.1748
 1.5450	85.1646
 1.5440	85.1133
 1.5430	85.1384
 1.5420	85.1059
 1.5410	85.0568
 1.5400	85.1212
 1.5390	85.1399
 1.5380	85.1073
 1.5370	85.1414
 1.5360	85.1219
 1.5350	85.0680
 1.5340	85.0432
 1.5330	85.0439
 1.5320	84.9644
 1.5310	84.9995
 1.5300	85.0060
 1.5290	85.0363
 1.5280	85.0327
 1.5270	85.0098
 1.5260	85.0002
 1.5250	85.0027
 1.5240	84.9814
 1.5230	84.9916
 1.5220	84.9533
 1.5210	84.8923
 1.5200	84.9014
 1.5190	84.9781
 1.5180	84.9007
 1.5170	84.8670
 1.5160	84.9019
 1.5150	84.8781
 1.5140	84.8569
 1.5130	84.8922
 1.5120	84.8876
 1.5110	84.8672
 1.5100	84.8474
 1.5090	84.8217
 1.5080	84.8063
 1.5070	84.8055
 1.5060	84.7798
 1.5050	84.7357
 1.5040	84.7488
 1.5030	84.7355
 1.5020	84.7111
 1.5010	84.7194
 1.5000	84.7364
 1.4990	84.7194
 1.4980	84.6788
 1.4970	84.6934
 1.4960	84.7268
 1.4950	84.6824
 1.4940	84.6507
 1.4930	84.6453
 1.4920	84.6347
 1.4910	84.6542
 1.4900	84.6595
 1.4890	84.6280
 1.4880	84.5642
 1.4870	84.5860
 1.4860	84.5696
 1.4850	84.5069
 1.4840	84.5587
 1.4830	84.6053
 1.4820	84.5658
 1.4810	84.4929
 1.4800	84.4866
 1.4790	84.5047
 1.4780	84.4955
 1.4770	84.4994
 1.4760	84.4913
 1.4750	84.4382
 1.4740	84.3704
 1.4730	84.4046
 1.4720	84.4975
 1.4710	84.4560
 1.4700	84.4167
 1.4690	84.4339
 1.4680	84.4641
 1.4670	84.3725
 1.4660	84.3691
 1.4650	84.3547
 1.4640	84.2963
 1.4630	84.3012
 1.4620	84.2823
 1.4610	84.3416
 1.4600	84.2592
 1.4590	84.2733
 1.4580	84.2905
 1.4570	84.3154
 1.4560	84.3212
 1.4550	84.2885
 1.4540	84.3475
 1.4530	84.3332
 1.4520	84.3489
 1.4510	84.2886
 1.4500	84.2802
 1.4490	84.2826
 1.4480	84.3010
 1.4470	84.3072
 1.4460	84.3225
 1.4450	84.3802
 1.4440	84.3745
 1.4430	84.3489
 1.4420	84.2875
 1.4410	84.3401
 1.4400	84.3936
 1.4390	84.3859
 1.4380	84.3559
 1.4370	84.3349
 1.4360	84.2980
 1.4350	84.3532
 1.4340	84.3758
 1.4330	84.3467
 1.4320	84.4016
 1.4310	84.4553
 1.4300	84.3581
 1.4290	84.3935
 1.4280	84.4341
 1.4270	84.4366
 1.4260	84.4490
 1.4250	84.4287
 1.4240	84.5074
 1.4230	84.5943
 1.4220	84.5623
 1.4210	84.5050
 1.4200	84.5558
 1.4190	84.5421
 1.4180	84.5228
 1.4170	84.5401
 1.4160	84.5739
 1.4150	84.5362
 1.4140	84.6218
 1.4130	84.6499
 1.4120	84.7030
 1.4110	84.7034
 1.4100	84.7516
 1.4090	84.6900
 1.4080	84.6727
 1.4070	84.7140
 1.4060	84.7746
 1.4050	84.8278
 1.4040	84.8556
 1.4030	84.8637
 1.4020	84.8847
 1.4010	84.9696
 1.4000	85.0070
 1.3990	84.9788
 1.3980	85.0252
 1.3970	85.1062
 1.3960	85.0792
 1.3950	85.0788
 1.3940	85.2264
 1.3930	85.2239
 1.3920	85.2400
 1.3910	85.2942
 1.3900	85.2231
 1.3890	85.2659
 1.3880	85.3264
 1.3870	85.2646
 1.3860	85.3185
 1.3850	85.3246
 1.3840	85.4998
 1.3830	85.3965
 1.3820	85.4398
 1.3810	85.4235
 1.3800	85.4341
 1.3790	85.4552
 1.3780	85.4505
 1.3770	85.4725
 1.3760	85.4923
 1.3750	85.4465
 1.3740	85.4866
 1.3730	85.4856
 1.3720	85.4852
 1.3710	85.4563
 1.3700	85.5025
 1.3690	85.5309
 1.3680	85.5068
 1.3670	85.4673
 1.3660	85.5838
 1.3650	85.4788
