Name: Oligoclase (Feldspar) (NaSi,CaAl)AlSi_2O_8
Type: Mineral
Class: Silicate
Subclass: Tectosilicate
Particle Size: Fine
Sample No.: TS-3A
Owner: JPL
Wavelength Range: VSWIR
Origin: Unknown.
Collection Date: N/A
Description: Particle size was 0-45um. Collected b:  JPL Original ASTER Spectral Library name was jpl.perkin.mineral.silicate.tectosilicate.fine.ts03a.spectrum.txt
Measurement: Hemispherical reflectance
First Column: X
Second Column: Y
X Units: Wavelength (micrometers)
Y Units:Reflectance (percent)
First X Value:  2.5000
Last X Value:  0.4000
Number of X Values: 2101
Additional Information: mineral.silicate.tectosilicate.fine.vswir.ts-3a.jpl.perkin.ancillary.txt

 2.5000	79.2328
 2.4990	79.2027
 2.4980	79.3858
 2.4970	79.3186
 2.4960	79.0550
 2.4950	79.3445
 2.4940	79.4491
 2.4930	79.1853
 2.4920	79.0718
 2.4910	79.1508
 2.4900	79.2409
 2.4890	79.1334
 2.4880	79.2226
 2.4870	79.1278
 2.4860	79.1057
 2.4850	79.2803
 2.4840	79.4277
 2.4830	79.1530
 2.4820	79.3884
 2.4810	79.1761
 2.4800	79.3021
 2.4790	79.4833
 2.4780	79.3405
 2.4770	79.1968
 2.4760	79.4925
 2.4750	79.5155
 2.4740	79.2829
 2.4730	79.3925
 2.4720	79.3098
 2.4710	79.3311
 2.4700	79.3293
 2.4690	79.5394
 2.4680	79.5955
 2.4670	79.4999
 2.4660	79.5359
 2.4650	79.4655
 2.4640	79.5636
 2.4630	79.4640
 2.4620	79.6630
 2.4610	79.5632
 2.4600	79.4572
 2.4590	79.6277
 2.4580	79.6557
 2.4570	79.5406
 2.4560	79.5672
 2.4550	79.6484
 2.4540	79.6776
 2.4530	79.7357
 2.4520	79.8552
 2.4510	79.8799
 2.4500	79.7741
 2.4490	79.7981
 2.4480	79.7767
 2.4470	79.7902
 2.4460	79.9104
 2.4450	79.8073
 2.4440	79.8592
 2.4430	79.8927
 2.4420	79.7547
 2.4410	79.7719
 2.4400	79.8358
 2.4390	79.8817
 2.4380	79.8862
 2.4370	80.0357
 2.4360	80.0389
 2.4350	80.0388
 2.4340	80.0321
 2.4330	80.0382
 2.4320	80.0774
 2.4310	80.1023
 2.4300	80.0910
 2.4290	80.1323
 2.4280	80.1355
 2.4270	80.2555
 2.4260	80.2228
 2.4250	80.2081
 2.4240	80.2964
 2.4230	80.3433
 2.4220	80.3886
 2.4210	80.3049
 2.4200	80.3775
 2.4190	80.5037
 2.4180	80.5161
 2.4170	80.5615
 2.4160	80.6518
 2.4150	80.6348
 2.4140	80.5524
 2.4130	80.5877
 2.4120	80.7402
 2.4110	80.7006
 2.4100	80.6850
 2.4090	80.7933
 2.4080	80.8836
 2.4070	80.8905
 2.4060	80.7701
 2.4050	80.8302
 2.4040	80.9580
 2.4030	80.8594
 2.4020	80.8757
 2.4010	80.9621
 2.4000	80.9346
 2.3990	80.9758
 2.3980	81.0366
 2.3970	81.0293
 2.3960	81.0721
 2.3950	81.1426
 2.3940	81.0700
 2.3930	81.0681
 2.3920	81.1224
 2.3910	81.1078
 2.3900	81.1729
 2.3890	81.1990
 2.3880	81.2773
 2.3870	81.2465
 2.3860	81.1836
 2.3850	81.2791
 2.3840	81.2887
 2.3830	81.1999
 2.3820	81.2236
 2.3810	81.2406
 2.3800	81.3265
 2.3790	81.3662
 2.3780	81.2937
 2.3770	81.2816
 2.3760	81.2698
 2.3750	81.2553
 2.3740	81.2659
 2.3730	81.2492
 2.3720	81.2867
 2.3710	81.2462
 2.3700	81.2348
 2.3690	81.2675
 2.3680	81.2714
 2.3670	81.2427
 2.3660	81.1121
 2.3650	81.0800
 2.3640	81.1106
 2.3630	81.1155
 2.3620	81.1150
 2.3610	81.1022
 2.3600	81.0532
 2.3590	81.0002
 2.3580	80.9527
 2.3570	80.9564
 2.3560	80.9429
 2.3550	80.8630
 2.3540	80.8725
 2.3530	80.9713
 2.3520	81.0230
 2.3510	80.9910
 2.3500	80.9977
 2.3490	81.0411
 2.3480	81.0117
 2.3470	81.0443
 2.3460	81.1303
 2.3450	81.1697
 2.3440	81.2334
 2.3430	81.2933
 2.3420	81.3616
 2.3410	81.3700
 2.3400	81.3007
 2.3390	81.3220
 2.3380	81.3354
 2.3370	81.3855
 2.3360	81.4400
 2.3350	81.4158
 2.3340	81.4737
 2.3330	81.5696
 2.3320	81.6281
 2.3310	81.6653
 2.3300	81.6318
 2.3290	81.6538
 2.3280	81.6608
 2.3270	81.6501
 2.3260	81.7759
 2.3250	81.7892
 2.3240	81.7802
 2.3230	81.8338
 2.3220	81.8219
 2.3210	81.9728
 2.3200	81.9928
 2.3190	81.9597
 2.3180	82.0462
 2.3170	82.0558
 2.3160	82.0787
 2.3150	82.1038
 2.3140	82.1635
 2.3130	82.2163
 2.3120	82.2814
 2.3110	82.2777
 2.3100	82.2619
 2.3090	82.2902
 2.3080	82.3247
 2.3070	82.3671
 2.3060	82.3709
 2.3050	82.3721
 2.3040	82.4118
 2.3030	82.3813
 2.3020	82.4700
 2.3010	82.5093
 2.3000	82.4388
 2.2990	82.4935
 2.2980	82.5482
 2.2970	82.4830
 2.2960	82.5296
 2.2950	82.5350
 2.2940	82.4720
 2.2930	82.5280
 2.2920	82.4795
 2.2910	82.5383
 2.2900	82.5187
 2.2890	82.5817
 2.2880	82.5198
 2.2870	82.5594
 2.2860	82.5339
 2.2850	82.6043
 2.2840	82.5927
 2.2830	82.5642
 2.2820	82.5632
 2.2810	82.5459
 2.2800	82.5530
 2.2790	82.6348
 2.2780	82.5838
 2.2770	82.5469
 2.2760	82.6142
 2.2750	82.6208
 2.2740	82.6145
 2.2730	82.5612
 2.2720	82.5585
 2.2710	82.5197
 2.2700	82.5606
 2.2690	82.6020
 2.2680	82.6269
 2.2670	82.5173
 2.2660	82.5239
 2.2650	82.5331
 2.2640	82.5529
 2.2630	82.6193
 2.2620	82.5217
 2.2610	82.5209
 2.2600	82.4848
 2.2590	82.4407
 2.2580	82.4786
 2.2570	82.4776
 2.2560	82.4629
 2.2550	82.5523
 2.2540	82.5353
 2.2530	82.4665
 2.2520	82.4958
 2.2510	82.5748
 2.2500	82.5724
 2.2490	82.5865
 2.2480	82.6001
 2.2470	82.4705
 2.2460	82.6293
 2.2450	82.6522
 2.2440	82.6853
 2.2430	82.6735
 2.2420	82.5826
 2.2410	82.6559
 2.2400	82.6729
 2.2390	82.6840
 2.2380	82.7116
 2.2370	82.7245
 2.2360	82.7108
 2.2350	82.6350
 2.2340	82.6704
 2.2330	82.6847
 2.2320	82.6689
 2.2310	82.6788
 2.2300	82.6856
 2.2290	82.6289
 2.2280	82.7200
 2.2270	82.7134
 2.2260	82.6238
 2.2250	82.7113
 2.2240	82.6659
 2.2230	82.6215
 2.2220	82.6708
 2.2210	82.5227
 2.2200	82.5799
 2.2190	82.6076
 2.2180	82.5817
 2.2170	82.5329
 2.2160	82.5337
 2.2150	82.5491
 2.2140	82.5369
 2.2130	82.5210
 2.2120	82.5245
 2.2110	82.3183
 2.2100	82.3830
 2.2090	82.3627
 2.2080	82.3263
 2.2070	82.3724
 2.2060	82.2676
 2.2050	82.3153
 2.2040	82.2495
 2.2030	82.2746
 2.2020	82.2555
 2.2010	82.1919
 2.2000	82.1602
 2.1990	82.2015
 2.1980	82.1675
 2.1970	82.1885
 2.1960	82.2225
 2.1950	82.2182
 2.1940	82.2890
 2.1930	82.3480
 2.1920	82.3463
 2.1910	82.3643
 2.1900	82.4146
 2.1890	82.4794
 2.1880	82.5594
 2.1870	82.6549
 2.1860	82.7287
 2.1850	82.7591
 2.1840	82.9306
 2.1830	82.9154
 2.1820	83.0416
 2.1810	83.1729
 2.1800	83.2743
 2.1790	83.3077
 2.1780	83.3128
 2.1770	83.3360
 2.1760	83.4736
 2.1750	83.5099
 2.1740	83.7002
 2.1730	83.7344
 2.1720	83.7931
 2.1710	83.7819
 2.1700	83.8147
 2.1690	83.8473
 2.1680	83.9654
 2.1670	84.0320
 2.1660	84.0905
 2.1650	84.0955
 2.1640	84.1578
 2.1630	84.3100
 2.1620	84.2367
 2.1610	84.3828
 2.1600	84.3752
 2.1590	84.3857
 2.1580	84.4393
 2.1570	84.4632
 2.1560	84.4821
 2.1550	84.5707
 2.1540	84.5402
 2.1530	84.6127
 2.1520	84.6144
 2.1510	84.6396
 2.1500	84.6121
 2.1490	84.6720
 2.1480	84.6427
 2.1470	84.6759
 2.1460	84.7793
 2.1450	84.7467
 2.1440	84.6754
 2.1430	84.6866
 2.1420	84.6370
 2.1410	84.6664
 2.1400	84.7170
 2.1390	84.7242
 2.1380	84.7416
 2.1370	84.6560
 2.1360	84.6021
 2.1350	84.6275
 2.1340	84.5904
 2.1330	84.5251
 2.1320	84.5148
 2.1310	84.5369
 2.1300	84.5063
 2.1290	84.5494
 2.1280	84.4645
 2.1270	84.3873
 2.1260	84.3875
 2.1250	84.3468
 2.1240	84.3039
 2.1230	84.2109
 2.1220	84.1657
 2.1210	84.1599
 2.1200	84.1447
 2.1190	84.0874
 2.1180	84.0514
 2.1170	84.0346
 2.1160	83.9371
 2.1150	83.9505
 2.1140	83.9054
 2.1130	83.8219
 2.1120	83.8181
 2.1110	83.7528
 2.1100	83.6392
 2.1090	83.6185
 2.1080	83.6406
 2.1070	83.6094
 2.1060	83.5293
 2.1050	83.5117
 2.1040	83.5171
 2.1030	83.4096
 2.1020	83.3419
 2.1010	83.3593
 2.1000	83.3634
 2.0990	83.3777
 2.0980	83.3094
 2.0970	83.3107
 2.0960	83.3635
 2.0950	83.3933
 2.0940	83.3658
 2.0930	83.3447
 2.0920	83.3743
 2.0910	83.3948
 2.0900	83.4175
 2.0890	83.4502
 2.0880	83.4530
 2.0870	83.4422
 2.0860	83.5125
 2.0850	83.5364
 2.0840	83.5041
 2.0830	83.4484
 2.0820	83.4464
 2.0810	83.5749
 2.0800	83.5469
 2.0790	83.5334
 2.0780	83.5853
 2.0770	83.5741
 2.0760	83.5811
 2.0750	83.5986
 2.0740	83.6104
 2.0730	83.6549
 2.0720	83.6708
 2.0710	83.5980
 2.0700	83.5913
 2.0690	83.6248
 2.0680	83.6752
 2.0670	83.6591
 2.0660	83.6179
 2.0650	83.6812
 2.0640	83.6574
 2.0630	83.7029
 2.0620	83.7461
 2.0610	83.7294
 2.0600	83.7558
 2.0590	83.7281
 2.0580	83.6827
 2.0570	83.7231
 2.0560	83.7516
 2.0550	83.7446
 2.0540	83.7035
 2.0530	83.7058
 2.0520	83.7858
 2.0510	83.8028
 2.0500	83.8137
 2.0490	83.7805
 2.0480	83.8015
 2.0470	83.7842
 2.0460	83.7953
 2.0450	83.8077
 2.0440	83.8165
 2.0430	83.8274
 2.0420	83.8582
 2.0410	83.8541
 2.0400	83.8119
 2.0390	83.8140
 2.0380	83.8369
 2.0370	83.8089
 2.0360	83.8392
 2.0350	83.8380
 2.0340	83.7710
 2.0330	83.7628
 2.0320	83.8264
 2.0310	83.8055
 2.0300	83.8037
 2.0290	83.8400
 2.0280	83.8248
 2.0270	83.8202
 2.0260	83.7392
 2.0250	83.7281
 2.0240	83.7191
 2.0230	83.7092
 2.0220	83.6705
 2.0210	83.6720
 2.0200	83.6615
 2.0190	83.6999
 2.0180	83.6412
 2.0170	83.7084
 2.0160	83.7373
 2.0150	83.7080
 2.0140	83.7084
 2.0130	83.6461
 2.0120	83.6534
 2.0110	83.5827
 2.0100	83.6228
 2.0090	83.5578
 2.0080	83.5926
 2.0070	83.6705
 2.0060	83.5735
 2.0050	83.5027
 2.0040	83.5000
 2.0030	83.4843
 2.0020	83.5562
 2.0010	83.5498
 2.0000	83.5285
 1.9990	83.5387
 1.9980	83.4966
 1.9970	83.5061
 1.9960	83.4106
 1.9950	83.3624
 1.9940	83.3639
 1.9930	83.3594
 1.9920	83.4053
 1.9910	83.2813
 1.9900	83.2247
 1.9890	83.2294
 1.9880	83.1916
 1.9870	83.1375
 1.9860	83.0905
 1.9850	83.1409
 1.9840	83.1268
 1.9830	83.0802
 1.9820	83.1246
 1.9810	83.0324
 1.9800	82.9804
 1.9790	82.9753
 1.9780	82.9958
 1.9770	82.9629
 1.9760	82.8761
 1.9750	82.8636
 1.9740	82.8706
 1.9730	82.9157
 1.9720	82.8474
 1.9710	82.8000
 1.9700	82.9202
 1.9690	82.7844
 1.9680	82.7464
 1.9670	82.7395
 1.9660	82.6211
 1.9650	82.7343
 1.9640	82.7093
 1.9630	82.7376
 1.9620	82.7537
 1.9610	82.6964
 1.9600	82.6747
 1.9590	82.7171
 1.9580	82.6389
 1.9570	82.5855
 1.9560	82.6344
 1.9550	82.6144
 1.9540	82.6544
 1.9530	82.6754
 1.9520	82.5634
 1.9510	82.5154
 1.9500	82.5935
 1.9490	82.4882
 1.9480	82.4718
 1.9470	82.5263
 1.9460	82.4951
 1.9450	82.5215
 1.9440	82.4589
 1.9430	82.5260
 1.9420	82.5461
 1.9410	82.5423
 1.9400	82.4405
 1.9390	82.4649
 1.9380	82.4598
 1.9370	82.4857
 1.9360	82.4674
 1.9350	82.5586
 1.9340	82.5148
 1.9330	82.5542
 1.9320	82.4474
 1.9310	82.5415
 1.9300	82.4362
 1.9290	82.4879
 1.9280	82.5662
 1.9270	82.4999
 1.9260	82.5501
 1.9250	82.5109
 1.9240	82.5689
 1.9230	82.5894
 1.9220	82.5599
 1.9210	82.5849
 1.9200	82.5660
 1.9190	82.6000
 1.9180	82.5824
 1.9170	82.6637
 1.9160	82.6906
 1.9150	82.8211
 1.9140	82.8001
 1.9130	82.7702
 1.9120	82.8103
 1.9110	82.9225
 1.9100	82.9290
 1.9090	82.9205
 1.9080	82.9731
 1.9070	82.9926
 1.9060	83.0996
 1.9050	83.1895
 1.9040	83.2436
 1.9030	83.2707
 1.9020	83.4300
 1.9010	83.4219
 1.9000	83.5925
 1.8990	83.5109
 1.8980	83.6190
 1.8970	83.6790
 1.8960	83.7393
 1.8950	83.7245
 1.8940	83.9285
 1.8930	83.9508
 1.8920	84.0415
 1.8910	84.0999
 1.8900	84.0715
 1.8890	84.1690
 1.8880	84.2571
 1.8870	84.2993
 1.8860	84.3243
 1.8850	84.3109
 1.8840	84.3520
 1.8830	84.4615
 1.8820	84.5151
 1.8810	84.5004
 1.8800	84.5264
 1.8790	84.5147
 1.8780	84.5194
 1.8770	84.5088
 1.8760	84.6383
 1.8750	84.5740
 1.8740	84.6210
 1.8730	84.6392
 1.8720	84.6928
 1.8710	84.6856
 1.8700	84.7263
 1.8690	84.7278
 1.8680	84.7375
 1.8670	84.6839
 1.8660	84.7374
 1.8650	84.7846
 1.8640	84.8296
 1.8630	84.8501
 1.8620	84.8221
 1.8610	84.7991
 1.8600	84.8580
 1.8590	84.7710
 1.8580	84.8575
 1.8570	84.8317
 1.8560	84.9026
 1.8550	84.9211
 1.8540	84.9005
 1.8530	84.9747
 1.8520	84.9107
 1.8510	84.8158
 1.8500	84.8861
 1.8490	84.8811
 1.8480	84.8998
 1.8470	84.8870
 1.8460	84.9207
 1.8450	84.8524
 1.8440	84.8730
 1.8430	84.9077
 1.8420	84.9218
 1.8410	84.8333
 1.8400	84.8713
 1.8390	84.8721
 1.8380	84.8481
 1.8370	84.8786
 1.8360	84.9089
 1.8350	84.8820
 1.8340	84.9393
 1.8330	84.9053
 1.8320	84.9245
 1.8310	84.9342
 1.8300	84.9409
 1.8290	84.8664
 1.8280	84.8231
 1.8270	84.9170
 1.8260	84.9685
 1.8250	84.9370
 1.8240	84.9049
 1.8230	84.8944
 1.8220	84.8921
 1.8210	84.8916
 1.8200	84.9543
 1.8190	85.0071
 1.8180	84.9952
 1.8170	84.9792
 1.8160	85.0151
 1.8150	85.0088
 1.8140	84.9656
 1.8130	84.9453
 1.8120	84.9396
 1.8110	84.9855
 1.8100	85.0797
 1.8090	85.0166
 1.8080	85.0526
 1.8070	85.0304
 1.8060	85.0105
 1.8050	85.0165
 1.8040	84.9771
 1.8030	84.9566
 1.8020	84.9853
 1.8010	85.0359
 1.8000	85.0072
 1.7990	84.9690
 1.7980	84.9590
 1.7970	84.9280
 1.7960	84.9122
 1.7950	84.9982
 1.7940	85.0630
 1.7930	85.0196
 1.7920	84.9823
 1.7910	85.0173
 1.7900	85.0350
 1.7890	84.9826
 1.7880	84.9413
 1.7870	84.9116
 1.7860	84.9607
 1.7850	85.0181
 1.7840	85.0127
 1.7830	84.9369
 1.7820	84.9155
 1.7810	84.9932
 1.7800	85.0552
 1.7790	85.0520
 1.7780	85.0266
 1.7770	84.9797
 1.7760	84.9625
 1.7750	84.9704
 1.7740	84.9270
 1.7730	84.9137
 1.7720	84.9110
 1.7710	84.8946
 1.7700	84.9081
 1.7690	84.9564
 1.7680	84.8920
 1.7670	84.8811
 1.7660	84.9644
 1.7650	84.9711
 1.7640	84.9355
 1.7630	84.9711
 1.7620	84.9614
 1.7610	84.9281
 1.7600	84.9740
 1.7590	84.9247
 1.7580	84.8982
 1.7570	84.8820
 1.7560	84.9424
 1.7550	84.9765
 1.7540	84.9476
 1.7530	84.9249
 1.7520	84.9134
 1.7510	84.9461
 1.7500	84.9554
 1.7490	84.9926
 1.7480	85.0252
 1.7470	84.9906
 1.7460	84.9555
 1.7450	84.9836
 1.7440	85.0143
 1.7430	84.9546
 1.7420	84.9480
 1.7410	84.9857
 1.7400	85.0075
 1.7390	85.0744
 1.7380	85.0659
 1.7370	85.0176
 1.7360	85.0262
 1.7350	85.0161
 1.7340	85.0275
 1.7330	85.0490
 1.7320	85.0844
 1.7310	85.0525
 1.7300	85.0171
 1.7290	85.0642
 1.7280	85.1001
 1.7270	85.0552
 1.7260	85.0384
 1.7250	85.0894
 1.7240	85.0468
 1.7230	85.0183
 1.7220	85.0653
 1.7210	85.1328
 1.7200	85.0836
 1.7190	85.0989
 1.7180	85.1075
 1.7170	85.0796
 1.7160	85.0499
 1.7150	85.1114
 1.7140	85.0757
 1.7130	85.0769
 1.7120	85.0159
 1.7110	85.0408
 1.7100	85.0133
 1.7090	84.9997
 1.7080	85.0211
 1.7070	85.0576
 1.7060	85.0714
 1.7050	84.9668
 1.7040	85.0116
 1.7030	85.0723
 1.7020	85.0631
 1.7010	85.0360
 1.7000	85.0175
 1.6990	85.0560
 1.6980	84.9814
 1.6970	85.0076
 1.6960	84.9788
 1.6950	85.0014
 1.6940	85.0629
 1.6930	85.0197
 1.6920	85.0184
 1.6910	85.0762
 1.6900	85.0145
 1.6890	85.0354
 1.6880	85.0305
 1.6870	84.9745
 1.6860	85.0156
 1.6850	85.1257
 1.6840	84.9805
 1.6830	84.9885
 1.6820	84.9583
 1.6810	84.9965
 1.6800	84.9992
 1.6790	84.9989
 1.6780	84.9906
 1.6770	85.0253
 1.6760	84.9608
 1.6750	84.9252
 1.6740	84.9656
 1.6730	85.0160
 1.6720	85.0933
 1.6710	84.9907
 1.6700	85.0277
 1.6690	85.0425
 1.6680	84.9596
 1.6670	85.0097
 1.6660	84.9992
 1.6650	84.9859
 1.6640	85.0336
 1.6630	85.0745
 1.6620	84.9991
 1.6610	85.0868
 1.6600	85.0887
 1.6590	84.9988
 1.6580	84.9405
 1.6570	85.0267
 1.6560	85.0476
 1.6550	85.0406
 1.6540	85.0523
 1.6530	84.9557
 1.6520	85.0965
 1.6510	84.9932
 1.6500	84.9644
 1.6490	85.1207
 1.6480	84.9538
 1.6470	84.9889
 1.6460	85.0071
 1.6450	85.0222
 1.6440	85.0580
 1.6430	84.9929
 1.6420	85.0864
 1.6410	85.0774
 1.6400	85.0627
 1.6390	85.0494
 1.6380	85.0429
 1.6370	84.9963
 1.6360	85.0029
 1.6350	84.9861
 1.6340	85.0004
 1.6330	85.0052
 1.6320	85.0883
 1.6310	85.0351
 1.6300	84.9797
 1.6290	85.0310
 1.6280	85.0734
 1.6270	85.0786
 1.6260	84.9409
 1.6250	85.0184
 1.6240	85.0024
 1.6230	84.9850
 1.6220	85.0063
 1.6210	85.0529
 1.6200	85.0937
 1.6190	85.1005
 1.6180	85.0201
 1.6170	85.0887
 1.6160	85.0656
 1.6150	84.9692
 1.6140	85.0345
 1.6130	85.0431
 1.6120	85.0816
 1.6110	85.0788
 1.6100	84.9738
 1.6090	85.0416
 1.6080	85.0204
 1.6070	84.9740
 1.6060	84.9625
 1.6050	85.0348
 1.6040	85.0545
 1.6030	85.0127
 1.6020	85.0107
 1.6010	85.0745
 1.6000	85.0668
 1.5990	84.9941
 1.5980	85.0368
 1.5970	85.0951
 1.5960	85.0194
 1.5950	85.0125
 1.5940	84.9992
 1.5930	85.0010
 1.5920	85.0578
 1.5910	84.9139
 1.5900	84.9173
 1.5890	85.0306
 1.5880	84.9415
 1.5870	84.9796
 1.5860	85.0045
 1.5850	84.9477
 1.5840	84.9661
 1.5830	85.0269
 1.5820	84.9645
 1.5810	85.0098
 1.5800	84.9983
 1.5790	84.9801
 1.5780	84.9536
 1.5770	84.9405
 1.5760	84.9063
 1.5750	85.0054
 1.5740	84.9472
 1.5730	84.9277
 1.5720	84.9659
 1.5710	84.9724
 1.5700	84.9927
 1.5690	84.9703
 1.5680	84.9661
 1.5670	85.0111
 1.5660	84.9426
 1.5650	84.9178
 1.5640	84.9216
 1.5630	84.8570
 1.5620	84.9337
 1.5610	84.9962
 1.5600	84.9716
 1.5590	84.9494
 1.5580	84.9455
 1.5570	85.0307
 1.5560	84.9716
 1.5550	84.8860
 1.5540	84.9096
 1.5530	84.9005
 1.5520	84.8507
 1.5510	84.8337
 1.5500	84.8502
 1.5490	84.9039
 1.5480	84.8470
 1.5470	84.8467
 1.5460	84.8753
 1.5450	84.8765
 1.5440	84.8461
 1.5430	84.8462
 1.5420	84.8484
 1.5410	84.8518
 1.5400	84.8928
 1.5390	84.8573
 1.5380	84.8831
 1.5370	84.8422
 1.5360	84.8283
 1.5350	84.8374
 1.5340	84.9012
 1.5330	84.9397
 1.5320	84.8841
 1.5310	84.8616
 1.5300	84.7986
 1.5290	84.8192
 1.5280	84.8201
 1.5270	84.8358
 1.5260	84.8399
 1.5250	84.8246
 1.5240	84.7772
 1.5230	84.7953
 1.5220	84.8449
 1.5210	84.8106
 1.5200	84.7723
 1.5190	84.7720
 1.5180	84.7805
 1.5170	84.8266
 1.5160	84.8117
 1.5150	84.8219
 1.5140	84.8154
 1.5130	84.7779
 1.5120	84.7251
 1.5110	84.7375
 1.5100	84.7544
 1.5090	84.7475
 1.5080	84.6975
 1.5070	84.7089
 1.5060	84.7478
 1.5050	84.7613
 1.5040	84.7800
 1.5030	84.7891
 1.5020	84.7614
 1.5010	84.6470
 1.5000	84.6584
 1.4990	84.6952
 1.4980	84.6662
 1.4970	84.7439
 1.4960	84.7729
 1.4950	84.6673
 1.4940	84.6347
 1.4930	84.6398
 1.4920	84.6825
 1.4910	84.7265
 1.4900	84.6963
 1.4890	84.6643
 1.4880	84.5900
 1.4870	84.5470
 1.4860	84.5852
 1.4850	84.5675
 1.4840	84.5691
 1.4830	84.5996
 1.4820	84.5125
 1.4810	84.5324
 1.4800	84.5971
 1.4790	84.5159
 1.4780	84.5417
 1.4770	84.5886
 1.4760	84.5342
 1.4750	84.4809
 1.4740	84.5014
 1.4730	84.5329
 1.4720	84.5213
 1.4710	84.4521
 1.4700	84.5577
 1.4690	84.5159
 1.4680	84.4702
 1.4670	84.5427
 1.4660	84.5093
 1.4650	84.5037
 1.4640	84.4903
 1.4630	84.5333
 1.4620	84.5078
 1.4610	84.5441
 1.4600	84.4944
 1.4590	84.3808
 1.4580	84.4487
 1.4570	84.4278
 1.4560	84.5086
 1.4550	84.5464
 1.4540	84.4456
 1.4530	84.4205
 1.4520	84.4735
 1.4510	84.4551
 1.4500	84.4114
 1.4490	84.4604
 1.4480	84.4429
 1.4470	84.4077
 1.4460	84.4422
 1.4450	84.4478
 1.4440	84.4182
 1.4430	84.4198
 1.4420	84.4335
 1.4410	84.4358
 1.4400	84.3880
 1.4390	84.3963
 1.4380	84.3662
 1.4370	84.3323
 1.4360	84.3704
 1.4350	84.3605
 1.4340	84.3606
 1.4330	84.2957
 1.4320	84.3471
 1.4310	84.3331
 1.4300	84.3666
 1.4290	84.2868
 1.4280	84.2165
 1.4270	84.2021
 1.4260	84.2601
 1.4250	84.2221
 1.4240	84.2452
 1.4230	84.2215
 1.4220	84.2011
 1.4210	84.1965
 1.4200	84.1850
 1.4190	84.0787
 1.4180	83.9424
 1.4170	83.8090
 1.4160	83.8238
 1.4150	83.8033
 1.4140	83.7509
 1.4130	83.7247
 1.4120	83.6898
 1.4110	83.6838
 1.4100	83.7194
 1.4090	83.7597
 1.4080	83.8050
 1.4070	83.8401
 1.4060	83.7881
 1.4050	83.8517
 1.4040	83.9391
 1.4030	84.0292
 1.4020	83.9681
 1.4010	83.9742
 1.4000	84.0462
 1.3990	84.1334
 1.3980	84.2209
 1.3970	84.2739
 1.3960	84.2827
 1.3950	84.4153
 1.3940	84.4606
 1.3930	84.4460
 1.3920	84.4673
 1.3910	84.6406
 1.3900	84.5559
 1.3890	84.6598
 1.3880	84.6627
 1.3870	84.6863
 1.3860	84.7498
 1.3850	84.6656
 1.3840	84.7120
 1.3830	84.6605
 1.3820	84.6296
 1.3810	84.7198
 1.3800	84.7082
 1.3790	84.6489
 1.3780	84.7113
 1.3770	84.7137
 1.3760	84.6997
 1.3750	84.7229
 1.3740	84.6533
 1.3730	84.6621
 1.3720	84.6722
 1.3710	84.6487
 1.3700	84.7093
 1.3690	84.8085
 1.3680	84.7187
 1.3670	84.6650
 1.3660	84.6460
