Name: Lepidolite K(Li,Al)3(Si,Al)_4O_10(F,OH)_2
Type: Mineral
Class: Silicate
Subclass: Phyllosilicate
Particle Size: Medium
Sample No.: PS-13A
Owner: JPL
Wavelength Range: VSWIR
Origin: USA, South Dakota.
Collection Date: N/A
Description: Yellow lepidolite.Particle size was 45-125um.Collected by:  Ward's Original ASTER Spectral Library name was jpl.perkin.mineral.silicate.phyllosilicate.medium.ps13a.spectrum.txt
Measurement: Hemispherical reflectance
First Column: X
Second Column: Y
X Units: Wavelength (micrometers)
Y Units:Reflectance (percent)
First X Value:  2.5000
Last X Value:  0.4000
Number of X Values: 2101
Additional Information: mineral.silicate.phyllosilicate.medium.vswir.ps-13a.jpl.perkin.ancillary.txt

 2.5000	37.3406
 2.4990	37.1733
 2.4980	36.7522
 2.4970	36.9326
 2.4960	36.3394
 2.4950	36.4520
 2.4940	36.3416
 2.4930	36.2820
 2.4920	35.8995
 2.4910	36.0492
 2.4900	35.7791
 2.4890	35.7264
 2.4880	35.5206
 2.4870	35.6524
 2.4860	35.5237
 2.4850	35.3546
 2.4840	35.2967
 2.4830	35.3830
 2.4820	35.1217
 2.4810	35.1185
 2.4800	34.9585
 2.4790	34.8415
 2.4780	34.6699
 2.4770	34.8236
 2.4760	34.5461
 2.4750	34.5834
 2.4740	34.2497
 2.4730	34.4533
 2.4720	34.1365
 2.4710	34.1228
 2.4700	33.9395
 2.4690	33.9839
 2.4680	33.6311
 2.4670	33.7927
 2.4660	33.4231
 2.4650	33.4690
 2.4640	33.3261
 2.4630	33.1370
 2.4620	33.1676
 2.4610	33.0050
 2.4600	32.7144
 2.4590	32.6799
 2.4580	32.4207
 2.4570	32.4767
 2.4560	32.2700
 2.4550	32.2366
 2.4540	32.0304
 2.4530	31.9455
 2.4520	31.8045
 2.4510	31.7551
 2.4500	31.5056
 2.4490	31.4535
 2.4480	31.3126
 2.4470	31.3268
 2.4460	31.1902
 2.4450	31.2021
 2.4440	31.1213
 2.4430	31.0184
 2.4420	30.9976
 2.4410	30.9935
 2.4400	30.8558
 2.4390	30.9383
 2.4380	30.8881
 2.4370	30.9394
 2.4360	30.8873
 2.4350	31.0600
 2.4340	31.0387
 2.4330	31.1370
 2.4320	31.0753
 2.4310	31.4009
 2.4300	31.4056
 2.4290	31.5552
 2.4280	31.6865
 2.4270	31.9270
 2.4260	32.0307
 2.4250	32.2296
 2.4240	32.3565
 2.4230	32.5960
 2.4220	32.7579
 2.4210	33.0343
 2.4200	33.3126
 2.4190	33.5421
 2.4180	33.6994
 2.4170	34.0166
 2.4160	34.2168
 2.4150	34.5433
 2.4140	34.7210
 2.4130	34.9174
 2.4120	35.2181
 2.4110	35.5588
 2.4100	35.8004
 2.4090	36.0951
 2.4080	36.3487
 2.4070	36.6845
 2.4060	36.8857
 2.4050	37.0917
 2.4040	37.3219
 2.4030	37.5514
 2.4020	37.7759
 2.4010	37.9054
 2.4000	38.0816
 2.3990	38.3065
 2.3980	38.5050
 2.3970	38.6247
 2.3960	38.7165
 2.3950	38.8842
 2.3940	38.9669
 2.3930	39.0781
 2.3920	39.1300
 2.3910	39.2118
 2.3900	39.2661
 2.3890	39.4138
 2.3880	39.4985
 2.3870	39.5526
 2.3860	39.4892
 2.3850	39.5471
 2.3840	39.5567
 2.3830	39.5568
 2.3820	39.5847
 2.3810	39.5934
 2.3800	39.5954
 2.3790	39.6120
 2.3780	39.5920
 2.3770	39.5915
 2.3760	39.5455
 2.3750	39.5323
 2.3740	39.5469
 2.3730	39.5087
 2.3720	39.5082
 2.3710	39.5373
 2.3700	39.4727
 2.3690	39.4132
 2.3680	39.2455
 2.3670	39.1781
 2.3660	39.1612
 2.3650	39.0453
 2.3640	38.9037
 2.3630	38.7559
 2.3620	38.6603
 2.3610	38.5640
 2.3600	38.4069
 2.3590	38.2057
 2.3580	38.0300
 2.3570	37.8828
 2.3560	37.7080
 2.3550	37.5759
 2.3540	37.4785
 2.3530	37.3361
 2.3520	37.2149
 2.3510	37.1359
 2.3500	37.0342
 2.3490	36.9623
 2.3480	36.9219
 2.3470	36.8977
 2.3460	36.9373
 2.3450	36.9543
 2.3440	37.0174
 2.3430	37.1576
 2.3420	37.2779
 2.3410	37.3910
 2.3400	37.5665
 2.3390	37.7716
 2.3380	37.9784
 2.3370	38.2088
 2.3360	38.5824
 2.3350	38.8444
 2.3340	39.1355
 2.3330	39.4922
 2.3320	39.8806
 2.3310	40.2967
 2.3300	40.6598
 2.3290	41.0231
 2.3280	41.4345
 2.3270	41.8534
 2.3260	42.3064
 2.3250	42.7450
 2.3240	43.2112
 2.3230	43.6416
 2.3220	44.1478
 2.3210	44.5614
 2.3200	45.0797
 2.3190	45.5331
 2.3180	46.0373
 2.3170	46.4756
 2.3160	46.9633
 2.3150	47.3775
 2.3140	47.8573
 2.3130	48.2720
 2.3120	48.7867
 2.3110	49.2400
 2.3100	49.7642
 2.3090	50.2110
 2.3080	50.6764
 2.3070	51.0959
 2.3060	51.5755
 2.3050	51.9141
 2.3040	52.3478
 2.3030	52.7778
 2.3020	53.2358
 2.3010	53.6060
 2.3000	54.0810
 2.2990	54.4394
 2.2980	54.8804
 2.2970	55.2057
 2.2960	55.5048
 2.2950	55.8940
 2.2940	56.2732
 2.2930	56.5671
 2.2920	56.8919
 2.2910	57.0771
 2.2900	57.3500
 2.2890	57.5841
 2.2880	57.8781
 2.2870	57.9925
 2.2860	58.2722
 2.2850	58.4650
 2.2840	58.6223
 2.2830	58.7714
 2.2820	58.9555
 2.2810	59.0399
 2.2800	59.2576
 2.2790	59.3216
 2.2780	59.4481
 2.2770	59.5169
 2.2760	59.6275
 2.2750	59.7145
 2.2740	59.7823
 2.2730	59.8274
 2.2720	59.9219
 2.2710	59.9929
 2.2700	60.0546
 2.2690	60.0597
 2.2680	60.1318
 2.2670	60.0921
 2.2660	60.0151
 2.2650	60.0148
 2.2640	60.0535
 2.2630	60.0273
 2.2620	60.0982
 2.2610	60.0066
 2.2600	59.9455
 2.2590	59.8828
 2.2580	59.8652
 2.2570	59.6964
 2.2560	59.7347
 2.2550	59.6397
 2.2540	59.6183
 2.2530	59.5082
 2.2520	59.5039
 2.2510	59.3707
 2.2500	59.3120
 2.2490	59.1814
 2.2480	59.1491
 2.2470	59.1212
 2.2460	58.9771
 2.2450	58.8878
 2.2440	58.7558
 2.2430	58.6794
 2.2420	58.5511
 2.2410	58.3266
 2.2400	58.2160
 2.2390	58.0337
 2.2380	57.8287
 2.2370	57.6943
 2.2360	57.4787
 2.2350	57.1282
 2.2340	56.9015
 2.2330	56.6117
 2.2320	56.2402
 2.2310	55.7537
 2.2300	55.3988
 2.2290	54.9233
 2.2280	54.4922
 2.2270	53.8646
 2.2260	53.3547
 2.2250	52.6362
 2.2240	51.9818
 2.2230	51.1299
 2.2220	50.4065
 2.2210	49.4052
 2.2200	48.6213
 2.2190	47.6053
 2.2180	46.6736
 2.2170	45.6850
 2.2160	44.6041
 2.2150	43.4349
 2.2140	42.5027
 2.2130	41.3539
 2.2120	40.3152
 2.2110	38.9690
 2.2100	38.1005
 2.2090	36.9234
 2.2080	36.0462
 2.2070	34.9777
 2.2060	34.0611
 2.2050	33.2256
 2.2040	32.4118
 2.2030	31.5680
 2.2020	30.9755
 2.2010	30.4060
 2.2000	29.7959
 2.1990	29.3941
 2.1980	29.1644
 2.1970	28.7846
 2.1960	28.7716
 2.1950	28.6534
 2.1940	28.8353
 2.1930	28.9089
 2.1920	29.1657
 2.1910	29.4980
 2.1900	30.0973
 2.1890	30.7355
 2.1880	31.5614
 2.1870	32.1599
 2.1860	33.0848
 2.1850	34.0734
 2.1840	35.1310
 2.1830	36.1779
 2.1820	37.4346
 2.1810	38.4838
 2.1800	39.7876
 2.1790	40.9032
 2.1780	42.2123
 2.1770	43.4341
 2.1760	44.6749
 2.1750	45.8941
 2.1740	47.0272
 2.1730	48.1319
 2.1720	49.2558
 2.1710	50.2880
 2.1700	51.3755
 2.1690	52.3297
 2.1680	53.2856
 2.1670	54.1264
 2.1660	54.9707
 2.1650	55.7697
 2.1640	56.5742
 2.1630	57.2621
 2.1620	58.0280
 2.1610	58.5929
 2.1600	59.1961
 2.1590	59.7421
 2.1580	60.3583
 2.1570	60.8453
 2.1560	61.3446
 2.1550	61.7989
 2.1540	62.2399
 2.1530	62.6017
 2.1520	63.0524
 2.1510	63.3776
 2.1500	63.7543
 2.1490	64.0172
 2.1480	64.3100
 2.1470	64.5109
 2.1460	64.8272
 2.1450	65.1289
 2.1440	65.3908
 2.1430	65.5200
 2.1420	65.6307
 2.1410	65.8047
 2.1400	66.1033
 2.1390	66.1491
 2.1380	66.2491
 2.1370	66.3284
 2.1360	66.3942
 2.1350	66.4246
 2.1340	66.4671
 2.1330	66.4772
 2.1320	66.4745
 2.1310	66.3651
 2.1300	66.3372
 2.1290	66.2883
 2.1280	66.1500
 2.1270	66.1095
 2.1260	66.0693
 2.1250	65.9608
 2.1240	65.8907
 2.1230	65.8350
 2.1220	65.8850
 2.1210	65.7992
 2.1200	65.7391
 2.1190	65.7986
 2.1180	65.8362
 2.1170	65.8781
 2.1160	65.9798
 2.1150	66.0417
 2.1140	66.1969
 2.1130	66.3607
 2.1120	66.5173
 2.1110	66.6981
 2.1100	66.9104
 2.1090	67.0364
 2.1080	67.1949
 2.1070	67.4321
 2.1060	67.6159
 2.1050	67.7698
 2.1040	68.0170
 2.1030	68.2692
 2.1020	68.5093
 2.1010	68.7749
 2.1000	69.0644
 2.0990	69.3440
 2.0980	69.6718
 2.0970	70.0141
 2.0960	70.3345
 2.0950	70.5934
 2.0940	70.8736
 2.0930	71.1614
 2.0920	71.5103
 2.0910	71.9124
 2.0900	72.1876
 2.0890	72.3994
 2.0880	72.7105
 2.0870	73.0441
 2.0860	73.3050
 2.0850	73.5068
 2.0840	73.7825
 2.0830	74.0158
 2.0820	74.1716
 2.0810	74.3559
 2.0800	74.5540
 2.0790	74.7651
 2.0780	74.9167
 2.0770	75.0679
 2.0760	75.2405
 2.0750	75.3502
 2.0740	75.5046
 2.0730	75.6420
 2.0720	75.7506
 2.0710	75.8316
 2.0700	75.9285
 2.0690	76.0016
 2.0680	76.0669
 2.0670	76.1954
 2.0660	76.2554
 2.0650	76.3117
 2.0640	76.4337
 2.0630	76.5509
 2.0620	76.5980
 2.0610	76.6836
 2.0600	76.7780
 2.0590	76.8206
 2.0580	76.8297
 2.0570	76.8271
 2.0560	76.9168
 2.0550	77.0143
 2.0540	77.0930
 2.0530	77.1053
 2.0520	77.1528
 2.0510	77.1969
 2.0500	77.2080
 2.0490	77.3112
 2.0480	77.3736
 2.0470	77.4100
 2.0460	77.4401
 2.0450	77.4583
 2.0440	77.5352
 2.0430	77.6023
 2.0420	77.6558
 2.0410	77.7621
 2.0400	77.7892
 2.0390	77.8524
 2.0380	77.8413
 2.0370	77.9063
 2.0360	77.9848
 2.0350	78.0385
 2.0340	78.0636
 2.0330	78.1370
 2.0320	78.2365
 2.0310	78.2627
 2.0300	78.2998
 2.0290	78.3505
 2.0280	78.3563
 2.0270	78.4612
 2.0260	78.4851
 2.0250	78.4866
 2.0240	78.5082
 2.0230	78.5506
 2.0220	78.5668
 2.0210	78.6048
 2.0200	78.6798
 2.0190	78.7330
 2.0180	78.7504
 2.0170	78.7343
 2.0160	78.6922
 2.0150	78.7528
 2.0140	78.7877
 2.0130	78.7957
 2.0120	78.7471
 2.0110	78.8074
 2.0100	78.8557
 2.0090	78.8678
 2.0080	78.8236
 2.0070	78.7642
 2.0060	78.8523
 2.0050	78.9030
 2.0040	78.9596
 2.0030	78.9379
 2.0020	78.9923
 2.0010	79.0352
 2.0000	79.0094
 1.9990	78.9708
 1.9980	79.0071
 1.9970	78.9875
 1.9960	78.9924
 1.9950	79.0924
 1.9940	79.0709
 1.9930	79.0827
 1.9920	79.0044
 1.9910	79.1141
 1.9900	79.1810
 1.9890	79.1648
 1.9880	79.2088
 1.9870	79.1794
 1.9860	79.1723
 1.9850	79.2203
 1.9840	79.2574
 1.9830	79.3302
 1.9820	79.3351
 1.9810	79.4543
 1.9800	79.4832
 1.9790	79.4583
 1.9780	79.4609
 1.9770	79.5845
 1.9760	79.6364
 1.9750	79.6312
 1.9740	79.6212
 1.9730	79.6338
 1.9720	79.6982
 1.9710	79.7295
 1.9700	79.7248
 1.9690	79.8117
 1.9680	79.8770
 1.9670	79.8980
 1.9660	79.8804
 1.9650	80.0365
 1.9640	80.0277
 1.9630	80.1702
 1.9620	80.1321
 1.9610	80.1238
 1.9600	80.1841
 1.9590	80.1944
 1.9580	80.3292
 1.9570	80.4325
 1.9560	80.3754
 1.9550	80.4028
 1.9540	80.4827
 1.9530	80.4799
 1.9520	80.5357
 1.9510	80.5046
 1.9500	80.6144
 1.9490	80.6502
 1.9480	80.6693
 1.9470	80.7477
 1.9460	80.7190
 1.9450	80.8607
 1.9440	80.8397
 1.9430	80.9192
 1.9420	80.8714
 1.9410	80.9626
 1.9400	80.9474
 1.9390	81.0284
 1.9380	80.9709
 1.9370	81.0302
 1.9360	81.1649
 1.9350	81.0914
 1.9340	81.1195
 1.9330	81.1500
 1.9320	81.1469
 1.9310	81.1867
 1.9300	81.1142
 1.9290	81.1930
 1.9280	81.2831
 1.9270	81.0940
 1.9260	81.2128
 1.9250	81.2133
 1.9240	81.2324
 1.9230	81.2419
 1.9220	81.2258
 1.9210	81.3264
 1.9200	81.2565
 1.9190	81.4238
 1.9180	81.3117
 1.9170	81.3773
 1.9160	81.3786
 1.9150	81.4600
 1.9140	81.4333
 1.9130	81.4368
 1.9120	81.5539
 1.9110	81.5421
 1.9100	81.6042
 1.9090	81.7112
 1.9080	81.6930
 1.9070	81.8581
 1.9060	81.8908
 1.9050	82.0084
 1.9040	82.0658
 1.9030	82.2164
 1.9020	82.2896
 1.9010	82.4630
 1.9000	82.5597
 1.8990	82.5985
 1.8980	82.8325
 1.8970	82.8809
 1.8960	82.9938
 1.8950	83.1298
 1.8940	83.2547
 1.8930	83.3885
 1.8920	83.3449
 1.8910	83.5576
 1.8900	83.6889
 1.8890	83.6568
 1.8880	83.7450
 1.8870	83.8488
 1.8860	83.9270
 1.8850	83.9271
 1.8840	83.9782
 1.8830	84.0618
 1.8820	84.1290
 1.8810	84.1272
 1.8800	84.2472
 1.8790	84.2802
 1.8780	84.4141
 1.8770	84.3860
 1.8760	84.3347
 1.8750	84.3601
 1.8740	84.5368
 1.8730	84.5786
 1.8720	84.6072
 1.8710	84.7040
 1.8700	84.6697
 1.8690	84.7185
 1.8680	84.7445
 1.8670	84.8014
 1.8660	84.8267
 1.8650	84.8328
 1.8640	84.7465
 1.8630	84.7350
 1.8620	84.7369
 1.8610	84.7111
 1.8600	84.6313
 1.8590	84.6476
 1.8580	84.6941
 1.8570	84.6558
 1.8560	84.6320
 1.8550	84.5940
 1.8540	84.5455
 1.8530	84.4232
 1.8520	84.3066
 1.8510	84.2009
 1.8500	84.0292
 1.8490	83.9401
 1.8480	83.9211
 1.8470	83.8796
 1.8460	83.7602
 1.8450	83.6492
 1.8440	83.5670
 1.8430	83.4931
 1.8420	83.3955
 1.8410	83.3802
 1.8400	83.3714
 1.8390	83.3455
 1.8380	83.2994
 1.8370	83.3447
 1.8360	83.3306
 1.8350	83.3223
 1.8340	83.4160
 1.8330	83.4434
 1.8320	83.5356
 1.8310	83.6594
 1.8300	83.7438
 1.8290	83.8534
 1.8280	83.9332
 1.8270	84.0012
 1.8260	84.1445
 1.8250	84.2286
 1.8240	84.3723
 1.8230	84.4380
 1.8220	84.5915
 1.8210	84.7246
 1.8200	84.8147
 1.8190	84.9369
 1.8180	85.0055
 1.8170	85.1033
 1.8160	85.1183
 1.8150	85.1896
 1.8140	85.2861
 1.8130	85.3556
 1.8120	85.4131
 1.8110	85.5168
 1.8100	85.5350
 1.8090	85.5933
 1.8080	85.6489
 1.8070	85.6146
 1.8060	85.6774
 1.8050	85.7173
 1.8040	85.7366
 1.8030	85.7812
 1.8020	85.7690
 1.8010	85.7884
 1.8000	85.8777
 1.7990	85.8540
 1.7980	85.8061
 1.7970	85.8701
 1.7960	85.9076
 1.7950	85.8710
 1.7940	85.9047
 1.7930	85.9417
 1.7920	85.9204
 1.7910	85.9400
 1.7900	85.9511
 1.7890	85.9660
 1.7880	85.9452
 1.7870	85.8875
 1.7860	85.8895
 1.7850	85.8621
 1.7840	85.8672
 1.7830	85.8774
 1.7820	85.8530
 1.7810	85.8606
 1.7800	85.8112
 1.7790	85.8017
 1.7780	85.7879
 1.7770	85.7154
 1.7760	85.7405
 1.7750	85.6915
 1.7740	85.6377
 1.7730	85.6905
 1.7720	85.6396
 1.7710	85.6300
 1.7700	85.6283
 1.7690	85.6536
 1.7680	85.6974
 1.7670	85.6920
 1.7660	85.7159
 1.7650	85.6721
 1.7640	85.6562
 1.7630	85.7005
 1.7620	85.7029
 1.7610	85.7116
 1.7600	85.7593
 1.7590	85.8279
 1.7580	85.8806
 1.7570	85.8305
 1.7560	85.8238
 1.7550	85.8795
 1.7540	85.9321
 1.7530	85.9434
 1.7520	86.0192
 1.7510	85.9832
 1.7500	86.0156
 1.7490	86.0893
 1.7480	86.1298
 1.7470	86.1138
 1.7460	86.1580
 1.7450	86.1699
 1.7440	86.2227
 1.7430	86.2566
 1.7420	86.2065
 1.7410	86.2539
 1.7400	86.2660
 1.7390	86.3451
 1.7380	86.3509
 1.7370	86.3580
 1.7360	86.3548
 1.7350	86.4497
 1.7340	86.4200
 1.7330	86.3622
 1.7320	86.3855
 1.7310	86.4151
 1.7300	86.4390
 1.7290	86.3776
 1.7280	86.3930
 1.7270	86.3278
 1.7260	86.3199
 1.7250	86.3573
 1.7240	86.4006
 1.7230	86.3836
 1.7220	86.4402
 1.7210	86.4334
 1.7200	86.4026
 1.7190	86.4455
 1.7180	86.4658
 1.7170	86.4482
 1.7160	86.4010
 1.7150	86.3718
 1.7140	86.3734
 1.7130	86.3283
 1.7120	86.3781
 1.7110	86.3863
 1.7100	86.3992
 1.7090	86.3732
 1.7080	86.4448
 1.7070	86.4025
 1.7060	86.4034
 1.7050	86.3651
 1.7040	86.3816
 1.7030	86.3594
 1.7020	86.3979
 1.7010	86.4053
 1.7000	86.4221
 1.6990	86.3866
 1.6980	86.3710
 1.6970	86.4295
 1.6960	86.3777
 1.6950	86.3811
 1.6940	86.4215
 1.6930	86.4326
 1.6920	86.4237
 1.6910	86.3355
 1.6900	86.3260
 1.6890	86.4098
 1.6880	86.3265
 1.6870	86.3677
 1.6860	86.3721
 1.6850	86.3082
 1.6840	86.3864
 1.6830	86.3087
 1.6820	86.3159
 1.6810	86.3575
 1.6800	86.3510
 1.6790	86.3901
 1.6780	86.3798
 1.6770	86.3116
 1.6760	86.2562
 1.6750	86.2748
 1.6740	86.3758
 1.6730	86.3111
 1.6720	86.2753
 1.6710	86.2079
 1.6700	86.3255
 1.6690	86.2821
 1.6680	86.3308
 1.6670	86.2726
 1.6660	86.2861
 1.6650	86.2899
 1.6640	86.3812
 1.6630	86.3757
 1.6620	86.2291
 1.6610	86.2316
 1.6600	86.2457
 1.6590	86.2473
 1.6580	86.2031
 1.6570	86.1614
 1.6560	86.2635
 1.6550	86.2628
 1.6540	86.2533
 1.6530	86.2336
 1.6520	86.2078
 1.6510	86.1030
 1.6500	86.1732
 1.6490	86.2156
 1.6480	86.1673
 1.6470	86.0979
 1.6460	86.1138
 1.6450	86.1397
 1.6440	86.0761
 1.6430	86.1825
 1.6420	86.0093
 1.6410	86.0741
 1.6400	86.1241
 1.6390	86.1049
 1.6380	86.1351
 1.6370	86.1144
 1.6360	86.1789
 1.6350	86.0549
 1.6340	86.0287
 1.6330	86.1023
 1.6320	86.0861
 1.6310	86.0193
 1.6300	86.0459
 1.6290	86.0498
 1.6280	86.0502
 1.6270	86.0818
 1.6260	86.0874
 1.6250	86.1392
 1.6240	86.0710
 1.6230	86.1513
 1.6220	86.0159
 1.6210	86.0311
 1.6200	86.0717
 1.6190	86.0228
 1.6180	86.0401
 1.6170	86.0492
 1.6160	86.0716
 1.6150	85.9918
 1.6140	86.0200
 1.6130	86.0333
 1.6120	85.8935
 1.6110	86.0262
 1.6100	85.9705
 1.6090	85.9247
 1.6080	85.9912
 1.6070	85.9775
 1.6060	85.9457
 1.6050	85.9450
 1.6040	85.9364
 1.6030	85.9427
 1.6020	85.9424
 1.6010	85.8955
 1.6000	85.9111
 1.5990	85.9156
 1.5980	85.9953
 1.5970	85.9645
 1.5960	85.8758
 1.5950	85.8679
 1.5940	85.7979
 1.5930	85.7793
 1.5920	85.8456
 1.5910	85.7109
 1.5900	85.7269
 1.5890	85.7256
 1.5880	85.6618
 1.5870	85.7003
 1.5860	85.7424
 1.5850	85.7076
 1.5840	85.6097
 1.5830	85.5341
 1.5820	85.5162
 1.5810	85.5622
 1.5800	85.5298
 1.5790	85.4260
 1.5780	85.4114
 1.5770	85.3839
 1.5760	85.4250
 1.5750	85.4564
 1.5740	85.4110
 1.5730	85.3724
 1.5720	85.3202
 1.5710	85.2379
 1.5700	85.2845
 1.5690	85.3007
 1.5680	85.1755
 1.5670	85.1338
 1.5660	85.1571
 1.5650	85.0974
 1.5640	85.1056
 1.5630	85.0708
 1.5620	84.9918
 1.5610	85.0048
 1.5600	85.0089
 1.5590	84.9927
 1.5580	84.9218
 1.5570	84.8454
 1.5560	84.8265
 1.5550	84.8275
 1.5540	84.8343
 1.5530	84.8316
 1.5520	84.8686
 1.5510	84.7936
 1.5500	84.6869
 1.5490	84.6812
 1.5480	84.6441
 1.5470	84.6437
 1.5460	84.6424
 1.5450	84.5595
 1.5440	84.5111
 1.5430	84.5680
 1.5420	84.5516
 1.5410	84.5282
 1.5400	84.4974
 1.5390	84.4911
 1.5380	84.4621
 1.5370	84.3988
 1.5360	84.4013
 1.5350	84.3840
 1.5340	84.3781
 1.5330	84.3037
 1.5320	84.2341
 1.5310	84.2546
 1.5300	84.2022
 1.5290	84.1614
 1.5280	84.1801
 1.5270	84.0980
 1.5260	84.0438
 1.5250	84.0536
 1.5240	84.0196
 1.5230	83.9966
 1.5220	83.9693
 1.5210	83.9566
 1.5200	83.9020
 1.5190	83.8277
 1.5180	83.7932
 1.5170	83.7741
 1.5160	83.7289
 1.5150	83.6478
 1.5140	83.6698
 1.5130	83.6694
 1.5120	83.6130
 1.5110	83.5963
 1.5100	83.5634
 1.5090	83.5139
 1.5080	83.4695
 1.5070	83.4295
 1.5060	83.3797
 1.5050	83.3530
 1.5040	83.3484
 1.5030	83.3595
 1.5020	83.3022
 1.5010	83.2405
 1.5000	83.1820
 1.4990	83.1188
 1.4980	83.0792
 1.4970	83.0813
 1.4960	83.0230
 1.4950	82.9958
 1.4940	82.9807
 1.4930	82.9080
 1.4920	82.8529
 1.4910	82.7873
 1.4900	82.7541
 1.4890	82.7355
 1.4880	82.7501
 1.4870	82.6947
 1.4860	82.6519
 1.4850	82.6061
 1.4840	82.5366
 1.4830	82.4880
 1.4820	82.4757
 1.4810	82.4684
 1.4800	82.3888
 1.4790	82.3958
 1.4780	82.3428
 1.4770	82.2235
 1.4760	82.1825
 1.4750	82.1992
 1.4740	82.1078
 1.4730	82.0731
 1.4720	82.0613
 1.4710	81.9372
 1.4700	81.8262
 1.4690	81.7710
 1.4680	81.7813
 1.4670	81.7367
 1.4660	81.6721
 1.4650	81.6017
 1.4640	81.5181
 1.4630	81.4442
 1.4620	81.3643
 1.4610	81.2303
 1.4600	81.1606
 1.4590	81.0841
 1.4580	80.9920
 1.4570	80.9045
 1.4560	80.7381
 1.4550	80.5873
 1.4540	80.4829
 1.4530	80.2956
 1.4520	80.1699
 1.4510	80.0671
 1.4500	79.9972
 1.4490	79.8957
 1.4480	79.7769
 1.4470	79.6365
 1.4460	79.4932
 1.4450	79.3194
 1.4440	79.1685
 1.4430	79.0373
 1.4420	78.8797
 1.4410	78.6076
 1.4400	78.3347
 1.4390	78.0819
 1.4380	77.7556
 1.4370	77.4012
 1.4360	76.9870
 1.4350	76.5194
 1.4340	75.8032
 1.4330	75.1344
 1.4320	74.2528
 1.4310	73.2512
 1.4300	72.2048
 1.4290	70.9989
 1.4280	69.5861
 1.4270	68.1609
 1.4260	66.4570
 1.4250	64.5951
 1.4240	62.5940
 1.4230	60.5979
 1.4220	58.3745
 1.4210	56.0904
 1.4200	53.7206
 1.4190	51.1950
 1.4180	48.9222
 1.4170	46.8052
 1.4160	44.9120
 1.4150	43.0363
 1.4140	41.6318
 1.4130	40.6982
 1.4120	40.2978
 1.4110	40.3191
 1.4100	40.7008
 1.4090	41.2577
 1.4080	41.9268
 1.4070	42.6778
 1.4060	43.3167
 1.4050	44.1753
 1.4040	44.8371
 1.4030	45.5773
 1.4020	46.3942
 1.4010	47.7394
 1.4000	49.1142
 1.3990	50.7698
 1.3980	52.5349
 1.3970	54.6511
 1.3960	57.1179
 1.3950	59.9063
 1.3940	62.4127
 1.3930	64.8379
 1.3920	66.9176
 1.3910	68.8223
 1.3900	70.3505
 1.3890	71.5989
 1.3880	72.5630
 1.3870	73.3619
 1.3860	73.9519
 1.3850	74.3091
 1.3840	74.4957
 1.3830	74.7056
 1.3820	74.8362
 1.3810	74.9483
 1.3800	74.9277
 1.3790	75.0283
 1.3780	75.1038
 1.3770	75.1546
 1.3760	75.1327
 1.3750	75.1752
 1.3740	75.3101
 1.3730	75.3800
 1.3720	75.3835
 1.3710	75.4817
 1.3700	75.5624
 1.3690	75.6500
