Name: Triphylite Li(Mn,Fe)PO_4
Type: Mineral
Class: Phosphate
Subclass: None
Particle Size: Coarse
Sample No.: P-4A
Owner: JPL
Wavelength Range: VSWIR
Origin: USA, New Hampshire, North Graton, Palermo Mine.
Collection Date: N/A
Description: Particle size was 125-500um. Collected by:  Burminco Original ASTER Spectral Library name was jpl.perkin.mineral.phosphate.none.coarse.p04a.spectrum.txt
Measurement: Hemispherical reflectance
First Column: X
Second Column: Y
X Units: Wavelength (micrometers)
Y Units:Reflectance (percent)
First X Value:  2.5000
Last X Value:  0.4000
Number of X Values: 2101
Additional Information: mineral.phosphate.none.coarse.vswir.p-4a.jpl.perkin.ancillary.txt

 2.5000	56.5497
 2.4990	56.3909
 2.4980	56.3884
 2.4970	56.5666
 2.4960	56.5331
 2.4950	56.6457
 2.4940	56.6295
 2.4930	56.6137
 2.4920	56.8095
 2.4910	56.7538
 2.4900	56.9840
 2.4890	56.8706
 2.4880	56.9216
 2.4870	56.9754
 2.4860	57.1687
 2.4850	57.1553
 2.4840	57.3364
 2.4830	57.3556
 2.4820	57.4495
 2.4810	57.4547
 2.4800	57.5121
 2.4790	57.4283
 2.4780	57.7031
 2.4770	57.6903
 2.4760	57.8185
 2.4750	57.8665
 2.4740	57.8502
 2.4730	57.9213
 2.4720	58.0400
 2.4710	58.0484
 2.4700	58.0832
 2.4690	58.1576
 2.4680	58.3384
 2.4670	58.3754
 2.4660	58.3845
 2.4650	58.4384
 2.4640	58.5621
 2.4630	58.5519
 2.4620	58.6969
 2.4610	58.7653
 2.4600	58.8045
 2.4590	58.9307
 2.4580	59.0623
 2.4570	58.9499
 2.4560	59.0839
 2.4550	59.0646
 2.4540	59.2068
 2.4530	59.2404
 2.4520	59.3102
 2.4510	59.4253
 2.4500	59.3671
 2.4490	59.4663
 2.4480	59.5549
 2.4470	59.6049
 2.4460	59.5423
 2.4450	59.6091
 2.4440	59.6978
 2.4430	59.7728
 2.4420	59.7743
 2.4410	59.8638
 2.4400	59.9791
 2.4390	60.0131
 2.4380	60.1385
 2.4370	60.1636
 2.4360	60.1268
 2.4350	60.2236
 2.4340	60.3300
 2.4330	60.4196
 2.4320	60.4047
 2.4310	60.5598
 2.4300	60.5135
 2.4290	60.5460
 2.4280	60.7111
 2.4270	60.6982
 2.4260	60.7233
 2.4250	60.7972
 2.4240	60.9360
 2.4230	60.8693
 2.4220	60.9687
 2.4210	61.0107
 2.4200	61.0952
 2.4190	61.1487
 2.4180	61.1300
 2.4170	61.2352
 2.4160	61.2983
 2.4150	61.2741
 2.4140	61.3544
 2.4130	61.3791
 2.4120	61.4392
 2.4110	61.4355
 2.4100	61.4973
 2.4090	61.5408
 2.4080	61.7038
 2.4070	61.6588
 2.4060	61.6651
 2.4050	61.6503
 2.4040	61.7289
 2.4030	61.7532
 2.4020	61.7832
 2.4010	61.8630
 2.4000	61.9360
 2.3990	61.9473
 2.3980	61.9623
 2.3970	61.9292
 2.3960	62.0771
 2.3950	62.1833
 2.3940	62.2122
 2.3930	62.1961
 2.3920	62.2195
 2.3910	62.3497
 2.3900	62.4153
 2.3890	62.3958
 2.3880	62.4127
 2.3870	62.4285
 2.3860	62.5381
 2.3850	62.6428
 2.3840	62.6730
 2.3830	62.6861
 2.3820	62.7349
 2.3810	62.7312
 2.3800	62.7841
 2.3790	62.8199
 2.3780	62.8660
 2.3770	62.9448
 2.3760	62.9764
 2.3750	62.9865
 2.3740	63.0326
 2.3730	63.0567
 2.3720	63.0729
 2.3710	63.1614
 2.3700	63.2417
 2.3690	63.3053
 2.3680	63.3344
 2.3670	63.3389
 2.3660	63.4042
 2.3650	63.4395
 2.3640	63.4525
 2.3630	63.5033
 2.3620	63.5931
 2.3610	63.6402
 2.3600	63.6880
 2.3590	63.7193
 2.3580	63.7048
 2.3570	63.7877
 2.3560	63.8960
 2.3550	63.9006
 2.3540	63.9133
 2.3530	63.9910
 2.3520	64.0056
 2.3510	64.0320
 2.3500	64.0685
 2.3490	64.1005
 2.3480	64.0981
 2.3470	64.1094
 2.3460	64.1626
 2.3450	64.1981
 2.3440	64.2795
 2.3430	64.3323
 2.3420	64.3138
 2.3410	64.3745
 2.3400	64.4076
 2.3390	64.3989
 2.3380	64.3996
 2.3370	64.4346
 2.3360	64.4537
 2.3350	64.5172
 2.3340	64.5320
 2.3330	64.5495
 2.3320	64.4966
 2.3310	64.5403
 2.3300	64.6271
 2.3290	64.6080
 2.3280	64.6582
 2.3270	64.6601
 2.3260	64.6375
 2.3250	64.7090
 2.3240	64.7254
 2.3230	64.7285
 2.3220	64.7058
 2.3210	64.7373
 2.3200	64.7350
 2.3190	64.7823
 2.3180	64.8085
 2.3170	64.7811
 2.3160	64.7781
 2.3150	64.8384
 2.3140	64.8740
 2.3130	64.8485
 2.3120	64.8806
 2.3110	64.8957
 2.3100	64.8158
 2.3090	64.9131
 2.3080	64.9869
 2.3070	65.0453
 2.3060	65.0184
 2.3050	65.0476
 2.3040	64.9654
 2.3030	64.9802
 2.3020	65.0142
 2.3010	65.0151
 2.3000	64.9954
 2.2990	65.0318
 2.2980	65.0373
 2.2970	65.0330
 2.2960	65.0121
 2.2950	65.0209
 2.2940	65.0254
 2.2930	65.0373
 2.2920	65.0606
 2.2910	65.1033
 2.2900	65.0902
 2.2890	65.0922
 2.2880	65.0347
 2.2870	65.0741
 2.2860	65.0556
 2.2850	65.0674
 2.2840	65.0321
 2.2830	65.0590
 2.2820	65.0127
 2.2810	65.0590
 2.2800	65.0525
 2.2790	65.0827
 2.2780	65.0384
 2.2770	65.0498
 2.2760	65.0355
 2.2750	65.1134
 2.2740	65.0474
 2.2730	65.0827
 2.2720	65.0620
 2.2710	65.0781
 2.2700	65.0144
 2.2690	65.0456
 2.2680	65.0326
 2.2670	65.0423
 2.2660	64.9960
 2.2650	65.0311
 2.2640	64.9751
 2.2630	65.0239
 2.2620	65.0280
 2.2610	65.0196
 2.2600	65.0117
 2.2590	65.0589
 2.2580	64.9856
 2.2570	65.0454
 2.2560	64.9668
 2.2550	64.9645
 2.2540	64.9814
 2.2530	65.0018
 2.2520	64.9245
 2.2510	64.9575
 2.2500	64.9239
 2.2490	64.8932
 2.2480	64.8798
 2.2470	64.9424
 2.2460	64.8491
 2.2450	64.8933
 2.2440	64.8778
 2.2430	64.8846
 2.2420	64.8061
 2.2410	64.8027
 2.2400	64.7675
 2.2390	64.8341
 2.2380	64.7972
 2.2370	64.8251
 2.2360	64.7703
 2.2350	64.8346
 2.2340	64.7646
 2.2330	64.7811
 2.2320	64.7647
 2.2310	64.7469
 2.2300	64.7143
 2.2290	64.7512
 2.2280	64.7212
 2.2270	64.6993
 2.2260	64.6667
 2.2250	64.7094
 2.2240	64.6218
 2.2230	64.7365
 2.2220	64.6445
 2.2210	64.6527
 2.2200	64.5282
 2.2190	64.6652
 2.2180	64.6185
 2.2170	64.6242
 2.2160	64.5889
 2.2150	64.6010
 2.2140	64.6110
 2.2130	64.6120
 2.2120	64.5941
 2.2110	64.4576
 2.2100	64.5408
 2.2090	64.5514
 2.2080	64.5098
 2.2070	64.5597
 2.2060	64.5050
 2.2050	64.5172
 2.2040	64.4455
 2.2030	64.4822
 2.2020	64.4569
 2.2010	64.5263
 2.2000	64.4485
 2.1990	64.4647
 2.1980	64.4180
 2.1970	64.4482
 2.1960	64.3100
 2.1950	64.3275
 2.1940	64.2247
 2.1930	64.2965
 2.1920	64.2359
 2.1910	64.2920
 2.1900	64.2666
 2.1890	64.1878
 2.1880	64.1032
 2.1870	64.1378
 2.1860	64.0723
 2.1850	64.1145
 2.1840	64.0906
 2.1830	64.0908
 2.1820	64.0869
 2.1810	64.0477
 2.1800	63.9860
 2.1790	64.0023
 2.1780	63.9431
 2.1770	63.8667
 2.1760	63.8786
 2.1750	63.9010
 2.1740	63.8398
 2.1730	63.8250
 2.1720	63.7752
 2.1710	63.8626
 2.1700	63.7572
 2.1690	63.7945
 2.1680	63.7306
 2.1670	63.6972
 2.1660	63.6012
 2.1650	63.6700
 2.1640	63.6656
 2.1630	63.5889
 2.1620	63.5888
 2.1610	63.5299
 2.1600	63.4823
 2.1590	63.4799
 2.1580	63.3861
 2.1570	63.4540
 2.1560	63.4472
 2.1550	63.3269
 2.1540	63.2641
 2.1530	63.2756
 2.1520	63.2018
 2.1510	63.1582
 2.1500	63.0941
 2.1490	63.0707
 2.1480	62.9708
 2.1470	62.9084
 2.1460	62.7906
 2.1450	62.8136
 2.1440	62.7311
 2.1430	62.7324
 2.1420	62.6632
 2.1410	62.5623
 2.1400	62.4695
 2.1390	62.4192
 2.1380	62.3395
 2.1370	62.2664
 2.1360	62.1646
 2.1350	62.1323
 2.1340	61.9726
 2.1330	61.9324
 2.1320	61.8192
 2.1310	61.7345
 2.1300	61.6856
 2.1290	61.5968
 2.1280	61.5144
 2.1270	61.4038
 2.1260	61.3224
 2.1250	61.2533
 2.1240	61.1271
 2.1230	61.0603
 2.1220	60.9679
 2.1210	60.8371
 2.1200	60.7258
 2.1190	60.6087
 2.1180	60.5336
 2.1170	60.4689
 2.1160	60.3121
 2.1150	60.2180
 2.1140	60.1311
 2.1130	60.0513
 2.1120	59.9031
 2.1110	59.8107
 2.1100	59.6654
 2.1090	59.5919
 2.1080	59.4579
 2.1070	59.3446
 2.1060	59.2347
 2.1050	59.2185
 2.1040	59.0769
 2.1030	58.9259
 2.1020	58.8609
 2.1010	58.7713
 2.1000	58.6677
 2.0990	58.5941
 2.0980	58.4703
 2.0970	58.4536
 2.0960	58.4052
 2.0950	58.2718
 2.0940	58.1844
 2.0930	58.1782
 2.0920	58.0983
 2.0910	58.0137
 2.0900	57.9401
 2.0890	57.8626
 2.0880	57.7786
 2.0870	57.6842
 2.0860	57.6053
 2.0850	57.4979
 2.0840	57.4201
 2.0830	57.3843
 2.0820	57.3455
 2.0810	57.2778
 2.0800	57.1857
 2.0790	57.0824
 2.0780	56.9821
 2.0770	56.9001
 2.0760	56.8461
 2.0750	56.7750
 2.0740	56.6703
 2.0730	56.5531
 2.0720	56.4531
 2.0710	56.3837
 2.0700	56.3135
 2.0690	56.2151
 2.0680	56.1292
 2.0670	56.0474
 2.0660	55.9521
 2.0650	55.8706
 2.0640	55.7898
 2.0630	55.7191
 2.0620	55.6230
 2.0610	55.5264
 2.0600	55.4497
 2.0590	55.3418
 2.0580	55.2532
 2.0570	55.1898
 2.0560	55.0695
 2.0550	54.9497
 2.0540	54.8730
 2.0530	54.7591
 2.0520	54.6560
 2.0510	54.5637
 2.0500	54.4905
 2.0490	54.3747
 2.0480	54.2644
 2.0470	54.1530
 2.0460	54.0290
 2.0450	53.9685
 2.0440	53.8769
 2.0430	53.7621
 2.0420	53.6536
 2.0410	53.5281
 2.0400	53.4687
 2.0390	53.3354
 2.0380	53.2374
 2.0370	53.1903
 2.0360	53.0612
 2.0350	52.8827
 2.0340	52.7637
 2.0330	52.6587
 2.0320	52.5532
 2.0310	52.4277
 2.0300	52.3865
 2.0290	52.2733
 2.0280	52.1707
 2.0270	52.0308
 2.0260	51.9233
 2.0250	51.7791
 2.0240	51.6791
 2.0230	51.5565
 2.0220	51.4231
 2.0210	51.2965
 2.0200	51.2193
 2.0190	50.9882
 2.0180	50.8939
 2.0170	50.7989
 2.0160	50.6636
 2.0150	50.5338
 2.0140	50.4446
 2.0130	50.2896
 2.0120	50.1200
 2.0110	49.9952
 2.0100	49.9053
 2.0090	49.7912
 2.0080	49.7006
 2.0070	49.5524
 2.0060	49.4348
 2.0050	49.2614
 2.0040	49.2039
 2.0030	49.0007
 2.0020	48.9584
 2.0010	48.8395
 2.0000	48.7158
 1.9990	48.5243
 1.9980	48.4233
 1.9970	48.2720
 1.9960	48.2057
 1.9950	47.9682
 1.9940	47.8647
 1.9930	47.7550
 1.9920	47.6463
 1.9910	47.4675
 1.9900	47.3338
 1.9890	47.1436
 1.9880	47.0688
 1.9870	46.9938
 1.9860	46.8478
 1.9850	46.5970
 1.9840	46.5560
 1.9830	46.3554
 1.9820	46.1984
 1.9810	46.0382
 1.9800	45.9731
 1.9790	45.7990
 1.9780	45.6714
 1.9770	45.4861
 1.9760	45.3874
 1.9750	45.2400
 1.9740	45.1174
 1.9730	44.9734
 1.9720	44.8680
 1.9710	44.6291
 1.9700	44.5047
 1.9690	44.3363
 1.9680	44.2890
 1.9670	44.1260
 1.9660	44.0393
 1.9650	43.8393
 1.9640	43.7681
 1.9630	43.5927
 1.9620	43.5017
 1.9610	43.2756
 1.9600	43.1999
 1.9590	43.0016
 1.9580	42.9362
 1.9570	42.7675
 1.9560	42.6657
 1.9550	42.4677
 1.9540	42.4746
 1.9530	42.2272
 1.9520	42.1171
 1.9510	41.9370
 1.9500	41.8392
 1.9490	41.6597
 1.9480	41.5634
 1.9470	41.4058
 1.9460	41.3133
 1.9450	41.1697
 1.9440	41.0127
 1.9430	40.9130
 1.9420	40.8302
 1.9410	40.5915
 1.9400	40.5377
 1.9390	40.3970
 1.9380	40.2753
 1.9370	40.0653
 1.9360	39.9998
 1.9350	39.8894
 1.9340	39.8218
 1.9330	39.6105
 1.9320	39.5578
 1.9310	39.3999
 1.9300	39.3338
 1.9290	39.0634
 1.9280	39.1497
 1.9270	38.8996
 1.9260	38.6916
 1.9250	38.7029
 1.9240	38.5588
 1.9230	38.3641
 1.9220	38.3835
 1.9210	38.0986
 1.9200	38.0350
 1.9190	37.8535
 1.9180	37.7815
 1.9170	37.6871
 1.9160	37.6050
 1.9150	37.4244
 1.9140	37.3571
 1.9130	37.2027
 1.9120	37.1438
 1.9110	37.0067
 1.9100	36.9481
 1.9090	36.7378
 1.9080	36.7191
 1.9070	36.5457
 1.9060	36.4961
 1.9050	36.3066
 1.9040	36.2423
 1.9030	36.0752
 1.9020	36.0919
 1.9010	35.9312
 1.9000	35.7521
 1.8990	35.6965
 1.8980	35.6061
 1.8970	35.4938
 1.8960	35.4666
 1.8950	35.2931
 1.8940	35.2139
 1.8930	35.0383
 1.8920	35.0138
 1.8910	34.8426
 1.8900	34.7952
 1.8890	34.6012
 1.8880	34.6577
 1.8870	34.3773
 1.8860	34.3618
 1.8850	34.1943
 1.8840	34.0958
 1.8830	33.9609
 1.8820	33.9234
 1.8810	33.7486
 1.8800	33.6527
 1.8790	33.5685
 1.8780	33.4778
 1.8770	33.3100
 1.8760	33.2400
 1.8750	33.0486
 1.8740	32.9537
 1.8730	32.6718
 1.8720	32.6250
 1.8710	32.4138
 1.8700	32.2880
 1.8690	32.1357
 1.8680	32.0639
 1.8670	31.8439
 1.8660	31.7251
 1.8650	31.5769
 1.8640	31.5592
 1.8630	31.3792
 1.8620	31.2784
 1.8610	31.0507
 1.8600	30.9611
 1.8590	30.7771
 1.8580	30.7040
 1.8570	30.5572
 1.8560	30.3890
 1.8550	30.2096
 1.8540	30.1581
 1.8530	29.9575
 1.8520	29.8855
 1.8510	29.6996
 1.8500	29.5743
 1.8490	29.3940
 1.8480	29.2427
 1.8470	29.0964
 1.8460	29.0312
 1.8450	28.8700
 1.8440	28.7709
 1.8430	28.5660
 1.8420	28.4657
 1.8410	28.2942
 1.8400	28.2045
 1.8390	28.0124
 1.8380	27.9124
 1.8370	27.7265
 1.8360	27.6312
 1.8350	27.4435
 1.8340	27.3658
 1.8330	27.2162
 1.8320	27.1246
 1.8310	26.9215
 1.8300	26.8277
 1.8290	26.6630
 1.8280	26.5129
 1.8270	26.3655
 1.8260	26.2959
 1.8250	26.1387
 1.8240	26.0342
 1.8230	25.9046
 1.8220	25.7730
 1.8210	25.6188
 1.8200	25.5050
 1.8190	25.3801
 1.8180	25.2419
 1.8170	25.0676
 1.8160	24.9687
 1.8150	24.9092
 1.8140	24.7847
 1.8130	24.5942
 1.8120	24.4985
 1.8110	24.3732
 1.8100	24.2115
 1.8090	24.0321
 1.8080	23.9199
 1.8070	23.8453
 1.8060	23.7475
 1.8050	23.5611
 1.8040	23.4245
 1.8030	23.3262
 1.8020	23.2358
 1.8010	23.0502
 1.8000	22.9644
 1.7990	22.8655
 1.7980	22.7269
 1.7970	22.6458
 1.7960	22.5465
 1.7950	22.3546
 1.7940	22.2281
 1.7930	22.1372
 1.7920	22.0296
 1.7910	21.8653
 1.7900	21.7173
 1.7890	21.5925
 1.7880	21.4832
 1.7870	21.3983
 1.7860	21.2471
 1.7850	21.0804
 1.7840	20.9610
 1.7830	20.8809
 1.7820	20.7588
 1.7810	20.6399
 1.7800	20.5451
 1.7790	20.4253
 1.7780	20.2928
 1.7770	20.1535
 1.7760	20.0575
 1.7750	20.0197
 1.7740	19.8591
 1.7730	19.7145
 1.7720	19.5971
 1.7710	19.5036
 1.7700	19.3939
 1.7690	19.2830
 1.7680	19.1707
 1.7670	19.0912
 1.7660	18.9455
 1.7650	18.8699
 1.7640	18.7130
 1.7630	18.6226
 1.7620	18.5662
 1.7610	18.4620
 1.7600	18.3608
 1.7590	18.2119
 1.7580	18.0814
 1.7570	17.9895
 1.7560	17.8827
 1.7550	17.8022
 1.7540	17.6679
 1.7530	17.6231
 1.7520	17.5042
 1.7510	17.3949
 1.7500	17.2627
 1.7490	17.1734
 1.7480	17.0844
 1.7470	17.0099
 1.7460	16.8424
 1.7450	16.7289
 1.7440	16.6524
 1.7430	16.6175
 1.7420	16.4847
 1.7410	16.3828
 1.7400	16.2652
 1.7390	16.2251
 1.7380	16.1061
 1.7370	16.0236
 1.7360	15.8354
 1.7350	15.8273
 1.7340	15.7106
 1.7330	15.6834
 1.7320	15.5554
 1.7310	15.4744
 1.7300	15.2951
 1.7290	15.2715
 1.7280	15.1778
 1.7270	15.1198
 1.7260	14.9860
 1.7250	14.9387
 1.7240	14.8182
 1.7230	14.7584
 1.7220	14.6292
 1.7210	14.6033
 1.7200	14.4571
 1.7190	14.4573
 1.7180	14.3051
 1.7170	14.2572
 1.7160	14.1495
 1.7150	14.0883
 1.7140	13.9442
 1.7130	13.8886
 1.7120	13.8083
 1.7110	13.7640
 1.7100	13.6118
 1.7090	13.5616
 1.7080	13.4330
 1.7070	13.4739
 1.7060	13.2619
 1.7050	13.2555
 1.7040	13.1159
 1.7030	13.1374
 1.7020	12.9564
 1.7010	13.0024
 1.7000	12.8219
 1.6990	12.8059
 1.6980	12.6309
 1.6970	12.6603
 1.6960	12.5443
 1.6950	12.6054
 1.6940	12.3914
 1.6930	12.3726
 1.6920	12.2571
 1.6910	12.2279
 1.6900	12.0999
 1.6890	12.1483
 1.6880	12.0477
 1.6870	12.0101
 1.6860	11.8567
 1.6850	11.8666
 1.6840	11.6628
 1.6830	11.6698
 1.6820	11.5058
 1.6810	11.5546
 1.6800	11.4365
 1.6790	11.4089
 1.6780	11.2062
 1.6770	11.2559
 1.6760	11.1719
 1.6750	11.2436
 1.6740	11.0207
 1.6730	11.0393
 1.6720	10.8471
 1.6710	10.8785
 1.6700	10.7179
 1.6690	10.7923
 1.6680	10.5378
 1.6670	10.7291
 1.6660	10.5251
 1.6650	10.5224
 1.6640	10.3855
 1.6630	10.3578
 1.6620	10.2878
 1.6610	10.3184
 1.6600	10.2402
 1.6590	10.2105
 1.6580	 9.9843
 1.6570	10.0332
 1.6560	 9.9615
 1.6550	 9.9343
 1.6540	 9.8625
 1.6530	 9.9089
 1.6520	 9.6641
 1.6510	 9.8279
 1.6500	 9.5807
 1.6490	 9.6821
 1.6480	 9.5314
 1.6470	 9.5570
 1.6460	 9.3812
 1.6450	 9.4808
 1.6440	 9.2679
 1.6430	 9.3766
 1.6420	 9.2637
 1.6410	 9.1086
 1.6400	 9.1384
 1.6390	 9.2782
 1.6380	 8.9224
 1.6370	 9.0077
 1.6360	 8.9412
 1.6350	 8.9685
 1.6340	 8.8049
 1.6330	 8.8055
 1.6320	 8.6753
 1.6310	 8.7235
 1.6300	 8.5752
 1.6290	 8.6954
 1.6280	 8.5444
 1.6270	 8.6294
 1.6260	 8.4501
 1.6250	 8.4895
 1.6240	 8.2924
 1.6230	 8.4107
 1.6220	 8.2704
 1.6210	 8.3119
 1.6200	 8.2192
 1.6190	 8.2443
 1.6180	 8.1553
 1.6170	 8.1802
 1.6160	 8.0141
 1.6150	 8.0558
 1.6140	 8.0043
 1.6130	 8.0298
 1.6120	 7.8539
 1.6110	 7.9402
 1.6100	 7.7521
 1.6090	 7.8733
 1.6080	 7.7572
 1.6070	 7.7414
 1.6060	 7.7150
 1.6050	 7.6856
 1.6040	 7.6080
 1.6030	 7.6367
 1.6020	 7.5454
 1.6010	 7.5360
 1.6000	 7.4480
 1.5990	 7.5057
 1.5980	 7.4449
 1.5970	 7.4784
 1.5960	 7.3578
 1.5950	 7.3165
 1.5940	 7.2485
 1.5930	 7.2618
 1.5920	 7.1967
 1.5910	 7.2317
 1.5900	 7.0977
 1.5890	 7.1204
 1.5880	 7.0454
 1.5870	 7.0904
 1.5860	 6.9896
 1.5850	 7.0587
 1.5840	 6.8735
 1.5830	 6.9459
 1.5820	 6.8782
 1.5810	 6.9046
 1.5800	 6.7847
 1.5790	 6.8065
 1.5780	 6.6730
 1.5770	 6.7830
 1.5760	 6.6642
 1.5750	 6.7688
 1.5740	 6.6608
 1.5730	 6.6996
 1.5720	 6.5545
 1.5710	 6.5792
 1.5700	 6.5313
 1.5690	 6.5664
 1.5680	 6.4497
 1.5670	 6.5034
 1.5660	 6.4234
 1.5650	 6.4907
 1.5640	 6.4305
 1.5630	 6.4048
 1.5620	 6.3085
 1.5610	 6.3026
 1.5600	 6.2822
 1.5590	 6.2777
 1.5580	 6.2146
 1.5570	 6.2588
 1.5560	 6.1995
 1.5550	 6.2292
 1.5540	 6.1340
 1.5530	 6.1574
 1.5520	 6.1216
 1.5510	 6.1173
 1.5500	 6.0341
 1.5490	 6.0204
 1.5480	 6.0240
 1.5470	 5.9895
 1.5460	 5.9469
 1.5450	 6.0423
 1.5440	 5.9338
 1.5430	 5.9291
 1.5420	 5.8796
 1.5410	 5.8658
 1.5400	 5.7861
 1.5390	 5.8520
 1.5380	 5.8526
 1.5370	 5.8303
 1.5360	 5.7532
 1.5350	 5.7622
 1.5340	 5.6831
 1.5330	 5.7779
 1.5320	 5.7416
 1.5310	 5.6826
 1.5300	 5.6440
 1.5290	 5.6755
 1.5280	 5.6064
 1.5270	 5.5812
 1.5260	 5.5416
 1.5250	 5.6085
 1.5240	 5.5669
 1.5230	 5.5718
 1.5220	 5.5129
 1.5210	 5.5030
 1.5200	 5.4991
 1.5190	 5.5174
 1.5180	 5.4860
 1.5170	 5.4426
 1.5160	 5.4142
 1.5150	 5.4489
 1.5140	 5.4003
 1.5130	 5.3820
 1.5120	 5.4073
 1.5110	 5.3705
 1.5100	 5.3242
 1.5090	 5.3574
 1.5080	 5.3338
 1.5070	 5.2994
 1.5060	 5.2579
 1.5050	 5.2669
 1.5040	 5.2440
 1.5030	 5.2392
 1.5020	 5.2181
 1.5010	 5.2120
 1.5000	 5.1903
 1.4990	 5.1758
 1.4980	 5.1857
 1.4970	 5.1351
 1.4960	 5.1433
 1.4950	 5.1816
 1.4940	 5.1355
 1.4930	 5.1329
 1.4920	 5.1213
 1.4910	 5.0884
 1.4900	 5.0628
 1.4890	 5.0460
 1.4880	 5.0809
 1.4870	 5.0805
 1.4860	 5.0805
 1.4850	 5.0475
 1.4840	 5.0881
 1.4830	 5.0471
 1.4820	 4.9827
 1.4810	 4.9364
 1.4800	 4.9826
 1.4790	 4.9854
 1.4780	 4.9587
 1.4770	 4.9344
 1.4760	 4.9464
 1.4750	 4.9059
 1.4740	 4.9423
 1.4730	 4.9006
 1.4720	 4.9236
 1.4710	 4.9036
 1.4700	 4.8673
 1.4690	 4.8474
 1.4680	 4.8701
 1.4670	 4.8315
 1.4660	 4.8500
 1.4650	 4.8593
 1.4640	 4.8493
 1.4630	 4.7899
 1.4620	 4.8089
 1.4610	 4.8366
 1.4600	 4.8736
 1.4590	 4.7864
 1.4580	 4.7943
 1.4570	 4.7830
 1.4560	 4.7996
 1.4550	 4.7416
 1.4540	 4.7639
 1.4530	 4.7468
 1.4520	 4.7634
 1.4510	 4.7177
 1.4500	 4.8116
 1.4490	 4.7768
 1.4480	 4.7238
 1.4470	 4.6984
 1.4460	 4.7248
 1.4450	 4.6578
 1.4440	 4.7557
 1.4430	 4.6962
 1.4420	 4.7612
 1.4410	 4.6500
 1.4400	 4.6840
 1.4390	 4.5980
 1.4380	 4.6715
 1.4370	 4.6532
 1.4360	 4.7541
 1.4350	 4.6179
 1.4340	 4.6605
 1.4330	 4.5560
 1.4320	 4.6462
 1.4310	 4.5553
 1.4300	 4.5939
 1.4290	 4.5048
 1.4280	 4.6724
 1.4270	 4.6551
 1.4260	 4.6424
 1.4250	 4.5942
 1.4240	 4.6451
 1.4230	 4.6114
 1.4220	 4.6129
 1.4210	 4.5703
 1.4200	 4.6159
 1.4190	 4.5324
 1.4180	 4.5378
 1.4170	 4.5232
 1.4160	 4.5666
 1.4150	 4.5012
 1.4140	 4.6071
 1.4130	 4.4950
 1.4120	 4.5700
 1.4110	 4.4807
 1.4100	 4.5920
 1.4090	 4.4863
 1.4080	 4.5988
 1.4070	 4.5234
 1.4060	 4.5523
 1.4050	 4.5381
 1.4040	 4.5495
 1.4030	 4.5715
 1.4020	 4.6175
 1.4010	 4.5697
 1.4000	 4.5456
 1.3990	 4.4535
 1.3980	 4.6057
 1.3970	 4.5106
 1.3960	 4.6178
 1.3950	 4.5067
 1.3940	 4.5394
 1.3930	 4.5170
 1.3920	 4.5959
 1.3910	 4.5653
 1.3900	 4.6207
 1.3890	 4.4936
 1.3880	 4.5597
 1.3870	 4.4402
 1.3860	 4.6487
 1.3850	 4.4962
 1.3840	 4.6353
 1.3830	 4.4437
 1.3820	 4.6075
 1.3810	 4.3899
 1.3800	 4.5489
 1.3790	 4.4800
 1.3780	 4.5551
 1.3770	 4.4714
 1.3760	 4.5942
 1.3750	 4.5223
 1.3740	 4.6245
 1.3730	 4.5147
 1.3720	 4.6197
 1.3710	 4.4731
 1.3700	 4.5774
 1.3690	 4.4944
 1.3680	 4.5472
 1.3670	 4.4861
