Name: Anthophyllite (Mg,Fe^2+)_7Si_8O_22(OH)_2
Type: Mineral
Class: Silicate
Subclass: Inosilicate
Particle Size: Fine
Sample No.: IN-8A
Owner: JPL
Wavelength Range: VSWIR
Origin: USA, North Carolina.
Collection Date: N/A
Description: Particle size was 0-45um.Collected by:  Ward's Original ASTER Spectral Library name was jpl.perkin.mineral.silicate.inosilicate.fine.in08a.spectrum.txt
Measurement: Hemispherical reflectance
First Column: X
Second Column: Y
X Units: Wavelength (micrometers)
Y Units:Reflectance (percent)
First X Value:  2.5000
Last X Value:  0.4000
Number of X Values: 2101
Additional Information: mineral.silicate.inosilicate.fine.vswir.in-8a.jpl.perkin.ancillary.txt

 2.5000	48.0838
 2.4990	47.9388
 2.4980	48.0225
 2.4970	47.8319
 2.4960	47.5355
 2.4950	47.7604
 2.4940	47.7643
 2.4930	47.9087
 2.4920	47.9854
 2.4910	47.8096
 2.4900	48.1077
 2.4890	47.8517
 2.4880	47.9765
 2.4870	48.0185
 2.4860	48.0537
 2.4850	47.9886
 2.4840	48.0034
 2.4830	47.9489
 2.4820	47.9955
 2.4810	47.9984
 2.4800	47.9170
 2.4790	47.9126
 2.4780	47.9550
 2.4770	47.9274
 2.4760	47.7835
 2.4750	47.7522
 2.4740	47.6719
 2.4730	47.6521
 2.4720	47.6417
 2.4710	47.3979
 2.4700	47.5253
 2.4690	47.4963
 2.4680	47.4793
 2.4670	47.4131
 2.4660	47.5167
 2.4650	47.5039
 2.4640	47.5759
 2.4630	47.4559
 2.4620	47.5213
 2.4610	47.4720
 2.4600	47.5257
 2.4590	47.5199
 2.4580	47.5931
 2.4570	47.5526
 2.4560	47.6608
 2.4550	47.5686
 2.4540	47.8238
 2.4530	47.7064
 2.4520	47.7809
 2.4510	47.7886
 2.4500	47.7756
 2.4490	47.7747
 2.4480	47.8828
 2.4470	47.8156
 2.4460	47.8668
 2.4450	47.8250
 2.4440	47.8334
 2.4430	47.7373
 2.4420	47.7873
 2.4410	47.9084
 2.4400	47.8815
 2.4390	47.8525
 2.4380	47.8460
 2.4370	47.8468
 2.4360	47.8922
 2.4350	47.8544
 2.4340	47.8511
 2.4330	47.7543
 2.4320	47.8286
 2.4310	47.8375
 2.4300	47.8097
 2.4290	47.8261
 2.4280	47.8737
 2.4270	47.8278
 2.4260	47.8931
 2.4250	47.8998
 2.4240	47.9636
 2.4230	47.9690
 2.4220	48.0984
 2.4210	48.0460
 2.4200	48.1402
 2.4190	48.1330
 2.4180	48.1805
 2.4170	48.1787
 2.4160	48.1588
 2.4150	48.1787
 2.4140	48.2149
 2.4130	48.2385
 2.4120	48.2116
 2.4110	48.1766
 2.4100	48.2804
 2.4090	48.1443
 2.4080	48.0985
 2.4070	48.0543
 2.4060	47.9722
 2.4050	47.8537
 2.4040	47.8209
 2.4030	47.6388
 2.4020	47.5518
 2.4010	47.4864
 2.4000	47.3669
 2.3990	47.2516
 2.3980	47.1908
 2.3970	47.0561
 2.3960	46.9283
 2.3950	46.7897
 2.3940	46.7571
 2.3930	46.6269
 2.3920	46.5388
 2.3910	46.4547
 2.3900	46.4323
 2.3890	46.3733
 2.3880	46.3148
 2.3870	46.2582
 2.3860	46.2274
 2.3850	46.2722
 2.3840	46.3479
 2.3830	46.3548
 2.3820	46.4639
 2.3810	46.5756
 2.3800	46.6641
 2.3790	46.6589
 2.3780	46.8026
 2.3770	46.9585
 2.3760	47.0496
 2.3750	47.1418
 2.3740	47.2663
 2.3730	47.4146
 2.3720	47.5375
 2.3710	47.6559
 2.3700	47.7794
 2.3690	47.9068
 2.3680	48.0698
 2.3670	48.1504
 2.3660	48.2282
 2.3650	48.3615
 2.3640	48.4730
 2.3630	48.5242
 2.3620	48.6478
 2.3610	48.7625
 2.3600	48.7701
 2.3590	48.7867
 2.3580	48.8787
 2.3570	48.9078
 2.3560	48.9681
 2.3550	49.0479
 2.3540	49.0979
 2.3530	49.1005
 2.3520	49.0514
 2.3510	49.0375
 2.3500	49.0526
 2.3490	49.0412
 2.3480	49.0474
 2.3470	49.0626
 2.3460	49.0613
 2.3450	49.0162
 2.3440	48.9819
 2.3430	48.9705
 2.3420	48.9370
 2.3410	48.9347
 2.3400	48.8164
 2.3390	48.7659
 2.3380	48.6869
 2.3370	48.6036
 2.3360	48.4949
 2.3350	48.3459
 2.3340	48.2171
 2.3330	48.0951
 2.3320	47.9225
 2.3310	47.8010
 2.3300	47.6022
 2.3290	47.3533
 2.3280	47.0997
 2.3270	46.8608
 2.3260	46.6154
 2.3250	46.3158
 2.3240	45.9732
 2.3230	45.6836
 2.3220	45.3810
 2.3210	45.0145
 2.3200	44.6385
 2.3190	44.3004
 2.3180	43.9688
 2.3170	43.6826
 2.3160	43.3222
 2.3150	43.0771
 2.3140	42.8645
 2.3130	42.6542
 2.3120	42.4997
 2.3110	42.4048
 2.3100	42.3299
 2.3090	42.3399
 2.3080	42.3699
 2.3070	42.4811
 2.3060	42.5672
 2.3050	42.7670
 2.3040	43.0447
 2.3030	43.2431
 2.3020	43.5323
 2.3010	43.7851
 2.3000	44.0730
 2.2990	44.3041
 2.2980	44.4969
 2.2970	44.7670
 2.2960	44.9752
 2.2950	45.1125
 2.2940	45.2053
 2.2930	45.3378
 2.2920	45.4182
 2.2910	45.5551
 2.2900	45.6992
 2.2890	45.7925
 2.2880	45.9255
 2.2870	46.0571
 2.2860	46.1944
 2.2850	46.4253
 2.2840	46.5961
 2.2830	46.8173
 2.2820	47.1252
 2.2810	47.3858
 2.2800	47.5772
 2.2790	47.8074
 2.2780	47.9750
 2.2770	48.2225
 2.2760	48.4989
 2.2750	48.7450
 2.2740	48.8718
 2.2730	49.1420
 2.2720	49.2946
 2.2710	49.4786
 2.2700	49.5258
 2.2690	49.7114
 2.2680	49.8076
 2.2670	49.8637
 2.2660	49.9864
 2.2650	50.1511
 2.2640	50.2228
 2.2630	50.3331
 2.2620	50.4886
 2.2610	50.5828
 2.2600	50.6585
 2.2590	50.8318
 2.2580	50.9175
 2.2570	50.9621
 2.2560	51.0184
 2.2550	51.0590
 2.2540	51.0957
 2.2530	51.2133
 2.2520	51.2463
 2.2510	51.3857
 2.2500	51.3934
 2.2490	51.3978
 2.2480	51.5096
 2.2470	51.5028
 2.2460	51.5236
 2.2450	51.5239
 2.2440	51.6086
 2.2430	51.5962
 2.2420	51.5646
 2.2410	51.6960
 2.2400	51.6785
 2.2390	51.6804
 2.2380	51.6640
 2.2370	51.7719
 2.2360	51.8501
 2.2350	51.8439
 2.2340	51.8625
 2.2330	51.9236
 2.2320	51.9000
 2.2310	51.9667
 2.2300	51.9769
 2.2290	52.0890
 2.2280	52.0824
 2.2270	52.2296
 2.2260	52.2212
 2.2250	52.2496
 2.2240	52.2845
 2.2230	52.3725
 2.2220	52.4281
 2.2210	52.5422
 2.2200	52.5737
 2.2190	52.6278
 2.2180	52.6681
 2.2170	52.6978
 2.2160	52.7884
 2.2150	52.7662
 2.2140	52.8170
 2.2130	52.8888
 2.2120	52.8986
 2.2110	52.9443
 2.2100	52.9763
 2.2090	52.9780
 2.2080	53.0337
 2.2070	53.1265
 2.2060	53.0691
 2.2050	53.1930
 2.2040	53.1590
 2.2030	53.2429
 2.2020	53.2557
 2.2010	53.3269
 2.2000	53.3640
 2.1990	53.3639
 2.1980	53.4308
 2.1970	53.5193
 2.1960	53.4777
 2.1950	53.5647
 2.1940	53.4901
 2.1930	53.5900
 2.1920	53.5665
 2.1910	53.5677
 2.1900	53.6081
 2.1890	53.7007
 2.1880	53.6751
 2.1870	53.7560
 2.1860	53.7577
 2.1850	53.7688
 2.1840	53.8234
 2.1830	53.8194
 2.1820	53.8533
 2.1810	53.9332
 2.1800	53.9298
 2.1790	53.9165
 2.1780	53.9390
 2.1770	53.9916
 2.1760	54.0586
 2.1750	54.0787
 2.1740	54.0903
 2.1730	54.1523
 2.1720	54.1578
 2.1710	54.2616
 2.1700	54.2664
 2.1690	54.3062
 2.1680	54.3617
 2.1670	54.3987
 2.1660	54.4273
 2.1650	54.4258
 2.1640	54.4335
 2.1630	54.5336
 2.1620	54.5569
 2.1610	54.6749
 2.1600	54.6872
 2.1590	54.6882
 2.1580	54.7104
 2.1570	54.7782
 2.1560	54.7716
 2.1550	54.8371
 2.1540	54.8146
 2.1530	54.9106
 2.1520	54.8998
 2.1510	54.8770
 2.1500	54.9333
 2.1490	55.0317
 2.1480	54.9329
 2.1470	54.9807
 2.1460	54.9605
 2.1450	54.9844
 2.1440	55.0547
 2.1430	55.0083
 2.1420	55.0701
 2.1410	55.0825
 2.1400	55.0733
 2.1390	55.1121
 2.1380	55.0952
 2.1370	55.0917
 2.1360	55.1270
 2.1350	55.1281
 2.1340	55.0997
 2.1330	55.0880
 2.1320	55.1117
 2.1310	55.1014
 2.1300	55.1176
 2.1290	55.1023
 2.1280	55.1058
 2.1270	55.0857
 2.1260	55.0365
 2.1250	55.0319
 2.1240	55.0908
 2.1230	55.1300
 2.1220	55.0849
 2.1210	55.1267
 2.1200	55.0610
 2.1190	55.1140
 2.1180	55.1045
 2.1170	55.0856
 2.1160	55.0737
 2.1150	55.0555
 2.1140	55.0421
 2.1130	55.0504
 2.1120	55.0686
 2.1110	55.0885
 2.1100	55.0504
 2.1090	55.0815
 2.1080	55.0711
 2.1070	55.0301
 2.1060	55.0560
 2.1050	55.0275
 2.1040	54.9982
 2.1030	55.0003
 2.1020	54.9818
 2.1010	55.0327
 2.1000	54.9959
 2.0990	55.0299
 2.0980	55.0520
 2.0970	55.0740
 2.0960	55.0928
 2.0950	55.0837
 2.0940	55.1362
 2.0930	55.2074
 2.0920	55.2375
 2.0910	55.2546
 2.0900	55.2521
 2.0890	55.3052
 2.0880	55.2987
 2.0870	55.3140
 2.0860	55.3652
 2.0850	55.3793
 2.0840	55.3804
 2.0830	55.3768
 2.0820	55.4216
 2.0810	55.4406
 2.0800	55.4574
 2.0790	55.5719
 2.0780	55.5320
 2.0770	55.5465
 2.0760	55.6378
 2.0750	55.6457
 2.0740	55.6859
 2.0730	55.7234
 2.0720	55.7451
 2.0710	55.7883
 2.0700	55.8502
 2.0690	55.9050
 2.0680	55.9351
 2.0670	55.9189
 2.0660	55.9177
 2.0650	55.9739
 2.0640	56.0464
 2.0630	56.0448
 2.0620	56.0600
 2.0610	56.1161
 2.0600	56.1285
 2.0590	56.1554
 2.0580	56.1729
 2.0570	56.1818
 2.0560	56.2092
 2.0550	56.1923
 2.0540	56.2466
 2.0530	56.2777
 2.0520	56.2461
 2.0510	56.3009
 2.0500	56.3626
 2.0490	56.3535
 2.0480	56.3796
 2.0470	56.3399
 2.0460	56.3662
 2.0450	56.3811
 2.0440	56.3916
 2.0430	56.4747
 2.0420	56.4921
 2.0410	56.4583
 2.0400	56.4987
 2.0390	56.5569
 2.0380	56.5654
 2.0370	56.5329
 2.0360	56.5623
 2.0350	56.5553
 2.0340	56.6458
 2.0330	56.6570
 2.0320	56.6290
 2.0310	56.6500
 2.0300	56.7070
 2.0290	56.6725
 2.0280	56.6740
 2.0270	56.6825
 2.0260	56.6751
 2.0250	56.6653
 2.0240	56.6797
 2.0230	56.6767
 2.0220	56.6907
 2.0210	56.6971
 2.0200	56.7499
 2.0190	56.7754
 2.0180	56.7265
 2.0170	56.6755
 2.0160	56.7404
 2.0150	56.7721
 2.0140	56.7734
 2.0130	56.7920
 2.0120	56.8327
 2.0110	56.8334
 2.0100	56.8321
 2.0090	56.8878
 2.0080	56.8698
 2.0070	56.8140
 2.0060	56.8403
 2.0050	56.9263
 2.0040	56.8754
 2.0030	56.8645
 2.0020	56.9145
 2.0010	56.8930
 2.0000	56.9309
 1.9990	56.9389
 1.9980	56.9342
 1.9970	56.9356
 1.9960	56.8717
 1.9950	56.8551
 1.9940	56.9087
 1.9930	56.9442
 1.9920	56.9911
 1.9910	56.8988
 1.9900	56.9020
 1.9890	56.9136
 1.9880	56.8896
 1.9870	56.8860
 1.9860	56.9190
 1.9850	56.9407
 1.9840	56.9419
 1.9830	56.9007
 1.9820	56.8833
 1.9810	56.9525
 1.9800	56.9808
 1.9790	56.9876
 1.9780	56.9136
 1.9770	56.9435
 1.9760	57.0000
 1.9750	57.0121
 1.9740	56.9784
 1.9730	56.9474
 1.9720	57.0551
 1.9710	56.9263
 1.9700	56.9978
 1.9690	56.9375
 1.9680	57.0436
 1.9670	56.9732
 1.9660	57.0432
 1.9650	57.0512
 1.9640	57.0602
 1.9630	57.0730
 1.9620	57.1270
 1.9610	57.0705
 1.9600	57.1005
 1.9590	57.0761
 1.9580	56.9951
 1.9570	57.1296
 1.9560	57.0312
 1.9550	57.1004
 1.9540	57.1258
 1.9530	57.0844
 1.9520	57.1457
 1.9510	57.2181
 1.9500	57.2483
 1.9490	57.1416
 1.9480	57.1808
 1.9470	57.1510
 1.9460	57.1749
 1.9450	57.1811
 1.9440	57.2418
 1.9430	57.2295
 1.9420	57.2506
 1.9410	57.2907
 1.9400	57.2705
 1.9390	57.1937
 1.9380	57.2685
 1.9370	57.2968
 1.9360	57.2283
 1.9350	57.3025
 1.9340	57.3048
 1.9330	57.3050
 1.9320	57.3811
 1.9310	57.3372
 1.9300	57.3940
 1.9290	57.3682
 1.9280	57.4457
 1.9270	57.4042
 1.9260	57.3261
 1.9250	57.3971
 1.9240	57.4298
 1.9230	57.3850
 1.9220	57.5050
 1.9210	57.3779
 1.9200	57.4098
 1.9190	57.4512
 1.9180	57.5263
 1.9170	57.5041
 1.9160	57.5721
 1.9150	57.5253
 1.9140	57.6180
 1.9130	57.5704
 1.9120	57.6840
 1.9110	57.6497
 1.9100	57.7903
 1.9090	57.8288
 1.9080	57.7450
 1.9070	57.7968
 1.9060	57.8863
 1.9050	57.8606
 1.9040	57.9715
 1.9030	58.0021
 1.9020	58.0294
 1.9010	58.0441
 1.9000	58.1664
 1.8990	58.1414
 1.8980	58.2188
 1.8970	58.2268
 1.8960	58.3402
 1.8950	58.3010
 1.8940	58.4181
 1.8930	58.4525
 1.8920	58.5232
 1.8910	58.5423
 1.8900	58.6208
 1.8890	58.5990
 1.8880	58.6784
 1.8870	58.7018
 1.8860	58.7386
 1.8850	58.7037
 1.8840	58.7943
 1.8830	58.7886
 1.8820	58.9078
 1.8810	58.8482
 1.8800	58.9640
 1.8790	58.9258
 1.8780	58.9891
 1.8770	59.0541
 1.8760	59.0444
 1.8750	59.0283
 1.8740	59.1093
 1.8730	59.1056
 1.8720	59.1443
 1.8710	59.1527
 1.8700	59.1392
 1.8690	59.1322
 1.8680	59.1847
 1.8670	59.1675
 1.8660	59.2724
 1.8650	59.2096
 1.8640	59.2898
 1.8630	59.3187
 1.8620	59.3150
 1.8610	59.3426
 1.8600	59.3517
 1.8590	59.3539
 1.8580	59.3069
 1.8570	59.3180
 1.8560	59.3541
 1.8550	59.3707
 1.8540	59.4071
 1.8530	59.4193
 1.8520	59.4626
 1.8510	59.4486
 1.8500	59.4807
 1.8490	59.4763
 1.8480	59.5132
 1.8470	59.4862
 1.8460	59.5165
 1.8450	59.5028
 1.8440	59.5141
 1.8430	59.5945
 1.8420	59.5322
 1.8410	59.5006
 1.8400	59.5074
 1.8390	59.5526
 1.8380	59.5754
 1.8370	59.5398
 1.8360	59.5312
 1.8350	59.5966
 1.8340	59.5937
 1.8330	59.6408
 1.8320	59.6675
 1.8310	59.6270
 1.8300	59.6040
 1.8290	59.6420
 1.8280	59.6499
 1.8270	59.6686
 1.8260	59.7365
 1.8250	59.7070
 1.8240	59.7211
 1.8230	59.6749
 1.8220	59.6757
 1.8210	59.6599
 1.8200	59.7003
 1.8190	59.7085
 1.8180	59.7322
 1.8170	59.7205
 1.8160	59.7236
 1.8150	59.7563
 1.8140	59.7980
 1.8130	59.8170
 1.8120	59.8368
 1.8110	59.7851
 1.8100	59.8107
 1.8090	59.8455
 1.8080	59.8731
 1.8070	59.8619
 1.8060	59.8990
 1.8050	59.9030
 1.8040	59.8915
 1.8030	59.9223
 1.8020	59.9026
 1.8010	59.9070
 1.8000	59.9370
 1.7990	59.9414
 1.7980	59.9407
 1.7970	59.9668
 1.7960	60.0215
 1.7950	60.0121
 1.7940	59.9757
 1.7930	59.9882
 1.7920	59.9977
 1.7910	59.9620
 1.7900	59.9905
 1.7890	60.0116
 1.7880	59.9865
 1.7870	59.9598
 1.7860	59.9452
 1.7850	59.9724
 1.7840	60.0157
 1.7830	59.9729
 1.7820	60.0063
 1.7810	60.0258
 1.7800	59.9731
 1.7790	59.9788
 1.7780	59.9884
 1.7770	60.0097
 1.7760	59.9998
 1.7750	59.9937
 1.7740	60.0269
 1.7730	60.0272
 1.7720	60.0147
 1.7710	60.0758
 1.7700	60.0688
 1.7690	60.0463
 1.7680	60.0456
 1.7670	60.0592
 1.7660	60.0822
 1.7650	60.0956
 1.7640	60.0778
 1.7630	60.0408
 1.7620	60.0760
 1.7610	60.1538
 1.7600	60.0745
 1.7590	60.1049
 1.7580	60.1659
 1.7570	60.1440
 1.7560	60.1220
 1.7550	60.1669
 1.7540	60.1676
 1.7530	60.1199
 1.7520	60.1515
 1.7510	60.2153
 1.7500	60.2160
 1.7490	60.2006
 1.7480	60.2253
 1.7470	60.2393
 1.7460	60.2262
 1.7450	60.2446
 1.7440	60.2013
 1.7430	60.2010
 1.7420	60.2183
 1.7410	60.2817
 1.7400	60.2767
 1.7390	60.2397
 1.7380	60.2837
 1.7370	60.2805
 1.7360	60.2558
 1.7350	60.2826
 1.7340	60.2963
 1.7330	60.3667
 1.7320	60.3318
 1.7310	60.3585
 1.7300	60.3367
 1.7290	60.3393
 1.7280	60.2872
 1.7270	60.3577
 1.7260	60.3701
 1.7250	60.3988
 1.7240	60.4127
 1.7230	60.4148
 1.7220	60.4170
 1.7210	60.4761
 1.7200	60.3832
 1.7190	60.4044
 1.7180	60.4310
 1.7170	60.4663
 1.7160	60.4163
 1.7150	60.4356
 1.7140	60.4211
 1.7130	60.4317
 1.7120	60.4081
 1.7110	60.4196
 1.7100	60.4186
 1.7090	60.4225
 1.7080	60.3373
 1.7070	60.4529
 1.7060	60.4649
 1.7050	60.4629
 1.7040	60.4553
 1.7030	60.3810
 1.7020	60.4537
 1.7010	60.4798
 1.7000	60.4155
 1.6990	60.4235
 1.6980	60.4730
 1.6970	60.5178
 1.6960	60.4782
 1.6950	60.4716
 1.6940	60.4506
 1.6930	60.4905
 1.6920	60.4973
 1.6910	60.5095
 1.6900	60.4690
 1.6890	60.4947
 1.6880	60.4659
 1.6870	60.4066
 1.6860	60.4503
 1.6850	60.4791
 1.6840	60.5067
 1.6830	60.5524
 1.6820	60.4868
 1.6810	60.5773
 1.6800	60.4969
 1.6790	60.5426
 1.6780	60.4825
 1.6770	60.5459
 1.6760	60.5240
 1.6750	60.5675
 1.6740	60.5431
 1.6730	60.5451
 1.6720	60.5676
 1.6710	60.5989
 1.6700	60.4898
 1.6690	60.6038
 1.6680	60.4963
 1.6670	60.5762
 1.6660	60.5758
 1.6650	60.6400
 1.6640	60.6151
 1.6630	60.6147
 1.6620	60.5867
 1.6610	60.6474
 1.6600	60.6412
 1.6590	60.6422
 1.6580	60.5804
 1.6570	60.6291
 1.6560	60.5531
 1.6550	60.5705
 1.6540	60.6039
 1.6530	60.6042
 1.6520	60.6483
 1.6510	60.6260
 1.6500	60.5908
 1.6490	60.5720
 1.6480	60.6770
 1.6470	60.6877
 1.6460	60.6394
 1.6450	60.6966
 1.6440	60.6859
 1.6430	60.6096
 1.6420	60.6953
 1.6410	60.6769
 1.6400	60.5945
 1.6390	60.6893
 1.6380	60.6724
 1.6370	60.7076
 1.6360	60.6575
 1.6350	60.6882
 1.6340	60.6300
 1.6330	60.7173
 1.6320	60.7034
 1.6310	60.6776
 1.6300	60.6756
 1.6290	60.6617
 1.6280	60.6555
 1.6270	60.6464
 1.6260	60.6856
 1.6250	60.7682
 1.6240	60.6678
 1.6230	60.7081
 1.6220	60.7555
 1.6210	60.7273
 1.6200	60.7285
 1.6190	60.7497
 1.6180	60.6838
 1.6170	60.7359
 1.6160	60.7511
 1.6150	60.8359
 1.6140	60.7552
 1.6130	60.7619
 1.6120	60.7200
 1.6110	60.6769
 1.6100	60.7776
 1.6090	60.7627
 1.6080	60.7750
 1.6070	60.7869
 1.6060	60.7374
 1.6050	60.7638
 1.6040	60.7242
 1.6030	60.7292
 1.6020	60.7624
 1.6010	60.7197
 1.6000	60.7045
 1.5990	60.7739
 1.5980	60.7620
 1.5970	60.7562
 1.5960	60.7778
 1.5950	60.7757
 1.5940	60.7449
 1.5930	60.7364
 1.5920	60.6689
 1.5910	60.7569
 1.5900	60.7954
 1.5890	60.7670
 1.5880	60.7759
 1.5870	60.8044
 1.5860	60.7973
 1.5850	60.7855
 1.5840	60.7736
 1.5830	60.7377
 1.5820	60.7825
 1.5810	60.7522
 1.5800	60.7141
 1.5790	60.7698
 1.5780	60.7839
 1.5770	60.8097
 1.5760	60.8014
 1.5750	60.7880
 1.5740	60.7495
 1.5730	60.7159
 1.5720	60.7483
 1.5710	60.6955
 1.5700	60.7346
 1.5690	60.7639
 1.5680	60.7694
 1.5670	60.7671
 1.5660	60.7030
 1.5650	60.7461
 1.5640	60.7285
 1.5630	60.7836
 1.5620	60.7039
 1.5610	60.7184
 1.5600	60.7608
 1.5590	60.7696
 1.5580	60.6811
 1.5570	60.6343
 1.5560	60.6721
 1.5550	60.7469
 1.5540	60.6955
 1.5530	60.6868
 1.5520	60.6975
 1.5510	60.7227
 1.5500	60.6768
 1.5490	60.6818
 1.5480	60.6754
 1.5470	60.7265
 1.5460	60.6897
 1.5450	60.6442
 1.5440	60.6427
 1.5430	60.6526
 1.5420	60.6297
 1.5410	60.6651
 1.5400	60.6530
 1.5390	60.6327
 1.5380	60.6524
 1.5370	60.6815
 1.5360	60.6772
 1.5350	60.6618
 1.5340	60.6327
 1.5330	60.6161
 1.5320	60.6075
 1.5310	60.6292
 1.5300	60.6235
 1.5290	60.6307
 1.5280	60.6812
 1.5270	60.6583
 1.5260	60.6120
 1.5250	60.6361
 1.5240	60.6229
 1.5230	60.6000
 1.5220	60.6483
 1.5210	60.6147
 1.5200	60.5852
 1.5190	60.6255
 1.5180	60.6312
 1.5170	60.6047
 1.5160	60.6141
 1.5150	60.6415
 1.5140	60.5910
 1.5130	60.5757
 1.5120	60.6100
 1.5110	60.6144
 1.5100	60.6013
 1.5090	60.6049
 1.5080	60.5240
 1.5070	60.4923
 1.5060	60.5321
 1.5050	60.5500
 1.5040	60.5494
 1.5030	60.5843
 1.5020	60.5780
 1.5010	60.5584
 1.5000	60.5276
 1.4990	60.5272
 1.4980	60.5284
 1.4970	60.4977
 1.4960	60.4981
 1.4950	60.4843
 1.4940	60.5026
 1.4930	60.5313
 1.4920	60.5003
 1.4910	60.4660
 1.4900	60.5065
 1.4890	60.5001
 1.4880	60.4722
 1.4870	60.4582
 1.4860	60.4347
 1.4850	60.4131
 1.4840	60.3692
 1.4830	60.3617
 1.4820	60.4266
 1.4810	60.4125
 1.4800	60.4141
 1.4790	60.4001
 1.4780	60.3953
 1.4770	60.3677
 1.4760	60.3749
 1.4750	60.4324
 1.4740	60.4079
 1.4730	60.2984
 1.4720	60.3104
 1.4710	60.2946
 1.4700	60.3107
 1.4690	60.3256
 1.4680	60.2878
 1.4670	60.2518
 1.4660	60.3135
 1.4650	60.3179
 1.4640	60.3159
 1.4630	60.3155
 1.4620	60.2574
 1.4610	60.2900
 1.4600	60.2843
 1.4590	60.2464
 1.4580	60.2670
 1.4570	60.2341
 1.4560	60.2370
 1.4550	60.2351
 1.4540	60.2943
 1.4530	60.2543
 1.4520	60.1852
 1.4510	60.1248
 1.4500	60.1630
 1.4490	60.1937
 1.4480	60.1677
 1.4470	60.2088
 1.4460	60.2216
 1.4450	60.0944
 1.4440	60.0900
 1.4430	60.0943
 1.4420	60.1065
 1.4410	60.1260
 1.4400	60.1238
 1.4390	60.0246
 1.4380	60.0517
 1.4370	60.0662
 1.4360	60.0432
 1.4350	60.0466
 1.4340	60.0678
 1.4330	59.9909
 1.4320	60.0456
 1.4310	60.0305
 1.4300	59.9517
 1.4290	59.9279
 1.4280	59.9602
 1.4270	59.8597
 1.4260	59.8748
 1.4250	59.9185
 1.4240	59.8965
 1.4230	59.9194
 1.4220	59.9208
 1.4210	59.8409
 1.4200	59.8847
 1.4190	59.8621
 1.4180	59.8306
 1.4170	59.8032
 1.4160	59.8181
 1.4150	59.7917
 1.4140	59.8308
 1.4130	59.8066
 1.4120	59.7975
 1.4110	59.7989
 1.4100	59.7784
 1.4090	59.7259
 1.4080	59.7159
 1.4070	59.7023
 1.4060	59.6500
 1.4050	59.6120
 1.4040	59.5039
 1.4030	59.4562
 1.4020	59.3120
 1.4010	58.9819
 1.4000	58.6325
 1.3990	58.2237
 1.3980	57.7099
 1.3970	57.2627
 1.3960	56.5800
 1.3950	55.3621
 1.3940	54.2285
 1.3930	53.5304
 1.3920	53.4414
 1.3910	54.5662
 1.3900	56.1789
 1.3890	57.6197
 1.3880	58.7081
 1.3870	59.0371
 1.3860	59.2932
 1.3850	59.1896
 1.3840	59.2567
 1.3830	59.1120
 1.3820	59.1852
 1.3810	59.2484
 1.3800	59.4460
 1.3790	59.6141
 1.3780	59.8307
 1.3770	59.8290
 1.3760	59.9401
 1.3750	59.9078
 1.3740	59.9448
 1.3730	59.8493
 1.3720	59.8268
 1.3710	59.8373
 1.3700	59.8490
 1.3690	59.8645
 1.3680	59.8127
 1.3670	59.8778
