Name: Chlorite
Type: Mineral
Class: Silicate
Subclass: Phyllosilicate
Particle Size: Fine
Sample No.: PS-12F
Owner: JPL
Wavelength Range: VSWIR
Origin: USA, New Mexico.
Collection Date: N/A
Description: Particle size was 0-45um.Collected by:  Ward's Original ASTER Spectral Library name was jpl.perkin.mineral.silicate.phyllosilicate.fine.ps12f.spectrum.txt
Measurement: Hemispherical reflectance
First Column: X
Second Column: Y
X Units: Wavelength (micrometers)
Y Units:Reflectance (percent)
First X Value:  2.5000
Last X Value:  0.4000
Number of X Values: 2101
Additional Information: mineral.silicate.phyllosilicate.fine.vswir.ps-12f.jpl.perkin.ancillary.txt

 2.5000	50.4523
 2.4990	50.1079
 2.4980	50.2442
 2.4970	50.2792
 2.4960	50.1130
 2.4950	50.4554
 2.4940	50.4444
 2.4930	50.5821
 2.4920	50.5944
 2.4910	50.7976
 2.4900	50.6756
 2.4890	50.7776
 2.4880	50.7646
 2.4870	50.9638
 2.4860	50.8848
 2.4850	51.1213
 2.4840	50.9116
 2.4830	51.1813
 2.4820	51.1918
 2.4810	51.5520
 2.4800	51.4140
 2.4790	51.4129
 2.4780	51.3602
 2.4770	51.6139
 2.4760	51.7453
 2.4750	51.8737
 2.4740	51.7291
 2.4730	51.8379
 2.4720	52.1167
 2.4710	52.2374
 2.4700	52.0647
 2.4690	52.3991
 2.4680	52.3258
 2.4670	52.4915
 2.4660	52.4156
 2.4650	52.7170
 2.4640	52.7556
 2.4630	52.8473
 2.4620	52.8039
 2.4610	53.0350
 2.4600	52.9487
 2.4590	53.0497
 2.4580	53.0685
 2.4570	53.2215
 2.4560	53.2212
 2.4550	53.4110
 2.4540	53.3034
 2.4530	53.4684
 2.4520	53.4206
 2.4510	53.4946
 2.4500	53.5394
 2.4490	53.5737
 2.4480	53.5275
 2.4470	53.5887
 2.4460	53.5629
 2.4450	53.7873
 2.4440	53.6260
 2.4430	53.6854
 2.4420	53.6824
 2.4410	53.6739
 2.4400	53.6283
 2.4390	53.7748
 2.4380	53.7392
 2.4370	53.8523
 2.4360	53.7679
 2.4350	53.7665
 2.4340	53.7987
 2.4330	53.9153
 2.4320	53.8083
 2.4310	53.8775
 2.4300	53.8038
 2.4290	53.8016
 2.4280	53.7994
 2.4270	53.8705
 2.4260	53.9362
 2.4250	53.9376
 2.4240	53.9012
 2.4230	53.8856
 2.4220	53.8223
 2.4210	53.8912
 2.4200	53.8914
 2.4190	53.9729
 2.4180	53.9467
 2.4170	53.9426
 2.4160	53.8451
 2.4150	53.9337
 2.4140	53.9128
 2.4130	53.9494
 2.4120	53.9473
 2.4110	53.8751
 2.4100	53.8586
 2.4090	53.8936
 2.4080	53.8462
 2.4070	53.8635
 2.4060	53.8036
 2.4050	53.7525
 2.4040	53.6905
 2.4030	53.7359
 2.4020	53.6519
 2.4010	53.6139
 2.4000	53.5130
 2.3990	53.4560
 2.3980	53.3464
 2.3970	53.3304
 2.3960	53.2663
 2.3950	53.2054
 2.3940	53.1563
 2.3930	53.0889
 2.3920	52.8653
 2.3910	52.7221
 2.3900	52.6838
 2.3890	52.6350
 2.3880	52.4637
 2.3870	52.3337
 2.3860	52.1788
 2.3850	52.0244
 2.3840	51.8163
 2.3830	51.5565
 2.3820	51.4467
 2.3810	51.3803
 2.3800	51.1492
 2.3790	51.0587
 2.3780	50.9199
 2.3770	50.6769
 2.3760	50.4272
 2.3750	50.2284
 2.3740	50.0811
 2.3730	49.9672
 2.3720	49.7223
 2.3710	49.5672
 2.3700	49.4867
 2.3690	49.3570
 2.3680	49.1365
 2.3670	49.0307
 2.3660	48.9479
 2.3650	48.7771
 2.3640	48.7152
 2.3630	48.6663
 2.3620	48.5674
 2.3610	48.4927
 2.3600	48.4690
 2.3590	48.4647
 2.3580	48.3755
 2.3570	48.3473
 2.3560	48.3962
 2.3550	48.3803
 2.3540	48.4010
 2.3530	48.4458
 2.3520	48.4539
 2.3510	48.4476
 2.3500	48.5167
 2.3490	48.5788
 2.3480	48.6347
 2.3470	48.7617
 2.3460	48.8574
 2.3450	48.8953
 2.3440	48.9518
 2.3430	49.0443
 2.3420	49.2011
 2.3410	49.2908
 2.3400	49.4321
 2.3390	49.5595
 2.3380	49.6867
 2.3370	49.7493
 2.3360	49.7773
 2.3350	49.8987
 2.3340	50.0441
 2.3330	50.1232
 2.3320	50.2731
 2.3310	50.4155
 2.3300	50.5426
 2.3290	50.5751
 2.3280	50.7317
 2.3270	50.8073
 2.3260	50.9658
 2.3250	51.1129
 2.3240	51.2128
 2.3230	51.2724
 2.3220	51.3275
 2.3210	51.3555
 2.3200	51.4610
 2.3190	51.6155
 2.3180	51.7155
 2.3170	51.8441
 2.3160	51.9682
 2.3150	52.1134
 2.3140	52.1881
 2.3130	52.2791
 2.3120	52.3651
 2.3110	52.3993
 2.3100	52.5776
 2.3090	52.6893
 2.3080	52.7621
 2.3070	52.7720
 2.3060	52.8924
 2.3050	52.9805
 2.3040	53.0648
 2.3030	53.0767
 2.3020	53.1616
 2.3010	53.2173
 2.3000	53.3655
 2.2990	53.4473
 2.2980	53.5291
 2.2970	53.5188
 2.2960	53.5989
 2.2950	53.6614
 2.2940	53.6056
 2.2930	53.6559
 2.2920	53.7318
 2.2910	53.7184
 2.2900	53.6994
 2.2890	53.6737
 2.2880	53.6837
 2.2870	53.6083
 2.2860	53.6319
 2.2850	53.6246
 2.2840	53.5626
 2.2830	53.4847
 2.2820	53.4008
 2.2810	53.2388
 2.2800	53.2320
 2.2790	53.0963
 2.2780	52.9632
 2.2770	52.7863
 2.2760	52.6782
 2.2750	52.5067
 2.2740	52.3270
 2.2730	52.2083
 2.2720	51.9610
 2.2710	51.7976
 2.2700	51.6614
 2.2690	51.3530
 2.2680	51.2537
 2.2670	51.0183
 2.2660	50.8748
 2.2650	50.6950
 2.2640	50.5349
 2.2630	50.4564
 2.2620	50.2558
 2.2610	50.2077
 2.2600	50.2485
 2.2590	50.1316
 2.2580	50.2327
 2.2570	50.2897
 2.2560	50.4439
 2.2550	50.5936
 2.2540	50.8185
 2.2530	51.0939
 2.2520	51.3704
 2.2510	51.5898
 2.2500	51.9969
 2.2490	52.2865
 2.2480	52.6733
 2.2470	53.0610
 2.2460	53.4061
 2.2450	53.7690
 2.2440	54.2194
 2.2430	54.5098
 2.2420	55.0232
 2.2410	55.4106
 2.2400	55.7290
 2.2390	56.0136
 2.2380	56.4651
 2.2370	56.6687
 2.2360	57.0056
 2.2350	57.3089
 2.2340	57.5201
 2.2330	57.8176
 2.2320	58.0367
 2.2310	58.1376
 2.2300	58.3628
 2.2290	58.6122
 2.2280	58.7482
 2.2270	58.9080
 2.2260	59.0673
 2.2250	59.3029
 2.2240	59.3616
 2.2230	59.4287
 2.2220	59.6265
 2.2210	59.7167
 2.2200	59.8506
 2.2190	59.8606
 2.2180	60.1393
 2.2170	60.1511
 2.2160	60.2604
 2.2150	60.1632
 2.2140	60.3351
 2.2130	60.4298
 2.2120	60.5180
 2.2110	60.5279
 2.2100	60.7733
 2.2090	60.6791
 2.2080	60.8317
 2.2070	60.7753
 2.2060	60.9776
 2.2050	60.9382
 2.2040	61.0971
 2.2030	61.0912
 2.2020	61.1026
 2.2010	61.1647
 2.2000	61.3312
 2.1990	61.3538
 2.1980	61.2712
 2.1970	61.3410
 2.1960	61.4781
 2.1950	61.4452
 2.1940	61.5217
 2.1930	61.5802
 2.1920	61.6671
 2.1910	61.5922
 2.1900	61.6487
 2.1890	61.6385
 2.1880	61.6931
 2.1870	61.7567
 2.1860	61.7546
 2.1850	61.7185
 2.1840	61.8150
 2.1830	61.8339
 2.1820	61.8797
 2.1810	61.8616
 2.1800	61.8948
 2.1790	61.9386
 2.1780	61.9524
 2.1770	61.9319
 2.1760	62.0770
 2.1750	62.0283
 2.1740	62.1110
 2.1730	62.0815
 2.1720	62.1284
 2.1710	62.1809
 2.1700	62.1655
 2.1690	62.1308
 2.1680	62.2043
 2.1670	62.2123
 2.1660	62.2122
 2.1650	62.2659
 2.1640	62.3572
 2.1630	62.2746
 2.1620	62.4187
 2.1610	62.3542
 2.1600	62.3676
 2.1590	62.4510
 2.1580	62.4673
 2.1570	62.4485
 2.1560	62.4075
 2.1550	62.4599
 2.1540	62.4536
 2.1530	62.4235
 2.1520	62.5246
 2.1510	62.5200
 2.1500	62.5771
 2.1490	62.4392
 2.1480	62.4812
 2.1470	62.5137
 2.1460	62.4772
 2.1450	62.4984
 2.1440	62.4933
 2.1430	62.4137
 2.1420	62.4466
 2.1410	62.4308
 2.1400	62.3980
 2.1390	62.3901
 2.1380	62.4258
 2.1370	62.3932
 2.1360	62.3704
 2.1350	62.3781
 2.1340	62.3000
 2.1330	62.2084
 2.1320	62.2777
 2.1310	62.2458
 2.1300	62.2601
 2.1290	62.1982
 2.1280	62.1571
 2.1270	62.1384
 2.1260	62.1077
 2.1250	62.0824
 2.1240	62.0492
 2.1230	62.0333
 2.1220	61.9441
 2.1210	61.9660
 2.1200	61.9958
 2.1190	61.9434
 2.1180	61.9580
 2.1170	61.9268
 2.1160	61.9180
 2.1150	61.8759
 2.1140	61.8749
 2.1130	61.8640
 2.1120	61.7786
 2.1110	61.7131
 2.1100	61.7315
 2.1090	61.7100
 2.1080	61.6373
 2.1070	61.5921
 2.1060	61.5570
 2.1050	61.5336
 2.1040	61.5042
 2.1030	61.4756
 2.1020	61.4153
 2.1010	61.3547
 2.1000	61.3314
 2.0990	61.2884
 2.0980	61.2760
 2.0970	61.3370
 2.0960	61.3311
 2.0950	61.2684
 2.0940	61.2678
 2.0930	61.2420
 2.0920	61.2962
 2.0910	61.2614
 2.0900	61.1917
 2.0890	61.1559
 2.0880	61.1284
 2.0870	61.0996
 2.0860	61.1513
 2.0850	61.1409
 2.0840	61.1130
 2.0830	61.0637
 2.0820	61.0497
 2.0810	61.0354
 2.0800	61.0085
 2.0790	60.9835
 2.0780	60.9858
 2.0770	61.0069
 2.0760	60.9865
 2.0750	60.9115
 2.0740	60.8627
 2.0730	60.8479
 2.0720	60.8566
 2.0710	60.8152
 2.0700	60.7289
 2.0690	60.7423
 2.0680	60.7289
 2.0670	60.6583
 2.0660	60.6412
 2.0650	60.6185
 2.0640	60.5443
 2.0630	60.5478
 2.0620	60.5479
 2.0610	60.4956
 2.0600	60.4621
 2.0590	60.4358
 2.0580	60.3465
 2.0570	60.2979
 2.0560	60.2976
 2.0550	60.2547
 2.0540	60.2230
 2.0530	60.2220
 2.0520	60.1032
 2.0510	60.0208
 2.0500	59.9752
 2.0490	59.9641
 2.0480	59.8901
 2.0470	59.8495
 2.0460	59.7601
 2.0450	59.6973
 2.0440	59.6611
 2.0430	59.6198
 2.0420	59.5066
 2.0410	59.4760
 2.0400	59.3672
 2.0390	59.3061
 2.0380	59.2488
 2.0370	59.1535
 2.0360	59.0836
 2.0350	59.0157
 2.0340	58.9990
 2.0330	58.9553
 2.0320	58.8537
 2.0310	58.7571
 2.0300	58.6879
 2.0290	58.6681
 2.0280	58.5486
 2.0270	58.4508
 2.0260	58.3588
 2.0250	58.3216
 2.0240	58.2286
 2.0230	58.1940
 2.0220	58.1946
 2.0210	58.1288
 2.0200	57.9927
 2.0190	58.0242
 2.0180	57.9556
 2.0170	57.8133
 2.0160	57.7882
 2.0150	57.7925
 2.0140	57.6926
 2.0130	57.6535
 2.0120	57.6809
 2.0110	57.6416
 2.0100	57.5999
 2.0090	57.6058
 2.0080	57.5520
 2.0070	57.4859
 2.0060	57.5204
 2.0050	57.5141
 2.0040	57.4993
 2.0030	57.4927
 2.0020	57.4514
 2.0010	57.4723
 2.0000	57.4177
 1.9990	57.4648
 1.9980	57.4795
 1.9970	57.4777
 1.9960	57.4850
 1.9950	57.5473
 1.9940	57.5302
 1.9930	57.5510
 1.9920	57.4944
 1.9910	57.5573
 1.9900	57.5681
 1.9890	57.5914
 1.9880	57.5925
 1.9870	57.6647
 1.9860	57.5913
 1.9850	57.6488
 1.9840	57.6305
 1.9830	57.7050
 1.9820	57.6267
 1.9810	57.7306
 1.9800	57.7428
 1.9790	57.8033
 1.9780	57.7662
 1.9770	57.7985
 1.9760	57.7847
 1.9750	57.7838
 1.9740	57.8151
 1.9730	57.8441
 1.9720	57.8304
 1.9710	57.8655
 1.9700	57.7913
 1.9690	57.8711
 1.9680	57.7607
 1.9670	57.8474
 1.9660	57.8725
 1.9650	57.9002
 1.9640	57.8596
 1.9630	57.8440
 1.9620	57.9171
 1.9610	57.8396
 1.9600	57.7536
 1.9590	57.8709
 1.9580	57.8390
 1.9570	57.8130
 1.9560	57.7817
 1.9550	57.8136
 1.9540	57.7050
 1.9530	57.8925
 1.9520	57.8084
 1.9510	57.7823
 1.9500	57.8112
 1.9490	57.8706
 1.9480	57.7690
 1.9470	57.9283
 1.9460	57.8459
 1.9450	57.8804
 1.9440	57.8319
 1.9430	57.8124
 1.9420	57.7434
 1.9410	57.8201
 1.9400	57.8312
 1.9390	57.8446
 1.9380	57.8365
 1.9370	57.7671
 1.9360	57.8543
 1.9350	57.8361
 1.9340	57.6639
 1.9330	57.7161
 1.9320	57.6819
 1.9310	57.6807
 1.9300	57.6428
 1.9290	57.6003
 1.9280	57.5558
 1.9270	57.5955
 1.9260	57.4445
 1.9250	57.6480
 1.9240	57.5238
 1.9230	57.4418
 1.9220	57.5580
 1.9210	57.4191
 1.9200	57.3538
 1.9190	57.4570
 1.9180	57.4025
 1.9170	57.5225
 1.9160	57.3544
 1.9150	57.4037
 1.9140	57.4026
 1.9130	57.3848
 1.9120	57.3737
 1.9110	57.3920
 1.9100	57.3214
 1.9090	57.3033
 1.9080	57.3126
 1.9070	57.3250
 1.9060	57.3616
 1.9050	57.3064
 1.9040	57.2795
 1.9030	57.2901
 1.9020	57.2842
 1.9010	57.3109
 1.9000	57.3214
 1.8990	57.3369
 1.8980	57.3030
 1.8970	57.3478
 1.8960	57.2532
 1.8950	57.3756
 1.8940	57.3345
 1.8930	57.3627
 1.8920	57.3378
 1.8910	57.3366
 1.8900	57.3385
 1.8890	57.3649
 1.8880	57.2483
 1.8870	57.3300
 1.8860	57.2252
 1.8850	57.2832
 1.8840	57.3303
 1.8830	57.2106
 1.8820	57.1825
 1.8810	57.2787
 1.8800	57.1939
 1.8790	57.2901
 1.8780	57.2919
 1.8770	57.2365
 1.8760	57.2236
 1.8750	57.2000
 1.8740	57.1995
 1.8730	57.1878
 1.8720	57.1283
 1.8710	57.1863
 1.8700	57.1692
 1.8690	57.1676
 1.8680	57.1237
 1.8670	57.1482
 1.8660	57.1237
 1.8650	57.2395
 1.8640	57.1785
 1.8630	57.2415
 1.8620	57.2988
 1.8610	57.2077
 1.8600	57.1243
 1.8590	57.0994
 1.8580	57.1456
 1.8570	57.1618
 1.8560	57.1157
 1.8550	57.1251
 1.8540	57.1585
 1.8530	57.1459
 1.8520	57.0785
 1.8510	57.1342
 1.8500	57.0150
 1.8490	57.0463
 1.8480	57.0468
 1.8470	57.0314
 1.8460	56.9637
 1.8450	56.9975
 1.8440	57.0456
 1.8430	57.0333
 1.8420	56.9596
 1.8410	56.9930
 1.8400	56.9283
 1.8390	56.9755
 1.8380	56.8919
 1.8370	56.8599
 1.8360	56.8729
 1.8350	56.8752
 1.8340	56.7652
 1.8330	56.7996
 1.8320	56.7651
 1.8310	56.7999
 1.8300	56.7474
 1.8290	56.6673
 1.8280	56.6122
 1.8270	56.6695
 1.8260	56.6696
 1.8250	56.6382
 1.8240	56.5873
 1.8230	56.6402
 1.8220	56.5938
 1.8210	56.5500
 1.8200	56.5254
 1.8190	56.5002
 1.8180	56.5002
 1.8170	56.4168
 1.8160	56.4551
 1.8150	56.4949
 1.8140	56.4085
 1.8130	56.3624
 1.8120	56.3450
 1.8110	56.2990
 1.8100	56.3245
 1.8090	56.3400
 1.8080	56.2750
 1.8070	56.2460
 1.8060	56.2141
 1.8050	56.2432
 1.8040	56.2623
 1.8030	56.2672
 1.8020	56.1754
 1.8010	56.1230
 1.8000	56.1453
 1.7990	56.1251
 1.7980	56.0991
 1.7970	56.0801
 1.7960	55.9991
 1.7950	55.9280
 1.7940	55.9757
 1.7930	55.9212
 1.7920	55.8028
 1.7910	55.8336
 1.7900	55.8840
 1.7890	55.8260
 1.7880	55.7638
 1.7870	55.7773
 1.7860	55.7572
 1.7850	55.7088
 1.7840	55.6504
 1.7830	55.5682
 1.7820	55.5132
 1.7810	55.5129
 1.7800	55.4669
 1.7790	55.4324
 1.7780	55.4665
 1.7770	55.4324
 1.7760	55.4107
 1.7750	55.3917
 1.7740	55.3363
 1.7730	55.2586
 1.7720	55.2537
 1.7710	55.2518
 1.7700	55.2247
 1.7690	55.1431
 1.7680	55.1168
 1.7670	55.1077
 1.7660	55.0578
 1.7650	55.0393
 1.7640	55.0442
 1.7630	54.9786
 1.7620	54.9688
 1.7610	54.9500
 1.7600	54.9038
 1.7590	54.8402
 1.7580	54.8199
 1.7570	54.7953
 1.7560	54.7671
 1.7550	54.6791
 1.7540	54.6591
 1.7530	54.6651
 1.7520	54.6867
 1.7510	54.6490
 1.7500	54.5868
 1.7490	54.5397
 1.7480	54.5348
 1.7470	54.4627
 1.7460	54.4615
 1.7450	54.4684
 1.7440	54.3819
 1.7430	54.3259
 1.7420	54.3028
 1.7410	54.2576
 1.7400	54.2466
 1.7390	54.2022
 1.7380	54.2432
 1.7370	54.1394
 1.7360	54.1812
 1.7350	54.0764
 1.7340	54.0178
 1.7330	53.9617
 1.7320	53.9895
 1.7310	53.9690
 1.7300	53.9304
 1.7290	53.9108
 1.7280	53.8860
 1.7270	53.8404
 1.7260	53.8430
 1.7250	53.7817
 1.7240	53.7372
 1.7230	53.6696
 1.7220	53.6319
 1.7210	53.6087
 1.7200	53.6262
 1.7190	53.5508
 1.7180	53.5112
 1.7170	53.4652
 1.7160	53.4545
 1.7150	53.4085
 1.7140	53.3555
 1.7130	53.2975
 1.7120	53.2939
 1.7110	53.2445
 1.7100	53.2025
 1.7090	53.1831
 1.7080	53.1133
 1.7070	53.1035
 1.7060	53.0649
 1.7050	53.0054
 1.7040	52.9351
 1.7030	52.8618
 1.7020	52.8466
 1.7010	52.8131
 1.7000	52.8103
 1.6990	52.7618
 1.6980	52.7169
 1.6970	52.6950
 1.6960	52.6732
 1.6950	52.5026
 1.6940	52.6330
 1.6930	52.4958
 1.6920	52.5003
 1.6910	52.3957
 1.6900	52.4067
 1.6890	52.3534
 1.6880	52.3181
 1.6870	52.1637
 1.6860	52.2100
 1.6850	52.1947
 1.6840	52.2061
 1.6830	52.0860
 1.6820	52.0843
 1.6810	52.0133
 1.6800	51.9955
 1.6790	51.9863
 1.6780	51.9162
 1.6770	51.8120
 1.6760	51.7973
 1.6750	51.7164
 1.6740	51.7753
 1.6730	51.6828
 1.6720	51.6536
 1.6710	51.6019
 1.6700	51.5712
 1.6690	51.5977
 1.6680	51.3387
 1.6670	51.4659
 1.6660	51.4518
 1.6650	51.3436
 1.6640	51.2831
 1.6630	51.2431
 1.6620	51.3288
 1.6610	51.2309
 1.6600	51.1789
 1.6590	51.1037
 1.6580	50.9442
 1.6570	50.9480
 1.6560	51.0076
 1.6550	50.9047
 1.6540	50.9520
 1.6530	50.8210
 1.6520	50.8007
 1.6510	50.7491
 1.6500	50.6889
 1.6490	50.6314
 1.6480	50.6792
 1.6470	50.5902
 1.6460	50.6018
 1.6450	50.4311
 1.6440	50.4328
 1.6430	50.3752
 1.6420	50.3873
 1.6410	50.1496
 1.6400	50.2475
 1.6390	50.1907
 1.6380	50.2246
 1.6370	50.0067
 1.6360	50.1056
 1.6350	49.9768
 1.6340	49.9384
 1.6330	49.9376
 1.6320	49.9203
 1.6310	49.7797
 1.6300	49.7917
 1.6290	49.7702
 1.6280	49.7252
 1.6270	49.5776
 1.6260	49.6283
 1.6250	49.4859
 1.6240	49.5251
 1.6230	49.3868
 1.6220	49.3395
 1.6210	49.3095
 1.6200	49.2820
 1.6190	49.2016
 1.6180	49.1955
 1.6170	49.0622
 1.6160	49.0439
 1.6150	48.9967
 1.6140	48.9830
 1.6130	48.9100
 1.6120	48.9293
 1.6110	48.7681
 1.6100	48.8291
 1.6090	48.7316
 1.6080	48.7708
 1.6070	48.6950
 1.6060	48.6402
 1.6050	48.5247
 1.6040	48.5500
 1.6030	48.4896
 1.6020	48.4778
 1.6010	48.2798
 1.6000	48.4231
 1.5990	48.2856
 1.5980	48.2841
 1.5970	48.1533
 1.5960	48.2086
 1.5950	48.1086
 1.5940	48.0964
 1.5930	48.0181
 1.5920	47.9916
 1.5910	47.8155
 1.5900	47.8511
 1.5890	47.7672
 1.5880	47.7584
 1.5870	47.7323
 1.5860	47.7475
 1.5850	47.6207
 1.5840	47.6046
 1.5830	47.5277
 1.5820	47.4736
 1.5810	47.4557
 1.5800	47.3470
 1.5790	47.3061
 1.5780	47.2825
 1.5770	47.2311
 1.5760	47.2258
 1.5750	47.1337
 1.5740	47.0729
 1.5730	46.9733
 1.5720	47.0057
 1.5710	46.9236
 1.5700	46.9852
 1.5690	46.8564
 1.5680	46.8279
 1.5670	46.7367
 1.5660	46.7616
 1.5650	46.6908
 1.5640	46.6841
 1.5630	46.5734
 1.5620	46.5596
 1.5610	46.4871
 1.5600	46.5093
 1.5590	46.4193
 1.5580	46.3870
 1.5570	46.3422
 1.5560	46.3768
 1.5550	46.2598
 1.5540	46.2536
 1.5530	46.1485
 1.5520	46.1408
 1.5510	46.0861
 1.5500	46.0411
 1.5490	45.9720
 1.5480	46.0190
 1.5470	45.9224
 1.5460	45.9067
 1.5450	45.8548
 1.5440	45.7904
 1.5430	45.7164
 1.5420	45.6631
 1.5410	45.6583
 1.5400	45.6272
 1.5390	45.6047
 1.5380	45.5649
 1.5370	45.4870
 1.5360	45.4836
 1.5350	45.4105
 1.5340	45.4094
 1.5330	45.3429
 1.5320	45.3277
 1.5310	45.3113
 1.5300	45.2778
 1.5290	45.1908
 1.5280	45.1807
 1.5270	45.1164
 1.5260	45.1159
 1.5250	45.0615
 1.5240	45.0146
 1.5230	44.9717
 1.5220	44.9696
 1.5210	44.9511
 1.5200	44.8990
 1.5190	44.8113
 1.5180	44.8091
 1.5170	44.7532
 1.5160	44.7214
 1.5150	44.6698
 1.5140	44.6959
 1.5130	44.6627
 1.5120	44.5890
 1.5110	44.5823
 1.5100	44.5423
 1.5090	44.4908
 1.5080	44.4279
 1.5070	44.3754
 1.5060	44.4199
 1.5050	44.3632
 1.5040	44.2679
 1.5030	44.2614
 1.5020	44.2247
 1.5010	44.1277
 1.5000	44.0676
 1.4990	44.0600
 1.4980	44.0434
 1.4970	43.9984
 1.4960	43.9165
 1.4950	43.8968
 1.4940	43.8295
 1.4930	43.7715
 1.4920	43.7472
 1.4910	43.7125
 1.4900	43.6902
 1.4890	43.6328
 1.4880	43.5684
 1.4870	43.5193
 1.4860	43.4500
 1.4850	43.3805
 1.4840	43.3468
 1.4830	43.3074
 1.4820	43.2287
 1.4810	43.1832
 1.4800	43.1272
 1.4790	43.0663
 1.4780	42.9836
 1.4770	42.9491
 1.4760	42.9131
 1.4750	42.9004
 1.4740	42.8129
 1.4730	42.7678
 1.4720	42.7370
 1.4710	42.6437
 1.4700	42.5815
 1.4690	42.5215
 1.4680	42.4364
 1.4670	42.4060
 1.4660	42.3714
 1.4650	42.3066
 1.4640	42.2096
 1.4630	42.2192
 1.4620	42.0939
 1.4610	42.0726
 1.4600	42.0686
 1.4590	42.0024
 1.4580	41.8953
 1.4570	41.8751
 1.4560	41.7858
 1.4550	41.7933
 1.4540	41.6759
 1.4530	41.6668
 1.4520	41.6152
 1.4510	41.5003
 1.4500	41.4775
 1.4490	41.4249
 1.4480	41.4276
 1.4470	41.4381
 1.4460	41.3046
 1.4450	41.2919
 1.4440	41.2227
 1.4430	41.1542
 1.4420	41.1157
 1.4410	41.1347
 1.4400	41.0418
 1.4390	41.0927
 1.4380	41.0227
 1.4370	40.9834
 1.4360	40.9175
 1.4350	40.8678
 1.4340	40.7948
 1.4330	40.8192
 1.4320	40.7810
 1.4310	40.7496
 1.4300	40.6060
 1.4290	40.6784
 1.4280	40.5702
 1.4270	40.4921
 1.4260	40.3706
 1.4250	40.2551
 1.4240	40.0390
 1.4230	39.8779
 1.4220	39.6920
 1.4210	39.5357
 1.4200	39.1292
 1.4190	38.7392
 1.4180	38.3502
 1.4170	37.9818
 1.4160	37.6466
 1.4150	37.3244
 1.4140	37.1024
 1.4130	37.1341
 1.4120	37.2234
 1.4110	37.3852
 1.4100	37.4537
 1.4090	37.6035
 1.4080	37.6791
 1.4070	37.7741
 1.4060	37.7923
 1.4050	38.0379
 1.4040	38.1638
 1.4030	38.4823
 1.4020	38.4593
 1.4010	38.6273
 1.4000	38.7553
 1.3990	38.9006
 1.3980	38.9884
 1.3970	39.0186
 1.3960	39.0732
 1.3950	39.1242
 1.3940	39.0419
 1.3930	39.1353
 1.3920	39.0497
 1.3910	39.0892
 1.3900	39.0363
 1.3890	39.0506
 1.3880	38.9744
 1.3870	38.9201
 1.3860	38.8567
 1.3850	38.8627
 1.3840	38.7582
 1.3830	38.7649
 1.3820	38.5798
 1.3810	38.6103
 1.3800	38.4433
 1.3790	38.5589
 1.3780	38.4553
 1.3770	38.4940
 1.3760	38.3234
 1.3750	38.3036
 1.3740	38.2156
 1.3730	38.1596
 1.3720	38.0730
 1.3710	38.1097
 1.3700	37.8990
 1.3690	37.9525
 1.3680	37.8522
 1.3670	37.8218
 1.3660	37.7303
 1.3650	37.7466
