Name: Quartz SiO_2
Type: Mineral
Class: Silicate
Subclass: Tectosilicate
Particle Size: Coarse
Sample No.: TS-1B
Owner: JPL
Wavelength Range: VSWIR
Origin: Brazil, Minas Gerais.
Collection Date: N/A
Description: Smoky quartzParticle size was 125-500um.Collected by:  Burminco Original ASTER Spectral Library name was jpl.perkin.mineral.silicate.tectosilicate.coarse.ts01b.spectrum.txt
Measurement: Hemispherical reflectance
First Column: X
Second Column: Y
X Units: Wavelength (micrometers)
Y Units:Reflectance (percent)
First X Value:  2.5000
Last X Value:  0.4000
Number of X Values: 2101
Additional Information: mineral.silicate.tectosilicate.coarse.vswir.ts-1b.jpl.perkin.ancillary.txt

 2.5000	76.4268
 2.4990	76.3622
 2.4980	76.1851
 2.4970	76.3661
 2.4960	76.1395
 2.4950	76.2681
 2.4940	76.1502
 2.4930	76.1879
 2.4920	76.2069
 2.4910	76.1287
 2.4900	76.2014
 2.4890	76.3389
 2.4880	76.2831
 2.4870	76.2820
 2.4860	76.3920
 2.4850	76.1942
 2.4840	76.2349
 2.4830	76.2035
 2.4820	76.3435
 2.4810	76.4077
 2.4800	76.2036
 2.4790	76.4320
 2.4780	76.3759
 2.4770	76.3114
 2.4760	76.4787
 2.4750	76.5844
 2.4740	76.3713
 2.4730	76.3848
 2.4720	76.4467
 2.4710	76.6534
 2.4700	76.5157
 2.4690	76.5074
 2.4680	76.4476
 2.4670	76.5282
 2.4660	76.4509
 2.4650	76.5454
 2.4640	76.5552
 2.4630	76.5929
 2.4620	76.5398
 2.4610	76.6999
 2.4600	76.5650
 2.4590	76.5858
 2.4580	76.5746
 2.4570	76.6052
 2.4560	76.5471
 2.4550	76.5593
 2.4540	76.6228
 2.4530	76.6549
 2.4520	76.5488
 2.4510	76.5632
 2.4500	76.6420
 2.4490	76.6204
 2.4480	76.5402
 2.4470	76.6566
 2.4460	76.5236
 2.4450	76.6506
 2.4440	76.6059
 2.4430	76.6288
 2.4420	76.5722
 2.4410	76.6511
 2.4400	76.6966
 2.4390	76.6428
 2.4380	76.6582
 2.4370	76.6413
 2.4360	76.6128
 2.4350	76.6430
 2.4340	76.6852
 2.4330	76.7357
 2.4320	76.7460
 2.4310	76.7492
 2.4300	76.7504
 2.4290	76.6884
 2.4280	76.7000
 2.4270	76.6951
 2.4260	76.7854
 2.4250	76.7724
 2.4240	76.7352
 2.4230	76.7781
 2.4220	76.8550
 2.4210	76.7732
 2.4200	76.7940
 2.4190	76.9082
 2.4180	76.9124
 2.4170	76.8755
 2.4160	76.8869
 2.4150	76.9354
 2.4140	76.8353
 2.4130	76.8713
 2.4120	77.0598
 2.4110	77.0795
 2.4100	76.9038
 2.4090	76.9273
 2.4080	76.9312
 2.4070	76.9454
 2.4060	76.9653
 2.4050	76.9907
 2.4040	77.0448
 2.4030	77.0045
 2.4020	76.9113
 2.4010	77.0264
 2.4000	77.0765
 2.3990	77.0185
 2.3980	76.9876
 2.3970	77.0809
 2.3960	77.1127
 2.3950	77.1420
 2.3940	77.0856
 2.3930	77.1215
 2.3920	77.1546
 2.3910	77.1015
 2.3900	77.0517
 2.3890	77.1634
 2.3880	77.1811
 2.3870	77.2451
 2.3860	77.2346
 2.3850	77.2036
 2.3840	77.1707
 2.3830	77.2799
 2.3820	77.3127
 2.3810	77.2301
 2.3800	77.2082
 2.3790	77.2928
 2.3780	77.2794
 2.3770	77.2582
 2.3760	77.2941
 2.3750	77.3198
 2.3740	77.3468
 2.3730	77.4227
 2.3720	77.3801
 2.3710	77.4002
 2.3700	77.4420
 2.3690	77.4431
 2.3680	77.4211
 2.3670	77.4852
 2.3660	77.5460
 2.3650	77.4993
 2.3640	77.4977
 2.3630	77.5329
 2.3620	77.5045
 2.3610	77.5024
 2.3600	77.5342
 2.3590	77.5364
 2.3580	77.5740
 2.3570	77.5454
 2.3560	77.5450
 2.3550	77.5924
 2.3540	77.6229
 2.3530	77.6013
 2.3520	77.5535
 2.3510	77.5185
 2.3500	77.5682
 2.3490	77.6487
 2.3480	77.6822
 2.3470	77.6630
 2.3460	77.6214
 2.3450	77.6412
 2.3440	77.6968
 2.3430	77.6722
 2.3420	77.6193
 2.3410	77.6249
 2.3400	77.6288
 2.3390	77.6598
 2.3380	77.6485
 2.3370	77.6656
 2.3360	77.6385
 2.3350	77.6168
 2.3340	77.6574
 2.3330	77.6516
 2.3320	77.6353
 2.3310	77.6314
 2.3300	77.6310
 2.3290	77.6665
 2.3280	77.6657
 2.3270	77.5848
 2.3260	77.5743
 2.3250	77.6119
 2.3240	77.6089
 2.3230	77.5695
 2.3220	77.5536
 2.3210	77.5210
 2.3200	77.5242
 2.3190	77.5155
 2.3180	77.5503
 2.3170	77.5169
 2.3160	77.5298
 2.3150	77.5577
 2.3140	77.5491
 2.3130	77.5144
 2.3120	77.5780
 2.3110	77.5193
 2.3100	77.5299
 2.3090	77.5106
 2.3080	77.5204
 2.3070	77.5199
 2.3060	77.5020
 2.3050	77.5422
 2.3040	77.5475
 2.3030	77.4961
 2.3020	77.5717
 2.3010	77.5260
 2.3000	77.4699
 2.2990	77.4798
 2.2980	77.4910
 2.2970	77.4941
 2.2960	77.5745
 2.2950	77.5345
 2.2940	77.5167
 2.2930	77.4849
 2.2920	77.4318
 2.2910	77.4693
 2.2900	77.4293
 2.2890	77.4227
 2.2880	77.3569
 2.2870	77.3964
 2.2860	77.4263
 2.2850	77.4221
 2.2840	77.2935
 2.2830	77.3216
 2.2820	77.3867
 2.2810	77.3676
 2.2800	77.4008
 2.2790	77.3631
 2.2780	77.4146
 2.2770	77.3745
 2.2760	77.3917
 2.2750	77.3125
 2.2740	77.3647
 2.2730	77.3694
 2.2720	77.3751
 2.2710	77.3094
 2.2700	77.3414
 2.2690	77.3043
 2.2680	77.3288
 2.2670	77.3178
 2.2660	77.3925
 2.2650	77.3429
 2.2640	77.3337
 2.2630	77.3547
 2.2620	77.4053
 2.2610	77.2274
 2.2600	77.2092
 2.2590	77.2574
 2.2580	77.3044
 2.2570	77.3927
 2.2560	77.3786
 2.2550	77.3028
 2.2540	77.2323
 2.2530	77.2986
 2.2520	77.2626
 2.2510	77.2429
 2.2500	77.1906
 2.2490	77.1978
 2.2480	77.1917
 2.2470	77.2577
 2.2460	77.3433
 2.2450	77.2260
 2.2440	77.2631
 2.2430	77.3148
 2.2420	77.2958
 2.2410	77.2450
 2.2400	77.3329
 2.2390	77.3033
 2.2380	77.2580
 2.2370	77.2165
 2.2360	77.2422
 2.2350	77.2912
 2.2340	77.3551
 2.2330	77.3404
 2.2320	77.2649
 2.2310	77.2388
 2.2300	77.2757
 2.2290	77.2657
 2.2280	77.2873
 2.2270	77.2973
 2.2260	77.2893
 2.2250	77.1879
 2.2240	77.3505
 2.2230	77.3624
 2.2220	77.3754
 2.2210	77.3870
 2.2200	77.3308
 2.2190	77.3397
 2.2180	77.4031
 2.2170	77.4087
 2.2160	77.4948
 2.2150	77.3612
 2.2140	77.4839
 2.2130	77.4127
 2.2120	77.4608
 2.2110	77.3956
 2.2100	77.5238
 2.2090	77.5301
 2.2080	77.4890
 2.2070	77.4524
 2.2060	77.5783
 2.2050	77.5086
 2.2040	77.5669
 2.2030	77.5764
 2.2020	77.6364
 2.2010	77.6568
 2.2000	77.7090
 2.1990	77.6863
 2.1980	77.6873
 2.1970	77.6351
 2.1960	77.6882
 2.1950	77.7383
 2.1940	77.6699
 2.1930	77.7015
 2.1920	77.7359
 2.1910	77.6598
 2.1900	77.8116
 2.1890	77.7636
 2.1880	77.7611
 2.1870	77.7552
 2.1860	77.7840
 2.1850	77.8563
 2.1840	77.9085
 2.1830	77.8367
 2.1820	77.8912
 2.1810	77.8814
 2.1800	77.8787
 2.1790	77.8485
 2.1780	77.9401
 2.1770	77.8748
 2.1760	77.9190
 2.1750	77.9122
 2.1740	77.9778
 2.1730	77.9864
 2.1720	78.0271
 2.1710	78.0986
 2.1700	78.0230
 2.1690	78.1117
 2.1680	78.1601
 2.1670	78.1335
 2.1660	78.1635
 2.1650	78.1697
 2.1640	78.1915
 2.1630	78.1956
 2.1620	78.2183
 2.1610	78.2730
 2.1600	78.3335
 2.1590	78.3503
 2.1580	78.3237
 2.1570	78.3935
 2.1560	78.3440
 2.1550	78.3433
 2.1540	78.3447
 2.1530	78.4452
 2.1520	78.3709
 2.1510	78.4030
 2.1500	78.4760
 2.1490	78.4738
 2.1480	78.4526
 2.1470	78.5003
 2.1460	78.5189
 2.1450	78.4675
 2.1440	78.4733
 2.1430	78.4657
 2.1420	78.4278
 2.1410	78.4665
 2.1400	78.4822
 2.1390	78.3974
 2.1380	78.3366
 2.1370	78.4006
 2.1360	78.3187
 2.1350	78.3573
 2.1340	78.3766
 2.1330	78.2791
 2.1320	78.2320
 2.1310	78.2819
 2.1300	78.2816
 2.1290	78.2004
 2.1280	78.1626
 2.1270	78.1593
 2.1260	78.0748
 2.1250	78.0364
 2.1240	78.0567
 2.1230	77.9854
 2.1220	77.8982
 2.1210	77.8180
 2.1200	77.8460
 2.1190	77.8464
 2.1180	77.7906
 2.1170	77.7815
 2.1160	77.7501
 2.1150	77.6627
 2.1140	77.5824
 2.1130	77.5429
 2.1120	77.5466
 2.1110	77.4784
 2.1100	77.3762
 2.1090	77.3303
 2.1080	77.2960
 2.1070	77.2776
 2.1060	77.2271
 2.1050	77.1938
 2.1040	77.1902
 2.1030	77.1472
 2.1020	77.1019
 2.1010	77.0522
 2.1000	77.0398
 2.0990	77.0660
 2.0980	77.1091
 2.0970	77.1325
 2.0960	77.0889
 2.0950	76.9954
 2.0940	77.0594
 2.0930	77.1208
 2.0920	77.0932
 2.0910	77.0913
 2.0900	77.0994
 2.0890	77.1094
 2.0880	77.1421
 2.0870	77.1294
 2.0860	77.1131
 2.0850	77.1282
 2.0840	77.2000
 2.0830	77.2396
 2.0820	77.2135
 2.0810	77.1826
 2.0800	77.1863
 2.0790	77.1900
 2.0780	77.1889
 2.0770	77.2173
 2.0760	77.2110
 2.0750	77.2166
 2.0740	77.2102
 2.0730	77.2239
 2.0720	77.2306
 2.0710	77.2267
 2.0700	77.2649
 2.0690	77.2931
 2.0680	77.3009
 2.0670	77.3380
 2.0660	77.3138
 2.0650	77.3052
 2.0640	77.3722
 2.0630	77.3526
 2.0620	77.3619
 2.0610	77.3791
 2.0600	77.3453
 2.0590	77.3508
 2.0580	77.3858
 2.0570	77.3836
 2.0560	77.3225
 2.0550	77.3240
 2.0540	77.3450
 2.0530	77.3146
 2.0520	77.4231
 2.0510	77.4773
 2.0500	77.4249
 2.0490	77.4073
 2.0480	77.3815
 2.0470	77.4320
 2.0460	77.4320
 2.0450	77.4297
 2.0440	77.4956
 2.0430	77.4947
 2.0420	77.5117
 2.0410	77.5364
 2.0400	77.5488
 2.0390	77.5761
 2.0380	77.5090
 2.0370	77.5172
 2.0360	77.5062
 2.0350	77.5489
 2.0340	77.5622
 2.0330	77.5426
 2.0320	77.5790
 2.0310	77.5571
 2.0300	77.5171
 2.0290	77.5140
 2.0280	77.5338
 2.0270	77.5251
 2.0260	77.5167
 2.0250	77.5299
 2.0240	77.5432
 2.0230	77.4980
 2.0220	77.5767
 2.0210	77.5970
 2.0200	77.5386
 2.0190	77.5199
 2.0180	77.5245
 2.0170	77.5551
 2.0160	77.5063
 2.0150	77.5126
 2.0140	77.4960
 2.0130	77.4829
 2.0120	77.4675
 2.0110	77.4813
 2.0100	77.5148
 2.0090	77.5358
 2.0080	77.5155
 2.0070	77.5448
 2.0060	77.4738
 2.0050	77.4640
 2.0040	77.5157
 2.0030	77.5477
 2.0020	77.4961
 2.0010	77.5854
 2.0000	77.5102
 1.9990	77.4668
 1.9980	77.4132
 1.9970	77.4542
 1.9960	77.4068
 1.9950	77.4516
 1.9940	77.4578
 1.9930	77.3808
 1.9920	77.4112
 1.9910	77.3998
 1.9900	77.3646
 1.9890	77.3931
 1.9880	77.3532
 1.9870	77.3250
 1.9860	77.3568
 1.9850	77.3620
 1.9840	77.3098
 1.9830	77.2939
 1.9820	77.2213
 1.9810	77.2571
 1.9800	77.2810
 1.9790	77.3062
 1.9780	77.2440
 1.9770	77.3008
 1.9760	77.2590
 1.9750	77.2793
 1.9740	77.2089
 1.9730	77.2699
 1.9720	77.2713
 1.9710	77.2522
 1.9700	77.1557
 1.9690	77.2226
 1.9680	77.3119
 1.9670	77.2286
 1.9660	77.2842
 1.9650	77.2473
 1.9640	77.2613
 1.9630	77.2201
 1.9620	77.2031
 1.9610	77.2069
 1.9600	77.1864
 1.9590	77.1500
 1.9580	77.2345
 1.9570	77.2273
 1.9560	77.1619
 1.9550	77.2669
 1.9540	77.1105
 1.9530	77.2162
 1.9520	77.1502
 1.9510	77.1994
 1.9500	77.1939
 1.9490	77.1769
 1.9480	77.1425
 1.9470	77.2329
 1.9460	77.2262
 1.9450	77.1293
 1.9440	77.1711
 1.9430	77.2503
 1.9420	77.1688
 1.9410	77.2971
 1.9400	77.1778
 1.9390	77.1907
 1.9380	77.1920
 1.9370	77.2033
 1.9360	77.2632
 1.9350	77.1888
 1.9340	77.1729
 1.9330	77.2657
 1.9320	77.2537
 1.9310	77.2432
 1.9300	77.2903
 1.9290	77.2865
 1.9280	77.3125
 1.9270	77.2664
 1.9260	77.2063
 1.9250	77.2869
 1.9240	77.2162
 1.9230	77.2992
 1.9220	77.2274
 1.9210	77.3019
 1.9200	77.3538
 1.9190	77.2770
 1.9180	77.2694
 1.9170	77.3369
 1.9160	77.3457
 1.9150	77.2942
 1.9140	77.3419
 1.9130	77.3474
 1.9120	77.2957
 1.9110	77.3916
 1.9100	77.3855
 1.9090	77.4143
 1.9080	77.3769
 1.9070	77.3188
 1.9060	77.3399
 1.9050	77.4001
 1.9040	77.4109
 1.9030	77.4748
 1.9020	77.4310
 1.9010	77.4077
 1.9000	77.4442
 1.8990	77.3928
 1.8980	77.4080
 1.8970	77.5101
 1.8960	77.4312
 1.8950	77.5252
 1.8940	77.4935
 1.8930	77.5162
 1.8920	77.4241
 1.8910	77.4894
 1.8900	77.5621
 1.8890	77.4735
 1.8880	77.5020
 1.8870	77.5334
 1.8860	77.5506
 1.8850	77.5703
 1.8840	77.5436
 1.8830	77.5309
 1.8820	77.5717
 1.8810	77.5628
 1.8800	77.6075
 1.8790	77.6402
 1.8780	77.5999
 1.8770	77.5804
 1.8760	77.6553
 1.8750	77.5792
 1.8740	77.6210
 1.8730	77.6698
 1.8720	77.6054
 1.8710	77.6126
 1.8700	77.6132
 1.8690	77.5997
 1.8680	77.5723
 1.8670	77.5943
 1.8660	77.6398
 1.8650	77.6787
 1.8640	77.7265
 1.8630	77.6230
 1.8620	77.6384
 1.8610	77.6521
 1.8600	77.6989
 1.8590	77.5935
 1.8580	77.6186
 1.8570	77.6504
 1.8560	77.6428
 1.8550	77.6546
 1.8540	77.6249
 1.8530	77.5726
 1.8520	77.6234
 1.8510	77.6490
 1.8500	77.5987
 1.8490	77.6330
 1.8480	77.5775
 1.8470	77.6544
 1.8460	77.6759
 1.8450	77.7003
 1.8440	77.7123
 1.8430	77.6894
 1.8420	77.6917
 1.8410	77.6858
 1.8400	77.7024
 1.8390	77.6270
 1.8380	77.6304
 1.8370	77.6781
 1.8360	77.6195
 1.8350	77.6143
 1.8340	77.6221
 1.8330	77.6569
 1.8320	77.5813
 1.8310	77.6530
 1.8300	77.6024
 1.8290	77.6410
 1.8280	77.6443
 1.8270	77.6646
 1.8260	77.5856
 1.8250	77.6206
 1.8240	77.6866
 1.8230	77.6991
 1.8220	77.6665
 1.8210	77.6584
 1.8200	77.6466
 1.8190	77.6395
 1.8180	77.6328
 1.8170	77.6548
 1.8160	77.6776
 1.8150	77.6435
 1.8140	77.6313
 1.8130	77.6526
 1.8120	77.6344
 1.8110	77.6733
 1.8100	77.6310
 1.8090	77.6855
 1.8080	77.6821
 1.8070	77.6509
 1.8060	77.6490
 1.8050	77.6354
 1.8040	77.6910
 1.8030	77.6790
 1.8020	77.6034
 1.8010	77.6458
 1.8000	77.6684
 1.7990	77.6991
 1.7980	77.6795
 1.7970	77.6737
 1.7960	77.6780
 1.7950	77.6858
 1.7940	77.6659
 1.7930	77.6022
 1.7920	77.6796
 1.7910	77.6951
 1.7900	77.6408
 1.7890	77.6408
 1.7880	77.6503
 1.7870	77.6667
 1.7860	77.6359
 1.7850	77.5429
 1.7840	77.5461
 1.7830	77.6007
 1.7820	77.6617
 1.7810	77.6180
 1.7800	77.5407
 1.7790	77.6117
 1.7780	77.6187
 1.7770	77.5928
 1.7760	77.6176
 1.7750	77.6241
 1.7740	77.6085
 1.7730	77.5785
 1.7720	77.5374
 1.7710	77.5322
 1.7700	77.5402
 1.7690	77.5544
 1.7680	77.5270
 1.7670	77.5297
 1.7660	77.5918
 1.7650	77.5682
 1.7640	77.5452
 1.7630	77.5591
 1.7620	77.5616
 1.7610	77.5521
 1.7600	77.5197
 1.7590	77.5134
 1.7580	77.5480
 1.7570	77.5726
 1.7560	77.5568
 1.7550	77.5351
 1.7540	77.5251
 1.7530	77.5182
 1.7520	77.5265
 1.7510	77.5312
 1.7500	77.6226
 1.7490	77.5995
 1.7480	77.5232
 1.7470	77.5469
 1.7460	77.5841
 1.7450	77.5737
 1.7440	77.6301
 1.7430	77.5740
 1.7420	77.5462
 1.7410	77.5893
 1.7400	77.5668
 1.7390	77.5407
 1.7380	77.5683
 1.7370	77.5746
 1.7360	77.5622
 1.7350	77.5589
 1.7340	77.5886
 1.7330	77.6394
 1.7320	77.6150
 1.7310	77.5665
 1.7300	77.5919
 1.7290	77.6281
 1.7280	77.6178
 1.7270	77.6028
 1.7260	77.5823
 1.7250	77.5936
 1.7240	77.5584
 1.7230	77.5708
 1.7220	77.6257
 1.7210	77.6273
 1.7200	77.5436
 1.7190	77.5737
 1.7180	77.5917
 1.7170	77.6599
 1.7160	77.6299
 1.7150	77.5631
 1.7140	77.5762
 1.7130	77.5186
 1.7120	77.5687
 1.7110	77.5355
 1.7100	77.5288
 1.7090	77.5184
 1.7080	77.5199
 1.7070	77.5565
 1.7060	77.6091
 1.7050	77.6032
 1.7040	77.5245
 1.7030	77.4942
 1.7020	77.5387
 1.7010	77.5916
 1.7000	77.5768
 1.6990	77.4849
 1.6980	77.4165
 1.6970	77.4757
 1.6960	77.5242
 1.6950	77.4508
 1.6940	77.4787
 1.6930	77.4772
 1.6920	77.4889
 1.6910	77.4663
 1.6900	77.4977
 1.6890	77.4996
 1.6880	77.4904
 1.6870	77.4270
 1.6860	77.4871
 1.6850	77.4749
 1.6840	77.4653
 1.6830	77.4213
 1.6820	77.4790
 1.6810	77.4847
 1.6800	77.4666
 1.6790	77.4929
 1.6780	77.5259
 1.6770	77.4574
 1.6760	77.4229
 1.6750	77.5265
 1.6740	77.4488
 1.6730	77.4442
 1.6720	77.4693
 1.6710	77.4377
 1.6700	77.5000
 1.6690	77.4787
 1.6680	77.4041
 1.6670	77.3632
 1.6660	77.4050
 1.6650	77.3531
 1.6640	77.3714
 1.6630	77.3587
 1.6620	77.3718
 1.6610	77.4721
 1.6600	77.4933
 1.6590	77.3247
 1.6580	77.4349
 1.6570	77.4844
 1.6560	77.4168
 1.6550	77.4994
 1.6540	77.4775
 1.6530	77.3973
 1.6520	77.3740
 1.6510	77.3641
 1.6500	77.4536
 1.6490	77.4483
 1.6480	77.3992
 1.6470	77.3573
 1.6460	77.3788
 1.6450	77.4834
 1.6440	77.3271
 1.6430	77.3217
 1.6420	77.4185
 1.6410	77.3782
 1.6400	77.3730
 1.6390	77.4202
 1.6380	77.4581
 1.6370	77.3051
 1.6360	77.4315
 1.6350	77.2950
 1.6340	77.3712
 1.6330	77.3411
 1.6320	77.3749
 1.6310	77.3167
 1.6300	77.3773
 1.6290	77.3337
 1.6280	77.2692
 1.6270	77.3250
 1.6260	77.3671
 1.6250	77.3874
 1.6240	77.3439
 1.6230	77.3516
 1.6220	77.4182
 1.6210	77.3043
 1.6200	77.3167
 1.6190	77.3142
 1.6180	77.3612
 1.6170	77.2934
 1.6160	77.3029
 1.6150	77.3446
 1.6140	77.3170
 1.6130	77.2613
 1.6120	77.3011
 1.6110	77.3360
 1.6100	77.3589
 1.6090	77.3209
 1.6080	77.3374
 1.6070	77.3561
 1.6060	77.3705
 1.6050	77.3263
 1.6040	77.3741
 1.6030	77.4252
 1.6020	77.3303
 1.6010	77.3601
 1.6000	77.4046
 1.5990	77.3242
 1.5980	77.3687
 1.5970	77.3116
 1.5960	77.2830
 1.5950	77.2449
 1.5940	77.3536
 1.5930	77.2708
 1.5920	77.3222
 1.5910	77.3015
 1.5900	77.3417
 1.5890	77.3444
 1.5880	77.3215
 1.5870	77.3107
 1.5860	77.2856
 1.5850	77.2881
 1.5840	77.3401
 1.5830	77.2962
 1.5820	77.2362
 1.5810	77.2190
 1.5800	77.2689
 1.5790	77.2865
 1.5780	77.2705
 1.5770	77.3029
 1.5760	77.3174
 1.5750	77.2363
 1.5740	77.2227
 1.5730	77.2179
 1.5720	77.2428
 1.5710	77.2294
 1.5700	77.2224
 1.5690	77.2008
 1.5680	77.2392
 1.5670	77.1433
 1.5660	77.2607
 1.5650	77.2623
 1.5640	77.2799
 1.5630	77.2433
 1.5620	77.1947
 1.5610	77.1722
 1.5600	77.1632
 1.5590	77.1825
 1.5580	77.1986
 1.5570	77.1729
 1.5560	77.1319
 1.5550	77.1196
 1.5540	77.1402
 1.5530	77.1657
 1.5520	77.1774
 1.5510	77.1609
 1.5500	77.1989
 1.5490	77.2083
 1.5480	77.1527
 1.5470	77.1446
 1.5460	77.1367
 1.5450	77.1262
 1.5440	77.1722
 1.5430	77.1951
 1.5420	77.1836
 1.5410	77.1680
 1.5400	77.1987
 1.5390	77.1393
 1.5380	77.1146
 1.5370	77.0944
 1.5360	77.1099
 1.5350	77.1358
 1.5340	77.1814
 1.5330	77.1338
 1.5320	77.1018
 1.5310	77.0622
 1.5300	77.0981
 1.5290	77.0640
 1.5280	77.0877
 1.5270	77.0384
 1.5260	77.0556
 1.5250	77.0764
 1.5240	77.1061
 1.5230	77.1017
 1.5220	77.1037
 1.5210	77.0936
 1.5200	77.1075
 1.5190	77.1173
 1.5180	77.1047
 1.5170	77.0982
 1.5160	77.0836
 1.5150	77.1055
 1.5140	77.0969
 1.5130	77.0387
 1.5120	77.0362
 1.5110	77.0961
 1.5100	77.0539
 1.5090	77.0110
 1.5080	77.0370
 1.5070	77.0631
 1.5060	77.0265
 1.5050	77.0050
 1.5040	77.0247
 1.5030	76.9897
 1.5020	77.0087
 1.5010	77.0469
 1.5000	77.0029
 1.4990	76.9896
 1.4980	77.0163
 1.4970	77.0070
 1.4960	76.9603
 1.4950	76.9619
 1.4940	76.9623
 1.4930	76.9696
 1.4920	76.9903
 1.4910	76.9928
 1.4900	77.0093
 1.4890	76.9802
 1.4880	76.9561
 1.4870	76.9595
 1.4860	76.9399
 1.4850	76.9544
 1.4840	76.9865
 1.4830	76.9800
 1.4820	76.9497
 1.4810	76.9400
 1.4800	76.8997
 1.4790	76.8955
 1.4780	76.9358
 1.4770	76.9597
 1.4760	76.9551
 1.4750	76.9764
 1.4740	76.9677
 1.4730	76.9776
 1.4720	76.9244
 1.4710	76.9119
 1.4700	76.9103
 1.4690	76.9200
 1.4680	76.9133
 1.4670	76.9063
 1.4660	76.8789
 1.4650	76.8547
 1.4640	76.8304
 1.4630	76.8793
 1.4620	76.8931
 1.4610	76.8763
 1.4600	76.8035
 1.4590	76.8820
 1.4580	76.9030
 1.4570	76.8411
 1.4560	76.8575
 1.4550	76.8606
 1.4540	76.8259
 1.4530	76.8753
 1.4520	76.8665
 1.4510	76.8606
 1.4500	76.8031
 1.4490	76.8480
 1.4480	76.8693
 1.4470	76.8537
 1.4460	76.8256
 1.4450	76.9230
 1.4440	76.9310
 1.4430	76.9377
 1.4420	76.8818
 1.4410	76.9275
 1.4400	76.8810
 1.4390	76.8537
 1.4380	76.7713
 1.4370	76.8197
 1.4360	76.8307
 1.4350	76.8480
 1.4340	76.8957
 1.4330	76.8755
 1.4320	76.8272
 1.4310	76.8177
 1.4300	76.8236
 1.4290	76.8234
 1.4280	76.8034
 1.4270	76.7905
 1.4260	76.8555
 1.4250	76.7848
 1.4240	76.7371
 1.4230	76.7899
 1.4220	76.7880
 1.4210	76.7426
 1.4200	76.7224
 1.4190	76.7650
 1.4180	76.7899
 1.4170	76.8605
 1.4160	76.7969
 1.4150	76.6702
 1.4140	76.7188
 1.4130	76.7690
 1.4120	76.7268
 1.4110	76.7636
 1.4100	76.6583
 1.4090	76.7906
 1.4080	76.6923
 1.4070	76.6873
 1.4060	76.6611
 1.4050	76.7387
 1.4040	76.7235
 1.4030	76.7474
 1.4020	76.6981
 1.4010	76.8168
 1.4000	76.7331
 1.3990	76.6763
 1.3980	76.7791
 1.3970	76.7681
 1.3960	76.7922
 1.3950	76.8334
 1.3940	76.7235
 1.3930	76.8165
 1.3920	76.7300
 1.3910	76.7038
 1.3900	76.7546
 1.3890	76.7771
 1.3880	76.8345
 1.3870	76.7797
 1.3860	76.7279
 1.3850	76.7297
 1.3840	76.7053
 1.3830	76.8161
 1.3820	76.6727
 1.3810	76.7240
 1.3800	76.6869
 1.3790	76.7603
 1.3780	76.6860
 1.3770	76.7416
 1.3760	76.6890
 1.3750	76.7200
 1.3740	76.7570
 1.3730	76.6520
 1.3720	76.6938
 1.3710	76.7124
 1.3700	76.6458
 1.3690	76.8167
 1.3680	76.6743
 1.3670	76.6852
