Name: Tschermigite (NH_4)Al(SO_4)_2.12H_2O
Type: Mineral
Class: Sulfate
Subclass: None
Particle Size: Fine
Sample No.: SO-6A
Owner: JPL
Wavelength Range: VSWIR
Origin: USA, Nevada, Esmeralda County, Silver Peak.
Collection Date: N/A
Description: Particle size was 0-45um. Collected by:  Burminco Original ASTER Spectral Library name was jpl.perkin.mineral.sulfate.none.fine.so06a.spectrum.txt
Measurement: Hemispherical reflectance
First Column: X
Second Column: Y
X Units: Wavelength (micrometers)
Y Units:Reflectance (percent)
First X Value:  2.5000
Last X Value:  0.4000
Number of X Values: 2101
Additional Information: mineral.sulfate.none.fine.vswir.so-6a.jpl.perkin.ancillary.txt

 2.5000	17.6124
 2.4990	17.0515
 2.4980	17.5686
 2.4970	17.5808
 2.4960	17.0822
 2.4950	17.6813
 2.4940	17.7389
 2.4930	17.6689
 2.4920	17.8708
 2.4910	17.8727
 2.4900	17.8850
 2.4890	17.9736
 2.4880	18.1105
 2.4870	18.1016
 2.4860	18.1996
 2.4850	18.1435
 2.4840	18.2778
 2.4830	18.3157
 2.4820	18.4228
 2.4810	18.4055
 2.4800	18.5994
 2.4790	18.6431
 2.4780	18.5360
 2.4770	18.6852
 2.4760	18.8390
 2.4750	18.7265
 2.4740	18.9250
 2.4730	18.8881
 2.4720	18.9692
 2.4710	18.9051
 2.4700	19.1383
 2.4690	19.0750
 2.4680	19.3392
 2.4670	19.2994
 2.4660	19.4220
 2.4650	19.4390
 2.4640	19.5416
 2.4630	19.4200
 2.4620	19.6574
 2.4610	19.5291
 2.4600	19.6983
 2.4590	19.8156
 2.4580	19.8043
 2.4570	19.8750
 2.4560	19.9017
 2.4550	19.8947
 2.4540	20.0042
 2.4530	20.0654
 2.4520	20.2916
 2.4510	20.1463
 2.4500	20.2902
 2.4490	20.3327
 2.4480	20.4801
 2.4470	20.5426
 2.4460	20.7016
 2.4450	20.6625
 2.4440	20.6644
 2.4430	20.7768
 2.4420	20.9561
 2.4410	20.8755
 2.4400	21.0837
 2.4390	21.0641
 2.4380	21.2663
 2.4370	21.3281
 2.4360	21.4153
 2.4350	21.4477
 2.4340	21.5420
 2.4330	21.5923
 2.4320	21.6873
 2.4310	21.7914
 2.4300	21.9680
 2.4290	22.0721
 2.4280	22.1127
 2.4270	22.1199
 2.4260	22.2877
 2.4250	22.3357
 2.4240	22.4897
 2.4230	22.5213
 2.4220	22.5851
 2.4210	22.6435
 2.4200	22.7790
 2.4190	22.8789
 2.4180	23.0054
 2.4170	23.0577
 2.4160	23.1459
 2.4150	23.2372
 2.4140	23.4243
 2.4130	23.4587
 2.4120	23.4883
 2.4110	23.6022
 2.4100	23.6978
 2.4090	23.7360
 2.4080	23.8126
 2.4070	23.9128
 2.4060	24.0314
 2.4050	24.0673
 2.4040	24.1830
 2.4030	24.2264
 2.4020	24.3462
 2.4010	24.3547
 2.4000	24.4234
 2.3990	24.4454
 2.3980	24.5724
 2.3970	24.6342
 2.3960	24.7279
 2.3950	24.7768
 2.3940	24.8896
 2.3930	24.9620
 2.3920	25.0633
 2.3910	25.0689
 2.3900	25.1757
 2.3890	25.2906
 2.3880	25.2853
 2.3870	25.2620
 2.3860	25.3385
 2.3850	25.3669
 2.3840	25.4791
 2.3830	25.5308
 2.3820	25.5600
 2.3810	25.6548
 2.3800	25.7399
 2.3790	25.7333
 2.3780	25.7627
 2.3770	25.8007
 2.3760	25.8248
 2.3750	25.8908
 2.3740	25.9723
 2.3730	26.0066
 2.3720	26.0775
 2.3710	26.1187
 2.3700	26.1766
 2.3690	26.2009
 2.3680	26.1900
 2.3670	26.1677
 2.3660	26.2393
 2.3650	26.3158
 2.3640	26.3074
 2.3630	26.2750
 2.3620	26.2920
 2.3610	26.3486
 2.3600	26.3683
 2.3590	26.3971
 2.3580	26.4375
 2.3570	26.4884
 2.3560	26.4765
 2.3550	26.4496
 2.3540	26.5121
 2.3530	26.5321
 2.3520	26.5175
 2.3510	26.5381
 2.3500	26.5383
 2.3490	26.5118
 2.3480	26.5227
 2.3470	26.5640
 2.3460	26.6067
 2.3450	26.6413
 2.3440	26.5906
 2.3430	26.5361
 2.3420	26.5301
 2.3410	26.5580
 2.3400	26.5165
 2.3390	26.5524
 2.3380	26.5336
 2.3370	26.5032
 2.3360	26.5105
 2.3350	26.5497
 2.3340	26.5095
 2.3330	26.4965
 2.3320	26.4827
 2.3310	26.4480
 2.3300	26.4199
 2.3290	26.4143
 2.3280	26.4551
 2.3270	26.4560
 2.3260	26.4063
 2.3250	26.3990
 2.3240	26.3594
 2.3230	26.3519
 2.3220	26.3157
 2.3210	26.3204
 2.3200	26.3018
 2.3190	26.3316
 2.3180	26.3236
 2.3170	26.3251
 2.3160	26.2460
 2.3150	26.2587
 2.3140	26.2451
 2.3130	26.2298
 2.3120	26.2421
 2.3110	26.3092
 2.3100	26.2837
 2.3090	26.2445
 2.3080	26.1747
 2.3070	26.2515
 2.3060	26.2095
 2.3050	26.2853
 2.3040	26.2638
 2.3030	26.2677
 2.3020	26.1947
 2.3010	26.1788
 2.3000	26.2340
 2.2990	26.3032
 2.2980	26.2052
 2.2970	26.2703
 2.2960	26.2699
 2.2950	26.2829
 2.2940	26.2113
 2.2930	26.3029
 2.2920	26.3177
 2.2910	26.3077
 2.2900	26.2813
 2.2890	26.3109
 2.2880	26.2799
 2.2870	26.3383
 2.2860	26.3288
 2.2850	26.2962
 2.2840	26.2571
 2.2830	26.3152
 2.2820	26.3019
 2.2810	26.3789
 2.2800	26.3663
 2.2790	26.3891
 2.2780	26.3703
 2.2770	26.3648
 2.2760	26.3611
 2.2750	26.3859
 2.2740	26.3878
 2.2730	26.4047
 2.2720	26.3780
 2.2710	26.4059
 2.2700	26.3289
 2.2690	26.3887
 2.2680	26.3040
 2.2670	26.4428
 2.2660	26.3996
 2.2650	26.4536
 2.2640	26.4362
 2.2630	26.4310
 2.2620	26.3585
 2.2610	26.4470
 2.2600	26.4024
 2.2590	26.4702
 2.2580	26.3658
 2.2570	26.3545
 2.2560	26.4571
 2.2550	26.4176
 2.2540	26.3345
 2.2530	26.4617
 2.2520	26.3991
 2.2510	26.4016
 2.2500	26.3586
 2.2490	26.4011
 2.2480	26.3722
 2.2470	26.4117
 2.2460	26.3789
 2.2450	26.3767
 2.2440	26.2816
 2.2430	26.3270
 2.2420	26.3404
 2.2410	26.4442
 2.2400	26.2815
 2.2390	26.3080
 2.2380	26.2890
 2.2370	26.3170
 2.2360	26.3605
 2.2350	26.3154
 2.2340	26.2091
 2.2330	26.2950
 2.2320	26.2806
 2.2310	26.2545
 2.2300	26.2566
 2.2290	26.2205
 2.2280	26.2133
 2.2270	26.2723
 2.2260	26.2358
 2.2250	26.2297
 2.2240	26.1893
 2.2230	26.1938
 2.2220	26.1635
 2.2210	26.1732
 2.2200	26.1436
 2.2190	26.1983
 2.2180	26.1458
 2.2170	26.1503
 2.2160	26.1085
 2.2150	26.2362
 2.2140	26.1127
 2.2130	26.1687
 2.2120	26.1574
 2.2110	25.9978
 2.2100	26.1749
 2.2090	26.1735
 2.2080	26.1370
 2.2070	26.1765
 2.2060	26.1269
 2.2050	26.1728
 2.2040	26.0722
 2.2030	26.1803
 2.2020	26.1141
 2.2010	26.2025
 2.2000	26.0464
 2.1990	26.1595
 2.1980	26.0647
 2.1970	26.1386
 2.1960	26.1528
 2.1950	26.1303
 2.1940	26.1405
 2.1930	26.0882
 2.1920	26.0501
 2.1910	26.1292
 2.1900	26.0352
 2.1890	26.0757
 2.1880	26.0488
 2.1870	26.1136
 2.1860	25.9750
 2.1850	26.0692
 2.1840	26.0008
 2.1830	26.0696
 2.1820	25.9554
 2.1810	26.0526
 2.1800	25.9556
 2.1790	26.0645
 2.1780	26.0002
 2.1770	26.0605
 2.1760	25.9912
 2.1750	26.0601
 2.1740	25.9898
 2.1730	26.0497
 2.1720	25.9798
 2.1710	26.0079
 2.1700	25.9754
 2.1690	26.0746
 2.1680	25.9552
 2.1670	26.0150
 2.1660	25.9680
 2.1650	25.9641
 2.1640	26.0052
 2.1630	26.0419
 2.1620	26.0059
 2.1610	26.0516
 2.1600	26.0434
 2.1590	26.0435
 2.1580	26.0335
 2.1570	26.0847
 2.1560	26.0212
 2.1550	26.0865
 2.1540	26.0490
 2.1530	26.1024
 2.1520	26.0150
 2.1510	26.1495
 2.1500	26.0909
 2.1490	26.1062
 2.1480	26.1151
 2.1470	26.1314
 2.1460	26.0842
 2.1450	26.2225
 2.1440	26.1475
 2.1430	26.2304
 2.1420	26.1589
 2.1410	26.2774
 2.1400	26.2318
 2.1390	26.2145
 2.1380	26.2214
 2.1370	26.2857
 2.1360	26.2952
 2.1350	26.3595
 2.1340	26.3543
 2.1330	26.3288
 2.1320	26.3040
 2.1310	26.3512
 2.1300	26.3639
 2.1290	26.4695
 2.1280	26.4604
 2.1270	26.4636
 2.1260	26.3796
 2.1250	26.5008
 2.1240	26.4841
 2.1230	26.4654
 2.1220	26.4788
 2.1210	26.5329
 2.1200	26.5168
 2.1190	26.5654
 2.1180	26.5664
 2.1170	26.5851
 2.1160	26.5836
 2.1150	26.6389
 2.1140	26.5159
 2.1130	26.5897
 2.1120	26.6359
 2.1110	26.6248
 2.1100	26.6368
 2.1090	26.6521
 2.1080	26.6692
 2.1070	26.6951
 2.1060	26.6919
 2.1050	26.7133
 2.1040	26.7344
 2.1030	26.7370
 2.1020	26.7034
 2.1010	26.7562
 2.1000	26.7148
 2.0990	26.7682
 2.0980	26.8138
 2.0970	26.8173
 2.0960	26.8228
 2.0950	26.8635
 2.0940	26.8939
 2.0930	26.8483
 2.0920	26.9148
 2.0910	26.9637
 2.0900	26.9115
 2.0890	26.9435
 2.0880	26.9645
 2.0870	27.0023
 2.0860	27.0162
 2.0850	27.0030
 2.0840	27.0513
 2.0830	27.0952
 2.0820	27.0736
 2.0810	27.0990
 2.0800	27.1085
 2.0790	27.0981
 2.0780	27.0931
 2.0770	27.1215
 2.0760	27.1233
 2.0750	27.1719
 2.0740	27.1907
 2.0730	27.2146
 2.0720	27.1622
 2.0710	27.1482
 2.0700	27.1569
 2.0690	27.1855
 2.0680	27.2127
 2.0670	27.1818
 2.0660	27.2295
 2.0650	27.2411
 2.0640	27.1919
 2.0630	27.1844
 2.0620	27.2164
 2.0610	27.2205
 2.0600	27.1668
 2.0590	27.1378
 2.0580	27.1520
 2.0570	27.1858
 2.0560	27.1725
 2.0550	27.1304
 2.0540	27.1226
 2.0530	27.1114
 2.0520	27.0787
 2.0510	27.0555
 2.0500	27.0772
 2.0490	27.0340
 2.0480	26.9664
 2.0470	26.8700
 2.0460	26.8626
 2.0450	26.8519
 2.0440	26.8492
 2.0430	26.8022
 2.0420	26.7397
 2.0410	26.6675
 2.0400	26.6048
 2.0390	26.4867
 2.0380	26.4782
 2.0370	26.4063
 2.0360	26.3128
 2.0350	26.2226
 2.0340	26.1296
 2.0330	26.0576
 2.0320	25.9761
 2.0310	25.8634
 2.0300	25.8380
 2.0290	25.7319
 2.0280	25.6304
 2.0270	25.4828
 2.0260	25.3701
 2.0250	25.2469
 2.0240	25.2011
 2.0230	25.0652
 2.0220	24.9372
 2.0210	24.7712
 2.0200	24.6261
 2.0190	24.5102
 2.0180	24.5039
 2.0170	24.2833
 2.0160	24.0965
 2.0150	24.0313
 2.0140	23.9817
 2.0130	23.7704
 2.0120	23.6474
 2.0110	23.4736
 2.0100	23.3630
 2.0090	23.2846
 2.0080	23.1694
 2.0070	23.0233
 2.0060	22.9413
 2.0050	22.8034
 2.0040	22.7230
 2.0030	22.6221
 2.0020	22.5314
 2.0010	22.3653
 2.0000	22.3489
 1.9990	22.2501
 1.9980	22.1495
 1.9970	22.0986
 1.9960	22.1012
 1.9950	21.9653
 1.9940	21.9302
 1.9930	21.8462
 1.9920	21.8509
 1.9910	21.7303
 1.9900	21.6982
 1.9890	21.6444
 1.9880	21.6644
 1.9870	21.6239
 1.9860	21.5624
 1.9850	21.5765
 1.9840	21.5018
 1.9830	21.4901
 1.9820	21.5689
 1.9810	21.6033
 1.9800	21.5963
 1.9790	21.5980
 1.9780	21.6496
 1.9770	21.6218
 1.9760	21.6780
 1.9750	21.6142
 1.9740	21.6854
 1.9730	21.7156
 1.9720	21.8027
 1.9710	21.7028
 1.9700	21.8343
 1.9690	21.7656
 1.9680	21.8787
 1.9670	21.9099
 1.9660	21.9362
 1.9650	21.9745
 1.9640	22.0842
 1.9630	22.0002
 1.9620	22.1702
 1.9610	22.1131
 1.9600	22.2514
 1.9590	22.2682
 1.9580	22.4329
 1.9570	22.3342
 1.9560	22.4786
 1.9550	22.4809
 1.9540	22.6367
 1.9530	22.6142
 1.9520	22.7234
 1.9510	22.8332
 1.9500	22.8362
 1.9490	22.9051
 1.9480	23.1003
 1.9470	23.0790
 1.9460	23.1902
 1.9450	23.3074
 1.9440	23.4631
 1.9430	23.4245
 1.9420	23.7101
 1.9410	23.7212
 1.9400	23.8292
 1.9390	24.0285
 1.9380	24.1107
 1.9370	24.1755
 1.9360	24.4561
 1.9350	24.4714
 1.9340	24.7154
 1.9330	24.7910
 1.9320	24.9982
 1.9310	25.1668
 1.9300	25.3476
 1.9290	25.5780
 1.9280	25.7546
 1.9270	25.8427
 1.9260	25.9516
 1.9250	26.1310
 1.9240	26.3681
 1.9230	26.5589
 1.9220	26.8015
 1.9210	26.9677
 1.9200	27.1238
 1.9190	27.2665
 1.9180	27.6619
 1.9170	27.7337
 1.9160	28.1653
 1.9150	28.1784
 1.9140	28.5243
 1.9130	28.6203
 1.9120	28.9510
 1.9110	29.0526
 1.9100	29.3455
 1.9090	29.4405
 1.9080	29.7646
 1.9070	29.9086
 1.9060	30.1962
 1.9050	30.3502
 1.9040	30.5987
 1.9030	30.7415
 1.9020	30.9865
 1.9010	31.1532
 1.9000	31.4269
 1.8990	31.5680
 1.8980	31.8170
 1.8970	31.9951
 1.8960	32.1494
 1.8950	32.3061
 1.8940	32.5172
 1.8930	32.5724
 1.8920	32.7844
 1.8910	32.8905
 1.8900	33.0476
 1.8890	33.2048
 1.8880	33.3968
 1.8870	33.5329
 1.8860	33.6277
 1.8850	33.7006
 1.8840	33.8508
 1.8830	33.9336
 1.8820	34.0548
 1.8810	34.1830
 1.8800	34.2602
 1.8790	34.2877
 1.8780	34.4440
 1.8770	34.5703
 1.8760	34.6333
 1.8750	34.6284
 1.8740	34.8270
 1.8730	34.7928
 1.8720	34.9109
 1.8710	35.0129
 1.8700	35.1326
 1.8690	35.2787
 1.8680	35.4053
 1.8670	35.4150
 1.8660	35.5181
 1.8650	35.5829
 1.8640	35.6641
 1.8630	35.6896
 1.8620	35.7766
 1.8610	35.8662
 1.8600	35.9409
 1.8590	35.9174
 1.8580	36.0073
 1.8570	36.0156
 1.8560	36.0912
 1.8550	36.1739
 1.8540	36.2051
 1.8530	36.1917
 1.8520	36.3496
 1.8510	36.3594
 1.8500	36.4122
 1.8490	36.4017
 1.8480	36.4645
 1.8470	36.4935
 1.8460	36.5342
 1.8450	36.6025
 1.8440	36.6305
 1.8430	36.6436
 1.8420	36.6306
 1.8410	36.6744
 1.8400	36.7145
 1.8390	36.7351
 1.8380	36.7548
 1.8370	36.7924
 1.8360	36.8077
 1.8350	36.8677
 1.8340	36.9307
 1.8330	36.8916
 1.8320	36.9280
 1.8310	36.9057
 1.8300	36.9271
 1.8290	36.8744
 1.8280	36.9146
 1.8270	36.9819
 1.8260	37.0200
 1.8250	36.9807
 1.8240	36.9649
 1.8230	36.9937
 1.8220	37.0061
 1.8210	36.9915
 1.8200	37.0296
 1.8190	37.0342
 1.8180	37.0380
 1.8170	37.0427
 1.8160	37.0707
 1.8150	37.1064
 1.8140	37.0987
 1.8130	37.1288
 1.8120	37.2157
 1.8110	37.1932
 1.8100	37.2002
 1.8090	37.1706
 1.8080	37.1916
 1.8070	37.2032
 1.8060	37.2627
 1.8050	37.2751
 1.8040	37.2679
 1.8030	37.2930
 1.8020	37.3356
 1.8010	37.3385
 1.8000	37.3764
 1.7990	37.3954
 1.7980	37.4399
 1.7970	37.4655
 1.7960	37.4454
 1.7950	37.4737
 1.7940	37.5465
 1.7930	37.6111
 1.7920	37.6386
 1.7910	37.6390
 1.7900	37.7193
 1.7890	37.7537
 1.7880	37.7842
 1.7870	37.8229
 1.7860	37.8507
 1.7850	37.9036
 1.7840	37.9354
 1.7830	38.0194
 1.7820	38.1356
 1.7810	38.1701
 1.7800	38.2050
 1.7790	38.3023
 1.7780	38.3636
 1.7770	38.4154
 1.7760	38.4736
 1.7750	38.5503
 1.7740	38.6019
 1.7730	38.6598
 1.7720	38.7200
 1.7710	38.7780
 1.7700	38.8146
 1.7690	38.9201
 1.7680	38.9460
 1.7670	39.0142
 1.7660	39.1449
 1.7650	39.2677
 1.7640	39.3017
 1.7630	39.2995
 1.7620	39.3845
 1.7610	39.5043
 1.7600	39.5197
 1.7590	39.6349
 1.7580	39.6865
 1.7570	39.7347
 1.7560	39.7997
 1.7550	39.9497
 1.7540	40.0050
 1.7530	40.0607
 1.7520	40.0562
 1.7510	40.1642
 1.7500	40.2556
 1.7490	40.3359
 1.7480	40.3560
 1.7470	40.5128
 1.7460	40.5068
 1.7450	40.5973
 1.7440	40.7151
 1.7430	40.8186
 1.7420	40.8645
 1.7410	40.9494
 1.7400	41.0466
 1.7390	41.1430
 1.7380	41.1382
 1.7370	41.2426
 1.7360	41.3382
 1.7350	41.3886
 1.7340	41.4563
 1.7330	41.5643
 1.7320	41.6510
 1.7310	41.7060
 1.7300	41.7721
 1.7290	41.8964
 1.7280	41.9627
 1.7270	42.0677
 1.7260	42.0895
 1.7250	42.1070
 1.7240	42.1945
 1.7230	42.2950
 1.7220	42.4180
 1.7210	42.5041
 1.7200	42.5410
 1.7190	42.6504
 1.7180	42.7135
 1.7170	42.8652
 1.7160	42.8793
 1.7150	42.9608
 1.7140	43.0655
 1.7130	43.1397
 1.7120	43.2449
 1.7110	43.3265
 1.7100	43.4411
 1.7090	43.5252
 1.7080	43.5510
 1.7070	43.6956
 1.7060	43.8168
 1.7050	43.9151
 1.7040	43.9310
 1.7030	44.0349
 1.7020	44.2300
 1.7010	44.3566
 1.7000	44.3186
 1.6990	44.4430
 1.6980	44.4934
 1.6970	44.6716
 1.6960	44.6604
 1.6950	44.8552
 1.6940	44.8756
 1.6930	44.9985
 1.6920	45.0823
 1.6910	45.1508
 1.6900	45.3306
 1.6890	45.3686
 1.6880	45.4687
 1.6870	45.5141
 1.6860	45.6322
 1.6850	45.6919
 1.6840	45.7514
 1.6830	45.9296
 1.6820	45.9738
 1.6810	46.1762
 1.6800	46.1921
 1.6790	46.2659
 1.6780	46.3514
 1.6770	46.3640
 1.6760	46.4202
 1.6750	46.5813
 1.6740	46.5663
 1.6730	46.7565
 1.6720	46.7674
 1.6710	46.8951
 1.6700	46.9457
 1.6690	47.0980
 1.6680	47.0609
 1.6670	47.2096
 1.6660	47.2915
 1.6650	47.3009
 1.6640	47.3228
 1.6630	47.3924
 1.6620	47.4671
 1.6610	47.5691
 1.6600	47.5897
 1.6590	47.7436
 1.6580	47.7156
 1.6570	47.7420
 1.6560	47.8459
 1.6550	47.9697
 1.6540	47.9773
 1.6530	48.0453
 1.6520	48.0760
 1.6510	48.1357
 1.6500	48.1645
 1.6490	48.2480
 1.6480	48.2229
 1.6470	48.4219
 1.6460	48.3725
 1.6450	48.3935
 1.6440	48.3817
 1.6430	48.5538
 1.6420	48.5733
 1.6410	48.4872
 1.6400	48.6216
 1.6390	48.7142
 1.6380	48.7217
 1.6370	48.7264
 1.6360	48.7539
 1.6350	48.8765
 1.6340	48.7829
 1.6330	48.8740
 1.6320	48.9792
 1.6310	49.0603
 1.6300	49.0048
 1.6290	49.0933
 1.6280	49.0624
 1.6270	49.1405
 1.6260	49.1593
 1.6250	49.1608
 1.6240	49.2034
 1.6230	49.2436
 1.6220	49.2605
 1.6210	49.3803
 1.6200	49.3317
 1.6190	49.3556
 1.6180	49.3493
 1.6170	49.4631
 1.6160	49.4146
 1.6150	49.4871
 1.6140	49.5013
 1.6130	49.5513
 1.6120	49.5315
 1.6110	49.6210
 1.6100	49.6324
 1.6090	49.6254
 1.6080	49.6531
 1.6070	49.6455
 1.6060	49.6603
 1.6050	49.7313
 1.6040	49.6963
 1.6030	49.7548
 1.6020	49.7217
 1.6010	49.8240
 1.6000	49.7496
 1.5990	49.7719
 1.5980	49.7271
 1.5970	49.8479
 1.5960	49.8377
 1.5950	49.8984
 1.5940	49.8647
 1.5930	49.8205
 1.5920	49.8204
 1.5910	49.8427
 1.5900	49.8370
 1.5890	49.8971
 1.5880	49.8364
 1.5870	49.8498
 1.5860	49.8563
 1.5850	49.8728
 1.5840	49.8513
 1.5830	49.9366
 1.5820	49.9691
 1.5810	49.9026
 1.5800	49.9652
 1.5790	50.0303
 1.5780	49.9843
 1.5770	50.0388
 1.5760	50.0292
 1.5750	50.1037
 1.5740	49.9608
 1.5730	50.0102
 1.5720	50.0068
 1.5710	50.0143
 1.5700	50.0504
 1.5690	50.1566
 1.5680	50.1299
 1.5670	50.0985
 1.5660	50.1559
 1.5650	50.2034
 1.5640	50.1955
 1.5630	50.2481
 1.5620	50.2236
 1.5610	50.2762
 1.5600	50.2886
 1.5590	50.3021
 1.5580	50.3928
 1.5570	50.4117
 1.5560	50.4548
 1.5550	50.5020
 1.5540	50.5927
 1.5530	50.6416
 1.5520	50.6510
 1.5510	50.6952
 1.5500	50.7266
 1.5490	50.8071
 1.5480	50.8876
 1.5470	50.9734
 1.5460	50.9857
 1.5450	51.0682
 1.5440	51.1179
 1.5430	51.2230
 1.5420	51.2920
 1.5410	51.3183
 1.5400	51.3423
 1.5390	51.4495
 1.5380	51.5366
 1.5370	51.6232
 1.5360	51.6466
 1.5350	51.7262
 1.5340	51.7964
 1.5330	51.9015
 1.5320	52.0013
 1.5310	52.0914
 1.5300	52.1289
 1.5290	52.2344
 1.5280	52.3245
 1.5270	52.4075
 1.5260	52.4838
 1.5250	52.5439
 1.5240	52.5947
 1.5230	52.7387
 1.5220	52.8053
 1.5210	52.8930
 1.5200	52.9373
 1.5190	52.9933
 1.5180	53.1001
 1.5170	53.1362
 1.5160	53.2086
 1.5150	53.3118
 1.5140	53.3851
 1.5130	53.4984
 1.5120	53.5292
 1.5110	53.5380
 1.5100	53.5431
 1.5090	53.6150
 1.5080	53.6604
 1.5070	53.7014
 1.5060	53.7495
 1.5050	53.7149
 1.5040	53.7196
 1.5030	53.7962
 1.5020	53.8057
 1.5010	53.7998
 1.5000	53.7913
 1.4990	53.7449
 1.4980	53.7371
 1.4970	53.6952
 1.4960	53.6460
 1.4950	53.6434
 1.4940	53.6042
 1.4930	53.6066
 1.4920	53.5929
 1.4910	53.5176
 1.4900	53.4596
 1.4890	53.3895
 1.4880	53.4283
 1.4870	53.4358
 1.4860	53.4039
 1.4850	53.3604
 1.4840	53.3562
 1.4830	53.3714
 1.4820	53.3638
 1.4810	53.3942
 1.4800	53.4723
 1.4790	53.4695
 1.4780	53.4483
 1.4770	53.4887
 1.4760	53.6611
 1.4750	53.7483
 1.4740	53.8298
 1.4730	53.8901
 1.4720	53.9374
 1.4710	54.0489
 1.4700	54.2372
 1.4690	54.3038
 1.4680	54.4199
 1.4670	54.5725
 1.4660	54.6901
 1.4650	54.8112
 1.4640	55.0103
 1.4630	55.1217
 1.4620	55.2530
 1.4610	55.4277
 1.4600	55.5818
 1.4590	55.7500
 1.4580	56.0061
 1.4570	56.1744
 1.4560	56.3975
 1.4550	56.6102
 1.4540	56.8172
 1.4530	57.0660
 1.4520	57.3390
 1.4510	57.5804
 1.4500	57.8969
 1.4490	58.2049
 1.4480	58.5110
 1.4470	58.7814
 1.4460	59.1835
 1.4450	59.4934
 1.4440	59.8567
 1.4430	60.2416
 1.4420	60.6860
 1.4410	61.0855
 1.4400	61.5014
 1.4390	61.9112
 1.4380	62.3090
 1.4370	62.6379
 1.4360	63.0236
 1.4350	63.4169
 1.4340	63.9284
 1.4330	64.2854
 1.4320	64.7991
 1.4310	65.2131
 1.4300	65.6264
 1.4290	65.9684
 1.4280	66.3834
 1.4270	66.8580
 1.4260	67.2014
 1.4250	67.5581
 1.4240	68.0126
 1.4230	68.3221
 1.4220	68.7314
 1.4210	69.0620
 1.4200	69.4855
 1.4190	69.8030
 1.4180	70.1013
 1.4170	70.4883
 1.4160	70.8220
 1.4150	71.1299
 1.4140	71.3956
 1.4130	71.7279
 1.4120	72.0555
 1.4110	72.3064
 1.4100	72.5460
 1.4090	72.8179
 1.4080	73.0907
 1.4070	73.2954
 1.4060	73.5863
 1.4050	73.7835
 1.4040	74.0434
 1.4030	74.2149
 1.4020	74.3972
 1.4010	74.6311
 1.4000	74.8147
 1.3990	74.9248
 1.3980	75.1257
 1.3970	75.2491
 1.3960	75.4131
 1.3950	75.5351
 1.3940	75.7212
 1.3930	75.7861
 1.3920	75.9449
 1.3910	75.9986
 1.3900	76.0935
 1.3890	76.2467
 1.3880	76.2719
 1.3870	76.3437
 1.3860	76.4595
 1.3850	76.2885
 1.3840	76.4848
 1.3830	76.4625
 1.3820	76.5881
 1.3810	76.7083
 1.3800	76.7279
 1.3790	76.7359
 1.3780	76.8596
 1.3770	76.8854
 1.3760	77.0226
 1.3750	76.9441
 1.3740	77.0297
 1.3730	77.0171
 1.3720	77.0936
 1.3710	77.0843
 1.3700	77.1762
 1.3690	77.1839
 1.3680	77.2369
 1.3670	77.3226
