Name: Fayalite Fe_2SiO_4
Type: Mineral
Class: Silicate
Subclass: Nesosilicate
Particle Size: Coarse
Sample No.: NS-1A
Owner: JPL
Wavelength Range: VSWIR
Origin: None.collected by:  JPL
Collection Date: N/A
Description: Particle size was 125-500um. Original ASTER Spectral Library name was jpl.perkin.mineral.silicate.nesosilicate.coarse.ns01a.spectrum.txt
Measurement: Hemispherical reflectance
First Column: X
Second Column: Y
X Units: Wavelength (micrometers)
Y Units:Reflectance (percent)
First X Value:  2.5000
Last X Value:  0.4000
Number of X Values: 2101
Additional Information: mineral.silicate.nesosilicate.coarse.vswir.ns-1a.jpl.perkin.ancillary.txt

 2.5000	 7.0385
 2.4990	 7.0171
 2.4980	 7.1020
 2.4970	 7.3009
 2.4960	 6.6446
 2.4950	 7.4434
 2.4940	 6.7473
 2.4930	 7.0822
 2.4920	 7.0418
 2.4910	 7.1362
 2.4900	 6.9731
 2.4890	 7.1477
 2.4880	 6.9980
 2.4870	 7.2098
 2.4860	 7.0400
 2.4850	 7.1598
 2.4840	 7.0413
 2.4830	 7.1934
 2.4820	 7.0235
 2.4810	 7.0831
 2.4800	 6.9267
 2.4790	 7.1947
 2.4780	 7.0141
 2.4770	 7.2781
 2.4760	 7.1125
 2.4750	 7.2652
 2.4740	 7.1589
 2.4730	 7.2772
 2.4720	 7.0524
 2.4710	 7.1266
 2.4700	 7.1172
 2.4690	 7.3027
 2.4680	 7.2556
 2.4670	 7.2166
 2.4660	 7.1559
 2.4650	 7.2982
 2.4640	 7.2430
 2.4630	 7.2568
 2.4620	 7.3000
 2.4610	 7.2985
 2.4600	 7.2234
 2.4590	 7.3494
 2.4580	 7.0713
 2.4570	 7.3005
 2.4560	 7.1494
 2.4550	 7.2693
 2.4540	 7.2195
 2.4530	 7.3727
 2.4520	 7.2701
 2.4510	 7.3319
 2.4500	 7.1862
 2.4490	 7.2867
 2.4480	 7.1355
 2.4470	 7.3565
 2.4460	 7.1667
 2.4450	 7.3894
 2.4440	 7.2920
 2.4430	 7.3364
 2.4420	 7.1882
 2.4410	 7.3279
 2.4400	 7.2805
 2.4390	 7.3525
 2.4380	 7.2543
 2.4370	 7.2692
 2.4360	 7.2308
 2.4350	 7.3316
 2.4340	 7.2388
 2.4330	 7.3556
 2.4320	 7.2502
 2.4310	 7.2562
 2.4300	 7.1927
 2.4290	 7.3366
 2.4280	 7.3060
 2.4270	 7.3369
 2.4260	 7.3515
 2.4250	 7.3376
 2.4240	 7.2945
 2.4230	 7.3294
 2.4220	 7.3513
 2.4210	 7.2874
 2.4200	 7.2579
 2.4190	 7.2711
 2.4180	 7.2720
 2.4170	 7.2858
 2.4160	 7.2376
 2.4150	 7.4302
 2.4140	 7.3623
 2.4130	 7.3697
 2.4120	 7.3082
 2.4110	 7.3447
 2.4100	 7.3833
 2.4090	 7.4152
 2.4080	 7.4124
 2.4070	 7.4318
 2.4060	 7.3557
 2.4050	 7.3879
 2.4040	 7.3938
 2.4030	 7.4575
 2.4020	 7.4027
 2.4010	 7.4857
 2.4000	 7.4592
 2.3990	 7.5290
 2.3980	 7.5231
 2.3970	 7.4680
 2.3960	 7.4330
 2.3950	 7.5445
 2.3940	 7.4772
 2.3930	 7.5106
 2.3920	 7.4935
 2.3910	 7.5061
 2.3900	 7.5283
 2.3890	 7.5523
 2.3880	 7.5112
 2.3870	 7.5259
 2.3860	 7.5309
 2.3850	 7.5537
 2.3840	 7.5026
 2.3830	 7.5382
 2.3820	 7.5332
 2.3810	 7.5551
 2.3800	 7.5538
 2.3790	 7.5799
 2.3780	 7.5769
 2.3770	 7.6177
 2.3760	 7.5935
 2.3750	 7.6404
 2.3740	 7.5556
 2.3730	 7.5991
 2.3720	 7.5847
 2.3710	 7.6112
 2.3700	 7.6336
 2.3690	 7.5926
 2.3680	 7.5747
 2.3670	 7.6256
 2.3660	 7.5422
 2.3650	 7.5927
 2.3640	 7.5946
 2.3630	 7.6066
 2.3620	 7.5886
 2.3610	 7.5781
 2.3600	 7.6521
 2.3590	 7.6425
 2.3580	 7.6061
 2.3570	 7.5862
 2.3560	 7.5395
 2.3550	 7.6115
 2.3540	 7.6034
 2.3530	 7.5450
 2.3520	 7.5789
 2.3510	 7.5558
 2.3500	 7.5716
 2.3490	 7.6053
 2.3480	 7.5790
 2.3470	 7.5412
 2.3460	 7.5337
 2.3450	 7.5734
 2.3440	 7.6068
 2.3430	 7.5484
 2.3420	 7.5715
 2.3410	 7.5845
 2.3400	 7.5874
 2.3390	 7.5868
 2.3380	 7.6430
 2.3370	 7.6265
 2.3360	 7.6392
 2.3350	 7.6291
 2.3340	 7.6768
 2.3330	 7.6381
 2.3320	 7.6589
 2.3310	 7.6548
 2.3300	 7.6690
 2.3290	 7.6690
 2.3280	 7.6860
 2.3270	 7.6781
 2.3260	 7.6960
 2.3250	 7.6887
 2.3240	 7.6975
 2.3230	 7.6835
 2.3220	 7.7176
 2.3210	 7.6685
 2.3200	 7.6784
 2.3190	 7.6958
 2.3180	 7.7408
 2.3170	 7.7383
 2.3160	 7.7588
 2.3150	 7.7414
 2.3140	 7.7629
 2.3130	 7.7491
 2.3120	 7.7961
 2.3110	 7.8138
 2.3100	 7.9021
 2.3090	 7.8238
 2.3080	 7.8838
 2.3070	 7.8609
 2.3060	 7.8535
 2.3050	 7.8531
 2.3040	 7.9091
 2.3030	 7.8474
 2.3020	 7.8779
 2.3010	 7.8453
 2.3000	 7.9083
 2.2990	 7.9134
 2.2980	 7.9260
 2.2970	 7.9227
 2.2960	 7.9972
 2.2950	 7.9215
 2.2940	 7.9307
 2.2930	 7.8814
 2.2920	 7.9477
 2.2910	 7.9394
 2.2900	 7.9980
 2.2890	 7.8929
 2.2880	 8.0230
 2.2870	 7.9457
 2.2860	 8.0143
 2.2850	 7.9423
 2.2840	 7.9997
 2.2830	 7.9870
 2.2820	 8.0967
 2.2810	 8.0346
 2.2800	 8.0623
 2.2790	 8.0447
 2.2780	 8.0279
 2.2770	 8.0662
 2.2760	 8.0836
 2.2750	 8.0614
 2.2740	 8.1302
 2.2730	 8.0226
 2.2720	 8.1521
 2.2710	 8.1128
 2.2700	 8.1364
 2.2690	 8.0986
 2.2680	 8.1397
 2.2670	 8.1286
 2.2660	 8.1215
 2.2650	 8.0653
 2.2640	 8.1997
 2.2630	 8.1525
 2.2620	 8.1694
 2.2610	 8.1777
 2.2600	 8.2297
 2.2590	 8.1961
 2.2580	 8.2228
 2.2570	 8.1888
 2.2560	 8.2629
 2.2550	 8.1457
 2.2540	 8.3025
 2.2530	 8.1853
 2.2520	 8.3143
 2.2510	 8.2162
 2.2500	 8.3037
 2.2490	 8.2939
 2.2480	 8.3275
 2.2470	 8.2097
 2.2460	 8.2570
 2.2450	 8.2953
 2.2440	 8.3395
 2.2430	 8.2576
 2.2420	 8.3664
 2.2410	 8.3344
 2.2400	 8.3531
 2.2390	 8.3390
 2.2380	 8.4336
 2.2370	 8.3127
 2.2360	 8.3629
 2.2350	 8.3559
 2.2340	 8.3296
 2.2330	 8.3157
 2.2320	 8.3935
 2.2310	 8.4045
 2.2300	 8.3820
 2.2290	 8.3645
 2.2280	 8.4551
 2.2270	 8.3168
 2.2260	 8.3737
 2.2250	 8.4253
 2.2240	 8.4699
 2.2230	 8.3618
 2.2220	 8.4940
 2.2210	 8.4306
 2.2200	 8.3915
 2.2190	 8.4223
 2.2180	 8.5746
 2.2170	 8.4195
 2.2160	 8.4343
 2.2150	 8.3918
 2.2140	 8.5656
 2.2130	 8.4139
 2.2120	 8.5663
 2.2110	 8.2549
 2.2100	 8.6402
 2.2090	 8.4547
 2.2080	 8.5459
 2.2070	 8.4637
 2.2060	 8.5870
 2.2050	 8.5005
 2.2040	 8.5567
 2.2030	 8.4871
 2.2020	 8.6757
 2.2010	 8.5128
 2.2000	 8.6174
 2.1990	 8.6250
 2.1980	 8.6480
 2.1970	 8.5454
 2.1960	 8.6204
 2.1950	 8.6873
 2.1940	 8.6269
 2.1930	 8.6003
 2.1920	 8.6464
 2.1910	 8.6264
 2.1900	 8.7243
 2.1890	 8.5515
 2.1880	 8.7089
 2.1870	 8.5988
 2.1860	 8.6918
 2.1850	 8.5523
 2.1840	 8.7592
 2.1830	 8.6914
 2.1820	 8.7308
 2.1810	 8.5589
 2.1800	 8.6375
 2.1790	 8.6353
 2.1780	 8.6593
 2.1770	 8.6331
 2.1760	 8.7108
 2.1750	 8.7074
 2.1740	 8.8123
 2.1730	 8.6903
 2.1720	 8.7990
 2.1710	 8.7157
 2.1700	 8.8067
 2.1690	 8.7015
 2.1680	 8.7632
 2.1670	 8.6638
 2.1660	 8.7405
 2.1650	 8.7000
 2.1640	 8.7420
 2.1630	 8.7316
 2.1620	 8.7910
 2.1610	 8.7891
 2.1600	 8.8485
 2.1590	 8.6887
 2.1580	 8.8005
 2.1570	 8.7317
 2.1560	 8.8249
 2.1550	 8.7717
 2.1540	 8.8838
 2.1530	 8.7988
 2.1520	 8.7984
 2.1510	 8.8349
 2.1500	 8.9211
 2.1490	 8.8648
 2.1480	 8.8877
 2.1470	 8.8281
 2.1460	 8.9307
 2.1450	 8.8342
 2.1440	 8.8698
 2.1430	 8.8517
 2.1420	 8.8909
 2.1410	 8.8152
 2.1400	 8.9117
 2.1390	 8.7989
 2.1380	 8.8805
 2.1370	 8.8669
 2.1360	 8.8538
 2.1350	 8.7726
 2.1340	 8.8668
 2.1330	 8.8757
 2.1320	 8.9723
 2.1310	 8.8443
 2.1300	 8.8979
 2.1290	 8.7913
 2.1280	 8.8371
 2.1270	 8.8513
 2.1260	 8.8697
 2.1250	 8.8786
 2.1240	 8.9419
 2.1230	 8.8852
 2.1220	 8.8918
 2.1210	 8.8123
 2.1200	 8.8925
 2.1190	 8.8843
 2.1180	 8.8567
 2.1170	 8.8385
 2.1160	 8.8423
 2.1150	 8.8679
 2.1140	 8.8249
 2.1130	 8.7619
 2.1120	 8.8493
 2.1110	 8.8606
 2.1100	 8.8562
 2.1090	 8.7968
 2.1080	 8.8488
 2.1070	 8.8212
 2.1060	 8.8716
 2.1050	 8.8225
 2.1040	 8.8390
 2.1030	 8.8162
 2.1020	 8.8294
 2.1010	 8.8165
 2.1000	 8.8500
 2.0990	 8.8317
 2.0980	 8.8598
 2.0970	 8.7974
 2.0960	 8.8512
 2.0950	 8.8676
 2.0940	 8.8151
 2.0930	 8.8207
 2.0920	 8.8794
 2.0910	 8.8274
 2.0900	 8.8289
 2.0890	 8.8482
 2.0880	 8.8620
 2.0870	 8.8641
 2.0860	 8.8662
 2.0850	 8.8567
 2.0840	 8.8885
 2.0830	 8.8636
 2.0820	 8.8666
 2.0810	 8.8954
 2.0800	 8.9059
 2.0790	 8.8703
 2.0780	 8.8742
 2.0770	 8.8899
 2.0760	 8.8860
 2.0750	 8.8751
 2.0740	 8.9044
 2.0730	 8.9056
 2.0720	 8.8922
 2.0710	 8.8898
 2.0700	 8.8901
 2.0690	 8.8813
 2.0680	 8.8696
 2.0670	 8.9132
 2.0660	 8.9508
 2.0650	 8.9463
 2.0640	 8.9217
 2.0630	 8.9563
 2.0620	 8.9254
 2.0610	 8.9250
 2.0600	 8.8954
 2.0590	 8.8955
 2.0580	 8.9188
 2.0570	 8.9212
 2.0560	 8.9095
 2.0550	 8.9374
 2.0540	 8.9202
 2.0530	 8.9329
 2.0520	 8.9255
 2.0510	 8.9580
 2.0500	 8.9239
 2.0490	 8.9457
 2.0480	 8.9417
 2.0470	 8.9619
 2.0460	 8.9403
 2.0450	 8.9425
 2.0440	 8.9789
 2.0430	 8.9494
 2.0420	 8.9068
 2.0410	 8.9483
 2.0400	 8.9565
 2.0390	 8.9962
 2.0380	 8.9607
 2.0370	 8.9936
 2.0360	 8.9501
 2.0350	 8.9419
 2.0340	 8.9334
 2.0330	 8.9700
 2.0320	 8.9729
 2.0310	 8.9558
 2.0300	 8.9493
 2.0290	 8.9925
 2.0280	 8.9571
 2.0270	 8.9888
 2.0260	 8.9087
 2.0250	 8.9072
 2.0240	 8.9382
 2.0230	 9.0221
 2.0220	 8.9700
 2.0210	 8.9751
 2.0200	 8.9566
 2.0190	 8.9813
 2.0180	 8.9764
 2.0170	 8.9984
 2.0160	 8.9280
 2.0150	 8.9907
 2.0140	 8.9790
 2.0130	 8.9842
 2.0120	 8.9173
 2.0110	 8.9832
 2.0100	 8.9505
 2.0090	 9.0157
 2.0080	 8.9203
 2.0070	 9.0044
 2.0060	 8.9505
 2.0050	 9.0277
 2.0040	 8.9768
 2.0030	 8.9972
 2.0020	 8.9387
 2.0010	 8.9988
 2.0000	 8.9823
 1.9990	 8.9904
 1.9980	 8.9961
 1.9970	 8.9876
 1.9960	 8.9342
 1.9950	 9.0322
 1.9940	 8.9700
 1.9930	 8.9577
 1.9920	 8.9392
 1.9910	 9.0255
 1.9900	 8.9312
 1.9890	 8.9756
 1.9880	 8.8754
 1.9870	 9.0113
 1.9860	 8.9166
 1.9850	 8.9186
 1.9840	 8.9538
 1.9830	 8.9815
 1.9820	 8.9558
 1.9810	 8.9950
 1.9800	 8.9068
 1.9790	 9.0180
 1.9780	 8.9641
 1.9770	 8.9900
 1.9760	 8.9259
 1.9750	 8.9559
 1.9740	 8.9369
 1.9730	 8.9957
 1.9720	 8.9394
 1.9710	 9.0014
 1.9700	 8.9547
 1.9690	 9.0205
 1.9680	 8.9222
 1.9670	 9.0153
 1.9660	 8.9333
 1.9650	 8.9897
 1.9640	 8.9216
 1.9630	 8.9431
 1.9620	 8.9156
 1.9610	 9.0052
 1.9600	 8.9422
 1.9590	 8.9848
 1.9580	 8.9634
 1.9570	 9.0132
 1.9560	 8.9674
 1.9550	 9.0166
 1.9540	 8.8938
 1.9530	 9.0086
 1.9520	 8.9117
 1.9510	 8.9705
 1.9500	 9.0166
 1.9490	 9.0787
 1.9480	 8.9447
 1.9470	 8.9992
 1.9460	 8.8947
 1.9450	 9.0033
 1.9440	 8.8944
 1.9430	 9.0197
 1.9420	 8.9583
 1.9410	 9.0208
 1.9400	 8.9020
 1.9390	 8.9970
 1.9380	 8.9542
 1.9370	 8.9264
 1.9360	 8.9006
 1.9350	 8.9639
 1.9340	 8.9274
 1.9330	 8.9992
 1.9320	 8.9346
 1.9310	 9.0348
 1.9300	 8.8978
 1.9290	 8.9695
 1.9280	 8.8880
 1.9270	 9.0757
 1.9260	 8.8177
 1.9250	 9.0192
 1.9240	 8.8757
 1.9230	 8.9915
 1.9220	 8.9255
 1.9210	 8.9898
 1.9200	 8.9095
 1.9190	 9.0636
 1.9180	 8.9693
 1.9170	 8.9837
 1.9160	 8.9224
 1.9150	 9.0730
 1.9140	 8.8159
 1.9130	 8.9709
 1.9120	 8.9694
 1.9110	 8.9850
 1.9100	 8.8547
 1.9090	 9.0709
 1.9080	 9.0176
 1.9070	 9.0059
 1.9060	 8.8822
 1.9050	 8.9461
 1.9040	 8.9014
 1.9030	 9.0493
 1.9020	 8.9966
 1.9010	 9.0206
 1.9000	 8.9394
 1.8990	 9.0767
 1.8980	 8.9396
 1.8970	 9.0746
 1.8960	 9.0495
 1.8950	 9.1057
 1.8940	 8.9799
 1.8930	 9.0043
 1.8920	 9.0246
 1.8910	 9.0389
 1.8900	 9.0272
 1.8890	 9.1144
 1.8880	 9.0039
 1.8870	 9.0718
 1.8860	 9.0400
 1.8850	 9.0763
 1.8840	 9.0057
 1.8830	 9.0302
 1.8820	 9.0280
 1.8810	 9.0931
 1.8800	 8.9243
 1.8790	 9.1108
 1.8780	 9.0074
 1.8770	 9.1294
 1.8760	 9.0532
 1.8750	 9.1139
 1.8740	 8.9851
 1.8730	 9.0762
 1.8720	 8.9753
 1.8710	 9.0118
 1.8700	 9.0373
 1.8690	 9.0855
 1.8680	 8.9782
 1.8670	 9.0804
 1.8660	 9.0281
 1.8650	 9.1162
 1.8640	 9.0360
 1.8630	 9.0943
 1.8620	 8.9694
 1.8610	 9.0429
 1.8600	 8.9945
 1.8590	 9.0404
 1.8580	 8.9776
 1.8570	 9.0427
 1.8560	 8.9790
 1.8550	 9.0925
 1.8540	 9.0225
 1.8530	 9.0081
 1.8520	 9.0296
 1.8510	 9.0489
 1.8500	 8.9942
 1.8490	 9.0508
 1.8480	 9.0037
 1.8470	 9.0001
 1.8460	 9.0026
 1.8450	 9.0523
 1.8440	 9.0120
 1.8430	 9.0416
 1.8420	 9.0259
 1.8410	 8.9813
 1.8400	 9.0157
 1.8390	 9.0554
 1.8380	 8.9890
 1.8370	 9.0340
 1.8360	 8.9677
 1.8350	 9.0348
 1.8340	 8.9960
 1.8330	 8.9981
 1.8320	 8.9318
 1.8310	 8.9500
 1.8300	 8.9563
 1.8290	 9.0200
 1.8280	 8.9588
 1.8270	 8.9908
 1.8260	 8.9884
 1.8250	 8.9953
 1.8240	 8.9619
 1.8230	 8.9994
 1.8220	 8.9022
 1.8210	 8.9064
 1.8200	 8.9096
 1.8190	 8.9484
 1.8180	 8.9020
 1.8170	 8.9550
 1.8160	 8.9332
 1.8150	 8.9529
 1.8140	 8.9413
 1.8130	 8.9271
 1.8120	 8.8344
 1.8110	 8.9030
 1.8100	 8.8813
 1.8090	 8.8733
 1.8080	 8.8558
 1.8070	 8.9033
 1.8060	 8.9269
 1.8050	 8.9029
 1.8040	 8.8506
 1.8030	 8.8775
 1.8020	 8.8860
 1.8010	 8.8531
 1.8000	 8.8427
 1.7990	 8.8680
 1.7980	 8.8865
 1.7970	 8.8860
 1.7960	 8.8775
 1.7950	 8.8506
 1.7940	 8.7984
 1.7930	 8.8136
 1.7920	 8.8468
 1.7910	 8.8711
 1.7900	 8.8712
 1.7890	 8.8491
 1.7880	 8.7916
 1.7870	 8.8329
 1.7860	 8.8186
 1.7850	 8.7941
 1.7840	 8.8398
 1.7830	 8.8347
 1.7820	 8.7998
 1.7810	 8.7532
 1.7800	 8.7680
 1.7790	 8.8030
 1.7780	 8.8056
 1.7770	 8.7535
 1.7760	 8.7486
 1.7750	 8.7427
 1.7740	 8.7724
 1.7730	 8.7842
 1.7720	 8.7814
 1.7710	 8.7508
 1.7700	 8.7446
 1.7690	 8.7038
 1.7680	 8.6937
 1.7670	 8.6736
 1.7660	 8.6984
 1.7650	 8.7513
 1.7640	 8.7839
 1.7630	 8.7572
 1.7620	 8.7613
 1.7610	 8.6993
 1.7600	 8.6921
 1.7590	 8.6218
 1.7580	 8.6548
 1.7570	 8.6578
 1.7560	 8.6248
 1.7550	 8.5889
 1.7540	 8.6593
 1.7530	 8.7126
 1.7520	 8.7218
 1.7510	 8.6297
 1.7500	 8.6609
 1.7490	 8.6197
 1.7480	 8.6208
 1.7470	 8.5886
 1.7460	 8.6274
 1.7450	 8.6036
 1.7440	 8.6448
 1.7430	 8.5848
 1.7420	 8.5852
 1.7410	 8.5659
 1.7400	 8.5904
 1.7390	 8.5502
 1.7380	 8.5380
 1.7370	 8.5594
 1.7360	 8.6388
 1.7350	 8.5403
 1.7340	 8.6200
 1.7330	 8.5821
 1.7320	 8.5601
 1.7310	 8.5197
 1.7300	 8.5558
 1.7290	 8.5123
 1.7280	 8.5632
 1.7270	 8.4722
 1.7260	 8.5147
 1.7250	 8.4738
 1.7240	 8.5226
 1.7230	 8.4884
 1.7220	 8.5177
 1.7210	 8.3858
 1.7200	 8.4570
 1.7190	 8.5061
 1.7180	 8.5146
 1.7170	 8.4123
 1.7160	 8.4021
 1.7150	 8.3337
 1.7140	 8.4434
 1.7130	 8.4072
 1.7120	 8.4555
 1.7110	 8.3578
 1.7100	 8.3442
 1.7090	 8.3540
 1.7080	 8.3763
 1.7070	 8.2700
 1.7060	 8.4063
 1.7050	 8.3025
 1.7040	 8.4263
 1.7030	 8.3175
 1.7020	 8.3088
 1.7010	 8.3048
 1.7000	 8.3409
 1.6990	 8.2925
 1.6980	 8.3419
 1.6970	 8.2297
 1.6960	 8.3016
 1.6950	 8.2359
 1.6940	 8.3293
 1.6930	 8.1868
 1.6920	 8.2850
 1.6910	 8.2565
 1.6900	 8.2749
 1.6890	 8.1793
 1.6880	 8.2413
 1.6870	 8.1216
 1.6860	 8.2209
 1.6850	 8.1361
 1.6840	 8.1795
 1.6830	 8.1208
 1.6820	 8.2388
 1.6810	 8.0848
 1.6800	 8.2516
 1.6790	 8.1115
 1.6780	 8.1523
 1.6770	 8.0320
 1.6760	 8.2044
 1.6750	 8.0478
 1.6740	 8.1115
 1.6730	 8.0491
 1.6720	 8.0882
 1.6710	 7.9936
 1.6700	 8.1478
 1.6690	 8.2092
 1.6680	 7.8799
 1.6670	 8.0086
 1.6660	 8.0823
 1.6650	 7.9836
 1.6640	 7.9759
 1.6630	 7.9544
 1.6620	 8.0262
 1.6610	 7.8745
 1.6600	 8.0875
 1.6590	 7.8346
 1.6580	 8.0430
 1.6570	 7.9199
 1.6560	 7.9105
 1.6550	 7.8683
 1.6540	 7.9693
 1.6530	 7.8816
 1.6520	 7.9538
 1.6510	 7.8237
 1.6500	 7.9042
 1.6490	 7.7775
 1.6480	 7.9437
 1.6470	 7.8047
 1.6460	 7.9044
 1.6450	 7.7340
 1.6440	 7.8773
 1.6430	 7.7178
 1.6420	 7.9253
 1.6410	 7.6246
 1.6400	 7.8849
 1.6390	 7.7435
 1.6380	 7.8067
 1.6370	 7.6959
 1.6360	 7.7416
 1.6350	 7.6984
 1.6340	 7.7804
 1.6330	 7.6972
 1.6320	 7.7650
 1.6310	 7.6255
 1.6300	 7.7358
 1.6290	 7.6106
 1.6280	 7.7609
 1.6270	 7.6368
 1.6260	 7.7782
 1.6250	 7.5324
 1.6240	 7.6468
 1.6230	 7.6094
 1.6220	 7.7122
 1.6210	 7.5589
 1.6200	 7.6528
 1.6190	 7.5056
 1.6180	 7.6105
 1.6170	 7.5313
 1.6160	 7.6366
 1.6150	 7.5092
 1.6140	 7.5104
 1.6130	 7.5596
 1.6120	 7.5340
 1.6110	 7.4298
 1.6100	 7.6005
 1.6090	 7.5250
 1.6080	 7.5750
 1.6070	 7.4212
 1.6060	 7.4840
 1.6050	 7.4486
 1.6040	 7.4926
 1.6030	 7.4029
 1.6020	 7.4260
 1.6010	 7.2956
 1.6000	 7.4062
 1.5990	 7.3614
 1.5980	 7.4530
 1.5970	 7.3817
 1.5960	 7.4003
 1.5950	 7.3649
 1.5940	 7.4375
 1.5930	 7.2868
 1.5920	 7.4019
 1.5910	 7.3372
 1.5900	 7.3948
 1.5890	 7.2584
 1.5880	 7.2965
 1.5870	 7.2507
 1.5860	 7.3217
 1.5850	 7.3008
 1.5840	 7.3977
 1.5830	 7.2690
 1.5820	 7.2696
 1.5810	 7.1970
 1.5800	 7.2262
 1.5790	 7.1784
 1.5780	 7.2122
 1.5770	 7.1486
 1.5760	 7.2584
 1.5750	 7.1505
 1.5740	 7.2229
 1.5730	 7.1116
 1.5720	 7.2033
 1.5710	 7.1903
 1.5700	 7.2028
 1.5690	 7.1009
 1.5680	 7.1394
 1.5670	 7.0877
 1.5660	 7.1668
 1.5650	 7.0769
 1.5640	 7.1313
 1.5630	 7.0459
 1.5620	 7.0837
 1.5610	 7.0486
 1.5600	 7.0657
 1.5590	 6.9858
 1.5580	 7.0434
 1.5570	 6.9888
 1.5560	 7.0075
 1.5550	 6.9851
 1.5540	 7.0406
 1.5530	 6.9466
 1.5520	 6.9515
 1.5510	 6.9097
 1.5500	 6.9663
 1.5490	 6.9294
 1.5480	 6.9600
 1.5470	 6.9012
 1.5460	 6.9497
 1.5450	 6.8976
 1.5440	 6.8678
 1.5430	 6.8641
 1.5420	 6.8730
 1.5410	 6.8148
 1.5400	 6.8491
 1.5390	 6.8118
 1.5380	 6.8261
 1.5370	 6.7875
 1.5360	 6.8442
 1.5350	 6.8299
 1.5340	 6.8502
 1.5330	 6.7819
 1.5320	 6.8019
 1.5310	 6.7585
 1.5300	 6.7736
 1.5290	 6.7626
 1.5280	 6.7798
 1.5270	 6.7454
 1.5260	 6.7837
 1.5250	 6.7545
 1.5240	 6.7701
 1.5230	 6.7432
 1.5220	 6.7177
 1.5210	 6.6685
 1.5200	 6.6644
 1.5190	 6.6763
 1.5180	 6.7243
 1.5170	 6.6537
 1.5160	 6.6631
 1.5150	 6.6064
 1.5140	 6.5930
 1.5130	 6.6051
 1.5120	 6.6112
 1.5110	 6.5828
 1.5100	 6.6394
 1.5090	 6.5974
 1.5080	 6.5655
 1.5070	 6.5729
 1.5060	 6.5641
 1.5050	 6.5781
 1.5040	 6.5914
 1.5030	 6.5399
 1.5020	 6.5486
 1.5010	 6.5530
 1.5000	 6.5150
 1.4990	 6.5270
 1.4980	 6.5588
 1.4970	 6.4907
 1.4960	 6.4593
 1.4950	 6.4637
 1.4940	 6.4542
 1.4930	 6.4699
 1.4920	 6.4253
 1.4910	 6.4742
 1.4900	 6.4282
 1.4890	 6.4210
 1.4880	 6.4377
 1.4870	 6.4584
 1.4860	 6.4130
 1.4850	 6.3716
 1.4840	 6.3650
 1.4830	 6.3549
 1.4820	 6.3553
 1.4810	 6.3619
 1.4800	 6.3774
 1.4790	 6.4110
 1.4780	 6.3868
 1.4770	 6.3212
 1.4760	 6.3083
 1.4750	 6.3656
 1.4740	 6.2990
 1.4730	 6.3097
 1.4720	 6.2855
 1.4710	 6.2884
 1.4700	 6.2621
 1.4690	 6.2672
 1.4680	 6.2893
 1.4670	 6.2982
 1.4660	 6.2430
 1.4650	 6.2589
 1.4640	 6.2802
 1.4630	 6.2970
 1.4620	 6.2265
 1.4610	 6.2084
 1.4600	 6.1756
 1.4590	 6.2888
 1.4580	 6.1325
 1.4570	 6.1918
 1.4560	 6.1496
 1.4550	 6.2037
 1.4540	 6.1319
 1.4530	 6.1563
 1.4520	 6.1292
 1.4510	 6.1965
 1.4500	 6.1491
 1.4490	 6.1947
 1.4480	 6.1773
 1.4470	 6.2178
 1.4460	 6.1515
 1.4450	 6.0980
 1.4440	 6.1352
 1.4430	 6.0653
 1.4420	 6.0717
 1.4410	 6.1431
 1.4400	 6.0094
 1.4390	 6.0368
 1.4380	 6.0084
 1.4370	 6.0592
 1.4360	 5.9870
 1.4350	 6.0288
 1.4340	 5.9218
 1.4330	 6.0293
 1.4320	 5.9971
 1.4310	 6.0258
 1.4300	 5.9410
 1.4290	 6.0095
 1.4280	 5.9645
 1.4270	 6.0161
 1.4260	 5.9278
 1.4250	 5.9930
 1.4240	 5.9173
 1.4230	 5.9810
 1.4220	 5.9231
 1.4210	 5.9912
 1.4200	 5.8624
 1.4190	 5.7629
 1.4180	 5.5912
 1.4170	 5.5287
 1.4160	 5.3796
 1.4150	 5.6064
 1.4140	 5.5838
 1.4130	 5.8833
 1.4120	 5.8559
 1.4110	 5.9144
 1.4100	 5.8816
 1.4090	 5.9645
 1.4080	 5.8788
 1.4070	 5.9313
 1.4060	 5.7936
 1.4050	 5.8701
 1.4040	 5.8176
 1.4030	 5.9435
 1.4020	 5.8788
 1.4010	 5.8907
 1.4000	 5.7629
 1.3990	 5.8686
 1.3980	 5.8406
 1.3970	 5.9703
 1.3960	 5.7989
 1.3950	 5.8826
 1.3940	 5.7446
 1.3930	 5.8107
 1.3920	 5.7770
 1.3910	 5.9030
 1.3900	 5.7888
 1.3890	 5.8129
 1.3880	 5.8073
 1.3870	 5.7422
 1.3860	 5.8200
 1.3850	 5.8202
 1.3840	 5.7763
 1.3830	 5.7725
 1.3820	 5.6071
 1.3810	 5.7677
 1.3800	 5.6998
 1.3790	 5.8984
 1.3780	 5.6845
 1.3770	 5.8144
 1.3760	 5.6621
 1.3750	 5.8006
 1.3740	 5.6883
 1.3730	 5.7527
 1.3720	 5.6547
 1.3710	 5.7569
 1.3700	 5.5345
 1.3690	 5.7360
 1.3680	 5.5783
 1.3670	 5.6809
 1.3660	 5.6190
 1.3650	 5.7525
