Name: Glaucophane Na_2(Mg,Fe^2+)_3Al_2Si_8O_22(OH)_2
Type: Mineral
Class: Silicate
Subclass: Inosilicate
Particle Size: Coarse
Sample No.: IN-3A
Owner: JPL
Wavelength Range: VSWIR
Origin: USA, California.
Collection Date: N/A
Description: Particle size was 125-500um. Collected by:  Ward's Original ASTER Spectral Library name was jpl.perkin.mineral.silicate.inosilicate.coarse.in03a.spectrum.txt
Measurement: Hemispherical reflectance
First Column: X
Second Column: Y
X Units: Wavelength (micrometers)
Y Units:Reflectance (percent)
First X Value:  2.5000
Last X Value:  0.4000
Number of X Values: 2101
Additional Information: mineral.silicate.inosilicate.coarse.vswir.in-3a.jpl.perkin.ancillary.txt

 2.5000	20.6098
 2.4990	20.3464
 2.4980	20.4734
 2.4970	20.6092
 2.4960	20.2344
 2.4950	20.6379
 2.4940	20.4343
 2.4930	20.4511
 2.4920	20.7975
 2.4910	20.4889
 2.4900	20.7806
 2.4890	20.5598
 2.4880	20.9003
 2.4870	20.5930
 2.4860	20.7832
 2.4850	20.7267
 2.4840	21.0997
 2.4830	20.6877
 2.4820	21.1677
 2.4810	20.8692
 2.4800	20.9624
 2.4790	20.9408
 2.4780	21.1272
 2.4770	21.0267
 2.4760	21.2656
 2.4750	21.0962
 2.4740	21.1765
 2.4730	21.1297
 2.4720	21.3314
 2.4710	21.2840
 2.4700	21.4231
 2.4690	21.4663
 2.4680	21.6139
 2.4670	21.5352
 2.4660	21.7816
 2.4650	21.7206
 2.4640	21.8344
 2.4630	21.8811
 2.4620	22.0653
 2.4610	22.0593
 2.4600	22.1224
 2.4590	22.1142
 2.4580	22.3658
 2.4570	22.1958
 2.4560	22.4201
 2.4550	22.4473
 2.4540	22.5067
 2.4530	22.5630
 2.4520	22.7753
 2.4510	22.7547
 2.4500	22.9968
 2.4490	22.9226
 2.4480	23.2041
 2.4470	23.0349
 2.4460	23.1638
 2.4450	23.2583
 2.4440	23.4503
 2.4430	23.3585
 2.4420	23.4608
 2.4410	23.4916
 2.4400	23.6251
 2.4390	23.5570
 2.4380	23.6494
 2.4370	23.6266
 2.4360	23.6206
 2.4350	23.6476
 2.4340	23.8041
 2.4330	23.6704
 2.4320	23.7559
 2.4310	23.7097
 2.4300	23.7294
 2.4290	23.7069
 2.4280	23.7598
 2.4270	23.6949
 2.4260	23.7871
 2.4250	23.6146
 2.4240	23.6597
 2.4230	23.6124
 2.4220	23.6238
 2.4210	23.4804
 2.4200	23.5056
 2.4190	23.3284
 2.4180	23.4216
 2.4170	23.3153
 2.4160	23.2687
 2.4150	23.0814
 2.4140	23.0885
 2.4130	22.9258
 2.4120	22.8933
 2.4110	22.7142
 2.4100	22.6940
 2.4090	22.5811
 2.4080	22.4890
 2.4070	22.3371
 2.4060	22.2903
 2.4050	22.1459
 2.4040	22.0642
 2.4030	21.8642
 2.4020	21.9067
 2.4010	21.7815
 2.4000	21.6813
 2.3990	21.5996
 2.3980	21.5973
 2.3970	21.4297
 2.3960	21.2942
 2.3950	21.1489
 2.3940	21.1176
 2.3930	21.0845
 2.3920	21.0175
 2.3910	20.8808
 2.3900	20.8727
 2.3890	20.7729
 2.3880	20.7023
 2.3870	20.6703
 2.3860	20.6589
 2.3850	20.6435
 2.3840	20.6466
 2.3830	20.6189
 2.3820	20.6492
 2.3810	20.6295
 2.3800	20.6270
 2.3790	20.5683
 2.3780	20.5983
 2.3770	20.5864
 2.3760	20.5965
 2.3750	20.6467
 2.3740	20.5935
 2.3730	20.5465
 2.3720	20.6302
 2.3710	20.6135
 2.3700	20.6320
 2.3690	20.6150
 2.3680	20.5285
 2.3670	20.4949
 2.3660	20.4839
 2.3650	20.4183
 2.3640	20.3251
 2.3630	20.2455
 2.3620	20.1774
 2.3610	20.1167
 2.3600	20.0422
 2.3590	19.9351
 2.3580	19.8094
 2.3570	19.6894
 2.3560	19.5691
 2.3550	19.4707
 2.3540	19.3444
 2.3530	19.1394
 2.3520	18.9948
 2.3510	18.8709
 2.3500	18.6606
 2.3490	18.4880
 2.3480	18.2893
 2.3470	18.1262
 2.3460	17.9577
 2.3450	17.7396
 2.3440	17.5304
 2.3430	17.3671
 2.3420	17.2031
 2.3410	17.0054
 2.3400	16.7718
 2.3390	16.5817
 2.3380	16.4798
 2.3370	16.3101
 2.3360	16.0709
 2.3350	15.8973
 2.3340	15.7270
 2.3330	15.5847
 2.3320	15.4411
 2.3310	15.3360
 2.3300	15.1792
 2.3290	15.0988
 2.3280	14.9727
 2.3270	14.8989
 2.3260	14.8227
 2.3250	14.7061
 2.3240	14.6074
 2.3230	14.6285
 2.3220	14.5360
 2.3210	14.5140
 2.3200	14.4686
 2.3190	14.4451
 2.3180	14.4051
 2.3170	14.4932
 2.3160	14.4618
 2.3150	14.4864
 2.3140	14.5484
 2.3130	14.5438
 2.3120	14.6273
 2.3110	14.7654
 2.3100	14.7310
 2.3090	14.9376
 2.3080	15.0069
 2.3070	15.1626
 2.3060	15.2795
 2.3050	15.4381
 2.3040	15.6056
 2.3030	15.8355
 2.3020	16.0462
 2.3010	16.3095
 2.3000	16.5114
 2.2990	16.8174
 2.2980	16.9766
 2.2970	17.2818
 2.2960	17.5460
 2.2950	17.7873
 2.2940	18.0616
 2.2930	18.3714
 2.2920	18.5355
 2.2910	18.8589
 2.2900	19.0958
 2.2890	19.3925
 2.2880	19.6299
 2.2870	19.9534
 2.2860	20.1041
 2.2850	20.3614
 2.2840	20.5597
 2.2830	20.7942
 2.2820	20.9266
 2.2810	21.2049
 2.2800	21.3789
 2.2790	21.5690
 2.2780	21.7273
 2.2770	21.9564
 2.2760	22.0687
 2.2750	22.2380
 2.2740	22.3896
 2.2730	22.5911
 2.2720	22.6599
 2.2710	22.8357
 2.2700	22.9654
 2.2690	23.1292
 2.2680	23.1723
 2.2670	23.2513
 2.2660	23.3768
 2.2650	23.4501
 2.2640	23.5218
 2.2630	23.6435
 2.2620	23.6827
 2.2610	23.7722
 2.2600	23.7634
 2.2590	23.9096
 2.2580	23.9349
 2.2570	24.0753
 2.2560	24.1365
 2.2550	24.3289
 2.2540	24.3355
 2.2530	24.5305
 2.2520	24.5861
 2.2510	24.8115
 2.2500	24.9512
 2.2490	25.1274
 2.2480	25.3315
 2.2470	25.5260
 2.2460	25.6748
 2.2450	25.9347
 2.2440	26.1027
 2.2430	26.4015
 2.2420	26.5823
 2.2410	26.8696
 2.2400	27.0339
 2.2390	27.2936
 2.2380	27.5097
 2.2370	27.8371
 2.2360	28.0034
 2.2350	28.3400
 2.2340	28.4649
 2.2330	28.6734
 2.2320	28.9014
 2.2310	29.0939
 2.2300	29.3250
 2.2290	29.5278
 2.2280	29.6280
 2.2270	29.9427
 2.2260	30.0184
 2.2250	30.2425
 2.2240	30.3468
 2.2230	30.5683
 2.2220	30.5620
 2.2210	30.9485
 2.2200	30.8859
 2.2190	31.1608
 2.2180	31.1873
 2.2170	31.4556
 2.2160	31.4076
 2.2150	31.5360
 2.2140	31.6989
 2.2130	31.7502
 2.2120	31.8917
 2.2110	31.8297
 2.2100	31.9729
 2.2090	32.0339
 2.2080	32.1026
 2.2070	32.1947
 2.2060	32.1842
 2.2050	32.3112
 2.2040	32.2328
 2.2030	32.4010
 2.2020	32.4321
 2.2010	32.5393
 2.2000	32.4995
 2.1990	32.6144
 2.1980	32.6955
 2.1970	32.7882
 2.1960	32.7451
 2.1950	32.9087
 2.1940	32.8611
 2.1930	33.0333
 2.1920	32.9921
 2.1910	33.1074
 2.1900	33.1485
 2.1890	33.1977
 2.1880	33.2378
 2.1870	33.3358
 2.1860	33.3083
 2.1850	33.5501
 2.1840	33.4742
 2.1830	33.5689
 2.1820	33.5309
 2.1810	33.6883
 2.1800	33.6125
 2.1790	33.7577
 2.1780	33.7756
 2.1770	33.9009
 2.1760	33.8007
 2.1750	33.9248
 2.1740	33.9519
 2.1730	34.0670
 2.1720	34.0304
 2.1710	34.2474
 2.1700	34.2318
 2.1690	34.3223
 2.1680	34.3397
 2.1670	34.4223
 2.1660	34.4483
 2.1650	34.6557
 2.1640	34.6682
 2.1630	34.7944
 2.1620	34.8896
 2.1610	34.9643
 2.1600	34.9583
 2.1590	35.1082
 2.1580	35.1751
 2.1570	35.3351
 2.1560	35.4081
 2.1550	35.5392
 2.1540	35.4893
 2.1530	35.6814
 2.1520	35.7428
 2.1510	35.9035
 2.1500	35.9032
 2.1490	36.0318
 2.1480	36.0594
 2.1470	36.0766
 2.1460	36.1652
 2.1450	36.3120
 2.1440	36.2907
 2.1430	36.4203
 2.1420	36.3592
 2.1410	36.4004
 2.1400	36.4612
 2.1390	36.5173
 2.1380	36.5192
 2.1370	36.5335
 2.1360	36.5478
 2.1350	36.6164
 2.1340	36.5869
 2.1330	36.5733
 2.1320	36.5566
 2.1310	36.6100
 2.1300	36.5927
 2.1290	36.6378
 2.1280	36.6119
 2.1270	36.6081
 2.1260	36.6189
 2.1250	36.6646
 2.1240	36.6474
 2.1230	36.6317
 2.1220	36.6276
 2.1210	36.7292
 2.1200	36.6914
 2.1190	36.6940
 2.1180	36.6938
 2.1170	36.7128
 2.1160	36.7364
 2.1150	36.7752
 2.1140	36.7683
 2.1130	36.8003
 2.1120	36.7968
 2.1110	36.8386
 2.1100	36.8321
 2.1090	36.8903
 2.1080	36.8664
 2.1070	36.8755
 2.1060	36.8946
 2.1050	36.9308
 2.1040	36.9375
 2.1030	36.9688
 2.1020	36.9697
 2.1010	37.0288
 2.1000	37.0091
 2.0990	37.0280
 2.0980	37.0658
 2.0970	37.0958
 2.0960	37.1102
 2.0950	37.1352
 2.0940	37.1271
 2.0930	37.1751
 2.0920	37.2031
 2.0910	37.2459
 2.0900	37.2481
 2.0890	37.2536
 2.0880	37.2248
 2.0870	37.2388
 2.0860	37.3217
 2.0850	37.3107
 2.0840	37.2327
 2.0830	37.2705
 2.0820	37.2896
 2.0810	37.2670
 2.0800	37.2572
 2.0790	37.2621
 2.0780	37.2798
 2.0770	37.2628
 2.0760	37.2434
 2.0750	37.2610
 2.0740	37.2661
 2.0730	37.2453
 2.0720	37.1935
 2.0710	37.2510
 2.0700	37.2591
 2.0690	37.2040
 2.0680	37.1812
 2.0670	37.1668
 2.0660	37.1362
 2.0650	37.1141
 2.0640	37.1014
 2.0630	37.0911
 2.0620	37.1193
 2.0610	37.0787
 2.0600	37.0298
 2.0590	36.9992
 2.0580	37.0308
 2.0570	36.9995
 2.0560	36.9501
 2.0550	36.9553
 2.0540	36.9900
 2.0530	36.9523
 2.0520	36.9152
 2.0510	36.8385
 2.0500	36.8216
 2.0490	36.8576
 2.0480	36.7861
 2.0470	36.7472
 2.0460	36.7599
 2.0450	36.7502
 2.0440	36.7343
 2.0430	36.7260
 2.0420	36.7038
 2.0410	36.6554
 2.0400	36.5881
 2.0390	36.5522
 2.0380	36.6128
 2.0370	36.5462
 2.0360	36.5179
 2.0350	36.4516
 2.0340	36.4457
 2.0330	36.4180
 2.0320	36.4108
 2.0310	36.3773
 2.0300	36.3717
 2.0290	36.2653
 2.0280	36.2786
 2.0270	36.2091
 2.0260	36.2008
 2.0250	36.1485
 2.0240	36.1080
 2.0230	35.9771
 2.0220	35.9496
 2.0210	35.9195
 2.0200	35.9325
 2.0190	35.8352
 2.0180	35.8714
 2.0170	35.8528
 2.0160	35.7768
 2.0150	35.7389
 2.0140	35.6987
 2.0130	35.6765
 2.0120	35.7065
 2.0110	35.6648
 2.0100	35.6262
 2.0090	35.5986
 2.0080	35.5832
 2.0070	35.5816
 2.0060	35.5355
 2.0050	35.5223
 2.0040	35.5486
 2.0030	35.4843
 2.0020	35.4605
 2.0010	35.4088
 2.0000	35.4840
 1.9990	35.3742
 1.9980	35.3689
 1.9970	35.3629
 1.9960	35.4149
 1.9950	35.3126
 1.9940	35.3076
 1.9930	35.3230
 1.9920	35.3292
 1.9910	35.2778
 1.9900	35.3136
 1.9890	35.1980
 1.9880	35.2761
 1.9870	35.1647
 1.9860	35.2314
 1.9850	35.2099
 1.9840	35.2402
 1.9830	35.1271
 1.9820	35.1719
 1.9810	35.1329
 1.9800	35.0810
 1.9790	34.9956
 1.9780	35.0365
 1.9770	35.0130
 1.9760	35.0243
 1.9750	34.8912
 1.9740	34.9866
 1.9730	34.8954
 1.9720	34.8106
 1.9710	34.7740
 1.9700	34.7482
 1.9690	34.6893
 1.9680	34.7045
 1.9670	34.5766
 1.9660	34.6389
 1.9650	34.5324
 1.9640	34.5736
 1.9630	34.4442
 1.9620	34.4916
 1.9610	34.3266
 1.9600	34.4315
 1.9590	34.2487
 1.9580	34.3097
 1.9570	34.1778
 1.9560	34.1683
 1.9550	34.1154
 1.9540	34.1281
 1.9530	34.0653
 1.9520	34.0507
 1.9510	33.9298
 1.9500	33.9746
 1.9490	33.9619
 1.9480	33.9363
 1.9470	33.9755
 1.9460	33.9068
 1.9450	33.8332
 1.9440	33.8743
 1.9430	33.8056
 1.9420	33.8654
 1.9410	33.7416
 1.9400	33.8595
 1.9390	33.8016
 1.9380	33.9327
 1.9370	33.8504
 1.9360	33.8750
 1.9350	33.7692
 1.9340	33.9423
 1.9330	33.9029
 1.9320	33.9420
 1.9310	33.9086
 1.9300	34.0633
 1.9290	33.8984
 1.9280	34.0436
 1.9270	34.0781
 1.9260	34.0296
 1.9250	34.1421
 1.9240	34.2236
 1.9230	34.1552
 1.9220	34.3350
 1.9210	34.2151
 1.9200	34.4118
 1.9190	34.4128
 1.9180	34.5388
 1.9170	34.3859
 1.9160	34.5204
 1.9150	34.5659
 1.9140	34.7653
 1.9130	34.7111
 1.9120	34.8324
 1.9110	34.8049
 1.9100	34.9396
 1.9090	34.9134
 1.9080	35.0675
 1.9070	35.0215
 1.9060	35.1963
 1.9050	35.1102
 1.9040	35.2229
 1.9030	35.2471
 1.9020	35.3017
 1.9010	35.3520
 1.9000	35.4626
 1.8990	35.4740
 1.8980	35.5237
 1.8970	35.5572
 1.8960	35.6284
 1.8950	35.6094
 1.8940	35.6923
 1.8930	35.6867
 1.8920	35.7713
 1.8910	35.8128
 1.8900	35.8650
 1.8890	35.8017
 1.8880	35.9551
 1.8870	35.9594
 1.8860	36.0839
 1.8850	36.1339
 1.8840	36.2031
 1.8830	36.2183
 1.8820	36.2485
 1.8810	36.2353
 1.8800	36.3303
 1.8790	36.3502
 1.8780	36.3777
 1.8770	36.3320
 1.8760	36.4246
 1.8750	36.3715
 1.8740	36.4197
 1.8730	36.3240
 1.8720	36.4194
 1.8710	36.4134
 1.8700	36.4471
 1.8690	36.3201
 1.8680	36.4221
 1.8670	36.4777
 1.8660	36.6076
 1.8650	36.5525
 1.8640	36.5737
 1.8630	36.6137
 1.8620	36.6951
 1.8610	36.5982
 1.8600	36.6607
 1.8590	36.6062
 1.8580	36.5815
 1.8570	36.5676
 1.8560	36.6332
 1.8550	36.6252
 1.8540	36.5896
 1.8530	36.5845
 1.8520	36.6245
 1.8510	36.5528
 1.8500	36.5474
 1.8490	36.4986
 1.8480	36.5432
 1.8470	36.4906
 1.8460	36.5057
 1.8450	36.4863
 1.8440	36.5246
 1.8430	36.4845
 1.8420	36.5243
 1.8410	36.4692
 1.8400	36.4474
 1.8390	36.3638
 1.8380	36.3447
 1.8370	36.3099
 1.8360	36.3094
 1.8350	36.3391
 1.8340	36.3120
 1.8330	36.2935
 1.8320	36.3264
 1.8310	36.2946
 1.8300	36.2760
 1.8290	36.3063
 1.8280	36.3015
 1.8270	36.2173
 1.8260	36.2148
 1.8250	36.1992
 1.8240	36.2999
 1.8230	36.2398
 1.8220	36.2292
 1.8210	36.2213
 1.8200	36.1852
 1.8190	36.1496
 1.8180	36.1820
 1.8170	36.2081
 1.8160	36.2060
 1.8150	36.1876
 1.8140	36.1927
 1.8130	36.1411
 1.8120	36.1393
 1.8110	36.1183
 1.8100	36.1430
 1.8090	36.1119
 1.8080	36.1031
 1.8070	36.0406
 1.8060	36.0220
 1.8050	35.9875
 1.8040	36.0318
 1.8030	36.0337
 1.8020	36.0018
 1.8010	35.9964
 1.8000	35.9983
 1.7990	35.9166
 1.7980	35.9095
 1.7970	35.8710
 1.7960	35.8503
 1.7950	35.8718
 1.7940	35.8471
 1.7930	35.8099
 1.7920	35.7734
 1.7910	35.7290
 1.7900	35.7034
 1.7890	35.7088
 1.7880	35.6700
 1.7870	35.6524
 1.7860	35.6493
 1.7850	35.5970
 1.7840	35.5621
 1.7830	35.5204
 1.7820	35.4521
 1.7810	35.4294
 1.7800	35.4353
 1.7790	35.4471
 1.7780	35.4096
 1.7770	35.3468
 1.7760	35.3230
 1.7750	35.3458
 1.7740	35.3117
 1.7730	35.2673
 1.7720	35.2283
 1.7710	35.2703
 1.7700	35.2425
 1.7690	35.1767
 1.7680	35.1916
 1.7670	35.1808
 1.7660	35.0949
 1.7650	35.1266
 1.7640	35.0918
 1.7630	35.0510
 1.7620	35.0504
 1.7610	35.0570
 1.7600	34.9864
 1.7590	34.9761
 1.7580	34.9747
 1.7570	34.9038
 1.7560	34.8794
 1.7550	34.8506
 1.7540	34.8199
 1.7530	34.8213
 1.7520	34.7950
 1.7510	34.7917
 1.7500	34.7532
 1.7490	34.7434
 1.7480	34.7261
 1.7470	34.7268
 1.7460	34.6238
 1.7450	34.6306
 1.7440	34.6145
 1.7430	34.6346
 1.7420	34.5953
 1.7410	34.5961
 1.7400	34.5338
 1.7390	34.5377
 1.7380	34.4898
 1.7370	34.4877
 1.7360	34.3906
 1.7350	34.3847
 1.7340	34.3914
 1.7330	34.3928
 1.7320	34.2962
 1.7310	34.3516
 1.7300	34.3310
 1.7290	34.2614
 1.7280	34.2416
 1.7270	34.2500
 1.7260	34.1885
 1.7250	34.2137
 1.7240	34.1298
 1.7230	34.1447
 1.7220	34.0664
 1.7210	34.0583
 1.7200	34.0324
 1.7190	34.0521
 1.7180	33.9621
 1.7170	33.9022
 1.7160	33.8802
 1.7150	33.9588
 1.7140	33.8730
 1.7130	33.8618
 1.7120	33.8117
 1.7110	33.8127
 1.7100	33.8094
 1.7090	33.7229
 1.7080	33.6427
 1.7070	33.7363
 1.7060	33.6621
 1.7050	33.6607
 1.7040	33.5078
 1.7030	33.5842
 1.7020	33.5015
 1.7010	33.5595
 1.7000	33.4486
 1.6990	33.4929
 1.6980	33.4244
 1.6970	33.3645
 1.6960	33.3666
 1.6950	33.3971
 1.6940	33.2703
 1.6930	33.3081
 1.6920	33.2598
 1.6910	33.2730
 1.6900	33.1983
 1.6890	33.2477
 1.6880	33.1684
 1.6870	33.1480
 1.6860	33.2096
 1.6850	33.1967
 1.6840	33.0430
 1.6830	33.1245
 1.6820	33.0896
 1.6810	33.0571
 1.6800	33.0403
 1.6790	33.0532
 1.6780	32.9532
 1.6770	32.9777
 1.6760	32.8223
 1.6750	32.8618
 1.6740	32.8432
 1.6730	32.9167
 1.6720	32.8134
 1.6710	32.8891
 1.6700	32.7792
 1.6690	32.8203
 1.6680	32.7242
 1.6670	32.9064
 1.6660	32.7461
 1.6650	32.7238
 1.6640	32.6940
 1.6630	32.7441
 1.6620	32.6300
 1.6610	32.6824
 1.6600	32.5077
 1.6590	32.6368
 1.6580	32.5194
 1.6570	32.4841
 1.6560	32.5386
 1.6550	32.4910
 1.6540	32.4680
 1.6530	32.4961
 1.6520	32.3662
 1.6510	32.3994
 1.6500	32.3332
 1.6490	32.4803
 1.6480	32.2525
 1.6470	32.3806
 1.6460	32.2549
 1.6450	32.3644
 1.6440	32.2225
 1.6430	32.2954
 1.6420	32.2647
 1.6410	32.1009
 1.6400	32.2098
 1.6390	32.1707
 1.6380	32.1048
 1.6370	32.0845
 1.6360	32.0303
 1.6350	32.0260
 1.6340	31.9514
 1.6330	32.0208
 1.6320	31.9312
 1.6310	31.9471
 1.6300	31.9095
 1.6290	31.9820
 1.6280	31.7834
 1.6270	31.8593
 1.6260	31.8233
 1.6250	31.7963
 1.6240	31.7407
 1.6230	31.7395
 1.6220	31.6897
 1.6210	31.7685
 1.6200	31.6050
 1.6190	31.6279
 1.6180	31.5667
 1.6170	31.5819
 1.6160	31.5335
 1.6150	31.5760
 1.6140	31.4468
 1.6130	31.5049
 1.6120	31.4445
 1.6110	31.3835
 1.6100	31.4009
 1.6090	31.4344
 1.6080	31.3440
 1.6070	31.3099
 1.6060	31.1770
 1.6050	31.2783
 1.6040	31.2069
 1.6030	31.2536
 1.6020	31.1846
 1.6010	31.1416
 1.6000	31.1331
 1.5990	31.1454
 1.5980	31.0124
 1.5970	31.0481
 1.5960	30.9633
 1.5950	30.9382
 1.5940	30.8935
 1.5930	30.8934
 1.5920	30.8414
 1.5910	30.8002
 1.5900	30.7239
 1.5890	30.7848
 1.5880	30.7200
 1.5870	30.7042
 1.5860	30.6443
 1.5850	30.6602
 1.5840	30.5611
 1.5830	30.5337
 1.5820	30.4991
 1.5810	30.4757
 1.5800	30.4402
 1.5790	30.4414
 1.5780	30.3394
 1.5770	30.4055
 1.5760	30.2619
 1.5750	30.3171
 1.5740	30.2021
 1.5730	30.2102
 1.5720	30.1471
 1.5710	30.1471
 1.5700	30.0155
 1.5690	30.0498
 1.5680	30.0162
 1.5670	29.9786
 1.5660	29.8754
 1.5650	29.8831
 1.5640	29.7831
 1.5630	29.7869
 1.5620	29.7517
 1.5610	29.6985
 1.5600	29.6217
 1.5590	29.6153
 1.5580	29.5518
 1.5570	29.5757
 1.5560	29.5170
 1.5550	29.4720
 1.5540	29.4276
 1.5530	29.4137
 1.5520	29.3603
 1.5510	29.3361
 1.5500	29.2845
 1.5490	29.2678
 1.5480	29.2379
 1.5470	29.2469
 1.5460	29.1416
 1.5450	29.1495
 1.5440	29.0913
 1.5430	29.0468
 1.5420	28.9625
 1.5410	28.9789
 1.5400	28.9532
 1.5390	28.9546
 1.5380	28.8794
 1.5370	28.8885
 1.5360	28.8117
 1.5350	28.8479
 1.5340	28.7987
 1.5330	28.7535
 1.5320	28.7222
 1.5310	28.6714
 1.5300	28.6424
 1.5290	28.6881
 1.5280	28.6286
 1.5270	28.5936
 1.5260	28.5756
 1.5250	28.5558
 1.5240	28.5212
 1.5230	28.4734
 1.5220	28.4189
 1.5210	28.3987
 1.5200	28.3347
 1.5190	28.3070
 1.5180	28.2344
 1.5170	28.2244
 1.5160	28.2189
 1.5150	28.2214
 1.5140	28.2038
 1.5130	28.1476
 1.5120	28.1000
 1.5110	28.1164
 1.5100	28.0969
 1.5090	28.0483
 1.5080	27.9889
 1.5070	27.9771
 1.5060	27.9628
 1.5050	27.9091
 1.5040	27.8701
 1.5030	27.8653
 1.5020	27.8761
 1.5010	27.8600
 1.5000	27.8075
 1.4990	27.7611
 1.4980	27.7841
 1.4970	27.7682
 1.4960	27.6699
 1.4950	27.5865
 1.4940	27.5846
 1.4930	27.5815
 1.4920	27.5538
 1.4910	27.5099
 1.4900	27.4950
 1.4890	27.4516
 1.4880	27.3837
 1.4870	27.3462
 1.4860	27.3421
 1.4850	27.3123
 1.4840	27.2519
 1.4830	27.2100
 1.4820	27.2077
 1.4810	27.1602
 1.4800	27.1106
 1.4790	27.0351
 1.4780	26.9863
 1.4770	26.9674
 1.4760	26.9410
 1.4750	26.8545
 1.4740	26.8412
 1.4730	26.8305
 1.4720	26.7569
 1.4710	26.7307
 1.4700	26.6891
 1.4690	26.5838
 1.4680	26.5713
 1.4670	26.5550
 1.4660	26.5412
 1.4650	26.5015
 1.4640	26.5163
 1.4630	26.4118
 1.4620	26.3882
 1.4610	26.4159
 1.4600	26.4336
 1.4590	26.3362
 1.4580	26.3314
 1.4570	26.2718
 1.4560	26.3163
 1.4550	26.1940
 1.4540	26.2218
 1.4530	26.1970
 1.4520	26.2274
 1.4510	26.1534
 1.4500	26.1439
 1.4490	26.0829
 1.4480	26.1267
 1.4470	26.0621
 1.4460	26.0924
 1.4450	26.0549
 1.4440	25.9998
 1.4430	25.9697
 1.4420	26.0435
 1.4410	26.0076
 1.4400	26.0286
 1.4390	25.9407
 1.4380	25.9823
 1.4370	25.9541
 1.4360	25.9820
 1.4350	25.9409
 1.4340	25.8973
 1.4330	25.8714
 1.4320	25.8971
 1.4310	25.8187
 1.4300	25.8193
 1.4290	25.7770
 1.4280	25.8029
 1.4270	25.7451
 1.4260	25.7165
 1.4250	25.6940
 1.4240	25.7350
 1.4230	25.5909
 1.4220	25.5985
 1.4210	25.4586
 1.4200	25.2387
 1.4190	24.7464
 1.4180	24.2295
 1.4170	23.5994
 1.4160	23.3633
 1.4150	23.3230
 1.4140	23.4196
 1.4130	23.2857
 1.4120	22.7203
 1.4110	21.6399
 1.4100	20.7257
 1.4090	20.1672
 1.4080	20.2521
 1.4070	20.4383
 1.4060	20.5963
 1.4050	20.2942
 1.4040	19.9745
 1.4030	19.6309
 1.4020	20.1191
 1.4010	20.6997
 1.4000	21.3046
 1.3990	21.6897
 1.3980	21.9826
 1.3970	22.0375
 1.3960	22.5718
 1.3950	23.0036
 1.3940	23.7259
 1.3930	24.0193
 1.3920	24.3980
 1.3910	24.5266
 1.3900	24.7816
 1.3890	24.8233
 1.3880	24.7967
 1.3870	24.8464
 1.3860	24.8008
 1.3850	24.8715
 1.3840	24.9108
 1.3830	24.7915
 1.3820	24.8565
 1.3810	24.7771
 1.3800	24.8087
 1.3790	24.8249
 1.3780	24.8986
 1.3770	24.7907
 1.3760	24.8845
 1.3750	24.6867
 1.3740	24.8359
 1.3730	24.6682
 1.3720	24.8146
 1.3710	24.5896
 1.3700	24.6867
 1.3690	24.6264
 1.3680	24.6415
 1.3670	24.4485
