Name: Saponite (Ca/2,Na)_0.33(Mg,Fe^2+)_3(Si,Al)_4O_10(OH)_2.4H_2O
Type: Mineral
Class: Silicate
Subclass: Phyllosilicate
Particle Size: Fine
Sample No.: PS-24A
Owner: JPL
Wavelength Range: VSWIR
Origin: USA, California, Ballarat.
Collection Date: N/A
Description: Particle size was 0-45um. Collected by:  Clay Mineral Society Original ASTER Spectral Library name was jpl.perkin.mineral.silicate.phyllosilicate.fine.ps24a.spectrum.txt
Measurement: Hemispherical reflectance
First Column: X
Second Column: Y
X Units: Wavelength (micrometers)
Y Units:Reflectance (percent)
First X Value:  2.5000
Last X Value:  0.4000
Number of X Values: 2101
Additional Information: mineral.silicate.phyllosilicate.fine.vswir.ps-24a.jpl.perkin.ancillary.txt

 2.5000	43.6337
 2.4990	43.7657
 2.4980	43.7285
 2.4970	43.8851
 2.4960	43.4581
 2.4950	43.9805
 2.4940	43.8325
 2.4930	44.0667
 2.4920	44.1247
 2.4910	44.2290
 2.4900	44.2252
 2.4890	44.3715
 2.4880	44.2821
 2.4870	44.6448
 2.4860	44.5665
 2.4850	44.8197
 2.4840	44.7467
 2.4830	44.9252
 2.4820	44.9060
 2.4810	44.9711
 2.4800	45.0861
 2.4790	45.2484
 2.4780	45.2510
 2.4770	45.4273
 2.4760	45.2021
 2.4750	45.5065
 2.4740	45.4286
 2.4730	45.6150
 2.4720	45.5644
 2.4710	45.6118
 2.4700	45.5373
 2.4690	45.6625
 2.4680	45.5772
 2.4670	45.9062
 2.4660	45.8454
 2.4650	45.9148
 2.4640	45.8169
 2.4630	46.0171
 2.4620	46.0353
 2.4610	46.4739
 2.4600	46.2549
 2.4590	46.4216
 2.4580	46.5640
 2.4570	46.6548
 2.4560	46.7555
 2.4550	47.0456
 2.4540	47.0956
 2.4530	47.2113
 2.4520	47.4296
 2.4510	47.5351
 2.4500	47.5116
 2.4490	47.9143
 2.4480	47.9202
 2.4470	48.1956
 2.4460	48.2721
 2.4450	48.4225
 2.4440	48.4986
 2.4430	48.6601
 2.4420	48.7835
 2.4410	48.9875
 2.4400	49.0289
 2.4390	49.1784
 2.4380	49.1980
 2.4370	49.3242
 2.4360	49.5492
 2.4350	49.7445
 2.4340	49.8110
 2.4330	49.9038
 2.4320	49.9229
 2.4310	50.1760
 2.4300	50.2662
 2.4290	50.3814
 2.4280	50.5083
 2.4270	50.6322
 2.4260	50.8056
 2.4250	50.9116
 2.4240	51.0453
 2.4230	51.1858
 2.4220	51.2495
 2.4210	51.4332
 2.4200	51.5107
 2.4190	51.7407
 2.4180	51.8804
 2.4170	52.0473
 2.4160	52.1107
 2.4150	52.3004
 2.4140	52.4749
 2.4130	52.6385
 2.4120	52.6621
 2.4110	52.8493
 2.4100	52.8500
 2.4090	52.8663
 2.4080	52.8255
 2.4070	52.8485
 2.4060	52.8948
 2.4050	52.8895
 2.4040	52.7919
 2.4030	52.6864
 2.4020	52.5524
 2.4010	52.5413
 2.4000	52.3411
 2.3990	52.2658
 2.3980	52.1057
 2.3970	52.0229
 2.3960	51.8214
 2.3950	51.7285
 2.3940	51.6848
 2.3930	51.5507
 2.3920	51.4441
 2.3910	51.4495
 2.3900	51.4115
 2.3890	51.3434
 2.3880	51.3123
 2.3870	51.3498
 2.3860	51.4296
 2.3850	51.5397
 2.3840	51.6457
 2.3830	51.8167
 2.3820	52.0587
 2.3810	52.2872
 2.3800	52.5107
 2.3790	52.8279
 2.3780	53.1319
 2.3770	53.4132
 2.3760	53.7351
 2.3750	54.1418
 2.3740	54.4348
 2.3730	54.7877
 2.3720	55.1189
 2.3710	55.4410
 2.3700	55.7074
 2.3690	56.1283
 2.3680	56.5140
 2.3670	56.7772
 2.3660	57.0815
 2.3650	57.3215
 2.3640	57.5999
 2.3630	57.9468
 2.3620	58.1748
 2.3610	58.3304
 2.3600	58.5432
 2.3590	58.7067
 2.3580	58.8844
 2.3570	59.0422
 2.3560	59.1740
 2.3550	59.2914
 2.3540	59.4180
 2.3530	59.5401
 2.3520	59.6683
 2.3510	59.7798
 2.3500	59.8896
 2.3490	59.9716
 2.3480	59.9742
 2.3470	59.9927
 2.3460	60.0764
 2.3450	60.1480
 2.3440	60.1857
 2.3430	60.1588
 2.3420	60.0715
 2.3410	59.9495
 2.3400	59.8638
 2.3390	59.7317
 2.3380	59.6068
 2.3370	59.4275
 2.3360	59.2210
 2.3350	58.9314
 2.3340	58.6484
 2.3330	58.2876
 2.3320	57.8488
 2.3310	57.4242
 2.3300	56.9566
 2.3290	56.4965
 2.3280	55.9646
 2.3270	55.3654
 2.3260	54.8247
 2.3250	54.1965
 2.3240	53.5835
 2.3230	53.0509
 2.3220	52.4565
 2.3210	51.8569
 2.3200	51.3705
 2.3190	50.9472
 2.3180	50.5438
 2.3170	50.1672
 2.3160	49.9075
 2.3150	49.6330
 2.3140	49.3854
 2.3130	49.1963
 2.3120	49.3012
 2.3110	49.3201
 2.3100	49.5301
 2.3090	49.7603
 2.3080	50.0539
 2.3070	50.4213
 2.3060	50.6995
 2.3050	51.1016
 2.3040	51.6058
 2.3030	51.9090
 2.3020	52.3085
 2.3010	52.7425
 2.3000	53.1187
 2.2990	53.4180
 2.2980	53.7865
 2.2970	54.0031
 2.2960	54.2920
 2.2950	54.6051
 2.2940	54.8553
 2.2930	55.1160
 2.2920	55.5079
 2.2910	55.7341
 2.2900	56.0313
 2.2890	56.4093
 2.2880	56.8232
 2.2870	57.2362
 2.2860	57.6798
 2.2850	58.2044
 2.2840	58.7883
 2.2830	59.3124
 2.2820	59.9272
 2.2810	60.4519
 2.2800	61.1232
 2.2790	61.6164
 2.2780	62.2344
 2.2770	62.8340
 2.2760	63.3763
 2.2750	63.9044
 2.2740	64.4164
 2.2730	64.7469
 2.2720	65.1931
 2.2710	65.5901
 2.2700	66.0112
 2.2690	66.2902
 2.2680	66.7006
 2.2670	66.8926
 2.2660	67.2271
 2.2650	67.5416
 2.2640	67.7302
 2.2630	67.9269
 2.2620	68.1590
 2.2610	68.3831
 2.2600	68.5947
 2.2590	68.6399
 2.2580	68.7776
 2.2570	68.9211
 2.2560	69.1867
 2.2550	69.1763
 2.2540	69.3452
 2.2530	69.4319
 2.2520	69.5389
 2.2510	69.5201
 2.2500	69.6314
 2.2490	69.6949
 2.2480	69.7901
 2.2470	69.8853
 2.2460	69.9442
 2.2450	69.9706
 2.2440	70.0154
 2.2430	70.0490
 2.2420	70.0752
 2.2410	70.1664
 2.2400	70.1937
 2.2390	70.2461
 2.2380	70.3201
 2.2370	70.2855
 2.2360	70.3419
 2.2350	70.3226
 2.2340	70.4137
 2.2330	70.4436
 2.2320	70.5896
 2.2310	70.5519
 2.2300	70.6680
 2.2290	70.6883
 2.2280	70.7983
 2.2270	70.8694
 2.2260	70.8544
 2.2250	70.9970
 2.2240	71.0159
 2.2230	71.0431
 2.2220	71.1224
 2.2210	71.1483
 2.2200	71.2414
 2.2190	71.4236
 2.2180	71.3374
 2.2170	71.3217
 2.2160	71.4743
 2.2150	71.4308
 2.2140	71.5160
 2.2130	71.5540
 2.2120	71.5079
 2.2110	71.6078
 2.2100	71.6228
 2.2090	71.5756
 2.2080	71.7035
 2.2070	71.7678
 2.2060	71.7660
 2.2050	71.6803
 2.2040	71.8184
 2.2030	71.7865
 2.2020	71.8823
 2.2010	71.8436
 2.2000	71.8726
 2.1990	71.8298
 2.1980	71.7926
 2.1970	71.8797
 2.1960	71.9239
 2.1950	71.8805
 2.1940	71.9531
 2.1930	72.0497
 2.1920	71.9880
 2.1910	71.9027
 2.1900	71.9845
 2.1890	71.9713
 2.1880	71.9936
 2.1870	72.1075
 2.1860	72.0160
 2.1850	72.0649
 2.1840	72.0125
 2.1830	71.9978
 2.1820	72.0400
 2.1810	71.9805
 2.1800	71.9460
 2.1790	72.0471
 2.1780	72.0144
 2.1770	72.0513
 2.1760	72.0527
 2.1750	72.0915
 2.1740	72.0501
 2.1730	72.0716
 2.1720	72.0865
 2.1710	72.1495
 2.1700	72.1477
 2.1690	72.1539
 2.1680	72.1265
 2.1670	72.1035
 2.1660	72.2349
 2.1650	72.1897
 2.1640	72.2774
 2.1630	72.3134
 2.1620	72.3042
 2.1610	72.2303
 2.1600	72.2934
 2.1590	72.2824
 2.1580	72.3991
 2.1570	72.3781
 2.1560	72.4231
 2.1550	72.3853
 2.1540	72.4863
 2.1530	72.4792
 2.1520	72.4381
 2.1510	72.3082
 2.1500	72.4337
 2.1490	72.3609
 2.1480	72.3203
 2.1470	72.3526
 2.1460	72.3578
 2.1450	72.2149
 2.1440	72.2690
 2.1430	72.2413
 2.1420	72.2525
 2.1410	72.2324
 2.1400	72.2113
 2.1390	72.2300
 2.1380	72.1571
 2.1370	71.9962
 2.1360	71.9965
 2.1350	71.8714
 2.1340	71.7927
 2.1330	71.7891
 2.1320	71.7372
 2.1310	71.6356
 2.1300	71.5025
 2.1290	71.4831
 2.1280	71.4876
 2.1270	71.3530
 2.1260	71.2932
 2.1250	71.2155
 2.1240	71.2699
 2.1230	71.2226
 2.1220	71.1632
 2.1210	71.0004
 2.1200	70.9068
 2.1190	70.9071
 2.1180	70.8613
 2.1170	70.7781
 2.1160	70.7252
 2.1150	70.6345
 2.1140	70.5830
 2.1130	70.5455
 2.1120	70.4776
 2.1110	70.4839
 2.1100	70.4538
 2.1090	70.4435
 2.1080	70.3610
 2.1070	70.3024
 2.1060	70.2588
 2.1050	70.2140
 2.1040	70.1609
 2.1030	70.1487
 2.1020	70.1011
 2.1010	70.0130
 2.1000	69.9682
 2.0990	69.8975
 2.0980	69.8829
 2.0970	69.9757
 2.0960	69.9253
 2.0950	69.8534
 2.0940	69.8122
 2.0930	69.7687
 2.0920	69.7488
 2.0910	69.7066
 2.0900	69.7406
 2.0890	69.7904
 2.0880	69.7159
 2.0870	69.6880
 2.0860	69.7155
 2.0850	69.7157
 2.0840	69.6644
 2.0830	69.6816
 2.0820	69.7408
 2.0810	69.7631
 2.0800	69.7521
 2.0790	69.7442
 2.0780	69.7367
 2.0770	69.7508
 2.0760	69.7774
 2.0750	69.7341
 2.0740	69.7309
 2.0730	69.7078
 2.0720	69.6893
 2.0710	69.6580
 2.0700	69.6038
 2.0690	69.5573
 2.0680	69.5180
 2.0670	69.4998
 2.0660	69.4535
 2.0650	69.4008
 2.0640	69.3681
 2.0630	69.3565
 2.0620	69.2791
 2.0610	69.1911
 2.0600	69.1482
 2.0590	69.0610
 2.0580	68.9995
 2.0570	68.9660
 2.0560	68.9114
 2.0550	68.9486
 2.0540	68.8819
 2.0530	68.8064
 2.0520	68.6752
 2.0510	68.6329
 2.0500	68.6060
 2.0490	68.5113
 2.0480	68.4200
 2.0470	68.3555
 2.0460	68.2938
 2.0450	68.2809
 2.0440	68.1766
 2.0430	68.0787
 2.0420	67.9789
 2.0410	67.9006
 2.0400	67.7683
 2.0390	67.6657
 2.0380	67.5718
 2.0370	67.5119
 2.0360	67.3781
 2.0350	67.2243
 2.0340	67.1340
 2.0330	67.0409
 2.0320	66.9053
 2.0310	66.7607
 2.0300	66.5822
 2.0290	66.4691
 2.0280	66.3854
 2.0270	66.2051
 2.0260	66.0171
 2.0250	65.9214
 2.0240	65.7413
 2.0230	65.6417
 2.0220	65.4581
 2.0210	65.3084
 2.0200	65.1254
 2.0190	64.9379
 2.0180	64.7286
 2.0170	64.6586
 2.0160	64.5393
 2.0150	64.3155
 2.0140	64.0917
 2.0130	63.9198
 2.0120	63.7417
 2.0110	63.6427
 2.0100	63.4102
 2.0090	63.1857
 2.0080	63.0511
 2.0070	62.8359
 2.0060	62.6396
 2.0050	62.4595
 2.0040	62.2746
 2.0030	62.1751
 2.0020	61.9569
 2.0010	61.7407
 2.0000	61.4907
 1.9990	61.3171
 1.9980	61.1418
 1.9970	60.9008
 1.9960	60.6682
 1.9950	60.5271
 1.9940	60.2886
 1.9930	60.0606
 1.9920	59.7918
 1.9910	59.6294
 1.9900	59.3924
 1.9890	59.1770
 1.9880	59.0042
 1.9870	58.8250
 1.9860	58.5139
 1.9850	58.3678
 1.9840	58.1210
 1.9830	57.8818
 1.9820	57.7059
 1.9810	57.6283
 1.9800	57.3162
 1.9790	57.1700
 1.9780	56.8575
 1.9770	56.8446
 1.9760	56.5134
 1.9750	56.3945
 1.9740	56.2326
 1.9730	56.0614
 1.9720	55.7585
 1.9710	55.5912
 1.9700	55.4202
 1.9690	55.2438
 1.9680	55.0837
 1.9670	54.9551
 1.9660	54.7637
 1.9650	54.6571
 1.9640	54.4595
 1.9630	54.3567
 1.9620	54.2055
 1.9610	54.0777
 1.9600	53.8432
 1.9590	53.8675
 1.9580	53.6553
 1.9570	53.4644
 1.9560	53.3133
 1.9550	53.2491
 1.9540	53.0930
 1.9530	53.0237
 1.9520	52.8384
 1.9510	52.8606
 1.9500	52.6935
 1.9490	52.6168
 1.9480	52.4453
 1.9470	52.3949
 1.9460	52.2444
 1.9450	52.0701
 1.9440	51.9136
 1.9430	51.8550
 1.9420	51.6884
 1.9410	51.5204
 1.9400	51.3750
 1.9390	51.3206
 1.9380	51.0353
 1.9370	50.8911
 1.9360	50.6661
 1.9350	50.6046
 1.9340	50.2997
 1.9330	50.1278
 1.9320	49.7341
 1.9310	49.5782
 1.9300	49.2282
 1.9290	49.0701
 1.9280	48.6638
 1.9270	48.5758
 1.9260	47.8955
 1.9250	47.7363
 1.9240	47.1321
 1.9230	46.8932
 1.9220	46.3675
 1.9210	45.9664
 1.9200	45.4468
 1.9190	45.1584
 1.9180	44.5807
 1.9170	44.1715
 1.9160	43.6509
 1.9150	43.3117
 1.9140	42.7379
 1.9130	42.4335
 1.9120	42.0180
 1.9110	41.8222
 1.9100	41.4192
 1.9090	41.2775
 1.9080	40.9262
 1.9070	40.8801
 1.9060	40.8107
 1.9050	40.9564
 1.9040	40.9914
 1.9030	41.3922
 1.9020	41.7224
 1.9010	42.3702
 1.9000	42.9363
 1.8990	43.6271
 1.8980	44.4852
 1.8970	45.3830
 1.8960	46.3950
 1.8950	47.5102
 1.8940	48.6507
 1.8930	49.8730
 1.8920	51.0074
 1.8910	52.3023
 1.8900	53.6581
 1.8890	55.0691
 1.8880	56.2810
 1.8870	57.6149
 1.8860	58.7851
 1.8850	60.0597
 1.8840	61.2137
 1.8830	62.1830
 1.8820	63.2377
 1.8810	64.2690
 1.8800	65.0636
 1.8790	65.9796
 1.8780	66.6931
 1.8770	67.4584
 1.8760	68.2005
 1.8750	68.9112
 1.8740	69.6113
 1.8730	70.2982
 1.8720	71.0407
 1.8710	71.6230
 1.8700	72.2316
 1.8690	72.8443
 1.8680	73.3087
 1.8670	73.6690
 1.8660	74.2097
 1.8650	74.4882
 1.8640	74.7960
 1.8630	75.1124
 1.8620	75.3661
 1.8610	75.6192
 1.8600	75.9265
 1.8590	76.1564
 1.8580	76.4014
 1.8570	76.7120
 1.8560	76.8466
 1.8550	77.0573
 1.8540	77.2147
 1.8530	77.4019
 1.8520	77.5289
 1.8510	77.6697
 1.8500	77.8294
 1.8490	77.9616
 1.8480	78.0585
 1.8470	78.1214
 1.8460	78.3010
 1.8450	78.4069
 1.8440	78.4715
 1.8430	78.5871
 1.8420	78.6521
 1.8410	78.8285
 1.8400	78.8654
 1.8390	78.9647
 1.8380	79.0145
 1.8370	79.1227
 1.8360	79.1292
 1.8350	79.2286
 1.8340	79.2211
 1.8330	79.2861
 1.8320	79.2701
 1.8310	79.3026
 1.8300	79.4739
 1.8290	79.5465
 1.8280	79.6244
 1.8270	79.6504
 1.8260	79.5908
 1.8250	79.6174
 1.8240	79.7158
 1.8230	79.7689
 1.8220	79.7863
 1.8210	79.8377
 1.8200	79.8623
 1.8190	79.8600
 1.8180	79.8707
 1.8170	79.9286
 1.8160	79.9869
 1.8150	80.0492
 1.8140	80.0727
 1.8130	80.0565
 1.8120	80.1108
 1.8110	80.1252
 1.8100	80.1181
 1.8090	80.1901
 1.8080	80.2194
 1.8070	80.2602
 1.8060	80.2750
 1.8050	80.3123
 1.8040	80.3211
 1.8030	80.4020
 1.8020	80.4872
 1.8010	80.4508
 1.8000	80.4955
 1.7990	80.5326
 1.7980	80.5600
 1.7970	80.6430
 1.7960	80.6608
 1.7950	80.6764
 1.7940	80.7594
 1.7930	80.8023
 1.7920	80.8198
 1.7910	80.8527
 1.7900	80.8933
 1.7890	80.8739
 1.7880	80.9006
 1.7870	80.9994
 1.7860	81.0808
 1.7850	81.1187
 1.7840	81.1808
 1.7830	81.2377
 1.7820	81.2762
 1.7810	81.3071
 1.7800	81.3538
 1.7790	81.3830
 1.7780	81.4056
 1.7770	81.4872
 1.7760	81.6361
 1.7750	81.6928
 1.7740	81.6743
 1.7730	81.7243
 1.7720	81.8407
 1.7710	81.9119
 1.7700	81.9910
 1.7690	82.0611
 1.7680	82.0076
 1.7670	82.0506
 1.7660	82.1903
 1.7650	82.2473
 1.7640	82.2831
 1.7630	82.3521
 1.7620	82.4223
 1.7610	82.6079
 1.7600	82.5754
 1.7590	82.5738
 1.7580	82.7585
 1.7570	82.8000
 1.7560	82.8228
 1.7550	82.9016
 1.7540	83.0124
 1.7530	83.1181
 1.7520	83.1808
 1.7510	83.1970
 1.7500	83.1958
 1.7490	83.3446
 1.7480	83.4864
 1.7470	83.5537
 1.7460	83.6471
 1.7450	83.7204
 1.7440	83.7637
 1.7430	83.8588
 1.7420	83.9523
 1.7410	83.9740
 1.7400	84.0344
 1.7390	84.1342
 1.7380	84.1966
 1.7370	84.3237
 1.7360	84.3452
 1.7350	84.4207
 1.7340	84.5666
 1.7330	84.5522
 1.7320	84.6116
 1.7310	84.6831
 1.7300	84.7540
 1.7290	84.8110
 1.7280	84.8016
 1.7270	84.8555
 1.7260	85.0004
 1.7250	85.0556
 1.7240	85.1055
 1.7230	85.1068
 1.7220	85.1631
 1.7210	85.1656
 1.7200	85.2358
 1.7190	85.2577
 1.7180	85.2485
 1.7170	85.3139
 1.7160	85.3891
 1.7150	85.4619
 1.7140	85.5853
 1.7130	85.4755
 1.7120	85.4679
 1.7110	85.5739
 1.7100	85.7072
 1.7090	85.7077
 1.7080	85.7409
 1.7070	85.7397
 1.7060	85.8289
 1.7050	85.7549
 1.7040	85.8209
 1.7030	85.8210
 1.7020	85.8720
 1.7010	85.9003
 1.7000	86.0332
 1.6990	86.0588
 1.6980	86.0595
 1.6970	86.0696
 1.6960	86.0315
 1.6950	86.0681
 1.6940	86.0066
 1.6930	86.1136
 1.6920	86.0064
 1.6910	86.0541
 1.6900	86.1362
 1.6890	86.2722
 1.6880	86.2044
 1.6870	86.1130
 1.6860	86.1917
 1.6850	86.2424
 1.6840	86.2646
 1.6830	86.2104
 1.6820	86.2221
 1.6810	86.3030
 1.6800	86.2393
 1.6790	86.2733
 1.6780	86.3252
 1.6770	86.3592
 1.6760	86.2849
 1.6750	86.3110
 1.6740	86.2894
 1.6730	86.3678
 1.6720	86.3399
 1.6710	86.2934
 1.6700	86.3371
 1.6690	86.3041
 1.6680	86.2754
 1.6670	86.3908
 1.6660	86.3927
 1.6650	86.2937
 1.6640	86.3303
 1.6630	86.4132
 1.6620	86.4046
 1.6610	86.3554
 1.6600	86.2553
 1.6590	86.2010
 1.6580	86.2938
 1.6570	86.3844
 1.6560	86.2431
 1.6550	86.3223
 1.6540	86.3493
 1.6530	86.2650
 1.6520	86.3206
 1.6510	86.2175
 1.6500	86.1944
 1.6490	86.1589
 1.6480	86.3109
 1.6470	86.0985
 1.6460	86.1344
 1.6450	86.1638
 1.6440	86.1460
 1.6430	86.1480
 1.6420	86.1328
 1.6410	86.0633
 1.6400	86.0743
 1.6390	86.0669
 1.6380	86.0944
 1.6370	86.0000
 1.6360	86.0179
 1.6350	86.0693
 1.6340	86.0593
 1.6330	85.9279
 1.6320	85.9770
 1.6310	85.9546
 1.6300	85.9383
 1.6290	85.9469
 1.6280	85.9606
 1.6270	85.9044
 1.6260	85.9100
 1.6250	85.8780
 1.6240	85.9484
 1.6230	85.7881
 1.6220	85.7908
 1.6210	85.7672
 1.6200	85.7630
 1.6190	85.8291
 1.6180	85.7741
 1.6170	85.6813
 1.6160	85.6757
 1.6150	85.6407
 1.6140	85.6717
 1.6130	85.5658
 1.6120	85.6033
 1.6110	85.5254
 1.6100	85.5624
 1.6090	85.4665
 1.6080	85.4239
 1.6070	85.4368
 1.6060	85.4478
 1.6050	85.4162
 1.6040	85.4095
 1.6030	85.3271
 1.6020	85.4083
 1.6010	85.3600
 1.6000	85.2281
 1.5990	85.3872
 1.5980	85.2367
 1.5970	85.2037
 1.5960	85.1124
 1.5950	85.1467
 1.5940	85.1295
 1.5930	85.2078
 1.5920	85.0051
 1.5910	84.9863
 1.5900	85.0162
 1.5890	84.8804
 1.5880	84.8779
 1.5870	84.9577
 1.5860	84.9420
 1.5850	84.7950
 1.5840	84.7611
 1.5830	84.7506
 1.5820	84.7162
 1.5810	84.6388
 1.5800	84.6626
 1.5790	84.5143
 1.5780	84.5496
 1.5770	84.4987
 1.5760	84.5179
 1.5750	84.4143
 1.5740	84.3528
 1.5730	84.4073
 1.5720	84.2747
 1.5710	84.1970
 1.5700	84.2566
 1.5690	84.1925
 1.5680	84.1552
 1.5670	84.0385
 1.5660	84.0000
 1.5650	83.9534
 1.5640	83.9945
 1.5630	83.8764
 1.5620	83.8845
 1.5610	83.7157
 1.5600	83.6200
 1.5590	83.6998
 1.5580	83.6834
 1.5570	83.5606
 1.5560	83.5863
 1.5550	83.5455
 1.5540	83.4224
 1.5530	83.3614
 1.5520	83.2884
 1.5510	83.2861
 1.5500	83.2151
 1.5490	83.1126
 1.5480	83.0223
 1.5470	82.9545
 1.5460	82.8892
 1.5450	82.8417
 1.5440	82.7361
 1.5430	82.6700
 1.5420	82.5996
 1.5410	82.5545
 1.5400	82.5185
 1.5390	82.3884
 1.5380	82.3549
 1.5370	82.3429
 1.5360	82.2714
 1.5350	82.1731
 1.5340	82.0773
 1.5330	82.0377
 1.5320	81.9677
 1.5310	81.8326
 1.5300	81.7200
 1.5290	81.6548
 1.5280	81.6508
 1.5270	81.5124
 1.5260	81.4147
 1.5250	81.3889
 1.5240	81.2742
 1.5230	81.1978
 1.5220	81.1399
 1.5210	81.0604
 1.5200	80.9814
 1.5190	80.8759
 1.5180	80.8145
 1.5170	80.7587
 1.5160	80.6136
 1.5150	80.5281
 1.5140	80.4524
 1.5130	80.2694
 1.5120	80.1937
 1.5110	80.1264
 1.5100	80.0127
 1.5090	79.8931
 1.5080	79.7979
 1.5070	79.6800
 1.5060	79.5717
 1.5050	79.4917
 1.5040	79.3506
 1.5030	79.2096
 1.5020	79.1145
 1.5010	79.0631
 1.5000	78.9427
 1.4990	78.8160
 1.4980	78.7171
 1.4970	78.5436
 1.4960	78.4189
 1.4950	78.2817
 1.4940	78.1859
 1.4930	78.1136
 1.4920	77.9485
 1.4910	77.8058
 1.4900	77.7017
 1.4890	77.5312
 1.4880	77.4171
 1.4870	77.3026
 1.4860	77.0442
 1.4850	76.9046
 1.4840	76.7643
 1.4830	76.5817
 1.4820	76.4446
 1.4810	76.2897
 1.4800	76.0787
 1.4790	75.9506
 1.4780	75.7034
 1.4770	75.4384
 1.4760	75.2553
 1.4750	75.1105
 1.4740	74.9049
 1.4730	74.7363
 1.4720	74.4646
 1.4710	74.2258
 1.4700	74.0764
 1.4690	73.8701
 1.4680	73.6776
 1.4670	73.4620
 1.4660	73.3135
 1.4650	73.2070
 1.4640	73.1175
 1.4630	73.0858
 1.4620	73.1141
 1.4610	73.1291
 1.4600	73.0400
 1.4590	72.9535
 1.4580	72.9685
 1.4570	73.0618
 1.4560	73.0795
 1.4550	73.0470
 1.4540	73.0577
 1.4530	73.1194
 1.4520	73.1006
 1.4510	73.0140
 1.4500	72.9420
 1.4490	72.9333
 1.4480	72.8676
 1.4470	72.7837
 1.4460	72.6381
 1.4450	72.5824
 1.4440	72.4491
 1.4430	72.3078
 1.4420	72.1483
 1.4410	72.0813
 1.4400	71.8258
 1.4390	71.6334
 1.4380	71.4933
 1.4370	71.3481
 1.4360	71.1418
 1.4350	70.9228
 1.4340	70.6985
 1.4330	70.5345
 1.4320	70.2408
 1.4310	70.0786
 1.4300	69.8201
 1.4290	69.5786
 1.4280	69.3123
 1.4270	69.1036
 1.4260	68.8285
 1.4250	68.5796
 1.4240	68.3647
 1.4230	68.1642
 1.4220	67.9266
 1.4210	67.8224
 1.4200	67.4898
 1.4190	67.2914
 1.4180	67.1939
 1.4170	67.0487
 1.4160	66.8738
 1.4150	66.7783
 1.4140	66.8162
 1.4130	66.7989
 1.4120	66.6917
 1.4110	66.9091
 1.4100	67.0916
 1.4090	67.2701
 1.4080	67.5851
 1.4070	67.8986
 1.4060	68.2726
 1.4050	68.7408
 1.4040	69.0622
 1.4030	69.5487
 1.4020	69.8376
 1.4010	70.1686
 1.4000	70.4258
 1.3990	70.6547
 1.3980	70.6468
 1.3970	70.2566
 1.3960	69.0171
 1.3950	66.9179
 1.3940	64.4153
 1.3930	62.3067
 1.3920	60.9546
 1.3910	60.7861
 1.3900	61.6365
 1.3890	63.3098
 1.3880	65.5774
 1.3870	68.0492
 1.3860	70.6160
 1.3850	73.2534
 1.3840	75.7845
 1.3830	77.7639
 1.3820	79.2934
 1.3810	80.4277
 1.3800	81.0795
 1.3790	81.5620
 1.3780	81.9597
 1.3770	82.3007
 1.3760	82.5456
 1.3750	82.6675
 1.3740	83.0750
 1.3730	83.2394
 1.3720	83.3808
 1.3710	83.7183
 1.3700	83.8343
