Name: Stilbite NaCa_2Al_5Si_3O_36.14H_2O
Type: Mineral
Class: Silicate
Subclass: Tectosilicate
Particle Size: Medium
Sample No.: TS-9A
Owner: JPL
Wavelength Range: VSWIR
Origin: India.
Collection Date: N/A
Description: Particle size was 45-125um.Collected by:  Grieger's Inc. Original ASTER Spectral Library name was jpl.perkin.mineral.silicate.tectosilicate.medium.ts09a.spectrum.txt
Measurement: Hemispherical reflectance
First Column: X
Second Column: Y
X Units: Wavelength (micrometers)
Y Units:Reflectance (percent)
First X Value:  2.5000
Last X Value:  0.4000
Number of X Values: 2101
Additional Information: mineral.silicate.tectosilicate.medium.vswir.ts-9a.jpl.perkin.ancillary.txt

 2.5000	 8.7269
 2.4990	 8.4396
 2.4980	 8.9287
 2.4970	 8.7173
 2.4960	 8.4961
 2.4950	 8.7481
 2.4940	 8.9729
 2.4930	 8.8770
 2.4920	 9.0682
 2.4910	 8.9679
 2.4900	 9.1634
 2.4890	 9.0240
 2.4880	 9.2075
 2.4870	 9.1362
 2.4860	 9.4182
 2.4850	 9.2232
 2.4840	 9.2777
 2.4830	 9.2736
 2.4820	 9.4127
 2.4810	 9.4975
 2.4800	 9.5888
 2.4790	 9.3452
 2.4780	 9.6655
 2.4770	 9.4614
 2.4760	 9.5737
 2.4750	 9.6594
 2.4740	 9.7511
 2.4730	 9.6886
 2.4720	 9.7306
 2.4710	 9.8188
 2.4700	 9.8484
 2.4690	 9.7962
 2.4680	 9.9840
 2.4670	 9.9791
 2.4660	10.0546
 2.4650	10.0613
 2.4640	10.1758
 2.4630	10.1352
 2.4620	10.2334
 2.4610	10.1615
 2.4600	10.3154
 2.4590	10.2383
 2.4580	10.3280
 2.4570	10.3372
 2.4560	10.4578
 2.4550	10.5671
 2.4540	10.5014
 2.4530	10.5585
 2.4520	10.5367
 2.4510	10.6461
 2.4500	10.7561
 2.4490	10.7232
 2.4480	10.8925
 2.4470	10.7975
 2.4460	10.9683
 2.4450	10.8914
 2.4440	11.1943
 2.4430	11.0875
 2.4420	11.2622
 2.4410	11.2909
 2.4400	11.3880
 2.4390	11.3279
 2.4380	11.4337
 2.4370	11.3508
 2.4360	11.5730
 2.4350	11.6346
 2.4340	11.7632
 2.4330	11.7048
 2.4320	11.8877
 2.4310	11.8743
 2.4300	12.0197
 2.4290	12.1702
 2.4280	12.1944
 2.4270	12.2906
 2.4260	12.3653
 2.4250	12.4259
 2.4240	12.5904
 2.4230	12.6314
 2.4220	12.7515
 2.4210	12.8437
 2.4200	13.0459
 2.4190	13.1434
 2.4180	13.2442
 2.4170	13.3231
 2.4160	13.4857
 2.4150	13.6025
 2.4140	13.8336
 2.4130	13.8947
 2.4120	14.0696
 2.4110	14.2330
 2.4100	14.4377
 2.4090	14.5312
 2.4080	14.6841
 2.4070	14.8212
 2.4060	15.0664
 2.4050	15.1814
 2.4040	15.4250
 2.4030	15.5614
 2.4020	15.7328
 2.4010	15.8696
 2.4000	16.1073
 2.3990	16.3309
 2.3980	16.5658
 2.3970	16.7035
 2.3960	16.8430
 2.3950	17.0860
 2.3940	17.3778
 2.3930	17.5487
 2.3920	17.8180
 2.3910	18.0480
 2.3900	18.2227
 2.3890	18.4538
 2.3880	18.7304
 2.3870	18.9957
 2.3860	19.2273
 2.3850	19.4101
 2.3840	19.6334
 2.3830	19.9428
 2.3820	20.2282
 2.3810	20.4411
 2.3800	20.7214
 2.3790	20.9883
 2.3780	21.2763
 2.3770	21.5030
 2.3760	21.8186
 2.3750	22.0663
 2.3740	22.3189
 2.3730	22.5941
 2.3720	22.9067
 2.3710	23.1638
 2.3700	23.4028
 2.3690	23.6479
 2.3680	23.9723
 2.3670	24.2071
 2.3660	24.4609
 2.3650	24.7312
 2.3640	24.9732
 2.3630	25.2266
 2.3620	25.5553
 2.3610	25.8681
 2.3600	26.1018
 2.3590	26.3570
 2.3580	26.6219
 2.3570	26.8829
 2.3560	27.1771
 2.3550	27.4415
 2.3540	27.6820
 2.3530	27.9263
 2.3520	28.1942
 2.3510	28.4261
 2.3500	28.6740
 2.3490	28.9698
 2.3480	29.1839
 2.3470	29.4337
 2.3460	29.7435
 2.3450	29.9385
 2.3440	30.1442
 2.3430	30.4283
 2.3420	30.6356
 2.3410	30.8869
 2.3400	31.0950
 2.3390	31.3130
 2.3380	31.5588
 2.3370	31.8276
 2.3360	32.0668
 2.3350	32.2760
 2.3340	32.4547
 2.3330	32.6935
 2.3320	32.9118
 2.3310	33.1255
 2.3300	33.3214
 2.3290	33.5026
 2.3280	33.6987
 2.3270	33.9009
 2.3260	34.0612
 2.3250	34.2278
 2.3240	34.4127
 2.3230	34.6312
 2.3220	34.8189
 2.3210	35.0290
 2.3200	35.2290
 2.3190	35.4330
 2.3180	35.5652
 2.3170	35.7053
 2.3160	35.8801
 2.3150	36.0655
 2.3140	36.2060
 2.3130	36.3724
 2.3120	36.5364
 2.3110	36.7483
 2.3100	36.9043
 2.3090	37.0132
 2.3080	37.1537
 2.3070	37.3627
 2.3060	37.5355
 2.3050	37.6701
 2.3040	37.7689
 2.3030	37.9305
 2.3020	38.0415
 2.3010	38.2149
 2.3000	38.3312
 2.2990	38.5398
 2.2980	38.6410
 2.2970	38.7959
 2.2960	38.8953
 2.2950	39.0369
 2.2940	39.0827
 2.2930	39.2097
 2.2920	39.3122
 2.2910	39.4683
 2.2900	39.6046
 2.2890	39.6887
 2.2880	39.8065
 2.2870	39.9257
 2.2860	40.0497
 2.2850	40.1587
 2.2840	40.2194
 2.2830	40.3490
 2.2820	40.4330
 2.2810	40.5646
 2.2800	40.5716
 2.2790	40.7167
 2.2780	40.7749
 2.2770	40.9762
 2.2760	40.9850
 2.2750	41.1262
 2.2740	41.1834
 2.2730	41.2570
 2.2720	41.3150
 2.2710	41.4345
 2.2700	41.4988
 2.2690	41.6231
 2.2680	41.6591
 2.2670	41.7888
 2.2660	41.8041
 2.2650	41.9062
 2.2640	41.9785
 2.2630	42.0310
 2.2620	42.0972
 2.2610	42.2359
 2.2600	42.2412
 2.2590	42.3440
 2.2580	42.3270
 2.2570	42.4450
 2.2560	42.4297
 2.2550	42.6343
 2.2540	42.5896
 2.2530	42.6483
 2.2520	42.7056
 2.2510	42.7492
 2.2500	42.8365
 2.2490	42.9253
 2.2480	42.8404
 2.2470	42.9344
 2.2460	43.0268
 2.2450	43.0673
 2.2440	43.1362
 2.2430	43.1480
 2.2420	43.1915
 2.2410	43.1951
 2.2400	43.2275
 2.2390	43.2441
 2.2380	43.2774
 2.2370	43.3720
 2.2360	43.4279
 2.2350	43.4905
 2.2340	43.4274
 2.2330	43.4908
 2.2320	43.4922
 2.2310	43.5381
 2.2300	43.5367
 2.2290	43.6271
 2.2280	43.6335
 2.2270	43.6696
 2.2260	43.6344
 2.2250	43.6836
 2.2240	43.7344
 2.2230	43.8089
 2.2220	43.7540
 2.2210	43.7843
 2.2200	43.7695
 2.2190	43.8539
 2.2180	43.7053
 2.2170	43.8006
 2.2160	43.8496
 2.2150	43.8920
 2.2140	43.8240
 2.2130	43.9949
 2.2120	43.8924
 2.2110	43.9239
 2.2100	44.0108
 2.2090	44.0443
 2.2080	43.9529
 2.2070	44.0943
 2.2060	44.0167
 2.2050	44.0683
 2.2040	44.0255
 2.2030	44.1440
 2.2020	44.1166
 2.2010	44.1171
 2.2000	44.1109
 2.1990	44.1923
 2.1980	44.1919
 2.1970	44.1677
 2.1960	44.1829
 2.1950	44.1662
 2.1940	44.1602
 2.1930	44.2015
 2.1920	44.1646
 2.1910	44.1868
 2.1900	44.1540
 2.1890	44.2190
 2.1880	44.1938
 2.1870	44.1655
 2.1860	44.1718
 2.1850	44.1781
 2.1840	44.2439
 2.1830	44.2955
 2.1820	44.1956
 2.1810	44.2583
 2.1800	44.1972
 2.1790	44.2334
 2.1780	44.1727
 2.1770	44.2803
 2.1760	44.2472
 2.1750	44.2799
 2.1740	44.2356
 2.1730	44.1787
 2.1720	44.2519
 2.1710	44.2550
 2.1700	44.2369
 2.1690	44.3041
 2.1680	44.2806
 2.1670	44.3188
 2.1660	44.2474
 2.1650	44.2837
 2.1640	44.2252
 2.1630	44.2595
 2.1620	44.2003
 2.1610	44.1698
 2.1600	44.2283
 2.1590	44.2126
 2.1580	44.1568
 2.1570	44.1956
 2.1560	44.1860
 2.1550	44.1582
 2.1540	44.1073
 2.1530	44.1782
 2.1520	44.0773
 2.1510	44.0939
 2.1500	43.9992
 2.1490	43.9258
 2.1480	43.9880
 2.1470	43.9514
 2.1460	43.8784
 2.1450	43.8632
 2.1440	43.8425
 2.1430	43.8429
 2.1420	43.7666
 2.1410	43.7335
 2.1400	43.6795
 2.1390	43.6809
 2.1380	43.5869
 2.1370	43.5983
 2.1360	43.5309
 2.1350	43.4847
 2.1340	43.3818
 2.1330	43.3562
 2.1320	43.3116
 2.1310	43.2577
 2.1300	43.1504
 2.1290	43.1574
 2.1280	43.0673
 2.1270	43.0054
 2.1260	42.9260
 2.1250	42.8460
 2.1240	42.7853
 2.1230	42.7432
 2.1220	42.6467
 2.1210	42.5798
 2.1200	42.4633
 2.1190	42.3988
 2.1180	42.3738
 2.1170	42.3050
 2.1160	42.1898
 2.1150	42.1315
 2.1140	42.0711
 2.1130	41.9335
 2.1120	41.8378
 2.1110	41.7566
 2.1100	41.6610
 2.1090	41.6480
 2.1080	41.5205
 2.1070	41.3994
 2.1060	41.3072
 2.1050	41.2381
 2.1040	41.1658
 2.1030	41.0788
 2.1020	40.9972
 2.1010	40.9534
 2.1000	40.8156
 2.0990	40.7254
 2.0980	40.6623
 2.0970	40.5829
 2.0960	40.5445
 2.0950	40.4844
 2.0940	40.3943
 2.0930	40.3907
 2.0920	40.3716
 2.0910	40.2793
 2.0900	40.2018
 2.0890	40.1700
 2.0880	40.0908
 2.0870	40.0588
 2.0860	40.0173
 2.0850	39.9841
 2.0840	39.9159
 2.0830	39.8159
 2.0820	39.8226
 2.0810	39.7879
 2.0800	39.6863
 2.0790	39.6179
 2.0780	39.5836
 2.0770	39.5772
 2.0760	39.5360
 2.0750	39.5123
 2.0740	39.4430
 2.0730	39.3898
 2.0720	39.3464
 2.0710	39.3195
 2.0700	39.2689
 2.0690	39.1766
 2.0680	39.1749
 2.0670	39.1046
 2.0660	38.9943
 2.0650	38.9625
 2.0640	38.8943
 2.0630	38.8442
 2.0620	38.7957
 2.0610	38.7095
 2.0600	38.6137
 2.0590	38.5326
 2.0580	38.4506
 2.0570	38.3348
 2.0560	38.2340
 2.0550	38.1214
 2.0540	38.0370
 2.0530	37.9189
 2.0520	37.8036
 2.0510	37.6625
 2.0500	37.5350
 2.0490	37.4134
 2.0480	37.3103
 2.0470	37.1598
 2.0460	36.9923
 2.0450	36.8517
 2.0440	36.7436
 2.0430	36.5721
 2.0420	36.4231
 2.0410	36.3104
 2.0400	36.1549
 2.0390	35.9948
 2.0380	35.8463
 2.0370	35.5757
 2.0360	35.4053
 2.0350	35.1810
 2.0340	35.0795
 2.0330	34.8778
 2.0320	34.6944
 2.0310	34.4293
 2.0300	34.2525
 2.0290	33.9831
 2.0280	33.7711
 2.0270	33.5242
 2.0260	33.2848
 2.0250	33.0896
 2.0240	32.8368
 2.0230	32.5545
 2.0220	32.3601
 2.0210	32.0674
 2.0200	31.8536
 2.0190	31.5442
 2.0180	31.2813
 2.0170	31.0055
 2.0160	30.7488
 2.0150	30.5164
 2.0140	30.2262
 2.0130	29.9130
 2.0120	29.6504
 2.0110	29.3666
 2.0100	29.1523
 2.0090	28.8511
 2.0080	28.6474
 2.0070	28.3529
 2.0060	28.0657
 2.0050	27.7764
 2.0040	27.5388
 2.0030	27.2632
 2.0020	27.0165
 2.0010	26.7256
 2.0000	26.4575
 1.9990	26.2373
 1.9980	25.9725
 1.9970	25.7373
 1.9960	25.5336
 1.9950	25.2157
 1.9940	25.0004
 1.9930	24.7241
 1.9920	24.5167
 1.9910	24.2968
 1.9900	24.0342
 1.9890	23.7899
 1.9880	23.5752
 1.9870	23.3882
 1.9860	23.2074
 1.9850	22.9802
 1.9840	22.8184
 1.9830	22.6080
 1.9820	22.4260
 1.9810	22.1778
 1.9800	22.0525
 1.9790	21.8129
 1.9780	21.6976
 1.9770	21.4804
 1.9760	21.3558
 1.9750	21.1246
 1.9740	21.0306
 1.9730	20.8130
 1.9720	20.7219
 1.9710	20.4518
 1.9700	20.3358
 1.9690	20.1481
 1.9680	20.0824
 1.9670	19.8359
 1.9660	19.7022
 1.9650	19.5215
 1.9640	19.4828
 1.9630	19.2365
 1.9620	19.1277
 1.9610	18.8874
 1.9600	18.8091
 1.9590	18.5736
 1.9580	18.5465
 1.9570	18.2284
 1.9560	18.1274
 1.9550	17.9046
 1.9540	17.7049
 1.9530	17.4824
 1.9520	17.3689
 1.9510	17.0746
 1.9500	16.9757
 1.9490	16.6827
 1.9480	16.5474
 1.9470	16.2159
 1.9460	16.1512
 1.9450	15.7758
 1.9440	15.6560
 1.9430	15.3173
 1.9420	15.1811
 1.9410	14.7545
 1.9400	14.6564
 1.9390	14.2368
 1.9380	14.0660
 1.9370	13.7493
 1.9360	13.4880
 1.9350	13.1185
 1.9340	12.9118
 1.9330	12.5207
 1.9320	12.3027
 1.9310	11.9582
 1.9300	11.7233
 1.9290	11.3602
 1.9280	11.0926
 1.9270	10.8416
 1.9260	10.3905
 1.9250	10.3259
 1.9240	10.0669
 1.9230	 9.6982
 1.9220	 9.5462
 1.9210	 9.2978
 1.9200	 9.2167
 1.9190	 8.9681
 1.9180	 8.9315
 1.9170	 8.7934
 1.9160	 8.7254
 1.9150	 8.6175
 1.9140	 8.7923
 1.9130	 8.7379
 1.9120	 8.8249
 1.9110	 8.9156
 1.9100	 9.2916
 1.9090	 9.3173
 1.9080	 9.7613
 1.9070	10.0286
 1.9060	10.5286
 1.9050	11.0571
 1.9040	11.8268
 1.9030	12.4712
 1.9020	13.2492
 1.9010	14.1298
 1.9000	15.1697
 1.8990	16.1047
 1.8980	17.0604
 1.8970	18.0789
 1.8960	19.2621
 1.8950	20.3565
 1.8940	21.4535
 1.8930	22.5731
 1.8920	23.7902
 1.8910	24.9020
 1.8900	26.1633
 1.8890	27.2315
 1.8880	28.4394
 1.8870	29.4458
 1.8860	30.5666
 1.8850	31.4729
 1.8840	32.6631
 1.8830	33.4888
 1.8820	34.4890
 1.8810	35.3151
 1.8800	36.2181
 1.8790	36.9653
 1.8780	37.8309
 1.8770	38.4857
 1.8760	39.2459
 1.8750	39.9213
 1.8740	40.7205
 1.8730	41.4468
 1.8720	42.2727
 1.8710	42.9883
 1.8700	43.6958
 1.8690	44.2858
 1.8680	44.9228
 1.8670	45.4277
 1.8660	45.9784
 1.8650	46.4242
 1.8640	46.9108
 1.8630	47.2500
 1.8620	47.7242
 1.8610	48.0328
 1.8600	48.4414
 1.8590	48.7661
 1.8580	49.1531
 1.8570	49.5084
 1.8560	49.8758
 1.8550	50.0824
 1.8540	50.4283
 1.8530	50.7127
 1.8520	51.0698
 1.8510	51.2929
 1.8500	51.5027
 1.8490	51.7556
 1.8480	51.9669
 1.8470	52.1479
 1.8460	52.3797
 1.8450	52.5929
 1.8440	52.7995
 1.8430	52.8934
 1.8420	53.0711
 1.8410	53.2475
 1.8400	53.4654
 1.8390	53.5320
 1.8380	53.6588
 1.8370	53.8118
 1.8360	53.9632
 1.8350	54.0632
 1.8340	54.1799
 1.8330	54.2855
 1.8320	54.4174
 1.8310	54.5423
 1.8300	54.6002
 1.8290	54.7301
 1.8280	54.7387
 1.8270	54.8007
 1.8260	54.9360
 1.8250	54.9800
 1.8240	55.0668
 1.8230	55.0769
 1.8220	55.1396
 1.8210	55.1433
 1.8200	55.2421
 1.8190	55.3774
 1.8180	55.4065
 1.8170	55.3958
 1.8160	55.4741
 1.8150	55.5476
 1.8140	55.5739
 1.8130	55.6087
 1.8120	55.6764
 1.8110	55.6871
 1.8100	55.7401
 1.8090	55.8083
 1.8080	55.8821
 1.8070	55.9016
 1.8060	55.9040
 1.8050	56.0029
 1.8040	56.0822
 1.8030	56.1035
 1.8020	56.1383
 1.8010	56.1752
 1.8000	56.2104
 1.7990	56.2436
 1.7980	56.2926
 1.7970	56.3191
 1.7960	56.3816
 1.7950	56.4288
 1.7940	56.4660
 1.7930	56.5018
 1.7920	56.5410
 1.7910	56.5863
 1.7900	56.6339
 1.7890	56.6877
 1.7880	56.7275
 1.7870	56.7296
 1.7860	56.7750
 1.7850	56.8248
 1.7840	56.8337
 1.7830	56.9015
 1.7820	56.9343
 1.7810	56.9158
 1.7800	56.9767
 1.7790	57.0194
 1.7780	57.0362
 1.7770	57.0755
 1.7760	57.0828
 1.7750	57.1195
 1.7740	57.1431
 1.7730	57.2225
 1.7720	57.2962
 1.7710	57.2780
 1.7700	57.2666
 1.7690	57.2893
 1.7680	57.3320
 1.7670	57.3743
 1.7660	57.4338
 1.7650	57.4506
 1.7640	57.4641
 1.7630	57.5375
 1.7620	57.5330
 1.7610	57.5850
 1.7600	57.6475
 1.7590	57.6865
 1.7580	57.7368
 1.7570	57.8314
 1.7560	57.7957
 1.7550	57.8793
 1.7540	57.9848
 1.7530	58.0045
 1.7520	58.0530
 1.7510	58.1278
 1.7500	58.1566
 1.7490	58.2384
 1.7480	58.3569
 1.7470	58.4355
 1.7460	58.4674
 1.7450	58.5786
 1.7440	58.6963
 1.7430	58.8708
 1.7420	58.9342
 1.7410	59.0486
 1.7400	59.1518
 1.7390	59.2625
 1.7380	59.3808
 1.7370	59.5239
 1.7360	59.6335
 1.7350	59.7823
 1.7340	59.9343
 1.7330	60.0925
 1.7320	60.2283
 1.7310	60.3108
 1.7300	60.4756
 1.7290	60.6744
 1.7280	60.8389
 1.7270	60.9791
 1.7260	61.1274
 1.7250	61.3394
 1.7240	61.4201
 1.7230	61.5075
 1.7220	61.6774
 1.7210	61.8564
 1.7200	62.0361
 1.7190	62.2291
 1.7180	62.3522
 1.7170	62.4251
 1.7160	62.5702
 1.7150	62.6734
 1.7140	62.8200
 1.7130	62.9458
 1.7120	63.0059
 1.7110	63.2316
 1.7100	63.2819
 1.7090	63.3506
 1.7080	63.4269
 1.7070	63.5571
 1.7060	63.6355
 1.7050	63.8011
 1.7040	63.8600
 1.7030	63.8638
 1.7020	63.9035
 1.7010	64.0115
 1.7000	64.0499
 1.6990	64.1182
 1.6980	64.2399
 1.6970	64.2295
 1.6960	64.1852
 1.6950	64.2927
 1.6940	64.3234
 1.6930	64.4086
 1.6920	64.4147
 1.6910	64.4153
 1.6900	64.4536
 1.6890	64.5263
 1.6880	64.4444
 1.6870	64.5345
 1.6860	64.5173
 1.6850	64.5549
 1.6840	64.4706
 1.6830	64.4819
 1.6820	64.4983
 1.6810	64.4937
 1.6800	64.4298
 1.6790	64.4817
 1.6780	64.4726
 1.6770	64.4753
 1.6760	64.4380
 1.6750	64.4713
 1.6740	64.4370
 1.6730	64.4236
 1.6720	64.4754
 1.6710	64.4211
 1.6700	64.3526
 1.6690	64.4436
 1.6680	64.3270
 1.6670	64.3285
 1.6660	64.3073
 1.6650	64.3459
 1.6640	64.2585
 1.6630	64.2896
 1.6620	64.1379
 1.6610	64.1498
 1.6600	64.1062
 1.6590	64.1348
 1.6580	64.0817
 1.6570	64.0926
 1.6560	64.1384
 1.6550	64.0772
 1.6540	63.9350
 1.6530	63.9565
 1.6520	63.9429
 1.6510	63.9104
 1.6500	63.8701
 1.6490	63.8365
 1.6480	63.6704
 1.6470	63.7833
 1.6460	63.7678
 1.6450	63.6785
 1.6440	63.6170
 1.6430	63.6435
 1.6420	63.6398
 1.6410	63.4591
 1.6400	63.5737
 1.6390	63.4488
 1.6380	63.4132
 1.6370	63.3848
 1.6360	63.3269
 1.6350	63.3648
 1.6340	63.3327
 1.6330	63.2638
 1.6320	63.3240
 1.6310	63.2127
 1.6300	63.1586
 1.6290	63.1832
 1.6280	63.0756
 1.6270	63.0504
 1.6260	63.0799
 1.6250	63.0127
 1.6240	62.9689
 1.6230	62.9370
 1.6220	62.8739
 1.6210	62.8706
 1.6200	62.9308
 1.6190	62.8140
 1.6180	62.8279
 1.6170	62.7830
 1.6160	62.7011
 1.6150	62.6966
 1.6140	62.7029
 1.6130	62.6292
 1.6120	62.6065
 1.6110	62.6333
 1.6100	62.6187
 1.6090	62.4937
 1.6080	62.5256
 1.6070	62.4931
 1.6060	62.4704
 1.6050	62.5145
 1.6040	62.4516
 1.6030	62.4288
 1.6020	62.3579
 1.6010	62.4591
 1.6000	62.3286
 1.5990	62.3110
 1.5980	62.3234
 1.5970	62.3252
 1.5960	62.2287
 1.5950	62.2980
 1.5940	62.2863
 1.5930	62.2321
 1.5920	62.1578
 1.5910	62.2327
 1.5900	62.1334
 1.5890	62.0826
 1.5880	62.1223
 1.5870	62.1324
 1.5860	62.1037
 1.5850	62.0328
 1.5840	62.0151
 1.5830	61.9460
 1.5820	62.0007
 1.5810	62.0091
 1.5800	61.8804
 1.5790	61.9217
 1.5780	61.8342
 1.5770	61.8828
 1.5760	61.8065
 1.5750	61.8130
 1.5740	61.6986
 1.5730	61.6713
 1.5720	61.6999
 1.5710	61.7077
 1.5700	61.6818
 1.5690	61.6450
 1.5680	61.6204
 1.5670	61.5673
 1.5660	61.5629
 1.5650	61.5771
 1.5640	61.4851
 1.5630	61.4639
 1.5620	61.4557
 1.5610	61.3773
 1.5600	61.3355
 1.5590	61.3190
 1.5580	61.2938
 1.5570	61.2463
 1.5560	61.1774
 1.5550	61.1733
 1.5540	61.1255
 1.5530	61.0947
 1.5520	61.0324
 1.5510	60.9951
 1.5500	60.9629
 1.5490	60.9111
 1.5480	60.7872
 1.5470	60.7882
 1.5460	60.7694
 1.5450	60.7111
 1.5440	60.6747
 1.5430	60.5958
 1.5420	60.5336
 1.5410	60.4496
 1.5400	60.3837
 1.5390	60.3296
 1.5380	60.1796
 1.5370	60.0464
 1.5360	60.0184
 1.5350	60.0172
 1.5340	59.9074
 1.5330	59.8015
 1.5320	59.7468
 1.5310	59.6631
 1.5300	59.5657
 1.5290	59.4773
 1.5280	59.3685
 1.5270	59.2516
 1.5260	59.1248
 1.5250	59.0103
 1.5240	58.8227
 1.5230	58.8035
 1.5220	58.7203
 1.5210	58.5941
 1.5200	58.4526
 1.5190	58.3226
 1.5180	58.1625
 1.5170	57.9868
 1.5160	57.8553
 1.5150	57.7009
 1.5140	57.5280
 1.5130	57.3768
 1.5120	57.2111
 1.5110	57.0117
 1.5100	56.8938
 1.5090	56.7082
 1.5080	56.4373
 1.5070	56.2451
 1.5060	56.0533
 1.5050	55.8412
 1.5040	55.6184
 1.5030	55.3776
 1.5020	55.1136
 1.5010	54.8631
 1.5000	54.6294
 1.4990	54.3797
 1.4980	54.1271
 1.4970	53.8731
 1.4960	53.5850
 1.4950	53.2816
 1.4940	52.9909
 1.4930	52.7130
 1.4920	52.4520
 1.4910	52.1222
 1.4900	51.8033
 1.4890	51.4786
 1.4880	51.1810
 1.4870	50.7699
 1.4860	50.3990
 1.4850	50.0220
 1.4840	49.6424
 1.4830	49.2717
 1.4820	48.8737
 1.4810	48.4460
 1.4800	47.9696
 1.4790	47.5168
 1.4780	47.1436
 1.4770	46.7272
 1.4760	46.2964
 1.4750	45.8882
 1.4740	45.5451
 1.4730	45.1754
 1.4720	44.8366
 1.4710	44.6097
 1.4700	44.3840
 1.4690	44.2354
 1.4680	44.1929
 1.4670	44.1508
 1.4660	44.1821
 1.4650	44.2415
 1.4640	44.2558
 1.4630	44.3303
 1.4620	44.3540
 1.4610	44.3531
 1.4600	44.3983
 1.4590	44.3043
 1.4580	44.2242
 1.4570	44.1289
 1.4560	43.9435
 1.4550	43.7153
 1.4540	43.5251
 1.4530	43.2770
 1.4520	42.9907
 1.4510	42.6250
 1.4500	42.3013
 1.4490	42.0017
 1.4480	41.6249
 1.4470	41.2416
 1.4460	40.9068
 1.4450	40.4800
 1.4440	40.0783
 1.4430	39.6461
 1.4420	39.3096
 1.4410	38.8211
 1.4400	38.4645
 1.4390	38.0741
 1.4380	37.7012
 1.4370	37.2680
 1.4360	37.0093
 1.4350	36.6185
 1.4340	36.3215
 1.4330	35.9384
 1.4320	35.6022
 1.4310	35.3065
 1.4300	35.0696
 1.4290	34.8051
 1.4280	34.6543
 1.4270	34.4067
 1.4260	34.2707
 1.4250	34.1153
 1.4240	34.0883
 1.4230	34.0118
 1.4220	34.0560
 1.4210	34.1589
 1.4200	34.2641
 1.4190	34.3192
 1.4180	34.6014
 1.4170	34.8414
 1.4160	35.2176
 1.4150	35.6408
 1.4140	36.0937
 1.4130	36.5938
 1.4120	37.1528
 1.4110	37.7690
 1.4100	38.5158
 1.4090	39.1920
 1.4080	39.9883
 1.4070	40.7051
 1.4060	41.6826
 1.4050	42.6701
 1.4040	43.5601
 1.4030	44.3538
 1.4020	45.3479
 1.4010	46.3022
 1.4000	47.3159
 1.3990	48.1882
 1.3980	49.1714
 1.3970	50.0064
 1.3960	51.0114
 1.3950	51.9291
 1.3940	52.7338
 1.3930	53.5133
 1.3920	54.2688
 1.3910	55.1400
 1.3900	55.7805
 1.3890	56.3593
 1.3880	57.0458
 1.3870	57.7147
 1.3860	58.3104
 1.3850	58.9139
 1.3840	59.4944
 1.3830	60.0623
 1.3820	60.5420
 1.3810	61.0665
 1.3800	61.5705
 1.3790	62.0241
 1.3780	62.3191
 1.3770	62.6569
 1.3760	63.0858
 1.3750	63.3725
 1.3740	63.7325
 1.3730	64.0782
 1.3720	64.3354
 1.3710	64.6876
 1.3700	64.9332
 1.3690	65.2505
 1.3680	65.6051
 1.3670	65.8182
