Name: Sepiolite Mg_4Si_6O_15(OH)_2.6H_2O
Type: Mineral
Class: Silicate
Subclass: Phyllosilicate
Particle Size: Medium
Sample No.: PS-5A
Owner: JPL
Wavelength Range: VSWIR
Origin: USA, Nevada, Two Crows.
Collection Date: N/A
Description: Particle size was 45-125um.Collected by:  Clay Mineral Society Original ASTER Spectral Library name was jpl.perkin.mineral.silicate.phyllosilicate.medium.ps05a.spectrum.txt
Measurement: Hemispherical reflectance
First Column: X
Second Column: Y
X Units: Wavelength (micrometers)
Y Units:Reflectance (percent)
First X Value:  2.5000
Last X Value:  0.4000
Number of X Values: 2101
Additional Information: mineral.silicate.phyllosilicate.medium.vswir.ps-5a.jpl.perkin.ancillary.txt

 2.5000	32.0954
 2.4990	31.7784
 2.4980	32.3315
 2.4970	32.4172
 2.4960	32.1889
 2.4950	32.4059
 2.4940	32.5599
 2.4930	32.6522
 2.4920	32.9320
 2.4910	32.7782
 2.4900	33.1505
 2.4890	32.9687
 2.4880	33.2876
 2.4870	33.1385
 2.4860	33.5766
 2.4850	33.3734
 2.4840	33.7331
 2.4830	33.7053
 2.4820	34.0168
 2.4810	33.9538
 2.4800	34.0168
 2.4790	34.1892
 2.4780	34.3014
 2.4770	34.4197
 2.4760	34.5557
 2.4750	34.5128
 2.4740	34.8546
 2.4730	34.8302
 2.4720	35.0047
 2.4710	35.1106
 2.4700	35.2320
 2.4690	35.2439
 2.4680	35.4030
 2.4670	35.5286
 2.4660	35.7103
 2.4650	35.6873
 2.4640	35.8693
 2.4630	35.8838
 2.4620	36.0719
 2.4610	36.1436
 2.4600	36.2816
 2.4590	36.2096
 2.4580	36.5007
 2.4570	36.4801
 2.4560	36.7067
 2.4550	36.6240
 2.4540	36.7077
 2.4530	36.8174
 2.4520	36.8867
 2.4510	36.8906
 2.4500	37.0490
 2.4490	37.0344
 2.4480	37.2055
 2.4470	37.2247
 2.4460	37.3246
 2.4450	37.2438
 2.4440	37.4361
 2.4430	37.3977
 2.4420	37.6310
 2.4410	37.5683
 2.4400	37.7369
 2.4390	37.6532
 2.4380	37.7723
 2.4370	37.7528
 2.4360	37.8838
 2.4350	37.8255
 2.4340	37.9973
 2.4330	37.9573
 2.4320	38.0444
 2.4310	38.0736
 2.4300	38.1371
 2.4290	38.1425
 2.4280	38.3448
 2.4270	38.4124
 2.4260	38.4799
 2.4250	38.5144
 2.4240	38.5356
 2.4230	38.6130
 2.4220	38.8174
 2.4210	38.8178
 2.4200	38.8395
 2.4190	38.8998
 2.4180	39.0273
 2.4170	38.9262
 2.4160	39.0050
 2.4150	39.1348
 2.4140	39.2825
 2.4130	39.2369
 2.4120	39.3845
 2.4110	39.3829
 2.4100	39.5351
 2.4090	39.5683
 2.4080	39.6809
 2.4070	39.7351
 2.4060	39.8063
 2.4050	39.8471
 2.4040	39.9293
 2.4030	39.9362
 2.4020	40.0360
 2.4010	40.0748
 2.4000	40.2044
 2.3990	40.1376
 2.3980	40.2409
 2.3970	40.2633
 2.3960	40.3479
 2.3950	40.3576
 2.3940	40.4109
 2.3930	40.3803
 2.3920	40.5102
 2.3910	40.5169
 2.3900	40.6079
 2.3890	40.6437
 2.3880	40.6992
 2.3870	40.7895
 2.3860	40.9448
 2.3850	41.0509
 2.3840	41.2034
 2.3830	41.3798
 2.3820	41.5293
 2.3810	41.7134
 2.3800	41.9682
 2.3790	42.1362
 2.3780	42.3718
 2.3770	42.5575
 2.3760	42.7780
 2.3750	43.0842
 2.3740	43.3472
 2.3730	43.5819
 2.3720	43.8397
 2.3710	44.1221
 2.3700	44.3292
 2.3690	44.5129
 2.3680	44.8264
 2.3670	45.0623
 2.3660	45.2602
 2.3650	45.4411
 2.3640	45.6283
 2.3630	45.8554
 2.3620	46.0563
 2.3610	46.2150
 2.3600	46.3860
 2.3590	46.5470
 2.3580	46.7965
 2.3570	46.9477
 2.3560	47.0623
 2.3550	47.3074
 2.3540	47.4676
 2.3530	47.5332
 2.3520	47.6654
 2.3510	47.8540
 2.3500	48.0498
 2.3490	48.2421
 2.3480	48.3482
 2.3470	48.4846
 2.3460	48.6337
 2.3450	48.8030
 2.3440	48.9588
 2.3430	49.0585
 2.3420	49.1323
 2.3410	49.2805
 2.3400	49.3634
 2.3390	49.3826
 2.3380	49.4320
 2.3370	49.5119
 2.3360	49.5004
 2.3350	49.4984
 2.3340	49.4832
 2.3330	49.4501
 2.3320	49.3588
 2.3310	49.2423
 2.3300	49.1652
 2.3290	49.0462
 2.3280	48.8373
 2.3270	48.6499
 2.3260	48.4520
 2.3250	48.2710
 2.3240	48.0018
 2.3230	47.7982
 2.3220	47.5738
 2.3210	47.4063
 2.3200	47.1645
 2.3190	46.9568
 2.3180	46.7429
 2.3170	46.6417
 2.3160	46.4702
 2.3150	46.3755
 2.3140	46.2983
 2.3130	46.3056
 2.3120	46.2826
 2.3110	46.3474
 2.3100	46.4124
 2.3090	46.5366
 2.3080	46.6034
 2.3070	46.8177
 2.3060	47.0094
 2.3050	47.1776
 2.3040	47.4603
 2.3030	47.6952
 2.3020	47.9502
 2.3010	48.2279
 2.3000	48.4224
 2.2990	48.7410
 2.2980	48.9887
 2.2970	49.1781
 2.2960	49.3255
 2.2950	49.5626
 2.2940	49.7739
 2.2930	49.9215
 2.2920	50.1000
 2.2910	50.3128
 2.2900	50.4675
 2.2890	50.7001
 2.2880	50.8590
 2.2870	51.1500
 2.2860	51.3658
 2.2850	51.6254
 2.2840	51.7964
 2.2830	52.0776
 2.2820	52.3160
 2.2810	52.5843
 2.2800	52.8789
 2.2790	53.2156
 2.2780	53.4765
 2.2770	53.7194
 2.2760	53.8980
 2.2750	54.1674
 2.2740	54.3783
 2.2730	54.5975
 2.2720	54.7787
 2.2710	54.9212
 2.2700	55.1021
 2.2690	55.3188
 2.2680	55.4109
 2.2670	55.4481
 2.2660	55.6453
 2.2650	55.7900
 2.2640	55.8854
 2.2630	56.0355
 2.2620	56.1186
 2.2610	56.2205
 2.2600	56.2812
 2.2590	56.3582
 2.2580	56.4539
 2.2570	56.6116
 2.2560	56.5837
 2.2550	56.7272
 2.2540	56.7852
 2.2530	56.8520
 2.2520	56.9222
 2.2510	57.1203
 2.2500	57.1411
 2.2490	57.2342
 2.2480	57.2309
 2.2470	57.2653
 2.2460	57.3525
 2.2450	57.4023
 2.2440	57.3910
 2.2430	57.4876
 2.2420	57.4364
 2.2410	57.5564
 2.2400	57.5198
 2.2390	57.6406
 2.2380	57.6558
 2.2370	57.6491
 2.2360	57.7304
 2.2350	57.7005
 2.2340	57.6576
 2.2330	57.8301
 2.2320	57.7847
 2.2310	57.8631
 2.2300	57.8103
 2.2290	57.8652
 2.2280	57.8741
 2.2270	57.9341
 2.2260	57.9611
 2.2250	58.0539
 2.2240	58.0927
 2.2230	58.1207
 2.2220	58.1022
 2.2210	58.2042
 2.2200	58.1673
 2.2190	58.3214
 2.2180	58.2508
 2.2170	58.4651
 2.2160	58.4776
 2.2150	58.5166
 2.2140	58.5462
 2.2130	58.6079
 2.2120	58.6332
 2.2110	58.6525
 2.2100	58.7883
 2.2090	58.8695
 2.2080	58.9316
 2.2070	58.9932
 2.2060	59.0496
 2.2050	59.1567
 2.2040	59.1733
 2.2030	59.3040
 2.2020	59.2382
 2.2010	59.3876
 2.2000	59.3518
 2.1990	59.4150
 2.1980	59.4913
 2.1970	59.5374
 2.1960	59.5537
 2.1950	59.7162
 2.1940	59.6494
 2.1930	59.6271
 2.1920	59.6345
 2.1910	59.6896
 2.1900	59.7430
 2.1890	59.8134
 2.1880	59.8046
 2.1870	59.8350
 2.1860	59.8496
 2.1850	59.8514
 2.1840	59.8761
 2.1830	59.9422
 2.1820	59.9582
 2.1810	60.0703
 2.1800	60.0962
 2.1790	60.1484
 2.1780	60.1440
 2.1770	60.1986
 2.1760	60.1791
 2.1750	60.2420
 2.1740	60.1889
 2.1730	60.2695
 2.1720	60.3497
 2.1710	60.3756
 2.1700	60.3636
 2.1690	60.4044
 2.1680	60.4117
 2.1670	60.5248
 2.1660	60.4019
 2.1650	60.5540
 2.1640	60.4415
 2.1630	60.5368
 2.1620	60.4532
 2.1610	60.5385
 2.1600	60.6029
 2.1590	60.6169
 2.1580	60.5323
 2.1570	60.5258
 2.1560	60.5526
 2.1550	60.6820
 2.1540	60.6045
 2.1530	60.6376
 2.1520	60.6410
 2.1510	60.6447
 2.1500	60.6270
 2.1490	60.5981
 2.1480	60.5726
 2.1470	60.6404
 2.1460	60.6287
 2.1450	60.6634
 2.1440	60.6317
 2.1430	60.6646
 2.1420	60.6224
 2.1410	60.6528
 2.1400	60.6595
 2.1390	60.6472
 2.1380	60.6611
 2.1370	60.6583
 2.1360	60.6393
 2.1350	60.6951
 2.1340	60.6162
 2.1330	60.6217
 2.1320	60.6256
 2.1310	60.6063
 2.1300	60.5794
 2.1290	60.4866
 2.1280	60.3747
 2.1270	60.4063
 2.1260	60.3194
 2.1250	60.2744
 2.1240	60.2599
 2.1230	60.1840
 2.1220	60.0845
 2.1210	60.0970
 2.1200	60.0007
 2.1190	59.9186
 2.1180	59.8737
 2.1170	59.8393
 2.1160	59.7662
 2.1150	59.6789
 2.1140	59.6584
 2.1130	59.6148
 2.1120	59.5106
 2.1110	59.4826
 2.1100	59.3994
 2.1090	59.3418
 2.1080	59.2743
 2.1070	59.2371
 2.1060	59.1324
 2.1050	59.0617
 2.1040	58.9659
 2.1030	58.8944
 2.1020	58.7910
 2.1010	58.7677
 2.1000	58.6636
 2.0990	58.6157
 2.0980	58.5606
 2.0970	58.4874
 2.0960	58.4371
 2.0950	58.4547
 2.0940	58.3861
 2.0930	58.3251
 2.0920	58.3002
 2.0910	58.2902
 2.0900	58.3078
 2.0890	58.2989
 2.0880	58.2344
 2.0870	58.1854
 2.0860	58.1324
 2.0850	58.1136
 2.0840	58.0797
 2.0830	58.0660
 2.0820	58.0160
 2.0810	57.9511
 2.0800	57.8931
 2.0790	57.8460
 2.0780	57.8347
 2.0770	57.8236
 2.0760	57.8483
 2.0750	57.8528
 2.0740	57.8187
 2.0730	57.7412
 2.0720	57.6656
 2.0710	57.6758
 2.0700	57.6620
 2.0690	57.6266
 2.0680	57.5866
 2.0670	57.5400
 2.0660	57.5349
 2.0650	57.4645
 2.0640	57.4095
 2.0630	57.3806
 2.0620	57.3488
 2.0610	57.2762
 2.0600	57.2557
 2.0590	57.2895
 2.0580	57.2431
 2.0570	57.1803
 2.0560	57.1633
 2.0550	57.1409
 2.0540	57.1091
 2.0530	57.0298
 2.0520	57.0302
 2.0510	56.9949
 2.0500	56.9361
 2.0490	56.8649
 2.0480	56.8399
 2.0470	56.7923
 2.0460	56.7044
 2.0450	56.6607
 2.0440	56.6375
 2.0430	56.5763
 2.0420	56.5425
 2.0410	56.4639
 2.0400	56.3629
 2.0390	56.2400
 2.0380	56.1298
 2.0370	56.0256
 2.0360	55.9952
 2.0350	55.8818
 2.0340	55.7581
 2.0330	55.6387
 2.0320	55.5528
 2.0310	55.4117
 2.0300	55.2962
 2.0290	55.1099
 2.0280	55.0262
 2.0270	54.9013
 2.0260	54.7674
 2.0250	54.5973
 2.0240	54.4463
 2.0230	54.2696
 2.0220	54.1381
 2.0210	53.9329
 2.0200	53.7964
 2.0190	53.6689
 2.0180	53.5248
 2.0170	53.3742
 2.0160	53.1674
 2.0150	52.9942
 2.0140	52.8691
 2.0130	52.6486
 2.0120	52.5229
 2.0110	52.2775
 2.0100	52.1726
 2.0090	52.0316
 2.0080	51.8682
 2.0070	51.6474
 2.0060	51.5510
 2.0050	51.3521
 2.0040	51.1558
 2.0030	50.9316
 2.0020	50.7838
 2.0010	50.5354
 2.0000	50.3775
 1.9990	50.1835
 1.9980	49.9568
 1.9970	49.7896
 1.9960	49.6234
 1.9950	49.3851
 1.9940	49.2033
 1.9930	49.0094
 1.9920	48.8662
 1.9910	48.6769
 1.9900	48.5315
 1.9890	48.3951
 1.9880	48.2900
 1.9870	48.1104
 1.9860	47.9189
 1.9850	47.7714
 1.9840	47.6465
 1.9830	47.4754
 1.9820	47.4221
 1.9810	47.2777
 1.9800	47.1730
 1.9790	47.0363
 1.9780	46.9679
 1.9770	46.8585
 1.9760	46.8290
 1.9750	46.6682
 1.9740	46.6783
 1.9730	46.5334
 1.9720	46.4643
 1.9710	46.3021
 1.9700	46.3549
 1.9690	46.2775
 1.9680	46.2113
 1.9670	46.0915
 1.9660	46.0991
 1.9650	45.9646
 1.9640	46.0195
 1.9630	45.9644
 1.9620	45.8580
 1.9610	45.7338
 1.9600	45.8659
 1.9590	45.5960
 1.9580	45.5945
 1.9570	45.3783
 1.9560	45.4196
 1.9550	45.3023
 1.9540	45.2706
 1.9530	45.1155
 1.9520	45.0730
 1.9510	44.9025
 1.9500	44.9118
 1.9490	44.6596
 1.9480	44.6502
 1.9470	44.4685
 1.9460	44.5208
 1.9450	44.2627
 1.9440	44.1455
 1.9430	43.9906
 1.9420	43.8974
 1.9410	43.6058
 1.9400	43.4853
 1.9390	43.1736
 1.9380	42.9635
 1.9370	42.6631
 1.9360	42.4051
 1.9350	41.8885
 1.9340	41.5087
 1.9330	41.1104
 1.9320	40.7111
 1.9310	40.0816
 1.9300	39.6296
 1.9290	38.9351
 1.9280	38.4376
 1.9270	37.8927
 1.9260	37.2195
 1.9250	36.7321
 1.9240	36.1739
 1.9230	35.5612
 1.9220	35.2199
 1.9210	34.7415
 1.9200	34.3868
 1.9190	34.1372
 1.9180	33.9078
 1.9170	33.6888
 1.9160	33.7827
 1.9150	33.6240
 1.9140	33.6788
 1.9130	33.7128
 1.9120	33.8559
 1.9110	33.8858
 1.9100	34.0956
 1.9090	34.1936
 1.9080	34.5372
 1.9070	34.7463
 1.9060	35.1291
 1.9050	35.4458
 1.9040	36.0718
 1.9030	36.6737
 1.9020	37.3986
 1.9010	38.0948
 1.9000	39.0468
 1.8990	39.8305
 1.8980	40.8626
 1.8970	41.7562
 1.8960	42.8794
 1.8950	43.9166
 1.8940	44.9558
 1.8930	46.0300
 1.8920	47.1856
 1.8910	48.1878
 1.8900	49.2174
 1.8890	50.1243
 1.8880	51.1806
 1.8870	52.0484
 1.8860	52.9994
 1.8850	53.7938
 1.8840	54.6666
 1.8830	55.2930
 1.8820	56.1566
 1.8810	56.8175
 1.8800	57.5792
 1.8790	58.2138
 1.8780	58.8458
 1.8770	59.4707
 1.8760	60.1588
 1.8750	60.6761
 1.8740	61.3384
 1.8730	61.8287
 1.8720	62.5053
 1.8710	63.0337
 1.8700	63.5824
 1.8690	64.0506
 1.8680	64.5549
 1.8670	64.8481
 1.8660	65.1323
 1.8650	65.3655
 1.8640	65.6322
 1.8630	65.7934
 1.8620	65.9839
 1.8610	66.1916
 1.8600	66.4151
 1.8590	66.6050
 1.8580	66.8351
 1.8570	66.9925
 1.8560	67.1338
 1.8550	67.2477
 1.8540	67.3515
 1.8530	67.3997
 1.8520	67.5692
 1.8510	67.6687
 1.8500	67.7811
 1.8490	67.8159
 1.8480	67.9309
 1.8470	68.0171
 1.8460	68.1758
 1.8450	68.1911
 1.8440	68.2198
 1.8430	68.2326
 1.8420	68.3363
 1.8410	68.3314
 1.8400	68.3817
 1.8390	68.4668
 1.8380	68.5900
 1.8370	68.6131
 1.8360	68.6750
 1.8350	68.7031
 1.8340	68.7403
 1.8330	68.7376
 1.8320	68.7975
 1.8310	68.7985
 1.8300	68.9032
 1.8290	68.9156
 1.8280	68.9253
 1.8270	68.9556
 1.8260	68.9441
 1.8250	68.9296
 1.8240	68.9453
 1.8230	69.0096
 1.8220	69.0304
 1.8210	69.0066
 1.8200	69.0572
 1.8190	69.0327
 1.8180	69.0364
 1.8170	69.0384
 1.8160	69.1018
 1.8150	69.1428
 1.8140	69.1208
 1.8130	69.1190
 1.8120	69.1095
 1.8110	69.0873
 1.8100	69.1061
 1.8090	69.0457
 1.8080	69.0173
 1.8070	69.0363
 1.8060	69.0678
 1.8050	69.0331
 1.8040	69.0877
 1.8030	69.1421
 1.8020	69.1050
 1.8010	69.0112
 1.8000	69.0256
 1.7990	69.0470
 1.7980	69.0561
 1.7970	69.0747
 1.7960	69.0489
 1.7950	68.9940
 1.7940	68.9865
 1.7930	69.0338
 1.7920	69.0780
 1.7910	69.0897
 1.7900	69.1114
 1.7890	69.0943
 1.7880	69.1579
 1.7870	69.2327
 1.7860	69.1864
 1.7850	69.1806
 1.7840	69.2252
 1.7830	69.2412
 1.7820	69.2817
 1.7810	69.3755
 1.7800	69.3751
 1.7790	69.4049
 1.7780	69.4967
 1.7770	69.4935
 1.7760	69.5420
 1.7750	69.6045
 1.7740	69.6651
 1.7730	69.6958
 1.7720	69.6761
 1.7710	69.7446
 1.7700	69.7639
 1.7690	69.8328
 1.7680	69.9113
 1.7670	69.9349
 1.7660	69.9602
 1.7650	70.0184
 1.7640	70.0313
 1.7630	70.0745
 1.7620	70.1420
 1.7610	70.2471
 1.7600	70.2703
 1.7590	70.2915
 1.7580	70.3344
 1.7570	70.3896
 1.7560	70.4243
 1.7550	70.4359
 1.7540	70.5105
 1.7530	70.5676
 1.7520	70.5720
 1.7510	70.6575
 1.7500	70.6901
 1.7490	70.7089
 1.7480	70.7183
 1.7470	70.7636
 1.7460	70.7230
 1.7450	70.7724
 1.7440	70.8660
 1.7430	70.8889
 1.7420	70.8764
 1.7410	70.9574
 1.7400	70.9946
 1.7390	71.0143
 1.7380	71.0006
 1.7370	71.0837
 1.7360	71.0786
 1.7350	71.0864
 1.7340	71.1554
 1.7330	71.1751
 1.7320	71.1940
 1.7310	71.2682
 1.7300	71.2659
 1.7290	71.2546
 1.7280	71.3010
 1.7270	71.3578
 1.7260	71.3113
 1.7250	71.3706
 1.7240	71.3908
 1.7230	71.4598
 1.7220	71.4155
 1.7210	71.4830
 1.7200	71.5680
 1.7190	71.6226
 1.7180	71.6265
 1.7170	71.6404
 1.7160	71.5850
 1.7150	71.6440
 1.7140	71.7198
 1.7130	71.7604
 1.7120	71.7523
 1.7110	71.7501
 1.7100	71.8221
 1.7090	71.9198
 1.7080	71.8710
 1.7070	71.8949
 1.7060	71.8935
 1.7050	72.0227
 1.7040	72.0125
 1.7030	71.9792
 1.7020	71.9728
 1.7010	71.9869
 1.7000	71.9834
 1.6990	72.0834
 1.6980	72.0509
 1.6970	72.0936
 1.6960	72.0727
 1.6950	72.1407
 1.6940	72.0697
 1.6930	72.1140
 1.6920	72.1373
 1.6910	72.1963
 1.6900	72.1248
 1.6890	72.2142
 1.6880	72.1656
 1.6870	72.2428
 1.6860	72.2141
 1.6850	72.2222
 1.6840	72.2025
 1.6830	72.1653
 1.6820	72.2261
 1.6810	72.2456
 1.6800	72.1410
 1.6790	72.2647
 1.6780	72.2155
 1.6770	72.2286
 1.6760	72.2263
 1.6750	72.1784
 1.6740	72.2424
 1.6730	72.2585
 1.6720	72.2419
 1.6710	72.2945
 1.6700	72.2596
 1.6690	72.2540
 1.6680	72.1957
 1.6670	72.2090
 1.6660	72.3038
 1.6650	72.2782
 1.6640	72.2058
 1.6630	72.2735
 1.6620	72.2565
 1.6610	72.2999
 1.6600	72.1532
 1.6590	72.2516
 1.6580	72.1947
 1.6570	72.2256
 1.6560	72.2915
 1.6550	72.2623
 1.6540	72.2103
 1.6530	72.2166
 1.6520	72.2506
 1.6510	72.2466
 1.6500	72.2392
 1.6490	72.2686
 1.6480	72.1592
 1.6470	72.2520
 1.6460	72.1620
 1.6450	72.1957
 1.6440	72.1985
 1.6430	72.2305
 1.6420	72.1681
 1.6410	72.1523
 1.6400	72.1972
 1.6390	72.1300
 1.6380	72.1303
 1.6370	72.0951
 1.6360	72.1320
 1.6350	72.0818
 1.6340	72.0456
 1.6330	72.1272
 1.6320	72.0693
 1.6310	72.1441
 1.6300	72.0664
 1.6290	72.1179
 1.6280	72.0325
 1.6270	72.0993
 1.6260	72.0772
 1.6250	72.1433
 1.6240	72.0528
 1.6230	72.0140
 1.6220	72.0392
 1.6210	71.9776
 1.6200	72.0135
 1.6190	71.9572
 1.6180	71.8915
 1.6170	71.9586
 1.6160	71.9353
 1.6150	72.0204
 1.6140	71.9238
 1.6130	71.9384
 1.6120	71.9161
 1.6110	71.9879
 1.6100	71.9163
 1.6090	71.9960
 1.6080	71.8316
 1.6070	71.8567
 1.6060	71.8907
 1.6050	71.8931
 1.6040	71.8527
 1.6030	71.8038
 1.6020	71.8084
 1.6010	71.7719
 1.6000	71.7437
 1.5990	71.7567
 1.5980	71.7407
 1.5970	71.7633
 1.5960	71.7313
 1.5950	71.7526
 1.5940	71.6874
 1.5930	71.6708
 1.5920	71.6960
 1.5910	71.6126
 1.5900	71.6143
 1.5890	71.5497
 1.5880	71.5592
 1.5870	71.5229
 1.5860	71.5003
 1.5850	71.5511
 1.5840	71.5269
 1.5830	71.5292
 1.5820	71.4654
 1.5810	71.4196
 1.5800	71.3704
 1.5790	71.4318
 1.5780	71.3781
 1.5770	71.3442
 1.5760	71.3698
 1.5750	71.2520
 1.5740	71.2291
 1.5730	71.2507
 1.5720	71.1475
 1.5710	71.1494
 1.5700	71.1228
 1.5690	71.0802
 1.5680	71.0891
 1.5670	71.0949
 1.5660	71.0248
 1.5650	71.0112
 1.5640	70.9631
 1.5630	70.9615
 1.5620	70.9086
 1.5610	70.8859
 1.5600	70.8383
 1.5590	70.7988
 1.5580	70.7382
 1.5570	70.7711
 1.5560	70.7200
 1.5550	70.6388
 1.5540	70.5350
 1.5530	70.5641
 1.5520	70.4827
 1.5510	70.4328
 1.5500	70.3872
 1.5490	70.3817
 1.5480	70.3068
 1.5470	70.2530
 1.5460	70.2584
 1.5450	70.1918
 1.5440	70.0929
 1.5430	70.0716
 1.5420	70.0035
 1.5410	69.9909
 1.5400	70.0128
 1.5390	69.9555
 1.5380	69.8631
 1.5370	69.7829
 1.5360	69.6885
 1.5350	69.6752
 1.5340	69.6757
 1.5330	69.6685
 1.5320	69.5653
 1.5310	69.5321
 1.5300	69.5277
 1.5290	69.5306
 1.5280	69.3903
 1.5270	69.3276
 1.5260	69.2994
 1.5250	69.2486
 1.5240	69.1557
 1.5230	69.0622
 1.5220	69.0137
 1.5210	68.9885
 1.5200	68.9296
 1.5190	68.8771
 1.5180	68.8499
 1.5170	68.7777
 1.5160	68.6876
 1.5150	68.6238
 1.5140	68.5574
 1.5130	68.4948
 1.5120	68.4133
 1.5110	68.3871
 1.5100	68.2644
 1.5090	68.1754
 1.5080	68.1177
 1.5070	68.0612
 1.5060	67.9940
 1.5050	67.8960
 1.5040	67.7470
 1.5030	67.6265
 1.5020	67.5325
 1.5010	67.4579
 1.5000	67.3686
 1.4990	67.2434
 1.4980	67.1771
 1.4970	67.0764
 1.4960	66.9553
 1.4950	66.8993
 1.4940	66.7761
 1.4930	66.6295
 1.4920	66.4772
 1.4910	66.3054
 1.4900	66.2259
 1.4890	66.0819
 1.4880	65.9886
 1.4870	65.8504
 1.4860	65.6867
 1.4850	65.5266
 1.4840	65.3422
 1.4830	65.2120
 1.4820	65.0867
 1.4810	64.9092
 1.4800	64.7443
 1.4790	64.5936
 1.4780	64.3988
 1.4770	64.2054
 1.4760	64.0835
 1.4750	63.9387
 1.4740	63.7773
 1.4730	63.5784
 1.4720	63.4787
 1.4710	63.4044
 1.4700	63.3704
 1.4690	63.2771
 1.4680	63.1889
 1.4670	63.1309
 1.4660	63.1059
 1.4650	63.0524
 1.4640	63.0037
 1.4630	62.9733
 1.4620	63.0194
 1.4610	62.9226
 1.4600	62.9196
 1.4590	62.9204
 1.4580	62.9478
 1.4570	62.8259
 1.4560	62.8123
 1.4550	62.6834
 1.4540	62.5790
 1.4530	62.4955
 1.4520	62.3734
 1.4510	62.2516
 1.4500	62.0991
 1.4490	61.9593
 1.4480	61.8075
 1.4470	61.5921
 1.4460	61.5182
 1.4450	61.4584
 1.4440	61.4562
 1.4430	61.3796
 1.4420	61.3888
 1.4410	61.3552
 1.4400	61.3577
 1.4390	61.3920
 1.4380	61.4775
 1.4370	61.5192
 1.4360	61.5204
 1.4350	61.4811
 1.4340	61.4859
 1.4330	61.4371
 1.4320	61.4690
 1.4310	61.4067
 1.4300	61.4098
 1.4290	61.3030
 1.4280	61.3186
 1.4270	61.1467
 1.4260	61.0622
 1.4250	61.0047
 1.4240	60.9370
 1.4230	60.7490
 1.4220	60.6241
 1.4210	60.4745
 1.4200	60.4695
 1.4190	60.3308
 1.4180	60.3292
 1.4170	60.1929
 1.4160	60.2467
 1.4150	60.3013
 1.4140	60.4127
 1.4130	60.5072
 1.4120	60.7634
 1.4110	60.9592
 1.4100	61.2602
 1.4090	61.5905
 1.4080	61.9450
 1.4070	62.3612
 1.4060	62.7926
 1.4050	63.3136
 1.4040	63.8121
 1.4030	64.2204
 1.4020	64.7888
 1.4010	65.3975
 1.4000	65.8777
 1.3990	66.2790
 1.3980	66.7697
 1.3970	67.2377
 1.3960	67.5804
 1.3950	67.7804
 1.3940	67.8529
 1.3930	67.8804
 1.3920	67.6962
 1.3910	67.0249
 1.3900	65.8717
 1.3890	64.1842
 1.3880	62.8240
 1.3870	62.3445
 1.3860	63.3162
 1.3850	65.3009
 1.3840	67.6892
 1.3830	69.4546
 1.3820	70.6620
 1.3810	71.3892
 1.3800	71.8441
 1.3790	72.1397
 1.3780	72.3167
 1.3770	72.5313
 1.3760	72.7581
 1.3750	72.9588
 1.3740	73.2635
 1.3730	73.3835
 1.3720	73.6639
 1.3710	73.6524
 1.3700	73.8347
 1.3690	74.0042
 1.3680	74.0688
