Name: Fluorite CaF_2
Type: Mineral
Class: Halide
Subclass: None
Particle Size: Fine
Sample No.: H-2A
Owner: JPL
Wavelength Range: VSWIR
Origin: USA, Illinois, Hardin County, Rosiclare.
Collection Date: N/A
Description: Purple fluorite.Particle size was 0-45um.Collected by:  Ward's Original ASTER Spectral Library name was jpl.perkin.mineral.halide.none.fine.h02a.spectrum.txt
Measurement: Hemispherical reflectance
First Column: X
Second Column: Y
X Units: Wavelength (micrometers)
Y Units:Reflectance (percent)
First X Value:  2.5000
Last X Value:  0.4000
Number of X Values: 2101
Additional Information: mineral.halide.none.fine.vswir.h-2a.jpl.perkin.ancillary.txt

 2.5000	89.2111
 2.4990	89.2439
 2.4980	88.9931
 2.4970	88.9792
 2.4960	88.9811
 2.4950	89.1269
 2.4940	88.8686
 2.4930	88.9457
 2.4920	88.9559
 2.4910	89.1861
 2.4900	88.9589
 2.4890	88.8063
 2.4880	88.8864
 2.4870	89.0626
 2.4860	89.0245
 2.4850	88.9008
 2.4840	89.0245
 2.4830	88.8053
 2.4820	88.8583
 2.4810	89.0739
 2.4800	88.9912
 2.4790	88.9321
 2.4780	88.9787
 2.4770	88.9365
 2.4760	88.8940
 2.4750	88.9265
 2.4740	88.9228
 2.4730	89.0802
 2.4720	89.0724
 2.4710	89.0085
 2.4700	89.0150
 2.4690	89.1441
 2.4680	89.1839
 2.4670	89.2109
 2.4660	89.0455
 2.4650	89.0415
 2.4640	89.0901
 2.4630	89.0254
 2.4620	89.0715
 2.4610	89.0945
 2.4600	89.3069
 2.4590	89.2214
 2.4580	89.0887
 2.4570	89.2901
 2.4560	89.1960
 2.4550	89.3552
 2.4540	89.4169
 2.4530	89.3470
 2.4520	89.3097
 2.4510	89.3054
 2.4500	89.2418
 2.4490	89.4425
 2.4480	89.5198
 2.4470	89.5547
 2.4460	89.4042
 2.4450	89.4760
 2.4440	89.5532
 2.4430	89.6796
 2.4420	89.6109
 2.4410	89.6798
 2.4400	89.5406
 2.4390	89.4541
 2.4380	89.5167
 2.4370	89.5309
 2.4360	89.6380
 2.4350	89.6580
 2.4340	89.6707
 2.4330	89.6260
 2.4320	89.7379
 2.4310	89.8188
 2.4300	89.7767
 2.4290	89.8135
 2.4280	89.8208
 2.4270	89.6955
 2.4260	89.7623
 2.4250	89.8262
 2.4240	89.8120
 2.4230	89.8238
 2.4220	89.8417
 2.4210	89.7660
 2.4200	89.8181
 2.4190	89.8736
 2.4180	89.9219
 2.4170	89.9078
 2.4160	90.0266
 2.4150	90.0173
 2.4140	90.0232
 2.4130	90.0415
 2.4120	90.0359
 2.4110	90.0579
 2.4100	90.1576
 2.4090	90.1395
 2.4080	90.0828
 2.4070	90.1034
 2.4060	90.0599
 2.4050	90.0864
 2.4040	90.1403
 2.4030	90.1421
 2.4020	90.1295
 2.4010	90.1578
 2.4000	90.1641
 2.3990	90.1817
 2.3980	90.2192
 2.3970	90.2795
 2.3960	90.3124
 2.3950	90.3234
 2.3940	90.3782
 2.3930	90.4035
 2.3920	90.3752
 2.3910	90.4559
 2.3900	90.4302
 2.3890	90.4633
 2.3880	90.4732
 2.3870	90.4969
 2.3860	90.5513
 2.3850	90.5733
 2.3840	90.5612
 2.3830	90.4934
 2.3820	90.5192
 2.3810	90.5388
 2.3800	90.5600
 2.3790	90.6074
 2.3780	90.6508
 2.3770	90.7003
 2.3760	90.7516
 2.3750	90.7105
 2.3740	90.7346
 2.3730	90.8088
 2.3720	90.7425
 2.3710	90.7593
 2.3700	90.8269
 2.3690	90.8524
 2.3680	90.8431
 2.3670	90.8761
 2.3660	90.9071
 2.3650	90.8597
 2.3640	90.8420
 2.3630	90.9163
 2.3620	91.0029
 2.3610	91.0185
 2.3600	91.0175
 2.3590	91.0547
 2.3580	91.0551
 2.3570	91.0965
 2.3560	91.0486
 2.3550	91.0251
 2.3540	91.1069
 2.3530	91.1729
 2.3520	91.1550
 2.3510	91.0832
 2.3500	91.0959
 2.3490	91.0981
 2.3480	91.0576
 2.3470	91.1390
 2.3460	91.1815
 2.3450	91.1631
 2.3440	91.1411
 2.3430	91.1489
 2.3420	91.2237
 2.3410	91.2292
 2.3400	91.1995
 2.3390	91.1985
 2.3380	91.1790
 2.3370	91.1896
 2.3360	91.1773
 2.3350	91.1857
 2.3340	91.2528
 2.3330	91.2352
 2.3320	91.1743
 2.3310	91.2046
 2.3300	91.1676
 2.3290	91.1353
 2.3280	91.1842
 2.3270	91.1665
 2.3260	91.1148
 2.3250	91.1279
 2.3240	91.1628
 2.3230	91.2291
 2.3220	91.2364
 2.3210	91.1917
 2.3200	91.1539
 2.3190	91.1595
 2.3180	91.1753
 2.3170	91.1810
 2.3160	91.1286
 2.3150	91.1079
 2.3140	91.1203
 2.3130	91.0758
 2.3120	91.0821
 2.3110	91.0857
 2.3100	91.1078
 2.3090	91.0837
 2.3080	91.0899
 2.3070	91.1393
 2.3060	91.1158
 2.3050	91.1329
 2.3040	91.0763
 2.3030	91.1098
 2.3020	91.1826
 2.3010	91.1842
 2.3000	91.1690
 2.2990	91.2011
 2.2980	91.1556
 2.2970	91.0927
 2.2960	91.1172
 2.2950	91.0887
 2.2940	91.0898
 2.2930	91.0755
 2.2920	91.1417
 2.2910	91.1356
 2.2900	91.1109
 2.2890	91.1299
 2.2880	91.1301
 2.2870	91.1630
 2.2860	91.1165
 2.2850	91.0901
 2.2840	91.1129
 2.2830	91.1458
 2.2820	91.1052
 2.2810	91.1499
 2.2800	91.1493
 2.2790	91.0890
 2.2780	91.1678
 2.2770	91.0977
 2.2760	91.0665
 2.2750	91.1296
 2.2740	91.1265
 2.2730	91.1463
 2.2720	91.0933
 2.2710	91.1150
 2.2700	91.0685
 2.2690	91.0889
 2.2680	91.0688
 2.2670	91.0777
 2.2660	91.1070
 2.2650	91.0971
 2.2640	91.0937
 2.2630	91.0950
 2.2620	91.1559
 2.2610	91.1994
 2.2600	91.1707
 2.2590	91.1333
 2.2580	91.1896
 2.2570	91.0745
 2.2560	91.0120
 2.2550	91.1281
 2.2540	91.1574
 2.2530	91.1138
 2.2520	91.1846
 2.2510	91.1478
 2.2500	91.2016
 2.2490	91.0966
 2.2480	91.0957
 2.2470	91.1499
 2.2460	91.1196
 2.2450	91.2107
 2.2440	91.1404
 2.2430	91.1738
 2.2420	91.1250
 2.2410	91.1499
 2.2400	91.1716
 2.2390	91.2123
 2.2380	91.2443
 2.2370	91.2608
 2.2360	91.1943
 2.2350	91.2327
 2.2340	91.3089
 2.2330	91.1935
 2.2320	91.2300
 2.2310	91.3034
 2.2300	91.2627
 2.2290	91.2451
 2.2280	91.2952
 2.2270	91.2284
 2.2260	91.2516
 2.2250	91.2854
 2.2240	91.3248
 2.2230	91.4274
 2.2220	91.3248
 2.2210	91.3140
 2.2200	91.3324
 2.2190	91.3846
 2.2180	91.4342
 2.2170	91.3543
 2.2160	91.3840
 2.2150	91.4584
 2.2140	91.5300
 2.2130	91.4213
 2.2120	91.5051
 2.2110	91.5292
 2.2100	91.5067
 2.2090	91.5963
 2.2080	91.5353
 2.2070	91.5440
 2.2060	91.6225
 2.2050	91.6962
 2.2040	91.6419
 2.2030	91.7744
 2.2020	91.7335
 2.2010	91.7741
 2.2000	91.8331
 2.1990	91.8604
 2.1980	91.8922
 2.1970	91.7630
 2.1960	91.8143
 2.1950	91.7598
 2.1940	91.8417
 2.1930	91.8296
 2.1920	91.8902
 2.1910	91.9728
 2.1900	91.8866
 2.1890	91.9895
 2.1880	92.0234
 2.1870	91.9947
 2.1860	91.9268
 2.1850	91.8721
 2.1840	92.0021
 2.1830	92.1034
 2.1820	92.0652
 2.1810	92.0929
 2.1800	92.0413
 2.1790	92.0324
 2.1780	92.0353
 2.1770	92.2218
 2.1760	92.1897
 2.1750	92.2145
 2.1740	92.2355
 2.1730	92.3076
 2.1720	92.2061
 2.1710	92.3052
 2.1700	92.3529
 2.1690	92.3654
 2.1680	92.4631
 2.1670	92.3868
 2.1660	92.3905
 2.1650	92.5088
 2.1640	92.4784
 2.1630	92.4304
 2.1620	92.4578
 2.1610	92.5999
 2.1600	92.6097
 2.1590	92.6602
 2.1580	92.6632
 2.1570	92.7140
 2.1560	92.6499
 2.1550	92.6574
 2.1540	92.7309
 2.1530	92.7496
 2.1520	92.8089
 2.1510	92.7778
 2.1500	92.7546
 2.1490	92.7938
 2.1480	92.7594
 2.1470	92.7476
 2.1460	92.7580
 2.1450	92.7635
 2.1440	92.8683
 2.1430	92.8934
 2.1420	92.8065
 2.1410	92.8070
 2.1400	92.8095
 2.1390	92.7672
 2.1380	92.7956
 2.1370	92.7066
 2.1360	92.7483
 2.1350	92.7448
 2.1340	92.7758
 2.1330	92.7318
 2.1320	92.6826
 2.1310	92.6478
 2.1300	92.6303
 2.1290	92.5654
 2.1280	92.5695
 2.1270	92.4840
 2.1260	92.4511
 2.1250	92.4310
 2.1240	92.3957
 2.1230	92.3304
 2.1220	92.3045
 2.1210	92.2532
 2.1200	92.2293
 2.1190	92.1437
 2.1180	92.0862
 2.1170	91.9958
 2.1160	91.9503
 2.1150	91.9151
 2.1140	91.8728
 2.1130	91.8203
 2.1120	91.8047
 2.1110	91.8074
 2.1100	91.7552
 2.1090	91.6827
 2.1080	91.6646
 2.1070	91.5841
 2.1060	91.5244
 2.1050	91.4395
 2.1040	91.3925
 2.1030	91.3806
 2.1020	91.3360
 2.1010	91.2624
 2.1000	91.2053
 2.0990	91.2675
 2.0980	91.3003
 2.0970	91.3064
 2.0960	91.2787
 2.0950	91.3014
 2.0940	91.3390
 2.0930	91.3666
 2.0920	91.3440
 2.0910	91.3424
 2.0900	91.3691
 2.0890	91.3918
 2.0880	91.4207
 2.0870	91.4279
 2.0860	91.4283
 2.0850	91.4454
 2.0840	91.4332
 2.0830	91.4026
 2.0820	91.4069
 2.0810	91.4083
 2.0800	91.4093
 2.0790	91.4454
 2.0780	91.4884
 2.0770	91.4878
 2.0760	91.5041
 2.0750	91.5105
 2.0740	91.5450
 2.0730	91.5830
 2.0720	91.5873
 2.0710	91.5672
 2.0700	91.5200
 2.0690	91.5285
 2.0680	91.5619
 2.0670	91.5635
 2.0660	91.6086
 2.0650	91.6026
 2.0640	91.6807
 2.0630	91.7513
 2.0620	91.7077
 2.0610	91.6744
 2.0600	91.6577
 2.0590	91.6993
 2.0580	91.7171
 2.0570	91.7174
 2.0560	91.7410
 2.0550	91.7366
 2.0540	91.7726
 2.0530	91.7397
 2.0520	91.7464
 2.0510	91.8297
 2.0500	91.8275
 2.0490	91.8318
 2.0480	91.8449
 2.0470	91.8303
 2.0460	91.8099
 2.0450	91.8810
 2.0440	91.9191
 2.0430	91.8807
 2.0420	91.9277
 2.0410	91.9042
 2.0400	91.8853
 2.0390	91.9504
 2.0380	91.9084
 2.0370	91.9028
 2.0360	91.9235
 2.0350	91.9181
 2.0340	91.9540
 2.0330	91.9410
 2.0320	91.9662
 2.0310	91.9622
 2.0300	91.9591
 2.0290	91.9922
 2.0280	91.9031
 2.0270	91.9926
 2.0260	91.9775
 2.0250	92.0238
 2.0240	91.9954
 2.0230	91.9837
 2.0220	91.9314
 2.0210	91.9300
 2.0200	91.9499
 2.0190	91.9347
 2.0180	91.9798
 2.0170	91.9125
 2.0160	91.9013
 2.0150	91.9378
 2.0140	91.9912
 2.0130	91.9384
 2.0120	91.8776
 2.0110	91.8532
 2.0100	91.9045
 2.0090	91.9221
 2.0080	91.8626
 2.0070	91.8941
 2.0060	91.9179
 2.0050	91.8970
 2.0040	91.8829
 2.0030	91.8867
 2.0020	91.8380
 2.0010	91.8746
 2.0000	91.8957
 1.9990	91.8471
 1.9980	91.8409
 1.9970	91.9024
 1.9960	91.8609
 1.9950	91.8442
 1.9940	91.7437
 1.9930	91.7801
 1.9920	91.7850
 1.9910	91.6849
 1.9900	91.7285
 1.9890	91.7532
 1.9880	91.7335
 1.9870	91.7242
 1.9860	91.6869
 1.9850	91.6101
 1.9840	91.6563
 1.9830	91.5930
 1.9820	91.6599
 1.9810	91.6094
 1.9800	91.5919
 1.9790	91.5535
 1.9780	91.5119
 1.9770	91.6263
 1.9760	91.4747
 1.9750	91.4987
 1.9740	91.4691
 1.9730	91.4389
 1.9720	91.4868
 1.9710	91.4772
 1.9700	91.4337
 1.9690	91.4636
 1.9680	91.4140
 1.9670	91.3791
 1.9660	91.4150
 1.9650	91.3530
 1.9640	91.3346
 1.9630	91.3225
 1.9620	91.3800
 1.9610	91.3975
 1.9600	91.3505
 1.9590	91.3170
 1.9580	91.3692
 1.9570	91.4239
 1.9560	91.3819
 1.9550	91.3486
 1.9540	91.3258
 1.9530	91.3308
 1.9520	91.3486
 1.9510	91.2944
 1.9500	91.3079
 1.9490	91.3426
 1.9480	91.3505
 1.9470	91.2491
 1.9460	91.3112
 1.9450	91.2778
 1.9440	91.4246
 1.9430	91.3552
 1.9420	91.3671
 1.9410	91.2863
 1.9400	91.3320
 1.9390	91.3264
 1.9380	91.2854
 1.9370	91.2890
 1.9360	91.2769
 1.9350	91.4230
 1.9340	91.3265
 1.9330	91.3918
 1.9320	91.3957
 1.9310	91.4054
 1.9300	91.3116
 1.9290	91.2869
 1.9280	91.3738
 1.9270	91.4151
 1.9260	91.4844
 1.9250	91.3568
 1.9240	91.3259
 1.9230	91.4192
 1.9220	91.3661
 1.9210	91.4342
 1.9200	91.4360
 1.9190	91.5004
 1.9180	91.5307
 1.9170	91.4643
 1.9160	91.5568
 1.9150	91.5482
 1.9140	91.5946
 1.9130	91.5534
 1.9120	91.6171
 1.9110	91.6220
 1.9100	91.6332
 1.9090	91.7125
 1.9080	91.7085
 1.9070	91.8063
 1.9060	91.8117
 1.9050	91.7253
 1.9040	91.8652
 1.9030	91.8474
 1.9020	91.9577
 1.9010	92.0061
 1.9000	92.0230
 1.8990	92.0253
 1.8980	92.0646
 1.8970	92.0636
 1.8960	92.2113
 1.8950	92.1311
 1.8940	92.2158
 1.8930	92.2298
 1.8920	92.2908
 1.8910	92.2875
 1.8900	92.3512
 1.8890	92.3320
 1.8880	92.3766
 1.8870	92.4539
 1.8860	92.4511
 1.8850	92.4971
 1.8840	92.4492
 1.8830	92.5409
 1.8820	92.5444
 1.8810	92.4718
 1.8800	92.5534
 1.8790	92.6224
 1.8780	92.5907
 1.8770	92.6498
 1.8760	92.6060
 1.8750	92.6764
 1.8740	92.7114
 1.8730	92.6154
 1.8720	92.6182
 1.8710	92.7192
 1.8700	92.7156
 1.8690	92.7097
 1.8680	92.7792
 1.8670	92.7553
 1.8660	92.7498
 1.8650	92.7630
 1.8640	92.7594
 1.8630	92.7601
 1.8620	92.7743
 1.8610	92.8283
 1.8600	92.7821
 1.8590	92.8134
 1.8580	92.8429
 1.8570	92.8376
 1.8560	92.8315
 1.8550	92.8154
 1.8540	92.8435
 1.8530	92.8492
 1.8520	92.8445
 1.8510	92.8535
 1.8500	92.8063
 1.8490	92.8811
 1.8480	92.8688
 1.8470	92.8474
 1.8460	92.8579
 1.8450	92.8510
 1.8440	92.8589
 1.8430	92.8759
 1.8420	92.9484
 1.8410	92.9468
 1.8400	92.8733
 1.8390	92.8413
 1.8380	92.8422
 1.8370	92.8900
 1.8360	92.8575
 1.8350	92.8951
 1.8340	92.9103
 1.8330	92.8668
 1.8320	92.9183
 1.8310	92.9780
 1.8300	92.9303
 1.8290	92.9446
 1.8280	92.9613
 1.8270	92.9509
 1.8260	92.8955
 1.8250	92.8989
 1.8240	92.9599
 1.8230	92.9729
 1.8220	92.9474
 1.8210	92.9670
 1.8200	92.9083
 1.8190	92.9556
 1.8180	92.9502
 1.8170	92.9103
 1.8160	92.9498
 1.8150	92.9818
 1.8140	92.9881
 1.8130	92.9531
 1.8120	92.9480
 1.8110	93.0222
 1.8100	93.0138
 1.8090	92.9538
 1.8080	92.9866
 1.8070	93.0131
 1.8060	92.9895
 1.8050	93.0039
 1.8040	93.0380
 1.8030	92.9871
 1.8020	92.9790
 1.8010	93.0059
 1.8000	93.0336
 1.7990	93.0141
 1.7980	92.9774
 1.7970	93.0279
 1.7960	93.0214
 1.7950	93.0440
 1.7940	93.0773
 1.7930	93.0536
 1.7920	92.9904
 1.7910	92.9743
 1.7900	93.0056
 1.7890	93.0025
 1.7880	92.9691
 1.7870	92.9813
 1.7860	92.9775
 1.7850	93.0079
 1.7840	93.0221
 1.7830	92.9512
 1.7820	92.8917
 1.7810	92.9318
 1.7800	92.9650
 1.7790	92.9960
 1.7780	93.0106
 1.7770	92.9691
 1.7760	92.9615
 1.7750	92.9820
 1.7740	92.9716
 1.7730	92.9701
 1.7720	92.9835
 1.7710	92.9792
 1.7700	92.9801
 1.7690	93.0030
 1.7680	92.9489
 1.7670	92.9105
 1.7660	92.9498
 1.7650	92.9619
 1.7640	92.9314
 1.7630	92.9925
 1.7620	92.9586
 1.7610	92.9642
 1.7600	92.9635
 1.7590	92.9494
 1.7580	93.0259
 1.7570	93.0409
 1.7560	93.0041
 1.7550	92.9948
 1.7540	93.0190
 1.7530	93.0042
 1.7520	92.9713
 1.7510	92.9799
 1.7500	92.9651
 1.7490	93.0050
 1.7480	92.9900
 1.7470	93.0084
 1.7460	93.0470
 1.7450	92.9653
 1.7440	92.9813
 1.7430	93.0475
 1.7420	93.0550
 1.7410	93.0182
 1.7400	93.0538
 1.7390	93.0743
 1.7380	93.0302
 1.7370	93.0211
 1.7360	93.0626
 1.7350	93.0519
 1.7340	93.1139
 1.7330	93.0771
 1.7320	93.0723
 1.7310	93.0775
 1.7300	93.0897
 1.7290	93.1301
 1.7280	93.1900
 1.7270	93.1593
 1.7260	93.0697
 1.7250	93.0395
 1.7240	93.1431
 1.7230	93.1515
 1.7220	93.1301
 1.7210	93.1496
 1.7200	93.1228
 1.7190	93.1119
 1.7180	93.0914
 1.7170	93.0943
 1.7160	93.1478
 1.7150	93.1467
 1.7140	93.1229
 1.7130	93.1173
 1.7120	93.1515
 1.7110	93.1426
 1.7100	93.1079
 1.7090	93.1581
 1.7080	93.1672
 1.7070	93.2389
 1.7060	93.1402
 1.7050	93.0801
 1.7040	93.1232
 1.7030	93.0949
 1.7020	93.0493
 1.7010	93.1955
 1.7000	93.0872
 1.6990	93.0654
 1.6980	93.0980
 1.6970	93.1124
 1.6960	93.1215
 1.6950	93.1271
 1.6940	93.0923
 1.6930	93.0262
 1.6920	93.0513
 1.6910	93.0672
 1.6900	93.0486
 1.6890	93.1027
 1.6880	93.0935
 1.6870	93.0573
 1.6860	93.1170
 1.6850	93.1547
 1.6840	93.0261
 1.6830	93.0068
 1.6820	93.0284
 1.6810	93.0688
 1.6800	93.0634
 1.6790	93.0163
 1.6780	93.0096
 1.6770	93.0951
 1.6760	93.1120
 1.6750	93.0901
 1.6740	93.0584
 1.6730	93.0581
 1.6720	93.0668
 1.6710	93.0432
 1.6700	93.0478
 1.6690	93.1122
 1.6680	93.0451
 1.6670	93.0568
 1.6660	93.0537
 1.6650	93.0398
 1.6640	93.0859
 1.6630	93.0646
 1.6620	93.0219
 1.6610	93.1375
 1.6600	93.1017
 1.6590	93.0775
 1.6580	93.0649
 1.6570	93.0423
 1.6560	93.1025
 1.6550	92.9804
 1.6540	93.0985
 1.6530	93.2016
 1.6520	93.1212
 1.6510	93.0385
 1.6500	93.0279
 1.6490	93.0886
 1.6480	93.0968
 1.6470	93.0765
 1.6460	93.1198
 1.6450	93.1008
 1.6440	93.1471
 1.6430	93.0690
 1.6420	93.0571
 1.6410	93.0984
 1.6400	93.0476
 1.6390	93.0403
 1.6380	93.1094
 1.6370	93.0700
 1.6360	93.1202
 1.6350	93.0668
 1.6340	93.1090
 1.6330	93.1484
 1.6320	93.0917
 1.6310	93.0912
 1.6300	93.0970
 1.6290	93.1207
 1.6280	93.1160
 1.6270	93.1320
 1.6260	93.1926
 1.6250	93.1928
 1.6240	93.0913
 1.6230	93.0888
 1.6220	93.1423
 1.6210	93.0228
 1.6200	93.1241
 1.6190	93.1022
 1.6180	93.1041
 1.6170	93.0785
 1.6160	93.1165
 1.6150	93.0782
 1.6140	93.0887
 1.6130	93.1344
 1.6120	93.0950
 1.6110	93.1265
 1.6100	93.1198
 1.6090	93.1213
 1.6080	93.0856
 1.6070	93.1466
 1.6060	93.1483
 1.6050	93.1340
 1.6040	93.1685
 1.6030	93.1121
 1.6020	93.0905
 1.6010	93.1008
 1.6000	93.1786
 1.5990	93.0786
 1.5980	93.1836
 1.5970	93.0828
 1.5960	93.1252
 1.5950	93.1048
 1.5940	93.0483
 1.5930	93.1099
 1.5920	93.0424
 1.5910	93.0277
 1.5900	93.1576
 1.5890	93.1141
 1.5880	93.1285
 1.5870	93.1054
 1.5860	93.0919
 1.5850	93.0765
 1.5840	93.1153
 1.5830	93.1497
 1.5820	93.1352
 1.5810	93.1270
 1.5800	93.1153
 1.5790	93.1287
 1.5780	93.1340
 1.5770	93.0989
 1.5760	93.0153
 1.5750	93.0721
 1.5740	93.0651
 1.5730	93.0933
 1.5720	93.1216
 1.5710	93.0798
 1.5700	93.0771
 1.5690	93.0937
 1.5680	93.1118
 1.5670	93.0477
 1.5660	93.0738
 1.5650	93.0891
 1.5640	93.0521
 1.5630	93.0478
 1.5620	92.9963
 1.5610	93.0492
 1.5600	93.0413
 1.5590	93.0053
 1.5580	93.0166
 1.5570	93.0848
 1.5560	93.0646
 1.5550	93.0452
 1.5540	93.0793
 1.5530	93.0893
 1.5520	93.0987
 1.5510	93.0350
 1.5500	92.9801
 1.5490	93.0792
 1.5480	93.0887
 1.5470	92.9898
 1.5460	93.0336
 1.5450	93.0873
 1.5440	93.1024
 1.5430	93.0676
 1.5420	93.0257
 1.5410	93.0426
 1.5400	93.0070
 1.5390	93.0260
 1.5380	93.0596
 1.5370	93.0505
 1.5360	93.0197
 1.5350	93.0316
 1.5340	93.0310
 1.5330	93.0028
 1.5320	93.0370
 1.5310	92.9911
 1.5300	92.9794
 1.5290	93.0290
 1.5280	93.0125
 1.5270	93.0470
 1.5260	93.0245
 1.5250	92.9505
 1.5240	92.9881
 1.5230	93.0306
 1.5220	92.9676
 1.5210	92.9952
 1.5200	92.9971
 1.5190	92.9642
 1.5180	93.0006
 1.5170	92.9763
 1.5160	92.9675
 1.5150	92.9574
 1.5140	92.9756
 1.5130	93.0126
 1.5120	92.9976
 1.5110	92.9806
 1.5100	92.9698
 1.5090	92.9504
 1.5080	92.9482
 1.5070	92.9422
 1.5060	92.9503
 1.5050	92.9297
 1.5040	92.9113
 1.5030	92.9002
 1.5020	92.9216
 1.5010	92.9489
 1.5000	92.9275
 1.4990	92.9187
 1.4980	92.9040
 1.4970	92.8851
 1.4960	92.9305
 1.4950	92.9407
 1.4940	92.9363
 1.4930	93.0020
 1.4920	92.9450
 1.4910	92.8735
 1.4900	92.9326
 1.4890	92.9308
 1.4880	92.9036
 1.4870	92.9260
 1.4860	92.9448
 1.4850	92.8929
 1.4840	92.8984
 1.4830	92.9120
 1.4820	92.9269
 1.4810	92.9570
 1.4800	92.9255
 1.4790	92.8876
 1.4780	92.8964
 1.4770	92.8648
 1.4760	92.8597
 1.4750	92.8513
 1.4740	92.8983
 1.4730	92.9573
 1.4720	92.9175
 1.4710	92.9158
 1.4700	92.9101
 1.4690	92.8846
 1.4680	92.8684
 1.4670	92.8812
 1.4660	92.8861
 1.4650	92.9371
 1.4640	92.9303
 1.4630	92.8599
 1.4620	92.8652
 1.4610	92.8590
 1.4600	92.8714
 1.4590	92.8871
 1.4580	92.8465
 1.4570	92.8085
 1.4560	92.7919
 1.4550	92.8376
 1.4540	92.8989
 1.4530	92.8310
 1.4520	92.7646
 1.4510	92.8116
 1.4500	92.8488
 1.4490	92.8096
 1.4480	92.7681
 1.4470	92.8057
 1.4460	92.8224
 1.4450	92.8411
 1.4440	92.8162
 1.4430	92.7798
 1.4420	92.8213
 1.4410	92.8611
 1.4400	92.7671
 1.4390	92.8599
 1.4380	92.8790
 1.4370	92.8418
 1.4360	92.8835
 1.4350	92.8134
 1.4340	92.7849
 1.4330	92.7697
 1.4320	92.7689
 1.4310	92.8372
 1.4300	92.7896
 1.4290	92.8121
 1.4280	92.8000
 1.4270	92.8442
 1.4260	92.8332
 1.4250	92.7349
 1.4240	92.8074
 1.4230	92.8099
 1.4220	92.7699
 1.4210	92.7867
 1.4200	92.7915
 1.4190	92.7403
 1.4180	92.8039
 1.4170	92.7687
 1.4160	92.7325
 1.4150	92.7614
 1.4140	92.7790
 1.4130	92.7349
 1.4120	92.7850
 1.4110	92.7973
 1.4100	92.8207
 1.4090	92.8418
 1.4080	92.8269
 1.4070	92.7586
 1.4060	92.8496
 1.4050	92.8110
 1.4040	92.7855
 1.4030	92.7925
 1.4020	92.8416
 1.4010	92.8815
 1.4000	92.9062
 1.3990	92.9484
 1.3980	92.9109
 1.3970	92.9838
 1.3960	92.9332
 1.3950	92.9612
 1.3940	92.9370
 1.3930	93.0266
 1.3920	92.9896
 1.3910	93.0039
 1.3900	93.0254
 1.3890	92.9840
 1.3880	92.9502
 1.3870	93.1389
 1.3860	93.0250
 1.3850	93.0093
 1.3840	93.0844
 1.3830	92.9842
 1.3820	93.0502
 1.3810	92.9143
 1.3800	93.0238
 1.3790	93.0656
 1.3780	93.0446
 1.3770	92.9978
 1.3760	93.0275
 1.3750	93.1080
 1.3740	92.9514
 1.3730	93.0656
 1.3720	93.0706
 1.3710	93.0713
 1.3700	92.9374
 1.3690	93.0114
 1.3680	93.0458
 1.3670	93.1707
 1.3660	93.0429
