Name: Colemanite Ca_2B_6O_11.5H_2O
Type: Mineral
Class: Borate
Subclass: None
Particle Size: Coarse
Sample No.: B-1A
Owner: JPL
Wavelength Range: VSWIR
Origin: USA, California, Kern County, Boron.
Collection Date: N/A
Description: Particle size was 125-500um.Collected by:  Burminco Original ASTER Spectral Library name was jpl.perkin.mineral.borate.none.coarse.b01a.spectrum.txt
Measurement: Hemispherical reflectance
First Column: X
Second Column: Y
X Units: Wavelength (micrometers)
Y Units:Reflectance (percent)
First X Value:  2.5000
Last X Value:  0.4000
Number of X Values: 2101
Additional Information: mineral.borate.none.coarse.vswir.b-1a.jpl.perkin.ancillary.txt

 2.5000	 3.4739
 2.4990	 3.7892
 2.4980	 3.5996
 2.4970	 4.0376
 2.4960	 3.3394
 2.4950	 3.7363
 2.4940	 3.4857
 2.4930	 3.8516
 2.4920	 3.5783
 2.4910	 3.6761
 2.4900	 3.6910
 2.4890	 3.8194
 2.4880	 3.7243
 2.4870	 3.7602
 2.4860	 3.7201
 2.4850	 3.8236
 2.4840	 3.5944
 2.4830	 3.7952
 2.4820	 3.6229
 2.4810	 3.6907
 2.4800	 3.6683
 2.4790	 3.8030
 2.4780	 3.6383
 2.4770	 3.9309
 2.4760	 3.6277
 2.4750	 3.7131
 2.4740	 3.8157
 2.4730	 3.7185
 2.4720	 3.6275
 2.4710	 3.7088
 2.4700	 3.6398
 2.4690	 3.7092
 2.4680	 3.7144
 2.4670	 3.8308
 2.4660	 3.7134
 2.4650	 3.8239
 2.4640	 3.7113
 2.4630	 3.7676
 2.4620	 3.6125
 2.4610	 3.6993
 2.4600	 3.5854
 2.4590	 3.7950
 2.4580	 3.6957
 2.4570	 3.7714
 2.4560	 3.7502
 2.4550	 3.7512
 2.4540	 3.7176
 2.4530	 3.7797
 2.4520	 3.5667
 2.4510	 3.9178
 2.4500	 3.7872
 2.4490	 3.8293
 2.4480	 3.7293
 2.4470	 3.8255
 2.4460	 3.7114
 2.4450	 3.9337
 2.4440	 3.8020
 2.4430	 3.9702
 2.4420	 3.7481
 2.4410	 3.9684
 2.4400	 3.8774
 2.4390	 4.0576
 2.4380	 3.8590
 2.4370	 4.0249
 2.4360	 3.9758
 2.4350	 4.0977
 2.4340	 3.9724
 2.4330	 4.0816
 2.4320	 3.9473
 2.4310	 4.1460
 2.4300	 4.0060
 2.4290	 4.1129
 2.4280	 4.0775
 2.4270	 4.1842
 2.4260	 4.0815
 2.4250	 4.2608
 2.4240	 4.1756
 2.4230	 4.2915
 2.4220	 4.2039
 2.4210	 4.2482
 2.4200	 4.2477
 2.4190	 4.4213
 2.4180	 4.3933
 2.4170	 4.4630
 2.4160	 4.3779
 2.4150	 4.4626
 2.4140	 4.3927
 2.4130	 4.5380
 2.4120	 4.4727
 2.4110	 4.6255
 2.4100	 4.5136
 2.4090	 4.6666
 2.4080	 4.5684
 2.4070	 4.6685
 2.4060	 4.7535
 2.4050	 4.7883
 2.4040	 4.8475
 2.4030	 4.9610
 2.4020	 4.9398
 2.4010	 5.0355
 2.4000	 5.0557
 2.3990	 5.1843
 2.3980	 5.2141
 2.3970	 5.2237
 2.3960	 5.2880
 2.3950	 5.4294
 2.3940	 5.4884
 2.3930	 5.5523
 2.3920	 5.4799
 2.3910	 5.6272
 2.3900	 5.6892
 2.3890	 5.8100
 2.3880	 5.8938
 2.3870	 5.9474
 2.3860	 6.0138
 2.3850	 6.1503
 2.3840	 6.1452
 2.3830	 6.2704
 2.3820	 6.2952
 2.3810	 6.4142
 2.3800	 6.4393
 2.3790	 6.5409
 2.3780	 6.6458
 2.3770	 6.7839
 2.3760	 6.8333
 2.3750	 6.8858
 2.3740	 6.9650
 2.3730	 7.0443
 2.3720	 7.1315
 2.3710	 7.2857
 2.3700	 7.3704
 2.3690	 7.4950
 2.3680	 7.5381
 2.3670	 7.6195
 2.3660	 7.6571
 2.3650	 7.7618
 2.3640	 7.8643
 2.3630	 7.9947
 2.3620	 8.0627
 2.3610	 8.1157
 2.3600	 8.2383
 2.3590	 8.3542
 2.3580	 8.4191
 2.3570	 8.4905
 2.3560	 8.5867
 2.3550	 8.7027
 2.3540	 8.7922
 2.3530	 8.8836
 2.3520	 8.9489
 2.3510	 9.0210
 2.3500	 9.0784
 2.3490	 9.1674
 2.3480	 9.2105
 2.3470	 9.2934
 2.3460	 9.3753
 2.3450	 9.4345
 2.3440	 9.5324
 2.3430	 9.5945
 2.3420	 9.6789
 2.3410	 9.7325
 2.3400	 9.7971
 2.3390	 9.7858
 2.3380	 9.8492
 2.3370	 9.8763
 2.3360	 9.9573
 2.3350	10.0614
 2.3340	10.1443
 2.3330	10.1428
 2.3320	10.2274
 2.3310	10.3145
 2.3300	10.3667
 2.3290	10.4078
 2.3280	10.4270
 2.3270	10.4777
 2.3260	10.5495
 2.3250	10.5951
 2.3240	10.7138
 2.3230	10.7321
 2.3220	10.7466
 2.3210	10.8012
 2.3200	10.8840
 2.3190	10.9197
 2.3180	10.9714
 2.3170	10.9464
 2.3160	11.0042
 2.3150	11.0551
 2.3140	11.1599
 2.3130	11.1425
 2.3120	11.2205
 2.3110	11.2329
 2.3100	11.2929
 2.3090	11.2603
 2.3080	11.2911
 2.3070	11.3371
 2.3060	11.3562
 2.3050	11.3203
 2.3040	11.3692
 2.3030	11.3040
 2.3020	11.3432
 2.3010	11.3501
 2.3000	11.3943
 2.2990	11.3413
 2.2980	11.3913
 2.2970	11.3344
 2.2960	11.3854
 2.2950	11.3326
 2.2940	11.3789
 2.2930	11.3529
 2.2920	11.4647
 2.2910	11.3861
 2.2900	11.4098
 2.2890	11.3446
 2.2880	11.3627
 2.2870	11.3192
 2.2860	11.3704
 2.2850	11.2605
 2.2840	11.2530
 2.2830	11.2300
 2.2820	11.2497
 2.2810	11.1917
 2.2800	11.1756
 2.2790	11.1288
 2.2780	11.2002
 2.2770	11.0494
 2.2760	10.9995
 2.2750	11.0523
 2.2740	10.9884
 2.2730	10.9052
 2.2720	10.9016
 2.2710	10.7983
 2.2700	10.8220
 2.2690	10.7215
 2.2680	10.7263
 2.2670	10.5923
 2.2660	10.6739
 2.2650	10.5848
 2.2640	10.6186
 2.2630	10.5028
 2.2620	10.5420
 2.2610	10.3882
 2.2600	10.4567
 2.2590	10.4065
 2.2580	10.3017
 2.2570	10.2437
 2.2560	10.3099
 2.2550	10.2050
 2.2540	10.2114
 2.2530	10.0831
 2.2520	10.0385
 2.2510	 9.9418
 2.2500	 9.9399
 2.2490	 9.7415
 2.2480	 9.8250
 2.2470	 9.7173
 2.2460	 9.6301
 2.2450	 9.4606
 2.2440	 9.5610
 2.2430	 9.3196
 2.2420	 9.3258
 2.2410	 9.1603
 2.2400	 9.1537
 2.2390	 8.9823
 2.2380	 8.9798
 2.2370	 8.8569
 2.2360	 8.8292
 2.2350	 8.6496
 2.2340	 8.6597
 2.2330	 8.5371
 2.2320	 8.5345
 2.2310	 8.4209
 2.2300	 8.3645
 2.2290	 8.2837
 2.2280	 8.3733
 2.2270	 8.1492
 2.2260	 8.1725
 2.2250	 8.0275
 2.2240	 8.0569
 2.2230	 7.9127
 2.2220	 7.9763
 2.2210	 7.8059
 2.2200	 7.8282
 2.2190	 7.5468
 2.2180	 7.7504
 2.2170	 7.5445
 2.2160	 7.5096
 2.2150	 7.4452
 2.2140	 7.3832
 2.2130	 7.2477
 2.2120	 7.3338
 2.2110	 6.8988
 2.2100	 7.1926
 2.2090	 6.9579
 2.2080	 6.9941
 2.2070	 6.8700
 2.2060	 6.9178
 2.2050	 6.7629
 2.2040	 6.9377
 2.2030	 6.7341
 2.2020	 6.8516
 2.2010	 6.6732
 2.2000	 6.7919
 2.1990	 6.8117
 2.1980	 6.9419
 2.1970	 6.8240
 2.1960	 6.9587
 2.1950	 6.8966
 2.1940	 7.0740
 2.1930	 7.0382
 2.1920	 7.1018
 2.1910	 7.0553
 2.1900	 7.2926
 2.1890	 7.2250
 2.1880	 7.4034
 2.1870	 7.3440
 2.1860	 7.4052
 2.1850	 7.3634
 2.1840	 7.5709
 2.1830	 7.5207
 2.1820	 7.6389
 2.1810	 7.6170
 2.1800	 7.7129
 2.1790	 7.6297
 2.1780	 7.8342
 2.1770	 7.7095
 2.1760	 7.7945
 2.1750	 7.7812
 2.1740	 7.8015
 2.1730	 7.7895
 2.1720	 7.8699
 2.1710	 7.8095
 2.1700	 7.9469
 2.1690	 7.8660
 2.1680	 8.0450
 2.1670	 7.9716
 2.1660	 8.0793
 2.1650	 8.0848
 2.1640	 8.1572
 2.1630	 8.1224
 2.1620	 8.2295
 2.1610	 8.3269
 2.1600	 8.3601
 2.1590	 8.4058
 2.1580	 8.5549
 2.1570	 8.5230
 2.1560	 8.7513
 2.1550	 8.6613
 2.1540	 8.8487
 2.1530	 8.8679
 2.1520	 9.0459
 2.1510	 9.0250
 2.1500	 9.2134
 2.1490	 9.2582
 2.1480	 9.3687
 2.1470	 9.2964
 2.1460	 9.4706
 2.1450	 9.4769
 2.1440	 9.5780
 2.1430	 9.4946
 2.1420	 9.5726
 2.1410	 9.5108
 2.1400	 9.5865
 2.1390	 9.4357
 2.1380	 9.4783
 2.1370	 9.3155
 2.1360	 9.3509
 2.1350	 9.2616
 2.1340	 9.1877
 2.1330	 8.9993
 2.1320	 8.9791
 2.1310	 8.7870
 2.1300	 8.6722
 2.1290	 8.5522
 2.1280	 8.4623
 2.1270	 8.2719
 2.1260	 8.0871
 2.1250	 7.8976
 2.1240	 7.7992
 2.1230	 7.6356
 2.1220	 7.4983
 2.1210	 7.3302
 2.1200	 7.2129
 2.1190	 6.9997
 2.1180	 6.9071
 2.1170	 6.7073
 2.1160	 6.6143
 2.1150	 6.5155
 2.1140	 6.3637
 2.1130	 6.2636
 2.1120	 6.2448
 2.1110	 6.1466
 2.1100	 6.0953
 2.1090	 5.9655
 2.1080	 6.0008
 2.1070	 5.9859
 2.1060	 6.0199
 2.1050	 6.0394
 2.1040	 6.0560
 2.1030	 6.0847
 2.1020	 6.1893
 2.1010	 6.2857
 2.1000	 6.4291
 2.0990	 6.5194
 2.0980	 6.7008
 2.0970	 6.9249
 2.0960	 7.1719
 2.0950	 7.4189
 2.0940	 7.7003
 2.0930	 7.9597
 2.0920	 8.3025
 2.0910	 8.6573
 2.0900	 9.0068
 2.0890	 9.3259
 2.0880	 9.6161
 2.0870	 9.9069
 2.0860	10.2442
 2.0850	10.5435
 2.0840	10.8822
 2.0830	11.0261
 2.0820	11.2011
 2.0810	11.4954
 2.0800	11.6318
 2.0790	11.7560
 2.0780	11.9170
 2.0770	12.0346
 2.0760	12.1486
 2.0750	12.1936
 2.0740	12.2450
 2.0730	12.3091
 2.0720	12.3679
 2.0710	12.4133
 2.0700	12.5185
 2.0690	12.5737
 2.0680	12.5624
 2.0670	12.5748
 2.0660	12.6073
 2.0650	12.6210
 2.0640	12.6301
 2.0630	12.6701
 2.0620	12.6805
 2.0610	12.6879
 2.0600	12.7269
 2.0590	12.7746
 2.0580	12.7910
 2.0570	12.8316
 2.0560	12.7731
 2.0550	12.8514
 2.0540	12.8784
 2.0530	12.8981
 2.0520	12.9206
 2.0510	12.9606
 2.0500	12.8526
 2.0490	12.9286
 2.0480	12.9250
 2.0470	12.9651
 2.0460	12.9733
 2.0450	12.9569
 2.0440	12.9127
 2.0430	12.9540
 2.0420	12.9150
 2.0410	12.8700
 2.0400	12.8122
 2.0390	12.8591
 2.0380	12.8329
 2.0370	12.8269
 2.0360	12.8033
 2.0350	12.7885
 2.0340	12.7466
 2.0330	12.6944
 2.0320	12.7014
 2.0310	12.6905
 2.0300	12.6323
 2.0290	12.6754
 2.0280	12.6140
 2.0270	12.6223
 2.0260	12.5868
 2.0250	12.6406
 2.0240	12.5511
 2.0230	12.5830
 2.0220	12.5713
 2.0210	12.5669
 2.0200	12.4993
 2.0190	12.5688
 2.0180	12.4591
 2.0170	12.4851
 2.0160	12.4696
 2.0150	12.4735
 2.0140	12.3756
 2.0130	12.4286
 2.0120	12.3688
 2.0110	12.3386
 2.0100	12.2507
 2.0090	12.2463
 2.0080	12.2097
 2.0070	12.1942
 2.0060	12.0848
 2.0050	12.1159
 2.0040	12.0430
 2.0030	12.0721
 2.0020	11.9211
 2.0010	11.9932
 2.0000	11.9427
 1.9990	11.9668
 1.9980	11.8508
 1.9970	11.8182
 1.9960	11.7895
 1.9950	11.8198
 1.9940	11.7799
 1.9930	11.8302
 1.9920	11.7139
 1.9910	11.6857
 1.9900	11.6787
 1.9890	11.6624
 1.9880	11.5853
 1.9870	11.6397
 1.9860	11.5537
 1.9850	11.5845
 1.9840	11.4533
 1.9830	11.4220
 1.9820	11.3742
 1.9810	11.4188
 1.9800	11.2505
 1.9790	11.3052
 1.9780	11.2464
 1.9770	11.2333
 1.9760	11.1600
 1.9750	11.2497
 1.9740	11.0899
 1.9730	11.1722
 1.9720	10.9830
 1.9710	11.0401
 1.9700	11.0106
 1.9690	11.0224
 1.9680	10.9457
 1.9670	10.9036
 1.9660	10.8879
 1.9650	10.9038
 1.9640	10.7658
 1.9630	10.9257
 1.9620	10.8039
 1.9610	10.8091
 1.9600	10.7978
 1.9590	10.8959
 1.9580	10.7633
 1.9570	10.9317
 1.9560	10.8507
 1.9550	11.0074
 1.9540	10.8790
 1.9530	11.1451
 1.9520	11.0023
 1.9510	11.1443
 1.9500	11.2228
 1.9490	11.4673
 1.9480	11.3701
 1.9470	11.6215
 1.9460	11.6209
 1.9450	11.8418
 1.9440	11.9319
 1.9430	12.1636
 1.9420	12.1870
 1.9410	12.4863
 1.9400	12.4988
 1.9390	12.7993
 1.9380	12.8922
 1.9370	13.2792
 1.9360	13.3155
 1.9350	13.6210
 1.9340	13.7040
 1.9330	14.0179
 1.9320	14.1960
 1.9310	14.4024
 1.9300	14.5380
 1.9290	14.9150
 1.9280	14.9906
 1.9270	15.4689
 1.9260	15.2943
 1.9250	15.7497
 1.9240	15.8406
 1.9230	16.2082
 1.9220	16.4118
 1.9210	16.6289
 1.9200	16.8067
 1.9190	17.0406
 1.9180	17.2159
 1.9170	17.6677
 1.9160	17.7056
 1.9150	17.9593
 1.9140	18.0703
 1.9130	18.4020
 1.9120	18.4921
 1.9110	18.7416
 1.9100	18.9230
 1.9090	19.1677
 1.9080	19.2955
 1.9070	19.5184
 1.9060	19.7179
 1.9050	19.8713
 1.9040	19.9925
 1.9030	20.3111
 1.9020	20.3024
 1.9010	20.6909
 1.9000	20.7545
 1.8990	20.9447
 1.8980	21.0027
 1.8970	21.3357
 1.8960	21.4137
 1.8950	21.6437
 1.8940	21.7380
 1.8930	21.9183
 1.8920	21.9835
 1.8910	22.1476
 1.8900	22.2014
 1.8890	22.3338
 1.8880	22.4173
 1.8870	22.6128
 1.8860	22.6773
 1.8850	22.8118
 1.8840	22.8328
 1.8830	23.0479
 1.8820	23.0406
 1.8810	23.2239
 1.8800	23.2724
 1.8790	23.4268
 1.8780	23.4642
 1.8770	23.6089
 1.8760	23.5883
 1.8750	23.7162
 1.8740	23.7739
 1.8730	23.8489
 1.8720	23.8617
 1.8710	23.9982
 1.8700	23.9902
 1.8690	24.1881
 1.8680	24.1710
 1.8670	24.3001
 1.8660	24.3900
 1.8650	24.5474
 1.8640	24.4976
 1.8630	24.6707
 1.8620	24.5905
 1.8610	24.7091
 1.8600	24.7396
 1.8590	24.7601
 1.8580	24.7607
 1.8570	24.8685
 1.8560	24.8143
 1.8550	24.8709
 1.8540	24.8618
 1.8530	24.9542
 1.8520	24.9239
 1.8510	24.9056
 1.8500	24.9023
 1.8490	25.0068
 1.8480	24.9964
 1.8470	24.9924
 1.8460	24.9558
 1.8450	25.0920
 1.8440	25.0465
 1.8430	25.0820
 1.8420	24.9619
 1.8410	25.0261
 1.8400	24.9875
 1.8390	25.0083
 1.8380	24.9490
 1.8370	24.9748
 1.8360	24.9402
 1.8350	24.9050
 1.8340	24.9594
 1.8330	25.0047
 1.8320	24.9851
 1.8310	25.0208
 1.8300	24.9940
 1.8290	24.9015
 1.8280	24.8603
 1.8270	24.9372
 1.8260	24.9403
 1.8250	24.9660
 1.8240	24.9068
 1.8230	24.9180
 1.8220	24.9090
 1.8210	24.8361
 1.8200	24.7866
 1.8190	24.7883
 1.8180	24.7957
 1.8170	24.8628
 1.8160	24.8453
 1.8150	24.8534
 1.8140	24.8251
 1.8130	24.8620
 1.8120	24.8169
 1.8110	24.8141
 1.8100	24.8114
 1.8090	24.8297
 1.8080	24.8007
 1.8070	24.7934
 1.8060	24.8031
 1.8050	24.8328
 1.8040	24.8072
 1.8030	24.7870
 1.8020	24.8088
 1.8010	24.8035
 1.8000	24.7595
 1.7990	24.8040
 1.7980	24.7805
 1.7970	24.8056
 1.7960	24.8391
 1.7950	24.8803
 1.7940	24.8842
 1.7930	24.8504
 1.7920	24.8471
 1.7910	24.8928
 1.7900	24.9077
 1.7890	24.9066
 1.7880	24.8437
 1.7870	24.7812
 1.7860	24.8060
 1.7850	24.8220
 1.7840	24.8405
 1.7830	24.8541
 1.7820	24.8294
 1.7810	24.8048
 1.7800	24.8273
 1.7790	24.8137
 1.7780	24.8173
 1.7770	24.8247
 1.7760	24.8497
 1.7750	24.8474
 1.7740	24.8481
 1.7730	24.8388
 1.7720	24.8510
 1.7710	24.8586
 1.7700	24.8327
 1.7690	24.8168
 1.7680	24.8795
 1.7670	24.8887
 1.7660	24.9170
 1.7650	24.9174
 1.7640	24.8924
 1.7630	24.9312
 1.7620	24.9383
 1.7610	24.9445
 1.7600	24.9832
 1.7590	24.9733
 1.7580	24.9931
 1.7570	25.0188
 1.7560	25.0934
 1.7550	25.0944
 1.7540	25.1120
 1.7530	25.0975
 1.7520	25.2081
 1.7510	25.2003
 1.7500	25.2323
 1.7490	25.2704
 1.7480	25.2914
 1.7470	25.3123
 1.7460	25.3416
 1.7450	25.3677
 1.7440	25.3643
 1.7430	25.3476
 1.7420	25.4213
 1.7410	25.4043
 1.7400	25.4509
 1.7390	25.4485
 1.7380	25.4936
 1.7370	25.4266
 1.7360	25.4568
 1.7350	25.4207
 1.7340	25.4691
 1.7330	25.4602
 1.7320	25.5113
 1.7310	25.4687
 1.7300	25.5143
 1.7290	25.4306
 1.7280	25.4476
 1.7270	25.3853
 1.7260	25.4092
 1.7250	25.3605
 1.7240	25.4021
 1.7230	25.3243
 1.7220	25.3780
 1.7210	25.3062
 1.7200	25.2979
 1.7190	25.2080
 1.7180	25.2292
 1.7170	25.1690
 1.7160	25.1605
 1.7150	25.0091
 1.7140	25.0289
 1.7130	24.9819
 1.7120	24.9796
 1.7110	24.8392
 1.7100	24.8807
 1.7090	24.7880
 1.7080	24.8028
 1.7070	24.6710
 1.7060	24.6995
 1.7050	24.5538
 1.7040	24.5675
 1.7030	24.4789
 1.7020	24.4744
 1.7010	24.4471
 1.7000	24.3989
 1.6990	24.2399
 1.6980	24.3407
 1.6970	24.2305
 1.6960	24.1993
 1.6950	24.0812
 1.6940	24.1381
 1.6930	24.0154
 1.6920	24.0178
 1.6910	23.9653
 1.6900	24.0036
 1.6890	23.9439
 1.6880	23.9811
 1.6870	23.9041
 1.6860	23.9181
 1.6850	23.8057
 1.6840	23.8512
 1.6830	23.8200
 1.6820	23.8135
 1.6810	23.7353
 1.6800	23.7969
 1.6790	23.6961
 1.6780	23.7776
 1.6770	23.6683
 1.6760	23.7594
 1.6750	23.6114
 1.6740	23.6661
 1.6730	23.5925
 1.6720	23.6620
 1.6710	23.6111
 1.6700	23.6835
 1.6690	23.7855
 1.6680	23.4754
 1.6670	23.5988
 1.6660	23.6761
 1.6650	23.6057
 1.6640	23.6614
 1.6630	23.5926
 1.6620	23.6677
 1.6610	23.6707
 1.6600	23.6809
 1.6590	23.5694
 1.6580	23.7488
 1.6570	23.7133
 1.6560	23.8855
 1.6550	23.8314
 1.6540	23.8699
 1.6530	23.8142
 1.6520	23.9641
 1.6510	23.9660
 1.6500	24.0379
 1.6490	24.0958
 1.6480	24.2472
 1.6470	24.1832
 1.6460	24.3067
 1.6450	24.3243
 1.6440	24.4893
 1.6430	24.5099
 1.6420	24.7731
 1.6410	24.5998
 1.6400	24.9139
 1.6390	24.9259
 1.6380	25.0724
 1.6370	25.0814
 1.6360	25.2957
 1.6350	25.2623
 1.6340	25.4959
 1.6330	25.4934
 1.6320	25.7806
 1.6310	25.7441
 1.6300	25.9533
 1.6290	25.9229
 1.6280	26.2313
 1.6270	26.1716
 1.6260	26.4125
 1.6250	26.3550
 1.6240	26.7487
 1.6230	26.7449
 1.6220	26.9604
 1.6210	27.0192
 1.6200	27.2425
 1.6190	27.2586
 1.6180	27.5314
 1.6170	27.5439
 1.6160	27.7748
 1.6150	27.8503
 1.6140	28.0787
 1.6130	28.1162
 1.6120	28.3410
 1.6110	28.3791
 1.6100	28.5586
 1.6090	28.6341
 1.6080	28.8273
 1.6070	28.8524
 1.6060	29.0761
 1.6050	29.1518
 1.6040	29.3239
 1.6030	29.3786
 1.6020	29.5172
 1.6010	29.5755
 1.6000	29.6956
 1.5990	29.7857
 1.5980	29.9223
 1.5970	29.9106
 1.5960	30.0963
 1.5950	30.0928
 1.5940	30.2651
 1.5930	30.2951
 1.5920	30.4090
 1.5910	30.3873
 1.5900	30.4812
 1.5890	30.4734
 1.5880	30.5066
 1.5870	30.5149
 1.5860	30.6118
 1.5850	30.5664
 1.5840	30.6260
 1.5830	30.4824
 1.5820	30.5722
 1.5810	30.4855
 1.5800	30.5091
 1.5790	30.4740
 1.5780	30.4243
 1.5770	30.3479
 1.5760	30.3910
 1.5750	30.3135
 1.5740	30.3026
 1.5730	30.2513
 1.5720	30.2720
 1.5710	30.2057
 1.5700	30.2016
 1.5690	30.1477
 1.5680	30.1669
 1.5670	30.1728
 1.5660	30.1574
 1.5650	30.0995
 1.5640	30.1034
 1.5630	30.0862
 1.5620	30.1187
 1.5610	30.0733
 1.5600	30.1022
 1.5590	30.1024
 1.5580	30.1965
 1.5570	30.1840
 1.5560	30.2204
 1.5550	30.2308
 1.5540	30.2953
 1.5530	30.2790
 1.5520	30.3046
 1.5510	30.3713
 1.5500	30.4610
 1.5490	30.5205
 1.5480	30.5969
 1.5470	30.6686
 1.5460	30.8612
 1.5450	31.0157
 1.5440	31.1467
 1.5430	31.2404
 1.5420	31.4406
 1.5410	31.5197
 1.5400	31.6882
 1.5390	31.9212
 1.5380	32.0455
 1.5370	32.1876
 1.5360	32.4278
 1.5350	32.5746
 1.5340	32.7768
 1.5330	32.8918
 1.5320	33.0710
 1.5310	33.2262
 1.5300	33.3939
 1.5290	33.5447
 1.5280	33.7046
 1.5270	33.8509
 1.5260	34.0004
 1.5250	34.0805
 1.5240	34.3039
 1.5230	34.4272
 1.5220	34.5738
 1.5210	34.6890
 1.5200	34.8533
 1.5190	35.0017
 1.5180	35.1895
 1.5170	35.3270
 1.5160	35.4272
 1.5150	35.5454
 1.5140	35.7206
 1.5130	35.8429
 1.5120	35.9826
 1.5110	36.0839
 1.5100	36.2058
 1.5090	36.3290
 1.5080	36.4811
 1.5070	36.5773
 1.5060	36.5991
 1.5050	36.6899
 1.5040	36.8141
 1.5030	36.8913
 1.5020	36.9539
 1.5010	37.0212
 1.5000	37.1404
 1.4990	37.2719
 1.4980	37.3805
 1.4970	37.4984
 1.4960	37.5651
 1.4950	37.6296
 1.4940	37.7125
 1.4930	37.7710
 1.4920	37.7848
 1.4910	37.8843
 1.4900	37.9769
 1.4890	38.0697
 1.4880	38.1286
 1.4870	38.1649
 1.4860	38.2102
 1.4850	38.2144
 1.4840	38.2863
 1.4830	38.2819
 1.4820	38.2486
 1.4810	38.2695
 1.4800	38.2650
 1.4790	38.2554
 1.4780	38.2130
 1.4770	38.1535
 1.4760	38.0384
 1.4750	37.9798
 1.4740	37.9253
 1.4730	37.8172
 1.4720	37.6335
 1.4710	37.4977
 1.4700	37.3260
 1.4690	37.1930
 1.4680	37.0368
 1.4670	36.8986
 1.4660	36.7064
 1.4650	36.4908
 1.4640	36.3286
 1.4630	36.1683
 1.4620	35.9399
 1.4610	35.7774
 1.4600	35.5997
 1.4590	35.4451
 1.4580	35.2204
 1.4570	35.0246
 1.4560	34.7855
 1.4550	34.6545
 1.4540	34.4752
 1.4530	34.3348
 1.4520	34.1198
 1.4510	33.9781
 1.4500	33.8740
 1.4490	33.7564
 1.4480	33.5951
 1.4470	33.5630
 1.4460	33.4817
 1.4450	33.5086
 1.4440	33.5059
 1.4430	33.6237
 1.4420	33.7344
 1.4410	33.8754
 1.4400	33.9550
 1.4390	34.0431
 1.4380	34.1082
 1.4370	34.0650
 1.4360	33.9265
 1.4350	33.6730
 1.4340	33.0651
 1.4330	32.3842
 1.4320	31.3604
 1.4310	30.1214
 1.4300	28.6903
 1.4290	27.0759
 1.4280	25.4174
 1.4270	23.9973
 1.4260	22.5575
 1.4250	21.4954
 1.4240	20.7474
 1.4230	20.3189
 1.4220	20.1465
 1.4210	20.3658
 1.4200	20.6813
 1.4190	21.2862
 1.4180	21.9142
 1.4170	22.8044
 1.4160	23.8647
 1.4150	25.1776
 1.4140	26.5320
 1.4130	27.8342
 1.4120	29.2052
 1.4110	30.6322
 1.4100	31.9902
 1.4090	33.3400
 1.4080	34.5985
 1.4070	35.7855
 1.4060	36.9557
 1.4050	38.2389
 1.4040	39.2865
 1.4030	40.5015
 1.4020	41.5282
 1.4010	42.6762
 1.4000	43.7397
 1.3990	44.8025
 1.3980	45.6729
 1.3970	46.6342
 1.3960	47.4718
 1.3950	48.2918
 1.3940	48.9228
 1.3930	49.6264
 1.3920	50.1863
 1.3910	50.7950
 1.3900	51.2019
 1.3890	51.7675
 1.3880	52.2445
 1.3870	52.6721
 1.3860	53.1053
 1.3850	53.6629
 1.3840	54.1919
 1.3830	54.7074
 1.3820	55.1945
 1.3810	55.6808
 1.3800	56.0854
 1.3790	56.5201
 1.3780	56.8559
 1.3770	57.3161
 1.3760	57.5144
 1.3750	57.8596
 1.3740	58.1688
 1.3730	58.4952
 1.3720	58.7308
 1.3710	59.0223
 1.3700	59.2186
 1.3690	59.5978
 1.3680	59.6937
 1.3670	59.9894
 1.3660	60.1329
