Name: Quartz SiO_2
Type: Mineral
Class: Silicate
Subclass: Tectosilicate
Particle Size: Medium
Sample No.: TS-1E
Owner: JPL
Wavelength Range: VSWIR
Origin: Unknown.
Collection Date: N/A
Description: CrysopraseParticle size was 45-125um.Collected by:  JPL Original ASTER Spectral Library name was jpl.perkin.mineral.silicate.tectosilicate.medium.ts01e.spectrum.txt
Measurement: Hemispherical reflectance
First Column: X
Second Column: Y
X Units: Wavelength (micrometers)
Y Units:Reflectance (percent)
First X Value:  2.5000
Last X Value:  0.4000
Number of X Values: 2101
Additional Information: mineral.silicate.tectosilicate.medium.vswir.ts-1e.jpl.perkin.ancillary.txt

 2.5000	59.9848
 2.4990	59.9019
 2.4980	59.9691
 2.4970	59.8692
 2.4960	59.6471
 2.4950	60.0130
 2.4940	60.0840
 2.4930	60.0647
 2.4920	60.0732
 2.4910	60.4527
 2.4900	60.4577
 2.4890	60.3713
 2.4880	60.5643
 2.4870	60.5433
 2.4860	60.6646
 2.4850	60.6795
 2.4840	60.7533
 2.4830	60.8738
 2.4820	60.9454
 2.4810	60.9845
 2.4800	61.1178
 2.4790	61.2137
 2.4780	61.3479
 2.4770	61.3253
 2.4760	61.3930
 2.4750	61.4889
 2.4740	61.4287
 2.4730	61.5637
 2.4720	61.7375
 2.4710	61.8706
 2.4700	61.8456
 2.4690	62.1175
 2.4680	62.0556
 2.4670	62.1092
 2.4660	62.2500
 2.4650	62.2494
 2.4640	62.4185
 2.4630	62.5150
 2.4620	62.6647
 2.4610	62.7825
 2.4600	62.9206
 2.4590	62.9227
 2.4580	63.1184
 2.4570	63.0315
 2.4560	63.2493
 2.4550	63.4102
 2.4540	63.6351
 2.4530	63.6743
 2.4520	63.7747
 2.4510	63.7585
 2.4500	63.9451
 2.4490	64.2375
 2.4480	64.2753
 2.4470	64.3366
 2.4460	64.5258
 2.4450	64.5940
 2.4440	64.7653
 2.4430	64.8177
 2.4420	64.9558
 2.4410	64.9545
 2.4400	65.1215
 2.4390	65.0858
 2.4380	65.2917
 2.4370	65.4076
 2.4360	65.4910
 2.4350	65.4773
 2.4340	65.7774
 2.4330	65.8259
 2.4320	65.8779
 2.4310	66.0453
 2.4300	66.0727
 2.4290	66.2374
 2.4280	66.1540
 2.4270	66.1642
 2.4260	66.2595
 2.4250	66.3540
 2.4240	66.3537
 2.4230	66.3768
 2.4220	66.5471
 2.4210	66.5752
 2.4200	66.7093
 2.4190	66.7507
 2.4180	66.8859
 2.4170	66.9093
 2.4160	67.0106
 2.4150	67.0464
 2.4140	67.1551
 2.4130	67.0936
 2.4120	67.3146
 2.4110	67.4021
 2.4100	67.4324
 2.4090	67.5316
 2.4080	67.6036
 2.4070	67.7063
 2.4060	67.7480
 2.4050	67.7978
 2.4040	67.8315
 2.4030	67.9054
 2.4020	67.9861
 2.4010	67.9821
 2.4000	68.0908
 2.3990	68.1784
 2.3980	68.2802
 2.3970	68.3984
 2.3960	68.5334
 2.3950	68.5707
 2.3940	68.6232
 2.3930	68.6316
 2.3920	68.7254
 2.3910	68.7978
 2.3900	68.8588
 2.3890	69.0380
 2.3880	69.0919
 2.3870	69.1019
 2.3860	69.1706
 2.3850	69.2061
 2.3840	69.2571
 2.3830	69.3312
 2.3820	69.3716
 2.3810	69.4256
 2.3800	69.4885
 2.3790	69.5506
 2.3780	69.6034
 2.3770	69.5402
 2.3760	69.5953
 2.3750	69.6087
 2.3740	69.6872
 2.3730	69.7388
 2.3720	69.7067
 2.3710	69.6783
 2.3700	69.7622
 2.3690	69.7861
 2.3680	69.7864
 2.3670	69.7798
 2.3660	69.7888
 2.3650	69.8342
 2.3640	69.8544
 2.3630	69.8743
 2.3620	69.8551
 2.3610	69.7975
 2.3600	69.8405
 2.3590	69.8450
 2.3580	69.7828
 2.3570	69.8371
 2.3560	69.7954
 2.3550	69.7252
 2.3540	69.7678
 2.3530	69.6966
 2.3520	69.6485
 2.3510	69.6559
 2.3500	69.5801
 2.3490	69.4817
 2.3480	69.5130
 2.3470	69.4882
 2.3460	69.3951
 2.3450	69.2926
 2.3440	69.2620
 2.3430	69.2373
 2.3420	69.1710
 2.3410	69.0702
 2.3400	68.9290
 2.3390	68.8683
 2.3380	68.7653
 2.3370	68.6713
 2.3360	68.6237
 2.3350	68.5161
 2.3340	68.3859
 2.3330	68.2987
 2.3320	68.1429
 2.3310	68.0617
 2.3300	67.9520
 2.3290	67.7810
 2.3280	67.5628
 2.3270	67.4923
 2.3260	67.4064
 2.3250	67.3309
 2.3240	67.2222
 2.3230	67.1573
 2.3220	67.0655
 2.3210	66.9675
 2.3200	66.9107
 2.3190	66.7715
 2.3180	66.6757
 2.3170	66.6648
 2.3160	66.6220
 2.3150	66.5673
 2.3140	66.5116
 2.3130	66.4689
 2.3120	66.3917
 2.3110	66.3381
 2.3100	66.3196
 2.3090	66.3711
 2.3080	66.3531
 2.3070	66.2935
 2.3060	66.3151
 2.3050	66.3617
 2.3040	66.2963
 2.3030	66.3347
 2.3020	66.3098
 2.3010	66.2623
 2.3000	66.3027
 2.2990	66.3670
 2.2980	66.3122
 2.2970	66.4124
 2.2960	66.4606
 2.2950	66.4870
 2.2940	66.4735
 2.2930	66.5491
 2.2920	66.5878
 2.2910	66.6477
 2.2900	66.6050
 2.2890	66.6956
 2.2880	66.6674
 2.2870	66.8115
 2.2860	66.8067
 2.2850	66.8730
 2.2840	66.8909
 2.2830	66.9609
 2.2820	66.9139
 2.2810	66.9331
 2.2800	66.9782
 2.2790	67.0343
 2.2780	66.9977
 2.2770	67.0448
 2.2760	67.0041
 2.2750	66.9854
 2.2740	67.0930
 2.2730	67.0546
 2.2720	67.0527
 2.2710	67.0614
 2.2700	67.1059
 2.2690	67.1014
 2.2680	66.9868
 2.2670	67.0826
 2.2660	67.1243
 2.2650	67.0645
 2.2640	66.9960
 2.2630	67.0207
 2.2620	67.0219
 2.2610	67.0105
 2.2600	66.9658
 2.2590	66.9159
 2.2580	66.8460
 2.2570	66.9081
 2.2560	66.8412
 2.2550	66.8939
 2.2540	66.9204
 2.2530	66.8748
 2.2520	66.8672
 2.2510	66.9013
 2.2500	66.9192
 2.2490	66.9574
 2.2480	66.9648
 2.2470	66.9746
 2.2460	67.0051
 2.2450	66.9840
 2.2440	67.0880
 2.2430	67.0945
 2.2420	67.1218
 2.2410	67.1112
 2.2400	67.1668
 2.2390	67.1335
 2.2380	67.2064
 2.2370	67.3214
 2.2360	67.3233
 2.2350	67.3682
 2.2340	67.2831
 2.2330	67.3577
 2.2320	67.3380
 2.2310	67.3453
 2.2300	67.3031
 2.2290	67.4382
 2.2280	67.3458
 2.2270	67.4306
 2.2260	67.4174
 2.2250	67.4205
 2.2240	67.4125
 2.2230	67.4696
 2.2220	67.4031
 2.2210	67.4411
 2.2200	67.5002
 2.2190	67.4692
 2.2180	67.5402
 2.2170	67.5403
 2.2160	67.4752
 2.2150	67.6179
 2.2140	67.6260
 2.2130	67.6441
 2.2120	67.6832
 2.2110	67.7293
 2.2100	67.8825
 2.2090	67.9249
 2.2080	67.9525
 2.2070	68.2032
 2.2060	68.2552
 2.2050	68.4447
 2.2040	68.5017
 2.2030	68.7304
 2.2020	68.8784
 2.2010	69.0028
 2.2000	69.2191
 2.1990	69.4166
 2.1980	69.6357
 2.1970	69.7878
 2.1960	69.8597
 2.1950	70.0645
 2.1940	70.1705
 2.1930	70.3184
 2.1920	70.4796
 2.1910	70.6183
 2.1900	70.7678
 2.1890	70.9353
 2.1880	71.1129
 2.1870	71.3089
 2.1860	71.4132
 2.1850	71.6374
 2.1840	71.7118
 2.1830	71.9533
 2.1820	72.0941
 2.1810	72.2953
 2.1800	72.3995
 2.1790	72.5651
 2.1780	72.7348
 2.1770	72.8174
 2.1760	73.0149
 2.1750	73.1503
 2.1740	73.2431
 2.1730	73.3460
 2.1720	73.5791
 2.1710	73.6992
 2.1700	73.8749
 2.1690	73.9893
 2.1680	74.0722
 2.1670	74.1834
 2.1660	74.3074
 2.1650	74.4063
 2.1640	74.5858
 2.1630	74.6719
 2.1620	74.7374
 2.1610	74.9444
 2.1600	74.9980
 2.1590	75.0554
 2.1580	75.1478
 2.1570	75.2494
 2.1560	75.4200
 2.1550	75.4343
 2.1540	75.4862
 2.1530	75.5823
 2.1520	75.6440
 2.1510	75.6760
 2.1500	75.8052
 2.1490	75.8963
 2.1480	75.9692
 2.1470	75.9577
 2.1460	76.0068
 2.1450	76.0361
 2.1440	76.1280
 2.1430	76.1492
 2.1420	76.1644
 2.1410	76.3027
 2.1400	76.3122
 2.1390	76.3191
 2.1380	76.3699
 2.1370	76.3817
 2.1360	76.3293
 2.1350	76.4563
 2.1340	76.4677
 2.1330	76.4556
 2.1320	76.4601
 2.1310	76.3980
 2.1300	76.4689
 2.1290	76.4962
 2.1280	76.4636
 2.1270	76.4052
 2.1260	76.4226
 2.1250	76.4620
 2.1240	76.3827
 2.1230	76.3639
 2.1220	76.3414
 2.1210	76.2983
 2.1200	76.2944
 2.1190	76.2764
 2.1180	76.2598
 2.1170	76.2071
 2.1160	76.1589
 2.1150	76.0939
 2.1140	76.0602
 2.1130	76.0555
 2.1120	76.0024
 2.1110	75.9893
 2.1100	75.9335
 2.1090	75.8907
 2.1080	75.8064
 2.1070	75.7860
 2.1060	75.7783
 2.1050	75.7997
 2.1040	75.7225
 2.1030	75.6897
 2.1020	75.6802
 2.1010	75.6635
 2.1000	75.5680
 2.0990	75.5731
 2.0980	75.6095
 2.0970	75.6676
 2.0960	75.6703
 2.0950	75.6685
 2.0940	75.6671
 2.0930	75.6772
 2.0920	75.6601
 2.0910	75.7155
 2.0900	75.7564
 2.0890	75.7830
 2.0880	75.7716
 2.0870	75.7732
 2.0860	75.8196
 2.0850	75.9012
 2.0840	75.9267
 2.0830	75.8970
 2.0820	75.8792
 2.0810	75.8854
 2.0800	75.8759
 2.0790	75.8875
 2.0780	75.9395
 2.0770	75.8681
 2.0760	75.8605
 2.0750	75.8376
 2.0740	75.8879
 2.0730	75.9484
 2.0720	75.9101
 2.0710	75.8873
 2.0700	75.8879
 2.0690	75.8942
 2.0680	75.9463
 2.0670	76.0082
 2.0660	75.9849
 2.0650	75.9637
 2.0640	75.9859
 2.0630	75.9969
 2.0620	75.9831
 2.0610	75.9799
 2.0600	75.9988
 2.0590	76.0074
 2.0580	75.9682
 2.0570	75.9916
 2.0560	76.0440
 2.0550	75.9877
 2.0540	75.9906
 2.0530	76.0045
 2.0520	75.9436
 2.0510	75.8827
 2.0500	75.8659
 2.0490	75.9378
 2.0480	76.0103
 2.0470	75.9655
 2.0460	75.9015
 2.0450	75.8677
 2.0440	75.8971
 2.0430	75.8893
 2.0420	75.9118
 2.0410	75.8955
 2.0400	75.8200
 2.0390	75.7873
 2.0380	75.7654
 2.0370	75.7289
 2.0360	75.7713
 2.0350	75.7506
 2.0340	75.6990
 2.0330	75.7025
 2.0320	75.6909
 2.0310	75.6232
 2.0300	75.6465
 2.0290	75.5759
 2.0280	75.6077
 2.0270	75.5311
 2.0260	75.5161
 2.0250	75.4538
 2.0240	75.3721
 2.0230	75.3149
 2.0220	75.3504
 2.0210	75.3676
 2.0200	75.2955
 2.0190	75.1529
 2.0180	75.1025
 2.0170	75.0707
 2.0160	75.0230
 2.0150	75.0045
 2.0140	75.0041
 2.0130	74.9425
 2.0120	74.8921
 2.0110	74.8462
 2.0100	74.7526
 2.0090	74.6687
 2.0080	74.7017
 2.0070	74.6659
 2.0060	74.6250
 2.0050	74.4942
 2.0040	74.4781
 2.0030	74.4662
 2.0020	74.4340
 2.0010	74.3105
 2.0000	74.2747
 1.9990	74.2263
 1.9980	74.1726
 1.9970	74.0693
 1.9960	74.0940
 1.9950	73.9895
 1.9940	73.8868
 1.9930	73.8039
 1.9920	73.6981
 1.9910	73.6553
 1.9900	73.5803
 1.9890	73.5388
 1.9880	73.4191
 1.9870	73.2863
 1.9860	73.2386
 1.9850	73.1559
 1.9840	73.1182
 1.9830	73.0200
 1.9820	72.9061
 1.9810	72.9038
 1.9800	72.7526
 1.9790	72.6849
 1.9780	72.6366
 1.9770	72.5466
 1.9760	72.4936
 1.9750	72.4136
 1.9740	72.2121
 1.9730	72.2192
 1.9720	72.2547
 1.9710	72.1061
 1.9700	72.0909
 1.9690	71.9369
 1.9680	71.9088
 1.9670	71.8094
 1.9660	71.6931
 1.9650	71.6295
 1.9640	71.5315
 1.9630	71.5277
 1.9620	71.4058
 1.9610	71.3217
 1.9600	71.3214
 1.9590	71.1286
 1.9580	71.1835
 1.9570	71.0538
 1.9560	70.9902
 1.9550	70.8083
 1.9540	70.8608
 1.9530	70.8014
 1.9520	70.7585
 1.9510	70.6949
 1.9500	70.6119
 1.9490	70.5261
 1.9480	70.4286
 1.9470	70.4886
 1.9460	70.2662
 1.9450	70.2518
 1.9440	70.2991
 1.9430	70.2026
 1.9420	70.0886
 1.9410	70.0688
 1.9400	70.0348
 1.9390	69.9843
 1.9380	69.8601
 1.9370	69.8456
 1.9360	69.8145
 1.9350	69.7248
 1.9340	69.7560
 1.9330	69.6706
 1.9320	69.5020
 1.9310	69.5392
 1.9300	69.5010
 1.9290	69.5134
 1.9280	69.4659
 1.9270	69.3055
 1.9260	69.2260
 1.9250	69.2430
 1.9240	69.1848
 1.9230	69.1969
 1.9220	69.1133
 1.9210	69.1594
 1.9200	69.1018
 1.9190	68.9273
 1.9180	69.0003
 1.9170	68.9271
 1.9160	69.0171
 1.9150	68.8975
 1.9140	68.8039
 1.9130	68.8951
 1.9120	68.8817
 1.9110	68.8913
 1.9100	68.9924
 1.9090	69.1093
 1.9080	69.1454
 1.9070	69.2882
 1.9060	69.3514
 1.9050	69.5032
 1.9040	69.7740
 1.9030	69.9288
 1.9020	70.1848
 1.9010	70.5743
 1.9000	70.8334
 1.8990	71.1795
 1.8980	71.4737
 1.8970	71.8195
 1.8960	72.2764
 1.8950	72.6084
 1.8940	72.9600
 1.8930	73.3827
 1.8920	73.8129
 1.8910	74.1490
 1.8900	74.5575
 1.8890	74.8826
 1.8880	75.1991
 1.8870	75.4892
 1.8860	75.9187
 1.8850	76.0136
 1.8840	76.4234
 1.8830	76.6003
 1.8820	76.8140
 1.8810	76.9464
 1.8800	77.1906
 1.8790	77.2849
 1.8780	77.4769
 1.8770	77.6037
 1.8760	77.7469
 1.8750	77.8616
 1.8740	78.0120
 1.8730	78.1408
 1.8720	78.3540
 1.8710	78.3763
 1.8700	78.5118
 1.8690	78.5105
 1.8680	78.6147
 1.8670	78.6872
 1.8660	78.7729
 1.8650	78.8296
 1.8640	78.9261
 1.8630	79.0141
 1.8620	79.0420
 1.8610	79.0427
 1.8600	79.1257
 1.8590	79.0774
 1.8580	79.1512
 1.8570	79.1455
 1.8560	79.1666
 1.8550	79.2328
 1.8540	79.2954
 1.8530	79.3096
 1.8520	79.3302
 1.8510	79.3370
 1.8500	79.3075
 1.8490	79.3707
 1.8480	79.3331
 1.8470	79.3819
 1.8460	79.3781
 1.8450	79.4365
 1.8440	79.4508
 1.8430	79.4830
 1.8420	79.4314
 1.8410	79.4307
 1.8400	79.5065
 1.8390	79.5116
 1.8380	79.4533
 1.8370	79.4503
 1.8360	79.4199
 1.8350	79.5095
 1.8340	79.5685
 1.8330	79.4922
 1.8320	79.4796
 1.8310	79.4707
 1.8300	79.4766
 1.8290	79.5070
 1.8280	79.6167
 1.8270	79.5698
 1.8260	79.5767
 1.8250	79.5594
 1.8240	79.4940
 1.8230	79.5613
 1.8220	79.5339
 1.8210	79.5610
 1.8200	79.6138
 1.8190	79.5219
 1.8180	79.5339
 1.8170	79.6006
 1.8160	79.5855
 1.8150	79.5342
 1.8140	79.5760
 1.8130	79.6608
 1.8120	79.6041
 1.8110	79.5738
 1.8100	79.6029
 1.8090	79.6432
 1.8080	79.6204
 1.8070	79.5554
 1.8060	79.6443
 1.8050	79.6882
 1.8040	79.7061
 1.8030	79.6836
 1.8020	79.7130
 1.8010	79.6823
 1.8000	79.6350
 1.7990	79.6766
 1.7980	79.6772
 1.7970	79.6561
 1.7960	79.7425
 1.7950	79.7159
 1.7940	79.6618
 1.7930	79.7174
 1.7920	79.6831
 1.7910	79.6415
 1.7900	79.6691
 1.7890	79.6787
 1.7880	79.6277
 1.7870	79.6286
 1.7860	79.6889
 1.7850	79.7241
 1.7840	79.6765
 1.7830	79.6389
 1.7820	79.6340
 1.7810	79.6297
 1.7800	79.6691
 1.7790	79.6790
 1.7780	79.7234
 1.7770	79.6810
 1.7760	79.6638
 1.7750	79.7316
 1.7740	79.7142
 1.7730	79.6699
 1.7720	79.6712
 1.7710	79.6965
 1.7700	79.6791
 1.7690	79.6524
 1.7680	79.7310
 1.7670	79.7356
 1.7660	79.6962
 1.7650	79.7122
 1.7640	79.7248
 1.7630	79.7468
 1.7620	79.7350
 1.7610	79.6973
 1.7600	79.7411
 1.7590	79.7863
 1.7580	79.8312
 1.7570	79.8395
 1.7560	79.8053
 1.7550	79.7762
 1.7540	79.7859
 1.7530	79.8313
 1.7520	79.8775
 1.7510	79.8998
 1.7500	79.8881
 1.7490	79.8915
 1.7480	79.8825
 1.7470	79.8411
 1.7460	79.8269
 1.7450	79.8309
 1.7440	79.8478
 1.7430	79.8752
 1.7420	79.8224
 1.7410	79.9464
 1.7400	79.9866
 1.7390	79.9040
 1.7380	79.9522
 1.7370	79.9410
 1.7360	79.9159
 1.7350	79.9192
 1.7340	79.9738
 1.7330	79.9401
 1.7320	79.9846
 1.7310	79.9786
 1.7300	79.9977
 1.7290	79.9940
 1.7280	79.9978
 1.7270	80.0402
 1.7260	80.0189
 1.7250	80.0436
 1.7240	80.0202
 1.7230	79.9821
 1.7220	79.9884
 1.7210	80.0120
 1.7200	80.0161
 1.7190	79.9844
 1.7180	79.9363
 1.7170	79.9719
 1.7160	79.9788
 1.7150	80.0510
 1.7140	80.0502
 1.7130	80.0513
 1.7120	80.0368
 1.7110	79.9676
 1.7100	80.0201
 1.7090	80.0492
 1.7080	80.0146
 1.7070	80.0515
 1.7060	80.0338
 1.7050	80.0763
 1.7040	80.0289
 1.7030	79.9536
 1.7020	80.0734
 1.7010	80.0446
 1.7000	79.9675
 1.6990	80.0538
 1.6980	80.0208
 1.6970	80.0431
 1.6960	80.0647
 1.6950	80.0149
 1.6940	79.9915
 1.6930	79.9158
 1.6920	80.0349
 1.6910	80.0258
 1.6900	79.9562
 1.6890	79.8940
 1.6880	79.9254
 1.6870	79.9693
 1.6860	79.9147
 1.6850	80.0244
 1.6840	79.9935
 1.6830	80.0368
 1.6820	79.9165
 1.6810	79.9709
 1.6800	80.0301
 1.6790	79.9681
 1.6780	80.0152
 1.6770	79.9899
 1.6760	79.9828
 1.6750	80.0441
 1.6740	79.9907
 1.6730	79.9668
 1.6720	79.9762
 1.6710	79.9625
 1.6700	79.9423
 1.6690	80.0409
 1.6680	80.0548
 1.6670	80.0197
 1.6660	79.9842
 1.6650	80.0300
 1.6640	80.0275
 1.6630	79.9842
 1.6620	80.0698
 1.6610	80.0214
 1.6600	79.9413
 1.6590	79.9766
 1.6580	79.9519
 1.6570	80.0053
 1.6560	79.9451
 1.6550	79.9898
 1.6540	79.9863
 1.6530	79.9602
 1.6520	80.0387
 1.6510	80.0213
 1.6500	79.9662
 1.6490	79.9569
 1.6480	79.9405
 1.6470	79.9818
 1.6460	80.1146
 1.6450	79.9604
 1.6440	79.9760
 1.6430	80.0537
 1.6420	80.0026
 1.6410	80.0959
 1.6400	79.9738
 1.6390	79.9614
 1.6380	79.9095
 1.6370	80.1015
 1.6360	80.0370
 1.6350	80.0452
 1.6340	79.9276
 1.6330	79.9465
 1.6320	79.9339
 1.6310	80.0309
 1.6300	79.9660
 1.6290	79.9323
 1.6280	79.9367
 1.6270	79.8775
 1.6260	79.9071
 1.6250	80.0756
 1.6240	80.0207
 1.6230	80.0133
 1.6220	79.9481
 1.6210	79.9564
 1.6200	79.9396
 1.6190	79.9175
 1.6180	79.9675
 1.6170	79.9991
 1.6160	79.9624
 1.6150	79.9032
 1.6140	79.9130
 1.6130	79.8765
 1.6120	79.9588
 1.6110	79.9562
 1.6100	79.9377
 1.6090	79.9329
 1.6080	79.8915
 1.6070	79.9189
 1.6060	79.9154
 1.6050	79.9344
 1.6040	79.9044
 1.6030	79.9451
 1.6020	79.9315
 1.6010	79.8042
 1.6000	79.8477
 1.5990	79.9395
 1.5980	79.9287
 1.5970	79.9195
 1.5960	79.8273
 1.5950	79.8129
 1.5940	79.8347
 1.5930	79.8872
 1.5920	79.8335
 1.5910	79.8355
 1.5900	79.8269
 1.5890	79.7637
 1.5880	79.7608
 1.5870	79.7601
 1.5860	79.8144
 1.5850	79.8305
 1.5840	79.7176
 1.5830	79.7363
 1.5820	79.7125
 1.5810	79.7867
 1.5800	79.7140
 1.5790	79.7075
 1.5780	79.6820
 1.5770	79.7384
 1.5760	79.6543
 1.5750	79.6305
 1.5740	79.6772
 1.5730	79.7089
 1.5720	79.6062
 1.5710	79.6428
 1.5700	79.6714
 1.5690	79.6429
 1.5680	79.6609
 1.5670	79.6397
 1.5660	79.6108
 1.5650	79.6096
 1.5640	79.5782
 1.5630	79.5418
 1.5620	79.5094
 1.5610	79.5295
 1.5600	79.5624
 1.5590	79.5237
 1.5580	79.4511
 1.5570	79.5122
 1.5560	79.4362
 1.5550	79.3866
 1.5540	79.4497
 1.5530	79.4466
 1.5520	79.4364
 1.5510	79.4070
 1.5500	79.4080
 1.5490	79.4200
 1.5480	79.3623
 1.5470	79.3422
 1.5460	79.3713
 1.5450	79.3296
 1.5440	79.2686
 1.5430	79.3373
 1.5420	79.2369
 1.5410	79.1970
 1.5400	79.2154
 1.5390	79.2470
 1.5380	79.2416
 1.5370	79.2350
 1.5360	79.2216
 1.5350	79.1962
 1.5340	79.1016
 1.5330	79.1317
 1.5320	79.0798
 1.5310	79.0543
 1.5300	79.0977
 1.5290	79.1166
 1.5280	79.0469
 1.5270	78.9775
 1.5260	78.9486
 1.5250	78.9034
 1.5240	78.9016
 1.5230	78.9178
 1.5220	78.8970
 1.5210	78.8918
 1.5200	78.8722
 1.5190	78.8474
 1.5180	78.8393
 1.5170	78.8610
 1.5160	78.7730
 1.5150	78.7158
 1.5140	78.7647
 1.5130	78.7287
 1.5120	78.6861
 1.5110	78.7103
 1.5100	78.6741
 1.5090	78.5976
 1.5080	78.5658
 1.5070	78.5610
 1.5060	78.5518
 1.5050	78.5832
 1.5040	78.5963
 1.5030	78.5167
 1.5020	78.4504
 1.5010	78.4837
 1.5000	78.4352
 1.4990	78.4017
 1.4980	78.4048
 1.4970	78.3529
 1.4960	78.3262
 1.4950	78.3402
 1.4940	78.2797
 1.4930	78.1917
 1.4920	78.1689
 1.4910	78.1508
 1.4900	78.1099
 1.4890	78.1435
 1.4880	78.1431
 1.4870	78.0636
 1.4860	78.0319
 1.4850	77.9924
 1.4840	77.9445
 1.4830	77.9236
 1.4820	77.8839
 1.4810	77.8659
 1.4800	77.7910
 1.4790	77.7921
 1.4780	77.7967
 1.4770	77.7631
 1.4760	77.7765
 1.4750	77.6948
 1.4740	77.7165
 1.4730	77.6831
 1.4720	77.6021
 1.4710	77.4625
 1.4700	77.4832
 1.4690	77.5139
 1.4680	77.4554
 1.4670	77.4385
 1.4660	77.4445
 1.4650	77.4048
 1.4640	77.2808
 1.4630	77.3016
 1.4620	77.3237
 1.4610	77.2797
 1.4600	77.2829
 1.4590	77.2852
 1.4580	77.2990
 1.4570	77.2056
 1.4560	77.1415
 1.4550	77.2127
 1.4540	77.1929
 1.4530	77.1378
 1.4520	77.0627
 1.4510	77.1266
 1.4500	77.0959
 1.4490	77.0294
 1.4480	77.0420
 1.4470	76.9403
 1.4460	76.9327
 1.4450	76.8298
 1.4440	76.8735
 1.4430	76.8666
 1.4420	76.7893
 1.4410	76.6487
 1.4400	76.6809
 1.4390	76.5893
 1.4380	76.5249
 1.4370	76.5213
 1.4360	76.4662
 1.4350	76.4162
 1.4340	76.3276
 1.4330	76.2305
 1.4320	76.1837
 1.4310	76.0966
 1.4300	75.9975
 1.4290	75.9245
 1.4280	75.9143
 1.4270	75.9128
 1.4260	75.8688
 1.4250	75.7888
 1.4240	75.7598
 1.4230	75.7165
 1.4220	75.6243
 1.4210	75.6403
 1.4200	75.6329
 1.4190	75.4903
 1.4180	75.3737
 1.4170	75.0911
 1.4160	74.5677
 1.4150	73.7010
 1.4140	72.8085
 1.4130	72.2339
 1.4120	72.2425
 1.4110	72.7614
 1.4100	73.4725
 1.4090	74.1675
 1.4080	74.7011
 1.4070	74.9636
 1.4060	75.3184
 1.4050	75.6281
 1.4040	75.8837
 1.4030	76.2656
 1.4020	76.6409
 1.4010	76.9953
 1.4000	77.2389
 1.3990	77.3934
 1.3980	77.7566
 1.3970	77.9143
 1.3960	78.1548
 1.3950	78.3283
 1.3940	78.4232
 1.3930	78.4952
 1.3920	78.6523
 1.3910	78.7972
 1.3900	78.9213
 1.3890	78.9265
 1.3880	78.9786
 1.3870	79.1363
 1.3860	79.2237
 1.3850	79.2952
 1.3840	79.3451
 1.3830	79.3780
 1.3820	79.3422
 1.3810	79.4467
 1.3800	79.4572
 1.3790	79.4837
 1.3780	79.5016
 1.3770	79.4969
 1.3760	79.6422
 1.3750	79.6153
 1.3740	79.5949
 1.3730	79.5416
 1.3720	79.5943
 1.3710	79.7019
 1.3700	79.6486
 1.3690	79.5863
 1.3680	79.6308
 1.3670	79.6025
 1.3660	79.5729
