Name: Chlorite
Type: Mineral
Class: Silicate
Subclass: Phyllosilicate
Particle Size: Fine
Sample No.: PS-12C
Owner: JPL
Wavelength Range: VSWIR
Origin: USA, California.
Collection Date: N/A
Description: Particle size was 0-45um.Collected by:  Ward's Original ASTER Spectral Library name was jpl.perkin.mineral.silicate.phyllosilicate.fine.ps12c.spectrum.txt
Measurement: Hemispherical reflectance
First Column: X
Second Column: Y
X Units: Wavelength (micrometers)
Y Units:Reflectance (percent)
First X Value:  2.5000
Last X Value:  0.4000
Number of X Values: 2101
Additional Information: mineral.silicate.phyllosilicate.fine.vswir.ps-12c.jpl.perkin.ancillary.txt

 2.5000	49.4211
 2.4990	49.4843
 2.4980	49.5292
 2.4970	49.6705
 2.4960	49.1489
 2.4950	49.3135
 2.4940	49.4935
 2.4930	49.4871
 2.4920	49.6096
 2.4910	49.5144
 2.4900	49.6562
 2.4890	49.5123
 2.4880	49.4105
 2.4870	49.3860
 2.4860	49.3506
 2.4850	49.4671
 2.4840	49.4750
 2.4830	49.5085
 2.4820	49.3959
 2.4810	49.4281
 2.4800	49.4551
 2.4790	49.4259
 2.4780	49.4929
 2.4770	49.2402
 2.4760	49.6366
 2.4750	49.5580
 2.4740	49.4587
 2.4730	49.4945
 2.4720	49.4994
 2.4710	49.4716
 2.4700	49.6704
 2.4690	49.6325
 2.4680	49.6226
 2.4670	49.8373
 2.4660	49.9502
 2.4650	50.0133
 2.4640	50.2373
 2.4630	50.0385
 2.4620	50.3043
 2.4610	50.3978
 2.4600	50.5741
 2.4590	50.5977
 2.4580	50.8074
 2.4570	50.9122
 2.4560	50.9962
 2.4550	51.1669
 2.4540	51.3806
 2.4530	51.4938
 2.4520	51.7562
 2.4510	51.7680
 2.4500	51.9993
 2.4490	52.1319
 2.4480	52.2696
 2.4470	52.4111
 2.4460	52.5515
 2.4450	52.6190
 2.4440	52.7715
 2.4430	52.8432
 2.4420	53.1434
 2.4410	53.1773
 2.4400	53.2858
 2.4390	53.4128
 2.4380	53.5323
 2.4370	53.5702
 2.4360	53.6265
 2.4350	53.7420
 2.4340	54.0117
 2.4330	54.0347
 2.4320	54.1365
 2.4310	54.2777
 2.4300	54.3249
 2.4290	54.4217
 2.4280	54.5330
 2.4270	54.6867
 2.4260	54.7803
 2.4250	54.8857
 2.4240	54.9523
 2.4230	54.9512
 2.4220	55.1615
 2.4210	55.2105
 2.4200	55.2722
 2.4190	55.3207
 2.4180	55.4268
 2.4170	55.4483
 2.4160	55.5089
 2.4150	55.4925
 2.4140	55.5714
 2.4130	55.5911
 2.4120	55.5453
 2.4110	55.4968
 2.4100	55.4446
 2.4090	55.3468
 2.4080	55.2219
 2.4070	55.1592
 2.4060	55.1128
 2.4050	55.1020
 2.4040	54.9113
 2.4030	54.6638
 2.4020	54.6251
 2.4010	54.5072
 2.4000	54.3830
 2.3990	54.2425
 2.3980	54.1575
 2.3970	54.0339
 2.3960	53.9752
 2.3950	53.8392
 2.3940	53.6643
 2.3930	53.6061
 2.3920	53.5912
 2.3910	53.4828
 2.3900	53.4015
 2.3890	53.3166
 2.3880	53.2536
 2.3870	53.2435
 2.3860	53.2467
 2.3850	53.2035
 2.3840	53.1923
 2.3830	53.1512
 2.3820	53.1593
 2.3810	53.1444
 2.3800	53.0985
 2.3790	53.1002
 2.3780	53.0675
 2.3770	53.0564
 2.3760	53.0498
 2.3750	52.9727
 2.3740	52.8934
 2.3730	52.8164
 2.3720	52.7117
 2.3710	52.6601
 2.3700	52.6185
 2.3690	52.3807
 2.3680	52.2617
 2.3670	52.2420
 2.3660	52.0613
 2.3650	51.8261
 2.3640	51.6382
 2.3630	51.4491
 2.3620	51.2982
 2.3610	51.1377
 2.3600	50.9497
 2.3590	50.7211
 2.3580	50.4922
 2.3570	50.3243
 2.3560	50.1426
 2.3550	49.8480
 2.3540	49.6355
 2.3530	49.5146
 2.3520	49.3134
 2.3510	49.1217
 2.3500	48.8878
 2.3490	48.7120
 2.3480	48.5127
 2.3470	48.2725
 2.3460	48.1128
 2.3450	47.9467
 2.3440	47.7983
 2.3430	47.6002
 2.3420	47.4496
 2.3410	47.3549
 2.3400	47.1803
 2.3390	47.0306
 2.3380	46.8574
 2.3370	46.7118
 2.3360	46.6296
 2.3350	46.5102
 2.3340	46.3961
 2.3330	46.3648
 2.3320	46.2559
 2.3310	46.1903
 2.3300	46.1324
 2.3290	46.1399
 2.3280	46.1611
 2.3270	46.1997
 2.3260	46.1816
 2.3250	46.1434
 2.3240	46.2144
 2.3230	46.3122
 2.3220	46.3423
 2.3210	46.7483
 2.3200	46.7552
 2.3190	46.7182
 2.3180	46.8236
 2.3170	47.0078
 2.3160	47.1908
 2.3150	47.3661
 2.3140	47.4428
 2.3130	47.5809
 2.3120	47.7375
 2.3110	47.9036
 2.3100	48.0833
 2.3090	48.2475
 2.3080	48.4445
 2.3070	48.6151
 2.3060	48.7111
 2.3050	48.8624
 2.3040	48.9844
 2.3030	49.1642
 2.3020	49.2458
 2.3010	49.3697
 2.3000	49.5124
 2.2990	49.6588
 2.2980	49.7128
 2.2970	49.8853
 2.2960	49.9852
 2.2950	50.1535
 2.2940	50.2108
 2.2930	50.4574
 2.2920	50.6081
 2.2910	50.8171
 2.2900	51.0079
 2.2890	51.3197
 2.2880	51.5040
 2.2870	51.7798
 2.2860	52.1433
 2.2850	52.4209
 2.2840	52.6284
 2.2830	52.9007
 2.2820	53.1783
 2.2810	53.5168
 2.2800	53.8139
 2.2790	54.0843
 2.2780	54.3352
 2.2770	54.5164
 2.2760	54.6620
 2.2750	54.8611
 2.2740	55.0194
 2.2730	55.1022
 2.2720	55.3041
 2.2710	55.3383
 2.2700	55.3397
 2.2690	55.4003
 2.2680	55.4516
 2.2670	55.5836
 2.2660	55.5558
 2.2650	55.4907
 2.2640	55.4831
 2.2630	55.5275
 2.2620	55.4898
 2.2610	55.5303
 2.2600	55.4254
 2.2590	55.3971
 2.2580	55.3650
 2.2570	55.3803
 2.2560	55.2496
 2.2550	55.2188
 2.2540	55.1730
 2.2530	55.1530
 2.2520	55.1319
 2.2510	55.1815
 2.2500	55.1773
 2.2490	55.1110
 2.2480	55.1951
 2.2470	55.3497
 2.2460	55.4385
 2.2450	55.6520
 2.2440	55.7868
 2.2430	56.1385
 2.2420	56.3549
 2.2410	56.6042
 2.2400	56.9987
 2.2390	57.4090
 2.2380	57.8332
 2.2370	58.2519
 2.2360	58.6844
 2.2350	59.1590
 2.2340	59.6140
 2.2330	60.1536
 2.2320	60.6414
 2.2310	61.1482
 2.2300	61.5240
 2.2290	61.9623
 2.2280	62.4007
 2.2270	62.8597
 2.2260	63.2776
 2.2250	63.5969
 2.2240	63.9699
 2.2230	64.4298
 2.2220	64.6368
 2.2210	64.9975
 2.2200	65.2503
 2.2190	65.6069
 2.2180	65.7974
 2.2170	65.9670
 2.2160	66.2416
 2.2150	66.4763
 2.2140	66.6588
 2.2130	66.8073
 2.2120	67.0556
 2.2110	67.1526
 2.2100	67.4251
 2.2090	67.5872
 2.2080	67.6894
 2.2070	67.9662
 2.2060	67.9965
 2.2050	68.2536
 2.2040	68.3625
 2.2030	68.5748
 2.2020	68.6497
 2.2010	68.7361
 2.2000	68.9409
 2.1990	69.1126
 2.1980	69.1999
 2.1970	69.1967
 2.1960	69.3393
 2.1950	69.5061
 2.1940	69.5456
 2.1930	69.6222
 2.1920	69.7628
 2.1910	69.8698
 2.1900	69.9606
 2.1890	70.0114
 2.1880	70.1728
 2.1870	70.2882
 2.1860	70.3225
 2.1850	70.4528
 2.1840	70.6498
 2.1830	70.7422
 2.1820	70.7045
 2.1810	70.8587
 2.1800	70.8955
 2.1790	70.9131
 2.1780	71.0859
 2.1770	71.2023
 2.1760	71.2404
 2.1750	71.3713
 2.1740	71.4379
 2.1730	71.4279
 2.1720	71.5893
 2.1710	71.6357
 2.1700	71.7144
 2.1690	71.7542
 2.1680	71.7788
 2.1670	71.9730
 2.1660	71.9226
 2.1650	72.0710
 2.1640	72.1055
 2.1630	72.1050
 2.1620	72.1748
 2.1610	72.2354
 2.1600	72.3507
 2.1590	72.3654
 2.1580	72.3326
 2.1570	72.4177
 2.1560	72.4893
 2.1550	72.4978
 2.1540	72.4959
 2.1530	72.4881
 2.1520	72.6517
 2.1510	72.7656
 2.1500	72.6933
 2.1490	72.6869
 2.1480	72.7328
 2.1470	72.7515
 2.1460	72.7888
 2.1450	72.8231
 2.1440	72.8021
 2.1430	72.7388
 2.1420	72.7924
 2.1410	72.7885
 2.1400	72.7744
 2.1390	72.9047
 2.1380	72.8522
 2.1370	72.8236
 2.1360	72.8305
 2.1350	72.8284
 2.1340	72.7332
 2.1330	72.6672
 2.1320	72.7045
 2.1310	72.6782
 2.1300	72.6290
 2.1290	72.5937
 2.1280	72.5949
 2.1270	72.5386
 2.1260	72.4530
 2.1250	72.4202
 2.1240	72.4329
 2.1230	72.3203
 2.1220	72.2852
 2.1210	72.2444
 2.1200	72.2145
 2.1190	72.2519
 2.1180	72.1468
 2.1170	72.1081
 2.1160	72.0213
 2.1150	71.9836
 2.1140	71.9356
 2.1130	71.9195
 2.1120	71.8467
 2.1110	71.8532
 2.1100	71.8315
 2.1090	71.7899
 2.1080	71.7008
 2.1070	71.7288
 2.1060	71.7742
 2.1050	71.7081
 2.1040	71.7265
 2.1030	71.7065
 2.1020	71.7047
 2.1010	71.7488
 2.1000	71.7523
 2.0990	71.7901
 2.0980	71.8488
 2.0970	71.9026
 2.0960	71.9873
 2.0950	72.0488
 2.0940	72.0730
 2.0930	72.1208
 2.0920	72.2220
 2.0910	72.2619
 2.0900	72.3653
 2.0890	72.4048
 2.0880	72.4160
 2.0870	72.4672
 2.0860	72.4308
 2.0850	72.3732
 2.0840	72.3922
 2.0830	72.3677
 2.0820	72.3385
 2.0810	72.4356
 2.0800	72.4697
 2.0790	72.0858
 2.0780	72.0111
 2.0770	72.4220
 2.0760	72.4447
 2.0750	72.3383
 2.0740	72.3331
 2.0730	72.3545
 2.0720	72.2740
 2.0710	72.2840
 2.0700	72.2938
 2.0690	72.2191
 2.0680	72.1627
 2.0670	72.1686
 2.0660	72.2136
 2.0650	72.1818
 2.0640	72.0948
 2.0630	72.0406
 2.0620	72.0195
 2.0610	72.0158
 2.0600	71.9243
 2.0590	71.8533
 2.0580	71.8450
 2.0570	71.8017
 2.0560	71.7157
 2.0550	71.7589
 2.0540	71.7403
 2.0530	71.6040
 2.0520	71.5154
 2.0510	71.4711
 2.0500	71.4825
 2.0490	71.4378
 2.0480	71.3268
 2.0470	71.2699
 2.0460	71.2302
 2.0450	71.1415
 2.0440	71.0739
 2.0430	71.0101
 2.0420	70.9082
 2.0410	70.8571
 2.0400	70.7733
 2.0390	70.6446
 2.0380	70.6181
 2.0370	70.5009
 2.0360	70.3708
 2.0350	70.3077
 2.0340	70.2501
 2.0330	70.0862
 2.0320	69.9862
 2.0310	69.8332
 2.0300	69.7147
 2.0290	69.6479
 2.0280	69.5124
 2.0270	69.3594
 2.0260	69.2585
 2.0250	69.2106
 2.0240	69.0720
 2.0230	68.9559
 2.0220	68.8174
 2.0210	68.7122
 2.0200	68.6022
 2.0190	68.4651
 2.0180	68.3684
 2.0170	68.2490
 2.0160	68.1780
 2.0150	68.0261
 2.0140	67.9336
 2.0130	67.8681
 2.0120	67.7883
 2.0110	67.7324
 2.0100	67.6861
 2.0090	67.6406
 2.0080	67.5748
 2.0070	67.4984
 2.0060	67.4791
 2.0050	67.3513
 2.0040	67.2733
 2.0030	67.2418
 2.0020	67.2309
 2.0010	67.1758
 2.0000	67.2218
 1.9990	67.1625
 1.9980	67.0488
 1.9970	67.0150
 1.9960	66.9264
 1.9950	66.9567
 1.9940	66.9171
 1.9930	66.9292
 1.9920	66.9560
 1.9910	66.8498
 1.9900	66.8473
 1.9890	66.8637
 1.9880	66.8629
 1.9870	66.8427
 1.9860	66.8036
 1.9850	66.8299
 1.9840	66.8144
 1.9830	66.8370
 1.9820	66.8253
 1.9810	66.8805
 1.9800	66.9527
 1.9790	66.9372
 1.9780	66.9987
 1.9770	66.9776
 1.9760	67.1167
 1.9750	67.1055
 1.9740	67.1621
 1.9730	67.2476
 1.9720	67.2566
 1.9710	67.2824
 1.9700	67.3335
 1.9690	67.3352
 1.9680	67.4387
 1.9670	67.3183
 1.9660	67.4183
 1.9650	67.4277
 1.9640	67.5547
 1.9630	67.4818
 1.9620	67.5211
 1.9610	67.5544
 1.9600	67.5993
 1.9590	67.6068
 1.9580	67.6680
 1.9570	67.6573
 1.9560	67.7117
 1.9550	67.6998
 1.9540	67.6791
 1.9530	67.8514
 1.9520	67.8298
 1.9510	67.8634
 1.9500	67.8571
 1.9490	67.9530
 1.9480	68.1177
 1.9470	67.9891
 1.9460	68.1069
 1.9450	68.1570
 1.9440	68.1428
 1.9430	68.2458
 1.9420	68.3641
 1.9410	68.2759
 1.9400	68.4263
 1.9390	68.3411
 1.9380	68.4820
 1.9370	68.4968
 1.9360	68.5887
 1.9350	68.5907
 1.9340	68.5676
 1.9330	68.6761
 1.9320	68.7716
 1.9310	68.6824
 1.9300	68.7552
 1.9290	68.7187
 1.9280	68.8821
 1.9270	68.8644
 1.9260	68.8367
 1.9250	68.9652
 1.9240	68.8580
 1.9230	68.8820
 1.9220	69.0348
 1.9210	68.8700
 1.9200	68.9845
 1.9190	68.9166
 1.9180	69.0821
 1.9170	68.9563
 1.9160	69.0695
 1.9150	69.0365
 1.9140	69.1573
 1.9130	69.1499
 1.9120	69.1957
 1.9110	69.1814
 1.9100	69.2941
 1.9090	69.3898
 1.9080	69.3278
 1.9070	69.3324
 1.9060	69.3667
 1.9050	69.3787
 1.9040	69.3933
 1.9030	69.5190
 1.9020	69.5366
 1.9010	69.6083
 1.9000	69.6926
 1.8990	69.6884
 1.8980	69.7983
 1.8970	69.8146
 1.8960	69.8414
 1.8950	69.8800
 1.8940	69.9334
 1.8930	69.8898
 1.8920	69.8846
 1.8910	69.9264
 1.8900	69.9158
 1.8890	69.9691
 1.8880	69.8053
 1.8870	69.7671
 1.8860	69.9211
 1.8850	69.7596
 1.8840	69.8073
 1.8830	69.7006
 1.8820	69.8104
 1.8810	69.8970
 1.8800	69.8525
 1.8790	69.8966
 1.8780	69.8622
 1.8770	69.9242
 1.8760	69.9695
 1.8750	70.0427
 1.8740	69.9747
 1.8730	70.0293
 1.8720	70.0444
 1.8710	70.2007
 1.8700	70.2373
 1.8690	70.3024
 1.8680	70.3329
 1.8670	70.3579
 1.8660	70.4670
 1.8650	70.5747
 1.8640	70.5962
 1.8630	70.6397
 1.8620	70.7852
 1.8610	70.7137
 1.8600	70.7884
 1.8590	70.7864
 1.8580	70.8305
 1.8570	70.8887
 1.8560	70.8873
 1.8550	70.9143
 1.8540	70.9922
 1.8530	70.9736
 1.8520	71.0754
 1.8510	71.1073
 1.8500	71.1353
 1.8490	71.2308
 1.8480	71.2423
 1.8470	71.1908
 1.8460	71.2731
 1.8450	71.3530
 1.8440	71.4291
 1.8430	71.3537
 1.8420	71.3892
 1.8410	71.5242
 1.8400	71.5402
 1.8390	71.5368
 1.8380	71.5357
 1.8370	71.5384
 1.8360	71.5917
 1.8350	71.5444
 1.8340	71.6704
 1.8330	71.6731
 1.8320	71.6367
 1.8310	71.6325
 1.8300	71.6702
 1.8290	71.7070
 1.8280	71.7168
 1.8270	71.6890
 1.8260	71.6769
 1.8250	71.7107
 1.8240	71.7104
 1.8230	71.6876
 1.8220	71.6919
 1.8210	71.7193
 1.8200	71.7379
 1.8190	71.7596
 1.8180	71.7243
 1.8170	71.7686
 1.8160	71.7526
 1.8150	71.8062
 1.8140	71.8412
 1.8130	71.7751
 1.8120	71.7200
 1.8110	71.7218
 1.8100	71.8156
 1.8090	71.7964
 1.8080	71.7774
 1.8070	71.7682
 1.8060	71.7675
 1.8050	71.7812
 1.8040	71.7767
 1.8030	71.7704
 1.8020	71.7220
 1.8010	71.7381
 1.8000	71.7672
 1.7990	71.7692
 1.7980	71.7418
 1.7970	71.6762
 1.7960	71.7110
 1.7950	71.7093
 1.7940	71.6729
 1.7930	71.6283
 1.7920	71.6289
 1.7910	71.6497
 1.7900	71.6387
 1.7890	71.6415
 1.7880	71.6097
 1.7870	71.6161
 1.7860	71.5444
 1.7850	71.4663
 1.7840	71.5097
 1.7830	71.5093
 1.7820	71.4977
 1.7810	71.4939
 1.7800	71.4370
 1.7790	71.3863
 1.7780	71.3775
 1.7770	71.3884
 1.7760	71.3630
 1.7750	71.3259
 1.7740	71.3071
 1.7730	71.2832
 1.7720	71.2808
 1.7710	71.2752
 1.7700	71.2637
 1.7690	71.2562
 1.7680	71.2492
 1.7670	71.2786
 1.7660	71.2230
 1.7650	71.1551
 1.7640	71.1430
 1.7630	71.1379
 1.7620	71.1239
 1.7610	71.0979
 1.7600	71.0865
 1.7590	71.0990
 1.7580	71.0050
 1.7570	70.9897
 1.7560	71.0010
 1.7550	70.9610
 1.7540	70.9931
 1.7530	71.0287
 1.7520	70.9686
 1.7510	70.8552
 1.7500	70.8329
 1.7490	70.8381
 1.7480	70.8026
 1.7470	70.8467
 1.7460	70.8688
 1.7450	70.8626
 1.7440	70.8127
 1.7430	70.7226
 1.7420	70.6588
 1.7410	70.6392
 1.7400	70.6195
 1.7390	70.6465
 1.7380	70.6646
 1.7370	70.5761
 1.7360	70.5732
 1.7350	70.5706
 1.7340	70.5260
 1.7330	70.5055
 1.7320	70.4940
 1.7310	70.5094
 1.7300	70.4024
 1.7290	70.3227
 1.7280	70.3972
 1.7270	70.3781
 1.7260	70.3358
 1.7250	70.2755
 1.7240	70.2722
 1.7230	70.2638
 1.7220	70.2022
 1.7210	70.2441
 1.7200	70.2078
 1.7190	70.0978
 1.7180	70.0611
 1.7170	70.0493
 1.7160	69.9910
 1.7150	69.9871
 1.7140	69.9618
 1.7130	69.9671
 1.7120	69.9356
 1.7110	69.9045
 1.7100	69.8439
 1.7090	69.8008
 1.7080	69.7624
 1.7070	69.7404
 1.7060	69.6902
 1.7050	69.6473
 1.7040	69.6204
 1.7030	69.5789
 1.7020	69.5881
 1.7010	69.5407
 1.7000	69.4452
 1.6990	69.3997
 1.6980	69.4408
 1.6970	69.4287
 1.6960	69.2671
 1.6950	69.2475
 1.6940	69.3248
 1.6930	69.2872
 1.6920	69.2803
 1.6910	69.2071
 1.6900	69.1357
 1.6890	69.0827
 1.6880	69.0454
 1.6870	68.9929
 1.6860	69.0347
 1.6850	69.0329
 1.6840	68.9843
 1.6830	68.9410
 1.6820	68.8982
 1.6810	68.8719
 1.6800	68.8343
 1.6790	68.7886
 1.6780	68.6807
 1.6770	68.7030
 1.6760	68.6488
 1.6750	68.6356
 1.6740	68.5368
 1.6730	68.5356
 1.6720	68.5611
 1.6710	68.4336
 1.6700	68.4029
 1.6690	68.4323
 1.6680	68.3596
 1.6670	68.3538
 1.6660	68.1726
 1.6650	68.2432
 1.6640	68.1265
 1.6630	68.1745
 1.6620	68.1780
 1.6610	68.0711
 1.6600	67.9391
 1.6590	67.9118
 1.6580	67.8664
 1.6570	67.9282
 1.6560	67.8438
 1.6550	67.8562
 1.6540	67.8279
 1.6530	67.7767
 1.6520	67.6888
 1.6510	67.6681
 1.6500	67.5358
 1.6490	67.5787
 1.6480	67.5374
 1.6470	67.4428
 1.6460	67.3793
 1.6450	67.3250
 1.6440	67.2923
 1.6430	67.3219
 1.6420	67.2163
 1.6410	67.1688
 1.6400	67.1418
 1.6390	67.0778
 1.6380	67.0653
 1.6370	67.0148
 1.6360	66.9198
 1.6350	66.9578
 1.6340	66.8510
 1.6330	66.8706
 1.6320	66.7337
 1.6310	66.7933
 1.6300	66.6677
 1.6290	66.5967
 1.6280	66.5613
 1.6270	66.5674
 1.6260	66.5864
 1.6250	66.4788
 1.6240	66.3279
 1.6230	66.2662
 1.6220	66.3728
 1.6210	66.3277
 1.6200	66.1975
 1.6190	66.1613
 1.6180	66.0405
 1.6170	66.0359
 1.6160	65.9763
 1.6150	66.0336
 1.6140	65.8367
 1.6130	65.7995
 1.6120	65.7894
 1.6110	65.8300
 1.6100	65.7445
 1.6090	65.6666
 1.6080	65.5723
 1.6070	65.6015
 1.6060	65.5214
 1.6050	65.4103
 1.6040	65.3349
 1.6030	65.4189
 1.6020	65.2485
 1.6010	65.2162
 1.6000	65.1918
 1.5990	65.1558
 1.5980	65.0423
 1.5970	65.0011
 1.5960	64.9536
 1.5950	64.8942
 1.5940	64.8264
 1.5930	64.8356
 1.5920	64.6963
 1.5910	64.6204
 1.5900	64.5712
 1.5890	64.5544
 1.5880	64.4872
 1.5870	64.4645
 1.5860	64.4385
 1.5850	64.3590
 1.5840	64.3528
 1.5830	64.2524
 1.5820	64.1814
 1.5810	64.1155
 1.5800	64.0741
 1.5790	64.0246
 1.5780	63.8970
 1.5770	63.8210
 1.5760	63.7739
 1.5750	63.7395
 1.5740	63.7088
 1.5730	63.6419
 1.5720	63.6363
 1.5710	63.5682
 1.5700	63.4332
 1.5690	63.4183
 1.5680	63.3564
 1.5670	63.3124
 1.5660	63.2348
 1.5650	63.2281
 1.5640	63.1689
 1.5630	63.1180
 1.5620	63.0140
 1.5610	62.9711
 1.5600	62.9066
 1.5590	62.8784
 1.5580	62.7695
 1.5570	62.7297
 1.5560	62.7473
 1.5550	62.7360
 1.5540	62.6426
 1.5530	62.6181
 1.5520	62.5528
 1.5510	62.4590
 1.5500	62.4133
 1.5490	62.4588
 1.5480	62.3534
 1.5470	62.2706
 1.5460	62.2452
 1.5450	62.2427
 1.5440	62.1108
 1.5430	62.1055
 1.5420	62.1211
 1.5410	62.0415
 1.5400	61.9591
 1.5390	61.9529
 1.5380	61.9554
 1.5370	61.9101
 1.5360	61.8007
 1.5350	61.7832
 1.5340	61.7626
 1.5330	61.7323
 1.5320	61.6450
 1.5310	61.5658
 1.5300	61.5426
 1.5290	61.5667
 1.5280	61.4868
 1.5270	61.4207
 1.5260	61.4124
 1.5250	61.3662
 1.5240	61.3576
 1.5230	61.3316
 1.5220	61.2373
 1.5210	61.1924
 1.5200	61.2205
 1.5190	61.2521
 1.5180	61.1198
 1.5170	61.0824
 1.5160	61.1464
 1.5150	61.0647
 1.5140	61.0061
 1.5130	60.9879
 1.5120	60.9547
 1.5110	60.9219
 1.5100	60.9096
 1.5090	60.9309
 1.5080	60.9223
 1.5070	60.8732
 1.5060	60.8107
 1.5050	60.7867
 1.5040	60.7240
 1.5030	60.7431
 1.5020	60.7569
 1.5010	60.6831
 1.5000	60.6478
 1.4990	60.6326
 1.4980	60.5852
 1.4970	60.5114
 1.4960	60.4900
 1.4950	60.5238
 1.4940	60.4487
 1.4930	60.3768
 1.4920	60.3557
 1.4910	60.3194
 1.4900	60.3322
 1.4890	60.2863
 1.4880	60.2090
 1.4870	60.1312
 1.4860	60.0584
 1.4850	60.0259
 1.4840	59.9994
 1.4830	59.9648
 1.4820	59.9315
 1.4810	59.8340
 1.4800	59.7384
 1.4790	59.6641
 1.4780	59.6697
 1.4770	59.6022
 1.4760	59.5504
 1.4750	59.5259
 1.4740	59.4142
 1.4730	59.3169
 1.4720	59.2334
 1.4710	59.1717
 1.4700	59.1199
 1.4690	59.0996
 1.4680	59.0371
 1.4670	58.8723
 1.4660	58.7938
 1.4650	58.7659
 1.4640	58.6732
 1.4630	58.5145
 1.4620	58.4652
 1.4610	58.4608
 1.4600	58.3370
 1.4590	58.2030
 1.4580	58.1023
 1.4570	57.9990
 1.4560	57.9587
 1.4550	57.8052
 1.4540	57.6960
 1.4530	57.6443
 1.4520	57.6102
 1.4510	57.4946
 1.4500	57.4583
 1.4490	57.3450
 1.4480	57.2977
 1.4470	57.2285
 1.4460	57.1807
 1.4450	57.1021
 1.4440	57.0574
 1.4430	57.0161
 1.4420	56.9815
 1.4410	56.8901
 1.4400	56.8449
 1.4390	56.8072
 1.4380	56.8096
 1.4370	56.7483
 1.4360	56.7297
 1.4350	56.7003
 1.4340	56.7528
 1.4330	56.7111
 1.4320	56.7159
 1.4310	56.6533
 1.4300	56.7715
 1.4290	56.7482
 1.4280	56.7138
 1.4270	56.6727
 1.4260	56.6808
 1.4250	56.6885
 1.4240	56.7144
 1.4230	56.6523
 1.4220	56.6349
 1.4210	56.5977
 1.4200	56.5259
 1.4190	56.4275
 1.4180	56.3600
 1.4170	56.1928
 1.4160	56.0693
 1.4150	55.8727
 1.4140	55.8046
 1.4130	55.6496
 1.4120	55.5780
 1.4110	55.4967
 1.4100	55.4939
 1.4090	55.4362
 1.4080	55.4822
 1.4070	55.3811
 1.4060	55.3617
 1.4050	55.3221
 1.4040	55.3014
 1.4030	55.1967
 1.4020	55.0550
 1.4010	54.7011
 1.4000	54.3986
 1.3990	54.0808
 1.3980	53.8031
 1.3970	53.3738
 1.3960	52.7470
 1.3950	52.0679
 1.3940	51.4187
 1.3930	51.0381
 1.3920	50.7241
 1.3910	50.4812
 1.3900	50.6651
 1.3890	51.0683
 1.3880	51.7814
 1.3870	52.7798
 1.3860	53.7420
 1.3850	54.5718
 1.3840	55.4523
 1.3830	55.8003
 1.3820	56.1017
 1.3810	56.2867
 1.3800	56.3468
 1.3790	56.3406
 1.3780	56.2620
 1.3770	56.1843
 1.3760	56.2333
 1.3750	56.1409
 1.3740	56.1588
 1.3730	56.0351
 1.3720	56.0507
 1.3710	56.0763
 1.3700	55.9350
 1.3690	55.9211
 1.3680	55.9785
 1.3670	55.7779
 1.3660	55.7959
 1.3650	55.6524
