Name: Corrensite (Mg,Fe)_9(Si,Al)_8O_20(OH)_10._xH_2O
Type: Mineral
Class: Silicate
Subclass: Phyllosilicate
Particle Size: Fine
Sample No.: PS-10A
Owner: JPL
Wavelength Range: VSWIR
Origin: USA, Washington, Packwood.
Collection Date: N/A
Description: Particle size was 0-45um.Collected by:  Clay Mineral Society Original ASTER Spectral Library name was jpl.perkin.mineral.silicate.phyllosilicate.fine.ps10a.spectrum.txt
Measurement: Hemispherical reflectance
First Column: X
Second Column: Y
X Units: Wavelength (micrometers)
Y Units:Reflectance (percent)
First X Value:  2.5000
Last X Value:  0.4000
Number of X Values: 2101
Additional Information: mineral.silicate.phyllosilicate.fine.vswir.ps-10a.jpl.perkin.ancillary.txt

 2.5000	56.2067
 2.4990	56.0987
 2.4980	56.3170
 2.4970	56.2378
 2.4960	56.1273
 2.4950	56.2821
 2.4940	56.3820
 2.4930	56.2241
 2.4920	56.6312
 2.4910	56.4958
 2.4900	56.6287
 2.4890	56.4589
 2.4880	56.6868
 2.4870	56.5620
 2.4860	56.7278
 2.4850	56.6773
 2.4840	56.9301
 2.4830	56.7641
 2.4820	56.9440
 2.4810	56.7570
 2.4800	56.9415
 2.4790	56.8377
 2.4780	57.0947
 2.4770	57.1068
 2.4760	57.3471
 2.4750	57.0722
 2.4740	57.2808
 2.4730	57.4199
 2.4720	57.4837
 2.4710	57.4405
 2.4700	57.6229
 2.4690	57.5027
 2.4680	57.6934
 2.4670	57.5669
 2.4660	57.7078
 2.4650	57.6184
 2.4640	57.9219
 2.4630	57.9183
 2.4620	57.8897
 2.4610	58.0408
 2.4600	57.9873
 2.4590	58.0884
 2.4580	58.1339
 2.4570	58.0695
 2.4560	58.2995
 2.4550	58.3517
 2.4540	58.4021
 2.4530	58.3043
 2.4520	58.5135
 2.4510	58.4687
 2.4500	58.6612
 2.4490	58.5975
 2.4480	58.6351
 2.4470	58.7445
 2.4460	58.8125
 2.4450	58.8632
 2.4440	58.9523
 2.4430	58.9186
 2.4420	59.0174
 2.4410	59.0857
 2.4400	59.1382
 2.4390	59.1174
 2.4380	59.1245
 2.4370	59.1002
 2.4360	59.2172
 2.4350	59.3859
 2.4340	59.4429
 2.4330	59.4072
 2.4320	59.5311
 2.4310	59.5568
 2.4300	59.6256
 2.4290	59.4727
 2.4280	59.5773
 2.4270	59.6847
 2.4260	59.7156
 2.4250	59.6449
 2.4240	59.7592
 2.4230	59.7743
 2.4220	59.7340
 2.4210	59.8392
 2.4200	59.8011
 2.4190	59.8695
 2.4180	59.9119
 2.4170	59.8358
 2.4160	59.9305
 2.4150	59.9912
 2.4140	59.9848
 2.4130	59.9724
 2.4120	60.0689
 2.4110	60.0897
 2.4100	60.1397
 2.4090	60.0953
 2.4080	60.1434
 2.4070	60.0388
 2.4060	60.0262
 2.4050	60.0115
 2.4040	60.0548
 2.4030	60.0854
 2.4020	60.0983
 2.4010	60.1129
 2.4000	60.2399
 2.3990	60.3047
 2.3980	60.2540
 2.3970	60.2330
 2.3960	60.3240
 2.3950	60.3359
 2.3940	60.3529
 2.3930	60.3862
 2.3920	60.4106
 2.3910	60.3609
 2.3900	60.4697
 2.3890	60.5819
 2.3880	60.6144
 2.3870	60.6117
 2.3860	60.6136
 2.3850	60.6243
 2.3840	60.6657
 2.3830	60.6699
 2.3820	60.6407
 2.3810	60.6301
 2.3800	60.6985
 2.3790	60.6944
 2.3780	60.7180
 2.3770	60.7637
 2.3760	60.7396
 2.3750	60.7250
 2.3740	60.7449
 2.3730	60.6829
 2.3720	60.7634
 2.3710	60.7603
 2.3700	60.7303
 2.3690	60.7897
 2.3680	60.8388
 2.3670	60.8303
 2.3660	60.8456
 2.3650	60.7902
 2.3640	60.7726
 2.3630	60.7923
 2.3620	60.7688
 2.3610	60.7567
 2.3600	60.7807
 2.3590	60.8002
 2.3580	60.7834
 2.3570	60.7793
 2.3560	60.8932
 2.3550	60.9031
 2.3540	60.8049
 2.3530	60.8732
 2.3520	60.8698
 2.3510	60.8224
 2.3500	60.8488
 2.3490	60.8805
 2.3480	60.8688
 2.3470	60.9555
 2.3460	60.9816
 2.3450	60.9418
 2.3440	61.0135
 2.3430	61.0518
 2.3420	60.9993
 2.3410	60.9997
 2.3400	61.0645
 2.3390	61.1398
 2.3380	61.1685
 2.3370	61.1502
 2.3360	61.2001
 2.3350	61.2692
 2.3340	61.2512
 2.3330	61.2987
 2.3320	61.2775
 2.3310	61.2516
 2.3300	61.2974
 2.3290	61.3571
 2.3280	61.4169
 2.3270	61.4322
 2.3260	61.4042
 2.3250	61.4513
 2.3240	61.4609
 2.3230	61.5408
 2.3220	61.5636
 2.3210	61.5611
 2.3200	61.4686
 2.3190	61.4988
 2.3180	61.5431
 2.3170	61.5964
 2.3160	61.6512
 2.3150	61.6231
 2.3140	61.6231
 2.3130	61.6629
 2.3120	61.6466
 2.3110	61.7137
 2.3100	61.6981
 2.3090	61.6826
 2.3080	61.7971
 2.3070	61.7863
 2.3060	61.7152
 2.3050	61.7615
 2.3040	61.8010
 2.3030	61.8804
 2.3020	61.8526
 2.3010	61.8344
 2.3000	61.8765
 2.2990	61.9176
 2.2980	61.9240
 2.2970	61.8947
 2.2960	61.8672
 2.2950	61.9820
 2.2940	62.0413
 2.2930	62.0847
 2.2920	62.0420
 2.2910	62.0349
 2.2900	62.1111
 2.2890	62.1977
 2.2880	62.1947
 2.2870	62.3114
 2.2860	62.2905
 2.2850	62.3474
 2.2840	62.4017
 2.2830	62.5016
 2.2820	62.5133
 2.2810	62.5879
 2.2800	62.6018
 2.2790	62.7259
 2.2780	62.7881
 2.2770	62.8556
 2.2760	62.8979
 2.2750	63.0005
 2.2740	63.0130
 2.2730	63.0490
 2.2720	63.1009
 2.2710	63.1537
 2.2700	63.1716
 2.2690	63.3074
 2.2680	63.2370
 2.2670	63.4253
 2.2660	63.3950
 2.2650	63.4796
 2.2640	63.5065
 2.2630	63.5709
 2.2620	63.5843
 2.2610	63.5786
 2.2600	63.6750
 2.2590	63.6884
 2.2580	63.7309
 2.2570	63.7646
 2.2560	63.8056
 2.2550	63.8722
 2.2540	63.9408
 2.2530	64.0458
 2.2520	64.0558
 2.2510	64.0260
 2.2500	64.1043
 2.2490	64.1985
 2.2480	64.2366
 2.2470	64.4039
 2.2460	64.4474
 2.2450	64.5751
 2.2440	64.5638
 2.2430	64.6891
 2.2420	64.7520
 2.2410	64.9024
 2.2400	64.8300
 2.2390	65.0187
 2.2380	65.0673
 2.2370	65.1563
 2.2360	65.2447
 2.2350	65.2763
 2.2340	65.3335
 2.2330	65.3747
 2.2320	65.5135
 2.2310	65.6112
 2.2300	65.6701
 2.2290	65.6950
 2.2280	65.7380
 2.2270	65.8335
 2.2260	65.9199
 2.2250	65.9559
 2.2240	65.9051
 2.2230	66.0411
 2.2220	66.0498
 2.2210	66.1931
 2.2200	66.2210
 2.2190	66.2374
 2.2180	66.2954
 2.2170	66.2676
 2.2160	66.3670
 2.2150	66.4759
 2.2140	66.4343
 2.2130	66.4954
 2.2120	66.4808
 2.2110	66.5139
 2.2100	66.5715
 2.2090	66.6023
 2.2080	66.6713
 2.2070	66.7170
 2.2060	66.6485
 2.2050	66.7286
 2.2040	66.7548
 2.2030	66.8492
 2.2020	66.8047
 2.2010	66.8955
 2.2000	66.8508
 2.1990	66.9667
 2.1980	66.9751
 2.1970	66.8635
 2.1960	66.9423
 2.1950	67.0843
 2.1940	67.0440
 2.1930	67.1031
 2.1920	67.0819
 2.1910	67.1408
 2.1900	67.1391
 2.1890	67.1963
 2.1880	67.1607
 2.1870	67.3849
 2.1860	67.2868
 2.1850	67.4174
 2.1840	67.4643
 2.1830	67.4523
 2.1820	67.4836
 2.1810	67.5958
 2.1800	67.5194
 2.1790	67.6524
 2.1780	67.6714
 2.1770	67.7199
 2.1760	67.6711
 2.1750	67.7501
 2.1740	67.6812
 2.1730	67.7780
 2.1720	67.8719
 2.1710	68.0110
 2.1700	67.8735
 2.1690	67.9594
 2.1680	67.9719
 2.1670	68.0375
 2.1660	68.0395
 2.1650	68.0204
 2.1640	68.0429
 2.1630	68.1466
 2.1620	68.1684
 2.1610	68.1442
 2.1600	68.1612
 2.1590	68.2631
 2.1580	68.2885
 2.1570	68.2492
 2.1560	68.3274
 2.1550	68.4274
 2.1540	68.2962
 2.1530	68.3130
 2.1520	68.3264
 2.1510	68.3575
 2.1500	68.3030
 2.1490	68.3660
 2.1480	68.4199
 2.1470	68.4937
 2.1460	68.3517
 2.1450	68.3488
 2.1440	68.4110
 2.1430	68.4037
 2.1420	68.3822
 2.1410	68.3708
 2.1400	68.3725
 2.1390	68.3653
 2.1380	68.3211
 2.1370	68.3193
 2.1360	68.2606
 2.1350	68.2895
 2.1340	68.3154
 2.1330	68.3069
 2.1320	68.2593
 2.1310	68.2359
 2.1300	68.2127
 2.1290	68.1877
 2.1280	68.1575
 2.1270	68.1308
 2.1260	68.0549
 2.1250	68.0240
 2.1240	67.9754
 2.1230	67.9853
 2.1220	67.9832
 2.1210	67.9416
 2.1200	67.8270
 2.1190	67.8332
 2.1180	67.8376
 2.1170	67.7237
 2.1160	67.7014
 2.1150	67.6311
 2.1140	67.5638
 2.1130	67.6221
 2.1120	67.5670
 2.1110	67.5097
 2.1100	67.5038
 2.1090	67.4863
 2.1080	67.3240
 2.1070	67.3131
 2.1060	67.2829
 2.1050	67.3134
 2.1040	67.2988
 2.1030	67.1830
 2.1020	67.1563
 2.1010	67.1348
 2.1000	67.0897
 2.0990	67.0456
 2.0980	67.0383
 2.0970	67.0529
 2.0960	67.0614
 2.0950	67.0279
 2.0940	67.0359
 2.0930	67.0824
 2.0920	67.0856
 2.0910	67.1001
 2.0900	67.0712
 2.0890	67.0911
 2.0880	67.0895
 2.0870	67.0724
 2.0860	67.0140
 2.0850	66.9811
 2.0840	67.0038
 2.0830	67.0431
 2.0820	67.0332
 2.0810	66.9914
 2.0800	66.9504
 2.0790	66.9572
 2.0780	67.0268
 2.0770	67.0092
 2.0760	67.0201
 2.0750	67.0442
 2.0740	67.0270
 2.0730	67.0295
 2.0720	66.9568
 2.0710	66.8906
 2.0700	66.8897
 2.0690	66.8958
 2.0680	66.9010
 2.0670	66.8617
 2.0660	66.8915
 2.0650	66.9106
 2.0640	66.8822
 2.0630	66.8508
 2.0620	66.8167
 2.0610	66.8156
 2.0600	66.8073
 2.0590	66.7874
 2.0580	66.7902
 2.0570	66.7838
 2.0560	66.7507
 2.0550	66.7549
 2.0540	66.7301
 2.0530	66.6974
 2.0520	66.6922
 2.0510	66.7049
 2.0500	66.7221
 2.0490	66.6741
 2.0480	66.6680
 2.0470	66.6615
 2.0460	66.6394
 2.0450	66.6090
 2.0440	66.5905
 2.0430	66.6488
 2.0420	66.5956
 2.0410	66.5462
 2.0400	66.4732
 2.0390	66.4194
 2.0380	66.4278
 2.0370	66.3611
 2.0360	66.4405
 2.0350	66.3947
 2.0340	66.3293
 2.0330	66.2977
 2.0320	66.3191
 2.0310	66.2486
 2.0300	66.2750
 2.0290	66.2043
 2.0280	66.1422
 2.0270	66.1160
 2.0260	66.0398
 2.0250	66.0313
 2.0240	66.0398
 2.0230	65.9520
 2.0220	65.9226
 2.0210	65.8912
 2.0200	65.8835
 2.0190	65.8009
 2.0180	65.8088
 2.0170	65.7618
 2.0160	65.7198
 2.0150	65.7337
 2.0140	65.7405
 2.0130	65.6384
 2.0120	65.5686
 2.0110	65.4758
 2.0100	65.4966
 2.0090	65.5019
 2.0080	65.4983
 2.0070	65.4284
 2.0060	65.3886
 2.0050	65.2771
 2.0040	65.2687
 2.0030	65.2822
 2.0020	65.2481
 2.0010	65.2046
 2.0000	65.1616
 1.9990	65.1452
 1.9980	65.0643
 1.9970	65.0498
 1.9960	64.9614
 1.9950	64.8619
 1.9940	64.8823
 1.9930	64.8038
 1.9920	64.7176
 1.9910	64.6306
 1.9900	64.5838
 1.9890	64.5851
 1.9880	64.6231
 1.9870	64.4793
 1.9860	64.4542
 1.9850	64.3438
 1.9840	64.3236
 1.9830	64.2933
 1.9820	64.2618
 1.9810	64.1848
 1.9800	64.1351
 1.9790	64.0795
 1.9780	64.0141
 1.9770	64.0008
 1.9760	64.0344
 1.9750	63.9750
 1.9740	63.8912
 1.9730	63.7870
 1.9720	63.8067
 1.9710	63.7665
 1.9700	63.7668
 1.9690	63.6930
 1.9680	63.6661
 1.9670	63.5664
 1.9660	63.6070
 1.9650	63.4771
 1.9640	63.5295
 1.9630	63.3648
 1.9620	63.3757
 1.9610	63.3653
 1.9600	63.2900
 1.9590	63.2727
 1.9580	63.3267
 1.9570	63.1399
 1.9560	63.0811
 1.9550	63.1018
 1.9540	63.0654
 1.9530	63.0108
 1.9520	62.9980
 1.9510	62.8569
 1.9500	62.8872
 1.9490	62.7881
 1.9480	62.8571
 1.9470	62.7326
 1.9460	62.7235
 1.9450	62.6020
 1.9440	62.6159
 1.9430	62.5166
 1.9420	62.5785
 1.9410	62.4866
 1.9400	62.5443
 1.9390	62.3142
 1.9380	62.3521
 1.9370	62.2082
 1.9360	62.2563
 1.9350	62.1668
 1.9340	62.0314
 1.9330	62.0144
 1.9320	61.9749
 1.9310	61.9011
 1.9300	61.9365
 1.9290	61.8355
 1.9280	61.8034
 1.9270	61.6320
 1.9260	61.5618
 1.9250	61.6296
 1.9240	61.5769
 1.9230	61.4755
 1.9220	61.4651
 1.9210	61.3374
 1.9200	61.4547
 1.9190	61.4318
 1.9180	61.5266
 1.9170	61.4564
 1.9160	61.4241
 1.9150	61.4078
 1.9140	61.5612
 1.9130	61.6177
 1.9120	61.7259
 1.9110	61.7384
 1.9100	62.0332
 1.9090	62.0735
 1.9080	62.3058
 1.9070	62.3697
 1.9060	62.5660
 1.9050	62.8563
 1.9040	63.0223
 1.9030	63.2568
 1.9020	63.5755
 1.9010	63.8059
 1.9000	64.0198
 1.8990	64.3063
 1.8980	64.5848
 1.8970	64.7667
 1.8960	65.0206
 1.8950	65.2188
 1.8940	65.5455
 1.8930	65.7266
 1.8920	65.7889
 1.8910	66.0909
 1.8900	66.2803
 1.8890	66.4424
 1.8880	66.6569
 1.8870	66.6971
 1.8860	66.8300
 1.8850	66.8274
 1.8840	67.1593
 1.8830	67.2165
 1.8820	67.3520
 1.8810	67.4533
 1.8800	67.5404
 1.8790	67.5135
 1.8780	67.6749
 1.8770	67.7733
 1.8760	67.8783
 1.8750	67.8874
 1.8740	67.9117
 1.8730	67.9682
 1.8720	68.1473
 1.8710	68.1139
 1.8700	68.1924
 1.8690	68.2549
 1.8680	68.3228
 1.8670	68.2725
 1.8660	68.4067
 1.8650	68.4006
 1.8640	68.4835
 1.8630	68.5240
 1.8620	68.5966
 1.8610	68.5349
 1.8600	68.5894
 1.8590	68.6028
 1.8580	68.5691
 1.8570	68.5920
 1.8560	68.5930
 1.8550	68.5969
 1.8540	68.5880
 1.8530	68.6621
 1.8520	68.7191
 1.8510	68.6862
 1.8500	68.6991
 1.8490	68.6923
 1.8480	68.7512
 1.8470	68.7599
 1.8460	68.7688
 1.8450	68.7107
 1.8440	68.7589
 1.8430	68.7648
 1.8420	68.7897
 1.8410	68.8096
 1.8400	68.8102
 1.8390	68.8230
 1.8380	68.8179
 1.8370	68.8029
 1.8360	68.7962
 1.8350	68.7826
 1.8340	68.8250
 1.8330	68.8390
 1.8320	68.8296
 1.8310	68.7715
 1.8300	68.7385
 1.8290	68.7667
 1.8280	68.7998
 1.8270	68.7518
 1.8260	68.7459
 1.8250	68.8460
 1.8240	68.8928
 1.8230	68.8313
 1.8220	68.8323
 1.8210	68.8201
 1.8200	68.7904
 1.8190	68.7559
 1.8180	68.7684
 1.8170	68.7803
 1.8160	68.8183
 1.8150	68.8444
 1.8140	68.8103
 1.8130	68.7663
 1.8120	68.7556
 1.8110	68.7398
 1.8100	68.7622
 1.8090	68.8133
 1.8080	68.8555
 1.8070	68.8057
 1.8060	68.7294
 1.8050	68.7370
 1.8040	68.7842
 1.8030	68.7344
 1.8020	68.7911
 1.8010	68.8074
 1.8000	68.7598
 1.7990	68.7346
 1.7980	68.7826
 1.7970	68.7688
 1.7960	68.7153
 1.7950	68.6816
 1.7940	68.6895
 1.7930	68.7224
 1.7920	68.7308
 1.7910	68.6927
 1.7900	68.6821
 1.7890	68.6822
 1.7880	68.6767
 1.7870	68.6545
 1.7860	68.6088
 1.7850	68.6549
 1.7840	68.7055
 1.7830	68.6907
 1.7820	68.6558
 1.7810	68.6417
 1.7800	68.6452
 1.7790	68.6388
 1.7780	68.6176
 1.7770	68.6038
 1.7760	68.5867
 1.7750	68.5641
 1.7740	68.5937
 1.7730	68.6517
 1.7720	68.5843
 1.7710	68.5663
 1.7700	68.6141
 1.7690	68.5789
 1.7680	68.5719
 1.7670	68.6354
 1.7660	68.5940
 1.7650	68.5341
 1.7640	68.5216
 1.7630	68.5003
 1.7620	68.5437
 1.7610	68.4946
 1.7600	68.5193
 1.7590	68.6480
 1.7580	68.5560
 1.7570	68.5893
 1.7560	68.6124
 1.7550	68.6033
 1.7540	68.5366
 1.7530	68.5368
 1.7520	68.5296
 1.7510	68.5264
 1.7500	68.5852
 1.7490	68.6110
 1.7480	68.5419
 1.7470	68.5270
 1.7460	68.4854
 1.7450	68.5203
 1.7440	68.5018
 1.7430	68.5180
 1.7420	68.5372
 1.7410	68.5502
 1.7400	68.5204
 1.7390	68.5323
 1.7380	68.5683
 1.7370	68.5307
 1.7360	68.4548
 1.7350	68.4527
 1.7340	68.4508
 1.7330	68.5614
 1.7320	68.4962
 1.7310	68.5726
 1.7300	68.4822
 1.7290	68.4754
 1.7280	68.4619
 1.7270	68.4533
 1.7260	68.4466
 1.7250	68.5144
 1.7240	68.5036
 1.7230	68.5102
 1.7220	68.4879
 1.7210	68.4881
 1.7200	68.4902
 1.7190	68.5119
 1.7180	68.4305
 1.7170	68.3982
 1.7160	68.3770
 1.7150	68.4596
 1.7140	68.3554
 1.7130	68.4998
 1.7120	68.3967
 1.7110	68.3419
 1.7100	68.3149
 1.7090	68.4193
 1.7080	68.2646
 1.7070	68.2961
 1.7060	68.2571
 1.7050	68.2672
 1.7040	68.3559
 1.7030	68.3107
 1.7020	68.2260
 1.7010	68.2530
 1.7000	68.2563
 1.6990	68.2856
 1.6980	68.2134
 1.6970	68.2184
 1.6960	68.1947
 1.6950	68.2409
 1.6940	68.1759
 1.6930	68.2302
 1.6920	68.1518
 1.6910	68.1744
 1.6900	68.1850
 1.6890	68.1531
 1.6880	68.1763
 1.6870	68.1593
 1.6860	68.1071
 1.6850	68.0959
 1.6840	68.0868
 1.6830	68.0089
 1.6820	68.0452
 1.6810	68.0341
 1.6800	68.1037
 1.6790	68.0331
 1.6780	68.0886
 1.6770	67.9490
 1.6760	68.0524
 1.6750	67.9630
 1.6740	67.8961
 1.6730	67.9955
 1.6720	67.9166
 1.6710	67.9541
 1.6700	67.9026
 1.6690	68.0240
 1.6680	67.8368
 1.6670	67.9722
 1.6660	67.9245
 1.6650	67.8434
 1.6640	67.8278
 1.6630	67.8445
 1.6620	67.8484
 1.6610	67.8867
 1.6600	67.8640
 1.6590	67.9478
 1.6580	67.8048
 1.6570	67.8536
 1.6560	67.7329
 1.6550	67.7546
 1.6540	67.8370
 1.6530	67.8147
 1.6520	67.7926
 1.6510	67.7517
 1.6500	67.7435
 1.6490	67.6081
 1.6480	67.6862
 1.6470	67.6780
 1.6460	67.6200
 1.6450	67.7286
 1.6440	67.6115
 1.6430	67.6824
 1.6420	67.6255
 1.6410	67.5873
 1.6400	67.5944
 1.6390	67.6380
 1.6380	67.5031
 1.6370	67.5868
 1.6360	67.5115
 1.6350	67.5916
 1.6340	67.4964
 1.6330	67.5100
 1.6320	67.4738
 1.6310	67.4861
 1.6300	67.4297
 1.6290	67.5217
 1.6280	67.3959
 1.6270	67.3897
 1.6260	67.4073
 1.6250	67.3837
 1.6240	67.3753
 1.6230	67.3397
 1.6220	67.2858
 1.6210	67.4197
 1.6200	67.3124
 1.6190	67.4345
 1.6180	67.2891
 1.6170	67.2352
 1.6160	67.2945
 1.6150	67.2464
 1.6140	67.2818
 1.6130	67.2535
 1.6120	67.2050
 1.6110	67.1824
 1.6100	67.1971
 1.6090	67.1682
 1.6080	67.1197
 1.6070	67.1183
 1.6060	67.1303
 1.6050	67.1735
 1.6040	67.0922
 1.6030	67.1451
 1.6020	67.1011
 1.6010	67.1108
 1.6000	67.0698
 1.5990	67.0377
 1.5980	67.0073
 1.5970	67.0620
 1.5960	66.9639
 1.5950	66.9498
 1.5940	66.9706
 1.5930	66.9741
 1.5920	66.9482
 1.5910	66.8688
 1.5900	66.9106
 1.5890	66.9038
 1.5880	66.8577
 1.5870	66.9045
 1.5860	66.8810
 1.5850	66.7891
 1.5840	66.7111
 1.5830	66.7834
 1.5820	66.7492
 1.5810	66.8118
 1.5800	66.7653
 1.5790	66.7531
 1.5780	66.7121
 1.5770	66.7312
 1.5760	66.6049
 1.5750	66.6599
 1.5740	66.6215
 1.5730	66.6206
 1.5720	66.5696
 1.5710	66.5283
 1.5700	66.5603
 1.5690	66.5504
 1.5680	66.5721
 1.5670	66.5432
 1.5660	66.5524
 1.5650	66.4207
 1.5640	66.3133
 1.5630	66.4474
 1.5620	66.4323
 1.5610	66.3798
 1.5600	66.3185
 1.5590	66.3701
 1.5580	66.3571
 1.5570	66.4357
 1.5560	66.3438
 1.5550	66.2595
 1.5540	66.1783
 1.5530	66.2240
 1.5520	66.2082
 1.5510	66.1749
 1.5500	66.1304
 1.5490	66.1442
 1.5480	66.1359
 1.5470	66.1959
 1.5460	66.1655
 1.5450	66.0570
 1.5440	66.0321
 1.5430	66.0290
 1.5420	65.9607
 1.5410	65.9945
 1.5400	65.9511
 1.5390	65.9547
 1.5380	65.9220
 1.5370	65.8853
 1.5360	65.8939
 1.5350	65.8790
 1.5340	65.8697
 1.5330	65.8462
 1.5320	65.7854
 1.5310	65.7833
 1.5300	65.7800
 1.5290	65.7945
 1.5280	65.7118
 1.5270	65.7214
 1.5260	65.6933
 1.5250	65.7200
 1.5240	65.6562
 1.5230	65.6418
 1.5220	65.6129
 1.5210	65.5355
 1.5200	65.4805
 1.5190	65.5165
 1.5180	65.4775
 1.5170	65.4349
 1.5160	65.3698
 1.5150	65.3595
 1.5140	65.3074
 1.5130	65.3119
 1.5120	65.3462
 1.5110	65.3056
 1.5100	65.2291
 1.5090	65.2320
 1.5080	65.1995
 1.5070	65.1352
 1.5060	65.1615
 1.5050	65.1686
 1.5040	65.0866
 1.5030	65.0116
 1.5020	65.0209
 1.5010	65.0205
 1.5000	65.0331
 1.4990	65.0011
 1.4980	64.9162
 1.4970	64.9001
 1.4960	64.9099
 1.4950	64.9025
 1.4940	64.8310
 1.4930	64.7159
 1.4920	64.6990
 1.4910	64.6651
 1.4900	64.6468
 1.4890	64.6629
 1.4880	64.6536
 1.4870	64.5966
 1.4860	64.5168
 1.4850	64.5133
 1.4840	64.4966
 1.4830	64.4353
 1.4820	64.3872
 1.4810	64.3263
 1.4800	64.3238
 1.4790	64.2540
 1.4780	64.2524
 1.4770	64.2432
 1.4760	64.2048
 1.4750	64.1579
 1.4740	64.1077
 1.4730	64.0609
 1.4720	64.0951
 1.4710	64.0480
 1.4700	63.9647
 1.4690	63.8973
 1.4680	63.8918
 1.4670	63.9273
 1.4660	63.8513
 1.4650	63.7312
 1.4640	63.7221
 1.4630	63.7700
 1.4620	63.7362
 1.4610	63.6738
 1.4600	63.6846
 1.4590	63.6320
 1.4580	63.5445
 1.4570	63.4691
 1.4560	63.4736
 1.4550	63.3448
 1.4540	63.2973
 1.4530	63.2733
 1.4520	63.2232
 1.4510	63.1862
 1.4500	63.1591
 1.4490	63.1813
 1.4480	63.1574
 1.4470	63.0894
 1.4460	63.0292
 1.4450	62.9755
 1.4440	62.9093
 1.4430	62.8558
 1.4420	62.8666
 1.4410	62.8355
 1.4400	62.8377
 1.4390	62.7433
 1.4380	62.7389
 1.4370	62.6553
 1.4360	62.6702
 1.4350	62.6347
 1.4340	62.6289
 1.4330	62.5378
 1.4320	62.5287
 1.4310	62.4937
 1.4300	62.4768
 1.4290	62.3772
 1.4280	62.3425
 1.4270	62.3798
 1.4260	62.4149
 1.4250	62.3601
 1.4240	62.3055
 1.4230	62.2360
 1.4220	62.2812
 1.4210	62.2687
 1.4200	62.2156
 1.4190	62.1661
 1.4180	62.2255
 1.4170	62.0852
 1.4160	62.1220
 1.4150	62.0417
 1.4140	62.0065
 1.4130	61.9108
 1.4120	61.9674
 1.4110	61.9144
 1.4100	61.9716
 1.4090	61.9360
 1.4080	62.0069
 1.4070	61.9690
 1.4060	62.0100
 1.4050	61.9675
 1.4040	61.9023
 1.4030	61.9387
 1.4020	61.9593
 1.4010	61.9224
 1.4000	62.0162
 1.3990	62.0569
 1.3980	62.1819
 1.3970	62.3157
 1.3960	62.4377
 1.3950	62.4840
 1.3940	62.5497
 1.3930	62.5513
 1.3920	62.6768
 1.3910	62.6628
 1.3900	62.8900
 1.3890	62.8344
 1.3880	62.9965
 1.3870	62.8830
 1.3860	63.0452
 1.3850	62.9907
 1.3840	63.1083
 1.3830	62.9083
 1.3820	63.1068
 1.3810	63.0817
 1.3800	63.0325
 1.3790	63.0439
 1.3780	63.0961
 1.3770	63.0199
 1.3760	63.0177
 1.3750	62.9979
 1.3740	63.0407
 1.3730	62.9069
 1.3720	62.8862
 1.3710	62.8538
 1.3700	62.8945
 1.3690	62.7827
