Name: Lepidolite K(Li,Al)3(Si,Al)_4O_10(F,OH)_2
Type: Mineral
Class: Silicate
Subclass: Phyllosilicate
Particle Size: Fine
Sample No.: PS-13A
Owner: JPL
Wavelength Range: VSWIR
Origin: USA, South Dakota.
Collection Date: N/A
Description: Yellow lepidolite.Particle size was 0-45um.Collected by:  Ward's Original ASTER Spectral Library name was jpl.perkin.mineral.silicate.phyllosilicate.fine.ps13a.spectrum.txt
Measurement: Hemispherical reflectance
First Column: X
Second Column: Y
X Units: Wavelength (micrometers)
Y Units:Reflectance (percent)
First X Value:  2.5000
Last X Value:  0.4000
Number of X Values: 2101
Additional Information: mineral.silicate.phyllosilicate.fine.vswir.ps-13a.jpl.perkin.ancillary.txt

 2.5000	55.5129
 2.4990	55.1189
 2.4980	54.9970
 2.4970	55.0827
 2.4960	54.6869
 2.4950	54.9118
 2.4940	54.5322
 2.4930	54.5433
 2.4920	54.5160
 2.4910	54.5107
 2.4900	54.2426
 2.4890	54.4869
 2.4880	54.1241
 2.4870	54.3139
 2.4860	54.0637
 2.4850	53.9665
 2.4840	54.0388
 2.4830	54.0715
 2.4820	53.8242
 2.4810	53.9903
 2.4800	53.7772
 2.4790	53.7865
 2.4780	53.5065
 2.4770	53.8154
 2.4760	53.4254
 2.4750	53.4769
 2.4740	53.1928
 2.4730	53.2996
 2.4720	53.2221
 2.4710	53.1941
 2.4700	53.0729
 2.4690	53.1613
 2.4680	52.8746
 2.4670	52.9261
 2.4660	52.6768
 2.4650	52.6167
 2.4640	52.4609
 2.4630	52.3955
 2.4620	52.3098
 2.4610	52.3363
 2.4600	52.1630
 2.4590	52.1035
 2.4580	51.9660
 2.4570	51.8598
 2.4560	51.7015
 2.4550	51.6431
 2.4540	51.5340
 2.4530	51.6331
 2.4520	51.3517
 2.4510	51.2577
 2.4500	51.2590
 2.4490	51.1399
 2.4480	51.0614
 2.4470	51.0508
 2.4460	50.9665
 2.4450	51.0231
 2.4440	50.8418
 2.4430	50.8787
 2.4420	50.7524
 2.4410	50.8004
 2.4400	50.7012
 2.4390	50.7700
 2.4380	50.7001
 2.4370	50.7628
 2.4360	50.8488
 2.4350	50.7938
 2.4340	50.8801
 2.4330	50.9365
 2.4320	50.9520
 2.4310	51.1303
 2.4300	51.2180
 2.4290	51.3737
 2.4280	51.4499
 2.4270	51.6154
 2.4260	51.7736
 2.4250	51.9320
 2.4240	52.1028
 2.4230	52.2879
 2.4220	52.3771
 2.4210	52.6407
 2.4200	52.7154
 2.4190	53.0412
 2.4180	53.2401
 2.4170	53.4932
 2.4160	53.6413
 2.4150	53.8910
 2.4140	54.1454
 2.4130	54.4308
 2.4120	54.5840
 2.4110	54.7892
 2.4100	55.0599
 2.4090	55.2861
 2.4080	55.3867
 2.4070	55.6341
 2.4060	55.8062
 2.4050	56.0525
 2.4040	56.1986
 2.4030	56.3755
 2.4020	56.4763
 2.4010	56.6226
 2.4000	56.8343
 2.3990	57.0040
 2.3980	57.1170
 2.3970	57.2109
 2.3960	57.3412
 2.3950	57.4803
 2.3940	57.5528
 2.3930	57.5952
 2.3920	57.6369
 2.3910	57.7027
 2.3900	57.7527
 2.3890	57.8122
 2.3880	57.8310
 2.3870	57.8743
 2.3860	57.8791
 2.3850	57.8748
 2.3840	57.9582
 2.3830	57.9786
 2.3820	57.9136
 2.3810	57.9550
 2.3800	57.9767
 2.3790	58.0403
 2.3780	58.0446
 2.3770	58.0285
 2.3760	58.0270
 2.3750	57.9637
 2.3740	57.9292
 2.3730	57.9081
 2.3720	57.9928
 2.3710	57.9998
 2.3700	57.8749
 2.3690	57.8896
 2.3680	57.9129
 2.3670	57.8711
 2.3660	57.7744
 2.3650	57.7236
 2.3640	57.6266
 2.3630	57.5471
 2.3620	57.4563
 2.3610	57.3181
 2.3600	57.2316
 2.3590	57.1475
 2.3580	57.0258
 2.3570	56.8901
 2.3560	56.7456
 2.3550	56.6410
 2.3540	56.5607
 2.3530	56.5173
 2.3520	56.4282
 2.3510	56.3071
 2.3500	56.1888
 2.3490	56.1244
 2.3480	56.1281
 2.3470	56.1576
 2.3460	56.1960
 2.3450	56.1828
 2.3440	56.2315
 2.3430	56.3107
 2.3420	56.3717
 2.3410	56.4971
 2.3400	56.6444
 2.3390	56.7697
 2.3380	56.9785
 2.3370	57.1716
 2.3360	57.3507
 2.3350	57.6345
 2.3340	57.9102
 2.3330	58.1885
 2.3320	58.4207
 2.3310	58.6460
 2.3300	58.9259
 2.3290	59.1523
 2.3280	59.4433
 2.3270	59.7712
 2.3260	60.1409
 2.3250	60.4189
 2.3240	60.6760
 2.3230	60.9910
 2.3220	61.2717
 2.3210	61.6254
 2.3200	61.9288
 2.3190	62.2406
 2.3180	62.5864
 2.3170	62.8452
 2.3160	63.2059
 2.3150	63.4947
 2.3140	63.7977
 2.3130	64.0882
 2.3120	64.3928
 2.3110	64.5744
 2.3100	64.9194
 2.3090	65.2249
 2.3080	65.4973
 2.3070	65.7602
 2.3060	66.0079
 2.3050	66.2672
 2.3040	66.5338
 2.3030	66.7865
 2.3020	67.0551
 2.3010	67.2731
 2.3000	67.5629
 2.2990	67.7301
 2.2980	67.9843
 2.2970	68.1835
 2.2960	68.3368
 2.2950	68.5007
 2.2940	68.7975
 2.2930	68.8473
 2.2920	68.9754
 2.2910	69.2859
 2.2900	69.3686
 2.2890	69.4574
 2.2880	69.6171
 2.2870	69.7012
 2.2860	69.8385
 2.2850	69.9459
 2.2840	70.1436
 2.2830	70.1342
 2.2820	70.1791
 2.2810	70.2664
 2.2800	70.3159
 2.2790	70.3224
 2.2780	70.4330
 2.2770	70.4647
 2.2760	70.5343
 2.2750	70.5703
 2.2740	70.6021
 2.2730	70.6041
 2.2720	70.6181
 2.2710	70.6391
 2.2700	70.7183
 2.2690	70.6625
 2.2680	70.7605
 2.2670	70.7189
 2.2660	70.6980
 2.2650	70.6609
 2.2640	70.6820
 2.2630	70.7542
 2.2620	70.7217
 2.2610	70.5295
 2.2600	70.6254
 2.2590	70.5826
 2.2580	70.6527
 2.2570	70.5779
 2.2560	70.4118
 2.2550	70.3530
 2.2540	70.4990
 2.2530	70.3945
 2.2520	70.3648
 2.2510	70.2503
 2.2500	70.3072
 2.2490	70.2830
 2.2480	70.1792
 2.2470	70.1799
 2.2460	70.0549
 2.2450	70.0333
 2.2440	69.9945
 2.2430	69.8954
 2.2420	69.7877
 2.2410	69.7337
 2.2400	69.6852
 2.2390	69.5472
 2.2380	69.5226
 2.2370	69.2494
 2.2360	69.2730
 2.2350	69.0269
 2.2340	68.8854
 2.2330	68.7728
 2.2320	68.5669
 2.2310	68.2921
 2.2300	68.0560
 2.2290	67.7926
 2.2280	67.4871
 2.2270	67.1151
 2.2260	66.8302
 2.2250	66.4446
 2.2240	65.9776
 2.2230	65.5248
 2.2220	64.9609
 2.2210	64.4238
 2.2200	63.9114
 2.2190	63.2468
 2.2180	62.6141
 2.2170	61.8011
 2.2160	61.1318
 2.2150	60.4130
 2.2140	59.5827
 2.2130	58.7620
 2.2120	58.1626
 2.2110	57.1171
 2.2100	56.5411
 2.2090	55.5894
 2.2080	54.8795
 2.2070	54.1180
 2.2060	53.4082
 2.2050	52.6967
 2.2040	52.0718
 2.2030	51.4668
 2.2020	50.9812
 2.2010	50.4201
 2.2000	50.0633
 2.1990	49.5745
 2.1980	49.3957
 2.1970	49.1879
 2.1960	49.1165
 2.1950	49.0231
 2.1940	49.2679
 2.1930	49.2801
 2.1920	49.6478
 2.1910	49.9803
 2.1900	50.5046
 2.1890	50.9573
 2.1880	51.5669
 2.1870	52.2986
 2.1860	52.9932
 2.1850	53.8392
 2.1840	54.6546
 2.1830	55.5490
 2.1820	56.4201
 2.1810	57.4039
 2.1800	58.3373
 2.1790	59.2286
 2.1780	60.1177
 2.1770	61.0411
 2.1760	61.9867
 2.1750	62.7631
 2.1740	63.5685
 2.1730	64.3281
 2.1720	65.0104
 2.1710	65.7200
 2.1700	66.4004
 2.1690	67.0134
 2.1680	67.5923
 2.1670	68.0612
 2.1660	68.7093
 2.1650	69.1382
 2.1640	69.6587
 2.1630	70.0249
 2.1620	70.3659
 2.1610	70.6972
 2.1600	71.0813
 2.1590	71.4133
 2.1580	71.6862
 2.1570	72.0323
 2.1560	72.3671
 2.1550	72.5310
 2.1540	72.6665
 2.1530	72.9061
 2.1520	73.1864
 2.1510	73.3584
 2.1500	73.6287
 2.1490	73.6768
 2.1480	73.8579
 2.1470	73.9546
 2.1460	74.1277
 2.1450	74.2426
 2.1440	74.3655
 2.1430	74.4807
 2.1420	74.5269
 2.1410	74.6361
 2.1400	74.6608
 2.1390	74.7451
 2.1380	74.8518
 2.1370	74.8503
 2.1360	74.8338
 2.1350	74.9053
 2.1340	74.8781
 2.1330	74.7894
 2.1320	74.7986
 2.1310	74.8248
 2.1300	74.7839
 2.1290	74.6915
 2.1280	74.6586
 2.1270	74.6276
 2.1260	74.5306
 2.1250	74.4439
 2.1240	74.4819
 2.1230	74.3896
 2.1220	74.3870
 2.1210	74.3634
 2.1200	74.3359
 2.1190	74.3404
 2.1180	74.3364
 2.1170	74.3564
 2.1160	74.3889
 2.1150	74.3935
 2.1140	74.4201
 2.1130	74.4892
 2.1120	74.4935
 2.1110	74.5106
 2.1100	74.5300
 2.1090	74.6734
 2.1080	74.7441
 2.1070	74.7806
 2.1060	74.8033
 2.1050	74.8592
 2.1040	74.9508
 2.1030	75.0452
 2.1020	75.1120
 2.1010	75.2130
 2.1000	75.2673
 2.0990	75.3364
 2.0980	75.4953
 2.0970	75.6246
 2.0960	75.7177
 2.0950	75.8616
 2.0940	75.9781
 2.0930	76.0924
 2.0920	76.1763
 2.0910	76.3178
 2.0900	76.4979
 2.0890	76.6174
 2.0880	76.7264
 2.0870	76.8218
 2.0860	76.8767
 2.0850	76.9458
 2.0840	77.0275
 2.0830	77.0632
 2.0820	77.1800
 2.0810	77.2989
 2.0800	77.4026
 2.0790	77.4877
 2.0780	77.5687
 2.0770	77.5856
 2.0760	77.6013
 2.0750	77.7114
 2.0740	77.7772
 2.0730	77.8010
 2.0720	77.8359
 2.0710	77.8517
 2.0700	77.8999
 2.0690	77.9269
 2.0680	77.9357
 2.0670	77.9897
 2.0660	78.0767
 2.0650	78.1415
 2.0640	78.1146
 2.0630	78.1018
 2.0620	78.1206
 2.0610	78.1236
 2.0600	78.1234
 2.0590	78.2094
 2.0580	78.2413
 2.0570	78.2614
 2.0560	78.2772
 2.0550	78.2967
 2.0540	78.3473
 2.0530	78.3544
 2.0520	78.3855
 2.0510	78.4319
 2.0500	78.4566
 2.0490	78.4731
 2.0480	78.4344
 2.0470	78.4584
 2.0460	78.4876
 2.0450	78.4812
 2.0440	78.5419
 2.0430	78.5388
 2.0420	78.4880
 2.0410	78.5484
 2.0400	78.5469
 2.0390	78.6191
 2.0380	78.6656
 2.0370	78.6787
 2.0360	78.6940
 2.0350	78.6752
 2.0340	78.6921
 2.0330	78.6990
 2.0320	78.6419
 2.0310	78.6906
 2.0300	78.7312
 2.0290	78.7371
 2.0280	78.7477
 2.0270	78.7636
 2.0260	78.7402
 2.0250	78.7815
 2.0240	78.7955
 2.0230	78.7803
 2.0220	78.6983
 2.0210	78.7374
 2.0200	78.7814
 2.0190	78.7754
 2.0180	78.7733
 2.0170	78.7689
 2.0160	78.7643
 2.0150	78.7662
 2.0140	78.8117
 2.0130	78.7955
 2.0120	78.7185
 2.0110	78.7319
 2.0100	78.7918
 2.0090	78.8134
 2.0080	78.7820
 2.0070	78.7753
 2.0060	78.8092
 2.0050	78.7989
 2.0040	78.8175
 2.0030	78.8112
 2.0020	78.7471
 2.0010	78.7922
 2.0000	78.8585
 1.9990	78.7508
 1.9980	78.8051
 1.9970	78.7482
 1.9960	78.7114
 1.9950	78.6722
 1.9940	78.6241
 1.9930	78.6534
 1.9920	78.6424
 1.9910	78.6808
 1.9900	78.7198
 1.9890	78.6904
 1.9880	78.6350
 1.9870	78.6705
 1.9860	78.5860
 1.9850	78.5173
 1.9840	78.4855
 1.9830	78.6388
 1.9820	78.5895
 1.9810	78.5805
 1.9800	78.5575
 1.9790	78.5698
 1.9780	78.4864
 1.9770	78.5160
 1.9760	78.4970
 1.9750	78.5613
 1.9740	78.5353
 1.9730	78.5585
 1.9720	78.5361
 1.9710	78.5003
 1.9700	78.4219
 1.9690	78.4510
 1.9680	78.4128
 1.9670	78.4986
 1.9660	78.5202
 1.9650	78.5677
 1.9640	78.4446
 1.9630	78.4571
 1.9620	78.3890
 1.9610	78.4658
 1.9600	78.4626
 1.9590	78.4827
 1.9580	78.3944
 1.9570	78.4772
 1.9560	78.4024
 1.9550	78.3881
 1.9540	78.4308
 1.9530	78.4402
 1.9520	78.4186
 1.9510	78.4468
 1.9500	78.3813
 1.9490	78.4814
 1.9480	78.4137
 1.9470	78.3544
 1.9460	78.4074
 1.9450	78.3918
 1.9440	78.3305
 1.9430	78.3526
 1.9420	78.4701
 1.9410	78.4743
 1.9400	78.3366
 1.9390	78.2900
 1.9380	78.4290
 1.9370	78.3396
 1.9360	78.4676
 1.9350	78.3241
 1.9340	78.4442
 1.9330	78.3105
 1.9320	78.3102
 1.9310	78.3553
 1.9300	78.2653
 1.9290	78.3876
 1.9280	78.2857
 1.9270	78.4396
 1.9260	78.3225
 1.9250	78.3991
 1.9240	78.3668
 1.9230	78.3914
 1.9220	78.3064
 1.9210	78.2674
 1.9200	78.2890
 1.9190	78.3694
 1.9180	78.4056
 1.9170	78.5076
 1.9160	78.3586
 1.9150	78.5324
 1.9140	78.4742
 1.9130	78.5791
 1.9120	78.4911
 1.9110	78.4628
 1.9100	78.6015
 1.9090	78.7057
 1.9080	78.6500
 1.9070	78.7461
 1.9060	78.8660
 1.9050	78.9615
 1.9040	78.9054
 1.9030	78.9650
 1.9020	79.1503
 1.9010	79.2686
 1.9000	79.3324
 1.8990	79.4014
 1.8980	79.4946
 1.8970	79.6404
 1.8960	79.6962
 1.8950	79.7280
 1.8940	79.8257
 1.8930	79.9659
 1.8920	79.9605
 1.8910	80.0528
 1.8900	80.0652
 1.8890	80.2103
 1.8880	80.2371
 1.8870	80.3226
 1.8860	80.3092
 1.8850	80.3191
 1.8840	80.3988
 1.8830	80.4776
 1.8820	80.4478
 1.8810	80.5464
 1.8800	80.6767
 1.8790	80.7247
 1.8780	80.6921
 1.8770	80.7782
 1.8760	80.7101
 1.8750	80.7299
 1.8740	80.8035
 1.8730	80.8068
 1.8720	80.8577
 1.8710	80.8789
 1.8700	80.9176
 1.8690	80.9757
 1.8680	80.9927
 1.8670	81.0044
 1.8660	81.0606
 1.8650	81.0179
 1.8640	81.0592
 1.8630	81.0777
 1.8620	81.0032
 1.8610	81.0135
 1.8600	81.0438
 1.8590	81.0338
 1.8580	81.0279
 1.8570	81.1391
 1.8560	80.9802
 1.8550	81.0190
 1.8540	81.0262
 1.8530	81.0455
 1.8520	80.9919
 1.8510	80.9912
 1.8500	80.9398
 1.8490	80.9681
 1.8480	80.9534
 1.8470	80.8943
 1.8460	80.8193
 1.8450	80.8393
 1.8440	80.8482
 1.8430	80.9006
 1.8420	80.8717
 1.8410	80.8188
 1.8400	80.7741
 1.8390	80.8363
 1.8380	80.8530
 1.8370	80.8565
 1.8360	80.8417
 1.8350	80.8244
 1.8340	80.8667
 1.8330	80.9296
 1.8320	80.8850
 1.8310	80.8791
 1.8300	80.9258
 1.8290	80.9809
 1.8280	80.9845
 1.8270	80.9723
 1.8260	80.9914
 1.8250	81.0940
 1.8240	81.1259
 1.8230	81.0952
 1.8220	81.1360
 1.8210	81.1508
 1.8200	81.1744
 1.8190	81.2130
 1.8180	81.1710
 1.8170	81.1822
 1.8160	81.2225
 1.8150	81.3201
 1.8140	81.3247
 1.8130	81.2886
 1.8120	81.3222
 1.8110	81.2985
 1.8100	81.3257
 1.8090	81.3744
 1.8080	81.4149
 1.8070	81.4557
 1.8060	81.3801
 1.8050	81.3530
 1.8040	81.3977
 1.8030	81.3473
 1.8020	81.4179
 1.8010	81.4383
 1.8000	81.4007
 1.7990	81.3920
 1.7980	81.3938
 1.7970	81.4205
 1.7960	81.4113
 1.7950	81.4119
 1.7940	81.4224
 1.7930	81.3926
 1.7920	81.4313
 1.7910	81.4460
 1.7900	81.3775
 1.7890	81.3922
 1.7880	81.4364
 1.7870	81.3943
 1.7860	81.3636
 1.7850	81.3972
 1.7840	81.3454
 1.7830	81.3327
 1.7820	81.3834
 1.7810	81.3534
 1.7800	81.3248
 1.7790	81.3391
 1.7780	81.3523
 1.7770	81.2738
 1.7760	81.2661
 1.7750	81.2960
 1.7740	81.3266
 1.7730	81.3305
 1.7720	81.2555
 1.7710	81.2589
 1.7700	81.2779
 1.7690	81.2996
 1.7680	81.3275
 1.7670	81.2694
 1.7660	81.2733
 1.7650	81.3124
 1.7640	81.2991
 1.7630	81.3161
 1.7620	81.3111
 1.7610	81.3075
 1.7600	81.3112
 1.7590	81.2859
 1.7580	81.3381
 1.7570	81.3791
 1.7560	81.3879
 1.7550	81.3263
 1.7540	81.3567
 1.7530	81.4191
 1.7520	81.3796
 1.7510	81.3824
 1.7500	81.3893
 1.7490	81.4204
 1.7480	81.4291
 1.7470	81.4050
 1.7460	81.4221
 1.7450	81.4202
 1.7440	81.4493
 1.7430	81.4250
 1.7420	81.3788
 1.7410	81.4707
 1.7400	81.5182
 1.7390	81.5046
 1.7380	81.5492
 1.7370	81.5405
 1.7360	81.4969
 1.7350	81.5451
 1.7340	81.4950
 1.7330	81.5349
 1.7320	81.5335
 1.7310	81.5409
 1.7300	81.6374
 1.7290	81.5115
 1.7280	81.5110
 1.7270	81.5163
 1.7260	81.5219
 1.7250	81.5929
 1.7240	81.5343
 1.7230	81.5427
 1.7220	81.5660
 1.7210	81.5886
 1.7200	81.5933
 1.7190	81.4976
 1.7180	81.4749
 1.7170	81.5116
 1.7160	81.5261
 1.7150	81.5002
 1.7140	81.5363
 1.7130	81.5021
 1.7120	81.4750
 1.7110	81.5480
 1.7100	81.6027
 1.7090	81.5093
 1.7080	81.4739
 1.7070	81.5034
 1.7060	81.4856
 1.7050	81.5004
 1.7040	81.4769
 1.7030	81.4227
 1.7020	81.4962
 1.7010	81.4544
 1.7000	81.4662
 1.6990	81.4971
 1.6980	81.5461
 1.6970	81.4508
 1.6960	81.4587
 1.6950	81.5284
 1.6940	81.5042
 1.6930	81.5416
 1.6920	81.6072
 1.6910	81.5044
 1.6900	81.5241
 1.6890	81.4270
 1.6880	81.5150
 1.6870	81.5597
 1.6860	81.5645
 1.6850	81.4885
 1.6840	81.4525
 1.6830	81.3784
 1.6820	81.4533
 1.6810	81.4738
 1.6800	81.4715
 1.6790	81.5219
 1.6780	81.5365
 1.6770	81.4154
 1.6760	81.3861
 1.6750	81.5247
 1.6740	81.4536
 1.6730	81.4504
 1.6720	81.4514
 1.6710	81.4135
 1.6700	81.4330
 1.6690	81.3943
 1.6680	81.4094
 1.6670	81.4818
 1.6660	81.5059
 1.6650	81.4443
 1.6640	81.4599
 1.6630	81.4931
 1.6620	81.4650
 1.6610	81.4648
 1.6600	81.5390
 1.6590	81.3652
 1.6580	81.5010
 1.6570	81.4111
 1.6560	81.4137
 1.6550	81.4135
 1.6540	81.4680
 1.6530	81.4271
 1.6520	81.4614
 1.6510	81.3677
 1.6500	81.4366
 1.6490	81.4524
 1.6480	81.3862
 1.6470	81.3904
 1.6460	81.3578
 1.6450	81.4897
 1.6440	81.3991
 1.6430	81.4710
 1.6420	81.4672
 1.6410	81.4028
 1.6400	81.4069
 1.6390	81.3627
 1.6380	81.4643
 1.6370	81.4084
 1.6360	81.4424
 1.6350	81.4136
 1.6340	81.4364
 1.6330	81.3828
 1.6320	81.4024
 1.6310	81.3640
 1.6300	81.4298
 1.6290	81.4277
 1.6280	81.4390
 1.6270	81.2911
 1.6260	81.3535
 1.6250	81.4853
 1.6240	81.3505
 1.6230	81.3693
 1.6220	81.2812
 1.6210	81.3547
 1.6200	81.4432
 1.6190	81.4380
 1.6180	81.3157
 1.6170	81.3949
 1.6160	81.4611
 1.6150	81.3565
 1.6140	81.3677
 1.6130	81.3539
 1.6120	81.3677
 1.6110	81.3524
 1.6100	81.3664
 1.6090	81.3577
 1.6080	81.3725
 1.6070	81.3017
 1.6060	81.3933
 1.6050	81.4207
 1.6040	81.3552
 1.6030	81.3477
 1.6020	81.3491
 1.6010	81.3105
 1.6000	81.3770
 1.5990	81.3411
 1.5980	81.3777
 1.5970	81.3466
 1.5960	81.3294
 1.5950	81.3350
 1.5940	81.4027
 1.5930	81.3097
 1.5920	81.2413
 1.5910	81.3480
 1.5900	81.3716
 1.5890	81.3260
 1.5880	81.3282
 1.5870	81.2392
 1.5860	81.2709
 1.5850	81.1963
 1.5840	81.2794
 1.5830	81.2654
 1.5820	81.2389
 1.5810	81.2862
 1.5800	81.1972
 1.5790	81.2404
 1.5780	81.1730
 1.5770	81.2538
 1.5760	81.2444
 1.5750	81.2215
 1.5740	81.2311
 1.5730	81.1737
 1.5720	81.2101
 1.5710	81.2408
 1.5700	81.2166
 1.5690	81.1811
 1.5680	81.1720
 1.5670	81.1948
 1.5660	81.0927
 1.5650	81.1421
 1.5640	81.1547
 1.5630	81.0860
 1.5620	81.0940
 1.5610	81.1322
 1.5600	81.1134
 1.5590	81.0841
 1.5580	81.1023
 1.5570	81.0450
 1.5560	81.0810
 1.5550	81.0248
 1.5540	81.0212
 1.5530	81.0365
 1.5520	81.0041
 1.5510	81.0169
 1.5500	81.0147
 1.5490	80.9663
 1.5480	81.0567
 1.5470	80.9760
 1.5460	80.9268
 1.5450	80.8936
 1.5440	80.9866
 1.5430	80.9954
 1.5420	80.9089
 1.5410	80.9073
 1.5400	80.9444
 1.5390	80.9221
 1.5380	80.9223
 1.5370	80.8060
 1.5360	80.7973
 1.5350	80.8292
 1.5340	80.8376
 1.5330	80.8027
 1.5320	80.8493
 1.5310	80.8651
 1.5300	80.8861
 1.5290	80.8264
 1.5280	80.7773
 1.5270	80.7838
 1.5260	80.7637
 1.5250	80.7288
 1.5240	80.7107
 1.5230	80.7137
 1.5220	80.7376
 1.5210	80.7373
 1.5200	80.7128
 1.5190	80.6586
 1.5180	80.6595
 1.5170	80.6968
 1.5160	80.6855
 1.5150	80.6230
 1.5140	80.6560
 1.5130	80.6829
 1.5120	80.6295
 1.5110	80.6267
 1.5100	80.5903
 1.5090	80.5645
 1.5080	80.5849
 1.5070	80.6084
 1.5060	80.6395
 1.5050	80.5883
 1.5040	80.4858
 1.5030	80.4557
 1.5020	80.4931
 1.5010	80.4962
 1.5000	80.4530
 1.4990	80.4191
 1.4980	80.4472
 1.4970	80.4953
 1.4960	80.5217
 1.4950	80.4498
 1.4940	80.4300
 1.4930	80.4123
 1.4920	80.3451
 1.4910	80.3692
 1.4900	80.3659
 1.4890	80.3775
 1.4880	80.3808
 1.4870	80.3063
 1.4860	80.2711
 1.4850	80.2192
 1.4840	80.2159
 1.4830	80.2269
 1.4820	80.2108
 1.4810	80.1926
 1.4800	80.1863
 1.4790	80.1901
 1.4780	80.1591
 1.4770	80.1533
 1.4760	80.1638
 1.4750	80.1370
 1.4740	80.0950
 1.4730	80.1432
 1.4720	80.1096
 1.4710	80.0230
 1.4700	79.9431
 1.4690	79.9434
 1.4680	79.9832
 1.4670	79.9492
 1.4660	79.9371
 1.4650	79.9073
 1.4640	79.8986
 1.4630	79.9130
 1.4620	79.8456
 1.4610	79.8732
 1.4600	79.8424
 1.4590	79.8279
 1.4580	79.7871
 1.4570	79.7580
 1.4560	79.7127
 1.4550	79.6479
 1.4540	79.6234
 1.4530	79.5966
 1.4520	79.5257
 1.4510	79.5376
 1.4500	79.5031
 1.4490	79.3949
 1.4480	79.3963
 1.4470	79.3653
 1.4460	79.3085
 1.4450	79.2968
 1.4440	79.2005
 1.4430	79.1024
 1.4420	79.1795
 1.4410	79.0469
 1.4400	78.9162
 1.4390	78.9015
 1.4380	78.7511
 1.4370	78.6754
 1.4360	78.5263
 1.4350	78.4268
 1.4340	78.1522
 1.4330	77.9414
 1.4320	77.7136
 1.4310	77.3619
 1.4300	76.9664
 1.4290	76.4576
 1.4280	75.9228
 1.4270	75.3123
 1.4260	74.6780
 1.4250	73.8706
 1.4240	72.8762
 1.4230	71.9672
 1.4220	70.8634
 1.4210	69.7077
 1.4200	68.3673
 1.4190	66.8978
 1.4180	65.5847
 1.4170	64.2320
 1.4160	62.9730
 1.4150	61.8124
 1.4140	60.7196
 1.4130	60.1499
 1.4120	59.9114
 1.4110	59.9978
 1.4100	60.2273
 1.4090	60.6505
 1.4080	61.0685
 1.4070	61.6100
 1.4060	62.1001
 1.4050	62.6878
 1.4040	63.0409
 1.4030	63.6674
 1.4020	64.2051
 1.4010	65.0896
 1.4000	65.8980
 1.3990	67.0120
 1.3980	67.9737
 1.3970	69.2053
 1.3960	70.4741
 1.3950	71.8494
 1.3940	73.0252
 1.3930	74.1403
 1.3920	75.0269
 1.3910	75.8577
 1.3900	76.5140
 1.3890	76.9494
 1.3880	77.2477
 1.3870	77.4646
 1.3860	77.7866
 1.3850	77.8982
 1.3840	78.0096
 1.3830	78.0370
 1.3820	78.0643
 1.3810	78.1638
 1.3800	78.2409
 1.3790	78.1963
 1.3780	78.1708
 1.3770	78.2402
 1.3760	78.2883
 1.3750	78.3837
 1.3740	78.2774
 1.3730	78.4327
 1.3720	78.2999
 1.3710	78.4326
 1.3700	78.3685
 1.3690	78.3790
 1.3680	78.3450
