Name: Colemanite Ca_2B_6O_11.5H_2O
Type: Mineral
Class: Borate
Subclass: None
Particle Size: Medium
Sample No.: B-1A
Owner: JPL
Wavelength Range: VSWIR
Origin: USA, California, Kern County, Boron.
Collection Date: N/A
Description: Particle size was 45-125um.Collected by:  Burminco Original ASTER Spectral Library name was jpl.perkin.mineral.borate.none.medium.b01a.spectrum.txt
Measurement: Hemispherical reflectance
First Column: X
Second Column: Y
X Units: Wavelength (micrometers)
Y Units:Reflectance (percent)
First X Value:  2.5000
Last X Value:  0.4000
Number of X Values: 2101
Additional Information: mineral.borate.none.medium.vswir.b-1a.jpl.perkin.ancillary.txt

 2.5000	12.6791
 2.4990	12.6669
 2.4980	12.5604
 2.4970	12.9548
 2.4960	12.2797
 2.4950	13.0268
 2.4940	12.4447
 2.4930	12.9165
 2.4920	12.5110
 2.4910	12.9018
 2.4900	12.7333
 2.4890	12.8547
 2.4880	12.6397
 2.4870	12.8507
 2.4860	12.6439
 2.4850	12.9014
 2.4840	12.6429
 2.4830	12.9431
 2.4820	12.5767
 2.4810	12.9227
 2.4800	12.6464
 2.4790	12.9096
 2.4780	12.7062
 2.4770	12.7186
 2.4760	12.6683
 2.4750	12.7968
 2.4740	12.6642
 2.4730	12.8307
 2.4720	12.5729
 2.4710	12.8455
 2.4700	12.5675
 2.4690	12.8036
 2.4680	12.6842
 2.4670	12.6991
 2.4660	12.5055
 2.4650	12.7003
 2.4640	12.4959
 2.4630	12.6575
 2.4620	12.5793
 2.4610	12.6796
 2.4600	12.5607
 2.4590	12.7291
 2.4580	12.7145
 2.4570	12.6423
 2.4560	12.5887
 2.4550	12.7907
 2.4540	12.6372
 2.4530	12.7471
 2.4520	12.6721
 2.4510	12.8422
 2.4500	12.7376
 2.4490	12.9208
 2.4480	12.8274
 2.4470	12.9394
 2.4460	12.8521
 2.4450	13.0791
 2.4440	12.9154
 2.4430	13.0555
 2.4420	13.0065
 2.4410	13.1685
 2.4400	13.0937
 2.4390	13.1725
 2.4380	13.1730
 2.4370	13.3482
 2.4360	13.3722
 2.4350	13.4656
 2.4340	13.3106
 2.4330	13.4586
 2.4320	13.4362
 2.4310	13.5440
 2.4300	13.4442
 2.4290	13.6400
 2.4280	13.6003
 2.4270	13.7671
 2.4260	13.7966
 2.4250	13.9004
 2.4240	13.7735
 2.4230	13.9348
 2.4220	13.9756
 2.4210	14.0073
 2.4200	13.9539
 2.4190	14.0929
 2.4180	13.9845
 2.4170	14.1611
 2.4160	14.1838
 2.4150	14.4342
 2.4140	14.3647
 2.4130	14.4839
 2.4120	14.5748
 2.4110	14.6741
 2.4100	14.7350
 2.4090	14.8179
 2.4080	14.8695
 2.4070	15.0457
 2.4060	15.1260
 2.4050	15.2627
 2.4040	15.2793
 2.4030	15.4950
 2.4020	15.5705
 2.4010	15.7443
 2.4000	15.8271
 2.3990	15.9770
 2.3980	16.1447
 2.3970	16.3393
 2.3960	16.3884
 2.3950	16.5707
 2.3940	16.6996
 2.3930	16.9262
 2.3920	16.9724
 2.3910	17.1703
 2.3900	17.2685
 2.3890	17.4687
 2.3880	17.6012
 2.3870	17.7671
 2.3860	17.8699
 2.3850	18.0379
 2.3840	18.2028
 2.3830	18.4335
 2.3820	18.5508
 2.3810	18.7802
 2.3800	18.9649
 2.3790	19.1365
 2.3780	19.2926
 2.3770	19.4764
 2.3760	19.6206
 2.3750	19.8202
 2.3740	19.9338
 2.3730	20.1216
 2.3720	20.2902
 2.3710	20.4546
 2.3700	20.5854
 2.3690	20.7907
 2.3680	20.9749
 2.3670	21.0866
 2.3660	21.2367
 2.3650	21.4382
 2.3640	21.6035
 2.3630	21.8343
 2.3620	21.9579
 2.3610	22.0974
 2.3600	22.3229
 2.3590	22.4833
 2.3580	22.6006
 2.3570	22.7601
 2.3560	22.9244
 2.3550	23.0641
 2.3540	23.2426
 2.3530	23.3738
 2.3520	23.5092
 2.3510	23.6566
 2.3500	23.7826
 2.3490	23.9248
 2.3480	24.0670
 2.3470	24.1912
 2.3460	24.3059
 2.3450	24.3961
 2.3440	24.5189
 2.3430	24.5994
 2.3420	24.7246
 2.3410	24.8220
 2.3400	24.9275
 2.3390	25.0242
 2.3380	25.0934
 2.3370	25.1634
 2.3360	25.2693
 2.3350	25.3361
 2.3340	25.4383
 2.3330	25.5649
 2.3320	25.6580
 2.3310	25.6746
 2.3300	25.8159
 2.3290	25.8865
 2.3280	26.0023
 2.3270	26.0275
 2.3260	26.1588
 2.3250	26.1818
 2.3240	26.2801
 2.3230	26.3512
 2.3220	26.4239
 2.3210	26.4629
 2.3200	26.5880
 2.3190	26.6504
 2.3180	26.7412
 2.3170	26.7847
 2.3160	26.8415
 2.3150	26.8675
 2.3140	26.9794
 2.3130	27.0234
 2.3120	27.1159
 2.3110	27.0567
 2.3100	27.1262
 2.3090	27.1085
 2.3080	27.1668
 2.3070	27.2298
 2.3060	27.2635
 2.3050	27.2753
 2.3040	27.2626
 2.3030	27.2030
 2.3020	27.2827
 2.3010	27.2620
 2.3000	27.3264
 2.2990	27.2783
 2.2980	27.3143
 2.2970	27.2712
 2.2960	27.2961
 2.2950	27.2505
 2.2940	27.3202
 2.2930	27.2115
 2.2920	27.2677
 2.2910	27.2061
 2.2900	27.2954
 2.2890	27.1493
 2.2880	27.2047
 2.2870	27.1789
 2.2860	27.1753
 2.2850	27.0626
 2.2840	27.0615
 2.2830	27.0245
 2.2820	27.0112
 2.2810	26.9566
 2.2800	26.9274
 2.2790	26.8327
 2.2780	26.8053
 2.2770	26.6583
 2.2760	26.6580
 2.2750	26.5506
 2.2740	26.5687
 2.2730	26.4465
 2.2720	26.4324
 2.2710	26.2880
 2.2700	26.2477
 2.2690	26.2085
 2.2680	26.1292
 2.2670	25.9934
 2.2660	25.9830
 2.2650	25.8974
 2.2640	25.9183
 2.2630	25.7958
 2.2620	25.8207
 2.2610	25.7019
 2.2600	25.6983
 2.2590	25.5743
 2.2580	25.5552
 2.2570	25.4327
 2.2560	25.3975
 2.2550	25.2621
 2.2540	25.2953
 2.2530	25.1518
 2.2520	25.1586
 2.2510	24.8975
 2.2500	24.8997
 2.2490	24.7195
 2.2480	24.6441
 2.2470	24.4690
 2.2460	24.4312
 2.2450	24.2376
 2.2440	24.0818
 2.2430	23.9465
 2.2420	23.8918
 2.2410	23.5911
 2.2400	23.5465
 2.2390	23.3673
 2.2380	23.3447
 2.2370	23.0714
 2.2360	23.0597
 2.2350	22.7836
 2.2340	22.7086
 2.2330	22.5208
 2.2320	22.4352
 2.2310	22.3236
 2.2300	22.2757
 2.2290	22.0444
 2.2280	22.0250
 2.2270	21.8133
 2.2260	21.8039
 2.2250	21.6007
 2.2240	21.5620
 2.2230	21.4106
 2.2220	21.3382
 2.2210	21.1652
 2.2200	21.1612
 2.2190	20.9070
 2.2180	20.8159
 2.2170	20.6916
 2.2160	20.6076
 2.2150	20.3786
 2.2140	20.2756
 2.2130	20.0686
 2.2120	20.1070
 2.2110	19.6544
 2.2100	19.7973
 2.2090	19.4975
 2.2080	19.5360
 2.2070	19.4125
 2.2060	19.4008
 2.2050	19.1767
 2.2040	19.2659
 2.2030	19.1485
 2.2020	19.2477
 2.2010	19.1631
 2.2000	19.2918
 2.1990	19.1863
 2.1980	19.3848
 2.1970	19.4006
 2.1960	19.4729
 2.1950	19.5355
 2.1940	19.6689
 2.1930	19.7124
 2.1920	19.9051
 2.1910	19.8449
 2.1900	20.0879
 2.1890	20.0476
 2.1880	20.2643
 2.1870	20.2442
 2.1860	20.4105
 2.1850	20.3595
 2.1840	20.5722
 2.1830	20.6483
 2.1820	20.6969
 2.1810	20.7798
 2.1800	20.8461
 2.1790	20.8474
 2.1780	20.9450
 2.1770	20.9450
 2.1760	21.0770
 2.1750	21.0104
 2.1740	21.0623
 2.1730	21.0695
 2.1720	21.2094
 2.1710	21.1248
 2.1700	21.2404
 2.1690	21.2312
 2.1680	21.3830
 2.1670	21.3674
 2.1660	21.5496
 2.1650	21.5719
 2.1640	21.7087
 2.1630	21.7516
 2.1620	21.8636
 2.1610	21.9155
 2.1600	22.1437
 2.1590	22.1741
 2.1580	22.3727
 2.1570	22.4599
 2.1560	22.6026
 2.1550	22.7394
 2.1540	22.9977
 2.1530	23.0346
 2.1520	23.2725
 2.1510	23.3410
 2.1500	23.5147
 2.1490	23.6056
 2.1480	23.7894
 2.1470	23.8149
 2.1460	23.9805
 2.1450	24.0068
 2.1440	24.0747
 2.1430	24.1104
 2.1420	24.0888
 2.1410	24.1039
 2.1400	24.0186
 2.1390	23.9401
 2.1380	23.8726
 2.1370	23.6576
 2.1360	23.6225
 2.1350	23.4570
 2.1340	23.3086
 2.1330	23.0261
 2.1320	22.8375
 2.1310	22.6051
 2.1300	22.3963
 2.1290	22.1137
 2.1280	21.8507
 2.1270	21.5077
 2.1260	21.2807
 2.1250	20.9306
 2.1240	20.6495
 2.1230	20.3238
 2.1220	19.9912
 2.1210	19.6817
 2.1200	19.3368
 2.1190	18.9915
 2.1180	18.6577
 2.1170	18.3485
 2.1160	18.1176
 2.1150	17.8323
 2.1140	17.5536
 2.1130	17.3096
 2.1120	17.2139
 2.1110	17.0022
 2.1100	16.8644
 2.1090	16.7752
 2.1080	16.7551
 2.1070	16.7001
 2.1060	16.6521
 2.1050	16.6630
 2.1040	16.8008
 2.1030	16.9114
 2.1020	17.0561
 2.1010	17.2383
 2.1000	17.5640
 2.0990	17.8923
 2.0980	18.2656
 2.0970	18.6769
 2.0960	19.1857
 2.0950	19.6914
 2.0940	20.2660
 2.0930	20.8313
 2.0920	21.4422
 2.0910	22.0172
 2.0900	22.6469
 2.0890	23.1934
 2.0880	23.7340
 2.0870	24.2879
 2.0860	24.8588
 2.0850	25.2776
 2.0840	25.6444
 2.0830	25.9753
 2.0820	26.3174
 2.0810	26.6249
 2.0800	26.8812
 2.0790	27.1096
 2.0780	27.3242
 2.0770	27.4575
 2.0760	27.6045
 2.0750	27.6927
 2.0740	27.7785
 2.0730	27.8801
 2.0720	27.9776
 2.0710	28.0574
 2.0700	28.0976
 2.0690	28.1010
 2.0680	28.1524
 2.0670	28.1764
 2.0660	28.2148
 2.0650	28.2992
 2.0640	28.3169
 2.0630	28.3227
 2.0620	28.3452
 2.0610	28.3766
 2.0600	28.3966
 2.0590	28.4385
 2.0580	28.4423
 2.0570	28.4969
 2.0560	28.5259
 2.0550	28.5126
 2.0540	28.4729
 2.0530	28.5205
 2.0520	28.5335
 2.0510	28.5541
 2.0500	28.5322
 2.0490	28.5723
 2.0480	28.5578
 2.0470	28.5622
 2.0460	28.5287
 2.0450	28.5397
 2.0440	28.4984
 2.0430	28.4922
 2.0420	28.4453
 2.0410	28.4566
 2.0400	28.4027
 2.0390	28.4182
 2.0380	28.3783
 2.0370	28.3293
 2.0360	28.2891
 2.0350	28.3148
 2.0340	28.2544
 2.0330	28.2877
 2.0320	28.2171
 2.0310	28.1787
 2.0300	28.1374
 2.0290	28.1340
 2.0280	28.0728
 2.0270	28.0488
 2.0260	27.9623
 2.0250	27.9496
 2.0240	27.9252
 2.0230	27.9525
 2.0220	27.8452
 2.0210	27.9013
 2.0200	27.8433
 2.0190	27.8264
 2.0180	27.7805
 2.0170	27.8012
 2.0160	27.6824
 2.0150	27.6386
 2.0140	27.5433
 2.0130	27.5751
 2.0120	27.4991
 2.0110	27.4752
 2.0100	27.3888
 2.0090	27.3460
 2.0080	27.2233
 2.0070	27.2320
 2.0060	27.1183
 2.0050	27.1084
 2.0040	26.9489
 2.0030	26.9587
 2.0020	26.8677
 2.0010	26.9098
 2.0000	26.8309
 1.9990	26.7807
 1.9980	26.6897
 1.9970	26.6318
 1.9960	26.5838
 1.9950	26.6568
 1.9940	26.5192
 1.9930	26.4805
 1.9920	26.4123
 1.9910	26.4788
 1.9900	26.3783
 1.9890	26.4140
 1.9880	26.2515
 1.9870	26.3013
 1.9860	26.2047
 1.9850	26.2217
 1.9840	26.1406
 1.9830	26.0757
 1.9820	26.0007
 1.9810	26.0346
 1.9800	25.9321
 1.9790	25.9649
 1.9780	25.8035
 1.9770	25.7844
 1.9760	25.7464
 1.9750	25.6840
 1.9740	25.6489
 1.9730	25.6542
 1.9720	25.4772
 1.9710	25.5312
 1.9700	25.3892
 1.9690	25.4139
 1.9680	25.3045
 1.9670	25.3522
 1.9660	25.1483
 1.9650	25.2171
 1.9640	25.1614
 1.9630	25.2260
 1.9620	25.1502
 1.9610	25.1153
 1.9600	25.1216
 1.9590	25.2930
 1.9580	25.1243
 1.9570	25.2841
 1.9560	25.2817
 1.9550	25.3842
 1.9540	25.4215
 1.9530	25.5454
 1.9520	25.5432
 1.9510	25.8507
 1.9500	25.8566
 1.9490	26.0871
 1.9480	26.1301
 1.9470	26.4888
 1.9460	26.4482
 1.9450	26.8388
 1.9440	26.9084
 1.9430	27.2189
 1.9420	27.3927
 1.9410	27.7630
 1.9400	27.9350
 1.9390	28.2312
 1.9380	28.5331
 1.9370	28.8327
 1.9360	29.0907
 1.9350	29.5078
 1.9340	29.6657
 1.9330	30.0810
 1.9320	30.3021
 1.9310	30.7558
 1.9300	30.9808
 1.9290	31.3642
 1.9280	31.6317
 1.9270	31.9954
 1.9260	32.1059
 1.9250	32.5702
 1.9240	32.8570
 1.9230	33.1896
 1.9220	33.4552
 1.9210	33.7205
 1.9200	34.0344
 1.9190	34.3360
 1.9180	34.6218
 1.9170	34.8672
 1.9160	35.1139
 1.9150	35.4549
 1.9140	35.6855
 1.9130	36.0134
 1.9120	36.1876
 1.9110	36.4949
 1.9100	36.6717
 1.9090	37.0011
 1.9080	37.0316
 1.9070	37.4741
 1.9060	37.6024
 1.9050	37.8493
 1.9040	37.9629
 1.9030	38.2905
 1.9020	38.4273
 1.9010	38.6968
 1.9000	38.9074
 1.8990	39.1116
 1.8980	39.2074
 1.8970	39.4992
 1.8960	39.5623
 1.8950	39.8001
 1.8940	39.9032
 1.8930	40.1125
 1.8920	40.1910
 1.8910	40.3888
 1.8900	40.4113
 1.8890	40.6334
 1.8880	40.7686
 1.8870	40.9055
 1.8860	40.9775
 1.8850	41.1564
 1.8840	41.2139
 1.8830	41.4352
 1.8820	41.4782
 1.8810	41.5702
 1.8800	41.7006
 1.8790	41.8309
 1.8780	41.8947
 1.8770	42.1055
 1.8760	42.0918
 1.8750	42.2366
 1.8740	42.2104
 1.8730	42.3462
 1.8720	42.4763
 1.8710	42.5602
 1.8700	42.5823
 1.8690	42.7073
 1.8680	42.8064
 1.8670	42.9035
 1.8660	42.9431
 1.8650	43.0170
 1.8640	43.0329
 1.8630	43.1619
 1.8620	43.1438
 1.8610	43.1978
 1.8600	43.2564
 1.8590	43.3011
 1.8580	43.3925
 1.8570	43.4054
 1.8560	43.3865
 1.8550	43.4347
 1.8540	43.4443
 1.8530	43.4569
 1.8520	43.4710
 1.8510	43.5665
 1.8500	43.5436
 1.8490	43.5134
 1.8480	43.4857
 1.8470	43.5303
 1.8460	43.5070
 1.8450	43.5650
 1.8440	43.5627
 1.8430	43.6239
 1.8420	43.5955
 1.8410	43.5801
 1.8400	43.5640
 1.8390	43.5670
 1.8380	43.5524
 1.8370	43.5464
 1.8360	43.5166
 1.8350	43.5159
 1.8340	43.5048
 1.8330	43.5410
 1.8320	43.5295
 1.8310	43.5653
 1.8300	43.4851
 1.8290	43.4621
 1.8280	43.4548
 1.8270	43.4631
 1.8260	43.4660
 1.8250	43.4592
 1.8240	43.4161
 1.8230	43.4439
 1.8220	43.3454
 1.8210	43.3850
 1.8200	43.3529
 1.8190	43.3709
 1.8180	43.3826
 1.8170	43.3657
 1.8160	43.3128
 1.8150	43.2929
 1.8140	43.3361
 1.8130	43.4300
 1.8120	43.3293
 1.8110	43.3038
 1.8100	43.3408
 1.8090	43.3775
 1.8080	43.3535
 1.8070	43.3448
 1.8060	43.3701
 1.8050	43.4088
 1.8040	43.3914
 1.8030	43.3712
 1.8020	43.3309
 1.8010	43.3557
 1.8000	43.3619
 1.7990	43.3465
 1.7980	43.3162
 1.7970	43.3008
 1.7960	43.3268
 1.7950	43.3686
 1.7940	43.3609
 1.7930	43.4051
 1.7920	43.3826
 1.7910	43.3516
 1.7900	43.3566
 1.7890	43.3426
 1.7880	43.3608
 1.7870	43.3688
 1.7860	43.3469
 1.7850	43.3444
 1.7840	43.3435
 1.7830	43.3319
 1.7820	43.3248
 1.7810	43.3404
 1.7800	43.3339
 1.7790	43.3084
 1.7780	43.3357
 1.7770	43.2784
 1.7760	43.3113
 1.7750	43.3524
 1.7740	43.3190
 1.7730	43.3347
 1.7720	43.3634
 1.7710	43.3687
 1.7700	43.3923
 1.7690	43.3500
 1.7680	43.3520
 1.7670	43.3319
 1.7660	43.3553
 1.7650	43.4024
 1.7640	43.4262
 1.7630	43.4154
 1.7620	43.4428
 1.7610	43.4729
 1.7600	43.4974
 1.7590	43.4752
 1.7580	43.5199
 1.7570	43.5279
 1.7560	43.5864
 1.7550	43.5816
 1.7540	43.6505
 1.7530	43.6648
 1.7520	43.7346
 1.7510	43.7348
 1.7500	43.7446
 1.7490	43.7981
 1.7480	43.8549
 1.7470	43.8578
 1.7460	43.8723
 1.7450	43.8925
 1.7440	43.9092
 1.7430	43.8854
 1.7420	43.9821
 1.7410	43.9664
 1.7400	43.9799
 1.7390	43.9612
 1.7380	43.9756
 1.7370	43.9873
 1.7360	44.0350
 1.7350	43.9947
 1.7340	44.0374
 1.7330	44.0004
 1.7320	44.0783
 1.7310	43.9981
 1.7300	44.0544
 1.7290	43.9979
 1.7280	43.9887
 1.7270	43.9507
 1.7260	43.9376
 1.7250	43.9212
 1.7240	43.8770
 1.7230	43.9097
 1.7220	43.8898
 1.7210	43.8057
 1.7200	43.7934
 1.7190	43.7500
 1.7180	43.7315
 1.7170	43.7162
 1.7160	43.6653
 1.7150	43.5361
 1.7140	43.5192
 1.7130	43.4607
 1.7120	43.4112
 1.7110	43.3423
 1.7100	43.3557
 1.7090	43.3120
 1.7080	43.2006
 1.7070	43.1744
 1.7060	43.1653
 1.7050	43.0170
 1.7040	42.9926
 1.7030	42.8933
 1.7020	42.8828
 1.7010	42.7804
 1.7000	42.7398
 1.6990	42.6731
 1.6980	42.6913
 1.6970	42.5697
 1.6960	42.5300
 1.6950	42.4485
 1.6940	42.4704
 1.6930	42.3925
 1.6920	42.4147
 1.6910	42.3183
 1.6900	42.3569
 1.6890	42.2263
 1.6880	42.2950
 1.6870	42.1716
 1.6860	42.2704
 1.6850	42.1915
 1.6840	42.2351
 1.6830	42.1413
 1.6820	42.1911
 1.6810	42.0995
 1.6800	42.1304
 1.6790	42.0411
 1.6780	42.0427
 1.6770	42.0733
 1.6760	42.1538
 1.6750	41.9567
 1.6740	41.9887
 1.6730	41.9118
 1.6720	42.0144
 1.6710	41.9173
 1.6700	41.9602
 1.6690	42.0265
 1.6680	41.8301
 1.6670	41.8634
 1.6660	41.8817
 1.6650	41.8835
 1.6640	41.9243
 1.6630	41.9435
 1.6620	41.9578
 1.6610	41.8770
 1.6600	41.9854
 1.6590	41.9807
 1.6580	42.1057
 1.6570	41.9738
 1.6560	42.1051
 1.6550	42.1029
 1.6540	42.2078
 1.6530	42.1157
 1.6520	42.2620
 1.6510	42.3232
 1.6500	42.4279
 1.6490	42.3745
 1.6480	42.5401
 1.6470	42.6665
 1.6460	42.7742
 1.6450	42.7188
 1.6440	42.8758
 1.6430	42.8824
 1.6420	43.1346
 1.6410	42.9550
 1.6400	43.3161
 1.6390	43.2933
 1.6380	43.5128
 1.6370	43.5367
 1.6360	43.7129
 1.6350	43.6765
 1.6340	43.9256
 1.6330	44.0130
 1.6320	44.1656
 1.6310	44.2448
 1.6300	44.4072
 1.6290	44.5452
 1.6280	44.6950
 1.6270	44.7888
 1.6260	45.0057
 1.6250	45.1042
 1.6240	45.2254
 1.6230	45.3744
 1.6220	45.5138
 1.6210	45.5911
 1.6200	45.8424
 1.6190	45.9819
 1.6180	46.1079
 1.6170	46.2505
 1.6160	46.4645
 1.6150	46.4776
 1.6140	46.7076
 1.6130	46.6665
 1.6120	46.9530
 1.6110	46.9709
 1.6100	47.1825
 1.6090	47.2421
 1.6080	47.4451
 1.6070	47.5396
 1.6060	47.7504
 1.6050	47.7734
 1.6040	47.8841
 1.6030	47.9841
 1.6020	48.1653
 1.6010	48.1746
 1.6000	48.3136
 1.5990	48.3557
 1.5980	48.5428
 1.5970	48.6309
 1.5960	48.6787
 1.5950	48.7585
 1.5940	48.7983
 1.5930	48.8125
 1.5920	48.9618
 1.5910	48.9709
 1.5900	49.0733
 1.5890	49.0750
 1.5880	49.0935
 1.5870	49.1697
 1.5860	49.1799
 1.5850	49.1217
 1.5840	49.2014
 1.5830	49.0654
 1.5820	49.1465
 1.5810	49.1053
 1.5800	49.0627
 1.5790	49.0337
 1.5780	49.0350
 1.5770	48.9490
 1.5760	48.9613
 1.5750	48.9271
 1.5740	48.9183
 1.5730	48.8160
 1.5720	48.7814
 1.5710	48.7372
 1.5700	48.7100
 1.5690	48.7009
 1.5680	48.6973
 1.5670	48.6513
 1.5660	48.6580
 1.5650	48.6253
 1.5640	48.6667
 1.5630	48.6096
 1.5620	48.6303
 1.5610	48.5982
 1.5600	48.6453
 1.5590	48.6323
 1.5580	48.6268
 1.5570	48.6184
 1.5560	48.6605
 1.5550	48.6936
 1.5540	48.7616
 1.5530	48.7811
 1.5520	48.8209
 1.5510	48.8258
 1.5500	48.9190
 1.5490	48.9766
 1.5480	49.1168
 1.5470	49.2449
 1.5460	49.3629
 1.5450	49.4266
 1.5440	49.6123
 1.5430	49.6918
 1.5420	49.8753
 1.5410	50.0549
 1.5400	50.2455
 1.5390	50.3743
 1.5380	50.5538
 1.5370	50.7145
 1.5360	50.9247
 1.5350	51.1035
 1.5340	51.2272
 1.5330	51.3532
 1.5320	51.5094
 1.5310	51.6895
 1.5300	51.8206
 1.5290	51.9372
 1.5280	52.0865
 1.5270	52.2566
 1.5260	52.4283
 1.5250	52.5084
 1.5240	52.6587
 1.5230	52.7632
 1.5220	52.9015
 1.5210	53.0102
 1.5200	53.1805
 1.5190	53.3523
 1.5180	53.4833
 1.5170	53.6073
 1.5160	53.7537
 1.5150	53.9274
 1.5140	54.0404
 1.5130	54.1247
 1.5120	54.2513
 1.5110	54.3955
 1.5100	54.5262
 1.5090	54.5874
 1.5080	54.6478
 1.5070	54.7626
 1.5060	54.9078
 1.5050	54.9988
 1.5040	55.0600
 1.5030	55.0896
 1.5020	55.1757
 1.5010	55.2906
 1.5000	55.3794
 1.4990	55.4665
 1.4980	55.5294
 1.4970	55.6207
 1.4960	55.7016
 1.4950	55.7874
 1.4940	55.8195
 1.4930	55.9121
 1.4920	55.9395
 1.4910	55.9940
 1.4900	56.1096
 1.4890	56.1960
 1.4880	56.2377
 1.4870	56.2752
 1.4860	56.2929
 1.4850	56.3215
 1.4840	56.3598
 1.4830	56.3848
 1.4820	56.4144
 1.4810	56.3590
 1.4800	56.3456
 1.4790	56.3659
 1.4780	56.3129
 1.4770	56.2444
 1.4760	56.1576
 1.4750	56.0891
 1.4740	56.0717
 1.4730	55.9911
 1.4720	55.8186
 1.4710	55.7137
 1.4700	55.6111
 1.4690	55.4624
 1.4680	55.2990
 1.4670	55.1606
 1.4660	54.9643
 1.4650	54.8290
 1.4640	54.6016
 1.4630	54.4142
 1.4620	54.2610
 1.4610	54.1017
 1.4600	53.9042
 1.4590	53.7141
 1.4580	53.5734
 1.4570	53.4590
 1.4560	53.2558
 1.4550	53.0997
 1.4540	52.9256
 1.4530	52.7665
 1.4520	52.5640
 1.4510	52.4932
 1.4500	52.3324
 1.4490	52.2446
 1.4480	52.1142
 1.4470	52.0719
 1.4460	52.0251
 1.4450	52.0433
 1.4440	52.0557
 1.4430	52.1172
 1.4420	52.2558
 1.4410	52.3592
 1.4400	52.4378
 1.4390	52.5811
 1.4380	52.5832
 1.4370	52.5117
 1.4360	52.3272
 1.4350	52.0963
 1.4340	51.5920
 1.4330	50.8322
 1.4320	49.8608
 1.4310	48.6951
 1.4300	47.1749
 1.4290	45.4999
 1.4280	43.7829
 1.4270	42.1398
 1.4260	40.6177
 1.4250	39.3604
 1.4240	38.4680
 1.4230	37.9690
 1.4220	37.7649
 1.4210	38.0195
 1.4200	38.3942
 1.4190	39.0445
 1.4180	39.8171
 1.4170	40.8013
 1.4160	41.9635
 1.4150	43.4341
 1.4140	44.8814
 1.4130	46.4231
 1.4120	47.7820
 1.4110	49.1174
 1.4100	50.4561
 1.4090	51.7981
 1.4080	52.9171
 1.4070	54.0231
 1.4060	55.1868
 1.4050	56.2975
 1.4040	57.3836
 1.4030	58.3680
 1.4020	59.2500
 1.4010	60.2921
 1.4000	61.2450
 1.3990	62.0391
 1.3980	62.7817
 1.3970	63.6575
 1.3960	64.3917
 1.3950	65.0232
 1.3940	65.6125
 1.3930	66.1642
 1.3920	66.6343
 1.3910	67.0680
 1.3900	67.3605
 1.3890	67.8585
 1.3880	68.2455
 1.3870	68.5015
 1.3860	68.8235
 1.3850	69.2948
 1.3840	69.7843
 1.3830	70.1653
 1.3820	70.5469
 1.3810	70.8714
 1.3800	71.2209
 1.3790	71.5557
 1.3780	71.8034
 1.3770	72.1063
 1.3760	72.2706
 1.3750	72.5430
 1.3740	72.6990
 1.3730	72.8927
 1.3720	73.1747
 1.3710	73.4603
 1.3700	73.5323
 1.3690	73.8268
 1.3680	73.8261
 1.3670	74.0940
 1.3660	74.2457
