Name: Sanidine (Feldspar) (K,Na)AlSi_3O_8
Type: Mineral
Class: Silicate
Subclass: Tectosilicate
Particle Size: Fine
Sample No.: TS-14A
Owner: JPL
Wavelength Range: VSWIR
Origin: Unknown.
Collection Date: N/A
Description: Particle size was 0-45um.Collected by:  JPL Original ASTER Spectral Library name was jpl.perkin.mineral.silicate.tectosilicate.fine.ts14a.spectrum.txt
Measurement: Hemispherical reflectance
First Column: X
Second Column: Y
X Units: Wavelength (micrometers)
Y Units:Reflectance (percent)
First X Value:  2.5000
Last X Value:  0.4000
Number of X Values: 2101
Additional Information: mineral.silicate.tectosilicate.fine.vswir.ts-14a.jpl.perkin.ancillary.txt

 2.5000	68.2999
 2.4990	68.0058
 2.4980	68.0282
 2.4970	68.1893
 2.4960	67.9488
 2.4950	68.1088
 2.4940	68.1190
 2.4930	68.0808
 2.4920	68.1122
 2.4910	68.2685
 2.4900	68.2969
 2.4890	68.3284
 2.4880	68.4308
 2.4870	68.3799
 2.4860	68.3311
 2.4850	68.3487
 2.4840	68.5312
 2.4830	68.3876
 2.4820	68.3840
 2.4810	68.6573
 2.4800	68.5520
 2.4790	68.5096
 2.4780	68.5373
 2.4770	68.6586
 2.4760	68.4305
 2.4750	68.7239
 2.4740	68.6695
 2.4730	68.8043
 2.4720	68.7821
 2.4710	68.7544
 2.4700	68.8346
 2.4690	69.0153
 2.4680	68.8514
 2.4670	68.9010
 2.4660	68.8468
 2.4650	68.9726
 2.4640	69.0991
 2.4630	69.1284
 2.4620	68.8542
 2.4610	69.2263
 2.4600	69.2262
 2.4590	69.2436
 2.4580	69.1863
 2.4570	69.2710
 2.4560	69.1235
 2.4550	69.2505
 2.4540	69.2757
 2.4530	69.3227
 2.4520	69.3606
 2.4510	69.3143
 2.4500	69.3751
 2.4490	69.3894
 2.4480	69.3294
 2.4470	69.4787
 2.4460	69.4292
 2.4450	69.5199
 2.4440	69.5566
 2.4430	69.5146
 2.4420	69.5697
 2.4410	69.6906
 2.4400	69.6153
 2.4390	69.7708
 2.4380	69.7055
 2.4370	69.8473
 2.4360	69.8090
 2.4350	69.8685
 2.4340	69.8503
 2.4330	69.9247
 2.4320	70.0193
 2.4310	69.9703
 2.4300	69.9626
 2.4290	70.0961
 2.4280	70.1254
 2.4270	70.1770
 2.4260	70.2394
 2.4250	70.3028
 2.4240	70.3301
 2.4230	70.4232
 2.4220	70.5418
 2.4210	70.5483
 2.4200	70.5404
 2.4190	70.5506
 2.4180	70.5696
 2.4170	70.6712
 2.4160	70.5990
 2.4150	70.6617
 2.4140	70.7430
 2.4130	70.8888
 2.4120	70.9448
 2.4110	70.9144
 2.4100	70.9565
 2.4090	71.0138
 2.4080	71.0699
 2.4070	71.0432
 2.4060	71.0379
 2.4050	71.1087
 2.4040	71.1488
 2.4030	71.1392
 2.4020	71.1909
 2.4010	71.1473
 2.4000	71.1890
 2.3990	71.2504
 2.3980	71.1888
 2.3970	71.2872
 2.3960	71.3478
 2.3950	71.3378
 2.3940	71.3248
 2.3930	71.3687
 2.3920	71.3943
 2.3910	71.3766
 2.3900	71.3659
 2.3890	71.4373
 2.3880	71.4891
 2.3870	71.4712
 2.3860	71.4563
 2.3850	71.4784
 2.3840	71.4542
 2.3830	71.5235
 2.3820	71.5936
 2.3810	71.5903
 2.3800	71.5807
 2.3790	71.6082
 2.3780	71.7286
 2.3770	71.7917
 2.3760	71.7261
 2.3750	71.7560
 2.3740	71.8339
 2.3730	71.8236
 2.3720	71.8431
 2.3710	71.9462
 2.3700	71.9501
 2.3690	71.9017
 2.3680	71.9025
 2.3670	72.0014
 2.3660	72.0100
 2.3650	72.0045
 2.3640	72.0690
 2.3630	72.0958
 2.3620	72.1260
 2.3610	72.0726
 2.3600	72.0427
 2.3590	72.1028
 2.3580	72.1609
 2.3570	72.1893
 2.3560	72.1639
 2.3550	72.1441
 2.3540	72.2046
 2.3530	72.2400
 2.3520	72.1792
 2.3510	72.1973
 2.3500	72.2533
 2.3490	72.2115
 2.3480	72.2302
 2.3470	72.3001
 2.3460	72.3748
 2.3450	72.4065
 2.3440	72.3965
 2.3430	72.3447
 2.3420	72.3480
 2.3410	72.4191
 2.3400	72.4691
 2.3390	72.4676
 2.3380	72.5330
 2.3370	72.6030
 2.3360	72.5502
 2.3350	72.5567
 2.3340	72.5728
 2.3330	72.5659
 2.3320	72.5594
 2.3310	72.6280
 2.3300	72.7167
 2.3290	72.7288
 2.3280	72.6894
 2.3270	72.7054
 2.3260	72.7175
 2.3250	72.7014
 2.3240	72.8051
 2.3230	72.7661
 2.3220	72.7927
 2.3210	72.7777
 2.3200	72.8319
 2.3190	72.8364
 2.3180	72.8260
 2.3170	72.8611
 2.3160	72.9387
 2.3150	72.9580
 2.3140	73.0109
 2.3130	73.0774
 2.3120	73.0435
 2.3110	72.9515
 2.3100	72.9963
 2.3090	73.0972
 2.3080	73.1094
 2.3070	73.0810
 2.3060	73.1491
 2.3050	73.1920
 2.3040	73.2197
 2.3030	73.2848
 2.3020	73.2633
 2.3010	73.2769
 2.3000	73.3551
 2.2990	73.3683
 2.2980	73.4276
 2.2970	73.4333
 2.2960	73.4293
 2.2950	73.4339
 2.2940	73.5253
 2.2930	73.5076
 2.2920	73.4368
 2.2910	73.5390
 2.2900	73.6212
 2.2890	73.6269
 2.2880	73.5491
 2.2870	73.5961
 2.2860	73.5927
 2.2850	73.6018
 2.2840	73.6377
 2.2830	73.6449
 2.2820	73.7547
 2.2810	73.6914
 2.2800	73.7127
 2.2790	73.6645
 2.2780	73.7796
 2.2770	73.7557
 2.2760	73.7831
 2.2750	73.7609
 2.2740	73.7622
 2.2730	73.7715
 2.2720	73.7999
 2.2710	73.8004
 2.2700	73.8025
 2.2690	73.7036
 2.2680	73.8546
 2.2670	73.8141
 2.2660	73.7741
 2.2650	73.8311
 2.2640	73.7952
 2.2630	73.7818
 2.2620	73.7518
 2.2610	73.6957
 2.2600	73.7726
 2.2590	73.8015
 2.2580	73.8185
 2.2570	73.8464
 2.2560	73.8053
 2.2550	73.7901
 2.2540	73.7994
 2.2530	73.7913
 2.2520	73.7366
 2.2510	73.7628
 2.2500	73.8759
 2.2490	73.7087
 2.2480	73.8205
 2.2470	73.7385
 2.2460	73.8305
 2.2450	73.7971
 2.2440	73.7908
 2.2430	73.7300
 2.2420	73.6734
 2.2410	73.7385
 2.2400	73.7851
 2.2390	73.7590
 2.2380	73.6664
 2.2370	73.6086
 2.2360	73.6461
 2.2350	73.7068
 2.2340	73.7190
 2.2330	73.5913
 2.2320	73.6387
 2.2310	73.5712
 2.2300	73.6562
 2.2290	73.5744
 2.2280	73.5178
 2.2270	73.3968
 2.2260	73.4141
 2.2250	73.2304
 2.2240	73.3110
 2.2230	73.2374
 2.2220	73.1498
 2.2210	73.0745
 2.2200	72.9594
 2.2190	72.8245
 2.2180	72.8242
 2.2170	72.6213
 2.2160	72.5288
 2.2150	72.3834
 2.2140	72.2390
 2.2130	72.1232
 2.2120	72.0202
 2.2110	71.8084
 2.2100	71.9548
 2.2090	71.7838
 2.2080	71.7584
 2.2070	71.7019
 2.2060	71.7026
 2.2050	71.7719
 2.2040	71.8388
 2.2030	71.9373
 2.2020	71.9966
 2.2010	72.0605
 2.2000	72.2147
 2.1990	72.2065
 2.1980	72.3934
 2.1970	72.3272
 2.1960	72.5685
 2.1950	72.4293
 2.1940	72.6943
 2.1930	72.6075
 2.1920	72.7184
 2.1910	72.7933
 2.1900	72.8507
 2.1890	72.8643
 2.1880	72.8937
 2.1870	72.9161
 2.1860	73.0635
 2.1850	73.1637
 2.1840	73.1751
 2.1830	73.2315
 2.1820	73.2946
 2.1810	73.3780
 2.1800	73.4066
 2.1790	73.4581
 2.1780	73.5713
 2.1770	73.5449
 2.1760	73.6624
 2.1750	73.6597
 2.1740	73.7101
 2.1730	73.9177
 2.1720	73.8911
 2.1710	73.8771
 2.1700	74.0272
 2.1690	73.9682
 2.1680	74.1059
 2.1670	74.0539
 2.1660	74.1496
 2.1650	74.1297
 2.1640	74.2951
 2.1630	74.3268
 2.1620	74.4752
 2.1610	74.4458
 2.1600	74.5957
 2.1590	74.6176
 2.1580	74.6775
 2.1570	74.7983
 2.1560	74.8630
 2.1550	74.8272
 2.1540	74.9445
 2.1530	74.9965
 2.1520	75.1009
 2.1510	75.1838
 2.1500	75.2583
 2.1490	75.2638
 2.1480	75.3331
 2.1470	75.3236
 2.1460	75.4554
 2.1450	75.4759
 2.1440	75.4708
 2.1430	75.4482
 2.1420	75.5153
 2.1410	75.6269
 2.1400	75.6774
 2.1390	75.6538
 2.1380	75.6143
 2.1370	75.6179
 2.1360	75.6664
 2.1350	75.6984
 2.1340	75.7356
 2.1330	75.6787
 2.1320	75.6294
 2.1310	75.6099
 2.1300	75.6191
 2.1290	75.5743
 2.1280	75.5460
 2.1270	75.5439
 2.1260	75.5368
 2.1250	75.4826
 2.1240	75.4190
 2.1230	75.3405
 2.1220	75.3368
 2.1210	75.2890
 2.1200	75.2594
 2.1190	75.2181
 2.1180	75.1719
 2.1170	75.0584
 2.1160	74.9841
 2.1150	74.9461
 2.1140	74.9821
 2.1130	74.9735
 2.1120	74.9499
 2.1110	74.8854
 2.1100	74.7736
 2.1090	74.7742
 2.1080	74.7505
 2.1070	74.7123
 2.1060	74.7427
 2.1050	74.6053
 2.1040	74.5769
 2.1030	74.6129
 2.1020	74.6110
 2.1010	74.5623
 2.1000	74.4857
 2.0990	74.4998
 2.0980	74.5153
 2.0970	74.5247
 2.0960	74.4789
 2.0950	74.4463
 2.0940	74.5132
 2.0930	74.5116
 2.0920	74.5417
 2.0910	74.5876
 2.0900	74.6579
 2.0890	74.6242
 2.0880	74.5766
 2.0870	74.5881
 2.0860	74.5784
 2.0850	74.5650
 2.0840	74.6473
 2.0830	74.6730
 2.0820	74.6877
 2.0810	74.7013
 2.0800	74.6974
 2.0790	74.6914
 2.0780	74.7107
 2.0770	74.7085
 2.0760	74.7035
 2.0750	74.7310
 2.0740	74.7492
 2.0730	74.6956
 2.0720	74.6632
 2.0710	74.7137
 2.0700	74.7108
 2.0690	74.7357
 2.0680	74.7862
 2.0670	74.7335
 2.0660	74.7520
 2.0650	74.8441
 2.0640	74.8533
 2.0630	74.8131
 2.0620	74.8057
 2.0610	74.7953
 2.0600	74.7705
 2.0590	74.7694
 2.0580	74.8300
 2.0570	74.8485
 2.0560	74.8082
 2.0550	74.7868
 2.0540	74.8115
 2.0530	74.8710
 2.0520	74.9069
 2.0510	74.9164
 2.0500	74.9061
 2.0490	74.8986
 2.0480	74.8805
 2.0470	74.9196
 2.0460	74.9327
 2.0450	74.9281
 2.0440	74.9457
 2.0430	74.9563
 2.0420	74.9326
 2.0410	74.8993
 2.0400	74.8673
 2.0390	74.9005
 2.0380	74.8880
 2.0370	74.9047
 2.0360	74.9683
 2.0350	74.8969
 2.0340	74.8486
 2.0330	74.8880
 2.0320	74.9081
 2.0310	74.8603
 2.0300	74.8280
 2.0290	74.8801
 2.0280	74.8846
 2.0270	74.8570
 2.0260	74.8800
 2.0250	74.8822
 2.0240	74.8363
 2.0230	74.8753
 2.0220	74.8603
 2.0210	74.8015
 2.0200	74.7994
 2.0190	74.8415
 2.0180	74.7899
 2.0170	74.7284
 2.0160	74.6962
 2.0150	74.7773
 2.0140	74.7678
 2.0130	74.7642
 2.0120	74.7108
 2.0110	74.6626
 2.0100	74.6468
 2.0090	74.7005
 2.0080	74.7134
 2.0070	74.6618
 2.0060	74.5717
 2.0050	74.5732
 2.0040	74.6190
 2.0030	74.6583
 2.0020	74.6386
 2.0010	74.6537
 2.0000	74.5316
 1.9990	74.5630
 1.9980	74.5614
 1.9970	74.5288
 1.9960	74.3876
 1.9950	74.4342
 1.9940	74.4079
 1.9930	74.3870
 1.9920	74.3224
 1.9910	74.3608
 1.9900	74.2430
 1.9890	74.3358
 1.9880	74.2328
 1.9870	74.2617
 1.9860	74.1710
 1.9850	74.1499
 1.9840	74.0730
 1.9830	74.1026
 1.9820	73.9767
 1.9810	73.9956
 1.9800	74.0109
 1.9790	73.9879
 1.9780	73.9669
 1.9770	73.9621
 1.9760	73.9392
 1.9750	73.9671
 1.9740	73.8695
 1.9730	73.9267
 1.9720	73.8307
 1.9710	73.8702
 1.9700	73.8345
 1.9690	73.7121
 1.9680	73.7305
 1.9670	73.7584
 1.9660	73.7542
 1.9650	73.7655
 1.9640	73.6216
 1.9630	73.6432
 1.9620	73.6443
 1.9610	73.6339
 1.9600	73.5730
 1.9590	73.6318
 1.9580	73.5376
 1.9570	73.5298
 1.9560	73.5181
 1.9550	73.6186
 1.9540	73.5369
 1.9530	73.5380
 1.9520	73.5075
 1.9510	73.5213
 1.9500	73.4617
 1.9490	73.4509
 1.9480	73.3129
 1.9470	73.4100
 1.9460	73.4187
 1.9450	73.3803
 1.9440	73.2972
 1.9430	73.3779
 1.9420	73.3345
 1.9410	73.4349
 1.9400	73.2857
 1.9390	73.3379
 1.9380	73.3004
 1.9370	73.3172
 1.9360	73.1889
 1.9350	73.2698
 1.9340	73.2111
 1.9330	73.2830
 1.9320	73.2196
 1.9310	73.2891
 1.9300	73.1604
 1.9290	73.1957
 1.9280	73.1061
 1.9270	73.1615
 1.9260	73.0084
 1.9250	73.1885
 1.9240	73.0647
 1.9230	73.0326
 1.9220	72.9701
 1.9210	72.9974
 1.9200	72.9764
 1.9190	72.9673
 1.9180	72.9600
 1.9170	72.9389
 1.9160	72.8842
 1.9150	72.9765
 1.9140	72.9324
 1.9130	73.0568
 1.9120	72.9147
 1.9110	72.9245
 1.9100	72.9823
 1.9090	72.9659
 1.9080	73.1296
 1.9070	73.2186
 1.9060	73.1653
 1.9050	73.2758
 1.9040	73.3875
 1.9030	73.6099
 1.9020	73.5920
 1.9010	73.7401
 1.9000	73.8869
 1.8990	73.9999
 1.8980	74.1550
 1.8970	74.2212
 1.8960	74.3030
 1.8950	74.4563
 1.8940	74.4953
 1.8930	74.6557
 1.8920	74.7848
 1.8910	74.8176
 1.8900	75.0296
 1.8890	75.0828
 1.8880	75.0025
 1.8870	75.2190
 1.8860	75.2419
 1.8850	75.2631
 1.8840	75.2255
 1.8830	75.4305
 1.8820	75.4472
 1.8810	75.4745
 1.8800	75.5118
 1.8790	75.5698
 1.8780	75.5313
 1.8770	75.5970
 1.8760	75.6780
 1.8750	75.7334
 1.8740	75.7346
 1.8730	75.8090
 1.8720	75.8995
 1.8710	75.9324
 1.8700	75.8747
 1.8690	75.9362
 1.8680	75.9319
 1.8670	75.9918
 1.8660	75.9928
 1.8650	75.9871
 1.8640	75.9948
 1.8630	76.0077
 1.8620	75.9207
 1.8610	75.9040
 1.8600	75.9048
 1.8590	75.9446
 1.8580	75.9514
 1.8570	75.9707
 1.8560	75.9735
 1.8550	75.9127
 1.8540	75.9331
 1.8530	75.9432
 1.8520	75.9784
 1.8510	75.9817
 1.8500	75.9200
 1.8490	75.9765
 1.8480	75.9755
 1.8470	75.9301
 1.8460	75.9833
 1.8450	75.9777
 1.8440	75.9298
 1.8430	75.9810
 1.8420	75.9706
 1.8410	76.0081
 1.8400	75.9052
 1.8390	75.9535
 1.8380	76.0342
 1.8370	76.0247
 1.8360	75.9611
 1.8350	75.9647
 1.8340	75.9376
 1.8330	75.9514
 1.8320	75.9764
 1.8310	75.9580
 1.8300	75.9173
 1.8290	75.9112
 1.8280	75.9219
 1.8270	75.9308
 1.8260	75.9394
 1.8250	75.9511
 1.8240	75.9399
 1.8230	75.9237
 1.8220	75.9558
 1.8210	75.9343
 1.8200	75.9165
 1.8190	75.9564
 1.8180	75.9879
 1.8170	76.0089
 1.8160	75.9832
 1.8150	76.0136
 1.8140	75.9613
 1.8130	75.9240
 1.8120	75.9250
 1.8110	75.9515
 1.8100	75.9057
 1.8090	75.8928
 1.8080	75.9519
 1.8070	75.9586
 1.8060	75.9433
 1.8050	75.8859
 1.8040	75.8861
 1.8030	75.9387
 1.8020	75.9344
 1.8010	75.9850
 1.8000	75.9586
 1.7990	75.9415
 1.7980	75.9347
 1.7970	75.8929
 1.7960	75.9121
 1.7950	75.9634
 1.7940	75.9347
 1.7930	75.9010
 1.7920	75.9345
 1.7910	75.9249
 1.7900	75.9354
 1.7890	75.9381
 1.7880	75.8931
 1.7870	75.8576
 1.7860	75.8459
 1.7850	75.8328
 1.7840	75.8529
 1.7830	75.8590
 1.7820	75.8133
 1.7810	75.8221
 1.7800	75.8786
 1.7790	75.8409
 1.7780	75.8512
 1.7770	75.9087
 1.7760	75.8514
 1.7750	75.8397
 1.7740	75.8464
 1.7730	75.8490
 1.7720	75.8818
 1.7710	75.8203
 1.7700	75.7838
 1.7690	75.8581
 1.7680	75.8685
 1.7670	75.8372
 1.7660	75.8403
 1.7650	75.8307
 1.7640	75.8203
 1.7630	75.8343
 1.7620	75.8451
 1.7610	75.8298
 1.7600	75.8434
 1.7590	75.8575
 1.7580	75.8423
 1.7570	75.8272
 1.7560	75.8263
 1.7550	75.8569
 1.7540	75.8927
 1.7530	75.8800
 1.7520	75.8556
 1.7510	75.9192
 1.7500	75.9092
 1.7490	75.8383
 1.7480	75.8819
 1.7470	75.8718
 1.7460	75.8580
 1.7450	75.8372
 1.7440	75.8566
 1.7430	75.8613
 1.7420	75.9036
 1.7410	75.8603
 1.7400	75.9183
 1.7390	75.9170
 1.7380	75.8768
 1.7370	75.8673
 1.7360	75.8919
 1.7350	75.8948
 1.7340	75.9397
 1.7330	75.9258
 1.7320	75.9113
 1.7310	75.8806
 1.7300	75.8652
 1.7290	75.8392
 1.7280	75.9083
 1.7270	75.8833
 1.7260	75.9040
 1.7250	75.9016
 1.7240	75.8326
 1.7230	75.9304
 1.7220	75.9932
 1.7210	75.9224
 1.7200	75.8747
 1.7190	75.8792
 1.7180	75.8731
 1.7170	75.8406
 1.7160	75.9481
 1.7150	75.9385
 1.7140	75.8805
 1.7130	75.8085
 1.7120	75.8387
 1.7110	75.9099
 1.7100	75.9034
 1.7090	75.9115
 1.7080	75.8661
 1.7070	75.8915
 1.7060	75.9110
 1.7050	75.8676
 1.7040	75.8868
 1.7030	75.8269
 1.7020	75.8188
 1.7010	75.7847
 1.7000	75.8249
 1.6990	75.8301
 1.6980	75.8131
 1.6970	75.8236
 1.6960	75.8041
 1.6950	75.7726
 1.6940	75.8640
 1.6930	75.7881
 1.6920	75.8013
 1.6910	75.7774
 1.6900	75.8896
 1.6890	75.7947
 1.6880	75.7563
 1.6870	75.8204
 1.6860	75.8871
 1.6850	75.8706
 1.6840	75.8316
 1.6830	75.7721
 1.6820	75.8174
 1.6810	75.8700
 1.6800	75.8114
 1.6790	75.8095
 1.6780	75.8479
 1.6770	75.7841
 1.6760	75.9430
 1.6750	75.7746
 1.6740	75.7596
 1.6730	75.8512
 1.6720	75.7914
 1.6710	75.7842
 1.6700	75.8096
 1.6690	75.8230
 1.6680	75.8302
 1.6670	75.7899
 1.6660	75.7452
 1.6650	75.7713
 1.6640	75.8188
 1.6630	75.8820
 1.6620	75.7156
 1.6610	75.7251
 1.6600	75.8020
 1.6590	75.7948
 1.6580	75.7992
 1.6570	75.8113
 1.6560	75.8282
 1.6550	75.8516
 1.6540	75.7789
 1.6530	75.7611
 1.6520	75.8266
 1.6510	75.7846
 1.6500	75.7492
 1.6490	75.7642
 1.6480	75.7669
 1.6470	75.6877
 1.6460	75.7470
 1.6450	75.7081
 1.6440	75.8694
 1.6430	75.8330
 1.6420	75.6591
 1.6410	75.7210
 1.6400	75.8211
 1.6390	75.7248
 1.6380	75.7192
 1.6370	75.7233
 1.6360	75.7334
 1.6350	75.7285
 1.6340	75.7668
 1.6330	75.7966
 1.6320	75.7051
 1.6310	75.7699
 1.6300	75.6431
 1.6290	75.7210
 1.6280	75.7714
 1.6270	75.6967
 1.6260	75.7344
 1.6250	75.7708
 1.6240	75.6828
 1.6230	75.6604
 1.6220	75.7316
 1.6210	75.6615
 1.6200	75.6074
 1.6190	75.6389
 1.6180	75.7009
 1.6170	75.6694
 1.6160	75.7461
 1.6150	75.6704
 1.6140	75.7039
 1.6130	75.6981
 1.6120	75.6316
 1.6110	75.6068
 1.6100	75.7278
 1.6090	75.7073
 1.6080	75.6922
 1.6070	75.6591
 1.6060	75.6667
 1.6050	75.6383
 1.6040	75.7450
 1.6030	75.6878
 1.6020	75.6913
 1.6010	75.6923
 1.6000	75.6901
 1.5990	75.5840
 1.5980	75.7101
 1.5970	75.6540
 1.5960	75.6927
 1.5950	75.7180
 1.5940	75.6721
 1.5930	75.5899
 1.5920	75.6508
 1.5910	75.6027
 1.5900	75.6249
 1.5890	75.6026
 1.5880	75.6008
 1.5870	75.5794
 1.5860	75.6155
 1.5850	75.6064
 1.5840	75.5419
 1.5830	75.5335
 1.5820	75.6081
 1.5810	75.5628
 1.5800	75.6327
 1.5790	75.6294
 1.5780	75.5488
 1.5770	75.5713
 1.5760	75.5577
 1.5750	75.5229
 1.5740	75.5635
 1.5730	75.5334
 1.5720	75.5174
 1.5710	75.5507
 1.5700	75.5686
 1.5690	75.5341
 1.5680	75.5000
 1.5670	75.5239
 1.5660	75.5135
 1.5650	75.4868
 1.5640	75.4725
 1.5630	75.4904
 1.5620	75.5884
 1.5610	75.4919
 1.5600	75.4735
 1.5590	75.4598
 1.5580	75.5621
 1.5570	75.5091
 1.5560	75.5172
 1.5550	75.4809
 1.5540	75.4308
 1.5530	75.4145
 1.5520	75.4765
 1.5510	75.4589
 1.5500	75.4370
 1.5490	75.4072
 1.5480	75.4267
 1.5470	75.4300
 1.5460	75.4261
 1.5450	75.3878
 1.5440	75.3496
 1.5430	75.4162
 1.5420	75.4225
 1.5410	75.3654
 1.5400	75.3613
 1.5390	75.3740
 1.5380	75.3988
 1.5370	75.3629
 1.5360	75.3385
 1.5350	75.3011
 1.5340	75.3484
 1.5330	75.2974
 1.5320	75.2880
 1.5310	75.3451
 1.5300	75.3736
 1.5290	75.3572
 1.5280	75.3297
 1.5270	75.2961
 1.5260	75.3352
 1.5250	75.2651
 1.5240	75.3004
 1.5230	75.3204
 1.5220	75.2985
 1.5210	75.2226
 1.5200	75.1569
 1.5190	75.1944
 1.5180	75.2864
 1.5170	75.2757
 1.5160	75.2497
 1.5150	75.2412
 1.5140	75.1978
 1.5130	75.2211
 1.5120	75.2235
 1.5110	75.1846
 1.5100	75.1549
 1.5090	75.2003
 1.5080	75.2463
 1.5070	75.1978
 1.5060	75.1941
 1.5050	75.1512
 1.5040	75.0953
 1.5030	75.1047
 1.5020	75.1276
 1.5010	75.1574
 1.5000	75.1400
 1.4990	75.1236
 1.4980	75.0754
 1.4970	75.0694
 1.4960	75.0861
 1.4950	75.1025
 1.4940	75.0701
 1.4930	75.0627
 1.4920	75.0828
 1.4910	75.0611
 1.4900	75.0291
 1.4890	74.9595
 1.4880	74.9704
 1.4870	74.9550
 1.4860	74.9834
 1.4850	74.9467
 1.4840	74.9154
 1.4830	74.9856
 1.4820	74.9648
 1.4810	74.9267
 1.4800	74.9639
 1.4790	74.9337
 1.4780	74.8564
 1.4770	74.8854
 1.4760	74.8733
 1.4750	74.9001
 1.4740	74.9420
 1.4730	74.9098
 1.4720	74.8421
 1.4710	74.8820
 1.4700	74.8555
 1.4690	74.8546
 1.4680	74.8625
 1.4670	74.8762
 1.4660	74.8403
 1.4650	74.7649
 1.4640	74.7007
 1.4630	74.7039
 1.4620	74.6804
 1.4610	74.7624
 1.4600	74.7243
 1.4590	74.7233
 1.4580	74.7355
 1.4570	74.7975
 1.4560	74.7125
 1.4550	74.7594
 1.4540	74.6927
 1.4530	74.6880
 1.4520	74.6176
 1.4510	74.6891
 1.4500	74.6637
 1.4490	74.7135
 1.4480	74.7321
 1.4470	74.7105
 1.4460	74.6754
 1.4450	74.6808
 1.4440	74.6319
 1.4430	74.6492
 1.4420	74.6213
 1.4410	74.5929
 1.4400	74.5090
 1.4390	74.5362
 1.4380	74.5360
 1.4370	74.5018
 1.4360	74.4568
 1.4350	74.4226
 1.4340	74.3973
 1.4330	74.4621
 1.4320	74.3493
 1.4310	74.4293
 1.4300	74.3134
 1.4290	74.2672
 1.4280	74.2442
 1.4270	74.0795
 1.4260	74.0485
 1.4250	74.0350
 1.4240	74.0118
 1.4230	73.9585
 1.4220	73.8626
 1.4210	73.7690
 1.4200	73.6190
 1.4190	73.3339
 1.4180	73.0405
 1.4170	72.8303
 1.4160	72.7035
 1.4150	72.7890
 1.4140	72.8885
 1.4130	73.0403
 1.4120	73.1428
 1.4110	73.2904
 1.4100	73.3476
 1.4090	73.3247
 1.4080	73.3059
 1.4070	73.4437
 1.4060	73.3400
 1.4050	73.3584
 1.4040	73.4682
 1.4030	73.5861
 1.4020	73.5735
 1.4010	73.5978
 1.4000	73.6089
 1.3990	73.6833
 1.3980	73.6620
 1.3970	73.7605
 1.3960	73.7658
 1.3950	73.9060
 1.3940	73.8494
 1.3930	74.0769
 1.3920	74.1398
 1.3910	74.1502
 1.3900	74.3014
 1.3890	74.3282
 1.3880	74.4258
 1.3870	74.4629
 1.3860	74.5130
 1.3850	74.6271
 1.3840	74.5461
 1.3830	74.6397
 1.3820	74.7223
 1.3810	74.6377
 1.3800	74.7063
 1.3790	74.7410
 1.3780	74.7592
 1.3770	74.7711
 1.3760	74.7482
 1.3750	74.7783
 1.3740	74.7669
 1.3730	74.8527
 1.3720	74.7490
 1.3710	74.9229
 1.3700	74.8305
 1.3690	74.7276
 1.3680	74.8395
 1.3670	74.8159
 1.3660	74.8073
