Name: Grossular Garnet Ca_3Al_2(SiO_4)_3
Type: Mineral
Class: Silicate
Subclass: Nesosilicate
Particle Size: Coarse
Sample No.: NS-3B
Owner: JPL
Wavelength Range: VSWIR
Origin: Mexico, Lake Jaco.
Collection Date: N/A
Description: Particle size was 125-500um.Collected by:  David New Original ASTER Spectral Library name was jpl.perkin.mineral.silicate.nesosilicate.coarse.ns03b.spectrum.txt
Measurement: Hemispherical reflectance
First Column: X
Second Column: Y
X Units: Wavelength (micrometers)
Y Units:Reflectance (percent)
First X Value:  2.5000
Last X Value:  0.4000
Number of X Values: 2101
Additional Information: mineral.silicate.nesosilicate.coarse.vswir.ns-3b.jpl.perkin.ancillary.txt

 2.5000	59.6882
 2.4990	59.5847
 2.4980	59.5336
 2.4970	59.6054
 2.4960	59.5349
 2.4950	59.7159
 2.4940	59.8070
 2.4930	59.7713
 2.4920	60.0271
 2.4910	59.8190
 2.4900	60.0272
 2.4890	59.9859
 2.4880	60.1031
 2.4870	60.0317
 2.4860	60.0796
 2.4850	60.2352
 2.4840	60.2173
 2.4830	60.1835
 2.4820	60.4433
 2.4810	60.3481
 2.4800	60.4409
 2.4790	60.4168
 2.4780	60.3882
 2.4770	60.4607
 2.4760	60.4739
 2.4750	60.4034
 2.4740	60.6626
 2.4730	60.5573
 2.4720	60.7398
 2.4710	60.6653
 2.4700	60.7300
 2.4690	60.7786
 2.4680	61.0095
 2.4670	60.8898
 2.4660	60.9797
 2.4650	61.0282
 2.4640	61.0192
 2.4630	61.0627
 2.4620	61.1709
 2.4610	61.1504
 2.4600	61.2500
 2.4590	61.1507
 2.4580	61.2398
 2.4570	61.3075
 2.4560	61.3956
 2.4550	61.2944
 2.4540	61.4311
 2.4530	61.4385
 2.4520	61.4177
 2.4510	61.5129
 2.4500	61.6109
 2.4490	61.6138
 2.4480	61.6263
 2.4470	61.6482
 2.4460	61.7469
 2.4450	61.7696
 2.4440	61.8358
 2.4430	61.8922
 2.4420	61.9035
 2.4410	61.9122
 2.4400	61.8348
 2.4390	61.8873
 2.4380	62.0320
 2.4370	61.9381
 2.4360	62.0193
 2.4350	62.0147
 2.4340	62.1885
 2.4330	62.1602
 2.4320	62.2195
 2.4310	62.2057
 2.4300	62.2079
 2.4290	62.2038
 2.4280	62.2935
 2.4270	62.3294
 2.4260	62.3475
 2.4250	62.3474
 2.4240	62.4278
 2.4230	62.4893
 2.4220	62.5329
 2.4210	62.5090
 2.4200	62.5670
 2.4190	62.5526
 2.4180	62.5574
 2.4170	62.6557
 2.4160	62.6513
 2.4150	62.6257
 2.4140	62.6195
 2.4130	62.6628
 2.4120	62.7226
 2.4110	62.7227
 2.4100	62.7938
 2.4090	62.7845
 2.4080	62.8554
 2.4070	62.9055
 2.4060	62.8818
 2.4050	62.8781
 2.4040	62.8897
 2.4030	62.8781
 2.4020	62.9038
 2.4010	63.0084
 2.4000	63.0424
 2.3990	63.0390
 2.3980	62.9887
 2.3970	63.0303
 2.3960	63.1511
 2.3950	63.0747
 2.3940	63.1424
 2.3930	63.1356
 2.3920	63.2023
 2.3910	63.2555
 2.3900	63.2938
 2.3890	63.3186
 2.3880	63.3415
 2.3870	63.3267
 2.3860	63.2946
 2.3850	63.3126
 2.3840	63.3565
 2.3830	63.3959
 2.3820	63.4145
 2.3810	63.4291
 2.3800	63.4081
 2.3790	63.4076
 2.3780	63.3991
 2.3770	63.4195
 2.3760	63.5319
 2.3750	63.5371
 2.3740	63.5465
 2.3730	63.5566
 2.3720	63.5631
 2.3710	63.6103
 2.3700	63.6617
 2.3690	63.6645
 2.3680	63.6629
 2.3670	63.6747
 2.3660	63.7469
 2.3650	63.7613
 2.3640	63.7995
 2.3630	63.8528
 2.3620	63.8236
 2.3610	63.8264
 2.3600	63.8186
 2.3590	63.9059
 2.3580	63.9792
 2.3570	63.9562
 2.3560	63.9776
 2.3550	64.0478
 2.3540	64.0650
 2.3530	64.0712
 2.3520	64.1014
 2.3510	64.1272
 2.3500	64.1579
 2.3490	64.2091
 2.3480	64.2692
 2.3470	64.3191
 2.3460	64.3715
 2.3450	64.3984
 2.3440	64.3961
 2.3430	64.4281
 2.3420	64.4550
 2.3410	64.4773
 2.3400	64.4886
 2.3390	64.5677
 2.3380	64.6445
 2.3370	64.6699
 2.3360	64.6858
 2.3350	64.7141
 2.3340	64.7836
 2.3330	64.8102
 2.3320	64.8625
 2.3310	64.9311
 2.3300	64.9221
 2.3290	64.9568
 2.3280	64.9828
 2.3270	65.0134
 2.3260	65.0011
 2.3250	65.0615
 2.3240	65.1056
 2.3230	65.1575
 2.3220	65.1672
 2.3210	65.2239
 2.3200	65.2816
 2.3190	65.3378
 2.3180	65.3261
 2.3170	65.3418
 2.3160	65.3566
 2.3150	65.4422
 2.3140	65.4880
 2.3130	65.4947
 2.3120	65.5062
 2.3110	65.5618
 2.3100	65.5603
 2.3090	65.6432
 2.3080	65.6414
 2.3070	65.6625
 2.3060	65.6824
 2.3050	65.7028
 2.3040	65.7313
 2.3030	65.8024
 2.3020	65.8189
 2.3010	65.8501
 2.3000	65.9063
 2.2990	65.9432
 2.2980	65.9589
 2.2970	66.0076
 2.2960	66.0282
 2.2950	66.0423
 2.2940	66.1035
 2.2930	66.1193
 2.2920	66.1702
 2.2910	66.2296
 2.2900	66.2233
 2.2890	66.2481
 2.2880	66.2921
 2.2870	66.3167
 2.2860	66.2776
 2.2850	66.3080
 2.2840	66.2851
 2.2830	66.4064
 2.2820	66.3905
 2.2810	66.3893
 2.2800	66.4319
 2.2790	66.4859
 2.2780	66.4549
 2.2770	66.5062
 2.2760	66.5456
 2.2750	66.6174
 2.2740	66.5809
 2.2730	66.6544
 2.2720	66.5813
 2.2710	66.6934
 2.2700	66.6950
 2.2690	66.6427
 2.2680	66.6563
 2.2670	66.7265
 2.2660	66.7562
 2.2650	66.7922
 2.2640	66.8260
 2.2630	66.9146
 2.2620	66.8920
 2.2610	66.9177
 2.2600	66.9463
 2.2590	67.0150
 2.2580	67.0280
 2.2570	67.1141
 2.2560	67.1444
 2.2550	67.0958
 2.2540	67.1631
 2.2530	67.2325
 2.2520	67.2456
 2.2510	67.3192
 2.2500	67.2545
 2.2490	67.3015
 2.2480	67.4033
 2.2470	67.4147
 2.2460	67.5179
 2.2450	67.4952
 2.2440	67.4926
 2.2430	67.5928
 2.2420	67.5756
 2.2410	67.6231
 2.2400	67.6453
 2.2390	67.7364
 2.2380	67.8499
 2.2370	67.8611
 2.2360	67.7327
 2.2350	67.8223
 2.2340	67.8956
 2.2330	67.9570
 2.2320	67.9668
 2.2310	68.0376
 2.2300	68.0038
 2.2290	68.1141
 2.2280	68.0738
 2.2270	68.0900
 2.2260	68.1872
 2.2250	68.2905
 2.2240	68.1535
 2.2230	68.3084
 2.2220	68.3897
 2.2210	68.3928
 2.2200	68.3600
 2.2190	68.4348
 2.2180	68.4329
 2.2170	68.5170
 2.2160	68.5704
 2.2150	68.5929
 2.2140	68.6122
 2.2130	68.7143
 2.2120	68.7135
 2.2110	68.6987
 2.2100	68.7799
 2.2090	68.8333
 2.2080	68.7854
 2.2070	68.9144
 2.2060	68.9345
 2.2050	68.9679
 2.2040	69.0150
 2.2030	69.1097
 2.2020	69.0960
 2.2010	69.2610
 2.2000	69.1965
 2.1990	69.3345
 2.1980	69.2443
 2.1970	69.3774
 2.1960	69.3600
 2.1950	69.5181
 2.1940	69.3782
 2.1930	69.5028
 2.1920	69.4860
 2.1910	69.5802
 2.1900	69.6469
 2.1890	69.6746
 2.1880	69.7290
 2.1870	69.8102
 2.1860	69.8993
 2.1850	69.8851
 2.1840	69.9000
 2.1830	70.0516
 2.1820	70.0226
 2.1810	70.1489
 2.1800	70.1614
 2.1790	70.2985
 2.1780	70.2808
 2.1770	70.3296
 2.1760	70.4042
 2.1750	70.4259
 2.1740	70.4802
 2.1730	70.5680
 2.1720	70.6538
 2.1710	70.7196
 2.1700	70.7513
 2.1690	70.8224
 2.1680	70.8596
 2.1670	70.9578
 2.1660	70.9969
 2.1650	71.1309
 2.1640	71.1060
 2.1630	71.2652
 2.1620	71.3144
 2.1610	71.3767
 2.1600	71.4356
 2.1590	71.5124
 2.1580	71.5913
 2.1570	71.6633
 2.1560	71.6666
 2.1550	71.7368
 2.1540	71.7613
 2.1530	71.8273
 2.1520	71.9269
 2.1510	71.9776
 2.1500	71.9684
 2.1490	72.0626
 2.1480	72.0524
 2.1470	72.1236
 2.1460	72.1405
 2.1450	72.1828
 2.1440	72.2388
 2.1430	72.2853
 2.1420	72.2396
 2.1410	72.2219
 2.1400	72.3692
 2.1390	72.3540
 2.1380	72.3724
 2.1370	72.4897
 2.1360	72.4277
 2.1350	72.4140
 2.1340	72.4385
 2.1330	72.5326
 2.1320	72.4795
 2.1310	72.4959
 2.1300	72.4841
 2.1290	72.4940
 2.1280	72.5236
 2.1270	72.5276
 2.1260	72.5361
 2.1250	72.4996
 2.1240	72.5435
 2.1230	72.5079
 2.1220	72.5080
 2.1210	72.5198
 2.1200	72.5123
 2.1190	72.4925
 2.1180	72.5078
 2.1170	72.5307
 2.1160	72.5175
 2.1150	72.4806
 2.1140	72.4687
 2.1130	72.4916
 2.1120	72.4502
 2.1110	72.4206
 2.1100	72.4331
 2.1090	72.4361
 2.1080	72.3866
 2.1070	72.3608
 2.1060	72.3295
 2.1050	72.3489
 2.1040	72.3412
 2.1030	72.3766
 2.1020	72.3773
 2.1010	72.3511
 2.1000	72.3059
 2.0990	72.3571
 2.0980	72.3955
 2.0970	72.4688
 2.0960	72.5541
 2.0950	72.5678
 2.0940	72.5912
 2.0930	72.5955
 2.0920	72.6201
 2.0910	72.6768
 2.0900	72.6644
 2.0890	72.7457
 2.0880	72.8251
 2.0870	72.7698
 2.0860	72.8337
 2.0850	72.9269
 2.0840	72.9439
 2.0830	72.9103
 2.0820	72.9381
 2.0810	72.9964
 2.0800	73.0491
 2.0790	73.0964
 2.0780	73.1378
 2.0770	73.1858
 2.0760	73.1807
 2.0750	73.2326
 2.0740	73.2605
 2.0730	73.2718
 2.0720	73.3516
 2.0710	73.3716
 2.0700	73.3510
 2.0690	73.4273
 2.0680	73.5229
 2.0670	73.5452
 2.0660	73.5409
 2.0650	73.5717
 2.0640	73.6508
 2.0630	73.6604
 2.0620	73.6705
 2.0610	73.6786
 2.0600	73.6998
 2.0590	73.7736
 2.0580	73.8229
 2.0570	73.8370
 2.0560	73.8675
 2.0550	73.9278
 2.0540	73.9683
 2.0530	73.9399
 2.0520	73.9055
 2.0510	73.9453
 2.0500	74.0442
 2.0490	74.0771
 2.0480	74.1238
 2.0470	74.1327
 2.0460	74.1670
 2.0450	74.1889
 2.0440	74.1772
 2.0430	74.2014
 2.0420	74.2578
 2.0410	74.2672
 2.0400	74.3236
 2.0390	74.3281
 2.0380	74.3321
 2.0370	74.3588
 2.0360	74.4313
 2.0350	74.4447
 2.0340	74.4579
 2.0330	74.4645
 2.0320	74.5059
 2.0310	74.4829
 2.0300	74.4854
 2.0290	74.5121
 2.0280	74.5836
 2.0270	74.5648
 2.0260	74.6035
 2.0250	74.6733
 2.0240	74.6902
 2.0230	74.6532
 2.0220	74.6418
 2.0210	74.6771
 2.0200	74.7023
 2.0190	74.6236
 2.0180	74.7035
 2.0170	74.7052
 2.0160	74.7266
 2.0150	74.7506
 2.0140	74.8036
 2.0130	74.7992
 2.0120	74.7815
 2.0110	74.6873
 2.0100	74.7603
 2.0090	74.7872
 2.0080	74.8537
 2.0070	74.8370
 2.0060	74.7963
 2.0050	74.8545
 2.0040	74.8976
 2.0030	74.8548
 2.0020	74.9080
 2.0010	74.9496
 2.0000	74.9827
 1.9990	74.9676
 1.9980	74.9029
 1.9970	74.9561
 1.9960	74.9011
 1.9950	74.8872
 1.9940	74.9548
 1.9930	74.9628
 1.9920	74.9182
 1.9910	74.8963
 1.9900	74.9509
 1.9890	74.9042
 1.9880	74.9738
 1.9870	74.8935
 1.9860	74.9128
 1.9850	74.9141
 1.9840	75.0070
 1.9830	74.9988
 1.9820	74.9752
 1.9810	75.0019
 1.9800	74.9776
 1.9790	74.8661
 1.9780	74.8765
 1.9770	74.9201
 1.9760	75.0383
 1.9750	74.9750
 1.9740	75.0102
 1.9730	74.9401
 1.9720	75.0026
 1.9710	75.0258
 1.9700	75.0592
 1.9690	75.0633
 1.9680	75.0821
 1.9670	75.0558
 1.9660	75.1126
 1.9650	75.0133
 1.9640	75.1136
 1.9630	75.1138
 1.9620	75.1364
 1.9610	75.0377
 1.9600	75.0802
 1.9590	75.1537
 1.9580	75.2191
 1.9570	75.1222
 1.9560	75.1821
 1.9550	75.1693
 1.9540	75.1770
 1.9530	75.1903
 1.9520	75.2562
 1.9510	75.2668
 1.9500	75.2341
 1.9490	75.2916
 1.9480	75.3431
 1.9470	75.3361
 1.9460	75.2885
 1.9450	75.3129
 1.9440	75.4030
 1.9430	75.3651
 1.9420	75.4069
 1.9410	75.2948
 1.9400	75.3958
 1.9390	75.3553
 1.9380	75.4202
 1.9370	75.4053
 1.9360	75.4678
 1.9350	75.4253
 1.9340	75.5239
 1.9330	75.4890
 1.9320	75.5584
 1.9310	75.5509
 1.9300	75.6431
 1.9290	75.4801
 1.9280	75.6305
 1.9270	75.5706
 1.9260	75.5924
 1.9250	75.5249
 1.9240	75.6627
 1.9230	75.5349
 1.9220	75.6535
 1.9210	75.6905
 1.9200	75.6542
 1.9190	75.6307
 1.9180	75.7872
 1.9170	75.7050
 1.9160	75.7092
 1.9150	75.7556
 1.9140	75.7970
 1.9130	75.8430
 1.9120	75.8901
 1.9110	75.9038
 1.9100	76.0128
 1.9090	76.0653
 1.9080	76.0534
 1.9070	76.1393
 1.9060	76.1560
 1.9050	76.2556
 1.9040	76.3038
 1.9030	76.3671
 1.9020	76.4450
 1.9010	76.5007
 1.9000	76.5603
 1.8990	76.6821
 1.8980	76.8110
 1.8970	76.8386
 1.8960	76.9391
 1.8950	77.0545
 1.8940	77.0901
 1.8930	77.1100
 1.8920	77.2151
 1.8910	77.2328
 1.8900	77.3616
 1.8890	77.4092
 1.8880	77.4624
 1.8870	77.4655
 1.8860	77.6207
 1.8850	77.6395
 1.8840	77.6411
 1.8830	77.6580
 1.8820	77.7819
 1.8810	77.7875
 1.8800	77.9198
 1.8790	77.9121
 1.8780	77.9745
 1.8770	77.9449
 1.8760	77.9736
 1.8750	78.0469
 1.8740	78.1001
 1.8730	78.0981
 1.8720	78.0742
 1.8710	78.1048
 1.8700	78.0953
 1.8690	78.1405
 1.8680	78.1808
 1.8670	78.1756
 1.8660	78.2870
 1.8650	78.3799
 1.8640	78.3935
 1.8630	78.3695
 1.8620	78.4137
 1.8610	78.3881
 1.8600	78.4243
 1.8590	78.4660
 1.8580	78.5031
 1.8570	78.5369
 1.8560	78.5495
 1.8550	78.5629
 1.8540	78.6501
 1.8530	78.6281
 1.8520	78.6232
 1.8510	78.6645
 1.8500	78.7388
 1.8490	78.8091
 1.8480	78.7901
 1.8470	78.7567
 1.8460	78.7451
 1.8450	78.7891
 1.8440	78.8009
 1.8430	78.8717
 1.8420	78.9259
 1.8410	78.9055
 1.8400	78.9462
 1.8390	78.9620
 1.8380	79.0004
 1.8370	79.0163
 1.8360	79.0412
 1.8350	78.9992
 1.8340	79.0351
 1.8330	79.0855
 1.8320	79.1512
 1.8310	79.1531
 1.8300	79.1542
 1.8290	79.1775
 1.8280	79.1646
 1.8270	79.1471
 1.8260	79.2084
 1.8250	79.2608
 1.8240	79.2911
 1.8230	79.3244
 1.8220	79.4076
 1.8210	79.3357
 1.8200	79.3708
 1.8190	79.3401
 1.8180	79.4002
 1.8170	79.4868
 1.8160	79.4479
 1.8150	79.4459
 1.8140	79.5770
 1.8130	79.5449
 1.8120	79.5025
 1.8110	79.5493
 1.8100	79.5679
 1.8090	79.6135
 1.8080	79.6571
 1.8070	79.6654
 1.8060	79.6619
 1.8050	79.6701
 1.8040	79.6911
 1.8030	79.7255
 1.8020	79.7644
 1.8010	79.7857
 1.8000	79.7500
 1.7990	79.7593
 1.7980	79.8273
 1.7970	79.8047
 1.7960	79.8120
 1.7950	79.8386
 1.7940	79.8345
 1.7930	79.8547
 1.7920	79.8729
 1.7910	79.9159
 1.7900	79.9177
 1.7890	79.8903
 1.7880	79.8930
 1.7870	79.9275
 1.7860	79.9569
 1.7850	79.9206
 1.7840	79.8928
 1.7830	79.9784
 1.7820	80.0260
 1.7810	79.9821
 1.7800	79.9762
 1.7790	80.0034
 1.7780	80.0265
 1.7770	80.0050
 1.7760	80.0057
 1.7750	80.0017
 1.7740	80.0287
 1.7730	80.1233
 1.7720	80.1515
 1.7710	80.1183
 1.7700	80.1136
 1.7690	80.1338
 1.7680	80.1147
 1.7670	80.1600
 1.7660	80.1968
 1.7650	80.1953
 1.7640	80.1924
 1.7630	80.2076
 1.7620	80.1958
 1.7610	80.1972
 1.7600	80.2111
 1.7590	80.2067
 1.7580	80.2521
 1.7570	80.3310
 1.7560	80.3340
 1.7550	80.3324
 1.7540	80.3372
 1.7530	80.3277
 1.7520	80.3225
 1.7510	80.3743
 1.7500	80.3262
 1.7490	80.3740
 1.7480	80.3869
 1.7470	80.4359
 1.7460	80.4205
 1.7450	80.4473
 1.7440	80.4833
 1.7430	80.5299
 1.7420	80.5227
 1.7410	80.5491
 1.7400	80.5735
 1.7390	80.6195
 1.7380	80.5797
 1.7370	80.5088
 1.7360	80.5550
 1.7350	80.6424
 1.7340	80.6499
 1.7330	80.6288
 1.7320	80.6687
 1.7310	80.7407
 1.7300	80.7205
 1.7290	80.7279
 1.7280	80.7227
 1.7270	80.7359
 1.7260	80.7674
 1.7250	80.7408
 1.7240	80.8355
 1.7230	80.8586
 1.7220	80.8208
 1.7210	80.8366
 1.7200	80.7960
 1.7190	80.8667
 1.7180	80.8595
 1.7170	80.8627
 1.7160	80.9289
 1.7150	80.9344
 1.7140	80.9019
 1.7130	80.9797
 1.7120	80.9850
 1.7110	80.9468
 1.7100	80.9243
 1.7090	80.9661
 1.7080	80.9656
 1.7070	80.9903
 1.7060	81.0589
 1.7050	81.0459
 1.7040	81.0515
 1.7030	81.0592
 1.7020	81.0177
 1.7010	80.9512
 1.7000	81.0812
 1.6990	81.0891
 1.6980	81.1217
 1.6970	81.1822
 1.6960	81.1526
 1.6950	81.1163
 1.6940	81.1927
 1.6930	81.1883
 1.6920	81.2143
 1.6910	81.1969
 1.6900	81.2298
 1.6890	81.2153
 1.6880	81.1754
 1.6870	81.2662
 1.6860	81.3064
 1.6850	81.2224
 1.6840	81.2531
 1.6830	81.2911
 1.6820	81.3178
 1.6810	81.3450
 1.6800	81.3761
 1.6790	81.3305
 1.6780	81.2851
 1.6770	81.4242
 1.6760	81.3676
 1.6750	81.3600
 1.6740	81.4182
 1.6730	81.4057
 1.6720	81.3712
 1.6710	81.3316
 1.6700	81.3792
 1.6690	81.4928
 1.6680	81.4399
 1.6670	81.5103
 1.6660	81.4972
 1.6650	81.5039
 1.6640	81.4881
 1.6630	81.5813
 1.6620	81.5453
 1.6610	81.5695
 1.6600	81.5736
 1.6590	81.5874
 1.6580	81.5673
 1.6570	81.6591
 1.6560	81.5841
 1.6550	81.6558
 1.6540	81.5611
 1.6530	81.6477
 1.6520	81.5432
 1.6510	81.6694
 1.6500	81.6887
 1.6490	81.7401
 1.6480	81.6339
 1.6470	81.6336
 1.6460	81.6937
 1.6450	81.6412
 1.6440	81.6433
 1.6430	81.6634
 1.6420	81.6672
 1.6410	81.7314
 1.6400	81.6721
 1.6390	81.7031
 1.6380	81.7419
 1.6370	81.7022
 1.6360	81.7695
 1.6350	81.7984
 1.6340	81.8339
 1.6330	81.7734
 1.6320	81.7376
 1.6310	81.8072
 1.6300	81.7624
 1.6290	81.7338
 1.6280	81.8170
 1.6270	81.8578
 1.6260	81.8866
 1.6250	81.8736
 1.6240	81.9079
 1.6230	81.8838
 1.6220	81.8981
 1.6210	81.8912
 1.6200	81.8733
 1.6190	81.8424
 1.6180	81.8713
 1.6170	81.8928
 1.6160	81.8897
 1.6150	81.9623
 1.6140	81.9244
 1.6130	81.9124
 1.6120	81.9099
 1.6110	82.0156
 1.6100	81.9949
 1.6090	82.0450
 1.6080	81.9746
 1.6070	81.9855
 1.6060	82.0168
 1.6050	81.9830
 1.6040	82.0599
 1.6030	82.0537
 1.6020	81.9568
 1.6010	82.0286
 1.6000	82.0091
 1.5990	82.0566
 1.5980	82.0143
 1.5970	81.9998
 1.5960	82.0465
 1.5950	82.0509
 1.5940	82.0045
 1.5930	81.9826
 1.5920	82.0367
 1.5910	82.0542
 1.5900	82.0647
 1.5890	82.0097
 1.5880	82.0476
 1.5870	82.0274
 1.5860	82.0255
 1.5850	82.1281
 1.5840	82.0564
 1.5830	82.0429
 1.5820	82.0680
 1.5810	82.0862
 1.5800	82.0497
 1.5790	82.0456
 1.5780	82.0101
 1.5770	82.0453
 1.5760	82.0670
 1.5750	82.0702
 1.5740	82.1493
 1.5730	82.1301
 1.5720	82.1170
 1.5710	82.0727
 1.5700	82.0507
 1.5690	82.1155
 1.5680	82.1549
 1.5670	82.1058
 1.5660	82.1028
 1.5650	82.2024
 1.5640	82.1199
 1.5630	82.1133
 1.5620	82.1029
 1.5610	82.1227
 1.5600	82.1090
 1.5590	82.0758
 1.5580	82.1035
 1.5570	82.1044
 1.5560	82.1060
 1.5550	82.1364
 1.5540	82.1192
 1.5530	82.1911
 1.5520	82.2189
 1.5510	82.1514
 1.5500	82.1313
 1.5490	82.1079
 1.5480	82.1039
 1.5470	82.0800
 1.5460	82.0730
 1.5450	82.1093
 1.5440	82.1562
 1.5430	82.1413
 1.5420	82.0769
 1.5410	82.1493
 1.5400	82.1347
 1.5390	82.1087
 1.5380	82.1547
 1.5370	82.1618
 1.5360	82.1276
 1.5350	82.1379
 1.5340	82.1181
 1.5330	82.0524
 1.5320	82.0728
 1.5310	82.0714
 1.5300	82.1193
 1.5290	82.1485
 1.5280	82.1153
 1.5270	82.1405
 1.5260	82.1404
 1.5250	82.1653
 1.5240	82.1659
 1.5230	82.1731
 1.5220	82.1341
 1.5210	82.0916
 1.5200	82.1006
 1.5190	82.1441
 1.5180	82.1616
 1.5170	82.1371
 1.5160	82.1322
 1.5150	82.1406
 1.5140	82.0939
 1.5130	82.1280
 1.5120	82.1234
 1.5110	82.0987
 1.5100	82.1415
 1.5090	82.1469
 1.5080	82.4572
 1.5070	82.5022
 1.5060	82.1133
 1.5050	82.1020
 1.5040	82.1301
 1.5030	82.1233
 1.5020	82.1112
 1.5010	82.1387
 1.5000	82.1531
 1.4990	82.1668
 1.4980	82.1594
 1.4970	82.1315
 1.4960	82.0980
 1.4950	82.1001
 1.4940	82.1313
 1.4930	82.1245
 1.4920	82.1586
 1.4910	82.1847
 1.4900	82.1548
 1.4890	82.1637
 1.4880	82.1782
 1.4870	82.0855
 1.4860	82.0942
 1.4850	82.1400
 1.4840	82.1535
 1.4830	82.1377
 1.4820	82.1430
 1.4810	82.1334
 1.4800	82.1152
 1.4790	82.0795
 1.4780	82.0640
 1.4770	82.0907
 1.4760	82.1256
 1.4750	82.1157
 1.4740	82.1241
 1.4730	82.1471
 1.4720	82.1563
 1.4710	82.1454
 1.4700	82.0282
 1.4690	82.0327
 1.4680	82.0982
 1.4670	82.1483
 1.4660	82.1169
 1.4650	82.0515
 1.4640	82.0446
 1.4630	82.0052
 1.4620	82.0505
 1.4610	82.0637
 1.4600	82.0467
 1.4590	82.0641
 1.4580	82.0565
 1.4570	81.9809
 1.4560	82.0771
 1.4550	82.1026
 1.4540	82.1087
 1.4530	82.0993
 1.4520	82.0888
 1.4510	82.0933
 1.4500	82.0935
 1.4490	82.0639
 1.4480	82.0819
 1.4470	82.0416
 1.4460	82.1285
 1.4450	82.1177
 1.4440	82.0791
 1.4430	82.0006
 1.4420	82.0984
 1.4410	82.1039
 1.4400	82.0522
 1.4390	82.0576
 1.4380	82.0723
 1.4370	82.0588
 1.4360	81.9954
 1.4350	81.9848
 1.4340	81.9569
 1.4330	81.9096
 1.4320	81.9571
 1.4310	81.9186
 1.4300	81.9239
 1.4290	81.9542
 1.4280	81.9338
 1.4270	81.8830
 1.4260	81.8626
 1.4250	81.8522
 1.4240	81.8607
 1.4230	81.8398
 1.4220	81.8282
 1.4210	81.8019
 1.4200	81.7856
 1.4190	81.6779
 1.4180	81.7043
 1.4170	81.6621
 1.4160	81.6675
 1.4150	81.6628
 1.4140	81.6750
 1.4130	81.6571
 1.4120	81.8008
 1.4110	81.7934
 1.4100	81.8254
 1.4090	81.7674
 1.4080	81.6883
 1.4070	81.7164
 1.4060	81.7149
 1.4050	81.7192
 1.4040	81.7885
 1.4030	81.8194
 1.4020	81.8259
 1.4010	81.6817
 1.4000	81.8008
 1.3990	81.7658
 1.3980	81.8749
 1.3970	81.8833
 1.3960	82.0006
 1.3950	82.0224
 1.3940	82.0590
 1.3930	82.0872
 1.3920	82.0367
 1.3910	82.0923
 1.3900	82.1633
 1.3890	82.2267
 1.3880	82.3303
 1.3870	82.2469
 1.3860	82.3491
 1.3850	82.3426
 1.3840	82.3399
 1.3830	82.3503
 1.3820	82.3891
 1.3810	82.4200
 1.3800	82.3276
 1.3790	82.4488
 1.3780	82.3964
 1.3770	82.4167
 1.3760	82.4668
 1.3750	82.4787
 1.3740	82.4898
 1.3730	82.5216
 1.3720	82.4027
 1.3710	82.5046
 1.3700	82.4976
 1.3690	82.4468
 1.3680	82.5441
 1.3670	82.5940
