Name: Gypsum CaSO_4.2H_2O
Type: Mineral
Class: Sulfate
Subclass: None
Particle Size: Coarse
Sample No.: SO-2B
Owner: JPL
Wavelength Range: VSWIR
Origin: USA, Utah.
Collection Date: N/A
Description: Particle size was 125-500um.Collected by:  Ward's Original ASTER Spectral Library name was jpl.perkin.mineral.sulfate.none.coarse.so02b.spectrum.txt
Measurement: Hemispherical reflectance
First Column: X
Second Column: Y
X Units: Wavelength (micrometers)
Y Units:Reflectance (percent)
First X Value:  2.5000
Last X Value:  0.4000
Number of X Values: 2101
Additional Information: mineral.sulfate.none.coarse.vswir.so-2b.jpl.perkin.ancillary.txt

 2.5000	 8.5116
 2.4990	 7.7399
 2.4980	 8.4012
 2.4970	 8.1770
 2.4960	 7.6975
 2.4950	 7.9225
 2.4940	 8.0494
 2.4930	 7.8427
 2.4920	 8.1100
 2.4910	 7.6933
 2.4900	 8.0177
 2.4890	 7.9522
 2.4880	 8.0719
 2.4870	 7.7445
 2.4860	 8.1304
 2.4850	 8.0114
 2.4840	 8.1281
 2.4830	 8.0213
 2.4820	 8.0060
 2.4810	 7.6839
 2.4800	 7.9795
 2.4790	 7.9723
 2.4780	 7.9814
 2.4770	 7.7521
 2.4760	 8.1689
 2.4750	 7.8796
 2.4740	 8.1612
 2.4730	 8.1476
 2.4720	 8.0871
 2.4710	 8.0857
 2.4700	 8.3240
 2.4690	 8.1543
 2.4680	 8.3665
 2.4670	 8.2324
 2.4660	 8.4663
 2.4650	 8.4127
 2.4640	 8.7271
 2.4630	 8.4445
 2.4620	 8.5768
 2.4610	 8.6780
 2.4600	 8.6946
 2.4590	 8.7132
 2.4580	 8.8330
 2.4570	 8.8236
 2.4560	 9.0187
 2.4550	 8.9348
 2.4540	 8.9654
 2.4530	 8.8846
 2.4520	 9.2394
 2.4510	 9.1273
 2.4500	 9.2390
 2.4490	 9.0645
 2.4480	 9.3674
 2.4470	 9.2702
 2.4460	 9.3302
 2.4450	 9.2787
 2.4440	 9.4139
 2.4430	 9.2804
 2.4420	 9.3955
 2.4410	 9.3668
 2.4400	 9.5303
 2.4390	 9.5169
 2.4380	 9.5434
 2.4370	 9.5264
 2.4360	 9.7342
 2.4350	 9.5907
 2.4340	 9.8134
 2.4330	 9.7687
 2.4320	 9.9113
 2.4310	 9.9466
 2.4300	 9.9689
 2.4290	 9.9836
 2.4280	10.1110
 2.4270	10.0938
 2.4260	10.2845
 2.4250	10.2650
 2.4240	10.4078
 2.4230	10.3592
 2.4220	10.4543
 2.4210	10.4890
 2.4200	10.6244
 2.4190	10.6215
 2.4180	10.8585
 2.4170	10.8692
 2.4160	11.0198
 2.4150	11.0392
 2.4140	11.1805
 2.4130	11.3507
 2.4120	11.5586
 2.4110	11.4582
 2.4100	11.6860
 2.4090	11.8405
 2.4080	12.0756
 2.4070	12.1936
 2.4060	12.3869
 2.4050	12.5140
 2.4040	12.7927
 2.4030	12.9049
 2.4020	13.1376
 2.4010	13.3099
 2.4000	13.5856
 2.3990	13.8587
 2.3980	14.1156
 2.3970	14.3794
 2.3960	14.6615
 2.3950	14.8647
 2.3940	15.1500
 2.3930	15.4186
 2.3920	15.6475
 2.3910	15.9099
 2.3900	16.2560
 2.3890	16.4906
 2.3880	16.7813
 2.3870	16.9677
 2.3860	17.3368
 2.3850	17.6176
 2.3840	17.9252
 2.3830	18.1870
 2.3820	18.4621
 2.3810	18.7101
 2.3800	19.0584
 2.3790	19.3150
 2.3780	19.6147
 2.3770	19.8712
 2.3760	20.1838
 2.3750	20.4119
 2.3740	20.6753
 2.3730	20.9257
 2.3720	21.1639
 2.3710	21.4024
 2.3700	21.6451
 2.3690	21.8993
 2.3680	22.1807
 2.3670	22.4005
 2.3660	22.6230
 2.3650	22.9155
 2.3640	23.1025
 2.3630	23.2352
 2.3620	23.4604
 2.3610	23.6984
 2.3600	23.9462
 2.3590	24.1194
 2.3580	24.3129
 2.3570	24.5177
 2.3560	24.7519
 2.3550	24.9431
 2.3540	25.0614
 2.3530	25.1955
 2.3520	25.3474
 2.3510	25.5799
 2.3500	25.7844
 2.3490	25.9472
 2.3480	26.1166
 2.3470	26.2672
 2.3460	26.4352
 2.3450	26.5746
 2.3440	26.6577
 2.3430	26.8401
 2.3420	26.9898
 2.3410	27.1331
 2.3400	27.2606
 2.3390	27.3333
 2.3380	27.4095
 2.3370	27.5320
 2.3360	27.6489
 2.3350	27.8043
 2.3340	27.8650
 2.3330	27.9513
 2.3320	28.0998
 2.3310	28.2198
 2.3300	28.2082
 2.3290	28.2987
 2.3280	28.3458
 2.3270	28.4761
 2.3260	28.5112
 2.3250	28.5610
 2.3240	28.5452
 2.3230	28.6744
 2.3220	28.7469
 2.3210	28.8534
 2.3200	28.8168
 2.3190	28.8385
 2.3180	28.8712
 2.3170	28.9230
 2.3160	28.9809
 2.3150	28.9672
 2.3140	28.9260
 2.3130	29.0064
 2.3120	28.9881
 2.3110	29.0967
 2.3100	29.0392
 2.3090	28.9728
 2.3080	28.9303
 2.3070	29.0027
 2.3060	28.9777
 2.3050	28.9277
 2.3040	28.9086
 2.3030	28.9852
 2.3020	28.8741
 2.3010	28.8855
 2.3000	28.8087
 2.2990	28.8310
 2.2980	28.8317
 2.2970	28.8323
 2.2960	28.6601
 2.2950	28.6360
 2.2940	28.5340
 2.2930	28.5584
 2.2920	28.3862
 2.2910	28.3498
 2.2900	28.2727
 2.2890	28.2242
 2.2880	28.0922
 2.2870	27.9885
 2.2860	27.8893
 2.2850	27.8487
 2.2840	27.6207
 2.2830	27.5347
 2.2820	27.3339
 2.2810	27.2693
 2.2800	27.0318
 2.2790	26.9033
 2.2780	26.6955
 2.2770	26.5769
 2.2760	26.4045
 2.2750	26.2889
 2.2740	26.1506
 2.2730	26.0087
 2.2720	25.7616
 2.2710	25.7600
 2.2700	25.5420
 2.2690	25.5517
 2.2680	25.4072
 2.2670	25.3865
 2.2660	25.3976
 2.2650	25.4212
 2.2640	25.3522
 2.2630	25.5011
 2.2620	25.4704
 2.2610	25.5701
 2.2600	25.5527
 2.2590	25.7484
 2.2580	25.7645
 2.2570	25.8477
 2.2560	25.9162
 2.2550	26.0952
 2.2540	26.0998
 2.2530	26.2591
 2.2520	26.2448
 2.2510	26.3281
 2.2500	26.3447
 2.2490	26.5156
 2.2480	26.4220
 2.2470	26.5230
 2.2460	26.4831
 2.2450	26.4912
 2.2440	26.4639
 2.2430	26.4894
 2.2420	26.3681
 2.2410	26.4385
 2.2400	26.2697
 2.2390	26.2702
 2.2380	26.1622
 2.2370	26.1557
 2.2360	25.9734
 2.2350	26.0587
 2.2340	25.7769
 2.2330	25.7225
 2.2320	25.5355
 2.2310	25.4105
 2.2300	25.1645
 2.2290	25.1080
 2.2280	24.7964
 2.2270	24.7629
 2.2260	24.5194
 2.2250	24.3963
 2.2240	24.0516
 2.2230	24.0061
 2.2220	23.7202
 2.2210	23.6921
 2.2200	23.4549
 2.2190	23.5170
 2.2180	23.3219
 2.2170	23.4436
 2.2160	23.3087
 2.2150	23.4377
 2.2140	23.3967
 2.2130	23.5635
 2.2120	23.6146
 2.2110	23.5673
 2.2100	23.8312
 2.2090	23.9584
 2.2080	24.0214
 2.2070	24.2446
 2.2060	24.3511
 2.2050	24.4992
 2.2040	24.6634
 2.2030	24.8261
 2.2020	24.8492
 2.2010	25.0933
 2.2000	25.2082
 2.1990	25.4080
 2.1980	25.3603
 2.1970	25.6201
 2.1960	25.5702
 2.1950	25.8206
 2.1940	25.8101
 2.1930	25.9544
 2.1920	25.9113
 2.1910	26.0906
 2.1900	26.0571
 2.1890	26.2765
 2.1880	26.2398
 2.1870	26.3439
 2.1860	26.3713
 2.1850	26.3976
 2.1840	26.4799
 2.1830	26.4831
 2.1820	26.4512
 2.1810	26.5862
 2.1800	26.5462
 2.1790	26.7173
 2.1780	26.6099
 2.1770	26.7466
 2.1760	26.7598
 2.1750	26.9119
 2.1740	26.8427
 2.1730	27.0716
 2.1720	27.0944
 2.1710	27.2355
 2.1700	27.3406
 2.1690	27.5023
 2.1680	27.5509
 2.1670	27.6565
 2.1660	27.6988
 2.1650	27.8334
 2.1640	28.0359
 2.1630	28.1564
 2.1620	28.3161
 2.1610	28.5225
 2.1600	28.6191
 2.1590	28.8346
 2.1580	28.8239
 2.1570	29.0030
 2.1560	29.0644
 2.1550	29.3163
 2.1540	29.3841
 2.1530	29.5286
 2.1520	29.7005
 2.1510	29.8513
 2.1500	29.9725
 2.1490	30.1296
 2.1480	30.2308
 2.1470	30.4060
 2.1460	30.4067
 2.1450	30.5784
 2.1440	30.6975
 2.1430	30.8745
 2.1420	30.8638
 2.1410	31.0856
 2.1400	31.1260
 2.1390	31.2836
 2.1380	31.2936
 2.1370	31.4307
 2.1360	31.4538
 2.1350	31.6477
 2.1340	31.7317
 2.1330	31.8148
 2.1320	31.8639
 2.1310	32.0549
 2.1300	32.1429
 2.1290	32.2204
 2.1280	32.2583
 2.1270	32.4137
 2.1260	32.5432
 2.1250	32.6242
 2.1240	32.6910
 2.1230	32.8837
 2.1220	33.0536
 2.1210	33.2250
 2.1200	33.2754
 2.1190	33.4109
 2.1180	33.5266
 2.1170	33.7140
 2.1160	33.7850
 2.1150	33.9575
 2.1140	34.0655
 2.1130	34.2380
 2.1120	34.3403
 2.1110	34.4944
 2.1100	34.6126
 2.1090	34.7975
 2.1080	34.8950
 2.1070	35.1033
 2.1060	35.1848
 2.1050	35.3655
 2.1040	35.4709
 2.1030	35.6171
 2.1020	35.7533
 2.1010	35.9438
 2.1000	36.0737
 2.0990	36.2432
 2.0980	36.3866
 2.0970	36.5207
 2.0960	36.6765
 2.0950	36.8232
 2.0940	36.9249
 2.0930	37.0812
 2.0920	37.1735
 2.0910	37.3168
 2.0900	37.3820
 2.0890	37.4752
 2.0880	37.6049
 2.0870	37.7581
 2.0860	37.8486
 2.0850	37.9463
 2.0840	38.0218
 2.0830	38.1018
 2.0820	38.1541
 2.0810	38.1940
 2.0800	38.2458
 2.0790	38.3362
 2.0780	38.3190
 2.0770	38.3366
 2.0760	38.3978
 2.0750	38.3912
 2.0740	38.3465
 2.0730	38.3439
 2.0720	38.3690
 2.0710	38.3613
 2.0700	38.3070
 2.0690	38.3213
 2.0680	38.3519
 2.0670	38.3549
 2.0660	38.3504
 2.0650	38.3725
 2.0640	38.3726
 2.0630	38.4288
 2.0620	38.5368
 2.0610	38.5608
 2.0600	38.5904
 2.0590	38.6635
 2.0580	38.7331
 2.0570	38.7527
 2.0560	38.7477
 2.0550	38.7694
 2.0540	38.8439
 2.0530	38.8324
 2.0520	38.7761
 2.0510	38.7191
 2.0500	38.7008
 2.0490	38.6098
 2.0480	38.5622
 2.0470	38.4612
 2.0460	38.3746
 2.0450	38.2558
 2.0440	38.1400
 2.0430	37.9909
 2.0420	37.8511
 2.0410	37.7146
 2.0400	37.6008
 2.0390	37.4105
 2.0380	37.3431
 2.0370	37.1490
 2.0360	37.0061
 2.0350	36.8099
 2.0340	36.6391
 2.0330	36.3936
 2.0320	36.1886
 2.0310	35.9777
 2.0300	35.8227
 2.0290	35.5486
 2.0280	35.3088
 2.0270	35.0289
 2.0260	34.8294
 2.0250	34.5883
 2.0240	34.3963
 2.0230	34.0297
 2.0220	33.7743
 2.0210	33.4387
 2.0200	33.1177
 2.0190	32.7065
 2.0180	32.4110
 2.0170	32.0592
 2.0160	31.6358
 2.0150	31.1886
 2.0140	30.8522
 2.0130	30.3491
 2.0120	29.8241
 2.0110	29.3473
 2.0100	28.9117
 2.0090	28.2756
 2.0080	27.7323
 2.0070	27.2120
 2.0060	26.6148
 2.0050	25.9361
 2.0040	25.3622
 2.0030	24.5538
 2.0020	23.9475
 2.0010	23.0996
 2.0000	22.3856
 1.9990	21.5761
 1.9980	20.8916
 1.9970	20.0908
 1.9960	19.4417
 1.9950	18.6572
 1.9940	18.0929
 1.9930	17.3845
 1.9920	16.9855
 1.9910	16.4550
 1.9900	16.0446
 1.9890	15.6259
 1.9880	15.4427
 1.9870	15.0635
 1.9860	14.8874
 1.9850	14.6792
 1.9840	14.5367
 1.9830	14.3167
 1.9820	14.2630
 1.9810	13.9855
 1.9800	13.8832
 1.9790	13.7183
 1.9780	13.6510
 1.9770	13.4733
 1.9760	13.4012
 1.9750	13.2733
 1.9740	13.2905
 1.9730	13.0807
 1.9720	13.1094
 1.9710	13.0016
 1.9700	13.0966
 1.9690	12.8908
 1.9680	12.8844
 1.9670	12.8220
 1.9660	12.7452
 1.9650	12.6581
 1.9640	12.7098
 1.9630	12.3669
 1.9620	12.3302
 1.9610	12.1048
 1.9600	11.9278
 1.9590	11.6461
 1.9580	11.4516
 1.9570	11.1431
 1.9560	10.8169
 1.9550	10.5970
 1.9540	10.3837
 1.9530	10.1261
 1.9520	10.0483
 1.9510	 9.8465
 1.9500	 9.9066
 1.9490	 9.6908
 1.9480	 9.6824
 1.9470	 9.5871
 1.9460	 9.7638
 1.9450	 9.6070
 1.9440	 9.6522
 1.9430	 9.6266
 1.9420	 9.8456
 1.9410	 9.7946
 1.9400	10.0124
 1.9390	10.0329
 1.9380	10.2183
 1.9370	10.0846
 1.9360	10.4733
 1.9350	10.5515
 1.9340	10.8171
 1.9330	10.9404
 1.9320	11.1847
 1.9310	11.3267
 1.9300	11.7607
 1.9290	11.9747
 1.9280	12.3176
 1.9270	12.7468
 1.9260	12.9982
 1.9250	13.4758
 1.9240	13.9292
 1.9230	14.1932
 1.9220	14.7524
 1.9210	15.1011
 1.9200	15.6240
 1.9190	15.9764
 1.9180	16.5412
 1.9170	16.8559
 1.9160	17.3654
 1.9150	17.7864
 1.9140	18.2333
 1.9130	18.6441
 1.9120	19.2368
 1.9110	19.5483
 1.9100	20.1465
 1.9090	20.5102
 1.9080	21.1447
 1.9070	21.5007
 1.9060	22.2026
 1.9050	22.6137
 1.9040	23.2521
 1.9030	23.8048
 1.9020	24.5212
 1.9010	25.0556
 1.9000	25.7258
 1.8990	26.1715
 1.8980	26.8198
 1.8970	27.3120
 1.8960	28.0375
 1.8950	28.5864
 1.8940	29.2314
 1.8930	29.8764
 1.8920	30.6012
 1.8910	31.1480
 1.8900	31.8788
 1.8890	32.5117
 1.8880	33.2214
 1.8870	33.8864
 1.8860	34.6056
 1.8850	35.2562
 1.8840	36.0597
 1.8830	36.7623
 1.8820	37.5501
 1.8810	38.1911
 1.8800	38.9406
 1.8790	39.5873
 1.8780	40.3329
 1.8770	40.9846
 1.8760	41.8047
 1.8750	42.5073
 1.8740	43.2294
 1.8730	44.0531
 1.8720	44.9804
 1.8710	45.8157
 1.8700	46.5416
 1.8690	47.1767
 1.8680	47.8962
 1.8670	48.6233
 1.8660	49.2197
 1.8650	49.7432
 1.8640	50.4457
 1.8630	50.9303
 1.8620	51.5178
 1.8610	52.0028
 1.8600	52.6429
 1.8590	53.0096
 1.8580	53.5548
 1.8570	53.9311
 1.8560	54.4289
 1.8550	54.8359
 1.8540	55.1565
 1.8530	55.4325
 1.8520	55.8070
 1.8510	56.0787
 1.8500	56.3640
 1.8490	56.4961
 1.8480	56.7935
 1.8470	56.9672
 1.8460	57.2246
 1.8450	57.3424
 1.8440	57.5082
 1.8430	57.6267
 1.8420	57.7309
 1.8410	57.8125
 1.8400	57.9032
 1.8390	57.9888
 1.8380	58.0739
 1.8370	58.1567
 1.8360	58.2390
 1.8350	58.2330
 1.8340	58.2970
 1.8330	58.2864
 1.8320	58.3125
 1.8310	58.3180
 1.8300	58.3707
 1.8290	58.3386
 1.8280	58.3159
 1.8270	58.2579
 1.8260	58.2551
 1.8250	58.2157
 1.8240	58.2115
 1.8230	58.1531
 1.8220	58.0376
 1.8210	57.9119
 1.8200	57.8605
 1.8190	57.7855
 1.8180	57.6532
 1.8170	57.5235
 1.8160	57.4515
 1.8150	57.3209
 1.8140	57.2592
 1.8130	57.0787
 1.8120	56.9699
 1.8110	56.8494
 1.8100	56.7173
 1.8090	56.6039
 1.8080	56.4400
 1.8070	56.2884
 1.8060	56.1241
 1.8050	55.9664
 1.8040	55.8471
 1.8030	55.5508
 1.8020	55.3304
 1.8010	55.1090
 1.8000	54.8615
 1.7990	54.6342
 1.7980	54.3465
 1.7970	54.0897
 1.7960	53.8414
 1.7950	53.4476
 1.7940	53.1453
 1.7930	52.7943
 1.7920	52.4146
 1.7910	52.0610
 1.7900	51.7580
 1.7890	51.4806
 1.7880	51.0985
 1.7870	50.6762
 1.7860	50.3512
 1.7850	50.0471
 1.7840	49.7262
 1.7830	49.4566
 1.7820	49.2456
 1.7810	49.0179
 1.7800	48.8413
 1.7790	48.6697
 1.7780	48.4761
 1.7770	48.3437
 1.7760	48.1948
 1.7750	48.1084
 1.7740	48.0706
 1.7730	48.0065
 1.7720	47.9610
 1.7710	47.9636
 1.7700	47.8613
 1.7690	47.7405
 1.7680	47.6087
 1.7670	47.5140
 1.7660	47.4153
 1.7650	47.3278
 1.7640	47.1692
 1.7630	46.9940
 1.7620	46.8234
 1.7610	46.5919
 1.7600	46.4503
 1.7590	46.2208
 1.7580	45.9696
 1.7570	45.7722
 1.7560	45.4721
 1.7550	45.2483
 1.7540	45.0604
 1.7530	44.8942
 1.7520	44.7167
 1.7510	44.6873
 1.7500	44.6794
 1.7490	44.7189
 1.7480	44.7081
 1.7470	44.8415
 1.7460	44.9803
 1.7450	45.1686
 1.7440	45.3587
 1.7430	45.6262
 1.7420	45.9419
 1.7410	46.2857
 1.7400	46.6485
 1.7390	47.0500
 1.7380	47.5165
 1.7370	48.0267
 1.7360	48.4431
 1.7350	48.9766
 1.7340	49.4392
 1.7330	49.9956
 1.7320	50.5160
 1.7310	51.1467
 1.7300	51.6734
 1.7290	52.2414
 1.7280	52.7590
 1.7270	53.3609
 1.7260	53.8931
 1.7250	54.5509
 1.7240	55.0871
 1.7230	55.6864
 1.7220	56.2823
 1.7210	56.9081
 1.7200	57.4422
 1.7190	58.0582
 1.7180	58.7314
 1.7170	59.3102
 1.7160	59.8567
 1.7150	60.4620
 1.7140	61.0642
 1.7130	61.6893
 1.7120	62.1984
 1.7110	62.7056
 1.7100	63.3006
 1.7090	63.8795
 1.7080	64.3767
 1.7070	64.8338
 1.7060	65.3405
 1.7050	65.8916
 1.7040	66.2226
 1.7030	66.7229
 1.7020	67.1875
 1.7010	67.6070
 1.7000	67.8999
 1.6990	68.3050
 1.6980	68.6078
 1.6970	68.9977
 1.6960	69.3175
 1.6950	69.5906
 1.6940	69.9289
 1.6930	70.1719
 1.6920	70.4079
 1.6910	70.6724
 1.6900	70.8146
 1.6890	71.0005
 1.6880	71.2003
 1.6870	71.4010
 1.6860	71.5048
 1.6850	71.6423
 1.6840	71.7083
 1.6830	71.9641
 1.6820	72.1256
 1.6810	72.1301
 1.6800	72.2755
 1.6790	72.3448
 1.6780	72.4031
 1.6770	72.5339
 1.6760	72.5401
 1.6750	72.6079
 1.6740	72.5695
 1.6730	72.6526
 1.6720	72.7026
 1.6710	72.7704
 1.6700	72.6718
 1.6690	72.6499
 1.6680	72.5890
 1.6670	72.7277
 1.6660	72.6377
 1.6650	72.5912
 1.6640	72.4901
 1.6630	72.5262
 1.6620	72.4433
 1.6610	72.4252
 1.6600	72.3810
 1.6590	72.3006
 1.6580	72.2481
 1.6570	72.1438
 1.6560	72.0490
 1.6550	71.9819
 1.6540	71.9052
 1.6530	71.9437
 1.6520	71.6157
 1.6510	71.6899
 1.6500	71.4305
 1.6490	71.2814
 1.6480	71.1631
 1.6470	71.0985
 1.6460	71.0030
 1.6450	70.8983
 1.6440	70.6632
 1.6430	70.5800
 1.6420	70.4544
 1.6410	70.1836
 1.6400	70.1051
 1.6390	69.9431
 1.6380	69.6914
 1.6370	69.6659
 1.6360	69.2777
 1.6350	69.2642
 1.6340	68.9958
 1.6330	68.8494
 1.6320	68.6214
 1.6310	68.4443
 1.6300	68.2805
 1.6290	68.1823
 1.6280	67.9761
 1.6270	67.8456
 1.6260	67.5130
 1.6250	67.4989
 1.6240	67.3019
 1.6230	67.2632
 1.6220	66.9012
 1.6210	66.8041
 1.6200	66.5939
 1.6190	66.5702
 1.6180	66.2098
 1.6170	66.0991
 1.6160	65.8596
 1.6150	65.7781
 1.6140	65.4820
 1.6130	65.3697
 1.6120	65.0942
 1.6110	64.9028
 1.6100	64.7030
 1.6090	64.4339
 1.6080	64.2388
 1.6070	64.0240
 1.6060	63.7090
 1.6050	63.5540
 1.6040	63.2333
 1.6030	62.9907
 1.6020	62.7928
 1.6010	62.5718
 1.6000	62.3018
 1.5990	62.1120
 1.5980	61.8007
 1.5970	61.6601
 1.5960	61.3064
 1.5950	61.1136
 1.5940	60.8431
 1.5930	60.6186
 1.5920	60.4092
 1.5910	60.2288
 1.5900	59.9935
 1.5890	59.7237
 1.5880	59.5010
 1.5870	59.3643
 1.5860	59.0846
 1.5850	58.9615
 1.5840	58.6726
 1.5830	58.5231
 1.5820	58.2977
 1.5810	58.1289
 1.5800	57.9134
 1.5790	57.7180
 1.5780	57.4057
 1.5770	57.2245
 1.5760	57.0406
 1.5750	56.7981
 1.5740	56.5008
 1.5730	56.3403
 1.5720	56.0660
 1.5710	55.8788
 1.5700	55.5163
 1.5690	55.2124
 1.5680	54.9772
 1.5670	54.6882
 1.5660	54.3634
 1.5650	54.1169
 1.5640	53.7283
 1.5630	53.4499
 1.5620	53.0952
 1.5610	52.7696
 1.5600	52.4095
 1.5590	52.0485
 1.5580	51.6681
 1.5570	51.2452
 1.5560	50.7857
 1.5550	50.4255
 1.5540	49.9151
 1.5530	49.4890
 1.5520	48.9756
 1.5510	48.4829
 1.5500	48.0193
 1.5490	47.5880
 1.5480	47.0738
 1.5470	46.6316
 1.5460	46.1923
 1.5450	45.8430
 1.5440	45.4555
 1.5430	45.1341
 1.5420	44.8752
 1.5410	44.6894
 1.5400	44.5567
 1.5390	44.4828
 1.5380	44.3719
 1.5370	44.4098
 1.5360	44.4242
 1.5350	44.5788
 1.5340	44.7279
 1.5330	44.9118
 1.5320	45.0384
 1.5310	45.2322
 1.5300	45.3544
 1.5290	45.5510
 1.5280	45.7844
 1.5270	45.9523
 1.5260	46.0843
 1.5250	46.1491
 1.5240	46.2157
 1.5230	46.3629
 1.5220	46.4503
 1.5210	46.4808
 1.5200	46.5097
 1.5190	46.6135
 1.5180	46.5929
 1.5170	46.5625
 1.5160	46.5799
 1.5150	46.5203
 1.5140	46.4175
 1.5130	46.3485
 1.5120	46.2095
 1.5110	46.0835
 1.5100	45.8637
 1.5090	45.6189
 1.5080	45.3384
 1.5070	45.0183
 1.5060	44.6662
 1.5050	44.3196
 1.5040	43.8718
 1.5030	43.3986
 1.5020	42.8965
 1.5010	42.3514
 1.5000	41.8267
 1.4990	41.3099
 1.4980	40.8006
 1.4970	40.3025
 1.4960	39.9139
 1.4950	39.5683
 1.4940	39.3351
 1.4930	39.1277
 1.4920	39.0226
 1.4910	39.0505
 1.4900	39.1265
 1.4890	39.2510
 1.4880	39.5356
 1.4870	39.8654
 1.4860	40.1133
 1.4850	40.3615
 1.4840	40.6546
 1.4830	40.9302
 1.4820	41.1681
 1.4810	41.3190
 1.4800	41.4148
 1.4790	41.4295
 1.4780	41.3842
 1.4770	41.2997
 1.4760	41.2500
 1.4750	41.1822
 1.4740	41.0822
 1.4730	40.9488
 1.4720	40.8402
 1.4710	40.7274
 1.4700	40.6437
 1.4690	40.5373
 1.4680	40.3978
 1.4670	40.2705
 1.4660	40.1712
 1.4650	40.0017
 1.4640	39.7747
 1.4630	39.5127
 1.4620	39.3078
 1.4610	39.0251
 1.4600	38.7322
 1.4590	38.3875
 1.4580	37.9872
 1.4570	37.5071
 1.4560	36.9708
 1.4550	36.3489
 1.4540	35.7001
 1.4530	34.9324
 1.4520	34.1398
 1.4510	33.3300
 1.4500	32.6742
 1.4490	32.0679
 1.4480	31.7618
 1.4470	31.5788
 1.4460	31.6637
 1.4450	31.9837
 1.4440	32.6075
 1.4430	33.3424
 1.4420	34.3145
 1.4410	35.3366
 1.4400	36.3758
 1.4390	37.4470
 1.4380	38.5358
 1.4370	39.4846
 1.4360	40.5163
 1.4350	41.3581
 1.4340	42.2695
 1.4330	42.9521
 1.4320	43.5699
 1.4310	44.0877
 1.4300	44.5468
 1.4290	44.9011
 1.4280	45.3760
 1.4270	45.7803
 1.4260	46.2686
 1.4250	46.7690
 1.4240	47.3078
 1.4230	48.0026
 1.4220	48.6833
 1.4210	49.2778
 1.4200	50.0839
 1.4190	50.8607
 1.4180	51.5251
 1.4170	52.2734
 1.4160	52.9781
 1.4150	53.7273
 1.4140	54.3927
 1.4130	54.9999
 1.4120	55.6349
 1.4110	56.2123
 1.4100	56.8371
 1.4090	57.3741
 1.4080	57.9986
 1.4070	58.4469
 1.4060	59.0916
 1.4050	59.6089
 1.4040	60.0255
 1.4030	60.4999
 1.4020	61.0374
 1.4010	61.3779
 1.4000	61.7774
 1.3990	62.1275
 1.3980	62.4441
 1.3970	62.7485
 1.3960	62.9891
 1.3950	63.2651
 1.3940	63.5241
 1.3930	63.6486
 1.3920	63.8729
 1.3910	63.9758
 1.3900	64.0853
 1.3890	64.1503
 1.3880	64.3350
 1.3870	64.3613
 1.3860	64.5149
 1.3850	64.4852
 1.3840	64.6422
 1.3830	64.6129
 1.3820	64.6992
 1.3810	64.8225
 1.3800	64.9408
 1.3790	65.0231
 1.3780	65.1881
 1.3770	65.3569
 1.3760	65.5587
 1.3750	65.6317
 1.3740	65.7797
 1.3730	66.0667
 1.3720	66.2877
 1.3710	66.3784
 1.3700	66.6195
 1.3690	66.8910
 1.3680	67.0543
 1.3670	67.2328
 1.3660	67.4531
 1.3650	67.5430
 1.3640	67.7186
