Name: Chalcocite Cu_2S
Type: Mineral
Class: Sulfide
Subclass: None
Particle Size: Fine
Sample No.: S-8A
Owner: JPL
Wavelength Range: VSWIR
Origin: USA, Alaska, Kennecott.
Collection Date: N/A
Description: Particle size was 0-45um. Collected by:  Burminco Original ASTER Spectral Library name was jpl.perkin.mineral.sulfide.none.fine.s08a.spectrum.txt
Measurement: Hemispherical reflectance
First Column: X
Second Column: Y
X Units: Wavelength (micrometers)
Y Units:Reflectance (percent)
First X Value:  2.5000
Last X Value:  0.4000
Number of X Values: 2101
Additional Information: mineral.sulfide.none.fine.vswir.s-8a.jpl.perkin.ancillary.txt

 2.5000	 4.0923
 2.4990	 4.4015
 2.4980	 4.4923
 2.4970	 4.5293
 2.4960	 4.0403
 2.4950	 4.5168
 2.4940	 4.2846
 2.4930	 4.4705
 2.4920	 4.2502
 2.4910	 4.4084
 2.4900	 4.2741
 2.4890	 4.3691
 2.4880	 4.2626
 2.4870	 4.2821
 2.4860	 4.3842
 2.4850	 4.4849
 2.4840	 4.1245
 2.4830	 4.3477
 2.4820	 4.2498
 2.4810	 4.3799
 2.4800	 4.2367
 2.4790	 4.4362
 2.4780	 4.2520
 2.4770	 4.4517
 2.4760	 4.2114
 2.4750	 4.4705
 2.4740	 4.2268
 2.4730	 4.5032
 2.4720	 4.2433
 2.4710	 4.4924
 2.4700	 4.0803
 2.4690	 4.2959
 2.4680	 4.1702
 2.4670	 4.3819
 2.4660	 4.1169
 2.4650	 4.3082
 2.4640	 4.2855
 2.4630	 4.4109
 2.4620	 4.2727
 2.4610	 4.3611
 2.4600	 4.2881
 2.4590	 4.3785
 2.4580	 4.2412
 2.4570	 4.3730
 2.4560	 4.1364
 2.4550	 4.2896
 2.4540	 4.1561
 2.4530	 4.4281
 2.4520	 4.1695
 2.4510	 4.3157
 2.4500	 4.3449
 2.4490	 4.4056
 2.4480	 4.2783
 2.4470	 4.3478
 2.4460	 4.2097
 2.4450	 4.2422
 2.4440	 4.2636
 2.4430	 4.1901
 2.4420	 4.1066
 2.4410	 4.1955
 2.4400	 4.1372
 2.4390	 4.2933
 2.4380	 4.1703
 2.4370	 4.2200
 2.4360	 4.0835
 2.4350	 4.2852
 2.4340	 4.2075
 2.4330	 4.2852
 2.4320	 4.1340
 2.4310	 4.2702
 2.4300	 4.2152
 2.4290	 4.2502
 2.4280	 4.1043
 2.4270	 4.2103
 2.4260	 4.2123
 2.4250	 4.3141
 2.4240	 4.1221
 2.4230	 4.2227
 2.4220	 4.1557
 2.4210	 4.3396
 2.4200	 4.2111
 2.4190	 4.2419
 2.4180	 4.1327
 2.4170	 4.2518
 2.4160	 4.1397
 2.4150	 4.2096
 2.4140	 4.1256
 2.4130	 4.2115
 2.4120	 4.1999
 2.4110	 4.1950
 2.4100	 4.2018
 2.4090	 4.1964
 2.4080	 4.2270
 2.4070	 4.2170
 2.4060	 4.1657
 2.4050	 4.2181
 2.4040	 4.1395
 2.4030	 4.2146
 2.4020	 4.1876
 2.4010	 4.2010
 2.4000	 4.1113
 2.3990	 4.2210
 2.3980	 4.1308
 2.3970	 4.1777
 2.3960	 4.0629
 2.3950	 4.1599
 2.3940	 4.1670
 2.3930	 4.1277
 2.3920	 4.1079
 2.3910	 4.1345
 2.3900	 4.1425
 2.3890	 4.1989
 2.3880	 4.1165
 2.3870	 4.1213
 2.3860	 4.1075
 2.3850	 4.1560
 2.3840	 4.1112
 2.3830	 4.0988
 2.3820	 4.0710
 2.3810	 4.0957
 2.3800	 4.0845
 2.3790	 4.1729
 2.3780	 4.1468
 2.3770	 4.0987
 2.3760	 4.0815
 2.3750	 4.0285
 2.3740	 4.0785
 2.3730	 4.1635
 2.3720	 4.0735
 2.3710	 4.0933
 2.3700	 4.1681
 2.3690	 4.1489
 2.3680	 4.1353
 2.3670	 4.1598
 2.3660	 4.0778
 2.3650	 4.0777
 2.3640	 4.0685
 2.3630	 4.0548
 2.3620	 4.0724
 2.3610	 4.1377
 2.3600	 4.1235
 2.3590	 4.0633
 2.3580	 4.0651
 2.3570	 4.0621
 2.3560	 4.0950
 2.3550	 4.0722
 2.3540	 4.0165
 2.3530	 4.0480
 2.3520	 4.0249
 2.3510	 3.9837
 2.3500	 4.0632
 2.3490	 4.0883
 2.3480	 4.0476
 2.3470	 4.0536
 2.3460	 4.0711
 2.3450	 4.0343
 2.3440	 4.0136
 2.3430	 4.0013
 2.3420	 4.0302
 2.3410	 4.0815
 2.3400	 4.1054
 2.3390	 4.0788
 2.3380	 4.0517
 2.3370	 4.0211
 2.3360	 4.0460
 2.3350	 4.0118
 2.3340	 4.0340
 2.3330	 3.9663
 2.3320	 3.9738
 2.3310	 3.9439
 2.3300	 4.0042
 2.3290	 3.9778
 2.3280	 3.9960
 2.3270	 3.9853
 2.3260	 3.9703
 2.3250	 3.9602
 2.3240	 3.9738
 2.3230	 3.9649
 2.3220	 4.0774
 2.3210	 3.9861
 2.3200	 3.9739
 2.3190	 3.9627
 2.3180	 3.9989
 2.3170	 4.0321
 2.3160	 4.0504
 2.3150	 3.9449
 2.3140	 3.9568
 2.3130	 3.9507
 2.3120	 3.9857
 2.3110	 3.9388
 2.3100	 3.9683
 2.3090	 3.9715
 2.3080	 3.9188
 2.3070	 3.9219
 2.3060	 3.9857
 2.3050	 3.9318
 2.3040	 3.8736
 2.3030	 3.8912
 2.3020	 3.9627
 2.3010	 3.8877
 2.3000	 3.9482
 2.2990	 3.8834
 2.2980	 3.9700
 2.2970	 3.9232
 2.2960	 3.9653
 2.2950	 3.9346
 2.2940	 3.9751
 2.2930	 3.8618
 2.2920	 3.9640
 2.2910	 3.8274
 2.2900	 3.8883
 2.2890	 3.8909
 2.2880	 3.8997
 2.2870	 3.8739
 2.2860	 3.9055
 2.2850	 3.8769
 2.2840	 3.9197
 2.2830	 3.8125
 2.2820	 3.8904
 2.2810	 3.8414
 2.2800	 3.9092
 2.2790	 3.8086
 2.2780	 3.9012
 2.2770	 3.8161
 2.2760	 3.8880
 2.2750	 3.8455
 2.2740	 3.8743
 2.2730	 3.8165
 2.2720	 3.8862
 2.2710	 3.8604
 2.2700	 3.8907
 2.2690	 3.8470
 2.2680	 3.8352
 2.2670	 3.8553
 2.2660	 3.8466
 2.2650	 3.7699
 2.2640	 3.9120
 2.2630	 3.7268
 2.2620	 3.8923
 2.2610	 3.7853
 2.2600	 3.8133
 2.2590	 3.7835
 2.2580	 3.8613
 2.2570	 3.7919
 2.2560	 3.8258
 2.2550	 3.8171
 2.2540	 3.7786
 2.2530	 3.7200
 2.2520	 3.8738
 2.2510	 3.7255
 2.2500	 3.7974
 2.2490	 3.7074
 2.2480	 3.7428
 2.2470	 3.7609
 2.2460	 3.8728
 2.2450	 3.6998
 2.2440	 3.8380
 2.2430	 3.7449
 2.2420	 3.7718
 2.2410	 3.7707
 2.2400	 3.8384
 2.2390	 3.6815
 2.2380	 3.7335
 2.2370	 3.6923
 2.2360	 3.8171
 2.2350	 3.6700
 2.2340	 3.8835
 2.2330	 3.6748
 2.2320	 3.8197
 2.2310	 3.6076
 2.2300	 3.7404
 2.2290	 3.6984
 2.2280	 3.8071
 2.2270	 3.6283
 2.2260	 3.7675
 2.2250	 3.5780
 2.2240	 3.8568
 2.2230	 3.7029
 2.2220	 3.7894
 2.2210	 3.6254
 2.2200	 3.8012
 2.2190	 3.6134
 2.2180	 3.7650
 2.2170	 3.6921
 2.2160	 3.8065
 2.2150	 3.6654
 2.2140	 3.6841
 2.2130	 3.6375
 2.2120	 3.7728
 2.2110	 3.4427
 2.2100	 3.7796
 2.2090	 3.6258
 2.2080	 3.7001
 2.2070	 3.6354
 2.2060	 3.7003
 2.2050	 3.6492
 2.2040	 3.7466
 2.2030	 3.6570
 2.2020	 3.6844
 2.2010	 3.6491
 2.2000	 3.6807
 2.1990	 3.6311
 2.1980	 3.7062
 2.1970	 3.6359
 2.1960	 3.7186
 2.1950	 3.6798
 2.1940	 3.6978
 2.1930	 3.5378
 2.1920	 3.6297
 2.1910	 3.5646
 2.1900	 3.6565
 2.1890	 3.6406
 2.1880	 3.6634
 2.1870	 3.5543
 2.1860	 3.7076
 2.1850	 3.4935
 2.1840	 3.6764
 2.1830	 3.6416
 2.1820	 3.6087
 2.1810	 3.5678
 2.1800	 3.6409
 2.1790	 3.6690
 2.1780	 3.6590
 2.1770	 3.5697
 2.1760	 3.7197
 2.1750	 3.5972
 2.1740	 3.6561
 2.1730	 3.5824
 2.1720	 3.6823
 2.1710	 3.5954
 2.1700	 3.7163
 2.1690	 3.5972
 2.1680	 3.6301
 2.1670	 3.5514
 2.1660	 3.6345
 2.1650	 3.6518
 2.1640	 3.6880
 2.1630	 3.6255
 2.1620	 3.7145
 2.1610	 3.5339
 2.1600	 3.6317
 2.1590	 3.5952
 2.1580	 3.6530
 2.1570	 3.4672
 2.1560	 3.5639
 2.1550	 3.5566
 2.1540	 3.6607
 2.1530	 3.5878
 2.1520	 3.6217
 2.1510	 3.4771
 2.1500	 3.5332
 2.1490	 3.5415
 2.1480	 3.6344
 2.1470	 3.5188
 2.1460	 3.5864
 2.1450	 3.5551
 2.1440	 3.6543
 2.1430	 3.5224
 2.1420	 3.5787
 2.1410	 3.4834
 2.1400	 3.5787
 2.1390	 3.5535
 2.1380	 3.5011
 2.1370	 3.5541
 2.1360	 3.6424
 2.1350	 3.5001
 2.1340	 3.5027
 2.1330	 3.5262
 2.1320	 3.5207
 2.1310	 3.4846
 2.1300	 3.5896
 2.1290	 3.5012
 2.1280	 3.5594
 2.1270	 3.5248
 2.1260	 3.5598
 2.1250	 3.5343
 2.1240	 3.4973
 2.1230	 3.4681
 2.1220	 3.5282
 2.1210	 3.4205
 2.1200	 3.4484
 2.1190	 3.4603
 2.1180	 3.4544
 2.1170	 3.4779
 2.1160	 3.4640
 2.1150	 3.3733
 2.1140	 3.4401
 2.1130	 3.4500
 2.1120	 3.4858
 2.1110	 3.4497
 2.1100	 3.3868
 2.1090	 3.3826
 2.1080	 3.4660
 2.1070	 3.4439
 2.1060	 3.4299
 2.1050	 3.4277
 2.1040	 3.4430
 2.1030	 3.3891
 2.1020	 3.3793
 2.1010	 3.3133
 2.1000	 3.4220
 2.0990	 3.3688
 2.0980	 3.3559
 2.0970	 3.3469
 2.0960	 3.4130
 2.0950	 3.3210
 2.0940	 3.3072
 2.0930	 3.3463
 2.0920	 3.3476
 2.0910	 3.3160
 2.0900	 3.3471
 2.0890	 3.3675
 2.0880	 3.3788
 2.0870	 3.3299
 2.0860	 3.3023
 2.0850	 3.3321
 2.0840	 3.3267
 2.0830	 3.3147
 2.0820	 3.3466
 2.0810	 3.3126
 2.0800	 3.3408
 2.0790	 3.3643
 2.0780	 3.2886
 2.0770	 3.2465
 2.0760	 3.3175
 2.0750	 3.3389
 2.0740	 3.3051
 2.0730	 3.3239
 2.0720	 3.3278
 2.0710	 3.2866
 2.0700	 3.3062
 2.0690	 3.3276
 2.0680	 3.3392
 2.0670	 3.3211
 2.0660	 3.2522
 2.0650	 3.2687
 2.0640	 3.3274
 2.0630	 3.2912
 2.0620	 3.2845
 2.0610	 3.2690
 2.0600	 3.2738
 2.0590	 3.2834
 2.0580	 3.2782
 2.0570	 3.3248
 2.0560	 3.3182
 2.0550	 3.3345
 2.0540	 3.3088
 2.0530	 3.3070
 2.0520	 3.2552
 2.0510	 3.2250
 2.0500	 3.2463
 2.0490	 3.2561
 2.0480	 3.2755
 2.0470	 3.3130
 2.0460	 3.2165
 2.0450	 3.2176
 2.0440	 3.2582
 2.0430	 3.3157
 2.0420	 3.2367
 2.0410	 3.2344
 2.0400	 3.2058
 2.0390	 3.2791
 2.0380	 3.2328
 2.0370	 3.2633
 2.0360	 3.2291
 2.0350	 3.2102
 2.0340	 3.2532
 2.0330	 3.2700
 2.0320	 3.1512
 2.0310	 3.2059
 2.0300	 3.2328
 2.0290	 3.2228
 2.0280	 3.2071
 2.0270	 3.2373
 2.0260	 3.1907
 2.0250	 3.2202
 2.0240	 3.2089
 2.0230	 3.1978
 2.0220	 3.1181
 2.0210	 3.1883
 2.0200	 3.1633
 2.0190	 3.1889
 2.0180	 3.1867
 2.0170	 3.1849
 2.0160	 3.1609
 2.0150	 3.1447
 2.0140	 3.1453
 2.0130	 3.2160
 2.0120	 3.0955
 2.0110	 3.2101
 2.0100	 3.1612
 2.0090	 3.1216
 2.0080	 3.1220
 2.0070	 3.1652
 2.0060	 3.1150
 2.0050	 3.1966
 2.0040	 3.1454
 2.0030	 3.1541
 2.0020	 3.0916
 2.0010	 3.1777
 2.0000	 3.1391
 1.9990	 3.1319
 1.9980	 3.1197
 1.9970	 3.1799
 1.9960	 3.0736
 1.9950	 3.1755
 1.9940	 3.0212
 1.9930	 3.0925
 1.9920	 3.0933
 1.9910	 3.1163
 1.9900	 3.0501
 1.9890	 3.1556
 1.9880	 3.0919
 1.9870	 3.1685
 1.9860	 3.0177
 1.9850	 3.1205
 1.9840	 3.0622
 1.9830	 3.0876
 1.9820	 3.0896
 1.9810	 3.0805
 1.9800	 3.0668
 1.9790	 3.1048
 1.9780	 2.9609
 1.9770	 3.1022
 1.9760	 2.9748
 1.9750	 3.1279
 1.9740	 2.9142
 1.9730	 3.0672
 1.9720	 3.0074
 1.9710	 3.1359
 1.9700	 3.0225
 1.9690	 3.0536
 1.9680	 2.9981
 1.9670	 3.0759
 1.9660	 3.0128
 1.9650	 3.1020
 1.9640	 3.0058
 1.9630	 3.1320
 1.9620	 2.9186
 1.9610	 3.0804
 1.9600	 2.9767
 1.9590	 3.0053
 1.9580	 3.0015
 1.9570	 3.0636
 1.9560	 2.8930
 1.9550	 3.0298
 1.9540	 2.9655
 1.9530	 3.0683
 1.9520	 2.9298
 1.9510	 2.9510
 1.9500	 2.9180
 1.9490	 3.1137
 1.9480	 2.9588
 1.9470	 3.0603
 1.9460	 2.8954
 1.9450	 3.0026
 1.9440	 3.0199
 1.9430	 3.0662
 1.9420	 2.8278
 1.9410	 3.1494
 1.9400	 2.8760
 1.9390	 2.9792
 1.9380	 2.8871
 1.9370	 3.0281
 1.9360	 2.8708
 1.9350	 2.9702
 1.9340	 2.8493
 1.9330	 3.0418
 1.9320	 2.8453
 1.9310	 2.9000
 1.9300	 2.8646
 1.9290	 3.0309
 1.9280	 2.8953
 1.9270	 3.0111
 1.9260	 2.7398
 1.9250	 3.0302
 1.9240	 2.7850
 1.9230	 2.9448
 1.9220	 2.8220
 1.9210	 2.9335
 1.9200	 2.8187
 1.9190	 2.9118
 1.9180	 2.8332
 1.9170	 2.9544
 1.9160	 2.7671
 1.9150	 3.0232
 1.9140	 2.7970
 1.9130	 2.9312
 1.9120	 2.8393
 1.9110	 2.9707
 1.9100	 2.7397
 1.9090	 2.9757
 1.9080	 2.7927
 1.9070	 2.9322
 1.9060	 2.8229
 1.9050	 2.8749
 1.9040	 2.7356
 1.9030	 2.8903
 1.9020	 2.7320
 1.9010	 2.9069
 1.9000	 2.8416
 1.8990	 2.8639
 1.8980	 2.6485
 1.8970	 2.8204
 1.8960	 2.8664
 1.8950	 2.8525
 1.8940	 2.7607
 1.8930	 2.9188
 1.8920	 2.8077
 1.8910	 2.8270
 1.8900	 2.7344
 1.8890	 2.8944
 1.8880	 2.8230
 1.8870	 2.8421
 1.8860	 2.8074
 1.8850	 2.8389
 1.8840	 2.7496
 1.8830	 2.8067
 1.8820	 2.7418
 1.8810	 2.8939
 1.8800	 2.8157
 1.8790	 2.8644
 1.8780	 2.7602
 1.8770	 2.8135
 1.8760	 2.7949
 1.8750	 2.8451
 1.8740	 2.8108
 1.8730	 2.8456
 1.8720	 2.6911
 1.8710	 2.7780
 1.8700	 2.7174
 1.8690	 2.7859
 1.8680	 2.7452
 1.8670	 2.7999
 1.8660	 2.7447
 1.8650	 2.8087
 1.8640	 2.7870
 1.8630	 2.8066
 1.8620	 2.7380
 1.8610	 2.8028
 1.8600	 2.6332
 1.8590	 2.7856
 1.8580	 2.7449
 1.8570	 2.7878
 1.8560	 2.7868
 1.8550	 2.7741
 1.8540	 2.6500
 1.8530	 2.8118
 1.8520	 2.6956
 1.8510	 2.6851
 1.8500	 2.7140
 1.8490	 2.7409
 1.8480	 2.6890
 1.8470	 2.7050
 1.8460	 2.6807
 1.8450	 2.7661
 1.8440	 2.7272
 1.8430	 2.7291
 1.8420	 2.6150
 1.8410	 2.7056
 1.8400	 2.7152
 1.8390	 2.7267
 1.8380	 2.7060
 1.8370	 2.7005
 1.8360	 2.6266
 1.8350	 2.6690
 1.8340	 2.6484
 1.8330	 2.7039
 1.8320	 2.6697
 1.8310	 2.7057
 1.8300	 2.6175
 1.8290	 2.6505
 1.8280	 2.6571
 1.8270	 2.7239
 1.8260	 2.6491
 1.8250	 2.6394
 1.8240	 2.7020
 1.8230	 2.6989
 1.8220	 2.5850
 1.8210	 2.6256
 1.8200	 2.6350
 1.8190	 2.6652
 1.8180	 2.6585
 1.8170	 2.6164
 1.8160	 2.5618
 1.8150	 2.5601
 1.8140	 2.5470
 1.8130	 2.6230
 1.8120	 2.5772
 1.8110	 2.5733
 1.8100	 2.5975
 1.8090	 2.7072
 1.8080	 2.6323
 1.8070	 2.5835
 1.8060	 2.6189
 1.8050	 2.6046
 1.8040	 2.5873
 1.8030	 2.5854
 1.8020	 2.5561
 1.8010	 2.6109
 1.8000	 2.6326
 1.7990	 2.5904
 1.7980	 2.5913
 1.7970	 2.5767
 1.7960	 2.6054
 1.7950	 2.6150
 1.7940	 2.6135
 1.7930	 2.5783
 1.7920	 2.5502
 1.7910	 2.5964
 1.7900	 2.5581
 1.7890	 2.5907
 1.7880	 2.5925
 1.7870	 2.5430
 1.7860	 2.5231
 1.7850	 2.5318
 1.7840	 2.5608
 1.7830	 2.5498
 1.7820	 2.5195
 1.7810	 2.5086
 1.7800	 2.5149
 1.7790	 2.4975
 1.7780	 2.5019
 1.7770	 2.5312
 1.7760	 2.5726
 1.7750	 2.5256
 1.7740	 2.5239
 1.7730	 2.5509
 1.7720	 2.5541
 1.7710	 2.5111
 1.7700	 2.5233
 1.7690	 2.5065
 1.7680	 2.5040
 1.7670	 2.5405
 1.7660	 2.5492
 1.7650	 2.4895
 1.7640	 2.4416
 1.7630	 2.4168
 1.7620	 2.4674
 1.7610	 2.4755
 1.7600	 2.5245
 1.7590	 2.5082
 1.7580	 2.4799
 1.7570	 2.4452
 1.7560	 2.5193
 1.7550	 2.4463
 1.7540	 2.4496
 1.7530	 2.4559
 1.7520	 2.4710
 1.7510	 2.4282
 1.7500	 2.4881
 1.7490	 2.4277
 1.7480	 2.4133
 1.7470	 2.3924
 1.7460	 2.5046
 1.7450	 2.4610
 1.7440	 2.5148
 1.7430	 2.4198
 1.7420	 2.4914
 1.7410	 2.4068
 1.7400	 2.4577
 1.7390	 2.4502
 1.7380	 2.4866
 1.7370	 2.4223
 1.7360	 2.4101
 1.7350	 2.3503
 1.7340	 2.4104
 1.7330	 2.3622
 1.7320	 2.4143
 1.7310	 2.3166
 1.7300	 2.4142
 1.7290	 2.3379
 1.7280	 2.3929
 1.7270	 2.3987
 1.7260	 2.3864
 1.7250	 2.3904
 1.7240	 2.4570
 1.7230	 2.3333
 1.7220	 2.4341
 1.7210	 2.4152
 1.7200	 2.3718
 1.7190	 2.3775
 1.7180	 2.3994
 1.7170	 2.2997
 1.7160	 2.4543
 1.7150	 2.4024
 1.7140	 2.3903
 1.7130	 2.2796
 1.7120	 2.4114
 1.7110	 2.3722
 1.7100	 2.4306
 1.7090	 2.3058
 1.7080	 2.3820
 1.7070	 2.2190
 1.7060	 2.3489
 1.7050	 2.2300
 1.7040	 2.3549
 1.7030	 2.3232
 1.7020	 2.3418
 1.7010	 2.3126
 1.7000	 2.3416
 1.6990	 2.2811
 1.6980	 2.3318
 1.6970	 2.2554
 1.6960	 2.3099
 1.6950	 2.2765
 1.6940	 2.3637
 1.6930	 2.2619
 1.6920	 2.4047
 1.6910	 2.2764
 1.6900	 2.3339
 1.6890	 2.2808
 1.6880	 2.3086
 1.6870	 2.3516
 1.6860	 2.4200
 1.6850	 2.3300
 1.6840	 2.2946
 1.6830	 2.2584
 1.6820	 2.2664
 1.6810	 2.2586
 1.6800	 2.2506
 1.6790	 2.2140
 1.6780	 2.3955
 1.6770	 2.2148
 1.6760	 2.2556
 1.6750	 2.1149
 1.6740	 2.2312
 1.6730	 2.2187
 1.6720	 2.2829
 1.6710	 2.1769
 1.6700	 2.3824
 1.6690	 2.3878
 1.6680	 2.0999
 1.6670	 2.1998
 1.6660	 2.2711
 1.6650	 2.1701
 1.6640	 2.1794
 1.6630	 2.1856
 1.6620	 2.3041
 1.6610	 2.1897
 1.6600	 2.2662
 1.6590	 2.1335
 1.6580	 2.3176
 1.6570	 2.1702
 1.6560	 2.2351
 1.6550	 2.1764
 1.6540	 2.3293
 1.6530	 2.1257
 1.6520	 2.2630
 1.6510	 2.0883
 1.6500	 2.2783
 1.6490	 2.1397
 1.6480	 2.2507
 1.6470	 2.1424
 1.6460	 2.2372
 1.6450	 2.1182
 1.6440	 2.3492
 1.6430	 2.1254
 1.6420	 2.3036
 1.6410	 1.9396
 1.6400	 2.3159
 1.6390	 2.1123
 1.6380	 2.2080
 1.6370	 2.2248
 1.6360	 2.2035
 1.6350	 2.1958
 1.6340	 2.2168
 1.6330	 2.1885
 1.6320	 2.1981
 1.6310	 2.0008
 1.6300	 2.1736
 1.6290	 2.0654
 1.6280	 2.1517
 1.6270	 2.1103
 1.6260	 2.1111
 1.6250	 2.0468
 1.6240	 2.1508
 1.6230	 2.1135
 1.6220	 2.1765
 1.6210	 2.1057
 1.6200	 2.2313
 1.6190	 2.0804
 1.6180	 2.2114
 1.6170	 2.1466
 1.6160	 2.0936
 1.6150	 2.0416
 1.6140	 2.1008
 1.6130	 2.1323
 1.6120	 2.1589
 1.6110	 2.0821
 1.6100	 2.1535
 1.6090	 2.0572
 1.6080	 2.1640
 1.6070	 2.0963
 1.6060	 2.1127
 1.6050	 2.1381
 1.6040	 2.0554
 1.6030	 2.0885
 1.6020	 2.1364
 1.6010	 2.0520
 1.6000	 2.1036
 1.5990	 2.0749
 1.5980	 2.0318
 1.5970	 2.0830
 1.5960	 2.1421
 1.5950	 1.9613
 1.5940	 2.1093
 1.5930	 2.0530
 1.5920	 2.0604
 1.5910	 1.9958
 1.5900	 2.1173
 1.5890	 2.0790
 1.5880	 2.1369
 1.5870	 2.0591
 1.5860	 2.0687
 1.5850	 1.9969
 1.5840	 2.1185
 1.5830	 1.9689
 1.5820	 2.0303
 1.5810	 2.0027
 1.5800	 2.0309
 1.5790	 2.0052
 1.5780	 2.0651
 1.5770	 2.0704
 1.5760	 2.0677
 1.5750	 2.0500
 1.5740	 1.9987
 1.5730	 1.9092
 1.5720	 2.0368
 1.5710	 1.9996
 1.5700	 2.0193
 1.5690	 2.0248
 1.5680	 1.9981
 1.5670	 1.9927
 1.5660	 2.0550
 1.5650	 2.0069
 1.5640	 2.0416
 1.5630	 2.0073
 1.5620	 2.0461
 1.5610	 1.9315
 1.5600	 1.9424
 1.5590	 1.9252
 1.5580	 1.9881
 1.5570	 1.9677
 1.5560	 2.0527
 1.5550	 1.9520
 1.5540	 2.0048
 1.5530	 1.9942
 1.5520	 2.0634
 1.5510	 2.0196
 1.5500	 2.0300
 1.5490	 1.9419
 1.5480	 1.9292
 1.5470	 1.9563
 1.5460	 1.9872
 1.5450	 1.9963
 1.5440	 2.0136
 1.5430	 1.9540
 1.5420	 1.9282
 1.5410	 1.9441
 1.5400	 1.9721
 1.5390	 1.9548
 1.5380	 1.9299
 1.5370	 1.9544
 1.5360	 1.9735
 1.5350	 1.8997
 1.5340	 1.9686
 1.5330	 1.9863
 1.5320	 1.9709
 1.5310	 1.9287
 1.5300	 1.9357
 1.5290	 1.9482
 1.5280	 1.9643
 1.5270	 1.9059
 1.5260	 1.9665
 1.5250	 1.9551
 1.5240	 1.9648
 1.5230	 1.8659
 1.5220	 1.9156
 1.5210	 1.9489
 1.5200	 1.9358
 1.5190	 1.9146
 1.5180	 1.9218
 1.5170	 1.8962
 1.5160	 1.8868
 1.5150	 1.9504
 1.5140	 1.9336
 1.5130	 1.8506
 1.5120	 1.8818
 1.5110	 1.9051
 1.5100	 1.8689
 1.5090	 1.8744
 1.5080	 1.9177
 1.5070	 1.8669
 1.5060	 1.8651
 1.5050	 1.8766
 1.5040	 1.8694
 1.5030	 1.9003
 1.5020	 1.9453
 1.5010	 1.9557
 1.5000	 1.8344
 1.4990	 1.8227
 1.4980	 1.8989
 1.4970	 1.9022
 1.4960	 1.9234
 1.4950	 1.8992
 1.4940	 1.8743
 1.4930	 1.8779
 1.4920	 1.8607
 1.4910	 1.8782
 1.4900	 1.8850
 1.4890	 1.9128
 1.4880	 1.9070
 1.4870	 1.9052
 1.4860	 1.8523
 1.4850	 1.8248
 1.4840	 1.8240
 1.4830	 1.8199
 1.4820	 1.8407
 1.4810	 1.8352
 1.4800	 1.8648
 1.4790	 1.8891
 1.4780	 1.8132
 1.4770	 1.8154
 1.4760	 1.8312
 1.4750	 1.8256
 1.4740	 1.8287
 1.4730	 1.8517
 1.4720	 1.7843
 1.4710	 1.8302
 1.4700	 1.8559
 1.4690	 1.8757
 1.4680	 1.8024
 1.4670	 1.7930
 1.4660	 1.7952
 1.4650	 1.7916
 1.4640	 1.7647
 1.4630	 1.7509
 1.4620	 1.7668
 1.4610	 1.8314
 1.4600	 1.8365
 1.4590	 1.8393
 1.4580	 1.8300
 1.4570	 1.7832
 1.4560	 1.7987
 1.4550	 1.7569
 1.4540	 1.7980
 1.4530	 1.8137
 1.4520	 1.7996
 1.4510	 1.8760
 1.4500	 1.7959
 1.4490	 1.7583
 1.4480	 1.7735
 1.4470	 1.8360
 1.4460	 1.7400
 1.4450	 1.7510
 1.4440	 1.8063
 1.4430	 1.7506
 1.4420	 1.7408
 1.4410	 1.7702
 1.4400	 1.7381
 1.4390	 1.7239
 1.4380	 1.7301
 1.4370	 1.7719
 1.4360	 1.8076
 1.4350	 1.8379
 1.4340	 1.7487
 1.4330	 1.7253
 1.4320	 1.7200
 1.4310	 1.7526
 1.4300	 1.7659
 1.4290	 1.7593
 1.4280	 1.7382
 1.4270	 1.7351
 1.4260	 1.7100
 1.4250	 1.8015
 1.4240	 1.7821
 1.4230	 1.8314
 1.4220	 1.7529
 1.4210	 1.8319
 1.4200	 1.8156
 1.4190	 1.7301
 1.4180	 1.7383
 1.4170	 1.7936
 1.4160	 1.6821
 1.4150	 1.7404
 1.4140	 1.6601
 1.4130	 1.7602
 1.4120	 1.6921
 1.4110	 1.7957
 1.4100	 1.7574
 1.4090	 1.7772
 1.4080	 1.7007
 1.4070	 1.7802
 1.4060	 1.7344
 1.4050	 1.7354
 1.4040	 1.6542
 1.4030	 1.7324
 1.4020	 1.7772
 1.4010	 1.6990
 1.4000	 1.6123
 1.3990	 1.7000
 1.3980	 1.6499
 1.3970	 1.7497
 1.3960	 1.7008
 1.3950	 1.7764
 1.3940	 1.6136
 1.3930	 1.7958
 1.3920	 1.7156
 1.3910	 1.7982
 1.3900	 1.6688
 1.3890	 1.7845
 1.3880	 1.7416
 1.3870	 1.7658
 1.3860	 1.6770
 1.3850	 1.7197
 1.3840	 1.6343
 1.3830	 1.6072
 1.3820	 1.7234
 1.3810	 1.6407
 1.3800	 1.6604
 1.3790	 1.7384
 1.3780	 1.7032
 1.3770	 1.7841
 1.3760	 1.6751
 1.3750	 1.7426
 1.3740	 1.6046
 1.3730	 1.7464
 1.3720	 1.7214
 1.3710	 1.7054
 1.3700	 1.6474
 1.3690	 1.7303
 1.3680	 1.6253
 1.3670	 1.6834
 1.3660	 1.7240
 1.3650	 1.6941
 1.3640	 1.6317
