Name: Quartz SiO_2
Type: Mineral
Class: Silicate
Subclass: Tectosilicate
Particle Size: Fine
Sample No.: TS-1C
Owner: JPL
Wavelength Range: VSWIR
Origin: USA, South Dakota, Custer County, Custer.
Collection Date: N/A
Description: Rose quartzParticle size was 0-45um.Collected by:  Ward's Original ASTER Spectral Library name was jpl.perkin.mineral.silicate.tectosilicate.fine.ts01c.spectrum.txt
Measurement: Hemispherical reflectance
First Column: X
Second Column: Y
X Units: Wavelength (micrometers)
Y Units:Reflectance (percent)
First X Value:  2.5000
Last X Value:  0.4000
Number of X Values: 2101
Additional Information: mineral.silicate.tectosilicate.fine.vswir.ts-1c.jpl.perkin.ancillary.txt

 2.5000	75.2771
 2.4990	75.1818
 2.4980	75.2030
 2.4970	75.2937
 2.4960	75.4302
 2.4950	75.2696
 2.4940	75.2837
 2.4930	75.4544
 2.4920	75.2553
 2.4910	75.3511
 2.4900	75.3352
 2.4890	75.2691
 2.4880	75.1119
 2.4870	75.3126
 2.4860	75.3652
 2.4850	75.3712
 2.4840	75.3836
 2.4830	75.2162
 2.4820	75.2605
 2.4810	75.5643
 2.4800	75.2522
 2.4790	75.3887
 2.4780	75.3106
 2.4770	75.2441
 2.4760	75.3858
 2.4750	75.5226
 2.4740	75.4663
 2.4730	75.6067
 2.4720	75.3969
 2.4710	75.6511
 2.4700	75.4244
 2.4690	75.6827
 2.4680	75.6308
 2.4670	75.6088
 2.4660	75.4379
 2.4650	75.7525
 2.4640	75.5380
 2.4630	75.7668
 2.4620	75.6677
 2.4610	75.5914
 2.4600	75.6955
 2.4590	75.8148
 2.4580	75.7375
 2.4570	75.7674
 2.4560	75.8090
 2.4550	75.7910
 2.4540	75.7949
 2.4530	75.8143
 2.4520	75.7843
 2.4510	75.8320
 2.4500	75.7590
 2.4490	75.9067
 2.4480	75.7630
 2.4470	75.8304
 2.4460	75.7413
 2.4450	75.8261
 2.4440	75.8161
 2.4430	75.8335
 2.4420	75.9740
 2.4410	75.9076
 2.4400	75.8541
 2.4390	75.9409
 2.4380	75.9058
 2.4370	75.9719
 2.4360	75.9616
 2.4350	75.8974
 2.4340	75.9805
 2.4330	75.8845
 2.4320	75.8622
 2.4310	75.9685
 2.4300	75.9866
 2.4290	76.0432
 2.4280	76.0064
 2.4270	75.9922
 2.4260	76.0533
 2.4250	76.0831
 2.4240	76.1871
 2.4230	76.1677
 2.4220	76.1241
 2.4210	76.1278
 2.4200	76.0583
 2.4190	75.9412
 2.4180	76.0322
 2.4170	76.0816
 2.4160	76.1270
 2.4150	76.1621
 2.4140	76.2267
 2.4130	76.3624
 2.4120	76.2684
 2.4110	76.1954
 2.4100	76.1585
 2.4090	76.3113
 2.4080	76.3132
 2.4070	76.2057
 2.4060	76.1668
 2.4050	76.3115
 2.4040	76.2672
 2.4030	76.2677
 2.4020	76.2195
 2.4010	76.2104
 2.4000	76.1981
 2.3990	76.2812
 2.3980	76.2874
 2.3970	76.2943
 2.3960	76.2938
 2.3950	76.3593
 2.3940	76.4347
 2.3930	76.4010
 2.3920	76.4271
 2.3910	76.4539
 2.3900	76.4883
 2.3890	76.4994
 2.3880	76.4595
 2.3870	76.4538
 2.3860	76.5263
 2.3850	76.5167
 2.3840	76.4652
 2.3830	76.5450
 2.3820	76.5686
 2.3810	76.6392
 2.3800	76.5318
 2.3790	76.4698
 2.3780	76.5143
 2.3770	76.5637
 2.3760	76.6203
 2.3750	76.6690
 2.3740	76.6889
 2.3730	76.7185
 2.3720	76.7515
 2.3710	76.7187
 2.3700	76.6795
 2.3690	76.7266
 2.3680	76.7297
 2.3670	76.6738
 2.3660	76.7390
 2.3650	76.8143
 2.3640	76.8306
 2.3630	76.8772
 2.3620	76.8478
 2.3610	76.8088
 2.3600	76.7779
 2.3590	76.7525
 2.3580	76.7996
 2.3570	76.8815
 2.3560	76.9156
 2.3550	76.8771
 2.3540	76.8982
 2.3530	76.9689
 2.3520	76.9677
 2.3510	76.8925
 2.3500	76.8390
 2.3490	76.8849
 2.3480	76.9459
 2.3470	76.9271
 2.3460	76.9761
 2.3450	76.9856
 2.3440	76.9459
 2.3430	76.9721
 2.3420	76.9700
 2.3410	76.9989
 2.3400	77.0515
 2.3390	77.0421
 2.3380	77.0168
 2.3370	76.9945
 2.3360	76.9980
 2.3350	76.9091
 2.3340	76.8930
 2.3330	76.9590
 2.3320	76.9865
 2.3310	76.9308
 2.3300	76.9648
 2.3290	77.0154
 2.3280	76.9503
 2.3270	76.9618
 2.3260	76.8775
 2.3250	76.8645
 2.3240	76.8896
 2.3230	76.8748
 2.3220	76.8245
 2.3210	76.7860
 2.3200	76.7715
 2.3190	76.7398
 2.3180	76.7332
 2.3170	76.7170
 2.3160	76.7147
 2.3150	76.6661
 2.3140	76.7234
 2.3130	76.7211
 2.3120	76.7022
 2.3110	76.6835
 2.3100	76.7559
 2.3090	76.7567
 2.3080	76.7550
 2.3070	76.6980
 2.3060	76.7947
 2.3050	76.7198
 2.3040	76.7415
 2.3030	76.6961
 2.3020	76.7111
 2.3010	76.7805
 2.3000	76.6996
 2.2990	76.6906
 2.2980	76.7434
 2.2970	76.7497
 2.2960	76.7035
 2.2950	76.6766
 2.2940	76.7343
 2.2930	76.7215
 2.2920	76.7830
 2.2910	76.7213
 2.2900	76.7018
 2.2890	76.6833
 2.2880	76.7278
 2.2870	76.6710
 2.2860	76.6353
 2.2850	76.6632
 2.2840	76.7688
 2.2830	76.7292
 2.2820	76.6587
 2.2810	76.6193
 2.2800	76.6397
 2.2790	76.6247
 2.2780	76.6405
 2.2770	76.7078
 2.2760	76.6682
 2.2750	76.6510
 2.2740	76.6914
 2.2730	76.7333
 2.2720	76.7531
 2.2710	76.6380
 2.2700	76.7224
 2.2690	76.7581
 2.2680	76.6949
 2.2670	76.6298
 2.2660	76.6193
 2.2650	76.6094
 2.2640	76.6481
 2.2630	76.6465
 2.2620	76.6589
 2.2610	76.6576
 2.2600	76.6442
 2.2590	76.6723
 2.2580	76.6839
 2.2570	76.6320
 2.2560	76.6794
 2.2550	76.6338
 2.2540	76.6591
 2.2530	76.5694
 2.2520	76.6412
 2.2510	76.6419
 2.2500	76.6528
 2.2490	76.6692
 2.2480	76.7475
 2.2470	76.6412
 2.2460	76.6329
 2.2450	76.6320
 2.2440	76.6951
 2.2430	76.6390
 2.2420	76.6112
 2.2410	76.6906
 2.2400	76.5706
 2.2390	76.7464
 2.2380	76.7175
 2.2370	76.7405
 2.2360	76.7971
 2.2350	76.7009
 2.2340	76.7136
 2.2330	76.7040
 2.2320	76.7254
 2.2310	76.8247
 2.2300	76.7702
 2.2290	76.7190
 2.2280	76.7145
 2.2270	76.6307
 2.2260	76.6647
 2.2250	76.7557
 2.2240	76.6245
 2.2230	76.7714
 2.2220	76.7832
 2.2210	76.7299
 2.2200	76.8656
 2.2190	76.8011
 2.2180	76.7679
 2.2170	76.8236
 2.2160	76.8208
 2.2150	76.8344
 2.2140	76.9620
 2.2130	76.9282
 2.2120	76.9168
 2.2110	76.8866
 2.2100	76.9351
 2.2090	76.9866
 2.2080	77.0949
 2.2070	76.9326
 2.2060	76.9925
 2.2050	77.0711
 2.2040	77.0548
 2.2030	77.0358
 2.2020	77.1319
 2.2010	77.1874
 2.2000	77.1780
 2.1990	77.1573
 2.1980	77.1424
 2.1970	77.1842
 2.1960	77.2009
 2.1950	77.2359
 2.1940	77.1862
 2.1930	77.2478
 2.1920	77.2515
 2.1910	77.2750
 2.1900	77.2801
 2.1890	77.2726
 2.1880	77.3236
 2.1870	77.3013
 2.1860	77.3233
 2.1850	77.3497
 2.1840	77.3746
 2.1830	77.3783
 2.1820	77.3854
 2.1810	77.4579
 2.1800	77.4959
 2.1790	77.5207
 2.1780	77.4854
 2.1770	77.5568
 2.1760	77.5219
 2.1750	77.5168
 2.1740	77.5395
 2.1730	77.5740
 2.1720	77.6638
 2.1710	77.6267
 2.1700	77.6502
 2.1690	77.6910
 2.1680	77.8122
 2.1670	77.8359
 2.1660	77.8473
 2.1650	77.7454
 2.1640	77.8554
 2.1630	77.8596
 2.1620	77.9535
 2.1610	77.9568
 2.1600	77.9606
 2.1590	78.0007
 2.1580	78.0852
 2.1570	78.0231
 2.1560	78.1155
 2.1550	78.1089
 2.1540	78.1869
 2.1530	78.1262
 2.1520	78.1193
 2.1510	78.1411
 2.1500	78.1542
 2.1490	78.1496
 2.1480	78.2058
 2.1470	78.2219
 2.1460	78.2044
 2.1450	78.1804
 2.1440	78.2341
 2.1430	78.1829
 2.1420	78.2272
 2.1410	78.2254
 2.1400	78.1966
 2.1390	78.2422
 2.1380	78.2244
 2.1370	78.1555
 2.1360	78.2292
 2.1350	78.1416
 2.1340	78.2283
 2.1330	78.1466
 2.1320	78.0334
 2.1310	78.1150
 2.1300	78.0578
 2.1290	78.0218
 2.1280	78.0198
 2.1270	78.0144
 2.1260	77.8851
 2.1250	77.8601
 2.1240	77.8961
 2.1230	77.7813
 2.1220	77.6855
 2.1210	77.7284
 2.1200	77.7089
 2.1190	77.6959
 2.1180	77.5986
 2.1170	77.5930
 2.1160	77.5838
 2.1150	77.5146
 2.1140	77.5339
 2.1130	77.4605
 2.1120	77.4188
 2.1110	77.3219
 2.1100	77.3015
 2.1090	77.3058
 2.1080	77.2732
 2.1070	77.2792
 2.1060	77.2375
 2.1050	77.1587
 2.1040	77.1569
 2.1030	77.1419
 2.1020	77.1068
 2.1010	77.0464
 2.1000	76.9037
 2.0990	76.8825
 2.0980	76.9381
 2.0970	76.9924
 2.0960	76.9882
 2.0950	76.9697
 2.0940	76.9957
 2.0930	76.9908
 2.0920	77.0198
 2.0910	76.9934
 2.0900	77.0917
 2.0890	77.1243
 2.0880	77.0249
 2.0870	77.0655
 2.0860	77.1046
 2.0850	77.0711
 2.0840	77.0677
 2.0830	77.0611
 2.0820	77.1253
 2.0810	77.1405
 2.0800	77.1921
 2.0790	77.1933
 2.0780	77.1454
 2.0770	77.2170
 2.0760	77.2382
 2.0750	77.2189
 2.0740	77.2771
 2.0730	77.2669
 2.0720	77.1944
 2.0710	77.2208
 2.0700	77.2999
 2.0690	77.3064
 2.0680	77.2769
 2.0670	77.2780
 2.0660	77.3314
 2.0650	77.3297
 2.0640	77.3244
 2.0630	77.3799
 2.0620	77.3248
 2.0610	77.3503
 2.0600	77.3848
 2.0590	77.4158
 2.0580	77.4072
 2.0570	77.4206
 2.0560	77.4445
 2.0550	77.4443
 2.0540	77.4697
 2.0530	77.4670
 2.0520	77.4451
 2.0510	77.4477
 2.0500	77.4543
 2.0490	77.5534
 2.0480	77.5774
 2.0470	77.5443
 2.0460	77.5042
 2.0450	77.5721
 2.0440	77.6012
 2.0430	77.6061
 2.0420	77.6270
 2.0410	77.6314
 2.0400	77.5907
 2.0390	77.6018
 2.0380	77.6098
 2.0370	77.6547
 2.0360	77.5843
 2.0350	77.5339
 2.0340	77.5761
 2.0330	77.6032
 2.0320	77.6011
 2.0310	77.5687
 2.0300	77.5934
 2.0290	77.6521
 2.0280	77.6324
 2.0270	77.6113
 2.0260	77.6452
 2.0250	77.6522
 2.0240	77.6407
 2.0230	77.6548
 2.0220	77.6561
 2.0210	77.6388
 2.0200	77.6606
 2.0190	77.6442
 2.0180	77.6066
 2.0170	77.6589
 2.0160	77.6207
 2.0150	77.6149
 2.0140	77.6334
 2.0130	77.5980
 2.0120	77.6112
 2.0110	77.6103
 2.0100	77.5736
 2.0090	77.5818
 2.0080	77.6450
 2.0070	77.5973
 2.0060	77.5299
 2.0050	77.6394
 2.0040	77.6046
 2.0030	77.6342
 2.0020	77.5809
 2.0010	77.6014
 2.0000	77.5365
 1.9990	77.6300
 1.9980	77.5770
 1.9970	77.6030
 1.9960	77.5771
 1.9950	77.6015
 1.9940	77.5039
 1.9930	77.5872
 1.9920	77.4967
 1.9910	77.4895
 1.9900	77.5371
 1.9890	77.5660
 1.9880	77.5256
 1.9870	77.4813
 1.9860	77.4825
 1.9850	77.4984
 1.9840	77.5652
 1.9830	77.5957
 1.9820	77.5752
 1.9810	77.5457
 1.9800	77.5083
 1.9790	77.5237
 1.9780	77.5220
 1.9770	77.6654
 1.9760	77.5098
 1.9750	77.4560
 1.9740	77.5457
 1.9730	77.4944
 1.9720	77.5182
 1.9710	77.5213
 1.9700	77.5141
 1.9690	77.4949
 1.9680	77.5602
 1.9670	77.6017
 1.9660	77.4828
 1.9650	77.4802
 1.9640	77.5015
 1.9630	77.3804
 1.9620	77.5198
 1.9610	77.5813
 1.9600	77.4818
 1.9590	77.5306
 1.9580	77.4357
 1.9570	77.3970
 1.9560	77.4075
 1.9550	77.4627
 1.9540	77.4984
 1.9530	77.4722
 1.9520	77.4383
 1.9510	77.4552
 1.9500	77.4911
 1.9490	77.4701
 1.9480	77.4469
 1.9470	77.4867
 1.9460	77.4169
 1.9450	77.3953
 1.9440	77.4573
 1.9430	77.4346
 1.9420	77.4832
 1.9410	77.4450
 1.9400	77.5781
 1.9390	77.4410
 1.9380	77.4416
 1.9370	77.5280
 1.9360	77.5200
 1.9350	77.5074
 1.9340	77.4952
 1.9330	77.5436
 1.9320	77.4948
 1.9310	77.5786
 1.9300	77.5344
 1.9290	77.4967
 1.9280	77.5769
 1.9270	77.5719
 1.9260	77.4381
 1.9250	77.4822
 1.9240	77.4768
 1.9230	77.5303
 1.9220	77.5038
 1.9210	77.5687
 1.9200	77.5190
 1.9190	77.5170
 1.9180	77.6161
 1.9170	77.5426
 1.9160	77.5409
 1.9150	77.5166
 1.9140	77.4861
 1.9130	77.5921
 1.9120	77.6301
 1.9110	77.6304
 1.9100	77.6680
 1.9090	77.6736
 1.9080	77.7182
 1.9070	77.7408
 1.9060	77.5603
 1.9050	77.7313
 1.9040	77.6951
 1.9030	77.6851
 1.9020	77.6253
 1.9010	77.7484
 1.9000	77.7738
 1.8990	77.7390
 1.8980	77.7823
 1.8970	77.8331
 1.8960	77.9109
 1.8950	77.8647
 1.8940	77.8344
 1.8930	77.9315
 1.8920	77.9487
 1.8910	77.9389
 1.8900	77.9327
 1.8890	77.9624
 1.8880	77.9868
 1.8870	78.0125
 1.8860	78.0285
 1.8850	78.0251
 1.8840	78.0415
 1.8830	78.0168
 1.8820	78.0225
 1.8810	78.1226
 1.8800	78.0710
 1.8790	78.0832
 1.8780	78.0777
 1.8770	78.1936
 1.8760	78.1887
 1.8750	78.2379
 1.8740	78.1383
 1.8730	78.1959
 1.8720	78.1331
 1.8710	78.1668
 1.8700	78.1674
 1.8690	78.2105
 1.8680	78.1983
 1.8670	78.2329
 1.8660	78.2252
 1.8650	78.2020
 1.8640	78.2097
 1.8630	78.2941
 1.8620	78.2401
 1.8610	78.2626
 1.8600	78.2235
 1.8590	78.1825
 1.8580	78.1958
 1.8570	78.2006
 1.8560	78.1987
 1.8550	78.1860
 1.8540	78.2284
 1.8530	78.2639
 1.8520	78.2504
 1.8510	78.3120
 1.8500	78.3288
 1.8490	78.2817
 1.8480	78.2595
 1.8470	78.1945
 1.8460	78.2704
 1.8450	78.2445
 1.8440	78.2419
 1.8430	78.3030
 1.8420	78.3372
 1.8410	78.2539
 1.8400	78.2718
 1.8390	78.3133
 1.8380	78.3257
 1.8370	78.2977
 1.8360	78.2544
 1.8350	78.2085
 1.8340	78.2590
 1.8330	78.3244
 1.8320	78.2977
 1.8310	78.3835
 1.8300	78.3865
 1.8290	78.3145
 1.8280	78.2947
 1.8270	78.3424
 1.8260	78.3223
 1.8250	78.3499
 1.8240	78.3433
 1.8230	78.3527
 1.8220	78.3676
 1.8210	78.3739
 1.8200	78.3373
 1.8190	78.3391
 1.8180	78.3525
 1.8170	78.3366
 1.8160	78.3088
 1.8150	78.3128
 1.8140	78.3168
 1.8130	78.3264
 1.8120	78.3554
 1.8110	78.3972
 1.8100	78.4087
 1.8090	78.3954
 1.8080	78.3671
 1.8070	78.3853
 1.8060	78.3715
 1.8050	78.3588
 1.8040	78.4033
 1.8030	78.4384
 1.8020	78.4461
 1.8010	78.4452
 1.8000	78.4357
 1.7990	78.4198
 1.7980	78.4127
 1.7970	78.4046
 1.7960	78.4138
 1.7950	78.4318
 1.7940	78.4068
 1.7930	78.3873
 1.7920	78.3952
 1.7910	78.4406
 1.7900	78.4228
 1.7890	78.4079
 1.7880	78.3891
 1.7870	78.3435
 1.7860	78.4186
 1.7850	78.4265
 1.7840	78.4135
 1.7830	78.4270
 1.7820	78.3598
 1.7810	78.3427
 1.7800	78.4128
 1.7790	78.3853
 1.7780	78.3496
 1.7770	78.3675
 1.7760	78.3352
 1.7750	78.3405
 1.7740	78.3625
 1.7730	78.3527
 1.7720	78.3646
 1.7710	78.3576
 1.7700	78.4022
 1.7690	78.3763
 1.7680	78.3030
 1.7670	78.3198
 1.7660	78.3669
 1.7650	78.3920
 1.7640	78.3712
 1.7630	78.3285
 1.7620	78.3693
 1.7610	78.3571
 1.7600	78.3560
 1.7590	78.2983
 1.7580	78.3004
 1.7570	78.2878
 1.7560	78.2792
 1.7550	78.3191
 1.7540	78.3076
 1.7530	78.2467
 1.7520	78.2800
 1.7510	78.3286
 1.7500	78.3585
 1.7490	78.3543
 1.7480	78.3209
 1.7470	78.3226
 1.7460	78.3268
 1.7450	78.3252
 1.7440	78.3187
 1.7430	78.3534
 1.7420	78.3238
 1.7410	78.3826
 1.7400	78.4002
 1.7390	78.3824
 1.7380	78.3774
 1.7370	78.4032
 1.7360	78.3812
 1.7350	78.3418
 1.7340	78.3693
 1.7330	78.4112
 1.7320	78.3952
 1.7310	78.3917
 1.7300	78.4476
 1.7290	78.4402
 1.7280	78.4397
 1.7270	78.4535
 1.7260	78.4066
 1.7250	78.4330
 1.7240	78.4854
 1.7230	78.4415
 1.7220	78.3874
 1.7210	78.3942
 1.7200	78.3835
 1.7190	78.4397
 1.7180	78.4099
 1.7170	78.4179
 1.7160	78.3351
 1.7150	78.2933
 1.7140	78.3887
 1.7130	78.3777
 1.7120	78.4246
 1.7110	78.4309
 1.7100	78.3354
 1.7090	78.3087
 1.7080	78.4309
 1.7070	78.4148
 1.7060	78.3643
 1.7050	78.3065
 1.7040	78.3123
 1.7030	78.3144
 1.7020	78.4058
 1.7010	78.3591
 1.7000	78.3001
 1.6990	78.3686
 1.6980	78.3813
 1.6970	78.3761
 1.6960	78.3309
 1.6950	78.3076
 1.6940	78.3350
 1.6930	78.3471
 1.6920	78.3378
 1.6910	78.3868
 1.6900	78.3777
 1.6890	78.3482
 1.6880	78.3553
 1.6870	78.3757
 1.6860	78.4054
 1.6850	78.3693
 1.6840	78.4326
 1.6830	78.3529
 1.6820	78.3403
 1.6810	78.3647
 1.6800	78.3430
 1.6790	78.3872
 1.6780	78.3901
 1.6770	78.4699
 1.6760	78.3500
 1.6750	78.3836
 1.6740	78.3800
 1.6730	78.4226
 1.6720	78.3923
 1.6710	78.3604
 1.6700	78.4256
 1.6690	78.4138
 1.6680	78.2894
 1.6670	78.3212
 1.6660	78.3246
 1.6650	78.3986
 1.6640	78.4159
 1.6630	78.4008
 1.6620	78.4400
 1.6610	78.4414
 1.6600	78.4020
 1.6590	78.4287
 1.6580	78.4949
 1.6570	78.4068
 1.6560	78.3896
 1.6550	78.3742
 1.6540	78.3895
 1.6530	78.4070
 1.6520	78.5279
 1.6510	78.3297
 1.6500	78.4807
 1.6490	78.4523
 1.6480	78.5084
 1.6470	78.3557
 1.6460	78.4145
 1.6450	78.3316
 1.6440	78.4904
 1.6430	78.4743
 1.6420	78.4986
 1.6410	78.3868
 1.6400	78.4340
 1.6390	78.4396
 1.6380	78.4487
 1.6370	78.4529
 1.6360	78.5461
 1.6350	78.5256
 1.6340	78.4103
 1.6330	78.4858
 1.6320	78.4127
 1.6310	78.3706
 1.6300	78.4525
 1.6290	78.5100
 1.6280	78.5239
 1.6270	78.3282
 1.6260	78.4686
 1.6250	78.4734
 1.6240	78.5196
 1.6230	78.5080
 1.6220	78.5559
 1.6210	78.5788
 1.6200	78.5069
 1.6190	78.5110
 1.6180	78.4675
 1.6170	78.4562
 1.6160	78.4470
 1.6150	78.4838
 1.6140	78.5305
 1.6130	78.5329
 1.6120	78.5486
 1.6110	78.5196
 1.6100	78.6383
 1.6090	78.5683
 1.6080	78.5937
 1.6070	78.4494
 1.6060	78.6198
 1.6050	78.5662
 1.6040	78.5875
 1.6030	78.5092
 1.6020	78.4854
 1.6010	78.5734
 1.6000	78.5809
 1.5990	78.4581
 1.5980	78.5686
 1.5970	78.6894
 1.5960	78.6102
 1.5950	78.4900
 1.5940	78.6525
 1.5930	78.6323
 1.5920	78.6283
 1.5910	78.5850
 1.5900	78.5425
 1.5890	78.6216
 1.5880	78.5626
 1.5870	78.5017
 1.5860	78.4568
 1.5850	78.5448
 1.5840	78.6141
 1.5830	78.5621
 1.5820	78.6039
 1.5810	78.6029
 1.5800	78.5582
 1.5790	78.5821
 1.5780	78.5521
 1.5770	78.5202
 1.5760	78.5445
 1.5750	78.5400
 1.5740	78.4873
 1.5730	78.5654
 1.5720	78.6104
 1.5710	78.5988
 1.5700	78.6310
 1.5690	78.5633
 1.5680	78.5464
 1.5670	78.5488
 1.5660	78.5899
 1.5650	78.5575
 1.5640	78.5677
 1.5630	78.5106
 1.5620	78.5598
 1.5610	78.5694
 1.5600	78.5575
 1.5590	78.4400
 1.5580	78.4727
 1.5570	78.4726
 1.5560	78.4846
 1.5550	78.4649
 1.5540	78.5100
 1.5530	78.4935
 1.5520	78.4921
 1.5510	78.4592
 1.5500	78.4930
 1.5490	78.5203
 1.5480	78.5398
 1.5470	78.4221
 1.5460	78.4641
 1.5450	78.5035
 1.5440	78.5505
 1.5430	78.5209
 1.5420	78.5101
 1.5410	78.4982
 1.5400	78.4987
 1.5390	78.4933
 1.5380	78.5302
 1.5370	78.5285
 1.5360	78.4877
 1.5350	78.4787
 1.5340	78.5848
 1.5330	78.6164
 1.5320	78.5815
 1.5310	78.4834
 1.5300	78.4993
 1.5290	78.5139
 1.5280	78.5349
 1.5270	78.4559
 1.5260	78.4412
 1.5250	78.4637
 1.5240	78.4695
 1.5230	78.4447
 1.5220	78.5000
 1.5210	78.5522
 1.5200	78.5339
 1.5190	78.5175
 1.5180	78.5023
 1.5170	78.4784
 1.5160	78.4504
 1.5150	78.4870
 1.5140	78.4875
 1.5130	78.4505
 1.5120	78.4934
 1.5110	78.5315
 1.5100	78.5443
 1.5090	78.4888
 1.5080	78.4877
 1.5070	78.5000
 1.5060	78.4873
 1.5050	78.5364
 1.5040	78.5513
 1.5030	78.5461
 1.5020	78.5427
 1.5010	78.4920
 1.5000	78.5014
 1.4990	78.5354
 1.4980	78.5070
 1.4970	78.5194
 1.4960	78.5269
 1.4950	78.5382
 1.4940	78.5360
 1.4930	78.4873
 1.4920	78.4977
 1.4910	78.5147
 1.4900	78.4803
 1.4890	78.5074
 1.4880	78.4619
 1.4870	78.4642
 1.4860	78.4919
 1.4850	78.4637
 1.4840	78.4566
 1.4830	78.4943
 1.4820	78.4961
 1.4810	78.4616
 1.4800	78.4475
 1.4790	78.4385
 1.4780	78.4498
 1.4770	78.4895
 1.4760	78.5198
 1.4750	78.5836
 1.4740	78.5813
 1.4730	78.5682
 1.4720	78.5148
 1.4710	78.4728
 1.4700	78.4566
 1.4690	78.4591
 1.4680	78.4217
 1.4670	78.4473
 1.4660	78.4809
 1.4650	78.4687
 1.4640	78.4232
 1.4630	78.4417
 1.4620	78.3733
 1.4610	78.4194
 1.4600	78.4566
 1.4590	78.5145
 1.4580	78.4818
 1.4570	78.4793
 1.4560	78.4897
 1.4550	78.5150
 1.4540	78.4803
 1.4530	78.4916
 1.4520	78.4577
 1.4510	78.4814
 1.4500	78.4850
 1.4490	78.5816
 1.4480	78.5220
 1.4470	78.5702
 1.4460	78.5268
 1.4450	78.4720
 1.4440	78.4334
 1.4430	78.5012
 1.4420	78.4859
 1.4410	78.4317
 1.4400	78.4707
 1.4390	78.4753
 1.4380	78.5080
 1.4370	78.4673
 1.4360	78.4055
 1.4350	78.4707
 1.4340	78.4835
 1.4330	78.5336
 1.4320	78.5108
 1.4310	78.4436
 1.4300	78.4575
 1.4290	78.3992
 1.4280	78.4283
 1.4270	78.4472
 1.4260	78.4004
 1.4250	78.3427
 1.4240	78.3878
 1.4230	78.3141
 1.4220	78.3703
 1.4210	78.3523
 1.4200	78.3170
 1.4190	78.3135
 1.4180	78.3402
 1.4170	78.2977
 1.4160	78.3389
 1.4150	78.4004
 1.4140	78.4136
 1.4130	78.3722
 1.4120	78.2890
 1.4110	78.3185
 1.4100	78.2863
 1.4090	78.2691
 1.4080	78.2948
 1.4070	78.3786
 1.4060	78.3189
 1.4050	78.3595
 1.4040	78.3347
 1.4030	78.3312
 1.4020	78.2723
 1.4010	78.2961
 1.4000	78.2421
 1.3990	78.3382
 1.3980	78.3338
 1.3970	78.4448
 1.3960	78.4080
 1.3950	78.3810
 1.3940	78.3183
 1.3930	78.3980
 1.3920	78.4191
 1.3910	78.5066
 1.3900	78.4891
 1.3890	78.4788
 1.3880	78.4307
 1.3870	78.4739
 1.3860	78.3801
 1.3850	78.4347
 1.3840	78.4100
 1.3830	78.5057
 1.3820	78.3849
 1.3810	78.4431
 1.3800	78.3738
 1.3790	78.4378
 1.3780	78.4923
 1.3770	78.5568
 1.3760	78.4117
 1.3750	78.4261
 1.3740	78.3802
 1.3730	78.3937
 1.3720	78.4111
 1.3710	78.3943
 1.3700	78.5033
 1.3690	78.4061
 1.3680	78.4219
 1.3670	78.3810
