Name: Titanite (Sphene) CaTiSiO_5
Type: Mineral
Class: Silicate
Subclass: Nesosilicate
Particle Size: Coarse
Sample No.: NS-7A
Owner: JPL
Wavelength Range: VSWIR
Origin: Brazil, Minas Gerais, Capelinha.
Collection Date: N/A
Description: Particle size was 125-500um.Collected by:  JPL Original ASTER Spectral Library name was jpl.perkin.mineral.silicate.nesosilicate.coarse.ns07a.spectrum.txt
Measurement: Hemispherical reflectance
First Column: X
Second Column: Y
X Units: Wavelength (micrometers)
Y Units:Reflectance (percent)
First X Value:  2.5000
Last X Value:  0.4000
Number of X Values: 2101
Additional Information: mineral.silicate.nesosilicate.coarse.vswir.ns-7a.jpl.perkin.ancillary.txt

 2.5000	46.0069
 2.4990	45.8805
 2.4980	45.7173
 2.4970	45.9447
 2.4960	45.5985
 2.4950	45.8642
 2.4940	45.4968
 2.4930	45.6586
 2.4920	45.6628
 2.4910	45.8614
 2.4900	45.6122
 2.4890	45.8737
 2.4880	45.7382
 2.4870	46.0377
 2.4860	45.9611
 2.4850	46.2524
 2.4840	46.1942
 2.4830	46.3324
 2.4820	46.5317
 2.4810	46.7971
 2.4800	46.9538
 2.4790	46.9583
 2.4780	47.0198
 2.4770	47.2194
 2.4760	47.3127
 2.4750	47.7558
 2.4740	47.7808
 2.4730	48.1387
 2.4720	48.3072
 2.4710	48.4819
 2.4700	48.6415
 2.4690	48.7213
 2.4680	49.0384
 2.4670	49.1183
 2.4660	49.3235
 2.4650	49.5434
 2.4640	49.5973
 2.4630	49.8775
 2.4620	49.8965
 2.4610	50.1706
 2.4600	50.3446
 2.4590	50.4722
 2.4580	50.5967
 2.4570	50.7620
 2.4560	50.7513
 2.4550	51.1464
 2.4540	51.1465
 2.4530	51.2240
 2.4520	51.3087
 2.4510	51.4545
 2.4500	51.5618
 2.4490	51.6732
 2.4480	51.6922
 2.4470	51.8084
 2.4460	51.8272
 2.4450	51.9088
 2.4440	51.7913
 2.4430	51.8833
 2.4420	51.7748
 2.4410	51.7037
 2.4400	51.5740
 2.4390	51.4912
 2.4380	51.2272
 2.4370	51.0395
 2.4360	50.7235
 2.4350	50.5715
 2.4340	50.1950
 2.4330	49.9187
 2.4320	49.4478
 2.4310	49.0856
 2.4300	48.6024
 2.4290	47.9501
 2.4280	47.4801
 2.4270	46.9737
 2.4260	46.3024
 2.4250	45.7027
 2.4240	45.0650
 2.4230	44.3725
 2.4220	43.6673
 2.4210	43.0333
 2.4200	42.2711
 2.4190	41.5541
 2.4180	40.8667
 2.4170	40.2305
 2.4160	39.4453
 2.4150	38.8177
 2.4140	38.1661
 2.4130	37.5124
 2.4120	36.8840
 2.4110	36.2801
 2.4100	35.8083
 2.4090	35.3342
 2.4080	34.7737
 2.4070	34.4755
 2.4060	34.0212
 2.4050	33.7886
 2.4040	33.4699
 2.4030	33.3482
 2.4020	33.1781
 2.4010	33.0406
 2.4000	32.9641
 2.3990	33.0216
 2.3980	33.1130
 2.3970	33.3087
 2.3960	33.5485
 2.3950	33.8726
 2.3940	34.2404
 2.3930	34.7419
 2.3920	35.2004
 2.3910	35.8417
 2.3900	36.5491
 2.3890	37.2829
 2.3880	38.0521
 2.3870	38.9338
 2.3860	39.7726
 2.3850	40.7401
 2.3840	41.6576
 2.3830	42.6251
 2.3820	43.5979
 2.3810	44.6065
 2.3800	45.5874
 2.3790	46.6015
 2.3780	47.5817
 2.3770	48.5674
 2.3760	49.5199
 2.3750	50.4210
 2.3740	51.3227
 2.3730	52.1445
 2.3720	52.8888
 2.3710	53.6598
 2.3700	54.3585
 2.3690	55.0129
 2.3680	55.6037
 2.3670	56.1583
 2.3660	56.7121
 2.3650	57.2109
 2.3640	57.6779
 2.3630	58.0923
 2.3620	58.4572
 2.3610	58.7907
 2.3600	59.0390
 2.3590	59.2688
 2.3580	59.5371
 2.3570	59.7774
 2.3560	59.9737
 2.3550	60.1238
 2.3540	60.2953
 2.3530	60.4256
 2.3520	60.5590
 2.3510	60.7244
 2.3500	60.7974
 2.3490	60.8194
 2.3480	60.8832
 2.3470	60.9408
 2.3460	60.9603
 2.3450	61.0034
 2.3440	60.9985
 2.3430	60.9284
 2.3420	60.9444
 2.3410	60.9559
 2.3400	60.9027
 2.3390	60.8496
 2.3380	60.7989
 2.3370	60.7524
 2.3360	60.6292
 2.3350	60.5402
 2.3340	60.4361
 2.3330	60.2184
 2.3320	60.1259
 2.3310	59.9820
 2.3300	59.7706
 2.3290	59.6062
 2.3280	59.4840
 2.3270	59.2484
 2.3260	59.0228
 2.3250	58.7568
 2.3240	58.4956
 2.3230	58.2363
 2.3220	57.9931
 2.3210	57.6712
 2.3200	57.4116
 2.3190	57.0662
 2.3180	56.7759
 2.3170	56.4516
 2.3160	56.1848
 2.3150	55.8240
 2.3140	55.5883
 2.3130	55.2762
 2.3120	54.9965
 2.3110	54.7172
 2.3100	54.3957
 2.3090	54.0900
 2.3080	53.9177
 2.3070	53.6887
 2.3060	53.4773
 2.3050	53.2427
 2.3040	53.0984
 2.3030	52.9159
 2.3020	52.7921
 2.3010	52.7035
 2.3000	52.6594
 2.2990	52.5517
 2.2980	52.4898
 2.2970	52.4863
 2.2960	52.4897
 2.2950	52.4603
 2.2940	52.5142
 2.2930	52.4528
 2.2920	52.5225
 2.2910	52.4904
 2.2900	52.5331
 2.2890	52.5015
 2.2880	52.4292
 2.2870	52.3677
 2.2860	52.2975
 2.2850	52.1417
 2.2840	52.1110
 2.2830	51.9127
 2.2820	51.6474
 2.2810	51.3770
 2.2800	51.1281
 2.2790	50.7678
 2.2780	50.4454
 2.2770	49.9531
 2.2760	49.4661
 2.2750	49.0072
 2.2740	48.4717
 2.2730	47.8870
 2.2720	47.3736
 2.2710	46.8352
 2.2700	46.3134
 2.2690	45.7016
 2.2680	45.2985
 2.2670	44.7971
 2.2660	44.3861
 2.2650	44.0183
 2.2640	43.8191
 2.2630	43.6538
 2.2620	43.6544
 2.2610	43.5685
 2.2600	43.6011
 2.2590	43.7515
 2.2580	44.0534
 2.2570	44.3105
 2.2560	44.6478
 2.2550	45.0185
 2.2540	45.4563
 2.2530	45.8052
 2.2520	46.2167
 2.2510	46.6066
 2.2500	46.9794
 2.2490	47.3433
 2.2480	47.5562
 2.2470	47.7284
 2.2460	48.0320
 2.2450	48.0935
 2.2440	48.2935
 2.2430	48.3298
 2.2420	48.4332
 2.2410	48.4095
 2.2400	48.5254
 2.2390	48.3729
 2.2380	48.4024
 2.2370	48.2699
 2.2360	48.2253
 2.2350	48.0926
 2.2340	48.0559
 2.2330	47.8388
 2.2320	47.9020
 2.2310	47.5994
 2.2300	47.5876
 2.2290	47.3997
 2.2280	47.3656
 2.2270	47.1340
 2.2260	47.1284
 2.2250	47.0088
 2.2240	47.0095
 2.2230	46.9108
 2.2220	47.0171
 2.2210	46.8834
 2.2200	46.9615
 2.2190	46.9057
 2.2180	46.9508
 2.2170	46.9324
 2.2160	46.8104
 2.2150	46.6430
 2.2140	46.5065
 2.2130	46.2369
 2.2120	46.0553
 2.2110	45.4428
 2.2100	44.9844
 2.2090	44.2912
 2.2080	43.7978
 2.2070	43.1019
 2.2060	42.4934
 2.2050	41.6212
 2.2040	41.0600
 2.2030	40.5143
 2.2020	40.0353
 2.2010	39.6777
 2.2000	39.6572
 2.1990	39.5950
 2.1980	39.9477
 2.1970	40.3018
 2.1960	40.9207
 2.1950	41.6552
 2.1940	42.6155
 2.1930	43.6302
 2.1920	44.8199
 2.1910	45.9470
 2.1900	47.2508
 2.1890	48.5497
 2.1880	49.8229
 2.1870	50.9146
 2.1860	52.0713
 2.1850	53.1069
 2.1840	54.1853
 2.1830	55.1502
 2.1820	56.1226
 2.1810	56.9623
 2.1800	57.7826
 2.1790	58.4479
 2.1780	59.1531
 2.1770	59.8663
 2.1760	60.4668
 2.1750	61.0454
 2.1740	61.5021
 2.1730	62.0339
 2.1720	62.4643
 2.1710	62.8531
 2.1700	63.2235
 2.1690	63.5492
 2.1680	63.8762
 2.1670	64.0932
 2.1660	64.3988
 2.1650	64.6214
 2.1640	64.8191
 2.1630	65.0245
 2.1620	65.2425
 2.1610	65.4534
 2.1600	65.5759
 2.1590	65.7077
 2.1580	65.9157
 2.1570	65.9723
 2.1560	66.1503
 2.1550	66.2698
 2.1540	66.4522
 2.1530	66.5857
 2.1520	66.6980
 2.1510	66.7726
 2.1500	66.9089
 2.1490	66.9331
 2.1480	66.9673
 2.1470	67.1097
 2.1460	67.2404
 2.1450	67.3001
 2.1440	67.3034
 2.1430	67.4014
 2.1420	67.3937
 2.1410	67.4628
 2.1400	67.4981
 2.1390	67.5485
 2.1380	67.5247
 2.1370	67.5815
 2.1360	67.6537
 2.1350	67.6196
 2.1340	67.5882
 2.1330	67.5585
 2.1320	67.6346
 2.1310	67.6494
 2.1300	67.6175
 2.1290	67.5796
 2.1280	67.6132
 2.1270	67.5255
 2.1260	67.5085
 2.1250	67.4968
 2.1240	67.5377
 2.1230	67.5192
 2.1220	67.4457
 2.1210	67.3910
 2.1200	67.3701
 2.1190	67.3575
 2.1180	67.3509
 2.1170	67.2849
 2.1160	67.2397
 2.1150	67.2102
 2.1140	67.2053
 2.1130	67.1855
 2.1120	67.1305
 2.1110	67.1000
 2.1100	67.1271
 2.1090	67.0792
 2.1080	67.0345
 2.1070	66.9494
 2.1060	66.9243
 2.1050	66.8863
 2.1040	66.8563
 2.1030	66.8420
 2.1020	66.7882
 2.1010	66.7202
 2.1000	66.7339
 2.0990	66.7284
 2.0980	66.6798
 2.0970	66.6901
 2.0960	66.7251
 2.0950	66.6874
 2.0940	66.7091
 2.0930	66.7122
 2.0920	66.6974
 2.0910	66.7172
 2.0900	66.7277
 2.0890	66.7099
 2.0880	66.6875
 2.0870	66.6505
 2.0860	66.6423
 2.0850	66.6440
 2.0840	66.6383
 2.0830	66.6523
 2.0820	66.6154
 2.0810	66.5848
 2.0800	66.6252
 2.0790	66.5703
 2.0780	66.5834
 2.0770	66.5893
 2.0760	66.5020
 2.0750	66.4927
 2.0740	66.5271
 2.0730	66.4888
 2.0720	66.4901
 2.0710	66.4675
 2.0700	66.4558
 2.0690	66.4942
 2.0680	66.4866
 2.0670	66.4680
 2.0660	66.4004
 2.0650	66.4216
 2.0640	66.4520
 2.0630	66.4208
 2.0620	66.4852
 2.0610	66.5150
 2.0600	66.4267
 2.0590	66.3689
 2.0580	66.3804
 2.0570	66.3915
 2.0560	66.4116
 2.0550	66.4134
 2.0540	66.4253
 2.0530	66.4430
 2.0520	66.4555
 2.0510	66.4752
 2.0500	66.4428
 2.0490	66.4569
 2.0480	66.4786
 2.0470	66.4416
 2.0460	66.4548
 2.0450	66.4985
 2.0440	66.5366
 2.0430	66.6108
 2.0420	66.5493
 2.0410	66.5260
 2.0400	66.5218
 2.0390	66.5056
 2.0380	66.4921
 2.0370	66.5202
 2.0360	66.5578
 2.0350	66.5650
 2.0340	66.5140
 2.0330	66.4816
 2.0320	66.4595
 2.0310	66.4793
 2.0300	66.4745
 2.0290	66.4702
 2.0280	66.4640
 2.0270	66.5236
 2.0260	66.4526
 2.0250	66.4481
 2.0240	66.5517
 2.0230	66.5523
 2.0220	66.5342
 2.0210	66.5538
 2.0200	66.5996
 2.0190	66.6005
 2.0180	66.5986
 2.0170	66.5860
 2.0160	66.6131
 2.0150	66.6755
 2.0140	66.6250
 2.0130	66.5600
 2.0120	66.5603
 2.0110	66.6633
 2.0100	66.5838
 2.0090	66.5807
 2.0080	66.4882
 2.0070	66.5504
 2.0060	66.5746
 2.0050	66.5235
 2.0040	66.4494
 2.0030	66.4851
 2.0020	66.4789
 2.0010	66.4736
 2.0000	66.4221
 1.9990	66.3977
 1.9980	66.3819
 1.9970	66.3749
 1.9960	66.2936
 1.9950	66.3031
 1.9940	66.3047
 1.9930	66.2278
 1.9920	66.0884
 1.9910	66.1869
 1.9900	66.1313
 1.9890	66.1911
 1.9880	66.0825
 1.9870	66.0868
 1.9860	66.0150
 1.9850	66.0687
 1.9840	66.0124
 1.9830	66.0240
 1.9820	65.8844
 1.9810	65.9433
 1.9800	65.8195
 1.9790	65.8619
 1.9780	65.7638
 1.9770	65.7145
 1.9760	65.7179
 1.9750	65.6672
 1.9740	65.5840
 1.9730	65.5387
 1.9720	65.5299
 1.9710	65.5257
 1.9700	65.5209
 1.9690	65.4738
 1.9680	65.4467
 1.9670	65.3492
 1.9660	65.4046
 1.9650	65.3294
 1.9640	65.3276
 1.9630	65.2852
 1.9620	65.1637
 1.9610	65.2730
 1.9600	65.1613
 1.9590	65.1898
 1.9580	65.1602
 1.9570	65.1413
 1.9560	65.1661
 1.9550	65.1143
 1.9540	65.0768
 1.9530	65.0182
 1.9520	65.1064
 1.9510	65.0703
 1.9500	65.0347
 1.9490	64.9898
 1.9480	64.9537
 1.9470	64.9889
 1.9460	64.8794
 1.9450	64.8956
 1.9440	64.9521
 1.9430	64.8945
 1.9420	64.7647
 1.9410	64.8995
 1.9400	64.7566
 1.9390	64.7873
 1.9380	64.7153
 1.9370	64.7791
 1.9360	64.6050
 1.9350	64.6141
 1.9340	64.6231
 1.9330	64.6357
 1.9320	64.5503
 1.9310	64.5842
 1.9300	64.4984
 1.9290	64.5366
 1.9280	64.6153
 1.9270	64.5214
 1.9260	64.4124
 1.9250	64.6202
 1.9240	64.4270
 1.9230	64.4970
 1.9220	64.4614
 1.9210	64.4409
 1.9200	64.4422
 1.9190	64.4032
 1.9180	64.2967
 1.9170	64.2835
 1.9160	64.2941
 1.9150	64.2761
 1.9140	64.2081
 1.9130	64.1671
 1.9120	64.0692
 1.9110	64.0698
 1.9100	64.1013
 1.9090	64.0817
 1.9080	64.0677
 1.9070	64.0321
 1.9060	64.1025
 1.9050	64.1915
 1.9040	64.1664
 1.9030	64.1448
 1.9020	64.2255
 1.9010	64.2189
 1.9000	64.2754
 1.8990	64.3158
 1.8980	64.2850
 1.8970	64.4077
 1.8960	64.4668
 1.8950	64.4023
 1.8940	64.4635
 1.8930	64.5167
 1.8920	64.4771
 1.8910	64.6175
 1.8900	64.5514
 1.8890	64.5937
 1.8880	64.5345
 1.8870	64.6299
 1.8860	64.6074
 1.8850	64.6331
 1.8840	64.5854
 1.8830	64.6291
 1.8820	64.6256
 1.8810	64.6121
 1.8800	64.6356
 1.8790	64.6821
 1.8780	64.5955
 1.8770	64.6220
 1.8760	64.5345
 1.8750	64.5276
 1.8740	64.5095
 1.8730	64.4382
 1.8720	64.4063
 1.8710	64.3795
 1.8700	64.3876
 1.8690	64.3459
 1.8680	64.2488
 1.8670	64.3155
 1.8660	64.3167
 1.8650	64.3937
 1.8640	64.3084
 1.8630	64.2938
 1.8620	64.2748
 1.8610	64.3198
 1.8600	64.2813
 1.8590	64.3034
 1.8580	64.2044
 1.8570	64.1809
 1.8560	64.0896
 1.8550	64.1297
 1.8540	64.1135
 1.8530	64.1187
 1.8520	64.1087
 1.8510	64.0668
 1.8500	64.0585
 1.8490	64.1346
 1.8480	63.9932
 1.8470	63.9052
 1.8460	63.8655
 1.8450	63.9070
 1.8440	63.8273
 1.8430	63.8892
 1.8420	63.8103
 1.8410	63.8166
 1.8400	63.7773
 1.8390	63.8236
 1.8380	63.7607
 1.8370	63.7601
 1.8360	63.7358
 1.8350	63.6931
 1.8340	63.6775
 1.8330	63.7115
 1.8320	63.6503
 1.8310	63.6384
 1.8300	63.5636
 1.8290	63.6030
 1.8280	63.5866
 1.8270	63.5900
 1.8260	63.5680
 1.8250	63.6032
 1.8240	63.5403
 1.8230	63.5496
 1.8220	63.5339
 1.8210	63.5158
 1.8200	63.4680
 1.8190	63.4458
 1.8180	63.4974
 1.8170	63.4865
 1.8160	63.4506
 1.8150	63.4585
 1.8140	63.4743
 1.8130	63.4796
 1.8120	63.4581
 1.8110	63.4047
 1.8100	63.3031
 1.8090	63.3993
 1.8080	63.4349
 1.8070	63.3956
 1.8060	63.3786
 1.8050	63.4093
 1.8040	63.3644
 1.8030	63.3700
 1.8020	63.3783
 1.8010	63.3472
 1.8000	63.2758
 1.7990	63.2720
 1.7980	63.3380
 1.7970	63.3132
 1.7960	63.2155
 1.7950	63.1869
 1.7940	63.1700
 1.7930	63.1080
 1.7920	63.0924
 1.7910	63.1084
 1.7900	63.0421
 1.7890	62.9514
 1.7880	62.9142
 1.7870	62.9311
 1.7860	62.9247
 1.7850	62.8593
 1.7840	62.8509
 1.7830	62.8936
 1.7820	62.9072
 1.7810	62.8563
 1.7800	62.8474
 1.7790	62.9006
 1.7780	62.9405
 1.7770	62.9538
 1.7760	62.9350
 1.7750	62.9094
 1.7740	62.9361
 1.7730	62.9343
 1.7720	62.8983
 1.7710	62.8695
 1.7700	62.8838
 1.7690	62.8907
 1.7680	62.8544
 1.7670	62.8554
 1.7660	62.8712
 1.7650	62.8566
 1.7640	62.8561
 1.7630	62.8048
 1.7620	62.8247
 1.7610	62.8141
 1.7600	62.8157
 1.7590	62.8015
 1.7580	62.7949
 1.7570	62.7538
 1.7560	62.6998
 1.7550	62.7375
 1.7540	62.7438
 1.7530	62.7025
 1.7520	62.7277
 1.7510	62.7044
 1.7500	62.6622
 1.7490	62.6189
 1.7480	62.6656
 1.7470	62.6535
 1.7460	62.5912
 1.7450	62.5597
 1.7440	62.5595
 1.7430	62.5382
 1.7420	62.5792
 1.7410	62.5733
 1.7400	62.5614
 1.7390	62.5310
 1.7380	62.5019
 1.7370	62.5035
 1.7360	62.5102
 1.7350	62.4688
 1.7340	62.4624
 1.7330	62.4220
 1.7320	62.4444
 1.7310	62.4222
 1.7300	62.4642
 1.7290	62.3714
 1.7280	62.3605
 1.7270	62.3787
 1.7260	62.3708
 1.7250	62.2930
 1.7240	62.3025
 1.7230	62.2543
 1.7220	62.3159
 1.7210	62.2684
 1.7200	62.2432
 1.7190	62.2302
 1.7180	62.2816
 1.7170	62.1983
 1.7160	62.2356
 1.7150	62.1722
 1.7140	62.2238
 1.7130	62.1668
 1.7120	62.1692
 1.7110	62.0917
 1.7100	62.1083
 1.7090	62.0586
 1.7080	62.1084
 1.7070	62.0883
 1.7060	62.0511
 1.7050	61.9874
 1.7040	62.0146
 1.7030	61.9842
 1.7020	61.9188
 1.7010	61.9072
 1.7000	61.9785
 1.6990	61.9168
 1.6980	61.9239
 1.6970	61.9019
 1.6960	61.9183
 1.6950	61.8061
 1.6940	61.8952
 1.6930	61.8683
 1.6920	61.8146
 1.6910	61.8455
 1.6900	61.7791
 1.6890	61.7635
 1.6880	61.7846
 1.6870	61.6765
 1.6860	61.7266
 1.6850	61.7317
 1.6840	61.7422
 1.6830	61.6622
 1.6820	61.7599
 1.6810	61.6442
 1.6800	61.6149
 1.6790	61.6145
 1.6780	61.6860
 1.6770	61.5877
 1.6760	61.6511
 1.6750	61.6172
 1.6740	61.5428
 1.6730	61.4889
 1.6720	61.6277
 1.6710	61.5427
 1.6700	61.5573
 1.6690	61.5909
 1.6680	61.5050
 1.6670	61.5081
 1.6660	61.4895
 1.6650	61.4324
 1.6640	61.5392
 1.6630	61.4350
 1.6620	61.5273
 1.6610	61.4455
 1.6600	61.4951
 1.6590	61.3749
 1.6580	61.4160
 1.6570	61.3366
 1.6560	61.3004
 1.6550	61.2803
 1.6540	61.4250
 1.6530	61.2616
 1.6520	61.4094
 1.6510	61.2313
 1.6500	61.3217
 1.6490	61.3107
 1.6480	61.2500
 1.6470	61.2466
 1.6460	61.2537
 1.6450	61.1707
 1.6440	61.2379
 1.6430	61.2285
 1.6420	61.2479
 1.6410	61.0974
 1.6400	61.1565
 1.6390	61.1183
 1.6380	61.1827
 1.6370	61.1907
 1.6360	61.1742
 1.6350	61.0397
 1.6340	61.1348
 1.6330	61.0927
 1.6320	61.0518
 1.6310	61.0378
 1.6300	61.0356
 1.6290	61.0189
 1.6280	61.0520
 1.6270	61.0093
 1.6260	61.0534
 1.6250	60.9662
 1.6240	61.0703
 1.6230	60.8946
 1.6220	60.9840
 1.6210	60.9194
 1.6200	60.9018
 1.6190	60.9464
 1.6180	60.9898
 1.6170	60.9255
 1.6160	60.8988
 1.6150	60.8405
 1.6140	60.9058
 1.6130	60.8664
 1.6120	60.8814
 1.6110	60.8754
 1.6100	60.9079
 1.6090	60.8140
 1.6080	60.9006
 1.6070	60.8401
 1.6060	60.9010
 1.6050	60.8007
 1.6040	60.8056
 1.6030	60.7786
 1.6020	60.8325
 1.6010	60.7598
 1.6000	60.7791
 1.5990	60.7455
 1.5980	60.7516
 1.5970	60.7605
 1.5960	60.7646
 1.5950	60.6557
 1.5940	60.6681
 1.5930	60.6910
 1.5920	60.6789
 1.5910	60.7080
 1.5900	60.6175
 1.5890	60.6121
 1.5880	60.6834
 1.5870	60.6603
 1.5860	60.5835
 1.5850	60.6410
 1.5840	60.6505
 1.5830	60.6318
 1.5820	60.6632
 1.5810	60.5781
 1.5800	60.5584
 1.5790	60.4839
 1.5780	60.5538
 1.5770	60.5615
 1.5760	60.5391
 1.5750	60.5549
 1.5740	60.5513
 1.5730	60.4719
 1.5720	60.4935
 1.5710	60.4903
 1.5700	60.4815
 1.5690	60.4246
 1.5680	60.4345
 1.5670	60.3857
 1.5660	60.4355
 1.5650	60.4718
 1.5640	60.4739
 1.5630	60.4396
 1.5620	60.4036
 1.5610	60.3636
 1.5600	60.4103
 1.5590	60.3688
 1.5580	60.3702
 1.5570	60.3705
 1.5560	60.4308
 1.5550	60.3231
 1.5540	60.3176
 1.5530	60.2793
 1.5520	60.3031
 1.5510	60.3024
 1.5500	60.3112
 1.5490	60.2887
 1.5480	60.2811
 1.5470	60.2582
 1.5460	60.2878
 1.5450	60.2471
 1.5440	60.2244
 1.5430	60.2276
 1.5420	60.2434
 1.5410	60.2214
 1.5400	60.2003
 1.5390	60.2100
 1.5380	60.1872
 1.5370	60.1931
 1.5360	60.1770
 1.5350	60.1790
 1.5340	60.1443
 1.5330	60.1604
 1.5320	60.1621
 1.5310	60.1299
 1.5300	60.1378
 1.5290	60.1237
 1.5280	60.1150
 1.5270	60.0659
 1.5260	60.0767
 1.5250	60.0799
 1.5240	60.0768
 1.5230	60.1053
 1.5220	60.1124
 1.5210	60.0590
 1.5200	60.0816
 1.5190	60.0344
 1.5180	59.9848
 1.5170	60.0266
 1.5160	59.9879
 1.5150	59.9645
 1.5140	60.0059
 1.5130	59.9791
 1.5120	59.9233
 1.5110	59.9073
 1.5100	59.9282
 1.5090	59.9032
 1.5080	59.8865
 1.5070	59.8630
 1.5060	59.8519
 1.5050	59.8589
 1.5040	59.8533
 1.5030	59.7831
 1.5020	59.7762
 1.5010	59.7642
 1.5000	59.7202
 1.4990	59.7010
 1.4980	59.6629
 1.4970	59.6472
 1.4960	59.6282
 1.4950	59.5929
 1.4940	59.5595
 1.4930	59.5183
 1.4920	59.4482
 1.4910	59.3860
 1.4900	59.3358
 1.4890	59.2701
 1.4880	59.1265
 1.4870	59.0102
 1.4860	58.9592
 1.4850	58.8840
 1.4840	58.7681
 1.4830	58.6884
 1.4820	58.5575
 1.4810	58.4742
 1.4800	58.3800
 1.4790	58.3706
 1.4780	58.3191
 1.4770	58.3131
 1.4760	58.3066
 1.4750	58.3542
 1.4740	58.3806
 1.4730	58.4493
 1.4720	58.5372
 1.4710	58.6240
 1.4700	58.6552
 1.4690	58.7949
 1.4680	58.8558
 1.4670	58.9053
 1.4660	58.9995
 1.4650	59.1355
 1.4640	59.1953
 1.4630	59.2917
 1.4620	59.3483
 1.4610	59.4237
 1.4600	59.4361
 1.4590	59.5487
 1.4580	59.6127
 1.4570	59.6853
 1.4560	59.6369
 1.4550	59.6682
 1.4540	59.6921
 1.4530	59.7662
 1.4520	59.7865
 1.4510	59.8071
 1.4500	59.8064
 1.4490	59.8437
 1.4480	59.8316
 1.4470	59.9329
 1.4460	59.9059
 1.4450	59.9381
 1.4440	59.9798
 1.4430	60.0078
 1.4420	60.0069
 1.4410	60.0154
 1.4400	59.9849
 1.4390	60.0334
 1.4380	60.0093
 1.4370	60.0333
 1.4360	60.0539
 1.4350	60.0975
 1.4340	60.0874
 1.4330	60.0530
 1.4320	60.1275
 1.4310	60.1294
 1.4300	60.1270
 1.4290	60.1337
 1.4280	60.1409
 1.4270	60.2197
 1.4260	60.1810
 1.4250	60.2297
 1.4240	60.2382
 1.4230	60.2879
 1.4220	60.2496
 1.4210	60.2168
 1.4200	60.1688
 1.4190	60.2214
 1.4180	60.2072
 1.4170	60.2682
 1.4160	60.2941
 1.4150	60.3428
 1.4140	60.2965
 1.4130	60.3430
 1.4120	60.3297
 1.4110	60.3702
 1.4100	60.3684
 1.4090	60.3424
 1.4080	60.2923
 1.4070	60.3331
 1.4060	60.3929
 1.4050	60.4020
 1.4040	60.4139
 1.4030	60.5112
 1.4020	60.5174
 1.4010	60.5271
 1.4000	60.4817
 1.3990	60.5560
 1.3980	60.5481
 1.3970	60.5892
 1.3960	60.6078
 1.3950	60.6085
 1.3940	60.6020
 1.3930	60.6552
 1.3920	60.5861
 1.3910	60.7962
 1.3900	60.6837
 1.3890	60.8080
 1.3880	60.7438
 1.3870	60.7178
 1.3860	60.8366
 1.3850	60.8493
 1.3840	60.8156
 1.3830	60.8612
 1.3820	60.7319
 1.3810	60.8334
 1.3800	60.8156
 1.3790	61.0005
 1.3780	60.8870
 1.3770	61.0318
 1.3760	60.9773
 1.3750	61.0207
 1.3740	60.9187
 1.3730	61.0496
 1.3720	61.0235
 1.3710	61.1090
 1.3700	61.0241
 1.3690	61.1440
 1.3680	61.0890
 1.3670	61.1686
