Name: Dolomite CaMg(CO_3)_2
Type: Mineral
Class: Carbonate
Subclass: None
Particle Size: Medium
Sample No.: C-5A
Owner: JPL
Wavelength Range: VSWIR
Origin: USA, Colorado.
Collection Date: N/A
Description: Red banded dolomite.Particle size was 45-125um.Collected by:  Ward's Original ASTER Spectral Library name was jpl.perkin.mineral.carbonate.none.medium.c05a.spectrum.txt
Measurement: Hemispherical reflectance
First Column: X
Second Column: Y
X Units: Wavelength (micrometers)
Y Units:Reflectance (percent)
First X Value:  2.5000
Last X Value:  0.4000
Number of X Values: 2101
Additional Information: mineral.carbonate.none.medium.vswir.c-5a.jpl.perkin.ancillary.txt

 2.5000	44.7167
 2.4990	44.4001
 2.4980	45.0602
 2.4970	45.0913
 2.4960	45.1513
 2.4950	45.4216
 2.4940	45.6473
 2.4930	45.6982
 2.4920	46.0154
 2.4910	46.2292
 2.4900	46.5590
 2.4890	46.8149
 2.4880	47.1905
 2.4870	47.4184
 2.4860	47.5643
 2.4850	47.7356
 2.4840	48.0077
 2.4830	48.1635
 2.4820	48.3108
 2.4810	48.6840
 2.4800	48.9447
 2.4790	49.0144
 2.4780	49.2180
 2.4770	49.2483
 2.4760	49.5234
 2.4750	49.6016
 2.4740	49.8652
 2.4730	49.9476
 2.4720	50.1402
 2.4710	50.1011
 2.4700	50.3671
 2.4690	50.3922
 2.4680	50.5786
 2.4670	50.5535
 2.4660	50.7754
 2.4650	50.7857
 2.4640	50.9937
 2.4630	50.9494
 2.4620	51.0523
 2.4610	51.2110
 2.4600	51.3568
 2.4590	51.5508
 2.4580	51.7957
 2.4570	51.8161
 2.4560	51.9706
 2.4550	52.1450
 2.4540	52.3428
 2.4530	52.4900
 2.4520	52.7421
 2.4510	52.9147
 2.4500	53.1998
 2.4490	53.4549
 2.4480	53.6967
 2.4470	53.9843
 2.4460	54.2575
 2.4450	54.4429
 2.4440	54.7325
 2.4430	54.9563
 2.4420	55.3171
 2.4410	55.5589
 2.4400	55.8910
 2.4390	56.2093
 2.4380	56.4360
 2.4370	56.6913
 2.4360	56.9964
 2.4350	57.2683
 2.4340	57.6211
 2.4330	57.8539
 2.4320	58.0397
 2.4310	58.2720
 2.4300	58.6973
 2.4290	58.9106
 2.4280	59.0945
 2.4270	59.3143
 2.4260	59.6631
 2.4250	59.8705
 2.4240	60.1400
 2.4230	60.3768
 2.4220	60.6785
 2.4210	60.8995
 2.4200	61.0586
 2.4190	61.1994
 2.4180	61.4478
 2.4170	61.6659
 2.4160	61.8489
 2.4150	62.0024
 2.4140	62.1831
 2.4130	62.2935
 2.4120	62.5114
 2.4110	62.6039
 2.4100	62.8020
 2.4090	62.9254
 2.4080	63.0520
 2.4070	63.1617
 2.4060	63.2615
 2.4050	63.3351
 2.4040	63.4670
 2.4030	63.5359
 2.4020	63.6471
 2.4010	63.7768
 2.4000	63.8431
 2.3990	63.8547
 2.3980	63.9544
 2.3970	64.0757
 2.3960	64.1769
 2.3950	64.2173
 2.3940	64.3393
 2.3930	64.4751
 2.3920	64.5297
 2.3910	64.6196
 2.3900	64.6464
 2.3890	64.7344
 2.3880	64.8899
 2.3870	64.9549
 2.3860	64.9686
 2.3850	65.0497
 2.3840	65.1512
 2.3830	65.2304
 2.3820	65.3124
 2.3810	65.4023
 2.3800	65.5074
 2.3790	65.5316
 2.3780	65.6420
 2.3770	65.7123
 2.3760	65.7767
 2.3750	65.8984
 2.3740	66.0432
 2.3730	66.0476
 2.3720	66.0719
 2.3710	66.1392
 2.3700	66.2055
 2.3690	66.2533
 2.3680	66.2941
 2.3670	66.3224
 2.3660	66.3402
 2.3650	66.3478
 2.3640	66.3324
 2.3630	66.3061
 2.3620	66.3364
 2.3610	66.2664
 2.3600	66.1480
 2.3590	66.1086
 2.3580	66.0389
 2.3570	65.9040
 2.3560	65.7430
 2.3550	65.6173
 2.3540	65.4618
 2.3530	65.2388
 2.3520	65.0336
 2.3510	64.7659
 2.3500	64.4684
 2.3490	64.2368
 2.3480	63.9001
 2.3470	63.5321
 2.3460	63.1658
 2.3450	62.8065
 2.3440	62.4457
 2.3430	62.0310
 2.3420	61.5932
 2.3410	61.1690
 2.3400	60.7322
 2.3390	60.3267
 2.3380	59.8841
 2.3370	59.4734
 2.3360	59.0415
 2.3350	58.5946
 2.3340	58.1836
 2.3330	57.8161
 2.3320	57.4316
 2.3310	57.0837
 2.3300	56.6960
 2.3290	56.3916
 2.3280	56.1419
 2.3270	55.8539
 2.3260	55.5970
 2.3250	55.4358
 2.3240	55.2371
 2.3230	55.0942
 2.3220	54.9906
 2.3210	54.8754
 2.3200	54.7883
 2.3190	54.7676
 2.3180	54.7313
 2.3170	54.7440
 2.3160	54.7213
 2.3150	54.7540
 2.3140	54.8226
 2.3130	54.9039
 2.3120	54.9570
 2.3110	55.0398
 2.3100	55.1497
 2.3090	55.2334
 2.3080	55.3208
 2.3070	55.4462
 2.3060	55.5401
 2.3050	55.7319
 2.3040	55.8849
 2.3030	55.9841
 2.3020	56.1435
 2.3010	56.2748
 2.3000	56.4008
 2.2990	56.5185
 2.2980	56.6667
 2.2970	56.8309
 2.2960	56.8996
 2.2950	57.1547
 2.2940	57.2508
 2.2930	57.3596
 2.2920	57.4333
 2.2910	57.5895
 2.2900	57.7530
 2.2890	57.8582
 2.2880	58.0059
 2.2870	58.1295
 2.2860	58.1920
 2.2850	58.3350
 2.2840	58.4303
 2.2830	58.5374
 2.2820	58.6636
 2.2810	58.7461
 2.2800	58.8031
 2.2790	58.9125
 2.2780	59.0402
 2.2770	59.0702
 2.2760	59.1273
 2.2750	59.1990
 2.2740	59.2793
 2.2730	59.3595
 2.2720	59.4633
 2.2710	59.5462
 2.2700	59.6211
 2.2690	59.7500
 2.2680	59.8631
 2.2670	59.9609
 2.2660	60.0217
 2.2650	60.2345
 2.2640	60.3906
 2.2630	60.5384
 2.2620	60.6353
 2.2610	60.8721
 2.2600	61.0383
 2.2590	61.2212
 2.2580	61.4426
 2.2570	61.6708
 2.2560	61.8095
 2.2550	62.0794
 2.2540	62.1743
 2.2530	62.4808
 2.2520	62.6532
 2.2510	62.8345
 2.2500	62.9729
 2.2490	63.2900
 2.2480	63.4315
 2.2470	63.6550
 2.2460	63.7889
 2.2450	64.0006
 2.2440	64.0889
 2.2430	64.3380
 2.2420	64.4354
 2.2410	64.5516
 2.2400	64.7801
 2.2390	64.9444
 2.2380	65.0115
 2.2370	65.1598
 2.2360	65.3383
 2.2350	65.4176
 2.2340	65.4608
 2.2330	65.5704
 2.2320	65.6702
 2.2310	65.8113
 2.2300	65.8771
 2.2290	65.9906
 2.2280	66.0180
 2.2270	66.1324
 2.2260	66.0669
 2.2250	66.2760
 2.2240	66.2849
 2.2230	66.3916
 2.2220	66.3819
 2.2210	66.4490
 2.2200	66.4980
 2.2190	66.5106
 2.2180	66.5103
 2.2170	66.6386
 2.2160	66.7016
 2.2150	66.6629
 2.2140	66.6623
 2.2130	66.7190
 2.2120	66.7232
 2.2110	66.7177
 2.2100	66.8466
 2.2090	66.9078
 2.2080	66.9174
 2.2070	67.0067
 2.2060	67.0765
 2.2050	67.2089
 2.2040	67.3259
 2.2030	67.4107
 2.2020	67.4417
 2.2010	67.5942
 2.2000	67.7463
 2.1990	67.7632
 2.1980	67.8287
 2.1970	67.9490
 2.1960	67.9722
 2.1950	68.1551
 2.1940	68.1729
 2.1930	68.2404
 2.1920	68.3127
 2.1910	68.3843
 2.1900	68.3736
 2.1890	68.4951
 2.1880	68.5548
 2.1870	68.5819
 2.1860	68.6350
 2.1850	68.7402
 2.1840	68.7368
 2.1830	68.8737
 2.1820	68.8639
 2.1810	68.9076
 2.1800	68.9520
 2.1790	69.0164
 2.1780	69.0509
 2.1770	69.1021
 2.1760	69.0416
 2.1750	69.1541
 2.1740	69.1504
 2.1730	69.2738
 2.1720	69.2545
 2.1710	69.2929
 2.1700	69.2183
 2.1690	69.3502
 2.1680	69.3562
 2.1670	69.3192
 2.1660	69.3888
 2.1650	69.4235
 2.1640	69.3812
 2.1630	69.3939
 2.1620	69.3778
 2.1610	69.4204
 2.1600	69.4342
 2.1590	69.4738
 2.1580	69.4890
 2.1570	69.4867
 2.1560	69.4838
 2.1550	69.4481
 2.1540	69.4386
 2.1530	69.4336
 2.1520	69.3908
 2.1510	69.5104
 2.1500	69.4527
 2.1490	69.5272
 2.1480	69.4580
 2.1470	69.3949
 2.1460	69.3539
 2.1450	69.3502
 2.1440	69.3397
 2.1430	69.3264
 2.1420	69.3261
 2.1410	69.3837
 2.1400	69.3366
 2.1390	69.3399
 2.1380	69.3113
 2.1370	69.4022
 2.1360	69.3759
 2.1350	69.3514
 2.1340	69.3404
 2.1330	69.3127
 2.1320	69.3275
 2.1310	69.3065
 2.1300	69.3328
 2.1290	69.3085
 2.1280	69.2678
 2.1270	69.2296
 2.1260	69.2768
 2.1250	69.3219
 2.1240	69.2454
 2.1230	69.3235
 2.1220	69.2577
 2.1210	69.2465
 2.1200	69.2038
 2.1190	69.1677
 2.1180	69.1661
 2.1170	69.1882
 2.1160	69.1688
 2.1150	69.1475
 2.1140	69.1433
 2.1130	69.1193
 2.1120	69.0790
 2.1110	69.0884
 2.1100	69.0495
 2.1090	69.0285
 2.1080	69.0163
 2.1070	68.9827
 2.1060	68.9442
 2.1050	68.9317
 2.1040	68.8975
 2.1030	68.8794
 2.1020	68.8169
 2.1010	68.7934
 2.1000	68.7949
 2.0990	68.7784
 2.0980	68.7891
 2.0970	68.7810
 2.0960	68.8140
 2.0950	68.8344
 2.0940	68.7701
 2.0930	68.7919
 2.0920	68.8167
 2.0910	68.8677
 2.0900	68.8510
 2.0890	68.8251
 2.0880	68.8757
 2.0870	68.9710
 2.0860	68.9478
 2.0850	68.8892
 2.0840	68.8533
 2.0830	68.8778
 2.0820	68.9279
 2.0810	68.9651
 2.0800	68.9128
 2.0790	68.8686
 2.0780	68.8945
 2.0770	68.9021
 2.0760	68.9101
 2.0750	68.9149
 2.0740	68.9139
 2.0730	68.9670
 2.0720	69.0247
 2.0710	68.9988
 2.0700	68.9566
 2.0690	68.9554
 2.0680	68.9296
 2.0670	68.9351
 2.0660	68.9519
 2.0650	68.9650
 2.0640	68.9892
 2.0630	68.9329
 2.0620	68.9439
 2.0610	68.9484
 2.0600	68.9590
 2.0590	68.9691
 2.0580	68.9312
 2.0570	68.9114
 2.0560	68.9167
 2.0550	68.9482
 2.0540	68.9282
 2.0530	68.8896
 2.0520	68.9247
 2.0510	68.8824
 2.0500	68.8789
 2.0490	68.8867
 2.0480	68.8918
 2.0470	68.8787
 2.0460	68.8624
 2.0450	68.8220
 2.0440	68.7931
 2.0430	68.7971
 2.0420	68.7909
 2.0410	68.7771
 2.0400	68.7549
 2.0390	68.7311
 2.0380	68.7394
 2.0370	68.7262
 2.0360	68.6950
 2.0350	68.6485
 2.0340	68.6594
 2.0330	68.6355
 2.0320	68.6013
 2.0310	68.5402
 2.0300	68.4994
 2.0290	68.5334
 2.0280	68.4670
 2.0270	68.4141
 2.0260	68.3748
 2.0250	68.3324
 2.0240	68.3552
 2.0230	68.3075
 2.0220	68.2378
 2.0210	68.1978
 2.0200	68.1438
 2.0190	68.1071
 2.0180	68.0967
 2.0170	68.0747
 2.0160	68.0279
 2.0150	67.9775
 2.0140	67.9346
 2.0130	67.8062
 2.0120	67.8467
 2.0110	67.7729
 2.0100	67.7309
 2.0090	67.7409
 2.0080	67.6437
 2.0070	67.5567
 2.0060	67.5105
 2.0050	67.4463
 2.0040	67.3996
 2.0030	67.3407
 2.0020	67.2480
 2.0010	67.2630
 2.0000	67.1708
 1.9990	67.0354
 1.9980	66.9782
 1.9970	66.8425
 1.9960	66.7840
 1.9950	66.6752
 1.9940	66.6033
 1.9930	66.5459
 1.9920	66.4602
 1.9910	66.3284
 1.9900	66.1839
 1.9890	66.0662
 1.9880	66.0619
 1.9870	65.9318
 1.9860	65.8957
 1.9850	65.7284
 1.9840	65.7080
 1.9830	65.7036
 1.9820	65.6436
 1.9810	65.5659
 1.9800	65.4772
 1.9790	65.3992
 1.9780	65.3982
 1.9770	65.3525
 1.9760	65.3200
 1.9750	65.2997
 1.9740	65.3043
 1.9730	65.2296
 1.9720	65.2791
 1.9710	65.2628
 1.9700	65.2596
 1.9690	65.1808
 1.9680	65.1414
 1.9670	65.0672
 1.9660	65.1358
 1.9650	65.1254
 1.9640	65.0270
 1.9630	65.0230
 1.9620	65.0209
 1.9610	64.9673
 1.9600	64.9757
 1.9590	65.0182
 1.9580	65.0322
 1.9570	64.9293
 1.9560	65.0045
 1.9550	64.9040
 1.9540	64.8661
 1.9530	64.8038
 1.9520	64.8445
 1.9510	64.8033
 1.9500	64.8276
 1.9490	64.7984
 1.9480	64.7634
 1.9470	64.6530
 1.9460	64.7246
 1.9450	64.6690
 1.9440	64.6933
 1.9430	64.6756
 1.9420	64.6397
 1.9410	64.6112
 1.9400	64.6390
 1.9390	64.5602
 1.9380	64.6317
 1.9370	64.5869
 1.9360	64.6316
 1.9350	64.6987
 1.9340	64.6757
 1.9330	64.5975
 1.9320	64.7070
 1.9310	64.6886
 1.9300	64.7351
 1.9290	64.6691
 1.9280	64.7981
 1.9270	64.7298
 1.9260	64.7117
 1.9250	64.8178
 1.9240	64.8183
 1.9230	64.7742
 1.9220	64.8745
 1.9210	64.8846
 1.9200	64.9506
 1.9190	64.9375
 1.9180	65.0156
 1.9170	65.0533
 1.9160	65.0689
 1.9150	65.1357
 1.9140	65.2468
 1.9130	65.2468
 1.9120	65.3056
 1.9110	65.4010
 1.9100	65.5229
 1.9090	65.4876
 1.9080	65.6047
 1.9070	65.7264
 1.9060	65.8703
 1.9050	65.9222
 1.9040	66.0722
 1.9030	66.2142
 1.9020	66.4675
 1.9010	66.5638
 1.9000	66.6689
 1.8990	66.9078
 1.8980	67.0192
 1.8970	67.1722
 1.8960	67.3457
 1.8950	67.4801
 1.8940	67.5691
 1.8930	67.7791
 1.8920	67.9328
 1.8910	68.1260
 1.8900	68.1933
 1.8890	68.2585
 1.8880	68.4394
 1.8870	68.5079
 1.8860	68.6350
 1.8850	68.7163
 1.8840	68.8114
 1.8830	68.8614
 1.8820	68.9706
 1.8810	68.9208
 1.8800	69.0261
 1.8790	69.1175
 1.8780	69.1190
 1.8770	69.1133
 1.8760	69.1535
 1.8750	69.1543
 1.8740	69.1492
 1.8730	69.1216
 1.8720	69.0786
 1.8710	69.0588
 1.8700	69.0081
 1.8690	68.9513
 1.8680	68.9810
 1.8670	68.8915
 1.8660	68.8972
 1.8650	68.7985
 1.8640	68.7794
 1.8630	68.8099
 1.8620	68.8193
 1.8610	68.7626
 1.8600	68.8722
 1.8590	68.8868
 1.8580	68.8889
 1.8570	68.8663
 1.8560	68.8686
 1.8550	68.9014
 1.8540	68.9969
 1.8530	68.9810
 1.8520	69.0359
 1.8510	69.0483
 1.8500	69.0887
 1.8490	69.1399
 1.8480	69.2216
 1.8470	69.1881
 1.8460	69.2447
 1.8450	69.2511
 1.8440	69.2589
 1.8430	69.3012
 1.8420	69.3153
 1.8410	69.3026
 1.8400	69.3743
 1.8390	69.3556
 1.8380	69.4309
 1.8370	69.3618
 1.8360	69.4174
 1.8350	69.4272
 1.8340	69.4176
 1.8330	69.4281
 1.8320	69.4240
 1.8310	69.4325
 1.8300	69.4466
 1.8290	69.4732
 1.8280	69.4614
 1.8270	69.4362
 1.8260	69.4593
 1.8250	69.4867
 1.8240	69.5304
 1.8230	69.5069
 1.8220	69.4814
 1.8210	69.4835
 1.8200	69.5142
 1.8190	69.4840
 1.8180	69.4958
 1.8170	69.5371
 1.8160	69.5828
 1.8150	69.5783
 1.8140	69.5913
 1.8130	69.5874
 1.8120	69.5956
 1.8110	69.5217
 1.8100	69.5315
 1.8090	69.6260
 1.8080	69.6141
 1.8070	69.6139
 1.8060	69.6266
 1.8050	69.6013
 1.8040	69.6559
 1.8030	69.6709
 1.8020	69.6411
 1.8010	69.6794
 1.8000	69.6904
 1.7990	69.6443
 1.7980	69.6745
 1.7970	69.6850
 1.7960	69.6537
 1.7950	69.6302
 1.7940	69.6336
 1.7930	69.6060
 1.7920	69.6151
 1.7910	69.6477
 1.7900	69.6537
 1.7890	69.6067
 1.7880	69.6076
 1.7870	69.6019
 1.7860	69.5910
 1.7850	69.6379
 1.7840	69.6389
 1.7830	69.5844
 1.7820	69.5901
 1.7810	69.6269
 1.7800	69.5927
 1.7790	69.5842
 1.7780	69.5927
 1.7770	69.6041
 1.7760	69.5988
 1.7750	69.5706
 1.7740	69.5079
 1.7730	69.5425
 1.7720	69.6358
 1.7710	69.5941
 1.7700	69.5576
 1.7690	69.6226
 1.7680	69.6033
 1.7670	69.5553
 1.7660	69.5558
 1.7650	69.5715
 1.7640	69.5668
 1.7630	69.5183
 1.7620	69.4702
 1.7610	69.4887
 1.7600	69.5123
 1.7590	69.5174
 1.7580	69.5365
 1.7570	69.5276
 1.7560	69.4495
 1.7550	69.4775
 1.7540	69.4870
 1.7530	69.4621
 1.7520	69.4792
 1.7510	69.4259
 1.7500	69.4427
 1.7490	69.4540
 1.7480	69.4238
 1.7470	69.4579
 1.7460	69.4749
 1.7450	69.4375
 1.7440	69.4112
 1.7430	69.4342
 1.7420	69.3819
 1.7410	69.4276
 1.7400	69.4123
 1.7390	69.3770
 1.7380	69.3975
 1.7370	69.3899
 1.7360	69.3786
 1.7350	69.3947
 1.7340	69.3600
 1.7330	69.3781
 1.7320	69.3704
 1.7310	69.3254
 1.7300	69.3366
 1.7290	69.3784
 1.7280	69.3801
 1.7270	69.4101
 1.7260	69.3836
 1.7250	69.3739
 1.7240	69.4218
 1.7230	69.4029
 1.7220	69.3269
 1.7210	69.3325
 1.7200	69.3700
 1.7190	69.3488
 1.7180	69.3175
 1.7170	69.3155
 1.7160	69.3144
 1.7150	69.3206
 1.7140	69.3752
 1.7130	69.3534
 1.7120	69.3054
 1.7110	69.2685
 1.7100	69.3077
 1.7090	69.3956
 1.7080	69.2894
 1.7070	69.2641
 1.7060	69.2340
 1.7050	69.2963
 1.7040	69.2409
 1.7030	69.2677
 1.7020	69.2359
 1.7010	69.2327
 1.7000	69.2090
 1.6990	69.2544
 1.6980	69.2407
 1.6970	69.2812
 1.6960	69.2349
 1.6950	69.2569
 1.6940	69.2746
 1.6930	69.2332
 1.6920	69.2127
 1.6910	69.2752
 1.6900	69.2265
 1.6890	69.2659
 1.6880	69.1752
 1.6870	69.2157
 1.6860	69.2536
 1.6850	69.2652
 1.6840	69.2080
 1.6830	69.1790
 1.6820	69.1845
 1.6810	69.1878
 1.6800	69.1943
 1.6790	69.1813
 1.6780	69.1482
 1.6770	69.1624
 1.6760	69.1352
 1.6750	69.2484
 1.6740	69.1596
 1.6730	69.1714
 1.6720	69.1465
 1.6710	69.2269
 1.6700	69.1961
 1.6690	69.1677
 1.6680	69.0143
 1.6670	69.1674
 1.6660	69.0971
 1.6650	69.1423
 1.6640	69.1063
 1.6630	69.1015
 1.6620	69.0637
 1.6610	69.1383
 1.6600	69.0270
 1.6590	69.1980
 1.6580	69.1183
 1.6570	69.1015
 1.6560	69.1128
 1.6550	69.0907
 1.6540	69.0674
 1.6530	69.0697
 1.6520	69.0526
 1.6510	69.1390
 1.6500	69.0778
 1.6490	69.1825
 1.6480	69.0757
 1.6470	69.0837
 1.6460	69.0211
 1.6450	69.0515
 1.6440	69.0022
 1.6430	68.9870
 1.6420	69.0087
 1.6410	68.9532
 1.6400	68.9874
 1.6390	69.0119
 1.6380	68.9663
 1.6370	69.0040
 1.6360	68.9668
 1.6350	68.8901
 1.6340	68.9363
 1.6330	69.0132
 1.6320	68.9081
 1.6310	68.9061
 1.6300	68.9617
 1.6290	68.8572
 1.6280	68.9201
 1.6270	68.9640
 1.6260	68.8915
 1.6250	68.9452
 1.6240	68.9152
 1.6230	68.9113
 1.6220	68.9074
 1.6210	68.8398
 1.6200	68.8290
 1.6190	68.9116
 1.6180	68.8544
 1.6170	68.9065
 1.6160	68.8436
 1.6150	68.8515
 1.6140	68.8597
 1.6130	68.9372
 1.6120	68.8916
 1.6110	68.8740
 1.6100	68.8126
 1.6090	68.8795
 1.6080	68.8420
 1.6070	68.8817
 1.6060	68.8400
 1.6050	68.8688
 1.6040	68.8021
 1.6030	68.7836
 1.6020	68.8309
 1.6010	68.8331
 1.6000	68.7996
 1.5990	68.8395
 1.5980	68.7961
 1.5970	68.7953
 1.5960	68.7117
 1.5950	68.7578
 1.5940	68.8025
 1.5930	68.7974
 1.5920	68.6889
 1.5910	68.7606
 1.5900	68.7446
 1.5890	68.7325
 1.5880	68.7164
 1.5870	68.7239
 1.5860	68.6392
 1.5850	68.6724
 1.5840	68.6823
 1.5830	68.6618
 1.5820	68.6477
 1.5810	68.6313
 1.5800	68.6813
 1.5790	68.6726
 1.5780	68.6616
 1.5770	68.6558
 1.5760	68.5916
 1.5750	68.5823
 1.5740	68.5254
 1.5730	68.5600
 1.5720	68.4720
 1.5710	68.4759
 1.5700	68.4773
 1.5690	68.4963
 1.5680	68.5502
 1.5670	68.5050
 1.5660	68.4686
 1.5650	68.5148
 1.5640	68.4475
 1.5630	68.4103
 1.5620	68.4245
 1.5610	68.4352
 1.5600	68.3628
 1.5590	68.4275
 1.5580	68.3857
 1.5570	68.3573
 1.5560	68.3484
 1.5550	68.3241
 1.5540	68.3318
 1.5530	68.3478
 1.5520	68.3112
 1.5510	68.3496
 1.5500	68.3175
 1.5490	68.3139
 1.5480	68.2375
 1.5470	68.2638
 1.5460	68.2641
 1.5450	68.2777
 1.5440	68.3120
 1.5430	68.3122
 1.5420	68.2969
 1.5410	68.2584
 1.5400	68.1870
 1.5390	68.2227
 1.5380	68.2107
 1.5370	68.1604
 1.5360	68.1593
 1.5350	68.1711
 1.5340	68.1205
 1.5330	68.1392
 1.5320	68.1029
 1.5310	68.0903
 1.5300	68.0411
 1.5290	68.0300
 1.5280	68.0543
 1.5270	68.0479
 1.5260	68.0571
 1.5250	68.0825
 1.5240	68.0475
 1.5230	68.1081
 1.5220	68.1283
 1.5210	68.0089
 1.5200	67.9734
 1.5190	67.9835
 1.5180	67.9786
 1.5170	67.9655
 1.5160	67.9654
 1.5150	67.9652
 1.5140	67.9132
 1.5130	67.8821
 1.5120	67.8713
 1.5110	67.8685
 1.5100	67.8632
 1.5090	67.8679
 1.5080	67.8413
 1.5070	67.7862
 1.5060	67.7920
 1.5050	67.7498
 1.5040	67.7345
 1.5030	67.7114
 1.5020	67.6818
 1.5010	67.6979
 1.5000	67.6551
 1.4990	67.6720
 1.4980	67.6693
 1.4970	67.6403
 1.4960	67.6457
 1.4950	67.6041
 1.4940	67.6088
 1.4930	67.6346
 1.4920	67.5727
 1.4910	67.4898
 1.4900	67.4827
 1.4890	67.4833
 1.4880	67.4617
 1.4870	67.4734
 1.4860	67.4715
 1.4850	67.4179
 1.4840	67.3981
 1.4830	67.4225
 1.4820	67.4165
 1.4810	67.4027
 1.4800	67.3625
 1.4790	67.3300
 1.4780	67.3461
 1.4770	67.3117
 1.4760	67.2899
 1.4750	67.2976
 1.4740	67.2793
 1.4730	67.1772
 1.4720	67.1616
 1.4710	67.1961
 1.4700	67.2287
 1.4690	67.1530
 1.4680	67.1134
 1.4670	67.0712
 1.4660	67.0835
 1.4650	67.0841
 1.4640	67.1012
 1.4630	67.0689
 1.4620	67.0464
 1.4610	67.0407
 1.4600	67.0259
 1.4590	67.0502
 1.4580	67.0199
 1.4570	67.0458
 1.4560	67.0669
 1.4550	67.0502
 1.4540	67.0141
 1.4530	66.9572
 1.4520	66.9822
 1.4510	66.9961
 1.4500	66.9990
 1.4490	66.9224
 1.4480	66.9204
 1.4470	66.9264
 1.4460	66.9415
 1.4450	66.9049
 1.4440	66.9248
 1.4430	66.8672
 1.4420	66.8436
 1.4410	66.8197
 1.4400	66.8178
 1.4390	66.8170
 1.4380	66.8174
 1.4370	66.7934
 1.4360	66.8178
 1.4350	66.7767
 1.4340	66.7353
 1.4330	66.7147
 1.4320	66.7519
 1.4310	66.6699
 1.4300	66.7140
 1.4290	66.7118
 1.4280	66.7494
 1.4270	66.7177
 1.4260	66.7112
 1.4250	66.6854
 1.4240	66.6300
 1.4230	66.6576
 1.4220	66.6259
 1.4210	66.5450
 1.4200	66.5768
 1.4190	66.4549
 1.4180	66.4613
 1.4170	66.3609
 1.4160	66.3267
 1.4150	66.4202
 1.4140	66.4327
 1.4130	66.4619
 1.4120	66.5185
 1.4110	66.4995
 1.4100	66.6425
 1.4090	66.5855
 1.4080	66.7157
 1.4070	66.7245
 1.4060	66.8058
 1.4050	66.8487
 1.4040	66.8412
 1.4030	66.7966
 1.4020	66.9000
 1.4010	66.9508
 1.4000	67.0027
 1.3990	66.9597
 1.3980	67.0787
 1.3970	67.0306
 1.3960	67.1447
 1.3950	67.1146
 1.3940	67.1535
 1.3930	67.2348
 1.3920	67.1775
 1.3910	67.2629
 1.3900	67.3185
 1.3890	67.3070
 1.3880	67.4280
 1.3870	67.3600
 1.3860	67.3958
 1.3850	67.4023
 1.3840	67.4689
 1.3830	67.3880
 1.3820	67.4325
 1.3810	67.4726
 1.3800	67.4798
 1.3790	67.5401
 1.3780	67.5645
 1.3770	67.5589
 1.3760	67.5697
 1.3750	67.5155
 1.3740	67.5413
 1.3730	67.5872
 1.3720	67.5602
 1.3710	67.5483
 1.3700	67.5735
 1.3690	67.5696
 1.3680	67.6234
 1.3670	67.5404
 1.3660	67.5549
