Name: Spodumene LiAlS_2O_6
Type: Mineral
Class: Silicate
Subclass: Inosilicate
Particle Size: Medium
Sample No.: IN-13A
Owner: JPL
Wavelength Range: VSWIR
Origin: Brazil, Minas Gerais.
Collection Date: N/A
Description: Particle size was 45-125um.Collected by:  Ward's Original ASTER Spectral Library name was jpl.perkin.mineral.silicate.inosilicate.medium.in13a.spectrum.txt
Measurement: Hemispherical reflectance
First Column: X
Second Column: Y
X Units: Wavelength (micrometers)
Y Units:Reflectance (percent)
First X Value:  2.5000
Last X Value:  0.4000
Number of X Values: 2101
Additional Information: mineral.silicate.inosilicate.medium.vswir.in-13a.jpl.perkin.ancillary.txt

 2.5000	77.0971
 2.4990	76.9083
 2.4980	76.8915
 2.4970	76.9311
 2.4960	76.8034
 2.4950	77.2167
 2.4940	77.2721
 2.4930	76.9994
 2.4920	77.0681
 2.4910	77.1641
 2.4900	77.1217
 2.4890	77.1261
 2.4880	77.1567
 2.4870	77.1824
 2.4860	77.1271
 2.4850	77.2747
 2.4840	77.1777
 2.4830	77.4468
 2.4820	77.2035
 2.4810	77.3476
 2.4800	77.4032
 2.4790	77.4507
 2.4780	77.5033
 2.4770	77.4575
 2.4760	77.4595
 2.4750	77.5199
 2.4740	77.4945
 2.4730	77.5545
 2.4720	77.4799
 2.4710	77.5385
 2.4700	77.6372
 2.4690	77.5017
 2.4680	77.5742
 2.4670	77.7219
 2.4660	77.7517
 2.4650	77.8683
 2.4640	77.9422
 2.4630	78.0869
 2.4620	77.7866
 2.4610	77.7865
 2.4600	77.9524
 2.4590	77.9105
 2.4580	77.9613
 2.4570	77.8720
 2.4560	78.0152
 2.4550	77.9101
 2.4540	77.8373
 2.4530	77.9512
 2.4520	77.9574
 2.4510	78.0831
 2.4500	78.1321
 2.4490	78.0295
 2.4480	78.0340
 2.4470	78.0472
 2.4460	78.1176
 2.4450	78.0447
 2.4440	78.0478
 2.4430	78.1993
 2.4420	78.1391
 2.4410	78.2180
 2.4400	78.2946
 2.4390	78.2083
 2.4380	78.2728
 2.4370	78.2234
 2.4360	78.3520
 2.4350	78.3634
 2.4340	78.3213
 2.4330	78.4094
 2.4320	78.3473
 2.4310	78.3663
 2.4300	78.4880
 2.4290	78.5181
 2.4280	78.4400
 2.4270	78.6201
 2.4260	78.6377
 2.4250	78.6920
 2.4240	78.6966
 2.4230	78.7222
 2.4220	78.7976
 2.4210	78.7737
 2.4200	78.7919
 2.4190	78.8647
 2.4180	78.8893
 2.4170	78.9330
 2.4160	78.8037
 2.4150	78.8011
 2.4140	78.8624
 2.4130	78.9816
 2.4120	78.9693
 2.4110	78.9868
 2.4100	78.9533
 2.4090	79.0701
 2.4080	79.0544
 2.4070	79.0459
 2.4060	79.0954
 2.4050	79.1450
 2.4040	79.1146
 2.4030	79.1235
 2.4020	79.1800
 2.4010	79.2139
 2.4000	79.2032
 2.3990	79.2400
 2.3980	79.2231
 2.3970	79.1466
 2.3960	79.1338
 2.3950	79.2187
 2.3940	79.1512
 2.3930	79.2116
 2.3920	79.2286
 2.3910	79.2509
 2.3900	79.2515
 2.3890	79.2639
 2.3880	79.3222
 2.3870	79.3434
 2.3860	79.2859
 2.3850	79.3019
 2.3840	79.2860
 2.3830	79.3757
 2.3820	79.4323
 2.3810	79.3882
 2.3800	79.3746
 2.3790	79.4598
 2.3780	79.4790
 2.3770	79.5024
 2.3760	79.5358
 2.3750	79.5603
 2.3740	79.5976
 2.3730	79.6745
 2.3720	79.7073
 2.3710	79.7088
 2.3700	79.7596
 2.3690	79.7253
 2.3680	79.7532
 2.3670	79.8330
 2.3660	79.8056
 2.3650	79.8215
 2.3640	79.8679
 2.3630	79.8567
 2.3620	79.8589
 2.3610	79.8764
 2.3600	79.9233
 2.3590	80.0043
 2.3580	80.0507
 2.3570	79.9948
 2.3560	80.0350
 2.3550	80.0777
 2.3540	80.0943
 2.3530	80.1166
 2.3520	80.0776
 2.3510	80.1083
 2.3500	80.1495
 2.3490	80.1643
 2.3480	80.1893
 2.3470	80.2307
 2.3460	80.2685
 2.3450	80.2674
 2.3440	80.2603
 2.3430	80.2781
 2.3420	80.2983
 2.3410	80.3140
 2.3400	80.3937
 2.3390	80.4067
 2.3380	80.3655
 2.3370	80.3247
 2.3360	80.3294
 2.3350	80.3703
 2.3340	80.3891
 2.3330	80.4192
 2.3320	80.4036
 2.3310	80.3847
 2.3300	80.3703
 2.3290	80.4022
 2.3280	80.4604
 2.3270	80.4354
 2.3260	80.4106
 2.3250	80.4289
 2.3240	80.4497
 2.3230	80.3891
 2.3220	80.4224
 2.3210	80.4498
 2.3200	80.4134
 2.3190	80.4302
 2.3180	80.4737
 2.3170	80.4181
 2.3160	80.4515
 2.3150	80.4265
 2.3140	80.4569
 2.3130	80.4675
 2.3120	80.5328
 2.3110	80.5105
 2.3100	80.4853
 2.3090	80.5156
 2.3080	80.5523
 2.3070	80.4765
 2.3060	80.5019
 2.3050	80.5390
 2.3040	80.6069
 2.3030	80.5416
 2.3020	80.5681
 2.3010	80.5522
 2.3000	80.6158
 2.2990	80.6485
 2.2980	80.6088
 2.2970	80.5493
 2.2960	80.6518
 2.2950	80.6862
 2.2940	80.6523
 2.2930	80.6765
 2.2920	80.7244
 2.2910	80.7042
 2.2900	80.7185
 2.2890	80.7156
 2.2880	80.7565
 2.2870	80.7963
 2.2860	80.7668
 2.2850	80.7846
 2.2840	80.7233
 2.2830	80.7871
 2.2820	80.8106
 2.2810	80.7395
 2.2800	80.8140
 2.2790	80.7766
 2.2780	80.7774
 2.2770	80.7898
 2.2760	80.7596
 2.2750	80.7823
 2.2740	80.7922
 2.2730	80.8655
 2.2720	80.9662
 2.2710	80.9128
 2.2700	80.8547
 2.2690	80.8498
 2.2680	80.8216
 2.2670	80.8326
 2.2660	80.8676
 2.2650	80.8841
 2.2640	80.8320
 2.2630	80.8555
 2.2620	80.8731
 2.2610	80.9179
 2.2600	80.8698
 2.2590	80.8651
 2.2580	80.8918
 2.2570	80.7737
 2.2560	80.8738
 2.2550	80.8213
 2.2540	80.9319
 2.2530	80.8161
 2.2520	80.8566
 2.2510	80.8226
 2.2500	80.8622
 2.2490	80.9023
 2.2480	80.8945
 2.2470	80.8747
 2.2460	80.8392
 2.2450	80.8934
 2.2440	80.8457
 2.2430	80.8205
 2.2420	80.9453
 2.2410	80.7516
 2.2400	80.8406
 2.2390	80.8301
 2.2380	80.8764
 2.2370	80.8914
 2.2360	80.8079
 2.2350	80.9101
 2.2340	80.8535
 2.2330	80.9800
 2.2320	80.8344
 2.2310	80.9034
 2.2300	80.8485
 2.2290	80.9013
 2.2280	80.8286
 2.2270	80.8671
 2.2260	80.8227
 2.2250	80.7779
 2.2240	80.7769
 2.2230	80.7440
 2.2220	80.7175
 2.2210	80.6516
 2.2200	80.6720
 2.2190	80.5031
 2.2180	80.5009
 2.2170	80.4157
 2.2160	80.3185
 2.2150	80.2504
 2.2140	80.1567
 2.2130	80.0846
 2.2120	80.0621
 2.2110	79.8942
 2.2100	79.8749
 2.2090	79.8494
 2.2080	79.7073
 2.2070	79.7790
 2.2060	79.7853
 2.2050	79.7565
 2.2040	79.8036
 2.2030	79.8742
 2.2020	80.0153
 2.2010	79.9397
 2.2000	80.1236
 2.1990	80.1426
 2.1980	80.2525
 2.1970	80.2572
 2.1960	80.3999
 2.1950	80.5175
 2.1940	80.5277
 2.1930	80.5257
 2.1920	80.6338
 2.1910	80.5899
 2.1900	80.6973
 2.1890	80.7972
 2.1880	80.8490
 2.1870	80.8280
 2.1860	80.8925
 2.1850	80.9772
 2.1840	80.9966
 2.1830	81.0242
 2.1820	81.0573
 2.1810	81.0620
 2.1800	81.1834
 2.1790	81.2091
 2.1780	81.1489
 2.1770	81.2360
 2.1760	81.2608
 2.1750	81.2688
 2.1740	81.3393
 2.1730	81.3593
 2.1720	81.4442
 2.1710	81.4633
 2.1700	81.3879
 2.1690	81.4409
 2.1680	81.5104
 2.1670	81.6484
 2.1660	81.5590
 2.1650	81.5084
 2.1640	81.6787
 2.1630	81.7061
 2.1620	81.7443
 2.1610	81.7369
 2.1600	81.8265
 2.1590	81.8704
 2.1580	81.9027
 2.1570	81.9768
 2.1560	82.0240
 2.1550	82.0462
 2.1540	82.0975
 2.1530	82.2307
 2.1520	82.2440
 2.1510	82.2752
 2.1500	82.3170
 2.1490	82.3460
 2.1480	82.4760
 2.1470	82.5222
 2.1460	82.5275
 2.1450	82.6223
 2.1440	82.6469
 2.1430	82.7046
 2.1420	82.7024
 2.1410	82.7929
 2.1400	82.7387
 2.1390	82.7800
 2.1380	82.8272
 2.1370	82.7770
 2.1360	82.7977
 2.1350	82.7188
 2.1340	82.7754
 2.1330	82.7474
 2.1320	82.6920
 2.1310	82.6908
 2.1300	82.7303
 2.1290	82.7179
 2.1280	82.6395
 2.1270	82.6244
 2.1260	82.5973
 2.1250	82.5799
 2.1240	82.5930
 2.1230	82.4730
 2.1220	82.4962
 2.1210	82.4678
 2.1200	82.4653
 2.1190	82.3348
 2.1180	82.2587
 2.1170	82.2868
 2.1160	82.3076
 2.1150	82.2272
 2.1140	82.1590
 2.1130	82.0622
 2.1120	82.0522
 2.1110	82.0459
 2.1100	82.0370
 2.1090	81.9295
 2.1080	81.8124
 2.1070	81.8310
 2.1060	81.7682
 2.1050	81.7649
 2.1040	81.7798
 2.1030	81.7822
 2.1020	81.7635
 2.1010	81.7149
 2.1000	81.6308
 2.0990	81.7118
 2.0980	81.6344
 2.0970	81.5975
 2.0960	81.6626
 2.0950	81.6820
 2.0940	81.6981
 2.0930	81.6785
 2.0920	81.7342
 2.0910	81.7851
 2.0900	81.7777
 2.0890	81.8057
 2.0880	81.8450
 2.0870	81.8333
 2.0860	81.8913
 2.0850	81.9286
 2.0840	81.8659
 2.0830	81.8451
 2.0820	81.8603
 2.0810	81.8863
 2.0800	81.9038
 2.0790	81.9156
 2.0780	81.9413
 2.0770	81.9968
 2.0760	82.0158
 2.0750	82.0102
 2.0740	82.0078
 2.0730	82.0360
 2.0720	82.0459
 2.0710	82.0587
 2.0700	82.1109
 2.0690	82.0660
 2.0680	81.9983
 2.0670	82.0511
 2.0660	82.1721
 2.0650	82.1453
 2.0640	82.1047
 2.0630	82.1586
 2.0620	82.1760
 2.0610	82.2124
 2.0600	82.2006
 2.0590	82.2302
 2.0580	82.2680
 2.0570	82.2322
 2.0560	82.2277
 2.0550	82.2442
 2.0540	82.2439
 2.0530	82.2658
 2.0520	82.2660
 2.0510	82.2893
 2.0500	82.3215
 2.0490	82.2976
 2.0480	82.2827
 2.0470	82.3021
 2.0460	82.3560
 2.0450	82.3452
 2.0440	82.3429
 2.0430	82.3812
 2.0420	82.3471
 2.0410	82.3333
 2.0400	82.4227
 2.0390	82.4407
 2.0380	82.3882
 2.0370	82.4346
 2.0360	82.4118
 2.0350	82.4553
 2.0340	82.4894
 2.0330	82.4821
 2.0320	82.4473
 2.0310	82.3770
 2.0300	82.3680
 2.0290	82.3615
 2.0280	82.4191
 2.0270	82.4320
 2.0260	82.4599
 2.0250	82.3817
 2.0240	82.3533
 2.0230	82.4263
 2.0220	82.4653
 2.0210	82.4258
 2.0200	82.4414
 2.0190	82.4709
 2.0180	82.4304
 2.0170	82.3670
 2.0160	82.4001
 2.0150	82.3949
 2.0140	82.3801
 2.0130	82.3756
 2.0120	82.3630
 2.0110	82.3734
 2.0100	82.3863
 2.0090	82.4059
 2.0080	82.3508
 2.0070	82.3960
 2.0060	82.3958
 2.0050	82.4072
 2.0040	82.3520
 2.0030	82.2930
 2.0020	82.3184
 2.0010	82.3246
 2.0000	82.3413
 1.9990	82.2811
 1.9980	82.2809
 1.9970	82.2446
 1.9960	82.2715
 1.9950	82.2183
 1.9940	82.2133
 1.9930	82.1993
 1.9920	82.1345
 1.9910	82.1379
 1.9900	82.1243
 1.9890	82.2118
 1.9880	82.1979
 1.9870	82.1653
 1.9860	82.0720
 1.9850	82.0308
 1.9840	82.0534
 1.9830	82.1054
 1.9820	82.0264
 1.9810	81.9860
 1.9800	81.9703
 1.9790	81.9765
 1.9780	81.9149
 1.9770	81.9252
 1.9760	81.9853
 1.9750	81.9236
 1.9740	81.9242
 1.9730	81.9361
 1.9720	81.8819
 1.9710	81.9124
 1.9700	81.8842
 1.9690	81.8435
 1.9680	81.8852
 1.9670	81.7742
 1.9660	81.7664
 1.9650	81.7735
 1.9640	81.7841
 1.9630	81.7737
 1.9620	81.7875
 1.9610	81.7690
 1.9600	81.7868
 1.9590	81.7514
 1.9580	81.6876
 1.9570	81.7064
 1.9560	81.7194
 1.9550	81.6641
 1.9540	81.5972
 1.9530	81.7367
 1.9520	81.6895
 1.9510	81.6608
 1.9500	81.6761
 1.9490	81.6214
 1.9480	81.5647
 1.9470	81.6199
 1.9460	81.5820
 1.9450	81.5994
 1.9440	81.6254
 1.9430	81.6437
 1.9420	81.5335
 1.9410	81.6018
 1.9400	81.5574
 1.9390	81.6246
 1.9380	81.5813
 1.9370	81.5236
 1.9360	81.6000
 1.9350	81.5662
 1.9340	81.5269
 1.9330	81.5922
 1.9320	81.5055
 1.9310	81.5647
 1.9300	81.4375
 1.9290	81.5188
 1.9280	81.4521
 1.9270	81.5432
 1.9260	81.4498
 1.9250	81.4625
 1.9240	81.4292
 1.9230	81.4712
 1.9220	81.4230
 1.9210	81.4604
 1.9200	81.4557
 1.9190	81.4230
 1.9180	81.4681
 1.9170	81.3719
 1.9160	81.3590
 1.9150	81.3963
 1.9140	81.3522
 1.9130	81.3968
 1.9120	81.4463
 1.9110	81.5192
 1.9100	81.4861
 1.9090	81.5824
 1.9080	81.5829
 1.9070	81.6234
 1.9060	81.5488
 1.9050	81.6819
 1.9040	81.8096
 1.9030	81.8560
 1.9020	81.7579
 1.9010	81.3238
 1.9000	81.9974
 1.8990	82.1022
 1.8980	82.1114
 1.8970	82.2668
 1.8960	82.3002
 1.8950	82.4574
 1.8940	82.4106
 1.8930	82.5339
 1.8920	82.5980
 1.8910	82.6707
 1.8900	82.6882
 1.8890	82.7359
 1.8880	82.8264
 1.8870	82.8271
 1.8860	82.8626
 1.8850	82.8690
 1.8840	82.9511
 1.8830	83.0146
 1.8820	83.0204
 1.8810	82.9901
 1.8800	83.0320
 1.8790	83.1132
 1.8780	83.1479
 1.8770	83.1581
 1.8760	83.1242
 1.8750	83.2268
 1.8740	83.1408
 1.8730	83.1465
 1.8720	83.1676
 1.8710	83.0883
 1.8700	83.1746
 1.8690	83.2313
 1.8680	83.1654
 1.8670	83.1600
 1.8660	83.2126
 1.8650	83.2756
 1.8640	83.3204
 1.8630	83.3730
 1.8620	83.3621
 1.8610	83.3688
 1.8600	83.3479
 1.8590	83.3526
 1.8580	83.3606
 1.8570	83.3314
 1.8560	83.3474
 1.8550	83.3584
 1.8540	83.3330
 1.8530	83.3369
 1.8520	83.3417
 1.8510	83.3701
 1.8500	83.3931
 1.8490	83.3613
 1.8480	83.3485
 1.8470	83.3518
 1.8460	83.3760
 1.8450	83.3865
 1.8440	83.3682
 1.8430	83.3465
 1.8420	83.3574
 1.8410	83.4007
 1.8400	83.3745
 1.8390	83.3427
 1.8380	83.3692
 1.8370	83.3782
 1.8360	83.4208
 1.8350	83.4353
 1.8340	83.4138
 1.8330	83.4142
 1.8320	83.4034
 1.8310	83.4592
 1.8300	83.4273
 1.8290	83.3669
 1.8280	83.3553
 1.8270	83.4048
 1.8260	83.4442
 1.8250	83.4066
 1.8240	83.3628
 1.8230	83.4546
 1.8220	83.4567
 1.8210	83.4352
 1.8200	83.4004
 1.8190	83.4577
 1.8180	83.4598
 1.8170	83.4671
 1.8160	83.4376
 1.8150	83.4174
 1.8140	83.3637
 1.8130	83.4610
 1.8120	83.4956
 1.8110	83.4353
 1.8100	83.4968
 1.8090	83.4553
 1.8080	83.4000
 1.8070	83.4668
 1.8060	83.4355
 1.8050	83.3969
 1.8040	83.4464
 1.8030	83.4814
 1.8020	83.4858
 1.8010	83.4600
 1.8000	83.5217
 1.7990	83.5343
 1.7980	83.5055
 1.7970	83.5378
 1.7960	83.4477
 1.7950	83.4174
 1.7940	83.4759
 1.7930	83.4708
 1.7920	83.4626
 1.7910	83.4479
 1.7900	83.4710
 1.7890	83.4934
 1.7880	83.4666
 1.7870	83.4348
 1.7860	83.4173
 1.7850	83.4860
 1.7840	83.5282
 1.7830	83.5152
 1.7820	83.4670
 1.7810	83.4429
 1.7800	83.4154
 1.7790	83.4083
 1.7780	83.4076
 1.7770	83.4006
 1.7760	83.4237
 1.7750	83.4405
 1.7740	83.4560
 1.7730	83.4596
 1.7720	83.4190
 1.7710	83.3823
 1.7700	83.3691
 1.7690	83.3779
 1.7680	83.3757
 1.7670	83.4299
 1.7660	83.4381
 1.7650	83.4390
 1.7640	83.4465
 1.7630	83.4371
 1.7620	83.4174
 1.7610	83.3944
 1.7600	83.5237
 1.7590	83.4653
 1.7580	83.4011
 1.7570	83.4159
 1.7560	83.3863
 1.7550	83.4204
 1.7540	83.4579
 1.7530	83.4031
 1.7520	83.4529
 1.7510	83.4672
 1.7500	83.4109
 1.7490	83.3883
 1.7480	83.4676
 1.7470	83.4936
 1.7460	83.4556
 1.7450	83.4755
 1.7440	83.5483
 1.7430	83.4926
 1.7420	83.5206
 1.7410	83.5330
 1.7400	83.4983
 1.7390	83.5389
 1.7380	83.5543
 1.7370	83.4928
 1.7360	83.5177
 1.7350	83.5577
 1.7340	83.5827
 1.7330	83.5510
 1.7320	83.4851
 1.7310	83.5874
 1.7300	83.6062
 1.7290	83.6011
 1.7280	83.5557
 1.7270	83.5211
 1.7260	83.5994
 1.7250	83.5776
 1.7240	83.5332
 1.7230	83.5601
 1.7220	83.6294
 1.7210	83.5466
 1.7200	83.5224
 1.7190	83.5796
 1.7180	83.5876
 1.7170	83.5902
 1.7160	83.5953
 1.7150	83.5573
 1.7140	83.6081
 1.7130	83.5667
 1.7120	83.5410
 1.7110	83.4932
 1.7100	83.5228
 1.7090	83.6293
 1.7080	83.5584
 1.7070	83.5532
 1.7060	83.6257
 1.7050	83.5915
 1.7040	83.4846
 1.7030	83.5379
 1.7020	83.5103
 1.7010	83.5125
 1.7000	83.5489
 1.6990	83.5286
 1.6980	83.5726
 1.6970	83.5095
 1.6960	83.4993
 1.6950	83.4748
 1.6940	83.4603
 1.6930	83.4433
 1.6920	83.4583
 1.6910	83.5588
 1.6900	83.5508
 1.6890	83.4383
 1.6880	83.4183
 1.6870	83.4324
 1.6860	83.5597
 1.6850	83.5252
 1.6840	83.5836
 1.6830	83.4856
 1.6820	83.4501
 1.6810	83.5372
 1.6800	83.6058
 1.6790	83.4556
 1.6780	83.4641
 1.6770	83.5485
 1.6760	83.5499
 1.6750	83.5137
 1.6740	83.4881
 1.6730	83.5252
 1.6720	83.5682
 1.6710	83.5351
 1.6700	83.5189
 1.6690	83.4906
 1.6680	83.4875
 1.6670	83.5111
 1.6660	83.5380
 1.6650	83.5203
 1.6640	83.5317
 1.6630	83.4849
 1.6620	83.4416
 1.6610	83.4687
 1.6600	83.4807
 1.6590	83.4653
 1.6580	83.5169
 1.6570	83.6019
 1.6560	83.5487
 1.6550	83.5377
 1.6540	83.5197
 1.6530	83.4820
 1.6520	83.4776
 1.6510	83.4667
 1.6500	83.5465
 1.6490	83.5438
 1.6480	83.5706
 1.6470	83.4166
 1.6460	83.4787
 1.6450	83.4914
 1.6440	83.5387
 1.6430	83.4895
 1.6420	83.5698
 1.6410	83.5666
 1.6400	83.5172
 1.6390	83.5038
 1.6380	83.5470
 1.6370	83.5147
 1.6360	83.5384
 1.6350	83.5035
 1.6340	83.4978
 1.6330	83.5635
 1.6320	83.5251
 1.6310	83.5071
 1.6300	83.5726
 1.6290	83.4369
 1.6280	83.5130
 1.6270	83.4970
 1.6260	83.5877
 1.6250	83.5184
 1.6240	83.5190
 1.6230	83.5001
 1.6220	83.5007
 1.6210	83.5613
 1.6200	83.5810
 1.6190	83.4933
 1.6180	83.5051
 1.6170	83.4773
 1.6160	83.5086
 1.6150	83.5259
 1.6140	83.4837
 1.6130	83.5540
 1.6120	83.4502
 1.6110	83.4783
 1.6100	83.4981
 1.6090	83.5470
 1.6080	83.5211
 1.6070	83.5877
 1.6060	83.5767
 1.6050	83.4955
 1.6040	83.5513
 1.6030	83.4969
 1.6020	83.4583
 1.6010	83.4220
 1.6000	83.5641
 1.5990	83.4834
 1.5980	83.5533
 1.5970	83.5371
 1.5960	83.4640
 1.5950	83.4756
 1.5940	83.5323
 1.5930	83.5097
 1.5920	83.4987
 1.5910	83.4648
 1.5900	83.5582
 1.5890	83.4964
 1.5880	83.5439
 1.5870	83.4615
 1.5860	83.5291
 1.5850	83.5070
 1.5840	83.5551
 1.5830	83.4684
 1.5820	83.4693
 1.5810	83.4619
 1.5800	83.4495
 1.5790	83.4763
 1.5780	83.4882
 1.5770	83.4974
 1.5760	83.4998
 1.5750	83.4667
 1.5740	83.4858
 1.5730	83.4556
 1.5720	83.4203
 1.5710	83.4740
 1.5700	83.4775
 1.5690	83.4104
 1.5680	83.4508
 1.5670	83.4669
 1.5660	83.4573
 1.5650	83.4332
 1.5640	83.5174
 1.5630	83.5345
 1.5620	83.4112
 1.5610	83.4036
 1.5600	83.4729
 1.5590	83.4452
 1.5580	83.4606
 1.5570	83.3957
 1.5560	83.4211
 1.5550	83.4349
 1.5540	83.4477
 1.5530	83.4367
 1.5520	83.4345
 1.5510	83.4301
 1.5500	83.3855
 1.5490	83.4284
 1.5480	83.4353
 1.5470	83.4387
 1.5460	83.4734
 1.5450	83.4273
 1.5440	83.4186
 1.5430	83.4511
 1.5420	83.4150
 1.5410	83.3330
 1.5400	83.3817
 1.5390	83.4542
 1.5380	83.4539
 1.5370	83.4207
 1.5360	83.4558
 1.5350	83.4207
 1.5340	83.4324
 1.5330	83.4109
 1.5320	83.3874
 1.5310	83.3846
 1.5300	83.3999
 1.5290	83.3851
 1.5280	83.4010
 1.5270	83.4054
 1.5260	83.3211
 1.5250	83.3411
 1.5240	83.3553
 1.5230	83.3715
 1.5220	83.4154
 1.5210	83.3626
 1.5200	83.3605
 1.5190	83.3509
 1.5180	83.2750
 1.5170	83.2698
 1.5160	83.3440
 1.5150	83.3758
 1.5140	83.3484
 1.5130	83.3260
 1.5120	83.3425
 1.5110	83.3142
 1.5100	83.3135
 1.5090	83.2981
 1.5080	83.3373
 1.5070	83.3991
 1.5060	83.4104
 1.5050	83.3722
 1.5040	83.3389
 1.5030	83.3056
 1.5020	83.2757
 1.5010	83.2497
 1.5000	83.2855
 1.4990	83.2563
 1.4980	83.2336
 1.4970	83.3050
 1.4960	83.3080
 1.4950	83.3114
 1.4940	83.3341
 1.4930	83.2864
 1.4920	83.2185
 1.4910	83.1998
 1.4900	83.2422
 1.4890	83.2561
 1.4880	83.2255
 1.4870	83.2345
 1.4860	83.2311
 1.4850	83.2328
 1.4840	83.2181
 1.4830	83.1806
 1.4820	83.2079
 1.4810	83.2247
 1.4800	83.1652
 1.4790	83.1418
 1.4780	83.1305
 1.4770	83.1568
 1.4760	83.1688
 1.4750	83.1718
 1.4740	83.1997
 1.4730	83.2197
 1.4720	83.1157
 1.4710	83.1590
 1.4700	83.1881
 1.4690	83.1738
 1.4680	83.1517
 1.4670	83.1451
 1.4660	83.1742
 1.4650	83.1697
 1.4640	83.1538
 1.4630	83.2516
 1.4620	83.1717
 1.4610	83.1543
 1.4600	83.1501
 1.4590	83.1511
 1.4580	83.1627
 1.4570	83.0876
 1.4560	83.0368
 1.4550	83.0647
 1.4540	83.1034
 1.4530	83.0542
 1.4520	83.1008
 1.4510	83.1471
 1.4500	83.1142
 1.4490	83.1360
 1.4480	83.0677
 1.4470	83.0296
 1.4460	83.1093
 1.4450	83.0914
 1.4440	83.0391
 1.4430	83.0404
 1.4420	83.0455
 1.4410	83.1456
 1.4400	83.0513
 1.4390	83.0198
 1.4380	83.0108
 1.4370	83.0335
 1.4360	82.9943
 1.4350	82.9883
 1.4340	82.9395
 1.4330	82.9680
 1.4320	82.9432
 1.4310	82.9588
 1.4300	82.9152
 1.4290	82.9100
 1.4280	82.9281
 1.4270	82.9652
 1.4260	82.7959
 1.4250	82.8493
 1.4240	82.7965
 1.4230	82.7273
 1.4220	82.6916
 1.4210	82.6525
 1.4200	82.5499
 1.4190	82.4698
 1.4180	82.2088
 1.4170	82.0219
 1.4160	81.9781
 1.4150	81.9542
 1.4140	81.8609
 1.4130	81.9825
 1.4120	82.0839
 1.4110	82.2147
 1.4100	82.2766
 1.4090	82.2749
 1.4080	82.3773
 1.4070	82.4474
 1.4060	82.4126
 1.4050	82.5179
 1.4040	82.5436
 1.4030	82.5368
 1.4020	82.4295
 1.4010	82.4692
 1.4000	82.4704
 1.3990	82.4639
 1.3980	82.4957
 1.3970	82.5612
 1.3960	82.5678
 1.3950	82.4225
 1.3940	82.4438
 1.3930	82.4659
 1.3920	82.4617
 1.3910	82.6294
 1.3900	82.5777
 1.3890	82.5146
 1.3880	82.6516
 1.3870	82.5763
 1.3860	82.7424
 1.3850	82.6371
 1.3840	82.6919
 1.3830	82.7497
 1.3820	82.7995
 1.3810	82.9663
 1.3800	82.9539
 1.3790	82.9874
 1.3780	83.0148
 1.3770	83.0184
 1.3760	83.0939
 1.3750	83.1560
 1.3740	83.2101
 1.3730	83.1457
 1.3720	83.1683
 1.3710	83.1474
 1.3700	83.1906
 1.3690	83.2529
 1.3680	83.2076
 1.3670	83.3059
 1.3660	83.1770
