Name: Hemimorphite Zn_4Si_2O_7(OH)_2.H_2O
Type: Mineral
Class: Silicate
Subclass: Sorosilicate
Particle Size: Medium
Sample No.: SS-2A
Owner: JPL
Wavelength Range: VSWIR
Origin: Mexico, Durango, Ojuela Mine.
Collection Date: N/A
Description: Particle size was 45-125um. Collected by:  Burminco Original ASTER Spectral Library name was jpl.perkin.mineral.silicate.sorosilicate.medium.ss02a.spectrum.txt
Measurement: Hemispherical reflectance
First Column: X
Second Column: Y
X Units: Wavelength (micrometers)
Y Units:Reflectance (percent)
First X Value:  2.5000
Last X Value:  0.4000
Number of X Values: 2101
Additional Information: mineral.silicate.sorosilicate.medium.vswir.ss-2a.jpl.perkin.ancillary.txt

 2.5000	21.7940
 2.4990	21.5558
 2.4980	21.9069
 2.4970	22.2166
 2.4960	21.7252
 2.4950	22.4009
 2.4940	22.2596
 2.4930	22.4785
 2.4920	22.6670
 2.4910	22.9707
 2.4900	22.9245
 2.4890	23.2064
 2.4880	23.1900
 2.4870	23.5227
 2.4860	23.3908
 2.4850	23.8656
 2.4840	23.6490
 2.4830	24.0215
 2.4820	23.9134
 2.4810	24.3034
 2.4800	24.1869
 2.4790	24.4250
 2.4780	24.3978
 2.4770	24.7784
 2.4760	24.7761
 2.4750	24.9671
 2.4740	24.9663
 2.4730	25.1295
 2.4720	25.2339
 2.4710	25.5687
 2.4700	25.5239
 2.4690	25.6840
 2.4680	25.8428
 2.4670	25.9078
 2.4660	26.0007
 2.4650	26.2584
 2.4640	26.2504
 2.4630	26.3659
 2.4620	26.3851
 2.4610	26.5683
 2.4600	26.5067
 2.4590	26.9029
 2.4580	26.7950
 2.4570	27.0181
 2.4560	26.8693
 2.4550	27.2566
 2.4540	27.1688
 2.4530	27.4047
 2.4520	27.3050
 2.4510	27.6357
 2.4500	27.4905
 2.4490	27.6995
 2.4480	27.7816
 2.4470	27.8266
 2.4460	27.8723
 2.4450	28.0072
 2.4440	27.9698
 2.4430	28.2636
 2.4420	28.2449
 2.4410	28.3918
 2.4400	28.2905
 2.4390	28.4439
 2.4380	28.5178
 2.4370	28.6369
 2.4360	28.6630
 2.4350	28.8972
 2.4340	28.8727
 2.4330	29.0422
 2.4320	29.0173
 2.4310	29.1773
 2.4300	29.1532
 2.4290	29.3176
 2.4280	29.2602
 2.4270	29.5262
 2.4260	29.5710
 2.4250	29.6639
 2.4240	29.6661
 2.4230	29.8921
 2.4220	29.9103
 2.4210	30.0507
 2.4200	30.1010
 2.4190	30.3004
 2.4180	30.3244
 2.4170	30.4666
 2.4160	30.5458
 2.4150	30.6553
 2.4140	30.6488
 2.4130	30.7874
 2.4120	30.9152
 2.4110	31.0789
 2.4100	31.1008
 2.4090	31.2367
 2.4080	31.2628
 2.4070	31.4629
 2.4060	31.4719
 2.4050	31.6471
 2.4040	31.7964
 2.4030	31.9367
 2.4020	32.0316
 2.4010	32.1212
 2.4000	32.1459
 2.3990	32.3588
 2.3980	32.3957
 2.3970	32.4750
 2.3960	32.6072
 2.3950	32.8042
 2.3940	32.8501
 2.3930	32.9636
 2.3920	33.1097
 2.3910	33.2114
 2.3900	33.4117
 2.3890	33.5727
 2.3880	33.5898
 2.3870	33.7518
 2.3860	33.8823
 2.3850	33.9666
 2.3840	34.0892
 2.3830	34.3215
 2.3820	34.4683
 2.3810	34.6112
 2.3800	34.7004
 2.3790	34.8583
 2.3780	35.0239
 2.3770	35.2477
 2.3760	35.4318
 2.3750	35.6596
 2.3740	35.8374
 2.3730	36.0477
 2.3720	36.2017
 2.3710	36.4379
 2.3700	36.6441
 2.3690	36.8588
 2.3680	37.1086
 2.3670	37.3271
 2.3660	37.5571
 2.3650	37.8058
 2.3640	38.0785
 2.3630	38.3813
 2.3620	38.6082
 2.3610	38.8596
 2.3600	39.1917
 2.3590	39.4456
 2.3580	39.6268
 2.3570	39.9411
 2.3560	40.2846
 2.3550	40.6020
 2.3540	40.9516
 2.3530	41.2052
 2.3520	41.4505
 2.3510	41.7452
 2.3500	42.1040
 2.3490	42.4272
 2.3480	42.6970
 2.3470	43.0093
 2.3460	43.3021
 2.3450	43.5803
 2.3440	43.8854
 2.3430	44.1369
 2.3420	44.4275
 2.3410	44.7286
 2.3400	45.0060
 2.3390	45.2349
 2.3380	45.5188
 2.3370	45.7674
 2.3360	46.0455
 2.3350	46.2726
 2.3340	46.4786
 2.3330	46.6811
 2.3320	46.9212
 2.3310	47.1367
 2.3300	47.3188
 2.3290	47.4662
 2.3280	47.6568
 2.3270	47.8173
 2.3260	48.0380
 2.3250	48.2208
 2.3240	48.4244
 2.3230	48.5635
 2.3220	48.7381
 2.3210	48.8913
 2.3200	49.0543
 2.3190	49.1744
 2.3180	49.4022
 2.3170	49.5056
 2.3160	49.6011
 2.3150	49.7388
 2.3140	49.9183
 2.3130	50.0211
 2.3120	50.1579
 2.3110	50.2721
 2.3100	50.3930
 2.3090	50.4102
 2.3080	50.5683
 2.3070	50.6465
 2.3060	50.7479
 2.3050	50.8724
 2.3040	50.9509
 2.3030	50.9666
 2.3020	51.0994
 2.3010	51.1674
 2.3000	51.2916
 2.2990	51.3360
 2.2980	51.3693
 2.2970	51.4226
 2.2960	51.5071
 2.2950	51.5293
 2.2940	51.6105
 2.2930	51.6629
 2.2920	51.7370
 2.2910	51.7005
 2.2900	51.7689
 2.2890	51.8646
 2.2880	51.8838
 2.2870	51.8904
 2.2860	51.8984
 2.2850	51.9233
 2.2840	52.0326
 2.2830	52.0125
 2.2820	52.0292
 2.2810	52.0400
 2.2800	52.0766
 2.2790	52.1178
 2.2780	52.0817
 2.2770	52.0344
 2.2760	52.2000
 2.2750	52.1582
 2.2740	52.0672
 2.2730	52.0857
 2.2720	52.1819
 2.2710	52.1241
 2.2700	52.0992
 2.2690	52.0841
 2.2680	52.0462
 2.2670	51.9932
 2.2660	51.9920
 2.2650	51.9292
 2.2640	51.9885
 2.2630	51.9066
 2.2620	51.9607
 2.2610	51.8038
 2.2600	51.8280
 2.2590	51.7795
 2.2580	51.7033
 2.2570	51.6425
 2.2560	51.6570
 2.2550	51.5578
 2.2540	51.5386
 2.2530	51.4450
 2.2520	51.4417
 2.2510	51.3913
 2.2500	51.2775
 2.2490	51.1903
 2.2480	51.1861
 2.2470	51.0147
 2.2460	51.0395
 2.2450	50.9624
 2.2440	50.8663
 2.2430	50.7447
 2.2420	50.6998
 2.2410	50.6243
 2.2400	50.5756
 2.2390	50.4370
 2.2380	50.3547
 2.2370	50.2856
 2.2360	50.2694
 2.2350	50.0989
 2.2340	50.1339
 2.2330	49.9910
 2.2320	49.9334
 2.2310	49.8153
 2.2300	49.7718
 2.2290	49.6986
 2.2280	49.6336
 2.2270	49.5493
 2.2260	49.5702
 2.2250	49.4343
 2.2240	49.5171
 2.2230	49.4138
 2.2220	49.3780
 2.2210	49.3419
 2.2200	49.4634
 2.2190	49.3376
 2.2180	49.4205
 2.2170	49.4102
 2.2160	49.4639
 2.2150	49.4367
 2.2140	49.5938
 2.2130	49.5383
 2.2120	49.7976
 2.2110	49.5430
 2.2100	49.8856
 2.2090	49.8948
 2.2080	50.0112
 2.2070	50.0977
 2.2060	50.1683
 2.2050	50.1668
 2.2040	50.5161
 2.2030	50.4810
 2.2020	50.5918
 2.2010	50.7193
 2.2000	50.8832
 2.1990	51.0267
 2.1980	51.1595
 2.1970	51.3030
 2.1960	51.3401
 2.1950	51.4820
 2.1940	51.7359
 2.1930	51.8227
 2.1920	51.9829
 2.1910	52.1092
 2.1900	52.3094
 2.1890	52.4162
 2.1880	52.6883
 2.1870	52.6956
 2.1860	52.9780
 2.1850	53.1445
 2.1840	53.2786
 2.1830	53.4640
 2.1820	53.6428
 2.1810	53.9136
 2.1800	54.0152
 2.1790	54.1551
 2.1780	54.3580
 2.1770	54.5946
 2.1760	54.7542
 2.1750	54.7876
 2.1740	55.1121
 2.1730	55.2509
 2.1720	55.4393
 2.1710	55.6029
 2.1700	55.7513
 2.1690	55.9020
 2.1680	56.0237
 2.1670	56.2047
 2.1660	56.3900
 2.1650	56.5101
 2.1640	56.7128
 2.1630	56.7998
 2.1620	57.0464
 2.1610	57.0878
 2.1600	57.2126
 2.1590	57.4392
 2.1580	57.5743
 2.1570	57.7563
 2.1560	57.9055
 2.1550	58.0071
 2.1540	58.2044
 2.1530	58.2829
 2.1520	58.4807
 2.1510	58.5778
 2.1500	58.7254
 2.1490	58.8077
 2.1480	59.0114
 2.1470	59.0777
 2.1460	59.3123
 2.1450	59.3806
 2.1440	59.4865
 2.1430	59.5563
 2.1420	59.7090
 2.1410	59.8558
 2.1400	59.9165
 2.1390	60.1109
 2.1380	60.2376
 2.1370	60.2556
 2.1360	60.4225
 2.1350	60.4990
 2.1340	60.5861
 2.1330	60.6546
 2.1320	60.7285
 2.1310	60.7989
 2.1300	60.9559
 2.1290	60.9877
 2.1280	61.0752
 2.1270	61.1379
 2.1260	61.2337
 2.1250	61.2856
 2.1240	61.3431
 2.1230	61.3885
 2.1220	61.4593
 2.1210	61.4665
 2.1200	61.5156
 2.1190	61.5767
 2.1180	61.6130
 2.1170	61.6703
 2.1160	61.7667
 2.1150	61.7455
 2.1140	61.7850
 2.1130	61.7989
 2.1120	61.8407
 2.1110	61.8477
 2.1100	61.9072
 2.1090	61.8800
 2.1080	61.9122
 2.1070	61.9592
 2.1060	61.9539
 2.1050	61.9749
 2.1040	61.9935
 2.1030	61.9651
 2.1020	61.9303
 2.1010	61.9132
 2.1000	61.9721
 2.0990	62.0437
 2.0980	62.0623
 2.0970	62.0376
 2.0960	62.1029
 2.0950	62.1231
 2.0940	62.1215
 2.0930	62.1472
 2.0920	62.1215
 2.0910	62.1324
 2.0900	62.1539
 2.0890	62.1722
 2.0880	62.2161
 2.0870	62.1642
 2.0860	62.1469
 2.0850	62.1529
 2.0840	62.1774
 2.0830	62.1741
 2.0820	62.1945
 2.0810	62.2330
 2.0800	62.2193
 2.0790	62.1784
 2.0780	62.1732
 2.0770	62.1662
 2.0760	62.1160
 2.0750	62.1390
 2.0740	62.1547
 2.0730	62.1028
 2.0720	62.1225
 2.0710	62.0966
 2.0700	62.1263
 2.0690	62.0804
 2.0680	62.0215
 2.0670	62.0845
 2.0660	61.9986
 2.0650	61.9188
 2.0640	61.9321
 2.0630	61.9371
 2.0620	61.8911
 2.0610	61.8253
 2.0600	61.7849
 2.0590	61.7543
 2.0580	61.6484
 2.0570	61.5703
 2.0560	61.5407
 2.0550	61.4636
 2.0540	61.4505
 2.0530	61.3917
 2.0520	61.2639
 2.0510	61.1901
 2.0500	61.0974
 2.0490	61.0431
 2.0480	60.9592
 2.0470	60.9220
 2.0460	60.8461
 2.0450	60.7269
 2.0440	60.5499
 2.0430	60.4445
 2.0420	60.3509
 2.0410	60.3315
 2.0400	60.2053
 2.0390	60.1047
 2.0380	59.9660
 2.0370	59.8139
 2.0360	59.6489
 2.0350	59.5740
 2.0340	59.4415
 2.0330	59.3125
 2.0320	59.1477
 2.0310	58.9963
 2.0300	58.8314
 2.0290	58.6899
 2.0280	58.5298
 2.0270	58.3689
 2.0260	58.1424
 2.0250	58.0452
 2.0240	57.8554
 2.0230	57.6573
 2.0220	57.5262
 2.0210	57.3221
 2.0200	57.0745
 2.0190	56.9442
 2.0180	56.6812
 2.0170	56.4966
 2.0160	56.2967
 2.0150	56.1026
 2.0140	55.8682
 2.0130	55.6462
 2.0120	55.3113
 2.0110	55.1456
 2.0100	54.9665
 2.0090	54.7265
 2.0080	54.3744
 2.0070	54.1280
 2.0060	53.8607
 2.0050	53.6118
 2.0040	53.3545
 2.0030	53.0657
 2.0020	52.7649
 2.0010	52.5117
 2.0000	52.1731
 1.9990	51.8916
 1.9980	51.5117
 1.9970	51.1574
 1.9960	50.8656
 1.9950	50.5572
 1.9940	50.1578
 1.9930	49.8608
 1.9920	49.4542
 1.9910	49.1465
 1.9900	48.8083
 1.9890	48.4284
 1.9880	48.0993
 1.9870	47.8466
 1.9860	47.4552
 1.9850	47.1257
 1.9840	46.8067
 1.9830	46.5303
 1.9820	46.1907
 1.9810	45.9422
 1.9800	45.6291
 1.9790	45.3863
 1.9780	45.1219
 1.9770	44.9616
 1.9760	44.6294
 1.9750	44.5008
 1.9740	44.3117
 1.9730	44.2182
 1.9720	44.0571
 1.9710	43.8941
 1.9700	43.7463
 1.9690	43.6925
 1.9680	43.5785
 1.9670	43.6096
 1.9660	43.4349
 1.9650	43.4445
 1.9640	43.3966
 1.9630	43.3678
 1.9620	43.3077
 1.9610	43.2962
 1.9600	43.2353
 1.9590	43.2070
 1.9580	43.0974
 1.9570	43.1545
 1.9560	43.0127
 1.9550	42.8917
 1.9540	42.8218
 1.9530	42.7339
 1.9520	42.5835
 1.9510	42.4880
 1.9500	42.1523
 1.9490	42.1101
 1.9480	41.7238
 1.9470	41.5421
 1.9460	41.2102
 1.9450	40.9675
 1.9440	40.5140
 1.9430	40.2962
 1.9420	39.6652
 1.9410	39.3573
 1.9400	38.7453
 1.9390	38.2489
 1.9380	37.6066
 1.9370	37.0796
 1.9360	36.4094
 1.9350	35.8383
 1.9340	35.0412
 1.9330	34.4581
 1.9320	33.5679
 1.9310	32.9144
 1.9300	32.1491
 1.9290	31.3488
 1.9280	30.5710
 1.9270	29.8754
 1.9260	28.8877
 1.9250	28.3547
 1.9240	27.5321
 1.9230	26.9013
 1.9220	26.3305
 1.9210	25.8442
 1.9200	25.3342
 1.9190	24.9725
 1.9180	24.7052
 1.9170	24.4679
 1.9160	24.2442
 1.9150	24.4098
 1.9140	24.3338
 1.9130	24.6246
 1.9120	24.8257
 1.9110	25.3085
 1.9100	25.7620
 1.9090	26.4066
 1.9080	26.9184
 1.9070	27.7124
 1.9060	28.5425
 1.9050	29.4439
 1.9040	30.4495
 1.9030	31.4528
 1.9020	32.5860
 1.9010	33.7584
 1.9000	34.8227
 1.8990	35.9042
 1.8980	36.9254
 1.8970	38.0240
 1.8960	38.9471
 1.8950	40.0834
 1.8940	41.0015
 1.8930	42.0647
 1.8920	42.9257
 1.8910	43.9570
 1.8900	44.8156
 1.8890	45.7245
 1.8880	46.5281
 1.8870	47.3798
 1.8860	48.0545
 1.8850	48.9399
 1.8840	49.5932
 1.8830	50.3344
 1.8820	50.9693
 1.8810	51.6931
 1.8800	52.2365
 1.8790	52.8553
 1.8780	53.2995
 1.8770	53.8372
 1.8760	54.2843
 1.8750	54.7782
 1.8740	55.2874
 1.8730	55.8161
 1.8720	56.2421
 1.8710	56.7314
 1.8700	57.1284
 1.8690	57.5263
 1.8680	57.7878
 1.8670	58.1181
 1.8660	58.3675
 1.8650	58.6768
 1.8640	58.8598
 1.8630	59.0533
 1.8620	59.1926
 1.8610	59.4339
 1.8600	59.5717
 1.8590	59.6550
 1.8580	59.7570
 1.8570	59.8515
 1.8560	59.8952
 1.8550	59.9987
 1.8540	60.0153
 1.8530	60.1180
 1.8520	60.1333
 1.8510	60.1398
 1.8500	60.1508
 1.8490	60.1796
 1.8480	60.1342
 1.8470	60.0927
 1.8460	60.1387
 1.8450	60.1693
 1.8440	60.1735
 1.8430	60.2081
 1.8420	60.1672
 1.8410	60.2006
 1.8400	60.2570
 1.8390	60.2586
 1.8380	60.2728
 1.8370	60.3680
 1.8360	60.3836
 1.8350	60.4467
 1.8340	60.5294
 1.8330	60.6657
 1.8320	60.7154
 1.8310	60.7544
 1.8300	60.7881
 1.8290	60.9133
 1.8280	61.0123
 1.8270	61.1009
 1.8260	61.1437
 1.8250	61.2881
 1.8240	61.3456
 1.8230	61.4821
 1.8220	61.5441
 1.8210	61.6924
 1.8200	61.8084
 1.8190	61.9030
 1.8180	62.0004
 1.8170	62.1502
 1.8160	62.2546
 1.8150	62.3895
 1.8140	62.5452
 1.8130	62.7500
 1.8120	62.9232
 1.8110	63.1359
 1.8100	63.2939
 1.8090	63.4261
 1.8080	63.6050
 1.8070	63.8299
 1.8060	63.9886
 1.8050	64.1595
 1.8040	64.4137
 1.8030	64.6279
 1.8020	64.8357
 1.8010	65.0432
 1.8000	65.2623
 1.7990	65.5127
 1.7980	65.7453
 1.7970	65.9860
 1.7960	66.2409
 1.7950	66.4103
 1.7940	66.5920
 1.7930	66.8593
 1.7920	67.0407
 1.7910	67.2837
 1.7900	67.5398
 1.7890	67.7925
 1.7880	68.0380
 1.7870	68.2859
 1.7860	68.5642
 1.7850	68.8524
 1.7840	69.1252
 1.7830	69.3246
 1.7820	69.5985
 1.7810	69.9090
 1.7800	70.1842
 1.7790	70.4831
 1.7780	70.7926
 1.7770	71.0650
 1.7760	71.3429
 1.7750	71.6500
 1.7740	71.9426
 1.7730	72.1662
 1.7720	72.4710
 1.7710	72.7277
 1.7700	72.9840
 1.7690	73.2397
 1.7680	73.4874
 1.7670	73.7941
 1.7660	74.0500
 1.7650	74.2633
 1.7640	74.5524
 1.7630	74.7392
 1.7620	74.9388
 1.7610	75.1902
 1.7600	75.3842
 1.7590	75.6240
 1.7580	75.8807
 1.7570	76.0849
 1.7560	76.3010
 1.7550	76.4852
 1.7540	76.6931
 1.7530	76.8686
 1.7520	77.0713
 1.7510	77.2415
 1.7500	77.4164
 1.7490	77.5547
 1.7480	77.7402
 1.7470	77.9300
 1.7460	78.0210
 1.7450	78.2584
 1.7440	78.5067
 1.7430	78.6007
 1.7420	78.7272
 1.7410	78.8488
 1.7400	79.0122
 1.7390	79.1238
 1.7380	79.3197
 1.7370	79.4361
 1.7360	79.5919
 1.7350	79.7590
 1.7340	79.9069
 1.7330	79.9773
 1.7320	80.0738
 1.7310	80.1847
 1.7300	80.3182
 1.7290	80.4089
 1.7280	80.5526
 1.7270	80.6095
 1.7260	80.8213
 1.7250	80.9009
 1.7240	80.9728
 1.7230	81.0552
 1.7220	81.1871
 1.7210	81.1822
 1.7200	81.3334
 1.7190	81.3650
 1.7180	81.4963
 1.7170	81.6395
 1.7160	81.6518
 1.7150	81.7220
 1.7140	81.8222
 1.7130	81.9847
 1.7120	82.0823
 1.7110	82.1166
 1.7100	82.1434
 1.7090	82.1592
 1.7080	82.2171
 1.7070	82.2250
 1.7060	82.4087
 1.7050	82.4268
 1.7040	82.4732
 1.7030	82.4756
 1.7020	82.5318
 1.7010	82.6308
 1.7000	82.6364
 1.6990	82.7147
 1.6980	82.8170
 1.6970	82.8442
 1.6960	82.8206
 1.6950	82.8826
 1.6940	82.8561
 1.6930	82.9566
 1.6920	82.9597
 1.6910	82.9915
 1.6900	83.0135
 1.6890	82.9735
 1.6880	82.9926
 1.6870	83.0921
 1.6860	83.0558
 1.6850	83.0904
 1.6840	83.1389
 1.6830	83.1425
 1.6820	83.1303
 1.6810	83.0396
 1.6800	83.0836
 1.6790	83.1246
 1.6780	83.0682
 1.6770	83.1706
 1.6760	83.2056
 1.6750	83.1040
 1.6740	83.1467
 1.6730	83.1449
 1.6720	83.1114
 1.6710	83.1538
 1.6700	83.1062
 1.6690	83.1377
 1.6680	83.0904
 1.6670	83.1118
 1.6660	83.0882
 1.6650	82.9691
 1.6640	83.0754
 1.6630	83.0112
 1.6620	82.9936
 1.6610	83.1301
 1.6600	82.9834
 1.6590	82.9674
 1.6580	82.8725
 1.6570	82.9963
 1.6560	82.9024
 1.6550	82.8410
 1.6540	82.9270
 1.6530	82.8719
 1.6520	82.8312
 1.6510	82.7767
 1.6500	82.6991
 1.6490	82.7431
 1.6480	82.7366
 1.6470	82.7207
 1.6460	82.7575
 1.6450	82.6645
 1.6440	82.6403
 1.6430	82.6530
 1.6420	82.5506
 1.6410	82.4702
 1.6400	82.5917
 1.6390	82.4713
 1.6380	82.5050
 1.6370	82.4289
 1.6360	82.4368
 1.6350	82.3120
 1.6340	82.4047
 1.6330	82.2601
 1.6320	82.2212
 1.6310	82.2853
 1.6300	82.1626
 1.6290	82.0858
 1.6280	82.0241
 1.6270	82.0123
 1.6260	81.8963
 1.6250	81.9814
 1.6240	81.9397
 1.6230	81.8100
 1.6220	81.7317
 1.6210	81.7913
 1.6200	81.7008
 1.6190	81.6359
 1.6180	81.5570
 1.6170	81.6318
 1.6160	81.5523
 1.6150	81.4858
 1.6140	81.4121
 1.6130	81.3652
 1.6120	81.4061
 1.6110	81.3655
 1.6100	81.2586
 1.6090	81.1669
 1.6080	81.1089
 1.6070	81.0667
 1.6060	81.0615
 1.6050	80.9599
 1.6040	80.9069
 1.6030	80.9704
 1.6020	80.8298
 1.6010	80.8314
 1.6000	80.8358
 1.5990	80.7426
 1.5980	80.6659
 1.5970	80.5816
 1.5960	80.5155
 1.5950	80.4471
 1.5940	80.4216
 1.5930	80.3151
 1.5920	80.3262
 1.5910	80.1402
 1.5900	80.1209
 1.5890	80.0106
 1.5880	80.0868
 1.5870	79.9217
 1.5860	79.7631
 1.5850	79.8092
 1.5840	79.7686
 1.5830	79.6116
 1.5820	79.5785
 1.5810	79.5010
 1.5800	79.4581
 1.5790	79.3151
 1.5780	79.2655
 1.5770	79.1333
 1.5760	79.0300
 1.5750	78.9728
 1.5740	78.9188
 1.5730	78.8937
 1.5720	78.7957
 1.5710	78.6782
 1.5700	78.6890
 1.5690	78.5887
 1.5680	78.4710
 1.5670	78.3054
 1.5660	78.2581
 1.5650	78.1566
 1.5640	78.0713
 1.5630	78.0210
 1.5620	77.9238
 1.5610	77.7935
 1.5600	77.7727
 1.5590	77.6571
 1.5580	77.5415
 1.5570	77.4861
 1.5560	77.3378
 1.5550	77.1722
 1.5540	77.0631
 1.5530	76.9843
 1.5520	76.8900
 1.5510	76.6948
 1.5500	76.6255
 1.5490	76.5050
 1.5480	76.4038
 1.5470	76.2756
 1.5460	76.1564
 1.5450	75.9974
 1.5440	75.9213
 1.5430	75.8063
 1.5420	75.6087
 1.5410	75.4439
 1.5400	75.3857
 1.5390	75.2169
 1.5380	75.1105
 1.5370	74.9791
 1.5360	74.7927
 1.5350	74.6732
 1.5340	74.5539
 1.5330	74.4242
 1.5320	74.2800
 1.5310	74.1296
 1.5300	73.9453
 1.5290	73.7570
 1.5280	73.5844
 1.5270	73.4075
 1.5260	73.2856
 1.5250	73.1449
 1.5240	72.9377
 1.5230	72.7542
 1.5220	72.5553
 1.5210	72.3931
 1.5200	72.2300
 1.5190	72.0451
 1.5180	71.8769
 1.5170	71.6417
 1.5160	71.4839
 1.5150	71.3312
 1.5140	71.1015
 1.5130	70.8604
 1.5120	70.6978
 1.5110	70.5018
 1.5100	70.3016
 1.5090	70.0986
 1.5080	69.8569
 1.5070	69.6021
 1.5060	69.4038
 1.5050	69.2001
 1.5040	68.9626
 1.5030	68.6980
 1.5020	68.4312
 1.5010	68.1788
 1.5000	67.8987
 1.4990	67.6312
 1.4980	67.4095
 1.4970	67.1794
 1.4960	66.9028
 1.4950	66.6079
 1.4940	66.2927
 1.4930	65.9694
 1.4920	65.6428
 1.4910	65.3237
 1.4900	65.0130
 1.4890	64.6760
 1.4880	64.3442
 1.4870	63.9770
 1.4860	63.6074
 1.4850	63.2032
 1.4840	62.7734
 1.4830	62.3595
 1.4820	61.9576
 1.4810	61.4930
 1.4800	61.0780
 1.4790	60.6685
 1.4780	60.1968
 1.4770	59.7547
 1.4760	59.2789
 1.4750	58.8584
 1.4740	58.4491
 1.4730	58.0851
 1.4720	57.7227
 1.4710	57.4702
 1.4700	57.2404
 1.4690	57.1118
 1.4680	57.0054
 1.4670	56.8911
 1.4660	56.7827
 1.4650	56.7359
 1.4640	56.6967
 1.4630	56.6824
 1.4620	56.6116
 1.4610	56.5067
 1.4600	56.3516
 1.4590	56.2303
 1.4580	56.0162
 1.4570	55.8318
 1.4560	55.5705
 1.4550	55.3353
 1.4540	54.9791
 1.4530	54.6477
 1.4520	54.3247
 1.4510	53.9592
 1.4500	53.5760
 1.4490	53.1655
 1.4480	52.7175
 1.4470	52.3444
 1.4460	51.8435
 1.4450	51.3467
 1.4440	50.8614
 1.4430	50.3025
 1.4420	49.7678
 1.4410	49.2464
 1.4400	48.6771
 1.4390	48.0953
 1.4380	47.5330
 1.4370	46.9453
 1.4360	46.3836
 1.4350	45.7778
 1.4340	45.1568
 1.4330	44.6417
 1.4320	44.1204
 1.4310	43.5910
 1.4300	43.1240
 1.4290	42.6924
 1.4280	42.2449
 1.4270	41.9591
 1.4260	41.6427
 1.4250	41.4266
 1.4240	41.1544
 1.4230	41.1465
 1.4220	41.1153
 1.4210	41.2208
 1.4200	41.3219
 1.4190	41.5855
 1.4180	41.7660
 1.4170	42.1483
 1.4160	42.5694
 1.4150	43.0796
 1.4140	43.5998
 1.4130	44.2183
 1.4120	44.7766
 1.4110	45.5317
 1.4100	46.1999
 1.4090	46.9536
 1.4080	47.6531
 1.4070	48.4977
 1.4060	49.2680
 1.4050	50.2661
 1.4040	50.9812
 1.4030	51.9776
 1.4020	52.8091
 1.4010	53.7459
 1.4000	54.6606
 1.3990	55.5878
 1.3980	56.4753
 1.3970	57.3580
 1.3960	58.3047
 1.3950	59.1906
 1.3940	60.0592
 1.3930	60.9621
 1.3920	61.6946
 1.3910	62.6302
 1.3900	63.3721
 1.3890	64.0972
 1.3880	64.8834
 1.3870	65.5475
 1.3860	66.1754
 1.3850	66.7771
 1.3840	67.3149
 1.3830	67.9702
 1.3820	68.5004
 1.3810	69.0380
 1.3800	69.5223
 1.3790	69.9223
 1.3780	70.3540
 1.3770	70.7229
 1.3760	71.1445
 1.3750	71.5043
 1.3740	71.7636
 1.3730	72.1061
 1.3720	72.4478
 1.3710	72.8250
 1.3700	73.0427
 1.3690	73.3472
 1.3680	73.5795
