Name: Mimetite Pb_5(AsO_4)_3Cl
Type: Mineral
Class: Arsenate
Subclass: None
Particle Size: Medium
Sample No.: A-1A
Owner: JPL
Wavelength Range: VSWIR
Origin: Mexico, Chihuahua, Ingla Tierra Mine.
Collection Date: N/A
Description: Particle size was 45-125um.Collected by:  JPL Original ASTER Spectral Library name was jpl.perkin.mineral.arsenate.none.medium.a01a.spectrum.txt
Measurement: Hemispherical reflectance
First Column: X
Second Column: Y
X Units: Wavelength (micrometers)
Y Units:Reflectance (percent)
First X Value:  2.5000
Last X Value:  0.4000
Number of X Values: 2101
Additional Information: mineral.arsenate.none.medium.vswir.a-1a.jpl.perkin.ancillary.txt

 2.5000	76.1501
 2.4990	76.0659
 2.4980	76.0463
 2.4970	76.1416
 2.4960	75.9166
 2.4950	75.9914
 2.4940	76.1333
 2.4930	76.0062
 2.4920	76.0414
 2.4910	76.0926
 2.4900	75.8374
 2.4890	76.1101
 2.4880	76.0584
 2.4870	76.0257
 2.4860	76.0583
 2.4850	76.2296
 2.4840	76.2016
 2.4830	76.2505
 2.4820	76.0996
 2.4810	76.1840
 2.4800	76.1931
 2.4790	76.2851
 2.4780	76.2955
 2.4770	76.2852
 2.4760	76.4691
 2.4750	76.4423
 2.4740	76.2941
 2.4730	76.3678
 2.4720	76.4038
 2.4710	76.4163
 2.4700	76.4432
 2.4690	76.5648
 2.4680	76.4252
 2.4670	76.5223
 2.4660	76.5555
 2.4650	76.7643
 2.4640	76.8166
 2.4630	76.6605
 2.4620	76.6797
 2.4610	76.7311
 2.4600	76.6173
 2.4590	76.6999
 2.4580	76.6565
 2.4570	76.8327
 2.4560	76.8746
 2.4550	76.7487
 2.4540	76.8748
 2.4530	76.7982
 2.4520	76.7454
 2.4510	76.7471
 2.4500	76.6734
 2.4490	76.7674
 2.4480	76.8110
 2.4470	76.7946
 2.4460	76.8268
 2.4450	76.8339
 2.4440	76.8587
 2.4430	76.9067
 2.4420	76.8137
 2.4410	76.9493
 2.4400	76.9673
 2.4390	76.9468
 2.4380	77.0087
 2.4370	77.0145
 2.4360	76.9504
 2.4350	76.9965
 2.4340	77.0139
 2.4330	76.9589
 2.4320	76.9643
 2.4310	77.0477
 2.4300	76.9901
 2.4290	77.0666
 2.4280	76.9314
 2.4270	77.0772
 2.4260	77.0547
 2.4250	77.1705
 2.4240	77.1913
 2.4230	77.1623
 2.4220	77.1861
 2.4210	77.1931
 2.4200	77.3145
 2.4190	77.3604
 2.4180	77.2960
 2.4170	77.2712
 2.4160	77.2934
 2.4150	77.3126
 2.4140	77.2530
 2.4130	77.2538
 2.4120	77.3359
 2.4110	77.4374
 2.4100	77.4246
 2.4090	77.3732
 2.4080	77.4130
 2.4070	77.4895
 2.4060	77.4178
 2.4050	77.4245
 2.4040	77.4207
 2.4030	77.4590
 2.4020	77.4964
 2.4010	77.5361
 2.4000	77.5566
 2.3990	77.6076
 2.3980	77.5863
 2.3970	77.6569
 2.3960	77.6222
 2.3950	77.7183
 2.3940	77.7501
 2.3930	77.7606
 2.3920	77.7173
 2.3910	77.8009
 2.3900	77.8512
 2.3890	77.8416
 2.3880	77.8604
 2.3870	77.9512
 2.3860	77.9908
 2.3850	77.9616
 2.3840	77.9084
 2.3830	77.9094
 2.3820	77.9622
 2.3810	78.0815
 2.3800	78.0817
 2.3790	78.0699
 2.3780	78.0118
 2.3770	77.9948
 2.3760	78.1053
 2.3750	78.2067
 2.3740	78.1965
 2.3730	78.1785
 2.3720	78.2237
 2.3710	78.2152
 2.3700	78.2365
 2.3690	78.2950
 2.3680	78.3162
 2.3670	78.3559
 2.3660	78.3156
 2.3650	78.2465
 2.3640	78.2016
 2.3630	78.2581
 2.3620	78.2862
 2.3610	78.2785
 2.3600	78.2826
 2.3590	78.2238
 2.3580	78.2130
 2.3570	78.2657
 2.3560	78.3135
 2.3550	78.2989
 2.3540	78.3293
 2.3530	78.3414
 2.3520	78.3090
 2.3510	78.2947
 2.3500	78.3243
 2.3490	78.3239
 2.3480	78.2863
 2.3470	78.2896
 2.3460	78.2491
 2.3450	78.2297
 2.3440	78.2159
 2.3430	78.2342
 2.3420	78.2232
 2.3410	78.1509
 2.3400	78.1403
 2.3390	78.1803
 2.3380	78.1576
 2.3370	78.1038
 2.3360	78.0672
 2.3350	78.0439
 2.3340	78.0708
 2.3330	78.0881
 2.3320	78.0614
 2.3310	78.0499
 2.3300	78.0852
 2.3290	78.0787
 2.3280	78.0697
 2.3270	78.0657
 2.3260	78.0811
 2.3250	78.0866
 2.3240	78.0730
 2.3230	78.1528
 2.3220	78.1923
 2.3210	78.1474
 2.3200	78.0928
 2.3190	78.1428
 2.3180	78.2028
 2.3170	78.2171
 2.3160	78.1928
 2.3150	78.2328
 2.3140	78.2750
 2.3130	78.2908
 2.3120	78.2947
 2.3110	78.3112
 2.3100	78.3720
 2.3090	78.4194
 2.3080	78.4015
 2.3070	78.3615
 2.3060	78.4255
 2.3050	78.4326
 2.3040	78.4883
 2.3030	78.4920
 2.3020	78.5942
 2.3010	78.5646
 2.3000	78.5466
 2.2990	78.5342
 2.2980	78.5495
 2.2970	78.4617
 2.2960	78.5679
 2.2950	78.6024
 2.2940	78.5906
 2.2930	78.5982
 2.2920	78.5324
 2.2910	78.5419
 2.2900	78.6184
 2.2890	78.6465
 2.2880	78.5910
 2.2870	78.6136
 2.2860	78.6549
 2.2850	78.5318
 2.2840	78.5357
 2.2830	78.5160
 2.2820	78.5161
 2.2810	78.4638
 2.2800	78.4659
 2.2790	78.5209
 2.2780	78.4088
 2.2770	78.3544
 2.2760	78.3751
 2.2750	78.3864
 2.2740	78.3609
 2.2730	78.3345
 2.2720	78.3035
 2.2710	78.3302
 2.2700	78.2578
 2.2690	78.2759
 2.2680	78.2453
 2.2670	78.3264
 2.2660	78.2625
 2.2650	78.3151
 2.2640	78.3095
 2.2630	78.3019
 2.2620	78.2892
 2.2610	78.2630
 2.2600	78.3946
 2.2590	78.3683
 2.2580	78.4310
 2.2570	78.4823
 2.2560	78.4728
 2.2550	78.4424
 2.2540	78.4727
 2.2530	78.5682
 2.2520	78.7308
 2.2510	78.6692
 2.2500	78.6749
 2.2490	78.7474
 2.2480	78.7820
 2.2470	78.7130
 2.2460	78.7826
 2.2450	78.8199
 2.2440	78.8257
 2.2430	78.8833
 2.2420	78.8377
 2.2410	78.8511
 2.2400	79.0262
 2.2390	79.0214
 2.2380	78.9364
 2.2370	78.8892
 2.2360	79.0453
 2.2350	79.0779
 2.2340	78.9657
 2.2330	79.0133
 2.2320	79.0974
 2.2310	79.1157
 2.2300	79.1569
 2.2290	79.1114
 2.2280	79.1377
 2.2270	79.2333
 2.2260	79.1731
 2.2250	79.1988
 2.2240	79.2465
 2.2230	79.1921
 2.2220	79.2954
 2.2210	79.2935
 2.2200	79.2576
 2.2190	79.2934
 2.2180	79.3878
 2.2170	79.3027
 2.2160	79.3557
 2.2150	79.4698
 2.2140	79.4339
 2.2130	79.4104
 2.2120	79.5392
 2.2110	79.4459
 2.2100	79.5074
 2.2090	79.5309
 2.2080	79.5730
 2.2070	79.5718
 2.2060	79.5861
 2.2050	79.5851
 2.2040	79.0025
 2.2030	79.7457
 2.2020	79.6564
 2.2010	79.8336
 2.2000	79.7761
 2.1990	79.7265
 2.1980	79.8133
 2.1970	79.8164
 2.1960	79.8328
 2.1950	79.8125
 2.1940	79.8809
 2.1930	79.8472
 2.1920	79.8926
 2.1910	79.9064
 2.1900	79.8705
 2.1890	79.8464
 2.1880	79.9153
 2.1870	79.8967
 2.1860	79.8967
 2.1850	80.0210
 2.1840	80.0177
 2.1830	80.0225
 2.1820	80.0511
 2.1810	80.0361
 2.1800	80.0411
 2.1790	80.1039
 2.1780	80.2220
 2.1770	80.1051
 2.1760	80.1804
 2.1750	80.1603
 2.1740	80.1700
 2.1730	80.2710
 2.1720	80.2989
 2.1710	80.3257
 2.1700	80.2583
 2.1690	80.3390
 2.1680	80.4331
 2.1670	80.4861
 2.1660	80.4626
 2.1650	80.4299
 2.1640	80.4232
 2.1630	80.5392
 2.1620	80.5386
 2.1610	80.5066
 2.1600	80.6103
 2.1590	80.6453
 2.1580	80.7127
 2.1570	80.6960
 2.1560	80.7178
 2.1550	80.7450
 2.1540	80.7145
 2.1530	80.7668
 2.1520	80.7832
 2.1510	80.8635
 2.1500	80.8137
 2.1490	80.7820
 2.1480	80.7409
 2.1470	80.8575
 2.1460	80.8565
 2.1450	80.7781
 2.1440	80.8650
 2.1430	80.8631
 2.1420	80.8057
 2.1410	80.7753
 2.1400	80.7593
 2.1390	80.8037
 2.1380	80.8016
 2.1370	80.7251
 2.1360	80.7661
 2.1350	80.8061
 2.1340	80.7115
 2.1330	80.6881
 2.1320	80.6817
 2.1310	80.6880
 2.1300	80.7340
 2.1290	80.6016
 2.1280	80.6574
 2.1270	80.6635
 2.1260	80.5934
 2.1250	80.4909
 2.1240	80.4395
 2.1230	80.4054
 2.1220	80.3266
 2.1210	80.3329
 2.1200	80.2430
 2.1190	80.1368
 2.1180	80.1979
 2.1170	80.1601
 2.1160	80.1384
 2.1150	80.0644
 2.1140	80.0615
 2.1130	80.0034
 2.1120	79.8810
 2.1110	79.8605
 2.1100	79.8366
 2.1090	79.7713
 2.1080	79.7370
 2.1070	79.7417
 2.1060	79.7663
 2.1050	79.6792
 2.1040	79.6189
 2.1030	79.5994
 2.1020	79.5975
 2.1010	79.5333
 2.1000	79.5315
 2.0990	79.5367
 2.0980	79.4948
 2.0970	79.5302
 2.0960	79.5751
 2.0950	79.5790
 2.0940	79.5932
 2.0930	79.5784
 2.0920	79.6053
 2.0910	79.6452
 2.0900	79.6247
 2.0890	79.6332
 2.0880	79.6227
 2.0870	79.6524
 2.0860	79.6982
 2.0850	79.7100
 2.0840	79.7348
 2.0830	79.7273
 2.0820	79.7433
 2.0810	79.7872
 2.0800	79.7831
 2.0790	79.7444
 2.0780	79.7482
 2.0770	79.8253
 2.0760	79.8265
 2.0750	79.7801
 2.0740	79.7414
 2.0730	79.7769
 2.0720	79.8905
 2.0710	79.8937
 2.0700	79.8788
 2.0690	79.8974
 2.0680	79.8598
 2.0670	79.8673
 2.0660	79.8864
 2.0650	79.9431
 2.0640	79.9516
 2.0630	79.9194
 2.0620	79.9174
 2.0610	79.9635
 2.0600	79.9951
 2.0590	80.0265
 2.0580	80.0419
 2.0570	80.0627
 2.0560	80.0474
 2.0550	80.0629
 2.0540	80.1269
 2.0530	80.1006
 2.0520	80.0759
 2.0510	80.1089
 2.0500	80.1233
 2.0490	80.1134
 2.0480	80.1667
 2.0470	80.1935
 2.0460	80.1265
 2.0450	80.1952
 2.0440	80.2589
 2.0430	80.2361
 2.0420	80.2088
 2.0410	80.1973
 2.0400	80.2109
 2.0390	80.2111
 2.0380	80.2065
 2.0370	80.2155
 2.0360	80.1745
 2.0350	80.2003
 2.0340	80.1949
 2.0330	80.1788
 2.0320	80.1407
 2.0310	80.2044
 2.0300	80.3019
 2.0290	80.2866
 2.0280	80.2005
 2.0270	80.2007
 2.0260	80.2788
 2.0250	80.2245
 2.0240	80.2189
 2.0230	80.2276
 2.0220	80.2922
 2.0210	80.2283
 2.0200	80.2631
 2.0190	80.2897
 2.0180	80.2573
 2.0170	80.2908
 2.0160	80.2228
 2.0150	80.2581
 2.0140	80.2722
 2.0130	80.3687
 2.0120	80.3633
 2.0110	80.3475
 2.0100	80.3036
 2.0090	80.2841
 2.0080	80.2914
 2.0070	80.2835
 2.0060	80.2848
 2.0050	80.3411
 2.0040	80.3150
 2.0030	80.3406
 2.0020	80.2948
 2.0010	80.3086
 2.0000	80.2384
 1.9990	80.2923
 1.9980	80.3502
 1.9970	80.3869
 1.9960	80.3274
 1.9950	80.2713
 1.9940	80.2237
 1.9930	80.2621
 1.9920	80.1640
 1.9910	80.2219
 1.9900	80.2937
 1.9890	80.3031
 1.9880	80.2513
 1.9870	80.2831
 1.9860	80.2166
 1.9850	80.2334
 1.9840	80.2161
 1.9830	80.2332
 1.9820	80.2317
 1.9810	80.2556
 1.9800	80.2213
 1.9790	80.1322
 1.9780	80.1080
 1.9770	80.1937
 1.9760	80.1775
 1.9750	80.2333
 1.9740	80.1594
 1.9730	80.2346
 1.9720	80.1482
 1.9710	80.1179
 1.9700	80.1608
 1.9690	80.1792
 1.9680	80.1318
 1.9670	80.2134
 1.9660	80.1662
 1.9650	80.0878
 1.9640	80.1467
 1.9630	80.2432
 1.9620	80.1320
 1.9610	80.1632
 1.9600	80.1687
 1.9590	80.2352
 1.9580	80.1839
 1.9570	80.2188
 1.9560	80.2171
 1.9550	80.2486
 1.9540	80.2631
 1.9530	80.2984
 1.9520	80.1841
 1.9510	80.1829
 1.9500	80.2862
 1.9490	80.2779
 1.9480	80.2725
 1.9470	80.2631
 1.9460	80.2337
 1.9450	80.2802
 1.9440	80.3685
 1.9430	80.3933
 1.9420	80.3713
 1.9410	80.3513
 1.9400	80.5292
 1.9390	80.5103
 1.9380	80.4414
 1.9370	80.5385
 1.9360	80.4422
 1.9350	80.5923
 1.9340	80.5420
 1.9330	80.6000
 1.9320	80.5269
 1.9310	80.6913
 1.9300	80.7100
 1.9290	80.6863
 1.9280	80.6578
 1.9270	80.7486
 1.9260	80.7754
 1.9250	80.8282
 1.9240	80.7897
 1.9230	80.8955
 1.9220	80.8965
 1.9210	80.9677
 1.9200	80.9182
 1.9190	80.9421
 1.9180	81.0409
 1.9170	81.0927
 1.9160	81.0815
 1.9150	81.0740
 1.9140	81.1203
 1.9130	81.1770
 1.9120	81.2314
 1.9110	81.3437
 1.9100	81.3423
 1.9090	81.3914
 1.9080	81.3952
 1.9070	81.4680
 1.9060	81.4024
 1.9050	81.4753
 1.9040	81.5392
 1.9030	81.6262
 1.9020	81.6412
 1.9010	81.6547
 1.9000	81.6174
 1.8990	81.7626
 1.8980	81.8062
 1.8970	81.8593
 1.8960	81.9154
 1.8950	81.9659
 1.8940	81.9807
 1.8930	82.0742
 1.8920	82.0193
 1.8910	82.1272
 1.8900	82.2316
 1.8890	82.2047
 1.8880	82.2262
 1.8870	82.2540
 1.8860	82.3094
 1.8850	82.3597
 1.8840	82.4375
 1.8830	82.4511
 1.8820	82.4295
 1.8810	82.4333
 1.8800	82.4975
 1.8790	82.5241
 1.8780	82.5313
 1.8770	82.6752
 1.8760	82.5517
 1.8750	82.6393
 1.8740	82.6899
 1.8730	82.7425
 1.8720	82.7400
 1.8710	82.7666
 1.8700	82.8005
 1.8690	82.8422
 1.8680	82.8772
 1.8670	82.8928
 1.8660	82.8970
 1.8650	82.9188
 1.8640	82.9658
 1.8630	82.9947
 1.8620	83.0027
 1.8610	82.9807
 1.8600	83.0102
 1.8590	83.1362
 1.8580	83.0757
 1.8570	83.0766
 1.8560	83.1422
 1.8550	83.1841
 1.8540	83.2275
 1.8530	83.1933
 1.8520	83.1701
 1.8510	83.1674
 1.8500	83.2062
 1.8490	83.2655
 1.8480	83.2641
 1.8470	83.2983
 1.8460	83.2841
 1.8450	83.3396
 1.8440	83.3508
 1.8430	83.3596
 1.8420	83.3837
 1.8410	83.4619
 1.8400	83.3820
 1.8390	83.3793
 1.8380	83.3451
 1.8370	83.4070
 1.8360	83.4826
 1.8350	83.5169
 1.8340	83.5595
 1.8330	83.5606
 1.8320	83.5191
 1.8310	83.5451
 1.8300	83.5783
 1.8290	83.6328
 1.8280	83.5817
 1.8270	83.5581
 1.8260	83.5893
 1.8250	83.6882
 1.8240	83.6326
 1.8230	83.6850
 1.8220	83.7072
 1.8210	83.6759
 1.8200	83.8116
 1.8190	83.7602
 1.8180	83.7022
 1.8170	83.7410
 1.8160	83.7694
 1.8150	83.8206
 1.8140	83.8621
 1.8130	83.8627
 1.8120	83.8740
 1.8110	83.8870
 1.8100	83.9513
 1.8090	83.9557
 1.8080	83.9546
 1.8070	83.9426
 1.8060	84.0169
 1.8050	84.0237
 1.8040	84.0002
 1.8030	84.0099
 1.8020	84.0603
 1.8010	84.0702
 1.8000	84.0354
 1.7990	84.0625
 1.7980	84.1016
 1.7970	84.0735
 1.7960	84.1016
 1.7950	84.1450
 1.7940	84.1922
 1.7930	84.1626
 1.7920	84.0984
 1.7910	84.1446
 1.7900	84.2208
 1.7890	84.2474
 1.7880	84.2180
 1.7870	84.2224
 1.7860	84.2576
 1.7850	84.2381
 1.7840	84.2349
 1.7830	84.2596
 1.7820	84.2826
 1.7810	84.2690
 1.7800	84.3440
 1.7790	84.3691
 1.7780	84.2885
 1.7770	84.3093
 1.7760	84.4057
 1.7750	84.4166
 1.7740	84.3910
 1.7730	84.3571
 1.7720	84.3227
 1.7710	84.3953
 1.7700	84.4178
 1.7690	84.4218
 1.7680	84.4863
 1.7670	84.4803
 1.7660	84.4526
 1.7650	84.4741
 1.7640	84.5606
 1.7630	84.5858
 1.7620	84.5309
 1.7610	84.5452
 1.7600	84.6268
 1.7590	84.6931
 1.7580	84.7321
 1.7570	84.6613
 1.7560	84.6651
 1.7550	84.7211
 1.7540	84.7142
 1.7530	84.6796
 1.7520	84.6833
 1.7510	84.7336
 1.7500	84.7986
 1.7490	84.8579
 1.7480	84.7617
 1.7470	84.7147
 1.7460	84.8326
 1.7450	84.9054
 1.7440	85.3552
 1.7430	85.1080
 1.7420	84.9013
 1.7410	84.9856
 1.7400	85.0320
 1.7390	85.0074
 1.7380	85.0102
 1.7370	85.0281
 1.7360	85.0689
 1.7350	85.0453
 1.7340	85.0471
 1.7330	85.0869
 1.7320	85.1202
 1.7310	85.0881
 1.7300	85.1154
 1.7290	85.1869
 1.7280	85.1955
 1.7270	85.1861
 1.7260	85.2460
 1.7250	85.2405
 1.7240	85.2114
 1.7230	85.2710
 1.7220	85.2290
 1.7210	85.2941
 1.7200	85.2603
 1.7190	85.3678
 1.7180	85.3380
 1.7170	85.3425
 1.7160	85.4060
 1.7150	85.4045
 1.7140	85.4352
 1.7130	85.2869
 1.7120	85.3791
 1.7110	85.3990
 1.7100	85.4588
 1.7090	85.4381
 1.7080	85.4669
 1.7070	85.5050
 1.7060	85.4725
 1.7050	85.4273
 1.7040	85.4731
 1.7030	85.4467
 1.7020	85.4774
 1.7010	85.5393
 1.7000	85.4589
 1.6990	85.5301
 1.6980	85.5204
 1.6970	85.5798
 1.6960	85.6382
 1.6950	85.5445
 1.6940	85.6265
 1.6930	85.5540
 1.6920	85.6136
 1.6910	85.6051
 1.6900	85.6207
 1.6890	85.6696
 1.6880	85.6290
 1.6870	85.6371
 1.6860	85.7237
 1.6850	85.7043
 1.6840	85.7327
 1.6830	85.6288
 1.6820	85.7344
 1.6810	85.7429
 1.6800	85.7453
 1.6790	85.7004
 1.6780	85.7894
 1.6770	85.8039
 1.6760	85.8099
 1.6750	85.8092
 1.6740	85.7688
 1.6730	85.8044
 1.6720	85.8264
 1.6710	85.8697
 1.6700	85.8977
 1.6690	86.0163
 1.6680	85.9109
 1.6670	85.9655
 1.6660	85.9941
 1.6650	85.8522
 1.6640	86.0219
 1.6630	85.9751
 1.6620	86.0211
 1.6610	86.0446
 1.6600	85.9419
 1.6590	85.9656
 1.6580	85.9486
 1.6570	85.9941
 1.6560	86.0469
 1.6550	86.1247
 1.6540	86.0763
 1.6530	86.0098
 1.6520	86.1031
 1.6510	86.1025
 1.6500	86.1381
 1.6490	86.2467
 1.6480	86.2231
 1.6470	86.1540
 1.6460	86.2161
 1.6450	86.1498
 1.6440	86.1378
 1.6430	86.1334
 1.6420	86.2514
 1.6410	86.1787
 1.6400	86.2893
 1.6390	86.2075
 1.6380	86.2252
 1.6370	86.3003
 1.6360	86.2873
 1.6350	86.2801
 1.6340	86.3061
 1.6330	86.2884
 1.6320	86.2515
 1.6310	86.3811
 1.6300	86.3540
 1.6290	86.3370
 1.6280	86.4336
 1.6270	86.3550
 1.6260	86.4070
 1.6250	86.3979
 1.6240	86.4467
 1.6230	86.4968
 1.6220	86.5950
 1.6210	86.4570
 1.6200	86.4248
 1.6190	86.5335
 1.6180	86.5110
 1.6170	86.5515
 1.6160	86.5934
 1.6150	86.6238
 1.6140	86.5559
 1.6130	86.5344
 1.6120	86.5990
 1.6110	86.6191
 1.6100	86.6425
 1.6090	86.6534
 1.6080	86.6576
 1.6070	86.6577
 1.6060	86.6622
 1.6050	86.7579
 1.6040	86.6812
 1.6030	86.7429
 1.6020	86.7699
 1.6010	86.7339
 1.6000	86.7823
 1.5990	86.8022
 1.5980	86.8050
 1.5970	86.7113
 1.5960	86.8046
 1.5950	86.8771
 1.5940	86.8004
 1.5930	86.8645
 1.5920	86.8044
 1.5910	86.8464
 1.5900	86.9270
 1.5890	86.8941
 1.5880	86.8474
 1.5870	86.8915
 1.5860	86.8842
 1.5850	86.8631
 1.5840	86.8609
 1.5830	86.8476
 1.5820	86.8954
 1.5810	86.9246
 1.5800	86.8726
 1.5790	86.9054
 1.5780	86.9338
 1.5770	86.9060
 1.5760	86.9296
 1.5750	86.9023
 1.5740	86.9858
 1.5730	86.9730
 1.5720	86.8958
 1.5710	86.9466
 1.5700	87.0131
 1.5690	87.0056
 1.5680	86.9708
 1.5670	87.0431
 1.5660	87.0909
 1.5650	86.9911
 1.5640	87.0087
 1.5630	86.9769
 1.5620	87.0372
 1.5610	87.0232
 1.5600	87.0811
 1.5590	87.0559
 1.5580	87.1029
 1.5570	87.1115
 1.5560	87.0530
 1.5550	87.0917
 1.5540	87.1457
 1.5530	87.0897
 1.5520	87.1099
 1.5510	87.1056
 1.5500	87.1020
 1.5490	87.1477
 1.5480	87.1413
 1.5470	87.1220
 1.5460	87.1080
 1.5450	87.1444
 1.5440	87.1417
 1.5430	87.1618
 1.5420	87.1487
 1.5410	87.1182
 1.5400	87.1003
 1.5390	87.2238
 1.5380	87.2574
 1.5370	87.2121
 1.5360	87.2023
 1.5350	87.1471
 1.5340	87.1402
 1.5330	87.1957
 1.5320	87.2340
 1.5310	87.2622
 1.5300	87.2484
 1.5290	87.1732
 1.5280	87.1665
 1.5270	87.2525
 1.5260	87.2724
 1.5250	87.2615
 1.5240	87.2766
 1.5230	87.2920
 1.5220	87.2673
 1.5210	87.2835
 1.5200	87.2878
 1.5190	87.3170
 1.5180	87.2604
 1.5170	87.2544
 1.5160	87.2904
 1.5150	87.2805
 1.5140	87.2943
 1.5130	87.3180
 1.5120	87.3085
 1.5110	87.2876
 1.5100	87.3407
 1.5090	87.3336
 1.5080	87.3093
 1.5070	87.2648
 1.5060	87.2832
 1.5050	87.3602
 1.5040	87.3139
 1.5030	87.3299
 1.5020	87.3903
 1.5010	87.3223
 1.5000	87.3124
 1.4990	87.3348
 1.4980	87.3289
 1.4970	87.3324
 1.4960	87.3590
 1.4950	87.3312
 1.4940	87.3396
 1.4930	87.3806
 1.4920	87.3514
 1.4910	87.3243
 1.4900	87.3224
 1.4890	87.3311
 1.4880	87.3705
 1.4870	87.3561
 1.4860	87.3023
 1.4850	87.3473
 1.4840	87.3770
 1.4830	87.4065
 1.4820	87.4050
 1.4810	87.3529
 1.4800	87.3851
 1.4790	87.3575
 1.4780	87.3946
 1.4770	87.4481
 1.4760	87.3269
 1.4750	87.3581
 1.4740	87.3829
 1.4730	87.3303
 1.4720	87.3586
 1.4710	87.3864
 1.4700	87.3265
 1.4690	87.3203
 1.4680	87.3919
 1.4670	87.4158
 1.4660	87.3583
 1.4650	87.3596
 1.4640	87.3676
 1.4630	87.3759
 1.4620	87.4118
 1.4610	87.4502
 1.4600	87.4334
 1.4590	87.4072
 1.4580	87.3383
 1.4570	87.4060
 1.4560	87.4575
 1.4550	87.4383
 1.4540	87.4401
 1.4530	87.4808
 1.4520	87.4869
 1.4510	87.4855
 1.4500	87.4888
 1.4490	87.4855
 1.4480	87.4640
 1.4470	87.4968
 1.4460	87.4532
 1.4450	87.4256
 1.4440	87.4748
 1.4430	87.4835
 1.4420	87.5034
 1.4410	87.5592
 1.4400	87.5405
 1.4390	87.5765
 1.4380	87.6218
 1.4370	87.5877
 1.4360	87.5841
 1.4350	87.5956
 1.4340	87.5428
 1.4330	87.5558
 1.4320	87.5953
 1.4310	87.6669
 1.4300	87.7050
 1.4290	87.6503
 1.4280	87.6996
 1.4270	87.7396
 1.4260	87.7414
 1.4250	87.7567
 1.4240	87.6778
 1.4230	87.7369
 1.4220	87.8155
 1.4210	87.8207
 1.4200	87.7926
 1.4190	87.8427
 1.4180	87.8494
 1.4170	87.9147
 1.4160	87.8940
 1.4150	87.8701
 1.4140	87.8206
 1.4130	87.9235
 1.4120	87.9553
 1.4110	87.9897
 1.4100	87.9831
 1.4090	87.9779
 1.4080	87.8742
 1.4070	87.9755
 1.4060	88.0202
 1.4050	87.9794
 1.4040	87.9985
 1.4030	88.0268
 1.4020	88.0317
 1.4010	88.0027
 1.4000	88.0804
 1.3990	88.0808
 1.3980	88.1138
 1.3970	88.2217
 1.3960	88.2535
 1.3950	88.3317
 1.3940	88.2520
 1.3930	88.2859
 1.3920	88.2416
 1.3910	88.3542
 1.3900	88.2889
 1.3890	88.2262
 1.3880	88.2980
 1.3870	88.3170
 1.3860	88.3702
 1.3850	88.3608
 1.3840	88.2943
 1.3830	88.3960
 1.3820	88.3173
 1.3810	88.4289
 1.3800	88.3804
 1.3790	88.3833
 1.3780	88.4541
 1.3770	88.5147
 1.3760	88.4501
 1.3750	88.4083
 1.3740	88.3586
 1.3730	88.3428
 1.3720	88.4151
 1.3710	88.4386
 1.3700	88.5103
 1.3690	88.4069
 1.3680	88.5344
 1.3670	88.4875
 1.3660	88.4452
