Name: Scorodite Fe^3+AsO_4.2H_2O
Type: Mineral
Class: Arsenate
Subclass: None
Particle Size: Medium
Sample No.: A-2A
Owner: JPL
Wavelength Range: VSWIR
Origin: USA, Utah, Tooele County, Gold Hill.
Collection Date: N/A
Description: Particle size was 45-125um.Collected by:  Ward's Original ASTER Spectral Library name was jpl.perkin.mineral.arsenate.none.medium.a02a.spectrum.txt
Measurement: Hemispherical reflectance
First Column: X
Second Column: Y
X Units: Wavelength (micrometers)
Y Units:Reflectance (percent)
First X Value:  2.5000
Last X Value:  0.4000
Number of X Values: 2101
Additional Information: mineral.arsenate.none.medium.vswir.a-2a.jpl.perkin.ancillary.txt

 2.5000	 7.4325
 2.4990	 7.2119
 2.4980	 7.7938
 2.4970	 7.6618
 2.4960	 7.6050
 2.4950	 7.9949
 2.4940	 7.9624
 2.4930	 8.0549
 2.4920	 8.4714
 2.4910	 8.2732
 2.4900	 8.5886
 2.4890	 8.4950
 2.4880	 8.8485
 2.4870	 8.8014
 2.4860	 9.0547
 2.4850	 9.1355
 2.4840	 9.3438
 2.4830	 9.2631
 2.4820	 9.5670
 2.4810	 9.5275
 2.4800	 9.7326
 2.4790	 9.7669
 2.4780	10.0901
 2.4770	 9.9760
 2.4760	10.2398
 2.4750	10.2004
 2.4740	10.5228
 2.4730	10.5460
 2.4720	10.6119
 2.4710	10.7487
 2.4700	10.9457
 2.4690	10.8984
 2.4680	11.2424
 2.4670	11.0925
 2.4660	11.4140
 2.4650	11.3309
 2.4640	11.6845
 2.4630	11.6102
 2.4620	11.8454
 2.4610	11.7554
 2.4600	11.9709
 2.4590	11.9642
 2.4580	12.1938
 2.4570	12.2312
 2.4560	12.4141
 2.4550	12.4556
 2.4540	12.4641
 2.4530	12.5165
 2.4520	12.6836
 2.4510	12.6171
 2.4500	12.8640
 2.4490	12.8136
 2.4480	13.1233
 2.4470	13.0383
 2.4460	13.2044
 2.4450	13.1806
 2.4440	13.3654
 2.4430	13.3085
 2.4420	13.5073
 2.4410	13.4445
 2.4400	13.6336
 2.4390	13.6019
 2.4380	13.8129
 2.4370	13.7089
 2.4360	13.8998
 2.4350	13.8927
 2.4340	13.9945
 2.4330	13.9622
 2.4320	14.1205
 2.4310	14.1178
 2.4300	14.3352
 2.4290	14.2320
 2.4280	14.4029
 2.4270	14.3865
 2.4260	14.5446
 2.4250	14.5873
 2.4240	14.7132
 2.4230	14.7406
 2.4220	14.8526
 2.4210	14.8296
 2.4200	14.9512
 2.4190	14.9533
 2.4180	15.1165
 2.4170	15.1773
 2.4160	15.3266
 2.4150	15.2662
 2.4140	15.3864
 2.4130	15.4260
 2.4120	15.4551
 2.4110	15.5472
 2.4100	15.6949
 2.4090	15.6851
 2.4080	15.7516
 2.4070	15.7998
 2.4060	15.9034
 2.4050	15.9101
 2.4040	16.0942
 2.4030	16.0389
 2.4020	16.1662
 2.4010	16.2083
 2.4000	16.2482
 2.3990	16.3284
 2.3980	16.4616
 2.3970	16.4071
 2.3960	16.5565
 2.3950	16.5988
 2.3940	16.6565
 2.3930	16.6772
 2.3920	16.8060
 2.3910	16.8420
 2.3900	16.9320
 2.3890	16.9671
 2.3880	17.0622
 2.3870	17.0797
 2.3860	17.1342
 2.3850	17.1464
 2.3840	17.2459
 2.3830	17.2474
 2.3820	17.2763
 2.3810	17.3774
 2.3800	17.4662
 2.3790	17.4880
 2.3780	17.5703
 2.3770	17.6127
 2.3760	17.7010
 2.3750	17.7050
 2.3740	17.7089
 2.3730	17.7683
 2.3720	17.8640
 2.3710	17.8347
 2.3700	17.8820
 2.3690	17.9378
 2.3680	17.9870
 2.3670	17.9892
 2.3660	18.0219
 2.3650	18.0294
 2.3640	18.0119
 2.3630	18.0502
 2.3620	18.1740
 2.3610	18.2058
 2.3600	18.1560
 2.3590	18.1106
 2.3580	18.1449
 2.3570	18.1487
 2.3560	18.1501
 2.3550	18.1631
 2.3540	18.1051
 2.3530	18.1407
 2.3520	18.1805
 2.3510	18.1537
 2.3500	18.1726
 2.3490	18.2001
 2.3480	18.1627
 2.3470	18.1183
 2.3460	18.0689
 2.3450	18.0787
 2.3440	18.0359
 2.3430	18.0308
 2.3420	18.0048
 2.3410	17.9849
 2.3400	17.9117
 2.3390	17.8508
 2.3380	17.8024
 2.3370	17.8390
 2.3360	17.8021
 2.3350	17.8508
 2.3340	17.8590
 2.3330	17.8313
 2.3320	17.8092
 2.3310	17.7630
 2.3300	17.7681
 2.3290	17.8039
 2.3280	17.8145
 2.3270	17.8773
 2.3260	17.8862
 2.3250	17.9141
 2.3240	17.9252
 2.3230	18.0443
 2.3220	18.0417
 2.3210	18.0684
 2.3200	18.1228
 2.3190	18.2326
 2.3180	18.3023
 2.3170	18.4080
 2.3160	18.4362
 2.3150	18.4716
 2.3140	18.5812
 2.3130	18.7225
 2.3120	18.8197
 2.3110	18.9939
 2.3100	19.0187
 2.3090	19.1487
 2.3080	19.2152
 2.3070	19.3413
 2.3060	19.4062
 2.3050	19.5247
 2.3040	19.6055
 2.3030	19.7085
 2.3020	19.8144
 2.3010	19.9403
 2.3000	20.0185
 2.2990	20.1582
 2.2980	20.2259
 2.2970	20.3292
 2.2960	20.3768
 2.2950	20.4977
 2.2940	20.5827
 2.2930	20.7244
 2.2920	20.7431
 2.2910	20.8873
 2.2900	20.8161
 2.2890	20.9229
 2.2880	20.9652
 2.2870	21.0238
 2.2860	21.0027
 2.2850	21.0696
 2.2840	21.1330
 2.2830	21.2579
 2.2820	21.1772
 2.2810	21.2962
 2.2800	21.2665
 2.2790	21.3270
 2.2780	21.2556
 2.2770	21.3687
 2.2760	21.3050
 2.2750	21.3883
 2.2740	21.2817
 2.2730	21.4114
 2.2720	21.3210
 2.2710	21.3609
 2.2700	21.3120
 2.2690	21.4296
 2.2680	21.3708
 2.2670	21.4427
 2.2660	21.3231
 2.2650	21.4326
 2.2640	21.3915
 2.2630	21.4684
 2.2620	21.4171
 2.2610	21.4901
 2.2600	21.4248
 2.2590	21.4525
 2.2580	21.3585
 2.2570	21.5018
 2.2560	21.4163
 2.2550	21.5091
 2.2540	21.4265
 2.2530	21.4896
 2.2520	21.3103
 2.2510	21.4348
 2.2500	21.3709
 2.2490	21.3951
 2.2480	21.3420
 2.2470	21.4574
 2.2460	21.3427
 2.2450	21.3591
 2.2440	21.2771
 2.2430	21.3401
 2.2420	21.2342
 2.2410	21.3286
 2.2400	21.2147
 2.2390	21.1399
 2.2380	21.1281
 2.2370	21.1263
 2.2360	21.0182
 2.2350	21.1206
 2.2340	20.9472
 2.2330	20.9728
 2.2320	20.8110
 2.2310	20.8773
 2.2300	20.7314
 2.2290	20.8591
 2.2280	20.5999
 2.2270	20.6572
 2.2260	20.5161
 2.2250	20.5581
 2.2240	20.3929
 2.2230	20.4828
 2.2220	20.3109
 2.2210	20.4578
 2.2200	20.2775
 2.2190	20.3172
 2.2180	20.2079
 2.2170	20.1827
 2.2160	20.0143
 2.2150	20.1473
 2.2140	19.9763
 2.2130	19.9571
 2.2120	20.0774
 2.2110	19.7847
 2.2100	19.9412
 2.2090	19.8228
 2.2080	19.6659
 2.2070	19.8176
 2.2060	19.5966
 2.2050	19.7151
 2.2040	19.5133
 2.2030	19.6406
 2.2020	19.4623
 2.2010	19.4479
 2.2000	19.4453
 2.1990	19.4274
 2.1980	19.3060
 2.1970	19.3716
 2.1960	19.2281
 2.1950	19.2210
 2.1940	19.0944
 2.1930	19.1676
 2.1920	18.9798
 2.1910	19.0205
 2.1900	18.8876
 2.1890	19.0478
 2.1880	18.7881
 2.1870	18.8718
 2.1860	18.6830
 2.1850	18.7420
 2.1840	18.6372
 2.1830	18.7086
 2.1820	18.5615
 2.1810	18.6201
 2.1800	18.5422
 2.1790	18.4456
 2.1780	18.3892
 2.1770	18.4537
 2.1760	18.3172
 2.1750	18.3643
 2.1740	18.2784
 2.1730	18.3260
 2.1720	18.2108
 2.1710	18.2722
 2.1700	18.1232
 2.1690	18.1673
 2.1680	18.0614
 2.1670	18.1124
 2.1660	17.9789
 2.1650	18.0145
 2.1640	17.8569
 2.1630	17.9500
 2.1620	17.8779
 2.1610	17.8442
 2.1600	17.7558
 2.1590	17.8421
 2.1580	17.7286
 2.1570	17.7274
 2.1560	17.6794
 2.1550	17.6898
 2.1540	17.5579
 2.1530	17.6557
 2.1520	17.5835
 2.1510	17.5780
 2.1500	17.4491
 2.1490	17.4476
 2.1480	17.4500
 2.1470	17.4591
 2.1460	17.3045
 2.1450	17.2873
 2.1440	17.2614
 2.1430	17.2440
 2.1420	17.2047
 2.1410	17.1636
 2.1400	17.0653
 2.1390	17.0464
 2.1380	17.0027
 2.1370	17.0000
 2.1360	16.9343
 2.1350	16.9553
 2.1340	16.8707
 2.1330	16.8643
 2.1320	16.7572
 2.1310	16.8152
 2.1300	16.7389
 2.1290	16.7077
 2.1280	16.6160
 2.1270	16.6326
 2.1260	16.5680
 2.1250	16.5634
 2.1240	16.5194
 2.1230	16.4464
 2.1220	16.3803
 2.1210	16.3790
 2.1200	16.3178
 2.1190	16.2848
 2.1180	16.2518
 2.1170	16.2954
 2.1160	16.2533
 2.1150	16.2715
 2.1140	16.1583
 2.1130	16.1477
 2.1120	16.0507
 2.1110	16.0436
 2.1100	16.0079
 2.1090	15.9848
 2.1080	15.9257
 2.1070	15.9202
 2.1060	15.9059
 2.1050	15.9472
 2.1040	15.8634
 2.1030	15.8386
 2.1020	15.8616
 2.1010	15.8772
 2.1000	15.8216
 2.0990	15.7635
 2.0980	15.7384
 2.0970	15.8411
 2.0960	15.8065
 2.0950	15.7872
 2.0940	15.7991
 2.0930	15.8459
 2.0920	15.8149
 2.0910	15.8081
 2.0900	15.7839
 2.0890	15.8157
 2.0880	15.8040
 2.0870	15.7859
 2.0860	15.7775
 2.0850	15.8196
 2.0840	15.8042
 2.0830	15.8255
 2.0820	15.8562
 2.0810	15.8850
 2.0800	15.8671
 2.0790	15.8644
 2.0780	15.8463
 2.0770	15.8602
 2.0760	15.8511
 2.0750	15.8757
 2.0740	15.8894
 2.0730	15.8928
 2.0720	15.8738
 2.0710	15.8788
 2.0700	15.9140
 2.0690	15.8870
 2.0680	15.9044
 2.0670	15.9203
 2.0660	15.9176
 2.0650	15.9635
 2.0640	15.9957
 2.0630	15.9580
 2.0620	15.9540
 2.0610	15.9374
 2.0600	15.9797
 2.0590	16.0313
 2.0580	16.0395
 2.0570	16.0451
 2.0560	16.0460
 2.0550	16.1143
 2.0540	16.1500
 2.0530	16.0952
 2.0520	16.1214
 2.0510	16.1239
 2.0500	16.1551
 2.0490	16.1789
 2.0480	16.2193
 2.0470	16.1710
 2.0460	16.1773
 2.0450	16.2230
 2.0440	16.2539
 2.0430	16.2621
 2.0420	16.3192
 2.0410	16.2565
 2.0400	16.2506
 2.0390	16.2544
 2.0380	16.2972
 2.0370	16.2388
 2.0360	16.3176
 2.0350	16.3290
 2.0340	16.3054
 2.0330	16.2551
 2.0320	16.2839
 2.0310	16.2138
 2.0300	16.1972
 2.0290	16.1725
 2.0280	16.1804
 2.0270	16.1458
 2.0260	16.2029
 2.0250	16.0991
 2.0240	15.9867
 2.0230	15.9027
 2.0220	15.9832
 2.0210	15.8950
 2.0200	15.8582
 2.0190	15.7632
 2.0180	15.7402
 2.0170	15.5943
 2.0160	15.5167
 2.0150	15.3780
 2.0140	15.3357
 2.0130	15.1404
 2.0120	15.0604
 2.0110	14.9048
 2.0100	14.9048
 2.0090	14.7353
 2.0080	14.6052
 2.0070	14.4363
 2.0060	14.3893
 2.0050	14.2306
 2.0040	14.1574
 2.0030	14.0067
 2.0020	13.9889
 2.0010	13.8395
 2.0000	13.8495
 1.9990	13.7603
 1.9980	13.7303
 1.9970	13.6595
 1.9960	13.6363
 1.9950	13.5863
 1.9940	13.5996
 1.9930	13.6078
 1.9920	13.6442
 1.9910	13.5830
 1.9900	13.6795
 1.9890	13.6403
 1.9880	13.6820
 1.9870	13.5965
 1.9860	13.6658
 1.9850	13.6254
 1.9840	13.6575
 1.9830	13.5586
 1.9820	13.6615
 1.9810	13.4989
 1.9800	13.5797
 1.9790	13.4637
 1.9780	13.5000
 1.9770	13.3665
 1.9760	13.3823
 1.9750	13.2200
 1.9740	13.3070
 1.9730	13.2026
 1.9720	13.0656
 1.9710	12.9720
 1.9700	12.9207
 1.9690	12.8190
 1.9680	12.8984
 1.9670	12.6914
 1.9660	12.7811
 1.9650	12.5948
 1.9640	12.6963
 1.9630	12.5890
 1.9620	12.6304
 1.9610	12.6106
 1.9600	12.7815
 1.9590	12.8374
 1.9580	12.9789
 1.9570	12.9968
 1.9560	13.2245
 1.9550	13.2355
 1.9540	13.5082
 1.9530	13.7020
 1.9520	13.9588
 1.9510	14.0776
 1.9500	14.3524
 1.9490	14.4698
 1.9480	14.7723
 1.9470	14.9395
 1.9460	15.2920
 1.9450	15.5259
 1.9440	15.8480
 1.9430	15.9886
 1.9420	16.3283
 1.9410	16.4387
 1.9400	16.9205
 1.9390	16.9157
 1.9380	17.3229
 1.9370	17.3952
 1.9360	17.7566
 1.9350	17.8683
 1.9340	18.2116
 1.9330	18.3676
 1.9320	18.6647
 1.9310	18.7199
 1.9300	19.0769
 1.9290	19.2354
 1.9280	19.5224
 1.9270	19.6636
 1.9260	19.7128
 1.9250	19.9822
 1.9240	20.1526
 1.9230	20.2463
 1.9220	20.6362
 1.9210	20.6261
 1.9200	20.8505
 1.9190	20.8937
 1.9180	21.1479
 1.9170	21.3073
 1.9160	21.5612
 1.9150	21.4828
 1.9140	21.8048
 1.9130	21.7867
 1.9120	22.0308
 1.9110	22.0944
 1.9100	22.3058
 1.9090	22.4024
 1.9080	22.5790
 1.9070	22.6335
 1.9060	22.7325
 1.9050	22.7715
 1.9040	22.9698
 1.9030	22.9951
 1.9020	23.1252
 1.9010	23.1251
 1.9000	23.3629
 1.8990	23.2492
 1.8980	23.4777
 1.8970	23.4600
 1.8960	23.6486
 1.8950	23.5331
 1.8940	23.8307
 1.8930	23.7262
 1.8920	23.8457
 1.8910	23.8691
 1.8900	23.9659
 1.8890	23.9731
 1.8880	24.1116
 1.8870	24.0547
 1.8860	24.2276
 1.8850	24.1853
 1.8840	24.2769
 1.8830	24.1805
 1.8820	24.4521
 1.8810	24.3963
 1.8800	24.4806
 1.8790	24.4138
 1.8780	24.5086
 1.8770	24.4593
 1.8760	24.5362
 1.8750	24.5296
 1.8740	24.5780
 1.8730	24.5348
 1.8720	24.5800
 1.8710	24.5034
 1.8700	24.5880
 1.8690	24.5392
 1.8680	24.5637
 1.8670	24.6060
 1.8660	24.6834
 1.8650	24.6933
 1.8640	24.8617
 1.8630	24.8513
 1.8620	24.8508
 1.8610	24.7912
 1.8600	24.8696
 1.8590	24.8653
 1.8580	24.8389
 1.8570	24.7790
 1.8560	24.8364
 1.8550	24.8070
 1.8540	24.8498
 1.8530	24.8378
 1.8520	24.9255
 1.8510	24.9039
 1.8500	24.9019
 1.8490	24.8864
 1.8480	24.9517
 1.8470	24.8462
 1.8460	24.8879
 1.8450	24.8670
 1.8440	24.8520
 1.8430	24.8417
 1.8420	24.9868
 1.8410	24.8799
 1.8400	24.9175
 1.8390	24.8631
 1.8380	24.8750
 1.8370	24.8406
 1.8360	24.8145
 1.8350	24.8342
 1.8340	24.9115
 1.8330	24.9039
 1.8320	24.9626
 1.8310	24.9317
 1.8300	24.8867
 1.8290	24.9056
 1.8280	24.9590
 1.8270	24.9208
 1.8260	24.9586
 1.8250	24.9591
 1.8240	24.9941
 1.8230	24.9140
 1.8220	24.9720
 1.8210	25.0199
 1.8200	24.9864
 1.8190	24.9760
 1.8180	25.0487
 1.8170	25.0607
 1.8160	25.0753
 1.8150	25.0508
 1.8140	25.0785
 1.8130	25.0317
 1.8120	25.0742
 1.8110	25.0755
 1.8100	25.1239
 1.8090	25.1259
 1.8080	25.1633
 1.8070	25.1763
 1.8060	25.2123
 1.8050	25.2344
 1.8040	25.2780
 1.8030	25.2950
 1.8020	25.2849
 1.8010	25.2803
 1.8000	25.3184
 1.7990	25.2719
 1.7980	25.3367
 1.7970	25.3910
 1.7960	25.4326
 1.7950	25.4488
 1.7940	25.4602
 1.7930	25.4916
 1.7920	25.5229
 1.7910	25.5385
 1.7900	25.5547
 1.7890	25.6038
 1.7880	25.6127
 1.7870	25.6192
 1.7860	25.6497
 1.7850	25.6590
 1.7840	25.6277
 1.7830	25.6539
 1.7820	25.6828
 1.7810	25.7320
 1.7800	25.7608
 1.7790	25.7714
 1.7780	25.8427
 1.7770	25.8609
 1.7760	25.8605
 1.7750	25.9387
 1.7740	25.9450
 1.7730	25.9245
 1.7720	25.9712
 1.7710	26.0321
 1.7700	26.0100
 1.7690	26.0598
 1.7680	26.0638
 1.7670	26.0861
 1.7660	26.1302
 1.7650	26.1783
 1.7640	26.1847
 1.7630	26.2197
 1.7620	26.2254
 1.7610	26.2689
 1.7600	26.2670
 1.7590	26.3545
 1.7580	26.3553
 1.7570	26.4207
 1.7560	26.3985
 1.7550	26.4529
 1.7540	26.4727
 1.7530	26.5654
 1.7520	26.4955
 1.7510	26.4992
 1.7500	26.5610
 1.7490	26.6344
 1.7480	26.6701
 1.7470	26.7364
 1.7460	26.6726
 1.7450	26.7363
 1.7440	26.7264
 1.7430	26.8244
 1.7420	26.8312
 1.7410	26.8598
 1.7400	26.8936
 1.7390	27.0149
 1.7380	27.0000
 1.7370	27.0220
 1.7360	26.9724
 1.7350	27.0559
 1.7340	27.0951
 1.7330	27.1535
 1.7320	27.1270
 1.7310	27.1977
 1.7300	27.1850
 1.7290	27.2740
 1.7280	27.2870
 1.7270	27.4158
 1.7260	27.3696
 1.7250	27.4366
 1.7240	27.4478
 1.7230	27.5490
 1.7220	27.5504
 1.7210	27.6517
 1.7200	27.6108
 1.7190	27.7466
 1.7180	27.8059
 1.7170	27.8297
 1.7160	27.7653
 1.7150	27.9019
 1.7140	27.9112
 1.7130	28.0131
 1.7120	28.0013
 1.7110	28.0960
 1.7100	28.0794
 1.7090	28.2006
 1.7080	28.2180
 1.7070	28.3549
 1.7060	28.3262
 1.7050	28.4646
 1.7040	28.4821
 1.7030	28.5864
 1.7020	28.5941
 1.7010	28.7273
 1.7000	28.6952
 1.6990	28.8172
 1.6980	28.8999
 1.6970	28.9887
 1.6960	29.0630
 1.6950	29.2098
 1.6940	29.1918
 1.6930	29.2568
 1.6920	29.2848
 1.6910	29.4676
 1.6900	29.5286
 1.6890	29.6302
 1.6880	29.6354
 1.6870	29.7809
 1.6860	29.8502
 1.6850	29.9498
 1.6840	30.0129
 1.6830	30.2302
 1.6820	30.2809
 1.6810	30.3885
 1.6800	30.4133
 1.6790	30.5772
 1.6780	30.6039
 1.6770	30.7658
 1.6760	30.8082
 1.6750	30.9692
 1.6740	31.0063
 1.6730	31.0888
 1.6720	31.1669
 1.6710	31.3613
 1.6700	31.4919
 1.6690	31.6192
 1.6680	31.6059
 1.6670	31.9307
 1.6660	31.8429
 1.6650	32.0794
 1.6640	32.1045
 1.6630	32.2876
 1.6620	32.3061
 1.6610	32.4820
 1.6600	32.5548
 1.6590	32.7219
 1.6580	32.8194
 1.6570	32.9435
 1.6560	33.0424
 1.6550	33.2873
 1.6540	33.2835
 1.6530	33.4491
 1.6520	33.5219
 1.6510	33.6434
 1.6500	33.7956
 1.6490	33.8841
 1.6480	33.9649
 1.6470	34.2189
 1.6460	34.2359
 1.6450	34.4764
 1.6440	34.4218
 1.6430	34.7155
 1.6420	34.8303
 1.6410	34.8425
 1.6400	34.9434
 1.6390	35.2224
 1.6380	35.1933
 1.6370	35.5215
 1.6360	35.5065
 1.6350	35.6805
 1.6340	35.6997
 1.6330	35.9254
 1.6320	35.9848
 1.6310	36.2358
 1.6300	36.2296
 1.6290	36.5376
 1.6280	36.4972
 1.6270	36.7705
 1.6260	36.7412
 1.6250	36.9768
 1.6240	37.0811
 1.6230	37.2259
 1.6220	37.3696
 1.6210	37.5393
 1.6200	37.6888
 1.6190	37.8536
 1.6180	37.9149
 1.6170	38.0784
 1.6160	38.2170
 1.6150	38.4043
 1.6140	38.3803
 1.6130	38.5363
 1.6120	38.7092
 1.6110	38.8540
 1.6100	38.9363
 1.6090	39.1434
 1.6080	39.1950
 1.6070	39.4232
 1.6060	39.5311
 1.6050	39.6934
 1.6040	39.8174
 1.6030	39.9484
 1.6020	40.0643
 1.6010	40.2793
 1.6000	40.3391
 1.5990	40.5034
 1.5980	40.6589
 1.5970	40.8330
 1.5960	40.9204
 1.5950	41.0150
 1.5940	41.1542
 1.5930	41.3735
 1.5920	41.4925
 1.5910	41.6016
 1.5900	41.7347
 1.5890	41.9044
 1.5880	42.0036
 1.5870	42.1389
 1.5860	42.2189
 1.5850	42.4061
 1.5840	42.5575
 1.5830	42.7056
 1.5820	42.8278
 1.5810	43.0899
 1.5800	43.1056
 1.5790	43.3180
 1.5780	43.3874
 1.5770	43.4840
 1.5760	43.5975
 1.5750	43.8249
 1.5740	43.9220
 1.5730	44.1492
 1.5720	44.2076
 1.5710	44.3557
 1.5700	44.4275
 1.5690	44.5787
 1.5680	44.7302
 1.5670	44.8766
 1.5660	44.9287
 1.5650	45.0816
 1.5640	45.1700
 1.5630	45.3030
 1.5620	45.3595
 1.5610	45.5241
 1.5600	45.5668
 1.5590	45.6657
 1.5580	45.7400
 1.5570	45.7307
 1.5560	45.7958
 1.5550	45.9217
 1.5540	46.0171
 1.5530	46.0773
 1.5520	45.9906
 1.5510	46.0250
 1.5500	46.0375
 1.5490	46.0831
 1.5480	46.0032
 1.5470	45.9572
 1.5460	45.8848
 1.5450	45.8358
 1.5440	45.7723
 1.5430	45.7032
 1.5420	45.5596
 1.5410	45.4449
 1.5400	45.3184
 1.5390	45.2189
 1.5380	45.0778
 1.5370	45.0435
 1.5360	44.8959
 1.5350	44.8610
 1.5340	44.8057
 1.5330	44.8038
 1.5320	44.7902
 1.5310	44.8848
 1.5300	44.9519
 1.5290	44.9690
 1.5280	45.0911
 1.5270	45.2345
 1.5260	45.3202
 1.5250	45.4649
 1.5240	45.6506
 1.5230	45.7567
 1.5220	45.8912
 1.5210	46.0596
 1.5200	46.1873
 1.5190	46.3678
 1.5180	46.4293
 1.5170	46.6143
 1.5160	46.7256
 1.5150	46.7913
 1.5140	46.8679
 1.5130	47.0054
 1.5120	47.1028
 1.5110	47.1476
 1.5100	47.1953
 1.5090	47.2249
 1.5080	47.3085
 1.5070	47.4059
 1.5060	47.4553
 1.5050	47.4712
 1.5040	47.4429
 1.5030	47.4762
 1.5020	47.4997
 1.5010	47.4915
 1.5000	47.4722
 1.4990	47.4950
 1.4980	47.4900
 1.4970	47.4597
 1.4960	47.4264
 1.4950	47.3789
 1.4940	47.3351
 1.4930	47.2864
 1.4920	47.1775
 1.4910	47.0261
 1.4900	46.9765
 1.4890	46.9150
 1.4880	46.8063
 1.4870	46.6658
 1.4860	46.5764
 1.4850	46.4746
 1.4840	46.3166
 1.4830	46.1268
 1.4820	45.9684
 1.4810	45.8087
 1.4800	45.6465
 1.4790	45.4512
 1.4780	45.1867
 1.4770	44.9706
 1.4760	44.8076
 1.4750	44.4759
 1.4740	44.1907
 1.4730	43.8528
 1.4720	43.5035
 1.4710	43.0458
 1.4700	42.5886
 1.4690	42.1055
 1.4680	41.6875
 1.4670	41.1653
 1.4660	40.6381
 1.4650	40.0522
 1.4640	39.5322
 1.4630	39.1175
 1.4620	38.7409
 1.4610	38.3743
 1.4600	38.2145
 1.4590	38.0921
 1.4580	38.0366
 1.4570	37.9879
 1.4560	38.0690
 1.4550	38.2201
 1.4540	38.4663
 1.4530	38.6898
 1.4520	39.0805
 1.4510	39.4530
 1.4500	39.9058
 1.4490	40.3832
 1.4480	40.9772
 1.4470	41.4960
 1.4460	42.1387
 1.4450	42.7338
 1.4440	43.3960
 1.4430	43.9889
 1.4420	44.6963
 1.4410	45.3614
 1.4400	46.0086
 1.4390	46.6510
 1.4380	47.2524
 1.4370	47.8473
 1.4360	48.4995
 1.4350	49.0681
 1.4340	49.6144
 1.4330	50.0791
 1.4320	50.5682
 1.4310	50.9969
 1.4300	51.4474
 1.4290	51.8276
 1.4280	52.1705
 1.4270	52.5057
 1.4260	52.8723
 1.4250	53.1228
 1.4240	53.5296
 1.4230	53.8567
 1.4220	54.2657
 1.4210	54.5657
 1.4200	54.9392
 1.4190	55.1825
 1.4180	55.5206
 1.4170	55.7954
 1.4160	56.1283
 1.4150	56.3811
 1.4140	56.6207
 1.4130	56.8313
 1.4120	57.1210
 1.4110	57.3255
 1.4100	57.6636
 1.4090	57.8314
 1.4080	58.0301
 1.4070	58.2408
 1.4060	58.5396
 1.4050	58.5609
 1.4040	58.8528
 1.4030	59.0512
 1.4020	59.1519
 1.4010	59.2682
 1.4000	59.4089
 1.3990	59.5756
 1.3980	59.7959
 1.3970	59.9259
 1.3960	60.0366
 1.3950	60.0848
 1.3940	60.2152
 1.3930	60.3198
 1.3920	60.4026
 1.3910	60.5635
 1.3900	60.6744
 1.3890	60.6828
 1.3880	60.7684
 1.3870	60.8459
 1.3860	60.8703
 1.3850	60.8877
 1.3840	60.9374
 1.3830	60.8753
 1.3820	60.8906
 1.3810	60.9142
 1.3800	60.9655
 1.3790	61.0806
 1.3780	61.0353
 1.3770	61.0538
 1.3760	61.0190
 1.3750	61.1492
 1.3740	61.0850
 1.3730	61.0930
 1.3720	61.1291
 1.3710	61.1102
 1.3700	61.2055
 1.3690	61.2659
 1.3680	61.3059
 1.3670	61.2656
 1.3660	61.4385
