Name: Kernite Na_2B_4O_6(OH)_2.3H_2O
Type: Mineral
Class: Borate
Subclass: None
Particle Size: Coarse
Sample No.: B-2A
Owner: JPL
Wavelength Range: VSWIR
Origin: USA, California, Kern County, Boron.
Collection Date: N/A
Description: Particle size was 125-500um.Collected by:  JPL Original ASTER Spectral Library name was jpl.perkin.mineral.borate.none.coarse.b02a.spectrum.txt
Measurement: Hemispherical reflectance
First Column: X
Second Column: Y
X Units: Wavelength (micrometers)
Y Units:Reflectance (percent)
First X Value:  2.5000
Last X Value:  0.4000
Number of X Values: 2101
Additional Information: mineral.borate.none.coarse.vswir.b-2a.jpl.perkin.ancillary.txt

 2.5000	22.2786
 2.4990	21.9161
 2.4980	22.2342
 2.4970	22.4011
 2.4960	22.0572
 2.4950	22.2417
 2.4940	22.3361
 2.4930	22.0021
 2.4920	22.2833
 2.4910	22.1247
 2.4900	22.2503
 2.4890	22.1394
 2.4880	22.3722
 2.4870	21.9971
 2.4860	22.3400
 2.4850	22.2881
 2.4840	22.4637
 2.4830	22.3426
 2.4820	22.3895
 2.4810	22.2733
 2.4800	22.3517
 2.4790	22.2685
 2.4780	22.4548
 2.4770	22.2348
 2.4760	22.4767
 2.4750	22.3413
 2.4740	22.4378
 2.4730	22.3395
 2.4720	22.5525
 2.4710	22.4875
 2.4700	22.4058
 2.4690	22.4365
 2.4680	22.6177
 2.4670	22.4268
 2.4660	22.5425
 2.4650	22.4241
 2.4640	22.5770
 2.4630	22.5201
 2.4620	22.6188
 2.4610	22.4825
 2.4600	22.6299
 2.4590	22.5232
 2.4580	22.6853
 2.4570	22.5593
 2.4560	22.6326
 2.4550	22.6017
 2.4540	22.7899
 2.4530	22.6881
 2.4520	22.8625
 2.4510	22.5945
 2.4500	22.8483
 2.4490	22.6120
 2.4480	22.7322
 2.4470	22.6388
 2.4460	22.7396
 2.4450	22.6133
 2.4440	22.7895
 2.4430	22.6610
 2.4420	22.7332
 2.4410	22.6408
 2.4400	22.7620
 2.4390	22.7166
 2.4380	22.7946
 2.4370	22.7022
 2.4360	22.8050
 2.4350	22.7167
 2.4340	22.9270
 2.4330	22.8575
 2.4320	22.9410
 2.4310	22.9008
 2.4300	22.9000
 2.4290	22.9348
 2.4280	23.0244
 2.4270	23.0059
 2.4260	23.1771
 2.4250	23.1794
 2.4240	23.3099
 2.4230	23.3778
 2.4220	23.3961
 2.4210	23.3429
 2.4200	23.5221
 2.4190	23.6051
 2.4180	23.6959
 2.4170	23.7450
 2.4160	23.8489
 2.4150	23.9273
 2.4140	24.0786
 2.4130	24.0274
 2.4120	24.1696
 2.4110	24.2406
 2.4100	24.3775
 2.4090	24.3842
 2.4080	24.4781
 2.4070	24.5822
 2.4060	24.7163
 2.4050	24.7028
 2.4040	24.8863
 2.4030	24.9319
 2.4020	24.9814
 2.4010	25.0699
 2.4000	25.2604
 2.3990	25.3588
 2.3980	25.4460
 2.3970	25.5479
 2.3960	25.5848
 2.3950	25.6919
 2.3940	25.9398
 2.3930	26.0653
 2.3920	26.2311
 2.3910	26.3596
 2.3900	26.5363
 2.3890	26.6983
 2.3880	26.8524
 2.3870	26.9710
 2.3860	27.1889
 2.3850	27.3601
 2.3840	27.5485
 2.3830	27.7331
 2.3820	27.9184
 2.3810	28.0743
 2.3800	28.3248
 2.3790	28.5250
 2.3780	28.7382
 2.3770	28.9578
 2.3760	29.1630
 2.3750	29.2990
 2.3740	29.5639
 2.3730	29.7715
 2.3720	29.9042
 2.3710	30.0937
 2.3700	30.3286
 2.3690	30.4867
 2.3680	30.6902
 2.3670	30.8883
 2.3660	31.0589
 2.3650	31.1625
 2.3640	31.2764
 2.3630	31.4474
 2.3620	31.7005
 2.3610	31.7975
 2.3600	31.8699
 2.3590	32.0605
 2.3580	32.2256
 2.3570	32.3498
 2.3560	32.4698
 2.3550	32.6055
 2.3540	32.7087
 2.3530	32.8461
 2.3520	32.9674
 2.3510	33.0784
 2.3500	33.2234
 2.3490	33.3146
 2.3480	33.4093
 2.3470	33.5758
 2.3460	33.7359
 2.3450	33.8272
 2.3440	33.9032
 2.3430	34.0648
 2.3420	34.1842
 2.3410	34.2971
 2.3400	34.4614
 2.3390	34.5937
 2.3380	34.6876
 2.3370	34.8459
 2.3360	34.9451
 2.3350	35.0636
 2.3340	35.1983
 2.3330	35.3757
 2.3320	35.4938
 2.3310	35.5954
 2.3300	35.6820
 2.3290	35.8116
 2.3280	35.8906
 2.3270	35.9808
 2.3260	36.0603
 2.3250	36.1720
 2.3240	36.2498
 2.3230	36.3901
 2.3220	36.4891
 2.3210	36.5325
 2.3200	36.5525
 2.3190	36.6075
 2.3180	36.6531
 2.3170	36.7167
 2.3160	36.7338
 2.3150	36.7801
 2.3140	36.7624
 2.3130	36.8227
 2.3120	36.8116
 2.3110	36.8533
 2.3100	36.8352
 2.3090	36.8380
 2.3080	36.7942
 2.3070	36.7585
 2.3060	36.6962
 2.3050	36.6822
 2.3040	36.5789
 2.3030	36.5293
 2.3020	36.4948
 2.3010	36.4706
 2.3000	36.3807
 2.2990	36.3383
 2.2980	36.2064
 2.2970	36.1447
 2.2960	36.0292
 2.2950	35.8996
 2.2940	35.7648
 2.2930	35.6879
 2.2920	35.5245
 2.2910	35.4810
 2.2900	35.2805
 2.2890	35.2356
 2.2880	35.1337
 2.2870	34.9972
 2.2860	34.8337
 2.2850	34.8172
 2.2840	34.6655
 2.2830	34.5741
 2.2820	34.4388
 2.2810	34.3792
 2.2800	34.2781
 2.2790	34.1582
 2.2780	34.1176
 2.2770	34.0661
 2.2760	34.0078
 2.2750	33.9565
 2.2740	33.9141
 2.2730	33.9117
 2.2720	33.7743
 2.2710	33.7675
 2.2700	33.7351
 2.2690	33.7164
 2.2680	33.6332
 2.2670	33.6656
 2.2660	33.5315
 2.2650	33.5701
 2.2640	33.4387
 2.2630	33.4925
 2.2620	33.3597
 2.2610	33.3275
 2.2600	33.2521
 2.2590	33.2398
 2.2580	33.1486
 2.2570	33.1977
 2.2560	33.1003
 2.2550	33.0814
 2.2540	33.0503
 2.2530	32.9819
 2.2520	32.9487
 2.2510	32.9148
 2.2500	32.8414
 2.2490	32.9209
 2.2480	32.7490
 2.2470	32.8364
 2.2460	32.5738
 2.2450	32.6756
 2.2440	32.5600
 2.2430	32.5268
 2.2420	32.3483
 2.2410	32.3152
 2.2400	32.1284
 2.2390	32.0540
 2.2380	31.9266
 2.2370	31.7125
 2.2360	31.5137
 2.2350	31.4660
 2.2340	31.2387
 2.2330	31.0757
 2.2320	30.8938
 2.2310	30.6814
 2.2300	30.5203
 2.2290	30.3527
 2.2280	30.1501
 2.2270	30.1248
 2.2260	29.8341
 2.2250	29.7551
 2.2240	29.4711
 2.2230	29.4298
 2.2220	29.1592
 2.2210	28.9907
 2.2200	28.7738
 2.2190	28.6159
 2.2180	28.3645
 2.2170	28.2469
 2.2160	27.9102
 2.2150	27.7085
 2.2140	27.4444
 2.2130	27.3410
 2.2120	27.0675
 2.2110	26.7743
 2.2100	26.5489
 2.2090	26.2468
 2.2080	25.9540
 2.2070	25.7875
 2.2060	25.4651
 2.2050	25.2267
 2.2040	24.8465
 2.2030	24.5634
 2.2020	24.1167
 2.2010	23.9080
 2.2000	23.4355
 2.1990	23.1256
 2.1980	22.7027
 2.1970	22.3590
 2.1960	21.9650
 2.1950	21.8559
 2.1940	21.4053
 2.1930	21.2470
 2.1920	20.8470
 2.1910	20.8695
 2.1900	20.6909
 2.1890	20.7636
 2.1880	20.7131
 2.1870	20.9303
 2.1860	20.9967
 2.1850	21.3195
 2.1840	21.5647
 2.1830	22.0200
 2.1820	22.3345
 2.1810	22.8478
 2.1800	23.2233
 2.1790	23.7677
 2.1780	24.2175
 2.1770	24.7147
 2.1760	25.1502
 2.1750	25.7116
 2.1740	26.0867
 2.1730	26.6875
 2.1720	27.0883
 2.1710	27.4918
 2.1700	27.8837
 2.1690	28.2616
 2.1680	28.5341
 2.1670	28.8977
 2.1660	29.0738
 2.1650	29.4102
 2.1640	29.5249
 2.1630	29.7937
 2.1620	29.9358
 2.1610	30.0651
 2.1600	30.2057
 2.1590	30.3187
 2.1580	30.3935
 2.1570	30.5575
 2.1560	30.5300
 2.1550	30.6369
 2.1540	30.8056
 2.1530	30.9100
 2.1520	30.9266
 2.1510	30.9898
 2.1500	31.0194
 2.1490	31.1449
 2.1480	31.2067
 2.1470	31.2687
 2.1460	31.3071
 2.1450	31.4166
 2.1440	31.3968
 2.1430	31.4791
 2.1420	31.5071
 2.1410	31.5809
 2.1400	31.6029
 2.1390	31.6549
 2.1380	31.6757
 2.1370	31.7112
 2.1360	31.7824
 2.1350	31.8497
 2.1340	31.8421
 2.1330	31.8845
 2.1320	31.8919
 2.1310	31.9730
 2.1300	31.9765
 2.1290	32.0171
 2.1280	32.0103
 2.1270	32.0753
 2.1260	32.0090
 2.1250	32.0067
 2.1240	31.9938
 2.1230	32.0269
 2.1220	31.9331
 2.1210	31.9422
 2.1200	31.8670
 2.1190	31.8645
 2.1180	31.8043
 2.1170	31.8470
 2.1160	31.6902
 2.1150	31.6813
 2.1140	31.6167
 2.1130	31.6118
 2.1120	31.5450
 2.1110	31.5382
 2.1100	31.4688
 2.1090	31.3474
 2.1080	31.2378
 2.1070	31.1645
 2.1060	31.1387
 2.1050	31.1479
 2.1040	30.9940
 2.1030	30.9002
 2.1020	30.8078
 2.1010	30.7992
 2.1000	30.7041
 2.0990	30.6327
 2.0980	30.5892
 2.0970	30.5813
 2.0960	30.4881
 2.0950	30.3987
 2.0940	30.3333
 2.0930	30.3527
 2.0920	30.2766
 2.0910	30.1764
 2.0900	30.0813
 2.0890	30.0159
 2.0880	29.9155
 2.0870	29.8520
 2.0860	29.8016
 2.0850	29.6938
 2.0840	29.6522
 2.0830	29.5950
 2.0820	29.4730
 2.0810	29.3880
 2.0800	29.2844
 2.0790	29.1994
 2.0780	29.1073
 2.0770	29.0581
 2.0760	28.9499
 2.0750	28.8173
 2.0740	28.7597
 2.0730	28.6745
 2.0720	28.5325
 2.0710	28.4138
 2.0700	28.3109
 2.0690	28.1989
 2.0680	28.0455
 2.0670	27.9128
 2.0660	27.8251
 2.0650	27.6469
 2.0640	27.4248
 2.0630	27.2431
 2.0620	27.0863
 2.0610	26.8855
 2.0600	26.6806
 2.0590	26.4667
 2.0580	26.2428
 2.0570	26.0008
 2.0560	25.7937
 2.0550	25.5928
 2.0540	25.4480
 2.0530	25.3097
 2.0520	25.1554
 2.0510	25.0148
 2.0500	25.0028
 2.0490	24.9665
 2.0480	24.9698
 2.0470	24.9505
 2.0460	24.9817
 2.0450	25.0054
 2.0440	25.0735
 2.0430	25.0401
 2.0420	25.0742
 2.0410	25.0903
 2.0400	25.0873
 2.0390	25.0537
 2.0380	25.0430
 2.0370	24.9788
 2.0360	24.9901
 2.0350	24.9020
 2.0340	24.9461
 2.0330	24.8805
 2.0320	24.8582
 2.0310	24.8675
 2.0300	24.8526
 2.0290	24.8283
 2.0280	24.7764
 2.0270	24.7565
 2.0260	24.7526
 2.0250	24.7361
 2.0240	24.7206
 2.0230	24.6307
 2.0220	24.6156
 2.0210	24.5514
 2.0200	24.4244
 2.0190	24.2928
 2.0180	24.2574
 2.0170	24.1264
 2.0160	24.0712
 2.0150	23.9211
 2.0140	23.8865
 2.0130	23.7316
 2.0120	23.6160
 2.0110	23.4977
 2.0100	23.4816
 2.0090	23.3550
 2.0080	23.3870
 2.0070	23.2632
 2.0060	23.2634
 2.0050	23.1499
 2.0040	23.1164
 2.0030	23.0140
 2.0020	23.0062
 2.0010	22.9687
 2.0000	22.9184
 1.9990	22.8340
 1.9980	22.8242
 1.9970	22.6895
 1.9960	22.7128
 1.9950	22.6422
 1.9940	22.6212
 1.9930	22.5537
 1.9920	22.5435
 1.9910	22.4817
 1.9900	22.5370
 1.9890	22.3773
 1.9880	22.4627
 1.9870	22.3977
 1.9860	22.4087
 1.9850	22.4177
 1.9840	22.4134
 1.9830	22.3104
 1.9820	22.4118
 1.9810	22.3703
 1.9800	22.3588
 1.9790	22.2833
 1.9780	22.4392
 1.9770	22.3585
 1.9760	22.4818
 1.9750	22.3717
 1.9740	22.4027
 1.9730	22.4658
 1.9720	22.4699
 1.9710	22.5468
 1.9700	22.5810
 1.9690	22.6096
 1.9680	22.7404
 1.9670	22.6843
 1.9660	22.8920
 1.9650	22.9933
 1.9640	23.1134
 1.9630	23.1237
 1.9620	23.3468
 1.9610	23.3436
 1.9600	23.6457
 1.9590	23.8207
 1.9580	23.9700
 1.9570	24.0818
 1.9560	24.3716
 1.9550	24.5462
 1.9540	24.8311
 1.9530	24.9433
 1.9520	25.3485
 1.9510	25.4116
 1.9500	25.7969
 1.9490	26.0167
 1.9480	26.2836
 1.9470	26.4844
 1.9460	26.8757
 1.9450	27.0503
 1.9440	27.3924
 1.9430	27.5717
 1.9420	28.0319
 1.9410	28.1514
 1.9400	28.5543
 1.9390	28.8416
 1.9380	29.1023
 1.9370	29.3931
 1.9360	29.7750
 1.9350	30.0079
 1.9340	30.3781
 1.9330	30.6541
 1.9320	31.1015
 1.9310	31.2787
 1.9300	31.6716
 1.9290	31.9031
 1.9280	32.2842
 1.9270	32.5082
 1.9260	32.7464
 1.9250	33.1279
 1.9240	33.5212
 1.9230	33.7604
 1.9220	34.0631
 1.9210	34.3725
 1.9200	34.7391
 1.9190	34.9244
 1.9180	35.3570
 1.9170	35.6279
 1.9160	35.9598
 1.9150	36.3019
 1.9140	36.5748
 1.9130	36.8499
 1.9120	37.1877
 1.9110	37.4755
 1.9100	37.8089
 1.9090	38.0549
 1.9080	38.3861
 1.9070	38.6927
 1.9060	39.0647
 1.9050	39.2585
 1.9040	39.6638
 1.9030	39.9875
 1.9020	40.4224
 1.9010	40.7010
 1.9000	41.1338
 1.8990	41.3988
 1.8980	41.7933
 1.8970	42.1649
 1.8960	42.5330
 1.8950	42.8654
 1.8940	43.2292
 1.8930	43.5420
 1.8920	43.8829
 1.8910	44.1817
 1.8900	44.5984
 1.8890	44.7624
 1.8880	45.1514
 1.8870	45.3347
 1.8860	45.6566
 1.8850	45.8933
 1.8840	46.1786
 1.8830	46.4353
 1.8820	46.5848
 1.8810	46.7498
 1.8800	46.9979
 1.8790	47.1853
 1.8780	47.3721
 1.8770	47.4732
 1.8760	47.7265
 1.8750	47.8151
 1.8740	48.0568
 1.8730	48.1783
 1.8720	48.3093
 1.8710	48.4081
 1.8700	48.5764
 1.8690	48.6903
 1.8680	48.8027
 1.8670	48.8602
 1.8660	48.9857
 1.8650	49.0291
 1.8640	49.1191
 1.8630	49.1676
 1.8620	49.2263
 1.8610	49.2943
 1.8600	49.3806
 1.8590	49.3584
 1.8580	49.4433
 1.8570	49.5314
 1.8560	49.6208
 1.8550	49.5818
 1.8540	49.6257
 1.8530	49.6293
 1.8520	49.6434
 1.8510	49.6418
 1.8500	49.7192
 1.8490	49.6831
 1.8480	49.7639
 1.8470	49.7478
 1.8460	49.7215
 1.8450	49.6945
 1.8440	49.7334
 1.8430	49.7093
 1.8420	49.7395
 1.8410	49.7026
 1.8400	49.7099
 1.8390	49.6838
 1.8380	49.6732
 1.8370	49.6642
 1.8360	49.6669
 1.8350	49.5882
 1.8340	49.6296
 1.8330	49.5952
 1.8320	49.5353
 1.8310	49.4429
 1.8300	49.4163
 1.8290	49.3488
 1.8280	49.3807
 1.8270	49.3493
 1.8260	49.3008
 1.8250	49.2208
 1.8240	49.2223
 1.8230	49.1320
 1.8220	49.1104
 1.8210	49.0628
 1.8200	49.0362
 1.8190	48.9788
 1.8180	48.9607
 1.8170	48.8992
 1.8160	48.8769
 1.8150	48.7962
 1.8140	48.7426
 1.8130	48.6876
 1.8120	48.6621
 1.8110	48.6546
 1.8100	48.5983
 1.8090	48.5170
 1.8080	48.4761
 1.8070	48.4158
 1.8060	48.3833
 1.8050	48.3211
 1.8040	48.2655
 1.8030	48.1973
 1.8020	48.1783
 1.8010	48.1874
 1.8000	48.1284
 1.7990	48.0572
 1.7980	48.0166
 1.7970	47.9415
 1.7960	47.9375
 1.7950	47.9047
 1.7940	47.8669
 1.7930	47.8867
 1.7920	47.8721
 1.7910	47.8662
 1.7900	47.8834
 1.7890	47.8457
 1.7880	47.8573
 1.7870	47.8505
 1.7860	47.8674
 1.7850	47.9212
 1.7840	47.9598
 1.7830	47.9793
 1.7820	47.9564
 1.7810	47.9884
 1.7800	48.0661
 1.7790	48.1525
 1.7780	48.2091
 1.7770	48.2274
 1.7760	48.2447
 1.7750	48.3031
 1.7740	48.3818
 1.7730	48.4667
 1.7720	48.4943
 1.7710	48.5311
 1.7700	48.5710
 1.7690	48.6506
 1.7680	48.7334
 1.7670	48.8501
 1.7660	48.8827
 1.7650	48.8885
 1.7640	48.9375
 1.7630	49.0221
 1.7620	49.0928
 1.7610	49.1631
 1.7600	49.1791
 1.7590	49.2644
 1.7580	49.3268
 1.7570	49.3760
 1.7560	49.4127
 1.7550	49.4942
 1.7540	49.5675
 1.7530	49.5877
 1.7520	49.6393
 1.7510	49.7145
 1.7500	49.7177
 1.7490	49.7391
 1.7480	49.7765
 1.7470	49.8371
 1.7460	49.8279
 1.7450	49.8148
 1.7440	49.8593
 1.7430	49.9510
 1.7420	50.0495
 1.7410	50.0824
 1.7400	50.0703
 1.7390	50.1347
 1.7380	50.1962
 1.7370	50.3021
 1.7360	50.3420
 1.7350	50.3763
 1.7340	50.3500
 1.7330	50.4001
 1.7320	50.4899
 1.7310	50.4884
 1.7300	50.5461
 1.7290	50.6061
 1.7280	50.5622
 1.7270	50.6229
 1.7260	50.6811
 1.7250	50.7482
 1.7240	50.8130
 1.7230	50.8912
 1.7220	50.8591
 1.7210	50.9124
 1.7200	50.9404
 1.7190	51.0377
 1.7180	51.1022
 1.7170	51.1015
 1.7160	51.1105
 1.7150	51.2155
 1.7140	51.2114
 1.7130	51.2335
 1.7120	51.3053
 1.7110	51.3983
 1.7100	51.3388
 1.7090	51.4495
 1.7080	51.4075
 1.7070	51.4434
 1.7060	51.4959
 1.7050	51.5588
 1.7040	51.5088
 1.7030	51.5569
 1.7020	51.5556
 1.7010	51.6132
 1.7000	51.6338
 1.6990	51.6217
 1.6980	51.6603
 1.6970	51.6786
 1.6960	51.6795
 1.6950	51.6901
 1.6940	51.7348
 1.6930	51.7417
 1.6920	51.7213
 1.6910	51.7971
 1.6900	51.8174
 1.6890	51.8257
 1.6880	51.7972
 1.6870	51.8754
 1.6860	51.8389
 1.6850	51.9543
 1.6840	51.9272
 1.6830	51.9159
 1.6820	51.9050
 1.6810	51.9303
 1.6800	51.9452
 1.6790	51.9881
 1.6780	51.9277
 1.6770	51.9365
 1.6760	51.8937
 1.6750	51.9518
 1.6740	51.8629
 1.6730	51.9441
 1.6720	51.9082
 1.6710	51.9231
 1.6700	51.8278
 1.6690	51.9038
 1.6680	51.7324
 1.6670	51.9195
 1.6660	51.7667
 1.6650	51.8857
 1.6640	51.6973
 1.6630	51.8040
 1.6620	51.6994
 1.6610	51.6890
 1.6600	51.7291
 1.6590	51.7409
 1.6580	51.6369
 1.6570	51.6562
 1.6560	51.6040
 1.6550	51.5920
 1.6540	51.5348
 1.6530	51.4913
 1.6520	51.4124
 1.6510	51.3905
 1.6500	51.2818
 1.6490	51.3663
 1.6480	51.2828
 1.6470	51.2517
 1.6460	51.1685
 1.6450	51.1604
 1.6440	51.0590
 1.6430	51.1063
 1.6420	50.9657
 1.6410	50.8711
 1.6400	50.8597
 1.6390	50.8929
 1.6380	50.7476
 1.6370	50.7803
 1.6360	50.5955
 1.6350	50.6028
 1.6340	50.5320
 1.6330	50.4834
 1.6320	50.3611
 1.6310	50.4077
 1.6300	50.1901
 1.6290	50.2500
 1.6280	50.1362
 1.6270	50.1228
 1.6260	50.0377
 1.6250	49.9265
 1.6240	49.7992
 1.6230	49.8596
 1.6220	49.7727
 1.6210	49.6653
 1.6200	49.5304
 1.6190	49.6074
 1.6180	49.4490
 1.6170	49.4396
 1.6160	49.3290
 1.6150	49.3318
 1.6140	49.2290
 1.6130	49.1606
 1.6120	49.0815
 1.6110	49.0901
 1.6100	48.9472
 1.6090	48.9699
 1.6080	48.8798
 1.6070	48.8424
 1.6060	48.6988
 1.6050	48.7799
 1.6040	48.6602
 1.6030	48.6644
 1.6020	48.5263
 1.6010	48.5815
 1.6000	48.4347
 1.5990	48.4808
 1.5980	48.4183
 1.5970	48.3601
 1.5960	48.2900
 1.5950	48.2535
 1.5940	48.1694
 1.5930	48.1922
 1.5920	48.0360
 1.5910	48.0574
 1.5900	47.9606
 1.5890	47.9964
 1.5880	47.9643
 1.5870	47.9335
 1.5860	47.8078
 1.5850	47.8652
 1.5840	47.7546
 1.5830	47.7398
 1.5820	47.6478
 1.5810	47.6117
 1.5800	47.5005
 1.5790	47.5110
 1.5780	47.5358
 1.5770	47.4687
 1.5760	47.4390
 1.5750	47.5205
 1.5740	47.3993
 1.5730	47.4121
 1.5720	47.3087
 1.5710	47.3419
 1.5700	47.3703
 1.5690	47.4000
 1.5680	47.3205
 1.5670	47.3653
 1.5660	47.3140
 1.5650	47.3183
 1.5640	47.2800
 1.5630	47.3323
 1.5620	47.2954
 1.5610	47.3513
 1.5600	47.3270
 1.5590	47.2874
 1.5580	47.2828
 1.5570	47.3330
 1.5560	47.2506
 1.5550	47.2973
 1.5540	47.2856
 1.5530	47.2555
 1.5520	47.2211
 1.5510	47.2896
 1.5500	47.2722
 1.5490	47.2528
 1.5480	47.2858
 1.5470	47.3242
 1.5460	47.3034
 1.5450	47.3034
 1.5440	47.3404
 1.5430	47.3803
 1.5420	47.4061
 1.5410	47.3973
 1.5400	47.4081
 1.5390	47.4668
 1.5380	47.4897
 1.5370	47.4905
 1.5360	47.4624
 1.5350	47.4457
 1.5340	47.4778
 1.5330	47.4664
 1.5320	47.4163
 1.5310	47.3965
 1.5300	47.3143
 1.5290	47.3051
 1.5280	47.2528
 1.5270	47.1839
 1.5260	47.1291
 1.5250	47.0895
 1.5240	47.0189
 1.5230	46.9345
 1.5220	46.8541
 1.5210	46.7385
 1.5200	46.6411
 1.5190	46.5961
 1.5180	46.5651
 1.5170	46.4290
 1.5160	46.3088
 1.5150	46.3094
 1.5140	46.2185
 1.5130	46.1090
 1.5120	46.0050
 1.5110	45.9537
 1.5100	45.9353
 1.5090	45.8570
 1.5080	45.7400
 1.5070	45.6719
 1.5060	45.6542
 1.5050	45.6678
 1.5040	45.6104
 1.5030	45.5864
 1.5020	45.5492
 1.5010	45.4857
 1.5000	45.4885
 1.4990	45.4685
 1.4980	45.4354
 1.4970	45.4342
 1.4960	45.4517
 1.4950	45.4676
 1.4940	45.4873
 1.4930	45.5586
 1.4920	45.6105
 1.4910	45.6303
 1.4900	45.6954
 1.4890	45.7442
 1.4880	45.8281
 1.4870	45.8980
 1.4860	45.9439
 1.4850	46.0072
 1.4840	46.0842
 1.4830	46.1419
 1.4820	46.2960
 1.4810	46.3807
 1.4800	46.4736
 1.4790	46.6187
 1.4780	46.7395
 1.4770	46.8788
 1.4760	47.0955
 1.4750	47.2636
 1.4740	47.4493
 1.4730	47.6852
 1.4720	47.9255
 1.4710	48.0703
 1.4700	48.2215
 1.4690	48.3678
 1.4680	48.5218
 1.4670	48.6877
 1.4660	48.7834
 1.4650	48.7923
 1.4640	48.8935
 1.4630	48.9272
 1.4620	48.9965
 1.4610	49.0485
 1.4600	49.0869
 1.4590	49.0156
 1.4580	48.9776
 1.4570	48.8926
 1.4560	48.7704
 1.4550	48.5156
 1.4540	48.1973
 1.4530	47.7685
 1.4520	47.3148
 1.4510	46.5409
 1.4500	45.7118
 1.4490	44.8421
 1.4480	44.0248
 1.4470	43.2494
 1.4460	42.6040
 1.4450	41.9642
 1.4440	41.6337
 1.4430	41.4198
 1.4420	41.4051
 1.4410	41.4794
 1.4400	41.6887
 1.4390	42.0196
 1.4380	42.5922
 1.4370	43.2474
 1.4360	44.0295
 1.4350	44.8430
 1.4340	45.8745
 1.4330	46.9365
 1.4320	48.0566
 1.4310	49.1114
 1.4300	50.2098
 1.4290	51.3943
 1.4280	52.4987
 1.4270	53.6048
 1.4260	54.7160
 1.4250	55.7620
 1.4240	56.8312
 1.4230	57.9107
 1.4220	58.8537
 1.4210	59.7838
 1.4200	60.7453
 1.4190	61.5814
 1.4180	62.4736
 1.4170	63.1467
 1.4160	63.8689
 1.4150	64.5318
 1.4140	65.1083
 1.4130	65.5521
 1.4120	65.8703
 1.4110	66.0944
 1.4100	66.3108
 1.4090	66.6100
 1.4080	67.1550
 1.4070	67.6427
 1.4060	68.3365
 1.4050	68.8874
 1.4040	69.4606
 1.4030	69.8800
 1.4020	70.2200
 1.4010	70.5925
 1.4000	70.8984
 1.3990	71.1332
 1.3980	71.3560
 1.3970	71.5781
 1.3960	71.9259
 1.3950	72.1323
 1.3940	72.2972
 1.3930	72.4929
 1.3920	72.6773
 1.3910	72.8110
 1.3900	72.8715
 1.3890	73.0468
 1.3880	73.1554
 1.3870	73.2406
 1.3860	73.3970
 1.3850	73.4000
 1.3840	73.5772
 1.3830	73.5896
 1.3820	73.6585
 1.3810	73.7287
 1.3800	73.7990
 1.3790	73.9440
 1.3780	73.9751
 1.3770	74.0332
 1.3760	74.0919
 1.3750	74.1563
 1.3740	74.2600
 1.3730	74.2748
 1.3720	74.2918
 1.3710	74.2848
 1.3700	74.5487
 1.3690	74.5839
 1.3680	74.6919
 1.3670	74.7081
 1.3660	74.7633
