Name: Muscovite KAl_2(Si_3Al)O_10(OH,F)_2
Type: Mineral
Class: Silicate
Subclass: Phyllosilicate
Particle Size: Coarse
Sample No.: PS-16A
Owner: JPL
Wavelength Range: VSWIR
Origin: USA, Connecticut.
Collection Date: N/A
Description: Particle size was 125-500um.Collected by:  Ward's Original ASTER Spectral Library name was jpl.perkin.mineral.silicate.phyllosilicate.coarse.ps16a.spectrum.txt
Measurement: Hemispherical reflectance
First Column: X
Second Column: Y
X Units: Wavelength (micrometers)
Y Units:Reflectance (percent)
First X Value:  2.5000
Last X Value:  0.4000
Number of X Values: 2101
Additional Information: mineral.silicate.phyllosilicate.coarse.vswir.ps-16a.jpl.perkin.ancillary.txt

 2.5000	38.3048
 2.4990	38.1264
 2.4980	38.2300
 2.4970	38.0374
 2.4960	37.7822
 2.4950	37.8977
 2.4940	37.7522
 2.4930	37.6097
 2.4920	37.7659
 2.4910	37.5860
 2.4900	37.5025
 2.4890	37.4254
 2.4880	37.5651
 2.4870	37.3642
 2.4860	37.4951
 2.4850	37.1921
 2.4840	37.3983
 2.4830	37.0913
 2.4820	37.2283
 2.4810	36.9837
 2.4800	37.1172
 2.4790	36.9750
 2.4780	37.0751
 2.4770	36.7935
 2.4760	36.8328
 2.4750	36.7696
 2.4740	36.8893
 2.4730	36.4982
 2.4720	36.7453
 2.4710	36.3043
 2.4700	36.3237
 2.4690	36.1897
 2.4680	36.2903
 2.4670	35.9851
 2.4660	35.9903
 2.4650	35.8538
 2.4640	35.9725
 2.4630	35.6014
 2.4620	35.6557
 2.4610	35.4719
 2.4600	35.4591
 2.4590	35.3608
 2.4580	35.2299
 2.4570	35.0846
 2.4560	35.1792
 2.4550	34.9582
 2.4540	34.8935
 2.4530	34.7823
 2.4520	34.6568
 2.4510	34.4790
 2.4500	34.5235
 2.4490	34.3049
 2.4480	34.3716
 2.4470	34.2950
 2.4460	34.3851
 2.4450	34.1781
 2.4440	34.1068
 2.4430	34.0336
 2.4420	34.0716
 2.4410	33.9829
 2.4400	33.9835
 2.4390	33.9463
 2.4380	33.9157
 2.4370	33.9710
 2.4360	33.9546
 2.4350	33.9728
 2.4340	33.9471
 2.4330	34.0664
 2.4320	34.0987
 2.4310	34.0668
 2.4300	34.1592
 2.4290	34.2164
 2.4280	34.3569
 2.4270	34.4022
 2.4260	34.5515
 2.4250	34.6833
 2.4240	34.8319
 2.4230	34.9358
 2.4220	35.0296
 2.4210	35.1408
 2.4200	35.2914
 2.4190	35.4531
 2.4180	35.6348
 2.4170	35.7666
 2.4160	36.0134
 2.4150	36.2075
 2.4140	36.3698
 2.4130	36.4918
 2.4120	36.7221
 2.4110	36.8665
 2.4100	37.0788
 2.4090	37.2797
 2.4080	37.4669
 2.4070	37.6587
 2.4060	37.8309
 2.4050	37.9425
 2.4040	38.1563
 2.4030	38.2413
 2.4020	38.4493
 2.4010	38.4748
 2.4000	38.6143
 2.3990	38.6952
 2.3980	38.7953
 2.3970	38.9025
 2.3960	39.0125
 2.3950	38.9734
 2.3940	39.0424
 2.3930	39.1502
 2.3920	39.2664
 2.3910	39.2251
 2.3900	39.2581
 2.3890	39.2679
 2.3880	39.2694
 2.3870	39.2447
 2.3860	39.2844
 2.3850	39.2501
 2.3840	39.2623
 2.3830	39.2550
 2.3820	39.2744
 2.3810	39.2771
 2.3800	39.2832
 2.3790	39.3063
 2.3780	39.3236
 2.3770	39.2998
 2.3760	39.3202
 2.3750	39.3236
 2.3740	39.2977
 2.3730	39.2875
 2.3720	39.3212
 2.3710	39.3242
 2.3700	39.3565
 2.3690	39.3024
 2.3680	39.2717
 2.3670	39.2743
 2.3660	39.2627
 2.3650	39.1869
 2.3640	39.0960
 2.3630	39.0638
 2.3620	39.0091
 2.3610	38.9196
 2.3600	38.8794
 2.3590	38.8367
 2.3580	38.6675
 2.3570	38.5219
 2.3560	38.4982
 2.3550	38.4412
 2.3540	38.3761
 2.3530	38.3516
 2.3520	38.2531
 2.3510	38.1675
 2.3500	38.1278
 2.3490	38.1021
 2.3480	38.0404
 2.3470	38.0331
 2.3460	38.0644
 2.3450	38.0619
 2.3440	38.0750
 2.3430	38.1800
 2.3420	38.2978
 2.3410	38.3843
 2.3400	38.5002
 2.3390	38.6484
 2.3380	38.8051
 2.3370	39.0169
 2.3360	39.1808
 2.3350	39.3982
 2.3340	39.6006
 2.3330	39.8670
 2.3320	40.1715
 2.3310	40.4677
 2.3300	40.6589
 2.3290	40.9425
 2.3280	41.2392
 2.3270	41.6035
 2.3260	41.8440
 2.3250	42.1990
 2.3240	42.5588
 2.3230	42.9285
 2.3220	43.2342
 2.3210	43.6018
 2.3200	43.8892
 2.3190	44.2476
 2.3180	44.5926
 2.3170	44.9620
 2.3160	45.2938
 2.3150	45.6284
 2.3140	45.9342
 2.3130	46.2888
 2.3120	46.6483
 2.3110	47.0320
 2.3100	47.3145
 2.3090	47.6156
 2.3080	47.9442
 2.3070	48.3935
 2.3060	48.6572
 2.3050	48.9791
 2.3040	49.2876
 2.3030	49.6430
 2.3020	49.9042
 2.3010	50.3347
 2.3000	50.5921
 2.2990	50.8859
 2.2980	51.0722
 2.2970	51.3442
 2.2960	51.6306
 2.2950	51.8764
 2.2940	51.9648
 2.2930	52.2275
 2.2920	52.3941
 2.2910	52.5898
 2.2900	52.8476
 2.2890	53.0373
 2.2880	53.1427
 2.2870	53.3166
 2.2860	53.3795
 2.2850	53.5442
 2.2840	53.6374
 2.2830	53.7289
 2.2820	53.7935
 2.2810	53.8873
 2.2800	53.9077
 2.2790	54.0088
 2.2780	54.0963
 2.2770	54.1302
 2.2760	54.1262
 2.2750	54.1944
 2.2740	54.1877
 2.2730	54.2877
 2.2720	54.3019
 2.2710	54.2854
 2.2700	54.2025
 2.2690	54.2127
 2.2680	54.1645
 2.2670	54.1989
 2.2660	54.0786
 2.2650	54.0554
 2.2640	53.9529
 2.2630	53.9301
 2.2620	53.8390
 2.2610	53.7802
 2.2600	53.6632
 2.2590	53.5759
 2.2580	53.4529
 2.2570	53.3166
 2.2560	53.1316
 2.2550	53.1407
 2.2540	52.9551
 2.2530	52.8451
 2.2520	52.6725
 2.2510	52.5827
 2.2500	52.3807
 2.2490	52.1918
 2.2480	52.0058
 2.2470	51.9033
 2.2460	51.5682
 2.2450	51.5235
 2.2440	51.2683
 2.2430	51.1149
 2.2420	50.9635
 2.2410	50.7075
 2.2400	50.5236
 2.2390	50.3448
 2.2380	50.0285
 2.2370	49.9079
 2.2360	49.6039
 2.2350	49.3429
 2.2340	49.1921
 2.2330	48.9392
 2.2320	48.6472
 2.2310	48.3505
 2.2300	47.9874
 2.2290	47.8373
 2.2280	47.4132
 2.2270	47.1752
 2.2260	46.7056
 2.2250	46.4236
 2.2240	45.8324
 2.2230	45.3871
 2.2220	44.8467
 2.2210	44.3147
 2.2200	43.6315
 2.2190	43.1078
 2.2180	42.4375
 2.2170	41.8075
 2.2160	41.0860
 2.2150	40.4525
 2.2140	39.7233
 2.2130	39.0352
 2.2120	38.3940
 2.2110	37.6564
 2.2100	36.9932
 2.2090	36.4171
 2.2080	35.8794
 2.2070	35.3108
 2.2060	34.6758
 2.2050	34.2716
 2.2040	33.8419
 2.2030	33.4392
 2.2020	33.0928
 2.2010	32.9212
 2.2000	32.6772
 2.1990	32.5835
 2.1980	32.4469
 2.1970	32.5026
 2.1960	32.4981
 2.1950	32.7363
 2.1940	32.8556
 2.1930	33.2720
 2.1920	33.5220
 2.1910	34.0713
 2.1900	34.5308
 2.1890	35.1647
 2.1880	35.7473
 2.1870	36.5993
 2.1860	37.2793
 2.1850	38.1337
 2.1840	38.9671
 2.1830	39.9257
 2.1820	40.7836
 2.1810	41.7663
 2.1800	42.6387
 2.1790	43.5286
 2.1780	44.3955
 2.1770	45.3895
 2.1760	46.2000
 2.1750	47.0123
 2.1740	47.8028
 2.1730	48.6298
 2.1720	49.3103
 2.1710	50.1342
 2.1700	50.7788
 2.1690	51.4557
 2.1680	52.0303
 2.1670	52.5859
 2.1660	53.1098
 2.1650	53.6709
 2.1640	54.1411
 2.1630	54.5948
 2.1620	55.0284
 2.1610	55.4541
 2.1600	55.8349
 2.1590	56.2111
 2.1580	56.5327
 2.1570	56.8713
 2.1560	57.1792
 2.1550	57.5710
 2.1540	57.7306
 2.1530	58.0126
 2.1520	58.3027
 2.1510	58.5328
 2.1500	58.7836
 2.1490	58.9150
 2.1480	59.0919
 2.1470	59.3180
 2.1460	59.5071
 2.1450	59.6340
 2.1440	59.7428
 2.1430	59.9062
 2.1420	60.0053
 2.1410	60.1133
 2.1400	60.1376
 2.1390	60.2578
 2.1380	60.2781
 2.1370	60.2763
 2.1360	60.3138
 2.1350	60.4188
 2.1340	60.3686
 2.1330	60.3766
 2.1320	60.2911
 2.1310	60.3105
 2.1300	60.2351
 2.1290	60.2106
 2.1280	60.1791
 2.1270	60.1732
 2.1260	60.0198
 2.1250	60.0628
 2.1240	60.0192
 2.1230	59.9793
 2.1220	59.9471
 2.1210	59.9418
 2.1200	59.9459
 2.1190	59.9244
 2.1180	59.8992
 2.1170	60.0050
 2.1160	60.0759
 2.1150	60.2263
 2.1140	60.2377
 2.1130	60.3691
 2.1120	60.4425
 2.1110	60.5450
 2.1100	60.6304
 2.1090	60.7408
 2.1080	60.8987
 2.1070	61.0437
 2.1060	61.1556
 2.1050	61.3515
 2.1040	61.4355
 2.1030	61.6170
 2.1020	61.7557
 2.1010	61.8845
 2.1000	62.0106
 2.0990	62.2339
 2.0980	62.4883
 2.0970	62.7370
 2.0960	62.8900
 2.0950	63.0807
 2.0940	63.2520
 2.0930	63.4409
 2.0920	63.6379
 2.0910	63.8321
 2.0900	64.0086
 2.0890	64.1748
 2.0880	64.3617
 2.0870	64.4938
 2.0860	64.6381
 2.0850	64.8151
 2.0840	64.9233
 2.0830	65.0508
 2.0820	65.1873
 2.0810	65.2090
 2.0800	65.2972
 2.0790	65.5000
 2.0780	65.5478
 2.0770	65.5905
 2.0760	65.6961
 2.0750	65.7933
 2.0740	65.8553
 2.0730	65.9228
 2.0720	65.9001
 2.0710	65.9186
 2.0700	66.0016
 2.0690	66.0408
 2.0680	66.0899
 2.0670	66.1820
 2.0660	66.2208
 2.0650	66.1878
 2.0640	66.2405
 2.0630	66.3238
 2.0620	66.3999
 2.0610	66.4263
 2.0600	66.3887
 2.0590	66.4095
 2.0580	66.4395
 2.0570	66.4708
 2.0560	66.5220
 2.0550	66.5207
 2.0540	66.5758
 2.0530	66.6611
 2.0520	66.6349
 2.0510	66.6179
 2.0500	66.7327
 2.0490	66.7054
 2.0480	66.6750
 2.0470	66.7002
 2.0460	66.7297
 2.0450	66.7548
 2.0440	66.7998
 2.0430	66.8164
 2.0420	66.8688
 2.0410	66.8658
 2.0400	66.9038
 2.0390	66.9500
 2.0380	66.9551
 2.0370	67.0084
 2.0360	66.9990
 2.0350	66.9891
 2.0340	67.0470
 2.0330	67.0548
 2.0320	67.1336
 2.0310	67.1383
 2.0300	67.1752
 2.0290	67.1938
 2.0280	67.2029
 2.0270	67.1398
 2.0260	67.1771
 2.0250	67.1659
 2.0240	67.1389
 2.0230	67.1744
 2.0220	67.1948
 2.0210	67.2082
 2.0200	67.2519
 2.0190	67.2530
 2.0180	67.2863
 2.0170	67.2505
 2.0160	67.2657
 2.0150	67.2509
 2.0140	67.2723
 2.0130	67.2476
 2.0120	67.3445
 2.0110	67.2608
 2.0100	67.2812
 2.0090	67.2925
 2.0080	67.3029
 2.0070	67.2830
 2.0060	67.3371
 2.0050	67.3187
 2.0040	67.2452
 2.0030	67.2566
 2.0020	67.3075
 2.0010	67.3286
 2.0000	67.3833
 1.9990	67.4057
 1.9980	67.4031
 1.9970	67.3064
 1.9960	67.3489
 1.9950	67.2081
 1.9940	67.2849
 1.9930	67.2528
 1.9920	67.1773
 1.9910	67.1989
 1.9900	67.2253
 1.9890	67.1457
 1.9880	67.2796
 1.9870	67.2215
 1.9860	67.1929
 1.9850	67.2368
 1.9840	67.2587
 1.9830	67.2418
 1.9820	67.2455
 1.9810	67.2377
 1.9800	67.1864
 1.9790	67.1823
 1.9780	67.1969
 1.9770	67.1363
 1.9760	67.2569
 1.9750	67.1487
 1.9740	67.2918
 1.9730	67.1944
 1.9720	67.2962
 1.9710	67.1793
 1.9700	67.2449
 1.9690	67.2003
 1.9680	67.2415
 1.9670	67.2932
 1.9660	67.2410
 1.9650	67.1866
 1.9640	67.2306
 1.9630	67.2359
 1.9620	67.3516
 1.9610	67.2145
 1.9600	67.2617
 1.9590	67.2855
 1.9580	67.2594
 1.9570	67.2349
 1.9560	67.3342
 1.9550	67.2568
 1.9540	67.2835
 1.9530	67.2366
 1.9520	67.3049
 1.9510	67.4047
 1.9500	67.2806
 1.9490	67.2289
 1.9480	67.3035
 1.9470	67.3278
 1.9460	67.3484
 1.9450	67.3474
 1.9440	67.3115
 1.9430	67.3408
 1.9420	67.3492
 1.9410	67.3320
 1.9400	67.3086
 1.9390	67.2698
 1.9380	67.3148
 1.9370	67.4243
 1.9360	67.2604
 1.9350	67.2078
 1.9340	67.4018
 1.9330	67.3137
 1.9320	67.3121
 1.9310	67.3505
 1.9300	67.2844
 1.9290	67.3646
 1.9280	67.2112
 1.9270	67.3536
 1.9260	67.2149
 1.9250	67.3145
 1.9240	67.2701
 1.9230	67.2827
 1.9220	67.3544
 1.9210	67.2762
 1.9200	67.3498
 1.9190	67.2969
 1.9180	67.3951
 1.9170	67.2599
 1.9160	67.3560
 1.9150	67.4881
 1.9140	67.5363
 1.9130	67.6439
 1.9120	67.5535
 1.9110	67.5648
 1.9100	67.6807
 1.9090	67.6605
 1.9080	67.7897
 1.9070	67.8282
 1.9060	67.9696
 1.9050	67.8872
 1.9040	68.0664
 1.9030	68.0430
 1.9020	68.1088
 1.9010	68.1568
 1.9000	68.3027
 1.8990	68.3490
 1.8980	68.4506
 1.8970	68.5201
 1.8960	68.5370
 1.8950	68.6248
 1.8940	68.7312
 1.8930	68.6752
 1.8920	68.8011
 1.8910	68.7933
 1.8900	68.9351
 1.8890	68.9765
 1.8880	69.0298
 1.8870	69.0053
 1.8860	69.1354
 1.8850	69.1120
 1.8840	69.1601
 1.8830	69.2528
 1.8820	69.2780
 1.8810	69.1918
 1.8800	69.2564
 1.8790	69.4017
 1.8780	69.3806
 1.8770	69.3516
 1.8760	69.4191
 1.8750	69.4813
 1.8740	69.4207
 1.8730	69.5018
 1.8720	69.5100
 1.8710	69.5101
 1.8700	69.5718
 1.8690	69.5158
 1.8680	69.6080
 1.8670	69.6273
 1.8660	69.6019
 1.8650	69.5288
 1.8640	69.5583
 1.8630	69.6182
 1.8620	69.6092
 1.8610	69.6029
 1.8600	69.5973
 1.8590	69.5160
 1.8580	69.5265
 1.8570	69.5217
 1.8560	69.5605
 1.8550	69.5259
 1.8540	69.5186
 1.8530	69.4232
 1.8520	69.3831
 1.8510	69.3687
 1.8500	69.3469
 1.8490	69.3332
 1.8480	69.3334
 1.8470	69.2554
 1.8460	69.2510
 1.8450	69.2073
 1.8440	69.1763
 1.8430	69.2185
 1.8420	69.2605
 1.8410	69.1641
 1.8400	69.1661
 1.8390	69.1604
 1.8380	69.1652
 1.8370	69.1232
 1.8360	69.2066
 1.8350	69.2605
 1.8340	69.2612
 1.8330	69.2995
 1.8320	69.3602
 1.8310	69.3009
 1.8300	69.4070
 1.8290	69.4381
 1.8280	69.4995
 1.8270	69.5475
 1.8260	69.5881
 1.8250	69.5613
 1.8240	69.6009
 1.8230	69.6430
 1.8220	69.6977
 1.8210	69.7340
 1.8200	69.7623
 1.8190	69.7705
 1.8180	69.8257
 1.8170	69.8484
 1.8160	69.8795
 1.8150	69.8713
 1.8140	69.9178
 1.8130	69.9071
 1.8120	69.8883
 1.8110	69.9133
 1.8100	69.9248
 1.8090	69.9680
 1.8080	70.0260
 1.8070	69.9882
 1.8060	69.9897
 1.8050	70.0194
 1.8040	70.0166
 1.8030	70.0121
 1.8020	70.0146
 1.8010	70.0915
 1.8000	70.1253
 1.7990	70.0629
 1.7980	70.0783
 1.7970	70.0404
 1.7960	70.0068
 1.7950	70.0477
 1.7940	70.0491
 1.7930	70.0374
 1.7920	70.0620
 1.7910	70.0665
 1.7900	70.0541
 1.7890	70.0450
 1.7880	70.0021
 1.7870	70.0346
 1.7860	70.0090
 1.7850	69.9813
 1.7840	69.9880
 1.7830	69.9426
 1.7820	69.9083
 1.7810	69.8996
 1.7800	69.9385
 1.7790	69.9062
 1.7780	69.9227
 1.7770	69.9825
 1.7760	69.9311
 1.7750	69.9175
 1.7740	69.8911
 1.7730	69.8934
 1.7720	69.9315
 1.7710	69.9173
 1.7700	69.9118
 1.7690	69.9814
 1.7680	69.9227
 1.7670	69.8887
 1.7660	69.9366
 1.7650	69.9514
 1.7640	69.9149
 1.7630	69.9160
 1.7620	69.9140
 1.7610	69.9338
 1.7600	69.9292
 1.7590	69.9144
 1.7580	69.9566
 1.7570	70.0237
 1.7560	69.9989
 1.7550	69.9937
 1.7540	70.0157
 1.7530	69.9979
 1.7520	69.9858
 1.7510	70.0221
 1.7500	70.1256
 1.7490	70.1031
 1.7480	70.0421
 1.7470	70.0574
 1.7460	70.0935
 1.7450	70.1210
 1.7440	70.1124
 1.7430	70.1776
 1.7420	70.1065
 1.7410	70.0788
 1.7400	70.0671
 1.7390	70.1088
 1.7380	70.1164
 1.7370	70.1492
 1.7360	70.1365
 1.7350	70.1726
 1.7340	70.1774
 1.7330	70.1563
 1.7320	70.1233
 1.7310	70.2307
 1.7300	70.1887
 1.7290	70.1812
 1.7280	70.2431
 1.7270	70.1825
 1.7260	70.1767
 1.7250	70.1405
 1.7240	70.1497
 1.7230	70.1788
 1.7220	70.2372
 1.7210	70.2094
 1.7200	70.1569
 1.7190	70.1950
 1.7180	70.1791
 1.7170	70.2342
 1.7160	70.2013
 1.7150	70.1884
 1.7140	70.1483
 1.7130	70.2331
 1.7120	70.1698
 1.7110	70.2071
 1.7100	70.1000
 1.7090	70.1307
 1.7080	70.0949
 1.7070	70.0947
 1.7060	70.1203
 1.7050	70.1911
 1.7040	70.1800
 1.7030	70.2203
 1.7020	70.1766
 1.7010	70.1742
 1.7000	70.1774
 1.6990	70.1892
 1.6980	70.1305
 1.6970	70.2139
 1.6960	70.2251
 1.6950	70.1573
 1.6940	70.1494
 1.6930	70.2195
 1.6920	70.2049
 1.6910	70.2162
 1.6900	70.1974
 1.6890	70.2068
 1.6880	70.1516
 1.6870	70.2085
 1.6860	70.2219
 1.6850	70.1748
 1.6840	70.1970
 1.6830	70.2470
 1.6820	70.1267
 1.6810	70.2353
 1.6800	70.1886
 1.6790	70.2450
 1.6780	70.1969
 1.6770	70.2166
 1.6760	70.1744
 1.6750	70.2039
 1.6740	70.1262
 1.6730	70.2266
 1.6720	70.2023
 1.6710	70.1928
 1.6700	70.2746
 1.6690	70.2511
 1.6680	70.1658
 1.6670	70.2454
 1.6660	70.1114
 1.6650	70.2499
 1.6640	70.1826
 1.6630	70.2800
 1.6620	70.2395
 1.6610	70.2501
 1.6600	70.1896
 1.6590	70.2251
 1.6580	70.1786
 1.6570	70.2485
 1.6560	70.2104
 1.6550	70.2285
 1.6540	70.1922
 1.6530	70.2659
 1.6520	70.0766
 1.6510	70.1919
 1.6500	70.1320
 1.6490	70.2754
 1.6480	70.2076
 1.6470	70.2480
 1.6460	70.2459
 1.6450	70.2550
 1.6440	70.2180
 1.6430	70.2216
 1.6420	70.2172
 1.6410	70.2256
 1.6400	70.2557
 1.6390	70.2545
 1.6380	70.1400
 1.6370	70.2201
 1.6360	70.2118
 1.6350	70.2464
 1.6340	70.2204
 1.6330	70.3224
 1.6320	70.1766
 1.6310	70.2344
 1.6300	70.2584
 1.6290	70.2556
 1.6280	70.2130
 1.6270	70.3453
 1.6260	70.2532
 1.6250	70.2501
 1.6240	70.2501
 1.6230	70.3001
 1.6220	70.2842
 1.6210	70.3116
 1.6200	70.3268
 1.6190	70.3109
 1.6180	70.2911
 1.6170	70.2880
 1.6160	70.1575
 1.6150	70.2755
 1.6140	70.1316
 1.6130	70.2579
 1.6120	70.3176
 1.6110	70.2757
 1.6100	70.2764
 1.6090	70.3303
 1.6080	70.2586
 1.6070	70.3078
 1.6060	70.3288
 1.6050	70.3520
 1.6040	70.3039
 1.6030	70.2763
 1.6020	70.2525
 1.6010	70.3288
 1.6000	70.2578
 1.5990	70.3094
 1.5980	70.2574
 1.5970	70.2336
 1.5960	70.2246
 1.5950	70.2844
 1.5940	70.2320
 1.5930	70.2726
 1.5920	70.2250
 1.5910	70.2067
 1.5900	70.1992
 1.5890	70.2565
 1.5880	70.2243
 1.5870	70.2035
 1.5860	70.2339
 1.5850	70.2306
 1.5840	70.1902
 1.5830	70.2337
 1.5820	70.1634
 1.5810	70.1720
 1.5800	70.1465
 1.5790	70.1135
 1.5780	70.1628
 1.5770	70.2419
 1.5760	70.1498
 1.5750	70.2141
 1.5740	70.2215
 1.5730	70.1783
 1.5720	70.0286
 1.5710	70.1657
 1.5700	70.1577
 1.5690	70.1397
 1.5680	70.0188
 1.5670	70.0751
 1.5660	70.0569
 1.5650	70.1202
 1.5640	70.1039
 1.5630	70.1367
 1.5620	70.1030
 1.5610	70.0436
 1.5600	70.0474
 1.5590	70.0665
 1.5580	70.0231
 1.5570	69.9802
 1.5560	70.0214
 1.5550	70.0495
 1.5540	70.0486
 1.5530	70.0457
 1.5520	69.9909
 1.5510	69.9946
 1.5500	70.0151
 1.5490	70.0453
 1.5480	69.9638
 1.5470	69.9626
 1.5460	69.9921
 1.5450	69.9428
 1.5440	69.9603
 1.5430	69.9953
 1.5420	69.9799
 1.5410	69.9667
 1.5400	69.9023
 1.5390	69.8678
 1.5380	69.9183
 1.5370	69.9533
 1.5360	69.8742
 1.5350	69.9061
 1.5340	69.9471
 1.5330	69.8963
 1.5320	69.8110
 1.5310	69.8653
 1.5300	69.8295
 1.5290	69.7832
 1.5280	69.8043
 1.5270	69.8268
 1.5260	69.8542
 1.5250	69.8246
 1.5240	69.7361
 1.5230	69.7398
 1.5220	69.7286
 1.5210	69.7180
 1.5200	69.6881
 1.5190	69.7049
 1.5180	69.7110
 1.5170	69.6662
 1.5160	69.6986
 1.5150	69.6709
 1.5140	69.5967
 1.5130	69.6202
 1.5120	69.6024
 1.5110	69.5746
 1.5100	69.5565
 1.5090	69.5580
 1.5080	69.5694
 1.5070	69.5425
 1.5060	69.5112
 1.5050	69.4961
 1.5040	69.4930
 1.5030	69.4661
 1.5020	69.4675
 1.5010	69.5320
 1.5000	69.4986
 1.4990	69.4450
 1.4980	69.4625
 1.4970	69.4213
 1.4960	69.3534
 1.4950	69.3734
 1.4940	69.3883
 1.4930	69.3373
 1.4920	69.3381
 1.4910	69.3427
 1.4900	69.3049
 1.4890	69.2623
 1.4880	69.2731
 1.4870	69.3044
 1.4860	69.3057
 1.4850	69.2774
 1.4840	69.2304
 1.4830	69.1473
 1.4820	69.1883
 1.4810	69.1886
 1.4800	69.1791
 1.4790	69.1908
 1.4780	69.1305
 1.4770	69.0356
 1.4760	69.0584
 1.4750	69.0089
 1.4740	69.0292
 1.4730	69.0303
 1.4720	69.0235
 1.4710	69.0909
 1.4700	69.0539
 1.4690	68.9252
 1.4680	68.8967
 1.4670	68.9048
 1.4660	68.9250
 1.4650	68.8642
 1.4640	68.7935
 1.4630	68.7140
 1.4620	68.7073
 1.4610	68.6815
 1.4600	68.6711
 1.4590	68.5717
 1.4580	68.5219
 1.4570	68.5197
 1.4560	68.5407
 1.4550	68.4382
 1.4540	68.3804
 1.4530	68.2944
 1.4520	68.2392
 1.4510	68.1598
 1.4500	68.1369
 1.4490	68.0750
 1.4480	68.0573
 1.4470	67.9566
 1.4460	67.9606
 1.4450	67.8507
 1.4440	67.8090
 1.4430	67.6728
 1.4420	67.5759
 1.4410	67.4458
 1.4400	67.3051
 1.4390	67.1079
 1.4380	66.9953
 1.4370	66.7284
 1.4360	66.3871
 1.4350	66.0395
 1.4340	65.6819
 1.4330	65.1289
 1.4320	64.5955
 1.4310	63.9992
 1.4300	63.2935
 1.4290	62.4648
 1.4280	61.4917
 1.4270	60.5102
 1.4260	59.4675
 1.4250	58.2378
 1.4240	57.0128
 1.4230	55.6801
 1.4220	54.2431
 1.4210	52.7170
 1.4200	51.1067
 1.4190	49.3348
 1.4180	47.7093
 1.4170	46.2102
 1.4160	44.8479
 1.4150	43.5640
 1.4140	42.7663
 1.4130	42.0864
 1.4120	42.1130
 1.4110	42.1919
 1.4100	42.4738
 1.4090	42.8332
 1.4080	43.4262
 1.4070	43.8396
 1.4060	44.3419
 1.4050	44.7454
 1.4040	45.4100
 1.4030	45.9738
 1.4020	46.8088
 1.4010	47.8220
 1.4000	48.9665
 1.3990	50.2503
 1.3980	51.7678
 1.3970	53.3559
 1.3960	55.3355
 1.3950	57.0544
 1.3940	58.7881
 1.3930	60.2784
 1.3920	61.6227
 1.3910	62.7456
 1.3900	63.6858
 1.3890	64.1596
 1.3880	64.7077
 1.3870	65.1311
 1.3860	65.3806
 1.3850	65.4759
 1.3840	65.6783
 1.3830	65.8139
 1.3820	65.8191
 1.3810	65.8815
 1.3800	66.0280
 1.3790	66.0358
 1.3780	66.0761
 1.3770	66.2170
 1.3760	66.2586
 1.3750	66.2674
 1.3740	66.3228
 1.3730	66.3228
 1.3720	66.4103
 1.3710	66.3283
 1.3700	66.3545
 1.3690	66.4384
 1.3680	66.6220
 1.3670	66.5037
