Name: Magnesiochromite MgCr_2O_4
Type: Mineral
Class: Oxide
Subclass: None
Particle Size: Fine
Sample No.: O-8A
Owner: JPL
Wavelength Range: VSWIR
Origin: Canada, Quebec, Coleraine Township.
Collection Date: N/A
Description: Particle size was 0-45um.Collected by:  Ward's Original ASTER Spectral Library name was jpl.perkin.mineral.oxide.none.fine.o08a.spectrum.txt
Measurement: Hemispherical reflectance
First Column: X
Second Column: Y
X Units: Wavelength (micrometers)
Y Units:Reflectance (percent)
First X Value:  2.5000
Last X Value:  0.4000
Number of X Values: 2101
Additional Information: mineral.oxide.none.fine.vswir.o-8a.jpl.perkin.ancillary.txt

 2.5000	 4.9231
 2.4990	 5.1927
 2.4980	 5.0384
 2.4970	 5.3546
 2.4960	 4.6268
 2.4950	 5.3971
 2.4940	 4.8489
 2.4930	 5.2902
 2.4920	 5.0197
 2.4910	 5.0469
 2.4900	 4.8966
 2.4890	 5.2578
 2.4880	 5.0698
 2.4870	 5.0854
 2.4860	 5.0225
 2.4850	 5.1677
 2.4840	 5.0187
 2.4830	 5.1626
 2.4820	 5.1023
 2.4810	 5.0120
 2.4800	 5.0090
 2.4790	 5.1430
 2.4780	 4.9365
 2.4770	 5.1821
 2.4760	 4.8856
 2.4750	 5.2380
 2.4740	 4.8577
 2.4730	 5.1645
 2.4720	 4.9251
 2.4710	 5.1034
 2.4700	 4.8722
 2.4690	 5.1316
 2.4680	 4.8506
 2.4670	 5.0956
 2.4660	 4.8546
 2.4650	 5.0495
 2.4640	 4.9702
 2.4630	 4.9793
 2.4620	 4.8896
 2.4610	 4.9573
 2.4600	 4.8775
 2.4590	 5.0509
 2.4580	 4.8795
 2.4570	 5.0202
 2.4560	 5.0159
 2.4550	 4.9759
 2.4540	 4.8917
 2.4530	 5.0507
 2.4520	 4.9502
 2.4510	 5.0034
 2.4500	 4.9241
 2.4490	 5.0353
 2.4480	 4.9000
 2.4470	 5.0201
 2.4460	 4.9555
 2.4450	 5.0449
 2.4440	 4.7870
 2.4430	 5.0285
 2.4420	 4.8620
 2.4410	 5.0179
 2.4400	 4.9189
 2.4390	 4.9985
 2.4380	 4.9363
 2.4370	 4.9499
 2.4360	 4.8413
 2.4350	 5.0063
 2.4340	 4.8235
 2.4330	 4.8574
 2.4320	 4.9271
 2.4310	 4.9955
 2.4300	 4.8715
 2.4290	 4.8868
 2.4280	 4.8267
 2.4270	 4.8712
 2.4260	 4.8584
 2.4250	 4.9626
 2.4240	 4.8309
 2.4230	 4.8745
 2.4220	 4.8022
 2.4210	 4.9138
 2.4200	 4.8264
 2.4190	 4.8260
 2.4180	 4.8023
 2.4170	 4.9013
 2.4160	 4.8812
 2.4150	 4.9156
 2.4140	 4.7724
 2.4130	 4.8705
 2.4120	 4.8066
 2.4110	 4.8697
 2.4100	 4.7562
 2.4090	 4.8358
 2.4080	 4.8092
 2.4070	 4.9048
 2.4060	 4.8692
 2.4050	 4.8617
 2.4040	 4.8574
 2.4030	 4.9100
 2.4020	 4.8088
 2.4010	 4.8242
 2.4000	 4.8094
 2.3990	 4.8347
 2.3980	 4.7937
 2.3970	 4.7773
 2.3960	 4.7043
 2.3950	 4.8188
 2.3940	 4.7869
 2.3930	 4.7996
 2.3920	 4.7458
 2.3910	 4.8039
 2.3900	 4.7852
 2.3890	 4.8033
 2.3880	 4.8107
 2.3870	 4.8676
 2.3860	 4.8189
 2.3850	 4.8403
 2.3840	 4.7654
 2.3830	 4.7932
 2.3820	 4.7764
 2.3810	 4.8314
 2.3800	 4.7810
 2.3790	 4.7771
 2.3780	 4.7207
 2.3770	 4.7729
 2.3760	 4.8104
 2.3750	 4.8090
 2.3740	 4.7870
 2.3730	 4.8395
 2.3720	 4.7627
 2.3710	 4.7675
 2.3700	 4.7947
 2.3690	 4.8182
 2.3680	 4.7413
 2.3670	 4.7292
 2.3660	 4.7093
 2.3650	 4.7305
 2.3640	 4.7530
 2.3630	 4.8029
 2.3620	 4.7494
 2.3610	 4.6659
 2.3600	 4.7681
 2.3590	 4.7935
 2.3580	 4.6987
 2.3570	 4.7255
 2.3560	 4.7153
 2.3550	 4.7521
 2.3540	 4.7365
 2.3530	 4.6825
 2.3520	 4.7111
 2.3510	 4.7027
 2.3500	 4.6457
 2.3490	 4.6307
 2.3480	 4.6677
 2.3470	 4.6544
 2.3460	 4.6476
 2.3450	 4.6439
 2.3440	 4.7176
 2.3430	 4.7154
 2.3420	 4.6606
 2.3410	 4.6156
 2.3400	 4.6606
 2.3390	 4.6570
 2.3380	 4.6763
 2.3370	 4.6806
 2.3360	 4.6468
 2.3350	 4.6292
 2.3340	 4.6822
 2.3330	 4.6951
 2.3320	 4.6509
 2.3310	 4.5700
 2.3300	 4.6414
 2.3290	 4.6386
 2.3280	 4.6448
 2.3270	 4.6614
 2.3260	 4.6408
 2.3250	 4.6362
 2.3240	 4.6496
 2.3230	 4.6420
 2.3220	 4.6270
 2.3210	 4.5922
 2.3200	 4.6545
 2.3190	 4.6276
 2.3180	 4.6630
 2.3170	 4.6373
 2.3160	 4.6311
 2.3150	 4.5848
 2.3140	 4.6341
 2.3130	 4.5673
 2.3120	 4.5886
 2.3110	 4.6259
 2.3100	 4.6935
 2.3090	 4.6131
 2.3080	 4.6065
 2.3070	 4.5854
 2.3060	 4.6179
 2.3050	 4.5916
 2.3040	 4.6292
 2.3030	 4.5938
 2.3020	 4.5995
 2.3010	 4.5703
 2.3000	 4.6069
 2.2990	 4.5569
 2.2980	 4.6254
 2.2970	 4.5576
 2.2960	 4.6199
 2.2950	 4.5862
 2.2940	 4.5743
 2.2930	 4.5266
 2.2920	 4.6095
 2.2910	 4.5977
 2.2900	 4.6633
 2.2890	 4.5695
 2.2880	 4.5732
 2.2870	 4.5366
 2.2860	 4.6056
 2.2850	 4.5494
 2.2840	 4.5857
 2.2830	 4.5535
 2.2820	 4.6185
 2.2810	 4.5703
 2.2800	 4.6253
 2.2790	 4.4970
 2.2780	 4.6405
 2.2770	 4.5942
 2.2760	 4.6020
 2.2750	 4.5694
 2.2740	 4.6189
 2.2730	 4.5309
 2.2720	 4.6203
 2.2710	 4.5404
 2.2700	 4.5798
 2.2690	 4.6026
 2.2680	 4.6239
 2.2670	 4.5239
 2.2660	 4.5837
 2.2650	 4.5064
 2.2640	 4.5865
 2.2630	 4.5356
 2.2620	 4.6148
 2.2610	 4.4475
 2.2600	 4.5493
 2.2590	 4.5575
 2.2580	 4.6060
 2.2570	 4.5619
 2.2560	 4.5708
 2.2550	 4.5027
 2.2540	 4.6077
 2.2530	 4.5179
 2.2520	 4.5974
 2.2510	 4.5435
 2.2500	 4.5258
 2.2490	 4.5568
 2.2480	 4.6016
 2.2470	 4.5097
 2.2460	 4.6007
 2.2450	 4.5375
 2.2440	 4.5363
 2.2430	 4.4743
 2.2420	 4.6693
 2.2410	 4.5226
 2.2400	 4.5755
 2.2390	 4.4932
 2.2380	 4.6094
 2.2370	 4.4767
 2.2360	 4.6422
 2.2350	 4.5465
 2.2340	 4.5646
 2.2330	 4.5491
 2.2320	 4.5367
 2.2310	 4.4978
 2.2300	 4.6556
 2.2290	 4.5153
 2.2280	 4.6582
 2.2270	 4.4799
 2.2260	 4.6787
 2.2250	 4.5431
 2.2240	 4.5829
 2.2230	 4.5233
 2.2220	 4.6190
 2.2210	 4.5789
 2.2200	 4.6385
 2.2190	 4.5196
 2.2180	 4.6358
 2.2170	 4.4671
 2.2160	 4.5989
 2.2150	 4.5730
 2.2140	 4.5176
 2.2130	 4.5376
 2.2120	 4.7126
 2.2110	 4.3818
 2.2100	 4.7153
 2.2090	 4.6207
 2.2080	 4.5615
 2.2070	 4.5176
 2.2060	 4.6726
 2.2050	 4.5797
 2.2040	 4.6632
 2.2030	 4.5363
 2.2020	 4.6485
 2.2010	 4.5664
 2.2000	 4.6035
 2.1990	 4.5317
 2.1980	 4.6338
 2.1970	 4.5508
 2.1960	 4.7024
 2.1950	 4.4892
 2.1940	 4.6451
 2.1930	 4.6466
 2.1920	 4.6060
 2.1910	 4.4702
 2.1900	 4.6526
 2.1890	 4.5463
 2.1880	 4.6218
 2.1870	 4.4692
 2.1860	 4.6716
 2.1850	 4.5611
 2.1840	 4.6909
 2.1830	 4.6383
 2.1820	 4.5909
 2.1810	 4.6267
 2.1800	 4.7000
 2.1790	 4.6224
 2.1780	 4.6855
 2.1770	 4.6126
 2.1760	 4.6337
 2.1750	 4.6163
 2.1740	 4.6297
 2.1730	 4.5982
 2.1720	 4.6641
 2.1710	 4.5634
 2.1700	 4.6450
 2.1690	 4.5978
 2.1680	 4.6967
 2.1670	 4.5809
 2.1660	 4.6925
 2.1650	 4.6056
 2.1640	 4.6926
 2.1630	 4.6266
 2.1620	 4.6621
 2.1610	 4.6398
 2.1600	 4.7352
 2.1590	 4.6413
 2.1580	 4.7152
 2.1570	 4.6703
 2.1560	 4.6895
 2.1550	 4.6693
 2.1540	 4.7264
 2.1530	 4.6173
 2.1520	 4.6713
 2.1510	 4.6487
 2.1500	 4.7225
 2.1490	 4.6555
 2.1480	 4.7602
 2.1470	 4.6924
 2.1460	 4.6836
 2.1450	 4.7163
 2.1440	 4.7291
 2.1430	 4.6757
 2.1420	 4.7204
 2.1410	 4.6464
 2.1400	 4.6885
 2.1390	 4.7042
 2.1380	 4.7197
 2.1370	 4.6681
 2.1360	 4.6785
 2.1350	 4.6644
 2.1340	 4.7134
 2.1330	 4.6583
 2.1320	 4.7364
 2.1310	 4.6922
 2.1300	 4.7013
 2.1290	 4.7244
 2.1280	 4.6610
 2.1270	 4.6253
 2.1260	 4.6614
 2.1250	 4.6211
 2.1240	 4.6309
 2.1230	 4.6893
 2.1220	 4.7383
 2.1210	 4.6927
 2.1200	 4.6763
 2.1190	 4.5966
 2.1180	 4.6952
 2.1170	 4.7393
 2.1160	 4.7015
 2.1150	 4.6464
 2.1140	 4.6667
 2.1130	 4.6334
 2.1120	 4.6583
 2.1110	 4.6162
 2.1100	 4.6676
 2.1090	 4.6868
 2.1080	 4.7227
 2.1070	 4.6455
 2.1060	 4.6327
 2.1050	 4.6921
 2.1040	 4.6869
 2.1030	 4.6275
 2.1020	 4.6999
 2.1010	 4.6560
 2.1000	 4.6544
 2.0990	 4.6246
 2.0980	 4.6688
 2.0970	 4.6915
 2.0960	 4.7123
 2.0950	 4.6593
 2.0940	 4.6731
 2.0930	 4.6474
 2.0920	 4.6657
 2.0910	 4.6652
 2.0900	 4.7426
 2.0890	 4.6697
 2.0880	 4.6800
 2.0870	 4.7439
 2.0860	 4.7006
 2.0850	 4.6740
 2.0840	 4.7090
 2.0830	 4.7180
 2.0820	 4.7377
 2.0810	 4.7095
 2.0800	 4.7206
 2.0790	 4.6934
 2.0780	 4.6819
 2.0770	 4.7374
 2.0760	 4.7671
 2.0750	 4.7611
 2.0740	 4.7420
 2.0730	 4.6932
 2.0720	 4.7098
 2.0710	 4.7456
 2.0700	 4.7413
 2.0690	 4.7747
 2.0680	 4.7796
 2.0670	 4.7326
 2.0660	 4.7236
 2.0650	 4.7727
 2.0640	 4.7620
 2.0630	 4.7425
 2.0620	 4.7420
 2.0610	 4.7797
 2.0600	 4.8145
 2.0590	 4.7966
 2.0580	 4.7592
 2.0570	 4.8082
 2.0560	 4.8000
 2.0550	 4.8434
 2.0540	 4.8354
 2.0530	 4.8131
 2.0520	 4.8354
 2.0510	 4.8372
 2.0500	 4.8326
 2.0490	 4.8561
 2.0480	 4.7967
 2.0470	 4.7936
 2.0460	 4.8027
 2.0450	 4.8523
 2.0440	 4.8588
 2.0430	 4.8525
 2.0420	 4.8408
 2.0410	 4.8711
 2.0400	 4.8235
 2.0390	 4.8326
 2.0380	 4.8844
 2.0370	 4.9300
 2.0360	 4.8469
 2.0350	 4.8893
 2.0340	 4.8673
 2.0330	 4.8874
 2.0320	 4.8822
 2.0310	 4.9359
 2.0300	 4.9155
 2.0290	 4.9345
 2.0280	 4.8851
 2.0270	 4.9325
 2.0260	 4.8676
 2.0250	 4.9070
 2.0240	 4.8434
 2.0230	 4.9051
 2.0220	 4.9379
 2.0210	 4.9711
 2.0200	 4.8955
 2.0190	 4.9121
 2.0180	 4.9260
 2.0170	 4.9270
 2.0160	 4.9009
 2.0150	 4.9390
 2.0140	 4.9398
 2.0130	 5.0387
 2.0120	 5.0003
 2.0110	 4.9992
 2.0100	 4.9598
 2.0090	 4.9953
 2.0080	 4.9757
 2.0070	 5.0111
 2.0060	 5.0043
 2.0050	 5.0408
 2.0040	 4.9695
 2.0030	 5.0100
 2.0020	 5.0025
 2.0010	 5.0512
 2.0000	 5.0407
 1.9990	 5.1025
 1.9980	 4.9800
 1.9970	 5.0866
 1.9960	 4.9445
 1.9950	 5.1291
 1.9940	 4.9740
 1.9930	 5.0684
 1.9920	 5.0601
 1.9910	 5.0776
 1.9900	 4.9674
 1.9890	 5.0896
 1.9880	 5.0961
 1.9870	 5.1235
 1.9860	 5.0608
 1.9850	 5.1208
 1.9840	 5.0338
 1.9830	 5.1029
 1.9820	 5.0916
 1.9810	 5.1577
 1.9800	 5.1038
 1.9790	 5.1978
 1.9780	 5.1052
 1.9770	 5.1618
 1.9760	 5.0845
 1.9750	 5.2013
 1.9740	 5.1563
 1.9730	 5.1688
 1.9720	 5.1630
 1.9710	 5.2372
 1.9700	 5.2080
 1.9690	 5.1885
 1.9680	 5.1164
 1.9670	 5.2313
 1.9660	 5.1720
 1.9650	 5.2638
 1.9640	 5.1052
 1.9630	 5.2505
 1.9620	 5.1367
 1.9610	 5.3027
 1.9600	 5.2478
 1.9590	 5.2369
 1.9580	 5.1778
 1.9570	 5.3126
 1.9560	 5.1722
 1.9550	 5.3116
 1.9540	 5.3002
 1.9530	 5.3318
 1.9520	 5.2729
 1.9510	 5.2867
 1.9500	 5.2885
 1.9490	 5.3890
 1.9480	 5.2976
 1.9470	 5.3884
 1.9460	 5.3267
 1.9450	 5.4223
 1.9440	 5.3281
 1.9430	 5.5036
 1.9420	 5.3100
 1.9410	 5.4633
 1.9400	 5.4335
 1.9390	 5.5192
 1.9380	 5.3919
 1.9370	 5.4940
 1.9360	 5.3719
 1.9350	 5.4696
 1.9340	 5.4419
 1.9330	 5.4851
 1.9320	 5.4977
 1.9310	 5.5800
 1.9300	 5.5376
 1.9290	 5.5377
 1.9280	 5.5073
 1.9270	 5.6981
 1.9260	 5.3873
 1.9250	 5.7228
 1.9240	 5.5257
 1.9230	 5.7125
 1.9220	 5.5612
 1.9210	 5.6914
 1.9200	 5.5196
 1.9190	 5.7445
 1.9180	 5.6318
 1.9170	 5.7295
 1.9160	 5.6707
 1.9150	 5.7371
 1.9140	 5.6881
 1.9130	 5.7649
 1.9120	 5.7195
 1.9110	 5.7918
 1.9100	 5.7268
 1.9090	 5.7894
 1.9080	 5.8280
 1.9070	 5.7992
 1.9060	 5.7744
 1.9050	 5.9232
 1.9040	 5.8034
 1.9030	 5.8449
 1.9020	 5.8906
 1.9010	 5.9166
 1.9000	 5.8998
 1.8990	 5.9773
 1.8980	 5.9141
 1.8970	 5.9648
 1.8960	 5.9082
 1.8950	 6.1762
 1.8940	 5.9583
 1.8930	 6.1418
 1.8920	 5.9945
 1.8910	 6.1701
 1.8900	 6.0340
 1.8890	 6.0898
 1.8880	 6.0581
 1.8870	 6.1853
 1.8860	 6.1300
 1.8850	 6.2003
 1.8840	 6.1538
 1.8830	 6.2302
 1.8820	 6.1662
 1.8810	 6.2617
 1.8800	 6.2411
 1.8790	 6.3421
 1.8780	 6.2696
 1.8770	 6.3631
 1.8760	 6.2436
 1.8750	 6.3608
 1.8740	 6.2790
 1.8730	 6.3986
 1.8720	 6.3056
 1.8710	 6.3916
 1.8700	 6.3579
 1.8690	 6.3851
 1.8680	 6.4143
 1.8670	 6.5365
 1.8660	 6.4922
 1.8650	 6.5959
 1.8640	 6.5186
 1.8630	 6.6164
 1.8620	 6.5488
 1.8610	 6.6794
 1.8600	 6.5649
 1.8590	 6.6413
 1.8580	 6.6047
 1.8570	 6.6937
 1.8560	 6.6145
 1.8550	 6.7025
 1.8540	 6.7221
 1.8530	 6.7818
 1.8520	 6.7780
 1.8510	 6.8248
 1.8500	 6.7996
 1.8490	 6.8858
 1.8480	 6.8869
 1.8470	 6.9041
 1.8460	 6.8348
 1.8450	 6.8928
 1.8440	 6.8713
 1.8430	 6.9311
 1.8420	 6.9089
 1.8410	 7.0548
 1.8400	 6.9920
 1.8390	 7.0574
 1.8380	 7.0280
 1.8370	 7.0824
 1.8360	 7.0440
 1.8350	 7.1369
 1.8340	 7.1141
 1.8330	 7.2110
 1.8320	 7.2012
 1.8310	 7.2294
 1.8300	 7.2136
 1.8290	 7.2525
 1.8280	 7.2510
 1.8270	 7.3137
 1.8260	 7.2850
 1.8250	 7.3604
 1.8240	 7.4036
 1.8230	 7.4858
 1.8220	 7.4669
 1.8210	 7.4940
 1.8200	 7.4374
 1.8190	 7.5079
 1.8180	 7.5489
 1.8170	 7.5611
 1.8160	 7.5206
 1.8150	 7.5823
 1.8140	 7.6095
 1.8130	 7.6962
 1.8120	 7.6780
 1.8110	 7.7157
 1.8100	 7.7747
 1.8090	 7.8091
 1.8080	 7.7874
 1.8070	 7.7841
 1.8060	 7.7980
 1.8050	 7.8702
 1.8040	 7.9098
 1.8030	 7.9493
 1.8020	 7.9300
 1.8010	 7.9524
 1.8000	 7.9972
 1.7990	 8.0784
 1.7980	 8.0796
 1.7970	 8.0858
 1.7960	 8.1062
 1.7950	 8.1357
 1.7940	 8.1839
 1.7930	 8.2420
 1.7920	 8.2598
 1.7910	 8.2744
 1.7900	 8.2934
 1.7890	 8.3310
 1.7880	 8.3125
 1.7870	 8.3680
 1.7860	 8.4484
 1.7850	 8.4462
 1.7840	 8.4846
 1.7830	 8.5288
 1.7820	 8.5373
 1.7810	 8.5404
 1.7800	 8.6249
 1.7790	 8.6962
 1.7780	 8.7047
 1.7770	 8.6733
 1.7760	 8.7271
 1.7750	 8.7855
 1.7740	 8.7556
 1.7730	 8.7764
 1.7720	 8.8159
 1.7710	 8.8690
 1.7700	 8.9658
 1.7690	 8.9512
 1.7680	 8.9945
 1.7670	 9.0171
 1.7660	 9.0706
 1.7650	 9.0895
 1.7640	 9.1321
 1.7630	 9.1845
 1.7620	 9.2235
 1.7610	 9.1817
 1.7600	 9.2589
 1.7590	 9.2994
 1.7580	 9.3420
 1.7570	 9.3734
 1.7560	 9.4058
 1.7550	 9.3959
 1.7540	 9.4735
 1.7530	 9.4934
 1.7520	 9.5500
 1.7510	 9.6142
 1.7500	 9.6893
 1.7490	 9.6642
 1.7480	 9.7329
 1.7470	 9.7050
 1.7460	 9.7855
 1.7450	 9.8181
 1.7440	 9.9002
 1.7430	 9.8878
 1.7420	 9.9912
 1.7410	10.0042
 1.7400	10.0532
 1.7390	10.0433
 1.7380	10.1519
 1.7370	10.1308
 1.7360	10.2008
 1.7350	10.2011
 1.7340	10.2867
 1.7330	10.2685
 1.7320	10.4003
 1.7310	10.3958
 1.7300	10.4702
 1.7290	10.4503
 1.7280	10.5604
 1.7270	10.5718
 1.7260	10.6566
 1.7250	10.6465
 1.7240	10.7373
 1.7230	10.6813
 1.7220	10.8188
 1.7210	10.8067
 1.7200	10.8960
 1.7190	10.9321
 1.7180	11.0168
 1.7170	11.0019
 1.7160	11.1335
 1.7150	11.0546
 1.7140	11.1763
 1.7130	11.1523
 1.7120	11.2494
 1.7110	11.2112
 1.7100	11.3650
 1.7090	11.3099
 1.7080	11.5019
 1.7070	11.4509
 1.7060	11.5565
 1.7050	11.5745
 1.7040	11.6811
 1.7030	11.6550
 1.7020	11.7831
 1.7010	11.7935
 1.7000	11.8943
 1.6990	11.8126
 1.6980	11.9542
 1.6970	11.9476
 1.6960	12.0806
 1.6950	12.0102
 1.6940	12.1243
 1.6930	12.2142
 1.6920	12.2629
 1.6910	12.2470
 1.6900	12.3540
 1.6890	12.4936
 1.6880	12.5255
 1.6870	12.4256
 1.6860	12.6516
 1.6850	12.5618
 1.6840	12.6892
 1.6830	12.8053
 1.6820	12.8901
 1.6810	12.7908
 1.6800	12.8707
 1.6790	12.9180
 1.6780	13.0818
 1.6770	13.0278
 1.6760	13.1637
 1.6750	13.1015
 1.6740	13.2835
 1.6730	13.2801
 1.6720	13.3772
 1.6710	13.3410
 1.6700	13.5347
 1.6690	13.6754
 1.6680	13.4874
 1.6670	13.6340
 1.6660	13.7157
 1.6650	13.7280
 1.6640	13.8870
 1.6630	13.8855
 1.6620	14.0349
 1.6610	13.9648
 1.6600	14.1342
 1.6590	14.0825
 1.6580	14.2591
 1.6570	14.2755
 1.6560	14.3837
 1.6550	14.3422
 1.6540	14.4763
 1.6530	14.4435
 1.6520	14.6465
 1.6510	14.5793
 1.6500	14.7484
 1.6490	14.6774
 1.6480	14.9260
 1.6470	14.9020
 1.6460	15.0236
 1.6450	14.9316
 1.6440	15.1330
 1.6430	15.1347
 1.6420	15.3059
 1.6410	15.0607
 1.6400	15.5154
 1.6390	15.4350
 1.6380	15.6304
 1.6370	15.5353
 1.6360	15.6419
 1.6350	15.6280
 1.6340	15.7969
 1.6330	15.7805
 1.6320	15.9677
 1.6310	16.0381
 1.6300	16.1738
 1.6290	16.1205
 1.6280	16.1111
 1.6270	16.2310
 1.6260	16.4097
 1.6250	16.3217
 1.6240	16.5372
 1.6230	16.4590
 1.6220	16.6797
 1.6210	16.6744
 1.6200	16.7340
 1.6190	16.8052
 1.6180	16.9243
 1.6170	16.9640
 1.6160	17.1512
 1.6150	17.1128
 1.6140	17.1966
 1.6130	17.2251
 1.6120	17.4001
 1.6110	17.3567
 1.6100	17.5602
 1.6090	17.5304
 1.6080	17.6440
 1.6070	17.7317
 1.6060	17.8070
 1.6050	17.8785
 1.6040	17.9534
 1.6030	17.9014
 1.6020	18.1612
 1.6010	18.1160
 1.6000	18.3199
 1.5990	18.3055
 1.5980	18.4289
 1.5970	18.4543
 1.5960	18.5514
 1.5950	18.5457
 1.5940	18.6957
 1.5930	18.7597
 1.5920	18.8968
 1.5910	18.9436
 1.5900	19.0554
 1.5890	19.0319
 1.5880	19.1626
 1.5870	19.1125
 1.5860	19.3035
 1.5850	19.3542
 1.5840	19.5478
 1.5830	19.5642
 1.5820	19.6445
 1.5810	19.6729
 1.5800	19.8080
 1.5790	19.8144
 1.5780	19.9834
 1.5770	19.9770
 1.5760	20.0707
 1.5750	20.1375
 1.5740	20.2322
 1.5730	20.2248
 1.5720	20.3813
 1.5710	20.4501
 1.5700	20.5191
 1.5690	20.5829
 1.5680	20.6985
 1.5670	20.7106
 1.5660	20.8393
 1.5650	20.8711
 1.5640	20.9928
 1.5630	21.0412
 1.5620	21.1409
 1.5610	21.1107
 1.5600	21.3223
 1.5590	21.3359
 1.5580	21.4313
 1.5570	21.4409
 1.5560	21.5797
 1.5550	21.6114
 1.5540	21.7186
 1.5530	21.7999
 1.5520	21.8920
 1.5510	21.9227
 1.5500	22.0255
 1.5490	22.0561
 1.5480	22.1427
 1.5470	22.2056
 1.5460	22.2934
 1.5450	22.2426
 1.5440	22.3879
 1.5430	22.5030
 1.5420	22.6064
 1.5410	22.6022
 1.5400	22.7056
 1.5390	22.6959
 1.5380	22.8386
 1.5370	22.9053
 1.5360	22.9394
 1.5350	23.0272
 1.5340	23.0643
 1.5330	23.0991
 1.5320	23.1686
 1.5310	23.2468
 1.5300	23.3254
 1.5290	23.3622
 1.5280	23.4549
 1.5270	23.4770
 1.5260	23.5245
 1.5250	23.6173
 1.5240	23.6807
 1.5230	23.6969
 1.5220	23.7976
 1.5210	23.8241
 1.5200	23.9102
 1.5190	23.9930
 1.5180	24.0692
 1.5170	24.1133
 1.5160	24.1290
 1.5150	24.1449
 1.5140	24.2254
 1.5130	24.2705
 1.5120	24.3025
 1.5110	24.4104
 1.5100	24.4158
 1.5090	24.4268
 1.5080	24.5091
 1.5070	24.6101
 1.5060	24.6752
 1.5050	24.6684
 1.5040	24.7437
 1.5030	24.8108
 1.5020	24.8285
 1.5010	24.8666
 1.5000	24.9051
 1.4990	24.9322
 1.4980	24.9900
 1.4970	25.0291
 1.4960	25.0662
 1.4950	25.0890
 1.4940	25.1374
 1.4930	25.1827
 1.4920	25.1884
 1.4910	25.2688
 1.4900	25.3173
 1.4890	25.3256
 1.4880	25.3208
 1.4870	25.3556
 1.4860	25.3742
 1.4850	25.4297
 1.4840	25.4526
 1.4830	25.5158
 1.4820	25.5092
 1.4810	25.4916
 1.4800	25.5227
 1.4790	25.6344
 1.4780	25.6723
 1.4770	25.7120
 1.4760	25.6686
 1.4750	25.6550
 1.4740	25.6733
 1.4730	25.7298
 1.4720	25.7313
 1.4710	25.7328
 1.4700	25.7515
 1.4690	25.7684
 1.4680	25.7819
 1.4670	25.7756
 1.4660	25.7658
 1.4650	25.8666
 1.4640	25.8220
 1.4630	25.8883
 1.4620	25.8651
 1.4610	25.8703
 1.4600	25.8709
 1.4590	25.9433
 1.4580	25.9132
 1.4570	25.9053
 1.4560	25.8819
 1.4550	25.9339
 1.4540	25.9348
 1.4530	25.9568
 1.4520	25.9178
 1.4510	25.9391
 1.4500	25.8908
 1.4490	25.9453
 1.4480	25.8932
 1.4470	25.9461
 1.4460	25.9368
 1.4450	25.9482
 1.4440	25.9016
 1.4430	25.9263
 1.4420	25.8236
 1.4410	25.8790
 1.4400	25.8412
 1.4390	25.8197
 1.4380	25.8503
 1.4370	25.8704
 1.4360	25.7799
 1.4350	25.8367
 1.4340	25.7944
 1.4330	25.7969
 1.4320	25.7569
 1.4310	25.7559
 1.4300	25.6762
 1.4290	25.7234
 1.4280	25.7201
 1.4270	25.6858
 1.4260	25.6226
 1.4250	25.6323
 1.4240	25.5935
 1.4230	25.6355
 1.4220	25.5595
 1.4210	25.6177
 1.4200	25.5122
 1.4190	25.5865
 1.4180	25.4702
 1.4170	25.5102
 1.4160	25.4792
 1.4150	25.4432
 1.4140	25.3800
 1.4130	25.4452
 1.4120	25.3659
 1.4110	25.4264
 1.4100	25.2716
 1.4090	25.3098
 1.4080	25.2659
 1.4070	25.2677
 1.4060	25.1524
 1.4050	25.1693
 1.4040	25.1196
 1.4030	25.1547
 1.4020	25.0977
 1.4010	25.0687
 1.4000	25.0127
 1.3990	25.0377
 1.3980	24.9736
 1.3970	25.0127
 1.3960	24.9010
 1.3950	24.8881
 1.3940	24.7959
 1.3930	24.8021
 1.3920	24.7268
 1.3910	24.8340
 1.3900	24.7135
 1.3890	24.7557
 1.3880	24.5826
 1.3870	24.6603
 1.3860	24.5909
 1.3850	24.6538
 1.3840	24.5191
 1.3830	24.6001
 1.3820	24.4245
 1.3810	24.4675
 1.3800	24.3797
 1.3790	24.5265
 1.3780	24.3818
 1.3770	24.4510
 1.3760	24.3100
 1.3750	24.3723
 1.3740	24.2678
 1.3730	24.2866
 1.3720	24.1622
 1.3710	24.1647
 1.3700	24.1442
 1.3690	24.1466
 1.3680	24.0261
 1.3670	24.1551
 1.3660	23.9699
 1.3650	24.1110
