Name: Calcite CaCO_3
Type: Mineral
Class: Carbonate
Subclass: None
Particle Size: Coarse
Sample No.: C-3A
Owner: JPL
Wavelength Range: VSWIR
Origin: Italy.
Collection Date: N/A
Description: TravertineParticle size was 125-500um.Collected by:  Ward's Original ASTER Spectral Library name was jpl.perkin.mineral.carbonate.none.coarse.c03a.spectrum.txt
Measurement: Hemispherical reflectance
First Column: X
Second Column: Y
X Units: Wavelength (micrometers)
Y Units:Reflectance (percent)
First X Value:  2.5000
Last X Value:  0.4000
Number of X Values: 2101
Additional Information: mineral.carbonate.none.coarse.vswir.c-3a.jpl.perkin.ancillary.txt

 2.5000	38.3218
 2.4990	38.0037
 2.4980	38.4990
 2.4970	38.3881
 2.4960	38.6174
 2.4950	38.8645
 2.4940	38.9070
 2.4930	38.9131
 2.4920	39.2536
 2.4910	39.2113
 2.4900	39.6217
 2.4890	39.5820
 2.4880	39.9596
 2.4870	40.1944
 2.4860	40.3273
 2.4850	40.6783
 2.4840	41.0136
 2.4830	41.2349
 2.4820	41.6222
 2.4810	41.8154
 2.4800	42.3774
 2.4790	42.5160
 2.4780	43.0461
 2.4770	43.3486
 2.4760	43.7742
 2.4750	44.1485
 2.4740	44.7214
 2.4730	45.0866
 2.4720	45.6919
 2.4710	46.0391
 2.4700	46.6506
 2.4690	46.9281
 2.4680	47.5344
 2.4670	47.9703
 2.4660	48.5421
 2.4650	48.9226
 2.4640	49.4776
 2.4630	50.0905
 2.4620	50.5863
 2.4610	51.0895
 2.4600	51.5566
 2.4590	52.0016
 2.4580	52.6535
 2.4570	52.9715
 2.4560	53.4461
 2.4550	53.8282
 2.4540	54.3935
 2.4530	54.7425
 2.4520	55.1976
 2.4510	55.5765
 2.4500	55.9704
 2.4490	56.2584
 2.4480	56.7557
 2.4470	57.1449
 2.4460	57.5403
 2.4450	57.7290
 2.4440	58.1913
 2.4430	58.4165
 2.4420	58.7997
 2.4410	59.0867
 2.4400	59.5527
 2.4390	59.7915
 2.4380	60.0539
 2.4370	60.3263
 2.4360	60.6924
 2.4350	61.0285
 2.4340	61.3209
 2.4330	61.5593
 2.4320	61.8168
 2.4310	62.1167
 2.4300	62.4192
 2.4290	62.7199
 2.4280	63.0195
 2.4270	63.3742
 2.4260	63.6904
 2.4250	63.8925
 2.4240	64.1731
 2.4230	64.3099
 2.4220	64.5904
 2.4210	64.8827
 2.4200	65.1270
 2.4190	65.3689
 2.4180	65.5968
 2.4170	65.7622
 2.4160	65.9380
 2.4150	66.1567
 2.4140	66.3748
 2.4130	66.5168
 2.4120	66.6202
 2.4110	66.6590
 2.4100	66.8104
 2.4090	66.9147
 2.4080	67.0465
 2.4070	67.0496
 2.4060	67.2304
 2.4050	67.3479
 2.4040	67.4606
 2.4030	67.4210
 2.4020	67.5250
 2.4010	67.6156
 2.4000	67.7163
 2.3990	67.7697
 2.3980	67.8759
 2.3970	67.9295
 2.3960	68.0097
 2.3950	68.0212
 2.3940	68.0430
 2.3930	68.1120
 2.3920	68.2291
 2.3910	68.2916
 2.3900	68.2778
 2.3890	68.3284
 2.3880	68.3333
 2.3870	68.3528
 2.3860	68.2903
 2.3850	68.1996
 2.3840	68.1000
 2.3830	67.9908
 2.3820	67.9892
 2.3810	67.8200
 2.3800	67.6091
 2.3790	67.4324
 2.3780	67.2242
 2.3770	66.9910
 2.3760	66.6820
 2.3750	66.2845
 2.3740	65.8941
 2.3730	65.5079
 2.3720	65.1563
 2.3710	64.6902
 2.3700	64.1694
 2.3690	63.5935
 2.3680	62.9950
 2.3670	62.4313
 2.3660	61.8167
 2.3650	61.1725
 2.3640	60.4560
 2.3630	59.6535
 2.3620	58.8706
 2.3610	58.1062
 2.3600	57.3135
 2.3590	56.5014
 2.3580	55.6998
 2.3570	54.9165
 2.3560	54.0946
 2.3550	53.2404
 2.3540	52.4731
 2.3530	51.6805
 2.3520	50.9109
 2.3510	50.2001
 2.3500	49.4721
 2.3490	48.8112
 2.3480	48.1942
 2.3470	47.6352
 2.3460	47.0960
 2.3450	46.6364
 2.3440	46.2655
 2.3430	45.9328
 2.3420	45.5588
 2.3410	45.3343
 2.3400	45.1090
 2.3390	45.0076
 2.3380	45.0005
 2.3370	44.9275
 2.3360	44.9335
 2.3350	45.0163
 2.3340	45.1669
 2.3330	45.3683
 2.3320	45.5036
 2.3310	45.6948
 2.3300	45.9072
 2.3290	46.1932
 2.3280	46.4721
 2.3270	46.8277
 2.3260	47.1536
 2.3250	47.5063
 2.3240	47.8334
 2.3230	48.2168
 2.3220	48.5205
 2.3210	48.7901
 2.3200	49.1030
 2.3190	49.4467
 2.3180	49.7761
 2.3170	50.1205
 2.3160	50.3736
 2.3150	50.6443
 2.3140	50.8691
 2.3130	51.1446
 2.3120	51.3579
 2.3110	51.6352
 2.3100	51.7874
 2.3090	51.9827
 2.3080	52.2121
 2.3070	52.4532
 2.3060	52.6005
 2.3050	52.7704
 2.3040	52.9278
 2.3030	53.0829
 2.3020	53.2942
 2.3010	53.5054
 2.3000	53.6250
 2.2990	53.8324
 2.2980	54.0154
 2.2970	54.2214
 2.2960	54.3859
 2.2950	54.6546
 2.2940	54.8317
 2.2930	55.0747
 2.2920	55.3523
 2.2910	55.5991
 2.2900	55.9062
 2.2890	56.2284
 2.2880	56.4900
 2.2870	56.7895
 2.2860	57.0067
 2.2850	57.3656
 2.2840	57.7371
 2.2830	58.1218
 2.2820	58.4282
 2.2810	58.8262
 2.2800	59.2010
 2.2790	59.5948
 2.2780	59.9799
 2.2770	60.3460
 2.2760	60.7567
 2.2750	61.1674
 2.2740	61.5796
 2.2730	62.0020
 2.2720	62.3577
 2.2710	62.8076
 2.2700	63.1438
 2.2690	63.6027
 2.2680	63.8908
 2.2670	64.2629
 2.2660	64.6104
 2.2650	64.9082
 2.2640	65.2395
 2.2630	65.6313
 2.2620	65.8571
 2.2610	66.2527
 2.2600	66.5399
 2.2590	66.7968
 2.2580	67.1606
 2.2570	67.4480
 2.2560	67.7037
 2.2550	67.9951
 2.2540	68.2461
 2.2530	68.5641
 2.2520	68.7943
 2.2510	69.1259
 2.2500	69.3946
 2.2490	69.6450
 2.2480	69.8711
 2.2470	70.1729
 2.2460	70.4191
 2.2450	70.5794
 2.2440	70.8262
 2.2430	71.0608
 2.2420	71.3221
 2.2410	71.5382
 2.2400	71.7202
 2.2390	72.0511
 2.2380	72.1542
 2.2370	72.3818
 2.2360	72.6467
 2.2350	72.8738
 2.2340	72.9690
 2.2330	73.2513
 2.2320	73.4340
 2.2310	73.5744
 2.2300	73.7409
 2.2290	74.0168
 2.2280	74.1758
 2.2270	74.3593
 2.2260	74.5053
 2.2250	74.6637
 2.2240	74.7654
 2.2230	75.0044
 2.2220	75.1546
 2.2210	75.3636
 2.2200	75.4132
 2.2190	75.6633
 2.2180	75.7498
 2.2170	75.8509
 2.2160	76.0183
 2.2150	76.0676
 2.2140	76.2562
 2.2130	76.3501
 2.2120	76.5428
 2.2110	76.6361
 2.2100	76.7310
 2.2090	76.8405
 2.2080	76.8800
 2.2070	77.0526
 2.2060	77.0552
 2.2050	77.2505
 2.2040	77.3187
 2.2030	77.4791
 2.2020	77.4972
 2.2010	77.5580
 2.2000	77.6017
 2.1990	77.7215
 2.1980	77.6822
 2.1970	77.7930
 2.1960	77.8623
 2.1950	77.9343
 2.1940	77.8605
 2.1930	77.9912
 2.1920	77.9574
 2.1910	77.9958
 2.1900	77.9192
 2.1890	78.0054
 2.1880	77.9354
 2.1870	77.9110
 2.1860	77.9408
 2.1850	77.9647
 2.1840	77.9229
 2.1830	77.8988
 2.1820	77.8391
 2.1810	77.7866
 2.1800	77.7808
 2.1790	77.6570
 2.1780	77.5400
 2.1770	77.5539
 2.1760	77.4852
 2.1750	77.3781
 2.1740	77.3413
 2.1730	77.2346
 2.1720	77.0943
 2.1710	76.9536
 2.1700	76.8099
 2.1690	76.7863
 2.1680	76.7276
 2.1670	76.6481
 2.1660	76.5852
 2.1650	76.4520
 2.1640	76.3504
 2.1630	76.3207
 2.1620	76.2240
 2.1610	76.2394
 2.1600	76.1584
 2.1590	76.1850
 2.1580	76.1132
 2.1570	76.0782
 2.1560	76.0986
 2.1550	76.0893
 2.1540	76.1227
 2.1530	76.1746
 2.1520	76.2866
 2.1510	76.3246
 2.1500	76.3942
 2.1490	76.5108
 2.1480	76.6087
 2.1470	76.7724
 2.1460	76.9562
 2.1450	77.0914
 2.1440	77.2294
 2.1430	77.3920
 2.1420	77.5053
 2.1410	77.7425
 2.1400	77.8551
 2.1390	77.9981
 2.1380	78.1061
 2.1370	78.2510
 2.1360	78.3957
 2.1350	78.5091
 2.1340	78.5377
 2.1330	78.6002
 2.1320	78.6376
 2.1310	78.7174
 2.1300	78.7621
 2.1290	78.7187
 2.1280	78.7743
 2.1270	78.8136
 2.1260	78.8058
 2.1250	78.7938
 2.1240	78.8051
 2.1230	78.8030
 2.1220	78.7940
 2.1210	78.7902
 2.1200	78.7774
 2.1190	78.7733
 2.1180	78.7488
 2.1170	78.7796
 2.1160	78.7372
 2.1150	78.6916
 2.1140	78.6700
 2.1130	78.6967
 2.1120	78.7070
 2.1110	78.6340
 2.1100	78.6785
 2.1090	78.6924
 2.1080	78.6413
 2.1070	78.6358
 2.1060	78.6527
 2.1050	78.7011
 2.1040	78.6679
 2.1030	78.6639
 2.1020	78.6156
 2.1010	78.6016
 2.1000	78.6496
 2.0990	78.7158
 2.0980	78.7435
 2.0970	78.7809
 2.0960	78.8248
 2.0950	78.8275
 2.0940	78.8469
 2.0930	78.8523
 2.0920	78.8771
 2.0910	78.9155
 2.0900	78.9524
 2.0890	79.0015
 2.0880	78.9482
 2.0870	78.9454
 2.0860	78.9868
 2.0850	79.0276
 2.0840	78.9922
 2.0830	78.9871
 2.0820	79.0077
 2.0810	79.0564
 2.0800	79.0560
 2.0790	79.0613
 2.0780	79.0710
 2.0770	79.0770
 2.0760	79.0822
 2.0750	79.0744
 2.0740	79.0254
 2.0730	79.0473
 2.0720	79.0895
 2.0710	79.0433
 2.0700	79.0313
 2.0690	79.0332
 2.0680	79.0133
 2.0670	79.0214
 2.0660	79.0038
 2.0650	78.9801
 2.0640	78.9938
 2.0630	79.0081
 2.0620	78.9933
 2.0610	78.9912
 2.0600	78.9652
 2.0590	78.9759
 2.0580	78.9626
 2.0570	78.8827
 2.0560	78.9016
 2.0550	78.9232
 2.0540	78.9217
 2.0530	78.8693
 2.0520	78.8115
 2.0510	78.7960
 2.0500	78.7828
 2.0490	78.7695
 2.0480	78.7279
 2.0470	78.6888
 2.0460	78.6886
 2.0450	78.6328
 2.0440	78.6672
 2.0430	78.6283
 2.0420	78.5724
 2.0410	78.5122
 2.0400	78.4999
 2.0390	78.4360
 2.0380	78.4028
 2.0370	78.3299
 2.0360	78.3350
 2.0350	78.2860
 2.0340	78.2082
 2.0330	78.1219
 2.0320	78.0709
 2.0310	78.0107
 2.0300	77.9196
 2.0290	77.8530
 2.0280	77.7639
 2.0270	77.6469
 2.0260	77.5704
 2.0250	77.4510
 2.0240	77.3769
 2.0230	77.2821
 2.0220	77.1530
 2.0210	77.0799
 2.0200	77.0153
 2.0190	76.8906
 2.0180	76.7769
 2.0170	76.6357
 2.0160	76.5655
 2.0150	76.3797
 2.0140	76.2308
 2.0130	76.0267
 2.0120	75.9216
 2.0110	75.7328
 2.0100	75.4762
 2.0090	75.2856
 2.0080	75.0474
 2.0070	74.7868
 2.0060	74.6145
 2.0050	74.3011
 2.0040	74.0319
 2.0030	73.8033
 2.0020	73.5584
 2.0010	73.3576
 2.0000	73.1697
 1.9990	72.9424
 1.9980	72.8777
 1.9970	72.7812
 1.9960	72.7918
 1.9950	72.7241
 1.9940	72.7717
 1.9930	72.8234
 1.9920	72.9620
 1.9910	73.0708
 1.9900	73.1486
 1.9890	73.2235
 1.9880	73.3564
 1.9870	73.4645
 1.9860	73.5057
 1.9850	73.6351
 1.9840	73.7073
 1.9830	73.7292
 1.9820	73.7608
 1.9810	73.6901
 1.9800	73.8052
 1.9790	73.7471
 1.9780	73.7039
 1.9770	73.7158
 1.9760	73.6533
 1.9750	73.6631
 1.9740	73.6869
 1.9730	73.5990
 1.9720	73.5910
 1.9710	73.5345
 1.9700	73.4807
 1.9690	73.4927
 1.9680	73.4610
 1.9670	73.4036
 1.9660	73.4150
 1.9650	73.3922
 1.9640	73.3991
 1.9630	73.4128
 1.9620	73.3722
 1.9610	73.3880
 1.9600	73.3768
 1.9590	73.3148
 1.9580	73.3258
 1.9570	73.3145
 1.9560	73.3613
 1.9550	73.3127
 1.9540	73.3758
 1.9530	73.4212
 1.9520	73.3547
 1.9510	73.4020
 1.9500	73.3800
 1.9490	73.4065
 1.9480	73.4314
 1.9470	73.3701
 1.9460	73.4006
 1.9450	73.4350
 1.9440	73.3694
 1.9430	73.3819
 1.9420	73.5027
 1.9410	73.3838
 1.9400	73.4285
 1.9390	73.4732
 1.9380	73.5532
 1.9370	73.5290
 1.9360	73.6038
 1.9350	73.6744
 1.9340	73.7361
 1.9330	73.7565
 1.9320	73.7870
 1.9310	73.8497
 1.9300	73.8247
 1.9290	74.0118
 1.9280	74.0640
 1.9270	74.0765
 1.9260	74.1466
 1.9250	74.3219
 1.9240	74.3692
 1.9230	74.4095
 1.9220	74.6016
 1.9210	74.6972
 1.9200	74.8410
 1.9190	74.9946
 1.9180	75.1036
 1.9170	75.3299
 1.9160	75.4722
 1.9150	75.5943
 1.9140	75.8072
 1.9130	75.9133
 1.9120	76.1012
 1.9110	76.2754
 1.9100	76.5186
 1.9090	76.6411
 1.9080	76.8804
 1.9070	77.1112
 1.9060	77.3011
 1.9050	77.4923
 1.9040	77.7409
 1.9030	77.9406
 1.9020	78.2225
 1.9010	78.4191
 1.9000	78.6405
 1.8990	78.8579
 1.8980	78.9830
 1.8970	79.1762
 1.8960	79.3514
 1.8950	79.5264
 1.8940	79.6512
 1.8930	79.7130
 1.8920	79.7944
 1.8910	79.8754
 1.8900	79.9939
 1.8890	79.8845
 1.8880	79.9124
 1.8870	79.7550
 1.8860	79.6832
 1.8850	79.5277
 1.8840	79.4043
 1.8830	79.1578
 1.8820	79.0130
 1.8810	78.8907
 1.8800	78.6915
 1.8790	78.5531
 1.8780	78.5615
 1.8770	78.5010
 1.8760	78.4799
 1.8750	78.5799
 1.8740	78.7483
 1.8730	78.9850
 1.8720	79.2134
 1.8710	79.4969
 1.8700	79.8087
 1.8690	80.1398
 1.8680	80.4713
 1.8670	80.7887
 1.8660	81.0207
 1.8650	81.2829
 1.8640	81.4791
 1.8630	81.6927
 1.8620	81.9421
 1.8610	82.1334
 1.8600	82.3100
 1.8590	82.4187
 1.8580	82.5547
 1.8570	82.6763
 1.8560	82.7946
 1.8550	82.8974
 1.8540	83.0164
 1.8530	83.1036
 1.8520	83.1560
 1.8510	83.2073
 1.8500	83.2468
 1.8490	83.3127
 1.8480	83.3860
 1.8470	83.4977
 1.8460	83.5564
 1.8450	83.6123
 1.8440	83.6651
 1.8430	83.8151
 1.8420	83.8727
 1.8410	83.9516
 1.8400	84.0166
 1.8390	84.1029
 1.8380	84.1704
 1.8370	84.2357
 1.8360	84.3682
 1.8350	84.4843
 1.8340	84.6557
 1.8330	84.7275
 1.8320	84.7401
 1.8310	84.7659
 1.8300	84.8091
 1.8290	84.9506
 1.8280	85.0893
 1.8270	85.1134
 1.8260	85.1433
 1.8250	85.2648
 1.8240	85.3481
 1.8230	85.3503
 1.8220	85.4986
 1.8210	85.5367
 1.8200	85.5960
 1.8190	85.5831
 1.8180	85.6182
 1.8170	85.6975
 1.8160	85.7414
 1.8150	85.7861
 1.8140	85.8028
 1.8130	85.8139
 1.8120	85.8394
 1.8110	85.8794
 1.8100	85.9383
 1.8090	85.9658
 1.8080	86.0161
 1.8070	86.0410
 1.8060	86.0594
 1.8050	86.0734
 1.8040	86.0712
 1.8030	86.1268
 1.8020	86.1684
 1.8010	86.1675
 1.8000	86.2226
 1.7990	86.2850
 1.7980	86.2687
 1.7970	86.2538
 1.7960	86.3015
 1.7950	86.3079
 1.7940	86.3305
 1.7930	86.3219
 1.7920	86.3177
 1.7910	86.3369
 1.7900	86.3727
 1.7890	86.3768
 1.7880	86.3455
 1.7870	86.3963
 1.7860	86.4366
 1.7850	86.4450
 1.7840	86.4170
 1.7830	86.3678
 1.7820	86.3796
 1.7810	86.3785
 1.7800	86.4102
 1.7790	86.3978
 1.7780	86.3402
 1.7770	86.3479
 1.7760	86.3493
 1.7750	86.3920
 1.7740	86.3687
 1.7730	86.2984
 1.7720	86.2395
 1.7710	86.1885
 1.7700	86.1920
 1.7690	86.1890
 1.7680	86.0661
 1.7670	86.0090
 1.7660	86.0211
 1.7650	85.9352
 1.7640	85.8674
 1.7630	85.8071
 1.7620	85.7674
 1.7610	85.7289
 1.7600	85.7170
 1.7590	85.7129
 1.7580	85.7287
 1.7570	85.6933
 1.7560	85.7038
 1.7550	85.7555
 1.7540	85.8155
 1.7530	85.8016
 1.7520	85.8410
 1.7510	85.8987
 1.7500	85.9064
 1.7490	85.9135
 1.7480	85.9244
 1.7470	85.9194
 1.7460	85.9416
 1.7450	86.0002
 1.7440	86.0155
 1.7430	86.0119
 1.7420	85.9654
 1.7410	86.0452
 1.7400	86.0517
 1.7390	86.0132
 1.7380	86.0226
 1.7370	86.1045
 1.7360	86.0978
 1.7350	86.1349
 1.7340	86.0942
 1.7330	86.1477
 1.7320	86.1475
 1.7310	86.1645
 1.7300	86.1592
 1.7290	86.1534
 1.7280	86.2312
 1.7270	86.2870
 1.7260	86.3037
 1.7250	86.3074
 1.7240	86.3053
 1.7230	86.3018
 1.7220	86.4322
 1.7210	86.4464
 1.7200	86.4850
 1.7190	86.5286
 1.7180	86.5754
 1.7170	86.5776
 1.7160	86.5777
 1.7150	86.6456
 1.7140	86.6909
 1.7130	86.6791
 1.7120	86.6667
 1.7110	86.7573
 1.7100	86.7876
 1.7090	86.8593
 1.7080	86.8731
 1.7070	86.8139
 1.7060	86.8966
 1.7050	86.8704
 1.7040	86.9276
 1.7030	86.9395
 1.7020	86.9958
 1.7010	87.0225
 1.7000	86.9995
 1.6990	87.0340
 1.6980	87.0831
 1.6970	87.0349
 1.6960	87.0814
 1.6950	87.1173
 1.6940	87.0857
 1.6930	87.1911
 1.6920	87.2093
 1.6910	87.2787
 1.6900	87.1907
 1.6890	87.2033
 1.6880	87.3046
 1.6870	87.2784
 1.6860	87.2696
 1.6850	87.3059
 1.6840	87.3740
 1.6830	87.3882
 1.6820	87.3874
 1.6810	87.3604
 1.6800	87.3279
 1.6790	87.3436
 1.6780	87.4515
 1.6770	87.4583
 1.6760	87.4158
 1.6750	87.4526
 1.6740	87.3776
 1.6730	87.4710
 1.6720	87.4710
 1.6710	87.5088
 1.6700	87.5585
 1.6690	87.5139
 1.6680	87.4744
 1.6670	87.4780
 1.6660	87.4776
 1.6650	87.4991
 1.6640	87.4873
 1.6630	87.5469
 1.6620	87.6255
 1.6610	87.6028
 1.6600	87.5705
 1.6590	87.5313
 1.6580	87.5027
 1.6570	87.5321
 1.6560	87.5264
 1.6550	87.5772
 1.6540	87.5096
 1.6530	87.5256
 1.6520	87.4727
 1.6510	87.5089
 1.6500	87.4667
 1.6490	87.5206
 1.6480	87.4660
 1.6470	87.5967
 1.6460	87.5931
 1.6450	87.5947
 1.6440	87.5187
 1.6430	87.5645
 1.6420	87.6389
 1.6410	87.6440
 1.6400	87.6504
 1.6390	87.6606
 1.6380	87.7285
 1.6370	87.6618
 1.6360	87.6127
 1.6350	87.7046
 1.6340	87.7174
 1.6330	87.6796
 1.6320	87.6665
 1.6310	87.7372
 1.6300	87.7025
 1.6290	87.7958
 1.6280	87.6829
 1.6270	87.7864
 1.6260	87.7692
 1.6250	87.7382
 1.6240	87.8300
 1.6230	87.7779
 1.6220	87.8004
 1.6210	87.8131
 1.6200	87.8658
 1.6190	87.8152
 1.6180	87.8013
 1.6170	87.9115
 1.6160	87.8386
 1.6150	87.8400
 1.6140	87.7787
 1.6130	87.8128
 1.6120	87.8396
 1.6110	87.9335
 1.6100	87.8223
 1.6090	87.7912
 1.6080	87.7884
 1.6070	87.8548
 1.6060	87.8999
 1.6050	87.9130
 1.6040	87.9397
 1.6030	87.8212
 1.6020	87.8184
 1.6010	87.8857
 1.6000	87.8040
 1.5990	87.9091
 1.5980	87.9113
 1.5970	87.8935
 1.5960	87.8972
 1.5950	87.8797
 1.5940	87.8706
 1.5930	87.8682
 1.5920	87.8219
 1.5910	87.7789
 1.5900	87.7465
 1.5890	87.7606
 1.5880	87.7649
 1.5870	87.7513
 1.5860	87.7019
 1.5850	87.8399
 1.5840	87.7076
 1.5830	87.7321
 1.5820	87.7170
 1.5810	87.6871
 1.5800	87.6660
 1.5790	87.6619
 1.5780	87.6361
 1.5770	87.7064
 1.5760	87.5682
 1.5750	87.5912
 1.5740	87.5240
 1.5730	87.4721
 1.5720	87.5457
 1.5710	87.5715
 1.5700	87.4736
 1.5690	87.4609
 1.5680	87.4418
 1.5670	87.3960
 1.5660	87.3973
 1.5650	87.4203
 1.5640	87.3562
 1.5630	87.3503
 1.5620	87.3941
 1.5610	87.4146
 1.5600	87.3907
 1.5590	87.4235
 1.5580	87.4890
 1.5570	87.4454
 1.5560	87.3828
 1.5550	87.4596
 1.5540	87.4135
 1.5530	87.3987
 1.5520	87.3828
 1.5510	87.3838
 1.5500	87.3961
 1.5490	87.3958
 1.5480	87.3962
 1.5470	87.4320
 1.5460	87.3379
 1.5450	87.3145
 1.5440	87.2759
 1.5430	87.3088
 1.5420	87.3240
 1.5410	87.3689
 1.5400	87.3122
 1.5390	87.3078
 1.5380	87.2537
 1.5370	87.2345
 1.5360	87.2651
 1.5350	87.2410
 1.5340	87.2341
 1.5330	87.2204
 1.5320	87.2009
 1.5310	87.1725
 1.5300	87.1943
 1.5290	87.1795
 1.5280	87.1428
 1.5270	87.1511
 1.5260	87.1343
 1.5250	87.1023
 1.5240	87.0550
 1.5230	87.0517
 1.5220	87.0756
 1.5210	87.0233
 1.5200	86.9598
 1.5190	87.0116
 1.5180	87.0091
 1.5170	86.9458
 1.5160	86.9211
 1.5150	86.9248
 1.5140	86.9296
 1.5130	86.8926
 1.5120	86.7686
 1.5110	86.7968
 1.5100	86.8313
 1.5090	86.7989
 1.5080	86.7574
 1.5070	86.7115
 1.5060	86.6870
 1.5050	86.6820
 1.5040	86.6712
 1.5030	86.6765
 1.5020	86.6341
 1.5010	86.6187
 1.5000	86.6453
 1.4990	86.5980
 1.4980	86.5519
 1.4970	86.5138
 1.4960	86.4580
 1.4950	86.4012
 1.4940	86.4160
 1.4930	86.4139
 1.4920	86.3650
 1.4910	86.3310
 1.4900	86.2986
 1.4890	86.3075
 1.4880	86.2462
 1.4870	86.1757
 1.4860	86.1928
 1.4850	86.1787
 1.4840	86.1471
 1.4830	86.1235
 1.4820	86.1463
 1.4810	86.0838
 1.4800	86.0355
 1.4790	86.0395
 1.4780	86.0378
 1.4770	85.9932
 1.4760	85.9999
 1.4750	86.0410
 1.4740	86.0022
 1.4730	85.9730
 1.4720	85.9126
 1.4710	85.8706
 1.4700	85.8754
 1.4690	85.8855
 1.4680	85.8748
 1.4670	85.8465
 1.4660	85.8444
 1.4650	85.8628
 1.4640	85.8723
 1.4630	85.8844
 1.4620	85.8929
 1.4610	85.8538
 1.4600	85.8289
 1.4590	85.7787
 1.4580	85.7540
 1.4570	85.7760
 1.4560	85.8172
 1.4550	85.8174
 1.4540	85.8342
 1.4530	85.8405
 1.4520	85.8880
 1.4510	85.9138
 1.4500	85.8959
 1.4490	85.9103
 1.4480	85.8953
 1.4470	85.9736
 1.4460	85.9971
 1.4450	85.9212
 1.4440	85.9212
 1.4430	85.9266
 1.4420	85.9359
 1.4410	86.0393
 1.4400	86.0364
 1.4390	86.0722
 1.4380	86.0775
 1.4370	86.0604
 1.4360	86.1279
 1.4350	86.1897
 1.4340	86.1858
 1.4330	86.2249
 1.4320	86.2946
 1.4310	86.2938
 1.4300	86.3453
 1.4290	86.2639
 1.4280	86.3646
 1.4270	86.4212
 1.4260	86.4820
 1.4250	86.5326
 1.4240	86.5277
 1.4230	86.6071
 1.4220	86.6183
 1.4210	86.6874
 1.4200	86.7885
 1.4190	86.8848
 1.4180	86.9143
 1.4170	86.9020
 1.4160	87.0226
 1.4150	87.0466
 1.4140	87.1770
 1.4130	87.2528
 1.4120	87.2920
 1.4110	87.3250
 1.4100	87.4727
 1.4090	87.4431
 1.4080	87.4886
 1.4070	87.5709
 1.4060	87.7069
 1.4050	87.7772
 1.4040	87.9095
 1.4030	87.9687
 1.4020	88.0355
 1.4010	88.1623
 1.4000	88.1829
 1.3990	88.1802
 1.3980	88.2640
 1.3970	88.4418
 1.3960	88.5393
 1.3950	88.5096
 1.3940	88.5448
 1.3930	88.6065
 1.3920	88.7458
 1.3910	88.8352
 1.3900	88.8377
 1.3890	88.9050
 1.3880	88.9158
 1.3870	89.0240
 1.3860	89.0588
 1.3850	89.0743
 1.3840	89.1487
 1.3830	89.0889
 1.3820	89.1647
 1.3810	89.1007
 1.3800	89.1219
 1.3790	89.2668
 1.3780	89.2994
 1.3770	89.3046
 1.3760	89.3912
 1.3750	89.3246
 1.3740	89.4419
 1.3730	89.3530
 1.3720	89.4911
 1.3710	89.4539
 1.3700	89.4254
 1.3690	89.4488
 1.3680	89.4561
 1.3670	89.4104
 1.3660	89.4577
 1.3650	89.5327
 1.3640	89.4833
