Name: Rhodochrosite MnCO_3
Type: Mineral
Class: Carbonate
Subclass: None
Particle Size: Medium
Sample No.: C-8A
Owner: JPL
Wavelength Range: VSWIR
Origin: USA, Montana, Silver Bow County, Butte.
Collection Date: N/A
Description: Particle size was 45-125um.Collected by:  Ward's Original ASTER Spectral Library name was jpl.perkin.mineral.carbonate.none.medium.c08a.spectrum.txt
Measurement: Hemispherical reflectance
First Column: X
Second Column: Y
X Units: Wavelength (micrometers)
Y Units:Reflectance (percent)
First X Value:  2.5000
Last X Value:  0.4000
Number of X Values: 2101
Additional Information: mineral.carbonate.none.medium.vswir.c-8a.jpl.perkin.ancillary.txt

 2.5000	48.0993
 2.4990	47.8143
 2.4980	48.3883
 2.4970	48.5279
 2.4960	48.5047
 2.4950	48.6870
 2.4940	48.9441
 2.4930	49.0554
 2.4920	49.5484
 2.4910	49.6001
 2.4900	50.0366
 2.4890	49.9954
 2.4880	50.5479
 2.4870	50.7232
 2.4860	51.0421
 2.4850	51.2415
 2.4840	51.6894
 2.4830	51.9018
 2.4820	52.2194
 2.4810	52.5812
 2.4800	52.9001
 2.4790	53.1725
 2.4780	53.6368
 2.4770	53.8681
 2.4760	54.3391
 2.4750	54.6429
 2.4740	55.0613
 2.4730	55.2253
 2.4720	55.8343
 2.4710	56.0342
 2.4700	56.4739
 2.4690	56.6008
 2.4680	57.0911
 2.4670	57.3350
 2.4660	57.7479
 2.4650	57.9159
 2.4640	58.3701
 2.4630	58.6655
 2.4620	58.9638
 2.4610	59.2010
 2.4600	59.5618
 2.4590	59.6633
 2.4580	60.0825
 2.4570	60.2535
 2.4560	60.3972
 2.4550	60.6283
 2.4540	60.9750
 2.4530	61.3022
 2.4520	61.4745
 2.4510	61.6272
 2.4500	61.8659
 2.4490	61.9858
 2.4480	62.2508
 2.4470	62.6383
 2.4460	62.7271
 2.4450	62.8762
 2.4440	63.1871
 2.4430	63.3417
 2.4420	63.5670
 2.4410	63.6799
 2.4400	63.8431
 2.4390	64.0233
 2.4380	64.1154
 2.4370	64.3055
 2.4360	64.5057
 2.4350	64.5863
 2.4340	64.8047
 2.4330	64.9284
 2.4320	65.1235
 2.4310	65.1194
 2.4300	65.2042
 2.4290	65.3462
 2.4280	65.5461
 2.4270	65.7587
 2.4260	65.8215
 2.4250	65.8776
 2.4240	66.1062
 2.4230	66.2510
 2.4220	66.2989
 2.4210	66.3638
 2.4200	66.4913
 2.4190	66.6460
 2.4180	66.7487
 2.4170	66.8163
 2.4160	66.9058
 2.4150	67.0692
 2.4140	67.2199
 2.4130	67.2414
 2.4120	67.4398
 2.4110	67.5793
 2.4100	67.7045
 2.4090	67.7238
 2.4080	67.8809
 2.4070	67.9575
 2.4060	68.0313
 2.4050	68.0808
 2.4040	68.1019
 2.4030	68.1077
 2.4020	68.0619
 2.4010	68.0937
 2.4000	67.9832
 2.3990	67.9368
 2.3980	67.9266
 2.3970	67.8716
 2.3960	67.7263
 2.3950	67.5167
 2.3940	67.3170
 2.3930	67.0624
 2.3920	66.7934
 2.3910	66.4743
 2.3900	66.1318
 2.3890	65.7641
 2.3880	65.3202
 2.3870	64.9000
 2.3860	64.3994
 2.3850	63.9060
 2.3840	63.3681
 2.3830	62.7364
 2.3820	62.0688
 2.3810	61.4956
 2.3800	60.9153
 2.3790	60.2303
 2.3780	59.5713
 2.3770	58.9679
 2.3760	58.3124
 2.3750	57.6935
 2.3740	57.1975
 2.3730	56.6493
 2.3720	56.1951
 2.3710	55.7490
 2.3700	55.2694
 2.3690	54.8883
 2.3680	54.5393
 2.3670	54.2404
 2.3660	54.0052
 2.3650	53.6861
 2.3640	53.4810
 2.3630	53.3233
 2.3620	53.2176
 2.3610	53.1393
 2.3600	53.0592
 2.3590	53.0350
 2.3580	52.9846
 2.3570	52.9848
 2.3560	52.9967
 2.3550	53.0178
 2.3540	53.1553
 2.3530	53.2477
 2.3520	53.3308
 2.3510	53.4570
 2.3500	53.5811
 2.3490	53.6808
 2.3480	53.8161
 2.3470	53.9584
 2.3460	54.1010
 2.3450	54.2867
 2.3440	54.3839
 2.3430	54.5436
 2.3420	54.7118
 2.3410	54.8567
 2.3400	54.9918
 2.3390	55.0997
 2.3380	55.2176
 2.3370	55.3665
 2.3360	55.4608
 2.3350	55.5284
 2.3340	55.6102
 2.3330	55.7032
 2.3320	55.8591
 2.3310	56.0036
 2.3300	56.0628
 2.3290	56.1618
 2.3280	56.2623
 2.3270	56.3992
 2.3260	56.4815
 2.3250	56.6187
 2.3240	56.7190
 2.3230	56.8508
 2.3220	56.9874
 2.3210	57.1075
 2.3200	57.2221
 2.3190	57.3098
 2.3180	57.3607
 2.3170	57.5333
 2.3160	57.7097
 2.3150	57.8380
 2.3140	57.9774
 2.3130	58.1557
 2.3120	58.3186
 2.3110	58.3892
 2.3100	58.5158
 2.3090	58.7249
 2.3080	58.8857
 2.3070	59.0623
 2.3060	59.1875
 2.3050	59.4114
 2.3040	59.6321
 2.3030	59.8085
 2.3020	59.9939
 2.3010	60.2069
 2.3000	60.4358
 2.2990	60.6499
 2.2980	60.8617
 2.2970	61.1006
 2.2960	61.2522
 2.2950	61.5215
 2.2940	61.7222
 2.2930	61.9702
 2.2920	62.2222
 2.2910	62.4796
 2.2900	62.6685
 2.2890	62.9415
 2.2880	63.1186
 2.2870	63.3903
 2.2860	63.5442
 2.2850	63.7802
 2.2840	64.0202
 2.2830	64.2917
 2.2820	64.4724
 2.2810	64.6430
 2.2800	64.8191
 2.2790	65.0441
 2.2780	65.1505
 2.2770	65.3705
 2.2760	65.5684
 2.2750	65.7308
 2.2740	65.9431
 2.2730	66.0980
 2.2720	66.1799
 2.2710	66.3880
 2.2700	66.5200
 2.2690	66.7113
 2.2680	66.8726
 2.2670	66.9822
 2.2660	67.0626
 2.2650	67.2188
 2.2640	67.3487
 2.2630	67.5333
 2.2620	67.6774
 2.2610	67.8315
 2.2600	67.9198
 2.2590	68.0764
 2.2580	68.1715
 2.2570	68.2438
 2.2560	68.4043
 2.2550	68.5542
 2.2540	68.6961
 2.2530	68.7886
 2.2520	68.8785
 2.2510	69.0038
 2.2500	69.1332
 2.2490	69.2882
 2.2480	69.3677
 2.2470	69.4999
 2.2460	69.6067
 2.2450	69.6655
 2.2440	69.7396
 2.2430	69.8974
 2.2420	69.9684
 2.2410	70.0651
 2.2400	70.1544
 2.2390	70.1990
 2.2380	70.3330
 2.2370	70.4164
 2.2360	70.5303
 2.2350	70.6919
 2.2340	70.7375
 2.2330	70.8998
 2.2320	70.8561
 2.2310	70.9604
 2.2300	71.0470
 2.2290	71.1384
 2.2280	71.2512
 2.2270	71.2583
 2.2260	71.3897
 2.2250	71.5161
 2.2240	71.5395
 2.2230	71.5953
 2.2220	71.6879
 2.2210	71.7463
 2.2200	71.7782
 2.2190	71.9481
 2.2180	71.8979
 2.2170	72.0520
 2.2160	72.0424
 2.2150	72.1650
 2.2140	72.1829
 2.2130	72.2146
 2.2120	72.3369
 2.2110	72.2946
 2.2100	72.3329
 2.2090	72.3633
 2.2080	72.4186
 2.2070	72.4923
 2.2060	72.4898
 2.2050	72.5389
 2.2040	72.6131
 2.2030	72.6981
 2.2020	72.7058
 2.2010	72.7155
 2.2000	72.7860
 2.1990	72.7600
 2.1980	72.7333
 2.1970	72.7255
 2.1960	72.8019
 2.1950	72.9208
 2.1940	72.9193
 2.1930	72.9071
 2.1920	72.8676
 2.1910	72.8995
 2.1900	72.9454
 2.1890	72.9755
 2.1880	72.9505
 2.1870	73.0463
 2.1860	72.9242
 2.1850	72.8835
 2.1840	72.9041
 2.1830	72.9444
 2.1820	72.7994
 2.1810	72.8759
 2.1800	72.8399
 2.1790	72.8374
 2.1780	72.7726
 2.1770	72.7627
 2.1760	72.7386
 2.1750	72.6857
 2.1740	72.6826
 2.1730	72.7238
 2.1720	72.7331
 2.1710	72.6955
 2.1700	72.7315
 2.1690	72.7523
 2.1680	72.7039
 2.1670	72.8027
 2.1660	72.8407
 2.1650	72.8701
 2.1640	72.8102
 2.1630	72.8689
 2.1620	72.9233
 2.1610	73.0601
 2.1600	73.0550
 2.1590	73.1150
 2.1580	73.2051
 2.1570	73.3024
 2.1560	73.2780
 2.1550	73.3367
 2.1540	73.4351
 2.1530	73.5246
 2.1520	73.5610
 2.1510	73.6457
 2.1500	73.7543
 2.1490	73.8287
 2.1480	73.8890
 2.1470	73.9717
 2.1460	74.0217
 2.1450	74.0738
 2.1440	74.1250
 2.1430	74.2196
 2.1420	74.2194
 2.1410	74.2971
 2.1400	74.3444
 2.1390	74.2936
 2.1380	74.3101
 2.1370	74.4440
 2.1360	74.4525
 2.1350	74.4887
 2.1340	74.4412
 2.1330	74.4643
 2.1320	74.4347
 2.1310	74.4455
 2.1300	74.4653
 2.1290	74.4543
 2.1280	74.3693
 2.1270	74.3759
 2.1260	74.4025
 2.1250	74.3484
 2.1240	74.3745
 2.1230	74.3472
 2.1220	74.3295
 2.1210	74.3354
 2.1200	74.3281
 2.1190	74.3218
 2.1180	74.2653
 2.1170	74.2058
 2.1160	74.1501
 2.1150	74.1547
 2.1140	74.2251
 2.1130	74.1687
 2.1120	74.1406
 2.1110	74.0703
 2.1100	74.0198
 2.1090	74.0144
 2.1080	73.9765
 2.1070	73.9902
 2.1060	73.9509
 2.1050	73.8928
 2.1040	73.8647
 2.1030	73.8551
 2.1020	73.8113
 2.1010	73.7348
 2.1000	73.7466
 2.0990	73.7961
 2.0980	73.8227
 2.0970	73.8676
 2.0960	73.8644
 2.0950	73.8786
 2.0940	73.8779
 2.0930	73.8330
 2.0920	73.8411
 2.0910	73.9026
 2.0900	73.9215
 2.0890	73.9001
 2.0880	73.9415
 2.0870	73.9840
 2.0860	73.9756
 2.0850	73.9412
 2.0840	73.9627
 2.0830	74.0360
 2.0820	74.0092
 2.0810	73.9372
 2.0800	73.9862
 2.0790	74.0376
 2.0780	74.0817
 2.0770	74.0873
 2.0760	74.0793
 2.0750	74.0781
 2.0740	74.0366
 2.0730	74.0697
 2.0720	74.1017
 2.0710	74.1000
 2.0700	74.0556
 2.0690	74.0269
 2.0680	74.0330
 2.0670	74.0249
 2.0660	74.0173
 2.0650	74.0355
 2.0640	74.0557
 2.0630	74.0553
 2.0620	74.0547
 2.0610	74.0989
 2.0600	74.1374
 2.0590	74.0630
 2.0580	74.0379
 2.0570	74.0860
 2.0560	74.1320
 2.0550	74.1301
 2.0540	74.1049
 2.0530	74.0496
 2.0520	74.0794
 2.0510	74.0492
 2.0500	74.0320
 2.0490	74.0151
 2.0480	74.0077
 2.0470	74.0126
 2.0460	74.0350
 2.0450	74.0466
 2.0440	73.9753
 2.0430	73.8852
 2.0420	73.8778
 2.0410	73.8749
 2.0400	73.8644
 2.0390	73.8277
 2.0380	73.7956
 2.0370	73.7132
 2.0360	73.7008
 2.0350	73.6542
 2.0340	73.6171
 2.0330	73.6183
 2.0320	73.5076
 2.0310	73.3744
 2.0300	73.4055
 2.0290	73.3570
 2.0280	73.2387
 2.0270	73.1182
 2.0260	73.0965
 2.0250	73.0357
 2.0240	72.9174
 2.0230	72.8200
 2.0220	72.7120
 2.0210	72.5740
 2.0200	72.4535
 2.0190	72.3115
 2.0180	72.2438
 2.0170	72.0783
 2.0160	72.0017
 2.0150	71.8785
 2.0140	71.8024
 2.0130	71.7059
 2.0120	71.5796
 2.0110	71.5655
 2.0100	71.5342
 2.0090	71.4779
 2.0080	71.4529
 2.0070	71.4385
 2.0060	71.4828
 2.0050	71.4376
 2.0040	71.4981
 2.0030	71.4923
 2.0020	71.5724
 2.0010	71.6157
 2.0000	71.6840
 1.9990	71.6376
 1.9980	71.7122
 1.9970	71.7599
 1.9960	71.8015
 1.9950	71.7828
 1.9940	71.8468
 1.9930	71.8037
 1.9920	71.8451
 1.9910	71.8888
 1.9900	71.8616
 1.9890	71.8066
 1.9880	71.7626
 1.9870	71.7940
 1.9860	71.8005
 1.9850	71.8241
 1.9840	71.8056
 1.9830	71.7074
 1.9820	71.6617
 1.9810	71.6704
 1.9800	71.7142
 1.9790	71.6463
 1.9780	71.6349
 1.9770	71.5550
 1.9760	71.5967
 1.9750	71.6348
 1.9740	71.6841
 1.9730	71.5612
 1.9720	71.6039
 1.9710	71.4904
 1.9700	71.5617
 1.9690	71.5251
 1.9680	71.5482
 1.9670	71.4679
 1.9660	71.5807
 1.9650	71.4735
 1.9640	71.5389
 1.9630	71.4541
 1.9620	71.4293
 1.9610	71.5082
 1.9600	71.5447
 1.9590	71.4244
 1.9580	71.5235
 1.9570	71.4920
 1.9560	71.5245
 1.9550	71.4839
 1.9540	71.4558
 1.9530	71.4778
 1.9520	71.5085
 1.9510	71.4245
 1.9500	71.5514
 1.9490	71.4549
 1.9480	71.4778
 1.9470	71.4678
 1.9460	71.4023
 1.9450	71.4775
 1.9440	71.5470
 1.9430	71.3887
 1.9420	71.3672
 1.9410	71.3876
 1.9400	71.4334
 1.9390	71.4173
 1.9380	71.4222
 1.9370	71.3537
 1.9360	71.4479
 1.9350	71.4200
 1.9340	71.3741
 1.9330	71.4129
 1.9320	71.4492
 1.9310	71.3445
 1.9300	71.4763
 1.9290	71.4544
 1.9280	71.4819
 1.9270	71.5039
 1.9260	71.4538
 1.9250	71.5056
 1.9240	71.5081
 1.9230	71.5767
 1.9220	71.5853
 1.9210	71.5976
 1.9200	71.5538
 1.9190	71.6582
 1.9180	71.7551
 1.9170	71.7016
 1.9160	71.7859
 1.9150	71.8247
 1.9140	71.8474
 1.9130	71.8070
 1.9120	71.8605
 1.9110	71.9244
 1.9100	71.9815
 1.9090	71.9791
 1.9080	72.0617
 1.9070	72.1078
 1.9060	72.0829
 1.9050	72.0943
 1.9040	72.0858
 1.9030	72.0635
 1.9020	71.9949
 1.9010	72.0176
 1.9000	72.0438
 1.8990	71.9785
 1.8980	71.9401
 1.8970	71.9032
 1.8960	71.8828
 1.8950	71.8638
 1.8940	71.8814
 1.8930	71.9455
 1.8920	71.9525
 1.8910	71.9910
 1.8900	72.1378
 1.8890	72.2495
 1.8880	72.3265
 1.8870	72.5055
 1.8860	72.6044
 1.8850	72.7817
 1.8840	72.9336
 1.8830	73.0975
 1.8820	73.2127
 1.8810	73.2714
 1.8800	73.4183
 1.8790	73.6030
 1.8780	73.7169
 1.8770	73.8012
 1.8760	73.9243
 1.8750	73.9699
 1.8740	74.0198
 1.8730	74.1077
 1.8720	74.2263
 1.8710	74.2379
 1.8700	74.3361
 1.8690	74.4577
 1.8680	74.5363
 1.8670	74.5959
 1.8660	74.6298
 1.8650	74.7031
 1.8640	74.7036
 1.8630	74.7039
 1.8620	74.8574
 1.8610	74.8150
 1.8600	74.8288
 1.8590	74.8775
 1.8580	74.9192
 1.8570	74.9950
 1.8560	75.0349
 1.8550	75.1090
 1.8540	75.1202
 1.8530	75.1347
 1.8520	75.1132
 1.8510	75.1586
 1.8500	75.1543
 1.8490	75.1442
 1.8480	75.2659
 1.8470	75.2599
 1.8460	75.3040
 1.8450	75.3565
 1.8440	75.3998
 1.8430	75.4082
 1.8420	75.4020
 1.8410	75.4557
 1.8400	75.5059
 1.8390	75.4967
 1.8380	75.5246
 1.8370	75.5402
 1.8360	75.6044
 1.8350	75.6232
 1.8340	75.5863
 1.8330	75.6004
 1.8320	75.6435
 1.8310	75.6351
 1.8300	75.7128
 1.8290	75.7459
 1.8280	75.7292
 1.8270	75.7085
 1.8260	75.7498
 1.8250	75.7945
 1.8240	75.8055
 1.8230	75.8006
 1.8220	75.8324
 1.8210	75.7804
 1.8200	75.7922
 1.8190	75.8133
 1.8180	75.8603
 1.8170	75.8631
 1.8160	75.8909
 1.8150	75.9250
 1.8140	75.8713
 1.8130	75.8370
 1.8120	75.9021
 1.8110	75.9569
 1.8100	75.9536
 1.8090	75.9452
 1.8080	75.9932
 1.8070	76.0069
 1.8060	75.9819
 1.8050	75.9804
 1.8040	76.0077
 1.8030	76.0194
 1.8020	76.0595
 1.8010	76.0188
 1.8000	76.0395
 1.7990	76.0270
 1.7980	76.0130
 1.7970	76.0141
 1.7960	76.0684
 1.7950	76.0434
 1.7940	76.0285
 1.7930	76.0196
 1.7920	76.0172
 1.7910	76.0191
 1.7900	76.0211
 1.7890	76.0149
 1.7880	75.9903
 1.7870	76.0175
 1.7860	75.9826
 1.7850	75.9326
 1.7840	75.9367
 1.7830	75.9574
 1.7820	75.8980
 1.7810	75.8521
 1.7800	75.8767
 1.7790	75.8805
 1.7780	75.8460
 1.7770	75.8013
 1.7760	75.7981
 1.7750	75.8414
 1.7740	75.8583
 1.7730	75.8217
 1.7720	75.8018
 1.7710	75.8139
 1.7700	75.7621
 1.7690	75.7377
 1.7680	75.7386
 1.7670	75.7765
 1.7660	75.7815
 1.7650	75.7907
 1.7640	75.7780
 1.7630	75.7522
 1.7620	75.8098
 1.7610	75.8491
 1.7600	75.8080
 1.7590	75.7768
 1.7580	75.7542
 1.7570	75.7892
 1.7560	75.8066
 1.7550	75.7390
 1.7540	75.7648
 1.7530	75.8628
 1.7520	75.8216
 1.7510	75.8152
 1.7500	75.8855
 1.7490	75.8763
 1.7480	75.8431
 1.7470	75.8282
 1.7460	75.8666
 1.7450	75.8535
 1.7440	75.8318
 1.7430	75.8954
 1.7420	75.9097
 1.7410	75.9232
 1.7400	75.8835
 1.7390	75.9198
 1.7380	75.9105
 1.7370	75.9339
 1.7360	75.8839
 1.7350	75.9535
 1.7340	75.9474
 1.7330	75.9520
 1.7320	75.9658
 1.7310	76.0117
 1.7300	76.0235
 1.7290	76.0317
 1.7280	76.0241
 1.7270	76.0267
 1.7260	76.0728
 1.7250	76.0469
 1.7240	76.0442
 1.7230	76.0391
 1.7220	75.9869
 1.7210	76.0023
 1.7200	76.0619
 1.7190	76.0854
 1.7180	76.0652
 1.7170	76.0687
 1.7160	76.0336
 1.7150	76.0545
 1.7140	76.1407
 1.7130	76.1093
 1.7120	76.1385
 1.7110	76.0677
 1.7100	76.0635
 1.7090	76.1220
 1.7080	76.1223
 1.7070	76.0674
 1.7060	76.0901
 1.7050	76.0524
 1.7040	76.0935
 1.7030	76.1038
 1.7020	76.0547
 1.7010	76.1356
 1.7000	76.1112
 1.6990	76.1712
 1.6980	76.1342
 1.6970	76.0894
 1.6960	76.0920
 1.6950	76.1303
 1.6940	76.1436
 1.6930	76.0998
 1.6920	76.1369
 1.6910	76.0934
 1.6900	76.0580
 1.6890	76.0889
 1.6880	76.0774
 1.6870	76.1576
 1.6860	76.1599
 1.6850	76.1451
 1.6840	76.1175
 1.6830	76.1286
 1.6820	76.1010
 1.6810	76.1207
 1.6800	76.0747
 1.6790	76.1521
 1.6780	76.0813
 1.6770	76.1523
 1.6760	76.0898
 1.6750	76.1344
 1.6740	76.0709
 1.6730	76.1717
 1.6720	76.0748
 1.6710	76.0793
 1.6700	76.1150
 1.6690	76.1275
 1.6680	76.0765
 1.6670	76.0825
 1.6660	76.0392
 1.6650	76.0808
 1.6640	76.0726
 1.6630	76.0315
 1.6620	76.1076
 1.6610	76.1281
 1.6600	76.0102
 1.6590	76.0406
 1.6580	76.0256
 1.6570	76.1066
 1.6560	76.0408
 1.6550	76.0210
 1.6540	75.9755
 1.6530	76.1621
 1.6520	76.1409
 1.6510	76.0717
 1.6500	75.9884
 1.6490	76.0027
 1.6480	76.0060
 1.6470	76.0647
 1.6460	76.1074
 1.6450	76.0596
 1.6440	76.0887
 1.6430	75.9780
 1.6420	76.1913
 1.6410	75.9826
 1.6400	76.0169
 1.6390	76.1263
 1.6380	76.0181
 1.6370	76.0360
 1.6360	76.0308
 1.6350	76.0653
 1.6340	76.0740
 1.6330	76.0764
 1.6320	76.1342
 1.6310	76.0643
 1.6300	76.1029
 1.6290	76.0366
 1.6280	76.0004
 1.6270	76.0027
 1.6260	76.0393
 1.6250	76.0718
 1.6240	76.0419
 1.6230	76.0990
 1.6220	76.0452
 1.6210	76.0623
 1.6200	76.0056
 1.6190	76.1591
 1.6180	76.0359
 1.6170	76.0398
 1.6160	76.0464
 1.6150	76.0621
 1.6140	76.0351
 1.6130	76.0399
 1.6120	75.9966
 1.6110	76.0635
 1.6100	76.0586
 1.6090	76.0345
 1.6080	75.9614
 1.6070	76.0595
 1.6060	76.0564
 1.6050	76.0109
 1.6040	76.0104
 1.6030	76.0458
 1.6020	75.9555
 1.6010	76.0171
 1.6000	75.9559
 1.5990	75.9447
 1.5980	76.0225
 1.5970	76.0178
 1.5960	75.9226
 1.5950	75.9494
 1.5940	75.9334
 1.5930	75.9561
 1.5920	75.8572
 1.5910	75.8601
 1.5900	75.9132
 1.5890	75.9424
 1.5880	75.9262
 1.5870	75.9300
 1.5860	75.8504
 1.5850	75.9042
 1.5840	75.8654
 1.5830	75.8742
 1.5820	75.8524
 1.5810	75.8686
 1.5800	75.8311
 1.5790	75.8019
 1.5780	75.7930
 1.5770	75.7751
 1.5760	75.7102
 1.5750	75.7641
 1.5740	75.7319
 1.5730	75.7440
 1.5720	75.7315
 1.5710	75.6916
 1.5700	75.6893
 1.5690	75.7314
 1.5680	75.7153
 1.5670	75.7526
 1.5660	75.6684
 1.5650	75.6941
 1.5640	75.7032
 1.5630	75.7247
 1.5620	75.7522
 1.5610	75.7203
 1.5600	75.7073
 1.5590	75.7042
 1.5580	75.6199
 1.5570	75.6300
 1.5560	75.6723
 1.5550	75.6746
 1.5540	75.6826
 1.5530	75.6248
 1.5520	75.6206
 1.5510	75.6714
 1.5500	75.6336
 1.5490	75.6101
 1.5480	75.6335
 1.5470	75.6296
 1.5460	75.5658
 1.5450	75.5830
 1.5440	75.5748
 1.5430	75.5894
 1.5420	75.5824
 1.5410	75.5543
 1.5400	75.5376
 1.5390	75.5679
 1.5380	75.5119
 1.5370	75.5124
 1.5360	75.4912
 1.5350	75.4773
 1.5340	75.4817
 1.5330	75.4607
 1.5320	75.4509
 1.5310	75.4467
 1.5300	75.4838
 1.5290	75.4653
 1.5280	75.4143
 1.5270	75.3717
 1.5260	75.3137
 1.5250	75.3625
 1.5240	75.4109
 1.5230	75.3803
 1.5220	75.3468
 1.5210	75.3843
 1.5200	75.3229
 1.5190	75.3179
 1.5180	75.3446
 1.5170	75.2964
 1.5160	75.2348
 1.5150	75.2456
 1.5140	75.2498
 1.5130	75.2317
 1.5120	75.2128
 1.5110	75.1994
 1.5100	75.1918
 1.5090	75.1776
 1.5080	75.1624
 1.5070	75.1805
 1.5060	75.1413
 1.5050	75.1173
 1.5040	75.1217
 1.5030	75.0580
 1.5020	75.0148
 1.5010	74.9827
 1.5000	75.0022
 1.4990	75.0612
 1.4980	75.0216
 1.4970	74.9998
 1.4960	75.0088
 1.4950	74.9731
 1.4940	74.9619
 1.4930	74.9236
 1.4920	74.8932
 1.4910	74.8510
 1.4900	74.8476
 1.4890	74.7967
 1.4880	74.7925
 1.4870	74.8128
 1.4860	74.7849
 1.4850	74.7673
 1.4840	74.7632
 1.4830	74.7501
 1.4820	74.7094
 1.4810	74.6790
 1.4800	74.6859
 1.4790	74.6969
 1.4780	74.6994
 1.4770	74.6453
 1.4760	74.6611
 1.4750	74.6583
 1.4740	74.6002
 1.4730	74.5629
 1.4720	74.5506
 1.4710	74.5534
 1.4700	74.6099
 1.4690	74.5782
 1.4680	74.5098
 1.4670	74.5283
 1.4660	74.5655
 1.4650	74.5311
 1.4640	74.5291
 1.4630	74.4823
 1.4620	74.5134
 1.4610	74.4622
 1.4600	74.4759
 1.4590	74.4727
 1.4580	74.4802
 1.4570	74.5231
 1.4560	74.4555
 1.4550	74.3860
 1.4540	74.4047
 1.4530	74.3984
 1.4520	74.4234
 1.4510	74.4186
 1.4500	74.4114
 1.4490	74.3892
 1.4480	74.3524
 1.4470	74.3418
 1.4460	74.3881
 1.4450	74.4044
 1.4440	74.4054
 1.4430	74.3171
 1.4420	74.3919
 1.4410	74.3789
 1.4400	74.3092
 1.4390	74.3332
 1.4380	74.3455
 1.4370	74.3140
 1.4360	74.3653
 1.4350	74.3042
 1.4340	74.3283
 1.4330	74.3137
 1.4320	74.2992
 1.4310	74.2802
 1.4300	74.2509
 1.4290	74.2665
 1.4280	74.2310
 1.4270	74.2670
 1.4260	74.3006
 1.4250	74.2233
 1.4240	74.2641
 1.4230	74.2573
 1.4220	74.3307
 1.4210	74.2985
 1.4200	74.3345
 1.4190	74.3477
 1.4180	74.2755
 1.4170	74.3231
 1.4160	74.3708
 1.4150	74.3225
 1.4140	74.3521
 1.4130	74.2731
 1.4120	74.2839
 1.4110	74.3676
 1.4100	74.3398
 1.4090	74.3658
 1.4080	74.4292
 1.4070	74.3728
 1.4060	74.4357
 1.4050	74.3870
 1.4040	74.3822
 1.4030	74.4471
 1.4020	74.4984
 1.4010	74.4559
 1.4000	74.4824
 1.3990	74.4813
 1.3980	74.6181
 1.3970	74.5728
 1.3960	74.5804
 1.3950	74.6367
 1.3940	74.7083
 1.3930	74.6467
 1.3920	74.6861
 1.3910	74.6717
 1.3900	74.7784
 1.3890	74.6947
 1.3880	74.7442
 1.3870	74.7030
 1.3860	74.7281
 1.3850	74.6969
 1.3840	74.7317
 1.3830	74.7295
 1.3820	74.6859
 1.3810	74.7342
 1.3800	74.6975
 1.3790	74.7737
 1.3780	74.7934
 1.3770	74.7117
 1.3760	74.6662
 1.3750	74.6727
 1.3740	74.7514
 1.3730	74.7344
 1.3720	74.6535
 1.3710	74.7124
 1.3700	74.6247
 1.3690	74.6550
 1.3680	74.7534
 1.3670	74.6707
 1.3660	74.7192
