Name: Scheelite CaWO_4
Type: Mineral
Class: Tungstate
Subclass: None
Particle Size: Medium
Sample No.: T-1A
Owner: JPL
Wavelength Range: VSWIR
Origin: USA, California, Kern County, Atolia.
Collection Date: N/A
Description: Particle size was 45-125um. Collected by: Burminco. Original ASTER Spectral Library name was jpl.perkin.mineral.tungstate.none.medium.t01a.spectrum.txt
Measurement: Hemispherical reflectance
First Column: X
Second Column: Y
X Units: Wavelength (micrometers)
Y Units:Reflectance (percent)
First X Value:  2.5000
Last X Value:  0.4000
Number of X Values: 2101
Additional Information: mineral.tungstate.none.medium.vswir.t-1a.jpl.perkin.ancillary.txt

 2.5000	64.8260
 2.4990	64.6555
 2.4980	64.7321
 2.4970	64.9279
 2.4960	64.8235
 2.4950	64.7483
 2.4940	64.8511
 2.4930	64.9418
 2.4920	64.7907
 2.4910	64.8904
 2.4900	65.0160
 2.4890	65.0674
 2.4880	65.0655
 2.4870	65.0059
 2.4860	65.2008
 2.4850	65.0802
 2.4840	65.2271
 2.4830	65.0451
 2.4820	65.2821
 2.4810	65.2324
 2.4800	65.3542
 2.4790	65.2605
 2.4780	65.4624
 2.4770	65.3045
 2.4760	65.4387
 2.4750	65.3878
 2.4740	65.6148
 2.4730	65.6055
 2.4720	65.6506
 2.4710	65.6144
 2.4700	65.8024
 2.4690	65.7302
 2.4680	65.8831
 2.4670	65.8351
 2.4660	65.8614
 2.4650	65.8677
 2.4640	65.9612
 2.4630	66.0469
 2.4620	66.1247
 2.4610	66.0866
 2.4600	66.1634
 2.4590	66.1185
 2.4580	66.2050
 2.4570	66.3747
 2.4560	66.3009
 2.4550	66.2877
 2.4540	66.2937
 2.4530	66.4000
 2.4520	66.4867
 2.4510	66.4482
 2.4500	66.5884
 2.4490	66.5671
 2.4480	66.6468
 2.4470	66.6193
 2.4460	66.6541
 2.4450	66.7052
 2.4440	66.8144
 2.4430	66.8472
 2.4420	66.8783
 2.4410	66.8354
 2.4400	66.8851
 2.4390	66.9324
 2.4380	66.9946
 2.4370	67.1009
 2.4360	67.1783
 2.4350	67.1194
 2.4340	67.1431
 2.4330	67.2259
 2.4320	67.3059
 2.4310	67.2807
 2.4300	67.3346
 2.4290	67.3483
 2.4280	67.3608
 2.4270	67.3997
 2.4260	67.4875
 2.4250	67.4613
 2.4240	67.6201
 2.4230	67.6339
 2.4220	67.7486
 2.4210	67.7950
 2.4200	67.8827
 2.4190	67.8736
 2.4180	67.9407
 2.4170	68.0462
 2.4160	68.0760
 2.4150	68.0368
 2.4140	68.1131
 2.4130	68.1571
 2.4120	68.2874
 2.4110	68.2523
 2.4100	68.2923
 2.4090	68.2884
 2.4080	68.3176
 2.4070	68.3680
 2.4060	68.4216
 2.4050	68.5054
 2.4040	68.5380
 2.4030	68.5538
 2.4020	68.6652
 2.4010	68.5906
 2.4000	68.5807
 2.3990	68.6292
 2.3980	68.7033
 2.3970	68.7464
 2.3960	68.7890
 2.3950	68.8188
 2.3940	68.8353
 2.3930	68.8497
 2.3920	68.9515
 2.3910	68.9581
 2.3900	68.9833
 2.3890	69.0150
 2.3880	69.0270
 2.3870	69.0605
 2.3860	69.1095
 2.3850	69.1338
 2.3840	69.1967
 2.3830	69.2294
 2.3820	69.2523
 2.3810	69.3017
 2.3800	69.3619
 2.3790	69.3527
 2.3780	69.3730
 2.3770	69.3778
 2.3760	69.3807
 2.3750	69.4335
 2.3740	69.5017
 2.3730	69.5427
 2.3720	69.5083
 2.3710	69.5247
 2.3700	69.5569
 2.3690	69.5479
 2.3680	69.5973
 2.3670	69.6637
 2.3660	69.6920
 2.3650	69.7060
 2.3640	69.7120
 2.3630	69.6867
 2.3620	69.7045
 2.3610	69.7127
 2.3600	69.7143
 2.3590	69.7187
 2.3580	69.7140
 2.3570	69.7831
 2.3560	69.7948
 2.3550	69.6720
 2.3540	69.6216
 2.3530	69.6881
 2.3520	69.7262
 2.3510	69.6772
 2.3500	69.7135
 2.3490	69.7479
 2.3480	69.6935
 2.3470	69.7035
 2.3460	69.6973
 2.3450	69.6725
 2.3440	69.7200
 2.3430	69.7587
 2.3420	69.7210
 2.3410	69.8068
 2.3400	69.8327
 2.3390	69.7830
 2.3380	69.8414
 2.3370	69.8914
 2.3360	69.9048
 2.3350	69.9187
 2.3340	69.9689
 2.3330	70.0419
 2.3320	70.0431
 2.3310	70.0691
 2.3300	70.1488
 2.3290	70.1956
 2.3280	70.2265
 2.3270	70.2925
 2.3260	70.3538
 2.3250	70.3596
 2.3240	70.3994
 2.3230	70.4666
 2.3220	70.4487
 2.3210	70.4716
 2.3200	70.5484
 2.3190	70.5944
 2.3180	70.6497
 2.3170	70.6929
 2.3160	70.6625
 2.3150	70.7422
 2.3140	70.7743
 2.3130	70.7548
 2.3120	70.7932
 2.3110	70.8564
 2.3100	70.8460
 2.3090	70.8912
 2.3080	70.9137
 2.3070	70.9739
 2.3060	70.9670
 2.3050	71.0166
 2.3040	71.0328
 2.3030	71.0990
 2.3020	71.1129
 2.3010	71.1846
 2.3000	71.1852
 2.2990	71.2158
 2.2980	71.2044
 2.2970	71.2759
 2.2960	71.2754
 2.2950	71.2981
 2.2940	71.2998
 2.2930	71.3304
 2.2920	71.3397
 2.2910	71.3787
 2.2900	71.3995
 2.2890	71.4861
 2.2880	71.4907
 2.2870	71.5351
 2.2860	71.5053
 2.2850	71.5602
 2.2840	71.5582
 2.2830	71.6318
 2.2820	71.6407
 2.2810	71.7075
 2.2800	71.7179
 2.2790	71.7149
 2.2780	71.7682
 2.2770	71.7786
 2.2760	71.7780
 2.2750	71.8342
 2.2740	71.8740
 2.2730	71.9239
 2.2720	71.8538
 2.2710	71.9421
 2.2700	71.8849
 2.2690	71.9394
 2.2680	71.9039
 2.2670	71.9459
 2.2660	72.0100
 2.2650	72.0479
 2.2640	71.9422
 2.2630	71.9730
 2.2620	72.0994
 2.2610	72.0383
 2.2600	72.0083
 2.2590	72.0491
 2.2580	71.9684
 2.2570	72.0429
 2.2560	71.9929
 2.2550	71.9881
 2.2540	72.0270
 2.2530	72.0472
 2.2520	72.0154
 2.2510	72.0961
 2.2500	72.0586
 2.2490	72.1146
 2.2480	72.1044
 2.2470	72.1322
 2.2460	72.1374
 2.2450	72.1607
 2.2440	72.1764
 2.2430	72.1972
 2.2420	72.1821
 2.2410	72.1856
 2.2400	72.1655
 2.2390	72.2279
 2.2380	72.1993
 2.2370	72.2513
 2.2360	72.1845
 2.2350	72.2158
 2.2340	72.2112
 2.2330	72.2631
 2.2320	72.1253
 2.2310	72.1674
 2.2300	72.1458
 2.2290	72.2347
 2.2280	72.1982
 2.2270	72.0028
 2.2260	72.0752
 2.2250	72.0470
 2.2240	72.0053
 2.2230	71.9453
 2.2220	71.9013
 2.2210	71.8446
 2.2200	71.7984
 2.2190	71.8194
 2.2180	71.7692
 2.2170	71.6658
 2.2160	71.6171
 2.2150	71.6504
 2.2140	71.5426
 2.2130	71.4967
 2.2120	71.4297
 2.2110	71.3602
 2.2100	71.3357
 2.2090	71.2669
 2.2080	71.2816
 2.2070	71.2514
 2.2060	71.2209
 2.2050	71.1785
 2.2040	71.2237
 2.2030	71.2119
 2.2020	71.2902
 2.2010	71.2888
 2.2000	71.3677
 2.1990	71.3461
 2.1980	71.3273
 2.1970	71.3952
 2.1960	71.4553
 2.1950	71.5529
 2.1940	71.5604
 2.1930	71.6269
 2.1920	71.6838
 2.1910	71.7302
 2.1900	71.8601
 2.1890	71.8760
 2.1880	71.9676
 2.1870	72.1049
 2.1860	72.1230
 2.1850	72.2613
 2.1840	72.3686
 2.1830	72.5219
 2.1820	72.5508
 2.1810	72.6663
 2.1800	72.7192
 2.1790	72.8610
 2.1780	72.9670
 2.1770	73.0226
 2.1760	73.1343
 2.1750	73.2129
 2.1740	73.2861
 2.1730	73.3129
 2.1720	73.4717
 2.1710	73.5781
 2.1700	73.6311
 2.1690	73.6783
 2.1680	73.7527
 2.1670	73.7703
 2.1660	73.7723
 2.1650	73.8659
 2.1640	73.9348
 2.1630	74.0315
 2.1620	74.0718
 2.1610	74.1652
 2.1600	74.1530
 2.1590	74.2010
 2.1580	74.1517
 2.1570	74.3085
 2.1560	74.3359
 2.1550	74.3448
 2.1540	74.4205
 2.1530	74.4618
 2.1520	74.4029
 2.1510	74.4896
 2.1500	74.5207
 2.1490	74.5218
 2.1480	74.4979
 2.1470	74.5189
 2.1460	74.5547
 2.1450	74.5365
 2.1440	74.5196
 2.1430	74.5126
 2.1420	74.4999
 2.1410	74.5769
 2.1400	74.5093
 2.1390	74.4905
 2.1380	74.5033
 2.1370	74.4867
 2.1360	74.4553
 2.1350	74.4293
 2.1340	74.3395
 2.1330	74.3594
 2.1320	74.3480
 2.1310	74.2882
 2.1300	74.2277
 2.1290	74.2716
 2.1280	74.2694
 2.1270	74.2627
 2.1260	74.2325
 2.1250	74.1847
 2.1240	74.1294
 2.1230	74.0738
 2.1220	74.0114
 2.1210	73.9561
 2.1200	73.8834
 2.1190	73.8729
 2.1180	73.8063
 2.1170	73.8125
 2.1160	73.7885
 2.1150	73.7609
 2.1140	73.6831
 2.1130	73.6945
 2.1120	73.6185
 2.1110	73.5958
 2.1100	73.5223
 2.1090	73.4842
 2.1080	73.4365
 2.1070	73.4552
 2.1060	73.4188
 2.1050	73.3562
 2.1040	73.3412
 2.1030	73.2881
 2.1020	73.2346
 2.1010	73.2097
 2.1000	73.1338
 2.0990	73.1989
 2.0980	73.1716
 2.0970	73.1707
 2.0960	73.1792
 2.0950	73.1455
 2.0940	73.1996
 2.0930	73.2319
 2.0920	73.2107
 2.0910	73.2466
 2.0900	73.3029
 2.0890	73.3554
 2.0880	73.3569
 2.0870	73.3188
 2.0860	73.3210
 2.0850	73.3836
 2.0840	73.3719
 2.0830	73.4062
 2.0820	73.4020
 2.0810	73.3974
 2.0800	73.4369
 2.0790	73.4008
 2.0780	73.3632
 2.0770	73.4136
 2.0760	73.4263
 2.0750	73.4570
 2.0740	73.4743
 2.0730	73.4468
 2.0720	73.4340
 2.0710	73.4811
 2.0700	73.4964
 2.0690	73.4731
 2.0680	73.4940
 2.0670	73.5391
 2.0660	73.5535
 2.0650	73.4798
 2.0640	73.4592
 2.0630	73.4900
 2.0620	73.5125
 2.0610	73.5204
 2.0600	73.5165
 2.0590	73.4999
 2.0580	73.4776
 2.0570	73.4243
 2.0560	73.4555
 2.0550	73.5140
 2.0540	73.5140
 2.0530	73.4994
 2.0520	73.4755
 2.0510	73.4623
 2.0500	73.5151
 2.0490	73.5189
 2.0480	73.5483
 2.0470	73.5178
 2.0460	73.5108
 2.0450	73.5441
 2.0440	73.5617
 2.0430	73.5020
 2.0420	73.5101
 2.0410	73.4760
 2.0400	73.4643
 2.0390	73.4531
 2.0380	73.4439
 2.0370	73.4187
 2.0360	73.3859
 2.0350	73.4061
 2.0340	73.4268
 2.0330	73.3835
 2.0320	73.3701
 2.0310	73.3490
 2.0300	73.3366
 2.0290	73.2385
 2.0280	73.2321
 2.0270	73.2007
 2.0260	73.2537
 2.0250	73.2422
 2.0240	73.2247
 2.0230	73.1834
 2.0220	73.1396
 2.0210	73.1348
 2.0200	73.0793
 2.0190	73.0666
 2.0180	73.0258
 2.0170	72.9540
 2.0160	72.9119
 2.0150	72.9013
 2.0140	72.8743
 2.0130	72.8281
 2.0120	72.7870
 2.0110	72.8064
 2.0100	72.7341
 2.0090	72.6684
 2.0080	72.7104
 2.0070	72.6244
 2.0060	72.6534
 2.0050	72.5446
 2.0040	72.5350
 2.0030	72.4351
 2.0020	72.4402
 2.0010	72.4317
 2.0000	72.3120
 1.9990	72.3489
 1.9980	72.3246
 1.9970	72.2568
 1.9960	72.2428
 1.9950	72.1391
 1.9940	72.1016
 1.9930	71.9950
 1.9920	71.9744
 1.9910	71.8805
 1.9900	71.8995
 1.9890	71.8590
 1.9880	71.7815
 1.9870	71.7673
 1.9860	71.8039
 1.9850	71.7077
 1.9840	71.6136
 1.9830	71.6091
 1.9820	71.4959
 1.9810	71.3714
 1.9800	71.4021
 1.9790	71.3823
 1.9780	71.3395
 1.9770	71.2613
 1.9760	71.2488
 1.9750	71.2379
 1.9740	71.1413
 1.9730	71.0901
 1.9720	71.1067
 1.9710	71.0291
 1.9700	70.9594
 1.9690	70.8832
 1.9680	70.8694
 1.9670	70.7740
 1.9660	70.7437
 1.9650	70.7455
 1.9640	70.7273
 1.9630	70.6605
 1.9620	70.6081
 1.9610	70.5622
 1.9600	70.5991
 1.9590	70.4511
 1.9580	70.4144
 1.9570	70.4023
 1.9560	70.3635
 1.9550	70.3483
 1.9540	70.2897
 1.9530	70.2061
 1.9520	70.1538
 1.9510	70.1557
 1.9500	70.1650
 1.9490	70.0292
 1.9480	70.0717
 1.9470	69.9738
 1.9460	69.9596
 1.9450	69.9147
 1.9440	69.8726
 1.9430	69.7680
 1.9420	69.8453
 1.9410	69.7369
 1.9400	69.6821
 1.9390	69.6764
 1.9380	69.6391
 1.9370	69.5149
 1.9360	69.5807
 1.9350	69.4550
 1.9340	69.4038
 1.9330	69.4706
 1.9320	69.3845
 1.9310	69.4086
 1.9300	69.2948
 1.9290	69.2447
 1.9280	69.2938
 1.9270	69.1760
 1.9260	69.0078
 1.9250	69.0852
 1.9240	69.1298
 1.9230	69.0002
 1.9220	68.9489
 1.9210	68.8793
 1.9200	68.9025
 1.9190	68.8684
 1.9180	68.8802
 1.9170	68.8498
 1.9160	68.8607
 1.9150	68.7800
 1.9140	68.8954
 1.9130	68.8320
 1.9120	68.9564
 1.9110	68.9361
 1.9100	68.9951
 1.9090	69.0317
 1.9080	69.1832
 1.9070	69.2807
 1.9060	69.4631
 1.9050	69.5901
 1.9040	69.6933
 1.9030	69.8532
 1.9020	70.2073
 1.9010	70.4159
 1.9000	70.5943
 1.8990	70.8372
 1.8980	71.1163
 1.8970	71.3831
 1.8960	71.5802
 1.8950	71.8601
 1.8940	72.1692
 1.8930	72.3922
 1.8920	72.6673
 1.8910	72.8731
 1.8900	73.0796
 1.8890	73.2864
 1.8880	73.5927
 1.8870	73.6918
 1.8860	73.8480
 1.8850	74.0297
 1.8840	74.2468
 1.8830	74.3039
 1.8820	74.5267
 1.8810	74.5170
 1.8800	74.6372
 1.8790	74.6972
 1.8780	74.8991
 1.8770	74.9439
 1.8760	75.0402
 1.8750	75.0205
 1.8740	75.0958
 1.8730	75.1949
 1.8720	75.2904
 1.8710	75.3316
 1.8700	75.3541
 1.8690	75.4516
 1.8680	75.5069
 1.8670	75.4915
 1.8660	75.6031
 1.8650	75.6587
 1.8640	75.6876
 1.8630	75.7149
 1.8620	75.8415
 1.8610	75.7447
 1.8600	75.8160
 1.8590	75.8159
 1.8580	75.7850
 1.8570	75.8082
 1.8560	75.8220
 1.8550	75.8239
 1.8540	75.8371
 1.8530	75.8906
 1.8520	75.8953
 1.8510	75.8510
 1.8500	75.8629
 1.8490	75.8752
 1.8480	75.9028
 1.8470	75.9527
 1.8460	75.9707
 1.8450	75.9045
 1.8440	75.9135
 1.8430	75.9119
 1.8420	75.9199
 1.8410	75.8824
 1.8400	75.9514
 1.8390	75.9438
 1.8380	75.9305
 1.8370	75.8945
 1.8360	75.9047
 1.8350	75.9592
 1.8340	75.9099
 1.8330	75.8812
 1.8320	75.9604
 1.8310	75.9865
 1.8300	75.9356
 1.8290	75.9117
 1.8280	75.9229
 1.8270	75.9017
 1.8260	75.9840
 1.8250	75.9735
 1.8240	75.9695
 1.8230	75.9391
 1.8220	75.9282
 1.8210	75.9198
 1.8200	75.9224
 1.8190	75.8915
 1.8180	75.8917
 1.8170	75.9412
 1.8160	75.9447
 1.8150	75.9177
 1.8140	75.9140
 1.8130	75.9184
 1.8120	75.9508
 1.8110	75.9540
 1.8100	76.0011
 1.8090	75.9852
 1.8080	75.9798
 1.8070	75.9497
 1.8060	75.9282
 1.8050	75.8979
 1.8040	75.8651
 1.8030	75.9165
 1.8020	75.9709
 1.8010	75.9332
 1.8000	75.9284
 1.7990	75.9695
 1.7980	75.9757
 1.7970	75.8933
 1.7960	75.8648
 1.7950	75.8612
 1.7940	75.8542
 1.7930	75.8943
 1.7920	75.8842
 1.7910	75.8967
 1.7900	75.9000
 1.7890	75.8610
 1.7880	75.8562
 1.7870	75.8504
 1.7860	75.8113
 1.7850	75.8134
 1.7840	75.8217
 1.7830	75.7727
 1.7820	75.7916
 1.7810	75.8406
 1.7800	75.8346
 1.7790	75.8008
 1.7780	75.7865
 1.7770	75.7945
 1.7760	75.8086
 1.7750	75.8052
 1.7740	75.8095
 1.7730	75.7947
 1.7720	75.7486
 1.7710	75.7653
 1.7700	75.7830
 1.7690	75.7696
 1.7680	75.7849
 1.7670	75.8399
 1.7660	75.8126
 1.7650	75.7937
 1.7640	75.7663
 1.7630	75.7888
 1.7620	75.8005
 1.7610	75.7714
 1.7600	75.7684
 1.7590	75.7557
 1.7580	75.7577
 1.7570	75.7662
 1.7560	75.7787
 1.7550	75.7795
 1.7540	75.7785
 1.7530	75.7727
 1.7520	75.7404
 1.7510	75.8028
 1.7500	75.8269
 1.7490	75.7904
 1.7480	75.7676
 1.7470	75.7991
 1.7460	75.7738
 1.7450	75.8618
 1.7440	75.8582
 1.7430	75.8649
 1.7420	75.8584
 1.7410	75.8514
 1.7400	75.8088
 1.7390	75.8216
 1.7380	75.8563
 1.7370	75.9149
 1.7360	75.8534
 1.7350	75.8138
 1.7340	75.7767
 1.7330	75.7737
 1.7320	75.8127
 1.7310	75.8703
 1.7300	75.8502
 1.7290	75.8596
 1.7280	75.8937
 1.7270	75.8671
 1.7260	75.8428
 1.7250	75.8400
 1.7240	75.8406
 1.7230	75.8524
 1.7220	75.8460
 1.7210	75.8205
 1.7200	75.8351
 1.7190	75.8628
 1.7180	75.8115
 1.7170	75.8074
 1.7160	75.8722
 1.7150	75.8748
 1.7140	75.8004
 1.7130	75.9113
 1.7120	75.8966
 1.7110	75.8003
 1.7100	75.8009
 1.7090	75.8516
 1.7080	75.8284
 1.7070	75.8123
 1.7060	75.8102
 1.7050	75.8138
 1.7040	75.7606
 1.7030	75.8605
 1.7020	75.8229
 1.7010	75.7726
 1.7000	75.8044
 1.6990	75.8039
 1.6980	75.7823
 1.6970	75.8313
 1.6960	75.8321
 1.6950	75.7790
 1.6940	75.7243
 1.6930	75.7732
 1.6920	75.7765
 1.6910	75.8035
 1.6900	75.8035
 1.6890	75.7819
 1.6880	75.7120
 1.6870	75.7810
 1.6860	75.7461
 1.6850	75.8120
 1.6840	75.8135
 1.6830	75.7253
 1.6820	75.8000
 1.6810	75.8221
 1.6800	75.7959
 1.6790	75.7988
 1.6780	75.7481
 1.6770	75.7226
 1.6760	75.7652
 1.6750	75.8249
 1.6740	75.7506
 1.6730	75.7432
 1.6720	75.7539
 1.6710	75.7358
 1.6700	75.7655
 1.6690	75.8113
 1.6680	75.6726
 1.6670	75.7158
 1.6660	75.7152
 1.6650	75.7916
 1.6640	75.6921
 1.6630	75.7604
 1.6620	75.7400
 1.6610	75.7489
 1.6600	75.7313
 1.6590	75.7223
 1.6580	75.7152
 1.6570	75.6701
 1.6560	75.6854
 1.6550	75.7454
 1.6540	75.7062
 1.6530	75.7567
 1.6520	75.6445
 1.6510	75.6990
 1.6500	75.6623
 1.6490	75.6586
 1.6480	75.7355
 1.6470	75.7507
 1.6460	75.6998
 1.6450	75.6868
 1.6440	75.6864
 1.6430	75.6620
 1.6420	75.5814
 1.6410	75.6561
 1.6400	75.6860
 1.6390	75.6355
 1.6380	75.6190
 1.6370	75.6762
 1.6360	75.6542
 1.6350	75.7100
 1.6340	75.5874
 1.6330	75.5679
 1.6320	75.6197
 1.6310	75.6370
 1.6300	75.5840
 1.6290	75.6207
 1.6280	75.5250
 1.6270	75.6423
 1.6260	75.5778
 1.6250	75.5927
 1.6240	75.5380
 1.6230	75.5381
 1.6220	75.5314
 1.6210	75.4981
 1.6200	75.5335
 1.6190	75.6272
 1.6180	75.5258
 1.6170	75.5212
 1.6160	75.5560
 1.6150	75.5652
 1.6140	75.4986
 1.6130	75.4952
 1.6120	75.4328
 1.6110	75.4762
 1.6100	75.4462
 1.6090	75.4943
 1.6080	75.4378
 1.6070	75.5701
 1.6060	75.4186
 1.6050	75.4813
 1.6040	75.4104
 1.6030	75.3995
 1.6020	75.4067
 1.6010	75.4600
 1.6000	75.4479
 1.5990	75.4272
 1.5980	75.3761
 1.5970	75.3477
 1.5960	75.3964
 1.5950	75.4145
 1.5940	75.4263
 1.5930	75.3226
 1.5920	75.3093
 1.5910	75.3433
 1.5900	75.3384
 1.5890	75.3180
 1.5880	75.3138
 1.5870	75.2972
 1.5860	75.2421
 1.5850	75.2084
 1.5840	75.2989
 1.5830	75.2412
 1.5820	75.1912
 1.5810	75.2593
 1.5800	75.1517
 1.5790	75.1964
 1.5780	75.1889
 1.5770	75.1764
 1.5760	75.2422
 1.5750	75.1323
 1.5740	75.0723
 1.5730	75.1167
 1.5720	75.1188
 1.5710	75.0799
 1.5700	75.0145
 1.5690	75.1084
 1.5680	75.0590
 1.5670	75.0399
 1.5660	75.0480
 1.5650	75.0545
 1.5640	74.9933
 1.5630	75.0087
 1.5620	74.9634
 1.5610	74.9462
 1.5600	74.9624
 1.5590	74.9551
 1.5580	74.8715
 1.5570	74.8295
 1.5560	74.8685
 1.5550	74.8582
 1.5540	74.7862
 1.5530	74.8631
 1.5520	74.8348
 1.5510	74.8079
 1.5500	74.8010
 1.5490	74.7641
 1.5480	74.7129
 1.5470	74.7466
 1.5460	74.6799
 1.5450	74.7069
 1.5440	74.7622
 1.5430	74.6576
 1.5420	74.5968
 1.5410	74.6008
 1.5400	74.5969
 1.5390	74.5914
 1.5380	74.5929
 1.5370	74.6112
 1.5360	74.5293
 1.5350	74.4902
 1.5340	74.4884
 1.5330	74.4972
 1.5320	74.4704
 1.5310	74.4418
 1.5300	74.4491
 1.5290	74.4709
 1.5280	74.3694
 1.5270	74.3437
 1.5260	74.3539
 1.5250	74.3320
 1.5240	74.2866
 1.5230	74.2922
 1.5220	74.2581
 1.5210	74.1945
 1.5200	74.2447
 1.5190	74.2390
 1.5180	74.1736
 1.5170	74.1353
 1.5160	74.1084
 1.5150	74.0980
 1.5140	74.0774
 1.5130	74.0084
 1.5120	74.0460
 1.5110	74.0535
 1.5100	73.9965
 1.5090	73.9654
 1.5080	73.9562
 1.5070	73.9497
 1.5060	73.9025
 1.5050	73.8858
 1.5040	73.8454
 1.5030	73.7784
 1.5020	73.7566
 1.5010	73.7519
 1.5000	73.7406
 1.4990	73.7207
 1.4980	73.6742
 1.4970	73.6055
 1.4960	73.5996
 1.4950	73.5973
 1.4940	73.6229
 1.4930	73.6121
 1.4920	73.5204
 1.4910	73.4320
 1.4900	73.4427
 1.4890	73.4702
 1.4880	73.4272
 1.4870	73.3353
 1.4860	73.3183
 1.4850	73.3415
 1.4840	73.3327
 1.4830	73.3007
 1.4820	73.2568
 1.4810	73.1890
 1.4800	73.1454
 1.4790	73.1095
 1.4780	73.1344
 1.4770	73.1208
 1.4760	73.0631
 1.4750	73.0240
 1.4740	73.0182
 1.4730	72.9716
 1.4720	72.8575
 1.4710	72.8559
 1.4700	72.8752
 1.4690	72.7630
 1.4680	72.7246
 1.4670	72.7674
 1.4660	72.7549
 1.4650	72.7379
 1.4640	72.6995
 1.4630	72.6167
 1.4620	72.5773
 1.4610	72.5647
 1.4600	72.5813
 1.4590	72.5840
 1.4580	72.5565
 1.4570	72.5372
 1.4560	72.5071
 1.4550	72.5003
 1.4540	72.4723
 1.4530	72.4446
 1.4520	72.4356
 1.4510	72.3539
 1.4500	72.3410
 1.4490	72.3430
 1.4480	72.2936
 1.4470	72.2264
 1.4460	72.1772
 1.4450	72.1648
 1.4440	72.2329
 1.4430	72.1522
 1.4420	72.1243
 1.4410	72.0364
 1.4400	72.0239
 1.4390	71.9541
 1.4380	71.9409
 1.4370	71.8923
 1.4360	71.8691
 1.4350	71.8532
 1.4340	71.7796
 1.4330	71.6760
 1.4320	71.7151
 1.4310	71.5960
 1.4300	71.5276
 1.4290	71.4895
 1.4280	71.4406
 1.4270	71.3033
 1.4260	71.3201
 1.4250	71.2519
 1.4240	71.1858
 1.4230	71.0352
 1.4220	70.9973
 1.4210	70.8806
 1.4200	70.8010
 1.4190	70.6632
 1.4180	70.5864
 1.4170	70.4937
 1.4160	70.3968
 1.4150	70.3276
 1.4140	70.3159
 1.4130	70.2313
 1.4120	70.2272
 1.4110	70.2268
 1.4100	70.2478
 1.4090	70.3066
 1.4080	70.4575
 1.4070	70.4219
 1.4060	70.4845
 1.4050	70.4885
 1.4040	70.6404
 1.4030	70.6067
 1.4020	70.7546
 1.4010	70.7947
 1.4000	70.9135
 1.3990	70.9959
 1.3980	71.0582
 1.3970	71.1266
 1.3960	71.2707
 1.3950	71.3394
 1.3940	71.3898
 1.3930	71.4099
 1.3920	71.6446
 1.3910	71.6983
 1.3900	71.7329
 1.3890	71.8037
 1.3880	71.8858
 1.3870	71.8119
 1.3860	71.8507
 1.3850	71.8972
 1.3840	71.9092
 1.3830	71.8640
 1.3820	71.9071
 1.3810	71.8544
 1.3800	71.8780
 1.3790	71.9154
 1.3780	71.9501
 1.3770	71.8963
 1.3760	71.8101
 1.3750	71.8458
 1.3740	71.9285
 1.3730	71.8503
 1.3720	71.8967
 1.3710	71.8534
 1.3700	71.7616
 1.3690	71.8132
 1.3680	71.7541
 1.3670	71.7864
 1.3660	71.7709
