Name: Tschermigite (NH_4)Al(SO_4)_2.12H_2O
Type: Mineral
Class: Sulfate
Subclass: None
Particle Size: Medium
Sample No.: SO-6A
Owner: JPL
Wavelength Range: VSWIR
Origin: USA, Nevada, Esmeralda County, Silver Peak.
Collection Date: N/A
Description: Particle size was 45-125um.Collected by:  Burminco Original ASTER Spectral Library name was jpl.perkin.mineral.sulfate.none.medium.so06a.spectrum.txt
Measurement: Hemispherical reflectance
First Column: X
Second Column: Y
X Units: Wavelength (micrometers)
Y Units:Reflectance (percent)
First X Value:  2.5000
Last X Value:  0.4000
Number of X Values: 2101
Additional Information: mineral.sulfate.none.medium.vswir.so-6a.jpl.perkin.ancillary.txt

 2.5000	 5.7745
 2.4990	 5.1874
 2.4980	 5.7493
 2.4970	 5.8338
 2.4960	 5.2743
 2.4950	 5.6553
 2.4940	 5.8093
 2.4930	 5.4994
 2.4920	 5.6991
 2.4910	 5.6433
 2.4900	 5.9598
 2.4890	 5.6426
 2.4880	 5.8768
 2.4870	 5.7993
 2.4860	 5.9799
 2.4850	 5.7741
 2.4840	 6.1148
 2.4830	 5.8888
 2.4820	 6.2433
 2.4810	 5.9741
 2.4800	 6.1926
 2.4790	 6.0642
 2.4780	 6.1931
 2.4770	 6.0196
 2.4760	 6.3341
 2.4750	 6.2466
 2.4740	 6.4348
 2.4730	 6.1950
 2.4720	 6.4322
 2.4710	 6.2948
 2.4700	 6.4520
 2.4690	 6.2778
 2.4680	 6.5114
 2.4670	 6.3469
 2.4660	 6.6206
 2.4650	 6.5592
 2.4640	 6.6328
 2.4630	 6.5472
 2.4620	 6.6822
 2.4610	 6.6714
 2.4600	 6.7914
 2.4590	 6.7946
 2.4580	 6.8743
 2.4570	 6.7612
 2.4560	 6.9913
 2.4550	 6.9224
 2.4540	 6.9781
 2.4530	 6.8444
 2.4520	 6.9774
 2.4510	 7.0421
 2.4500	 7.0818
 2.4490	 7.0676
 2.4480	 7.2246
 2.4470	 7.2044
 2.4460	 7.2882
 2.4450	 7.2791
 2.4440	 7.4239
 2.4430	 7.3312
 2.4420	 7.5280
 2.4410	 7.4951
 2.4400	 7.5330
 2.4390	 7.4505
 2.4380	 7.7032
 2.4370	 7.6768
 2.4360	 7.7479
 2.4350	 7.7990
 2.4340	 7.9406
 2.4330	 7.8329
 2.4320	 7.8411
 2.4310	 7.9624
 2.4300	 8.0786
 2.4290	 7.9817
 2.4280	 8.1663
 2.4270	 8.2863
 2.4260	 8.3545
 2.4250	 8.2930
 2.4240	 8.4620
 2.4230	 8.4266
 2.4220	 8.5640
 2.4210	 8.4900
 2.4200	 8.6739
 2.4190	 8.6432
 2.4180	 8.7819
 2.4170	 8.7939
 2.4160	 8.9023
 2.4150	 8.8468
 2.4140	 9.0393
 2.4130	 8.9636
 2.4120	 9.1236
 2.4110	 9.0738
 2.4100	 9.2593
 2.4090	 9.2297
 2.4080	 9.3214
 2.4070	 9.3487
 2.4060	 9.4291
 2.4050	 9.4325
 2.4040	 9.4580
 2.4030	 9.5310
 2.4020	 9.5528
 2.4010	 9.6519
 2.4000	 9.7361
 2.3990	 9.7352
 2.3980	 9.8047
 2.3970	 9.8573
 2.3960	 9.8893
 2.3950	 9.9061
 2.3940	 9.9921
 2.3930	10.0427
 2.3920	10.1003
 2.3910	10.0869
 2.3900	10.1179
 2.3890	10.1546
 2.3880	10.2994
 2.3870	10.2653
 2.3860	10.2782
 2.3850	10.3635
 2.3840	10.3852
 2.3830	10.4151
 2.3820	10.4774
 2.3810	10.5026
 2.3800	10.6117
 2.3790	10.5646
 2.3780	10.6033
 2.3770	10.6722
 2.3760	10.6968
 2.3750	10.7198
 2.3740	10.7545
 2.3730	10.8148
 2.3720	10.8209
 2.3710	10.7776
 2.3700	10.7965
 2.3690	10.8234
 2.3680	10.8672
 2.3670	10.8755
 2.3660	10.8861
 2.3650	10.9527
 2.3640	11.0196
 2.3630	11.0048
 2.3620	10.9939
 2.3610	10.9703
 2.3600	10.9407
 2.3590	11.0035
 2.3580	11.0336
 2.3570	11.0726
 2.3560	11.1101
 2.3550	11.1265
 2.3540	11.1095
 2.3530	11.1139
 2.3520	11.1474
 2.3510	11.1159
 2.3500	11.0952
 2.3490	11.1585
 2.3480	11.1164
 2.3470	11.0968
 2.3460	11.1358
 2.3450	11.1215
 2.3440	11.0758
 2.3430	11.1011
 2.3420	11.1054
 2.3410	11.0722
 2.3400	11.0718
 2.3390	11.1172
 2.3380	11.0673
 2.3370	11.1428
 2.3360	11.1390
 2.3350	11.1215
 2.3340	11.0807
 2.3330	11.0481
 2.3320	11.0379
 2.3310	11.0345
 2.3300	10.9552
 2.3290	11.0668
 2.3280	11.0790
 2.3270	11.0205
 2.3260	10.9888
 2.3250	11.0381
 2.3240	10.9997
 2.3230	11.0089
 2.3220	10.9993
 2.3210	10.9997
 2.3200	10.9068
 2.3190	10.9194
 2.3180	10.9204
 2.3170	10.9683
 2.3160	10.9134
 2.3150	10.8979
 2.3140	10.8738
 2.3130	10.9109
 2.3120	10.9210
 2.3110	10.9007
 2.3100	10.8722
 2.3090	10.9758
 2.3080	10.9342
 2.3070	10.8784
 2.3060	10.8223
 2.3050	10.8778
 2.3040	10.8737
 2.3030	10.9111
 2.3020	10.8440
 2.3010	10.8976
 2.3000	10.8781
 2.2990	10.8749
 2.2980	10.8587
 2.2970	10.8834
 2.2960	10.9603
 2.2950	10.9399
 2.2940	10.8512
 2.2930	10.9099
 2.2920	10.9632
 2.2910	10.9174
 2.2900	10.8482
 2.2890	10.9755
 2.2880	10.8600
 2.2870	10.8666
 2.2860	10.8773
 2.2850	10.8974
 2.2840	10.8777
 2.2830	10.9635
 2.2820	10.9106
 2.2810	10.9633
 2.2800	10.8615
 2.2790	10.9728
 2.2780	10.9113
 2.2770	10.9847
 2.2760	10.9941
 2.2750	10.8582
 2.2740	10.9405
 2.2730	10.9898
 2.2720	10.9543
 2.2710	11.0138
 2.2700	10.8646
 2.2690	10.9234
 2.2680	10.9116
 2.2670	11.0055
 2.2660	10.9508
 2.2650	11.0538
 2.2640	10.9886
 2.2630	10.9892
 2.2620	10.9647
 2.2610	10.9851
 2.2600	10.9599
 2.2590	11.0436
 2.2580	10.8943
 2.2570	11.0624
 2.2560	10.9420
 2.2550	10.9111
 2.2540	10.9453
 2.2530	10.9284
 2.2520	10.9406
 2.2510	11.0007
 2.2500	10.8940
 2.2490	11.0114
 2.2480	10.8818
 2.2470	11.0132
 2.2460	10.9305
 2.2450	10.9276
 2.2440	10.9573
 2.2430	10.8943
 2.2420	10.9085
 2.2410	10.9763
 2.2400	10.8707
 2.2390	10.8465
 2.2380	10.8360
 2.2370	10.9254
 2.2360	10.8465
 2.2350	10.8546
 2.2340	10.8487
 2.2330	10.9589
 2.2320	10.8070
 2.2310	10.9024
 2.2300	10.7591
 2.2290	10.9255
 2.2280	10.8425
 2.2270	10.9259
 2.2260	10.7995
 2.2250	10.8382
 2.2240	10.8277
 2.2230	10.8494
 2.2220	10.8022
 2.2210	10.8147
 2.2200	10.7894
 2.2190	10.7936
 2.2180	10.7159
 2.2170	10.8187
 2.2160	10.6945
 2.2150	10.8511
 2.2140	10.7136
 2.2130	10.8762
 2.2120	10.9089
 2.2110	10.6964
 2.2100	10.8263
 2.2090	10.7910
 2.2080	10.6811
 2.2070	10.8427
 2.2060	10.6810
 2.2050	10.7522
 2.2040	10.7870
 2.2030	10.7630
 2.2020	10.7706
 2.2010	10.7038
 2.2000	10.7315
 2.1990	10.7639
 2.1980	10.6549
 2.1970	10.7560
 2.1960	10.6280
 2.1950	10.7128
 2.1940	10.7405
 2.1930	10.7491
 2.1920	10.6555
 2.1910	10.7571
 2.1900	10.6075
 2.1890	10.7429
 2.1880	10.6229
 2.1870	10.6524
 2.1860	10.6175
 2.1850	10.6485
 2.1840	10.6114
 2.1830	10.5866
 2.1820	10.6235
 2.1810	10.6604
 2.1800	10.5535
 2.1790	10.6603
 2.1780	10.6015
 2.1770	10.6318
 2.1760	10.5560
 2.1750	10.5393
 2.1740	10.5892
 2.1730	10.6738
 2.1720	10.5130
 2.1710	10.5916
 2.1700	10.5741
 2.1690	10.6134
 2.1680	10.5787
 2.1670	10.5555
 2.1660	10.5555
 2.1650	10.5838
 2.1640	10.5568
 2.1630	10.5618
 2.1620	10.5357
 2.1610	10.5977
 2.1600	10.5247
 2.1590	10.5532
 2.1580	10.5484
 2.1570	10.5582
 2.1560	10.5122
 2.1550	10.6457
 2.1540	10.6107
 2.1530	10.5582
 2.1520	10.5412
 2.1510	10.6130
 2.1500	10.5627
 2.1490	10.5583
 2.1480	10.5921
 2.1470	10.6371
 2.1460	10.5862
 2.1450	10.6849
 2.1440	10.6236
 2.1430	10.6564
 2.1420	10.7008
 2.1410	10.6723
 2.1400	10.6407
 2.1390	10.7084
 2.1380	10.6959
 2.1370	10.7768
 2.1360	10.7485
 2.1350	10.7426
 2.1340	10.7530
 2.1330	10.8116
 2.1320	10.7733
 2.1310	10.8272
 2.1300	10.8011
 2.1290	10.8414
 2.1280	10.7918
 2.1270	10.8764
 2.1260	10.8666
 2.1250	10.9522
 2.1240	10.9045
 2.1230	10.8784
 2.1220	10.8798
 2.1210	10.9660
 2.1200	10.9667
 2.1190	10.9977
 2.1180	10.9406
 2.1170	10.9992
 2.1160	11.0137
 2.1150	11.0302
 2.1140	11.0089
 2.1130	11.0457
 2.1120	11.0059
 2.1110	11.0154
 2.1100	11.0820
 2.1090	11.1069
 2.1080	11.0851
 2.1070	11.0822
 2.1060	11.0865
 2.1050	11.1249
 2.1040	11.1020
 2.1030	11.1501
 2.1020	11.1489
 2.1010	11.1995
 2.1000	11.1457
 2.0990	11.1211
 2.0980	11.1744
 2.0970	11.2509
 2.0960	11.2033
 2.0950	11.1273
 2.0940	11.1936
 2.0930	11.2669
 2.0920	11.2718
 2.0910	11.2872
 2.0900	11.3207
 2.0890	11.3071
 2.0880	11.2822
 2.0870	11.3245
 2.0860	11.3336
 2.0850	11.3214
 2.0840	11.3373
 2.0830	11.3568
 2.0820	11.3569
 2.0810	11.3111
 2.0800	11.2870
 2.0790	11.3363
 2.0780	11.3276
 2.0770	11.3691
 2.0760	11.3654
 2.0750	11.3883
 2.0740	11.4407
 2.0730	11.4011
 2.0720	11.3866
 2.0710	11.3958
 2.0700	11.3631
 2.0690	11.3548
 2.0680	11.3653
 2.0670	11.4048
 2.0660	11.3983
 2.0650	11.3741
 2.0640	11.4039
 2.0630	11.3662
 2.0620	11.3501
 2.0610	11.3944
 2.0600	11.3766
 2.0590	11.2977
 2.0580	11.3118
 2.0570	11.3893
 2.0560	11.3567
 2.0550	11.3111
 2.0540	11.2942
 2.0530	11.2505
 2.0520	11.3160
 2.0510	11.2826
 2.0500	11.2477
 2.0490	11.2104
 2.0480	11.1580
 2.0470	11.1108
 2.0460	11.0692
 2.0450	11.0677
 2.0440	11.0603
 2.0430	10.9778
 2.0420	10.9253
 2.0410	10.9032
 2.0400	10.9214
 2.0390	10.8303
 2.0380	10.7422
 2.0370	10.7397
 2.0360	10.6232
 2.0350	10.5461
 2.0340	10.5144
 2.0330	10.4350
 2.0320	10.3277
 2.0310	10.2887
 2.0300	10.2594
 2.0290	10.1456
 2.0280	10.0881
 2.0270	 9.9712
 2.0260	 9.8932
 2.0250	 9.8228
 2.0240	 9.8045
 2.0230	 9.7021
 2.0220	 9.6311
 2.0210	 9.5146
 2.0200	 9.4437
 2.0190	 9.3112
 2.0180	 9.3270
 2.0170	 9.2002
 2.0160	 9.1411
 2.0150	 9.0005
 2.0140	 8.8894
 2.0130	 8.7665
 2.0120	 8.7738
 2.0110	 8.6797
 2.0100	 8.6149
 2.0090	 8.4839
 2.0080	 8.4424
 2.0070	 8.3109
 2.0060	 8.3006
 2.0050	 8.1775
 2.0040	 8.0803
 2.0030	 8.0592
 2.0020	 8.1187
 2.0010	 7.9349
 2.0000	 7.9198
 1.9990	 7.8653
 1.9980	 7.7814
 1.9970	 7.7734
 1.9960	 7.7575
 1.9950	 7.6060
 1.9940	 7.6419
 1.9930	 7.5777
 1.9920	 7.6124
 1.9910	 7.5728
 1.9900	 7.5213
 1.9890	 7.5164
 1.9880	 7.5649
 1.9870	 7.4435
 1.9860	 7.4586
 1.9850	 7.3779
 1.9840	 7.5228
 1.9830	 7.4724
 1.9820	 7.4570
 1.9810	 7.4014
 1.9800	 7.4415
 1.9790	 7.4391
 1.9780	 7.4686
 1.9770	 7.4927
 1.9760	 7.5578
 1.9750	 7.5130
 1.9740	 7.5195
 1.9730	 7.5475
 1.9720	 7.5853
 1.9710	 7.5285
 1.9700	 7.6367
 1.9690	 7.6566
 1.9680	 7.7390
 1.9670	 7.6754
 1.9660	 7.6540
 1.9650	 7.7322
 1.9640	 7.8331
 1.9630	 7.7360
 1.9620	 7.8253
 1.9610	 7.7766
 1.9600	 7.9269
 1.9590	 7.9055
 1.9580	 8.0613
 1.9570	 7.9770
 1.9560	 8.0416
 1.9550	 7.9946
 1.9540	 8.1877
 1.9530	 8.0690
 1.9520	 8.2744
 1.9510	 8.2362
 1.9500	 8.3141
 1.9490	 8.3271
 1.9480	 8.3693
 1.9470	 8.4462
 1.9460	 8.6495
 1.9450	 8.5545
 1.9440	 8.6913
 1.9430	 8.7551
 1.9420	 8.8498
 1.9410	 8.8777
 1.9400	 8.9793
 1.9390	 8.9831
 1.9380	 9.2387
 1.9370	 9.0663
 1.9360	 9.3529
 1.9350	 9.2626
 1.9340	 9.6101
 1.9330	 9.5900
 1.9320	 9.7733
 1.9310	 9.8224
 1.9300	 9.9611
 1.9290	 9.9838
 1.9280	10.1634
 1.9270	10.3763
 1.9260	10.3875
 1.9250	10.6421
 1.9240	10.6965
 1.9230	10.9291
 1.9220	11.0086
 1.9210	11.1596
 1.9200	11.3514
 1.9190	11.3158
 1.9180	11.7036
 1.9170	11.7728
 1.9160	11.9900
 1.9150	12.0221
 1.9140	12.2747
 1.9130	12.3505
 1.9120	12.5933
 1.9110	12.6956
 1.9100	12.8771
 1.9090	13.0334
 1.9080	13.1614
 1.9070	13.2502
 1.9060	13.5129
 1.9050	13.6130
 1.9040	13.8560
 1.9030	14.0205
 1.9020	14.1654
 1.9010	14.1674
 1.9000	14.5061
 1.8990	14.5437
 1.8980	14.7983
 1.8970	14.8140
 1.8960	15.0837
 1.8950	15.1877
 1.8940	15.3943
 1.8930	15.4275
 1.8920	15.6160
 1.8910	15.6587
 1.8900	15.7786
 1.8890	15.8741
 1.8880	16.0449
 1.8870	16.0614
 1.8860	16.1907
 1.8850	16.2827
 1.8840	16.4075
 1.8830	16.4403
 1.8820	16.6606
 1.8810	16.6439
 1.8800	16.7814
 1.8790	16.8497
 1.8780	17.0019
 1.8770	17.0123
 1.8760	17.1404
 1.8750	17.2059
 1.8740	17.2893
 1.8730	17.3154
 1.8720	17.4449
 1.8710	17.3998
 1.8700	17.5711
 1.8690	17.5994
 1.8680	17.6751
 1.8670	17.7228
 1.8660	17.7842
 1.8650	17.8807
 1.8640	17.9202
 1.8630	17.9517
 1.8620	18.0363
 1.8610	18.0808
 1.8600	18.1737
 1.8590	18.1459
 1.8580	18.2541
 1.8570	18.2711
 1.8560	18.3757
 1.8550	18.3702
 1.8540	18.4094
 1.8530	18.4510
 1.8520	18.5421
 1.8510	18.5376
 1.8500	18.5870
 1.8490	18.5691
 1.8480	18.6325
 1.8470	18.6650
 1.8460	18.7127
 1.8450	18.7189
 1.8440	18.7593
 1.8430	18.8079
 1.8420	18.8017
 1.8410	18.7940
 1.8400	18.8797
 1.8390	18.8598
 1.8380	18.9116
 1.8370	18.8983
 1.8360	18.9208
 1.8350	18.8986
 1.8340	18.9162
 1.8330	18.9621
 1.8320	18.9538
 1.8310	18.9198
 1.8300	18.9805
 1.8290	19.0098
 1.8280	19.0189
 1.8270	18.9535
 1.8260	19.0297
 1.8250	19.0731
 1.8240	19.0487
 1.8230	19.0285
 1.8220	19.0027
 1.8210	19.0444
 1.8200	19.0629
 1.8190	19.0567
 1.8180	19.1239
 1.8170	19.0617
 1.8160	19.1158
 1.8150	19.1083
 1.8140	19.1247
 1.8130	19.1013
 1.8120	19.1184
 1.8110	19.1645
 1.8100	19.1540
 1.8090	19.1568
 1.8080	19.1533
 1.8070	19.1361
 1.8060	19.1951
 1.8050	19.2344
 1.8040	19.2481
 1.8030	19.2050
 1.8020	19.2466
 1.8010	19.2774
 1.8000	19.3471
 1.7990	19.4256
 1.7980	19.3763
 1.7970	19.3598
 1.7960	19.4182
 1.7950	19.4498
 1.7940	19.4509
 1.7930	19.4844
 1.7920	19.5457
 1.7910	19.6112
 1.7900	19.6734
 1.7890	19.6942
 1.7880	19.7524
 1.7870	19.7486
 1.7860	19.7834
 1.7850	19.8495
 1.7840	19.9191
 1.7830	20.0057
 1.7820	20.0375
 1.7810	20.0178
 1.7800	20.0677
 1.7790	20.1951
 1.7780	20.2304
 1.7770	20.2813
 1.7760	20.3648
 1.7750	20.4224
 1.7740	20.4971
 1.7730	20.5624
 1.7720	20.5579
 1.7710	20.6331
 1.7700	20.6881
 1.7690	20.7766
 1.7680	20.8077
 1.7670	20.8675
 1.7660	20.9609
 1.7650	21.0065
 1.7640	21.0433
 1.7630	21.1765
 1.7620	21.2414
 1.7610	21.2832
 1.7600	21.3696
 1.7590	21.4410
 1.7580	21.4630
 1.7570	21.5584
 1.7560	21.6243
 1.7550	21.7144
 1.7540	21.7710
 1.7530	21.9005
 1.7520	21.9177
 1.7510	21.9913
 1.7500	22.0825
 1.7490	22.1464
 1.7480	22.1933
 1.7470	22.3319
 1.7460	22.3389
 1.7450	22.3697
 1.7440	22.4355
 1.7430	22.5742
 1.7420	22.6927
 1.7410	22.7539
 1.7400	22.7627
 1.7390	22.8245
 1.7380	22.9364
 1.7370	23.0070
 1.7360	23.0329
 1.7350	23.1098
 1.7340	23.1330
 1.7330	23.2563
 1.7320	23.3669
 1.7310	23.4533
 1.7300	23.5076
 1.7290	23.6024
 1.7280	23.6591
 1.7270	23.7738
 1.7260	23.8434
 1.7250	23.9124
 1.7240	23.9699
 1.7230	24.0734
 1.7220	24.1708
 1.7210	24.2960
 1.7200	24.3263
 1.7190	24.4024
 1.7180	24.3831
 1.7170	24.5305
 1.7160	24.5816
 1.7150	24.7418
 1.7140	24.8011
 1.7130	24.9468
 1.7120	24.9898
 1.7110	25.0522
 1.7100	25.1052
 1.7090	25.2842
 1.7080	25.4125
 1.7070	25.4585
 1.7060	25.4882
 1.7050	25.6028
 1.7040	25.6336
 1.7030	25.7917
 1.7020	25.9014
 1.7010	26.0154
 1.7000	26.0043
 1.6990	26.1672
 1.6980	26.1440
 1.6970	26.3781
 1.6960	26.3902
 1.6950	26.5524
 1.6940	26.5999
 1.6930	26.6752
 1.6920	26.7379
 1.6910	26.8830
 1.6900	26.9831
 1.6890	27.1135
 1.6880	27.1559
 1.6870	27.2901
 1.6860	27.3485
 1.6850	27.5102
 1.6840	27.4920
 1.6830	27.6077
 1.6820	27.7299
 1.6810	27.7893
 1.6800	27.8268
 1.6790	28.0076
 1.6780	28.0364
 1.6770	28.1672
 1.6760	28.1784
 1.6750	28.3471
 1.6740	28.3530
 1.6730	28.4573
 1.6720	28.4352
 1.6710	28.6570
 1.6700	28.7686
 1.6690	28.9041
 1.6680	28.7041
 1.6670	29.0362
 1.6660	28.9063
 1.6650	29.1264
 1.6640	29.0594
 1.6630	29.2510
 1.6620	29.3198
 1.6610	29.4228
 1.6600	29.3575
 1.6590	29.5539
 1.6580	29.4938
 1.6570	29.6180
 1.6560	29.6509
 1.6550	29.7652
 1.6540	29.7024
 1.6530	29.9654
 1.6520	29.9074
 1.6510	29.9916
 1.6500	30.0016
 1.6490	30.1031
 1.6480	30.0625
 1.6470	30.1408
 1.6460	30.2551
 1.6450	30.3375
 1.6440	30.2208
 1.6430	30.4148
 1.6420	30.5823
 1.6410	30.4142
 1.6400	30.5310
 1.6390	30.5761
 1.6380	30.6016
 1.6370	30.7089
 1.6360	30.5919
 1.6350	30.7983
 1.6340	30.7438
 1.6330	30.8619
 1.6320	30.9059
 1.6310	30.9493
 1.6300	30.9802
 1.6290	30.9716
 1.6280	30.9515
 1.6270	31.0217
 1.6260	31.0782
 1.6250	31.1657
 1.6240	31.1171
 1.6230	31.2259
 1.6220	31.2067
 1.6210	31.3051
 1.6200	31.2450
 1.6190	31.3092
 1.6180	31.2847
 1.6170	31.3923
 1.6160	31.3544
 1.6150	31.4278
 1.6140	31.3828
 1.6130	31.5440
 1.6120	31.4204
 1.6110	31.5633
 1.6100	31.4816
 1.6090	31.6011
 1.6080	31.5206
 1.6070	31.6047
 1.6060	31.5507
 1.6050	31.6408
 1.6040	31.6764
 1.6030	31.6909
 1.6020	31.7202
 1.6010	31.6570
 1.6000	31.6918
 1.5990	31.7146
 1.5980	31.7227
 1.5970	31.7371
 1.5960	31.7218
 1.5950	31.8472
 1.5940	31.8093
 1.5930	31.8152
 1.5920	31.7671
 1.5910	31.8546
 1.5900	31.7558
 1.5890	31.8074
 1.5880	31.8180
 1.5870	31.8992
 1.5860	31.8312
 1.5850	31.9010
 1.5840	31.9236
 1.5830	31.9288
 1.5820	31.8608
 1.5810	31.8513
 1.5800	31.8580
 1.5790	31.9027
 1.5780	31.9792
 1.5770	31.9440
 1.5760	31.9830
 1.5750	32.0233
 1.5740	31.9891
 1.5730	32.0334
 1.5720	32.0437
 1.5710	32.0808
 1.5700	31.9875
 1.5690	32.0572
 1.5680	31.9776
 1.5670	32.1537
 1.5660	32.1439
 1.5650	32.1760
 1.5640	32.1020
 1.5630	32.1532
 1.5620	32.1587
 1.5610	32.2448
 1.5600	32.2530
 1.5590	32.3262
 1.5580	32.3695
 1.5570	32.4291
 1.5560	32.3872
 1.5550	32.4864
 1.5540	32.6010
 1.5530	32.6328
 1.5520	32.6637
 1.5510	32.7354
 1.5500	32.7597
 1.5490	32.7892
 1.5480	32.8576
 1.5470	32.9709
 1.5460	33.0239
 1.5450	33.0894
 1.5440	33.1739
 1.5430	33.3110
 1.5420	33.3459
 1.5410	33.4203
 1.5400	33.4699
 1.5390	33.5645
 1.5380	33.6225
 1.5370	33.7211
 1.5360	33.7666
 1.5350	33.8536
 1.5340	33.9715
 1.5330	34.1186
 1.5320	34.1790
 1.5310	34.3185
 1.5300	34.4180
 1.5290	34.4927
 1.5280	34.5654
 1.5270	34.6846
 1.5260	34.7434
 1.5250	34.8646
 1.5240	34.9315
 1.5230	35.0014
 1.5220	35.1303
 1.5210	35.2302
 1.5200	35.3071
 1.5190	35.3474
 1.5180	35.4303
 1.5170	35.5427
 1.5160	35.6527
 1.5150	35.7481
 1.5140	35.8448
 1.5130	35.9563
 1.5120	35.9761
 1.5110	35.9744
 1.5100	36.0508
 1.5090	36.1114
 1.5080	36.1181
 1.5070	36.1618
 1.5060	36.1678
 1.5050	36.2099
 1.5040	36.2373
 1.5030	36.2541
 1.5020	36.2815
 1.5010	36.3066
 1.5000	36.2878
 1.4990	36.2548
 1.4980	36.2465
 1.4970	36.1821
 1.4960	36.1149
 1.4950	36.1054
 1.4940	36.1043
 1.4930	36.0476
 1.4920	35.9973
 1.4910	35.9554
 1.4900	35.9101
 1.4890	35.8536
 1.4880	35.8579
 1.4870	35.8073
 1.4860	35.7715
 1.4850	35.8058
 1.4840	35.8563
 1.4830	35.8031
 1.4820	35.7853
 1.4810	35.7772
 1.4800	35.8400
 1.4790	35.8998
 1.4780	35.9352
 1.4770	36.0126
 1.4760	36.0865
 1.4750	36.2072
 1.4740	36.3551
 1.4730	36.4225
 1.4720	36.4758
 1.4710	36.5739
 1.4700	36.7503
 1.4690	36.8601
 1.4680	37.0423
 1.4670	37.1860
 1.4660	37.3387
 1.4650	37.5247
 1.4640	37.6401
 1.4630	37.7782
 1.4620	38.0103
 1.4610	38.2524
 1.4600	38.4331
 1.4590	38.6297
 1.4580	38.9074
 1.4570	39.1464
 1.4560	39.3446
 1.4550	39.5563
 1.4540	39.8364
 1.4530	40.1806
 1.4520	40.4894
 1.4510	40.7949
 1.4500	41.1524
 1.4490	41.5478
 1.4480	41.9362
 1.4470	42.2775
 1.4460	42.7601
 1.4450	43.1914
 1.4440	43.6980
 1.4430	44.1243
 1.4420	44.6171
 1.4410	45.1246
 1.4400	45.6521
 1.4390	46.1468
 1.4380	46.6433
 1.4370	47.1234
 1.4360	47.6903
 1.4350	48.1782
 1.4340	48.6997
 1.4330	49.2557
 1.4320	49.8561
 1.4310	50.4108
 1.4300	51.0214
 1.4290	51.4634
 1.4280	51.9597
 1.4270	52.4986
 1.4260	53.0339
 1.4250	53.5238
 1.4240	54.0641
 1.4230	54.5689
 1.4220	55.0539
 1.4210	55.5187
 1.4200	56.1341
 1.4190	56.4899
 1.4180	56.9602
 1.4170	57.4567
 1.4160	57.9074
 1.4150	58.3358
 1.4140	58.7924
 1.4130	59.2242
 1.4120	59.5862
 1.4110	59.9564
 1.4100	60.4213
 1.4090	60.8136
 1.4080	61.0658
 1.4070	61.4274
 1.4060	61.7540
 1.4050	62.0243
 1.4040	62.4332
 1.4030	62.7635
 1.4020	62.9739
 1.4010	63.2469
 1.4000	63.4695
 1.3990	63.6583
 1.3980	63.8975
 1.3970	64.1650
 1.3960	64.3810
 1.3950	64.4975
 1.3940	64.7851
 1.3930	64.8172
 1.3920	65.0130
 1.3910	65.1987
 1.3900	65.3282
 1.3890	65.4588
 1.3880	65.5449
 1.3870	65.6317
 1.3860	65.7518
 1.3850	65.7121
 1.3840	65.9184
 1.3830	65.9613
 1.3820	66.0494
 1.3810	66.0999
 1.3800	66.2344
 1.3790	66.2788
 1.3780	66.4158
 1.3770	66.4393
 1.3760	66.5093
 1.3750	66.5157
 1.3740	66.6609
 1.3730	66.6383
 1.3720	66.7111
 1.3710	66.7875
 1.3700	66.8182
 1.3690	66.9080
 1.3680	67.0155
 1.3670	67.0890
