Name: Chalcopyrite CuFeS_2
Type: Mineral
Class: Sulfide
Subclass: None
Particle Size: Fine
Sample No.: S-4A
Owner: JPL
Wavelength Range: VSWIR
Origin: Canada, Quebec, Rouyn District.
Collection Date: N/A
Description: Particle size was 0-45um. Collected by:  JPL Original ASTER Spectral Library name was jpl.perkin.mineral.sulfide.none.fine.s04a.spectrum.txt
Measurement: Hemispherical reflectance
First Column: X
Second Column: Y
X Units: Wavelength (micrometers)
Y Units:Reflectance (percent)
First X Value:  2.5000
Last X Value:  0.4000
Number of X Values: 2101
Additional Information: mineral.sulfide.none.fine.vswir.s-4a.jpl.perkin.ancillary.txt

 2.5000	19.0505
 2.4990	19.5664
 2.4980	19.9410
 2.4970	19.7352
 2.4960	19.1853
 2.4950	19.2617
 2.4940	19.6755
 2.4930	19.5840
 2.4920	19.9323
 2.4910	19.4338
 2.4900	20.2720
 2.4890	19.2210
 2.4880	19.8234
 2.4870	19.7582
 2.4860	19.3909
 2.4850	19.8181
 2.4840	19.8093
 2.4830	19.2744
 2.4820	20.0222
 2.4810	19.9924
 2.4800	20.0142
 2.4790	19.5991
 2.4780	19.6559
 2.4770	19.8790
 2.4760	19.6487
 2.4750	19.1969
 2.4740	20.1203
 2.4730	19.4796
 2.4720	19.7034
 2.4710	19.1626
 2.4700	19.6211
 2.4690	19.4600
 2.4680	19.9592
 2.4670	19.2381
 2.4660	19.7311
 2.4650	19.6074
 2.4640	19.9991
 2.4630	19.2304
 2.4620	19.7487
 2.4610	19.4818
 2.4600	19.8550
 2.4590	19.4933
 2.4580	19.7538
 2.4570	19.1531
 2.4560	19.4710
 2.4550	19.6531
 2.4540	19.9167
 2.4530	19.3385
 2.4520	19.7126
 2.4510	19.4780
 2.4500	19.7272
 2.4490	19.2306
 2.4480	20.0921
 2.4470	19.5754
 2.4460	19.5106
 2.4450	19.6183
 2.4440	19.8520
 2.4430	19.7164
 2.4420	19.8896
 2.4410	19.5666
 2.4400	19.6547
 2.4390	19.5395
 2.4380	19.6576
 2.4370	19.4121
 2.4360	19.5999
 2.4350	19.3789
 2.4340	19.5585
 2.4330	19.5678
 2.4320	19.6148
 2.4310	19.7198
 2.4300	19.8238
 2.4290	19.5924
 2.4280	20.0117
 2.4270	19.4303
 2.4260	19.6831
 2.4250	19.4603
 2.4240	19.6827
 2.4230	19.4363
 2.4220	19.7665
 2.4210	19.6829
 2.4200	19.6691
 2.4190	19.4013
 2.4180	19.3357
 2.4170	19.3943
 2.4160	19.5505
 2.4150	19.4109
 2.4140	19.7145
 2.4130	19.3969
 2.4120	19.6811
 2.4110	19.5018
 2.4100	19.8635
 2.4090	19.5431
 2.4080	19.6938
 2.4070	19.5865
 2.4060	19.6003
 2.4050	19.4720
 2.4040	19.7235
 2.4030	19.5635
 2.4020	19.5833
 2.4010	19.4626
 2.4000	19.7273
 2.3990	19.6407
 2.3980	19.6693
 2.3970	19.3016
 2.3960	19.6073
 2.3950	19.5271
 2.3940	19.5049
 2.3930	19.4543
 2.3920	19.5853
 2.3910	19.5339
 2.3900	19.7264
 2.3890	19.5257
 2.3880	19.5733
 2.3870	19.4631
 2.3860	19.5084
 2.3850	19.5874
 2.3840	19.7001
 2.3830	19.5501
 2.3820	19.7257
 2.3810	19.6475
 2.3800	19.6281
 2.3790	19.5190
 2.3780	19.4882
 2.3770	19.5500
 2.3760	19.6616
 2.3750	19.6513
 2.3740	19.6951
 2.3730	19.5062
 2.3720	19.3935
 2.3710	19.3996
 2.3700	19.3833
 2.3690	19.4071
 2.3680	19.5979
 2.3670	19.6253
 2.3660	19.5605
 2.3650	19.5841
 2.3640	19.6197
 2.3630	19.5212
 2.3620	19.5771
 2.3610	19.4569
 2.3600	19.5234
 2.3590	19.4900
 2.3580	19.5128
 2.3570	19.4618
 2.3560	19.2782
 2.3550	19.3256
 2.3540	19.4857
 2.3530	19.6521
 2.3520	19.6710
 2.3510	19.6620
 2.3500	19.5097
 2.3490	19.3967
 2.3480	19.3707
 2.3470	19.3593
 2.3460	19.3231
 2.3450	19.4245
 2.3440	19.4368
 2.3430	19.4598
 2.3420	19.4640
 2.3410	19.5857
 2.3400	19.4259
 2.3390	19.3471
 2.3380	19.3530
 2.3370	19.4664
 2.3360	19.5428
 2.3350	19.5343
 2.3340	19.2661
 2.3330	19.2105
 2.3320	19.3362
 2.3310	19.4861
 2.3300	19.2811
 2.3290	19.4361
 2.3280	19.4184
 2.3270	19.5169
 2.3260	19.4103
 2.3250	19.4208
 2.3240	19.3871
 2.3230	19.3618
 2.3220	19.2702
 2.3210	19.4159
 2.3200	19.2511
 2.3190	19.3637
 2.3180	19.3646
 2.3170	19.4463
 2.3160	19.3823
 2.3150	19.3332
 2.3140	19.3588
 2.3130	19.3930
 2.3120	19.3703
 2.3110	19.4158
 2.3100	19.1183
 2.3090	19.3695
 2.3080	19.2332
 2.3070	19.4628
 2.3060	19.2478
 2.3050	19.3392
 2.3040	19.2729
 2.3030	19.1855
 2.3020	19.0120
 2.3010	19.4284
 2.3000	19.2058
 2.2990	19.2826
 2.2980	19.1907
 2.2970	19.2443
 2.2960	19.1668
 2.2950	19.2474
 2.2940	19.1976
 2.2930	19.5052
 2.2920	19.2262
 2.2910	19.4218
 2.2900	19.1229
 2.2890	19.2371
 2.2880	19.0283
 2.2870	19.3221
 2.2860	19.0542
 2.2850	19.2766
 2.2840	19.0376
 2.2830	19.2730
 2.2820	19.0778
 2.2810	19.4320
 2.2800	19.2231
 2.2790	19.3816
 2.2780	19.1327
 2.2770	19.4024
 2.2760	19.1033
 2.2750	19.3529
 2.2740	19.0361
 2.2730	19.3752
 2.2720	19.0302
 2.2710	19.4195
 2.2700	18.9578
 2.2690	19.1010
 2.2680	19.0675
 2.2670	19.2832
 2.2660	19.1339
 2.2650	19.4176
 2.2640	18.9869
 2.2630	19.2418
 2.2620	18.7715
 2.2610	19.3146
 2.2600	19.1341
 2.2590	19.1247
 2.2580	19.1670
 2.2570	19.2233
 2.2560	19.0277
 2.2550	19.3843
 2.2540	18.9560
 2.2530	19.2691
 2.2520	18.8751
 2.2510	19.3171
 2.2500	19.1182
 2.2490	19.1910
 2.2480	18.9971
 2.2470	19.5617
 2.2460	19.1376
 2.2450	19.1439
 2.2440	19.1014
 2.2430	19.3210
 2.2420	18.8543
 2.2410	19.3293
 2.2400	18.9293
 2.2390	19.2152
 2.2380	18.8912
 2.2370	19.3982
 2.2360	18.9503
 2.2350	19.1774
 2.2340	18.9129
 2.2330	19.2493
 2.2320	19.0041
 2.2310	19.3852
 2.2300	18.9796
 2.2290	19.3002
 2.2280	18.9674
 2.2270	19.1382
 2.2260	18.8562
 2.2250	19.1581
 2.2240	19.0694
 2.2230	19.2879
 2.2220	19.0176
 2.2210	19.4197
 2.2200	18.9729
 2.2190	19.2991
 2.2180	18.9214
 2.2170	19.4051
 2.2160	19.0171
 2.2150	19.3555
 2.2140	18.8934
 2.2130	19.3228
 2.2120	19.0659
 2.2110	18.9717
 2.2100	19.0802
 2.2090	19.1745
 2.2080	18.8953
 2.2070	19.3121
 2.2060	19.0855
 2.2050	19.5890
 2.2040	18.8299
 2.2030	19.4045
 2.2020	18.9343
 2.2010	19.1017
 2.2000	19.0404
 2.1990	19.4961
 2.1980	19.0634
 2.1970	19.3175
 2.1960	18.9953
 2.1950	19.2299
 2.1940	18.9376
 2.1930	19.1263
 2.1920	19.1582
 2.1910	19.1391
 2.1900	19.1847
 2.1890	19.3695
 2.1880	19.0446
 2.1870	19.4832
 2.1860	19.0300
 2.1850	19.4188
 2.1840	18.8916
 2.1830	19.5804
 2.1820	18.7777
 2.1810	19.3421
 2.1800	18.8774
 2.1790	19.4325
 2.1780	18.9999
 2.1770	19.3024
 2.1760	19.1221
 2.1750	19.3630
 2.1740	18.9904
 2.1730	19.2859
 2.1720	19.0207
 2.1710	19.3079
 2.1700	19.1237
 2.1690	19.3473
 2.1680	19.0363
 2.1670	19.4709
 2.1660	19.1029
 2.1650	19.4701
 2.1640	18.9030
 2.1630	19.0931
 2.1620	19.2023
 2.1610	19.1104
 2.1600	18.9371
 2.1590	19.2874
 2.1580	18.8117
 2.1570	19.1731
 2.1560	19.2436
 2.1550	19.3113
 2.1540	19.0088
 2.1530	19.4081
 2.1520	19.2827
 2.1510	19.4412
 2.1500	18.9606
 2.1490	19.3740
 2.1480	19.0872
 2.1470	19.2441
 2.1460	19.2626
 2.1450	19.2065
 2.1440	19.3630
 2.1430	19.3626
 2.1420	19.0372
 2.1410	19.4713
 2.1400	19.1585
 2.1390	19.4004
 2.1380	19.2698
 2.1370	19.2650
 2.1360	19.2747
 2.1350	19.5146
 2.1340	19.1534
 2.1330	19.3597
 2.1320	19.1231
 2.1310	19.2880
 2.1300	19.0563
 2.1290	19.3334
 2.1280	19.0989
 2.1270	19.1297
 2.1260	19.1769
 2.1250	19.4571
 2.1240	19.0430
 2.1230	19.3188
 2.1220	19.1844
 2.1210	19.4007
 2.1200	19.2519
 2.1190	19.3258
 2.1180	18.9446
 2.1170	19.1761
 2.1160	19.0895
 2.1150	19.3402
 2.1140	19.1383
 2.1130	19.4092
 2.1120	19.2113
 2.1110	19.3428
 2.1100	18.9736
 2.1090	19.3235
 2.1080	19.3992
 2.1070	19.4049
 2.1060	19.1700
 2.1050	19.2575
 2.1040	19.0650
 2.1030	19.0862
 2.1020	19.0687
 2.1010	19.1990
 2.1000	19.1145
 2.0990	19.0955
 2.0980	18.9161
 2.0970	19.2197
 2.0960	19.3054
 2.0950	19.2054
 2.0940	19.2236
 2.0930	19.2321
 2.0920	19.1057
 2.0910	19.1878
 2.0900	19.1203
 2.0890	19.3161
 2.0880	19.2087
 2.0870	19.1599
 2.0860	19.1941
 2.0850	19.1413
 2.0840	19.1816
 2.0830	19.2527
 2.0820	19.1594
 2.0810	19.1113
 2.0800	19.0301
 2.0790	19.0683
 2.0780	19.1024
 2.0770	19.1637
 2.0760	19.1230
 2.0750	19.1157
 2.0740	19.0956
 2.0730	19.1204
 2.0720	19.2051
 2.0710	19.1195
 2.0700	19.1093
 2.0690	19.2706
 2.0680	19.2122
 2.0670	19.0897
 2.0660	19.0853
 2.0650	19.2844
 2.0640	19.2115
 2.0630	18.9419
 2.0620	19.0803
 2.0610	19.1170
 2.0600	19.1752
 2.0590	19.0725
 2.0580	19.0016
 2.0570	19.0560
 2.0560	19.0279
 2.0550	18.9986
 2.0540	19.0469
 2.0530	19.0405
 2.0520	19.0559
 2.0510	19.1373
 2.0500	19.1933
 2.0490	19.2229
 2.0480	19.2366
 2.0470	19.1489
 2.0460	19.1210
 2.0450	19.0363
 2.0440	19.0019
 2.0430	19.0590
 2.0420	19.2032
 2.0410	19.0283
 2.0400	19.1213
 2.0390	18.9580
 2.0380	19.1519
 2.0370	19.0158
 2.0360	19.0885
 2.0350	18.9953
 2.0340	19.0934
 2.0330	19.0093
 2.0320	19.1147
 2.0310	18.9379
 2.0300	19.0228
 2.0290	19.0058
 2.0280	19.1209
 2.0270	18.9287
 2.0260	18.9994
 2.0250	18.8987
 2.0240	19.0330
 2.0230	19.0445
 2.0220	19.0917
 2.0210	18.9241
 2.0200	19.0139
 2.0190	18.8761
 2.0180	19.1092
 2.0170	18.8759
 2.0160	19.0686
 2.0150	18.9178
 2.0140	18.8504
 2.0130	18.9391
 2.0120	19.0719
 2.0110	18.7719
 2.0100	18.9966
 2.0090	18.8467
 2.0080	19.1672
 2.0070	18.8317
 2.0060	18.8940
 2.0050	18.8345
 2.0040	18.9735
 2.0030	18.9176
 2.0020	19.0420
 2.0010	18.6881
 2.0000	18.6484
 1.9990	18.8935
 1.9980	19.2028
 1.9970	18.8278
 1.9960	19.0499
 1.9950	18.8197
 1.9940	18.6675
 1.9930	18.7079
 1.9920	18.9679
 1.9910	18.6723
 1.9900	18.9590
 1.9890	18.7537
 1.9880	19.1649
 1.9870	18.6092
 1.9860	18.8930
 1.9850	18.6876
 1.9840	18.9610
 1.9830	18.8768
 1.9820	19.0423
 1.9810	18.6810
 1.9800	18.8655
 1.9790	18.6032
 1.9780	18.7959
 1.9770	18.7045
 1.9760	19.0814
 1.9750	18.5579
 1.9740	18.8496
 1.9730	18.6280
 1.9720	18.9229
 1.9710	18.3291
 1.9700	18.9146
 1.9690	18.6856
 1.9680	18.9658
 1.9670	18.7247
 1.9660	18.9906
 1.9650	18.4901
 1.9640	18.8505
 1.9630	18.8007
 1.9620	18.9126
 1.9610	18.5737
 1.9600	18.9579
 1.9590	18.3457
 1.9580	18.9847
 1.9570	18.6383
 1.9560	18.8773
 1.9550	18.6996
 1.9540	18.9109
 1.9530	18.6340
 1.9520	18.9957
 1.9510	18.6129
 1.9500	18.9865
 1.9490	18.3511
 1.9480	19.0491
 1.9470	18.4570
 1.9460	18.7676
 1.9450	18.4974
 1.9440	18.6194
 1.9430	18.3747
 1.9420	18.9730
 1.9410	18.4627
 1.9400	18.6269
 1.9390	18.4069
 1.9380	18.7934
 1.9370	18.3804
 1.9360	19.0126
 1.9350	18.3395
 1.9340	18.8684
 1.9330	18.4420
 1.9320	18.5306
 1.9310	18.6283
 1.9300	18.7586
 1.9290	18.2227
 1.9280	18.6957
 1.9270	18.7088
 1.9260	18.2389
 1.9250	18.7723
 1.9240	18.3477
 1.9230	18.4208
 1.9220	18.6870
 1.9210	18.4075
 1.9200	18.6427
 1.9190	18.4883
 1.9180	18.7260
 1.9170	18.3676
 1.9160	18.6775
 1.9150	18.3746
 1.9140	19.0000
 1.9130	18.5274
 1.9120	19.0277
 1.9110	18.2601
 1.9100	18.9200
 1.9090	18.5605
 1.9080	18.8522
 1.9070	18.3954
 1.9060	18.8276
 1.9050	18.6549
 1.9040	18.7758
 1.9030	18.3277
 1.9020	18.6791
 1.9010	18.5503
 1.9000	18.6988
 1.8990	18.3328
 1.8980	18.8478
 1.8970	18.4607
 1.8960	18.8084
 1.8950	18.7161
 1.8940	18.8524
 1.8930	18.4263
 1.8920	18.9699
 1.8910	18.4416
 1.8900	18.8290
 1.8890	18.5436
 1.8880	19.1059
 1.8870	18.2733
 1.8860	18.7049
 1.8850	18.5369
 1.8840	18.7606
 1.8830	18.4151
 1.8820	18.8165
 1.8810	18.5664
 1.8800	18.9189
 1.8790	18.6781
 1.8780	18.8241
 1.8770	18.2806
 1.8760	18.7178
 1.8750	18.5808
 1.8740	18.8489
 1.8730	18.5680
 1.8720	18.8414
 1.8710	18.4611
 1.8700	18.6972
 1.8690	18.4976
 1.8680	18.7392
 1.8670	18.5034
 1.8660	18.8261
 1.8650	18.5701
 1.8640	18.8676
 1.8630	18.6024
 1.8620	18.8574
 1.8610	18.6792
 1.8600	18.9436
 1.8590	18.5366
 1.8580	18.7721
 1.8570	18.5247
 1.8560	18.6626
 1.8550	18.4958
 1.8540	18.8934
 1.8530	18.6831
 1.8520	18.8217
 1.8510	18.6424
 1.8500	18.7213
 1.8490	18.7008
 1.8480	18.7651
 1.8470	18.5742
 1.8460	18.6557
 1.8450	18.6098
 1.8440	18.8451
 1.8430	18.7254
 1.8420	18.9359
 1.8410	18.7731
 1.8400	18.7424
 1.8390	18.5908
 1.8380	18.6571
 1.8370	18.3032
 1.8360	18.4528
 1.8350	18.6821
 1.8340	18.7689
 1.8330	18.5117
 1.8320	18.8659
 1.8310	18.7401
 1.8300	18.5553
 1.8290	18.4897
 1.8280	18.7197
 1.8270	18.6827
 1.8260	18.6618
 1.8250	18.7518
 1.8240	18.9021
 1.8230	18.5334
 1.8220	18.8091
 1.8210	18.6055
 1.8200	18.6019
 1.8190	18.4945
 1.8180	18.5638
 1.8170	18.5123
 1.8160	18.7846
 1.8150	18.7586
 1.8140	18.7081
 1.8130	18.6222
 1.8120	18.7186
 1.8110	18.6940
 1.8100	18.7645
 1.8090	18.6235
 1.8080	18.6085
 1.8070	18.5386
 1.8060	18.7657
 1.8050	18.7656
 1.8040	18.7649
 1.8030	18.6795
 1.8020	18.6394
 1.8010	18.6967
 1.8000	18.7170
 1.7990	18.6018
 1.7980	18.6474
 1.7970	18.6040
 1.7960	18.6162
 1.7950	18.7133
 1.7940	18.7915
 1.7930	18.8576
 1.7920	18.7960
 1.7910	18.5956
 1.7900	18.5649
 1.7890	18.5170
 1.7880	18.6541
 1.7870	18.7371
 1.7860	18.6247
 1.7850	18.7554
 1.7840	18.7821
 1.7830	18.6949
 1.7820	18.6252
 1.7810	18.5722
 1.7800	18.5842
 1.7790	18.6734
 1.7780	18.7136
 1.7770	18.7223
 1.7760	18.7121
 1.7750	18.7124
 1.7740	18.6207
 1.7730	18.6296
 1.7720	18.5416
 1.7710	18.6092
 1.7700	18.5906
 1.7690	18.7719
 1.7680	18.6436
 1.7670	18.6570
 1.7660	18.7308
 1.7650	18.6540
 1.7640	18.5307
 1.7630	18.7381
 1.7620	18.5880
 1.7610	18.7127
 1.7600	18.6635
 1.7590	18.6015
 1.7580	18.5098
 1.7570	18.6205
 1.7560	18.6430
 1.7550	18.6838
 1.7540	18.5742
 1.7530	18.6823
 1.7520	18.6746
 1.7510	18.7687
 1.7500	18.6768
 1.7490	18.7507
 1.7480	18.5313
 1.7470	18.7226
 1.7460	18.5333
 1.7450	18.8329
 1.7440	18.6807
 1.7430	18.6349
 1.7420	18.7372
 1.7410	18.8608
 1.7400	18.6453
 1.7390	18.7054
 1.7380	18.7834
 1.7370	18.7808
 1.7360	18.6533
 1.7350	18.6508
 1.7340	18.5584
 1.7330	18.6138
 1.7320	18.5955
 1.7310	18.6922
 1.7300	18.5087
 1.7290	18.8480
 1.7280	18.5825
 1.7270	18.8369
 1.7260	18.5076
 1.7250	18.7377
 1.7240	18.5860
 1.7230	18.7733
 1.7220	18.6840
 1.7210	18.8661
 1.7200	18.5596
 1.7190	18.6492
 1.7180	18.4837
 1.7170	18.7937
 1.7160	18.4338
 1.7150	18.6176
 1.7140	18.4513
 1.7130	18.7998
 1.7120	18.5583
 1.7110	18.6560
 1.7100	18.4292
 1.7090	18.6467
 1.7080	18.4083
 1.7070	18.7145
 1.7060	18.7409
 1.7050	18.8512
 1.7040	18.4892
 1.7030	18.9050
 1.7020	18.5308
 1.7010	18.8368
 1.7000	18.5548
 1.6990	18.8350
 1.6980	18.5148
 1.6970	19.0208
 1.6960	18.5734
 1.6950	18.6646
 1.6940	18.4631
 1.6930	18.8997
 1.6920	18.4643
 1.6910	18.8109
 1.6900	18.6752
 1.6890	18.8470
 1.6880	18.7035
 1.6870	18.6232
 1.6860	18.6827
 1.6850	18.7530
 1.6840	18.5281
 1.6830	18.9639
 1.6820	18.4636
 1.6810	18.6772
 1.6800	18.6081
 1.6790	18.7944
 1.6780	18.4254
 1.6770	18.7672
 1.6760	18.5270
 1.6750	18.7795
 1.6740	18.3972
 1.6730	18.7480
 1.6720	18.5971
 1.6710	18.8031
 1.6700	18.6953
 1.6690	18.6665
 1.6680	18.1753
 1.6670	18.7494
 1.6660	18.6407
 1.6650	18.7355
 1.6640	18.5520
 1.6630	18.6913
 1.6620	18.6541
 1.6610	18.8750
 1.6600	18.5848
 1.6590	18.8734
 1.6580	18.5588
 1.6570	18.8577
 1.6560	18.4645
 1.6550	18.9274
 1.6540	18.3345
 1.6530	18.9539
 1.6520	18.5678
 1.6510	18.8210
 1.6500	18.4208
 1.6490	18.8622
 1.6480	18.5542
 1.6470	18.7207
 1.6460	18.6718
 1.6450	18.9286
 1.6440	18.2797
 1.6430	18.9213
 1.6420	18.6060
 1.6410	18.5356
 1.6400	18.6287
 1.6390	18.8539
 1.6380	18.4752
 1.6370	19.0016
 1.6360	18.6663
 1.6350	18.6180
 1.6340	18.7144
 1.6330	18.6760
 1.6320	18.3997
 1.6310	18.8963
 1.6300	18.3174
 1.6290	18.7454
 1.6280	18.6819
 1.6270	18.6172
 1.6260	18.5294
 1.6250	18.8796
 1.6240	18.5828
 1.6230	18.7078
 1.6220	18.4264
 1.6210	18.7049
 1.6200	18.5967
 1.6190	19.0831
 1.6180	18.4593
 1.6170	18.8010
 1.6160	18.6315
 1.6150	18.8958
 1.6140	18.6781
 1.6130	18.9370
 1.6120	18.4800
 1.6110	19.0349
 1.6100	18.3086
 1.6090	18.8349
 1.6080	18.4881
 1.6070	18.8895
 1.6060	18.4996
 1.6050	18.9950
 1.6040	18.5899
 1.6030	18.9158
 1.6020	18.4610
 1.6010	18.7667
 1.6000	18.5649
 1.5990	18.9182
 1.5980	18.6556
 1.5970	18.8114
 1.5960	18.4140
 1.5950	18.8235
 1.5940	18.6929
 1.5930	18.7942
 1.5920	18.6523
 1.5910	18.7878
 1.5900	18.6578
 1.5890	19.1746
 1.5880	18.6351
 1.5870	18.9230
 1.5860	18.7952
 1.5850	18.9448
 1.5840	18.6072
 1.5830	18.9798
 1.5820	18.6017
 1.5810	18.8310
 1.5800	18.5646
 1.5790	18.9352
 1.5780	18.5505
 1.5770	18.6559
 1.5760	18.7520
 1.5750	18.9705
 1.5740	18.7179
 1.5730	18.9915
 1.5720	18.6191
 1.5710	18.8015
 1.5700	18.6425
 1.5690	18.8619
 1.5680	18.6310
 1.5670	18.9694
 1.5660	18.7145
 1.5650	18.8724
 1.5640	18.6146
 1.5630	18.6757
 1.5620	18.5661
 1.5610	18.8577
 1.5600	18.7554
 1.5590	18.9196
 1.5580	18.7397
 1.5570	18.7139
 1.5560	18.5806
 1.5550	18.9523
 1.5540	18.7768
 1.5530	18.8776
 1.5520	18.8080
 1.5510	18.8675
 1.5500	18.6515
 1.5490	18.8641
 1.5480	18.8872
 1.5470	18.8501
 1.5460	18.6207
 1.5450	18.7814
 1.5440	18.8193
 1.5430	18.8331
 1.5420	18.7141
 1.5410	18.6873
 1.5400	18.5796
 1.5390	18.8650
 1.5380	18.8490
 1.5370	18.9416
 1.5360	18.7268
 1.5350	18.9344
 1.5340	18.8687
 1.5330	18.7540
 1.5320	18.7234
 1.5310	18.7886
 1.5300	18.7507
 1.5290	19.0242
 1.5280	18.8427
 1.5270	18.8948
 1.5260	18.7100
 1.5250	18.8939
 1.5240	18.8657
 1.5230	18.8853
 1.5220	18.8386
 1.5210	18.9054
 1.5200	18.7751
 1.5190	18.9718
 1.5180	18.7556
 1.5170	18.8366
 1.5160	18.9695
 1.5150	18.8354
 1.5140	18.8259
 1.5130	18.8555
 1.5120	18.8462
 1.5110	18.8783
 1.5100	18.7930
 1.5090	18.7461
 1.5080	18.8357
 1.5070	18.8569
 1.5060	18.9556
 1.5050	18.9964
 1.5040	19.0970
 1.5030	19.0893
 1.5020	18.8477
 1.5010	18.8813
 1.5000	18.9840
 1.4990	19.0230
 1.4980	19.1493
 1.4970	19.0168
 1.4960	18.8730
 1.4950	18.8609
 1.4940	18.8720
 1.4930	18.8674
 1.4920	18.7793
 1.4910	18.6436
 1.4900	18.7568
 1.4890	18.9028
 1.4880	19.0480
 1.4870	18.8539
 1.4860	18.8416
 1.4850	18.9351
 1.4840	19.0062
 1.4830	18.9444
 1.4820	19.0078
 1.4810	18.8265
 1.4800	18.8999
 1.4790	18.9312
 1.4780	19.0725
 1.4770	18.9237
 1.4760	18.9239
 1.4750	18.8027
 1.4740	18.9486
 1.4730	18.8830
 1.4720	18.9231
 1.4710	18.8498
 1.4700	19.0107
 1.4690	18.9862
 1.4680	19.0777
 1.4670	18.9764
 1.4660	18.9508
 1.4650	18.7586
 1.4640	19.1574
 1.4630	18.9811
 1.4620	19.0329
 1.4610	18.9377
 1.4600	19.0453
 1.4590	18.9923
 1.4580	19.1072
 1.4570	18.8998
 1.4560	19.1349
 1.4550	18.9405
 1.4540	19.0800
 1.4530	18.8854
 1.4520	19.0465
 1.4510	19.0770
 1.4500	18.9158
 1.4490	18.9572
 1.4480	19.0067
 1.4470	18.9865
 1.4460	19.1777
 1.4450	18.9370
 1.4440	18.9677
 1.4430	18.8602
 1.4420	18.8992
 1.4410	18.9912
 1.4400	19.1945
 1.4390	18.9805
 1.4380	19.1486
 1.4370	18.8673
 1.4360	19.1304
 1.4350	19.1079
 1.4340	19.2985
 1.4330	18.9222
 1.4320	19.0769
 1.4310	18.7631
 1.4300	19.0671
 1.4290	19.0070
 1.4280	19.2724
 1.4270	18.9231
 1.4260	19.0618
 1.4250	18.9307
 1.4240	19.2496
 1.4230	18.9192
 1.4220	19.2208
 1.4210	18.8010
 1.4200	19.2263
 1.4190	18.9479
 1.4180	19.0978
 1.4170	18.8343
 1.4160	19.1090
 1.4150	18.8030
 1.4140	19.1689
 1.4130	19.0111
 1.4120	19.2462
 1.4110	19.0189
 1.4100	19.1773
 1.4090	18.8901
 1.4080	19.2869
 1.4070	18.9160
 1.4060	19.2015
 1.4050	19.1355
 1.4040	19.3954
 1.4030	19.0265
 1.4020	19.1637
 1.4010	18.9133
 1.4000	19.2806
 1.3990	19.0072
 1.3980	19.3271
 1.3970	18.9952
 1.3960	19.1837
 1.3950	19.0627
 1.3940	19.1690
 1.3930	18.7101
 1.3920	19.2588
 1.3910	19.1319
 1.3900	19.2577
 1.3890	19.0658
 1.3880	19.4215
 1.3870	18.8116
 1.3860	19.2320
 1.3850	18.7813
 1.3840	19.3554
 1.3830	18.8655
 1.3820	19.2524
 1.3810	18.7922
 1.3800	19.1636
 1.3790	19.0644
 1.3780	19.2729
 1.3770	19.1879
 1.3760	19.2893
 1.3750	19.0295
 1.3740	19.1503
 1.3730	19.2965
 1.3720	19.1575
 1.3710	19.1236
 1.3700	19.0726
 1.3690	19.0075
 1.3680	19.3822
 1.3670	18.8290
 1.3660	19.4820
 1.3650	19.0942
