Name: Dolomite CaMg(CO_3)_2
Type: Mineral
Class: Carbonate
Subclass: None
Particle Size: Coarse
Sample No.: C-5C
Owner: JPL
Wavelength Range: VSWIR
Origin: USA, California, Los Angeles County, Palos Verdes.
Collection Date: N/A
Description: Particle size was 125-500um.Collected by:  Burminco Original ASTER Spectral Library name was jpl.perkin.mineral.carbonate.none.coarse.c05c.spectrum.txt
Measurement: Hemispherical reflectance
First Column: X
Second Column: Y
X Units: Wavelength (micrometers)
Y Units:Reflectance (percent)
First X Value:  2.5000
Last X Value:  0.4000
Number of X Values: 2101
Additional Information: mineral.carbonate.none.coarse.vswir.c-5c.jpl.perkin.ancillary.txt

 2.5000	26.1086
 2.4990	26.1245
 2.4980	26.5253
 2.4970	26.8979
 2.4960	26.6637
 2.4950	27.3331
 2.4940	27.3467
 2.4930	27.7068
 2.4920	27.9698
 2.4910	28.2250
 2.4900	28.3874
 2.4890	28.8567
 2.4880	29.0436
 2.4870	29.4802
 2.4860	29.5848
 2.4850	30.0844
 2.4840	30.2983
 2.4830	30.5683
 2.4820	30.7468
 2.4810	31.0921
 2.4800	31.2946
 2.4790	31.6217
 2.4780	31.7990
 2.4770	32.1409
 2.4760	32.3460
 2.4750	32.6070
 2.4740	32.6251
 2.4730	32.8775
 2.4720	32.9348
 2.4710	33.2569
 2.4700	33.3537
 2.4690	33.4380
 2.4680	33.5042
 2.4670	33.8187
 2.4660	33.8534
 2.4650	34.0740
 2.4640	34.1608
 2.4630	34.2847
 2.4620	34.4163
 2.4610	34.7123
 2.4600	34.7990
 2.4590	34.9836
 2.4580	35.2358
 2.4570	35.4796
 2.4560	35.6191
 2.4550	36.0226
 2.4540	36.2203
 2.4530	36.6091
 2.4520	36.8812
 2.4510	37.2808
 2.4500	37.6160
 2.4490	38.0968
 2.4480	38.4020
 2.4470	38.7874
 2.4460	39.1851
 2.4450	39.7531
 2.4440	40.1285
 2.4430	40.5864
 2.4420	40.9946
 2.4410	41.6506
 2.4400	42.0614
 2.4390	42.5322
 2.4380	43.0304
 2.4370	43.5153
 2.4360	43.9652
 2.4350	44.5848
 2.4340	45.0149
 2.4330	45.5779
 2.4320	46.0318
 2.4310	46.5317
 2.4300	47.0281
 2.4290	47.5144
 2.4280	48.1310
 2.4270	48.6560
 2.4260	49.0693
 2.4250	49.6288
 2.4240	50.0649
 2.4230	50.5916
 2.4220	50.9985
 2.4210	51.4779
 2.4200	52.0207
 2.4190	52.4968
 2.4180	52.9359
 2.4170	53.3390
 2.4160	53.8216
 2.4150	54.1647
 2.4140	54.5864
 2.4130	54.9740
 2.4120	55.3131
 2.4110	55.6491
 2.4100	56.0179
 2.4090	56.2928
 2.4080	56.5551
 2.4070	56.8735
 2.4060	57.1175
 2.4050	57.4482
 2.4040	57.7461
 2.4030	57.9163
 2.4020	58.1842
 2.4010	58.4035
 2.4000	58.5970
 2.3990	58.8403
 2.3980	59.0730
 2.3970	59.3774
 2.3960	59.5703
 2.3950	59.7910
 2.3940	60.0403
 2.3930	60.2647
 2.3920	60.4500
 2.3910	60.6724
 2.3900	60.9124
 2.3890	61.1467
 2.3880	61.3127
 2.3870	61.4976
 2.3860	61.7764
 2.3850	62.0016
 2.3840	62.1197
 2.3830	62.3412
 2.3820	62.5634
 2.3810	62.7873
 2.3800	62.9369
 2.3790	63.1004
 2.3780	63.2368
 2.3770	63.4259
 2.3760	63.6020
 2.3750	63.7102
 2.3740	63.8892
 2.3730	64.1200
 2.3720	64.2445
 2.3710	64.3342
 2.3700	64.4498
 2.3690	64.5291
 2.3680	64.5091
 2.3670	64.4779
 2.3660	64.4334
 2.3650	64.3008
 2.3640	64.1987
 2.3630	64.1118
 2.3620	63.9885
 2.3610	63.7955
 2.3600	63.5096
 2.3590	63.1712
 2.3580	62.7695
 2.3570	62.3702
 2.3560	61.9520
 2.3550	61.4524
 2.3540	60.8961
 2.3530	60.2686
 2.3520	59.6507
 2.3510	58.9500
 2.3500	58.2060
 2.3490	57.4405
 2.3480	56.6041
 2.3470	55.7685
 2.3460	54.9190
 2.3450	54.0091
 2.3440	53.0774
 2.3430	52.1881
 2.3420	51.2363
 2.3410	50.2621
 2.3400	49.3153
 2.3390	48.3717
 2.3380	47.5058
 2.3370	46.6654
 2.3360	45.8029
 2.3350	44.9798
 2.3340	44.1787
 2.3330	43.4264
 2.3320	42.7615
 2.3310	42.1273
 2.3300	41.5172
 2.3290	40.9487
 2.3280	40.4491
 2.3270	40.0722
 2.3260	39.7193
 2.3250	39.3034
 2.3240	39.0165
 2.3230	38.7637
 2.3220	38.5767
 2.3210	38.4400
 2.3200	38.2711
 2.3190	38.1865
 2.3180	38.2139
 2.3170	38.1949
 2.3160	38.1709
 2.3150	38.1845
 2.3140	38.3293
 2.3130	38.4094
 2.3120	38.5435
 2.3110	38.6713
 2.3100	38.7742
 2.3090	38.9486
 2.3080	39.1269
 2.3070	39.3098
 2.3060	39.4827
 2.3050	39.6760
 2.3040	39.9272
 2.3030	40.1033
 2.3020	40.3396
 2.3010	40.5428
 2.3000	40.8210
 2.2990	40.9935
 2.2980	41.1863
 2.2970	41.4295
 2.2960	41.7763
 2.2950	41.9743
 2.2940	42.1552
 2.2930	42.4127
 2.2920	42.6299
 2.2910	42.8676
 2.2900	43.1036
 2.2890	43.3077
 2.2880	43.5419
 2.2870	43.7124
 2.2860	43.9112
 2.2850	44.1097
 2.2840	44.3025
 2.2830	44.5046
 2.2820	44.6345
 2.2810	44.7583
 2.2800	44.9660
 2.2790	45.0964
 2.2780	45.3038
 2.2770	45.4264
 2.2760	45.5408
 2.2750	45.6873
 2.2740	45.8864
 2.2730	45.9999
 2.2720	46.1959
 2.2710	46.3144
 2.2700	46.5249
 2.2690	46.7478
 2.2680	47.0009
 2.2670	47.1731
 2.2660	47.4419
 2.2650	47.6640
 2.2640	48.0700
 2.2630	48.3951
 2.2620	48.7660
 2.2610	49.0694
 2.2600	49.5204
 2.2590	49.9003
 2.2580	50.3247
 2.2570	50.6517
 2.2560	51.1689
 2.2550	51.6503
 2.2540	52.1309
 2.2530	52.5296
 2.2520	53.1252
 2.2510	53.5008
 2.2500	53.9793
 2.2490	54.5380
 2.2480	54.9915
 2.2470	55.4658
 2.2460	55.8223
 2.2450	56.3985
 2.2440	56.8426
 2.2430	57.2680
 2.2420	57.7038
 2.2410	58.1330
 2.2400	58.5706
 2.2390	58.9717
 2.2380	59.3292
 2.2370	59.6764
 2.2360	60.1126
 2.2350	60.4222
 2.2340	60.7640
 2.2330	61.1428
 2.2320	61.4525
 2.2310	61.7139
 2.2300	62.1098
 2.2290	62.3270
 2.2280	62.6641
 2.2270	62.8829
 2.2260	63.1460
 2.2250	63.4075
 2.2240	63.7396
 2.2230	63.9124
 2.2220	64.1239
 2.2210	64.3967
 2.2200	64.7110
 2.2190	64.9287
 2.2180	65.1831
 2.2170	65.3836
 2.2160	65.6699
 2.2150	65.8644
 2.2140	66.1595
 2.2130	66.4371
 2.2120	66.6996
 2.2110	66.8332
 2.2100	67.2111
 2.2090	67.5240
 2.2080	67.7234
 2.2070	67.9291
 2.2060	68.3059
 2.2050	68.5430
 2.2040	68.8657
 2.2030	69.1115
 2.2020	69.4376
 2.2010	69.5635
 2.2000	69.9097
 2.1990	70.1936
 2.1980	70.4224
 2.1970	70.5699
 2.1960	70.8292
 2.1950	70.9908
 2.1940	71.1734
 2.1930	71.4530
 2.1920	71.6204
 2.1910	71.8300
 2.1900	72.0223
 2.1890	72.2614
 2.1880	72.4002
 2.1870	72.5822
 2.1860	72.7361
 2.1850	72.9183
 2.1840	72.9937
 2.1830	73.1958
 2.1820	73.3176
 2.1810	73.4031
 2.1800	73.5486
 2.1790	73.6306
 2.1780	73.7357
 2.1770	73.8577
 2.1760	73.9012
 2.1750	73.9494
 2.1740	74.0589
 2.1730	74.0140
 2.1720	74.0774
 2.1710	74.1532
 2.1700	74.2968
 2.1690	74.2852
 2.1680	74.2358
 2.1670	74.2412
 2.1660	74.2622
 2.1650	74.2463
 2.1640	74.2434
 2.1630	74.1907
 2.1620	74.2050
 2.1610	74.1356
 2.1600	74.0615
 2.1590	74.0862
 2.1580	73.9311
 2.1570	73.8023
 2.1560	73.7640
 2.1550	73.5779
 2.1540	73.4775
 2.1530	73.4149
 2.1520	73.3704
 2.1510	73.2315
 2.1500	73.1625
 2.1490	73.0528
 2.1480	72.9412
 2.1470	72.7935
 2.1460	72.6828
 2.1450	72.6104
 2.1440	72.5354
 2.1430	72.4762
 2.1420	72.4507
 2.1410	72.4452
 2.1400	72.3443
 2.1390	72.3460
 2.1380	72.4044
 2.1370	72.4551
 2.1360	72.5378
 2.1350	72.5324
 2.1340	72.6034
 2.1330	72.6925
 2.1320	72.7974
 2.1310	72.8078
 2.1300	72.8742
 2.1290	73.0287
 2.1280	73.1615
 2.1270	73.2608
 2.1260	73.4492
 2.1250	73.5928
 2.1240	73.6002
 2.1230	73.7362
 2.1220	73.8606
 2.1210	74.0085
 2.1200	74.1070
 2.1190	74.2455
 2.1180	74.3767
 2.1170	74.4670
 2.1160	74.5793
 2.1150	74.6710
 2.1140	74.6789
 2.1130	74.8184
 2.1120	74.9136
 2.1110	74.9521
 2.1100	75.0435
 2.1090	75.1030
 2.1080	75.2176
 2.1070	75.2844
 2.1060	75.3314
 2.1050	75.2994
 2.1040	75.3321
 2.1030	75.4284
 2.1020	75.4674
 2.1010	75.4993
 2.1000	75.5540
 2.0990	75.6343
 2.0980	75.6706
 2.0970	75.7154
 2.0960	75.7417
 2.0950	75.8444
 2.0940	75.8911
 2.0930	75.9456
 2.0920	76.0206
 2.0910	76.1310
 2.0900	76.1697
 2.0890	76.2053
 2.0880	76.3358
 2.0870	76.4492
 2.0860	76.5169
 2.0850	76.6110
 2.0840	76.6508
 2.0830	76.6634
 2.0820	76.7622
 2.0810	76.8998
 2.0800	77.0252
 2.0790	77.0644
 2.0780	77.1072
 2.0770	77.1630
 2.0760	77.2405
 2.0750	77.3567
 2.0740	77.3982
 2.0730	77.4163
 2.0720	77.5076
 2.0710	77.5167
 2.0700	77.5658
 2.0690	77.6601
 2.0680	77.7643
 2.0670	77.8265
 2.0660	77.8368
 2.0650	77.9001
 2.0640	77.9281
 2.0630	77.9158
 2.0620	77.9931
 2.0610	78.0618
 2.0600	78.0906
 2.0590	78.1193
 2.0580	78.1484
 2.0570	78.1696
 2.0560	78.1487
 2.0550	78.2416
 2.0540	78.3141
 2.0530	78.3271
 2.0520	78.3176
 2.0510	78.3134
 2.0500	78.3027
 2.0490	78.3066
 2.0480	78.3221
 2.0470	78.3424
 2.0460	78.3892
 2.0450	78.3129
 2.0440	78.2968
 2.0430	78.3652
 2.0420	78.3417
 2.0410	78.3977
 2.0400	78.3873
 2.0390	78.3572
 2.0380	78.3776
 2.0370	78.2950
 2.0360	78.2665
 2.0350	78.3240
 2.0340	78.2763
 2.0330	78.2646
 2.0320	78.2521
 2.0310	78.2441
 2.0300	78.1792
 2.0290	78.1782
 2.0280	78.1610
 2.0270	78.1203
 2.0260	78.0609
 2.0250	78.0647
 2.0240	77.9981
 2.0230	77.9417
 2.0220	77.9487
 2.0210	77.8918
 2.0200	77.7911
 2.0190	77.7937
 2.0180	77.7844
 2.0170	77.7410
 2.0160	77.6737
 2.0150	77.6192
 2.0140	77.6143
 2.0130	77.4284
 2.0120	77.3629
 2.0110	77.3094
 2.0100	77.1538
 2.0090	77.0189
 2.0080	76.9379
 2.0070	76.8506
 2.0060	76.6860
 2.0050	76.5267
 2.0040	76.4200
 2.0030	76.2365
 2.0020	76.0540
 2.0010	75.8642
 2.0000	75.7300
 1.9990	75.5632
 1.9980	75.2554
 1.9970	74.9908
 1.9960	74.7391
 1.9950	74.4982
 1.9940	74.2236
 1.9930	73.9071
 1.9920	73.6493
 1.9910	73.2948
 1.9900	73.0086
 1.9890	72.8100
 1.9880	72.6583
 1.9870	72.4667
 1.9860	72.2101
 1.9850	72.0341
 1.9840	71.9550
 1.9830	71.8147
 1.9820	71.7712
 1.9810	71.7502
 1.9800	71.8012
 1.9790	71.8166
 1.9780	71.8755
 1.9770	71.9154
 1.9760	71.8936
 1.9750	72.0849
 1.9740	72.1589
 1.9730	72.2406
 1.9720	72.3352
 1.9710	72.5009
 1.9700	72.6019
 1.9690	72.6996
 1.9680	72.9588
 1.9670	72.9563
 1.9660	73.0634
 1.9650	73.2045
 1.9640	73.3258
 1.9630	73.4895
 1.9620	73.6009
 1.9610	73.6528
 1.9600	73.7512
 1.9590	73.9074
 1.9580	73.9752
 1.9570	74.0451
 1.9560	74.1086
 1.9550	74.2570
 1.9540	74.3168
 1.9530	74.3621
 1.9520	74.3815
 1.9510	74.4050
 1.9500	74.5560
 1.9490	74.5306
 1.9480	74.6248
 1.9470	74.6830
 1.9460	74.7495
 1.9450	74.8041
 1.9440	74.7481
 1.9430	74.8741
 1.9420	74.9275
 1.9410	74.9330
 1.9400	75.0913
 1.9390	75.2423
 1.9380	75.3258
 1.9370	75.3513
 1.9360	75.5217
 1.9350	75.6208
 1.9340	75.7887
 1.9330	75.8969
 1.9320	76.0221
 1.9310	76.0339
 1.9300	76.3027
 1.9290	76.4314
 1.9280	76.5268
 1.9270	76.7100
 1.9260	76.6909
 1.9250	76.9575
 1.9240	77.1294
 1.9230	77.2256
 1.9220	77.3570
 1.9210	77.5244
 1.9200	77.5842
 1.9190	77.7551
 1.9180	77.9069
 1.9170	78.0476
 1.9160	78.1012
 1.9150	78.3055
 1.9140	78.4561
 1.9130	78.5637
 1.9120	78.6480
 1.9110	78.7980
 1.9100	79.0113
 1.9090	79.0424
 1.9080	79.1722
 1.9070	79.2526
 1.9060	79.3896
 1.9050	79.5206
 1.9040	79.7293
 1.9030	79.8379
 1.9020	80.0031
 1.9010	80.0795
 1.9000	80.1859
 1.8990	80.4050
 1.8980	80.5169
 1.8970	80.7323
 1.8960	80.8316
 1.8950	80.9517
 1.8940	81.1366
 1.8930	81.2193
 1.8920	81.2053
 1.8910	81.3959
 1.8900	81.5039
 1.8890	81.5443
 1.8880	81.6986
 1.8870	81.6785
 1.8860	81.7472
 1.8850	81.7716
 1.8840	81.7362
 1.8830	81.7223
 1.8820	81.5643
 1.8810	81.5699
 1.8800	81.4952
 1.8790	81.4109
 1.8780	81.2800
 1.8770	81.0345
 1.8760	80.8631
 1.8750	80.5736
 1.8740	80.2263
 1.8730	79.8671
 1.8720	79.3786
 1.8710	78.9230
 1.8700	78.4162
 1.8690	78.0741
 1.8680	77.6191
 1.8670	77.2580
 1.8660	76.9996
 1.8650	76.7421
 1.8640	76.5196
 1.8630	76.3198
 1.8620	76.2970
 1.8610	76.2538
 1.8600	76.3142
 1.8590	76.3263
 1.8580	76.4494
 1.8570	76.5896
 1.8560	76.8322
 1.8550	76.9505
 1.8540	77.0663
 1.8530	77.3481
 1.8520	77.5638
 1.8510	77.7514
 1.8500	77.9556
 1.8490	78.2361
 1.8480	78.4403
 1.8470	78.6356
 1.8460	78.7786
 1.8450	78.9685
 1.8440	79.1487
 1.8430	79.2799
 1.8420	79.4641
 1.8410	79.6190
 1.8400	79.8344
 1.8390	79.9652
 1.8380	80.0502
 1.8370	80.2708
 1.8360	80.4225
 1.8350	80.5449
 1.8340	80.6069
 1.8330	80.6685
 1.8320	80.8424
 1.8310	80.9517
 1.8300	80.9933
 1.8290	81.0867
 1.8280	81.2148
 1.8270	81.2339
 1.8260	81.3359
 1.8250	81.4021
 1.8240	81.4469
 1.8230	81.5534
 1.8220	81.6429
 1.8210	81.8095
 1.8200	81.8593
 1.8190	81.9535
 1.8180	82.1147
 1.8170	82.2521
 1.8160	82.3298
 1.8150	82.4587
 1.8140	82.6187
 1.8130	82.6842
 1.8120	82.7354
 1.8110	82.8722
 1.8100	83.0547
 1.8090	83.1790
 1.8080	83.2533
 1.8070	83.3899
 1.8060	83.4872
 1.8050	83.5693
 1.8040	83.6516
 1.8030	83.8110
 1.8020	83.8799
 1.8010	83.9249
 1.8000	84.0033
 1.7990	84.0634
 1.7980	84.1163
 1.7970	84.1807
 1.7960	84.3035
 1.7950	84.3726
 1.7940	84.4133
 1.7930	84.4989
 1.7920	84.5743
 1.7910	84.6313
 1.7900	84.6544
 1.7890	84.6581
 1.7880	84.7441
 1.7870	84.7804
 1.7860	84.8287
 1.7850	84.8716
 1.7840	84.8614
 1.7830	84.9071
 1.7820	84.9810
 1.7810	85.0068
 1.7800	85.0797
 1.7790	85.0782
 1.7780	85.1351
 1.7770	85.1963
 1.7760	85.1822
 1.7750	85.2009
 1.7740	85.2435
 1.7730	85.2588
 1.7720	85.2954
 1.7710	85.3724
 1.7700	85.3773
 1.7690	85.3100
 1.7680	85.3272
 1.7670	85.3507
 1.7660	85.3767
 1.7650	85.3839
 1.7640	85.2907
 1.7630	85.2762
 1.7620	85.3438
 1.7610	85.3602
 1.7600	85.2712
 1.7590	85.2351
 1.7580	85.2047
 1.7570	85.1540
 1.7560	85.0459
 1.7550	84.9609
 1.7540	84.8987
 1.7530	84.8794
 1.7520	84.8141
 1.7510	84.6792
 1.7500	84.5921
 1.7490	84.4786
 1.7480	84.4695
 1.7470	84.4999
 1.7460	84.3917
 1.7450	84.3640
 1.7440	84.3783
 1.7430	84.3277
 1.7420	84.3414
 1.7410	84.3611
 1.7400	84.3581
 1.7390	84.3380
 1.7380	84.3580
 1.7370	84.3572
 1.7360	84.3910
 1.7350	84.4314
 1.7340	84.4668
 1.7330	84.4890
 1.7320	84.5163
 1.7310	84.4027
 1.7300	84.4283
 1.7290	84.4371
 1.7280	84.4762
 1.7270	84.5316
 1.7260	84.5508
 1.7250	84.6079
 1.7240	84.6391
 1.7230	84.6263
 1.7220	84.6202
 1.7210	84.6397
 1.7200	84.6665
 1.7190	84.7624
 1.7180	84.7424
 1.7170	84.6293
 1.7160	84.6596
 1.7150	84.7816
 1.7140	84.6972
 1.7130	84.7558
 1.7120	84.8214
 1.7110	84.8499
 1.7100	84.8141
 1.7090	84.8572
 1.7080	84.8714
 1.7070	84.9485
 1.7060	84.9173
 1.7050	84.9559
 1.7040	84.9593
 1.7030	85.0812
 1.7020	85.0428
 1.7010	85.0122
 1.7000	85.0650
 1.6990	85.1376
 1.6980	85.1318
 1.6970	85.2050
 1.6960	85.2766
 1.6950	85.2553
 1.6940	85.3032
 1.6930	85.3261
 1.6920	85.4280
 1.6910	85.4402
 1.6900	85.4318
 1.6890	85.4809
 1.6880	85.5324
 1.6870	85.5804
 1.6860	85.6362
 1.6850	85.6606
 1.6840	85.6749
 1.6830	85.7179
 1.6820	85.7499
 1.6810	85.7736
 1.6800	85.8016
 1.6790	85.8618
 1.6780	85.8834
 1.6770	85.9398
 1.6760	85.9516
 1.6750	85.9782
 1.6740	86.0567
 1.6730	86.0749
 1.6720	86.0515
 1.6710	86.1345
 1.6700	86.1412
 1.6690	86.1848
 1.6680	86.1775
 1.6670	86.2354
 1.6660	86.2029
 1.6650	86.2282
 1.6640	86.3206
 1.6630	86.2798
 1.6620	86.3277
 1.6610	86.2971
 1.6600	86.3452
 1.6590	86.3376
 1.6580	86.3403
 1.6570	86.2625
 1.6560	86.3019
 1.6550	86.4335
 1.6540	86.3765
 1.6530	86.4369
 1.6520	86.2999
 1.6510	86.2949
 1.6500	86.3642
 1.6490	86.3934
 1.6480	86.3693
 1.6470	86.3143
 1.6460	86.3138
 1.6450	86.3170
 1.6440	86.3887
 1.6430	86.2796
 1.6420	86.3512
 1.6410	86.3460
 1.6400	86.3472
 1.6390	86.3786
 1.6380	86.3218
 1.6370	86.3288
 1.6360	86.3863
 1.6350	86.3551
 1.6340	86.3968
 1.6330	86.3461
 1.6320	86.3936
 1.6310	86.4502
 1.6300	86.4289
 1.6290	86.4233
 1.6280	86.4946
 1.6270	86.5305
 1.6260	86.5328
 1.6250	86.5854
 1.6240	86.6644
 1.6230	86.5814
 1.6220	86.5713
 1.6210	86.6126
 1.6200	86.7465
 1.6190	86.6796
 1.6180	86.6043
 1.6170	86.6889
 1.6160	86.6803
 1.6150	86.7800
 1.6140	86.6408
 1.6130	86.7763
 1.6120	86.7583
 1.6110	86.7253
 1.6100	86.7299
 1.6090	86.7413
 1.6080	86.7516
 1.6070	86.7398
 1.6060	86.7273
 1.6050	86.7790
 1.6040	86.8262
 1.6030	86.8201
 1.6020	86.8326
 1.6010	86.7833
 1.6000	86.8838
 1.5990	86.8714
 1.5980	86.8782
 1.5970	86.8873
 1.5960	86.8713
 1.5950	86.8508
 1.5940	86.8326
 1.5930	86.8529
 1.5920	86.9106
 1.5910	86.8488
 1.5900	86.8858
 1.5890	86.8965
 1.5880	86.8591
 1.5870	86.8808
 1.5860	86.9018
 1.5850	86.8434
 1.5840	86.8424
 1.5830	86.8796
 1.5820	86.9418
 1.5810	86.8712
 1.5800	86.9134
 1.5790	86.9177
 1.5780	86.8979
 1.5770	86.8835
 1.5760	86.8835
 1.5750	86.8398
 1.5740	86.8354
 1.5730	86.8112
 1.5720	86.7680
 1.5710	86.8344
 1.5700	86.7856
 1.5690	86.7334
 1.5680	86.7889
 1.5670	86.7265
 1.5660	86.7871
 1.5650	86.7259
 1.5640	86.6830
 1.5630	86.6818
 1.5620	86.6108
 1.5610	86.5767
 1.5600	86.4540
 1.5590	86.3974
 1.5580	86.4707
 1.5570	86.4372
 1.5560	86.4427
 1.5550	86.4542
 1.5540	86.3842
 1.5530	86.3914
 1.5520	86.4342
 1.5510	86.4641
 1.5500	86.4320
 1.5490	86.4292
 1.5480	86.3876
 1.5470	86.4389
 1.5460	86.4307
 1.5450	86.4900
 1.5440	86.4700
 1.5430	86.4952
 1.5420	86.5111
 1.5410	86.5474
 1.5400	86.5820
 1.5390	86.5239
 1.5380	86.5047
 1.5370	86.5251
 1.5360	86.5066
 1.5350	86.4741
 1.5340	86.4998
 1.5330	86.5630
 1.5320	86.5722
 1.5310	86.5401
 1.5300	86.5289
 1.5290	86.4991
 1.5280	86.5106
 1.5270	86.5242
 1.5260	86.5048
 1.5250	86.4583
 1.5240	86.5060
 1.5230	86.5665
 1.5220	86.5444
 1.5210	86.5086
 1.5200	86.4815
 1.5190	86.4283
 1.5180	86.3955
 1.5170	86.4678
 1.5160	86.5269
 1.5150	86.4607
 1.5140	86.4563
 1.5130	86.4414
 1.5120	86.4840
 1.5110	86.5021
 1.5100	86.4702
 1.5090	86.4357
 1.5080	86.4323
 1.5070	86.4117
 1.5060	86.3570
 1.5050	86.3783
 1.5040	86.4045
 1.5030	86.3595
 1.5020	86.3550
 1.5010	86.3559
 1.5000	86.3609
 1.4990	86.3798
 1.4980	86.3738
 1.4970	86.3621
 1.4960	86.3613
 1.4950	86.3505
 1.4940	86.3210
 1.4930	86.3316
 1.4920	86.3105
 1.4910	86.3303
 1.4900	86.3363
 1.4890	86.2952
 1.4880	86.2656
 1.4870	86.2154
 1.4860	86.2340
 1.4850	86.2691
 1.4840	86.2426
 1.4830	86.2630
 1.4820	86.2957
 1.4810	86.2565
 1.4800	86.2097
 1.4790	86.2254
 1.4780	86.1953
 1.4770	86.1485
 1.4760	86.1400
 1.4750	86.1046
 1.4740	86.1259
 1.4730	86.1136
 1.4720	86.0089
 1.4710	86.0118
 1.4700	86.0895
 1.4690	86.0775
 1.4680	86.0837
 1.4670	86.1057
 1.4660	86.0771
 1.4650	86.0315
 1.4640	86.0674
 1.4630	86.1054
 1.4620	86.0734
 1.4610	86.0360
 1.4600	86.1052
 1.4590	86.1785
 1.4580	86.1105
 1.4570	86.1195
 1.4560	86.1777
 1.4550	86.1694
 1.4540	86.1331
 1.4530	86.1028
 1.4520	86.1186
 1.4510	86.1048
 1.4500	86.1677
 1.4490	86.1543
 1.4480	86.1585
 1.4470	86.1572
 1.4460	86.1971
 1.4450	86.1922
 1.4440	86.1704
 1.4430	86.1642
 1.4420	86.2016
 1.4410	86.2762
 1.4400	86.2684
 1.4390	86.2389
 1.4380	86.2720
 1.4370	86.2843
 1.4360	86.3037
 1.4350	86.3357
 1.4340	86.3212
 1.4330	86.3465
 1.4320	86.3829
 1.4310	86.3756
 1.4300	86.4499
 1.4290	86.4372
 1.4280	86.4732
 1.4270	86.4915
 1.4260	86.5160
 1.4250	86.5796
 1.4240	86.4966
 1.4230	86.5358
 1.4220	86.6234
 1.4210	86.6296
 1.4200	86.6380
 1.4190	86.5704
 1.4180	86.6045
 1.4170	86.6847
 1.4160	86.7218
 1.4150	86.7441
 1.4140	86.8180
 1.4130	86.8459
 1.4120	86.9039
 1.4110	86.8968
 1.4100	86.8607
 1.4090	86.8905
 1.4080	86.9133
 1.4070	86.9262
 1.4060	87.0176
 1.4050	87.0444
 1.4040	87.0997
 1.4030	87.0636
 1.4020	87.1144
 1.4010	87.1279
 1.4000	87.2467
 1.3990	87.2209
 1.3980	87.2516
 1.3970	87.2787
 1.3960	87.3501
 1.3950	87.4535
 1.3940	87.4688
 1.3930	87.4431
 1.3920	87.4619
 1.3910	87.5301
 1.3900	87.5464
 1.3890	87.5434
 1.3880	87.5930
 1.3870	87.6379
 1.3860	87.6519
 1.3850	87.6553
 1.3840	87.6425
 1.3830	87.6791
 1.3820	87.6623
 1.3810	87.5917
 1.3800	87.6495
 1.3790	87.7882
 1.3780	87.7555
 1.3770	87.7349
 1.3760	87.7713
 1.3750	87.7797
 1.3740	87.8256
 1.3730	87.7766
 1.3720	87.7878
 1.3710	87.7869
 1.3700	87.8119
 1.3690	87.7995
 1.3680	87.7846
 1.3670	87.8124
