Name: Anthophyllite (Mg,Fe^2+)_7Si_8O_22(OH)_2
Type: Mineral
Class: Silicate
Subclass: Inosilicate
Particle Size: Coarse
Sample No.: IN-8A
Owner: JPL
Wavelength Range: VSWIR
Origin: USA, North Carolina.
Collection Date: N/A
Description: Particle size was 125-500um.Collected by:  Ward's Original ASTER Spectral Library name was jpl.perkin.mineral.silicate.inosilicate.coarse.in08a.spectrum.txt
Measurement: Hemispherical reflectance
First Column: X
Second Column: Y
X Units: Wavelength (micrometers)
Y Units:Reflectance (percent)
First X Value:  2.5000
Last X Value:  0.4000
Number of X Values: 2101
Additional Information: mineral.silicate.inosilicate.coarse.vswir.in-8a.jpl.perkin.ancillary.txt

 2.5000	32.7144
 2.4990	32.2479
 2.4980	32.5628
 2.4970	32.5046
 2.4960	32.2130
 2.4950	32.3769
 2.4940	32.5478
 2.4930	32.4136
 2.4920	32.4321
 2.4910	32.4489
 2.4900	32.5400
 2.4890	32.3611
 2.4880	32.5358
 2.4870	32.6128
 2.4860	32.5867
 2.4850	32.5446
 2.4840	32.6819
 2.4830	32.6409
 2.4820	32.4857
 2.4810	32.5936
 2.4800	32.5427
 2.4790	32.3396
 2.4780	32.3954
 2.4770	32.1678
 2.4760	32.1575
 2.4750	31.9245
 2.4740	31.9252
 2.4730	31.8784
 2.4720	31.7297
 2.4710	31.5479
 2.4700	31.5609
 2.4690	31.4508
 2.4680	31.3475
 2.4670	31.2579
 2.4660	31.2435
 2.4650	31.1015
 2.4640	31.0310
 2.4630	31.1182
 2.4620	31.2658
 2.4610	31.0941
 2.4600	31.1424
 2.4590	31.0761
 2.4580	31.3117
 2.4570	31.1432
 2.4560	31.4207
 2.4550	31.2129
 2.4540	31.4689
 2.4530	31.5127
 2.4520	31.6201
 2.4510	31.5758
 2.4500	31.6866
 2.4490	31.7549
 2.4480	31.8366
 2.4470	31.7925
 2.4460	31.7891
 2.4450	31.7734
 2.4440	31.9939
 2.4430	31.9453
 2.4420	31.9135
 2.4410	31.9518
 2.4400	31.9471
 2.4390	31.9248
 2.4380	31.9258
 2.4370	31.8543
 2.4360	32.0005
 2.4350	31.9881
 2.4340	32.0064
 2.4330	31.9407
 2.4320	32.0708
 2.4310	31.8982
 2.4300	31.9956
 2.4290	32.0407
 2.4280	32.1307
 2.4270	32.1766
 2.4260	32.1821
 2.4250	32.1902
 2.4240	32.2291
 2.4230	32.3164
 2.4220	32.4670
 2.4210	32.4459
 2.4200	32.5202
 2.4190	32.7063
 2.4180	32.7757
 2.4170	32.8240
 2.4160	32.8369
 2.4150	32.8630
 2.4140	32.9493
 2.4130	32.9151
 2.4120	32.9957
 2.4110	32.9160
 2.4100	32.9612
 2.4090	32.8421
 2.4080	32.7499
 2.4070	32.6448
 2.4060	32.5104
 2.4050	32.2822
 2.4040	32.1037
 2.4030	31.9121
 2.4020	31.7368
 2.4010	31.4624
 2.4000	31.2801
 2.3990	31.0068
 2.3980	30.7826
 2.3970	30.5634
 2.3960	30.3666
 2.3950	30.0898
 2.3940	29.9203
 2.3930	29.7076
 2.3920	29.4691
 2.3910	29.3050
 2.3900	29.2663
 2.3890	29.1455
 2.3880	29.0333
 2.3870	28.9820
 2.3860	29.0157
 2.3850	28.9460
 2.3840	28.9946
 2.3830	29.0583
 2.3820	29.1649
 2.3810	29.2462
 2.3800	29.4140
 2.3790	29.5062
 2.3780	29.6933
 2.3770	29.8893
 2.3760	30.0836
 2.3750	30.2416
 2.3740	30.4012
 2.3730	30.5452
 2.3720	30.7896
 2.3710	31.0320
 2.3700	31.1477
 2.3690	31.2728
 2.3680	31.5036
 2.3670	31.6736
 2.3660	31.8501
 2.3650	32.0392
 2.3640	32.1425
 2.3630	32.2408
 2.3620	32.3891
 2.3610	32.5453
 2.3600	32.6241
 2.3590	32.6948
 2.3580	32.8122
 2.3570	32.9106
 2.3560	32.9729
 2.3550	32.9665
 2.3540	32.9992
 2.3530	33.0414
 2.3520	33.0283
 2.3510	33.0279
 2.3500	33.0754
 2.3490	33.1253
 2.3480	33.1481
 2.3470	33.1339
 2.3460	33.1035
 2.3450	33.0980
 2.3440	33.0582
 2.3430	33.0350
 2.3420	32.9775
 2.3410	32.8815
 2.3400	32.7587
 2.3390	32.6534
 2.3380	32.5448
 2.3370	32.4048
 2.3360	32.1830
 2.3350	31.9879
 2.3340	31.7447
 2.3330	31.4810
 2.3320	31.1799
 2.3310	30.9054
 2.3300	30.5488
 2.3290	30.2059
 2.3280	29.8650
 2.3270	29.5126
 2.3260	29.0754
 2.3250	28.6495
 2.3240	28.2160
 2.3230	27.7872
 2.3220	27.2865
 2.3210	26.8804
 2.3200	26.4315
 2.3190	25.9362
 2.3180	25.5208
 2.3170	25.1909
 2.3160	24.8322
 2.3150	24.5776
 2.3140	24.2851
 2.3130	24.0927
 2.3120	23.8138
 2.3110	23.7355
 2.3100	23.6247
 2.3090	23.5609
 2.3080	23.7047
 2.3070	23.8804
 2.3060	23.9914
 2.3050	24.2360
 2.3040	24.4368
 2.3030	24.7143
 2.3020	25.0605
 2.3010	25.2934
 2.3000	25.4901
 2.2990	25.7534
 2.2980	26.0221
 2.2970	26.3232
 2.2960	26.5244
 2.2950	26.7209
 2.2940	26.8098
 2.2930	26.9493
 2.2920	27.0604
 2.2910	27.2917
 2.2900	27.4482
 2.2890	27.5627
 2.2880	27.7066
 2.2870	27.9213
 2.2860	28.1277
 2.2850	28.4216
 2.2840	28.6930
 2.2830	29.0546
 2.2820	29.4585
 2.2810	29.8881
 2.2800	30.2312
 2.2790	30.6467
 2.2780	31.0436
 2.2770	31.4767
 2.2760	31.8799
 2.2750	32.2838
 2.2740	32.5970
 2.2730	32.9378
 2.2720	33.2411
 2.2710	33.6015
 2.2700	33.8052
 2.2690	34.0472
 2.2680	34.2915
 2.2670	34.5601
 2.2660	34.6761
 2.2650	34.8613
 2.2640	35.0660
 2.2630	35.3556
 2.2620	35.4846
 2.2610	35.7376
 2.2600	35.8105
 2.2590	36.0124
 2.2580	36.1509
 2.2570	36.3259
 2.2560	36.4928
 2.2550	36.6390
 2.2540	36.7153
 2.2530	36.8889
 2.2520	36.9585
 2.2510	37.0968
 2.2500	37.1222
 2.2490	37.2233
 2.2480	37.2361
 2.2470	37.3724
 2.2460	37.4740
 2.2450	37.4788
 2.2440	37.5237
 2.2430	37.6421
 2.2420	37.6079
 2.2410	37.6570
 2.2400	37.6709
 2.2390	37.7179
 2.2380	37.6984
 2.2370	37.7732
 2.2360	37.8101
 2.2350	37.9538
 2.2340	37.9034
 2.2330	38.1183
 2.2320	38.0547
 2.2310	38.2036
 2.2300	38.1686
 2.2290	38.4953
 2.2280	38.4622
 2.2270	38.6459
 2.2260	38.7202
 2.2250	38.8842
 2.2240	38.9979
 2.2230	39.1940
 2.2220	39.2912
 2.2210	39.4675
 2.2200	39.5183
 2.2190	39.8049
 2.2180	39.8165
 2.2170	39.9077
 2.2160	40.0539
 2.2150	40.0811
 2.2140	40.0753
 2.2130	40.2838
 2.2120	40.2810
 2.2110	40.3113
 2.2100	40.4508
 2.2090	40.5471
 2.2080	40.5817
 2.2070	40.6898
 2.2060	40.6576
 2.2050	40.7130
 2.2040	40.8025
 2.2030	40.8135
 2.2020	40.8361
 2.2010	40.9622
 2.2000	40.9556
 2.1990	41.0077
 2.1980	41.0144
 2.1970	41.1210
 2.1960	41.1333
 2.1950	41.2672
 2.1940	41.2091
 2.1930	41.2912
 2.1920	41.2780
 2.1910	41.2921
 2.1900	41.3005
 2.1890	41.3722
 2.1880	41.3746
 2.1870	41.4768
 2.1860	41.4309
 2.1850	41.4924
 2.1840	41.5175
 2.1830	41.5395
 2.1820	41.5374
 2.1810	41.6094
 2.1800	41.5544
 2.1790	41.5671
 2.1780	41.6265
 2.1770	41.6728
 2.1760	41.6559
 2.1750	41.7191
 2.1740	41.7424
 2.1730	41.8095
 2.1720	41.7242
 2.1710	41.8490
 2.1700	41.8803
 2.1690	41.9658
 2.1680	42.0475
 2.1670	42.0889
 2.1660	42.1091
 2.1650	42.2436
 2.1640	42.2079
 2.1630	42.3208
 2.1620	42.3721
 2.1610	42.4019
 2.1600	42.4974
 2.1590	42.5583
 2.1580	42.5479
 2.1570	42.6154
 2.1560	42.6041
 2.1550	42.6949
 2.1540	42.6572
 2.1530	42.7677
 2.1520	42.7466
 2.1510	42.7560
 2.1500	42.7601
 2.1490	42.8156
 2.1480	42.7667
 2.1470	42.8612
 2.1460	42.8352
 2.1450	42.8160
 2.1440	42.8117
 2.1430	42.7945
 2.1420	42.8504
 2.1410	42.9053
 2.1400	42.8465
 2.1390	42.8838
 2.1380	42.8605
 2.1370	42.8497
 2.1360	42.8785
 2.1350	42.8526
 2.1340	42.8520
 2.1330	42.8869
 2.1320	42.8586
 2.1310	42.9429
 2.1300	42.9204
 2.1290	42.9390
 2.1280	42.9591
 2.1270	43.0156
 2.1260	43.0357
 2.1250	43.0306
 2.1240	43.0878
 2.1230	43.1407
 2.1220	43.1775
 2.1210	43.2224
 2.1200	43.2144
 2.1190	43.2650
 2.1180	43.2423
 2.1170	43.2709
 2.1160	43.2991
 2.1150	43.3422
 2.1140	43.3012
 2.1130	43.3762
 2.1120	43.4151
 2.1110	43.4279
 2.1100	43.3996
 2.1090	43.5156
 2.1080	43.5716
 2.1070	43.5412
 2.1060	43.5720
 2.1050	43.6001
 2.1040	43.6548
 2.1030	43.6796
 2.1020	43.6489
 2.1010	43.6288
 2.1000	43.6291
 2.0990	43.7056
 2.0980	43.7363
 2.0970	43.7489
 2.0960	43.8019
 2.0950	43.8086
 2.0940	43.8140
 2.0930	43.8405
 2.0920	43.8965
 2.0910	43.9563
 2.0900	43.9811
 2.0890	44.0093
 2.0880	44.0327
 2.0870	44.0926
 2.0860	44.0746
 2.0850	44.0785
 2.0840	44.1050
 2.0830	44.0873
 2.0820	44.1058
 2.0810	44.1207
 2.0800	44.1103
 2.0790	44.1609
 2.0780	44.1753
 2.0770	44.2383
 2.0760	44.2625
 2.0750	44.3123
 2.0740	44.4255
 2.0730	44.5358
 2.0720	44.6273
 2.0710	44.7249
 2.0700	44.8730
 2.0690	44.9828
 2.0680	45.0176
 2.0670	45.0672
 2.0660	45.1135
 2.0650	45.1924
 2.0640	45.3021
 2.0630	45.3552
 2.0620	45.3411
 2.0610	45.3869
 2.0600	45.4383
 2.0590	45.4111
 2.0580	45.4581
 2.0570	45.5417
 2.0560	45.5913
 2.0550	45.5902
 2.0540	45.6271
 2.0530	45.6709
 2.0520	45.6970
 2.0510	45.7147
 2.0500	45.7632
 2.0490	45.7761
 2.0480	45.8227
 2.0470	45.7967
 2.0460	45.8272
 2.0450	45.8675
 2.0440	45.8913
 2.0430	45.8851
 2.0420	45.9193
 2.0410	45.9265
 2.0400	45.9523
 2.0390	46.0155
 2.0380	46.0228
 2.0370	45.9962
 2.0360	46.0693
 2.0350	46.0648
 2.0340	46.1171
 2.0330	46.1629
 2.0320	46.1608
 2.0310	46.1602
 2.0300	46.2047
 2.0290	46.1638
 2.0280	46.1718
 2.0270	46.1715
 2.0260	46.1694
 2.0250	46.1352
 2.0240	46.1589
 2.0230	46.1316
 2.0220	46.1807
 2.0210	46.1880
 2.0200	46.1615
 2.0190	46.1654
 2.0180	46.1374
 2.0170	46.0766
 2.0160	46.1742
 2.0150	46.1677
 2.0140	46.1309
 2.0130	46.1959
 2.0120	46.2318
 2.0110	46.2010
 2.0100	46.2080
 2.0090	46.2530
 2.0080	46.3144
 2.0070	46.3777
 2.0060	46.3245
 2.0050	46.3488
 2.0040	46.4088
 2.0030	46.4233
 2.0020	46.4997
 2.0010	46.5114
 2.0000	46.4697
 1.9990	46.5579
 1.9980	46.5615
 1.9970	46.5402
 1.9960	46.5763
 1.9950	46.6128
 1.9940	46.6520
 1.9930	46.6349
 1.9920	46.6869
 1.9910	46.6754
 1.9900	46.6799
 1.9890	46.7372
 1.9880	46.8101
 1.9870	46.8250
 1.9860	46.8440
 1.9850	46.8855
 1.9840	46.8753
 1.9830	46.8555
 1.9820	46.9817
 1.9810	46.9945
 1.9800	47.0454
 1.9790	47.0201
 1.9780	47.0866
 1.9770	47.0931
 1.9760	47.1741
 1.9750	47.2218
 1.9740	47.2219
 1.9730	47.2298
 1.9720	47.3524
 1.9710	47.2459
 1.9700	47.4167
 1.9690	47.3743
 1.9680	47.4710
 1.9670	47.5243
 1.9660	47.5702
 1.9650	47.5500
 1.9640	47.6288
 1.9630	47.6115
 1.9620	47.7500
 1.9610	47.6964
 1.9600	47.7767
 1.9590	47.7782
 1.9580	47.7766
 1.9570	47.8802
 1.9560	47.9367
 1.9550	47.8745
 1.9540	47.9864
 1.9530	47.9718
 1.9520	48.0375
 1.9510	48.0983
 1.9500	48.2353
 1.9490	48.1380
 1.9480	48.2317
 1.9470	48.2071
 1.9460	48.3420
 1.9450	48.2362
 1.9440	48.4172
 1.9430	48.3599
 1.9420	48.5123
 1.9410	48.4942
 1.9400	48.5088
 1.9390	48.5210
 1.9380	48.5948
 1.9370	48.6264
 1.9360	48.7174
 1.9350	48.7293
 1.9340	48.7433
 1.9330	48.8110
 1.9320	48.8286
 1.9310	48.8137
 1.9300	48.9268
 1.9290	48.9664
 1.9280	49.0517
 1.9270	48.9749
 1.9260	49.0385
 1.9250	49.0986
 1.9240	49.0931
 1.9230	49.0868
 1.9220	49.2316
 1.9210	49.1400
 1.9200	49.2110
 1.9190	49.2375
 1.9180	49.2842
 1.9170	49.3481
 1.9160	49.3656
 1.9150	49.3686
 1.9140	49.3775
 1.9130	49.4467
 1.9120	49.4705
 1.9110	49.4704
 1.9100	49.6546
 1.9090	49.6067
 1.9080	49.6857
 1.9070	49.6684
 1.9060	49.7813
 1.9050	49.7391
 1.9040	49.8757
 1.9030	49.8710
 1.9020	49.9502
 1.9010	49.9548
 1.9000	49.9643
 1.8990	49.9833
 1.8980	50.0838
 1.8970	50.1542
 1.8960	50.1650
 1.8950	50.1119
 1.8940	50.2396
 1.8930	50.2367
 1.8920	50.2680
 1.8910	50.2900
 1.8900	50.3965
 1.8890	50.3850
 1.8880	50.4470
 1.8870	50.4295
 1.8860	50.4523
 1.8850	50.4663
 1.8840	50.5579
 1.8830	50.4806
 1.8820	50.5714
 1.8810	50.5994
 1.8800	50.6507
 1.8790	50.6678
 1.8780	50.7494
 1.8770	50.8109
 1.8760	50.8565
 1.8750	50.7924
 1.8740	50.9237
 1.8730	50.9183
 1.8720	50.9307
 1.8710	50.9548
 1.8700	50.9452
 1.8690	50.8938
 1.8680	50.9484
 1.8670	50.9600
 1.8660	50.9774
 1.8650	51.0308
 1.8640	51.1525
 1.8630	51.2061
 1.8620	51.1845
 1.8610	51.2737
 1.8600	51.2710
 1.8590	51.2829
 1.8580	51.3388
 1.8570	51.3514
 1.8560	51.3126
 1.8550	51.3622
 1.8540	51.4789
 1.8530	51.4833
 1.8520	51.5372
 1.8510	51.5306
 1.8500	51.5482
 1.8490	51.5871
 1.8480	51.6844
 1.8470	51.6250
 1.8460	51.6354
 1.8450	51.6193
 1.8440	51.7362
 1.8430	51.7949
 1.8420	51.8141
 1.8410	51.8210
 1.8400	51.8730
 1.8390	51.8468
 1.8380	51.8070
 1.8370	51.7663
 1.8360	51.8052
 1.8350	51.8365
 1.8340	51.8758
 1.8330	51.9300
 1.8320	52.0035
 1.8310	52.0018
 1.8300	51.9976
 1.8290	51.9737
 1.8280	52.0009
 1.8270	52.0411
 1.8260	52.0737
 1.8250	52.0391
 1.8240	52.1194
 1.8230	52.1842
 1.8220	52.1736
 1.8210	52.1547
 1.8200	52.1633
 1.8190	52.1362
 1.8180	52.1857
 1.8170	52.2297
 1.8160	52.2137
 1.8150	52.2521
 1.8140	52.2989
 1.8130	52.3206
 1.8120	52.3239
 1.8110	52.3593
 1.8100	52.4105
 1.8090	52.4525
 1.8080	52.4979
 1.8070	52.4552
 1.8060	52.5052
 1.8050	52.5162
 1.8040	52.5084
 1.8030	52.5532
 1.8020	52.5834
 1.8010	52.5794
 1.8000	52.5748
 1.7990	52.5756
 1.7980	52.6077
 1.7970	52.6644
 1.7960	52.6979
 1.7950	52.7142
 1.7940	52.7378
 1.7930	52.7347
 1.7920	52.7497
 1.7910	52.7235
 1.7900	52.7559
 1.7890	52.7971
 1.7880	52.7935
 1.7870	52.8374
 1.7860	52.8294
 1.7850	52.8124
 1.7840	52.8418
 1.7830	52.8353
 1.7820	52.8800
 1.7810	52.8561
 1.7800	52.8474
 1.7790	52.8807
 1.7780	52.8664
 1.7770	52.8980
 1.7760	52.8956
 1.7750	52.8576
 1.7740	52.8500
 1.7730	52.8994
 1.7720	52.9180
 1.7710	52.9355
 1.7700	52.9333
 1.7690	52.9714
 1.7680	52.9500
 1.7670	52.9709
 1.7660	53.0231
 1.7650	53.0014
 1.7640	52.9741
 1.7630	52.9552
 1.7620	52.9765
 1.7610	53.0173
 1.7600	53.0051
 1.7590	53.0216
 1.7580	53.0544
 1.7570	53.0875
 1.7560	53.0952
 1.7550	53.0895
 1.7540	53.1085
 1.7530	53.1214
 1.7520	53.1225
 1.7510	53.1518
 1.7500	53.1931
 1.7490	53.2171
 1.7480	53.2029
 1.7470	53.1524
 1.7460	53.1319
 1.7450	53.1319
 1.7440	53.1493
 1.7430	53.1839
 1.7420	53.1466
 1.7410	53.1822
 1.7400	53.1990
 1.7390	53.1685
 1.7380	53.1961
 1.7370	53.2541
 1.7360	53.2330
 1.7350	53.2758
 1.7340	53.2827
 1.7330	53.2803
 1.7320	53.2718
 1.7310	53.3129
 1.7300	53.2858
 1.7290	53.3112
 1.7280	53.2881
 1.7270	53.3539
 1.7260	53.3232
 1.7250	53.3013
 1.7240	53.3522
 1.7230	53.3653
 1.7220	53.3903
 1.7210	53.3706
 1.7200	53.2494
 1.7190	53.3265
 1.7180	53.2742
 1.7170	53.3458
 1.7160	53.3404
 1.7150	53.3698
 1.7140	53.3848
 1.7130	53.3867
 1.7120	53.3724
 1.7110	53.3395
 1.7100	53.3319
 1.7090	53.3283
 1.7080	53.3560
 1.7070	53.3420
 1.7060	53.3476
 1.7050	53.3676
 1.7040	53.3300
 1.7030	53.3301
 1.7020	53.3128
 1.7010	53.3545
 1.7000	53.3947
 1.6990	53.3141
 1.6980	53.2960
 1.6970	53.3160
 1.6960	53.3534
 1.6950	53.3228
 1.6940	53.2372
 1.6930	53.3617
 1.6920	53.3455
 1.6910	53.3219
 1.6900	53.2303
 1.6890	53.3271
 1.6880	53.2260
 1.6870	53.2331
 1.6860	53.2935
 1.6850	53.2408
 1.6840	53.2347
 1.6830	53.2364
 1.6820	53.2580
 1.6810	53.2913
 1.6800	53.2006
 1.6790	53.2559
 1.6780	53.1827
 1.6770	53.2704
 1.6760	53.1821
 1.6750	53.2101
 1.6740	53.2051
 1.6730	53.1884
 1.6720	53.1722
 1.6710	53.1432
 1.6700	53.1313
 1.6690	53.2345
 1.6680	53.0614
 1.6670	53.1748
 1.6660	53.1170
 1.6650	53.0940
 1.6640	53.0793
 1.6630	53.1215
 1.6620	53.0849
 1.6610	53.1258
 1.6600	53.1190
 1.6590	53.0894
 1.6580	53.0705
 1.6570	53.0950
 1.6560	52.9816
 1.6550	53.0309
 1.6540	52.9827
 1.6530	52.9871
 1.6520	52.9790
 1.6510	53.0304
 1.6500	52.9811
 1.6490	53.0110
 1.6480	52.9514
 1.6470	53.0489
 1.6460	52.9308
 1.6450	52.9115
 1.6440	52.8872
 1.6430	52.9526
 1.6420	52.9088
 1.6410	52.8702
 1.6400	52.9279
 1.6390	52.8848
 1.6380	52.9310
 1.6370	52.8296
 1.6360	52.8266
 1.6350	52.8738
 1.6340	52.7646
 1.6330	52.7471
 1.6320	52.7506
 1.6310	52.8239
 1.6300	52.7116
 1.6290	52.7077
 1.6280	52.7108
 1.6270	52.7378
 1.6260	52.7214
 1.6250	52.7956
 1.6240	52.6578
 1.6230	52.6776
 1.6220	52.6425
 1.6210	52.7854
 1.6200	52.6520
 1.6190	52.6703
 1.6180	52.5645
 1.6170	52.6042
 1.6160	52.5417
 1.6150	52.5664
 1.6140	52.4871
 1.6130	52.5153
 1.6120	52.5101
 1.6110	52.4946
 1.6100	52.4696
 1.6090	52.4350
 1.6080	52.4225
 1.6070	52.4174
 1.6060	52.3934
 1.6050	52.3716
 1.6040	52.3257
 1.6030	52.2907
 1.6020	52.2683
 1.6010	52.3014
 1.6000	52.2873
 1.5990	52.2934
 1.5980	52.2376
 1.5970	52.1520
 1.5960	52.1723
 1.5950	52.2048
 1.5940	52.1964
 1.5930	52.1444
 1.5920	52.0416
 1.5910	52.0585
 1.5900	52.0324
 1.5890	51.9970
 1.5880	52.0187
 1.5870	52.0355
 1.5860	51.9498
 1.5850	51.9407
 1.5840	51.9338
 1.5830	51.8526
 1.5820	51.8216
 1.5810	51.8278
 1.5800	51.8161
 1.5790	51.7861
 1.5780	51.7304
 1.5770	51.7454
 1.5760	51.6988
 1.5750	51.6828
 1.5740	51.5569
 1.5730	51.5692
 1.5720	51.5160
 1.5710	51.5448
 1.5700	51.4840
 1.5690	51.4714
 1.5680	51.4414
 1.5670	51.4385
 1.5660	51.4019
 1.5650	51.4059
 1.5640	51.3332
 1.5630	51.2869
 1.5620	51.2250
 1.5610	51.2254
 1.5600	51.2298
 1.5590	51.2232
 1.5580	51.0908
 1.5570	51.0624
 1.5560	51.0408
 1.5550	51.0084
 1.5540	50.9965
 1.5530	50.9694
 1.5520	50.8823
 1.5510	50.8469
 1.5500	50.8197
 1.5490	50.7873
 1.5480	50.7434
 1.5470	50.7485
 1.5460	50.6576
 1.5450	50.5922
 1.5440	50.5313
 1.5430	50.5608
 1.5420	50.4831
 1.5410	50.4655
 1.5400	50.3968
 1.5390	50.3751
 1.5380	50.3586
 1.5370	50.3492
 1.5360	50.2643
 1.5350	50.2258
 1.5340	50.2113
 1.5330	50.1643
 1.5320	50.1198
 1.5310	50.0817
 1.5300	50.0125
 1.5290	50.0015
 1.5280	49.9879
 1.5270	49.9456
 1.5260	49.8883
 1.5250	49.9186
 1.5240	49.8530
 1.5230	49.8090
 1.5220	49.8151
 1.5210	49.7531
 1.5200	49.6439
 1.5190	49.6308
 1.5180	49.5973
 1.5170	49.5877
 1.5160	49.5539
 1.5150	49.4840
 1.5140	49.4395
 1.5130	49.4422
 1.5120	49.4075
 1.5110	49.3133
 1.5100	49.2667
 1.5090	49.2753
 1.5080	49.2022
 1.5070	49.1232
 1.5060	49.0908
 1.5050	49.0671
 1.5040	49.0375
 1.5030	48.9916
 1.5020	48.9346
 1.5010	48.9066
 1.5000	48.8624
 1.4990	48.8376
 1.4980	48.8058
 1.4970	48.7478
 1.4960	48.7250
 1.4950	48.7165
 1.4940	48.6809
 1.4930	48.6493
 1.4920	48.6053
 1.4910	48.5518
 1.4900	48.4938
 1.4890	48.4497
 1.4880	48.4137
 1.4870	48.3879
 1.4860	48.3624
 1.4850	48.2920
 1.4840	48.1870
 1.4830	48.1309
 1.4820	48.1300
 1.4810	48.1197
 1.4800	48.1045
 1.4790	48.0146
 1.4780	47.9434
 1.4770	47.9155
 1.4760	47.8787
 1.4750	47.8509
 1.4740	47.7953
 1.4730	47.6953
 1.4720	47.6742
 1.4710	47.6273
 1.4700	47.5611
 1.4690	47.5008
 1.4680	47.4510
 1.4670	47.4146
 1.4660	47.3801
 1.4650	47.3107
 1.4640	47.2478
 1.4630	47.2162
 1.4620	47.1949
 1.4610	47.1021
 1.4600	47.0137
 1.4590	46.9761
 1.4580	46.9710
 1.4570	46.8915
 1.4560	46.7927
 1.4550	46.7795
 1.4540	46.7212
 1.4530	46.5838
 1.4520	46.5111
 1.4510	46.4591
 1.4500	46.4082
 1.4490	46.3915
 1.4480	46.3862
 1.4470	46.3266
 1.4460	46.1907
 1.4450	46.0574
 1.4440	46.0119
 1.4430	45.9399
 1.4420	45.9050
 1.4410	45.8792
 1.4400	45.7704
 1.4390	45.7021
 1.4380	45.7139
 1.4370	45.6188
 1.4360	45.5814
 1.4350	45.4899
 1.4340	45.4127
 1.4330	45.3877
 1.4320	45.3319
 1.4310	45.2427
 1.4300	45.2106
 1.4290	45.1251
 1.4280	45.1506
 1.4270	45.0184
 1.4260	45.0020
 1.4250	44.9607
 1.4240	44.9052
 1.4230	44.8242
 1.4220	44.8819
 1.4210	44.8104
 1.4200	44.7398
 1.4190	44.6619
 1.4180	44.6229
 1.4170	44.5645
 1.4160	44.5379
 1.4150	44.4663
 1.4140	44.3950
 1.4130	44.2269
 1.4120	44.2313
 1.4110	44.1639
 1.4100	44.1506
 1.4090	44.1051
 1.4080	44.0925
 1.4070	44.0032
 1.4060	43.9327
 1.4050	43.7967
 1.4040	43.6917
 1.4030	43.5613
 1.4020	43.1401
 1.4010	42.2573
 1.4000	41.2302
 1.3990	40.2015
 1.3980	39.2862
 1.3970	38.5250
 1.3960	37.5534
 1.3950	35.9017
 1.3940	34.3796
 1.3930	33.3158
 1.3920	33.1383
 1.3910	34.4676
 1.3900	36.7453
 1.3890	38.9935
 1.3880	40.9311
 1.3870	41.8902
 1.3860	42.5264
 1.3850	42.6979
 1.3840	42.9898
 1.3830	43.0522
 1.3820	43.1092
 1.3810	42.9959
 1.3800	43.2451
 1.3790	43.3170
 1.3780	43.5674
 1.3770	43.4857
 1.3760	43.5304
 1.3750	43.5253
 1.3740	43.5341
 1.3730	43.4988
 1.3720	43.4555
 1.3710	43.4201
 1.3700	43.3271
 1.3690	43.3507
 1.3680	43.3374
 1.3670	43.2919
