Name: Amblygonite (Li,Na)Al(PO_4)(F,OH)
Type: Mineral
Class: Phosphate
Subclass: None
Particle Size: Coarse
Sample No.: P-3A
Owner: JPL
Wavelength Range: VSWIR
Origin: USA, California, San Diego County, Pala.
Collection Date: N/A
Description: Particle size was 125-500um.Collected by:  Burminco Original ASTER Spectral Library name was jpl.perkin.mineral.phosphate.none.coarse.p03a.spectrum.txt
Measurement: Hemispherical reflectance
First Column: X
Second Column: Y
X Units: Wavelength (micrometers)
Y Units:Reflectance (percent)
First X Value:  2.5000
Last X Value:  0.4000
Number of X Values: 2101
Additional Information: mineral.phosphate.none.coarse.vswir.p-3a.jpl.perkin.ancillary.txt

 2.5000	20.7262
 2.4990	20.6924
 2.4980	21.3462
 2.4970	21.2315
 2.4960	21.1487
 2.4950	21.4438
 2.4940	21.5809
 2.4930	21.5847
 2.4920	21.9359
 2.4910	21.7733
 2.4900	22.0498
 2.4890	21.9727
 2.4880	22.4895
 2.4870	22.4430
 2.4860	22.6811
 2.4850	22.7667
 2.4840	23.0738
 2.4830	23.1729
 2.4820	23.3357
 2.4810	23.4701
 2.4800	23.9128
 2.4790	23.8602
 2.4780	24.1840
 2.4770	24.2075
 2.4760	24.6174
 2.4750	24.7459
 2.4740	24.9290
 2.4730	25.1027
 2.4720	25.3496
 2.4710	25.4682
 2.4700	25.9796
 2.4690	26.0102
 2.4680	26.3734
 2.4670	26.5476
 2.4660	26.9475
 2.4650	27.2024
 2.4640	27.5546
 2.4630	27.7298
 2.4620	28.0305
 2.4610	28.2387
 2.4600	28.6101
 2.4590	28.7565
 2.4580	29.1519
 2.4570	29.3429
 2.4560	29.7091
 2.4550	29.8295
 2.4540	30.2049
 2.4530	30.4479
 2.4520	30.7658
 2.4510	30.8287
 2.4500	31.2286
 2.4490	31.4963
 2.4480	31.7488
 2.4470	31.9266
 2.4460	32.2018
 2.4450	32.3216
 2.4440	32.6148
 2.4430	32.8572
 2.4420	33.0870
 2.4410	33.2254
 2.4400	33.4497
 2.4390	33.6339
 2.4380	33.7575
 2.4370	33.7590
 2.4360	34.0749
 2.4350	34.0692
 2.4340	34.2355
 2.4330	34.3717
 2.4320	34.5274
 2.4310	34.5219
 2.4300	34.5882
 2.4290	34.6856
 2.4280	34.7688
 2.4270	34.7214
 2.4260	34.8185
 2.4250	34.7678
 2.4240	34.8678
 2.4230	34.7398
 2.4220	34.7413
 2.4210	34.7719
 2.4200	34.7567
 2.4190	34.5545
 2.4180	34.5420
 2.4170	34.3971
 2.4160	34.3058
 2.4150	34.1782
 2.4140	34.1294
 2.4130	33.8456
 2.4120	33.7025
 2.4110	33.4775
 2.4100	33.2953
 2.4090	32.9952
 2.4080	32.6660
 2.4070	32.3633
 2.4060	32.0097
 2.4050	31.5518
 2.4040	31.1489
 2.4030	30.6592
 2.4020	30.1941
 2.4010	29.6539
 2.4000	29.0630
 2.3990	28.4379
 2.3980	27.8218
 2.3970	27.1279
 2.3960	26.4381
 2.3950	25.6636
 2.3940	24.9749
 2.3930	24.1950
 2.3920	23.3733
 2.3910	22.5362
 2.3900	21.7990
 2.3890	20.9656
 2.3880	20.2937
 2.3870	19.5681
 2.3860	18.8345
 2.3850	18.1637
 2.3840	17.5946
 2.3830	17.0192
 2.3820	16.5288
 2.3810	16.0493
 2.3800	15.6035
 2.3790	15.2253
 2.3780	14.9794
 2.3770	14.8084
 2.3760	14.6704
 2.3750	14.5396
 2.3740	14.5778
 2.3730	14.7027
 2.3720	14.8398
 2.3710	15.0003
 2.3700	15.3287
 2.3690	15.6621
 2.3680	16.0969
 2.3670	16.6245
 2.3660	17.1611
 2.3650	17.8191
 2.3640	18.5681
 2.3630	19.3344
 2.3620	20.1570
 2.3610	21.0937
 2.3600	22.0729
 2.3590	23.0039
 2.3580	23.9914
 2.3570	25.0839
 2.3560	26.2128
 2.3550	27.2533
 2.3540	28.3808
 2.3530	29.4671
 2.3520	30.4861
 2.3510	31.5397
 2.3500	32.5629
 2.3490	33.5887
 2.3480	34.5758
 2.3470	35.4850
 2.3460	36.3286
 2.3450	37.1021
 2.3440	37.8798
 2.3430	38.6079
 2.3420	39.1739
 2.3410	39.7932
 2.3400	40.3417
 2.3390	40.8165
 2.3380	41.2395
 2.3370	41.6540
 2.3360	41.9915
 2.3350	42.2786
 2.3340	42.5598
 2.3330	42.7794
 2.3320	42.9470
 2.3310	43.1035
 2.3300	43.2293
 2.3290	43.3853
 2.3280	43.4769
 2.3270	43.5219
 2.3260	43.5724
 2.3250	43.7068
 2.3240	43.7016
 2.3230	43.6455
 2.3220	43.6176
 2.3210	43.6249
 2.3200	43.5701
 2.3190	43.5604
 2.3180	43.4985
 2.3170	43.4457
 2.3160	43.3913
 2.3150	43.3897
 2.3140	43.2473
 2.3130	43.1737
 2.3120	43.0049
 2.3110	42.8314
 2.3100	42.7450
 2.3090	42.6458
 2.3080	42.4540
 2.3070	42.3271
 2.3060	42.1509
 2.3050	42.0446
 2.3040	41.8407
 2.3030	41.6433
 2.3020	41.4668
 2.3010	41.2718
 2.3000	41.0567
 2.2990	40.9420
 2.2980	40.7390
 2.2970	40.5227
 2.2960	40.2753
 2.2950	40.1167
 2.2940	39.8699
 2.2930	39.7564
 2.2920	39.4844
 2.2910	39.3313
 2.2900	39.0745
 2.2890	38.8540
 2.2880	38.6843
 2.2870	38.5102
 2.2860	38.2386
 2.2850	38.1391
 2.2840	37.9364
 2.2830	37.7643
 2.2820	37.4858
 2.2810	37.4309
 2.2800	37.1952
 2.2790	37.1327
 2.2780	36.8937
 2.2770	36.7370
 2.2760	36.5333
 2.2750	36.4485
 2.2740	36.2655
 2.2730	36.1807
 2.2720	35.9903
 2.2710	35.8676
 2.2700	35.7331
 2.2690	35.6068
 2.2680	35.4297
 2.2670	35.3522
 2.2660	35.1801
 2.2650	35.1170
 2.2640	34.9100
 2.2630	34.8640
 2.2620	34.6193
 2.2610	34.5568
 2.2600	34.3368
 2.2590	34.1909
 2.2580	34.0094
 2.2570	33.8048
 2.2560	33.5858
 2.2550	33.4515
 2.2540	33.2947
 2.2530	33.1749
 2.2520	32.7868
 2.2510	32.6384
 2.2500	32.4476
 2.2490	32.2397
 2.2480	31.8868
 2.2470	31.7937
 2.2460	31.4354
 2.2450	31.2413
 2.2440	30.8919
 2.2430	30.7349
 2.2420	30.3951
 2.2410	30.2210
 2.2400	29.8778
 2.2390	29.6843
 2.2380	29.3163
 2.2370	29.1585
 2.2360	28.8662
 2.2350	28.5868
 2.2340	28.2508
 2.2330	28.0747
 2.2320	27.8095
 2.2310	27.4246
 2.2300	27.1339
 2.2290	26.9593
 2.2280	26.5600
 2.2270	26.3442
 2.2260	26.0296
 2.2250	25.8440
 2.2240	25.4307
 2.2230	25.1782
 2.2220	24.8462
 2.2210	24.5930
 2.2200	24.2749
 2.2190	23.9565
 2.2180	23.4939
 2.2170	23.2428
 2.2160	22.8888
 2.2150	22.5095
 2.2140	22.1244
 2.2130	21.7623
 2.2120	21.4294
 2.2110	20.9086
 2.2100	20.5431
 2.2090	20.2787
 2.2080	19.7195
 2.2070	19.4778
 2.2060	18.9281
 2.2050	18.6529
 2.2040	18.1475
 2.2030	17.8746
 2.2020	17.4364
 2.2010	17.1085
 2.2000	16.6188
 2.1990	16.3888
 2.1980	15.9624
 2.1970	15.7322
 2.1960	15.2544
 2.1950	15.0549
 2.1940	14.5937
 2.1930	14.4500
 2.1920	13.8995
 2.1910	13.8093
 2.1900	13.3694
 2.1890	13.1579
 2.1880	12.9356
 2.1870	12.7372
 2.1860	12.3811
 2.1850	12.2759
 2.1840	11.9686
 2.1830	11.9376
 2.1820	11.6182
 2.1810	11.5392
 2.1800	11.3899
 2.1790	11.3756
 2.1780	11.2553
 2.1770	11.3896
 2.1760	11.3673
 2.1750	11.5394
 2.1740	11.6510
 2.1730	11.9975
 2.1720	12.2138
 2.1710	12.6832
 2.1700	13.1544
 2.1690	13.8575
 2.1680	14.4317
 2.1670	15.3243
 2.1660	16.1674
 2.1650	17.2319
 2.1640	18.3056
 2.1630	19.5120
 2.1620	20.7173
 2.1610	22.0151
 2.1600	23.2769
 2.1590	24.7138
 2.1580	25.9821
 2.1570	27.3116
 2.1560	28.6160
 2.1550	29.9332
 2.1540	31.1568
 2.1530	32.4741
 2.1520	33.4532
 2.1510	34.5843
 2.1500	35.4510
 2.1490	36.3596
 2.1480	37.1901
 2.1470	37.9356
 2.1460	38.5753
 2.1450	39.2186
 2.1440	39.7402
 2.1430	40.2954
 2.1420	40.6112
 2.1410	41.0656
 2.1400	41.4246
 2.1390	41.7569
 2.1380	41.9908
 2.1370	42.2510
 2.1360	42.4766
 2.1350	42.6501
 2.1340	42.8411
 2.1330	42.9776
 2.1320	43.1746
 2.1310	43.3366
 2.1300	43.4451
 2.1290	43.6239
 2.1280	43.7652
 2.1270	43.9650
 2.1260	44.0505
 2.1250	44.2322
 2.1240	44.3721
 2.1230	44.5244
 2.1220	44.6698
 2.1210	44.8246
 2.1200	44.9632
 2.1190	45.1630
 2.1180	45.3040
 2.1170	45.4967
 2.1160	45.6456
 2.1150	45.8328
 2.1140	45.9577
 2.1130	46.1586
 2.1120	46.3348
 2.1110	46.5014
 2.1100	46.6534
 2.1090	46.8449
 2.1080	47.0221
 2.1070	47.1850
 2.1060	47.3635
 2.1050	47.4900
 2.1040	47.5998
 2.1030	47.8020
 2.1020	47.9600
 2.1010	48.0751
 2.1000	48.1803
 2.0990	48.2867
 2.0980	48.4510
 2.0970	48.5432
 2.0960	48.6584
 2.0950	48.7647
 2.0940	48.8422
 2.0930	48.9653
 2.0920	49.0136
 2.0910	49.0202
 2.0900	49.0654
 2.0890	49.0730
 2.0880	49.0410
 2.0870	49.0704
 2.0860	49.0817
 2.0850	49.0747
 2.0840	48.9599
 2.0830	48.8707
 2.0820	48.8376
 2.0810	48.7999
 2.0800	48.7092
 2.0790	48.6449
 2.0780	48.5867
 2.0770	48.4968
 2.0760	48.4053
 2.0750	48.3032
 2.0740	48.2539
 2.0730	48.1949
 2.0720	48.1257
 2.0710	48.0849
 2.0700	48.0089
 2.0690	47.9378
 2.0680	47.9259
 2.0670	47.8877
 2.0660	47.8854
 2.0650	47.9200
 2.0640	47.9188
 2.0630	47.9276
 2.0620	47.9384
 2.0610	47.9160
 2.0600	47.9979
 2.0590	48.0289
 2.0580	48.0382
 2.0570	48.1316
 2.0560	48.2336
 2.0550	48.3112
 2.0540	48.4147
 2.0530	48.4677
 2.0520	48.5966
 2.0510	48.6976
 2.0500	48.8296
 2.0490	48.9390
 2.0480	49.0935
 2.0470	49.2785
 2.0460	49.4433
 2.0450	49.5886
 2.0440	49.7982
 2.0430	49.9640
 2.0420	50.1338
 2.0410	50.2585
 2.0400	50.4055
 2.0390	50.5506
 2.0380	50.7436
 2.0370	50.8915
 2.0360	51.1048
 2.0350	51.2541
 2.0340	51.4087
 2.0330	51.5216
 2.0320	51.5813
 2.0310	51.6830
 2.0300	51.7668
 2.0290	51.7722
 2.0280	51.7889
 2.0270	51.8638
 2.0260	51.8813
 2.0250	51.8404
 2.0240	51.8368
 2.0230	51.6971
 2.0220	51.6375
 2.0210	51.4535
 2.0200	51.2610
 2.0190	51.0649
 2.0180	50.8952
 2.0170	50.5841
 2.0160	50.2324
 2.0150	49.7934
 2.0140	49.3506
 2.0130	48.8709
 2.0120	48.3226
 2.0110	47.6867
 2.0100	47.0412
 2.0090	46.2472
 2.0080	45.4787
 2.0070	44.5522
 2.0060	43.6346
 2.0050	42.5906
 2.0040	41.6542
 2.0030	40.6140
 2.0020	39.6671
 2.0010	38.7210
 2.0000	37.9272
 1.9990	37.1750
 1.9980	36.5747
 1.9970	36.0998
 1.9960	35.8054
 1.9950	35.6586
 1.9940	35.7226
 1.9930	35.8159
 1.9920	36.1688
 1.9910	36.6117
 1.9900	37.2830
 1.9890	37.9162
 1.9880	38.8011
 1.9870	39.6622
 1.9860	40.5286
 1.9850	41.5056
 1.9840	42.6311
 1.9830	43.5770
 1.9820	44.6230
 1.9810	45.5910
 1.9800	46.5366
 1.9790	47.4371
 1.9780	48.3718
 1.9770	49.1744
 1.9760	49.8734
 1.9750	50.5321
 1.9740	51.2172
 1.9730	51.7289
 1.9720	52.2693
 1.9710	52.6874
 1.9700	53.1730
 1.9690	53.5372
 1.9680	53.9148
 1.9670	54.1206
 1.9660	54.4729
 1.9650	54.6913
 1.9640	54.9708
 1.9630	55.1166
 1.9620	55.3981
 1.9610	55.4611
 1.9600	55.5936
 1.9590	55.8107
 1.9580	55.8846
 1.9570	55.9237
 1.9560	56.0366
 1.9550	56.1316
 1.9540	56.2465
 1.9530	56.2767
 1.9520	56.3500
 1.9510	56.2458
 1.9500	56.4133
 1.9490	56.4300
 1.9480	56.5428
 1.9470	56.5364
 1.9460	56.5357
 1.9450	56.5960
 1.9440	56.5483
 1.9430	56.5866
 1.9420	56.6497
 1.9410	56.5508
 1.9400	56.6946
 1.9390	56.5512
 1.9380	56.6980
 1.9370	56.6323
 1.9360	56.6481
 1.9350	56.6130
 1.9340	56.6445
 1.9330	56.6498
 1.9320	56.6995
 1.9310	56.7708
 1.9300	56.7709
 1.9290	56.6899
 1.9280	56.7040
 1.9270	56.6337
 1.9260	56.5251
 1.9250	56.6403
 1.9240	56.6147
 1.9230	56.5274
 1.9220	56.4934
 1.9210	56.4576
 1.9200	56.5639
 1.9190	56.3447
 1.9180	56.4226
 1.9170	56.3848
 1.9160	56.3819
 1.9150	56.3374
 1.9140	56.4728
 1.9130	56.3035
 1.9120	56.5122
 1.9110	56.5383
 1.9100	56.5790
 1.9090	56.6737
 1.9080	56.7267
 1.9070	56.8028
 1.9060	56.9043
 1.9050	56.9484
 1.9040	57.0656
 1.9030	57.2216
 1.9020	57.3572
 1.9010	57.3994
 1.9000	57.5087
 1.8990	57.5723
 1.8980	57.7481
 1.8970	57.7979
 1.8960	57.8799
 1.8950	57.8390
 1.8940	58.0344
 1.8930	58.0867
 1.8920	58.1893
 1.8910	58.2016
 1.8900	58.3124
 1.8890	58.2682
 1.8880	58.3773
 1.8870	58.4082
 1.8860	58.5072
 1.8850	58.4738
 1.8840	58.5596
 1.8830	58.5090
 1.8820	58.5418
 1.8810	58.5301
 1.8800	58.5983
 1.8790	58.6036
 1.8780	58.5839
 1.8770	58.5680
 1.8760	58.5967
 1.8750	58.5190
 1.8740	58.6000
 1.8730	58.5207
 1.8720	58.5517
 1.8710	58.4175
 1.8700	58.3314
 1.8690	58.1452
 1.8680	58.0489
 1.8670	57.8317
 1.8660	57.6504
 1.8650	57.3544
 1.8640	57.1252
 1.8630	56.8509
 1.8620	56.6486
 1.8610	56.3203
 1.8600	56.0416
 1.8590	55.7208
 1.8580	55.4174
 1.8570	55.0713
 1.8560	54.8321
 1.8550	54.6047
 1.8540	54.4245
 1.8530	54.2320
 1.8520	54.0546
 1.8510	53.9225
 1.8500	53.8394
 1.8490	53.8563
 1.8480	53.8643
 1.8470	53.9267
 1.8460	54.1018
 1.8450	54.3130
 1.8440	54.6505
 1.8430	55.0463
 1.8420	55.5516
 1.8410	56.1357
 1.8400	56.7974
 1.8390	57.5880
 1.8380	58.4132
 1.8370	59.1404
 1.8360	59.9532
 1.8350	60.6759
 1.8340	61.3682
 1.8330	61.9907
 1.8320	62.5239
 1.8310	63.0100
 1.8300	63.4624
 1.8290	63.7777
 1.8280	64.1643
 1.8270	64.4282
 1.8260	64.6678
 1.8250	64.8901
 1.8240	65.0301
 1.8230	65.0830
 1.8220	65.2804
 1.8210	65.3660
 1.8200	65.4644
 1.8190	65.5706
 1.8180	65.5791
 1.8170	65.6489
 1.8160	65.7163
 1.8150	65.7339
 1.8140	65.7356
 1.8130	65.7750
 1.8120	65.7813
 1.8110	65.7896
 1.8100	65.8019
 1.8090	65.8211
 1.8080	65.8222
 1.8070	65.7592
 1.8060	65.7497
 1.8050	65.7491
 1.8040	65.7556
 1.8030	65.6857
 1.8020	65.7001
 1.8010	65.6594
 1.8000	65.6107
 1.7990	65.5688
 1.7980	65.4963
 1.7970	65.4129
 1.7960	65.3572
 1.7950	65.2930
 1.7940	65.1830
 1.7930	65.0991
 1.7920	65.0189
 1.7910	64.9645
 1.7900	64.8630
 1.7890	64.7407
 1.7880	64.6575
 1.7870	64.5582
 1.7860	64.4602
 1.7850	64.4087
 1.7840	64.3242
 1.7830	64.2210
 1.7820	64.1733
 1.7810	64.1463
 1.7800	64.1038
 1.7790	64.0045
 1.7780	63.9284
 1.7770	63.9057
 1.7760	63.8511
 1.7750	63.7904
 1.7740	63.7782
 1.7730	63.8170
 1.7720	63.7774
 1.7710	63.7176
 1.7700	63.7077
 1.7690	63.7543
 1.7680	63.7162
 1.7670	63.6789
 1.7660	63.6838
 1.7650	63.7029
 1.7640	63.7507
 1.7630	63.8523
 1.7620	63.9166
 1.7610	63.9621
 1.7600	63.9946
 1.7590	63.9784
 1.7580	63.9963
 1.7570	64.0909
 1.7560	64.1446
 1.7550	64.2308
 1.7540	64.2570
 1.7530	64.3365
 1.7520	64.3815
 1.7510	64.3444
 1.7500	64.3820
 1.7490	64.4381
 1.7480	64.4026
 1.7470	64.4402
 1.7460	64.4987
 1.7450	64.4824
 1.7440	64.4371
 1.7430	64.4710
 1.7420	64.4603
 1.7410	64.4598
 1.7400	64.3855
 1.7390	64.3586
 1.7380	64.4143
 1.7370	64.4453
 1.7360	64.4291
 1.7350	64.4792
 1.7340	64.5093
 1.7330	64.6382
 1.7320	64.7019
 1.7310	64.7996
 1.7300	64.8873
 1.7290	65.0188
 1.7280	65.0842
 1.7270	65.2578
 1.7260	65.3642
 1.7250	65.5325
 1.7240	65.6290
 1.7230	65.8081
 1.7220	65.9461
 1.7210	66.1079
 1.7200	66.2289
 1.7190	66.3887
 1.7180	66.5473
 1.7170	66.7140
 1.7160	66.8248
 1.7150	67.0369
 1.7140	67.0937
 1.7130	67.2257
 1.7120	67.3082
 1.7110	67.3933
 1.7100	67.4316
 1.7090	67.5702
 1.7080	67.6572
 1.7070	67.6430
 1.7060	67.7418
 1.7050	67.7887
 1.7040	67.7744
 1.7030	67.8377
 1.7020	67.8181
 1.7010	67.8445
 1.7000	67.9080
 1.6990	67.9101
 1.6980	67.9077
 1.6970	67.9676
 1.6960	67.9691
 1.6950	67.9339
 1.6940	67.9647
 1.6930	68.0029
 1.6920	67.9748
 1.6910	68.0024
 1.6900	67.9926
 1.6890	67.9936
 1.6880	68.0316
 1.6870	68.0580
 1.6860	68.0194
 1.6850	68.0216
 1.6840	68.0638
 1.6830	68.0853
 1.6820	68.0861
 1.6810	68.1427
 1.6800	68.0980
 1.6790	68.1080
 1.6780	68.0864
 1.6770	68.0511
 1.6760	68.0659
 1.6750	68.1264
 1.6740	68.1318
 1.6730	68.1250
 1.6720	68.0945
 1.6710	68.0586
 1.6700	67.9817
 1.6690	68.0501
 1.6680	67.9789
 1.6670	67.9912
 1.6660	67.9231
 1.6650	67.8914
 1.6640	67.8609
 1.6630	67.9207
 1.6620	67.8233
 1.6610	67.8091
 1.6600	67.7428
 1.6590	67.7939
 1.6580	67.7050
 1.6570	67.7759
 1.6560	67.6955
 1.6550	67.6743
 1.6540	67.6725
 1.6530	67.6389
 1.6520	67.6139
 1.6510	67.6154
 1.6500	67.5161
 1.6490	67.6023
 1.6480	67.5337
 1.6470	67.6695
 1.6460	67.5156
 1.6450	67.5240
 1.6440	67.4875
 1.6430	67.5273
 1.6420	67.4609
 1.6410	67.4878
 1.6400	67.4535
 1.6390	67.3873
 1.6380	67.4111
 1.6370	67.4108
 1.6360	67.3661
 1.6350	67.3653
 1.6340	67.1615
 1.6330	67.2393
 1.6320	67.1846
 1.6310	67.2172
 1.6300	67.1726
 1.6290	67.2357
 1.6280	67.0752
 1.6270	67.0179
 1.6260	67.0227
 1.6250	66.9685
 1.6240	66.8448
 1.6230	66.8140
 1.6220	66.6988
 1.6210	66.6769
 1.6200	66.5944
 1.6190	66.4832
 1.6180	66.4673
 1.6170	66.3754
 1.6160	66.3131
 1.6150	66.2415
 1.6140	66.1208
 1.6130	66.1396
 1.6120	65.9637
 1.6110	65.9095
 1.6100	65.9112
 1.6090	65.7874
 1.6080	65.7089
 1.6070	65.7103
 1.6060	65.6289
 1.6050	65.5611
 1.6040	65.5530
 1.6030	65.5470
 1.6020	65.5237
 1.6010	65.4757
 1.6000	65.4049
 1.5990	65.4059
 1.5980	65.2956
 1.5970	65.3479
 1.5960	65.1931
 1.5950	65.2082
 1.5940	65.0572
 1.5930	65.0610
 1.5920	64.9105
 1.5910	64.8451
 1.5900	64.7456
 1.5890	64.6363
 1.5880	64.5367
 1.5870	64.4538
 1.5860	64.3383
 1.5850	64.2672
 1.5840	64.0360
 1.5830	63.9270
 1.5820	63.8126
 1.5810	63.6037
 1.5800	63.4156
 1.5790	63.3418
 1.5780	63.1534
 1.5770	63.0419
 1.5760	62.8713
 1.5750	62.6341
 1.5740	62.4200
 1.5730	62.2391
 1.5720	62.0579
 1.5710	61.8305
 1.5700	61.5970
 1.5690	61.4422
 1.5680	61.2102
 1.5670	60.9680
 1.5660	60.7230
 1.5650	60.5019
 1.5640	60.2548
 1.5630	60.0393
 1.5620	59.8692
 1.5610	59.6224
 1.5600	59.3437
 1.5590	59.1105
 1.5580	58.8522
 1.5570	58.6529
 1.5560	58.4300
 1.5550	58.2103
 1.5540	58.0242
 1.5530	57.8486
 1.5520	57.6583
 1.5510	57.5424
 1.5500	57.3384
 1.5490	57.1722
 1.5480	57.0841
 1.5470	57.0221
 1.5460	56.9047
 1.5450	56.8419
 1.5440	56.6912
 1.5430	56.6461
 1.5420	56.6462
 1.5410	56.6587
 1.5400	56.6106
 1.5390	56.6584
 1.5380	56.6862
 1.5370	56.8192
 1.5360	56.9629
 1.5350	57.1024
 1.5340	57.3320
 1.5330	57.5584
 1.5320	57.7817
 1.5310	58.0783
 1.5300	58.3049
 1.5290	58.5630
 1.5280	58.8167
 1.5270	59.1010
 1.5260	59.3383
 1.5250	59.6458
 1.5240	59.8740
 1.5230	60.1457
 1.5220	60.4513
 1.5210	60.6786
 1.5200	60.9283
 1.5190	61.2569
 1.5180	61.5339
 1.5170	61.8743
 1.5160	62.2093
 1.5150	62.5070
 1.5140	62.7703
 1.5130	63.0551
 1.5120	63.3774
 1.5110	63.6296
 1.5100	63.9505
 1.5090	64.2504
 1.5080	64.4720
 1.5070	64.7102
 1.5060	64.9727
 1.5050	65.1965
 1.5040	65.4542
 1.5030	65.6882
 1.5020	65.8425
 1.5010	66.0842
 1.5000	66.3165
 1.4990	66.4423
 1.4980	66.6044
 1.4970	66.7638
 1.4960	66.8785
 1.4950	67.0411
 1.4940	67.1614
 1.4930	67.2489
 1.4920	67.3829
 1.4910	67.4583
 1.4900	67.4996
 1.4890	67.5752
 1.4880	67.6597
 1.4870	67.7225
 1.4860	67.7801
 1.4850	67.8904
 1.4840	67.9542
 1.4830	68.0135
 1.4820	68.1012
 1.4810	68.2185
 1.4800	68.3648
 1.4790	68.4442
 1.4780	68.5992
 1.4770	68.7185
 1.4760	68.8860
 1.4750	69.0656
 1.4740	69.2278
 1.4730	69.4191
 1.4720	69.6479
 1.4710	69.8081
 1.4700	69.9450
 1.4690	70.1058
 1.4680	70.2650
 1.4670	70.3859
 1.4660	70.5344
 1.4650	70.6350
 1.4640	70.7902
 1.4630	70.9185
 1.4620	70.9941
 1.4610	71.0848
 1.4600	71.2402
 1.4590	71.3182
 1.4580	71.3367
 1.4570	71.3792
 1.4560	71.4381
 1.4550	71.4388
 1.4540	71.4053
 1.4530	71.3341
 1.4520	71.2800
 1.4510	71.1321
 1.4500	70.8216
 1.4490	70.5520
 1.4480	70.4314
 1.4470	70.2459
 1.4460	70.2929
 1.4450	70.4600
 1.4440	70.8662
 1.4430	71.1507
 1.4420	71.4161
 1.4410	71.5935
 1.4400	71.7559
 1.4390	71.7974
 1.4380	71.7673
 1.4370	71.6009
 1.4360	71.5079
 1.4350	71.4041
 1.4340	71.1900
 1.4330	70.8532
 1.4320	70.5059
 1.4310	70.2264
 1.4300	70.0742
 1.4290	69.8560
 1.4280	69.8128
 1.4270	69.9223
 1.4260	70.0408
 1.4250	70.2814
 1.4240	70.4017
 1.4230	70.2754
 1.4220	70.0198
 1.4210	69.5912
 1.4200	68.8412
 1.4190	68.0515
 1.4180	67.2833
 1.4170	66.8265
 1.4160	66.6629
 1.4150	66.9572
 1.4140	67.7613
 1.4130	68.8033
 1.4120	69.9777
 1.4110	71.0581
 1.4100	71.9555
 1.4090	72.6902
 1.4080	73.1425
 1.4070	73.4434
 1.4060	73.7747
 1.4050	74.0101
 1.4040	74.2735
 1.4030	74.4537
 1.4020	74.6118
 1.4010	74.6977
 1.4000	74.6984
 1.3990	74.8034
 1.3980	74.8856
 1.3970	74.9279
 1.3960	74.9257
 1.3950	75.0549
 1.3940	75.2142
 1.3930	75.3063
 1.3920	75.5683
 1.3910	75.7424
 1.3900	75.9993
 1.3890	76.0787
 1.3880	76.2713
 1.3870	76.4026
 1.3860	76.5669
 1.3850	76.7020
 1.3840	76.8876
 1.3830	76.9881
 1.3820	77.1023
 1.3810	77.3275
 1.3800	77.3971
 1.3790	77.5881
 1.3780	77.7187
 1.3770	77.7804
 1.3760	77.8211
 1.3750	77.8238
 1.3740	77.8701
 1.3730	77.8934
 1.3720	77.8654
 1.3710	77.8564
 1.3700	77.9267
 1.3690	77.8787
 1.3680	77.8707
 1.3670	77.8530
