Name: Calcite CaCO_3
Type: Mineral
Class: Carbonate
Subclass: None
Particle Size: Medium
Sample No.: C-3E
Owner: JPL
Wavelength Range: VSWIR
Origin: None.
Collection Date: N/A
Description: Particle size was 45-125um.Collected by:  JPL Original ASTER Spectral Library name was jpl.perkin.mineral.carbonate.none.medium.c03e.spectrum.txt
Measurement: Hemispherical reflectance
First Column: X
Second Column: Y
X Units: Wavelength (micrometers)
Y Units:Reflectance (percent)
First X Value:  2.5000
Last X Value:  0.4000
Number of X Values: 2101
Additional Information: mineral.carbonate.none.medium.vswir.c-3e.jpl.perkin.ancillary.txt

 2.5000	51.0906
 2.4990	50.8338
 2.4980	51.1211
 2.4970	51.2912
 2.4960	51.1694
 2.4950	51.6606
 2.4940	51.6996
 2.4930	51.8515
 2.4920	51.9507
 2.4910	52.0786
 2.4900	52.1790
 2.4890	52.3082
 2.4880	52.5984
 2.4870	52.9322
 2.4860	53.1442
 2.4850	53.2872
 2.4840	53.5548
 2.4830	54.0246
 2.4820	54.1749
 2.4810	54.6083
 2.4800	54.9812
 2.4790	55.3141
 2.4780	55.7117
 2.4770	56.0754
 2.4760	56.5077
 2.4750	56.9777
 2.4740	57.4572
 2.4730	57.9199
 2.4720	58.2075
 2.4710	58.7501
 2.4700	59.3142
 2.4690	59.7387
 2.4680	60.2475
 2.4670	60.8955
 2.4660	61.4243
 2.4650	61.9413
 2.4640	62.3515
 2.4630	62.8640
 2.4620	63.3116
 2.4610	63.9028
 2.4600	64.3055
 2.4590	64.8138
 2.4580	65.2237
 2.4570	65.7175
 2.4560	66.2041
 2.4550	66.6794
 2.4540	66.9568
 2.4530	67.3527
 2.4520	67.7305
 2.4510	68.1705
 2.4500	68.5942
 2.4490	68.9783
 2.4480	69.3070
 2.4470	69.6162
 2.4460	69.9725
 2.4450	70.1941
 2.4440	70.5480
 2.4430	70.8962
 2.4420	71.1577
 2.4410	71.4753
 2.4400	71.7942
 2.4390	72.0900
 2.4380	72.4023
 2.4370	72.6381
 2.4360	72.9370
 2.4350	73.2049
 2.4340	73.4752
 2.4330	73.7018
 2.4320	73.9855
 2.4310	74.3132
 2.4300	74.6038
 2.4290	74.8001
 2.4280	75.0452
 2.4270	75.2393
 2.4260	75.5203
 2.4250	75.7974
 2.4240	76.0215
 2.4230	76.2691
 2.4220	76.4723
 2.4210	76.7717
 2.4200	76.8936
 2.4190	77.1955
 2.4180	77.3456
 2.4170	77.4826
 2.4160	77.6311
 2.4150	77.8274
 2.4140	77.9453
 2.4130	78.1376
 2.4120	78.2083
 2.4110	78.2951
 2.4100	78.3367
 2.4090	78.4386
 2.4080	78.5469
 2.4070	78.5272
 2.4060	78.6560
 2.4050	78.7534
 2.4040	78.7671
 2.4030	78.7402
 2.4020	78.8149
 2.4010	78.8709
 2.4000	78.8782
 2.3990	78.8874
 2.3980	78.9257
 2.3970	78.9488
 2.3960	78.9728
 2.3950	78.9145
 2.3940	79.0300
 2.3930	79.1130
 2.3920	79.1274
 2.3910	79.1172
 2.3900	79.1034
 2.3890	79.0835
 2.3880	79.0030
 2.3870	79.0097
 2.3860	79.0327
 2.3850	78.8998
 2.3840	78.7779
 2.3830	78.7359
 2.3820	78.5583
 2.3810	78.2890
 2.3800	78.0823
 2.3790	77.8554
 2.3780	77.6397
 2.3770	77.3850
 2.3760	77.0357
 2.3750	76.6804
 2.3740	76.3202
 2.3730	76.0196
 2.3720	75.5840
 2.3710	75.0938
 2.3700	74.5541
 2.3690	74.0612
 2.3680	73.4911
 2.3670	72.9159
 2.3660	72.2873
 2.3650	71.6063
 2.3640	70.9239
 2.3630	70.2001
 2.3620	69.4446
 2.3610	68.7009
 2.3600	67.9418
 2.3590	67.1744
 2.3580	66.3135
 2.3570	65.5178
 2.3560	64.7449
 2.3550	63.9338
 2.3540	63.1532
 2.3530	62.3866
 2.3520	61.6803
 2.3510	60.9639
 2.3500	60.2718
 2.3490	59.6376
 2.3480	59.0536
 2.3470	58.4752
 2.3460	57.9876
 2.3450	57.5542
 2.3440	57.1868
 2.3430	56.8384
 2.3420	56.5097
 2.3410	56.2777
 2.3400	56.0660
 2.3390	55.9110
 2.3380	55.8277
 2.3370	55.7991
 2.3360	55.8370
 2.3350	55.9235
 2.3340	55.9861
 2.3330	56.1187
 2.3320	56.3159
 2.3310	56.5322
 2.3300	56.8030
 2.3290	57.0580
 2.3280	57.2865
 2.3270	57.5884
 2.3260	57.9111
 2.3250	58.2085
 2.3240	58.5060
 2.3230	58.8239
 2.3220	59.1802
 2.3210	59.4863
 2.3200	59.8162
 2.3190	60.1093
 2.3180	60.3961
 2.3170	60.6712
 2.3160	61.0040
 2.3150	61.2321
 2.3140	61.4936
 2.3130	61.7837
 2.3120	61.9435
 2.3110	62.1562
 2.3100	62.3523
 2.3090	62.4947
 2.3080	62.6883
 2.3070	62.8379
 2.3060	62.9909
 2.3050	63.1579
 2.3040	63.3073
 2.3030	63.4482
 2.3020	63.6510
 2.3010	63.8415
 2.3000	63.9953
 2.2990	64.1045
 2.2980	64.2356
 2.2970	64.4334
 2.2960	64.6075
 2.2950	64.7874
 2.2940	65.0012
 2.2930	65.1478
 2.2920	65.3890
 2.2910	65.6964
 2.2900	65.9305
 2.2890	66.1462
 2.2880	66.4052
 2.2870	66.6528
 2.2860	66.9250
 2.2850	67.1810
 2.2840	67.5348
 2.2830	67.9103
 2.2820	68.1980
 2.2810	68.5137
 2.2800	68.8180
 2.2790	69.2113
 2.2780	69.5442
 2.2770	69.8658
 2.2760	70.2879
 2.2750	70.6531
 2.2740	70.9318
 2.2730	71.3480
 2.2720	71.7038
 2.2710	71.9627
 2.2700	72.3083
 2.2690	72.6249
 2.2680	72.9829
 2.2670	73.2680
 2.2660	73.5929
 2.2650	73.8934
 2.2640	74.1797
 2.2630	74.4736
 2.2620	74.8019
 2.2610	75.0408
 2.2600	75.3115
 2.2590	75.5485
 2.2580	75.8636
 2.2570	76.0470
 2.2560	76.3542
 2.2550	76.5600
 2.2540	76.8661
 2.2530	77.1602
 2.2520	77.3089
 2.2510	77.5491
 2.2500	77.7785
 2.2490	78.0049
 2.2480	78.1999
 2.2470	78.3930
 2.2460	78.5984
 2.2450	78.9095
 2.2440	79.0701
 2.2430	79.2344
 2.2420	79.4083
 2.2410	79.5886
 2.2400	79.8211
 2.2390	80.0437
 2.2380	80.2423
 2.2370	80.4175
 2.2360	80.5714
 2.2350	80.7994
 2.2340	80.9985
 2.2330	81.1152
 2.2320	81.2706
 2.2310	81.4143
 2.2300	81.6384
 2.2290	81.8315
 2.2280	81.9837
 2.2270	82.0845
 2.2260	82.2878
 2.2250	82.4687
 2.2240	82.6475
 2.2230	82.8013
 2.2220	82.9120
 2.2210	83.0756
 2.2200	83.2324
 2.2190	83.2622
 2.2180	83.4063
 2.2170	83.6175
 2.2160	83.7147
 2.2150	83.8224
 2.2140	83.9857
 2.2130	83.9857
 2.2120	84.1898
 2.2110	84.2586
 2.2100	84.3675
 2.2090	84.4688
 2.2080	84.6624
 2.2070	84.7695
 2.2060	84.8274
 2.2050	84.8143
 2.2040	84.9837
 2.2030	85.0809
 2.2020	85.2126
 2.2010	85.3110
 2.2000	85.4033
 2.1990	85.3986
 2.1980	85.4332
 2.1970	85.4993
 2.1960	85.5923
 2.1950	85.5831
 2.1940	85.6539
 2.1930	85.6388
 2.1920	85.6514
 2.1910	85.6860
 2.1900	85.7178
 2.1890	85.7583
 2.1880	85.7406
 2.1870	85.7365
 2.1860	85.8163
 2.1850	85.7737
 2.1840	85.7627
 2.1830	85.7989
 2.1820	85.7122
 2.1810	85.6635
 2.1800	85.5932
 2.1790	85.5120
 2.1780	85.5457
 2.1770	85.4288
 2.1760	85.4024
 2.1750	85.2944
 2.1740	85.2190
 2.1730	85.0512
 2.1720	85.1064
 2.1710	84.9686
 2.1700	84.8521
 2.1690	84.7721
 2.1680	84.7864
 2.1670	84.6829
 2.1660	84.5434
 2.1650	84.4709
 2.1640	84.4180
 2.1630	84.3855
 2.1620	84.3579
 2.1610	84.3484
 2.1600	84.2973
 2.1590	84.2108
 2.1580	84.2594
 2.1570	84.2242
 2.1560	84.2517
 2.1550	84.3010
 2.1540	84.3736
 2.1530	84.4737
 2.1520	84.4744
 2.1510	84.5518
 2.1500	84.6489
 2.1490	84.7187
 2.1480	84.8343
 2.1470	85.0522
 2.1460	85.2074
 2.1450	85.3653
 2.1440	85.5967
 2.1430	85.8132
 2.1420	85.9271
 2.1410	86.1253
 2.1400	86.2345
 2.1390	86.4471
 2.1380	86.5702
 2.1370	86.7261
 2.1360	86.8901
 2.1350	86.9196
 2.1340	87.0402
 2.1330	87.1484
 2.1320	87.2319
 2.1310	87.3192
 2.1300	87.3808
 2.1290	87.3637
 2.1280	87.3974
 2.1270	87.3970
 2.1260	87.4598
 2.1250	87.5295
 2.1240	87.5433
 2.1230	87.5071
 2.1220	87.5008
 2.1210	87.5251
 2.1200	87.5576
 2.1190	87.5096
 2.1180	87.5442
 2.1170	87.5563
 2.1160	87.5383
 2.1150	87.5197
 2.1140	87.5181
 2.1130	87.6079
 2.1120	87.5790
 2.1110	87.5790
 2.1100	87.5649
 2.1090	87.5770
 2.1080	87.6143
 2.1070	87.6450
 2.1060	87.6393
 2.1050	87.6710
 2.1040	87.6969
 2.1030	87.7051
 2.1020	87.7152
 2.1010	87.7358
 2.1000	87.7550
 2.0990	87.8215
 2.0980	87.9122
 2.0970	87.9788
 2.0960	87.9687
 2.0950	88.0172
 2.0940	88.0723
 2.0930	88.0542
 2.0920	88.1548
 2.0910	88.2122
 2.0900	88.2558
 2.0890	88.2785
 2.0880	88.3395
 2.0870	88.3814
 2.0860	88.3737
 2.0850	88.4631
 2.0840	88.4609
 2.0830	88.4801
 2.0820	88.5412
 2.0810	88.5507
 2.0800	88.5633
 2.0790	88.6516
 2.0780	88.6674
 2.0770	88.6770
 2.0760	88.6986
 2.0750	88.7318
 2.0740	88.7382
 2.0730	88.7276
 2.0720	88.7894
 2.0710	88.8831
 2.0700	88.9250
 2.0690	88.8803
 2.0680	88.8967
 2.0670	88.9413
 2.0660	88.9236
 2.0650	88.9413
 2.0640	88.9770
 2.0630	89.0041
 2.0620	89.0348
 2.0610	89.0742
 2.0600	89.0242
 2.0590	89.0240
 2.0580	89.0798
 2.0570	89.0781
 2.0560	89.0843
 2.0550	89.0925
 2.0540	89.0961
 2.0530	89.1159
 2.0520	89.1213
 2.0510	89.1271
 2.0500	89.1101
 2.0490	89.0802
 2.0480	89.1623
 2.0470	89.1720
 2.0460	89.1454
 2.0450	89.1340
 2.0440	89.1295
 2.0430	89.0843
 2.0420	89.0714
 2.0410	89.1057
 2.0400	89.0288
 2.0390	89.0001
 2.0380	89.0061
 2.0370	88.9339
 2.0360	88.9049
 2.0350	88.8913
 2.0340	88.9149
 2.0330	88.8183
 2.0320	88.7938
 2.0310	88.7713
 2.0300	88.7360
 2.0290	88.6245
 2.0280	88.5346
 2.0270	88.5134
 2.0260	88.4354
 2.0250	88.3394
 2.0240	88.2858
 2.0230	88.1882
 2.0220	88.1190
 2.0210	88.0092
 2.0200	87.9118
 2.0190	87.8193
 2.0180	87.7026
 2.0170	87.6041
 2.0160	87.4975
 2.0150	87.4293
 2.0140	87.2813
 2.0130	87.1515
 2.0120	86.9858
 2.0110	86.8432
 2.0100	86.5975
 2.0090	86.3422
 2.0080	86.0667
 2.0070	85.7766
 2.0060	85.5716
 2.0050	85.2509
 2.0040	84.9648
 2.0030	84.7254
 2.0020	84.4727
 2.0010	84.2606
 2.0000	84.0742
 1.9990	83.8961
 1.9980	83.8459
 1.9970	83.7767
 1.9960	83.8005
 1.9950	83.9137
 1.9940	84.0164
 1.9930	84.1409
 1.9920	84.3083
 1.9910	84.4771
 1.9900	84.6795
 1.9890	84.8968
 1.9880	85.0676
 1.9870	85.2739
 1.9860	85.4022
 1.9850	85.5123
 1.9840	85.6201
 1.9830	85.8197
 1.9820	85.9749
 1.9810	86.0614
 1.9800	86.0535
 1.9790	86.1697
 1.9780	86.2120
 1.9770	86.2801
 1.9760	86.2986
 1.9750	86.2102
 1.9740	86.3434
 1.9730	86.3492
 1.9720	86.4185
 1.9710	86.4984
 1.9700	86.4127
 1.9690	86.5150
 1.9680	86.5479
 1.9670	86.5315
 1.9660	86.6447
 1.9650	86.6649
 1.9640	86.7284
 1.9630	86.7909
 1.9620	86.8551
 1.9610	86.9721
 1.9600	87.0030
 1.9590	87.0900
 1.9580	87.0766
 1.9570	87.1757
 1.9560	87.3001
 1.9550	87.3988
 1.9540	87.4679
 1.9530	87.5529
 1.9520	87.6140
 1.9510	87.7170
 1.9500	87.7289
 1.9490	87.8675
 1.9480	87.9839
 1.9470	87.9561
 1.9460	88.1278
 1.9450	88.2129
 1.9440	88.1243
 1.9430	88.2428
 1.9420	88.2576
 1.9410	88.2994
 1.9400	88.3653
 1.9390	88.3740
 1.9380	88.4217
 1.9370	88.4303
 1.9360	88.5652
 1.9350	88.5349
 1.9340	88.5443
 1.9330	88.4439
 1.9320	88.6198
 1.9310	88.6086
 1.9300	88.6771
 1.9290	88.6884
 1.9280	88.6571
 1.9270	88.7372
 1.9260	88.7281
 1.9250	88.7013
 1.9240	88.8398
 1.9230	88.7232
 1.9220	88.7836
 1.9210	88.8751
 1.9200	88.8230
 1.9190	88.8694
 1.9180	88.8531
 1.9170	88.8797
 1.9160	88.9525
 1.9150	88.8819
 1.9140	88.8033
 1.9130	88.8767
 1.9120	88.8973
 1.9110	88.9153
 1.9100	88.9114
 1.9090	88.8827
 1.9080	88.9082
 1.9070	88.9041
 1.9060	88.9762
 1.9050	88.9116
 1.9040	88.8913
 1.9030	88.8385
 1.9020	88.7808
 1.9010	88.8489
 1.9000	88.7928
 1.8990	88.7894
 1.8980	88.6771
 1.8970	88.5907
 1.8960	88.6388
 1.8950	88.4561
 1.8940	88.3633
 1.8930	88.2865
 1.8920	88.1204
 1.8910	87.9851
 1.8900	87.8505
 1.8890	87.5790
 1.8880	87.4393
 1.8870	87.0941
 1.8860	86.7871
 1.8850	86.6045
 1.8840	86.1764
 1.8830	85.9520
 1.8820	85.5942
 1.8810	85.3051
 1.8800	85.0794
 1.8790	84.7709
 1.8780	84.6635
 1.8770	84.5182
 1.8760	84.4558
 1.8750	84.4981
 1.8740	84.6314
 1.8730	84.7966
 1.8720	84.9304
 1.8710	85.1993
 1.8700	85.4007
 1.8690	85.7013
 1.8680	85.8754
 1.8670	86.0318
 1.8660	86.3162
 1.8650	86.5314
 1.8640	86.6471
 1.8630	86.8531
 1.8620	87.0856
 1.8610	87.1591
 1.8600	87.2311
 1.8590	87.3033
 1.8580	87.3402
 1.8570	87.4210
 1.8560	87.5217
 1.8550	87.5758
 1.8540	87.6534
 1.8530	87.7763
 1.8520	87.7777
 1.8510	87.7980
 1.8500	87.8881
 1.8490	87.9057
 1.8480	87.8932
 1.8470	87.9537
 1.8460	88.0762
 1.8450	88.0701
 1.8440	88.1021
 1.8430	88.1338
 1.8420	88.1965
 1.8410	88.3153
 1.8400	88.3600
 1.8390	88.4398
 1.8380	88.5371
 1.8370	88.5744
 1.8360	88.6329
 1.8350	88.6761
 1.8340	88.7174
 1.8330	88.8632
 1.8320	88.9282
 1.8310	88.9376
 1.8300	89.0406
 1.8290	89.1206
 1.8280	89.1567
 1.8270	89.2175
 1.8260	89.2685
 1.8250	89.3297
 1.8240	89.3766
 1.8230	89.3936
 1.8220	89.4679
 1.8210	89.5198
 1.8200	89.5239
 1.8190	89.5912
 1.8180	89.6081
 1.8170	89.6343
 1.8160	89.6576
 1.8150	89.6778
 1.8140	89.6879
 1.8130	89.7620
 1.8120	89.8356
 1.8110	89.8030
 1.8100	89.8146
 1.8090	89.8466
 1.8080	89.8699
 1.8070	89.9013
 1.8060	89.9347
 1.8050	89.9885
 1.8040	90.0240
 1.8030	89.9960
 1.8020	89.9489
 1.8010	89.9394
 1.8000	89.9881
 1.7990	90.0251
 1.7980	90.0198
 1.7970	90.0546
 1.7960	90.0613
 1.7950	90.0372
 1.7940	90.0795
 1.7930	90.1067
 1.7920	90.1055
 1.7910	90.0991
 1.7900	90.0447
 1.7890	90.0639
 1.7880	90.0978
 1.7870	90.1374
 1.7860	90.1710
 1.7850	90.0701
 1.7840	90.0510
 1.7830	90.1131
 1.7820	90.0719
 1.7810	90.0233
 1.7800	90.0013
 1.7790	89.9740
 1.7780	89.9536
 1.7770	89.9519
 1.7760	89.9404
 1.7750	89.9194
 1.7740	89.8940
 1.7730	89.8737
 1.7720	89.8348
 1.7710	89.7968
 1.7700	89.7599
 1.7690	89.6984
 1.7680	89.6480
 1.7670	89.5895
 1.7660	89.5214
 1.7650	89.5018
 1.7640	89.4202
 1.7630	89.3540
 1.7620	89.3556
 1.7610	89.2844
 1.7600	89.2574
 1.7590	89.2882
 1.7580	89.2844
 1.7570	89.2851
 1.7560	89.2474
 1.7550	89.2410
 1.7540	89.2845
 1.7530	89.2468
 1.7520	89.2306
 1.7510	89.3340
 1.7500	89.3274
 1.7490	89.2931
 1.7480	89.3260
 1.7470	89.3655
 1.7460	89.4171
 1.7450	89.4384
 1.7440	89.3790
 1.7430	89.3886
 1.7420	89.3718
 1.7410	89.3666
 1.7400	89.3844
 1.7390	89.4262
 1.7380	89.3473
 1.7370	89.3753
 1.7360	89.3948
 1.7350	89.3945
 1.7340	89.3722
 1.7330	89.4003
 1.7320	89.4160
 1.7310	89.4035
 1.7300	89.4343
 1.7290	89.3883
 1.7280	89.3932
 1.7270	89.4691
 1.7260	89.5221
 1.7250	89.4776
 1.7240	89.4524
 1.7230	89.4781
 1.7220	89.4616
 1.7210	89.5589
 1.7200	89.5277
 1.7190	89.5116
 1.7180	89.5380
 1.7170	89.5565
 1.7160	89.5384
 1.7150	89.6312
 1.7140	89.5929
 1.7130	89.6127
 1.7120	89.6477
 1.7110	89.5937
 1.7100	89.5697
 1.7090	89.6731
 1.7080	89.6278
 1.7070	89.6266
 1.7060	89.6412
 1.7050	89.6992
 1.7040	89.7209
 1.7030	89.7620
 1.7020	89.7635
 1.7010	89.7266
 1.7000	89.6900
 1.6990	89.7172
 1.6980	89.6954
 1.6970	89.7795
 1.6960	89.7925
 1.6950	89.7169
 1.6940	89.8599
 1.6930	89.8051
 1.6920	89.7817
 1.6910	89.8704
 1.6900	89.8414
 1.6890	89.8253
 1.6880	89.8290
 1.6870	89.8383
 1.6860	89.7968
 1.6850	89.8779
 1.6840	89.8089
 1.6830	89.7615
 1.6820	89.8100
 1.6810	89.8335
 1.6800	89.8511
 1.6790	89.8358
 1.6780	89.8345
 1.6770	89.7864
 1.6760	89.8487
 1.6750	89.8462
 1.6740	89.8994
 1.6730	89.8340
 1.6720	89.7631
 1.6710	89.8626
 1.6700	89.9044
 1.6690	89.8389
 1.6680	89.8030
 1.6670	89.8175
 1.6660	89.8966
 1.6650	89.8594
 1.6640	89.8092
 1.6630	89.7958
 1.6620	89.7623
 1.6610	89.7896
 1.6600	89.7463
 1.6590	89.7327
 1.6580	89.7119
 1.6570	89.7260
 1.6560	89.7762
 1.6550	89.6840
 1.6540	89.6607
 1.6530	89.6951
 1.6520	89.6638
 1.6510	89.7229
 1.6500	89.6728
 1.6490	89.6049
 1.6480	89.6422
 1.6470	89.5817
 1.6460	89.6734
 1.6450	89.6554
 1.6440	89.7405
 1.6430	89.7297
 1.6420	89.6726
 1.6410	89.6817
 1.6400	89.6725
 1.6390	89.7007
 1.6380	89.7018
 1.6370	89.6845
 1.6360	89.7263
 1.6350	89.7261
 1.6340	89.6497
 1.6330	89.6623
 1.6320	89.6680
 1.6310	89.7166
 1.6300	89.7595
 1.6290	89.6841
 1.6280	89.7038
 1.6270	89.7154
 1.6260	89.6525
 1.6250	89.6581
 1.6240	89.6545
 1.6230	89.7462
 1.6220	89.7663
 1.6210	89.7842
 1.6200	89.7044
 1.6190	89.6499
 1.6180	89.7384
 1.6170	89.6693
 1.6160	89.6876
 1.6150	89.6840
 1.6140	89.7277
 1.6130	89.6974
 1.6120	89.6894
 1.6110	89.7092
 1.6100	89.6455
 1.6090	89.6608
 1.6080	89.6837
 1.6070	89.7415
 1.6060	89.6607
 1.6050	89.6392
 1.6040	89.7112
 1.6030	89.6807
 1.6020	89.6673
 1.6010	89.7396
 1.6000	89.7079
 1.5990	89.6273
 1.5980	89.5771
 1.5970	89.5219
 1.5960	89.6476
 1.5950	89.6417
 1.5940	89.6138
 1.5930	89.5889
 1.5920	89.6208
 1.5910	89.6207
 1.5900	89.6136
 1.5890	89.5764
 1.5880	89.5739
 1.5870	89.5877
 1.5860	89.5200
 1.5850	89.5117
 1.5840	89.5723
 1.5830	89.5880
 1.5820	89.5077
 1.5810	89.4664
 1.5800	89.4859
 1.5790	89.4922
 1.5780	89.4572
 1.5770	89.4130
 1.5760	89.4356
 1.5750	89.4018
 1.5740	89.4411
 1.5730	89.4026
 1.5720	89.3118
 1.5710	89.3570
 1.5700	89.2465
 1.5690	89.3038
 1.5680	89.2840
 1.5670	89.2050
 1.5660	89.2181
 1.5650	89.2594
 1.5640	89.2908
 1.5630	89.2573
 1.5620	89.2330
 1.5610	89.2610
 1.5600	89.2608
 1.5590	89.2949
 1.5580	89.2431
 1.5570	89.2847
 1.5560	89.2543
 1.5550	89.3035
 1.5540	89.2894
 1.5530	89.2225
 1.5520	89.2260
 1.5510	89.2000
 1.5500	89.1964
 1.5490	89.2115
 1.5480	89.3336
 1.5470	89.3147
 1.5460	89.2800
 1.5450	89.2955
 1.5440	89.2654
 1.5430	89.2078
 1.5420	89.2003
 1.5410	89.2421
 1.5400	89.2305
 1.5390	89.2227
 1.5380	89.2629
 1.5370	89.1861
 1.5360	89.2210
 1.5350	89.2349
 1.5340	89.2332
 1.5330	89.2538
 1.5320	89.1957
 1.5310	89.1552
 1.5300	89.1895
 1.5290	89.1881
 1.5280	89.1800
 1.5270	89.1571
 1.5260	89.1580
 1.5250	89.1525
 1.5240	89.1565
 1.5230	89.1529
 1.5220	89.1138
 1.5210	89.1561
 1.5200	89.1492
 1.5190	89.2154
 1.5180	89.1883
 1.5170	89.1644
 1.5160	89.1968
 1.5150	89.1439
 1.5140	89.1358
 1.5130	89.1772
 1.5120	89.1810
 1.5110	89.1817
 1.5100	89.1624
 1.5090	89.1412
 1.5080	89.1056
 1.5070	89.1239
 1.5060	89.1135
 1.5050	89.1407
 1.5040	89.1177
 1.5030	89.0592
 1.5020	89.0255
 1.5010	89.0084
 1.5000	89.0776
 1.4990	89.0831
 1.4980	89.0541
 1.4970	89.0171
 1.4960	88.9732
 1.4950	89.0048
 1.4940	89.0005
 1.4930	88.9695
 1.4920	88.9610
 1.4910	88.9516
 1.4900	88.9106
 1.4890	88.9321
 1.4880	88.9587
 1.4870	88.9153
 1.4860	88.9194
 1.4850	88.9319
 1.4840	88.8839
 1.4830	88.8713
 1.4820	88.9205
 1.4810	88.8812
 1.4800	88.8453
 1.4790	88.8656
 1.4780	88.8667
 1.4770	88.9578
 1.4760	88.9112
 1.4750	88.8646
 1.4740	88.9228
 1.4730	88.9259
 1.4720	88.8793
 1.4710	88.8912
 1.4700	88.9129
 1.4690	88.8857
 1.4680	88.8809
 1.4670	88.8948
 1.4660	88.9186
 1.4650	88.8911
 1.4640	88.8875
 1.4630	88.9007
 1.4620	88.8781
 1.4610	88.8658
 1.4600	88.8638
 1.4590	88.9081
 1.4580	88.9207
 1.4570	88.8613
 1.4560	88.8682
 1.4550	88.8677
 1.4540	88.8479
 1.4530	88.8950
 1.4520	88.9002
 1.4510	88.8327
 1.4500	88.8601
 1.4490	88.8741
 1.4480	88.8571
 1.4470	88.8552
 1.4460	88.9069
 1.4450	88.8966
 1.4440	88.8079
 1.4430	88.8230
 1.4420	88.8608
 1.4410	88.8130
 1.4400	88.8100
 1.4390	88.8623
 1.4380	88.8615
 1.4370	88.9044
 1.4360	88.8425
 1.4350	88.8407
 1.4340	88.8530
 1.4330	88.8229
 1.4320	88.8827
 1.4310	88.8233
 1.4300	88.8502
 1.4290	88.8954
 1.4280	88.8874
 1.4270	88.8290
 1.4260	88.8291
 1.4250	88.8925
 1.4240	88.8274
 1.4230	88.8175
 1.4220	88.8780
 1.4210	88.8432
 1.4200	88.8504
 1.4190	88.8136
 1.4180	88.8630
 1.4170	88.8325
 1.4160	88.7968
 1.4150	88.8099
 1.4140	88.7965
 1.4130	88.8958
 1.4120	88.8660
 1.4110	88.8061
 1.4100	88.8371
 1.4090	88.8749
 1.4080	88.7817
 1.4070	88.8474
 1.4060	88.9059
 1.4050	88.8183
 1.4040	88.8009
 1.4030	88.7684
 1.4020	88.8409
 1.4010	88.8793
 1.4000	88.8905
 1.3990	88.8726
 1.3980	88.9043
 1.3970	88.8690
 1.3960	88.8816
 1.3950	88.9273
 1.3940	88.9786
 1.3930	88.9590
 1.3920	89.0096
 1.3910	88.9632
 1.3900	89.0379
 1.3890	89.0274
 1.3880	88.9689
 1.3870	88.9489
 1.3860	88.9723
 1.3850	88.9692
 1.3840	88.9828
 1.3830	88.9683
 1.3820	88.9364
 1.3810	88.9051
 1.3800	88.9946
 1.3790	88.9646
 1.3780	88.9687
 1.3770	88.9898
 1.3760	89.0034
 1.3750	89.0171
 1.3740	88.8893
 1.3730	89.0886
 1.3720	89.0016
 1.3710	89.0365
 1.3700	88.9582
 1.3690	88.9950
 1.3680	88.9931
 1.3670	89.0440
 1.3660	89.1613
 1.3650	88.9941
 1.3640	88.9658
 1.3630	88.9477
