Name: Trona Na_3(CO_3)(HCO_3).2H_2O
Type: Mineral
Class: Carbonate
Subclass: None
Particle Size: Fine
Sample No.: C-4A
Owner: JPL
Wavelength Range: VSWIR
Origin: USA, Wyoming, Sweetwater County.
Collection Date: N/A
Description: Particle size was 0-45um.Collected by:  Ward's Original ASTER Spectral Library name was jpl.perkin.mineral.carbonate.none.fine.c04a.spectrum.txt
Measurement: Hemispherical reflectance
First Column: X
Second Column: Y
X Units: Wavelength (micrometers)
Y Units:Reflectance (percent)
First X Value:  2.5000
Last X Value:  0.4000
Number of X Values: 2101
Additional Information: mineral.carbonate.none.fine.vswir.c-4a.jpl.perkin.ancillary.txt

 2.5000	24.2564
 2.4990	24.0932
 2.4980	24.2475
 2.4970	24.3920
 2.4960	23.9248
 2.4950	24.5327
 2.4940	24.3222
 2.4930	24.2855
 2.4920	24.4275
 2.4910	24.3375
 2.4900	24.3665
 2.4890	24.4142
 2.4880	24.3249
 2.4870	24.5690
 2.4860	24.2783
 2.4850	24.5134
 2.4840	24.5252
 2.4830	24.4325
 2.4820	24.4397
 2.4810	24.6410
 2.4800	24.6774
 2.4790	24.5946
 2.4780	24.4550
 2.4770	24.5569
 2.4760	24.5826
 2.4750	24.5695
 2.4740	24.5855
 2.4730	24.7111
 2.4720	24.6770
 2.4710	24.7862
 2.4700	24.6247
 2.4690	24.7020
 2.4680	24.6686
 2.4670	24.7405
 2.4660	24.7517
 2.4650	24.8247
 2.4640	24.7481
 2.4630	24.7187
 2.4620	24.8058
 2.4610	24.8267
 2.4600	24.7708
 2.4590	24.8674
 2.4580	24.8274
 2.4570	24.8329
 2.4560	24.8190
 2.4550	24.8029
 2.4540	24.8484
 2.4530	24.8904
 2.4520	24.8105
 2.4510	24.9232
 2.4500	24.9708
 2.4490	25.0598
 2.4480	24.9745
 2.4470	25.0323
 2.4460	25.0129
 2.4450	24.9249
 2.4440	24.9197
 2.4430	24.9880
 2.4420	25.0125
 2.4410	25.0556
 2.4400	25.0333
 2.4390	24.9984
 2.4380	25.0458
 2.4370	25.0578
 2.4360	25.1969
 2.4350	25.1452
 2.4340	25.1759
 2.4330	25.1690
 2.4320	25.1896
 2.4310	25.3195
 2.4300	25.2004
 2.4290	25.3439
 2.4280	25.2607
 2.4270	25.2147
 2.4260	25.1522
 2.4250	25.2936
 2.4240	25.3254
 2.4230	25.3260
 2.4220	25.2766
 2.4210	25.2663
 2.4200	25.3799
 2.4190	25.3936
 2.4180	25.4489
 2.4170	25.4116
 2.4160	25.3853
 2.4150	25.3789
 2.4140	25.4302
 2.4130	25.3808
 2.4120	25.3574
 2.4110	25.4727
 2.4100	25.4367
 2.4090	25.4141
 2.4080	25.4264
 2.4070	25.4470
 2.4060	25.4072
 2.4050	25.4444
 2.4040	25.3995
 2.4030	25.4872
 2.4020	25.5479
 2.4010	25.5312
 2.4000	25.5815
 2.3990	25.5957
 2.3980	25.6076
 2.3970	25.6737
 2.3960	25.6063
 2.3950	25.6915
 2.3940	25.7030
 2.3930	25.7483
 2.3920	25.7871
 2.3910	25.7955
 2.3900	25.8873
 2.3890	25.9414
 2.3880	25.9625
 2.3870	25.9939
 2.3860	26.0978
 2.3850	26.1960
 2.3840	26.2514
 2.3830	26.3574
 2.3820	26.4427
 2.3810	26.5351
 2.3800	26.5894
 2.3790	26.6699
 2.3780	26.7602
 2.3770	26.8715
 2.3760	26.9706
 2.3750	27.0159
 2.3740	27.1411
 2.3730	27.2640
 2.3720	27.3146
 2.3710	27.4299
 2.3700	27.5082
 2.3690	27.6400
 2.3680	27.6948
 2.3670	27.7142
 2.3660	27.8418
 2.3650	27.9689
 2.3640	28.0218
 2.3630	28.1218
 2.3620	28.1583
 2.3610	28.2518
 2.3600	28.3444
 2.3590	28.4210
 2.3580	28.4522
 2.3570	28.5636
 2.3560	28.7031
 2.3550	28.7322
 2.3540	28.7635
 2.3530	28.8512
 2.3520	28.9410
 2.3510	28.9963
 2.3500	29.1024
 2.3490	29.1432
 2.3480	29.2014
 2.3470	29.2672
 2.3460	29.3066
 2.3450	29.3083
 2.3440	29.4527
 2.3430	29.5172
 2.3420	29.5091
 2.3410	29.5712
 2.3400	29.6109
 2.3390	29.6817
 2.3380	29.7871
 2.3370	29.8430
 2.3360	29.8862
 2.3350	29.9528
 2.3340	29.9867
 2.3330	30.0278
 2.3320	30.0631
 2.3310	30.1360
 2.3300	30.2413
 2.3290	30.2948
 2.3280	30.3950
 2.3270	30.3758
 2.3260	30.3846
 2.3250	30.4310
 2.3240	30.5099
 2.3230	30.5589
 2.3220	30.6134
 2.3210	30.6649
 2.3200	30.7113
 2.3190	30.7653
 2.3180	30.8543
 2.3170	30.8881
 2.3160	30.9244
 2.3150	30.9784
 2.3140	31.0428
 2.3130	31.0747
 2.3120	31.1487
 2.3110	31.2233
 2.3100	31.2573
 2.3090	31.2608
 2.3080	31.3618
 2.3070	31.3870
 2.3060	31.4816
 2.3050	31.4985
 2.3040	31.5700
 2.3030	31.6095
 2.3020	31.7035
 2.3010	31.7479
 2.3000	31.8503
 2.2990	31.8446
 2.2980	31.8645
 2.2970	31.8826
 2.2960	31.9583
 2.2950	31.9507
 2.2940	32.0619
 2.2930	32.0845
 2.2920	32.1392
 2.2910	32.1751
 2.2900	32.2052
 2.2890	32.2844
 2.2880	32.3969
 2.2870	32.3394
 2.2860	32.3792
 2.2850	32.4380
 2.2840	32.5040
 2.2830	32.4575
 2.2820	32.5460
 2.2810	32.5560
 2.2800	32.5933
 2.2790	32.6644
 2.2780	32.6801
 2.2770	32.7301
 2.2760	32.8499
 2.2750	32.8191
 2.2740	32.7956
 2.2730	32.8042
 2.2720	32.9239
 2.2710	32.8436
 2.2700	32.9287
 2.2690	32.9608
 2.2680	33.0275
 2.2670	32.9678
 2.2660	33.0547
 2.2650	33.0619
 2.2640	33.0233
 2.2630	33.0603
 2.2620	33.1200
 2.2610	33.1012
 2.2600	33.1348
 2.2590	33.1059
 2.2580	33.1623
 2.2570	33.1192
 2.2560	33.2010
 2.2550	33.1744
 2.2540	33.2085
 2.2530	33.1825
 2.2520	33.2216
 2.2510	33.2501
 2.2500	33.2623
 2.2490	33.2829
 2.2480	33.2454
 2.2470	33.2255
 2.2460	33.2805
 2.2450	33.2236
 2.2440	33.2120
 2.2430	33.1423
 2.2420	33.2433
 2.2410	33.1676
 2.2400	33.1242
 2.2390	33.1304
 2.2380	33.0240
 2.2370	32.9711
 2.2360	33.0165
 2.2350	32.9120
 2.2340	32.8860
 2.2330	32.7571
 2.2320	32.7624
 2.2310	32.6879
 2.2300	32.6761
 2.2290	32.5153
 2.2280	32.5027
 2.2270	32.4987
 2.2260	32.4553
 2.2250	32.3928
 2.2240	32.3561
 2.2230	32.3498
 2.2220	32.2963
 2.2210	32.3235
 2.2200	32.3341
 2.2190	32.2565
 2.2180	32.3822
 2.2170	32.3416
 2.2160	32.3786
 2.2150	32.4538
 2.2140	32.5540
 2.2130	32.6053
 2.2120	32.6251
 2.2110	32.4850
 2.2100	32.7371
 2.2090	32.6884
 2.2080	32.7896
 2.2070	32.8043
 2.2060	32.8807
 2.2050	32.8254
 2.2040	32.9474
 2.2030	32.9247
 2.2020	32.9956
 2.2010	33.0230
 2.2000	33.0573
 2.1990	33.0153
 2.1980	33.0673
 2.1970	33.1812
 2.1960	33.0626
 2.1950	33.0767
 2.1940	33.1133
 2.1930	33.1598
 2.1920	33.1947
 2.1910	33.1760
 2.1900	33.1989
 2.1890	33.1910
 2.1880	33.2541
 2.1870	33.2769
 2.1860	33.3877
 2.1850	33.3148
 2.1840	33.2834
 2.1830	33.3402
 2.1820	33.4350
 2.1810	33.3631
 2.1800	33.4463
 2.1790	33.4573
 2.1780	33.5049
 2.1770	33.4846
 2.1760	33.4937
 2.1750	33.5385
 2.1740	33.5467
 2.1730	33.5457
 2.1720	33.5449
 2.1710	33.5249
 2.1700	33.5752
 2.1690	33.5941
 2.1680	33.6424
 2.1670	33.6192
 2.1660	33.6862
 2.1650	33.6085
 2.1640	33.6215
 2.1630	33.6208
 2.1620	33.6544
 2.1610	33.6294
 2.1600	33.6474
 2.1590	33.6528
 2.1580	33.5808
 2.1570	33.6373
 2.1560	33.5889
 2.1550	33.6033
 2.1540	33.5878
 2.1530	33.5729
 2.1520	33.5650
 2.1510	33.5198
 2.1500	33.5134
 2.1490	33.4574
 2.1480	33.4829
 2.1470	33.4416
 2.1460	33.4705
 2.1450	33.4272
 2.1440	33.3991
 2.1430	33.3340
 2.1420	33.3389
 2.1410	33.3261
 2.1400	33.3089
 2.1390	33.2404
 2.1380	33.2447
 2.1370	33.1454
 2.1360	33.1920
 2.1350	33.1147
 2.1340	33.0883
 2.1330	33.0632
 2.1320	33.0452
 2.1310	33.0112
 2.1300	33.0319
 2.1290	32.8638
 2.1280	32.8591
 2.1270	32.8335
 2.1260	32.7752
 2.1250	32.7055
 2.1240	32.7057
 2.1230	32.6673
 2.1220	32.6110
 2.1210	32.5234
 2.1200	32.4317
 2.1190	32.3748
 2.1180	32.2929
 2.1170	32.2034
 2.1160	32.1653
 2.1150	32.1198
 2.1140	32.0699
 2.1130	32.0000
 2.1120	31.9344
 2.1110	31.8503
 2.1100	31.7448
 2.1090	31.7002
 2.1080	31.6246
 2.1070	31.5618
 2.1060	31.5173
 2.1050	31.4314
 2.1040	31.3548
 2.1030	31.2164
 2.1020	31.1300
 2.1010	31.0586
 2.1000	31.0202
 2.0990	30.9001
 2.0980	30.8760
 2.0970	30.8620
 2.0960	30.7705
 2.0950	30.6807
 2.0940	30.6281
 2.0930	30.5751
 2.0920	30.5033
 2.0910	30.4030
 2.0900	30.3460
 2.0890	30.3114
 2.0880	30.2086
 2.0870	30.1665
 2.0860	30.1612
 2.0850	30.0588
 2.0840	29.9420
 2.0830	29.8631
 2.0820	29.8554
 2.0810	29.8352
 2.0800	29.7482
 2.0790	29.6414
 2.0780	29.5975
 2.0770	29.5418
 2.0760	29.5020
 2.0750	29.4751
 2.0740	29.3886
 2.0730	29.2881
 2.0720	29.2185
 2.0710	29.2082
 2.0700	29.1334
 2.0690	29.0450
 2.0680	28.9688
 2.0670	28.9157
 2.0660	28.8624
 2.0650	28.8341
 2.0640	28.7858
 2.0630	28.7149
 2.0620	28.7005
 2.0610	28.6226
 2.0600	28.5678
 2.0590	28.5119
 2.0580	28.4676
 2.0570	28.4432
 2.0560	28.3815
 2.0550	28.3525
 2.0540	28.2797
 2.0530	28.2565
 2.0520	28.2740
 2.0510	28.2711
 2.0500	28.2057
 2.0490	28.1225
 2.0480	28.0972
 2.0470	28.1161
 2.0460	28.0944
 2.0450	28.0770
 2.0440	28.1139
 2.0430	28.1149
 2.0420	28.1063
 2.0410	28.1376
 2.0400	28.1275
 2.0390	28.1969
 2.0380	28.2501
 2.0370	28.2499
 2.0360	28.2521
 2.0350	28.3275
 2.0340	28.3515
 2.0330	28.4265
 2.0320	28.5475
 2.0310	28.6845
 2.0300	28.7100
 2.0290	28.7730
 2.0280	28.8711
 2.0270	28.9969
 2.0260	29.1111
 2.0250	29.2280
 2.0240	29.3061
 2.0230	29.4175
 2.0220	29.5200
 2.0210	29.6715
 2.0200	29.7249
 2.0190	29.8798
 2.0180	29.9713
 2.0170	30.0626
 2.0160	30.1160
 2.0150	30.2382
 2.0140	30.3347
 2.0130	30.4380
 2.0120	30.5346
 2.0110	30.6060
 2.0100	30.6121
 2.0090	30.6946
 2.0080	30.7379
 2.0070	30.8198
 2.0060	30.9265
 2.0050	31.0137
 2.0040	31.0267
 2.0030	31.0499
 2.0020	31.1162
 2.0010	31.1635
 2.0000	31.2060
 1.9990	31.2245
 1.9980	31.2599
 1.9970	31.2878
 1.9960	31.2847
 1.9950	31.3153
 1.9940	31.2984
 1.9930	31.2935
 1.9920	31.2679
 1.9910	31.2691
 1.9900	31.2106
 1.9890	31.2607
 1.9880	31.2397
 1.9870	31.1651
 1.9860	31.1065
 1.9850	31.1367
 1.9840	31.0252
 1.9830	31.0418
 1.9820	30.9449
 1.9810	30.8990
 1.9800	30.8171
 1.9790	30.7632
 1.9780	30.6922
 1.9770	30.5591
 1.9760	30.4895
 1.9750	30.3968
 1.9740	30.3407
 1.9730	30.2208
 1.9720	30.0702
 1.9710	29.9994
 1.9700	29.8499
 1.9690	29.6999
 1.9680	29.5311
 1.9670	29.3731
 1.9660	29.1685
 1.9650	29.0647
 1.9640	28.8689
 1.9630	28.6871
 1.9620	28.4390
 1.9610	28.3657
 1.9600	28.0346
 1.9590	27.8251
 1.9580	27.6070
 1.9570	27.5632
 1.9560	27.2212
 1.9550	27.0931
 1.9540	26.8861
 1.9530	26.8439
 1.9520	26.6119
 1.9510	26.5411
 1.9500	26.3955
 1.9490	26.3698
 1.9480	26.2600
 1.9470	26.2218
 1.9460	26.1221
 1.9450	26.1181
 1.9440	26.1836
 1.9430	26.2000
 1.9420	26.2341
 1.9410	26.3305
 1.9400	26.4237
 1.9390	26.5917
 1.9380	26.6106
 1.9370	26.7922
 1.9360	27.0092
 1.9350	27.3125
 1.9340	27.5586
 1.9330	27.8306
 1.9320	28.1960
 1.9310	28.4557
 1.9300	28.8570
 1.9290	29.2357
 1.9280	29.6368
 1.9270	30.1997
 1.9260	30.4233
 1.9250	31.0935
 1.9240	31.4059
 1.9230	31.9438
 1.9220	32.4367
 1.9210	32.9440
 1.9200	33.3990
 1.9190	33.9479
 1.9180	34.3070
 1.9170	34.7409
 1.9160	35.1941
 1.9150	35.6368
 1.9140	36.0595
 1.9130	36.5379
 1.9120	36.8679
 1.9110	37.2337
 1.9100	37.7532
 1.9090	38.1030
 1.9080	38.5059
 1.9070	38.8561
 1.9060	39.2527
 1.9050	39.5754
 1.9040	40.0698
 1.9030	40.4684
 1.9020	40.8057
 1.9010	41.2044
 1.9000	41.5553
 1.8990	41.9161
 1.8980	42.1778
 1.8970	42.5680
 1.8960	42.7834
 1.8950	43.1335
 1.8940	43.3957
 1.8930	43.7176
 1.8920	43.9074
 1.8910	44.1001
 1.8900	44.3063
 1.8890	44.6182
 1.8880	44.7981
 1.8870	45.0605
 1.8860	45.2832
 1.8850	45.5497
 1.8840	45.6919
 1.8830	45.8962
 1.8820	46.0533
 1.8810	46.2125
 1.8800	46.3937
 1.8790	46.4856
 1.8780	46.7037
 1.8770	46.8458
 1.8760	46.9367
 1.8750	47.0923
 1.8740	47.2707
 1.8730	47.4200
 1.8720	47.5938
 1.8710	47.7091
 1.8700	47.8508
 1.8690	47.9926
 1.8680	48.1731
 1.8670	48.2635
 1.8660	48.3939
 1.8650	48.4826
 1.8640	48.5855
 1.8630	48.6472
 1.8620	48.7470
 1.8610	48.9070
 1.8600	48.9968
 1.8590	49.0591
 1.8580	49.2082
 1.8570	49.3491
 1.8560	49.3895
 1.8550	49.4521
 1.8540	49.5568
 1.8530	49.6194
 1.8520	49.7032
 1.8510	49.8138
 1.8500	49.8733
 1.8490	49.9275
 1.8480	49.9997
 1.8470	50.0512
 1.8460	50.0854
 1.8450	50.1915
 1.8440	50.2708
 1.8430	50.3616
 1.8420	50.3624
 1.8410	50.3913
 1.8400	50.4389
 1.8390	50.4743
 1.8380	50.5349
 1.8370	50.5886
 1.8360	50.6042
 1.8350	50.6849
 1.8340	50.7125
 1.8330	50.7522
 1.8320	50.7306
 1.8310	50.7370
 1.8300	50.7871
 1.8290	50.7993
 1.8280	50.8389
 1.8270	50.9213
 1.8260	50.8930
 1.8250	50.8478
 1.8240	50.9082
 1.8230	50.9826
 1.8220	50.9770
 1.8210	50.9732
 1.8200	50.9926
 1.8190	51.0444
 1.8180	51.0299
 1.8170	51.0188
 1.8160	51.1077
 1.8150	51.1441
 1.8140	51.1162
 1.8130	51.0843
 1.8120	51.1210
 1.8110	51.1326
 1.8100	51.1445
 1.8090	51.1751
 1.8080	51.2184
 1.8070	51.2269
 1.8060	51.2453
 1.8050	51.2557
 1.8040	51.2634
 1.8030	51.2630
 1.8020	51.2972
 1.8010	51.3600
 1.8000	51.3388
 1.7990	51.3484
 1.7980	51.3513
 1.7970	51.3031
 1.7960	51.3445
 1.7950	51.3735
 1.7940	51.3807
 1.7930	51.3969
 1.7920	51.4169
 1.7910	51.4617
 1.7900	51.4694
 1.7890	51.4806
 1.7880	51.4829
 1.7870	51.4488
 1.7860	51.4733
 1.7850	51.5027
 1.7840	51.5044
 1.7830	51.5401
 1.7820	51.5598
 1.7810	51.5645
 1.7800	51.5622
 1.7790	51.5690
 1.7780	51.5854
 1.7770	51.6293
 1.7760	51.6454
 1.7750	51.6424
 1.7740	51.6649
 1.7730	51.6315
 1.7720	51.6494
 1.7710	51.6680
 1.7700	51.6823
 1.7690	51.6615
 1.7680	51.6580
 1.7670	51.6994
 1.7660	51.6917
 1.7650	51.7139
 1.7640	51.7411
 1.7630	51.7105
 1.7620	51.6423
 1.7610	51.6056
 1.7600	51.6918
 1.7590	51.7359
 1.7580	51.7156
 1.7570	51.6989
 1.7560	51.7439
 1.7550	51.7297
 1.7540	51.7273
 1.7530	51.7599
 1.7520	51.7637
 1.7510	51.8205
 1.7500	51.8253
 1.7490	51.7780
 1.7480	51.8130
 1.7470	51.8643
 1.7460	51.8750
 1.7450	51.8879
 1.7440	51.9214
 1.7430	51.9712
 1.7420	52.0900
 1.7410	52.0780
 1.7400	52.0994
 1.7390	52.1476
 1.7380	52.1972
 1.7370	52.2557
 1.7360	52.3602
 1.7350	52.3727
 1.7340	52.4643
 1.7330	52.5369
 1.7320	52.6103
 1.7310	52.6547
 1.7300	52.7616
 1.7290	52.7994
 1.7280	52.9335
 1.7270	52.9673
 1.7260	53.0597
 1.7250	53.1073
 1.7240	53.2471
 1.7230	53.3626
 1.7220	53.4508
 1.7210	53.5448
 1.7200	53.6080
 1.7190	53.7621
 1.7180	53.8213
 1.7170	53.8439
 1.7160	54.0172
 1.7150	54.1331
 1.7140	54.1560
 1.7130	54.2335
 1.7120	54.3368
 1.7110	54.3820
 1.7100	54.4910
 1.7090	54.5299
 1.7080	54.6797
 1.7070	54.7797
 1.7060	54.8269
 1.7050	54.9692
 1.7040	55.1006
 1.7030	55.0938
 1.7020	55.1806
 1.7010	55.2662
 1.7000	55.3589
 1.6990	55.4086
 1.6980	55.5276
 1.6970	55.5653
 1.6960	55.7199
 1.6950	55.7539
 1.6940	55.8801
 1.6930	55.9800
 1.6920	55.9747
 1.6910	56.0904
 1.6900	56.2496
 1.6890	56.3044
 1.6880	56.4002
 1.6870	56.5128
 1.6860	56.5676
 1.6850	56.6893
 1.6840	56.7380
 1.6830	56.8897
 1.6820	56.9807
 1.6810	57.0665
 1.6800	57.1525
 1.6790	57.2423
 1.6780	57.4052
 1.6770	57.5347
 1.6760	57.5630
 1.6750	57.6577
 1.6740	57.7849
 1.6730	57.8787
 1.6720	58.0102
 1.6710	58.0941
 1.6700	58.2439
 1.6690	58.3840
 1.6680	58.2879
 1.6670	58.5062
 1.6660	58.6274
 1.6650	58.6613
 1.6640	58.7870
 1.6630	58.9222
 1.6620	59.0169
 1.6610	59.0569
 1.6600	59.2310
 1.6590	59.3987
 1.6580	59.3823
 1.6570	59.5000
 1.6560	59.7025
 1.6550	59.6573
 1.6540	59.8905
 1.6530	59.9087
 1.6520	60.1092
 1.6510	60.1515
 1.6500	60.2694
 1.6490	60.3419
 1.6480	60.4301
 1.6470	60.5457
 1.6460	60.6223
 1.6450	60.6789
 1.6440	60.8037
 1.6430	60.8318
 1.6420	61.0261
 1.6410	60.9595
 1.6400	61.2152
 1.6390	61.1865
 1.6380	61.3311
 1.6370	61.3533
 1.6360	61.4613
 1.6350	61.5806
 1.6340	61.6217
 1.6330	61.6355
 1.6320	61.7951
 1.6310	61.8599
 1.6300	61.9098
 1.6290	61.9599
 1.6280	62.0640
 1.6270	62.1213
 1.6260	62.1562
 1.6250	62.3112
 1.6240	62.3913
 1.6230	62.5097
 1.6220	62.5632
 1.6210	62.5663
 1.6200	62.6946
 1.6190	62.7517
 1.6180	63.3938
 1.6170	62.9194
 1.6160	62.9586
 1.6150	62.9741
 1.6140	63.1019
 1.6130	63.1805
 1.6120	63.1532
 1.6110	63.2551
 1.6100	63.3257
 1.6090	63.3910
 1.6080	63.3807
 1.6070	63.5289
 1.6060	63.5489
 1.6050	63.5843
 1.6040	63.6838
 1.6030	63.6850
 1.6020	63.7851
 1.6010	63.8864
 1.6000	63.9073
 1.5990	63.9288
 1.5980	63.9927
 1.5970	64.0602
 1.5960	64.0699
 1.5950	64.1116
 1.5940	64.1333
 1.5930	64.2039
 1.5920	64.2733
 1.5910	64.2868
 1.5900	64.3243
 1.5890	64.4050
 1.5880	64.4153
 1.5870	64.4074
 1.5860	64.4354
 1.5850	64.5214
 1.5840	64.4711
 1.5830	64.5153
 1.5820	64.5395
 1.5810	64.5674
 1.5800	64.4974
 1.5790	64.5450
 1.5780	64.5212
 1.5770	64.5493
 1.5760	64.5175
 1.5750	64.4983
 1.5740	64.5286
 1.5730	64.4972
 1.5720	64.4934
 1.5710	64.4638
 1.5700	64.4192
 1.5690	64.3642
 1.5680	64.3192
 1.5670	64.2553
 1.5660	64.2658
 1.5650	64.2069
 1.5640	64.1199
 1.5630	64.1013
 1.5620	64.0330
 1.5610	63.9501
 1.5600	63.8482
 1.5590	63.7120
 1.5580	63.6429
 1.5570	63.4777
 1.5560	63.4330
 1.5550	63.3522
 1.5540	63.2046
 1.5530	63.0336
 1.5520	62.9253
 1.5510	62.7963
 1.5500	62.6796
 1.5490	62.4788
 1.5480	62.3359
 1.5470	62.2055
 1.5460	62.0497
 1.5450	61.8990
 1.5440	61.7609
 1.5430	61.6028
 1.5420	61.3892
 1.5410	61.2667
 1.5400	61.0493
 1.5390	60.8999
 1.5380	60.7618
 1.5370	60.6329
 1.5360	60.5151
 1.5350	60.4385
 1.5340	60.3198
 1.5330	60.2379
 1.5320	60.1954
 1.5310	60.1146
 1.5300	60.0875
 1.5290	60.0389
 1.5280	60.0502
 1.5270	60.0476
 1.5260	60.1195
 1.5250	60.1329
 1.5240	60.1121
 1.5230	60.1786
 1.5220	60.2424
 1.5210	60.2703
 1.5200	60.2663
 1.5190	60.2718
 1.5180	60.3687
 1.5170	60.3713
 1.5160	60.3421
 1.5150	60.4129
 1.5140	60.4887
 1.5130	60.4975
 1.5120	60.4986
 1.5110	60.5846
 1.5100	60.6393
 1.5090	60.6829
 1.5080	60.7403
 1.5070	60.7966
 1.5060	60.8805
 1.5050	60.9295
 1.5040	60.9809
 1.5030	61.0873
 1.5020	61.1894
 1.5010	61.2609
 1.5000	61.3582
 1.4990	61.4576
 1.4980	61.5447
 1.4970	61.6484
 1.4960	61.7763
 1.4950	61.8844
 1.4940	62.0004
 1.4930	62.1233
 1.4920	62.2160
 1.4910	62.3164
 1.4900	62.4572
 1.4890	62.6230
 1.4880	62.7313
 1.4870	62.9178
 1.4860	63.0586
 1.4850	63.1930
 1.4840	63.3463
 1.4830	63.4996
 1.4820	63.6738
 1.4810	63.8717
 1.4800	64.0302
 1.4790	64.2172
 1.4780	64.3738
 1.4770	64.5574
 1.4760	64.7427
 1.4750	64.8967
 1.4740	65.1458
 1.4730	65.3230
 1.4720	65.4824
 1.4710	65.6410
 1.4700	65.8733
 1.4690	66.1237
 1.4680	66.2501
 1.4670	66.4892
 1.4660	66.7316
 1.4650	66.9250
 1.4640	67.1072
 1.4630	67.3258
 1.4620	67.5410
 1.4610	67.7923
 1.4600	68.0096
 1.4590	68.2377
 1.4580	68.4315
 1.4570	68.6084
 1.4560	68.8033
 1.4550	69.0001
 1.4540	69.1687
 1.4530	69.4260
 1.4520	69.6254
 1.4510	69.8671
 1.4500	70.1000
 1.4490	70.3626
 1.4480	70.6171
 1.4470	70.8746
 1.4460	71.1459
 1.4450	71.3824
 1.4440	71.6865
 1.4430	71.9934
 1.4420	72.2797
 1.4410	72.5016
 1.4400	72.7752
 1.4390	73.0704
 1.4380	73.3097
 1.4370	73.6446
 1.4360	73.9615
 1.4350	74.2248
 1.4340	74.5089
 1.4330	74.7240
 1.4320	75.0052
 1.4310	75.3544
 1.4300	75.5907
 1.4290	75.8518
 1.4280	76.1136
 1.4270	76.3998
 1.4260	76.6025
 1.4250	76.8578
 1.4240	77.0248
 1.4230	77.1993
 1.4220	77.3937
 1.4210	77.6351
 1.4200	77.8952
 1.4190	78.0249
 1.4180	78.1218
 1.4170	78.3262
 1.4160	78.4601
 1.4150	78.6578
 1.4140	78.8222
 1.4130	78.9924
 1.4120	79.0716
 1.4110	79.2042
 1.4100	79.4241
 1.4090	79.4797
 1.4080	79.6173
 1.4070	79.7684
 1.4060	79.7960
 1.4050	79.9447
 1.4040	80.0053
 1.4030	80.1295
 1.4020	80.1837
 1.4010	80.2363
 1.4000	80.3074
 1.3990	80.4997
 1.3980	80.5580
 1.3970	80.5761
 1.3960	80.7103
 1.3950	80.8494
 1.3940	80.9009
 1.3930	80.9206
 1.3920	80.9760
 1.3910	81.0119
 1.3900	81.0755
 1.3890	81.0988
 1.3880	81.0399
 1.3870	81.2065
 1.3860	81.1645
 1.3850	81.2037
 1.3840	81.2776
 1.3830	81.3429
 1.3820	81.2990
 1.3810	81.3716
 1.3800	81.4523
 1.3790	81.3946
 1.3780	81.3860
 1.3770	81.4916
 1.3760	81.4715
 1.3750	81.5042
 1.3740	81.5669
 1.3730	81.4223
 1.3720	81.6149
 1.3710	81.5867
 1.3700	81.6630
 1.3690	81.7028
 1.3680	81.5902
 1.3670	81.7291
 1.3660	81.7861
