Name: Alunite KAl_3(SO_4)_2(OH)_6
Type: Mineral
Class: Sulfate
Subclass: None
Particle Size: Coarse
Sample No.: SO-4A
Owner: JPL
Wavelength Range: VSWIR
Origin: USA, Utah.
Collection Date: N/A
Description: Particle size was 125-500um.Collected by:  Ward's Original ASTER Spectral Library name was jpl.perkin.mineral.sulfate.none.coarse.so04a.spectrum.txt
Measurement: Hemispherical reflectance
First Column: X
Second Column: Y
X Units: Wavelength (micrometers)
Y Units:Reflectance (percent)
First X Value:  2.5000
Last X Value:  0.4000
Number of X Values: 2101
Additional Information: mineral.sulfate.none.coarse.vswir.so-4a.jpl.perkin.ancillary.txt

 2.5000	 4.7186
 2.4990	 4.6590
 2.4980	 5.1649
 2.4970	 5.3928
 2.4960	 5.0658
 2.4950	 5.7388
 2.4940	 5.6944
 2.4930	 5.8505
 2.4920	 6.1752
 2.4910	 6.0860
 2.4900	 6.5365
 2.4890	 6.3296
 2.4880	 6.7681
 2.4870	 6.7922
 2.4860	 6.8458
 2.4850	 6.8185
 2.4840	 7.0054
 2.4830	 7.0647
 2.4820	 7.2050
 2.4810	 7.1827
 2.4800	 7.2301
 2.4790	 7.1665
 2.4780	 7.2985
 2.4770	 7.1079
 2.4760	 7.2557
 2.4750	 7.1248
 2.4740	 7.0244
 2.4730	 6.9345
 2.4720	 7.0052
 2.4710	 6.8315
 2.4700	 6.8767
 2.4690	 6.7261
 2.4680	 6.8207
 2.4670	 6.7489
 2.4660	 6.8182
 2.4650	 6.6542
 2.4640	 6.8493
 2.4630	 6.7119
 2.4620	 6.7612
 2.4610	 6.6826
 2.4600	 6.8365
 2.4590	 6.8557
 2.4580	 7.1104
 2.4570	 7.0700
 2.4560	 7.1617
 2.4550	 7.1476
 2.4540	 7.2350
 2.4530	 7.2489
 2.4520	 7.3927
 2.4510	 7.5083
 2.4500	 7.4750
 2.4490	 7.4261
 2.4480	 7.6129
 2.4470	 7.5864
 2.4460	 7.6304
 2.4450	 7.5346
 2.4440	 7.5584
 2.4430	 7.3456
 2.4420	 7.4177
 2.4410	 7.3080
 2.4400	 7.3668
 2.4390	 7.2513
 2.4380	 7.3071
 2.4370	 7.1570
 2.4360	 7.2024
 2.4350	 7.0426
 2.4340	 7.0612
 2.4330	 6.9833
 2.4320	 7.0128
 2.4310	 6.9294
 2.4300	 7.1017
 2.4290	 7.0552
 2.4280	 7.0427
 2.4270	 7.0932
 2.4260	 7.1483
 2.4250	 7.1867
 2.4240	 7.3037
 2.4230	 7.3293
 2.4220	 7.5402
 2.4210	 7.6079
 2.4200	 7.7355
 2.4190	 7.8546
 2.4180	 7.9918
 2.4170	 8.1175
 2.4160	 8.2423
 2.4150	 8.4293
 2.4140	 8.5947
 2.4130	 8.6635
 2.4120	 8.7680
 2.4110	 8.9148
 2.4100	 9.0761
 2.4090	 9.2114
 2.4080	 9.4530
 2.4070	 9.4255
 2.4060	 9.5140
 2.4050	 9.5986
 2.4040	 9.7886
 2.4030	 9.8498
 2.4020	 9.9870
 2.4010	10.0483
 2.4000	10.1920
 2.3990	10.2310
 2.3980	10.3536
 2.3970	10.5017
 2.3960	10.7265
 2.3950	10.7900
 2.3940	10.9434
 2.3930	11.0153
 2.3920	11.2888
 2.3910	11.5676
 2.3900	11.7118
 2.3890	11.9108
 2.3880	12.2191
 2.3870	12.4470
 2.3860	12.7942
 2.3850	13.0952
 2.3840	13.4966
 2.3830	13.8797
 2.3820	14.2939
 2.3810	14.6440
 2.3800	15.0561
 2.3790	15.5128
 2.3780	15.8987
 2.3770	16.3164
 2.3760	16.7759
 2.3750	17.2058
 2.3740	17.6273
 2.3730	18.0285
 2.3720	18.4354
 2.3710	18.8469
 2.3700	19.1989
 2.3690	19.5378
 2.3680	19.8682
 2.3670	20.1749
 2.3660	20.5241
 2.3650	20.7939
 2.3640	21.0071
 2.3630	21.2626
 2.3620	21.5021
 2.3610	21.6876
 2.3600	21.8357
 2.3590	21.9559
 2.3580	22.0588
 2.3570	22.2525
 2.3560	22.3897
 2.3550	22.4363
 2.3540	22.4617
 2.3530	22.4839
 2.3520	22.5177
 2.3510	22.5258
 2.3500	22.5271
 2.3490	22.4626
 2.3480	22.3825
 2.3470	22.3423
 2.3460	22.1987
 2.3450	22.0624
 2.3440	21.8741
 2.3430	21.6665
 2.3420	21.4897
 2.3410	21.2708
 2.3400	21.0309
 2.3390	20.7787
 2.3380	20.5111
 2.3370	20.2283
 2.3360	19.8844
 2.3350	19.5748
 2.3340	19.2616
 2.3330	19.0079
 2.3320	18.6896
 2.3310	18.3172
 2.3300	17.9803
 2.3290	17.6850
 2.3280	17.4129
 2.3270	17.1261
 2.3260	16.8470
 2.3250	16.6763
 2.3240	16.4839
 2.3230	16.3783
 2.3220	16.2097
 2.3210	16.1279
 2.3200	16.1220
 2.3190	16.1206
 2.3180	16.1822
 2.3170	16.3702
 2.3160	16.4457
 2.3150	16.6609
 2.3140	16.9012
 2.3130	17.2099
 2.3120	17.5990
 2.3110	17.9738
 2.3100	18.4254
 2.3090	18.9422
 2.3080	19.4466
 2.3070	19.9845
 2.3060	20.5210
 2.3050	21.0098
 2.3040	21.5869
 2.3030	22.1431
 2.3020	22.6777
 2.3010	23.2361
 2.3000	23.6973
 2.2990	24.2391
 2.2980	24.5653
 2.2970	24.9773
 2.2960	25.3413
 2.2950	25.7462
 2.2940	26.0109
 2.2930	26.3394
 2.2920	26.5436
 2.2910	26.8513
 2.2900	27.0032
 2.2890	27.1633
 2.2880	27.2933
 2.2870	27.5934
 2.2860	27.6890
 2.2850	27.8614
 2.2840	27.9729
 2.2830	28.1503
 2.2820	28.2093
 2.2810	28.2965
 2.2800	28.4115
 2.2790	28.4742
 2.2780	28.4938
 2.2770	28.6298
 2.2760	28.7698
 2.2750	28.7964
 2.2740	28.8275
 2.2730	28.9581
 2.2720	28.9248
 2.2710	29.0645
 2.2700	29.0362
 2.2690	29.1395
 2.2680	29.1158
 2.2670	29.1618
 2.2660	29.1537
 2.2650	29.2275
 2.2640	29.2142
 2.2630	29.3270
 2.2620	29.2365
 2.2610	29.3573
 2.2600	29.3326
 2.2590	29.4023
 2.2580	29.3565
 2.2570	29.3458
 2.2560	29.3538
 2.2550	29.4632
 2.2540	29.3271
 2.2530	29.3676
 2.2520	29.4184
 2.2510	29.4010
 2.2500	29.3178
 2.2490	29.3503
 2.2480	29.2731
 2.2470	29.2865
 2.2460	29.2174
 2.2450	29.2114
 2.2440	29.0276
 2.2430	28.9668
 2.2420	28.8232
 2.2410	28.7192
 2.2400	28.5724
 2.2390	28.4177
 2.2380	28.2439
 2.2370	28.0691
 2.2360	27.8589
 2.2350	27.6536
 2.2340	27.3426
 2.2330	27.1136
 2.2320	26.8215
 2.2310	26.5342
 2.2300	26.0603
 2.2290	25.6576
 2.2280	25.1219
 2.2270	24.6021
 2.2260	24.0589
 2.2250	23.4351
 2.2240	22.6248
 2.2230	21.9407
 2.2220	21.0086
 2.2210	20.2086
 2.2200	19.2240
 2.2190	18.5063
 2.2180	17.4687
 2.2170	16.6494
 2.2160	15.7583
 2.2150	15.0511
 2.2140	14.2926
 2.2130	13.5290
 2.2120	13.0364
 2.2110	12.5231
 2.2100	12.2469
 2.2090	11.9444
 2.2080	11.8538
 2.2070	11.8563
 2.2060	11.8025
 2.2050	11.9714
 2.2040	12.0475
 2.2030	12.3470
 2.2020	12.3907
 2.2010	12.6734
 2.2000	12.6795
 2.1990	12.6969
 2.1980	12.6761
 2.1970	12.6906
 2.1960	12.4601
 2.1950	12.3917
 2.1940	12.0286
 2.1930	11.8677
 2.1920	11.3917
 2.1910	11.1494
 2.1900	10.6992
 2.1890	10.3516
 2.1880	 9.9752
 2.1870	 9.7737
 2.1860	 9.4833
 2.1850	 9.3009
 2.1840	 9.0214
 2.1830	 8.8599
 2.1820	 8.7216
 2.1810	 8.5858
 2.1800	 8.3949
 2.1790	 8.4394
 2.1780	 8.2404
 2.1770	 8.2395
 2.1760	 8.1015
 2.1750	 8.1635
 2.1740	 8.1059
 2.1730	 8.1428
 2.1720	 8.1273
 2.1710	 8.1196
 2.1700	 7.9666
 2.1690	 8.0162
 2.1680	 7.9324
 2.1670	 7.8746
 2.1660	 7.8878
 2.1650	 7.8766
 2.1640	 7.8682
 2.1630	 7.8714
 2.1620	 7.7355
 2.1610	 7.7895
 2.1600	 7.7677
 2.1590	 7.8803
 2.1580	 7.8352
 2.1570	 7.8887
 2.1560	 7.9114
 2.1550	 8.0519
 2.1540	 8.1175
 2.1530	 8.2616
 2.1520	 8.3275
 2.1510	 8.5007
 2.1500	 8.6337
 2.1490	 8.8227
 2.1480	 8.9218
 2.1470	 9.1797
 2.1460	 9.2362
 2.1450	 9.4013
 2.1440	 9.5466
 2.1430	 9.7684
 2.1420	 9.8513
 2.1410	 9.9981
 2.1400	10.0824
 2.1390	10.2862
 2.1380	10.3662
 2.1370	10.5583
 2.1360	10.6721
 2.1350	10.8564
 2.1340	11.0578
 2.1330	11.2135
 2.1320	11.3994
 2.1310	11.6426
 2.1300	11.7776
 2.1290	12.0292
 2.1280	12.2060
 2.1270	12.4332
 2.1260	12.6755
 2.1250	13.0117
 2.1240	13.2929
 2.1230	13.6526
 2.1220	13.9488
 2.1210	14.3737
 2.1200	14.7202
 2.1190	15.1058
 2.1180	15.5237
 2.1170	15.8878
 2.1160	16.2609
 2.1150	16.6616
 2.1140	17.0222
 2.1130	17.3991
 2.1120	17.7569
 2.1110	18.0641
 2.1100	18.4118
 2.1090	18.7834
 2.1080	19.0814
 2.1070	19.4290
 2.1060	19.7110
 2.1050	19.9601
 2.1040	20.2662
 2.1030	20.5733
 2.1020	20.7999
 2.1010	21.0207
 2.1000	21.1745
 2.0990	21.3710
 2.0980	21.5701
 2.0970	21.7718
 2.0960	21.9320
 2.0950	22.1187
 2.0940	22.2864
 2.0930	22.4720
 2.0920	22.5751
 2.0910	22.6986
 2.0900	22.8042
 2.0890	22.8929
 2.0880	23.0076
 2.0870	23.1441
 2.0860	23.1666
 2.0850	23.2264
 2.0840	23.3329
 2.0830	23.3471
 2.0820	23.3903
 2.0810	23.4409
 2.0800	23.4551
 2.0790	23.4984
 2.0780	23.4841
 2.0770	23.4595
 2.0760	23.4692
 2.0750	23.4528
 2.0740	23.4143
 2.0730	23.3853
 2.0720	23.4083
 2.0710	23.3940
 2.0700	23.3524
 2.0690	23.3634
 2.0680	23.3232
 2.0670	23.2742
 2.0660	23.3186
 2.0650	23.2921
 2.0640	23.2968
 2.0630	23.3321
 2.0620	23.3654
 2.0610	23.4203
 2.0600	23.4482
 2.0590	23.4449
 2.0580	23.5113
 2.0570	23.5642
 2.0560	23.6392
 2.0550	23.7538
 2.0540	23.7866
 2.0530	23.8707
 2.0520	24.0287
 2.0510	24.0910
 2.0500	24.1579
 2.0490	24.2721
 2.0480	24.3276
 2.0470	24.3819
 2.0460	24.5331
 2.0450	24.6032
 2.0440	24.7033
 2.0430	24.7951
 2.0420	24.8867
 2.0410	24.9213
 2.0400	24.9730
 2.0390	25.0707
 2.0380	25.1249
 2.0370	25.1904
 2.0360	25.3085
 2.0350	25.3386
 2.0340	25.3908
 2.0330	25.4345
 2.0320	25.5782
 2.0310	25.6561
 2.0300	25.7369
 2.0290	25.7610
 2.0280	25.8383
 2.0270	25.8442
 2.0260	25.8898
 2.0250	25.9153
 2.0240	25.9817
 2.0230	25.9844
 2.0220	25.9836
 2.0210	25.9764
 2.0200	25.9388
 2.0190	25.8700
 2.0180	25.8279
 2.0170	25.8341
 2.0160	25.8925
 2.0150	25.7972
 2.0140	25.7253
 2.0130	25.7238
 2.0120	25.7490
 2.0110	25.7940
 2.0100	25.8681
 2.0090	25.8109
 2.0080	25.9108
 2.0070	25.9844
 2.0060	26.0781
 2.0050	26.2202
 2.0040	26.3715
 2.0030	26.4767
 2.0020	26.6279
 2.0010	26.7341
 2.0000	26.9887
 1.9990	27.0880
 1.9980	27.3000
 1.9970	27.4377
 1.9960	27.6674
 1.9950	27.8293
 1.9940	28.0750
 1.9930	28.1494
 1.9920	28.4107
 1.9910	28.5780
 1.9900	28.7170
 1.9890	28.8569
 1.9880	28.9768
 1.9870	29.0998
 1.9860	29.2984
 1.9850	29.3635
 1.9840	29.4837
 1.9830	29.5361
 1.9820	29.6132
 1.9810	29.6898
 1.9800	29.7256
 1.9790	29.7696
 1.9780	29.7848
 1.9770	29.7063
 1.9760	29.7402
 1.9750	29.6444
 1.9740	29.6996
 1.9730	29.6999
 1.9720	29.6717
 1.9710	29.5457
 1.9700	29.6024
 1.9690	29.4483
 1.9680	29.4975
 1.9670	29.4364
 1.9660	29.4722
 1.9650	29.3394
 1.9640	29.4795
 1.9630	29.4660
 1.9620	29.4641
 1.9610	29.4396
 1.9600	29.5968
 1.9590	29.5585
 1.9580	29.6217
 1.9570	29.7384
 1.9560	29.8688
 1.9550	29.9049
 1.9540	29.9966
 1.9530	30.0969
 1.9520	30.1921
 1.9510	30.2721
 1.9500	30.4479
 1.9490	30.4735
 1.9480	30.6137
 1.9470	30.6993
 1.9460	30.8513
 1.9450	30.8766
 1.9440	31.0530
 1.9430	31.0291
 1.9420	31.2066
 1.9410	31.2929
 1.9400	31.3792
 1.9390	31.4708
 1.9380	31.4557
 1.9370	31.5411
 1.9360	31.6961
 1.9350	31.6836
 1.9340	31.8749
 1.9330	31.7799
 1.9320	32.0353
 1.9310	32.0511
 1.9300	32.0780
 1.9290	32.2350
 1.9280	32.4128
 1.9270	32.3823
 1.9260	32.5576
 1.9250	32.7894
 1.9240	32.8015
 1.9230	32.9801
 1.9220	33.0647
 1.9210	33.3502
 1.9200	33.5194
 1.9190	33.6402
 1.9180	33.8214
 1.9170	34.0258
 1.9160	34.3293
 1.9150	34.4168
 1.9140	34.7320
 1.9130	34.9087
 1.9120	35.1765
 1.9110	35.4360
 1.9100	35.6721
 1.9090	35.9055
 1.9080	36.2594
 1.9070	36.4215
 1.9060	36.6571
 1.9050	36.9374
 1.9040	37.3632
 1.9030	37.5396
 1.9020	37.8212
 1.9010	38.0902
 1.9000	38.4160
 1.8990	38.5978
 1.8980	38.9052
 1.8970	39.1210
 1.8960	39.4257
 1.8950	39.5789
 1.8940	39.9500
 1.8930	40.1065
 1.8920	40.3746
 1.8910	40.6048
 1.8900	40.8330
 1.8890	40.9644
 1.8880	41.2997
 1.8870	41.4744
 1.8860	41.7467
 1.8850	41.8669
 1.8840	42.1405
 1.8830	42.3064
 1.8820	42.6124
 1.8810	42.7831
 1.8800	43.0086
 1.8790	43.1925
 1.8780	43.3552
 1.8770	43.5200
 1.8760	43.7409
 1.8750	43.8650
 1.8740	44.0514
 1.8730	44.2437
 1.8720	44.4062
 1.8710	44.5320
 1.8700	44.7630
 1.8690	44.8788
 1.8680	45.0577
 1.8670	45.1856
 1.8660	45.3210
 1.8650	45.4306
 1.8640	45.5994
 1.8630	45.6906
 1.8620	45.8424
 1.8610	45.8566
 1.8600	45.9756
 1.8590	46.0473
 1.8580	46.2213
 1.8570	46.2862
 1.8560	46.3512
 1.8550	46.4535
 1.8540	46.4985
 1.8530	46.5222
 1.8520	46.6451
 1.8510	46.6844
 1.8500	46.7886
 1.8490	46.8538
 1.8480	46.9619
 1.8470	46.9582
 1.8460	47.0280
 1.8450	47.1040
 1.8440	47.2219
 1.8430	47.2017
 1.8420	47.2879
 1.8410	47.3471
 1.8400	47.3701
 1.8390	47.3327
 1.8380	47.4538
 1.8370	47.5006
 1.8360	47.5440
 1.8350	47.5485
 1.8340	47.6645
 1.8330	47.7690
 1.8320	47.8614
 1.8310	47.8881
 1.8300	47.9139
 1.8290	47.9052
 1.8280	47.9481
 1.8270	48.0199
 1.8260	48.0737
 1.8250	48.1160
 1.8240	48.1192
 1.8230	48.1158
 1.8220	48.1484
 1.8210	48.1455
 1.8200	48.1459
 1.8190	48.1210
 1.8180	48.0826
 1.8170	48.0791
 1.8160	48.1335
 1.8150	48.0955
 1.8140	48.0860
 1.8130	48.0091
 1.8120	47.9677
 1.8110	47.9373
 1.8100	47.9410
 1.8090	47.8800
 1.8080	47.8301
 1.8070	47.8359
 1.8060	47.7955
 1.8050	47.6386
 1.8040	47.5185
 1.8030	47.3779
 1.8020	47.2365
 1.8010	47.0594
 1.8000	46.8701
 1.7990	46.7006
 1.7980	46.4926
 1.7970	46.2076
 1.7960	45.8281
 1.7950	45.4407
 1.7940	44.9777
 1.7930	44.4451
 1.7920	43.7848
 1.7910	43.0250
 1.7900	42.3632
 1.7890	41.6466
 1.7880	40.9493
 1.7870	40.2808
 1.7860	39.5501
 1.7850	38.8730
 1.7840	38.2702
 1.7830	37.6726
 1.7820	37.1304
 1.7810	36.6518
 1.7800	36.1785
 1.7790	35.7565
 1.7780	35.4045
 1.7770	35.0832
 1.7760	34.7298
 1.7750	34.4198
 1.7740	34.0557
 1.7730	33.7080
 1.7720	33.3692
 1.7710	32.9664
 1.7700	32.6332
 1.7690	32.4655
 1.7680	32.3642
 1.7670	32.3445
 1.7660	32.3445
 1.7650	32.4144
 1.7640	32.5635
 1.7630	32.7174
 1.7620	32.8840
 1.7610	33.0938
 1.7600	33.2562
 1.7590	33.4568
 1.7580	33.6713
 1.7570	33.8396
 1.7560	34.0403
 1.7550	34.2983
 1.7540	34.4810
 1.7530	34.7406
 1.7520	35.0388
 1.7510	35.2740
 1.7500	35.5636
 1.7490	35.9181
 1.7480	36.2774
 1.7470	36.7031
 1.7460	37.1380
 1.7450	37.5520
 1.7440	37.9651
 1.7430	38.4862
 1.7420	38.9187
 1.7410	39.4114
 1.7400	39.8481
 1.7390	40.3318
 1.7380	40.6928
 1.7370	41.0674
 1.7360	41.4688
 1.7350	41.8792
 1.7340	42.2355
 1.7330	42.6371
 1.7320	43.0560
 1.7310	43.4526
 1.7300	43.8247
 1.7290	44.2171
 1.7280	44.6030
 1.7270	45.0417
 1.7260	45.4378
 1.7250	45.7759
 1.7240	46.0796
 1.7230	46.4537
 1.7220	46.7541
 1.7210	47.0767
 1.7200	47.3170
 1.7190	47.6352
 1.7180	47.8915
 1.7170	48.0797
 1.7160	48.2606
 1.7150	48.4662
 1.7140	48.6019
 1.7130	48.8541
 1.7120	48.9363
 1.7110	49.0850
 1.7100	49.2375
 1.7090	49.4121
 1.7080	49.4844
 1.7070	49.6162
 1.7060	49.6836
 1.7050	49.8969
 1.7040	49.9512
 1.7030	50.1354
 1.7020	50.2212
 1.7010	50.2644
 1.7000	50.3058
 1.6990	50.4579
 1.6980	50.4759
 1.6970	50.6583
 1.6960	50.7084
 1.6950	50.7992
 1.6940	50.8874
 1.6930	51.0626
 1.6920	51.0567
 1.6910	51.2338
 1.6900	51.2582
 1.6890	51.3842
 1.6880	51.4631
 1.6870	51.6171
 1.6860	51.6886
 1.6850	51.8090
 1.6840	51.9051
 1.6830	51.9854
 1.6820	52.1024
 1.6810	52.2291
 1.6800	52.2489
 1.6790	52.4590
 1.6780	52.4847
 1.6770	52.5842
 1.6760	52.6443
 1.6750	52.7740
 1.6740	52.8779
 1.6730	52.9835
 1.6720	53.0507
 1.6710	53.2016
 1.6700	53.2882
 1.6690	53.4476
 1.6680	53.4297
 1.6670	53.6083
 1.6660	53.6744
 1.6650	53.7898
 1.6640	53.9079
 1.6630	54.0189
 1.6620	54.0666
 1.6610	54.1359
 1.6600	54.2016
 1.6590	54.3431
 1.6580	54.3297
 1.6570	54.5689
 1.6560	54.4943
 1.6550	54.6787
 1.6540	54.7493
 1.6530	54.7094
 1.6520	54.8495
 1.6510	54.8909
 1.6500	54.9218
 1.6490	55.0879
 1.6480	55.0057
 1.6470	55.1121
 1.6460	55.1803
 1.6450	55.2578
 1.6440	55.2203
 1.6430	55.2994
 1.6420	55.3737
 1.6410	55.3884
 1.6400	55.5735
 1.6390	55.6195
 1.6380	55.4531
 1.6370	55.5735
 1.6360	55.6302
 1.6350	55.7356
 1.6340	55.7397
 1.6330	55.8271
 1.6320	55.8865
 1.6310	55.9187
 1.6300	55.9579
 1.6290	55.9462
 1.6280	55.9755
 1.6270	56.0732
 1.6260	56.0817
 1.6250	56.1212
 1.6240	56.0612
 1.6230	56.1413
 1.6220	56.1881
 1.6210	56.2297
 1.6200	56.2027
 1.6190	56.2241
 1.6180	56.1951
 1.6170	56.2251
 1.6160	56.1899
 1.6150	56.2080
 1.6140	56.2620
 1.6130	56.2458
 1.6120	56.1879
 1.6110	56.2031
 1.6100	56.2528
 1.6090	56.3249
 1.6080	56.2659
 1.6070	56.2928
 1.6060	56.3699
 1.6050	56.3719
 1.6040	56.4280
 1.6030	56.4332
 1.6020	56.4814
 1.6010	56.5027
 1.6000	56.4363
 1.5990	56.4772
 1.5980	56.5030
 1.5970	56.5194
 1.5960	56.4399
 1.5950	56.4791
 1.5940	56.4853
 1.5930	56.4930
 1.5920	56.5276
 1.5910	56.5647
 1.5900	56.5541
 1.5890	56.5886
 1.5880	56.6127
 1.5870	56.6852
 1.5860	56.6884
 1.5850	56.7348
 1.5840	56.7235
 1.5830	56.7909
 1.5820	56.8992
 1.5810	56.9533
 1.5800	56.9267
 1.5790	57.0304
 1.5780	57.0035
 1.5770	57.0278
 1.5760	57.0940
 1.5750	57.1015
 1.5740	57.0374
 1.5730	57.1637
 1.5720	57.1408
 1.5710	57.1904
 1.5700	57.2114
 1.5690	57.2783
 1.5680	57.2542
 1.5670	57.3027
 1.5660	57.3360
 1.5650	57.3951
 1.5640	57.3352
 1.5630	57.3800
 1.5620	57.4160
 1.5610	57.4712
 1.5600	57.4222
 1.5590	57.4330
 1.5580	57.4360
 1.5570	57.4327
 1.5560	57.4368
 1.5550	57.4107
 1.5540	57.4200
 1.5530	57.3598
 1.5520	57.3342
 1.5510	57.3708
 1.5500	57.3895
 1.5490	57.4255
 1.5480	57.3701
 1.5470	57.2982
 1.5460	57.2584
 1.5450	57.2466
 1.5440	57.1838
 1.5430	57.1393
 1.5420	57.1391
 1.5410	57.0876
 1.5400	57.0052
 1.5390	56.9239
 1.5380	56.7730
 1.5370	56.6731
 1.5360	56.5547
 1.5350	56.4593
 1.5340	56.3629
 1.5330	56.2817
 1.5320	56.2838
 1.5310	56.3491
 1.5300	56.3321
 1.5290	56.3052
 1.5280	56.2732
 1.5270	56.2661
 1.5260	56.2244
 1.5250	56.1669
 1.5240	56.0444
 1.5230	55.9209
 1.5220	55.7615
 1.5210	55.5909
 1.5200	55.3686
 1.5190	55.1497
 1.5180	54.9030
 1.5170	54.6540
 1.5160	54.4029
 1.5150	54.1541
 1.5140	53.9291
 1.5130	53.6164
 1.5120	53.2191
 1.5110	52.8593
 1.5100	52.3817
 1.5090	51.7384
 1.5080	50.9655
 1.5070	50.2661
 1.5060	49.6070
 1.5050	48.9163
 1.5040	48.3845
 1.5030	47.9044
 1.5020	47.3913
 1.5010	46.9298
 1.5000	46.5982
 1.4990	46.3590
 1.4980	46.0941
 1.4970	45.8544
 1.4960	45.5991
 1.4950	45.2594
 1.4940	44.9250
 1.4930	44.5767
 1.4920	44.1405
 1.4910	43.5093
 1.4900	42.6024
 1.4890	41.4642
 1.4880	40.0822
 1.4870	38.3097
 1.4860	36.2615
 1.4850	33.8934
 1.4840	31.2547
 1.4830	28.3816
 1.4820	25.4064
 1.4810	22.5633
 1.4800	20.3407
 1.4790	19.0472
 1.4780	18.8748
 1.4770	19.7258
 1.4760	21.5399
 1.4750	23.8718
 1.4740	26.2851
 1.4730	28.5995
 1.4720	30.7517
 1.4710	32.5787
 1.4700	34.0339
 1.4690	35.1896
 1.4680	36.1597
 1.4670	36.8345
 1.4660	37.3175
 1.4650	37.5821
 1.4640	37.6678
 1.4630	37.6971
 1.4620	37.6936
 1.4610	37.6145
 1.4600	37.6928
 1.4590	37.8353
 1.4580	38.1042
 1.4570	38.5199
 1.4560	39.0249
 1.4550	39.5311
 1.4540	40.1263
 1.4530	40.7309
 1.4520	41.4693
 1.4510	42.1610
 1.4500	42.9341
 1.4490	43.6501
 1.4480	44.2991
 1.4470	44.8434
 1.4460	45.2438
 1.4450	45.5450
 1.4440	45.7018
 1.4430	45.8557
 1.4420	45.9644
 1.4410	45.8570
 1.4400	45.5252
 1.4390	44.8457
 1.4380	43.7652
 1.4370	42.1972
 1.4360	40.2768
 1.4350	38.2189
 1.4340	36.2210
 1.4330	34.5129
 1.4320	33.4354
 1.4310	32.6209
 1.4300	31.8823
 1.4290	30.9262
 1.4280	29.9410
 1.4270	29.3338
 1.4260	29.8253
 1.4250	31.4954
 1.4240	34.4173
 1.4230	37.8906
 1.4220	41.7178
 1.4210	45.2646
 1.4200	48.4785
 1.4190	51.0082
 1.4180	53.0450
 1.4170	54.4906
 1.4160	55.7226
 1.4150	56.6747
 1.4140	57.5562
 1.4130	58.2686
 1.4120	58.9503
 1.4110	59.5811
 1.4100	60.2060
 1.4090	60.8482
 1.4080	61.5088
 1.4070	62.1382
 1.4060	62.7373
 1.4050	63.4247
 1.4040	64.0047
 1.4030	64.6848
 1.4020	65.3141
 1.4010	65.8385
 1.4000	66.3198
 1.3990	66.7495
 1.3980	67.1407
 1.3970	67.5429
 1.3960	67.9180
 1.3950	68.2411
 1.3940	68.5916
 1.3930	68.8624
 1.3920	69.3020
 1.3910	69.5610
 1.3900	69.8897
 1.3890	70.0955
 1.3880	70.1852
 1.3870	70.3699
 1.3860	70.4805
 1.3850	70.5631
 1.3840	70.7465
 1.3830	70.6700
 1.3820	70.7599
 1.3810	70.6423
 1.3800	70.7467
 1.3790	70.8951
 1.3780	70.9904
 1.3770	71.1826
 1.3760	71.4905
 1.3750	71.7522
 1.3740	71.8490
 1.3730	72.0231
 1.3720	72.0841
 1.3710	72.1302
 1.3700	72.2853
 1.3690	72.1412
 1.3680	72.0095
 1.3670	71.7658
 1.3660	71.5832
 1.3650	71.1543
