Name: Montmorillonite (Na,Ca)_0.33(Al,Mg)_2Si_4O_10(OH)_2.H_2O
Type: Mineral
Class: Silicate
Subclass: Phyllosilicate
Particle Size: Fine
Sample No.: PS-2D
Owner: JPL
Wavelength Range: VSWIR
Origin: USA, Wyoming, Crook County.
Collection Date: N/A
Description: Particle size was 0-45um.Collected by:  Clay Mineral Society Original ASTER Spectral Library name was jpl.perkin.mineral.silicate.phyllosilicate.fine.ps02d.spectrum.txt
Measurement: Hemispherical reflectance
First Column: X
Second Column: Y
X Units: Wavelength (micrometers)
Y Units:Reflectance (percent)
First X Value:  2.5000
Last X Value:  0.4000
Number of X Values: 2101
Additional Information: mineral.silicate.phyllosilicate.fine.vswir.ps-2d.jpl.perkin.ancillary.txt

 2.5000	47.4727
 2.4990	47.0746
 2.4980	47.4022
 2.4970	47.4641
 2.4960	47.3326
 2.4950	47.6261
 2.4940	47.4486
 2.4930	47.7713
 2.4920	47.6485
 2.4910	47.9933
 2.4900	48.0479
 2.4890	48.2901
 2.4880	48.0581
 2.4870	48.3053
 2.4860	48.1574
 2.4850	48.3461
 2.4840	48.2003
 2.4830	48.2651
 2.4820	48.3724
 2.4810	48.5047
 2.4800	48.5517
 2.4790	48.6256
 2.4780	48.5831
 2.4770	48.8000
 2.4760	48.6384
 2.4750	48.7865
 2.4740	48.8592
 2.4730	48.9144
 2.4720	48.7709
 2.4710	49.1893
 2.4700	49.0952
 2.4690	49.3510
 2.4680	49.3044
 2.4670	49.3739
 2.4660	49.3651
 2.4650	49.5435
 2.4640	49.4727
 2.4630	49.6785
 2.4620	49.6921
 2.4610	49.7175
 2.4600	49.7856
 2.4590	49.9661
 2.4580	49.9622
 2.4570	50.1625
 2.4560	50.0954
 2.4550	50.1858
 2.4540	50.2279
 2.4530	50.4202
 2.4520	50.3723
 2.4510	50.6140
 2.4500	50.6652
 2.4490	50.6674
 2.4480	50.7891
 2.4470	51.0517
 2.4460	51.0159
 2.4450	51.1556
 2.4440	51.2122
 2.4430	51.3687
 2.4420	51.3732
 2.4410	51.5688
 2.4400	51.6137
 2.4390	51.7274
 2.4380	51.9021
 2.4370	52.0094
 2.4360	52.0385
 2.4350	52.2049
 2.4340	52.2721
 2.4330	52.3417
 2.4320	52.3961
 2.4310	52.6626
 2.4300	52.7435
 2.4290	52.9643
 2.4280	53.0182
 2.4270	53.0555
 2.4260	53.2453
 2.4250	53.3001
 2.4240	53.2542
 2.4230	53.4810
 2.4220	53.6773
 2.4210	53.7654
 2.4200	53.8040
 2.4190	53.9015
 2.4180	53.9526
 2.4170	54.1163
 2.4160	54.2377
 2.4150	54.3712
 2.4140	54.4116
 2.4130	54.5723
 2.4120	54.6065
 2.4110	54.7325
 2.4100	54.8558
 2.4090	54.9479
 2.4080	55.0023
 2.4070	55.0845
 2.4060	55.1348
 2.4050	55.2644
 2.4040	55.3428
 2.4030	55.4217
 2.4020	55.5495
 2.4010	55.6329
 2.4000	55.7206
 2.3990	55.8054
 2.3980	55.9427
 2.3970	56.0266
 2.3960	56.1262
 2.3950	56.2086
 2.3940	56.2936
 2.3930	56.3890
 2.3920	56.4413
 2.3910	56.5651
 2.3900	56.6386
 2.3890	56.6998
 2.3880	56.8244
 2.3870	56.9574
 2.3860	57.0179
 2.3850	57.1062
 2.3840	57.1254
 2.3830	57.1961
 2.3820	57.2946
 2.3810	57.5160
 2.3800	57.6398
 2.3790	57.7310
 2.3780	57.8241
 2.3770	57.9649
 2.3760	58.0774
 2.3750	58.1769
 2.3740	58.2382
 2.3730	58.3127
 2.3720	58.3661
 2.3710	58.5131
 2.3700	58.6490
 2.3690	58.7019
 2.3680	58.7482
 2.3670	58.8440
 2.3660	58.8979
 2.3650	58.9926
 2.3640	59.1337
 2.3630	59.1937
 2.3620	59.2366
 2.3610	59.3510
 2.3600	59.4301
 2.3590	59.5611
 2.3580	59.6195
 2.3570	59.6868
 2.3560	59.8577
 2.3550	60.0286
 2.3540	60.0817
 2.3530	60.1442
 2.3520	60.2747
 2.3510	60.3931
 2.3500	60.5121
 2.3490	60.6495
 2.3480	60.7644
 2.3470	60.8814
 2.3460	61.0448
 2.3450	61.1669
 2.3440	61.2889
 2.3430	61.3819
 2.3420	61.5334
 2.3410	61.6385
 2.3400	61.7106
 2.3390	61.8663
 2.3380	62.0209
 2.3370	62.1376
 2.3360	62.2451
 2.3350	62.3332
 2.3340	62.4732
 2.3330	62.6012
 2.3320	62.6918
 2.3310	62.8174
 2.3300	62.9433
 2.3290	62.9973
 2.3280	63.1353
 2.3270	63.2722
 2.3260	63.3663
 2.3250	63.4772
 2.3240	63.5555
 2.3230	63.6459
 2.3220	63.7148
 2.3210	63.7973
 2.3200	63.9375
 2.3190	64.0458
 2.3180	64.1437
 2.3170	64.1856
 2.3160	64.2626
 2.3150	64.3380
 2.3140	64.4621
 2.3130	64.5498
 2.3120	64.6290
 2.3110	64.6512
 2.3100	64.8184
 2.3090	64.8685
 2.3080	64.9574
 2.3070	65.1099
 2.3060	65.2065
 2.3050	65.2702
 2.3040	65.3851
 2.3030	65.4475
 2.3020	65.5503
 2.3010	65.6769
 2.3000	65.7887
 2.2990	65.8213
 2.2980	65.9304
 2.2970	66.0581
 2.2960	66.0945
 2.2950	66.2778
 2.2940	66.3637
 2.2930	66.3816
 2.2920	66.5319
 2.2910	66.6239
 2.2900	66.7847
 2.2890	66.8825
 2.2880	66.9018
 2.2870	67.0061
 2.2860	67.0751
 2.2850	67.1285
 2.2840	67.2589
 2.2830	67.3475
 2.2820	67.4393
 2.2810	67.4615
 2.2800	67.5822
 2.2790	67.5686
 2.2780	67.7128
 2.2770	67.7413
 2.2760	67.7918
 2.2750	67.8275
 2.2740	67.8557
 2.2730	67.8725
 2.2720	67.9840
 2.2710	68.0038
 2.2700	68.0324
 2.2690	68.0165
 2.2680	68.0533
 2.2670	68.0717
 2.2660	68.1008
 2.2650	68.0632
 2.2640	68.0731
 2.2630	68.1001
 2.2620	68.0415
 2.2610	67.8937
 2.2600	67.9188
 2.2590	67.8750
 2.2580	67.7598
 2.2570	67.6935
 2.2560	67.6867
 2.2550	67.5151
 2.2540	67.4108
 2.2530	67.2152
 2.2520	67.1572
 2.2510	66.9583
 2.2500	66.9265
 2.2490	66.7092
 2.2480	66.5130
 2.2470	66.3946
 2.2460	66.2391
 2.2450	66.0019
 2.2440	65.8093
 2.2430	65.7084
 2.2420	65.5915
 2.2410	65.3629
 2.2400	65.2295
 2.2390	64.9935
 2.2380	64.7979
 2.2370	64.7318
 2.2360	64.6457
 2.2350	64.4632
 2.2340	64.4425
 2.2330	64.2256
 2.2320	64.1775
 2.2310	63.9945
 2.2300	63.9030
 2.2290	63.7887
 2.2280	63.6237
 2.2270	63.4175
 2.2260	63.3480
 2.2250	63.1975
 2.2240	63.0726
 2.2230	62.7747
 2.2220	62.6830
 2.2210	62.3680
 2.2200	62.1101
 2.2190	61.9083
 2.2180	61.6048
 2.2170	61.3420
 2.2160	61.0799
 2.2150	60.8777
 2.2140	60.6296
 2.2130	60.3169
 2.2120	60.1388
 2.2110	59.8828
 2.2100	59.8379
 2.2090	59.6254
 2.2080	59.5648
 2.2070	59.4924
 2.2060	59.5760
 2.2050	59.6417
 2.2040	59.6918
 2.2030	59.8126
 2.2020	59.9914
 2.2010	60.1898
 2.2000	60.4732
 2.1990	60.6524
 2.1980	60.9902
 2.1970	61.2612
 2.1960	61.5741
 2.1950	61.8154
 2.1940	62.1968
 2.1930	62.4754
 2.1920	62.7175
 2.1910	63.0703
 2.1900	63.3880
 2.1890	63.6687
 2.1880	64.0395
 2.1870	64.2903
 2.1860	64.5856
 2.1850	64.8617
 2.1840	65.2137
 2.1830	65.4792
 2.1820	65.7671
 2.1810	66.0015
 2.1800	66.2809
 2.1790	66.4979
 2.1780	66.9160
 2.1770	67.2118
 2.1760	67.4979
 2.1750	67.6713
 2.1740	68.0098
 2.1730	68.2377
 2.1720	68.3988
 2.1710	68.7799
 2.1700	69.1004
 2.1690	69.3227
 2.1680	69.5416
 2.1670	69.8646
 2.1660	70.1214
 2.1650	70.2844
 2.1640	70.5905
 2.1630	70.7348
 2.1620	70.9233
 2.1610	71.1096
 2.1600	71.3890
 2.1590	71.5362
 2.1580	71.6572
 2.1570	71.8446
 2.1560	72.0013
 2.1550	72.0214
 2.1540	72.2327
 2.1530	72.2729
 2.1520	72.2869
 2.1510	72.3737
 2.1500	72.4376
 2.1490	72.4426
 2.1480	72.5836
 2.1470	72.6383
 2.1460	72.6407
 2.1450	72.6742
 2.1440	72.7437
 2.1430	72.8192
 2.1420	72.8179
 2.1410	72.8219
 2.1400	72.8428
 2.1390	72.8956
 2.1380	72.9177
 2.1370	72.8986
 2.1360	72.8850
 2.1350	72.8357
 2.1340	72.8622
 2.1330	72.9031
 2.1320	72.8894
 2.1310	72.8375
 2.1300	72.7358
 2.1290	72.6987
 2.1280	72.7080
 2.1270	72.7367
 2.1260	72.6834
 2.1250	72.6674
 2.1240	72.6272
 2.1230	72.5413
 2.1220	72.4492
 2.1210	72.4043
 2.1200	72.3836
 2.1190	72.3404
 2.1180	72.2534
 2.1170	72.1980
 2.1160	72.1961
 2.1150	72.0491
 2.1140	71.9870
 2.1130	71.9345
 2.1120	71.8572
 2.1110	71.7392
 2.1100	71.6074
 2.1090	71.5062
 2.1080	71.4846
 2.1070	71.4295
 2.1060	71.4299
 2.1050	71.3512
 2.1040	71.2596
 2.1030	71.1813
 2.1020	71.1281
 2.1010	71.1105
 2.1000	71.0938
 2.0990	71.0340
 2.0980	71.0351
 2.0970	71.0349
 2.0960	71.0381
 2.0950	71.0351
 2.0940	70.9967
 2.0930	70.9736
 2.0920	70.9626
 2.0910	70.9853
 2.0900	71.0033
 2.0890	70.9844
 2.0880	71.0140
 2.0870	71.0218
 2.0860	70.9571
 2.0850	70.8889
 2.0840	70.9493
 2.0830	70.9517
 2.0820	70.9319
 2.0810	70.9277
 2.0800	70.9905
 2.0790	71.0301
 2.0780	71.0086
 2.0770	71.0027
 2.0760	70.9981
 2.0750	70.9624
 2.0740	70.9406
 2.0730	70.9446
 2.0720	70.9438
 2.0710	70.9346
 2.0700	70.9247
 2.0690	70.9216
 2.0680	70.9384
 2.0670	70.9560
 2.0660	70.9169
 2.0650	70.9143
 2.0640	70.8825
 2.0630	70.8562
 2.0620	70.8425
 2.0610	70.8481
 2.0600	70.8313
 2.0590	70.7745
 2.0580	70.7571
 2.0570	70.7517
 2.0560	70.7144
 2.0550	70.6850
 2.0540	70.6733
 2.0530	70.6398
 2.0520	70.5784
 2.0510	70.4829
 2.0500	70.4810
 2.0490	70.5234
 2.0480	70.3984
 2.0470	70.3596
 2.0460	70.3194
 2.0450	70.2630
 2.0440	70.2371
 2.0430	70.1579
 2.0420	70.1038
 2.0410	70.0401
 2.0400	69.9937
 2.0390	69.9323
 2.0380	69.8993
 2.0370	69.7703
 2.0360	69.6642
 2.0350	69.6039
 2.0340	69.5240
 2.0330	69.4901
 2.0320	69.4043
 2.0310	69.3563
 2.0300	69.2130
 2.0290	69.0822
 2.0280	68.9839
 2.0270	68.9762
 2.0260	68.8221
 2.0250	68.7693
 2.0240	68.6576
 2.0230	68.5352
 2.0220	68.3814
 2.0210	68.2648
 2.0200	68.2121
 2.0190	68.1558
 2.0180	67.9863
 2.0170	67.8539
 2.0160	67.7278
 2.0150	67.6951
 2.0140	67.5687
 2.0130	67.4825
 2.0120	67.3049
 2.0110	67.1943
 2.0100	67.0102
 2.0090	66.9472
 2.0080	66.8242
 2.0070	66.6997
 2.0060	66.6056
 2.0050	66.4508
 2.0040	66.3569
 2.0030	66.2483
 2.0020	66.0373
 2.0010	65.8973
 2.0000	65.7683
 1.9990	65.6704
 1.9980	65.4510
 1.9970	65.3951
 1.9960	65.1997
 1.9950	65.1143
 1.9940	64.9542
 1.9930	64.7412
 1.9920	64.6160
 1.9910	64.4358
 1.9900	64.3522
 1.9890	64.2405
 1.9880	64.0307
 1.9870	63.9204
 1.9860	63.7463
 1.9850	63.6215
 1.9840	63.4966
 1.9830	63.4139
 1.9820	63.1687
 1.9810	63.0717
 1.9800	62.9539
 1.9790	62.8776
 1.9780	62.6694
 1.9770	62.5852
 1.9760	62.4945
 1.9750	62.3371
 1.9740	62.2050
 1.9730	62.1784
 1.9720	61.9681
 1.9710	61.8394
 1.9700	61.7744
 1.9690	61.7202
 1.9680	61.5156
 1.9670	61.4382
 1.9660	61.3214
 1.9650	61.3178
 1.9640	61.2604
 1.9630	61.1353
 1.9620	61.0025
 1.9610	60.9050
 1.9600	60.7959
 1.9590	60.8319
 1.9580	60.6575
 1.9570	60.6169
 1.9560	60.5210
 1.9550	60.4539
 1.9540	60.3831
 1.9530	60.3302
 1.9520	60.1725
 1.9510	60.1090
 1.9500	60.0432
 1.9490	59.9469
 1.9480	59.8546
 1.9470	59.7868
 1.9460	59.7268
 1.9450	59.6527
 1.9440	59.5538
 1.9430	59.5416
 1.9420	59.3768
 1.9410	59.3294
 1.9400	59.1615
 1.9390	59.0718
 1.9380	58.9246
 1.9370	58.8115
 1.9360	58.6395
 1.9350	58.4665
 1.9340	58.3830
 1.9330	58.2141
 1.9320	57.9790
 1.9310	57.7705
 1.9300	57.5531
 1.9290	57.3494
 1.9280	57.0837
 1.9270	56.8313
 1.9260	56.3687
 1.9250	56.1723
 1.9240	55.7474
 1.9230	55.5228
 1.9220	55.0200
 1.9210	54.6367
 1.9200	54.1641
 1.9190	53.7076
 1.9180	53.1906
 1.9170	52.8465
 1.9160	52.2494
 1.9150	51.9815
 1.9140	51.4630
 1.9130	50.9982
 1.9120	50.5559
 1.9110	50.3108
 1.9100	49.7142
 1.9090	49.5850
 1.9080	49.2533
 1.9070	49.0879
 1.9060	48.8876
 1.9050	49.1149
 1.9040	49.1740
 1.9030	49.5465
 1.9020	49.7966
 1.9010	50.4182
 1.9000	50.9902
 1.8990	51.6958
 1.8980	52.4028
 1.8970	53.4140
 1.8960	54.2971
 1.8950	55.3601
 1.8940	56.3776
 1.8930	57.4109
 1.8920	58.4981
 1.8910	59.5237
 1.8900	60.7160
 1.8890	61.8334
 1.8880	62.7525
 1.8870	63.7996
 1.8860	64.6425
 1.8850	65.6691
 1.8840	66.4018
 1.8830	67.1460
 1.8820	67.9171
 1.8810	68.7542
 1.8800	69.3135
 1.8790	69.7873
 1.8780	70.3208
 1.8770	70.7976
 1.8760	71.2746
 1.8750	71.7573
 1.8740	72.2278
 1.8730	72.7977
 1.8720	73.1690
 1.8710	73.6197
 1.8700	74.0692
 1.8690	74.4799
 1.8680	74.8105
 1.8670	75.1020
 1.8660	75.3365
 1.8650	75.4841
 1.8640	75.6777
 1.8630	75.9113
 1.8620	76.1581
 1.8610	76.2914
 1.8600	76.5336
 1.8590	76.6054
 1.8580	76.6746
 1.8570	76.8570
 1.8560	76.9815
 1.8550	77.1117
 1.8540	77.1558
 1.8530	77.3436
 1.8520	77.3435
 1.8510	77.3870
 1.8500	77.4735
 1.8490	77.5485
 1.8480	77.6195
 1.8470	77.7252
 1.8460	77.7409
 1.8450	77.7706
 1.8440	77.7515
 1.8430	77.8011
 1.8420	77.8056
 1.8410	77.8770
 1.8400	77.9523
 1.8390	77.9728
 1.8380	77.9770
 1.8370	78.0956
 1.8360	78.1084
 1.8350	78.1281
 1.8340	78.1380
 1.8330	78.1850
 1.8320	78.2179
 1.8310	78.3165
 1.8300	78.3214
 1.8290	78.2980
 1.8280	78.2742
 1.8270	78.2580
 1.8260	78.3577
 1.8250	78.4302
 1.8240	78.4489
 1.8230	78.4329
 1.8220	78.4052
 1.8210	78.4382
 1.8200	78.4382
 1.8190	78.4661
 1.8180	78.4882
 1.8170	78.5197
 1.8160	78.5343
 1.8150	78.5305
 1.8140	78.5452
 1.8130	78.5455
 1.8120	78.5261
 1.8110	78.5364
 1.8100	78.5785
 1.8090	78.6190
 1.8080	78.6136
 1.8070	78.5860
 1.8060	78.5899
 1.8050	78.5838
 1.8040	78.6029
 1.8030	78.6829
 1.8020	78.6665
 1.8010	78.6656
 1.8000	78.7065
 1.7990	78.7244
 1.7980	78.6930
 1.7970	78.6847
 1.7960	78.7183
 1.7950	78.7402
 1.7940	78.7274
 1.7930	78.7742
 1.7920	78.7363
 1.7910	78.6989
 1.7900	78.7691
 1.7890	78.7688
 1.7880	78.8132
 1.7870	78.8307
 1.7860	78.7747
 1.7850	78.8011
 1.7840	78.8667
 1.7830	78.8877
 1.7820	78.8959
 1.7810	78.9064
 1.7800	78.8916
 1.7790	78.9704
 1.7780	78.9865
 1.7770	78.9064
 1.7760	78.9302
 1.7750	79.0204
 1.7740	79.0684
 1.7730	79.0184
 1.7720	79.0487
 1.7710	79.0804
 1.7700	79.0680
 1.7690	79.1271
 1.7680	79.2375
 1.7670	79.2481
 1.7660	79.1710
 1.7650	79.1535
 1.7640	79.2128
 1.7630	79.1952
 1.7620	79.2255
 1.7610	79.3292
 1.7600	79.3518
 1.7590	79.3474
 1.7580	79.4526
 1.7570	79.4768
 1.7560	79.4931
 1.7550	79.5222
 1.7540	79.5756
 1.7530	79.5493
 1.7520	79.5614
 1.7510	79.6055
 1.7500	79.6535
 1.7490	79.6872
 1.7480	79.7318
 1.7470	79.7268
 1.7460	79.7223
 1.7450	79.7084
 1.7440	79.6909
 1.7430	79.6979
 1.7420	79.7775
 1.7410	79.8330
 1.7400	79.8939
 1.7390	79.9054
 1.7380	79.9177
 1.7370	79.9900
 1.7360	80.0081
 1.7350	79.9752
 1.7340	79.9840
 1.7330	79.9677
 1.7320	80.0593
 1.7310	80.0350
 1.7300	80.0178
 1.7290	80.0485
 1.7280	80.0828
 1.7270	80.0946
 1.7260	80.1418
 1.7250	80.1473
 1.7240	80.2788
 1.7230	80.2238
 1.7220	80.2470
 1.7210	80.2096
 1.7200	80.2481
 1.7190	80.2865
 1.7180	80.2666
 1.7170	80.2740
 1.7160	80.2503
 1.7150	80.3006
 1.7140	80.2637
 1.7130	80.2882
 1.7120	80.3385
 1.7110	80.4062
 1.7100	80.3413
 1.7090	80.2848
 1.7080	80.3344
 1.7070	80.3216
 1.7060	80.3412
 1.7050	80.2639
 1.7040	80.3306
 1.7030	80.3890
 1.7020	80.4340
 1.7010	80.4525
 1.7000	80.3793
 1.6990	80.3172
 1.6980	80.3907
 1.6970	80.3143
 1.6960	80.3742
 1.6950	80.4191
 1.6940	80.4546
 1.6930	80.4433
 1.6920	80.3543
 1.6910	80.4204
 1.6900	80.4269
 1.6890	80.4402
 1.6880	80.4316
 1.6870	80.4245
 1.6860	80.4372
 1.6850	80.3872
 1.6840	80.3887
 1.6830	80.4483
 1.6820	80.4114
 1.6810	80.3485
 1.6800	80.3788
 1.6790	80.3531
 1.6780	80.3838
 1.6770	80.4216
 1.6760	80.4942
 1.6750	80.3675
 1.6740	80.4107
 1.6730	80.4131
 1.6720	80.4793
 1.6710	80.3339
 1.6700	80.3812
 1.6690	80.4447
 1.6680	80.3788
 1.6670	80.3874
 1.6660	80.4115
 1.6650	80.4432
 1.6640	80.4276
 1.6630	80.3819
 1.6620	80.3552
 1.6610	80.4339
 1.6600	80.3576
 1.6590	80.3323
 1.6580	80.4060
 1.6570	80.4141
 1.6560	80.3856
 1.6550	80.3173
 1.6540	80.3629
 1.6530	80.2981
 1.6520	80.3387
 1.6510	80.3174
 1.6500	80.3924
 1.6490	80.4664
 1.6480	80.2511
 1.6470	80.3985
 1.6460	80.3285
 1.6450	80.3305
 1.6440	80.2871
 1.6430	80.2899
 1.6420	80.2334
 1.6410	80.1672
 1.6400	80.3268
 1.6390	80.2032
 1.6380	80.3185
 1.6370	80.2207
 1.6360	80.2542
 1.6350	80.2612
 1.6340	80.2680
 1.6330	80.1344
 1.6320	80.2353
 1.6310	80.1265
 1.6300	80.2053
 1.6290	80.2130
 1.6280	80.2401
 1.6270	80.1321
 1.6260	80.0965
 1.6250	80.0705
 1.6240	80.1538
 1.6230	80.1568
 1.6220	80.0856
 1.6210	80.0154
 1.6200	80.1081
 1.6190	80.0855
 1.6180	80.1361
 1.6170	80.0778
 1.6160	80.0479
 1.6150	80.0028
 1.6140	79.9979
 1.6130	79.9813
 1.6120	79.9594
 1.6110	80.0649
 1.6100	80.0113
 1.6090	79.9951
 1.6080	79.9825
 1.6070	79.9105
 1.6060	79.9876
 1.6050	80.0038
 1.6040	79.9868
 1.6030	79.8999
 1.6020	79.9799
 1.6010	79.9405
 1.6000	79.8284
 1.5990	79.8669
 1.5980	79.8845
 1.5970	79.8117
 1.5960	79.7920
 1.5950	79.8243
 1.5940	79.7762
 1.5930	79.7611
 1.5920	79.7481
 1.5910	79.7294
 1.5900	79.7739
 1.5890	79.7093
 1.5880	79.7393
 1.5870	79.6975
 1.5860	79.7425
 1.5850	79.6390
 1.5840	79.6830
 1.5830	79.6289
 1.5820	79.5592
 1.5810	79.5367
 1.5800	79.5682
 1.5790	79.5236
 1.5780	79.4915
 1.5770	79.4768
 1.5760	79.4768
 1.5750	79.4478
 1.5740	79.4410
 1.5730	79.3324
 1.5720	79.3566
 1.5710	79.3367
 1.5700	79.3308
 1.5690	79.2604
 1.5680	79.2780
 1.5670	79.2883
 1.5660	79.2799
 1.5650	79.3117
 1.5640	79.1756
 1.5630	79.1876
 1.5620	79.1667
 1.5610	79.1405
 1.5600	79.0979
 1.5590	79.0549
 1.5580	79.1415
 1.5570	79.0565
 1.5560	78.9669
 1.5550	78.9690
 1.5540	78.9742
 1.5530	78.8794
 1.5520	78.9071
 1.5510	78.9452
 1.5500	78.8485
 1.5490	78.8001
 1.5480	78.8124
 1.5470	78.7182
 1.5460	78.6742
 1.5450	78.6736
 1.5440	78.6198
 1.5430	78.5838
 1.5420	78.5794
 1.5410	78.5478
 1.5400	78.4772
 1.5390	78.4362
 1.5380	78.4371
 1.5370	78.4091
 1.5360	78.4202
 1.5350	78.3706
 1.5340	78.2855
 1.5330	78.2374
 1.5320	78.2589
 1.5310	78.2187
 1.5300	78.1760
 1.5290	78.1178
 1.5280	78.0744
 1.5270	78.0472
 1.5260	77.9834
 1.5250	77.9417
 1.5240	77.9453
 1.5230	77.9126
 1.5220	77.8473
 1.5210	77.8219
 1.5200	77.7680
 1.5190	77.6581
 1.5180	77.6408
 1.5170	77.6303
 1.5160	77.5327
 1.5150	77.4870
 1.5140	77.4944
 1.5130	77.4496
 1.5120	77.3905
 1.5110	77.3150
 1.5100	77.2293
 1.5090	77.1815
 1.5080	77.1306
 1.5070	77.0815
 1.5060	77.0430
 1.5050	76.9693
 1.5040	76.9165
 1.5030	76.8799
 1.5020	76.8778
 1.5010	76.8243
 1.5000	76.7136
 1.4990	76.6500
 1.4980	76.6000
 1.4970	76.5278
 1.4960	76.4352
 1.4950	76.3731
 1.4940	76.2983
 1.4930	76.2739
 1.4920	76.1940
 1.4910	76.1019
 1.4900	76.0424
 1.4890	75.9573
 1.4880	75.8895
 1.4870	75.8958
 1.4860	75.7398
 1.4850	75.5713
 1.4840	75.5302
 1.4830	75.4894
 1.4820	75.3807
 1.4810	75.2549
 1.4800	75.1672
 1.4790	75.0807
 1.4780	74.9721
 1.4770	74.9049
 1.4760	74.8415
 1.4750	74.7010
 1.4740	74.5815
 1.4730	74.4392
 1.4720	74.3034
 1.4710	74.2009
 1.4700	74.0823
 1.4690	73.9903
 1.4680	73.8124
 1.4670	73.7016
 1.4660	73.6517
 1.4650	73.6170
 1.4640	73.5396
 1.4630	73.5305
 1.4620	73.4893
 1.4610	73.4291
 1.4600	73.4792
 1.4590	73.5100
 1.4580	73.4681
 1.4570	73.4409
 1.4560	73.4389
 1.4550	73.4826
 1.4540	73.4364
 1.4530	73.4840
 1.4520	73.4528
 1.4510	73.4437
 1.4500	73.3649
 1.4490	73.3805
 1.4480	73.2749
 1.4470	73.2156
 1.4460	73.1034
 1.4450	72.9699
 1.4440	72.9121
 1.4430	72.8358
 1.4420	72.7408
 1.4410	72.6179
 1.4400	72.4461
 1.4390	72.3662
 1.4380	72.1541
 1.4370	71.9622
 1.4360	71.7587
 1.4350	71.5401
 1.4340	71.2940
 1.4330	70.9990
 1.4320	70.6667
 1.4310	70.4623
 1.4300	70.1257
 1.4290	69.8718
 1.4280	69.5128
 1.4270	69.2112
 1.4260	68.7256
 1.4250	68.4008
 1.4240	67.9367
 1.4230	67.5867
 1.4220	67.1835
 1.4210	66.7911
 1.4200	66.4306
 1.4190	66.0292
 1.4180	65.6962
 1.4170	65.5021
 1.4160	65.2310
 1.4150	65.0989
 1.4140	65.0266
 1.4130	65.0518
 1.4120	65.0592
 1.4110	65.2325
 1.4100	65.3386
 1.4090	65.5728
 1.4080	65.8099
 1.4070	66.1891
 1.4060	66.4282
 1.4050	66.8572
 1.4040	67.2377
 1.4030	67.7159
 1.4020	68.0579
 1.4010	68.5440
 1.4000	68.9847
 1.3990	69.5691
 1.3980	69.9341
 1.3970	70.5194
 1.3960	71.0295
 1.3950	71.5311
 1.3940	72.0947
 1.3930	72.5880
 1.3920	73.0672
 1.3910	73.5758
 1.3900	73.9468
 1.3890	74.3572
 1.3880	74.8002
 1.3870	75.1271
 1.3860	75.4104
 1.3850	75.8011
 1.3840	76.0415
 1.3830	76.2582
 1.3820	76.4450
 1.3810	76.7668
 1.3800	76.9820
 1.3790	77.1716
 1.3780	77.3480
 1.3770	77.6006
 1.3760	77.7028
 1.3750	77.9154
 1.3740	78.0537
 1.3730	78.1855
 1.3720	78.3309
 1.3710	78.4082
 1.3700	78.5346
 1.3690	78.6644
