Name: Galena PbS
Type: Mineral
Class: Sulfide
Subclass: None
Particle Size: Fine
Sample No.: S-7A
Owner: JPL
Wavelength Range: VSWIR
Origin: USA, Kansas, Cherokee County, Galena.
Collection Date: N/A
Description: Particle size was 0-45um. Collected by:  Grieger's Inc. Original ASTER Spectral Library name was jpl.perkin.mineral.sulfide.none.fine.s07a.spectrum.txt
Measurement: Hemispherical reflectance
First Column: X
Second Column: Y
X Units: Wavelength (micrometers)
Y Units:Reflectance (percent)
First X Value:  2.5000
Last X Value:  0.4000
Number of X Values: 2101
Additional Information: mineral.sulfide.none.fine.vswir.s-7a.jpl.perkin.ancillary.txt

 2.5000	 7.6053
 2.4990	 7.1431
 2.4980	 7.7014
 2.4970	 7.4939
 2.4960	 7.2156
 2.4950	 7.4037
 2.4940	 7.6215
 2.4930	 7.3703
 2.4920	 7.4254
 2.4910	 7.2604
 2.4900	 7.4813
 2.4890	 7.3537
 2.4880	 7.6518
 2.4870	 7.4554
 2.4860	 7.5061
 2.4850	 7.2225
 2.4840	 7.5177
 2.4830	 7.3552
 2.4820	 7.4934
 2.4810	 7.3792
 2.4800	 7.5156
 2.4790	 7.3504
 2.4780	 7.5271
 2.4770	 7.2871
 2.4760	 7.4212
 2.4750	 7.2946
 2.4740	 7.4449
 2.4730	 7.4497
 2.4720	 7.4442
 2.4710	 7.4530
 2.4700	 7.4850
 2.4690	 7.4458
 2.4680	 7.5295
 2.4670	 7.4718
 2.4660	 7.4092
 2.4650	 7.4346
 2.4640	 7.5192
 2.4630	 7.4122
 2.4620	 7.4616
 2.4610	 7.3060
 2.4600	 7.5522
 2.4590	 7.3775
 2.4580	 7.4775
 2.4570	 7.4413
 2.4560	 7.5543
 2.4550	 7.4739
 2.4540	 7.4556
 2.4530	 7.3721
 2.4520	 7.3931
 2.4510	 7.4315
 2.4500	 7.5220
 2.4490	 7.3683
 2.4480	 7.4858
 2.4470	 7.3997
 2.4460	 7.5446
 2.4450	 7.4663
 2.4440	 7.4377
 2.4430	 7.3860
 2.4420	 7.4918
 2.4410	 7.4136
 2.4400	 7.4538
 2.4390	 7.4997
 2.4380	 7.5112
 2.4370	 7.4830
 2.4360	 7.5671
 2.4350	 7.3821
 2.4340	 7.5458
 2.4330	 7.4372
 2.4320	 7.5279
 2.4310	 7.5392
 2.4300	 7.5763
 2.4290	 7.4943
 2.4280	 7.4746
 2.4270	 7.4745
 2.4260	 7.5113
 2.4250	 7.4681
 2.4240	 7.4197
 2.4230	 7.4425
 2.4220	 7.4908
 2.4210	 7.3809
 2.4200	 7.5212
 2.4190	 7.5032
 2.4180	 7.5189
 2.4170	 7.4237
 2.4160	 7.5151
 2.4150	 7.5068
 2.4140	 7.4591
 2.4130	 7.4285
 2.4120	 7.5257
 2.4110	 7.5094
 2.4100	 7.4493
 2.4090	 7.4402
 2.4080	 7.4424
 2.4070	 7.4123
 2.4060	 7.5804
 2.4050	 7.4533
 2.4040	 7.4810
 2.4030	 7.4372
 2.4020	 7.5118
 2.4010	 7.4264
 2.4000	 7.4849
 2.3990	 7.4671
 2.3980	 7.4827
 2.3970	 7.5091
 2.3960	 7.4784
 2.3950	 7.5054
 2.3940	 7.5540
 2.3930	 7.4382
 2.3920	 7.4471
 2.3910	 7.4515
 2.3900	 7.4824
 2.3890	 7.4265
 2.3880	 7.5030
 2.3870	 7.4684
 2.3860	 7.5010
 2.3850	 7.4988
 2.3840	 7.5189
 2.3830	 7.4969
 2.3820	 7.5203
 2.3810	 7.5144
 2.3800	 7.4927
 2.3790	 7.4889
 2.3780	 7.5205
 2.3770	 7.5222
 2.3760	 7.5480
 2.3750	 7.5019
 2.3740	 7.4896
 2.3730	 7.4605
 2.3720	 7.5290
 2.3710	 7.4643
 2.3700	 7.4257
 2.3690	 7.4889
 2.3680	 7.5180
 2.3670	 7.5431
 2.3660	 7.5179
 2.3650	 7.4910
 2.3640	 7.5247
 2.3630	 7.5251
 2.3620	 7.5129
 2.3610	 7.5000
 2.3600	 7.5705
 2.3590	 7.5857
 2.3580	 7.5534
 2.3570	 7.4960
 2.3560	 7.4977
 2.3550	 7.5261
 2.3540	 7.5361
 2.3530	 7.5325
 2.3520	 7.5022
 2.3510	 7.4892
 2.3500	 7.5310
 2.3490	 7.5638
 2.3480	 7.5296
 2.3470	 7.5017
 2.3460	 7.5219
 2.3450	 7.5461
 2.3440	 7.4833
 2.3430	 7.5018
 2.3420	 7.4882
 2.3410	 7.4612
 2.3400	 7.5463
 2.3390	 7.5561
 2.3380	 7.4260
 2.3370	 7.4700
 2.3360	 7.5033
 2.3350	 7.5303
 2.3340	 7.5072
 2.3330	 7.4668
 2.3320	 7.5072
 2.3310	 7.5620
 2.3300	 7.5488
 2.3290	 7.4974
 2.3280	 7.5218
 2.3270	 7.5495
 2.3260	 7.4596
 2.3250	 7.5021
 2.3240	 7.5158
 2.3230	 7.4671
 2.3220	 7.4353
 2.3210	 7.4829
 2.3200	 7.4898
 2.3190	 7.5094
 2.3180	 7.5308
 2.3170	 7.5616
 2.3160	 7.4343
 2.3150	 7.4629
 2.3140	 7.4960
 2.3130	 7.4555
 2.3120	 7.5165
 2.3110	 7.5231
 2.3100	 7.4427
 2.3090	 7.4886
 2.3080	 7.4240
 2.3070	 7.4587
 2.3060	 7.4361
 2.3050	 7.5437
 2.3040	 7.4754
 2.3030	 7.5353
 2.3020	 7.4830
 2.3010	 7.4783
 2.3000	 7.4453
 2.2990	 7.4889
 2.2980	 7.4968
 2.2970	 7.4807
 2.2960	 7.4537
 2.2950	 7.5397
 2.2940	 7.4686
 2.2930	 7.4272
 2.2920	 7.4835
 2.2910	 7.4767
 2.2900	 7.5093
 2.2890	 7.4764
 2.2880	 7.4256
 2.2870	 7.4526
 2.2860	 7.4669
 2.2850	 7.5035
 2.2840	 7.4140
 2.2830	 7.4686
 2.2820	 7.4892
 2.2810	 7.4938
 2.2800	 7.4079
 2.2790	 7.4846
 2.2780	 7.4963
 2.2770	 7.4703
 2.2760	 7.4864
 2.2750	 7.4262
 2.2740	 7.3935
 2.2730	 7.4710
 2.2720	 7.4902
 2.2710	 7.4849
 2.2700	 7.4027
 2.2690	 7.4635
 2.2680	 7.4012
 2.2670	 7.4868
 2.2660	 7.4878
 2.2650	 7.4470
 2.2640	 7.4902
 2.2630	 7.5181
 2.2620	 7.4258
 2.2610	 7.4469
 2.2600	 7.4592
 2.2590	 7.4599
 2.2580	 7.3736
 2.2570	 7.5215
 2.2560	 7.4031
 2.2550	 7.5012
 2.2540	 7.4051
 2.2530	 7.4650
 2.2520	 7.4224
 2.2510	 7.5332
 2.2500	 7.3664
 2.2490	 7.5117
 2.2480	 7.4066
 2.2470	 7.4867
 2.2460	 7.4048
 2.2450	 7.4549
 2.2440	 7.4468
 2.2430	 7.5144
 2.2420	 7.4433
 2.2410	 7.5038
 2.2400	 7.4091
 2.2390	 7.4870
 2.2380	 7.4132
 2.2370	 7.5300
 2.2360	 7.4410
 2.2350	 7.4800
 2.2340	 7.4424
 2.2330	 7.4892
 2.2320	 7.4187
 2.2310	 7.4993
 2.2300	 7.4160
 2.2290	 7.5026
 2.2280	 7.4057
 2.2270	 7.4955
 2.2260	 7.4159
 2.2250	 7.5236
 2.2240	 7.4600
 2.2230	 7.5717
 2.2220	 7.4106
 2.2210	 7.5633
 2.2200	 7.4415
 2.2190	 7.5128
 2.2180	 7.4388
 2.2170	 7.5038
 2.2160	 7.4547
 2.2150	 7.5427
 2.2140	 7.5161
 2.2130	 7.5669
 2.2120	 7.5690
 2.2110	 7.4092
 2.2100	 7.4893
 2.2090	 7.6015
 2.2080	 7.5130
 2.2070	 7.5419
 2.2060	 7.5504
 2.2050	 7.5405
 2.2040	 7.4770
 2.2030	 7.6095
 2.2020	 7.4483
 2.2010	 7.5612
 2.2000	 7.4823
 2.1990	 7.5956
 2.1980	 7.5817
 2.1970	 7.5371
 2.1960	 7.4887
 2.1950	 7.6118
 2.1940	 7.4593
 2.1930	 7.5657
 2.1920	 7.5680
 2.1910	 7.5546
 2.1900	 7.5009
 2.1890	 7.6085
 2.1880	 7.6059
 2.1870	 7.6348
 2.1860	 7.5190
 2.1850	 7.6000
 2.1840	 7.5270
 2.1830	 7.5566
 2.1820	 7.5420
 2.1810	 7.5927
 2.1800	 7.5100
 2.1790	 7.6067
 2.1780	 7.6101
 2.1770	 7.6785
 2.1760	 7.5435
 2.1750	 7.5819
 2.1740	 7.5697
 2.1730	 7.5749
 2.1720	 7.5904
 2.1710	 7.6225
 2.1700	 7.5944
 2.1690	 7.6114
 2.1680	 7.4843
 2.1670	 7.6265
 2.1660	 7.5296
 2.1650	 7.5608
 2.1640	 7.5891
 2.1630	 7.6078
 2.1620	 7.5208
 2.1610	 7.6471
 2.1600	 7.5889
 2.1590	 7.6559
 2.1580	 7.6296
 2.1570	 7.5940
 2.1560	 7.5721
 2.1550	 7.6052
 2.1540	 7.5735
 2.1530	 7.6907
 2.1520	 7.5955
 2.1510	 7.6566
 2.1500	 7.5623
 2.1490	 7.6629
 2.1480	 7.6707
 2.1470	 7.6902
 2.1460	 7.6053
 2.1450	 7.6729
 2.1440	 7.6211
 2.1430	 7.6419
 2.1420	 7.6438
 2.1410	 7.6916
 2.1400	 7.6726
 2.1390	 7.6566
 2.1380	 7.6453
 2.1370	 7.7110
 2.1360	 7.6204
 2.1350	 7.6367
 2.1340	 7.6221
 2.1330	 7.6721
 2.1320	 7.6072
 2.1310	 7.6238
 2.1300	 7.5679
 2.1290	 7.6240
 2.1280	 7.6376
 2.1270	 7.6060
 2.1260	 7.6000
 2.1250	 7.6267
 2.1240	 7.6028
 2.1230	 7.6173
 2.1220	 7.5450
 2.1210	 7.5827
 2.1200	 7.6077
 2.1190	 7.6569
 2.1180	 7.6362
 2.1170	 7.6596
 2.1160	 7.5993
 2.1150	 7.6200
 2.1140	 7.5707
 2.1130	 7.6044
 2.1120	 7.5306
 2.1110	 7.5730
 2.1100	 7.5211
 2.1090	 7.6044
 2.1080	 7.5523
 2.1070	 7.5445
 2.1060	 7.5187
 2.1050	 7.5448
 2.1040	 7.5301
 2.1030	 7.5541
 2.1020	 7.5554
 2.1010	 7.5402
 2.1000	 7.5019
 2.0990	 7.5274
 2.0980	 7.4954
 2.0970	 7.5003
 2.0960	 7.5809
 2.0950	 7.5481
 2.0940	 7.5315
 2.0930	 7.5563
 2.0920	 7.5764
 2.0910	 7.6131
 2.0900	 7.5546
 2.0890	 7.5483
 2.0880	 7.5443
 2.0870	 7.5452
 2.0860	 7.5309
 2.0850	 7.5880
 2.0840	 7.5777
 2.0830	 7.5718
 2.0820	 7.5892
 2.0810	 7.5889
 2.0800	 7.6136
 2.0790	 7.5941
 2.0780	 7.5813
 2.0770	 7.5746
 2.0760	 7.5768
 2.0750	 7.5908
 2.0740	 7.5652
 2.0730	 7.5861
 2.0720	 7.6017
 2.0710	 7.5421
 2.0700	 7.5266
 2.0690	 7.5699
 2.0680	 7.6015
 2.0670	 7.6034
 2.0660	 7.6228
 2.0650	 7.6331
 2.0640	 7.6505
 2.0630	 7.6106
 2.0620	 7.5767
 2.0610	 7.5739
 2.0600	 7.5682
 2.0590	 7.6393
 2.0580	 7.6284
 2.0570	 7.5673
 2.0560	 7.6038
 2.0550	 7.6044
 2.0540	 7.6384
 2.0530	 7.6252
 2.0520	 7.6610
 2.0510	 7.6706
 2.0500	 7.6018
 2.0490	 7.5975
 2.0480	 7.6630
 2.0470	 7.6197
 2.0460	 7.6082
 2.0450	 7.5748
 2.0440	 7.6161
 2.0430	 7.6083
 2.0420	 7.6433
 2.0410	 7.6413
 2.0400	 7.6745
 2.0390	 7.6371
 2.0380	 7.6211
 2.0370	 7.6189
 2.0360	 7.6818
 2.0350	 7.6437
 2.0340	 7.6731
 2.0330	 7.6264
 2.0320	 7.6870
 2.0310	 7.6586
 2.0300	 7.6816
 2.0290	 7.6139
 2.0280	 7.6041
 2.0270	 7.6013
 2.0260	 7.6790
 2.0250	 7.6221
 2.0240	 7.6652
 2.0230	 7.6311
 2.0220	 7.6505
 2.0210	 7.6354
 2.0200	 7.6766
 2.0190	 7.6364
 2.0180	 7.6009
 2.0170	 7.6112
 2.0160	 7.6368
 2.0150	 7.5905
 2.0140	 7.6438
 2.0130	 7.6461
 2.0120	 7.6046
 2.0110	 7.6243
 2.0100	 7.6442
 2.0090	 7.5948
 2.0080	 7.6417
 2.0070	 7.6102
 2.0060	 7.6475
 2.0050	 7.6027
 2.0040	 7.6470
 2.0030	 7.6317
 2.0020	 7.6478
 2.0010	 7.6584
 2.0000	 7.6155
 1.9990	 7.6471
 1.9980	 7.6265
 1.9970	 7.6197
 1.9960	 7.6852
 1.9950	 7.6226
 1.9940	 7.6349
 1.9930	 7.5757
 1.9920	 7.6684
 1.9910	 7.6396
 1.9900	 7.6790
 1.9890	 7.6328
 1.9880	 7.6468
 1.9870	 7.5924
 1.9860	 7.6842
 1.9850	 7.5526
 1.9840	 7.6789
 1.9830	 7.6052
 1.9820	 7.6075
 1.9810	 7.5826
 1.9800	 7.6268
 1.9790	 7.6531
 1.9780	 7.5868
 1.9770	 7.6179
 1.9760	 7.6177
 1.9750	 7.5501
 1.9740	 7.6422
 1.9730	 7.5466
 1.9720	 7.6765
 1.9710	 7.5657
 1.9700	 7.5776
 1.9690	 7.6025
 1.9680	 7.6215
 1.9670	 7.6016
 1.9660	 7.6117
 1.9650	 7.5886
 1.9640	 7.7310
 1.9630	 7.5835
 1.9620	 7.6870
 1.9610	 7.5619
 1.9600	 7.6391
 1.9590	 7.5923
 1.9580	 7.6666
 1.9570	 7.5323
 1.9560	 7.6197
 1.9550	 7.5461
 1.9540	 7.6094
 1.9530	 7.5613
 1.9520	 7.6165
 1.9510	 7.5031
 1.9500	 7.6394
 1.9490	 7.4593
 1.9480	 7.6192
 1.9470	 7.6029
 1.9460	 7.6570
 1.9450	 7.5886
 1.9440	 7.6370
 1.9430	 7.5774
 1.9420	 7.6221
 1.9410	 7.5761
 1.9400	 7.5984
 1.9390	 7.5653
 1.9380	 7.7170
 1.9370	 7.6143
 1.9360	 7.6384
 1.9350	 7.5230
 1.9340	 7.6321
 1.9330	 7.5062
 1.9320	 7.5215
 1.9310	 7.5752
 1.9300	 7.7142
 1.9290	 7.5786
 1.9280	 7.6199
 1.9270	 7.6539
 1.9260	 7.5216
 1.9250	 7.5716
 1.9240	 7.6303
 1.9230	 7.4909
 1.9220	 7.6816
 1.9210	 7.5607
 1.9200	 7.5869
 1.9190	 7.5368
 1.9180	 7.6203
 1.9170	 7.5072
 1.9160	 7.7170
 1.9150	 7.5947
 1.9140	 7.6675
 1.9130	 7.5984
 1.9120	 7.7119
 1.9110	 7.5016
 1.9100	 7.7130
 1.9090	 7.6526
 1.9080	 7.6390
 1.9070	 7.6540
 1.9060	 7.6776
 1.9050	 7.5409
 1.9040	 7.6577
 1.9030	 7.6575
 1.9020	 7.6596
 1.9010	 7.6831
 1.9000	 7.6556
 1.8990	 7.5707
 1.8980	 7.6097
 1.8970	 7.5983
 1.8960	 7.6652
 1.8950	 7.5881
 1.8940	 7.7694
 1.8930	 7.6262
 1.8920	 7.7109
 1.8910	 7.6334
 1.8900	 7.6411
 1.8890	 7.6088
 1.8880	 7.7229
 1.8870	 7.6424
 1.8860	 7.6856
 1.8850	 7.6690
 1.8840	 7.6565
 1.8830	 7.7312
 1.8820	 7.7535
 1.8810	 7.6347
 1.8800	 7.6939
 1.8790	 7.7340
 1.8780	 7.6962
 1.8770	 7.6469
 1.8760	 7.6558
 1.8750	 7.6593
 1.8740	 7.7056
 1.8730	 7.6254
 1.8720	 7.7006
 1.8710	 7.6022
 1.8700	 7.6419
 1.8690	 7.6385
 1.8680	 7.6752
 1.8670	 7.6769
 1.8660	 7.7284
 1.8650	 7.7562
 1.8640	 7.7238
 1.8630	 7.8019
 1.8620	 7.7284
 1.8610	 7.7350
 1.8600	 7.7173
 1.8590	 7.6795
 1.8580	 7.7620
 1.8570	 7.6663
 1.8560	 7.6546
 1.8550	 7.6523
 1.8540	 7.7246
 1.8530	 7.7100
 1.8520	 7.7236
 1.8510	 7.7080
 1.8500	 7.6671
 1.8490	 7.6861
 1.8480	 7.7063
 1.8470	 7.6409
 1.8460	 7.7276
 1.8450	 7.6863
 1.8440	 7.7354
 1.8430	 7.6667
 1.8420	 7.7261
 1.8410	 7.7577
 1.8400	 7.7442
 1.8390	 7.7028
 1.8380	 7.7094
 1.8370	 7.6710
 1.8360	 7.7367
 1.8350	 7.6962
 1.8340	 7.7318
 1.8330	 7.7430
 1.8320	 7.7342
 1.8310	 7.7187
 1.8300	 7.7625
 1.8290	 7.6860
 1.8280	 7.7394
 1.8270	 7.7299
 1.8260	 7.7267
 1.8250	 7.6988
 1.8240	 7.7564
 1.8230	 7.7464
 1.8220	 7.8216
 1.8210	 7.6894
 1.8200	 7.7183
 1.8190	 7.7346
 1.8180	 7.7349
 1.8170	 7.7199
 1.8160	 7.7477
 1.8150	 7.7037
 1.8140	 7.6852
 1.8130	 7.6997
 1.8120	 7.7804
 1.8110	 7.7267
 1.8100	 7.7534
 1.8090	 7.8033
 1.8080	 7.7944
 1.8070	 7.7707
 1.8060	 7.7323
 1.8050	 7.7203
 1.8040	 7.7477
 1.8030	 7.7461
 1.8020	 7.7624
 1.8010	 7.7429
 1.8000	 7.7599
 1.7990	 7.7231
 1.7980	 7.7326
 1.7970	 7.8050
 1.7960	 7.7743
 1.7950	 7.7972
 1.7940	 7.8284
 1.7930	 7.7565
 1.7920	 7.7673
 1.7910	 7.7995
 1.7900	 7.7572
 1.7890	 7.7282
 1.7880	 7.7656
 1.7870	 7.7420
 1.7860	 7.7433
 1.7850	 7.7992
 1.7840	 7.7510
 1.7830	 7.7446
 1.7820	 7.7419
 1.7810	 7.7387
 1.7800	 7.7566
 1.7790	 7.7825
 1.7780	 7.7729
 1.7770	 7.7667
 1.7760	 7.7746
 1.7750	 7.7498
 1.7740	 7.7248
 1.7730	 7.7306
 1.7720	 7.7198
 1.7710	 7.7530
 1.7700	 7.7498
 1.7690	 7.7284
 1.7680	 7.7621
 1.7670	 7.7640
 1.7660	 7.7635
 1.7650	 7.7858
 1.7640	 7.8009
 1.7630	 7.8014
 1.7620	 7.7040
 1.7610	 7.7618
 1.7600	 7.7716
 1.7590	 7.7598
 1.7580	 7.7703
 1.7570	 7.7829
 1.7560	 7.7504
 1.7550	 7.7935
 1.7540	 7.7981
 1.7530	 7.7878
 1.7520	 7.7630
 1.7510	 7.7424
 1.7500	 7.7074
 1.7490	 7.7885
 1.7480	 7.7967
 1.7470	 7.8143
 1.7460	 7.7673
 1.7450	 7.7918
 1.7440	 7.7340
 1.7430	 7.7867
 1.7420	 7.8055
 1.7410	 7.7943
 1.7400	 7.7670
 1.7390	 7.8499
 1.7380	 7.8750
 1.7370	 7.8040
 1.7360	 7.7418
 1.7350	 7.8057
 1.7340	 7.8148
 1.7330	 7.8189
 1.7320	 7.7578
 1.7310	 7.7784
 1.7300	 7.7666
 1.7290	 7.7872
 1.7280	 7.7710
 1.7270	 7.7979
 1.7260	 7.7717
 1.7250	 7.8200
 1.7240	 7.7130
 1.7230	 7.8052
 1.7220	 7.7570
 1.7210	 7.8335
 1.7200	 7.7809
 1.7190	 7.7687
 1.7180	 7.7701
 1.7170	 7.8450
 1.7160	 7.7764
 1.7150	 7.8215
 1.7140	 7.7817
 1.7130	 7.8068
 1.7120	 7.7613
 1.7110	 7.7759
 1.7100	 7.7193
 1.7090	 7.8535
 1.7080	 7.7661
 1.7070	 7.7919
 1.7060	 7.7923
 1.7050	 7.7818
 1.7040	 7.7947
 1.7030	 7.7683
 1.7020	 7.7293
 1.7010	 7.8196
 1.7000	 7.8200
 1.6990	 7.7877
 1.6980	 7.7617
 1.6970	 7.8415
 1.6960	 7.7507
 1.6950	 7.8112
 1.6940	 7.7830
 1.6930	 7.8096
 1.6920	 7.8326
 1.6910	 7.7947
 1.6900	 7.7158
 1.6890	 7.8928
 1.6880	 7.7551
 1.6870	 7.7974
 1.6860	 7.8079
 1.6850	 7.8229
 1.6840	 7.7894
 1.6830	 7.7962
 1.6820	 7.8573
 1.6810	 7.8473
 1.6800	 7.7171
 1.6790	 7.8410
 1.6780	 7.7997
 1.6770	 7.8227
 1.6760	 7.7865
 1.6750	 7.8390
 1.6740	 7.7823
 1.6730	 7.8670
 1.6720	 7.7846
 1.6710	 7.8174
 1.6700	 7.8277
 1.6690	 7.9249
 1.6680	 7.6344
 1.6670	 7.9821
 1.6660	 7.7686
 1.6650	 7.7824
 1.6640	 7.7150
 1.6630	 7.7710
 1.6620	 7.7276
 1.6610	 7.8862
 1.6600	 7.7688
 1.6590	 7.9268
 1.6580	 7.7796
 1.6570	 7.8320
 1.6560	 7.7930
 1.6550	 7.9576
 1.6540	 7.8328
 1.6530	 7.8580
 1.6520	 7.7075
 1.6510	 7.8727
 1.6500	 7.7711
 1.6490	 7.7913
 1.6480	 7.7491
 1.6470	 7.9067
 1.6460	 7.7602
 1.6450	 7.8417
 1.6440	 7.8115
 1.6430	 7.8790
 1.6420	 7.8634
 1.6410	 7.7221
 1.6400	 7.7899
 1.6390	 7.8660
 1.6380	 7.8382
 1.6370	 7.8511
 1.6360	 7.9201
 1.6350	 7.8460
 1.6340	 7.8086
 1.6330	 7.8683
 1.6320	 7.8171
 1.6310	 7.8750
 1.6300	 7.8424
 1.6290	 7.8227
 1.6280	 7.8021
 1.6270	 7.9451
 1.6260	 7.7763
 1.6250	 7.9465
 1.6240	 7.8502
 1.6230	 7.8879
 1.6220	 7.8315
 1.6210	 7.8999
 1.6200	 7.8444
 1.6190	 7.8039
 1.6180	 7.8237
 1.6170	 7.8687
 1.6160	 7.7997
 1.6150	 7.8346
 1.6140	 7.8362
 1.6130	 7.9426
 1.6120	 7.8317
 1.6110	 7.8728
 1.6100	 7.7825
 1.6090	 7.8723
 1.6080	 7.8427
 1.6070	 7.9167
 1.6060	 7.8769
 1.6050	 7.8973
 1.6040	 7.8481
 1.6030	 7.9158
 1.6020	 7.8386
 1.6010	 7.9466
 1.6000	 7.9378
 1.5990	 7.8873
 1.5980	 7.8017
 1.5970	 7.9773
 1.5960	 7.8409
 1.5950	 7.9285
 1.5940	 7.7581
 1.5930	 7.9314
 1.5920	 7.9081
 1.5910	 7.9407
 1.5900	 7.8831
 1.5890	 7.8992
 1.5880	 7.8317
 1.5870	 7.8738
 1.5860	 7.8366
 1.5850	 7.9672
 1.5840	 7.8513
 1.5830	 7.8916
 1.5820	 7.8651
 1.5810	 7.9121
 1.5800	 7.8394
 1.5790	 7.8844
 1.5780	 7.8464
 1.5770	 7.9429
 1.5760	 7.8620
 1.5750	 7.9197
 1.5740	 7.8929
 1.5730	 7.8755
 1.5720	 7.8179
 1.5710	 7.8742
 1.5700	 7.9211
 1.5690	 7.8931
 1.5680	 7.8278
 1.5670	 7.8931
 1.5660	 7.8769
 1.5650	 7.8665
 1.5640	 7.8930
 1.5630	 7.9162
 1.5620	 7.9102
 1.5610	 7.9700
 1.5600	 7.8723
 1.5590	 7.8992
 1.5580	 7.9227
 1.5570	 7.9248
 1.5560	 7.8907
 1.5550	 7.9645
 1.5540	 7.8919
 1.5530	 7.8960
 1.5520	 7.8890
 1.5510	 7.8983
 1.5500	 7.9392
 1.5490	 7.9194
 1.5480	 7.8908
 1.5470	 7.9288
 1.5460	 7.8495
 1.5450	 7.9235
 1.5440	 7.9193
 1.5430	 7.9410
 1.5420	 7.8911
 1.5410	 7.9376
 1.5400	 7.9325
 1.5390	 7.9216
 1.5380	 7.9080
 1.5370	 7.9402
 1.5360	 7.8918
 1.5350	 7.9754
 1.5340	 7.9254
 1.5330	 7.9158
 1.5320	 7.9175
 1.5310	 7.9066
 1.5300	 7.9116
 1.5290	 7.9262
 1.5280	 7.8726
 1.5270	 7.9068
 1.5260	 7.9321
 1.5250	 7.9537
 1.5240	 7.8781
 1.5230	 7.9325
 1.5220	 7.9643
 1.5210	 7.9008
 1.5200	 7.8762
 1.5190	 7.9126
 1.5180	 7.9307
 1.5170	 7.9348
 1.5160	 7.9280
 1.5150	 7.9692
 1.5140	 7.9151
 1.5130	 7.8977
 1.5120	 7.9095
 1.5110	 7.9178
 1.5100	 7.9193
 1.5090	 7.9713
 1.5080	 7.9525
 1.5070	 7.8937
 1.5060	 7.8918
 1.5050	 7.9156
 1.5040	 7.9305
 1.5030	 7.9262
 1.5020	 7.9032
 1.5010	 7.9151
 1.5000	 7.9213
 1.4990	 7.9244
 1.4980	 7.9464
 1.4970	 7.9612
 1.4960	 7.9479
 1.4950	 7.9190
 1.4940	 7.9419
 1.4930	 7.9439
 1.4920	 7.9396
 1.4910	 7.9561
 1.4900	 7.9243
 1.4890	 7.9305
 1.4880	 7.9916
 1.4870	 7.9655
 1.4860	 7.9770
 1.4850	 7.9666
 1.4840	 7.9277
 1.4830	 7.8799
 1.4820	 7.9669
 1.4810	 7.9744
 1.4800	 7.9393
 1.4790	 7.9369
 1.4780	 7.9157
 1.4770	 7.9446
 1.4760	 7.9874
 1.4750	 7.9479
 1.4740	 7.9309
 1.4730	 7.9216
 1.4720	 8.0196
 1.4710	 7.9013
 1.4700	 7.9343
 1.4690	 7.9733
 1.4680	 7.9547
 1.4670	 7.9749
 1.4660	 7.9963
 1.4650	 7.9558
 1.4640	 7.9701
 1.4630	 7.9484
 1.4620	 7.9819
 1.4610	 7.9533
 1.4600	 7.9566
 1.4590	 7.9493
 1.4580	 7.9717
 1.4570	 7.9932
 1.4560	 7.9878
 1.4550	 7.9510
 1.4540	 8.0030
 1.4530	 7.9686
 1.4520	 7.9839
 1.4510	 7.9638
 1.4500	 7.9356
 1.4490	 7.9144
 1.4480	 7.9449
 1.4470	 7.9778
 1.4460	 7.9780
 1.4450	 7.9330
 1.4440	 7.9797
 1.4430	 7.9496
 1.4420	 7.9609
 1.4410	 7.9857
 1.4400	 8.0156
 1.4390	 7.9551
 1.4380	 7.9625
 1.4370	 7.9400
 1.4360	 8.1067
 1.4350	 8.0328
 1.4340	 8.0621
 1.4330	 7.9761
 1.4320	 7.9846
 1.4310	 7.9783
 1.4300	 8.0161
 1.4290	 8.0640
 1.4280	 8.0130
 1.4270	 7.9297
 1.4260	 8.0504
 1.4250	 7.9497
 1.4240	 8.0300
 1.4230	 7.9590
 1.4220	 8.0370
 1.4210	 8.0503
 1.4200	 8.0487
 1.4190	 7.9695
 1.4180	 8.0016
 1.4170	 7.9412
 1.4160	 8.0102
 1.4150	 7.9082
 1.4140	 7.9510
 1.4130	 7.9811
 1.4120	 8.0147
 1.4110	 8.0147
 1.4100	 8.0967
 1.4090	 7.9528
 1.4080	 8.0375
 1.4070	 7.9387
 1.4060	 7.9881
 1.4050	 7.9768
 1.4040	 8.0388
 1.4030	 8.0073
 1.4020	 8.0516
 1.4010	 7.9998
 1.4000	 8.0254
 1.3990	 8.0234
 1.3980	 8.0168
 1.3970	 7.9705
 1.3960	 8.0868
 1.3950	 7.9843
 1.3940	 8.0558
 1.3930	 7.9922
 1.3920	 8.0944
 1.3910	 7.9569
 1.3900	 8.1825
 1.3890	 8.0565
 1.3880	 8.0602
 1.3870	 7.9721
 1.3860	 8.1002
 1.3850	 7.9901
 1.3840	 8.1175
 1.3830	 7.9571
 1.3820	 8.0076
 1.3810	 8.0750
 1.3800	 8.0375
 1.3790	 8.0781
 1.3780	 8.1261
 1.3770	 8.0078
 1.3760	 8.1960
 1.3750	 7.9597
 1.3740	 8.0608
 1.3730	 8.0273
 1.3720	 8.1425
 1.3710	 8.0217
 1.3700	 8.0429
 1.3690	 8.0654
 1.3680	 8.0520
 1.3670	 8.0486
 1.3660	 8.1113
 1.3650	 8.0332
