Name: Scheelite CaWO_4
Type: Mineral
Class: Tungstate
Subclass: None
Particle Size: Fine
Sample No.: T-1A
Owner: JPL
Wavelength Range: VSWIR
Origin: USA, California, Kern County, Atolia.
Collection Date: N/A
Description: Particle size was 0-45um. Collected by:  Burminco. Original ASTER Spectral Library name was jpl.perkin.mineral.tungstate.none.fine.t01a.spectrum.txt
Measurement: Hemispherical reflectance
First Column: X
Second Column: Y
X Units: Wavelength (micrometers)
Y Units:Reflectance (percent)
First X Value:  2.5000
Last X Value:  0.4000
Number of X Values: 2101
Additional Information: mineral.tungstate.none.fine.vswir.t-1a.jpl.perkin.ancillary.txt

 2.5000	74.5659
 2.4990	74.3030
 2.4980	74.3939
 2.4970	74.4174
 2.4960	74.4269
 2.4950	74.3568
 2.4940	74.4882
 2.4930	74.6944
 2.4920	74.5100
 2.4910	74.5455
 2.4900	74.4859
 2.4890	74.5572
 2.4880	74.5014
 2.4870	74.5225
 2.4860	74.7132
 2.4850	74.5712
 2.4840	74.6010
 2.4830	74.5598
 2.4820	74.5708
 2.4810	74.4066
 2.4800	74.6462
 2.4790	74.6602
 2.4780	74.5613
 2.4770	74.5566
 2.4760	74.5611
 2.4750	74.6119
 2.4740	74.7727
 2.4730	74.6454
 2.4720	74.7476
 2.4710	74.7816
 2.4700	74.9082
 2.4690	74.8176
 2.4680	74.8439
 2.4670	74.7820
 2.4660	74.8694
 2.4650	74.8804
 2.4640	75.0059
 2.4630	75.0130
 2.4620	74.9414
 2.4610	75.0630
 2.4600	75.0480
 2.4590	75.0075
 2.4580	75.0541
 2.4570	75.0293
 2.4560	75.0439
 2.4550	75.0120
 2.4540	75.1374
 2.4530	75.1560
 2.4520	75.2178
 2.4510	75.0879
 2.4500	75.1735
 2.4490	75.0320
 2.4480	75.1690
 2.4470	75.0702
 2.4460	75.1682
 2.4450	75.2212
 2.4440	75.2660
 2.4430	75.2323
 2.4420	75.2732
 2.4410	75.2011
 2.4400	75.3119
 2.4390	75.2383
 2.4380	75.3822
 2.4370	75.4326
 2.4360	75.5017
 2.4350	75.3604
 2.4340	75.3301
 2.4330	75.4019
 2.4320	75.4238
 2.4310	75.4624
 2.4300	75.4343
 2.4290	75.4353
 2.4280	75.4563
 2.4270	75.5307
 2.4260	75.4684
 2.4250	75.5206
 2.4240	75.6055
 2.4230	75.5847
 2.4220	75.6237
 2.4210	75.6982
 2.4200	75.7491
 2.4190	75.6568
 2.4180	75.7038
 2.4170	75.7650
 2.4160	75.7970
 2.4150	75.7262
 2.4140	75.7399
 2.4130	75.8323
 2.4120	75.8901
 2.4110	75.8858
 2.4100	75.8708
 2.4090	75.9286
 2.4080	75.9278
 2.4070	75.9250
 2.4060	75.9576
 2.4050	76.0108
 2.4040	76.0814
 2.4030	76.0845
 2.4020	76.0980
 2.4010	76.0724
 2.4000	76.0290
 2.3990	76.1146
 2.3980	76.1361
 2.3970	76.0960
 2.3960	76.1531
 2.3950	76.2189
 2.3940	76.2430
 2.3930	76.2736
 2.3920	76.3200
 2.3910	76.3624
 2.3900	76.3715
 2.3890	76.3171
 2.3880	76.3282
 2.3870	76.3731
 2.3860	76.3956
 2.3850	76.4124
 2.3840	76.3984
 2.3830	76.4046
 2.3820	76.4857
 2.3810	76.6003
 2.3800	76.5562
 2.3790	76.5569
 2.3780	76.6410
 2.3770	76.6577
 2.3760	76.6490
 2.3750	76.6820
 2.3740	76.6647
 2.3730	76.6592
 2.3720	76.6317
 2.3710	76.6513
 2.3700	76.7162
 2.3690	76.7379
 2.3680	76.7781
 2.3670	76.7634
 2.3660	76.8038
 2.3650	76.8629
 2.3640	76.8359
 2.3630	76.8263
 2.3620	76.8721
 2.3610	76.8794
 2.3600	76.8704
 2.3590	76.8843
 2.3580	76.9357
 2.3570	76.9708
 2.3560	76.9568
 2.3550	76.8674
 2.3540	76.8403
 2.3530	76.9253
 2.3520	76.9352
 2.3510	76.9043
 2.3500	76.9140
 2.3490	76.9410
 2.3480	76.9275
 2.3470	76.9021
 2.3460	76.9146
 2.3450	76.9563
 2.3440	76.9939
 2.3430	77.0101
 2.3420	76.9865
 2.3410	77.0119
 2.3400	77.0478
 2.3390	77.0270
 2.3380	77.0723
 2.3370	77.0917
 2.3360	77.0459
 2.3350	77.0336
 2.3340	77.0531
 2.3330	77.0872
 2.3320	77.0912
 2.3310	77.1270
 2.3300	77.1781
 2.3290	77.1799
 2.3280	77.1775
 2.3270	77.1686
 2.3260	77.1783
 2.3250	77.1543
 2.3240	77.1521
 2.3230	77.2116
 2.3220	77.2081
 2.3210	77.2195
 2.3200	77.1638
 2.3190	77.1595
 2.3180	77.1574
 2.3170	77.1528
 2.3160	77.1481
 2.3150	77.1954
 2.3140	77.1623
 2.3130	77.1009
 2.3120	77.1451
 2.3110	77.1406
 2.3100	77.1087
 2.3090	77.1268
 2.3080	77.1356
 2.3070	77.1594
 2.3060	77.1649
 2.3050	77.1908
 2.3040	77.1541
 2.3030	77.1797
 2.3020	77.2204
 2.3010	77.2619
 2.3000	77.2332
 2.2990	77.2383
 2.2980	77.2557
 2.2970	77.3011
 2.2960	77.2673
 2.2950	77.2583
 2.2940	77.2563
 2.2930	77.2698
 2.2920	77.3052
 2.2910	77.3356
 2.2900	77.3387
 2.2890	77.3941
 2.2880	77.3940
 2.2870	77.4162
 2.2860	77.3767
 2.2850	77.4133
 2.2840	77.3686
 2.2830	77.4387
 2.2820	77.4864
 2.2810	77.5109
 2.2800	77.4494
 2.2790	77.4093
 2.2780	77.4612
 2.2770	77.4776
 2.2760	77.4243
 2.2750	77.4998
 2.2740	77.5441
 2.2730	77.5668
 2.2720	77.5310
 2.2710	77.5306
 2.2700	77.5118
 2.2690	77.5712
 2.2680	77.5082
 2.2670	77.5679
 2.2660	77.5554
 2.2650	77.6567
 2.2640	77.5389
 2.2630	77.5561
 2.2620	77.6458
 2.2610	77.6217
 2.2600	77.6167
 2.2590	77.7018
 2.2580	77.6365
 2.2570	77.7036
 2.2560	77.6174
 2.2550	77.6380
 2.2540	77.7063
 2.2530	77.7021
 2.2520	77.6326
 2.2510	77.7579
 2.2500	77.7050
 2.2490	77.7824
 2.2480	77.7346
 2.2470	77.7639
 2.2460	77.7232
 2.2450	77.8283
 2.2440	77.7725
 2.2430	77.7706
 2.2420	77.8544
 2.2410	77.8499
 2.2400	77.7542
 2.2390	77.8731
 2.2380	77.8929
 2.2370	77.8446
 2.2360	77.8095
 2.2350	77.8284
 2.2340	77.9072
 2.2330	77.8953
 2.2320	77.8397
 2.2310	77.9143
 2.2300	77.8347
 2.2290	77.8871
 2.2280	77.8745
 2.2270	77.7757
 2.2260	77.8722
 2.2250	77.8970
 2.2240	77.8382
 2.2230	77.8286
 2.2220	77.8302
 2.2210	77.8724
 2.2200	77.8651
 2.2190	77.9200
 2.2180	77.9106
 2.2170	77.8718
 2.2160	77.9095
 2.2150	77.9209
 2.2140	77.8405
 2.2130	77.9019
 2.2120	77.9234
 2.2110	77.8500
 2.2100	77.8959
 2.2090	77.9124
 2.2080	77.9008
 2.2070	77.9219
 2.2060	77.9243
 2.2050	77.8419
 2.2040	77.8329
 2.2030	77.9856
 2.2020	77.9481
 2.2010	78.0869
 2.2000	78.0976
 2.1990	78.0577
 2.1980	78.0693
 2.1970	78.1162
 2.1960	78.1554
 2.1950	78.1947
 2.1940	78.1467
 2.1930	78.2117
 2.1920	78.2346
 2.1910	78.1726
 2.1900	78.2690
 2.1890	78.2547
 2.1880	78.3295
 2.1870	78.3881
 2.1860	78.3532
 2.1850	78.3906
 2.1840	78.4499
 2.1830	78.5196
 2.1820	78.5149
 2.1810	78.5662
 2.1800	78.5932
 2.1790	78.6225
 2.1780	78.6344
 2.1770	78.6363
 2.1760	78.7148
 2.1750	78.7879
 2.1740	78.8111
 2.1730	78.7867
 2.1720	78.8569
 2.1710	78.9496
 2.1700	78.9491
 2.1690	78.9458
 2.1680	78.9503
 2.1670	79.0168
 2.1660	79.0389
 2.1650	79.0421
 2.1640	79.0875
 2.1630	79.2009
 2.1620	79.1733
 2.1610	79.2742
 2.1600	79.1934
 2.1590	79.1944
 2.1580	79.2065
 2.1570	79.3771
 2.1560	79.3635
 2.1550	79.3210
 2.1540	79.3660
 2.1530	79.4479
 2.1520	79.3863
 2.1510	79.4504
 2.1500	79.4675
 2.1490	79.4925
 2.1480	79.4248
 2.1470	79.4668
 2.1460	79.5225
 2.1450	79.4919
 2.1440	79.5163
 2.1430	79.4904
 2.1420	79.4757
 2.1410	79.4830
 2.1400	79.4592
 2.1390	79.4745
 2.1380	79.3726
 2.1370	79.3934
 2.1360	79.4333
 2.1350	79.4300
 2.1340	79.3638
 2.1330	79.3721
 2.1320	79.3383
 2.1310	79.3528
 2.1300	79.2981
 2.1290	79.2992
 2.1280	79.2835
 2.1270	79.2609
 2.1260	79.2663
 2.1250	79.1725
 2.1240	79.1032
 2.1230	79.0354
 2.1220	79.0190
 2.1210	79.0015
 2.1200	78.9528
 2.1190	78.8989
 2.1180	78.8422
 2.1170	78.7830
 2.1160	78.7592
 2.1150	78.7132
 2.1140	78.6760
 2.1130	78.7280
 2.1120	78.6522
 2.1110	78.6519
 2.1100	78.5634
 2.1090	78.5048
 2.1080	78.4613
 2.1070	78.4100
 2.1060	78.3948
 2.1050	78.3638
 2.1040	78.3086
 2.1030	78.2815
 2.1020	78.2086
 2.1010	78.2011
 2.1000	78.1793
 2.0990	78.1705
 2.0980	78.1430
 2.0970	78.1626
 2.0960	78.1824
 2.0950	78.1686
 2.0940	78.1878
 2.0930	78.2038
 2.0920	78.2416
 2.0910	78.2459
 2.0900	78.2179
 2.0890	78.3122
 2.0880	78.3069
 2.0870	78.2484
 2.0860	78.2533
 2.0850	78.3316
 2.0840	78.3292
 2.0830	78.3351
 2.0820	78.3412
 2.0810	78.3428
 2.0800	78.3701
 2.0790	78.3720
 2.0780	78.3589
 2.0770	78.3561
 2.0760	78.3664
 2.0750	78.3857
 2.0740	78.3919
 2.0730	78.3771
 2.0720	78.3856
 2.0710	78.4235
 2.0700	78.4220
 2.0690	78.4384
 2.0680	78.4726
 2.0670	78.4887
 2.0660	78.5382
 2.0650	78.5137
 2.0640	78.4889
 2.0630	78.4952
 2.0620	78.5156
 2.0610	78.5255
 2.0600	78.5281
 2.0590	78.5411
 2.0580	78.5378
 2.0570	78.4855
 2.0560	78.5064
 2.0550	78.5440
 2.0540	78.5538
 2.0530	78.6092
 2.0520	78.6038
 2.0510	78.5588
 2.0500	78.5923
 2.0490	78.6052
 2.0480	78.6656
 2.0470	78.6535
 2.0460	78.6686
 2.0450	78.6737
 2.0440	78.6685
 2.0430	78.6640
 2.0420	78.6776
 2.0410	78.7015
 2.0400	78.7346
 2.0390	78.6588
 2.0380	78.6442
 2.0370	78.6792
 2.0360	78.7090
 2.0350	78.7353
 2.0340	78.7613
 2.0330	78.7268
 2.0320	78.6680
 2.0310	78.6621
 2.0300	78.6787
 2.0290	78.6235
 2.0280	78.6234
 2.0270	78.6657
 2.0260	78.7180
 2.0250	78.6522
 2.0240	78.6340
 2.0230	78.6384
 2.0220	78.6085
 2.0210	78.6309
 2.0200	78.6002
 2.0190	78.6739
 2.0180	78.6173
 2.0170	78.6227
 2.0160	78.5870
 2.0150	78.5490
 2.0140	78.5685
 2.0130	78.5873
 2.0120	78.5582
 2.0110	78.5696
 2.0100	78.5312
 2.0090	78.5050
 2.0080	78.5179
 2.0070	78.5096
 2.0060	78.6020
 2.0050	78.5263
 2.0040	78.4991
 2.0030	78.4599
 2.0020	78.4634
 2.0010	78.4900
 2.0000	78.4480
 1.9990	78.4375
 1.9980	78.4506
 1.9970	78.3828
 1.9960	78.3798
 1.9950	78.2990
 1.9940	78.3439
 1.9930	78.2855
 1.9920	78.2818
 1.9910	78.1771
 1.9900	78.2226
 1.9890	78.2062
 1.9880	78.1724
 1.9870	78.1407
 1.9860	78.1700
 1.9850	78.1529
 1.9840	78.1174
 1.9830	78.0534
 1.9820	78.0314
 1.9810	78.0115
 1.9800	78.0517
 1.9790	78.0167
 1.9780	78.0192
 1.9770	77.9419
 1.9760	77.9498
 1.9750	77.9792
 1.9740	77.9310
 1.9730	77.8986
 1.9720	77.8897
 1.9710	77.8907
 1.9700	77.8993
 1.9690	77.8170
 1.9680	77.8785
 1.9670	77.8244
 1.9660	77.7795
 1.9650	77.8401
 1.9640	77.8305
 1.9630	77.7621
 1.9620	77.7164
 1.9610	77.7106
 1.9600	77.7629
 1.9590	77.6724
 1.9580	77.6994
 1.9570	77.6758
 1.9560	77.6879
 1.9550	77.6675
 1.9540	77.6680
 1.9530	77.5507
 1.9520	77.6467
 1.9510	77.5686
 1.9500	77.5698
 1.9490	77.5249
 1.9480	77.5487
 1.9470	77.4443
 1.9460	77.5390
 1.9450	77.5224
 1.9440	77.5504
 1.9430	77.4026
 1.9420	77.4990
 1.9410	77.5310
 1.9400	77.5307
 1.9390	77.5061
 1.9380	77.5605
 1.9370	77.4940
 1.9360	77.5282
 1.9350	77.4798
 1.9340	77.5706
 1.9330	77.5775
 1.9320	77.5317
 1.9310	77.6075
 1.9300	77.6281
 1.9290	77.5643
 1.9280	77.6570
 1.9270	77.6574
 1.9260	77.5416
 1.9250	77.5378
 1.9240	77.6272
 1.9230	77.6635
 1.9220	77.6824
 1.9210	77.6098
 1.9200	77.6544
 1.9190	77.7372
 1.9180	77.7168
 1.9170	77.6831
 1.9160	77.7481
 1.9150	77.7416
 1.9140	77.8500
 1.9130	77.8387
 1.9120	77.8599
 1.9110	77.8308
 1.9100	77.8822
 1.9090	77.9260
 1.9080	77.9921
 1.9070	78.0384
 1.9060	78.1223
 1.9050	78.1978
 1.9040	78.2234
 1.9030	78.2196
 1.9020	78.3891
 1.9010	78.4705
 1.9000	78.4956
 1.8990	78.5599
 1.8980	78.6564
 1.8970	78.6847
 1.8960	78.7618
 1.8950	78.8246
 1.8940	78.9323
 1.8930	78.9302
 1.8920	78.9837
 1.8910	79.0565
 1.8900	79.0951
 1.8890	79.1239
 1.8880	79.2448
 1.8870	79.2243
 1.8860	79.2673
 1.8850	79.2779
 1.8840	79.3830
 1.8830	79.3520
 1.8820	79.4419
 1.8810	79.3972
 1.8800	79.4158
 1.8790	79.4652
 1.8780	79.5259
 1.8770	79.5072
 1.8760	79.5816
 1.8750	79.5807
 1.8740	79.5536
 1.8730	79.5683
 1.8720	79.6107
 1.8710	79.6186
 1.8700	79.6558
 1.8690	79.6287
 1.8680	79.6573
 1.8670	79.6193
 1.8660	79.6987
 1.8650	79.7071
 1.8640	79.6827
 1.8630	79.6680
 1.8620	79.8088
 1.8610	79.6925
 1.8600	79.7411
 1.8590	79.7168
 1.8580	79.7065
 1.8570	79.6951
 1.8560	79.7584
 1.8550	79.7148
 1.8540	79.7662
 1.8530	79.7511
 1.8520	79.7326
 1.8510	79.7231
 1.8500	79.7364
 1.8490	79.7263
 1.8480	79.7504
 1.8470	79.7956
 1.8460	79.8301
 1.8450	79.7598
 1.8440	79.7896
 1.8430	79.7805
 1.8420	79.8211
 1.8410	79.7732
 1.8400	79.8258
 1.8390	79.7739
 1.8380	79.7577
 1.8370	79.7738
 1.8360	79.7874
 1.8350	79.8018
 1.8340	79.7420
 1.8330	79.7361
 1.8320	79.7921
 1.8310	79.8092
 1.8300	79.7970
 1.8290	79.7469
 1.8280	79.8010
 1.8270	79.7761
 1.8260	79.8234
 1.8250	79.8169
 1.8240	79.7767
 1.8230	79.7734
 1.8220	79.7778
 1.8210	79.7906
 1.8200	79.8051
 1.8190	79.7786
 1.8180	79.7479
 1.8170	79.7860
 1.8160	79.8159
 1.8150	79.8266
 1.8140	79.8278
 1.8130	79.8233
 1.8120	79.8457
 1.8110	79.8408
 1.8100	79.8390
 1.8090	79.8431
 1.8080	79.8347
 1.8070	79.8304
 1.8060	79.7968
 1.8050	79.7668
 1.8040	79.8041
 1.8030	79.8629
 1.8020	79.8974
 1.8010	79.8334
 1.8000	79.7984
 1.7990	79.8513
 1.7980	79.8450
 1.7970	79.7671
 1.7960	79.7548
 1.7950	79.7391
 1.7940	79.7570
 1.7930	79.8190
 1.7920	79.7772
 1.7910	79.7562
 1.7900	79.8660
 1.7890	79.8685
 1.7880	79.7773
 1.7870	79.7804
 1.7860	79.7939
 1.7850	79.7740
 1.7840	79.7665
 1.7830	79.7344
 1.7820	79.7265
 1.7810	79.7647
 1.7800	79.7713
 1.7790	79.7514
 1.7780	79.7645
 1.7770	79.7697
 1.7760	79.7704
 1.7750	79.7181
 1.7740	79.6992
 1.7730	79.7350
 1.7720	79.7123
 1.7710	79.6979
 1.7700	79.7223
 1.7690	79.7066
 1.7680	79.7045
 1.7670	79.7707
 1.7660	79.7617
 1.7650	79.7370
 1.7640	79.6967
 1.7630	79.6866
 1.7620	79.7208
 1.7610	79.7578
 1.7600	79.7449
 1.7590	79.6930
 1.7580	79.6887
 1.7570	79.7294
 1.7560	79.7200
 1.7550	79.6901
 1.7540	79.7396
 1.7530	79.7375
 1.7520	79.7393
 1.7510	79.7657
 1.7500	79.7594
 1.7490	79.7442
 1.7480	79.7022
 1.7470	79.7110
 1.7460	79.7309
 1.7450	79.7938
 1.7440	79.8054
 1.7430	79.7474
 1.7420	79.7240
 1.7410	79.7905
 1.7400	79.7901
 1.7390	79.8083
 1.7380	79.7733
 1.7370	79.8556
 1.7360	79.8006
 1.7350	79.7657
 1.7340	79.7742
 1.7330	79.7554
 1.7320	79.7732
 1.7310	79.8156
 1.7300	79.8137
 1.7290	79.8594
 1.7280	79.8192
 1.7270	79.8035
 1.7260	79.7768
 1.7250	79.7792
 1.7240	79.7901
 1.7230	79.7633
 1.7220	79.8103
 1.7210	79.8292
 1.7200	79.8125
 1.7190	79.8377
 1.7180	79.8239
 1.7170	79.8180
 1.7160	79.8078
 1.7150	79.8625
 1.7140	79.7753
 1.7130	79.7583
 1.7120	79.8065
 1.7110	79.7471
 1.7100	79.7841
 1.7090	79.8360
 1.7080	79.7861
 1.7070	79.7528
 1.7060	79.7903
 1.7050	79.7286
 1.7040	79.7608
 1.7030	79.8312
 1.7020	79.7543
 1.7010	79.7933
 1.7000	79.8239
 1.6990	79.7518
 1.6980	79.8104
 1.6970	79.7652
 1.6960	79.7934
 1.6950	79.7622
 1.6940	79.7320
 1.6930	79.7671
 1.6920	79.8044
 1.6910	79.8329
 1.6900	79.8021
 1.6890	79.7591
 1.6880	79.7206
 1.6870	79.7925
 1.6860	79.8074
 1.6850	79.8023
 1.6840	79.8708
 1.6830	79.8280
 1.6820	79.8102
 1.6810	79.8722
 1.6800	79.8079
 1.6790	79.8354
 1.6780	79.8267
 1.6770	79.7935
 1.6760	79.7808
 1.6750	79.7290
 1.6740	79.7853
 1.6730	79.8503
 1.6720	79.8283
 1.6710	79.7819
 1.6700	79.8262
 1.6690	79.8200
 1.6680	79.8117
 1.6670	79.7985
 1.6660	79.7864
 1.6650	79.8713
 1.6640	79.8100
 1.6630	79.8239
 1.6620	79.8497
 1.6610	79.8917
 1.6600	79.8350
 1.6590	79.8582
 1.6580	79.7869
 1.6570	79.7402
 1.6560	79.7812
 1.6550	79.7971
 1.6540	79.7370
 1.6530	79.8507
 1.6520	79.8254
 1.6510	79.7846
 1.6500	79.8291
 1.6490	79.7513
 1.6480	79.8437
 1.6470	79.9046
 1.6460	79.7958
 1.6450	79.7832
 1.6440	79.8779
 1.6430	79.8031
 1.6420	79.7783
 1.6410	79.8287
 1.6400	79.8196
 1.6390	79.7661
 1.6380	79.7958
 1.6370	79.8608
 1.6360	79.7820
 1.6350	79.8567
 1.6340	79.7641
 1.6330	79.7349
 1.6320	79.7945
 1.6310	79.7720
 1.6300	79.7671
 1.6290	79.7982
 1.6280	79.8099
 1.6270	79.8355
 1.6260	79.7784
 1.6250	79.7874
 1.6240	79.8090
 1.6230	79.7864
 1.6220	79.7847
 1.6210	79.7792
 1.6200	79.7952
 1.6190	79.8141
 1.6180	79.7967
 1.6170	79.8003
 1.6160	79.7672
 1.6150	79.8160
 1.6140	79.7927
 1.6130	79.7972
 1.6120	79.7175
 1.6110	79.7729
 1.6100	79.8058
 1.6090	79.8142
 1.6080	79.7317
 1.6070	79.8649
 1.6060	79.6985
 1.6050	79.7767
 1.6040	79.8396
 1.6030	79.8031
 1.6020	79.7755
 1.6010	79.7940
 1.6000	79.7621
 1.5990	79.7697
 1.5980	79.7382
 1.5970	79.7456
 1.5960	79.7872
 1.5950	79.7933
 1.5940	79.8117
 1.5930	79.7533
 1.5920	79.7011
 1.5910	79.7462
 1.5900	79.8123
 1.5890	79.7240
 1.5880	79.7533
 1.5870	79.7113
 1.5860	79.7299
 1.5850	79.7337
 1.5840	79.7877
 1.5830	79.7904
 1.5820	79.7120
 1.5810	79.7601
 1.5800	79.7422
 1.5790	79.7342
 1.5780	79.7166
 1.5770	79.7699
 1.5760	79.7641
 1.5750	79.7281
 1.5740	79.6877
 1.5730	79.6626
 1.5720	79.7275
 1.5710	79.7018
 1.5700	79.7055
 1.5690	79.7160
 1.5680	79.6766
 1.5670	79.6716
 1.5660	79.6590
 1.5650	79.6152
 1.5640	79.6130
 1.5630	79.6968
 1.5620	79.6342
 1.5610	79.6273
 1.5600	79.7021
 1.5590	79.6771
 1.5580	79.6102
 1.5570	79.6112
 1.5560	79.5938
 1.5550	79.6416
 1.5540	79.6322
 1.5530	79.6739
 1.5520	79.6283
 1.5510	79.6423
 1.5500	79.6348
 1.5490	79.6455
 1.5480	79.6262
 1.5470	79.6380
 1.5460	79.5466
 1.5450	79.6374
 1.5440	79.6290
 1.5430	79.5711
 1.5420	79.5873
 1.5410	79.6322
 1.5400	79.5804
 1.5390	79.5798
 1.5380	79.5943
 1.5370	79.5630
 1.5360	79.5177
 1.5350	79.5189
 1.5340	79.4887
 1.5330	79.5275
 1.5320	79.5404
 1.5310	79.5504
 1.5300	79.5578
 1.5290	79.5882
 1.5280	79.5432
 1.5270	79.5383
 1.5260	79.5337
 1.5250	79.5102
 1.5240	79.4728
 1.5230	79.4675
 1.5220	79.4879
 1.5210	79.5342
 1.5200	79.5446
 1.5190	79.5679
 1.5180	79.5533
 1.5170	79.4503
 1.5160	79.4116
 1.5150	79.5045
 1.5140	79.4745
 1.5130	79.4533
 1.5120	79.5062
 1.5110	79.4840
 1.5100	79.4184
 1.5090	79.4147
 1.5080	79.3956
 1.5070	79.4232
 1.5060	79.4372
 1.5050	79.4270
 1.5040	79.4221
 1.5030	79.3815
 1.5020	79.3492
 1.5010	79.3439
 1.5000	79.4138
 1.4990	79.4187
 1.4980	79.3537
 1.4970	79.3195
 1.4960	79.3012
 1.4950	79.3216
 1.4940	79.3550
 1.4930	79.3641
 1.4920	79.3234
 1.4910	79.2925
 1.4900	79.3266
 1.4890	79.3607
 1.4880	79.3476
 1.4870	79.2933
 1.4860	79.3006
 1.4850	79.3391
 1.4840	79.3300
 1.4830	79.3100
 1.4820	79.2824
 1.4810	79.2542
 1.4800	79.2576
 1.4790	79.2689
 1.4780	79.2905
 1.4770	79.2798
 1.4760	79.2341
 1.4750	79.2289
 1.4740	79.2299
 1.4730	79.2310
 1.4720	79.2205
 1.4710	79.2236
 1.4700	79.2430
 1.4690	79.1955
 1.4680	79.1912
 1.4670	79.1978
 1.4660	79.1826
 1.4650	79.1814
 1.4640	79.1636
 1.4630	79.1180
 1.4620	79.1017
 1.4610	79.0853
 1.4600	79.1865
 1.4590	79.1527
 1.4580	79.1296
 1.4570	79.1140
 1.4560	79.1572
 1.4550	79.1527
 1.4540	79.1063
 1.4530	79.0992
 1.4520	79.1274
 1.4510	79.0842
 1.4500	79.1112
 1.4490	79.0942
 1.4480	79.1039
 1.4470	79.0989
 1.4460	79.0588
 1.4450	79.0553
 1.4440	79.0560
 1.4430	79.0574
 1.4420	79.0744
 1.4410	79.0360
 1.4400	79.0595
 1.4390	79.0421
 1.4380	79.0519
 1.4370	79.0105
 1.4360	79.0074
 1.4350	78.9874
 1.4340	78.9502
 1.4330	78.9276
 1.4320	78.9849
 1.4310	78.9409
 1.4300	78.8972
 1.4290	78.9364
 1.4280	78.9241
 1.4270	78.9067
 1.4260	78.9265
 1.4250	78.8894
 1.4240	78.8592
 1.4230	78.8013
 1.4220	78.8703
 1.4210	78.8782
 1.4200	78.8303
 1.4190	78.7785
 1.4180	78.7921
 1.4170	78.7837
 1.4160	78.7251
 1.4150	78.7474
 1.4140	78.6779
 1.4130	78.6986
 1.4120	78.7268
 1.4110	78.7448
 1.4100	78.7166
 1.4090	78.7070
 1.4080	78.7986
 1.4070	78.7506
 1.4060	78.7799
 1.4050	78.7873
 1.4040	78.8456
 1.4030	78.7937
 1.4020	78.8665
 1.4010	78.8515
 1.4000	78.8793
 1.3990	78.9054
 1.3980	78.9583
 1.3970	78.9774
 1.3960	78.9981
 1.3950	79.0425
 1.3940	78.9204
 1.3930	78.9592
 1.3920	79.1230
 1.3910	79.1062
 1.3900	79.1322
 1.3890	79.1810
 1.3880	79.1886
 1.3870	79.1271
 1.3860	79.2412
 1.3850	79.1478
 1.3840	79.1628
 1.3830	79.1195
 1.3820	79.1708
 1.3810	79.1063
 1.3800	79.1632
 1.3790	79.1455
 1.3780	79.2048
 1.3770	79.2204
 1.3760	79.0524
 1.3750	79.1981
 1.3740	79.2264
 1.3730	79.1974
 1.3720	79.1032
 1.3710	79.1966
 1.3700	79.1657
 1.3690	79.1264
 1.3680	79.1313
 1.3670	79.0812
 1.3660	79.2271
 1.3650	79.2095
