Name: Serpentine (Mg,Fe^2+,Ni)Si_2O_5(OH)_4
Type: Mineral
Class: Silicate
Subclass: Phyllosilicate
Particle Size: Coarse
Sample No.: PS-20A
Owner: JPL
Wavelength Range: VSWIR
Origin: USA, New York.
Collection Date: N/A
Description: Particle size was 125-500um.Collected by:  Ward's Original ASTER Spectral Library name was jpl.perkin.mineral.silicate.phyllosilicate.coarse.ps20a.spectrum.txt
Measurement: Hemispherical reflectance
First Column: X
Second Column: Y
X Units: Wavelength (micrometers)
Y Units:Reflectance (percent)
First X Value:  2.5000
Last X Value:  0.4000
Number of X Values: 2101
Additional Information: mineral.silicate.phyllosilicate.coarse.vswir.ps-20a.jpl.perkin.ancillary.txt

 2.5000	 7.2607
 2.4990	 6.8328
 2.4980	 7.5300
 2.4970	 7.3179
 2.4960	 7.2137
 2.4950	 7.6992
 2.4940	 7.6339
 2.4930	 7.7387
 2.4920	 7.8896
 2.4910	 7.9836
 2.4900	 8.1183
 2.4890	 8.0725
 2.4880	 8.2872
 2.4870	 8.2586
 2.4860	 8.6140
 2.4850	 8.3803
 2.4840	 8.6124
 2.4830	 8.7424
 2.4820	 8.9301
 2.4810	 8.7070
 2.4800	 8.9677
 2.4790	 8.9485
 2.4780	 9.1700
 2.4770	 9.0657
 2.4760	 9.3621
 2.4750	 9.5009
 2.4740	 9.7343
 2.4730	 9.7085
 2.4720	 9.9487
 2.4710	10.0684
 2.4700	10.3829
 2.4690	10.3891
 2.4680	10.6657
 2.4670	10.8830
 2.4660	11.1868
 2.4650	11.2282
 2.4640	11.4749
 2.4630	11.4897
 2.4620	11.7912
 2.4610	11.8000
 2.4600	11.9518
 2.4590	11.9176
 2.4580	12.2482
 2.4570	12.2143
 2.4560	12.3067
 2.4550	12.3102
 2.4540	12.3637
 2.4530	12.1467
 2.4520	12.2743
 2.4510	12.1894
 2.4500	12.1383
 2.4490	11.8958
 2.4480	11.9488
 2.4470	11.7349
 2.4460	11.7995
 2.4450	11.6264
 2.4440	11.5144
 2.4430	11.2308
 2.4420	11.0874
 2.4410	10.9166
 2.4400	10.8542
 2.4390	10.6788
 2.4380	10.5235
 2.4370	10.4140
 2.4360	10.3728
 2.4350	10.2752
 2.4340	10.3833
 2.4330	10.2227
 2.4320	10.2041
 2.4310	10.0680
 2.4300	10.2814
 2.4290	10.2190
 2.4280	10.3331
 2.4270	10.3831
 2.4260	10.5609
 2.4250	10.5680
 2.4240	10.7106
 2.4230	10.7330
 2.4220	10.8545
 2.4210	10.8152
 2.4200	11.0721
 2.4190	11.1094
 2.4180	11.2124
 2.4170	11.2473
 2.4160	11.2587
 2.4150	11.3067
 2.4140	11.4115
 2.4130	11.4283
 2.4120	11.4338
 2.4110	11.4487
 2.4100	11.4575
 2.4090	11.4431
 2.4080	11.5491
 2.4070	11.5431
 2.4060	11.5288
 2.4050	11.4531
 2.4040	11.5289
 2.4030	11.6280
 2.4020	11.6856
 2.4010	11.6346
 2.4000	11.7061
 2.3990	11.6748
 2.3980	11.7053
 2.3970	11.7934
 2.3960	11.8777
 2.3950	11.9037
 2.3940	12.0625
 2.3930	12.1097
 2.3920	12.2089
 2.3910	12.2773
 2.3900	12.3741
 2.3890	12.4897
 2.3880	12.5964
 2.3870	12.6561
 2.3860	12.8005
 2.3850	12.9105
 2.3840	13.1098
 2.3830	13.1933
 2.3820	13.2320
 2.3810	13.3443
 2.3800	13.4916
 2.3790	13.5454
 2.3780	13.6929
 2.3770	13.8001
 2.3760	13.8690
 2.3750	13.9664
 2.3740	14.1314
 2.3730	14.1539
 2.3720	14.2748
 2.3710	14.4871
 2.3700	14.6306
 2.3690	14.7583
 2.3680	14.9111
 2.3670	15.0878
 2.3660	15.2755
 2.3650	15.4369
 2.3640	15.5958
 2.3630	15.8032
 2.3620	16.0029
 2.3610	16.1473
 2.3600	16.2379
 2.3590	16.3296
 2.3580	16.3393
 2.3570	16.3479
 2.3560	16.3260
 2.3550	16.1886
 2.3540	16.0135
 2.3530	15.7789
 2.3520	15.4964
 2.3510	15.1533
 2.3500	14.8036
 2.3490	14.4225
 2.3480	13.9035
 2.3470	13.4627
 2.3460	12.9910
 2.3450	12.3919
 2.3440	11.8442
 2.3430	11.2957
 2.3420	10.7897
 2.3410	10.3243
 2.3400	 9.8734
 2.3390	 9.4003
 2.3380	 8.9985
 2.3370	 8.6326
 2.3360	 8.2614
 2.3350	 8.0253
 2.3340	 7.7974
 2.3330	 7.5904
 2.3320	 7.4519
 2.3310	 7.3386
 2.3300	 7.2429
 2.3290	 7.1635
 2.3280	 7.1349
 2.3270	 7.2336
 2.3260	 7.2238
 2.3250	 7.3178
 2.3240	 7.4179
 2.3230	 7.5293
 2.3220	 7.5627
 2.3210	 7.7513
 2.3200	 7.9116
 2.3190	 8.1005
 2.3180	 8.3149
 2.3170	 8.5064
 2.3160	 8.6539
 2.3150	 8.8812
 2.3140	 9.1043
 2.3130	 9.4274
 2.3120	 9.6934
 2.3110	 9.9735
 2.3100	10.2931
 2.3090	10.6717
 2.3080	10.9950
 2.3070	11.3276
 2.3060	11.5824
 2.3050	11.9382
 2.3040	12.2268
 2.3030	12.5984
 2.3020	12.8687
 2.3010	13.1492
 2.3000	13.5083
 2.2990	13.7887
 2.2980	14.0529
 2.2970	14.3175
 2.2960	14.5393
 2.2950	14.8321
 2.2940	14.9186
 2.2930	15.2929
 2.2920	15.4438
 2.2910	15.5708
 2.2900	15.7832
 2.2890	15.9528
 2.2880	16.0437
 2.2870	16.2333
 2.2860	16.2767
 2.2850	16.3926
 2.2840	16.3759
 2.2830	16.4281
 2.2820	16.4905
 2.2810	16.4603
 2.2800	16.4816
 2.2790	16.3984
 2.2780	16.3720
 2.2770	16.3515
 2.2760	16.3142
 2.2750	16.2676
 2.2740	16.2004
 2.2730	16.2894
 2.2720	16.3101
 2.2710	16.5195
 2.2700	16.6227
 2.2690	16.9695
 2.2680	17.1496
 2.2670	17.5105
 2.2660	17.8814
 2.2650	18.3495
 2.2640	18.7888
 2.2630	19.3488
 2.2620	19.8152
 2.2610	20.4968
 2.2600	20.8218
 2.2590	21.4892
 2.2580	21.8551
 2.2570	22.3454
 2.2560	22.6515
 2.2550	23.0045
 2.2540	23.1990
 2.2530	23.3705
 2.2520	23.5285
 2.2510	23.6748
 2.2500	23.7281
 2.2490	23.7924
 2.2480	23.8590
 2.2470	23.9001
 2.2460	24.0255
 2.2450	24.2243
 2.2440	24.3071
 2.2430	24.5609
 2.2420	24.7997
 2.2410	25.0846
 2.2400	25.4575
 2.2390	25.9020
 2.2380	26.2700
 2.2370	26.8435
 2.2360	27.4068
 2.2350	28.1264
 2.2340	28.7506
 2.2330	29.4726
 2.2320	30.2184
 2.2310	31.0411
 2.2300	31.6933
 2.2290	32.6633
 2.2280	33.2973
 2.2270	34.1036
 2.2260	34.8225
 2.2250	35.5517
 2.2240	36.1201
 2.2230	36.7498
 2.2220	37.4089
 2.2210	37.9250
 2.2200	38.3838
 2.2190	38.8406
 2.2180	39.2541
 2.2170	39.6386
 2.2160	40.0729
 2.2150	40.4044
 2.2140	40.5990
 2.2130	40.9792
 2.2120	41.1256
 2.2110	41.2153
 2.2100	41.6686
 2.2090	41.6640
 2.2080	41.8261
 2.2070	42.0539
 2.2060	42.0432
 2.2050	42.2744
 2.2040	42.4543
 2.2030	42.4955
 2.2020	42.5844
 2.2010	42.6769
 2.2000	42.7403
 2.1990	42.8562
 2.1980	42.8352
 2.1970	42.9276
 2.1960	43.0364
 2.1950	43.1980
 2.1940	43.1934
 2.1930	43.3370
 2.1920	43.3747
 2.1910	43.3630
 2.1900	43.3611
 2.1890	43.4801
 2.1880	43.5151
 2.1870	43.4638
 2.1860	43.5757
 2.1850	43.5400
 2.1840	43.5691
 2.1830	43.5824
 2.1820	43.5668
 2.1810	43.5773
 2.1800	43.4276
 2.1790	43.5593
 2.1780	43.4651
 2.1770	43.4951
 2.1760	43.4253
 2.1750	43.3812
 2.1740	43.3757
 2.1730	43.2820
 2.1720	43.2473
 2.1710	43.2389
 2.1700	43.1238
 2.1690	43.0984
 2.1680	43.0827
 2.1670	43.1048
 2.1660	42.9294
 2.1650	42.9050
 2.1640	42.8640
 2.1630	42.7573
 2.1620	42.6159
 2.1610	42.4576
 2.1600	42.2906
 2.1590	42.1513
 2.1580	41.9131
 2.1570	41.7694
 2.1560	41.4658
 2.1550	41.2185
 2.1540	40.8724
 2.1530	40.5948
 2.1520	40.2673
 2.1510	39.9686
 2.1500	39.6189
 2.1490	39.1723
 2.1480	38.7693
 2.1470	38.3373
 2.1460	37.8725
 2.1450	37.4754
 2.1440	37.0675
 2.1430	36.6812
 2.1420	36.2210
 2.1410	35.7216
 2.1400	35.2694
 2.1390	34.8312
 2.1380	34.4050
 2.1370	34.0114
 2.1360	33.5259
 2.1350	33.2473
 2.1340	32.9189
 2.1330	32.7141
 2.1320	32.5446
 2.1310	32.4280
 2.1300	32.3659
 2.1290	32.4112
 2.1280	32.4994
 2.1270	32.6548
 2.1260	32.8209
 2.1250	32.9742
 2.1240	33.1772
 2.1230	33.3557
 2.1220	33.5379
 2.1210	33.6422
 2.1200	33.6005
 2.1190	33.5456
 2.1180	33.4990
 2.1170	33.4435
 2.1160	33.2774
 2.1150	33.1817
 2.1140	33.0791
 2.1130	33.0460
 2.1120	33.0113
 2.1110	33.0588
 2.1100	33.0975
 2.1090	33.2482
 2.1080	33.3932
 2.1070	33.5350
 2.1060	33.7270
 2.1050	33.9901
 2.1040	34.0858
 2.1030	34.1928
 2.1020	34.2612
 2.1010	34.3051
 2.1000	34.2894
 2.0990	34.3213
 2.0980	34.3661
 2.0970	34.4817
 2.0960	34.5535
 2.0950	34.6482
 2.0940	34.7866
 2.0930	35.0051
 2.0920	35.3090
 2.0910	35.6286
 2.0900	35.9468
 2.0890	36.2556
 2.0880	36.5339
 2.0870	36.9450
 2.0860	37.3038
 2.0850	37.6366
 2.0840	38.0345
 2.0830	38.4783
 2.0820	38.8315
 2.0810	39.1988
 2.0800	39.6067
 2.0790	39.9838
 2.0780	40.3881
 2.0770	40.7541
 2.0760	41.0993
 2.0750	41.4321
 2.0740	41.7384
 2.0730	41.9931
 2.0720	42.1401
 2.0710	42.3297
 2.0700	42.5037
 2.0690	42.6018
 2.0680	42.6243
 2.0670	42.6145
 2.0660	42.5918
 2.0650	42.5303
 2.0640	42.4518
 2.0630	42.3440
 2.0620	42.2039
 2.0610	42.0406
 2.0600	41.8384
 2.0590	41.6284
 2.0580	41.3867
 2.0570	41.0762
 2.0560	40.7588
 2.0550	40.4905
 2.0540	40.1536
 2.0530	39.7332
 2.0520	39.4019
 2.0510	39.0665
 2.0500	38.7071
 2.0490	38.2997
 2.0480	37.9864
 2.0470	37.6290
 2.0460	37.3370
 2.0450	37.0419
 2.0440	36.8022
 2.0430	36.6225
 2.0420	36.3834
 2.0410	36.1642
 2.0400	35.9992
 2.0390	35.7611
 2.0380	35.6227
 2.0370	35.5152
 2.0360	35.4832
 2.0350	35.3129
 2.0340	35.2206
 2.0330	35.1149
 2.0320	35.0208
 2.0310	34.9013
 2.0300	34.8787
 2.0290	34.8324
 2.0280	34.8195
 2.0270	34.7764
 2.0260	34.7052
 2.0250	34.7290
 2.0240	34.7728
 2.0230	34.6963
 2.0220	34.6666
 2.0210	34.6537
 2.0200	34.6578
 2.0190	34.5362
 2.0180	34.4916
 2.0170	34.4111
 2.0160	34.3066
 2.0150	34.1957
 2.0140	34.1790
 2.0130	34.0309
 2.0120	33.9343
 2.0110	33.6883
 2.0100	33.5594
 2.0090	33.3432
 2.0080	33.2272
 2.0070	33.0048
 2.0060	32.8067
 2.0050	32.5515
 2.0040	32.3373
 2.0030	32.1005
 2.0020	31.9161
 2.0010	31.7003
 2.0000	31.5295
 1.9990	31.2694
 1.9980	31.1274
 1.9970	30.9715
 1.9960	30.8265
 1.9950	30.6519
 1.9940	30.5655
 1.9930	30.4235
 1.9920	30.3867
 1.9910	30.2263
 1.9900	30.1565
 1.9890	30.0792
 1.9880	30.0274
 1.9870	29.9474
 1.9860	29.8756
 1.9850	29.7772
 1.9840	29.7266
 1.9830	29.6379
 1.9820	29.6041
 1.9810	29.5390
 1.9800	29.6348
 1.9790	29.6450
 1.9780	29.6321
 1.9770	29.6344
 1.9760	29.7858
 1.9750	29.7202
 1.9740	29.7599
 1.9730	29.8274
 1.9720	29.9038
 1.9710	29.9274
 1.9700	30.0395
 1.9690	30.0370
 1.9680	30.2128
 1.9670	30.2527
 1.9660	30.3530
 1.9650	30.2980
 1.9640	30.4008
 1.9630	30.4914
 1.9620	30.6143
 1.9610	30.6659
 1.9600	30.7449
 1.9590	30.7997
 1.9580	30.9163
 1.9570	31.0004
 1.9560	31.1065
 1.9550	31.0976
 1.9540	31.2482
 1.9530	31.2911
 1.9520	31.4562
 1.9510	31.4041
 1.9500	31.4412
 1.9490	31.5055
 1.9480	31.6651
 1.9470	31.6610
 1.9460	31.7371
 1.9450	31.7610
 1.9440	31.7425
 1.9430	31.7846
 1.9420	31.8013
 1.9410	31.8533
 1.9400	31.8341
 1.9390	31.8380
 1.9380	31.8376
 1.9370	31.7483
 1.9360	31.8681
 1.9350	31.7747
 1.9340	31.7040
 1.9330	31.7502
 1.9320	31.7549
 1.9310	31.6278
 1.9300	31.6894
 1.9290	31.6248
 1.9280	31.6170
 1.9270	31.6487
 1.9260	31.4109
 1.9250	31.5467
 1.9240	31.5387
 1.9230	31.3827
 1.9220	31.5537
 1.9210	31.4748
 1.9200	31.5965
 1.9190	31.5642
 1.9180	31.6981
 1.9170	31.7132
 1.9160	31.8909
 1.9150	32.0233
 1.9140	32.1707
 1.9130	32.4015
 1.9120	32.6637
 1.9110	32.8733
 1.9100	33.2138
 1.9090	33.5448
 1.9080	34.0562
 1.9070	34.4467
 1.9060	34.9157
 1.9050	35.3291
 1.9040	35.9760
 1.9030	36.5444
 1.9020	37.1003
 1.9010	37.6966
 1.9000	38.3488
 1.8990	39.0956
 1.8980	39.7531
 1.8970	40.3461
 1.8960	40.9676
 1.8950	41.6052
 1.8940	42.2460
 1.8930	42.8999
 1.8920	43.4086
 1.8910	43.9918
 1.8900	44.6619
 1.8890	45.2388
 1.8880	45.8254
 1.8870	46.2199
 1.8860	46.8083
 1.8850	47.1749
 1.8840	47.6267
 1.8830	47.9968
 1.8820	48.4261
 1.8810	48.8171
 1.8800	49.2230
 1.8790	49.5659
 1.8780	49.9716
 1.8770	50.3121
 1.8760	50.6393
 1.8750	50.9401
 1.8740	51.4362
 1.8730	51.7060
 1.8720	52.0842
 1.8710	52.4528
 1.8700	52.6949
 1.8690	52.9412
 1.8680	53.2552
 1.8670	53.3931
 1.8660	53.5450
 1.8650	53.6906
 1.8640	53.8320
 1.8630	53.9128
 1.8620	54.0008
 1.8610	54.0596
 1.8600	54.1535
 1.8590	54.0727
 1.8580	54.2131
 1.8570	54.3089
 1.8560	54.4450
 1.8550	54.5931
 1.8540	54.7056
 1.8530	54.7475
 1.8520	54.9144
 1.8510	55.0422
 1.8500	55.2369
 1.8490	55.4121
 1.8480	55.5548
 1.8470	55.7036
 1.8460	55.8944
 1.8450	55.9912
 1.8440	56.1651
 1.8430	56.2264
 1.8420	56.3791
 1.8410	56.4231
 1.8400	56.4248
 1.8390	56.4787
 1.8380	56.5604
 1.8370	56.5923
 1.8360	56.6935
 1.8350	56.6486
 1.8340	56.7195
 1.8330	56.7854
 1.8320	56.7881
 1.8310	56.7072
 1.8300	56.7256
 1.8290	56.6962
 1.8280	56.7550
 1.8270	56.7293
 1.8260	56.6532
 1.8250	56.5488
 1.8240	56.5559
 1.8230	56.4919
 1.8220	56.3750
 1.8210	56.2679
 1.8200	56.1744
 1.8190	56.1032
 1.8180	56.0414
 1.8170	55.9607
 1.8160	55.9501
 1.8150	55.9304
 1.8140	56.0129
 1.8130	56.0708
 1.8120	56.1633
 1.8110	56.2505
 1.8100	56.4262
 1.8090	56.5888
 1.8080	56.7013
 1.8070	56.8189
 1.8060	56.9955
 1.8050	57.1877
 1.8040	57.3581
 1.8030	57.5093
 1.8020	57.6448
 1.8010	57.7278
 1.8000	57.8495
 1.7990	57.9810
 1.7980	58.0798
 1.7970	58.2101
 1.7960	58.3210
 1.7950	58.3295
 1.7940	58.3690
 1.7930	58.4385
 1.7920	58.4610
 1.7910	58.5059
 1.7900	58.5891
 1.7890	58.5922
 1.7880	58.5712
 1.7870	58.5960
 1.7860	58.6717
 1.7850	58.6752
 1.7840	58.6377
 1.7830	58.6790
 1.7820	58.7436
 1.7810	58.7723
 1.7800	58.7740
 1.7790	58.8005
 1.7780	58.8938
 1.7770	58.9273
 1.7760	58.9261
 1.7750	58.9867
 1.7740	59.0198
 1.7730	59.1071
 1.7720	59.1292
 1.7710	59.1838
 1.7700	59.2339
 1.7690	59.2221
 1.7680	59.2827
 1.7670	59.4187
 1.7660	59.4987
 1.7650	59.5827
 1.7640	59.6209
 1.7630	59.7155
 1.7620	59.7940
 1.7610	59.9018
 1.7600	59.9842
 1.7590	60.0975
 1.7580	60.1593
 1.7570	60.2216
 1.7560	60.3430
 1.7550	60.4423
 1.7540	60.5128
 1.7530	60.6029
 1.7520	60.6666
 1.7510	60.7310
 1.7500	60.7632
 1.7490	60.8769
 1.7480	60.9621
 1.7470	60.9829
 1.7460	61.0534
 1.7450	61.1477
 1.7440	61.1864
 1.7430	61.2265
 1.7420	61.3222
 1.7410	61.4447
 1.7400	61.5308
 1.7390	61.6176
 1.7380	61.6647
 1.7370	61.7302
 1.7360	61.7895
 1.7350	61.8139
 1.7340	61.8282
 1.7330	61.9079
 1.7320	61.9260
 1.7310	61.9967
 1.7300	62.0151
 1.7290	62.1160
 1.7280	62.1559
 1.7270	62.1801
 1.7260	62.2413
 1.7250	62.3618
 1.7240	62.4220
 1.7230	62.4542
 1.7220	62.5108
 1.7210	62.6366
 1.7200	62.6896
 1.7190	62.7137
 1.7180	62.8156
 1.7170	62.8665
 1.7160	62.8967
 1.7150	62.9470
 1.7140	62.9963
 1.7130	63.0276
 1.7120	63.1221
 1.7110	63.1619
 1.7100	63.2131
 1.7090	63.2772
 1.7080	63.2830
 1.7070	63.3519
 1.7060	63.4005
 1.7050	63.5062
 1.7040	63.5414
 1.7030	63.5531
 1.7020	63.4883
 1.7010	63.5637
 1.7000	63.6063
 1.6990	63.7113
 1.6980	63.7322
 1.6970	63.8101
 1.6960	63.7732
 1.6950	63.7588
 1.6940	63.7785
 1.6930	63.9263
 1.6920	63.8889
 1.6910	63.8512
 1.6900	63.9241
 1.6890	64.0099
 1.6880	64.0152
 1.6870	64.0203
 1.6860	64.0063
 1.6850	64.1337
 1.6840	64.0481
 1.6830	64.1154
 1.6820	64.0905
 1.6810	64.1277
 1.6800	64.1503
 1.6790	64.1980
 1.6780	64.1907
 1.6770	64.1358
 1.6760	64.1036
 1.6750	64.1911
 1.6740	64.2330
 1.6730	64.2259
 1.6720	64.2224
 1.6710	64.2292
 1.6700	64.2196
 1.6690	64.3564
 1.6680	64.3415
 1.6670	64.3876
 1.6660	64.3708
 1.6650	64.4054
 1.6640	64.3200
 1.6630	64.3263
 1.6620	64.3733
 1.6610	64.3974
 1.6600	64.4308
 1.6590	64.4624
 1.6580	64.4220
 1.6570	64.4275
 1.6560	64.4149
 1.6550	64.4818
 1.6540	64.4429
 1.6530	64.5006
 1.6520	64.4508
 1.6510	64.4542
 1.6500	64.3890
 1.6490	64.5016
 1.6480	64.4994
 1.6470	64.5583
 1.6460	64.4362
 1.6450	64.5137
 1.6440	64.4012
 1.6430	64.5295
 1.6420	64.4974
 1.6410	64.3861
 1.6400	64.4916
 1.6390	64.4087
 1.6380	64.4269
 1.6370	64.4612
 1.6360	64.3910
 1.6350	64.3845
 1.6340	64.4696
 1.6330	64.3668
 1.6320	64.2981
 1.6310	64.3734
 1.6300	64.4303
 1.6290	64.3195
 1.6280	64.3125
 1.6270	64.3645
 1.6260	64.3138
 1.6250	64.3574
 1.6240	64.3314
 1.6230	64.3357
 1.6220	64.2303
 1.6210	64.3253
 1.6200	64.2612
 1.6190	64.2206
 1.6180	64.2032
 1.6170	64.1849
 1.6160	64.2199
 1.6150	64.1527
 1.6140	64.2077
 1.6130	64.1302
 1.6120	64.0979
 1.6110	64.1604
 1.6100	64.1248
 1.6090	64.1430
 1.6080	64.0936
 1.6070	64.1147
 1.6060	64.0361
 1.6050	63.9847
 1.6040	63.9908
 1.6030	64.0085
 1.6020	64.0399
 1.6010	63.8994
 1.6000	63.9480
 1.5990	63.9273
 1.5980	63.8515
 1.5970	63.8510
 1.5960	63.8697
 1.5950	63.8834
 1.5940	63.7080
 1.5930	63.7232
 1.5920	63.7073
 1.5910	63.6578
 1.5900	63.6749
 1.5890	63.6843
 1.5880	63.5454
 1.5870	63.5957
 1.5860	63.4614
 1.5850	63.4978
 1.5840	63.5529
 1.5830	63.4930
 1.5820	63.4442
 1.5810	63.3766
 1.5800	63.3563
 1.5790	63.2904
 1.5780	63.3437
 1.5770	63.2934
 1.5760	63.2217
 1.5750	63.1755
 1.5740	63.0404
 1.5730	63.0195
 1.5720	63.0105
 1.5710	62.9559
 1.5700	62.8389
 1.5690	62.8383
 1.5680	62.8145
 1.5670	62.7840
 1.5660	62.7149
 1.5650	62.7435
 1.5640	62.6529
 1.5630	62.6443
 1.5620	62.5728
 1.5610	62.5300
 1.5600	62.4809
 1.5590	62.4850
 1.5580	62.4370
 1.5570	62.4606
 1.5560	62.3304
 1.5550	62.2744
 1.5540	62.2255
 1.5530	62.1809
 1.5520	62.1130
 1.5510	62.0897
 1.5500	62.0970
 1.5490	62.0594
 1.5480	62.0092
 1.5470	61.9727
 1.5460	61.9328
 1.5450	61.8476
 1.5440	61.8054
 1.5430	61.7835
 1.5420	61.6368
 1.5410	61.6199
 1.5400	61.5223
 1.5390	61.4351
 1.5380	61.3446
 1.5370	61.2383
 1.5360	61.1484
 1.5350	61.1223
 1.5340	61.0938
 1.5330	61.0077
 1.5320	60.9276
 1.5310	60.8859
 1.5300	60.7489
 1.5290	60.6591
 1.5280	60.5939
 1.5270	60.5065
 1.5260	60.4806
 1.5250	60.4488
 1.5240	60.3625
 1.5230	60.2913
 1.5220	60.2664
 1.5210	60.1971
 1.5200	60.2017
 1.5190	60.1835
 1.5180	60.0953
 1.5170	60.0389
 1.5160	60.0052
 1.5150	59.9548
 1.5140	59.8322
 1.5130	59.7179
 1.5120	59.5782
 1.5110	59.4430
 1.5100	59.3464
 1.5090	59.2869
 1.5080	59.2184
 1.5070	59.1522
 1.5060	59.1440
 1.5050	59.1586
 1.5040	59.1813
 1.5030	59.1886
 1.5020	59.2028
 1.5010	59.1465
 1.5000	59.0079
 1.4990	58.9611
 1.4980	58.8561
 1.4970	58.7271
 1.4960	58.6713
 1.4950	58.5726
 1.4940	58.5176
 1.4930	58.4769
 1.4920	58.3535
 1.4910	58.2085
 1.4900	58.1341
 1.4890	57.9880
 1.4880	57.8567
 1.4870	57.7005
 1.4860	57.5944
 1.4850	57.5276
 1.4840	57.4189
 1.4830	57.3444
 1.4820	57.3197
 1.4810	57.2602
 1.4800	57.1139
 1.4790	57.0009
 1.4780	56.9335
 1.4770	56.8194
 1.4760	56.7662
 1.4750	56.7019
 1.4740	56.6240
 1.4730	56.5502
 1.4720	56.4241
 1.4710	56.3171
 1.4700	56.2201
 1.4690	56.1081
 1.4680	56.0534
 1.4670	55.9360
 1.4660	55.8774
 1.4650	55.8250
 1.4640	55.7583
 1.4630	55.6735
 1.4620	55.6775
 1.4610	55.5970
 1.4600	55.4871
 1.4590	55.4582
 1.4580	55.3952
 1.4570	55.2629
 1.4560	55.2215
 1.4550	55.1351
 1.4540	55.1163
 1.4530	55.0118
 1.4520	54.8996
 1.4510	54.8802
 1.4500	54.8313
 1.4490	54.7251
 1.4480	54.6235
 1.4470	54.4882
 1.4460	54.4671
 1.4450	54.3317
 1.4440	54.2141
 1.4430	54.1523
 1.4420	54.0322
 1.4410	53.9228
 1.4400	53.7561
 1.4390	53.5572
 1.4380	53.4489
 1.4370	53.3408
 1.4360	53.1391
 1.4350	52.9574
 1.4340	52.8573
 1.4330	52.6808
 1.4320	52.5234
 1.4310	52.3219
 1.4300	52.1165
 1.4290	51.8407
 1.4280	51.6911
 1.4270	51.4227
 1.4260	51.2187
 1.4250	50.9458
 1.4240	50.6671
 1.4230	50.4102
 1.4220	50.2567
 1.4210	50.0621
 1.4200	50.0475
 1.4190	49.8293
 1.4180	49.7446
 1.4170	49.5114
 1.4160	49.1903
 1.4150	48.6253
 1.4140	47.8611
 1.4130	46.9603
 1.4120	45.9315
 1.4110	44.7573
 1.4100	43.3909
 1.4090	41.8594
 1.4080	40.3579
 1.4070	38.9468
 1.4060	37.6250
 1.4050	36.2694
 1.4040	35.0176
 1.4030	33.6757
 1.4020	32.1732
 1.4010	30.2872
 1.4000	28.0118
 1.3990	25.6154
 1.3980	22.6551
 1.3970	19.4685
 1.3960	16.5296
 1.3950	14.3779
 1.3940	13.7928
 1.3930	14.2478
 1.3920	15.2987
 1.3910	16.0059
 1.3900	16.6266
 1.3890	16.7820
 1.3880	17.1997
 1.3870	17.7154
 1.3860	18.3167
 1.3850	18.0470
 1.3840	17.3826
 1.3830	17.4185
 1.3820	19.4261
 1.3810	23.8112
 1.3800	30.0614
 1.3790	36.8811
 1.3780	42.6157
 1.3770	46.3373
 1.3760	48.5323
 1.3750	49.7211
 1.3740	50.8101
 1.3730	51.6097
 1.3720	52.4003
 1.3710	52.7242
 1.3700	52.8623
 1.3690	52.7766
 1.3680	52.5155
 1.3670	51.6837
