Name: Serpentine (Mg,Fe^2+,Ni)Si_2O_5(OH)_4
Type: Mineral
Class: Silicate
Subclass: Phyllosilicate
Particle Size: Fine
Sample No.: PS-20A
Owner: JPL
Wavelength Range: VSWIR
Origin: USA, New York.
Collection Date: N/A
Description: Particle size was 0-45um.Collected by:  Ward's Original ASTER Spectral Library name was jpl.perkin.mineral.silicate.phyllosilicate.fine.ps20a.spectrum.txt
Measurement: Hemispherical reflectance
First Column: X
Second Column: Y
X Units: Wavelength (micrometers)
Y Units:Reflectance (percent)
First X Value:  2.5000
Last X Value:  0.4000
Number of X Values: 2101
Additional Information: mineral.silicate.phyllosilicate.fine.vswir.ps-20a.jpl.perkin.ancillary.txt

 2.5000	37.8503
 2.4990	37.9698
 2.4980	38.0782
 2.4970	38.3588
 2.4960	38.2173
 2.4950	38.9852
 2.4940	38.8494
 2.4930	39.1660
 2.4920	39.0286
 2.4910	39.5592
 2.4900	39.6209
 2.4890	39.8843
 2.4880	40.0458
 2.4870	40.3958
 2.4860	40.3090
 2.4850	40.6222
 2.4840	40.5782
 2.4830	40.8685
 2.4820	40.9087
 2.4810	41.0636
 2.4800	41.0923
 2.4790	41.3283
 2.4780	41.3666
 2.4770	41.6421
 2.4760	41.8086
 2.4750	42.1036
 2.4740	42.1126
 2.4730	42.3249
 2.4720	42.5410
 2.4710	42.7797
 2.4700	43.1363
 2.4690	43.2704
 2.4680	43.6434
 2.4670	44.0040
 2.4660	44.0235
 2.4650	44.2785
 2.4640	44.4270
 2.4630	44.6058
 2.4620	44.6774
 2.4610	44.9817
 2.4600	45.0484
 2.4590	45.3672
 2.4580	45.2326
 2.4570	45.4389
 2.4560	45.4737
 2.4550	45.4987
 2.4540	45.5503
 2.4530	45.5309
 2.4520	45.3205
 2.4510	45.3862
 2.4500	45.3894
 2.4490	45.3050
 2.4480	45.2314
 2.4470	45.0897
 2.4460	44.9226
 2.4450	44.7835
 2.4440	44.4719
 2.4430	44.4772
 2.4420	44.1675
 2.4410	44.2195
 2.4400	44.0270
 2.4390	43.8826
 2.4380	43.6844
 2.4370	43.6070
 2.4360	43.5425
 2.4350	43.5155
 2.4340	43.4243
 2.4330	43.5029
 2.4320	43.4262
 2.4310	43.4692
 2.4300	43.5189
 2.4290	43.6097
 2.4280	43.6760
 2.4270	43.7332
 2.4260	43.7836
 2.4250	43.9826
 2.4240	44.0287
 2.4230	44.2940
 2.4220	44.3308
 2.4210	44.3759
 2.4200	44.5516
 2.4190	44.6644
 2.4180	44.8069
 2.4170	44.9761
 2.4160	44.9560
 2.4150	45.0698
 2.4140	45.0724
 2.4130	45.1084
 2.4120	45.1785
 2.4110	45.2745
 2.4100	45.2966
 2.4090	45.3870
 2.4080	45.3250
 2.4070	45.3031
 2.4060	45.2810
 2.4050	45.3736
 2.4040	45.3547
 2.4030	45.3929
 2.4020	45.4547
 2.4010	45.5449
 2.4000	45.5880
 2.3990	45.6196
 2.3980	45.5738
 2.3970	45.7097
 2.3960	45.8089
 2.3950	45.8718
 2.3940	45.9277
 2.3930	46.0349
 2.3920	46.1855
 2.3910	46.3004
 2.3900	46.3133
 2.3890	46.4854
 2.3880	46.5480
 2.3870	46.7568
 2.3860	46.8997
 2.3850	46.9625
 2.3840	47.0637
 2.3830	47.2362
 2.3820	47.3010
 2.3810	47.4507
 2.3800	47.5740
 2.3790	47.6908
 2.3780	47.8159
 2.3770	47.9064
 2.3760	47.9662
 2.3750	48.0999
 2.3740	48.2011
 2.3730	48.3718
 2.3720	48.5245
 2.3710	48.6691
 2.3700	48.7353
 2.3690	48.8945
 2.3680	49.0945
 2.3670	49.2939
 2.3660	49.3815
 2.3650	49.5664
 2.3640	49.7844
 2.3630	49.8931
 2.3620	49.9820
 2.3610	50.1184
 2.3600	50.2085
 2.3590	50.2158
 2.3580	50.2175
 2.3570	50.1980
 2.3560	50.1161
 2.3550	50.0271
 2.3540	49.9156
 2.3530	49.6743
 2.3520	49.3365
 2.3510	48.9550
 2.3500	48.5785
 2.3490	48.1478
 2.3480	47.6529
 2.3470	47.1154
 2.3460	46.4615
 2.3450	45.8008
 2.3440	45.2169
 2.3430	44.6440
 2.3420	44.0434
 2.3410	43.4404
 2.3400	42.8803
 2.3390	42.3144
 2.3380	41.7989
 2.3370	41.3212
 2.3360	40.9141
 2.3350	40.5417
 2.3340	40.2634
 2.3330	39.9937
 2.3320	39.7773
 2.3310	39.6011
 2.3300	39.4721
 2.3290	39.4036
 2.3280	39.4656
 2.3270	39.4797
 2.3260	39.5424
 2.3250	39.6324
 2.3240	39.7766
 2.3230	39.8825
 2.3220	40.1114
 2.3210	40.3111
 2.3200	40.5904
 2.3190	40.8372
 2.3180	41.1561
 2.3170	41.3888
 2.3160	41.7670
 2.3150	42.0937
 2.3140	42.4459
 2.3130	42.7952
 2.3120	43.2287
 2.3110	43.6275
 2.3100	44.0981
 2.3090	44.4718
 2.3080	44.8856
 2.3070	45.3099
 2.3060	45.7842
 2.3050	46.1515
 2.3040	46.6007
 2.3030	46.8911
 2.3020	47.2563
 2.3010	47.5879
 2.3000	47.8300
 2.2990	48.1208
 2.2980	48.4198
 2.2970	48.6828
 2.2960	48.9308
 2.2950	49.1994
 2.2940	49.4466
 2.2930	49.5290
 2.2920	49.7949
 2.2910	50.0410
 2.2900	50.1323
 2.2890	50.2799
 2.2880	50.4027
 2.2870	50.4733
 2.2860	50.6044
 2.2850	50.6210
 2.2840	50.7393
 2.2830	50.7113
 2.2820	50.7604
 2.2810	50.7620
 2.2800	50.7726
 2.2790	50.7058
 2.2780	50.6762
 2.2770	50.5782
 2.2760	50.5780
 2.2750	50.6194
 2.2740	50.6180
 2.2730	50.6681
 2.2720	50.7345
 2.2710	50.8052
 2.2700	50.9579
 2.2690	51.0255
 2.2680	51.2500
 2.2670	51.4527
 2.2660	51.7576
 2.2650	52.1658
 2.2640	52.4911
 2.2630	52.7268
 2.2620	53.1816
 2.2610	53.4434
 2.2600	53.9698
 2.2590	54.2105
 2.2580	54.5379
 2.2570	54.8543
 2.2560	55.0594
 2.2550	55.2554
 2.2540	55.4058
 2.2530	55.5655
 2.2520	55.6854
 2.2510	55.6933
 2.2500	55.8642
 2.2490	55.8223
 2.2480	55.8599
 2.2470	55.8762
 2.2460	56.0615
 2.2450	56.0768
 2.2440	56.2294
 2.2430	56.3814
 2.2420	56.5634
 2.2410	56.5749
 2.2400	56.8277
 2.2390	57.0796
 2.2380	57.3269
 2.2370	57.5625
 2.2360	57.8465
 2.2350	58.0964
 2.2340	58.5151
 2.2330	58.6808
 2.2320	59.1595
 2.2310	59.3822
 2.2300	59.8423
 2.2290	60.0549
 2.2280	60.4632
 2.2270	60.6472
 2.2260	61.0075
 2.2250	61.2144
 2.2240	61.6153
 2.2230	61.6240
 2.2220	61.9624
 2.2210	62.0593
 2.2200	62.3848
 2.2190	62.3571
 2.2180	62.6877
 2.2170	62.7294
 2.2160	62.8652
 2.2150	62.9707
 2.2140	63.0841
 2.2130	63.1819
 2.2120	63.3372
 2.2110	63.2717
 2.2100	63.4945
 2.2090	63.4631
 2.2080	63.6097
 2.2070	63.4798
 2.2060	63.6689
 2.2050	63.7063
 2.2040	63.8708
 2.2030	63.8152
 2.2020	63.9570
 2.2010	63.9336
 2.2000	63.9900
 2.1990	63.8365
 2.1980	64.0472
 2.1970	64.0838
 2.1960	64.0746
 2.1950	64.1073
 2.1940	64.1512
 2.1930	64.1375
 2.1920	64.2610
 2.1910	64.1917
 2.1900	64.2446
 2.1890	64.2617
 2.1880	64.3422
 2.1870	64.3252
 2.1860	64.3121
 2.1850	64.3957
 2.1840	64.4034
 2.1830	64.4397
 2.1820	64.4115
 2.1810	64.3703
 2.1800	64.4958
 2.1790	64.4037
 2.1780	64.4383
 2.1770	64.4703
 2.1760	64.5650
 2.1750	64.4910
 2.1740	64.5234
 2.1730	64.5447
 2.1720	64.4806
 2.1710	64.4754
 2.1700	64.5572
 2.1690	64.5526
 2.1680	64.6018
 2.1670	64.5496
 2.1660	64.5697
 2.1650	64.5194
 2.1640	64.5609
 2.1630	64.6256
 2.1620	64.6213
 2.1610	64.5078
 2.1600	64.4769
 2.1590	64.4752
 2.1580	64.4185
 2.1570	64.3253
 2.1560	64.3687
 2.1550	64.2472
 2.1540	64.1613
 2.1530	64.1064
 2.1520	63.9476
 2.1510	63.8655
 2.1500	63.7964
 2.1490	63.6079
 2.1480	63.6030
 2.1470	63.4371
 2.1460	63.2987
 2.1450	63.1282
 2.1440	62.9979
 2.1430	62.8761
 2.1420	62.6701
 2.1410	62.5207
 2.1400	62.4247
 2.1390	62.1537
 2.1380	62.0416
 2.1370	61.8875
 2.1360	61.7100
 2.1350	61.5189
 2.1340	61.4064
 2.1330	61.3076
 2.1320	61.2796
 2.1310	61.2263
 2.1300	61.1274
 2.1290	61.1455
 2.1280	61.2149
 2.1270	61.1374
 2.1260	61.2603
 2.1250	61.3152
 2.1240	61.3542
 2.1230	61.4301
 2.1220	61.4166
 2.1210	61.5085
 2.1200	61.4458
 2.1190	61.3341
 2.1180	61.2657
 2.1170	61.2143
 2.1160	61.1909
 2.1150	61.0981
 2.1140	61.0619
 2.1130	61.0347
 2.1120	60.9881
 2.1110	60.9568
 2.1100	60.9851
 2.1090	60.9958
 2.1080	60.9791
 2.1070	61.0196
 2.1060	61.0642
 2.1050	61.0933
 2.1040	61.1417
 2.1030	61.1156
 2.1020	61.1419
 2.1010	61.2105
 2.1000	61.1581
 2.0990	61.1448
 2.0980	61.1770
 2.0970	61.1678
 2.0960	61.2261
 2.0950	61.2201
 2.0940	61.2681
 2.0930	61.4195
 2.0920	61.5337
 2.0910	61.5602
 2.0900	61.6565
 2.0890	61.7926
 2.0880	61.9587
 2.0870	62.1406
 2.0860	62.2646
 2.0850	62.3567
 2.0840	62.4905
 2.0830	62.5989
 2.0820	62.7573
 2.0810	62.8956
 2.0800	62.9894
 2.0790	63.0658
 2.0780	63.1654
 2.0770	63.2870
 2.0760	63.3731
 2.0750	63.4750
 2.0740	63.6228
 2.0730	63.6817
 2.0720	63.7531
 2.0710	63.8308
 2.0700	63.8412
 2.0690	63.8824
 2.0680	63.9115
 2.0670	63.8719
 2.0660	63.8433
 2.0650	63.8350
 2.0640	63.8605
 2.0630	63.8381
 2.0620	63.8013
 2.0610	63.7305
 2.0600	63.6604
 2.0590	63.6403
 2.0580	63.5119
 2.0570	63.4601
 2.0560	63.4308
 2.0550	63.3164
 2.0540	63.1688
 2.0530	63.0733
 2.0520	63.0203
 2.0510	62.8977
 2.0500	62.7125
 2.0490	62.6159
 2.0480	62.5621
 2.0470	62.4669
 2.0460	62.3832
 2.0450	62.2753
 2.0440	62.2229
 2.0430	62.1765
 2.0420	62.0758
 2.0410	62.0383
 2.0400	61.9497
 2.0390	61.8675
 2.0380	61.8106
 2.0370	61.7832
 2.0360	61.7152
 2.0350	61.6825
 2.0340	61.6493
 2.0330	61.6203
 2.0320	61.5520
 2.0310	61.5123
 2.0300	61.4510
 2.0290	61.4981
 2.0280	61.5072
 2.0270	61.4727
 2.0260	61.4453
 2.0250	61.4660
 2.0240	61.4029
 2.0230	61.4193
 2.0220	61.3533
 2.0210	61.2983
 2.0200	61.3007
 2.0190	61.2635
 2.0180	61.2502
 2.0170	61.1840
 2.0160	61.1130
 2.0150	61.1084
 2.0140	61.0545
 2.0130	60.9742
 2.0120	60.8566
 2.0110	60.8622
 2.0100	60.7992
 2.0090	60.8075
 2.0080	60.6840
 2.0070	60.6074
 2.0060	60.4743
 2.0050	60.4302
 2.0040	60.2994
 2.0030	60.2075
 2.0020	60.0197
 2.0010	60.0251
 2.0000	59.8536
 1.9990	59.7329
 1.9980	59.6883
 1.9970	59.6122
 1.9960	59.5116
 1.9950	59.4822
 1.9940	59.4304
 1.9930	59.4117
 1.9920	59.3022
 1.9910	59.2905
 1.9900	59.1791
 1.9890	59.1686
 1.9880	59.0683
 1.9870	59.0336
 1.9860	58.9568
 1.9850	58.9479
 1.9840	58.8244
 1.9830	58.9261
 1.9820	58.8934
 1.9810	58.8598
 1.9800	58.7914
 1.9790	58.7607
 1.9780	58.6986
 1.9770	58.8140
 1.9760	58.7247
 1.9750	58.8069
 1.9740	58.7607
 1.9730	58.8169
 1.9720	58.6979
 1.9710	58.8063
 1.9700	58.7110
 1.9690	58.8178
 1.9680	58.7631
 1.9670	58.7997
 1.9660	58.8001
 1.9650	58.8244
 1.9640	58.8136
 1.9630	58.9318
 1.9620	58.8302
 1.9610	58.8328
 1.9600	58.9071
 1.9590	58.9356
 1.9580	58.9244
 1.9570	59.0257
 1.9560	58.9179
 1.9550	58.9664
 1.9540	58.9185
 1.9530	59.0864
 1.9520	58.9304
 1.9510	58.9406
 1.9500	59.0449
 1.9490	59.0600
 1.9480	58.4706
 1.9470	59.0217
 1.9460	59.0297
 1.9450	59.0626
 1.9440	59.0548
 1.9430	59.0011
 1.9420	58.9799
 1.9410	58.9594
 1.9400	58.9623
 1.9390	59.0618
 1.9380	58.8805
 1.9370	58.9444
 1.9360	58.9224
 1.9350	58.9450
 1.9340	58.8659
 1.9330	58.8964
 1.9320	58.8192
 1.9310	58.8794
 1.9300	58.6698
 1.9290	58.8178
 1.9280	58.8762
 1.9270	58.8149
 1.9260	58.6218
 1.9250	58.7858
 1.9240	58.6446
 1.9230	58.7367
 1.9220	58.7604
 1.9210	58.8163
 1.9200	58.7074
 1.9190	58.8187
 1.9180	58.7385
 1.9170	58.8539
 1.9160	58.8782
 1.9150	59.0620
 1.9140	59.0418
 1.9130	59.1734
 1.9120	59.3721
 1.9110	59.4440
 1.9100	59.5483
 1.9090	59.7839
 1.9080	59.9216
 1.9070	60.1917
 1.9060	60.3422
 1.9050	60.6530
 1.9040	60.9464
 1.9030	61.1517
 1.9020	61.4200
 1.9010	61.7316
 1.9000	61.9457
 1.8990	62.2602
 1.8980	62.4713
 1.8970	62.7544
 1.8960	63.0152
 1.8950	63.2965
 1.8940	63.5177
 1.8930	63.7795
 1.8920	63.9560
 1.8910	64.2534
 1.8900	64.3738
 1.8890	64.6278
 1.8880	64.8503
 1.8870	65.0676
 1.8860	65.1523
 1.8850	65.3440
 1.8840	65.4328
 1.8830	65.6140
 1.8820	65.7814
 1.8810	65.9382
 1.8800	66.0153
 1.8790	66.1976
 1.8780	66.2547
 1.8770	66.4065
 1.8760	66.4962
 1.8750	66.6703
 1.8740	66.7724
 1.8730	66.9220
 1.8720	67.0143
 1.8710	67.1635
 1.8700	67.2445
 1.8690	67.3157
 1.8680	67.3853
 1.8670	67.4891
 1.8660	67.4483
 1.8650	67.5653
 1.8640	67.6311
 1.8630	67.7417
 1.8620	67.6199
 1.8610	67.7610
 1.8600	67.7536
 1.8590	67.7863
 1.8580	67.8040
 1.8570	67.8574
 1.8560	67.8549
 1.8550	67.8366
 1.8540	67.9047
 1.8530	67.9591
 1.8520	68.0120
 1.8510	68.0696
 1.8500	68.0801
 1.8490	68.0891
 1.8480	68.1148
 1.8470	68.1857
 1.8460	68.2037
 1.8450	68.1728
 1.8440	68.1825
 1.8430	68.2783
 1.8420	68.3331
 1.8410	68.3976
 1.8400	68.3340
 1.8390	68.3301
 1.8380	68.3209
 1.8370	68.3660
 1.8360	68.3540
 1.8350	68.2878
 1.8340	68.3735
 1.8330	68.3898
 1.8320	68.4359
 1.8310	68.4464
 1.8300	68.4609
 1.8290	68.4373
 1.8280	68.3790
 1.8270	68.3726
 1.8260	68.3995
 1.8250	68.3765
 1.8240	68.2932
 1.8230	68.3830
 1.8220	68.4173
 1.8210	68.3574
 1.8200	68.3063
 1.8190	68.2878
 1.8180	68.2710
 1.8170	68.3059
 1.8160	68.3167
 1.8150	68.3363
 1.8140	68.2751
 1.8130	68.3064
 1.8120	68.3805
 1.8110	68.3788
 1.8100	68.3674
 1.8090	68.4288
 1.8080	68.4326
 1.8070	68.4514
 1.8060	68.4727
 1.8050	68.4918
 1.8040	68.5609
 1.8030	68.6302
 1.8020	68.6568
 1.8010	68.6066
 1.8000	68.6486
 1.7990	68.6742
 1.7980	68.6458
 1.7970	68.6910
 1.7960	68.7229
 1.7950	68.7057
 1.7940	68.7124
 1.7930	68.6851
 1.7920	68.6997
 1.7910	68.7069
 1.7900	68.7389
 1.7890	68.8206
 1.7880	68.7777
 1.7870	68.7112
 1.7860	68.7327
 1.7850	68.7669
 1.7840	68.7827
 1.7830	68.7469
 1.7820	68.7286
 1.7810	68.7410
 1.7800	68.7621
 1.7790	68.7863
 1.7780	68.7220
 1.7770	68.6955
 1.7760	68.7695
 1.7750	68.7945
 1.7740	68.7823
 1.7730	68.7878
 1.7720	68.8321
 1.7710	68.8532
 1.7700	68.8556
 1.7690	68.8229
 1.7680	68.8317
 1.7670	68.8698
 1.7660	68.9095
 1.7650	68.8841
 1.7640	68.9204
 1.7630	68.9015
 1.7620	68.9352
 1.7610	68.9325
 1.7600	68.9088
 1.7590	68.9262
 1.7580	68.9656
 1.7570	68.9549
 1.7560	68.9593
 1.7550	68.9833
 1.7540	69.0785
 1.7530	69.0649
 1.7520	69.0527
 1.7510	69.0770
 1.7500	69.1045
 1.7490	69.0715
 1.7480	69.0463
 1.7470	69.1646
 1.7460	69.1756
 1.7450	69.1476
 1.7440	69.2152
 1.7430	69.2027
 1.7420	69.2031
 1.7410	69.2150
 1.7400	69.2774
 1.7390	69.2593
 1.7380	69.2502
 1.7370	69.2223
 1.7360	69.3134
 1.7350	69.3832
 1.7340	69.2880
 1.7330	69.2964
 1.7320	69.3069
 1.7310	69.2553
 1.7300	69.3692
 1.7290	69.4088
 1.7280	69.4027
 1.7270	69.4097
 1.7260	69.4046
 1.7250	69.3735
 1.7240	69.4049
 1.7230	69.3706
 1.7220	69.4096
 1.7210	69.3689
 1.7200	69.4171
 1.7190	69.4306
 1.7180	69.4574
 1.7170	69.4472
 1.7160	69.4448
 1.7150	69.4081
 1.7140	69.5148
 1.7130	69.5248
 1.7120	69.4977
 1.7110	69.5127
 1.7100	69.5140
 1.7090	69.5377
 1.7080	69.5291
 1.7070	69.5460
 1.7060	69.5520
 1.7050	69.5289
 1.7040	69.5656
 1.7030	69.4973
 1.7020	69.5355
 1.7010	69.5232
 1.7000	69.5186
 1.6990	69.5295
 1.6980	69.5663
 1.6970	69.4893
 1.6960	69.5565
 1.6950	69.5871
 1.6940	69.5909
 1.6930	69.5215
 1.6920	69.5802
 1.6910	69.6455
 1.6900	69.6597
 1.6890	69.5462
 1.6880	69.5340
 1.6870	69.5291
 1.6860	69.5752
 1.6850	69.5391
 1.6840	69.5726
 1.6830	69.5023
 1.6820	69.6170
 1.6810	69.5198
 1.6800	69.6107
 1.6790	69.5684
 1.6780	69.6965
 1.6770	69.5249
 1.6760	69.5651
 1.6750	69.5182
 1.6740	69.5507
 1.6730	69.4829
 1.6720	69.5616
 1.6710	69.5334
 1.6700	69.6052
 1.6690	69.5926
 1.6680	69.5127
 1.6670	69.6333
 1.6660	69.5627
 1.6650	69.6075
 1.6640	69.5989
 1.6630	69.5829
 1.6620	69.6100
 1.6610	69.6692
 1.6600	69.5836
 1.6590	69.6709
 1.6580	69.7453
 1.6570	69.5674
 1.6560	69.6348
 1.6550	69.6082
 1.6540	69.6986
 1.6530	69.5949
 1.6520	69.6720
 1.6510	69.5589
 1.6500	69.6017
 1.6490	69.5513
 1.6480	69.6310
 1.6470	69.5846
 1.6460	69.5110
 1.6450	69.6267
 1.6440	69.7053
 1.6430	69.6192
 1.6420	69.5638
 1.6410	69.5395
 1.6400	69.7007
 1.6390	69.5392
 1.6380	69.5958
 1.6370	69.5528
 1.6360	69.6800
 1.6350	69.5366
 1.6340	69.5627
 1.6330	69.5668
 1.6320	69.6225
 1.6310	69.5108
 1.6300	69.5668
 1.6290	69.6061
 1.6280	69.5920
 1.6270	69.6349
 1.6260	69.5632
 1.6250	69.5438
 1.6240	69.5599
 1.6230	69.6183
 1.6220	69.5755
 1.6210	69.5297
 1.6200	69.6046
 1.6190	69.4707
 1.6180	69.5795
 1.6170	69.5056
 1.6160	69.6276
 1.6150	69.4662
 1.6140	69.4843
 1.6130	69.4320
 1.6120	69.5260
 1.6110	69.4805
 1.6100	69.5329
 1.6090	69.5186
 1.6080	69.6453
 1.6070	69.5388
 1.6060	69.5741
 1.6050	69.4658
 1.6040	69.5061
 1.6030	69.5292
 1.6020	69.5146
 1.6010	69.4789
 1.6000	69.5014
 1.5990	69.4697
 1.5980	69.4278
 1.5970	69.4453
 1.5960	69.5297
 1.5950	69.3956
 1.5940	69.4281
 1.5930	69.4037
 1.5920	69.3976
 1.5910	69.3717
 1.5900	69.5431
 1.5890	69.3659
 1.5880	69.4715
 1.5870	69.4273
 1.5860	69.4450
 1.5850	69.3883
 1.5840	69.3718
 1.5830	69.2947
 1.5820	69.3055
 1.5810	69.3182
 1.5800	69.2814
 1.5790	69.2777
 1.5780	69.2709
 1.5770	69.2553
 1.5760	69.2865
 1.5750	69.3273
 1.5740	69.3125
 1.5730	69.2104
 1.5720	69.3221
 1.5710	69.2372
 1.5700	69.2304
 1.5690	69.2150
 1.5680	69.2271
 1.5670	69.2093
 1.5660	69.1908
 1.5650	69.1980
 1.5640	69.2333
 1.5630	69.1853
 1.5620	69.1286
 1.5610	69.1824
 1.5600	69.1775
 1.5590	69.1301
 1.5580	69.1321
 1.5570	69.0928
 1.5560	69.0530
 1.5550	69.0558
 1.5540	69.0622
 1.5530	69.0449
 1.5520	69.0559
 1.5510	69.0730
 1.5500	69.0738
 1.5490	69.0576
 1.5480	68.9486
 1.5470	68.9607
 1.5460	69.0309
 1.5450	68.9456
 1.5440	68.9648
 1.5430	69.0098
 1.5420	68.9434
 1.5410	68.8592
 1.5400	68.8262
 1.5390	68.8881
 1.5380	68.8633
 1.5370	68.7895
 1.5360	68.7842
 1.5350	68.7707
 1.5340	68.7888
 1.5330	68.7111
 1.5320	68.6949
 1.5310	68.7029
 1.5300	68.7593
 1.5290	68.6827
 1.5280	68.6556
 1.5270	68.5840
 1.5260	68.5704
 1.5250	68.5918
 1.5240	68.5681
 1.5230	68.5882
 1.5220	68.6066
 1.5210	68.5605
 1.5200	68.5291
 1.5190	68.5553
 1.5180	68.5412
 1.5170	68.5236
 1.5160	68.5104
 1.5150	68.4596
 1.5140	68.4365
 1.5130	68.4071
 1.5120	68.3945
 1.5110	68.3929
 1.5100	68.3533
 1.5090	68.2983
 1.5080	68.2815
 1.5070	68.2740
 1.5060	68.2507
 1.5050	68.2943
 1.5040	68.3016
 1.5030	68.2475
 1.5020	68.2365
 1.5010	68.2073
 1.5000	68.1688
 1.4990	68.1074
 1.4980	68.0402
 1.4970	68.0257
 1.4960	68.1044
 1.4950	68.0828
 1.4940	68.0501
 1.4930	68.0352
 1.4920	68.0209
 1.4910	67.9978
 1.4900	67.9729
 1.4890	67.9369
 1.4880	67.9286
 1.4870	67.9675
 1.4860	67.8786
 1.4850	67.8290
 1.4840	67.8383
 1.4830	67.7929
 1.4820	67.7488
 1.4810	67.7830
 1.4800	67.7447
 1.4790	67.7204
 1.4780	67.6492
 1.4770	67.5763
 1.4760	67.5899
 1.4750	67.5979
 1.4740	67.5831
 1.4730	67.5330
 1.4720	67.4724
 1.4710	67.4732
 1.4700	67.4184
 1.4690	67.3688
 1.4680	67.3146
 1.4670	67.3841
 1.4660	67.3424
 1.4650	67.3137
 1.4640	67.3506
 1.4630	67.3324
 1.4620	67.2482
 1.4610	67.2434
 1.4600	67.2256
 1.4590	67.2461
 1.4580	67.1332
 1.4570	67.1267
 1.4560	67.1167
 1.4550	67.1158
 1.4540	67.0762
 1.4530	67.1061
 1.4520	67.0771
 1.4510	67.0785
 1.4500	67.0091
 1.4490	67.0007
 1.4480	66.9181
 1.4470	66.8805
 1.4460	66.8764
 1.4450	66.8496
 1.4440	66.8180
 1.4430	66.8220
 1.4420	66.8384
 1.4410	66.8271
 1.4400	66.7303
 1.4390	66.7247
 1.4380	66.6605
 1.4370	66.6107
 1.4360	66.5749
 1.4350	66.5626
 1.4340	66.4937
 1.4330	66.4709
 1.4320	66.4064
 1.4310	66.3701
 1.4300	66.2560
 1.4290	66.1877
 1.4280	66.2419
 1.4270	66.1723
 1.4260	66.1198
 1.4250	66.0901
 1.4240	65.9758
 1.4230	65.9948
 1.4220	65.9174
 1.4210	65.9313
 1.4200	65.8817
 1.4190	65.8917
 1.4180	65.6974
 1.4170	65.6951
 1.4160	65.6691
 1.4150	65.4887
 1.4140	65.3674
 1.4130	65.1768
 1.4120	64.9962
 1.4110	64.7280
 1.4100	64.4273
 1.4090	63.9873
 1.4080	63.5286
 1.4070	63.1708
 1.4060	62.7235
 1.4050	62.3371
 1.4040	61.8449
 1.4030	61.3729
 1.4020	60.7172
 1.4010	59.9348
 1.4000	58.8663
 1.3990	57.4381
 1.3980	55.4990
 1.3970	53.1730
 1.3960	50.8397
 1.3950	49.3528
 1.3940	49.0162
 1.3930	49.6031
 1.3920	50.6065
 1.3910	51.3976
 1.3900	51.7610
 1.3890	52.0184
 1.3880	52.1813
 1.3870	52.5995
 1.3860	52.8520
 1.3850	52.5335
 1.3840	51.6018
 1.3830	51.1166
 1.3820	51.9169
 1.3810	54.2209
 1.3800	57.4526
 1.3790	61.0031
 1.3780	63.5414
 1.3770	65.0649
 1.3760	65.6745
 1.3750	66.0035
 1.3740	66.1148
 1.3730	66.3963
 1.3720	66.5118
 1.3710	66.6371
 1.3700	66.5614
 1.3690	66.5909
 1.3680	66.6027
 1.3670	66.3403
