Name: Fluorite CaF_2
Type: Mineral
Class: Halide
Subclass: None
Particle Size: Fine
Sample No.: H-2B
Owner: JPL
Wavelength Range: VSWIR
Origin: United Kingdom, England, Durham County, Weardal.
Collection Date: N/A
Description: Particle size was 0-45um.Collected by:  Ward's Original ASTER Spectral Library name was jpl.perkin.mineral.halide.none.fine.h02b.spectrum.txt
Measurement: Hemispherical reflectance
First Column: X
Second Column: Y
X Units: Wavelength (micrometers)
Y Units:Reflectance (percent)
First X Value:  2.5000
Last X Value:  0.4000
Number of X Values: 2101
Additional Information: mineral.halide.none.fine.vswir.h-2b.jpl.perkin.ancillary.txt

 2.5000	53.1699
 2.4990	52.9745
 2.4980	53.0493
 2.4970	53.0383
 2.4960	52.7374
 2.4950	53.1219
 2.4940	52.8331
 2.4930	53.0039
 2.4920	52.9098
 2.4910	52.9559
 2.4900	52.8679
 2.4890	53.1983
 2.4880	52.9871
 2.4870	53.0029
 2.4860	53.0935
 2.4850	53.1048
 2.4840	52.9902
 2.4830	53.1114
 2.4820	53.1041
 2.4810	53.0648
 2.4800	53.0530
 2.4790	53.1878
 2.4780	53.1303
 2.4770	53.1222
 2.4760	53.0496
 2.4750	53.2695
 2.4740	53.1105
 2.4730	53.2069
 2.4720	53.2389
 2.4710	53.2926
 2.4700	53.1882
 2.4690	53.2630
 2.4680	53.1291
 2.4670	53.2809
 2.4660	53.1680
 2.4650	53.2927
 2.4640	53.2584
 2.4630	53.3801
 2.4620	53.2332
 2.4610	53.2955
 2.4600	53.2376
 2.4590	53.2905
 2.4580	53.2613
 2.4570	53.3492
 2.4560	53.3467
 2.4550	53.3506
 2.4540	53.2717
 2.4530	53.3784
 2.4520	53.3007
 2.4510	53.3893
 2.4500	53.3408
 2.4490	53.4087
 2.4480	53.3874
 2.4470	53.4530
 2.4460	53.3821
 2.4450	53.4158
 2.4440	53.3478
 2.4430	53.4969
 2.4420	53.4442
 2.4410	53.5210
 2.4400	53.4665
 2.4390	53.4973
 2.4380	53.4372
 2.4370	53.4871
 2.4360	53.4899
 2.4350	53.5486
 2.4340	53.5408
 2.4330	53.5645
 2.4320	53.5375
 2.4310	53.5898
 2.4300	53.5390
 2.4290	53.4986
 2.4280	53.5863
 2.4270	53.6213
 2.4260	53.5530
 2.4250	53.6007
 2.4240	53.5860
 2.4230	53.5938
 2.4220	53.6108
 2.4210	53.6757
 2.4200	53.6684
 2.4190	53.6763
 2.4180	53.6400
 2.4170	53.6613
 2.4160	53.6725
 2.4150	53.7140
 2.4140	53.7395
 2.4130	53.7537
 2.4120	53.6909
 2.4110	53.6970
 2.4100	53.6714
 2.4090	53.7561
 2.4080	53.7571
 2.4070	53.7176
 2.4060	53.7513
 2.4050	53.7684
 2.4040	53.7351
 2.4030	53.7521
 2.4020	53.7525
 2.4010	53.7905
 2.4000	53.7618
 2.3990	53.8086
 2.3980	53.8456
 2.3970	53.8020
 2.3960	53.8069
 2.3950	53.8122
 2.3940	53.8082
 2.3930	53.9145
 2.3920	53.8950
 2.3910	53.8747
 2.3900	53.8887
 2.3890	53.9230
 2.3880	53.8915
 2.3870	53.8644
 2.3860	53.8497
 2.3850	53.9112
 2.3840	53.9658
 2.3830	53.9765
 2.3820	53.9411
 2.3810	53.9458
 2.3800	53.9511
 2.3790	54.0092
 2.3780	54.0154
 2.3770	54.0246
 2.3760	54.0602
 2.3750	54.0492
 2.3740	53.9762
 2.3730	54.0135
 2.3720	54.0353
 2.3710	54.0738
 2.3700	54.0524
 2.3690	54.1091
 2.3680	54.1381
 2.3670	54.1105
 2.3660	54.1009
 2.3650	54.0899
 2.3640	54.1295
 2.3630	54.1469
 2.3620	54.1160
 2.3610	54.1208
 2.3600	54.1459
 2.3590	54.1501
 2.3580	54.1282
 2.3570	54.1563
 2.3560	54.1568
 2.3550	54.1631
 2.3540	54.1640
 2.3530	54.1782
 2.3520	54.1586
 2.3510	54.1376
 2.3500	54.1796
 2.3490	54.1494
 2.3480	54.1604
 2.3470	54.1928
 2.3460	54.1946
 2.3450	54.1843
 2.3440	54.2387
 2.3430	54.2819
 2.3420	54.2571
 2.3410	54.2195
 2.3400	54.2251
 2.3390	54.2157
 2.3380	54.2067
 2.3370	54.1890
 2.3360	54.2081
 2.3350	54.1734
 2.3340	54.1767
 2.3330	54.1597
 2.3320	54.2020
 2.3310	54.1798
 2.3300	54.2114
 2.3290	54.1892
 2.3280	54.1736
 2.3270	54.1267
 2.3260	54.1080
 2.3250	54.1363
 2.3240	54.1496
 2.3230	54.1546
 2.3220	54.1414
 2.3210	54.0831
 2.3200	54.1051
 2.3190	54.1251
 2.3180	54.1172
 2.3170	54.0947
 2.3160	54.1704
 2.3150	54.1559
 2.3140	54.1138
 2.3130	54.1770
 2.3120	54.1614
 2.3110	54.0911
 2.3100	54.1415
 2.3090	54.1273
 2.3080	54.1349
 2.3070	54.1207
 2.3060	54.1465
 2.3050	54.1449
 2.3040	54.1363
 2.3030	54.1212
 2.3020	54.1596
 2.3010	54.1049
 2.3000	54.1256
 2.2990	54.1333
 2.2980	54.2018
 2.2970	54.1532
 2.2960	54.1712
 2.2950	54.1252
 2.2940	54.1163
 2.2930	54.1125
 2.2920	54.1331
 2.2910	54.0896
 2.2900	54.0977
 2.2890	54.0833
 2.2880	54.1290
 2.2870	54.0952
 2.2860	54.1114
 2.2850	54.0909
 2.2840	54.1305
 2.2830	54.1206
 2.2820	54.1212
 2.2810	54.1232
 2.2800	54.1863
 2.2790	54.1192
 2.2780	54.1407
 2.2770	54.1585
 2.2760	54.1064
 2.2750	54.0735
 2.2740	54.1424
 2.2730	54.1066
 2.2720	54.1021
 2.2710	54.0513
 2.2700	54.1190
 2.2690	54.1020
 2.2680	54.0762
 2.2670	54.0959
 2.2660	54.1483
 2.2650	54.0881
 2.2640	54.1540
 2.2630	54.1019
 2.2620	54.1315
 2.2610	54.1056
 2.2600	54.1442
 2.2590	54.0906
 2.2580	54.1552
 2.2570	54.0729
 2.2560	54.1230
 2.2550	54.0560
 2.2540	54.1125
 2.2530	54.1054
 2.2520	54.1362
 2.2510	54.0518
 2.2500	54.1542
 2.2490	54.0700
 2.2480	54.0773
 2.2470	54.0749
 2.2460	54.1085
 2.2450	54.0895
 2.2440	54.1152
 2.2430	54.1100
 2.2420	54.1499
 2.2410	54.1379
 2.2400	54.1080
 2.2390	54.1530
 2.2380	54.0996
 2.2370	54.1114
 2.2360	54.1580
 2.2350	54.1821
 2.2340	54.1968
 2.2330	54.1315
 2.2320	54.1275
 2.2310	54.1838
 2.2300	54.1974
 2.2290	54.1529
 2.2280	54.2624
 2.2270	54.1833
 2.2260	54.1973
 2.2250	54.1927
 2.2240	54.2237
 2.2230	54.2782
 2.2220	54.2187
 2.2210	54.2211
 2.2200	54.2945
 2.2190	54.1961
 2.2180	54.2616
 2.2170	54.2745
 2.2160	54.3129
 2.2150	54.2709
 2.2140	54.3989
 2.2130	54.2827
 2.2120	54.3735
 2.2110	54.2271
 2.2100	54.3673
 2.2090	54.3667
 2.2080	54.3510
 2.2070	54.3281
 2.2060	54.4193
 2.2050	54.3318
 2.2040	54.4533
 2.2030	54.4499
 2.2020	54.4776
 2.2010	54.4363
 2.2000	54.4569
 2.1990	54.5002
 2.1980	54.5260
 2.1970	54.4894
 2.1960	54.5264
 2.1950	54.4664
 2.1940	54.5278
 2.1930	54.5144
 2.1920	54.5847
 2.1910	54.5829
 2.1900	54.5802
 2.1890	54.5492
 2.1880	54.5682
 2.1870	54.4846
 2.1860	54.5943
 2.1850	54.6115
 2.1840	54.6605
 2.1830	54.6079
 2.1820	54.5953
 2.1810	54.6715
 2.1800	54.7158
 2.1790	54.7020
 2.1780	54.7015
 2.1770	54.6230
 2.1760	54.7069
 2.1750	54.7017
 2.1740	54.7536
 2.1730	54.7425
 2.1720	54.7876
 2.1710	54.7790
 2.1700	54.8591
 2.1690	54.8065
 2.1680	54.9093
 2.1670	54.9038
 2.1660	54.9180
 2.1650	54.8586
 2.1640	54.9059
 2.1630	54.9495
 2.1620	54.9775
 2.1610	54.9504
 2.1600	54.9820
 2.1590	55.0055
 2.1580	55.0412
 2.1570	55.0011
 2.1560	55.0254
 2.1550	55.0602
 2.1540	55.1011
 2.1530	55.0841
 2.1520	55.1723
 2.1510	55.1020
 2.1500	55.0913
 2.1490	55.0790
 2.1480	55.1064
 2.1470	55.0658
 2.1460	55.1284
 2.1450	55.1306
 2.1440	55.1770
 2.1430	55.1041
 2.1420	55.0960
 2.1410	55.1020
 2.1400	55.1476
 2.1390	55.0841
 2.1380	55.0894
 2.1370	55.0777
 2.1360	55.0241
 2.1350	55.0104
 2.1340	55.0839
 2.1330	55.0000
 2.1320	55.0203
 2.1310	54.9944
 2.1300	55.0164
 2.1290	54.9042
 2.1280	54.9349
 2.1270	54.8859
 2.1260	54.8704
 2.1250	54.8429
 2.1240	54.8576
 2.1230	54.8181
 2.1220	54.8472
 2.1210	54.7802
 2.1200	54.7674
 2.1190	54.7309
 2.1180	54.6338
 2.1170	54.6050
 2.1160	54.6164
 2.1150	54.5780
 2.1140	54.5661
 2.1130	54.5062
 2.1120	54.4980
 2.1110	54.4220
 2.1100	54.4794
 2.1090	54.4226
 2.1080	54.3587
 2.1070	54.3454
 2.1060	54.2916
 2.1050	54.2128
 2.1040	54.2344
 2.1030	54.2171
 2.1020	54.2144
 2.1010	54.1573
 2.1000	54.1104
 2.0990	54.1764
 2.0980	54.1489
 2.0970	54.1243
 2.0960	54.1324
 2.0950	54.1362
 2.0940	54.1689
 2.0930	54.1679
 2.0920	54.1604
 2.0910	54.1443
 2.0900	54.1891
 2.0890	54.2207
 2.0880	54.2263
 2.0870	54.2000
 2.0860	54.2215
 2.0850	54.2260
 2.0840	54.1762
 2.0830	54.1656
 2.0820	54.2106
 2.0810	54.2337
 2.0800	54.2617
 2.0790	54.2387
 2.0780	54.2444
 2.0770	54.2895
 2.0760	54.2895
 2.0750	54.2838
 2.0740	54.3272
 2.0730	54.3570
 2.0720	54.3688
 2.0710	54.3323
 2.0700	54.2869
 2.0690	54.3043
 2.0680	54.3712
 2.0670	54.3651
 2.0660	54.3328
 2.0650	54.3898
 2.0640	54.3938
 2.0630	54.3595
 2.0620	54.3660
 2.0610	54.3903
 2.0600	54.4062
 2.0590	54.4482
 2.0580	54.4848
 2.0570	54.4720
 2.0560	54.4538
 2.0550	54.3993
 2.0540	54.4185
 2.0530	54.4818
 2.0520	54.4785
 2.0510	54.4691
 2.0500	54.4615
 2.0490	54.5107
 2.0480	54.5051
 2.0470	54.4690
 2.0460	54.4722
 2.0450	54.5361
 2.0440	54.5316
 2.0430	54.4984
 2.0420	54.4973
 2.0410	54.5286
 2.0400	54.5244
 2.0390	54.5650
 2.0380	54.5703
 2.0370	54.5502
 2.0360	54.5286
 2.0350	54.5695
 2.0340	54.5434
 2.0330	54.5715
 2.0320	54.5889
 2.0310	54.5943
 2.0300	54.5274
 2.0290	54.5465
 2.0280	54.6080
 2.0270	54.5791
 2.0260	54.5620
 2.0250	54.5622
 2.0240	54.5177
 2.0230	54.5530
 2.0220	54.5292
 2.0210	54.5763
 2.0200	54.5936
 2.0190	54.6155
 2.0180	54.5699
 2.0170	54.5777
 2.0160	54.5402
 2.0150	54.5786
 2.0140	54.5739
 2.0130	54.6067
 2.0120	54.5459
 2.0110	54.6115
 2.0100	54.6008
 2.0090	54.6461
 2.0080	54.5898
 2.0070	54.6039
 2.0060	54.5624
 2.0050	54.5845
 2.0040	54.5873
 2.0030	54.5880
 2.0020	54.5363
 2.0010	54.5807
 2.0000	54.5857
 1.9990	54.5588
 1.9980	54.5402
 1.9970	54.5866
 1.9960	54.5381
 1.9950	54.5231
 1.9940	54.5055
 1.9930	54.5077
 1.9920	54.4853
 1.9910	54.4901
 1.9900	54.5391
 1.9890	54.4968
 1.9880	54.4893
 1.9870	54.4947
 1.9860	54.4996
 1.9850	54.5064
 1.9840	54.4542
 1.9830	54.4885
 1.9820	54.4601
 1.9810	54.5013
 1.9800	54.4532
 1.9790	54.4371
 1.9780	54.4433
 1.9770	54.4953
 1.9760	54.4302
 1.9750	54.4516
 1.9740	54.3920
 1.9730	54.4325
 1.9720	54.3971
 1.9710	54.5010
 1.9700	54.4066
 1.9690	54.4554
 1.9680	54.4235
 1.9670	54.3998
 1.9660	54.4511
 1.9650	54.4466
 1.9640	54.4323
 1.9630	54.4883
 1.9620	54.3868
 1.9610	54.4436
 1.9600	54.3838
 1.9590	54.5183
 1.9580	54.4257
 1.9570	54.4768
 1.9560	54.4098
 1.9550	54.4436
 1.9540	54.4205
 1.9530	54.4004
 1.9520	54.3900
 1.9510	54.4747
 1.9500	54.4452
 1.9490	54.4709
 1.9480	54.4176
 1.9470	54.5229
 1.9460	54.4599
 1.9450	54.4318
 1.9440	54.3917
 1.9430	54.5247
 1.9420	54.4983
 1.9410	54.5340
 1.9400	54.4864
 1.9390	54.6043
 1.9380	54.5664
 1.9370	54.5903
 1.9360	54.5178
 1.9350	54.5634
 1.9340	54.5070
 1.9330	54.5612
 1.9320	54.4779
 1.9310	54.5524
 1.9300	54.5487
 1.9290	54.5831
 1.9280	54.5535
 1.9270	54.7252
 1.9260	54.5274
 1.9250	54.6819
 1.9240	54.5469
 1.9230	54.5997
 1.9220	54.6290
 1.9210	54.7086
 1.9200	54.5791
 1.9190	54.6584
 1.9180	54.6251
 1.9170	54.7905
 1.9160	54.6250
 1.9150	54.7444
 1.9140	54.6859
 1.9130	54.7526
 1.9120	54.7240
 1.9110	54.6996
 1.9100	54.7420
 1.9090	54.7816
 1.9080	54.7518
 1.9070	54.8026
 1.9060	54.7171
 1.9050	54.7500
 1.9040	54.8054
 1.9030	54.8598
 1.9020	54.7499
 1.9010	54.8632
 1.9000	54.7914
 1.8990	54.8396
 1.8980	54.7724
 1.8970	54.8287
 1.8960	54.8661
 1.8950	54.8684
 1.8940	54.8800
 1.8930	54.9086
 1.8920	54.8154
 1.8910	54.8699
 1.8900	54.7969
 1.8890	54.8548
 1.8880	54.9042
 1.8870	54.9203
 1.8860	54.9201
 1.8850	54.9138
 1.8840	54.8804
 1.8830	54.9613
 1.8820	54.9443
 1.8810	54.9668
 1.8800	54.9109
 1.8790	54.9951
 1.8780	54.9780
 1.8770	54.9938
 1.8760	54.9419
 1.8750	55.0593
 1.8740	55.0404
 1.8730	55.0440
 1.8720	55.0606
 1.8710	55.0350
 1.8700	55.0311
 1.8690	55.0485
 1.8680	54.9846
 1.8670	55.1362
 1.8660	55.0663
 1.8650	55.0491
 1.8640	55.0081
 1.8630	55.0517
 1.8620	55.0360
 1.8610	55.0418
 1.8600	55.0414
 1.8590	55.0489
 1.8580	55.0906
 1.8570	55.1091
 1.8560	55.0187
 1.8550	55.0712
 1.8540	55.0444
 1.8530	55.1411
 1.8520	55.1165
 1.8510	55.1047
 1.8500	55.0620
 1.8490	55.0534
 1.8480	55.0470
 1.8470	55.1077
 1.8460	55.0682
 1.8450	55.1311
 1.8440	55.0856
 1.8430	55.1266
 1.8420	55.1152
 1.8410	55.1209
 1.8400	55.0787
 1.8390	55.1506
 1.8380	55.1421
 1.8370	55.0969
 1.8360	55.1002
 1.8350	55.1411
 1.8340	55.1500
 1.8330	55.1498
 1.8320	55.1306
 1.8310	55.1776
 1.8300	55.1195
 1.8290	55.0721
 1.8280	55.0709
 1.8270	55.0903
 1.8260	55.0890
 1.8250	55.1238
 1.8240	55.0876
 1.8230	55.1384
 1.8220	55.1535
 1.8210	55.1483
 1.8200	55.1480
 1.8190	55.1563
 1.8180	55.1004
 1.8170	55.1133
 1.8160	55.0829
 1.8150	55.1419
 1.8140	55.1527
 1.8130	55.1962
 1.8120	55.1916
 1.8110	55.1428
 1.8100	55.1400
 1.8090	55.2041
 1.8080	55.1881
 1.8070	55.2128
 1.8060	55.1781
 1.8050	55.1700
 1.8040	55.1500
 1.8030	55.1586
 1.8020	55.1635
 1.8010	55.2059
 1.8000	55.2253
 1.7990	55.1991
 1.7980	55.1698
 1.7970	55.1682
 1.7960	55.1995
 1.7950	55.2074
 1.7940	55.1865
 1.7930	55.2101
 1.7920	55.1874
 1.7910	55.1815
 1.7900	55.1795
 1.7890	55.1666
 1.7880	55.1791
 1.7870	55.1889
 1.7860	55.1576
 1.7850	55.1876
 1.7840	55.2177
 1.7830	55.1957
 1.7820	55.1929
 1.7810	55.1864
 1.7800	55.1574
 1.7790	55.1324
 1.7780	55.1327
 1.7770	55.1666
 1.7760	55.1767
 1.7750	55.1928
 1.7740	55.2206
 1.7730	55.1464
 1.7720	55.1643
 1.7710	55.1608
 1.7700	55.1204
 1.7690	55.1507
 1.7680	55.1980
 1.7670	55.1766
 1.7660	55.2170
 1.7650	55.2189
 1.7640	55.2004
 1.7630	55.1585
 1.7620	55.2342
 1.7610	55.2403
 1.7600	55.2399
 1.7590	55.1986
 1.7580	55.2047
 1.7570	55.1882
 1.7560	55.2153
 1.7550	55.2109
 1.7540	55.1814
 1.7530	55.1931
 1.7520	55.2076
 1.7510	55.1753
 1.7500	55.1853
 1.7490	55.1914
 1.7480	55.2093
 1.7470	55.1973
 1.7460	55.2319
 1.7450	55.2336
 1.7440	55.2809
 1.7430	55.2428
 1.7420	55.2256
 1.7410	55.2464
 1.7400	55.2478
 1.7390	55.2803
 1.7380	55.2988
 1.7370	55.2896
 1.7360	55.2679
 1.7350	55.2470
 1.7340	55.2572
 1.7330	55.2746
 1.7320	55.3058
 1.7310	55.2435
 1.7300	55.2838
 1.7290	55.3268
 1.7280	55.3272
 1.7270	55.3018
 1.7260	55.3443
 1.7250	55.3247
 1.7240	55.2795
 1.7230	55.2562
 1.7220	55.3055
 1.7210	55.2625
 1.7200	55.3682
 1.7190	55.2792
 1.7180	55.3042
 1.7170	55.3476
 1.7160	55.3428
 1.7150	55.2853
 1.7140	55.3338
 1.7130	55.3248
 1.7120	55.2826
 1.7110	55.2944
 1.7100	55.3853
 1.7090	55.3062
 1.7080	55.3104
 1.7070	55.2956
 1.7060	55.3149
 1.7050	55.3200
 1.7040	55.3782
 1.7030	55.3282
 1.7020	55.3744
 1.7010	55.2424
 1.7000	55.3026
 1.6990	55.3026
 1.6980	55.3325
 1.6970	55.3004
 1.6960	55.3183
 1.6950	55.2370
 1.6940	55.3858
 1.6930	55.3138
 1.6920	55.2813
 1.6910	55.2975
 1.6900	55.3041
 1.6890	55.3230
 1.6880	55.3152
 1.6870	55.2441
 1.6860	55.2947
 1.6850	55.3401
 1.6840	55.3220
 1.6830	55.2542
 1.6820	55.2988
 1.6810	55.3225
 1.6800	55.3065
 1.6790	55.2485
 1.6780	55.3309
 1.6770	55.3601
 1.6760	55.3140
 1.6750	55.3670
 1.6740	55.3540
 1.6730	55.1940
 1.6720	55.3552
 1.6710	55.3031
 1.6700	55.3832
 1.6690	55.3789
 1.6680	55.2397
 1.6670	55.2677
 1.6660	55.3058
 1.6650	55.2924
 1.6640	55.3469
 1.6630	55.3270
 1.6620	55.2918
 1.6610	55.3155
 1.6600	55.3033
 1.6590	55.2385
 1.6580	55.3071
 1.6570	55.2768
 1.6560	55.2961
 1.6550	55.2734
 1.6540	55.3670
 1.6530	55.3173
 1.6520	55.3643
 1.6510	55.2671
 1.6500	55.3729
 1.6490	55.2424
 1.6480	55.3078
 1.6470	55.3191
 1.6460	55.3089
 1.6450	55.3359
 1.6440	55.3879
 1.6430	55.2927
 1.6420	55.3745
 1.6410	55.1777
 1.6400	55.3756
 1.6390	55.3342
 1.6380	55.3731
 1.6370	55.2372
 1.6360	55.3656
 1.6350	55.3732
 1.6340	55.3566
 1.6330	55.3358
 1.6320	55.3575
 1.6310	55.3202
 1.6300	55.3096
 1.6290	55.2580
 1.6280	55.2742
 1.6270	55.2605
 1.6260	55.4278
 1.6250	55.3199
 1.6240	55.3917
 1.6230	55.3669
 1.6220	55.3766
 1.6210	55.3111
 1.6200	55.4155
 1.6190	55.2875
 1.6180	55.4000
 1.6170	55.3830
 1.6160	55.3942
 1.6150	55.2920
 1.6140	55.4123
 1.6130	55.3951
 1.6120	55.3939
 1.6110	55.3585
 1.6100	55.4285
 1.6090	55.2905
 1.6080	55.4383
 1.6070	55.3630
 1.6060	55.4243
 1.6050	55.3639
 1.6040	55.3559
 1.6030	55.3975
 1.6020	55.4015
 1.6010	55.3979
 1.6000	55.4574
 1.5990	55.3965
 1.5980	55.4578
 1.5970	55.3491
 1.5960	55.3840
 1.5950	55.3517
 1.5940	55.4003
 1.5930	55.3527
 1.5920	55.4123
 1.5910	55.3856
 1.5900	55.4191
 1.5890	55.3618
 1.5880	55.4102
 1.5870	55.3963
 1.5860	55.4587
 1.5850	55.3717
 1.5840	55.4419
 1.5830	55.4065
 1.5820	55.4291
 1.5810	55.3655
 1.5800	55.3910
 1.5790	55.3955
 1.5780	55.4345
 1.5770	55.3776
 1.5760	55.3633
 1.5750	55.3533
 1.5740	55.3718
 1.5730	55.4057
 1.5720	55.4219
 1.5710	55.3974
 1.5700	55.4988
 1.5690	55.4588
 1.5680	55.3705
 1.5670	55.3646
 1.5660	55.3920
 1.5650	55.4148
 1.5640	55.4237
 1.5630	55.4035
 1.5620	55.4281
 1.5610	55.3997
 1.5600	55.4409
 1.5590	55.3986
 1.5580	55.4107
 1.5570	55.4357
 1.5560	55.4493
 1.5550	55.3883
 1.5540	55.3855
 1.5530	55.3829
 1.5520	55.3493
 1.5510	55.3227
 1.5500	55.4086
 1.5490	55.4352
 1.5480	55.4085
 1.5470	55.3809
 1.5460	55.4054
 1.5450	55.4417
 1.5440	55.4094
 1.5430	55.4074
 1.5420	55.4349
 1.5410	55.3848
 1.5400	55.4387
 1.5390	55.4770
 1.5380	55.4344
 1.5370	55.3674
 1.5360	55.3793
 1.5350	55.3942
 1.5340	55.4211
 1.5330	55.3904
 1.5320	55.4112
 1.5310	55.4225
 1.5300	55.3578
 1.5290	55.3641
 1.5280	55.4096
 1.5270	55.3898
 1.5260	55.3963
 1.5250	55.4403
 1.5240	55.4302
 1.5230	55.4201
 1.5220	55.4640
 1.5210	55.4443
 1.5200	55.4298
 1.5190	55.4264
 1.5180	55.4093
 1.5170	55.4064
 1.5160	55.4546
 1.5150	55.4629
 1.5140	55.4695
 1.5130	55.4344
 1.5120	55.4215
 1.5110	55.3654
 1.5100	55.3872
 1.5090	55.4614
 1.5080	55.4357
 1.5070	55.4179
 1.5060	55.4669
 1.5050	55.4286
 1.5040	55.3733
 1.5030	55.3854
 1.5020	55.4176
 1.5010	55.3900
 1.5000	55.3812
 1.4990	55.4224
 1.4980	55.4281
 1.4970	55.4291
 1.4960	55.4328
 1.4950	55.4897
 1.4940	55.4434
 1.4930	55.4355
 1.4920	55.4446
 1.4910	55.4358
 1.4900	55.4406
 1.4890	55.4422
 1.4880	55.4366
 1.4870	55.4490
 1.4860	55.4506
 1.4850	55.4386
 1.4840	55.4526
 1.4830	55.4723
 1.4820	55.4434
 1.4810	55.4039
 1.4800	55.4165
 1.4790	55.4067
 1.4780	55.3972
 1.4770	55.4429
 1.4760	55.4129
 1.4750	55.4304
 1.4740	55.4179
 1.4730	55.4618
 1.4720	55.4433
 1.4710	55.4192
 1.4700	55.4272
 1.4690	55.4229
 1.4680	55.4097
 1.4670	55.4662
 1.4660	55.3933
 1.4650	55.4240
 1.4640	55.4292
 1.4630	55.3824
 1.4620	55.3921
 1.4610	55.4624
 1.4600	55.4097
 1.4590	55.4458
 1.4580	55.4711
 1.4570	55.4584
 1.4560	55.4602
 1.4550	55.4544
 1.4540	55.4269
 1.4530	55.4605
 1.4520	55.4626
 1.4510	55.4295
 1.4500	55.4245
 1.4490	55.4596
 1.4480	55.4130
 1.4470	55.4242
 1.4460	55.4231
 1.4450	55.4657
 1.4440	55.4742
 1.4430	55.4686
 1.4420	55.3997
 1.4410	55.4497
 1.4400	55.4192
 1.4390	55.4555
 1.4380	55.4539
 1.4370	55.4461
 1.4360	55.4460
 1.4350	55.4694
 1.4340	55.4482
 1.4330	55.4351
 1.4320	55.4334
 1.4310	55.4426
 1.4300	55.4105
 1.4290	55.4575
 1.4280	55.4856
 1.4270	55.3881
 1.4260	55.4574
 1.4250	55.5138
 1.4240	55.4340
 1.4230	55.4542
 1.4220	55.4550
 1.4210	55.5545
 1.4200	55.4032
 1.4190	55.4332
 1.4180	55.4349
 1.4170	55.4868
 1.4160	55.5114
 1.4150	55.5426
 1.4140	55.4773
 1.4130	55.5144
 1.4120	55.5081
 1.4110	55.5350
 1.4100	55.5287
 1.4090	55.5306
 1.4080	55.5009
 1.4070	55.5703
 1.4060	55.4968
 1.4050	55.5249
 1.4040	55.4806
 1.4030	55.5646
 1.4020	55.5487
 1.4010	55.5308
 1.4000	55.4401
 1.3990	55.5309
 1.3980	55.5419
 1.3970	55.6245
 1.3960	55.6409
 1.3950	55.6337
 1.3940	55.6124
 1.3930	55.6377
 1.3920	55.4741
 1.3910	55.6325
 1.3900	55.5703
 1.3890	55.6212
 1.3880	55.5381
 1.3870	55.5947
 1.3860	55.5206
 1.3850	55.5835
 1.3840	55.5906
 1.3830	55.5358
 1.3820	55.5192
 1.3810	55.6281
 1.3800	55.5756
 1.3790	55.6605
 1.3780	55.6072
 1.3770	55.6758
 1.3760	55.7070
 1.3750	55.6407
 1.3740	55.5779
 1.3730	55.6222
 1.3720	55.6000
 1.3710	55.6662
 1.3700	55.5698
 1.3690	55.6544
 1.3680	55.5891
 1.3670	55.6256
 1.3660	55.6190
 1.3650	55.6707
