Name: Wollastonite CaSiO_3
Type: Mineral
Class: Silicate
Subclass: Inosilicate
Particle Size: Medium
Sample No.: IN-2A
Owner: JPL
Wavelength Range: VSWIR
Origin: USA, California, Inyo County, Panamint Mountains.
Collection Date: N/A
Description: Particle size was 45-125um.Collected by:  Burminco Original ASTER Spectral Library name was jpl.perkin.mineral.silicate.inosilicate.medium.in02a.spectrum.txt
Measurement: Hemispherical reflectance
First Column: X
Second Column: Y
X Units: Wavelength (micrometers)
Y Units:Reflectance (percent)
First X Value:  2.5000
Last X Value:  0.4000
Number of X Values: 2101
Additional Information: mineral.silicate.inosilicate.medium.vswir.in-2a.jpl.perkin.ancillary.txt

 2.5000	73.6357
 2.4990	73.4527
 2.4980	73.6409
 2.4970	73.8193
 2.4960	73.6330
 2.4950	73.7030
 2.4940	73.6988
 2.4930	73.6916
 2.4920	73.7537
 2.4910	73.6327
 2.4900	73.8051
 2.4890	73.8606
 2.4880	73.7483
 2.4870	73.8145
 2.4860	73.8262
 2.4850	73.7979
 2.4840	73.6417
 2.4830	73.8658
 2.4820	73.8449
 2.4810	74.0309
 2.4800	73.8366
 2.4790	74.0548
 2.4780	73.9178
 2.4770	74.0720
 2.4760	73.9047
 2.4750	73.9063
 2.4740	74.0193
 2.4730	74.2011
 2.4720	73.9517
 2.4710	74.0620
 2.4700	74.0317
 2.4690	74.1631
 2.4680	74.1708
 2.4670	74.2984
 2.4660	74.2809
 2.4650	74.4248
 2.4640	74.2918
 2.4630	74.4805
 2.4620	74.6312
 2.4610	74.5384
 2.4600	74.5619
 2.4590	74.6194
 2.4580	74.7102
 2.4570	74.7335
 2.4560	74.7052
 2.4550	74.7958
 2.4540	74.7210
 2.4530	74.8542
 2.4520	74.8463
 2.4510	74.8373
 2.4500	74.9085
 2.4490	75.0730
 2.4480	75.1973
 2.4470	75.1119
 2.4460	75.0547
 2.4450	75.1357
 2.4440	75.0827
 2.4430	75.1541
 2.4420	75.1555
 2.4410	75.2106
 2.4400	75.1645
 2.4390	75.2944
 2.4380	75.2790
 2.4370	75.2528
 2.4360	75.3091
 2.4350	75.2816
 2.4340	75.3378
 2.4330	75.2657
 2.4320	75.2640
 2.4310	75.2637
 2.4300	75.2294
 2.4290	75.2527
 2.4280	75.2403
 2.4270	75.2414
 2.4260	75.2112
 2.4250	75.3457
 2.4240	75.3538
 2.4230	75.3308
 2.4220	75.3082
 2.4210	75.2700
 2.4200	75.2844
 2.4190	75.2045
 2.4180	75.1299
 2.4170	75.2120
 2.4160	75.2449
 2.4150	75.2258
 2.4140	75.1878
 2.4130	75.2625
 2.4120	75.1780
 2.4110	75.0838
 2.4100	75.0205
 2.4090	74.9976
 2.4080	75.0091
 2.4070	75.0374
 2.4060	74.9901
 2.4050	74.9480
 2.4040	74.9356
 2.4030	74.9862
 2.4020	74.9189
 2.4010	74.8678
 2.4000	74.8299
 2.3990	74.8094
 2.3980	74.8136
 2.3970	74.7638
 2.3960	74.7203
 2.3950	74.6842
 2.3940	74.6548
 2.3930	74.6602
 2.3920	74.6699
 2.3910	74.6022
 2.3900	74.5955
 2.3890	74.6418
 2.3880	74.5513
 2.3870	74.5033
 2.3860	74.6028
 2.3850	74.6278
 2.3840	74.5775
 2.3830	74.6250
 2.3820	74.6022
 2.3810	74.6287
 2.3800	74.6022
 2.3790	74.5693
 2.3780	74.6553
 2.3770	74.6558
 2.3760	74.5977
 2.3750	74.6312
 2.3740	74.6207
 2.3730	74.5289
 2.3720	74.4852
 2.3710	74.4024
 2.3700	74.3747
 2.3690	74.4099
 2.3680	74.3264
 2.3670	74.2656
 2.3660	74.2321
 2.3650	74.1879
 2.3640	74.1768
 2.3630	74.1064
 2.3620	74.0501
 2.3610	74.0176
 2.3600	73.9536
 2.3590	73.9389
 2.3580	73.9228
 2.3570	73.8724
 2.3560	73.8297
 2.3550	73.8468
 2.3540	73.9128
 2.3530	73.9249
 2.3520	73.9085
 2.3510	73.8906
 2.3500	73.9551
 2.3490	73.9788
 2.3480	74.0456
 2.3470	74.1268
 2.3460	74.1876
 2.3450	74.2373
 2.3440	74.2662
 2.3430	74.3439
 2.3420	74.3826
 2.3410	74.3826
 2.3400	74.4641
 2.3390	74.5209
 2.3380	74.5551
 2.3370	74.5871
 2.3360	74.6954
 2.3350	74.7776
 2.3340	74.8166
 2.3330	74.8713
 2.3320	74.9431
 2.3310	75.0515
 2.3300	75.1718
 2.3290	75.3329
 2.3280	75.4181
 2.3270	75.4898
 2.3260	75.6134
 2.3250	75.7719
 2.3240	75.9534
 2.3230	76.1284
 2.3220	76.1871
 2.3210	76.3402
 2.3200	76.4933
 2.3190	76.6420
 2.3180	76.7514
 2.3170	76.8170
 2.3160	77.0021
 2.3150	77.0949
 2.3140	77.1802
 2.3130	77.3046
 2.3120	77.3535
 2.3110	77.3896
 2.3100	77.4997
 2.3090	77.5318
 2.3080	77.5461
 2.3070	77.5596
 2.3060	77.5748
 2.3050	77.5891
 2.3040	77.5467
 2.3030	77.5817
 2.3020	77.6083
 2.3010	77.5913
 2.3000	77.6000
 2.2990	77.5130
 2.2980	77.4822
 2.2970	77.4907
 2.2960	77.4934
 2.2950	77.4473
 2.2940	77.3869
 2.2930	77.3527
 2.2920	77.3850
 2.2910	77.3593
 2.2900	77.3629
 2.2890	77.3215
 2.2880	77.3634
 2.2870	77.3118
 2.2860	77.3147
 2.2850	77.3040
 2.2840	77.3698
 2.2830	77.3472
 2.2820	77.3224
 2.2810	77.3860
 2.2800	77.3790
 2.2790	77.4219
 2.2780	77.4632
 2.2770	77.4505
 2.2760	77.5250
 2.2750	77.4957
 2.2740	77.5908
 2.2730	77.5638
 2.2720	77.5461
 2.2710	77.5982
 2.2700	77.7011
 2.2690	77.6078
 2.2680	77.7624
 2.2670	77.7749
 2.2660	77.7368
 2.2650	77.7643
 2.2640	77.7592
 2.2630	77.7505
 2.2620	77.7468
 2.2610	77.7598
 2.2600	77.8585
 2.2590	77.8030
 2.2580	77.7953
 2.2570	77.8060
 2.2560	77.8138
 2.2550	77.7575
 2.2540	77.8426
 2.2530	77.7832
 2.2520	77.7280
 2.2510	77.7806
 2.2500	77.7302
 2.2490	77.7330
 2.2480	77.6909
 2.2470	77.6741
 2.2460	77.6643
 2.2450	77.6607
 2.2440	77.6032
 2.2430	77.5825
 2.2420	77.5733
 2.2410	77.5707
 2.2400	77.4930
 2.2390	77.4502
 2.2380	77.5115
 2.2370	77.4981
 2.2360	77.5333
 2.2350	77.4680
 2.2340	77.4801
 2.2330	77.5536
 2.2320	77.5108
 2.2310	77.5768
 2.2300	77.6055
 2.2290	77.5648
 2.2280	77.6408
 2.2270	77.6294
 2.2260	77.7333
 2.2250	77.7289
 2.2240	77.8328
 2.2230	77.8342
 2.2220	77.9134
 2.2210	77.9564
 2.2200	78.0444
 2.2190	78.0135
 2.2180	78.0895
 2.2170	78.1468
 2.2160	78.1724
 2.2150	78.1378
 2.2140	78.2951
 2.2130	78.3121
 2.2120	78.4407
 2.2110	78.3585
 2.2100	78.5554
 2.2090	78.4855
 2.2080	78.4797
 2.2070	78.5551
 2.2060	78.6556
 2.2050	78.7641
 2.2040	78.7806
 2.2030	78.8368
 2.2020	78.8301
 2.2010	78.8342
 2.2000	78.9642
 2.1990	78.9158
 2.1980	78.9505
 2.1970	78.9443
 2.1960	79.0069
 2.1950	78.9851
 2.1940	79.0134
 2.1930	79.1153
 2.1920	79.1019
 2.1910	78.9877
 2.1900	79.0836
 2.1890	79.0852
 2.1880	79.1324
 2.1870	79.1579
 2.1860	79.1924
 2.1850	79.1747
 2.1840	79.1492
 2.1830	79.1769
 2.1820	79.2917
 2.1810	79.2861
 2.1800	79.3831
 2.1790	79.3894
 2.1780	79.3759
 2.1770	79.3507
 2.1760	79.3679
 2.1750	79.3952
 2.1740	79.4451
 2.1730	79.4263
 2.1720	79.4956
 2.1710	79.5671
 2.1700	79.5503
 2.1690	79.5526
 2.1680	79.5385
 2.1670	79.5927
 2.1660	79.6314
 2.1650	79.6421
 2.1640	79.7335
 2.1630	79.7223
 2.1620	79.7906
 2.1610	79.8243
 2.1600	79.8223
 2.1590	79.8385
 2.1580	79.8707
 2.1570	79.8539
 2.1560	79.8599
 2.1550	79.9055
 2.1540	79.9807
 2.1530	79.9156
 2.1520	79.9925
 2.1510	79.9160
 2.1500	79.9563
 2.1490	79.9343
 2.1480	79.9472
 2.1470	79.9452
 2.1460	79.9979
 2.1450	79.9867
 2.1440	79.9902
 2.1430	79.9756
 2.1420	80.0289
 2.1410	79.9587
 2.1400	80.0153
 2.1390	79.9996
 2.1380	79.9455
 2.1370	79.9466
 2.1360	79.9650
 2.1350	79.8683
 2.1340	79.8547
 2.1330	79.8358
 2.1320	79.8411
 2.1310	79.8326
 2.1300	79.8258
 2.1290	79.7974
 2.1280	79.7340
 2.1270	79.6961
 2.1260	79.6564
 2.1250	79.6374
 2.1240	79.5929
 2.1230	79.5003
 2.1220	79.4509
 2.1210	79.5032
 2.1200	79.4565
 2.1190	79.4047
 2.1180	79.3694
 2.1170	79.3020
 2.1160	79.2556
 2.1150	79.2445
 2.1140	79.1449
 2.1130	79.1320
 2.1120	79.1305
 2.1110	79.0201
 2.1100	78.9451
 2.1090	78.8893
 2.1080	78.8982
 2.1070	78.8686
 2.1060	78.8337
 2.1050	78.7713
 2.1040	78.7188
 2.1030	78.7323
 2.1020	78.7003
 2.1010	78.6144
 2.1000	78.5954
 2.0990	78.5958
 2.0980	78.6188
 2.0970	78.6457
 2.0960	78.6658
 2.0950	78.6309
 2.0940	78.6744
 2.0930	78.7282
 2.0920	78.6717
 2.0910	78.6547
 2.0900	78.6895
 2.0890	78.6737
 2.0880	78.7175
 2.0870	78.7693
 2.0860	78.7465
 2.0850	78.7435
 2.0840	78.7454
 2.0830	78.7233
 2.0820	78.7543
 2.0810	78.7943
 2.0800	78.7951
 2.0790	78.7853
 2.0780	78.7723
 2.0770	78.8039
 2.0760	78.8110
 2.0750	78.7972
 2.0740	78.8045
 2.0730	78.8233
 2.0720	78.8454
 2.0710	78.8348
 2.0700	78.8448
 2.0690	78.8244
 2.0680	78.7848
 2.0670	78.8550
 2.0660	78.9376
 2.0650	78.9088
 2.0640	78.9287
 2.0630	78.9547
 2.0620	78.9751
 2.0610	78.9930
 2.0600	78.9137
 2.0590	78.8759
 2.0580	78.9562
 2.0570	78.9849
 2.0560	78.9784
 2.0550	78.9664
 2.0540	78.9207
 2.0530	78.9460
 2.0520	78.9717
 2.0510	78.9963
 2.0500	78.9741
 2.0490	78.9677
 2.0480	79.0024
 2.0470	79.0280
 2.0460	78.9968
 2.0450	78.9533
 2.0440	78.9766
 2.0430	79.0235
 2.0420	79.0226
 2.0410	79.0489
 2.0400	78.9789
 2.0390	79.0404
 2.0380	79.0611
 2.0370	79.0090
 2.0360	79.0198
 2.0350	79.0616
 2.0340	79.0264
 2.0330	79.0546
 2.0320	79.0595
 2.0310	78.9701
 2.0300	78.9253
 2.0290	79.0147
 2.0280	78.9715
 2.0270	78.9633
 2.0260	78.9595
 2.0250	78.9904
 2.0240	78.8827
 2.0230	78.8658
 2.0220	78.9002
 2.0210	78.9346
 2.0200	78.8711
 2.0190	78.8380
 2.0180	78.8800
 2.0170	78.9093
 2.0160	78.8756
 2.0150	78.8209
 2.0140	78.8324
 2.0130	78.8363
 2.0120	78.8421
 2.0110	78.8294
 2.0100	78.7391
 2.0090	78.6991
 2.0080	78.7600
 2.0070	78.7823
 2.0060	78.7361
 2.0050	78.7422
 2.0040	78.7519
 2.0030	78.7180
 2.0020	78.7243
 2.0010	78.7336
 2.0000	78.6518
 1.9990	78.6484
 1.9980	78.6204
 1.9970	78.6043
 1.9960	78.5722
 1.9950	78.5412
 1.9940	78.5020
 1.9930	78.4949
 1.9920	78.4339
 1.9910	78.4735
 1.9900	78.3901
 1.9890	78.4004
 1.9880	78.3634
 1.9870	78.4071
 1.9860	78.3617
 1.9850	78.3460
 1.9840	78.3084
 1.9830	78.2411
 1.9820	78.1844
 1.9810	78.2014
 1.9800	78.1154
 1.9790	78.1905
 1.9780	78.1218
 1.9770	78.1062
 1.9760	78.0681
 1.9750	78.1281
 1.9740	78.0800
 1.9730	78.0327
 1.9720	77.9712
 1.9710	77.9830
 1.9700	78.0240
 1.9690	77.9350
 1.9680	77.9598
 1.9670	77.9769
 1.9660	77.8945
 1.9650	77.9221
 1.9640	77.8408
 1.9630	77.8927
 1.9620	77.8385
 1.9610	77.8561
 1.9600	77.7958
 1.9590	77.7631
 1.9580	77.7123
 1.9570	77.7603
 1.9560	77.7953
 1.9550	77.7131
 1.9540	77.6943
 1.9530	77.7298
 1.9520	77.7215
 1.9510	77.6856
 1.9500	77.6635
 1.9490	77.6111
 1.9480	77.5820
 1.9470	77.5272
 1.9460	77.6100
 1.9450	77.5925
 1.9440	77.5272
 1.9430	77.5731
 1.9420	77.5511
 1.9410	77.5276
 1.9400	77.4608
 1.9390	77.5538
 1.9380	77.4886
 1.9370	77.5047
 1.9360	77.4456
 1.9350	77.3408
 1.9340	77.3536
 1.9330	77.4433
 1.9320	77.3089
 1.9310	77.4302
 1.9300	77.3619
 1.9290	77.3937
 1.9280	77.3321
 1.9270	77.3286
 1.9260	77.3582
 1.9250	77.3690
 1.9240	77.2444
 1.9230	77.3248
 1.9220	77.2639
 1.9210	77.2086
 1.9200	77.2644
 1.9190	77.2494
 1.9180	77.2600
 1.9170	77.2758
 1.9160	77.3284
 1.9150	77.4159
 1.9140	77.3712
 1.9130	77.3886
 1.9120	77.3981
 1.9110	77.4395
 1.9100	77.4796
 1.9090	77.6711
 1.9080	77.7346
 1.9070	77.7886
 1.9060	77.8314
 1.9050	77.9854
 1.9040	78.0064
 1.9030	78.0969
 1.9020	78.2768
 1.9010	78.3028
 1.9000	78.4504
 1.8990	78.4711
 1.8980	78.5140
 1.8970	78.7294
 1.8960	78.7152
 1.8950	78.8337
 1.8940	78.9221
 1.8930	78.9562
 1.8920	79.0953
 1.8910	79.1558
 1.8900	79.2456
 1.8890	79.2639
 1.8880	79.2958
 1.8870	79.3187
 1.8860	79.3655
 1.8850	79.5014
 1.8840	79.5084
 1.8830	79.5852
 1.8820	79.5654
 1.8810	79.6382
 1.8800	79.6801
 1.8790	79.6949
 1.8780	79.6760
 1.8770	79.6976
 1.8760	79.7856
 1.8750	79.8055
 1.8740	79.7963
 1.8730	79.8274
 1.8720	79.8308
 1.8710	79.8755
 1.8700	79.9697
 1.8690	79.9706
 1.8680	79.9762
 1.8670	80.0550
 1.8660	79.9701
 1.8650	80.0376
 1.8640	80.0774
 1.8630	80.0826
 1.8620	80.0196
 1.8610	80.0923
 1.8600	80.0517
 1.8590	80.0488
 1.8580	80.1001
 1.8570	80.0902
 1.8560	80.1550
 1.8550	80.1382
 1.8540	80.1618
 1.8530	80.1325
 1.8520	80.1485
 1.8510	80.2179
 1.8500	80.1826
 1.8490	80.1710
 1.8480	80.1250
 1.8470	80.1669
 1.8460	80.1588
 1.8450	80.1419
 1.8440	80.1791
 1.8430	80.1641
 1.8420	80.1966
 1.8410	80.2054
 1.8400	80.1958
 1.8390	80.2406
 1.8380	80.2060
 1.8370	80.1156
 1.8360	80.1279
 1.8350	80.1036
 1.8340	80.1185
 1.8330	80.1650
 1.8320	80.2017
 1.8310	80.1923
 1.8300	80.1343
 1.8290	80.1909
 1.8280	80.2127
 1.8270	80.1872
 1.8260	80.1643
 1.8250	80.1997
 1.8240	80.2101
 1.8230	80.2084
 1.8220	80.1991
 1.8210	80.2165
 1.8200	80.1688
 1.8190	80.1950
 1.8180	80.1889
 1.8170	80.1686
 1.8160	80.2293
 1.8150	80.2685
 1.8140	80.1735
 1.8130	80.2171
 1.8120	80.2544
 1.8110	80.2298
 1.8100	80.2207
 1.8090	80.2986
 1.8080	80.2167
 1.8070	80.1630
 1.8060	80.2174
 1.8050	80.2210
 1.8040	80.2300
 1.8030	80.2236
 1.8020	80.2082
 1.8010	80.1927
 1.8000	80.2124
 1.7990	80.2455
 1.7980	80.2392
 1.7970	80.1636
 1.7960	80.1199
 1.7950	80.1592
 1.7940	80.1580
 1.7930	80.1760
 1.7920	80.2186
 1.7910	80.2197
 1.7900	80.2618
 1.7890	80.2309
 1.7880	80.2134
 1.7870	80.2244
 1.7860	80.1897
 1.7850	80.1920
 1.7840	80.2108
 1.7830	80.2120
 1.7820	80.1716
 1.7810	80.1128
 1.7800	80.1255
 1.7790	80.1208
 1.7780	80.0928
 1.7770	80.0995
 1.7760	80.1264
 1.7750	80.1094
 1.7740	80.0629
 1.7730	80.0662
 1.7720	80.0928
 1.7710	80.1047
 1.7700	80.1199
 1.7690	80.0423
 1.7680	80.0815
 1.7670	80.1092
 1.7660	80.0923
 1.7650	80.1019
 1.7640	80.0835
 1.7630	80.0936
 1.7620	80.0672
 1.7610	80.0403
 1.7600	80.0689
 1.7590	80.0839
 1.7580	80.0873
 1.7570	80.1129
 1.7560	80.0864
 1.7550	80.0816
 1.7540	80.0731
 1.7530	80.0663
 1.7520	80.0927
 1.7510	80.0522
 1.7500	80.0637
 1.7490	80.0709
 1.7480	80.0389
 1.7470	80.0251
 1.7460	80.0273
 1.7450	80.0413
 1.7440	80.0457
 1.7430	80.0658
 1.7420	80.0782
 1.7410	80.0674
 1.7400	80.0908
 1.7390	80.0531
 1.7380	80.0798
 1.7370	80.0322
 1.7360	80.0251
 1.7350	80.0484
 1.7340	80.0966
 1.7330	80.0517
 1.7320	80.0469
 1.7310	80.1029
 1.7300	80.0951
 1.7290	80.0820
 1.7280	80.1308
 1.7270	80.1098
 1.7260	80.1200
 1.7250	80.0702
 1.7240	80.1016
 1.7230	80.1415
 1.7220	80.0738
 1.7210	80.0530
 1.7200	80.0571
 1.7190	80.0605
 1.7180	80.0478
 1.7170	80.1062
 1.7160	80.0891
 1.7150	80.0437
 1.7140	80.0553
 1.7130	80.0586
 1.7120	80.0023
 1.7110	79.9912
 1.7100	80.0270
 1.7090	79.9593
 1.7080	80.0113
 1.7070	79.9635
 1.7060	80.0052
 1.7050	79.9398
 1.7040	79.9863
 1.7030	79.9473
 1.7020	79.9717
 1.7010	79.9737
 1.7000	79.9744
 1.6990	79.9076
 1.6980	79.9384
 1.6970	79.8852
 1.6960	79.8581
 1.6950	79.8792
 1.6940	79.8405
 1.6930	79.8440
 1.6920	79.9052
 1.6910	79.8856
 1.6900	79.9225
 1.6890	79.7943
 1.6880	79.8194
 1.6870	79.8312
 1.6860	79.8666
 1.6850	79.8323
 1.6840	79.8286
 1.6830	79.8380
 1.6820	79.8639
 1.6810	79.7954
 1.6800	79.7850
 1.6790	79.8341
 1.6780	79.8455
 1.6770	79.8104
 1.6760	79.9235
 1.6750	79.7629
 1.6740	79.8260
 1.6730	79.8127
 1.6720	79.7221
 1.6710	79.6902
 1.6700	79.8838
 1.6690	79.7757
 1.6680	79.6746
 1.6670	79.7539
 1.6660	79.7266
 1.6650	79.7243
 1.6640	79.7535
 1.6630	79.6711
 1.6620	79.7537
 1.6610	79.7492
 1.6600	79.7506
 1.6590	79.6816
 1.6580	79.6900
 1.6570	79.6279
 1.6560	79.7812
 1.6550	79.6667
 1.6540	79.6406
 1.6530	79.6662
 1.6520	79.6619
 1.6510	79.6934
 1.6500	79.7038
 1.6490	79.6628
 1.6480	79.6328
 1.6470	79.6599
 1.6460	79.5893
 1.6450	79.6095
 1.6440	79.6357
 1.6430	79.6488
 1.6420	79.6598
 1.6410	79.5568
 1.6400	79.6394
 1.6390	79.5931
 1.6380	79.5821
 1.6370	79.5968
 1.6360	79.6478
 1.6350	79.5121
 1.6340	79.6152
 1.6330	79.6461
 1.6320	79.5501
 1.6310	79.5322
 1.6300	79.5758
 1.6290	79.5762
 1.6280	79.6081
 1.6270	79.5552
 1.6260	79.5428
 1.6250	79.5672
 1.6240	79.5653
 1.6230	79.5383
 1.6220	79.5931
 1.6210	79.5268
 1.6200	79.4749
 1.6190	79.5877
 1.6180	79.4963
 1.6170	79.5237
 1.6160	79.5945
 1.6150	79.5477
 1.6140	79.5369
 1.6130	79.5356
 1.6120	79.4606
 1.6110	79.4365
 1.6100	79.5043
 1.6090	79.4973
 1.6080	79.5425
 1.6070	79.4365
 1.6060	79.4674
 1.6050	79.5490
 1.6040	79.5517
 1.6030	79.4293
 1.6020	79.4464
 1.6010	79.4183
 1.6000	79.4628
 1.5990	79.4763
 1.5980	79.4401
 1.5970	79.4089
 1.5960	79.4671
 1.5950	79.4151
 1.5940	79.4848
 1.5930	79.4865
 1.5920	79.4161
 1.5910	79.4382
 1.5900	79.4274
 1.5890	79.4171
 1.5880	79.4260
 1.5870	79.4187
 1.5860	79.3491
 1.5850	79.3956
 1.5840	79.3459
 1.5830	79.3971
 1.5820	79.4340
 1.5810	79.3041
 1.5800	79.3815
 1.5790	79.3622
 1.5780	79.3709
 1.5770	79.3193
 1.5760	79.3776
 1.5750	79.3565
 1.5740	79.3745
 1.5730	79.2579
 1.5720	79.3679
 1.5710	79.3136
 1.5700	79.2520
 1.5690	79.2908
 1.5680	79.2792
 1.5670	79.3186
 1.5660	79.3635
 1.5650	79.2874
 1.5640	79.3623
 1.5630	79.3233
 1.5620	79.3388
 1.5610	79.2775
 1.5600	79.2120
 1.5590	79.2889
 1.5580	79.3247
 1.5570	79.2137
 1.5560	79.2286
 1.5550	79.2472
 1.5540	79.2262
 1.5530	79.2652
 1.5520	79.2325
 1.5510	79.1771
 1.5500	79.2430
 1.5490	79.2190
 1.5480	79.1871
 1.5470	79.2161
 1.5460	79.2455
 1.5450	79.1805
 1.5440	79.2025
 1.5430	79.2619
 1.5420	79.2143
 1.5410	79.1847
 1.5400	79.2086
 1.5390	79.1817
 1.5380	79.1707
 1.5370	79.2103
 1.5360	79.2453
 1.5350	79.1982
 1.5340	79.1539
 1.5330	79.1212
 1.5320	79.0967
 1.5310	79.1123
 1.5300	79.1141
 1.5290	79.1278
 1.5280	79.1455
 1.5270	79.1031
 1.5260	79.1386
 1.5250	79.1579
 1.5240	79.1023
 1.5230	79.1134
 1.5220	79.1301
 1.5210	79.1236
 1.5200	79.1076
 1.5190	79.0849
 1.5180	79.0632
 1.5170	79.0354
 1.5160	79.0430
 1.5150	79.0652
 1.5140	79.1000
 1.5130	79.1001
 1.5120	79.0398
 1.5110	79.0179
 1.5100	79.0521
 1.5090	79.0701
 1.5080	79.0552
 1.5070	79.0525
 1.5060	79.0254
 1.5050	78.9787
 1.5040	78.9844
 1.5030	78.9987
 1.5020	78.9712
 1.5010	78.9597
 1.5000	79.0089
 1.4990	79.0067
 1.4980	78.9696
 1.4970	78.9587
 1.4960	78.9057
 1.4950	78.8631
 1.4940	78.8840
 1.4930	78.8868
 1.4920	78.8188
 1.4910	78.7219
 1.4900	78.6741
 1.4890	78.6378
 1.4880	78.6097
 1.4870	78.6101
 1.4860	78.5636
 1.4850	78.4919
 1.4840	78.3717
 1.4830	78.3076
 1.4820	78.2650
 1.4810	78.1825
 1.4800	78.1582
 1.4790	78.1102
 1.4780	78.0752
 1.4770	78.1311
 1.4760	78.1495
 1.4750	78.1293
 1.4740	78.2049
 1.4730	78.3096
 1.4720	78.3793
 1.4710	78.4557
 1.4700	78.5023
 1.4690	78.5224
 1.4680	78.5632
 1.4670	78.6416
 1.4660	78.6678
 1.4650	78.6803
 1.4640	78.6771
 1.4630	78.7129
 1.4620	78.7386
 1.4610	78.6926
 1.4600	78.7085
 1.4590	78.7585
 1.4580	78.7609
 1.4570	78.7229
 1.4560	78.6759
 1.4550	78.7333
 1.4540	78.7391
 1.4530	78.6952
 1.4520	78.7068
 1.4510	78.7273
 1.4500	78.7290
 1.4490	78.7020
 1.4480	78.7073
 1.4470	78.7295
 1.4460	78.7831
 1.4450	78.7630
 1.4440	78.7073
 1.4430	78.7311
 1.4420	78.7326
 1.4410	78.7333
 1.4400	78.7044
 1.4390	78.6753
 1.4380	78.6927
 1.4370	78.7265
 1.4360	78.7295
 1.4350	78.7497
 1.4340	78.7168
 1.4330	78.7067
 1.4320	78.6789
 1.4310	78.7073
 1.4300	78.6953
 1.4290	78.6988
 1.4280	78.7022
 1.4270	78.6944
 1.4260	78.6921
 1.4250	78.7998
 1.4240	78.7263
 1.4230	78.7027
 1.4220	78.7321
 1.4210	78.7769
 1.4200	78.7688
 1.4190	78.7754
 1.4180	78.7113
 1.4170	78.7498
 1.4160	78.7314
 1.4150	78.8479
 1.4140	78.8022
 1.4130	78.7581
 1.4120	78.7813
 1.4110	78.8321
 1.4100	78.7760
 1.4090	78.8939
 1.4080	78.9390
 1.4070	78.9088
 1.4060	78.8136
 1.4050	78.9026
 1.4040	78.8738
 1.4030	78.9283
 1.4020	78.9422
 1.4010	79.0053
 1.4000	78.9182
 1.3990	78.9343
 1.3980	79.0393
 1.3970	79.1107
 1.3960	79.0222
 1.3950	79.1311
 1.3940	79.0770
 1.3930	79.0972
 1.3920	79.1256
 1.3910	79.1491
 1.3900	79.1495
 1.3890	79.1682
 1.3880	79.1301
 1.3870	79.1291
 1.3860	79.1686
 1.3850	79.1501
 1.3840	79.0861
 1.3830	79.1740
 1.3820	79.0331
 1.3810	79.1228
 1.3800	79.1360
 1.3790	79.2180
 1.3780	79.0910
 1.3770	79.2268
 1.3760	79.2118
 1.3750	79.1285
 1.3740	79.1500
 1.3730	79.1078
 1.3720	79.1275
 1.3710	79.1568
 1.3700	79.0902
 1.3690	79.1812
 1.3680	79.1680
