Name: Cordierite Mg_2Al_3(Si_5Al)O_18
Type: Mineral
Class: Silicate
Subclass: Cyclosilicate
Particle Size: Fine
Sample No.: CS-3A
Owner: JPL
Wavelength Range: VSWIR
Origin: Canada, Northwest Territories, Mackenzie District, Great Bear Lake.
Collection Date: N/A
Description: Particle size was 0-45um.Collected by:  Ward's Original ASTER Spectral Library name was jpl.perkin.mineral.silicate.cyclosilicate.fine.cs03a.spectrum.txt
Measurement: Hemispherical reflectance
First Column: X
Second Column: Y
X Units: Wavelength (micrometers)
Y Units:Reflectance (percent)
First X Value:  2.5000
Last X Value:  0.4000
Number of X Values: 2101
Additional Information: mineral.silicate.cyclosilicate.fine.vswir.cs-3a.jpl.perkin.ancillary.txt

 2.5000	63.9772
 2.4990	63.9414
 2.4980	64.0701
 2.4970	64.3258
 2.4960	64.1429
 2.4950	64.5559
 2.4940	64.4476
 2.4930	64.4017
 2.4920	64.4619
 2.4910	64.8364
 2.4900	64.9079
 2.4890	64.9426
 2.4880	64.8665
 2.4870	65.0607
 2.4860	65.2051
 2.4850	65.2610
 2.4840	65.2105
 2.4830	65.5277
 2.4820	65.5462
 2.4810	65.4793
 2.4800	65.5562
 2.4790	65.6679
 2.4780	65.7974
 2.4770	65.9872
 2.4760	65.7971
 2.4750	65.9646
 2.4740	66.0513
 2.4730	66.2596
 2.4720	66.2081
 2.4710	66.2696
 2.4700	66.2721
 2.4690	66.3561
 2.4680	66.5192
 2.4670	66.5330
 2.4660	66.6041
 2.4650	66.6575
 2.4640	66.8311
 2.4630	66.8276
 2.4620	66.8908
 2.4610	66.9852
 2.4600	66.9651
 2.4590	67.0917
 2.4580	67.1323
 2.4570	67.2772
 2.4560	67.1826
 2.4550	67.3267
 2.4540	67.4125
 2.4530	67.3688
 2.4520	67.4300
 2.4510	67.6639
 2.4500	67.6292
 2.4490	67.5791
 2.4480	67.6390
 2.4470	67.9017
 2.4460	67.8764
 2.4450	67.9688
 2.4440	67.9782
 2.4430	67.9792
 2.4420	68.0469
 2.4410	68.0800
 2.4400	68.1039
 2.4390	68.1007
 2.4380	68.1742
 2.4370	68.2921
 2.4360	68.1757
 2.4350	68.3245
 2.4340	68.3666
 2.4330	68.3619
 2.4320	68.3840
 2.4310	68.4623
 2.4300	68.4006
 2.4290	68.4394
 2.4280	68.4690
 2.4270	68.5719
 2.4260	68.6364
 2.4250	68.6683
 2.4240	68.6843
 2.4230	68.7465
 2.4220	68.7403
 2.4210	68.8184
 2.4200	68.8295
 2.4190	68.8289
 2.4180	68.8250
 2.4170	68.9070
 2.4160	68.9261
 2.4150	68.9327
 2.4140	68.9560
 2.4130	69.0536
 2.4120	69.0467
 2.4110	69.0225
 2.4100	69.0784
 2.4090	69.1661
 2.4080	69.1613
 2.4070	69.2441
 2.4060	69.2481
 2.4050	69.2813
 2.4040	69.2346
 2.4030	69.3051
 2.4020	69.3104
 2.4010	69.3382
 2.4000	69.3582
 2.3990	69.4686
 2.3980	69.4904
 2.3970	69.4988
 2.3960	69.4870
 2.3950	69.5199
 2.3940	69.5730
 2.3930	69.5927
 2.3920	69.6266
 2.3910	69.6334
 2.3900	69.6660
 2.3890	69.6895
 2.3880	69.6779
 2.3870	69.7629
 2.3860	69.7669
 2.3850	69.7591
 2.3840	69.8042
 2.3830	69.8873
 2.3820	69.8857
 2.3810	69.8557
 2.3800	69.8282
 2.3790	69.8594
 2.3780	69.9384
 2.3770	70.0003
 2.3760	69.9151
 2.3750	69.9973
 2.3740	70.0604
 2.3730	70.0080
 2.3720	70.0291
 2.3710	70.1123
 2.3700	70.1254
 2.3690	70.0743
 2.3680	70.0882
 2.3670	70.1525
 2.3660	70.2138
 2.3650	70.2110
 2.3640	70.1680
 2.3630	70.1888
 2.3620	70.2460
 2.3610	70.2272
 2.3600	70.2169
 2.3590	70.2959
 2.3580	70.3487
 2.3570	70.3357
 2.3560	70.3108
 2.3550	70.3242
 2.3540	70.3318
 2.3530	70.3827
 2.3520	70.3918
 2.3510	70.3352
 2.3500	70.3796
 2.3490	70.3973
 2.3480	70.3699
 2.3470	70.3776
 2.3460	70.4230
 2.3450	70.4668
 2.3440	70.4981
 2.3430	70.4707
 2.3420	70.4861
 2.3410	70.5213
 2.3400	70.5538
 2.3390	70.5278
 2.3380	70.5029
 2.3370	70.5002
 2.3360	70.5516
 2.3350	70.4872
 2.3340	70.5131
 2.3330	70.5315
 2.3320	70.5046
 2.3310	70.5342
 2.3300	70.5528
 2.3290	70.5795
 2.3280	70.5537
 2.3270	70.5342
 2.3260	70.5156
 2.3250	70.5427
 2.3240	70.6110
 2.3230	70.5637
 2.3220	70.6070
 2.3210	70.5978
 2.3200	70.5994
 2.3190	70.6316
 2.3180	70.6098
 2.3170	70.6129
 2.3160	70.6146
 2.3150	70.6171
 2.3140	70.6464
 2.3130	70.6157
 2.3120	70.6437
 2.3110	70.6586
 2.3100	70.6519
 2.3090	70.6520
 2.3080	70.7017
 2.3070	70.7011
 2.3060	70.7096
 2.3050	70.6597
 2.3040	70.6683
 2.3030	70.6072
 2.3020	70.6803
 2.3010	70.6695
 2.3000	70.7101
 2.2990	70.7197
 2.2980	70.6999
 2.2970	70.7117
 2.2960	70.7371
 2.2950	70.7294
 2.2940	70.7339
 2.2930	70.6551
 2.2920	70.6637
 2.2910	70.6811
 2.2900	70.7290
 2.2890	70.7208
 2.2880	70.6760
 2.2870	70.5882
 2.2860	70.6867
 2.2850	70.6578
 2.2840	70.6575
 2.2830	70.7161
 2.2820	70.6808
 2.2810	70.6078
 2.2800	70.6001
 2.2790	70.6069
 2.2780	70.6084
 2.2770	70.6892
 2.2760	70.6669
 2.2750	70.6458
 2.2740	70.6813
 2.2730	70.6258
 2.2720	70.6376
 2.2710	70.6319
 2.2700	70.5870
 2.2690	70.6051
 2.2680	70.6180
 2.2670	70.5447
 2.2660	70.5973
 2.2650	70.5736
 2.2640	70.6149
 2.2630	70.5389
 2.2620	70.5111
 2.2610	70.5814
 2.2600	70.5615
 2.2590	70.5420
 2.2580	70.6345
 2.2570	70.5452
 2.2560	70.4851
 2.2550	70.5224
 2.2540	70.5128
 2.2530	70.4925
 2.2520	70.5819
 2.2510	70.5525
 2.2500	70.5750
 2.2490	70.5211
 2.2480	70.5643
 2.2470	70.5719
 2.2460	70.5917
 2.2450	70.6383
 2.2440	70.6458
 2.2430	70.6467
 2.2420	70.6794
 2.2410	70.6791
 2.2400	70.6877
 2.2390	70.6824
 2.2380	70.7286
 2.2370	70.8183
 2.2360	70.7671
 2.2350	70.8139
 2.2340	70.6949
 2.2330	70.7949
 2.2320	70.7704
 2.2310	70.6714
 2.2300	70.7965
 2.2290	70.8216
 2.2280	70.8490
 2.2270	70.9136
 2.2260	70.8643
 2.2250	70.8152
 2.2240	70.8607
 2.2230	70.7933
 2.2220	70.8191
 2.2210	70.8743
 2.2200	70.8072
 2.2190	70.8506
 2.2180	70.8351
 2.2170	70.8543
 2.2160	70.8907
 2.2150	70.8569
 2.2140	70.8895
 2.2130	70.8356
 2.2120	70.9277
 2.2110	70.8174
 2.2100	70.8639
 2.2090	70.9338
 2.2080	70.9010
 2.2070	70.8414
 2.2060	70.9418
 2.2050	70.9068
 2.2040	71.0316
 2.2030	71.0286
 2.2020	70.9462
 2.2010	71.0211
 2.2000	71.1705
 2.1990	71.0817
 2.1980	71.1614
 2.1970	71.1252
 2.1960	71.1752
 2.1950	71.1076
 2.1940	71.1387
 2.1930	71.2379
 2.1920	71.3663
 2.1910	71.2880
 2.1900	71.3623
 2.1890	71.3802
 2.1880	71.3811
 2.1870	71.4400
 2.1860	71.3964
 2.1850	71.3977
 2.1840	71.5711
 2.1830	71.5296
 2.1820	71.5898
 2.1810	71.5364
 2.1800	71.5704
 2.1790	71.6205
 2.1780	71.6639
 2.1770	71.7424
 2.1760	71.7823
 2.1750	71.8062
 2.1740	71.7970
 2.1730	71.8331
 2.1720	71.9178
 2.1710	71.9197
 2.1700	72.0968
 2.1690	72.0392
 2.1680	72.0152
 2.1670	72.1221
 2.1660	72.1359
 2.1650	72.1804
 2.1640	72.2309
 2.1630	72.2587
 2.1620	72.2548
 2.1610	72.3592
 2.1600	72.4694
 2.1590	72.4310
 2.1580	72.5300
 2.1570	72.4670
 2.1560	72.5568
 2.1550	72.5943
 2.1540	72.6898
 2.1530	72.5934
 2.1520	72.6812
 2.1510	72.7352
 2.1500	72.7510
 2.1490	72.8260
 2.1480	72.8713
 2.1470	72.8112
 2.1460	72.7881
 2.1450	72.9077
 2.1440	72.7938
 2.1430	72.7541
 2.1420	72.8347
 2.1410	72.8827
 2.1400	72.8804
 2.1390	72.8725
 2.1380	72.9640
 2.1370	72.9354
 2.1360	72.8854
 2.1350	72.8595
 2.1340	72.8852
 2.1330	72.8807
 2.1320	72.8489
 2.1310	72.7768
 2.1300	72.7083
 2.1290	72.6827
 2.1280	72.7507
 2.1270	72.7415
 2.1260	72.7105
 2.1250	72.7004
 2.1240	72.6376
 2.1230	72.5127
 2.1220	72.5247
 2.1210	72.4933
 2.1200	72.2369
 2.1190	71.9629
 2.1180	72.4252
 2.1170	72.3427
 2.1160	72.3334
 2.1150	72.2810
 2.1140	72.2517
 2.1130	72.2053
 2.1120	72.1487
 2.1110	72.0755
 2.1100	72.0659
 2.1090	72.0139
 2.1080	71.9885
 2.1070	71.9582
 2.1060	71.9378
 2.1050	71.8681
 2.1040	71.8204
 2.1030	71.7846
 2.1020	71.7478
 2.1010	71.7131
 2.1000	71.7110
 2.0990	71.7432
 2.0980	71.7291
 2.0970	71.7118
 2.0960	71.7047
 2.0950	71.6931
 2.0940	71.7891
 2.0930	71.7703
 2.0920	71.7489
 2.0910	71.7606
 2.0900	71.8008
 2.0890	71.7962
 2.0880	71.7920
 2.0870	71.8028
 2.0860	71.8098
 2.0850	71.8315
 2.0840	71.8671
 2.0830	71.8896
 2.0820	71.8714
 2.0810	71.8800
 2.0800	71.9129
 2.0790	71.9025
 2.0780	71.9388
 2.0770	72.0135
 2.0760	72.0085
 2.0750	72.0088
 2.0740	72.0472
 2.0730	72.0729
 2.0720	72.0678
 2.0710	72.0966
 2.0700	72.1688
 2.0690	72.1713
 2.0680	72.1710
 2.0670	72.1802
 2.0660	72.2215
 2.0650	72.2336
 2.0640	72.2267
 2.0630	72.2331
 2.0620	72.2634
 2.0610	72.2843
 2.0600	72.2956
 2.0590	72.3130
 2.0580	72.3040
 2.0570	72.3091
 2.0560	72.3514
 2.0550	72.3282
 2.0540	72.3338
 2.0530	72.3227
 2.0520	72.3347
 2.0510	72.3331
 2.0500	72.3751
 2.0490	72.4493
 2.0480	72.4214
 2.0470	72.3890
 2.0460	72.3868
 2.0450	72.3710
 2.0440	72.3563
 2.0430	72.4069
 2.0420	72.4090
 2.0410	72.4356
 2.0400	72.4359
 2.0390	72.3967
 2.0380	72.3680
 2.0370	72.4178
 2.0360	72.4432
 2.0350	72.4303
 2.0340	72.4146
 2.0330	72.4257
 2.0320	72.3881
 2.0310	72.3931
 2.0300	72.4352
 2.0290	72.4467
 2.0280	72.4576
 2.0270	72.3839
 2.0260	72.3319
 2.0250	72.3722
 2.0240	72.3290
 2.0230	72.3236
 2.0220	72.2696
 2.0210	72.2261
 2.0200	72.1905
 2.0190	72.1326
 2.0180	72.0223
 2.0170	72.1030
 2.0160	71.9510
 2.0150	71.9430
 2.0140	71.9630
 2.0130	71.9104
 2.0120	71.9240
 2.0110	71.9402
 2.0100	71.9771
 2.0090	71.9931
 2.0080	72.1180
 2.0070	72.1303
 2.0060	72.1830
 2.0050	72.1500
 2.0040	72.1197
 2.0030	72.1424
 2.0020	72.1036
 2.0010	72.1392
 2.0000	72.0656
 1.9990	72.1179
 1.9980	71.9924
 1.9970	71.9610
 1.9960	71.9583
 1.9950	71.8980
 1.9940	71.8144
 1.9930	71.8301
 1.9920	71.7246
 1.9910	71.7183
 1.9900	71.7745
 1.9890	71.6794
 1.9880	71.6048
 1.9870	71.5804
 1.9860	71.5542
 1.9850	71.5773
 1.9840	71.4734
 1.9830	71.5091
 1.9820	71.4169
 1.9810	71.3695
 1.9800	71.3860
 1.9790	71.2828
 1.9780	71.3057
 1.9770	71.2202
 1.9760	71.1662
 1.9750	71.1831
 1.9740	71.0945
 1.9730	71.0778
 1.9720	70.9510
 1.9710	70.8822
 1.9700	70.8307
 1.9690	70.7867
 1.9680	70.8231
 1.9670	70.7723
 1.9660	70.6527
 1.9650	70.7731
 1.9640	70.7293
 1.9630	70.7526
 1.9620	70.7309
 1.9610	70.7480
 1.9600	70.7200
 1.9590	70.7262
 1.9580	70.7661
 1.9570	70.7019
 1.9560	70.7427
 1.9550	70.7443
 1.9540	70.6706
 1.9530	70.7154
 1.9520	70.6759
 1.9510	70.6818
 1.9500	70.6515
 1.9490	70.6646
 1.9480	70.6329
 1.9470	70.6347
 1.9460	70.7331
 1.9450	70.6425
 1.9440	70.6298
 1.9430	70.6350
 1.9420	70.6329
 1.9410	70.6146
 1.9400	70.5908
 1.9390	70.5712
 1.9380	70.5951
 1.9370	70.5110
 1.9360	70.4640
 1.9350	70.4869
 1.9340	70.4895
 1.9330	70.4522
 1.9320	70.3711
 1.9310	70.4264
 1.9300	70.3950
 1.9290	70.4110
 1.9280	70.4318
 1.9270	70.3931
 1.9260	70.2743
 1.9250	70.3292
 1.9240	70.1285
 1.9230	70.2353
 1.9220	70.1236
 1.9210	70.0058
 1.9200	69.9637
 1.9190	69.8777
 1.9180	69.7480
 1.9170	69.6463
 1.9160	69.3687
 1.9150	69.1771
 1.9140	68.9122
 1.9130	68.7122
 1.9120	68.2091
 1.9110	67.8004
 1.9100	67.3437
 1.9090	66.7561
 1.9080	65.9249
 1.9070	65.1077
 1.9060	64.1056
 1.9050	62.7924
 1.9040	61.5721
 1.9030	60.3326
 1.9020	59.2944
 1.9010	58.4146
 1.9000	57.7535
 1.8990	57.5927
 1.8980	57.6935
 1.8970	58.4096
 1.8960	59.4418
 1.8950	60.9524
 1.8940	62.5185
 1.8930	64.1997
 1.8920	65.7266
 1.8910	67.1719
 1.8900	68.3768
 1.8890	69.2575
 1.8880	69.8032
 1.8870	70.3239
 1.8860	70.6463
 1.8850	71.0158
 1.8840	71.2304
 1.8830	71.4627
 1.8820	71.5688
 1.8810	71.6485
 1.8800	71.8251
 1.8790	71.9161
 1.8780	72.0087
 1.8770	72.0226
 1.8760	72.1131
 1.8750	72.1706
 1.8740	72.0824
 1.8730	72.1793
 1.8720	72.2128
 1.8710	72.2597
 1.8700	72.1902
 1.8690	72.2584
 1.8680	72.2721
 1.8670	72.2698
 1.8660	72.2304
 1.8650	72.2475
 1.8640	72.2892
 1.8630	72.3065
 1.8620	72.2369
 1.8610	72.2490
 1.8600	72.2213
 1.8590	72.2899
 1.8580	72.1751
 1.8570	72.2227
 1.8560	72.1876
 1.8550	72.1656
 1.8540	72.0890
 1.8530	72.1404
 1.8520	72.0663
 1.8510	72.1352
 1.8500	72.1030
 1.8490	72.0772
 1.8480	72.0855
 1.8470	72.1247
 1.8460	72.0798
 1.8450	72.0997
 1.8440	72.1007
 1.8430	72.1367
 1.8420	72.1313
 1.8410	72.0966
 1.8400	72.1471
 1.8390	72.1305
 1.8380	72.1389
 1.8370	72.1944
 1.8360	72.1521
 1.8350	72.1926
 1.8340	72.2188
 1.8330	72.2540
 1.8320	72.2414
 1.8310	72.2364
 1.8300	72.2105
 1.8290	72.3307
 1.8280	72.2961
 1.8270	72.3406
 1.8260	72.3770
 1.8250	72.4587
 1.8240	72.4371
 1.8230	72.4472
 1.8220	72.4560
 1.8210	72.5230
 1.8200	72.5799
 1.8190	72.6801
 1.8180	72.6778
 1.8170	72.7440
 1.8160	72.8107
 1.8150	72.8685
 1.8140	72.8552
 1.8130	72.9134
 1.8120	73.0389
 1.8110	73.0939
 1.8100	73.1550
 1.8090	73.2347
 1.8080	73.2222
 1.8070	73.2289
 1.8060	73.3200
 1.8050	73.4298
 1.8040	73.4522
 1.8030	73.4459
 1.8020	73.5056
 1.8010	73.6081
 1.8000	73.6265
 1.7990	73.6387
 1.7980	73.6900
 1.7970	73.7129
 1.7960	73.6732
 1.7950	73.6564
 1.7940	73.6871
 1.7930	73.7494
 1.7920	73.7684
 1.7910	73.7813
 1.7900	73.8411
 1.7890	73.8350
 1.7880	73.7856
 1.7870	73.7679
 1.7860	73.7966
 1.7850	73.9022
 1.7840	73.9278
 1.7830	73.8538
 1.7820	73.8849
 1.7810	73.9268
 1.7800	73.8850
 1.7790	73.9218
 1.7780	73.9440
 1.7770	73.9487
 1.7760	74.0306
 1.7750	74.0241
 1.7740	74.0083
 1.7730	73.9832
 1.7720	73.9795
 1.7710	73.9855
 1.7700	73.9898
 1.7690	74.0851
 1.7680	74.1102
 1.7670	74.0859
 1.7660	74.0413
 1.7650	74.0498
 1.7640	74.0831
 1.7630	74.0523
 1.7620	74.0182
 1.7610	74.0520
 1.7600	74.1151
 1.7590	74.1460
 1.7580	74.1234
 1.7570	74.0945
 1.7560	74.1404
 1.7550	74.1536
 1.7540	74.1588
 1.7530	74.1342
 1.7520	74.1903
 1.7510	74.1786
 1.7500	74.2179
 1.7490	74.2281
 1.7480	74.2088
 1.7470	74.1971
 1.7460	74.1893
 1.7450	74.2232
 1.7440	74.2419
 1.7430	74.1977
 1.7420	74.2316
 1.7410	74.2733
 1.7400	74.3058
 1.7390	74.2727
 1.7380	74.2404
 1.7370	74.2631
 1.7360	74.3192
 1.7350	74.3034
 1.7340	74.2998
 1.7330	74.3105
 1.7320	74.3126
 1.7310	74.3196
 1.7300	74.3110
 1.7290	74.2700
 1.7280	74.3599
 1.7270	74.3536
 1.7260	74.3202
 1.7250	74.3085
 1.7240	74.3385
 1.7230	74.3358
 1.7220	74.3777
 1.7210	74.3056
 1.7200	74.3345
 1.7190	74.3849
 1.7180	74.3909
 1.7170	74.3340
 1.7160	74.3124
 1.7150	74.3106
 1.7140	74.3333
 1.7130	74.3452
 1.7120	74.3714
 1.7110	74.3308
 1.7100	74.3414
 1.7090	74.3208
 1.7080	74.3680
 1.7070	74.2725
 1.7060	74.3495
 1.7050	74.3470
 1.7040	74.3570
 1.7030	74.3012
 1.7020	74.3101
 1.7010	74.2491
 1.7000	74.2607
 1.6990	74.2838
 1.6980	74.3058
 1.6970	74.2987
 1.6960	74.2885
 1.6950	74.3416
 1.6940	74.4068
 1.6930	74.3090
 1.6920	74.3476
 1.6910	74.3403
 1.6900	74.3275
 1.6890	74.2763
 1.6880	74.3436
 1.6870	74.2974
 1.6860	74.3216
 1.6850	74.2427
 1.6840	74.3896
 1.6830	74.2537
 1.6820	74.2756
 1.6810	74.2990
 1.6800	74.4036
 1.6790	74.2974
 1.6780	74.2967
 1.6770	74.2562
 1.6760	74.2568
 1.6750	74.2292
 1.6740	74.2212
 1.6730	74.3114
 1.6720	74.2652
 1.6710	74.3010
 1.6700	74.3643
 1.6690	74.4769
 1.6680	74.2116
 1.6670	74.3014
 1.6660	74.3132
 1.6650	74.2968
 1.6640	74.3083
 1.6630	74.2386
 1.6620	74.3395
 1.6610	74.2566
 1.6600	74.3264
 1.6590	74.3461
 1.6580	74.2946
 1.6570	74.3089
 1.6560	74.3130
 1.6550	74.2789
 1.6540	74.3940
 1.6530	74.3068
 1.6520	74.3500
 1.6510	74.2294
 1.6500	74.3323
 1.6490	74.3267
 1.6480	74.2718
 1.6470	74.2240
 1.6460	74.2850
 1.6450	74.2055
 1.6440	74.3287
 1.6430	74.2207
 1.6420	74.3171
 1.6410	74.2265
 1.6400	74.2870
 1.6390	74.2477
 1.6380	74.2408
 1.6370	74.1917
 1.6360	74.2851
 1.6350	74.2314
 1.6340	74.3381
 1.6330	74.2032
 1.6320	74.2884
 1.6310	74.3007
 1.6300	74.2307
 1.6290	74.2506
 1.6280	74.2287
 1.6270	74.2896
 1.6260	74.2359
 1.6250	74.2607
 1.6240	74.2948
 1.6230	74.1756
 1.6220	74.2704
 1.6210	74.2327
 1.6200	74.1368
 1.6190	74.1732
 1.6180	74.3100
 1.6170	74.1596
 1.6160	74.2560
 1.6150	74.2025
 1.6140	74.2541
 1.6130	74.2054
 1.6120	74.1991
 1.6110	74.1776
 1.6100	74.2445
 1.6090	74.1356
 1.6080	74.2252
 1.6070	74.2295
 1.6060	74.1244
 1.6050	74.1923
 1.6040	74.2286
 1.6030	74.2011
 1.6020	74.1802
 1.6010	74.1534
 1.6000	74.2262
 1.5990	74.2279
 1.5980	74.1511
 1.5970	74.1862
 1.5960	74.1117
 1.5950	74.0680
 1.5940	74.0815
 1.5930	74.1648
 1.5920	74.1403
 1.5910	74.1183
 1.5900	74.1357
 1.5890	74.1065
 1.5880	74.1124
 1.5870	74.1470
 1.5860	74.0925
 1.5850	74.1369
 1.5840	74.1376
 1.5830	74.0615
 1.5820	74.0486
 1.5810	73.9644
 1.5800	74.0358
 1.5790	73.9977
 1.5780	73.9830
 1.5770	73.9799
 1.5760	73.9959
 1.5750	73.9853
 1.5740	74.0607
 1.5730	73.9916
 1.5720	73.9961
 1.5710	73.9110
 1.5700	73.9750
 1.5690	73.9352
 1.5680	73.9349
 1.5670	73.9545
 1.5660	73.9436
 1.5650	73.8941
 1.5640	73.9019
 1.5630	73.8046
 1.5620	73.8578
 1.5610	73.8003
 1.5600	73.8284
 1.5590	73.8171
 1.5580	73.8227
 1.5570	73.8217
 1.5560	73.8536
 1.5550	73.8567
 1.5540	73.8275
 1.5530	73.7781
 1.5520	73.7568
 1.5510	73.7713
 1.5500	73.8096
 1.5490	73.7117
 1.5480	73.6664
 1.5470	73.6762
 1.5460	73.7438
 1.5450	73.6770
 1.5440	73.7079
 1.5430	73.7037
 1.5420	73.6906
 1.5410	73.6753
 1.5400	73.6661
 1.5390	73.6514
 1.5380	73.6612
 1.5370	73.5943
 1.5360	73.5771
 1.5350	73.5688
 1.5340	73.5626
 1.5330	73.5395
 1.5320	73.5160
 1.5310	73.4697
 1.5300	73.4711
 1.5290	73.4858
 1.5280	73.5066
 1.5270	73.4241
 1.5260	73.3536
 1.5250	73.3716
 1.5240	73.4151
 1.5230	73.3652
 1.5220	73.2911
 1.5210	73.2792
 1.5200	73.2762
 1.5190	73.2850
 1.5180	73.2819
 1.5170	73.2651
 1.5160	73.2819
 1.5150	73.2490
 1.5140	73.1986
 1.5130	73.1420
 1.5120	73.1449
 1.5110	73.1573
 1.5100	73.1485
 1.5090	73.1100
 1.5080	73.0567
 1.5070	73.0107
 1.5060	72.9672
 1.5050	73.0009
 1.5040	72.9830
 1.5030	72.9161
 1.5020	72.8577
 1.5010	72.8162
 1.5000	72.8148
 1.4990	72.8369
 1.4980	72.8361
 1.4970	72.8361
 1.4960	72.8016
 1.4950	72.7620
 1.4940	72.7090
 1.4930	72.6528
 1.4920	72.6502
 1.4910	72.6368
 1.4900	72.5691
 1.4890	72.5489
 1.4880	72.5640
 1.4870	72.5308
 1.4860	72.5019
 1.4850	72.4634
 1.4840	72.4708
 1.4830	72.4132
 1.4820	72.3419
 1.4810	72.3022
 1.4800	72.2394
 1.4790	72.2457
 1.4780	72.2071
 1.4770	72.1241
 1.4760	72.0632
 1.4750	71.9849
 1.4740	71.8987
 1.4730	71.7579
 1.4720	71.5000
 1.4710	71.3079
 1.4700	71.1793
 1.4690	71.0743
 1.4680	71.0494
 1.4670	71.1055
 1.4660	71.2329
 1.4650	71.3873
 1.4640	71.4007
 1.4630	71.4411
 1.4620	71.4552
 1.4610	71.4376
 1.4600	71.3868
 1.4590	71.4395
 1.4580	71.3958
 1.4570	71.3632
 1.4560	71.3616
 1.4550	71.2984
 1.4540	71.2712
 1.4530	71.2395
 1.4520	71.1702
 1.4510	71.1179
 1.4500	71.0766
 1.4490	71.0157
 1.4480	70.9200
 1.4470	70.8726
 1.4460	70.8687
 1.4450	70.8362
 1.4440	70.7558
 1.4430	70.6876
 1.4420	70.6228
 1.4410	70.5459
 1.4400	70.4899
 1.4390	70.4895
 1.4380	70.3877
 1.4370	70.3431
 1.4360	70.2843
 1.4350	70.1828
 1.4340	70.0816
 1.4330	70.0505
 1.4320	69.8928
 1.4310	69.9165
 1.4300	69.7999
 1.4290	69.7441
 1.4280	69.6456
 1.4270	69.5747
 1.4260	69.4163
 1.4250	69.3023
 1.4240	69.1183
 1.4230	69.0132
 1.4220	68.9406
 1.4210	68.7827
 1.4200	68.6754
 1.4190	68.6674
 1.4180	68.5179
 1.4170	68.4588
 1.4160	68.3440
 1.4150	68.3168
 1.4140	68.1732
 1.4130	68.0739
 1.4120	67.8592
 1.4110	67.7704
 1.4100	67.3375
 1.4090	66.7960
 1.4080	65.9355
 1.4070	64.8019
 1.4060	63.6425
 1.4050	62.8342
 1.4040	62.8007
 1.4030	63.3661
 1.4020	64.4363
 1.4010	65.6400
 1.4000	66.5243
 1.3990	67.1729
 1.3980	67.4198
 1.3970	67.6067
 1.3960	67.7389
 1.3950	67.9061
 1.3940	67.9390
 1.3930	67.9119
 1.3920	67.9445
 1.3910	68.0289
 1.3900	68.0075
 1.3890	67.9452
 1.3880	67.8179
 1.3870	67.8611
 1.3860	67.8293
 1.3850	67.8295
 1.3840	67.7282
 1.3830	67.6055
 1.3820	67.4812
 1.3810	67.5459
 1.3800	67.4650
 1.3790	67.3785
 1.3780	67.3628
 1.3770	67.3285
 1.3760	67.2237
 1.3750	67.1144
 1.3740	67.1088
 1.3730	67.1599
 1.3720	66.9841
 1.3710	66.9289
 1.3700	66.8049
 1.3690	66.8351
