Name: Microcline (Feldspar) (K,Na)AlSi_3O_8
Type: Mineral
Class: Silicate
Subclass: Tectosilicate
Particle Size: Medium
Sample No.: TS-17A
Owner: JPL
Wavelength Range: VSWIR
Origin: Unknown.
Collection Date: N/A
Description: Particle size was 45-125um. Collected by: JPL Original ASTER Spectral Library name was jpl.perkin.mineral.silicate.tectosilicate.medium.ts17a.spectrum.txt
Measurement: Hemispherical reflectance
First Column: X
Second Column: Y
X Units: Wavelength (micrometers)
Y Units:Reflectance (percent)
First X Value:  2.5000
Last X Value:  0.4000
Number of X Values: 2101
Additional Information: mineral.silicate.tectosilicate.medium.vswir.ts-17a.jpl.perkin.ancillary.txt

 2.5000	68.0683
 2.4990	68.0061
 2.4980	68.0368
 2.4970	67.9792
 2.4960	67.7484
 2.4950	67.9399
 2.4940	67.9259
 2.4930	67.9194
 2.4920	67.7748
 2.4910	67.9679
 2.4900	67.9577
 2.4890	68.0786
 2.4880	67.9780
 2.4870	67.9565
 2.4860	67.9003
 2.4850	67.9116
 2.4840	67.9497
 2.4830	67.9752
 2.4820	67.9868
 2.4810	68.0795
 2.4800	68.0374
 2.4790	68.1877
 2.4780	68.1986
 2.4770	68.1962
 2.4760	68.1523
 2.4750	68.1268
 2.4740	68.2201
 2.4730	68.2070
 2.4720	68.2586
 2.4710	68.3200
 2.4700	68.1533
 2.4690	68.2334
 2.4680	68.3114
 2.4670	68.3803
 2.4660	68.2485
 2.4650	68.3050
 2.4640	68.1723
 2.4630	68.4523
 2.4620	68.3072
 2.4610	68.2887
 2.4600	68.3138
 2.4590	68.4468
 2.4580	68.4048
 2.4570	68.5386
 2.4560	68.3993
 2.4550	68.3660
 2.4540	68.3670
 2.4530	68.2936
 2.4520	68.2174
 2.4510	68.3003
 2.4500	68.3402
 2.4490	68.3478
 2.4480	68.2189
 2.4470	68.3756
 2.4460	68.3360
 2.4450	68.3582
 2.4440	68.2981
 2.4430	68.3256
 2.4420	68.2975
 2.4410	68.3390
 2.4400	68.3039
 2.4390	68.3867
 2.4380	68.4172
 2.4370	68.5468
 2.4360	68.4485
 2.4350	68.5341
 2.4340	68.5644
 2.4330	68.4753
 2.4320	68.5769
 2.4310	68.7307
 2.4300	68.7566
 2.4290	68.8697
 2.4280	68.9439
 2.4270	68.9657
 2.4260	69.0396
 2.4250	69.1607
 2.4240	69.3357
 2.4230	69.4073
 2.4220	69.5038
 2.4210	69.6020
 2.4200	69.6325
 2.4190	69.7102
 2.4180	69.8372
 2.4170	69.9132
 2.4160	69.9857
 2.4150	70.1992
 2.4140	70.2767
 2.4130	70.3329
 2.4120	70.4359
 2.4110	70.5929
 2.4100	70.7289
 2.4090	70.8306
 2.4080	70.8927
 2.4070	71.0798
 2.4060	71.1890
 2.4050	71.2404
 2.4040	71.4316
 2.4030	71.4339
 2.4020	71.4837
 2.4010	71.5693
 2.4000	71.5510
 2.3990	71.6577
 2.3980	71.7472
 2.3970	71.9038
 2.3960	71.9899
 2.3950	72.0222
 2.3940	72.0492
 2.3930	72.0054
 2.3920	71.9582
 2.3910	72.0529
 2.3900	72.1481
 2.3890	72.2228
 2.3880	72.2616
 2.3870	72.2984
 2.3860	72.3361
 2.3850	72.3181
 2.3840	72.3121
 2.3830	72.3342
 2.3820	72.4223
 2.3810	72.4564
 2.3800	72.4439
 2.3790	72.4703
 2.3780	72.4643
 2.3770	72.5238
 2.3760	72.5402
 2.3750	72.5333
 2.3740	72.5693
 2.3730	72.5823
 2.3720	72.5962
 2.3710	72.6291
 2.3700	72.5566
 2.3690	72.5209
 2.3680	72.5530
 2.3670	72.5934
 2.3660	72.6168
 2.3650	72.6003
 2.3640	72.5324
 2.3630	72.4610
 2.3620	72.4575
 2.3610	72.4253
 2.3600	72.3802
 2.3590	72.3024
 2.3580	72.2400
 2.3570	72.2512
 2.3560	72.1906
 2.3550	72.1480
 2.3540	72.0983
 2.3530	72.0019
 2.3520	71.9763
 2.3510	71.9311
 2.3500	71.8609
 2.3490	71.8449
 2.3480	71.8126
 2.3470	71.7629
 2.3460	71.7531
 2.3450	71.7694
 2.3440	71.7702
 2.3430	71.7558
 2.3420	71.8283
 2.3410	71.8493
 2.3400	71.8900
 2.3390	71.9993
 2.3380	72.0344
 2.3370	72.0895
 2.3360	72.1220
 2.3350	72.1190
 2.3340	72.2398
 2.3330	72.4010
 2.3320	72.5178
 2.3310	72.6016
 2.3300	72.7520
 2.3290	72.8310
 2.3280	72.9059
 2.3270	73.0799
 2.3260	73.1928
 2.3250	73.2974
 2.3240	73.4099
 2.3230	73.5815
 2.3220	73.7046
 2.3210	73.8140
 2.3200	73.9463
 2.3190	74.1058
 2.3180	74.2563
 2.3170	74.3733
 2.3160	74.5024
 2.3150	74.6742
 2.3140	74.7490
 2.3130	74.8607
 2.3120	75.0320
 2.3110	75.1535
 2.3100	75.2399
 2.3090	75.3771
 2.3080	75.5151
 2.3070	75.5305
 2.3060	75.7270
 2.3050	75.8555
 2.3040	75.9296
 2.3030	75.9879
 2.3020	76.0744
 2.3010	76.2249
 2.3000	76.3003
 2.2990	76.3597
 2.2980	76.4706
 2.2970	76.5757
 2.2960	76.6434
 2.2950	76.6479
 2.2940	76.7262
 2.2930	76.7914
 2.2920	76.8968
 2.2910	76.9759
 2.2900	77.0688
 2.2890	77.1180
 2.2880	77.1124
 2.2870	77.1767
 2.2860	77.3205
 2.2850	77.2814
 2.2840	77.3093
 2.2830	77.3397
 2.2820	77.4061
 2.2810	77.3710
 2.2800	77.3991
 2.2790	77.4847
 2.2780	77.5856
 2.2770	77.5646
 2.2760	77.6201
 2.2750	77.6290
 2.2740	77.6077
 2.2730	77.6499
 2.2720	77.6115
 2.2710	77.6126
 2.2700	77.5986
 2.2690	77.5724
 2.2680	77.6281
 2.2670	77.6191
 2.2660	77.5499
 2.2650	77.6176
 2.2640	77.6304
 2.2630	77.5758
 2.2620	77.5220
 2.2610	77.5024
 2.2600	77.4336
 2.2590	77.3982
 2.2580	77.4372
 2.2570	77.3646
 2.2560	77.4021
 2.2550	77.2668
 2.2540	77.2763
 2.2530	77.3441
 2.2520	77.2543
 2.2510	77.2340
 2.2500	77.1657
 2.2490	77.2062
 2.2480	77.1647
 2.2470	77.1717
 2.2460	77.1680
 2.2450	77.0157
 2.2440	77.0999
 2.2430	77.0541
 2.2420	77.0319
 2.2410	76.8951
 2.2400	76.9986
 2.2390	76.9368
 2.2380	76.8466
 2.2370	76.8502
 2.2360	76.7849
 2.2350	76.7512
 2.2340	76.6471
 2.2330	76.6477
 2.2320	76.5188
 2.2310	76.3830
 2.2300	76.4015
 2.2290	76.3190
 2.2280	76.2405
 2.2270	76.1887
 2.2260	75.9867
 2.2250	75.9357
 2.2240	75.8099
 2.2230	75.5450
 2.2220	75.4768
 2.2210	75.4297
 2.2200	75.2415
 2.2190	74.9332
 2.2180	74.6633
 2.2170	74.3840
 2.2160	74.2604
 2.2150	73.9518
 2.2140	73.6398
 2.2130	73.3591
 2.2120	73.1433
 2.2110	72.7549
 2.2100	72.6451
 2.2090	72.3015
 2.2080	72.1177
 2.2070	71.7879
 2.2060	71.5207
 2.2050	71.2737
 2.2040	71.1898
 2.2030	70.9183
 2.2020	70.9033
 2.2010	70.7433
 2.2000	70.6735
 2.1990	70.5311
 2.1980	70.6195
 2.1970	70.5892
 2.1960	70.6421
 2.1950	70.6825
 2.1940	70.7872
 2.1930	70.9762
 2.1920	71.1154
 2.1910	71.3852
 2.1900	71.5153
 2.1890	71.8244
 2.1880	72.1660
 2.1870	72.4148
 2.1860	72.7148
 2.1850	73.1617
 2.1840	73.5205
 2.1830	73.7563
 2.1820	74.1545
 2.1810	74.4771
 2.1800	74.8294
 2.1790	75.1643
 2.1780	75.4677
 2.1770	75.7871
 2.1760	76.1282
 2.1750	76.4506
 2.1740	76.7269
 2.1730	77.0258
 2.1720	77.2206
 2.1710	77.4847
 2.1700	77.6740
 2.1690	77.8636
 2.1680	78.1177
 2.1670	78.3124
 2.1660	78.5289
 2.1650	78.5874
 2.1640	78.7252
 2.1630	78.9223
 2.1620	78.9791
 2.1610	79.1899
 2.1600	79.2617
 2.1590	79.4072
 2.1580	79.6048
 2.1570	79.7266
 2.1560	79.8199
 2.1550	79.8760
 2.1540	80.0117
 2.1530	80.1158
 2.1520	80.1546
 2.1510	80.2186
 2.1500	80.3206
 2.1490	80.3890
 2.1480	80.4387
 2.1470	80.5038
 2.1460	80.6253
 2.1450	80.6686
 2.1440	80.6875
 2.1430	80.6818
 2.1420	80.7567
 2.1410	80.8238
 2.1400	80.8627
 2.1390	80.8602
 2.1380	80.9133
 2.1370	80.8377
 2.1360	80.8378
 2.1350	80.8019
 2.1340	80.9113
 2.1330	80.9005
 2.1320	80.8747
 2.1310	80.7631
 2.1300	80.7373
 2.1290	80.7646
 2.1280	80.7128
 2.1270	80.6384
 2.1260	80.6503
 2.1250	80.5244
 2.1240	80.5061
 2.1230	80.5038
 2.1220	80.5155
 2.1210	80.4596
 2.1200	80.3941
 2.1190	80.3798
 2.1180	80.3290
 2.1170	80.3121
 2.1160	80.2099
 2.1150	80.1583
 2.1140	80.2147
 2.1130	80.1651
 2.1120	80.1699
 2.1110	80.1500
 2.1100	80.0479
 2.1090	80.0873
 2.1080	80.0350
 2.1070	79.9249
 2.1060	79.9666
 2.1050	79.9487
 2.1040	79.9548
 2.1030	79.9455
 2.1020	79.9293
 2.1010	79.9319
 2.1000	79.9210
 2.0990	79.8591
 2.0980	79.8819
 2.0970	79.9788
 2.0960	80.0081
 2.0950	80.0354
 2.0940	80.0523
 2.0930	80.0887
 2.0920	80.1827
 2.0910	80.2435
 2.0900	80.2530
 2.0890	80.2038
 2.0880	80.2377
 2.0870	80.3034
 2.0860	80.2953
 2.0850	80.3355
 2.0840	80.3653
 2.0830	80.3825
 2.0820	80.4724
 2.0810	80.4301
 2.0800	80.4282
 2.0790	80.4987
 2.0780	80.5065
 2.0770	80.4164
 2.0760	80.4327
 2.0750	80.5043
 2.0740	80.5165
 2.0730	80.4709
 2.0720	80.4484
 2.0710	80.4560
 2.0700	80.4695
 2.0690	80.4885
 2.0680	80.5142
 2.0670	80.5280
 2.0660	80.5666
 2.0650	80.5891
 2.0640	80.5869
 2.0630	80.6193
 2.0620	80.5517
 2.0610	80.5478
 2.0600	80.5820
 2.0590	80.5572
 2.0580	80.5675
 2.0570	80.5827
 2.0560	80.6136
 2.0550	80.5696
 2.0540	80.5433
 2.0530	80.5551
 2.0520	80.5085
 2.0510	80.4854
 2.0500	80.5174
 2.0490	80.5420
 2.0480	80.5543
 2.0470	80.5367
 2.0460	80.4655
 2.0450	80.4666
 2.0440	80.4841
 2.0430	80.4625
 2.0420	80.4330
 2.0410	80.4544
 2.0400	80.4907
 2.0390	80.4897
 2.0380	80.3717
 2.0370	80.3584
 2.0360	80.3785
 2.0350	80.3781
 2.0340	80.2867
 2.0330	80.3039
 2.0320	80.3483
 2.0310	80.3045
 2.0300	80.2575
 2.0290	80.1825
 2.0280	80.1589
 2.0270	80.1741
 2.0260	80.0899
 2.0250	80.0542
 2.0240	80.0327
 2.0230	80.1083
 2.0220	80.0611
 2.0210	79.9695
 2.0200	79.9367
 2.0190	79.9148
 2.0180	79.8291
 2.0170	79.8967
 2.0160	79.8364
 2.0150	79.7005
 2.0140	79.6543
 2.0130	79.5944
 2.0120	79.5659
 2.0110	79.4991
 2.0100	79.4997
 2.0090	79.5547
 2.0080	79.4602
 2.0070	79.4073
 2.0060	79.3542
 2.0050	79.3753
 2.0040	79.2762
 2.0030	79.2093
 2.0020	79.1793
 2.0010	79.1628
 2.0000	79.0807
 1.9990	79.0444
 1.9980	79.0028
 1.9970	78.9203
 1.9960	78.8310
 1.9950	78.8066
 1.9940	78.7196
 1.9930	78.6864
 1.9920	78.5983
 1.9910	78.6389
 1.9900	78.5498
 1.9890	78.4703
 1.9880	78.4423
 1.9870	78.3194
 1.9860	78.3189
 1.9850	78.2409
 1.9840	78.2308
 1.9830	78.1100
 1.9820	78.1178
 1.9810	78.0205
 1.9800	77.9394
 1.9790	77.9425
 1.9780	77.8528
 1.9770	77.7945
 1.9760	77.8127
 1.9750	77.7531
 1.9740	77.7536
 1.9730	77.6594
 1.9720	77.5925
 1.9710	77.4565
 1.9700	77.5433
 1.9690	77.4678
 1.9680	77.3682
 1.9670	77.3546
 1.9660	77.3515
 1.9650	77.3063
 1.9640	77.1776
 1.9630	77.1956
 1.9620	77.2521
 1.9610	77.1942
 1.9600	77.1235
 1.9590	77.0584
 1.9580	77.0349
 1.9570	77.1119
 1.9560	76.9879
 1.9550	76.9495
 1.9540	76.9054
 1.9530	76.8520
 1.9520	76.8255
 1.9510	76.8539
 1.9500	76.8597
 1.9490	76.8276
 1.9480	76.7316
 1.9470	76.6950
 1.9460	76.7445
 1.9450	76.7358
 1.9440	76.6563
 1.9430	76.6628
 1.9420	76.6310
 1.9410	76.5768
 1.9400	76.6530
 1.9390	76.5800
 1.9380	76.5250
 1.9370	76.6323
 1.9360	76.6132
 1.9350	76.5889
 1.9340	76.6002
 1.9330	76.6490
 1.9320	76.6383
 1.9310	76.5887
 1.9300	76.5512
 1.9290	76.5945
 1.9280	76.6677
 1.9270	76.6468
 1.9260	76.6506
 1.9250	76.5958
 1.9240	76.6920
 1.9230	76.7067
 1.9220	76.7577
 1.9210	76.7728
 1.9200	76.6589
 1.9190	76.7581
 1.9180	76.8230
 1.9170	76.8430
 1.9160	76.7741
 1.9150	77.0124
 1.9140	77.0589
 1.9130	77.1188
 1.9120	77.1618
 1.9110	77.3640
 1.9100	77.2745
 1.9090	77.5120
 1.9080	77.6643
 1.9070	77.7536
 1.9060	77.8897
 1.9050	78.0415
 1.9040	78.2252
 1.9030	78.4819
 1.9020	78.6114
 1.9010	78.8146
 1.9000	79.0608
 1.8990	79.2011
 1.8980	79.4558
 1.8970	79.6592
 1.8960	79.8116
 1.8950	80.0347
 1.8940	80.0782
 1.8930	80.3833
 1.8920	80.4476
 1.8910	80.6869
 1.8900	80.7759
 1.8890	80.9457
 1.8880	81.0858
 1.8870	81.3219
 1.8860	81.3597
 1.8850	81.5271
 1.8840	81.6158
 1.8830	81.6304
 1.8820	81.7925
 1.8810	81.8704
 1.8800	81.9521
 1.8790	82.0402
 1.8780	82.1325
 1.8770	82.1845
 1.8760	82.3322
 1.8750	82.3296
 1.8740	82.3333
 1.8730	82.4445
 1.8720	82.4849
 1.8710	82.4644
 1.8700	82.4521
 1.8690	82.6261
 1.8680	82.6667
 1.8670	82.7490
 1.8660	82.7899
 1.8650	82.7419
 1.8640	82.8090
 1.8630	82.8644
 1.8620	82.8808
 1.8610	82.8690
 1.8600	82.9359
 1.8590	82.9116
 1.8580	82.9010
 1.8570	82.9103
 1.8560	82.9242
 1.8550	83.0156
 1.8540	82.9947
 1.8530	83.0070
 1.8520	83.0249
 1.8510	83.0056
 1.8500	83.0001
 1.8490	82.9877
 1.8480	82.9379
 1.8470	83.0217
 1.8460	82.9959
 1.8450	83.0485
 1.8440	83.0659
 1.8430	83.0394
 1.8420	83.0615
 1.8410	83.0348
 1.8400	83.0776
 1.8390	83.0602
 1.8380	83.0265
 1.8370	83.0400
 1.8360	83.0773
 1.8350	83.0817
 1.8340	83.0318
 1.8330	83.1053
 1.8320	83.1351
 1.8310	83.0745
 1.8300	83.0716
 1.8290	83.0943
 1.8280	83.0702
 1.8270	83.0769
 1.8260	83.1114
 1.8250	83.1543
 1.8240	83.0660
 1.8230	83.1021
 1.8220	83.1192
 1.8210	83.0641
 1.8200	83.0746
 1.8190	83.1474
 1.8180	83.0694
 1.8170	83.1079
 1.8160	83.1539
 1.8150	83.2176
 1.8140	83.1963
 1.8130	83.1265
 1.8120	83.1510
 1.8110	83.1608
 1.8100	83.1456
 1.8090	83.1749
 1.8080	83.1510
 1.8070	83.1448
 1.8060	83.1450
 1.8050	83.1348
 1.8040	83.0959
 1.8030	83.1202
 1.8020	83.1479
 1.8010	83.2002
 1.8000	83.2128
 1.7990	83.1631
 1.7980	83.1939
 1.7970	83.2106
 1.7960	83.1495
 1.7950	83.1304
 1.7940	83.1474
 1.7930	83.1411
 1.7920	83.1904
 1.7910	83.2344
 1.7900	83.1463
 1.7890	83.1076
 1.7880	83.0844
 1.7870	83.1203
 1.7860	83.1988
 1.7850	83.1710
 1.7840	83.0548
 1.7830	83.0710
 1.7820	83.1642
 1.7810	83.1033
 1.7800	83.1077
 1.7790	83.1474
 1.7780	83.1326
 1.7770	83.1535
 1.7760	83.1615
 1.7750	83.1277
 1.7740	83.1017
 1.7730	83.1186
 1.7720	83.2014
 1.7710	83.1905
 1.7700	83.1389
 1.7690	83.1386
 1.7680	83.1468
 1.7670	83.1774
 1.7660	83.1813
 1.7650	83.1675
 1.7640	83.1850
 1.7630	83.1537
 1.7620	83.1628
 1.7610	83.2166
 1.7600	83.1964
 1.7590	83.1893
 1.7580	83.2238
 1.7570	83.1944
 1.7560	83.1780
 1.7550	83.1732
 1.7540	83.1625
 1.7530	83.1574
 1.7520	83.1933
 1.7510	83.2366
 1.7500	83.2282
 1.7490	83.2629
 1.7480	83.2453
 1.7470	83.2820
 1.7460	83.2444
 1.7450	83.2431
 1.7440	83.2470
 1.7430	83.2930
 1.7420	83.2930
 1.7410	83.3234
 1.7400	83.2933
 1.7390	83.2970
 1.7380	83.3046
 1.7370	83.2957
 1.7360	83.2722
 1.7350	83.2242
 1.7340	83.2651
 1.7330	83.3488
 1.7320	83.3755
 1.7310	83.3162
 1.7300	83.3561
 1.7290	83.3308
 1.7280	83.3651
 1.7270	83.3931
 1.7260	83.3413
 1.7250	83.2931
 1.7240	83.3018
 1.7230	83.3291
 1.7220	83.3746
 1.7210	83.3131
 1.7200	83.3349
 1.7190	83.2764
 1.7180	83.3058
 1.7170	83.3471
 1.7160	83.3512
 1.7150	83.3186
 1.7140	83.3399
 1.7130	83.3235
 1.7120	83.3799
 1.7110	83.4164
 1.7100	83.3198
 1.7090	83.3003
 1.7080	83.2572
 1.7070	83.2474
 1.7060	83.2753
 1.7050	83.2925
 1.7040	83.2866
 1.7030	83.2781
 1.7020	83.2409
 1.7010	83.3317
 1.7000	83.3136
 1.6990	83.3457
 1.6980	83.2757
 1.6970	83.2371
 1.6960	83.2370
 1.6950	83.3162
 1.6940	83.2814
 1.6930	83.3084
 1.6920	83.2677
 1.6910	83.2325
 1.6900	83.3492
 1.6890	83.2755
 1.6880	83.2075
 1.6870	83.1476
 1.6860	83.3353
 1.6850	83.2072
 1.6840	83.2407
 1.6830	83.2700
 1.6820	83.3234
 1.6810	83.2331
 1.6800	83.2946
 1.6790	83.2706
 1.6780	83.2214
 1.6770	83.2079
 1.6760	83.3083
 1.6750	83.2005
 1.6740	83.2251
 1.6730	83.1568
 1.6720	83.2105
 1.6710	83.1536
 1.6700	83.2147
 1.6690	83.2074
 1.6680	83.1175
 1.6670	83.1723
 1.6660	83.0992
 1.6650	83.1582
 1.6640	83.1502
 1.6630	83.1434
 1.6620	83.1444
 1.6610	83.1387
 1.6600	83.1406
 1.6590	83.1449
 1.6580	83.1827
 1.6570	83.1938
 1.6560	83.1936
 1.6550	83.1912
 1.6540	83.1052
 1.6530	83.0890
 1.6520	83.1630
 1.6510	83.0856
 1.6500	83.1672
 1.6490	83.1343
 1.6480	83.2087
 1.6470	83.0650
 1.6460	83.1076
 1.6450	83.1187
 1.6440	83.0358
 1.6430	83.1797
 1.6420	83.1942
 1.6410	83.0430
 1.6400	83.2347
 1.6390	83.1054
 1.6380	83.0699
 1.6370	83.0943
 1.6360	83.0731
 1.6350	83.1609
 1.6340	83.1062
 1.6330	83.0471
 1.6320	83.0995
 1.6310	83.0157
 1.6300	83.0834
 1.6290	83.0008
 1.6280	83.1070
 1.6270	83.1157
 1.6260	82.9510
 1.6250	82.9441
 1.6240	83.0975
 1.6230	83.0586
 1.6220	83.0155
 1.6210	82.9353
 1.6200	83.0846
 1.6190	83.0925
 1.6180	83.0845
 1.6170	83.0495
 1.6160	83.0051
 1.6150	82.9824
 1.6140	82.9925
 1.6130	82.9510
 1.6120	83.0671
 1.6110	82.9637
 1.6100	82.9585
 1.6090	83.0717
 1.6080	82.9839
 1.6070	83.0148
 1.6060	83.0213
 1.6050	82.9900
 1.6040	82.9846
 1.6030	83.0267
 1.6020	83.1087
 1.6010	82.9686
 1.6000	82.9723
 1.5990	82.9243
 1.5980	82.9314
 1.5970	82.9475
 1.5960	82.9542
 1.5950	82.9119
 1.5940	82.9530
 1.5930	82.9328
 1.5920	82.8764
 1.5910	82.9223
 1.5900	82.8591
 1.5890	82.8431
 1.5880	82.8815
 1.5870	82.8146
 1.5860	82.8541
 1.5850	82.8424
 1.5840	82.9073
 1.5830	82.8279
 1.5820	82.8035
 1.5810	82.7795
 1.5800	82.8584
 1.5790	82.8880
 1.5780	82.8052
 1.5770	82.8087
 1.5760	82.8550
 1.5750	82.8316
 1.5740	82.8338
 1.5730	82.8322
 1.5720	82.7305
 1.5710	82.7117
 1.5700	82.7526
 1.5690	82.7381
 1.5680	82.7238
 1.5670	82.7230
 1.5660	82.6874
 1.5650	82.7618
 1.5640	82.6938
 1.5630	82.7132
 1.5620	82.6984
 1.5610	82.6568
 1.5600	82.6487
 1.5590	82.6020
 1.5580	82.5853
 1.5570	82.6199
 1.5560	82.5833
 1.5550	82.6206
 1.5540	82.6407
 1.5530	82.5644
 1.5520	82.5502
 1.5510	82.5411
 1.5500	82.5817
 1.5490	82.4978
 1.5480	82.5045
 1.5470	82.5008
 1.5460	82.5225
 1.5450	82.4949
 1.5440	82.5150
 1.5430	82.5328
 1.5420	82.5166
 1.5410	82.4815
 1.5400	82.4907
 1.5390	82.4392
 1.5380	82.3675
 1.5370	82.3796
 1.5360	82.4049
 1.5350	82.4168
 1.5340	82.3872
 1.5330	82.3749
 1.5320	82.3644
 1.5310	82.3710
 1.5300	82.4229
 1.5290	82.3571
 1.5280	82.2997
 1.5270	82.3104
 1.5260	82.2884
 1.5250	82.2267
 1.5240	82.2274
 1.5230	82.2385
 1.5220	82.1578
 1.5210	82.1520
 1.5200	82.2016
 1.5190	82.1838
 1.5180	82.1881
 1.5170	82.1983
 1.5160	82.1901
 1.5150	82.1318
 1.5140	82.0670
 1.5130	82.0506
 1.5120	82.0798
 1.5110	82.0313
 1.5100	81.9971
 1.5090	82.0232
 1.5080	81.9695
 1.5070	81.9440
 1.5060	81.9429
 1.5050	81.9276
 1.5040	81.9378
 1.5030	81.9154
 1.5020	81.9300
 1.5010	81.9146
 1.5000	81.8431
 1.4990	81.7970
 1.4980	81.7599
 1.4970	81.7497
 1.4960	81.7940
 1.4950	81.7607
 1.4940	81.6733
 1.4930	81.6838
 1.4920	81.7000
 1.4910	81.6919
 1.4900	81.6827
 1.4890	81.6276
 1.4880	81.6250
 1.4870	81.6359
 1.4860	81.6189
 1.4850	81.6291
 1.4840	81.5825
 1.4830	81.5111
 1.4820	81.4244
 1.4810	81.4242
 1.4800	81.4742
 1.4790	81.4533
 1.4780	81.3762
 1.4770	81.3615
 1.4760	81.3194
 1.4750	81.3019
 1.4740	81.2948
 1.4730	81.2808
 1.4720	81.2588
 1.4710	81.2973
 1.4700	81.3105
 1.4690	81.2546
 1.4680	81.2441
 1.4670	81.2358
 1.4660	81.1639
 1.4650	81.1136
 1.4640	81.0664
 1.4630	81.0383
 1.4620	81.0723
 1.4610	81.0737
 1.4600	81.0662
 1.4590	81.0766
 1.4580	81.0159
 1.4570	80.9711
 1.4560	80.9584
 1.4550	80.9835
 1.4540	80.9899
 1.4530	80.9901
 1.4520	80.9784
 1.4510	80.9867
 1.4500	80.9615
 1.4490	80.8948
 1.4480	80.8658
 1.4470	80.8420
 1.4460	80.7855
 1.4450	80.7949
 1.4440	80.7957
 1.4430	80.7275
 1.4420	80.7655
 1.4410	80.7149
 1.4400	80.6557
 1.4390	80.7136
 1.4380	80.6865
 1.4370	80.5605
 1.4360	80.4838
 1.4350	80.3784
 1.4340	80.3731
 1.4330	80.3228
 1.4320	80.1943
 1.4310	80.1330
 1.4300	79.9779
 1.4290	79.8559
 1.4280	79.6835
 1.4270	79.6176
 1.4260	79.3698
 1.4250	79.1553
 1.4240	78.9160
 1.4230	78.6666
 1.4220	78.2921
 1.4210	77.9010
 1.4200	77.5205
 1.4190	77.0434
 1.4180	76.5402
 1.4170	76.0872
 1.4160	75.7613
 1.4150	75.2961
 1.4140	75.0384
 1.4130	75.0277
 1.4120	74.9268
 1.4110	75.0616
 1.4100	75.1231
 1.4090	75.2741
 1.4080	75.3357
 1.4070	75.6246
 1.4060	75.7964
 1.4050	75.9812
 1.4040	76.1680
 1.4030	76.4536
 1.4020	76.6094
 1.4010	76.9968
 1.4000	77.2404
 1.3990	77.6384
 1.3980	77.9818
 1.3970	78.3571
 1.3960	78.7775
 1.3950	79.1700
 1.3940	79.5786
 1.3930	79.9686
 1.3920	80.2879
 1.3910	80.4941
 1.3900	80.6858
 1.3890	80.9081
 1.3880	81.1530
 1.3870	81.2257
 1.3860	81.3028
 1.3850	81.3264
 1.3840	81.4014
 1.3830	81.4846
 1.3820	81.4197
 1.3810	81.5484
 1.3800	81.5635
 1.3790	81.5761
 1.3780	81.5762
 1.3770	81.7105
 1.3760	81.4476
 1.3750	81.5611
 1.3740	81.5846
 1.3730	81.7158
 1.3720	81.7146
 1.3710	81.6158
 1.3700	81.6592
 1.3690	81.6832
 1.3680	81.7071
 1.3670	81.7275
