Name: Calcite CaCO_3
Type: Mineral
Class: Carbonate
Subclass: None
Particle Size: Fine
Sample No.: C-3E
Owner: JPL
Wavelength Range: VSWIR
Origin: N/A
Collection Date: N/A
Description: Particle size was 0-45um.Collected by JPL Original ASTER Spectral Library name was jpl.beckman.mineral.carbonate.none.fine.c03e.spectrum.txt
Measurement: Hemispherical reflectance
First Column: X
Second Column: Y
X Units: Wavelength (micrometers)
Y Units:Reflectance (percent)
First X Value:  0.4000
Last X Value:  2.5000
Number of X Values: 826
Additional Information: mineral.carbonate.none.fine.vswir.c-3e.jpl.beckman.ancillary.txt

 0.4000	78.1900
 0.4010	78.4800
 0.4020	78.5300
 0.4030	78.4200
 0.4040	78.5300
 0.4050	78.7600
 0.4060	79.1000
 0.4070	79.1600
 0.4080	79.0400
 0.4090	78.8700
 0.4100	79.0400
 0.4110	79.4500
 0.4120	79.6200
 0.4130	79.4500
 0.4140	79.2700
 0.4150	79.4500
 0.4160	79.6800
 0.4170	79.8500
 0.4180	79.6800
 0.4190	79.5600
 0.4200	79.7900
 0.4210	79.7900
 0.4220	80.2400
 0.4230	80.1900
 0.4240	80.0200
 0.4250	80.0200
 0.4260	80.2400
 0.4270	80.4700
 0.4280	80.5300
 0.4290	80.4200
 0.4300	80.4700
 0.4310	80.4200
 0.4320	80.8200
 0.4330	81.0500
 0.4340	80.9300
 0.4350	80.8800
 0.4360	80.5900
 0.4370	80.8800
 0.4380	81.2800
 0.4390	81.3400
 0.4400	81.2200
 0.4410	80.9900
 0.4420	81.2200
 0.4430	81.3400
 0.4440	81.5700
 0.4450	81.6200
 0.4460	81.4000
 0.4470	81.3400
 0.4480	81.5100
 0.4490	81.6700
 0.4500	81.7900
 0.4510	81.6700
 0.4520	81.5700
 0.4530	81.5100
 0.4540	81.6300
 0.4550	81.9700
 0.4560	81.9100
 0.4570	81.8600
 0.4580	81.7500
 0.4590	81.8700
 0.4600	82.1000
 0.4610	82.0400
 0.4620	82.4400
 0.4630	82.2200
 0.4640	82.0500
 0.4650	82.2200
 0.4660	82.2800
 0.4670	82.5000
 0.4680	82.5100
 0.4690	82.3900
 0.4700	82.3400
 0.4710	82.2200
 0.4720	82.4500
 0.4730	82.5800
 0.4740	82.5800
 0.4750	82.4000
 0.4760	82.2900
 0.4770	82.5200
 0.4780	82.7600
 0.4790	82.7600
 0.4800	82.7600
 0.4810	82.4700
 0.4820	82.7000
 0.4830	82.9300
 0.4840	82.9900
 0.4850	82.8800
 0.4860	82.7700
 0.4870	82.8200
 0.4880	82.9400
 0.4890	83.1700
 0.4900	83.2300
 0.4910	83.1200
 0.4920	83.0000
 0.4930	82.9000
 0.4940	83.0700
 0.4950	83.1800
 0.4960	83.1800
 0.4970	83.1800
 0.4980	82.8500
 0.4990	83.1400
 0.5000	83.5400
 0.5010	83.4800
 0.5020	83.3700
 0.5030	83.1900
 0.5040	83.1900
 0.5050	83.6000
 0.5060	83.7600
 0.5070	83.6000
 0.5080	83.4200
 0.5090	83.4200
 0.5100	83.6000
 0.5110	83.7600
 0.5120	83.8700
 0.5130	83.8200
 0.5140	83.7600
 0.5150	83.6500
 0.5160	83.7600
 0.5170	83.8700
 0.5180	83.7600
 0.5190	83.7000
 0.5200	83.7000
 0.5210	83.9300
 0.5220	84.0500
 0.5230	84.0500
 0.5240	83.8700
 0.5250	83.7000
 0.5260	83.8200
 0.5270	84.2200
 0.5280	84.2800
 0.5290	84.0500
 0.5300	83.9300
 0.5310	83.8700
 0.5320	83.9300
 0.5330	84.1600
 0.5340	84.1000
 0.5350	83.9300
 0.5360	83.7600
 0.5370	83.8700
 0.5380	84.1600
 0.5390	84.1600
 0.5400	84.1600
 0.5410	84.0500
 0.5420	83.8700
 0.5430	84.1600
 0.5440	84.2200
 0.5450	84.1600
 0.5460	84.0500
 0.5470	83.8700
 0.5480	84.1600
 0.5490	84.4500
 0.5500	84.4500
 0.5510	84.2800
 0.5520	84.2200
 0.5530	84.2800
 0.5540	84.4500
 0.5550	84.6800
 0.5560	84.6200
 0.5570	84.3900
 0.5580	84.3900
 0.5590	84.4500
 0.5600	84.4500
 0.5610	84.4500
 0.5620	84.6200
 0.5630	84.9100
 0.5640	84.8500
 0.5650	84.9100
 0.5660	84.6800
 0.5670	84.6200
 0.5680	84.8000
 0.5690	84.8500
 0.5700	84.7400
 0.5710	84.6800
 0.5720	84.4500
 0.5730	84.4500
 0.5740	84.5700
 0.5750	84.7400
 0.5760	84.3900
 0.5770	84.3400
 0.5780	84.3900
 0.5790	84.6800
 0.5800	84.9100
 0.5810	84.7400
 0.5820	84.4500
 0.5830	84.3900
 0.5840	84.4500
 0.5850	84.7400
 0.5860	84.6800
 0.5870	84.5700
 0.5880	84.5100
 0.5890	84.6200
 0.5900	84.8500
 0.5910	84.8000
 0.5920	84.7400
 0.5930	84.6800
 0.5940	84.4500
 0.5950	84.6800
 0.5960	84.7400
 0.5970	84.8500
 0.5980	84.8000
 0.5990	84.5700
 0.6000	84.7400
 0.6010	84.9100
 0.6020	85.2000
 0.6030	84.9700
 0.6040	84.8500
 0.6050	84.8000
 0.6060	85.0300
 0.6070	85.2000
 0.6080	85.0300
 0.6090	84.9700
 0.6100	84.6800
 0.6110	84.9100
 0.6120	85.2000
 0.6130	85.1400
 0.6140	85.0800
 0.6150	85.0300
 0.6160	84.8000
 0.6170	84.9700
 0.6180	85.0300
 0.6190	85.0300
 0.6200	84.9100
 0.6210	84.7400
 0.6220	84.8000
 0.6230	84.9700
 0.6240	85.3100
 0.6250	85.1400
 0.6260	84.9700
 0.6270	84.8000
 0.6280	84.9100
 0.6290	85.1400
 0.6300	85.1400
 0.6310	85.0800
 0.6320	84.9700
 0.6330	84.9100
 0.6340	85.1400
 0.6350	85.2000
 0.6360	85.2600
 0.6370	85.0300
 0.6380	84.8500
 0.6390	84.9100
 0.6400	85.0800
 0.6410	85.4200
 0.6420	85.2000
 0.6430	84.9700
 0.6440	84.8500
 0.6450	85.0300
 0.6460	85.4200
 0.6470	85.3600
 0.6480	85.3100
 0.6490	85.2000
 0.6500	85.0300
 0.6510	85.2600
 0.6520	85.2600
 0.6530	85.3600
 0.6540	85.2000
 0.6550	85.1400
 0.6560	85.1400
 0.6570	85.4200
 0.6580	85.5900
 0.6590	85.3600
 0.6600	85.2000
 0.6610	84.9700
 0.6620	85.3100
 0.6630	85.5300
 0.6640	85.4200
 0.6650	85.3600
 0.6660	85.3600
 0.6670	85.2000
 0.6680	85.3100
 0.6690	85.4200
 0.6700	85.6500
 0.6710	85.5300
 0.6720	85.2600
 0.6730	85.3100
 0.6740	85.3600
 0.6750	85.8200
 0.6760	85.6500
 0.6770	85.5300
 0.6780	85.3100
 0.6790	85.3600
 0.6800	85.7100
 0.6810	85.5900
 0.6820	85.5900
 0.6830	85.4200
 0.6840	85.3600
 0.6850	85.5900
 0.6860	85.7100
 0.6870	85.6500
 0.6880	85.5900
 0.6890	85.4200
 0.6900	85.5300
 0.6910	85.7100
 0.6920	85.7700
 0.6930	85.7100
 0.6940	85.6500
 0.6950	85.6500
 0.6960	85.7100
 0.6970	85.9400
 0.6980	85.8200
 0.6990	85.5300
 0.7000	85.7100
 0.7010	85.4800
 0.7020	85.6500
 0.7030	85.5900
 0.7040	85.3600
 0.7050	85.4800
 0.7060	85.6500
 0.7070	85.9400
 0.7080	85.8200
 0.7090	85.6500
 0.7100	85.4800
 0.7110	85.6500
 0.7120	85.8800
 0.7130	85.8800
 0.7140	85.8200
 0.7150	85.8800
 0.7160	85.7700
 0.7170	86.0000
 0.7180	86.0500
 0.7190	86.1100
 0.7200	85.8800
 0.7210	85.7700
 0.7220	85.8200
 0.7230	86.0000
 0.7240	86.2800
 0.7250	86.0000
 0.7260	85.7700
 0.7270	85.8200
 0.7280	86.0000
 0.7290	86.2300
 0.7300	86.1100
 0.7310	86.0000
 0.7320	85.8200
 0.7330	85.8200
 0.7340	86.1100
 0.7350	86.2800
 0.7360	86.2800
 0.7370	85.9400
 0.7380	85.9400
 0.7390	85.9400
 0.7400	86.2800
 0.7410	86.3400
 0.7420	86.0500
 0.7430	86.0500
 0.7440	86.0500
 0.7450	86.3400
 0.7460	86.4600
 0.7470	86.2300
 0.7480	86.1700
 0.7490	86.2300
 0.7500	86.4000
 0.7510	86.6900
 0.7520	86.5100
 0.7530	86.2800
 0.7540	86.2300
 0.7550	86.4000
 0.7560	86.5100
 0.7570	86.4600
 0.7580	86.2800
 0.7590	86.0000
 0.7600	86.2300
 0.7610	86.4600
 0.7620	86.4600
 0.7630	86.5100
 0.7640	86.2800
 0.7650	86.2300
 0.7660	86.3400
 0.7670	86.3400
 0.7680	86.4600
 0.7690	86.2800
 0.7700	86.2300
 0.7710	86.2800
 0.7720	86.2800
 0.7730	86.5700
 0.7740	86.3400
 0.7750	86.1100
 0.7760	86.1700
 0.7770	86.3400
 0.7780	86.5700
 0.7790	86.3400
 0.7800	86.1700
 0.7810	86.1100
 0.7820	86.3400
 0.7830	86.6900
 0.7840	86.4600
 0.7850	86.1100
 0.7860	86.2300
 0.7870	86.4000
 0.7880	86.6900
 0.7890	86.6300
 0.7900	86.4000
 0.7910	86.2800
 0.7920	86.5100
 0.7930	86.7400
 0.7940	86.6900
 0.7950	86.4600
 0.7960	86.2300
 0.7970	86.5700
 0.7980	86.6900
 0.7990	86.5100
 0.8000	86.5100
 0.8040	86.5100
 0.8080	86.4600
 0.8120	86.5700
 0.8160	86.5100
 0.8200	86.5700
 0.8240	86.5100
 0.8280	86.4600
 0.8320	86.5700
 0.8360	86.5100
 0.8400	86.6300
 0.8440	86.5700
 0.8480	86.7400
 0.8520	86.8000
 0.8560	86.6300
 0.8600	86.6900
 0.8640	86.4600
 0.8680	86.6300
 0.8720	86.5100
 0.8760	86.4600
 0.8800	86.5700
 0.8840	86.6300
 0.8880	86.5100
 0.8920	86.4600
 0.8960	86.6300
 0.9000	86.7400
 0.9040	86.5700
 0.9080	86.6300
 0.9120	86.5100
 0.9160	86.4600
 0.9200	86.4600
 0.9240	86.4000
 0.9280	86.4000
 0.9320	86.5100
 0.9360	86.5700
 0.9400	86.4000
 0.9440	86.2800
 0.9480	86.4600
 0.9520	86.5100
 0.9560	86.4600
 0.9600	86.4600
 0.9640	86.4600
 0.9680	86.5100
 0.9720	86.4000
 0.9760	86.4600
 0.9800	86.4000
 0.9840	86.2800
 0.9880	86.2800
 0.9920	86.2800
 0.9960	86.1700
 1.0000	86.2800
 1.0040	86.3400
 1.0080	86.2300
 1.0120	86.2800
 1.0160	86.2300
 1.0200	86.1700
 1.0240	86.2300
 1.0280	86.2300
 1.0320	86.2800
 1.0360	86.2800
 1.0400	86.2300
 1.0440	86.2300
 1.0480	86.2300
 1.0520	86.1100
 1.0560	86.1700
 1.0600	86.0000
 1.0640	86.1100
 1.0680	86.0500
 1.0720	86.0000
 1.0760	86.1100
 1.0800	86.0000
 1.0840	86.1100
 1.0880	86.0500
 1.0920	86.0500
 1.0960	86.0500
 1.1000	86.0500
 1.1040	86.1100
 1.1080	85.8800
 1.1120	86.0500
 1.1160	86.0500
 1.1200	86.0500
 1.1240	85.9400
 1.1280	85.8800
 1.1320	86.2300
 1.1360	86.0500
 1.1400	86.2300
 1.1440	86.0000
 1.1480	86.1100
 1.1520	86.1100
 1.1560	86.0400
 1.1600	85.9800
 1.1640	86.0200
 1.1680	85.9100
 1.1720	86.0800
 1.1760	86.0100
 1.1800	86.1200
 1.1840	86.1700
 1.1880	86.0400
 1.1920	86.2100
 1.1960	86.0900
 1.2000	86.0200
 1.2040	86.0200
 1.2080	85.9600
 1.2120	85.9600
 1.2160	86.0200
 1.2200	86.0800
 1.2240	86.1400
 1.2280	86.0200
 1.2320	86.0200
 1.2360	86.0800
 1.2400	86.0800
 1.2440	86.1900
 1.2480	86.0200
 1.2520	86.0200
 1.2560	86.0700
 1.2600	86.0100
 1.2640	86.1200
 1.2680	85.9900
 1.2720	85.8800
 1.2760	86.1000
 1.2800	86.0900
 1.2840	86.0200
 1.2880	85.8900
 1.2920	86.0700
 1.2960	86.0100
 1.3000	85.9400
 1.3040	86.0500
 1.3080	86.0900
 1.3120	86.1500
 1.3160	86.2000
 1.3200	86.0200
 1.3240	86.0100
 1.3280	85.9400
 1.3320	86.1700
 1.3360	86.0400
 1.3400	85.9900
 1.3440	86.0900
 1.3480	86.0200
 1.3520	86.0200
 1.3560	86.0800
 1.3600	86.0800
 1.3640	86.0200
 1.3680	86.0800
 1.3720	86.1400
 1.3760	85.9100
 1.3800	86.0200
 1.3840	86.0200
 1.3880	85.9100
 1.3920	85.9700
 1.3960	85.9100
 1.4000	86.0200
 1.4040	85.8600
 1.4080	85.8700
 1.4120	86.0400
 1.4160	85.9400
 1.4200	86.0000
 1.4240	86.1200
 1.4280	86.0200
 1.4320	85.9600
 1.4360	85.9100
 1.4400	86.1500
 1.4440	85.9900
 1.4480	86.0600
 1.4520	86.1700
 1.4560	86.0600
 1.4600	86.0600
 1.4640	86.1100
 1.4680	86.0600
 1.4720	86.0600
 1.4760	86.0000
 1.4800	86.2200
 1.4840	86.2200
 1.4880	86.1100
 1.4920	86.2800
 1.4960	86.2200
 1.5000	86.1700
 1.5040	86.1700
 1.5080	86.3900
 1.5120	86.3300
 1.5160	86.2800
 1.5200	86.2800
 1.5240	86.3900
 1.5280	86.3900
 1.5320	86.2800
 1.5360	86.2800
 1.5400	86.2800
 1.5440	86.2800
 1.5480	86.3900
 1.5520	86.3900
 1.5560	86.2800
 1.5600	86.3900
 1.5640	86.2800
 1.5680	86.4500
 1.5720	86.2800
 1.5760	86.3900
 1.5800	86.3900
 1.5840	86.2200
 1.5880	86.3300
 1.5920	86.3300
 1.5960	86.5100
 1.6000	86.5100
 1.6040	86.4400
 1.6080	86.4900
 1.6120	86.4400
 1.6160	86.4900
 1.6200	86.4800
 1.6240	86.2900
 1.6280	86.4600
 1.6320	86.3400
 1.6360	86.1600
 1.6400	86.4400
 1.6440	86.3700
 1.6480	86.2500
 1.6520	86.3700
 1.6560	86.4200
 1.6600	86.2300
 1.6640	86.2200
 1.6680	86.3900
 1.6720	86.2700
 1.6760	86.3800
 1.6800	86.3700
 1.6840	86.3600
 1.6880	86.3600
 1.6920	86.1800
 1.6960	86.3500
 1.7000	86.3400
 1.7040	86.3900
 1.7080	86.3400
 1.7120	86.3400
 1.7160	86.3400
 1.7200	86.2200
 1.7240	86.3900
 1.7280	86.2200
 1.7320	86.3400
 1.7360	86.3900
 1.7400	86.2200
 1.7440	86.2200
 1.7480	86.0500
 1.7520	86.3400
 1.7560	86.2800
 1.7600	86.2800
 1.7640	86.2800
 1.7680	86.2800
 1.7720	86.3900
 1.7760	86.2800
 1.7800	86.3900
 1.7840	86.3900
 1.7880	86.2800
 1.7920	86.3900
 1.7960	86.3400
 1.8000	86.4500
 1.8040	86.2500
 1.8080	86.3400
 1.8120	86.1900
 1.8160	86.1700
 1.8200	86.2500
 1.8240	86.2200
 1.8280	86.1500
 1.8320	85.9900
 1.8360	86.0800
 1.8400	85.8800
 1.8440	85.8100
 1.8480	85.7200
 1.8520	85.6400
 1.8560	85.6900
 1.8600	85.4000
 1.8640	85.2800
 1.8680	85.0500
 1.8720	84.7600
 1.8760	85.0400
 1.8800	84.9700
 1.8840	85.0700
 1.8880	85.1200
 1.8920	85.1800
 1.8960	85.2800
 1.9000	85.2700
 1.9040	85.3800
 1.9080	85.2500
 1.9120	85.2000
 1.9160	85.4200
 1.9200	85.3500
 1.9240	85.2900
 1.9280	85.4000
 1.9320	85.2200
 1.9360	85.3900
 1.9400	85.2600
 1.9440	85.1900
 1.9480	85.2400
 1.9520	84.9500
 1.9560	85.0400
 1.9600	85.0800
 1.9640	85.0100
 1.9680	84.8600
 1.9720	84.8500
 1.9760	84.7700
 1.9800	84.8600
 1.9840	84.8400
 1.9880	84.7100
 1.9920	84.6900
 1.9960	84.6100
 2.0000	84.8200
 2.0040	84.9100
 2.0080	85.0100
 2.0120	85.2400
 2.0160	85.3800
 2.0200	85.6800
 2.0240	85.7300
 2.0280	85.7100
 2.0320	85.8800
 2.0360	86.0200
 2.0400	86.0300
 2.0440	86.0200
 2.0480	86.1800
 2.0520	85.9600
 2.0560	86.2500
 2.0600	86.1100
 2.0640	86.1300
 2.0680	86.1500
 2.0720	86.2300
 2.0760	86.3100
 2.0800	86.1000
 2.0840	86.2400
 2.0880	86.2000
 2.0920	86.0500
 2.0960	86.1800
 2.1000	86.1400
 2.1040	86.2200
 2.1080	86.1300
 2.1120	86.2600
 2.1160	86.2200
 2.1200	85.9600
 2.1240	86.1700
 2.1280	86.0000
 2.1320	85.9600
 2.1360	85.9600
 2.1400	85.6200
 2.1440	85.5400
 2.1480	85.3600
 2.1520	85.3000
 2.1560	85.2600
 2.1600	85.2200
 2.1640	85.2700
 2.1680	85.3800
 2.1720	85.3700
 2.1760	85.3600
 2.1800	85.4700
 2.1840	85.4800
 2.1880	85.2800
 2.1920	85.4000
 2.1960	85.3600
 2.2000	85.2000
 2.2040	85.2000
 2.2080	84.9200
 2.2120	84.7100
 2.2160	84.7500
 2.2200	84.5600
 2.2240	84.4400
 2.2280	84.2200
 2.2320	83.9700
 2.2360	83.6600
 2.2400	83.3500
 2.2440	83.1700
 2.2480	82.9000
 2.2520	82.4800
 2.2560	82.2200
 2.2600	81.8600
 2.2640	81.2900
 2.2680	80.9500
 2.2720	80.6000
 2.2760	80.0600
 2.2800	79.4600
 2.2840	79.0400
 2.2880	78.3900
 2.2920	77.9500
 2.2960	77.6100
 2.3000	77.1500
 2.3040	76.6700
 2.3080	76.4100
 2.3120	75.7700
 2.3160	75.6200
 2.3200	75.0400
 2.3240	74.7500
 2.3280	74.4700
 2.3320	74.2300
 2.3360	74.1200
 2.3400	74.0600
 2.3440	74.5800
 2.3480	75.0000
 2.3520	75.9100
 2.3560	76.9900
 2.3600	77.7900
 2.3640	78.9300
 2.3680	80.0000
 2.3720	80.8700
 2.3760	81.6500
 2.3800	82.2000
 2.3840	82.7300
 2.3880	82.9700
 2.3920	82.9500
 2.3960	83.2300
 2.4000	83.1200
 2.4040	83.0000
 2.4080	83.0400
 2.4120	82.9900
 2.4160	82.8100
 2.4200	82.8000
 2.4240	82.3500
 2.4280	81.8400
 2.4320	81.5200
 2.4360	81.2900
 2.4400	80.7200
 2.4440	80.1100
 2.4480	79.6000
 2.4520	78.8800
 2.4560	78.0900
 2.4600	77.4800
 2.4640	76.6400
 2.4680	75.8000
 2.4720	75.0800
 2.4760	74.1900
 2.4800	73.4600
 2.4840	72.6300
 2.4880	71.8400
 2.4920	71.1800
 2.4960	70.4500
 2.5000	69.7800
