Name: Kernite Na_2B_4O_6(OH)_2.3H_2O
Type: Mineral
Class: Borate
Subclass: None
Particle Size: Medium
Sample No.: B-2A
Owner: JPL
Wavelength Range: VSWIR
Origin: USA, California, Kern County, Boron.
Collection Date: N/A
Description: Particle size was 45-125um.Collected by:  JPL Original ASTER Spectral Library name was jpl.perkin.mineral.borate.none.medium.b02a.spectrum.txt
Measurement: Hemispherical reflectance
First Column: X
Second Column: Y
X Units: Wavelength (micrometers)
Y Units:Reflectance (percent)
First X Value:  2.5000
Last X Value:  0.4000
Number of X Values: 2101
Additional Information: mineral.borate.none.medium.vswir.b-2a.jpl.perkin.ancillary.txt

 2.5000	33.5059
 2.4990	33.4589
 2.4980	33.5464
 2.4970	33.5431
 2.4960	33.3034
 2.4950	33.6118
 2.4940	33.5746
 2.4930	33.5033
 2.4920	33.6459
 2.4910	33.4588
 2.4900	33.5405
 2.4890	33.5571
 2.4880	33.6317
 2.4870	33.6417
 2.4860	33.7788
 2.4850	33.7237
 2.4840	33.8329
 2.4830	33.6781
 2.4820	33.7493
 2.4810	33.7656
 2.4800	33.8950
 2.4790	33.7389
 2.4780	33.8447
 2.4770	33.8350
 2.4760	34.0031
 2.4750	33.8197
 2.4740	33.9727
 2.4730	33.9195
 2.4720	33.9199
 2.4710	33.8998
 2.4700	33.9850
 2.4690	34.0288
 2.4680	34.1217
 2.4670	34.1017
 2.4660	34.1276
 2.4650	34.0367
 2.4640	34.2401
 2.4630	34.1778
 2.4620	34.2522
 2.4610	34.1191
 2.4600	34.2816
 2.4590	34.1831
 2.4580	34.2432
 2.4570	34.2335
 2.4560	34.3450
 2.4550	34.3342
 2.4540	34.4182
 2.4530	34.3189
 2.4520	34.3970
 2.4510	34.3821
 2.4500	34.3323
 2.4490	34.3613
 2.4480	34.4408
 2.4470	34.3659
 2.4460	34.4658
 2.4450	34.4322
 2.4440	34.4045
 2.4430	34.2978
 2.4420	34.4242
 2.4410	34.4782
 2.4400	34.4999
 2.4390	34.4456
 2.4380	34.5975
 2.4370	34.4716
 2.4360	34.5710
 2.4350	34.5007
 2.4340	34.6652
 2.4330	34.5688
 2.4320	34.6787
 2.4310	34.7213
 2.4300	34.7776
 2.4290	34.7991
 2.4280	34.8071
 2.4270	34.8183
 2.4260	35.0381
 2.4250	34.9712
 2.4240	35.0988
 2.4230	35.1176
 2.4220	35.2108
 2.4210	35.2286
 2.4200	35.3955
 2.4190	35.4397
 2.4180	35.5167
 2.4170	35.6069
 2.4160	35.7811
 2.4150	35.7547
 2.4140	35.9092
 2.4130	35.9037
 2.4120	35.9887
 2.4110	36.0719
 2.4100	36.2228
 2.4090	36.1929
 2.4080	36.3586
 2.4070	36.4422
 2.4060	36.5016
 2.4050	36.5149
 2.4040	36.7739
 2.4030	36.7650
 2.4020	36.8451
 2.4010	36.9207
 2.4000	37.0876
 2.3990	37.2393
 2.3980	37.3856
 2.3970	37.5640
 2.3960	37.6860
 2.3950	37.7102
 2.3940	37.8786
 2.3930	38.0496
 2.3920	38.2130
 2.3910	38.3642
 2.3900	38.5448
 2.3890	38.6497
 2.3880	38.8652
 2.3870	39.0732
 2.3860	39.2777
 2.3850	39.4543
 2.3840	39.7140
 2.3830	39.8877
 2.3820	40.0956
 2.3810	40.2679
 2.3800	40.5536
 2.3790	40.7380
 2.3780	40.9583
 2.3770	41.1944
 2.3760	41.4363
 2.3750	41.6483
 2.3740	41.8939
 2.3730	42.0651
 2.3720	42.3289
 2.3710	42.5061
 2.3700	42.6932
 2.3690	42.8963
 2.3680	43.1303
 2.3670	43.3354
 2.3660	43.4943
 2.3650	43.7063
 2.3640	43.8889
 2.3630	44.0178
 2.3620	44.2273
 2.3610	44.3736
 2.3600	44.4990
 2.3590	44.6618
 2.3580	44.7766
 2.3570	44.9505
 2.3560	45.1310
 2.3550	45.2018
 2.3540	45.3457
 2.3530	45.5151
 2.3520	45.6351
 2.3510	45.7780
 2.3500	45.9190
 2.3490	45.9993
 2.3480	46.1144
 2.3470	46.2984
 2.3460	46.3874
 2.3450	46.5216
 2.3440	46.6608
 2.3430	46.7931
 2.3420	46.9362
 2.3410	47.0248
 2.3400	47.1358
 2.3390	47.2985
 2.3380	47.4204
 2.3370	47.4964
 2.3360	47.6413
 2.3350	47.7761
 2.3340	47.9042
 2.3330	48.0801
 2.3320	48.1663
 2.3310	48.2990
 2.3300	48.3618
 2.3290	48.5159
 2.3280	48.6024
 2.3270	48.6644
 2.3260	48.7699
 2.3250	48.8809
 2.3240	48.9495
 2.3230	49.0546
 2.3220	49.1073
 2.3210	49.1573
 2.3200	49.1904
 2.3190	49.2972
 2.3180	49.3023
 2.3170	49.3205
 2.3160	49.3615
 2.3150	49.4115
 2.3140	49.4223
 2.3130	49.4496
 2.3120	49.4058
 2.3110	49.4281
 2.3100	49.4140
 2.3090	49.3998
 2.3080	49.4000
 2.3070	49.3743
 2.3060	49.3029
 2.3050	49.2874
 2.3040	49.2372
 2.3030	49.1693
 2.3020	49.1365
 2.3010	49.1065
 2.3000	49.0077
 2.2990	48.9253
 2.2980	48.8385
 2.2970	48.7886
 2.2960	48.6293
 2.2950	48.5510
 2.2940	48.4121
 2.2930	48.3379
 2.2920	48.1722
 2.2910	48.1040
 2.2900	47.9021
 2.2890	47.8262
 2.2880	47.6524
 2.2870	47.5800
 2.2860	47.4335
 2.2850	47.3250
 2.2840	47.1454
 2.2830	47.1454
 2.2820	47.0543
 2.2810	46.9139
 2.2800	46.8015
 2.2790	46.8208
 2.2780	46.7262
 2.2770	46.6419
 2.2760	46.6310
 2.2750	46.5316
 2.2740	46.4633
 2.2730	46.4103
 2.2720	46.4087
 2.2710	46.3886
 2.2700	46.3441
 2.2690	46.3030
 2.2680	46.1968
 2.2670	46.1809
 2.2660	46.0680
 2.2650	46.1112
 2.2640	46.0588
 2.2630	46.0123
 2.2620	45.9182
 2.2610	45.8760
 2.2600	45.8072
 2.2590	45.8253
 2.2580	45.6779
 2.2570	45.6487
 2.2560	45.5889
 2.2550	45.5780
 2.2540	45.5044
 2.2530	45.5192
 2.2520	45.4449
 2.2510	45.4215
 2.2500	45.3718
 2.2490	45.4076
 2.2480	45.2544
 2.2470	45.2523
 2.2460	45.1730
 2.2450	45.1098
 2.2440	45.0460
 2.2430	44.9362
 2.2420	44.8636
 2.2410	44.7861
 2.2400	44.6177
 2.2390	44.4347
 2.2380	44.3588
 2.2370	44.2020
 2.2360	43.9436
 2.2350	43.8551
 2.2340	43.6294
 2.2330	43.4454
 2.2320	43.2831
 2.2310	43.1586
 2.2300	42.8672
 2.2290	42.7492
 2.2280	42.4842
 2.2270	42.3848
 2.2260	42.1870
 2.2250	42.0352
 2.2240	41.6992
 2.2230	41.6849
 2.2220	41.4281
 2.2210	41.2499
 2.2200	41.0519
 2.2190	40.9243
 2.2180	40.6020
 2.2170	40.4258
 2.2160	40.1273
 2.2150	39.9858
 2.2140	39.6288
 2.2130	39.4357
 2.2120	39.1703
 2.2110	38.8495
 2.2100	38.5595
 2.2090	38.2903
 2.2080	37.9708
 2.2070	37.6654
 2.2060	37.2960
 2.2050	37.0572
 2.2040	36.6841
 2.2030	36.2356
 2.2020	35.7772
 2.2010	35.4900
 2.2000	34.9631
 2.1990	34.6462
 2.1980	34.0648
 2.1970	33.7436
 2.1960	33.2106
 2.1950	32.9313
 2.1940	32.4869
 2.1930	32.2498
 2.1920	31.9946
 2.1910	31.7732
 2.1900	31.6260
 2.1890	31.6355
 2.1880	31.7014
 2.1870	31.8871
 2.1860	32.0022
 2.1850	32.3386
 2.1840	32.6126
 2.1830	33.1022
 2.1820	33.5677
 2.1810	34.1648
 2.1800	34.6085
 2.1790	35.2630
 2.1780	35.7768
 2.1770	36.3978
 2.1760	36.9662
 2.1750	37.5969
 2.1740	38.0591
 2.1730	38.6886
 2.1720	39.2139
 2.1710	39.7017
 2.1700	40.0968
 2.1690	40.5582
 2.1680	40.8666
 2.1670	41.1953
 2.1660	41.4996
 2.1650	41.7631
 2.1640	41.9976
 2.1630	42.2876
 2.1620	42.3847
 2.1610	42.5790
 2.1600	42.6914
 2.1590	42.8835
 2.1580	42.9872
 2.1570	43.1155
 2.1560	43.1689
 2.1550	43.2930
 2.1540	43.3917
 2.1530	43.5364
 2.1520	43.5464
 2.1510	43.6558
 2.1500	43.7146
 2.1490	43.7930
 2.1480	43.8767
 2.1470	43.9640
 2.1460	43.9892
 2.1450	44.0490
 2.1440	44.1179
 2.1430	44.1567
 2.1420	44.1722
 2.1410	44.2574
 2.1400	44.2957
 2.1390	44.4118
 2.1380	44.3455
 2.1370	44.3810
 2.1360	44.4693
 2.1350	44.5228
 2.1340	44.5499
 2.1330	44.5750
 2.1320	44.6174
 2.1310	44.6412
 2.1300	44.6033
 2.1290	44.6091
 2.1280	44.5851
 2.1270	44.6617
 2.1260	44.6723
 2.1250	44.6687
 2.1240	44.6260
 2.1230	44.6281
 2.1220	44.5851
 2.1210	44.6307
 2.1200	44.5474
 2.1190	44.4820
 2.1180	44.3961
 2.1170	44.3647
 2.1160	44.3465
 2.1150	44.2908
 2.1140	44.2351
 2.1130	44.2176
 2.1120	44.1438
 2.1110	44.0475
 2.1100	43.9743
 2.1090	43.9101
 2.1080	43.8086
 2.1070	43.7667
 2.1060	43.6911
 2.1050	43.5982
 2.1040	43.5172
 2.1030	43.4302
 2.1020	43.3303
 2.1010	43.2739
 2.1000	43.2251
 2.0990	43.1437
 2.0980	43.0673
 2.0970	43.0440
 2.0960	42.9357
 2.0950	42.8777
 2.0940	42.8160
 2.0930	42.7719
 2.0920	42.7126
 2.0910	42.6351
 2.0900	42.5677
 2.0890	42.4769
 2.0880	42.3726
 2.0870	42.3112
 2.0860	42.2493
 2.0850	42.1482
 2.0840	42.0433
 2.0830	41.9774
 2.0820	41.8784
 2.0810	41.7818
 2.0800	41.7137
 2.0790	41.6146
 2.0780	41.4975
 2.0770	41.4107
 2.0760	41.3323
 2.0750	41.2305
 2.0740	41.1230
 2.0730	41.0320
 2.0720	40.9178
 2.0710	40.8155
 2.0700	40.6753
 2.0690	40.5355
 2.0680	40.4374
 2.0670	40.3074
 2.0660	40.1909
 2.0650	40.0230
 2.0640	39.7689
 2.0630	39.5650
 2.0620	39.3741
 2.0610	39.1756
 2.0600	38.9293
 2.0590	38.6481
 2.0580	38.4217
 2.0570	38.1642
 2.0560	37.9373
 2.0550	37.7334
 2.0540	37.5556
 2.0530	37.3165
 2.0520	37.1818
 2.0510	37.0842
 2.0500	37.0325
 2.0490	36.9645
 2.0480	36.9297
 2.0470	36.9781
 2.0460	37.0048
 2.0450	37.0025
 2.0440	37.0493
 2.0430	37.0996
 2.0420	37.1607
 2.0410	37.1110
 2.0400	37.0770
 2.0390	37.0322
 2.0380	37.0563
 2.0370	37.0268
 2.0360	36.9581
 2.0350	36.9049
 2.0340	36.8993
 2.0330	36.8569
 2.0320	36.9172
 2.0310	36.8326
 2.0300	36.7460
 2.0290	36.7262
 2.0280	36.7288
 2.0270	36.6628
 2.0260	36.7499
 2.0250	36.7142
 2.0240	36.6735
 2.0230	36.5886
 2.0220	36.5374
 2.0210	36.4407
 2.0200	36.3290
 2.0190	36.2493
 2.0180	36.1442
 2.0170	36.0429
 2.0160	35.9586
 2.0150	35.7896
 2.0140	35.6903
 2.0130	35.5471
 2.0120	35.4449
 2.0110	35.3556
 2.0100	35.3025
 2.0090	35.1698
 2.0080	35.1188
 2.0070	35.0891
 2.0060	35.0123
 2.0050	34.9260
 2.0040	34.8901
 2.0030	34.8048
 2.0020	34.7225
 2.0010	34.6629
 2.0000	34.6506
 1.9990	34.5373
 1.9980	34.5157
 1.9970	34.3556
 1.9960	34.3287
 1.9950	34.2465
 1.9940	34.2688
 1.9930	34.1485
 1.9920	34.1586
 1.9910	34.0618
 1.9900	34.1140
 1.9890	33.9812
 1.9880	33.9806
 1.9870	33.9565
 1.9860	34.0195
 1.9850	33.9770
 1.9840	33.9652
 1.9830	33.9567
 1.9820	33.9608
 1.9810	33.9050
 1.9800	33.9511
 1.9790	33.9461
 1.9780	33.9605
 1.9770	33.9395
 1.9760	34.0177
 1.9750	33.9380
 1.9740	33.9318
 1.9730	34.0209
 1.9720	34.0692
 1.9710	34.0536
 1.9700	34.2438
 1.9690	34.2357
 1.9680	34.3036
 1.9670	34.3270
 1.9660	34.4775
 1.9650	34.5463
 1.9640	34.8078
 1.9630	34.8249
 1.9620	35.0220
 1.9610	35.0624
 1.9600	35.3558
 1.9590	35.5095
 1.9580	35.8159
 1.9570	35.9729
 1.9560	36.2481
 1.9550	36.3787
 1.9540	36.7752
 1.9530	37.0119
 1.9520	37.2146
 1.9510	37.5611
 1.9500	37.8097
 1.9490	38.0873
 1.9480	38.4109
 1.9470	38.6647
 1.9460	38.9641
 1.9450	39.3006
 1.9440	39.6707
 1.9430	39.8807
 1.9420	40.2489
 1.9410	40.5297
 1.9400	40.9664
 1.9390	41.2332
 1.9380	41.6415
 1.9370	41.8647
 1.9360	42.2698
 1.9350	42.5631
 1.9340	42.9406
 1.9330	43.1442
 1.9320	43.6363
 1.9310	43.8522
 1.9300	44.2293
 1.9290	44.5222
 1.9280	44.8429
 1.9270	45.1975
 1.9260	45.4684
 1.9250	45.8481
 1.9240	46.0859
 1.9230	46.3721
 1.9220	46.7441
 1.9210	46.9824
 1.9200	47.4594
 1.9190	47.5940
 1.9180	47.9925
 1.9170	48.1718
 1.9160	48.6528
 1.9150	48.8592
 1.9140	49.1083
 1.9130	49.4694
 1.9120	49.7590
 1.9110	50.0205
 1.9100	50.3495
 1.9090	50.7082
 1.9080	50.9813
 1.9070	51.2289
 1.9060	51.6199
 1.9050	51.8423
 1.9040	52.2115
 1.9030	52.4973
 1.9020	52.9020
 1.9010	53.1974
 1.9000	53.5944
 1.8990	53.8661
 1.8980	54.2248
 1.8970	54.6033
 1.8960	54.9549
 1.8950	55.2755
 1.8940	55.6470
 1.8930	55.9420
 1.8920	56.1868
 1.8910	56.4815
 1.8900	56.7822
 1.8890	57.0209
 1.8880	57.2955
 1.8870	57.6293
 1.8860	57.8591
 1.8850	58.0549
 1.8840	58.4033
 1.8830	58.4810
 1.8820	58.7147
 1.8810	58.8891
 1.8800	59.1336
 1.8790	59.2571
 1.8780	59.4384
 1.8770	59.5529
 1.8760	59.7513
 1.8750	59.8763
 1.8740	60.0167
 1.8730	60.1297
 1.8720	60.2561
 1.8710	60.4257
 1.8700	60.5567
 1.8690	60.6151
 1.8680	60.7304
 1.8670	60.7835
 1.8660	60.8849
 1.8650	60.9808
 1.8640	61.0381
 1.8630	61.1512
 1.8620	61.1969
 1.8610	61.2308
 1.8600	61.3221
 1.8590	61.3340
 1.8580	61.3752
 1.8570	61.4098
 1.8560	61.4943
 1.8550	61.4704
 1.8540	61.5411
 1.8530	61.5248
 1.8520	61.6133
 1.8510	61.5808
 1.8500	61.6629
 1.8490	61.6123
 1.8480	61.5746
 1.8470	61.6056
 1.8460	61.6222
 1.8450	61.5855
 1.8440	61.6672
 1.8430	61.6684
 1.8420	61.6982
 1.8410	61.6225
 1.8400	61.5954
 1.8390	61.5514
 1.8380	61.5896
 1.8370	61.5936
 1.8360	61.6051
 1.8350	61.5471
 1.8340	61.5508
 1.8330	61.5339
 1.8320	61.4667
 1.8310	61.4104
 1.8300	61.3954
 1.8290	61.3813
 1.8280	61.3973
 1.8270	61.3416
 1.8260	61.2933
 1.8250	61.2367
 1.8240	61.2579
 1.8230	61.2086
 1.8220	61.1176
 1.8210	61.0733
 1.8200	61.0502
 1.8190	61.0440
 1.8180	60.9924
 1.8170	60.9542
 1.8160	60.9793
 1.8150	60.9517
 1.8140	60.9297
 1.8130	60.8327
 1.8120	60.7675
 1.8110	60.7476
 1.8100	60.7435
 1.8090	60.7148
 1.8080	60.7078
 1.8070	60.5961
 1.8060	60.5259
 1.8050	60.4491
 1.8040	60.4204
 1.8030	60.3887
 1.8020	60.3744
 1.8010	60.3452
 1.8000	60.2913
 1.7990	60.2531
 1.7980	60.2170
 1.7970	60.1619
 1.7960	60.1305
 1.7950	60.0957
 1.7940	60.1045
 1.7930	60.1185
 1.7920	60.0890
 1.7910	60.0914
 1.7900	60.0812
 1.7890	60.0472
 1.7880	60.0498
 1.7870	60.0177
 1.7860	60.0144
 1.7850	60.0499
 1.7840	60.1139
 1.7830	60.1277
 1.7820	60.1266
 1.7810	60.1925
 1.7800	60.2417
 1.7790	60.2483
 1.7780	60.3205
 1.7770	60.3837
 1.7760	60.4128
 1.7750	60.4908
 1.7740	60.5392
 1.7730	60.6098
 1.7720	60.6420
 1.7710	60.6810
 1.7700	60.7304
 1.7690	60.7913
 1.7680	60.8675
 1.7670	60.9333
 1.7660	61.0033
 1.7650	61.0101
 1.7640	61.0359
 1.7630	61.1380
 1.7620	61.1897
 1.7610	61.2241
 1.7600	61.2578
 1.7590	61.3118
 1.7580	61.3458
 1.7570	61.3839
 1.7560	61.4735
 1.7550	61.5780
 1.7540	61.6019
 1.7530	61.6619
 1.7520	61.7127
 1.7510	61.6892
 1.7500	61.7112
 1.7490	61.7578
 1.7480	61.7695
 1.7470	61.8353
 1.7460	61.8744
 1.7450	61.9006
 1.7440	61.9236
 1.7430	61.9686
 1.7420	62.0536
 1.7410	62.0654
 1.7400	62.0921
 1.7390	62.1235
 1.7380	62.1834
 1.7370	62.2376
 1.7360	62.2434
 1.7350	62.3237
 1.7340	62.3288
 1.7330	62.3488
 1.7320	62.3829
 1.7310	62.4491
 1.7300	62.5186
 1.7290	62.5941
 1.7280	62.5845
 1.7270	62.6624
 1.7260	62.6271
 1.7250	62.7612
 1.7240	62.7286
 1.7230	62.8046
 1.7220	62.7977
 1.7210	62.8032
 1.7200	62.8830
 1.7190	62.9772
 1.7180	62.9586
 1.7170	62.9927
 1.7160	63.0623
 1.7150	63.1488
 1.7140	63.1257
 1.7130	63.1093
 1.7120	63.1962
 1.7110	63.2435
 1.7100	63.2460
 1.7090	63.3621
 1.7080	63.3311
 1.7070	63.3762
 1.7060	63.3766
 1.7050	63.4123
 1.7040	63.3548
 1.7030	63.4633
 1.7020	63.4666
 1.7010	63.4954
 1.7000	63.4858
 1.6990	63.4978
 1.6980	63.5097
 1.6970	63.5823
 1.6960	63.5720
 1.6950	63.5774
 1.6940	63.6266
 1.6930	63.6209
 1.6920	63.6537
 1.6910	63.7013
 1.6900	63.7253
 1.6890	63.7289
 1.6880	63.6740
 1.6870	63.7529
 1.6860	63.7257
 1.6850	63.7667
 1.6840	63.7835
 1.6830	63.8052
 1.6820	63.7887
 1.6810	63.8115
 1.6800	63.8223
 1.6790	63.8858
 1.6780	63.8438
 1.6770	63.7890
 1.6760	63.7636
 1.6750	63.8016
 1.6740	63.7685
 1.6730	63.8919
 1.6720	63.8328
 1.6710	63.8440
 1.6700	63.8355
 1.6690	63.8409
 1.6680	63.7009
 1.6670	63.8323
 1.6660	63.7706
 1.6650	63.7821
 1.6640	63.6794
 1.6630	63.8389
 1.6620	63.6801
 1.6610	63.7355
 1.6600	63.7061
 1.6590	63.6947
 1.6580	63.5905
 1.6570	63.6381
 1.6560	63.5399
 1.6550	63.5659
 1.6540	63.5315
 1.6530	63.4788
 1.6520	63.4750
 1.6510	63.4613
 1.6500	63.3358
 1.6490	63.4452
 1.6480	63.3543
 1.6470	63.3557
 1.6460	63.2519
 1.6450	63.2417
 1.6440	63.2092
 1.6430	63.1741
 1.6420	63.1063
 1.6410	62.9581
 1.6400	62.9596
 1.6390	62.9753
 1.6380	62.9136
 1.6370	62.8842
 1.6360	62.8005
 1.6350	62.8232
 1.6340	62.6727
 1.6330	62.6306
 1.6320	62.5350
 1.6310	62.5232
 1.6300	62.4963
 1.6290	62.4412
 1.6280	62.3919
 1.6270	62.3138
 1.6260	62.3166
 1.6250	62.1870
 1.6240	62.1207
 1.6230	62.1190
 1.6220	62.0823
 1.6210	62.0291
 1.6200	61.9134
 1.6190	61.8661
 1.6180	61.8194
 1.6170	61.7740
 1.6160	61.6769
 1.6150	61.7059
 1.6140	61.5818
 1.6130	61.6072
 1.6120	61.5180
 1.6110	61.5335
 1.6100	61.3625
 1.6090	61.4344
 1.6080	61.3011
 1.6070	61.2891
 1.6060	61.2162
 1.6050	61.1849
 1.6040	61.0971
 1.6030	61.1139
 1.6020	61.0056
 1.6010	61.0275
 1.6000	60.9544
 1.5990	60.9267
 1.5980	60.8643
 1.5970	60.8391
 1.5960	60.8064
 1.5950	60.7236
 1.5940	60.6858
 1.5930	60.6648
 1.5920	60.5955
 1.5910	60.5767
 1.5900	60.4952
 1.5890	60.5152
 1.5880	60.4380
 1.5870	60.3781
 1.5860	60.3579
 1.5850	60.3273
 1.5840	60.2559
 1.5830	60.2301
 1.5820	60.1705
 1.5810	60.1872
 1.5800	60.1053
 1.5790	60.0923
 1.5780	60.0863
 1.5770	60.0815
 1.5760	60.0483
 1.5750	60.0664
 1.5740	59.9308
 1.5730	59.9436
 1.5720	59.9504
 1.5710	59.9791
 1.5700	59.9501
 1.5690	59.9791
 1.5680	59.9432
 1.5670	59.9635
 1.5660	59.9411
 1.5650	59.9463
 1.5640	59.9009
 1.5630	59.9168
 1.5620	59.9355
 1.5610	59.9367
 1.5600	59.9063
 1.5590	59.8567
 1.5580	59.8628
 1.5570	59.8806
 1.5560	59.9098
 1.5550	59.8852
 1.5540	59.8028
 1.5530	59.8466
 1.5520	59.8372
 1.5510	59.8348
 1.5500	59.8401
 1.5490	59.8482
 1.5480	59.8737
 1.5470	59.9014
 1.5460	59.8883
 1.5450	59.8982
 1.5440	59.8913
 1.5430	59.9104
 1.5420	59.9068
 1.5410	60.0052
 1.5400	60.0007
 1.5390	60.1022
 1.5380	60.1061
 1.5370	60.0031
 1.5360	60.0046
 1.5350	60.0698
 1.5340	60.0235
 1.5330	60.0292
 1.5320	59.9920
 1.5310	59.9902
 1.5300	59.9732
 1.5290	59.9476
 1.5280	59.8539
 1.5270	59.8343
 1.5260	59.8036
 1.5250	59.6925
 1.5240	59.6318
 1.5230	59.5765
 1.5220	59.5531
 1.5210	59.4773
 1.5200	59.3868
 1.5190	59.3116
 1.5180	59.2082
 1.5170	59.1408
 1.5160	59.0676
 1.5150	59.0346
 1.5140	58.9774
 1.5130	58.8570
 1.5120	58.7295
 1.5110	58.6903
 1.5100	58.6789
 1.5090	58.6505
 1.5080	58.5826
 1.5070	58.5210
 1.5060	58.4614
 1.5050	58.4362
 1.5040	58.3994
 1.5030	58.3135
 1.5020	58.2872
 1.5010	58.2761
 1.5000	58.2737
 1.4990	58.2209
 1.4980	58.1839
 1.4970	58.2125
 1.4960	58.2612
 1.4950	58.2782
 1.4940	58.3068
 1.4930	58.3401
 1.4920	58.3589
 1.4910	58.4061
 1.4900	58.4579
 1.4890	58.5075
 1.4880	58.6029
 1.4870	58.6899
 1.4860	58.7377
 1.4850	58.7789
 1.4840	58.8581
 1.4830	58.9106
 1.4820	58.9945
 1.4810	59.0959
 1.4800	59.2103
 1.4790	59.3065
 1.4780	59.4087
 1.4770	59.5563
 1.4760	59.7112
 1.4750	59.8236
 1.4740	60.0508
 1.4730	60.2688
 1.4720	60.4724
 1.4710	60.6221
 1.4700	60.7890
 1.4690	60.9158
 1.4680	61.0243
 1.4670	61.1268
 1.4660	61.2280
 1.4650	61.2956
 1.4640	61.4106
 1.4630	61.4206
 1.4620	61.5103
 1.4610	61.5151
 1.4600	61.5483
 1.4590	61.4855
 1.4580	61.4682
 1.4570	61.3591
 1.4560	61.2619
 1.4550	61.0382
 1.4540	60.7674
 1.4530	60.4664
 1.4520	59.9540
 1.4510	59.2856
 1.4500	58.5613
 1.4490	57.7391
 1.4480	56.9613
 1.4470	56.2472
 1.4460	55.6488
 1.4450	55.1084
 1.4440	54.7478
 1.4430	54.5066
 1.4420	54.4816
 1.4410	54.5871
 1.4400	54.7920
 1.4390	55.0765
 1.4380	55.5823
 1.4370	56.2089
 1.4360	56.9645
 1.4350	57.7634
 1.4340	58.5992
 1.4330	59.5614
 1.4320	60.5859
 1.4310	61.5766
 1.4300	62.5814
 1.4290	63.5561
 1.4280	64.5384
 1.4270	65.5010
 1.4260	66.3998
 1.4250	67.2815
 1.4240	68.2705
 1.4230	69.0679
 1.4220	69.8279
 1.4210	70.5072
 1.4200	71.2907
 1.4190	71.9409
 1.4180	72.6909
 1.4170	73.3200
 1.4160	73.8003
 1.4150	74.2885
 1.4140	74.7503
 1.4130	75.0631
 1.4120	75.3802
 1.4110	75.5106
 1.4100	75.7932
 1.4090	75.9756
 1.4080	76.3856
 1.4070	76.7535
 1.4060	77.2561
 1.4050	77.6477
 1.4040	78.1046
 1.4030	78.4661
 1.4020	78.6954
 1.4010	78.9446
 1.4000	79.1978
 1.3990	79.3944
 1.3980	79.5989
 1.3970	79.8142
 1.3960	80.0821
 1.3950	80.2244
 1.3940	80.3662
 1.3930	80.4421
 1.3920	80.6395
 1.3910	80.6855
 1.3900	80.7790
 1.3890	80.8851
 1.3880	80.9795
 1.3870	81.1143
 1.3860	81.1235
 1.3850	81.2043
 1.3840	81.3261
 1.3830	81.2726
 1.3820	81.3153
 1.3810	81.3962
 1.3800	81.4017
 1.3790	81.5679
 1.3780	81.6292
 1.3770	81.6670
 1.3760	81.7079
 1.3750	81.7028
 1.3740	81.8611
 1.3730	81.8375
 1.3720	81.8728
 1.3710	81.8052
 1.3700	82.0493
 1.3690	82.1194
 1.3680	82.1251
 1.3670	82.1989
 1.3660	82.2171
