Name: Lepidolite K(Li,Al)3(Si,Al)_4O_10(F,OH)_2
Type: Mineral
Class: Silicate
Subclass: Phyllosilicate
Particle Size: Coarse
Sample No.: PS-13B
Owner: JPL
Wavelength Range: VSWIR
Origin: South Africa.
Collection Date: N/A
Description: Lavender lepidolite.Particle size was 125-500um.Collected by:  Ward's Original ASTER Spectral Library name was jpl.perkin.mineral.silicate.phyllosilicate.coarse.ps13c.spectrum.txt
Measurement: Hemispherical reflectance
First Column: X
Second Column: Y
X Units: Wavelength (micrometers)
Y Units:Reflectance (percent)
First X Value:  2.5000
Last X Value:  0.4000
Number of X Values: 2101
Additional Information: None

 2.5000	32.5533
 2.4990	32.5538
 2.4980	31.9579
 2.4970	32.2994
 2.4960	31.6166
 2.4950	32.1250
 2.4940	31.8292
 2.4930	31.7204
 2.4920	31.2770
 2.4910	31.5469
 2.4900	31.2039
 2.4890	31.4712
 2.4880	31.0917
 2.4870	31.2060
 2.4860	31.2246
 2.4850	31.0992
 2.4840	30.9627
 2.4830	30.9486
 2.4820	30.8715
 2.4810	30.9635
 2.4800	30.6244
 2.4790	30.8980
 2.4780	30.7041
 2.4770	30.7158
 2.4760	30.4858
 2.4750	30.4107
 2.4740	30.2243
 2.4730	30.3651
 2.4720	30.1825
 2.4710	30.1951
 2.4700	29.9817
 2.4690	30.0065
 2.4680	29.7768
 2.4670	29.8368
 2.4660	29.5173
 2.4650	29.6018
 2.4640	29.3058
 2.4630	29.4542
 2.4620	29.0824
 2.4610	29.2910
 2.4600	28.9238
 2.4590	29.0059
 2.4580	28.6611
 2.4570	28.6474
 2.4560	28.5376
 2.4550	28.4289
 2.4540	28.3243
 2.4530	28.1977
 2.4520	28.0750
 2.4510	27.9596
 2.4500	27.8401
 2.4490	27.8507
 2.4480	27.6786
 2.4470	27.5792
 2.4460	27.4645
 2.4450	27.4375
 2.4440	27.2162
 2.4430	27.3331
 2.4420	27.1386
 2.4410	27.1741
 2.4400	27.0734
 2.4390	27.1873
 2.4380	27.0974
 2.4370	27.1388
 2.4360	27.1837
 2.4350	27.2210
 2.4340	27.1268
 2.4330	27.2867
 2.4320	27.2446
 2.4310	27.5253
 2.4300	27.4813
 2.4290	27.6316
 2.4280	27.7782
 2.4270	27.9213
 2.4260	28.0130
 2.4250	28.2377
 2.4240	28.3426
 2.4230	28.6300
 2.4220	28.7864
 2.4210	29.0280
 2.4200	29.1719
 2.4190	29.4525
 2.4180	29.7065
 2.4170	30.0308
 2.4160	30.2193
 2.4150	30.6603
 2.4140	30.8326
 2.4130	31.1062
 2.4120	31.3457
 2.4110	31.6843
 2.4100	31.8464
 2.4090	32.2031
 2.4080	32.3405
 2.4070	32.6064
 2.4060	32.9313
 2.4050	33.1618
 2.4040	33.4350
 2.4030	33.6887
 2.4020	33.8085
 2.4010	34.0552
 2.4000	34.2001
 2.3990	34.4766
 2.3980	34.6158
 2.3970	34.7454
 2.3960	34.8492
 2.3950	34.9979
 2.3940	35.0920
 2.3930	35.1875
 2.3920	35.2667
 2.3910	35.3681
 2.3900	35.4014
 2.3890	35.5382
 2.3880	35.5677
 2.3870	35.6146
 2.3860	35.6468
 2.3850	35.6947
 2.3840	35.6756
 2.3830	35.7019
 2.3820	35.7025
 2.3810	35.6897
 2.3800	35.6850
 2.3790	35.7782
 2.3780	35.7002
 2.3770	35.7141
 2.3760	35.8029
 2.3750	35.7690
 2.3740	35.6916
 2.3730	35.7159
 2.3720	35.7052
 2.3710	35.6662
 2.3700	35.6162
 2.3690	35.5685
 2.3680	35.5409
 2.3670	35.5030
 2.3660	35.4591
 2.3650	35.4024
 2.3640	35.2742
 2.3630	35.1322
 2.3620	35.0032
 2.3610	34.9686
 2.3600	34.8764
 2.3590	34.7032
 2.3580	34.5424
 2.3570	34.4905
 2.3560	34.4070
 2.3550	34.2031
 2.3540	34.0320
 2.3530	33.9510
 2.3520	33.8782
 2.3510	33.7612
 2.3500	33.6377
 2.3490	33.5892
 2.3480	33.5637
 2.3470	33.5595
 2.3460	33.5735
 2.3450	33.5981
 2.3440	33.6749
 2.3430	33.7101
 2.3420	33.7987
 2.3410	33.9352
 2.3400	34.1316
 2.3390	34.3121
 2.3380	34.5577
 2.3370	34.7697
 2.3360	35.0631
 2.3350	35.3303
 2.3340	35.6261
 2.3330	35.9446
 2.3320	36.2919
 2.3310	36.6189
 2.3300	37.0337
 2.3290	37.3804
 2.3280	37.7805
 2.3270	38.2448
 2.3260	38.6923
 2.3250	39.0249
 2.3240	39.4695
 2.3230	39.9167
 2.3220	40.3727
 2.3210	40.8218
 2.3200	41.2754
 2.3190	41.8150
 2.3180	42.2856
 2.3170	42.6668
 2.3160	43.1607
 2.3150	43.6364
 2.3140	44.0756
 2.3130	44.4701
 2.3120	45.0129
 2.3110	45.4878
 2.3100	45.9763
 2.3090	46.3617
 2.3080	46.8882
 2.3070	47.3109
 2.3060	47.6764
 2.3050	48.0757
 2.3040	48.5082
 2.3030	48.8920
 2.3020	49.3211
 2.3010	49.7426
 2.3000	50.0923
 2.2990	50.4447
 2.2980	50.7820
 2.2970	51.0845
 2.2960	51.4449
 2.2950	51.7050
 2.2940	52.0780
 2.2930	52.3312
 2.2920	52.5755
 2.2910	52.7837
 2.2900	53.0264
 2.2890	53.2771
 2.2880	53.5369
 2.2870	53.6961
 2.2860	53.8592
 2.2850	54.0547
 2.2840	54.2356
 2.2830	54.4016
 2.2820	54.5394
 2.2810	54.6338
 2.2800	54.7802
 2.2790	54.9034
 2.2780	55.0696
 2.2770	55.1002
 2.2760	55.2520
 2.2750	55.2876
 2.2740	55.3828
 2.2730	55.3904
 2.2720	55.5507
 2.2710	55.5705
 2.2700	55.6283
 2.2690	55.6522
 2.2680	55.6507
 2.2670	55.6542
 2.2660	55.6942
 2.2650	55.7335
 2.2640	55.6760
 2.2630	55.6844
 2.2620	55.6422
 2.2610	55.5676
 2.2600	55.5468
 2.2590	55.5078
 2.2580	55.5214
 2.2570	55.3697
 2.2560	55.3951
 2.2550	55.3044
 2.2540	55.3273
 2.2530	55.1434
 2.2520	55.1337
 2.2510	55.0099
 2.2500	55.0062
 2.2490	54.9170
 2.2480	54.7775
 2.2470	54.7349
 2.2460	54.6371
 2.2450	54.5114
 2.2440	54.5252
 2.2430	54.4090
 2.2420	54.2738
 2.2410	54.1508
 2.2400	53.9853
 2.2390	53.8966
 2.2380	53.7437
 2.2370	53.4694
 2.2360	53.3281
 2.2350	53.0876
 2.2340	52.9099
 2.2330	52.6513
 2.2320	52.3002
 2.2310	51.9437
 2.2300	51.5651
 2.2290	51.2160
 2.2280	50.8716
 2.2270	50.2470
 2.2260	49.8050
 2.2250	49.2234
 2.2240	48.6553
 2.2230	47.9770
 2.2220	47.3229
 2.2210	46.4594
 2.2200	45.6925
 2.2190	44.6351
 2.2180	43.7545
 2.2170	42.8175
 2.2160	41.6797
 2.2150	40.5354
 2.2140	39.5429
 2.2130	38.4300
 2.2120	37.3719
 2.2110	35.9453
 2.2100	35.0891
 2.2090	33.8923
 2.2080	32.9175
 2.2070	31.8706
 2.2060	30.8742
 2.2050	30.0189
 2.2040	29.2353
 2.2030	28.3598
 2.2020	27.8059
 2.2010	27.2131
 2.2000	26.8284
 2.1990	26.3946
 2.1980	26.1560
 2.1970	25.9250
 2.1960	25.9157
 2.1950	25.8005
 2.1940	26.0207
 2.1930	26.1334
 2.1920	26.5539
 2.1910	26.8550
 2.1900	27.5450
 2.1890	28.0200
 2.1880	28.8549
 2.1870	29.5948
 2.1860	30.5165
 2.1850	31.2780
 2.1840	32.4282
 2.1830	33.4252
 2.1820	34.6142
 2.1810	35.6578
 2.1800	37.0337
 2.1790	38.2364
 2.1780	39.4922
 2.1770	40.6210
 2.1760	41.9187
 2.1750	43.1613
 2.1740	44.3786
 2.1730	45.4647
 2.1720	46.7128
 2.1710	47.6681
 2.1700	48.7463
 2.1690	49.6655
 2.1680	50.6695
 2.1670	51.5545
 2.1660	52.4318
 2.1650	53.2742
 2.1640	54.0077
 2.1630	54.6790
 2.1620	55.4466
 2.1610	56.0497
 2.1600	56.6895
 2.1590	57.2455
 2.1580	57.8401
 2.1570	58.2618
 2.1560	58.8537
 2.1550	59.3203
 2.1540	59.6941
 2.1530	60.1619
 2.1520	60.6232
 2.1510	60.9124
 2.1500	61.2425
 2.1490	61.5805
 2.1480	61.9400
 2.1470	62.2514
 2.1460	62.5906
 2.1450	62.8168
 2.1440	63.0520
 2.1430	63.2254
 2.1420	63.4067
 2.1410	63.6529
 2.1400	63.8265
 2.1390	64.0323
 2.1380	64.1482
 2.1370	64.1574
 2.1360	64.2525
 2.1350	64.2686
 2.1340	64.3809
 2.1330	64.3920
 2.1320	64.3743
 2.1310	64.3101
 2.1300	64.3103
 2.1290	64.2660
 2.1280	64.1952
 2.1270	64.0551
 2.1260	64.0079
 2.1250	63.9470
 2.1240	63.9025
 2.1230	63.8171
 2.1220	63.7305
 2.1210	63.6900
 2.1200	63.6214
 2.1190	63.5682
 2.1180	63.6311
 2.1170	63.6335
 2.1160	63.7568
 2.1150	63.8265
 2.1140	63.8763
 2.1130	64.0131
 2.1120	64.2190
 2.1110	64.3272
 2.1100	64.4635
 2.1090	64.5995
 2.1080	64.8173
 2.1070	65.0018
 2.1060	65.1588
 2.1050	65.3173
 2.1040	65.5296
 2.1030	65.7338
 2.1020	65.9123
 2.1010	66.1338
 2.1000	66.3708
 2.0990	66.6620
 2.0980	66.9146
 2.0970	67.1398
 2.0960	67.3948
 2.0950	67.6979
 2.0940	68.0101
 2.0930	68.3111
 2.0920	68.6321
 2.0910	68.8743
 2.0900	69.1153
 2.0890	69.3552
 2.0880	69.5889
 2.0870	69.8061
 2.0860	70.0592
 2.0850	70.3085
 2.0840	70.5356
 2.0830	70.6591
 2.0820	70.8624
 2.0810	71.0484
 2.0800	71.2441
 2.0790	71.3717
 2.0780	71.5218
 2.0770	71.6970
 2.0760	71.8421
 2.0750	71.9450
 2.0740	72.0891
 2.0730	72.2477
 2.0720	72.3688
 2.0710	72.5293
 2.0700	72.6810
 2.0690	72.7727
 2.0680	72.8482
 2.0670	72.9587
 2.0660	73.0510
 2.0650	73.1356
 2.0640	73.2700
 2.0630	73.3751
 2.0620	73.3992
 2.0610	73.5241
 2.0600	73.6259
 2.0590	73.6197
 2.0580	73.6256
 2.0570	73.6938
 2.0560	73.7741
 2.0550	73.7572
 2.0540	73.7258
 2.0530	73.7776
 2.0520	73.8158
 2.0510	73.8593
 2.0500	73.9004
 2.0490	73.9405
 2.0480	73.9783
 2.0470	73.9918
 2.0460	74.0316
 2.0450	74.1050
 2.0440	74.1578
 2.0430	74.1627
 2.0420	74.1289
 2.0410	74.1779
 2.0400	74.2671
 2.0390	74.2466
 2.0380	74.2432
 2.0370	74.2672
 2.0360	74.3137
 2.0350	74.3983
 2.0340	74.4007
 2.0330	74.4257
 2.0320	74.4410
 2.0310	74.4633
 2.0300	74.5465
 2.0290	74.5964
 2.0280	74.5567
 2.0270	74.5454
 2.0260	74.5842
 2.0250	74.6680
 2.0240	74.6690
 2.0230	74.7553
 2.0220	74.7869
 2.0210	74.6955
 2.0200	74.6920
 2.0190	74.7397
 2.0180	74.7493
 2.0170	74.8091
 2.0160	74.7339
 2.0150	74.7899
 2.0140	74.8650
 2.0130	74.8356
 2.0120	74.7971
 2.0110	74.8519
 2.0100	74.8386
 2.0090	74.7783
 2.0080	74.8153
 2.0070	74.8734
 2.0060	74.8487
 2.0050	74.9242
 2.0040	74.8843
 2.0030	74.8819
 2.0020	74.8556
 2.0010	74.8813
 2.0000	74.9306
 1.9990	74.8116
 1.9980	74.8692
 1.9970	74.9659
 1.9960	74.8099
 1.9950	74.8410
 1.9940	74.8090
 1.9930	74.8524
 1.9920	74.7947
 1.9910	74.7786
 1.9900	74.7083
 1.9890	74.6375
 1.9880	74.5605
 1.9870	74.7445
 1.9860	74.7478
 1.9850	74.7835
 1.9840	74.7485
 1.9830	74.6481
 1.9820	74.5826
 1.9810	74.6419
 1.9800	74.6324
 1.9790	74.6864
 1.9780	74.6977
 1.9770	74.6175
 1.9760	74.5844
 1.9750	74.6131
 1.9740	74.6658
 1.9730	74.6795
 1.9720	74.6406
 1.9710	74.6798
 1.9700	74.7148
 1.9690	74.6794
 1.9680	74.7398
 1.9670	74.7565
 1.9660	74.5851
 1.9650	74.6739
 1.9640	74.6671
 1.9630	74.7907
 1.9620	74.6542
 1.9610	74.6770
 1.9600	74.7856
 1.9590	74.7004
 1.9580	74.7772
 1.9570	74.7476
 1.9560	74.7220
 1.9550	74.7630
 1.9540	74.7424
 1.9530	74.7904
 1.9520	74.6939
 1.9510	74.7250
 1.9500	74.8220
 1.9490	74.8240
 1.9480	74.8776
 1.9470	74.8682
 1.9460	74.8706
 1.9450	74.9126
 1.9440	74.8564
 1.9430	74.9126
 1.9420	74.8534
 1.9410	74.8926
 1.9400	74.8057
 1.9390	74.8695
 1.9380	74.8479
 1.9370	74.8608
 1.9360	74.7946
 1.9350	74.7599
 1.9340	74.7322
 1.9330	74.7602
 1.9320	74.6747
 1.9310	74.7777
 1.9300	74.7503
 1.9290	74.7410
 1.9280	74.7357
 1.9270	74.7103
 1.9260	74.5123
 1.9250	74.6386
 1.9240	74.5594
 1.9230	74.5995
 1.9220	74.5072
 1.9210	74.5722
 1.9200	74.4936
 1.9190	74.4394
 1.9180	74.3799
 1.9170	74.5702
 1.9160	74.5072
 1.9150	74.4792
 1.9140	74.3513
 1.9130	74.3978
 1.9120	74.3232
 1.9110	74.3527
 1.9100	74.2980
 1.9090	74.2124
 1.9080	74.2082
 1.9070	74.1400
 1.9060	74.1228
 1.9050	74.1440
 1.9040	74.0484
 1.9030	74.0891
 1.9020	74.0973
 1.9010	74.1040
 1.9000	74.0550
 1.8990	74.1125
 1.8980	74.2479
 1.8970	74.3546
 1.8960	74.3466
 1.8950	74.5503
 1.8940	74.6898
 1.8930	74.9466
 1.8920	75.1067
 1.8910	75.2534
 1.8900	75.4594
 1.8890	75.6092
 1.8880	75.7008
 1.8870	75.8939
 1.8860	75.9304
 1.8850	76.0884
 1.8840	76.1626
 1.8830	76.1910
 1.8820	76.3721
 1.8810	76.4084
 1.8800	76.5640
 1.8790	76.5974
 1.8780	76.6176
 1.8770	76.6121
 1.8760	76.7106
 1.8750	76.8043
 1.8740	76.8226
 1.8730	76.8549
 1.8720	76.8763
 1.8710	76.9647
 1.8700	76.8808
 1.8690	76.9418
 1.8680	76.9732
 1.8670	76.9600
 1.8660	77.0619
 1.8650	77.0827
 1.8640	77.1091
 1.8630	77.1390
 1.8620	77.1739
 1.8610	77.2289
 1.8600	77.2236
 1.8590	77.2018
 1.8580	77.2096
 1.8570	77.1687
 1.8560	77.1733
 1.8550	77.2407
 1.8540	77.2362
 1.8530	77.1646
 1.8520	77.2238
 1.8510	77.1872
 1.8500	77.1377
 1.8490	77.0527
 1.8480	76.9424
 1.8470	77.0260
 1.8460	77.0390
 1.8450	76.8591
 1.8440	76.8950
 1.8430	76.8990
 1.8420	76.8727
 1.8410	76.8616
 1.8400	76.8230
 1.8390	76.7832
 1.8380	76.7323
 1.8370	76.7236
 1.8360	76.7675
 1.8350	76.7674
 1.8340	76.8034
 1.8330	76.8898
 1.8320	76.9464
 1.8310	76.9555
 1.8300	77.0918
 1.8290	77.1298
 1.8280	77.1234
 1.8270	77.2707
 1.8260	77.3632
 1.8250	77.3555
 1.8240	77.4454
 1.8230	77.5120
 1.8220	77.5478
 1.8210	77.6023
 1.8200	77.7079
 1.8190	77.8072
 1.8180	77.8903
 1.8170	77.9170
 1.8160	77.9565
 1.8150	78.0285
 1.8140	78.0344
 1.8130	78.0152
 1.8120	78.0807
 1.8110	78.0646
 1.8100	78.1530
 1.8090	78.2032
 1.8080	78.1780
 1.8070	78.1920
 1.8060	78.2282
 1.8050	78.2765
 1.8040	78.2850
 1.8030	78.2856
 1.8020	78.2755
 1.8010	78.2789
 1.8000	78.3230
 1.7990	78.3185
 1.7980	78.2280
 1.7970	78.2984
 1.7960	78.3227
 1.7950	78.2789
 1.7940	78.2554
 1.7930	78.2545
 1.7920	78.2830
 1.7910	78.3178
 1.7900	78.2949
 1.7890	78.2421
 1.7880	78.2019
 1.7870	78.1784
 1.7860	78.1953
 1.7850	78.1932
 1.7840	78.2221
 1.7830	78.2196
 1.7820	78.2036
 1.7810	78.1691
 1.7800	78.1334
 1.7790	78.1680
 1.7780	78.1006
 1.7770	78.0724
 1.7760	78.0984
 1.7750	78.1272
 1.7740	78.1928
 1.7730	78.1264
 1.7720	78.1260
 1.7710	78.1378
 1.7700	78.1114
 1.7690	78.1481
 1.7680	78.1918
 1.7670	78.1438
 1.7660	78.1129
 1.7650	78.1264
 1.7640	78.1179
 1.7630	78.1313
 1.7620	78.1450
 1.7610	78.1138
 1.7600	78.1903
 1.7590	78.2480
 1.7580	78.2855
 1.7570	78.2200
 1.7560	78.2045
 1.7550	78.2690
 1.7540	78.3038
 1.7530	78.2789
 1.7520	78.3533
 1.7510	78.2694
 1.7500	78.2352
 1.7490	78.3075
 1.7480	78.3531
 1.7470	78.3983
 1.7460	78.3593
 1.7450	78.3894
 1.7440	78.4429
 1.7430	78.4170
 1.7420	78.4112
 1.7410	78.4075
 1.7400	78.4575
 1.7390	78.4111
 1.7380	78.4315
 1.7370	78.4364
 1.7360	78.4603
 1.7350	78.4823
 1.7340	78.4534
 1.7330	78.4158
 1.7320	78.5099
 1.7310	78.4659
 1.7300	78.4867
 1.7290	78.4739
 1.7280	78.4431
 1.7270	78.5014
 1.7260	78.5519
 1.7250	78.5346
 1.7240	78.5680
 1.7230	78.4758
 1.7220	78.3946
 1.7210	78.4663
 1.7200	78.5586
 1.7190	78.4528
 1.7180	78.4426
 1.7170	78.4998
 1.7160	78.3817
 1.7150	78.4708
 1.7140	78.5222
 1.7130	78.3845
 1.7120	78.4686
 1.7110	78.4140
 1.7100	78.4538
 1.7090	78.5519
 1.7080	78.4005
 1.7070	78.3399
 1.7060	78.4840
 1.7050	78.3807
 1.7040	78.3957
 1.7030	78.4272
 1.7020	78.4207
 1.7010	78.4581
 1.7000	78.3288
 1.6990	78.3424
 1.6980	78.4233
 1.6970	78.4213
 1.6960	78.3878
 1.6950	78.3566
 1.6940	78.3959
 1.6930	78.3522
 1.6920	78.3917
 1.6910	78.3952
 1.6900	78.3121
 1.6890	78.3504
 1.6880	78.4242
 1.6870	78.2618
 1.6860	78.2945
 1.6850	78.3795
 1.6840	78.2918
 1.6830	78.3442
 1.6820	78.2911
 1.6810	78.2699
 1.6800	78.3210
 1.6790	78.3463
 1.6780	78.2656
 1.6770	78.2596
 1.6760	78.3573
 1.6750	78.1889
 1.6740	78.2727
 1.6730	78.1755
 1.6720	78.2584
 1.6710	78.2105
 1.6700	78.2352
 1.6690	78.2488
 1.6680	78.2085
 1.6670	78.1985
 1.6660	78.2357
 1.6650	78.1452
 1.6640	78.2307
 1.6630	78.1969
 1.6620	78.1978
 1.6610	78.1865
 1.6600	78.1937
 1.6590	78.2860
 1.6580	78.1547
 1.6570	78.2317
 1.6560	78.1907
 1.6550	78.1096
 1.6540	78.1277
 1.6530	78.0908
 1.6520	78.1745
 1.6510	78.2334
 1.6500	78.1467
 1.6490	78.0638
 1.6480	78.1149
 1.6470	78.1483
 1.6460	78.1494
 1.6450	78.1207
 1.6440	78.1967
 1.6430	78.1379
 1.6420	78.1163
 1.6410	78.0369
 1.6400	78.0082
 1.6390	78.0266
 1.6380	78.0849
 1.6370	78.0257
 1.6360	78.0576
 1.6350	78.0678
 1.6340	78.0776
 1.6330	78.0452
 1.6320	78.0996
 1.6310	77.9924
 1.6300	78.0308
 1.6290	78.0141
 1.6280	78.0101
 1.6270	77.9970
 1.6260	77.9789
 1.6250	77.9299
 1.6240	77.9909
 1.6230	77.9383
 1.6220	77.9685
 1.6210	77.9646
 1.6200	78.0123
 1.6190	77.9592
 1.6180	77.8959
 1.6170	77.9278
 1.6160	78.0058
 1.6150	77.8314
 1.6140	77.8794
 1.6130	78.0009
 1.6120	77.9713
 1.6110	77.9573
 1.6100	77.9573
 1.6090	77.9091
 1.6080	77.8359
 1.6070	77.9732
 1.6060	77.9539
 1.6050	77.9104
 1.6040	77.9378
 1.6030	77.8797
 1.6020	77.8978
 1.6010	77.8140
 1.6000	77.8586
 1.5990	77.8801
 1.5980	77.8090
 1.5970	77.8935
 1.5960	77.8511
 1.5950	77.7830
 1.5940	77.8423
 1.5930	77.7885
 1.5920	77.7692
 1.5910	77.7253
 1.5900	77.7967
 1.5890	77.7328
 1.5880	77.7168
 1.5870	77.7068
 1.5860	77.7547
 1.5850	77.6829
 1.5840	77.6551
 1.5830	77.5955
 1.5820	77.6899
 1.5810	77.6413
 1.5800	77.7013
 1.5790	77.6017
 1.5780	77.6222
 1.5770	77.6216
 1.5760	77.6059
 1.5750	77.5674
 1.5740	77.5813
 1.5730	77.5340
 1.5720	77.5370
 1.5710	77.5320
 1.5700	77.5254
 1.5690	77.4796
 1.5680	77.4338
 1.5670	77.4342
 1.5660	77.4949
 1.5650	77.5061
 1.5640	77.4548
 1.5630	77.4530
 1.5620	77.4204
 1.5610	77.4341
 1.5600	77.4184
 1.5590	77.3599
 1.5580	77.3415
 1.5570	77.3418
 1.5560	77.3208
 1.5550	77.3984
 1.5540	77.3926
 1.5530	77.2584
 1.5520	77.3003
 1.5510	77.2767
 1.5500	77.2451
 1.5490	77.2656
 1.5480	77.2359
 1.5470	77.2209
 1.5460	77.2100
 1.5450	77.1836
 1.5440	77.1722
 1.5430	77.1935
 1.5420	77.1602
 1.5410	77.1542
 1.5400	77.1329
 1.5390	77.0877
 1.5380	77.0904
 1.5370	77.1332
 1.5360	77.0872
 1.5350	76.9669
 1.5340	76.9432
 1.5330	76.9405
 1.5320	76.9664
 1.5310	77.0284
 1.5300	76.9444
 1.5290	76.9496
 1.5280	77.0101
 1.5270	76.9545
 1.5260	76.8712
 1.5250	76.9078
 1.5240	76.9189
 1.5230	76.8180
 1.5220	76.8283
 1.5210	76.8129
 1.5200	76.8102
 1.5190	76.8005
 1.5180	76.7276
 1.5170	76.6867
 1.5160	76.7187
 1.5150	76.7009
 1.5140	76.6880
 1.5130	76.6304
 1.5120	76.6191
 1.5110	76.5894
 1.5100	76.5501
 1.5090	76.5200
 1.5080	76.4651
 1.5070	76.4700
 1.5060	76.4710
 1.5050	76.4434
 1.5040	76.4024
 1.5030	76.4229
 1.5020	76.4230
 1.5010	76.3726
 1.5000	76.3393
 1.4990	76.3527
 1.4980	76.3457
 1.4970	76.2967
 1.4960	76.2436
 1.4950	76.2123
 1.4940	76.2259
 1.4930	76.2032
 1.4920	76.1990
 1.4910	76.1826
 1.4900	76.1095
 1.4890	76.1385
 1.4880	76.1067
 1.4870	76.0515
 1.4860	75.9661
 1.4850	75.9773
 1.4840	76.0121
 1.4830	75.9519
 1.4820	75.9245
 1.4810	75.8683
 1.4800	75.8774
 1.4790	75.9192
 1.4780	75.8652
 1.4770	75.8328
 1.4760	75.8164
 1.4750	75.7757
 1.4740	75.7387
 1.4730	75.6818
 1.4720	75.6792
 1.4710	75.6736
 1.4700	75.6304
 1.4690	75.6078
 1.4680	75.5608
 1.4670	75.5293
 1.4660	75.4877
 1.4650	75.4810
 1.4640	75.3859
 1.4630	75.3209
 1.4620	75.3293
 1.4610	75.2516
 1.4600	75.1665
 1.4590	75.1293
 1.4580	75.0813
 1.4570	75.0365
 1.4560	74.9282
 1.4550	74.9001
 1.4540	74.8481
 1.4530	74.7740
 1.4520	74.6594
 1.4510	74.5763
 1.4500	74.4887
 1.4490	74.3560
 1.4480	74.3605
 1.4470	74.3252
 1.4460	74.1667
 1.4450	74.0196
 1.4440	73.9666
 1.4430	73.8833
 1.4420	73.6614
 1.4410	73.5003
 1.4400	73.3470
 1.4390	73.1869
 1.4380	72.8455
 1.4370	72.6365
 1.4360	72.4230
 1.4350	72.1101
 1.4340	71.8389
 1.4330	71.4765
 1.4320	71.0005
 1.4310	70.4874
 1.4300	69.8852
 1.4290	69.2202
 1.4280	68.3955
 1.4270	67.5360
 1.4260	66.4210
 1.4250	65.0452
 1.4240	63.5004
 1.4230	61.5931
 1.4220	59.6414
 1.4210	57.3874
 1.4200	54.8364
 1.4190	52.2188
 1.4180	49.6630
 1.4170	47.2344
 1.4160	44.9588
 1.4150	42.8874
 1.4140	41.0061
 1.4130	39.9677
 1.4120	39.3857
 1.4110	39.2442
 1.4100	39.4471
 1.4090	39.9149
 1.4080	40.3307
 1.4070	40.7953
 1.4060	41.0820
 1.4050	41.4996
 1.4040	41.8607
 1.4030	42.3790
 1.4020	42.8797
 1.4010	43.7303
 1.4000	44.8424
 1.3990	46.1750
 1.3980	47.7861
 1.3970	49.6358
 1.3960	51.7190
 1.3950	53.9096
 1.3940	56.0368
 1.3930	57.9244
 1.3920	59.4586
 1.3910	60.6902
 1.3900	61.5044
 1.3890	62.0845
 1.3880	62.2543
 1.3870	62.4017
 1.3860	62.4412
 1.3850	62.7101
 1.3840	63.2134
 1.3830	64.0982
 1.3820	65.2723
 1.3810	66.5222
 1.3800	67.7370
 1.3790	68.8510
 1.3780	69.6530
 1.3770	70.3127
 1.3760	70.7824
 1.3750	71.0620
 1.3740	71.1721
 1.3730	71.4099
 1.3720	71.5722
 1.3710	71.7122
 1.3700	71.7905
 1.3690	72.0216
 1.3680	72.0841
 1.3670	72.3029
 1.3660	72.3832
 1.3650	72.5638
