Name: Malachite Cu_2(CO_3)(OH)_2
Type: Mineral
Class: Carbonate
Subclass: None
Particle Size: Coarse
Sample No.: C-7A
Owner: JPL
Wavelength Range: VSWIR
Origin: USA, California, San Bernadino County, Near Valley Wells.
Collection Date: N/A
Description: Particle size was 125-500um.Collected by:  Burminco Original ASTER Spectral Library name was jpl.perkin.mineral.carbonate.none.coarse.c07a.spectrum.txt
Measurement: Hemispherical reflectance
First Column: X
Second Column: Y
X Units: Wavelength (micrometers)
Y Units:Reflectance (percent)
First X Value:  2.5000
Last X Value:  0.4000
Number of X Values: 2101
Additional Information: mineral.carbonate.none.coarse.vswir.c-7a.jpl.perkin.ancillary.txt

 2.5000	12.7458
 2.4990	12.2290
 2.4980	12.7525
 2.4970	12.8516
 2.4960	12.3485
 2.4950	12.8031
 2.4940	12.7082
 2.4930	12.5963
 2.4920	12.9143
 2.4910	12.7260
 2.4900	12.8581
 2.4890	12.6444
 2.4880	12.9238
 2.4870	12.6685
 2.4860	13.0348
 2.4850	12.7676
 2.4840	13.0121
 2.4830	12.7779
 2.4820	13.0835
 2.4810	12.7549
 2.4800	13.1852
 2.4790	12.9160
 2.4780	13.1977
 2.4770	12.9473
 2.4760	13.1378
 2.4750	13.1164
 2.4740	13.2029
 2.4730	13.0101
 2.4720	13.2430
 2.4710	13.0855
 2.4700	13.3155
 2.4690	13.2632
 2.4680	13.3843
 2.4670	13.1659
 2.4660	13.4026
 2.4650	13.3772
 2.4640	13.4801
 2.4630	13.4044
 2.4620	13.4561
 2.4610	13.2859
 2.4600	13.4681
 2.4590	13.4218
 2.4580	13.5518
 2.4570	13.4259
 2.4560	13.5931
 2.4550	13.4200
 2.4540	13.5086
 2.4530	13.4536
 2.4520	13.5150
 2.4510	13.4616
 2.4500	13.5297
 2.4490	13.4484
 2.4480	13.6632
 2.4470	13.4284
 2.4460	13.5425
 2.4450	13.4883
 2.4440	13.6265
 2.4430	13.4449
 2.4420	13.6144
 2.4410	13.5339
 2.4400	13.5984
 2.4390	13.4519
 2.4380	13.5799
 2.4370	13.5412
 2.4360	13.6120
 2.4350	13.5485
 2.4340	13.5343
 2.4330	13.5455
 2.4320	13.6663
 2.4310	13.5488
 2.4300	13.7215
 2.4290	13.5382
 2.4280	13.6492
 2.4270	13.6027
 2.4260	13.6860
 2.4250	13.6449
 2.4240	13.7374
 2.4230	13.5948
 2.4220	13.7036
 2.4210	13.7918
 2.4200	13.7586
 2.4190	13.6676
 2.4180	13.8159
 2.4170	13.7279
 2.4160	13.8613
 2.4150	13.7546
 2.4140	13.8803
 2.4130	13.8258
 2.4120	13.9186
 2.4110	13.8778
 2.4100	13.9133
 2.4090	13.8945
 2.4080	13.9698
 2.4070	13.9634
 2.4060	14.0023
 2.4050	13.9890
 2.4040	14.1347
 2.4030	14.0871
 2.4020	14.0876
 2.4010	14.1052
 2.4000	14.2188
 2.3990	14.1969
 2.3980	14.2455
 2.3970	14.2958
 2.3960	14.3911
 2.3950	14.4983
 2.3940	14.5319
 2.3930	14.5469
 2.3920	14.6441
 2.3910	14.6564
 2.3900	14.7468
 2.3890	14.7825
 2.3880	14.8729
 2.3870	14.8304
 2.3860	14.9240
 2.3850	14.9716
 2.3840	15.0795
 2.3830	15.0724
 2.3820	15.0849
 2.3810	15.1475
 2.3800	15.2868
 2.3790	15.3570
 2.3780	15.4334
 2.3770	15.4351
 2.3760	15.4959
 2.3750	15.5703
 2.3740	15.6373
 2.3730	15.6316
 2.3720	15.6997
 2.3710	15.7081
 2.3700	15.7291
 2.3690	15.7830
 2.3680	15.8162
 2.3670	15.8577
 2.3660	15.9101
 2.3650	15.9380
 2.3640	15.9783
 2.3630	16.0253
 2.3620	16.0507
 2.3610	16.0651
 2.3600	16.1058
 2.3590	16.0885
 2.3580	16.1064
 2.3570	16.1636
 2.3560	16.2246
 2.3550	16.2924
 2.3540	16.4091
 2.3530	16.5131
 2.3520	16.5654
 2.3510	16.6871
 2.3500	16.8019
 2.3490	16.9772
 2.3480	17.0840
 2.3470	17.1579
 2.3460	17.3149
 2.3450	17.4301
 2.3440	17.5744
 2.3430	17.7228
 2.3420	17.9378
 2.3410	18.1226
 2.3400	18.2624
 2.3390	18.4388
 2.3380	18.5703
 2.3370	18.7797
 2.3360	18.8759
 2.3350	19.0817
 2.3340	19.1948
 2.3330	19.3219
 2.3320	19.5074
 2.3310	19.6541
 2.3300	19.7461
 2.3290	19.8837
 2.3280	20.0339
 2.3270	20.1411
 2.3260	20.1602
 2.3250	20.2703
 2.3240	20.3651
 2.3230	20.4144
 2.3220	20.4118
 2.3210	20.5097
 2.3200	20.5548
 2.3190	20.5675
 2.3180	20.6149
 2.3170	20.6684
 2.3160	20.5994
 2.3150	20.6752
 2.3140	20.6109
 2.3130	20.6293
 2.3120	20.5842
 2.3110	20.5345
 2.3100	20.4852
 2.3090	20.4968
 2.3080	20.4142
 2.3070	20.4123
 2.3060	20.2644
 2.3050	20.2309
 2.3040	20.1564
 2.3030	20.0801
 2.3020	19.9120
 2.3010	19.8755
 2.3000	19.7365
 2.2990	19.6607
 2.2980	19.5168
 2.2970	19.4028
 2.2960	19.2760
 2.2950	19.2272
 2.2940	19.0606
 2.2930	18.9969
 2.2920	18.7880
 2.2910	18.6616
 2.2900	18.5172
 2.2890	18.5006
 2.2880	18.2956
 2.2870	18.2069
 2.2860	18.0299
 2.2850	17.9344
 2.2840	17.7442
 2.2830	17.6816
 2.2820	17.5023
 2.2810	17.4730
 2.2800	17.2240
 2.2790	17.2246
 2.2780	17.0938
 2.2770	16.9562
 2.2760	16.8957
 2.2750	16.8552
 2.2740	16.7121
 2.2730	16.7249
 2.2720	16.6147
 2.2710	16.5904
 2.2700	16.5138
 2.2690	16.6372
 2.2680	16.5543
 2.2670	16.5672
 2.2660	16.5640
 2.2650	16.7318
 2.2640	16.7439
 2.2630	16.9034
 2.2620	16.9225
 2.2610	17.0623
 2.2600	17.1247
 2.2590	17.3305
 2.2580	17.3718
 2.2570	17.6073
 2.2560	17.7968
 2.2550	18.0233
 2.2540	18.1416
 2.2530	18.3708
 2.2520	18.4474
 2.2510	18.7244
 2.2500	18.8800
 2.2490	19.1584
 2.2480	19.2481
 2.2470	19.5209
 2.2460	19.6812
 2.2450	19.8651
 2.2440	20.0291
 2.2430	20.2411
 2.2420	20.4218
 2.2410	20.6759
 2.2400	20.7838
 2.2390	21.0050
 2.2380	21.1598
 2.2370	21.3762
 2.2360	21.4172
 2.2350	21.6382
 2.2340	21.7729
 2.2330	21.9650
 2.2320	21.9653
 2.2310	22.1911
 2.2300	22.1783
 2.2290	22.3843
 2.2280	22.4705
 2.2270	22.7056
 2.2260	22.6357
 2.2250	22.7342
 2.2240	22.7734
 2.2230	22.8923
 2.2220	22.8059
 2.2210	22.9683
 2.2200	23.0005
 2.2190	23.1071
 2.2180	23.0976
 2.2170	23.3475
 2.2160	23.1933
 2.2150	23.3678
 2.2140	23.3868
 2.2130	23.6588
 2.2120	23.6916
 2.2110	23.7502
 2.2100	24.0428
 2.2090	24.1549
 2.2080	24.3002
 2.2070	24.4847
 2.2060	24.6924
 2.2050	24.9436
 2.2040	25.0236
 2.2030	25.2990
 2.2020	25.5203
 2.2010	25.7920
 2.2000	25.8716
 2.1990	26.0967
 2.1980	26.2003
 2.1970	26.6154
 2.1960	26.6075
 2.1950	26.9291
 2.1940	27.0234
 2.1930	27.3117
 2.1920	27.4265
 2.1910	27.5867
 2.1900	27.8181
 2.1890	27.9391
 2.1880	28.0112
 2.1870	28.1971
 2.1860	28.3245
 2.1850	28.5418
 2.1840	28.6045
 2.1830	28.7752
 2.1820	28.8912
 2.1810	28.9981
 2.1800	29.0491
 2.1790	29.1908
 2.1780	29.2786
 2.1770	29.4216
 2.1760	29.4516
 2.1750	29.5966
 2.1740	29.6388
 2.1730	29.7179
 2.1720	29.7414
 2.1710	29.8592
 2.1700	29.9372
 2.1690	30.0738
 2.1680	30.1287
 2.1670	30.2020
 2.1660	30.1837
 2.1650	30.3444
 2.1640	30.3125
 2.1630	30.4662
 2.1620	30.5239
 2.1610	30.5934
 2.1600	30.6594
 2.1590	30.7242
 2.1580	30.7163
 2.1570	30.8576
 2.1560	30.8285
 2.1550	30.9554
 2.1540	30.9463
 2.1530	31.0222
 2.1520	31.0202
 2.1510	31.0975
 2.1500	31.1105
 2.1490	31.1744
 2.1480	31.1707
 2.1470	31.2007
 2.1460	31.1399
 2.1450	31.1967
 2.1440	31.2046
 2.1430	31.2703
 2.1420	31.2017
 2.1410	31.2388
 2.1400	31.2253
 2.1390	31.2141
 2.1380	31.2289
 2.1370	31.2009
 2.1360	31.1580
 2.1350	31.1692
 2.1340	31.1020
 2.1330	31.0954
 2.1320	31.0521
 2.1310	31.0227
 2.1300	30.9299
 2.1290	30.8883
 2.1280	30.8841
 2.1270	30.8430
 2.1260	30.7629
 2.1250	30.7360
 2.1240	30.6431
 2.1230	30.5950
 2.1220	30.4747
 2.1210	30.4138
 2.1200	30.3035
 2.1190	30.3293
 2.1180	30.2412
 2.1170	30.1623
 2.1160	30.0255
 2.1150	30.0216
 2.1140	29.9162
 2.1130	29.8633
 2.1120	29.8152
 2.1110	29.7509
 2.1100	29.6342
 2.1090	29.5612
 2.1080	29.4681
 2.1070	29.4355
 2.1060	29.3654
 2.1050	29.3707
 2.1040	29.2790
 2.1030	29.1858
 2.1020	29.1277
 2.1010	29.1281
 2.1000	29.0473
 2.0990	29.0374
 2.0980	28.9726
 2.0970	28.9312
 2.0960	28.9074
 2.0950	28.8713
 2.0940	28.8464
 2.0930	28.8116
 2.0920	28.7489
 2.0910	28.7066
 2.0900	28.6317
 2.0890	28.5852
 2.0880	28.5677
 2.0870	28.5358
 2.0860	28.4652
 2.0850	28.4020
 2.0840	28.3343
 2.0830	28.3336
 2.0820	28.2854
 2.0810	28.2069
 2.0800	28.1126
 2.0790	28.0364
 2.0780	27.9751
 2.0770	27.9069
 2.0760	27.7971
 2.0750	27.7300
 2.0740	27.7085
 2.0730	27.6832
 2.0720	27.6119
 2.0710	27.5003
 2.0700	27.4351
 2.0690	27.3766
 2.0680	27.2882
 2.0670	27.2431
 2.0660	27.1596
 2.0650	27.0700
 2.0640	27.0158
 2.0630	26.9800
 2.0620	26.9271
 2.0610	26.8073
 2.0600	26.7476
 2.0590	26.6501
 2.0580	26.6075
 2.0570	26.5454
 2.0560	26.4291
 2.0550	26.3846
 2.0540	26.3304
 2.0530	26.2044
 2.0520	26.1399
 2.0510	26.0650
 2.0500	26.0209
 2.0490	25.9114
 2.0480	25.8840
 2.0470	25.7924
 2.0460	25.6875
 2.0450	25.6158
 2.0440	25.5466
 2.0430	25.3899
 2.0420	25.2835
 2.0410	25.2154
 2.0400	25.1466
 2.0390	25.0201
 2.0380	24.9263
 2.0370	24.8212
 2.0360	24.7180
 2.0350	24.6295
 2.0340	24.5769
 2.0330	24.4307
 2.0320	24.3013
 2.0310	24.1737
 2.0300	24.0999
 2.0290	23.9434
 2.0280	23.8737
 2.0270	23.8067
 2.0260	23.7126
 2.0250	23.6246
 2.0240	23.5653
 2.0230	23.4175
 2.0220	23.3154
 2.0210	23.1748
 2.0200	23.1010
 2.0190	22.9830
 2.0180	22.9296
 2.0170	22.8681
 2.0160	22.7648
 2.0150	22.6365
 2.0140	22.5422
 2.0130	22.4676
 2.0120	22.4233
 2.0110	22.3158
 2.0100	22.2106
 2.0090	22.0579
 2.0080	22.0214
 2.0070	21.9063
 2.0060	21.8088
 2.0050	21.6687
 2.0040	21.5994
 2.0030	21.4369
 2.0020	21.4193
 2.0010	21.3213
 2.0000	21.2051
 1.9990	21.0295
 1.9980	20.9915
 1.9970	20.8099
 1.9960	20.7150
 1.9950	20.6240
 1.9940	20.5402
 1.9930	20.3236
 1.9920	20.3164
 1.9910	20.1572
 1.9900	20.0858
 1.9890	19.9020
 1.9880	19.9288
 1.9870	19.7034
 1.9860	19.6907
 1.9850	19.5312
 1.9840	19.4459
 1.9830	19.3463
 1.9820	19.2691
 1.9810	19.0740
 1.9800	18.9976
 1.9790	18.9182
 1.9780	18.8436
 1.9770	18.6179
 1.9760	18.6056
 1.9750	18.4338
 1.9740	18.3708
 1.9730	18.2682
 1.9720	18.2389
 1.9710	18.0626
 1.9700	18.0510
 1.9690	17.9089
 1.9680	17.7944
 1.9670	17.6948
 1.9660	17.6833
 1.9650	17.4397
 1.9640	17.4513
 1.9630	17.2850
 1.9620	17.3529
 1.9610	17.1030
 1.9600	17.1468
 1.9590	16.9953
 1.9580	16.9830
 1.9570	16.8035
 1.9560	16.8424
 1.9550	16.6282
 1.9540	16.6607
 1.9530	16.4522
 1.9520	16.5566
 1.9510	16.3825
 1.9500	16.3153
 1.9490	16.1346
 1.9480	16.1285
 1.9470	16.0318
 1.9460	16.0395
 1.9450	15.9421
 1.9440	15.8997
 1.9430	15.7872
 1.9420	15.8609
 1.9410	15.6626
 1.9400	15.6615
 1.9390	15.5405
 1.9380	15.5980
 1.9370	15.3451
 1.9360	15.3920
 1.9350	15.2861
 1.9340	15.2592
 1.9330	15.1256
 1.9320	15.1518
 1.9310	15.0062
 1.9300	15.0916
 1.9290	14.9384
 1.9280	14.9367
 1.9270	14.8480
 1.9260	14.7639
 1.9250	14.7217
 1.9240	14.6697
 1.9230	14.5702
 1.9220	14.5724
 1.9210	14.4135
 1.9200	14.5216
 1.9190	14.3985
 1.9180	14.4162
 1.9170	14.3303
 1.9160	14.3745
 1.9150	14.2723
 1.9140	14.3931
 1.9130	14.2817
 1.9120	14.4216
 1.9110	14.3682
 1.9100	14.5327
 1.9090	14.4792
 1.9080	14.7047
 1.9070	14.7294
 1.9060	14.9094
 1.9050	15.0107
 1.9040	15.3389
 1.9030	15.5640
 1.9020	15.9314
 1.9010	16.1330
 1.9000	16.5476
 1.8990	16.8434
 1.8980	17.3160
 1.8970	17.5468
 1.8960	18.0905
 1.8950	18.4704
 1.8940	18.9882
 1.8930	19.3807
 1.8920	19.8983
 1.8910	20.3440
 1.8900	20.9029
 1.8890	21.3650
 1.8880	21.9193
 1.8870	22.2878
 1.8860	22.8337
 1.8850	23.2635
 1.8840	23.7406
 1.8830	24.0762
 1.8820	24.6022
 1.8810	24.9752
 1.8800	25.3612
 1.8790	25.7911
 1.8780	26.2671
 1.8770	26.5983
 1.8760	26.9732
 1.8750	27.2274
 1.8740	27.6828
 1.8730	28.0751
 1.8720	28.4806
 1.8710	28.7808
 1.8700	29.1454
 1.8690	29.4497
 1.8680	29.7085
 1.8670	29.9200
 1.8660	30.1477
 1.8650	30.3492
 1.8640	30.5485
 1.8630	30.5544
 1.8620	30.7767
 1.8610	30.8330
 1.8600	30.9918
 1.8590	31.0049
 1.8580	31.0926
 1.8570	31.0974
 1.8560	31.1634
 1.8550	31.2832
 1.8540	31.3396
 1.8530	31.2570
 1.8520	31.3211
 1.8510	31.2974
 1.8500	31.3705
 1.8490	31.3239
 1.8480	31.3786
 1.8470	31.3380
 1.8460	31.3977
 1.8450	31.4251
 1.8440	31.4765
 1.8430	31.4136
 1.8420	31.4563
 1.8410	31.4475
 1.8400	31.3842
 1.8390	31.3513
 1.8380	31.4315
 1.8370	31.4030
 1.8360	31.3834
 1.8350	31.3243
 1.8340	31.3863
 1.8330	31.3705
 1.8320	31.3484
 1.8310	31.3043
 1.8300	31.3846
 1.8290	31.3328
 1.8280	31.2983
 1.8270	31.1829
 1.8260	31.2285
 1.8250	31.2036
 1.8240	31.1740
 1.8230	31.1449
 1.8220	31.1818
 1.8210	31.1002
 1.8200	31.0261
 1.8190	30.9490
 1.8180	30.9657
 1.8170	30.9087
 1.8160	30.8500
 1.8150	30.8153
 1.8140	30.8637
 1.8130	30.7690
 1.8120	30.6948
 1.8110	30.6317
 1.8100	30.6324
 1.8090	30.6121
 1.8080	30.5879
 1.8070	30.5369
 1.8060	30.5487
 1.8050	30.4572
 1.8040	30.3844
 1.8030	30.3535
 1.8020	30.3012
 1.8010	30.2442
 1.8000	30.2184
 1.7990	30.1345
 1.7980	30.0981
 1.7970	30.0434
 1.7960	30.0256
 1.7950	30.0233
 1.7940	29.9575
 1.7930	29.8701
 1.7920	29.8353
 1.7910	29.8231
 1.7900	29.7359
 1.7890	29.7161
 1.7880	29.7258
 1.7870	29.6128
 1.7860	29.5263
 1.7850	29.4742
 1.7840	29.4741
 1.7830	29.4239
 1.7820	29.3818
 1.7810	29.3604
 1.7800	29.3077
 1.7790	29.2984
 1.7780	29.2668
 1.7770	29.2142
 1.7760	29.1549
 1.7750	29.1513
 1.7740	29.1502
 1.7730	29.0744
 1.7720	29.0060
 1.7710	28.9698
 1.7700	28.9286
 1.7690	28.9720
 1.7680	28.8691
 1.7670	28.7812
 1.7660	28.7577
 1.7650	28.7926
 1.7640	28.7795
 1.7630	28.7547
 1.7620	28.6834
 1.7610	28.6645
 1.7600	28.6313
 1.7590	28.5944
 1.7580	28.5235
 1.7570	28.4825
 1.7560	28.4558
 1.7550	28.4075
 1.7540	28.3661
 1.7530	28.3321
 1.7520	28.2924
 1.7510	28.2883
 1.7500	28.2085
 1.7490	28.2213
 1.7480	28.1556
 1.7470	28.1078
 1.7460	28.1080
 1.7450	28.0663
 1.7440	27.9860
 1.7430	28.0101
 1.7420	27.9312
 1.7410	27.9202
 1.7400	27.8380
 1.7390	27.8030
 1.7380	27.7284
 1.7370	27.7607
 1.7360	27.6958
 1.7350	27.5863
 1.7340	27.4849
 1.7330	27.6031
 1.7320	27.5117
 1.7310	27.4855
 1.7300	27.4161
 1.7290	27.3802
 1.7280	27.3116
 1.7270	27.2766
 1.7260	27.2282
 1.7250	27.2322
 1.7240	27.1080
 1.7230	27.0966
 1.7220	27.0058
 1.7210	27.0291
 1.7200	26.9359
 1.7190	26.9655
 1.7180	26.8588
 1.7170	26.7742
 1.7160	26.7272
 1.7150	26.7425
 1.7140	26.6317
 1.7130	26.5452
 1.7120	26.5263
 1.7110	26.5170
 1.7100	26.4677
 1.7090	26.4132
 1.7080	26.3823
 1.7070	26.3099
 1.7060	26.2295
 1.7050	26.2883
 1.7040	26.1519
 1.7030	26.1782
 1.7020	26.0619
 1.7010	26.0659
 1.7000	25.9722
 1.6990	25.9964
 1.6980	25.8469
 1.6970	25.8205
 1.6960	25.7094
 1.6950	25.7456
 1.6940	25.6646
 1.6930	25.6757
 1.6920	25.6321
 1.6910	25.6162
 1.6900	25.4624
 1.6890	25.4925
 1.6880	25.3571
 1.6870	25.3014
 1.6860	25.2614
 1.6850	25.2266
 1.6840	25.1345
 1.6830	25.1400
 1.6820	25.0776
 1.6810	25.0112
 1.6800	24.9266
 1.6790	25.0080
 1.6780	24.8225
 1.6770	24.8770
 1.6760	24.7805
 1.6750	24.7553
 1.6740	24.6222
 1.6730	24.6129
 1.6720	24.5587
 1.6710	24.6072
 1.6700	24.4448
 1.6690	24.5288
 1.6680	24.2439
 1.6670	24.4201
 1.6660	24.2410
 1.6650	24.2132
 1.6640	24.1775
 1.6630	24.1046
 1.6620	23.9865
 1.6610	24.0239
 1.6600	23.8378
 1.6590	23.8944
 1.6580	23.6926
 1.6570	23.8208
 1.6560	23.6498
 1.6550	23.7129
 1.6540	23.5388
 1.6530	23.5794
 1.6520	23.4350
 1.6510	23.4989
 1.6500	23.2817
 1.6490	23.3902
 1.6480	23.2896
 1.6470	23.2045
 1.6460	23.0870
 1.6450	23.1204
 1.6440	22.9379
 1.6430	23.0472
 1.6420	22.9696
 1.6410	22.7685
 1.6400	22.8038
 1.6390	22.8463
 1.6380	22.6818
 1.6370	22.6619
 1.6360	22.6160
 1.6350	22.5503
 1.6340	22.4103
 1.6330	22.5233
 1.6320	22.3468
 1.6310	22.3895
 1.6300	22.2925
 1.6290	22.2418
 1.6280	22.0996
 1.6270	22.1325
 1.6260	21.9846
 1.6250	22.0321
 1.6240	21.9302
 1.6230	21.9568
 1.6220	21.7867
 1.6210	21.8522
 1.6200	21.7108
 1.6190	21.7777
 1.6180	21.5972
 1.6170	21.6012
 1.6160	21.4897
 1.6150	21.4593
 1.6140	21.3559
 1.6130	21.3445
 1.6120	21.2655
 1.6110	21.2618
 1.6100	21.0519
 1.6090	21.1460
 1.6080	21.0567
 1.6070	21.0461
 1.6060	20.9350
 1.6050	20.9302
 1.6040	20.8777
 1.6030	20.8860
 1.6020	20.7607
 1.6010	20.7016
 1.6000	20.6432
 1.5990	20.5928
 1.5980	20.4646
 1.5970	20.5540
 1.5960	20.3938
 1.5950	20.4145
 1.5940	20.3161
 1.5930	20.2951
 1.5920	20.2081
 1.5910	20.1937
 1.5900	20.1215
 1.5890	20.1407
 1.5880	20.0232
 1.5870	19.9695
 1.5860	19.8580
 1.5850	19.9193
 1.5840	19.7735
 1.5830	19.7891
 1.5820	19.7130
 1.5810	19.7164
 1.5800	19.5641
 1.5790	19.5839
 1.5780	19.5502
 1.5770	19.4954
 1.5760	19.3983
 1.5750	19.3622
 1.5740	19.3299
 1.5730	19.2842
 1.5720	19.1890
 1.5710	19.2443
 1.5700	19.1014
 1.5690	19.1013
 1.5680	19.0333
 1.5670	19.0674
 1.5660	18.9877
 1.5650	18.9237
 1.5640	18.8567
 1.5630	18.8866
 1.5620	18.7032
 1.5610	18.6479
 1.5600	18.6185
 1.5590	18.5964
 1.5580	18.5099
 1.5570	18.4472
 1.5560	18.3287
 1.5550	18.3285
 1.5540	18.2855
 1.5530	18.3091
 1.5520	18.1637
 1.5510	18.1687
 1.5500	18.0681
 1.5490	18.0684
 1.5480	18.0111
 1.5470	17.9195
 1.5460	17.8551
 1.5450	17.8637
 1.5440	17.7712
 1.5430	17.7710
 1.5420	17.6345
 1.5410	17.6552
 1.5400	17.5872
 1.5390	17.5809
 1.5380	17.4915
 1.5370	17.5142
 1.5360	17.4000
 1.5350	17.3568
 1.5340	17.3089
 1.5330	17.3096
 1.5320	17.2349
 1.5310	17.1993
 1.5300	17.0900
 1.5290	17.0787
 1.5280	16.9998
 1.5270	16.9577
 1.5260	16.9433
 1.5250	16.8887
 1.5240	16.8053
 1.5230	16.8523
 1.5220	16.7923
 1.5210	16.7179
 1.5200	16.6377
 1.5190	16.6045
 1.5180	16.5673
 1.5170	16.5355
 1.5160	16.4614
 1.5150	16.3871
 1.5140	16.3519
 1.5130	16.3499
 1.5120	16.2922
 1.5110	16.2149
 1.5100	16.1589
 1.5090	16.1362
 1.5080	16.0583
 1.5070	15.9850
 1.5060	15.9408
 1.5050	15.8653
 1.5040	15.8222
 1.5030	15.8360
 1.5020	15.7980
 1.5010	15.7064
 1.5000	15.6261
 1.4990	15.5948
 1.4980	15.5660
 1.4970	15.5172
 1.4960	15.5068
 1.4950	15.4297
 1.4940	15.3601
 1.4930	15.3601
 1.4920	15.3068
 1.4910	15.2172
 1.4900	15.1736
 1.4890	15.0680
 1.4880	15.0491
 1.4870	15.0206
 1.4860	14.9612
 1.4850	14.9051
 1.4840	14.8812
 1.4830	14.8092
 1.4820	14.7924
 1.4810	14.7321
 1.4800	14.6792
 1.4790	14.6130
 1.4780	14.5656
 1.4770	14.4911
 1.4760	14.4322
 1.4750	14.3950
 1.4740	14.3511
 1.4730	14.3027
 1.4720	14.2582
 1.4710	14.2008
 1.4700	14.1365
 1.4690	13.9975
 1.4680	14.0320
 1.4670	14.0197
 1.4660	13.9775
 1.4650	13.9279
 1.4640	13.8891
 1.4630	13.8185
 1.4620	13.8736
 1.4610	13.7616
 1.4600	13.7664
 1.4590	13.7421
 1.4580	13.7089
 1.4570	13.6634
 1.4560	13.6958
 1.4550	13.6000
 1.4540	13.6572
 1.4530	13.5623
 1.4520	13.5931
 1.4510	13.4137
 1.4500	13.4400
 1.4490	13.3575
 1.4480	13.4527
 1.4470	13.3792
 1.4460	13.3917
 1.4450	13.2948
 1.4440	13.3061
 1.4430	13.2276
 1.4420	13.2194
 1.4410	13.1379
 1.4400	13.1587
 1.4390	13.0956
 1.4380	13.1579
 1.4370	13.0201
 1.4360	12.9513
 1.4350	12.9308
 1.4340	12.9689
 1.4330	12.9326
 1.4320	12.9288
 1.4310	12.8189
 1.4300	12.7976
 1.4290	12.7076
 1.4280	12.7624
 1.4270	12.6648
 1.4260	12.6612
 1.4250	12.5675
 1.4240	12.5614
 1.4230	12.5223
 1.4220	12.5469
 1.4210	12.4291
 1.4200	12.3906
 1.4190	12.2385
 1.4180	12.2088
 1.4170	12.1023
 1.4160	12.1990
 1.4150	12.1097
 1.4140	12.0780
 1.4130	12.0448
 1.4120	12.1031
 1.4110	12.0829
 1.4100	12.2372
 1.4090	12.1843
 1.4080	12.3367
 1.4070	12.2749
 1.4060	12.4254
 1.4050	12.4878
 1.4040	12.6607
 1.4030	12.6240
 1.4020	12.8108
 1.4010	12.7290
 1.4000	12.8792
 1.3990	12.9271
 1.3980	12.9524
 1.3970	13.0692
 1.3960	13.1028
 1.3950	13.1496
 1.3940	13.2694
 1.3930	13.1647
 1.3920	13.3336
 1.3910	13.2753
 1.3900	13.3597
 1.3890	13.3298
 1.3880	13.4396
 1.3870	13.3369
 1.3860	13.4350
 1.3850	13.4128
 1.3840	13.4761
 1.3830	13.4118
 1.3820	13.4097
 1.3810	13.3679
 1.3800	13.4870
 1.3790	13.3879
 1.3780	13.5300
 1.3770	13.4354
 1.3760	13.5957
 1.3750	13.4197
 1.3740	13.5083
 1.3730	13.4106
 1.3720	13.5107
 1.3710	13.4053
 1.3700	13.5153
 1.3690	13.3697
 1.3680	13.5253
