Name: Lepidolite K(Li,Al)3(Si,Al)_4O_10(F,OH)_2
Type: Mineral
Class: Silicate
Subclass: Phyllosilicate
Particle Size: Coarse
Sample No.: PS-13A
Owner: JPL
Wavelength Range: VSWIR
Origin: USA, South Dakota.
Collection Date: N/A
Description: Yellow lepidolite.Particle size was 125-500um.Collected by:  Ward's Original ASTER Spectral Library name was jpl.perkin.mineral.silicate.phyllosilicate.coarse.ps13a.spectrum.txt
Measurement: Hemispherical reflectance
First Column: X
Second Column: Y
X Units: Wavelength (micrometers)
Y Units:Reflectance (percent)
First X Value:  2.5000
Last X Value:  0.4000
Number of X Values: 2101
Additional Information: mineral.silicate.phyllosilicate.coarse.vswir.ps-13a.jpl.perkin.ancillary.txt

 2.5000	25.9195
 2.4990	25.5886
 2.4980	25.5022
 2.4970	25.5680
 2.4960	25.0078
 2.4950	25.2892
 2.4940	24.8230
 2.4930	24.9361
 2.4920	24.5983
 2.4910	24.8244
 2.4900	24.3681
 2.4890	24.3574
 2.4880	24.2845
 2.4870	24.3467
 2.4860	24.1685
 2.4850	24.2627
 2.4840	24.0960
 2.4830	24.1041
 2.4820	23.7383
 2.4810	23.8322
 2.4800	23.7395
 2.4790	23.6128
 2.4780	23.5065
 2.4770	23.5630
 2.4760	23.3221
 2.4750	23.4206
 2.4740	23.2248
 2.4730	23.3627
 2.4720	22.9954
 2.4710	23.1307
 2.4700	22.8991
 2.4690	22.8462
 2.4680	22.6428
 2.4670	22.7143
 2.4660	22.4463
 2.4650	22.5233
 2.4640	22.3502
 2.4630	22.2080
 2.4620	22.0142
 2.4610	22.0537
 2.4600	21.7862
 2.4590	21.8109
 2.4580	21.6051
 2.4570	21.6108
 2.4560	21.3836
 2.4550	21.3727
 2.4540	21.2101
 2.4530	21.2040
 2.4520	21.0228
 2.4510	20.9249
 2.4500	20.7406
 2.4490	20.8628
 2.4480	20.6283
 2.4470	20.5938
 2.4460	20.5257
 2.4450	20.5316
 2.4440	20.3700
 2.4430	20.4020
 2.4420	20.2479
 2.4410	20.4307
 2.4400	20.2891
 2.4390	20.3328
 2.4380	20.2601
 2.4370	20.2759
 2.4360	20.3333
 2.4350	20.3255
 2.4340	20.3489
 2.4330	20.4765
 2.4320	20.3786
 2.4310	20.5156
 2.4300	20.6055
 2.4290	20.8192
 2.4280	20.7894
 2.4270	20.9816
 2.4260	21.0738
 2.4250	21.2884
 2.4240	21.3861
 2.4230	21.5816
 2.4220	21.6934
 2.4210	21.8901
 2.4200	22.0495
 2.4190	22.2883
 2.4180	22.5198
 2.4170	22.7570
 2.4160	22.8291
 2.4150	23.1644
 2.4140	23.3680
 2.4130	23.6296
 2.4120	23.8609
 2.4110	24.0892
 2.4100	24.2489
 2.4090	24.4812
 2.4080	24.6434
 2.4070	24.9575
 2.4060	25.1552
 2.4050	25.4310
 2.4040	25.5849
 2.4030	25.8413
 2.4020	25.9760
 2.4010	26.0890
 2.4000	26.1975
 2.3990	26.4841
 2.3980	26.5903
 2.3970	26.6672
 2.3960	26.6947
 2.3950	26.8896
 2.3940	27.0159
 2.3930	27.1162
 2.3920	27.1427
 2.3910	27.2627
 2.3900	27.2904
 2.3890	27.3749
 2.3880	27.3852
 2.3870	27.5136
 2.3860	27.4682
 2.3850	27.4822
 2.3840	27.4705
 2.3830	27.4973
 2.3820	27.5118
 2.3810	27.5909
 2.3800	27.5746
 2.3790	27.5448
 2.3780	27.4990
 2.3770	27.4512
 2.3760	27.4424
 2.3750	27.4678
 2.3740	27.4442
 2.3730	27.4846
 2.3720	27.4503
 2.3710	27.3926
 2.3700	27.3463
 2.3690	27.3463
 2.3680	27.3032
 2.3670	27.1955
 2.3660	27.0993
 2.3650	27.0716
 2.3640	26.9758
 2.3630	26.8470
 2.3620	26.7158
 2.3610	26.6223
 2.3600	26.4829
 2.3590	26.3655
 2.3580	26.2323
 2.3570	26.0737
 2.3560	26.0086
 2.3550	25.8699
 2.3540	25.7194
 2.3530	25.6214
 2.3520	25.5172
 2.3510	25.4631
 2.3500	25.3818
 2.3490	25.3439
 2.3480	25.2849
 2.3470	25.2089
 2.3460	25.2409
 2.3450	25.2823
 2.3440	25.3477
 2.3430	25.3960
 2.3420	25.5474
 2.3410	25.6449
 2.3400	25.7649
 2.3390	25.9663
 2.3380	26.1898
 2.3370	26.4069
 2.3360	26.6708
 2.3350	26.8893
 2.3340	27.1649
 2.3330	27.4127
 2.3320	27.7426
 2.3310	28.0895
 2.3300	28.4515
 2.3290	28.7918
 2.3280	29.1394
 2.3270	29.5718
 2.3260	29.9856
 2.3250	30.3295
 2.3240	30.7885
 2.3230	31.2176
 2.3220	31.6895
 2.3210	32.1521
 2.3200	32.5718
 2.3190	32.9870
 2.3180	33.4735
 2.3170	33.9446
 2.3160	34.4731
 2.3150	34.9526
 2.3140	35.4404
 2.3130	35.8283
 2.3120	36.3062
 2.3110	36.7795
 2.3100	37.2787
 2.3090	37.7176
 2.3080	38.2267
 2.3070	38.6487
 2.3060	39.1587
 2.3050	39.6109
 2.3040	40.1029
 2.3030	40.4713
 2.3020	40.9791
 2.3010	41.4223
 2.3000	41.8963
 2.2990	42.2934
 2.2980	42.7762
 2.2970	43.1468
 2.2960	43.5524
 2.2950	43.8798
 2.2940	44.2984
 2.2930	44.6144
 2.2920	45.0056
 2.2910	45.2456
 2.2900	45.5641
 2.2890	45.7841
 2.2880	46.0623
 2.2870	46.3399
 2.2860	46.6218
 2.2850	46.7581
 2.2840	46.9427
 2.2830	47.1184
 2.2820	47.3393
 2.2810	47.4330
 2.2800	47.6250
 2.2790	47.7924
 2.2780	47.9385
 2.2770	47.9293
 2.2760	48.1364
 2.2750	48.2594
 2.2740	48.3244
 2.2730	48.3206
 2.2720	48.4136
 2.2710	48.5592
 2.2700	48.6491
 2.2690	48.5811
 2.2680	48.6992
 2.2670	48.7183
 2.2660	48.6833
 2.2650	48.6596
 2.2640	48.6909
 2.2630	48.6739
 2.2620	48.6184
 2.2610	48.5440
 2.2600	48.5678
 2.2590	48.5033
 2.2580	48.4435
 2.2570	48.3394
 2.2560	48.2627
 2.2550	48.1514
 2.2540	48.2350
 2.2530	48.1075
 2.2520	48.0359
 2.2510	47.9235
 2.2500	47.8961
 2.2490	47.7960
 2.2480	47.7291
 2.2470	47.6520
 2.2460	47.5930
 2.2450	47.4229
 2.2440	47.2833
 2.2430	47.1384
 2.2420	47.0752
 2.2410	46.8692
 2.2400	46.7534
 2.2390	46.4709
 2.2380	46.3449
 2.2370	46.0596
 2.2360	45.8263
 2.2350	45.5840
 2.2340	45.3387
 2.2330	44.9322
 2.2320	44.5868
 2.2310	44.0928
 2.2300	43.8080
 2.2290	43.2826
 2.2280	42.7857
 2.2270	42.0965
 2.2260	41.5764
 2.2250	40.8185
 2.2240	40.0993
 2.2230	39.1669
 2.2220	38.4905
 2.2210	37.5013
 2.2200	36.6549
 2.2190	35.6655
 2.2180	34.7484
 2.2170	33.7307
 2.2160	32.6675
 2.2150	31.5696
 2.2140	30.7197
 2.2130	29.5310
 2.2120	28.6944
 2.2110	27.3723
 2.2100	26.6879
 2.2090	25.6394
 2.2080	24.8293
 2.2070	23.8798
 2.2060	23.1469
 2.2050	22.3831
 2.2040	21.7151
 2.2030	20.9177
 2.2020	20.4805
 2.2010	19.8155
 2.2000	19.5529
 2.1990	19.1431
 2.1980	18.8940
 2.1970	18.6661
 2.1960	18.6216
 2.1950	18.3884
 2.1940	18.6506
 2.1930	18.6828
 2.1920	19.0354
 2.1910	19.1595
 2.1900	19.6570
 2.1890	20.0672
 2.1880	20.6617
 2.1870	21.2119
 2.1860	22.0678
 2.1850	22.7074
 2.1840	23.6509
 2.1830	24.5417
 2.1820	25.6239
 2.1810	26.5125
 2.1800	27.6222
 2.1790	28.6716
 2.1780	29.8262
 2.1770	30.9747
 2.1760	32.1745
 2.1750	33.3377
 2.1740	34.5056
 2.1730	35.5557
 2.1720	36.7274
 2.1710	37.8766
 2.1700	38.9244
 2.1690	39.8769
 2.1680	40.9854
 2.1670	41.8444
 2.1660	42.7431
 2.1650	43.6063
 2.1640	44.4735
 2.1630	45.2436
 2.1620	46.0642
 2.1610	46.6804
 2.1600	47.3925
 2.1590	47.9748
 2.1580	48.6000
 2.1570	49.1659
 2.1560	49.7300
 2.1550	50.2991
 2.1540	50.7858
 2.1530	51.1942
 2.1520	51.6474
 2.1510	52.0335
 2.1500	52.4686
 2.1490	52.8276
 2.1480	53.2292
 2.1470	53.4950
 2.1460	53.8607
 2.1450	54.0928
 2.1440	54.4028
 2.1430	54.6322
 2.1420	54.8721
 2.1410	55.0347
 2.1400	55.3214
 2.1390	55.3883
 2.1380	55.6067
 2.1370	55.6437
 2.1360	55.7010
 2.1350	55.6958
 2.1340	55.7629
 2.1330	55.8110
 2.1320	55.7736
 2.1310	55.7541
 2.1300	55.7167
 2.1290	55.6205
 2.1280	55.5680
 2.1270	55.4547
 2.1260	55.4314
 2.1250	55.3155
 2.1240	55.2972
 2.1230	55.1968
 2.1220	55.2086
 2.1210	55.0963
 2.1200	55.0563
 2.1190	55.1493
 2.1180	55.2578
 2.1170	55.3034
 2.1160	55.4417
 2.1150	55.5422
 2.1140	55.7472
 2.1130	55.9083
 2.1120	56.1333
 2.1110	56.3445
 2.1100	56.5474
 2.1090	56.7635
 2.1080	57.0422
 2.1070	57.3315
 2.1060	57.5585
 2.1050	57.7552
 2.1040	58.0825
 2.1030	58.4642
 2.1020	58.7757
 2.1010	59.0991
 2.1000	59.4808
 2.0990	59.7913
 2.0980	60.2103
 2.0970	60.6053
 2.0960	61.0091
 2.0950	61.4148
 2.0940	61.7853
 2.0930	62.2078
 2.0920	62.6207
 2.0910	62.9793
 2.0900	63.3175
 2.0890	63.7472
 2.0880	64.1810
 2.0870	64.5325
 2.0860	64.8775
 2.0850	65.1386
 2.0840	65.4465
 2.0830	65.7791
 2.0820	66.0309
 2.0810	66.2793
 2.0800	66.5666
 2.0790	66.7723
 2.0780	66.9886
 2.0770	67.2159
 2.0760	67.3816
 2.0750	67.5620
 2.0740	67.7261
 2.0730	67.8679
 2.0720	68.0180
 2.0710	68.1302
 2.0700	68.2511
 2.0690	68.3627
 2.0680	68.4816
 2.0670	68.5972
 2.0660	68.6850
 2.0650	68.7846
 2.0640	68.8824
 2.0630	69.0283
 2.0620	69.1718
 2.0610	69.2605
 2.0600	69.2874
 2.0590	69.3057
 2.0580	69.3747
 2.0570	69.4638
 2.0560	69.5114
 2.0550	69.5870
 2.0540	69.7025
 2.0530	69.7955
 2.0520	69.8049
 2.0510	69.8130
 2.0500	69.8937
 2.0490	69.9904
 2.0480	70.0244
 2.0470	70.1220
 2.0460	70.1588
 2.0450	70.2324
 2.0440	70.3099
 2.0430	70.3517
 2.0420	70.4051
 2.0410	70.4893
 2.0400	70.5667
 2.0390	70.6715
 2.0380	70.7190
 2.0370	70.7692
 2.0360	70.8200
 2.0350	70.8983
 2.0340	70.9502
 2.0330	71.0705
 2.0320	71.1852
 2.0310	71.2127
 2.0300	71.2523
 2.0290	71.3206
 2.0280	71.3799
 2.0270	71.5025
 2.0260	71.5164
 2.0250	71.5760
 2.0240	71.5989
 2.0230	71.6305
 2.0220	71.6710
 2.0210	71.6731
 2.0200	71.7368
 2.0190	71.7630
 2.0180	71.8440
 2.0170	71.9335
 2.0160	71.8474
 2.0150	71.8731
 2.0140	71.9317
 2.0130	72.0103
 2.0120	71.9804
 2.0110	72.0087
 2.0100	72.0608
 2.0090	72.0879
 2.0080	72.1418
 2.0070	72.1090
 2.0060	72.1158
 2.0050	72.1469
 2.0040	72.1671
 2.0030	72.1693
 2.0020	72.1584
 2.0010	72.3082
 2.0000	72.2999
 1.9990	72.2907
 1.9980	72.3434
 1.9970	72.4111
 1.9960	72.4148
 1.9950	72.4477
 1.9940	72.4927
 1.9930	72.4785
 1.9920	72.4425
 1.9910	72.5325
 1.9900	72.5695
 1.9890	72.6316
 1.9880	72.6278
 1.9870	72.6904
 1.9860	72.6807
 1.9850	72.7786
 1.9840	72.7559
 1.9830	72.7814
 1.9820	72.8520
 1.9810	72.9837
 1.9800	73.0847
 1.9790	73.0960
 1.9780	73.0441
 1.9770	73.2257
 1.9760	73.2459
 1.9750	73.2574
 1.9740	73.3078
 1.9730	73.3678
 1.9720	73.4492
 1.9710	73.4811
 1.9700	73.5395
 1.9690	73.6208
 1.9680	73.7741
 1.9670	73.8130
 1.9660	73.7767
 1.9650	73.9403
 1.9640	73.9518
 1.9630	74.0507
 1.9620	74.0748
 1.9610	74.1186
 1.9600	74.1594
 1.9590	74.2531
 1.9580	74.3373
 1.9570	74.4187
 1.9560	74.3720
 1.9550	74.4708
 1.9540	74.5273
 1.9530	74.5907
 1.9520	74.6631
 1.9510	74.6876
 1.9500	74.8392
 1.9490	74.8548
 1.9480	74.8456
 1.9470	74.9527
 1.9460	74.9863
 1.9450	75.1402
 1.9440	75.1424
 1.9430	75.2602
 1.9420	75.2275
 1.9410	75.3818
 1.9400	75.2980
 1.9390	75.3860
 1.9380	75.3966
 1.9370	75.4291
 1.9360	75.4404
 1.9350	75.4993
 1.9340	75.5275
 1.9330	75.5320
 1.9320	75.5624
 1.9310	75.6274
 1.9300	75.5864
 1.9290	75.6155
 1.9280	75.7368
 1.9270	75.6286
 1.9260	75.7256
 1.9250	75.7034
 1.9240	75.7664
 1.9230	75.7927
 1.9220	75.7970
 1.9210	75.8561
 1.9200	75.8423
 1.9190	75.9683
 1.9180	75.9035
 1.9170	75.9508
 1.9160	75.9539
 1.9150	76.0890
 1.9140	76.1062
 1.9130	76.0634
 1.9120	76.1641
 1.9110	76.2161
 1.9100	76.2796
 1.9090	76.3464
 1.9080	76.2847
 1.9070	76.4628
 1.9060	76.4365
 1.9050	76.6637
 1.9040	76.7363
 1.9030	76.8262
 1.9020	76.9298
 1.9010	77.1426
 1.9000	77.1913
 1.8990	77.3493
 1.8980	77.5084
 1.8970	77.6576
 1.8960	77.7638
 1.8950	77.8970
 1.8940	77.9778
 1.8930	78.0671
 1.8920	78.1295
 1.8910	78.3578
 1.8900	78.2601
 1.8890	78.4261
 1.8880	78.5029
 1.8870	78.5713
 1.8860	78.7073
 1.8850	78.7299
 1.8840	78.7553
 1.8830	78.7502
 1.8820	78.8625
 1.8810	78.9182
 1.8800	78.9957
 1.8790	78.9445
 1.8780	79.0847
 1.8770	79.1378
 1.8760	79.0991
 1.8750	79.1748
 1.8740	79.2715
 1.8730	79.2926
 1.8720	79.3503
 1.8710	79.4842
 1.8700	79.4700
 1.8690	79.4250
 1.8680	79.4638
 1.8670	79.5615
 1.8660	79.5295
 1.8650	79.5639
 1.8640	79.5062
 1.8630	79.5145
 1.8620	79.4764
 1.8610	79.4480
 1.8600	79.3667
 1.8590	79.3982
 1.8580	79.3747
 1.8570	79.3551
 1.8560	79.2519
 1.8550	79.1171
 1.8540	79.0831
 1.8530	78.9912
 1.8520	78.8469
 1.8510	78.7050
 1.8500	78.5246
 1.8490	78.4395
 1.8480	78.3697
 1.8470	78.2691
 1.8460	78.1287
 1.8450	77.9975
 1.8440	77.9011
 1.8430	77.8706
 1.8420	77.7293
 1.8410	77.7005
 1.8400	77.6448
 1.8390	77.5877
 1.8380	77.5628
 1.8370	77.5632
 1.8360	77.5843
 1.8350	77.6353
 1.8340	77.6701
 1.8330	77.7498
 1.8320	77.8154
 1.8310	77.8854
 1.8300	78.0350
 1.8290	78.2045
 1.8280	78.3083
 1.8270	78.4491
 1.8260	78.5803
 1.8250	78.7115
 1.8240	78.8691
 1.8230	78.9654
 1.8220	79.0684
 1.8210	79.2957
 1.8200	79.4217
 1.8190	79.5967
 1.8180	79.7076
 1.8170	79.7993
 1.8160	79.8481
 1.8150	79.9423
 1.8140	80.0467
 1.8130	80.1416
 1.8120	80.2166
 1.8110	80.2867
 1.8100	80.3445
 1.8090	80.3740
 1.8080	80.4221
 1.8070	80.4395
 1.8060	80.5389
 1.8050	80.5963
 1.8040	80.5761
 1.8030	80.6420
 1.8020	80.6808
 1.8010	80.7329
 1.8000	80.8143
 1.7990	80.7920
 1.7980	80.7573
 1.7970	80.7811
 1.7960	80.8094
 1.7950	80.8018
 1.7940	80.8128
 1.7930	80.8530
 1.7920	80.8404
 1.7910	80.8484
 1.7900	80.8796
 1.7890	80.8967
 1.7880	80.8483
 1.7870	80.8168
 1.7860	80.8150
 1.7850	80.7210
 1.7840	80.7312
 1.7830	80.7803
 1.7820	80.7396
 1.7810	80.6923
 1.7800	80.6150
 1.7790	80.6049
 1.7780	80.6491
 1.7770	80.5851
 1.7760	80.5725
 1.7750	80.5450
 1.7740	80.4977
 1.7730	80.5252
 1.7720	80.5334
 1.7710	80.5560
 1.7700	80.5511
 1.7690	80.5790
 1.7680	80.5514
 1.7670	80.4971
 1.7660	80.5253
 1.7650	80.5459
 1.7640	80.5509
 1.7630	80.6213
 1.7620	80.6734
 1.7610	80.6841
 1.7600	80.6876
 1.7590	80.6599
 1.7580	80.6740
 1.7570	80.7209
 1.7560	80.7892
 1.7550	80.7903
 1.7540	80.8181
 1.7530	80.8974
 1.7520	80.9290
 1.7510	80.9387
 1.7500	81.0107
 1.7490	81.0731
 1.7480	81.0634
 1.7470	81.0970
 1.7460	81.1134
 1.7450	81.1414
 1.7440	81.1944
 1.7430	81.2240
 1.7420	81.2333
 1.7410	81.2006
 1.7400	81.2690
 1.7390	81.3232
 1.7380	81.3642
 1.7370	81.3947
 1.7360	81.3518
 1.7350	81.3521
 1.7340	81.3241
 1.7330	81.3104
 1.7320	81.3853
 1.7310	81.3531
 1.7300	81.3774
 1.7290	81.4031
 1.7280	81.4064
 1.7270	81.3062
 1.7260	81.3707
 1.7250	81.4415
 1.7240	81.4612
 1.7230	81.4099
 1.7220	81.4340
 1.7210	81.4276
 1.7200	81.4645
 1.7190	81.4662
 1.7180	81.4675
 1.7170	81.4462
 1.7160	81.4191
 1.7150	81.3920
 1.7140	81.4611
 1.7130	81.3905
 1.7120	81.4512
 1.7110	81.4021
 1.7100	81.4389
 1.7090	81.4288
 1.7080	81.4135
 1.7070	81.4151
 1.7060	81.4753
 1.7050	81.3129
 1.7040	81.4438
 1.7030	81.4613
 1.7020	81.4736
 1.7010	81.4035
 1.7000	81.4216
 1.6990	81.4368
 1.6980	81.4867
 1.6970	81.4426
 1.6960	81.3818
 1.6950	81.4220
 1.6940	81.5124
 1.6930	81.4325
 1.6920	81.4668
 1.6910	81.3851
 1.6900	81.3567
 1.6890	81.3975
 1.6880	81.4745
 1.6870	81.3850
 1.6860	81.4606
 1.6850	81.3907
 1.6840	81.4578
 1.6830	81.3804
 1.6820	81.3676
 1.6810	81.4306
 1.6800	81.3464
 1.6790	81.4323
 1.6780	81.4210
 1.6770	81.4075
 1.6760	81.3931
 1.6750	81.3154
 1.6740	81.3872
 1.6730	81.4117
 1.6720	81.3299
 1.6710	81.2851
 1.6700	81.4257
 1.6690	81.3225
 1.6680	81.3355
 1.6670	81.3451
 1.6660	81.3072
 1.6650	81.2986
 1.6640	81.3212
 1.6630	81.3467
 1.6620	81.2914
 1.6610	81.2562
 1.6600	81.2377
 1.6590	81.2208
 1.6580	81.2118
 1.6570	81.1676
 1.6560	81.2648
 1.6550	81.2040
 1.6540	81.2569
 1.6530	81.2344
 1.6520	81.2022
 1.6510	81.1626
 1.6500	81.1803
 1.6490	81.1902
 1.6480	81.2080
 1.6470	81.1623
 1.6460	81.1498
 1.6450	81.1825
 1.6440	81.1629
 1.6430	81.2040
 1.6420	81.0682
 1.6410	81.1404
 1.6400	81.1622
 1.6390	81.1017
 1.6380	81.1435
 1.6370	81.0395
 1.6360	81.1631
 1.6350	81.1369
 1.6340	81.0625
 1.6330	81.0495
 1.6320	81.0823
 1.6310	81.0576
 1.6300	81.0769
 1.6290	81.1113
 1.6280	81.1408
 1.6270	81.0380
 1.6260	81.0400
 1.6250	81.0839
 1.6240	81.0967
 1.6230	81.0558
 1.6220	81.0023
 1.6210	81.0500
 1.6200	81.0433
 1.6190	81.0109
 1.6180	81.0424
 1.6170	81.0724
 1.6160	81.0371
 1.6150	80.9806
 1.6140	81.0153
 1.6130	81.0186
 1.6120	80.9502
 1.6110	81.0187
 1.6100	80.9825
 1.6090	80.9392
 1.6080	80.9850
 1.6070	80.9374
 1.6060	80.9895
 1.6050	80.9440
 1.6040	80.8910
 1.6030	80.9123
 1.6020	80.9623
 1.6010	80.9145
 1.6000	80.9241
 1.5990	80.9505
 1.5980	80.8923
 1.5970	80.9699
 1.5960	80.9456
 1.5950	80.8431
 1.5940	80.7724
 1.5930	80.8205
 1.5920	80.8238
 1.5910	80.6737
 1.5900	80.7601
 1.5890	80.6369
 1.5880	80.6110
 1.5870	80.6265
 1.5860	80.6456
 1.5850	80.6500
 1.5840	80.5944
 1.5830	80.5096
 1.5820	80.5101
 1.5810	80.4591
 1.5800	80.4716
 1.5790	80.3889
 1.5780	80.3522
 1.5770	80.3346
 1.5760	80.3377
 1.5750	80.3916
 1.5740	80.2613
 1.5730	80.2605
 1.5720	80.1976
 1.5710	80.1296
 1.5700	80.1453
 1.5690	80.1856
 1.5680	80.0903
 1.5670	80.0586
 1.5660	80.0120
 1.5650	79.8804
 1.5640	79.8696
 1.5630	79.9095
 1.5620	79.8443
 1.5610	79.8221
 1.5600	79.8633
 1.5590	79.8155
 1.5580	79.7870
 1.5570	79.7482
 1.5560	79.6836
 1.5550	79.6616
 1.5540	79.6722
 1.5530	79.6481
 1.5520	79.6803
 1.5510	79.5984
 1.5500	79.5355
 1.5490	79.5165
 1.5480	79.4327
 1.5470	79.4309
 1.5460	79.4312
 1.5450	79.3671
 1.5440	79.3410
 1.5430	79.3973
 1.5420	79.3513
 1.5410	79.2628
 1.5400	79.2030
 1.5390	79.1579
 1.5380	79.2005
 1.5370	79.1600
 1.5360	79.1698
 1.5350	79.1299
 1.5340	79.0889
 1.5330	79.0424
 1.5320	79.0121
 1.5310	78.9584
 1.5300	78.9506
 1.5290	78.8844
 1.5280	78.8818
 1.5270	78.7678
 1.5260	78.6833
 1.5250	78.7043
 1.5240	78.7065
 1.5230	78.6805
 1.5220	78.6142
 1.5210	78.5704
 1.5200	78.5493
 1.5190	78.4561
 1.5180	78.4083
 1.5170	78.3961
 1.5160	78.3526
 1.5150	78.2756
 1.5140	78.2774
 1.5130	78.2997
 1.5120	78.2697
 1.5110	78.2241
 1.5100	78.1472
 1.5090	78.0758
 1.5080	78.0685
 1.5070	78.0321
 1.5060	77.9450
 1.5050	77.9166
 1.5040	77.8752
 1.5030	77.8168
 1.5020	77.8007
 1.5010	77.7391
 1.5000	77.6869
 1.4990	77.6350
 1.4980	77.5821
 1.4970	77.5523
 1.4960	77.5040
 1.4950	77.4766
 1.4940	77.4495
 1.4930	77.4025
 1.4920	77.3281
 1.4910	77.2511
 1.4900	77.2139
 1.4890	77.1801
 1.4880	77.1423
 1.4870	77.1069
 1.4860	77.0723
 1.4850	77.0624
 1.4840	76.9653
 1.4830	76.8913
 1.4820	76.8604
 1.4810	76.8435
 1.4800	76.7806
 1.4790	76.7310
 1.4780	76.7081
 1.4770	76.5888
 1.4760	76.5023
 1.4750	76.5309
 1.4740	76.4668
 1.4730	76.3790
 1.4720	76.3273
 1.4710	76.3048
 1.4700	76.1777
 1.4690	76.0918
 1.4680	76.0785
 1.4670	76.0149
 1.4660	75.8609
 1.4650	75.7862
 1.4640	75.6723
 1.4630	75.5475
 1.4620	75.4460
 1.4610	75.3438
 1.4600	75.1737
 1.4590	75.1387
 1.4580	75.0352
 1.4570	74.8781
 1.4560	74.6763
 1.4550	74.4755
 1.4540	74.3450
 1.4530	74.2131
 1.4520	73.9904
 1.4510	73.8958
 1.4500	73.7092
 1.4490	73.5930
 1.4480	73.5245
 1.4470	73.3343
 1.4460	73.0961
 1.4450	72.8595
 1.4440	72.6963
 1.4430	72.5340
 1.4420	72.2962
 1.4410	72.0016
 1.4400	71.6896
 1.4390	71.3248
 1.4380	70.9003
 1.4370	70.4700
 1.4360	69.9260
 1.4350	69.2517
 1.4340	68.3594
 1.4330	67.5404
 1.4320	66.4330
 1.4310	65.1829
 1.4300	63.8610
 1.4290	62.2814
 1.4280	60.5551
 1.4270	58.7829
 1.4260	56.7162
 1.4250	54.5296
 1.4240	52.2666
 1.4230	49.8965
 1.4220	47.4447
 1.4210	44.9720
 1.4200	42.3085
 1.4190	39.6273
 1.4180	37.2605
 1.4170	35.0734
 1.4160	33.0502
 1.4150	31.4356
 1.4140	30.0825
 1.4130	29.2136
 1.4120	28.7431
 1.4110	28.7862
 1.4100	29.0796
 1.4090	29.6115
 1.4080	30.1475
 1.4070	30.9465
 1.4060	31.5139
 1.4050	32.2582
 1.4040	32.8279
 1.4030	33.7321
 1.4020	34.4470
 1.4010	35.7172
 1.4000	37.1085
 1.3990	38.7541
 1.3980	40.6601
 1.3970	42.9948
 1.3960	45.6754
 1.3950	48.6267
 1.3940	51.5088
 1.3930	54.4577
 1.3920	56.9078
 1.3910	59.3570
 1.3900	61.2468
 1.3890	62.8719
 1.3880	64.0685
 1.3870	65.1464
 1.3860	65.8090
 1.3850	66.3215
 1.3840	66.6059
 1.3830	66.7850
 1.3820	67.0780
 1.3810	67.1994
 1.3800	67.2176
 1.3790	67.3842
 1.3780	67.4264
 1.3770	67.4942
 1.3760	67.5174
 1.3750	67.5526
 1.3740	67.6175
 1.3730	67.7097
 1.3720	67.8317
 1.3710	67.8023
 1.3700	68.0351
 1.3690	68.0897
