Name: Clinochlore (Chlorite) (Mg,Al)_6(Si,Al)_4O_10(OH)_8
Type: Mineral
Class: Silicate
Subclass: Phyllosilicate
Particle Size: Medium
Sample No.: PS-12A
Owner: JPL
Wavelength Range: VSWIR
Origin: USA, California, El Dorado County, Flagstaff Hill.
Collection Date: N/A
Description: Particle size was 45-125um.Collected by:  Clay Mineral Society Original ASTER Spectral Library name was jpl.perkin.mineral.silicate.phyllosilicate.medium.ps12a.spectrum.txt
Measurement: Hemispherical reflectance
First Column: X
Second Column: Y
X Units: Wavelength (micrometers)
Y Units:Reflectance (percent)
First X Value:  2.5000
Last X Value:  0.4000
Number of X Values: 2101
Additional Information: mineral.silicate.phyllosilicate.medium.vswir.ps-12a.jpl.perkin.ancillary.txt

 2.5000	35.5185
 2.4990	35.3731
 2.4980	35.3172
 2.4970	35.7114
 2.4960	35.2620
 2.4950	35.4275
 2.4940	35.4508
 2.4930	35.5504
 2.4920	35.3040
 2.4910	35.7633
 2.4900	35.6269
 2.4890	35.7319
 2.4880	35.6331
 2.4870	35.8789
 2.4860	35.6713
 2.4850	36.1273
 2.4840	35.9399
 2.4830	36.0387
 2.4820	36.0418
 2.4810	36.1761
 2.4800	36.1730
 2.4790	36.5022
 2.4780	36.3633
 2.4770	36.6436
 2.4760	36.4724
 2.4750	36.6598
 2.4740	36.6363
 2.4730	36.8387
 2.4720	36.8191
 2.4710	37.1165
 2.4700	37.0051
 2.4690	37.2477
 2.4680	37.2407
 2.4670	37.4332
 2.4660	37.3925
 2.4650	37.6603
 2.4640	37.8301
 2.4630	37.8494
 2.4620	37.8755
 2.4610	38.1276
 2.4600	38.1218
 2.4590	38.3172
 2.4580	38.3313
 2.4570	38.5316
 2.4560	38.4851
 2.4550	38.7697
 2.4540	38.7485
 2.4530	38.9211
 2.4520	38.9493
 2.4510	39.1594
 2.4500	39.1731
 2.4490	39.2568
 2.4480	39.2588
 2.4470	39.3438
 2.4460	39.4498
 2.4450	39.4973
 2.4440	39.5466
 2.4430	39.6215
 2.4420	39.6497
 2.4410	39.6120
 2.4400	39.6895
 2.4390	39.8269
 2.4380	39.7946
 2.4370	39.9474
 2.4360	39.8209
 2.4350	39.9649
 2.4340	39.9468
 2.4330	40.0024
 2.4320	39.9607
 2.4310	40.0160
 2.4300	40.0161
 2.4290	40.1328
 2.4280	40.1090
 2.4270	40.1890
 2.4260	40.1403
 2.4250	40.2011
 2.4240	40.1820
 2.4230	40.1497
 2.4220	40.0647
 2.4210	40.1521
 2.4200	40.1298
 2.4190	40.1618
 2.4180	40.1261
 2.4170	40.1253
 2.4160	39.9904
 2.4150	40.0271
 2.4140	39.9273
 2.4130	39.8534
 2.4120	39.8473
 2.4110	39.8734
 2.4100	39.8235
 2.4090	39.8400
 2.4080	39.7064
 2.4070	39.7300
 2.4060	39.6492
 2.4050	39.5608
 2.4040	39.4534
 2.4030	39.5284
 2.4020	39.4594
 2.4010	39.4169
 2.4000	39.3290
 2.3990	39.3352
 2.3980	39.2551
 2.3970	39.2086
 2.3960	39.1211
 2.3950	39.0610
 2.3940	39.0293
 2.3930	39.0790
 2.3920	38.9136
 2.3910	38.8403
 2.3900	38.7622
 2.3890	38.6713
 2.3880	38.6298
 2.3870	38.5313
 2.3860	38.4074
 2.3850	38.3348
 2.3840	38.1926
 2.3830	37.9839
 2.3820	37.8452
 2.3810	37.7693
 2.3800	37.5819
 2.3790	37.4371
 2.3780	37.2481
 2.3770	37.0638
 2.3760	36.8308
 2.3750	36.6082
 2.3740	36.4118
 2.3730	36.2562
 2.3720	36.0136
 2.3710	35.7573
 2.3700	35.5168
 2.3690	35.3132
 2.3680	35.0818
 2.3670	34.9039
 2.3660	34.6655
 2.3650	34.3796
 2.3640	34.1772
 2.3630	33.9838
 2.3620	33.7083
 2.3610	33.5036
 2.3600	33.3250
 2.3590	33.1239
 2.3580	32.9180
 2.3570	32.7659
 2.3560	32.5846
 2.3550	32.4417
 2.3540	32.3448
 2.3530	32.2128
 2.3520	32.0272
 2.3510	31.8890
 2.3500	31.7918
 2.3490	31.7315
 2.3480	31.7291
 2.3470	31.6903
 2.3460	31.6348
 2.3450	31.5726
 2.3440	31.5578
 2.3430	31.5642
 2.3420	31.5777
 2.3410	31.6357
 2.3400	31.6745
 2.3390	31.7281
 2.3380	31.8323
 2.3370	31.8524
 2.3360	31.9097
 2.3350	31.9942
 2.3340	32.1424
 2.3330	32.2575
 2.3320	32.4132
 2.3310	32.5826
 2.3300	32.6389
 2.3290	32.6827
 2.3280	32.8396
 2.3270	32.9472
 2.3260	33.1100
 2.3250	33.2764
 2.3240	33.3741
 2.3230	33.4817
 2.3220	33.6072
 2.3210	33.6850
 2.3200	33.7760
 2.3190	33.9015
 2.3180	34.0462
 2.3170	34.1828
 2.3160	34.3009
 2.3150	34.3700
 2.3140	34.5093
 2.3130	34.5407
 2.3120	34.6142
 2.3110	34.6452
 2.3100	34.8535
 2.3090	34.9201
 2.3080	34.9873
 2.3070	35.0695
 2.3060	35.2092
 2.3050	35.2941
 2.3040	35.4361
 2.3030	35.4189
 2.3020	35.6130
 2.3010	35.6883
 2.3000	35.8710
 2.2990	35.9717
 2.2980	36.1603
 2.2970	36.2331
 2.2960	36.3684
 2.2950	36.4867
 2.2940	36.6123
 2.2930	36.7092
 2.2920	36.9241
 2.2910	36.9908
 2.2900	37.1701
 2.2890	37.1997
 2.2880	37.3826
 2.2870	37.3855
 2.2860	37.6225
 2.2850	37.6240
 2.2840	37.8029
 2.2830	37.8702
 2.2820	37.9748
 2.2810	37.9668
 2.2800	38.0505
 2.2790	38.0375
 2.2780	38.0743
 2.2770	38.0035
 2.2760	37.9844
 2.2750	37.9722
 2.2740	37.9461
 2.2730	37.7826
 2.2720	37.7528
 2.2710	37.6050
 2.2700	37.5494
 2.2690	37.3596
 2.2680	37.2204
 2.2670	37.0531
 2.2660	36.9040
 2.2650	36.7305
 2.2640	36.5913
 2.2630	36.3339
 2.2620	36.2917
 2.2610	36.0774
 2.2600	35.9756
 2.2590	35.7779
 2.2580	35.6962
 2.2570	35.5473
 2.2560	35.5601
 2.2550	35.4236
 2.2540	35.5485
 2.2530	35.5605
 2.2520	35.7084
 2.2510	35.7440
 2.2500	35.9658
 2.2490	36.2008
 2.2480	36.4714
 2.2470	36.7037
 2.2460	37.2473
 2.2450	37.5365
 2.2440	38.0026
 2.2430	38.3865
 2.2420	38.9455
 2.2410	39.4326
 2.2400	39.9693
 2.2390	40.4476
 2.2380	40.9804
 2.2370	41.4852
 2.2360	41.9191
 2.2350	42.3691
 2.2340	42.8914
 2.2330	43.2308
 2.2320	43.6593
 2.2310	43.9304
 2.2300	44.3398
 2.2290	44.6927
 2.2280	45.0301
 2.2270	45.2470
 2.2260	45.5629
 2.2250	45.6963
 2.2240	45.9619
 2.2230	46.0766
 2.2220	46.3535
 2.2210	46.5013
 2.2200	46.7522
 2.2190	46.8164
 2.2180	47.0859
 2.2170	47.1180
 2.2160	47.2122
 2.2150	47.2758
 2.2140	47.5119
 2.2130	47.4473
 2.2120	47.6457
 2.2110	47.6552
 2.2100	47.9510
 2.2090	47.8344
 2.2080	48.0101
 2.2070	48.0344
 2.2060	48.1995
 2.2050	48.2024
 2.2040	48.4101
 2.2030	48.3748
 2.2020	48.5203
 2.2010	48.4634
 2.2000	48.6713
 2.1990	48.6583
 2.1980	48.8170
 2.1970	48.7526
 2.1960	48.9211
 2.1950	48.8878
 2.1940	48.9448
 2.1930	49.0107
 2.1920	49.1096
 2.1910	49.0786
 2.1900	49.1718
 2.1890	49.1677
 2.1880	49.2548
 2.1870	49.3581
 2.1860	49.3199
 2.1850	49.3622
 2.1840	49.3998
 2.1830	49.4471
 2.1820	49.5805
 2.1810	49.5528
 2.1800	49.5885
 2.1790	49.6260
 2.1780	49.7304
 2.1770	49.6326
 2.1760	49.8010
 2.1750	49.7750
 2.1740	49.8208
 2.1730	49.8242
 2.1720	49.8581
 2.1710	49.8705
 2.1700	49.8847
 2.1690	49.9106
 2.1680	49.9974
 2.1670	49.9556
 2.1660	49.9749
 2.1650	50.0435
 2.1640	50.0707
 2.1630	50.0218
 2.1620	50.1013
 2.1610	50.1066
 2.1600	50.1068
 2.1590	50.1136
 2.1580	50.1274
 2.1570	50.1445
 2.1560	50.2156
 2.1550	50.1961
 2.1540	50.1555
 2.1530	50.1539
 2.1520	50.1697
 2.1510	50.1572
 2.1500	50.2166
 2.1490	50.1796
 2.1480	50.2334
 2.1470	50.2180
 2.1460	50.1450
 2.1450	50.1407
 2.1440	50.1836
 2.1430	50.1277
 2.1420	50.1086
 2.1410	50.0503
 2.1400	50.0505
 2.1390	49.9730
 2.1380	50.0027
 2.1370	50.0080
 2.1360	49.9807
 2.1350	49.9051
 2.1340	49.8684
 2.1330	49.7417
 2.1320	49.7630
 2.1310	49.7576
 2.1300	49.7169
 2.1290	49.6458
 2.1280	49.6147
 2.1270	49.5721
 2.1260	49.5913
 2.1250	49.4791
 2.1240	49.4278
 2.1230	49.3793
 2.1220	49.4243
 2.1210	49.3906
 2.1200	49.3732
 2.1190	49.2907
 2.1180	49.3137
 2.1170	49.2265
 2.1160	49.2246
 2.1150	49.2087
 2.1140	49.1791
 2.1130	49.1949
 2.1120	49.1413
 2.1110	49.0860
 2.1100	49.0665
 2.1090	49.0994
 2.1080	49.1024
 2.1070	49.0344
 2.1060	49.0214
 2.1050	48.9950
 2.1040	48.9688
 2.1030	48.9224
 2.1020	48.9071
 2.1010	48.8829
 2.1000	48.8883
 2.0990	48.7939
 2.0980	48.8114
 2.0970	48.8096
 2.0960	48.8215
 2.0950	48.8016
 2.0940	48.7950
 2.0930	48.7932
 2.0920	48.7932
 2.0910	48.7244
 2.0900	48.6696
 2.0890	48.6308
 2.0880	48.6022
 2.0870	48.5668
 2.0860	48.5826
 2.0850	48.5053
 2.0840	48.5321
 2.0830	48.5173
 2.0820	48.4690
 2.0810	48.4582
 2.0800	48.4143
 2.0790	48.3621
 2.0780	48.3306
 2.0770	48.2971
 2.0760	48.2863
 2.0750	48.2407
 2.0740	48.2055
 2.0730	48.1919
 2.0720	48.1772
 2.0710	48.0745
 2.0700	48.0070
 2.0690	48.0214
 2.0680	48.0012
 2.0670	47.9329
 2.0660	47.8963
 2.0650	47.8955
 2.0640	47.7940
 2.0630	47.6986
 2.0620	47.6720
 2.0610	47.6729
 2.0600	47.6238
 2.0590	47.5618
 2.0580	47.5040
 2.0570	47.4046
 2.0560	47.3991
 2.0550	47.4108
 2.0540	47.3578
 2.0530	47.2842
 2.0520	47.1684
 2.0510	47.1243
 2.0500	47.0901
 2.0490	47.0413
 2.0480	46.9533
 2.0470	46.8773
 2.0460	46.7721
 2.0450	46.7300
 2.0440	46.6862
 2.0430	46.6475
 2.0420	46.5238
 2.0410	46.4842
 2.0400	46.3778
 2.0390	46.3194
 2.0380	46.2118
 2.0370	46.0837
 2.0360	46.0109
 2.0350	45.9797
 2.0340	45.8314
 2.0330	45.7016
 2.0320	45.5810
 2.0310	45.4740
 2.0300	45.3861
 2.0290	45.3490
 2.0280	45.1825
 2.0270	45.0487
 2.0260	44.9234
 2.0250	44.8476
 2.0240	44.7229
 2.0230	44.5829
 2.0220	44.4814
 2.0210	44.4128
 2.0200	44.2907
 2.0190	44.2431
 2.0180	44.1338
 2.0170	43.9983
 2.0160	43.9367
 2.0150	43.8757
 2.0140	43.7738
 2.0130	43.6780
 2.0120	43.6178
 2.0110	43.5207
 2.0100	43.4772
 2.0090	43.5063
 2.0080	43.3921
 2.0070	43.3353
 2.0060	43.2877
 2.0050	43.2361
 2.0040	43.1814
 2.0030	43.1433
 2.0020	43.1360
 2.0010	43.1613
 2.0000	43.0627
 1.9990	43.0946
 1.9980	43.0314
 1.9970	43.0383
 1.9960	42.9545
 1.9950	43.0362
 1.9940	43.0267
 1.9930	42.9683
 1.9920	42.9729
 1.9910	43.0040
 1.9900	42.9619
 1.9890	43.0050
 1.9880	42.9815
 1.9870	43.0296
 1.9860	43.0017
 1.9850	43.0598
 1.9840	43.0288
 1.9830	43.1547
 1.9820	43.0776
 1.9810	43.1645
 1.9800	43.1517
 1.9790	43.2381
 1.9780	43.2268
 1.9770	43.1989
 1.9760	43.2528
 1.9750	43.2679
 1.9740	43.2188
 1.9730	43.2667
 1.9720	43.2607
 1.9710	43.3144
 1.9700	43.2979
 1.9690	43.3625
 1.9680	43.2361
 1.9670	43.3301
 1.9660	43.2907
 1.9650	43.3059
 1.9640	43.2308
 1.9630	43.2643
 1.9620	43.2134
 1.9610	43.2041
 1.9600	43.0721
 1.9590	43.2058
 1.9580	43.1759
 1.9570	43.1627
 1.9560	43.1249
 1.9550	43.1031
 1.9540	43.0386
 1.9530	43.1952
 1.9520	43.0290
 1.9510	43.1256
 1.9500	43.1413
 1.9490	43.2041
 1.9480	43.1240
 1.9470	43.1826
 1.9460	43.1455
 1.9450	43.2078
 1.9440	43.2224
 1.9430	43.2620
 1.9420	43.1899
 1.9410	43.3082
 1.9400	43.3243
 1.9390	43.3033
 1.9380	43.2066
 1.9370	43.2693
 1.9360	43.2989
 1.9350	43.3706
 1.9340	43.2087
 1.9330	43.2636
 1.9320	43.2380
 1.9310	43.2419
 1.9300	43.1780
 1.9290	43.2318
 1.9280	43.1359
 1.9270	43.2163
 1.9260	43.0773
 1.9250	43.1709
 1.9240	42.9867
 1.9230	43.0831
 1.9220	43.0138
 1.9210	43.0110
 1.9200	42.9193
 1.9190	42.9652
 1.9180	42.8221
 1.9170	42.9187
 1.9160	42.8030
 1.9150	42.8434
 1.9140	42.6837
 1.9130	42.8141
 1.9120	42.6254
 1.9110	42.7500
 1.9100	42.5643
 1.9090	42.6331
 1.9080	42.4942
 1.9070	42.5217
 1.9060	42.4702
 1.9050	42.5000
 1.9040	42.4011
 1.9030	42.4621
 1.9020	42.2971
 1.9010	42.3398
 1.9000	42.2069
 1.8990	42.2609
 1.8980	42.1787
 1.8970	42.2520
 1.8960	42.1430
 1.8950	42.1485
 1.8940	42.0449
 1.8930	42.0842
 1.8920	41.9854
 1.8910	41.9400
 1.8900	41.9115
 1.8890	41.8828
 1.8880	41.7556
 1.8870	41.8027
 1.8860	41.6882
 1.8850	41.7758
 1.8840	41.7342
 1.8830	41.6912
 1.8820	41.5773
 1.8810	41.6900
 1.8800	41.6398
 1.8790	41.6503
 1.8780	41.6225
 1.8770	41.6187
 1.8760	41.5282
 1.8750	41.5227
 1.8740	41.4884
 1.8730	41.5675
 1.8720	41.5167
 1.8710	41.4781
 1.8700	41.4401
 1.8690	41.5464
 1.8680	41.4394
 1.8670	41.5033
 1.8660	41.4544
 1.8650	41.5289
 1.8640	41.4703
 1.8630	41.5079
 1.8620	41.4874
 1.8610	41.4572
 1.8600	41.4253
 1.8590	41.4011
 1.8580	41.3344
 1.8570	41.4174
 1.8560	41.3239
 1.8550	41.3413
 1.8540	41.2874
 1.8530	41.2879
 1.8520	41.2824
 1.8510	41.3199
 1.8500	41.1994
 1.8490	41.3281
 1.8480	41.2371
 1.8470	41.2451
 1.8460	41.2193
 1.8450	41.1706
 1.8440	41.2112
 1.8430	41.1661
 1.8420	41.1009
 1.8410	41.1215
 1.8400	41.0181
 1.8390	41.0495
 1.8380	41.0144
 1.8370	40.9900
 1.8360	40.9285
 1.8350	40.9454
 1.8340	40.8972
 1.8330	40.8786
 1.8320	40.8092
 1.8310	40.8344
 1.8300	40.7185
 1.8290	40.7221
 1.8280	40.6575
 1.8270	40.6666
 1.8260	40.6137
 1.8250	40.6289
 1.8240	40.5833
 1.8230	40.5738
 1.8220	40.5131
 1.8210	40.4581
 1.8200	40.4029
 1.8190	40.3994
 1.8180	40.2997
 1.8170	40.2440
 1.8160	40.2855
 1.8150	40.2513
 1.8140	40.1637
 1.8130	40.1815
 1.8120	40.1422
 1.8110	40.1215
 1.8100	40.0735
 1.8090	40.0653
 1.8080	40.0194
 1.8070	39.9463
 1.8060	39.9225
 1.8050	39.9462
 1.8040	39.8699
 1.8030	39.8518
 1.8020	39.8151
 1.8010	39.7936
 1.8000	39.7509
 1.7990	39.6941
 1.7980	39.6356
 1.7970	39.6091
 1.7960	39.5669
 1.7950	39.4922
 1.7940	39.4671
 1.7930	39.4627
 1.7920	39.3791
 1.7910	39.3337
 1.7900	39.3201
 1.7890	39.3158
 1.7880	39.2510
 1.7870	39.1800
 1.7860	39.1368
 1.7850	39.0922
 1.7840	39.0419
 1.7830	39.0194
 1.7820	38.9913
 1.7810	38.9084
 1.7800	38.8339
 1.7790	38.8296
 1.7780	38.8235
 1.7770	38.7649
 1.7760	38.7216
 1.7750	38.6733
 1.7740	38.6547
 1.7730	38.5669
 1.7720	38.4806
 1.7710	38.4642
 1.7700	38.4390
 1.7690	38.3989
 1.7680	38.3956
 1.7670	38.3372
 1.7660	38.2978
 1.7650	38.2414
 1.7640	38.2027
 1.7630	38.1365
 1.7620	38.1056
 1.7610	38.0635
 1.7600	38.0192
 1.7590	37.9463
 1.7580	37.9290
 1.7570	37.8749
 1.7560	37.8931
 1.7550	37.8144
 1.7540	37.7726
 1.7530	37.6884
 1.7520	37.7310
 1.7510	37.6731
 1.7500	37.6203
 1.7490	37.4830
 1.7480	37.5014
 1.7470	37.4139
 1.7460	37.3899
 1.7450	37.3797
 1.7440	37.3222
 1.7430	37.2162
 1.7420	37.2462
 1.7410	37.1486
 1.7400	37.1406
 1.7390	37.0750
 1.7380	37.0244
 1.7370	36.9756
 1.7360	36.9896
 1.7350	36.8875
 1.7340	36.8774
 1.7330	36.8049
 1.7320	36.7804
 1.7310	36.7032
 1.7300	36.7002
 1.7290	36.6229
 1.7280	36.6079
 1.7270	36.4866
 1.7260	36.5383
 1.7250	36.4137
 1.7240	36.3918
 1.7230	36.2955
 1.7220	36.3649
 1.7210	36.1943
 1.7200	36.2401
 1.7190	36.1233
 1.7180	36.1203
 1.7170	36.0578
 1.7160	36.0047
 1.7150	35.9056
 1.7140	35.9872
 1.7130	35.8428
 1.7120	35.7966
 1.7110	35.6756
 1.7100	35.7008
 1.7090	35.5932
 1.7080	35.5408
 1.7070	35.5223
 1.7060	35.4994
 1.7050	35.4410
 1.7040	35.4031
 1.7030	35.2581
 1.7020	35.2825
 1.7010	35.2283
 1.7000	35.2011
 1.6990	35.0880
 1.6980	35.0837
 1.6970	35.0098
 1.6960	35.0286
 1.6950	34.8288
 1.6940	34.9015
 1.6930	34.8063
 1.6920	34.7683
 1.6910	34.6497
 1.6900	34.7126
 1.6890	34.5839
 1.6880	34.5480
 1.6870	34.4724
 1.6860	34.5065
 1.6850	34.2824
 1.6840	34.4020
 1.6830	34.2928
 1.6820	34.3545
 1.6810	34.1154
 1.6800	34.0974
 1.6790	34.0841
 1.6780	33.9951
 1.6770	33.9689
 1.6760	33.8906
 1.6750	33.8772
 1.6740	33.8128
 1.6730	33.7304
 1.6720	33.7171
 1.6710	33.5810
 1.6700	33.7184
 1.6690	33.6705
 1.6680	33.3853
 1.6670	33.5265
 1.6660	33.4187
 1.6650	33.3558
 1.6640	33.2772
 1.6630	33.2265
 1.6620	33.2117
 1.6610	33.1187
 1.6600	33.0721
 1.6590	32.9972
 1.6580	32.9362
 1.6570	32.8361
 1.6560	32.9268
 1.6550	32.7226
 1.6540	32.7532
 1.6530	32.6280
 1.6520	32.6553
 1.6510	32.5332
 1.6500	32.5061
 1.6490	32.4021
 1.6480	32.4592
 1.6470	32.4204
 1.6460	32.3918
 1.6450	32.2117
 1.6440	32.2631
 1.6430	32.0982
 1.6420	32.2205
 1.6410	31.9989
 1.6400	32.0581
 1.6390	31.9623
 1.6380	31.9252
 1.6370	31.7508
 1.6360	31.8550
 1.6350	31.6985
 1.6340	31.6632
 1.6330	31.6234
 1.6320	31.5823
 1.6310	31.4362
 1.6300	31.5230
 1.6290	31.3603
 1.6280	31.3660
 1.6270	31.2502
 1.6260	31.2847
 1.6250	31.1286
 1.6240	31.1890
 1.6230	31.0078
 1.6220	31.0209
 1.6210	30.9381
 1.6200	30.8599
 1.6190	30.7980
 1.6180	30.8434
 1.6170	30.6953
 1.6160	30.6802
 1.6150	30.6086
 1.6140	30.6155
 1.6130	30.4342
 1.6120	30.5230
 1.6110	30.3844
 1.6100	30.3596
 1.6090	30.1833
 1.6080	30.2358
 1.6070	30.1840
 1.6060	30.1282
 1.6050	30.0176
 1.6040	30.0439
 1.6030	29.9081
 1.6020	29.9206
 1.6010	29.7811
 1.6000	29.8215
 1.5990	29.6905
 1.5980	29.6167
 1.5970	29.5402
 1.5960	29.6141
 1.5950	29.4975
 1.5940	29.4033
 1.5930	29.3358
 1.5920	29.3278
 1.5910	29.2086
 1.5900	29.2168
 1.5890	29.1233
 1.5880	29.1472
 1.5870	28.9452
 1.5860	29.0312
 1.5850	28.8823
 1.5840	28.8345
 1.5830	28.7475
 1.5820	28.6901
 1.5810	28.6793
 1.5800	28.6865
 1.5790	28.6079
 1.5780	28.5543
 1.5770	28.4232
 1.5760	28.4596
 1.5750	28.3756
 1.5740	28.3494
 1.5730	28.1916
 1.5720	28.2343
 1.5710	28.1648
 1.5700	28.0883
 1.5690	28.0310
 1.5680	28.0085
 1.5670	27.9423
 1.5660	27.9042
 1.5650	27.8179
 1.5640	27.8195
 1.5630	27.7441
 1.5620	27.6616
 1.5610	27.6322
 1.5600	27.6182
 1.5590	27.5573
 1.5580	27.5280
 1.5570	27.4525
 1.5560	27.4482
 1.5550	27.3909
 1.5540	27.3775
 1.5530	27.3130
 1.5520	27.2722
 1.5510	27.1349
 1.5500	27.0944
 1.5490	27.0358
 1.5480	27.0232
 1.5470	27.0255
 1.5460	27.0017
 1.5450	26.8707
 1.5440	26.8519
 1.5430	26.7350
 1.5420	26.7112
 1.5410	26.6483
 1.5400	26.6516
 1.5390	26.6241
 1.5380	26.6465
 1.5370	26.5576
 1.5360	26.5408
 1.5350	26.4800
 1.5340	26.4330
 1.5330	26.3704
 1.5320	26.3223
 1.5310	26.2614
 1.5300	26.2306
 1.5290	26.2360
 1.5280	26.2192
 1.5270	26.1200
 1.5260	26.1044
 1.5250	26.0782
 1.5240	26.0471
 1.5230	26.0163
 1.5220	25.9800
 1.5210	25.9380
 1.5200	25.9644
 1.5190	25.8782
 1.5180	25.8707
 1.5170	25.8385
 1.5160	25.7754
 1.5150	25.7132
 1.5140	25.6457
 1.5130	25.6282
 1.5120	25.6412
 1.5110	25.6486
 1.5100	25.5947
 1.5090	25.5276
 1.5080	25.4711
 1.5070	25.4846
 1.5060	25.4766
 1.5050	25.3892
 1.5040	25.3236
 1.5030	25.2708
 1.5020	25.2394
 1.5010	25.1852
 1.5000	25.1574
 1.4990	25.1108
 1.4980	25.0501
 1.4970	25.0078
 1.4960	24.9659
 1.4950	24.9681
 1.4940	24.9306
 1.4930	24.9035
 1.4920	24.8346
 1.4910	24.7767
 1.4900	24.7048
 1.4890	24.7008
 1.4880	24.6613
 1.4870	24.5945
 1.4860	24.5156
 1.4850	24.4821
 1.4840	24.4829
 1.4830	24.4345
 1.4820	24.3390
 1.4810	24.2836
 1.4800	24.2342
 1.4790	24.1915
 1.4780	24.1080
 1.4770	24.0773
 1.4760	23.9892
 1.4750	23.9841
 1.4740	23.9410
 1.4730	23.8729
 1.4720	23.8356
 1.4710	23.7786
 1.4700	23.6847
 1.4690	23.6555
 1.4680	23.5960
 1.4670	23.5658
 1.4660	23.4596
 1.4650	23.4029
 1.4640	23.3977
 1.4630	23.3476
 1.4620	23.2411
 1.4610	23.2323
 1.4600	23.1889
 1.4590	23.1325
 1.4580	23.0531
 1.4570	23.0858
 1.4560	22.9503
 1.4550	22.9182
 1.4540	22.8474
 1.4530	22.8782
 1.4520	22.7541
 1.4510	22.7352
 1.4500	22.6955
 1.4490	22.6219
 1.4480	22.5794
 1.4470	22.5639
 1.4460	22.4799
 1.4450	22.5333
 1.4440	22.4031
 1.4430	22.3615
 1.4420	22.3401
 1.4410	22.3909
 1.4400	22.2810
 1.4390	22.2983
 1.4380	22.1996
 1.4370	22.2063
 1.4360	22.1255
 1.4350	22.1968
 1.4340	22.0986
 1.4330	22.1357
 1.4320	22.0525
 1.4310	22.0290
 1.4300	21.9736
 1.4290	21.9363
 1.4280	21.9019
 1.4270	21.8636
 1.4260	21.8187
 1.4250	21.7297
 1.4240	21.6119
 1.4230	21.6657
 1.4220	21.5525
 1.4210	21.4108
 1.4200	21.2962
 1.4190	21.2625
 1.4180	21.0328
 1.4170	20.8528
 1.4160	20.7020
 1.4150	20.6187
 1.4140	20.4058
 1.4130	20.3751
 1.4120	20.2348
 1.4110	20.2175
 1.4100	20.0442
 1.4090	19.9823
 1.4080	19.8635
 1.4070	19.7856
 1.4060	19.7095
 1.4050	19.6814
 1.4040	19.6857
 1.4030	19.7551
 1.4020	19.6232
 1.4010	19.6840
 1.4000	19.6204
 1.3990	19.7782
 1.3980	19.8096
 1.3970	19.8427
 1.3960	19.8130
 1.3950	19.8825
 1.3940	19.8380
 1.3930	20.0601
 1.3920	20.0285
 1.3910	20.1769
 1.3900	20.2537
 1.3890	20.2798
 1.3880	20.2952
 1.3870	20.3686
 1.3860	20.2328
 1.3850	20.2657
 1.3840	20.2468
 1.3830	20.2400
 1.3820	20.1640
 1.3810	20.1290
 1.3800	20.0458
 1.3790	20.1448
 1.3780	20.0220
 1.3770	20.0690
 1.3760	19.9685
 1.3750	19.9462
 1.3740	19.8111
 1.3730	19.8551
 1.3720	19.7619
 1.3710	19.7202
