Name: Chlorite
Type: Mineral
Class: Silicate
Subclass: Phyllosilicate
Particle Size: Medium
Sample No.: PS-12F
Owner: JPL
Wavelength Range: VSWIR
Origin: USA, New Mexico.
Collection Date: N/A
Description: Particle size was 45-125um.Collected by:  Ward's Original ASTER Spectral Library name was jpl.perkin.mineral.silicate.phyllosilicate.medium.ps12f.spectrum.txt
Measurement: Hemispherical reflectance
First Column: X
Second Column: Y
X Units: Wavelength (micrometers)
Y Units:Reflectance (percent)
First X Value:  2.5000
Last X Value:  0.4000
Number of X Values: 2101
Additional Information: mineral.silicate.phyllosilicate.medium.vswir.ps-12f.jpl.perkin.ancillary.txt

 2.5000	32.4054
 2.4990	32.3591
 2.4980	32.4089
 2.4970	32.4820
 2.4960	32.3147
 2.4950	32.6843
 2.4940	32.7560
 2.4930	32.6276
 2.4920	32.9545
 2.4910	32.7461
 2.4900	33.1334
 2.4890	33.1469
 2.4880	33.2892
 2.4870	33.2647
 2.4860	33.4554
 2.4850	33.3907
 2.4840	33.6208
 2.4830	33.6651
 2.4820	33.7011
 2.4810	33.8292
 2.4800	34.0820
 2.4790	34.0974
 2.4780	34.1738
 2.4770	34.2259
 2.4760	34.2881
 2.4750	34.4859
 2.4740	34.5391
 2.4730	34.7386
 2.4720	34.8917
 2.4710	34.8198
 2.4700	35.0898
 2.4690	35.1533
 2.4680	35.3344
 2.4670	35.2480
 2.4660	35.4835
 2.4650	35.5988
 2.4640	35.6289
 2.4630	35.7214
 2.4620	35.8838
 2.4610	35.8106
 2.4600	35.9749
 2.4590	36.0852
 2.4580	36.1767
 2.4570	36.1188
 2.4560	36.2929
 2.4550	36.2434
 2.4540	36.3117
 2.4530	36.4026
 2.4520	36.4966
 2.4510	36.5972
 2.4500	36.6022
 2.4490	36.6483
 2.4480	36.6872
 2.4470	36.7045
 2.4460	36.7622
 2.4450	36.7348
 2.4440	36.8232
 2.4430	36.7800
 2.4420	36.8666
 2.4410	36.8500
 2.4400	36.8979
 2.4390	36.8940
 2.4380	37.0181
 2.4370	36.8462
 2.4360	36.9187
 2.4350	36.8987
 2.4340	36.9657
 2.4330	36.9746
 2.4320	36.9994
 2.4310	36.8980
 2.4300	37.0765
 2.4290	36.9635
 2.4280	37.0849
 2.4270	37.0315
 2.4260	36.9163
 2.4250	36.9567
 2.4240	37.0662
 2.4230	37.0321
 2.4220	37.0251
 2.4210	37.0410
 2.4200	37.1239
 2.4190	37.0297
 2.4180	37.1269
 2.4170	37.0639
 2.4160	37.0649
 2.4150	37.0478
 2.4140	37.1035
 2.4130	37.0319
 2.4120	37.0438
 2.4110	37.0344
 2.4100	36.9847
 2.4090	36.9226
 2.4080	36.9868
 2.4070	36.8672
 2.4060	36.8901
 2.4050	36.8391
 2.4040	36.7832
 2.4030	36.7008
 2.4020	36.6526
 2.4010	36.4675
 2.4000	36.4182
 2.3990	36.3384
 2.3980	36.2937
 2.3970	36.1917
 2.3960	36.0332
 2.3950	35.8886
 2.3940	35.8157
 2.3930	35.6528
 2.3920	35.4974
 2.3910	35.2935
 2.3900	35.0882
 2.3890	34.9419
 2.3880	34.7678
 2.3870	34.5306
 2.3860	34.2835
 2.3850	34.0880
 2.3840	33.8532
 2.3830	33.6311
 2.3820	33.4462
 2.3810	33.1647
 2.3800	32.9096
 2.3790	32.6719
 2.3780	32.4338
 2.3770	32.2186
 2.3760	32.0591
 2.3750	31.8535
 2.3740	31.5650
 2.3730	31.3294
 2.3720	31.1132
 2.3710	30.9310
 2.3700	30.7579
 2.3690	30.5838
 2.3680	30.4724
 2.3670	30.3189
 2.3660	30.1994
 2.3650	30.0258
 2.3640	29.8918
 2.3630	29.7979
 2.3620	29.7107
 2.3610	29.6365
 2.3600	29.5964
 2.3590	29.5611
 2.3580	29.5287
 2.3570	29.4965
 2.3560	29.4823
 2.3550	29.4886
 2.3540	29.4951
 2.3530	29.5159
 2.3520	29.5918
 2.3510	29.6340
 2.3500	29.7146
 2.3490	29.8029
 2.3480	29.8311
 2.3470	29.9658
 2.3460	30.1030
 2.3450	30.2113
 2.3440	30.2837
 2.3430	30.4669
 2.3420	30.6194
 2.3410	30.7311
 2.3400	30.9053
 2.3390	31.0625
 2.3380	31.1700
 2.3370	31.3333
 2.3360	31.4701
 2.3350	31.6659
 2.3340	31.8298
 2.3330	31.9407
 2.3320	32.0964
 2.3310	32.2890
 2.3300	32.4026
 2.3290	32.5953
 2.3280	32.7650
 2.3270	32.8464
 2.3260	33.0013
 2.3250	33.1373
 2.3240	33.3036
 2.3230	33.4604
 2.3220	33.5610
 2.3210	33.7375
 2.3200	33.8489
 2.3190	33.9717
 2.3180	34.1505
 2.3170	34.3367
 2.3160	34.4728
 2.3150	34.5986
 2.3140	34.7059
 2.3130	34.7903
 2.3120	34.9029
 2.3110	35.1126
 2.3100	35.2326
 2.3090	35.3240
 2.3080	35.4932
 2.3070	35.5946
 2.3060	35.7218
 2.3050	35.8729
 2.3040	35.9238
 2.3030	36.0590
 2.3020	36.1206
 2.3010	36.2662
 2.3000	36.3289
 2.2990	36.3923
 2.2980	36.4449
 2.2970	36.5337
 2.2960	36.5981
 2.2950	36.6303
 2.2940	36.5917
 2.2930	36.6782
 2.2920	36.7388
 2.2910	36.7504
 2.2900	36.6885
 2.2890	36.6601
 2.2880	36.6165
 2.2870	36.6156
 2.2860	36.4948
 2.2850	36.4712
 2.2840	36.3946
 2.2830	36.3310
 2.2820	36.1264
 2.2810	36.0325
 2.2800	35.9256
 2.2790	35.7635
 2.2780	35.4731
 2.2770	35.3432
 2.2760	35.1264
 2.2750	34.9062
 2.2740	34.7111
 2.2730	34.4277
 2.2720	34.1731
 2.2710	33.9629
 2.2700	33.6059
 2.2690	33.3607
 2.2680	33.0494
 2.2670	32.8964
 2.2660	32.6243
 2.2650	32.5033
 2.2640	32.2963
 2.2630	32.0954
 2.2620	31.9298
 2.2610	31.9258
 2.2600	31.8959
 2.2590	31.8588
 2.2580	31.9118
 2.2570	32.1311
 2.2560	32.2169
 2.2550	32.3246
 2.2540	32.6854
 2.2530	33.0207
 2.2520	33.3143
 2.2510	33.7592
 2.2500	34.1279
 2.2490	34.6004
 2.2480	35.0703
 2.2470	35.6027
 2.2460	36.0499
 2.2450	36.6291
 2.2440	37.0188
 2.2430	37.6970
 2.2420	38.1429
 2.2410	38.7579
 2.2400	39.1820
 2.2390	39.6451
 2.2380	40.2637
 2.2370	40.6710
 2.2360	41.1439
 2.2350	41.4988
 2.2340	41.9053
 2.2330	42.2655
 2.2320	42.5240
 2.2310	42.9950
 2.2300	43.2375
 2.2290	43.5359
 2.2280	43.8369
 2.2270	44.1069
 2.2260	44.3240
 2.2250	44.5935
 2.2240	44.7784
 2.2230	45.0775
 2.2220	45.0917
 2.2210	45.3530
 2.2200	45.4877
 2.2190	45.7261
 2.2180	45.8617
 2.2170	45.9795
 2.2160	46.0373
 2.2150	46.3061
 2.2140	46.3298
 2.2130	46.4129
 2.2120	46.5718
 2.2110	46.6448
 2.2100	46.8774
 2.2090	46.8934
 2.2080	46.9625
 2.2070	47.1201
 2.2060	47.1289
 2.2050	47.3006
 2.2040	47.3500
 2.2030	47.5051
 2.2020	47.5325
 2.2010	47.6367
 2.2000	47.6524
 2.1990	47.8100
 2.1980	47.8340
 2.1970	47.9234
 2.1960	47.9811
 2.1950	48.0713
 2.1940	48.1812
 2.1930	48.1683
 2.1920	48.1858
 2.1910	48.3716
 2.1900	48.3468
 2.1890	48.4282
 2.1880	48.4213
 2.1870	48.5526
 2.1860	48.5907
 2.1850	48.6135
 2.1840	48.5938
 2.1830	48.6210
 2.1820	48.7046
 2.1810	48.7652
 2.1800	48.7563
 2.1790	48.7778
 2.1780	48.7859
 2.1770	48.8705
 2.1760	48.8839
 2.1750	48.9522
 2.1740	48.9827
 2.1730	48.9557
 2.1720	48.9747
 2.1710	49.0580
 2.1700	48.9788
 2.1690	49.1054
 2.1680	49.0939
 2.1670	49.1753
 2.1660	49.1224
 2.1650	49.1541
 2.1640	49.1651
 2.1630	49.2415
 2.1620	49.2353
 2.1610	49.3203
 2.1600	49.2991
 2.1590	49.3137
 2.1580	49.2543
 2.1570	49.4182
 2.1560	49.3597
 2.1550	49.3597
 2.1540	49.3236
 2.1530	49.3378
 2.1520	49.3450
 2.1510	49.4457
 2.1500	49.3349
 2.1490	49.4240
 2.1480	49.3714
 2.1470	49.4116
 2.1460	49.4297
 2.1450	49.4189
 2.1440	49.3783
 2.1430	49.3471
 2.1420	49.3703
 2.1410	49.4018
 2.1400	49.2900
 2.1390	49.3301
 2.1380	49.3247
 2.1370	49.2812
 2.1360	49.2532
 2.1350	49.2846
 2.1340	49.2454
 2.1330	49.2467
 2.1320	49.2185
 2.1310	49.2289
 2.1300	49.1995
 2.1290	49.1711
 2.1280	49.1089
 2.1270	49.0974
 2.1260	49.0968
 2.1250	49.0976
 2.1240	49.0485
 2.1230	49.0888
 2.1220	49.0878
 2.1210	49.0397
 2.1200	49.0676
 2.1190	49.0716
 2.1180	49.0218
 2.1170	49.0841
 2.1160	49.0429
 2.1150	49.0394
 2.1140	49.0114
 2.1130	49.0004
 2.1120	48.9302
 2.1110	48.9636
 2.1100	48.9264
 2.1090	48.9116
 2.1080	48.9259
 2.1070	48.8971
 2.1060	48.8548
 2.1050	48.8162
 2.1040	48.7293
 2.1030	48.7418
 2.1020	48.6446
 2.1010	48.5996
 2.1000	48.5689
 2.0990	48.6132
 2.0980	48.6161
 2.0970	48.5750
 2.0960	48.4974
 2.0950	48.4455
 2.0940	48.4215
 2.0930	48.4152
 2.0920	48.3875
 2.0910	48.3861
 2.0900	48.3739
 2.0890	48.3482
 2.0880	48.2912
 2.0870	48.2315
 2.0860	48.1894
 2.0850	48.1480
 2.0840	48.0819
 2.0830	48.0645
 2.0820	48.0535
 2.0810	48.0102
 2.0800	47.9736
 2.0790	47.9603
 2.0780	47.9065
 2.0770	47.9196
 2.0760	47.8450
 2.0750	47.7361
 2.0740	47.6616
 2.0730	47.6590
 2.0720	47.6146
 2.0710	47.5714
 2.0700	47.5578
 2.0690	47.4932
 2.0680	47.4254
 2.0670	47.3422
 2.0660	47.3039
 2.0650	47.2639
 2.0640	47.2028
 2.0630	47.1391
 2.0620	47.1097
 2.0610	47.0380
 2.0600	46.9479
 2.0590	46.8525
 2.0580	46.8219
 2.0570	46.7876
 2.0560	46.7398
 2.0550	46.6234
 2.0540	46.5002
 2.0530	46.3815
 2.0520	46.3476
 2.0510	46.2578
 2.0500	46.0781
 2.0490	46.0089
 2.0480	45.9815
 2.0470	45.8924
 2.0460	45.7927
 2.0450	45.6471
 2.0440	45.6083
 2.0430	45.4281
 2.0420	45.3424
 2.0410	45.2401
 2.0400	45.1163
 2.0390	44.9553
 2.0380	44.8894
 2.0370	44.8039
 2.0360	44.6480
 2.0350	44.5024
 2.0340	44.3756
 2.0330	44.2445
 2.0320	44.1282
 2.0310	44.0242
 2.0300	43.9410
 2.0290	43.8160
 2.0280	43.7107
 2.0270	43.5547
 2.0260	43.4870
 2.0250	43.3567
 2.0240	43.3129
 2.0230	43.1828
 2.0220	43.0415
 2.0210	42.9480
 2.0200	42.8833
 2.0190	42.8025
 2.0180	42.7872
 2.0170	42.6662
 2.0160	42.6100
 2.0150	42.5438
 2.0140	42.5128
 2.0130	42.4375
 2.0120	42.4635
 2.0110	42.3847
 2.0100	42.3482
 2.0090	42.2790
 2.0080	42.2546
 2.0070	42.2625
 2.0060	42.2245
 2.0050	42.2133
 2.0040	42.2699
 2.0030	42.2738
 2.0020	42.2487
 2.0010	42.2863
 2.0000	42.2851
 1.9990	42.2514
 1.9980	42.3409
 1.9970	42.3312
 1.9960	42.3349
 1.9950	42.3652
 1.9940	42.3679
 1.9930	42.4528
 1.9920	42.4676
 1.9910	42.5047
 1.9900	42.5054
 1.9890	42.5488
 1.9880	42.5865
 1.9870	42.6768
 1.9860	42.7209
 1.9850	42.6893
 1.9840	42.8084
 1.9830	42.8258
 1.9820	42.9333
 1.9810	42.9883
 1.9800	43.0260
 1.9790	43.0306
 1.9780	43.0762
 1.9770	43.0815
 1.9760	43.1126
 1.9750	43.1268
 1.9740	43.1975
 1.9730	43.1653
 1.9720	43.1803
 1.9710	43.1751
 1.9700	43.2126
 1.9690	43.2750
 1.9680	43.2964
 1.9670	43.2375
 1.9660	43.2428
 1.9650	43.2597
 1.9640	43.4045
 1.9630	43.3295
 1.9620	43.3989
 1.9610	43.3558
 1.9600	43.3299
 1.9590	43.3625
 1.9580	43.3199
 1.9570	43.3573
 1.9560	43.3610
 1.9550	43.3459
 1.9540	43.3785
 1.9530	43.4722
 1.9520	43.4405
 1.9510	43.4150
 1.9500	43.3992
 1.9490	43.4993
 1.9480	43.5774
 1.9470	43.4729
 1.9460	43.5235
 1.9450	43.5533
 1.9440	43.6109
 1.9430	43.5022
 1.9420	43.6110
 1.9410	43.4840
 1.9400	43.6006
 1.9390	43.4999
 1.9380	43.5780
 1.9370	43.4841
 1.9360	43.5110
 1.9350	43.5222
 1.9340	43.4849
 1.9330	43.5265
 1.9320	43.4472
 1.9310	43.4704
 1.9300	43.4910
 1.9290	43.3943
 1.9280	43.4238
 1.9270	43.3514
 1.9260	43.2010
 1.9250	43.3342
 1.9240	43.2395
 1.9230	43.1900
 1.9220	43.2318
 1.9210	43.2329
 1.9200	43.1807
 1.9190	43.1356
 1.9180	43.0995
 1.9170	43.0950
 1.9160	43.0875
 1.9150	43.0304
 1.9140	43.0159
 1.9130	42.9657
 1.9120	42.8892
 1.9110	42.8818
 1.9100	42.9226
 1.9090	42.8370
 1.9080	42.8416
 1.9070	42.7959
 1.9060	42.7805
 1.9050	42.6845
 1.9040	42.7960
 1.9030	42.7299
 1.9020	42.7993
 1.9010	42.7888
 1.9000	42.7069
 1.8990	42.6646
 1.8980	42.6610
 1.8970	42.6455
 1.8960	42.6347
 1.8950	42.6098
 1.8940	42.6783
 1.8930	42.5655
 1.8920	42.5993
 1.8910	42.6168
 1.8900	42.5826
 1.8890	42.5152
 1.8880	42.5561
 1.8870	42.5339
 1.8860	42.5190
 1.8850	42.4879
 1.8840	42.4821
 1.8830	42.4554
 1.8820	42.4419
 1.8810	42.4267
 1.8800	42.4602
 1.8790	42.4241
 1.8780	42.4343
 1.8770	42.3514
 1.8760	42.4886
 1.8750	42.3156
 1.8740	42.3700
 1.8730	42.3235
 1.8720	42.4537
 1.8710	42.3831
 1.8700	42.3769
 1.8690	42.3779
 1.8680	42.4506
 1.8670	42.3720
 1.8660	42.3815
 1.8650	42.4139
 1.8640	42.4315
 1.8630	42.3955
 1.8620	42.3937
 1.8610	42.3504
 1.8600	42.3316
 1.8590	42.2774
 1.8580	42.3274
 1.8570	42.3710
 1.8560	42.3290
 1.8550	42.3531
 1.8540	42.3313
 1.8530	42.2773
 1.8520	42.2931
 1.8510	42.3174
 1.8500	42.3279
 1.8490	42.2544
 1.8480	42.2458
 1.8470	42.2057
 1.8460	42.2325
 1.8450	42.1835
 1.8440	42.2507
 1.8430	42.1746
 1.8420	42.1773
 1.8410	42.1250
 1.8400	42.0650
 1.8390	42.0792
 1.8380	42.0604
 1.8370	42.0008
 1.8360	42.0217
 1.8350	41.9577
 1.8340	41.9180
 1.8330	41.8958
 1.8320	41.9476
 1.8310	41.8572
 1.8300	41.8139
 1.8290	41.8042
 1.8280	41.7947
 1.8270	41.7297
 1.8260	41.7169
 1.8250	41.7056
 1.8240	41.6947
 1.8230	41.6460
 1.8220	41.6768
 1.8210	41.5299
 1.8200	41.4702
 1.8190	41.5003
 1.8180	41.5338
 1.8170	41.5347
 1.8160	41.4921
 1.8150	41.4409
 1.8140	41.4263
 1.8130	41.3627
 1.8120	41.3970
 1.8110	41.3453
 1.8100	41.2614
 1.8090	41.2684
 1.8080	41.2733
 1.8070	41.2076
 1.8060	41.1856
 1.8050	41.1847
 1.8040	41.1207
 1.8030	41.0895
 1.8020	41.0559
 1.8010	41.0433
 1.8000	41.0557
 1.7990	41.0079
 1.7980	40.9481
 1.7970	40.9539
 1.7960	40.9250
 1.7950	40.8600
 1.7940	40.7982
 1.7930	40.7230
 1.7920	40.7244
 1.7910	40.7650
 1.7900	40.7272
 1.7890	40.6312
 1.7880	40.5700
 1.7870	40.5459
 1.7860	40.5382
 1.7850	40.4939
 1.7840	40.4141
 1.7830	40.4181
 1.7820	40.4395
 1.7810	40.3439
 1.7800	40.2884
 1.7790	40.2373
 1.7780	40.1880
 1.7770	40.1630
 1.7760	40.0958
 1.7750	40.0557
 1.7740	40.0127
 1.7730	40.0088
 1.7720	39.9573
 1.7710	39.9115
 1.7700	39.8791
 1.7690	39.8398
 1.7680	39.7938
 1.7670	39.7589
 1.7660	39.7083
 1.7650	39.7146
 1.7640	39.6294
 1.7630	39.5936
 1.7620	39.5819
 1.7610	39.5512
 1.7600	39.4689
 1.7590	39.4185
 1.7580	39.3867
 1.7570	39.3524
 1.7560	39.2897
 1.7550	39.2542
 1.7540	39.1765
 1.7530	39.1779
 1.7520	39.1204
 1.7510	39.0595
 1.7500	39.0206
 1.7490	39.0106
 1.7480	38.9957
 1.7470	38.9057
 1.7460	38.8593
 1.7450	38.8511
 1.7440	38.7494
 1.7430	38.6984
 1.7420	38.6439
 1.7410	38.6719
 1.7400	38.6184
 1.7390	38.5237
 1.7380	38.5062
 1.7370	38.5032
 1.7360	38.4700
 1.7350	38.4579
 1.7340	38.3333
 1.7330	38.2687
 1.7320	38.2277
 1.7310	38.1955
 1.7300	38.1683
 1.7290	38.0855
 1.7280	38.0278
 1.7270	38.0499
 1.7260	38.0085
 1.7250	37.9084
 1.7240	37.8756
 1.7230	37.8534
 1.7220	37.7625
 1.7210	37.7467
 1.7200	37.6386
 1.7190	37.6572
 1.7180	37.5791
 1.7170	37.5019
 1.7160	37.4874
 1.7150	37.4883
 1.7140	37.3643
 1.7130	37.3687
 1.7120	37.3459
 1.7110	37.2908
 1.7100	37.2068
 1.7090	37.1906
 1.7080	37.0966
 1.7070	37.0937
 1.7060	36.9881
 1.7050	36.9103
 1.7040	36.8965
 1.7030	36.8282
 1.7020	36.7752
 1.7010	36.7378
 1.7000	36.6843
 1.6990	36.6283
 1.6980	36.5827
 1.6970	36.5328
 1.6960	36.4918
 1.6950	36.4299
 1.6940	36.3565
 1.6930	36.3431
 1.6920	36.2355
 1.6910	36.1863
 1.6900	36.1155
 1.6890	36.1491
 1.6880	36.0058
 1.6870	35.9486
 1.6860	35.9098
 1.6850	35.9124
 1.6840	35.7728
 1.6830	35.8437
 1.6820	35.7642
 1.6810	35.7119
 1.6800	35.5957
 1.6790	35.6028
 1.6780	35.4950
 1.6770	35.4655
 1.6760	35.3893
 1.6750	35.3772
 1.6740	35.2768
 1.6730	35.2301
 1.6720	35.1110
 1.6710	35.2196
 1.6700	35.0299
 1.6690	35.0908
 1.6680	34.9293
 1.6670	34.9871
 1.6660	34.8709
 1.6650	34.7992
 1.6640	34.7655
 1.6630	34.7420
 1.6620	34.6235
 1.6610	34.5337
 1.6600	34.5239
 1.6590	34.5044
 1.6580	34.3811
 1.6570	34.3817
 1.6560	34.2925
 1.6550	34.2926
 1.6540	34.1181
 1.6530	34.2209
 1.6520	34.0785
 1.6510	34.0866
 1.6500	33.9766
 1.6490	33.9578
 1.6480	33.8187
 1.6470	33.8218
 1.6460	33.6559
 1.6450	33.7182
 1.6440	33.6040
 1.6430	33.6276
 1.6420	33.5178
 1.6410	33.3748
 1.6400	33.3679
 1.6390	33.3837
 1.6380	33.2824
 1.6370	33.2057
 1.6360	33.1940
 1.6350	33.1004
 1.6340	33.0194
 1.6330	33.0889
 1.6320	32.9338
 1.6310	32.8816
 1.6300	32.7891
 1.6290	32.8085
 1.6280	32.6898
 1.6270	32.7223
 1.6260	32.5900
 1.6250	32.5220
 1.6240	32.4547
 1.6230	32.4204
 1.6220	32.3314
 1.6210	32.3068
 1.6200	32.2017
 1.6190	32.2276
 1.6180	32.0620
 1.6170	32.0733
 1.6160	31.9821
 1.6150	31.9461
 1.6140	31.8262
 1.6130	31.8166
 1.6120	31.7053
 1.6110	31.7247
 1.6100	31.6331
 1.6090	31.5864
 1.6080	31.5058
 1.6070	31.4597
 1.6060	31.4434
 1.6050	31.3874
 1.6040	31.2469
 1.6030	31.1641
 1.6020	31.0883
 1.6010	31.1429
 1.6000	30.9909
 1.5990	31.0286
 1.5980	30.9424
 1.5970	30.9507
 1.5960	30.7936
 1.5950	30.7802
 1.5940	30.7267
 1.5930	30.6626
 1.5920	30.5421
 1.5910	30.5227
 1.5900	30.4730
 1.5890	30.4096
 1.5880	30.3448
 1.5870	30.3478
 1.5860	30.2655
 1.5850	30.1752
 1.5840	30.1022
 1.5830	30.1339
 1.5820	30.0648
 1.5810	29.9548
 1.5800	29.8872
 1.5790	29.8354
 1.5780	29.7579
 1.5770	29.8086
 1.5760	29.6660
 1.5750	29.6187
 1.5740	29.6182
 1.5730	29.5503
 1.5720	29.4512
 1.5710	29.4601
 1.5700	29.4176
 1.5690	29.3125
 1.5680	29.2671
 1.5670	29.2994
 1.5660	29.1830
 1.5650	29.1212
 1.5640	29.0469
 1.5630	29.0743
 1.5620	28.9852
 1.5610	28.9401
 1.5600	28.8978
 1.5590	28.8513
 1.5580	28.7839
 1.5570	28.7979
 1.5560	28.6981
 1.5550	28.6304
 1.5540	28.6167
 1.5530	28.5651
 1.5520	28.5506
 1.5510	28.4801
 1.5500	28.4316
 1.5490	28.4136
 1.5480	28.2788
 1.5470	28.2850
 1.5460	28.2406
 1.5450	28.2127
 1.5440	28.2098
 1.5430	28.1847
 1.5420	28.0532
 1.5410	28.0574
 1.5400	28.0745
 1.5390	27.9897
 1.5380	27.8849
 1.5370	27.8629
 1.5360	27.8383
 1.5350	27.8090
 1.5340	27.7837
 1.5330	27.7970
 1.5320	27.7585
 1.5310	27.7176
 1.5300	27.7054
 1.5290	27.6489
 1.5280	27.6088
 1.5270	27.5745
 1.5260	27.5197
 1.5250	27.4921
 1.5240	27.4680
 1.5230	27.3956
 1.5220	27.3444
 1.5210	27.3584
 1.5200	27.2843
 1.5190	27.2693
 1.5180	27.2699
 1.5170	27.2226
 1.5160	27.2299
 1.5150	27.1553
 1.5140	27.0931
 1.5130	27.0496
 1.5120	26.9885
 1.5110	27.0035
 1.5100	26.9716
 1.5090	26.9118
 1.5080	26.8672
 1.5070	26.8508
 1.5060	26.8657
 1.5050	26.8452
 1.5040	26.7414
 1.5030	26.6991
 1.5020	26.6677
 1.5010	26.6122
 1.5000	26.5446
 1.4990	26.4995
 1.4980	26.4751
 1.4970	26.4722
 1.4960	26.4271
 1.4950	26.3667
 1.4940	26.3108
 1.4930	26.2450
 1.4920	26.2378
 1.4910	26.2143
 1.4900	26.1883
 1.4890	26.1612
 1.4880	26.1132
 1.4870	26.0048
 1.4860	25.9124
 1.4850	25.9153
 1.4840	25.8945
 1.4830	25.8244
 1.4820	25.7879
 1.4810	25.7297
 1.4800	25.6929
 1.4790	25.6507
 1.4780	25.5760
 1.4770	25.4966
 1.4760	25.4909
 1.4750	25.4234
 1.4740	25.3580
 1.4730	25.3072
 1.4720	25.2574
 1.4710	25.1835
 1.4700	25.1020
 1.4690	25.0787
 1.4680	25.0201
 1.4670	24.9565
 1.4660	24.9534
 1.4650	24.9122
 1.4640	24.8021
 1.4630	24.6915
 1.4620	24.7025
 1.4610	24.6464
 1.4600	24.5859
 1.4590	24.5287
 1.4580	24.4717
 1.4570	24.3981
 1.4560	24.3273
 1.4550	24.2689
 1.4540	24.2571
 1.4530	24.2422
 1.4520	24.1740
 1.4510	24.1000
 1.4500	24.0001
 1.4490	23.9758
 1.4480	23.9884
 1.4470	23.9337
 1.4460	23.9089
 1.4450	23.8485
 1.4440	23.8045
 1.4430	23.7283
 1.4420	23.7419
 1.4410	23.6678
 1.4400	23.7289
 1.4390	23.6268
 1.4380	23.6386
 1.4370	23.5489
 1.4360	23.5640
 1.4350	23.5111
 1.4340	23.5804
 1.4330	23.5219
 1.4320	23.4768
 1.4310	23.3455
 1.4300	23.3914
 1.4290	23.3335
 1.4280	23.2409
 1.4270	23.1244
 1.4260	23.0977
 1.4250	22.9162
 1.4240	22.7749
 1.4230	22.6639
 1.4220	22.4816
 1.4210	22.1043
 1.4200	21.7188
 1.4190	21.2559
 1.4180	20.9454
 1.4170	20.4609
 1.4160	20.1132
 1.4150	19.8010
 1.4140	19.6018
 1.4130	19.5534
 1.4120	19.7160
 1.4110	19.8521
 1.4100	20.1047
 1.4090	20.1625
 1.4080	20.2536
 1.4070	20.3273
 1.4060	20.5065
 1.4050	20.6235
 1.4040	20.7938
 1.4030	20.9859
 1.4020	21.2385
 1.4010	21.4439
 1.4000	21.5515
 1.3990	21.6255
 1.3980	21.8236
 1.3970	21.8617
 1.3960	21.9245
 1.3950	21.9324
 1.3940	21.9502
 1.3930	21.9512
 1.3920	21.9329
 1.3910	21.9169
 1.3900	21.9754
 1.3890	21.8975
 1.3880	21.9640
 1.3870	21.8522
 1.3860	21.9014
 1.3850	21.6789
 1.3840	21.8128
 1.3830	21.5736
 1.3820	21.5930
 1.3810	21.5198
 1.3800	21.5438
 1.3790	21.4454
 1.3780	21.4391
 1.3770	21.4299
 1.3760	21.3875
 1.3750	21.3449
 1.3740	21.3270
 1.3730	21.1485
 1.3720	21.1073
 1.3710	21.1200
 1.3700	20.9869
 1.3690	21.0170
 1.3680	20.9151
 1.3670	20.8023
 1.3660	20.8227
