Name: Azurite Cu_3(CO_3)_2(OH)_2
Type: Mineral
Class: Carbonate
Subclass: None
Particle Size: Fine
Sample No.: C-12A
Owner: JPL
Wavelength Range: VSWIR
Origin: USA, California, San Bernadino County, Near Valley Wells.
Collection Date: N/A
Description: Particle size was 0-45um.Collected by:  Burminco Original ASTER Spectral Library name was jpl.perkin.mineral.carbonate.none.fine.c12a.spectrum.txt
Measurement: Hemispherical reflectance
First Column: X
Second Column: Y
X Units: Wavelength (micrometers)
Y Units:Reflectance (percent)
First X Value:  2.5000
Last X Value:  0.4000
Number of X Values: 2101
Additional Information: mineral.carbonate.none.fine.vswir.c-12a.jpl.perkin.ancillary.txt

 2.5000	41.1277
 2.4990	40.9890
 2.4980	40.9596
 2.4970	41.1887
 2.4960	40.8957
 2.4950	41.1294
 2.4940	41.0334
 2.4930	41.1715
 2.4920	41.1428
 2.4910	41.3784
 2.4900	41.1651
 2.4890	41.4473
 2.4880	41.3575
 2.4870	41.7727
 2.4860	41.4963
 2.4850	41.6721
 2.4840	41.7583
 2.4830	41.9429
 2.4820	41.8796
 2.4810	42.0425
 2.4800	42.0182
 2.4790	42.0539
 2.4780	42.0270
 2.4770	42.2415
 2.4760	42.2311
 2.4750	42.4017
 2.4740	42.4958
 2.4730	42.6442
 2.4720	42.5045
 2.4710	42.7102
 2.4700	42.7003
 2.4690	42.8602
 2.4680	42.8087
 2.4670	42.9277
 2.4660	42.9035
 2.4650	43.1295
 2.4640	43.1457
 2.4630	43.3521
 2.4620	43.2666
 2.4610	43.4548
 2.4600	43.3650
 2.4590	43.4654
 2.4580	43.4548
 2.4570	43.5334
 2.4560	43.5919
 2.4550	43.6805
 2.4540	43.6168
 2.4530	43.8196
 2.4520	43.7768
 2.4510	43.8787
 2.4500	43.9236
 2.4490	43.9637
 2.4480	43.9421
 2.4470	44.0923
 2.4460	44.1574
 2.4450	44.2519
 2.4440	44.1762
 2.4430	44.3980
 2.4420	44.3078
 2.4410	44.4320
 2.4400	44.4696
 2.4390	44.5930
 2.4380	44.6146
 2.4370	44.7156
 2.4360	44.6712
 2.4350	44.7366
 2.4340	44.7962
 2.4330	44.9584
 2.4320	44.9294
 2.4310	45.0840
 2.4300	45.0092
 2.4290	45.0538
 2.4280	45.0990
 2.4270	45.1155
 2.4260	45.1042
 2.4250	45.2736
 2.4240	45.2865
 2.4230	45.2825
 2.4220	45.4452
 2.4210	45.5011
 2.4200	45.4235
 2.4190	45.3874
 2.4180	45.4666
 2.4170	45.6145
 2.4160	45.5805
 2.4150	45.6244
 2.4140	45.6182
 2.4130	45.6611
 2.4120	45.6747
 2.4110	45.6628
 2.4100	45.6941
 2.4090	45.7593
 2.4080	45.7632
 2.4070	45.8213
 2.4060	45.8377
 2.4050	45.8220
 2.4040	45.8875
 2.4030	45.9852
 2.4020	45.9580
 2.4010	45.9856
 2.4000	46.0455
 2.3990	46.0289
 2.3980	46.0636
 2.3970	46.1447
 2.3960	46.1776
 2.3950	46.2758
 2.3940	46.2912
 2.3930	46.3306
 2.3920	46.3753
 2.3910	46.4128
 2.3900	46.4261
 2.3890	46.4971
 2.3880	46.5548
 2.3870	46.5739
 2.3860	46.5968
 2.3850	46.7021
 2.3840	46.7579
 2.3830	46.7925
 2.3820	46.8171
 2.3810	46.8369
 2.3800	46.8773
 2.3790	46.9247
 2.3780	46.9215
 2.3770	47.0446
 2.3760	47.1075
 2.3750	47.0807
 2.3740	47.0584
 2.3730	47.0488
 2.3720	46.9712
 2.3710	46.9033
 2.3700	46.8064
 2.3690	46.6373
 2.3680	46.5027
 2.3670	46.4488
 2.3660	46.2656
 2.3650	46.0155
 2.3640	45.7388
 2.3630	45.5037
 2.3620	45.2629
 2.3610	44.9961
 2.3600	44.7645
 2.3590	44.5258
 2.3580	44.2709
 2.3570	44.0319
 2.3560	43.8559
 2.3550	43.7121
 2.3540	43.5454
 2.3530	43.4370
 2.3520	43.3979
 2.3510	43.4183
 2.3500	43.4646
 2.3490	43.5334
 2.3480	43.6893
 2.3470	43.8514
 2.3460	44.0549
 2.3450	44.3169
 2.3440	44.5607
 2.3430	44.8831
 2.3420	45.2971
 2.3410	45.6495
 2.3400	46.0097
 2.3390	46.4520
 2.3380	46.8771
 2.3370	47.2924
 2.3360	47.7150
 2.3350	48.1237
 2.3340	48.5076
 2.3330	48.8806
 2.3320	49.3089
 2.3310	49.6769
 2.3300	49.9908
 2.3290	50.3294
 2.3280	50.6989
 2.3270	50.9772
 2.3260	51.2702
 2.3250	51.5091
 2.3240	51.7564
 2.3230	51.9242
 2.3220	52.1518
 2.3210	52.2900
 2.3200	52.4243
 2.3190	52.5295
 2.3180	52.6244
 2.3170	52.6787
 2.3160	52.7378
 2.3150	52.7539
 2.3140	52.7625
 2.3130	52.7876
 2.3120	52.8291
 2.3110	52.7179
 2.3100	52.7154
 2.3090	52.6625
 2.3080	52.6368
 2.3070	52.5302
 2.3060	52.3910
 2.3050	52.2586
 2.3040	52.0985
 2.3030	51.9472
 2.3020	51.8076
 2.3010	51.5487
 2.3000	51.3413
 2.2990	51.0838
 2.2980	50.7881
 2.2970	50.4921
 2.2960	50.1942
 2.2950	49.8088
 2.2940	49.4606
 2.2930	49.0948
 2.2920	48.7970
 2.2910	48.4167
 2.2900	48.1461
 2.2890	47.7971
 2.2880	47.4662
 2.2870	47.1935
 2.2860	46.9839
 2.2850	46.8257
 2.2840	46.6498
 2.2830	46.5406
 2.2820	46.5125
 2.2810	46.4730
 2.2800	46.5609
 2.2790	46.5642
 2.2780	46.7169
 2.2770	46.9201
 2.2760	47.0158
 2.2750	47.1852
 2.2740	47.4929
 2.2730	47.6916
 2.2720	47.9663
 2.2710	48.1996
 2.2700	48.5141
 2.2690	48.7423
 2.2680	48.9697
 2.2670	49.1920
 2.2660	49.4202
 2.2650	49.6232
 2.2640	49.7577
 2.2630	49.9143
 2.2620	50.0628
 2.2610	50.1741
 2.2600	50.4015
 2.2590	50.4211
 2.2580	50.6185
 2.2570	50.7087
 2.2560	50.8674
 2.2550	50.9184
 2.2540	51.1443
 2.2530	51.2541
 2.2520	51.5095
 2.2510	51.6107
 2.2500	51.7709
 2.2490	51.8780
 2.2480	52.2143
 2.2470	52.3402
 2.2460	52.6411
 2.2450	52.8150
 2.2440	52.9886
 2.2430	53.2514
 2.2420	53.6093
 2.2410	53.7283
 2.2400	53.9808
 2.2390	54.2799
 2.2380	54.4827
 2.2370	54.7063
 2.2360	55.0390
 2.2350	55.1756
 2.2340	55.3433
 2.2330	55.5498
 2.2320	55.7205
 2.2310	55.9278
 2.2300	56.1455
 2.2290	56.2932
 2.2280	56.4747
 2.2270	56.5159
 2.2260	56.7391
 2.2250	56.8040
 2.2240	56.9324
 2.2230	56.9662
 2.2220	57.0818
 2.2210	57.0622
 2.2200	57.2546
 2.2190	57.1988
 2.2180	57.3129
 2.2170	57.2027
 2.2160	57.3226
 2.2150	57.3068
 2.2140	57.3718
 2.2130	57.3027
 2.2120	57.5009
 2.2110	57.2854
 2.2100	57.4803
 2.2090	57.4728
 2.2080	57.6592
 2.2070	57.6932
 2.2060	57.8649
 2.2050	58.0028
 2.2040	58.1411
 2.2030	58.3166
 2.2020	58.5613
 2.2010	58.6307
 2.2000	58.9267
 2.1990	59.0577
 2.1980	59.2918
 2.1970	59.4393
 2.1960	59.6458
 2.1950	59.7249
 2.1940	59.8774
 2.1930	60.0272
 2.1920	60.1631
 2.1910	60.2575
 2.1900	60.3973
 2.1890	60.4262
 2.1880	60.4733
 2.1870	60.5790
 2.1860	60.7405
 2.1850	60.7518
 2.1840	60.8187
 2.1830	60.8573
 2.1820	60.9711
 2.1810	60.9820
 2.1800	61.0791
 2.1790	61.1878
 2.1780	61.2677
 2.1770	61.3193
 2.1760	61.3948
 2.1750	61.4071
 2.1740	61.5359
 2.1730	61.6215
 2.1720	61.6907
 2.1710	61.7436
 2.1700	61.8396
 2.1690	61.8967
 2.1680	62.0539
 2.1670	62.0520
 2.1660	62.1336
 2.1650	62.2108
 2.1640	62.2773
 2.1630	62.2642
 2.1620	62.4605
 2.1610	62.5065
 2.1600	62.6130
 2.1590	62.5825
 2.1580	62.6980
 2.1570	62.7512
 2.1560	62.7937
 2.1550	62.8553
 2.1540	62.9354
 2.1530	62.9665
 2.1520	63.0666
 2.1510	63.0754
 2.1500	63.0877
 2.1490	63.1182
 2.1480	63.1744
 2.1470	63.1321
 2.1460	63.2041
 2.1450	63.2556
 2.1440	63.2935
 2.1430	63.2344
 2.1420	63.3056
 2.1410	63.3024
 2.1400	63.3470
 2.1390	63.3187
 2.1380	63.3151
 2.1370	63.2754
 2.1360	63.2921
 2.1350	63.2483
 2.1340	63.2713
 2.1330	63.2821
 2.1320	63.2488
 2.1310	63.2459
 2.1300	63.2734
 2.1290	63.2089
 2.1280	63.2059
 2.1270	63.0947
 2.1260	63.0697
 2.1250	63.0468
 2.1240	63.0172
 2.1230	62.9488
 2.1220	62.9327
 2.1210	62.7978
 2.1200	62.7907
 2.1190	62.7404
 2.1180	62.6853
 2.1170	62.5912
 2.1160	62.5197
 2.1150	62.4669
 2.1140	62.4185
 2.1130	62.4039
 2.1120	62.3670
 2.1110	62.2598
 2.1100	62.1789
 2.1090	62.1135
 2.1080	62.0565
 2.1070	62.0041
 2.1060	61.9584
 2.1050	61.8743
 2.1040	61.8502
 2.1030	61.8154
 2.1020	61.8097
 2.1010	61.7754
 2.1000	61.7285
 2.0990	61.6917
 2.0980	61.6497
 2.0970	61.6073
 2.0960	61.6166
 2.0950	61.6224
 2.0940	61.6111
 2.0930	61.5704
 2.0920	61.5266
 2.0910	61.4881
 2.0900	61.4797
 2.0890	61.4864
 2.0880	61.4787
 2.0870	61.4325
 2.0860	61.4149
 2.0850	61.3068
 2.0840	61.2965
 2.0830	61.3036
 2.0820	61.2721
 2.0810	61.2502
 2.0800	61.1767
 2.0790	61.1253
 2.0780	61.1098
 2.0770	61.0664
 2.0760	61.0122
 2.0750	60.9823
 2.0740	60.9225
 2.0730	60.8499
 2.0720	60.7874
 2.0710	60.7196
 2.0700	60.6744
 2.0690	60.6033
 2.0680	60.5399
 2.0670	60.4856
 2.0660	60.4194
 2.0650	60.3478
 2.0640	60.2645
 2.0630	60.1932
 2.0620	60.1365
 2.0610	60.1052
 2.0600	59.9899
 2.0590	59.9604
 2.0580	59.9109
 2.0570	59.8376
 2.0560	59.8046
 2.0550	59.7926
 2.0540	59.6667
 2.0530	59.5502
 2.0520	59.5440
 2.0510	59.4680
 2.0500	59.3611
 2.0490	59.2975
 2.0480	59.2163
 2.0470	59.1668
 2.0460	59.0467
 2.0450	58.9379
 2.0440	58.9224
 2.0430	58.8945
 2.0420	58.7571
 2.0410	58.7475
 2.0400	58.6920
 2.0390	58.6230
 2.0380	58.5401
 2.0370	58.5106
 2.0360	58.4362
 2.0350	58.4168
 2.0340	58.3676
 2.0330	58.2990
 2.0320	58.2323
 2.0310	58.1077
 2.0300	57.9662
 2.0290	57.8783
 2.0280	57.8607
 2.0270	57.7603
 2.0260	57.6383
 2.0250	57.5548
 2.0240	57.4731
 2.0230	57.5173
 2.0220	57.3695
 2.0210	57.3023
 2.0200	57.2287
 2.0190	57.1297
 2.0180	57.0459
 2.0170	56.9894
 2.0160	56.8416
 2.0150	56.7946
 2.0140	56.6674
 2.0130	56.6096
 2.0120	56.4404
 2.0110	56.3814
 2.0100	56.2360
 2.0090	56.1646
 2.0080	56.0284
 2.0070	55.9387
 2.0060	55.8842
 2.0050	55.7799
 2.0040	55.5588
 2.0030	55.5569
 2.0020	55.4402
 2.0010	55.3420
 2.0000	55.1995
 1.9990	55.0747
 1.9980	54.9262
 1.9970	54.8112
 1.9960	54.6469
 1.9950	54.5677
 1.9940	54.3557
 1.9930	54.3249
 1.9920	54.1191
 1.9910	54.0071
 1.9900	53.8856
 1.9890	53.7813
 1.9880	53.6349
 1.9870	53.4814
 1.9860	53.3091
 1.9850	53.2403
 1.9840	53.0662
 1.9830	53.0135
 1.9820	52.8115
 1.9810	52.6991
 1.9800	52.5736
 1.9790	52.4975
 1.9780	52.2928
 1.9770	52.2755
 1.9760	52.1362
 1.9750	52.0286
 1.9740	51.8210
 1.9730	51.8292
 1.9720	51.6021
 1.9710	51.5735
 1.9700	51.3705
 1.9690	51.3344
 1.9680	51.2037
 1.9670	51.1191
 1.9660	51.0114
 1.9650	50.8757
 1.9640	50.7406
 1.9630	50.7645
 1.9620	50.5578
 1.9610	50.4589
 1.9600	50.3251
 1.9590	50.3017
 1.9580	50.1154
 1.9570	50.1063
 1.9560	49.9444
 1.9550	49.8989
 1.9540	49.7411
 1.9530	49.7101
 1.9520	49.5876
 1.9510	49.5187
 1.9500	49.4048
 1.9490	49.2941
 1.9480	49.1711
 1.9470	49.1396
 1.9460	48.9791
 1.9450	48.8963
 1.9440	48.7902
 1.9430	48.7442
 1.9420	48.6023
 1.9410	48.4869
 1.9400	48.3703
 1.9390	48.3797
 1.9380	48.1926
 1.9370	48.0958
 1.9360	47.8957
 1.9350	47.9269
 1.9340	47.7483
 1.9330	47.6692
 1.9320	47.5295
 1.9310	47.4210
 1.9300	47.2332
 1.9290	47.2703
 1.9280	46.9676
 1.9270	47.0497
 1.9260	46.6371
 1.9250	46.6873
 1.9240	46.4671
 1.9230	46.3189
 1.9220	46.1872
 1.9210	46.0976
 1.9200	45.9207
 1.9190	45.8648
 1.9180	45.6856
 1.9170	45.6275
 1.9160	45.4710
 1.9150	45.4496
 1.9140	45.3589
 1.9130	45.3359
 1.9120	45.1982
 1.9110	45.2820
 1.9100	45.3349
 1.9090	45.5061
 1.9080	45.5437
 1.9070	45.7204
 1.9060	45.9008
 1.9050	46.2350
 1.9040	46.5847
 1.9030	47.0660
 1.9020	47.5005
 1.9010	47.9503
 1.9000	48.4641
 1.8990	49.1572
 1.8980	49.7131
 1.8970	50.4692
 1.8960	51.0783
 1.8950	51.7604
 1.8940	52.3414
 1.8930	53.0319
 1.8920	53.6824
 1.8910	54.3450
 1.8900	54.9738
 1.8890	55.6812
 1.8880	56.2175
 1.8870	56.8807
 1.8860	57.4388
 1.8850	57.9553
 1.8840	58.4168
 1.8830	59.0266
 1.8820	59.4274
 1.8810	59.9126
 1.8800	60.3771
 1.8790	60.8065
 1.8780	61.1288
 1.8770	61.5309
 1.8760	61.8971
 1.8750	62.2661
 1.8740	62.5213
 1.8730	62.8826
 1.8720	63.2470
 1.8710	63.5876
 1.8700	63.8763
 1.8690	64.1195
 1.8680	64.3654
 1.8670	64.5729
 1.8660	64.6876
 1.8650	64.8678
 1.8640	65.0410
 1.8630	65.2169
 1.8620	65.2573
 1.8610	65.3446
 1.8600	65.4663
 1.8590	65.5545
 1.8580	65.5877
 1.8570	65.7128
 1.8560	65.7606
 1.8550	65.7928
 1.8540	65.8168
 1.8530	65.9437
 1.8520	65.9829
 1.8510	66.0182
 1.8500	66.0110
 1.8490	66.0601
 1.8480	66.0603
 1.8470	66.0961
 1.8460	66.0574
 1.8450	66.1923
 1.8440	66.1957
 1.8430	66.1870
 1.8420	66.2227
 1.8410	66.2083
 1.8400	66.2329
 1.8390	66.2461
 1.8380	66.2063
 1.8370	66.2425
 1.8360	66.2261
 1.8350	66.2584
 1.8340	66.2575
 1.8330	66.2505
 1.8320	66.1969
 1.8310	66.2067
 1.8300	66.1971
 1.8290	66.1974
 1.8280	66.2243
 1.8270	66.2532
 1.8260	66.2043
 1.8250	66.2049
 1.8240	66.1900
 1.8230	66.1809
 1.8220	66.1504
 1.8210	66.0951
 1.8200	66.0432
 1.8190	66.0749
 1.8180	66.1185
 1.8170	66.0964
 1.8160	66.0645
 1.8150	66.0726
 1.8140	66.0801
 1.8130	66.0591
 1.8120	65.9464
 1.8110	65.9584
 1.8100	66.0127
 1.8090	66.0025
 1.8080	65.9442
 1.8070	65.9380
 1.8060	65.8911
 1.8050	65.8773
 1.8040	65.8505
 1.8030	65.8457
 1.8020	65.8362
 1.8010	65.8140
 1.8000	65.8242
 1.7990	65.7990
 1.7980	65.7575
 1.7970	65.7372
 1.7960	65.7145
 1.7950	65.6934
 1.7940	65.6701
 1.7930	65.6404
 1.7920	65.6161
 1.7910	65.6074
 1.7900	65.5913
 1.7890	65.5287
 1.7880	65.5183
 1.7870	65.5433
 1.7860	65.5074
 1.7850	65.4425
 1.7840	65.4024
 1.7830	65.4083
 1.7820	65.4197
 1.7810	65.3750
 1.7800	65.3500
 1.7790	65.3218
 1.7780	65.3235
 1.7770	65.3247
 1.7760	65.2975
 1.7750	65.3174
 1.7740	65.2924
 1.7730	65.2749
 1.7720	65.2978
 1.7710	65.2821
 1.7700	65.2686
 1.7690	65.2393
 1.7680	65.2332
 1.7670	65.1744
 1.7660	65.1659
 1.7650	65.1524
 1.7640	65.1319
 1.7630	65.1078
 1.7620	65.1281
 1.7610	65.1528
 1.7600	65.1291
 1.7590	65.0784
 1.7580	65.0448
 1.7570	65.0479
 1.7560	65.0508
 1.7550	65.0038
 1.7540	65.0439
 1.7530	65.0212
 1.7520	65.0343
 1.7510	65.0002
 1.7500	64.9946
 1.7490	65.0075
 1.7480	65.0119
 1.7470	64.9616
 1.7460	64.9665
 1.7450	64.9240
 1.7440	64.9018
 1.7430	64.8733
 1.7420	64.8511
 1.7410	64.8723
 1.7400	64.8460
 1.7390	64.8305
 1.7380	64.8004
 1.7370	64.7482
 1.7360	64.7714
 1.7350	64.7286
 1.7340	64.7680
 1.7330	64.7661
 1.7320	64.7126
 1.7310	64.6837
 1.7300	64.7125
 1.7290	64.6277
 1.7280	64.6379
 1.7270	64.5721
 1.7260	64.5962
 1.7250	64.5600
 1.7240	64.5908
 1.7230	64.5213
 1.7220	64.5095
 1.7210	64.4741
 1.7200	64.4718
 1.7190	64.3859
 1.7180	64.4187
 1.7170	64.4059
 1.7160	64.3525
 1.7150	64.2950
 1.7140	64.3268
 1.7130	64.2405
 1.7120	64.2151
 1.7110	64.1473
 1.7100	64.2017
 1.7090	64.1247
 1.7080	64.1375
 1.7070	64.0712
 1.7060	64.0853
 1.7050	64.0443
 1.7040	63.9915
 1.7030	63.8639
 1.7020	63.9104
 1.7010	63.9010
 1.7000	63.9154
 1.6990	63.8277
 1.6980	63.7706
 1.6970	63.7583
 1.6960	63.7383
 1.6950	63.7115
 1.6940	63.7385
 1.6930	63.6516
 1.6920	63.6689
 1.6910	63.5303
 1.6900	63.5461
 1.6890	63.4757
 1.6880	63.4825
 1.6870	63.4480
 1.6860	63.4242
 1.6850	63.4049
 1.6840	63.3665
 1.6830	63.3034
 1.6820	63.2588
 1.6810	63.2824
 1.6800	63.1472
 1.6790	63.1542
 1.6780	63.1617
 1.6770	63.0501
 1.6760	63.1242
 1.6750	63.0035
 1.6740	63.0385
 1.6730	62.9716
 1.6720	62.9326
 1.6710	62.7957
 1.6700	62.9012
 1.6690	62.8942
 1.6680	62.7135
 1.6670	62.7364
 1.6660	62.7396
 1.6650	62.6057
 1.6640	62.6293
 1.6630	62.5557
 1.6620	62.5745
 1.6610	62.4386
 1.6600	62.4976
 1.6590	62.4244
 1.6580	62.4172
 1.6570	62.2518
 1.6560	62.2806
 1.6550	62.2055
 1.6540	62.2147
 1.6530	62.1637
 1.6520	62.1428
 1.6510	62.0747
 1.6500	62.0000
 1.6490	61.9457
 1.6480	62.0798
 1.6470	61.9055
 1.6460	61.9415
 1.6450	61.8352
 1.6440	61.8493
 1.6430	61.7116
 1.6420	61.8078
 1.6410	61.5973
 1.6400	61.7184
 1.6390	61.5103
 1.6380	61.5626
 1.6370	61.5329
 1.6360	61.4210
 1.6350	61.3625
 1.6340	61.3959
 1.6330	61.3053
 1.6320	61.2738
 1.6310	61.2197
 1.6300	61.1616
 1.6290	61.0898
 1.6280	61.1510
 1.6270	61.0288
 1.6260	61.0117
 1.6250	60.9210
 1.6240	60.9125
 1.6230	60.8669
 1.6220	60.8470
 1.6210	60.7107
 1.6200	60.6880
 1.6190	60.7006
 1.6180	60.6432
 1.6170	60.5622
 1.6160	60.5044
 1.6150	60.5252
 1.6140	60.4591
 1.6130	60.3574
 1.6120	60.3946
 1.6110	60.3150
 1.6100	60.2187
 1.6090	60.2349
 1.6080	60.2079
 1.6070	60.1095
 1.6060	60.0688
 1.6050	60.0100
 1.6040	59.9982
 1.6030	59.9242
 1.6020	59.8999
 1.6010	59.8462
 1.6000	59.7866
 1.5990	59.6981
 1.5980	59.7653
 1.5970	59.6705
 1.5960	59.6677
 1.5950	59.5147
 1.5940	59.5391
 1.5930	59.4965
 1.5920	59.4088
 1.5910	59.3130
 1.5900	59.3717
 1.5890	59.2552
 1.5880	59.2973
 1.5870	59.1917
 1.5860	59.1202
 1.5850	58.9697
 1.5840	58.9488
 1.5830	58.9250
 1.5820	58.9063
 1.5810	58.8560
 1.5800	58.8515
 1.5790	58.7000
 1.5780	58.7236
 1.5770	58.6504
 1.5760	58.6183
 1.5750	58.5190
 1.5740	58.5408
 1.5730	58.4174
 1.5720	58.4317
 1.5710	58.3040
 1.5700	58.2867
 1.5690	58.2124
 1.5680	58.1642
 1.5670	58.1250
 1.5660	58.1204
 1.5650	58.0085
 1.5640	57.9357
 1.5630	57.8685
 1.5620	57.8611
 1.5610	57.8558
 1.5600	57.7995
 1.5590	57.6911
 1.5580	57.6452
 1.5570	57.5318
 1.5560	57.5294
 1.5550	57.4598
 1.5540	57.3805
 1.5530	57.3027
 1.5520	57.2887
 1.5510	57.1716
 1.5500	57.0842
 1.5490	57.0597
 1.5480	57.0157
 1.5470	56.9308
 1.5460	56.9084
 1.5450	56.8095
 1.5440	56.7526
 1.5430	56.6594
 1.5420	56.6449
 1.5410	56.5896
 1.5400	56.5499
 1.5390	56.4130
 1.5380	56.3939
 1.5370	56.3138
 1.5360	56.2227
 1.5350	56.1393
 1.5340	56.1191
 1.5330	56.0836
 1.5320	55.9900
 1.5310	55.9016
 1.5300	55.8102
 1.5290	55.7549
 1.5280	55.7231
 1.5270	55.6252
 1.5260	55.5160
 1.5250	55.4581
 1.5240	55.4350
 1.5230	55.3444
 1.5220	55.2355
 1.5210	55.1788
 1.5200	55.1232
 1.5190	55.0484
 1.5180	54.9484
 1.5170	54.8271
 1.5160	54.7808
 1.5150	54.7147
 1.5140	54.6509
 1.5130	54.5477
 1.5120	54.4123
 1.5110	54.2871
 1.5100	54.2261
 1.5090	54.0903
 1.5080	53.9705
 1.5070	53.8030
 1.5060	53.6561
 1.5050	53.5539
 1.5040	53.4290
 1.5030	53.3536
 1.5020	53.2921
 1.5010	53.2039
 1.5000	53.1401
 1.4990	53.0841
 1.4980	53.0859
 1.4970	53.0188
 1.4960	52.9313
 1.4950	52.9134
 1.4940	52.8384
 1.4930	52.8102
 1.4920	52.7967
 1.4910	52.7666
 1.4900	52.7083
 1.4890	52.6940
 1.4880	52.7007
 1.4870	52.6282
 1.4860	52.5433
 1.4850	52.4908
 1.4840	52.4260
 1.4830	52.4518
 1.4820	52.4222
 1.4810	52.3429
 1.4800	52.2991
 1.4790	52.2336
 1.4780	52.1875
 1.4770	52.1846
 1.4760	52.1366
 1.4750	52.1309
 1.4740	52.0412
 1.4730	51.9990
 1.4720	51.9268
 1.4710	51.8984
 1.4700	51.7864
 1.4690	51.7364
 1.4680	51.7369
 1.4670	51.7050
 1.4660	51.5819
 1.4650	51.5117
 1.4640	51.4819
 1.4630	51.4973
 1.4620	51.4166
 1.4610	51.3659
 1.4600	51.3327
 1.4590	51.2795
 1.4580	51.2037
 1.4570	51.2281
 1.4560	51.1755
 1.4550	51.1062
 1.4540	51.0031
 1.4530	51.0380
 1.4520	50.9814
 1.4510	50.9401
 1.4500	50.8850
 1.4490	50.8423
 1.4480	50.7193
 1.4470	50.6627
 1.4460	50.6217
 1.4450	50.5797
 1.4440	50.4903
 1.4430	50.4988
 1.4420	50.3719
 1.4410	50.2927
 1.4400	50.2079
 1.4390	50.1798
 1.4380	50.0619
 1.4370	50.0094
 1.4360	49.8891
 1.4350	49.7861
 1.4340	49.7003
 1.4330	49.6455
 1.4320	49.5193
 1.4310	49.4314
 1.4300	49.3139
 1.4290	49.2630
 1.4280	49.0526
 1.4270	49.0267
 1.4260	48.8893
 1.4250	48.7552
 1.4240	48.5946
 1.4230	48.5395
 1.4220	48.3396
 1.4210	48.2530
 1.4200	48.0413
 1.4190	47.8493
 1.4180	47.6002
 1.4170	47.4192
 1.4160	47.1653
 1.4150	46.9855
 1.4140	46.8058
 1.4130	46.8838
 1.4120	46.8752
 1.4110	47.0508
 1.4100	47.1850
 1.4090	47.5010
 1.4080	47.6726
 1.4070	48.0150
 1.4060	48.1858
 1.4050	48.4557
 1.4040	48.5941
 1.4030	48.9735
 1.4020	49.0376
 1.4010	49.2954
 1.4000	49.4247
 1.3990	49.5544
 1.3980	49.6647
 1.3970	49.8171
 1.3960	49.9919
 1.3950	50.0518
 1.3940	49.9993
 1.3930	50.1868
 1.3920	50.1686
 1.3910	50.3450
 1.3900	50.3547
 1.3890	50.3768
 1.3880	50.3518
 1.3870	50.3847
 1.3860	50.4190
 1.3850	50.4722
 1.3840	50.4079
 1.3830	50.4734
 1.3820	50.3421
 1.3810	50.4561
 1.3800	50.3447
 1.3790	50.4787
 1.3780	50.5187
 1.3770	50.5472
 1.3760	50.5448
 1.3750	50.5328
 1.3740	50.5534
 1.3730	50.5302
 1.3720	50.5110
 1.3710	50.5776
 1.3700	50.5496
 1.3690	50.4811
 1.3680	50.4539
 1.3670	50.4769
