Name: Apatite Ca_5(PO_4)_3F
Type: Mineral
Class: Phosphate
Subclass: None
Particle Size: Coarse
Sample No.: P-1A
Owner: JPL
Wavelength Range: VSWIR
Origin: Canada, Ontario, Lanark County, Perth.
Collection Date: N/A
Description: Particle size was 125-500um. Collected by:  Ward's Original ASTER Spectral Library name was jpl.perkin.mineral.phosphate.none.coarse.p01a.spectrum.txt
Measurement: Hemispherical reflectance
First Column: X
Second Column: Y
X Units: Wavelength (micrometers)
Y Units:Reflectance (percent)
First X Value:  2.5000
Last X Value:  0.4000
Number of X Values: 2101
Additional Information: mineral.phosphate.none.coarse.vswir.p-1a.jpl.perkin.ancillary.txt

 2.5000	62.7136
 2.4990	62.6565
 2.4980	62.8453
 2.4970	62.9351
 2.4960	62.6608
 2.4950	62.8857
 2.4940	62.8361
 2.4930	63.0778
 2.4920	63.2170
 2.4910	63.3363
 2.4900	63.3689
 2.4890	63.5892
 2.4880	63.6031
 2.4870	63.7845
 2.4860	63.8115
 2.4850	63.9822
 2.4840	63.8573
 2.4830	64.0907
 2.4820	64.1757
 2.4810	64.3464
 2.4800	64.4078
 2.4790	64.4654
 2.4780	64.4128
 2.4770	64.5591
 2.4760	64.6463
 2.4750	64.7458
 2.4740	64.8259
 2.4730	65.0203
 2.4720	64.9146
 2.4710	65.1242
 2.4700	65.2396
 2.4690	65.3064
 2.4680	65.4690
 2.4670	65.6598
 2.4660	65.6112
 2.4650	65.7816
 2.4640	65.8042
 2.4630	65.7833
 2.4620	65.9135
 2.4610	66.1489
 2.4600	66.1843
 2.4590	66.3702
 2.4580	66.4876
 2.4570	66.5440
 2.4560	66.7013
 2.4550	66.7650
 2.4540	66.9374
 2.4530	67.0221
 2.4520	67.1224
 2.4510	67.1986
 2.4500	67.1588
 2.4490	67.3539
 2.4480	67.4036
 2.4470	67.5867
 2.4460	67.5215
 2.4450	67.7401
 2.4440	67.7447
 2.4430	67.8770
 2.4420	67.9468
 2.4410	67.9673
 2.4400	68.0279
 2.4390	68.1777
 2.4380	68.1525
 2.4370	68.2793
 2.4360	68.2172
 2.4350	68.3883
 2.4340	68.3624
 2.4330	68.4578
 2.4320	68.5146
 2.4310	68.4485
 2.4300	68.6094
 2.4290	68.6414
 2.4280	68.6605
 2.4270	68.7872
 2.4260	68.8938
 2.4250	68.9450
 2.4240	69.0160
 2.4230	69.1238
 2.4220	69.1585
 2.4210	69.1185
 2.4200	69.1628
 2.4190	69.3440
 2.4180	69.3626
 2.4170	69.4433
 2.4160	69.6111
 2.4150	69.4864
 2.4140	69.6018
 2.4130	69.6757
 2.4120	69.6635
 2.4110	69.7271
 2.4100	69.7663
 2.4090	69.9093
 2.4080	69.8531
 2.4070	69.8443
 2.4060	69.8425
 2.4050	69.9333
 2.4040	69.9165
 2.4030	69.8619
 2.4020	69.8294
 2.4010	69.8230
 2.4000	69.8493
 2.3990	69.9172
 2.3980	69.9488
 2.3970	69.9681
 2.3960	69.8468
 2.3950	69.8399
 2.3940	69.8937
 2.3930	69.9588
 2.3920	69.9089
 2.3910	69.9224
 2.3900	69.9461
 2.3890	69.9731
 2.3880	70.0066
 2.3870	70.0632
 2.3860	70.0782
 2.3850	70.1098
 2.3840	70.1068
 2.3830	70.2058
 2.3820	70.2913
 2.3810	70.3580
 2.3800	70.4235
 2.3790	70.4780
 2.3780	70.5530
 2.3770	70.7004
 2.3760	70.7806
 2.3750	70.8471
 2.3740	70.8983
 2.3730	70.9499
 2.3720	71.0308
 2.3710	71.0717
 2.3700	71.1233
 2.3690	71.1649
 2.3680	71.1709
 2.3670	71.2288
 2.3660	71.2831
 2.3650	71.3054
 2.3640	71.3240
 2.3630	71.2878
 2.3620	71.1995
 2.3610	71.1716
 2.3600	71.1532
 2.3590	71.1481
 2.3580	71.0993
 2.3570	71.0477
 2.3560	70.9762
 2.3550	70.8936
 2.3540	70.8283
 2.3530	70.8037
 2.3520	70.7266
 2.3510	70.6343
 2.3500	70.5904
 2.3490	70.4443
 2.3480	70.3604
 2.3470	70.4042
 2.3460	70.3832
 2.3450	70.2494
 2.3440	70.1402
 2.3430	70.1428
 2.3420	70.1710
 2.3410	70.1393
 2.3400	70.0658
 2.3390	70.0204
 2.3380	69.9525
 2.3370	69.9236
 2.3360	69.9465
 2.3350	69.8513
 2.3340	69.8260
 2.3330	69.8069
 2.3320	69.7452
 2.3310	69.6559
 2.3300	69.6226
 2.3290	69.5827
 2.3280	69.5266
 2.3270	69.4291
 2.3260	69.3194
 2.3250	69.2025
 2.3240	69.1598
 2.3230	69.0624
 2.3220	68.9349
 2.3210	68.8138
 2.3200	68.7344
 2.3190	68.6594
 2.3180	68.5782
 2.3170	68.5089
 2.3160	68.4547
 2.3150	68.3439
 2.3140	68.3162
 2.3130	68.3656
 2.3120	68.3644
 2.3110	68.4016
 2.3100	68.4832
 2.3090	68.5765
 2.3080	68.6243
 2.3070	68.7639
 2.3060	68.9475
 2.3050	69.0902
 2.3040	69.1742
 2.3030	69.3048
 2.3020	69.5094
 2.3010	69.6770
 2.3000	69.7691
 2.2990	69.9501
 2.2980	70.0142
 2.2970	70.1313
 2.2960	70.2901
 2.2950	70.3270
 2.2940	70.4565
 2.2930	70.5649
 2.2920	70.7101
 2.2910	70.8002
 2.2900	70.9057
 2.2890	71.0272
 2.2880	71.1011
 2.2870	71.3272
 2.2860	71.4782
 2.2850	71.6044
 2.2840	71.7846
 2.2830	71.9531
 2.2820	72.2077
 2.2810	72.3568
 2.2800	72.6018
 2.2790	72.7353
 2.2780	72.9484
 2.2770	73.1065
 2.2760	73.1805
 2.2750	73.3477
 2.2740	73.5806
 2.2730	73.7063
 2.2720	73.8071
 2.2710	73.9309
 2.2700	74.0587
 2.2690	74.1578
 2.2680	74.2760
 2.2670	74.3926
 2.2660	74.4323
 2.2650	74.4927
 2.2640	74.5997
 2.2630	74.6572
 2.2620	74.7681
 2.2610	74.7700
 2.2600	74.8570
 2.2590	74.8148
 2.2580	74.9677
 2.2570	75.0466
 2.2560	75.0604
 2.2550	75.0593
 2.2540	75.1868
 2.2530	75.1899
 2.2520	75.3297
 2.2510	75.3277
 2.2500	75.3278
 2.2490	75.3986
 2.2480	75.4773
 2.2470	75.4181
 2.2460	75.4537
 2.2450	75.4573
 2.2440	75.5828
 2.2430	75.6095
 2.2420	75.7399
 2.2410	75.7448
 2.2400	75.6801
 2.2390	75.7415
 2.2380	75.7287
 2.2370	75.7450
 2.2360	75.7822
 2.2350	75.7174
 2.2340	75.8530
 2.2330	75.7726
 2.2320	75.8717
 2.2310	75.7901
 2.2300	75.8561
 2.2290	75.7846
 2.2280	75.9006
 2.2270	75.9465
 2.2260	75.8690
 2.2250	76.0472
 2.2240	75.9506
 2.2230	76.0821
 2.2220	76.0667
 2.2210	76.0394
 2.2200	76.1427
 2.2190	76.0272
 2.2180	76.1841
 2.2170	76.2214
 2.2160	76.2236
 2.2150	76.3206
 2.2140	76.2366
 2.2130	76.2317
 2.2120	76.4432
 2.2110	76.3274
 2.2100	76.4545
 2.2090	76.4438
 2.2080	76.5063
 2.2070	76.4887
 2.2060	76.6115
 2.2050	76.6561
 2.2040	76.6662
 2.2030	76.6539
 2.2020	76.6563
 2.2010	76.6733
 2.2000	76.7177
 2.1990	76.6632
 2.1980	76.6755
 2.1970	76.6906
 2.1960	76.6704
 2.1950	76.6612
 2.1940	76.6347
 2.1930	76.5511
 2.1920	76.5356
 2.1910	76.5430
 2.1900	76.4984
 2.1890	76.5734
 2.1880	76.4268
 2.1870	76.4102
 2.1860	76.3735
 2.1850	76.2457
 2.1840	76.1866
 2.1830	76.2025
 2.1820	76.1404
 2.1810	76.1683
 2.1800	76.1002
 2.1790	75.9860
 2.1780	76.0705
 2.1770	76.0110
 2.1760	75.9636
 2.1750	75.9005
 2.1740	75.8933
 2.1730	75.7939
 2.1720	75.8395
 2.1710	75.7766
 2.1700	75.6933
 2.1690	75.6164
 2.1680	75.5645
 2.1670	75.5511
 2.1660	75.6090
 2.1650	75.4977
 2.1640	75.4165
 2.1630	75.3880
 2.1620	75.3516
 2.1610	75.3800
 2.1600	75.3963
 2.1590	75.3669
 2.1580	75.3267
 2.1570	75.3575
 2.1560	75.4075
 2.1550	75.4268
 2.1540	75.4533
 2.1530	75.4629
 2.1520	75.5643
 2.1510	75.6360
 2.1500	75.6583
 2.1490	75.6981
 2.1480	75.7665
 2.1470	75.8557
 2.1460	75.9315
 2.1450	76.0794
 2.1440	76.2095
 2.1430	76.3055
 2.1420	76.3526
 2.1410	76.5132
 2.1400	76.5763
 2.1390	76.6889
 2.1380	76.8772
 2.1370	76.8609
 2.1360	76.9916
 2.1350	77.0867
 2.1340	77.1517
 2.1330	77.1526
 2.1320	77.2228
 2.1310	77.2624
 2.1300	77.2432
 2.1290	77.3587
 2.1280	77.3952
 2.1270	77.3459
 2.1260	77.3785
 2.1250	77.3905
 2.1240	77.4224
 2.1230	77.3935
 2.1220	77.4147
 2.1210	77.4695
 2.1200	77.4429
 2.1190	77.3674
 2.1180	77.3494
 2.1170	77.3003
 2.1160	77.3150
 2.1150	77.2504
 2.1140	77.2068
 2.1130	77.2021
 2.1120	77.1441
 2.1110	77.0672
 2.1100	77.0852
 2.1090	77.0112
 2.1080	76.9924
 2.1070	76.9612
 2.1060	76.8995
 2.1050	76.8912
 2.1040	76.9032
 2.1030	76.7907
 2.1020	76.7728
 2.1010	76.7387
 2.1000	76.6846
 2.0990	76.6861
 2.0980	76.7482
 2.0970	76.7534
 2.0960	76.7740
 2.0950	76.8008
 2.0940	76.8072
 2.0930	76.7836
 2.0920	76.7651
 2.0910	76.7496
 2.0900	76.7896
 2.0890	76.7969
 2.0880	76.8184
 2.0870	76.8480
 2.0860	76.8102
 2.0850	76.7913
 2.0840	76.8106
 2.0830	76.8081
 2.0820	76.7704
 2.0810	76.7486
 2.0800	76.7498
 2.0790	76.7461
 2.0780	76.7343
 2.0770	76.7016
 2.0760	76.6918
 2.0750	76.7438
 2.0740	76.7631
 2.0730	76.6754
 2.0720	76.6488
 2.0710	76.6291
 2.0700	76.5957
 2.0690	76.6185
 2.0680	76.6129
 2.0670	76.5611
 2.0660	76.5806
 2.0650	76.6043
 2.0640	76.5337
 2.0630	76.4449
 2.0620	76.4030
 2.0610	76.3775
 2.0600	76.3519
 2.0590	76.2783
 2.0580	76.2192
 2.0570	76.2499
 2.0560	76.1984
 2.0550	76.1708
 2.0540	76.1348
 2.0530	76.0830
 2.0520	76.0835
 2.0510	76.0456
 2.0500	75.9660
 2.0490	75.9350
 2.0480	75.9039
 2.0470	75.8531
 2.0460	75.7846
 2.0450	75.7541
 2.0440	75.7039
 2.0430	75.6184
 2.0420	75.5334
 2.0410	75.4614
 2.0400	75.3702
 2.0390	75.3701
 2.0380	75.2819
 2.0370	75.2371
 2.0360	75.2022
 2.0350	75.0793
 2.0340	74.9414
 2.0330	74.9299
 2.0320	74.8772
 2.0310	74.6794
 2.0300	74.5487
 2.0290	74.4915
 2.0280	74.3450
 2.0270	74.2389
 2.0260	74.1152
 2.0250	73.9321
 2.0240	73.7766
 2.0230	73.6173
 2.0220	73.4379
 2.0210	73.2490
 2.0200	73.1333
 2.0190	72.9540
 2.0180	72.7756
 2.0170	72.6281
 2.0160	72.4193
 2.0150	72.2003
 2.0140	71.9918
 2.0130	71.7605
 2.0120	71.5114
 2.0110	71.2515
 2.0100	71.0035
 2.0090	70.6618
 2.0080	70.3347
 2.0070	69.9557
 2.0060	69.5502
 2.0050	69.2055
 2.0040	68.8671
 2.0030	68.5260
 2.0020	68.2172
 2.0010	68.0131
 2.0000	67.7633
 1.9990	67.7379
 1.9980	67.8019
 1.9970	67.9866
 1.9960	68.1768
 1.9950	68.4288
 1.9940	68.6979
 1.9930	69.0915
 1.9920	69.3558
 1.9910	69.7035
 1.9900	69.9370
 1.9890	70.2076
 1.9880	70.3192
 1.9870	70.4391
 1.9860	70.6192
 1.9850	70.6968
 1.9840	70.6970
 1.9830	70.8569
 1.9820	70.8965
 1.9810	71.0242
 1.9800	71.0349
 1.9790	71.2144
 1.9780	71.2527
 1.9770	71.3361
 1.9760	71.3417
 1.9750	71.4342
 1.9740	71.4460
 1.9730	71.5039
 1.9720	71.4678
 1.9710	71.6027
 1.9700	71.5614
 1.9690	71.5476
 1.9680	71.4903
 1.9670	71.5797
 1.9660	71.5566
 1.9650	71.5781
 1.9640	71.5536
 1.9630	71.5831
 1.9620	71.5910
 1.9610	71.6172
 1.9600	71.5476
 1.9590	71.5749
 1.9580	71.5825
 1.9570	71.5891
 1.9560	71.6034
 1.9550	71.5006
 1.9540	71.5374
 1.9530	71.5594
 1.9520	71.4878
 1.9510	71.4886
 1.9500	71.4972
 1.9490	71.4958
 1.9480	71.5706
 1.9470	71.4959
 1.9460	71.5278
 1.9450	71.4098
 1.9440	71.5421
 1.9430	71.5619
 1.9420	71.4950
 1.9410	71.4476
 1.9400	71.3825
 1.9390	71.4985
 1.9380	71.3767
 1.9370	71.4507
 1.9360	71.3476
 1.9350	71.4319
 1.9340	71.3650
 1.9330	71.4241
 1.9320	71.4507
 1.9310	71.3895
 1.9300	71.3785
 1.9290	71.3658
 1.9280	71.2960
 1.9270	71.2935
 1.9260	71.2110
 1.9250	71.2227
 1.9240	71.0973
 1.9230	71.1481
 1.9220	71.0810
 1.9210	71.0475
 1.9200	70.8858
 1.9190	70.9633
 1.9180	70.9234
 1.9170	70.8528
 1.9160	70.7067
 1.9150	70.8412
 1.9140	70.7644
 1.9130	70.6579
 1.9120	70.7839
 1.9110	70.7942
 1.9100	70.7128
 1.9090	70.8361
 1.9080	70.8204
 1.9070	71.0168
 1.9060	71.0867
 1.9050	71.2477
 1.9040	71.4250
 1.9030	71.6615
 1.9020	71.8535
 1.9010	72.1633
 1.9000	72.4892
 1.8990	72.7476
 1.8980	72.9723
 1.8970	73.3117
 1.8960	73.6810
 1.8950	74.0043
 1.8940	74.3515
 1.8930	74.7248
 1.8920	74.9453
 1.8910	75.3214
 1.8900	75.5262
 1.8890	75.7711
 1.8880	76.0349
 1.8870	76.2495
 1.8860	76.4263
 1.8850	76.6777
 1.8840	76.8012
 1.8830	76.9401
 1.8820	77.0535
 1.8810	77.1674
 1.8800	77.2583
 1.8790	77.3570
 1.8780	77.4378
 1.8770	77.5712
 1.8760	77.6251
 1.8750	77.7197
 1.8740	77.8355
 1.8730	77.8902
 1.8720	77.9321
 1.8710	78.0029
 1.8700	78.0965
 1.8690	78.1849
 1.8680	78.2374
 1.8670	78.3373
 1.8660	78.3644
 1.8650	78.4662
 1.8640	78.5198
 1.8630	78.6093
 1.8620	78.6904
 1.8610	78.7629
 1.8600	78.8454
 1.8590	78.9026
 1.8580	78.9043
 1.8570	79.0369
 1.8560	79.0761
 1.8550	79.1956
 1.8540	79.2224
 1.8530	79.3704
 1.8520	79.4018
 1.8510	79.4033
 1.8500	79.4902
 1.8490	79.4669
 1.8480	79.5097
 1.8470	79.5596
 1.8460	79.5913
 1.8450	79.6715
 1.8440	79.6881
 1.8430	79.7319
 1.8420	79.8399
 1.8410	79.8452
 1.8400	79.8235
 1.8390	79.8431
 1.8380	79.8736
 1.8370	79.9231
 1.8360	79.8998
 1.8350	79.8897
 1.8340	79.9570
 1.8330	79.9547
 1.8320	79.9616
 1.8310	80.0235
 1.8300	79.9987
 1.8290	80.0201
 1.8280	80.0299
 1.8270	80.0259
 1.8260	80.0252
 1.8250	80.0522
 1.8240	80.1042
 1.8230	80.1363
 1.8220	80.0929
 1.8210	80.1137
 1.8200	80.1243
 1.8190	80.1529
 1.8180	80.1805
 1.8170	80.1455
 1.8160	80.1253
 1.8150	80.1738
 1.8140	80.1959
 1.8130	80.2030
 1.8120	80.1728
 1.8110	80.2193
 1.8100	80.2389
 1.8090	80.2095
 1.8080	80.2779
 1.8070	80.2840
 1.8060	80.2545
 1.8050	80.2690
 1.8040	80.2725
 1.8030	80.1922
 1.8020	80.2513
 1.8010	80.3027
 1.8000	80.2514
 1.7990	80.2226
 1.7980	80.2701
 1.7970	80.3310
 1.7960	80.2952
 1.7950	80.2486
 1.7940	80.2164
 1.7930	80.2190
 1.7920	80.2497
 1.7910	80.2628
 1.7900	80.2977
 1.7890	80.3503
 1.7880	80.3093
 1.7870	80.2770
 1.7860	80.2779
 1.7850	80.3016
 1.7840	80.2923
 1.7830	80.2695
 1.7820	80.2428
 1.7810	80.2447
 1.7800	80.2942
 1.7790	80.2678
 1.7780	80.2871
 1.7770	80.3311
 1.7760	80.3070
 1.7750	80.2652
 1.7740	80.2584
 1.7730	80.2810
 1.7720	80.2901
 1.7710	80.2816
 1.7700	80.2918
 1.7690	80.2673
 1.7680	80.2701
 1.7670	80.2465
 1.7660	80.2684
 1.7650	80.3015
 1.7640	80.3187
 1.7630	80.3205
 1.7620	80.3002
 1.7610	80.2378
 1.7600	80.2587
 1.7590	80.3009
 1.7580	80.2646
 1.7570	80.3036
 1.7560	80.3284
 1.7550	80.3174
 1.7540	80.3220
 1.7530	80.3150
 1.7520	80.3453
 1.7510	80.3817
 1.7500	80.4210
 1.7490	80.3786
 1.7480	80.4252
 1.7470	80.3945
 1.7460	80.3927
 1.7450	80.4008
 1.7440	80.4339
 1.7430	80.4423
 1.7420	80.4767
 1.7410	80.4163
 1.7400	80.4481
 1.7390	80.4787
 1.7380	80.4771
 1.7370	80.4451
 1.7360	80.4056
 1.7350	80.4499
 1.7340	80.4815
 1.7330	80.4881
 1.7320	80.4717
 1.7310	80.4524
 1.7300	80.5071
 1.7290	80.4449
 1.7280	80.5062
 1.7270	80.4849
 1.7260	80.3994
 1.7250	80.4282
 1.7240	80.4381
 1.7230	80.4450
 1.7220	80.4852
 1.7210	80.4534
 1.7200	80.4633
 1.7190	80.5257
 1.7180	80.4809
 1.7170	80.4419
 1.7160	80.4534
 1.7150	80.4258
 1.7140	80.4719
 1.7130	80.4619
 1.7120	80.5538
 1.7110	80.5021
 1.7100	80.4790
 1.7090	80.5222
 1.7080	80.5080
 1.7070	80.4938
 1.7060	80.4913
 1.7050	80.4295
 1.7040	80.4847
 1.7030	80.4596
 1.7020	80.4865
 1.7010	80.4861
 1.7000	80.4789
 1.6990	80.4585
 1.6980	80.4428
 1.6970	80.4222
 1.6960	80.4463
 1.6950	80.4556
 1.6940	80.4505
 1.6930	80.4596
 1.6920	80.4666
 1.6910	80.4715
 1.6900	80.4499
 1.6890	80.4947
 1.6880	80.4987
 1.6870	80.4254
 1.6860	80.4457
 1.6850	80.4367
 1.6840	80.4575
 1.6830	80.5155
 1.6820	80.4284
 1.6810	80.4270
 1.6800	80.4082
 1.6790	80.4174
 1.6780	80.3851
 1.6770	80.4493
 1.6760	80.4312
 1.6750	80.3938
 1.6740	80.3850
 1.6730	80.3935
 1.6720	80.3881
 1.6710	80.3331
 1.6700	80.4287
 1.6690	80.3797
 1.6680	80.3477
 1.6670	80.3469
 1.6660	80.3306
 1.6650	80.3303
 1.6640	80.3511
 1.6630	80.2304
 1.6620	80.2374
 1.6610	80.3257
 1.6600	80.3988
 1.6590	80.2496
 1.6580	80.2734
 1.6570	80.2097
 1.6560	80.3048
 1.6550	80.2252
 1.6540	80.2776
 1.6530	80.2233
 1.6520	80.2145
 1.6510	80.2651
 1.6500	80.1567
 1.6490	80.1764
 1.6480	80.2595
 1.6470	80.2254
 1.6460	80.1985
 1.6450	80.1172
 1.6440	80.1416
 1.6430	80.1267
 1.6420	80.2619
 1.6410	80.1229
 1.6400	80.1536
 1.6390	80.1591
 1.6380	80.1300
 1.6370	80.0142
 1.6360	80.0563
 1.6350	80.0041
 1.6340	80.0701
 1.6330	80.0221
 1.6320	80.0744
 1.6310	79.9705
 1.6300	80.0211
 1.6290	80.0197
 1.6280	79.9129
 1.6270	79.8993
 1.6260	80.0066
 1.6250	80.0011
 1.6240	79.9488
 1.6230	79.8819
 1.6220	79.9595
 1.6210	79.9008
 1.6200	79.8895
 1.6190	79.8108
 1.6180	79.8820
 1.6170	79.8650
 1.6160	79.8543
 1.6150	79.7212
 1.6140	79.7464
 1.6130	79.8275
 1.6120	79.8256
 1.6110	79.7729
 1.6100	79.7625
 1.6090	79.7189
 1.6080	79.6788
 1.6070	79.6764
 1.6060	79.8021
 1.6050	79.6153
 1.6040	79.6719
 1.6030	79.6393
 1.6020	79.6416
 1.6010	79.5948
 1.6000	79.6310
 1.5990	79.5387
 1.5980	79.5379
 1.5970	79.4518
 1.5960	79.5274
 1.5950	79.5173
 1.5940	79.3959
 1.5930	79.3726
 1.5920	79.3781
 1.5910	79.2056
 1.5900	79.2744
 1.5890	79.2299
 1.5880	79.2016
 1.5870	79.2130
 1.5860	79.2378
 1.5850	79.1532
 1.5840	79.1443
 1.5830	79.0718
 1.5820	79.0486
 1.5810	79.0070
 1.5800	78.9910
 1.5790	78.9719
 1.5780	78.9691
 1.5770	79.0015
 1.5760	78.9868
 1.5750	79.0684
 1.5740	79.0330
 1.5730	78.9995
 1.5720	79.0750
 1.5710	79.0109
 1.5700	79.0087
 1.5690	79.0413
 1.5680	79.0457
 1.5670	79.0164
 1.5660	79.0045
 1.5650	78.9399
 1.5640	78.9338
 1.5630	78.9097
 1.5620	78.9177
 1.5610	78.9324
 1.5600	78.8869
 1.5590	78.7877
 1.5580	78.7829
 1.5570	78.7822
 1.5560	78.7095
 1.5550	78.7723
 1.5540	78.7033
 1.5530	78.6807
 1.5520	78.7386
 1.5510	78.7219
 1.5500	78.6552
 1.5490	78.6090
 1.5480	78.6243
 1.5470	78.6692
 1.5460	78.6072
 1.5450	78.5757
 1.5440	78.6497
 1.5430	78.5993
 1.5420	78.5843
 1.5410	78.5486
 1.5400	78.5619
 1.5390	78.5236
 1.5380	78.5118
 1.5370	78.4788
 1.5360	78.4990
 1.5350	78.5175
 1.5340	78.4108
 1.5330	78.3908
 1.5320	78.3883
 1.5310	78.4000
 1.5300	78.3099
 1.5290	78.2865
 1.5280	78.2811
 1.5270	78.2700
 1.5260	78.2777
 1.5250	78.2760
 1.5240	78.2422
 1.5230	78.1994
 1.5220	78.1847
 1.5210	78.1498
 1.5200	78.1354
 1.5190	78.1535
 1.5180	78.1633
 1.5170	78.1402
 1.5160	78.1280
 1.5150	78.0605
 1.5140	78.0374
 1.5130	78.0817
 1.5120	78.0484
 1.5110	78.0362
 1.5100	78.0592
 1.5090	78.0162
 1.5080	77.9900
 1.5070	78.0082
 1.5060	77.9698
 1.5050	77.9250
 1.5040	77.9001
 1.5030	77.8516
 1.5020	77.8085
 1.5010	77.7951
 1.5000	77.8200
 1.4990	77.8002
 1.4980	77.7536
 1.4970	77.7447
 1.4960	77.7150
 1.4950	77.6799
 1.4940	77.6644
 1.4930	77.6461
 1.4920	77.6239
 1.4910	77.6351
 1.4900	77.6278
 1.4890	77.6596
 1.4880	77.6947
 1.4870	77.7233
 1.4860	77.7441
 1.4850	77.7068
 1.4840	77.6561
 1.4830	77.6409
 1.4820	77.6151
 1.4810	77.6299
 1.4800	77.5980
 1.4790	77.5972
 1.4780	77.6207
 1.4770	77.5867
 1.4760	77.5260
 1.4750	77.4752
 1.4740	77.4977
 1.4730	77.4846
 1.4720	77.4370
 1.4710	77.4662
 1.4700	77.4759
 1.4690	77.4423
 1.4680	77.3526
 1.4670	77.2990
 1.4660	77.2664
 1.4650	77.2488
 1.4640	77.2168
 1.4630	77.2273
 1.4620	77.1654
 1.4610	77.1470
 1.4600	77.0692
 1.4590	76.9350
 1.4580	76.8283
 1.4570	76.8351
 1.4560	76.7891
 1.4550	76.6970
 1.4540	76.5211
 1.4530	76.4256
 1.4520	76.3279
 1.4510	76.2947
 1.4500	76.2162
 1.4490	76.2070
 1.4480	76.1873
 1.4470	76.2695
 1.4460	76.1550
 1.4450	76.1077
 1.4440	76.0589
 1.4430	76.0198
 1.4420	75.9301
 1.4410	75.8217
 1.4400	75.7034
 1.4390	75.5414
 1.4380	75.3190
 1.4370	75.2495
 1.4360	75.1947
 1.4350	75.1756
 1.4340	75.2413
 1.4330	75.3490
 1.4320	75.4243
 1.4310	75.5459
 1.4300	75.6469
 1.4290	75.7057
 1.4280	75.7751
 1.4270	75.9025
 1.4260	75.9221
 1.4250	76.0264
 1.4240	76.0130
 1.4230	76.0086
 1.4220	75.9659
 1.4210	76.0130
 1.4200	75.9402
 1.4190	75.9802
 1.4180	75.9161
 1.4170	75.9291
 1.4160	75.9737
 1.4150	75.9941
 1.4140	75.9358
 1.4130	75.9199
 1.4120	75.8806
 1.4110	75.8623
 1.4100	75.9443
 1.4090	76.0206
 1.4080	76.0928
 1.4070	76.2166
 1.4060	76.3292
 1.4050	76.4415
 1.4040	76.5007
 1.4030	76.5453
 1.4020	76.4540
 1.4010	76.3592
 1.4000	76.3120
 1.3990	76.2724
 1.3980	76.2035
 1.3970	76.0279
 1.3960	75.5706
 1.3950	74.8302
 1.3940	73.9340
 1.3930	73.4618
 1.3920	73.3660
 1.3910	73.6674
 1.3900	74.3550
 1.3890	75.2053
 1.3880	75.8109
 1.3870	76.4457
 1.3860	76.8951
 1.3850	77.1543
 1.3840	77.3362
 1.3830	77.4458
 1.3820	77.4563
 1.3810	77.5557
 1.3800	77.5611
 1.3790	77.7406
 1.3780	77.6793
 1.3770	77.6847
 1.3760	77.7624
 1.3750	77.7944
 1.3740	77.8424
 1.3730	77.8413
 1.3720	77.7424
 1.3710	77.8203
 1.3700	77.8113
 1.3690	77.8453
 1.3680	77.7897
 1.3670	77.8393
 1.3660	77.8667
