Name: Microcline (Feldspar) (K,Na)AlSi_3O_8
Type: Mineral
Class: Silicate
Subclass: Tectosilicate
Particle Size: Fine
Sample No.: TS-17A
Owner: JPL
Wavelength Range: VSWIR
Origin: Unknown.
Collection Date: N/A
Description: Particle size was 0-45um. Collected by:  JPL Original ASTER Spectral Library name was jpl.perkin.mineral.silicate.tectosilicate.fine.ts17a.spectrum.txt
Measurement: Hemispherical reflectance
First Column: X
Second Column: Y
X Units: Wavelength (micrometers)
Y Units:Reflectance (percent)
First X Value:  2.5000
Last X Value:  0.4000
Number of X Values: 2101
Additional Information: mineral.silicate.tectosilicate.fine.vswir.ts-17a.jpl.perkin.ancillary.txt

 2.5000	73.0488
 2.4990	72.9428
 2.4980	72.9888
 2.4970	72.9733
 2.4960	72.7769
 2.4950	73.0268
 2.4940	73.0125
 2.4930	72.9595
 2.4920	73.0294
 2.4910	72.9105
 2.4900	72.9043
 2.4890	73.0101
 2.4880	72.9419
 2.4870	72.9342
 2.4860	73.0431
 2.4850	72.8545
 2.4840	72.9859
 2.4830	73.0813
 2.4820	73.0018
 2.4810	73.0763
 2.4800	72.9567
 2.4790	73.2167
 2.4780	73.1248
 2.4770	73.1628
 2.4760	73.1346
 2.4750	73.1443
 2.4740	73.0464
 2.4730	73.1498
 2.4720	73.1974
 2.4710	73.2083
 2.4700	73.0956
 2.4690	73.1154
 2.4680	73.2626
 2.4670	73.4195
 2.4660	73.2859
 2.4650	73.2539
 2.4640	73.3057
 2.4630	73.3928
 2.4620	73.3033
 2.4610	73.3887
 2.4600	73.3034
 2.4590	73.3350
 2.4580	73.4505
 2.4570	73.4652
 2.4560	73.4136
 2.4550	73.5370
 2.4540	73.5885
 2.4530	73.3486
 2.4520	73.3476
 2.4510	73.3975
 2.4500	73.4053
 2.4490	73.4443
 2.4480	73.3798
 2.4470	73.5116
 2.4460	73.4119
 2.4450	73.4356
 2.4440	73.3274
 2.4430	73.4163
 2.4420	73.4666
 2.4410	73.4920
 2.4400	73.4123
 2.4390	73.5417
 2.4380	73.4987
 2.4370	73.5940
 2.4360	73.5995
 2.4350	73.5203
 2.4340	73.5823
 2.4330	73.6629
 2.4320	73.7251
 2.4310	73.7582
 2.4300	73.7785
 2.4290	73.7110
 2.4280	73.7621
 2.4270	73.7476
 2.4260	73.8582
 2.4250	73.9252
 2.4240	73.9827
 2.4230	73.9186
 2.4220	74.0357
 2.4210	74.1167
 2.4200	74.1315
 2.4190	74.0925
 2.4180	74.1579
 2.4170	74.2068
 2.4160	74.2156
 2.4150	74.4124
 2.4140	74.4248
 2.4130	74.4037
 2.4120	74.4308
 2.4110	74.5258
 2.4100	74.6002
 2.4090	74.6684
 2.4080	74.6594
 2.4070	74.7509
 2.4060	74.7967
 2.4050	74.8212
 2.4040	74.9454
 2.4030	74.9408
 2.4020	74.9735
 2.4010	74.9485
 2.4000	74.9587
 2.3990	75.0069
 2.3980	74.9981
 2.3970	75.1055
 2.3960	75.1123
 2.3950	75.1319
 2.3940	75.1863
 2.3930	75.2065
 2.3920	75.1464
 2.3910	75.1083
 2.3900	75.2282
 2.3890	75.3242
 2.3880	75.3125
 2.3870	75.3304
 2.3860	75.3772
 2.3850	75.4238
 2.3840	75.4279
 2.3830	75.4025
 2.3820	75.4650
 2.3810	75.4384
 2.3800	75.3844
 2.3790	75.3544
 2.3780	75.3947
 2.3770	75.5211
 2.3760	75.5188
 2.3750	75.4936
 2.3740	75.5471
 2.3730	75.5749
 2.3720	75.5960
 2.3710	75.6057
 2.3700	75.5969
 2.3690	75.5739
 2.3680	75.6139
 2.3670	75.6792
 2.3660	75.6878
 2.3650	75.6666
 2.3640	75.6370
 2.3630	75.5971
 2.3620	75.6345
 2.3610	75.6079
 2.3600	75.6033
 2.3590	75.5974
 2.3580	75.5066
 2.3570	75.5942
 2.3560	75.6291
 2.3550	75.5931
 2.3540	75.5313
 2.3530	75.4546
 2.3520	75.4480
 2.3510	75.4983
 2.3500	75.5223
 2.3490	75.4471
 2.3480	75.4136
 2.3470	75.4164
 2.3460	75.4380
 2.3450	75.4645
 2.3440	75.4838
 2.3430	75.5057
 2.3420	75.5630
 2.3410	75.5081
 2.3400	75.4921
 2.3390	75.5532
 2.3380	75.5968
 2.3370	75.5990
 2.3360	75.6072
 2.3350	75.5598
 2.3340	75.5400
 2.3330	75.6121
 2.3320	75.6866
 2.3310	75.7084
 2.3300	75.7707
 2.3290	75.8096
 2.3280	75.8505
 2.3270	75.8714
 2.3260	75.8750
 2.3250	75.8834
 2.3240	75.9928
 2.3230	76.0324
 2.3220	76.0940
 2.3210	76.0525
 2.3200	76.0341
 2.3190	76.1077
 2.3180	76.1663
 2.3170	76.2270
 2.3160	76.2501
 2.3150	76.3535
 2.3140	76.3969
 2.3130	76.3620
 2.3120	76.4251
 2.3110	76.4189
 2.3100	76.4526
 2.3090	76.5288
 2.3080	76.5862
 2.3070	76.5699
 2.3060	76.6699
 2.3050	76.6616
 2.3040	76.7501
 2.3030	76.7004
 2.3020	76.7370
 2.3010	76.7387
 2.3000	76.8275
 2.2990	76.8379
 2.2980	76.8584
 2.2970	76.8969
 2.2960	76.9116
 2.2950	76.9229
 2.2940	76.9183
 2.2930	76.9056
 2.2920	77.0134
 2.2910	77.0085
 2.2900	77.0410
 2.2890	77.0391
 2.2880	77.0289
 2.2870	77.0651
 2.2860	77.0859
 2.2850	77.0627
 2.2840	77.0492
 2.2830	77.0460
 2.2820	77.0779
 2.2810	77.0053
 2.2800	77.0282
 2.2790	77.0593
 2.2780	77.1540
 2.2770	77.0387
 2.2760	77.1382
 2.2750	77.0784
 2.2740	77.0765
 2.2730	77.0965
 2.2720	77.0962
 2.2710	77.1701
 2.2700	77.0679
 2.2690	77.0969
 2.2680	77.1116
 2.2670	77.0935
 2.2660	77.0766
 2.2650	77.1367
 2.2640	77.1173
 2.2630	77.0904
 2.2620	77.0574
 2.2610	77.0387
 2.2600	77.0816
 2.2590	77.0341
 2.2580	77.0611
 2.2570	76.9946
 2.2560	77.0597
 2.2550	76.9233
 2.2540	77.0059
 2.2530	77.0055
 2.2520	77.0282
 2.2510	77.0046
 2.2500	76.9541
 2.2490	76.9698
 2.2480	76.9342
 2.2470	76.9091
 2.2460	77.0612
 2.2450	76.9629
 2.2440	76.9708
 2.2430	76.9261
 2.2420	76.9576
 2.2410	76.9478
 2.2400	77.0085
 2.2390	76.9647
 2.2380	76.9265
 2.2370	76.9048
 2.2360	76.8938
 2.2350	76.8155
 2.2340	76.8574
 2.2330	76.8431
 2.2320	76.8892
 2.2310	76.7647
 2.2300	76.8657
 2.2290	76.8212
 2.2280	76.7713
 2.2270	76.7663
 2.2260	76.7723
 2.2250	76.7022
 2.2240	76.6463
 2.2230	76.5824
 2.2220	76.5823
 2.2210	76.6558
 2.2200	76.5986
 2.2190	76.3619
 2.2180	76.3129
 2.2170	76.2159
 2.2160	76.2246
 2.2150	76.1083
 2.2140	76.0469
 2.2130	75.9427
 2.2120	75.9223
 2.2110	75.7757
 2.2100	75.7830
 2.2090	75.6364
 2.2080	75.6141
 2.2070	75.5066
 2.2060	75.3345
 2.2050	75.3284
 2.2040	75.3348
 2.2030	75.2884
 2.2020	75.2260
 2.2010	75.2554
 2.2000	75.1799
 2.1990	75.1191
 2.1980	75.1648
 2.1970	75.2122
 2.1960	75.2750
 2.1950	75.2672
 2.1940	75.3251
 2.1930	75.3374
 2.1920	75.4658
 2.1910	75.4988
 2.1900	75.5577
 2.1890	75.7900
 2.1880	75.9133
 2.1870	75.9232
 2.1860	76.0820
 2.1850	76.2856
 2.1840	76.4004
 2.1830	76.4851
 2.1820	76.6794
 2.1810	76.7201
 2.1800	76.9379
 2.1790	76.9592
 2.1780	77.0384
 2.1770	77.2462
 2.1760	77.3415
 2.1750	77.4724
 2.1740	77.5952
 2.1730	77.7687
 2.1720	77.7534
 2.1710	77.9046
 2.1700	77.9375
 2.1690	77.9857
 2.1680	78.1060
 2.1670	78.1885
 2.1660	78.2442
 2.1650	78.2973
 2.1640	78.4145
 2.1630	78.4683
 2.1620	78.5397
 2.1610	78.4935
 2.1600	78.5519
 2.1590	78.7024
 2.1580	78.7283
 2.1570	78.7838
 2.1560	78.8614
 2.1550	78.8487
 2.1540	78.8868
 2.1530	78.9642
 2.1520	79.0413
 2.1510	78.9827
 2.1500	79.0228
 2.1490	79.0659
 2.1480	79.0671
 2.1470	79.0884
 2.1460	79.1653
 2.1450	79.1632
 2.1440	79.1823
 2.1430	79.1981
 2.1420	79.2167
 2.1410	79.2568
 2.1400	79.2398
 2.1390	79.2234
 2.1380	79.2443
 2.1370	79.1980
 2.1360	79.1714
 2.1350	79.1680
 2.1340	79.2359
 2.1330	79.1758
 2.1320	79.1173
 2.1310	79.0409
 2.1300	79.0502
 2.1290	79.0926
 2.1280	79.0825
 2.1270	79.0020
 2.1260	79.0060
 2.1250	78.8985
 2.1240	78.8495
 2.1230	78.8459
 2.1220	78.8659
 2.1210	78.7773
 2.1200	78.7363
 2.1190	78.7287
 2.1180	78.6774
 2.1170	78.5933
 2.1160	78.5563
 2.1150	78.5000
 2.1140	78.5924
 2.1130	78.5040
 2.1120	78.4354
 2.1110	78.4436
 2.1100	78.3445
 2.1090	78.3101
 2.1080	78.2901
 2.1070	78.2406
 2.1060	78.2661
 2.1050	78.2354
 2.1040	78.1877
 2.1030	78.0879
 2.1020	78.0570
 2.1010	78.0831
 2.1000	78.0507
 2.0990	78.0052
 2.0980	78.0616
 2.0970	78.1180
 2.0960	78.0923
 2.0950	78.1138
 2.0940	78.1075
 2.0930	78.1075
 2.0920	78.2238
 2.0910	78.2340
 2.0900	78.2125
 2.0890	78.2121
 2.0880	78.2565
 2.0870	78.3005
 2.0860	78.3171
 2.0850	78.2911
 2.0840	78.3091
 2.0830	78.3172
 2.0820	78.3170
 2.0810	78.3246
 2.0800	78.3831
 2.0790	78.4353
 2.0780	78.4156
 2.0770	78.3816
 2.0760	78.3559
 2.0750	78.3869
 2.0740	78.4547
 2.0730	78.4490
 2.0720	78.4168
 2.0710	78.3923
 2.0700	78.4165
 2.0690	78.4851
 2.0680	78.4659
 2.0670	78.4312
 2.0660	78.5286
 2.0650	78.5527
 2.0640	78.5189
 2.0630	78.5747
 2.0620	78.5548
 2.0610	78.5694
 2.0600	78.6212
 2.0590	78.6457
 2.0580	78.6753
 2.0570	78.6603
 2.0560	78.6493
 2.0550	78.6718
 2.0540	78.6534
 2.0530	78.6376
 2.0520	78.6569
 2.0510	78.6517
 2.0500	78.6249
 2.0490	78.6559
 2.0480	78.6716
 2.0470	78.6922
 2.0460	78.6321
 2.0450	78.6039
 2.0440	78.6677
 2.0430	78.6736
 2.0420	78.6488
 2.0410	78.7049
 2.0400	78.8044
 2.0390	78.7936
 2.0380	78.7062
 2.0370	78.7734
 2.0360	78.7894
 2.0350	78.7691
 2.0340	78.6949
 2.0330	78.7089
 2.0320	78.7490
 2.0310	78.7321
 2.0300	78.6975
 2.0290	78.6796
 2.0280	78.6820
 2.0270	78.6354
 2.0260	78.6649
 2.0250	78.6726
 2.0240	78.6842
 2.0230	78.7033
 2.0220	78.6945
 2.0210	78.7367
 2.0200	78.6723
 2.0190	78.6280
 2.0180	78.5846
 2.0170	78.6676
 2.0160	78.6736
 2.0150	78.6112
 2.0140	78.5533
 2.0130	78.6111
 2.0120	78.5584
 2.0110	78.5447
 2.0100	78.5448
 2.0090	78.5552
 2.0080	78.5230
 2.0070	78.5231
 2.0060	78.5436
 2.0050	78.5634
 2.0040	78.5546
 2.0030	78.5402
 2.0020	78.4731
 2.0010	78.5560
 2.0000	78.4879
 1.9990	78.4368
 1.9980	78.4543
 1.9970	78.4060
 1.9960	78.3825
 1.9950	78.3886
 1.9940	78.3572
 1.9930	78.3062
 1.9920	78.2587
 1.9910	78.2934
 1.9900	78.2643
 1.9890	78.2184
 1.9880	78.2344
 1.9870	78.1980
 1.9860	78.1829
 1.9850	78.1680
 1.9840	78.1660
 1.9830	78.1293
 1.9820	78.1112
 1.9810	78.0485
 1.9800	78.0234
 1.9790	78.0079
 1.9780	77.9509
 1.9770	78.0075
 1.9760	78.0438
 1.9750	77.9901
 1.9740	78.0402
 1.9730	77.9474
 1.9720	77.8972
 1.9710	77.9358
 1.9700	77.8903
 1.9690	77.9043
 1.9680	77.8570
 1.9670	77.8189
 1.9660	77.8656
 1.9650	77.8391
 1.9640	77.7485
 1.9630	77.7917
 1.9620	77.8274
 1.9610	77.7598
 1.9600	77.8151
 1.9590	77.7098
 1.9580	77.7387
 1.9570	77.7666
 1.9560	77.7503
 1.9550	77.6789
 1.9540	77.6620
 1.9530	77.6330
 1.9520	77.6156
 1.9510	77.6422
 1.9500	77.6857
 1.9490	77.6396
 1.9480	77.5869
 1.9470	77.6738
 1.9460	77.6467
 1.9450	77.6934
 1.9440	77.5271
 1.9430	77.5447
 1.9420	77.5734
 1.9410	77.6523
 1.9400	77.6659
 1.9390	77.6004
 1.9380	77.5290
 1.9370	77.6241
 1.9360	77.5752
 1.9350	77.6133
 1.9340	77.6236
 1.9330	77.6089
 1.9320	77.6569
 1.9310	77.6300
 1.9300	77.5677
 1.9290	77.6146
 1.9280	77.6107
 1.9270	77.6039
 1.9260	77.6154
 1.9250	77.6236
 1.9240	77.5833
 1.9230	77.6454
 1.9220	77.7329
 1.9210	77.7397
 1.9200	77.6260
 1.9190	77.6798
 1.9180	77.6940
 1.9170	77.7094
 1.9160	77.6730
 1.9150	77.7225
 1.9140	77.8793
 1.9130	77.8675
 1.9120	77.8610
 1.9110	77.8993
 1.9100	77.9146
 1.9090	78.0472
 1.9080	78.0792
 1.9070	78.1011
 1.9060	78.1521
 1.9050	78.1577
 1.9040	78.2775
 1.9030	78.2580
 1.9020	78.3696
 1.9010	78.4963
 1.9000	78.5721
 1.8990	78.5836
 1.8980	78.6845
 1.8970	78.6990
 1.8960	78.7665
 1.8950	78.9441
 1.8940	78.8145
 1.8930	78.9731
 1.8920	78.9876
 1.8910	79.0255
 1.8900	79.0246
 1.8890	79.0881
 1.8880	79.1295
 1.8870	79.2333
 1.8860	79.2769
 1.8850	79.2978
 1.8840	79.3031
 1.8830	79.3141
 1.8820	79.3671
 1.8810	79.3487
 1.8800	79.4211
 1.8790	79.4476
 1.8780	79.4799
 1.8770	79.4811
 1.8760	79.5404
 1.8750	79.5673
 1.8740	79.4774
 1.8730	79.5935
 1.8720	79.5890
 1.8710	79.5388
 1.8700	79.4852
 1.8690	79.6656
 1.8680	79.6898
 1.8670	79.6734
 1.8660	79.6722
 1.8650	79.6906
 1.8640	79.7498
 1.8630	79.7511
 1.8620	79.7263
 1.8610	79.6969
 1.8600	79.7414
 1.8590	79.7494
 1.8580	79.7105
 1.8570	79.7409
 1.8560	79.7316
 1.8550	79.8031
 1.8540	79.7443
 1.8530	79.7784
 1.8520	79.7952
 1.8510	79.7852
 1.8500	79.7765
 1.8490	79.7532
 1.8480	79.7224
 1.8470	79.8180
 1.8460	79.7688
 1.8450	79.8502
 1.8440	79.8376
 1.8430	79.8068
 1.8420	79.8487
 1.8410	79.8026
 1.8400	79.8120
 1.8390	79.8482
 1.8380	79.8066
 1.8370	79.8232
 1.8360	79.8210
 1.8350	79.7854
 1.8340	79.8252
 1.8330	79.8554
 1.8320	79.8183
 1.8310	79.8497
 1.8300	79.8252
 1.8290	79.8333
 1.8280	79.8015
 1.8270	79.8516
 1.8260	79.9053
 1.8250	79.9050
 1.8240	79.8606
 1.8230	79.8747
 1.8220	79.8710
 1.8210	79.8200
 1.8200	79.8506
 1.8190	79.8783
 1.8180	79.8612
 1.8170	79.8668
 1.8160	79.8823
 1.8150	79.9468
 1.8140	79.9037
 1.8130	79.8782
 1.8120	79.9318
 1.8110	79.9565
 1.8100	79.8843
 1.8090	79.8811
 1.8080	79.8501
 1.8070	79.8286
 1.8060	79.8995
 1.8050	79.9154
 1.8040	79.8668
 1.8030	79.9066
 1.8020	79.9481
 1.8010	79.9843
 1.8000	79.9798
 1.7990	79.9470
 1.7980	79.9666
 1.7970	79.9833
 1.7960	79.9418
 1.7950	79.9109
 1.7940	79.9107
 1.7930	79.9447
 1.7920	79.9738
 1.7910	80.0091
 1.7900	79.9524
 1.7890	79.8877
 1.7880	79.8921
 1.7870	79.9118
 1.7860	79.9182
 1.7850	79.8915
 1.7840	79.8387
 1.7830	79.8372
 1.7820	79.8754
 1.7810	79.8679
 1.7800	79.8714
 1.7790	79.8856
 1.7780	79.8659
 1.7770	79.8359
 1.7760	79.8448
 1.7750	79.8367
 1.7740	79.8026
 1.7730	79.8362
 1.7720	79.9051
 1.7710	79.9163
 1.7700	79.8718
 1.7690	79.8785
 1.7680	79.8760
 1.7670	79.8638
 1.7660	79.8614
 1.7650	79.9089
 1.7640	79.9211
 1.7630	79.8529
 1.7620	79.8455
 1.7610	79.8948
 1.7600	79.9053
 1.7590	79.8999
 1.7580	79.9387
 1.7570	79.9114
 1.7560	79.8669
 1.7550	79.8486
 1.7540	79.8582
 1.7530	79.8651
 1.7520	79.8989
 1.7510	79.9345
 1.7500	79.9411
 1.7490	79.9541
 1.7480	79.9231
 1.7470	79.9204
 1.7460	79.9568
 1.7450	79.9589
 1.7440	79.9763
 1.7430	79.9861
 1.7420	79.9731
 1.7410	79.9481
 1.7400	79.9840
 1.7390	79.9841
 1.7380	79.9707
 1.7370	79.9778
 1.7360	79.9958
 1.7350	79.9335
 1.7340	79.9721
 1.7330	80.0456
 1.7320	80.0892
 1.7310	80.0115
 1.7300	80.0123
 1.7290	80.0411
 1.7280	80.0574
 1.7270	80.0565
 1.7260	79.9834
 1.7250	79.9806
 1.7240	79.9709
 1.7230	80.0134
 1.7220	80.0175
 1.7210	80.0003
 1.7200	79.9952
 1.7190	80.0721
 1.7180	80.0299
 1.7170	80.0399
 1.7160	80.0523
 1.7150	80.0342
 1.7140	80.0830
 1.7130	79.9951
 1.7120	80.0790
 1.7110	80.0219
 1.7100	80.0278
 1.7090	79.9976
 1.7080	80.0604
 1.7070	80.0820
 1.7060	79.9943
 1.7050	80.0170
 1.7040	80.0369
 1.7030	80.0008
 1.7020	79.9808
 1.7010	79.9784
 1.7000	79.9984
 1.6990	80.0131
 1.6980	80.0335
 1.6970	80.0210
 1.6960	80.0510
 1.6950	80.0401
 1.6940	79.9544
 1.6930	80.0258
 1.6920	80.0152
 1.6910	80.0035
 1.6900	79.9935
 1.6890	79.9587
 1.6880	79.9953
 1.6870	79.9369
 1.6860	80.0244
 1.6850	79.9384
 1.6840	80.0441
 1.6830	80.0656
 1.6820	80.0716
 1.6810	79.9976
 1.6800	80.0311
 1.6790	79.9587
 1.6780	79.9896
 1.6770	79.9940
 1.6760	79.9901
 1.6750	79.9941
 1.6740	79.9757
 1.6730	79.9256
 1.6720	80.0158
 1.6710	79.9805
 1.6700	79.9921
 1.6690	79.9312
 1.6680	79.8505
 1.6670	79.9733
 1.6660	79.9716
 1.6650	80.0413
 1.6640	79.9604
 1.6630	79.9189
 1.6620	79.9543
 1.6610	79.9607
 1.6600	79.9609
 1.6590	79.9983
 1.6580	80.0651
 1.6570	80.0325
 1.6560	80.0546
 1.6550	80.0605
 1.6540	79.9607
 1.6530	79.9804
 1.6520	80.0024
 1.6510	79.9201
 1.6500	80.0320
 1.6490	80.0038
 1.6480	80.0211
 1.6470	80.0051
 1.6460	79.9837
 1.6450	79.9556
 1.6440	79.9115
 1.6430	80.0658
 1.6420	79.9851
 1.6410	79.9289
 1.6400	80.0835
 1.6390	80.0162
 1.6380	79.9355
 1.6370	79.9318
 1.6360	80.0090
 1.6350	79.9633
 1.6340	79.9800
 1.6330	79.9706
 1.6320	79.9122
 1.6310	79.9880
 1.6300	79.9806
 1.6290	79.9380
 1.6280	79.9591
 1.6270	80.0604
 1.6260	79.9504
 1.6250	79.9542
 1.6240	79.9811
 1.6230	79.9660
 1.6220	80.0225
 1.6210	79.9591
 1.6200	79.9723
 1.6190	80.0212
 1.6180	80.0138
 1.6170	79.9692
 1.6160	79.9999
 1.6150	79.9693
 1.6140	79.9985
 1.6130	79.9592
 1.6120	80.0638
 1.6110	79.9138
 1.6100	79.9677
 1.6090	80.0028
 1.6080	80.0040
 1.6070	79.9690
 1.6060	80.0115
 1.6050	80.0064
 1.6040	79.9496
 1.6030	80.0814
 1.6020	80.0651
 1.6010	79.9319
 1.6000	80.0023
 1.5990	79.9638
 1.5980	79.9875
 1.5970	79.9285
 1.5960	79.9844
 1.5950	79.9345
 1.5940	79.9619
 1.5930	79.9498
 1.5920	79.9999
 1.5910	80.0119
 1.5900	79.9952
 1.5890	79.9769
 1.5880	80.0316
 1.5870	79.9542
 1.5860	79.9574
 1.5850	79.9251
 1.5840	79.9341
 1.5830	79.9239
 1.5820	79.9376
 1.5810	79.9057
 1.5800	80.0017
 1.5790	80.0387
 1.5780	79.9537
 1.5770	79.9817
 1.5760	79.9912
 1.5750	80.0115
 1.5740	79.9581
 1.5730	79.9533
 1.5720	79.9136
 1.5710	79.9065
 1.5700	79.9272
 1.5690	79.8727
 1.5680	79.8806
 1.5670	79.8574
 1.5660	79.8768
 1.5650	79.9428
 1.5640	79.8920
 1.5630	79.9052
 1.5620	79.9095
 1.5610	79.9358
 1.5600	79.9121
 1.5590	79.8416
 1.5580	79.8749
 1.5570	79.9017
 1.5560	79.8693
 1.5550	79.9195
 1.5540	79.9221
 1.5530	79.8288
 1.5520	79.8498
 1.5510	79.8048
 1.5500	79.8798
 1.5490	79.8485
 1.5480	79.8438
 1.5470	79.8386
 1.5460	79.8838
 1.5450	79.8801
 1.5440	79.8890
 1.5430	79.9004
 1.5420	79.8237
 1.5410	79.8584
 1.5400	79.8448
 1.5390	79.7855
 1.5380	79.7420
 1.5370	79.7982
 1.5360	79.8150
 1.5350	79.8061
 1.5340	79.8688
 1.5330	79.7849
 1.5320	79.7858
 1.5310	79.8276
 1.5300	79.8538
 1.5290	79.8325
 1.5280	79.8141
 1.5270	79.7883
 1.5260	79.7850
 1.5250	79.8085
 1.5240	79.8447
 1.5230	79.8075
 1.5220	79.7684
 1.5210	79.7174
 1.5200	79.7164
 1.5190	79.7142
 1.5180	79.7408
 1.5170	79.7603
 1.5160	79.7461
 1.5150	79.6950
 1.5140	79.7316
 1.5130	79.7434
 1.5120	79.7078
 1.5110	79.7025
 1.5100	79.6619
 1.5090	79.6990
 1.5080	79.7487
 1.5070	79.7390
 1.5060	79.7056
 1.5050	79.6534
 1.5040	79.6493
 1.5030	79.6526
 1.5020	79.6816
 1.5010	79.6983
 1.5000	79.6610
 1.4990	79.5988
 1.4980	79.5533
 1.4970	79.6037
 1.4960	79.6643
 1.4950	79.5989
 1.4940	79.5707
 1.4930	79.6053
 1.4920	79.5969
 1.4910	79.6192
 1.4900	79.5984
 1.4890	79.6134
 1.4880	79.6571
 1.4870	79.6128
 1.4860	79.6040
 1.4850	79.6138
 1.4840	79.5879
 1.4830	79.5722
 1.4820	79.5572
 1.4810	79.5539
 1.4800	79.5611
 1.4790	79.5331
 1.4780	79.5003
 1.4770	79.4801
 1.4760	79.4552
 1.4750	79.4797
 1.4740	79.4780
 1.4730	79.4832
 1.4720	79.5265
 1.4710	79.5155
 1.4700	79.4891
 1.4690	79.5111
 1.4680	79.4855
 1.4670	79.5068
 1.4660	79.4571
 1.4650	79.4359
 1.4640	79.4060
 1.4630	79.4534
 1.4620	79.4845
 1.4610	79.4731
 1.4600	79.4317
 1.4590	79.4357
 1.4580	79.4275
 1.4570	79.3734
 1.4560	79.4625
 1.4550	79.4752
 1.4540	79.3734
 1.4530	79.3675
 1.4520	79.3875
 1.4510	79.4266
 1.4500	79.3751
 1.4490	79.3619
 1.4480	79.3402
 1.4470	79.3939
 1.4460	79.3397
 1.4450	79.3593
 1.4440	79.3269
 1.4430	79.2872
 1.4420	79.3360
 1.4410	79.3444
 1.4400	79.2947
 1.4390	79.3055
 1.4380	79.2756
 1.4370	79.2913
 1.4360	79.2549
 1.4350	79.1861
 1.4340	79.2427
 1.4330	79.2086
 1.4320	79.1384
 1.4310	79.1334
 1.4300	79.0250
 1.4290	79.0310
 1.4280	79.0554
 1.4270	79.0243
 1.4260	78.9250
 1.4250	78.9181
 1.4240	78.7949
 1.4230	78.6643
 1.4220	78.5996
 1.4210	78.5209
 1.4200	78.4059
 1.4190	78.2403
 1.4180	78.1788
 1.4170	77.9866
 1.4160	77.8226
 1.4150	77.6722
 1.4140	77.6046
 1.4130	77.6776
 1.4120	77.6102
 1.4110	77.6779
 1.4100	77.7168
 1.4090	77.7398
 1.4080	77.7662
 1.4070	77.8369
 1.4060	77.9303
 1.4050	77.9238
 1.4040	78.0031
 1.4030	78.1020
 1.4020	78.1161
 1.4010	78.2763
 1.4000	78.2617
 1.3990	78.3711
 1.3980	78.5241
 1.3970	78.6604
 1.3960	78.7855
 1.3950	78.8459
 1.3940	78.9420
 1.3930	79.0595
 1.3920	79.1894
 1.3910	79.1921
 1.3900	79.3228
 1.3890	79.3351
 1.3880	79.3895
 1.3870	79.4087
 1.3860	79.3713
 1.3850	79.4672
 1.3840	79.4259
 1.3830	79.4874
 1.3820	79.4446
 1.3810	79.5193
 1.3800	79.4539
 1.3790	79.5192
 1.3780	79.4673
 1.3770	79.5524
 1.3760	79.3803
 1.3750	79.4731
 1.3740	79.4646
 1.3730	79.5013
 1.3720	79.4984
 1.3710	79.4479
 1.3700	79.4197
 1.3690	79.5067
 1.3680	79.4774
 1.3670	79.4673
 1.3660	79.5122
