Name: Howlite Ca_2B_5SiO_9(OH)_5
Type: Mineral
Class: Borate
Subclass: None
Particle Size: Fine
Sample No.: B-5A
Owner: JPL
Wavelength Range: VSWIR
Origin: USA, California, San Gabriel Mountains, Tick Canyon.
Collection Date: N/A
Description: Particle size was 0-45um.Collected by:  Burminco Original ASTER Spectral Library name was jpl.perkin.mineral.borate.none.fine.b05a.spectrum.txt
Measurement: Hemispherical reflectance
First Column: X
Second Column: Y
X Units: Wavelength (micrometers)
Y Units:Reflectance (percent)
First X Value:  2.5000
Last X Value:  0.4000
Number of X Values: 2101
Additional Information: mineral.borate.none.fine.vswir.b-5a.jpl.perkin.ancillary.txt

 2.5000	52.4638
 2.4990	52.1727
 2.4980	51.9892
 2.4970	51.8861
 2.4960	51.2569
 2.4950	51.4587
 2.4940	50.9498
 2.4930	51.0285
 2.4920	50.5058
 2.4910	50.4651
 2.4900	49.9792
 2.4890	49.8995
 2.4880	49.5702
 2.4870	49.3186
 2.4860	48.8093
 2.4850	48.5495
 2.4840	48.2946
 2.4830	48.1161
 2.4820	47.6991
 2.4810	47.4230
 2.4800	46.9577
 2.4790	46.5926
 2.4780	46.1994
 2.4770	45.8477
 2.4760	45.4647
 2.4750	45.1744
 2.4740	44.6647
 2.4730	44.2288
 2.4720	43.8565
 2.4710	43.5440
 2.4700	43.0641
 2.4690	42.7732
 2.4680	42.3448
 2.4670	42.1308
 2.4660	41.7880
 2.4650	41.4754
 2.4640	41.2220
 2.4630	41.0378
 2.4620	40.6479
 2.4610	40.7066
 2.4600	40.4689
 2.4590	40.4359
 2.4580	40.3565
 2.4570	40.4197
 2.4560	40.4388
 2.4550	40.5839
 2.4540	40.6207
 2.4530	40.9272
 2.4520	40.8846
 2.4510	41.2566
 2.4500	41.5147
 2.4490	41.7378
 2.4480	41.9968
 2.4470	42.3559
 2.4460	42.5265
 2.4450	42.8501
 2.4440	43.1449
 2.4430	43.4895
 2.4420	43.7261
 2.4410	44.0904
 2.4400	44.2322
 2.4390	44.6062
 2.4380	44.8972
 2.4370	45.1668
 2.4360	45.3081
 2.4350	45.6789
 2.4340	45.8531
 2.4330	46.0816
 2.4320	46.2825
 2.4310	46.5373
 2.4300	46.6985
 2.4290	46.9582
 2.4280	47.1792
 2.4270	47.5026
 2.4260	47.7571
 2.4250	48.0578
 2.4240	48.2804
 2.4230	48.6800
 2.4220	49.0148
 2.4210	49.3474
 2.4200	49.5911
 2.4190	49.9886
 2.4180	50.3865
 2.4170	50.8171
 2.4160	51.1711
 2.4150	51.5965
 2.4140	51.9787
 2.4130	52.4386
 2.4120	52.9182
 2.4110	53.3685
 2.4100	53.7789
 2.4090	54.2710
 2.4080	54.6493
 2.4070	55.0497
 2.4060	55.4337
 2.4050	55.9315
 2.4040	56.3113
 2.4030	56.7143
 2.4020	57.0687
 2.4010	57.4142
 2.4000	57.7477
 2.3990	58.1941
 2.3980	58.5550
 2.3970	58.8839
 2.3960	59.2470
 2.3950	59.6054
 2.3940	59.8727
 2.3930	60.2066
 2.3920	60.4414
 2.3910	60.7206
 2.3900	60.9797
 2.3890	61.3101
 2.3880	61.6202
 2.3870	61.8299
 2.3860	62.1080
 2.3850	62.4429
 2.3840	62.6553
 2.3830	62.9408
 2.3820	63.1676
 2.3810	63.3501
 2.3800	63.4612
 2.3790	63.6590
 2.3780	63.8863
 2.3770	64.1072
 2.3760	64.2443
 2.3750	64.3919
 2.3740	64.5293
 2.3730	64.6603
 2.3720	64.8246
 2.3710	64.9593
 2.3700	65.0730
 2.3690	65.1760
 2.3680	65.2424
 2.3670	65.3568
 2.3660	65.4338
 2.3650	65.4612
 2.3640	65.5241
 2.3630	65.5765
 2.3620	65.6523
 2.3610	65.6965
 2.3600	65.7646
 2.3590	65.8839
 2.3580	65.9137
 2.3570	65.9066
 2.3560	65.9310
 2.3550	66.0165
 2.3540	66.0980
 2.3530	66.1951
 2.3520	66.3020
 2.3510	66.3795
 2.3500	66.4936
 2.3490	66.5859
 2.3480	66.6148
 2.3470	66.7327
 2.3460	66.9143
 2.3450	67.0111
 2.3440	67.1078
 2.3430	67.1423
 2.3420	67.2281
 2.3410	67.3316
 2.3400	67.3541
 2.3390	67.4193
 2.3380	67.4960
 2.3370	67.4763
 2.3360	67.4473
 2.3350	67.3760
 2.3340	67.3551
 2.3330	67.2930
 2.3320	67.2351
 2.3310	67.1441
 2.3300	67.0612
 2.3290	66.9797
 2.3280	66.8969
 2.3270	66.7664
 2.3260	66.6012
 2.3250	66.4721
 2.3240	66.3763
 2.3230	66.2505
 2.3220	66.0976
 2.3210	65.9367
 2.3200	65.8319
 2.3190	65.7439
 2.3180	65.6273
 2.3170	65.5079
 2.3160	65.4117
 2.3150	65.2710
 2.3140	65.1705
 2.3130	65.0536
 2.3120	64.9856
 2.3110	64.9160
 2.3100	64.8343
 2.3090	64.7819
 2.3080	64.6522
 2.3070	64.5121
 2.3060	64.4518
 2.3050	64.4370
 2.3040	64.3737
 2.3030	64.2199
 2.3020	64.1687
 2.3010	64.1162
 2.3000	64.1473
 2.2990	64.0759
 2.2980	64.1072
 2.2970	64.1188
 2.2960	64.1196
 2.2950	64.1118
 2.2940	64.1864
 2.2930	64.2143
 2.2920	64.2084
 2.2910	64.2063
 2.2900	64.2831
 2.2890	64.3045
 2.2880	64.3220
 2.2870	64.3570
 2.2860	64.3596
 2.2850	64.3766
 2.2840	64.4680
 2.2830	64.4242
 2.2820	64.4689
 2.2810	64.4253
 2.2800	64.4362
 2.2790	64.3351
 2.2780	64.3554
 2.2770	64.3304
 2.2760	64.2131
 2.2750	64.1043
 2.2740	64.1309
 2.2730	64.0031
 2.2720	63.8875
 2.2710	63.7300
 2.2700	63.6450
 2.2690	63.4588
 2.2680	63.2509
 2.2670	63.1283
 2.2660	62.9907
 2.2650	62.7441
 2.2640	62.6815
 2.2630	62.3393
 2.2620	62.1955
 2.2610	61.9344
 2.2600	61.6885
 2.2590	61.4495
 2.2580	61.1911
 2.2570	60.9848
 2.2560	60.8838
 2.2550	60.5791
 2.2540	60.4297
 2.2530	60.1959
 2.2520	60.0744
 2.2510	59.9160
 2.2500	59.7412
 2.2490	59.5539
 2.2480	59.4664
 2.2470	59.2768
 2.2460	59.2301
 2.2450	59.1032
 2.2440	59.1190
 2.2430	59.0353
 2.2420	59.0937
 2.2410	59.0439
 2.2400	59.0793
 2.2390	59.0534
 2.2380	59.1753
 2.2370	59.1534
 2.2360	59.2990
 2.2350	59.4062
 2.2340	59.5273
 2.2330	59.5654
 2.2320	59.6882
 2.2310	59.8486
 2.2300	59.9452
 2.2290	60.0600
 2.2280	60.2766
 2.2270	60.3014
 2.2260	60.5048
 2.2250	60.6249
 2.2240	60.8179
 2.2230	60.8746
 2.2220	61.0302
 2.2210	61.1564
 2.2200	61.3265
 2.2190	61.4035
 2.2180	61.5388
 2.2170	61.6244
 2.2160	61.7603
 2.2150	61.8614
 2.2140	61.9283
 2.2130	61.9180
 2.2120	62.0261
 2.2110	61.9768
 2.2100	62.2136
 2.2090	62.1870
 2.2080	62.2464
 2.2070	62.2862
 2.2060	62.4384
 2.2050	62.3636
 2.2040	62.3939
 2.2030	62.4017
 2.2020	62.4427
 2.2010	62.4590
 2.2000	62.4102
 2.1990	62.3808
 2.1980	62.3165
 2.1970	62.1631
 2.1960	62.0965
 2.1950	61.9502
 2.1940	61.8507
 2.1930	61.6450
 2.1920	61.5062
 2.1910	61.3479
 2.1900	61.1317
 2.1890	60.8763
 2.1880	60.7799
 2.1870	60.5355
 2.1860	60.2948
 2.1850	60.0863
 2.1840	59.8708
 2.1830	59.6116
 2.1820	59.4579
 2.1810	59.1056
 2.1800	58.8963
 2.1790	58.6131
 2.1780	58.3866
 2.1770	58.0762
 2.1760	57.8880
 2.1750	57.5253
 2.1740	57.2756
 2.1730	56.9276
 2.1720	56.7078
 2.1710	56.3581
 2.1700	56.1534
 2.1690	55.8598
 2.1680	55.6696
 2.1670	55.4082
 2.1660	55.2805
 2.1650	55.0353
 2.1640	54.9433
 2.1630	54.8984
 2.1620	54.8485
 2.1610	54.7889
 2.1600	54.8467
 2.1590	54.8939
 2.1580	55.0241
 2.1570	55.1497
 2.1560	55.3367
 2.1550	55.5153
 2.1540	55.7377
 2.1530	55.9435
 2.1520	56.1753
 2.1510	56.3247
 2.1500	56.5930
 2.1490	56.7739
 2.1480	56.9444
 2.1470	57.0045
 2.1460	57.0856
 2.1450	57.1035
 2.1440	57.1268
 2.1430	57.0379
 2.1420	56.9651
 2.1410	56.8129
 2.1400	56.5972
 2.1390	56.3793
 2.1380	56.1599
 2.1370	55.8506
 2.1360	55.5808
 2.1350	55.2551
 2.1340	55.0572
 2.1330	54.7742
 2.1320	54.5974
 2.1310	54.3467
 2.1300	54.0959
 2.1290	54.1179
 2.1280	54.1392
 2.1270	54.2797
 2.1260	54.4252
 2.1250	54.6400
 2.1240	54.9513
 2.1230	55.3020
 2.1220	55.6434
 2.1210	56.0276
 2.1200	56.4983
 2.1190	56.9654
 2.1180	57.4016
 2.1170	57.8872
 2.1160	58.3735
 2.1150	58.7918
 2.1140	59.2710
 2.1130	59.5859
 2.1120	59.9087
 2.1110	60.2142
 2.1100	60.4877
 2.1090	60.8093
 2.1080	61.0637
 2.1070	61.2990
 2.1060	61.5412
 2.1050	61.7054
 2.1040	61.9072
 2.1030	62.1377
 2.1020	62.2839
 2.1010	62.5290
 2.1000	62.7994
 2.0990	63.0785
 2.0980	63.3792
 2.0970	63.6984
 2.0960	64.0396
 2.0950	64.4345
 2.0940	64.8560
 2.0930	65.2829
 2.0920	65.6775
 2.0910	66.0051
 2.0900	66.3562
 2.0890	66.7872
 2.0880	67.2082
 2.0870	67.6488
 2.0860	68.0737
 2.0850	68.5249
 2.0840	68.9511
 2.0830	69.4007
 2.0820	69.8229
 2.0810	70.2798
 2.0800	70.7852
 2.0790	71.1838
 2.0780	71.5988
 2.0770	72.1068
 2.0760	72.6290
 2.0750	73.0514
 2.0740	73.4938
 2.0730	73.8992
 2.0720	74.3175
 2.0710	74.7263
 2.0700	75.0624
 2.0690	75.4029
 2.0680	75.7144
 2.0670	76.0836
 2.0660	76.3395
 2.0650	76.5738
 2.0640	76.8831
 2.0630	77.0750
 2.0620	77.1763
 2.0610	77.3404
 2.0600	77.5507
 2.0590	77.6884
 2.0580	77.8684
 2.0570	77.9799
 2.0560	78.1285
 2.0550	78.2969
 2.0540	78.3495
 2.0530	78.4328
 2.0520	78.5119
 2.0510	78.6292
 2.0500	78.7235
 2.0490	78.7661
 2.0480	78.8420
 2.0470	78.8986
 2.0460	78.9268
 2.0450	78.8948
 2.0440	78.9086
 2.0430	78.9387
 2.0420	78.9162
 2.0410	78.8816
 2.0400	78.8079
 2.0390	78.7544
 2.0380	78.2137
 2.0370	78.2579
 2.0360	78.4439
 2.0350	78.4063
 2.0340	78.2867
 2.0330	78.1553
 2.0320	78.0869
 2.0310	78.0690
 2.0300	78.0552
 2.0290	78.1448
 2.0280	78.2467
 2.0270	78.3591
 2.0260	78.4329
 2.0250	78.6618
 2.0240	78.7854
 2.0230	79.0186
 2.0220	79.1996
 2.0210	79.2942
 2.0200	79.4275
 2.0190	79.5424
 2.0180	79.6659
 2.0170	79.6856
 2.0160	79.7375
 2.0150	79.7570
 2.0140	79.7037
 2.0130	79.7113
 2.0120	79.7559
 2.0110	79.8144
 2.0100	79.7809
 2.0090	79.7872
 2.0080	79.8175
 2.0070	79.8894
 2.0060	79.9972
 2.0050	80.0997
 2.0040	80.1854
 2.0030	80.2454
 2.0020	80.2668
 2.0010	80.3509
 2.0000	80.4113
 1.9990	80.5121
 1.9980	80.5340
 1.9970	80.6377
 1.9960	80.6814
 1.9950	80.6998
 1.9940	80.7827
 1.9930	80.8832
 1.9920	80.9320
 1.9910	80.9756
 1.9900	80.9701
 1.9890	81.0637
 1.9880	81.1889
 1.9870	81.2142
 1.9860	81.2225
 1.9850	81.3467
 1.9840	81.3999
 1.9830	81.4523
 1.9820	81.4866
 1.9810	81.4753
 1.9800	81.5249
 1.9790	81.5652
 1.9780	81.5999
 1.9770	81.6146
 1.9760	81.6594
 1.9750	81.6668
 1.9740	81.7163
 1.9730	81.6708
 1.9720	81.7481
 1.9710	81.7247
 1.9700	81.7689
 1.9690	81.8862
 1.9680	81.8432
 1.9670	81.8762
 1.9660	81.8772
 1.9650	81.7989
 1.9640	81.7536
 1.9630	81.8943
 1.9620	81.9420
 1.9610	81.9339
 1.9600	81.9328
 1.9590	81.9306
 1.9580	81.9554
 1.9570	81.9955
 1.9560	82.0294
 1.9550	82.0429
 1.9540	82.0659
 1.9530	82.1656
 1.9520	82.1322
 1.9510	82.1646
 1.9500	82.2701
 1.9490	82.2436
 1.9480	82.2774
 1.9470	82.2803
 1.9460	82.3022
 1.9450	82.2502
 1.9440	82.2997
 1.9430	82.3271
 1.9420	82.4889
 1.9410	82.4471
 1.9400	82.4228
 1.9390	82.3964
 1.9380	82.4449
 1.9370	82.5484
 1.9360	82.4380
 1.9350	82.5671
 1.9340	82.6057
 1.9330	82.5517
 1.9320	82.5816
 1.9310	82.6034
 1.9300	82.6642
 1.9290	82.6172
 1.9280	82.6820
 1.9270	82.7347
 1.9260	82.7100
 1.9250	82.7640
 1.9240	82.7578
 1.9230	82.9164
 1.9220	82.8410
 1.9210	82.9552
 1.9200	82.9077
 1.9190	82.9271
 1.9180	82.8951
 1.9170	83.0256
 1.9160	82.9899
 1.9150	83.1903
 1.9140	83.1875
 1.9130	83.2538
 1.9120	83.1744
 1.9110	83.3270
 1.9100	83.2948
 1.9090	83.3166
 1.9080	83.3275
 1.9070	83.2837
 1.9060	83.3900
 1.9050	83.5367
 1.9040	83.4124
 1.9030	83.4861
 1.9020	83.5357
 1.9010	83.6695
 1.9000	83.6157
 1.8990	83.6141
 1.8980	83.6664
 1.8970	83.6818
 1.8960	83.6874
 1.8950	83.6724
 1.8940	83.7128
 1.8930	83.7637
 1.8920	83.6919
 1.8910	83.7759
 1.8900	83.8040
 1.8890	83.8944
 1.8880	83.8770
 1.8870	83.9130
 1.8860	83.9275
 1.8850	83.9317
 1.8840	83.9611
 1.8830	83.9523
 1.8820	84.0233
 1.8810	84.0204
 1.8800	84.0478
 1.8790	84.1107
 1.8780	84.1368
 1.8770	84.0561
 1.8760	84.0856
 1.8750	84.1421
 1.8740	84.2299
 1.8730	84.2408
 1.8720	84.1669
 1.8710	84.2561
 1.8700	84.3173
 1.8690	84.3619
 1.8680	84.3066
 1.8670	84.3044
 1.8660	84.3098
 1.8650	84.4510
 1.8640	84.4620
 1.8630	84.4161
 1.8620	84.4567
 1.8610	84.5181
 1.8600	84.4994
 1.8590	84.5003
 1.8580	84.4630
 1.8570	84.5923
 1.8560	84.5938
 1.8550	84.5642
 1.8540	84.5500
 1.8530	84.5274
 1.8520	84.6305
 1.8510	84.6501
 1.8500	84.6358
 1.8490	84.7459
 1.8480	84.6743
 1.8470	84.6929
 1.8460	84.6317
 1.8450	84.6629
 1.8440	84.6556
 1.8430	84.6809
 1.8420	84.6608
 1.8410	84.6777
 1.8400	84.6901
 1.8390	84.7264
 1.8380	84.7311
 1.8370	84.6940
 1.8360	84.6187
 1.8350	84.6645
 1.8340	84.6871
 1.8330	84.6716
 1.8320	84.6498
 1.8310	84.6445
 1.8300	84.6800
 1.8290	84.6809
 1.8280	84.6724
 1.8270	84.6053
 1.8260	84.6410
 1.8250	84.6321
 1.8240	84.6340
 1.8230	84.5974
 1.8220	84.5791
 1.8210	84.6013
 1.8200	84.5847
 1.8190	84.6130
 1.8180	84.6413
 1.8170	84.6624
 1.8160	84.6683
 1.8150	84.6416
 1.8140	84.6251
 1.8130	84.6125
 1.8120	84.6253
 1.8110	84.6192
 1.8100	84.5640
 1.8090	84.5681
 1.8080	84.6165
 1.8070	84.6494
 1.8060	84.6316
 1.8050	84.6145
 1.8040	84.6083
 1.8030	84.6514
 1.8020	84.6629
 1.8010	84.6786
 1.8000	84.6156
 1.7990	84.5719
 1.7980	84.5889
 1.7970	84.6382
 1.7960	84.6372
 1.7950	84.5803
 1.7940	84.5626
 1.7930	84.5370
 1.7920	84.5308
 1.7910	84.5593
 1.7900	84.5518
 1.7890	84.5364
 1.7880	84.5336
 1.7870	84.5367
 1.7860	84.5038
 1.7850	84.4888
 1.7840	84.4942
 1.7830	84.4716
 1.7820	84.4504
 1.7810	84.4211
 1.7800	84.4516
 1.7790	84.4434
 1.7780	84.3497
 1.7770	84.3650
 1.7760	84.3414
 1.7750	84.3329
 1.7740	84.3490
 1.7730	84.2960
 1.7720	84.2870
 1.7710	84.2541
 1.7700	84.2268
 1.7690	84.2445
 1.7680	84.2861
 1.7670	84.2550
 1.7660	84.2185
 1.7650	84.1697
 1.7640	84.1651
 1.7630	84.1717
 1.7620	84.1843
 1.7610	84.1612
 1.7600	84.1568
 1.7590	84.1374
 1.7580	84.0873
 1.7570	84.0485
 1.7560	84.0914
 1.7550	84.1453
 1.7540	84.1511
 1.7530	84.0557
 1.7520	84.0014
 1.7510	83.9915
 1.7500	83.9828
 1.7490	83.9856
 1.7480	83.9584
 1.7470	83.9083
 1.7460	83.9557
 1.7450	83.9715
 1.7440	83.9011
 1.7430	83.8592
 1.7420	83.8485
 1.7410	83.8306
 1.7400	83.8322
 1.7390	83.7999
 1.7380	83.7827
 1.7370	83.7334
 1.7360	83.7633
 1.7350	83.7032
 1.7340	83.7206
 1.7330	83.6393
 1.7320	83.6117
 1.7310	83.5860
 1.7300	83.5941
 1.7290	83.5291
 1.7280	83.5204
 1.7270	83.5092
 1.7260	83.5169
 1.7250	83.5219
 1.7240	83.4060
 1.7230	83.3432
 1.7220	83.3368
 1.7210	83.3834
 1.7200	83.3910
 1.7190	83.2497
 1.7180	83.2511
 1.7170	83.2584
 1.7160	83.2328
 1.7150	83.1986
 1.7140	83.1872
 1.7130	83.1546
 1.7120	83.1312
 1.7110	83.0871
 1.7100	83.1247
 1.7090	83.0989
 1.7080	83.1275
 1.7070	83.0840
 1.7060	83.1117
 1.7050	83.0584
 1.7040	83.0457
 1.7030	82.9466
 1.7020	82.8796
 1.7010	82.8797
 1.7000	82.9496
 1.6990	82.8024
 1.6980	82.8758
 1.6970	82.8522
 1.6960	82.7995
 1.6950	82.7700
 1.6940	82.7774
 1.6930	82.7608
 1.6920	82.7609
 1.6910	82.6626
 1.6900	82.6886
 1.6890	82.7188
 1.6880	82.6561
 1.6870	82.6127
 1.6860	82.5868
 1.6850	82.5911
 1.6840	82.5796
 1.6830	82.4795
 1.6820	82.4529
 1.6810	82.4345
 1.6800	82.4345
 1.6790	82.4612
 1.6780	82.4093
 1.6770	82.3371
 1.6760	82.3052
 1.6750	82.2748
 1.6740	82.3030
 1.6730	82.2623
 1.6720	82.2234
 1.6710	82.2505
 1.6700	82.1644
 1.6690	82.1668
 1.6680	82.0539
 1.6670	82.0642
 1.6660	82.0414
 1.6650	82.1095
 1.6640	82.0413
 1.6630	82.0569
 1.6620	81.9718
 1.6610	82.0692
 1.6600	81.9857
 1.6590	81.9352
 1.6580	81.9439
 1.6570	81.8319
 1.6560	81.8230
 1.6550	81.8417
 1.6540	81.8862
 1.6530	81.8125
 1.6520	81.8581
 1.6510	81.8450
 1.6500	81.8423
 1.6490	81.7704
 1.6480	81.8567
 1.6470	81.8620
 1.6460	81.8066
 1.6450	81.8000
 1.6440	81.8371
 1.6430	81.7566
 1.6420	81.7754
 1.6410	81.7328
 1.6400	81.7825
 1.6390	81.8149
 1.6380	81.7665
 1.6370	81.7447
 1.6360	81.7260
 1.6350	81.7205
 1.6340	81.7381
 1.6330	81.7482
 1.6320	81.8291
 1.6310	81.8636
 1.6300	81.8713
 1.6290	81.8061
 1.6280	81.8923
 1.6270	81.8737
 1.6260	81.9274
 1.6250	81.9301
 1.6240	81.9153
 1.6230	82.0146
 1.6220	82.0964
 1.6210	82.0367
 1.6200	82.0776
 1.6190	82.0976
 1.6180	82.0999
 1.6170	82.1985
 1.6160	82.2239
 1.6150	82.1968
 1.6140	82.2594
 1.6130	82.3273
 1.6120	82.3574
 1.6110	82.3800
 1.6100	82.3884
 1.6090	82.4108
 1.6080	82.4571
 1.6070	82.4683
 1.6060	82.5116
 1.6050	82.5410
 1.6040	82.6397
 1.6030	82.6538
 1.6020	82.6551
 1.6010	82.7532
 1.6000	82.7638
 1.5990	82.7668
 1.5980	82.8519
 1.5970	82.8970
 1.5960	82.9119
 1.5950	82.9936
 1.5940	83.0907
 1.5930	83.1132
 1.5920	83.1655
 1.5910	83.1479
 1.5900	83.3246
 1.5890	83.3370
 1.5880	83.3737
 1.5870	83.4031
 1.5860	83.4969
 1.5850	83.5323
 1.5840	83.6022
 1.5830	83.6536
 1.5820	83.7196
 1.5810	83.8193
 1.5800	83.8208
 1.5790	83.9088
 1.5780	83.9358
 1.5770	83.9067
 1.5760	84.0385
 1.5750	84.0792
 1.5740	84.1339
 1.5730	84.1829
 1.5720	84.2298
 1.5710	84.2156
 1.5700	84.2778
 1.5690	84.2852
 1.5680	84.3994
 1.5670	84.3928
 1.5660	84.4383
 1.5650	84.4771
 1.5640	84.5178
 1.5630	84.5416
 1.5620	84.4998
 1.5610	84.5177
 1.5600	84.5780
 1.5590	84.6018
 1.5580	84.6048
 1.5570	84.6578
 1.5560	84.6269
 1.5550	84.6411
 1.5540	84.6842
 1.5530	84.6202
 1.5520	84.6051
 1.5510	84.6020
 1.5500	84.6462
 1.5490	84.6132
 1.5480	84.5868
 1.5470	84.5812
 1.5460	84.5433
 1.5450	84.4737
 1.5440	84.4526
 1.5430	84.3932
 1.5420	84.3726
 1.5410	84.3714
 1.5400	84.2942
 1.5390	84.1627
 1.5380	84.1094
 1.5370	84.0161
 1.5360	83.8939
 1.5350	83.7670
 1.5340	83.6190
 1.5330	83.4648
 1.5320	83.3343
 1.5310	83.1124
 1.5300	82.8588
 1.5290	82.6543
 1.5280	82.4776
 1.5270	82.2329
 1.5260	82.0145
 1.5250	81.7523
 1.5240	81.5657
 1.5230	81.4097
 1.5220	81.3557
 1.5210	81.3175
 1.5200	81.3158
 1.5190	81.3313
 1.5180	81.3476
 1.5170	81.3928
 1.5160	81.4404
 1.5150	81.5041
 1.5140	81.5955
 1.5130	81.6477
 1.5120	81.7216
 1.5110	81.8403
 1.5100	81.9079
 1.5090	81.9754
 1.5080	82.0260
 1.5070	82.0414
 1.5060	82.0950
 1.5050	82.1439
 1.5040	82.1877
 1.5030	82.1547
 1.5020	82.1314
 1.5010	82.1751
 1.5000	82.1731
 1.4990	82.1569
 1.4980	82.2061
 1.4970	82.3036
 1.4960	82.3415
 1.4950	82.3702
 1.4940	82.3921
 1.4930	82.4239
 1.4920	82.4951
 1.4910	82.5304
 1.4900	82.5149
 1.4890	82.4801
 1.4880	82.4181
 1.4870	82.3664
 1.4860	82.3524
 1.4850	82.2348
 1.4840	82.1583
 1.4830	82.1231
 1.4820	81.9687
 1.4810	81.8915
 1.4800	81.8243
 1.4790	81.7173
 1.4780	81.5922
 1.4770	81.5693
 1.4760	81.4812
 1.4750	81.3521
 1.4740	81.3150
 1.4730	81.2688
 1.4720	81.2899
 1.4710	81.3932
 1.4700	81.4504
 1.4690	81.4915
 1.4680	81.5321
 1.4670	81.5889
 1.4660	81.6319
 1.4650	81.6474
 1.4640	81.6637
 1.4630	81.6750
 1.4620	81.6328
 1.4610	81.6753
 1.4600	81.6696
 1.4590	81.6118
 1.4580	81.5804
 1.4570	81.4893
 1.4560	81.3524
 1.4550	81.1895
 1.4540	80.9719
 1.4530	80.4912
 1.4520	79.8418
 1.4510	78.9143
 1.4500	77.6802
 1.4490	76.1573
 1.4480	74.5590
 1.4470	73.3260
 1.4460	72.4499
 1.4450	72.1719
 1.4440	72.4399
 1.4430	73.1593
 1.4420	74.0841
 1.4410	75.0769
 1.4400	76.0801
 1.4390	76.9362
 1.4380	77.6520
 1.4370	78.0802
 1.4360	78.0452
 1.4350	77.4712
 1.4340	76.5542
 1.4330	75.6249
 1.4320	75.2931
 1.4310	75.8536
 1.4300	77.0732
 1.4290	78.4266
 1.4280	79.4600
 1.4270	80.1227
 1.4260	80.5615
 1.4250	80.9992
 1.4240	81.2829
 1.4230	81.5418
 1.4220	81.7819
 1.4210	81.9301
 1.4200	81.9894
 1.4190	82.0684
 1.4180	82.1283
 1.4170	82.1961
 1.4160	82.2100
 1.4150	82.2670
 1.4140	82.3869
 1.4130	82.4600
 1.4120	82.4920
 1.4110	82.7432
 1.4100	82.8065
 1.4090	82.9381
 1.4080	83.0186
 1.4070	83.2356
 1.4060	83.4628
 1.4050	83.6338
 1.4040	83.7746
 1.4030	83.9619
 1.4020	84.1392
 1.4010	84.3777
 1.4000	84.5821
 1.3990	84.8664
 1.3980	85.1111
 1.3970	85.3709
 1.3960	85.5861
 1.3950	85.8732
 1.3940	86.0646
 1.3930	86.2198
 1.3920	86.4272
 1.3910	86.6113
 1.3900	86.7436
 1.3890	86.9661
 1.3880	87.2394
 1.3870	87.3495
 1.3860	87.3697
 1.3850	87.4910
 1.3840	87.6689
 1.3830	87.8152
 1.3820	87.8991
 1.3810	87.9847
 1.3800	88.0521
 1.3790	88.2066
 1.3780	88.2171
 1.3770	88.3882
 1.3760	88.3919
 1.3750	88.5066
 1.3740	88.5581
 1.3730	88.5871
 1.3720	88.7058
 1.3710	88.6701
 1.3700	88.8019
 1.3690	88.8901
 1.3680	88.8949
 1.3670	88.9229
 1.3660	88.9095
