Name: Nontronite Na_0.33Fe_2^3+(Si,Al)_4O_10(OH)_2.H_2O
Type: Mineral
Class: Silicate
Subclass: Phyllosilicate
Particle Size: Fine
Sample No.: PS-6A
Owner: JPL
Wavelength Range: VSWIR
Origin: USA, Pennsylvania.
Collection Date: N/A
Description: Particle size was 0-45um.Collected by:  Ward's Original ASTER Spectral Library name was jpl.perkin.mineral.silicate.phyllosilicate.fine.ps06a.spectrum.txt
Measurement: Hemispherical reflectance
First Column: X
Second Column: Y
X Units: Wavelength (micrometers)
Y Units:Reflectance (percent)
First X Value:  2.5000
Last X Value:  0.4000
Number of X Values: 2101
Additional Information: mineral.silicate.phyllosilicate.fine.vswir.ps-6a.jpl.perkin.ancillary.txt

 2.5000	37.4145
 2.4990	37.4826
 2.4980	37.5427
 2.4970	37.7566
 2.4960	37.2932
 2.4950	38.0088
 2.4940	37.8285
 2.4930	38.0891
 2.4920	38.2295
 2.4910	38.3397
 2.4900	38.4681
 2.4890	38.6334
 2.4880	38.6212
 2.4870	38.8919
 2.4860	38.8853
 2.4850	39.1648
 2.4840	39.1081
 2.4830	39.4541
 2.4820	39.5413
 2.4810	39.7200
 2.4800	39.8222
 2.4790	39.9601
 2.4780	40.0527
 2.4770	40.4114
 2.4760	40.3821
 2.4750	40.5655
 2.4740	40.6204
 2.4730	40.8233
 2.4720	40.9920
 2.4710	41.1260
 2.4700	41.2799
 2.4690	41.3840
 2.4680	41.4564
 2.4670	41.7023
 2.4660	41.7520
 2.4650	41.9324
 2.4640	42.0351
 2.4630	42.1862
 2.4620	42.2413
 2.4610	42.4470
 2.4600	42.3426
 2.4590	42.6165
 2.4580	42.6858
 2.4570	42.7281
 2.4560	42.8611
 2.4550	42.9850
 2.4540	42.9819
 2.4530	43.1285
 2.4520	43.2775
 2.4510	43.3955
 2.4500	43.4922
 2.4490	43.6348
 2.4480	43.6150
 2.4470	43.7984
 2.4460	43.8298
 2.4450	43.9604
 2.4440	43.9218
 2.4430	44.1350
 2.4420	44.1666
 2.4410	44.3171
 2.4400	44.3657
 2.4390	44.5261
 2.4380	44.5442
 2.4370	44.5767
 2.4360	44.5481
 2.4350	44.7808
 2.4340	44.6996
 2.4330	44.7650
 2.4320	44.9964
 2.4310	45.0739
 2.4300	45.0985
 2.4290	45.2262
 2.4280	45.1871
 2.4270	45.2031
 2.4260	45.2706
 2.4250	45.3661
 2.4240	45.3725
 2.4230	45.4918
 2.4220	45.4554
 2.4210	45.5496
 2.4200	45.5837
 2.4190	45.6999
 2.4180	45.7101
 2.4170	45.7495
 2.4160	45.6641
 2.4150	45.6768
 2.4140	45.6489
 2.4130	45.7652
 2.4120	45.7566
 2.4110	45.7722
 2.4100	45.7644
 2.4090	45.7349
 2.4080	45.6868
 2.4070	45.6681
 2.4060	45.6653
 2.4050	45.6768
 2.4040	45.6850
 2.4030	45.7622
 2.4020	45.8403
 2.4010	45.9041
 2.4000	45.9825
 2.3990	46.0421
 2.3980	46.0844
 2.3970	46.2309
 2.3960	46.3716
 2.3950	46.4723
 2.3940	46.5101
 2.3930	46.6765
 2.3920	46.8450
 2.3910	47.1042
 2.3900	47.2879
 2.3890	47.4284
 2.3880	47.5826
 2.3870	47.8522
 2.3860	48.0246
 2.3850	48.3370
 2.3840	48.5802
 2.3830	48.7180
 2.3820	48.9265
 2.3810	49.1785
 2.3800	49.4144
 2.3790	49.6563
 2.3780	49.8565
 2.3770	50.1172
 2.3760	50.3551
 2.3750	50.5094
 2.3740	50.7279
 2.3730	50.9984
 2.3720	51.2278
 2.3710	51.3747
 2.3700	51.5801
 2.3690	51.8117
 2.3680	51.9947
 2.3670	52.1196
 2.3660	52.2754
 2.3650	52.5028
 2.3640	52.6402
 2.3630	52.8014
 2.3620	52.9386
 2.3610	53.0657
 2.3600	53.1960
 2.3590	53.3015
 2.3580	53.4109
 2.3570	53.6102
 2.3560	53.7800
 2.3550	53.9008
 2.3540	54.0291
 2.3530	54.1034
 2.3520	54.2982
 2.3510	54.4590
 2.3500	54.5440
 2.3490	54.6908
 2.3480	54.8482
 2.3470	54.9923
 2.3460	55.1326
 2.3450	55.2283
 2.3440	55.3195
 2.3430	55.4217
 2.3420	55.5329
 2.3410	55.6670
 2.3400	55.7605
 2.3390	55.8478
 2.3380	56.0029
 2.3370	56.0424
 2.3360	56.1447
 2.3350	56.2703
 2.3340	56.3735
 2.3330	56.4084
 2.3320	56.4993
 2.3310	56.5448
 2.3300	56.5836
 2.3290	56.6215
 2.3280	56.6246
 2.3270	56.7414
 2.3260	56.8109
 2.3250	56.7888
 2.3240	56.7613
 2.3230	56.7048
 2.3220	56.7926
 2.3210	56.8198
 2.3200	56.8063
 2.3190	56.7256
 2.3180	56.6118
 2.3170	56.5105
 2.3160	56.4576
 2.3150	56.3223
 2.3140	56.2503
 2.3130	56.1267
 2.3120	56.0166
 2.3110	55.7912
 2.3100	55.5610
 2.3090	55.3149
 2.3080	55.1300
 2.3070	54.7706
 2.3060	54.3753
 2.3050	54.0471
 2.3040	53.6696
 2.3030	53.2418
 2.3020	52.8457
 2.3010	52.3832
 2.3000	51.9902
 2.2990	51.4961
 2.2980	51.0025
 2.2970	50.5340
 2.2960	50.1216
 2.2950	49.6387
 2.2940	49.2197
 2.2930	48.7523
 2.2920	48.3588
 2.2910	48.0381
 2.2900	47.7656
 2.2890	47.4548
 2.2880	47.3271
 2.2870	47.2250
 2.2860	47.1045
 2.2850	47.1244
 2.2840	47.2184
 2.2830	47.3689
 2.2820	47.5759
 2.2810	47.8361
 2.2800	48.1837
 2.2790	48.5222
 2.2780	49.0410
 2.2770	49.4785
 2.2760	49.9619
 2.2750	50.4426
 2.2740	51.0139
 2.2730	51.6503
 2.2720	52.2596
 2.2710	52.8423
 2.2700	53.5097
 2.2690	54.2341
 2.2680	54.9280
 2.2670	55.5475
 2.2660	56.1420
 2.2650	56.6663
 2.2640	57.3552
 2.2630	57.7704
 2.2620	58.2879
 2.2610	58.7818
 2.2600	59.3192
 2.2590	59.6319
 2.2580	60.0214
 2.2570	60.3819
 2.2560	60.8035
 2.2550	61.0365
 2.2540	61.3364
 2.2530	61.4772
 2.2520	61.7118
 2.2510	61.9242
 2.2500	62.1037
 2.2490	62.1024
 2.2480	62.3009
 2.2470	62.3798
 2.2460	62.4743
 2.2450	62.5510
 2.2440	62.6873
 2.2430	62.6651
 2.2420	62.7869
 2.2410	62.7719
 2.2400	62.7866
 2.2390	62.8589
 2.2380	62.9693
 2.2370	62.9751
 2.2360	63.0520
 2.2350	63.0767
 2.2340	63.1322
 2.2330	63.1450
 2.2320	63.1299
 2.2310	63.2268
 2.2300	63.3633
 2.2290	63.2934
 2.2280	63.3353
 2.2270	63.4466
 2.2260	63.4495
 2.2250	63.3673
 2.2240	63.4546
 2.2230	63.3891
 2.2220	63.3703
 2.2210	63.2824
 2.2200	63.2854
 2.2190	63.0881
 2.2180	63.1592
 2.2170	62.9848
 2.2160	62.9051
 2.2150	62.6401
 2.2140	62.4506
 2.2130	62.2537
 2.2120	62.1511
 2.2110	61.7651
 2.2100	61.7453
 2.2090	61.4633
 2.2080	61.3643
 2.2070	61.1960
 2.2060	61.2279
 2.2050	61.1964
 2.2040	61.2006
 2.2030	61.2647
 2.2020	61.4145
 2.2010	61.4531
 2.2000	61.7288
 2.1990	61.8576
 2.1980	62.0829
 2.1970	62.2195
 2.1960	62.4630
 2.1950	62.5984
 2.1940	62.8118
 2.1930	62.9545
 2.1920	63.1617
 2.1910	63.3019
 2.1900	63.4423
 2.1890	63.4855
 2.1880	63.6589
 2.1870	63.6810
 2.1860	63.8117
 2.1850	63.9077
 2.1840	63.9688
 2.1830	64.1300
 2.1820	64.2749
 2.1810	64.3405
 2.1800	64.3937
 2.1790	64.4596
 2.1780	64.5488
 2.1770	64.5397
 2.1760	64.5857
 2.1750	64.6490
 2.1740	64.6778
 2.1730	64.6533
 2.1720	64.7524
 2.1710	64.6961
 2.1700	64.8085
 2.1690	64.7269
 2.1680	64.8489
 2.1670	64.8105
 2.1660	64.8616
 2.1650	64.9113
 2.1640	64.9553
 2.1630	64.9231
 2.1620	65.0152
 2.1610	65.0657
 2.1600	65.1015
 2.1590	65.1880
 2.1580	65.2515
 2.1570	65.2442
 2.1560	65.2937
 2.1550	65.3614
 2.1540	65.4800
 2.1530	65.4089
 2.1520	65.5358
 2.1510	65.6166
 2.1500	65.6952
 2.1490	65.7609
 2.1480	65.7795
 2.1470	65.8783
 2.1460	65.8266
 2.1450	65.8748
 2.1440	65.9843
 2.1430	65.9483
 2.1420	65.9936
 2.1410	65.9879
 2.1400	65.9868
 2.1390	66.0581
 2.1380	66.0992
 2.1370	66.0388
 2.1360	66.0238
 2.1350	66.0083
 2.1340	66.0656
 2.1330	66.0067
 2.1320	66.0080
 2.1310	65.9083
 2.1300	65.9265
 2.1290	65.9259
 2.1280	65.8996
 2.1270	65.9336
 2.1260	65.8278
 2.1250	65.7495
 2.1240	65.7386
 2.1230	65.7215
 2.1220	65.6408
 2.1210	65.5485
 2.1200	65.5443
 2.1190	65.4906
 2.1180	65.4762
 2.1170	65.4259
 2.1160	65.3733
 2.1150	65.2799
 2.1140	65.3054
 2.1130	65.2803
 2.1120	65.2057
 2.1110	65.1041
 2.1100	65.0182
 2.1090	64.9229
 2.1080	64.9016
 2.1070	64.8524
 2.1060	64.8109
 2.1050	64.7884
 2.1040	64.7583
 2.1030	64.7101
 2.1020	64.6087
 2.1010	64.5383
 2.1000	64.5043
 2.0990	64.4677
 2.0980	64.3798
 2.0970	64.4090
 2.0960	64.3744
 2.0950	64.3448
 2.0940	64.3385
 2.0930	64.2712
 2.0920	64.2528
 2.0910	64.2262
 2.0900	64.1982
 2.0890	64.1634
 2.0880	64.1264
 2.0870	64.0980
 2.0860	64.0661
 2.0850	64.0054
 2.0840	64.0281
 2.0830	63.9682
 2.0820	63.8922
 2.0810	63.9128
 2.0800	63.8896
 2.0790	63.8626
 2.0780	63.8575
 2.0770	63.7862
 2.0760	63.7000
 2.0750	63.6585
 2.0740	63.6542
 2.0730	63.6319
 2.0720	63.5448
 2.0710	63.5232
 2.0700	63.5148
 2.0690	63.4240
 2.0680	63.3926
 2.0670	63.3274
 2.0660	63.2214
 2.0650	63.1321
 2.0640	63.0644
 2.0630	63.0785
 2.0620	63.0855
 2.0610	63.0500
 2.0600	62.9660
 2.0590	62.9229
 2.0580	62.8525
 2.0570	62.7617
 2.0560	62.7051
 2.0550	62.6951
 2.0540	62.6333
 2.0530	62.5175
 2.0520	62.4551
 2.0510	62.4015
 2.0500	62.3200
 2.0490	62.2590
 2.0480	62.1472
 2.0470	62.1012
 2.0460	62.0202
 2.0450	61.9060
 2.0440	61.8236
 2.0430	61.7764
 2.0420	61.6885
 2.0410	61.6520
 2.0400	61.5172
 2.0390	61.4084
 2.0380	61.3160
 2.0370	61.1715
 2.0360	61.0970
 2.0350	61.0150
 2.0340	60.9253
 2.0330	60.8818
 2.0320	60.7174
 2.0310	60.5896
 2.0300	60.4856
 2.0290	60.3557
 2.0280	60.1993
 2.0270	60.1188
 2.0260	60.0152
 2.0250	59.9029
 2.0240	59.7617
 2.0230	59.6844
 2.0220	59.5434
 2.0210	59.4713
 2.0200	59.3243
 2.0190	59.1573
 2.0180	59.0082
 2.0170	58.9144
 2.0160	58.7941
 2.0150	58.6296
 2.0140	58.5598
 2.0130	58.4190
 2.0120	58.2154
 2.0110	58.1603
 2.0100	57.9576
 2.0090	57.8535
 2.0080	57.7609
 2.0070	57.6665
 2.0060	57.5477
 2.0050	57.3571
 2.0040	57.1265
 2.0030	57.0542
 2.0020	56.9305
 2.0010	56.8059
 2.0000	56.6321
 1.9990	56.4790
 1.9980	56.3627
 1.9970	56.2658
 1.9960	56.0286
 1.9950	55.9069
 1.9940	55.7071
 1.9930	55.6598
 1.9920	55.4848
 1.9910	55.3883
 1.9900	55.2460
 1.9890	55.1184
 1.9880	54.9458
 1.9870	54.8531
 1.9860	54.7283
 1.9850	54.4271
 1.9840	54.3584
 1.9830	54.3147
 1.9820	54.1112
 1.9810	54.0149
 1.9800	53.8458
 1.9790	53.7456
 1.9780	53.5796
 1.9770	53.5455
 1.9760	53.3946
 1.9750	53.3395
 1.9740	53.0849
 1.9730	52.9849
 1.9720	52.8339
 1.9710	52.8436
 1.9700	52.7652
 1.9690	52.6586
 1.9680	52.5401
 1.9670	52.3857
 1.9660	52.2379
 1.9650	52.2449
 1.9640	52.0733
 1.9630	52.0449
 1.9620	51.8737
 1.9610	51.8707
 1.9600	51.6723
 1.9590	51.5742
 1.9580	51.4700
 1.9570	51.3775
 1.9560	51.3442
 1.9550	51.2235
 1.9540	51.0763
 1.9530	51.0595
 1.9520	50.9582
 1.9510	50.9290
 1.9500	50.7407
 1.9490	50.6544
 1.9480	50.6093
 1.9470	50.4645
 1.9460	50.3465
 1.9450	50.2431
 1.9440	50.1574
 1.9430	50.0517
 1.9420	49.8700
 1.9410	49.8512
 1.9400	49.7102
 1.9390	49.6122
 1.9380	49.4270
 1.9370	49.3766
 1.9360	49.1593
 1.9350	49.0081
 1.9340	48.9232
 1.9330	48.7741
 1.9320	48.5579
 1.9310	48.5493
 1.9300	48.2910
 1.9290	48.1153
 1.9280	47.9554
 1.9270	47.8722
 1.9260	47.4951
 1.9250	47.3689
 1.9240	47.0846
 1.9230	46.9657
 1.9220	46.5069
 1.9210	46.3076
 1.9200	46.1269
 1.9190	45.8624
 1.9180	45.5733
 1.9170	45.3973
 1.9160	45.1159
 1.9150	44.9025
 1.9140	44.6539
 1.9130	44.5263
 1.9120	44.2263
 1.9110	44.2620
 1.9100	44.2282
 1.9090	44.1872
 1.9080	44.2116
 1.9070	44.4016
 1.9060	44.6342
 1.9050	44.9173
 1.9040	45.3326
 1.9030	45.9854
 1.9020	46.5910
 1.9010	47.4003
 1.9000	48.1412
 1.8990	49.1400
 1.8980	49.9813
 1.8970	51.1175
 1.8960	52.1024
 1.8950	53.1389
 1.8940	54.2248
 1.8930	55.3639
 1.8920	56.4250
 1.8910	57.4334
 1.8900	58.4945
 1.8890	59.4938
 1.8880	60.4017
 1.8870	61.3028
 1.8860	62.1309
 1.8850	62.8837
 1.8840	63.6737
 1.8830	64.3570
 1.8820	65.0097
 1.8810	65.6861
 1.8800	66.2310
 1.8790	66.8071
 1.8780	67.2990
 1.8770	67.7768
 1.8760	68.2207
 1.8750	68.6870
 1.8740	69.2079
 1.8730	69.7078
 1.8720	70.0370
 1.8710	70.4674
 1.8700	70.7765
 1.8690	71.1833
 1.8680	71.4178
 1.8670	71.7469
 1.8660	71.9458
 1.8650	72.2234
 1.8640	72.3684
 1.8630	72.6627
 1.8620	72.8244
 1.8610	73.0161
 1.8600	73.0729
 1.8590	73.2067
 1.8580	73.3879
 1.8570	73.5673
 1.8560	73.6518
 1.8550	73.7559
 1.8540	73.8478
 1.8530	73.9691
 1.8520	74.0356
 1.8510	74.1412
 1.8500	74.1738
 1.8490	74.2452
 1.8480	74.2843
 1.8470	74.3793
 1.8460	74.4509
 1.8450	74.5053
 1.8440	74.5326
 1.8430	74.6126
 1.8420	74.6292
 1.8410	74.6961
 1.8400	74.7176
 1.8390	74.8058
 1.8380	74.8113
 1.8370	74.8336
 1.8360	74.7834
 1.8350	74.8408
 1.8340	74.9132
 1.8330	74.9518
 1.8320	74.9527
 1.8310	74.9927
 1.8300	75.0397
 1.8290	75.0194
 1.8280	74.9943
 1.8270	74.9928
 1.8260	75.0336
 1.8250	75.0849
 1.8240	75.0529
 1.8230	75.0422
 1.8220	75.0205
 1.8210	75.0147
 1.8200	75.0973
 1.8190	75.1076
 1.8180	75.0698
 1.8170	75.0563
 1.8160	75.0936
 1.8150	75.1382
 1.8140	75.0694
 1.8130	75.1032
 1.8120	75.1161
 1.8110	75.1195
 1.8100	75.1005
 1.8090	75.1630
 1.8080	75.2001
 1.8070	75.1642
 1.8060	75.1798
 1.8050	75.1868
 1.8040	75.1755
 1.8030	75.2180
 1.8020	75.2321
 1.8010	75.2294
 1.8000	75.2038
 1.7990	75.2241
 1.7980	75.2324
 1.7970	75.2492
 1.7960	75.2722
 1.7950	75.2621
 1.7940	75.2392
 1.7930	75.2261
 1.7920	75.2478
 1.7910	75.2208
 1.7900	75.2542
 1.7890	75.2974
 1.7880	75.2971
 1.7870	75.3377
 1.7860	75.4008
 1.7850	75.3884
 1.7840	75.3781
 1.7830	75.3785
 1.7820	75.4021
 1.7810	75.4860
 1.7800	75.4607
 1.7790	75.4815
 1.7780	75.6000
 1.7770	75.5944
 1.7760	75.5860
 1.7750	75.5953
 1.7740	75.6064
 1.7730	75.6893
 1.7720	75.7251
 1.7710	75.6997
 1.7700	75.7364
 1.7690	75.7876
 1.7680	75.7978
 1.7670	75.8418
 1.7660	75.8765
 1.7650	75.8827
 1.7640	75.9351
 1.7630	76.0553
 1.7620	76.0981
 1.7610	76.1143
 1.7600	76.0963
 1.7590	76.0933
 1.7580	76.1778
 1.7570	76.1923
 1.7560	76.1934
 1.7550	76.2485
 1.7540	76.3147
 1.7530	76.2537
 1.7520	76.3397
 1.7510	76.4743
 1.7500	76.4787
 1.7490	76.5303
 1.7480	76.6356
 1.7470	76.5815
 1.7460	76.5574
 1.7450	76.5240
 1.7440	76.6252
 1.7430	76.6792
 1.7420	76.7060
 1.7410	76.7613
 1.7400	76.7795
 1.7390	76.7919
 1.7380	76.8071
 1.7370	76.8948
 1.7360	76.8964
 1.7350	76.8960
 1.7340	76.8910
 1.7330	76.8866
 1.7320	76.9537
 1.7310	77.0224
 1.7300	77.0313
 1.7290	76.9785
 1.7280	77.0455
 1.7270	77.1354
 1.7260	77.2481
 1.7250	77.1946
 1.7240	77.1434
 1.7230	77.1605
 1.7220	77.1427
 1.7210	77.1978
 1.7200	77.2620
 1.7190	77.2072
 1.7180	77.2818
 1.7170	77.2625
 1.7160	77.3178
 1.7150	77.3007
 1.7140	77.3824
 1.7130	77.3208
 1.7120	77.3503
 1.7110	77.3879
 1.7100	77.3925
 1.7090	77.3759
 1.7080	77.3668
 1.7070	77.4009
 1.7060	77.4187
 1.7050	77.4079
 1.7040	77.4319
 1.7030	77.4352
 1.7020	77.5030
 1.7010	77.4454
 1.7000	77.4894
 1.6990	77.4628
 1.6980	77.4947
 1.6970	77.5054
 1.6960	77.5136
 1.6950	77.5443
 1.6940	77.5799
 1.6930	77.6036
 1.6920	77.6330
 1.6910	77.6390
 1.6900	77.6607
 1.6890	77.5240
 1.6880	77.6319
 1.6870	77.6011
 1.6860	77.7274
 1.6850	77.7262
 1.6840	77.6782
 1.6830	77.7289
 1.6820	77.6689
 1.6810	77.6262
 1.6800	77.7231
 1.6790	77.6623
 1.6780	77.7928
 1.6770	77.6327
 1.6760	77.7486
 1.6750	77.6717
 1.6740	77.7334
 1.6730	77.7146
 1.6720	77.7823
 1.6710	77.6802
 1.6700	77.7457
 1.6690	77.8432
 1.6680	77.7691
 1.6670	77.8404
 1.6660	77.7918
 1.6650	77.8122
 1.6640	77.9211
 1.6630	77.7907
 1.6620	77.8208
 1.6610	77.7657
 1.6600	77.7882
 1.6590	77.8490
 1.6580	77.8440
 1.6570	77.8394
 1.6560	77.8680
 1.6550	77.6860
 1.6540	77.8235
 1.6530	77.8550
 1.6520	77.9775
 1.6510	77.8197
 1.6500	77.8143
 1.6490	77.7960
 1.6480	77.7948
 1.6470	77.8340
 1.6460	77.8565
 1.6450	77.9243
 1.6440	77.9084
 1.6430	77.8150
 1.6420	77.8635
 1.6410	77.8406
 1.6400	77.9413
 1.6390	77.8448
 1.6380	77.7741
 1.6370	77.7888
 1.6360	77.7860
 1.6350	77.8470
 1.6340	77.7384
 1.6330	77.6946
 1.6320	77.7291
 1.6310	77.7211
 1.6300	77.8039
 1.6290	77.7965
 1.6280	77.8374
 1.6270	77.7411
 1.6260	77.7077
 1.6250	77.6959
 1.6240	77.7841
 1.6230	77.7236
 1.6220	77.7571
 1.6210	77.6798
 1.6200	77.7294
 1.6190	77.6030
 1.6180	77.6298
 1.6170	77.7097
 1.6160	77.6188
 1.6150	77.6173
 1.6140	77.6466
 1.6130	77.6709
 1.6120	77.5922
 1.6110	77.6239
 1.6100	77.6213
 1.6090	77.4971
 1.6080	77.5266
 1.6070	77.5873
 1.6060	77.5747
 1.6050	77.5026
 1.6040	77.5437
 1.6030	77.3697
 1.6020	77.4768
 1.6010	77.4567
 1.6000	77.5179
 1.5990	77.4693
 1.5980	77.4244
 1.5970	77.3661
 1.5960	77.3378
 1.5950	77.3318
 1.5940	77.3046
 1.5930	77.2915
 1.5920	77.2237
 1.5910	77.1841
 1.5900	77.3104
 1.5890	77.2539
 1.5880	77.2258
 1.5870	77.1874
 1.5860	77.0742
 1.5850	77.1674
 1.5840	77.1801
 1.5830	77.1057
 1.5820	77.1705
 1.5810	77.0573
 1.5800	77.0560
 1.5790	76.9961
 1.5780	76.9673
 1.5770	77.0342
 1.5760	76.9713
 1.5750	76.9808
 1.5740	76.8972
 1.5730	76.9021
 1.5720	76.8945
 1.5710	76.8432
 1.5700	76.8007
 1.5690	76.7657
 1.5680	76.7232
 1.5670	76.7348
 1.5660	76.7005
 1.5650	76.6032
 1.5640	76.5773
 1.5630	76.5310
 1.5620	76.4585
 1.5610	76.4591
 1.5600	76.4038
 1.5590	76.3645
 1.5580	76.3157
 1.5570	76.2423
 1.5560	76.2852
 1.5550	76.1923
 1.5540	76.1503
 1.5530	76.1499
 1.5520	76.1659
 1.5510	76.0947
 1.5500	75.9741
 1.5490	75.8906
 1.5480	75.9743
 1.5470	75.8919
 1.5460	75.8352
 1.5450	75.7999
 1.5440	75.8269
 1.5430	75.8017
 1.5420	75.7099
 1.5410	75.5463
 1.5400	75.5384
 1.5390	75.5170
 1.5380	75.4721
 1.5370	75.4102
 1.5360	75.3264
 1.5350	75.2880
 1.5340	75.2214
 1.5330	75.2045
 1.5320	75.1765
 1.5310	75.0835
 1.5300	75.0468
 1.5290	74.9885
 1.5280	74.9058
 1.5270	74.7970
 1.5260	74.7761
 1.5250	74.7336
 1.5240	74.6963
 1.5230	74.6648
 1.5220	74.6078
 1.5210	74.5380
 1.5200	74.4247
 1.5190	74.3350
 1.5180	74.2806
 1.5170	74.2525
 1.5160	74.1744
 1.5150	74.0629
 1.5140	74.0529
 1.5130	74.0219
 1.5120	73.9120
 1.5110	73.8242
 1.5100	73.7158
 1.5090	73.6864
 1.5080	73.6384
 1.5070	73.5027
 1.5060	73.4073
 1.5050	73.3312
 1.5040	73.2502
 1.5030	73.1709
 1.5020	73.0799
 1.5010	72.9556
 1.5000	72.9101
 1.4990	72.8597
 1.4980	72.7305
 1.4970	72.6974
 1.4960	72.6246
 1.4950	72.4513
 1.4940	72.3674
 1.4930	72.3162
 1.4920	72.2778
 1.4910	72.1937
 1.4900	72.0374
 1.4890	71.9101
 1.4880	71.8112
 1.4870	71.7612
 1.4860	71.6917
 1.4850	71.5179
 1.4840	71.3843
 1.4830	71.2935
 1.4820	71.1667
 1.4810	71.0889
 1.4800	71.0298
 1.4790	70.8774
 1.4780	70.7318
 1.4770	70.6209
 1.4760	70.4939
 1.4750	70.3928
 1.4740	70.2680
 1.4730	70.1263
 1.4720	70.0052
 1.4710	69.8736
 1.4700	69.7263
 1.4690	69.6420
 1.4680	69.5796
 1.4670	69.5172
 1.4660	69.4064
 1.4650	69.3153
 1.4640	69.3187
 1.4630	69.3441
 1.4620	69.3000
 1.4610	69.2868
 1.4600	69.2744
 1.4590	69.2045
 1.4580	69.2238
 1.4570	69.2422
 1.4560	69.1244
 1.4550	69.0279
 1.4540	68.9919
 1.4530	68.8663
 1.4520	68.6567
 1.4510	68.4010
 1.4500	68.1302
 1.4490	67.6998
 1.4480	67.2120
 1.4470	66.7298
 1.4460	65.9921
 1.4450	65.2310
 1.4440	64.4227
 1.4430	63.5931
 1.4420	62.7518
 1.4410	62.0695
 1.4400	61.4579
 1.4390	61.0161
 1.4380	60.7882
 1.4370	60.7617
 1.4360	60.8682
 1.4350	61.0676
 1.4340	61.2007
 1.4330	61.4553
 1.4320	61.7700
 1.4310	62.1643
 1.4300	62.5126
 1.4290	62.8069
 1.4280	63.1040
 1.4270	63.4151
 1.4260	63.6204
 1.4250	63.7940
 1.4240	63.9704
 1.4230	64.1673
 1.4220	64.1303
 1.4210	64.2427
 1.4200	64.2013
 1.4190	64.1448
 1.4180	63.9718
 1.4170	63.9417
 1.4160	63.6846
 1.4150	63.6087
 1.4140	63.6306
 1.4130	63.9298
 1.4120	64.1032
 1.4110	64.5584
 1.4100	64.9440
 1.4090	65.4352
 1.4080	65.8552
 1.4070	66.2735
 1.4060	66.7475
 1.4050	67.1756
 1.4040	67.5902
 1.4030	68.0436
 1.4020	68.5911
 1.4010	68.9728
 1.4000	69.4283
 1.3990	69.9387
 1.3980	70.3598
 1.3970	70.8000
 1.3960	71.2546
 1.3950	71.6228
 1.3940	71.9654
 1.3930	72.2766
 1.3920	72.5634
 1.3910	72.9547
 1.3900	73.1769
 1.3890	73.5205
 1.3880	73.8269
 1.3870	74.1296
 1.3860	74.4886
 1.3850	74.7344
 1.3840	75.1100
 1.3830	75.5721
 1.3820	75.8749
 1.3810	76.2216
 1.3800	76.7113
 1.3790	77.1345
 1.3780	77.4586
 1.3770	77.8217
 1.3760	78.0760
 1.3750	78.3221
 1.3740	78.5593
 1.3730	78.7651
 1.3720	78.8625
 1.3710	79.1489
 1.3700	79.1655
 1.3690	79.3161
 1.3680	79.3629
