Name: Quartz SiO_2
Type: Mineral
Class: Silicate
Subclass: Tectosilicate
Particle Size: Fine
Sample No.: TS-1D
Owner: JPL
Wavelength Range: VSWIR
Origin: USA, Coloradi, Buffalo.
Collection Date: N/A
Description: Milky quartzParticle size was 0-45um.Collected by:  Ward's Original ASTER Spectral Library name was jpl.perkin.mineral.silicate.tectosilicate.fine.ts01d.spectrum.txt
Measurement: Hemispherical reflectance
First Column: X
Second Column: Y
X Units: Wavelength (micrometers)
Y Units:Reflectance (percent)
First X Value:  2.5000
Last X Value:  0.4000
Number of X Values: 2101
Additional Information: mineral.silicate.tectosilicate.fine.vswir.ts-1d.jpl.perkin.ancillary.txt

 2.5000	77.5283
 2.4990	77.2083
 2.4980	77.5513
 2.4970	77.5849
 2.4960	77.4002
 2.4950	77.4664
 2.4940	77.3109
 2.4930	77.3462
 2.4920	77.3090
 2.4910	77.5238
 2.4900	77.2774
 2.4890	77.4038
 2.4880	77.3106
 2.4870	77.4012
 2.4860	77.3397
 2.4850	77.2767
 2.4840	77.1542
 2.4830	77.4997
 2.4820	77.4481
 2.4810	77.4106
 2.4800	77.5178
 2.4790	77.6587
 2.4780	77.7343
 2.4770	77.4138
 2.4760	77.4287
 2.4750	77.4893
 2.4740	77.3505
 2.4730	77.4703
 2.4720	77.3785
 2.4710	77.4171
 2.4700	77.5559
 2.4690	77.5549
 2.4680	77.4970
 2.4670	77.4742
 2.4660	77.6410
 2.4650	77.5323
 2.4640	77.7383
 2.4630	77.6889
 2.4620	77.6230
 2.4610	77.6114
 2.4600	77.7325
 2.4590	77.6757
 2.4580	77.5804
 2.4570	77.6379
 2.4560	77.6474
 2.4550	77.6283
 2.4540	77.6808
 2.4530	77.5831
 2.4520	77.8286
 2.4510	77.6709
 2.4500	77.7012
 2.4490	77.7791
 2.4480	77.7897
 2.4470	77.7138
 2.4460	77.6905
 2.4450	77.6750
 2.4440	77.7507
 2.4430	77.7745
 2.4420	77.7893
 2.4410	77.7177
 2.4400	77.7864
 2.4390	77.6048
 2.4380	77.7533
 2.4370	77.7962
 2.4360	77.7528
 2.4350	77.7674
 2.4340	77.8197
 2.4330	77.8519
 2.4320	77.7899
 2.4310	77.8690
 2.4300	77.8623
 2.4290	77.8695
 2.4280	77.8854
 2.4270	77.8366
 2.4260	77.9413
 2.4250	77.9433
 2.4240	78.0445
 2.4230	77.9617
 2.4220	78.0049
 2.4210	77.9553
 2.4200	77.9690
 2.4190	78.0409
 2.4180	78.0540
 2.4170	77.9711
 2.4160	78.0181
 2.4150	78.0567
 2.4140	78.0721
 2.4130	78.0900
 2.4120	78.1965
 2.4110	78.1509
 2.4100	78.1571
 2.4090	78.1246
 2.4080	78.0285
 2.4070	78.1198
 2.4060	78.1672
 2.4050	78.1147
 2.4040	78.1564
 2.4030	78.1827
 2.4020	78.2050
 2.4010	78.2664
 2.4000	78.1632
 2.3990	78.1934
 2.3980	78.1985
 2.3970	78.2276
 2.3960	78.2767
 2.3950	78.2006
 2.3940	78.2358
 2.3930	78.2973
 2.3920	78.2477
 2.3910	78.2713
 2.3900	78.3040
 2.3890	78.2532
 2.3880	78.2796
 2.3870	78.2535
 2.3860	78.2957
 2.3850	78.3828
 2.3840	78.4055
 2.3830	78.4926
 2.3820	78.5122
 2.3810	78.5036
 2.3800	78.4859
 2.3790	78.4557
 2.3780	78.4967
 2.3770	78.4507
 2.3760	78.4066
 2.3750	78.4262
 2.3740	78.5234
 2.3730	78.5471
 2.3720	78.5648
 2.3710	78.5780
 2.3700	78.5864
 2.3690	78.6442
 2.3680	78.6480
 2.3670	78.6779
 2.3660	78.7264
 2.3650	78.6453
 2.3640	78.5820
 2.3630	78.6154
 2.3620	78.6427
 2.3610	78.6656
 2.3600	78.6761
 2.3590	78.7541
 2.3580	78.7669
 2.3570	78.7187
 2.3560	78.7401
 2.3550	78.8155
 2.3540	78.8457
 2.3530	78.7633
 2.3520	78.7399
 2.3510	78.7285
 2.3500	78.7410
 2.3490	78.8345
 2.3480	78.8557
 2.3470	78.8224
 2.3460	78.8450
 2.3450	78.8757
 2.3440	78.8449
 2.3430	78.8518
 2.3420	78.8342
 2.3410	78.8010
 2.3400	78.8149
 2.3390	78.8234
 2.3380	78.8193
 2.3370	78.8769
 2.3360	78.8713
 2.3350	78.8449
 2.3340	78.7753
 2.3330	78.7806
 2.3320	78.8016
 2.3310	78.8095
 2.3300	78.8143
 2.3290	78.8009
 2.3280	78.8015
 2.3270	78.8353
 2.3260	78.8479
 2.3250	78.8225
 2.3240	78.7927
 2.3230	78.7747
 2.3220	78.7451
 2.3210	78.7348
 2.3200	78.7492
 2.3190	78.7779
 2.3180	78.7678
 2.3170	78.7554
 2.3160	78.7439
 2.3150	78.6971
 2.3140	78.6599
 2.3130	78.6518
 2.3120	78.7217
 2.3110	78.6587
 2.3100	78.6969
 2.3090	78.6968
 2.3080	78.6757
 2.3070	78.7156
 2.3060	78.7389
 2.3050	78.7350
 2.3040	78.6927
 2.3030	78.7353
 2.3020	78.7459
 2.3010	78.7054
 2.3000	78.7007
 2.2990	78.7131
 2.2980	78.6545
 2.2970	78.7182
 2.2960	78.7101
 2.2950	78.7413
 2.2940	78.6959
 2.2930	78.6653
 2.2920	78.7027
 2.2910	78.7066
 2.2900	78.6072
 2.2890	78.6467
 2.2880	78.6421
 2.2870	78.6197
 2.2860	78.5774
 2.2850	78.5932
 2.2840	78.5997
 2.2830	78.5524
 2.2820	78.6031
 2.2810	78.6231
 2.2800	78.6275
 2.2790	78.6345
 2.2780	78.5709
 2.2770	78.6393
 2.2760	78.6193
 2.2750	78.6314
 2.2740	78.5958
 2.2730	78.6378
 2.2720	78.5648
 2.2710	78.6291
 2.2700	78.5537
 2.2690	78.5697
 2.2680	78.5952
 2.2670	78.5212
 2.2660	78.5389
 2.2650	78.5379
 2.2640	78.5126
 2.2630	78.5242
 2.2620	78.5500
 2.2610	78.6013
 2.2600	78.6317
 2.2590	78.5406
 2.2580	78.5510
 2.2570	78.6278
 2.2560	78.6049
 2.2550	78.5975
 2.2540	78.4813
 2.2530	78.4838
 2.2520	78.5640
 2.2510	78.5810
 2.2500	78.5308
 2.2490	78.5643
 2.2480	78.5244
 2.2470	78.5996
 2.2460	78.5643
 2.2450	78.5880
 2.2440	78.5295
 2.2430	78.5786
 2.2420	78.6408
 2.2410	78.5351
 2.2400	78.6290
 2.2390	78.6400
 2.2380	78.6104
 2.2370	78.6648
 2.2360	78.5910
 2.2350	78.6207
 2.2340	78.5926
 2.2330	78.6465
 2.2320	78.6294
 2.2310	78.6851
 2.2300	78.6584
 2.2290	78.6736
 2.2280	78.6402
 2.2270	78.5921
 2.2260	78.6827
 2.2250	78.6998
 2.2240	78.7367
 2.2230	78.7241
 2.2220	78.6584
 2.2210	78.7217
 2.2200	78.6556
 2.2190	78.6856
 2.2180	78.7452
 2.2170	78.7372
 2.2160	78.7174
 2.2150	78.7565
 2.2140	78.6830
 2.2130	78.8379
 2.2120	78.8468
 2.2110	78.8287
 2.2100	78.9232
 2.2090	78.7825
 2.2080	78.8498
 2.2070	78.8213
 2.2060	78.9226
 2.2050	79.0000
 2.2040	78.9844
 2.2030	78.9271
 2.2020	79.0592
 2.2010	79.0434
 2.2000	79.0955
 2.1990	79.1267
 2.1980	79.1076
 2.1970	78.9605
 2.1960	79.1115
 2.1950	79.0095
 2.1940	79.0925
 2.1930	79.0767
 2.1920	79.1127
 2.1910	79.1458
 2.1900	79.1496
 2.1890	79.2601
 2.1880	79.2024
 2.1870	79.2235
 2.1860	79.1714
 2.1850	79.2598
 2.1840	79.1615
 2.1830	79.1960
 2.1820	79.2493
 2.1810	79.3660
 2.1800	79.2764
 2.1790	79.4352
 2.1780	79.3456
 2.1770	79.3746
 2.1760	79.3816
 2.1750	79.3532
 2.1740	79.4466
 2.1730	79.4197
 2.1720	79.4692
 2.1710	79.5731
 2.1700	79.5460
 2.1690	79.5555
 2.1680	79.5585
 2.1670	79.6352
 2.1660	79.6499
 2.1650	79.6307
 2.1640	79.6237
 2.1630	79.7123
 2.1620	79.7171
 2.1610	79.8495
 2.1600	79.7981
 2.1590	79.7206
 2.1580	79.7735
 2.1570	79.8655
 2.1560	79.9228
 2.1550	79.9533
 2.1540	79.9584
 2.1530	79.8141
 2.1520	79.8709
 2.1510	79.8959
 2.1500	79.9158
 2.1490	79.9470
 2.1480	79.9286
 2.1470	79.9550
 2.1460	80.0188
 2.1450	79.9718
 2.1440	79.9722
 2.1430	80.0226
 2.1420	79.9745
 2.1410	79.9174
 2.1400	79.9755
 2.1390	79.9392
 2.1380	79.9444
 2.1370	79.9289
 2.1360	79.8564
 2.1350	79.8097
 2.1340	79.8613
 2.1330	79.8111
 2.1320	79.8231
 2.1310	79.8333
 2.1300	79.8758
 2.1290	79.7278
 2.1280	79.7527
 2.1270	79.6468
 2.1260	79.6297
 2.1250	79.6841
 2.1240	79.6308
 2.1230	79.5279
 2.1220	79.4669
 2.1210	79.4322
 2.1200	79.4221
 2.1190	79.3768
 2.1180	79.3121
 2.1170	79.2847
 2.1160	79.2733
 2.1150	79.2068
 2.1140	79.1358
 2.1130	79.1475
 2.1120	79.1279
 2.1110	79.0535
 2.1100	79.0037
 2.1090	78.9641
 2.1080	78.9134
 2.1070	78.8865
 2.1060	78.8244
 2.1050	78.7314
 2.1040	78.7157
 2.1030	78.7782
 2.1020	78.6886
 2.1010	78.6618
 2.1000	78.6188
 2.0990	78.5693
 2.0980	78.5486
 2.0970	78.5843
 2.0960	78.5857
 2.0950	78.5917
 2.0940	78.5920
 2.0930	78.6014
 2.0920	78.6791
 2.0910	78.6938
 2.0900	78.7413
 2.0890	78.7858
 2.0880	78.7777
 2.0870	78.7363
 2.0860	78.7340
 2.0850	78.7269
 2.0840	78.7498
 2.0830	78.8447
 2.0820	78.8310
 2.0810	78.7885
 2.0800	78.8327
 2.0790	78.8403
 2.0780	78.8060
 2.0770	78.8376
 2.0760	78.8766
 2.0750	78.9153
 2.0740	78.8691
 2.0730	78.8338
 2.0720	78.8769
 2.0710	78.9225
 2.0700	78.9519
 2.0690	78.9975
 2.0680	78.9996
 2.0670	78.9847
 2.0660	79.0004
 2.0650	79.0353
 2.0640	79.0193
 2.0630	78.9683
 2.0620	79.0147
 2.0610	79.0346
 2.0600	79.0329
 2.0590	79.0036
 2.0580	79.0169
 2.0570	79.0424
 2.0560	79.0607
 2.0550	79.1352
 2.0540	79.1399
 2.0530	79.0945
 2.0520	79.0968
 2.0510	79.1379
 2.0500	79.2186
 2.0490	79.2140
 2.0480	79.1916
 2.0470	79.1933
 2.0460	79.1883
 2.0450	79.1641
 2.0440	79.1852
 2.0430	79.1641
 2.0420	79.2251
 2.0410	79.2448
 2.0400	79.2785
 2.0390	79.3113
 2.0380	79.2869
 2.0370	79.2398
 2.0360	79.2365
 2.0350	79.2192
 2.0340	79.2647
 2.0330	79.2819
 2.0320	79.2221
 2.0310	79.2762
 2.0300	79.3195
 2.0290	79.3290
 2.0280	79.3282
 2.0270	79.3112
 2.0260	79.3285
 2.0250	79.2848
 2.0240	79.2571
 2.0230	79.3107
 2.0220	79.2899
 2.0210	79.3833
 2.0200	79.3892
 2.0190	79.3273
 2.0180	79.2930
 2.0170	79.2908
 2.0160	79.2947
 2.0150	79.3344
 2.0140	79.3378
 2.0130	79.2855
 2.0120	79.3479
 2.0110	79.3520
 2.0100	79.3032
 2.0090	79.2481
 2.0080	79.3099
 2.0070	79.3622
 2.0060	79.3116
 2.0050	79.3410
 2.0040	79.4024
 2.0030	79.3153
 2.0020	79.3790
 2.0010	79.3456
 2.0000	79.3905
 1.9990	79.2747
 1.9980	79.3375
 1.9970	79.3018
 1.9960	79.3007
 1.9950	79.3273
 1.9940	79.2385
 1.9930	79.1650
 1.9920	79.3024
 1.9910	79.3056
 1.9900	79.2449
 1.9890	79.1226
 1.9880	79.2310
 1.9870	79.2283
 1.9860	79.2024
 1.9850	79.1654
 1.9840	79.1283
 1.9830	79.1340
 1.9820	79.1411
 1.9810	79.1725
 1.9800	79.1497
 1.9790	79.1354
 1.9780	79.1140
 1.9770	79.1133
 1.9760	79.1018
 1.9750	79.0945
 1.9740	79.0880
 1.9730	79.0386
 1.9720	79.1320
 1.9710	79.0457
 1.9700	79.0649
 1.9690	79.1058
 1.9680	79.1330
 1.9670	79.0732
 1.9660	79.0461
 1.9650	79.0231
 1.9640	79.1003
 1.9630	78.9277
 1.9620	79.0573
 1.9610	79.0186
 1.9600	79.0681
 1.9590	79.0399
 1.9580	79.0542
 1.9570	79.1309
 1.9560	79.0426
 1.9550	79.0848
 1.9540	79.0783
 1.9530	79.0835
 1.9520	79.0432
 1.9510	79.0185
 1.9500	79.0915
 1.9490	79.0574
 1.9480	79.0445
 1.9470	79.0569
 1.9460	78.9663
 1.9450	78.9972
 1.9440	79.0230
 1.9430	79.0292
 1.9420	79.0611
 1.9410	79.0671
 1.9400	79.0113
 1.9390	79.1185
 1.9380	78.9789
 1.9370	78.9941
 1.9360	79.0867
 1.9350	79.0772
 1.9340	79.0210
 1.9330	79.2028
 1.9320	79.1868
 1.9310	79.0151
 1.9300	79.1238
 1.9290	79.0448
 1.9280	79.0653
 1.9270	79.1055
 1.9260	79.1407
 1.9250	79.0685
 1.9240	79.1934
 1.9230	79.1405
 1.9220	79.1480
 1.9210	79.0818
 1.9200	79.2906
 1.9190	79.2393
 1.9180	79.2062
 1.9170	79.2914
 1.9160	79.2581
 1.9150	79.2190
 1.9140	79.3042
 1.9130	79.2611
 1.9120	79.2947
 1.9110	79.2270
 1.9100	79.2747
 1.9090	79.3397
 1.9080	79.3180
 1.9070	79.2407
 1.9060	79.4289
 1.9050	79.3394
 1.9040	79.3670
 1.9030	79.2618
 1.9020	79.2796
 1.9010	79.3944
 1.9000	79.4387
 1.8990	79.4243
 1.8980	79.3719
 1.8970	79.4034
 1.8960	79.5537
 1.8950	79.4679
 1.8940	79.4974
 1.8930	79.4859
 1.8920	79.4046
 1.8910	79.4357
 1.8900	79.4725
 1.8890	79.4931
 1.8880	79.5461
 1.8870	79.4792
 1.8860	79.5281
 1.8850	79.5515
 1.8840	79.6216
 1.8830	79.5994
 1.8820	79.5917
 1.8810	79.5873
 1.8800	79.6150
 1.8790	79.5841
 1.8780	79.5853
 1.8770	79.5936
 1.8760	79.6019
 1.8750	79.5836
 1.8740	79.6354
 1.8730	79.6779
 1.8720	79.6300
 1.8710	79.6645
 1.8700	79.6844
 1.8690	79.7043
 1.8680	79.7037
 1.8670	79.6396
 1.8660	79.7517
 1.8650	79.7382
 1.8640	79.7488
 1.8630	79.7163
 1.8620	79.7433
 1.8610	79.7012
 1.8600	79.7274
 1.8590	79.7266
 1.8580	79.6712
 1.8570	79.6728
 1.8560	79.7552
 1.8550	79.7212
 1.8540	79.7382
 1.8530	79.7892
 1.8520	79.7505
 1.8510	79.7335
 1.8500	79.8060
 1.8490	79.7724
 1.8480	79.7872
 1.8470	79.7738
 1.8460	79.7510
 1.8450	79.7820
 1.8440	79.7660
 1.8430	79.7391
 1.8420	79.8215
 1.8410	79.8034
 1.8400	79.7795
 1.8390	79.7523
 1.8380	79.7599
 1.8370	79.7273
 1.8360	79.7611
 1.8350	79.7784
 1.8340	79.7780
 1.8330	79.7239
 1.8320	79.7256
 1.8310	79.7365
 1.8300	79.7814
 1.8290	79.8151
 1.8280	79.8053
 1.8270	79.8204
 1.8260	79.8264
 1.8250	79.7946
 1.8240	79.8453
 1.8230	79.8402
 1.8220	79.8278
 1.8210	79.8144
 1.8200	79.8394
 1.8190	79.8505
 1.8180	79.8174
 1.8170	79.8037
 1.8160	79.8291
 1.8150	79.8595
 1.8140	79.9030
 1.8130	79.8792
 1.8120	79.8827
 1.8110	79.8327
 1.8100	79.8537
 1.8090	79.8824
 1.8080	79.8900
 1.8070	79.8574
 1.8060	79.8956
 1.8050	79.9147
 1.8040	79.8518
 1.8030	79.8423
 1.8020	79.8505
 1.8010	79.8682
 1.8000	79.9173
 1.7990	79.8850
 1.7980	79.8576
 1.7970	79.8874
 1.7960	79.9108
 1.7950	79.8786
 1.7940	79.8515
 1.7930	79.8985
 1.7920	79.9159
 1.7910	79.8714
 1.7900	79.8510
 1.7890	79.8380
 1.7880	79.8476
 1.7870	79.8841
 1.7860	79.8574
 1.7850	79.8294
 1.7840	79.7871
 1.7830	79.7399
 1.7820	79.7636
 1.7810	79.8153
 1.7800	79.8452
 1.7790	79.8499
 1.7780	79.8583
 1.7770	79.8735
 1.7760	79.8240
 1.7750	79.7791
 1.7740	79.7998
 1.7730	79.8013
 1.7720	79.7661
 1.7710	79.7625
 1.7700	79.7720
 1.7690	79.7845
 1.7680	79.8137
 1.7670	79.8031
 1.7660	79.7692
 1.7650	79.8289
 1.7640	79.8120
 1.7630	79.7993
 1.7620	79.8247
 1.7610	79.8440
 1.7600	79.7855
 1.7590	79.7804
 1.7580	79.8371
 1.7570	79.8169
 1.7560	79.7415
 1.7550	79.8530
 1.7540	79.8873
 1.7530	79.8231
 1.7520	79.7914
 1.7510	79.7720
 1.7500	79.7979
 1.7490	79.8715
 1.7480	79.9118
 1.7470	79.8674
 1.7460	79.9038
 1.7450	79.8744
 1.7440	79.8418
 1.7430	79.8672
 1.7420	79.8609
 1.7410	79.8771
 1.7400	79.8617
 1.7390	79.9133
 1.7380	79.8889
 1.7370	79.8786
 1.7360	79.9050
 1.7350	79.9280
 1.7340	79.8816
 1.7330	79.8598
 1.7320	79.9358
 1.7310	79.9447
 1.7300	79.8655
 1.7290	79.9078
 1.7280	79.8984
 1.7270	79.8809
 1.7260	79.8967
 1.7250	79.9225
 1.7240	79.9477
 1.7230	79.9667
 1.7220	79.9384
 1.7210	79.9070
 1.7200	79.9580
 1.7190	79.9397
 1.7180	79.9198
 1.7170	79.9776
 1.7160	80.0142
 1.7150	79.9582
 1.7140	79.9345
 1.7130	79.8308
 1.7120	79.8904
 1.7110	79.9088
 1.7100	79.8629
 1.7090	79.9603
 1.7080	79.9213
 1.7070	79.8992
 1.7060	79.9019
 1.7050	79.9143
 1.7040	79.9241
 1.7030	79.9373
 1.7020	79.8369
 1.7010	79.8149
 1.7000	79.7951
 1.6990	79.9241
 1.6980	79.9320
 1.6970	79.9148
 1.6960	79.9063
 1.6950	79.9024
 1.6940	79.8547
 1.6930	79.8616
 1.6920	79.9003
 1.6910	79.8682
 1.6900	79.8001
 1.6890	79.8679
 1.6880	79.8247
 1.6870	79.9334
 1.6860	79.9037
 1.6850	79.8764
 1.6840	79.8559
 1.6830	79.8854
 1.6820	79.8969
 1.6810	79.8857
 1.6800	79.8485
 1.6790	79.8071
 1.6780	79.7709
 1.6770	79.8921
 1.6760	79.9029
 1.6750	79.9041
 1.6740	79.8259
 1.6730	79.9115
 1.6720	79.9549
 1.6710	79.9470
 1.6700	79.8134
 1.6690	79.8147
 1.6680	79.8907
 1.6670	79.9393
 1.6660	79.8599
 1.6650	79.8803
 1.6640	79.8475
 1.6630	79.8656
 1.6620	79.8881
 1.6610	79.8192
 1.6600	79.9017
 1.6590	79.9082
 1.6580	79.8616
 1.6570	79.8178
 1.6560	79.8190
 1.6550	79.8967
 1.6540	79.8865
 1.6530	79.8623
 1.6520	79.9000
 1.6510	79.8706
 1.6500	79.7231
 1.6490	79.7919
 1.6480	79.8547
 1.6470	79.8001
 1.6460	79.8336
 1.6450	79.9031
 1.6440	79.9640
 1.6430	79.8133
 1.6420	79.9059
 1.6410	79.7714
 1.6400	79.9256
 1.6390	79.9143
 1.6380	79.8800
 1.6370	79.9217
 1.6360	79.8243
 1.6350	79.9053
 1.6340	79.8293
 1.6330	79.8809
 1.6320	79.9358
 1.6310	79.9085
 1.6300	79.8660
 1.6290	79.8338
 1.6280	79.9403
 1.6270	79.9067
 1.6260	79.8726
 1.6250	79.8769
 1.6240	79.9221
 1.6230	79.8527
 1.6220	79.8729
 1.6210	79.7558
 1.6200	79.9489
 1.6190	79.8350
 1.6180	79.8605
 1.6170	79.9821
 1.6160	79.8769
 1.6150	79.9369
 1.6140	79.8748
 1.6130	79.9035
 1.6120	79.7861
 1.6110	79.8869
 1.6100	79.9706
 1.6090	79.8292
 1.6080	79.8758
 1.6070	79.9030
 1.6060	79.8792
 1.6050	79.9350
 1.6040	79.9176
 1.6030	79.9144
 1.6020	79.8487
 1.6010	79.8623
 1.6000	79.8547
 1.5990	79.9965
 1.5980	79.9539
 1.5970	79.8566
 1.5960	79.9510
 1.5950	79.9195
 1.5940	79.8724
 1.5930	80.0104
 1.5920	79.8776
 1.5910	79.8626
 1.5900	79.8383
 1.5890	79.9356
 1.5880	79.8702
 1.5870	79.9094
 1.5860	79.8405
 1.5850	79.8689
 1.5840	79.9243
 1.5830	79.9311
 1.5820	79.8796
 1.5810	79.8758
 1.5800	79.8877
 1.5790	79.8933
 1.5780	79.9158
 1.5770	79.8971
 1.5760	79.9354
 1.5750	79.8863
 1.5740	79.8382
 1.5730	79.8211
 1.5720	79.8938
 1.5710	79.8839
 1.5700	79.8150
 1.5690	79.9025
 1.5680	79.8503
 1.5670	79.8070
 1.5660	79.8149
 1.5650	79.8787
 1.5640	79.8692
 1.5630	79.8955
 1.5620	79.9145
 1.5610	79.8994
 1.5600	79.9608
 1.5590	79.9944
 1.5580	79.8891
 1.5570	79.9000
 1.5560	79.8676
 1.5550	79.8682
 1.5540	79.8765
 1.5530	79.9121
 1.5520	79.9556
 1.5510	79.8679
 1.5500	79.8076
 1.5490	79.8174
 1.5480	79.8108
 1.5470	79.8264
 1.5460	79.8600
 1.5450	79.8192
 1.5440	79.8411
 1.5430	79.9065
 1.5420	79.8572
 1.5410	79.8470
 1.5400	79.8077
 1.5390	79.8209
 1.5380	79.8011
 1.5370	79.7682
 1.5360	79.7906
 1.5350	79.7862
 1.5340	79.7874
 1.5330	79.8437
 1.5320	79.8654
 1.5310	79.9365
 1.5300	79.8705
 1.5290	79.8182
 1.5280	79.8015
 1.5270	79.7661
 1.5260	79.7610
 1.5250	79.7843
 1.5240	79.8001
 1.5230	79.8507
 1.5220	79.8611
 1.5210	79.8451
 1.5200	79.7999
 1.5190	79.7958
 1.5180	79.8196
 1.5170	79.8339
 1.5160	79.8252
 1.5150	79.8456
 1.5140	79.8451
 1.5130	79.8459
 1.5120	79.7741
 1.5110	79.7616
 1.5100	79.7845
 1.5090	79.8058
 1.5080	79.8181
 1.5070	79.8004
 1.5060	79.8578
 1.5050	79.8360
 1.5040	79.7688
 1.5030	79.7856
 1.5020	79.7897
 1.5010	79.8000
 1.5000	79.7800
 1.4990	79.7328
 1.4980	79.7197
 1.4970	79.8111
 1.4960	79.8148
 1.4950	79.7866
 1.4940	79.8211
 1.4930	79.7536
 1.4920	79.7713
 1.4910	79.7520
 1.4900	79.7288
 1.4890	79.7446
 1.4880	79.7976
 1.4870	79.8379
 1.4860	79.7910
 1.4850	79.7666
 1.4840	79.8145
 1.4830	79.8680
 1.4820	79.8155
 1.4810	79.7753
 1.4800	79.7691
 1.4790	79.8076
 1.4780	79.8398
 1.4770	79.7340
 1.4760	79.7421
 1.4750	79.7838
 1.4740	79.7581
 1.4730	79.8093
 1.4720	79.7472
 1.4710	79.7458
 1.4700	79.7633
 1.4690	79.7289
 1.4680	79.7304
 1.4670	79.7217
 1.4660	79.7750
 1.4650	79.7955
 1.4640	79.7525
 1.4630	79.7707
 1.4620	79.7185
 1.4610	79.7772
 1.4600	79.7885
 1.4590	79.7660
 1.4580	79.7765
 1.4570	79.8018
 1.4560	79.7720
 1.4550	79.7447
 1.4540	79.8071
 1.4530	79.7929
 1.4520	79.7207
 1.4510	79.7206
 1.4500	79.7765
 1.4490	79.7764
 1.4480	79.7708
 1.4470	79.7382
 1.4460	79.7377
 1.4450	79.7506
 1.4440	79.7411
 1.4430	79.7514
 1.4420	79.7070
 1.4410	79.6677
 1.4400	79.7773
 1.4390	79.7941
 1.4380	79.7895
 1.4370	79.7351
 1.4360	79.6943
 1.4350	79.7095
 1.4340	79.7732
 1.4330	79.8075
 1.4320	79.7725
 1.4310	79.7981
 1.4300	79.7560
 1.4290	79.7165
 1.4280	79.7679
 1.4270	79.7540
 1.4260	79.7222
 1.4250	79.6831
 1.4240	79.7626
 1.4230	79.7228
 1.4220	79.8172
 1.4210	79.7386
 1.4200	79.7061
 1.4190	79.7922
 1.4180	79.7862
 1.4170	79.7090
 1.4160	79.7348
 1.4150	79.7582
 1.4140	79.7238
 1.4130	79.7600
 1.4120	79.6816
 1.4110	79.7015
 1.4100	79.6694
 1.4090	79.7302
 1.4080	79.7543
 1.4070	79.7776
 1.4060	79.6615
 1.4050	79.7362
 1.4040	79.7983
 1.4030	79.7211
 1.4020	79.8348
 1.4010	79.7851
 1.4000	79.7827
 1.3990	79.7867
 1.3980	79.7468
 1.3970	79.7502
 1.3960	79.8086
 1.3950	79.8553
 1.3940	79.8470
 1.3930	79.7939
 1.3920	79.8378
 1.3910	79.9422
 1.3900	79.9317
 1.3890	79.8120
 1.3880	79.8324
 1.3870	79.9152
 1.3860	79.8735
 1.3850	79.8880
 1.3840	79.8066
 1.3830	79.8438
 1.3820	79.7949
 1.3810	79.7969
 1.3800	79.8023
 1.3790	79.8480
 1.3780	79.8637
 1.3770	79.7100
 1.3760	79.8195
 1.3750	79.8486
 1.3740	79.7865
 1.3730	79.8486
 1.3720	79.8033
 1.3710	79.8415
 1.3700	79.7975
 1.3690	79.8120
 1.3680	79.9228
 1.3670	79.8751
 1.3660	79.9128
