Name: Fluorite CaF_2
Type: Mineral
Class: Halide
Subclass: None
Particle Size: Coarse
Sample No.: H-2A
Owner: JPL
Wavelength Range: VSWIR
Origin: USA, Illinois, Hardin County, Rosiclare.
Collection Date: N/A
Description: Purple fluorite.Particle size was 125-500um.Collected by:  Ward's Original ASTER Spectral Library name was jpl.perkin.mineral.halide.none.coarse.h02a.spectrum.txt
Measurement: Hemispherical reflectance
First Column: X
Second Column: Y
X Units: Wavelength (micrometers)
Y Units:Reflectance (percent)
First X Value:  2.5000
Last X Value:  0.4000
Number of X Values: 2101
Additional Information: mineral.halide.none.coarse.vswir.h-2a.jpl.perkin.ancillary.txt

 2.5000	79.0515
 2.4990	78.8783
 2.4980	78.8410
 2.4970	78.9153
 2.4960	78.6607
 2.4950	79.0570
 2.4940	78.9956
 2.4930	78.8120
 2.4920	78.8348
 2.4910	79.0146
 2.4900	78.9083
 2.4890	78.9323
 2.4880	79.1261
 2.4870	79.1324
 2.4860	78.9471
 2.4850	78.8217
 2.4840	79.1082
 2.4830	79.1265
 2.4820	78.9959
 2.4810	79.1688
 2.4800	79.1436
 2.4790	79.2591
 2.4780	79.1852
 2.4770	79.0976
 2.4760	79.2082
 2.4750	79.1264
 2.4740	79.0968
 2.4730	79.1986
 2.4720	79.3289
 2.4710	79.3537
 2.4700	79.2851
 2.4690	79.3484
 2.4680	79.4635
 2.4670	79.4777
 2.4660	79.3898
 2.4650	79.5587
 2.4640	79.4906
 2.4630	79.4473
 2.4620	79.4341
 2.4610	79.5234
 2.4600	79.6469
 2.4590	79.6436
 2.4580	79.5673
 2.4570	79.5381
 2.4560	79.6018
 2.4550	79.7222
 2.4540	79.6311
 2.4530	79.6563
 2.4520	79.6700
 2.4510	79.6161
 2.4500	79.7334
 2.4490	79.7595
 2.4480	79.7493
 2.4470	79.7659
 2.4460	79.8261
 2.4450	79.8604
 2.4440	79.7492
 2.4430	79.8766
 2.4420	79.7334
 2.4410	79.7781
 2.4400	79.8192
 2.4390	79.8507
 2.4380	79.8655
 2.4370	79.8669
 2.4360	79.8881
 2.4350	79.8998
 2.4340	79.9100
 2.4330	80.0281
 2.4320	79.9392
 2.4310	79.9388
 2.4300	79.9753
 2.4290	80.1087
 2.4280	80.2059
 2.4270	80.1236
 2.4260	80.2138
 2.4250	80.1373
 2.4240	80.1137
 2.4230	80.2633
 2.4220	80.2426
 2.4210	80.1671
 2.4200	80.1455
 2.4190	80.1887
 2.4180	80.3079
 2.4170	80.2851
 2.4160	80.3075
 2.4150	80.2897
 2.4140	80.2835
 2.4130	80.3604
 2.4120	80.3270
 2.4110	80.3359
 2.4100	80.3688
 2.4090	80.4121
 2.4080	80.3829
 2.4070	80.4425
 2.4060	80.4140
 2.4050	80.4233
 2.4040	80.4832
 2.4030	80.4704
 2.4020	80.4303
 2.4010	80.4595
 2.4000	80.4703
 2.3990	80.5334
 2.3980	80.5307
 2.3970	80.4992
 2.3960	80.5585
 2.3950	80.7197
 2.3940	80.7071
 2.3930	80.6923
 2.3920	80.6460
 2.3910	80.6814
 2.3900	80.6838
 2.3890	80.7043
 2.3880	80.7244
 2.3870	80.7710
 2.3860	80.7829
 2.3850	80.7725
 2.3840	80.8094
 2.3830	80.8646
 2.3820	80.8849
 2.3810	80.8796
 2.3800	80.8971
 2.3790	80.9098
 2.3780	80.9198
 2.3770	80.9958
 2.3760	80.9808
 2.3750	80.9905
 2.3740	81.0654
 2.3730	81.0739
 2.3720	81.0841
 2.3710	81.0778
 2.3700	81.1152
 2.3690	81.1330
 2.3680	81.0683
 2.3670	81.1026
 2.3660	81.1546
 2.3650	81.1610
 2.3640	81.2303
 2.3630	81.2513
 2.3620	81.1671
 2.3610	81.2592
 2.3600	81.3318
 2.3590	81.3132
 2.3580	81.2986
 2.3570	81.3446
 2.3560	81.3464
 2.3550	81.2646
 2.3540	81.2969
 2.3530	81.3074
 2.3520	81.3309
 2.3510	81.3846
 2.3500	81.3740
 2.3490	81.3962
 2.3480	81.4222
 2.3470	81.4122
 2.3460	81.4270
 2.3450	81.4640
 2.3440	81.4691
 2.3430	81.4815
 2.3420	81.4664
 2.3410	81.4260
 2.3400	81.4727
 2.3390	81.5096
 2.3380	81.5065
 2.3370	81.4717
 2.3360	81.4696
 2.3350	81.5049
 2.3340	81.5512
 2.3330	81.5747
 2.3320	81.5454
 2.3310	81.5349
 2.3300	81.5566
 2.3290	81.5834
 2.3280	81.5195
 2.3270	81.4834
 2.3260	81.4594
 2.3250	81.4738
 2.3240	81.4879
 2.3230	81.4941
 2.3220	81.4875
 2.3210	81.4919
 2.3200	81.5539
 2.3190	81.5450
 2.3180	81.5168
 2.3170	81.4534
 2.3160	81.5040
 2.3150	81.5119
 2.3140	81.5029
 2.3130	81.5144
 2.3120	81.5719
 2.3110	81.5302
 2.3100	81.5033
 2.3090	81.4002
 2.3080	81.5168
 2.3070	81.5578
 2.3060	81.5506
 2.3050	81.5651
 2.3040	81.5227
 2.3030	81.5705
 2.3020	81.5779
 2.3010	81.5673
 2.3000	81.5289
 2.2990	81.6028
 2.2980	81.5866
 2.2970	81.5848
 2.2960	81.5589
 2.2950	81.6496
 2.2940	81.5505
 2.2930	81.5308
 2.2920	81.5439
 2.2910	81.5172
 2.2900	81.5160
 2.2890	81.4948
 2.2880	81.5564
 2.2870	81.5408
 2.2860	81.5523
 2.2850	81.5362
 2.2840	81.5194
 2.2830	81.5302
 2.2820	81.5132
 2.2810	81.5430
 2.2800	81.5455
 2.2790	81.5200
 2.2780	81.5077
 2.2770	81.5920
 2.2760	81.6223
 2.2750	81.5576
 2.2740	81.5379
 2.2730	81.5689
 2.2720	81.6340
 2.2710	81.5745
 2.2700	81.5946
 2.2690	81.5699
 2.2680	81.5921
 2.2670	81.5216
 2.2660	81.5561
 2.2650	81.5573
 2.2640	81.6559
 2.2630	81.6178
 2.2620	81.5717
 2.2610	81.5878
 2.2600	81.5975
 2.2590	81.5350
 2.2580	81.5816
 2.2570	81.5073
 2.2560	81.5062
 2.2550	81.6400
 2.2540	81.6285
 2.2530	81.6423
 2.2520	81.6521
 2.2510	81.5873
 2.2500	81.5194
 2.2490	81.6098
 2.2480	81.6194
 2.2470	81.5995
 2.2460	81.5830
 2.2450	81.5823
 2.2440	81.6084
 2.2430	81.5581
 2.2420	81.6441
 2.2410	81.6149
 2.2400	81.6273
 2.2390	81.5628
 2.2380	81.6316
 2.2370	81.6664
 2.2360	81.6674
 2.2350	81.6359
 2.2340	81.7023
 2.2330	81.6710
 2.2320	81.6458
 2.2310	81.6518
 2.2300	81.7974
 2.2290	81.7427
 2.2280	81.7050
 2.2270	81.6373
 2.2260	81.7191
 2.2250	81.7391
 2.2240	81.7274
 2.2230	81.7448
 2.2220	81.7646
 2.2210	81.6479
 2.2200	81.7763
 2.2190	81.7732
 2.2180	81.7103
 2.2170	81.7463
 2.2160	81.8017
 2.2150	81.7625
 2.2140	81.9200
 2.2130	81.8404
 2.2120	81.8981
 2.2110	81.8516
 2.2100	81.9546
 2.2090	81.9045
 2.2080	81.9577
 2.2070	81.9881
 2.2060	82.0540
 2.2050	81.9548
 2.2040	82.0935
 2.2030	82.1075
 2.2020	82.1150
 2.2010	82.1444
 2.2000	82.1784
 2.1990	82.1079
 2.1980	82.1358
 2.1970	82.2105
 2.1960	82.2796
 2.1950	82.1160
 2.1940	82.2772
 2.1930	82.1429
 2.1920	82.1807
 2.1910	82.1453
 2.1900	82.2086
 2.1890	82.2402
 2.1880	82.1900
 2.1870	82.3056
 2.1860	82.3235
 2.1850	82.3033
 2.1840	82.3328
 2.1830	82.2572
 2.1820	82.2506
 2.1810	82.3769
 2.1800	82.3497
 2.1790	82.3847
 2.1780	82.4476
 2.1770	82.3512
 2.1760	82.4829
 2.1750	82.4847
 2.1740	82.5703
 2.1730	82.5405
 2.1720	82.5776
 2.1710	82.6217
 2.1700	82.6696
 2.1690	82.6673
 2.1680	82.6877
 2.1670	82.7346
 2.1660	82.7541
 2.1650	82.6959
 2.1640	82.8625
 2.1630	82.8366
 2.1620	82.8051
 2.1610	82.8437
 2.1600	82.8305
 2.1590	82.8951
 2.1580	82.9264
 2.1570	82.9883
 2.1560	82.9971
 2.1550	82.9956
 2.1540	83.0185
 2.1530	82.9696
 2.1520	82.9437
 2.1510	83.0417
 2.1500	82.9480
 2.1490	82.9724
 2.1480	83.0199
 2.1470	83.0691
 2.1460	83.0452
 2.1450	83.0292
 2.1440	83.0352
 2.1430	82.9866
 2.1420	83.0801
 2.1410	83.0340
 2.1400	83.0466
 2.1390	83.0403
 2.1380	83.0391
 2.1370	83.0296
 2.1360	83.0485
 2.1350	82.9612
 2.1340	82.9218
 2.1330	82.9426
 2.1320	82.8956
 2.1310	82.9067
 2.1300	82.8611
 2.1290	82.7966
 2.1280	82.8050
 2.1270	82.7802
 2.1260	82.7877
 2.1250	82.6936
 2.1240	82.5989
 2.1230	82.5559
 2.1220	82.5022
 2.1210	82.4668
 2.1200	82.4348
 2.1190	82.3492
 2.1180	82.3620
 2.1170	82.2956
 2.1160	82.2665
 2.1150	82.2705
 2.1140	82.2197
 2.1130	82.1568
 2.1120	82.0270
 2.1110	82.0330
 2.1100	82.0151
 2.1090	81.9321
 2.1080	81.9080
 2.1070	81.8862
 2.1060	81.8772
 2.1050	81.8322
 2.1040	81.7697
 2.1030	81.7072
 2.1020	81.7007
 2.1010	81.6654
 2.1000	81.5999
 2.0990	81.6227
 2.0980	81.6519
 2.0970	81.6730
 2.0960	81.6630
 2.0950	81.6184
 2.0940	81.6458
 2.0930	81.6805
 2.0920	81.7032
 2.0910	81.7057
 2.0900	81.6708
 2.0890	81.6977
 2.0880	81.7040
 2.0870	81.6747
 2.0860	81.7269
 2.0850	81.7706
 2.0840	81.7291
 2.0830	81.7560
 2.0820	81.7526
 2.0810	81.7558
 2.0800	81.7964
 2.0790	81.7866
 2.0780	81.8142
 2.0770	81.8050
 2.0760	81.7868
 2.0750	81.8312
 2.0740	81.8289
 2.0730	81.8065
 2.0720	81.8589
 2.0710	81.8209
 2.0700	81.7866
 2.0690	81.8440
 2.0680	81.8970
 2.0670	81.9038
 2.0660	81.8703
 2.0650	81.8611
 2.0640	81.8840
 2.0630	81.8922
 2.0620	81.8897
 2.0610	81.9036
 2.0600	81.9500
 2.0590	81.9108
 2.0580	81.9453
 2.0570	81.9921
 2.0560	81.9725
 2.0550	81.9904
 2.0540	81.9782
 2.0530	82.0406
 2.0520	82.0690
 2.0510	82.0106
 2.0500	82.0102
 2.0490	82.0028
 2.0480	82.0560
 2.0470	82.0892
 2.0460	82.0720
 2.0450	82.1207
 2.0440	82.0472
 2.0430	82.0659
 2.0420	82.0689
 2.0410	82.0776
 2.0400	82.0579
 2.0390	82.1028
 2.0380	82.0644
 2.0370	82.0573
 2.0360	82.0625
 2.0350	82.1085
 2.0340	82.0943
 2.0330	82.0204
 2.0320	81.9941
 2.0310	82.0280
 2.0300	82.0638
 2.0290	82.0560
 2.0280	82.0156
 2.0270	82.0183
 2.0260	82.0533
 2.0250	82.0366
 2.0240	82.0411
 2.0230	81.9649
 2.0220	81.8949
 2.0210	81.8992
 2.0200	81.9376
 2.0190	81.9787
 2.0180	81.9095
 2.0170	81.9136
 2.0160	81.9127
 2.0150	81.9036
 2.0140	81.8925
 2.0130	81.8695
 2.0120	81.8934
 2.0110	81.9300
 2.0100	81.8362
 2.0090	81.8122
 2.0080	81.7963
 2.0070	81.7547
 2.0060	81.7287
 2.0050	81.8026
 2.0040	81.8173
 2.0030	81.7625
 2.0020	81.7036
 2.0010	81.7050
 2.0000	81.6867
 1.9990	81.7156
 1.9980	81.7135
 1.9970	81.6444
 1.9960	81.6391
 1.9950	81.6252
 1.9940	81.5205
 1.9930	81.5015
 1.9920	81.4943
 1.9910	81.5005
 1.9900	81.4384
 1.9890	81.4156
 1.9880	81.3602
 1.9870	81.3635
 1.9860	81.2557
 1.9850	81.2485
 1.9840	81.2061
 1.9830	81.3016
 1.9820	81.2388
 1.9810	81.2128
 1.9800	81.1868
 1.9790	81.1231
 1.9780	81.1258
 1.9770	81.0304
 1.9760	81.0026
 1.9750	81.0256
 1.9740	81.0726
 1.9730	81.0540
 1.9720	81.0281
 1.9710	80.9490
 1.9700	80.8954
 1.9690	80.8395
 1.9680	80.9164
 1.9670	80.9078
 1.9660	80.8479
 1.9650	80.9574
 1.9640	80.8563
 1.9630	80.8570
 1.9620	80.7219
 1.9610	80.7571
 1.9600	80.7373
 1.9590	80.7450
 1.9580	80.6643
 1.9570	80.7372
 1.9560	80.6740
 1.9550	80.6265
 1.9540	80.6423
 1.9530	80.6713
 1.9520	80.6571
 1.9510	80.6307
 1.9500	80.6366
 1.9490	80.5775
 1.9480	80.6035
 1.9470	80.6201
 1.9460	80.5876
 1.9450	80.5677
 1.9440	80.5498
 1.9430	80.5122
 1.9420	80.5485
 1.9410	80.6132
 1.9400	80.5807
 1.9390	80.5391
 1.9380	80.5174
 1.9370	80.5627
 1.9360	80.4471
 1.9350	80.5479
 1.9340	80.4563
 1.9330	80.4656
 1.9320	80.4312
 1.9310	80.4422
 1.9300	80.4809
 1.9290	80.5193
 1.9280	80.4647
 1.9270	80.4855
 1.9260	80.4855
 1.9250	80.4535
 1.9240	80.5245
 1.9230	80.5344
 1.9220	80.5001
 1.9210	80.4690
 1.9200	80.5695
 1.9190	80.5760
 1.9180	80.5517
 1.9170	80.5450
 1.9160	80.5963
 1.9150	80.7371
 1.9140	80.7396
 1.9130	80.6904
 1.9120	80.7511
 1.9110	80.8640
 1.9100	80.8593
 1.9090	80.9457
 1.9080	81.0153
 1.9070	81.0325
 1.9060	81.0931
 1.9050	81.1694
 1.9040	81.2333
 1.9030	81.2535
 1.9020	81.4107
 1.9010	81.4373
 1.9000	81.4921
 1.8990	81.5482
 1.8980	81.5455
 1.8970	81.6513
 1.8960	81.7361
 1.8950	81.9253
 1.8940	81.8716
 1.8930	82.0011
 1.8920	82.1086
 1.8910	82.1177
 1.8900	82.1515
 1.8890	82.1331
 1.8880	82.2809
 1.8870	82.3040
 1.8860	82.3312
 1.8850	82.4213
 1.8840	82.4526
 1.8830	82.5051
 1.8820	82.4651
 1.8810	82.5199
 1.8800	82.5299
 1.8790	82.6133
 1.8780	82.6558
 1.8770	82.7533
 1.8760	82.6828
 1.8750	82.6554
 1.8740	82.7101
 1.8730	82.6900
 1.8720	82.7030
 1.8710	82.7662
 1.8700	82.7881
 1.8690	82.7771
 1.8680	82.8045
 1.8670	82.8477
 1.8660	82.8602
 1.8650	82.8998
 1.8640	82.9232
 1.8630	82.9315
 1.8620	82.9521
 1.8610	82.9713
 1.8600	82.9791
 1.8590	82.9452
 1.8580	82.9119
 1.8570	82.9505
 1.8560	82.9496
 1.8550	83.0444
 1.8540	82.9617
 1.8530	82.9325
 1.8520	82.9099
 1.8510	82.9699
 1.8500	82.9732
 1.8490	82.9634
 1.8480	83.0310
 1.8470	82.9869
 1.8460	82.9646
 1.8450	83.0046
 1.8440	83.0839
 1.8430	83.0935
 1.8420	83.0264
 1.8410	82.9873
 1.8400	83.0043
 1.8390	83.0540
 1.8380	83.0466
 1.8370	83.0842
 1.8360	83.0471
 1.8350	83.0280
 1.8340	83.0378
 1.8330	83.0446
 1.8320	83.0247
 1.8310	83.0632
 1.8300	83.0900
 1.8290	83.0256
 1.8280	83.0134
 1.8270	82.9962
 1.8260	83.0097
 1.8250	82.9799
 1.8240	83.0214
 1.8230	82.9788
 1.8220	83.0196
 1.8210	83.0346
 1.8200	83.0295
 1.8190	83.0192
 1.8180	83.0109
 1.8170	83.0138
 1.8160	82.9668
 1.8150	82.9689
 1.8140	83.0043
 1.8130	83.0331
 1.8120	83.0885
 1.8110	83.1386
 1.8100	83.0749
 1.8090	83.0539
 1.8080	83.1029
 1.8070	83.1427
 1.8060	83.1413
 1.8050	83.0975
 1.8040	83.1001
 1.8030	83.1424
 1.8020	83.1524
 1.8010	83.1755
 1.8000	83.1543
 1.7990	83.1553
 1.7980	83.1511
 1.7970	83.0937
 1.7960	83.1078
 1.7950	83.1504
 1.7940	83.1181
 1.7930	83.1225
 1.7920	83.1212
 1.7910	83.1246
 1.7900	83.1135
 1.7890	83.1169
 1.7880	83.0973
 1.7870	83.0713
 1.7860	83.0747
 1.7850	83.0827
 1.7840	83.0681
 1.7830	83.0709
 1.7820	83.0681
 1.7810	83.0433
 1.7800	83.0745
 1.7790	83.0797
 1.7780	83.0616
 1.7770	83.0666
 1.7760	83.0898
 1.7750	83.0752
 1.7740	83.1116
 1.7730	83.1404
 1.7720	83.0685
 1.7710	83.0550
 1.7700	83.0908
 1.7690	83.1202
 1.7680	83.1362
 1.7670	83.0996
 1.7660	83.0876
 1.7650	83.1263
 1.7640	83.1540
 1.7630	83.0563
 1.7620	82.9974
 1.7610	83.0345
 1.7600	83.0614
 1.7590	83.0361
 1.7580	83.0756
 1.7570	83.1013
 1.7560	83.0618
 1.7550	83.0185
 1.7540	83.0694
 1.7530	83.1105
 1.7520	83.1289
 1.7510	83.0650
 1.7500	83.1121
 1.7490	83.1335
 1.7480	83.1526
 1.7470	83.1762
 1.7460	83.2023
 1.7450	83.1372
 1.7440	83.0680
 1.7430	83.0954
 1.7420	83.1064
 1.7410	83.1593
 1.7400	83.1326
 1.7390	83.1488
 1.7380	83.1641
 1.7370	83.1601
 1.7360	83.1054
 1.7350	83.1116
 1.7340	83.1885
 1.7330	83.1957
 1.7320	83.1792
 1.7310	83.1622
 1.7300	83.1098
 1.7290	83.1445
 1.7280	83.0629
 1.7270	83.1200
 1.7260	83.1836
 1.7250	83.2150
 1.7240	83.2082
 1.7230	83.1943
 1.7220	83.1808
 1.7210	83.2048
 1.7200	83.1775
 1.7190	83.1598
 1.7180	83.1654
 1.7170	83.1406
 1.7160	83.1736
 1.7150	83.2313
 1.7140	83.1968
 1.7130	83.1551
 1.7120	83.1623
 1.7110	83.1283
 1.7100	83.1474
 1.7090	83.1391
 1.7080	83.1422
 1.7070	83.1331
 1.7060	83.1247
 1.7050	83.1540
 1.7040	83.1112
 1.7030	83.0817
 1.7020	83.1053
 1.7010	83.1715
 1.7000	83.1069
 1.6990	83.1229
 1.6980	83.1307
 1.6970	83.1474
 1.6960	83.1381
 1.6950	83.1048
 1.6940	83.1134
 1.6930	83.0827
 1.6920	83.0571
 1.6910	83.0611
 1.6900	83.1156
 1.6890	83.0902
 1.6880	83.1111
 1.6870	83.0010
 1.6860	83.1011
 1.6850	83.1213
 1.6840	83.0949
 1.6830	83.0419
 1.6820	83.0980
 1.6810	83.0624
 1.6800	83.0679
 1.6790	83.0878
 1.6780	83.0831
 1.6770	83.0113
 1.6760	83.0998
 1.6750	83.0559
 1.6740	83.0778
 1.6730	83.0341
 1.6720	83.0836
 1.6710	83.0949
 1.6700	83.0433
 1.6690	83.1248
 1.6680	83.0806
 1.6670	83.1327
 1.6660	83.1161
 1.6650	82.9526
 1.6640	83.1228
 1.6630	83.0494
 1.6620	83.0067
 1.6610	83.0319
 1.6600	82.9890
 1.6590	83.0024
 1.6580	83.0792
 1.6570	83.0354
 1.6560	83.0316
 1.6550	83.0153
 1.6540	83.0077
 1.6530	82.9802
 1.6520	83.1529
 1.6510	83.0146
 1.6500	83.0305
 1.6490	83.0835
 1.6480	82.9546
 1.6470	83.0168
 1.6460	83.0755
 1.6450	83.0292
 1.6440	83.0046
 1.6430	83.0014
 1.6420	83.1215
 1.6410	82.8857
 1.6400	83.0518
 1.6390	83.0258
 1.6380	83.0828
 1.6370	82.9966
 1.6360	83.0081
 1.6350	82.9416
 1.6340	83.0557
 1.6330	82.9164
 1.6320	83.0326
 1.6310	82.9602
 1.6300	82.9219
 1.6290	82.9382
 1.6280	82.9584
 1.6270	82.9709
 1.6260	83.0845
 1.6250	83.0177
 1.6240	82.9761
 1.6230	82.9321
 1.6220	83.0577
 1.6210	82.9333
 1.6200	82.9515
 1.6190	82.9794
 1.6180	82.9426
 1.6170	83.0169
 1.6160	82.9753
 1.6150	82.9664
 1.6140	82.9451
 1.6130	82.9656
 1.6120	83.0078
 1.6110	83.0282
 1.6100	82.9783
 1.6090	82.9625
 1.6080	83.0043
 1.6070	82.9799
 1.6060	82.9667
 1.6050	82.8775
 1.6040	82.9303
 1.6030	82.9269
 1.6020	82.9456
 1.6010	83.0286
 1.6000	82.9645
 1.5990	82.8831
 1.5980	82.9238
 1.5970	82.9169
 1.5960	82.9449
 1.5950	82.8644
 1.5940	82.8929
 1.5930	82.8810
 1.5920	82.8517
 1.5910	82.9109
 1.5900	82.8954
 1.5890	82.8692
 1.5880	82.9068
 1.5870	82.8897
 1.5860	82.8210
 1.5850	82.8713
 1.5840	82.8402
 1.5830	82.8753
 1.5820	82.8622
 1.5810	82.8724
 1.5800	82.8122
 1.5790	82.7678
 1.5780	82.8048
 1.5770	82.7870
 1.5760	82.8113
 1.5750	82.8353
 1.5740	82.8234
 1.5730	82.8199
 1.5720	82.9031
 1.5710	82.8397
 1.5700	82.7443
 1.5690	82.8195
 1.5680	82.7761
 1.5670	82.7876
 1.5660	82.7160
 1.5650	82.7546
 1.5640	82.7856
 1.5630	82.7605
 1.5620	82.7442
 1.5610	82.7629
 1.5600	82.7412
 1.5590	82.7869
 1.5580	82.7586
 1.5570	82.7094
 1.5560	82.7439
 1.5550	82.7337
 1.5540	82.6818
 1.5530	82.7603
 1.5520	82.8074
 1.5510	82.6977
 1.5500	82.6765
 1.5490	82.6877
 1.5480	82.6674
 1.5470	82.6582
 1.5460	82.7331
 1.5450	82.6732
 1.5440	82.6133
 1.5430	82.5871
 1.5420	82.6233
 1.5410	82.6278
 1.5400	82.6321
 1.5390	82.6423
 1.5380	82.6089
 1.5370	82.6202
 1.5360	82.5924
 1.5350	82.5676
 1.5340	82.6118
 1.5330	82.6014
 1.5320	82.6069
 1.5310	82.5606
 1.5300	82.5703
 1.5290	82.5828
 1.5280	82.5420
 1.5270	82.5573
 1.5260	82.5610
 1.5250	82.5201
 1.5240	82.5376
 1.5230	82.5703
 1.5220	82.5760
 1.5210	82.5382
 1.5200	82.5130
 1.5190	82.5226
 1.5180	82.5136
 1.5170	82.5120
 1.5160	82.5082
 1.5150	82.5017
 1.5140	82.5291
 1.5130	82.5235
 1.5120	82.4759
 1.5110	82.4219
 1.5100	82.4465
 1.5090	82.4291
 1.5080	82.4282
 1.5070	82.4393
 1.5060	82.4464
 1.5050	82.4767
 1.5040	82.4107
 1.5030	82.3310
 1.5020	82.3756
 1.5010	82.3597
 1.5000	82.2861
 1.4990	82.3128
 1.4980	82.3359
 1.4970	82.2871
 1.4960	82.3126
 1.4950	82.3451
 1.4940	82.3253
 1.4930	82.3021
 1.4920	82.2731
 1.4910	82.3008
 1.4900	82.2713
 1.4890	82.2228
 1.4880	82.2154
 1.4870	82.2199
 1.4860	82.2428
 1.4850	82.1941
 1.4840	82.1772
 1.4830	82.1961
 1.4820	82.2049
 1.4810	82.1754
 1.4800	82.1475
 1.4790	82.1669
 1.4780	82.1660
 1.4770	82.1833
 1.4760	82.1514
 1.4750	82.1312
 1.4740	82.1119
 1.4730	82.0951
 1.4720	82.0583
 1.4710	82.0971
 1.4700	82.0847
 1.4690	82.0934
 1.4680	82.1054
 1.4670	82.0400
 1.4660	82.0270
 1.4650	82.0366
 1.4640	82.0153
 1.4630	82.0145
 1.4620	82.0369
 1.4610	81.9976
 1.4600	82.0434
 1.4590	82.0185
 1.4580	81.9965
 1.4570	82.0232
 1.4560	81.9969
 1.4550	81.9668
 1.4540	81.9663
 1.4530	82.0321
 1.4520	81.9878
 1.4510	81.9288
 1.4500	81.9479
 1.4490	81.9932
 1.4480	82.0097
 1.4470	81.9336
 1.4460	81.8503
 1.4450	81.8814
 1.4440	81.9071
 1.4430	81.9208
 1.4420	81.9495
 1.4410	81.9161
 1.4400	81.8708
 1.4390	81.9015
 1.4380	81.9085
 1.4370	81.8692
 1.4360	81.9290
 1.4350	81.8674
 1.4340	81.8334
 1.4330	81.8117
 1.4320	81.8466
 1.4310	81.8175
 1.4300	81.7881
 1.4290	81.8419
 1.4280	81.8852
 1.4270	81.7629
 1.4260	81.7576
 1.4250	81.8038
 1.4240	81.8494
 1.4230	81.7963
 1.4220	81.7904
 1.4210	81.8049
 1.4200	81.8282
 1.4190	81.7904
 1.4180	81.8476
 1.4170	81.8730
 1.4160	81.8205
 1.4150	81.9678
 1.4140	81.8993
 1.4130	81.9982
 1.4120	81.9561
 1.4110	81.9798
 1.4100	81.9581
 1.4090	81.9647
 1.4080	82.0099
 1.4070	82.0003
 1.4060	82.0336
 1.4050	81.9697
 1.4040	82.0601
 1.4030	82.1353
 1.4020	82.0733
 1.4010	82.0956
 1.4000	82.0949
 1.3990	82.1569
 1.3980	82.1607
 1.3970	82.2059
 1.3960	82.3011
 1.3950	82.2882
 1.3940	82.1918
 1.3930	82.2797
 1.3920	82.2628
 1.3910	82.3230
 1.3900	82.2470
 1.3890	82.3730
 1.3880	82.3154
 1.3870	82.3476
 1.3860	82.2801
 1.3850	82.4098
 1.3840	82.3700
 1.3830	82.3725
 1.3820	82.3298
 1.3810	82.4019
 1.3800	82.3909
 1.3790	82.3431
 1.3780	82.2920
 1.3770	82.3676
 1.3760	82.3862
 1.3750	82.3203
 1.3740	82.3524
 1.3730	82.3387
 1.3720	82.3257
 1.3710	82.3045
 1.3700	82.3878
 1.3690	82.3900
 1.3680	82.4169
 1.3670	82.4035
 1.3660	82.3317
