Name: Tremolite Ca_2(Mg,Fe^2+)_5Si_8O_22(OH)_2
Type: Mineral
Class: Silicate
Subclass: Inosilicate
Particle Size: Medium
Sample No.: IN-5A
Owner: JPL
Wavelength Range: VSWIR
Origin: None.
Collection Date: N/A
Description: Particle size was 45-125um. Collected by:  JPL Original ASTER Spectral Library name was jpl.perkin.mineral.silicate.inosilicate.medium.in05a.spectrum.txt
Measurement: Hemispherical reflectance
First Column: X
Second Column: Y
X Units: Wavelength (micrometers)
Y Units:Reflectance (percent)
First X Value:  2.5000
Last X Value:  0.4000
Number of X Values: 2101
Additional Information: mineral.silicate.inosilicate.medium.vswir.in-5a.jpl.perkin.ancillary.txt

 2.5000	57.3014
 2.4990	57.3070
 2.4980	57.1899
 2.4970	57.2065
 2.4960	56.6596
 2.4950	56.9953
 2.4940	56.7073
 2.4930	56.6988
 2.4920	56.5430
 2.4910	56.4279
 2.4900	56.3641
 2.4890	56.2932
 2.4880	56.1847
 2.4870	56.2104
 2.4860	55.9757
 2.4850	56.0284
 2.4840	55.8186
 2.4830	55.8019
 2.4820	55.8182
 2.4810	55.7344
 2.4800	55.5788
 2.4790	55.6118
 2.4780	55.3756
 2.4770	55.3373
 2.4760	55.2940
 2.4750	55.1438
 2.4740	55.1232
 2.4730	55.0992
 2.4720	54.9551
 2.4710	55.0568
 2.4700	54.9239
 2.4690	54.8331
 2.4680	54.7894
 2.4670	54.8244
 2.4660	54.7378
 2.4650	54.8110
 2.4640	54.6474
 2.4630	54.8740
 2.4620	54.6603
 2.4610	54.7847
 2.4600	54.5935
 2.4590	54.8059
 2.4580	54.8430
 2.4570	55.0273
 2.4560	55.0314
 2.4550	55.1766
 2.4540	55.1747
 2.4530	55.2747
 2.4520	55.2892
 2.4510	55.4039
 2.4500	55.5111
 2.4490	55.7355
 2.4480	55.7846
 2.4470	55.9737
 2.4460	56.0022
 2.4450	56.1885
 2.4440	56.4116
 2.4430	56.5687
 2.4420	56.7289
 2.4410	56.9694
 2.4400	57.0864
 2.4390	57.3055
 2.4380	57.5647
 2.4370	57.6965
 2.4360	57.9255
 2.4350	58.2442
 2.4340	58.4409
 2.4330	58.8075
 2.4320	59.0533
 2.4310	59.3136
 2.4300	59.2940
 2.4290	59.5740
 2.4280	59.6972
 2.4270	59.7870
 2.4260	59.8077
 2.4250	59.8247
 2.4240	59.8348
 2.4230	59.7374
 2.4220	59.6367
 2.4210	59.5262
 2.4200	59.4358
 2.4190	59.3129
 2.4180	59.0829
 2.4170	59.1250
 2.4160	59.0929
 2.4150	58.9849
 2.4140	58.9357
 2.4130	59.0229
 2.4120	58.9727
 2.4110	58.9291
 2.4100	58.8997
 2.4090	58.8473
 2.4080	58.7836
 2.4070	58.7024
 2.4060	58.5302
 2.4050	58.2667
 2.4040	57.9956
 2.4030	57.7770
 2.4020	57.2917
 2.4010	56.7702
 2.4000	56.1743
 2.3990	55.6055
 2.3980	54.8698
 2.3970	54.1249
 2.3960	53.2914
 2.3950	52.5133
 2.3940	51.6029
 2.3930	50.7159
 2.3920	49.7927
 2.3910	48.9586
 2.3900	48.1317
 2.3890	47.4012
 2.3880	46.7336
 2.3870	46.2386
 2.3860	45.8170
 2.3850	45.5619
 2.3840	45.3190
 2.3830	45.2418
 2.3820	45.2638
 2.3810	45.4131
 2.3800	45.7567
 2.3790	46.2212
 2.3780	46.6521
 2.3770	47.1523
 2.3760	47.8581
 2.3750	48.6756
 2.3740	49.4139
 2.3730	50.2110
 2.3720	51.0250
 2.3710	51.8725
 2.3700	52.7357
 2.3690	53.5958
 2.3680	54.4337
 2.3670	55.2322
 2.3660	55.9365
 2.3650	56.6051
 2.3640	57.2649
 2.3630	57.9662
 2.3620	58.6002
 2.3610	59.1161
 2.3600	59.5984
 2.3590	60.1257
 2.3580	60.5654
 2.3570	60.9905
 2.3560	61.4506
 2.3550	61.8430
 2.3540	62.1694
 2.3530	62.4744
 2.3520	62.7847
 2.3510	63.1399
 2.3500	63.4320
 2.3490	63.7200
 2.3480	64.0329
 2.3470	64.2200
 2.3460	64.4050
 2.3450	64.6191
 2.3440	64.8223
 2.3430	64.9116
 2.3420	64.9416
 2.3410	65.0085
 2.3400	65.0067
 2.3390	64.9141
 2.3380	64.7372
 2.3370	64.4215
 2.3360	64.0530
 2.3350	63.5885
 2.3340	62.9874
 2.3330	62.2649
 2.3320	61.3577
 2.3310	60.3626
 2.3300	59.3597
 2.3290	58.1815
 2.3280	56.9568
 2.3270	55.6017
 2.3260	54.2439
 2.3250	52.8750
 2.3240	51.4489
 2.3230	50.0343
 2.3220	48.6636
 2.3210	47.3237
 2.3200	45.9783
 2.3190	44.6691
 2.3180	43.4760
 2.3170	42.4081
 2.3160	41.5192
 2.3150	40.7609
 2.3140	40.1711
 2.3130	39.6357
 2.3120	39.2714
 2.3110	38.9661
 2.3100	38.8152
 2.3090	38.6852
 2.3080	38.6239
 2.3070	38.6490
 2.3060	38.7701
 2.3050	38.8387
 2.3040	38.9579
 2.3030	39.0903
 2.3020	39.2994
 2.3010	39.4945
 2.3000	39.6825
 2.2990	39.9367
 2.2980	40.2784
 2.2970	40.5137
 2.2960	40.8658
 2.2950	41.2605
 2.2940	41.7217
 2.2930	42.1528
 2.2920	42.7736
 2.2910	43.4146
 2.2900	44.1055
 2.2890	44.8115
 2.2880	45.5833
 2.2870	46.3453
 2.2860	47.1894
 2.2850	47.8891
 2.2840	48.7158
 2.2830	49.4434
 2.2820	50.1954
 2.2810	50.8910
 2.2800	51.6103
 2.2790	52.3340
 2.2780	52.9940
 2.2770	53.5999
 2.2760	54.3031
 2.2750	54.9551
 2.2740	55.6674
 2.2730	56.3186
 2.2720	57.1118
 2.2710	57.8314
 2.2700	58.6489
 2.2690	59.3746
 2.2680	60.1627
 2.2670	60.9238
 2.2660	61.7563
 2.2650	62.4623
 2.2640	63.2881
 2.2630	64.0167
 2.2620	64.7033
 2.2610	65.3947
 2.2600	66.0803
 2.2590	66.7306
 2.2580	67.3258
 2.2570	67.7613
 2.2560	68.3049
 2.2550	68.6805
 2.2540	69.1486
 2.2530	69.4315
 2.2520	69.6744
 2.2510	69.9555
 2.2500	70.2570
 2.2490	70.3719
 2.2480	70.6051
 2.2470	70.7025
 2.2460	70.9036
 2.2450	71.0327
 2.2440	71.0713
 2.2430	71.2255
 2.2420	71.4130
 2.2410	71.5417
 2.2400	71.6875
 2.2390	71.8126
 2.2380	71.8351
 2.2370	71.9971
 2.2360	72.0850
 2.2350	72.1866
 2.2340	72.2753
 2.2330	72.4013
 2.2320	72.4974
 2.2310	72.5900
 2.2300	72.5881
 2.2290	72.6601
 2.2280	72.7906
 2.2270	72.8291
 2.2260	72.8223
 2.2250	72.8817
 2.2240	72.9864
 2.2230	72.8037
 2.2220	73.0234
 2.2210	72.9800
 2.2200	73.0923
 2.2190	73.0213
 2.2180	73.0713
 2.2170	73.0070
 2.2160	73.1010
 2.2150	73.1214
 2.2140	73.1625
 2.2130	73.0630
 2.2120	73.2407
 2.2110	73.1315
 2.2100	73.2729
 2.2090	73.2606
 2.2080	73.1847
 2.2070	73.2272
 2.2060	73.3261
 2.2050	73.2940
 2.2040	73.3249
 2.2030	73.4322
 2.2020	73.3451
 2.2010	73.3573
 2.2000	73.4627
 2.1990	73.3569
 2.1980	73.4410
 2.1970	73.2789
 2.1960	73.4414
 2.1950	73.3438
 2.1940	73.3510
 2.1930	73.2815
 2.1920	73.3388
 2.1910	73.2878
 2.1900	73.3176
 2.1890	73.2361
 2.1880	73.2987
 2.1870	73.2603
 2.1860	73.2294
 2.1850	73.1371
 2.1840	73.1573
 2.1830	73.1616
 2.1820	73.0914
 2.1810	73.0351
 2.1800	73.0284
 2.1790	72.9833
 2.1780	72.9648
 2.1770	72.9869
 2.1760	73.1193
 2.1750	73.1228
 2.1740	73.1780
 2.1730	73.1918
 2.1720	73.2436
 2.1710	73.2439
 2.1700	73.2984
 2.1690	73.3493
 2.1680	73.3109
 2.1670	73.3367
 2.1660	73.3458
 2.1650	73.2199
 2.1640	73.2951
 2.1630	73.2549
 2.1620	73.1904
 2.1610	73.1371
 2.1600	73.1012
 2.1590	72.9654
 2.1580	72.8931
 2.1570	72.8596
 2.1560	72.7819
 2.1550	72.7189
 2.1540	72.6986
 2.1530	72.5546
 2.1520	72.4860
 2.1510	72.3801
 2.1500	72.3564
 2.1490	72.2777
 2.1480	72.1856
 2.1470	72.1088
 2.1460	72.1398
 2.1450	72.1485
 2.1440	72.1516
 2.1430	72.1117
 2.1420	72.1103
 2.1410	72.0268
 2.1400	71.9705
 2.1390	71.8706
 2.1380	71.7484
 2.1370	71.6473
 2.1360	71.4562
 2.1350	71.3122
 2.1340	71.1008
 2.1330	70.8627
 2.1320	70.6402
 2.1310	70.3893
 2.1300	70.2544
 2.1290	70.0992
 2.1280	69.9673
 2.1270	69.8268
 2.1260	69.7727
 2.1250	69.7266
 2.1240	69.7234
 2.1230	69.6146
 2.1220	69.5884
 2.1210	69.5107
 2.1200	69.4689
 2.1190	69.3373
 2.1180	69.1516
 2.1170	69.0123
 2.1160	68.8527
 2.1150	68.6396
 2.1140	68.4619
 2.1130	68.3285
 2.1120	68.3582
 2.1110	68.4246
 2.1100	68.4530
 2.1090	68.6046
 2.1080	68.9066
 2.1070	69.2753
 2.1060	69.6991
 2.1050	70.1894
 2.1040	70.7573
 2.1030	71.2310
 2.1020	71.5819
 2.1010	71.8717
 2.1000	72.1734
 2.0990	72.4766
 2.0980	72.5923
 2.0970	72.6714
 2.0960	72.7459
 2.0950	72.7020
 2.0940	72.6908
 2.0930	72.7362
 2.0920	72.7549
 2.0910	72.7005
 2.0900	72.6875
 2.0890	72.6555
 2.0880	72.6469
 2.0870	72.6287
 2.0860	72.6919
 2.0850	72.7645
 2.0840	72.7948
 2.0830	72.8718
 2.0820	72.9196
 2.0810	72.9461
 2.0800	73.0241
 2.0790	73.0867
 2.0780	73.2086
 2.0770	73.2687
 2.0760	73.3250
 2.0750	73.4173
 2.0740	73.4772
 2.0730	73.5604
 2.0720	73.6577
 2.0710	73.7407
 2.0700	73.7514
 2.0690	73.7143
 2.0680	73.7196
 2.0670	73.7705
 2.0660	73.8502
 2.0650	73.8999
 2.0640	73.8605
 2.0630	73.8695
 2.0620	73.8990
 2.0610	73.8935
 2.0600	73.9493
 2.0590	73.9481
 2.0580	73.9050
 2.0570	73.9158
 2.0560	73.9188
 2.0550	73.9616
 2.0540	74.0860
 2.0530	74.1603
 2.0520	74.1431
 2.0510	74.2167
 2.0500	74.3744
 2.0490	74.4769
 2.0480	74.5766
 2.0470	74.6905
 2.0460	74.7778
 2.0450	74.9038
 2.0440	75.0481
 2.0430	75.1570
 2.0420	75.2932
 2.0410	75.3976
 2.0400	75.4710
 2.0390	75.6086
 2.0380	75.6621
 2.0370	75.7549
 2.0360	75.7613
 2.0350	75.8616
 2.0340	75.9318
 2.0330	75.9533
 2.0320	75.9599
 2.0310	76.0645
 2.0300	76.0595
 2.0290	75.9919
 2.0280	75.9948
 2.0270	75.9833
 2.0260	75.9089
 2.0250	75.8279
 2.0240	75.7857
 2.0230	75.7489
 2.0220	75.6706
 2.0210	75.6583
 2.0200	75.5589
 2.0190	75.4639
 2.0180	75.4487
 2.0170	75.3729
 2.0160	75.2687
 2.0150	75.2393
 2.0140	75.1709
 2.0130	75.2122
 2.0120	75.1691
 2.0110	75.1113
 2.0100	75.1123
 2.0090	75.1803
 2.0080	75.1247
 2.0070	75.1530
 2.0060	75.1443
 2.0050	75.1798
 2.0040	75.2036
 2.0030	75.2609
 2.0020	75.2489
 2.0010	75.2636
 2.0000	75.3271
 1.9990	75.3589
 1.9980	75.3009
 1.9970	75.3709
 1.9960	75.4539
 1.9950	75.4466
 1.9940	75.3835
 1.9930	75.4303
 1.9920	75.4852
 1.9910	75.4671
 1.9900	75.5106
 1.9890	75.6054
 1.9880	75.6199
 1.9870	75.6690
 1.9860	75.7889
 1.9850	75.8521
 1.9840	75.8549
 1.9830	76.0012
 1.9820	75.9814
 1.9810	76.0182
 1.9800	76.0309
 1.9790	76.1065
 1.9780	76.1169
 1.9770	76.1961
 1.9760	76.2824
 1.9750	76.2710
 1.9740	76.3180
 1.9730	76.4221
 1.9720	76.3802
 1.9710	76.4251
 1.9700	76.4681
 1.9690	76.4194
 1.9680	76.5217
 1.9670	76.5161
 1.9660	76.5112
 1.9650	76.5092
 1.9640	76.6309
 1.9630	76.6809
 1.9620	76.6571
 1.9610	76.6716
 1.9600	76.6983
 1.9590	76.6842
 1.9580	76.6702
 1.9570	76.7264
 1.9560	76.7607
 1.9550	76.8554
 1.9540	76.8313
 1.9530	76.7932
 1.9520	76.7534
 1.9510	76.8801
 1.9500	76.7804
 1.9490	76.8622
 1.9480	76.7482
 1.9470	76.8327
 1.9460	76.7566
 1.9450	76.8985
 1.9440	76.8753
 1.9430	76.8640
 1.9420	76.8486
 1.9410	76.8766
 1.9400	76.8663
 1.9390	76.8925
 1.9380	76.8126
 1.9370	76.8397
 1.9360	76.9233
 1.9350	76.9679
 1.9340	76.8859
 1.9330	76.9891
 1.9320	76.9616
 1.9310	76.9309
 1.9300	76.9516
 1.9290	76.9077
 1.9280	76.9758
 1.9270	76.9746
 1.9260	76.8773
 1.9250	77.0184
 1.9240	76.9097
 1.9230	76.8700
 1.9220	76.8975
 1.9210	76.9666
 1.9200	76.9067
 1.9190	76.9650
 1.9180	76.9802
 1.9170	76.8919
 1.9160	76.9004
 1.9150	77.0095
 1.9140	76.9155
 1.9130	76.9586
 1.9120	77.0185
 1.9110	77.0811
 1.9100	77.0661
 1.9090	77.0541
 1.9080	77.0112
 1.9070	77.0527
 1.9060	77.0296
 1.9050	77.0909
 1.9040	77.0510
 1.9030	77.3038
 1.9020	77.2431
 1.9010	77.2476
 1.9000	77.3279
 1.8990	77.3715
 1.8980	77.4427
 1.8970	77.4334
 1.8960	77.5082
 1.8950	77.5903
 1.8940	77.5436
 1.8930	77.6588
 1.8920	77.7020
 1.8910	77.7963
 1.8900	77.7861
 1.8890	77.8125
 1.8880	77.8510
 1.8870	77.8777
 1.8860	77.9607
 1.8850	77.9466
 1.8840	77.9654
 1.8830	77.9168
 1.8820	77.9741
 1.8810	78.0236
 1.8800	77.9516
 1.8790	77.9983
 1.8780	77.9780
 1.8770	77.9715
 1.8760	77.9976
 1.8750	77.9797
 1.8740	78.0115
 1.8730	77.9534
 1.8720	78.0483
 1.8710	78.0665
 1.8700	78.0184
 1.8690	78.0784
 1.8680	78.0649
 1.8670	78.0879
 1.8660	78.0566
 1.8650	78.0867
 1.8640	78.0780
 1.8630	78.0628
 1.8620	78.0522
 1.8610	78.0372
 1.8600	78.0154
 1.8590	78.1073
 1.8580	78.0828
 1.8570	78.0903
 1.8560	78.0551
 1.8550	78.0495
 1.8540	78.1315
 1.8530	78.1870
 1.8520	78.1931
 1.8510	78.2073
 1.8500	78.1507
 1.8490	78.2099
 1.8480	78.2398
 1.8470	78.2592
 1.8460	78.2837
 1.8450	78.3438
 1.8440	78.3573
 1.8430	78.4326
 1.8420	78.4470
 1.8410	78.4178
 1.8400	78.3907
 1.8390	78.4614
 1.8380	78.4905
 1.8370	78.5002
 1.8360	78.4659
 1.8350	78.5447
 1.8340	78.5448
 1.8330	78.5601
 1.8320	78.5718
 1.8310	78.6103
 1.8300	78.6145
 1.8290	78.6362
 1.8280	78.6687
 1.8270	78.6937
 1.8260	78.6760
 1.8250	78.7018
 1.8240	78.6766
 1.8230	78.7315
 1.8220	78.7421
 1.8210	78.7703
 1.8200	78.7668
 1.8190	78.7717
 1.8180	78.8077
 1.8170	78.8484
 1.8160	78.8744
 1.8150	78.8975
 1.8140	78.9017
 1.8130	78.9146
 1.8120	78.9178
 1.8110	78.9548
 1.8100	78.9294
 1.8090	78.9339
 1.8080	79.0028
 1.8070	79.0973
 1.8060	79.0606
 1.8050	79.0113
 1.8040	79.0775
 1.8030	79.0746
 1.8020	79.0637
 1.8010	79.0827
 1.8000	79.1166
 1.7990	79.1458
 1.7980	79.1513
 1.7970	79.0876
 1.7960	79.0732
 1.7950	79.1400
 1.7940	79.0741
 1.7930	79.0694
 1.7920	79.1369
 1.7910	79.0989
 1.7900	79.0860
 1.7890	79.1175
 1.7880	79.1369
 1.7870	79.0967
 1.7860	79.1061
 1.7850	79.1428
 1.7840	79.0715
 1.7830	79.0296
 1.7820	79.0555
 1.7810	79.0674
 1.7800	79.1145
 1.7790	79.1309
 1.7780	79.1377
 1.7770	79.1315
 1.7760	79.0789
 1.7750	79.0792
 1.7740	79.0807
 1.7730	79.0759
 1.7720	79.1081
 1.7710	79.0721
 1.7700	79.0948
 1.7690	79.0950
 1.7680	79.0918
 1.7670	79.1158
 1.7660	79.0868
 1.7650	79.1073
 1.7640	79.1501
 1.7630	79.1358
 1.7620	79.0552
 1.7610	79.0419
 1.7600	79.0711
 1.7590	79.0690
 1.7580	79.0996
 1.7570	79.1646
 1.7560	79.1225
 1.7550	79.1220
 1.7540	79.1195
 1.7530	79.1179
 1.7520	79.1110
 1.7510	79.1201
 1.7500	79.1262
 1.7490	79.1208
 1.7480	79.1780
 1.7470	79.1671
 1.7460	79.1504
 1.7450	79.1435
 1.7440	79.1494
 1.7430	79.1922
 1.7420	79.2415
 1.7410	79.1907
 1.7400	79.1982
 1.7390	79.1968
 1.7380	79.2409
 1.7370	79.2599
 1.7360	79.2547
 1.7350	79.1764
 1.7340	79.2463
 1.7330	79.2763
 1.7320	79.2702
 1.7310	79.3127
 1.7300	79.2903
 1.7290	79.2134
 1.7280	79.2771
 1.7270	79.3272
 1.7260	79.2614
 1.7250	79.2523
 1.7240	79.2554
 1.7230	79.2687
 1.7220	79.2543
 1.7210	79.2312
 1.7200	79.2792
 1.7190	79.3073
 1.7180	79.3148
 1.7170	79.3298
 1.7160	79.2938
 1.7150	79.2588
 1.7140	79.3087
 1.7130	79.2777
 1.7120	79.3076
 1.7110	79.3050
 1.7100	79.3343
 1.7090	79.3033
 1.7080	79.2615
 1.7070	79.2885
 1.7060	79.2956
 1.7050	79.2740
 1.7040	79.2725
 1.7030	79.2360
 1.7020	79.3241
 1.7010	79.2346
 1.7000	79.2108
 1.6990	79.1987
 1.6980	79.3176
 1.6970	79.2837
 1.6960	79.3386
 1.6950	79.2641
 1.6940	79.3698
 1.6930	79.3317
 1.6920	79.3708
 1.6910	79.2758
 1.6900	79.2750
 1.6890	79.3034
 1.6880	79.3092
 1.6870	79.3164
 1.6860	79.2976
 1.6850	79.2901
 1.6840	79.3188
 1.6830	79.3340
 1.6820	79.2447
 1.6810	79.3068
 1.6800	79.2965
 1.6790	79.2765
 1.6780	79.3660
 1.6770	79.3952
 1.6760	79.3757
 1.6750	79.3794
 1.6740	79.2961
 1.6730	79.2237
 1.6720	79.2927
 1.6710	79.2072
 1.6700	79.3256
 1.6690	79.3345
 1.6680	79.2657
 1.6670	79.2959
 1.6660	79.3023
 1.6650	79.2569
 1.6640	79.3077
 1.6630	79.2727
 1.6620	79.3283
 1.6610	79.2964
 1.6600	79.3042
 1.6590	79.1974
 1.6580	79.2983
 1.6570	79.3030
 1.6560	79.1669
 1.6550	79.2570
 1.6540	79.3452
 1.6530	79.3534
 1.6520	79.2927
 1.6510	79.3044
 1.6500	79.4072
 1.6490	79.2566
 1.6480	79.3451
 1.6470	79.2601
 1.6460	79.4038
 1.6450	79.2975
 1.6440	79.2899
 1.6430	79.3311
 1.6420	79.3985
 1.6410	79.2844
 1.6400	79.3941
 1.6390	79.3035
 1.6380	79.2714
 1.6370	79.3176
 1.6360	79.2449
 1.6350	79.3625
 1.6340	79.2536
 1.6330	79.2995
 1.6320	79.2611
 1.6310	79.2708
 1.6300	79.2881
 1.6290	79.2681
 1.6280	79.3295
 1.6270	79.2715
 1.6260	79.3222
 1.6250	79.2881
 1.6240	79.4247
 1.6230	79.3362
 1.6220	79.3847
 1.6210	79.3192
 1.6200	79.4115
 1.6190	79.3476
 1.6180	79.4160
 1.6170	79.3512
 1.6160	79.3180
 1.6150	79.3273
 1.6140	79.3979
 1.6130	79.3335
 1.6120	79.3842
 1.6110	79.3660
 1.6100	79.3336
 1.6090	79.3926
 1.6080	79.3963
 1.6070	79.3169
 1.6060	79.3889
 1.6050	79.2608
 1.6040	79.3969
 1.6030	79.3286
 1.6020	79.3964
 1.6010	79.3156
 1.6000	79.3630
 1.5990	79.3538
 1.5980	79.3734
 1.5970	79.3275
 1.5960	79.3742
 1.5950	79.3318
 1.5940	79.3019
 1.5930	79.3545
 1.5920	79.3519
 1.5910	79.2991
 1.5900	79.2944
 1.5890	79.2659
 1.5880	79.3937
 1.5870	79.4091
 1.5860	79.3800
 1.5850	79.3160
 1.5840	79.3344
 1.5830	79.3175
 1.5820	79.3897
 1.5810	79.3797
 1.5800	79.3400
 1.5790	79.3430
 1.5780	79.3190
 1.5770	79.3306
 1.5760	79.4020
 1.5750	79.3318
 1.5740	79.2971
 1.5730	79.3588
 1.5720	79.3354
 1.5710	79.3028
 1.5700	79.3390
 1.5690	79.2817
 1.5680	79.2801
 1.5670	79.3045
 1.5660	79.3728
 1.5650	79.3466
 1.5640	79.3513
 1.5630	79.2993
 1.5620	79.3348
 1.5610	79.2746
 1.5600	79.2910
 1.5590	79.3309
 1.5580	79.3253
 1.5570	79.2433
 1.5560	79.2782
 1.5550	79.2498
 1.5540	79.2609
 1.5530	79.2320
 1.5520	79.2763
 1.5510	79.2541
 1.5500	79.2227
 1.5490	79.2470
 1.5480	79.2355
 1.5470	79.1816
 1.5460	79.1690
 1.5450	79.1541
 1.5440	79.1595
 1.5430	79.1195
 1.5420	79.0807
 1.5410	79.0713
 1.5400	79.0620
 1.5390	79.0588
 1.5380	79.0319
 1.5370	79.0485
 1.5360	79.1011
 1.5350	79.1429
 1.5340	79.1449
 1.5330	79.0936
 1.5320	79.1114
 1.5310	79.1301
 1.5300	79.1036
 1.5290	79.0850
 1.5280	79.1134
 1.5270	79.1406
 1.5260	79.1585
 1.5250	79.1778
 1.5240	79.2104
 1.5230	79.2524
 1.5220	79.2514
 1.5210	79.2274
 1.5200	79.1691
 1.5190	79.1500
 1.5180	79.1893
 1.5170	79.2241
 1.5160	79.2420
 1.5150	79.1740
 1.5140	79.1103
 1.5130	79.1449
 1.5120	79.1807
 1.5110	79.0952
 1.5100	79.0655
 1.5090	79.1444
 1.5080	79.1999
 1.5070	79.1294
 1.5060	79.0706
 1.5050	79.0927
 1.5040	79.1111
 1.5030	79.0577
 1.5020	79.0209
 1.5010	79.0312
 1.5000	79.0055
 1.4990	79.0276
 1.4980	79.0657
 1.4970	79.1016
 1.4960	79.0704
 1.4950	79.0666
 1.4940	79.1632
 1.4930	79.1231
 1.4920	79.1010
 1.4910	79.1129
 1.4900	79.0798
 1.4890	79.0695
 1.4880	79.0912
 1.4870	79.1249
 1.4860	79.0838
 1.4850	79.0387
 1.4840	79.0253
 1.4830	79.0354
 1.4820	79.0104
 1.4810	78.9521
 1.4800	78.8876
 1.4790	78.8626
 1.4780	78.8587
 1.4770	78.8242
 1.4760	78.7061
 1.4750	78.6252
 1.4740	78.5464
 1.4730	78.4866
 1.4720	78.4764
 1.4710	78.4604
 1.4700	78.5060
 1.4690	78.6716
 1.4680	78.7503
 1.4670	78.8186
 1.4660	78.8791
 1.4650	78.9080
 1.4640	78.8925
 1.4630	78.9358
 1.4620	78.9394
 1.4610	78.9855
 1.4600	78.9865
 1.4590	78.9682
 1.4580	78.9874
 1.4570	78.9253
 1.4560	78.9086
 1.4550	78.9256
 1.4540	78.9188
 1.4530	78.8937
 1.4520	78.9681
 1.4510	78.9419
 1.4500	78.8460
 1.4490	78.8848
 1.4480	78.9087
 1.4470	78.9576
 1.4460	78.9016
 1.4450	78.9307
 1.4440	78.9038
 1.4430	78.9223
 1.4420	78.8774
 1.4410	78.8717
 1.4400	78.8782
 1.4390	78.8909
 1.4380	78.8248
 1.4370	78.8080
 1.4360	78.8043
 1.4350	78.8195
 1.4340	78.8455
 1.4330	78.8474
 1.4320	78.8145
 1.4310	78.8813
 1.4300	78.7759
 1.4290	78.7442
 1.4280	78.7810
 1.4270	78.7998
 1.4260	78.8117
 1.4250	78.8194
 1.4240	78.7772
 1.4230	78.6931
 1.4220	78.7186
 1.4210	78.7811
 1.4200	78.6816
 1.4190	78.6852
 1.4180	78.7032
 1.4170	78.6771
 1.4160	78.6805
 1.4150	78.7147
 1.4140	78.6586
 1.4130	78.6669
 1.4120	78.6815
 1.4110	78.6370
 1.4100	78.6659
 1.4090	78.7294
 1.4080	78.6591
 1.4070	78.6275
 1.4060	78.5984
 1.4050	78.4314
 1.4040	78.1979
 1.4030	78.0173
 1.4020	77.4333
 1.4010	76.5008
 1.4000	75.4918
 1.3990	74.2971
 1.3980	72.4606
 1.3970	68.9602
 1.3960	62.8566
 1.3950	55.1996
 1.3940	48.5178
 1.3930	46.5435
 1.3920	49.4619
 1.3910	56.6731
 1.3900	64.8363
 1.3890	71.2084
 1.3880	74.9503
 1.3870	76.7349
 1.3860	77.4038
 1.3850	77.6848
 1.3840	77.7941
 1.3830	77.8695
 1.3820	77.7977
 1.3810	77.6948
 1.3800	77.5220
 1.3790	77.3682
 1.3780	77.3025
 1.3770	77.3081
 1.3760	77.3312
 1.3750	77.6043
 1.3740	77.8230
 1.3730	78.1393
 1.3720	78.3698
 1.3710	78.4169
 1.3700	78.4791
 1.3690	78.5766
 1.3680	78.6610
 1.3670	78.6510
 1.3660	78.7010
