Name: Kernite Na_2B_4O_6(OH)_2.3H_2O
Type: Mineral
Class: Borate
Subclass: none
Particle Size: Fine
Sample No.: B-2A
Owner: JPL
Wavelength Range: VSWIR
Origin: USA, California, Kern County, Boron.
Collection Date: N/A
Description: Particle size was <45um. Collected by:  JPL Original ASTER Spectral Library name was jpl.perkin.mineral.borate.none.fine.b02a.spectrum.txt
Measurement: Hemispherical reflectance
First Column: X
Second Column: Y
X Units: Wavelength (micrometers)
Y Units:Reflectance (percent)
First X Value:  2.5000
Last X Value:  0.4000
Number of X Values: 2101
Additional Information: mineral.borate.none.fine.vswir.b-2a.jpl.perkin.ancillary.txt

 2.5000	41.0221
 2.4990	40.9571
 2.4980	41.3439
 2.4970	41.1624
 2.4960	40.9350
 2.4950	41.1731
 2.4940	41.1673
 2.4930	40.9446
 2.4920	41.3114
 2.4910	41.0273
 2.4900	41.1552
 2.4890	41.2456
 2.4880	41.2182
 2.4870	41.1545
 2.4860	41.3297
 2.4850	41.2679
 2.4840	41.2710
 2.4830	41.2382
 2.4820	41.3498
 2.4810	41.3352
 2.4800	41.4960
 2.4790	41.3500
 2.4780	41.3961
 2.4770	41.4148
 2.4760	41.5858
 2.4750	41.3685
 2.4740	41.7016
 2.4730	41.6034
 2.4720	41.6808
 2.4710	41.6486
 2.4700	41.6851
 2.4690	41.6057
 2.4680	41.7508
 2.4670	41.6963
 2.4660	41.8020
 2.4650	41.7459
 2.4640	41.8635
 2.4630	41.8180
 2.4620	41.8229
 2.4610	41.8546
 2.4600	41.9502
 2.4590	41.8772
 2.4580	41.9931
 2.4570	41.9838
 2.4560	42.0563
 2.4550	41.8687
 2.4540	42.0171
 2.4530	41.9287
 2.4520	42.0002
 2.4510	41.9419
 2.4500	42.0396
 2.4490	42.0365
 2.4480	41.9815
 2.4470	41.9504
 2.4460	42.0395
 2.4450	42.0450
 2.4440	42.1142
 2.4430	42.1184
 2.4420	42.1403
 2.4410	42.1183
 2.4400	42.0463
 2.4390	42.0643
 2.4380	42.1388
 2.4370	42.1509
 2.4360	42.1718
 2.4350	42.2458
 2.4340	42.2695
 2.4330	42.2505
 2.4320	42.2877
 2.4310	42.2759
 2.4300	42.3593
 2.4290	42.3874
 2.4280	42.5106
 2.4270	42.5043
 2.4260	42.6032
 2.4250	42.5474
 2.4240	42.6090
 2.4230	42.7529
 2.4220	42.9181
 2.4210	42.9113
 2.4200	43.0038
 2.4190	43.0909
 2.4180	43.1586
 2.4170	43.2208
 2.4160	43.2700
 2.4150	43.3090
 2.4140	43.4446
 2.4130	43.4684
 2.4120	43.6102
 2.4110	43.6197
 2.4100	43.7536
 2.4090	43.7955
 2.4080	43.9338
 2.4070	43.9619
 2.4060	44.0506
 2.4050	44.1808
 2.4040	44.2445
 2.4030	44.3021
 2.4020	44.3653
 2.4010	44.4145
 2.4000	44.6377
 2.3990	44.7393
 2.3980	44.7901
 2.3970	44.9164
 2.3960	45.0927
 2.3950	45.1538
 2.3940	45.3040
 2.3930	45.4391
 2.3920	45.5870
 2.3910	45.7449
 2.3900	45.9562
 2.3890	46.0177
 2.3880	46.2393
 2.3870	46.4234
 2.3860	46.5769
 2.3850	46.7088
 2.3840	46.8907
 2.3830	47.0781
 2.3820	47.3515
 2.3810	47.4984
 2.3800	47.7395
 2.3790	47.8977
 2.3780	48.1196
 2.3770	48.3330
 2.3760	48.5250
 2.3750	48.7291
 2.3740	48.9324
 2.3730	49.0908
 2.3720	49.2993
 2.3710	49.5233
 2.3700	49.7101
 2.3690	49.9026
 2.3680	50.0565
 2.3670	50.1705
 2.3660	50.3776
 2.3650	50.5645
 2.3640	50.7206
 2.3630	50.8916
 2.3620	51.0559
 2.3610	51.1501
 2.3600	51.2914
 2.3590	51.4652
 2.3580	51.5523
 2.3570	51.7179
 2.3560	51.8731
 2.3550	51.9699
 2.3540	52.1117
 2.3530	52.2510
 2.3520	52.3159
 2.3510	52.3841
 2.3500	52.5210
 2.3490	52.6687
 2.3480	52.7609
 2.3470	52.8835
 2.3460	52.9744
 2.3450	53.0898
 2.3440	53.2118
 2.3430	53.3092
 2.3420	53.3996
 2.3410	53.5018
 2.3400	53.6204
 2.3390	53.7487
 2.3380	53.8436
 2.3370	53.9766
 2.3360	54.0970
 2.3350	54.1667
 2.3340	54.2981
 2.3330	54.4347
 2.3320	54.4859
 2.3310	54.5893
 2.3300	54.6352
 2.3290	54.7072
 2.3280	54.8518
 2.3270	54.9709
 2.3260	55.0430
 2.3250	55.1411
 2.3240	55.2017
 2.3230	55.2757
 2.3220	55.3091
 2.3210	55.3939
 2.3200	55.4085
 2.3190	55.4656
 2.3180	55.5060
 2.3170	55.5529
 2.3160	55.5735
 2.3150	55.6081
 2.3140	55.5979
 2.3130	55.5747
 2.3120	55.5685
 2.3110	55.6274
 2.3100	55.6121
 2.3090	55.5832
 2.3080	55.5821
 2.3070	55.5321
 2.3060	55.4445
 2.3050	55.4330
 2.3040	55.3858
 2.3030	55.3204
 2.3020	55.2888
 2.3010	55.2388
 2.3000	55.1946
 2.2990	55.1076
 2.2980	54.9722
 2.2970	54.9615
 2.2960	54.8278
 2.2950	54.6829
 2.2940	54.5982
 2.2930	54.5559
 2.2920	54.4457
 2.2910	54.3487
 2.2900	54.1569
 2.2890	54.0990
 2.2880	53.9839
 2.2870	53.8808
 2.2860	53.7380
 2.2850	53.6879
 2.2840	53.5363
 2.2830	53.4133
 2.2820	53.3591
 2.2810	53.2987
 2.2800	53.1573
 2.2790	53.1156
 2.2780	53.0585
 2.2770	52.9859
 2.2760	52.9898
 2.2750	52.9138
 2.2740	52.8266
 2.2730	52.7512
 2.2720	52.7252
 2.2710	52.6598
 2.2700	52.6692
 2.2690	52.6215
 2.2680	52.5862
 2.2670	52.5889
 2.2660	52.4592
 2.2650	52.4700
 2.2640	52.3604
 2.2630	52.4155
 2.2620	52.2966
 2.2610	52.2188
 2.2600	52.2129
 2.2590	52.1873
 2.2580	52.1372
 2.2570	52.1003
 2.2560	52.0647
 2.2550	52.0712
 2.2540	51.9369
 2.2530	51.9495
 2.2520	51.8959
 2.2510	51.8908
 2.2500	51.7580
 2.2490	51.8945
 2.2480	51.7688
 2.2470	51.7298
 2.2460	51.6646
 2.2450	51.6690
 2.2440	51.5261
 2.2430	51.5431
 2.2420	51.4315
 2.2410	51.3470
 2.2400	51.1738
 2.2390	51.0900
 2.2380	50.9889
 2.2370	50.8865
 2.2360	50.6978
 2.2350	50.5461
 2.2340	50.4440
 2.2330	50.2825
 2.2320	50.0323
 2.2310	49.9467
 2.2300	49.7054
 2.2290	49.6114
 2.2280	49.4088
 2.2270	49.3377
 2.2260	49.1133
 2.2250	48.9525
 2.2240	48.7648
 2.2230	48.6389
 2.2220	48.5020
 2.2210	48.3760
 2.2200	48.1742
 2.2190	47.9557
 2.2180	47.7291
 2.2170	47.6163
 2.2160	47.3908
 2.2150	47.1468
 2.2140	46.9053
 2.2130	46.7462
 2.2120	46.5240
 2.2110	46.1884
 2.2100	46.0453
 2.2090	45.6904
 2.2080	45.4388
 2.2070	45.1580
 2.2060	44.8597
 2.2050	44.5883
 2.2040	44.2128
 2.2030	43.8819
 2.2020	43.4455
 2.2010	43.1413
 2.2000	42.7085
 2.1990	42.3739
 2.1980	41.8454
 2.1970	41.4713
 2.1960	40.9941
 2.1950	40.7294
 2.1940	40.3183
 2.1930	40.1286
 2.1920	39.8035
 2.1910	39.6144
 2.1900	39.5090
 2.1890	39.5160
 2.1880	39.5172
 2.1870	39.6712
 2.1860	39.8616
 2.1850	40.1772
 2.1840	40.4699
 2.1830	40.9149
 2.1820	41.3149
 2.1810	41.9033
 2.1800	42.3789
 2.1790	42.9598
 2.1780	43.5097
 2.1770	44.0627
 2.1760	44.6398
 2.1750	45.1806
 2.1740	45.6755
 2.1730	46.2600
 2.1720	46.6436
 2.1710	47.1400
 2.1700	47.5306
 2.1690	47.9023
 2.1680	48.1867
 2.1670	48.5451
 2.1660	48.7778
 2.1650	48.9992
 2.1640	49.2197
 2.1630	49.4033
 2.1620	49.5437
 2.1610	49.7446
 2.1600	49.8794
 2.1590	50.0257
 2.1580	50.0712
 2.1570	50.2526
 2.1560	50.3262
 2.1550	50.4951
 2.1540	50.5258
 2.1530	50.6361
 2.1520	50.6103
 2.1510	50.7426
 2.1500	50.8223
 2.1490	50.9420
 2.1480	50.9523
 2.1470	51.0632
 2.1460	51.0950
 2.1450	51.1743
 2.1440	51.1916
 2.1430	51.3201
 2.1420	51.2622
 2.1410	51.2950
 2.1400	51.3404
 2.1390	51.4567
 2.1380	51.4396
 2.1370	51.4328
 2.1360	51.4752
 2.1350	51.5831
 2.1340	51.5765
 2.1330	51.6132
 2.1320	51.6130
 2.1310	51.6279
 2.1300	51.6010
 2.1290	51.6249
 2.1280	51.6289
 2.1270	51.7087
 2.1260	51.6597
 2.1250	51.6348
 2.1240	51.6555
 2.1230	51.6974
 2.1220	51.5797
 2.1210	51.5410
 2.1200	51.5349
 2.1190	51.4939
 2.1180	51.4692
 2.1170	51.4798
 2.1160	51.3651
 2.1150	51.3244
 2.1140	51.2446
 2.1130	51.2262
 2.1120	51.1583
 2.1110	51.0863
 2.1100	51.0271
 2.1090	50.9616
 2.1080	50.8968
 2.1070	50.8449
 2.1060	50.7375
 2.1050	50.6855
 2.1040	50.6061
 2.1030	50.5211
 2.1020	50.4220
 2.1010	50.3798
 2.1000	50.2577
 2.0990	50.1753
 2.0980	50.1619
 2.0970	50.1448
 2.0960	50.0661
 2.0950	49.9843
 2.0940	49.9446
 2.0930	49.9809
 2.0920	49.8855
 2.0910	49.7907
 2.0900	49.7277
 2.0890	49.6551
 2.0880	49.6031
 2.0870	49.5312
 2.0860	49.4415
 2.0850	49.4010
 2.0840	49.3467
 2.0830	49.2633
 2.0820	49.1881
 2.0810	49.1067
 2.0800	49.0034
 2.0790	48.9629
 2.0780	48.8733
 2.0770	48.7894
 2.0760	48.7233
 2.0750	48.6146
 2.0740	48.5291
 2.0730	48.4596
 2.0720	48.3946
 2.0710	48.2922
 2.0700	48.1814
 2.0690	48.0587
 2.0680	47.9135
 2.0670	47.7999
 2.0660	47.6965
 2.0650	47.5751
 2.0640	47.4310
 2.0630	47.2449
 2.0620	47.0552
 2.0610	46.9037
 2.0600	46.7101
 2.0590	46.5200
 2.0580	46.3311
 2.0570	46.0152
 2.0560	45.8099
 2.0550	45.6867
 2.0540	45.4802
 2.0530	45.2960
 2.0520	45.1744
 2.0510	45.0747
 2.0500	45.0315
 2.0490	45.0007
 2.0480	45.0315
 2.0470	45.0116
 2.0460	45.0052
 2.0450	45.0594
 2.0440	45.1002
 2.0430	45.1221
 2.0420	45.1285
 2.0410	45.0718
 2.0400	45.0620
 2.0390	45.0221
 2.0380	45.0297
 2.0370	45.0243
 2.0360	45.0224
 2.0350	44.9736
 2.0340	44.9741
 2.0330	44.8903
 2.0320	44.8690
 2.0310	44.8378
 2.0300	44.8367
 2.0290	44.8276
 2.0280	44.8718
 2.0270	44.7703
 2.0260	44.7715
 2.0250	44.7445
 2.0240	44.7524
 2.0230	44.7179
 2.0220	44.6575
 2.0210	44.5364
 2.0200	44.4738
 2.0190	44.3323
 2.0180	44.3029
 2.0170	44.1696
 2.0160	44.0736
 2.0150	43.9619
 2.0140	43.9258
 2.0130	43.7707
 2.0120	43.6781
 2.0110	43.5540
 2.0100	43.4904
 2.0090	43.4166
 2.0080	43.4016
 2.0070	43.2819
 2.0060	43.2617
 2.0050	43.1340
 2.0040	43.1189
 2.0030	43.0544
 2.0020	42.9961
 2.0010	42.9621
 2.0000	42.9569
 1.9990	42.8506
 1.9980	42.8142
 1.9970	42.6897
 1.9960	42.6908
 1.9950	42.5582
 1.9940	42.5885
 1.9930	42.5023
 1.9920	42.5108
 1.9910	42.3941
 1.9900	42.4378
 1.9890	42.3861
 1.9880	42.3939
 1.9870	42.2658
 1.9860	42.3429
 1.9850	42.2934
 1.9840	42.3679
 1.9830	42.2816
 1.9820	42.3536
 1.9810	42.2565
 1.9800	42.2459
 1.9790	42.2242
 1.9780	42.2973
 1.9770	42.2147
 1.9760	42.3596
 1.9750	42.2231
 1.9740	42.2876
 1.9730	42.3236
 1.9720	42.3161
 1.9710	42.3742
 1.9700	42.4792
 1.9690	42.5556
 1.9680	42.6306
 1.9670	42.6144
 1.9660	42.7939
 1.9650	42.8575
 1.9640	42.9634
 1.9630	43.0805
 1.9620	43.2565
 1.9610	43.4029
 1.9600	43.6204
 1.9590	43.7439
 1.9580	43.9834
 1.9570	44.0990
 1.9560	44.3433
 1.9550	44.4818
 1.9540	44.8262
 1.9530	45.0607
 1.9520	45.3108
 1.9510	45.5030
 1.9500	45.8295
 1.9490	45.9814
 1.9480	46.3409
 1.9470	46.5384
 1.9460	46.8828
 1.9450	47.1574
 1.9440	47.4211
 1.9430	47.6270
 1.9420	48.0163
 1.9410	48.2203
 1.9400	48.6046
 1.9390	48.8299
 1.9380	49.1249
 1.9370	49.4106
 1.9360	49.7039
 1.9350	49.8478
 1.9340	50.2901
 1.9330	50.5408
 1.9320	50.8516
 1.9310	51.0524
 1.9300	51.4499
 1.9290	51.6799
 1.9280	51.9697
 1.9270	52.2569
 1.9260	52.4612
 1.9250	52.7942
 1.9240	53.0922
 1.9230	53.3080
 1.9220	53.6017
 1.9210	53.7777
 1.9200	54.0971
 1.9190	54.3225
 1.9180	54.6677
 1.9170	54.8895
 1.9160	55.1897
 1.9150	55.4289
 1.9140	55.7367
 1.9130	55.9412
 1.9120	56.2115
 1.9110	56.4764
 1.9100	56.7701
 1.9090	57.0490
 1.9080	57.2680
 1.9070	57.4750
 1.9060	57.7892
 1.9050	57.9623
 1.9040	58.3976
 1.9030	58.5502
 1.9020	58.9850
 1.9010	59.1912
 1.9000	59.4843
 1.8990	59.6774
 1.8980	60.1271
 1.8970	60.2904
 1.8960	60.6332
 1.8950	60.8818
 1.8940	61.2019
 1.8930	61.3813
 1.8920	61.6843
 1.8910	61.9427
 1.8900	62.2340
 1.8890	62.4565
 1.8880	62.7187
 1.8870	62.9173
 1.8860	63.1147
 1.8850	63.3144
 1.8840	63.5182
 1.8830	63.6490
 1.8820	63.8282
 1.8810	63.9512
 1.8800	64.1603
 1.8790	64.2599
 1.8780	64.4576
 1.8770	64.5470
 1.8760	64.7085
 1.8750	64.7562
 1.8740	65.0075
 1.8730	65.0715
 1.8720	65.1539
 1.8710	65.2357
 1.8700	65.3771
 1.8690	65.4710
 1.8680	65.5330
 1.8670	65.6142
 1.8660	65.7311
 1.8650	65.7807
 1.8640	65.8141
 1.8630	65.8702
 1.8620	65.8891
 1.8610	65.9451
 1.8600	65.9944
 1.8590	66.0048
 1.8580	66.0914
 1.8570	66.0896
 1.8560	66.1762
 1.8550	66.1481
 1.8540	66.2405
 1.8530	66.2027
 1.8520	66.2806
 1.8510	66.2716
 1.8500	66.3264
 1.8490	66.2272
 1.8480	66.2502
 1.8470	66.2652
 1.8460	66.2953
 1.8450	66.2482
 1.8440	66.3255
 1.8430	66.2694
 1.8420	66.2943
 1.8410	66.3021
 1.8400	66.2698
 1.8390	66.2522
 1.8380	66.2480
 1.8370	66.2427
 1.8360	66.2181
 1.8350	66.1856
 1.8340	66.1841
 1.8330	66.1977
 1.8320	66.1595
 1.8310	66.0999
 1.8300	66.0744
 1.8290	66.0681
 1.8280	66.0795
 1.8270	65.9967
 1.8260	65.9738
 1.8250	65.9174
 1.8240	65.9476
 1.8230	65.9042
 1.8220	65.8461
 1.8210	65.8116
 1.8200	65.7810
 1.8190	65.7192
 1.8180	65.7029
 1.8170	65.6900
 1.8160	65.7167
 1.8150	65.6580
 1.8140	65.6203
 1.8130	65.5416
 1.8120	65.4981
 1.8110	65.4530
 1.8100	65.4752
 1.8090	65.4344
 1.8080	65.3536
 1.8070	65.3391
 1.8060	65.3172
 1.8050	65.2509
 1.8040	65.2257
 1.8030	65.1732
 1.8020	65.1983
 1.8010	65.1582
 1.8000	65.1425
 1.7990	65.0902
 1.7980	65.0296
 1.7970	65.0229
 1.7960	64.9741
 1.7950	64.9101
 1.7940	64.9050
 1.7930	64.9014
 1.7920	64.8676
 1.7910	64.8989
 1.7900	64.9273
 1.7890	64.8623
 1.7880	64.8453
 1.7870	64.8491
 1.7860	64.8226
 1.7850	64.8681
 1.7840	64.9310
 1.7830	64.9323
 1.7820	64.9563
 1.7810	65.0104
 1.7800	65.0642
 1.7790	65.0953
 1.7780	65.1109
 1.7770	65.1513
 1.7760	65.1999
 1.7750	65.2638
 1.7740	65.3321
 1.7730	65.4248
 1.7720	65.4106
 1.7710	65.4132
 1.7700	65.4755
 1.7690	65.5439
 1.7680	65.6206
 1.7670	65.6627
 1.7660	65.6804
 1.7650	65.7132
 1.7640	65.7777
 1.7630	65.8116
 1.7620	65.8327
 1.7610	65.8615
 1.7600	65.9077
 1.7590	65.9820
 1.7580	66.0467
 1.7570	66.0645
 1.7560	66.0972
 1.7550	66.2099
 1.7540	66.2001
 1.7530	66.2236
 1.7520	66.2460
 1.7510	66.2886
 1.7500	66.2913
 1.7490	66.3535
 1.7480	66.3281
 1.7470	66.3861
 1.7460	66.4262
 1.7450	66.4711
 1.7440	66.4990
 1.7430	66.5386
 1.7420	66.6242
 1.7410	66.6838
 1.7400	66.6141
 1.7390	66.6363
 1.7380	66.7201
 1.7370	66.7536
 1.7360	66.7628
 1.7350	66.8270
 1.7340	66.8554
 1.7330	66.8620
 1.7320	66.8962
 1.7310	66.9557
 1.7300	66.9820
 1.7290	67.0391
 1.7280	67.0128
 1.7270	67.0699
 1.7260	67.1519
 1.7250	67.2204
 1.7240	67.2391
 1.7230	67.3047
 1.7220	67.2680
 1.7210	67.2711
 1.7200	67.3124
 1.7190	67.3606
 1.7180	67.4191
 1.7170	67.4244
 1.7160	67.4435
 1.7150	67.5206
 1.7140	67.5218
 1.7130	67.5456
 1.7120	67.5918
 1.7110	67.6281
 1.7100	67.5970
 1.7090	67.6441
 1.7080	67.6674
 1.7070	67.6959
 1.7060	67.7070
 1.7050	67.7436
 1.7040	67.7559
 1.7030	67.7778
 1.7020	67.6906
 1.7010	67.7785
 1.7000	67.8476
 1.6990	67.8508
 1.6980	67.8615
 1.6970	67.8811
 1.6960	67.8054
 1.6950	67.8901
 1.6940	67.8384
 1.6930	67.8888
 1.6920	67.9353
 1.6910	67.9563
 1.6900	67.8874
 1.6890	67.9329
 1.6880	67.9404
 1.6870	67.9897
 1.6860	67.9258
 1.6850	68.0245
 1.6840	68.0741
 1.6830	67.9889
 1.6820	67.9855
 1.6810	68.0469
 1.6800	67.9941
 1.6790	68.0994
 1.6780	67.9919
 1.6770	68.0596
 1.6760	67.9918
 1.6750	68.0558
 1.6740	68.0201
 1.6730	68.0150
 1.6720	68.0411
 1.6710	67.9932
 1.6700	67.9744
 1.6690	68.0163
 1.6680	67.9405
 1.6670	67.9879
 1.6660	67.9246
 1.6650	67.9437
 1.6640	67.8836
 1.6630	67.9216
 1.6620	67.8975
 1.6610	67.8624
 1.6600	67.8661
 1.6590	67.8617
 1.6580	67.7515
 1.6570	67.7911
 1.6560	67.7429
 1.6550	67.8064
 1.6540	67.7489
 1.6530	67.6425
 1.6520	67.6795
 1.6510	67.6867
 1.6500	67.5355
 1.6490	67.6360
 1.6480	67.4838
 1.6470	67.5975
 1.6460	67.5036
 1.6450	67.5045
 1.6440	67.3966
 1.6430	67.4218
 1.6420	67.3244
 1.6410	67.2623
 1.6400	67.2543
 1.6390	67.2795
 1.6380	67.1745
 1.6370	67.1960
 1.6360	67.0727
 1.6350	67.0883
 1.6340	67.0292
 1.6330	67.0249
 1.6320	66.9331
 1.6310	66.9233
 1.6300	66.8386
 1.6290	66.8535
 1.6280	66.7970
 1.6270	66.7215
 1.6260	66.6814
 1.6250	66.6884
 1.6240	66.5645
 1.6230	66.6172
 1.6220	66.4844
 1.6210	66.4516
 1.6200	66.3761
 1.6190	66.3930
 1.6180	66.3752
 1.6170	66.3310
 1.6160	66.2423
 1.6150	66.2108
 1.6140	66.1717
 1.6130	66.1078
 1.6120	66.0572
 1.6110	66.0638
 1.6100	65.9197
 1.6090	66.0131
 1.6080	65.8808
 1.6070	65.8961
 1.6060	65.7751
 1.6050	65.8307
 1.6040	65.7161
 1.6030	65.7588
 1.6020	65.6562
 1.6010	65.6639
 1.6000	65.5776
 1.5990	65.5745
 1.5980	65.4909
 1.5970	65.5200
 1.5960	65.5037
 1.5950	65.4570
 1.5940	65.3097
 1.5930	65.3446
 1.5920	65.3140
 1.5910	65.3211
 1.5900	65.2093
 1.5890	65.2522
 1.5880	65.2112
 1.5870	65.0865
 1.5860	65.0740
 1.5850	65.0733
 1.5840	65.0334
 1.5830	65.0204
 1.5820	64.9562
 1.5810	64.9817
 1.5800	64.8981
 1.5790	64.8339
 1.5780	64.8692
 1.5770	64.8455
 1.5760	64.8660
 1.5750	64.8462
 1.5740	64.7874
 1.5730	64.7939
 1.5720	64.7733
 1.5710	64.8037
 1.5700	64.7556
 1.5690	64.7893
 1.5680	64.7382
 1.5670	64.7707
 1.5660	64.7945
 1.5650	64.7560
 1.5640	64.6979
 1.5630	64.7288
 1.5620	64.7449
 1.5610	64.6950
 1.5600	64.6913
 1.5590	64.6709
 1.5580	64.6544
 1.5570	64.6696
 1.5560	64.6903
 1.5550	64.7408
 1.5540	64.7207
 1.5530	64.6845
 1.5520	64.6641
 1.5510	64.7088
 1.5500	64.6401
 1.5490	64.6506
 1.5480	64.7244
 1.5470	64.7181
 1.5460	64.6532
 1.5450	64.6916
 1.5440	64.7233
 1.5430	64.7805
 1.5420	64.7828
 1.5410	64.7758
 1.5400	64.7636
 1.5390	64.8494
 1.5380	64.8864
 1.5370	64.8501
 1.5360	64.8315
 1.5350	64.8569
 1.5340	64.8609
 1.5330	64.8239
 1.5320	64.7596
 1.5310	64.7853
 1.5300	64.7778
 1.5290	64.7410
 1.5280	64.6604
 1.5270	64.6323
 1.5260	64.5817
 1.5250	64.5151
 1.5240	64.4903
 1.5230	64.4478
 1.5220	64.4165
 1.5210	64.3244
 1.5200	64.2464
 1.5190	64.1929
 1.5180	64.0940
 1.5170	64.0481
 1.5160	64.0290
 1.5150	63.9827
 1.5140	63.8912
 1.5130	63.8124
 1.5120	63.7100
 1.5110	63.7062
 1.5100	63.6799
 1.5090	63.6147
 1.5080	63.5887
 1.5070	63.5238
 1.5060	63.5119
 1.5050	63.4927
 1.5040	63.4366
 1.5030	63.4356
 1.5020	63.4027
 1.5010	63.3912
 1.5000	63.3741
 1.4990	63.3160
 1.4980	63.3086
 1.4970	63.3358
 1.4960	63.3726
 1.4950	63.3643
 1.4940	63.3679
 1.4930	63.3881
 1.4920	63.4390
 1.4910	63.4465
 1.4900	63.4893
 1.4890	63.5850
 1.4880	63.6581
 1.4870	63.6655
 1.4860	63.7081
 1.4850	63.7814
 1.4840	63.8650
 1.4830	63.8825
 1.4820	63.9283
 1.4810	64.0328
 1.4800	64.1273
 1.4790	64.2154
 1.4780	64.3066
 1.4770	64.4151
 1.4760	64.5264
 1.4750	64.6534
 1.4740	64.8421
 1.4730	65.0417
 1.4720	65.1675
 1.4710	65.2525
 1.4700	65.3591
 1.4690	65.4651
 1.4680	65.6398
 1.4670	65.7117
 1.4660	65.8087
 1.4650	65.8847
 1.4640	65.9462
 1.4630	65.9502
 1.4620	66.0164
 1.4610	65.9872
 1.4600	66.0490
 1.4590	66.0419
 1.4580	65.9802
 1.4570	65.9060
 1.4560	65.8431
 1.4550	65.6494
 1.4540	65.4409
 1.4530	65.1246
 1.4520	64.7304
 1.4510	64.1556
 1.4500	63.5554
 1.4490	62.9134
 1.4480	62.2660
 1.4470	61.6894
 1.4460	61.1863
 1.4450	60.7129
 1.4440	60.4661
 1.4430	60.3147
 1.4420	60.2820
 1.4410	60.3709
 1.4400	60.5562
 1.4390	60.7790
 1.4380	61.2261
 1.4370	61.7324
 1.4360	62.3515
 1.4350	62.9702
 1.4340	63.6929
 1.4330	64.4380
 1.4320	65.2972
 1.4310	66.1266
 1.4300	66.9654
 1.4290	67.7689
 1.4280	68.5410
 1.4270	69.3047
 1.4260	70.0777
 1.4250	70.8236
 1.4240	71.5293
 1.4230	72.2201
 1.4220	72.8594
 1.4210	73.4740
 1.4200	74.1326
 1.4190	74.6363
 1.4180	75.1809
 1.4170	75.7005
 1.4160	76.1864
 1.4150	76.5040
 1.4140	76.8677
 1.4130	77.1127
 1.4120	77.3931
 1.4110	77.5161
 1.4100	77.7066
 1.4090	77.9124
 1.4080	78.2668
 1.4070	78.4550
 1.4060	78.8950
 1.4050	79.2376
 1.4040	79.5581
 1.4030	79.8724
 1.4020	80.0145
 1.4010	80.2062
 1.4000	80.4586
 1.3990	80.6145
 1.3980	80.7331
 1.3970	80.8779
 1.3960	81.1193
 1.3950	81.2187
 1.3940	81.2803
 1.3930	81.4482
 1.3920	81.5471
 1.3910	81.6167
 1.3900	81.7321
 1.3890	81.7404
 1.3880	81.9110
 1.3870	81.9287
 1.3860	82.0032
 1.3850	81.9945
 1.3840	82.1054
 1.3830	82.0890
 1.3820	82.0888
 1.3810	82.1496
 1.3800	82.2146
 1.3790	82.3156
 1.3780	82.3007
 1.3770	82.3625
 1.3760	82.5069
 1.3750	82.4050
 1.3740	82.5571
 1.3730	82.5586
 1.3720	82.4611
 1.3710	82.5059
 1.3700	82.6415
 1.3690	82.6639
 1.3680	82.7804
 1.3670	82.7684
 1.3660	82.7641
 1.3650	82.9032
