Name: Epidote Ca_2(Al,Fe^3+)_3O.SiO_4.Si_2O_7.OH
Type: Mineral
Class: Silicate
Subclass: Sorosilicate
Particle Size: Coarse
Sample No.: SS-1A
Owner: JPL
Wavelength Range: VSWIR
Origin: Mexico, Baja California Norte, Valle De La Trinidad.
Collection Date: N/A
Description: Particle size was 125-500um. Collected b:  Burminco Original ASTER Spectral Library name was jpl.perkin.mineral.silicate.sorosilicate.coarse.ss01a.spectrum.txt
Measurement: Hemispherical reflectance
First Column: X
Second Column: Y
X Units: Wavelength (micrometers)
Y Units:Reflectance (percent)
First X Value:  2.5000
Last X Value:  0.4000
Number of X Values: 2101
Additional Information: mineral.silicate.sorosilicate.coarse.vswir.ss-1a.jpl.perkin.ancillary.txt

 2.5000	40.0761
 2.4990	39.8488
 2.4980	40.3537
 2.4970	40.2770
 2.4960	40.2567
 2.4950	40.5448
 2.4940	40.6554
 2.4930	40.4034
 2.4920	40.8189
 2.4910	40.8065
 2.4900	41.2264
 2.4890	41.1777
 2.4880	41.4199
 2.4870	41.4817
 2.4860	41.6657
 2.4850	41.8417
 2.4840	42.0407
 2.4830	42.0218
 2.4820	42.2476
 2.4810	42.2492
 2.4800	42.5095
 2.4790	42.4523
 2.4780	42.8542
 2.4770	42.7776
 2.4760	42.8717
 2.4750	43.0469
 2.4740	43.0694
 2.4730	43.1021
 2.4720	43.4149
 2.4710	43.2902
 2.4700	43.5938
 2.4690	43.5360
 2.4680	43.9181
 2.4670	43.8004
 2.4660	43.9929
 2.4650	44.0613
 2.4640	44.1728
 2.4630	44.1719
 2.4620	44.2537
 2.4610	44.4207
 2.4600	44.6075
 2.4590	44.5424
 2.4580	44.6968
 2.4570	44.6734
 2.4560	44.9065
 2.4550	44.8979
 2.4540	45.1788
 2.4530	45.1018
 2.4520	45.2592
 2.4510	45.3729
 2.4500	45.5115
 2.4490	45.4904
 2.4480	45.6237
 2.4470	45.6866
 2.4460	45.8389
 2.4450	45.7863
 2.4440	45.9178
 2.4430	45.9379
 2.4420	45.9999
 2.4410	45.9604
 2.4400	46.1606
 2.4390	46.0996
 2.4380	46.2336
 2.4370	46.2469
 2.4360	46.3334
 2.4350	46.3313
 2.4340	46.4508
 2.4330	46.3497
 2.4320	46.4352
 2.4310	46.4571
 2.4300	46.4421
 2.4290	46.3805
 2.4280	46.4575
 2.4270	46.3897
 2.4260	46.3949
 2.4250	46.3245
 2.4240	46.3627
 2.4230	46.2151
 2.4220	46.2194
 2.4210	46.1913
 2.4200	46.1392
 2.4190	46.0772
 2.4180	46.0538
 2.4170	45.9579
 2.4160	45.9005
 2.4150	45.6952
 2.4140	45.6254
 2.4130	45.4684
 2.4120	45.3928
 2.4110	45.2325
 2.4100	45.1713
 2.4090	44.9420
 2.4080	44.8370
 2.4070	44.6756
 2.4060	44.5390
 2.4050	44.3136
 2.4040	44.2150
 2.4030	43.9396
 2.4020	43.7615
 2.4010	43.5643
 2.4000	43.4202
 2.3990	43.0857
 2.3980	42.8845
 2.3970	42.6771
 2.3960	42.3691
 2.3950	42.0620
 2.3940	41.7940
 2.3930	41.4610
 2.3920	41.2345
 2.3910	40.8226
 2.3900	40.5186
 2.3890	40.1464
 2.3880	39.7486
 2.3870	39.3862
 2.3860	39.0226
 2.3850	38.5353
 2.3840	38.0304
 2.3830	37.6073
 2.3820	37.1606
 2.3810	36.5790
 2.3800	36.1025
 2.3790	35.5873
 2.3780	35.0366
 2.3770	34.4490
 2.3760	33.8473
 2.3750	33.1580
 2.3740	32.4541
 2.3730	31.7321
 2.3720	31.0694
 2.3710	30.3328
 2.3700	29.5498
 2.3690	28.7161
 2.3680	27.9078
 2.3670	27.0509
 2.3660	26.2596
 2.3650	25.4539
 2.3640	24.5352
 2.3630	23.6179
 2.3620	22.7625
 2.3610	21.8586
 2.3600	21.0341
 2.3590	20.2175
 2.3580	19.3404
 2.3570	18.5622
 2.3560	17.7809
 2.3550	16.9911
 2.3540	16.3057
 2.3530	15.6480
 2.3520	15.0458
 2.3510	14.4846
 2.3500	13.8904
 2.3490	13.3594
 2.3480	12.8797
 2.3470	12.4935
 2.3460	12.1314
 2.3450	11.8092
 2.3440	11.5305
 2.3430	11.3087
 2.3420	11.0759
 2.3410	10.9592
 2.3400	10.8245
 2.3390	10.7227
 2.3380	10.6579
 2.3370	10.6389
 2.3360	10.6146
 2.3350	10.6960
 2.3340	10.7314
 2.3330	10.8297
 2.3320	10.9252
 2.3310	11.0700
 2.3300	11.2676
 2.3290	11.5081
 2.3280	11.6592
 2.3270	11.8638
 2.3260	12.1097
 2.3250	12.3747
 2.3240	12.6631
 2.3230	13.0124
 2.3220	13.2807
 2.3210	13.6449
 2.3200	13.9568
 2.3190	14.3488
 2.3180	14.7246
 2.3170	15.1694
 2.3160	15.6251
 2.3150	16.0599
 2.3140	16.4646
 2.3130	16.9968
 2.3120	17.4170
 2.3110	17.9718
 2.3100	18.4320
 2.3090	18.9727
 2.3080	19.3945
 2.3070	19.8940
 2.3060	20.3773
 2.3050	20.9299
 2.3040	21.3289
 2.3030	21.8355
 2.3020	22.3349
 2.3010	22.8086
 2.3000	23.2425
 2.2990	23.8023
 2.2980	24.2004
 2.2970	24.7121
 2.2960	25.0640
 2.2950	25.5304
 2.2940	25.9247
 2.2930	26.3253
 2.2920	26.7022
 2.2910	27.2832
 2.2900	27.6457
 2.2890	28.0340
 2.2880	28.3669
 2.2870	28.7565
 2.2860	29.0770
 2.2850	29.4505
 2.2840	29.8129
 2.2830	30.1261
 2.2820	30.3169
 2.2810	30.6570
 2.2800	30.8295
 2.2790	31.0959
 2.2780	31.1944
 2.2770	31.3379
 2.2760	31.4373
 2.2750	31.5458
 2.2740	31.4561
 2.2730	31.4818
 2.2720	31.4146
 2.2710	31.3792
 2.2700	31.2005
 2.2690	31.1169
 2.2680	30.8141
 2.2670	30.6113
 2.2660	30.2886
 2.2650	29.9751
 2.2640	29.6429
 2.2630	29.3831
 2.2620	28.9559
 2.2610	28.6391
 2.2600	28.2567
 2.2590	27.9408
 2.2580	27.6241
 2.2570	27.5061
 2.2560	27.2700
 2.2550	27.2269
 2.2540	27.1464
 2.2530	27.2301
 2.2520	27.2841
 2.2510	27.5656
 2.2500	27.7951
 2.2490	28.2010
 2.2480	28.6086
 2.2470	29.2420
 2.2460	29.8771
 2.2450	30.5624
 2.2440	31.2422
 2.2430	32.0895
 2.2420	32.8137
 2.2410	33.8016
 2.2400	34.5542
 2.2390	35.5675
 2.2380	36.3266
 2.2370	37.3072
 2.2360	38.0532
 2.2350	38.9748
 2.2340	39.6996
 2.2330	40.5653
 2.2320	41.2209
 2.2310	41.8886
 2.2300	42.4924
 2.2290	43.2398
 2.2280	43.6980
 2.2270	44.2683
 2.2260	44.7265
 2.2250	45.1692
 2.2240	45.5918
 2.2230	46.0534
 2.2220	46.2837
 2.2210	46.7925
 2.2200	46.9354
 2.2190	47.3121
 2.2180	47.5149
 2.2170	47.8043
 2.2160	48.0816
 2.2150	48.3121
 2.2140	48.4645
 2.2130	48.7649
 2.2120	48.9504
 2.2110	49.0383
 2.2100	49.2985
 2.2090	49.5104
 2.2080	49.5664
 2.2070	49.7702
 2.2060	49.9383
 2.2050	50.0492
 2.2040	50.1939
 2.2030	50.3634
 2.2020	50.3785
 2.2010	50.5967
 2.2000	50.6489
 2.1990	50.7949
 2.1980	50.8361
 2.1970	51.0271
 2.1960	51.0039
 2.1950	51.2053
 2.1940	51.2550
 2.1930	51.3404
 2.1920	51.3618
 2.1910	51.4551
 2.1900	51.5586
 2.1890	51.7071
 2.1880	51.7837
 2.1870	51.8674
 2.1860	51.8826
 2.1850	52.0237
 2.1840	52.0775
 2.1830	52.2229
 2.1820	52.3232
 2.1810	52.4253
 2.1800	52.4964
 2.1790	52.5717
 2.1780	52.6372
 2.1770	52.7967
 2.1760	52.8751
 2.1750	53.0095
 2.1740	52.9994
 2.1730	53.1433
 2.1720	53.1635
 2.1710	53.3197
 2.1700	53.3555
 2.1690	53.4623
 2.1680	53.5349
 2.1670	53.6278
 2.1660	53.6699
 2.1650	53.8218
 2.1640	53.8344
 2.1630	53.9976
 2.1620	53.9551
 2.1610	54.0596
 2.1600	54.1604
 2.1590	54.2195
 2.1580	54.1968
 2.1570	54.2606
 2.1560	54.2363
 2.1550	54.2801
 2.1540	54.4083
 2.1530	54.4091
 2.1520	54.4566
 2.1510	54.4794
 2.1500	54.4676
 2.1490	54.5355
 2.1480	54.5151
 2.1470	54.5691
 2.1460	54.5514
 2.1450	54.5382
 2.1440	54.5783
 2.1430	54.6061
 2.1420	54.5397
 2.1410	54.5639
 2.1400	54.5459
 2.1390	54.5880
 2.1380	54.6107
 2.1370	54.5657
 2.1360	54.5450
 2.1350	54.5430
 2.1340	54.5325
 2.1330	54.5646
 2.1320	54.5278
 2.1310	54.4890
 2.1300	54.4952
 2.1290	54.4979
 2.1280	54.4180
 2.1270	54.4320
 2.1260	54.4000
 2.1250	54.3684
 2.1240	54.3406
 2.1230	54.3723
 2.1220	54.2695
 2.1210	54.2492
 2.1200	54.2800
 2.1190	54.3477
 2.1180	54.2720
 2.1170	54.2454
 2.1160	54.2029
 2.1150	54.1725
 2.1140	54.1034
 2.1130	54.1224
 2.1120	54.1191
 2.1110	54.0663
 2.1100	54.0345
 2.1090	54.0230
 2.1080	53.9934
 2.1070	54.0212
 2.1060	54.0314
 2.1050	54.0188
 2.1040	53.9704
 2.1030	53.9130
 2.1020	53.8539
 2.1010	53.8912
 2.1000	53.8987
 2.0990	53.9127
 2.0980	53.9325
 2.0970	53.8807
 2.0960	53.8684
 2.0950	53.9008
 2.0940	53.8466
 2.0930	53.8744
 2.0920	53.8734
 2.0910	53.8620
 2.0900	53.8571
 2.0890	53.9035
 2.0880	53.9102
 2.0870	53.8824
 2.0860	53.8661
 2.0850	53.8402
 2.0840	53.8444
 2.0830	53.8934
 2.0820	53.8662
 2.0810	53.8509
 2.0800	53.8525
 2.0790	53.8409
 2.0780	53.8335
 2.0770	53.8281
 2.0760	53.7639
 2.0750	53.7605
 2.0740	53.8271
 2.0730	53.7834
 2.0720	53.7384
 2.0710	53.6876
 2.0700	53.6921
 2.0690	53.7157
 2.0680	53.7023
 2.0670	53.6886
 2.0660	53.7029
 2.0650	53.6672
 2.0640	53.5934
 2.0630	53.5827
 2.0620	53.6050
 2.0610	53.5771
 2.0600	53.5709
 2.0590	53.5799
 2.0580	53.5829
 2.0570	53.5296
 2.0560	53.5085
 2.0550	53.5143
 2.0540	53.5167
 2.0530	53.4730
 2.0520	53.4499
 2.0510	53.4387
 2.0500	53.3968
 2.0490	53.3841
 2.0480	53.3908
 2.0470	53.4049
 2.0460	53.4354
 2.0450	53.3651
 2.0440	53.3357
 2.0430	53.2951
 2.0420	53.2597
 2.0410	53.2166
 2.0400	53.1930
 2.0390	53.1241
 2.0380	53.0841
 2.0370	53.0072
 2.0360	52.9555
 2.0350	52.9345
 2.0340	52.9645
 2.0330	52.8810
 2.0320	52.8371
 2.0310	52.7739
 2.0300	52.7480
 2.0290	52.6765
 2.0280	52.6474
 2.0270	52.5570
 2.0260	52.6007
 2.0250	52.5557
 2.0240	52.5208
 2.0230	52.4841
 2.0220	52.4906
 2.0210	52.4534
 2.0200	52.4725
 2.0190	52.4445
 2.0180	52.4165
 2.0170	52.4182
 2.0160	52.3691
 2.0150	52.3469
 2.0140	52.3661
 2.0130	52.3677
 2.0120	52.3386
 2.0110	52.2587
 2.0100	52.2624
 2.0090	52.2532
 2.0080	52.2704
 2.0070	52.1919
 2.0060	52.1886
 2.0050	52.1256
 2.0040	52.1052
 2.0030	52.0440
 2.0020	52.0227
 2.0010	51.9575
 2.0000	51.9800
 1.9990	51.9453
 1.9980	51.8892
 1.9970	51.8213
 1.9960	51.8118
 1.9950	51.7844
 1.9940	51.7629
 1.9930	51.7126
 1.9920	51.7044
 1.9910	51.6010
 1.9900	51.5610
 1.9890	51.4981
 1.9880	51.5040
 1.9870	51.4722
 1.9860	51.4495
 1.9850	51.4396
 1.9840	51.3716
 1.9830	51.2331
 1.9820	51.2981
 1.9810	51.1340
 1.9800	51.0945
 1.9790	50.9827
 1.9780	50.9904
 1.9770	50.8696
 1.9760	50.7737
 1.9750	50.7577
 1.9740	50.5851
 1.9730	50.4592
 1.9720	50.4039
 1.9710	50.2656
 1.9700	50.1543
 1.9690	50.0159
 1.9680	49.9555
 1.9670	49.8124
 1.9660	49.7120
 1.9650	49.6025
 1.9640	49.4860
 1.9630	49.3587
 1.9620	49.2026
 1.9610	49.1014
 1.9600	49.0670
 1.9590	48.7800
 1.9580	48.7682
 1.9570	48.5342
 1.9560	48.5345
 1.9550	48.3619
 1.9540	48.2310
 1.9530	48.0955
 1.9520	48.1133
 1.9510	47.9793
 1.9500	48.0318
 1.9490	47.8351
 1.9480	47.8984
 1.9470	47.8322
 1.9460	47.9802
 1.9450	47.9355
 1.9440	48.0173
 1.9430	48.0348
 1.9420	48.1855
 1.9410	48.2395
 1.9400	48.3660
 1.9390	48.3764
 1.9380	48.5034
 1.9370	48.5554
 1.9360	48.7251
 1.9350	48.6750
 1.9340	48.7625
 1.9330	48.8194
 1.9320	48.9462
 1.9310	48.8225
 1.9300	48.9250
 1.9290	48.8460
 1.9280	48.9490
 1.9270	48.9133
 1.9260	48.9333
 1.9250	48.9936
 1.9240	48.9583
 1.9230	48.9476
 1.9220	48.9489
 1.9210	48.9653
 1.9200	48.9723
 1.9190	48.9076
 1.9180	48.8734
 1.9170	48.7939
 1.9160	48.8872
 1.9150	48.7952
 1.9140	48.8703
 1.9130	48.7694
 1.9120	48.7362
 1.9110	48.6783
 1.9100	48.6298
 1.9090	48.6479
 1.9080	48.6112
 1.9070	48.5760
 1.9060	48.6218
 1.9050	48.4730
 1.9040	48.4420
 1.9030	48.2910
 1.9020	48.3147
 1.9010	48.2369
 1.9000	48.2988
 1.8990	48.1680
 1.8980	48.0856
 1.8970	48.0616
 1.8960	47.9679
 1.8950	47.9287
 1.8940	47.8242
 1.8930	47.7128
 1.8920	47.7010
 1.8910	47.5428
 1.8900	47.4746
 1.8890	47.3493
 1.8880	47.3274
 1.8870	47.1953
 1.8860	47.1693
 1.8850	47.1218
 1.8840	47.0161
 1.8830	46.9885
 1.8820	46.9042
 1.8810	46.8438
 1.8800	46.8930
 1.8790	46.8584
 1.8780	46.8615
 1.8770	46.8049
 1.8760	46.9199
 1.8750	46.8798
 1.8740	46.9002
 1.8730	46.8396
 1.8720	46.9442
 1.8710	46.8958
 1.8700	46.9812
 1.8690	46.9526
 1.8680	46.9652
 1.8670	46.8672
 1.8660	46.9546
 1.8650	46.9712
 1.8640	46.9812
 1.8630	46.9344
 1.8620	46.9137
 1.8610	46.7906
 1.8600	46.8420
 1.8590	46.7331
 1.8580	46.7156
 1.8570	46.6793
 1.8560	46.6530
 1.8550	46.4808
 1.8540	46.4865
 1.8530	46.3715
 1.8520	46.2532
 1.8510	46.1629
 1.8500	46.0452
 1.8490	45.8318
 1.8480	45.7630
 1.8470	45.6301
 1.8460	45.4851
 1.8450	45.3434
 1.8440	45.2498
 1.8430	45.0386
 1.8420	44.9514
 1.8410	44.7702
 1.8400	44.6474
 1.8390	44.5073
 1.8380	44.3467
 1.8370	44.1178
 1.8360	44.0185
 1.8350	43.8855
 1.8340	43.8529
 1.8330	43.6879
 1.8320	43.6137
 1.8310	43.5521
 1.8300	43.5292
 1.8290	43.5819
 1.8280	43.6511
 1.8270	43.6705
 1.8260	43.7620
 1.8250	43.8691
 1.8240	44.0428
 1.8230	44.1460
 1.8220	44.3232
 1.8210	44.4314
 1.8200	44.5243
 1.8190	44.7198
 1.8180	44.8800
 1.8170	44.9625
 1.8160	45.1253
 1.8150	45.1509
 1.8140	45.2280
 1.8130	45.2941
 1.8120	45.3340
 1.8110	45.2781
 1.8100	45.3109
 1.8090	45.3733
 1.8080	45.4474
 1.8070	45.4478
 1.8060	45.4241
 1.8050	45.3690
 1.8040	45.3522
 1.8030	45.3186
 1.8020	45.3367
 1.8010	45.3131
 1.8000	45.3171
 1.7990	45.3320
 1.7980	45.3025
 1.7970	45.2422
 1.7960	45.1997
 1.7950	45.1720
 1.7940	45.1514
 1.7930	45.1692
 1.7920	45.1811
 1.7910	45.0912
 1.7900	45.0797
 1.7890	45.0342
 1.7880	45.0020
 1.7870	45.0037
 1.7860	44.9341
 1.7850	44.8250
 1.7840	44.7849
 1.7830	44.7702
 1.7820	44.7719
 1.7810	44.7708
 1.7800	44.6904
 1.7790	44.6555
 1.7780	44.6070
 1.7770	44.6039
 1.7760	44.5723
 1.7750	44.5211
 1.7740	44.5086
 1.7730	44.4749
 1.7720	44.4034
 1.7710	44.3997
 1.7700	44.3973
 1.7690	44.3556
 1.7680	44.2682
 1.7670	44.2256
 1.7660	44.1910
 1.7650	44.1763
 1.7640	44.1431
 1.7630	44.0765
 1.7620	44.0414
 1.7610	44.0757
 1.7600	43.9776
 1.7590	43.9461
 1.7580	43.9373
 1.7570	43.9838
 1.7560	43.9489
 1.7550	43.9153
 1.7540	43.8541
 1.7530	43.8264
 1.7520	43.7582
 1.7510	43.7961
 1.7500	43.7258
 1.7490	43.7119
 1.7480	43.6623
 1.7470	43.6441
 1.7460	43.5605
 1.7450	43.5857
 1.7440	43.5837
 1.7430	43.5139
 1.7420	43.4898
 1.7410	43.5020
 1.7400	43.4497
 1.7390	43.4633
 1.7380	43.4213
 1.7370	43.3932
 1.7360	43.3319
 1.7350	43.2892
 1.7340	43.2698
 1.7330	43.3082
 1.7320	43.2455
 1.7310	43.1610
 1.7300	43.2045
 1.7290	43.2084
 1.7280	43.1514
 1.7270	43.1570
 1.7260	43.1558
 1.7250	43.0644
 1.7240	42.9780
 1.7230	43.0114
 1.7220	43.0141
 1.7210	43.0284
 1.7200	42.9347
 1.7190	42.9100
 1.7180	42.8811
 1.7170	42.8765
 1.7160	42.8388
 1.7150	42.8257
 1.7140	42.7434
 1.7130	42.7532
 1.7120	42.7298
 1.7110	42.6962
 1.7100	42.6232
 1.7090	42.6071
 1.7080	42.5491
 1.7070	42.5793
 1.7060	42.5268
 1.7050	42.5404
 1.7040	42.4504
 1.7030	42.4836
 1.7020	42.4004
 1.7010	42.4205
 1.7000	42.3564
 1.6990	42.3853
 1.6980	42.3388
 1.6970	42.3159
 1.6960	42.1694
 1.6950	42.2140
 1.6940	42.2057
 1.6930	42.2252
 1.6920	42.1776
 1.6910	42.1570
 1.6900	42.0810
 1.6890	42.1451
 1.6880	42.0720
 1.6870	41.9887
 1.6860	41.9117
 1.6850	41.9822
 1.6840	41.8827
 1.6830	41.9340
 1.6820	41.8725
 1.6810	41.9172
 1.6800	41.8460
 1.6790	41.8473
 1.6780	41.7890
 1.6770	41.8415
 1.6760	41.7735
 1.6750	41.8790
 1.6740	41.7706
 1.6730	41.8246
 1.6720	41.6565
 1.6710	41.7676
 1.6700	41.6510
 1.6690	41.7735
 1.6680	41.6898
 1.6670	41.7743
 1.6660	41.6444
 1.6650	41.7434
 1.6640	41.6500
 1.6630	41.6828
 1.6620	41.6056
 1.6610	41.7290
 1.6600	41.6634
 1.6590	41.6690
 1.6580	41.5357
 1.6570	41.5753
 1.6560	41.4542
 1.6550	41.5474
 1.6540	41.5409
 1.6530	41.5873
 1.6520	41.4678
 1.6510	41.4545
 1.6500	41.3885
 1.6490	41.4871
 1.6480	41.3724
 1.6470	41.4287
 1.6460	41.3326
 1.6450	41.3629
 1.6440	41.3395
 1.6430	41.3066
 1.6420	41.3611
 1.6410	41.2160
 1.6400	41.1922
 1.6390	41.2747
 1.6380	41.1748
 1.6370	41.2195
 1.6360	41.1119
 1.6350	41.1339
 1.6340	41.0390
 1.6330	41.1099
 1.6320	41.0147
 1.6310	41.1020
 1.6300	40.8914
 1.6290	41.0339
 1.6280	40.9463
 1.6270	40.9425
 1.6260	40.8121
 1.6250	40.8717
 1.6240	40.7854
 1.6230	40.8382
 1.6220	40.7536
 1.6210	40.8145
 1.6200	40.7883
 1.6190	40.7119
 1.6180	40.7180
 1.6170	40.8028
 1.6160	40.6649
 1.6150	40.6853
 1.6140	40.6495
 1.6130	40.6372
 1.6120	40.5803
 1.6110	40.6036
 1.6100	40.5652
 1.6090	40.6091
 1.6080	40.4742
 1.6070	40.5047
 1.6060	40.3595
 1.6050	40.4091
 1.6040	40.3266
 1.6030	40.3664
 1.6020	40.2048
 1.6010	40.1736
 1.6000	40.1402
 1.5990	40.1715
 1.5980	40.0830
 1.5970	40.0479
 1.5960	39.9377
 1.5950	39.9861
 1.5940	39.7805
 1.5930	39.8424
 1.5920	39.6870
 1.5910	39.6783
 1.5900	39.5514
 1.5890	39.4761
 1.5880	39.4412
 1.5870	39.4383
 1.5860	39.3313
 1.5850	39.2371
 1.5840	39.1539
 1.5830	39.1765
 1.5820	39.0165
 1.5810	38.9856
 1.5800	38.9037
 1.5790	38.9072
 1.5780	38.8179
 1.5770	38.7431
 1.5760	38.6440
 1.5750	38.6206
 1.5740	38.5017
 1.5730	38.4908
 1.5720	38.4168
 1.5710	38.3460
 1.5700	38.2631
 1.5690	38.2169
 1.5680	38.0467
 1.5670	38.0114
 1.5660	37.7875
 1.5650	37.7552
 1.5640	37.5886
 1.5630	37.4838
 1.5620	37.3225
 1.5610	37.2191
 1.5600	37.0727
 1.5590	36.9723
 1.5580	36.7854
 1.5570	36.7281
 1.5560	36.5241
 1.5550	36.5116
 1.5540	36.4377
 1.5530	36.3850
 1.5520	36.2576
 1.5510	36.2911
 1.5500	36.2365
 1.5490	36.2684
 1.5480	36.2627
 1.5470	36.2831
 1.5460	36.2778
 1.5450	36.3286
 1.5440	36.4390
 1.5430	36.5740
 1.5420	36.5751
 1.5410	36.6804
 1.5400	36.7445
 1.5390	36.8227
 1.5380	36.8792
 1.5370	36.9539
 1.5360	37.0957
 1.5350	37.2261
 1.5340	37.2012
 1.5330	37.3352
 1.5320	37.4430
 1.5310	37.5465
 1.5300	37.6320
 1.5290	37.8016
 1.5280	37.8826
 1.5270	37.9518
 1.5260	38.0256
 1.5250	38.1577
 1.5240	38.2516
 1.5230	38.3687
 1.5220	38.4653
 1.5210	38.5928
 1.5200	38.7245
 1.5190	38.8787
 1.5180	38.9684
 1.5170	39.0919
 1.5160	39.1771
 1.5150	39.3159
 1.5140	39.4310
 1.5130	39.5817
 1.5120	39.6676
 1.5110	39.7393
 1.5100	39.8531
 1.5090	39.9635
 1.5080	40.0439
 1.5070	40.1455
 1.5060	40.2216
 1.5050	40.3097
 1.5040	40.4407
 1.5030	40.5275
 1.5020	40.6007
 1.5010	40.6680
 1.5000	40.7673
 1.4990	40.8544
 1.4980	40.8929
 1.4970	41.0010
 1.4960	41.0685
 1.4950	41.1175
 1.4940	41.2014
 1.4930	41.2226
 1.4920	41.2943
 1.4910	41.3302
 1.4900	41.3798
 1.4890	41.4350
 1.4880	41.4744
 1.4870	41.5255
 1.4860	41.6206
 1.4850	41.6181
 1.4840	41.6665
 1.4830	41.7389
 1.4820	41.8052
 1.4810	41.8146
 1.4800	41.8388
 1.4790	41.8943
 1.4780	41.9757
 1.4770	41.9784
 1.4760	42.0650
 1.4750	42.0866
 1.4740	42.1007
 1.4730	42.1110
 1.4720	42.1702
 1.4710	42.1752
 1.4700	42.2196
 1.4690	42.2462
 1.4680	42.3221
 1.4670	42.2837
 1.4660	42.3281
 1.4650	42.3344
 1.4640	42.4111
 1.4630	42.3823
 1.4620	42.4244
 1.4610	42.4029
 1.4600	42.4159
 1.4590	42.4230
 1.4580	42.4818
 1.4570	42.4872
 1.4560	42.5018
 1.4550	42.4933
 1.4540	42.5152
 1.4530	42.5397
 1.4520	42.5537
 1.4510	42.5132
 1.4500	42.5411
 1.4490	42.5907
 1.4480	42.5849
 1.4470	42.5220
 1.4460	42.5621
 1.4450	42.5385
 1.4440	42.5971
 1.4430	42.5177
 1.4420	42.5289
 1.4410	42.5119
 1.4400	42.5741
 1.4390	42.5405
 1.4380	42.5968
 1.4370	42.5625
 1.4360	42.5616
 1.4350	42.5701
 1.4340	42.5765
 1.4330	42.5408
 1.4320	42.5747
 1.4310	42.5408
 1.4300	42.5466
 1.4290	42.5562
 1.4280	42.5108
 1.4270	42.5158
 1.4260	42.5556
 1.4250	42.4900
 1.4240	42.5131
 1.4230	42.4869
 1.4220	42.5317
 1.4210	42.4677
 1.4200	42.4988
 1.4190	42.3499
 1.4180	42.4312
 1.4170	42.3256
 1.4160	42.3523
 1.4150	42.2969
 1.4140	42.2741
 1.4130	42.2503
 1.4120	42.3457
 1.4110	42.2623
 1.4100	42.2998
 1.4090	42.1303
 1.4080	42.1869
 1.4070	42.1914
 1.4060	42.2316
 1.4050	42.0838
 1.4040	42.2026
 1.4030	42.1268
 1.4020	42.1444
 1.4010	42.1074
 1.4000	42.1662
 1.3990	42.1117
 1.3980	42.1748
 1.3970	42.1903
 1.3960	42.2246
 1.3950	42.1201
 1.3940	42.2174
 1.3930	42.2264
 1.3920	42.2420
 1.3910	42.2356
 1.3900	42.2751
 1.3890	42.1772
 1.3880	42.1957
 1.3870	42.0715
 1.3860	42.1890
 1.3850	42.1524
 1.3840	42.1639
 1.3830	42.0884
 1.3820	42.0973
 1.3810	42.0465
 1.3800	42.0194
 1.3790	42.0455
 1.3780	42.0200
 1.3770	41.9857
 1.3760	42.0425
 1.3750	41.8678
 1.3740	41.9559
 1.3730	41.8416
 1.3720	41.8535
 1.3710	41.8336
 1.3700	41.8617
