Name: Witherite BaCO_3
Type: Mineral
Class: Carbonate
Subclass: None
Particle Size: Coarse
Sample No.: C-2A
Owner: JPL
Wavelength Range: VSWIR
Origin: United Kingdom, England.
Collection Date: N/A
Description: Particle size was 125-500um.Collected by:  Grieger's Inc. Original ASTER Spectral Library name was jpl.perkin.mineral.carbonate.none.coarse.c02a.spectrum.txt
Measurement: Hemispherical reflectance
First Column: X
Second Column: Y
X Units: Wavelength (micrometers)
Y Units:Reflectance (percent)
First X Value:  2.5000
Last X Value:  0.4000
Number of X Values: 2101
Additional Information: mineral.carbonate.none.coarse.vswir.c-2a.jpl.perkin.ancillary.txt

 2.5000	63.3107
 2.4990	63.8007
 2.4980	64.2283
 2.4970	64.6256
 2.4960	64.7382
 2.4950	65.3108
 2.4940	65.4284
 2.4930	65.6807
 2.4920	65.9783
 2.4910	66.2621
 2.4900	66.4983
 2.4890	66.7897
 2.4880	66.9687
 2.4870	67.1667
 2.4860	67.2551
 2.4850	67.5967
 2.4840	67.7783
 2.4830	68.1669
 2.4820	68.1454
 2.4810	68.3379
 2.4800	68.3095
 2.4790	68.4619
 2.4780	68.7201
 2.4770	68.7572
 2.4760	68.7661
 2.4750	68.9672
 2.4740	69.1909
 2.4730	69.3912
 2.4720	69.4367
 2.4710	69.5267
 2.4700	69.5289
 2.4690	69.6447
 2.4680	69.8093
 2.4670	69.8836
 2.4660	69.8906
 2.4650	69.9222
 2.4640	70.0561
 2.4630	70.3518
 2.4620	70.3081
 2.4610	70.3752
 2.4600	70.3378
 2.4590	70.5526
 2.4580	70.4762
 2.4570	70.4925
 2.4560	70.5871
 2.4550	70.7367
 2.4540	70.6366
 2.4530	70.6726
 2.4520	70.6462
 2.4510	70.8378
 2.4500	70.8572
 2.4490	70.7887
 2.4480	70.8225
 2.4470	70.8462
 2.4460	70.9448
 2.4450	70.8781
 2.4440	70.8069
 2.4430	70.9761
 2.4420	70.9534
 2.4410	70.9252
 2.4400	70.9729
 2.4390	70.8448
 2.4380	70.6960
 2.4370	70.8044
 2.4360	70.8351
 2.4350	70.6548
 2.4340	70.5173
 2.4330	70.3595
 2.4320	70.1820
 2.4310	70.1415
 2.4300	69.9570
 2.4290	69.7106
 2.4280	69.4591
 2.4270	69.1578
 2.4260	69.0392
 2.4250	68.8448
 2.4240	68.4339
 2.4230	68.0359
 2.4220	67.6764
 2.4210	67.2530
 2.4200	66.8214
 2.4190	66.3669
 2.4180	65.9224
 2.4170	65.4159
 2.4160	64.8126
 2.4150	64.2187
 2.4140	63.5459
 2.4130	62.8683
 2.4120	62.0244
 2.4110	61.2311
 2.4100	60.4227
 2.4090	59.4960
 2.4080	58.5949
 2.4070	57.6823
 2.4060	56.6922
 2.4050	55.6739
 2.4040	54.7117
 2.4030	53.6541
 2.4020	52.5321
 2.4010	51.5515
 2.4000	50.4667
 2.3990	49.4236
 2.3980	48.4017
 2.3970	47.3838
 2.3960	46.4969
 2.3950	45.6363
 2.3940	44.8111
 2.3930	44.1877
 2.3920	43.6056
 2.3910	43.0517
 2.3900	42.6438
 2.3890	42.3487
 2.3880	42.1398
 2.3870	42.0887
 2.3860	42.0570
 2.3850	42.1996
 2.3840	42.4800
 2.3830	42.7957
 2.3820	43.1629
 2.3810	43.6811
 2.3800	44.2073
 2.3790	44.8605
 2.3780	45.5443
 2.3770	46.2020
 2.3760	46.9333
 2.3750	47.6353
 2.3740	48.4246
 2.3730	49.1810
 2.3720	49.8817
 2.3710	50.5895
 2.3700	51.1901
 2.3690	51.7447
 2.3680	52.3195
 2.3670	52.8566
 2.3660	53.3377
 2.3650	53.8039
 2.3640	54.2495
 2.3630	54.6387
 2.3620	54.9820
 2.3610	55.3266
 2.3600	55.6301
 2.3590	55.8767
 2.3580	56.1138
 2.3570	56.4048
 2.3560	56.6591
 2.3550	56.7673
 2.3540	56.9494
 2.3530	57.1498
 2.3520	57.3248
 2.3510	57.4897
 2.3500	57.6184
 2.3490	57.7622
 2.3480	57.9083
 2.3470	58.0541
 2.3460	58.1770
 2.3450	58.2672
 2.3440	58.3555
 2.3430	58.4873
 2.3420	58.6245
 2.3410	58.7430
 2.3400	58.8482
 2.3390	58.9643
 2.3380	59.0769
 2.3370	59.2389
 2.3360	59.4664
 2.3350	59.6676
 2.3340	59.8471
 2.3330	60.0299
 2.3320	60.2315
 2.3310	60.4801
 2.3300	60.7204
 2.3290	60.9500
 2.3280	61.1997
 2.3270	61.4570
 2.3260	61.7746
 2.3250	62.0658
 2.3240	62.3891
 2.3230	62.6721
 2.3220	62.9628
 2.3210	63.2637
 2.3200	63.5470
 2.3190	63.9496
 2.3180	64.2879
 2.3170	64.5764
 2.3160	64.9324
 2.3150	65.2482
 2.3140	65.5437
 2.3130	65.8768
 2.3120	66.1693
 2.3110	66.4845
 2.3100	66.7899
 2.3090	67.0841
 2.3080	67.4090
 2.3070	67.7732
 2.3060	68.0247
 2.3050	68.3053
 2.3040	68.6863
 2.3030	68.9458
 2.3020	69.2554
 2.3010	69.5091
 2.3000	69.8381
 2.2990	70.0831
 2.2980	70.3806
 2.2970	70.6503
 2.2960	70.7983
 2.2950	71.0628
 2.2940	71.3605
 2.2930	71.6612
 2.2920	71.9556
 2.2910	72.2136
 2.2900	72.4185
 2.2890	72.6574
 2.2880	72.9005
 2.2870	73.1007
 2.2860	73.3620
 2.2850	73.5721
 2.2840	73.8059
 2.2830	74.0351
 2.2820	74.2441
 2.2810	74.4306
 2.2800	74.6588
 2.2790	74.8475
 2.2780	75.0204
 2.2770	75.2580
 2.2760	75.4958
 2.2750	75.6743
 2.2740	75.9024
 2.2730	76.0597
 2.2720	76.2398
 2.2710	76.4218
 2.2700	76.6291
 2.2690	76.8507
 2.2680	77.0066
 2.2670	77.1270
 2.2660	77.3030
 2.2650	77.5736
 2.2640	77.7736
 2.2630	77.9707
 2.2620	78.0469
 2.2610	78.3253
 2.2600	78.5072
 2.2590	78.6714
 2.2580	78.7769
 2.2570	79.0143
 2.2560	79.2444
 2.2550	79.3639
 2.2540	79.5305
 2.2530	79.6817
 2.2520	79.8837
 2.2510	79.8979
 2.2500	80.0980
 2.2490	80.2615
 2.2480	80.3232
 2.2470	80.5838
 2.2460	80.6244
 2.2450	80.6941
 2.2440	80.8376
 2.2430	80.9574
 2.2420	81.0499
 2.2410	81.1876
 2.2400	81.3005
 2.2390	81.3991
 2.2380	81.3928
 2.2370	81.5603
 2.2360	81.6230
 2.2350	81.6854
 2.2340	81.6977
 2.2330	81.7453
 2.2320	81.7250
 2.2310	81.7146
 2.2300	81.6957
 2.2290	81.6723
 2.2280	81.5249
 2.2270	81.3412
 2.2260	81.2868
 2.2250	81.1251
 2.2240	80.8213
 2.2230	80.5569
 2.2220	80.2358
 2.2210	79.9369
 2.2200	79.5335
 2.2190	79.0941
 2.2180	78.6646
 2.2170	78.2318
 2.2160	77.8170
 2.2150	77.4318
 2.2140	76.9495
 2.2130	76.5667
 2.2120	76.3730
 2.2110	75.9282
 2.2100	75.7900
 2.2090	75.6754
 2.2080	75.5884
 2.2070	75.5717
 2.2060	75.7597
 2.2050	75.7848
 2.2040	76.1257
 2.2030	76.4027
 2.2020	76.7864
 2.2010	77.2546
 2.2000	77.7505
 2.1990	78.1941
 2.1980	78.6862
 2.1970	79.1059
 2.1960	79.6524
 2.1950	80.1779
 2.1940	80.6338
 2.1930	81.0044
 2.1920	81.3755
 2.1910	81.6128
 2.1900	81.8997
 2.1890	82.2773
 2.1880	82.3756
 2.1870	82.5622
 2.1860	82.6793
 2.1850	82.9466
 2.1840	83.1699
 2.1830	83.2392
 2.1820	83.3809
 2.1810	83.5014
 2.1800	83.6254
 2.1790	83.7904
 2.1780	83.8300
 2.1770	83.9068
 2.1760	84.1243
 2.1750	84.2285
 2.1740	84.2876
 2.1730	84.3397
 2.1720	84.3425
 2.1710	84.3918
 2.1700	84.4708
 2.1690	84.5326
 2.1680	84.6135
 2.1670	84.5895
 2.1660	84.6866
 2.1650	84.7084
 2.1640	84.8249
 2.1630	84.8235
 2.1620	84.8772
 2.1610	84.9571
 2.1600	85.1167
 2.1590	85.1356
 2.1580	85.1598
 2.1570	85.1461
 2.1560	85.1684
 2.1550	85.2684
 2.1540	85.3974
 2.1530	85.4909
 2.1520	85.5308
 2.1510	85.6464
 2.1500	85.7283
 2.1490	85.8606
 2.1480	85.9327
 2.1470	85.9983
 2.1460	86.0689
 2.1450	86.1726
 2.1440	86.1733
 2.1430	86.3058
 2.1420	86.4117
 2.1410	86.4685
 2.1400	86.5413
 2.1390	86.6415
 2.1380	86.6593
 2.1370	86.7747
 2.1360	86.7209
 2.1350	86.7258
 2.1340	86.7333
 2.1330	86.8104
 2.1320	86.7564
 2.1310	86.8323
 2.1300	86.8162
 2.1290	86.7829
 2.1280	86.8172
 2.1270	86.7355
 2.1260	86.6895
 2.1250	86.7448
 2.1240	86.7397
 2.1230	86.6555
 2.1220	86.6047
 2.1210	86.5567
 2.1200	86.5268
 2.1190	86.4740
 2.1180	86.4575
 2.1170	86.4435
 2.1160	86.4631
 2.1150	86.3565
 2.1140	86.3106
 2.1130	86.3168
 2.1120	86.2442
 2.1110	86.1949
 2.1100	86.1494
 2.1090	86.0780
 2.1080	86.0370
 2.1070	85.9626
 2.1060	85.9440
 2.1050	85.9215
 2.1040	85.8786
 2.1030	85.8249
 2.1020	85.7466
 2.1010	85.6969
 2.1000	85.6571
 2.0990	85.6451
 2.0980	85.6493
 2.0970	85.6487
 2.0960	85.6423
 2.0950	85.6365
 2.0940	85.6589
 2.0930	85.6309
 2.0920	85.5996
 2.0910	85.6046
 2.0900	85.6427
 2.0890	85.6717
 2.0880	85.6547
 2.0870	85.6201
 2.0860	85.6298
 2.0850	85.6047
 2.0840	85.5444
 2.0830	85.5580
 2.0820	85.5630
 2.0810	85.5210
 2.0800	85.4589
 2.0790	85.4607
 2.0780	85.4305
 2.0770	85.3882
 2.0760	85.3555
 2.0750	85.2612
 2.0740	85.2208
 2.0730	85.1866
 2.0720	85.0958
 2.0710	85.0321
 2.0700	84.9431
 2.0690	84.8646
 2.0680	84.7638
 2.0670	84.6554
 2.0660	84.5674
 2.0650	84.3806
 2.0640	84.1477
 2.0630	83.9286
 2.0620	83.6736
 2.0610	83.3686
 2.0600	83.0070
 2.0590	82.6277
 2.0580	82.1795
 2.0570	81.6890
 2.0560	81.1252
 2.0550	80.4957
 2.0540	79.8609
 2.0530	79.1982
 2.0520	78.5421
 2.0510	77.8612
 2.0500	77.2800
 2.0490	76.8205
 2.0480	76.4387
 2.0470	76.1972
 2.0460	76.1571
 2.0450	76.2963
 2.0440	76.5779
 2.0430	76.9219
 2.0420	77.3056
 2.0410	77.7399
 2.0400	78.2518
 2.0390	78.7067
 2.0380	79.1393
 2.0370	79.5364
 2.0360	79.8958
 2.0350	80.2233
 2.0340	80.4680
 2.0330	80.7932
 2.0320	81.0076
 2.0310	81.2537
 2.0300	81.5524
 2.0290	81.7406
 2.0280	81.9073
 2.0270	82.0520
 2.0260	82.2159
 2.0250	82.3487
 2.0240	82.4533
 2.0230	82.5302
 2.0220	82.6003
 2.0210	82.6420
 2.0200	82.6831
 2.0190	82.8110
 2.0180	82.7999
 2.0170	82.8837
 2.0160	82.9097
 2.0150	82.8619
 2.0140	82.8594
 2.0130	82.9097
 2.0120	82.9151
 2.0110	82.9574
 2.0100	82.9445
 2.0090	82.9587
 2.0080	82.9498
 2.0070	83.0628
 2.0060	82.9984
 2.0050	83.0788
 2.0040	83.0965
 2.0030	83.1899
 2.0020	83.2594
 2.0010	83.2865
 2.0000	83.3872
 1.9990	83.4892
 1.9980	83.5218
 1.9970	83.6502
 1.9960	83.8128
 1.9950	83.8174
 1.9940	83.8668
 1.9930	83.9746
 1.9920	84.1044
 1.9910	84.1921
 1.9900	84.1779
 1.9890	84.2111
 1.9880	84.3466
 1.9870	84.3722
 1.9860	84.3158
 1.9850	84.3976
 1.9840	84.4152
 1.9830	84.3974
 1.9820	84.2927
 1.9810	84.4163
 1.9800	84.3613
 1.9790	84.4093
 1.9780	84.3562
 1.9770	84.3512
 1.9760	84.3119
 1.9750	84.2806
 1.9740	84.2830
 1.9730	84.2714
 1.9720	84.1706
 1.9710	84.1956
 1.9700	84.2014
 1.9690	84.0876
 1.9680	84.1033
 1.9670	84.0849
 1.9660	83.9717
 1.9650	83.9623
 1.9640	83.9636
 1.9630	83.8864
 1.9620	83.8922
 1.9610	83.8889
 1.9600	83.8440
 1.9590	83.7873
 1.9580	83.7164
 1.9570	83.6008
 1.9560	83.7943
 1.9550	83.6728
 1.9540	83.5291
 1.9530	83.5678
 1.9520	83.5614
 1.9510	83.5143
 1.9500	83.4949
 1.9490	83.3518
 1.9480	83.4283
 1.9470	83.3416
 1.9460	83.2758
 1.9450	83.3055
 1.9440	83.2132
 1.9430	83.0856
 1.9420	83.0518
 1.9410	83.0422
 1.9400	82.8903
 1.9390	82.8663
 1.9380	82.7353
 1.9370	82.6857
 1.9360	82.4647
 1.9350	82.4073
 1.9340	82.1962
 1.9330	81.9672
 1.9320	81.7651
 1.9310	81.5368
 1.9300	81.1818
 1.9290	80.7976
 1.9280	80.4928
 1.9270	80.0955
 1.9260	79.5892
 1.9250	79.2101
 1.9240	78.7721
 1.9230	78.3630
 1.9220	77.9994
 1.9210	77.6530
 1.9200	77.3823
 1.9190	77.3039
 1.9180	77.1110
 1.9170	77.2930
 1.9160	77.2814
 1.9150	77.4691
 1.9140	77.8250
 1.9130	78.2462
 1.9120	78.5679
 1.9110	79.0356
 1.9100	79.4281
 1.9090	79.8379
 1.9080	80.1941
 1.9070	80.5647
 1.9060	80.8896
 1.9050	81.2458
 1.9040	81.6267
 1.9030	81.8619
 1.9020	82.1387
 1.9010	82.4479
 1.9000	82.6532
 1.8990	82.8652
 1.8980	83.0663
 1.8970	83.2191
 1.8960	83.3957
 1.8950	83.5416
 1.8940	83.6464
 1.8930	83.8622
 1.8920	83.9195
 1.8910	84.0424
 1.8900	84.0890
 1.8890	84.2640
 1.8880	84.2812
 1.8870	84.3573
 1.8860	84.5322
 1.8850	84.5910
 1.8840	84.6077
 1.8830	84.6326
 1.8820	84.7803
 1.8810	84.8227
 1.8800	84.8964
 1.8790	85.0612
 1.8780	85.1532
 1.8770	85.1527
 1.8760	85.2084
 1.8750	85.3385
 1.8740	85.4969
 1.8730	85.6099
 1.8720	85.7110
 1.8710	85.8656
 1.8700	86.0309
 1.8690	86.1888
 1.8680	86.3444
 1.8670	86.4331
 1.8660	86.4499
 1.8650	86.5951
 1.8640	86.7046
 1.8630	86.7775
 1.8620	86.8163
 1.8610	86.9898
 1.8600	87.0549
 1.8590	87.1135
 1.8580	87.1993
 1.8570	87.2488
 1.8560	87.2985
 1.8550	87.2995
 1.8540	87.3795
 1.8530	87.4754
 1.8520	87.5323
 1.8510	87.5525
 1.8500	87.5793
 1.8490	87.6254
 1.8480	87.6770
 1.8470	87.7116
 1.8460	87.7059
 1.8450	87.7628
 1.8440	87.7648
 1.8430	87.8066
 1.8420	87.8118
 1.8410	87.8537
 1.8400	87.8673
 1.8390	87.9349
 1.8380	87.9523
 1.8370	88.0104
 1.8360	88.0230
 1.8350	88.0449
 1.8340	88.0696
 1.8330	88.1041
 1.8320	88.0857
 1.8310	88.0294
 1.8300	88.0992
 1.8290	88.0821
 1.8280	88.1542
 1.8270	88.1734
 1.8260	88.1587
 1.8250	88.1950
 1.8240	88.1582
 1.8230	88.1264
 1.8220	88.1361
 1.8210	88.1528
 1.8200	88.1771
 1.8190	88.1828
 1.8180	88.1432
 1.8170	88.1793
 1.8160	88.1504
 1.8150	88.1123
 1.8140	88.0998
 1.8130	88.0887
 1.8120	88.0352
 1.8110	87.9976
 1.8100	87.9431
 1.8090	87.8718
 1.8080	87.7250
 1.8070	87.5947
 1.8060	87.5190
 1.8050	87.4068
 1.8040	87.3181
 1.8030	87.1655
 1.8020	87.0898
 1.8010	86.9790
 1.8000	86.9151
 1.7990	86.8570
 1.7980	86.8288
 1.7970	86.8717
 1.7960	86.9178
 1.7950	86.9805
 1.7940	87.0427
 1.7930	87.0998
 1.7920	87.1855
 1.7910	87.2517
 1.7900	87.2932
 1.7890	87.3302
 1.7880	87.3699
 1.7870	87.3157
 1.7860	87.2959
 1.7850	87.3073
 1.7840	87.2850
 1.7830	87.2732
 1.7820	87.2711
 1.7810	87.2875
 1.7800	87.2935
 1.7790	87.3076
 1.7780	87.3048
 1.7770	87.2938
 1.7760	87.3013
 1.7750	87.3217
 1.7740	87.2947
 1.7730	87.2402
 1.7720	87.2289
 1.7710	87.2431
 1.7700	87.2291
 1.7690	87.2217
 1.7680	87.2471
 1.7670	87.2255
 1.7660	87.2532
 1.7650	87.2676
 1.7640	87.2777
 1.7630	87.2955
 1.7620	87.2672
 1.7610	87.2913
 1.7600	87.3022
 1.7590	87.3114
 1.7580	87.3427
 1.7570	87.3645
 1.7560	87.3314
 1.7550	87.3784
 1.7540	87.4415
 1.7530	87.4800
 1.7520	87.4834
 1.7510	87.5420
 1.7500	87.6143
 1.7490	87.5723
 1.7480	87.5610
 1.7470	87.6368
 1.7460	87.7304
 1.7450	87.7551
 1.7440	87.7793
 1.7430	87.8174
 1.7420	87.8124
 1.7410	87.8197
 1.7400	87.8986
 1.7390	87.9053
 1.7380	87.9261
 1.7370	87.9592
 1.7360	87.9575
 1.7350	88.0246
 1.7340	88.0231
 1.7330	88.0276
 1.7320	88.0319
 1.7310	88.0689
 1.7300	88.1060
 1.7290	88.1016
 1.7280	88.1115
 1.7270	88.1054
 1.7260	88.1516
 1.7250	88.1578
 1.7240	88.1997
 1.7230	88.2419
 1.7220	88.2140
 1.7210	88.1996
 1.7200	88.2181
 1.7190	88.2199
 1.7180	88.2830
 1.7170	88.2772
 1.7160	88.2738
 1.7150	88.2669
 1.7140	88.2802
 1.7130	88.3079
 1.7120	88.2382
 1.7110	88.2022
 1.7100	88.2502
 1.7090	88.3249
 1.7080	88.3628
 1.7070	88.3355
 1.7060	88.2668
 1.7050	88.2636
 1.7040	88.2995
 1.7030	88.2382
 1.7020	88.1748
 1.7010	88.2210
 1.7000	88.1309
 1.6990	88.1000
 1.6980	88.1091
 1.6970	88.0893
 1.6960	88.0334
 1.6950	87.9956
 1.6940	87.9865
 1.6930	87.9446
 1.6920	87.9834
 1.6910	87.8910
 1.6900	87.9262
 1.6890	87.9310
 1.6880	87.9853
 1.6870	88.0644
 1.6860	88.1100
 1.6850	88.1433
 1.6840	88.1542
 1.6830	88.2020
 1.6820	88.2491
 1.6810	88.2010
 1.6800	88.2621
 1.6790	88.2850
 1.6780	88.2353
 1.6770	88.2869
 1.6760	88.2688
 1.6750	88.2928
 1.6740	88.2888
 1.6730	88.3290
 1.6720	88.3611
 1.6710	88.2911
 1.6700	88.3045
 1.6690	88.3148
 1.6680	88.3234
 1.6670	88.4240
 1.6660	88.3214
 1.6650	88.2536
 1.6640	88.4072
 1.6630	88.3212
 1.6620	88.2905
 1.6610	88.4311
 1.6600	88.4316
 1.6590	88.2941
 1.6580	88.2850
 1.6570	88.2723
 1.6560	88.3107
 1.6550	88.3610
 1.6540	88.4492
 1.6530	88.4123
 1.6520	88.3755
 1.6510	88.4024
 1.6500	88.4083
 1.6490	88.4284
 1.6480	88.3845
 1.6470	88.4326
 1.6460	88.4267
 1.6450	88.4737
 1.6440	88.4275
 1.6430	88.3776
 1.6420	88.3902
 1.6410	88.4706
 1.6400	88.5338
 1.6390	88.4294
 1.6380	88.3980
 1.6370	88.3911
 1.6360	88.4119
 1.6350	88.3921
 1.6340	88.4258
 1.6330	88.4389
 1.6320	88.5174
 1.6310	88.3756
 1.6300	88.5027
 1.6290	88.5003
 1.6280	88.4257
 1.6270	88.3527
 1.6260	88.3414
 1.6250	88.4289
 1.6240	88.3902
 1.6230	88.3327
 1.6220	88.3714
 1.6210	88.3641
 1.6200	88.4026
 1.6190	88.3889
 1.6180	88.3657
 1.6170	88.3871
 1.6160	88.3280
 1.6150	88.3596
 1.6140	88.2642
 1.6130	88.2570
 1.6120	88.2099
 1.6110	88.1960
 1.6100	88.1667
 1.6090	88.1759
 1.6080	88.1085
 1.6070	88.0266
 1.6060	87.8608
 1.6050	87.9426
 1.6040	87.8649
 1.6030	88.0077
 1.6020	87.9579
 1.6010	88.0355
 1.6000	88.1138
 1.5990	88.1788
 1.5980	88.1318
 1.5970	88.2279
 1.5960	88.1307
 1.5950	88.1984
 1.5940	88.2397
 1.5930	88.2631
 1.5920	88.3035
 1.5910	88.2166
 1.5900	88.2794
 1.5890	88.2560
 1.5880	88.2668
 1.5870	88.2765
 1.5860	88.2981
 1.5850	88.2562
 1.5840	88.2394
 1.5830	88.2093
 1.5820	88.2609
 1.5810	88.2581
 1.5800	88.2354
 1.5790	88.2507
 1.5780	88.3115
 1.5770	88.3439
 1.5760	88.2516
 1.5750	88.2964
 1.5740	88.2787
 1.5730	88.2643
 1.5720	88.2811
 1.5710	88.2322
 1.5700	88.3048
 1.5690	88.2871
 1.5680	88.2341
 1.5670	88.2415
 1.5660	88.2792
 1.5650	88.2902
 1.5640	88.2883
 1.5630	88.3108
 1.5620	88.2764
 1.5610	88.3063
 1.5600	88.3455
 1.5590	88.3163
 1.5580	88.2539
 1.5570	88.2403
 1.5560	88.2791
 1.5550	88.2918
 1.5540	88.3269
 1.5530	88.2289
 1.5520	88.2600
 1.5510	88.2393
 1.5500	88.2354
 1.5490	88.2306
 1.5480	88.2255
 1.5470	88.2436
 1.5460	88.2533
 1.5450	88.2619
 1.5440	88.2227
 1.5430	88.2318
 1.5420	88.2353
 1.5410	88.2132
 1.5400	88.2292
 1.5390	88.2088
 1.5380	88.1717
 1.5370	88.1528
 1.5360	88.1820
 1.5350	88.1383
 1.5340	88.1548
 1.5330	88.1198
 1.5320	88.1366
 1.5310	88.1871
 1.5300	88.1253
 1.5290	88.1182
 1.5280	88.1078
 1.5270	88.0798
 1.5260	88.0496
 1.5250	88.0824
 1.5240	88.1301
 1.5230	88.0939
 1.5220	88.0560
 1.5210	88.0367
 1.5200	87.9889
 1.5190	87.9462
 1.5180	87.9236
 1.5170	87.9876
 1.5160	87.9976
 1.5150	87.9822
 1.5140	87.9618
 1.5130	87.9524
 1.5120	87.9849
 1.5110	88.0099
 1.5100	87.9441
 1.5090	87.8931
 1.5080	87.9544
 1.5070	87.9462
 1.5060	87.9057
 1.5050	87.8856
 1.5040	87.8919
 1.5030	87.8534
 1.5020	87.7964
 1.5010	87.7711
 1.5000	87.8438
 1.4990	87.8992
 1.4980	87.8812
 1.4970	87.8712
 1.4960	87.8417
 1.4950	87.8235
 1.4940	87.8213
 1.4930	87.7591
 1.4920	87.7425
 1.4910	87.7875
 1.4900	87.8124
 1.4890	87.8182
 1.4880	87.7583
 1.4870	87.7051
 1.4860	87.7246
 1.4850	87.7430
 1.4840	87.8012
 1.4830	87.7958
 1.4820	87.7387
 1.4810	87.6992
 1.4800	87.7012
 1.4790	87.7032
 1.4780	87.7379
 1.4770	87.7288
 1.4760	87.7017
 1.4750	87.6864
 1.4740	87.7068
 1.4730	87.7291
 1.4720	87.6629
 1.4710	87.6800
 1.4700	87.7141
 1.4690	87.6799
 1.4680	87.6391
 1.4670	87.6731
 1.4660	87.6670
 1.4650	87.6507
 1.4640	87.6272
 1.4630	87.7190
 1.4620	87.6846
 1.4610	87.6365
 1.4600	87.6792
 1.4590	87.7123
 1.4580	87.6707
 1.4570	87.6475
 1.4560	87.5819
 1.4550	87.6245
 1.4540	87.6691
 1.4530	87.6358
 1.4520	87.6197
 1.4510	87.6192
 1.4500	87.6441
 1.4490	87.6034
 1.4480	87.6125
 1.4470	87.6668
 1.4460	87.6226
 1.4450	87.6665
 1.4440	87.6577
 1.4430	87.6619
 1.4420	87.6308
 1.4410	87.6383
 1.4400	87.6850
 1.4390	87.6778
 1.4380	87.7036
 1.4370	87.6729
 1.4360	87.6569
 1.4350	87.6660
 1.4340	87.7362
 1.4330	87.7024
 1.4320	87.7091
 1.4310	87.6614
 1.4300	87.6835
 1.4290	87.6941
 1.4280	87.7170
 1.4270	87.7458
 1.4260	87.7620
 1.4250	87.7025
 1.4240	87.7010
 1.4230	87.7638
 1.4220	87.7609
 1.4210	87.7168
 1.4200	87.7533
 1.4190	87.7562
 1.4180	87.7571
 1.4170	87.7607
 1.4160	87.8302
 1.4150	87.8510
 1.4140	87.8466
 1.4130	87.8550
 1.4120	87.8341
 1.4110	87.8634
 1.4100	87.9209
 1.4090	87.8213
 1.4080	87.9656
 1.4070	87.9512
 1.4060	87.9527
 1.4050	87.9419
 1.4040	87.9708
 1.4030	87.9528
 1.4020	88.0621
 1.4010	88.0284
 1.4000	88.0270
 1.3990	88.1135
 1.3980	88.1605
 1.3970	88.0873
 1.3960	88.2037
 1.3950	88.0891
 1.3940	88.1315
 1.3930	88.1909
 1.3920	88.2171
 1.3910	88.2262
 1.3900	88.2156
 1.3890	88.2505
 1.3880	88.2389
 1.3870	88.2746
 1.3860	88.3126
 1.3850	88.3166
 1.3840	88.3057
 1.3830	88.2998
 1.3820	88.2683
 1.3810	88.2641
 1.3800	88.2744
 1.3790	88.2591
 1.3780	88.3261
 1.3770	88.2462
 1.3760	88.3297
 1.3750	88.2944
 1.3740	88.2516
 1.3730	88.2536
 1.3720	88.3040
 1.3710	88.3032
 1.3700	88.3946
 1.3690	88.3709
 1.3680	88.4248
 1.3670	88.4004
 1.3660	88.3526
 1.3650	88.3158
