Name: Cookeite LiAl_4(Si_3Al)O_10(OH)_8
Type: Mineral
Class: Silicate
Subclass: Phyllosilicate
Particle Size: Fine
Sample No.: PS-9A
Owner: JPL
Wavelength Range: VSWIR
Origin: USA, Arkansas, Pulaski County.
Collection Date: N/A
Description: Particle size was 0-45um.Collected by:  JPL Original ASTER Spectral Library name was jpl.perkin.mineral.silicate.phyllosilicate.fine.ps09a.spectrum.txt
Measurement: Hemispherical reflectance
First Column: X
Second Column: Y
X Units: Wavelength (micrometers)
Y Units:Reflectance (percent)
First X Value:  2.5000
Last X Value:  0.4000
Number of X Values: 2101
Additional Information: mineral.silicate.phyllosilicate.fine.vswir.ps-9a.jpl.perkin.ancillary.txt

 2.5000	38.4152
 2.4990	38.2112
 2.4980	38.4978
 2.4970	38.3969
 2.4960	38.2879
 2.4950	38.3674
 2.4940	38.3761
 2.4930	38.2613
 2.4920	38.4916
 2.4910	38.4300
 2.4900	38.4347
 2.4890	38.4045
 2.4880	38.4438
 2.4870	38.3202
 2.4860	38.5175
 2.4850	38.5301
 2.4840	38.6351
 2.4830	38.5342
 2.4820	38.6683
 2.4810	38.4522
 2.4800	38.6511
 2.4790	38.4882
 2.4780	38.9126
 2.4770	38.6531
 2.4760	38.7384
 2.4750	38.7866
 2.4740	38.8696
 2.4730	38.7462
 2.4720	39.0729
 2.4710	38.7267
 2.4700	38.8603
 2.4690	38.8130
 2.4680	39.0856
 2.4670	38.9685
 2.4660	39.0697
 2.4650	39.0079
 2.4640	39.0133
 2.4630	38.9080
 2.4620	39.1217
 2.4610	39.0131
 2.4600	39.1795
 2.4590	39.0022
 2.4580	39.0585
 2.4570	39.1351
 2.4560	39.1567
 2.4550	39.0493
 2.4540	39.0839
 2.4530	39.1198
 2.4520	39.2480
 2.4510	39.0521
 2.4500	39.1014
 2.4490	39.0217
 2.4480	39.1963
 2.4470	39.1307
 2.4460	39.1051
 2.4450	39.0288
 2.4440	39.0752
 2.4430	39.0181
 2.4420	39.0370
 2.4410	39.0848
 2.4400	39.1261
 2.4390	39.0608
 2.4380	39.1618
 2.4370	39.0686
 2.4360	39.2443
 2.4350	39.1542
 2.4340	39.2668
 2.4330	39.2729
 2.4320	39.3290
 2.4310	39.2629
 2.4300	39.4314
 2.4290	39.3081
 2.4280	39.3596
 2.4270	39.4259
 2.4260	39.5299
 2.4250	39.4484
 2.4240	39.5723
 2.4230	39.5096
 2.4220	39.6020
 2.4210	39.6112
 2.4200	39.6343
 2.4190	39.5801
 2.4180	39.6450
 2.4170	39.7075
 2.4160	39.8408
 2.4150	39.7426
 2.4140	39.8148
 2.4130	39.7517
 2.4120	39.7509
 2.4110	39.8044
 2.4100	39.8060
 2.4090	39.7753
 2.4080	39.8284
 2.4070	39.8038
 2.4060	39.8258
 2.4050	39.8105
 2.4040	39.7914
 2.4030	39.7715
 2.4020	39.7986
 2.4010	39.8095
 2.4000	39.7967
 2.3990	39.7834
 2.3980	39.7527
 2.3970	39.6929
 2.3960	39.7306
 2.3950	39.6728
 2.3940	39.7358
 2.3930	39.6790
 2.3920	39.6712
 2.3910	39.6762
 2.3900	39.6700
 2.3890	39.5465
 2.3880	39.5268
 2.3870	39.5622
 2.3860	39.5452
 2.3850	39.4222
 2.3840	39.3369
 2.3830	39.3390
 2.3820	39.3801
 2.3810	39.3135
 2.3800	39.2782
 2.3790	39.1781
 2.3780	39.1663
 2.3770	39.1138
 2.3760	39.0515
 2.3750	39.0455
 2.3740	39.0357
 2.3730	38.9220
 2.3720	38.8730
 2.3710	38.8649
 2.3700	38.7979
 2.3690	38.7354
 2.3680	38.7523
 2.3670	38.7507
 2.3660	38.7070
 2.3650	38.6774
 2.3640	38.6628
 2.3630	38.6221
 2.3620	38.6454
 2.3610	38.6329
 2.3600	38.6233
 2.3590	38.6692
 2.3580	38.7004
 2.3570	38.6974
 2.3560	38.7188
 2.3550	38.7677
 2.3540	38.8253
 2.3530	38.8284
 2.3520	38.8447
 2.3510	38.9965
 2.3500	39.0875
 2.3490	39.1197
 2.3480	39.2233
 2.3470	39.3176
 2.3460	39.4200
 2.3450	39.5129
 2.3440	39.5436
 2.3430	39.6950
 2.3420	39.8112
 2.3410	39.8539
 2.3400	39.8903
 2.3390	39.9703
 2.3380	40.0145
 2.3370	40.1141
 2.3360	40.2358
 2.3350	40.3259
 2.3340	40.3734
 2.3330	40.4927
 2.3320	40.5646
 2.3310	40.5754
 2.3300	40.6147
 2.3290	40.7291
 2.3280	40.7767
 2.3270	40.8455
 2.3260	40.8512
 2.3250	40.9194
 2.3240	40.9615
 2.3230	41.0293
 2.3220	41.0839
 2.3210	41.1624
 2.3200	41.1995
 2.3190	41.2693
 2.3180	41.2896
 2.3170	41.3287
 2.3160	41.3649
 2.3150	41.4955
 2.3140	41.5170
 2.3130	41.5711
 2.3120	41.5904
 2.3110	41.6661
 2.3100	41.6696
 2.3090	41.7556
 2.3080	41.7812
 2.3070	41.8930
 2.3060	41.8815
 2.3050	42.0001
 2.3040	42.0087
 2.3030	42.1001
 2.3020	42.0795
 2.3010	42.0910
 2.3000	42.1449
 2.2990	42.2177
 2.2980	42.2531
 2.2970	42.3129
 2.2960	42.3439
 2.2950	42.3827
 2.2940	42.3843
 2.2930	42.4194
 2.2920	42.3976
 2.2910	42.4527
 2.2900	42.5070
 2.2890	42.5854
 2.2880	42.4902
 2.2870	42.5943
 2.2860	42.5048
 2.2850	42.5566
 2.2840	42.5147
 2.2830	42.6369
 2.2820	42.6092
 2.2810	42.5548
 2.2800	42.6193
 2.2790	42.6639
 2.2780	42.5737
 2.2770	42.6377
 2.2760	42.6416
 2.2750	42.6258
 2.2740	42.5561
 2.2730	42.5434
 2.2720	42.4470
 2.2710	42.5269
 2.2700	42.5335
 2.2690	42.5276
 2.2680	42.4731
 2.2670	42.4790
 2.2660	42.3779
 2.2650	42.3774
 2.2640	42.3397
 2.2630	42.3919
 2.2620	42.3170
 2.2610	42.2843
 2.2600	42.2905
 2.2590	42.2456
 2.2580	42.1781
 2.2570	42.2282
 2.2560	42.1262
 2.2550	42.1236
 2.2540	42.1494
 2.2530	42.1865
 2.2520	42.0351
 2.2510	42.1580
 2.2500	41.9861
 2.2490	42.0518
 2.2480	42.0230
 2.2470	42.0797
 2.2460	42.0602
 2.2450	42.1506
 2.2440	42.0018
 2.2430	42.1014
 2.2420	41.9046
 2.2410	42.0808
 2.2400	41.9799
 2.2390	42.0857
 2.2380	41.9193
 2.2370	41.9936
 2.2360	41.9503
 2.2350	41.9678
 2.2340	41.9599
 2.2330	42.0074
 2.2320	41.8373
 2.2310	41.9353
 2.2300	41.7785
 2.2290	41.9061
 2.2280	41.6933
 2.2270	41.7387
 2.2260	41.5892
 2.2250	41.5997
 2.2240	41.4291
 2.2230	41.4390
 2.2220	41.3753
 2.2210	41.3874
 2.2200	41.1400
 2.2190	41.2149
 2.2180	41.1123
 2.2170	41.0339
 2.2160	40.9680
 2.2150	40.9704
 2.2140	40.8440
 2.2130	40.8874
 2.2120	40.8435
 2.2110	40.8247
 2.2100	40.7501
 2.2090	40.8587
 2.2080	40.8353
 2.2070	40.8954
 2.2060	40.9077
 2.2050	41.0275
 2.2040	40.9458
 2.2030	41.0849
 2.2020	40.9794
 2.2010	41.1143
 2.2000	41.0877
 2.1990	41.1251
 2.1980	41.0423
 2.1970	41.0837
 2.1960	41.1024
 2.1950	41.1571
 2.1940	41.0644
 2.1930	41.0763
 2.1920	41.0317
 2.1910	41.0015
 2.1900	40.9796
 2.1890	41.0048
 2.1880	40.9093
 2.1870	41.0099
 2.1860	40.9359
 2.1850	41.0211
 2.1840	40.9324
 2.1830	41.0339
 2.1820	40.9559
 2.1810	41.0532
 2.1800	41.0702
 2.1790	41.1744
 2.1780	41.1049
 2.1770	41.2512
 2.1760	41.3108
 2.1750	41.3943
 2.1740	41.4012
 2.1730	41.5615
 2.1720	41.5825
 2.1710	41.8323
 2.1700	41.8087
 2.1690	42.0629
 2.1680	42.0569
 2.1670	42.2678
 2.1660	42.2632
 2.1650	42.5495
 2.1640	42.6332
 2.1630	42.7852
 2.1620	42.9518
 2.1610	43.1440
 2.1600	43.1484
 2.1590	43.3601
 2.1580	43.5597
 2.1570	43.6843
 2.1560	43.8101
 2.1550	43.9298
 2.1540	44.0038
 2.1530	44.1880
 2.1520	44.3190
 2.1510	44.3844
 2.1500	44.4846
 2.1490	44.6551
 2.1480	44.6446
 2.1470	44.7294
 2.1460	44.7139
 2.1450	44.8005
 2.1440	44.8529
 2.1430	44.9944
 2.1420	44.9558
 2.1410	44.9751
 2.1400	45.0264
 2.1390	45.0857
 2.1380	45.0184
 2.1370	45.1069
 2.1360	45.1385
 2.1350	45.1729
 2.1340	45.1173
 2.1330	45.1443
 2.1320	45.1183
 2.1310	45.1745
 2.1300	45.1061
 2.1290	45.1728
 2.1280	45.1794
 2.1270	45.1673
 2.1260	45.1300
 2.1250	45.1340
 2.1240	45.1094
 2.1230	45.0642
 2.1220	44.9927
 2.1210	45.0081
 2.1200	44.9262
 2.1190	44.9604
 2.1180	44.9428
 2.1170	44.9696
 2.1160	44.9659
 2.1150	44.9309
 2.1140	44.8892
 2.1130	44.8787
 2.1120	44.8175
 2.1110	44.8093
 2.1100	44.7454
 2.1090	44.7330
 2.1080	44.7006
 2.1070	44.7342
 2.1060	44.7012
 2.1050	44.6868
 2.1040	44.6039
 2.1030	44.6290
 2.1020	44.6438
 2.1010	44.6423
 2.1000	44.6177
 2.0990	44.5986
 2.0980	44.5945
 2.0970	44.6164
 2.0960	44.6055
 2.0950	44.6252
 2.0940	44.6251
 2.0930	44.6399
 2.0920	44.6245
 2.0910	44.6959
 2.0900	44.7025
 2.0890	44.6815
 2.0880	44.6569
 2.0870	44.6445
 2.0860	44.6552
 2.0850	44.7467
 2.0840	44.7687
 2.0830	44.7250
 2.0820	44.7747
 2.0810	44.7973
 2.0800	44.7852
 2.0790	44.7429
 2.0780	44.7526
 2.0770	44.8511
 2.0760	44.8527
 2.0750	44.8179
 2.0740	44.7900
 2.0730	44.8067
 2.0720	44.8588
 2.0710	44.8399
 2.0700	44.8499
 2.0690	44.9082
 2.0680	44.8637
 2.0670	44.8708
 2.0660	44.9136
 2.0650	44.9080
 2.0640	44.9093
 2.0630	44.9155
 2.0620	44.8931
 2.0610	44.8231
 2.0600	44.8323
 2.0590	44.8388
 2.0580	44.8780
 2.0570	44.8779
 2.0560	44.8397
 2.0550	44.8531
 2.0540	44.8998
 2.0530	44.8955
 2.0520	44.9237
 2.0510	44.8617
 2.0500	44.8425
 2.0490	44.9034
 2.0480	44.9295
 2.0470	44.9312
 2.0460	44.9248
 2.0450	44.9087
 2.0440	44.8988
 2.0430	44.8886
 2.0420	44.9139
 2.0410	44.9125
 2.0400	44.8695
 2.0390	44.8707
 2.0380	44.9125
 2.0370	44.9238
 2.0360	44.8763
 2.0350	44.8262
 2.0340	44.8228
 2.0330	44.8277
 2.0320	44.8832
 2.0310	44.9074
 2.0300	44.9551
 2.0290	44.8775
 2.0280	44.8871
 2.0270	44.8181
 2.0260	44.8759
 2.0250	44.9094
 2.0240	44.8713
 2.0230	44.8229
 2.0220	44.8823
 2.0210	44.8815
 2.0200	44.9068
 2.0190	44.8915
 2.0180	44.9139
 2.0170	44.8775
 2.0160	44.8821
 2.0150	44.8397
 2.0140	44.9049
 2.0130	44.8917
 2.0120	44.9036
 2.0110	44.8344
 2.0100	44.8617
 2.0090	44.8814
 2.0080	44.9524
 2.0070	44.8430
 2.0060	44.9006
 2.0050	44.9410
 2.0040	44.8711
 2.0030	44.8648
 2.0020	44.9596
 2.0010	44.9255
 2.0000	44.9220
 1.9990	44.8766
 1.9980	44.9464
 1.9970	44.9351
 1.9960	44.9138
 1.9950	44.8848
 1.9940	44.9090
 1.9930	44.9029
 1.9920	44.8591
 1.9910	44.8949
 1.9900	44.9137
 1.9890	44.8824
 1.9880	44.9176
 1.9870	44.9108
 1.9860	44.9231
 1.9850	44.8741
 1.9840	44.8758
 1.9830	44.7951
 1.9820	44.8692
 1.9810	44.8406
 1.9800	44.9343
 1.9790	44.8431
 1.9780	44.9191
 1.9770	44.8584
 1.9760	44.9357
 1.9750	44.8423
 1.9740	44.9274
 1.9730	44.8563
 1.9720	44.9183
 1.9710	44.9161
 1.9700	44.9717
 1.9690	44.8841
 1.9680	44.9279
 1.9670	44.8830
 1.9660	44.9507
 1.9650	44.8202
 1.9640	44.9058
 1.9630	44.9063
 1.9620	44.9293
 1.9610	44.8503
 1.9600	44.9255
 1.9590	44.8618
 1.9580	44.8671
 1.9570	44.8403
 1.9560	44.9216
 1.9550	44.8825
 1.9540	44.8948
 1.9530	44.8574
 1.9520	44.8944
 1.9510	44.9141
 1.9500	44.9507
 1.9490	44.8533
 1.9480	44.9186
 1.9470	44.8893
 1.9460	44.8754
 1.9450	44.8064
 1.9440	44.8856
 1.9430	44.8046
 1.9420	44.8933
 1.9410	44.8400
 1.9400	44.8751
 1.9390	44.8626
 1.9380	44.8608
 1.9370	44.9800
 1.9360	44.8715
 1.9350	44.8381
 1.9340	44.9895
 1.9330	44.9559
 1.9320	44.9362
 1.9310	44.9306
 1.9300	45.0013
 1.9290	44.9007
 1.9280	45.0474
 1.9270	44.9840
 1.9260	44.7949
 1.9250	44.9834
 1.9240	44.9920
 1.9230	44.9042
 1.9220	45.0530
 1.9210	45.0029
 1.9200	45.0771
 1.9190	44.9681
 1.9180	45.0602
 1.9170	44.9840
 1.9160	45.0273
 1.9150	45.0456
 1.9140	45.1306
 1.9130	45.0068
 1.9120	45.0089
 1.9110	45.0015
 1.9100	45.1233
 1.9090	45.0985
 1.9080	45.1355
 1.9070	45.0332
 1.9060	45.1611
 1.9050	45.1602
 1.9040	45.2495
 1.9030	45.1821
 1.9020	45.3166
 1.9010	45.2310
 1.9000	45.3315
 1.8990	45.3435
 1.8980	45.4008
 1.8970	45.4165
 1.8960	45.5144
 1.8950	45.4172
 1.8940	45.6091
 1.8930	45.5700
 1.8920	45.5735
 1.8910	45.6188
 1.8900	45.6840
 1.8890	45.6274
 1.8880	45.6645
 1.8870	45.7298
 1.8860	45.8048
 1.8850	45.7300
 1.8840	45.7717
 1.8830	45.7683
 1.8820	45.8604
 1.8810	45.7450
 1.8800	45.7972
 1.8790	45.7625
 1.8780	45.8708
 1.8770	45.8021
 1.8760	45.8166
 1.8750	45.7880
 1.8740	45.8539
 1.8730	45.7583
 1.8720	45.8563
 1.8710	45.8857
 1.8700	45.9487
 1.8690	45.9465
 1.8680	45.9323
 1.8670	45.9170
 1.8660	45.9798
 1.8650	46.0156
 1.8640	45.9685
 1.8630	45.9190
 1.8620	45.9800
 1.8610	45.9086
 1.8600	45.9624
 1.8590	45.9101
 1.8580	45.9946
 1.8570	45.9372
 1.8560	45.9948
 1.8550	45.9388
 1.8540	45.9567
 1.8530	45.9498
 1.8520	45.9889
 1.8510	45.8903
 1.8500	45.8887
 1.8490	45.8772
 1.8480	45.9325
 1.8470	45.8771
 1.8460	45.8970
 1.8450	45.8955
 1.8440	45.9108
 1.8430	45.8151
 1.8420	45.8432
 1.8410	45.8408
 1.8400	45.8685
 1.8390	45.8254
 1.8380	45.8235
 1.8370	45.7988
 1.8360	45.8626
 1.8350	45.8452
 1.8340	45.8820
 1.8330	45.8482
 1.8320	45.9050
 1.8310	45.9172
 1.8300	45.9386
 1.8290	45.8906
 1.8280	45.8982
 1.8270	45.8796
 1.8260	45.9255
 1.8250	45.9003
 1.8240	45.9127
 1.8230	45.8732
 1.8220	45.9346
 1.8210	45.9469
 1.8200	45.9407
 1.8190	45.9535
 1.8180	45.9617
 1.8170	45.9287
 1.8160	45.9662
 1.8150	45.9854
 1.8140	45.9571
 1.8130	45.9469
 1.8120	45.9951
 1.8110	45.9813
 1.8100	46.0081
 1.8090	46.0244
 1.8080	46.0251
 1.8070	46.0357
 1.8060	46.0458
 1.8050	46.0164
 1.8040	46.0565
 1.8030	46.0626
 1.8020	46.0703
 1.8010	46.0205
 1.8000	46.0460
 1.7990	46.0400
 1.7980	46.0562
 1.7970	46.0501
 1.7960	46.0510
 1.7950	46.0464
 1.7940	46.0379
 1.7930	46.0380
 1.7920	46.0311
 1.7910	46.0419
 1.7900	46.0709
 1.7890	46.0601
 1.7880	46.0733
 1.7870	46.1165
 1.7860	46.0910
 1.7850	46.0592
 1.7840	46.1112
 1.7830	46.0588
 1.7820	46.0505
 1.7810	46.1154
 1.7800	46.0809
 1.7790	46.0329
 1.7780	46.0388
 1.7770	46.0818
 1.7760	46.1063
 1.7750	46.0790
 1.7740	46.0818
 1.7730	46.1458
 1.7720	46.1325
 1.7710	46.1092
 1.7700	46.1099
 1.7690	46.1369
 1.7680	46.1342
 1.7670	46.1015
 1.7660	46.0493
 1.7650	46.0934
 1.7640	46.0540
 1.7630	46.0776
 1.7620	46.1306
 1.7610	46.1581
 1.7600	46.1156
 1.7590	46.1310
 1.7580	46.1306
 1.7570	46.0943
 1.7560	46.1355
 1.7550	46.1521
 1.7540	46.1007
 1.7530	46.1158
 1.7520	46.1057
 1.7510	46.1213
 1.7500	46.0780
 1.7490	46.0973
 1.7480	46.0992
 1.7470	46.1721
 1.7460	46.1582
 1.7450	46.1425
 1.7440	46.1369
 1.7430	46.1655
 1.7420	46.1306
 1.7410	46.1087
 1.7400	46.0706
 1.7390	46.1801
 1.7380	46.1882
 1.7370	46.1920
 1.7360	46.1981
 1.7350	46.1737
 1.7340	46.1743
 1.7330	46.1892
 1.7320	46.2470
 1.7310	46.2480
 1.7300	46.1857
 1.7290	46.2122
 1.7280	46.1748
 1.7270	46.2018
 1.7260	46.1754
 1.7250	46.1907
 1.7240	46.1680
 1.7230	46.1693
 1.7220	46.1380
 1.7210	46.1293
 1.7200	46.1546
 1.7190	46.1850
 1.7180	46.0829
 1.7170	46.1531
 1.7160	46.1871
 1.7150	46.1594
 1.7140	46.1708
 1.7130	46.2334
 1.7120	46.1103
 1.7110	46.1112
 1.7100	46.1184
 1.7090	46.1869
 1.7080	46.1636
 1.7070	46.2075
 1.7060	46.1320
 1.7050	46.1760
 1.7040	46.1215
 1.7030	46.1229
 1.7020	46.0355
 1.7010	46.1241
 1.7000	46.0445
 1.6990	46.1687
 1.6980	46.1221
 1.6970	46.1227
 1.6960	46.0599
 1.6950	46.1158
 1.6940	46.0695
 1.6930	46.0774
 1.6920	46.0565
 1.6910	46.0709
 1.6900	46.0400
 1.6890	46.1349
 1.6880	46.0262
 1.6870	46.0296
 1.6860	46.0859
 1.6850	46.0583
 1.6840	46.0692
 1.6830	46.1147
 1.6820	46.1060
 1.6810	46.0788
 1.6800	46.0397
 1.6790	46.0653
 1.6780	45.9668
 1.6770	46.0873
 1.6760	45.9582
 1.6750	46.0338
 1.6740	46.0487
 1.6730	46.0572
 1.6720	46.0188
 1.6710	46.0851
 1.6700	46.0240
 1.6690	46.0054
 1.6680	45.8114
 1.6670	46.1050
 1.6660	45.9834
 1.6650	46.0543
 1.6640	45.9671
 1.6630	46.0221
 1.6620	45.9598
 1.6610	45.9994
 1.6600	45.9914
 1.6590	46.0068
 1.6580	45.9853
 1.6570	46.0145
 1.6560	46.0150
 1.6550	46.0095
 1.6540	45.9505
 1.6530	45.9929
 1.6520	45.8899
 1.6510	46.0175
 1.6500	45.9025
 1.6490	46.0273
 1.6480	45.8695
 1.6470	45.9374
 1.6460	45.8937
 1.6450	45.9880
 1.6440	45.9034
 1.6430	45.9105
 1.6420	45.9275
 1.6410	45.8033
 1.6400	45.8546
 1.6390	45.8906
 1.6380	45.8326
 1.6370	45.9542
 1.6360	45.9039
 1.6350	45.9332
 1.6340	45.8502
 1.6330	45.9007
 1.6320	45.8237
 1.6310	45.8423
 1.6300	45.7906
 1.6290	45.8391
 1.6280	45.8519
 1.6270	45.8134
 1.6260	45.7465
 1.6250	45.7754
 1.6240	45.7456
 1.6230	45.8173
 1.6220	45.7942
 1.6210	45.8365
 1.6200	45.7298
 1.6190	45.8366
 1.6180	45.7909
 1.6170	45.8470
 1.6160	45.8254
 1.6150	45.7472
 1.6140	45.8123
 1.6130	45.7537
 1.6120	45.7799
 1.6110	45.7949
 1.6100	45.7684
 1.6090	45.8665
 1.6080	45.7877
 1.6070	45.8376
 1.6060	45.7231
 1.6050	45.7616
 1.6040	45.7149
 1.6030	45.7253
 1.6020	45.7388
 1.6010	45.7499
 1.6000	45.6833
 1.5990	45.7419
 1.5980	45.7123
 1.5970	45.8192
 1.5960	45.7323
 1.5950	45.7374
 1.5940	45.6830
 1.5930	45.7641
 1.5920	45.6230
 1.5910	45.7398
 1.5900	45.6440
 1.5890	45.6978
 1.5880	45.6373
 1.5870	45.7428
 1.5860	45.6467
 1.5850	45.7143
 1.5840	45.6945
 1.5830	45.7571
 1.5820	45.7167
 1.5810	45.7049
 1.5800	45.6721
 1.5790	45.7153
 1.5780	45.6431
 1.5770	45.7028
 1.5760	45.6922
 1.5750	45.7202
 1.5740	45.6647
 1.5730	45.6973
 1.5720	45.6593
 1.5710	45.7035
 1.5700	45.6621
 1.5690	45.7433
 1.5680	45.6990
 1.5670	45.6516
 1.5660	45.7085
 1.5650	45.7340
 1.5640	45.6675
 1.5630	45.7221
 1.5620	45.7010
 1.5610	45.6995
 1.5600	45.6940
 1.5590	45.7601
 1.5580	45.7175
 1.5570	45.7085
 1.5560	45.7053
 1.5550	45.8032
 1.5540	45.7667
 1.5530	45.7847
 1.5520	45.7861
 1.5510	45.7669
 1.5500	45.7381
 1.5490	45.7644
 1.5480	45.7300
 1.5470	45.7638
 1.5460	45.6947
 1.5450	45.7599
 1.5440	45.7610
 1.5430	45.7973
 1.5420	45.7259
 1.5410	45.7478
 1.5400	45.7082
 1.5390	45.7656
 1.5380	45.7301
 1.5370	45.7601
 1.5360	45.8175
 1.5350	45.7987
 1.5340	45.7162
 1.5330	45.7382
 1.5320	45.7284
 1.5310	45.7947
 1.5300	45.7464
 1.5290	45.7649
 1.5280	45.7686
 1.5270	45.7934
 1.5260	45.7650
 1.5250	45.7728
 1.5240	45.7288
 1.5230	45.7626
 1.5220	45.7385
 1.5210	45.7366
 1.5200	45.7101
 1.5190	45.6983
 1.5180	45.7618
 1.5170	45.8057
 1.5160	45.7712
 1.5150	45.7352
 1.5140	45.6873
 1.5130	45.7320
 1.5120	45.7476
 1.5110	45.7463
 1.5100	45.7016
 1.5090	45.6868
 1.5080	45.6998
 1.5070	45.6839
 1.5060	45.6650
 1.5050	45.7015
 1.5040	45.7093
 1.5030	45.6604
 1.5020	45.6087
 1.5010	45.5911
 1.5000	45.5937
 1.4990	45.6200
 1.4980	45.6251
 1.4970	45.6178
 1.4960	45.6108
 1.4950	45.5884
 1.4940	45.5753
 1.4930	45.6039
 1.4920	45.5540
 1.4910	45.5097
 1.4900	45.5268
 1.4890	45.4864
 1.4880	45.5146
 1.4870	45.5040
 1.4860	45.4813
 1.4850	45.4814
 1.4840	45.4615
 1.4830	45.4336
 1.4820	45.4648
 1.4810	45.4817
 1.4800	45.5024
 1.4790	45.4419
 1.4780	45.4418
 1.4770	45.4308
 1.4760	45.4264
 1.4750	45.4138
 1.4740	45.4137
 1.4730	45.3914
 1.4720	45.3941
 1.4710	45.3656
 1.4700	45.4033
 1.4690	45.4055
 1.4680	45.4034
 1.4670	45.3524
 1.4660	45.4080
 1.4650	45.3931
 1.4640	45.4003
 1.4630	45.4163
 1.4620	45.3740
 1.4610	45.3458
 1.4600	45.4208
 1.4590	45.3642
 1.4580	45.4103
 1.4570	45.3748
 1.4560	45.4141
 1.4550	45.3388
 1.4540	45.3960
 1.4530	45.4029
 1.4520	45.4031
 1.4510	45.2805
 1.4500	45.2975
 1.4490	45.2775
 1.4480	45.3277
 1.4470	45.2787
 1.4460	45.3236
 1.4450	45.2627
 1.4440	45.2685
 1.4430	45.2944
 1.4420	45.2791
 1.4410	45.1978
 1.4400	45.2409
 1.4390	45.2692
 1.4380	45.2361
 1.4370	45.1820
 1.4360	45.1991
 1.4350	45.1598
 1.4340	45.1842
 1.4330	45.0824
 1.4320	45.1070
 1.4310	45.0472
 1.4300	45.0828
 1.4290	45.0210
 1.4280	45.0772
 1.4270	44.9807
 1.4260	45.0133
 1.4250	44.9577
 1.4240	45.0099
 1.4230	45.0254
 1.4220	45.0479
 1.4210	44.9582
 1.4200	44.9426
 1.4190	44.8126
 1.4180	44.6927
 1.4170	44.5055
 1.4160	44.4823
 1.4150	44.3774
 1.4140	44.3551
 1.4130	44.2647
 1.4120	44.2228
 1.4110	44.2202
 1.4100	44.2236
 1.4090	44.0257
 1.4080	44.0319
 1.4070	43.8775
 1.4060	43.8306
 1.4050	43.7726
 1.4040	43.8165
 1.4030	43.7595
 1.4020	43.8807
 1.4010	43.8592
 1.4000	43.9832
 1.3990	43.9435
 1.3980	44.1423
 1.3970	44.1553
 1.3960	44.2470
 1.3950	44.2464
 1.3940	44.3798
 1.3930	44.4808
 1.3920	44.5651
 1.3910	44.5610
 1.3900	44.7389
 1.3890	44.7912
 1.3880	44.9088
 1.3870	44.9136
 1.3860	45.0633
 1.3850	45.1225
 1.3840	45.2594
 1.3830	45.2332
 1.3820	45.3335
 1.3810	45.4444
 1.3800	45.5280
 1.3790	45.4442
 1.3780	45.5746
 1.3770	45.5342
 1.3760	45.5981
 1.3750	45.5471
 1.3740	45.5344
 1.3730	45.6096
 1.3720	45.6042
 1.3710	45.5832
 1.3700	45.6496
 1.3690	45.6090
 1.3680	45.7268
 1.3670	45.5931
