Name: Fayalite Fe_2SiO_4
Type: Mineral
Class: Silicate
Subclass: Nesosilicate
Particle Size: Fine
Sample No.: NS-1A
Owner: JPL
Wavelength Range: VSWIR
Origin: None.
Collection Date: N/A
Description: Particle size was 0-45um.Collected by:  JPL Original ASTER Spectral Library name was jpl.perkin.mineral.silicate.nesosilicate.fine.ns01a.spectrum.txt
Measurement: Hemispherical reflectance
First Column: X
Second Column: Y
X Units: Wavelength (micrometers)
Y Units:Reflectance (percent)
First X Value:  2.5000
Last X Value:  0.4000
Number of X Values: 2101
Additional Information: mineral.silicate.nesosilicate.fine.vswir.ns-1a.jpl.perkin.ancillary.txt

 2.5000	15.8605
 2.4990	15.7435
 2.4980	15.8344
 2.4970	16.0683
 2.4960	15.5716
 2.4950	16.1602
 2.4940	15.7545
 2.4930	16.0551
 2.4920	15.8490
 2.4910	16.0207
 2.4900	15.8138
 2.4890	15.8792
 2.4880	15.8232
 2.4870	16.0928
 2.4860	15.7254
 2.4850	15.9298
 2.4840	15.8579
 2.4830	16.0782
 2.4820	15.9231
 2.4810	16.1378
 2.4800	15.8919
 2.4790	16.1041
 2.4780	15.9846
 2.4770	15.9763
 2.4760	16.0070
 2.4750	16.1108
 2.4740	15.9833
 2.4730	16.1425
 2.4720	15.9535
 2.4710	16.1661
 2.4700	16.1420
 2.4690	16.2396
 2.4680	16.1192
 2.4670	16.0684
 2.4660	16.0950
 2.4650	16.2169
 2.4640	16.1330
 2.4630	16.2927
 2.4620	16.1198
 2.4610	16.1885
 2.4600	16.2512
 2.4590	16.2796
 2.4580	16.1014
 2.4570	16.2117
 2.4560	16.1719
 2.4550	16.2909
 2.4540	16.1806
 2.4530	16.2985
 2.4520	16.2418
 2.4510	16.2347
 2.4500	16.2660
 2.4490	16.3078
 2.4480	16.1790
 2.4470	16.2853
 2.4460	16.1887
 2.4450	16.2579
 2.4440	16.3107
 2.4430	16.3599
 2.4420	16.2619
 2.4410	16.3131
 2.4400	16.2509
 2.4390	16.3988
 2.4380	16.2046
 2.4370	16.3103
 2.4360	16.2884
 2.4350	16.3438
 2.4340	16.3066
 2.4330	16.3723
 2.4320	16.3390
 2.4310	16.4466
 2.4300	16.2984
 2.4290	16.4336
 2.4280	16.3220
 2.4270	16.4283
 2.4260	16.3399
 2.4250	16.4379
 2.4240	16.3222
 2.4230	16.4013
 2.4220	16.3290
 2.4210	16.4928
 2.4200	16.4997
 2.4190	16.4966
 2.4180	16.4585
 2.4170	16.5073
 2.4160	16.4542
 2.4150	16.5792
 2.4140	16.4687
 2.4130	16.5127
 2.4120	16.5137
 2.4110	16.5769
 2.4100	16.5829
 2.4090	16.6142
 2.4080	16.5776
 2.4070	16.5718
 2.4060	16.5720
 2.4050	16.6740
 2.4040	16.6560
 2.4030	16.6663
 2.4020	16.5982
 2.4010	16.7182
 2.4000	16.7143
 2.3990	16.8143
 2.3980	16.7308
 2.3970	16.7840
 2.3960	16.7672
 2.3950	16.7247
 2.3940	16.7387
 2.3930	16.8249
 2.3920	16.7919
 2.3910	16.8414
 2.3900	16.8725
 2.3890	16.8595
 2.3880	16.8728
 2.3870	16.9652
 2.3860	16.8683
 2.3850	16.8768
 2.3840	16.9319
 2.3830	16.9166
 2.3820	16.9036
 2.3810	16.9571
 2.3800	16.9441
 2.3790	16.9838
 2.3780	17.0179
 2.3770	17.0614
 2.3760	17.0193
 2.3750	16.9900
 2.3740	17.0105
 2.3730	17.0828
 2.3720	17.0446
 2.3710	17.0461
 2.3700	17.0526
 2.3690	17.0717
 2.3680	17.0386
 2.3670	17.0770
 2.3660	17.0757
 2.3650	17.0374
 2.3640	17.0237
 2.3630	17.0535
 2.3620	17.0799
 2.3610	17.0953
 2.3600	17.0472
 2.3590	17.0224
 2.3580	17.0436
 2.3570	17.0358
 2.3560	16.9831
 2.3550	16.9890
 2.3540	16.9871
 2.3530	16.9382
 2.3520	16.9145
 2.3510	16.9187
 2.3500	16.9438
 2.3490	16.9361
 2.3480	16.9213
 2.3470	16.9136
 2.3460	16.9085
 2.3450	16.9429
 2.3440	16.9835
 2.3430	17.0040
 2.3420	16.9701
 2.3410	17.0005
 2.3400	17.0198
 2.3390	17.0152
 2.3380	17.0747
 2.3370	17.0721
 2.3360	17.0861
 2.3350	17.0899
 2.3340	17.1325
 2.3330	17.0719
 2.3320	17.0970
 2.3310	17.1068
 2.3300	17.1289
 2.3290	17.1040
 2.3280	17.1675
 2.3270	17.1631
 2.3260	17.2072
 2.3250	17.1779
 2.3240	17.1829
 2.3230	17.1757
 2.3220	17.2167
 2.3210	17.1777
 2.3200	17.2773
 2.3190	17.2710
 2.3180	17.3122
 2.3170	17.3279
 2.3160	17.3666
 2.3150	17.3464
 2.3140	17.3519
 2.3130	17.3394
 2.3120	17.4070
 2.3110	17.3903
 2.3100	17.4780
 2.3090	17.4188
 2.3080	17.5215
 2.3070	17.5794
 2.3060	17.6169
 2.3050	17.5800
 2.3040	17.6419
 2.3030	17.5349
 2.3020	17.5796
 2.3010	17.5760
 2.3000	17.6659
 2.2990	17.5940
 2.2980	17.6047
 2.2970	17.6408
 2.2960	17.7360
 2.2950	17.6514
 2.2940	17.7077
 2.2930	17.6896
 2.2920	17.6564
 2.2910	17.7216
 2.2900	17.7890
 2.2890	17.7131
 2.2880	17.7292
 2.2870	17.7107
 2.2860	17.8824
 2.2850	17.7516
 2.2840	17.8352
 2.2830	17.7883
 2.2820	17.8301
 2.2810	17.7752
 2.2800	17.8166
 2.2790	17.8082
 2.2780	17.8353
 2.2770	17.8425
 2.2760	17.9599
 2.2750	17.9109
 2.2740	17.9043
 2.2730	17.9095
 2.2720	17.9820
 2.2710	17.9138
 2.2700	18.0284
 2.2690	17.9417
 2.2680	18.0038
 2.2670	17.9420
 2.2660	17.9902
 2.2650	17.9801
 2.2640	18.0821
 2.2630	17.9862
 2.2620	18.0836
 2.2610	17.9668
 2.2600	18.1084
 2.2590	18.0840
 2.2580	18.0604
 2.2570	18.1272
 2.2560	18.1073
 2.2550	18.0748
 2.2540	18.1653
 2.2530	18.1136
 2.2520	18.1752
 2.2510	18.1746
 2.2500	18.1761
 2.2490	18.1157
 2.2480	18.2463
 2.2470	18.1015
 2.2460	18.1990
 2.2450	18.1735
 2.2440	18.3093
 2.2430	18.1586
 2.2420	18.2721
 2.2410	18.2339
 2.2400	18.3222
 2.2390	18.2320
 2.2380	18.3220
 2.2370	18.2140
 2.2360	18.2875
 2.2350	18.1837
 2.2340	18.4171
 2.2330	18.3049
 2.2320	18.3910
 2.2310	18.2752
 2.2300	18.4047
 2.2290	18.2755
 2.2280	18.4068
 2.2270	18.3669
 2.2260	18.5822
 2.2250	18.4031
 2.2240	18.4828
 2.2230	18.3672
 2.2220	18.5052
 2.2210	18.2721
 2.2200	18.5122
 2.2190	18.4098
 2.2180	18.5525
 2.2170	18.3576
 2.2160	18.5684
 2.2150	18.4601
 2.2140	18.5462
 2.2130	18.4285
 2.2120	18.6027
 2.2110	18.4103
 2.2100	18.6233
 2.2090	18.5349
 2.2080	18.6065
 2.2070	18.5282
 2.2060	18.6500
 2.2050	18.5515
 2.2040	18.7336
 2.2030	18.5990
 2.2020	18.6272
 2.2010	18.5571
 2.2000	18.7449
 2.1990	18.4958
 2.1980	18.6767
 2.1970	18.6483
 2.1960	18.7377
 2.1950	18.6411
 2.1940	18.7622
 2.1930	18.6662
 2.1920	18.7731
 2.1910	18.6942
 2.1900	18.7284
 2.1890	18.7224
 2.1880	18.7399
 2.1870	18.7248
 2.1860	18.8236
 2.1850	18.7832
 2.1840	18.8410
 2.1830	18.7011
 2.1820	18.8985
 2.1810	18.7911
 2.1800	18.8646
 2.1790	18.8167
 2.1780	18.8676
 2.1770	18.7830
 2.1760	18.9106
 2.1750	18.8384
 2.1740	18.9942
 2.1730	18.8804
 2.1720	18.9636
 2.1710	18.8945
 2.1700	19.0308
 2.1690	18.9258
 2.1680	18.9822
 2.1670	18.9768
 2.1660	19.0149
 2.1650	18.9636
 2.1640	19.0088
 2.1630	19.0013
 2.1620	19.0993
 2.1610	19.0185
 2.1600	19.0613
 2.1590	18.9675
 2.1580	19.0720
 2.1570	19.0376
 2.1560	19.0679
 2.1550	19.0322
 2.1540	19.1742
 2.1530	19.1054
 2.1520	19.1309
 2.1510	19.0936
 2.1500	19.1576
 2.1490	19.0744
 2.1480	19.1609
 2.1470	19.0947
 2.1460	19.1978
 2.1450	19.1269
 2.1440	19.1799
 2.1430	19.1549
 2.1420	19.1384
 2.1410	19.1148
 2.1400	19.2597
 2.1390	19.1449
 2.1380	19.1971
 2.1370	19.1430
 2.1360	19.1995
 2.1350	19.1329
 2.1340	19.1764
 2.1330	19.0927
 2.1320	19.1877
 2.1310	19.1312
 2.1300	19.1628
 2.1290	19.1031
 2.1280	19.1909
 2.1270	19.1489
 2.1260	19.1248
 2.1250	19.1138
 2.1240	19.1620
 2.1230	19.1484
 2.1220	19.1288
 2.1210	19.1065
 2.1200	19.1643
 2.1190	19.1341
 2.1180	19.1564
 2.1170	19.1168
 2.1160	19.1089
 2.1150	19.0917
 2.1140	19.1030
 2.1130	19.0367
 2.1120	19.0699
 2.1110	19.0002
 2.1100	19.0568
 2.1090	19.0825
 2.1080	19.0404
 2.1070	18.9833
 2.1060	19.0354
 2.1050	19.0317
 2.1040	19.0566
 2.1030	19.0212
 2.1020	18.9888
 2.1010	18.9620
 2.1000	19.0254
 2.0990	19.0321
 2.0980	19.0184
 2.0970	19.0061
 2.0960	18.9772
 2.0950	18.9520
 2.0940	19.0121
 2.0930	19.0282
 2.0920	19.0676
 2.0910	19.0221
 2.0900	19.0748
 2.0890	19.0370
 2.0880	19.0524
 2.0870	19.1017
 2.0860	19.0866
 2.0850	19.0335
 2.0840	19.0434
 2.0830	19.0794
 2.0820	19.0633
 2.0810	19.0964
 2.0800	19.1350
 2.0790	19.0857
 2.0780	19.1057
 2.0770	19.1195
 2.0760	19.1322
 2.0750	19.1257
 2.0740	19.1342
 2.0730	19.1248
 2.0720	19.1323
 2.0710	19.1379
 2.0700	19.1015
 2.0690	19.1449
 2.0680	19.1767
 2.0670	19.1670
 2.0660	19.1536
 2.0650	19.1695
 2.0640	19.2425
 2.0630	19.2130
 2.0620	19.1686
 2.0610	19.2166
 2.0600	19.1746
 2.0590	19.1865
 2.0580	19.1643
 2.0570	19.1651
 2.0560	19.2013
 2.0550	19.2379
 2.0540	19.2823
 2.0530	19.2232
 2.0520	19.2099
 2.0510	19.2562
 2.0500	19.2160
 2.0490	19.2762
 2.0480	19.2077
 2.0470	19.2416
 2.0460	19.2161
 2.0450	19.2179
 2.0440	19.1810
 2.0430	19.2194
 2.0420	19.2915
 2.0410	19.2981
 2.0400	19.2307
 2.0390	19.2645
 2.0380	19.2914
 2.0370	19.3245
 2.0360	19.2843
 2.0350	19.2473
 2.0340	19.2715
 2.0330	19.3139
 2.0320	19.3123
 2.0310	19.3137
 2.0300	19.2739
 2.0290	19.2790
 2.0280	19.2459
 2.0270	19.3055
 2.0260	19.2859
 2.0250	19.3623
 2.0240	19.2982
 2.0230	19.2676
 2.0220	19.2775
 2.0210	19.3297
 2.0200	19.2892
 2.0190	19.3473
 2.0180	19.2789
 2.0170	19.3066
 2.0160	19.2918
 2.0150	19.3460
 2.0140	19.3115
 2.0130	19.2489
 2.0120	19.2900
 2.0110	19.3219
 2.0100	19.2564
 2.0090	19.2890
 2.0080	19.2564
 2.0070	19.2966
 2.0060	19.2604
 2.0050	19.3444
 2.0040	19.3493
 2.0030	19.3743
 2.0020	19.3472
 2.0010	19.3493
 2.0000	19.2837
 1.9990	19.3292
 1.9980	19.3150
 1.9970	19.3990
 1.9960	19.2896
 1.9950	19.3568
 1.9940	19.3164
 1.9930	19.3045
 1.9920	19.2632
 1.9910	19.3306
 1.9900	19.2544
 1.9890	19.2914
 1.9880	19.2692
 1.9870	19.3557
 1.9860	19.2990
 1.9850	19.3567
 1.9840	19.2832
 1.9830	19.3164
 1.9820	19.2553
 1.9810	19.3074
 1.9800	19.2369
 1.9790	19.3934
 1.9780	19.3363
 1.9770	19.3926
 1.9760	19.2685
 1.9750	19.3429
 1.9740	19.2401
 1.9730	19.3644
 1.9720	19.3081
 1.9710	19.2654
 1.9700	19.2249
 1.9690	19.3448
 1.9680	19.2556
 1.9670	19.2949
 1.9660	19.2627
 1.9650	19.2467
 1.9640	19.2656
 1.9630	19.3034
 1.9620	19.2663
 1.9610	19.3795
 1.9600	19.2113
 1.9590	19.2954
 1.9580	19.1945
 1.9570	19.2881
 1.9560	19.2625
 1.9550	19.3279
 1.9540	19.2997
 1.9530	19.2768
 1.9520	19.2517
 1.9510	19.3466
 1.9500	19.2578
 1.9490	19.3407
 1.9480	19.3275
 1.9470	19.4404
 1.9460	19.2523
 1.9450	19.4207
 1.9440	19.2287
 1.9430	19.3864
 1.9420	19.2305
 1.9410	19.3243
 1.9400	19.2749
 1.9390	19.4191
 1.9380	19.2564
 1.9370	19.3707
 1.9360	19.3288
 1.9350	19.3163
 1.9340	19.2996
 1.9330	19.3961
 1.9320	19.2991
 1.9310	19.4026
 1.9300	19.2506
 1.9290	19.4338
 1.9280	19.2616
 1.9270	19.5227
 1.9260	19.1216
 1.9250	19.4964
 1.9240	19.2707
 1.9230	19.4393
 1.9220	19.3419
 1.9210	19.4517
 1.9200	19.2966
 1.9190	19.3699
 1.9180	19.3890
 1.9170	19.3421
 1.9160	19.3320
 1.9150	19.4379
 1.9140	19.2207
 1.9130	19.3952
 1.9120	19.3209
 1.9110	19.3881
 1.9100	19.3082
 1.9090	19.3439
 1.9080	19.3100
 1.9070	19.3807
 1.9060	19.3377
 1.9050	19.4777
 1.9040	19.3769
 1.9030	19.4062
 1.9020	19.3329
 1.9010	19.4135
 1.9000	19.2937
 1.8990	19.4306
 1.8980	19.2786
 1.8970	19.4250
 1.8960	19.3563
 1.8950	19.4536
 1.8940	19.3628
 1.8930	19.4731
 1.8920	19.4254
 1.8910	19.4500
 1.8900	19.3547
 1.8890	19.5042
 1.8880	19.3753
 1.8870	19.4467
 1.8860	19.3486
 1.8850	19.4596
 1.8840	19.4114
 1.8830	19.4771
 1.8820	19.3675
 1.8810	19.4509
 1.8800	19.4089
 1.8790	19.4547
 1.8780	19.4098
 1.8770	19.4832
 1.8760	19.3733
 1.8750	19.4666
 1.8740	19.4632
 1.8730	19.4968
 1.8720	19.3959
 1.8710	19.4844
 1.8700	19.4544
 1.8690	19.4824
 1.8680	19.4035
 1.8670	19.4350
 1.8660	19.4502
 1.8650	19.4739
 1.8640	19.4303
 1.8630	19.4766
 1.8620	19.4257
 1.8610	19.4410
 1.8600	19.3797
 1.8590	19.4524
 1.8580	19.4284
 1.8570	19.4093
 1.8560	19.3965
 1.8550	19.4431
 1.8540	19.4217
 1.8530	19.5092
 1.8520	19.4171
 1.8510	19.4288
 1.8500	19.3995
 1.8490	19.4325
 1.8480	19.4242
 1.8470	19.4136
 1.8460	19.3816
 1.8450	19.4671
 1.8440	19.3669
 1.8430	19.4044
 1.8420	19.4234
 1.8410	19.4381
 1.8400	19.3705
 1.8390	19.3917
 1.8380	19.4038
 1.8370	19.4123
 1.8360	19.3060
 1.8350	19.3225
 1.8340	19.3953
 1.8330	19.4558
 1.8320	19.3437
 1.8310	19.3673
 1.8300	19.2903
 1.8290	19.3053
 1.8280	19.3363
 1.8270	19.3483
 1.8260	19.3569
 1.8250	19.3765
 1.8240	19.3572
 1.8230	19.3082
 1.8220	19.2754
 1.8210	19.3074
 1.8200	19.2603
 1.8190	19.3216
 1.8180	19.3241
 1.8170	19.3282
 1.8160	19.2834
 1.8150	19.3425
 1.8140	19.3357
 1.8130	19.3314
 1.8120	19.3107
 1.8110	19.2911
 1.8100	19.2725
 1.8090	19.3213
 1.8080	19.3163
 1.8070	19.3116
 1.8060	19.3009
 1.8050	19.3772
 1.8040	19.3244
 1.8030	19.3114
 1.8020	19.3191
 1.8010	19.3096
 1.8000	19.2654
 1.7990	19.2349
 1.7980	19.2710
 1.7970	19.2723
 1.7960	19.2612
 1.7950	19.2613
 1.7940	19.2469
 1.7930	19.2305
 1.7920	19.2084
 1.7910	19.2392
 1.7900	19.1889
 1.7890	19.2213
 1.7880	19.2391
 1.7870	19.2311
 1.7860	19.2535
 1.7850	19.2387
 1.7840	19.2168
 1.7830	19.1848
 1.7820	19.1800
 1.7810	19.1566
 1.7800	19.1642
 1.7790	19.1628
 1.7780	19.1310
 1.7770	19.1176
 1.7760	19.1481
 1.7750	19.1577
 1.7740	19.1455
 1.7730	19.1099
 1.7720	19.1369
 1.7710	19.1526
 1.7700	19.1042
 1.7690	19.1434
 1.7680	19.1507
 1.7670	19.1045
 1.7660	19.1255
 1.7650	19.0895
 1.7640	19.0886
 1.7630	19.0631
 1.7620	19.1176
 1.7610	19.0472
 1.7600	19.0798
 1.7590	19.0649
 1.7580	19.0371
 1.7570	19.0216
 1.7560	19.0342
 1.7550	19.0529
 1.7540	19.0338
 1.7530	19.0167
 1.7520	18.9990
 1.7510	18.9631
 1.7500	19.0118
 1.7490	19.0458
 1.7480	19.0583
 1.7470	18.9796
 1.7460	18.9686
 1.7450	18.9300
 1.7440	19.0075
 1.7430	18.9648
 1.7420	18.9873
 1.7410	18.9431
 1.7400	19.0158
 1.7390	18.9255
 1.7380	18.9792
 1.7370	18.9068
 1.7360	18.9656
 1.7350	18.9204
 1.7340	18.9568
 1.7330	18.8782
 1.7320	18.9081
 1.7310	18.8705
 1.7300	18.8502
 1.7290	18.8739
 1.7280	18.8999
 1.7270	18.8309
 1.7260	18.9038
 1.7250	18.8611
 1.7240	18.9050
 1.7230	18.8184
 1.7220	18.7897
 1.7210	18.7975
 1.7200	18.8606
 1.7190	18.8258
 1.7180	18.8393
 1.7170	18.7971
 1.7160	18.8244
 1.7150	18.7422
 1.7140	18.7995
 1.7130	18.7510
 1.7120	18.7830
 1.7110	18.7271
 1.7100	18.7704
 1.7090	18.6869
 1.7080	18.7340
 1.7070	18.6925
 1.7060	18.6902
 1.7050	18.6446
 1.7040	18.7711
 1.7030	18.6352
 1.7020	18.6408
 1.7010	18.6127
 1.7000	18.6689
 1.6990	18.5775
 1.6980	18.7021
 1.6970	18.5293
 1.6960	18.6398
 1.6950	18.5533
 1.6940	18.6063
 1.6930	18.5702
 1.6920	18.6401
 1.6910	18.4709
 1.6900	18.5376
 1.6890	18.5018
 1.6880	18.6284
 1.6870	18.4607
 1.6860	18.5704
 1.6850	18.4430
 1.6840	18.4822
 1.6830	18.4502
 1.6820	18.5244
 1.6810	18.4137
 1.6800	18.4890
 1.6790	18.4236
 1.6780	18.4578
 1.6770	18.3434
 1.6760	18.4447
 1.6750	18.4229
 1.6740	18.4160
 1.6730	18.3323
 1.6720	18.4237
 1.6710	18.3201
 1.6700	18.3692
 1.6690	18.4585
 1.6680	18.2248
 1.6670	18.3098
 1.6660	18.4020
 1.6650	18.2295
 1.6640	18.3800
 1.6630	18.2747
 1.6620	18.2991
 1.6610	18.1691
 1.6600	18.2978
 1.6590	18.2443
 1.6580	18.2627
 1.6570	18.1606
 1.6560	18.2073
 1.6550	18.2349
 1.6540	18.1629
 1.6530	18.0503
 1.6520	18.2339
 1.6510	18.1478
 1.6500	18.1542
 1.6490	18.1054
 1.6480	18.1642
 1.6470	18.0586
 1.6460	18.1482
 1.6450	17.9871
 1.6440	18.1914
 1.6430	17.9639
 1.6420	18.2509
 1.6410	17.8012
 1.6400	18.1982
 1.6390	17.9438
 1.6380	18.0071
 1.6370	17.9222
 1.6360	18.0633
 1.6350	17.9425
 1.6340	18.0300
 1.6330	17.9205
 1.6320	17.9564
 1.6310	17.9378
 1.6300	17.9697
 1.6290	17.8694
 1.6280	17.8840
 1.6270	17.8661
 1.6260	17.9350
 1.6250	17.8710
 1.6240	17.8956
 1.6230	17.8549
 1.6220	17.8338
 1.6210	17.7352
 1.6200	17.8177
 1.6190	17.7282
 1.6180	17.7780
 1.6170	17.7902
 1.6160	17.8804
 1.6150	17.6892
 1.6140	17.7545
 1.6130	17.5835
 1.6120	17.7170
 1.6110	17.6638
 1.6100	17.6668
 1.6090	17.6515
 1.6080	17.6831
 1.6070	17.5558
 1.6060	17.7569
 1.6050	17.5673
 1.6040	17.6318
 1.6030	17.4974
 1.6020	17.6047
 1.6010	17.4608
 1.6000	17.5658
 1.5990	17.4801
 1.5980	17.5066
 1.5970	17.4718
 1.5960	17.5406
 1.5950	17.4355
 1.5940	17.5715
 1.5930	17.3700
 1.5920	17.3930
 1.5910	17.3748
 1.5900	17.4466
 1.5890	17.3350
 1.5880	17.3741
 1.5870	17.2844
 1.5860	17.3388
 1.5850	17.3113
 1.5840	17.3741
 1.5830	17.1907
 1.5820	17.2954
 1.5810	17.2117
 1.5800	17.2639
 1.5790	17.2309
 1.5780	17.1945
 1.5770	17.1424
 1.5760	17.2312
 1.5750	17.1296
 1.5740	17.1638
 1.5730	17.1235
 1.5720	17.1393
 1.5710	17.1476
 1.5700	17.1354
 1.5690	17.0560
 1.5680	17.0576
 1.5670	17.0315
 1.5660	17.0433
 1.5650	16.9705
 1.5640	17.0120
 1.5630	17.0133
 1.5620	16.9889
 1.5610	16.9541
 1.5600	16.9954
 1.5590	16.8837
 1.5580	16.8963
 1.5570	16.8670
 1.5560	16.8801
 1.5550	16.8427
 1.5540	16.8811
 1.5530	16.8552
 1.5520	16.7978
 1.5510	16.8058
 1.5500	16.8891
 1.5490	16.7390
 1.5480	16.7575
 1.5470	16.6907
 1.5460	16.6960
 1.5450	16.7162
 1.5440	16.6896
 1.5430	16.6662
 1.5420	16.6979
 1.5410	16.6584
 1.5400	16.6134
 1.5390	16.5746
 1.5380	16.6055
 1.5370	16.5714
 1.5360	16.5740
 1.5350	16.5598
 1.5340	16.5661
 1.5330	16.4984
 1.5320	16.4916
 1.5310	16.4487
 1.5300	16.4724
 1.5290	16.4516
 1.5280	16.4638
 1.5270	16.4331
 1.5260	16.4543
 1.5250	16.3514
 1.5240	16.3756
 1.5230	16.3649
 1.5220	16.3494
 1.5210	16.3308
 1.5200	16.2950
 1.5190	16.2449
 1.5180	16.2544
 1.5170	16.2030
 1.5160	16.2278
 1.5150	16.2287
 1.5140	16.1793
 1.5130	16.1694
 1.5120	16.1685
 1.5110	16.1327
 1.5100	16.1329
 1.5090	16.1203
 1.5080	16.0817
 1.5070	16.0268
 1.5060	16.0621
 1.5050	16.0530
 1.5040	16.0264
 1.5030	16.0005
 1.5020	15.9862
 1.5010	15.9798
 1.5000	15.9381
 1.4990	15.9087
 1.4980	15.9388
 1.4970	15.9280
 1.4960	15.8865
 1.4950	15.8668
 1.4940	15.8630
 1.4930	15.8783
 1.4920	15.8512
 1.4910	15.8448
 1.4900	15.8565
 1.4890	15.8429
 1.4880	15.7720
 1.4870	15.7391
 1.4860	15.7197
 1.4850	15.7416
 1.4840	15.6800
 1.4830	15.6661
 1.4820	15.6420
 1.4810	15.6451
 1.4800	15.6009
 1.4790	15.6407
 1.4780	15.6291
 1.4770	15.5918
 1.4760	15.6009
 1.4750	15.6101
 1.4740	15.5421
 1.4730	15.5865
 1.4720	15.5386
 1.4710	15.4774
 1.4700	15.4287
 1.4690	15.4630
 1.4680	15.3881
 1.4670	15.4013
 1.4660	15.3425
 1.4650	15.3528
 1.4640	15.3432
 1.4630	15.3260
 1.4620	15.2611
 1.4610	15.3182
 1.4600	15.2877
 1.4590	15.2453
 1.4580	15.2498
 1.4570	15.3145
 1.4560	15.1941
 1.4550	15.2078
 1.4540	15.1755
 1.4530	15.1758
 1.4520	15.1014
 1.4510	15.1042
 1.4500	15.0527
 1.4490	15.0741
 1.4480	15.0757
 1.4470	15.0770
 1.4460	15.0189
 1.4450	15.0443
 1.4440	14.9851
 1.4430	14.9785
 1.4420	14.9417
 1.4410	14.9826
 1.4400	14.9065
 1.4390	14.9591
 1.4380	14.8823
 1.4370	14.8720
 1.4360	14.8957
 1.4350	14.8360
 1.4340	14.8165
 1.4330	14.8294
 1.4320	14.7876
 1.4310	14.7650
 1.4300	14.7338
 1.4290	14.7634
 1.4280	14.6690
 1.4270	14.7297
 1.4260	14.7355
 1.4250	14.6994
 1.4240	14.5801
 1.4230	14.6500
 1.4220	14.5596
 1.4210	14.6044
 1.4200	14.4036
 1.4190	14.0834
 1.4180	13.7380
 1.4170	13.4530
 1.4160	13.2550
 1.4150	13.5093
 1.4140	13.7694
 1.4130	14.1874
 1.4120	14.2947
 1.4110	14.4202
 1.4100	14.3922
 1.4090	14.3916
 1.4080	14.3583
 1.4070	14.4056
 1.4060	14.2712
 1.4050	14.4291
 1.4040	14.3602
 1.4030	14.4463
 1.4020	14.3049
 1.4010	14.3362
 1.4000	14.2783
 1.3990	14.2962
 1.3980	14.2282
 1.3970	14.3174
 1.3960	14.2375
 1.3950	14.2661
 1.3940	14.1042
 1.3930	14.3170
 1.3920	14.1532
 1.3910	14.2571
 1.3900	14.2010
 1.3890	14.1699
 1.3880	14.0117
 1.3870	14.1598
 1.3860	14.0815
 1.3850	14.1373
 1.3840	14.0743
 1.3830	14.1502
 1.3820	13.9637
 1.3810	14.1119
 1.3800	14.0239
 1.3790	13.9818
 1.3780	14.0412
 1.3770	14.0180
 1.3760	13.9514
 1.3750	13.9950
 1.3740	13.9798
 1.3730	13.9873
 1.3720	13.7963
 1.3710	13.9302
 1.3700	13.8036
 1.3690	13.8974
 1.3680	13.7760
 1.3670	13.8843
 1.3660	13.7765
 1.3650	13.8736
