Name: Quartz SiO_2
Type: Mineral
Class: Silicate
Subclass: Tectosilicate
Particle Size: Fine
Sample No.: TS-1E
Owner: JPL
Wavelength Range: VSWIR
Origin: Unknown.
Collection Date: N/A
Description: CrysopraseParticle size was 0-45um.Collected by:  JPL Original ASTER Spectral Library name was jpl.perkin.mineral.silicate.tectosilicate.fine.ts01e.spectrum.txt
Measurement: Hemispherical reflectance
First Column: X
Second Column: Y
X Units: Wavelength (micrometers)
Y Units:Reflectance (percent)
First X Value:  2.5000
Last X Value:  0.4000
Number of X Values: 2101
Additional Information: mineral.silicate.tectosilicate.fine.vswir.ts-1e.jpl.perkin.ancillary.txt

 2.5000	65.5969
 2.4990	65.5125
 2.4980	65.5889
 2.4970	65.4222
 2.4960	65.3823
 2.4950	65.3522
 2.4940	65.5479
 2.4930	65.4096
 2.4920	65.4931
 2.4910	65.4448
 2.4900	65.7940
 2.4890	65.7220
 2.4880	65.7456
 2.4870	65.7808
 2.4860	65.7477
 2.4850	65.6849
 2.4840	65.7840
 2.4830	65.7090
 2.4820	65.7289
 2.4810	65.8026
 2.4800	65.9729
 2.4790	65.9172
 2.4780	66.0385
 2.4770	65.8263
 2.4760	65.9810
 2.4750	65.9774
 2.4740	65.9232
 2.4730	65.9169
 2.4720	66.1009
 2.4710	66.1416
 2.4700	66.0975
 2.4690	66.2270
 2.4680	66.1984
 2.4670	66.0594
 2.4660	66.2708
 2.4650	66.2211
 2.4640	66.3529
 2.4630	66.3024
 2.4620	66.3879
 2.4610	66.3721
 2.4600	66.5029
 2.4590	66.5005
 2.4580	66.5351
 2.4570	66.4749
 2.4560	66.6098
 2.4550	66.7343
 2.4540	66.7636
 2.4530	66.7777
 2.4520	66.7721
 2.4510	66.7965
 2.4500	66.8160
 2.4490	66.9337
 2.4480	66.9103
 2.4470	66.9140
 2.4460	67.0398
 2.4450	66.9653
 2.4440	67.1358
 2.4430	67.0901
 2.4420	67.1503
 2.4410	67.1617
 2.4400	67.2032
 2.4390	67.1069
 2.4380	67.2265
 2.4370	67.2648
 2.4360	67.3390
 2.4350	67.2301
 2.4340	67.5175
 2.4330	67.4924
 2.4320	67.3999
 2.4310	67.5033
 2.4300	67.4403
 2.4290	67.4339
 2.4280	67.3863
 2.4270	67.4687
 2.4260	67.4897
 2.4250	67.4822
 2.4240	67.4901
 2.4230	67.4504
 2.4220	67.5259
 2.4210	67.5414
 2.4200	67.6764
 2.4190	67.7163
 2.4180	67.7563
 2.4170	67.6449
 2.4160	67.6845
 2.4150	67.7830
 2.4140	67.7932
 2.4130	67.6855
 2.4120	67.7641
 2.4110	67.8061
 2.4100	67.8087
 2.4090	67.7895
 2.4080	67.8343
 2.4070	67.8875
 2.4060	67.8969
 2.4050	67.9087
 2.4040	67.9059
 2.4030	67.9589
 2.4020	68.0304
 2.4010	67.9185
 2.4000	67.9835
 2.3990	68.0024
 2.3980	67.9759
 2.3970	68.0729
 2.3960	68.1674
 2.3950	68.1353
 2.3940	68.1342
 2.3930	68.1682
 2.3920	68.1884
 2.3910	68.2189
 2.3900	68.2139
 2.3890	68.2931
 2.3880	68.3559
 2.3870	68.3281
 2.3860	68.3497
 2.3850	68.3826
 2.3840	68.3824
 2.3830	68.3526
 2.3820	68.3923
 2.3810	68.3963
 2.3800	68.4233
 2.3790	68.4539
 2.3780	68.5070
 2.3770	68.4377
 2.3760	68.4884
 2.3750	68.5573
 2.3740	68.5832
 2.3730	68.5716
 2.3720	68.5474
 2.3710	68.5671
 2.3700	68.5581
 2.3690	68.6052
 2.3680	68.6866
 2.3670	68.6356
 2.3660	68.6358
 2.3650	68.6333
 2.3640	68.6467
 2.3630	68.7087
 2.3620	68.7675
 2.3610	68.7321
 2.3600	68.7328
 2.3590	68.7388
 2.3580	68.6645
 2.3570	68.7156
 2.3560	68.7974
 2.3550	68.7645
 2.3540	68.7630
 2.3530	68.7617
 2.3520	68.7775
 2.3510	68.7663
 2.3500	68.6667
 2.3490	68.6838
 2.3480	68.7604
 2.3470	68.7482
 2.3460	68.7428
 2.3450	68.7325
 2.3440	68.7245
 2.3430	68.7561
 2.3420	68.7141
 2.3410	68.6439
 2.3400	68.6648
 2.3390	68.6736
 2.3380	68.6137
 2.3370	68.5833
 2.3360	68.6027
 2.3350	68.5988
 2.3340	68.5611
 2.3330	68.5325
 2.3320	68.4358
 2.3310	68.4725
 2.3300	68.4506
 2.3290	68.3797
 2.3280	68.3063
 2.3270	68.2903
 2.3260	68.3110
 2.3250	68.2593
 2.3240	68.2269
 2.3230	68.2149
 2.3220	68.1918
 2.3210	68.1537
 2.3200	68.1720
 2.3190	68.1264
 2.3180	68.0544
 2.3170	68.1037
 2.3160	68.1035
 2.3150	68.0849
 2.3140	68.0787
 2.3130	68.0437
 2.3120	67.9956
 2.3110	67.9870
 2.3100	68.0284
 2.3090	68.0293
 2.3080	68.0069
 2.3070	67.9922
 2.3060	67.9713
 2.3050	67.9903
 2.3040	68.0131
 2.3030	68.0109
 2.3020	67.9469
 2.3010	67.9841
 2.3000	67.9443
 2.2990	68.0543
 2.2980	67.9809
 2.2970	68.0355
 2.2960	68.0481
 2.2950	68.0549
 2.2940	68.0807
 2.2930	68.0234
 2.2920	68.0031
 2.2910	68.0704
 2.2900	68.0735
 2.2890	68.1117
 2.2880	68.0081
 2.2870	68.0721
 2.2860	68.0597
 2.2850	68.0982
 2.2840	68.1024
 2.2830	68.0768
 2.2820	68.0472
 2.2810	68.0660
 2.2800	68.0776
 2.2790	68.0995
 2.2780	68.0675
 2.2770	68.0494
 2.2760	68.0539
 2.2750	68.0624
 2.2740	68.0616
 2.2730	68.1759
 2.2720	68.1033
 2.2710	68.1053
 2.2700	68.0222
 2.2690	68.0214
 2.2680	68.0549
 2.2670	68.0237
 2.2660	68.0463
 2.2650	68.0874
 2.2640	68.0749
 2.2630	68.0390
 2.2620	68.0429
 2.2610	68.0427
 2.2600	68.0450
 2.2590	67.9722
 2.2580	67.9512
 2.2570	68.0021
 2.2560	67.9491
 2.2550	67.9827
 2.2540	67.9918
 2.2530	67.9993
 2.2520	67.9977
 2.2510	67.9997
 2.2500	68.0048
 2.2490	68.0405
 2.2480	67.9975
 2.2470	67.9917
 2.2460	68.0264
 2.2450	68.0821
 2.2440	68.1053
 2.2430	68.0816
 2.2420	68.0807
 2.2410	68.0373
 2.2400	68.0682
 2.2390	68.0727
 2.2380	68.0854
 2.2370	68.1715
 2.2360	68.1572
 2.2350	68.1987
 2.2340	68.1369
 2.2330	68.1705
 2.2320	68.1972
 2.2310	68.2498
 2.2300	68.1320
 2.2290	68.2067
 2.2280	68.1985
 2.2270	68.1606
 2.2260	68.1768
 2.2250	68.2694
 2.2240	68.0859
 2.2230	68.2121
 2.2220	68.2146
 2.2210	68.1330
 2.2200	68.2481
 2.2190	68.2434
 2.2180	68.1777
 2.2170	68.2182
 2.2160	68.2477
 2.2150	68.3615
 2.2140	68.3493
 2.2130	68.3387
 2.2120	68.3771
 2.2110	68.3677
 2.2100	68.4392
 2.2090	68.4912
 2.2080	68.4823
 2.2070	68.5472
 2.2060	68.5841
 2.2050	68.6382
 2.2040	68.6084
 2.2030	68.6773
 2.2020	68.7623
 2.2010	68.8694
 2.2000	68.8123
 2.1990	68.8088
 2.1980	68.9684
 2.1970	69.0899
 2.1960	69.0047
 2.1950	69.0475
 2.1940	69.0332
 2.1930	69.1219
 2.1920	69.1417
 2.1910	69.1450
 2.1900	69.2000
 2.1890	69.2965
 2.1880	69.3508
 2.1870	69.3890
 2.1860	69.3863
 2.1850	69.4621
 2.1840	69.4067
 2.1830	69.5513
 2.1820	69.5705
 2.1810	69.6336
 2.1800	69.6907
 2.1790	69.7022
 2.1780	69.7197
 2.1770	69.7680
 2.1760	69.7936
 2.1750	69.9292
 2.1740	69.8816
 2.1730	69.9096
 2.1720	69.9642
 2.1710	70.0062
 2.1700	70.0907
 2.1690	70.1262
 2.1680	70.1089
 2.1670	70.1496
 2.1660	70.1873
 2.1650	70.3001
 2.1640	70.3127
 2.1630	70.3228
 2.1620	70.2777
 2.1610	70.4687
 2.1600	70.4852
 2.1590	70.4145
 2.1580	70.4626
 2.1570	70.4910
 2.1560	70.5708
 2.1550	70.5692
 2.1540	70.4846
 2.1530	70.6250
 2.1520	70.6594
 2.1510	70.7182
 2.1500	70.6991
 2.1490	70.6837
 2.1480	70.6819
 2.1470	70.6841
 2.1460	70.7128
 2.1450	70.7097
 2.1440	70.8373
 2.1430	70.8228
 2.1420	70.7432
 2.1410	70.7599
 2.1400	70.7665
 2.1390	70.7411
 2.1380	70.7601
 2.1370	70.7481
 2.1360	70.7325
 2.1350	70.8070
 2.1340	70.7699
 2.1330	70.7259
 2.1320	70.7613
 2.1310	70.6772
 2.1300	70.6422
 2.1290	70.7143
 2.1280	70.6545
 2.1270	70.6118
 2.1260	70.5584
 2.1250	70.5206
 2.1240	70.4875
 2.1230	70.4086
 2.1220	70.3681
 2.1210	70.4013
 2.1200	70.3718
 2.1190	70.3298
 2.1180	70.3175
 2.1170	70.2395
 2.1160	70.2008
 2.1150	70.1800
 2.1140	70.1258
 2.1130	70.1349
 2.1120	70.0821
 2.1110	70.0494
 2.1100	69.9887
 2.1090	69.9683
 2.1080	69.9484
 2.1070	69.8978
 2.1060	69.8654
 2.1050	69.8030
 2.1040	69.7597
 2.1030	69.7310
 2.1020	69.7414
 2.1010	69.7255
 2.1000	69.6730
 2.0990	69.6393
 2.0980	69.6925
 2.0970	69.6969
 2.0960	69.6669
 2.0950	69.7277
 2.0940	69.7491
 2.0930	69.7011
 2.0920	69.6991
 2.0910	69.7777
 2.0900	69.7421
 2.0890	69.7619
 2.0880	69.7703
 2.0870	69.7411
 2.0860	69.7918
 2.0850	69.8583
 2.0840	69.8701
 2.0830	69.8312
 2.0820	69.8200
 2.0810	69.8766
 2.0800	69.9001
 2.0790	69.8694
 2.0780	69.8419
 2.0770	69.8615
 2.0760	69.8257
 2.0750	69.8368
 2.0740	69.8960
 2.0730	69.9022
 2.0720	69.9152
 2.0710	69.9129
 2.0700	69.8882
 2.0690	69.8551
 2.0680	69.8974
 2.0670	69.9793
 2.0660	69.9647
 2.0650	69.9591
 2.0640	69.9621
 2.0630	69.9927
 2.0620	70.0229
 2.0610	69.9809
 2.0600	69.9948
 2.0590	70.0332
 2.0580	70.0196
 2.0570	70.0309
 2.0560	70.0718
 2.0550	70.0583
 2.0540	70.0900
 2.0530	70.1056
 2.0520	70.0850
 2.0510	70.0423
 2.0500	70.0210
 2.0490	70.1158
 2.0480	70.1588
 2.0470	70.1068
 2.0460	70.0762
 2.0450	70.1041
 2.0440	70.1667
 2.0430	70.1559
 2.0420	70.1620
 2.0410	70.1820
 2.0400	70.1495
 2.0390	70.1491
 2.0380	70.1760
 2.0370	70.1160
 2.0360	70.1320
 2.0350	70.1270
 2.0340	70.1301
 2.0330	70.1482
 2.0320	70.1980
 2.0310	70.1616
 2.0300	70.1664
 2.0290	70.1311
 2.0280	70.1858
 2.0270	70.2304
 2.0260	70.1738
 2.0250	70.1127
 2.0240	70.1015
 2.0230	70.1150
 2.0220	70.1138
 2.0210	70.1696
 2.0200	70.0823
 2.0190	69.9888
 2.0180	70.0413
 2.0170	70.0277
 2.0160	70.0030
 2.0150	70.0800
 2.0140	70.0676
 2.0130	70.0619
 2.0120	70.0186
 2.0110	70.0255
 2.0100	70.0394
 2.0090	70.0077
 2.0080	70.0112
 2.0070	69.9643
 2.0060	70.0607
 2.0050	69.9783
 2.0040	70.0110
 2.0030	69.9999
 2.0020	70.0158
 2.0010	70.0113
 2.0000	69.9925
 1.9990	69.9273
 1.9980	69.9126
 1.9970	69.9538
 1.9960	70.0068
 1.9950	69.9336
 1.9940	69.8654
 1.9930	69.8295
 1.9920	69.8303
 1.9910	69.8324
 1.9900	69.8063
 1.9890	69.7475
 1.9880	69.7577
 1.9870	69.7168
 1.9860	69.6722
 1.9850	69.7314
 1.9840	69.7222
 1.9830	69.6463
 1.9820	69.5932
 1.9810	69.6065
 1.9800	69.6457
 1.9790	69.5921
 1.9780	69.5863
 1.9770	69.5688
 1.9760	69.5093
 1.9750	69.4641
 1.9740	69.4879
 1.9730	69.4877
 1.9720	69.5204
 1.9710	69.4372
 1.9700	69.5301
 1.9690	69.4461
 1.9680	69.3608
 1.9670	69.3320
 1.9660	69.3674
 1.9650	69.3512
 1.9640	69.3281
 1.9630	69.3481
 1.9620	69.3314
 1.9610	69.3039
 1.9600	69.3489
 1.9590	69.1768
 1.9580	69.3564
 1.9570	69.2280
 1.9560	69.2483
 1.9550	69.1533
 1.9540	69.1815
 1.9530	69.1866
 1.9520	69.2098
 1.9510	69.1639
 1.9500	69.1752
 1.9490	69.0774
 1.9480	69.1288
 1.9470	69.1744
 1.9460	69.0768
 1.9450	69.1225
 1.9440	69.2371
 1.9430	69.1208
 1.9420	69.1101
 1.9410	69.1273
 1.9400	69.1117
 1.9390	69.1119
 1.9380	69.1462
 1.9370	69.1054
 1.9360	69.0640
 1.9350	69.0470
 1.9340	69.0510
 1.9330	69.0761
 1.9320	69.0238
 1.9310	68.9922
 1.9300	69.0456
 1.9290	69.0297
 1.9280	69.0593
 1.9270	69.1292
 1.9260	69.0450
 1.9250	69.0741
 1.9240	69.0641
 1.9230	69.0105
 1.9220	69.0311
 1.9210	69.0773
 1.9200	69.0786
 1.9190	69.0704
 1.9180	69.0516
 1.9170	68.9718
 1.9160	69.0386
 1.9150	69.0282
 1.9140	68.9941
 1.9130	68.9708
 1.9120	69.0582
 1.9110	69.0410
 1.9100	69.0299
 1.9090	69.0490
 1.9080	69.0957
 1.9070	69.1903
 1.9060	69.1524
 1.9050	69.1108
 1.9040	69.3034
 1.9030	69.2725
 1.9020	69.3943
 1.9010	69.4222
 1.9000	69.4997
 1.8990	69.5296
 1.8980	69.5635
 1.8970	69.6346
 1.8960	69.8105
 1.8950	69.8416
 1.8940	69.8896
 1.8930	69.9756
 1.8920	70.0642
 1.8910	70.0383
 1.8900	70.1903
 1.8890	70.2100
 1.8880	70.2885
 1.8870	70.3602
 1.8860	70.4362
 1.8850	70.4878
 1.8840	70.6271
 1.8830	70.5849
 1.8820	70.6222
 1.8810	70.5706
 1.8800	70.6237
 1.8790	70.6353
 1.8780	70.7370
 1.8770	70.7727
 1.8760	70.8154
 1.8750	70.7118
 1.8740	70.8321
 1.8730	70.8362
 1.8720	70.9078
 1.8710	70.9018
 1.8700	70.8897
 1.8690	70.8669
 1.8680	70.8891
 1.8670	70.9193
 1.8660	70.9448
 1.8650	70.9457
 1.8640	70.9806
 1.8630	70.9617
 1.8620	71.0492
 1.8610	71.0345
 1.8600	71.0619
 1.8590	71.0139
 1.8580	71.0082
 1.8570	70.9800
 1.8560	70.9402
 1.8550	70.9617
 1.8540	71.0628
 1.8530	71.0342
 1.8520	71.0402
 1.8510	71.0078
 1.8500	71.0396
 1.8490	71.0641
 1.8480	71.0260
 1.8470	71.0961
 1.8460	71.0555
 1.8450	71.0644
 1.8440	71.1446
 1.8430	71.1708
 1.8420	71.0738
 1.8410	71.0862
 1.8400	71.1901
 1.8390	71.1462
 1.8380	71.1065
 1.8370	71.0972
 1.8360	71.0603
 1.8350	71.1321
 1.8340	71.2129
 1.8330	71.1807
 1.8320	71.1197
 1.8310	71.0744
 1.8300	71.0510
 1.8290	71.1208
 1.8280	71.1961
 1.8270	71.1324
 1.8260	71.0546
 1.8250	71.0849
 1.8240	71.1067
 1.8230	71.1457
 1.8220	71.1094
 1.8210	71.1122
 1.8200	71.1652
 1.8190	71.0879
 1.8180	71.0726
 1.8170	71.1685
 1.8160	71.1917
 1.8150	71.1192
 1.8140	71.0701
 1.8130	71.1334
 1.8120	71.1519
 1.8110	71.1543
 1.8100	71.1578
 1.8090	71.2076
 1.8080	71.2146
 1.8070	71.1891
 1.8060	71.2285
 1.8050	71.2265
 1.8040	71.2272
 1.8030	71.2355
 1.8020	71.2376
 1.8010	71.2392
 1.8000	71.2146
 1.7990	71.1941
 1.7980	71.1387
 1.7970	71.1337
 1.7960	71.1858
 1.7950	71.1738
 1.7940	71.1822
 1.7930	71.2429
 1.7920	71.1998
 1.7910	71.1165
 1.7900	71.0990
 1.7890	71.1455
 1.7880	71.1739
 1.7870	71.1857
 1.7860	71.1915
 1.7850	71.1823
 1.7840	71.1766
 1.7830	71.1749
 1.7820	71.1771
 1.7810	71.1754
 1.7800	71.1656
 1.7790	71.1710
 1.7780	71.2160
 1.7770	71.1527
 1.7760	71.1468
 1.7750	71.1953
 1.7740	71.1612
 1.7730	71.1285
 1.7720	71.1390
 1.7710	71.1288
 1.7700	71.1014
 1.7690	71.1218
 1.7680	71.1832
 1.7670	71.2002
 1.7660	71.1801
 1.7650	71.1810
 1.7640	71.1925
 1.7630	71.1736
 1.7620	71.1274
 1.7610	71.1724
 1.7600	71.2314
 1.7590	71.2293
 1.7580	71.2299
 1.7570	71.2064
 1.7560	71.1716
 1.7550	71.2085
 1.7540	71.2172
 1.7530	71.2090
 1.7520	71.2046
 1.7510	71.2329
 1.7500	71.2398
 1.7490	71.2625
 1.7480	71.2656
 1.7470	71.2031
 1.7460	71.1786
 1.7450	71.1964
 1.7440	71.2032
 1.7430	71.2136
 1.7420	71.1985
 1.7410	71.2160
 1.7400	71.2842
 1.7390	71.2586
 1.7380	71.2513
 1.7370	71.2586
 1.7360	71.1666
 1.7350	71.2466
 1.7340	71.2924
 1.7330	71.2696
 1.7320	71.2702
 1.7310	71.2974
 1.7300	71.3482
 1.7290	71.3861
 1.7280	71.3358
 1.7270	71.3645
 1.7260	71.3264
 1.7250	71.3258
 1.7240	71.3350
 1.7230	71.3205
 1.7220	71.3024
 1.7210	71.3523
 1.7200	71.2823
 1.7190	71.2642
 1.7180	71.2710
 1.7170	71.3107
 1.7160	71.3126
 1.7150	71.3667
 1.7140	71.3236
 1.7130	71.3188
 1.7120	71.2933
 1.7110	71.3110
 1.7100	71.2726
 1.7090	71.2918
 1.7080	71.2523
 1.7070	71.2990
 1.7060	71.3353
 1.7050	71.4095
 1.7040	71.2876
 1.7030	71.2697
 1.7020	71.3337
 1.7010	71.3043
 1.7000	71.2173
 1.6990	71.2617
 1.6980	71.2677
 1.6970	71.2665
 1.6960	71.2986
 1.6950	71.3051
 1.6940	71.2818
 1.6930	71.2564
 1.6920	71.2956
 1.6910	71.3003
 1.6900	71.2368
 1.6890	71.2226
 1.6880	71.2257
 1.6870	71.2523
 1.6860	71.2642
 1.6850	71.2684
 1.6840	71.2547
 1.6830	71.2421
 1.6820	71.1968
 1.6810	71.2306
 1.6800	71.2920
 1.6790	71.2843
 1.6780	71.3254
 1.6770	71.2946
 1.6760	71.3025
 1.6750	71.3145
 1.6740	71.2455
 1.6730	71.3263
 1.6720	71.3268
 1.6710	71.2614
 1.6700	71.2804
 1.6690	71.3067
 1.6680	71.3327
 1.6670	71.2961
 1.6660	71.2638
 1.6650	71.3575
 1.6640	71.2611
 1.6630	71.2498
 1.6620	71.2723
 1.6610	71.2669
 1.6600	71.2564
 1.6590	71.1875
 1.6580	71.3055
 1.6570	71.2666
 1.6560	71.2441
 1.6550	71.2241
 1.6540	71.3078
 1.6530	71.2959
 1.6520	71.2811
 1.6510	71.3232
 1.6500	71.2412
 1.6490	71.2287
 1.6480	71.1958
 1.6470	71.3054
 1.6460	71.2898
 1.6450	71.2907
 1.6440	71.2252
 1.6430	71.3032
 1.6420	71.2395
 1.6410	71.3267
 1.6400	71.2719
 1.6390	71.2818
 1.6380	71.2476
 1.6370	71.3264
 1.6360	71.2712
 1.6350	71.2760
 1.6340	71.2667
 1.6330	71.2827
 1.6320	71.2455
 1.6310	71.3085
 1.6300	71.2114
 1.6290	71.3079
 1.6280	71.2757
 1.6270	71.2108
 1.6260	71.2154
 1.6250	71.3880
 1.6240	71.3626
 1.6230	71.2959
 1.6220	71.3021
 1.6210	71.3230
 1.6200	71.2813
 1.6190	71.2559
 1.6180	71.3039
 1.6170	71.3091
 1.6160	71.3745
 1.6150	71.3110
 1.6140	71.2776
 1.6130	71.3046
 1.6120	71.2566
 1.6110	71.3281
 1.6100	71.3108
 1.6090	71.3026
 1.6080	71.3089
 1.6070	71.2777
 1.6060	71.2737
 1.6050	71.3616
 1.6040	71.3353
 1.6030	71.3162
 1.6020	71.2746
 1.6010	71.2713
 1.6000	71.2701
 1.5990	71.3639
 1.5980	71.3532
 1.5970	71.2902
 1.5960	71.2698
 1.5950	71.2509
 1.5940	71.3130
 1.5930	71.3030
 1.5920	71.2762
 1.5910	71.3015
 1.5900	71.3216
 1.5890	71.2792
 1.5880	71.2634
 1.5870	71.2688
 1.5860	71.3638
 1.5850	71.3008
 1.5840	71.2518
 1.5830	71.2464
 1.5820	71.2654
 1.5810	71.2656
 1.5800	71.2251
 1.5790	71.2467
 1.5780	71.2205
 1.5770	71.2856
 1.5760	71.2563
 1.5750	71.2217
 1.5740	71.2403
 1.5730	71.2983
 1.5720	71.2336
 1.5710	71.2556
 1.5700	71.2392
 1.5690	71.2785
 1.5680	71.2445
 1.5670	71.2894
 1.5660	71.2532
 1.5650	71.2605
 1.5640	71.2412
 1.5630	71.2558
 1.5620	71.2555
 1.5610	71.2888
 1.5600	71.2829
 1.5590	71.3057
 1.5580	71.2124
 1.5570	71.2642
 1.5560	71.2274
 1.5550	71.1894
 1.5540	71.2339
 1.5530	71.2363
 1.5520	71.2326
 1.5510	71.2121
 1.5500	71.2146
 1.5490	71.2418
 1.5480	71.1871
 1.5470	71.2152
 1.5460	71.1795
 1.5450	71.1823
 1.5440	71.1981
 1.5430	71.2159
 1.5420	71.1314
 1.5410	71.1271
 1.5400	71.1332
 1.5390	71.1853
 1.5380	71.1823
 1.5370	71.1665
 1.5360	71.2118
 1.5350	71.2170
 1.5340	71.1091
 1.5330	71.1025
 1.5320	71.1153
 1.5310	71.1445
 1.5300	71.1538
 1.5290	71.2006
 1.5280	71.2223
 1.5270	71.1492
 1.5260	71.0844
 1.5250	71.0547
 1.5240	71.1195
 1.5230	71.1579
 1.5220	71.0744
 1.5210	71.0840
 1.5200	71.1261
 1.5190	71.1278
 1.5180	71.1277
 1.5170	71.1792
 1.5160	71.0959
 1.5150	71.0612
 1.5140	71.1098
 1.5130	71.1171
 1.5120	71.0863
 1.5110	71.1292
 1.5100	71.1212
 1.5090	71.0849
 1.5080	71.0648
 1.5070	71.0521
 1.5060	71.0515
 1.5050	71.0730
 1.5040	71.1011
 1.5030	71.0833
 1.5020	71.0575
 1.5010	71.0994
 1.5000	71.0130
 1.4990	71.0078
 1.4980	71.1181
 1.4970	71.1259
 1.4960	71.0703
 1.4950	71.0771
 1.4940	71.0582
 1.4930	70.9541
 1.4920	70.9894
 1.4910	71.0182
 1.4900	70.9985
 1.4890	71.0324
 1.4880	71.0327
 1.4870	70.9736
 1.4860	70.9979
 1.4850	71.0325
 1.4840	70.9594
 1.4830	70.9558
 1.4820	70.9497
 1.4810	70.9383
 1.4800	70.9249
 1.4790	70.9851
 1.4780	70.9981
 1.4770	70.8959
 1.4760	70.9679
 1.4750	70.9702
 1.4740	70.9230
 1.4730	70.9062
 1.4720	70.9084
 1.4710	70.8773
 1.4700	70.8692
 1.4690	70.8848
 1.4680	70.8615
 1.4670	70.8417
 1.4660	70.8913
 1.4650	70.8820
 1.4640	70.8424
 1.4630	70.8465
 1.4620	70.8542
 1.4610	70.8495
 1.4600	70.8735
 1.4590	70.8947
 1.4580	70.8823
 1.4570	70.8101
 1.4560	70.7885
 1.4550	70.8386
 1.4540	70.8432
 1.4530	70.8235
 1.4520	70.8378
 1.4510	70.8393
 1.4500	70.8722
 1.4490	70.8264
 1.4480	70.7531
 1.4470	70.7653
 1.4460	70.8594
 1.4450	70.7409
 1.4440	70.8240
 1.4430	70.8513
 1.4420	70.7692
 1.4410	70.7203
 1.4400	70.7835
 1.4390	70.7102
 1.4380	70.7573
 1.4370	70.7607
 1.4360	70.7329
 1.4350	70.7317
 1.4340	70.7082
 1.4330	70.7070
 1.4320	70.7394
 1.4310	70.6916
 1.4300	70.6541
 1.4290	70.6401
 1.4280	70.6394
 1.4270	70.6473
 1.4260	70.6469
 1.4250	70.5891
 1.4240	70.6175
 1.4230	70.6272
 1.4220	70.6394
 1.4210	70.5989
 1.4200	70.5923
 1.4190	70.5430
 1.4180	70.5474
 1.4170	70.4946
 1.4160	70.4654
 1.4150	70.3297
 1.4140	70.2756
 1.4130	70.0784
 1.4120	70.0571
 1.4110	70.1953
 1.4100	70.2796
 1.4090	70.4208
 1.4080	70.4929
 1.4070	70.5317
 1.4060	70.6138
 1.4050	70.6291
 1.4040	70.6111
 1.4030	70.6931
 1.4020	70.8164
 1.4010	70.7585
 1.4000	70.7285
 1.3990	70.8036
 1.3980	70.9422
 1.3970	70.9935
 1.3960	70.9591
 1.3950	71.0279
 1.3940	71.0840
 1.3930	71.0675
 1.3920	71.0248
 1.3910	71.0726
 1.3900	71.1421
 1.3890	71.0230
 1.3880	71.0741
 1.3870	71.1598
 1.3860	71.2129
 1.3850	71.1316
 1.3840	71.3231
 1.3830	71.2146
 1.3820	71.0848
 1.3810	71.1401
 1.3800	71.2183
 1.3790	71.1629
 1.3780	71.1718
 1.3770	71.1707
 1.3760	71.2892
 1.3750	71.2811
 1.3740	71.2180
 1.3730	71.2220
 1.3720	71.1885
 1.3710	71.2007
 1.3700	71.2113
 1.3690	71.1636
 1.3680	71.2008
 1.3670	71.1410
 1.3660	71.2479
 1.3650	71.1484
