Name: Spodumene LiAlS_2O_6
Type: Mineral
Class: Silicate
Subclass: Inosilicate
Particle Size: Coarse
Sample No.: IN-13A
Owner: JPL
Wavelength Range: VSWIR
Origin: Brazil, Minas Gerais.
Collection Date: N/A
Description: Particle size was 125-500um.Collected by:  Ward's Original ASTER Spectral Library name was jpl.perkin.mineral.silicate.inosilicate.coarse.in13a.spectrum.txt
Measurement: Hemispherical reflectance
First Column: X
Second Column: Y
X Units: Wavelength (micrometers)
Y Units:Reflectance (percent)
First X Value:  2.5000
Last X Value:  0.4000
Number of X Values: 2101
Additional Information: mineral.silicate.inosilicate.coarse.vswir.in-13a.jpl.perkin.ancillary.txt

 2.5000	72.3756
 2.4990	72.0453
 2.4980	71.8984
 2.4970	72.1129
 2.4960	71.7816
 2.4950	72.1186
 2.4940	72.0388
 2.4930	72.1446
 2.4920	71.9572
 2.4910	72.0814
 2.4900	72.2019
 2.4890	72.1645
 2.4880	72.2299
 2.4870	72.0330
 2.4860	72.0948
 2.4850	72.1350
 2.4840	72.1188
 2.4830	72.2360
 2.4820	72.0569
 2.4810	72.2664
 2.4800	72.1801
 2.4790	72.2644
 2.4780	72.3063
 2.4770	72.2504
 2.4760	72.1876
 2.4750	72.3676
 2.4740	72.2437
 2.4730	72.3020
 2.4720	72.2090
 2.4710	72.3574
 2.4700	72.3186
 2.4690	72.3326
 2.4680	72.2926
 2.4670	72.5700
 2.4660	72.3661
 2.4650	72.5194
 2.4640	72.6349
 2.4630	72.6791
 2.4620	72.4884
 2.4610	72.4839
 2.4600	72.5236
 2.4590	72.6439
 2.4580	72.5449
 2.4570	72.6286
 2.4560	72.7039
 2.4550	72.5515
 2.4540	72.6159
 2.4530	72.6667
 2.4520	72.6738
 2.4510	72.6898
 2.4500	72.5865
 2.4490	72.6890
 2.4480	72.7023
 2.4470	72.7184
 2.4460	72.7796
 2.4450	72.6525
 2.4440	72.7476
 2.4430	72.7817
 2.4420	72.7151
 2.4410	72.7768
 2.4400	72.8323
 2.4390	72.7982
 2.4380	72.8228
 2.4370	72.7668
 2.4360	72.8194
 2.4350	72.8269
 2.4340	72.8258
 2.4330	72.9261
 2.4320	72.8795
 2.4310	72.8437
 2.4300	72.9822
 2.4290	73.0833
 2.4280	72.9368
 2.4270	72.9980
 2.4260	72.9793
 2.4250	73.0176
 2.4240	72.9437
 2.4230	73.0285
 2.4220	73.0639
 2.4210	73.0825
 2.4200	73.0408
 2.4190	73.0789
 2.4180	73.1222
 2.4170	73.0787
 2.4160	73.0652
 2.4150	73.1366
 2.4140	73.0924
 2.4130	73.1232
 2.4120	73.1735
 2.4110	73.2120
 2.4100	73.1547
 2.4090	73.1510
 2.4080	73.1316
 2.4070	73.2058
 2.4060	73.2660
 2.4050	73.2863
 2.4040	73.3152
 2.4030	73.3075
 2.4020	73.2881
 2.4010	73.2873
 2.4000	73.3082
 2.3990	73.2922
 2.3980	73.3183
 2.3970	73.3877
 2.3960	73.3245
 2.3950	73.3572
 2.3940	73.3350
 2.3930	73.3789
 2.3920	73.4420
 2.3910	73.4857
 2.3900	73.4682
 2.3890	73.4729
 2.3880	73.4890
 2.3870	73.4743
 2.3860	73.5344
 2.3850	73.5408
 2.3840	73.4978
 2.3830	73.5951
 2.3820	73.6113
 2.3810	73.5199
 2.3800	73.4605
 2.3790	73.5677
 2.3780	73.5843
 2.3770	73.5449
 2.3760	73.5735
 2.3750	73.6756
 2.3740	73.6794
 2.3730	73.7004
 2.3720	73.7190
 2.3710	73.7151
 2.3700	73.7454
 2.3690	73.7715
 2.3680	73.7509
 2.3670	73.7774
 2.3660	73.7494
 2.3650	73.7629
 2.3640	73.7852
 2.3630	73.8353
 2.3620	73.8767
 2.3610	73.8492
 2.3600	73.8339
 2.3590	73.9003
 2.3580	73.9702
 2.3570	73.9544
 2.3560	73.9367
 2.3550	73.9496
 2.3540	73.9576
 2.3530	73.9578
 2.3520	73.9123
 2.3510	73.9341
 2.3500	73.9547
 2.3490	73.9591
 2.3480	74.0251
 2.3470	74.0819
 2.3460	74.0467
 2.3450	74.0397
 2.3440	74.0721
 2.3430	74.0546
 2.3420	74.0525
 2.3410	74.0629
 2.3400	74.0874
 2.3390	74.1262
 2.3380	74.1242
 2.3370	74.0850
 2.3360	74.0379
 2.3350	74.0429
 2.3340	74.0912
 2.3330	74.1293
 2.3320	74.1038
 2.3310	74.0535
 2.3300	74.0879
 2.3290	74.1160
 2.3280	74.1280
 2.3270	74.1379
 2.3260	74.1262
 2.3250	74.1320
 2.3240	74.1624
 2.3230	74.1222
 2.3220	74.1109
 2.3210	74.1041
 2.3200	74.1259
 2.3190	74.1162
 2.3180	74.1654
 2.3170	74.0557
 2.3160	74.0938
 2.3150	74.1243
 2.3140	74.1042
 2.3130	74.1004
 2.3120	74.2196
 2.3110	74.1853
 2.3100	74.1115
 2.3090	74.0813
 2.3080	74.1049
 2.3070	74.0939
 2.3060	74.1083
 2.3050	74.1051
 2.3040	74.1396
 2.3030	74.0906
 2.3020	74.1593
 2.3010	74.1551
 2.3000	74.1612
 2.2990	74.1464
 2.2980	74.2144
 2.2970	74.1124
 2.2960	74.1569
 2.2950	74.1692
 2.2940	74.1847
 2.2930	74.1651
 2.2920	74.1931
 2.2910	74.1793
 2.2900	74.2028
 2.2890	74.1650
 2.2880	74.2122
 2.2870	74.2382
 2.2860	74.1923
 2.2850	74.2069
 2.2840	74.2026
 2.2830	74.2178
 2.2820	74.2047
 2.2810	74.1438
 2.2800	74.2017
 2.2790	74.2026
 2.2780	74.2504
 2.2770	74.1468
 2.2760	74.1847
 2.2750	74.1438
 2.2740	74.1896
 2.2730	74.1630
 2.2720	74.2204
 2.2710	74.2333
 2.2700	74.2239
 2.2690	74.1843
 2.2680	74.1771
 2.2670	74.1852
 2.2660	74.1695
 2.2650	74.1891
 2.2640	74.1910
 2.2630	74.1322
 2.2620	74.1727
 2.2610	74.2314
 2.2600	74.1259
 2.2590	74.1651
 2.2580	74.1925
 2.2570	74.1206
 2.2560	74.1792
 2.2550	74.0514
 2.2540	74.1901
 2.2530	74.0795
 2.2520	74.1466
 2.2510	74.0918
 2.2500	74.0948
 2.2490	74.1180
 2.2480	74.0925
 2.2470	74.0559
 2.2460	74.1006
 2.2450	74.1141
 2.2440	74.0753
 2.2430	74.0863
 2.2420	74.1547
 2.2410	74.0384
 2.2400	74.0759
 2.2390	74.1153
 2.2380	74.1410
 2.2370	74.0919
 2.2360	74.0882
 2.2350	74.0378
 2.2340	74.0711
 2.2330	74.1661
 2.2320	74.0986
 2.2310	74.1288
 2.2300	74.0902
 2.2290	74.0689
 2.2280	74.0747
 2.2270	73.9832
 2.2260	74.0711
 2.2250	74.0215
 2.2240	74.0251
 2.2230	74.0239
 2.2220	74.0506
 2.2210	73.9822
 2.2200	74.0296
 2.2190	73.9107
 2.2180	73.9918
 2.2170	73.8908
 2.2160	73.9393
 2.2150	73.8773
 2.2140	73.8029
 2.2130	73.7882
 2.2120	73.8198
 2.2110	73.6718
 2.2100	73.6927
 2.2090	73.6845
 2.2080	73.6952
 2.2070	73.6883
 2.2060	73.7748
 2.2050	73.6629
 2.2040	73.6696
 2.2030	73.7002
 2.2020	73.8036
 2.2010	73.7222
 2.2000	73.8675
 2.1990	73.8271
 2.1980	73.9241
 2.1970	73.8804
 2.1960	73.9552
 2.1950	74.0379
 2.1940	74.0825
 2.1930	74.0000
 2.1920	74.0523
 2.1910	74.0580
 2.1900	74.1572
 2.1890	74.0856
 2.1880	74.2401
 2.1870	74.1881
 2.1860	74.1843
 2.1850	74.2446
 2.1840	74.3148
 2.1830	74.3168
 2.1820	74.3518
 2.1810	74.3559
 2.1800	74.4764
 2.1790	74.4180
 2.1780	74.4362
 2.1770	74.4662
 2.1760	74.4736
 2.1750	74.4361
 2.1740	74.5618
 2.1730	74.6215
 2.1720	74.6496
 2.1710	74.6742
 2.1700	74.6522
 2.1690	74.6936
 2.1680	74.6942
 2.1670	74.8212
 2.1660	74.7238
 2.1650	74.7287
 2.1640	74.8998
 2.1630	74.8363
 2.1620	74.9037
 2.1610	74.9198
 2.1600	74.9385
 2.1590	74.9856
 2.1580	75.0218
 2.1570	75.0445
 2.1560	75.1123
 2.1550	75.1219
 2.1540	75.1670
 2.1530	75.2049
 2.1520	75.1761
 2.1510	75.2230
 2.1500	75.2022
 2.1490	75.2195
 2.1480	75.2819
 2.1470	75.3095
 2.1460	75.2852
 2.1450	75.3542
 2.1440	75.3493
 2.1430	75.3900
 2.1420	75.4398
 2.1410	75.4390
 2.1400	75.3861
 2.1390	75.3537
 2.1380	75.3924
 2.1370	75.3786
 2.1360	75.3446
 2.1350	75.3088
 2.1340	75.3986
 2.1330	75.3259
 2.1320	75.2408
 2.1310	75.2274
 2.1300	75.2738
 2.1290	75.2718
 2.1280	75.2328
 2.1270	75.1515
 2.1260	75.1036
 2.1250	75.0593
 2.1240	75.0847
 2.1230	75.0054
 2.1220	75.0276
 2.1210	74.9232
 2.1200	74.8905
 2.1190	74.7973
 2.1180	74.8032
 2.1170	74.7742
 2.1160	74.7770
 2.1150	74.7141
 2.1140	74.6382
 2.1130	74.5685
 2.1120	74.5666
 2.1110	74.5714
 2.1100	74.4878
 2.1090	74.3706
 2.1080	74.3110
 2.1070	74.3044
 2.1060	74.2086
 2.1050	74.2215
 2.1040	74.2485
 2.1030	74.1890
 2.1020	74.1683
 2.1010	74.1702
 2.1000	74.0809
 2.0990	74.0720
 2.0980	74.0996
 2.0970	74.0839
 2.0960	74.0880
 2.0950	74.1026
 2.0940	74.1300
 2.0930	74.0924
 2.0920	74.1107
 2.0910	74.1552
 2.0900	74.1613
 2.0890	74.1842
 2.0880	74.1800
 2.0870	74.1609
 2.0860	74.2065
 2.0850	74.2047
 2.0840	74.1487
 2.0830	74.1722
 2.0820	74.2199
 2.0810	74.2241
 2.0800	74.1988
 2.0790	74.2010
 2.0780	74.2415
 2.0770	74.3025
 2.0760	74.3061
 2.0750	74.2822
 2.0740	74.2881
 2.0730	74.2985
 2.0720	74.2768
 2.0710	74.3021
 2.0700	74.3396
 2.0690	74.2789
 2.0680	74.2622
 2.0670	74.2851
 2.0660	74.3473
 2.0650	74.3428
 2.0640	74.3147
 2.0630	74.3570
 2.0620	74.3597
 2.0610	74.4228
 2.0600	74.3927
 2.0590	74.3877
 2.0580	74.4326
 2.0570	74.4235
 2.0560	74.3989
 2.0550	74.4104
 2.0540	74.4375
 2.0530	74.4365
 2.0520	74.4666
 2.0510	74.4828
 2.0500	74.4353
 2.0490	74.4309
 2.0480	74.4377
 2.0470	74.4479
 2.0460	74.4688
 2.0450	74.4993
 2.0440	74.4903
 2.0430	74.5105
 2.0420	74.5004
 2.0410	74.5163
 2.0400	74.5350
 2.0390	74.5546
 2.0380	74.5117
 2.0370	74.5467
 2.0360	74.5058
 2.0350	74.5642
 2.0340	74.5652
 2.0330	74.5472
 2.0320	74.5320
 2.0310	74.4849
 2.0300	74.4243
 2.0290	74.4591
 2.0280	74.5696
 2.0270	74.5650
 2.0260	74.5539
 2.0250	74.4777
 2.0240	74.5140
 2.0230	74.5283
 2.0220	74.5184
 2.0210	74.5212
 2.0200	74.5174
 2.0190	74.5302
 2.0180	74.5373
 2.0170	74.5309
 2.0160	74.5193
 2.0150	74.4861
 2.0140	74.5079
 2.0130	74.5165
 2.0120	74.4764
 2.0110	74.5328
 2.0100	74.4888
 2.0090	74.5283
 2.0080	74.4431
 2.0070	74.4448
 2.0060	74.4904
 2.0050	74.4705
 2.0040	74.4194
 2.0030	74.3906
 2.0020	74.4433
 2.0010	74.4640
 2.0000	74.4658
 1.9990	74.3686
 1.9980	74.3563
 1.9970	74.3051
 1.9960	74.3644
 1.9950	74.3513
 1.9940	74.3204
 1.9930	74.3217
 1.9920	74.2873
 1.9910	74.2996
 1.9900	74.2644
 1.9890	74.3388
 1.9880	74.2476
 1.9870	74.2199
 1.9860	74.2134
 1.9850	74.2594
 1.9840	74.2502
 1.9830	74.2124
 1.9820	74.1283
 1.9810	74.1195
 1.9800	74.1632
 1.9790	74.1982
 1.9780	74.0897
 1.9770	74.1476
 1.9760	74.0803
 1.9750	74.1222
 1.9740	74.0716
 1.9730	74.0876
 1.9720	74.0285
 1.9710	74.0394
 1.9700	73.9900
 1.9690	74.0561
 1.9680	74.0647
 1.9670	74.0093
 1.9660	73.9645
 1.9650	74.0001
 1.9640	73.9919
 1.9630	73.9690
 1.9620	73.9216
 1.9610	74.0467
 1.9600	73.9878
 1.9590	73.9918
 1.9580	73.8934
 1.9570	73.9727
 1.9560	74.0108
 1.9550	73.9432
 1.9540	73.8651
 1.9530	73.9945
 1.9520	73.9290
 1.9510	73.9333
 1.9500	73.8570
 1.9490	73.9089
 1.9480	73.9269
 1.9470	73.8976
 1.9460	73.9452
 1.9450	73.9434
 1.9440	73.8460
 1.9430	73.9398
 1.9420	73.8585
 1.9410	73.9090
 1.9400	73.8921
 1.9390	73.9798
 1.9380	73.8788
 1.9370	73.8837
 1.9360	73.8794
 1.9350	73.9399
 1.9340	73.9013
 1.9330	73.9348
 1.9320	73.9211
 1.9310	73.8950
 1.9300	73.9116
 1.9290	73.9583
 1.9280	73.9046
 1.9270	73.9835
 1.9260	73.9173
 1.9250	73.9482
 1.9240	73.9237
 1.9230	73.9139
 1.9220	73.9033
 1.9210	73.8080
 1.9200	73.9534
 1.9190	73.8356
 1.9180	73.9212
 1.9170	73.9020
 1.9160	73.8663
 1.9150	73.9252
 1.9140	73.8994
 1.9130	73.9561
 1.9120	73.9141
 1.9110	73.9119
 1.9100	73.9900
 1.9090	74.0297
 1.9080	74.0520
 1.9070	73.9985
 1.9060	74.0249
 1.9050	74.0490
 1.9040	74.1460
 1.9030	74.1937
 1.9020	74.1062
 1.9010	74.3064
 1.9000	74.2807
 1.8990	74.3251
 1.8980	74.3362
 1.8970	74.4048
 1.8960	74.3013
 1.8950	74.3947
 1.8940	74.3759
 1.8930	74.4703
 1.8920	74.5033
 1.8910	74.5357
 1.8900	74.5705
 1.8890	74.6170
 1.8880	74.6286
 1.8870	74.6097
 1.8860	74.6175
 1.8850	74.6823
 1.8840	74.7537
 1.8830	74.7472
 1.8820	74.7685
 1.8810	74.7399
 1.8800	74.7557
 1.8790	74.8372
 1.8780	74.8678
 1.8770	74.9124
 1.8760	74.8520
 1.8750	74.8845
 1.8740	74.8756
 1.8730	74.9018
 1.8720	74.9042
 1.8710	74.9006
 1.8700	74.9265
 1.8690	74.9457
 1.8680	74.8803
 1.8670	74.9133
 1.8660	74.8382
 1.8650	74.8755
 1.8640	74.9148
 1.8630	74.9533
 1.8620	74.8790
 1.8610	74.9293
 1.8600	74.8913
 1.8590	74.8908
 1.8580	74.9142
 1.8570	74.9606
 1.8560	74.9184
 1.8550	74.9686
 1.8540	74.9300
 1.8530	74.9553
 1.8520	74.9393
 1.8510	74.9939
 1.8500	75.0062
 1.8490	74.9898
 1.8480	74.9338
 1.8470	74.9539
 1.8460	74.9520
 1.8450	74.9767
 1.8440	74.9308
 1.8430	74.9197
 1.8420	74.9253
 1.8410	74.9896
 1.8400	75.0048
 1.8390	74.9667
 1.8380	74.8931
 1.8370	74.9563
 1.8360	74.9842
 1.8350	74.9864
 1.8340	74.9349
 1.8330	74.9428
 1.8320	74.9516
 1.8310	74.9677
 1.8300	74.9148
 1.8290	74.8949
 1.8280	74.8849
 1.8270	74.9299
 1.8260	74.9520
 1.8250	74.9764
 1.8240	74.9624
 1.8230	74.9378
 1.8220	74.9280
 1.8210	74.9030
 1.8200	74.8984
 1.8190	74.8960
 1.8180	74.8943
 1.8170	74.9152
 1.8160	74.9012
 1.8150	74.8734
 1.8140	74.8520
 1.8130	74.9503
 1.8120	74.9511
 1.8110	74.9368
 1.8100	74.9296
 1.8090	74.8943
 1.8080	74.9035
 1.8070	74.9183
 1.8060	74.9060
 1.8050	74.9570
 1.8040	74.9346
 1.8030	74.9519
 1.8020	74.9377
 1.8010	74.9460
 1.8000	74.9435
 1.7990	74.9415
 1.7980	74.9899
 1.7970	74.9998
 1.7960	74.9368
 1.7950	74.9349
 1.7940	74.9366
 1.7930	74.9341
 1.7920	74.9540
 1.7910	74.9088
 1.7900	74.9285
 1.7890	74.9231
 1.7880	74.8845
 1.7870	74.8690
 1.7860	74.8286
 1.7850	74.8648
 1.7840	74.9050
 1.7830	74.9459
 1.7820	74.9098
 1.7810	74.8416
 1.7800	74.8272
 1.7790	74.8362
 1.7780	74.8469
 1.7770	74.8472
 1.7760	74.8652
 1.7750	74.8362
 1.7740	74.8348
 1.7730	74.8183
 1.7720	74.8046
 1.7710	74.7919
 1.7700	74.8035
 1.7690	74.8272
 1.7680	74.8166
 1.7670	74.8302
 1.7660	74.8494
 1.7650	74.8431
 1.7640	74.8764
 1.7630	74.8513
 1.7620	74.8425
 1.7610	74.8473
 1.7600	74.9038
 1.7590	74.8386
 1.7580	74.7743
 1.7570	74.8405
 1.7560	74.7923
 1.7550	74.7679
 1.7540	74.8112
 1.7530	74.8106
 1.7520	74.8466
 1.7510	74.8505
 1.7500	74.8310
 1.7490	74.7931
 1.7480	74.8380
 1.7470	74.8833
 1.7460	74.8904
 1.7450	74.8508
 1.7440	74.8978
 1.7430	74.8421
 1.7420	74.8695
 1.7410	74.8963
 1.7400	74.8622
 1.7390	74.8484
 1.7380	74.8523
 1.7370	74.8446
 1.7360	74.8908
 1.7350	74.8947
 1.7340	74.9149
 1.7330	74.8757
 1.7320	74.8761
 1.7310	74.9047
 1.7300	74.8873
 1.7290	74.9019
 1.7280	74.9038
 1.7270	74.8814
 1.7260	74.9066
 1.7250	74.8993
 1.7240	74.8975
 1.7230	74.8791
 1.7220	74.9323
 1.7210	74.8941
 1.7200	74.8451
 1.7190	74.8639
 1.7180	74.8850
 1.7170	74.8835
 1.7160	74.9154
 1.7150	74.8767
 1.7140	74.8937
 1.7130	74.8680
 1.7120	74.8135
 1.7110	74.7515
 1.7100	74.7730
 1.7090	74.8860
 1.7080	74.8404
 1.7070	74.8351
 1.7060	74.9086
 1.7050	74.8811
 1.7040	74.7755
 1.7030	74.8029
 1.7020	74.8497
 1.7010	74.7989
 1.7000	74.8333
 1.6990	74.7911
 1.6980	74.8200
 1.6970	74.7593
 1.6960	74.7991
 1.6950	74.7498
 1.6940	74.7186
 1.6930	74.7426
 1.6920	74.7726
 1.6910	74.7905
 1.6900	74.7694
 1.6890	74.6609
 1.6880	74.7237
 1.6870	74.7541
 1.6860	74.8308
 1.6850	74.7754
 1.6840	74.8571
 1.6830	74.7815
 1.6820	74.7417
 1.6810	74.7130
 1.6800	74.8072
 1.6790	74.6433
 1.6780	74.8094
 1.6770	74.7802
 1.6760	74.7310
 1.6750	74.7675
 1.6740	74.7935
 1.6730	74.8260
 1.6720	74.7233
 1.6710	74.7458
 1.6700	74.6883
 1.6690	74.6958
 1.6680	74.7159
 1.6670	74.7403
 1.6660	74.8360
 1.6650	74.7816
 1.6640	74.7303
 1.6630	74.7175
 1.6620	74.7502
 1.6610	74.6570
 1.6600	74.6828
 1.6590	74.7350
 1.6580	74.8025
 1.6570	74.7793
 1.6560	74.7671
 1.6550	74.6695
 1.6540	74.8042
 1.6530	74.7408
 1.6520	74.7096
 1.6510	74.7821
 1.6500	74.7068
 1.6490	74.6923
 1.6480	74.8063
 1.6470	74.5850
 1.6460	74.7029
 1.6450	74.7242
 1.6440	74.8568
 1.6430	74.7236
 1.6420	74.7739
 1.6410	74.6657
 1.6400	74.7747
 1.6390	74.6636
 1.6380	74.8110
 1.6370	74.6694
 1.6360	74.7879
 1.6350	74.7590
 1.6340	74.7399
 1.6330	74.6917
 1.6320	74.7525
 1.6310	74.6569
 1.6300	74.7423
 1.6290	74.5988
 1.6280	74.6775
 1.6270	74.6633
 1.6260	74.7542
 1.6250	74.6852
 1.6240	74.7395
 1.6230	74.7167
 1.6220	74.7071
 1.6210	74.7369
 1.6200	74.7807
 1.6190	74.6576
 1.6180	74.8029
 1.6170	74.7163
 1.6160	74.7467
 1.6150	74.6924
 1.6140	74.7073
 1.6130	74.7766
 1.6120	74.7150
 1.6110	74.6681
 1.6100	74.6782
 1.6090	74.6865
 1.6080	74.7654
 1.6070	74.7343
 1.6060	74.7024
 1.6050	74.7692
 1.6040	74.7831
 1.6030	74.6674
 1.6020	74.6862
 1.6010	74.5895
 1.6000	74.6962
 1.5990	74.6597
 1.5980	74.6994
 1.5970	74.6752
 1.5960	74.6431
 1.5950	74.6340
 1.5940	74.6731
 1.5930	74.7029
 1.5920	74.6523
 1.5910	74.5772
 1.5900	74.6612
 1.5890	74.6432
 1.5880	74.6559
 1.5870	74.6299
 1.5860	74.7308
 1.5850	74.6493
 1.5840	74.7565
 1.5830	74.6673
 1.5820	74.6296
 1.5810	74.6533
 1.5800	74.6581
 1.5790	74.6306
 1.5780	74.6005
 1.5770	74.6194
 1.5760	74.6327
 1.5750	74.6495
 1.5740	74.5973
 1.5730	74.5951
 1.5720	74.5735
 1.5710	74.6595
 1.5700	74.6189
 1.5690	74.5691
 1.5680	74.5439
 1.5670	74.6466
 1.5660	74.6252
 1.5650	74.5785
 1.5640	74.6634
 1.5630	74.6933
 1.5620	74.6768
 1.5610	74.5412
 1.5600	74.6026
 1.5590	74.5683
 1.5580	74.5989
 1.5570	74.5294
 1.5560	74.5614
 1.5550	74.5784
 1.5540	74.6380
 1.5530	74.6141
 1.5520	74.5651
 1.5510	74.5865
 1.5500	74.5880
 1.5490	74.5303
 1.5480	74.5096
 1.5470	74.4982
 1.5460	74.5413
 1.5450	74.4942
 1.5440	74.5184
 1.5430	74.5393
 1.5420	74.5313
 1.5410	74.4978
 1.5400	74.5188
 1.5390	74.5626
 1.5380	74.5186
 1.5370	74.5273
 1.5360	74.5322
 1.5350	74.5867
 1.5340	74.5594
 1.5330	74.4965
 1.5320	74.5249
 1.5310	74.5077
 1.5300	74.4559
 1.5290	74.4993
 1.5280	74.4893
 1.5270	74.4615
 1.5260	74.4402
 1.5250	74.4468
 1.5240	74.4169
 1.5230	74.4443
 1.5220	74.5095
 1.5210	74.4821
 1.5200	74.4714
 1.5190	74.4488
 1.5180	74.4465
 1.5170	74.4303
 1.5160	74.4607
 1.5150	74.4893
 1.5140	74.4541
 1.5130	74.4206
 1.5120	74.4647
 1.5110	74.4499
 1.5100	74.4508
 1.5090	74.4269
 1.5080	74.4206
 1.5070	74.4267
 1.5060	74.4508
 1.5050	74.4742
 1.5040	74.4590
 1.5030	74.4501
 1.5020	74.4588
 1.5010	74.4022
 1.5000	74.4179
 1.4990	74.3894
 1.4980	74.3706
 1.4970	74.4038
 1.4960	74.3731
 1.4950	74.3592
 1.4940	74.3639
 1.4930	74.3751
 1.4920	74.3860
 1.4910	74.3762
 1.4900	74.4063
 1.4890	74.3945
 1.4880	74.3338
 1.4870	74.3439
 1.4860	74.3666
 1.4850	74.3838
 1.4840	74.3623
 1.4830	74.2906
 1.4820	74.2968
 1.4810	74.3518
 1.4800	74.2757
 1.4790	74.2888
 1.4780	74.2842
 1.4770	74.3096
 1.4760	74.3100
 1.4750	74.3266
 1.4740	74.2879
 1.4730	74.3186
 1.4720	74.2752
 1.4710	74.2861
 1.4700	74.3076
 1.4690	74.2982
 1.4680	74.3062
 1.4670	74.2602
 1.4660	74.3023
 1.4650	74.2965
 1.4640	74.2249
 1.4630	74.2766
 1.4620	74.2267
 1.4610	74.2470
 1.4600	74.2626
 1.4590	74.3257
 1.4580	74.2639
 1.4570	74.2237
 1.4560	74.2188
 1.4550	74.2899
 1.4540	74.2672
 1.4530	74.2166
 1.4520	74.2350
 1.4510	74.2767
 1.4500	74.2305
 1.4490	74.2075
 1.4480	74.2306
 1.4470	74.2241
 1.4460	74.2493
 1.4450	74.2359
 1.4440	74.1911
 1.4430	74.1845
 1.4420	74.2002
 1.4410	74.2714
 1.4400	74.2725
 1.4390	74.2324
 1.4380	74.1752
 1.4370	74.1593
 1.4360	74.1166
 1.4350	74.1637
 1.4340	74.1493
 1.4330	74.1685
 1.4320	74.1220
 1.4310	74.1962
 1.4300	74.1137
 1.4290	74.1528
 1.4280	74.1283
 1.4270	74.1554
 1.4260	74.0775
 1.4250	74.0598
 1.4240	74.0268
 1.4230	74.0222
 1.4220	73.9826
 1.4210	74.0195
 1.4200	73.9664
 1.4190	73.9309
 1.4180	73.8298
 1.4170	73.7468
 1.4160	73.6819
 1.4150	73.6512
 1.4140	73.6325
 1.4130	73.6607
 1.4120	73.6601
 1.4110	73.8098
 1.4100	73.7787
 1.4090	73.8258
 1.4080	73.8014
 1.4070	73.8192
 1.4060	73.8561
 1.4050	73.9322
 1.4040	73.9028
 1.4030	74.0175
 1.4020	73.8260
 1.4010	73.8118
 1.4000	73.8566
 1.3990	73.8756
 1.3980	73.9511
 1.3970	73.9792
 1.3960	73.9810
 1.3950	73.8893
 1.3940	73.9163
 1.3930	73.9643
 1.3920	73.9119
 1.3910	74.0384
 1.3900	73.9845
 1.3890	73.9525
 1.3880	74.0063
 1.3870	74.0072
 1.3860	74.0386
 1.3850	74.0079
 1.3840	73.9939
 1.3830	73.9946
 1.3820	74.0157
 1.3810	74.1217
 1.3800	74.0889
 1.3790	74.1453
 1.3780	74.1444
 1.3770	74.1635
 1.3760	74.1578
 1.3750	74.1999
 1.3740	74.2362
 1.3730	74.2063
 1.3720	74.1329
 1.3710	74.2173
 1.3700	74.2034
 1.3690	74.3436
 1.3680	74.1972
 1.3670	74.1813
 1.3660	74.1933
