Name: Ferroaxinite Ca_2Fe^2+Al_2BSi_4O_15(OH)
Type: Mineral
Class: Silicate
Subclass: Cyclosilicate
Particle Size: Fine
Sample No.: CS-4A
Owner: JPL
Wavelength Range: VSWIR
Origin: Mexico, Baja California Norte, Los Gavelontos.
Collection Date: N/A
Description: Particle size was 0-45um.Collected by:  Ward's Original ASTER Spectral Library name was jpl.perkin.mineral.silicate.cyclosilicate.fine.cs04a.spectrum.txt
Measurement: Hemispherical reflectance
First Column: X
Second Column: Y
X Units: Wavelength (micrometers)
Y Units:Reflectance (percent)
First X Value:  2.5000
Last X Value:  0.4000
Number of X Values: 2101
Additional Information: mineral.silicate.cyclosilicate.fine.vswir.cs-4a.jpl.perkin.ancillary.txt

 2.5000	49.2590
 2.4990	49.1164
 2.4980	49.1587
 2.4970	49.3598
 2.4960	48.9508
 2.4950	49.1743
 2.4940	48.9669
 2.4930	49.1072
 2.4920	49.0453
 2.4910	49.0954
 2.4900	48.9925
 2.4890	48.9058
 2.4880	48.8107
 2.4870	48.9998
 2.4860	48.7909
 2.4850	48.9688
 2.4840	48.9729
 2.4830	48.8625
 2.4820	48.8967
 2.4810	48.7797
 2.4800	48.7274
 2.4790	48.7317
 2.4780	48.6407
 2.4770	48.7430
 2.4760	48.4761
 2.4750	48.6623
 2.4740	48.5523
 2.4730	48.6163
 2.4720	48.5211
 2.4710	48.6334
 2.4700	48.5321
 2.4690	48.5663
 2.4680	48.4815
 2.4670	48.4481
 2.4660	48.2584
 2.4650	48.3678
 2.4640	48.2570
 2.4630	48.2926
 2.4620	48.0678
 2.4610	48.0891
 2.4600	48.0005
 2.4590	47.9996
 2.4580	47.9317
 2.4570	47.8721
 2.4560	47.8596
 2.4550	47.8473
 2.4540	47.6190
 2.4530	47.6445
 2.4520	47.4687
 2.4510	47.4750
 2.4500	47.4060
 2.4490	47.3272
 2.4480	47.2043
 2.4470	47.1559
 2.4460	47.1110
 2.4450	47.1404
 2.4440	46.9734
 2.4430	46.9725
 2.4420	46.7919
 2.4410	46.7523
 2.4400	46.6205
 2.4390	46.5601
 2.4380	46.5292
 2.4370	46.4135
 2.4360	46.3680
 2.4350	46.3115
 2.4340	46.1416
 2.4330	46.1454
 2.4320	46.0356
 2.4310	46.0151
 2.4300	45.8818
 2.4290	45.8154
 2.4280	45.7507
 2.4270	45.6967
 2.4260	45.4932
 2.4250	45.4647
 2.4240	45.3791
 2.4230	45.3217
 2.4220	45.1797
 2.4210	45.0737
 2.4200	44.9426
 2.4190	44.8855
 2.4180	44.7795
 2.4170	44.8157
 2.4160	44.6241
 2.4150	44.5652
 2.4140	44.3639
 2.4130	44.2991
 2.4120	44.2057
 2.4110	44.0504
 2.4100	43.9509
 2.4090	43.8736
 2.4080	43.7132
 2.4070	43.6389
 2.4060	43.5080
 2.4050	43.4532
 2.4040	43.2708
 2.4030	43.1920
 2.4020	43.0842
 2.4010	43.0359
 2.4000	42.8501
 2.3990	42.7269
 2.3980	42.5641
 2.3970	42.4577
 2.3960	42.3120
 2.3950	42.1641
 2.3940	42.0251
 2.3930	41.9483
 2.3920	41.7067
 2.3910	41.5039
 2.3900	41.3322
 2.3890	41.1699
 2.3880	41.0052
 2.3870	40.7896
 2.3860	40.5273
 2.3850	40.3666
 2.3840	40.0948
 2.3830	39.8513
 2.3820	39.5688
 2.3810	39.3368
 2.3800	39.0114
 2.3790	38.7574
 2.3780	38.5171
 2.3770	38.2799
 2.3760	37.9915
 2.3750	37.8195
 2.3740	37.6194
 2.3730	37.3625
 2.3720	37.1433
 2.3710	37.0255
 2.3700	36.8801
 2.3690	36.7236
 2.3680	36.6303
 2.3670	36.5647
 2.3660	36.4565
 2.3650	36.3948
 2.3640	36.3730
 2.3630	36.3675
 2.3620	36.3842
 2.3610	36.3645
 2.3600	36.3289
 2.3590	36.3732
 2.3580	36.3933
 2.3570	36.4229
 2.3560	36.3929
 2.3550	36.3229
 2.3540	36.3558
 2.3530	36.3994
 2.3520	36.3671
 2.3510	36.2913
 2.3500	36.2250
 2.3490	36.1368
 2.3480	36.0691
 2.3470	35.9462
 2.3460	35.8073
 2.3450	35.6330
 2.3440	35.4320
 2.3430	35.2525
 2.3420	35.0981
 2.3410	34.8967
 2.3400	34.6122
 2.3390	34.3754
 2.3380	34.1642
 2.3370	33.8640
 2.3360	33.5927
 2.3350	33.2985
 2.3340	32.9978
 2.3330	32.6835
 2.3320	32.4289
 2.3310	32.1065
 2.3300	31.8685
 2.3290	31.6112
 2.3280	31.3820
 2.3270	31.1555
 2.3260	31.0280
 2.3250	30.7532
 2.3240	30.5823
 2.3230	30.4105
 2.3220	30.3077
 2.3210	30.2158
 2.3200	30.1358
 2.3190	30.0579
 2.3180	30.1021
 2.3170	30.0572
 2.3160	30.0764
 2.3150	30.1491
 2.3140	30.1806
 2.3130	30.1863
 2.3120	30.2525
 2.3110	30.2899
 2.3100	30.3387
 2.3090	30.3952
 2.3080	30.4936
 2.3070	30.5187
 2.3060	30.5708
 2.3050	30.5955
 2.3040	30.6991
 2.3030	30.6616
 2.3020	30.7428
 2.3010	30.7729
 2.3000	30.8060
 2.2990	30.8502
 2.2980	30.9823
 2.2970	30.9666
 2.2960	31.0894
 2.2950	31.0675
 2.2940	31.1744
 2.2930	31.1843
 2.2920	31.2322
 2.2910	31.3030
 2.2900	31.3961
 2.2890	31.3715
 2.2880	31.5134
 2.2870	31.4749
 2.2860	31.5425
 2.2850	31.5280
 2.2840	31.5905
 2.2830	31.6261
 2.2820	31.6968
 2.2810	31.6913
 2.2800	31.7405
 2.2790	31.7035
 2.2780	31.7287
 2.2770	31.7195
 2.2760	31.6876
 2.2750	31.6350
 2.2740	31.7179
 2.2730	31.6621
 2.2720	31.6878
 2.2710	31.6218
 2.2700	31.6848
 2.2690	31.6208
 2.2680	31.6313
 2.2670	31.6359
 2.2660	31.6963
 2.2650	31.6756
 2.2640	31.7528
 2.2630	31.6899
 2.2620	31.7223
 2.2610	31.7576
 2.2600	31.8096
 2.2590	31.7149
 2.2580	31.7949
 2.2570	31.7839
 2.2560	31.8952
 2.2550	31.8106
 2.2540	31.9026
 2.2530	31.8341
 2.2520	31.9351
 2.2510	31.8678
 2.2500	31.8881
 2.2490	31.8685
 2.2480	31.9331
 2.2470	31.8320
 2.2460	31.8634
 2.2450	31.7818
 2.2440	31.9013
 2.2430	31.8662
 2.2420	31.8712
 2.2410	31.7176
 2.2400	31.8006
 2.2390	31.6825
 2.2380	31.7698
 2.2370	31.5965
 2.2360	31.7124
 2.2350	31.6105
 2.2340	31.6256
 2.2330	31.5579
 2.2320	31.5634
 2.2310	31.4836
 2.2300	31.5483
 2.2290	31.4650
 2.2280	31.5380
 2.2270	31.3863
 2.2260	31.4634
 2.2250	31.3410
 2.2240	31.3387
 2.2230	31.2903
 2.2220	31.3457
 2.2210	31.2026
 2.2200	31.2662
 2.2190	31.1205
 2.2180	31.2855
 2.2170	31.1132
 2.2160	31.1307
 2.2150	31.0566
 2.2140	31.1662
 2.2130	31.0305
 2.2120	31.1079
 2.2110	30.8541
 2.2100	31.0324
 2.2090	30.9090
 2.2080	30.9116
 2.2070	30.9702
 2.2060	30.9057
 2.2050	30.8727
 2.2040	30.8625
 2.2030	30.7942
 2.2020	30.8041
 2.2010	30.6904
 2.2000	30.7352
 2.1990	30.6360
 2.1980	30.7265
 2.1970	30.6357
 2.1960	30.6544
 2.1950	30.5542
 2.1940	30.6267
 2.1930	30.5427
 2.1920	30.5840
 2.1910	30.4873
 2.1900	30.4784
 2.1890	30.4040
 2.1880	30.4465
 2.1870	30.4240
 2.1860	30.4215
 2.1850	30.3439
 2.1840	30.4062
 2.1830	30.3364
 2.1820	30.3271
 2.1810	30.2656
 2.1800	30.2369
 2.1790	30.2069
 2.1780	30.3183
 2.1770	30.1733
 2.1760	30.2576
 2.1750	30.1794
 2.1740	30.2397
 2.1730	30.1627
 2.1720	30.2105
 2.1710	30.1607
 2.1700	30.1500
 2.1690	30.0928
 2.1680	30.1327
 2.1670	30.0895
 2.1660	30.1846
 2.1650	30.0765
 2.1640	30.0865
 2.1630	29.9826
 2.1620	30.0521
 2.1610	29.9827
 2.1600	30.0021
 2.1590	30.0035
 2.1580	30.0087
 2.1570	29.9920
 2.1560	30.0156
 2.1550	29.9326
 2.1540	29.9471
 2.1530	29.8473
 2.1520	29.8978
 2.1510	29.8369
 2.1500	29.8650
 2.1490	29.8406
 2.1480	29.8573
 2.1470	29.7451
 2.1460	29.7949
 2.1450	29.8353
 2.1440	29.7725
 2.1430	29.7147
 2.1420	29.7328
 2.1410	29.7007
 2.1400	29.6599
 2.1390	29.5907
 2.1380	29.6222
 2.1370	29.5651
 2.1360	29.6163
 2.1350	29.5195
 2.1340	29.5408
 2.1330	29.5328
 2.1320	29.5405
 2.1310	29.4265
 2.1300	29.4876
 2.1290	29.3635
 2.1280	29.3916
 2.1270	29.3256
 2.1260	29.3600
 2.1250	29.3304
 2.1240	29.2640
 2.1230	29.1994
 2.1220	29.2199
 2.1210	29.1864
 2.1200	29.1412
 2.1190	29.1238
 2.1180	29.1433
 2.1170	29.1016
 2.1160	29.0956
 2.1150	29.0360
 2.1140	29.0059
 2.1130	28.9449
 2.1120	28.9592
 2.1110	28.9194
 2.1100	28.8934
 2.1090	28.8189
 2.1080	28.8397
 2.1070	28.7817
 2.1060	28.7891
 2.1050	28.7739
 2.1040	28.7874
 2.1030	28.7229
 2.1020	28.7265
 2.1010	28.6832
 2.1000	28.6555
 2.0990	28.5938
 2.0980	28.6301
 2.0970	28.5946
 2.0960	28.6428
 2.0950	28.6227
 2.0940	28.6356
 2.0930	28.6158
 2.0920	28.6227
 2.0910	28.6081
 2.0900	28.6018
 2.0890	28.6290
 2.0880	28.6565
 2.0870	28.6208
 2.0860	28.6222
 2.0850	28.5888
 2.0840	28.5614
 2.0830	28.5725
 2.0820	28.5416
 2.0810	28.5728
 2.0800	28.6240
 2.0790	28.6305
 2.0780	28.6764
 2.0770	28.6333
 2.0760	28.6227
 2.0750	28.6346
 2.0740	28.6465
 2.0730	28.6809
 2.0720	28.6660
 2.0710	28.6142
 2.0700	28.6298
 2.0690	28.6763
 2.0680	28.6550
 2.0670	28.6491
 2.0660	28.7155
 2.0650	28.7459
 2.0640	28.7094
 2.0630	28.6811
 2.0620	28.6870
 2.0610	28.7203
 2.0600	28.7214
 2.0590	28.7127
 2.0580	28.7061
 2.0570	28.7288
 2.0560	28.7738
 2.0550	28.7863
 2.0540	28.7716
 2.0530	28.7854
 2.0520	28.7522
 2.0510	28.8070
 2.0500	28.8416
 2.0490	28.8364
 2.0480	28.8009
 2.0470	28.8629
 2.0460	28.8465
 2.0450	28.8808
 2.0440	28.8251
 2.0430	28.8523
 2.0420	28.8905
 2.0410	28.8954
 2.0400	28.8791
 2.0390	28.9004
 2.0380	28.9260
 2.0370	28.9665
 2.0360	28.9480
 2.0350	28.9624
 2.0340	28.9509
 2.0330	28.9521
 2.0320	28.9426
 2.0310	29.0195
 2.0300	29.0319
 2.0290	29.0468
 2.0280	29.0092
 2.0270	29.0792
 2.0260	29.0819
 2.0250	29.0899
 2.0240	29.0879
 2.0230	29.1477
 2.0220	29.1062
 2.0210	29.1344
 2.0200	29.2120
 2.0190	29.1572
 2.0180	29.1603
 2.0170	29.2548
 2.0160	29.1777
 2.0150	29.2198
 2.0140	29.2105
 2.0130	29.2611
 2.0120	29.2371
 2.0110	29.2869
 2.0100	29.2903
 2.0090	29.3392
 2.0080	29.3432
 2.0070	29.3948
 2.0060	29.3732
 2.0050	29.4459
 2.0040	29.4077
 2.0030	29.5018
 2.0020	29.4180
 2.0010	29.4673
 2.0000	29.4337
 1.9990	29.5566
 1.9980	29.4512
 1.9970	29.6135
 1.9960	29.5102
 1.9950	29.6117
 1.9940	29.5283
 1.9930	29.6137
 1.9920	29.5859
 1.9910	29.6126
 1.9900	29.5978
 1.9890	29.6830
 1.9880	29.6496
 1.9870	29.6921
 1.9860	29.7145
 1.9850	29.7536
 1.9840	29.7942
 1.9830	29.7689
 1.9820	29.7709
 1.9810	29.8251
 1.9800	29.8080
 1.9790	29.9273
 1.9780	29.8209
 1.9770	29.9251
 1.9760	29.8773
 1.9750	29.9647
 1.9740	29.9821
 1.9730	30.0384
 1.9720	30.0135
 1.9710	30.1007
 1.9700	29.9842
 1.9690	30.1305
 1.9680	30.0846
 1.9670	30.1949
 1.9660	30.1866
 1.9650	30.2738
 1.9640	30.2068
 1.9630	30.3454
 1.9620	30.2965
 1.9610	30.3606
 1.9600	30.3078
 1.9590	30.4107
 1.9580	30.4312
 1.9570	30.5229
 1.9560	30.4741
 1.9550	30.5727
 1.9540	30.5538
 1.9530	30.6613
 1.9520	30.5199
 1.9510	30.6071
 1.9500	30.5942
 1.9490	30.6835
 1.9480	30.7322
 1.9470	30.7983
 1.9460	30.7259
 1.9450	30.8921
 1.9440	30.7689
 1.9430	30.9341
 1.9420	30.9892
 1.9410	30.9673
 1.9400	30.9756
 1.9390	31.1225
 1.9380	30.9420
 1.9370	31.1638
 1.9360	31.0492
 1.9350	31.1492
 1.9340	31.1973
 1.9330	31.2955
 1.9320	31.2547
 1.9310	31.3861
 1.9300	31.2258
 1.9290	31.4527
 1.9280	31.3273
 1.9270	31.6348
 1.9260	31.3875
 1.9250	31.6531
 1.9240	31.5866
 1.9230	31.6177
 1.9220	31.6069
 1.9210	31.6653
 1.9200	31.6376
 1.9190	31.8209
 1.9180	31.6845
 1.9170	31.8151
 1.9160	31.7990
 1.9150	31.8769
 1.9140	31.8369
 1.9130	31.9490
 1.9120	31.9394
 1.9110	32.0050
 1.9100	31.9808
 1.9090	32.1037
 1.9080	32.1648
 1.9070	32.1983
 1.9060	32.1211
 1.9050	32.2932
 1.9040	32.2251
 1.9030	32.4670
 1.9020	32.3991
 1.9010	32.4641
 1.9000	32.4368
 1.8990	32.4392
 1.8980	32.5020
 1.8970	32.5827
 1.8960	32.6292
 1.8950	32.7560
 1.8940	32.7083
 1.8930	32.7712
 1.8920	32.7718
 1.8910	32.8923
 1.8900	32.8817
 1.8890	32.9998
 1.8880	33.0071
 1.8870	33.0327
 1.8860	33.0874
 1.8850	33.1069
 1.8840	33.2356
 1.8830	33.2557
 1.8820	33.3155
 1.8810	33.4020
 1.8800	33.4403
 1.8790	33.5377
 1.8780	33.5528
 1.8770	33.6629
 1.8760	33.6576
 1.8750	33.8136
 1.8740	33.7843
 1.8730	33.9147
 1.8720	33.9035
 1.8710	33.9787
 1.8700	33.9344
 1.8690	34.0735
 1.8680	33.9796
 1.8670	34.1145
 1.8660	34.0537
 1.8650	34.1919
 1.8640	34.1972
 1.8630	34.2373
 1.8620	34.3438
 1.8610	34.3917
 1.8600	34.4290
 1.8590	34.4963
 1.8580	34.4271
 1.8570	34.5627
 1.8560	34.6225
 1.8550	34.7527
 1.8540	34.7560
 1.8530	34.8627
 1.8520	34.8518
 1.8510	34.8886
 1.8500	34.9669
 1.8490	35.0413
 1.8480	35.0120
 1.8470	35.0613
 1.8460	35.1807
 1.8450	35.2286
 1.8440	35.2502
 1.8430	35.3175
 1.8420	35.3531
 1.8410	35.4513
 1.8400	35.5254
 1.8390	35.6111
 1.8380	35.6037
 1.8370	35.5916
 1.8360	35.7013
 1.8350	35.7535
 1.8340	35.7374
 1.8330	35.7926
 1.8320	35.8822
 1.8310	35.9177
 1.8300	35.9549
 1.8290	36.0592
 1.8280	36.0480
 1.8270	36.1380
 1.8260	36.1184
 1.8250	36.2566
 1.8240	36.3838
 1.8230	36.4289
 1.8220	36.4128
 1.8210	36.4711
 1.8200	36.5313
 1.8190	36.5655
 1.8180	36.6030
 1.8170	36.7152
 1.8160	36.7607
 1.8150	36.8147
 1.8140	36.8538
 1.8130	36.9214
 1.8120	36.9500
 1.8110	36.9946
 1.8100	37.1045
 1.8090	37.1925
 1.8080	37.2401
 1.8070	37.3171
 1.8060	37.3162
 1.8050	37.4106
 1.8040	37.4932
 1.8030	37.5479
 1.8020	37.5801
 1.8010	37.6410
 1.8000	37.6676
 1.7990	37.7569
 1.7980	37.8433
 1.7970	37.8983
 1.7960	37.9466
 1.7950	38.0195
 1.7940	38.1308
 1.7930	38.1853
 1.7920	38.2019
 1.7910	38.2631
 1.7900	38.3693
 1.7890	38.4420
 1.7880	38.4529
 1.7870	38.5110
 1.7860	38.5649
 1.7850	38.6602
 1.7840	38.7736
 1.7830	38.8432
 1.7820	38.9021
 1.7810	38.9738
 1.7800	39.0477
 1.7790	39.1024
 1.7780	39.1697
 1.7770	39.2618
 1.7760	39.3147
 1.7750	39.3477
 1.7740	39.4374
 1.7730	39.5009
 1.7720	39.6058
 1.7710	39.6541
 1.7700	39.7234
 1.7690	39.7976
 1.7680	39.8348
 1.7670	39.8684
 1.7660	39.9541
 1.7650	40.0277
 1.7640	40.1189
 1.7630	40.2135
 1.7620	40.3130
 1.7610	40.3269
 1.7600	40.3768
 1.7590	40.4449
 1.7580	40.5517
 1.7570	40.5736
 1.7560	40.6429
 1.7550	40.7597
 1.7540	40.8276
 1.7530	40.8706
 1.7520	40.9902
 1.7510	41.0396
 1.7500	41.1016
 1.7490	41.1651
 1.7480	41.3043
 1.7470	41.3478
 1.7460	41.4478
 1.7450	41.5305
 1.7440	41.5653
 1.7430	41.6219
 1.7420	41.7410
 1.7410	41.8086
 1.7400	41.8836
 1.7390	41.9255
 1.7380	42.0087
 1.7370	42.0614
 1.7360	42.1579
 1.7350	42.2388
 1.7340	42.3260
 1.7330	42.3613
 1.7320	42.4603
 1.7310	42.5278
 1.7300	42.5820
 1.7290	42.6861
 1.7280	42.7868
 1.7270	42.8477
 1.7260	42.9478
 1.7250	42.9939
 1.7240	43.0790
 1.7230	43.1289
 1.7220	43.1993
 1.7210	43.2726
 1.7200	43.4085
 1.7190	43.4396
 1.7180	43.5636
 1.7170	43.5451
 1.7160	43.6553
 1.7150	43.7180
 1.7140	43.7710
 1.7130	43.8178
 1.7120	44.0527
 1.7110	44.0460
 1.7100	44.1620
 1.7090	44.1559
 1.7080	44.3172
 1.7070	44.3689
 1.7060	44.4756
 1.7050	44.4754
 1.7040	44.5014
 1.7030	44.6801
 1.7020	44.7313
 1.7010	44.7732
 1.7000	44.8865
 1.6990	44.9128
 1.6980	45.0528
 1.6970	45.0482
 1.6960	45.1746
 1.6950	45.2659
 1.6940	45.3434
 1.6930	45.3430
 1.6920	45.4744
 1.6910	45.4959
 1.6900	45.6631
 1.6890	45.6323
 1.6880	45.7437
 1.6870	45.7940
 1.6860	45.9332
 1.6850	45.9593
 1.6840	46.0821
 1.6830	46.1191
 1.6820	46.2566
 1.6810	46.2097
 1.6800	46.3564
 1.6790	46.3224
 1.6780	46.4211
 1.6770	46.5427
 1.6760	46.6679
 1.6750	46.7098
 1.6740	46.8325
 1.6730	46.8325
 1.6720	47.0059
 1.6710	46.9777
 1.6700	47.0916
 1.6690	47.1795
 1.6680	47.1509
 1.6670	47.2319
 1.6660	47.3064
 1.6650	47.3081
 1.6640	47.4133
 1.6630	47.5049
 1.6620	47.6388
 1.6610	47.7060
 1.6600	47.7434
 1.6590	47.8235
 1.6580	47.8600
 1.6570	47.9394
 1.6560	48.0516
 1.6550	48.1418
 1.6540	48.2465
 1.6530	48.2324
 1.6520	48.3827
 1.6510	48.4280
 1.6500	48.5124
 1.6490	48.5389
 1.6480	48.6666
 1.6470	48.7162
 1.6460	48.8101
 1.6450	48.8563
 1.6440	48.9849
 1.6430	48.9706
 1.6420	49.1760
 1.6410	49.0074
 1.6400	49.3387
 1.6390	49.2569
 1.6380	49.3006
 1.6370	49.3494
 1.6360	49.5208
 1.6350	49.5576
 1.6340	49.7329
 1.6330	49.6830
 1.6320	49.8293
 1.6310	49.8586
 1.6300	49.9826
 1.6290	50.0464
 1.6280	50.1294
 1.6270	50.1350
 1.6260	50.2940
 1.6250	50.3230
 1.6240	50.4300
 1.6230	50.4331
 1.6220	50.5891
 1.6210	50.6304
 1.6200	50.6458
 1.6190	50.7084
 1.6180	50.8691
 1.6170	50.9045
 1.6160	50.9587
 1.6150	51.0876
 1.6140	51.1763
 1.6130	51.1949
 1.6120	51.2735
 1.6110	51.2709
 1.6100	51.4096
 1.6090	51.3655
 1.6080	51.5340
 1.6070	51.5447
 1.6060	51.6303
 1.6050	51.6786
 1.6040	51.7574
 1.6030	51.8403
 1.6020	51.9096
 1.6010	51.9678
 1.6000	52.0387
 1.5990	52.1175
 1.5980	52.1483
 1.5970	52.1613
 1.5960	52.2530
 1.5950	52.3167
 1.5940	52.4004
 1.5930	52.3623
 1.5920	52.4300
 1.5910	52.5241
 1.5900	52.5623
 1.5890	52.6540
 1.5880	52.6462
 1.5870	52.6947
 1.5860	52.8688
 1.5850	52.8030
 1.5840	52.8995
 1.5830	52.9442
 1.5820	52.9872
 1.5810	52.9941
 1.5800	53.0711
 1.5790	53.1271
 1.5780	53.1907
 1.5770	53.2100
 1.5760	53.2225
 1.5750	53.2848
 1.5740	53.3760
 1.5730	53.3392
 1.5720	53.4100
 1.5710	53.4060
 1.5700	53.4701
 1.5690	53.5025
 1.5680	53.5256
 1.5670	53.4828
 1.5660	53.5816
 1.5650	53.5680
 1.5640	53.6156
 1.5630	53.6161
 1.5620	53.6297
 1.5610	53.6321
 1.5600	53.6875
 1.5590	53.6767
 1.5580	53.7201
 1.5570	53.7148
 1.5560	53.7405
 1.5550	53.7211
 1.5540	53.8057
 1.5530	53.7981
 1.5520	53.8422
 1.5510	53.8140
 1.5500	53.8262
 1.5490	53.8970
 1.5480	53.8597
 1.5470	53.8828
 1.5460	53.9581
 1.5450	53.9418
 1.5440	53.9808
 1.5430	53.9678
 1.5420	54.0415
 1.5410	54.0723
 1.5400	54.0733
 1.5390	54.1135
 1.5380	54.1725
 1.5370	54.1984
 1.5360	54.2099
 1.5350	54.2368
 1.5340	54.3310
 1.5330	54.3444
 1.5320	54.3487
 1.5310	54.3586
 1.5300	54.3884
 1.5290	54.4564
 1.5280	54.5280
 1.5270	54.4932
 1.5260	54.5279
 1.5250	54.5663
 1.5240	54.6150
 1.5230	54.6063
 1.5220	54.6395
 1.5210	54.6689
 1.5200	54.6830
 1.5190	54.7282
 1.5180	54.7237
 1.5170	54.6745
 1.5160	54.7349
 1.5150	54.7924
 1.5140	54.8467
 1.5130	54.8527
 1.5120	54.8881
 1.5110	54.8643
 1.5100	54.8247
 1.5090	54.8447
 1.5080	54.8410
 1.5070	54.8488
 1.5060	54.8662
 1.5050	54.8306
 1.5040	54.8485
 1.5030	54.8252
 1.5020	54.8112
 1.5010	54.8384
 1.5000	54.8685
 1.4990	54.8534
 1.4980	54.7830
 1.4970	54.7559
 1.4960	54.7294
 1.4950	54.6792
 1.4940	54.6672
 1.4930	54.6325
 1.4920	54.5984
 1.4910	54.5631
 1.4900	54.4770
 1.4890	54.4703
 1.4880	54.4268
 1.4870	54.3694
 1.4860	54.2885
 1.4850	54.2321
 1.4840	54.1827
 1.4830	54.1305
 1.4820	54.0858
 1.4810	54.0334
 1.4800	53.9391
 1.4790	53.9055
 1.4780	53.8490
 1.4770	53.7463
 1.4760	53.6423
 1.4750	53.5795
 1.4740	53.4818
 1.4730	53.4024
 1.4720	53.3425
 1.4710	53.2722
 1.4700	53.1178
 1.4690	53.0150
 1.4680	52.9413
 1.4670	52.8318
 1.4660	52.6663
 1.4650	52.5486
 1.4640	52.4557
 1.4630	52.4446
 1.4620	52.3054
 1.4610	52.1549
 1.4600	51.9996
 1.4590	51.8912
 1.4580	51.7171
 1.4570	51.6074
 1.4560	51.4748
 1.4550	51.3443
 1.4540	51.2709
 1.4530	51.1393
 1.4520	50.9166
 1.4510	50.7896
 1.4500	50.6780
 1.4490	50.5259
 1.4480	50.3257
 1.4470	50.2345
 1.4460	50.0443
 1.4450	49.8780
 1.4440	49.6552
 1.4430	49.5623
 1.4420	49.3623
 1.4410	49.2475
 1.4400	49.0461
 1.4390	48.8737
 1.4380	48.6489
 1.4370	48.5286
 1.4360	48.3598
 1.4350	48.1783
 1.4340	47.9651
 1.4330	47.8023
 1.4320	47.6120
 1.4310	47.4422
 1.4300	47.2030
 1.4290	47.0495
 1.4280	46.8458
 1.4270	46.6601
 1.4260	46.4541
 1.4250	46.2507
 1.4240	45.9716
 1.4230	45.8925
 1.4220	45.6427
 1.4210	45.4442
 1.4200	45.1983
 1.4190	45.0283
 1.4180	44.7070
 1.4170	44.6031
 1.4160	44.4002
 1.4150	44.1207
 1.4140	43.8887
 1.4130	43.7468
 1.4120	43.4177
 1.4110	43.3309
 1.4100	43.1108
 1.4090	42.8330
 1.4080	42.5815
 1.4070	42.4038
 1.4060	42.1246
 1.4050	41.9494
 1.4040	41.7403
 1.4030	41.5938
 1.4020	41.2732
 1.4010	40.9895
 1.4000	40.8016
 1.3990	40.6647
 1.3980	40.4072
 1.3970	40.2761
 1.3960	40.0044
 1.3950	39.7423
 1.3940	39.4728
 1.3930	39.3371
 1.3920	39.0626
 1.3910	38.8276
 1.3900	38.5810
 1.3890	38.4067
 1.3880	38.0727
 1.3870	37.9416
 1.3860	37.6581
 1.3850	37.5099
 1.3840	37.1876
 1.3830	37.0630
 1.3820	36.6967
 1.3810	36.4736
 1.3800	36.1469
 1.3790	36.0827
 1.3780	35.7262
 1.3770	35.6141
 1.3760	35.3194
 1.3750	35.1760
 1.3740	34.8300
 1.3730	34.6728
 1.3720	34.3358
 1.3710	34.3008
 1.3700	33.9309
 1.3690	33.8781
