Name: Sepiolite Mg_4Si_6O_15(OH)_2.6H_2O
Type: Mineral
Class: Silicate
Subclass: Phyllosilicate
Particle Size: Coarse
Sample No.: PS-5A
Owner: JPL
Wavelength Range: VSWIR
Origin: USA, Nevada, Two Crows.
Collection Date: N/A
Description: Particle size was 125-500um.Collected by:  Clay Mineral Society Original ASTER Spectral Library name was jpl.perkin.mineral.silicate.phyllosilicate.coarse.ps05a.spectrum.txt
Measurement: Hemispherical reflectance
First Column: X
Second Column: Y
X Units: Wavelength (micrometers)
Y Units:Reflectance (percent)
First X Value:  2.5000
Last X Value:  0.4000
Number of X Values: 2101
Additional Information: mineral.silicate.phyllosilicate.coarse.vswir.ps-5a.jpl.perkin.ancillary.txt

 2.5000	15.8966
 2.4990	15.4155
 2.4980	15.9588
 2.4970	15.8543
 2.4960	15.7181
 2.4950	16.1311
 2.4940	16.1516
 2.4930	16.2032
 2.4920	16.4941
 2.4910	16.5015
 2.4900	16.6493
 2.4890	16.5368
 2.4880	16.7972
 2.4870	17.0031
 2.4860	17.0625
 2.4850	17.0279
 2.4840	17.3512
 2.4830	17.1560
 2.4820	17.4607
 2.4810	17.4918
 2.4800	17.7717
 2.4790	17.6319
 2.4780	17.9452
 2.4770	17.9207
 2.4760	18.0407
 2.4750	18.0548
 2.4740	18.3849
 2.4730	18.2978
 2.4720	18.5261
 2.4710	18.4856
 2.4700	18.8392
 2.4690	18.6859
 2.4680	18.9090
 2.4670	18.9237
 2.4660	19.1328
 2.4650	19.0617
 2.4640	19.3212
 2.4630	19.3129
 2.4620	19.4232
 2.4610	19.4675
 2.4600	19.5255
 2.4590	19.5776
 2.4580	19.8750
 2.4570	19.7088
 2.4560	19.8536
 2.4550	19.9205
 2.4540	20.0700
 2.4530	20.0455
 2.4520	20.2039
 2.4510	20.1048
 2.4500	20.2686
 2.4490	20.2827
 2.4480	20.4561
 2.4470	20.4875
 2.4460	20.5889
 2.4450	20.5213
 2.4440	20.7012
 2.4430	20.5436
 2.4420	20.8279
 2.4410	20.7283
 2.4400	20.8764
 2.4390	20.8437
 2.4380	20.9033
 2.4370	20.9394
 2.4360	21.0698
 2.4350	21.0322
 2.4340	21.1656
 2.4330	21.1572
 2.4320	21.3051
 2.4310	21.2822
 2.4300	21.3440
 2.4290	21.2912
 2.4280	21.3110
 2.4270	21.3437
 2.4260	21.5096
 2.4250	21.4730
 2.4240	21.6468
 2.4230	21.6307
 2.4220	21.8092
 2.4210	21.7396
 2.4200	21.8582
 2.4190	21.8794
 2.4180	21.9963
 2.4170	22.0523
 2.4160	22.1063
 2.4150	22.1659
 2.4140	22.2175
 2.4130	22.2654
 2.4120	22.3768
 2.4110	22.4191
 2.4100	22.4570
 2.4090	22.5148
 2.4080	22.6276
 2.4070	22.6197
 2.4060	22.7569
 2.4050	22.7953
 2.4040	22.9085
 2.4030	22.8917
 2.4020	22.9581
 2.4010	22.9570
 2.4000	22.9885
 2.3990	23.0226
 2.3980	23.1678
 2.3970	23.1247
 2.3960	23.1410
 2.3950	23.1784
 2.3940	23.1846
 2.3930	23.2145
 2.3920	23.2490
 2.3910	23.2302
 2.3900	23.3262
 2.3890	23.3642
 2.3880	23.4997
 2.3870	23.5994
 2.3860	23.7601
 2.3850	23.8611
 2.3840	24.0018
 2.3830	24.1119
 2.3820	24.3985
 2.3810	24.5688
 2.3800	24.7713
 2.3790	24.9821
 2.3780	25.3204
 2.3770	25.5632
 2.3760	25.8263
 2.3750	26.1447
 2.3740	26.3993
 2.3730	26.6653
 2.3720	26.9951
 2.3710	27.2538
 2.3700	27.5566
 2.3690	27.7748
 2.3680	27.9992
 2.3670	28.2520
 2.3660	28.5478
 2.3650	28.8021
 2.3640	29.0428
 2.3630	29.2503
 2.3620	29.4873
 2.3610	29.6824
 2.3600	29.8959
 2.3590	30.0842
 2.3580	30.2718
 2.3570	30.4959
 2.3560	30.7275
 2.3550	30.9487
 2.3540	31.1349
 2.3530	31.2910
 2.3520	31.5142
 2.3510	31.6905
 2.3500	31.9166
 2.3490	32.1568
 2.3480	32.3019
 2.3470	32.4915
 2.3460	32.6499
 2.3450	32.8647
 2.3440	33.0408
 2.3430	33.1702
 2.3420	33.3224
 2.3410	33.4658
 2.3400	33.5393
 2.3390	33.6554
 2.3380	33.7211
 2.3370	33.7928
 2.3360	33.8357
 2.3350	33.8218
 2.3340	33.7160
 2.3330	33.6882
 2.3320	33.6353
 2.3310	33.4967
 2.3300	33.2864
 2.3290	33.1123
 2.3280	32.9035
 2.3270	32.7043
 2.3260	32.4151
 2.3250	32.1526
 2.3240	31.8328
 2.3230	31.5823
 2.3220	31.2665
 2.3210	30.9627
 2.3200	30.6560
 2.3190	30.4004
 2.3180	30.1195
 2.3170	29.8817
 2.3160	29.6389
 2.3150	29.4906
 2.3140	29.3646
 2.3130	29.3917
 2.3120	29.3854
 2.3110	29.4703
 2.3100	29.5119
 2.3090	29.7205
 2.3080	29.9014
 2.3070	30.1148
 2.3060	30.3859
 2.3050	30.7357
 2.3040	30.9792
 2.3030	31.3407
 2.3020	31.6170
 2.3010	31.9849
 2.3000	32.2837
 2.2990	32.5945
 2.2980	32.9118
 2.2970	33.1890
 2.2960	33.3921
 2.2950	33.6961
 2.2940	33.9596
 2.2930	34.2248
 2.2920	34.4116
 2.2910	34.7128
 2.2900	34.9250
 2.2890	35.2431
 2.2880	35.5266
 2.2870	35.8310
 2.2860	36.1252
 2.2850	36.4937
 2.2840	36.8938
 2.2830	37.3061
 2.2820	37.5616
 2.2810	38.0339
 2.2800	38.4242
 2.2790	38.8323
 2.2780	39.1830
 2.2770	39.5750
 2.2760	39.8957
 2.2750	40.2701
 2.2740	40.5607
 2.2730	40.8430
 2.2720	41.0713
 2.2710	41.3587
 2.2700	41.6062
 2.2690	41.8792
 2.2680	42.0957
 2.2670	42.2073
 2.2660	42.3664
 2.2650	42.6278
 2.2640	42.7741
 2.2630	42.9229
 2.2620	43.0945
 2.2610	43.2938
 2.2600	43.3733
 2.2590	43.5330
 2.2580	43.6007
 2.2570	43.7156
 2.2560	43.8697
 2.2550	44.0881
 2.2540	44.1043
 2.2530	44.2651
 2.2520	44.3368
 2.2510	44.4223
 2.2500	44.4622
 2.2490	44.5867
 2.2480	44.6987
 2.2470	44.8567
 2.2460	44.8155
 2.2450	44.8900
 2.2440	44.9203
 2.2430	44.9884
 2.2420	45.0397
 2.2410	45.2153
 2.2400	45.0746
 2.2390	45.2198
 2.2380	45.1255
 2.2370	45.2841
 2.2360	45.2914
 2.2350	45.3307
 2.2340	45.3533
 2.2330	45.4023
 2.2320	45.3693
 2.2310	45.4040
 2.2300	45.4255
 2.2290	45.5292
 2.2280	45.4773
 2.2270	45.5270
 2.2260	45.5506
 2.2250	45.6592
 2.2240	45.5711
 2.2230	45.7908
 2.2220	45.6447
 2.2210	45.8482
 2.2200	45.8504
 2.2190	45.8937
 2.2180	45.9298
 2.2170	46.0688
 2.2160	46.0312
 2.2150	46.3136
 2.2140	46.2832
 2.2130	46.4478
 2.2120	46.4693
 2.2110	46.5099
 2.2100	46.6670
 2.2090	46.7480
 2.2080	46.8222
 2.2070	46.9562
 2.2060	47.0387
 2.2050	47.0724
 2.2040	47.2000
 2.2030	47.3251
 2.2020	47.3447
 2.2010	47.4139
 2.2000	47.3947
 2.1990	47.5046
 2.1980	47.5658
 2.1970	47.5986
 2.1960	47.5874
 2.1950	47.6708
 2.1940	47.6834
 2.1930	47.7471
 2.1920	47.7511
 2.1910	47.8177
 2.1900	47.7684
 2.1890	47.8366
 2.1880	47.8182
 2.1870	47.9650
 2.1860	47.9305
 2.1850	48.0485
 2.1840	48.0160
 2.1830	48.0738
 2.1820	48.1079
 2.1810	48.1924
 2.1800	48.2398
 2.1790	48.2902
 2.1780	48.2908
 2.1770	48.4128
 2.1760	48.3607
 2.1750	48.4788
 2.1740	48.4383
 2.1730	48.5102
 2.1720	48.5020
 2.1710	48.6358
 2.1700	48.6367
 2.1690	48.7066
 2.1680	48.7207
 2.1670	48.7456
 2.1660	48.7354
 2.1650	48.8653
 2.1640	48.8444
 2.1630	48.8997
 2.1620	48.9125
 2.1610	48.9119
 2.1600	48.9094
 2.1590	48.9094
 2.1580	48.8718
 2.1570	48.8630
 2.1560	48.9007
 2.1550	48.9706
 2.1540	48.9276
 2.1530	48.9904
 2.1520	48.9187
 2.1510	48.9633
 2.1500	48.9299
 2.1490	48.9695
 2.1480	48.9526
 2.1470	48.9508
 2.1460	48.9359
 2.1450	49.0305
 2.1440	48.9278
 2.1430	49.0271
 2.1420	48.9849
 2.1410	49.0602
 2.1400	49.0364
 2.1390	49.0561
 2.1380	49.0605
 2.1370	49.1003
 2.1360	49.0249
 2.1350	49.0723
 2.1340	48.9961
 2.1330	48.9996
 2.1320	48.9135
 2.1310	48.9467
 2.1300	48.8814
 2.1290	48.8195
 2.1280	48.7286
 2.1270	48.7209
 2.1260	48.6529
 2.1250	48.5889
 2.1240	48.4866
 2.1230	48.4634
 2.1220	48.3918
 2.1210	48.3086
 2.1200	48.1683
 2.1190	48.1681
 2.1180	48.0712
 2.1170	47.9702
 2.1160	47.8697
 2.1150	47.8805
 2.1140	47.8030
 2.1130	47.7522
 2.1120	47.6033
 2.1110	47.5110
 2.1100	47.4447
 2.1090	47.4143
 2.1080	47.3477
 2.1070	47.2625
 2.1060	47.1366
 2.1050	47.0985
 2.1040	46.9497
 2.1030	46.8215
 2.1020	46.7142
 2.1010	46.6619
 2.1000	46.5252
 2.0990	46.4484
 2.0980	46.4018
 2.0970	46.3040
 2.0960	46.2090
 2.0950	46.1494
 2.0940	46.1169
 2.0930	46.0539
 2.0920	45.9765
 2.0910	45.9438
 2.0900	45.8754
 2.0890	45.8210
 2.0880	45.7525
 2.0870	45.7247
 2.0860	45.6648
 2.0850	45.5699
 2.0840	45.4852
 2.0830	45.4075
 2.0820	45.3579
 2.0810	45.3198
 2.0800	45.2699
 2.0790	45.2552
 2.0780	45.1825
 2.0770	45.1044
 2.0760	45.0713
 2.0750	45.0524
 2.0740	44.9884
 2.0730	44.9281
 2.0720	44.8936
 2.0710	44.8344
 2.0700	44.7284
 2.0690	44.6561
 2.0680	44.6410
 2.0670	44.5786
 2.0660	44.4663
 2.0650	44.4481
 2.0640	44.4462
 2.0630	44.3385
 2.0620	44.2931
 2.0610	44.2545
 2.0600	44.2446
 2.0590	44.1780
 2.0580	44.1500
 2.0570	44.0775
 2.0560	44.0024
 2.0550	43.9681
 2.0540	43.9638
 2.0530	43.8831
 2.0520	43.8313
 2.0510	43.7699
 2.0500	43.6974
 2.0490	43.6039
 2.0480	43.5208
 2.0470	43.4038
 2.0460	43.3687
 2.0450	43.2469
 2.0440	43.1497
 2.0430	43.0742
 2.0420	42.9867
 2.0410	42.8552
 2.0400	42.8402
 2.0390	42.6729
 2.0380	42.5626
 2.0370	42.4230
 2.0360	42.2309
 2.0350	42.1059
 2.0340	41.9546
 2.0330	41.7631
 2.0320	41.6579
 2.0310	41.4426
 2.0300	41.2685
 2.0290	41.0478
 2.0280	40.9272
 2.0270	40.7545
 2.0260	40.5803
 2.0250	40.3547
 2.0240	40.1742
 2.0230	39.9398
 2.0220	39.7762
 2.0210	39.5393
 2.0200	39.3770
 2.0190	39.0854
 2.0180	38.8915
 2.0170	38.6605
 2.0160	38.4302
 2.0150	38.1885
 2.0140	38.0338
 2.0130	37.7602
 2.0120	37.5504
 2.0110	37.3031
 2.0100	37.0636
 2.0090	36.8147
 2.0080	36.6274
 2.0070	36.3667
 2.0060	36.2016
 2.0050	35.9060
 2.0040	35.6909
 2.0030	35.4220
 2.0020	35.1848
 2.0010	34.9554
 2.0000	34.7614
 1.9990	34.4054
 1.9980	34.2215
 1.9970	33.9334
 1.9960	33.8229
 1.9950	33.5134
 1.9940	33.3228
 1.9930	33.0961
 1.9920	32.8900
 1.9910	32.6584
 1.9900	32.4935
 1.9890	32.3239
 1.9880	32.2059
 1.9870	31.9685
 1.9860	31.8740
 1.9850	31.6945
 1.9840	31.5406
 1.9830	31.3791
 1.9820	31.3641
 1.9810	31.1751
 1.9800	31.1162
 1.9790	30.9333
 1.9780	30.9293
 1.9770	30.7282
 1.9760	30.7141
 1.9750	30.6031
 1.9740	30.6078
 1.9730	30.4829
 1.9720	30.4672
 1.9710	30.2762
 1.9700	30.2768
 1.9690	30.2388
 1.9680	30.2716
 1.9670	30.1280
 1.9660	30.2275
 1.9650	30.1889
 1.9640	30.1958
 1.9630	30.0590
 1.9620	30.1016
 1.9610	30.0157
 1.9600	29.9703
 1.9590	29.8946
 1.9580	29.9355
 1.9570	29.8054
 1.9560	29.7583
 1.9550	29.6461
 1.9540	29.6662
 1.9530	29.5287
 1.9520	29.5209
 1.9510	29.3547
 1.9500	29.3284
 1.9490	29.1457
 1.9480	29.1365
 1.9470	28.9581
 1.9460	28.9256
 1.9450	28.7564
 1.9440	28.7093
 1.9430	28.3480
 1.9420	28.2547
 1.9410	27.8969
 1.9400	27.7520
 1.9390	27.3143
 1.9380	27.1076
 1.9370	26.6466
 1.9360	26.3763
 1.9350	25.8513
 1.9340	25.4960
 1.9330	24.8402
 1.9320	24.3882
 1.9310	23.4968
 1.9300	23.0915
 1.9290	22.3935
 1.9280	21.7625
 1.9270	21.0643
 1.9260	20.2184
 1.9250	19.7185
 1.9240	19.0800
 1.9230	18.4578
 1.9220	17.9921
 1.9210	17.4348
 1.9200	17.1287
 1.9190	16.6582
 1.9180	16.5421
 1.9170	16.2536
 1.9160	16.2434
 1.9150	15.9718
 1.9140	16.0770
 1.9130	15.9419
 1.9120	16.1663
 1.9110	16.1098
 1.9100	16.2249
 1.9090	16.3314
 1.9080	16.6046
 1.9070	16.7120
 1.9060	17.0699
 1.9050	17.3399
 1.9040	17.7985
 1.9030	18.2685
 1.9020	18.9428
 1.9010	19.6630
 1.9000	20.5395
 1.8990	21.2965
 1.8980	22.3134
 1.8970	23.2413
 1.8960	24.4162
 1.8950	25.4749
 1.8940	26.6481
 1.8930	27.7974
 1.8920	29.0500
 1.8910	30.1930
 1.8900	31.4950
 1.8890	32.7009
 1.8880	33.8764
 1.8870	35.0283
 1.8860	36.1613
 1.8850	37.1386
 1.8840	38.2480
 1.8830	39.2306
 1.8820	40.4273
 1.8810	41.3724
 1.8800	42.4823
 1.8790	43.4195
 1.8780	44.4773
 1.8770	45.4940
 1.8760	46.5868
 1.8750	47.5779
 1.8740	48.6703
 1.8730	49.6169
 1.8720	50.6294
 1.8710	51.5612
 1.8700	52.4153
 1.8690	53.1612
 1.8680	54.0008
 1.8670	54.6212
 1.8660	55.1992
 1.8650	55.7166
 1.8640	56.1385
 1.8630	56.5850
 1.8620	57.0720
 1.8610	57.3978
 1.8600	57.7801
 1.8590	58.0921
 1.8580	58.4528
 1.8570	58.7183
 1.8560	59.1065
 1.8550	59.3668
 1.8540	59.6445
 1.8530	59.7994
 1.8520	60.0742
 1.8510	60.2081
 1.8500	60.4162
 1.8490	60.5825
 1.8480	60.7747
 1.8470	60.8398
 1.8460	61.0243
 1.8450	61.1725
 1.8440	61.4007
 1.8430	61.5547
 1.8420	61.6961
 1.8410	61.7090
 1.8400	61.8400
 1.8390	61.9216
 1.8380	62.0220
 1.8370	62.0932
 1.8360	62.1799
 1.8350	62.2476
 1.8340	62.4005
 1.8330	62.4459
 1.8320	62.4725
 1.8310	62.5634
 1.8300	62.6059
 1.8290	62.6246
 1.8280	62.6959
 1.8270	62.7790
 1.8260	62.8561
 1.8250	62.8578
 1.8240	62.9017
 1.8230	62.8880
 1.8220	62.9227
 1.8210	62.8938
 1.8200	62.9052
 1.8190	62.9762
 1.8180	63.0546
 1.8170	63.0304
 1.8160	63.0005
 1.8150	63.0233
 1.8140	63.0428
 1.8130	63.0279
 1.8120	63.0092
 1.8110	62.9293
 1.8100	62.9718
 1.8090	62.9529
 1.8080	62.9439
 1.8070	62.9132
 1.8060	62.9507
 1.8050	62.9234
 1.8040	62.8789
 1.8030	62.8532
 1.8020	62.8389
 1.8010	62.8431
 1.8000	62.8286
 1.7990	62.8377
 1.7980	62.8982
 1.7970	62.8666
 1.7960	62.8480
 1.7950	62.8243
 1.7940	62.7893
 1.7930	62.7650
 1.7920	62.7521
 1.7910	62.7455
 1.7900	62.8011
 1.7890	62.8376
 1.7880	62.8720
 1.7870	62.9497
 1.7860	62.9893
 1.7850	63.0174
 1.7840	63.0423
 1.7830	63.0823
 1.7820	63.1876
 1.7810	63.2582
 1.7800	63.3308
 1.7790	63.4192
 1.7780	63.4905
 1.7770	63.5467
 1.7760	63.6004
 1.7750	63.6762
 1.7740	63.7672
 1.7730	63.9168
 1.7720	63.9377
 1.7710	64.0137
 1.7700	64.1210
 1.7690	64.1675
 1.7680	64.2176
 1.7670	64.3528
 1.7660	64.4379
 1.7650	64.4419
 1.7640	64.5012
 1.7630	64.5986
 1.7620	64.6236
 1.7610	64.7287
 1.7600	64.8797
 1.7590	64.9635
 1.7580	64.9865
 1.7570	65.0679
 1.7560	65.1232
 1.7550	65.1944
 1.7540	65.3026
 1.7530	65.4289
 1.7520	65.4785
 1.7510	65.5051
 1.7500	65.5158
 1.7490	65.6133
 1.7480	65.6957
 1.7470	65.7534
 1.7460	65.8238
 1.7450	65.9015
 1.7440	65.9574
 1.7430	65.9833
 1.7420	66.0518
 1.7410	66.1348
 1.7400	66.1969
 1.7390	66.3091
 1.7380	66.3765
 1.7370	66.4550
 1.7360	66.4487
 1.7350	66.5368
 1.7340	66.6273
 1.7330	66.6789
 1.7320	66.7096
 1.7310	66.7818
 1.7300	66.8286
 1.7290	66.9326
 1.7280	66.9246
 1.7270	67.0028
 1.7260	67.0755
 1.7250	67.2010
 1.7240	67.2613
 1.7230	67.3262
 1.7220	67.3681
 1.7210	67.4889
 1.7200	67.5293
 1.7190	67.6289
 1.7180	67.6609
 1.7170	67.7366
 1.7160	67.8377
 1.7150	67.9092
 1.7140	67.9549
 1.7130	68.1339
 1.7120	68.1547
 1.7110	68.1839
 1.7100	68.3255
 1.7090	68.3024
 1.7080	68.4198
 1.7070	68.4867
 1.7060	68.5424
 1.7050	68.5308
 1.7040	68.5806
 1.7030	68.6252
 1.7020	68.6993
 1.7010	68.8245
 1.7000	68.7877
 1.6990	68.8293
 1.6980	68.8502
 1.6970	68.9026
 1.6960	68.9486
 1.6950	68.9677
 1.6940	69.0131
 1.6930	69.0807
 1.6920	69.1196
 1.6910	69.0162
 1.6900	69.0792
 1.6890	69.1174
 1.6880	69.1284
 1.6870	69.1038
 1.6860	69.1392
 1.6850	69.1937
 1.6840	69.1777
 1.6830	69.2204
 1.6820	69.2322
 1.6810	69.1949
 1.6800	69.1719
 1.6790	69.2484
 1.6780	69.2314
 1.6770	69.2435
 1.6760	69.2414
 1.6750	69.2106
 1.6740	69.1934
 1.6730	69.2814
 1.6720	69.1890
 1.6710	69.1593
 1.6700	69.2410
 1.6690	69.2261
 1.6680	69.1873
 1.6670	69.2559
 1.6660	69.1890
 1.6650	69.2036
 1.6640	69.2392
 1.6630	69.2251
 1.6620	69.1613
 1.6610	69.2240
 1.6600	69.1951
 1.6590	69.1450
 1.6580	69.1587
 1.6570	69.1543
 1.6560	69.1132
 1.6550	69.1649
 1.6540	69.1937
 1.6530	69.1565
 1.6520	69.0750
 1.6510	69.1943
 1.6500	69.0499
 1.6490	69.0891
 1.6480	69.0309
 1.6470	69.0605
 1.6460	68.9886
 1.6450	68.9964
 1.6440	69.0202
 1.6430	68.9861
 1.6420	68.9815
 1.6410	68.9355
 1.6400	68.9473
 1.6390	68.9306
 1.6380	68.8521
 1.6370	68.8754
 1.6360	68.8736
 1.6350	68.8484
 1.6340	68.7970
 1.6330	68.7665
 1.6320	68.7890
 1.6310	68.7009
 1.6300	68.7121
 1.6290	68.7508
 1.6280	68.6665
 1.6270	68.7127
 1.6260	68.6055
 1.6250	68.6392
 1.6240	68.5257
 1.6230	68.5557
 1.6220	68.5305
 1.6210	68.5238
 1.6200	68.4007
 1.6190	68.5170
 1.6180	68.3585
 1.6170	68.4377
 1.6160	68.3408
 1.6150	68.3210
 1.6140	68.3274
 1.6130	68.2540
 1.6120	68.2152
 1.6110	68.2263
 1.6100	68.1077
 1.6090	68.1505
 1.6080	68.1401
 1.6070	68.1402
 1.6060	68.0683
 1.6050	68.0427
 1.6040	67.9534
 1.6030	67.9428
 1.6020	67.8925
 1.6010	67.8973
 1.6000	67.8636
 1.5990	67.8093
 1.5980	67.7236
 1.5970	67.7294
 1.5960	67.7606
 1.5950	67.7348
 1.5940	67.5865
 1.5930	67.5158
 1.5920	67.5061
 1.5910	67.5030
 1.5900	67.4173
 1.5890	67.3835
 1.5880	67.3333
 1.5870	67.2555
 1.5860	67.1966
 1.5850	67.1871
 1.5840	67.1741
 1.5830	67.0662
 1.5820	66.9448
 1.5810	67.0024
 1.5800	66.9112
 1.5790	66.8444
 1.5780	66.7426
 1.5770	66.7428
 1.5760	66.6581
 1.5750	66.6403
 1.5740	66.5576
 1.5730	66.4675
 1.5720	66.4042
 1.5710	66.4374
 1.5700	66.2217
 1.5690	66.2392
 1.5680	66.1397
 1.5670	66.0705
 1.5660	65.9751
 1.5650	65.8574
 1.5640	65.7599
 1.5630	65.7476
 1.5620	65.6391
 1.5610	65.5956
 1.5600	65.4687
 1.5590	65.4233
 1.5580	65.3152
 1.5570	65.2489
 1.5560	65.0943
 1.5550	65.0074
 1.5540	64.9469
 1.5530	64.8245
 1.5520	64.7492
 1.5510	64.6771
 1.5500	64.5597
 1.5490	64.4109
 1.5480	64.2688
 1.5470	64.2279
 1.5460	64.0911
 1.5450	64.0039
 1.5440	63.8173
 1.5430	63.7411
 1.5420	63.6251
 1.5410	63.5198
 1.5400	63.3980
 1.5390	63.3489
 1.5380	63.2695
 1.5370	63.1555
 1.5360	63.0265
 1.5350	62.9488
 1.5340	62.8883
 1.5330	62.8011
 1.5320	62.6932
 1.5310	62.6491
 1.5300	62.5492
 1.5290	62.4675
 1.5280	62.3679
 1.5270	62.2718
 1.5260	62.1757
 1.5250	62.1095
 1.5240	61.9872
 1.5230	61.8473
 1.5220	61.7450
 1.5210	61.6383
 1.5200	61.5161
 1.5190	61.3798
 1.5180	61.2584
 1.5170	61.1967
 1.5160	61.0835
 1.5150	60.9244
 1.5140	60.8004
 1.5130	60.6856
 1.5120	60.5433
 1.5110	60.4259
 1.5100	60.2803
 1.5090	60.1167
 1.5080	59.9623
 1.5070	59.8156
 1.5060	59.6022
 1.5050	59.4272
 1.5040	59.3147
 1.5030	59.1974
 1.5020	58.9882
 1.5010	58.7345
 1.5000	58.5454
 1.4990	58.3912
 1.4980	58.1724
 1.4970	57.9079
 1.4960	57.7364
 1.4950	57.5295
 1.4940	57.2882
 1.4930	57.1004
 1.4920	56.8939
 1.4910	56.6261
 1.4900	56.4301
 1.4890	56.2327
 1.4880	56.0288
 1.4870	55.8134
 1.4860	55.5926
 1.4850	55.3283
 1.4840	55.0757
 1.4830	54.8329
 1.4820	54.5636
 1.4810	54.2117
 1.4800	53.9304
 1.4790	53.6589
 1.4780	53.3609
 1.4770	53.0196
 1.4760	52.7611
 1.4750	52.5117
 1.4740	52.2421
 1.4730	52.0032
 1.4720	51.8513
 1.4710	51.6787
 1.4700	51.5643
 1.4690	51.4626
 1.4680	51.3929
 1.4670	51.2375
 1.4660	51.1968
 1.4650	51.1465
 1.4640	51.0992
 1.4630	51.1034
 1.4620	51.1202
 1.4610	51.0532
 1.4600	51.0025
 1.4590	50.9353
 1.4580	50.8703
 1.4570	50.7388
 1.4560	50.7190
 1.4550	50.5349
 1.4540	50.3740
 1.4530	50.1964
 1.4520	49.9602
 1.4510	49.6182
 1.4500	49.4353
 1.4490	49.1906
 1.4480	48.9298
 1.4470	48.7474
 1.4460	48.6046
 1.4450	48.4397
 1.4440	48.3364
 1.4430	48.3308
 1.4420	48.3879
 1.4410	48.3510
 1.4400	48.4453
 1.4390	48.4574
 1.4380	48.5348
 1.4370	48.5901
 1.4360	48.6160
 1.4350	48.6410
 1.4340	48.6468
 1.4330	48.6478
 1.4320	48.6241
 1.4310	48.5197
 1.4300	48.4451
 1.4290	48.3354
 1.4280	48.3086
 1.4270	48.1192
 1.4260	48.0062
 1.4250	47.7837
 1.4240	47.5876
 1.4230	47.3709
 1.4220	47.2747
 1.4210	47.0171
 1.4200	46.8638
 1.4190	46.6392
 1.4180	46.5947
 1.4170	46.4760
 1.4160	46.4902
 1.4150	46.5494
 1.4140	46.6766
 1.4130	46.8440
 1.4120	47.2199
 1.4110	47.5060
 1.4100	47.9937
 1.4090	48.4194
 1.4080	48.9727
 1.4070	49.5968
 1.4060	50.2784
 1.4050	51.0279
 1.4040	51.9390
 1.4030	52.6639
 1.4020	53.6282
 1.4010	54.4387
 1.4000	55.2573
 1.3990	56.0918
 1.3980	56.9836
 1.3970	57.6415
 1.3960	58.2122
 1.3950	58.5132
 1.3940	58.7536
 1.3930	58.6779
 1.3920	58.4052
 1.3910	57.3511
 1.3900	55.2905
 1.3890	52.4191
 1.3880	50.0885
 1.3870	49.3749
 1.3860	51.1914
 1.3850	54.7368
 1.3840	58.8867
 1.3830	62.2737
 1.3820	64.5989
 1.3810	65.9778
 1.3800	66.8593
 1.3790	67.5832
 1.3780	68.1922
 1.3770	68.6741
 1.3760	69.2432
 1.3750	69.8168
 1.3740	70.4527
 1.3730	70.9602
 1.3720	71.3468
 1.3710	71.7732
 1.3700	72.1240
 1.3690	72.4553
 1.3680	72.6523
