Name: Wollastonite CaSiO_3
Type: Mineral
Class: Silicate
Subclass: Inosilicate
Particle Size: Coarse
Sample No.: IN-2A
Owner: JPL
Wavelength Range: VSWIR
Origin: USA, California, Inyo County, Panamint Mountains.
Collection Date: N/A
Description: Particle size was 125-500um.Collected by:  Burminco Original ASTER Spectral Library name was jpl.perkin.mineral.silicate.inosilicate.coarse.in02a.spectrum.txt
Measurement: Hemispherical reflectance
First Column: X
Second Column: Y
X Units: Wavelength (micrometers)
Y Units:Reflectance (percent)
First X Value:  2.5000
Last X Value:  0.4000
Number of X Values: 2101
Additional Information: mineral.silicate.inosilicate.coarse.vswir.in-2a.jpl.perkin.ancillary.txt

 2.5000	61.2938
 2.4990	61.5245
 2.4980	61.4444
 2.4970	61.5815
 2.4960	61.4086
 2.4950	61.7638
 2.4940	61.4896
 2.4930	61.6799
 2.4920	61.6383
 2.4910	61.7706
 2.4900	61.6751
 2.4890	61.9854
 2.4880	61.8041
 2.4870	61.9493
 2.4860	61.8007
 2.4850	61.9787
 2.4840	61.9721
 2.4830	61.9883
 2.4820	61.9509
 2.4810	61.9356
 2.4800	61.8278
 2.4790	62.0258
 2.4780	61.9559
 2.4770	62.1730
 2.4760	61.9357
 2.4750	62.0027
 2.4740	62.1146
 2.4730	62.0576
 2.4720	62.1094
 2.4710	62.2747
 2.4700	62.2288
 2.4690	62.3650
 2.4680	62.3334
 2.4670	62.4410
 2.4660	62.5595
 2.4650	62.5270
 2.4640	62.5942
 2.4630	62.7529
 2.4620	62.7796
 2.4610	62.9779
 2.4600	62.8155
 2.4590	62.9451
 2.4580	62.9465
 2.4570	62.9914
 2.4560	63.1847
 2.4550	63.1664
 2.4540	63.3153
 2.4530	63.4431
 2.4520	63.3100
 2.4510	63.3680
 2.4500	63.5161
 2.4490	63.4857
 2.4480	63.6122
 2.4470	63.7306
 2.4460	63.7287
 2.4450	63.8269
 2.4440	63.7489
 2.4430	63.7869
 2.4420	63.8609
 2.4410	63.9098
 2.4400	63.9410
 2.4390	64.0291
 2.4380	63.9718
 2.4370	64.0442
 2.4360	63.9919
 2.4350	64.0207
 2.4340	64.0279
 2.4330	63.9979
 2.4320	64.0571
 2.4310	64.0393
 2.4300	63.9756
 2.4290	63.9910
 2.4280	63.9756
 2.4270	64.0496
 2.4260	63.9899
 2.4250	63.9728
 2.4240	63.9127
 2.4230	63.8963
 2.4220	63.8996
 2.4210	63.8870
 2.4200	63.8495
 2.4190	63.8468
 2.4180	63.7454
 2.4170	63.6767
 2.4160	63.5802
 2.4150	63.6397
 2.4140	63.6208
 2.4130	63.5856
 2.4120	63.5101
 2.4110	63.4821
 2.4100	63.4737
 2.4090	63.5053
 2.4080	63.4659
 2.4070	63.3747
 2.4060	63.3422
 2.4050	63.3184
 2.4040	63.2981
 2.4030	63.2796
 2.4020	63.2190
 2.4010	63.0906
 2.4000	63.0424
 2.3990	63.0336
 2.3980	62.9568
 2.3970	62.9742
 2.3960	62.8863
 2.3950	62.8787
 2.3940	62.8412
 2.3930	62.8460
 2.3920	62.8874
 2.3910	62.8518
 2.3900	62.7769
 2.3890	62.8043
 2.3880	62.7584
 2.3870	62.7127
 2.3860	62.6686
 2.3850	62.6841
 2.3840	62.6584
 2.3830	62.6726
 2.3820	62.6821
 2.3810	62.6690
 2.3800	62.6681
 2.3790	62.6807
 2.3780	62.6393
 2.3770	62.6620
 2.3760	62.6709
 2.3750	62.6818
 2.3740	62.6474
 2.3730	62.6594
 2.3720	62.6235
 2.3710	62.5650
 2.3700	62.5673
 2.3690	62.5340
 2.3680	62.4475
 2.3670	62.4277
 2.3660	62.3291
 2.3650	62.2240
 2.3640	62.1872
 2.3630	62.1684
 2.3620	62.1094
 2.3610	62.0418
 2.3600	62.0317
 2.3590	61.9911
 2.3580	61.9519
 2.3570	61.9458
 2.3560	61.8956
 2.3550	61.8565
 2.3540	61.8320
 2.3530	61.9094
 2.3520	61.9462
 2.3510	61.9979
 2.3500	62.0207
 2.3490	62.0422
 2.3480	62.0975
 2.3470	62.0913
 2.3460	62.1330
 2.3450	62.2042
 2.3440	62.2587
 2.3430	62.3237
 2.3420	62.4167
 2.3410	62.4222
 2.3400	62.4643
 2.3390	62.5362
 2.3380	62.5844
 2.3370	62.6620
 2.3360	62.7074
 2.3350	62.8059
 2.3340	62.9048
 2.3330	62.9774
 2.3320	63.0880
 2.3310	63.1762
 2.3300	63.3111
 2.3290	63.4666
 2.3280	63.6211
 2.3270	63.7928
 2.3260	63.9559
 2.3250	64.1190
 2.3240	64.3043
 2.3230	64.4762
 2.3220	64.7524
 2.3210	64.9347
 2.3200	65.1462
 2.3190	65.3011
 2.3180	65.4862
 2.3170	65.7082
 2.3160	65.9024
 2.3150	66.0918
 2.3140	66.2770
 2.3130	66.3839
 2.3120	66.5281
 2.3110	66.6334
 2.3100	66.7572
 2.3090	66.7908
 2.3080	66.8826
 2.3070	66.8962
 2.3060	66.9390
 2.3050	66.9211
 2.3040	66.9477
 2.3030	66.9487
 2.3020	66.8886
 2.3010	66.8661
 2.3000	66.8633
 2.2990	66.8071
 2.2980	66.7723
 2.2970	66.7487
 2.2960	66.7256
 2.2950	66.6780
 2.2940	66.6415
 2.2930	66.5441
 2.2920	66.5101
 2.2910	66.4763
 2.2900	66.4549
 2.2890	66.4901
 2.2880	66.4828
 2.2870	66.4367
 2.2860	66.4514
 2.2850	66.3819
 2.2840	66.4412
 2.2830	66.5079
 2.2820	66.5179
 2.2810	66.4642
 2.2800	66.5623
 2.2790	66.5195
 2.2780	66.5865
 2.2770	66.6015
 2.2760	66.6897
 2.2750	66.8086
 2.2740	66.8468
 2.2730	66.8970
 2.2720	66.9623
 2.2710	66.9727
 2.2700	67.0417
 2.2690	67.1187
 2.2680	67.1323
 2.2670	67.1369
 2.2660	67.1710
 2.2650	67.2237
 2.2640	67.2603
 2.2630	67.3026
 2.2620	67.3639
 2.2610	67.3512
 2.2600	67.3644
 2.2590	67.3650
 2.2580	67.4139
 2.2570	67.3333
 2.2560	67.3867
 2.2550	67.3564
 2.2540	67.2881
 2.2530	67.2715
 2.2520	67.3559
 2.2510	67.3149
 2.2500	67.2189
 2.2490	67.1789
 2.2480	67.1990
 2.2470	67.0462
 2.2460	67.1002
 2.2450	66.9635
 2.2440	67.0311
 2.2430	66.8948
 2.2420	66.8653
 2.2410	66.8406
 2.2400	66.7580
 2.2390	66.7169
 2.2380	66.6962
 2.2370	66.6143
 2.2360	66.6713
 2.2350	66.6538
 2.2340	66.6176
 2.2330	66.5473
 2.2320	66.6424
 2.2310	66.6633
 2.2300	66.6676
 2.2290	66.6504
 2.2280	66.7565
 2.2270	66.8148
 2.2260	66.8892
 2.2250	66.9629
 2.2240	67.0403
 2.2230	67.1262
 2.2220	67.1859
 2.2210	67.2470
 2.2200	67.3984
 2.2190	67.3827
 2.2180	67.4677
 2.2170	67.5527
 2.2160	67.7218
 2.2150	67.7469
 2.2140	67.8828
 2.2130	67.8773
 2.2120	68.0461
 2.2110	68.0150
 2.2100	68.1630
 2.2090	68.2054
 2.2080	68.3306
 2.2070	68.4012
 2.2060	68.4958
 2.2050	68.5724
 2.2040	68.6543
 2.2030	68.7522
 2.2020	68.8431
 2.2010	68.7877
 2.2000	68.9329
 2.1990	68.9351
 2.1980	68.9111
 2.1970	68.9650
 2.1960	69.0730
 2.1950	69.0395
 2.1940	69.0661
 2.1930	69.1172
 2.1920	69.1627
 2.1910	69.0315
 2.1900	69.0815
 2.1890	69.2165
 2.1880	69.1926
 2.1870	69.1880
 2.1860	69.2937
 2.1850	69.2382
 2.1840	69.3335
 2.1830	69.3198
 2.1820	69.3133
 2.1810	69.3231
 2.1800	69.3699
 2.1790	69.3748
 2.1780	69.4832
 2.1770	69.3973
 2.1760	69.4751
 2.1750	69.4913
 2.1740	69.4945
 2.1730	69.5572
 2.1720	69.5691
 2.1710	69.5388
 2.1700	69.5665
 2.1690	69.6010
 2.1680	69.6596
 2.1670	69.6544
 2.1660	69.6292
 2.1650	69.6934
 2.1640	69.7721
 2.1630	69.7361
 2.1620	69.7863
 2.1610	69.8710
 2.1600	69.9253
 2.1590	69.9118
 2.1580	69.8828
 2.1570	69.9069
 2.1560	69.9299
 2.1550	69.9608
 2.1540	69.9874
 2.1530	70.0090
 2.1520	70.0073
 2.1510	69.9725
 2.1500	70.0037
 2.1490	70.0344
 2.1480	70.0542
 2.1470	70.0560
 2.1460	70.0450
 2.1450	70.0446
 2.1440	69.9958
 2.1430	70.0263
 2.1420	70.0746
 2.1410	70.0496
 2.1400	70.0665
 2.1390	70.0104
 2.1380	70.0172
 2.1370	70.0256
 2.1360	70.0107
 2.1350	69.9613
 2.1340	69.9169
 2.1330	69.9040
 2.1320	69.9048
 2.1310	69.8879
 2.1300	69.9190
 2.1290	69.8665
 2.1280	69.8740
 2.1270	69.8110
 2.1260	69.8373
 2.1250	69.7897
 2.1240	69.7623
 2.1230	69.6654
 2.1220	69.6822
 2.1210	69.6961
 2.1200	69.6470
 2.1190	69.5271
 2.1180	69.4856
 2.1170	69.4339
 2.1160	69.4355
 2.1150	69.3583
 2.1140	69.3523
 2.1130	69.3069
 2.1120	69.2866
 2.1110	69.2203
 2.1100	69.1888
 2.1090	69.1478
 2.1080	69.1676
 2.1070	69.1142
 2.1060	69.0374
 2.1050	68.9880
 2.1040	69.0110
 2.1030	68.9295
 2.1020	68.8758
 2.1010	68.8654
 2.1000	68.8621
 2.0990	68.8462
 2.0980	68.8286
 2.0970	68.8697
 2.0960	68.9438
 2.0950	68.9332
 2.0940	68.9385
 2.0930	68.9249
 2.0920	68.9172
 2.0910	68.9025
 2.0900	68.9218
 2.0890	68.9738
 2.0880	68.9636
 2.0870	69.0118
 2.0860	69.0124
 2.0850	68.9461
 2.0840	68.9677
 2.0830	68.9774
 2.0820	69.0220
 2.0810	69.0560
 2.0800	69.0001
 2.0790	68.9780
 2.0780	69.0503
 2.0770	69.0590
 2.0760	69.0396
 2.0750	69.0653
 2.0740	69.0820
 2.0730	69.0623
 2.0720	69.0455
 2.0710	69.0694
 2.0700	69.0772
 2.0690	69.0325
 2.0680	69.0564
 2.0670	69.0732
 2.0660	69.0796
 2.0650	69.0582
 2.0640	69.0657
 2.0630	69.1249
 2.0620	69.0797
 2.0610	69.0999
 2.0600	69.0982
 2.0590	69.0478
 2.0580	69.0665
 2.0570	69.1010
 2.0560	69.1066
 2.0550	69.1315
 2.0540	69.0989
 2.0530	69.0830
 2.0520	69.1283
 2.0510	69.1472
 2.0500	69.1584
 2.0490	69.1023
 2.0480	69.0620
 2.0470	69.1227
 2.0460	69.1266
 2.0450	69.1653
 2.0440	69.1394
 2.0430	69.1403
 2.0420	69.1246
 2.0410	69.1313
 2.0400	69.1259
 2.0390	69.0617
 2.0380	69.0607
 2.0370	69.0604
 2.0360	69.0301
 2.0350	69.0704
 2.0340	69.0384
 2.0330	69.0627
 2.0320	69.0265
 2.0310	69.0042
 2.0300	68.9910
 2.0290	68.9565
 2.0280	68.9741
 2.0270	68.9597
 2.0260	68.8987
 2.0250	68.8947
 2.0240	68.8669
 2.0230	68.8704
 2.0220	68.8749
 2.0210	68.8636
 2.0200	68.8087
 2.0190	68.8037
 2.0180	68.8189
 2.0170	68.7535
 2.0160	68.7314
 2.0150	68.7766
 2.0140	68.7400
 2.0130	68.6833
 2.0120	68.6634
 2.0110	68.6618
 2.0100	68.6415
 2.0090	68.6270
 2.0080	68.5741
 2.0070	68.5986
 2.0060	68.5646
 2.0050	68.5314
 2.0040	68.4767
 2.0030	68.5504
 2.0020	68.4093
 2.0010	68.4987
 2.0000	68.4671
 1.9990	68.3981
 1.9980	68.2931
 1.9970	68.2783
 1.9960	68.2950
 1.9950	68.3243
 1.9940	68.2240
 1.9930	68.1547
 1.9920	68.2031
 1.9910	68.1242
 1.9900	68.1172
 1.9890	68.1576
 1.9880	68.0662
 1.9870	68.0636
 1.9860	67.9464
 1.9850	68.0057
 1.9840	67.9275
 1.9830	67.9416
 1.9820	67.8504
 1.9810	67.8436
 1.9800	67.7803
 1.9790	67.7745
 1.9780	67.7420
 1.9770	67.6682
 1.9760	67.6653
 1.9750	67.7148
 1.9740	67.5525
 1.9730	67.6206
 1.9720	67.5247
 1.9710	67.5823
 1.9700	67.5397
 1.9690	67.4261
 1.9680	67.5211
 1.9670	67.3605
 1.9660	67.3058
 1.9650	67.3332
 1.9640	67.2825
 1.9630	67.2539
 1.9620	67.1974
 1.9610	67.2809
 1.9600	67.1636
 1.9590	67.2360
 1.9580	67.1567
 1.9570	67.1582
 1.9560	67.0215
 1.9550	67.0839
 1.9540	66.9487
 1.9530	67.0423
 1.9520	66.8914
 1.9510	66.9183
 1.9500	66.9507
 1.9490	66.8981
 1.9480	66.8899
 1.9470	66.8920
 1.9460	66.8428
 1.9450	66.8174
 1.9440	66.7808
 1.9430	66.6896
 1.9420	66.7807
 1.9410	66.7683
 1.9400	66.6854
 1.9390	66.7103
 1.9380	66.5646
 1.9370	66.6580
 1.9360	66.6505
 1.9350	66.5970
 1.9340	66.4743
 1.9330	66.4966
 1.9320	66.4918
 1.9310	66.5412
 1.9300	66.3917
 1.9290	66.4299
 1.9280	66.3445
 1.9270	66.4333
 1.9260	66.2796
 1.9250	66.3486
 1.9240	66.2723
 1.9230	66.3196
 1.9220	66.2922
 1.9210	66.3937
 1.9200	66.2988
 1.9190	66.2877
 1.9180	66.3348
 1.9170	66.4015
 1.9160	66.3769
 1.9150	66.4544
 1.9140	66.4089
 1.9130	66.5126
 1.9120	66.6014
 1.9110	66.6280
 1.9100	66.7460
 1.9090	66.8086
 1.9080	66.8546
 1.9070	67.0487
 1.9060	67.0265
 1.9050	67.1960
 1.9040	67.3881
 1.9030	67.5254
 1.9020	67.6016
 1.9010	67.7912
 1.9000	67.9003
 1.8990	68.0658
 1.8980	68.0986
 1.8970	68.2990
 1.8960	68.4766
 1.8950	68.5345
 1.8940	68.6471
 1.8930	68.7909
 1.8920	68.8970
 1.8910	68.9960
 1.8900	69.0983
 1.8890	69.2450
 1.8880	69.3907
 1.8870	69.4179
 1.8860	69.4764
 1.8850	69.4646
 1.8840	69.5974
 1.8830	69.6725
 1.8820	69.7052
 1.8810	69.7632
 1.8800	69.7772
 1.8790	69.8334
 1.8780	69.9134
 1.8770	69.9634
 1.8760	69.8861
 1.8750	70.0308
 1.8740	70.0583
 1.8730	70.0991
 1.8720	70.1645
 1.8710	70.1983
 1.8700	70.2272
 1.8690	70.3101
 1.8680	70.2985
 1.8670	70.3847
 1.8660	70.3691
 1.8650	70.4030
 1.8640	70.4295
 1.8630	70.4847
 1.8620	70.5280
 1.8610	70.5553
 1.8600	70.5230
 1.8590	70.5573
 1.8580	70.5211
 1.8570	70.5293
 1.8560	70.5418
 1.8550	70.6143
 1.8540	70.5807
 1.8530	70.6077
 1.8520	70.6317
 1.8510	70.6518
 1.8500	70.6546
 1.8490	70.6363
 1.8480	70.6542
 1.8470	70.7177
 1.8460	70.6581
 1.8450	70.6997
 1.8440	70.6808
 1.8430	70.7019
 1.8420	70.6606
 1.8410	70.6815
 1.8400	70.6664
 1.8390	70.6629
 1.8380	70.6330
 1.8370	70.6763
 1.8360	70.6555
 1.8350	70.7023
 1.8340	70.6684
 1.8330	70.6716
 1.8320	70.6845
 1.8310	70.7092
 1.8300	70.6284
 1.8290	70.7052
 1.8280	70.7135
 1.8270	70.7536
 1.8260	70.7073
 1.8250	70.7028
 1.8240	70.7500
 1.8230	70.7752
 1.8220	70.7159
 1.8210	70.7717
 1.8200	70.7809
 1.8190	70.7674
 1.8180	70.7203
 1.8170	70.7473
 1.8160	70.7747
 1.8150	70.7620
 1.8140	70.8265
 1.8130	70.8234
 1.8120	70.7671
 1.8110	70.7783
 1.8100	70.7951
 1.8090	70.8210
 1.8080	70.7935
 1.8070	70.8196
 1.8060	70.8372
 1.8050	70.8295
 1.8040	70.8160
 1.8030	70.8179
 1.8020	70.7739
 1.8010	70.8257
 1.8000	70.8713
 1.7990	70.7828
 1.7980	70.7516
 1.7970	70.7843
 1.7960	70.7823
 1.7950	70.7389
 1.7940	70.7377
 1.7930	70.7752
 1.7920	70.7633
 1.7910	70.7239
 1.7900	70.7026
 1.7890	70.7305
 1.7880	70.7780
 1.7870	70.7648
 1.7860	70.7342
 1.7850	70.7558
 1.7840	70.7256
 1.7830	70.7270
 1.7820	70.7368
 1.7810	70.7057
 1.7800	70.6723
 1.7790	70.6331
 1.7780	70.6837
 1.7770	70.6477
 1.7760	70.6590
 1.7750	70.6744
 1.7740	70.6652
 1.7730	70.6667
 1.7720	70.6377
 1.7710	70.6369
 1.7700	70.6151
 1.7690	70.5889
 1.7680	70.5901
 1.7670	70.5903
 1.7660	70.6048
 1.7650	70.5324
 1.7640	70.5680
 1.7630	70.6128
 1.7620	70.5867
 1.7610	70.5615
 1.7600	70.5811
 1.7590	70.5632
 1.7580	70.5517
 1.7570	70.5175
 1.7560	70.5101
 1.7550	70.5728
 1.7540	70.5381
 1.7530	70.5208
 1.7520	70.5734
 1.7510	70.5419
 1.7500	70.5178
 1.7490	70.4956
 1.7480	70.5235
 1.7470	70.5001
 1.7460	70.5662
 1.7450	70.5190
 1.7440	70.5300
 1.7430	70.4733
 1.7420	70.4770
 1.7410	70.4760
 1.7400	70.5130
 1.7390	70.5067
 1.7380	70.5097
 1.7370	70.4886
 1.7360	70.4895
 1.7350	70.4641
 1.7340	70.4931
 1.7330	70.4775
 1.7320	70.4752
 1.7310	70.4939
 1.7300	70.5055
 1.7290	70.4987
 1.7280	70.4952
 1.7270	70.4745
 1.7260	70.5168
 1.7250	70.5013
 1.7240	70.4695
 1.7230	70.5029
 1.7220	70.4658
 1.7210	70.4734
 1.7200	70.5363
 1.7190	70.4225
 1.7180	70.4827
 1.7170	70.4204
 1.7160	70.4089
 1.7150	70.3663
 1.7140	70.4311
 1.7130	70.3822
 1.7120	70.4058
 1.7110	70.3748
 1.7100	70.4461
 1.7090	70.3435
 1.7080	70.3640
 1.7070	70.3448
 1.7060	70.3369
 1.7050	70.3279
 1.7040	70.3356
 1.7030	70.2523
 1.7020	70.3100
 1.7010	70.3004
 1.7000	70.2583
 1.6990	70.2436
 1.6980	70.2823
 1.6970	70.2588
 1.6960	70.3277
 1.6950	70.2468
 1.6940	70.3195
 1.6930	70.2411
 1.6920	70.2053
 1.6910	70.1492
 1.6900	70.2352
 1.6890	70.2051
 1.6880	70.1918
 1.6870	70.1827
 1.6860	70.1877
 1.6850	70.1681
 1.6840	70.1834
 1.6830	70.1480
 1.6820	70.1940
 1.6810	70.1118
 1.6800	70.1419
 1.6790	70.1661
 1.6780	70.1704
 1.6770	70.1512
 1.6760	70.1369
 1.6750	70.1507
 1.6740	70.1145
 1.6730	70.0953
 1.6720	70.0568
 1.6710	70.0772
 1.6700	70.0908
 1.6690	70.1559
 1.6680	70.0664
 1.6670	70.0831
 1.6660	70.0174
 1.6650	70.0133
 1.6640	70.0582
 1.6630	69.9731
 1.6620	70.0833
 1.6610	70.0268
 1.6600	69.9635
 1.6590	69.9817
 1.6580	69.9724
 1.6570	69.9261
 1.6560	69.9487
 1.6550	69.8855
 1.6540	69.9263
 1.6530	69.9126
 1.6520	69.9404
 1.6510	69.9046
 1.6500	69.8848
 1.6490	69.8877
 1.6480	69.9484
 1.6470	69.8338
 1.6460	69.8898
 1.6450	69.7989
 1.6440	69.9180
 1.6430	69.8974
 1.6420	69.9531
 1.6410	69.7558
 1.6400	69.8426
 1.6390	69.8381
 1.6380	69.8123
 1.6370	69.7432
 1.6360	69.7748
 1.6350	69.7165
 1.6340	69.7759
 1.6330	69.7174
 1.6320	69.7753
 1.6310	69.6980
 1.6300	69.7959
 1.6290	69.6600
 1.6280	69.7071
 1.6270	69.7366
 1.6260	69.7071
 1.6250	69.6941
 1.6240	69.7989
 1.6230	69.6840
 1.6220	69.6915
 1.6210	69.6573
 1.6200	69.7230
 1.6190	69.6408
 1.6180	69.5928
 1.6170	69.5992
 1.6160	69.6168
 1.6150	69.5776
 1.6140	69.5676
 1.6130	69.6041
 1.6120	69.6076
 1.6110	69.5324
 1.6100	69.6850
 1.6090	69.5512
 1.6080	69.6379
 1.6070	69.6134
 1.6060	69.5671
 1.6050	69.4995
 1.6040	69.6044
 1.6030	69.5206
 1.6020	69.5453
 1.6010	69.5624
 1.6000	69.5882
 1.5990	69.4818
 1.5980	69.5488
 1.5970	69.5205
 1.5960	69.5505
 1.5950	69.5167
 1.5940	69.5426
 1.5930	69.4913
 1.5920	69.4998
 1.5910	69.4679
 1.5900	69.5061
 1.5890	69.4173
 1.5880	69.4792
 1.5870	69.4306
 1.5860	69.4589
 1.5850	69.4121
 1.5840	69.4514
 1.5830	69.3888
 1.5820	69.4142
 1.5810	69.3841
 1.5800	69.4507
 1.5790	69.3927
 1.5780	69.4346
 1.5770	69.4046
 1.5760	69.3770
 1.5750	69.3790
 1.5740	69.4353
 1.5730	69.3651
 1.5720	69.3803
 1.5710	69.3351
 1.5700	69.3290
 1.5690	69.3196
 1.5680	69.4111
 1.5670	69.3525
 1.5660	69.2900
 1.5650	69.2630
 1.5640	69.3246
 1.5630	69.3008
 1.5620	69.2835
 1.5610	69.2681
 1.5600	69.2863
 1.5590	69.2654
 1.5580	69.2813
 1.5570	69.2283
 1.5560	69.2356
 1.5550	69.2174
 1.5540	69.2511
 1.5530	69.2587
 1.5520	69.2139
 1.5510	69.2051
 1.5500	69.2209
 1.5490	69.1830
 1.5480	69.1970
 1.5470	69.1622
 1.5460	69.1666
 1.5450	69.1725
 1.5440	69.1525
 1.5430	69.1802
 1.5420	69.2091
 1.5410	69.1588
 1.5400	69.1668
 1.5390	69.1822
 1.5380	69.1625
 1.5370	69.1201
 1.5360	69.0859
 1.5350	69.0607
 1.5340	69.1007
 1.5330	69.0755
 1.5320	69.0960
 1.5310	69.0991
 1.5300	69.1065
 1.5290	69.0999
 1.5280	69.0752
 1.5270	69.0819
 1.5260	69.0626
 1.5250	69.0471
 1.5240	69.0578
 1.5230	69.0154
 1.5220	69.0227
 1.5210	69.0323
 1.5200	69.0411
 1.5190	69.0017
 1.5180	69.0068
 1.5170	69.0186
 1.5160	69.0230
 1.5150	68.9729
 1.5140	68.9069
 1.5130	68.8845
 1.5120	68.9576
 1.5110	68.9570
 1.5100	68.9256
 1.5090	68.9165
 1.5080	68.9334
 1.5070	68.9508
 1.5060	68.8907
 1.5050	68.8097
 1.5040	68.8087
 1.5030	68.8098
 1.5020	68.7770
 1.5010	68.8282
 1.5000	68.8231
 1.4990	68.7418
 1.4980	68.7345
 1.4970	68.7117
 1.4960	68.6926
 1.4950	68.7022
 1.4940	68.6679
 1.4930	68.6046
 1.4920	68.5204
 1.4910	68.4574
 1.4900	68.3740
 1.4890	68.2398
 1.4880	68.0749
 1.4870	67.9451
 1.4860	67.8342
 1.4850	67.6177
 1.4840	67.4617
 1.4830	67.3533
 1.4820	67.1999
 1.4810	67.1372
 1.4800	67.0530
 1.4790	66.9902
 1.4780	67.0028
 1.4770	67.0197
 1.4760	67.1379
 1.4750	67.2598
 1.4740	67.2986
 1.4730	67.4438
 1.4720	67.6079
 1.4710	67.8173
 1.4700	67.9736
 1.4690	68.0635
 1.4680	68.1018
 1.4670	68.2067
 1.4660	68.2688
 1.4650	68.3049
 1.4640	68.3625
 1.4630	68.4525
 1.4620	68.4345
 1.4610	68.4278
 1.4600	68.4301
 1.4590	68.4362
 1.4580	68.4717
 1.4570	68.5468
 1.4560	68.5092
 1.4550	68.5295
 1.4540	68.5453
 1.4530	68.6060
 1.4520	68.5611
 1.4510	68.5541
 1.4500	68.5694
 1.4490	68.6024
 1.4480	68.5724
 1.4470	68.5624
 1.4460	68.5857
 1.4450	68.6030
 1.4440	68.6148
 1.4430	68.6226
 1.4420	68.6389
 1.4410	68.6582
 1.4400	68.6037
 1.4390	68.6251
 1.4380	68.6284
 1.4370	68.6225
 1.4360	68.6003
 1.4350	68.5756
 1.4340	68.5247
 1.4330	68.5677
 1.4320	68.6098
 1.4310	68.6337
 1.4300	68.5802
 1.4290	68.6651
 1.4280	68.6566
 1.4270	68.7583
 1.4260	68.7144
 1.4250	68.7325
 1.4240	68.7144
 1.4230	68.7328
 1.4220	68.7085
 1.4210	68.7128
 1.4200	68.7360
 1.4190	68.7592
 1.4180	68.7757
 1.4170	68.8706
 1.4160	68.8069
 1.4150	68.8908
 1.4140	68.8892
 1.4130	68.9205
 1.4120	68.8865
 1.4110	68.9390
 1.4100	68.9222
 1.4090	68.9922
 1.4080	69.0052
 1.4070	68.9785
 1.4060	69.0308
 1.4050	69.0040
 1.4040	69.1141
 1.4030	69.0816
 1.4020	69.0875
 1.4010	69.1421
 1.4000	69.1576
 1.3990	69.2280
 1.3980	69.1401
 1.3970	69.2397
 1.3960	69.2607
 1.3950	69.3605
 1.3940	69.2938
 1.3930	69.3584
 1.3920	69.3196
 1.3910	69.4213
 1.3900	69.4513
 1.3890	69.4567
 1.3880	69.4129
 1.3870	69.4738
 1.3860	69.3999
 1.3850	69.5717
 1.3840	69.4208
 1.3830	69.4137
 1.3820	69.3947
 1.3810	69.4569
 1.3800	69.4462
 1.3790	69.5324
 1.3780	69.5033
 1.3770	69.4930
 1.3760	69.4800
 1.3750	69.5503
 1.3740	69.4716
 1.3730	69.5298
 1.3720	69.5323
 1.3710	69.4867
 1.3700	69.4427
 1.3690	69.6176
 1.3680	69.5414
