Name: Chlorite
Type: Mineral
Class: Silicate
Subclass: Phyllosilicate
Particle Size: Medium
Sample No.: PS-12C
Owner: JPL
Wavelength Range: VSWIR
Origin: USA, California.
Collection Date: N/A
Description: Particle size was 45-125um.Collected by:  Ward's Original ASTER Spectral Library name was jpl.perkin.mineral.silicate.phyllosilicate.medium.ps12c.spectrum.txt
Measurement: Hemispherical reflectance
First Column: X
Second Column: Y
X Units: Wavelength (micrometers)
Y Units:Reflectance (percent)
First X Value:  2.5000
Last X Value:  0.4000
Number of X Values: 2101
Additional Information: mineral.silicate.phyllosilicate.medium.vswir.ps-12c.jpl.perkin.ancillary.txt

 2.5000	34.1753
 2.4990	34.1509
 2.4980	34.1686
 2.4970	34.5687
 2.4960	33.7968
 2.4950	34.3355
 2.4940	34.1412
 2.4930	34.2724
 2.4920	34.1278
 2.4910	34.1937
 2.4900	34.0781
 2.4890	34.2350
 2.4880	34.1765
 2.4870	34.2893
 2.4860	34.1552
 2.4850	34.4126
 2.4840	34.0780
 2.4830	34.4284
 2.4820	34.3166
 2.4810	34.2986
 2.4800	34.2371
 2.4790	34.2780
 2.4780	34.1992
 2.4770	34.3294
 2.4760	34.3784
 2.4750	34.3718
 2.4740	34.3873
 2.4730	34.4330
 2.4720	34.3415
 2.4710	34.4862
 2.4700	34.4111
 2.4690	34.5981
 2.4680	34.6425
 2.4670	34.8236
 2.4660	34.7578
 2.4650	34.8736
 2.4640	34.9748
 2.4630	35.1179
 2.4620	35.1912
 2.4610	35.4147
 2.4600	35.4114
 2.4590	35.5734
 2.4580	35.6322
 2.4570	35.8222
 2.4560	35.9649
 2.4550	36.1957
 2.4540	36.3228
 2.4530	36.5577
 2.4520	36.5206
 2.4510	36.8005
 2.4500	36.9314
 2.4490	37.1132
 2.4480	37.2840
 2.4470	37.4651
 2.4460	37.5882
 2.4450	37.8859
 2.4440	37.8596
 2.4430	38.0490
 2.4420	38.0695
 2.4410	38.3383
 2.4400	38.3946
 2.4390	38.4904
 2.4380	38.6197
 2.4370	38.7284
 2.4360	38.8176
 2.4350	38.9721
 2.4340	39.0189
 2.4330	39.1454
 2.4320	39.3285
 2.4310	39.5480
 2.4300	39.5082
 2.4290	39.6758
 2.4280	39.7442
 2.4270	39.9503
 2.4260	40.0965
 2.4250	40.2068
 2.4240	40.2485
 2.4230	40.4660
 2.4220	40.4981
 2.4210	40.5724
 2.4200	40.6219
 2.4190	40.7413
 2.4180	40.7420
 2.4170	40.9238
 2.4160	40.9526
 2.4150	41.0686
 2.4140	41.0171
 2.4130	40.9455
 2.4120	40.9366
 2.4110	40.9477
 2.4100	40.8387
 2.4090	40.8260
 2.4080	40.7320
 2.4070	40.6518
 2.4060	40.4650
 2.4050	40.3957
 2.4040	40.2034
 2.4030	40.0775
 2.4020	39.8978
 2.4010	39.7224
 2.4000	39.5606
 2.3990	39.3992
 2.3980	39.2155
 2.3970	39.1303
 2.3960	38.9660
 2.3950	38.8530
 2.3940	38.7506
 2.3930	38.6666
 2.3920	38.5188
 2.3910	38.4097
 2.3900	38.2918
 2.3890	38.2181
 2.3880	38.1546
 2.3870	38.1150
 2.3860	38.0183
 2.3850	37.9775
 2.3840	38.0127
 2.3830	37.9835
 2.3820	37.9117
 2.3810	37.9507
 2.3800	37.9374
 2.3790	37.8564
 2.3780	37.8226
 2.3770	37.8262
 2.3760	37.7402
 2.3750	37.6722
 2.3740	37.5627
 2.3730	37.4958
 2.3720	37.4109
 2.3710	37.3471
 2.3700	37.1532
 2.3690	37.0213
 2.3680	36.8557
 2.3670	36.6806
 2.3660	36.5727
 2.3650	36.3860
 2.3640	36.1194
 2.3630	35.8788
 2.3620	35.6271
 2.3610	35.3911
 2.3600	35.1540
 2.3590	34.9027
 2.3580	34.6661
 2.3570	34.4514
 2.3560	34.2253
 2.3550	33.9608
 2.3540	33.7012
 2.3530	33.4901
 2.3520	33.2576
 2.3510	33.0453
 2.3500	32.8176
 2.3490	32.5628
 2.3480	32.4020
 2.3470	32.1795
 2.3460	31.9148
 2.3450	31.7112
 2.3440	31.5351
 2.3430	31.3256
 2.3420	31.2075
 2.3410	31.0775
 2.3400	30.9034
 2.3390	30.7123
 2.3380	30.5540
 2.3370	30.4471
 2.3360	30.3822
 2.3350	30.2527
 2.3340	30.1431
 2.3330	30.0901
 2.3320	30.0647
 2.3310	29.9692
 2.3300	29.9486
 2.3290	29.9191
 2.3280	29.9005
 2.3270	29.9550
 2.3260	29.9333
 2.3250	29.9469
 2.3240	30.0915
 2.3230	30.1285
 2.3220	30.2495
 2.3210	30.3426
 2.3200	30.5052
 2.3190	30.6053
 2.3180	30.7920
 2.3170	30.9333
 2.3160	31.1297
 2.3150	31.2091
 2.3140	31.3674
 2.3130	31.5856
 2.3120	31.8313
 2.3110	31.9498
 2.3100	32.1728
 2.3090	32.3467
 2.3080	32.5311
 2.3070	32.6837
 2.3060	32.8292
 2.3050	32.9778
 2.3040	33.2000
 2.3030	33.2556
 2.3020	33.3700
 2.3010	33.5020
 2.3000	33.6523
 2.2990	33.6970
 2.2980	33.8419
 2.2970	33.9593
 2.2960	34.1428
 2.2950	34.1977
 2.2940	34.3501
 2.2930	34.5418
 2.2920	34.7766
 2.2910	34.9822
 2.2900	35.2556
 2.2890	35.5153
 2.2880	35.8580
 2.2870	36.0734
 2.2860	36.3943
 2.2850	36.7928
 2.2840	37.1682
 2.2830	37.4118
 2.2820	37.7414
 2.2810	38.0359
 2.2800	38.3612
 2.2790	38.6682
 2.2780	38.9756
 2.2770	39.1745
 2.2760	39.4441
 2.2750	39.5555
 2.2740	39.7900
 2.2730	39.8645
 2.2720	40.0191
 2.2710	40.1008
 2.2700	40.2192
 2.2690	40.2592
 2.2680	40.3582
 2.2670	40.3010
 2.2660	40.2568
 2.2650	40.2456
 2.2640	40.3955
 2.2630	40.2298
 2.2620	40.1828
 2.2610	40.0931
 2.2600	40.1193
 2.2590	39.9772
 2.2580	40.0138
 2.2570	39.8851
 2.2560	39.8516
 2.2550	39.7517
 2.2540	39.7197
 2.2530	39.5916
 2.2520	39.5946
 2.2510	39.5478
 2.2500	39.6037
 2.2490	39.6604
 2.2480	39.6738
 2.2470	39.7962
 2.2460	39.9147
 2.2450	40.0844
 2.2440	40.4064
 2.2430	40.5882
 2.2420	40.9649
 2.2410	41.3001
 2.2400	41.7816
 2.2390	42.2489
 2.2380	42.8395
 2.2370	43.3856
 2.2360	44.0061
 2.2350	44.5285
 2.2340	45.3456
 2.2330	45.8005
 2.2320	46.4778
 2.2310	47.0287
 2.2300	47.6669
 2.2290	48.2313
 2.2280	48.9665
 2.2270	49.4020
 2.2260	49.9021
 2.2250	50.5124
 2.2240	50.9702
 2.2230	51.3374
 2.2220	51.9464
 2.2210	52.1942
 2.2200	52.6592
 2.2190	52.9962
 2.2180	53.3463
 2.2170	53.6846
 2.2160	54.0073
 2.2150	54.3158
 2.2140	54.5532
 2.2130	54.8221
 2.2120	55.2167
 2.2110	55.3059
 2.2100	55.7758
 2.2090	55.8158
 2.2080	56.0960
 2.2070	56.3496
 2.2060	56.6738
 2.2050	56.8516
 2.2040	57.0287
 2.2030	57.1563
 2.2020	57.3613
 2.2010	57.5712
 2.2000	57.8045
 2.1990	57.8988
 2.1980	58.0894
 2.1970	58.2580
 2.1960	58.4373
 2.1950	58.5918
 2.1940	58.6988
 2.1930	58.8333
 2.1920	59.0891
 2.1910	59.1261
 2.1900	59.3136
 2.1890	59.3128
 2.1880	59.6443
 2.1870	59.6756
 2.1860	59.8652
 2.1850	59.9997
 2.1840	60.1748
 2.1830	60.2734
 2.1820	60.4839
 2.1810	60.5569
 2.1800	60.7246
 2.1790	60.7970
 2.1780	60.9816
 2.1770	61.0329
 2.1760	61.2151
 2.1750	61.2713
 2.1740	61.4396
 2.1730	61.5602
 2.1720	61.7045
 2.1710	61.7593
 2.1700	61.8437
 2.1690	61.8676
 2.1680	62.0355
 2.1670	62.0859
 2.1660	62.1754
 2.1650	62.3565
 2.1640	62.3999
 2.1630	62.3755
 2.1620	62.5264
 2.1610	62.5491
 2.1600	62.6556
 2.1590	62.6857
 2.1580	62.7470
 2.1570	62.7656
 2.1560	62.8937
 2.1550	62.9966
 2.1540	63.0956
 2.1530	63.0191
 2.1520	63.1191
 2.1510	63.1963
 2.1500	63.1750
 2.1490	63.2463
 2.1480	63.3456
 2.1470	63.2979
 2.1460	63.3481
 2.1450	63.4173
 2.1440	63.3754
 2.1430	63.4206
 2.1420	63.4689
 2.1410	63.5161
 2.1400	63.4380
 2.1390	63.4304
 2.1380	63.4862
 2.1370	63.4178
 2.1360	63.4688
 2.1350	63.4390
 2.1340	63.3872
 2.1330	63.2808
 2.1320	63.2612
 2.1310	63.2238
 2.1300	63.2120
 2.1290	63.1671
 2.1280	63.1527
 2.1270	63.0890
 2.1260	63.0541
 2.1250	62.9865
 2.1240	62.9143
 2.1230	62.9349
 2.1220	62.9083
 2.1210	62.8238
 2.1200	62.7254
 2.1190	62.6836
 2.1180	62.6774
 2.1170	62.5534
 2.1160	62.5298
 2.1150	62.4812
 2.1140	62.4249
 2.1130	62.3967
 2.1120	62.4017
 2.1110	62.3677
 2.1100	62.3059
 2.1090	62.2516
 2.1080	62.2726
 2.1070	62.3023
 2.1060	62.3660
 2.1050	62.3694
 2.1040	62.3608
 2.1030	62.3726
 2.1020	62.4080
 2.1010	62.4536
 2.1000	62.5466
 2.0990	62.6467
 2.0980	62.7698
 2.0970	62.8123
 2.0960	62.9240
 2.0950	63.1009
 2.0940	63.2075
 2.0930	63.2077
 2.0920	63.3574
 2.0910	63.4106
 2.0900	63.4661
 2.0890	63.5103
 2.0880	63.5403
 2.0870	63.6250
 2.0860	63.6894
 2.0850	63.6599
 2.0840	63.6382
 2.0830	63.6391
 2.0820	63.5885
 2.0810	63.5805
 2.0800	63.5797
 2.0790	63.5324
 2.0780	63.5051
 2.0770	63.4440
 2.0760	63.4684
 2.0750	63.4721
 2.0740	63.3779
 2.0730	63.3568
 2.0720	63.3200
 2.0710	63.2842
 2.0700	63.2301
 2.0690	63.1657
 2.0680	63.1524
 2.0670	63.1190
 2.0660	63.0519
 2.0650	62.9688
 2.0640	62.9089
 2.0630	62.8476
 2.0620	62.7881
 2.0610	62.7398
 2.0600	62.6445
 2.0590	62.5563
 2.0580	62.5122
 2.0570	62.4413
 2.0560	62.3014
 2.0550	62.2467
 2.0540	62.1649
 2.0530	62.0475
 2.0520	61.9293
 2.0510	61.8703
 2.0500	61.7496
 2.0490	61.5894
 2.0480	61.5076
 2.0470	61.4484
 2.0460	61.3187
 2.0450	61.1697
 2.0440	61.0347
 2.0430	60.9244
 2.0420	60.7516
 2.0410	60.6084
 2.0400	60.4828
 2.0390	60.3303
 2.0380	60.1382
 2.0370	60.0027
 2.0360	59.8365
 2.0350	59.7011
 2.0340	59.5203
 2.0330	59.3647
 2.0320	59.1530
 2.0310	58.9668
 2.0300	58.7859
 2.0290	58.6580
 2.0280	58.4221
 2.0270	58.2529
 2.0260	58.0669
 2.0250	57.8843
 2.0240	57.7011
 2.0230	57.5520
 2.0220	57.3236
 2.0210	57.1317
 2.0200	56.9726
 2.0190	56.7779
 2.0180	56.6281
 2.0170	56.4367
 2.0160	56.2468
 2.0150	56.0895
 2.0140	55.9322
 2.0130	55.8611
 2.0120	55.6814
 2.0110	55.5547
 2.0100	55.4942
 2.0090	55.3653
 2.0080	55.2733
 2.0070	55.2294
 2.0060	55.1365
 2.0050	55.0315
 2.0040	54.8862
 2.0030	54.9664
 2.0020	54.8301
 2.0010	54.7664
 2.0000	54.7380
 1.9990	54.7046
 1.9980	54.6355
 1.9970	54.6950
 1.9960	54.5767
 1.9950	54.5437
 1.9940	54.5288
 1.9930	54.5590
 1.9920	54.4197
 1.9910	54.4682
 1.9900	54.4477
 1.9890	54.4158
 1.9880	54.4283
 1.9870	54.4230
 1.9860	54.3852
 1.9850	54.4930
 1.9840	54.5813
 1.9830	54.6320
 1.9820	54.6368
 1.9810	54.6831
 1.9800	54.7368
 1.9790	54.8224
 1.9780	54.9583
 1.9770	55.0575
 1.9760	55.0578
 1.9750	55.1600
 1.9740	55.2322
 1.9730	55.4079
 1.9720	55.4481
 1.9710	55.5146
 1.9700	55.5242
 1.9690	55.6807
 1.9680	55.7705
 1.9670	55.7869
 1.9660	55.8034
 1.9650	55.9134
 1.9640	56.0168
 1.9630	56.0064
 1.9620	56.0618
 1.9610	56.1269
 1.9600	56.1898
 1.9590	56.2128
 1.9580	56.1461
 1.9570	56.2992
 1.9560	56.3695
 1.9550	56.3986
 1.9540	56.3729
 1.9530	56.5295
 1.9520	56.5410
 1.9510	56.6784
 1.9500	56.7311
 1.9490	56.7584
 1.9480	56.9524
 1.9470	57.1120
 1.9460	57.0869
 1.9450	57.3108
 1.9440	57.3342
 1.9430	57.4371
 1.9420	57.4732
 1.9410	57.6614
 1.9400	57.7099
 1.9390	57.9333
 1.9380	57.8994
 1.9370	58.0228
 1.9360	58.0743
 1.9350	58.1582
 1.9340	58.2194
 1.9330	58.2846
 1.9320	58.3068
 1.9310	58.4654
 1.9300	58.3763
 1.9290	58.5583
 1.9280	58.5195
 1.9270	58.5764
 1.9260	58.5293
 1.9250	58.6657
 1.9240	58.6438
 1.9230	58.6772
 1.9220	58.7287
 1.9210	58.7647
 1.9200	58.6811
 1.9190	58.7542
 1.9180	58.7337
 1.9170	58.7405
 1.9160	58.7903
 1.9150	58.8605
 1.9140	58.8684
 1.9130	58.8218
 1.9120	58.8675
 1.9110	58.9644
 1.9100	58.8780
 1.9090	59.0658
 1.9080	58.8573
 1.9070	58.9568
 1.9060	59.0309
 1.9050	59.0214
 1.9040	59.0385
 1.9030	59.1410
 1.9020	59.0328
 1.9010	59.0652
 1.9000	59.1252
 1.8990	59.1313
 1.8980	58.9993
 1.8970	59.1183
 1.8960	59.0923
 1.8950	59.0755
 1.8940	59.0595
 1.8930	59.0073
 1.8920	58.9519
 1.8910	58.8962
 1.8900	58.8698
 1.8890	58.7754
 1.8880	58.7370
 1.8870	58.8058
 1.8860	58.6265
 1.8850	58.6069
 1.8840	58.5522
 1.8830	58.5509
 1.8820	58.5455
 1.8810	58.4563
 1.8800	58.5272
 1.8790	58.5718
 1.8780	58.5955
 1.8770	58.5874
 1.8760	58.6216
 1.8750	58.7481
 1.8740	58.7391
 1.8730	58.8271
 1.8720	58.7620
 1.8710	58.8914
 1.8700	58.9720
 1.8690	58.9921
 1.8680	59.0168
 1.8670	59.1823
 1.8660	59.3043
 1.8650	59.2965
 1.8640	59.3953
 1.8630	59.5067
 1.8620	59.5379
 1.8610	59.5933
 1.8600	59.6207
 1.8590	59.6998
 1.8580	59.7583
 1.8570	59.8040
 1.8560	59.8548
 1.8550	59.9802
 1.8540	60.0276
 1.8530	60.1253
 1.8520	60.1320
 1.8510	60.2039
 1.8500	60.2523
 1.8490	60.3305
 1.8480	60.4285
 1.8470	60.5283
 1.8460	60.5407
 1.8450	60.6744
 1.8440	60.7169
 1.8430	60.7412
 1.8420	60.7656
 1.8410	60.8350
 1.8400	60.8995
 1.8390	60.9963
 1.8380	60.9245
 1.8370	60.9727
 1.8360	61.0114
 1.8350	61.0925
 1.8340	61.1275
 1.8330	61.1955
 1.8320	61.2114
 1.8310	61.2186
 1.8300	61.1233
 1.8290	61.1914
 1.8280	61.1873
 1.8270	61.2394
 1.8260	61.2246
 1.8250	61.2214
 1.8240	61.2633
 1.8230	61.3138
 1.8220	61.2732
 1.8210	61.3059
 1.8200	61.3300
 1.8190	61.3470
 1.8180	61.3016
 1.8170	61.3023
 1.8160	61.3821
 1.8150	61.3584
 1.8140	61.3164
 1.8130	61.3671
 1.8120	61.3829
 1.8110	61.4211
 1.8100	61.3931
 1.8090	61.3827
 1.8080	61.3565
 1.8070	61.3268
 1.8060	61.3491
 1.8050	61.3648
 1.8040	61.3391
 1.8030	61.3456
 1.8020	61.3935
 1.8010	61.4103
 1.8000	61.4059
 1.7990	61.3185
 1.7980	61.3549
 1.7970	61.3808
 1.7960	61.3040
 1.7950	61.2872
 1.7940	61.3165
 1.7930	61.2854
 1.7920	61.2426
 1.7910	61.2032
 1.7900	61.2122
 1.7890	61.2165
 1.7880	61.2403
 1.7870	61.2132
 1.7860	61.1404
 1.7850	61.1541
 1.7840	61.0958
 1.7830	61.0868
 1.7820	61.1371
 1.7810	61.0698
 1.7800	60.9825
 1.7790	60.9633
 1.7780	60.9948
 1.7770	60.9759
 1.7760	60.9156
 1.7750	60.8656
 1.7740	60.8573
 1.7730	60.8386
 1.7720	60.8080
 1.7710	60.7103
 1.7700	60.7385
 1.7690	60.7075
 1.7680	60.6525
 1.7670	60.6635
 1.7660	60.6094
 1.7650	60.5402
 1.7640	60.4838
 1.7630	60.4811
 1.7620	60.4777
 1.7610	60.4272
 1.7600	60.4089
 1.7590	60.4116
 1.7580	60.3886
 1.7570	60.3458
 1.7560	60.3811
 1.7550	60.3403
 1.7540	60.3012
 1.7530	60.1972
 1.7520	60.1526
 1.7510	60.1482
 1.7500	60.1726
 1.7490	60.1293
 1.7480	60.0785
 1.7470	60.0432
 1.7460	59.9924
 1.7450	59.9680
 1.7440	59.9235
 1.7430	59.8262
 1.7420	59.8584
 1.7410	59.7738
 1.7400	59.7525
 1.7390	59.7462
 1.7380	59.7063
 1.7370	59.6576
 1.7360	59.6145
 1.7350	59.5988
 1.7340	59.5837
 1.7330	59.5646
 1.7320	59.4888
 1.7310	59.4334
 1.7300	59.4202
 1.7290	59.3291
 1.7280	59.3496
 1.7270	59.2760
 1.7260	59.2692
 1.7250	59.1858
 1.7240	59.1224
 1.7230	59.0869
 1.7220	59.0635
 1.7210	58.9604
 1.7200	58.9468
 1.7190	58.9319
 1.7180	58.9290
 1.7170	58.8387
 1.7160	58.7539
 1.7150	58.6991
 1.7140	58.8029
 1.7130	58.6721
 1.7120	58.6494
 1.7110	58.5127
 1.7100	58.5784
 1.7090	58.4316
 1.7080	58.4426
 1.7070	58.3523
 1.7060	58.2698
 1.7050	58.2352
 1.7040	58.2208
 1.7030	58.0861
 1.7020	58.0648
 1.7010	57.9886
 1.7000	57.9685
 1.6990	57.9756
 1.6980	57.9767
 1.6970	57.8310
 1.6960	57.7887
 1.6950	57.7663
 1.6940	57.7063
 1.6930	57.5473
 1.6920	57.5523
 1.6910	57.5197
 1.6900	57.4907
 1.6890	57.3695
 1.6880	57.3479
 1.6870	57.2741
 1.6860	57.3243
 1.6850	57.1813
 1.6840	57.2010
 1.6830	57.1112
 1.6820	57.0188
 1.6810	56.9620
 1.6800	56.9383
 1.6790	56.8901
 1.6780	56.8261
 1.6770	56.7275
 1.6760	56.7491
 1.6750	56.6006
 1.6740	56.6645
 1.6730	56.5160
 1.6720	56.5040
 1.6710	56.4427
 1.6700	56.4546
 1.6690	56.3944
 1.6680	56.2299
 1.6670	56.1910
 1.6660	56.1241
 1.6650	56.0528
 1.6640	56.0907
 1.6630	55.8875
 1.6620	55.8860
 1.6610	55.7387
 1.6600	55.8542
 1.6590	55.6256
 1.6580	55.6786
 1.6570	55.5368
 1.6560	55.6693
 1.6550	55.4703
 1.6540	55.3656
 1.6530	55.3430
 1.6520	55.2833
 1.6510	55.2009
 1.6500	55.2433
 1.6490	55.0594
 1.6480	55.0534
 1.6470	54.8587
 1.6460	54.9023
 1.6450	54.8308
 1.6440	54.7850
 1.6430	54.6679
 1.6420	54.6914
 1.6410	54.4409
 1.6400	54.5499
 1.6390	54.3813
 1.6380	54.4063
 1.6370	54.2647
 1.6360	54.3451
 1.6350	54.0898
 1.6340	54.0680
 1.6330	53.9924
 1.6320	53.9650
 1.6310	53.9046
 1.6300	53.8644
 1.6290	53.7042
 1.6280	53.7567
 1.6270	53.5562
 1.6260	53.5333
 1.6250	53.4104
 1.6240	53.3241
 1.6230	53.2380
 1.6220	53.2135
 1.6210	53.1702
 1.6200	53.1091
 1.6190	53.0183
 1.6180	52.9655
 1.6170	52.7910
 1.6160	52.8424
 1.6150	52.6602
 1.6140	52.7112
 1.6130	52.5740
 1.6120	52.5581
 1.6110	52.4079
 1.6100	52.3637
 1.6090	52.3583
 1.6080	52.2603
 1.6070	52.1393
 1.6060	52.0805
 1.6050	52.0154
 1.6040	51.9735
 1.6030	51.8186
 1.6020	51.8839
 1.6010	51.7883
 1.6000	51.6902
 1.5990	51.6104
 1.5980	51.5507
 1.5970	51.4628
 1.5960	51.2992
 1.5950	51.1850
 1.5940	51.2590
 1.5930	51.1449
 1.5920	51.0677
 1.5910	50.9094
 1.5900	50.8490
 1.5890	50.7356
 1.5880	50.6922
 1.5870	50.6164
 1.5860	50.6106
 1.5850	50.4740
 1.5840	50.4134
 1.5830	50.2869
 1.5820	50.2199
 1.5810	50.0937
 1.5800	50.0591
 1.5790	49.9218
 1.5780	49.8584
 1.5770	49.7905
 1.5760	49.6818
 1.5750	49.6038
 1.5740	49.6080
 1.5730	49.4788
 1.5720	49.3871
 1.5710	49.3493
 1.5700	49.2866
 1.5690	49.2128
 1.5680	49.1549
 1.5670	49.0289
 1.5660	49.0082
 1.5650	48.9479
 1.5640	48.8464
 1.5630	48.8156
 1.5620	48.7359
 1.5610	48.6917
 1.5600	48.5419
 1.5590	48.4866
 1.5580	48.4926
 1.5570	48.3482
 1.5560	48.2331
 1.5550	48.2188
 1.5540	48.2375
 1.5530	48.1919
 1.5520	48.1072
 1.5510	48.0192
 1.5500	47.9777
 1.5490	47.8927
 1.5480	47.8471
 1.5470	47.8151
 1.5460	47.7615
 1.5450	47.6900
 1.5440	47.6619
 1.5430	47.5487
 1.5420	47.5347
 1.5410	47.4698
 1.5400	47.4042
 1.5390	47.3131
 1.5380	47.2775
 1.5370	47.2281
 1.5360	47.1728
 1.5350	47.1294
 1.5340	47.1225
 1.5330	47.0397
 1.5320	46.9651
 1.5310	46.9353
 1.5300	46.8977
 1.5290	46.8507
 1.5280	46.8239
 1.5270	46.7583
 1.5260	46.7346
 1.5250	46.6643
 1.5240	46.6592
 1.5230	46.5885
 1.5220	46.5685
 1.5210	46.5123
 1.5200	46.4311
 1.5190	46.4351
 1.5180	46.4313
 1.5170	46.3653
 1.5160	46.3737
 1.5150	46.3076
 1.5140	46.2880
 1.5130	46.2811
 1.5120	46.2276
 1.5110	46.1886
 1.5100	46.1761
 1.5090	46.1800
 1.5080	46.1545
 1.5070	46.1075
 1.5060	46.1090
 1.5050	46.0591
 1.5040	45.9674
 1.5030	45.9519
 1.5020	45.9918
 1.5010	45.9419
 1.5000	45.9031
 1.4990	45.9162
 1.4980	45.8549
 1.4970	45.7924
 1.4960	45.7390
 1.4950	45.7169
 1.4940	45.6960
 1.4930	45.6426
 1.4920	45.5697
 1.4910	45.5405
 1.4900	45.5310
 1.4890	45.4730
 1.4880	45.3743
 1.4870	45.3466
 1.4860	45.3031
 1.4850	45.2491
 1.4840	45.1794
 1.4830	45.0971
 1.4820	45.0007
 1.4810	44.9283
 1.4800	44.8815
 1.4790	44.8400
 1.4780	44.6983
 1.4770	44.6475
 1.4760	44.5893
 1.4750	44.5386
 1.4740	44.4433
 1.4730	44.3640
 1.4720	44.2304
 1.4710	44.1427
 1.4700	44.0416
 1.4690	43.9593
 1.4680	43.8671
 1.4670	43.7773
 1.4660	43.7096
 1.4650	43.5721
 1.4640	43.4450
 1.4630	43.3532
 1.4620	43.2084
 1.4610	43.1674
 1.4600	42.9970
 1.4590	42.8426
 1.4580	42.7480
 1.4570	42.6519
 1.4560	42.4992
 1.4550	42.4251
 1.4540	42.3051
 1.4530	42.2137
 1.4520	42.0749
 1.4510	42.0234
 1.4500	41.8928
 1.4490	41.8279
 1.4480	41.6851
 1.4470	41.6635
 1.4460	41.5640
 1.4450	41.4792
 1.4440	41.3625
 1.4430	41.3379
 1.4420	41.2772
 1.4410	41.2901
 1.4400	41.1942
 1.4390	41.1702
 1.4380	41.1218
 1.4370	41.1906
 1.4360	41.1430
 1.4350	41.1135
 1.4340	41.1200
 1.4330	41.1996
 1.4320	41.1349
 1.4310	41.1678
 1.4300	41.2171
 1.4290	41.1890
 1.4280	41.2384
 1.4270	41.2985
 1.4260	41.2230
 1.4250	41.2863
 1.4240	41.1958
 1.4230	41.2733
 1.4220	41.2202
 1.4210	41.1820
 1.4200	41.0785
 1.4190	40.9942
 1.4180	40.8148
 1.4170	40.7004
 1.4160	40.5263
 1.4150	40.3292
 1.4140	40.1356
 1.4130	40.0703
 1.4120	39.9089
 1.4110	39.8930
 1.4100	39.7463
 1.4090	39.7404
 1.4080	39.6742
 1.4070	39.6579
 1.4060	39.5197
 1.4050	39.5796
 1.4040	39.4714
 1.4030	39.3962
 1.4020	39.0866
 1.4010	38.8359
 1.4000	38.2857
 1.3990	37.9688
 1.3980	37.4607
 1.3970	36.8440
 1.3960	36.1350
 1.3950	35.4605
 1.3940	34.6725
 1.3930	34.2291
 1.3920	33.7673
 1.3910	33.6836
 1.3900	33.8244
 1.3890	34.3609
 1.3880	35.1896
 1.3870	36.3745
 1.3860	37.5471
 1.3850	38.7716
 1.3840	39.5994
 1.3830	40.3303
 1.3820	40.5909
 1.3810	40.7712
 1.3800	40.7891
 1.3790	40.8976
 1.3780	40.8113
 1.3770	40.8442
 1.3760	40.7458
 1.3750	40.7436
 1.3740	40.5515
 1.3730	40.6208
 1.3720	40.4844
 1.3710	40.5956
 1.3700	40.4037
 1.3690	40.4128
 1.3680	40.3018
 1.3670	40.4043
 1.3660	40.2459
