Name: Natrojarosite NaFe_3^3+(SO_4)_2(OH)_6
Type: Mineral
Class: Sulfate
Subclass: None
Particle Size: Fine
Sample No.: SO-7C
Owner: JPL
Wavelength Range: VSWIR
Origin: USA, Utah, Tooele County, Gold Hill.
Collection Date: N/A
Description: Particle size was 0-45um.Collected by:  Ward's Original ASTER Spectral Library name was jpl.perkin.mineral.sulfate.none.fine.so07c.spectrum.txt
Measurement: Hemispherical reflectance
First Column: X
Second Column: Y
X Units: Wavelength (micrometers)
Y Units:Reflectance (percent)
First X Value:  2.5000
Last X Value:  0.4000
Number of X Values: 2101
Additional Information: mineral.sulfate.none.fine.vswir.so-7c.jpl.perkin.ancillary.txt

 2.5000	61.9359
 2.4990	62.1291
 2.4980	62.4970
 2.4970	62.8113
 2.4960	62.8791
 2.4950	63.1646
 2.4940	63.3310
 2.4930	63.6557
 2.4920	63.7649
 2.4910	63.9537
 2.4900	64.0453
 2.4890	64.1641
 2.4880	64.4147
 2.4870	64.3571
 2.4860	64.5801
 2.4850	64.5218
 2.4840	64.6334
 2.4830	64.6188
 2.4820	64.7136
 2.4810	64.7180
 2.4800	64.7435
 2.4790	64.6345
 2.4780	64.7812
 2.4770	64.5969
 2.4760	64.8540
 2.4750	64.6533
 2.4740	64.5445
 2.4730	64.4329
 2.4720	64.5017
 2.4710	64.4802
 2.4700	64.5404
 2.4690	64.4659
 2.4680	64.4202
 2.4670	64.4225
 2.4660	64.5055
 2.4650	64.4190
 2.4640	64.3075
 2.4630	64.3797
 2.4620	64.4457
 2.4610	64.3833
 2.4600	64.4927
 2.4590	64.4836
 2.4580	64.5523
 2.4570	64.5848
 2.4560	64.7560
 2.4550	64.8371
 2.4540	65.0499
 2.4530	65.0351
 2.4520	65.2236
 2.4510	65.3964
 2.4500	65.5729
 2.4490	65.7040
 2.4480	65.9384
 2.4470	66.1976
 2.4460	66.3118
 2.4450	66.3482
 2.4440	66.7048
 2.4430	66.7685
 2.4420	66.9439
 2.4410	67.0561
 2.4400	67.2462
 2.4390	67.3377
 2.4380	67.4930
 2.4370	67.5456
 2.4360	67.5284
 2.4350	67.8020
 2.4340	67.7769
 2.4330	67.7671
 2.4320	67.9182
 2.4310	68.0138
 2.4300	67.9903
 2.4290	68.1305
 2.4280	68.1411
 2.4270	68.0506
 2.4260	68.0833
 2.4250	67.9953
 2.4240	68.1060
 2.4230	68.0726
 2.4220	68.0766
 2.4210	68.0981
 2.4200	68.1128
 2.4190	68.0852
 2.4180	68.1396
 2.4170	68.1768
 2.4160	68.1694
 2.4150	68.1725
 2.4140	68.1826
 2.4130	68.2457
 2.4120	68.3137
 2.4110	68.3355
 2.4100	68.4307
 2.4090	68.4212
 2.4080	68.5249
 2.4070	68.6234
 2.4060	68.8016
 2.4050	68.8769
 2.4040	68.9523
 2.4030	69.1395
 2.4020	69.3816
 2.4010	69.4981
 2.4000	69.7120
 2.3990	69.8728
 2.3980	70.1018
 2.3970	70.2827
 2.3960	70.5380
 2.3950	70.8172
 2.3940	71.1053
 2.3930	71.3250
 2.3920	71.5182
 2.3910	71.8198
 2.3900	72.0783
 2.3890	72.2449
 2.3880	72.5636
 2.3870	72.8709
 2.3860	73.0407
 2.3850	73.2389
 2.3840	73.5064
 2.3830	73.7644
 2.3820	74.0557
 2.3810	74.2971
 2.3800	74.5451
 2.3790	74.8159
 2.3780	74.9888
 2.3770	75.2365
 2.3760	75.4580
 2.3750	75.5964
 2.3740	75.7325
 2.3730	76.0169
 2.3720	76.2976
 2.3710	76.4578
 2.3700	76.5119
 2.3690	76.6699
 2.3680	76.8937
 2.3670	77.0280
 2.3660	77.1722
 2.3650	77.3727
 2.3640	77.5529
 2.3630	77.6157
 2.3620	77.6927
 2.3610	77.8965
 2.3600	78.0378
 2.3590	78.1517
 2.3580	78.2338
 2.3570	78.3381
 2.3560	78.5086
 2.3550	78.5482
 2.3540	78.6136
 2.3530	78.7191
 2.3520	78.8010
 2.3510	78.9024
 2.3500	78.9548
 2.3490	79.0396
 2.3480	79.0840
 2.3470	79.1403
 2.3460	79.2140
 2.3450	79.2347
 2.3440	79.2644
 2.3430	79.3178
 2.3420	79.3641
 2.3410	79.3702
 2.3400	79.3431
 2.3390	79.3118
 2.3380	79.3005
 2.3370	79.3524
 2.3360	79.3457
 2.3350	79.2874
 2.3340	79.2623
 2.3330	79.1839
 2.3320	79.2537
 2.3310	79.2100
 2.3300	79.1138
 2.3290	79.0062
 2.3280	78.8806
 2.3270	78.8475
 2.3260	78.7570
 2.3250	78.6560
 2.3240	78.5406
 2.3230	78.4611
 2.3220	78.2844
 2.3210	78.0941
 2.3200	77.9488
 2.3190	77.7797
 2.3180	77.6002
 2.3170	77.4323
 2.3160	77.1979
 2.3150	77.0390
 2.3140	76.8271
 2.3130	76.5494
 2.3120	76.3137
 2.3110	76.1349
 2.3100	75.9535
 2.3090	75.6671
 2.3080	75.4408
 2.3070	75.2654
 2.3060	75.0320
 2.3050	74.8549
 2.3040	74.6941
 2.3030	74.5053
 2.3020	74.2847
 2.3010	74.1100
 2.3000	73.9763
 2.2990	73.8206
 2.2980	73.6709
 2.2970	73.4547
 2.2960	73.3717
 2.2950	73.2038
 2.2940	73.0061
 2.2930	72.8370
 2.2920	72.5843
 2.2910	72.3127
 2.2900	72.1119
 2.2890	71.7959
 2.2880	71.4881
 2.2870	71.2683
 2.2860	70.9674
 2.2850	70.5920
 2.2840	70.2809
 2.2830	69.9170
 2.2820	69.4659
 2.2810	69.1745
 2.2800	68.8600
 2.2790	68.5026
 2.2780	68.1228
 2.2770	67.8575
 2.2760	67.5790
 2.2750	67.2270
 2.2740	66.9346
 2.2730	66.7543
 2.2720	66.5127
 2.2710	66.4015
 2.2700	66.1459
 2.2690	66.1231
 2.2680	65.9796
 2.2670	65.9673
 2.2660	65.9243
 2.2650	66.0235
 2.2640	66.1016
 2.2630	66.1862
 2.2620	66.2581
 2.2610	66.3790
 2.2600	66.6311
 2.2590	66.8633
 2.2580	67.1250
 2.2570	67.4321
 2.2560	67.7202
 2.2550	68.0544
 2.2540	68.4593
 2.2530	68.7686
 2.2520	69.0865
 2.2510	69.4333
 2.2500	69.8031
 2.2490	70.0841
 2.2480	70.4956
 2.2470	70.8027
 2.2460	70.9655
 2.2450	71.2688
 2.2440	71.4248
 2.2430	71.6518
 2.2420	71.8113
 2.2410	71.9926
 2.2400	72.0873
 2.2390	72.2095
 2.2380	72.2948
 2.2370	72.4269
 2.2360	72.4651
 2.2350	72.5577
 2.2340	72.5383
 2.2330	72.6280
 2.2320	72.7074
 2.2310	72.7747
 2.2300	72.8185
 2.2290	72.8334
 2.2280	72.8592
 2.2270	73.0228
 2.2260	73.0927
 2.2250	73.1926
 2.2240	73.2970
 2.2230	73.4360
 2.2220	73.4476
 2.2210	73.5018
 2.2200	73.7070
 2.2190	73.8585
 2.2180	73.9292
 2.2170	74.0749
 2.2160	74.1664
 2.2150	74.3207
 2.2140	74.5031
 2.2130	74.7351
 2.2120	74.8049
 2.2110	74.8030
 2.2100	75.1102
 2.2090	75.2410
 2.2080	75.2775
 2.2070	75.4849
 2.2060	75.5091
 2.2050	75.7926
 2.2040	75.8598
 2.2030	75.9948
 2.2020	76.0673
 2.2010	76.2840
 2.2000	76.4199
 2.1990	76.5160
 2.1980	76.6349
 2.1970	76.7476
 2.1960	76.8341
 2.1950	76.9118
 2.1940	77.0640
 2.1930	77.2032
 2.1920	77.2458
 2.1910	77.4299
 2.1900	77.4799
 2.1890	77.5971
 2.1880	77.6890
 2.1870	77.8008
 2.1860	77.8956
 2.1850	78.0749
 2.1840	78.2312
 2.1830	78.2154
 2.1820	78.2545
 2.1810	78.4267
 2.1800	78.5265
 2.1790	78.5261
 2.1780	78.6174
 2.1770	78.7425
 2.1760	78.8205
 2.1750	78.8457
 2.1740	78.9542
 2.1730	79.0148
 2.1720	79.1610
 2.1710	79.1613
 2.1700	79.3226
 2.1690	79.3155
 2.1680	79.3970
 2.1670	79.4613
 2.1660	79.4817
 2.1650	79.5616
 2.1640	79.6336
 2.1630	79.7548
 2.1620	79.7544
 2.1610	79.7641
 2.1600	79.8785
 2.1590	79.9243
 2.1580	79.8984
 2.1570	80.1269
 2.1560	80.0951
 2.1550	80.1759
 2.1540	80.2572
 2.1530	80.3269
 2.1520	80.3147
 2.1510	80.4588
 2.1500	80.4720
 2.1490	80.4902
 2.1480	80.4915
 2.1470	80.6442
 2.1460	80.6403
 2.1450	80.6474
 2.1440	80.6385
 2.1430	80.7235
 2.1420	80.7992
 2.1410	80.8901
 2.1400	80.8618
 2.1390	80.8601
 2.1380	80.8500
 2.1370	80.9557
 2.1360	81.0393
 2.1350	81.0602
 2.1340	81.0543
 2.1330	81.0679
 2.1320	81.0836
 2.1310	81.1233
 2.1300	81.1909
 2.1290	81.2137
 2.1280	81.1248
 2.1270	81.1480
 2.1260	81.1246
 2.1250	81.1182
 2.1240	81.1367
 2.1230	81.1034
 2.1220	81.0813
 2.1210	81.1510
 2.1200	81.1583
 2.1190	81.1509
 2.1180	81.1303
 2.1170	81.1339
 2.1160	81.1494
 2.1150	81.1573
 2.1140	81.0805
 2.1130	81.0509
 2.1120	81.0577
 2.1110	81.0767
 2.1100	81.0347
 2.1090	81.0929
 2.1080	81.0084
 2.1070	81.0403
 2.1060	81.0549
 2.1050	81.0350
 2.1040	81.0534
 2.1030	81.0675
 2.1020	81.0624
 2.1010	81.0271
 2.1000	81.0173
 2.0990	81.0516
 2.0980	81.0832
 2.0970	81.1470
 2.0960	81.1886
 2.0950	81.2028
 2.0940	81.2320
 2.0930	81.3173
 2.0920	81.3085
 2.0910	81.2582
 2.0900	81.3571
 2.0890	81.4286
 2.0880	81.4022
 2.0870	81.4507
 2.0860	81.5492
 2.0850	81.6209
 2.0840	81.6114
 2.0830	81.5835
 2.0820	81.5993
 2.0810	81.6718
 2.0800	81.7311
 2.0790	81.7834
 2.0780	81.7582
 2.0770	81.7716
 2.0760	81.9110
 2.0750	81.9880
 2.0740	82.0202
 2.0730	82.0326
 2.0720	82.0627
 2.0710	82.0981
 2.0700	82.1566
 2.0690	82.2231
 2.0680	82.2445
 2.0670	82.2669
 2.0660	82.2992
 2.0650	82.3182
 2.0640	82.4203
 2.0630	82.4684
 2.0620	82.5031
 2.0610	82.5444
 2.0600	82.5689
 2.0590	82.6498
 2.0580	82.7117
 2.0570	82.7480
 2.0560	82.7688
 2.0550	82.8434
 2.0540	82.9150
 2.0530	82.9346
 2.0520	82.9708
 2.0510	83.0062
 2.0500	83.0763
 2.0490	83.1226
 2.0480	83.1447
 2.0470	83.2831
 2.0460	83.3547
 2.0450	83.3813
 2.0440	83.3794
 2.0430	83.4010
 2.0420	83.4674
 2.0410	83.5080
 2.0400	83.5809
 2.0390	83.6343
 2.0380	83.6541
 2.0370	83.7399
 2.0360	83.7510
 2.0350	83.8029
 2.0340	83.8989
 2.0330	83.9713
 2.0320	84.0394
 2.0310	84.0792
 2.0300	84.1331
 2.0290	84.1752
 2.0280	84.1766
 2.0270	84.2764
 2.0260	84.3885
 2.0250	84.4022
 2.0240	84.3280
 2.0230	84.3687
 2.0220	84.4540
 2.0210	84.5025
 2.0200	84.5087
 2.0190	84.5160
 2.0180	84.5972
 2.0170	84.5909
 2.0160	84.5688
 2.0150	84.6199
 2.0140	84.6957
 2.0130	84.6440
 2.0120	84.6056
 2.0110	84.6208
 2.0100	84.6455
 2.0090	84.6590
 2.0080	84.6944
 2.0070	84.7288
 2.0060	84.7632
 2.0050	84.8064
 2.0040	84.8351
 2.0030	84.7678
 2.0020	84.8463
 2.0010	84.7954
 2.0000	84.9006
 1.9990	84.8961
 1.9980	84.8430
 1.9970	84.9179
 1.9960	84.8971
 1.9950	84.9338
 1.9940	85.0627
 1.9930	85.0954
 1.9920	85.0205
 1.9910	85.1067
 1.9900	85.1259
 1.9890	85.1419
 1.9880	85.1963
 1.9870	85.1069
 1.9860	85.1827
 1.9850	85.2493
 1.9840	85.1919
 1.9830	85.2427
 1.9820	85.2440
 1.9810	85.2912
 1.9800	85.4354
 1.9790	85.4293
 1.9780	85.3371
 1.9770	85.3243
 1.9760	85.4360
 1.9750	85.2972
 1.9740	85.3681
 1.9730	85.4164
 1.9720	85.3470
 1.9710	85.3861
 1.9700	85.5273
 1.9690	85.5303
 1.9680	85.4253
 1.9670	85.4777
 1.9660	85.4299
 1.9650	85.4547
 1.9640	85.4890
 1.9630	85.4431
 1.9620	85.5021
 1.9610	85.5121
 1.9600	85.5377
 1.9590	85.6458
 1.9580	85.6208
 1.9570	85.5982
 1.9560	85.6364
 1.9550	85.7141
 1.9540	85.7242
 1.9530	85.6964
 1.9520	85.7211
 1.9510	85.6673
 1.9500	85.8056
 1.9490	85.8079
 1.9480	85.8784
 1.9470	85.8144
 1.9460	85.8067
 1.9450	85.7421
 1.9440	85.8491
 1.9430	85.8144
 1.9420	85.8653
 1.9410	85.8736
 1.9400	85.9645
 1.9390	85.9236
 1.9380	86.0041
 1.9370	85.9970
 1.9360	86.0624
 1.9350	85.9911
 1.9340	86.1739
 1.9330	86.0992
 1.9320	86.1604
 1.9310	86.2130
 1.9300	86.2839
 1.9290	86.4050
 1.9280	86.4216
 1.9270	86.3653
 1.9260	86.4653
 1.9250	86.5502
 1.9240	86.5440
 1.9230	86.6433
 1.9220	86.7584
 1.9210	86.7687
 1.9200	86.8819
 1.9190	86.9021
 1.9180	86.9977
 1.9170	86.9760
 1.9160	87.0884
 1.9150	87.1388
 1.9140	87.2061
 1.9130	87.2982
 1.9120	87.2607
 1.9110	87.2740
 1.9100	87.4019
 1.9090	87.4536
 1.9080	87.4794
 1.9070	87.4732
 1.9060	87.5399
 1.9050	87.5966
 1.9040	87.6524
 1.9030	87.6787
 1.9020	87.7883
 1.9010	87.7466
 1.9000	87.7936
 1.8990	87.8432
 1.8980	87.7951
 1.8970	87.8736
 1.8960	87.8632
 1.8950	87.8941
 1.8940	87.9048
 1.8930	87.9221
 1.8920	87.8233
 1.8910	87.8625
 1.8900	87.8263
 1.8890	87.8044
 1.8880	87.7950
 1.8870	87.7341
 1.8860	87.6542
 1.8850	87.6755
 1.8840	87.5265
 1.8830	87.4662
 1.8820	87.4609
 1.8810	87.3236
 1.8800	87.2176
 1.8790	87.1460
 1.8780	86.9997
 1.8770	86.8360
 1.8760	86.5644
 1.8750	86.3951
 1.8740	86.1986
 1.8730	85.8593
 1.8720	85.4677
 1.8710	85.2118
 1.8700	84.8651
 1.8690	84.4714
 1.8680	84.1830
 1.8670	83.8659
 1.8660	83.5293
 1.8650	83.2731
 1.8640	83.0117
 1.8630	82.8570
 1.8620	82.7078
 1.8610	82.5905
 1.8600	82.4972
 1.8590	82.3297
 1.8580	82.2211
 1.8570	82.2001
 1.8560	82.1384
 1.8550	82.0055
 1.8540	81.8822
 1.8530	81.7963
 1.8520	81.6475
 1.8510	81.4375
 1.8500	81.2339
 1.8490	81.1299
 1.8480	81.0527
 1.8470	80.9558
 1.8460	81.0021
 1.8450	81.0372
 1.8440	81.1713
 1.8430	81.4061
 1.8420	81.6782
 1.8410	81.9006
 1.8400	82.3029
 1.8390	82.7057
 1.8380	83.0664
 1.8370	83.5293
 1.8360	83.9118
 1.8350	84.2590
 1.8340	84.5825
 1.8330	84.9799
 1.8320	85.2402
 1.8310	85.5346
 1.8300	85.8492
 1.8290	86.0932
 1.8280	86.3877
 1.8270	86.5542
 1.8260	86.7337
 1.8250	86.9027
 1.8240	87.0989
 1.8230	87.2085
 1.8220	87.3266
 1.8210	87.3765
 1.8200	87.4562
 1.8190	87.4968
 1.8180	87.5883
 1.8170	87.7199
 1.8160	87.8632
 1.8150	87.9482
 1.8140	88.0145
 1.8130	88.1025
 1.8120	88.2039
 1.8110	88.2774
 1.8100	88.3675
 1.8090	88.4117
 1.8080	88.4768
 1.8070	88.6101
 1.8060	88.7049
 1.8050	88.6914
 1.8040	88.7931
 1.8030	88.9351
 1.8020	88.9473
 1.8010	89.0229
 1.8000	89.0851
 1.7990	89.1001
 1.7980	89.1537
 1.7970	89.1664
 1.7960	89.2162
 1.7950	89.2219
 1.7940	89.2143
 1.7930	89.2277
 1.7920	89.2628
 1.7910	89.3123
 1.7900	89.2841
 1.7890	89.3204
 1.7880	89.3738
 1.7870	89.3695
 1.7860	89.4031
 1.7850	89.4246
 1.7840	89.3932
 1.7830	89.3695
 1.7820	89.4831
 1.7810	89.5218
 1.7800	89.5175
 1.7790	89.5358
 1.7780	89.5192
 1.7770	89.5358
 1.7760	89.6097
 1.7750	89.6269
 1.7740	89.5943
 1.7730	89.6709
 1.7720	89.6650
 1.7710	89.6793
 1.7700	89.6718
 1.7690	89.6556
 1.7680	89.6974
 1.7670	89.7517
 1.7660	89.7771
 1.7650	89.7400
 1.7640	89.7345
 1.7630	89.8261
 1.7620	89.8477
 1.7610	89.8427
 1.7600	89.8154
 1.7590	89.8521
 1.7580	89.9265
 1.7570	89.9369
 1.7560	89.9106
 1.7550	89.9305
 1.7540	89.9756
 1.7530	90.0579
 1.7520	90.1088
 1.7510	90.0703
 1.7500	90.0602
 1.7490	90.0857
 1.7480	90.0948
 1.7470	90.0706
 1.7460	90.0951
 1.7450	90.1536
 1.7440	90.1483
 1.7430	90.1987
 1.7420	90.2299
 1.7410	90.2279
 1.7400	90.2091
 1.7390	90.2486
 1.7380	90.3374
 1.7370	90.3347
 1.7360	90.3955
 1.7350	90.4114
 1.7340	90.3647
 1.7330	90.3700
 1.7320	90.4084
 1.7310	90.3913
 1.7300	90.3923
 1.7290	90.3568
 1.7280	90.4405
 1.7270	90.3516
 1.7260	90.4279
 1.7250	90.4369
 1.7240	90.4655
 1.7230	90.3833
 1.7220	90.4081
 1.7210	90.5005
 1.7200	90.4599
 1.7190	90.5349
 1.7180	90.5071
 1.7170	90.4553
 1.7160	90.4567
 1.7150	90.4397
 1.7140	90.3854
 1.7130	90.4644
 1.7120	90.3738
 1.7110	90.3979
 1.7100	90.5032
 1.7090	90.4081
 1.7080	90.3208
 1.7070	90.3949
 1.7060	90.4022
 1.7050	90.3941
 1.7040	90.3828
 1.7030	90.3708
 1.7020	90.4339
 1.7010	90.3244
 1.7000	90.4109
 1.6990	90.3864
 1.6980	90.3638
 1.6970	90.2582
 1.6960	90.2933
 1.6950	90.3176
 1.6940	90.2811
 1.6930	90.3417
 1.6920	90.2398
 1.6910	90.2946
 1.6900	90.2574
 1.6890	90.3088
 1.6880	90.2365
 1.6870	90.1755
 1.6860	90.1684
 1.6850	90.1645
 1.6840	90.1751
 1.6830	90.2171
 1.6820	90.1349
 1.6810	90.0705
 1.6800	90.0756
 1.6790	90.1219
 1.6780	90.0803
 1.6770	90.1494
 1.6760	90.0763
 1.6750	90.0777
 1.6740	90.0549
 1.6730	90.0486
 1.6720	90.0138
 1.6710	90.0236
 1.6700	90.0531
 1.6690	90.0398
 1.6680	89.9212
 1.6670	90.0048
 1.6660	89.9258
 1.6650	89.9610
 1.6640	89.9181
 1.6630	89.8542
 1.6620	89.8570
 1.6610	89.8917
 1.6600	89.7679
 1.6590	89.8832
 1.6580	89.7970
 1.6570	89.8588
 1.6560	89.8257
 1.6550	89.8143
 1.6540	89.6956
 1.6530	89.8076
 1.6520	89.7140
 1.6510	89.6395
 1.6500	89.6905
 1.6490	89.7147
 1.6480	89.6228
 1.6470	89.6259
 1.6460	89.7285
 1.6450	89.6518
 1.6440	89.5934
 1.6430	89.6200
 1.6420	89.6749
 1.6410	89.5999
 1.6400	89.5875
 1.6390	89.5506
 1.6380	89.4285
 1.6370	89.4670
 1.6360	89.4364
 1.6350	89.6033
 1.6340	89.4789
 1.6330	89.4626
 1.6320	89.4351
 1.6310	89.3638
 1.6300	89.4232
 1.6290	89.3833
 1.6280	89.3199
 1.6270	89.3262
 1.6260	89.2175
 1.6250	89.2883
 1.6240	89.2735
 1.6230	89.2591
 1.6220	89.2074
 1.6210	89.2429
 1.6200	89.1432
 1.6190	89.1650
 1.6180	89.1010
 1.6170	89.0113
 1.6160	89.0401
 1.6150	89.0570
 1.6140	89.0667
 1.6130	88.9581
 1.6120	89.0002
 1.6110	89.0212
 1.6100	88.9324
 1.6090	88.8907
 1.6080	88.9102
 1.6070	88.8780
 1.6060	88.8847
 1.6050	88.8688
 1.6040	88.7467
 1.6030	88.7739
 1.6020	88.8089
 1.6010	88.7334
 1.6000	88.6367
 1.5990	88.6795
 1.5980	88.6715
 1.5970	88.5589
 1.5960	88.5638
 1.5950	88.5121
 1.5940	88.4675
 1.5930	88.4194
 1.5920	88.3416
 1.5910	88.3948
 1.5900	88.3575
 1.5890	88.3340
 1.5880	88.2559
 1.5870	88.2036
 1.5860	88.1491
 1.5850	88.1005
 1.5840	87.9746
 1.5830	87.9951
 1.5820	87.9761
 1.5810	87.9361
 1.5800	87.8719
 1.5790	87.8214
 1.5780	87.7137
 1.5770	87.6905
 1.5760	87.6998
 1.5750	87.5612
 1.5740	87.5233
 1.5730	87.4811
 1.5720	87.4569
 1.5710	87.4173
 1.5700	87.2597
 1.5690	87.2088
 1.5680	87.2440
 1.5670	87.2329
 1.5660	87.1786
 1.5650	87.1141
 1.5640	87.0710
 1.5630	87.0327
 1.5620	87.0142
 1.5610	86.8931
 1.5600	86.9129
 1.5590	86.8289
 1.5580	86.6973
 1.5570	86.6914
 1.5560	86.6687
 1.5550	86.6038
 1.5540	86.5850
 1.5530	86.5675
 1.5520	86.4366
 1.5510	86.3706
 1.5500	86.4171
 1.5490	86.4478
 1.5480	86.4054
 1.5470	86.3565
 1.5460	86.3033
 1.5450	86.2784
 1.5440	86.2875
 1.5430	86.3118
 1.5420	86.2380
 1.5410	86.2569
 1.5400	86.2684
 1.5390	86.2843
 1.5380	86.2771
 1.5370	86.2531
 1.5360	86.2434
 1.5350	86.2648
 1.5340	86.2149
 1.5330	86.1750
 1.5320	86.2046
 1.5310	86.2344
 1.5300	86.2222
 1.5290	86.2359
 1.5280	86.2541
 1.5270	86.2692
 1.5260	86.2679
 1.5250	86.2405
 1.5240	86.2858
 1.5230	86.3181
 1.5220	86.3318
 1.5210	86.3513
 1.5200	86.3587
 1.5190	86.3889
 1.5180	86.4103
 1.5170	86.4498
 1.5160	86.4449
 1.5150	86.4906
 1.5140	86.5406
 1.5130	86.5007
 1.5120	86.4686
 1.5110	86.4678
 1.5100	86.5261
 1.5090	86.5922
 1.5080	86.6065
 1.5070	86.5746
 1.5060	86.5683
 1.5050	86.4994
 1.5040	86.4440
 1.5030	86.4448
 1.5020	86.4882
 1.5010	86.4843
 1.5000	86.3513
 1.4990	86.3478
 1.4980	86.3363
 1.4970	86.1947
 1.4960	86.1165
 1.4950	86.0600
 1.4940	86.0003
 1.4930	85.9153
 1.4920	85.7595
 1.4910	85.5456
 1.4900	85.3134
 1.4890	84.9927
 1.4880	84.6608
 1.4870	84.2547
 1.4860	83.7896
 1.4850	83.3269
 1.4840	82.8208
 1.4830	82.3720
 1.4820	81.9832
 1.4810	81.6489
 1.4800	81.4316
 1.4790	81.3360
 1.4780	81.2733
 1.4770	81.2292
 1.4760	81.2617
 1.4750	81.4126
 1.4740	81.6588
 1.4730	81.8751
 1.4720	82.2047
 1.4710	82.5027
 1.4700	82.7335
 1.4690	83.0547
 1.4680	83.3565
 1.4670	83.6486
 1.4660	83.9974
 1.4650	84.2411
 1.4640	84.5038
 1.4630	84.8390
 1.4620	85.1382
 1.4610	85.3807
 1.4600	85.6404
 1.4590	85.8844
 1.4580	86.1194
 1.4570	86.3735
 1.4560	86.5285
 1.4550	86.6905
 1.4540	86.8766
 1.4530	86.9821
 1.4520	87.0517
 1.4510	87.1209
 1.4500	87.1758
 1.4490	87.2930
 1.4480	87.3471
 1.4470	87.4246
 1.4460	87.4836
 1.4450	87.5938
 1.4440	87.5965
 1.4430	87.6034
 1.4420	87.6848
 1.4410	87.6935
 1.4400	87.7111
 1.4390	87.7062
 1.4380	87.7326
 1.4370	87.6908
 1.4360	87.7941
 1.4350	87.8006
 1.4340	87.7524
 1.4330	87.7044
 1.4320	87.7675
 1.4310	87.7474
 1.4300	87.7308
 1.4290	87.7399
 1.4280	87.8131
 1.4270	87.7830
 1.4260	87.7146
 1.4250	87.7325
 1.4240	87.7449
 1.4230	87.6557
 1.4220	87.6878
 1.4210	87.6296
 1.4200	87.6657
 1.4190	87.6422
 1.4180	87.6566
 1.4170	87.6325
 1.4160	87.6456
 1.4150	87.5692
 1.4140	87.5028
 1.4130	87.4192
 1.4120	87.5237
 1.4110	87.5317
 1.4100	87.5258
 1.4090	87.3710
 1.4080	87.3991
 1.4070	87.3943
 1.4060	87.2612
 1.4050	87.2237
 1.4040	87.2722
 1.4030	87.2077
 1.4020	87.1804
 1.4010	87.2675
 1.4000	87.0673
 1.3990	87.0040
 1.3980	86.9525
 1.3970	86.9484
 1.3960	86.9518
 1.3950	86.8906
 1.3940	86.9000
 1.3930	86.8469
 1.3920	86.8373
 1.3910	86.7014
 1.3900	86.6483
 1.3890	86.6169
 1.3880	86.5634
 1.3870	86.5125
 1.3860	86.5189
 1.3850	86.3776
 1.3840	86.3599
 1.3830	86.2937
 1.3820	86.2636
 1.3810	86.1837
 1.3800	86.1849
 1.3790	86.1955
 1.3780	86.0343
 1.3770	85.9901
 1.3760	85.9838
 1.3750	85.9030
 1.3740	85.9262
 1.3730	85.8042
 1.3720	85.7809
 1.3710	85.6988
 1.3700	85.7600
 1.3690	85.6493
 1.3680	85.5982
 1.3670	85.5145
 1.3660	85.4262
