Name: Halite NaCl
Type: Mineral
Class: Halide
Subclass: None
Particle Size: Fine
Sample No.: H-3A
Owner: JPL
Wavelength Range: VSWIR
Origin: USA, Michigan, Wayne County, Detroit.
Collection Date: N/A
Description: Particle size was 0-45um.Collected by:  Ward's Original ASTER Spectral Library name was jpl.perkin.mineral.halide.none.fine.h03a.spectrum.txt
Measurement: Hemispherical reflectance
First Column: X
Second Column: Y
X Units: Wavelength (micrometers)
Y Units:Reflectance (percent)
First X Value:  2.5000
Last X Value:  0.4000
Number of X Values: 2101
Additional Information: mineral.halide.none.fine.vswir.h-3a.jpl.perkin.ancillary.txt

 2.5000	75.1577
 2.4990	74.8715
 2.4980	75.0061
 2.4970	74.9599
 2.4960	74.9338
 2.4950	75.2080
 2.4940	75.2393
 2.4930	75.1847
 2.4920	74.9763
 2.4910	75.3438
 2.4900	74.9877
 2.4890	75.1391
 2.4880	75.0939
 2.4870	75.2828
 2.4860	75.2588
 2.4850	75.2257
 2.4840	75.3476
 2.4830	75.4638
 2.4820	75.2530
 2.4810	75.5087
 2.4800	75.3059
 2.4790	75.3670
 2.4780	75.4805
 2.4770	75.4176
 2.4760	75.4420
 2.4750	75.4166
 2.4740	75.4469
 2.4730	75.6875
 2.4720	75.6325
 2.4710	75.6999
 2.4700	75.6114
 2.4690	75.5531
 2.4680	75.7314
 2.4670	75.9401
 2.4660	75.8183
 2.4650	75.8273
 2.4640	75.8329
 2.4630	75.8142
 2.4620	75.9163
 2.4610	75.8851
 2.4600	75.8781
 2.4590	75.9284
 2.4580	75.9312
 2.4570	76.0070
 2.4560	76.0210
 2.4550	75.8928
 2.4540	75.9787
 2.4530	75.9381
 2.4520	76.0208
 2.4510	76.1151
 2.4500	76.1348
 2.4490	76.0846
 2.4480	76.1630
 2.4470	76.2403
 2.4460	76.2412
 2.4450	76.2458
 2.4440	76.2642
 2.4430	76.2669
 2.4420	76.3396
 2.4410	76.4319
 2.4400	76.3754
 2.4390	76.4642
 2.4380	76.5434
 2.4370	76.4787
 2.4360	76.4865
 2.4350	76.5923
 2.4340	76.5357
 2.4330	76.4760
 2.4320	76.6328
 2.4310	76.6792
 2.4300	76.7145
 2.4290	76.7056
 2.4280	76.8585
 2.4270	76.7767
 2.4260	76.8760
 2.4250	76.9826
 2.4240	76.9574
 2.4230	77.0303
 2.4220	77.0930
 2.4210	77.0879
 2.4200	77.1004
 2.4190	77.0788
 2.4180	77.1622
 2.4170	77.2745
 2.4160	77.2936
 2.4150	77.3221
 2.4140	77.4280
 2.4130	77.5227
 2.4120	77.4957
 2.4110	77.4110
 2.4100	77.4840
 2.4090	77.5688
 2.4080	77.6120
 2.4070	77.6948
 2.4060	77.6895
 2.4050	77.6779
 2.4040	77.7589
 2.4030	77.8180
 2.4020	77.8251
 2.4010	77.9217
 2.4000	77.9018
 2.3990	77.9156
 2.3980	77.9616
 2.3970	78.0405
 2.3960	78.1036
 2.3950	78.1022
 2.3940	78.1019
 2.3930	78.1906
 2.3920	78.2123
 2.3910	78.2067
 2.3900	78.2863
 2.3890	78.3110
 2.3880	78.4145
 2.3870	78.4450
 2.3860	78.4606
 2.3850	78.5205
 2.3840	78.4904
 2.3830	78.5059
 2.3820	78.5618
 2.3810	78.5690
 2.3800	78.6257
 2.3790	78.6930
 2.3780	78.7568
 2.3770	78.7587
 2.3760	78.7946
 2.3750	78.8565
 2.3740	78.9386
 2.3730	78.9853
 2.3720	79.0004
 2.3710	78.9834
 2.3700	78.9834
 2.3690	79.0558
 2.3680	79.1227
 2.3670	79.1233
 2.3660	79.1005
 2.3650	79.1349
 2.3640	79.1603
 2.3630	79.1912
 2.3620	79.1834
 2.3610	79.1899
 2.3600	79.3231
 2.3590	79.3749
 2.3580	79.3643
 2.3570	79.3862
 2.3560	79.3893
 2.3550	79.4090
 2.3540	79.3562
 2.3530	79.4996
 2.3520	79.6071
 2.3510	79.5257
 2.3500	79.5780
 2.3490	79.6460
 2.3480	79.6204
 2.3470	79.6558
 2.3460	79.7040
 2.3450	79.6897
 2.3440	79.6700
 2.3430	79.6617
 2.3420	79.7152
 2.3410	79.7303
 2.3400	79.7350
 2.3390	79.7874
 2.3380	79.7922
 2.3370	79.8059
 2.3360	79.8015
 2.3350	79.8147
 2.3340	79.8803
 2.3330	79.8946
 2.3320	79.8312
 2.3310	79.8536
 2.3300	79.8387
 2.3290	79.9056
 2.3280	79.9233
 2.3270	79.8594
 2.3260	79.8324
 2.3250	79.8712
 2.3240	79.8641
 2.3230	79.9112
 2.3220	79.9252
 2.3210	79.9625
 2.3200	79.9151
 2.3190	79.8957
 2.3180	79.8672
 2.3170	79.8537
 2.3160	79.9019
 2.3150	79.9851
 2.3140	79.9435
 2.3130	79.9135
 2.3120	79.8966
 2.3110	79.8814
 2.3100	79.9802
 2.3090	79.9601
 2.3080	79.9005
 2.3070	79.9409
 2.3060	79.9543
 2.3050	79.9766
 2.3040	79.9211
 2.3030	79.9231
 2.3020	79.9207
 2.3010	79.9768
 2.3000	79.9487
 2.2990	79.9585
 2.2980	80.0023
 2.2970	80.0294
 2.2960	80.0365
 2.2950	80.0034
 2.2940	79.9776
 2.2930	79.9838
 2.2920	79.9641
 2.2910	79.9636
 2.2900	79.9193
 2.2890	80.0275
 2.2880	79.9437
 2.2870	79.9601
 2.2860	79.9325
 2.2850	79.9778
 2.2840	79.9287
 2.2830	79.9839
 2.2820	79.9481
 2.2810	80.0137
 2.2800	79.9877
 2.2790	79.9327
 2.2780	79.8965
 2.2770	79.9361
 2.2760	79.9034
 2.2750	79.9362
 2.2740	79.9688
 2.2730	79.9961
 2.2720	79.8930
 2.2710	79.9303
 2.2700	79.9077
 2.2690	79.9506
 2.2680	79.9081
 2.2670	79.8779
 2.2660	79.9569
 2.2650	79.9183
 2.2640	79.9775
 2.2630	79.9880
 2.2620	79.9973
 2.2610	79.8948
 2.2600	79.9331
 2.2590	80.0205
 2.2580	79.9547
 2.2570	79.9212
 2.2560	79.9419
 2.2550	79.9554
 2.2540	80.0073
 2.2530	79.9108
 2.2520	79.9847
 2.2510	79.9359
 2.2500	79.9595
 2.2490	80.0436
 2.2480	79.9465
 2.2470	80.0381
 2.2460	80.0130
 2.2450	80.0242
 2.2440	79.9439
 2.2430	79.9784
 2.2420	79.9933
 2.2410	79.9614
 2.2400	79.9678
 2.2390	79.9536
 2.2380	80.1125
 2.2370	79.9999
 2.2360	80.0225
 2.2350	79.9800
 2.2340	79.9677
 2.2330	80.1148
 2.2320	79.9844
 2.2310	79.9501
 2.2300	80.0320
 2.2290	80.1598
 2.2280	80.0414
 2.2270	80.0570
 2.2260	80.0898
 2.2250	80.0767
 2.2240	80.0954
 2.2230	80.1284
 2.2220	80.1328
 2.2210	80.1441
 2.2200	80.0483
 2.2190	80.1465
 2.2180	80.0816
 2.2170	80.2242
 2.2160	80.1579
 2.2150	80.1556
 2.2140	80.2061
 2.2130	80.2107
 2.2120	80.1883
 2.2110	80.3408
 2.2100	80.3504
 2.2090	80.3116
 2.2080	80.3168
 2.2070	80.3767
 2.2060	80.3412
 2.2050	80.4137
 2.2040	80.4518
 2.2030	80.4047
 2.2020	80.3602
 2.2010	80.4452
 2.2000	80.5678
 2.1990	80.5034
 2.1980	80.5146
 2.1970	80.5153
 2.1960	80.4540
 2.1950	80.5494
 2.1940	80.5419
 2.1930	80.5715
 2.1920	80.5005
 2.1910	80.5773
 2.1900	80.4945
 2.1890	80.5857
 2.1880	80.5218
 2.1870	80.5613
 2.1860	80.6382
 2.1850	80.5769
 2.1840	80.7136
 2.1830	80.6430
 2.1820	80.7008
 2.1810	80.6237
 2.1800	80.6340
 2.1790	80.7200
 2.1780	80.7592
 2.1770	80.7308
 2.1760	80.7226
 2.1750	80.7457
 2.1740	80.7427
 2.1730	80.7624
 2.1720	80.7730
 2.1710	80.8392
 2.1700	80.8214
 2.1690	80.8431
 2.1680	80.8857
 2.1670	80.8781
 2.1660	80.9646
 2.1650	80.9600
 2.1640	81.0179
 2.1630	81.0287
 2.1620	81.0337
 2.1610	81.1100
 2.1600	81.0041
 2.1590	81.1200
 2.1580	81.0728
 2.1570	81.0809
 2.1560	81.2011
 2.1550	81.1909
 2.1540	81.2043
 2.1530	81.0843
 2.1520	81.0848
 2.1510	81.1851
 2.1500	81.1837
 2.1490	81.1314
 2.1480	81.1892
 2.1470	81.1525
 2.1460	81.0978
 2.1450	81.1719
 2.1440	81.1109
 2.1430	81.1240
 2.1420	81.1270
 2.1410	81.1023
 2.1400	81.1456
 2.1390	81.1281
 2.1380	81.0479
 2.1370	81.0740
 2.1360	81.0844
 2.1350	81.0120
 2.1340	81.0013
 2.1330	80.9712
 2.1320	80.9028
 2.1310	80.8841
 2.1300	80.8388
 2.1290	80.8749
 2.1280	80.7531
 2.1270	80.7235
 2.1260	80.6659
 2.1250	80.6648
 2.1240	80.5664
 2.1230	80.4708
 2.1220	80.4101
 2.1210	80.3698
 2.1200	80.3136
 2.1190	80.3504
 2.1180	80.2109
 2.1170	80.1817
 2.1160	80.1354
 2.1150	80.0516
 2.1140	79.9580
 2.1130	79.9704
 2.1120	79.9998
 2.1110	79.8723
 2.1100	79.8154
 2.1090	79.7893
 2.1080	79.7019
 2.1070	79.6862
 2.1060	79.6922
 2.1050	79.5568
 2.1040	79.4760
 2.1030	79.4614
 2.1020	79.4339
 2.1010	79.3851
 2.1000	79.3049
 2.0990	79.3341
 2.0980	79.3161
 2.0970	79.2916
 2.0960	79.3185
 2.0950	79.3057
 2.0940	79.2872
 2.0930	79.2720
 2.0920	79.2520
 2.0910	79.2826
 2.0900	79.2652
 2.0890	79.2162
 2.0880	79.2311
 2.0870	79.2574
 2.0860	79.2619
 2.0850	79.2335
 2.0840	79.2230
 2.0830	79.2689
 2.0820	79.2538
 2.0810	79.2103
 2.0800	79.2135
 2.0790	79.2304
 2.0780	79.2562
 2.0770	79.2971
 2.0760	79.2595
 2.0750	79.1868
 2.0740	79.1614
 2.0730	79.1805
 2.0720	79.2050
 2.0710	79.1914
 2.0700	79.1932
 2.0690	79.1737
 2.0680	79.1652
 2.0670	79.1839
 2.0660	79.1630
 2.0650	79.1457
 2.0640	79.1616
 2.0630	79.1569
 2.0620	79.1545
 2.0610	79.1090
 2.0600	79.1139
 2.0590	79.1165
 2.0580	79.0945
 2.0570	79.1074
 2.0560	79.0956
 2.0550	79.0702
 2.0540	79.0850
 2.0530	79.0452
 2.0520	78.9805
 2.0510	78.9560
 2.0500	78.9696
 2.0490	78.9699
 2.0480	78.9702
 2.0470	78.9383
 2.0460	78.9093
 2.0450	78.8897
 2.0440	78.8471
 2.0430	78.8546
 2.0420	78.8799
 2.0410	78.8080
 2.0400	78.7048
 2.0390	78.6586
 2.0380	78.6984
 2.0370	78.6334
 2.0360	78.6123
 2.0350	78.5725
 2.0340	78.4832
 2.0330	78.4224
 2.0320	78.4118
 2.0310	78.4232
 2.0300	78.3848
 2.0290	78.3062
 2.0280	78.2593
 2.0270	78.1906
 2.0260	78.1952
 2.0250	78.1940
 2.0240	78.0945
 2.0230	78.0001
 2.0220	77.9401
 2.0210	77.8631
 2.0200	77.8319
 2.0190	77.8243
 2.0180	77.7315
 2.0170	77.6887
 2.0160	77.6127
 2.0150	77.4744
 2.0140	77.4950
 2.0130	77.4352
 2.0120	77.3241
 2.0110	77.3312
 2.0100	77.2363
 2.0090	77.1145
 2.0080	77.0661
 2.0070	77.0471
 2.0060	76.9799
 2.0050	76.8786
 2.0040	76.8335
 2.0030	76.7156
 2.0020	76.6448
 2.0010	76.5287
 2.0000	76.5186
 1.9990	76.3941
 1.9980	76.2873
 1.9970	76.0962
 1.9960	76.0136
 1.9950	75.9315
 1.9940	75.8406
 1.9930	75.6928
 1.9920	75.7853
 1.9910	75.5942
 1.9900	75.4584
 1.9890	75.4407
 1.9880	75.4218
 1.9870	75.2592
 1.9860	75.1242
 1.9850	75.1288
 1.9840	75.0304
 1.9830	74.9451
 1.9820	74.9215
 1.9810	74.8805
 1.9800	74.9471
 1.9790	74.7896
 1.9780	74.8638
 1.9770	74.8406
 1.9760	74.8176
 1.9750	74.7809
 1.9740	74.7966
 1.9730	74.7164
 1.9720	74.7795
 1.9710	74.8185
 1.9700	74.7467
 1.9690	74.7290
 1.9680	74.7438
 1.9670	74.7939
 1.9660	74.7087
 1.9650	74.7345
 1.9640	74.8278
 1.9630	74.7003
 1.9620	74.7702
 1.9610	74.7284
 1.9600	74.7646
 1.9590	74.7520
 1.9580	74.7320
 1.9570	74.7162
 1.9560	74.7304
 1.9550	74.7651
 1.9540	74.7713
 1.9530	74.7668
 1.9520	74.8301
 1.9510	74.8017
 1.9500	74.8304
 1.9490	74.8959
 1.9480	74.9119
 1.9470	74.8666
 1.9460	74.8876
 1.9450	74.8708
 1.9440	75.0196
 1.9430	74.9452
 1.9420	75.0355
 1.9410	75.0140
 1.9400	75.1494
 1.9390	75.1780
 1.9380	75.1444
 1.9370	75.1348
 1.9360	75.2206
 1.9350	75.1450
 1.9340	75.3161
 1.9330	75.3078
 1.9320	75.4809
 1.9310	75.4012
 1.9300	75.5587
 1.9290	75.5671
 1.9280	75.5082
 1.9270	75.7198
 1.9260	75.7492
 1.9250	75.8381
 1.9240	75.8800
 1.9230	75.9855
 1.9220	76.0538
 1.9210	76.1097
 1.9200	76.2344
 1.9190	76.3743
 1.9180	76.4403
 1.9170	76.5480
 1.9160	76.6324
 1.9150	76.7907
 1.9140	76.9449
 1.9130	76.9659
 1.9120	77.1300
 1.9110	77.2706
 1.9100	77.4401
 1.9090	77.5435
 1.9080	77.7034
 1.9070	77.8194
 1.9060	77.9942
 1.9050	78.0829
 1.9040	78.2459
 1.9030	78.4045
 1.9020	78.5494
 1.9010	78.6372
 1.9000	78.7429
 1.8990	78.8535
 1.8980	79.0843
 1.8970	79.1142
 1.8960	79.2584
 1.8950	79.3559
 1.8940	79.5072
 1.8930	79.5627
 1.8920	79.7392
 1.8910	79.7326
 1.8900	79.8238
 1.8890	79.9226
 1.8880	79.9380
 1.8870	80.1038
 1.8860	80.1501
 1.8850	80.2019
 1.8840	80.2924
 1.8830	80.3292
 1.8820	80.3795
 1.8810	80.4376
 1.8800	80.4822
 1.8790	80.4242
 1.8780	80.5533
 1.8770	80.5848
 1.8760	80.5638
 1.8750	80.6054
 1.8740	80.7029
 1.8730	80.6149
 1.8720	80.6658
 1.8710	80.7114
 1.8700	80.7462
 1.8690	80.7293
 1.8680	80.7039
 1.8670	80.6796
 1.8660	80.7658
 1.8650	80.9040
 1.8640	80.8942
 1.8630	80.8120
 1.8620	80.8758
 1.8610	80.9154
 1.8600	80.8914
 1.8590	80.9603
 1.8580	80.9067
 1.8570	80.8848
 1.8560	80.9371
 1.8550	80.9306
 1.8540	80.9331
 1.8530	80.9586
 1.8520	80.9751
 1.8510	80.9924
 1.8500	80.9766
 1.8490	80.9374
 1.8480	80.9470
 1.8470	80.9341
 1.8460	80.9487
 1.8450	80.9753
 1.8440	80.9800
 1.8430	81.0591
 1.8420	81.0032
 1.8410	80.9573
 1.8400	80.9117
 1.8390	80.9284
 1.8380	80.9162
 1.8370	80.9006
 1.8360	80.8811
 1.8350	80.9503
 1.8340	80.8880
 1.8330	80.8976
 1.8320	80.9409
 1.8310	80.9498
 1.8300	80.9072
 1.8290	80.8592
 1.8280	80.8851
 1.8270	80.9020
 1.8260	80.9160
 1.8250	80.9202
 1.8240	80.9349
 1.8230	80.8964
 1.8220	80.9387
 1.8210	80.9583
 1.8200	80.8672
 1.8190	80.8504
 1.8180	80.8876
 1.8170	80.9155
 1.8160	80.9419
 1.8150	80.9488
 1.8140	80.9274
 1.8130	80.8852
 1.8120	80.8586
 1.8110	80.8920
 1.8100	80.8989
 1.8090	80.8867
 1.8080	80.9251
 1.8070	80.9179
 1.8060	80.9246
 1.8050	80.9576
 1.8040	80.9518
 1.8030	80.9270
 1.8020	80.9119
 1.8010	80.9472
 1.8000	80.9618
 1.7990	80.8936
 1.7980	80.9034
 1.7970	80.9505
 1.7960	80.9762
 1.7950	80.9432
 1.7940	80.8948
 1.7930	80.9083
 1.7920	80.8877
 1.7910	80.8898
 1.7900	80.9204
 1.7890	80.9225
 1.7880	80.8758
 1.7870	80.8694
 1.7860	80.9141
 1.7850	80.8722
 1.7840	80.8503
 1.7830	80.8540
 1.7820	80.8345
 1.7810	80.8490
 1.7800	80.8020
 1.7790	80.7701
 1.7780	80.7838
 1.7770	80.8442
 1.7760	80.8631
 1.7750	80.8233
 1.7740	80.8279
 1.7730	80.7858
 1.7720	80.7928
 1.7710	80.8075
 1.7700	80.7880
 1.7690	80.7462
 1.7680	80.7802
 1.7670	80.8355
 1.7660	80.7800
 1.7650	80.7895
 1.7640	80.8138
 1.7630	80.7844
 1.7620	80.8257
 1.7610	80.8062
 1.7600	80.7926
 1.7590	80.7380
 1.7580	80.7620
 1.7570	80.7800
 1.7560	80.8120
 1.7550	80.8098
 1.7540	80.8021
 1.7530	80.8246
 1.7520	80.7792
 1.7510	80.7980
 1.7500	80.8142
 1.7490	80.7969
 1.7480	80.8660
 1.7470	80.8754
 1.7460	80.8750
 1.7450	80.8851
 1.7440	80.8606
 1.7430	80.8513
 1.7420	80.8683
 1.7410	80.9096
 1.7400	80.8727
 1.7390	80.8846
 1.7380	80.8948
 1.7370	80.8730
 1.7360	80.8530
 1.7350	80.8951
 1.7340	80.8853
 1.7330	80.8643
 1.7320	80.9251
 1.7310	80.9925
 1.7300	80.9395
 1.7290	80.9534
 1.7280	80.9562
 1.7270	80.9607
 1.7260	80.9465
 1.7250	80.9076
 1.7240	80.9522
 1.7230	80.9632
 1.7220	80.8967
 1.7210	80.9088
 1.7200	80.9230
 1.7190	80.9667
 1.7180	80.9972
 1.7170	80.9207
 1.7160	80.9577
 1.7150	80.9366
 1.7140	80.8924
 1.7130	80.9223
 1.7120	80.9367
 1.7110	80.9340
 1.7100	80.9161
 1.7090	80.9788
 1.7080	80.9120
 1.7070	80.8894
 1.7060	80.8847
 1.7050	80.9731
 1.7040	80.8913
 1.7030	80.8674
 1.7020	80.9123
 1.7010	80.8758
 1.7000	80.8703
 1.6990	80.8217
 1.6980	80.8269
 1.6970	80.7780
 1.6960	80.7868
 1.6950	80.8770
 1.6940	80.8911
 1.6930	80.9246
 1.6920	80.8251
 1.6910	80.7797
 1.6900	80.8009
 1.6890	80.8958
 1.6880	80.8427
 1.6870	80.9345
 1.6860	80.7806
 1.6850	80.8358
 1.6840	80.7738
 1.6830	80.8555
 1.6820	80.7648
 1.6810	80.8426
 1.6800	80.8920
 1.6790	80.8221
 1.6780	80.7835
 1.6770	80.8154
 1.6760	80.7702
 1.6750	80.7757
 1.6740	80.7282
 1.6730	80.8294
 1.6720	80.7496
 1.6710	80.7696
 1.6700	80.7641
 1.6690	80.7543
 1.6680	80.7674
 1.6670	80.7670
 1.6660	80.7667
 1.6650	80.7797
 1.6640	80.7768
 1.6630	80.7511
 1.6620	80.7099
 1.6610	80.7805
 1.6600	80.7964
 1.6590	80.7263
 1.6580	80.7403
 1.6570	80.7198
 1.6560	80.8034
 1.6550	80.6612
 1.6540	80.7625
 1.6530	80.7629
 1.6520	80.6523
 1.6510	80.6676
 1.6500	80.7333
 1.6490	80.7281
 1.6480	80.7274
 1.6470	80.7443
 1.6460	80.6422
 1.6450	80.7320
 1.6440	80.6112
 1.6430	80.6435
 1.6420	80.6368
 1.6410	80.7009
 1.6400	80.6028
 1.6390	80.6519
 1.6380	80.6651
 1.6370	80.7032
 1.6360	80.5903
 1.6350	80.5462
 1.6340	80.6233
 1.6330	80.6670
 1.6320	80.6142
 1.6310	80.6117
 1.6300	80.5536
 1.6290	80.6406
 1.6280	80.5132
 1.6270	80.5204
 1.6260	80.6001
 1.6250	80.6348
 1.6240	80.5539
 1.6230	80.6812
 1.6220	80.5926
 1.6210	80.6285
 1.6200	80.5528
 1.6190	80.6005
 1.6180	80.5211
 1.6170	80.5369
 1.6160	80.5225
 1.6150	80.6015
 1.6140	80.5143
 1.6130	80.5545
 1.6120	80.5509
 1.6110	80.5828
 1.6100	80.5844
 1.6090	80.5130
 1.6080	80.4651
 1.6070	80.6073
 1.6060	80.5264
 1.6050	80.4574
 1.6040	80.5093
 1.6030	80.5375
 1.6020	80.5031
 1.6010	80.5093
 1.6000	80.4774
 1.5990	80.5433
 1.5980	80.4903
 1.5970	80.5397
 1.5960	80.5056
 1.5950	80.4657
 1.5940	80.5051
 1.5930	80.5195
 1.5920	80.5092
 1.5910	80.4887
 1.5900	80.4215
 1.5890	80.4355
 1.5880	80.4100
 1.5870	80.4529
 1.5860	80.3502
 1.5850	80.3315
 1.5840	80.4176
 1.5830	80.4137
 1.5820	80.3522
 1.5810	80.3657
 1.5800	80.4282
 1.5790	80.3937
 1.5780	80.3329
 1.5770	80.2617
 1.5760	80.2814
 1.5750	80.2871
 1.5740	80.3242
 1.5730	80.2930
 1.5720	80.2695
 1.5710	80.2817
 1.5700	80.2554
 1.5690	80.2659
 1.5680	80.2512
 1.5670	80.2295
 1.5660	80.1936
 1.5650	80.2473
 1.5640	80.2782
 1.5630	80.2574
 1.5620	80.1642
 1.5610	80.2177
 1.5600	80.2033
 1.5590	80.1426
 1.5580	80.1212
 1.5570	80.1667
 1.5560	80.1615
 1.5550	80.1560
 1.5540	80.1002
 1.5530	80.1029
 1.5520	80.1438
 1.5510	80.0859
 1.5500	80.0886
 1.5490	80.0721
 1.5480	80.0515
 1.5470	80.1115
 1.5460	80.0532
 1.5450	80.0206
 1.5440	80.0215
 1.5430	80.0017
 1.5420	80.0267
 1.5410	80.0389
 1.5400	79.9698
 1.5390	79.9199
 1.5380	79.9268
 1.5370	79.9540
 1.5360	79.9279
 1.5350	79.9195
 1.5340	79.8739
 1.5330	79.8766
 1.5320	79.8580
 1.5310	79.8448
 1.5300	79.8327
 1.5290	79.8318
 1.5280	79.8109
 1.5270	79.8358
 1.5260	79.8244
 1.5250	79.8007
 1.5240	79.7778
 1.5230	79.7300
 1.5220	79.6912
 1.5210	79.7006
 1.5200	79.6446
 1.5190	79.6989
 1.5180	79.7156
 1.5170	79.6826
 1.5160	79.6598
 1.5150	79.6311
 1.5140	79.5977
 1.5130	79.6131
 1.5120	79.5959
 1.5110	79.6115
 1.5100	79.6082
 1.5090	79.5870
 1.5080	79.5714
 1.5070	79.4998
 1.5060	79.5132
 1.5050	79.5424
 1.5040	79.5048
 1.5030	79.4833
 1.5020	79.4299
 1.5010	79.4334
 1.5000	79.4805
 1.4990	79.4446
 1.4980	79.3973
 1.4970	79.3730
 1.4960	79.3251
 1.4950	79.3058
 1.4940	79.3296
 1.4930	79.2965
 1.4920	79.2489
 1.4910	79.2416
 1.4900	79.2403
 1.4890	79.2581
 1.4880	79.1715
 1.4870	79.0926
 1.4860	79.1191
 1.4850	79.1525
 1.4840	79.1285
 1.4830	79.1208
 1.4820	79.0816
 1.4810	79.0088
 1.4800	79.0525
 1.4790	79.0716
 1.4780	79.0328
 1.4770	78.9899
 1.4760	79.0361
 1.4750	79.0046
 1.4740	78.8914
 1.4730	78.8537
 1.4720	78.8860
 1.4710	78.9112
 1.4700	78.8717
 1.4690	78.8572
 1.4680	78.8600
 1.4670	78.8404
 1.4660	78.8334
 1.4650	78.7877
 1.4640	78.7764
 1.4630	78.7789
 1.4620	78.7821
 1.4610	78.7354
 1.4600	78.7583
 1.4590	78.7372
 1.4580	78.7469
 1.4570	78.7100
 1.4560	78.6900
 1.4550	78.7371
 1.4540	78.7248
 1.4530	78.7003
 1.4520	78.6975
 1.4510	78.7588
 1.4500	78.8212
 1.4490	78.7673
 1.4480	78.7686
 1.4470	78.8384
 1.4460	78.8488
 1.4450	78.8126
 1.4440	78.7851
 1.4430	78.8160
 1.4420	78.8854
 1.4410	78.8839
 1.4400	78.8491
 1.4390	78.8458
 1.4380	78.8908
 1.4370	78.9075
 1.4360	78.9376
 1.4350	78.8951
 1.4340	78.9114
 1.4330	78.9213
 1.4320	78.9721
 1.4310	78.9555
 1.4300	79.0525
 1.4290	79.0161
 1.4280	79.0347
 1.4270	79.0465
 1.4260	79.0996
 1.4250	79.0733
 1.4240	79.0971
 1.4230	79.0936
 1.4220	79.1621
 1.4210	79.1857
 1.4200	79.2044
 1.4190	79.2277
 1.4180	79.2377
 1.4170	79.2443
 1.4160	79.2920
 1.4150	79.3293
 1.4140	79.3534
 1.4130	79.2962
 1.4120	79.3541
 1.4110	79.4174
 1.4100	79.4009
 1.4090	79.4058
 1.4080	79.4764
 1.4070	79.5009
 1.4060	79.5072
 1.4050	79.5630
 1.4040	79.6054
 1.4030	79.6411
 1.4020	79.5938
 1.4010	79.6113
 1.4000	79.6166
 1.3990	79.5647
 1.3980	79.7150
 1.3970	79.7161
 1.3960	79.8318
 1.3950	79.6914
 1.3940	79.7571
 1.3930	79.6904
 1.3920	79.8298
 1.3910	79.8766
 1.3900	79.9069
 1.3890	79.8599
 1.3880	79.8926
 1.3870	79.9071
 1.3860	79.8695
 1.3850	79.8063
 1.3840	79.9537
 1.3830	79.8746
 1.3820	79.8761
 1.3810	79.7683
 1.3800	79.8530
 1.3790	79.8269
 1.3780	79.9362
 1.3770	79.8954
 1.3760	79.7751
 1.3750	79.8437
 1.3740	79.8774
 1.3730	79.8476
 1.3720	79.8979
 1.3710	79.8244
 1.3700	79.8474
 1.3690	79.8337
 1.3680	79.8518
 1.3670	79.8809
 1.3660	79.8312
 1.3650	79.8737
 1.3640	79.8560
