Name: Aphthitalite (K,Na)_3Na(SO_4)_2
Type: Mineral
Class: Sulfate
Subclass: None
Particle Size: Medium
Sample No.: SO-9A
Owner: JPL
Wavelength Range: VSWIR
Origin: USA, California, San Bernadino County, Searles Lake.
Collection Date: N/A
Description: Particle size was 45-125um. Collected by:  Burminco Original ASTER Spectral Library name was jpl.perkin.mineral.sulfate.none.medium.so09a.spectrum.txt
Measurement: Hemispherical reflectance
First Column: X
Second Column: Y
X Units: Wavelength (micrometers)
Y Units:Reflectance (percent)
First X Value:  2.5000
Last X Value:  0.4000
Number of X Values: 2101
Additional Information: mineral.sulfate.none.medium.vswir.so-9a.jpl.perkin.ancillary.txt

 2.5000	80.0960
 2.4990	79.9234
 2.4980	80.2173
 2.4970	79.9471
 2.4960	79.8414
 2.4950	80.0515
 2.4940	79.8593
 2.4930	79.8179
 2.4920	79.9733
 2.4910	80.0258
 2.4900	80.0582
 2.4890	79.9442
 2.4880	79.9095
 2.4870	80.0962
 2.4860	80.0797
 2.4850	80.0797
 2.4840	80.0746
 2.4830	80.0725
 2.4820	80.0481
 2.4810	80.1512
 2.4800	80.1775
 2.4790	80.2696
 2.4780	80.2705
 2.4770	80.1482
 2.4760	80.2168
 2.4750	80.1828
 2.4740	80.3098
 2.4730	80.3522
 2.4720	80.4099
 2.4710	80.4973
 2.4700	80.5621
 2.4690	80.4298
 2.4680	80.4079
 2.4670	80.3021
 2.4660	80.4539
 2.4650	80.4226
 2.4640	80.4190
 2.4630	80.4765
 2.4620	80.4251
 2.4610	80.5138
 2.4600	80.5417
 2.4590	80.5597
 2.4580	80.5956
 2.4570	80.7570
 2.4560	80.6301
 2.4550	80.6170
 2.4540	80.6910
 2.4530	80.8443
 2.4520	80.7889
 2.4510	80.7304
 2.4500	80.8788
 2.4490	80.7252
 2.4480	80.7660
 2.4470	80.8861
 2.4460	80.7771
 2.4450	80.8825
 2.4440	80.9419
 2.4430	80.8894
 2.4420	80.9818
 2.4410	81.0064
 2.4400	80.9323
 2.4390	80.9218
 2.4380	80.9983
 2.4370	81.0091
 2.4360	80.9930
 2.4350	80.9573
 2.4340	81.0166
 2.4330	81.0411
 2.4320	81.1071
 2.4310	81.1036
 2.4300	81.1101
 2.4290	81.1086
 2.4280	81.1658
 2.4270	81.2169
 2.4260	81.0660
 2.4250	81.1349
 2.4240	81.2548
 2.4230	81.2352
 2.4220	81.2600
 2.4210	81.3500
 2.4200	81.3639
 2.4190	81.3538
 2.4180	81.3434
 2.4170	81.3733
 2.4160	81.4544
 2.4150	81.4488
 2.4140	81.3990
 2.4130	81.4485
 2.4120	81.4565
 2.4110	81.5369
 2.4100	81.5640
 2.4090	81.5638
 2.4080	81.5559
 2.4070	81.5201
 2.4060	81.4910
 2.4050	81.5589
 2.4040	81.6017
 2.4030	81.6542
 2.4020	81.6639
 2.4010	81.6550
 2.4000	81.6485
 2.3990	81.7804
 2.3980	81.8085
 2.3970	81.8046
 2.3960	81.7911
 2.3950	81.8285
 2.3940	81.8530
 2.3930	81.9347
 2.3920	82.0321
 2.3910	81.9794
 2.3900	81.9561
 2.3890	82.0415
 2.3880	82.1209
 2.3870	82.0741
 2.3860	82.1472
 2.3850	82.1712
 2.3840	82.2655
 2.3830	82.2920
 2.3820	82.2599
 2.3810	82.2770
 2.3800	82.2886
 2.3790	82.3552
 2.3780	82.3584
 2.3770	82.3854
 2.3760	82.4830
 2.3750	82.4776
 2.3740	82.5141
 2.3730	82.6372
 2.3720	82.6585
 2.3710	82.6838
 2.3700	82.7352
 2.3690	82.7773
 2.3680	82.7536
 2.3670	82.7571
 2.3660	82.7767
 2.3650	82.7842
 2.3640	82.8756
 2.3630	82.9427
 2.3620	82.9807
 2.3610	83.0057
 2.3600	82.9863
 2.3590	82.9531
 2.3580	83.0046
 2.3570	83.0396
 2.3560	83.0506
 2.3550	83.0926
 2.3540	83.1463
 2.3530	83.1655
 2.3520	83.1955
 2.3510	83.2895
 2.3500	83.2699
 2.3490	83.2286
 2.3480	83.2638
 2.3470	83.2697
 2.3460	83.2917
 2.3450	83.3231
 2.3440	83.3160
 2.3430	83.2891
 2.3420	83.3148
 2.3410	83.3904
 2.3400	83.4348
 2.3390	83.4618
 2.3380	83.4326
 2.3370	83.4026
 2.3360	83.4371
 2.3350	83.4381
 2.3340	83.4284
 2.3330	83.4698
 2.3320	83.4393
 2.3310	83.4695
 2.3300	83.4876
 2.3290	83.4794
 2.3280	83.4604
 2.3270	83.4385
 2.3260	83.4406
 2.3250	83.4274
 2.3240	83.4558
 2.3230	83.4645
 2.3220	83.4043
 2.3210	83.4579
 2.3200	83.5063
 2.3190	83.4482
 2.3180	83.4799
 2.3170	83.5052
 2.3160	83.5044
 2.3150	83.4518
 2.3140	83.4880
 2.3130	83.5092
 2.3120	83.4881
 2.3110	83.4643
 2.3100	83.5130
 2.3090	83.5045
 2.3080	83.4735
 2.3070	83.5371
 2.3060	83.5061
 2.3050	83.5183
 2.3040	83.6052
 2.3030	83.5456
 2.3020	83.5536
 2.3010	83.5920
 2.3000	83.5969
 2.2990	83.5937
 2.2980	83.6129
 2.2970	83.5996
 2.2960	83.5947
 2.2950	83.7066
 2.2940	83.6495
 2.2930	83.6532
 2.2920	83.5690
 2.2910	83.6202
 2.2900	83.5877
 2.2890	83.6376
 2.2880	83.6588
 2.2870	83.6836
 2.2860	83.6096
 2.2850	83.6074
 2.2840	83.7623
 2.2830	83.7223
 2.2820	83.6564
 2.2810	83.6565
 2.2800	83.7390
 2.2790	83.6730
 2.2780	83.7160
 2.2770	83.6553
 2.2760	83.7139
 2.2750	83.7490
 2.2740	83.7543
 2.2730	83.7343
 2.2720	83.7580
 2.2710	83.7132
 2.2700	83.6892
 2.2690	83.7061
 2.2680	83.7296
 2.2670	83.6999
 2.2660	83.7918
 2.2650	83.7442
 2.2640	83.7389
 2.2630	83.6990
 2.2620	83.6085
 2.2610	83.6907
 2.2600	83.8060
 2.2590	83.7664
 2.2580	83.7177
 2.2570	83.7756
 2.2560	83.6947
 2.2550	83.8178
 2.2540	83.7325
 2.2530	83.7384
 2.2520	83.6906
 2.2510	83.7129
 2.2500	83.7842
 2.2490	83.7837
 2.2480	83.8308
 2.2470	83.8147
 2.2460	83.9004
 2.2450	83.7910
 2.2440	83.7981
 2.2430	83.8189
 2.2420	83.8329
 2.2410	83.7952
 2.2400	83.7880
 2.2390	83.8307
 2.2380	83.7158
 2.2370	83.8138
 2.2360	83.9455
 2.2350	83.8028
 2.2340	83.8574
 2.2330	83.8848
 2.2320	83.7904
 2.2310	83.8431
 2.2300	83.8216
 2.2290	83.7370
 2.2280	83.8013
 2.2270	83.8749
 2.2260	83.8217
 2.2250	83.8906
 2.2240	83.8523
 2.2230	83.8066
 2.2220	83.8621
 2.2210	83.8465
 2.2200	83.9864
 2.2190	83.8191
 2.2180	83.8643
 2.2170	83.9147
 2.2160	83.9452
 2.2150	83.9699
 2.2140	83.9908
 2.2130	84.0422
 2.2120	84.0267
 2.2110	84.0823
 2.2100	84.1102
 2.2090	84.1867
 2.2080	84.1748
 2.2070	84.2055
 2.2060	84.1867
 2.2050	84.2819
 2.2040	84.2610
 2.2030	84.2481
 2.2020	84.3093
 2.2010	84.3539
 2.2000	84.3770
 2.1990	84.3940
 2.1980	84.4089
 2.1970	84.4088
 2.1960	84.4120
 2.1950	84.4335
 2.1940	84.4361
 2.1930	84.4788
 2.1920	84.4868
 2.1910	84.4788
 2.1900	84.4489
 2.1890	84.3778
 2.1880	84.4811
 2.1870	84.5218
 2.1860	84.4779
 2.1850	84.4742
 2.1840	84.5064
 2.1830	84.5199
 2.1820	84.5389
 2.1810	84.5568
 2.1800	84.6320
 2.1790	84.6569
 2.1780	84.7929
 2.1770	84.7168
 2.1760	84.7404
 2.1750	84.7584
 2.1740	84.7081
 2.1730	84.7711
 2.1720	84.6952
 2.1710	84.7296
 2.1700	84.7664
 2.1690	84.8185
 2.1680	84.9150
 2.1670	84.8536
 2.1660	84.8820
 2.1650	84.8341
 2.1640	84.8942
 2.1630	84.8821
 2.1620	85.0119
 2.1610	85.0325
 2.1600	84.9815
 2.1590	84.9956
 2.1580	85.0574
 2.1570	85.0278
 2.1560	85.0465
 2.1550	85.0786
 2.1540	85.0858
 2.1530	85.0080
 2.1520	85.0601
 2.1510	85.0996
 2.1500	85.1214
 2.1490	85.0951
 2.1480	85.0704
 2.1470	85.0518
 2.1460	85.0758
 2.1450	85.1023
 2.1440	85.1379
 2.1430	85.1352
 2.1420	85.1124
 2.1410	85.1680
 2.1400	85.0730
 2.1390	85.0675
 2.1380	85.0616
 2.1370	85.0542
 2.1360	85.0820
 2.1350	85.0441
 2.1340	85.0218
 2.1330	84.9699
 2.1320	84.8753
 2.1310	84.8958
 2.1300	84.8947
 2.1290	84.8219
 2.1280	84.8640
 2.1270	84.8019
 2.1260	84.7511
 2.1250	84.6697
 2.1240	84.7011
 2.1230	84.6606
 2.1220	84.5698
 2.1210	84.5168
 2.1200	84.4752
 2.1190	84.4768
 2.1180	84.3711
 2.1170	84.3287
 2.1160	84.2829
 2.1150	84.2599
 2.1140	84.2144
 2.1130	84.1202
 2.1120	84.0944
 2.1110	84.0409
 2.1100	83.9397
 2.1090	83.9054
 2.1080	83.8732
 2.1070	83.8403
 2.1060	83.8105
 2.1050	83.7138
 2.1040	83.6618
 2.1030	83.5910
 2.1020	83.5827
 2.1010	83.5198
 2.1000	83.4665
 2.0990	83.4253
 2.0980	83.4273
 2.0970	83.4785
 2.0960	83.4792
 2.0950	83.4450
 2.0940	83.4297
 2.0930	83.4533
 2.0920	83.4536
 2.0910	83.4833
 2.0900	83.4957
 2.0890	83.5111
 2.0880	83.5387
 2.0870	83.5107
 2.0860	83.4882
 2.0850	83.4683
 2.0840	83.5000
 2.0830	83.4532
 2.0820	83.4291
 2.0810	83.5370
 2.0800	83.5536
 2.0790	83.5366
 2.0780	83.5390
 2.0770	83.5647
 2.0760	83.5235
 2.0750	83.4725
 2.0740	83.4914
 2.0730	83.4436
 2.0720	83.4121
 2.0710	83.5094
 2.0700	83.5724
 2.0690	83.5192
 2.0680	83.4648
 2.0670	83.4946
 2.0660	83.5365
 2.0650	83.4863
 2.0640	83.4859
 2.0630	83.5434
 2.0620	83.5360
 2.0610	83.5281
 2.0600	83.5391
 2.0590	83.5353
 2.0580	83.4839
 2.0570	83.4446
 2.0560	83.4861
 2.0550	83.4826
 2.0540	83.5220
 2.0530	83.5450
 2.0520	83.5274
 2.0510	83.5222
 2.0500	83.5299
 2.0490	83.5582
 2.0480	83.5413
 2.0470	83.5369
 2.0460	83.5256
 2.0450	83.5717
 2.0440	83.5815
 2.0430	83.5392
 2.0420	83.5726
 2.0410	83.6165
 2.0400	83.5778
 2.0390	83.5272
 2.0380	83.5708
 2.0370	83.5836
 2.0360	83.6255
 2.0350	83.6184
 2.0340	83.6027
 2.0330	83.6014
 2.0320	83.6187
 2.0310	83.6538
 2.0300	83.6592
 2.0290	83.6227
 2.0280	83.6464
 2.0270	83.6726
 2.0260	83.7022
 2.0250	83.6386
 2.0240	83.6581
 2.0230	83.6611
 2.0220	83.6763
 2.0210	83.6974
 2.0200	83.6815
 2.0190	83.6842
 2.0180	83.6674
 2.0170	83.6913
 2.0160	83.6849
 2.0150	83.7248
 2.0140	83.7199
 2.0130	83.6748
 2.0120	83.7461
 2.0110	83.7544
 2.0100	83.7438
 2.0090	83.7712
 2.0080	83.7402
 2.0070	83.7058
 2.0060	83.6959
 2.0050	83.7472
 2.0040	83.7500
 2.0030	83.7529
 2.0020	83.7877
 2.0010	83.8103
 2.0000	83.7665
 1.9990	83.6564
 1.9980	83.6496
 1.9970	83.6251
 1.9960	83.6857
 1.9950	83.5933
 1.9940	83.6526
 1.9930	83.6046
 1.9920	83.5611
 1.9910	83.5078
 1.9900	83.5436
 1.9890	83.5037
 1.9880	83.4483
 1.9870	83.4652
 1.9860	83.4790
 1.9850	83.4597
 1.9840	83.3473
 1.9830	83.3551
 1.9820	83.2911
 1.9810	83.2807
 1.9800	83.2692
 1.9790	83.2674
 1.9780	83.1985
 1.9770	83.1811
 1.9760	83.1880
 1.9750	83.1160
 1.9740	83.1234
 1.9730	83.1015
 1.9720	83.0546
 1.9710	83.0579
 1.9700	82.9817
 1.9690	83.0254
 1.9680	82.9394
 1.9670	82.9398
 1.9660	82.8523
 1.9650	82.7782
 1.9640	82.8008
 1.9630	82.8101
 1.9620	82.7172
 1.9610	82.6680
 1.9600	82.6488
 1.9590	82.5775
 1.9580	82.5594
 1.9570	82.5552
 1.9560	82.5295
 1.9550	82.4250
 1.9540	82.4932
 1.9530	82.3746
 1.9520	82.3421
 1.9510	82.3242
 1.9500	82.2554
 1.9490	82.2574
 1.9480	82.2623
 1.9470	82.2801
 1.9460	82.1263
 1.9450	82.2092
 1.9440	82.1682
 1.9430	82.1909
 1.9420	82.2427
 1.9410	82.2766
 1.9400	82.3075
 1.9390	82.3063
 1.9380	82.2875
 1.9370	82.3183
 1.9360	82.2931
 1.9350	82.3323
 1.9340	82.3676
 1.9330	82.5025
 1.9320	82.4572
 1.9310	82.5405
 1.9300	82.5163
 1.9290	82.6643
 1.9280	82.7589
 1.9270	82.8125
 1.9260	82.8563
 1.9250	82.8789
 1.9240	82.9368
 1.9230	83.1282
 1.9220	83.1679
 1.9210	83.2258
 1.9200	83.2455
 1.9190	83.3252
 1.9180	83.4016
 1.9170	83.5508
 1.9160	83.5313
 1.9150	83.6407
 1.9140	83.7514
 1.9130	83.8511
 1.9120	83.9067
 1.9110	83.9913
 1.9100	84.0105
 1.9090	84.1300
 1.9080	84.1683
 1.9070	84.2573
 1.9060	84.3221
 1.9050	84.5146
 1.9040	84.5396
 1.9030	84.6590
 1.9020	84.7652
 1.9010	84.8288
 1.9000	84.9469
 1.8990	85.0514
 1.8980	85.0498
 1.8970	85.2403
 1.8960	85.3113
 1.8950	85.3899
 1.8940	85.6340
 1.8930	85.5310
 1.8920	85.6008
 1.8910	85.7116
 1.8900	85.7106
 1.8890	85.7884
 1.8880	85.8498
 1.8870	85.9140
 1.8860	86.0373
 1.8850	86.0985
 1.8840	86.1673
 1.8830	86.1742
 1.8820	86.2659
 1.8810	86.2370
 1.8800	86.2452
 1.8790	86.2964
 1.8780	86.3509
 1.8770	86.3406
 1.8760	86.4179
 1.8750	86.4342
 1.8740	86.4772
 1.8730	86.5023
 1.8720	86.4841
 1.8710	86.5558
 1.8700	86.5709
 1.8690	86.5929
 1.8680	86.5809
 1.8670	86.6490
 1.8660	86.6699
 1.8650	86.7104
 1.8640	86.6571
 1.8630	86.6922
 1.8620	86.6427
 1.8610	86.6711
 1.8600	86.6103
 1.8590	86.6819
 1.8580	86.7191
 1.8570	86.8784
 1.8560	86.7927
 1.8550	86.7826
 1.8540	86.8063
 1.8530	86.8196
 1.8520	86.8547
 1.8510	86.8667
 1.8500	86.8877
 1.8490	86.9258
 1.8480	86.8772
 1.8470	86.9258
 1.8460	86.9408
 1.8450	86.9584
 1.8440	86.9066
 1.8430	86.9231
 1.8420	86.9285
 1.8410	86.8930
 1.8400	86.8950
 1.8390	86.9140
 1.8380	86.9204
 1.8370	86.9369
 1.8360	86.9123
 1.8350	86.9452
 1.8340	86.9717
 1.8330	86.9996
 1.8320	86.9785
 1.8310	86.9542
 1.8300	86.9729
 1.8290	86.9782
 1.8280	86.9636
 1.8270	86.9403
 1.8260	86.9736
 1.8250	87.0089
 1.8240	86.9974
 1.8230	87.0165
 1.8220	87.0587
 1.8210	86.9991
 1.8200	86.9846
 1.8190	87.0528
 1.8180	86.9976
 1.8170	86.9696
 1.8160	86.9574
 1.8150	86.9830
 1.8140	86.9968
 1.8130	87.0532
 1.8120	87.0520
 1.8110	87.0693
 1.8100	87.0773
 1.8090	87.0474
 1.8080	87.0060
 1.8070	87.0597
 1.8060	87.1111
 1.8050	87.0688
 1.8040	87.0137
 1.8030	87.0454
 1.8020	87.1016
 1.8010	87.1209
 1.8000	87.1276
 1.7990	87.1235
 1.7980	87.0754
 1.7970	87.0531
 1.7960	87.0812
 1.7950	87.1340
 1.7940	87.1372
 1.7930	87.0624
 1.7920	87.0616
 1.7910	87.0941
 1.7900	87.1120
 1.7890	87.1930
 1.7880	87.1531
 1.7870	87.0955
 1.7860	87.1034
 1.7850	87.1567
 1.7840	87.0772
 1.7830	87.0130
 1.7820	87.0574
 1.7810	87.0551
 1.7800	87.0902
 1.7790	87.0712
 1.7780	87.0659
 1.7770	87.0895
 1.7760	87.0958
 1.7750	87.1473
 1.7740	87.1769
 1.7730	87.1915
 1.7720	87.1004
 1.7710	87.0123
 1.7700	87.0561
 1.7690	87.0632
 1.7680	87.0569
 1.7670	87.0746
 1.7660	87.1012
 1.7650	87.1110
 1.7640	87.1026
 1.7630	87.1107
 1.7620	87.0794
 1.7610	87.1043
 1.7600	87.1406
 1.7590	87.1207
 1.7580	87.0711
 1.7570	87.0905
 1.7560	87.1235
 1.7550	87.1476
 1.7540	87.1113
 1.7530	87.1079
 1.7520	87.1003
 1.7510	87.1180
 1.7500	87.1334
 1.7490	87.1241
 1.7480	87.1405
 1.7470	87.1537
 1.7460	87.1778
 1.7450	87.1784
 1.7440	87.1966
 1.7430	87.2122
 1.7420	87.1661
 1.7410	87.1700
 1.7400	87.1869
 1.7390	87.2840
 1.7380	87.2558
 1.7370	87.1696
 1.7360	87.3188
 1.7350	87.2329
 1.7340	87.2342
 1.7330	87.3605
 1.7320	87.2767
 1.7310	87.2275
 1.7300	87.8854
 1.7290	87.5318
 1.7280	87.2630
 1.7270	87.2106
 1.7260	87.3164
 1.7250	87.3325
 1.7240	87.2630
 1.7230	87.2499
 1.7220	87.3458
 1.7210	87.3394
 1.7200	87.2981
 1.7190	87.3098
 1.7180	87.3847
 1.7170	87.3626
 1.7160	87.3170
 1.7150	87.3418
 1.7140	87.3698
 1.7130	87.3757
 1.7120	87.3358
 1.7110	87.3308
 1.7100	87.3539
 1.7090	87.3681
 1.7080	87.3856
 1.7070	87.3922
 1.7060	87.3975
 1.7050	87.3735
 1.7040	87.3596
 1.7030	87.3600
 1.7020	87.3651
 1.7010	87.3372
 1.7000	87.3580
 1.6990	87.3743
 1.6980	87.3482
 1.6970	87.3418
 1.6960	87.4155
 1.6950	87.4255
 1.6940	87.3680
 1.6930	87.3384
 1.6920	87.3236
 1.6910	87.4044
 1.6900	87.4008
 1.6890	87.3345
 1.6880	87.4038
 1.6870	87.4770
 1.6860	87.4727
 1.6850	87.4137
 1.6840	87.4911
 1.6830	87.3826
 1.6820	87.3502
 1.6810	87.3535
 1.6800	87.4465
 1.6790	87.5104
 1.6780	87.4041
 1.6770	87.4766
 1.6760	87.4506
 1.6750	87.3871
 1.6740	87.5090
 1.6730	87.4793
 1.6720	87.4643
 1.6710	87.4556
 1.6700	87.4354
 1.6690	87.5777
 1.6680	87.5678
 1.6670	87.5577
 1.6660	87.5392
 1.6650	87.4751
 1.6640	87.3883
 1.6630	87.5240
 1.6620	87.5619
 1.6610	87.5052
 1.6600	87.6043
 1.6590	87.6238
 1.6580	87.5648
 1.6570	87.5075
 1.6560	87.4806
 1.6550	87.5784
 1.6540	87.5482
 1.6530	87.5663
 1.6520	87.5561
 1.6510	87.5036
 1.6500	87.6350
 1.6490	87.5713
 1.6480	87.5764
 1.6470	87.5533
 1.6460	87.7014
 1.6450	87.6365
 1.6440	87.6471
 1.6430	87.6271
 1.6420	87.7371
 1.6410	87.5069
 1.6400	87.6420
 1.6390	87.5941
 1.6380	87.6005
 1.6370	87.6775
 1.6360	87.7127
 1.6350	87.6440
 1.6340	87.6377
 1.6330	87.6030
 1.6320	87.6687
 1.6310	87.7019
 1.6300	87.6298
 1.6290	87.5518
 1.6280	87.7413
 1.6270	87.6329
 1.6260	87.6507
 1.6250	87.7306
 1.6240	87.6594
 1.6230	87.6513
 1.6220	87.5942
 1.6210	87.6633
 1.6200	87.6943
 1.6190	87.7426
 1.6180	87.8071
 1.6170	87.6873
 1.6160	87.6771
 1.6150	87.6875
 1.6140	87.7416
 1.6130	87.7120
 1.6120	87.7010
 1.6110	87.7047
 1.6100	87.7368
 1.6090	87.7928
 1.6080	87.7890
 1.6070	87.8009
 1.6060	87.6631
 1.6050	87.7442
 1.6040	87.6901
 1.6030	87.7259
 1.6020	87.7395
 1.6010	87.7340
 1.6000	87.7667
 1.5990	87.7680
 1.5980	87.7491
 1.5970	87.7658
 1.5960	87.7195
 1.5950	87.6893
 1.5940	87.7222
 1.5930	87.7581
 1.5920	87.7990
 1.5910	87.7583
 1.5900	87.7886
 1.5890	87.7182
 1.5880	87.7210
 1.5870	87.7373
 1.5860	87.7852
 1.5850	87.7118
 1.5840	87.7597
 1.5830	87.7115
 1.5820	87.6955
 1.5810	87.7625
 1.5800	87.7610
 1.5790	87.7567
 1.5780	87.6814
 1.5770	87.7549
 1.5760	87.7567
 1.5750	87.7406
 1.5740	87.7350
 1.5730	87.7356
 1.5720	87.6567
 1.5710	87.6683
 1.5700	87.7168
 1.5690	87.7246
 1.5680	87.7894
 1.5670	87.6876
 1.5660	87.6687
 1.5650	87.6630
 1.5640	87.7343
 1.5630	87.7265
 1.5620	87.7187
 1.5610	87.7070
 1.5600	87.6783
 1.5590	87.7109
 1.5580	87.7448
 1.5570	87.7217
 1.5560	87.6876
 1.5550	87.6709
 1.5540	87.6586
 1.5530	87.6958
 1.5520	87.7087
 1.5510	87.6364
 1.5500	87.6511
 1.5490	87.6530
 1.5480	87.6256
 1.5470	87.6156
 1.5460	87.6610
 1.5450	87.6132
 1.5440	87.6353
 1.5430	87.6869
 1.5420	87.5937
 1.5410	87.5575
 1.5400	87.6129
 1.5390	87.6145
 1.5380	87.6154
 1.5370	87.5881
 1.5360	87.6512
 1.5350	87.6144
 1.5340	87.5848
 1.5330	87.5749
 1.5320	87.5435
 1.5310	87.5748
 1.5300	87.5704
 1.5290	87.5860
 1.5280	87.5736
 1.5270	87.5842
 1.5260	87.5513
 1.5250	87.4953
 1.5240	87.5067
 1.5230	87.5306
 1.5220	87.5291
 1.5210	87.5255
 1.5200	87.5297
 1.5190	87.5355
 1.5180	87.5146
 1.5170	87.4691
 1.5160	87.4703
 1.5150	87.5118
 1.5140	87.5086
 1.5130	87.5260
 1.5120	87.5473
 1.5110	87.5396
 1.5100	87.5055
 1.5090	87.5063
 1.5080	87.4972
 1.5070	87.5343
 1.5060	87.5554
 1.5050	87.4914
 1.5040	87.5446
 1.5030	87.5459
 1.5020	87.5190
 1.5010	87.5302
 1.5000	87.5317
 1.4990	87.5486
 1.4980	87.5206
 1.4970	87.4576
 1.4960	87.4065
 1.4950	87.4800
 1.4940	87.5287
 1.4930	87.4702
 1.4920	87.4532
 1.4910	87.4290
 1.4900	87.4282
 1.4890	87.4709
 1.4880	87.4687
 1.4870	87.4552
 1.4860	87.4597
 1.4850	87.4421
 1.4840	87.4395
 1.4830	87.4503
 1.4820	87.4881
 1.4810	87.4952
 1.4800	87.4476
 1.4790	87.4619
 1.4780	87.4207
 1.4770	87.4200
 1.4760	87.4702
 1.4750	87.4898
 1.4740	87.5404
 1.4730	87.5380
 1.4720	87.4382
 1.4710	87.4798
 1.4700	87.4619
 1.4690	87.4932
 1.4680	87.4840
 1.4670	87.4682
 1.4660	87.4918
 1.4650	87.5159
 1.4640	87.5530
 1.4630	87.5620
 1.4620	87.5552
 1.4610	87.5569
 1.4600	87.5275
 1.4590	87.4980
 1.4580	87.5293
 1.4570	87.5342
 1.4560	87.5035
 1.4550	87.5389
 1.4540	87.5874
 1.4530	87.5798
 1.4520	87.5501
 1.4510	87.5479
 1.4500	87.5830
 1.4490	87.5895
 1.4480	87.5621
 1.4470	87.5970
 1.4460	87.5961
 1.4450	87.6180
 1.4440	87.5720
 1.4430	87.6120
 1.4420	87.5707
 1.4410	87.6016
 1.4400	87.6332
 1.4390	87.5789
 1.4380	87.6523
 1.4370	87.7454
 1.4360	87.7303
 1.4350	87.6611
 1.4340	87.6315
 1.4330	87.6238
 1.4320	87.6931
 1.4310	87.6553
 1.4300	87.6713
 1.4290	87.7232
 1.4280	87.7345
 1.4270	87.6681
 1.4260	87.6779
 1.4250	87.7172
 1.4240	87.6958
 1.4230	87.6854
 1.4220	87.7444
 1.4210	87.7489
 1.4200	87.7283
 1.4190	87.7296
 1.4180	87.7668
 1.4170	87.7961
 1.4160	87.8174
 1.4150	87.7537
 1.4140	87.8164
 1.4130	87.7906
 1.4120	87.8053
 1.4110	87.8645
 1.4100	87.8093
 1.4090	87.8773
 1.4080	87.8650
 1.4070	87.8685
 1.4060	87.8694
 1.4050	87.8611
 1.4040	87.8999
 1.4030	87.8405
 1.4020	88.0021
 1.4010	87.9667
 1.4000	87.9848
 1.3990	87.9215
 1.3980	88.0359
 1.3970	88.0684
 1.3960	88.1577
 1.3950	88.1388
 1.3940	88.1127
 1.3930	87.9733
 1.3920	88.0925
 1.3910	88.1761
 1.3900	88.1409
 1.3890	88.2026
 1.3880	88.1220
 1.3870	88.1275
 1.3860	88.1762
 1.3850	88.2457
 1.3840	88.0933
 1.3830	88.1826
 1.3820	88.1284
 1.3810	88.1398
 1.3800	88.1525
 1.3790	88.2104
 1.3780	88.1258
 1.3770	88.2022
 1.3760	88.1285
 1.3750	88.2646
 1.3740	88.1679
 1.3730	88.1828
 1.3720	88.2052
 1.3710	88.1511
 1.3700	88.1404
 1.3690	88.2426
 1.3680	88.2159
 1.3670	88.1877
