Name: Siderite Fe^2+CO_3
Type: Mineral
Class: Carbonate
Subclass: None
Particle Size: Coarse
Sample No.: C-9A
Owner: JPL
Wavelength Range: VSWIR
Origin: None.
Collection Date: N/A
Description: Particle size was 125-500um.Collected by:  JPL Original ASTER Spectral Library name was jpl.perkin.mineral.carbonate.none.coarse.c09a.spectrum.txt
Measurement: Hemispherical reflectance
First Column: X
Second Column: Y
X Units: Wavelength (micrometers)
Y Units:Reflectance (percent)
First X Value:  2.5000
Last X Value:  0.4000
Number of X Values: 2101
Additional Information: mineral.carbonate.none.coarse.vswir.c-9a.jpl.perkin.ancillary.txt

 2.5000	33.7068
 2.4990	33.4753
 2.4980	33.8366
 2.4970	33.8748
 2.4960	33.7872
 2.4950	34.0216
 2.4940	34.1016
 2.4930	34.1312
 2.4920	34.6953
 2.4910	34.4916
 2.4900	34.6313
 2.4890	34.6631
 2.4880	34.9735
 2.4870	34.9870
 2.4860	35.3891
 2.4850	35.3338
 2.4840	35.6975
 2.4830	35.6745
 2.4820	35.9908
 2.4810	36.1124
 2.4800	36.3162
 2.4790	36.3372
 2.4780	36.7926
 2.4770	36.8452
 2.4760	37.1580
 2.4750	37.2627
 2.4740	37.5663
 2.4730	37.5542
 2.4720	37.8326
 2.4710	38.0117
 2.4700	38.3039
 2.4690	38.3800
 2.4680	38.8555
 2.4670	38.9690
 2.4660	39.2113
 2.4650	39.3231
 2.4640	39.6574
 2.4630	39.9116
 2.4620	40.2526
 2.4610	40.3276
 2.4600	40.6656
 2.4590	40.7525
 2.4580	41.0501
 2.4570	41.2618
 2.4560	41.5019
 2.4550	41.6560
 2.4540	41.9589
 2.4530	42.2226
 2.4520	42.4030
 2.4510	42.5760
 2.4500	42.8107
 2.4490	42.9088
 2.4480	43.2529
 2.4470	43.3680
 2.4460	43.5915
 2.4450	43.7292
 2.4440	44.0582
 2.4430	44.1219
 2.4420	44.4287
 2.4410	44.5297
 2.4400	44.7153
 2.4390	44.9867
 2.4380	45.1383
 2.4370	45.2367
 2.4360	45.4317
 2.4350	45.6167
 2.4340	45.7887
 2.4330	45.8930
 2.4320	46.1318
 2.4310	46.2052
 2.4300	46.3104
 2.4290	46.4014
 2.4280	46.5568
 2.4270	46.7960
 2.4260	46.9445
 2.4250	47.0260
 2.4240	47.1291
 2.4230	47.2720
 2.4220	47.4288
 2.4210	47.4568
 2.4200	47.6125
 2.4190	47.6971
 2.4180	47.7997
 2.4170	47.8682
 2.4160	47.9660
 2.4150	48.0435
 2.4140	48.1229
 2.4130	48.2046
 2.4120	48.3140
 2.4110	48.3609
 2.4100	48.3937
 2.4090	48.3851
 2.4080	48.5206
 2.4070	48.5952
 2.4060	48.6321
 2.4050	48.5938
 2.4040	48.6112
 2.4030	48.6680
 2.4020	48.6612
 2.4010	48.7287
 2.4000	48.7773
 2.3990	48.7964
 2.3980	48.7644
 2.3970	48.7813
 2.3960	48.7751
 2.3950	48.7264
 2.3940	48.7104
 2.3930	48.6300
 2.3920	48.6952
 2.3910	48.6203
 2.3900	48.6023
 2.3890	48.5653
 2.3880	48.5398
 2.3870	48.4695
 2.3860	48.3715
 2.3850	48.3332
 2.3840	48.2772
 2.3830	48.1685
 2.3820	48.0735
 2.3810	47.9805
 2.3800	47.9587
 2.3790	47.8511
 2.3780	47.7359
 2.3770	47.5927
 2.3760	47.4579
 2.3750	47.3576
 2.3740	47.2704
 2.3730	47.0936
 2.3720	46.9810
 2.3710	46.8547
 2.3700	46.7191
 2.3690	46.5892
 2.3680	46.4274
 2.3670	46.3152
 2.3660	46.2057
 2.3650	45.9613
 2.3640	45.8265
 2.3630	45.7316
 2.3620	45.5435
 2.3610	45.3499
 2.3600	45.2148
 2.3590	45.0890
 2.3580	44.9346
 2.3570	44.7716
 2.3560	44.6187
 2.3550	44.4705
 2.3540	44.3585
 2.3530	44.2491
 2.3520	44.1205
 2.3510	44.0077
 2.3500	43.8766
 2.3490	43.7411
 2.3480	43.6448
 2.3470	43.5290
 2.3460	43.4593
 2.3450	43.3839
 2.3440	43.2687
 2.3430	43.2104
 2.3420	43.1334
 2.3410	43.0897
 2.3400	43.0184
 2.3390	42.9522
 2.3380	42.9329
 2.3370	42.9224
 2.3360	42.8537
 2.3350	42.8434
 2.3340	42.8385
 2.3330	42.7710
 2.3320	42.7722
 2.3310	42.8491
 2.3300	42.8437
 2.3290	42.8363
 2.3280	42.8507
 2.3270	42.8845
 2.3260	42.8598
 2.3250	42.9146
 2.3240	42.9706
 2.3230	42.9978
 2.3220	42.9870
 2.3210	43.1079
 2.3200	43.2069
 2.3190	43.2439
 2.3180	43.2562
 2.3170	43.3400
 2.3160	43.4005
 2.3150	43.5775
 2.3140	43.6138
 2.3130	43.6922
 2.3120	43.7427
 2.3110	43.8448
 2.3100	43.9372
 2.3090	44.0143
 2.3080	44.1130
 2.3070	44.2255
 2.3060	44.2766
 2.3050	44.4025
 2.3040	44.4819
 2.3030	44.6620
 2.3020	44.7772
 2.3010	44.8564
 2.3000	44.9389
 2.2990	45.0301
 2.2980	45.2087
 2.2970	45.3280
 2.2960	45.4178
 2.2950	45.5677
 2.2940	45.6686
 2.2930	45.7277
 2.2920	45.8468
 2.2910	46.0316
 2.2900	46.1207
 2.2890	46.2694
 2.2880	46.4108
 2.2870	46.5951
 2.2860	46.6696
 2.2850	46.8200
 2.2840	46.9061
 2.2830	47.0616
 2.2820	47.1651
 2.2810	47.2769
 2.2800	47.4123
 2.2790	47.6142
 2.2780	47.7255
 2.2770	47.8816
 2.2760	47.9914
 2.2750	48.1350
 2.2740	48.2934
 2.2730	48.4789
 2.2720	48.5597
 2.2710	48.7544
 2.2700	48.8533
 2.2690	49.0334
 2.2680	49.1733
 2.2670	49.3473
 2.2660	49.4496
 2.2650	49.7012
 2.2640	49.7624
 2.2630	49.9434
 2.2620	50.0622
 2.2610	50.2510
 2.2600	50.3656
 2.2590	50.5471
 2.2580	50.6353
 2.2570	50.8242
 2.2560	50.9690
 2.2550	51.1356
 2.2540	51.1843
 2.2530	51.3984
 2.2520	51.4613
 2.2510	51.6412
 2.2500	51.7335
 2.2490	51.8925
 2.2480	51.9731
 2.2470	52.2547
 2.2460	52.3210
 2.2450	52.4487
 2.2440	52.5949
 2.2430	52.6769
 2.2420	52.8688
 2.2410	52.9647
 2.2400	53.0964
 2.2390	53.1485
 2.2380	53.3305
 2.2370	53.5163
 2.2360	53.6280
 2.2350	53.7954
 2.2340	53.8279
 2.2330	54.0244
 2.2320	54.0947
 2.2310	54.2227
 2.2300	54.3466
 2.2290	54.5115
 2.2280	54.6329
 2.2270	54.6809
 2.2260	54.7438
 2.2250	54.9413
 2.2240	55.0063
 2.2230	55.0879
 2.2220	55.1734
 2.2210	55.3042
 2.2200	55.3454
 2.2190	55.6007
 2.2180	55.6330
 2.2170	55.8195
 2.2160	55.8741
 2.2150	56.0195
 2.2140	56.0273
 2.2130	56.1639
 2.2120	56.2958
 2.2110	56.3542
 2.2100	56.3753
 2.2090	56.4672
 2.2080	56.5771
 2.2070	56.7667
 2.2060	56.7826
 2.2050	56.9016
 2.2040	56.9094
 2.2030	57.0594
 2.2020	57.1190
 2.2010	57.2191
 2.2000	57.3071
 2.1990	57.3330
 2.1980	57.3067
 2.1970	57.4213
 2.1960	57.4468
 2.1950	57.6188
 2.1940	57.6007
 2.1930	57.6870
 2.1920	57.7073
 2.1910	57.7876
 2.1900	57.7740
 2.1890	57.9047
 2.1880	57.8790
 2.1870	58.0521
 2.1860	57.9809
 2.1850	58.0628
 2.1840	58.0945
 2.1830	58.2049
 2.1820	58.0491
 2.1810	58.1905
 2.1800	58.1999
 2.1790	58.2531
 2.1780	58.3689
 2.1770	58.3981
 2.1760	58.3733
 2.1750	58.4133
 2.1740	58.4450
 2.1730	58.5088
 2.1720	58.4884
 2.1710	58.5244
 2.1700	58.5216
 2.1690	58.6089
 2.1680	58.5218
 2.1670	58.5666
 2.1660	58.6260
 2.1650	58.6084
 2.1640	58.6122
 2.1630	58.7121
 2.1620	58.7132
 2.1610	58.7895
 2.1600	58.7649
 2.1590	58.7997
 2.1580	58.8495
 2.1570	58.9171
 2.1560	58.9610
 2.1550	58.9550
 2.1540	59.0570
 2.1530	59.0400
 2.1520	59.0538
 2.1510	59.1934
 2.1500	59.2014
 2.1490	59.2967
 2.1480	59.3038
 2.1470	59.3488
 2.1460	59.3350
 2.1450	59.3802
 2.1440	59.4678
 2.1430	59.5443
 2.1420	59.5020
 2.1410	59.5899
 2.1400	59.6563
 2.1390	59.7110
 2.1380	59.6753
 2.1370	59.7698
 2.1360	59.7614
 2.1350	59.8135
 2.1340	59.8144
 2.1330	59.9047
 2.1320	59.9112
 2.1310	59.9342
 2.1300	59.9360
 2.1290	59.9290
 2.1280	59.9325
 2.1270	59.9820
 2.1260	59.9751
 2.1250	59.9915
 2.1240	60.0058
 2.1230	60.0010
 2.1220	59.9948
 2.1210	60.0443
 2.1200	60.0235
 2.1190	60.0451
 2.1180	59.9989
 2.1170	60.0063
 2.1160	59.9972
 2.1150	59.9966
 2.1140	60.0032
 2.1130	60.0100
 2.1120	60.0376
 2.1110	59.9910
 2.1100	59.9701
 2.1090	59.9909
 2.1080	59.9310
 2.1070	59.9080
 2.1060	59.8874
 2.1050	59.8906
 2.1040	59.8948
 2.1030	59.8776
 2.1020	59.8549
 2.1010	59.8675
 2.1000	59.8779
 2.0990	59.8993
 2.0980	59.8929
 2.0970	59.9654
 2.0960	59.9495
 2.0950	59.9580
 2.0940	59.9889
 2.0930	59.9796
 2.0920	60.0020
 2.0910	60.0291
 2.0900	60.0727
 2.0890	60.1169
 2.0880	60.0991
 2.0870	60.1636
 2.0860	60.1570
 2.0850	60.1493
 2.0840	60.1805
 2.0830	60.2496
 2.0820	60.2235
 2.0810	60.1665
 2.0800	60.2219
 2.0790	60.2648
 2.0780	60.2725
 2.0770	60.2784
 2.0760	60.2672
 2.0750	60.2842
 2.0740	60.2754
 2.0730	60.3069
 2.0720	60.3393
 2.0710	60.3235
 2.0700	60.2589
 2.0690	60.2382
 2.0680	60.2904
 2.0670	60.3723
 2.0660	60.3630
 2.0650	60.3226
 2.0640	60.3280
 2.0630	60.3455
 2.0620	60.3635
 2.0610	60.3839
 2.0600	60.3810
 2.0590	60.3473
 2.0580	60.3722
 2.0570	60.3690
 2.0560	60.3862
 2.0550	60.3916
 2.0540	60.4212
 2.0530	60.3929
 2.0520	60.3763
 2.0510	60.3406
 2.0500	60.3341
 2.0490	60.3006
 2.0480	60.3015
 2.0470	60.3055
 2.0460	60.3223
 2.0450	60.3214
 2.0440	60.3394
 2.0430	60.2922
 2.0420	60.2555
 2.0410	60.2656
 2.0400	60.2548
 2.0390	60.2305
 2.0380	60.2177
 2.0370	60.1520
 2.0360	60.1144
 2.0350	60.0705
 2.0340	60.0555
 2.0330	60.0539
 2.0320	60.0259
 2.0310	59.9678
 2.0300	59.9491
 2.0290	59.8852
 2.0280	59.9147
 2.0270	59.8054
 2.0260	59.7596
 2.0250	59.6767
 2.0240	59.6791
 2.0230	59.5914
 2.0220	59.5683
 2.0210	59.4913
 2.0200	59.4354
 2.0190	59.3796
 2.0180	59.3214
 2.0170	59.2358
 2.0160	59.1970
 2.0150	59.1708
 2.0140	59.0991
 2.0130	59.0423
 2.0120	59.0024
 2.0110	58.9962
 2.0100	58.9705
 2.0090	58.8245
 2.0080	58.7857
 2.0070	58.7738
 2.0060	58.7291
 2.0050	58.7048
 2.0040	58.6853
 2.0030	58.6755
 2.0020	58.6302
 2.0010	58.5891
 2.0000	58.5630
 1.9990	58.5130
 1.9980	58.5397
 1.9970	58.4637
 1.9960	58.4744
 1.9950	58.4197
 1.9940	58.4812
 1.9930	58.3953
 1.9920	58.3669
 1.9910	58.3798
 1.9900	58.3713
 1.9890	58.3530
 1.9880	58.3184
 1.9870	58.2986
 1.9860	58.3183
 1.9850	58.3293
 1.9840	58.3476
 1.9830	58.2447
 1.9820	58.2274
 1.9810	58.2557
 1.9800	58.2288
 1.9790	58.1899
 1.9780	58.1901
 1.9770	58.1616
 1.9760	58.2109
 1.9750	58.1550
 1.9740	58.1442
 1.9730	58.1580
 1.9720	58.1129
 1.9710	58.0136
 1.9700	58.0544
 1.9690	58.0176
 1.9680	58.0747
 1.9670	58.0088
 1.9660	58.0344
 1.9650	57.9481
 1.9640	57.9842
 1.9630	57.9597
 1.9620	58.0339
 1.9610	57.9651
 1.9600	57.9431
 1.9590	57.9380
 1.9580	57.9274
 1.9570	57.9895
 1.9560	57.8888
 1.9550	57.8592
 1.9540	57.9131
 1.9530	57.8109
 1.9520	57.9106
 1.9510	57.8273
 1.9500	57.8317
 1.9490	57.8270
 1.9480	57.9087
 1.9470	57.7749
 1.9460	57.8572
 1.9450	57.8141
 1.9440	57.8766
 1.9430	57.7672
 1.9420	57.7768
 1.9410	57.7816
 1.9400	57.8307
 1.9390	57.8138
 1.9380	57.7690
 1.9370	57.7463
 1.9360	57.7872
 1.9350	57.7952
 1.9340	57.7534
 1.9330	57.8088
 1.9320	57.8634
 1.9310	57.7776
 1.9300	57.8186
 1.9290	57.7750
 1.9280	57.8389
 1.9270	57.8786
 1.9260	57.8088
 1.9250	57.8711
 1.9240	57.8378
 1.9230	57.8252
 1.9220	57.9116
 1.9210	57.9510
 1.9200	57.8791
 1.9190	57.9661
 1.9180	58.0506
 1.9170	58.0071
 1.9160	58.0506
 1.9150	58.0754
 1.9140	58.1964
 1.9130	58.0707
 1.9120	58.2479
 1.9110	58.2311
 1.9100	58.2909
 1.9090	58.2910
 1.9080	58.4160
 1.9070	58.4406
 1.9060	58.5058
 1.9050	58.4646
 1.9040	58.6094
 1.9030	58.6522
 1.9020	58.6446
 1.9010	58.8081
 1.9000	58.9400
 1.8990	58.9275
 1.8980	59.0460
 1.8970	59.0497
 1.8960	59.1565
 1.8950	59.2737
 1.8940	59.3062
 1.8930	59.4298
 1.8920	59.4588
 1.8910	59.5028
 1.8900	59.6418
 1.8890	59.6651
 1.8880	59.7652
 1.8870	59.7932
 1.8860	59.8174
 1.8850	59.8805
 1.8840	59.9780
 1.8830	60.0271
 1.8820	60.0792
 1.8810	60.0929
 1.8800	60.1394
 1.8790	60.2121
 1.8780	60.2005
 1.8770	60.2182
 1.8760	60.3051
 1.8750	60.2622
 1.8740	60.3526
 1.8730	60.2850
 1.8720	60.3665
 1.8710	60.3820
 1.8700	60.4148
 1.8690	60.4588
 1.8680	60.5418
 1.8670	60.5266
 1.8660	60.6260
 1.8650	60.6286
 1.8640	60.7330
 1.8630	60.7305
 1.8620	60.8096
 1.8610	60.7897
 1.8600	60.7868
 1.8590	60.8163
 1.8580	60.8580
 1.8570	60.8653
 1.8560	60.8919
 1.8550	60.9007
 1.8540	60.8812
 1.8530	60.8651
 1.8520	60.9001
 1.8510	60.9266
 1.8500	60.9721
 1.8490	60.9833
 1.8480	61.0209
 1.8470	60.9908
 1.8460	60.9853
 1.8450	61.0283
 1.8440	61.0784
 1.8430	61.0683
 1.8420	61.0316
 1.8410	61.0543
 1.8400	61.0876
 1.8390	61.0732
 1.8380	61.1222
 1.8370	61.0768
 1.8360	61.1193
 1.8350	61.1105
 1.8340	61.1478
 1.8330	61.1385
 1.8320	61.1634
 1.8310	61.1137
 1.8300	61.1828
 1.8290	61.1595
 1.8280	61.1576
 1.8270	61.2114
 1.8260	61.1396
 1.8250	61.0936
 1.8240	61.1783
 1.8230	61.1874
 1.8220	61.2001
 1.8210	61.1502
 1.8200	61.1281
 1.8190	61.1272
 1.8180	61.1235
 1.8170	61.1117
 1.8160	61.1216
 1.8150	61.1158
 1.8140	61.1012
 1.8130	61.0863
 1.8120	61.0640
 1.8110	61.0670
 1.8100	61.0713
 1.8090	61.1123
 1.8080	61.1044
 1.8070	61.0356
 1.8060	61.0396
 1.8050	60.9952
 1.8040	61.0130
 1.8030	61.0079
 1.8020	61.0065
 1.8010	60.9632
 1.8000	60.9404
 1.7990	60.9090
 1.7980	60.9219
 1.7970	60.8985
 1.7960	60.8691
 1.7950	60.8241
 1.7940	60.7930
 1.7930	60.7510
 1.7920	60.7516
 1.7910	60.7770
 1.7900	60.7078
 1.7890	60.6783
 1.7880	60.6781
 1.7870	60.6129
 1.7860	60.5546
 1.7850	60.5561
 1.7840	60.5269
 1.7830	60.4760
 1.7820	60.4730
 1.7810	60.4089
 1.7800	60.3303
 1.7790	60.3325
 1.7780	60.3112
 1.7770	60.2805
 1.7760	60.2079
 1.7750	60.1466
 1.7740	60.1269
 1.7730	60.0948
 1.7720	60.0412
 1.7710	60.0527
 1.7700	59.9720
 1.7690	59.9263
 1.7680	59.9410
 1.7670	59.9182
 1.7660	59.8850
 1.7650	59.8445
 1.7640	59.7699
 1.7630	59.7114
 1.7620	59.7116
 1.7610	59.6932
 1.7600	59.6121
 1.7590	59.5529
 1.7580	59.5003
 1.7570	59.4800
 1.7560	59.4280
 1.7550	59.3545
 1.7540	59.3311
 1.7530	59.3266
 1.7520	59.2439
 1.7510	59.2114
 1.7500	59.1850
 1.7490	59.1337
 1.7480	59.0191
 1.7470	59.0080
 1.7460	58.9812
 1.7450	58.9736
 1.7440	58.8736
 1.7430	58.8676
 1.7420	58.8025
 1.7410	58.7928
 1.7400	58.6648
 1.7390	58.6599
 1.7380	58.6268
 1.7370	58.5448
 1.7360	58.4133
 1.7350	58.3633
 1.7340	58.3769
 1.7330	58.3007
 1.7320	58.2247
 1.7310	58.2037
 1.7300	58.1534
 1.7290	58.1131
 1.7280	58.0044
 1.7270	57.9679
 1.7260	57.9568
 1.7250	57.8834
 1.7240	57.7783
 1.7230	57.7683
 1.7220	57.6447
 1.7210	57.6082
 1.7200	57.5195
 1.7190	57.4911
 1.7180	57.4196
 1.7170	57.2752
 1.7160	57.2083
 1.7150	57.1571
 1.7140	57.1602
 1.7130	57.0840
 1.7120	57.0133
 1.7110	56.8836
 1.7100	56.7804
 1.7090	56.8006
 1.7080	56.6805
 1.7070	56.5685
 1.7060	56.4428
 1.7050	56.3317
 1.7040	56.3425
 1.7030	56.2785
 1.7020	56.1073
 1.7010	56.0972
 1.7000	56.0061
 1.6990	55.9375
 1.6980	55.7937
 1.6970	55.7107
 1.6960	55.6264
 1.6950	55.5953
 1.6940	55.4288
 1.6930	55.3882
 1.6920	55.3028
 1.6910	55.1907
 1.6900	55.0559
 1.6890	55.0300
 1.6880	54.9133
 1.6870	54.8277
 1.6860	54.7392
 1.6850	54.5837
 1.6840	54.4980
 1.6830	54.4460
 1.6820	54.2555
 1.6810	54.2038
 1.6800	54.0474
 1.6790	53.9954
 1.6780	53.8146
 1.6770	53.8152
 1.6760	53.6360
 1.6750	53.6214
 1.6740	53.4474
 1.6730	53.3773
 1.6720	53.2127
 1.6710	53.0809
 1.6700	53.0585
 1.6690	52.9150
 1.6680	52.7478
 1.6670	52.6918
 1.6660	52.5472
 1.6650	52.4596
 1.6640	52.3216
 1.6630	52.1686
 1.6620	52.0855
 1.6610	51.9343
 1.6600	51.8390
 1.6590	51.7612
 1.6580	51.5716
 1.6570	51.5070
 1.6560	51.3373
 1.6550	51.2271
 1.6540	51.0489
 1.6530	50.9792
 1.6520	50.8383
 1.6510	50.6790
 1.6500	50.5104
 1.6490	50.3860
 1.6480	50.2888
 1.6470	50.1553
 1.6460	50.0006
 1.6450	49.9380
 1.6440	49.7145
 1.6430	49.5681
 1.6420	49.4427
 1.6410	49.2015
 1.6400	49.1695
 1.6390	49.0850
 1.6380	48.8427
 1.6370	48.7167
 1.6360	48.5976
 1.6350	48.4764
 1.6340	48.1962
 1.6330	48.1794
 1.6320	47.9602
 1.6310	47.8407
 1.6300	47.6779
 1.6290	47.5406
 1.6280	47.3111
 1.6270	47.3118
 1.6260	47.0782
 1.6250	47.0221
 1.6240	46.7439
 1.6230	46.6383
 1.6220	46.4574
 1.6210	46.3048
 1.6200	46.0968
 1.6190	45.9773
 1.6180	45.8025
 1.6170	45.6405
 1.6160	45.4116
 1.6150	45.3494
 1.6140	45.0639
 1.6130	44.9815
 1.6120	44.7540
 1.6110	44.6547
 1.6100	44.4307
 1.6090	44.3339
 1.6080	44.0693
 1.6070	43.9869
 1.6060	43.7769
 1.6050	43.6547
 1.6040	43.3793
 1.6030	43.2353
 1.6020	43.0897
 1.6010	42.9220
 1.6000	42.6730
 1.5990	42.5121
 1.5980	42.3656
 1.5970	42.2525
 1.5960	41.9803
 1.5950	41.8491
 1.5940	41.6602
 1.5930	41.4728
 1.5920	41.2232
 1.5910	41.0750
 1.5900	41.0001
 1.5890	40.7806
 1.5880	40.5129
 1.5870	40.4037
 1.5860	40.1284
 1.5850	40.0161
 1.5840	39.8259
 1.5830	39.6688
 1.5820	39.3682
 1.5810	39.1853
 1.5800	39.0155
 1.5790	38.8026
 1.5780	38.6352
 1.5770	38.5421
 1.5760	38.2677
 1.5750	38.1104
 1.5740	37.8776
 1.5730	37.7418
 1.5720	37.5381
 1.5710	37.3012
 1.5700	37.0946
 1.5690	36.9189
 1.5680	36.7152
 1.5670	36.6023
 1.5660	36.3946
 1.5650	36.2209
 1.5640	35.9688
 1.5630	35.8814
 1.5620	35.6601
 1.5610	35.5019
 1.5600	35.2653
 1.5590	35.1151
 1.5580	34.8834
 1.5570	34.7320
 1.5560	34.4740
 1.5550	34.3309
 1.5540	34.1286
 1.5530	33.8938
 1.5520	33.7121
 1.5510	33.5612
 1.5500	33.3348
 1.5490	33.1507
 1.5480	32.9634
 1.5470	32.8517
 1.5460	32.6004
 1.5450	32.4365
 1.5440	32.2462
 1.5430	32.0731
 1.5420	31.8693
 1.5410	31.7105
 1.5400	31.5124
 1.5390	31.3242
 1.5380	31.0987
 1.5370	30.9439
 1.5360	30.7461
 1.5350	30.5512
 1.5340	30.3858
 1.5330	30.2373
 1.5320	30.0492
 1.5310	29.8415
 1.5300	29.6022
 1.5290	29.4516
 1.5280	29.2565
 1.5270	29.0887
 1.5260	28.8833
 1.5250	28.7755
 1.5240	28.6241
 1.5230	28.4087
 1.5220	28.2278
 1.5210	28.0412
 1.5200	27.8484
 1.5190	27.7141
 1.5180	27.5254
 1.5170	27.3405
 1.5160	27.1422
 1.5150	26.9750
 1.5140	26.8036
 1.5130	26.7154
 1.5120	26.5698
 1.5110	26.3717
 1.5100	26.1868
 1.5090	26.0354
 1.5080	25.8549
 1.5070	25.6708
 1.5060	25.5370
 1.5050	25.3756
 1.5040	25.1981
 1.5030	25.0574
 1.5020	24.8660
 1.5010	24.6862
 1.5000	24.5384
 1.4990	24.4001
 1.4980	24.1876
 1.4970	24.0118
 1.4960	23.9167
 1.4950	23.7206
 1.4940	23.5561
 1.4930	23.4750
 1.4920	23.3483
 1.4910	23.1251
 1.4900	22.9651
 1.4890	22.7786
 1.4880	22.6505
 1.4870	22.5366
 1.4860	22.3238
 1.4850	22.1588
 1.4840	22.0721
 1.4830	21.9451
 1.4820	21.8004
 1.4810	21.6250
 1.4800	21.4930
 1.4790	21.3621
 1.4780	21.2200
 1.4770	21.0321
 1.4760	20.9781
 1.4750	20.8795
 1.4740	20.7186
 1.4730	20.5508
 1.4720	20.4341
 1.4710	20.2540
 1.4700	20.1436
 1.4690	19.9863
 1.4680	19.8974
 1.4670	19.7175
 1.4660	19.6055
 1.4650	19.4527
 1.4640	19.3433
 1.4630	19.2302
 1.4620	19.1483
 1.4610	18.9704
 1.4600	18.8103
 1.4590	18.7148
 1.4580	18.6388
 1.4570	18.4562
 1.4560	18.3556
 1.4550	18.1738
 1.4540	18.0924
 1.4530	18.0153
 1.4520	17.9555
 1.4510	17.7801
 1.4500	17.6427
 1.4490	17.4900
 1.4480	17.4180
 1.4470	17.3183
 1.4460	17.2420
 1.4450	17.0882
 1.4440	16.9955
 1.4430	16.8732
 1.4420	16.7694
 1.4410	16.6877
 1.4400	16.6143
 1.4390	16.5041
 1.4380	16.3994
 1.4370	16.2404
 1.4360	16.2536
 1.4350	16.0538
 1.4340	16.0347
 1.4330	15.8336
 1.4320	15.8071
 1.4310	15.6097
 1.4300	15.5588
 1.4290	15.4889
 1.4280	15.4326
 1.4270	15.2889
 1.4260	15.2817
 1.4250	15.1346
 1.4240	15.0615
 1.4230	14.9437
 1.4220	14.9303
 1.4210	14.7554
 1.4200	14.7587
 1.4190	14.6188
 1.4180	14.5532
 1.4170	14.4139
 1.4160	14.4380
 1.4150	14.2965
 1.4140	14.1433
 1.4130	14.0589
 1.4120	14.0762
 1.4110	14.0349
 1.4100	13.9827
 1.4090	13.8024
 1.4080	13.8344
 1.4070	13.5577
 1.4060	13.6387
 1.4050	13.5085
 1.4040	13.5752
 1.4030	13.4554
 1.4020	13.4882
 1.4010	13.2851
 1.4000	13.2578
 1.3990	13.1034
 1.3980	13.1525
 1.3970	12.9993
 1.3960	13.0269
 1.3950	12.8879
 1.3940	12.8888
 1.3930	12.6566
 1.3920	12.7952
 1.3910	12.6510
 1.3900	12.7382
 1.3890	12.5565
 1.3880	12.5486
 1.3870	12.3991
 1.3860	12.4150
 1.3850	12.2605
 1.3840	12.2949
 1.3830	12.0975
 1.3820	12.1543
 1.3810	11.9837
 1.3800	12.0937
 1.3790	12.0111
 1.3780	12.1216
 1.3770	11.8115
 1.3760	11.9067
 1.3750	11.7770
 1.3740	11.8433
 1.3730	11.7206
 1.3720	11.7426
 1.3710	11.5955
 1.3700	11.5646
 1.3690	11.4979
 1.3680	11.5689
 1.3670	11.3615
 1.3660	11.4752
 1.3650	11.3421
 1.3640	11.3746
