Name: Alunite KAl_3(SO_4)_2(OH)_6
Type: Mineral
Class: Sulfate
Subclass: None
Particle Size: Fine
Sample No.: SO-4A
Owner: JPL
Wavelength Range: VSWIR
Origin: USA, Utah.
Collection Date: N/A
Description: Particle size was 0-45um.Collected by:  Ward's Original ASTER Spectral Library name was jpl.perkin.mineral.sulfate.none.fine.so04a.spectrum.txt
Measurement: Hemispherical reflectance
First Column: X
Second Column: Y
X Units: Wavelength (micrometers)
Y Units:Reflectance (percent)
First X Value:  2.5000
Last X Value:  0.4000
Number of X Values: 2101
Additional Information: mineral.sulfate.none.fine.vswir.so-4a.jpl.perkin.ancillary.txt

 2.5000	40.6074
 2.4990	40.8912
 2.4980	41.5569
 2.4970	41.9486
 2.4960	42.3172
 2.4950	43.0498
 2.4940	43.3141
 2.4930	43.7411
 2.4920	44.1512
 2.4910	44.5501
 2.4900	45.0128
 2.4890	45.1471
 2.4880	45.5578
 2.4870	45.8553
 2.4860	46.0773
 2.4850	46.2522
 2.4840	46.4715
 2.4830	46.5965
 2.4820	46.7091
 2.4810	46.6622
 2.4800	46.8255
 2.4790	46.7305
 2.4780	46.6211
 2.4770	46.3284
 2.4760	46.4258
 2.4750	46.3177
 2.4740	46.2327
 2.4730	46.1474
 2.4720	45.9166
 2.4710	45.6828
 2.4700	45.6629
 2.4690	45.5496
 2.4680	45.6900
 2.4670	45.4540
 2.4660	45.5230
 2.4650	45.4083
 2.4640	45.5126
 2.4630	45.6218
 2.4620	45.6882
 2.4610	45.7341
 2.4600	46.0043
 2.4590	46.0938
 2.4580	46.2636
 2.4570	46.3757
 2.4560	46.6404
 2.4550	46.8105
 2.4540	47.0130
 2.4530	47.1553
 2.4520	47.2446
 2.4510	47.3546
 2.4500	47.5201
 2.4490	47.5854
 2.4480	47.6305
 2.4470	47.6220
 2.4460	47.5327
 2.4450	47.4390
 2.4440	47.4881
 2.4430	47.2872
 2.4420	47.3134
 2.4410	47.1345
 2.4400	46.9142
 2.4390	46.7871
 2.4380	46.6320
 2.4370	46.5095
 2.4360	46.4683
 2.4350	46.2883
 2.4340	46.2867
 2.4330	46.1448
 2.4320	46.1833
 2.4310	46.0051
 2.4300	46.1207
 2.4290	46.0891
 2.4280	46.1950
 2.4270	46.3409
 2.4260	46.4758
 2.4250	46.5514
 2.4240	46.8481
 2.4230	47.0955
 2.4220	47.3406
 2.4210	47.4963
 2.4200	47.8921
 2.4190	48.1540
 2.4180	48.4462
 2.4170	48.6565
 2.4160	48.9270
 2.4150	49.2266
 2.4140	49.5056
 2.4130	49.8481
 2.4120	50.1371
 2.4110	50.3451
 2.4100	50.5385
 2.4090	50.6349
 2.4080	50.8317
 2.4070	51.0070
 2.4060	51.1932
 2.4050	51.3189
 2.4040	51.4293
 2.4030	51.5709
 2.4020	51.6919
 2.4010	51.7700
 2.4000	51.8730
 2.3990	51.9567
 2.3980	52.0530
 2.3970	52.2340
 2.3960	52.3490
 2.3950	52.4493
 2.3940	52.6651
 2.3930	52.8119
 2.3920	53.1043
 2.3910	53.3719
 2.3900	53.7021
 2.3890	53.9900
 2.3880	54.3844
 2.3870	54.7303
 2.3860	55.1133
 2.3850	55.5664
 2.3840	56.0152
 2.3830	56.4498
 2.3820	56.9390
 2.3810	57.3744
 2.3800	57.8859
 2.3790	58.4195
 2.3780	58.9346
 2.3770	59.4235
 2.3760	59.8952
 2.3750	60.3787
 2.3740	60.8028
 2.3730	61.2172
 2.3720	61.6981
 2.3710	62.0889
 2.3700	62.4189
 2.3690	62.7623
 2.3680	63.1234
 2.3670	63.4358
 2.3660	63.6874
 2.3650	63.9295
 2.3640	64.1584
 2.3630	64.3806
 2.3620	64.5819
 2.3610	64.7011
 2.3600	64.9028
 2.3590	65.0964
 2.3580	65.1800
 2.3570	65.2390
 2.3560	65.3056
 2.3550	65.3580
 2.3540	65.3975
 2.3530	65.4883
 2.3520	65.5043
 2.3510	65.5019
 2.3500	65.5159
 2.3490	65.4877
 2.3480	65.4255
 2.3470	65.3382
 2.3460	65.2568
 2.3450	65.2224
 2.3440	65.0680
 2.3430	64.8551
 2.3420	64.7089
 2.3410	64.5275
 2.3400	64.3829
 2.3390	64.1893
 2.3380	63.8943
 2.3370	63.6440
 2.3360	63.3863
 2.3350	63.0683
 2.3340	62.7089
 2.3330	62.4329
 2.3320	62.1824
 2.3310	61.8455
 2.3300	61.4636
 2.3290	61.1496
 2.3280	60.8611
 2.3270	60.5561
 2.3260	60.2795
 2.3250	60.0708
 2.3240	59.8660
 2.3230	59.6951
 2.3220	59.5206
 2.3210	59.3554
 2.3200	59.2345
 2.3190	59.2600
 2.3180	59.3035
 2.3170	59.3975
 2.3160	59.5013
 2.3150	59.7373
 2.3140	59.9926
 2.3130	60.2785
 2.3120	60.5770
 2.3110	60.9340
 2.3100	61.4200
 2.3090	61.9600
 2.3080	62.3980
 2.3070	62.9008
 2.3060	63.3403
 2.3050	63.8462
 2.3040	64.3308
 2.3030	64.8137
 2.3020	65.3178
 2.3010	65.7786
 2.3000	66.1591
 2.2990	66.5628
 2.2980	66.9756
 2.2970	67.2828
 2.2960	67.5399
 2.2950	67.7527
 2.2940	68.0115
 2.2930	68.2777
 2.2920	68.4453
 2.2910	68.6466
 2.2900	68.7434
 2.2890	68.8203
 2.2880	68.8607
 2.2870	69.0370
 2.2860	69.1877
 2.2850	69.2713
 2.2840	69.2988
 2.2830	69.3986
 2.2820	69.4620
 2.2810	69.5511
 2.2800	69.5454
 2.2790	69.6620
 2.2780	69.7044
 2.2770	69.8154
 2.2760	69.8187
 2.2750	69.8425
 2.2740	69.8654
 2.2730	69.9487
 2.2720	69.9279
 2.2710	70.0118
 2.2700	70.0308
 2.2690	70.0026
 2.2680	69.9990
 2.2670	70.0317
 2.2660	70.0338
 2.2650	70.0763
 2.2640	70.1024
 2.2630	70.1515
 2.2620	70.1077
 2.2610	70.1958
 2.2600	70.1624
 2.2590	70.2115
 2.2580	70.1816
 2.2570	70.1451
 2.2560	70.1832
 2.2550	70.2372
 2.2540	70.1216
 2.2530	70.1170
 2.2520	70.2834
 2.2510	70.2222
 2.2500	70.1291
 2.2490	70.1972
 2.2480	70.1759
 2.2470	70.1224
 2.2460	70.1544
 2.2450	70.0946
 2.2440	70.0325
 2.2430	69.9848
 2.2420	69.9344
 2.2410	69.8595
 2.2400	69.6686
 2.2390	69.6571
 2.2380	69.5273
 2.2370	69.4900
 2.2360	69.2814
 2.2350	69.1671
 2.2340	69.0193
 2.2330	68.8994
 2.2320	68.6631
 2.2310	68.5036
 2.2300	68.1060
 2.2290	67.8367
 2.2280	67.5059
 2.2270	67.0114
 2.2260	66.6397
 2.2250	66.2237
 2.2240	65.5900
 2.2230	65.0214
 2.2220	64.1939
 2.2210	63.5127
 2.2200	62.7112
 2.2190	61.9153
 2.2180	61.0573
 2.2170	60.2723
 2.2160	59.3785
 2.2150	58.6273
 2.2140	57.8571
 2.2130	57.2364
 2.2120	56.6160
 2.2110	56.1070
 2.2100	55.7255
 2.2090	55.4164
 2.2080	55.3748
 2.2070	55.3712
 2.2060	55.3459
 2.2050	55.6636
 2.2040	55.8085
 2.2030	56.0803
 2.2020	56.1996
 2.2010	56.4181
 2.2000	56.5863
 2.1990	56.7665
 2.1980	56.6553
 2.1970	56.6277
 2.1960	56.3982
 2.1950	56.1359
 2.1940	55.7933
 2.1930	55.3078
 2.1920	54.8927
 2.1910	54.3704
 2.1900	53.9263
 2.1890	53.4088
 2.1880	52.8741
 2.1870	52.4368
 2.1860	52.0175
 2.1850	51.6609
 2.1840	51.3763
 2.1830	51.1070
 2.1820	50.8071
 2.1810	50.6613
 2.1800	50.4646
 2.1790	50.4146
 2.1780	50.2565
 2.1770	50.1740
 2.1760	50.1415
 2.1750	50.1131
 2.1740	50.0844
 2.1730	50.1670
 2.1720	50.0385
 2.1710	50.0592
 2.1700	50.0159
 2.1690	49.9612
 2.1680	49.8868
 2.1670	49.8974
 2.1660	49.7671
 2.1650	49.8511
 2.1640	49.7705
 2.1630	49.8351
 2.1620	49.8022
 2.1610	49.8894
 2.1600	49.8839
 2.1590	49.9704
 2.1580	50.0447
 2.1570	50.1652
 2.1560	50.2531
 2.1550	50.4140
 2.1540	50.5342
 2.1530	50.8630
 2.1520	51.0525
 2.1510	51.3209
 2.1500	51.5888
 2.1490	51.8626
 2.1480	52.0595
 2.1470	52.3737
 2.1460	52.5786
 2.1450	52.8368
 2.1440	53.0838
 2.1430	53.3405
 2.1420	53.5115
 2.1410	53.6733
 2.1400	53.8803
 2.1390	54.1415
 2.1380	54.3284
 2.1370	54.5306
 2.1360	54.6957
 2.1350	54.9373
 2.1340	55.1503
 2.1330	55.3672
 2.1320	55.5962
 2.1310	55.8458
 2.1300	56.0590
 2.1290	56.3430
 2.1280	56.5582
 2.1270	56.8318
 2.1260	57.1187
 2.1250	57.4461
 2.1240	57.7855
 2.1230	58.1318
 2.1220	58.4788
 2.1210	58.8742
 2.1200	59.2509
 2.1190	59.6485
 2.1180	60.0511
 2.1170	60.4288
 2.1160	60.8159
 2.1150	61.1732
 2.1140	61.5070
 2.1130	61.8663
 2.1120	62.1478
 2.1110	62.4474
 2.1100	62.7082
 2.1090	63.0206
 2.1080	63.3320
 2.1070	63.6101
 2.1060	63.8384
 2.1050	63.9876
 2.1040	64.1825
 2.1030	64.4115
 2.1020	64.5898
 2.1010	64.7496
 2.1000	64.8739
 2.0990	65.0650
 2.0980	65.2548
 2.0970	65.3621
 2.0960	65.5372
 2.0950	65.7138
 2.0940	65.7896
 2.0930	65.9244
 2.0920	65.9943
 2.0910	66.1641
 2.0900	66.2648
 2.0890	66.2783
 2.0880	66.4137
 2.0870	66.5151
 2.0860	66.5719
 2.0850	66.6173
 2.0840	66.7237
 2.0830	66.7685
 2.0820	66.7315
 2.0810	66.7156
 2.0800	66.7806
 2.0790	66.8610
 2.0780	66.8766
 2.0770	66.8442
 2.0760	66.8417
 2.0750	66.8721
 2.0740	66.8760
 2.0730	66.8479
 2.0720	66.8454
 2.0710	66.8768
 2.0700	66.8876
 2.0690	66.8989
 2.0680	66.8527
 2.0670	66.7659
 2.0660	66.8030
 2.0650	66.8441
 2.0640	66.8637
 2.0630	66.9361
 2.0620	66.9404
 2.0610	66.9162
 2.0600	66.9578
 2.0590	67.0046
 2.0580	67.0773
 2.0570	67.0794
 2.0560	67.1770
 2.0550	67.2723
 2.0540	67.2967
 2.0530	67.4058
 2.0520	67.4820
 2.0510	67.5168
 2.0500	67.5765
 2.0490	67.6418
 2.0480	67.6964
 2.0470	67.7723
 2.0460	67.9186
 2.0450	67.9665
 2.0440	68.0303
 2.0430	68.1075
 2.0420	68.1800
 2.0410	68.2029
 2.0400	68.2628
 2.0390	68.3356
 2.0380	68.3571
 2.0370	68.4387
 2.0360	68.5133
 2.0350	68.5266
 2.0340	68.5877
 2.0330	68.6194
 2.0320	68.7184
 2.0310	68.7801
 2.0300	68.7678
 2.0290	68.8821
 2.0280	68.8927
 2.0270	68.9218
 2.0260	68.9549
 2.0250	68.9878
 2.0240	69.0199
 2.0230	68.9939
 2.0220	69.0170
 2.0210	69.0057
 2.0200	68.9601
 2.0190	68.9293
 2.0180	68.9696
 2.0170	68.9485
 2.0160	68.9273
 2.0150	68.9238
 2.0140	68.8145
 2.0130	68.8840
 2.0120	68.9104
 2.0110	68.8798
 2.0100	68.9588
 2.0090	68.9120
 2.0080	68.9756
 2.0070	69.0390
 2.0060	69.0894
 2.0050	69.2290
 2.0040	69.3149
 2.0030	69.3745
 2.0020	69.4886
 2.0010	69.5287
 2.0000	69.6141
 1.9990	69.7294
 1.9980	69.8703
 1.9970	69.9960
 1.9960	70.1443
 1.9950	70.2403
 1.9940	70.3044
 1.9930	70.4371
 1.9920	70.5141
 1.9910	70.5910
 1.9900	70.6765
 1.9890	70.7656
 1.9880	70.8292
 1.9870	70.9044
 1.9860	71.0332
 1.9850	71.0565
 1.9840	71.1303
 1.9830	71.1879
 1.9820	71.1767
 1.9810	71.2111
 1.9800	71.2077
 1.9790	71.2841
 1.9780	71.2052
 1.9770	71.1578
 1.9760	71.1903
 1.9750	71.2611
 1.9740	71.2315
 1.9730	71.1686
 1.9720	71.1360
 1.9710	71.1068
 1.9700	71.0680
 1.9690	70.9845
 1.9680	71.0286
 1.9670	71.0021
 1.9660	70.9959
 1.9650	71.0406
 1.9640	70.9448
 1.9630	71.0685
 1.9620	70.9684
 1.9610	70.9284
 1.9600	71.0272
 1.9590	71.0141
 1.9580	71.0899
 1.9570	71.1474
 1.9560	71.2317
 1.9550	71.2473
 1.9540	71.2669
 1.9530	71.2750
 1.9520	71.2068
 1.9510	71.3749
 1.9500	71.4303
 1.9490	71.5603
 1.9480	71.5434
 1.9470	71.6352
 1.9460	71.7108
 1.9450	71.6829
 1.9440	71.8291
 1.9430	71.8034
 1.9420	71.8966
 1.9410	71.8421
 1.9400	71.9476
 1.9390	71.9915
 1.9380	72.0765
 1.9370	72.0704
 1.9360	72.1195
 1.9350	72.2601
 1.9340	72.2647
 1.9330	72.2970
 1.9320	72.3347
 1.9310	72.3288
 1.9300	72.3706
 1.9290	72.3953
 1.9280	72.5540
 1.9270	72.5432
 1.9260	72.7282
 1.9250	72.7021
 1.9240	72.7463
 1.9230	72.8386
 1.9220	72.9555
 1.9210	72.9883
 1.9200	73.1522
 1.9190	73.2643
 1.9180	73.3609
 1.9170	73.4662
 1.9160	73.4948
 1.9150	73.5779
 1.9140	73.7483
 1.9130	73.8506
 1.9120	73.9563
 1.9110	74.2572
 1.9100	74.2454
 1.9090	74.3400
 1.9080	74.6408
 1.9070	74.7248
 1.9060	74.8451
 1.9050	75.0367
 1.9040	75.1822
 1.9030	75.2611
 1.9020	75.4130
 1.9010	75.5482
 1.9000	75.7250
 1.8990	75.8447
 1.8980	76.0321
 1.8970	76.1533
 1.8960	76.2751
 1.8950	76.3375
 1.8940	76.5599
 1.8930	76.5958
 1.8920	76.7501
 1.8910	76.8591
 1.8900	76.9368
 1.8890	77.1166
 1.8880	77.2293
 1.8870	77.2693
 1.8860	77.4397
 1.8850	77.4903
 1.8840	77.6179
 1.8830	77.6986
 1.8820	77.8113
 1.8810	77.9195
 1.8800	78.0046
 1.8790	78.0709
 1.8780	78.1505
 1.8770	78.2661
 1.8760	78.3290
 1.8750	78.3819
 1.8740	78.4829
 1.8730	78.5711
 1.8720	78.6415
 1.8710	78.7250
 1.8700	78.8165
 1.8690	78.8712
 1.8680	78.9211
 1.8670	78.9916
 1.8660	79.0227
 1.8650	79.0806
 1.8640	79.2228
 1.8630	79.2724
 1.8620	79.2680
 1.8610	79.3016
 1.8600	79.3641
 1.8590	79.3854
 1.8580	79.4222
 1.8570	79.4971
 1.8560	79.5240
 1.8550	79.5714
 1.8540	79.5616
 1.8530	79.5527
 1.8520	79.6454
 1.8510	79.6588
 1.8500	79.7388
 1.8490	79.7023
 1.8480	79.7361
 1.8470	79.7538
 1.8460	79.7557
 1.8450	79.7529
 1.8440	79.8923
 1.8430	79.8428
 1.8420	79.8875
 1.8410	79.9349
 1.8400	79.8714
 1.8390	79.8609
 1.8380	79.9855
 1.8370	80.0063
 1.8360	79.9570
 1.8350	80.0073
 1.8340	80.0655
 1.8330	80.0905
 1.8320	80.1209
 1.8310	80.0846
 1.8300	80.0804
 1.8290	80.0664
 1.8280	80.1795
 1.8270	80.2535
 1.8260	80.1577
 1.8250	80.2299
 1.8240	80.2189
 1.8230	80.1763
 1.8220	80.2125
 1.8210	80.2103
 1.8200	80.2464
 1.8190	80.2257
 1.8180	80.2353
 1.8170	80.2256
 1.8160	80.2482
 1.8150	80.2737
 1.8140	80.2516
 1.8130	80.2662
 1.8120	80.2710
 1.8110	80.2641
 1.8100	80.2260
 1.8090	80.2009
 1.8080	80.1206
 1.8070	80.1642
 1.8060	80.2125
 1.8050	80.1841
 1.8040	80.0986
 1.8030	80.0055
 1.8020	79.9809
 1.8010	79.8813
 1.8000	79.8138
 1.7990	79.7884
 1.7980	79.7258
 1.7970	79.6504
 1.7960	79.4944
 1.7950	79.3448
 1.7940	79.1650
 1.7930	78.9446
 1.7920	78.7008
 1.7910	78.3729
 1.7900	78.0405
 1.7890	77.7398
 1.7880	77.4985
 1.7870	77.1814
 1.7860	76.8508
 1.7850	76.5675
 1.7840	76.2991
 1.7830	76.0552
 1.7820	75.7521
 1.7810	75.4588
 1.7800	75.2359
 1.7790	75.1006
 1.7780	74.9895
 1.7770	74.8067
 1.7760	74.5686
 1.7750	74.4473
 1.7740	74.3210
 1.7730	74.1156
 1.7720	73.9142
 1.7710	73.7198
 1.7700	73.5521
 1.7690	73.4406
 1.7680	73.3305
 1.7670	73.3098
 1.7660	73.3517
 1.7650	73.4113
 1.7640	73.4260
 1.7630	73.5364
 1.7620	73.6972
 1.7610	73.7845
 1.7600	73.8222
 1.7590	73.9676
 1.7580	74.1114
 1.7570	74.1873
 1.7560	74.2786
 1.7550	74.3915
 1.7540	74.5505
 1.7530	74.7111
 1.7520	74.8033
 1.7510	74.8847
 1.7500	75.0620
 1.7490	75.2828
 1.7480	75.4896
 1.7470	75.6623
 1.7460	75.8562
 1.7450	76.0660
 1.7440	76.2378
 1.7430	76.4935
 1.7420	76.6708
 1.7410	76.9054
 1.7400	77.1172
 1.7390	77.3008
 1.7380	77.4549
 1.7370	77.6509
 1.7360	77.8848
 1.7350	78.0104
 1.7340	78.1148
 1.7330	78.2774
 1.7320	78.4351
 1.7310	78.6127
 1.7300	78.7646
 1.7290	78.9398
 1.7280	79.0976
 1.7270	79.2296
 1.7260	79.4035
 1.7250	79.6100
 1.7240	79.6339
 1.7230	79.7850
 1.7220	79.9272
 1.7210	80.0330
 1.7200	80.1103
 1.7190	80.2630
 1.7180	80.3525
 1.7170	80.3935
 1.7160	80.4935
 1.7150	80.4860
 1.7140	80.5672
 1.7130	80.6314
 1.7120	80.6654
 1.7110	80.7428
 1.7100	80.8109
 1.7090	80.9278
 1.7080	80.8764
 1.7070	80.8890
 1.7060	80.8908
 1.7050	80.9585
 1.7040	80.9267
 1.7030	81.0446
 1.7020	81.1138
 1.7010	81.1106
 1.7000	81.1170
 1.6990	81.1327
 1.6980	81.0852
 1.6970	81.2443
 1.6960	81.2509
 1.6950	81.2882
 1.6940	81.2928
 1.6930	81.2877
 1.6920	81.2933
 1.6910	81.3477
 1.6900	81.4112
 1.6890	81.4753
 1.6880	81.4422
 1.6870	81.5688
 1.6860	81.5639
 1.6850	81.6239
 1.6840	81.6798
 1.6830	81.6104
 1.6820	81.6005
 1.6810	81.7079
 1.6800	81.7688
 1.6790	81.7738
 1.6780	81.8095
 1.6770	81.8717
 1.6760	81.7691
 1.6750	81.8434
 1.6740	81.8677
 1.6730	81.8902
 1.6720	82.0204
 1.6710	81.9770
 1.6700	82.0106
 1.6690	82.1652
 1.6680	82.0793
 1.6670	82.1574
 1.6660	82.1673
 1.6650	82.1971
 1.6640	82.2233
 1.6630	82.2875
 1.6620	82.3611
 1.6610	82.2675
 1.6600	82.3430
 1.6590	82.3907
 1.6580	82.3111
 1.6570	82.4092
 1.6560	82.3848
 1.6550	82.4944
 1.6540	82.5134
 1.6530	82.4928
 1.6520	82.4665
 1.6510	82.5950
 1.6500	82.5731
 1.6490	82.6108
 1.6480	82.5141
 1.6470	82.5774
 1.6460	82.6253
 1.6450	82.6089
 1.6440	82.5881
 1.6430	82.5453
 1.6420	82.6361
 1.6410	82.7401
 1.6400	82.7202
 1.6390	82.7838
 1.6380	82.7554
 1.6370	82.7052
 1.6360	82.6129
 1.6350	82.7349
 1.6340	82.8228
 1.6330	82.8011
 1.6320	82.8002
 1.6310	82.8585
 1.6300	82.8377
 1.6290	82.8577
 1.6280	82.8460
 1.6270	82.8940
 1.6260	82.8672
 1.6250	82.8885
 1.6240	82.7891
 1.6230	82.9119
 1.6220	82.8651
 1.6210	82.9506
 1.6200	82.9651
 1.6190	82.9468
 1.6180	82.8711
 1.6170	82.9529
 1.6160	82.8759
 1.6150	82.9116
 1.6140	82.8776
 1.6130	82.9924
 1.6120	82.8421
 1.6110	82.9571
 1.6100	82.9982
 1.6090	82.9520
 1.6080	82.9327
 1.6070	82.9430
 1.6060	83.0170
 1.6050	83.0525
 1.6040	83.0489
 1.6030	83.0925
 1.6020	83.0586
 1.6010	83.0244
 1.6000	82.9598
 1.5990	83.0111
 1.5980	83.0170
 1.5970	83.0646
 1.5960	83.0393
 1.5950	83.0018
 1.5940	82.9881
 1.5930	83.0444
 1.5920	83.0357
 1.5910	83.0367
 1.5900	83.0236
 1.5890	83.0088
 1.5880	82.9808
 1.5870	83.0829
 1.5860	83.0426
 1.5850	83.0915
 1.5840	82.9984
 1.5830	83.0631
 1.5820	83.0979
 1.5810	83.1241
 1.5800	83.1377
 1.5790	83.1920
 1.5780	83.0936
 1.5770	83.1165
 1.5760	83.1543
 1.5750	83.1077
 1.5740	83.1009
 1.5730	83.1746
 1.5720	83.1779
 1.5710	83.1641
 1.5700	83.0953
 1.5690	83.1677
 1.5680	83.1978
 1.5670	83.2018
 1.5660	83.2179
 1.5650	83.1349
 1.5640	83.1250
 1.5630	83.1736
 1.5620	83.1806
 1.5610	83.2210
 1.5600	83.1469
 1.5590	83.2215
 1.5580	83.2702
 1.5570	83.2708
 1.5560	83.3526
 1.5550	83.2246
 1.5540	83.2049
 1.5530	83.2458
 1.5520	83.1946
 1.5510	83.2284
 1.5500	83.2073
 1.5490	83.2219
 1.5480	83.1892
 1.5470	83.1508
 1.5460	83.1731
 1.5450	83.2022
 1.5440	83.1371
 1.5430	83.1760
 1.5420	83.1640
 1.5410	83.0958
 1.5400	83.0619
 1.5390	83.0672
 1.5380	83.0366
 1.5370	83.0066
 1.5360	82.9607
 1.5350	82.8686
 1.5340	82.8700
 1.5330	82.9318
 1.5320	82.8851
 1.5310	82.9329
 1.5300	82.9374
 1.5290	82.8802
 1.5280	82.8839
 1.5270	82.9122
 1.5260	82.8844
 1.5250	82.8447
 1.5240	82.8206
 1.5230	82.8092
 1.5220	82.7683
 1.5210	82.7267
 1.5200	82.5948
 1.5190	82.5210
 1.5180	82.4871
 1.5170	82.4322
 1.5160	82.3227
 1.5150	82.1854
 1.5140	82.1259
 1.5130	82.0771
 1.5120	81.9312
 1.5110	81.8415
 1.5100	81.7140
 1.5090	81.5166
 1.5080	81.2770
 1.5070	81.0768
 1.5060	80.8332
 1.5050	80.5908
 1.5040	80.3780
 1.5030	80.2093
 1.5020	80.0435
 1.5010	79.8632
 1.5000	79.8210
 1.4990	79.7374
 1.4980	79.5995
 1.4970	79.5120
 1.4960	79.4224
 1.4950	79.2667
 1.4940	79.1579
 1.4930	79.0992
 1.4920	78.8706
 1.4910	78.6388
 1.4900	78.2783
 1.4890	77.7984
 1.4880	77.2501
 1.4870	76.3925
 1.4860	75.4312
 1.4850	74.3087
 1.4840	72.8903
 1.4830	71.1993
 1.4820	69.2746
 1.4810	67.3122
 1.4800	65.6188
 1.4790	64.6539
 1.4780	64.5432
 1.4770	65.2699
 1.4760	66.6650
 1.4750	68.3134
 1.4740	69.9838
 1.4730	71.4620
 1.4720	72.6643
 1.4710	73.6603
 1.4700	74.4683
 1.4690	75.0495
 1.4680	75.4187
 1.4670	75.7428
 1.4660	75.9877
 1.4650	76.1158
 1.4640	76.1661
 1.4630	76.1417
 1.4620	76.1224
 1.4610	76.1084
 1.4600	76.1685
 1.4590	76.2245
 1.4580	76.3800
 1.4570	76.5291
 1.4560	76.7578
 1.4550	76.9602
 1.4540	77.2008
 1.4530	77.4578
 1.4520	77.7769
 1.4510	78.0110
 1.4500	78.3257
 1.4490	78.6911
 1.4480	78.8576
 1.4470	78.9893
 1.4460	79.1850
 1.4450	79.3154
 1.4440	79.3781
 1.4430	79.3939
 1.4420	79.4975
 1.4410	79.4351
 1.4400	79.2586
 1.4390	79.0501
 1.4380	78.6149
 1.4370	77.9620
 1.4360	77.1674
 1.4350	76.2624
 1.4340	75.4104
 1.4330	74.6836
 1.4320	74.1600
 1.4310	73.7323
 1.4300	73.2843
 1.4290	72.6037
 1.4280	71.9510
 1.4270	71.4047
 1.4260	71.6827
 1.4250	72.5707
 1.4240	74.1435
 1.4230	75.8733
 1.4220	77.5758
 1.4210	78.9674
 1.4200	80.2023
 1.4190	80.9794
 1.4180	81.6059
 1.4170	82.0394
 1.4160	82.4673
 1.4150	82.6843
 1.4140	82.9177
 1.4130	83.1040
 1.4120	83.3216
 1.4110	83.3988
 1.4100	83.6574
 1.4090	83.7615
 1.4080	83.9643
 1.4070	84.1082
 1.4060	84.2609
 1.4050	84.3476
 1.4040	84.5007
 1.4030	84.6830
 1.4020	84.7999
 1.4010	84.8497
 1.4000	84.9359
 1.3990	85.0540
 1.3980	85.1944
 1.3970	85.3112
 1.3960	85.3079
 1.3950	85.3787
 1.3940	85.4332
 1.3930	85.4399
 1.3920	85.6391
 1.3910	85.6570
 1.3900	85.6975
 1.3890	85.8736
 1.3880	85.8281
 1.3870	85.8986
 1.3860	85.8463
 1.3850	85.8953
 1.3840	86.0502
 1.3830	85.9495
 1.3820	86.0700
 1.3810	85.8823
 1.3800	86.0054
 1.3790	85.9938
 1.3780	86.0500
 1.3770	86.0637
 1.3760	86.1376
 1.3750	86.2712
 1.3740	86.1629
 1.3730	86.2240
 1.3720	86.1494
 1.3710	86.2315
 1.3700	86.2845
 1.3690	86.2423
 1.3680	86.2505
 1.3670	86.1712
 1.3660	86.2207
 1.3650	86.0475
 1.3640	86.1176
