Name: Marcasite FeS_2
Type: Mineral
Class: Sulfide
Subclass: None
Particle Size: Fine
Sample No.: S-10A
Owner: JPL
Wavelength Range: VSWIR
Origin: USA, Indiana, Jasper County, Rensselaer, Pleasant Ridge Quarry.
Collection Date: N/A
Description: Particle size was 0-45um. Collected by:  Ward's Original ASTER Spectral Library name was jpl.perkin.mineral.sulfide.none.fine.s10a.spectrum.txt
Measurement: Hemispherical reflectance
First Column: X
Second Column: Y
X Units: Wavelength (micrometers)
Y Units:Reflectance (percent)
First X Value:  2.5000
Last X Value:  0.4000
Number of X Values: 2101
Additional Information: mineral.sulfide.none.fine.vswir.s-10a.jpl.perkin.ancillary.txt

 2.5000	15.0758
 2.4990	15.0759
 2.4980	15.0424
 2.4970	15.1956
 2.4960	14.6752
 2.4950	15.2742
 2.4940	14.9862
 2.4930	15.2176
 2.4920	15.0689
 2.4910	15.2567
 2.4900	15.2472
 2.4890	15.3560
 2.4880	15.2607
 2.4870	15.4591
 2.4860	15.3371
 2.4850	15.5339
 2.4840	15.4440
 2.4830	15.5020
 2.4820	16.5476
 2.4810	15.5908
 2.4800	15.4724
 2.4790	15.6466
 2.4780	15.5436
 2.4770	15.8361
 2.4760	15.6210
 2.4750	15.6530
 2.4740	15.7160
 2.4730	15.7628
 2.4720	15.6767
 2.4710	15.8107
 2.4700	15.6514
 2.4690	15.8743
 2.4680	15.8342
 2.4670	15.9763
 2.4660	15.8483
 2.4650	15.8066
 2.4640	15.7940
 2.4630	16.1079
 2.4620	15.9365
 2.4610	16.0109
 2.4600	15.8380
 2.4590	16.0191
 2.4580	15.9540
 2.4570	16.0578
 2.4560	16.0095
 2.4550	16.0559
 2.4540	16.0506
 2.4530	16.2333
 2.4520	16.0842
 2.4510	16.0838
 2.4500	16.1443
 2.4490	16.2147
 2.4480	16.1235
 2.4470	16.2586
 2.4460	16.1892
 2.4450	16.1753
 2.4440	16.1941
 2.4430	16.3434
 2.4420	16.1449
 2.4410	16.3626
 2.4400	16.2791
 2.4390	16.3549
 2.4380	16.2852
 2.4370	16.3391
 2.4360	16.2538
 2.4350	16.3832
 2.4340	16.2843
 2.4330	16.3492
 2.4320	16.3190
 2.4310	16.4822
 2.4300	16.3136
 2.4290	16.3990
 2.4280	16.2658
 2.4270	16.4376
 2.4260	16.4084
 2.4250	16.3717
 2.4240	16.3641
 2.4230	16.4515
 2.4220	16.4250
 2.4210	16.4018
 2.4200	16.4142
 2.4190	16.3725
 2.4180	16.3688
 2.4170	16.4441
 2.4160	16.3582
 2.4150	16.3559
 2.4140	16.2853
 2.4130	16.3449
 2.4120	16.3200
 2.4110	16.4044
 2.4100	16.2434
 2.4090	16.2939
 2.4080	16.2620
 2.4070	16.3066
 2.4060	16.2448
 2.4050	16.2814
 2.4040	16.2002
 2.4030	16.2505
 2.4020	16.1932
 2.4010	16.3060
 2.4000	16.2743
 2.3990	16.3143
 2.3980	16.2623
 2.3970	16.3279
 2.3960	16.3387
 2.3950	16.3864
 2.3940	16.3632
 2.3930	16.3906
 2.3920	16.4614
 2.3910	16.5354
 2.3900	16.5087
 2.3890	16.5644
 2.3880	16.5812
 2.3870	16.6693
 2.3860	16.6593
 2.3850	16.7135
 2.3840	16.7271
 2.3830	16.7677
 2.3820	16.8140
 2.3810	16.8100
 2.3800	16.8025
 2.3790	16.9756
 2.3780	16.9799
 2.3770	16.9796
 2.3760	17.0248
 2.3750	17.0312
 2.3740	17.0161
 2.3730	17.1238
 2.3720	17.1022
 2.3710	17.1482
 2.3700	17.1891
 2.3690	17.1813
 2.3680	17.1736
 2.3670	17.2501
 2.3660	17.3037
 2.3650	17.3418
 2.3640	17.3784
 2.3630	17.3594
 2.3620	17.3608
 2.3610	17.4451
 2.3600	17.4885
 2.3590	17.4542
 2.3580	17.4411
 2.3570	17.4770
 2.3560	17.4808
 2.3550	17.5058
 2.3540	17.5617
 2.3530	17.5752
 2.3520	17.5281
 2.3510	17.5626
 2.3500	17.5857
 2.3490	17.5964
 2.3480	17.6204
 2.3470	17.6097
 2.3460	17.6469
 2.3450	17.6673
 2.3440	17.7248
 2.3430	17.6547
 2.3420	17.6438
 2.3410	17.6976
 2.3400	17.7180
 2.3390	17.7010
 2.3380	17.7313
 2.3370	17.7495
 2.3360	17.7472
 2.3350	17.7205
 2.3340	17.7628
 2.3330	17.7548
 2.3320	17.8139
 2.3310	17.7971
 2.3300	17.8716
 2.3290	17.9012
 2.3280	17.8634
 2.3270	17.7905
 2.3260	17.8605
 2.3250	17.8727
 2.3240	17.8734
 2.3230	17.7511
 2.3220	17.8421
 2.3210	17.8414
 2.3200	17.9207
 2.3190	17.9060
 2.3180	17.8976
 2.3170	17.9018
 2.3160	17.9949
 2.3150	17.9039
 2.3140	17.9267
 2.3130	17.8972
 2.3120	17.9329
 2.3110	17.8615
 2.3100	17.9014
 2.3090	17.9320
 2.3080	18.0141
 2.3070	17.9875
 2.3060	17.9929
 2.3050	17.9289
 2.3040	17.9608
 2.3030	17.9479
 2.3020	18.0158
 2.3010	17.9720
 2.3000	18.0820
 2.2990	17.9812
 2.2980	18.0014
 2.2970	17.9655
 2.2960	18.0178
 2.2950	18.0138
 2.2940	18.0246
 2.2930	18.0518
 2.2920	18.0835
 2.2910	18.0447
 2.2900	18.0944
 2.2890	18.0321
 2.2880	18.0681
 2.2870	18.0762
 2.2860	18.0789
 2.2850	18.0261
 2.2840	18.1057
 2.2830	18.1326
 2.2820	18.1117
 2.2810	18.0641
 2.2800	18.1072
 2.2790	18.1660
 2.2780	18.1511
 2.2770	18.0538
 2.2760	18.1183
 2.2750	18.0380
 2.2740	18.1132
 2.2730	18.0081
 2.2720	18.1582
 2.2710	18.0851
 2.2700	18.0537
 2.2690	18.0658
 2.2680	18.1476
 2.2670	18.0568
 2.2660	18.1516
 2.2650	18.0604
 2.2640	18.1488
 2.2630	18.0773
 2.2620	18.1220
 2.2610	18.0836
 2.2600	18.0953
 2.2590	18.0150
 2.2580	18.1431
 2.2570	18.0516
 2.2560	18.1005
 2.2550	18.0641
 2.2540	18.0875
 2.2530	17.9877
 2.2520	18.1371
 2.2510	17.9725
 2.2500	18.1418
 2.2490	17.9655
 2.2480	18.1062
 2.2470	17.9626
 2.2460	18.0796
 2.2450	17.9826
 2.2440	18.0400
 2.2430	17.9500
 2.2420	17.9678
 2.2410	17.9712
 2.2400	18.0430
 2.2390	17.9507
 2.2380	17.9806
 2.2370	17.9031
 2.2360	18.0055
 2.2350	17.9183
 2.2340	17.9918
 2.2330	17.9514
 2.2320	17.9919
 2.2310	17.9826
 2.2300	17.9334
 2.2290	17.8826
 2.2280	18.0391
 2.2270	17.8969
 2.2260	17.9649
 2.2250	17.8952
 2.2240	17.9769
 2.2230	17.8738
 2.2220	17.9774
 2.2210	17.8383
 2.2200	18.0443
 2.2190	17.6239
 2.2180	17.9227
 2.2170	17.9148
 2.2160	17.9886
 2.2150	17.8965
 2.2140	17.9019
 2.2130	17.8739
 2.2120	18.0293
 2.2110	17.7638
 2.2100	17.9573
 2.2090	17.7964
 2.2080	17.9649
 2.2070	17.8786
 2.2060	17.9512
 2.2050	17.8818
 2.2040	17.9173
 2.2030	17.9198
 2.2020	17.9435
 2.2010	17.8929
 2.2000	17.8830
 2.1990	17.8175
 2.1980	17.9185
 2.1970	17.8467
 2.1960	17.8623
 2.1950	17.7967
 2.1940	17.9028
 2.1930	17.8471
 2.1920	17.8927
 2.1910	17.7687
 2.1900	17.8257
 2.1890	17.7538
 2.1880	17.8715
 2.1870	17.7573
 2.1860	17.8461
 2.1850	17.6981
 2.1840	17.8060
 2.1830	17.6757
 2.1820	17.7847
 2.1810	17.6944
 2.1800	17.7998
 2.1790	17.7434
 2.1780	17.7285
 2.1770	17.6832
 2.1760	17.7502
 2.1750	17.7271
 2.1740	17.7060
 2.1730	17.6705
 2.1720	17.7659
 2.1710	17.6357
 2.1700	17.6848
 2.1690	17.5737
 2.1680	17.6986
 2.1670	17.5601
 2.1660	17.6355
 2.1650	17.6226
 2.1640	17.6347
 2.1630	17.4449
 2.1620	17.5903
 2.1610	17.4883
 2.1600	17.5532
 2.1590	17.4870
 2.1580	17.5726
 2.1570	17.5177
 2.1560	17.5354
 2.1550	17.4134
 2.1540	17.4799
 2.1530	17.3894
 2.1520	17.4611
 2.1510	17.3510
 2.1500	17.3139
 2.1490	17.3763
 2.1480	17.3235
 2.1470	17.2394
 2.1460	17.2397
 2.1450	17.2060
 2.1440	17.2081
 2.1430	17.1030
 2.1420	17.0739
 2.1410	16.9991
 2.1400	17.0444
 2.1390	16.9990
 2.1380	16.9449
 2.1370	16.8660
 2.1360	16.9278
 2.1350	16.7904
 2.1340	16.8121
 2.1330	16.6725
 2.1320	16.6739
 2.1310	16.5734
 2.1300	16.5725
 2.1290	16.5569
 2.1280	16.5688
 2.1270	16.4742
 2.1260	16.4198
 2.1250	16.3796
 2.1240	16.3663
 2.1230	16.2411
 2.1220	16.2508
 2.1210	16.1518
 2.1200	16.2030
 2.1190	16.1120
 2.1180	16.0835
 2.1170	16.0169
 2.1160	16.0020
 2.1150	15.9489
 2.1140	15.8767
 2.1130	15.8767
 2.1120	15.8722
 2.1110	15.7452
 2.1100	15.6950
 2.1090	15.6758
 2.1080	15.7163
 2.1070	15.6614
 2.1060	15.6608
 2.1050	15.6282
 2.1040	15.6308
 2.1030	15.5928
 2.1020	15.6165
 2.1010	15.5208
 2.1000	15.5446
 2.0990	15.5396
 2.0980	15.5628
 2.0970	15.5616
 2.0960	15.5619
 2.0950	15.4857
 2.0940	15.5130
 2.0930	15.5336
 2.0920	15.5754
 2.0910	15.5614
 2.0900	15.6204
 2.0890	15.6084
 2.0880	15.6045
 2.0870	15.5906
 2.0860	15.6152
 2.0850	15.5806
 2.0840	15.6376
 2.0830	15.6635
 2.0820	15.6706
 2.0810	15.6440
 2.0800	15.6697
 2.0790	15.6653
 2.0780	15.6503
 2.0770	15.6936
 2.0760	15.7473
 2.0750	15.7418
 2.0740	15.7161
 2.0730	15.7034
 2.0720	15.7025
 2.0710	15.6937
 2.0700	15.7242
 2.0690	15.7798
 2.0680	15.7901
 2.0670	15.7522
 2.0660	15.7324
 2.0650	15.7495
 2.0640	15.7781
 2.0630	15.7800
 2.0620	15.7962
 2.0610	15.8596
 2.0600	15.8285
 2.0590	15.8675
 2.0580	15.9205
 2.0570	15.9144
 2.0560	15.9081
 2.0550	15.9037
 2.0540	15.9124
 2.0530	15.9229
 2.0520	15.9774
 2.0510	16.0066
 2.0500	16.0040
 2.0490	16.0395
 2.0480	16.0373
 2.0470	16.0769
 2.0460	16.0439
 2.0450	16.0725
 2.0440	16.0603
 2.0430	16.1644
 2.0420	16.1562
 2.0410	16.1336
 2.0400	16.1125
 2.0390	16.1888
 2.0380	16.1531
 2.0370	16.1418
 2.0360	16.1534
 2.0350	16.1524
 2.0340	16.1290
 2.0330	16.2034
 2.0320	16.2316
 2.0310	16.2244
 2.0300	16.2298
 2.0290	16.2418
 2.0280	16.2019
 2.0270	16.2145
 2.0260	16.1662
 2.0250	16.2605
 2.0240	16.1971
 2.0230	16.2404
 2.0220	16.2495
 2.0210	16.2942
 2.0200	16.2442
 2.0190	16.2977
 2.0180	16.3002
 2.0170	16.3510
 2.0160	16.2970
 2.0150	16.2442
 2.0140	16.2437
 2.0130	16.2724
 2.0120	16.1834
 2.0110	16.3269
 2.0100	16.2514
 2.0090	16.2669
 2.0080	16.2732
 2.0070	16.2720
 2.0060	16.2673
 2.0050	16.3106
 2.0040	16.2861
 2.0030	16.3595
 2.0020	16.3336
 2.0010	16.3713
 2.0000	16.2285
 1.9990	16.3914
 1.9980	16.3745
 1.9970	16.3199
 1.9960	16.2568
 1.9950	16.3448
 1.9940	16.2967
 1.9930	16.3495
 1.9920	16.3172
 1.9910	16.3762
 1.9900	16.2379
 1.9890	16.3733
 1.9880	16.3652
 1.9870	16.3952
 1.9860	16.3275
 1.9850	16.4514
 1.9840	16.3666
 1.9830	16.4179
 1.9820	16.3993
 1.9810	16.4547
 1.9800	16.3370
 1.9790	16.4231
 1.9780	16.3975
 1.9770	16.4649
 1.9760	16.3981
 1.9750	16.4868
 1.9740	16.4807
 1.9730	16.5198
 1.9720	16.4572
 1.9710	16.5509
 1.9700	16.4939
 1.9690	16.5483
 1.9680	16.4899
 1.9670	16.6767
 1.9660	16.5389
 1.9650	16.6724
 1.9640	16.5291
 1.9630	16.6266
 1.9620	16.5646
 1.9610	16.7092
 1.9600	16.6047
 1.9590	16.6422
 1.9580	16.5266
 1.9570	16.7047
 1.9560	16.5895
 1.9550	16.6221
 1.9540	16.6024
 1.9530	16.7076
 1.9520	16.5331
 1.9510	16.5579
 1.9500	16.5426
 1.9490	16.5917
 1.9480	16.5074
 1.9470	16.5211
 1.9460	16.5014
 1.9450	16.6169
 1.9440	16.5099
 1.9430	16.5626
 1.9420	16.4308
 1.9410	16.5334
 1.9400	16.5482
 1.9390	16.5314
 1.9380	16.5474
 1.9370	16.6874
 1.9360	16.5942
 1.9350	16.6643
 1.9340	16.5174
 1.9330	16.6902
 1.9320	16.6877
 1.9310	16.6480
 1.9300	16.6223
 1.9290	16.8556
 1.9280	16.6267
 1.9270	16.9586
 1.9260	16.6954
 1.9250	16.9555
 1.9240	16.8923
 1.9230	16.9043
 1.9220	16.9286
 1.9210	17.0352
 1.9200	16.8804
 1.9190	17.1038
 1.9180	17.0411
 1.9170	17.2025
 1.9160	17.1059
 1.9150	17.2006
 1.9140	17.1696
 1.9130	17.3221
 1.9120	17.2183
 1.9110	17.3347
 1.9100	17.3434
 1.9090	17.4747
 1.9080	17.4688
 1.9070	17.5142
 1.9060	17.5042
 1.9050	17.5949
 1.9040	17.5242
 1.9030	17.6216
 1.9020	17.6089
 1.9010	17.6696
 1.9000	17.6605
 1.8990	17.7007
 1.8980	17.7827
 1.8970	17.8145
 1.8960	17.6825
 1.8950	17.8294
 1.8940	17.7708
 1.8930	17.8681
 1.8920	17.8762
 1.8910	17.8816
 1.8900	17.8774
 1.8890	17.9654
 1.8880	17.9005
 1.8870	18.0142
 1.8860	17.9486
 1.8850	18.0068
 1.8840	17.9345
 1.8830	18.0557
 1.8820	17.9485
 1.8810	18.0524
 1.8800	18.0341
 1.8790	18.1470
 1.8780	18.0603
 1.8770	18.1331
 1.8760	18.0999
 1.8750	18.0779
 1.8740	18.0571
 1.8730	18.0704
 1.8720	18.0536
 1.8710	18.0928
 1.8700	18.0098
 1.8690	18.0166
 1.8680	18.0258
 1.8670	18.0836
 1.8660	18.0050
 1.8650	18.1288
 1.8640	18.1306
 1.8630	18.1779
 1.8620	18.1275
 1.8610	18.1847
 1.8600	18.0746
 1.8590	18.1334
 1.8580	18.0745
 1.8570	18.0835
 1.8560	18.0285
 1.8550	18.1394
 1.8540	18.0617
 1.8530	18.1533
 1.8520	18.1622
 1.8510	18.1878
 1.8500	18.1860
 1.8490	18.1688
 1.8480	18.1102
 1.8470	18.1385
 1.8460	18.0373
 1.8450	18.0871
 1.8440	18.1402
 1.8430	18.1080
 1.8420	18.0491
 1.8410	18.1102
 1.8400	18.0584
 1.8390	18.1158
 1.8380	18.0470
 1.8370	18.0118
 1.8360	18.0326
 1.8350	18.0732
 1.8340	18.0386
 1.8330	18.0960
 1.8320	18.1022
 1.8310	18.0959
 1.8300	18.1065
 1.8290	18.1142
 1.8280	18.0623
 1.8270	18.1316
 1.8260	18.0812
 1.8250	18.1118
 1.8240	18.0635
 1.8230	18.0779
 1.8220	18.0186
 1.8210	18.0693
 1.8200	18.0265
 1.8190	18.0418
 1.8180	18.0684
 1.8170	18.0849
 1.8160	18.0239
 1.8150	18.0076
 1.8140	18.0344
 1.8130	18.0641
 1.8120	18.0137
 1.8110	18.0509
 1.8100	18.0961
 1.8090	18.0904
 1.8080	18.0314
 1.8070	18.0459
 1.8060	18.0356
 1.8050	18.0586
 1.8040	18.0593
 1.8030	18.0694
 1.8020	18.0595
 1.8010	18.0610
 1.8000	18.0226
 1.7990	18.0103
 1.7980	18.0000
 1.7970	17.9994
 1.7960	18.0078
 1.7950	17.9897
 1.7940	17.9710
 1.7930	17.9896
 1.7920	17.9499
 1.7910	17.9401
 1.7900	17.9489
 1.7890	18.0026
 1.7880	18.0680
 1.7870	17.9911
 1.7860	17.9280
 1.7850	17.9123
 1.7840	17.9505
 1.7830	17.9636
 1.7820	17.9535
 1.7810	17.9289
 1.7800	17.9080
 1.7790	17.9844
 1.7780	17.9685
 1.7770	17.9153
 1.7760	17.9287
 1.7750	17.9095
 1.7740	17.9178
 1.7730	17.9564
 1.7720	17.9525
 1.7710	17.9070
 1.7700	17.9039
 1.7690	17.8901
 1.7680	17.8947
 1.7670	17.8793
 1.7660	17.8889
 1.7650	17.9056
 1.7640	17.9248
 1.7630	17.8782
 1.7620	17.8685
 1.7610	17.8719
 1.7600	17.8811
 1.7590	17.8532
 1.7580	17.8341
 1.7570	17.8374
 1.7560	17.8795
 1.7550	17.8389
 1.7540	17.8614
 1.7530	17.8440
 1.7520	17.9146
 1.7510	17.8283
 1.7500	17.8368
 1.7490	17.8864
 1.7480	17.8439
 1.7470	17.8102
 1.7460	17.8742
 1.7450	17.8284
 1.7440	17.8078
 1.7430	17.8072
 1.7420	17.8422
 1.7410	17.8069
 1.7400	17.8565
 1.7390	17.7949
 1.7380	17.8696
 1.7370	17.7804
 1.7360	17.8287
 1.7350	17.7967
 1.7340	17.8103
 1.7330	17.7893
 1.7320	17.8229
 1.7310	17.7893
 1.7300	17.8731
 1.7290	17.8513
 1.7280	17.8306
 1.7270	17.8249
 1.7260	17.8546
 1.7250	17.8253
 1.7240	17.8584
 1.7230	17.7767
 1.7220	17.8085
 1.7210	17.8203
 1.7200	17.8562
 1.7190	17.7986
 1.7180	17.8603
 1.7170	17.7791
 1.7160	17.7963
 1.7150	17.7543
 1.7140	17.7851
 1.7130	17.7604
 1.7120	17.7781
 1.7110	17.7389
 1.7100	17.8497
 1.7090	17.7411
 1.7080	17.7887
 1.7070	17.7541
 1.7060	17.7836
 1.7050	17.6900
 1.7040	17.7883
 1.7030	17.6853
 1.7020	17.7283
 1.7010	17.7338
 1.7000	17.8128
 1.6990	17.7685
 1.6980	17.7493
 1.6970	17.7136
 1.6960	17.8035
 1.6950	17.7155
 1.6940	17.7137
 1.6930	17.6991
 1.6920	17.6609
 1.6910	17.6185
 1.6900	17.7659
 1.6890	17.6601
 1.6880	17.7529
 1.6870	17.7194
 1.6860	17.7517
 1.6850	17.6665
 1.6840	17.7458
 1.6830	17.6804
 1.6820	17.7570
 1.6810	17.5978
 1.6800	17.7280
 1.6790	17.6301
 1.6780	17.6968
 1.6770	17.6326
 1.6760	17.7019
 1.6750	17.6013
 1.6740	17.7837
 1.6730	17.6666
 1.6720	17.7437
 1.6710	17.5864
 1.6700	17.7583
 1.6690	17.8599
 1.6680	17.5911
 1.6670	17.6941
 1.6660	17.6940
 1.6650	17.5900
 1.6640	17.7119
 1.6630	17.6130
 1.6620	17.7414
 1.6610	17.6893
 1.6600	17.6917
 1.6590	17.5621
 1.6580	17.7119
 1.6570	17.5899
 1.6560	17.8011
 1.6550	17.6172
 1.6540	17.6962
 1.6530	17.5379
 1.6520	17.6617
 1.6510	17.5668
 1.6500	17.6323
 1.6490	17.4936
 1.6480	17.7211
 1.6470	17.5984
 1.6460	17.6391
 1.6450	17.5665
 1.6440	17.6068
 1.6430	17.5522
 1.6420	17.7146
 1.6410	17.3561
 1.6400	17.7211
 1.6390	17.5276
 1.6380	17.6044
 1.6370	17.4588
 1.6360	17.4986
 1.6350	17.4704
 1.6340	17.6195
 1.6330	17.5801
 1.6320	17.5375
 1.6310	17.4579
 1.6300	17.4883
 1.6290	17.4783
 1.6280	17.5976
 1.6270	17.4736
 1.6260	17.5683
 1.6250	17.4601
 1.6240	17.5390
 1.6230	17.4790
 1.6220	17.5433
 1.6210	17.4284
 1.6200	17.4775
 1.6190	17.4408
 1.6180	17.4758
 1.6170	17.4116
 1.6160	17.4714
 1.6150	17.4909
 1.6140	17.5572
 1.6130	17.3888
 1.6120	17.4526
 1.6110	17.3353
 1.6100	17.4380
 1.6090	17.3689
 1.6080	17.4511
 1.6070	17.3866
 1.6060	17.3965
 1.6050	17.3304
 1.6040	17.4127
 1.6030	17.3827
 1.6020	17.4439
 1.6010	17.4063
 1.6000	17.4980
 1.5990	17.3986
 1.5980	17.4221
 1.5970	17.3638
 1.5960	17.4605
 1.5950	17.3359
 1.5940	17.3821
 1.5930	17.3127
 1.5920	17.3723
 1.5910	17.3692
 1.5900	17.4141
 1.5890	17.3685
 1.5880	17.4502
 1.5870	17.3225
 1.5860	17.3325
 1.5850	17.2673
 1.5840	17.3456
 1.5830	17.3040
 1.5820	17.3461
 1.5810	17.2750
 1.5800	17.3544
 1.5790	17.3096
 1.5780	17.3395
 1.5770	17.2462
 1.5760	17.2886
 1.5750	17.2191
 1.5740	17.3090
 1.5730	17.2556
 1.5720	17.2938
 1.5710	17.2291
 1.5700	17.2777
 1.5690	17.1998
 1.5680	17.2769
 1.5670	17.2509
 1.5660	17.2341
 1.5650	17.1533
 1.5640	17.2589
 1.5630	17.1626
 1.5620	17.2228
 1.5610	17.2246
 1.5600	17.1801
 1.5590	17.1466
 1.5580	17.1581
 1.5570	17.1376
 1.5560	17.1635
 1.5550	17.1143
 1.5540	17.1872
 1.5530	17.0856
 1.5520	17.1031
 1.5510	17.1146
 1.5500	17.0988
 1.5490	17.0548
 1.5480	17.0974
 1.5470	17.0365
 1.5460	17.0954
 1.5450	17.0355
 1.5440	17.0520
 1.5430	17.0432
 1.5420	17.0986
 1.5410	17.0214
 1.5400	17.0247
 1.5390	16.9854
 1.5380	17.0128
 1.5370	16.9764
 1.5360	17.0107
 1.5350	17.0019
 1.5340	16.9826
 1.5330	16.9531
 1.5320	16.9851
 1.5310	16.9312
 1.5300	16.9651
 1.5290	16.9185
 1.5280	16.9542
 1.5270	16.9163
 1.5260	16.8708
 1.5250	16.8673
 1.5240	16.9291
 1.5230	16.9510
 1.5220	16.9276
 1.5210	16.8860
 1.5200	16.8894
 1.5190	16.8838
 1.5180	16.8508
 1.5170	16.8235
 1.5160	16.8831
 1.5150	16.8472
 1.5140	16.8719
 1.5130	16.8410
 1.5120	16.8248
 1.5110	16.8343
 1.5100	16.8296
 1.5090	16.8513
 1.5080	16.8674
 1.5070	16.8413
 1.5060	16.8695
 1.5050	16.8759
 1.5040	16.8621
 1.5030	16.8427
 1.5020	16.8566
 1.5010	16.8802
 1.5000	16.8629
 1.4990	16.8088
 1.4980	16.8238
 1.4970	16.8134
 1.4960	16.7938
 1.4950	16.7937
 1.4940	16.7749
 1.4930	16.7585
 1.4920	16.7618
 1.4910	16.7926
 1.4900	16.7626
 1.4890	16.7578
 1.4880	16.7335
 1.4870	16.7544
 1.4860	16.8197
 1.4850	16.7982
 1.4840	16.7378
 1.4830	16.7361
 1.4820	16.7343
 1.4810	16.7400
 1.4800	16.6918
 1.4790	16.7145
 1.4780	16.6990
 1.4770	16.7091
 1.4760	16.7009
 1.4750	16.7012
 1.4740	16.6869
 1.4730	16.7369
 1.4720	16.7314
 1.4710	16.7058
 1.4700	16.6584
 1.4690	16.6517
 1.4680	16.6546
 1.4670	16.7206
 1.4660	16.6453
 1.4650	16.6291
 1.4640	16.5690
 1.4630	16.5954
 1.4620	16.6235
 1.4610	16.6536
 1.4600	16.5608
 1.4590	16.5729
 1.4580	16.5282
 1.4570	16.5357
 1.4560	16.5199
 1.4550	16.5268
 1.4540	16.4564
 1.4530	16.5777
 1.4520	16.4839
 1.4510	16.4850
 1.4500	16.4805
 1.4490	16.4826
 1.4480	16.4560
 1.4470	16.5363
 1.4460	16.4019
 1.4450	16.4452
 1.4440	16.4304
 1.4430	16.5055
 1.4420	16.4155
 1.4410	16.3987
 1.4400	16.4023
 1.4390	16.4341
 1.4380	16.4391
 1.4370	16.4066
 1.4360	16.3853
 1.4350	16.3995
 1.4340	16.3549
 1.4330	16.3794
 1.4320	16.3330
 1.4310	16.3671
 1.4300	16.2997
 1.4290	16.4247
 1.4280	16.2846
 1.4270	16.3476
 1.4260	16.2942
 1.4250	16.3924
 1.4240	16.3190
 1.4230	16.4095
 1.4220	16.2636
 1.4210	16.3205
 1.4200	16.2715
 1.4190	16.2730
 1.4180	16.2131
 1.4170	16.2652
 1.4160	16.1845
 1.4150	16.3249
 1.4140	16.2186
 1.4130	16.2741
 1.4120	16.1524
 1.4110	16.2544
 1.4100	16.1160
 1.4090	16.1596
 1.4080	16.1319
 1.4070	16.2098
 1.4060	16.1529
 1.4050	16.1588
 1.4040	16.0422
 1.4030	16.1296
 1.4020	16.0918
 1.4010	16.1144
 1.4000	16.0264
 1.3990	16.1130
 1.3980	16.0266
 1.3970	16.0928
 1.3960	16.1195
 1.3950	16.1101
 1.3940	15.9571
 1.3930	16.0468
 1.3920	15.9404
 1.3910	16.0980
 1.3900	16.0260
 1.3890	16.1312
 1.3880	15.9519
 1.3870	15.9883
 1.3860	15.9253
 1.3850	15.9760
 1.3840	15.9107
 1.3830	15.9192
 1.3820	15.8047
 1.3810	15.9101
 1.3800	15.8121
 1.3790	15.8822
 1.3780	15.8391
 1.3770	15.9132
 1.3760	15.8079
 1.3750	15.9407
 1.3740	15.7733
 1.3730	15.9116
 1.3720	15.7484
 1.3710	15.7853
 1.3700	15.6156
 1.3690	15.8232
 1.3680	15.7153
 1.3670	15.8057
 1.3660	15.7536
