Name: Microcline (Feldspar) (K,Na)AlSi_3O_8
Type: Mineral
Class: Silicate
Subclass: Tectosilicate
Particle Size: Coarse
Sample No.: TS-17A
Owner: JPL
Wavelength Range: VSWIR
Origin: Unknown.
Collection Date: N/A
Description: Particle size was 125-500um. Collected by:  JPL Original ASTER Spectral Library name was jpl.perkin.mineral.silicate.tectosilicate.coarse.ts17a.spectrum.txt
Measurement: Hemispherical reflectance
First Column: X
Second Column: Y
X Units: Wavelength (micrometers)
Y Units:Reflectance (percent)
First X Value:  2.5000
Last X Value:  0.4000
Number of X Values: 2101
Additional Information: mineral.silicate.tectosilicate.coarse.vswir.ts-17a.jpl.perkin.ancillary.txt

 2.5000	58.7270
 2.4990	58.6170
 2.4980	58.4821
 2.4970	58.6256
 2.4960	58.3582
 2.4950	58.5892
 2.4940	58.3358
 2.4930	58.4223
 2.4920	58.3302
 2.4910	58.4177
 2.4900	58.4297
 2.4890	58.5173
 2.4880	58.5222
 2.4870	58.5551
 2.4860	58.4332
 2.4850	58.5838
 2.4840	58.5803
 2.4830	58.7018
 2.4820	58.5571
 2.4810	58.6430
 2.4800	58.6590
 2.4790	58.7254
 2.4780	58.7076
 2.4770	58.7924
 2.4760	58.7002
 2.4750	58.8062
 2.4740	58.6224
 2.4730	58.5986
 2.4720	58.8112
 2.4710	58.8978
 2.4700	58.8026
 2.4690	58.8268
 2.4680	58.9425
 2.4670	58.9751
 2.4660	58.9035
 2.4650	58.8654
 2.4640	58.8188
 2.4630	58.9302
 2.4620	58.8475
 2.4610	58.8984
 2.4600	58.7757
 2.4590	58.9416
 2.4580	58.8696
 2.4570	58.9245
 2.4560	58.9069
 2.4550	58.8613
 2.4540	58.9219
 2.4530	58.8522
 2.4520	58.7998
 2.4510	58.8573
 2.4500	58.7307
 2.4490	58.8567
 2.4480	58.7676
 2.4470	58.9812
 2.4460	58.8368
 2.4450	58.7801
 2.4440	58.8068
 2.4430	58.8654
 2.4420	58.7906
 2.4410	58.9602
 2.4400	58.9264
 2.4390	58.9587
 2.4380	58.9083
 2.4370	59.1338
 2.4360	59.0773
 2.4350	59.0954
 2.4340	59.1268
 2.4330	59.3329
 2.4320	59.4268
 2.4310	59.5447
 2.4300	59.4895
 2.4290	59.7011
 2.4280	59.7087
 2.4270	59.8344
 2.4260	60.0152
 2.4250	60.1238
 2.4240	60.2411
 2.4230	60.3600
 2.4220	60.4810
 2.4210	60.6589
 2.4200	60.8030
 2.4190	60.8241
 2.4180	61.0005
 2.4170	61.2058
 2.4160	61.3820
 2.4150	61.5510
 2.4140	61.6981
 2.4130	61.8115
 2.4120	61.9021
 2.4110	62.0370
 2.4100	62.2261
 2.4090	62.3685
 2.4080	62.4143
 2.4070	62.5421
 2.4060	62.6749
 2.4050	62.8269
 2.4040	63.0095
 2.4030	63.1163
 2.4020	63.2419
 2.4010	63.2955
 2.4000	63.3792
 2.3990	63.4680
 2.3980	63.4729
 2.3970	63.5959
 2.3960	63.7535
 2.3950	63.8216
 2.3940	63.9064
 2.3930	63.8773
 2.3920	63.9476
 2.3910	63.9864
 2.3900	63.9636
 2.3890	64.0501
 2.3880	64.1399
 2.3870	64.1355
 2.3860	64.1208
 2.3850	64.1954
 2.3840	64.2674
 2.3830	64.2684
 2.3820	64.3248
 2.3810	64.3266
 2.3800	64.3063
 2.3790	64.3588
 2.3780	64.3994
 2.3770	64.4843
 2.3760	64.5231
 2.3750	64.4897
 2.3740	64.5080
 2.3730	64.5258
 2.3720	64.5753
 2.3710	64.5917
 2.3700	64.5143
 2.3690	64.5333
 2.3680	64.5890
 2.3670	64.5905
 2.3660	64.5602
 2.3650	64.5841
 2.3640	64.5147
 2.3630	64.4704
 2.3620	64.4713
 2.3610	64.4108
 2.3600	64.3430
 2.3590	64.2752
 2.3580	64.1925
 2.3570	64.1958
 2.3560	64.0977
 2.3550	64.0115
 2.3540	63.9801
 2.3530	63.9193
 2.3520	63.8420
 2.3510	63.7667
 2.3500	63.6837
 2.3490	63.6242
 2.3480	63.6203
 2.3470	63.5678
 2.3460	63.5455
 2.3450	63.5453
 2.3440	63.5797
 2.3430	63.5830
 2.3420	63.6466
 2.3410	63.7152
 2.3400	63.7755
 2.3390	63.8753
 2.3380	63.9831
 2.3370	64.0473
 2.3360	64.0816
 2.3350	64.1617
 2.3340	64.3249
 2.3330	64.4947
 2.3320	64.6664
 2.3310	64.8154
 2.3300	64.9869
 2.3290	65.1265
 2.3280	65.3098
 2.3270	65.5120
 2.3260	65.6226
 2.3250	65.7609
 2.3240	66.0020
 2.3230	66.2056
 2.3220	66.4135
 2.3210	66.5237
 2.3200	66.7434
 2.3190	66.9747
 2.3180	67.1449
 2.3170	67.3245
 2.3160	67.4924
 2.3150	67.6775
 2.3140	67.8374
 2.3130	68.0266
 2.3120	68.2275
 2.3110	68.3648
 2.3100	68.5427
 2.3090	68.7347
 2.3080	68.8770
 2.3070	69.0235
 2.3060	69.2493
 2.3050	69.4080
 2.3040	69.5787
 2.3030	69.6822
 2.3020	69.8457
 2.3010	69.9493
 2.3000	70.1009
 2.2990	70.2318
 2.2980	70.3491
 2.2970	70.5394
 2.2960	70.5997
 2.2950	70.7031
 2.2940	70.8052
 2.2930	70.8760
 2.2920	71.0634
 2.2910	71.1047
 2.2900	71.2447
 2.2890	71.2590
 2.2880	71.3521
 2.2870	71.4269
 2.2860	71.5221
 2.2850	71.5586
 2.2840	71.7025
 2.2830	71.7386
 2.2820	71.6935
 2.2810	71.7123
 2.2800	71.8022
 2.2790	71.8602
 2.2780	71.9592
 2.2770	71.9555
 2.2760	71.9937
 2.2750	71.9179
 2.2740	72.0179
 2.2730	72.0268
 2.2720	72.0083
 2.2710	71.9876
 2.2700	72.0022
 2.2690	71.9701
 2.2680	71.9936
 2.2670	72.0525
 2.2660	71.9818
 2.2650	71.9534
 2.2640	71.9425
 2.2630	71.8363
 2.2620	71.8019
 2.2610	71.8033
 2.2600	71.7480
 2.2590	71.6458
 2.2580	71.6958
 2.2570	71.5866
 2.2560	71.6509
 2.2550	71.4554
 2.2540	71.4663
 2.2530	71.5046
 2.2520	71.3612
 2.2510	71.3646
 2.2500	71.2894
 2.2490	71.2438
 2.2480	71.1377
 2.2470	71.1384
 2.2460	71.1858
 2.2450	71.0558
 2.2440	71.0395
 2.2430	70.9563
 2.2420	70.9761
 2.2410	70.9259
 2.2400	70.8950
 2.2390	70.8262
 2.2380	70.7086
 2.2370	70.6543
 2.2360	70.5459
 2.2350	70.4295
 2.2340	70.4045
 2.2330	70.3360
 2.2320	70.2037
 2.2310	70.0417
 2.2300	69.9843
 2.2290	69.7902
 2.2280	69.7100
 2.2270	69.5775
 2.2260	69.3327
 2.2250	69.2512
 2.2240	68.9864
 2.2230	68.7467
 2.2220	68.6243
 2.2210	68.4160
 2.2200	68.1771
 2.2190	67.8001
 2.2180	67.4470
 2.2170	67.0355
 2.2160	66.8793
 2.2150	66.4175
 2.2140	66.0212
 2.2130	65.5808
 2.2120	65.2897
 2.2110	64.7641
 2.2100	64.5639
 2.2090	64.0751
 2.2080	63.8999
 2.2070	63.5283
 2.2060	63.1738
 2.2050	62.8207
 2.2040	62.6758
 2.2030	62.4537
 2.2020	62.2740
 2.2010	62.1920
 2.2000	62.0090
 2.1990	61.9279
 2.1980	61.9662
 2.1970	61.9290
 2.1960	62.0075
 2.1950	62.0662
 2.1940	62.2402
 2.1930	62.3860
 2.1920	62.6023
 2.1910	62.8876
 2.1900	63.2410
 2.1890	63.5499
 2.1880	63.9531
 2.1870	64.2775
 2.1860	64.7962
 2.1850	65.1927
 2.1840	65.8031
 2.1830	66.2186
 2.1820	66.6583
 2.1810	67.1528
 2.1800	67.6586
 2.1790	68.0322
 2.1780	68.4442
 2.1770	68.9248
 2.1760	69.3076
 2.1750	69.7584
 2.1740	70.1237
 2.1730	70.4801
 2.1720	70.7824
 2.1710	71.1452
 2.1700	71.4652
 2.1690	71.6879
 2.1680	72.0002
 2.1670	72.2141
 2.1660	72.5222
 2.1650	72.7595
 2.1640	72.9664
 2.1630	73.1391
 2.1620	73.3206
 2.1610	73.5536
 2.1600	73.6971
 2.1590	73.8275
 2.1580	74.0700
 2.1570	74.2060
 2.1560	74.4589
 2.1550	74.4940
 2.1540	74.6295
 2.1530	74.7332
 2.1520	74.8974
 2.1510	75.0240
 2.1500	75.1484
 2.1490	75.2615
 2.1480	75.3341
 2.1470	75.4511
 2.1460	75.5868
 2.1450	75.5569
 2.1440	75.6641
 2.1430	75.6587
 2.1420	75.7495
 2.1410	75.7941
 2.1400	75.8701
 2.1390	75.8477
 2.1380	75.9149
 2.1370	75.9124
 2.1360	75.9154
 2.1350	75.9056
 2.1340	76.0126
 2.1330	76.0045
 2.1320	75.9266
 2.1310	75.8401
 2.1300	75.8666
 2.1290	75.9071
 2.1280	75.8304
 2.1270	75.7495
 2.1260	75.8033
 2.1250	75.7163
 2.1240	75.6220
 2.1230	75.5915
 2.1220	75.5792
 2.1210	75.5056
 2.1200	75.4755
 2.1190	75.4741
 2.1180	75.4470
 2.1170	75.3696
 2.1160	75.2925
 2.1150	75.2424
 2.1140	75.3021
 2.1130	75.2538
 2.1120	75.2834
 2.1110	75.2919
 2.1100	75.2035
 2.1090	75.1703
 2.1080	75.1611
 2.1070	75.1032
 2.1060	75.1107
 2.1050	75.1609
 2.1040	75.1992
 2.1030	75.1192
 2.1020	75.1034
 2.1010	75.1554
 2.1000	75.1644
 2.0990	75.1424
 2.0980	75.1495
 2.0970	75.1846
 2.0960	75.2014
 2.0950	75.3039
 2.0940	75.4178
 2.0930	75.4118
 2.0920	75.4794
 2.0910	75.5467
 2.0900	75.5266
 2.0890	75.5173
 2.0880	75.5718
 2.0870	75.6673
 2.0860	75.7046
 2.0850	75.6970
 2.0840	75.6840
 2.0830	75.6749
 2.0820	75.7492
 2.0810	75.7517
 2.0800	75.7480
 2.0790	75.8066
 2.0780	75.8282
 2.0770	75.7573
 2.0760	75.7486
 2.0750	75.7986
 2.0740	75.8411
 2.0730	75.8397
 2.0720	75.7843
 2.0710	75.7715
 2.0700	75.8039
 2.0690	75.7619
 2.0680	75.7787
 2.0670	75.8059
 2.0660	75.8100
 2.0650	75.8078
 2.0640	75.8123
 2.0630	75.8649
 2.0620	75.8024
 2.0610	75.7737
 2.0600	75.7832
 2.0590	75.7641
 2.0580	75.8043
 2.0570	75.7924
 2.0560	75.7295
 2.0550	75.6964
 2.0540	75.6666
 2.0530	75.6182
 2.0520	75.5852
 2.0510	75.5834
 2.0500	75.5817
 2.0490	75.5715
 2.0480	75.5096
 2.0470	75.4646
 2.0460	75.4424
 2.0450	75.4636
 2.0440	75.4460
 2.0430	75.4226
 2.0420	75.3679
 2.0410	75.3243
 2.0400	75.3192
 2.0390	75.3138
 2.0380	75.2169
 2.0370	75.2150
 2.0360	75.1614
 2.0350	75.1238
 2.0340	75.0867
 2.0330	75.0167
 2.0320	74.9878
 2.0310	74.9517
 2.0300	74.8807
 2.0290	74.8139
 2.0280	74.7173
 2.0270	74.7570
 2.0260	74.7029
 2.0250	74.5932
 2.0240	74.5496
 2.0230	74.5245
 2.0220	74.4589
 2.0210	74.4181
 2.0200	74.3093
 2.0190	74.2486
 2.0180	74.1497
 2.0170	74.1474
 2.0160	74.0694
 2.0150	73.9685
 2.0140	73.8863
 2.0130	73.8023
 2.0120	73.7091
 2.0110	73.5973
 2.0100	73.5423
 2.0090	73.5065
 2.0080	73.4240
 2.0070	73.3554
 2.0060	73.3448
 2.0050	73.2232
 2.0040	73.0678
 2.0030	73.0318
 2.0020	72.9010
 2.0010	72.9072
 2.0000	72.7702
 1.9990	72.7251
 1.9980	72.6400
 1.9970	72.4761
 1.9960	72.4587
 1.9950	72.4266
 1.9940	72.2712
 1.9930	72.1310
 1.9920	72.0243
 1.9910	72.0152
 1.9900	71.8735
 1.9890	71.7785
 1.9880	71.7314
 1.9870	71.6558
 1.9860	71.5514
 1.9850	71.4213
 1.9840	71.3746
 1.9830	71.3275
 1.9820	71.2267
 1.9810	71.0879
 1.9800	70.9790
 1.9790	70.8658
 1.9780	70.7813
 1.9770	70.7203
 1.9760	70.7085
 1.9750	70.5680
 1.9740	70.5584
 1.9730	70.4972
 1.9720	70.3816
 1.9710	70.3169
 1.9700	70.1930
 1.9690	70.1780
 1.9680	70.0626
 1.9670	69.9951
 1.9660	69.8573
 1.9650	69.9099
 1.9640	69.8263
 1.9630	69.7749
 1.9620	69.6914
 1.9610	69.6673
 1.9600	69.5618
 1.9590	69.5386
 1.9580	69.4365
 1.9570	69.4706
 1.9560	69.3971
 1.9550	69.2937
 1.9540	69.1934
 1.9530	69.1945
 1.9520	69.0905
 1.9510	69.1077
 1.9500	69.0182
 1.9490	69.0372
 1.9480	68.9699
 1.9470	68.9768
 1.9460	68.8954
 1.9450	68.8680
 1.9440	68.7195
 1.9430	68.7701
 1.9420	68.7481
 1.9410	68.7641
 1.9400	68.7754
 1.9390	68.7866
 1.9380	68.6667
 1.9370	68.6890
 1.9360	68.6612
 1.9350	68.6923
 1.9340	68.7356
 1.9330	68.6863
 1.9320	68.6745
 1.9310	68.6707
 1.9300	68.5947
 1.9290	68.6957
 1.9280	68.8026
 1.9270	68.6883
 1.9260	68.7591
 1.9250	68.7829
 1.9240	68.7633
 1.9230	68.8087
 1.9220	68.8717
 1.9210	68.8965
 1.9200	68.8494
 1.9190	68.9843
 1.9180	69.0092
 1.9170	69.1307
 1.9160	69.1779
 1.9150	69.3414
 1.9140	69.4134
 1.9130	69.5651
 1.9120	69.6332
 1.9110	69.8628
 1.9100	69.9192
 1.9090	70.1990
 1.9080	70.3945
 1.9070	70.5611
 1.9060	70.8008
 1.9050	71.0399
 1.9040	71.3876
 1.9030	71.6950
 1.9020	71.9938
 1.9010	72.3741
 1.9000	72.5972
 1.8990	72.9649
 1.8980	73.3849
 1.8970	73.6269
 1.8960	73.8790
 1.8950	74.2935
 1.8940	74.5072
 1.8930	74.9520
 1.8920	75.1805
 1.8910	75.5566
 1.8900	75.6777
 1.8890	76.0089
 1.8880	76.2952
 1.8870	76.5227
 1.8860	76.7119
 1.8850	76.9224
 1.8840	77.1036
 1.8830	77.2533
 1.8820	77.4562
 1.8810	77.5351
 1.8800	77.7273
 1.8790	77.8671
 1.8780	78.0354
 1.8770	78.1805
 1.8760	78.3260
 1.8750	78.4029
 1.8740	78.4634
 1.8730	78.6417
 1.8720	78.7261
 1.8710	78.7457
 1.8700	78.7088
 1.8690	78.9413
 1.8680	78.9942
 1.8670	79.0422
 1.8660	79.1773
 1.8650	79.1757
 1.8640	79.2849
 1.8630	79.2734
 1.8620	79.2917
 1.8610	79.3501
 1.8600	79.4243
 1.8590	79.4023
 1.8580	79.4488
 1.8570	79.4230
 1.8560	79.4395
 1.8550	79.4955
 1.8540	79.4774
 1.8530	79.5177
 1.8520	79.5195
 1.8510	79.5493
 1.8500	79.5185
 1.8490	79.4939
 1.8480	79.5500
 1.8470	79.6223
 1.8460	79.5491
 1.8450	79.6125
 1.8440	79.6054
 1.8430	79.5877
 1.8420	79.5993
 1.8410	79.6430
 1.8400	79.6449
 1.8390	79.6726
 1.8380	79.6047
 1.8370	79.6419
 1.8360	79.6272
 1.8350	79.6209
 1.8340	79.5796
 1.8330	79.6203
 1.8320	79.6529
 1.8310	79.6866
 1.8300	79.6765
 1.8290	79.6912
 1.8280	79.6303
 1.8270	79.6424
 1.8260	79.7313
 1.8250	79.7787
 1.8240	79.7295
 1.8230	79.7553
 1.8220	79.7641
 1.8210	79.7192
 1.8200	79.6850
 1.8190	79.7375
 1.8180	79.7301
 1.8170	79.7164
 1.8160	79.7125
 1.8150	79.7872
 1.8140	79.7629
 1.8130	79.7049
 1.8120	79.7360
 1.8110	79.7900
 1.8100	79.7476
 1.8090	79.7553
 1.8080	79.7453
 1.8070	79.7622
 1.8060	79.7993
 1.8050	79.7698
 1.8040	79.7507
 1.8030	79.8037
 1.8020	79.8481
 1.8010	79.9108
 1.8000	79.8881
 1.7990	79.8247
 1.7980	79.8165
 1.7970	79.8332
 1.7960	79.8107
 1.7950	79.8129
 1.7940	79.8110
 1.7930	79.8152
 1.7920	79.8604
 1.7910	79.8694
 1.7900	79.8197
 1.7890	79.8139
 1.7880	79.8220
 1.7870	79.8319
 1.7860	79.8404
 1.7850	79.8330
 1.7840	79.7821
 1.7830	79.7415
 1.7820	79.7994
 1.7810	79.7957
 1.7800	79.7767
 1.7790	79.8605
 1.7780	79.8851
 1.7770	79.8219
 1.7760	79.7808
 1.7750	79.8137
 1.7740	79.7923
 1.7730	79.8522
 1.7720	79.9107
 1.7710	79.8493
 1.7700	79.8249
 1.7690	79.8631
 1.7680	79.8465
 1.7670	79.8432
 1.7660	79.8461
 1.7650	79.9067
 1.7640	79.8556
 1.7630	79.7955
 1.7620	79.8116
 1.7610	79.8474
 1.7600	79.8813
 1.7590	79.9009
 1.7580	79.9293
 1.7570	79.9346
 1.7560	79.9445
 1.7550	79.8901
 1.7540	79.8993
 1.7530	79.9447
 1.7520	79.8929
 1.7510	79.8316
 1.7500	79.9267
 1.7490	80.0093
 1.7480	79.9737
 1.7470	79.9713
 1.7460	80.0116
 1.7450	79.9847
 1.7440	80.0050
 1.7430	80.0447
 1.7420	80.0629
 1.7410	80.0350
 1.7400	80.0501
 1.7390	80.0458
 1.7380	80.0428
 1.7370	80.0176
 1.7360	80.0122
 1.7350	79.9860
 1.7340	80.0379
 1.7330	80.1206
 1.7320	80.1069
 1.7310	80.0726
 1.7300	80.0508
 1.7290	80.1355
 1.7280	80.1803
 1.7270	80.1138
 1.7260	80.1165
 1.7250	80.0509
 1.7240	80.0433
 1.7230	80.1172
 1.7220	80.0927
 1.7210	80.0542
 1.7200	80.1200
 1.7190	80.0789
 1.7180	80.1025
 1.7170	80.0743
 1.7160	80.1546
 1.7150	80.0672
 1.7140	80.0839
 1.7130	80.0501
 1.7120	80.1953
 1.7110	80.1423
 1.7100	80.0831
 1.7090	80.1049
 1.7080	80.0932
 1.7070	80.0742
 1.7060	80.0690
 1.7050	80.0293
 1.7040	80.1370
 1.7030	80.0327
 1.7020	80.1078
 1.7010	80.0880
 1.7000	80.1622
 1.6990	80.0582
 1.6980	80.0705
 1.6970	80.1151
 1.6960	80.0723
 1.6950	80.1276
 1.6940	80.0575
 1.6930	80.0815
 1.6920	80.0514
 1.6910	80.0564
 1.6900	80.1114
 1.6890	80.0448
 1.6880	80.0133
 1.6870	80.0008
 1.6860	80.0842
 1.6850	79.9933
 1.6840	80.0522
 1.6830	80.1002
 1.6820	80.1057
 1.6810	79.9912
 1.6800	80.1010
 1.6790	79.9925
 1.6780	80.0368
 1.6770	79.9979
 1.6760	80.0592
 1.6750	79.8846
 1.6740	79.9933
 1.6730	79.9229
 1.6720	79.9885
 1.6710	79.9505
 1.6700	80.0470
 1.6690	79.9882
 1.6680	79.9118
 1.6670	79.9650
 1.6660	79.9179
 1.6650	79.9298
 1.6640	79.9167
 1.6630	79.8683
 1.6620	79.8154
 1.6610	79.9446
 1.6600	79.8869
 1.6590	79.9823
 1.6580	80.0228
 1.6570	79.9993
 1.6560	79.9780
 1.6550	79.9672
 1.6540	79.9218
 1.6530	79.9758
 1.6520	79.9220
 1.6510	79.9075
 1.6500	79.9320
 1.6490	79.9909
 1.6480	79.9730
 1.6470	79.8374
 1.6460	79.8611
 1.6450	79.8115
 1.6440	79.8104
 1.6430	79.9733
 1.6420	79.8651
 1.6410	79.7558
 1.6400	79.9984
 1.6390	79.8312
 1.6380	79.9026
 1.6370	79.7661
 1.6360	79.7952
 1.6350	79.8925
 1.6340	79.8253
 1.6330	79.8208
 1.6320	79.7440
 1.6310	79.7734
 1.6300	79.7753
 1.6290	79.6440
 1.6280	79.7842
 1.6270	79.8016
 1.6260	79.6921
 1.6250	79.6564
 1.6240	79.7751
 1.6230	79.7122
 1.6220	79.7527
 1.6210	79.7370
 1.6200	79.6898
 1.6190	79.7178
 1.6180	79.7258
 1.6170	79.6897
 1.6160	79.7154
 1.6150	79.7339
 1.6140	79.6898
 1.6130	79.6236
 1.6120	79.7084
 1.6110	79.6901
 1.6100	79.6763
 1.6090	79.6215
 1.6080	79.6280
 1.6070	79.6377
 1.6060	79.6291
 1.6050	79.5974
 1.6040	79.5942
 1.6030	79.6417
 1.6020	79.7274
 1.6010	79.6189
 1.6000	79.5721
 1.5990	79.5083
 1.5980	79.5562
 1.5970	79.5740
 1.5960	79.4893
 1.5950	79.5143
 1.5940	79.5660
 1.5930	79.4880
 1.5920	79.4488
 1.5910	79.5445
 1.5900	79.4829
 1.5890	79.4931
 1.5880	79.4710
 1.5870	79.4118
 1.5860	79.3985
 1.5850	79.3939
 1.5840	79.4623
 1.5830	79.4334
 1.5820	79.4371
 1.5810	79.3732
 1.5800	79.4573
 1.5790	79.3724
 1.5780	79.3875
 1.5770	79.4508
 1.5760	79.3617
 1.5750	79.3496
 1.5740	79.3460
 1.5730	79.2833
 1.5720	79.1712
 1.5710	79.2250
 1.5700	79.2299
 1.5690	79.2667
 1.5680	79.2417
 1.5670	79.1796
 1.5660	79.1595
 1.5650	79.1319
 1.5640	79.1322
 1.5630	79.1935
 1.5620	79.1848
 1.5610	79.1639
 1.5600	79.1446
 1.5590	79.0788
 1.5580	79.0254
 1.5570	79.0532
 1.5560	79.0933
 1.5550	79.0756
 1.5540	79.0444
 1.5530	78.9741
 1.5520	78.9808
 1.5510	78.9133
 1.5500	78.9475
 1.5490	78.9112
 1.5480	78.9082
 1.5470	78.8574
 1.5460	78.8679
 1.5450	78.8568
 1.5440	78.8790
 1.5430	78.8800
 1.5420	78.8320
 1.5410	78.8211
 1.5400	78.7986
 1.5390	78.7839
 1.5380	78.7283
 1.5370	78.6894
 1.5360	78.6745
 1.5350	78.6881
 1.5340	78.6799
 1.5330	78.5944
 1.5320	78.6041
 1.5310	78.6146
 1.5300	78.6291
 1.5290	78.6147
 1.5280	78.5493
 1.5270	78.5468
 1.5260	78.5237
 1.5250	78.4675
 1.5240	78.4863
 1.5230	78.4392
 1.5220	78.3906
 1.5210	78.3601
 1.5200	78.3196
 1.5190	78.3170
 1.5180	78.2909
 1.5170	78.2763
 1.5160	78.2552
 1.5150	78.2056
 1.5140	78.2015
 1.5130	78.1323
 1.5120	78.1084
 1.5110	78.1185
 1.5100	78.0836
 1.5090	78.0403
 1.5080	77.9839
 1.5070	77.9793
 1.5060	77.9733
 1.5050	77.9241
 1.5040	77.8966
 1.5030	77.8650
 1.5020	77.8682
 1.5010	77.8433
 1.5000	77.7610
 1.4990	77.6987
 1.4980	77.6649
 1.4970	77.6459
 1.4960	77.6508
 1.4950	77.5972
 1.4940	77.5201
 1.4930	77.4871
 1.4920	77.4844
 1.4910	77.5019
 1.4900	77.4641
 1.4890	77.3836
 1.4880	77.3757
 1.4870	77.3794
 1.4860	77.3496
 1.4850	77.3152
 1.4840	77.2233
 1.4830	77.1514
 1.4820	77.1353
 1.4810	77.1046
 1.4800	77.0717
 1.4790	77.0234
 1.4780	76.9723
 1.4770	76.9326
 1.4760	76.8727
 1.4750	76.8851
 1.4740	76.8068
 1.4730	76.8051
 1.4720	76.7912
 1.4710	76.7519
 1.4700	76.7794
 1.4690	76.7293
 1.4680	76.6803
 1.4670	76.6684
 1.4660	76.5980
 1.4650	76.5713
 1.4640	76.5225
 1.4630	76.5084
 1.4620	76.4849
 1.4610	76.4871
 1.4600	76.4707
 1.4590	76.4220
 1.4580	76.3275
 1.4570	76.2903
 1.4560	76.3816
 1.4550	76.3194
 1.4540	76.2322
 1.4530	76.2594
 1.4520	76.2956
 1.4510	76.2808
 1.4500	76.2017
 1.4490	76.1980
 1.4480	76.1991
 1.4470	76.0903
 1.4460	76.0201
 1.4450	75.9755
 1.4440	75.9722
 1.4430	75.9900
 1.4420	75.9034
 1.4410	75.8798
 1.4400	75.8844
 1.4390	75.8683
 1.4380	75.7180
 1.4370	75.6573
 1.4360	75.5584
 1.4350	75.5093
 1.4340	75.3819
 1.4330	75.3185
 1.4320	75.1728
 1.4310	74.9669
 1.4300	74.8219
 1.4290	74.6749
 1.4280	74.5089
 1.4270	74.2717
 1.4260	73.9363
 1.4250	73.5753
 1.4240	73.1666
 1.4230	72.8139
 1.4220	72.3359
 1.4210	71.8074
 1.4200	71.1660
 1.4190	70.4652
 1.4180	69.7530
 1.4170	69.1262
 1.4160	68.5636
 1.4150	68.0342
 1.4140	67.7249
 1.4130	67.7165
 1.4120	67.5638
 1.4110	67.7830
 1.4100	67.8413
 1.4090	68.0550
 1.4080	68.2519
 1.4070	68.6063
 1.4060	68.8546
 1.4050	69.1835
 1.4040	69.4178
 1.4030	69.8422
 1.4020	70.1114
 1.4010	70.5894
 1.4000	71.0056
 1.3990	71.5371
 1.3980	71.9936
 1.3970	72.6782
 1.3960	73.2031
 1.3950	73.8893
 1.3940	74.3674
 1.3930	74.8861
 1.3920	75.4204
 1.3910	75.8396
 1.3900	76.2791
 1.3890	76.4918
 1.3880	76.7587
 1.3870	76.9164
 1.3860	77.0229
 1.3850	77.1321
 1.3840	77.2701
 1.3830	77.3130
 1.3820	77.3781
 1.3810	77.4440
 1.3800	77.5277
 1.3790	77.6281
 1.3780	77.5934
 1.3770	77.7482
 1.3760	77.6290
 1.3750	77.6623
 1.3740	77.7048
 1.3730	77.7637
 1.3720	77.7668
 1.3710	77.6458
 1.3700	77.8074
 1.3690	77.7899
 1.3680	77.8092
 1.3670	77.8032
