Name: Cassiterite SnO_2
Type: Mineral
Class: Oxide
Subclass: None
Particle Size: Fine
Sample No.: O-3A
Owner: JPL
Wavelength Range: VSWIR
Origin: USA, South Dakota, Lawrence County, Tinton.collected by:  Burminco
Collection Date: N/A
Description: Particle size was 0-45um. Original ASTER Spectral Library name was jpl.perkin.mineral.oxide.none.fine.o03a.spectrum.txt
Measurement: Hemispherical reflectance
First Column: X
Second Column: Y
X Units: Wavelength (micrometers)
Y Units:Reflectance (percent)
First X Value:  2.5000
Last X Value:  0.4000
Number of X Values: 2101
Additional Information: mineral.oxide.none.fine.vswir.o-3a.jpl.perkin.ancillary.txt

 2.5000	 5.7307
 2.4990	 5.5713
 2.4980	 6.0680
 2.4970	 5.7958
 2.4960	 5.5340
 2.4950	 5.9656
 2.4940	 5.8287
 2.4930	 5.7718
 2.4920	 5.8295
 2.4910	 5.4942
 2.4900	 5.8573
 2.4890	 5.6201
 2.4880	 5.9294
 2.4870	 5.5146
 2.4860	 5.9134
 2.4850	 5.8693
 2.4840	 5.8354
 2.4830	 5.7672
 2.4820	 5.8574
 2.4810	 5.7391
 2.4800	 5.8949
 2.4790	 5.7415
 2.4780	 5.8279
 2.4770	 5.6083
 2.4760	 5.8901
 2.4750	 5.7657
 2.4740	 5.9598
 2.4730	 5.7756
 2.4720	 5.9537
 2.4710	 5.8293
 2.4700	 5.9581
 2.4690	 5.8481
 2.4680	 5.9293
 2.4670	 5.8143
 2.4660	 5.9928
 2.4650	 5.7002
 2.4640	 5.8537
 2.4630	 5.7522
 2.4620	 5.9726
 2.4610	 5.7643
 2.4600	 5.8363
 2.4590	 5.8226
 2.4580	 5.9279
 2.4570	 5.8331
 2.4560	 6.0996
 2.4550	 5.8695
 2.4540	 5.9278
 2.4530	 5.9205
 2.4520	 5.9819
 2.4510	 5.8737
 2.4500	 5.9904
 2.4490	 5.8749
 2.4480	 6.0617
 2.4470	 6.0044
 2.4460	 5.9675
 2.4450	 6.0172
 2.4440	 5.9307
 2.4430	 5.9393
 2.4420	 6.0360
 2.4410	 5.9458
 2.4400	 6.0524
 2.4390	 5.9763
 2.4380	 6.0600
 2.4370	 5.9307
 2.4360	 6.0315
 2.4350	 5.9882
 2.4340	 6.0528
 2.4330	 5.9232
 2.4320	 6.1698
 2.4310	 6.0125
 2.4300	 6.0762
 2.4290	 5.9971
 2.4280	 6.0589
 2.4270	 6.0269
 2.4260	 6.1113
 2.4250	 6.0240
 2.4240	 6.1390
 2.4230	 6.0465
 2.4220	 6.1689
 2.4210	 6.0899
 2.4200	 6.1428
 2.4190	 6.0794
 2.4180	 6.1237
 2.4170	 5.9996
 2.4160	 6.1841
 2.4150	 6.0626
 2.4140	 6.0643
 2.4130	 6.0851
 2.4120	 6.1396
 2.4110	 6.0807
 2.4100	 6.1614
 2.4090	 6.1626
 2.4080	 6.1706
 2.4070	 6.0952
 2.4060	 6.1366
 2.4050	 6.1322
 2.4040	 6.2050
 2.4030	 6.1457
 2.4020	 6.2029
 2.4010	 6.1734
 2.4000	 6.1910
 2.3990	 6.1610
 2.3980	 6.1837
 2.3970	 6.1359
 2.3960	 6.1031
 2.3950	 6.1031
 2.3940	 6.2482
 2.3930	 6.2040
 2.3920	 6.1771
 2.3910	 6.1274
 2.3900	 6.2364
 2.3890	 6.1771
 2.3880	 6.2765
 2.3870	 6.2360
 2.3860	 6.3155
 2.3850	 6.2679
 2.3840	 6.2267
 2.3830	 6.2693
 2.3820	 6.2545
 2.3810	 6.2247
 2.3800	 6.2747
 2.3790	 6.2420
 2.3780	 6.3113
 2.3770	 6.3098
 2.3760	 6.3154
 2.3750	 6.2654
 2.3740	 6.2587
 2.3730	 6.2549
 2.3720	 6.2608
 2.3710	 6.3061
 2.3700	 6.3397
 2.3690	 6.3138
 2.3680	 6.3469
 2.3670	 6.3219
 2.3660	 6.3548
 2.3650	 6.3315
 2.3640	 6.4117
 2.3630	 6.3757
 2.3620	 6.3179
 2.3610	 6.4250
 2.3600	 6.4421
 2.3590	 6.3954
 2.3580	 6.3883
 2.3570	 6.4062
 2.3560	 6.4424
 2.3550	 6.4251
 2.3540	 6.4054
 2.3530	 6.4677
 2.3520	 6.4198
 2.3510	 6.4495
 2.3500	 6.4957
 2.3490	 6.4873
 2.3480	 6.4587
 2.3470	 6.4537
 2.3460	 6.4460
 2.3450	 6.4175
 2.3440	 6.4146
 2.3430	 6.4387
 2.3420	 6.4372
 2.3410	 6.4585
 2.3400	 6.4410
 2.3390	 6.4322
 2.3380	 6.4559
 2.3370	 6.4789
 2.3360	 6.4827
 2.3350	 6.4842
 2.3340	 6.3876
 2.3330	 6.4390
 2.3320	 6.4685
 2.3310	 6.4916
 2.3300	 6.4198
 2.3290	 6.4832
 2.3280	 6.5165
 2.3270	 6.5111
 2.3260	 6.4471
 2.3250	 6.5062
 2.3240	 6.5076
 2.3230	 6.4870
 2.3220	 6.4731
 2.3210	 6.5315
 2.3200	 6.5496
 2.3190	 6.6292
 2.3180	 6.5161
 2.3170	 6.5302
 2.3160	 6.5591
 2.3150	 6.5725
 2.3140	 6.5385
 2.3130	 6.5693
 2.3120	 6.5606
 2.3110	 6.5509
 2.3100	 6.5287
 2.3090	 6.6253
 2.3080	 6.5635
 2.3070	 6.5604
 2.3060	 6.5136
 2.3050	 6.5897
 2.3040	 6.5781
 2.3030	 6.6714
 2.3020	 6.5877
 2.3010	 6.6483
 2.3000	 6.5819
 2.2990	 6.6015
 2.2980	 6.5039
 2.2970	 6.6195
 2.2960	 6.6137
 2.2950	 6.6925
 2.2940	 6.6325
 2.2930	 6.6682
 2.2920	 6.5380
 2.2910	 6.6291
 2.2900	 6.6125
 2.2890	 6.7253
 2.2880	 6.6915
 2.2870	 6.7217
 2.2860	 6.6841
 2.2850	 6.7277
 2.2840	 6.6379
 2.2830	 6.7094
 2.2820	 6.6467
 2.2810	 6.6920
 2.2800	 6.6307
 2.2790	 6.7279
 2.2780	 6.6151
 2.2770	 6.7352
 2.2760	 6.6410
 2.2750	 6.7406
 2.2740	 6.6359
 2.2730	 6.8043
 2.2720	 6.6616
 2.2710	 6.7750
 2.2700	 6.7337
 2.2690	 6.7826
 2.2680	 6.7109
 2.2670	 6.7416
 2.2660	 6.6978
 2.2650	 6.7790
 2.2640	 6.7109
 2.2630	 6.7781
 2.2620	 6.7635
 2.2610	 6.8386
 2.2600	 6.8067
 2.2590	 6.7826
 2.2580	 6.6721
 2.2570	 6.8030
 2.2560	 6.7434
 2.2550	 6.8894
 2.2540	 6.8389
 2.2530	 6.8441
 2.2520	 6.8344
 2.2510	 6.9516
 2.2500	 6.7495
 2.2490	 6.8880
 2.2480	 6.7331
 2.2470	 6.8684
 2.2460	 6.8412
 2.2450	 6.9798
 2.2440	 6.7580
 2.2430	 6.9166
 2.2420	 6.8174
 2.2410	 6.9163
 2.2400	 6.8060
 2.2390	 6.9358
 2.2380	 6.8113
 2.2370	 6.9658
 2.2360	 6.8941
 2.2350	 6.9786
 2.2340	 6.8408
 2.2330	 6.9269
 2.2320	 6.8798
 2.2310	 6.9964
 2.2300	 6.8663
 2.2290	 6.9360
 2.2280	 6.8921
 2.2270	 6.9716
 2.2260	 6.8898
 2.2250	 7.0058
 2.2240	 6.9265
 2.2230	 7.0230
 2.2220	 6.9213
 2.2210	 7.0499
 2.2200	 6.9221
 2.2190	 7.0435
 2.2180	 6.9580
 2.2170	 7.0971
 2.2160	 6.9614
 2.2150	 7.0994
 2.2140	 6.9584
 2.2130	 7.0592
 2.2120	 7.0848
 2.2110	 6.9375
 2.2100	 7.0574
 2.2090	 7.0069
 2.2080	 7.0741
 2.2070	 7.1052
 2.2060	 6.9819
 2.2050	 7.1270
 2.2040	 7.0643
 2.2030	 7.1686
 2.2020	 7.0336
 2.2010	 7.0852
 2.2000	 7.0763
 2.1990	 7.1467
 2.1980	 7.1617
 2.1970	 7.2012
 2.1960	 7.1198
 2.1950	 7.1495
 2.1940	 7.0730
 2.1930	 7.2513
 2.1920	 7.1041
 2.1910	 7.1936
 2.1900	 7.1438
 2.1890	 7.1968
 2.1880	 7.1146
 2.1870	 7.2635
 2.1860	 7.1676
 2.1850	 7.2612
 2.1840	 7.1228
 2.1830	 7.2315
 2.1820	 7.1278
 2.1810	 7.3003
 2.1800	 7.1971
 2.1790	 7.2142
 2.1780	 7.1872
 2.1770	 7.3174
 2.1760	 7.1907
 2.1750	 7.3945
 2.1740	 7.2499
 2.1730	 7.2970
 2.1720	 7.2407
 2.1710	 7.3980
 2.1700	 7.2782
 2.1690	 7.3110
 2.1680	 7.2898
 2.1670	 7.4412
 2.1660	 7.3160
 2.1650	 7.3915
 2.1640	 7.3077
 2.1630	 7.4475
 2.1620	 7.3225
 2.1610	 7.4220
 2.1600	 7.2972
 2.1590	 7.4055
 2.1580	 7.3866
 2.1570	 7.4608
 2.1560	 7.3529
 2.1550	 7.4779
 2.1540	 7.4590
 2.1530	 7.4886
 2.1520	 7.4064
 2.1510	 7.4394
 2.1500	 7.4497
 2.1490	 7.4677
 2.1480	 7.4717
 2.1470	 7.5453
 2.1460	 7.3871
 2.1450	 7.4963
 2.1440	 7.4605
 2.1430	 7.4951
 2.1420	 7.4756
 2.1410	 7.5258
 2.1400	 7.5559
 2.1390	 7.4893
 2.1380	 7.4331
 2.1370	 7.5436
 2.1360	 7.4619
 2.1350	 7.5666
 2.1340	 7.4689
 2.1330	 7.5433
 2.1320	 7.5454
 2.1310	 7.5868
 2.1300	 7.5065
 2.1290	 7.6149
 2.1280	 7.5393
 2.1270	 7.6395
 2.1260	 7.5074
 2.1250	 7.5703
 2.1240	 7.5846
 2.1230	 7.5986
 2.1220	 7.5515
 2.1210	 7.5962
 2.1200	 7.5984
 2.1190	 7.6158
 2.1180	 7.5815
 2.1170	 7.5808
 2.1160	 7.5445
 2.1150	 7.5777
 2.1140	 7.5923
 2.1130	 7.6044
 2.1120	 7.4685
 2.1110	 7.5592
 2.1100	 7.6343
 2.1090	 7.6496
 2.1080	 7.5310
 2.1070	 7.6010
 2.1060	 7.5550
 2.1050	 7.5762
 2.1040	 7.5625
 2.1030	 7.5947
 2.1020	 7.6070
 2.1010	 7.6527
 2.1000	 7.6390
 2.0990	 7.6583
 2.0980	 7.5770
 2.0970	 7.5675
 2.0960	 7.5802
 2.0950	 7.6642
 2.0940	 7.6784
 2.0930	 7.6203
 2.0920	 7.6020
 2.0910	 7.6697
 2.0900	 7.6375
 2.0890	 7.7204
 2.0880	 7.7094
 2.0870	 7.6828
 2.0860	 7.6859
 2.0850	 7.6767
 2.0840	 7.7003
 2.0830	 7.6591
 2.0820	 7.7272
 2.0810	 7.7695
 2.0800	 7.6979
 2.0790	 7.7598
 2.0780	 7.7677
 2.0770	 7.7506
 2.0760	 7.7198
 2.0750	 7.7669
 2.0740	 7.8037
 2.0730	 7.7644
 2.0720	 7.7521
 2.0710	 7.7449
 2.0700	 7.7731
 2.0690	 7.8247
 2.0680	 7.8158
 2.0670	 7.8086
 2.0660	 7.8424
 2.0650	 7.8790
 2.0640	 7.8815
 2.0630	 7.7855
 2.0620	 7.7621
 2.0610	 7.8397
 2.0600	 7.8667
 2.0590	 7.8104
 2.0580	 7.8571
 2.0570	 7.8726
 2.0560	 7.8674
 2.0550	 7.8916
 2.0540	 7.9067
 2.0530	 7.8491
 2.0520	 7.8714
 2.0510	 7.8722
 2.0500	 7.9125
 2.0490	 7.9378
 2.0480	 7.9244
 2.0470	 7.9578
 2.0460	 8.0032
 2.0450	 7.9874
 2.0440	 8.0012
 2.0430	 7.9526
 2.0420	 7.9610
 2.0410	 7.9197
 2.0400	 7.9542
 2.0390	 7.9552
 2.0380	 8.0172
 2.0370	 7.9912
 2.0360	 8.0134
 2.0350	 7.9794
 2.0340	 8.0395
 2.0330	 8.0286
 2.0320	 8.0358
 2.0310	 8.0172
 2.0300	 8.0985
 2.0290	 7.9914
 2.0280	 8.0648
 2.0270	 8.0392
 2.0260	 8.0281
 2.0250	 7.9711
 2.0240	 8.0368
 2.0230	 8.0003
 2.0220	 8.0837
 2.0210	 8.0394
 2.0200	 8.1164
 2.0190	 8.0960
 2.0180	 8.1541
 2.0170	 8.0424
 2.0160	 8.1330
 2.0150	 8.1039
 2.0140	 8.1488
 2.0130	 8.1404
 2.0120	 8.1905
 2.0110	 8.1181
 2.0100	 8.1534
 2.0090	 8.1484
 2.0080	 8.2118
 2.0070	 8.1430
 2.0060	 8.2171
 2.0050	 8.1441
 2.0040	 8.2767
 2.0030	 8.2207
 2.0020	 8.1213
 2.0010	 8.1794
 2.0000	 8.2974
 1.9990	 8.1375
 1.9980	 8.2432
 1.9970	 8.1995
 1.9960	 8.2779
 1.9950	 8.2401
 1.9940	 8.2568
 1.9930	 8.2394
 1.9920	 8.3158
 1.9910	 8.2162
 1.9900	 8.3036
 1.9890	 8.2766
 1.9880	 8.2608
 1.9870	 8.2151
 1.9860	 8.3613
 1.9850	 8.3029
 1.9840	 8.3592
 1.9830	 8.3036
 1.9820	 8.2085
 1.9810	 8.2276
 1.9800	 8.4044
 1.9790	 8.2959
 1.9780	 8.3779
 1.9770	 8.3135
 1.9760	 8.3747
 1.9750	 8.3027
 1.9740	 8.2749
 1.9730	 8.2605
 1.9720	 8.4133
 1.9710	 8.2774
 1.9700	 8.4540
 1.9690	 8.3519
 1.9680	 8.4308
 1.9670	 8.3644
 1.9660	 8.3753
 1.9650	 8.3599
 1.9640	 8.4605
 1.9630	 8.3605
 1.9620	 8.3566
 1.9610	 8.2646
 1.9600	 8.4583
 1.9590	 8.3398
 1.9580	 8.5386
 1.9570	 8.3310
 1.9560	 8.5148
 1.9550	 8.3843
 1.9540	 8.4082
 1.9530	 8.3505
 1.9520	 8.4228
 1.9510	 8.3681
 1.9500	 8.5635
 1.9490	 8.4237
 1.9480	 8.5119
 1.9470	 8.4423
 1.9460	 8.4972
 1.9450	 8.5099
 1.9440	 8.5555
 1.9430	 8.4455
 1.9420	 8.6542
 1.9410	 8.5722
 1.9400	 8.5488
 1.9390	 8.5025
 1.9380	 8.5988
 1.9370	 8.5106
 1.9360	 8.5723
 1.9350	 8.5949
 1.9340	 8.5827
 1.9330	 8.4846
 1.9320	 8.6558
 1.9310	 8.5467
 1.9300	 8.6166
 1.9290	 8.5553
 1.9280	 8.6088
 1.9270	 8.6668
 1.9260	 8.4721
 1.9250	 8.5831
 1.9240	 8.5951
 1.9230	 8.6204
 1.9220	 8.5842
 1.9210	 8.5394
 1.9200	 8.6919
 1.9190	 8.6245
 1.9180	 8.8011
 1.9170	 8.5945
 1.9160	 8.7121
 1.9150	 8.5349
 1.9140	 8.6710
 1.9130	 8.7315
 1.9120	 8.7368
 1.9110	 8.6835
 1.9100	 8.8011
 1.9090	 8.6521
 1.9080	 8.8687
 1.9070	 8.6129
 1.9060	 8.7825
 1.9050	 8.6399
 1.9040	 8.7792
 1.9030	 8.7477
 1.9020	 8.8501
 1.9010	 8.7149
 1.9000	 8.8419
 1.8990	 8.7132
 1.8980	 8.8482
 1.8970	 8.7354
 1.8960	 8.8956
 1.8950	 8.8593
 1.8940	 8.8288
 1.8930	 8.8262
 1.8920	 8.8618
 1.8910	 8.7994
 1.8900	 8.9322
 1.8890	 8.7771
 1.8880	 8.9867
 1.8870	 8.8443
 1.8860	 8.9386
 1.8850	 8.8999
 1.8840	 8.9729
 1.8830	 8.9167
 1.8820	 8.9208
 1.8810	 8.9339
 1.8800	 8.9899
 1.8790	 8.9464
 1.8780	 9.0319
 1.8770	 8.9051
 1.8760	 9.0852
 1.8750	 8.9286
 1.8740	 8.9804
 1.8730	 8.9525
 1.8720	 8.9598
 1.8710	 8.9534
 1.8700	 8.9713
 1.8690	 8.9421
 1.8680	 9.0413
 1.8670	 8.9293
 1.8660	 9.0416
 1.8650	 9.0388
 1.8640	 9.0489
 1.8630	 8.9859
 1.8620	 9.0995
 1.8610	 9.0124
 1.8600	 9.0244
 1.8590	 9.0743
 1.8580	 9.0815
 1.8570	 9.0657
 1.8560	 9.1139
 1.8550	 9.0403
 1.8540	 9.1308
 1.8530	 9.0417
 1.8520	 9.2033
 1.8510	 9.1159
 1.8500	 9.2231
 1.8490	 9.1381
 1.8480	 9.1449
 1.8470	 9.0740
 1.8460	 9.1946
 1.8450	 9.1095
 1.8440	 9.2459
 1.8430	 9.1899
 1.8420	 9.2177
 1.8410	 9.2209
 1.8400	 9.2169
 1.8390	 9.1102
 1.8380	 9.1330
 1.8370	 9.2058
 1.8360	 9.2465
 1.8350	 9.1918
 1.8340	 9.3054
 1.8330	 9.3022
 1.8320	 9.2611
 1.8310	 9.2362
 1.8300	 9.3344
 1.8290	 9.2295
 1.8280	 9.2583
 1.8270	 9.3200
 1.8260	 9.3726
 1.8250	 9.2762
 1.8240	 9.3010
 1.8230	 9.3001
 1.8220	 9.3336
 1.8210	 9.2212
 1.8200	 9.2939
 1.8190	 9.3378
 1.8180	 9.3811
 1.8170	 9.3822
 1.8160	 9.3698
 1.8150	 9.3747
 1.8140	 9.4177
 1.8130	 9.3641
 1.8120	 9.4053
 1.8110	 9.3779
 1.8100	 9.4300
 1.8090	 9.4044
 1.8080	 9.4317
 1.8070	 9.4770
 1.8060	 9.4586
 1.8050	 9.4043
 1.8040	 9.4430
 1.8030	 9.4767
 1.8020	 9.4354
 1.8010	 9.4741
 1.8000	 9.4870
 1.7990	 9.4490
 1.7980	 9.4762
 1.7970	 9.4954
 1.7960	 9.4859
 1.7950	 9.4701
 1.7940	 9.4960
 1.7930	 9.5280
 1.7920	 9.5545
 1.7910	 9.4865
 1.7900	 9.4629
 1.7890	 9.4584
 1.7880	 9.4979
 1.7870	 9.4953
 1.7860	 9.5096
 1.7850	 9.6054
 1.7840	 9.5813
 1.7830	 9.5981
 1.7820	 9.6059
 1.7810	 9.5285
 1.7800	 9.5158
 1.7790	 9.6122
 1.7780	 9.6464
 1.7770	 9.6199
 1.7760	 9.6433
 1.7750	 9.6607
 1.7740	 9.5865
 1.7730	 9.6177
 1.7720	 9.6112
 1.7710	 9.6188
 1.7700	 9.6945
 1.7690	 9.7012
 1.7680	 9.6284
 1.7670	 9.6099
 1.7660	 9.6429
 1.7650	 9.6661
 1.7640	 9.6342
 1.7630	 9.6805
 1.7620	 9.6669
 1.7610	 9.6838
 1.7600	 9.7195
 1.7590	 9.7554
 1.7580	 9.7061
 1.7570	 9.6837
 1.7560	 9.7031
 1.7550	 9.7549
 1.7540	 9.7335
 1.7530	 9.7714
 1.7520	 9.7397
 1.7510	 9.8074
 1.7500	 9.7464
 1.7490	 9.8283
 1.7480	 9.7840
 1.7470	 9.8071
 1.7460	 9.7910
 1.7450	 9.8121
 1.7440	 9.7789
 1.7430	 9.8164
 1.7420	 9.8082
 1.7410	 9.8669
 1.7400	 9.8368
 1.7390	 9.8849
 1.7380	 9.8507
 1.7370	 9.9013
 1.7360	 9.8122
 1.7350	 9.8662
 1.7340	 9.9142
 1.7330	 9.8962
 1.7320	 9.8995
 1.7310	 9.8972
 1.7300	 9.8826
 1.7290	 9.9476
 1.7280	 9.8236
 1.7270	 9.9133
 1.7260	 9.8721
 1.7250	 9.9507
 1.7240	 9.9595
 1.7230	 9.9842
 1.7220	 9.9719
 1.7210	10.0068
 1.7200	 9.9708
 1.7190	 9.9932
 1.7180	 9.9534
 1.7170	 9.9938
 1.7160	 9.9802
 1.7150	10.0328
 1.7140	10.0043
 1.7130	10.0685
 1.7120	10.0052
 1.7110	10.0685
 1.7100	10.0200
 1.7090	10.0477
 1.7080	10.0012
 1.7070	10.1068
 1.7060	10.0741
 1.7050	10.1584
 1.7040	10.0410
 1.7030	10.0908
 1.7020	10.0976
 1.7010	10.1935
 1.7000	10.0658
 1.6990	10.0739
 1.6980	10.0920
 1.6970	10.1422
 1.6960	10.1015
 1.6950	10.1736
 1.6940	10.0648
 1.6930	10.2332
 1.6920	10.1616
 1.6910	10.1778
 1.6900	10.1873
 1.6890	10.2222
 1.6880	10.1365
 1.6870	10.1859
 1.6860	10.1563
 1.6850	10.2215
 1.6840	10.1360
 1.6830	10.3149
 1.6820	10.0992
 1.6810	10.2501
 1.6800	10.2085
 1.6790	10.2948
 1.6780	10.2105
 1.6770	10.2767
 1.6760	10.2104
 1.6750	10.3872
 1.6740	10.2279
 1.6730	10.3515
 1.6720	10.2557
 1.6710	10.2360
 1.6700	10.2092
 1.6690	10.3756
 1.6680	10.1939
 1.6670	10.3785
 1.6660	10.3507
 1.6650	10.3839
 1.6640	10.3150
 1.6630	10.3751
 1.6620	10.2791
 1.6610	10.4109
 1.6600	10.3588
 1.6590	10.4493
 1.6580	10.3010
 1.6570	10.3682
 1.6560	10.5236
 1.6550	10.5082
 1.6540	10.3646
 1.6530	10.5328
 1.6520	10.3386
 1.6510	10.4761
 1.6500	10.4005
 1.6490	10.3831
 1.6480	10.4353
 1.6470	10.5398
 1.6460	10.4272
 1.6450	10.5993
 1.6440	10.4314
 1.6430	10.6118
 1.6420	10.4411
 1.6410	10.4303
 1.6400	10.5292
 1.6390	10.6264
 1.6380	10.4806
 1.6370	10.6251
 1.6360	10.5051
 1.6350	10.5668
 1.6340	10.5136
 1.6330	10.6444
 1.6320	10.5596
 1.6310	10.5982
 1.6300	10.5296
 1.6290	10.7139
 1.6280	10.5644
 1.6270	10.6640
 1.6260	10.6140
 1.6250	10.5650
 1.6240	10.5484
 1.6230	10.7245
 1.6220	10.5732
 1.6210	10.7516
 1.6200	10.6333
 1.6190	10.7051
 1.6180	10.6028
 1.6170	10.7881
 1.6160	10.6854
 1.6150	10.7665
 1.6140	10.6597
 1.6130	10.7499
 1.6120	10.7071
 1.6110	10.8577
 1.6100	10.6900
 1.6090	10.7993
 1.6080	10.6840
 1.6070	10.7562
 1.6060	10.7680
 1.6050	10.7904
 1.6040	10.7307
 1.6030	10.7912
 1.6020	10.7655
 1.6010	10.8054
 1.6000	10.8485
 1.5990	10.7753
 1.5980	10.7855
 1.5970	10.9100
 1.5960	10.8256
 1.5950	10.9456
 1.5940	10.8118
 1.5930	10.8406
 1.5920	10.8316
 1.5910	10.9367
 1.5900	10.8470
 1.5890	10.9297
 1.5880	10.8944
 1.5870	10.9453
 1.5860	10.8200
 1.5850	10.9132
 1.5840	10.8580
 1.5830	10.8904
 1.5820	10.9554
 1.5810	10.9729
 1.5800	10.9685
 1.5790	11.0325
 1.5780	10.9492
 1.5770	11.0251
 1.5760	10.9874
 1.5750	11.0558
 1.5740	10.9723
 1.5730	10.9853
 1.5720	10.9479
 1.5710	11.0538
 1.5700	10.9854
 1.5690	11.0612
 1.5680	11.0339
 1.5670	11.1000
 1.5660	11.0855
 1.5650	11.0836
 1.5640	11.0140
 1.5630	11.0820
 1.5620	11.0849
 1.5610	11.0801
 1.5600	11.1332
 1.5590	11.2242
 1.5580	11.1128
 1.5570	11.1363
 1.5560	11.1410
 1.5550	11.2325
 1.5540	11.1557
 1.5530	11.1475
 1.5520	11.1672
 1.5510	11.2362
 1.5500	11.2090
 1.5490	11.1813
 1.5480	11.1716
 1.5470	11.2593
 1.5460	11.2659
 1.5450	11.2763
 1.5440	11.1961
 1.5430	11.2465
 1.5420	11.2589
 1.5410	11.2567
 1.5400	11.2263
 1.5390	11.2482
 1.5380	11.2230
 1.5370	11.3186
 1.5360	11.3037
 1.5350	11.3147
 1.5340	11.2818
 1.5330	11.3326
 1.5320	11.3254
 1.5310	11.3630
 1.5300	11.3293
 1.5290	11.3823
 1.5280	11.4173
 1.5270	11.4282
 1.5260	11.3307
 1.5250	11.3563
 1.5240	11.3457
 1.5230	11.4267
 1.5220	11.4132
 1.5210	11.4092
 1.5200	11.4343
 1.5190	11.4733
 1.5180	11.3972
 1.5170	11.3760
 1.5160	11.3952
 1.5150	11.4635
 1.5140	11.4884
 1.5130	11.4850
 1.5120	11.5003
 1.5110	11.5412
 1.5100	11.5318
 1.5090	11.5200
 1.5080	11.4786
 1.5070	11.4766
 1.5060	11.4935
 1.5050	11.5414
 1.5040	11.5179
 1.5030	11.5351
 1.5020	11.5979
 1.5010	11.5559
 1.5000	11.5547
 1.4990	11.5994
 1.4980	11.6474
 1.4970	11.6276
 1.4960	11.6349
 1.4950	11.6783
 1.4940	11.6775
 1.4930	11.6425
 1.4920	11.6139
 1.4910	11.6308
 1.4900	11.6281
 1.4890	11.6371
 1.4880	11.7077
 1.4870	11.6874
 1.4860	11.6737
 1.4850	11.7027
 1.4840	11.7838
 1.4830	11.7763
 1.4820	11.7238
 1.4810	11.7030
 1.4800	11.7488
 1.4790	11.7288
 1.4780	11.7285
 1.4770	11.7612
 1.4760	11.8179
 1.4750	11.7835
 1.4740	11.8101
 1.4730	11.8171
 1.4720	11.7904
 1.4710	11.7925
 1.4700	11.8285
 1.4690	11.7987
 1.4680	11.8368
 1.4670	11.8849
 1.4660	11.8967
 1.4650	11.8212
 1.4640	11.8637
 1.4630	11.8109
 1.4620	11.8265
 1.4610	11.8346
 1.4600	11.9619
 1.4590	11.8963
 1.4580	11.9511
 1.4570	11.8981
 1.4560	11.9489
 1.4550	11.9368
 1.4540	11.9202
 1.4530	11.8845
 1.4520	11.9458
 1.4510	11.9536
 1.4500	11.9955
 1.4490	12.0094
 1.4480	12.0198
 1.4470	11.9394
 1.4460	12.0188
 1.4450	11.9968
 1.4440	12.0486
 1.4430	12.0060
 1.4420	12.0854
 1.4410	12.0543
 1.4400	12.0590
 1.4390	12.0583
 1.4380	12.0623
 1.4370	12.0238
 1.4360	12.1079
 1.4350	12.0714
 1.4340	12.1333
 1.4330	12.0914
 1.4320	12.1861
 1.4310	12.1033
 1.4300	12.1287
 1.4290	12.1379
 1.4280	12.2156
 1.4270	12.1065
 1.4260	12.2058
 1.4250	12.1417
 1.4240	12.2026
 1.4230	12.1717
 1.4220	12.2060
 1.4210	12.1808
 1.4200	12.2436
 1.4190	12.1827
 1.4180	12.2365
 1.4170	12.1499
 1.4160	12.2554
 1.4150	12.1925
 1.4140	12.2402
 1.4130	12.1396
 1.4120	12.2494
 1.4110	12.1594
 1.4100	12.3578
 1.4090	12.2569
 1.4080	12.3416
 1.4070	12.2570
 1.4060	12.3478
 1.4050	12.2655
 1.4040	12.3012
 1.4030	12.2946
 1.4020	12.4048
 1.4010	12.1849
 1.4000	12.3413
 1.3990	12.2590
 1.3980	12.4534
 1.3970	12.3331
 1.3960	12.4440
 1.3950	12.2708
 1.3940	12.4444
 1.3930	12.2632
 1.3920	12.4208
 1.3910	12.4344
 1.3900	12.4707
 1.3890	12.4496
 1.3880	12.4764
 1.3870	12.4257
 1.3860	12.4755
 1.3850	12.4044
 1.3840	12.4478
 1.3830	12.3606
 1.3820	12.4961
 1.3810	12.4233
 1.3800	12.5180
 1.3790	12.4659
 1.3780	12.5726
 1.3770	12.5141
 1.3760	12.6045
 1.3750	12.4863
 1.3740	12.6450
 1.3730	12.4469
 1.3720	12.5874
 1.3710	12.4535
 1.3700	12.5355
 1.3690	12.4666
 1.3680	12.6276
 1.3670	12.5239
 1.3660	12.6384
 1.3650	12.5057
