Name: Calcite CaCO_3
Type: Mineral
Class: Carbonate
Subclass: None
Particle Size: Coarse
Sample No.: C-3D
Owner: JPL
Wavelength Range: VSWIR
Origin: United Kingdom, England.
Collection Date: N/A
Description: Particle size was 125-500um.Collected by:  Ward's Original ASTER Spectral Library name was jpl.perkin.mineral.carbonate.none.coarse.c03d.spectrum.txt
Measurement: Hemispherical reflectance
First Column: X
Second Column: Y
X Units: Wavelength (micrometers)
Y Units:Reflectance (percent)
First X Value:  2.5000
Last X Value:  0.4000
Number of X Values: 2101
Additional Information: mineral.carbonate.none.coarse.vswir.c-3d.jpl.perkin.ancillary.txt

 2.5000	60.7184
 2.4990	60.5282
 2.4980	60.7391
 2.4970	60.8331
 2.4960	60.7673
 2.4950	60.9126
 2.4940	61.0550
 2.4930	61.1879
 2.4920	61.2929
 2.4910	61.3221
 2.4900	61.4727
 2.4890	61.6060
 2.4880	61.7899
 2.4870	61.8705
 2.4860	62.2297
 2.4850	62.4440
 2.4840	62.6108
 2.4830	62.6636
 2.4820	63.0166
 2.4810	63.0796
 2.4800	63.4262
 2.4790	63.5662
 2.4780	63.8398
 2.4770	64.2013
 2.4760	64.5524
 2.4750	64.8426
 2.4740	65.1048
 2.4730	65.2464
 2.4720	65.6991
 2.4710	65.9645
 2.4700	66.3822
 2.4690	66.5567
 2.4680	66.8885
 2.4670	67.1984
 2.4660	67.5938
 2.4650	67.8207
 2.4640	68.2198
 2.4630	68.4689
 2.4620	68.7192
 2.4610	69.0743
 2.4600	69.4219
 2.4590	69.7518
 2.4580	70.0764
 2.4570	70.2153
 2.4560	70.5439
 2.4550	70.8105
 2.4540	71.0855
 2.4530	71.3125
 2.4520	71.5490
 2.4510	71.7341
 2.4500	71.9426
 2.4490	72.0725
 2.4480	72.3490
 2.4470	72.5300
 2.4460	72.7998
 2.4450	72.9936
 2.4440	73.0878
 2.4430	73.2753
 2.4420	73.3974
 2.4410	73.6278
 2.4400	73.8056
 2.4390	73.9193
 2.4380	74.1416
 2.4370	74.2497
 2.4360	74.4238
 2.4350	74.6762
 2.4340	74.7436
 2.4330	74.9174
 2.4320	75.1200
 2.4310	75.3344
 2.4300	75.5253
 2.4290	75.5128
 2.4280	75.6580
 2.4270	75.8367
 2.4260	75.9784
 2.4250	76.0742
 2.4240	76.2787
 2.4230	76.3787
 2.4220	76.5037
 2.4210	76.5848
 2.4200	76.7150
 2.4190	76.8392
 2.4180	76.9726
 2.4170	77.0348
 2.4160	77.1402
 2.4150	77.3409
 2.4140	77.4191
 2.4130	77.4516
 2.4120	77.5874
 2.4110	77.6311
 2.4100	77.7591
 2.4090	77.8671
 2.4080	77.8669
 2.4070	77.9293
 2.4060	78.0367
 2.4050	78.0880
 2.4040	78.0846
 2.4030	78.1785
 2.4020	78.1861
 2.4010	78.2493
 2.4000	78.3404
 2.3990	78.4053
 2.3980	78.4801
 2.3970	78.5463
 2.3960	78.5890
 2.3950	78.6090
 2.3940	78.6887
 2.3930	78.7287
 2.3920	78.7386
 2.3910	78.7884
 2.3900	78.8587
 2.3890	78.9480
 2.3880	78.8678
 2.3870	78.8047
 2.3860	78.8932
 2.3850	78.9329
 2.3840	78.8659
 2.3830	78.8076
 2.3820	78.8153
 2.3810	78.8064
 2.3800	78.8208
 2.3790	78.6973
 2.3780	78.5623
 2.3770	78.5432
 2.3760	78.4224
 2.3750	78.2454
 2.3740	78.1309
 2.3730	77.9417
 2.3720	77.7606
 2.3710	77.5541
 2.3700	77.3065
 2.3690	77.0502
 2.3680	76.7398
 2.3670	76.4558
 2.3660	76.2224
 2.3650	75.8062
 2.3640	75.3911
 2.3630	75.0911
 2.3620	74.6281
 2.3610	74.1753
 2.3600	73.8183
 2.3590	73.3415
 2.3580	72.8503
 2.3570	72.4250
 2.3560	71.9515
 2.3550	71.5147
 2.3540	71.0266
 2.3530	70.5640
 2.3520	70.1016
 2.3510	69.6116
 2.3500	69.1839
 2.3490	68.7708
 2.3480	68.4232
 2.3470	68.1459
 2.3460	67.8046
 2.3450	67.5114
 2.3440	67.2676
 2.3430	67.0458
 2.3420	66.8324
 2.3410	66.6653
 2.3400	66.5461
 2.3390	66.5187
 2.3380	66.4748
 2.3370	66.4615
 2.3360	66.5112
 2.3350	66.5262
 2.3340	66.6035
 2.3330	66.7204
 2.3320	66.8341
 2.3310	66.9943
 2.3300	67.2191
 2.3290	67.4230
 2.3280	67.5912
 2.3270	67.8044
 2.3260	68.0103
 2.3250	68.1967
 2.3240	68.4191
 2.3230	68.6837
 2.3220	68.8702
 2.3210	69.1564
 2.3200	69.4050
 2.3190	69.6056
 2.3180	69.7906
 2.3170	69.9328
 2.3160	70.1139
 2.3150	70.3255
 2.3140	70.5409
 2.3130	70.7049
 2.3120	70.8383
 2.3110	70.9838
 2.3100	71.1477
 2.3090	71.2363
 2.3080	71.3518
 2.3070	71.4474
 2.3060	71.5243
 2.3050	71.6667
 2.3040	71.7735
 2.3030	71.9407
 2.3020	72.0047
 2.3010	72.1842
 2.3000	72.2860
 2.2990	72.3380
 2.2980	72.3928
 2.2970	72.5318
 2.2960	72.6774
 2.2950	72.8181
 2.2940	72.9847
 2.2930	73.1010
 2.2920	73.2511
 2.2910	73.4557
 2.2900	73.5241
 2.2890	73.6997
 2.2880	73.8620
 2.2870	74.0804
 2.2860	74.2684
 2.2850	74.4899
 2.2840	74.6443
 2.2830	74.8528
 2.2820	75.1028
 2.2810	75.2934
 2.2800	75.4493
 2.2790	75.6989
 2.2780	75.9047
 2.2770	76.1942
 2.2760	76.4173
 2.2750	76.5935
 2.2740	76.8604
 2.2730	77.0840
 2.2720	77.2473
 2.2710	77.4501
 2.2700	77.6962
 2.2690	77.8566
 2.2680	78.0348
 2.2670	78.2360
 2.2660	78.3693
 2.2650	78.5563
 2.2640	78.7348
 2.2630	78.9112
 2.2620	79.0667
 2.2610	79.2381
 2.2600	79.4070
 2.2590	79.5172
 2.2580	79.6753
 2.2570	79.7815
 2.2560	79.9212
 2.2550	80.0753
 2.2540	80.1881
 2.2530	80.3443
 2.2520	80.5103
 2.2510	80.5739
 2.2500	80.6653
 2.2490	80.8749
 2.2480	80.8811
 2.2470	81.0772
 2.2460	81.1777
 2.2450	81.3223
 2.2440	81.3150
 2.2430	81.5245
 2.2420	81.5860
 2.2410	81.6460
 2.2400	81.8255
 2.2390	81.9299
 2.2380	81.9626
 2.2370	82.1850
 2.2360	82.1456
 2.2350	82.2918
 2.2340	82.3828
 2.2330	82.4087
 2.2320	82.5007
 2.2310	82.6482
 2.2300	82.7349
 2.2290	82.8053
 2.2280	82.8364
 2.2270	82.9321
 2.2260	83.0339
 2.2250	83.1001
 2.2240	83.1984
 2.2230	83.1064
 2.2220	83.2609
 2.2210	83.3421
 2.2200	83.3485
 2.2190	83.3630
 2.2180	83.4808
 2.2170	83.6122
 2.2160	83.5960
 2.2150	83.7131
 2.2140	83.7080
 2.2130	83.7346
 2.2120	83.8141
 2.2110	83.8609
 2.2100	83.8948
 2.2090	83.9724
 2.2080	84.1065
 2.2070	84.1234
 2.2060	84.1524
 2.2050	84.2219
 2.2040	84.3205
 2.2030	84.4196
 2.2020	84.4975
 2.2010	84.5553
 2.2000	84.6274
 2.1990	84.6601
 2.1980	84.6308
 2.1970	84.7910
 2.1960	84.8198
 2.1950	84.8448
 2.1940	84.9083
 2.1930	84.8876
 2.1920	84.9998
 2.1910	85.0140
 2.1900	85.1093
 2.1890	85.1078
 2.1880	85.2246
 2.1870	85.1772
 2.1860	85.2226
 2.1850	85.2296
 2.1840	85.2746
 2.1830	85.2205
 2.1820	85.2439
 2.1810	85.2334
 2.1800	85.2511
 2.1790	85.2514
 2.1780	85.2355
 2.1770	85.3029
 2.1760	85.2453
 2.1750	85.2891
 2.1740	85.1882
 2.1730	85.1727
 2.1720	85.1263
 2.1710	85.1203
 2.1700	85.0993
 2.1690	85.1134
 2.1680	85.1095
 2.1670	85.0454
 2.1660	85.0861
 2.1650	84.9829
 2.1640	85.0519
 2.1630	85.1126
 2.1620	85.0415
 2.1610	84.9557
 2.1600	84.9766
 2.1590	84.9960
 2.1580	85.0126
 2.1570	85.0856
 2.1560	85.0649
 2.1550	85.0924
 2.1540	85.1211
 2.1530	85.1169
 2.1520	85.1543
 2.1510	85.2150
 2.1500	85.2452
 2.1490	85.3243
 2.1480	85.3879
 2.1470	85.4436
 2.1460	85.4444
 2.1450	85.5092
 2.1440	85.6245
 2.1430	85.6673
 2.1420	85.7418
 2.1410	85.8184
 2.1400	85.8677
 2.1390	85.9608
 2.1380	86.0470
 2.1370	86.0544
 2.1360	86.0446
 2.1350	86.0132
 2.1340	86.1028
 2.1330	86.1525
 2.1320	86.1322
 2.1310	86.0950
 2.1300	86.0751
 2.1290	86.1255
 2.1280	86.0877
 2.1270	86.0776
 2.1260	86.1460
 2.1250	86.0774
 2.1240	86.0503
 2.1230	86.0425
 2.1220	86.0214
 2.1210	85.9254
 2.1200	85.9126
 2.1190	85.8496
 2.1180	85.7913
 2.1170	85.7594
 2.1160	85.7325
 2.1150	85.7105
 2.1140	85.6778
 2.1130	85.6270
 2.1120	85.5397
 2.1110	85.5677
 2.1100	85.5140
 2.1090	85.4325
 2.1080	85.3878
 2.1070	85.4598
 2.1060	85.4323
 2.1050	85.3943
 2.1040	85.3761
 2.1030	85.3026
 2.1020	85.2039
 2.1010	85.1603
 2.1000	85.1823
 2.0990	85.1953
 2.0980	85.2650
 2.0970	85.3076
 2.0960	85.2979
 2.0950	85.3173
 2.0940	85.3301
 2.0930	85.3342
 2.0920	85.3574
 2.0910	85.3530
 2.0900	85.3643
 2.0890	85.3927
 2.0880	85.3750
 2.0870	85.4397
 2.0860	85.4545
 2.0850	85.4396
 2.0840	85.4685
 2.0830	85.4715
 2.0820	85.4169
 2.0810	85.3348
 2.0800	85.3710
 2.0790	85.5134
 2.0780	85.5154
 2.0770	85.4539
 2.0760	85.4499
 2.0750	85.5138
 2.0740	85.5003
 2.0730	85.4242
 2.0720	85.4492
 2.0710	85.4778
 2.0700	85.4562
 2.0690	85.4881
 2.0680	85.5039
 2.0670	85.4667
 2.0660	85.4187
 2.0650	85.4257
 2.0640	85.4499
 2.0630	85.5031
 2.0620	85.4809
 2.0610	85.4149
 2.0600	85.4242
 2.0590	85.4270
 2.0580	85.4114
 2.0570	85.4162
 2.0560	85.4384
 2.0550	85.4211
 2.0540	85.3976
 2.0530	85.3716
 2.0520	85.3660
 2.0510	85.3688
 2.0500	85.3741
 2.0490	85.3644
 2.0480	85.3398
 2.0470	85.3317
 2.0460	85.3207
 2.0450	85.3130
 2.0440	85.3082
 2.0430	85.2345
 2.0420	85.2275
 2.0410	85.2544
 2.0400	85.2239
 2.0390	85.2245
 2.0380	85.2065
 2.0370	85.1503
 2.0360	85.1570
 2.0350	85.1904
 2.0340	85.0972
 2.0330	85.0319
 2.0320	85.0103
 2.0310	84.9996
 2.0300	84.9677
 2.0290	84.8272
 2.0280	84.7541
 2.0270	84.7445
 2.0260	84.7632
 2.0250	84.7453
 2.0240	84.6739
 2.0230	84.5803
 2.0220	84.4509
 2.0210	84.4267
 2.0200	84.4211
 2.0190	84.4329
 2.0180	84.3327
 2.0170	84.2270
 2.0160	84.1265
 2.0150	84.0810
 2.0140	84.0114
 2.0130	83.9376
 2.0120	83.9535
 2.0110	83.7939
 2.0100	83.7235
 2.0090	83.5971
 2.0080	83.5068
 2.0070	83.4290
 2.0060	83.2912
 2.0050	83.1305
 2.0040	83.0017
 2.0030	82.9133
 2.0020	82.7753
 2.0010	82.6515
 2.0000	82.6034
 1.9990	82.5427
 1.9980	82.4662
 1.9970	82.3568
 1.9960	82.3438
 1.9950	82.2403
 1.9940	82.3074
 1.9930	82.3211
 1.9920	82.3797
 1.9910	82.3556
 1.9900	82.3260
 1.9890	82.4024
 1.9880	82.4955
 1.9870	82.4669
 1.9860	82.4829
 1.9850	82.5268
 1.9840	82.4426
 1.9830	82.3930
 1.9820	82.4215
 1.9810	82.4157
 1.9800	82.4278
 1.9790	82.3741
 1.9780	82.3202
 1.9770	82.3515
 1.9760	82.3279
 1.9750	82.3184
 1.9740	82.2733
 1.9730	82.2205
 1.9720	82.1938
 1.9710	82.1826
 1.9700	82.1860
 1.9690	82.1126
 1.9680	82.1023
 1.9670	82.0435
 1.9660	82.0901
 1.9650	82.1249
 1.9640	82.0748
 1.9630	81.9749
 1.9620	82.0344
 1.9610	81.9432
 1.9600	81.9837
 1.9590	81.9432
 1.9580	81.9406
 1.9570	81.9322
 1.9560	81.8659
 1.9550	81.8316
 1.9540	81.9035
 1.9530	81.8534
 1.9520	81.8922
 1.9510	81.8284
 1.9500	81.7790
 1.9490	81.7877
 1.9480	81.8028
 1.9470	81.8858
 1.9460	81.8115
 1.9450	81.8339
 1.9440	81.7820
 1.9430	81.6921
 1.9420	81.7137
 1.9410	81.6857
 1.9400	81.6958
 1.9390	81.7007
 1.9380	81.6707
 1.9370	81.6614
 1.9360	81.6575
 1.9350	81.5980
 1.9340	81.6743
 1.9330	81.6645
 1.9320	81.6918
 1.9310	81.5502
 1.9300	81.5986
 1.9290	81.5151
 1.9280	81.4639
 1.9270	81.6664
 1.9260	81.5722
 1.9250	81.5201
 1.9240	81.5466
 1.9230	81.5503
 1.9220	81.5755
 1.9210	81.5119
 1.9200	81.4751
 1.9190	81.5251
 1.9180	81.5565
 1.9170	81.5667
 1.9160	81.5778
 1.9150	81.6536
 1.9140	81.6856
 1.9130	81.5884
 1.9120	81.6231
 1.9110	81.7164
 1.9100	81.7961
 1.9090	81.8626
 1.9080	82.0520
 1.9070	82.1487
 1.9060	82.2997
 1.9050	82.4823
 1.9040	82.5758
 1.9030	82.7958
 1.9020	83.0524
 1.9010	83.2363
 1.9000	83.4092
 1.8990	83.7491
 1.8980	83.9447
 1.8970	84.0515
 1.8960	84.3603
 1.8950	84.5228
 1.8940	84.7631
 1.8930	84.9490
 1.8920	85.0648
 1.8910	85.2328
 1.8900	85.4248
 1.8890	85.4893
 1.8880	85.5826
 1.8870	85.6083
 1.8860	85.7206
 1.8850	85.7135
 1.8840	85.7208
 1.8830	85.8275
 1.8820	85.8619
 1.8810	85.8070
 1.8800	85.8394
 1.8790	85.8520
 1.8780	85.9266
 1.8770	85.8551
 1.8760	86.0070
 1.8750	86.1821
 1.8740	86.2895
 1.8730	86.4580
 1.8720	86.6359
 1.8710	86.8247
 1.8700	86.9753
 1.8690	87.2223
 1.8680	87.3532
 1.8670	87.5256
 1.8660	87.7076
 1.8650	87.7990
 1.8640	87.9300
 1.8630	88.0451
 1.8620	88.1881
 1.8610	88.2330
 1.8600	88.2680
 1.8590	88.3830
 1.8580	88.4519
 1.8570	88.5440
 1.8560	88.5887
 1.8550	88.6449
 1.8540	88.6845
 1.8530	88.7185
 1.8520	88.8088
 1.8510	88.8183
 1.8500	88.8575
 1.8490	88.8444
 1.8480	88.8680
 1.8470	88.9730
 1.8460	88.9940
 1.8450	89.0223
 1.8440	89.0190
 1.8430	89.0443
 1.8420	89.0760
 1.8410	89.1209
 1.8400	89.2149
 1.8390	89.3007
 1.8380	89.3202
 1.8370	89.2906
 1.8360	89.3613
 1.8350	89.4052
 1.8340	89.4439
 1.8330	89.4911
 1.8320	89.5475
 1.8310	89.5433
 1.8300	89.5751
 1.8290	89.6287
 1.8280	89.6356
 1.8270	89.6562
 1.8260	89.7570
 1.8250	89.8125
 1.8240	89.8236
 1.8230	89.8171
 1.8220	89.8095
 1.8210	89.8771
 1.8200	89.8863
 1.8190	89.9126
 1.8180	89.9044
 1.8170	89.8715
 1.8160	89.8821
 1.8150	89.9351
 1.8140	89.9241
 1.8130	89.9056
 1.8120	89.9449
 1.8110	89.9993
 1.8100	90.0236
 1.8090	90.0757
 1.8080	90.1110
 1.8070	90.1385
 1.8060	90.1174
 1.8050	90.1480
 1.8040	90.1219
 1.8030	90.1094
 1.8020	90.1069
 1.8010	90.1233
 1.8000	90.1603
 1.7990	90.1295
 1.7980	90.1449
 1.7970	90.1742
 1.7960	90.1540
 1.7950	90.1799
 1.7940	90.1727
 1.7930	90.1532
 1.7920	90.1997
 1.7910	90.1869
 1.7900	90.1795
 1.7890	90.1879
 1.7880	90.1555
 1.7870	90.1600
 1.7860	90.2002
 1.7850	90.2144
 1.7840	90.1703
 1.7830	90.1556
 1.7820	90.1910
 1.7810	90.2168
 1.7800	90.1938
 1.7790	90.2174
 1.7780	90.2243
 1.7770	90.1619
 1.7760	90.1260
 1.7750	90.1533
 1.7740	90.1415
 1.7730	90.1408
 1.7720	90.0974
 1.7710	90.0987
 1.7700	90.0822
 1.7690	90.0578
 1.7680	90.0791
 1.7670	90.0599
 1.7660	90.0349
 1.7650	90.0011
 1.7640	89.9916
 1.7630	89.9790
 1.7620	89.9768
 1.7610	89.9866
 1.7600	89.9429
 1.7590	89.9020
 1.7580	89.8692
 1.7570	89.8677
 1.7560	89.9151
 1.7550	89.9555
 1.7540	89.9365
 1.7530	89.9351
 1.7520	89.9905
 1.7510	90.0307
 1.7500	90.0448
 1.7490	90.0758
 1.7480	90.0328
 1.7470	90.0557
 1.7460	89.9801
 1.7450	90.0416
 1.7440	90.1151
 1.7430	90.1189
 1.7420	90.0914
 1.7410	90.1077
 1.7400	90.1172
 1.7390	90.1101
 1.7380	90.1794
 1.7370	90.1309
 1.7360	90.1615
 1.7350	90.2233
 1.7340	90.2015
 1.7330	90.2042
 1.7320	90.1930
 1.7310	90.2155
 1.7300	90.1786
 1.7290	90.2268
 1.7280	90.2401
 1.7270	90.2557
 1.7260	90.2397
 1.7250	90.2384
 1.7240	90.2985
 1.7230	90.3262
 1.7220	90.3487
 1.7210	90.3185
 1.7200	90.3505
 1.7190	90.3378
 1.7180	90.3780
 1.7170	90.3270
 1.7160	90.3274
 1.7150	90.3947
 1.7140	90.3889
 1.7130	90.4602
 1.7120	90.3890
 1.7110	90.3490
 1.7100	90.3677
 1.7090	90.4498
 1.7080	90.5210
 1.7070	90.4849
 1.7060	90.4481
 1.7050	90.4274
 1.7040	90.4995
 1.7030	90.4817
 1.7020	90.4198
 1.7010	90.4693
 1.7000	90.4989
 1.6990	90.5508
 1.6980	90.4983
 1.6970	90.5098
 1.6960	90.5773
 1.6950	90.5864
 1.6940	90.5334
 1.6930	90.5783
 1.6920	90.5473
 1.6910	90.6002
 1.6900	90.5317
 1.6890	90.5730
 1.6880	90.5531
 1.6870	90.5538
 1.6860	90.5674
 1.6850	90.6032
 1.6840	90.5986
 1.6830	90.5865
 1.6820	90.5808
 1.6810	90.5710
 1.6800	90.5590
 1.6790	90.5992
 1.6780	90.5399
 1.6770	90.6184
 1.6760	90.5481
 1.6750	90.6123
 1.6740	90.6179
 1.6730	90.6543
 1.6720	90.6282
 1.6710	90.6558
 1.6700	90.6058
 1.6690	90.5919
 1.6680	90.6641
 1.6670	90.6021
 1.6660	90.6079
 1.6650	90.5751
 1.6640	90.6114
 1.6630	90.5823
 1.6620	90.6365
 1.6610	90.5965
 1.6600	90.6186
 1.6590	90.7466
 1.6580	90.6944
 1.6570	90.4951
 1.6560	90.6172
 1.6550	90.6334
 1.6540	90.6249
 1.6530	90.6221
 1.6520	90.6056
 1.6510	90.6059
 1.6500	90.6428
 1.6490	90.6303
 1.6480	90.6067
 1.6470	90.6268
 1.6460	90.6383
 1.6450	90.7041
 1.6440	90.6255
 1.6430	90.7132
 1.6420	90.6595
 1.6410	90.6073
 1.6400	90.6658
 1.6390	90.7236
 1.6380	90.6414
 1.6370	90.6019
 1.6360	90.6652
 1.6350	90.5867
 1.6340	90.6385
 1.6330	90.7530
 1.6320	90.6848
 1.6310	90.7215
 1.6300	90.6737
 1.6290	90.6771
 1.6280	90.6661
 1.6270	90.6745
 1.6260	90.7755
 1.6250	90.6838
 1.6240	90.6858
 1.6230	90.7065
 1.6220	90.7172
 1.6210	90.7067
 1.6200	90.6899
 1.6190	90.6903
 1.6180	90.6829
 1.6170	90.7176
 1.6160	90.7102
 1.6150	90.6705
 1.6140	90.7370
 1.6130	90.6505
 1.6120	90.6821
 1.6110	90.6798
 1.6100	90.7131
 1.6090	90.5838
 1.6080	90.7450
 1.6070	90.7829
 1.6060	90.7052
 1.6050	90.6990
 1.6040	90.6751
 1.6030	90.7121
 1.6020	90.6877
 1.6010	90.6390
 1.6000	90.6830
 1.5990	90.7169
 1.5980	90.6807
 1.5970	90.6430
 1.5960	90.6797
 1.5950	90.7160
 1.5940	90.6317
 1.5930	90.5973
 1.5920	90.6007
 1.5910	90.5889
 1.5900	90.6643
 1.5890	90.6337
 1.5880	90.6070
 1.5870	90.6198
 1.5860	90.5710
 1.5850	90.5514
 1.5840	90.4958
 1.5830	90.5159
 1.5820	90.4817
 1.5810	90.5553
 1.5800	90.5655
 1.5790	90.5049
 1.5780	90.5140
 1.5770	90.4260
 1.5760	90.4149
 1.5750	90.4043
 1.5740	90.4085
 1.5730	90.4568
 1.5720	90.4387
 1.5710	90.4008
 1.5700	90.3042
 1.5690	90.3243
 1.5680	90.3487
 1.5670	90.2924
 1.5660	90.2457
 1.5650	90.2983
 1.5640	90.2663
 1.5630	90.2408
 1.5620	90.3281
 1.5610	90.2800
 1.5600	90.2600
 1.5590	90.2930
 1.5580	90.3273
 1.5570	90.3462
 1.5560	90.2872
 1.5550	90.2645
 1.5540	90.2665
 1.5530	90.2019
 1.5520	90.2198
 1.5510	90.2350
 1.5500	90.2436
 1.5490	90.2557
 1.5480	90.2123
 1.5470	90.1492
 1.5460	90.1792
 1.5450	90.1590
 1.5440	90.1529
 1.5430	90.1570
 1.5420	90.1574
 1.5410	90.1393
 1.5400	90.1052
 1.5390	90.1111
 1.5380	90.0835
 1.5370	90.0594
 1.5360	90.0412
 1.5350	89.9994
 1.5340	90.0143
 1.5330	90.0233
 1.5320	90.0150
 1.5310	89.9860
 1.5300	90.0304
 1.5290	90.0378
 1.5280	89.9907
 1.5270	89.9461
 1.5260	89.9811
 1.5250	89.9378
 1.5240	89.9002
 1.5230	89.8981
 1.5220	89.8545
 1.5210	89.8500
 1.5200	89.8243
 1.5190	89.8187
 1.5180	89.8264
 1.5170	89.8044
 1.5160	89.8015
 1.5150	89.7827
 1.5140	89.7562
 1.5130	89.7365
 1.5120	89.7172
 1.5110	89.6982
 1.5100	89.6703
 1.5090	89.6644
 1.5080	89.6532
 1.5070	89.6284
 1.5060	89.5943
 1.5050	89.5899
 1.5040	89.5909
 1.5030	89.5311
 1.5020	89.5078
 1.5010	89.5555
 1.5000	89.5501
 1.4990	89.5016
 1.4980	89.4982
 1.4970	89.4410
 1.4960	89.4051
 1.4950	89.4183
 1.4940	89.3812
 1.4930	89.3602
 1.4920	89.3604
 1.4910	89.3314
 1.4900	89.3161
 1.4890	89.2999
 1.4880	89.2973
 1.4870	89.2304
 1.4860	89.2025
 1.4850	89.1723
 1.4840	89.1504
 1.4830	89.1392
 1.4820	89.1078
 1.4810	89.1515
 1.4800	89.1094
 1.4790	89.1125
 1.4780	89.1266
 1.4770	89.0731
 1.4760	89.0030
 1.4750	88.9701
 1.4740	88.9869
 1.4730	88.9607
 1.4720	88.8931
 1.4710	88.8941
 1.4700	88.9461
 1.4690	88.9187
 1.4680	88.8912
 1.4670	88.8814
 1.4660	88.8182
 1.4650	88.8227
 1.4640	88.7980
 1.4630	88.7931
 1.4620	88.8505
 1.4610	88.8384
 1.4600	88.7952
 1.4590	88.8239
 1.4580	88.8331
 1.4570	88.7931
 1.4560	88.7706
 1.4550	88.7471
 1.4540	88.7707
 1.4530	88.7364
 1.4520	88.7694
 1.4510	88.7389
 1.4500	88.7053
 1.4490	88.6598
 1.4480	88.6635
 1.4470	88.7197
 1.4460	88.7682
 1.4450	88.7129
 1.4440	88.7221
 1.4430	88.6665
 1.4420	88.6270
 1.4410	88.6000
 1.4400	88.5950
 1.4390	88.6441
 1.4380	88.5913
 1.4370	88.5906
 1.4360	88.6006
 1.4350	88.5645
 1.4340	88.6180
 1.4330	88.5412
 1.4320	88.5264
 1.4310	88.4978
 1.4300	88.4074
 1.4290	88.4643
 1.4280	88.4463
 1.4270	88.4156
 1.4260	88.4142
 1.4250	88.4136
 1.4240	88.4318
 1.4230	88.4223
 1.4220	88.3557
 1.4210	88.3187
 1.4200	88.3207
 1.4190	88.2781
 1.4180	88.3803
 1.4170	88.2544
 1.4160	88.2310
 1.4150	88.3564
 1.4140	88.3075
 1.4130	88.2441
 1.4120	88.3687
 1.4110	88.4208
 1.4100	88.4496
 1.4090	88.5243
 1.4080	88.6128
 1.4070	88.5730
 1.4060	88.6783
 1.4050	88.7664
 1.4040	88.7719
 1.4030	88.9092
 1.4020	88.9928
 1.4010	89.0172
 1.4000	89.1470
 1.3990	89.1470
 1.3980	89.1941
 1.3970	89.2840
 1.3960	89.4091
 1.3950	89.5420
 1.3940	89.6290
 1.3930	89.6514
 1.3920	89.7997
 1.3910	89.7958
 1.3900	89.8765
 1.3890	89.8401
 1.3880	89.9803
 1.3870	90.0154
 1.3860	90.1187
 1.3850	89.9932
 1.3840	90.0215
 1.3830	90.0742
 1.3820	90.0693
 1.3810	90.1665
 1.3800	90.2137
 1.3790	90.2621
 1.3780	90.2631
 1.3770	90.2981
 1.3760	90.2916
 1.3750	90.3333
 1.3740	90.4158
 1.3730	90.3624
 1.3720	90.4257
 1.3710	90.4599
 1.3700	90.4035
 1.3690	90.4446
 1.3680	90.3814
 1.3670	90.4567
 1.3660	90.3892
 1.3650	90.4795
