Name: Colemanite Ca_2B_6O_11.5H_2O
Type: Mineral
Class: Borate
Subclass: none
Particle Size: Fine
Sample No.: B-1A
Owner: JPL
Wavelength Range: VSWIR
Origin: USA, California, Kern County, Boron.
Collection Date: N/A
Description: Particle Size was <45um.Collected by:  Burminco Original ASTER Spectral Library name was jpl.perkin.mineral.borate.none.fine.b01a.spectrum.txt
Measurement: Hemispherical reflectance
First Column: X
Second Column: Y
X Units: Wavelength (micrometers)
Y Units:Reflectance (percent)
First X Value:  2.5000
Last X Value:  0.4000
Number of X Values: 2101
Additional Information: mineral.borate.none.fine.vswir.b-1a.jpl.perkin.ancillary.txt

 2.5000	34.7303
 2.4990	34.7361
 2.4980	34.6019
 2.4970	34.9189
 2.4960	34.6073
 2.4950	35.0413
 2.4940	34.6915
 2.4930	34.7599
 2.4920	34.6797
 2.4910	34.7441
 2.4900	34.7665
 2.4890	34.9681
 2.4880	34.7328
 2.4870	34.9350
 2.4860	34.8334
 2.4850	34.9412
 2.4840	34.7628
 2.4830	35.0700
 2.4820	35.0168
 2.4810	34.9621
 2.4800	34.8690
 2.4790	35.0200
 2.4780	34.8083
 2.4770	34.8976
 2.4760	34.7283
 2.4750	34.9140
 2.4740	34.6912
 2.4730	34.7894
 2.4720	34.6549
 2.4710	34.6611
 2.4700	34.7213
 2.4690	34.7526
 2.4680	34.6641
 2.4670	34.6800
 2.4660	34.6606
 2.4650	34.8243
 2.4640	34.7601
 2.4630	34.8410
 2.4620	34.6810
 2.4610	34.8224
 2.4600	34.7692
 2.4590	34.7767
 2.4580	34.7644
 2.4570	34.6779
 2.4560	34.7464
 2.4550	34.9249
 2.4540	34.8781
 2.4530	34.9303
 2.4520	34.8208
 2.4510	35.0563
 2.4500	34.9811
 2.4490	35.0646
 2.4480	34.9987
 2.4470	35.1213
 2.4460	35.0509
 2.4450	35.2588
 2.4440	35.2174
 2.4430	35.3741
 2.4420	35.3742
 2.4410	35.4860
 2.4400	35.3898
 2.4390	35.5438
 2.4380	35.5548
 2.4370	35.6855
 2.4360	35.6597
 2.4350	35.8787
 2.4340	35.7930
 2.4330	35.9102
 2.4320	35.9122
 2.4310	36.1031
 2.4300	36.0849
 2.4290	36.1632
 2.4280	36.1297
 2.4270	36.2831
 2.4260	36.3347
 2.4250	36.3885
 2.4240	36.4491
 2.4230	36.5475
 2.4220	36.5715
 2.4210	36.6404
 2.4200	36.6210
 2.4190	36.7651
 2.4180	36.7745
 2.4170	36.9943
 2.4160	36.9885
 2.4150	37.0712
 2.4140	37.1492
 2.4130	37.2839
 2.4120	37.3645
 2.4110	37.5300
 2.4100	37.4900
 2.4090	37.7165
 2.4080	37.9050
 2.4070	38.0038
 2.4060	38.1149
 2.4050	38.2408
 2.4040	38.3835
 2.4030	38.6127
 2.4020	38.7740
 2.4010	38.9229
 2.4000	39.0856
 2.3990	39.3291
 2.3980	39.4926
 2.3970	39.6758
 2.3960	39.8166
 2.3950	40.0642
 2.3940	40.2280
 2.3930	40.4211
 2.3920	40.6195
 2.3910	40.8190
 2.3900	41.0387
 2.3890	41.1949
 2.3880	41.3996
 2.3870	41.6196
 2.3860	41.7862
 2.3850	42.0691
 2.3840	42.3439
 2.3830	42.5569
 2.3820	42.6940
 2.3810	42.8930
 2.3800	43.0854
 2.3790	43.2737
 2.3780	43.4680
 2.3770	43.7078
 2.3760	43.9489
 2.3750	44.1582
 2.3740	44.3550
 2.3730	44.5851
 2.3720	44.7516
 2.3710	44.8825
 2.3700	45.0667
 2.3690	45.3513
 2.3680	45.5519
 2.3670	45.7266
 2.3660	45.8608
 2.3650	46.0520
 2.3640	46.2627
 2.3630	46.4621
 2.3620	46.6201
 2.3610	46.8143
 2.3600	47.0232
 2.3590	47.2097
 2.3580	47.3758
 2.3570	47.5001
 2.3560	47.6944
 2.3550	47.9126
 2.3540	48.1063
 2.3530	48.2756
 2.3520	48.3802
 2.3510	48.5318
 2.3500	48.7207
 2.3490	48.8444
 2.3480	48.9742
 2.3470	49.0947
 2.3460	49.2362
 2.3450	49.2884
 2.3440	49.4158
 2.3430	49.5661
 2.3420	49.6354
 2.3410	49.7708
 2.3400	49.8704
 2.3390	49.9581
 2.3380	50.0665
 2.3370	50.1509
 2.3360	50.2364
 2.3350	50.2634
 2.3340	50.3497
 2.3330	50.4925
 2.3320	50.5865
 2.3310	50.6303
 2.3300	50.7373
 2.3290	50.7898
 2.3280	50.9056
 2.3270	50.9971
 2.3260	51.0799
 2.3250	51.1562
 2.3240	51.2713
 2.3230	51.3117
 2.3220	51.3371
 2.3210	51.4358
 2.3200	51.5102
 2.3190	51.5158
 2.3180	51.6035
 2.3170	51.7110
 2.3160	51.7946
 2.3150	51.8778
 2.3140	51.9758
 2.3130	52.0003
 2.3120	51.9832
 2.3110	51.9700
 2.3100	52.0770
 2.3090	52.1053
 2.3080	52.0753
 2.3070	52.0921
 2.3060	52.2128
 2.3050	52.2054
 2.3040	52.1850
 2.3030	52.1490
 2.3020	52.1873
 2.3010	52.1923
 2.3000	52.2417
 2.2990	52.2366
 2.2980	52.2138
 2.2970	52.2086
 2.2960	52.1816
 2.2950	52.1758
 2.2940	52.2154
 2.2930	52.1209
 2.2920	52.1893
 2.2910	52.1400
 2.2900	52.2019
 2.2890	52.1508
 2.2880	52.1937
 2.2870	52.1069
 2.2860	52.0814
 2.2850	52.0140
 2.2840	51.9817
 2.2830	51.9643
 2.2820	51.9264
 2.2810	51.9043
 2.2800	51.8820
 2.2790	51.8046
 2.2780	51.7511
 2.2770	51.6903
 2.2760	51.6179
 2.2750	51.5471
 2.2740	51.5263
 2.2730	51.4951
 2.2720	51.3776
 2.2710	51.2834
 2.2700	51.2172
 2.2690	51.1751
 2.2680	51.1758
 2.2670	51.1057
 2.2660	50.9960
 2.2650	50.9638
 2.2640	50.9204
 2.2630	50.8047
 2.2620	50.8873
 2.2610	50.6865
 2.2600	50.7171
 2.2590	50.6292
 2.2580	50.4931
 2.2570	50.4287
 2.2560	50.4333
 2.2550	50.3382
 2.2540	50.2708
 2.2530	50.1508
 2.2520	50.0674
 2.2510	49.9764
 2.2500	49.8907
 2.2490	49.7185
 2.2480	49.5919
 2.2470	49.5155
 2.2460	49.3983
 2.2450	49.2384
 2.2440	49.0909
 2.2430	48.9397
 2.2420	48.8658
 2.2410	48.6409
 2.2400	48.5650
 2.2390	48.3572
 2.2380	48.2930
 2.2370	48.0701
 2.2360	47.9483
 2.2350	47.8093
 2.2340	47.7037
 2.2330	47.5462
 2.2320	47.4345
 2.2310	47.2356
 2.2300	47.2429
 2.2290	47.0337
 2.2280	46.9961
 2.2270	46.8686
 2.2260	46.7894
 2.2250	46.5789
 2.2240	46.5762
 2.2230	46.3601
 2.2220	46.3095
 2.2210	46.1395
 2.2200	46.0852
 2.2190	45.8737
 2.2180	45.7527
 2.2170	45.5680
 2.2160	45.5085
 2.2150	45.2570
 2.2140	45.1007
 2.2130	44.8500
 2.2120	44.8789
 2.2110	44.5554
 2.2100	44.6081
 2.2090	44.3071
 2.2080	44.3245
 2.2070	44.0666
 2.2060	44.0687
 2.2050	44.0128
 2.2040	43.9711
 2.2030	43.8958
 2.2020	44.0019
 2.2010	43.9415
 2.2000	44.0821
 2.1990	44.0024
 2.1980	44.1303
 2.1970	44.1400
 2.1960	44.3259
 2.1950	44.3351
 2.1940	44.5521
 2.1930	44.6005
 2.1920	44.7797
 2.1910	44.8005
 2.1900	45.0321
 2.1890	45.0527
 2.1880	45.2166
 2.1870	45.2643
 2.1860	45.4601
 2.1850	45.5618
 2.1840	45.6940
 2.1830	45.7231
 2.1820	45.8064
 2.1810	45.9295
 2.1800	45.9761
 2.1790	46.0154
 2.1780	46.0947
 2.1770	46.0595
 2.1760	46.2521
 2.1750	46.2564
 2.1740	46.3355
 2.1730	46.3718
 2.1720	46.5074
 2.1710	46.3935
 2.1700	46.5453
 2.1690	46.5101
 2.1680	46.6439
 2.1670	46.7521
 2.1660	46.8720
 2.1650	46.9226
 2.1640	47.0928
 2.1630	47.1296
 2.1620	47.3555
 2.1610	47.3834
 2.1600	47.6096
 2.1590	47.7420
 2.1580	47.8666
 2.1570	48.0197
 2.1560	48.1530
 2.1550	48.2373
 2.1540	48.4265
 2.1530	48.5862
 2.1520	48.7529
 2.1510	48.9438
 2.1500	49.1532
 2.1490	49.2367
 2.1480	49.3131
 2.1470	49.4382
 2.1460	49.5525
 2.1450	49.6283
 2.1440	49.7289
 2.1430	49.7029
 2.1420	49.7101
 2.1410	49.6411
 2.1400	49.6828
 2.1390	49.5962
 2.1380	49.5163
 2.1370	49.3081
 2.1360	49.1572
 2.1350	48.9868
 2.1340	48.7911
 2.1330	48.5395
 2.1320	48.3426
 2.1310	47.9995
 2.1300	47.7411
 2.1290	47.4793
 2.1280	47.1857
 2.1270	46.8543
 2.1260	46.4974
 2.1250	46.1100
 2.1240	45.7671
 2.1230	45.3381
 2.1220	44.8998
 2.1210	44.4793
 2.1200	44.0845
 2.1190	43.6364
 2.1180	43.2472
 2.1170	42.8332
 2.1160	42.4711
 2.1150	42.0995
 2.1140	41.8000
 2.1130	41.5011
 2.1120	41.2295
 2.1110	40.9702
 2.1100	40.8124
 2.1090	40.6856
 2.1080	40.6751
 2.1070	40.5762
 2.1060	40.5775
 2.1050	40.6395
 2.1040	40.7616
 2.1030	40.9101
 2.1020	41.1613
 2.1010	41.4286
 2.1000	41.7432
 2.0990	42.1520
 2.0980	42.6593
 2.0970	43.2303
 2.0960	43.8418
 2.0950	44.4726
 2.0940	45.1293
 2.0930	45.8332
 2.0920	46.5355
 2.0910	47.2006
 2.0900	47.8849
 2.0890	48.4590
 2.0880	49.0889
 2.0870	49.6755
 2.0860	50.2592
 2.0850	50.7197
 2.0840	51.0733
 2.0830	51.4504
 2.0820	51.8782
 2.0810	52.2088
 2.0800	52.4066
 2.0790	52.5993
 2.0780	52.8069
 2.0770	52.9481
 2.0760	53.1007
 2.0750	53.2155
 2.0740	53.2955
 2.0730	53.3741
 2.0720	53.4624
 2.0710	53.5552
 2.0700	53.5824
 2.0690	53.6060
 2.0680	53.6531
 2.0670	53.6894
 2.0660	53.7037
 2.0650	53.7717
 2.0640	53.8030
 2.0630	53.8265
 2.0620	53.8435
 2.0610	53.8742
 2.0600	53.8863
 2.0590	53.9178
 2.0580	53.9263
 2.0570	53.9507
 2.0560	53.9783
 2.0550	54.0386
 2.0540	54.0855
 2.0530	54.0643
 2.0520	54.0236
 2.0510	54.0243
 2.0500	54.0648
 2.0490	54.1278
 2.0480	54.0934
 2.0470	54.1498
 2.0460	54.1056
 2.0450	54.0343
 2.0440	54.0607
 2.0430	54.1256
 2.0420	54.0656
 2.0410	54.0519
 2.0400	53.9924
 2.0390	53.9590
 2.0380	53.9354
 2.0370	53.9317
 2.0360	53.9020
 2.0350	53.9228
 2.0340	53.8459
 2.0330	53.8256
 2.0320	53.7498
 2.0310	53.7243
 2.0300	53.6926
 2.0290	53.6651
 2.0280	53.6646
 2.0270	53.6729
 2.0260	53.6024
 2.0250	53.5951
 2.0240	53.5511
 2.0230	53.5402
 2.0220	53.4692
 2.0210	53.4801
 2.0200	53.3822
 2.0190	53.4176
 2.0180	53.3448
 2.0170	53.3343
 2.0160	53.2433
 2.0150	53.2149
 2.0140	53.1567
 2.0130	53.1461
 2.0120	53.1085
 2.0110	53.1072
 2.0100	53.0167
 2.0090	52.9332
 2.0080	52.8238
 2.0070	52.7874
 2.0060	52.7024
 2.0050	52.6920
 2.0040	52.6584
 2.0030	52.6699
 2.0020	52.5503
 2.0010	52.4723
 2.0000	52.4208
 1.9990	52.4176
 1.9980	52.3142
 1.9970	52.2820
 1.9960	52.2360
 1.9950	52.2322
 1.9940	52.1733
 1.9930	52.1510
 1.9920	52.0781
 1.9910	52.0328
 1.9900	51.9808
 1.9890	51.9445
 1.9880	51.8347
 1.9870	51.8189
 1.9860	51.7686
 1.9850	51.8171
 1.9840	51.6938
 1.9830	51.5736
 1.9820	51.5113
 1.9810	51.5305
 1.9800	51.4348
 1.9790	51.4216
 1.9780	51.2992
 1.9770	51.3226
 1.9760	51.1821
 1.9750	51.2080
 1.9740	51.1130
 1.9730	51.0936
 1.9720	50.9545
 1.9710	50.9829
 1.9700	50.8536
 1.9690	50.8732
 1.9680	50.7586
 1.9670	50.8083
 1.9660	50.7280
 1.9650	50.6858
 1.9640	50.6409
 1.9630	50.6194
 1.9620	50.5249
 1.9610	50.6353
 1.9600	50.5477
 1.9590	50.6097
 1.9580	50.6132
 1.9570	50.6399
 1.9560	50.6752
 1.9550	50.8085
 1.9540	50.8503
 1.9530	50.9404
 1.9520	51.0022
 1.9510	51.2776
 1.9500	51.3278
 1.9490	51.4963
 1.9480	51.5898
 1.9470	51.8622
 1.9460	52.0535
 1.9450	52.3569
 1.9440	52.4937
 1.9430	52.6885
 1.9420	52.8898
 1.9410	53.2076
 1.9400	53.4362
 1.9390	53.6928
 1.9380	53.9704
 1.9370	54.3076
 1.9360	54.5159
 1.9350	54.8543
 1.9340	55.0029
 1.9330	55.4303
 1.9320	55.7014
 1.9310	56.1258
 1.9300	56.2656
 1.9290	56.6309
 1.9280	56.8605
 1.9270	57.2193
 1.9260	57.3491
 1.9250	57.6929
 1.9240	57.9698
 1.9230	58.3188
 1.9220	58.5460
 1.9210	58.8739
 1.9200	59.0420
 1.9190	59.2650
 1.9180	59.5191
 1.9170	59.8267
 1.9160	60.0035
 1.9150	60.2950
 1.9140	60.4728
 1.9130	60.7965
 1.9120	60.9014
 1.9110	61.1857
 1.9100	61.3682
 1.9090	61.6609
 1.9080	61.7268
 1.9070	61.9768
 1.9060	62.1367
 1.9050	62.3665
 1.9040	62.4491
 1.9030	62.7551
 1.9020	62.8753
 1.9010	63.1267
 1.9000	63.2625
 1.8990	63.4377
 1.8980	63.5131
 1.8970	63.7139
 1.8960	63.8995
 1.8950	64.0574
 1.8940	64.1304
 1.8930	64.2391
 1.8920	64.3589
 1.8910	64.5190
 1.8900	64.5919
 1.8890	64.7729
 1.8880	64.8019
 1.8870	64.9622
 1.8860	65.0373
 1.8850	65.1832
 1.8840	65.2485
 1.8830	65.2905
 1.8820	65.4306
 1.8810	65.5318
 1.8800	65.5856
 1.8790	65.7716
 1.8780	65.7369
 1.8770	65.8334
 1.8760	65.8983
 1.8750	65.9739
 1.8740	66.0048
 1.8730	66.0727
 1.8720	66.1162
 1.8710	66.2332
 1.8700	66.3101
 1.8690	66.4053
 1.8680	66.4397
 1.8670	66.5864
 1.8660	66.6595
 1.8650	66.7131
 1.8640	66.6487
 1.8630	66.7438
 1.8620	66.7743
 1.8610	66.8319
 1.8600	66.8471
 1.8590	66.8965
 1.8580	66.9700
 1.8570	67.0237
 1.8560	66.9739
 1.8550	66.9956
 1.8540	66.9685
 1.8530	66.9926
 1.8520	67.0515
 1.8510	67.1049
 1.8500	67.0801
 1.8490	67.1310
 1.8480	67.1252
 1.8470	67.1522
 1.8460	67.1375
 1.8450	67.1330
 1.8440	67.1419
 1.8430	67.1297
 1.8420	67.1088
 1.8410	67.1802
 1.8400	67.1977
 1.8390	67.1650
 1.8380	67.1026
 1.8370	67.1397
 1.8360	67.1417
 1.8350	67.1045
 1.8340	67.1189
 1.8330	67.1286
 1.8320	67.1744
 1.8310	67.1531
 1.8300	67.0822
 1.8290	67.0620
 1.8280	67.0884
 1.8270	67.1347
 1.8260	67.1155
 1.8250	67.1232
 1.8240	67.0777
 1.8230	67.0612
 1.8220	66.9984
 1.8210	67.0445
 1.8200	67.0392
 1.8190	67.0783
 1.8180	67.1113
 1.8170	67.0821
 1.8160	66.9958
 1.8150	67.0293
 1.8140	67.0545
 1.8130	67.0623
 1.8120	67.0058
 1.8110	66.9766
 1.8100	67.0613
 1.8090	67.0933
 1.8080	67.0872
 1.8070	67.0808
 1.8060	67.0541
 1.8050	67.1391
 1.8040	67.1495
 1.8030	67.1436
 1.8020	67.1178
 1.8010	67.0843
 1.8000	67.1179
 1.7990	67.0775
 1.7980	67.0640
 1.7970	67.0923
 1.7960	67.1124
 1.7950	67.0947
 1.7940	67.0702
 1.7930	67.1301
 1.7920	67.1486
 1.7910	67.1111
 1.7900	67.1208
 1.7890	67.1378
 1.7880	67.1235
 1.7870	67.1027
 1.7860	67.0697
 1.7850	67.0488
 1.7840	67.0537
 1.7830	67.1060
 1.7820	67.0851
 1.7810	67.0319
 1.7800	67.0564
 1.7790	67.0793
 1.7780	67.0675
 1.7770	67.0719
 1.7760	67.0859
 1.7750	67.0045
 1.7740	67.0299
 1.7730	67.0959
 1.7720	67.0482
 1.7710	67.1079
 1.7700	67.1598
 1.7690	67.0696
 1.7680	67.0559
 1.7670	67.0991
 1.7660	67.1124
 1.7650	67.1347
 1.7640	67.1729
 1.7630	67.1787
 1.7620	67.1449
 1.7610	67.1595
 1.7600	67.1850
 1.7590	67.1751
 1.7580	67.2539
 1.7570	67.2602
 1.7560	67.2769
 1.7550	67.2782
 1.7540	67.3086
 1.7530	67.3528
 1.7520	67.4277
 1.7510	67.4273
 1.7500	67.4709
 1.7490	67.4730
 1.7480	67.4899
 1.7470	67.5013
 1.7460	67.5163
 1.7450	67.5684
 1.7440	67.5732
 1.7430	67.5554
 1.7420	67.6155
 1.7410	67.5991
 1.7400	67.6086
 1.7390	67.6147
 1.7380	67.6303
 1.7370	67.6024
 1.7360	67.6959
 1.7350	67.6506
 1.7340	67.6113
 1.7330	67.6243
 1.7320	67.6545
 1.7310	67.6265
 1.7300	67.6707
 1.7290	67.6124
 1.7280	67.6518
 1.7270	67.6357
 1.7260	67.6312
 1.7250	67.5470
 1.7240	67.5776
 1.7230	67.5811
 1.7220	67.5557
 1.7210	67.5569
 1.7200	67.5031
 1.7190	67.4893
 1.7180	67.4319
 1.7170	67.4472
 1.7160	67.3955
 1.7150	67.3187
 1.7140	67.3305
 1.7130	67.2668
 1.7120	67.2876
 1.7110	67.2170
 1.7100	67.2024
 1.7090	67.1440
 1.7080	67.0986
 1.7070	67.0525
 1.7060	67.0592
 1.7050	66.9762
 1.7040	66.9430
 1.7030	66.8787
 1.7020	66.8165
 1.7010	66.7618
 1.7000	66.7206
 1.6990	66.6863
 1.6980	66.6907
 1.6970	66.6510
 1.6960	66.5812
 1.6950	66.4963
 1.6940	66.4926
 1.6930	66.5202
 1.6920	66.4595
 1.6910	66.4505
 1.6900	66.4791
 1.6890	66.3726
 1.6880	66.4486
 1.6870	66.3553
 1.6860	66.4100
 1.6850	66.2701
 1.6840	66.3443
 1.6830	66.3003
 1.6820	66.3276
 1.6810	66.2203
 1.6800	66.2942
 1.6790	66.2652
 1.6780	66.2249
 1.6770	66.2189
 1.6760	66.2695
 1.6750	66.1784
 1.6740	66.1336
 1.6730	66.1267
 1.6720	66.1949
 1.6710	66.1656
 1.6700	66.1795
 1.6690	66.2292
 1.6680	66.0840
 1.6670	66.0693
 1.6660	66.1657
 1.6650	66.1967
 1.6640	66.1736
 1.6630	66.1435
 1.6620	66.1848
 1.6610	66.2200
 1.6600	66.1695
 1.6590	66.2141
 1.6580	66.3243
 1.6570	66.2822
 1.6560	66.3633
 1.6550	66.3395
 1.6540	66.3942
 1.6530	66.3612
 1.6520	66.4675
 1.6510	66.4286
 1.6500	66.5137
 1.6490	66.5060
 1.6480	66.6703
 1.6470	66.6997
 1.6460	66.8066
 1.6450	66.8172
 1.6440	66.9271
 1.6430	66.8954
 1.6420	67.0729
 1.6410	67.0555
 1.6400	67.2010
 1.6390	67.2714
 1.6380	67.3468
 1.6370	67.3519
 1.6360	67.4582
 1.6350	67.5323
 1.6340	67.6836
 1.6330	67.7175
 1.6320	67.8964
 1.6310	67.8854
 1.6300	67.9757
 1.6290	68.1251
 1.6280	68.2154
 1.6270	68.3212
 1.6260	68.4919
 1.6250	68.5126
 1.6240	68.6789
 1.6230	68.7692
 1.6220	68.8066
 1.6210	68.9659
 1.6200	69.1142
 1.6190	69.2256
 1.6180	69.2645
 1.6170	69.4078
 1.6160	69.4239
 1.6150	69.5371
 1.6140	69.7818
 1.6130	69.7608
 1.6120	69.8434
 1.6110	70.0075
 1.6100	70.0707
 1.6090	70.1069
 1.6080	70.2612
 1.6070	70.3516
 1.6060	70.4795
 1.6050	70.5268
 1.6040	70.6483
 1.6030	70.6378
 1.6020	70.8160
 1.6010	70.7781
 1.6000	70.9322
 1.5990	70.9028
 1.5980	71.0561
 1.5970	71.0912
 1.5960	71.1192
 1.5950	71.2302
 1.5940	71.1912
 1.5930	71.3581
 1.5920	71.3837
 1.5910	71.3717
 1.5900	71.4209
 1.5890	71.4762
 1.5880	71.4986
 1.5870	71.5238
 1.5860	71.5264
 1.5850	71.5044
 1.5840	71.5353
 1.5830	71.4558
 1.5820	71.4686
 1.5810	71.4126
 1.5800	71.3752
 1.5790	71.4029
 1.5780	71.4317
 1.5770	71.3707
 1.5760	71.3469
 1.5750	71.3100
 1.5740	71.3131
 1.5730	71.2687
 1.5720	71.2962
 1.5710	71.2600
 1.5700	71.1958
 1.5690	71.2201
 1.5680	71.2303
 1.5670	71.1735
 1.5660	71.1616
 1.5650	71.1121
 1.5640	71.1148
 1.5630	71.0795
 1.5620	71.1197
 1.5610	71.1092
 1.5600	71.1130
 1.5590	71.1308
 1.5580	71.1302
 1.5570	71.1928
 1.5560	71.2445
 1.5550	71.2468
 1.5540	71.2456
 1.5530	71.2141
 1.5520	71.2720
 1.5510	71.2815
 1.5500	71.3842
 1.5490	71.4525
 1.5480	71.4801
 1.5470	71.5496
 1.5460	71.6928
 1.5450	71.7173
 1.5440	71.7720
 1.5430	71.9036
 1.5420	72.0113
 1.5410	72.0632
 1.5400	72.2077
 1.5390	72.3521
 1.5380	72.4033
 1.5370	72.5118
 1.5360	72.7103
 1.5350	72.8057
 1.5340	72.9010
 1.5330	73.0053
 1.5320	73.0772
 1.5310	73.2066
 1.5300	73.3187
 1.5290	73.4209
 1.5280	73.4947
 1.5270	73.6181
 1.5260	73.7262
 1.5250	73.7777
 1.5240	73.9198
 1.5230	74.0120
 1.5220	74.0490
 1.5210	74.1161
 1.5200	74.2122
 1.5190	74.3187
 1.5180	74.4292
 1.5170	74.4721
 1.5160	74.5466
 1.5150	74.6701
 1.5140	74.7879
 1.5130	74.7942
 1.5120	74.8469
 1.5110	74.9635
 1.5100	75.0323
 1.5090	75.1157
 1.5080	75.2159
 1.5070	75.2689
 1.5060	75.3019
 1.5050	75.3849
 1.5040	75.4541
 1.5030	75.4960
 1.5020	75.5556
 1.5010	75.5740
 1.5000	75.6295
 1.4990	75.6988
 1.4980	75.7008
 1.4970	75.7847
 1.4960	75.8919
 1.4950	75.9011
 1.4940	75.9304
 1.4930	75.9952
 1.4920	76.0560
 1.4910	76.0579
 1.4900	76.0926
 1.4890	76.1703
 1.4880	76.1952
 1.4870	76.2119
 1.4860	76.2083
 1.4850	76.2316
 1.4840	76.2493
 1.4830	76.2926
 1.4820	76.3065
 1.4810	76.2886
 1.4800	76.2950
 1.4790	76.2868
 1.4780	76.2601
 1.4770	76.2307
 1.4760	76.1428
 1.4750	76.0611
 1.4740	76.0591
 1.4730	76.0254
 1.4720	75.9240
 1.4710	75.8835
 1.4700	75.7685
 1.4690	75.6737
 1.4680	75.6085
 1.4670	75.5115
 1.4660	75.4131
 1.4650	75.3006
 1.4640	75.1866
 1.4630	75.1091
 1.4620	75.0087
 1.4610	74.8877
 1.4600	74.7536
 1.4590	74.6309
 1.4580	74.5204
 1.4570	74.4077
 1.4560	74.2555
 1.4550	74.1757
 1.4540	74.0243
 1.4530	73.9220
 1.4520	73.8374
 1.4510	73.8016
 1.4500	73.7016
 1.4490	73.6158
 1.4480	73.4847
 1.4470	73.4830
 1.4460	73.4858
 1.4450	73.4987
 1.4440	73.5460
 1.4430	73.5730
 1.4420	73.6276
 1.4410	73.6895
 1.4400	73.7912
 1.4390	73.8277
 1.4380	73.8197
 1.4370	73.7605
 1.4360	73.6949
 1.4350	73.4970
 1.4340	73.1931
 1.4330	72.6406
 1.4320	72.0020
 1.4310	71.1864
 1.4300	70.0728
 1.4290	68.8964
 1.4280	67.6553
 1.4270	66.4358
 1.4260	65.3330
 1.4250	64.3936
 1.4240	63.6901
 1.4230	63.2814
 1.4220	63.1073
 1.4210	63.3507
 1.4200	63.6069
 1.4190	64.0866
 1.4180	64.6652
 1.4170	65.4719
 1.4160	66.2934
 1.4150	67.4196
 1.4140	68.5339
 1.4130	69.5283
 1.4120	70.5317
 1.4110	71.4371
 1.4100	72.3976
 1.4090	73.3634
 1.4080	74.1191
 1.4070	74.8211
 1.4060	75.5688
 1.4050	76.3126
 1.4040	76.8950
 1.4030	77.5491
 1.4020	78.0345
 1.4010	78.6662
 1.4000	79.2360
 1.3990	79.7609
 1.3980	80.1915
 1.3970	80.6740
 1.3960	81.0765
 1.3950	81.4597
 1.3940	81.7776
 1.3930	82.1442
 1.3920	82.3906
 1.3910	82.6047
 1.3900	82.7964
 1.3890	83.0395
 1.3880	83.2652
 1.3870	83.4396
 1.3860	83.5488
 1.3850	83.7808
 1.3840	84.0914
 1.3830	84.2177
 1.3820	84.4889
 1.3810	84.6943
 1.3800	84.9023
 1.3790	84.9706
 1.3780	85.1545
 1.3770	85.3373
 1.3760	85.3448
 1.3750	85.5305
 1.3740	85.6287
 1.3730	85.7200
 1.3720	85.8676
 1.3710	85.9898
 1.3700	85.9793
 1.3690	86.1218
 1.3680	86.1861
 1.3670	86.3540
 1.3660	86.2917
 1.3650	86.4655
