Name: Topaz Al_2SiO_4(F,OH)_2
Type: Mineral
Class: Silicate
Subclass: Nesosilicate
Particle Size: Coarse
Sample No.: NS-6A
Owner: JPL
Wavelength Range: VSWIR
Origin: Australia, Western Australia, Grossmont.
Collection Date: N/A
Description: Particle size was 125-500um.Collected by:  Ward's Original ASTER Spectral Library name was jpl.perkin.mineral.silicate.nesosilicate.coarse.ns06a.spectrum.txt
Measurement: Hemispherical reflectance
First Column: X
Second Column: Y
X Units: Wavelength (micrometers)
Y Units:Reflectance (percent)
First X Value:  2.5000
Last X Value:  0.4000
Number of X Values: 2101
Additional Information: mineral.silicate.nesosilicate.coarse.vswir.ns-6a.jpl.perkin.ancillary.txt

 2.5000	21.9713
 2.4990	21.9378
 2.4980	22.4781
 2.4970	22.8473
 2.4960	22.7843
 2.4950	23.4401
 2.4940	23.6104
 2.4930	23.8105
 2.4920	24.1489
 2.4910	24.5238
 2.4900	24.8883
 2.4890	25.2141
 2.4880	25.4565
 2.4870	25.6949
 2.4860	26.0790
 2.4850	26.3023
 2.4840	26.6133
 2.4830	26.9209
 2.4820	27.2135
 2.4810	27.2675
 2.4800	27.7006
 2.4790	27.7387
 2.4780	28.0044
 2.4770	28.1206
 2.4760	28.1535
 2.4750	28.3531
 2.4740	28.5497
 2.4730	28.6475
 2.4720	28.8684
 2.4710	28.8184
 2.4700	28.9889
 2.4690	29.2009
 2.4680	29.4508
 2.4670	29.6098
 2.4660	29.8533
 2.4650	29.9680
 2.4640	30.2480
 2.4630	30.4288
 2.4620	30.7023
 2.4610	31.0459
 2.4600	31.1483
 2.4590	31.5023
 2.4580	31.8434
 2.4570	32.0588
 2.4560	32.5448
 2.4550	32.6698
 2.4540	33.0827
 2.4530	33.3098
 2.4520	33.5983
 2.4510	33.8167
 2.4500	34.2497
 2.4490	34.4441
 2.4480	34.6832
 2.4470	34.9880
 2.4460	35.2346
 2.4450	35.3807
 2.4440	35.5487
 2.4430	35.7248
 2.4420	35.9334
 2.4410	36.1035
 2.4400	36.1780
 2.4390	36.2247
 2.4380	36.2904
 2.4370	36.2500
 2.4360	36.4275
 2.4350	36.4008
 2.4340	36.4508
 2.4330	36.3706
 2.4320	36.4223
 2.4310	36.3304
 2.4300	36.3606
 2.4290	36.3785
 2.4280	36.3122
 2.4270	36.2537
 2.4260	36.3448
 2.4250	36.2158
 2.4240	36.2761
 2.4230	36.2137
 2.4220	36.3957
 2.4210	36.2999
 2.4200	36.4246
 2.4190	36.4618
 2.4180	36.5519
 2.4170	36.6128
 2.4160	36.7914
 2.4150	36.8622
 2.4140	37.0231
 2.4130	37.0960
 2.4120	37.3273
 2.4110	37.4781
 2.4100	37.6972
 2.4090	37.7587
 2.4080	38.0041
 2.4070	38.1743
 2.4060	38.3467
 2.4050	38.5071
 2.4040	38.6839
 2.4030	38.8246
 2.4020	38.9995
 2.4010	39.1982
 2.4000	39.3726
 2.3990	39.4301
 2.3980	39.4987
 2.3970	39.6878
 2.3960	39.7704
 2.3950	39.8644
 2.3940	39.9910
 2.3930	40.0703
 2.3920	40.2040
 2.3910	40.2925
 2.3900	40.3485
 2.3890	40.4063
 2.3880	40.5725
 2.3870	40.6289
 2.3860	40.6326
 2.3850	40.6667
 2.3840	40.7939
 2.3830	40.8651
 2.3820	40.8590
 2.3810	40.9292
 2.3800	40.9672
 2.3790	40.9528
 2.3780	41.0186
 2.3770	41.0357
 2.3760	41.1460
 2.3750	41.1969
 2.3740	41.1924
 2.3730	41.2069
 2.3720	41.2707
 2.3710	41.3489
 2.3700	41.4243
 2.3690	41.4372
 2.3680	41.5246
 2.3670	41.6174
 2.3660	41.7306
 2.3650	41.8333
 2.3640	41.9257
 2.3630	42.0200
 2.3620	42.0872
 2.3610	42.1319
 2.3600	42.2932
 2.3590	42.4487
 2.3580	42.4847
 2.3570	42.4950
 2.3560	42.5269
 2.3550	42.6433
 2.3540	42.7048
 2.3530	42.7535
 2.3520	42.8165
 2.3510	42.8561
 2.3500	42.9114
 2.3490	42.9369
 2.3480	42.8860
 2.3470	42.8884
 2.3460	42.8871
 2.3450	42.8895
 2.3440	42.9211
 2.3430	42.9628
 2.3420	42.9540
 2.3410	42.8743
 2.3400	42.8191
 2.3390	42.9139
 2.3380	42.9185
 2.3370	42.8705
 2.3360	42.8608
 2.3350	42.8958
 2.3340	42.9425
 2.3330	42.9808
 2.3320	42.9723
 2.3310	43.0063
 2.3300	43.0196
 2.3290	43.0955
 2.3280	43.1319
 2.3270	43.2562
 2.3260	43.3279
 2.3250	43.3801
 2.3240	43.4375
 2.3230	43.5614
 2.3220	43.6901
 2.3210	43.8522
 2.3200	43.9550
 2.3190	44.1186
 2.3180	44.2242
 2.3170	44.3561
 2.3160	44.5256
 2.3150	44.6690
 2.3140	44.8128
 2.3130	44.9143
 2.3120	45.0533
 2.3110	45.2696
 2.3100	45.4028
 2.3090	45.5367
 2.3080	45.6635
 2.3070	45.7897
 2.3060	45.9161
 2.3050	46.1343
 2.3040	46.2465
 2.3030	46.4008
 2.3020	46.5287
 2.3010	46.7017
 2.3000	46.8585
 2.2990	47.0539
 2.2980	47.1610
 2.2970	47.3424
 2.2960	47.5420
 2.2950	47.7495
 2.2940	47.9646
 2.2930	48.0929
 2.2920	48.2673
 2.2910	48.4302
 2.2900	48.5990
 2.2890	48.8219
 2.2880	48.9073
 2.2870	49.0678
 2.2860	49.2014
 2.2850	49.3538
 2.2840	49.4721
 2.2830	49.5211
 2.2820	49.5657
 2.2810	49.5874
 2.2800	49.6232
 2.2790	49.6373
 2.2780	49.5598
 2.2770	49.6152
 2.2760	49.4105
 2.2750	49.3237
 2.2740	49.1529
 2.2730	49.0245
 2.2720	48.7796
 2.2710	48.6019
 2.2700	48.3467
 2.2690	48.1088
 2.2680	47.8695
 2.2670	47.6548
 2.2660	47.4254
 2.2650	47.2713
 2.2640	47.0169
 2.2630	46.9551
 2.2620	46.7702
 2.2610	46.8482
 2.2600	46.8562
 2.2590	46.9975
 2.2580	47.0216
 2.2570	47.2894
 2.2560	47.4319
 2.2550	47.7393
 2.2540	48.0356
 2.2530	48.3513
 2.2520	48.6895
 2.2510	49.0062
 2.2500	49.2754
 2.2490	49.5431
 2.2480	49.6928
 2.2470	49.9228
 2.2460	50.1214
 2.2450	50.2390
 2.2440	50.3177
 2.2430	50.4260
 2.2420	50.4078
 2.2410	50.4431
 2.2400	50.4472
 2.2390	50.4377
 2.2380	50.4611
 2.2370	50.4809
 2.2360	50.3267
 2.2350	50.3859
 2.2340	50.3455
 2.2330	50.3371
 2.2320	50.2457
 2.2310	50.1062
 2.2300	49.9943
 2.2290	49.9468
 2.2280	49.7135
 2.2270	49.6501
 2.2260	49.4243
 2.2250	49.2336
 2.2240	49.0461
 2.2230	48.8272
 2.2220	48.6183
 2.2210	48.4213
 2.2200	48.0567
 2.2190	47.9061
 2.2180	47.6240
 2.2170	47.3990
 2.2160	47.2335
 2.2150	47.0809
 2.2140	46.8310
 2.2130	46.7494
 2.2120	46.6450
 2.2110	46.4288
 2.2100	46.4302
 2.2090	46.4526
 2.2080	46.4164
 2.2070	46.4350
 2.2060	46.4108
 2.2050	46.5058
 2.2040	46.4704
 2.2030	46.6233
 2.2020	46.6255
 2.2010	46.7579
 2.2000	46.7964
 2.1990	46.9214
 2.1980	46.9724
 2.1970	47.0968
 2.1960	47.1329
 2.1950	47.2872
 2.1940	47.3337
 2.1930	47.4734
 2.1920	47.5224
 2.1910	47.5921
 2.1900	47.5604
 2.1890	47.5173
 2.1880	47.5530
 2.1870	47.4371
 2.1860	47.5225
 2.1850	47.4848
 2.1840	47.2941
 2.1830	47.2465
 2.1820	47.0940
 2.1810	46.9410
 2.1800	46.8578
 2.1790	46.7224
 2.1780	46.5857
 2.1770	46.4371
 2.1760	46.2662
 2.1750	46.2364
 2.1740	46.0562
 2.1730	46.0462
 2.1720	45.9436
 2.1710	45.9156
 2.1700	45.7697
 2.1690	45.7594
 2.1680	45.6825
 2.1670	45.5498
 2.1660	45.4270
 2.1650	45.2732
 2.1640	45.0668
 2.1630	44.9540
 2.1620	44.6600
 2.1610	44.4987
 2.1600	44.2265
 2.1590	43.9027
 2.1580	43.6603
 2.1570	43.4774
 2.1560	43.2802
 2.1550	43.1083
 2.1540	42.8794
 2.1530	42.7891
 2.1520	42.6841
 2.1510	42.7255
 2.1500	42.6997
 2.1490	42.7932
 2.1480	42.9424
 2.1470	43.1075
 2.1460	43.2881
 2.1450	43.5078
 2.1440	43.6601
 2.1430	43.9110
 2.1420	44.1702
 2.1410	44.4888
 2.1400	44.7985
 2.1390	45.1111
 2.1380	45.4297
 2.1370	45.8255
 2.1360	46.1647
 2.1350	46.5414
 2.1340	46.9097
 2.1330	47.2815
 2.1320	47.5812
 2.1310	47.9728
 2.1300	48.1913
 2.1290	48.5726
 2.1280	48.7379
 2.1270	48.9091
 2.1260	49.0815
 2.1250	49.2471
 2.1240	49.3376
 2.1230	49.3698
 2.1220	49.3631
 2.1210	49.3645
 2.1200	49.3189
 2.1190	49.2378
 2.1180	49.1221
 2.1170	48.9569
 2.1160	48.7656
 2.1150	48.5993
 2.1140	48.4056
 2.1130	48.2201
 2.1120	47.9190
 2.1110	47.6432
 2.1100	47.3727
 2.1090	47.0458
 2.1080	46.6492
 2.1070	46.2911
 2.1060	45.8563
 2.1050	45.3564
 2.1040	44.7308
 2.1030	44.0885
 2.1020	43.3985
 2.1010	42.5673
 2.1000	41.6227
 2.0990	40.5943
 2.0980	39.3584
 2.0970	37.9804
 2.0960	36.3628
 2.0950	34.5984
 2.0940	32.6854
 2.0930	30.5927
 2.0920	28.2880
 2.0910	25.9482
 2.0900	23.6091
 2.0890	21.3152
 2.0880	19.0744
 2.0870	17.0988
 2.0860	15.4098
 2.0850	14.1332
 2.0840	13.3932
 2.0830	13.1388
 2.0820	13.3984
 2.0810	14.2084
 2.0800	15.5437
 2.0790	17.3466
 2.0780	19.4809
 2.0770	21.9331
 2.0760	24.6112
 2.0750	27.3117
 2.0740	29.8905
 2.0730	32.4944
 2.0720	35.0110
 2.0710	37.1489
 2.0700	39.1093
 2.0690	40.9126
 2.0680	42.4410
 2.0670	43.7376
 2.0660	44.8335
 2.0650	45.7963
 2.0640	46.6148
 2.0630	47.3047
 2.0620	47.9072
 2.0610	48.3904
 2.0600	48.8649
 2.0590	49.2800
 2.0580	49.6256
 2.0570	49.9008
 2.0560	50.1491
 2.0550	50.3598
 2.0540	50.5665
 2.0530	50.8166
 2.0520	51.0237
 2.0510	51.1276
 2.0500	51.2325
 2.0490	51.3647
 2.0480	51.4810
 2.0470	51.6071
 2.0460	51.6633
 2.0450	51.7275
 2.0440	51.8746
 2.0430	51.9273
 2.0420	51.9786
 2.0410	52.0120
 2.0400	52.0854
 2.0390	52.1835
 2.0380	52.2232
 2.0370	52.2626
 2.0360	52.3028
 2.0350	52.3022
 2.0340	52.3635
 2.0330	52.4038
 2.0320	52.4535
 2.0310	52.4419
 2.0300	52.5286
 2.0290	52.4860
 2.0280	52.5414
 2.0270	52.5384
 2.0260	52.4753
 2.0250	52.4859
 2.0240	52.5634
 2.0230	52.5517
 2.0220	52.6150
 2.0210	52.5725
 2.0200	52.5294
 2.0190	52.5165
 2.0180	52.5558
 2.0170	52.5471
 2.0160	52.5415
 2.0150	52.4856
 2.0140	52.4589
 2.0130	52.4810
 2.0120	52.4941
 2.0110	52.4461
 2.0100	52.4744
 2.0090	52.4580
 2.0080	52.4884
 2.0070	52.5057
 2.0060	52.5013
 2.0050	52.4760
 2.0040	52.5190
 2.0030	52.5683
 2.0020	52.6179
 2.0010	52.5952
 2.0000	52.5880
 1.9990	52.5411
 1.9980	52.6080
 1.9970	52.5871
 1.9960	52.6211
 1.9950	52.6342
 1.9940	52.6939
 1.9930	52.6942
 1.9920	52.6953
 1.9910	52.6881
 1.9900	52.6638
 1.9890	52.5880
 1.9880	52.6807
 1.9870	52.7014
 1.9860	52.6460
 1.9850	52.6906
 1.9840	52.6235
 1.9830	52.6678
 1.9820	52.7010
 1.9810	52.6465
 1.9800	52.5809
 1.9790	52.5666
 1.9780	52.5954
 1.9770	52.5570
 1.9760	52.5700
 1.9750	52.5004
 1.9740	52.4647
 1.9730	52.4663
 1.9720	52.4218
 1.9710	52.4028
 1.9700	52.4169
 1.9690	52.4272
 1.9680	52.4240
 1.9670	52.3627
 1.9660	52.3960
 1.9650	52.2996
 1.9640	52.3460
 1.9630	52.3550
 1.9620	52.3914
 1.9610	52.2347
 1.9600	52.3655
 1.9590	52.2790
 1.9580	52.2883
 1.9570	52.2732
 1.9560	52.3583
 1.9550	52.2631
 1.9540	52.3945
 1.9530	52.2552
 1.9520	52.3439
 1.9510	52.2561
 1.9500	52.3222
 1.9490	52.3533
 1.9480	52.3463
 1.9470	52.2698
 1.9460	52.2799
 1.9450	52.3109
 1.9440	52.3637
 1.9430	52.3288
 1.9420	52.3220
 1.9410	52.3041
 1.9400	52.3225
 1.9390	52.3195
 1.9380	52.3102
 1.9370	52.3820
 1.9360	52.3154
 1.9350	52.3496
 1.9340	52.3980
 1.9330	52.3135
 1.9320	52.3904
 1.9310	52.2732
 1.9300	52.4107
 1.9290	52.3443
 1.9280	52.3673
 1.9270	52.4678
 1.9260	52.2567
 1.9250	52.4154
 1.9240	52.4441
 1.9230	52.3433
 1.9220	52.4277
 1.9210	52.3823
 1.9200	52.4149
 1.9190	52.4925
 1.9180	52.3843
 1.9170	52.4467
 1.9160	52.4630
 1.9150	52.4644
 1.9140	52.4753
 1.9130	52.4734
 1.9120	52.5488
 1.9110	52.5701
 1.9100	52.5916
 1.9090	52.5182
 1.9080	52.5985
 1.9070	52.5630
 1.9060	52.5996
 1.9050	52.6328
 1.9040	52.6892
 1.9030	52.6636
 1.9020	52.7766
 1.9010	52.8517
 1.9000	52.7875
 1.8990	52.8604
 1.8980	52.8942
 1.8970	52.8470
 1.8960	52.9674
 1.8950	53.0114
 1.8940	53.0762
 1.8930	53.0632
 1.8920	53.1261
 1.8910	53.0932
 1.8900	53.1419
 1.8890	53.2199
 1.8880	53.2372
 1.8870	53.2531
 1.8860	53.2722
 1.8850	53.3261
 1.8840	53.3630
 1.8830	53.3562
 1.8820	53.3752
 1.8810	53.4620
 1.8800	53.4709
 1.8790	53.4341
 1.8780	53.4710
 1.8770	53.4776
 1.8760	53.5368
 1.8750	53.5706
 1.8740	53.5250
 1.8730	53.4605
 1.8720	53.5240
 1.8710	53.5164
 1.8700	53.5607
 1.8690	53.5481
 1.8680	53.5841
 1.8670	53.6386
 1.8660	53.5857
 1.8650	53.5526
 1.8640	53.5924
 1.8630	53.5612
 1.8620	53.6281
 1.8610	53.6704
 1.8600	53.6334
 1.8590	53.6436
 1.8580	53.5958
 1.8570	53.6129
 1.8560	53.6368
 1.8550	53.6466
 1.8540	53.6773
 1.8530	53.6622
 1.8520	53.6680
 1.8510	53.6587
 1.8500	53.7099
 1.8490	53.6804
 1.8480	53.7117
 1.8470	53.6660
 1.8460	53.6938
 1.8450	53.6742
 1.8440	53.6943
 1.8430	53.6861
 1.8420	53.7361
 1.8410	53.6977
 1.8400	53.6836
 1.8390	53.6817
 1.8380	53.7386
 1.8370	53.6660
 1.8360	53.7038
 1.8350	53.7425
 1.8340	53.7172
 1.8330	53.7710
 1.8320	53.7148
 1.8310	53.7415
 1.8300	53.7327
 1.8290	53.7280
 1.8280	53.7859
 1.8270	53.7787
 1.8260	53.7602
 1.8250	53.8265
 1.8240	53.8235
 1.8230	53.8084
 1.8220	53.8131
 1.8210	53.7715
 1.8200	53.7919
 1.8190	53.7975
 1.8180	53.8398
 1.8170	53.8567
 1.8160	53.8563
 1.8150	53.8059
 1.8140	53.8102
 1.8130	53.7910
 1.8120	53.7854
 1.8110	53.8315
 1.8100	53.8886
 1.8090	53.8921
 1.8080	53.8727
 1.8070	53.8917
 1.8060	53.8811
 1.8050	53.8650
 1.8040	53.8567
 1.8030	53.8487
 1.8020	53.8239
 1.8010	53.7906
 1.8000	53.7755
 1.7990	53.7884
 1.7980	53.7978
 1.7970	53.7986
 1.7960	53.8441
 1.7950	53.8227
 1.7940	53.8096
 1.7930	53.8013
 1.7920	53.7742
 1.7910	53.7992
 1.7900	53.8263
 1.7890	53.8555
 1.7880	53.8848
 1.7870	53.8719
 1.7860	53.8275
 1.7850	53.8184
 1.7840	53.8378
 1.7830	53.8435
 1.7820	53.8370
 1.7810	53.7885
 1.7800	53.7879
 1.7790	53.8427
 1.7780	53.8291
 1.7770	53.8029
 1.7760	53.8030
 1.7750	53.7856
 1.7740	53.7482
 1.7730	53.7457
 1.7720	53.7041
 1.7710	53.6529
 1.7700	53.6611
 1.7690	53.7347
 1.7680	53.7057
 1.7670	53.6796
 1.7660	53.6644
 1.7650	53.6881
 1.7640	53.6844
 1.7630	53.6579
 1.7620	53.6855
 1.7610	53.7074
 1.7600	53.7105
 1.7590	53.7102
 1.7580	53.7115
 1.7570	53.6774
 1.7560	53.7003
 1.7550	53.7372
 1.7540	53.7022
 1.7530	53.7313
 1.7520	53.7411
 1.7510	53.7230
 1.7500	53.7374
 1.7490	53.7037
 1.7480	53.6952
 1.7470	53.7285
 1.7460	53.7638
 1.7450	53.7242
 1.7440	53.7004
 1.7430	53.7438
 1.7420	53.7405
 1.7410	53.7152
 1.7400	53.6895
 1.7390	53.7456
 1.7380	53.7258
 1.7370	53.7288
 1.7360	53.7038
 1.7350	53.7154
 1.7340	53.7051
 1.7330	53.7239
 1.7320	53.7053
 1.7310	53.6754
 1.7300	53.6498
 1.7290	53.6136
 1.7280	53.5811
 1.7270	53.5639
 1.7260	53.5432
 1.7250	53.6055
 1.7240	53.6066
 1.7230	53.6240
 1.7220	53.5792
 1.7210	53.5732
 1.7200	53.6097
 1.7190	53.6978
 1.7180	53.6207
 1.7170	53.7015
 1.7160	53.7844
 1.7150	53.7419
 1.7140	53.7590
 1.7130	53.8019
 1.7120	53.8034
 1.7110	53.8113
 1.7100	53.7782
 1.7090	53.8128
 1.7080	53.8355
 1.7070	53.8149
 1.7060	53.8160
 1.7050	53.7500
 1.7040	53.7702
 1.7030	53.8247
 1.7020	53.7718
 1.7010	53.7352
 1.7000	53.7616
 1.6990	53.7166
 1.6980	53.7282
 1.6970	53.6069
 1.6960	53.6228
 1.6950	53.5887
 1.6940	53.5338
 1.6930	53.5182
 1.6920	53.4091
 1.6910	53.2798
 1.6900	53.0430
 1.6890	52.9145
 1.6880	52.6730
 1.6870	52.5258
 1.6860	52.3589
 1.6850	52.2290
 1.6840	52.0880
 1.6830	52.1637
 1.6820	52.2395
 1.6810	52.4635
 1.6800	52.6875
 1.6790	52.8899
 1.6780	53.1315
 1.6770	53.2803
 1.6760	53.3486
 1.6750	53.5546
 1.6740	53.5560
 1.6730	53.6706
 1.6720	53.6405
 1.6710	53.7619
 1.6700	53.7613
 1.6690	53.7938
 1.6680	53.6844
 1.6670	53.8696
 1.6660	53.7658
 1.6650	53.8299
 1.6640	53.8280
 1.6630	53.8653
 1.6620	53.8161
 1.6610	53.8471
 1.6600	53.8343
 1.6590	53.8440
 1.6580	53.7855
 1.6570	53.8397
 1.6560	53.7392
 1.6550	53.8688
 1.6540	53.7884
 1.6530	53.7703
 1.6520	53.7625
 1.6510	53.8110
 1.6500	53.7784
 1.6490	53.8029
 1.6480	53.7456
 1.6470	53.7898
 1.6460	53.7737
 1.6450	53.8452
 1.6440	53.7649
 1.6430	53.8375
 1.6420	53.7427
 1.6410	53.7000
 1.6400	53.8415
 1.6390	53.7997
 1.6380	53.7070
 1.6370	53.7804
 1.6360	53.7619
 1.6350	53.7299
 1.6340	53.7503
 1.6330	53.7463
 1.6320	53.6941
 1.6310	53.7599
 1.6300	53.7745
 1.6290	53.8059
 1.6280	53.6880
 1.6270	53.7192
 1.6260	53.7301
 1.6250	53.8235
 1.6240	53.7456
 1.6230	53.8296
 1.6220	53.7545
 1.6210	53.7402
 1.6200	53.7214
 1.6190	53.7405
 1.6180	53.7367
 1.6170	53.7481
 1.6160	53.6776
 1.6150	53.7180
 1.6140	53.6680
 1.6130	53.7302
 1.6120	53.7391
 1.6110	53.6665
 1.6100	53.6530
 1.6090	53.6484
 1.6080	53.6029
 1.6070	53.6227
 1.6060	53.6334
 1.6050	53.6946
 1.6040	53.6015
 1.6030	53.7189
 1.6020	53.6125
 1.6010	53.6689
 1.6000	53.5969
 1.5990	53.6326
 1.5980	53.6819
 1.5970	53.6671
 1.5960	53.6718
 1.5950	53.6976
 1.5940	53.6751
 1.5930	53.6737
 1.5920	53.6631
 1.5910	53.7394
 1.5900	53.7537
 1.5890	53.7183
 1.5880	53.7008
 1.5870	53.7400
 1.5860	53.7462
 1.5850	53.7228
 1.5840	53.7524
 1.5830	53.7827
 1.5820	53.6840
 1.5810	53.7677
 1.5800	53.7020
 1.5790	53.6860
 1.5780	53.6426
 1.5770	53.7407
 1.5760	53.7516
 1.5750	53.7596
 1.5740	53.7435
 1.5730	53.7762
 1.5720	53.6925
 1.5710	53.7372
 1.5700	53.7476
 1.5690	53.7439
 1.5680	53.7412
 1.5670	53.7128
 1.5660	53.7408
 1.5650	53.7497
 1.5640	53.7297
 1.5630	53.7169
 1.5620	53.7278
 1.5610	53.7722
 1.5600	53.7514
 1.5590	53.7368
 1.5580	53.7669
 1.5570	53.7863
 1.5560	53.7319
 1.5550	53.7503
 1.5540	53.7153
 1.5530	53.7045
 1.5520	53.6868
 1.5510	53.7255
 1.5500	53.7014
 1.5490	53.7637
 1.5480	53.7390
 1.5470	53.7416
 1.5460	53.7386
 1.5450	53.7131
 1.5440	53.6685
 1.5430	53.6788
 1.5420	53.6828
 1.5410	53.6990
 1.5400	53.7074
 1.5390	53.6930
 1.5380	53.7491
 1.5370	53.7363
 1.5360	53.6744
 1.5350	53.6824
 1.5340	53.7032
 1.5330	53.7123
 1.5320	53.6755
 1.5310	53.6713
 1.5300	53.6608
 1.5290	53.6851
 1.5280	53.6696
 1.5270	53.6862
 1.5260	53.6827
 1.5250	53.6871
 1.5240	53.6822
 1.5230	53.6731
 1.5220	53.6676
 1.5210	53.6900
 1.5200	53.6381
 1.5190	53.6442
 1.5180	53.6683
 1.5170	53.6234
 1.5160	53.6250
 1.5150	53.6505
 1.5140	53.6431
 1.5130	53.6394
 1.5120	53.6010
 1.5110	53.6070
 1.5100	53.7042
 1.5090	53.7393
 1.5080	53.6544
 1.5070	53.6287
 1.5060	53.6328
 1.5050	53.6381
 1.5040	53.6176
 1.5030	53.6315
 1.5020	53.6487
 1.5010	53.6206
 1.5000	53.5931
 1.4990	53.6075
 1.4980	53.6291
 1.4970	53.6439
 1.4960	53.6483
 1.4950	53.6353
 1.4940	53.5785
 1.4930	53.5749
 1.4920	53.5821
 1.4910	53.5621
 1.4900	53.5787
 1.4890	53.5270
 1.4880	53.4979
 1.4870	53.5246
 1.4860	53.5298
 1.4850	53.5082
 1.4840	53.5530
 1.4830	53.5616
 1.4820	53.5376
 1.4810	53.5640
 1.4800	53.5759
 1.4790	53.5897
 1.4780	53.5528
 1.4770	53.5476
 1.4760	53.5576
 1.4750	53.5101
 1.4740	53.4744
 1.4730	53.4857
 1.4720	53.5221
 1.4710	53.5314
 1.4700	53.4672
 1.4690	53.4329
 1.4680	53.4326
 1.4670	53.4180
 1.4660	53.4083
 1.4650	53.3994
 1.4640	53.4314
 1.4630	53.4172
 1.4620	53.4048
 1.4610	53.4230
 1.4600	53.4470
 1.4590	53.4336
 1.4580	53.4431
 1.4570	53.4192
 1.4560	53.3756
 1.4550	53.3873
 1.4540	53.3969
 1.4530	53.4309
 1.4520	53.4276
 1.4510	53.3964
 1.4500	53.3544
 1.4490	53.3508
 1.4480	53.3601
 1.4470	53.3363
 1.4460	53.3477
 1.4450	53.3046
 1.4440	53.3191
 1.4430	53.3472
 1.4420	53.3151
 1.4410	53.3255
 1.4400	53.3883
 1.4390	53.3487
 1.4380	53.3181
 1.4370	53.3347
 1.4360	53.3724
 1.4350	53.3182
 1.4340	53.3402
 1.4330	53.3312
 1.4320	53.3101
 1.4310	53.2735
 1.4300	53.2879
 1.4290	53.2708
 1.4280	53.2553
 1.4270	53.2509
 1.4260	53.2332
 1.4250	53.2231
 1.4240	53.1888
 1.4230	53.1370
 1.4220	53.1379
 1.4210	53.0299
 1.4200	52.9275
 1.4190	52.7374
 1.4180	52.6373
 1.4170	52.4244
 1.4160	52.2309
 1.4150	51.6431
 1.4140	50.9375
 1.4130	50.1199
 1.4120	49.1563
 1.4110	47.9453
 1.4100	46.4394
 1.4090	44.2823
 1.4080	41.7476
 1.4070	38.9676
 1.4060	36.7415
 1.4050	35.5910
 1.4040	36.0735
 1.4030	38.1996
 1.4020	41.4611
 1.4010	44.9954
 1.4000	47.8857
 1.3990	49.8712
 1.3980	51.0878
 1.3970	51.6608
 1.3960	52.1703
 1.3950	52.4022
 1.3940	52.5925
 1.3930	52.6303
 1.3920	52.8212
 1.3910	52.9462
 1.3900	53.0224
 1.3890	53.0463
 1.3880	53.1282
 1.3870	53.0980
 1.3860	53.1233
 1.3850	53.1478
 1.3840	53.1977
 1.3830	53.0421
 1.3820	53.0589
 1.3810	53.0494
 1.3800	53.0603
 1.3790	53.0130
 1.3780	53.0686
 1.3770	53.0492
 1.3760	53.0749
 1.3750	53.0013
 1.3740	52.9639
 1.3730	53.0144
 1.3720	52.9687
 1.3710	52.9423
 1.3700	52.9847
 1.3690	53.0356
 1.3680	53.1442
