Name: Calcite CaCO_3
Type: Mineral
Class: Carbonate
Subclass: None
Particle Size: Medium
Sample No.: C-3D
Owner: JPL
Wavelength Range: VSWIR
Origin: United Kingdom, England.
Collection Date: N/A
Description: Particle size was 45-125um.Collected by:  Ward's Original ASTER Spectral Library name was jpl.perkin.mineral.carbonate.none.medium.c03d.spectrum.txt
Measurement: Hemispherical reflectance
First Column: X
Second Column: Y
X Units: Wavelength (micrometers)
Y Units:Reflectance (percent)
First X Value:  2.5000
Last X Value:  0.4000
Number of X Values: 2101
Additional Information: mineral.carbonate.none.medium.vswir.c-3d.jpl.perkin.ancillary.txt

 2.5000	64.2307
 2.4990	64.2619
 2.4980	64.2276
 2.4970	64.3582
 2.4960	64.3797
 2.4950	64.3937
 2.4940	64.5866
 2.4930	64.7459
 2.4920	64.7453
 2.4910	65.0212
 2.4900	65.0583
 2.4890	65.0284
 2.4880	65.4310
 2.4870	65.5325
 2.4860	65.8707
 2.4850	65.8732
 2.4840	66.0125
 2.4830	66.2182
 2.4820	66.5432
 2.4810	66.6463
 2.4800	66.9174
 2.4790	67.0955
 2.4780	67.2164
 2.4770	67.4698
 2.4760	67.8391
 2.4750	67.9514
 2.4740	68.3504
 2.4730	68.6082
 2.4720	69.0301
 2.4710	69.1168
 2.4700	69.4864
 2.4690	69.7242
 2.4680	69.8817
 2.4670	70.2836
 2.4660	70.5996
 2.4650	70.9268
 2.4640	71.1391
 2.4630	71.5546
 2.4620	71.7316
 2.4610	72.0821
 2.4600	72.2946
 2.4590	72.5025
 2.4580	72.8432
 2.4570	73.0439
 2.4560	73.4043
 2.4550	73.5848
 2.4540	73.8011
 2.4530	74.0679
 2.4520	74.2143
 2.4510	74.3369
 2.4500	74.6686
 2.4490	74.7219
 2.4480	74.9401
 2.4470	75.0403
 2.4460	75.2500
 2.4450	75.4599
 2.4440	75.5609
 2.4430	75.6195
 2.4420	75.8763
 2.4410	75.9533
 2.4400	76.1762
 2.4390	76.3656
 2.4380	76.4393
 2.4370	76.5824
 2.4360	76.7345
 2.4350	76.9223
 2.4340	77.0034
 2.4330	77.1551
 2.4320	77.2154
 2.4310	77.4388
 2.4300	77.5164
 2.4290	77.6128
 2.4280	77.7709
 2.4270	77.8637
 2.4260	78.0313
 2.4250	78.1136
 2.4240	78.3293
 2.4230	78.4346
 2.4220	78.4828
 2.4210	78.6039
 2.4200	78.7292
 2.4190	78.7696
 2.4180	78.8815
 2.4170	79.0441
 2.4160	79.1554
 2.4150	79.1796
 2.4140	79.2392
 2.4130	79.3353
 2.4120	79.4217
 2.4110	79.4714
 2.4100	79.4812
 2.4090	79.5853
 2.4080	79.6510
 2.4070	79.6923
 2.4060	79.7083
 2.4050	79.7325
 2.4040	79.8377
 2.4030	79.8282
 2.4020	79.8904
 2.4010	79.9840
 2.4000	80.0228
 2.3990	80.0881
 2.3980	80.1461
 2.3970	80.2192
 2.3960	80.2156
 2.3950	80.2304
 2.3940	80.2821
 2.3930	80.3334
 2.3920	80.3773
 2.3910	80.4161
 2.3900	80.4245
 2.3890	80.4040
 2.3880	80.4853
 2.3870	80.4532
 2.3860	80.4731
 2.3850	80.5582
 2.3840	80.5215
 2.3830	80.4755
 2.3820	80.5180
 2.3810	80.4981
 2.3800	80.4621
 2.3790	80.4022
 2.3780	80.3250
 2.3770	80.2557
 2.3760	80.1477
 2.3750	80.0267
 2.3740	79.9051
 2.3730	79.7490
 2.3720	79.6320
 2.3710	79.4800
 2.3700	79.2690
 2.3690	79.0577
 2.3680	78.8640
 2.3670	78.5825
 2.3660	78.2850
 2.3650	78.0256
 2.3640	77.7433
 2.3630	77.4096
 2.3620	77.0092
 2.3610	76.6420
 2.3600	76.3204
 2.3590	75.9483
 2.3580	75.5250
 2.3570	75.0961
 2.3560	74.6353
 2.3550	74.2075
 2.3540	73.8652
 2.3530	73.4671
 2.3520	73.0332
 2.3510	72.6943
 2.3500	72.3466
 2.3490	71.9606
 2.3480	71.6161
 2.3470	71.2952
 2.3460	71.0212
 2.3450	70.7402
 2.3440	70.5258
 2.3430	70.3330
 2.3420	70.1449
 2.3410	70.0429
 2.3400	69.9507
 2.3390	69.8541
 2.3380	69.8060
 2.3370	69.7972
 2.3360	69.7994
 2.3350	69.8335
 2.3340	69.9308
 2.3330	70.0393
 2.3320	70.1364
 2.3310	70.3033
 2.3300	70.4830
 2.3290	70.6749
 2.3280	70.8005
 2.3270	71.0029
 2.3260	71.1448
 2.3250	71.3482
 2.3240	71.5905
 2.3230	71.8162
 2.3220	72.0198
 2.3210	72.2428
 2.3200	72.4328
 2.3190	72.5926
 2.3180	72.7460
 2.3170	73.0025
 2.3160	73.2073
 2.3150	73.3179
 2.3140	73.4295
 2.3130	73.5602
 2.3120	73.7027
 2.3110	73.8571
 2.3100	74.0083
 2.3090	74.1046
 2.3080	74.2403
 2.3070	74.2903
 2.3060	74.3136
 2.3050	74.4481
 2.3040	74.5890
 2.3030	74.6722
 2.3020	74.8427
 2.3010	74.9163
 2.3000	74.9696
 2.2990	75.0937
 2.2980	75.1407
 2.2970	75.2248
 2.2960	75.3536
 2.2950	75.4423
 2.2940	75.5669
 2.2930	75.7333
 2.2920	75.9020
 2.2910	76.0195
 2.2900	76.1578
 2.2890	76.2701
 2.2880	76.3530
 2.2870	76.5121
 2.2860	76.7428
 2.2850	76.9170
 2.2840	77.0458
 2.2830	77.2233
 2.2820	77.4257
 2.2810	77.5601
 2.2800	77.7438
 2.2790	77.9315
 2.2780	78.1125
 2.2770	78.3017
 2.2760	78.5575
 2.2750	78.7309
 2.2740	78.8618
 2.2730	79.0608
 2.2720	79.1993
 2.2710	79.4093
 2.2700	79.5807
 2.2690	79.6770
 2.2680	79.8640
 2.2670	80.0024
 2.2660	80.1632
 2.2650	80.2673
 2.2640	80.3250
 2.2630	80.5173
 2.2620	80.6806
 2.2610	80.8041
 2.2600	80.9343
 2.2590	80.9851
 2.2580	81.0794
 2.2570	81.1832
 2.2560	81.3491
 2.2550	81.4803
 2.2540	81.6465
 2.2530	81.7288
 2.2520	81.8107
 2.2510	81.9357
 2.2500	81.9663
 2.2490	82.0520
 2.2480	82.1149
 2.2470	82.2117
 2.2460	82.2863
 2.2450	82.4017
 2.2440	82.4793
 2.2430	82.6076
 2.2420	82.6319
 2.2410	82.7352
 2.2400	82.7811
 2.2390	82.9526
 2.2380	82.9887
 2.2370	83.0676
 2.2360	83.0653
 2.2350	83.1472
 2.2340	83.2163
 2.2330	83.3339
 2.2320	83.3474
 2.2310	83.5081
 2.2300	83.5338
 2.2290	83.5780
 2.2280	83.6474
 2.2270	83.6949
 2.2260	83.7524
 2.2250	83.7953
 2.2240	83.7817
 2.2230	83.8773
 2.2220	83.9079
 2.2210	83.9598
 2.2200	83.9811
 2.2190	84.0823
 2.2180	84.0860
 2.2170	84.1503
 2.2160	84.1453
 2.2150	84.2621
 2.2140	84.2160
 2.2130	84.2951
 2.2120	84.2648
 2.2110	84.3154
 2.2100	84.4440
 2.2090	84.4361
 2.2080	84.4842
 2.2070	84.5938
 2.2060	84.5833
 2.2050	84.7262
 2.2040	84.7229
 2.2030	84.6465
 2.2020	84.8539
 2.2010	84.8548
 2.2000	84.9055
 2.1990	84.9704
 2.1980	84.9830
 2.1970	84.9325
 2.1960	85.0489
 2.1950	85.0057
 2.1940	85.0567
 2.1930	85.1093
 2.1920	85.1370
 2.1910	85.2422
 2.1900	85.2180
 2.1890	85.2160
 2.1880	85.2432
 2.1870	85.2436
 2.1860	85.3148
 2.1850	85.2377
 2.1840	85.3303
 2.1830	85.3064
 2.1820	85.3073
 2.1810	85.3191
 2.1800	85.3299
 2.1790	85.3683
 2.1780	85.3814
 2.1770	85.3322
 2.1760	85.3222
 2.1750	85.3753
 2.1740	85.3433
 2.1730	85.3086
 2.1720	85.3101
 2.1710	85.2854
 2.1700	85.3490
 2.1690	85.3507
 2.1680	85.3129
 2.1670	85.3148
 2.1660	85.2734
 2.1650	85.2867
 2.1640	85.3553
 2.1630	85.2977
 2.1620	85.2949
 2.1610	85.2790
 2.1600	85.3016
 2.1590	85.2686
 2.1580	85.3298
 2.1570	85.3402
 2.1560	85.3022
 2.1550	85.4003
 2.1540	85.3970
 2.1530	85.4308
 2.1520	85.4595
 2.1510	85.4597
 2.1500	85.5187
 2.1490	85.4854
 2.1480	85.5218
 2.1470	85.6206
 2.1460	85.6403
 2.1450	85.6886
 2.1440	85.6997
 2.1430	85.7791
 2.1420	85.8094
 2.1410	85.8557
 2.1400	85.8977
 2.1390	85.9355
 2.1380	85.9575
 2.1370	85.9768
 2.1360	85.9079
 2.1350	85.9758
 2.1340	85.9680
 2.1330	85.9296
 2.1320	85.9251
 2.1310	85.7026
 2.1300	85.3566
 2.1290	85.9752
 2.1280	85.8845
 2.1270	85.8310
 2.1260	85.8762
 2.1250	85.8090
 2.1240	85.7723
 2.1230	85.7476
 2.1220	85.6793
 2.1210	85.6282
 2.1200	85.6202
 2.1190	85.6396
 2.1180	85.5814
 2.1170	85.5479
 2.1160	85.4803
 2.1150	85.4220
 2.1140	85.4255
 2.1130	85.3686
 2.1120	85.3292
 2.1110	85.2292
 2.1100	85.1449
 2.1090	85.1450
 2.1080	85.1062
 2.1070	85.0504
 2.1060	85.0894
 2.1050	85.0314
 2.1040	85.0051
 2.1030	84.9534
 2.1020	84.8634
 2.1010	84.8322
 2.1000	84.8262
 2.0990	84.8077
 2.0980	84.8472
 2.0970	84.9280
 2.0960	84.9144
 2.0950	84.9275
 2.0940	84.9435
 2.0930	84.9734
 2.0920	84.9522
 2.0910	84.9447
 2.0900	84.9596
 2.0890	84.9827
 2.0880	84.9938
 2.0870	85.0002
 2.0860	84.9553
 2.0850	84.9783
 2.0840	85.0567
 2.0830	85.0240
 2.0820	84.9915
 2.0810	85.0534
 2.0800	85.0809
 2.0790	85.0844
 2.0780	85.0595
 2.0770	85.0263
 2.0760	84.9869
 2.0750	85.0773
 2.0740	85.0916
 2.0730	84.9935
 2.0720	85.0158
 2.0710	85.0480
 2.0700	85.0680
 2.0690	85.0805
 2.0680	85.0937
 2.0670	85.1378
 2.0660	85.1244
 2.0650	85.1036
 2.0640	85.0905
 2.0630	85.0726
 2.0620	85.1139
 2.0610	85.1310
 2.0600	85.0534
 2.0590	85.0667
 2.0580	85.0782
 2.0570	85.1048
 2.0560	85.1503
 2.0550	85.0867
 2.0540	85.0349
 2.0530	85.0753
 2.0520	85.0976
 2.0510	85.0088
 2.0500	85.0051
 2.0490	85.0863
 2.0480	85.0926
 2.0470	85.0939
 2.0460	85.0707
 2.0450	85.0440
 2.0440	85.0101
 2.0430	85.0372
 2.0420	84.9822
 2.0410	84.9968
 2.0400	85.0475
 2.0390	84.9805
 2.0380	84.9777
 2.0370	84.9954
 2.0360	84.9312
 2.0350	84.9319
 2.0340	84.9129
 2.0330	84.8473
 2.0320	84.8567
 2.0310	84.8220
 2.0300	84.7632
 2.0290	84.7463
 2.0280	84.7361
 2.0270	84.6705
 2.0260	84.6660
 2.0250	84.5999
 2.0240	84.6067
 2.0230	84.5895
 2.0220	84.5288
 2.0210	84.4991
 2.0200	84.4291
 2.0190	84.3968
 2.0180	84.4014
 2.0170	84.2728
 2.0160	84.2459
 2.0150	84.3057
 2.0140	84.2588
 2.0130	84.1434
 2.0120	84.0600
 2.0110	83.9548
 2.0100	83.8943
 2.0090	83.8569
 2.0080	83.8333
 2.0070	83.7507
 2.0060	83.6625
 2.0050	83.4737
 2.0040	83.4396
 2.0030	83.3657
 2.0020	83.2682
 2.0010	83.1613
 2.0000	83.1542
 1.9990	83.0676
 1.9980	82.9930
 1.9970	82.9557
 1.9960	82.9526
 1.9950	82.9305
 1.9940	82.8651
 1.9930	82.8999
 1.9920	82.9371
 1.9910	82.9029
 1.9900	82.9096
 1.9890	82.9651
 1.9880	83.0319
 1.9870	83.0188
 1.9860	82.9958
 1.9850	82.9437
 1.9840	82.9376
 1.9830	82.9494
 1.9820	82.9891
 1.9810	83.0163
 1.9800	83.0094
 1.9790	82.9152
 1.9780	82.9392
 1.9770	82.8778
 1.9760	82.8651
 1.9750	82.8667
 1.9740	82.8032
 1.9730	82.8279
 1.9720	82.7612
 1.9710	82.7050
 1.9700	82.6645
 1.9690	82.6613
 1.9680	82.7068
 1.9670	82.6053
 1.9660	82.6615
 1.9650	82.6144
 1.9640	82.6207
 1.9630	82.5697
 1.9620	82.5766
 1.9610	82.5892
 1.9600	82.5783
 1.9590	82.5530
 1.9580	82.4783
 1.9570	82.4935
 1.9560	82.4009
 1.9550	82.3641
 1.9540	82.4326
 1.9530	82.5507
 1.9520	82.5268
 1.9510	82.4094
 1.9500	82.4025
 1.9490	82.3859
 1.9480	82.4274
 1.9470	82.3471
 1.9460	82.3684
 1.9450	82.4780
 1.9440	82.3508
 1.9430	82.3570
 1.9420	82.3706
 1.9410	82.3323
 1.9400	82.3921
 1.9390	82.3283
 1.9380	82.3721
 1.9370	82.3765
 1.9360	82.3498
 1.9350	82.3199
 1.9340	82.3578
 1.9330	82.3757
 1.9320	82.3900
 1.9310	82.3880
 1.9300	82.4481
 1.9290	82.4226
 1.9280	82.4790
 1.9270	82.4276
 1.9260	82.3820
 1.9250	82.5180
 1.9240	82.5434
 1.9230	82.4638
 1.9220	82.5307
 1.9210	82.5109
 1.9200	82.6728
 1.9190	82.6341
 1.9180	82.7214
 1.9170	82.7313
 1.9160	82.7248
 1.9150	82.7694
 1.9140	82.8117
 1.9130	82.8991
 1.9120	82.9588
 1.9110	83.0484
 1.9100	83.1842
 1.9090	83.1982
 1.9080	83.3147
 1.9070	83.3295
 1.9060	83.4964
 1.9050	83.5944
 1.9040	83.7658
 1.9030	83.8323
 1.9020	84.0462
 1.9010	84.1375
 1.9000	84.3588
 1.8990	84.5437
 1.8980	84.6072
 1.8970	84.7592
 1.8960	84.9694
 1.8950	85.0508
 1.8940	85.2678
 1.8930	85.3166
 1.8920	85.4475
 1.8910	85.4715
 1.8900	85.6261
 1.8890	85.7738
 1.8880	85.8640
 1.8870	85.8408
 1.8860	85.8487
 1.8850	85.8811
 1.8840	85.9789
 1.8830	85.9718
 1.8820	86.0048
 1.8810	86.0009
 1.8800	85.9339
 1.8790	85.9640
 1.8780	86.0321
 1.8770	86.1182
 1.8760	86.1661
 1.8750	86.1393
 1.8740	86.3118
 1.8730	86.3787
 1.8720	86.5627
 1.8710	86.6616
 1.8700	86.7375
 1.8690	86.8482
 1.8680	87.0154
 1.8670	87.1220
 1.8660	87.1224
 1.8650	87.2618
 1.8640	87.2446
 1.8630	87.2875
 1.8620	87.4218
 1.8610	87.5084
 1.8600	87.5107
 1.8590	87.5667
 1.8580	87.5864
 1.8570	87.6768
 1.8560	87.7106
 1.8550	87.7303
 1.8540	87.7756
 1.8530	87.7539
 1.8520	87.7776
 1.8510	87.8175
 1.8500	87.8491
 1.8490	87.8787
 1.8480	87.8319
 1.8470	87.8851
 1.8460	87.9422
 1.8450	87.9682
 1.8440	88.0027
 1.8430	87.9955
 1.8420	88.0102
 1.8410	87.9865
 1.8400	88.0711
 1.8390	88.1028
 1.8380	88.0903
 1.8370	88.1737
 1.8360	88.1438
 1.8350	88.1106
 1.8340	88.1607
 1.8330	88.2077
 1.8320	88.2046
 1.8310	88.2396
 1.8300	88.2500
 1.8290	88.2791
 1.8280	88.2624
 1.8270	88.3361
 1.8260	88.3211
 1.8250	88.3677
 1.8240	88.3577
 1.8230	88.3728
 1.8220	88.4042
 1.8210	88.3709
 1.8200	88.3895
 1.8190	88.3581
 1.8180	88.3862
 1.8170	88.4703
 1.8160	88.4615
 1.8150	88.4600
 1.8140	88.5040
 1.8130	88.5306
 1.8120	88.5155
 1.8110	88.4752
 1.8100	88.4742
 1.8090	88.5285
 1.8080	88.5696
 1.8070	88.5714
 1.8060	88.5958
 1.8050	88.5689
 1.8040	88.5302
 1.8030	88.5829
 1.8020	88.6339
 1.8010	88.6098
 1.8000	88.6000
 1.7990	88.6354
 1.7980	88.6383
 1.7970	88.6678
 1.7960	88.6398
 1.7950	88.5939
 1.7940	88.6290
 1.7930	88.6341
 1.7920	88.5887
 1.7910	88.5952
 1.7900	88.5924
 1.7890	88.5849
 1.7880	88.6200
 1.7870	88.6032
 1.7860	88.5749
 1.7850	88.6108
 1.7840	88.6255
 1.7830	88.5975
 1.7820	88.6438
 1.7810	88.6251
 1.7800	88.5887
 1.7790	88.5826
 1.7780	88.5591
 1.7770	88.5915
 1.7760	88.6123
 1.7750	88.6000
 1.7740	88.6128
 1.7730	88.6188
 1.7720	88.5814
 1.7710	88.5429
 1.7700	88.5468
 1.7690	88.5476
 1.7680	88.5287
 1.7670	88.5527
 1.7660	88.5794
 1.7650	88.5060
 1.7640	88.4938
 1.7630	88.6207
 1.7620	88.6130
 1.7610	88.4913
 1.7600	88.4980
 1.7590	88.4987
 1.7580	88.4649
 1.7570	88.4817
 1.7560	88.5154
 1.7550	88.4766
 1.7540	88.4995
 1.7530	88.5395
 1.7520	88.5586
 1.7510	88.5723
 1.7500	88.5629
 1.7490	88.5512
 1.7480	88.5332
 1.7470	88.6034
 1.7460	88.5969
 1.7450	88.6452
 1.7440	88.6466
 1.7430	88.6611
 1.7420	88.6854
 1.7410	88.6442
 1.7400	88.5715
 1.7390	88.5858
 1.7380	88.5806
 1.7370	88.5473
 1.7360	88.6100
 1.7350	88.6809
 1.7340	88.6833
 1.7330	88.6143
 1.7320	88.6455
 1.7310	88.7028
 1.7300	88.7851
 1.7290	88.7270
 1.7280	88.6826
 1.7270	88.6994
 1.7260	88.7332
 1.7250	88.7683
 1.7240	88.7278
 1.7230	88.7479
 1.7220	88.7932
 1.7210	88.7807
 1.7200	88.7913
 1.7190	88.7639
 1.7180	88.7832
 1.7170	88.7918
 1.7160	88.7813
 1.7150	88.8206
 1.7140	88.8264
 1.7130	88.8213
 1.7120	88.8393
 1.7110	88.8465
 1.7100	88.8036
 1.7090	88.8501
 1.7080	88.9050
 1.7070	88.9290
 1.7060	88.8466
 1.7050	88.8437
 1.7040	88.8749
 1.7030	88.8439
 1.7020	88.8889
 1.7010	88.9340
 1.7000	88.8538
 1.6990	88.8563
 1.6980	88.9003
 1.6970	88.9043
 1.6960	88.9072
 1.6950	88.8531
 1.6940	88.8784
 1.6930	88.9271
 1.6920	88.8850
 1.6910	88.9182
 1.6900	88.9154
 1.6890	88.8625
 1.6880	88.8959
 1.6870	88.9349
 1.6860	88.8639
 1.6850	88.9624
 1.6840	88.7851
 1.6830	88.9108
 1.6820	88.8926
 1.6810	88.8761
 1.6800	88.8880
 1.6790	88.8888
 1.6780	88.8275
 1.6770	88.9288
 1.6760	88.9381
 1.6750	88.9263
 1.6740	88.8964
 1.6730	88.8964
 1.6720	88.9008
 1.6710	88.9852
 1.6700	88.8849
 1.6690	89.0558
 1.6680	88.9060
 1.6670	88.9900
 1.6660	89.0131
 1.6650	88.9840
 1.6640	88.9018
 1.6630	88.8923
 1.6620	88.9192
 1.6610	88.9815
 1.6600	88.8909
 1.6590	88.8967
 1.6580	88.9375
 1.6570	88.9900
 1.6560	88.9878
 1.6550	88.9427
 1.6540	88.9183
 1.6530	88.8408
 1.6520	88.9926
 1.6510	88.9462
 1.6500	88.8845
 1.6490	89.0124
 1.6480	88.8841
 1.6470	88.9392
 1.6460	88.9913
 1.6450	88.9056
 1.6440	89.0045
 1.6430	88.9900
 1.6420	88.9252
 1.6410	89.0462
 1.6400	89.0194
 1.6390	88.9654
 1.6380	88.9489
 1.6370	88.9865
 1.6360	88.9600
 1.6350	88.9801
 1.6340	88.9890
 1.6330	89.0884
 1.6320	88.9779
 1.6310	89.0044
 1.6300	88.9880
 1.6290	88.9401
 1.6280	89.0049
 1.6270	89.0291
 1.6260	88.9212
 1.6250	89.0069
 1.6240	89.0014
 1.6230	88.9965
 1.6220	89.0087
 1.6210	89.0101
 1.6200	89.0007
 1.6190	89.0346
 1.6180	88.9451
 1.6170	89.0304
 1.6160	88.9817
 1.6150	89.0884
 1.6140	89.0226
 1.6130	88.9824
 1.6120	88.9050
 1.6110	89.0152
 1.6100	89.0243
 1.6090	88.9659
 1.6080	88.9889
 1.6070	88.9144
 1.6060	89.0020
 1.6050	89.0793
 1.6040	89.0104
 1.6030	89.0261
 1.6020	89.0178
 1.6010	88.9958
 1.6000	89.0136
 1.5990	88.9854
 1.5980	88.9856
 1.5970	88.9790
 1.5960	89.0381
 1.5950	89.0156
 1.5940	88.9963
 1.5930	88.9840
 1.5920	88.9839
 1.5910	88.9963
 1.5900	89.0006
 1.5890	89.0123
 1.5880	88.9856
 1.5870	88.9646
 1.5860	88.9786
 1.5850	88.9867
 1.5840	88.9190
 1.5830	88.9973
 1.5820	88.9838
 1.5810	88.9594
 1.5800	88.9477
 1.5790	88.9371
 1.5780	88.9405
 1.5770	88.9637
 1.5760	88.8877
 1.5750	88.8510
 1.5740	88.8712
 1.5730	88.8602
 1.5720	88.9115
 1.5710	88.8395
 1.5700	88.8418
 1.5690	88.8110
 1.5680	88.8239
 1.5670	88.8412
 1.5660	88.8217
 1.5650	88.8217
 1.5640	88.7991
 1.5630	88.7675
 1.5620	88.8043
 1.5610	88.8981
 1.5600	88.8560
 1.5590	88.7786
 1.5580	88.7855
 1.5570	88.8223
 1.5560	88.8057
 1.5550	88.7815
 1.5540	88.8131
 1.5530	88.8751
 1.5520	88.7881
 1.5510	88.7879
 1.5500	88.7759
 1.5490	88.7610
 1.5480	88.7439
 1.5470	88.7641
 1.5460	88.7062
 1.5450	88.7484
 1.5440	88.7535
 1.5430	88.6843
 1.5420	88.6607
 1.5410	88.7094
 1.5400	88.6800
 1.5390	88.6874
 1.5380	88.7229
 1.5370	88.7256
 1.5360	88.7071
 1.5350	88.7147
 1.5340	88.6660
 1.5330	88.6414
 1.5320	88.6471
 1.5310	88.6510
 1.5300	88.6668
 1.5290	88.6577
 1.5280	88.6342
 1.5270	88.6231
 1.5260	88.6384
 1.5250	88.5982
 1.5240	88.5651
 1.5230	88.5811
 1.5220	88.5883
 1.5210	88.5719
 1.5200	88.5777
 1.5190	88.6012
 1.5180	88.5565
 1.5170	88.5602
 1.5160	88.5539
 1.5150	88.5397
 1.5140	88.4956
 1.5130	88.4709
 1.5120	88.4681
 1.5110	88.4823
 1.5100	88.5071
 1.5090	88.4904
 1.5080	88.4407
 1.5070	88.4464
 1.5060	88.4378
 1.5050	88.4355
 1.5040	88.4158
 1.5030	88.3919
 1.5020	88.3610
 1.5010	88.3137
 1.5000	88.3455
 1.4990	88.3780
 1.4980	88.3381
 1.4970	88.3419
 1.4960	88.3360
 1.4950	88.3044
 1.4940	88.3255
 1.4930	88.3419
 1.4920	88.2510
 1.4910	88.2080
 1.4900	88.2052
 1.4890	88.1904
 1.4880	88.2167
 1.4870	88.2567
 1.4860	88.2180
 1.4850	88.1826
 1.4840	88.1773
 1.4830	88.1463
 1.4820	88.1523
 1.4810	88.1353
 1.4800	88.1147
 1.4790	88.0523
 1.4780	88.0864
 1.4770	88.1282
 1.4760	88.0758
 1.4750	88.0784
 1.4740	88.0699
 1.4730	88.0664
 1.4720	88.0588
 1.4710	88.0361
 1.4700	88.0437
 1.4690	88.0191
 1.4680	88.0054
 1.4670	87.9983
 1.4660	87.9919
 1.4650	88.0387
 1.4640	88.0210
 1.4630	87.9931
 1.4620	87.9438
 1.4610	87.9735
 1.4600	87.9932
 1.4590	87.9754
 1.4580	87.9806
 1.4570	87.9700
 1.4560	87.9805
 1.4550	87.9538
 1.4540	87.9690
 1.4530	88.0029
 1.4520	87.9890
 1.4510	87.9758
 1.4500	87.9787
 1.4490	87.9323
 1.4480	87.9799
 1.4470	87.9687
 1.4460	87.9443
 1.4450	87.9155
 1.4440	87.8609
 1.4430	87.9302
 1.4420	87.9257
 1.4410	87.9299
 1.4400	87.9182
 1.4390	87.9571
 1.4380	87.9342
 1.4370	87.8876
 1.4360	87.9470
 1.4350	87.8964
 1.4340	87.9632
 1.4330	87.9309
 1.4320	87.9412
 1.4310	87.8911
 1.4300	87.9253
 1.4290	87.9073
 1.4280	87.8934
 1.4270	87.9575
 1.4260	88.0232
 1.4250	87.9360
 1.4240	87.9273
 1.4230	87.9373
 1.4220	87.8922
 1.4210	87.8436
 1.4200	87.9367
 1.4190	88.0184
 1.4180	87.8705
 1.4170	87.9467
 1.4160	87.9352
 1.4150	87.9242
 1.4140	87.9587
 1.4130	87.9870
 1.4120	88.0012
 1.4110	88.0269
 1.4100	88.0697
 1.4090	88.1397
 1.4080	88.1213
 1.4070	88.1568
 1.4060	88.2258
 1.4050	88.2665
 1.4040	88.2840
 1.4030	88.2338
 1.4020	88.3381
 1.4010	88.3755
 1.4000	88.4393
 1.3990	88.5189
 1.3980	88.5398
 1.3970	88.5130
 1.3960	88.6193
 1.3950	88.6433
 1.3940	88.6507
 1.3930	88.7090
 1.3920	88.7385
 1.3910	88.8404
 1.3900	88.8660
 1.3890	88.8585
 1.3880	88.9755
 1.3870	88.8311
 1.3860	88.9621
 1.3850	88.8297
 1.3840	89.0116
 1.3830	88.9574
 1.3820	88.9871
 1.3810	89.0305
 1.3800	89.0389
 1.3790	89.0168
 1.3780	89.0897
 1.3770	89.0640
 1.3760	89.1064
 1.3750	89.0631
 1.3740	89.1101
 1.3730	89.1087
 1.3720	89.0850
 1.3710	89.0680
 1.3700	89.0281
 1.3690	89.0738
 1.3680	89.0689
 1.3670	89.1080
 1.3660	89.1410
 1.3650	89.1411
