Name: Magnetite Fe^2+Fe_2^3+O_4
Type: Mineral
Class: Oxide
Subclass: None
Particle Size: Coarse
Sample No.: O-4A
Owner: JPL
Wavelength Range: VSWIR
Origin: Canada, Ontario, Haliburton County, Wilberforce.
Collection Date: N/A
Description: Particle size was 125-500um.Collected by:  Ward's Original ASTER Spectral Library name was jpl.perkin.mineral.oxide.none.coarse.o04a.spectrum.txt
Measurement: Hemispherical reflectance
First Column: X
Second Column: Y
X Units: Wavelength (micrometers)
Y Units:Reflectance (percent)
First X Value:  2.5000
Last X Value:  0.4000
Number of X Values: 2101
Additional Information: mineral.oxide.none.coarse.vswir.o-4a.jpl.perkin.ancillary.txt

 2.5000	10.5301
 2.4990	10.0634
 2.4980	10.6305
 2.4970	10.2606
 2.4960	10.1237
 2.4950	10.3658
 2.4940	10.3229
 2.4930	10.1986
 2.4920	10.3716
 2.4910	10.3029
 2.4900	10.3376
 2.4890	10.2032
 2.4880	10.3340
 2.4870	10.2498
 2.4860	10.4245
 2.4850	10.1974
 2.4840	10.3891
 2.4830	10.1987
 2.4820	10.4380
 2.4810	10.1684
 2.4800	10.3068
 2.4790	10.0154
 2.4780	10.2654
 2.4770	10.2040
 2.4760	10.5142
 2.4750	10.1752
 2.4740	10.3900
 2.4730	10.2073
 2.4720	10.5452
 2.4710	10.1723
 2.4700	10.3651
 2.4690	10.3073
 2.4680	10.3570
 2.4670	10.2010
 2.4660	10.2561
 2.4650	10.1822
 2.4640	10.3278
 2.4630	10.2831
 2.4620	10.3852
 2.4610	10.1973
 2.4600	10.4940
 2.4590	10.1372
 2.4580	10.2330
 2.4570	10.1761
 2.4560	10.4109
 2.4550	10.2879
 2.4540	10.3206
 2.4530	10.1650
 2.4520	10.2755
 2.4510	10.2841
 2.4500	10.3030
 2.4490	10.2086
 2.4480	10.3314
 2.4470	10.2486
 2.4460	10.3395
 2.4450	10.2117
 2.4440	10.3008
 2.4430	10.1653
 2.4420	10.2291
 2.4410	10.1338
 2.4400	10.3055
 2.4390	10.1986
 2.4380	10.2720
 2.4370	10.2846
 2.4360	10.3569
 2.4350	10.1706
 2.4340	10.2205
 2.4330	10.2329
 2.4320	10.3356
 2.4310	10.2319
 2.4300	10.2209
 2.4290	10.1909
 2.4280	10.2602
 2.4270	10.1533
 2.4260	10.2844
 2.4250	10.2437
 2.4240	10.2707
 2.4230	10.1627
 2.4220	10.3083
 2.4210	10.2287
 2.4200	10.2610
 2.4190	10.1653
 2.4180	10.3234
 2.4170	10.2649
 2.4160	10.2279
 2.4150	10.1374
 2.4140	10.2186
 2.4130	10.2204
 2.4120	10.2759
 2.4110	10.2329
 2.4100	10.2315
 2.4090	10.1720
 2.4080	10.1704
 2.4070	10.2047
 2.4060	10.2736
 2.4050	10.1957
 2.4040	10.2453
 2.4030	10.1525
 2.4020	10.1889
 2.4010	10.1921
 2.4000	10.1518
 2.3990	10.2269
 2.3980	10.2835
 2.3970	10.1175
 2.3960	10.2521
 2.3950	10.2385
 2.3940	10.1603
 2.3930	10.2340
 2.3920	10.2181
 2.3910	10.1744
 2.3900	10.2000
 2.3890	10.1319
 2.3880	10.1757
 2.3870	10.1844
 2.3860	10.2341
 2.3850	10.1867
 2.3840	10.2181
 2.3830	10.2316
 2.3820	10.2392
 2.3810	10.2239
 2.3800	10.2580
 2.3790	10.1652
 2.3780	10.1484
 2.3770	10.1542
 2.3760	10.2303
 2.3750	10.2058
 2.3740	10.1830
 2.3730	10.1624
 2.3720	10.1884
 2.3710	10.1831
 2.3700	10.2011
 2.3690	10.1907
 2.3680	10.2296
 2.3670	10.2098
 2.3660	10.1521
 2.3650	10.1564
 2.3640	10.2168
 2.3630	10.1626
 2.3620	10.2031
 2.3610	10.2637
 2.3600	10.2036
 2.3590	10.1628
 2.3580	10.1775
 2.3570	10.1777
 2.3560	10.1861
 2.3550	10.1687
 2.3540	10.1357
 2.3530	10.1289
 2.3520	10.1501
 2.3510	10.1593
 2.3500	10.1403
 2.3490	10.1607
 2.3480	10.1505
 2.3470	10.1504
 2.3460	10.1421
 2.3450	10.1438
 2.3440	10.1460
 2.3430	10.1954
 2.3420	10.1672
 2.3410	10.1702
 2.3400	10.1237
 2.3390	10.0826
 2.3380	10.1151
 2.3370	10.1123
 2.3360	10.1066
 2.3350	10.1713
 2.3340	10.1065
 2.3330	10.1148
 2.3320	10.1265
 2.3310	10.1419
 2.3300	10.1008
 2.3290	10.1072
 2.3280	10.0680
 2.3270	10.0864
 2.3260	10.0673
 2.3250	10.1117
 2.3240	10.0947
 2.3230	10.1132
 2.3220	10.0259
 2.3210	10.0394
 2.3200	10.0710
 2.3190	10.0997
 2.3180	10.0533
 2.3170	10.1127
 2.3160	10.0625
 2.3150	10.0967
 2.3140	10.0601
 2.3130	10.0968
 2.3120	10.0242
 2.3110	10.0309
 2.3100	10.0553
 2.3090	10.0906
 2.3080	10.0463
 2.3070	10.0848
 2.3060	10.0128
 2.3050	10.0633
 2.3040	 9.9280
 2.3030	10.0389
 2.3020	 9.9917
 2.3010	10.0471
 2.3000	10.0087
 2.2990	10.0106
 2.2980	10.0243
 2.2970	10.0333
 2.2960	 9.9981
 2.2950	 9.9908
 2.2940	 9.9571
 2.2930	10.0250
 2.2920	 9.9604
 2.2910	10.0099
 2.2900	 9.9672
 2.2890	 9.9776
 2.2880	 9.9191
 2.2870	 9.9992
 2.2860	 9.9607
 2.2850	 9.9313
 2.2840	 9.8903
 2.2830	 9.9868
 2.2820	 9.9183
 2.2810	 9.9909
 2.2800	 9.9398
 2.2790	 9.9407
 2.2780	 9.8605
 2.2770	 9.9291
 2.2760	 9.8917
 2.2750	 9.9967
 2.2740	 9.8498
 2.2730	 9.9393
 2.2720	 9.9304
 2.2710	 9.9270
 2.2700	 9.8356
 2.2690	 9.9572
 2.2680	 9.8507
 2.2670	 9.9579
 2.2660	 9.8303
 2.2650	 9.9323
 2.2640	 9.8250
 2.2630	 9.8784
 2.2620	 9.8645
 2.2610	 9.8990
 2.2600	 9.9100
 2.2590	 9.9113
 2.2580	 9.7870
 2.2570	 9.8477
 2.2560	 9.8178
 2.2550	 9.8619
 2.2540	 9.7577
 2.2530	 9.9073
 2.2520	 9.8734
 2.2510	 9.8534
 2.2500	 9.7769
 2.2490	 9.8067
 2.2480	 9.7520
 2.2470	 9.8792
 2.2460	 9.7832
 2.2450	 9.8212
 2.2440	 9.7473
 2.2430	 9.8317
 2.2420	 9.6873
 2.2410	 9.8339
 2.2400	 9.7529
 2.2390	 9.8145
 2.2380	 9.7095
 2.2370	 9.7933
 2.2360	 9.7427
 2.2350	 9.7831
 2.2340	 9.7086
 2.2330	 9.7494
 2.2320	 9.7207
 2.2310	 9.8002
 2.2300	 9.6316
 2.2290	 9.8376
 2.2280	 9.5526
 2.2270	 9.7608
 2.2260	 9.6706
 2.2250	 9.7280
 2.2240	 9.6321
 2.2230	 9.7118
 2.2220	 9.6587
 2.2210	 9.8443
 2.2200	 9.6659
 2.2190	 9.7855
 2.2180	 9.7092
 2.2170	 9.7108
 2.2160	 9.5571
 2.2150	 9.7431
 2.2140	 9.6360
 2.2130	 9.6918
 2.2120	 9.7173
 2.2110	 9.5859
 2.2100	 9.7654
 2.2090	 9.6709
 2.2080	 9.5815
 2.2070	 9.6569
 2.2060	 9.6676
 2.2050	 9.7371
 2.2040	 9.5781
 2.2030	 9.7225
 2.2020	 9.5663
 2.2010	 9.7125
 2.2000	 9.5596
 2.1990	 9.6941
 2.1980	 9.5686
 2.1970	 9.6971
 2.1960	 9.6271
 2.1950	 9.6584
 2.1940	 9.5555
 2.1930	 9.7193
 2.1920	 9.5528
 2.1910	 9.6953
 2.1900	 9.5686
 2.1890	 9.6566
 2.1880	 9.6183
 2.1870	 9.6448
 2.1860	 9.5588
 2.1850	 9.7110
 2.1840	 9.6212
 2.1830	 9.6299
 2.1820	 9.5489
 2.1810	 9.6637
 2.1800	 9.6843
 2.1790	 9.7001
 2.1780	 9.5636
 2.1770	 9.6308
 2.1760	 9.5913
 2.1750	 9.6561
 2.1740	 9.5442
 2.1730	 9.6730
 2.1720	 9.5520
 2.1710	 9.6225
 2.1700	 9.5861
 2.1690	 9.6798
 2.1680	 9.5779
 2.1670	 9.6794
 2.1660	 9.6143
 2.1650	 9.7545
 2.1640	 9.5928
 2.1630	 9.5840
 2.1620	 9.6392
 2.1610	 9.6780
 2.1600	 9.6259
 2.1590	 9.6256
 2.1580	 9.5234
 2.1570	 9.6920
 2.1560	 9.6243
 2.1550	 9.6576
 2.1540	 9.5525
 2.1530	 9.5968
 2.1520	 9.6359
 2.1510	 9.6114
 2.1500	 9.5732
 2.1490	 9.6460
 2.1480	 9.5501
 2.1470	 9.5770
 2.1460	 9.5235
 2.1450	 9.5860
 2.1440	 9.5768
 2.1430	 9.6218
 2.1420	 9.5110
 2.1410	 9.6616
 2.1400	 9.5347
 2.1390	 9.5886
 2.1380	 9.5762
 2.1370	 9.5865
 2.1360	 9.5017
 2.1350	 9.5985
 2.1340	 9.5509
 2.1330	 9.5664
 2.1320	 9.5040
 2.1310	 9.5331
 2.1300	 9.4841
 2.1290	 9.5491
 2.1280	 9.4568
 2.1270	 9.4800
 2.1260	 9.4318
 2.1250	 9.4810
 2.1240	 9.4295
 2.1230	 9.4936
 2.1220	 9.4149
 2.1210	 9.4438
 2.1200	 9.3752
 2.1190	 9.4021
 2.1180	 9.3577
 2.1170	 9.3755
 2.1160	 9.3528
 2.1150	 9.4033
 2.1140	 9.3751
 2.1130	 9.3806
 2.1120	 9.3541
 2.1110	 9.3647
 2.1100	 9.3012
 2.1090	 9.3310
 2.1080	 9.3627
 2.1070	 9.3455
 2.1060	 9.2827
 2.1050	 9.2845
 2.1040	 9.2780
 2.1030	 9.2866
 2.1020	 9.1977
 2.1010	 9.2678
 2.1000	 9.1964
 2.0990	 9.2112
 2.0980	 9.2359
 2.0970	 9.2671
 2.0960	 9.2605
 2.0950	 9.2072
 2.0940	 9.1541
 2.0930	 9.1809
 2.0920	 9.2141
 2.0910	 9.2291
 2.0900	 9.1856
 2.0890	 9.2155
 2.0880	 9.1806
 2.0870	 9.1785
 2.0860	 9.2284
 2.0850	 9.2313
 2.0840	 9.1400
 2.0830	 9.1801
 2.0820	 9.1913
 2.0810	 9.1727
 2.0800	 9.1300
 2.0790	 9.1555
 2.0780	 9.1355
 2.0770	 9.1732
 2.0760	 9.1841
 2.0750	 9.1412
 2.0740	 9.1321
 2.0730	 9.1497
 2.0720	 9.1310
 2.0710	 9.1326
 2.0700	 9.1277
 2.0690	 9.1474
 2.0680	 9.1821
 2.0670	 9.1911
 2.0660	 9.1506
 2.0650	 9.1500
 2.0640	 9.1470
 2.0630	 9.1232
 2.0620	 9.1532
 2.0610	 9.1218
 2.0600	 9.1239
 2.0590	 9.1416
 2.0580	 9.1033
 2.0570	 9.0706
 2.0560	 9.1377
 2.0550	 9.1512
 2.0540	 9.1403
 2.0530	 9.1583
 2.0520	 9.1077
 2.0510	 9.0637
 2.0500	 9.1287
 2.0490	 9.1377
 2.0480	 9.1509
 2.0470	 9.0918
 2.0460	 9.0899
 2.0450	 9.0615
 2.0440	 9.0876
 2.0430	 9.0695
 2.0420	 9.0591
 2.0410	 9.0646
 2.0400	 9.0544
 2.0390	 9.0564
 2.0380	 9.0999
 2.0370	 9.0409
 2.0360	 9.0827
 2.0350	 9.0349
 2.0340	 9.0995
 2.0330	 9.0410
 2.0320	 9.0773
 2.0310	 9.0433
 2.0300	 9.1088
 2.0290	 9.0592
 2.0280	 9.0402
 2.0270	 9.0161
 2.0260	 9.0676
 2.0250	 9.0261
 2.0240	 9.0750
 2.0230	 9.0330
 2.0220	 9.0078
 2.0210	 9.0056
 2.0200	 9.0683
 2.0190	 8.9854
 2.0180	 9.0433
 2.0170	 8.9954
 2.0160	 9.0619
 2.0150	 8.9813
 2.0140	 9.0723
 2.0130	 9.0330
 2.0120	 9.1100
 2.0110	 9.0380
 2.0100	 9.0419
 2.0090	 8.9832
 2.0080	 8.9768
 2.0070	 8.9353
 2.0060	 9.0443
 2.0050	 8.9623
 2.0040	 9.0750
 2.0030	 8.9904
 2.0020	 9.0144
 2.0010	 8.9016
 2.0000	 8.9918
 1.9990	 8.9139
 1.9980	 8.9779
 1.9970	 8.9375
 1.9960	 8.9808
 1.9950	 8.9304
 1.9940	 9.0058
 1.9930	 8.9550
 1.9920	 9.0070
 1.9910	 8.9243
 1.9900	 8.9323
 1.9890	 8.8968
 1.9880	 8.8859
 1.9870	 8.9097
 1.9860	 8.9787
 1.9850	 8.9146
 1.9840	 8.8834
 1.9830	 8.8631
 1.9820	 8.9402
 1.9810	 8.8342
 1.9800	 8.8536
 1.9790	 8.8844
 1.9780	 8.9129
 1.9770	 8.8084
 1.9760	 8.8604
 1.9750	 8.8104
 1.9740	 8.8943
 1.9730	 8.8152
 1.9720	 8.8351
 1.9710	 8.7729
 1.9700	 9.2969
 1.9690	 8.8681
 1.9680	 8.9073
 1.9670	 8.7874
 1.9660	 8.9415
 1.9650	 8.7653
 1.9640	 8.8218
 1.9630	 8.7583
 1.9620	 8.8735
 1.9610	 8.7727
 1.9600	 8.8799
 1.9590	 8.7356
 1.9580	 8.8529
 1.9570	 8.7732
 1.9560	 8.8592
 1.9550	 8.7464
 1.9540	 8.8034
 1.9530	 8.7822
 1.9520	 8.8885
 1.9510	 8.6982
 1.9500	 8.8273
 1.9490	 8.7010
 1.9480	 8.8151
 1.9470	 8.7328
 1.9460	 8.7975
 1.9450	 8.7771
 1.9440	 8.8163
 1.9430	 8.6559
 1.9420	 8.8365
 1.9410	 8.7089
 1.9400	 8.7856
 1.9390	 8.6240
 1.9380	 8.6996
 1.9370	 8.7107
 1.9360	 8.8009
 1.9350	 8.6706
 1.9340	 8.7747
 1.9330	 8.7395
 1.9320	 8.7710
 1.9310	 8.6550
 1.9300	 8.8401
 1.9290	 8.7335
 1.9280	 8.7015
 1.9270	 8.7663
 1.9260	 8.7166
 1.9250	 8.7334
 1.9240	 8.7567
 1.9230	 8.5834
 1.9220	 8.7661
 1.9210	 8.6342
 1.9200	 8.7228
 1.9190	 8.6686
 1.9180	 8.8019
 1.9170	 8.5927
 1.9160	 8.7137
 1.9150	 8.6567
 1.9140	 8.7159
 1.9130	 8.6296
 1.9120	 8.6842
 1.9110	 8.7356
 1.9100	 8.7794
 1.9090	 8.6460
 1.9080	 8.6613
 1.9070	 8.6878
 1.9060	 8.7010
 1.9050	 8.6626
 1.9040	 8.6625
 1.9030	 8.6260
 1.9020	 8.6356
 1.9010	 8.5977
 1.9000	 8.6777
 1.8990	 8.5636
 1.8980	 8.6031
 1.8970	 8.6217
 1.8960	 8.6168
 1.8950	 8.5656
 1.8940	 8.6651
 1.8930	 8.5515
 1.8920	 8.6388
 1.8910	 8.5043
 1.8900	 8.6025
 1.8890	 8.5143
 1.8880	 8.5882
 1.8870	 8.5479
 1.8860	 8.6259
 1.8850	 8.5435
 1.8840	 8.6063
 1.8830	 8.4653
 1.8820	 8.6329
 1.8810	 8.5494
 1.8800	 8.5818
 1.8790	 8.5202
 1.8780	 8.5764
 1.8770	 8.5193
 1.8760	 8.5888
 1.8750	 8.5642
 1.8740	 8.5469
 1.8730	 8.5236
 1.8720	 8.5170
 1.8710	 8.4940
 1.8700	 8.4952
 1.8690	 8.4572
 1.8680	 8.4705
 1.8670	 8.4561
 1.8660	 8.5198
 1.8650	 8.5020
 1.8640	 8.5482
 1.8630	 8.4595
 1.8620	 8.5195
 1.8610	 8.4143
 1.8600	 8.4847
 1.8590	 8.4093
 1.8580	 8.4825
 1.8570	 8.4071
 1.8560	 8.4597
 1.8550	 8.4330
 1.8540	 8.5287
 1.8530	 8.4419
 1.8520	 8.4597
 1.8510	 8.3978
 1.8500	 8.4520
 1.8490	 8.4048
 1.8480	 8.4775
 1.8470	 8.4028
 1.8460	 8.4625
 1.8450	 8.3981
 1.8440	 8.4491
 1.8430	 8.4427
 1.8420	 8.4737
 1.8410	 8.4107
 1.8400	 8.4360
 1.8390	 8.3546
 1.8380	 8.3875
 1.8370	 8.3053
 1.8360	 8.3599
 1.8350	 8.3410
 1.8340	 8.4194
 1.8330	 8.3939
 1.8320	 8.3835
 1.8310	 8.3400
 1.8300	 8.3979
 1.8290	 8.3232
 1.8280	 8.3600
 1.8270	 8.2933
 1.8260	 8.3539
 1.8250	 8.3117
 1.8240	 8.3490
 1.8230	 8.3093
 1.8220	 8.3158
 1.8210	 8.2531
 1.8200	 8.2663
 1.8190	 8.2800
 1.8180	 8.3604
 1.8170	 8.3006
 1.8160	 8.3136
 1.8150	 8.3213
 1.8140	 8.3465
 1.8130	 8.2982
 1.8120	 8.2536
 1.8110	 8.2386
 1.8100	 8.3150
 1.8090	 8.2828
 1.8080	 8.2464
 1.8070	 8.2107
 1.8060	 8.2828
 1.8050	 8.2846
 1.8040	 8.2744
 1.8030	 8.2573
 1.8020	 8.2486
 1.8010	 8.2540
 1.8000	 8.2617
 1.7990	 8.2014
 1.7980	 8.2422
 1.7970	 8.3099
 1.7960	 8.2595
 1.7950	 8.1840
 1.7940	 8.1928
 1.7930	 8.2077
 1.7920	 8.2466
 1.7910	 8.2325
 1.7900	 8.2010
 1.7890	 8.1798
 1.7880	 8.1817
 1.7870	 8.2124
 1.7860	 8.1720
 1.7850	 8.0958
 1.7840	 8.1042
 1.7830	 8.1851
 1.7820	 8.2047
 1.7810	 8.1413
 1.7800	 8.0789
 1.7790	 8.1040
 1.7780	 8.1242
 1.7770	 8.1319
 1.7760	 8.1346
 1.7750	 8.1444
 1.7740	 8.0896
 1.7730	 8.1248
 1.7720	 8.1107
 1.7710	 8.0729
 1.7700	 8.0308
 1.7690	 8.0792
 1.7680	 8.0721
 1.7670	 8.0848
 1.7660	 8.1124
 1.7650	 8.0701
 1.7640	 8.0208
 1.7630	 8.0793
 1.7620	 8.0396
 1.7610	 8.0608
 1.7600	 8.0752
 1.7590	 8.0240
 1.7580	 7.9865
 1.7570	 8.0659
 1.7560	 7.9941
 1.7550	 8.0078
 1.7540	 8.0086
 1.7530	 8.0629
 1.7520	 8.0452
 1.7510	 7.9836
 1.7500	 7.9578
 1.7490	 8.0395
 1.7480	 8.0232
 1.7470	 8.0115
 1.7460	 7.9957
 1.7450	 8.0412
 1.7440	 7.9870
 1.7430	 8.0414
 1.7420	 7.9821
 1.7410	 8.0260
 1.7400	 7.9783
 1.7390	 7.9915
 1.7380	 7.8907
 1.7370	 7.9983
 1.7360	 7.9092
 1.7350	 7.9957
 1.7340	 7.9202
 1.7330	 7.9481
 1.7320	 7.9258
 1.7310	 7.9599
 1.7300	 7.8877
 1.7290	 7.9306
 1.7280	 7.9069
 1.7270	 7.8964
 1.7260	 7.8181
 1.7250	 7.9320
 1.7240	 7.8624
 1.7230	 7.8707
 1.7220	 7.8230
 1.7210	 7.8436
 1.7200	 7.8392
 1.7190	 7.8923
 1.7180	 7.8782
 1.7170	 7.9211
 1.7160	 7.8127
 1.7150	 7.9201
 1.7140	 7.8271
 1.7130	 7.8564
 1.7120	 7.8155
 1.7110	 7.8684
 1.7100	 7.7567
 1.7090	 7.8786
 1.7080	 7.8147
 1.7070	 7.8588
 1.7060	 7.8112
 1.7050	 7.7714
 1.7040	 7.7383
 1.7030	 7.8297
 1.7020	 7.7194
 1.7010	 7.7762
 1.7000	 7.7200
 1.6990	 7.7860
 1.6980	 7.7343
 1.6970	 7.7341
 1.6960	 7.7064
 1.6950	 7.7546
 1.6940	 7.6818
 1.6930	 7.7169
 1.6920	 7.7353
 1.6910	 7.8086
 1.6900	 7.6495
 1.6890	 7.7396
 1.6880	 7.6739
 1.6870	 7.7594
 1.6860	 7.6710
 1.6850	 7.7120
 1.6840	 7.7000
 1.6830	 7.7559
 1.6820	 7.6289
 1.6810	 7.7833
 1.6800	 7.6307
 1.6790	 7.7128
 1.6780	 7.6135
 1.6770	 7.7276
 1.6760	 7.5994
 1.6750	 7.6875
 1.6740	 7.5681
 1.6730	 7.6519
 1.6720	 7.5875
 1.6710	 7.6506
 1.6700	 7.5678
 1.6690	 7.6506
 1.6680	 7.4660
 1.6670	 7.7936
 1.6660	 7.5395
 1.6650	 7.6412
 1.6640	 7.4396
 1.6630	 7.6927
 1.6620	 7.4514
 1.6610	 7.5754
 1.6600	 7.5611
 1.6590	 7.6120
 1.6580	 7.5226
 1.6570	 7.6011
 1.6560	 7.4881
 1.6550	 7.6376
 1.6540	 7.4745
 1.6530	 7.6118
 1.6520	 7.4050
 1.6510	 7.6638
 1.6500	 7.4712
 1.6490	 7.5289
 1.6480	 7.4076
 1.6470	 7.5552
 1.6460	 7.4007
 1.6450	 7.6235
 1.6440	 7.4029
 1.6430	 7.5929
 1.6420	 7.4755
 1.6410	 7.4459
 1.6400	 7.4839
 1.6390	 7.4310
 1.6380	 7.3802
 1.6370	 7.4209
 1.6360	 7.4714
 1.6350	 7.4561
 1.6340	 7.3164
 1.6330	 7.4446
 1.6320	 7.4184
 1.6310	 7.4595
 1.6300	 7.3894
 1.6290	 7.3823
 1.6280	 7.3591
 1.6270	 7.4462
 1.6260	 7.3174
 1.6250	 7.4380
 1.6240	 7.3384
 1.6230	 7.4272
 1.6220	 7.3094
 1.6210	 7.4249
 1.6200	 7.2926
 1.6190	 7.3949
 1.6180	 7.3295
 1.6170	 7.4086
 1.6160	 7.3293
 1.6150	 7.3586
 1.6140	 7.2500
 1.6130	 7.3513
 1.6120	 7.2748
 1.6110	 7.4071
 1.6100	 7.2425
 1.6090	 7.3132
 1.6080	 7.2476
 1.6070	 7.3286
 1.6060	 7.2415
 1.6050	 7.3639
 1.6040	 7.2042
 1.6030	 7.3411
 1.6020	 7.2280
 1.6010	 7.2949
 1.6000	 7.1815
 1.5990	 7.2762
 1.5980	 7.2025
 1.5970	 7.3171
 1.5960	 7.1844
 1.5950	 7.2591
 1.5940	 7.1545
 1.5930	 7.2704
 1.5920	 7.1275
 1.5910	 7.2243
 1.5900	 7.1748
 1.5890	 7.2660
 1.5880	 7.1517
 1.5870	 7.2372
 1.5860	 7.1118
 1.5850	 7.2985
 1.5840	 7.0810
 1.5830	 7.1814
 1.5820	 7.1489
 1.5810	 7.1524
 1.5800	 7.1528
 1.5790	 7.1714
 1.5780	 7.1608
 1.5770	 7.1878
 1.5760	 7.0878
 1.5750	 7.1396
 1.5740	 7.0928
 1.5730	 7.1896
 1.5720	 7.1094
 1.5710	 7.1016
 1.5700	 7.0455
 1.5690	 7.0778
 1.5680	 7.0244
 1.5670	 7.0637
 1.5660	 6.9957
 1.5650	 7.0453
 1.5640	 7.0541
 1.5630	 7.1288
 1.5620	 7.0299
 1.5610	 7.0602
 1.5600	 6.9741
 1.5590	 6.9847
 1.5580	 6.9548
 1.5570	 7.0180
 1.5560	 6.9210
 1.5550	 7.0813
 1.5540	 7.0073
 1.5530	 7.0148
 1.5520	 6.9882
 1.5510	 7.0103
 1.5500	 6.9308
 1.5490	 6.9953
 1.5480	 6.9617
 1.5470	 7.0082
 1.5460	 6.9354
 1.5450	 6.9906
 1.5440	 7.0142
 1.5430	 6.9944
 1.5420	 6.9462
 1.5410	 6.9280
 1.5400	 6.9040
 1.5390	 6.9036
 1.5380	 6.8693
 1.5370	 6.9111
 1.5360	 6.8898
 1.5350	 6.8943
 1.5340	 6.8673
 1.5330	 6.9099
 1.5320	 6.8982
 1.5310	 6.9663
 1.5300	 6.8558
 1.5290	 6.9009
 1.5280	 6.8214
 1.5270	 6.8611
 1.5260	 6.8731
 1.5250	 6.8949
 1.5240	 6.8219
 1.5230	 6.8434
 1.5220	 6.8556
 1.5210	 6.8204
 1.5200	 6.8021
 1.5190	 6.8767
 1.5180	 6.8716
 1.5170	 6.8701
 1.5160	 6.8429
 1.5150	 6.7648
 1.5140	 6.7272
 1.5130	 6.7634
 1.5120	 6.7615
 1.5110	 6.7503
 1.5100	 6.7463
 1.5090	 6.7321
 1.5080	 6.7748
 1.5070	 6.8045
 1.5060	 6.7556
 1.5050	 6.7966
 1.5040	 6.7466
 1.5030	 6.7235
 1.5020	 6.6893
 1.5010	 6.6218
 1.5000	 6.6734
 1.4990	 6.7063
 1.4980	 6.6864
 1.4970	 6.6509
 1.4960	 6.6212
 1.4950	 6.6307
 1.4940	 6.6646
 1.4930	 6.6736
 1.4920	 6.6440
 1.4910	 6.6186
 1.4900	 6.6487
 1.4890	 6.5835
 1.4880	 6.6300
 1.4870	 6.6259
 1.4860	 6.6062
 1.4850	 6.5832
 1.4840	 6.5891
 1.4830	 6.6015
 1.4820	 6.5918
 1.4810	 6.5914
 1.4800	 6.6189
 1.4790	 6.5882
 1.4780	 6.5913
 1.4770	 6.5647
 1.4760	 6.5916
 1.4750	 6.5528
 1.4740	 6.5457
 1.4730	 6.5320
 1.4720	 6.5378
 1.4710	 6.5406
 1.4700	 6.5429
 1.4690	 6.4892
 1.4680	 6.5266
 1.4670	 6.5158
 1.4660	 6.5462
 1.4650	 6.4792
 1.4640	 6.5075
 1.4630	 6.5036
 1.4620	 6.5630
 1.4610	 6.5197
 1.4600	 6.4943
 1.4590	 6.4571
 1.4580	 6.5186
 1.4570	 6.4333
 1.4560	 6.4970
 1.4550	 6.4006
 1.4540	 6.4495
 1.4530	 6.4237
 1.4520	 6.4635
 1.4510	 6.3764
 1.4500	 6.4356
 1.4490	 6.4110
 1.4480	 6.4738
 1.4470	 6.4044
 1.4460	 6.4144
 1.4450	 6.3477
 1.4440	 6.4074
 1.4430	 6.3369
 1.4420	 6.3754
 1.4410	 6.4052
 1.4400	 6.4423
 1.4390	 6.3618
 1.4380	 6.3564
 1.4370	 6.3604
 1.4360	 6.4186
 1.4350	 6.3584
 1.4340	 6.3782
 1.4330	 6.2784
 1.4320	 6.3294
 1.4310	 6.2135
 1.4300	 6.3561
 1.4290	 6.2473
 1.4280	 6.3436
 1.4270	 6.2718
 1.4260	 6.3710
 1.4250	 6.2530
 1.4240	 6.3061
 1.4230	 6.2188
 1.4220	 6.3383
 1.4210	 6.2796
 1.4200	 6.2180
 1.4190	 6.1900
 1.4180	 6.2760
 1.4170	 6.2306
 1.4160	 6.3492
 1.4150	 6.2151
 1.4140	 6.3165
 1.4130	 6.1327
 1.4120	 6.2395
 1.4110	 6.1460
 1.4100	 6.2935
 1.4090	 6.2154
 1.4080	 6.2646
 1.4070	 6.1951
 1.4060	 6.2196
 1.4050	 6.1399
 1.4040	 6.1559
 1.4030	 6.2295
 1.4020	 6.2813
 1.4010	 6.1005
 1.4000	 6.1533
 1.3990	 6.1278
 1.3980	 6.2243
 1.3970	 6.0845
 1.3960	 6.1855
 1.3950	 6.0126
 1.3940	 6.1262
 1.3930	 6.0709
 1.3920	 6.2319
 1.3910	 6.0793
 1.3900	 6.1961
 1.3890	 6.0600
 1.3880	 6.1912
 1.3870	 6.0227
 1.3860	 6.0842
 1.3850	 6.0505
 1.3840	 6.1431
 1.3830	 5.9551
 1.3820	 6.0509
 1.3810	 5.9803
 1.3800	 6.1022
 1.3790	 6.0292
 1.3780	 6.1685
 1.3770	 5.9840
 1.3760	 6.1192
 1.3750	 5.9805
 1.3740	 6.0429
 1.3730	 5.9500
 1.3720	 6.1526
 1.3710	 5.9407
 1.3700	 6.0078
 1.3690	 6.0525
 1.3680	 6.0543
 1.3670	 5.9120
 1.3660	 6.0566
