Name: Natrolite Na_2Al_2Si_3O_10.2H_2O
Type: Mineral
Class: Silicate
Subclass: Tectosilicate
Particle Size: Coarse
Sample No.: TS-8A
Owner: JPL
Wavelength Range: VSWIR
Origin: India, Maharashtra, Poona.
Collection Date: N/A
Description: Particle size was 125-500um. Collected by:  Ward's Original ASTER Spectral Library name was jpl.perkin.mineral.silicate.tectosilicate.coarse.ts08a.spectrum.txt
Measurement: Hemispherical reflectance
First Column: X
Second Column: Y
X Units: Wavelength (micrometers)
Y Units:Reflectance (percent)
First X Value:  2.5000
Last X Value:  0.4000
Number of X Values: 2101
Additional Information: mineral.silicate.tectosilicate.coarse.vswir.ts-8a.jpl.perkin.ancillary.txt

 2.5000	22.3770
 2.4990	21.9245
 2.4980	22.0963
 2.4970	22.1528
 2.4960	21.7491
 2.4950	21.7805
 2.4940	21.7117
 2.4930	21.4166
 2.4920	21.3218
 2.4910	21.2065
 2.4900	21.0294
 2.4890	20.6400
 2.4880	20.6388
 2.4870	20.2631
 2.4860	19.9800
 2.4850	19.7787
 2.4840	19.5150
 2.4830	19.0650
 2.4820	18.7487
 2.4810	18.4856
 2.4800	18.2341
 2.4790	17.6966
 2.4780	17.6363
 2.4770	17.1241
 2.4760	16.9315
 2.4750	16.5347
 2.4740	16.3693
 2.4730	15.7809
 2.4720	15.5853
 2.4710	15.1952
 2.4700	15.1344
 2.4690	14.8145
 2.4680	14.6573
 2.4670	14.3787
 2.4660	14.2487
 2.4650	13.9403
 2.4640	13.7598
 2.4630	13.8181
 2.4620	13.6453
 2.4610	13.4326
 2.4600	13.5214
 2.4590	13.4338
 2.4580	13.4233
 2.4570	13.2275
 2.4560	13.3616
 2.4550	13.1805
 2.4540	13.3792
 2.4530	13.1998
 2.4520	13.2219
 2.4510	13.2163
 2.4500	13.2481
 2.4490	13.0769
 2.4480	13.0822
 2.4470	12.9329
 2.4460	12.8992
 2.4450	12.7059
 2.4440	12.5844
 2.4430	12.4409
 2.4420	12.3351
 2.4410	12.1226
 2.4400	12.0438
 2.4390	11.7770
 2.4380	11.6986
 2.4370	11.4683
 2.4360	11.4675
 2.4350	11.2517
 2.4340	11.1547
 2.4330	10.9954
 2.4320	10.9383
 2.4310	10.8216
 2.4300	10.7789
 2.4290	10.7511
 2.4280	10.8848
 2.4270	10.9547
 2.4260	11.0406
 2.4250	11.0937
 2.4240	11.2732
 2.4230	11.4734
 2.4220	11.6939
 2.4210	11.9413
 2.4200	12.0928
 2.4190	12.3966
 2.4180	12.7705
 2.4170	13.1298
 2.4160	13.5132
 2.4150	13.9535
 2.4140	14.4154
 2.4130	14.7716
 2.4120	15.2802
 2.4110	15.6554
 2.4100	16.2460
 2.4090	16.6023
 2.4080	17.0697
 2.4070	17.5855
 2.4060	17.9633
 2.4050	18.3941
 2.4040	19.0093
 2.4030	19.4031
 2.4020	19.8922
 2.4010	20.3388
 2.4000	20.8039
 2.3990	21.1590
 2.3980	21.5811
 2.3970	21.9306
 2.3960	22.2784
 2.3950	22.5868
 2.3940	22.9685
 2.3930	23.2127
 2.3920	23.4977
 2.3910	23.7622
 2.3900	23.9700
 2.3890	24.1997
 2.3880	24.4568
 2.3870	24.6056
 2.3860	24.7960
 2.3850	24.9522
 2.3840	25.1994
 2.3830	25.2873
 2.3820	25.4807
 2.3810	25.6519
 2.3800	25.7935
 2.3790	25.9528
 2.3780	26.0988
 2.3770	26.3068
 2.3760	26.4435
 2.3750	26.6292
 2.3740	26.8239
 2.3730	26.9730
 2.3720	27.1996
 2.3710	27.3984
 2.3700	27.6129
 2.3690	27.8526
 2.3680	28.0927
 2.3670	28.2762
 2.3660	28.5278
 2.3650	28.7595
 2.3640	28.9654
 2.3630	29.1608
 2.3620	29.3955
 2.3610	29.6116
 2.3600	29.8549
 2.3590	30.0333
 2.3580	30.2332
 2.3570	30.4248
 2.3560	30.6292
 2.3550	30.9014
 2.3540	31.0687
 2.3530	31.2432
 2.3520	31.4776
 2.3510	31.6436
 2.3500	31.7739
 2.3490	31.9310
 2.3480	32.1092
 2.3470	32.3558
 2.3460	32.6084
 2.3450	32.8207
 2.3440	33.0037
 2.3430	33.1379
 2.3420	33.3571
 2.3410	33.6400
 2.3400	33.7463
 2.3390	33.9756
 2.3380	34.2136
 2.3370	34.4208
 2.3360	34.6231
 2.3350	34.8457
 2.3340	35.0862
 2.3330	35.3124
 2.3320	35.5316
 2.3310	35.7664
 2.3300	36.0092
 2.3290	36.2349
 2.3280	36.4567
 2.3270	36.5961
 2.3260	36.8612
 2.3250	37.1265
 2.3240	37.2788
 2.3230	37.5329
 2.3220	37.7221
 2.3210	37.9433
 2.3200	38.1984
 2.3190	38.4527
 2.3180	38.6097
 2.3170	38.8617
 2.3160	39.0409
 2.3150	39.2066
 2.3140	39.3510
 2.3130	39.6014
 2.3120	39.7174
 2.3110	39.8998
 2.3100	40.0921
 2.3090	40.2519
 2.3080	40.4116
 2.3070	40.5773
 2.3060	40.6496
 2.3050	40.7930
 2.3040	40.8716
 2.3030	40.9282
 2.3020	40.9707
 2.3010	41.0666
 2.3000	41.0607
 2.2990	41.0706
 2.2980	41.0692
 2.2970	41.0780
 2.2960	41.0944
 2.2950	41.0595
 2.2940	40.8894
 2.2930	40.8584
 2.2920	40.8493
 2.2910	40.7838
 2.2900	40.6632
 2.2890	40.5577
 2.2880	40.3830
 2.2870	40.2407
 2.2860	40.1132
 2.2850	40.0833
 2.2840	39.9137
 2.2830	39.8038
 2.2820	39.6542
 2.2810	39.6024
 2.2800	39.3955
 2.2790	39.3535
 2.2780	39.2906
 2.2770	39.2252
 2.2760	39.1857
 2.2750	39.1959
 2.2740	39.1326
 2.2730	39.1865
 2.2720	39.2238
 2.2710	39.2840
 2.2700	39.2623
 2.2690	39.2892
 2.2680	39.4294
 2.2670	39.5746
 2.2660	39.6219
 2.2650	39.7544
 2.2640	39.7470
 2.2630	39.9642
 2.2620	40.0369
 2.2610	40.2511
 2.2600	40.2913
 2.2590	40.4658
 2.2580	40.5078
 2.2570	40.5373
 2.2560	40.6296
 2.2550	40.7600
 2.2540	40.7428
 2.2530	40.8214
 2.2520	40.7878
 2.2510	40.8284
 2.2500	40.7860
 2.2490	40.7727
 2.2480	40.7200
 2.2470	40.7119
 2.2460	40.6602
 2.2450	40.5925
 2.2440	40.5119
 2.2430	40.3991
 2.2420	40.2819
 2.2410	40.1963
 2.2400	40.0290
 2.2390	39.9418
 2.2380	39.6586
 2.2370	39.5598
 2.2360	39.4136
 2.2350	39.2217
 2.2340	38.9935
 2.2330	38.9449
 2.2320	38.6292
 2.2310	38.4639
 2.2300	38.1845
 2.2290	38.0093
 2.2280	37.6582
 2.2270	37.4868
 2.2260	37.0609
 2.2250	36.9563
 2.2240	36.5345
 2.2230	36.2870
 2.2220	35.8528
 2.2210	35.6170
 2.2200	35.1872
 2.2190	34.8236
 2.2180	34.3497
 2.2170	34.0093
 2.2160	33.5500
 2.2150	33.2007
 2.2140	32.6480
 2.2130	32.3272
 2.2120	31.8925
 2.2110	31.3777
 2.2100	31.0683
 2.2090	30.6118
 2.2080	30.1062
 2.2070	29.8493
 2.2060	29.3888
 2.2050	29.0099
 2.2040	28.7449
 2.2030	28.4211
 2.2020	28.1488
 2.2010	27.9934
 2.2000	27.7994
 2.1990	27.7476
 2.1980	27.5996
 2.1970	27.6396
 2.1960	27.5978
 2.1950	27.6418
 2.1940	27.7493
 2.1930	27.9163
 2.1920	27.9467
 2.1910	28.1863
 2.1900	28.3522
 2.1890	28.5649
 2.1880	28.9227
 2.1870	29.1971
 2.1860	29.4112
 2.1850	29.6979
 2.1840	30.0290
 2.1830	30.2553
 2.1820	30.4990
 2.1810	30.7945
 2.1800	31.0242
 2.1790	31.1940
 2.1780	31.3203
 2.1770	31.5776
 2.1760	31.6422
 2.1750	31.7856
 2.1740	31.8301
 2.1730	32.0383
 2.1720	31.9783
 2.1710	32.0861
 2.1700	32.0738
 2.1690	32.1894
 2.1680	32.1323
 2.1670	32.2105
 2.1660	32.3152
 2.1650	32.3062
 2.1640	32.2842
 2.1630	32.3331
 2.1620	32.3458
 2.1610	32.4786
 2.1600	32.4302
 2.1590	32.5926
 2.1580	32.6084
 2.1570	32.7020
 2.1560	32.8398
 2.1550	32.8796
 2.1540	32.9438
 2.1530	33.0626
 2.1520	33.1557
 2.1510	33.2366
 2.1500	33.2935
 2.1490	33.4529
 2.1480	33.5548
 2.1470	33.6447
 2.1460	33.6645
 2.1450	33.7962
 2.1440	33.8474
 2.1430	33.9732
 2.1420	34.0322
 2.1410	34.0463
 2.1400	34.0399
 2.1390	34.0972
 2.1380	34.0729
 2.1370	34.0554
 2.1360	34.0363
 2.1350	34.0410
 2.1340	33.9356
 2.1330	33.8995
 2.1320	33.8353
 2.1310	33.7626
 2.1300	33.6504
 2.1290	33.5045
 2.1280	33.3667
 2.1270	33.2853
 2.1260	33.1337
 2.1250	32.9774
 2.1240	32.7627
 2.1230	32.5884
 2.1220	32.3542
 2.1210	32.2180
 2.1200	31.9988
 2.1190	31.7893
 2.1180	31.5497
 2.1170	31.3137
 2.1160	31.1001
 2.1150	30.8904
 2.1140	30.6012
 2.1130	30.3051
 2.1120	29.9676
 2.1110	29.6683
 2.1100	29.3234
 2.1090	29.0742
 2.1080	28.6481
 2.1070	28.2693
 2.1060	27.9384
 2.1050	27.6224
 2.1040	27.2005
 2.1030	26.8329
 2.1020	26.4155
 2.1010	26.0769
 2.1000	25.7016
 2.0990	25.3090
 2.0980	24.9520
 2.0970	24.6493
 2.0960	24.3301
 2.0950	23.9784
 2.0940	23.6592
 2.0930	23.4200
 2.0920	23.1936
 2.0910	22.9733
 2.0900	22.7804
 2.0890	22.6173
 2.0880	22.4751
 2.0870	22.3379
 2.0860	22.2203
 2.0850	22.1906
 2.0840	22.1296
 2.0830	22.1077
 2.0820	22.0985
 2.0810	22.1674
 2.0800	22.2229
 2.0790	22.2583
 2.0780	22.3558
 2.0770	22.4368
 2.0760	22.5111
 2.0750	22.5965
 2.0740	22.7233
 2.0730	22.8571
 2.0720	22.9572
 2.0710	23.0830
 2.0700	23.1804
 2.0690	23.2729
 2.0680	23.3320
 2.0670	23.3704
 2.0660	23.4381
 2.0650	23.4696
 2.0640	23.5627
 2.0630	23.6077
 2.0620	23.5745
 2.0610	23.5777
 2.0600	23.5357
 2.0590	23.5269
 2.0580	23.5292
 2.0570	23.4788
 2.0560	23.4244
 2.0550	23.3399
 2.0540	23.2158
 2.0530	23.1069
 2.0520	23.0126
 2.0510	22.8395
 2.0500	22.7329
 2.0490	22.5381
 2.0480	22.3277
 2.0470	22.1261
 2.0460	21.9403
 2.0450	21.7213
 2.0440	21.3953
 2.0430	21.1300
 2.0420	20.8866
 2.0410	20.5550
 2.0400	20.2493
 2.0390	19.9062
 2.0380	19.5689
 2.0370	19.1991
 2.0360	18.7785
 2.0350	18.3638
 2.0340	17.9949
 2.0330	17.5134
 2.0320	17.0940
 2.0310	16.7057
 2.0300	16.3452
 2.0290	15.9742
 2.0280	15.6611
 2.0270	15.3415
 2.0260	15.0079
 2.0250	14.6969
 2.0240	14.4508
 2.0230	14.1520
 2.0220	13.8810
 2.0210	13.6663
 2.0200	13.4187
 2.0190	13.2167
 2.0180	13.0810
 2.0170	12.8895
 2.0160	12.7834
 2.0150	12.6132
 2.0140	12.5511
 2.0130	12.3831
 2.0120	12.3004
 2.0110	12.2832
 2.0100	12.2428
 2.0090	12.1543
 2.0080	12.1736
 2.0070	12.1906
 2.0060	12.2605
 2.0050	12.2233
 2.0040	12.3841
 2.0030	12.3663
 2.0020	12.4543
 2.0010	12.4930
 2.0000	12.6825
 1.9990	12.7571
 1.9980	12.8837
 1.9970	12.9628
 1.9960	13.2249
 1.9950	13.4106
 1.9940	13.6464
 1.9930	13.6953
 1.9920	13.9768
 1.9910	14.1526
 1.9900	14.4271
 1.9890	14.4664
 1.9880	14.7951
 1.9870	14.9774
 1.9860	15.1722
 1.9850	15.4004
 1.9840	15.5480
 1.9830	15.5841
 1.9820	15.7894
 1.9810	15.8922
 1.9800	16.0802
 1.9790	16.1007
 1.9780	16.2414
 1.9770	16.2107
 1.9760	16.3101
 1.9750	16.3149
 1.9740	16.3751
 1.9730	16.2420
 1.9720	16.1899
 1.9710	16.1007
 1.9700	16.0996
 1.9690	15.8305
 1.9680	15.7885
 1.9670	15.6253
 1.9660	15.4169
 1.9650	15.2345
 1.9640	15.0188
 1.9630	14.5066
 1.9620	14.2093
 1.9610	13.7831
 1.9600	13.3223
 1.9590	12.7331
 1.9580	12.1169
 1.9570	11.4188
 1.9560	10.7119
 1.9550	 9.9298
 1.9540	 9.2865
 1.9530	 8.3480
 1.9520	 7.6417
 1.9510	 6.8246
 1.9500	 6.1711
 1.9490	 5.5791
 1.9480	 4.9564
 1.9470	 4.5031
 1.9460	 4.0319
 1.9450	 3.6896
 1.9440	 3.4110
 1.9430	 3.2820
 1.9420	 3.2276
 1.9410	 3.1616
 1.9400	 3.3454
 1.9390	 3.2893
 1.9380	 3.6314
 1.9370	 3.7899
 1.9360	 4.1444
 1.9350	 4.3502
 1.9340	 4.8055
 1.9330	 5.1147
 1.9320	 5.6434
 1.9310	 5.9018
 1.9300	 6.4448
 1.9290	 6.7819
 1.9280	 7.4103
 1.9270	 7.9135
 1.9260	 8.2601
 1.9250	 8.7720
 1.9240	 9.2840
 1.9230	 9.7104
 1.9220	10.2846
 1.9210	10.6178
 1.9200	11.2223
 1.9190	11.5472
 1.9180	12.1005
 1.9170	12.4737
 1.9160	13.0200
 1.9150	13.3616
 1.9140	13.9359
 1.9130	14.2132
 1.9120	14.7829
 1.9110	15.2023
 1.9100	15.6936
 1.9090	16.1559
 1.9080	16.6450
 1.9070	17.0314
 1.9060	17.6766
 1.9050	18.0390
 1.9040	18.6614
 1.9030	19.1134
 1.9020	19.9560
 1.9010	20.4802
 1.9000	21.2540
 1.8990	21.8369
 1.8980	22.4907
 1.8970	23.2977
 1.8960	24.1120
 1.8950	24.9670
 1.8940	25.8853
 1.8930	26.8295
 1.8920	28.0143
 1.8910	29.1271
 1.8900	30.5118
 1.8890	31.7101
 1.8880	33.1540
 1.8870	34.4441
 1.8860	35.8058
 1.8850	37.0503
 1.8840	38.4612
 1.8830	39.6335
 1.8820	40.8550
 1.8810	41.9866
 1.8800	43.0115
 1.8790	43.9168
 1.8780	44.8345
 1.8770	45.7536
 1.8760	46.4793
 1.8750	47.1699
 1.8740	48.0341
 1.8730	48.7513
 1.8720	49.5652
 1.8710	50.2155
 1.8700	50.9566
 1.8690	51.4730
 1.8680	52.0407
 1.8670	52.4953
 1.8660	52.9132
 1.8650	53.3660
 1.8640	53.7430
 1.8630	54.0796
 1.8620	54.4674
 1.8610	54.6607
 1.8600	55.0561
 1.8590	55.2452
 1.8580	55.4539
 1.8570	55.6805
 1.8560	55.9962
 1.8550	56.1172
 1.8540	56.3488
 1.8530	56.5023
 1.8520	56.6377
 1.8510	56.7722
 1.8500	56.9222
 1.8490	57.0165
 1.8480	57.2108
 1.8470	57.2313
 1.8460	57.3322
 1.8450	57.4305
 1.8440	57.5151
 1.8430	57.4937
 1.8420	57.5185
 1.8410	57.4843
 1.8400	57.3956
 1.8390	57.3114
 1.8380	57.2401
 1.8370	57.1230
 1.8360	56.9688
 1.8350	56.7735
 1.8340	56.6152
 1.8330	56.4401
 1.8320	56.2742
 1.8310	56.0496
 1.8300	55.7794
 1.8290	55.5169
 1.8280	55.2440
 1.8270	54.9963
 1.8260	54.8529
 1.8250	54.5940
 1.8240	54.4034
 1.8230	54.1817
 1.8220	54.0442
 1.8210	53.8266
 1.8200	53.7536
 1.8190	53.7609
 1.8180	53.7126
 1.8170	53.7174
 1.8160	53.7981
 1.8150	53.9220
 1.8140	54.1008
 1.8130	54.3859
 1.8120	54.5843
 1.8110	54.7719
 1.8100	55.0348
 1.8090	55.3117
 1.8080	55.6193
 1.8070	55.9247
 1.8060	56.2329
 1.8050	56.4886
 1.8040	56.7473
 1.8030	57.0248
 1.8020	57.2804
 1.8010	57.4708
 1.8000	57.6898
 1.7990	57.8420
 1.7980	57.9578
 1.7970	58.0726
 1.7960	58.2202
 1.7950	58.3554
 1.7940	58.4325
 1.7930	58.4390
 1.7920	58.4912
 1.7910	58.5427
 1.7900	58.5799
 1.7890	58.6008
 1.7880	58.5782
 1.7870	58.5406
 1.7860	58.4466
 1.7850	58.3361
 1.7840	58.2633
 1.7830	58.1434
 1.7820	57.9748
 1.7810	57.7907
 1.7800	57.6041
 1.7790	57.3884
 1.7780	57.0988
 1.7770	56.8138
 1.7760	56.4943
 1.7750	56.1975
 1.7740	55.9012
 1.7730	55.6374
 1.7720	55.4435
 1.7710	55.2650
 1.7700	55.0964
 1.7690	55.0166
 1.7680	55.0473
 1.7670	55.1238
 1.7660	55.3364
 1.7650	55.6221
 1.7640	55.9639
 1.7630	56.3866
 1.7620	56.8219
 1.7610	57.3197
 1.7600	57.7648
 1.7590	58.2524
 1.7580	58.6784
 1.7570	59.0884
 1.7560	59.4278
 1.7550	59.7205
 1.7540	59.9937
 1.7530	60.2424
 1.7520	60.4599
 1.7510	60.5135
 1.7500	60.5305
 1.7490	60.6191
 1.7480	60.6382
 1.7470	60.6032
 1.7460	60.5800
 1.7450	60.5091
 1.7440	60.4827
 1.7430	60.4420
 1.7420	60.3765
 1.7410	60.2898
 1.7400	60.2820
 1.7390	60.2457
 1.7380	60.1716
 1.7370	60.2130
 1.7360	60.2738
 1.7350	60.3168
 1.7340	60.4103
 1.7330	60.6057
 1.7320	60.7252
 1.7310	60.8446
 1.7300	61.0321
 1.7290	61.0873
 1.7280	61.1710
 1.7270	61.2934
 1.7260	61.3359
 1.7250	61.4301
 1.7240	61.4485
 1.7230	61.4924
 1.7220	61.4498
 1.7210	61.4193
 1.7200	61.3504
 1.7190	61.4102
 1.7180	61.3343
 1.7170	61.3156
 1.7160	61.2783
 1.7150	61.2029
 1.7140	61.1561
 1.7130	61.1093
 1.7120	61.0405
 1.7110	61.0836
 1.7100	61.0283
 1.7090	60.9824
 1.7080	60.9105
 1.7070	60.9383
 1.7060	60.7860
 1.7050	60.8319
 1.7040	60.7559
 1.7030	60.6930
 1.7020	60.6184
 1.7010	60.6017
 1.7000	60.6157
 1.6990	60.5180
 1.6980	60.5430
 1.6970	60.4530
 1.6960	60.3112
 1.6950	60.3319
 1.6940	60.3162
 1.6930	60.2500
 1.6920	60.0757
 1.6910	60.0518
 1.6900	59.9996
 1.6890	59.9576
 1.6880	59.8840
 1.6870	59.8589
 1.6860	59.6763
 1.6850	59.6883
 1.6840	59.5105
 1.6830	59.4442
 1.6820	59.2656
 1.6810	59.2293
 1.6800	59.1119
 1.6790	58.9967
 1.6780	58.8775
 1.6770	58.7766
 1.6760	58.7128
 1.6750	58.5619
 1.6740	58.5427
 1.6730	58.3482
 1.6720	58.2365
 1.6710	58.1777
 1.6700	58.0514
 1.6690	57.9759
 1.6680	57.8055
 1.6670	57.7315
 1.6660	57.4666
 1.6650	57.4802
 1.6640	57.3517
 1.6630	57.2523
 1.6620	57.1058
 1.6610	57.0757
 1.6600	56.8457
 1.6590	56.8494
 1.6580	56.6155
 1.6570	56.5582
 1.6560	56.3400
 1.6550	56.2930
 1.6540	56.1622
 1.6530	56.1034
 1.6520	55.9362
 1.6510	55.8330
 1.6500	55.6295
 1.6490	55.5605
 1.6480	55.3611
 1.6470	55.3326
 1.6460	55.1522
 1.6450	55.0766
 1.6440	54.8828
 1.6430	54.8863
 1.6420	54.7244
 1.6410	54.5545
 1.6400	54.5095
 1.6390	54.4036
 1.6380	54.2672
 1.6370	54.2799
 1.6360	54.0719
 1.6350	53.9782
 1.6340	53.8617
 1.6330	53.7582
 1.6320	53.7046
 1.6310	53.6452
 1.6300	53.5362
 1.6290	53.5097
 1.6280	53.2766
 1.6270	53.3051
 1.6260	53.1094
 1.6250	53.1078
 1.6240	52.9683
 1.6230	53.0200
 1.6220	52.8532
 1.6210	52.8269
 1.6200	52.7631
 1.6190	52.6827
 1.6180	52.6301
 1.6170	52.5345
 1.6160	52.4806
 1.6150	52.4052
 1.6140	52.3198
 1.6130	52.2717
 1.6120	52.1959
 1.6110	52.1262
 1.6100	52.0509
 1.6090	51.9600
 1.6080	51.8811
 1.6070	51.8734
 1.6060	51.8197
 1.6050	51.8276
 1.6040	51.7656
 1.6030	51.7081
 1.6020	51.6727
 1.6010	51.7415
 1.6000	51.7166
 1.5990	51.7992
 1.5980	51.6876
 1.5970	51.7906
 1.5960	51.7994
 1.5950	51.9181
 1.5940	51.9242
 1.5930	52.0261
 1.5920	52.0671
 1.5910	52.1136
 1.5900	52.1696
 1.5890	52.2299
 1.5880	52.2291
 1.5870	52.2943
 1.5860	52.3568
 1.5850	52.3754
 1.5840	52.2890
 1.5830	52.3472
 1.5820	52.3693
 1.5810	52.4211
 1.5800	52.3326
 1.5790	52.3790
 1.5780	52.3300
 1.5770	52.3160
 1.5760	52.2888
 1.5750	52.2641
 1.5740	52.1998
 1.5730	52.1421
 1.5720	52.0453
 1.5710	52.0678
 1.5700	51.9377
 1.5690	51.9147
 1.5680	51.8287
 1.5670	51.8048
 1.5660	51.7198
 1.5650	51.7305
 1.5640	51.6702
 1.5630	51.6653
 1.5620	51.6451
 1.5610	51.6359
 1.5600	51.6457
 1.5590	51.6552
 1.5580	51.7277
 1.5570	51.8091
 1.5560	51.8068
 1.5550	51.9092
 1.5540	51.9728
 1.5530	52.1063
 1.5520	52.2045
 1.5510	52.3129
 1.5500	52.4174
 1.5490	52.4923
 1.5480	52.5983
 1.5470	52.6991
 1.5460	52.8473
 1.5450	53.0016
 1.5440	53.1343
 1.5430	53.1989
 1.5420	53.2477
 1.5410	53.3108
 1.5400	53.4256
 1.5390	53.4836
 1.5380	53.5015
 1.5370	53.5743
 1.5360	53.5963
 1.5350	53.6077
 1.5340	53.6925
 1.5330	53.7325
 1.5320	53.6857
 1.5310	53.7481
 1.5300	53.7221
 1.5290	53.6743
 1.5280	53.6175
 1.5270	53.6288
 1.5260	53.5874
 1.5250	53.5138
 1.5240	53.4239
 1.5230	53.3956
 1.5220	53.3822
 1.5210	53.3289
 1.5200	53.1900
 1.5190	53.1413
 1.5180	53.0814
 1.5170	52.9552
 1.5160	52.8409
 1.5150	52.7473
 1.5140	52.6423
 1.5130	52.4604
 1.5120	52.2900
 1.5110	52.1594
 1.5100	52.0098
 1.5090	51.8094
 1.5080	51.5822
 1.5070	51.3495
 1.5060	51.0844
 1.5050	50.8029
 1.5040	50.4572
 1.5030	50.0731
 1.5020	49.7210
 1.5010	49.2905
 1.5000	48.8099
 1.4990	48.3100
 1.4980	47.7431
 1.4970	47.1121
 1.4960	46.4120
 1.4950	45.6595
 1.4940	44.8926
 1.4930	44.1251
 1.4920	43.4596
 1.4910	42.9167
 1.4900	42.5017
 1.4890	42.3007
 1.4880	42.3376
 1.4870	42.5584
 1.4860	42.9424
 1.4850	43.4116
 1.4840	43.9657
 1.4830	44.5127
 1.4820	44.9440
 1.4810	45.2937
 1.4800	45.5416
 1.4790	45.6717
 1.4780	45.7347
 1.4770	45.7292
 1.4760	45.5851
 1.4750	45.3436
 1.4740	45.0243
 1.4730	44.5549
 1.4720	44.0549
 1.4710	43.4503
 1.4700	42.7352
 1.4690	41.9259
 1.4680	41.0003
 1.4670	40.0281
 1.4660	38.9491
 1.4650	37.7229
 1.4640	36.6110
 1.4630	35.5466
 1.4620	34.5145
 1.4610	33.5538
 1.4600	32.9073
 1.4590	32.3972
 1.4580	32.1251
 1.4570	32.0981
 1.4560	32.3703
 1.4550	32.8123
 1.4540	33.4177
 1.4530	34.1139
 1.4520	34.9276
 1.4510	35.6982
 1.4500	36.6176
 1.4490	37.4368
 1.4480	38.2602
 1.4470	38.9827
 1.4460	39.5978
 1.4450	40.1770
 1.4440	40.5792
 1.4430	40.7880
 1.4420	41.0057
 1.4410	41.0227
 1.4400	41.1716
 1.4390	41.2321
 1.4380	41.3028
 1.4370	41.3792
 1.4360	41.5044
 1.4350	41.6450
 1.4340	41.9187
 1.4330	42.1028
 1.4320	42.4577
 1.4310	42.7265
 1.4300	42.9959
 1.4290	43.3066
 1.4280	43.7445
 1.4270	44.0069
 1.4260	44.4610
 1.4250	44.8385
 1.4240	45.4221
 1.4230	45.9327
 1.4220	46.5181
 1.4210	47.1592
 1.4200	47.7999
 1.4190	48.4078
 1.4180	49.0945
 1.4170	49.8375
 1.4160	50.4991
 1.4150	51.2693
 1.4140	52.0007
 1.4130	52.6188
 1.4120	53.4010
 1.4110	54.0816
 1.4100	54.8444
 1.4090	55.5398
 1.4080	56.3794
 1.4070	57.1490
 1.4060	57.8842
 1.4050	58.5922
 1.4040	59.2499
 1.4030	59.8525
 1.4020	60.4768
 1.4010	61.0532
 1.4000	61.5862
 1.3990	62.0221
 1.3980	62.5916
 1.3970	63.1126
 1.3960	63.6326
 1.3950	64.0487
 1.3940	64.4810
 1.3930	64.7736
 1.3920	65.0867
 1.3910	65.5444
 1.3900	65.8234
 1.3890	65.9308
 1.3880	66.1564
 1.3870	66.4751
 1.3860	66.6550
 1.3850	66.7345
 1.3840	66.9486
 1.3830	67.1589
 1.3820	67.3185
 1.3810	67.5201
 1.3800	67.7016
 1.3790	67.9329
 1.3780	68.1384
 1.3770	68.2391
 1.3760	68.3470
 1.3750	68.5098
 1.3740	68.6109
 1.3730	68.7442
 1.3720	68.7812
 1.3710	68.7109
 1.3700	68.6546
 1.3690	68.6493
 1.3680	68.6950
