Name: Montebrasite LiAlPO_4(OH)
Type: Mineral
Class: Phosphate
Subclass: None
Particle Size: Fine
Sample No.: P-2A
Owner: JPL
Wavelength Range: VSWIR
Origin: USA, Couth Dakota, Custer County, Custer.
Collection Date: N/A
Description: Particle size was 0-45um. Collected by:  Burminco Original ASTER Spectral Library name was jpl.perkin.mineral.phosphate.none.fine.p02a.spectrum.txt
Measurement: Hemispherical reflectance
First Column: X
Second Column: Y
X Units: Wavelength (micrometers)
Y Units:Reflectance (percent)
First X Value:  2.5000
Last X Value:  0.4000
Number of X Values: 2101
Additional Information: mineral.phosphate.none.fine.vswir.p-2a.jpl.perkin.ancillary.txt

 2.5000	49.6459
 2.4990	49.3358
 2.4980	49.5091
 2.4970	49.5152
 2.4960	49.4777
 2.4950	49.6384
 2.4940	49.8448
 2.4930	49.8690
 2.4920	49.9948
 2.4910	49.8710
 2.4900	50.1062
 2.4890	49.9956
 2.4880	50.1970
 2.4870	50.1494
 2.4860	50.4679
 2.4850	50.3116
 2.4840	50.4800
 2.4830	50.2905
 2.4820	50.6120
 2.4810	50.6605
 2.4800	50.8014
 2.4790	50.6267
 2.4780	51.0309
 2.4770	50.9758
 2.4760	51.2254
 2.4750	51.1755
 2.4740	51.4667
 2.4730	51.3752
 2.4720	51.4981
 2.4710	51.5401
 2.4700	51.9132
 2.4690	51.8772
 2.4680	51.9712
 2.4670	52.0056
 2.4660	52.3881
 2.4650	52.4210
 2.4640	52.4346
 2.4630	52.6229
 2.4620	52.7249
 2.4610	52.8596
 2.4600	53.0300
 2.4590	53.0708
 2.4580	53.1827
 2.4570	53.1381
 2.4560	53.4134
 2.4550	53.5896
 2.4540	53.6716
 2.4530	53.6339
 2.4520	53.8033
 2.4510	53.9227
 2.4500	53.9526
 2.4490	54.1659
 2.4480	54.1946
 2.4470	54.2728
 2.4460	54.3681
 2.4450	54.2872
 2.4440	54.4878
 2.4430	54.5623
 2.4420	54.7425
 2.4410	54.8141
 2.4400	54.8139
 2.4390	54.8797
 2.4380	54.9247
 2.4370	54.9637
 2.4360	55.1213
 2.4350	55.1189
 2.4340	55.0960
 2.4330	55.1440
 2.4320	55.1719
 2.4310	55.2402
 2.4300	55.3167
 2.4290	55.3274
 2.4280	55.4177
 2.4270	55.3544
 2.4260	55.4278
 2.4250	55.4427
 2.4240	55.4938
 2.4230	55.5238
 2.4220	55.4230
 2.4210	55.4744
 2.4200	55.4560
 2.4190	55.4580
 2.4180	55.5624
 2.4170	55.5164
 2.4160	55.5663
 2.4150	55.4906
 2.4140	55.3799
 2.4130	55.3059
 2.4120	55.3207
 2.4110	55.2889
 2.4100	55.2441
 2.4090	55.1136
 2.4080	55.0854
 2.4070	54.9989
 2.4060	54.9050
 2.4050	54.7676
 2.4040	54.7491
 2.4030	54.5880
 2.4020	54.3441
 2.4010	54.2368
 2.4000	54.0792
 2.3990	53.8219
 2.3980	53.6392
 2.3970	53.2989
 2.3960	53.0448
 2.3950	52.7765
 2.3940	52.4808
 2.3930	52.1093
 2.3920	51.6995
 2.3910	51.2992
 2.3900	50.8643
 2.3890	50.4258
 2.3880	49.9943
 2.3870	49.4910
 2.3860	48.9775
 2.3850	48.4552
 2.3840	47.9509
 2.3830	47.4577
 2.3820	46.9856
 2.3810	46.4893
 2.3800	46.0545
 2.3790	45.6311
 2.3780	45.3351
 2.3770	45.0748
 2.3760	44.8235
 2.3750	44.6463
 2.3740	44.5740
 2.3730	44.5058
 2.3720	44.6020
 2.3710	44.7155
 2.3700	44.8508
 2.3690	45.1186
 2.3680	45.4840
 2.3670	45.8598
 2.3660	46.2814
 2.3650	46.7643
 2.3640	47.2844
 2.3630	47.8905
 2.3620	48.5407
 2.3610	49.1307
 2.3600	49.7113
 2.3590	50.3101
 2.3580	50.9249
 2.3570	51.5303
 2.3560	52.1267
 2.3550	52.7062
 2.3540	53.2289
 2.3530	53.6685
 2.3520	54.1037
 2.3510	54.4990
 2.3500	54.8710
 2.3490	55.2485
 2.3480	55.5713
 2.3470	55.8420
 2.3460	56.1584
 2.3450	56.4031
 2.3440	56.5923
 2.3430	56.7145
 2.3420	56.8618
 2.3410	57.0263
 2.3400	57.1094
 2.3390	57.2613
 2.3380	57.3850
 2.3370	57.4520
 2.3360	57.5012
 2.3350	57.5916
 2.3340	57.6596
 2.3330	57.6679
 2.3320	57.6750
 2.3310	57.7317
 2.3300	57.7720
 2.3290	57.8223
 2.3280	57.8632
 2.3270	57.8175
 2.3260	57.7792
 2.3250	57.8331
 2.3240	57.8593
 2.3230	57.8611
 2.3220	57.8057
 2.3210	57.8283
 2.3200	57.8471
 2.3190	57.8405
 2.3180	57.8161
 2.3170	57.8269
 2.3160	57.8338
 2.3150	57.8520
 2.3140	57.8000
 2.3130	57.8049
 2.3120	57.7533
 2.3110	57.7725
 2.3100	57.6852
 2.3090	57.6990
 2.3080	57.6831
 2.3070	57.6905
 2.3060	57.5830
 2.3050	57.6051
 2.3040	57.5820
 2.3030	57.5625
 2.3020	57.4737
 2.3010	57.4246
 2.3000	57.4491
 2.2990	57.4081
 2.2980	57.3359
 2.2970	57.3561
 2.2960	57.2249
 2.2950	57.1595
 2.2940	57.0750
 2.2930	57.0354
 2.2920	56.9751
 2.2910	56.9426
 2.2900	56.8698
 2.2890	56.7711
 2.2880	56.6667
 2.2870	56.6587
 2.2860	56.5241
 2.2850	56.4995
 2.2840	56.4199
 2.2830	56.3472
 2.2820	56.2731
 2.2810	56.2871
 2.2800	56.1407
 2.2790	56.1335
 2.2780	56.0684
 2.2770	56.0274
 2.2760	56.0058
 2.2750	55.9665
 2.2740	55.9267
 2.2730	55.8810
 2.2720	55.8238
 2.2710	55.8728
 2.2700	55.8611
 2.2690	55.7456
 2.2680	55.7514
 2.2670	55.7014
 2.2660	55.6669
 2.2650	55.6677
 2.2640	55.6744
 2.2630	55.6731
 2.2620	55.5690
 2.2610	55.5100
 2.2600	55.4855
 2.2590	55.4761
 2.2580	55.3639
 2.2570	55.3521
 2.2560	55.2892
 2.2550	55.2161
 2.2540	55.1302
 2.2530	55.1123
 2.2520	55.0443
 2.2510	55.0060
 2.2500	54.8805
 2.2490	54.7996
 2.2480	54.7496
 2.2470	54.7177
 2.2460	54.4895
 2.2450	54.4877
 2.2440	54.3702
 2.2430	54.3373
 2.2420	54.2777
 2.2410	54.2141
 2.2400	53.9725
 2.2390	53.9924
 2.2380	53.8699
 2.2370	53.8143
 2.2360	53.6665
 2.2350	53.7011
 2.2340	53.5695
 2.2330	53.4482
 2.2320	53.3668
 2.2310	53.2326
 2.2300	53.0534
 2.2290	53.0121
 2.2280	52.9208
 2.2270	52.7954
 2.2260	52.6945
 2.2250	52.5435
 2.2240	52.4468
 2.2230	52.3186
 2.2220	52.2180
 2.2210	52.2148
 2.2200	52.0022
 2.2190	52.0049
 2.2180	51.8140
 2.2170	51.7241
 2.2160	51.5180
 2.2150	51.3945
 2.2140	51.2490
 2.2130	51.0252
 2.2120	50.9398
 2.2110	50.7127
 2.2100	50.5704
 2.2090	50.3305
 2.2080	50.0400
 2.2070	49.9262
 2.2060	49.6423
 2.2050	49.3558
 2.2040	48.9988
 2.2030	48.7319
 2.2020	48.4499
 2.2010	48.1956
 2.2000	47.8230
 2.1990	47.5964
 2.1980	47.2052
 2.1970	46.9349
 2.1960	46.6111
 2.1950	46.3677
 2.1940	46.0245
 2.1930	45.7419
 2.1920	45.3772
 2.1910	45.2214
 2.1900	44.8736
 2.1890	44.6901
 2.1880	44.3320
 2.1870	44.1313
 2.1860	43.8511
 2.1850	43.7050
 2.1840	43.4542
 2.1830	43.1463
 2.1820	42.9799
 2.1810	42.8184
 2.1800	42.5420
 2.1790	42.4268
 2.1780	42.1892
 2.1770	42.1611
 2.1760	41.9958
 2.1750	41.9774
 2.1740	41.9681
 2.1730	42.1278
 2.1720	42.1620
 2.1710	42.5027
 2.1700	42.7390
 2.1690	43.1644
 2.1680	43.6399
 2.1670	44.2555
 2.1660	44.9335
 2.1650	45.7892
 2.1640	46.5666
 2.1630	47.4258
 2.1620	48.2953
 2.1610	49.2369
 2.1600	50.0458
 2.1590	50.9543
 2.1580	51.7970
 2.1570	52.5884
 2.1560	53.1995
 2.1550	53.8323
 2.1540	54.4388
 2.1530	54.9958
 2.1520	55.4759
 2.1510	55.8888
 2.1500	56.1683
 2.1490	56.4970
 2.1480	56.7101
 2.1470	56.8969
 2.1460	57.0971
 2.1450	57.3149
 2.1440	57.4594
 2.1430	57.6520
 2.1420	57.6510
 2.1410	57.7754
 2.1400	57.8758
 2.1390	57.9416
 2.1380	57.9668
 2.1370	58.0407
 2.1360	58.0761
 2.1350	58.1308
 2.1340	58.0855
 2.1330	58.2019
 2.1320	58.2251
 2.1310	58.2468
 2.1300	58.1929
 2.1290	58.2401
 2.1280	58.2388
 2.1270	58.2667
 2.1260	58.2031
 2.1250	58.2239
 2.1240	58.2460
 2.1230	58.2538
 2.1220	58.1980
 2.1210	58.1989
 2.1200	58.1568
 2.1190	58.1705
 2.1180	58.1604
 2.1170	58.1295
 2.1160	58.0708
 2.1150	58.0837
 2.1140	58.0801
 2.1130	58.0711
 2.1120	58.0437
 2.1110	58.0019
 2.1100	57.9531
 2.1090	57.9993
 2.1080	57.9752
 2.1070	58.0256
 2.1060	58.0162
 2.1050	57.9530
 2.1040	57.9382
 2.1030	57.9476
 2.1020	57.9556
 2.1010	57.9746
 2.1000	57.9075
 2.0990	57.9354
 2.0980	57.9967
 2.0970	57.9885
 2.0960	58.0030
 2.0950	58.0500
 2.0940	58.0469
 2.0930	58.0652
 2.0920	58.0939
 2.0910	58.1239
 2.0900	58.1198
 2.0890	58.1544
 2.0880	58.1372
 2.0870	58.1235
 2.0860	58.1482
 2.0850	58.1724
 2.0840	58.1498
 2.0830	58.1399
 2.0820	58.1106
 2.0810	58.0794
 2.0800	58.0672
 2.0790	58.1055
 2.0780	58.1253
 2.0770	58.1216
 2.0760	58.1067
 2.0750	58.0630
 2.0740	58.0620
 2.0730	58.0762
 2.0720	58.0776
 2.0710	58.0858
 2.0700	58.0821
 2.0690	58.0972
 2.0680	58.1114
 2.0670	58.1353
 2.0660	58.1532
 2.0650	58.1839
 2.0640	58.1778
 2.0630	58.1701
 2.0620	58.1888
 2.0610	58.1974
 2.0600	58.2146
 2.0590	58.2183
 2.0580	58.2798
 2.0570	58.2672
 2.0560	58.3001
 2.0550	58.3360
 2.0540	58.3381
 2.0530	58.3358
 2.0520	58.3879
 2.0510	58.4428
 2.0500	58.4202
 2.0490	58.4050
 2.0480	58.4620
 2.0470	58.4974
 2.0460	58.5682
 2.0450	58.5808
 2.0440	58.5765
 2.0430	58.6287
 2.0420	58.6588
 2.0410	58.6760
 2.0400	58.7052
 2.0390	58.6911
 2.0380	58.7144
 2.0370	58.7468
 2.0360	58.7989
 2.0350	58.7849
 2.0340	58.8038
 2.0330	58.8852
 2.0320	58.9239
 2.0310	58.8881
 2.0300	58.8963
 2.0290	58.8603
 2.0280	58.8768
 2.0270	58.8594
 2.0260	58.8710
 2.0250	58.8542
 2.0240	58.8826
 2.0230	58.8491
 2.0220	58.8603
 2.0210	58.8212
 2.0200	58.7924
 2.0190	58.7638
 2.0180	58.7619
 2.0170	58.6751
 2.0160	58.6944
 2.0150	58.5553
 2.0140	58.4752
 2.0130	58.3818
 2.0120	58.2793
 2.0110	58.1698
 2.0100	58.0747
 2.0090	57.9002
 2.0080	57.7672
 2.0070	57.5690
 2.0060	57.4173
 2.0050	57.1523
 2.0040	56.9732
 2.0030	56.6988
 2.0020	56.5422
 2.0010	56.3092
 2.0000	56.0951
 1.9990	55.9437
 1.9980	55.8614
 1.9970	55.7241
 1.9960	55.7691
 1.9950	55.7938
 1.9940	55.9221
 1.9930	55.9329
 1.9920	56.1253
 1.9910	56.2426
 1.9900	56.4747
 1.9890	56.6986
 1.9880	56.9769
 1.9870	57.0777
 1.9860	57.2641
 1.9850	57.4801
 1.9840	57.6997
 1.9830	57.7595
 1.9820	58.0117
 1.9810	58.1322
 1.9800	58.2859
 1.9790	58.3830
 1.9780	58.5340
 1.9770	58.5960
 1.9760	58.7229
 1.9750	58.6966
 1.9740	58.7891
 1.9730	58.8193
 1.9720	58.8703
 1.9710	58.8874
 1.9700	59.0445
 1.9690	59.0664
 1.9680	59.0648
 1.9670	59.0215
 1.9660	59.1974
 1.9650	59.1675
 1.9640	59.1942
 1.9630	59.1635
 1.9620	59.2422
 1.9610	59.1693
 1.9600	59.2245
 1.9590	59.2015
 1.9580	59.2845
 1.9570	59.2567
 1.9560	59.3147
 1.9550	59.2938
 1.9540	59.3010
 1.9530	59.3845
 1.9520	59.3169
 1.9510	59.3752
 1.9500	59.3438
 1.9490	59.3322
 1.9480	59.4216
 1.9470	59.3845
 1.9460	59.4071
 1.9450	59.4331
 1.9440	59.4360
 1.9430	59.3098
 1.9420	59.4945
 1.9410	59.4197
 1.9400	59.4461
 1.9390	59.4446
 1.9380	59.4910
 1.9370	59.3622
 1.9360	59.4616
 1.9350	59.4655
 1.9340	59.5328
 1.9330	59.4862
 1.9320	59.5198
 1.9310	59.5342
 1.9300	59.5106
 1.9290	59.4896
 1.9280	59.5995
 1.9270	59.5961
 1.9260	59.4808
 1.9250	59.5853
 1.9240	59.5611
 1.9230	59.5112
 1.9220	59.5697
 1.9210	59.5653
 1.9200	59.6687
 1.9190	59.5169
 1.9180	59.6428
 1.9170	59.6390
 1.9160	59.6458
 1.9150	59.5812
 1.9140	59.5831
 1.9130	59.5589
 1.9120	59.6759
 1.9110	59.6782
 1.9100	59.6657
 1.9090	59.6562
 1.9080	59.7119
 1.9070	59.7192
 1.9060	59.7518
 1.9050	59.7511
 1.9040	59.7968
 1.9030	59.7664
 1.9020	59.7853
 1.9010	59.6944
 1.9000	59.8119
 1.8990	59.7925
 1.8980	59.8282
 1.8970	59.7895
 1.8960	59.8484
 1.8950	59.7853
 1.8940	59.8010
 1.8930	59.8656
 1.8920	59.9146
 1.8910	59.8065
 1.8900	59.9388
 1.8890	59.8218
 1.8880	59.8653
 1.8870	59.9030
 1.8860	59.8292
 1.8850	59.9032
 1.8840	59.8950
 1.8830	59.8241
 1.8820	59.8986
 1.8810	59.8855
 1.8800	59.9251
 1.8790	59.9273
 1.8780	59.9674
 1.8770	59.9324
 1.8760	59.8732
 1.8750	59.8873
 1.8740	60.0135
 1.8730	59.9923
 1.8720	60.0820
 1.8710	60.0307
 1.8700	60.0324
 1.8690	59.8884
 1.8680	59.9121
 1.8670	59.9236
 1.8660	59.9011
 1.8650	59.8641
 1.8640	59.8144
 1.8630	59.7552
 1.8620	59.7623
 1.8610	59.7273
 1.8600	59.7438
 1.8590	59.6524
 1.8580	59.6478
 1.8570	59.5499
 1.8560	59.5570
 1.8550	59.5054
 1.8540	59.5344
 1.8530	59.5377
 1.8520	59.4589
 1.8510	59.4787
 1.8500	59.5110
 1.8490	59.5413
 1.8480	59.5673
 1.8470	59.5374
 1.8460	59.6036
 1.8450	59.5985
 1.8440	59.6787
 1.8430	59.7150
 1.8420	59.7924
 1.8410	59.8250
 1.8400	59.8968
 1.8390	59.9923
 1.8380	60.1078
 1.8370	60.1192
 1.8360	60.1937
 1.8350	60.2646
 1.8340	60.3061
 1.8330	60.3322
 1.8320	60.3845
 1.8310	60.4046
 1.8300	60.4427
 1.8290	60.5069
 1.8280	60.4919
 1.8270	60.4560
 1.8260	60.5252
 1.8250	60.5640
 1.8240	60.5765
 1.8230	60.5583
 1.8220	60.5806
 1.8210	60.6001
 1.8200	60.5967
 1.8190	60.6008
 1.8180	60.6060
 1.8170	60.6083
 1.8160	60.6186
 1.8150	60.6368
 1.8140	60.6629
 1.8130	60.6230
 1.8120	60.5942
 1.8110	60.6029
 1.8100	60.5962
 1.8090	60.5864
 1.8080	60.5977
 1.8070	60.5918
 1.8060	60.5852
 1.8050	60.5769
 1.8040	60.6162
 1.8030	60.5902
 1.8020	60.6074
 1.8010	60.6099
 1.8000	60.5885
 1.7990	60.5862
 1.7980	60.5917
 1.7970	60.6096
 1.7960	60.5990
 1.7950	60.5887
 1.7940	60.5708
 1.7930	60.5368
 1.7920	60.5680
 1.7910	60.5938
 1.7900	60.5351
 1.7890	60.4984
 1.7880	60.4903
 1.7870	60.5013
 1.7860	60.5234
 1.7850	60.5079
 1.7840	60.5053
 1.7830	60.4752
 1.7820	60.5088
 1.7810	60.5282
 1.7800	60.4710
 1.7790	60.4664
 1.7780	60.4719
 1.7770	60.4444
 1.7760	60.4610
 1.7750	60.4356
 1.7740	60.4256
 1.7730	60.4665
 1.7720	60.4545
 1.7710	60.4493
 1.7700	60.4346
 1.7690	60.4645
 1.7680	60.4549
 1.7670	60.4087
 1.7660	60.4106
 1.7650	60.4442
 1.7640	60.4617
 1.7630	60.4546
 1.7620	60.4726
 1.7610	60.4926
 1.7600	60.4766
 1.7590	60.4921
 1.7580	60.4727
 1.7570	60.4777
 1.7560	60.4922
 1.7550	60.5356
 1.7540	60.5518
 1.7530	60.5701
 1.7520	60.5367
 1.7510	60.5545
 1.7500	60.5661
 1.7490	60.5593
 1.7480	60.5091
 1.7470	60.5457
 1.7460	60.5731
 1.7450	60.5968
 1.7440	60.5819
 1.7430	60.5489
 1.7420	60.5819
 1.7410	60.6324
 1.7400	60.6054
 1.7390	60.6016
 1.7380	60.5848
 1.7370	60.6117
 1.7360	60.5873
 1.7350	60.6151
 1.7340	60.6679
 1.7330	60.6688
 1.7320	60.6807
 1.7310	60.7368
 1.7300	60.6936
 1.7290	60.6850
 1.7280	60.6351
 1.7270	60.7275
 1.7260	60.7363
 1.7250	60.7550
 1.7240	60.7300
 1.7230	60.7506
 1.7220	60.7721
 1.7210	60.7579
 1.7200	60.7482
 1.7190	60.7641
 1.7180	60.7675
 1.7170	60.8299
 1.7160	60.8210
 1.7150	60.8758
 1.7140	60.8173
 1.7130	60.8749
 1.7120	60.8166
 1.7110	60.8430
 1.7100	60.8395
 1.7090	60.9007
 1.7080	60.8690
 1.7070	60.8406
 1.7060	60.9176
 1.7050	60.8543
 1.7040	60.8244
 1.7030	60.8739
 1.7020	60.8371
 1.7010	60.8752
 1.7000	60.9242
 1.6990	60.8905
 1.6980	60.8373
 1.6970	60.9152
 1.6960	60.8976
 1.6950	60.9133
 1.6940	60.8507
 1.6930	60.8736
 1.6920	60.7888
 1.6910	60.9034
 1.6900	60.8718
 1.6890	60.8372
 1.6880	60.8222
 1.6870	60.8594
 1.6860	60.8878
 1.6850	60.8509
 1.6840	60.8663
 1.6830	60.8742
 1.6820	60.8709
 1.6810	60.9188
 1.6800	60.8270
 1.6790	60.8824
 1.6780	60.8794
 1.6770	60.8805
 1.6760	60.8781
 1.6750	60.9312
 1.6740	60.8559
 1.6730	60.9480
 1.6720	60.8504
 1.6710	60.8715
 1.6700	60.8361
 1.6690	60.9295
 1.6680	60.8123
 1.6670	60.8661
 1.6660	60.8198
 1.6650	60.8832
 1.6640	60.8615
 1.6630	60.9139
 1.6620	60.8138
 1.6610	60.7731
 1.6600	60.8419
 1.6590	60.8858
 1.6580	60.8325
 1.6570	60.9515
 1.6560	60.8484
 1.6550	60.9032
 1.6540	60.8191
 1.6530	60.8788
 1.6520	60.8972
 1.6510	60.8854
 1.6500	60.7581
 1.6490	60.9084
 1.6480	60.7853
 1.6470	60.9434
 1.6460	60.8298
 1.6450	60.9106
 1.6440	60.8051
 1.6430	60.8403
 1.6420	60.8938
 1.6410	60.8034
 1.6400	60.9352
 1.6390	60.8803
 1.6380	60.9063
 1.6370	60.9167
 1.6360	60.8190
 1.6350	60.8977
 1.6340	60.7483
 1.6330	60.8257
 1.6320	60.8038
 1.6310	60.9265
 1.6300	60.8794
 1.6290	60.9528
 1.6280	60.8770
 1.6270	60.8917
 1.6260	60.8426
 1.6250	60.8403
 1.6240	60.7767
 1.6230	60.8683
 1.6220	60.7850
 1.6210	60.9240
 1.6200	60.7685
 1.6190	60.8147
 1.6180	60.8878
 1.6170	60.9081
 1.6160	60.8639
 1.6150	60.9155
 1.6140	60.8235
 1.6130	60.8658
 1.6120	60.7677
 1.6110	60.8631
 1.6100	60.8053
 1.6090	60.8211
 1.6080	60.8119
 1.6070	60.9408
 1.6060	60.8772
 1.6050	60.8304
 1.6040	60.7854
 1.6030	60.8111
 1.6020	60.7898
 1.6010	60.8354
 1.6000	60.8226
 1.5990	60.8618
 1.5980	60.7588
 1.5970	60.8244
 1.5960	60.8375
 1.5950	60.8769
 1.5940	60.7489
 1.5930	60.8528
 1.5920	60.7591
 1.5910	60.7798
 1.5900	60.7862
 1.5890	60.7799
 1.5880	60.7680
 1.5870	60.8026
 1.5860	60.7834
 1.5850	60.8028
 1.5840	60.7080
 1.5830	60.7707
 1.5820	60.7350
 1.5810	60.7685
 1.5800	60.6668
 1.5790	60.7331
 1.5780	60.6995
 1.5770	60.7098
 1.5760	60.7040
 1.5750	60.6991
 1.5740	60.7011
 1.5730	60.6728
 1.5720	60.6451
 1.5710	60.7174
 1.5700	60.6432
 1.5690	60.6546
 1.5680	60.6298
 1.5670	60.6382
 1.5660	60.5830
 1.5650	60.5812
 1.5640	60.5655
 1.5630	60.5692
 1.5620	60.5950
 1.5610	60.5573
 1.5600	60.5086
 1.5590	60.4696
 1.5580	60.4185
 1.5570	60.4295
 1.5560	60.3989
 1.5550	60.3611
 1.5540	60.3448
 1.5530	60.3081
 1.5520	60.2536
 1.5510	60.2650
 1.5500	60.1793
 1.5490	60.1471
 1.5480	60.0845
 1.5470	60.0447
 1.5460	59.9933
 1.5450	60.0247
 1.5440	59.9192
 1.5430	59.8863
 1.5420	59.8659
 1.5410	59.8739
 1.5400	59.8644
 1.5390	59.8535
 1.5380	59.8146
 1.5370	59.8651
 1.5360	59.8644
 1.5350	59.8400
 1.5340	59.8997
 1.5330	60.0033
 1.5320	60.0383
 1.5310	60.0837
 1.5300	60.1130
 1.5290	60.1411
 1.5280	60.1577
 1.5270	60.2304
 1.5260	60.2454
 1.5250	60.2338
 1.5240	60.2402
 1.5230	60.3057
 1.5220	60.3284
 1.5210	60.3168
 1.5200	60.3793
 1.5190	60.4406
 1.5180	60.4270
 1.5170	60.4669
 1.5160	60.4782
 1.5150	60.5029
 1.5140	60.5611
 1.5130	60.5663
 1.5120	60.5900
 1.5110	60.5893
 1.5100	60.6086
 1.5090	60.6709
 1.5080	60.6779
 1.5070	60.6847
 1.5060	60.6888
 1.5050	60.7103
 1.5040	60.7486
 1.5030	60.7889
 1.5020	60.7910
 1.5010	60.8473
 1.5000	60.8678
 1.4990	60.8146
 1.4980	60.8167
 1.4970	60.8774
 1.4960	60.8829
 1.4950	60.9082
 1.4940	60.9072
 1.4930	60.8603
 1.4920	60.8923
 1.4910	60.9422
 1.4900	60.9436
 1.4890	60.9299
 1.4880	60.9506
 1.4870	60.9608
 1.4860	60.9226
 1.4850	60.9487
 1.4840	60.9638
 1.4830	60.9133
 1.4820	60.9215
 1.4810	60.8837
 1.4800	60.8902
 1.4790	60.9259
 1.4780	60.9276
 1.4770	60.9082
 1.4760	60.9517
 1.4750	60.9368
 1.4740	60.9406
 1.4730	60.9932
 1.4720	61.0247
 1.4710	61.0168
 1.4700	61.0186
 1.4690	61.0180
 1.4680	61.0333
 1.4670	61.0546
 1.4660	61.0686
 1.4650	61.0405
 1.4640	61.0262
 1.4630	61.0319
 1.4620	61.0456
 1.4610	61.0433
 1.4600	61.1005
 1.4590	61.1115
 1.4580	61.1219
 1.4570	61.0953
 1.4560	61.0975
 1.4550	61.0923
 1.4540	61.0580
 1.4530	61.0186
 1.4520	61.0518
 1.4510	61.0087
 1.4500	60.9607
 1.4490	60.8864
 1.4480	60.8673
 1.4470	60.7911
 1.4460	60.8006
 1.4450	60.9051
 1.4440	60.9577
 1.4430	61.0272
 1.4420	61.1289
 1.4410	61.0864
 1.4400	61.1802
 1.4390	61.2130
 1.4380	61.2498
 1.4370	61.1475
 1.4360	61.1724
 1.4350	61.2131
 1.4340	61.3389
 1.4330	61.2769
 1.4320	61.2398
 1.4310	61.2069
 1.4300	61.2968
 1.4290	61.2657
 1.4280	61.2731
 1.4270	61.2586
 1.4260	61.2909
 1.4250	61.2694
 1.4240	61.2675
 1.4230	61.2215
 1.4220	61.1956
 1.4210	61.2306
 1.4200	61.1646
 1.4190	61.0318
 1.4180	61.1129
 1.4170	61.1108
 1.4160	61.1647
 1.4150	61.1653
 1.4140	61.1703
 1.4130	61.2346
 1.4120	61.2956
 1.4110	61.3581
 1.4100	61.3368
 1.4090	61.3589
 1.4080	61.3999
 1.4070	61.3182
 1.4060	61.3780
 1.4050	61.3126
 1.4040	61.3877
 1.4030	61.4215
 1.4020	61.4754
 1.4010	61.4034
 1.4000	61.4061
 1.3990	61.4384
 1.3980	61.5762
 1.3970	61.5160
 1.3960	61.5533
 1.3950	61.4822
 1.3940	61.5854
 1.3930	61.5185
 1.3920	61.5214
 1.3910	61.4995
 1.3900	61.6400
 1.3890	61.4997
 1.3880	61.5602
 1.3870	61.4689
 1.3860	61.5292
 1.3850	61.5845
 1.3840	61.6357
 1.3830	61.5622
 1.3820	61.5705
 1.3810	61.5639
 1.3800	61.5940
 1.3790	61.5639
 1.3780	61.6261
 1.3770	61.5448
 1.3760	61.5677
 1.3750	61.5590
 1.3740	61.4994
 1.3730	61.5870
 1.3720	61.5577
 1.3710	61.5052
 1.3700	61.5701
 1.3690	61.5504
 1.3680	61.5738
 1.3670	61.6418
 1.3660	61.5816
