Name: Corrensite (Mg,Fe)_9(Si,Al)_8O_20(OH)_10._xH_2O
Type: Mineral
Class: Silicate
Subclass: Phyllosilicate
Particle Size: Coarse
Sample No.: PS-10A
Owner: JPL
Wavelength Range: VSWIR
Origin: USA, Washington, Packwood.
Collection Date: N/A
Description: Particle size was 125-500um.Collected by:  Clay Mineral Society Original ASTER Spectral Library name was jpl.perkin.mineral.silicate.phyllosilicate.coarse.ps10a.spectrum.txt
Measurement: Hemispherical reflectance
First Column: X
Second Column: Y
X Units: Wavelength (micrometers)
Y Units:Reflectance (percent)
First X Value:  2.5000
Last X Value:  0.4000
Number of X Values: 2101
Additional Information: mineral.silicate.phyllosilicate.coarse.vswir.ps-10a.jpl.perkin.ancillary.txt

 2.5000	23.5446
 2.4990	23.4912
 2.4980	23.9298
 2.4970	23.6454
 2.4960	23.7055
 2.4950	23.9061
 2.4940	23.8103
 2.4930	23.9035
 2.4920	24.2566
 2.4910	24.0342
 2.4900	24.2715
 2.4890	24.0488
 2.4880	24.0931
 2.4870	24.1459
 2.4860	24.3377
 2.4850	24.1394
 2.4840	24.5346
 2.4830	24.2433
 2.4820	24.5352
 2.4810	24.2651
 2.4800	24.7115
 2.4790	24.5002
 2.4780	24.7447
 2.4770	24.6859
 2.4760	24.7411
 2.4750	24.8422
 2.4740	24.8851
 2.4730	24.9869
 2.4720	25.0964
 2.4710	25.0411
 2.4700	25.3481
 2.4690	25.2254
 2.4680	25.3427
 2.4670	25.2947
 2.4660	25.5944
 2.4650	25.4280
 2.4640	25.7110
 2.4630	25.6213
 2.4620	25.7488
 2.4610	25.7722
 2.4600	25.8522
 2.4590	25.8784
 2.4580	26.1274
 2.4570	26.1161
 2.4560	26.2279
 2.4550	26.2104
 2.4540	26.4027
 2.4530	26.3368
 2.4520	26.4706
 2.4510	26.4874
 2.4500	26.6340
 2.4490	26.5683
 2.4480	26.8282
 2.4470	26.8574
 2.4460	26.9185
 2.4450	26.9206
 2.4440	27.1035
 2.4430	26.9430
 2.4420	27.1625
 2.4410	27.2028
 2.4400	27.3556
 2.4390	27.1914
 2.4380	27.4199
 2.4370	27.4479
 2.4360	27.5890
 2.4350	27.6071
 2.4340	27.6618
 2.4330	27.7210
 2.4320	27.8296
 2.4310	27.8066
 2.4300	27.9364
 2.4290	27.8780
 2.4280	27.9571
 2.4270	27.9442
 2.4260	28.2171
 2.4250	28.2183
 2.4240	28.1576
 2.4230	28.1974
 2.4220	28.2489
 2.4210	28.2894
 2.4200	28.4093
 2.4190	28.4006
 2.4180	28.5203
 2.4170	28.4782
 2.4160	28.6166
 2.4150	28.6252
 2.4140	28.5955
 2.4130	28.5806
 2.4120	28.7147
 2.4110	28.6709
 2.4100	28.7896
 2.4090	28.7028
 2.4080	28.7644
 2.4070	28.7072
 2.4060	28.7994
 2.4050	28.8215
 2.4040	28.8310
 2.4030	28.8512
 2.4020	28.9317
 2.4010	28.9897
 2.4000	29.0345
 2.3990	28.9143
 2.3980	29.0189
 2.3970	29.0827
 2.3960	29.1434
 2.3950	29.1357
 2.3940	29.1619
 2.3930	29.2378
 2.3920	29.2912
 2.3910	29.2489
 2.3900	29.3487
 2.3890	29.3297
 2.3880	29.3579
 2.3870	29.4002
 2.3860	29.4588
 2.3850	29.4132
 2.3840	29.5073
 2.3830	29.4399
 2.3820	29.4789
 2.3810	29.4574
 2.3800	29.5017
 2.3790	29.5036
 2.3780	29.5416
 2.3770	29.5744
 2.3760	29.6126
 2.3750	29.5664
 2.3740	29.5440
 2.3730	29.5249
 2.3720	29.5699
 2.3710	29.5311
 2.3700	29.4459
 2.3690	29.4288
 2.3680	29.4555
 2.3670	29.4913
 2.3660	29.5054
 2.3650	29.4113
 2.3640	29.4246
 2.3630	29.4330
 2.3620	29.3716
 2.3610	29.3550
 2.3600	29.3818
 2.3590	29.3579
 2.3580	29.3684
 2.3570	29.3856
 2.3560	29.3532
 2.3550	29.3332
 2.3540	29.4057
 2.3530	29.4434
 2.3520	29.4655
 2.3510	29.5018
 2.3500	29.4458
 2.3490	29.4707
 2.3480	29.4850
 2.3470	29.5267
 2.3460	29.5595
 2.3450	29.5954
 2.3440	29.6881
 2.3430	29.7256
 2.3420	29.6733
 2.3410	29.7523
 2.3400	29.8061
 2.3390	29.8372
 2.3380	29.9534
 2.3370	30.0157
 2.3360	30.0054
 2.3350	30.0902
 2.3340	30.1230
 2.3330	30.1717
 2.3320	30.2324
 2.3310	30.2826
 2.3300	30.2682
 2.3290	30.3795
 2.3280	30.4183
 2.3270	30.4565
 2.3260	30.4769
 2.3250	30.5607
 2.3240	30.6551
 2.3230	30.7218
 2.3220	30.7170
 2.3210	30.7990
 2.3200	30.8120
 2.3190	30.8281
 2.3180	30.8512
 2.3170	30.9835
 2.3160	30.9598
 2.3150	30.9728
 2.3140	31.0545
 2.3130	31.1264
 2.3120	31.0365
 2.3110	31.0999
 2.3100	31.1190
 2.3090	31.2002
 2.3080	31.2248
 2.3070	31.2778
 2.3060	31.2614
 2.3050	31.2808
 2.3040	31.2967
 2.3030	31.3651
 2.3020	31.4186
 2.3010	31.4344
 2.3000	31.4536
 2.2990	31.5028
 2.2980	31.5544
 2.2970	31.5630
 2.2960	31.5759
 2.2950	31.7101
 2.2940	31.7249
 2.2930	31.7919
 2.2920	31.8351
 2.2910	31.9220
 2.2900	32.0070
 2.2890	32.0917
 2.2880	32.1236
 2.2870	32.2391
 2.2860	32.3313
 2.2850	32.5009
 2.2840	32.5269
 2.2830	32.6326
 2.2820	32.7084
 2.2810	32.8373
 2.2800	33.0102
 2.2790	33.0783
 2.2780	33.1302
 2.2770	33.2734
 2.2760	33.3724
 2.2750	33.5453
 2.2740	33.5543
 2.2730	33.6876
 2.2720	33.7537
 2.2710	33.9382
 2.2700	33.9853
 2.2690	34.1406
 2.2680	34.1053
 2.2670	34.3770
 2.2660	34.2929
 2.2650	34.4466
 2.2640	34.5146
 2.2630	34.6292
 2.2620	34.6156
 2.2610	34.7241
 2.2600	34.8159
 2.2590	34.8725
 2.2580	34.9281
 2.2570	35.0375
 2.2560	35.0822
 2.2550	35.2601
 2.2540	35.3408
 2.2530	35.4819
 2.2520	35.5240
 2.2510	35.6328
 2.2500	35.7054
 2.2490	35.9052
 2.2480	36.0052
 2.2470	36.2479
 2.2460	36.3139
 2.2450	36.6081
 2.2440	36.6463
 2.2430	36.8714
 2.2420	36.9126
 2.2410	37.1403
 2.2400	37.2296
 2.2390	37.5526
 2.2380	37.6933
 2.2370	37.8744
 2.2360	37.9758
 2.2350	38.2299
 2.2340	38.3014
 2.2330	38.5315
 2.2320	38.7438
 2.2310	38.8644
 2.2300	38.9823
 2.2290	39.1327
 2.2280	39.1211
 2.2270	39.4120
 2.2260	39.3908
 2.2250	39.6659
 2.2240	39.6076
 2.2230	39.7942
 2.2220	39.8569
 2.2210	40.0330
 2.2200	40.0189
 2.2190	40.1282
 2.2180	40.1973
 2.2170	40.3427
 2.2160	40.3497
 2.2150	40.3910
 2.2140	40.4622
 2.2130	40.4636
 2.2120	40.5825
 2.2110	40.6056
 2.2100	40.6141
 2.2090	40.7304
 2.2080	40.8622
 2.2070	40.7699
 2.2060	40.8032
 2.2050	40.8432
 2.2040	40.9009
 2.2030	40.9890
 2.2020	40.9638
 2.2010	41.1604
 2.2000	41.0424
 2.1990	41.2168
 2.1980	41.2224
 2.1970	41.2834
 2.1960	41.2535
 2.1950	41.4389
 2.1940	41.5379
 2.1930	41.5979
 2.1920	41.5733
 2.1910	41.7501
 2.1900	41.6709
 2.1890	41.9164
 2.1880	41.8235
 2.1870	42.0841
 2.1860	41.9860
 2.1850	42.1383
 2.1840	42.1943
 2.1830	42.2699
 2.1820	42.3679
 2.1810	42.4140
 2.1800	42.4795
 2.1790	42.5927
 2.1780	42.5939
 2.1770	42.8165
 2.1760	42.7580
 2.1750	42.8285
 2.1740	42.7653
 2.1730	42.9337
 2.1720	43.0242
 2.1710	43.0487
 2.1700	42.9738
 2.1690	43.1710
 2.1680	43.1472
 2.1670	43.2052
 2.1660	43.1931
 2.1650	43.3050
 2.1640	43.2927
 2.1630	43.3925
 2.1620	43.3973
 2.1610	43.4774
 2.1600	43.4015
 2.1590	43.5017
 2.1580	43.5363
 2.1570	43.6364
 2.1560	43.5711
 2.1550	43.7809
 2.1540	43.6251
 2.1530	43.6650
 2.1520	43.6314
 2.1510	43.7133
 2.1500	43.7117
 2.1490	43.7019
 2.1480	43.6807
 2.1470	43.7195
 2.1460	43.6578
 2.1450	43.6892
 2.1440	43.6571
 2.1430	43.7329
 2.1420	43.7039
 2.1410	43.6875
 2.1400	43.7062
 2.1390	43.6636
 2.1380	43.5588
 2.1370	43.6401
 2.1360	43.6389
 2.1350	43.6141
 2.1340	43.6155
 2.1330	43.5669
 2.1320	43.5102
 2.1310	43.5826
 2.1300	43.4726
 2.1290	43.4683
 2.1280	43.4545
 2.1270	43.4460
 2.1260	43.3011
 2.1250	43.3021
 2.1240	43.2725
 2.1230	43.2614
 2.1220	43.1956
 2.1210	43.1891
 2.1200	43.0984
 2.1190	43.1183
 2.1180	43.0578
 2.1170	43.0410
 2.1160	43.0029
 2.1150	42.9147
 2.1140	42.8930
 2.1130	42.8929
 2.1120	42.8033
 2.1110	42.7867
 2.1100	42.7532
 2.1090	42.7565
 2.1080	42.5958
 2.1070	42.6141
 2.1060	42.5723
 2.1050	42.5529
 2.1040	42.5115
 2.1030	42.4213
 2.1020	42.3645
 2.1010	42.4177
 2.1000	42.3395
 2.0990	42.3067
 2.0980	42.2677
 2.0970	42.2569
 2.0960	42.2247
 2.0950	42.2184
 2.0940	42.2078
 2.0930	42.1457
 2.0920	42.0926
 2.0910	42.1135
 2.0900	42.0740
 2.0890	42.0748
 2.0880	42.0193
 2.0870	42.0157
 2.0860	41.9659
 2.0850	41.8824
 2.0840	41.8289
 2.0830	41.8114
 2.0820	41.7499
 2.0810	41.7119
 2.0800	41.6886
 2.0790	41.6330
 2.0780	41.6213
 2.0770	41.5853
 2.0760	41.5281
 2.0750	41.5256
 2.0740	41.4984
 2.0730	41.4328
 2.0720	41.3439
 2.0710	41.2299
 2.0700	41.2283
 2.0690	41.2272
 2.0680	41.1418
 2.0670	41.0444
 2.0660	41.0255
 2.0650	40.9974
 2.0640	40.9248
 2.0630	40.8597
 2.0620	40.8170
 2.0610	40.8041
 2.0600	40.7369
 2.0590	40.6650
 2.0580	40.6072
 2.0570	40.5723
 2.0560	40.5350
 2.0550	40.4264
 2.0540	40.3688
 2.0530	40.2904
 2.0520	40.2150
 2.0510	40.1539
 2.0500	40.0907
 2.0490	39.9870
 2.0480	39.9018
 2.0470	39.9046
 2.0460	39.8906
 2.0450	39.7502
 2.0440	39.7129
 2.0430	39.6413
 2.0420	39.5989
 2.0410	39.5042
 2.0400	39.4316
 2.0390	39.3268
 2.0380	39.2778
 2.0370	39.1526
 2.0360	39.1143
 2.0350	39.0177
 2.0340	38.9716
 2.0330	38.9018
 2.0320	38.8246
 2.0310	38.7353
 2.0300	38.6801
 2.0290	38.5877
 2.0280	38.4663
 2.0270	38.3276
 2.0260	38.2643
 2.0250	38.2006
 2.0240	38.1309
 2.0230	38.0307
 2.0220	37.9081
 2.0210	37.8313
 2.0200	37.8257
 2.0190	37.7057
 2.0180	37.6058
 2.0170	37.5325
 2.0160	37.4392
 2.0150	37.3357
 2.0140	37.2887
 2.0130	37.1734
 2.0120	37.0522
 2.0110	36.9575
 2.0100	36.9094
 2.0090	36.8293
 2.0080	36.7962
 2.0070	36.6452
 2.0060	36.5310
 2.0050	36.4050
 2.0040	36.3778
 2.0030	36.2276
 2.0020	36.1466
 2.0010	36.0566
 2.0000	36.0230
 1.9990	35.8865
 1.9980	35.8879
 1.9970	35.6888
 1.9960	35.6291
 1.9950	35.5092
 1.9940	35.4695
 1.9930	35.3585
 1.9920	35.2750
 1.9910	35.1436
 1.9900	35.0728
 1.9890	34.9213
 1.9880	34.9320
 1.9870	34.7824
 1.9860	34.7298
 1.9850	34.5431
 1.9840	34.6099
 1.9830	34.4132
 1.9820	34.3330
 1.9810	34.1964
 1.9800	34.1511
 1.9790	34.0274
 1.9780	34.0308
 1.9770	33.8353
 1.9760	33.8038
 1.9750	33.7313
 1.9740	33.7186
 1.9730	33.4610
 1.9720	33.5114
 1.9710	33.4286
 1.9700	33.3730
 1.9690	33.2766
 1.9680	33.2548
 1.9670	33.0781
 1.9660	33.0312
 1.9650	32.8880
 1.9640	32.9194
 1.9630	32.7164
 1.9620	32.7747
 1.9610	32.5685
 1.9600	32.5826
 1.9590	32.3917
 1.9580	32.4468
 1.9570	32.2745
 1.9560	32.2351
 1.9550	32.1386
 1.9540	32.0928
 1.9530	31.9654
 1.9520	32.0142
 1.9510	31.8159
 1.9500	31.8368
 1.9490	31.6464
 1.9480	31.5952
 1.9470	31.6430
 1.9460	31.5141
 1.9450	31.3549
 1.9440	31.3197
 1.9430	31.1052
 1.9420	31.1374
 1.9410	30.9605
 1.9400	30.9268
 1.9390	30.8203
 1.9380	30.7107
 1.9370	30.6081
 1.9360	30.4980
 1.9350	30.3354
 1.9340	30.3211
 1.9330	30.1795
 1.9320	30.1044
 1.9310	29.9255
 1.9300	29.9735
 1.9290	29.7843
 1.9280	29.6671
 1.9270	29.5516
 1.9260	29.4503
 1.9250	29.3965
 1.9240	29.2956
 1.9230	29.1898
 1.9220	29.2666
 1.9210	29.0394
 1.9200	29.1402
 1.9190	29.0602
 1.9180	29.1788
 1.9170	29.0768
 1.9160	29.1014
 1.9150	28.9972
 1.9140	29.2418
 1.9130	29.3027
 1.9120	29.5612
 1.9110	29.5035
 1.9100	29.8644
 1.9090	29.9385
 1.9080	30.3334
 1.9070	30.4595
 1.9060	30.9371
 1.9050	31.2062
 1.9040	31.7165
 1.9030	32.0867
 1.9020	32.6937
 1.9010	33.1020
 1.9000	33.6638
 1.8990	34.1361
 1.8980	34.7483
 1.8970	35.1109
 1.8960	35.6821
 1.8950	36.0836
 1.8940	36.6858
 1.8930	37.1284
 1.8920	37.5268
 1.8910	37.9302
 1.8900	38.3803
 1.8890	38.8323
 1.8880	39.2412
 1.8870	39.6005
 1.8860	39.9363
 1.8850	40.2123
 1.8840	40.5978
 1.8830	40.8321
 1.8820	41.1984
 1.8810	41.3562
 1.8800	41.5915
 1.8790	41.8038
 1.8780	42.0363
 1.8770	42.1496
 1.8760	42.4826
 1.8750	42.5813
 1.8740	42.8246
 1.8730	43.0074
 1.8720	43.1885
 1.8710	43.3680
 1.8700	43.6365
 1.8690	43.7377
 1.8680	43.9299
 1.8670	43.9803
 1.8660	44.1158
 1.8650	44.0782
 1.8640	44.1993
 1.8630	44.3286
 1.8620	44.4270
 1.8610	44.4108
 1.8600	44.5366
 1.8590	44.4872
 1.8580	44.5534
 1.8570	44.6710
 1.8560	44.7143
 1.8550	44.6799
 1.8540	44.7601
 1.8530	44.8210
 1.8520	44.8508
 1.8510	44.8266
 1.8500	44.9071
 1.8490	44.9303
 1.8480	44.9776
 1.8470	44.9771
 1.8460	45.0336
 1.8450	44.9804
 1.8440	44.9306
 1.8430	44.9534
 1.8420	45.0291
 1.8410	45.0113
 1.8400	45.0540
 1.8390	45.0660
 1.8380	45.0890
 1.8370	45.0842
 1.8360	45.0946
 1.8350	45.0284
 1.8340	45.0925
 1.8330	45.1428
 1.8320	45.1113
 1.8310	45.0080
 1.8300	44.9929
 1.8290	44.9921
 1.8280	45.0805
 1.8270	45.0278
 1.8260	45.0107
 1.8250	44.9895
 1.8240	45.0176
 1.8230	44.9833
 1.8220	44.9879
 1.8210	44.9825
 1.8200	44.9712
 1.8190	44.9248
 1.8180	44.9110
 1.8170	44.9150
 1.8160	44.9188
 1.8150	44.9124
 1.8140	44.9059
 1.8130	44.8898
 1.8120	44.8909
 1.8110	44.8610
 1.8100	44.8994
 1.8090	44.8555
 1.8080	44.8158
 1.8070	44.7624
 1.8060	44.7528
 1.8050	44.7525
 1.8040	44.7719
 1.8030	44.7707
 1.8020	44.8259
 1.8010	44.7813
 1.8000	44.7034
 1.7990	44.6810
 1.7980	44.7080
 1.7970	44.7143
 1.7960	44.6838
 1.7950	44.5982
 1.7940	44.5711
 1.7930	44.5742
 1.7920	44.5711
 1.7910	44.5970
 1.7900	44.6262
 1.7890	44.5960
 1.7880	44.6088
 1.7870	44.5249
 1.7860	44.4738
 1.7850	44.5592
 1.7840	44.5425
 1.7830	44.4936
 1.7820	44.5241
 1.7810	44.4681
 1.7800	44.3923
 1.7790	44.3722
 1.7780	44.3726
 1.7770	44.3810
 1.7760	44.3622
 1.7750	44.3511
 1.7740	44.3710
 1.7730	44.4045
 1.7720	44.3206
 1.7710	44.2797
 1.7700	44.2981
 1.7690	44.2532
 1.7680	44.2495
 1.7670	44.2371
 1.7660	44.2465
 1.7650	44.2518
 1.7640	44.1968
 1.7630	44.1724
 1.7620	44.1427
 1.7610	44.1674
 1.7600	44.2319
 1.7590	44.2394
 1.7580	44.1554
 1.7570	44.2072
 1.7560	44.2131
 1.7550	44.1674
 1.7540	44.1042
 1.7530	44.1195
 1.7520	44.0808
 1.7510	44.0627
 1.7500	44.0704
 1.7490	44.0993
 1.7480	44.0903
 1.7470	44.0625
 1.7460	44.0111
 1.7450	44.0670
 1.7440	44.0269
 1.7430	44.0417
 1.7420	43.9859
 1.7410	44.0150
 1.7400	43.9616
 1.7390	43.9235
 1.7380	43.8983
 1.7370	43.9255
 1.7360	43.9179
 1.7350	43.8849
 1.7340	43.8131
 1.7330	43.8722
 1.7320	43.8434
 1.7310	43.8222
 1.7300	43.7635
 1.7290	43.8290
 1.7280	43.7589
 1.7270	43.7093
 1.7260	43.7245
 1.7250	43.7519
 1.7240	43.6467
 1.7230	43.6951
 1.7220	43.6848
 1.7210	43.6628
 1.7200	43.5425
 1.7190	43.5694
 1.7180	43.5067
 1.7170	43.5959
 1.7160	43.4972
 1.7150	43.5295
 1.7140	43.4651
 1.7130	43.4750
 1.7120	43.4363
 1.7110	43.4346
 1.7100	43.3032
 1.7090	43.3742
 1.7080	43.2807
 1.7070	43.3250
 1.7060	43.2285
 1.7050	43.3040
 1.7040	43.2378
 1.7030	43.2703
 1.7020	43.0967
 1.7010	43.1069
 1.7000	43.0885
 1.6990	43.1412
 1.6980	43.0201
 1.6970	43.0552
 1.6960	42.9982
 1.6950	43.0188
 1.6940	42.9235
 1.6930	42.9872
 1.6920	42.8806
 1.6910	42.9432
 1.6900	42.8623
 1.6890	42.8683
 1.6880	42.7777
 1.6870	42.8232
 1.6860	42.7402
 1.6850	42.6649
 1.6840	42.6582
 1.6830	42.6251
 1.6820	42.5716
 1.6810	42.6614
 1.6800	42.5018
 1.6790	42.5026
 1.6780	42.4566
 1.6770	42.4534
 1.6760	42.3821
 1.6750	42.3605
 1.6740	42.2257
 1.6730	42.3629
 1.6720	42.2691
 1.6710	42.3076
 1.6700	42.2279
 1.6690	42.2859
 1.6680	42.0488
 1.6670	42.1781
 1.6660	42.1128
 1.6650	42.0888
 1.6640	42.0541
 1.6630	42.0957
 1.6620	41.8502
 1.6610	41.9681
 1.6600	41.8807
 1.6590	41.9623
 1.6580	41.8027
 1.6570	41.8661
 1.6560	41.7332
 1.6550	41.7763
 1.6540	41.7201
 1.6530	41.7346
 1.6520	41.6121
 1.6510	41.6394
 1.6500	41.5179
 1.6490	41.5282
 1.6480	41.4763
 1.6470	41.4705
 1.6460	41.4190
 1.6450	41.5095
 1.6440	41.3929
 1.6430	41.4115
 1.6420	41.3529
 1.6410	41.2180
 1.6400	41.1995
 1.6390	41.2346
 1.6380	41.1499
 1.6370	41.1724
 1.6360	41.0692
 1.6350	41.1130
 1.6340	41.0203
 1.6330	41.0645
 1.6320	40.9496
 1.6310	41.0022
 1.6300	40.8361
 1.6290	40.9660
 1.6280	40.7195
 1.6270	40.7937
 1.6260	40.7551
 1.6250	40.7122
 1.6240	40.6131
 1.6230	40.5989
 1.6220	40.5696
 1.6210	40.6843
 1.6200	40.4675
 1.6190	40.5435
 1.6180	40.3867
 1.6170	40.4666
 1.6160	40.4243
 1.6150	40.3972
 1.6140	40.3025
 1.6130	40.3128
 1.6120	40.1958
 1.6110	40.1997
 1.6100	40.1279
 1.6090	40.1275
 1.6080	40.1012
 1.6070	40.0941
 1.6060	40.0566
 1.6050	40.0964
 1.6040	39.9536
 1.6030	40.0088
 1.6020	39.9076
 1.6010	39.8876
 1.6000	39.8053
 1.5990	39.7761
 1.5980	39.6787
 1.5970	39.7321
 1.5960	39.5914
 1.5950	39.6843
 1.5940	39.5096
 1.5930	39.6323
 1.5920	39.5336
 1.5910	39.4679
 1.5900	39.3563
 1.5890	39.3569
 1.5880	39.3555
 1.5870	39.3369
 1.5860	39.2212
 1.5850	39.1519
 1.5840	39.1238
 1.5830	39.1701
 1.5820	39.1417
 1.5810	39.0790
 1.5800	39.0029
 1.5790	39.0611
 1.5780	38.9646
 1.5770	38.9205
 1.5760	38.7967
 1.5750	38.8065
 1.5740	38.7411
 1.5730	38.7536
 1.5720	38.7400
 1.5710	38.7627
 1.5700	38.5996
 1.5690	38.5751
 1.5680	38.5592
 1.5670	38.5671
 1.5660	38.4999
 1.5650	38.3625
 1.5640	38.3026
 1.5630	38.4046
 1.5620	38.2916
 1.5610	38.2695
 1.5600	38.2676
 1.5590	38.2353
 1.5580	38.1529
 1.5570	38.0896
 1.5560	38.0450
 1.5550	38.0081
 1.5540	37.9816
 1.5530	37.9398
 1.5520	37.8572
 1.5510	37.8718
 1.5500	37.7876
 1.5490	37.7537
 1.5480	37.6653
 1.5470	37.6630
 1.5460	37.6297
 1.5450	37.5631
 1.5440	37.5074
 1.5430	37.4941
 1.5420	37.4280
 1.5410	37.4432
 1.5400	37.4060
 1.5390	37.3542
 1.5380	37.2026
 1.5370	37.1951
 1.5360	37.1812
 1.5350	37.1707
 1.5340	37.1448
 1.5330	37.0951
 1.5320	36.9753
 1.5310	36.9743
 1.5300	36.9361
 1.5290	36.8876
 1.5280	36.7604
 1.5270	36.7652
 1.5260	36.7113
 1.5250	36.6813
 1.5240	36.6634
 1.5230	36.6450
 1.5220	36.5401
 1.5210	36.4971
 1.5200	36.4356
 1.5190	36.3847
 1.5180	36.2949
 1.5170	36.2855
 1.5160	36.2191
 1.5150	36.2239
 1.5140	36.1431
 1.5130	36.0599
 1.5120	36.0555
 1.5110	35.9936
 1.5100	35.8771
 1.5090	35.8746
 1.5080	35.8520
 1.5070	35.7670
 1.5060	35.6993
 1.5050	35.6720
 1.5040	35.6325
 1.5030	35.5799
 1.5020	35.5149
 1.5010	35.4238
 1.5000	35.3917
 1.4990	35.3894
 1.4980	35.3110
 1.4970	35.2368
 1.4960	35.1982
 1.4950	35.1210
 1.4940	35.0757
 1.4930	35.0297
 1.4920	34.9715
 1.4910	34.8837
 1.4900	34.8064
 1.4890	34.7798
 1.4880	34.7424
 1.4870	34.6613
 1.4860	34.5867
 1.4850	34.5250
 1.4840	34.4564
 1.4830	34.3613
 1.4820	34.3454
 1.4810	34.2502
 1.4800	34.1912
 1.4790	34.0963
 1.4780	34.0142
 1.4770	33.9331
 1.4760	33.8829
 1.4750	33.8163
 1.4740	33.7777
 1.4730	33.6861
 1.4720	33.6797
 1.4710	33.5852
 1.4700	33.5193
 1.4690	33.4803
 1.4680	33.4204
 1.4670	33.3019
 1.4660	33.2528
 1.4650	33.1573
 1.4640	33.1251
 1.4630	33.1598
 1.4620	33.0913
 1.4610	32.9124
 1.4600	32.8966
 1.4590	32.8723
 1.4580	32.8036
 1.4570	32.6729
 1.4560	32.6553
 1.4550	32.5681
 1.4540	32.4775
 1.4530	32.4212
 1.4520	32.4017
 1.4510	32.3707
 1.4500	32.2472
 1.4490	32.1690
 1.4480	32.0712
 1.4470	32.0278
 1.4460	32.0370
 1.4450	31.8251
 1.4440	31.8267
 1.4430	31.7393
 1.4420	31.6717
 1.4410	31.5930
 1.4400	31.5916
 1.4390	31.4719
 1.4380	31.4282
 1.4370	31.4040
 1.4360	31.3701
 1.4350	31.2905
 1.4340	31.1934
 1.4330	31.1011
 1.4320	31.1639
 1.4310	31.0790
 1.4300	31.0979
 1.4290	30.9991
 1.4280	30.9979
 1.4270	31.0039
 1.4260	30.9241
 1.4250	30.8193
 1.4240	30.8225
 1.4230	30.7700
 1.4220	30.7335
 1.4210	30.6505
 1.4200	30.6380
 1.4190	30.5498
 1.4180	30.5477
 1.4170	30.3434
 1.4160	30.3987
 1.4150	30.3219
 1.4140	30.2414
 1.4130	30.1163
 1.4120	30.1198
 1.4110	30.1096
 1.4100	30.1817
 1.4090	30.1068
 1.4080	30.2295
 1.4070	30.1375
 1.4060	30.2365
 1.4050	30.1325
 1.4040	30.1451
 1.4030	30.0942
 1.4020	30.2023
 1.4010	30.2810
 1.4000	30.4252
 1.3990	30.4567
 1.3980	30.6255
 1.3970	30.7699
 1.3960	30.9334
 1.3950	30.9750
 1.3940	31.1540
 1.3930	31.2596
 1.3920	31.4106
 1.3910	31.4954
 1.3900	31.6679
 1.3890	31.6859
 1.3880	31.9340
 1.3870	31.8848
 1.3860	32.0336
 1.3850	32.0154
 1.3840	32.1643
 1.3830	32.0371
 1.3820	32.1622
 1.3810	32.0784
 1.3800	32.0676
 1.3790	32.1172
 1.3780	32.1677
 1.3770	32.1442
 1.3760	32.0844
 1.3750	31.9358
 1.3740	31.9827
 1.3730	31.9347
 1.3720	31.9109
 1.3710	31.8155
 1.3700	31.8812
