Name: Epidote Ca_2(Al,Fe^3+)_3O.SiO_4.Si_2O_7.OH
Type: Mineral
Class: Silicate
Subclass: Sorosilicate
Particle Size: Fine
Sample No.: SS-1A
Owner: JPL
Wavelength Range: VSWIR
Origin: Mexico, Baja California Norte, Valle De La Trinidad.
Collection Date: N/A
Description: Particle size was 0-45um. Collected by:  Burminco Original ASTER Spectral Library name was jpl.perkin.mineral.silicate.sorosilicate.fine.ss01a.spectrum.txt
Measurement: Hemispherical reflectance
First Column: X
Second Column: Y
X Units: Wavelength (micrometers)
Y Units:Reflectance (percent)
First X Value:  2.5000
Last X Value:  0.4000
Number of X Values: 2101
Additional Information: mineral.silicate.sorosilicate.fine.vswir.ss-1a.jpl.perkin.ancillary.txt

 2.5000	49.6414
 2.4990	49.1724
 2.4980	49.4272
 2.4970	49.6719
 2.4960	49.2293
 2.4950	49.5246
 2.4940	49.6435
 2.4930	49.4751
 2.4920	49.6951
 2.4910	49.5712
 2.4900	49.7510
 2.4890	49.5929
 2.4880	49.6929
 2.4870	49.6536
 2.4860	49.7048
 2.4850	49.6360
 2.4840	49.7720
 2.4830	49.6496
 2.4820	49.8012
 2.4810	49.6528
 2.4800	49.7842
 2.4790	49.6305
 2.4780	49.8290
 2.4770	49.7448
 2.4760	49.8183
 2.4750	49.6850
 2.4740	49.7763
 2.4730	49.7731
 2.4720	49.8489
 2.4710	49.8456
 2.4700	49.8505
 2.4690	49.8651
 2.4680	49.9920
 2.4670	49.8790
 2.4660	49.9671
 2.4650	49.9055
 2.4640	49.9799
 2.4630	50.0140
 2.4620	50.0638
 2.4610	50.0122
 2.4600	50.0780
 2.4590	50.0710
 2.4580	50.1388
 2.4570	50.0621
 2.4560	50.2576
 2.4550	50.0627
 2.4540	50.2203
 2.4530	50.1231
 2.4520	50.2817
 2.4510	50.2165
 2.4500	50.2016
 2.4490	50.1902
 2.4480	50.3032
 2.4470	50.3298
 2.4460	50.3215
 2.4450	50.3635
 2.4440	50.4109
 2.4430	50.3175
 2.4420	50.4337
 2.4410	50.3546
 2.4400	50.4869
 2.4390	50.4453
 2.4380	50.4911
 2.4370	50.3657
 2.4360	50.4555
 2.4350	50.5727
 2.4340	50.4777
 2.4330	50.4460
 2.4320	50.4807
 2.4310	50.4424
 2.4300	50.5353
 2.4290	50.4912
 2.4280	50.5880
 2.4270	50.4556
 2.4260	50.4445
 2.4250	50.4062
 2.4240	50.5825
 2.4230	50.5488
 2.4220	50.5949
 2.4210	50.5304
 2.4200	50.6181
 2.4190	50.5085
 2.4180	50.5834
 2.4170	50.6052
 2.4160	50.6039
 2.4150	50.5088
 2.4140	50.5484
 2.4130	50.5768
 2.4120	50.5555
 2.4110	50.5255
 2.4100	50.4941
 2.4090	50.4614
 2.4080	50.5098
 2.4070	50.4935
 2.4060	50.5098
 2.4050	50.4619
 2.4040	50.4294
 2.4030	50.4340
 2.4020	50.4611
 2.4010	50.4164
 2.4000	50.4625
 2.3990	50.4059
 2.3980	50.3824
 2.3970	50.4062
 2.3960	50.4066
 2.3950	50.4185
 2.3940	50.3449
 2.3930	50.2994
 2.3920	50.2422
 2.3910	50.2503
 2.3900	50.2452
 2.3890	50.2389
 2.3880	50.2322
 2.3870	50.1531
 2.3860	50.1271
 2.3850	50.0434
 2.3840	49.9936
 2.3830	49.9716
 2.3820	49.9120
 2.3810	49.8594
 2.3800	49.8213
 2.3790	49.7018
 2.3780	49.6308
 2.3770	49.5105
 2.3760	49.4465
 2.3750	49.3657
 2.3740	49.3055
 2.3730	49.1900
 2.3720	49.0364
 2.3710	48.8760
 2.3700	48.6864
 2.3690	48.5130
 2.3680	48.3639
 2.3670	48.1259
 2.3660	47.9413
 2.3650	47.7291
 2.3640	47.3934
 2.3630	47.1043
 2.3620	46.8781
 2.3610	46.5857
 2.3600	46.3256
 2.3590	45.9601
 2.3580	45.5594
 2.3570	45.2268
 2.3560	44.8740
 2.3550	44.5532
 2.3540	44.1907
 2.3530	43.8206
 2.3520	43.4480
 2.3510	43.0598
 2.3500	42.7167
 2.3490	42.4267
 2.3480	42.1037
 2.3470	41.8414
 2.3460	41.5627
 2.3450	41.3022
 2.3440	41.0258
 2.3430	40.7944
 2.3420	40.6436
 2.3410	40.5107
 2.3400	40.3649
 2.3390	40.3455
 2.3380	40.3131
 2.3370	40.2594
 2.3360	40.2302
 2.3350	40.2328
 2.3340	40.3183
 2.3330	40.4107
 2.3320	40.4894
 2.3310	40.6556
 2.3300	40.7808
 2.3290	40.9919
 2.3280	41.1613
 2.3270	41.3631
 2.3260	41.5376
 2.3250	41.7919
 2.3240	42.0052
 2.3230	42.2387
 2.3220	42.4599
 2.3210	42.7292
 2.3200	43.0257
 2.3190	43.3243
 2.3180	43.5707
 2.3170	43.8515
 2.3160	44.0804
 2.3150	44.3922
 2.3140	44.6013
 2.3130	44.8474
 2.3120	45.1184
 2.3110	45.3921
 2.3100	45.5386
 2.3090	45.7727
 2.3080	46.0047
 2.3070	46.2677
 2.3060	46.4570
 2.3050	46.6955
 2.3040	46.8489
 2.3030	47.0106
 2.3020	47.1756
 2.3010	47.3826
 2.3000	47.4806
 2.2990	47.6251
 2.2980	47.7490
 2.2970	47.9318
 2.2960	48.0288
 2.2950	48.1259
 2.2940	48.2279
 2.2930	48.3379
 2.2920	48.4801
 2.2910	48.5836
 2.2900	48.6377
 2.2890	48.7581
 2.2880	48.8495
 2.2870	48.8541
 2.2860	48.9085
 2.2850	49.0465
 2.2840	49.1125
 2.2830	49.1218
 2.2820	49.1748
 2.2810	49.2688
 2.2800	49.2942
 2.2790	49.2844
 2.2780	49.3550
 2.2770	49.3843
 2.2760	49.3913
 2.2750	49.4859
 2.2740	49.4191
 2.2730	49.4135
 2.2720	49.3972
 2.2710	49.4286
 2.2700	49.4093
 2.2690	49.4447
 2.2680	49.3531
 2.2670	49.3102
 2.2660	49.2245
 2.2650	49.1999
 2.2640	49.1789
 2.2630	49.0963
 2.2620	48.9491
 2.2610	48.9197
 2.2600	48.8488
 2.2590	48.8161
 2.2580	48.7127
 2.2570	48.7153
 2.2560	48.6177
 2.2550	48.6441
 2.2540	48.6347
 2.2530	48.7100
 2.2520	48.7043
 2.2510	48.7843
 2.2500	48.7284
 2.2490	48.8388
 2.2480	48.9092
 2.2470	49.0340
 2.2460	49.0806
 2.2450	49.1846
 2.2440	49.3385
 2.2430	49.5314
 2.2420	49.6090
 2.2410	49.7766
 2.2400	49.8676
 2.2390	49.9763
 2.2380	50.0377
 2.2370	50.2489
 2.2360	50.3112
 2.2350	50.4799
 2.2340	50.4114
 2.2330	50.6472
 2.2320	50.6929
 2.2310	50.7678
 2.2300	50.8401
 2.2290	50.8880
 2.2280	50.8916
 2.2270	51.0059
 2.2260	51.0104
 2.2250	51.0853
 2.2240	51.0135
 2.2230	51.1684
 2.2220	51.1635
 2.2210	51.2479
 2.2200	51.2604
 2.2190	51.3300
 2.2180	51.2239
 2.2170	51.3546
 2.2160	51.2863
 2.2150	51.3539
 2.2140	51.4025
 2.2130	51.4548
 2.2120	51.4406
 2.2110	51.4156
 2.2100	51.4265
 2.2090	51.4906
 2.2080	51.4733
 2.2070	51.5663
 2.2060	51.5603
 2.2050	51.6537
 2.2040	51.6389
 2.2030	51.6885
 2.2020	51.6556
 2.2010	51.6024
 2.2000	51.6129
 2.1990	51.7116
 2.1980	51.7556
 2.1970	51.7231
 2.1960	51.6742
 2.1950	51.7315
 2.1940	51.7508
 2.1930	51.8980
 2.1920	51.7838
 2.1910	51.8118
 2.1900	51.8206
 2.1890	51.8370
 2.1880	51.8132
 2.1870	51.9855
 2.1860	51.9908
 2.1850	51.9234
 2.1840	51.8412
 2.1830	51.9731
 2.1820	51.9045
 2.1810	51.9964
 2.1800	51.9378
 2.1790	51.9918
 2.1780	51.9892
 2.1770	52.0572
 2.1760	52.1006
 2.1750	52.0840
 2.1740	52.0226
 2.1730	52.1630
 2.1720	52.1325
 2.1710	52.1750
 2.1700	52.1744
 2.1690	52.1957
 2.1680	52.1680
 2.1670	52.2918
 2.1660	52.2043
 2.1650	52.2842
 2.1640	52.3059
 2.1630	52.3849
 2.1620	52.3289
 2.1610	52.4062
 2.1600	52.3693
 2.1590	52.3983
 2.1580	52.3722
 2.1570	52.4244
 2.1560	52.4462
 2.1550	52.4518
 2.1540	52.4575
 2.1530	52.5510
 2.1520	52.4544
 2.1510	52.5052
 2.1500	52.4253
 2.1490	52.4791
 2.1480	52.4626
 2.1470	52.5263
 2.1460	52.4491
 2.1450	52.4857
 2.1440	52.5153
 2.1430	52.5337
 2.1420	52.4665
 2.1410	52.5476
 2.1400	52.5119
 2.1390	52.5689
 2.1380	52.4680
 2.1370	52.5009
 2.1360	52.4547
 2.1350	52.4959
 2.1340	52.4712
 2.1330	52.5204
 2.1320	52.4955
 2.1310	52.4776
 2.1300	52.3714
 2.1290	52.4029
 2.1280	52.2713
 2.1270	52.3119
 2.1260	52.2664
 2.1250	52.2880
 2.1240	52.2532
 2.1230	52.2560
 2.1220	52.2150
 2.1210	52.2130
 2.1200	52.1834
 2.1190	52.1229
 2.1180	52.0895
 2.1170	52.0956
 2.1160	52.0618
 2.1150	52.0735
 2.1140	51.9960
 2.1130	51.9684
 2.1120	51.9529
 2.1110	51.9639
 2.1100	51.9251
 2.1090	51.9085
 2.1080	51.8324
 2.1070	51.8150
 2.1060	51.7760
 2.1050	51.7986
 2.1040	51.8035
 2.1030	51.7628
 2.1020	51.7148
 2.1010	51.7026
 2.1000	51.6597
 2.0990	51.6676
 2.0980	51.7242
 2.0970	51.7009
 2.0960	51.6568
 2.0950	51.7140
 2.0940	51.7152
 2.0930	51.6695
 2.0920	51.6959
 2.0910	51.7261
 2.0900	51.6936
 2.0890	51.6953
 2.0880	51.7165
 2.0870	51.7418
 2.0860	51.7373
 2.0850	51.7286
 2.0840	51.7580
 2.0830	51.7143
 2.0820	51.7276
 2.0810	51.7851
 2.0800	51.7479
 2.0790	51.8034
 2.0780	51.8159
 2.0770	51.8115
 2.0760	51.8480
 2.0750	51.8478
 2.0740	51.8048
 2.0730	51.7988
 2.0720	51.7947
 2.0710	51.7842
 2.0700	51.8410
 2.0690	51.8586
 2.0680	51.8334
 2.0670	51.7864
 2.0660	51.8168
 2.0650	51.8505
 2.0640	51.8558
 2.0630	51.8612
 2.0620	51.9114
 2.0610	51.8931
 2.0600	51.8476
 2.0590	51.8729
 2.0580	51.8197
 2.0570	51.8387
 2.0560	51.9224
 2.0550	51.9529
 2.0540	51.9526
 2.0530	51.9387
 2.0520	51.9129
 2.0510	51.9312
 2.0500	51.9987
 2.0490	51.9548
 2.0480	51.9952
 2.0470	51.9818
 2.0460	51.9473
 2.0450	51.9252
 2.0440	51.9508
 2.0430	51.9507
 2.0420	51.9632
 2.0410	51.9816
 2.0400	51.9823
 2.0390	51.9698
 2.0380	51.9503
 2.0370	51.8975
 2.0360	51.9278
 2.0350	51.9431
 2.0340	51.9745
 2.0330	51.9563
 2.0320	51.9895
 2.0310	51.9470
 2.0300	51.8895
 2.0290	51.9026
 2.0280	51.9874
 2.0270	51.9503
 2.0260	51.9754
 2.0250	51.9651
 2.0240	51.9533
 2.0230	51.9902
 2.0220	51.9402
 2.0210	51.8778
 2.0200	51.9518
 2.0190	51.9323
 2.0180	51.9419
 2.0170	51.9320
 2.0160	51.8955
 2.0150	51.8596
 2.0140	51.9084
 2.0130	51.9655
 2.0120	51.9331
 2.0110	51.9533
 2.0100	51.9573
 2.0090	51.8914
 2.0080	51.9195
 2.0070	51.9091
 2.0060	51.9448
 2.0050	51.9375
 2.0040	51.9307
 2.0030	51.8881
 2.0020	51.8879
 2.0010	51.8869
 2.0000	51.9729
 1.9990	51.8937
 1.9980	51.8927
 1.9970	51.8351
 1.9960	51.9073
 1.9950	51.8558
 1.9940	51.8943
 1.9930	51.7846
 1.9920	51.8273
 1.9910	51.8190
 1.9900	51.7919
 1.9890	51.7701
 1.9880	51.8113
 1.9870	51.7624
 1.9860	51.8039
 1.9850	51.7257
 1.9840	51.7649
 1.9830	51.7446
 1.9820	51.7995
 1.9810	51.6673
 1.9800	51.6724
 1.9790	51.7241
 1.9780	51.6366
 1.9770	51.6026
 1.9760	51.6732
 1.9750	51.6639
 1.9740	51.6692
 1.9730	51.6637
 1.9720	51.6714
 1.9710	51.6458
 1.9700	51.5421
 1.9690	51.6196
 1.9680	51.6304
 1.9670	51.6471
 1.9660	51.5885
 1.9650	51.4867
 1.9640	51.6111
 1.9630	51.4948
 1.9620	51.5647
 1.9610	51.4820
 1.9600	51.5216
 1.9590	51.4850
 1.9580	51.4911
 1.9570	51.4399
 1.9560	51.4707
 1.9550	51.4486
 1.9540	51.4162
 1.9530	51.3977
 1.9520	51.4621
 1.9510	51.4158
 1.9500	51.4471
 1.9490	51.4389
 1.9480	51.5149
 1.9470	51.4483
 1.9460	51.4349
 1.9450	51.3171
 1.9440	51.4693
 1.9430	51.3995
 1.9420	51.4838
 1.9410	51.3956
 1.9400	51.4044
 1.9390	51.4628
 1.9380	51.5336
 1.9370	51.4451
 1.9360	51.6049
 1.9350	51.4588
 1.9340	51.5151
 1.9330	51.4445
 1.9320	51.4348
 1.9310	51.5133
 1.9300	51.5328
 1.9290	51.5136
 1.9280	51.5647
 1.9270	51.4774
 1.9260	51.5768
 1.9250	51.6128
 1.9240	51.5677
 1.9230	51.4855
 1.9220	51.5237
 1.9210	51.5557
 1.9200	51.5667
 1.9190	51.5459
 1.9180	51.5194
 1.9170	51.4564
 1.9160	51.5406
 1.9150	51.5107
 1.9140	51.5114
 1.9130	51.5301
 1.9120	51.5738
 1.9110	51.5671
 1.9100	51.5865
 1.9090	51.5648
 1.9080	51.5845
 1.9070	51.6140
 1.9060	51.5562
 1.9050	51.5907
 1.9040	51.5985
 1.9030	51.5532
 1.9020	51.6745
 1.9010	51.6877
 1.9000	51.6807
 1.8990	51.7062
 1.8980	51.6809
 1.8970	51.6703
 1.8960	51.7026
 1.8950	51.6099
 1.8940	51.7773
 1.8930	51.7727
 1.8920	51.8071
 1.8910	51.6954
 1.8900	51.6989
 1.8890	51.7299
 1.8880	51.8631
 1.8870	51.7740
 1.8860	51.8188
 1.8850	51.8073
 1.8840	51.7394
 1.8830	51.7581
 1.8820	51.8873
 1.8810	51.8007
 1.8800	51.8519
 1.8790	51.8898
 1.8780	51.9130
 1.8770	51.8395
 1.8760	51.8973
 1.8750	51.8277
 1.8740	51.8822
 1.8730	51.8633
 1.8720	51.9058
 1.8710	51.7577
 1.8700	51.8304
 1.8690	51.8524
 1.8680	51.8587
 1.8670	51.7908
 1.8660	51.8394
 1.8650	51.8594
 1.8640	51.8753
 1.8630	51.9278
 1.8620	51.9532
 1.8610	51.8951
 1.8600	51.9590
 1.8590	51.9108
 1.8580	51.9387
 1.8570	51.8599
 1.8560	51.9433
 1.8550	51.9491
 1.8540	51.9277
 1.8530	51.8906
 1.8520	51.9329
 1.8510	51.8772
 1.8500	51.8587
 1.8490	51.8357
 1.8480	51.8303
 1.8470	51.8258
 1.8460	51.8379
 1.8450	51.8035
 1.8440	51.8620
 1.8430	51.8585
 1.8420	51.7772
 1.8410	51.7601
 1.8400	51.8093
 1.8390	51.7748
 1.8380	51.7960
 1.8370	51.7096
 1.8360	51.6674
 1.8350	51.5914
 1.8340	51.6398
 1.8330	51.6533
 1.8320	51.6726
 1.8310	51.6623
 1.8300	51.6701
 1.8290	51.6444
 1.8280	51.6998
 1.8270	51.6529
 1.8260	51.6645
 1.8250	51.6607
 1.8240	51.6869
 1.8230	51.7102
 1.8220	51.7826
 1.8210	51.6929
 1.8200	51.7444
 1.8190	51.7442
 1.8180	51.7007
 1.8170	51.7497
 1.8160	51.8447
 1.8150	51.8187
 1.8140	51.8339
 1.8130	51.8183
 1.8120	51.8001
 1.8110	51.7848
 1.8100	51.7962
 1.8090	51.7842
 1.8080	51.8424
 1.8070	51.8462
 1.8060	51.8648
 1.8050	51.8415
 1.8040	51.8727
 1.8030	51.8540
 1.8020	51.7628
 1.8010	51.7662
 1.8000	51.8139
 1.7990	51.7904
 1.7980	51.7722
 1.7970	51.7877
 1.7960	51.8268
 1.7950	51.8609
 1.7940	51.8932
 1.7930	51.8362
 1.7920	51.8191
 1.7910	51.8551
 1.7900	51.8508
 1.7890	51.7848
 1.7880	51.8307
 1.7870	51.8610
 1.7860	51.7664
 1.7850	51.7478
 1.7840	51.7474
 1.7830	51.7636
 1.7820	51.7687
 1.7810	51.7888
 1.7800	51.7422
 1.7790	51.6792
 1.7780	51.7190
 1.7770	51.7611
 1.7760	51.7337
 1.7750	51.7235
 1.7740	51.7257
 1.7730	51.7626
 1.7720	51.7575
 1.7710	51.7175
 1.7700	51.7207
 1.7690	51.6914
 1.7680	51.6649
 1.7670	51.7034
 1.7660	51.7225
 1.7650	51.7503
 1.7640	51.7335
 1.7630	51.7137
 1.7620	51.6990
 1.7610	51.7130
 1.7600	51.7036
 1.7590	51.6928
 1.7580	51.6777
 1.7570	51.7485
 1.7560	51.6789
 1.7550	51.6381
 1.7540	51.6682
 1.7530	51.6945
 1.7520	51.6372
 1.7510	51.6722
 1.7500	51.6504
 1.7490	51.6928
 1.7480	51.6508
 1.7470	51.6107
 1.7460	51.6214
 1.7450	51.7120
 1.7440	51.7138
 1.7430	51.6896
 1.7420	51.6746
 1.7410	51.6934
 1.7400	51.6308
 1.7390	51.6734
 1.7380	51.7172
 1.7370	51.6165
 1.7360	51.6366
 1.7350	51.7242
 1.7340	51.6867
 1.7330	51.6690
 1.7320	51.6436
 1.7310	51.6756
 1.7300	51.6558
 1.7290	51.6392
 1.7280	51.6663
 1.7270	51.6695
 1.7260	51.6976
 1.7250	51.7126
 1.7240	51.6717
 1.7230	51.6934
 1.7220	51.6480
 1.7210	51.6156
 1.7200	51.6225
 1.7190	51.5864
 1.7180	51.6646
 1.7170	51.6602
 1.7160	51.6286
 1.7150	51.6402
 1.7140	51.6222
 1.7130	51.6580
 1.7120	51.5895
 1.7110	51.5741
 1.7100	51.5587
 1.7090	51.6038
 1.7080	51.5084
 1.7070	51.5933
 1.7060	51.5288
 1.7050	51.5593
 1.7040	51.5317
 1.7030	51.5169
 1.7020	51.5292
 1.7010	51.6101
 1.7000	51.5198
 1.6990	51.5007
 1.6980	51.5138
 1.6970	51.4821
 1.6960	51.5188
 1.6950	51.5459
 1.6940	51.4728
 1.6930	51.4941
 1.6920	51.4666
 1.6910	51.5035
 1.6900	51.5292
 1.6890	51.5967
 1.6880	51.4560
 1.6870	51.5556
 1.6860	51.4202
 1.6850	51.4895
 1.6840	51.4316
 1.6830	51.5362
 1.6820	51.4461
 1.6810	51.5292
 1.6800	51.4283
 1.6790	51.4956
 1.6780	51.4018
 1.6770	51.4754
 1.6760	51.4116
 1.6750	51.5117
 1.6740	51.4265
 1.6730	51.3774
 1.6720	51.3894
 1.6710	51.4559
 1.6700	51.3857
 1.6690	51.4876
 1.6680	51.3733
 1.6670	51.5050
 1.6660	51.3810
 1.6650	51.4853
 1.6640	51.3270
 1.6630	51.3848
 1.6620	51.3856
 1.6610	51.4298
 1.6600	51.3838
 1.6590	51.4235
 1.6580	51.3411
 1.6570	51.4336
 1.6560	51.3663
 1.6550	51.3845
 1.6540	51.3133
 1.6530	51.4474
 1.6520	51.4285
 1.6510	51.4211
 1.6500	51.3789
 1.6490	51.4523
 1.6480	51.3924
 1.6470	51.3913
 1.6460	51.2844
 1.6450	51.3468
 1.6440	51.3015
 1.6430	51.3992
 1.6420	51.4152
 1.6410	51.3674
 1.6400	51.3925
 1.6390	51.3394
 1.6380	51.2892
 1.6370	51.3867
 1.6360	51.2539
 1.6350	51.3257
 1.6340	51.3254
 1.6330	51.4253
 1.6320	51.3046
 1.6310	51.2583
 1.6300	51.2805
 1.6290	51.3255
 1.6280	51.2608
 1.6270	51.3459
 1.6260	51.2995
 1.6250	51.3304
 1.6240	51.2902
 1.6230	51.2680
 1.6220	51.2879
 1.6210	51.3997
 1.6200	51.3068
 1.6190	51.2555
 1.6180	51.2900
 1.6170	51.3261
 1.6160	51.2454
 1.6150	51.3093
 1.6140	51.2256
 1.6130	51.3318
 1.6120	51.3055
 1.6110	51.3168
 1.6100	51.2571
 1.6090	51.2860
 1.6080	51.2669
 1.6070	51.3112
 1.6060	51.2704
 1.6050	51.3167
 1.6040	51.2521
 1.6030	51.2922
 1.6020	51.2465
 1.6010	51.2886
 1.6000	51.2052
 1.5990	51.2516
 1.5980	51.1485
 1.5970	51.2278
 1.5960	51.2320
 1.5950	51.2587
 1.5940	51.1637
 1.5930	51.2194
 1.5920	51.1065
 1.5910	51.1991
 1.5900	51.1625
 1.5890	51.1185
 1.5880	51.0942
 1.5870	51.1742
 1.5860	51.1231
 1.5850	51.1172
 1.5840	51.0980
 1.5830	51.1240
 1.5820	51.1136
 1.5810	51.0889
 1.5800	51.0496
 1.5790	51.0336
 1.5780	51.0348
 1.5770	51.0416
 1.5760	51.0393
 1.5750	51.0434
 1.5740	50.9813
 1.5730	51.0861
 1.5720	50.9825
 1.5710	51.0342
 1.5700	50.9106
 1.5690	50.9102
 1.5680	50.8435
 1.5670	50.8938
 1.5660	50.8359
 1.5650	50.9689
 1.5640	50.9098
 1.5630	50.8809
 1.5620	50.8659
 1.5610	50.8598
 1.5600	50.8037
 1.5590	50.8156
 1.5580	50.7680
 1.5570	50.7820
 1.5560	50.7524
 1.5550	50.7708
 1.5540	50.7643
 1.5530	50.7644
 1.5520	50.6942
 1.5510	50.7243
 1.5500	50.6746
 1.5490	50.7295
 1.5480	50.7094
 1.5470	50.6968
 1.5460	50.7167
 1.5450	50.7486
 1.5440	50.7234
 1.5430	50.7084
 1.5420	50.7132
 1.5410	50.6785
 1.5400	50.6797
 1.5390	50.7155
 1.5380	50.7547
 1.5370	50.8122
 1.5360	50.7371
 1.5350	50.7844
 1.5340	50.7734
 1.5330	50.7672
 1.5320	50.7894
 1.5310	50.8240
 1.5300	50.8047
 1.5290	50.7970
 1.5280	50.8239
 1.5270	50.8555
 1.5260	50.8652
 1.5250	50.8847
 1.5240	50.8910
 1.5230	50.8958
 1.5220	50.8971
 1.5210	50.9591
 1.5200	50.9598
 1.5190	50.9759
 1.5180	50.9705
 1.5170	50.9745
 1.5160	50.9664
 1.5150	50.9494
 1.5140	50.9536
 1.5130	50.9698
 1.5120	51.0402
 1.5110	51.0325
 1.5100	51.0289
 1.5090	51.0488
 1.5080	51.0465
 1.5070	51.0687
 1.5060	51.0680
 1.5050	51.0502
 1.5040	51.0599
 1.5030	51.1405
 1.5020	51.1509
 1.5010	51.0805
 1.5000	51.0838
 1.4990	51.1197
 1.4980	51.1436
 1.4970	51.1282
 1.4960	51.0851
 1.4950	51.0869
 1.4940	51.1264
 1.4930	51.1437
 1.4920	51.1230
 1.4910	51.1252
 1.4900	51.1328
 1.4890	51.1449
 1.4880	51.1547
 1.4870	51.1426
 1.4860	51.1653
 1.4850	51.1312
 1.4840	51.1036
 1.4830	51.1629
 1.4820	51.1922
 1.4810	51.1737
 1.4800	51.1962
 1.4790	51.1793
 1.4780	51.1591
 1.4770	51.1297
 1.4760	51.1852
 1.4750	51.1802
 1.4740	51.1517
 1.4730	51.1779
 1.4720	51.1831
 1.4710	51.1409
 1.4700	51.1359
 1.4690	51.1263
 1.4680	51.1263
 1.4670	51.1452
 1.4660	51.1360
 1.4650	51.1409
 1.4640	51.1836
 1.4630	51.1598
 1.4620	51.2088
 1.4610	51.2421
 1.4600	51.1924
 1.4590	51.1053
 1.4580	51.1414
 1.4570	51.1308
 1.4560	51.1373
 1.4550	51.1158
 1.4540	51.1474
 1.4530	51.1175
 1.4520	51.1721
 1.4510	51.1523
 1.4500	51.1616
 1.4490	51.1287
 1.4480	51.1063
 1.4470	51.1040
 1.4460	51.1561
 1.4450	51.1290
 1.4440	51.1454
 1.4430	51.1233
 1.4420	51.1522
 1.4410	51.1082
 1.4400	51.1178
 1.4390	51.1218
 1.4380	51.1516
 1.4370	51.0902
 1.4360	51.0899
 1.4350	51.0568
 1.4340	51.0981
 1.4330	51.0634
 1.4320	51.1553
 1.4310	51.0768
 1.4300	51.1194
 1.4290	51.0523
 1.4280	51.0643
 1.4270	51.0572
 1.4260	51.0828
 1.4250	51.0437
 1.4240	51.0676
 1.4230	50.9991
 1.4220	51.0477
 1.4210	50.9986
 1.4200	51.0429
 1.4190	50.9975
 1.4180	51.0463
 1.4170	50.9693
 1.4160	51.0050
 1.4150	50.9837
 1.4140	51.0076
 1.4130	50.9961
 1.4120	50.9865
 1.4110	50.9446
 1.4100	51.0029
 1.4090	50.9751
 1.4080	50.9813
 1.4070	50.9488
 1.4060	50.9971
 1.4050	50.9337
 1.4040	51.0183
 1.4030	50.9864
 1.4020	51.0515
 1.4010	50.9110
 1.4000	50.9741
 1.3990	50.9679
 1.3980	51.0503
 1.3970	51.0561
 1.3960	51.0757
 1.3950	50.9693
 1.3940	51.0040
 1.3930	50.9771
 1.3920	51.0584
 1.3910	51.0688
 1.3900	51.0816
 1.3890	51.1408
 1.3880	51.0866
 1.3870	51.0051
 1.3860	51.1210
 1.3850	51.0851
 1.3840	51.0573
 1.3830	50.9763
 1.3820	51.0770
 1.3810	50.9062
 1.3800	51.0264
 1.3790	50.9053
 1.3780	51.1117
 1.3770	51.0527
 1.3760	51.1427
 1.3750	51.0284
 1.3740	51.0656
 1.3730	50.9070
 1.3720	51.0939
 1.3710	50.9337
 1.3700	51.0234
 1.3690	50.9957
