Name: Rhodochrosite MnCO_3
Type: Mineral
Class: Carbonate
Subclass: None
Particle Size: Fine
Sample No.: C-8A
Owner: JPL
Wavelength Range: VSWIR
Origin: USA, Montana, Silver Bow County, Butte.
Collection Date: N/A
Description: Particle size was 0-45um.Collected by:  Ward's Original ASTER Spectral Library name was jpl.perkin.mineral.carbonate.none.fine.c08a.spectrum.txt
Measurement: Hemispherical reflectance
First Column: X
Second Column: Y
X Units: Wavelength (micrometers)
Y Units:Reflectance (percent)
First X Value:  2.5000
Last X Value:  0.4000
Number of X Values: 2101
Additional Information: mineral.carbonate.none.fine.vswir.c-8a.jpl.perkin.ancillary.txt

 2.5000	64.0861
 2.4990	63.8694
 2.4980	64.1616
 2.4970	64.1586
 2.4960	64.0430
 2.4950	64.1338
 2.4940	64.2648
 2.4930	64.1372
 2.4920	64.3893
 2.4910	64.3656
 2.4900	64.6044
 2.4890	64.5429
 2.4880	64.8423
 2.4870	64.7138
 2.4860	64.9842
 2.4850	65.1801
 2.4840	65.2313
 2.4830	65.4284
 2.4820	65.4928
 2.4810	65.5918
 2.4800	65.6377
 2.4790	65.7214
 2.4780	65.8711
 2.4770	65.9220
 2.4760	66.1438
 2.4750	66.0795
 2.4740	66.3114
 2.4730	66.3622
 2.4720	66.5791
 2.4710	66.5798
 2.4700	66.6143
 2.4690	66.6578
 2.4680	66.9866
 2.4670	66.9252
 2.4660	67.0554
 2.4650	67.1424
 2.4640	67.2230
 2.4630	67.4604
 2.4620	67.4860
 2.4610	67.4854
 2.4600	67.6115
 2.4590	67.6679
 2.4580	67.7517
 2.4570	67.7121
 2.4560	67.7805
 2.4550	67.8724
 2.4540	68.0223
 2.4530	67.9332
 2.4520	68.0896
 2.4510	68.1626
 2.4500	68.1994
 2.4490	68.1532
 2.4480	68.2124
 2.4470	68.2780
 2.4460	68.3336
 2.4450	68.3006
 2.4440	68.4853
 2.4430	68.5161
 2.4420	68.5792
 2.4410	68.5321
 2.4400	68.7052
 2.4390	68.6684
 2.4380	68.6498
 2.4370	68.7043
 2.4360	68.7709
 2.4350	68.7190
 2.4340	68.8439
 2.4330	68.8404
 2.4320	68.9864
 2.4310	68.9661
 2.4300	68.8977
 2.4290	68.9434
 2.4280	68.9617
 2.4270	69.0420
 2.4260	69.0325
 2.4250	69.0937
 2.4240	69.0713
 2.4230	69.1593
 2.4220	69.2474
 2.4210	69.1293
 2.4200	69.1494
 2.4190	69.1971
 2.4180	69.2159
 2.4170	69.2496
 2.4160	69.2355
 2.4150	69.3077
 2.4140	69.3484
 2.4130	69.2643
 2.4120	69.3872
 2.4110	69.5197
 2.4100	69.4867
 2.4090	69.4200
 2.4080	69.4381
 2.4070	69.4780
 2.4060	69.5009
 2.4050	69.4996
 2.4040	69.4523
 2.4030	69.4279
 2.4020	69.4462
 2.4010	69.4735
 2.4000	69.4405
 2.3990	69.4560
 2.3980	69.5071
 2.3970	69.5225
 2.3960	69.4758
 2.3950	69.4979
 2.3940	69.4427
 2.3930	69.3380
 2.3920	69.2926
 2.3910	69.2817
 2.3900	69.2455
 2.3890	69.1678
 2.3880	69.1204
 2.3870	68.9842
 2.3860	68.8966
 2.3850	68.8282
 2.3840	68.7026
 2.3830	68.5781
 2.3820	68.4447
 2.3810	68.3732
 2.3800	68.2893
 2.3790	68.1354
 2.3780	68.0171
 2.3770	67.8244
 2.3760	67.6226
 2.3750	67.5368
 2.3740	67.4469
 2.3730	67.3020
 2.3720	67.2029
 2.3710	67.0988
 2.3700	66.9803
 2.3690	66.9258
 2.3680	66.8943
 2.3670	66.8110
 2.3660	66.7561
 2.3650	66.6181
 2.3640	66.5083
 2.3630	66.5025
 2.3620	66.4799
 2.3610	66.4884
 2.3600	66.4915
 2.3590	66.4743
 2.3580	66.4780
 2.3570	66.5081
 2.3560	66.5276
 2.3550	66.5245
 2.3540	66.5107
 2.3530	66.5452
 2.3520	66.6091
 2.3510	66.6382
 2.3500	66.6877
 2.3490	66.7353
 2.3480	66.7777
 2.3470	66.7994
 2.3460	66.8319
 2.3450	66.8775
 2.3440	66.9061
 2.3430	66.9859
 2.3420	67.0495
 2.3410	67.0559
 2.3400	67.1026
 2.3390	67.1723
 2.3380	67.2098
 2.3370	67.2660
 2.3360	67.2945
 2.3350	67.3094
 2.3340	67.3218
 2.3330	67.3242
 2.3320	67.3690
 2.3310	67.3856
 2.3300	67.4141
 2.3290	67.4057
 2.3280	67.4184
 2.3270	67.4954
 2.3260	67.5207
 2.3250	67.5642
 2.3240	67.6050
 2.3230	67.5990
 2.3220	67.6230
 2.3210	67.6789
 2.3200	67.7050
 2.3190	67.7480
 2.3180	67.7749
 2.3170	67.7790
 2.3160	67.8294
 2.3150	67.8935
 2.3140	67.8651
 2.3130	67.9270
 2.3120	68.0111
 2.3110	68.0024
 2.3100	68.0315
 2.3090	68.0494
 2.3080	68.1226
 2.3070	68.1528
 2.3060	68.1550
 2.3050	68.2425
 2.3040	68.2861
 2.3030	68.3356
 2.3020	68.3905
 2.3010	68.4109
 2.3000	68.4854
 2.2990	68.5380
 2.2980	68.6114
 2.2970	68.6906
 2.2960	68.6529
 2.2950	68.6847
 2.2940	68.7470
 2.2930	68.7981
 2.2920	68.8781
 2.2910	68.9302
 2.2900	68.9318
 2.2890	68.9399
 2.2880	69.0062
 2.2870	69.0815
 2.2860	69.1395
 2.2850	69.1717
 2.2840	69.2174
 2.2830	69.2360
 2.2820	69.2231
 2.2810	69.3195
 2.2800	69.3728
 2.2790	69.3806
 2.2780	69.4213
 2.2770	69.4304
 2.2760	69.4816
 2.2750	69.4925
 2.2740	69.5530
 2.2730	69.6112
 2.2720	69.5859
 2.2710	69.5799
 2.2700	69.6302
 2.2690	69.6827
 2.2680	69.6870
 2.2670	69.6674
 2.2660	69.6967
 2.2650	69.7680
 2.2640	69.7782
 2.2630	69.7509
 2.2620	69.8135
 2.2610	69.8559
 2.2600	69.8700
 2.2590	69.9427
 2.2580	69.8910
 2.2570	69.9395
 2.2560	69.9553
 2.2550	69.9745
 2.2540	69.9868
 2.2530	70.0476
 2.2520	70.0597
 2.2510	70.0231
 2.2500	70.0596
 2.2490	70.0760
 2.2480	70.0725
 2.2470	70.1725
 2.2460	70.1981
 2.2450	70.1649
 2.2440	70.1299
 2.2430	70.2019
 2.2420	70.2222
 2.2410	70.2308
 2.2400	70.2347
 2.2390	70.2152
 2.2380	70.2286
 2.2370	70.2729
 2.2360	70.3015
 2.2350	70.3615
 2.2340	70.2916
 2.2330	70.4263
 2.2320	70.3372
 2.2310	70.3305
 2.2300	70.4203
 2.2290	70.4574
 2.2280	70.5186
 2.2270	70.4842
 2.2260	70.4871
 2.2250	70.5546
 2.2240	70.4768
 2.2230	70.5360
 2.2220	70.4724
 2.2210	70.5684
 2.2200	70.4823
 2.2190	70.6432
 2.2180	70.5275
 2.2170	70.7060
 2.2160	70.6858
 2.2150	70.7320
 2.2140	70.6839
 2.2130	70.7032
 2.2120	70.7510
 2.2110	70.7566
 2.2100	70.7675
 2.2090	70.7398
 2.2080	70.8183
 2.2070	70.8865
 2.2060	70.8524
 2.2050	70.9152
 2.2040	70.9468
 2.2030	70.9608
 2.2020	71.0119
 2.2010	70.9734
 2.2000	71.0233
 2.1990	70.9832
 2.1980	70.9089
 2.1970	71.0139
 2.1960	71.0292
 2.1950	71.1115
 2.1940	71.0328
 2.1930	71.0809
 2.1920	71.0704
 2.1910	71.1373
 2.1900	71.1112
 2.1890	71.1405
 2.1880	71.1269
 2.1870	71.1827
 2.1860	71.1132
 2.1850	71.1343
 2.1840	71.1772
 2.1830	71.1955
 2.1820	71.1472
 2.1810	71.2061
 2.1800	71.2230
 2.1790	71.2077
 2.1780	71.2101
 2.1770	71.3234
 2.1760	71.3018
 2.1750	71.3165
 2.1740	71.3283
 2.1730	71.3006
 2.1720	71.3539
 2.1710	71.3262
 2.1700	71.4186
 2.1690	71.5197
 2.1680	71.4432
 2.1670	71.4218
 2.1660	71.4621
 2.1650	71.5273
 2.1640	71.4695
 2.1630	71.5445
 2.1620	71.4996
 2.1610	71.5849
 2.1600	71.6067
 2.1590	71.6460
 2.1580	71.6479
 2.1570	71.6980
 2.1560	71.7439
 2.1550	71.7301
 2.1540	71.7597
 2.1530	71.8058
 2.1520	71.7721
 2.1510	71.8437
 2.1500	71.9333
 2.1490	71.8875
 2.1480	71.9060
 2.1470	71.9040
 2.1460	71.8839
 2.1450	71.8812
 2.1440	71.8785
 2.1430	71.9461
 2.1420	71.9171
 2.1410	71.9170
 2.1400	71.9166
 2.1390	71.9060
 2.1380	71.8886
 2.1370	71.8916
 2.1360	71.8693
 2.1350	71.8875
 2.1340	71.8627
 2.1330	71.8849
 2.1320	71.8822
 2.1310	71.8525
 2.1300	71.8019
 2.1290	71.7972
 2.1280	71.7713
 2.1270	71.7732
 2.1260	71.7540
 2.1250	71.6885
 2.1240	71.6633
 2.1230	71.6391
 2.1220	71.6403
 2.1210	71.6416
 2.1200	71.6016
 2.1190	71.5607
 2.1180	71.5007
 2.1170	71.4988
 2.1160	71.3875
 2.1150	71.3558
 2.1140	71.4074
 2.1130	71.3360
 2.1120	71.2377
 2.1110	71.1846
 2.1100	71.1645
 2.1090	71.1485
 2.1080	71.1300
 2.1070	71.1208
 2.1060	71.0409
 2.1050	70.9988
 2.1040	70.9493
 2.1030	70.9410
 2.1020	70.9368
 2.1010	70.8808
 2.1000	70.8542
 2.0990	70.9115
 2.0980	70.9014
 2.0970	70.9412
 2.0960	70.9038
 2.0950	70.9178
 2.0940	70.9360
 2.0930	70.9061
 2.0920	70.9367
 2.0910	70.9543
 2.0900	70.9485
 2.0890	71.0079
 2.0880	71.0738
 2.0870	71.0848
 2.0860	71.0481
 2.0850	71.0152
 2.0840	71.0165
 2.0830	71.0803
 2.0820	71.1149
 2.0810	71.0732
 2.0800	71.1003
 2.0790	71.1119
 2.0780	71.0912
 2.0770	71.1465
 2.0760	71.1397
 2.0750	71.0993
 2.0740	71.1252
 2.0730	71.1459
 2.0720	71.1559
 2.0710	71.2009
 2.0700	71.1462
 2.0690	71.1242
 2.0680	71.1648
 2.0670	71.2024
 2.0660	71.2279
 2.0650	71.2335
 2.0640	71.2740
 2.0630	71.2928
 2.0620	71.3067
 2.0610	71.3008
 2.0600	71.2871
 2.0590	71.3092
 2.0580	71.3336
 2.0570	71.3414
 2.0560	71.3735
 2.0550	71.3816
 2.0540	71.4014
 2.0530	71.4009
 2.0520	71.4288
 2.0510	71.4204
 2.0500	71.4142
 2.0490	71.3936
 2.0480	71.4170
 2.0470	71.4276
 2.0460	71.4321
 2.0450	71.4628
 2.0440	71.5153
 2.0430	71.4933
 2.0420	71.4374
 2.0410	71.4276
 2.0400	71.4912
 2.0390	71.4875
 2.0380	71.4461
 2.0370	71.4002
 2.0360	71.4181
 2.0350	71.4715
 2.0340	71.4946
 2.0330	71.4706
 2.0320	71.4374
 2.0310	71.4205
 2.0300	71.4368
 2.0290	71.4233
 2.0280	71.4411
 2.0270	71.4219
 2.0260	71.3945
 2.0250	71.3998
 2.0240	71.3854
 2.0230	71.3849
 2.0220	71.3666
 2.0210	71.3224
 2.0200	71.3356
 2.0190	71.3771
 2.0180	71.3180
 2.0170	71.2740
 2.0160	71.3171
 2.0150	71.3436
 2.0140	71.3092
 2.0130	71.2754
 2.0120	71.2699
 2.0110	71.2450
 2.0100	71.2482
 2.0090	71.2365
 2.0080	71.2939
 2.0070	71.2392
 2.0060	71.2113
 2.0050	71.1936
 2.0040	71.2449
 2.0030	71.2994
 2.0020	71.2948
 2.0010	71.2923
 2.0000	71.3063
 1.9990	71.2771
 1.9980	71.2742
 1.9970	71.2297
 1.9960	71.2938
 1.9950	71.2923
 1.9940	71.3080
 1.9930	71.2638
 1.9920	71.1926
 1.9910	71.2302
 1.9900	71.2765
 1.9890	71.2397
 1.9880	71.2653
 1.9870	71.2377
 1.9860	71.2584
 1.9850	71.2375
 1.9840	71.2983
 1.9830	71.1863
 1.9820	71.1904
 1.9810	71.2109
 1.9800	71.2228
 1.9790	71.1553
 1.9780	71.1569
 1.9770	71.1220
 1.9760	71.1902
 1.9750	71.1305
 1.9740	71.2181
 1.9730	71.1285
 1.9720	71.1901
 1.9710	71.1459
 1.9700	71.1673
 1.9690	71.1207
 1.9680	71.1914
 1.9670	71.1414
 1.9660	71.1827
 1.9650	71.1157
 1.9640	71.0933
 1.9630	71.1035
 1.9620	71.2002
 1.9610	71.1244
 1.9600	71.1726
 1.9590	71.1479
 1.9580	71.1787
 1.9570	71.1914
 1.9560	71.1911
 1.9550	71.1255
 1.9540	71.1334
 1.9530	71.1270
 1.9520	71.1686
 1.9510	71.1322
 1.9500	71.1769
 1.9490	71.1437
 1.9480	71.1741
 1.9470	71.1579
 1.9460	71.1294
 1.9450	71.2258
 1.9440	71.2546
 1.9430	71.1325
 1.9420	71.2384
 1.9410	71.2516
 1.9400	71.1997
 1.9390	71.2274
 1.9380	71.2491
 1.9370	71.2005
 1.9360	71.2080
 1.9350	71.2053
 1.9340	71.1915
 1.9330	71.2613
 1.9320	71.2714
 1.9310	71.2455
 1.9300	71.2159
 1.9290	71.2589
 1.9280	71.2941
 1.9270	71.3295
 1.9260	71.2420
 1.9250	71.3469
 1.9240	71.3503
 1.9230	71.2643
 1.9220	71.3544
 1.9210	71.2929
 1.9200	71.2850
 1.9190	71.3047
 1.9180	71.3811
 1.9170	71.3767
 1.9160	71.3862
 1.9150	71.3590
 1.9140	71.4575
 1.9130	71.4263
 1.9120	71.4575
 1.9110	71.4553
 1.9100	71.4397
 1.9090	71.4719
 1.9080	71.5338
 1.9070	71.4860
 1.9060	71.5059
 1.9050	71.5216
 1.9040	71.5357
 1.9030	71.5102
 1.9020	71.4932
 1.9010	71.5330
 1.9000	71.5276
 1.8990	71.5160
 1.8980	71.4724
 1.8970	71.5142
 1.8960	71.5309
 1.8950	71.4612
 1.8940	71.4887
 1.8930	71.5644
 1.8920	71.4381
 1.8910	71.5522
 1.8900	71.5791
 1.8890	71.5255
 1.8880	71.6149
 1.8870	71.6108
 1.8860	71.6771
 1.8850	71.6762
 1.8840	71.6962
 1.8830	71.7239
 1.8820	71.7200
 1.8810	71.7517
 1.8800	71.7545
 1.8790	71.7871
 1.8780	71.8736
 1.8770	71.8247
 1.8760	71.8529
 1.8750	71.8442
 1.8740	71.8645
 1.8730	71.8973
 1.8720	71.9088
 1.8710	71.8503
 1.8700	71.8551
 1.8690	71.8550
 1.8680	71.9319
 1.8670	71.9088
 1.8660	71.9796
 1.8650	71.9773
 1.8640	71.9916
 1.8630	71.9874
 1.8620	72.0588
 1.8610	71.9860
 1.8600	71.9865
 1.8590	72.0147
 1.8580	72.0103
 1.8570	72.0292
 1.8560	72.0310
 1.8550	72.0455
 1.8540	72.0759
 1.8530	72.0820
 1.8520	72.0868
 1.8510	72.0498
 1.8500	72.0355
 1.8490	72.0518
 1.8480	72.1390
 1.8470	72.1018
 1.8460	72.1080
 1.8450	72.0941
 1.8440	72.1028
 1.8430	72.1033
 1.8420	72.1171
 1.8410	72.1019
 1.8400	72.0939
 1.8390	72.0734
 1.8380	72.0712
 1.8370	72.0917
 1.8360	72.1469
 1.8350	72.1273
 1.8340	72.1087
 1.8330	72.0824
 1.8320	72.1330
 1.8310	72.1325
 1.8300	72.1891
 1.8290	72.1897
 1.8280	72.1402
 1.8270	72.1630
 1.8260	72.1828
 1.8250	72.1673
 1.8240	72.1885
 1.8230	72.1845
 1.8220	72.1958
 1.8210	72.1516
 1.8200	72.1890
 1.8190	72.1956
 1.8180	72.1814
 1.8170	72.1420
 1.8160	72.2090
 1.8150	72.2031
 1.8140	72.1514
 1.8130	72.1678
 1.8120	72.1904
 1.8110	72.1407
 1.8100	72.1607
 1.8090	72.2443
 1.8080	72.2604
 1.8070	72.2645
 1.8060	72.2481
 1.8050	72.2282
 1.8040	72.2375
 1.8030	72.2198
 1.8020	72.2714
 1.8010	72.2566
 1.8000	72.2764
 1.7990	72.2461
 1.7980	72.2409
 1.7970	72.2396
 1.7960	72.2446
 1.7950	72.2353
 1.7940	72.2069
 1.7930	72.1985
 1.7920	72.2712
 1.7910	72.2911
 1.7900	72.2774
 1.7890	72.2439
 1.7880	72.1911
 1.7870	72.2045
 1.7860	72.2229
 1.7850	72.2203
 1.7840	72.2334
 1.7830	72.2782
 1.7820	72.2449
 1.7810	72.1528
 1.7800	72.1403
 1.7790	72.1751
 1.7780	72.2096
 1.7770	72.2412
 1.7760	72.2298
 1.7750	72.2138
 1.7740	72.1935
 1.7730	72.1509
 1.7720	72.1570
 1.7710	72.2032
 1.7700	72.1859
 1.7690	72.1719
 1.7680	72.2019
 1.7670	72.1735
 1.7660	72.1462
 1.7650	72.2006
 1.7640	72.1911
 1.7630	72.1512
 1.7620	72.1954
 1.7610	72.2059
 1.7600	72.2057
 1.7590	72.1813
 1.7580	72.1737
 1.7570	72.1500
 1.7560	72.1208
 1.7550	72.1162
 1.7540	72.1437
 1.7530	72.2215
 1.7520	72.2093
 1.7510	72.1790
 1.7500	72.2401
 1.7490	72.2320
 1.7480	72.1679
 1.7470	72.1872
 1.7460	72.1925
 1.7450	72.2297
 1.7440	72.2337
 1.7430	72.2473
 1.7420	72.2481
 1.7410	72.2803
 1.7400	72.2111
 1.7390	72.2238
 1.7380	72.3343
 1.7370	72.3347
 1.7360	72.2394
 1.7350	72.2933
 1.7340	72.2895
 1.7330	72.2316
 1.7320	72.2004
 1.7310	72.2618
 1.7300	72.3268
 1.7290	72.3614
 1.7280	72.3218
 1.7270	72.2795
 1.7260	72.3251
 1.7250	72.3575
 1.7240	72.3389
 1.7230	72.3219
 1.7220	72.3031
 1.7210	72.2889
 1.7200	72.3594
 1.7190	72.3319
 1.7180	72.3156
 1.7170	72.2620
 1.7160	72.2657
 1.7150	72.3043
 1.7140	72.3323
 1.7130	72.3256
 1.7120	72.3578
 1.7110	72.3605
 1.7100	72.3014
 1.7090	72.3252
 1.7080	72.3314
 1.7070	72.2729
 1.7060	72.2600
 1.7050	72.2500
 1.7040	72.3187
 1.7030	72.3322
 1.7020	72.2840
 1.7010	72.3121
 1.7000	72.3211
 1.6990	72.3131
 1.6980	72.2721
 1.6970	72.2957
 1.6960	72.3196
 1.6950	72.3253
 1.6940	72.3239
 1.6930	72.2840
 1.6920	72.3371
 1.6910	72.3215
 1.6900	72.2232
 1.6890	72.3370
 1.6880	72.2990
 1.6870	72.3469
 1.6860	72.1986
 1.6850	72.2306
 1.6840	72.2501
 1.6830	72.2542
 1.6820	72.3026
 1.6810	72.3176
 1.6800	72.2598
 1.6790	72.2692
 1.6780	72.2630
 1.6770	72.2838
 1.6760	72.2589
 1.6750	72.3243
 1.6740	72.2604
 1.6730	72.3228
 1.6720	72.1988
 1.6710	72.2653
 1.6700	72.3326
 1.6690	72.3231
 1.6680	72.2459
 1.6670	72.3016
 1.6660	72.2969
 1.6650	72.3215
 1.6640	72.2222
 1.6630	72.2411
 1.6620	72.2858
 1.6610	72.3000
 1.6600	72.2462
 1.6590	72.2234
 1.6580	72.2356
 1.6570	72.2798
 1.6560	72.2846
 1.6550	72.2911
 1.6540	72.2533
 1.6530	72.3459
 1.6520	72.3164
 1.6510	72.3076
 1.6500	72.1914
 1.6490	72.2310
 1.6480	72.2731
 1.6470	72.3294
 1.6460	72.3418
 1.6450	72.3255
 1.6440	72.2994
 1.6430	72.2506
 1.6420	72.3684
 1.6410	72.1476
 1.6400	72.2275
 1.6390	72.3223
 1.6380	72.2575
 1.6370	72.2866
 1.6360	72.2562
 1.6350	72.2843
 1.6340	72.2690
 1.6330	72.2863
 1.6320	72.2856
 1.6310	72.2879
 1.6300	72.3530
 1.6290	72.3092
 1.6280	72.2966
 1.6270	72.2811
 1.6260	72.3040
 1.6250	72.3347
 1.6240	72.2921
 1.6230	72.3633
 1.6220	72.2675
 1.6210	72.2873
 1.6200	72.2904
 1.6190	72.3780
 1.6180	72.3201
 1.6170	72.2655
 1.6160	72.2836
 1.6150	72.2982
 1.6140	72.1920
 1.6130	72.2569
 1.6120	72.2551
 1.6110	72.2985
 1.6100	72.2944
 1.6090	72.3504
 1.6080	72.2890
 1.6070	72.3065
 1.6060	72.2765
 1.6050	72.3187
 1.6040	72.3169
 1.6030	72.3093
 1.6020	72.2691
 1.6010	72.3435
 1.6000	72.2803
 1.5990	72.3063
 1.5980	72.2738
 1.5970	72.3644
 1.5960	72.2657
 1.5950	72.2818
 1.5940	72.2855
 1.5930	72.3001
 1.5920	72.2704
 1.5910	72.2678
 1.5900	72.3188
 1.5890	72.2538
 1.5880	72.2515
 1.5870	72.2859
 1.5860	72.2828
 1.5850	72.3204
 1.5840	72.2841
 1.5830	72.3115
 1.5820	72.2074
 1.5810	72.3022
 1.5800	72.2694
 1.5790	72.2959
 1.5780	72.2659
 1.5770	72.2696
 1.5760	72.1922
 1.5750	72.2872
 1.5740	72.3098
 1.5730	72.2595
 1.5720	72.2068
 1.5710	72.2080
 1.5700	72.2173
 1.5690	72.2422
 1.5680	72.2288
 1.5670	72.2742
 1.5660	72.1986
 1.5650	72.2319
 1.5640	72.2919
 1.5630	72.2372
 1.5620	72.2791
 1.5610	72.2785
 1.5600	72.2353
 1.5590	72.2466
 1.5580	72.2488
 1.5570	72.2338
 1.5560	72.1930
 1.5550	72.2618
 1.5540	72.2737
 1.5530	72.2583
 1.5520	72.2259
 1.5510	72.2449
 1.5500	72.1809
 1.5490	72.2124
 1.5480	72.2100
 1.5470	72.2381
 1.5460	72.1982
 1.5450	72.1657
 1.5440	72.1654
 1.5430	72.2039
 1.5420	72.2315
 1.5410	72.2252
 1.5400	72.1995
 1.5390	72.2328
 1.5380	72.2536
 1.5370	72.2449
 1.5360	72.1417
 1.5350	72.1686
 1.5340	72.1612
 1.5330	72.1842
 1.5320	72.1961
 1.5310	72.1547
 1.5300	72.1754
 1.5290	72.1612
 1.5280	72.1623
 1.5270	72.1390
 1.5260	72.1211
 1.5250	72.1825
 1.5240	72.1982
 1.5230	72.1749
 1.5220	72.1518
 1.5210	72.1867
 1.5200	72.1704
 1.5190	72.1141
 1.5180	72.1266
 1.5170	72.1766
 1.5160	72.1575
 1.5150	72.1733
 1.5140	72.1916
 1.5130	72.1264
 1.5120	72.1038
 1.5110	72.1581
 1.5100	72.1615
 1.5090	72.1279
 1.5080	72.1391
 1.5070	72.1372
 1.5060	72.0967
 1.5050	72.1014
 1.5040	72.1409
 1.5030	72.1355
 1.5020	72.1168
 1.5010	72.0832
 1.5000	72.0757
 1.4990	72.1395
 1.4980	72.1492
 1.4970	72.1339
 1.4960	72.0949
 1.4950	72.0995
 1.4940	72.1193
 1.4930	72.0942
 1.4920	72.0751
 1.4910	72.0294
 1.4900	72.0462
 1.4890	72.0354
 1.4880	71.9918
 1.4870	72.0430
 1.4860	72.0354
 1.4850	72.0276
 1.4840	72.0769
 1.4830	72.0603
 1.4820	71.9836
 1.4810	71.9554
 1.4800	72.0483
 1.4790	72.0899
 1.4780	72.0039
 1.4770	71.9674
 1.4760	72.0173
 1.4750	72.0219
 1.4740	72.0307
 1.4730	72.0214
 1.4720	71.9823
 1.4710	72.0073
 1.4700	72.0992
 1.4690	72.0656
 1.4680	72.0145
 1.4670	72.0049
 1.4660	71.9976
 1.4650	72.0021
 1.4640	72.0137
 1.4630	71.9639
 1.4620	72.0231
 1.4610	71.9988
 1.4600	71.9945
 1.4590	72.0146
 1.4580	72.0230
 1.4570	72.0155
 1.4560	71.9947
 1.4550	71.9252
 1.4540	71.9447
 1.4530	71.9581
 1.4520	71.9895
 1.4510	71.9757
 1.4500	71.9783
 1.4490	71.9805
 1.4480	71.9331
 1.4470	71.9769
 1.4460	72.0149
 1.4450	72.0083
 1.4440	71.9923
 1.4430	71.9690
 1.4420	71.9879
 1.4410	71.9265
 1.4400	71.9072
 1.4390	71.9320
 1.4380	71.9331
 1.4370	71.9075
 1.4360	71.9366
 1.4350	71.8689
 1.4340	71.8990
 1.4330	71.9351
 1.4320	71.9094
 1.4310	71.9200
 1.4300	71.9023
 1.4290	71.9270
 1.4280	71.9376
 1.4270	71.9108
 1.4260	71.9022
 1.4250	71.9227
 1.4240	71.8966
 1.4230	71.9757
 1.4220	71.9956
 1.4210	71.9034
 1.4200	71.8788
 1.4190	71.8800
 1.4180	71.8425
 1.4170	71.9045
 1.4160	71.8779
 1.4150	71.8738
 1.4140	71.9160
 1.4130	71.8290
 1.4120	71.8367
 1.4110	71.8650
 1.4100	71.8883
 1.4090	71.8666
 1.4080	71.8787
 1.4070	71.8545
 1.4060	71.9136
 1.4050	71.9200
 1.4040	71.8736
 1.4030	71.8543
 1.4020	71.8778
 1.4010	71.8006
 1.4000	71.7941
 1.3990	71.8758
 1.3980	71.9509
 1.3970	71.9233
 1.3960	71.9848
 1.3950	71.8844
 1.3940	71.9470
 1.3930	71.9078
 1.3920	71.9709
 1.3910	71.8828
 1.3900	71.9338
 1.3890	71.8969
 1.3880	71.9449
 1.3870	71.9412
 1.3860	71.9826
 1.3850	71.9519
 1.3840	71.9206
 1.3830	71.8610
 1.3820	71.8147
 1.3810	71.8534
 1.3800	71.9449
 1.3790	71.9744
 1.3780	71.9095
 1.3770	71.8889
 1.3760	71.8888
 1.3750	71.8133
 1.3740	71.9167
 1.3730	71.8421
 1.3720	71.8919
 1.3710	71.8333
 1.3700	71.8509
 1.3690	71.8148
 1.3680	71.8358
 1.3670	71.8030
 1.3660	71.9339
 1.3650	71.8354
