Name: Brucite Mg(OH)_2
Type: Mineral
Class: Hydroxide
Subclass: None
Particle Size: Coarse
Sample No.: OH-1A
Owner: JPL
Wavelength Range: VSWIR
Origin: USA, Nevada, Nye County, Gabbs.
Collection Date: N/A
Description: Particle size was 125-500um. Collected by:  JPL Original ASTER Spectral Library name was jpl.perkin.mineral.hydroxide.none.coarse.oh01a.spectrum.txt
Measurement: Hemispherical reflectance
First Column: X
Second Column: Y
X Units: Wavelength (micrometers)
Y Units:Reflectance (percent)
First X Value:  2.5000
Last X Value:  0.4000
Number of X Values: 2101
Additional Information: mineral.hydroxide.none.coarse.vswir.oh-1a.jpl.perkin.ancillary.txt

 2.5000	 2.7980
 2.4990	 2.7054
 2.4980	 2.7299
 2.4970	 3.1306
 2.4960	 2.4602
 2.4950	 2.7981
 2.4940	 2.4295
 2.4930	 2.8234
 2.4920	 2.6779
 2.4910	 2.5419
 2.4900	 2.3975
 2.4890	 2.5567
 2.4880	 2.4280
 2.4870	 2.5174
 2.4860	 2.3064
 2.4850	 2.5942
 2.4840	 2.2415
 2.4830	 2.4711
 2.4820	 2.3236
 2.4810	 2.4818
 2.4800	 2.4355
 2.4790	 2.4291
 2.4780	 2.2139
 2.4770	 2.5216
 2.4760	 2.2591
 2.4750	 2.2295
 2.4740	 2.3948
 2.4730	 2.5112
 2.4720	 2.2667
 2.4710	 2.3424
 2.4700	 2.3199
 2.4690	 2.4247
 2.4680	 2.3713
 2.4670	 2.7566
 2.4660	 2.5882
 2.4650	 2.7256
 2.4640	 2.6316
 2.4630	 2.6588
 2.4620	 2.7484
 2.4610	 2.6949
 2.4600	 2.6778
 2.4590	 2.8540
 2.4580	 2.6415
 2.4570	 2.7277
 2.4560	 2.8750
 2.4550	 2.9677
 2.4540	 2.8368
 2.4530	 3.0301
 2.4520	 3.1634
 2.4510	 3.0454
 2.4500	 3.1047
 2.4490	 3.2357
 2.4480	 3.1486
 2.4470	 3.1590
 2.4460	 3.1409
 2.4450	 3.2899
 2.4440	 3.4376
 2.4430	 3.4798
 2.4420	 3.3781
 2.4410	 3.5747
 2.4400	 3.5822
 2.4390	 3.7604
 2.4380	 3.7840
 2.4370	 3.8911
 2.4360	 3.8744
 2.4350	 4.0444
 2.4340	 4.0250
 2.4330	 4.2424
 2.4320	 4.2841
 2.4310	 4.5199
 2.4300	 4.4650
 2.4290	 4.7160
 2.4280	 4.8425
 2.4270	 5.0614
 2.4260	 5.1633
 2.4250	 5.2810
 2.4240	 5.4893
 2.4230	 5.8229
 2.4220	 6.0628
 2.4210	 6.4269
 2.4200	 6.6204
 2.4190	 7.0195
 2.4180	 7.2186
 2.4170	 7.6743
 2.4160	 7.9904
 2.4150	 8.4640
 2.4140	 8.7136
 2.4130	 9.2755
 2.4120	 9.5651
 2.4110	10.0530
 2.4100	10.4793
 2.4090	10.8741
 2.4080	11.3535
 2.4070	11.7617
 2.4060	12.0260
 2.4050	12.5002
 2.4040	12.8130
 2.4030	13.1944
 2.4020	13.4574
 2.4010	13.7761
 2.4000	14.0960
 2.3990	14.3635
 2.3980	14.6036
 2.3970	14.9259
 2.3960	15.0717
 2.3950	15.2946
 2.3940	15.4309
 2.3930	15.6021
 2.3920	15.6385
 2.3910	15.7997
 2.3900	15.9852
 2.3890	16.1783
 2.3880	16.2114
 2.3870	16.2855
 2.3860	16.2670
 2.3850	16.2942
 2.3840	16.3529
 2.3830	16.5245
 2.3820	16.4610
 2.3810	16.4418
 2.3800	16.5276
 2.3790	16.6201
 2.3780	16.6213
 2.3770	16.6568
 2.3760	16.6808
 2.3750	16.6472
 2.3740	16.6518
 2.3730	16.6394
 2.3720	16.5386
 2.3710	16.5245
 2.3700	16.4461
 2.3690	16.3873
 2.3680	16.3602
 2.3670	16.2900
 2.3660	16.2559
 2.3650	16.2565
 2.3640	16.1091
 2.3630	15.9386
 2.3620	15.9073
 2.3610	15.9085
 2.3600	15.7433
 2.3590	15.5795
 2.3580	15.4250
 2.3570	15.2580
 2.3560	15.1001
 2.3550	14.9502
 2.3540	14.7948
 2.3530	14.5504
 2.3520	14.3442
 2.3510	14.1679
 2.3500	13.9283
 2.3490	13.7297
 2.3480	13.4889
 2.3470	13.2276
 2.3460	12.9942
 2.3450	12.6430
 2.3440	12.3069
 2.3430	12.0781
 2.3420	11.8312
 2.3410	11.4939
 2.3400	11.2925
 2.3390	10.9482
 2.3380	10.5864
 2.3370	10.3757
 2.3360	10.1384
 2.3350	 9.8440
 2.3340	 9.5877
 2.3330	 9.3490
 2.3320	 9.1675
 2.3310	 8.8561
 2.3300	 8.6114
 2.3290	 8.4155
 2.3280	 8.3343
 2.3270	 8.1918
 2.3260	 8.0197
 2.3250	 7.8708
 2.3240	 7.8794
 2.3230	 7.7659
 2.3220	 7.6573
 2.3210	 7.5941
 2.3200	 7.6467
 2.3190	 7.5565
 2.3180	 7.5530
 2.3170	 7.5355
 2.3160	 7.6611
 2.3150	 7.6263
 2.3140	 7.6800
 2.3130	 7.6981
 2.3120	 7.8027
 2.3110	 7.8459
 2.3100	 7.9391
 2.3090	 7.9927
 2.3080	 8.1859
 2.3070	 8.2751
 2.3060	 8.4080
 2.3050	 8.4943
 2.3040	 8.6378
 2.3030	 8.7846
 2.3020	 8.9830
 2.3010	 9.1414
 2.3000	 9.3692
 2.2990	 9.4276
 2.2980	 9.5957
 2.2970	 9.7365
 2.2960	 9.9271
 2.2950	10.0974
 2.2940	10.2288
 2.2930	10.3607
 2.2920	10.6127
 2.2910	10.6555
 2.2900	10.8202
 2.2890	10.9673
 2.2880	11.2098
 2.2870	11.2866
 2.2860	11.3989
 2.2850	11.4895
 2.2840	11.6592
 2.2830	11.6638
 2.2820	11.8437
 2.2810	11.8923
 2.2800	12.0708
 2.2790	11.9842
 2.2780	12.1674
 2.2770	12.2415
 2.2760	12.2848
 2.2750	12.2803
 2.2740	12.3963
 2.2730	12.3411
 2.2720	12.4668
 2.2710	12.3737
 2.2700	12.5110
 2.2690	12.4943
 2.2680	12.5694
 2.2670	12.5459
 2.2660	12.5595
 2.2650	12.5390
 2.2640	12.7214
 2.2630	12.5635
 2.2620	12.5969
 2.2610	12.5826
 2.2600	12.6884
 2.2590	12.6040
 2.2580	12.7919
 2.2570	12.6899
 2.2560	12.7915
 2.2550	12.8045
 2.2540	12.8140
 2.2530	12.8358
 2.2520	12.9293
 2.2510	12.8516
 2.2500	13.0763
 2.2490	12.9497
 2.2480	13.1543
 2.2470	13.0477
 2.2460	13.1178
 2.2450	13.1644
 2.2440	13.2850
 2.2430	13.3073
 2.2420	13.4719
 2.2410	13.4254
 2.2400	13.5950
 2.2390	13.5816
 2.2380	13.7360
 2.2370	13.7061
 2.2360	13.9614
 2.2350	13.9503
 2.2340	14.1571
 2.2330	14.1922
 2.2320	14.4476
 2.2310	14.4265
 2.2300	14.5146
 2.2290	14.6337
 2.2280	14.8742
 2.2270	14.8716
 2.2260	14.9663
 2.2250	15.1132
 2.2240	15.3044
 2.2230	15.1747
 2.2220	15.5717
 2.2210	15.6452
 2.2200	15.7968
 2.2190	15.8532
 2.2180	16.1023
 2.2170	16.0726
 2.2160	16.3766
 2.2150	16.4414
 2.2140	16.5898
 2.2130	16.6944
 2.2120	16.8525
 2.2110	16.6596
 2.2100	17.1593
 2.2090	17.0039
 2.2080	17.2398
 2.2070	17.1981
 2.2060	17.5058
 2.2050	17.4292
 2.2040	17.6192
 2.2030	17.6018
 2.2020	17.8817
 2.2010	17.8879
 2.2000	18.1357
 2.1990	18.0865
 2.1980	18.2921
 2.1970	18.4409
 2.1960	18.7110
 2.1950	18.7427
 2.1940	18.9568
 2.1930	19.0846
 2.1920	19.3879
 2.1910	19.5131
 2.1900	19.8437
 2.1890	20.0487
 2.1880	20.3766
 2.1870	20.6555
 2.1860	20.9925
 2.1850	21.1662
 2.1840	21.5751
 2.1830	21.9173
 2.1820	22.1446
 2.1810	22.4558
 2.1800	22.9033
 2.1790	23.1159
 2.1780	23.5778
 2.1770	23.7720
 2.1760	24.2202
 2.1750	24.4297
 2.1740	24.8045
 2.1730	25.0109
 2.1720	25.4554
 2.1710	25.6815
 2.1700	25.9460
 2.1690	26.1937
 2.1680	26.5782
 2.1670	26.6219
 2.1660	26.8406
 2.1650	27.0917
 2.1640	27.3082
 2.1630	27.4092
 2.1620	27.5885
 2.1610	27.6124
 2.1600	27.7578
 2.1590	27.8776
 2.1580	27.9486
 2.1570	28.0856
 2.1560	28.1562
 2.1550	28.0883
 2.1540	28.0847
 2.1530	28.1712
 2.1520	28.1809
 2.1510	28.1179
 2.1500	28.0719
 2.1490	28.0897
 2.1480	28.0533
 2.1470	27.9520
 2.1460	27.9314
 2.1450	27.8697
 2.1440	27.8746
 2.1430	27.6960
 2.1420	27.7214
 2.1410	27.6181
 2.1400	27.5193
 2.1390	27.4268
 2.1380	27.4215
 2.1370	27.2735
 2.1360	27.1823
 2.1350	27.1728
 2.1340	27.1621
 2.1330	27.0918
 2.1320	27.0714
 2.1310	26.9696
 2.1300	27.0124
 2.1290	26.9338
 2.1280	26.8984
 2.1270	26.8662
 2.1260	26.9557
 2.1250	26.8958
 2.1240	26.8635
 2.1230	26.8372
 2.1220	26.8843
 2.1210	26.8872
 2.1200	26.9843
 2.1190	26.9469
 2.1180	26.9890
 2.1170	27.0171
 2.1160	26.9996
 2.1150	26.9856
 2.1140	27.0611
 2.1130	27.0550
 2.1120	27.1423
 2.1110	27.0951
 2.1100	27.1632
 2.1090	27.1983
 2.1080	27.2392
 2.1070	27.2165
 2.1060	27.2130
 2.1050	27.2864
 2.1040	27.3492
 2.1030	27.3170
 2.1020	27.4045
 2.1010	27.4438
 2.1000	27.4365
 2.0990	27.4229
 2.0980	27.5114
 2.0970	27.5350
 2.0960	27.5580
 2.0950	27.5860
 2.0940	27.6241
 2.0930	27.6387
 2.0920	27.7286
 2.0910	27.7268
 2.0900	27.7448
 2.0890	27.7688
 2.0880	27.8055
 2.0870	27.8117
 2.0860	27.8656
 2.0850	27.8375
 2.0840	27.8024
 2.0830	27.9495
 2.0820	27.9221
 2.0810	27.8340
 2.0800	27.9313
 2.0790	27.9803
 2.0780	27.9819
 2.0770	27.9620
 2.0760	28.0171
 2.0750	28.0155
 2.0740	27.9742
 2.0730	28.0005
 2.0720	28.1129
 2.0710	28.1198
 2.0700	28.1465
 2.0690	28.1907
 2.0680	28.1846
 2.0670	28.1998
 2.0660	28.2032
 2.0650	28.2538
 2.0640	28.3238
 2.0630	28.4165
 2.0620	28.4615
 2.0610	28.4958
 2.0600	28.5167
 2.0590	28.5589
 2.0580	28.6323
 2.0570	28.7141
 2.0560	28.7434
 2.0550	28.8474
 2.0540	28.9489
 2.0530	29.0248
 2.0520	29.0853
 2.0510	29.2243
 2.0500	29.3453
 2.0490	29.4157
 2.0480	29.4546
 2.0470	29.6184
 2.0460	29.7041
 2.0450	29.7992
 2.0440	29.8556
 2.0430	30.0305
 2.0420	30.1388
 2.0410	30.2514
 2.0400	30.2743
 2.0390	30.3867
 2.0380	30.4672
 2.0370	30.5351
 2.0360	30.6258
 2.0350	30.8082
 2.0340	30.9082
 2.0330	30.8805
 2.0320	30.8762
 2.0310	31.0082
 2.0300	31.0805
 2.0290	31.2367
 2.0280	31.2473
 2.0270	31.3403
 2.0260	31.3208
 2.0250	31.4184
 2.0240	31.4862
 2.0230	31.6054
 2.0220	31.6740
 2.0210	31.8511
 2.0200	31.8714
 2.0190	32.0323
 2.0180	32.1535
 2.0170	32.3458
 2.0160	32.3702
 2.0150	32.5802
 2.0140	32.7825
 2.0130	32.9616
 2.0120	33.1205
 2.0110	33.3382
 2.0100	33.4760
 2.0090	33.7082
 2.0080	33.8793
 2.0070	34.1005
 2.0060	34.2537
 2.0050	34.5565
 2.0040	34.7123
 2.0030	34.9984
 2.0020	35.2232
 2.0010	35.4099
 2.0000	35.5093
 1.9990	35.8537
 1.9980	36.0095
 1.9970	36.2452
 1.9960	36.3985
 1.9950	36.6873
 1.9940	36.8362
 1.9930	37.1065
 1.9920	37.2790
 1.9910	37.5486
 1.9900	37.6993
 1.9890	37.9386
 1.9880	38.1091
 1.9870	38.3062
 1.9860	38.4743
 1.9850	38.6954
 1.9840	38.8511
 1.9830	39.1315
 1.9820	39.1962
 1.9810	39.4269
 1.9800	39.5184
 1.9790	39.7633
 1.9780	39.8259
 1.9770	39.9785
 1.9760	40.0471
 1.9750	40.1422
 1.9740	40.2642
 1.9730	40.3711
 1.9720	40.4099
 1.9710	40.6330
 1.9700	40.5602
 1.9690	40.6809
 1.9680	40.7774
 1.9670	40.7536
 1.9660	40.8596
 1.9650	40.9933
 1.9640	41.0036
 1.9630	41.1535
 1.9620	41.0907
 1.9610	41.2893
 1.9600	41.2684
 1.9590	41.3172
 1.9580	41.2616
 1.9570	41.3952
 1.9560	41.3594
 1.9550	41.4227
 1.9540	41.4670
 1.9530	41.5075
 1.9520	41.4285
 1.9510	41.6442
 1.9500	41.5731
 1.9490	41.7369
 1.9480	41.7041
 1.9470	41.7578
 1.9460	41.7199
 1.9450	41.7863
 1.9440	41.7706
 1.9430	41.8277
 1.9420	41.8608
 1.9410	41.8894
 1.9400	41.9154
 1.9390	41.9129
 1.9380	41.8759
 1.9370	41.9781
 1.9360	42.0182
 1.9350	41.9377
 1.9340	42.0429
 1.9330	42.0290
 1.9320	42.0328
 1.9310	42.1658
 1.9300	42.2234
 1.9290	42.2851
 1.9280	42.3256
 1.9270	42.3999
 1.9260	42.2127
 1.9250	42.5385
 1.9240	42.5008
 1.9230	42.5720
 1.9220	42.5368
 1.9210	42.7635
 1.9200	42.8212
 1.9190	42.8116
 1.9180	43.0420
 1.9170	43.1785
 1.9160	43.2662
 1.9150	43.4280
 1.9140	43.4345
 1.9130	43.6762
 1.9120	43.8167
 1.9110	44.0230
 1.9100	44.0930
 1.9090	44.5731
 1.9080	44.5057
 1.9070	44.7833
 1.9060	44.8968
 1.9050	45.0945
 1.9040	45.3018
 1.9030	45.5117
 1.9020	45.7964
 1.9010	46.0744
 1.9000	46.1755
 1.8990	46.3175
 1.8980	46.4403
 1.8970	46.6686
 1.8960	46.9059
 1.8950	47.1387
 1.8940	47.2059
 1.8930	47.4485
 1.8920	47.4979
 1.8910	47.7600
 1.8900	47.7179
 1.8890	47.9554
 1.8880	48.0405
 1.8870	48.2142
 1.8860	48.2769
 1.8850	48.4172
 1.8840	48.5055
 1.8830	48.7061
 1.8820	48.7038
 1.8810	48.9672
 1.8800	48.9928
 1.8790	49.1407
 1.8780	49.2145
 1.8770	49.4236
 1.8760	49.6136
 1.8750	49.7800
 1.8740	49.8313
 1.8730	50.0680
 1.8720	50.2219
 1.8710	50.3847
 1.8700	50.5438
 1.8690	50.7494
 1.8680	50.7664
 1.8670	50.9346
 1.8660	51.1115
 1.8650	51.2345
 1.8640	51.3700
 1.8630	51.6045
 1.8620	51.7745
 1.8610	51.8914
 1.8600	52.0118
 1.8590	52.2167
 1.8580	52.3707
 1.8570	52.4839
 1.8560	52.5256
 1.8550	52.7946
 1.8540	52.9284
 1.8530	53.1422
 1.8520	53.2222
 1.8510	53.4549
 1.8500	53.5472
 1.8490	53.6930
 1.8480	53.8311
 1.8470	53.9690
 1.8460	54.0962
 1.8450	54.2344
 1.8440	54.4202
 1.8430	54.6012
 1.8420	54.6453
 1.8410	54.7656
 1.8400	54.9147
 1.8390	55.1044
 1.8380	55.2565
 1.8370	55.3808
 1.8360	55.4703
 1.8350	55.6354
 1.8340	55.7443
 1.8330	55.8632
 1.8320	55.9917
 1.8310	56.0967
 1.8300	56.2638
 1.8290	56.4119
 1.8280	56.5313
 1.8270	56.6519
 1.8260	56.7325
 1.8250	56.9202
 1.8240	56.9779
 1.8230	57.0985
 1.8220	57.1964
 1.8210	57.3800
 1.8200	57.5690
 1.8190	57.7015
 1.8180	57.8139
 1.8170	58.0555
 1.8160	58.1972
 1.8150	58.3269
 1.8140	58.4774
 1.8130	58.6051
 1.8120	58.7452
 1.8110	58.9049
 1.8100	59.0177
 1.8090	59.2648
 1.8080	59.3527
 1.8070	59.3727
 1.8060	59.5119
 1.8050	59.7012
 1.8040	59.8575
 1.8030	59.9726
 1.8020	60.1411
 1.8010	60.2370
 1.8000	60.2671
 1.7990	60.4620
 1.7980	60.5574
 1.7970	60.5425
 1.7960	60.6407
 1.7950	60.7584
 1.7940	60.8390
 1.7930	60.9828
 1.7920	61.0241
 1.7910	61.0781
 1.7900	61.1703
 1.7890	61.2316
 1.7880	61.3394
 1.7870	61.3920
 1.7860	61.5347
 1.7850	61.6091
 1.7840	61.6604
 1.7830	61.7180
 1.7820	61.7881
 1.7810	61.9639
 1.7800	62.0016
 1.7790	62.0774
 1.7780	62.1702
 1.7770	62.2382
 1.7760	62.3512
 1.7750	62.3601
 1.7740	62.4111
 1.7730	62.5373
 1.7720	62.6734
 1.7710	62.7951
 1.7700	62.8900
 1.7690	62.9389
 1.7680	63.0668
 1.7670	63.1579
 1.7660	63.1933
 1.7650	63.3284
 1.7640	63.4764
 1.7630	63.5208
 1.7620	63.5541
 1.7610	63.5622
 1.7600	63.7096
 1.7590	63.8396
 1.7580	63.9248
 1.7570	63.9580
 1.7560	64.0233
 1.7550	64.1224
 1.7540	64.2609
 1.7530	64.3140
 1.7520	64.3850
 1.7510	64.5169
 1.7500	64.6115
 1.7490	64.6378
 1.7480	64.8376
 1.7470	64.9635
 1.7460	65.0407
 1.7450	65.1712
 1.7440	65.1608
 1.7430	65.2411
 1.7420	65.3712
 1.7410	65.4679
 1.7400	65.4912
 1.7390	65.5757
 1.7380	65.7613
 1.7370	65.8279
 1.7360	65.8731
 1.7350	65.9856
 1.7340	66.1079
 1.7330	66.1446
 1.7320	66.3002
 1.7310	66.3877
 1.7300	66.4555
 1.7290	66.5153
 1.7280	66.6663
 1.7270	66.7886
 1.7260	66.9154
 1.7250	66.9603
 1.7240	67.0727
 1.7230	67.1460
 1.7220	67.3040
 1.7210	67.2700
 1.7200	67.4289
 1.7190	67.5189
 1.7180	67.5977
 1.7170	67.7206
 1.7160	67.7930
 1.7150	67.8700
 1.7140	67.9470
 1.7130	68.1496
 1.7120	68.1504
 1.7110	68.2130
 1.7100	68.3539
 1.7090	68.3881
 1.7080	68.5014
 1.7070	68.5648
 1.7060	68.7289
 1.7050	68.9561
 1.7040	69.0037
 1.7030	69.0662
 1.7020	69.1643
 1.7010	69.2042
 1.7000	69.3723
 1.6990	69.4008
 1.6980	69.4943
 1.6970	69.6718
 1.6960	69.7453
 1.6950	69.9421
 1.6940	70.0162
 1.6930	70.0972
 1.6920	70.1234
 1.6910	70.2756
 1.6900	70.2790
 1.6890	70.4146
 1.6880	70.6170
 1.6870	70.6403
 1.6860	70.7228
 1.6850	70.8140
 1.6840	70.8861
 1.6830	70.9119
 1.6820	71.0694
 1.6810	71.0923
 1.6800	71.2461
 1.6790	71.2793
 1.6780	71.4369
 1.6770	71.4587
 1.6760	71.6013
 1.6750	71.6666
 1.6740	71.8776
 1.6730	71.7969
 1.6720	71.9553
 1.6710	72.0702
 1.6700	72.1407
 1.6690	72.1320
 1.6680	72.2142
 1.6670	72.3694
 1.6660	72.3730
 1.6650	72.5088
 1.6640	72.5807
 1.6630	72.6507
 1.6620	72.7753
 1.6610	72.7951
 1.6600	72.9183
 1.6590	72.9347
 1.6580	73.0708
 1.6570	72.9707
 1.6560	73.1585
 1.6550	73.2459
 1.6540	73.3419
 1.6530	73.2805
 1.6520	73.4782
 1.6510	73.4448
 1.6500	73.6057
 1.6490	73.6909
 1.6480	73.6558
 1.6470	73.8045
 1.6460	73.8316
 1.6450	73.8756
 1.6440	73.9280
 1.6430	74.0400
 1.6420	74.0763
 1.6410	74.1446
 1.6400	74.2007
 1.6390	74.2021
 1.6380	74.3992
 1.6370	74.4368
 1.6360	74.5461
 1.6350	74.4718
 1.6340	74.6198
 1.6330	74.7845
 1.6320	74.7763
 1.6310	74.7635
 1.6300	74.9866
 1.6290	74.9480
 1.6280	75.0667
 1.6270	75.1452
 1.6260	75.1724
 1.6250	75.3477
 1.6240	75.3014
 1.6230	75.3333
 1.6220	75.5259
 1.6210	75.5699
 1.6200	75.5641
 1.6190	75.6700
 1.6180	75.7711
 1.6170	75.8385
 1.6160	75.9395
 1.6150	76.0209
 1.6140	76.0636
 1.6130	76.0895
 1.6120	76.0745
 1.6110	76.1494
 1.6100	76.1688
 1.6090	76.2842
 1.6080	76.3657
 1.6070	76.2434
 1.6060	76.5400
 1.6050	76.5622
 1.6040	76.5529
 1.6030	76.7171
 1.6020	76.7193
 1.6010	76.7259
 1.6000	76.7963
 1.5990	76.7049
 1.5980	76.8591
 1.5970	76.8833
 1.5960	77.0204
 1.5950	77.0125
 1.5940	77.0634
 1.5930	77.1293
 1.5920	77.1219
 1.5910	77.1409
 1.5900	77.2606
 1.5890	77.2535
 1.5880	77.2918
 1.5870	77.3201
 1.5860	77.4218
 1.5850	77.3673
 1.5840	77.4487
 1.5830	77.5199
 1.5820	77.5638
 1.5810	77.6887
 1.5800	77.6865
 1.5790	77.6768
 1.5780	77.7233
 1.5770	77.6815
 1.5760	77.6820
 1.5750	77.7160
 1.5740	77.7530
 1.5730	77.7143
 1.5720	77.6442
 1.5710	77.3157
 1.5700	77.8361
 1.5690	77.8819
 1.5680	77.9102
 1.5670	77.9187
 1.5660	77.9648
 1.5650	78.0977
 1.5640	78.0470
 1.5630	78.0702
 1.5620	78.0886
 1.5610	78.0574
 1.5600	78.1288
 1.5590	78.1741
 1.5580	78.1096
 1.5570	78.2038
 1.5560	78.2541
 1.5550	78.2436
 1.5540	78.2940
 1.5530	78.3492
 1.5520	78.2249
 1.5510	78.1980
 1.5500	78.2994
 1.5490	78.3417
 1.5480	78.2880
 1.5470	78.2402
 1.5460	78.2743
 1.5450	78.3164
 1.5440	78.2496
 1.5430	78.2048
 1.5420	78.2147
 1.5410	78.2014
 1.5400	78.1827
 1.5390	78.1494
 1.5380	78.1830
 1.5370	78.2607
 1.5360	78.2835
 1.5350	78.2761
 1.5340	78.2190
 1.5330	78.2206
 1.5320	78.2804
 1.5310	78.2857
 1.5300	78.3086
 1.5290	78.3402
 1.5280	78.4042
 1.5270	78.3950
 1.5260	78.4826
 1.5250	78.4672
 1.5240	78.4027
 1.5230	78.4683
 1.5220	78.5269
 1.5210	78.5019
 1.5200	78.5313
 1.5190	78.6125
 1.5180	78.5601
 1.5170	78.5021
 1.5160	78.5266
 1.5150	78.4138
 1.5140	78.3888
 1.5130	78.4027
 1.5120	78.3058
 1.5110	78.2917
 1.5100	78.3149
 1.5090	78.2657
 1.5080	78.2396
 1.5070	78.2321
 1.5060	78.2355
 1.5050	78.2011
 1.5040	78.0710
 1.5030	77.9758
 1.5020	77.9169
 1.5010	77.8770
 1.5000	77.7395
 1.4990	77.5558
 1.4980	77.3811
 1.4970	77.1599
 1.4960	76.9819
 1.4950	76.7541
 1.4940	76.5973
 1.4930	76.3807
 1.4920	76.1084
 1.4910	75.9930
 1.4900	75.9696
 1.4890	75.9065
 1.4880	75.8704
 1.4870	75.8010
 1.4860	75.7844
 1.4850	75.7978
 1.4840	75.6759
 1.4830	75.5274
 1.4820	75.3966
 1.4810	75.3204
 1.4800	75.2094
 1.4790	75.1224
 1.4780	75.1054
 1.4770	75.1808
 1.4760	75.2330
 1.4750	75.3618
 1.4740	75.4653
 1.4730	75.4786
 1.4720	75.4942
 1.4710	75.5370
 1.4700	75.5996
 1.4690	75.6723
 1.4680	75.6814
 1.4670	75.6418
 1.4660	75.6018
 1.4650	75.6348
 1.4640	75.6044
 1.4630	75.5009
 1.4620	75.2521
 1.4610	74.9882
 1.4600	74.6617
 1.4590	74.3916
 1.4580	74.1366
 1.4570	74.0872
 1.4560	74.0050
 1.4550	73.9484
 1.4540	73.8947
 1.4530	73.8478
 1.4520	73.7148
 1.4510	73.5632
 1.4500	73.3301
 1.4490	73.0335
 1.4480	72.6897
 1.4470	72.3705
 1.4460	71.9436
 1.4450	71.5166
 1.4440	71.0425
 1.4430	70.6580
 1.4420	70.1207
 1.4410	69.6232
 1.4400	69.1193
 1.4390	68.7484
 1.4380	68.4872
 1.4370	68.3581
 1.4360	68.3639
 1.4350	68.5296
 1.4340	68.7501
 1.4330	68.9234
 1.4320	68.9996
 1.4310	69.0437
 1.4300	68.9178
 1.4290	68.7841
 1.4280	68.4389
 1.4270	68.0866
 1.4260	67.6186
 1.4250	67.1266
 1.4240	66.4087
 1.4230	65.7283
 1.4220	65.0149
 1.4210	64.0831
 1.4200	63.1223
 1.4190	62.2570
 1.4180	61.5713
 1.4170	61.1875
 1.4160	60.8594
 1.4150	60.5304
 1.4140	59.9569
 1.4130	59.0233
 1.4120	57.6665
 1.4110	55.9847
 1.4100	53.7488
 1.4090	51.2325
 1.4080	48.1882
 1.4070	44.6277
 1.4060	40.6994
 1.4050	36.4810
 1.4040	32.4165
 1.4030	28.3365
 1.4020	23.8967
 1.4010	19.2581
 1.4000	14.9416
 1.3990	12.6140
 1.3980	11.9826
 1.3970	13.7561
 1.3960	17.0501
 1.3950	21.9106
 1.3940	26.8502
 1.3930	31.6549
 1.3920	35.6494
 1.3910	39.1722
 1.3900	41.5814
 1.3890	43.3251
 1.3880	44.6053
 1.3870	45.7681
 1.3860	46.7788
 1.3850	47.6988
 1.3840	48.2889
 1.3830	48.6431
 1.3820	48.9820
 1.3810	49.7730
 1.3800	50.6465
 1.3790	52.2268
 1.3780	53.9403
 1.3770	56.1148
 1.3760	57.9703
 1.3750	59.6713
 1.3740	60.8514
 1.3730	61.7264
 1.3720	62.3580
 1.3710	62.5288
 1.3700	62.0743
 1.3690	60.9337
 1.3680	58.4891
 1.3670	54.5063
 1.3660	49.5757
 1.3650	44.3736
