Name: Strontianite SrCO_3
Type: Mineral
Class: Carbonate
Subclass: None
Particle Size: Coarse
Sample No.: C-1A
Owner: JPL
Wavelength Range: VSWIR
Origin: Germany, Westphalia, Hamm
Collection Date: N/A
Description: Particle size was 125-500um.Collected by Ward's Original ASTER Spectral Library name was jpl.beckman.mineral.carbonate.none.coarse.c01.spectrum.txt
Measurement: Hemispherical reflectance
First Column: X
Second Column: Y
X Units: Wavelength (micrometers)
Y Units:Reflectance (percent)
First X Value:  0.4000
Last X Value:  2.5000
Number of X Values: 826
Additional Information: mineral.carbonate.none.coarse.vswir.c-1a.jpl.beckman.ancillary.txt

 0.4000	60.9800
 0.4010	61.4400
 0.4020	61.7800
 0.4030	61.7200
 0.4040	61.7800
 0.4050	61.7800
 0.4060	62.1300
 0.4070	62.6500
 0.4080	62.7600
 0.4090	62.6500
 0.4100	62.7100
 0.4110	62.8800
 0.4120	63.2800
 0.4130	63.3900
 0.4140	63.5700
 0.4150	63.5100
 0.4160	63.6800
 0.4170	64.0300
 0.4180	64.2000
 0.4190	64.0300
 0.4200	63.9700
 0.4210	64.2600
 0.4220	64.4900
 0.4230	64.8300
 0.4240	64.6600
 0.4250	64.6600
 0.4260	64.8300
 0.4270	64.8900
 0.4280	65.4700
 0.4290	65.4100
 0.4300	65.2900
 0.4310	65.1800
 0.4320	65.5300
 0.4330	65.8200
 0.4340	65.9300
 0.4350	65.9800
 0.4360	65.9300
 0.4370	66.0400
 0.4380	66.2700
 0.4390	66.3800
 0.4400	66.3800
 0.4410	66.3800
 0.4420	66.3800
 0.4430	66.6200
 0.4440	67.0800
 0.4450	67.2500
 0.4460	67.0800
 0.4470	66.9600
 0.4480	67.1400
 0.4490	67.4200
 0.4500	67.8800
 0.4510	67.8800
 0.4520	67.7700
 0.4530	67.7200
 0.4540	67.9500
 0.4550	68.1800
 0.4560	68.1200
 0.4570	68.0600
 0.4580	68.1200
 0.4590	68.4700
 0.4600	68.4100
 0.4610	68.6400
 0.4620	68.4700
 0.4630	68.3100
 0.4640	68.6000
 0.4650	68.8300
 0.4660	68.8300
 0.4670	68.7100
 0.4680	68.6500
 0.4690	68.8900
 0.4700	69.2300
 0.4710	69.5200
 0.4720	69.2900
 0.4730	69.1900
 0.4740	69.2400
 0.4750	69.5300
 0.4760	69.7000
 0.4770	69.7600
 0.4780	69.6500
 0.4790	69.5900
 0.4800	69.7100
 0.4810	70.1100
 0.4820	70.1100
 0.4830	69.8900
 0.4840	69.8900
 0.4850	70.1200
 0.4860	70.4600
 0.4870	70.5200
 0.4880	70.4100
 0.4890	70.3000
 0.4900	70.5300
 0.4910	70.8800
 0.4920	70.8200
 0.4930	70.8300
 0.4940	70.7100
 0.4950	70.5400
 0.4960	71.1100
 0.4970	71.2800
 0.4980	71.2900
 0.4990	71.2300
 0.5000	71.0000
 0.5010	71.2900
 0.5020	71.4100
 0.5030	71.4700
 0.5040	71.4700
 0.5050	71.3500
 0.5060	71.5200
 0.5070	71.6400
 0.5080	71.7600
 0.5090	71.7600
 0.5100	71.5200
 0.5110	71.9300
 0.5120	72.0400
 0.5130	72.0400
 0.5140	71.9300
 0.5150	71.6400
 0.5160	71.9900
 0.5170	72.2100
 0.5180	72.2700
 0.5190	72.1500
 0.5200	72.0900
 0.5210	72.2700
 0.5220	72.6700
 0.5230	72.5600
 0.5240	72.3800
 0.5250	72.3200
 0.5260	72.6700
 0.5270	72.7900
 0.5280	73.0200
 0.5290	72.9600
 0.5300	72.7300
 0.5310	72.7900
 0.5320	72.8500
 0.5330	73.1400
 0.5340	73.2500
 0.5350	73.1900
 0.5360	73.0200
 0.5370	73.3100
 0.5380	73.5400
 0.5390	73.4800
 0.5400	73.5400
 0.5410	73.4800
 0.5420	73.6000
 0.5430	73.7100
 0.5440	73.6600
 0.5450	73.6600
 0.5460	73.4800
 0.5470	73.6000
 0.5480	73.7600
 0.5490	73.8200
 0.5500	73.7100
 0.5510	73.4300
 0.5520	73.4800
 0.5530	73.6600
 0.5540	73.8200
 0.5550	73.7600
 0.5560	73.5400
 0.5570	73.7100
 0.5580	73.6600
 0.5590	73.8800
 0.5600	73.9400
 0.5610	74.1700
 0.5620	74.2800
 0.5630	74.2300
 0.5640	74.2300
 0.5650	74.2300
 0.5660	74.5200
 0.5670	74.7500
 0.5680	74.7500
 0.5690	74.8100
 0.5700	74.4000
 0.5710	74.4600
 0.5720	74.6300
 0.5730	74.6300
 0.5740	74.6900
 0.5750	74.4600
 0.5760	74.6900
 0.5770	74.9200
 0.5780	74.6300
 0.5790	74.4600
 0.5800	74.4600
 0.5810	74.6300
 0.5820	74.8100
 0.5830	74.7500
 0.5840	74.6900
 0.5850	74.2800
 0.5860	74.5700
 0.5870	74.8600
 0.5880	74.8600
 0.5890	74.7500
 0.5900	74.4600
 0.5910	74.8600
 0.5920	75.1000
 0.5930	75.0400
 0.5940	74.9800
 0.5950	74.5700
 0.5960	74.8100
 0.5970	74.9800
 0.5980	74.9800
 0.5990	75.1500
 0.6000	75.0400
 0.6010	75.2700
 0.6020	75.4900
 0.6030	75.7200
 0.6040	75.8400
 0.6050	75.4300
 0.6060	75.6600
 0.6070	75.8400
 0.6080	75.9000
 0.6090	75.9000
 0.6100	75.6600
 0.6110	75.5500
 0.6120	75.9000
 0.6130	76.0700
 0.6140	76.1900
 0.6150	76.0700
 0.6160	76.1300
 0.6170	76.0700
 0.6180	76.1300
 0.6190	75.9500
 0.6200	76.0100
 0.6210	76.0100
 0.6220	76.3600
 0.6230	76.4200
 0.6240	76.4200
 0.6250	76.2400
 0.6260	76.1900
 0.6270	76.2400
 0.6280	76.4200
 0.6290	76.5900
 0.6300	76.3600
 0.6310	76.2400
 0.6320	76.3600
 0.6330	76.5900
 0.6340	76.4200
 0.6350	76.1300
 0.6360	76.3600
 0.6370	76.3000
 0.6380	76.5900
 0.6390	76.5900
 0.6400	76.3600
 0.6410	76.3600
 0.6420	76.4800
 0.6430	76.7700
 0.6440	76.8800
 0.6450	76.5900
 0.6460	76.5300
 0.6470	76.5300
 0.6480	76.7700
 0.6490	76.9400
 0.6500	76.7100
 0.6510	76.4800
 0.6520	76.6500
 0.6530	76.7700
 0.6540	77.1000
 0.6550	77.0000
 0.6560	76.8200
 0.6570	76.7100
 0.6580	76.9400
 0.6590	77.1000
 0.6600	77.1600
 0.6610	77.1000
 0.6620	77.1000
 0.6630	77.2800
 0.6640	77.4500
 0.6650	77.2200
 0.6660	77.0500
 0.6670	76.9400
 0.6680	77.2800
 0.6690	77.5700
 0.6700	77.3900
 0.6710	77.2800
 0.6720	77.2200
 0.6730	77.6800
 0.6740	77.8000
 0.6750	77.5700
 0.6760	77.4500
 0.6770	77.0500
 0.6780	77.2800
 0.6790	77.5700
 0.6800	77.6200
 0.6810	77.5100
 0.6820	77.3900
 0.6830	77.5100
 0.6840	77.9100
 0.6850	77.7400
 0.6860	77.6800
 0.6870	77.3900
 0.6880	77.6200
 0.6890	77.9100
 0.6900	77.8600
 0.6910	77.6800
 0.6920	77.2800
 0.6930	77.5700
 0.6940	78.0300
 0.6950	78.0900
 0.6960	78.0300
 0.6970	77.6200
 0.6980	77.7400
 0.6990	77.8600
 0.7000	77.8000
 0.7010	77.7400
 0.7020	77.6800
 0.7030	77.9100
 0.7040	77.8600
 0.7050	77.7400
 0.7060	77.6800
 0.7070	77.7400
 0.7080	78.1500
 0.7090	77.9700
 0.7100	77.9100
 0.7110	77.9100
 0.7120	77.9700
 0.7130	78.2600
 0.7140	78.2600
 0.7150	77.9100
 0.7160	77.9700
 0.7170	78.0300
 0.7180	78.0900
 0.7190	78.3800
 0.7200	78.2000
 0.7210	77.9700
 0.7220	77.9700
 0.7230	78.2000
 0.7240	78.4400
 0.7250	78.3200
 0.7260	78.0900
 0.7270	78.1500
 0.7280	78.1500
 0.7290	78.3200
 0.7300	78.3800
 0.7310	78.2600
 0.7320	77.9100
 0.7330	77.8000
 0.7340	78.2000
 0.7350	78.2600
 0.7360	78.2000
 0.7370	78.1500
 0.7380	78.2600
 0.7390	78.3800
 0.7400	78.6100
 0.7410	78.4900
 0.7420	78.3800
 0.7430	78.3200
 0.7440	78.2600
 0.7450	78.4400
 0.7460	78.2000
 0.7470	78.0900
 0.7480	78.2000
 0.7490	78.2600
 0.7500	78.3800
 0.7510	78.4900
 0.7520	78.3200
 0.7530	78.0300
 0.7540	77.9700
 0.7550	78.2600
 0.7560	78.4400
 0.7570	78.5500
 0.7580	78.4400
 0.7590	78.3200
 0.7600	78.3800
 0.7610	78.4900
 0.7620	78.3200
 0.7630	78.1500
 0.7640	78.0900
 0.7650	78.3200
 0.7660	78.6100
 0.7670	78.4900
 0.7680	78.2000
 0.7690	78.0300
 0.7700	78.2000
 0.7710	78.3800
 0.7720	78.3800
 0.7730	78.2600
 0.7740	78.1500
 0.7750	78.2600
 0.7760	78.2000
 0.7770	78.4900
 0.7780	78.3800
 0.7790	78.2600
 0.7800	78.1500
 0.7810	78.4900
 0.7820	78.7700
 0.7830	78.6700
 0.7840	78.4400
 0.7850	78.4900
 0.7860	78.6700
 0.7870	78.8900
 0.7880	78.9500
 0.7890	78.6700
 0.7900	78.4900
 0.7910	78.5500
 0.7920	78.7700
 0.7930	78.8300
 0.7940	78.7200
 0.7950	78.3200
 0.7960	78.4400
 0.7970	78.7200
 0.7980	79.0100
 0.7990	78.8900
 0.8000	78.8900
 0.8040	78.8900
 0.8080	78.8900
 0.8120	78.9500
 0.8160	78.8300
 0.8200	78.9500
 0.8240	78.8300
 0.8280	79.0600
 0.8320	79.1200
 0.8360	79.0600
 0.8400	79.0100
 0.8440	79.1200
 0.8480	79.1800
 0.8520	79.0600
 0.8560	79.2900
 0.8600	79.3500
 0.8640	79.3500
 0.8680	79.4100
 0.8720	79.4100
 0.8760	79.4700
 0.8800	79.4100
 0.8840	79.4100
 0.8880	79.5300
 0.8920	79.4700
 0.8960	79.5300
 0.9000	79.5800
 0.9040	79.6400
 0.9080	79.4700
 0.9120	79.5800
 0.9160	79.7600
 0.9200	79.5800
 0.9240	79.7000
 0.9280	79.7600
 0.9320	79.7600
 0.9360	79.8200
 0.9400	79.7600
 0.9440	79.8700
 0.9480	79.8200
 0.9520	79.9900
 0.9560	79.8700
 0.9600	79.9300
 0.9640	79.9300
 0.9680	80.0500
 0.9720	80.1100
 0.9760	79.9300
 0.9800	80.2200
 0.9840	80.2800
 0.9880	80.1600
 0.9920	80.2200
 0.9960	80.2200
 1.0000	80.2200
 1.0040	80.2200
 1.0080	80.2800
 1.0120	80.3400
 1.0160	80.2800
 1.0200	80.4400
 1.0240	80.4400
 1.0280	80.5000
 1.0320	80.4400
 1.0360	80.5000
 1.0400	80.6200
 1.0440	80.5600
 1.0480	80.6200
 1.0520	80.5600
 1.0560	80.6800
 1.0600	80.5600
 1.0640	80.6800
 1.0680	80.6800
 1.0720	80.6200
 1.0760	80.7300
 1.0800	80.7900
 1.0840	80.7900
 1.0880	80.7300
 1.0920	80.8500
 1.0960	80.8500
 1.1000	80.8500
 1.1040	80.9700
 1.1080	80.9100
 1.1120	80.9700
 1.1160	80.8500
 1.1200	81.0200
 1.1240	81.0800
 1.1280	81.0200
 1.1320	81.2000
 1.1360	81.1400
 1.1400	81.0800
 1.1440	81.0200
 1.1480	81.1400
 1.1520	81.3100
 1.1560	81.1300
 1.1600	81.1800
 1.1640	81.2300
 1.1680	81.2200
 1.1720	81.1700
 1.1760	81.1600
 1.1800	81.3200
 1.1840	81.2500
 1.1880	81.3600
 1.1920	81.3600
 1.1960	81.3500
 1.2000	81.3500
 1.2040	81.4600
 1.2080	81.5200
 1.2120	81.3500
 1.2160	81.4600
 1.2200	81.5700
 1.2240	81.5200
 1.2280	81.5200
 1.2320	81.5700
 1.2360	81.6900
 1.2400	81.5200
 1.2440	81.6300
 1.2480	81.8000
 1.2520	81.6300
 1.2560	81.6900
 1.2600	81.8500
 1.2640	81.7800
 1.2680	81.8300
 1.2720	81.7700
 1.2760	81.8200
 1.2800	81.7500
 1.2840	81.9200
 1.2880	81.9200
 1.2920	81.8600
 1.2960	81.9100
 1.3000	81.9000
 1.3040	81.9400
 1.3080	81.8800
 1.3120	81.8800
 1.3160	81.9200
 1.3200	81.9200
 1.3240	82.0300
 1.3280	81.9000
 1.3320	81.9000
 1.3360	81.8900
 1.3400	81.8800
 1.3440	81.9900
 1.3480	81.8200
 1.3520	81.9900
 1.3560	82.0400
 1.3600	82.1000
 1.3640	81.9900
 1.3680	81.9900
 1.3720	82.1000
 1.3760	81.9300
 1.3800	81.9300
 1.3840	81.9900
 1.3880	81.9300
 1.3920	81.7600
 1.3960	81.7000
 1.4000	81.7600
 1.4040	81.5900
 1.4080	81.6600
 1.4120	81.6000
 1.4160	81.5500
 1.4200	81.5000
 1.4240	81.5700
 1.4280	81.6300
 1.4320	81.5200
 1.4360	81.7000
 1.4400	81.7000
 1.4440	81.7100
 1.4480	81.6100
 1.4520	81.6100
 1.4560	81.6100
 1.4600	81.5500
 1.4640	81.6600
 1.4680	81.6600
 1.4720	81.6600
 1.4760	81.5500
 1.4800	81.6600
 1.4840	81.7800
 1.4880	81.6600
 1.4920	81.6600
 1.4960	81.7200
 1.5000	81.9000
 1.5040	82.0100
 1.5080	81.8400
 1.5120	81.9500
 1.5160	82.0700
 1.5200	82.0100
 1.5240	82.0100
 1.5280	82.0100
 1.5320	82.0700
 1.5360	81.9500
 1.5400	82.1300
 1.5440	82.1900
 1.5480	82.1300
 1.5520	82.2400
 1.5560	82.1300
 1.5600	82.2400
 1.5640	82.1900
 1.5680	82.0700
 1.5720	82.1900
 1.5760	82.0700
 1.5800	82.1900
 1.5840	82.1900
 1.5880	82.3600
 1.5920	82.3000
 1.5960	82.3000
 1.6000	82.5200
 1.6040	82.4700
 1.6080	82.5700
 1.6120	82.5100
 1.6160	82.5600
 1.6200	82.4900
 1.6240	82.4800
 1.6280	82.4700
 1.6320	82.4700
 1.6360	82.3600
 1.6400	82.5200
 1.6440	82.5700
 1.6480	82.4400
 1.6520	82.3900
 1.6560	82.2100
 1.6600	82.3800
 1.6640	82.2500
 1.6680	82.1800
 1.6720	82.3600
 1.6760	82.4000
 1.6800	82.3900
 1.6840	82.3800
 1.6880	82.3700
 1.6920	82.2100
 1.6960	82.2600
 1.7000	82.3600
 1.7040	82.1300
 1.7080	82.1300
 1.7120	82.0200
 1.7160	82.0200
 1.7200	81.9000
 1.7240	81.8400
 1.7280	81.8400
 1.7320	81.8400
 1.7360	81.7800
 1.7400	81.6800
 1.7440	81.7800
 1.7480	81.6200
 1.7520	81.6800
 1.7560	81.7800
 1.7600	81.6800
 1.7640	81.7300
 1.7680	81.6200
 1.7720	81.7300
 1.7760	81.8400
 1.7800	81.9600
 1.7840	82.1300
 1.7880	82.1300
 1.7920	82.1900
 1.7960	82.1300
 1.8000	82.1900
 1.8040	82.0500
 1.8080	81.9700
 1.8120	81.8800
 1.8160	81.6800
 1.8200	81.5400
 1.8240	81.2900
 1.8280	81.2100
 1.8320	80.9500
 1.8360	80.6400
 1.8400	80.5500
 1.8440	80.1800
 1.8480	79.9900
 1.8520	79.7500
 1.8560	79.6800
 1.8600	79.2700
 1.8640	78.8100
 1.8680	78.1100
 1.8720	77.5400
 1.8760	76.9100
 1.8800	76.4400
 1.8840	76.2600
 1.8880	76.2000
 1.8920	76.4200
 1.8960	76.6400
 1.9000	77.2000
 1.9040	77.4800
 1.9080	77.8800
 1.9120	78.2200
 1.9160	78.4400
 1.9200	78.4300
 1.9240	78.5900
 1.9280	78.6400
 1.9320	78.6400
 1.9360	78.6400
 1.9400	78.6300
 1.9440	78.6200
 1.9480	78.4900
 1.9520	78.3800
 1.9560	78.3500
 1.9600	78.1100
 1.9640	78.0400
 1.9680	77.8900
 1.9720	77.7700
 1.9760	77.7500
 1.9800	77.6100
 1.9840	77.6000
 1.9880	77.2300
 1.9920	76.8800
 1.9960	76.4600
 2.0000	75.9300
 2.0040	75.4200
 2.0080	75.1800
 2.0120	75.3600
 2.0160	75.6100
 2.0200	76.4300
 2.0240	77.2800
 2.0280	78.0600
 2.0320	78.9200
 2.0360	79.6200
 2.0400	80.2600
 2.0440	80.6000
 2.0480	80.8700
 2.0520	81.1500
 2.0560	81.2300
 2.0600	81.3700
 2.0640	81.3900
 2.0680	81.5800
 2.0720	81.5500
 2.0760	81.5700
 2.0800	81.5400
 2.0840	81.6200
 2.0880	81.5300
 2.0920	81.3800
 2.0960	81.4600
 2.1000	81.3100
 2.1040	81.1700
 2.1080	80.9600
 2.1120	80.9300
 2.1160	80.7300
 2.1200	80.7000
 2.1240	80.5200
 2.1280	80.2900
 2.1320	80.1500
 2.1360	79.7500
 2.1400	79.4700
 2.1440	78.8900
 2.1480	78.4200
 2.1520	77.8500
 2.1560	77.0300
 2.1600	76.1900
 2.1640	75.4400
 2.1680	74.8700
 2.1720	74.4000
 2.1760	74.2600
 2.1800	74.5200
 2.1840	74.6900
 2.1880	75.0900
 2.1920	75.3300
 2.1960	75.4400
 2.2000	75.5000
 2.2040	75.2800
 2.2080	75.1100
 2.2120	74.5000
 2.2160	74.0800
 2.2200	73.4900
 2.2240	72.6900
 2.2280	71.9600
 2.2320	71.2600
 2.2360	70.5600
 2.2400	69.6200
 2.2440	68.8300
 2.2480	67.8600
 2.2520	67.0000
 2.2560	65.9000
 2.2600	64.8000
 2.2640	63.7800
 2.2680	62.8700
 2.2720	61.8500
 2.2760	60.8600
 2.2800	59.8200
 2.2840	58.9400
 2.2880	57.9600
 2.2920	56.9700
 2.2960	56.0100
 2.3000	55.0700
 2.3040	54.1500
 2.3080	53.5600
 2.3120	51.7400
 2.3160	50.7000
 2.3200	49.5100
 2.3240	48.2300
 2.3280	47.0600
 2.3320	46.0800
 2.3360	45.1400
 2.3400	44.6600
 2.3440	44.5800
 2.3480	45.1200
 2.3520	46.0600
 2.3560	47.5400
 2.3600	49.6500
 2.3640	51.8600
 2.3680	54.4000
 2.3720	56.9000
 2.3760	59.5200
 2.3800	61.8100
 2.3840	63.8500
 2.3880	65.4400
 2.3920	66.7600
 2.3960	67.7200
 2.4000	68.3300
 2.4040	68.6500
 2.4080	68.8200
 2.4120	68.6000
 2.4160	68.4700
 2.4200	68.2400
 2.4240	67.7900
 2.4280	67.1200
 2.4320	66.5000
 2.4360	65.7100
 2.4400	64.7700
 2.4440	63.7000
 2.4480	62.4100
 2.4520	61.0700
 2.4560	59.4500
 2.4600	57.7200
 2.4640	55.9900
 2.4680	54.3100
 2.4720	52.5900
 2.4760	51.1400
 2.4800	49.5200
 2.4840	48.3400
 2.4880	47.1200
 2.4920	45.9500
 2.4960	44.8300
 2.5000	43.8800
