Name: Beryl Be_3Al_2Si_6O_18
Type: Mineral
Class: Silicate
Subclass: Cyclosilicate
Particle Size: Medium
Sample No.: CS-2A
Owner: JPL
Wavelength Range: VSWIR
Origin: Brazil, Minas Gerais.
Collection Date: N/A
Description: Particle size was 45-125um.Collected by:  Ward's Original ASTER Spectral Library name was jpl.perkin.mineral.silicate.cyclosilicate.medium.cs02a.spectrum.txt
Measurement: Hemispherical reflectance
First Column: X
Second Column: Y
X Units: Wavelength (micrometers)
Y Units:Reflectance (percent)
First X Value:  2.5000
Last X Value:  0.4000
Number of X Values: 2101
Additional Information: mineral.silicate.cyclosilicate.medium.vswir.cs-2a.jpl.perkin.ancillary.txt

 2.5000	44.2971
 2.4990	44.7165
 2.4980	44.9566
 2.4970	45.2990
 2.4960	45.3621
 2.4950	45.9025
 2.4940	46.0785
 2.4930	46.4599
 2.4920	46.8091
 2.4910	47.1601
 2.4900	47.1911
 2.4890	47.6106
 2.4880	47.8423
 2.4870	48.1468
 2.4860	48.4781
 2.4850	48.6793
 2.4840	48.7933
 2.4830	48.9377
 2.4820	49.2749
 2.4810	49.5176
 2.4800	49.6897
 2.4790	50.0557
 2.4780	49.9417
 2.4770	50.4464
 2.4760	50.5378
 2.4750	50.7784
 2.4740	50.9168
 2.4730	51.2258
 2.4720	51.3809
 2.4710	51.5876
 2.4700	51.7733
 2.4690	51.9761
 2.4680	52.2289
 2.4670	52.4647
 2.4660	52.6617
 2.4650	52.8969
 2.4640	53.0361
 2.4630	53.3159
 2.4620	53.4502
 2.4610	53.6774
 2.4600	53.7641
 2.4590	53.9411
 2.4580	54.1055
 2.4570	54.4637
 2.4560	54.5716
 2.4550	54.7604
 2.4540	54.9812
 2.4530	55.1686
 2.4520	55.2430
 2.4510	55.4943
 2.4500	55.6478
 2.4490	55.8581
 2.4480	55.9220
 2.4470	56.2285
 2.4460	56.3533
 2.4450	56.4757
 2.4440	56.6313
 2.4430	56.8163
 2.4420	56.9440
 2.4410	57.1188
 2.4400	57.2032
 2.4390	57.4524
 2.4380	57.5573
 2.4370	57.7961
 2.4360	57.9348
 2.4350	58.0215
 2.4340	58.1013
 2.4330	58.2683
 2.4320	58.3179
 2.4310	58.4985
 2.4300	58.5773
 2.4290	58.6638
 2.4280	58.8081
 2.4270	58.9664
 2.4260	59.0612
 2.4250	59.2518
 2.4240	59.3249
 2.4230	59.3610
 2.4220	59.4055
 2.4210	59.5816
 2.4200	59.6036
 2.4190	59.7918
 2.4180	59.7696
 2.4170	59.9622
 2.4160	60.0578
 2.4150	60.1492
 2.4140	60.2916
 2.4130	60.3375
 2.4120	60.4053
 2.4110	60.5183
 2.4100	60.5371
 2.4090	60.6078
 2.4080	60.7329
 2.4070	60.8755
 2.4060	60.9479
 2.4050	61.0937
 2.4040	61.0255
 2.4030	61.0491
 2.4020	61.1198
 2.4010	61.2069
 2.4000	61.2450
 2.3990	61.3658
 2.3980	61.4278
 2.3970	61.5271
 2.3960	61.5218
 2.3950	61.5918
 2.3940	61.6254
 2.3930	61.6353
 2.3920	61.6984
 2.3910	61.7191
 2.3900	61.7708
 2.3890	61.8340
 2.3880	61.8283
 2.3870	61.8895
 2.3860	61.8707
 2.3850	61.9844
 2.3840	61.9536
 2.3830	61.8867
 2.3820	61.9280
 2.3810	61.9732
 2.3800	61.9257
 2.3790	62.0141
 2.3780	61.9901
 2.3770	62.0378
 2.3760	62.1006
 2.3750	62.1084
 2.3740	62.1147
 2.3730	62.1623
 2.3720	62.2158
 2.3710	62.3177
 2.3700	62.3609
 2.3690	62.3866
 2.3680	62.4404
 2.3670	62.4504
 2.3660	62.5124
 2.3650	62.6051
 2.3640	62.6382
 2.3630	62.7519
 2.3620	62.7689
 2.3610	62.7637
 2.3600	62.8544
 2.3590	62.9594
 2.3580	62.9971
 2.3570	63.0514
 2.3560	63.1026
 2.3550	63.0809
 2.3540	63.1054
 2.3530	63.2575
 2.3520	63.3212
 2.3510	63.3013
 2.3500	63.3957
 2.3490	63.5052
 2.3480	63.5606
 2.3470	63.5759
 2.3460	63.6115
 2.3450	63.6494
 2.3440	63.7093
 2.3430	63.7378
 2.3420	63.8015
 2.3410	63.8442
 2.3400	63.8703
 2.3390	63.9064
 2.3380	63.9584
 2.3370	63.9719
 2.3360	64.0036
 2.3350	64.0611
 2.3340	64.1419
 2.3330	64.2036
 2.3320	64.2050
 2.3310	64.2429
 2.3300	64.3310
 2.3290	64.3833
 2.3280	64.3946
 2.3270	64.4735
 2.3260	64.5797
 2.3250	64.6423
 2.3240	64.6900
 2.3230	64.7218
 2.3220	64.7911
 2.3210	64.8704
 2.3200	65.0039
 2.3190	65.0044
 2.3180	65.1007
 2.3170	65.1910
 2.3160	65.2433
 2.3150	65.3058
 2.3140	65.3395
 2.3130	65.3530
 2.3120	65.3985
 2.3110	65.4723
 2.3100	65.5406
 2.3090	65.5726
 2.3080	65.6001
 2.3070	65.6057
 2.3060	65.6508
 2.3050	65.7400
 2.3040	65.7854
 2.3030	65.8325
 2.3020	65.8887
 2.3010	65.8867
 2.3000	65.8771
 2.2990	65.9409
 2.2980	65.9571
 2.2970	65.9317
 2.2960	66.0202
 2.2950	66.0453
 2.2940	66.0694
 2.2930	66.0903
 2.2920	66.1570
 2.2910	66.1104
 2.2900	66.1457
 2.2890	66.1050
 2.2880	66.1169
 2.2870	66.2146
 2.2860	66.2859
 2.2850	66.2554
 2.2840	66.2701
 2.2830	66.2412
 2.2820	66.3067
 2.2810	66.3175
 2.2800	66.3048
 2.2790	66.2861
 2.2780	66.3932
 2.2770	66.4454
 2.2760	66.4346
 2.2750	66.4327
 2.2740	66.4623
 2.2730	66.4822
 2.2720	66.5628
 2.2710	66.5305
 2.2700	66.5294
 2.2690	66.5533
 2.2680	66.6363
 2.2670	66.6400
 2.2660	66.7005
 2.2650	66.5992
 2.2640	66.6863
 2.2630	66.7135
 2.2620	66.7444
 2.2610	66.7738
 2.2600	66.7662
 2.2590	66.8164
 2.2580	66.7970
 2.2570	66.7672
 2.2560	66.7923
 2.2550	66.8545
 2.2540	66.8108
 2.2530	66.7960
 2.2520	66.9024
 2.2510	66.8812
 2.2500	66.8956
 2.2490	66.8468
 2.2480	66.9267
 2.2470	66.9517
 2.2460	66.9415
 2.2450	66.9230
 2.2440	66.9467
 2.2430	66.9709
 2.2420	67.0706
 2.2410	66.9816
 2.2400	67.0553
 2.2390	66.9867
 2.2380	67.0578
 2.2370	67.0722
 2.2360	67.0867
 2.2350	67.1705
 2.2340	67.0852
 2.2330	67.0859
 2.2320	67.1587
 2.2310	67.0213
 2.2300	67.1605
 2.2290	67.0694
 2.2280	67.1557
 2.2270	67.1286
 2.2260	67.0697
 2.2250	67.1610
 2.2240	67.1228
 2.2230	67.1487
 2.2220	67.1296
 2.2210	67.1312
 2.2200	67.1306
 2.2190	67.1833
 2.2180	67.1158
 2.2170	67.0975
 2.2160	67.0716
 2.2150	67.0785
 2.2140	67.0014
 2.2130	67.0496
 2.2120	67.1489
 2.2110	66.9419
 2.2100	67.0785
 2.2090	66.8657
 2.2080	66.9411
 2.2070	66.8955
 2.2060	66.8968
 2.2050	66.8456
 2.2040	66.7456
 2.2030	66.7229
 2.2020	66.7090
 2.2010	66.6843
 2.2000	66.6584
 2.1990	66.6982
 2.1980	66.7096
 2.1970	66.6459
 2.1960	66.7195
 2.1950	66.6143
 2.1940	66.7504
 2.1930	66.7691
 2.1920	66.8331
 2.1910	66.8208
 2.1900	66.8801
 2.1890	66.9933
 2.1880	67.1155
 2.1870	67.0193
 2.1860	67.1303
 2.1850	67.1022
 2.1840	67.1196
 2.1830	67.1464
 2.1820	67.1339
 2.1810	67.1313
 2.1800	67.2051
 2.1790	67.1697
 2.1780	67.2081
 2.1770	67.2207
 2.1760	67.2537
 2.1750	67.3041
 2.1740	67.3765
 2.1730	67.3184
 2.1720	67.3756
 2.1710	67.3154
 2.1700	67.3487
 2.1690	67.4042
 2.1680	67.3133
 2.1670	67.3618
 2.1660	67.3427
 2.1650	67.2816
 2.1640	67.2970
 2.1630	67.2168
 2.1620	67.1852
 2.1610	67.0957
 2.1600	67.0899
 2.1590	67.0418
 2.1580	66.8990
 2.1570	66.9142
 2.1560	66.8380
 2.1550	66.7949
 2.1540	66.7018
 2.1530	66.5732
 2.1520	66.5643
 2.1510	66.5869
 2.1500	66.5559
 2.1490	66.5826
 2.1480	66.6667
 2.1470	66.7628
 2.1460	66.8753
 2.1450	66.9406
 2.1440	67.0187
 2.1430	67.1669
 2.1420	67.2756
 2.1410	67.3872
 2.1400	67.4868
 2.1390	67.5804
 2.1380	67.6769
 2.1370	67.7575
 2.1360	67.8613
 2.1350	67.9379
 2.1340	67.9557
 2.1330	67.9820
 2.1320	67.9604
 2.1310	67.9803
 2.1300	68.0232
 2.1290	67.9975
 2.1280	68.0135
 2.1270	67.9591
 2.1260	67.9129
 2.1250	67.8885
 2.1240	67.8767
 2.1230	67.9064
 2.1220	67.8429
 2.1210	67.7880
 2.1200	67.7586
 2.1190	67.7157
 2.1180	67.6883
 2.1170	67.6950
 2.1160	67.6715
 2.1150	67.5249
 2.1140	67.4987
 2.1130	67.4920
 2.1120	67.5383
 2.1110	67.5115
 2.1100	67.4793
 2.1090	67.4251
 2.1080	67.3835
 2.1070	67.3502
 2.1060	67.3192
 2.1050	67.2296
 2.1040	67.2025
 2.1030	67.2197
 2.1020	67.1898
 2.1010	67.0988
 2.1000	67.0306
 2.0990	67.0607
 2.0980	67.0884
 2.0970	67.0280
 2.0960	67.0096
 2.0950	67.0352
 2.0940	66.9736
 2.0930	66.9171
 2.0920	66.9367
 2.0910	66.8475
 2.0900	66.7901
 2.0890	66.7782
 2.0880	66.7299
 2.0870	66.6850
 2.0860	66.5946
 2.0850	66.4475
 2.0840	66.3874
 2.0830	66.3528
 2.0820	66.3131
 2.0810	66.2841
 2.0800	66.3471
 2.0790	66.3889
 2.0780	66.3922
 2.0770	66.4323
 2.0760	66.4642
 2.0750	66.5083
 2.0740	66.5749
 2.0730	66.5977
 2.0720	66.6194
 2.0710	66.6307
 2.0700	66.6062
 2.0690	66.6219
 2.0680	66.6900
 2.0670	66.6932
 2.0660	66.6627
 2.0650	66.6303
 2.0640	66.5891
 2.0630	66.5951
 2.0620	66.5531
 2.0610	66.5414
 2.0600	66.5344
 2.0590	66.4987
 2.0580	66.5152
 2.0570	66.4622
 2.0560	66.3810
 2.0550	66.3064
 2.0540	66.2395
 2.0530	66.1939
 2.0520	66.2432
 2.0510	66.2450
 2.0500	66.2434
 2.0490	66.3276
 2.0480	66.3695
 2.0470	66.4190
 2.0460	66.5598
 2.0450	66.6999
 2.0440	66.8313
 2.0430	66.9502
 2.0420	67.1161
 2.0410	67.2566
 2.0400	67.3147
 2.0390	67.3518
 2.0380	67.3683
 2.0370	67.4183
 2.0360	67.4448
 2.0350	67.4768
 2.0340	67.5039
 2.0330	67.5991
 2.0320	67.5516
 2.0310	67.5658
 2.0300	67.5781
 2.0290	67.6398
 2.0280	67.5818
 2.0270	67.5474
 2.0260	67.5311
 2.0250	67.5645
 2.0240	67.5146
 2.0230	67.5256
 2.0220	67.5701
 2.0210	67.5237
 2.0200	67.5290
 2.0190	67.5194
 2.0180	67.4534
 2.0170	67.5093
 2.0160	67.4179
 2.0150	67.4355
 2.0140	67.3867
 2.0130	67.4194
 2.0120	67.4344
 2.0110	67.3382
 2.0100	67.2690
 2.0090	67.2530
 2.0080	67.2962
 2.0070	67.2792
 2.0060	67.2486
 2.0050	67.1996
 2.0040	67.1644
 2.0030	67.1377
 2.0020	67.0384
 2.0010	67.0715
 2.0000	67.0230
 1.9990	66.9678
 1.9980	66.8215
 1.9970	66.7859
 1.9960	66.6511
 1.9950	66.6359
 1.9940	66.5566
 1.9930	66.4601
 1.9920	66.2269
 1.9910	66.1645
 1.9900	65.9874
 1.9890	65.7905
 1.9880	65.5974
 1.9870	65.4560
 1.9860	65.1115
 1.9850	64.8464
 1.9840	64.6619
 1.9830	64.3402
 1.9820	64.1165
 1.9810	63.7888
 1.9800	63.4731
 1.9790	63.1127
 1.9780	62.7408
 1.9770	62.4621
 1.9760	62.2086
 1.9750	61.8906
 1.9740	61.5231
 1.9730	61.3786
 1.9720	61.1210
 1.9710	60.8929
 1.9700	60.6163
 1.9690	60.5151
 1.9680	60.2619
 1.9670	60.1283
 1.9660	59.8787
 1.9650	59.7959
 1.9640	59.6497
 1.9630	59.5177
 1.9620	59.4491
 1.9610	59.3203
 1.9600	59.2567
 1.9590	59.2571
 1.9580	59.1547
 1.9570	59.1680
 1.9560	59.1111
 1.9550	59.0818
 1.9540	59.1065
 1.9530	59.1898
 1.9520	59.2306
 1.9510	59.2176
 1.9500	59.2510
 1.9490	59.4362
 1.9480	59.4407
 1.9470	59.6827
 1.9460	59.6995
 1.9450	59.8357
 1.9440	60.0166
 1.9430	60.1414
 1.9420	60.2573
 1.9410	60.3810
 1.9400	60.4696
 1.9390	60.6313
 1.9380	60.6304
 1.9370	60.8353
 1.9360	60.7778
 1.9350	60.8362
 1.9340	60.8190
 1.9330	61.0039
 1.9320	60.9004
 1.9310	60.8750
 1.9300	60.7897
 1.9290	60.7963
 1.9280	60.6375
 1.9270	60.7664
 1.9260	60.4009
 1.9250	60.4957
 1.9240	60.3777
 1.9230	60.2091
 1.9220	60.0620
 1.9210	59.9959
 1.9200	59.7719
 1.9190	59.6169
 1.9180	59.3243
 1.9170	59.1703
 1.9160	58.8083
 1.9150	58.5203
 1.9140	58.1625
 1.9130	57.8228
 1.9120	57.0613
 1.9110	56.6095
 1.9100	55.7307
 1.9090	54.9185
 1.9080	53.7036
 1.9070	52.5197
 1.9060	50.7021
 1.9050	48.8331
 1.9040	46.4114
 1.9030	43.6181
 1.9020	40.6299
 1.9010	37.5649
 1.9000	34.4538
 1.8990	31.7848
 1.8980	29.4673
 1.8970	27.8411
 1.8960	27.0648
 1.8950	27.3235
 1.8940	28.5656
 1.8930	30.7154
 1.8920	33.4275
 1.8910	36.5880
 1.8900	39.7770
 1.8890	43.0461
 1.8880	45.7685
 1.8870	48.2638
 1.8860	50.2055
 1.8850	51.8008
 1.8840	53.0655
 1.8830	54.2613
 1.8820	55.1718
 1.8810	55.8770
 1.8800	56.4833
 1.8790	57.0361
 1.8780	57.4627
 1.8770	57.8328
 1.8760	58.1220
 1.8750	58.4050
 1.8740	58.6302
 1.8730	58.9009
 1.8720	59.0540
 1.8710	59.2311
 1.8700	59.3369
 1.8690	59.4298
 1.8680	59.5548
 1.8670	59.5879
 1.8660	59.5622
 1.8650	59.6102
 1.8640	59.6143
 1.8630	59.6250
 1.8620	59.5351
 1.8610	59.3945
 1.8600	59.3242
 1.8590	59.0996
 1.8580	58.8695
 1.8570	58.7014
 1.8560	58.3693
 1.8550	58.1005
 1.8540	57.7739
 1.8530	57.5205
 1.8520	57.1956
 1.8510	56.8454
 1.8500	56.4609
 1.8490	56.1507
 1.8480	55.7313
 1.8470	55.4768
 1.8460	55.1364
 1.8450	54.8242
 1.8440	54.6501
 1.8430	54.4623
 1.8420	54.2745
 1.8410	54.1307
 1.8400	54.0440
 1.8390	53.9609
 1.8380	53.8902
 1.8370	53.8879
 1.8360	53.8766
 1.8350	54.0147
 1.8340	54.0835
 1.8330	54.2242
 1.8320	54.2795
 1.8310	54.4671
 1.8300	54.6396
 1.8290	54.8556
 1.8280	55.1284
 1.8270	55.4190
 1.8260	55.7335
 1.8250	56.1185
 1.8240	56.5646
 1.8230	57.1351
 1.8220	57.7789
 1.8210	58.4136
 1.8200	59.1163
 1.8190	59.8525
 1.8180	60.4836
 1.8170	61.2102
 1.8160	61.8586
 1.8150	62.4278
 1.8140	62.9362
 1.8130	63.4209
 1.8120	63.8363
 1.8110	64.2158
 1.8100	64.5216
 1.8090	64.8360
 1.8080	65.1577
 1.8070	65.4366
 1.8060	65.6709
 1.8050	65.9135
 1.8040	66.1383
 1.8030	66.2951
 1.8020	66.4151
 1.8010	66.5794
 1.8000	66.7085
 1.7990	66.8845
 1.7980	66.9611
 1.7970	67.0195
 1.7960	67.1355
 1.7950	67.2280
 1.7940	67.2864
 1.7930	67.3367
 1.7920	67.3841
 1.7910	67.5294
 1.7900	67.6657
 1.7890	67.6884
 1.7880	67.7245
 1.7870	67.8160
 1.7860	67.8843
 1.7850	68.0044
 1.7840	68.0525
 1.7830	68.0908
 1.7820	68.1855
 1.7810	68.2597
 1.7800	68.3220
 1.7790	68.3839
 1.7780	68.4319
 1.7770	68.4746
 1.7760	68.5228
 1.7750	68.5563
 1.7740	68.6236
 1.7730	68.6410
 1.7720	68.7152
 1.7710	68.7924
 1.7700	68.8052
 1.7690	68.8800
 1.7680	68.9290
 1.7670	68.9211
 1.7660	68.9512
 1.7650	69.0433
 1.7640	69.1236
 1.7630	69.1208
 1.7620	69.1307
 1.7610	69.1919
 1.7600	69.2509
 1.7590	69.1998
 1.7580	69.1895
 1.7570	69.2180
 1.7560	69.2972
 1.7550	69.3032
 1.7540	69.3110
 1.7530	69.3520
 1.7520	69.4269
 1.7510	69.4192
 1.7500	69.3939
 1.7490	69.4305
 1.7480	69.4799
 1.7470	69.4201
 1.7460	69.4667
 1.7450	69.5003
 1.7440	69.5424
 1.7430	69.5621
 1.7420	69.4831
 1.7410	69.5338
 1.7400	69.5525
 1.7390	69.5810
 1.7380	69.6364
 1.7370	69.6278
 1.7360	69.6329
 1.7350	69.5826
 1.7340	69.6387
 1.7330	69.6671
 1.7320	69.5856
 1.7310	69.6236
 1.7300	69.7037
 1.7290	69.6960
 1.7280	69.7557
 1.7270	69.7327
 1.7260	69.7255
 1.7250	69.7246
 1.7240	69.7590
 1.7230	69.7565
 1.7220	69.8239
 1.7210	69.7530
 1.7200	69.7169
 1.7190	69.7712
 1.7180	69.7917
 1.7170	69.8066
 1.7160	69.8420
 1.7150	69.8492
 1.7140	69.8178
 1.7130	69.7605
 1.7120	69.8233
 1.7110	69.8031
 1.7100	69.8156
 1.7090	69.8409
 1.7080	69.7809
 1.7070	69.7966
 1.7060	69.8386
 1.7050	69.7358
 1.7040	69.8432
 1.7030	69.8370
 1.7020	69.9120
 1.7010	69.8793
 1.7000	69.8264
 1.6990	69.8153
 1.6980	69.8064
 1.6970	69.8166
 1.6960	69.8382
 1.6950	69.8510
 1.6940	69.7920
 1.6930	69.8992
 1.6920	69.9060
 1.6910	69.8360
 1.6900	69.8520
 1.6890	69.7874
 1.6880	69.9201
 1.6870	69.7695
 1.6860	69.8610
 1.6850	69.8674
 1.6840	69.8660
 1.6830	69.8770
 1.6820	69.9046
 1.6810	69.8796
 1.6800	69.8956
 1.6790	69.8187
 1.6780	69.8344
 1.6770	69.9076
 1.6760	69.9469
 1.6750	69.9715
 1.6740	69.9501
 1.6730	69.8845
 1.6720	69.8980
 1.6710	69.8953
 1.6700	69.9217
 1.6690	69.9589
 1.6680	69.8725
 1.6670	69.8929
 1.6660	69.9135
 1.6650	69.8601
 1.6640	69.8743
 1.6630	69.8808
 1.6620	69.9130
 1.6610	69.9384
 1.6600	69.9412
 1.6590	69.9521
 1.6580	69.9499
 1.6570	69.9207
 1.6560	69.9666
 1.6550	69.9054
 1.6540	69.9690
 1.6530	69.8950
 1.6520	69.8773
 1.6510	69.8564
 1.6500	70.0233
 1.6490	69.8441
 1.6480	69.9409
 1.6470	69.8739
 1.6460	69.9668
 1.6450	69.9296
 1.6440	69.9454
 1.6430	69.8671
 1.6420	70.0202
 1.6410	69.8740
 1.6400	69.9808
 1.6390	69.8952
 1.6380	69.9117
 1.6370	69.9144
 1.6360	69.9367
 1.6350	69.9543
 1.6340	69.9324
 1.6330	69.8772
 1.6320	69.9704
 1.6310	69.9898
 1.6300	69.9593
 1.6290	69.9576
 1.6280	69.9277
 1.6270	69.9230
 1.6260	69.9671
 1.6250	69.9553
 1.6240	69.9684
 1.6230	69.9834
 1.6220	69.9712
 1.6210	70.0222
 1.6200	69.8791
 1.6190	69.8730
 1.6180	69.9907
 1.6170	69.9369
 1.6160	69.9881
 1.6150	70.0303
 1.6140	70.0217
 1.6130	69.9757
 1.6120	70.0195
 1.6110	69.9672
 1.6100	69.9831
 1.6090	69.9706
 1.6080	69.9612
 1.6070	69.9526
 1.6060	70.0258
 1.6050	69.9466
 1.6040	69.9636
 1.6030	69.9582
 1.6020	69.9700
 1.6010	70.0034
 1.6000	70.0074
 1.5990	69.9491
 1.5980	69.9652
 1.5970	69.9729
 1.5960	70.0178
 1.5950	70.0004
 1.5940	70.0010
 1.5930	69.9781
 1.5920	70.0488
 1.5910	70.0112
 1.5900	69.9987
 1.5890	69.9115
 1.5880	69.9439
 1.5870	69.9322
 1.5860	69.9263
 1.5850	69.9567
 1.5840	69.9456
 1.5830	69.9511
 1.5820	70.0026
 1.5810	69.9032
 1.5800	69.9631
 1.5790	69.9211
 1.5780	69.9623
 1.5770	69.9210
 1.5760	69.9366
 1.5750	69.9125
 1.5740	69.9227
 1.5730	69.9589
 1.5720	69.9553
 1.5710	69.8789
 1.5700	69.9309
 1.5690	69.9197
 1.5680	69.9308
 1.5670	69.9184
 1.5660	69.9091
 1.5650	69.9633
 1.5640	69.9421
 1.5630	69.9334
 1.5620	69.9427
 1.5610	69.9357
 1.5600	69.9484
 1.5590	69.9431
 1.5580	69.9734
 1.5570	69.9291
 1.5560	69.9169
 1.5550	69.8839
 1.5540	69.8363
 1.5530	69.7949
 1.5520	69.9313
 1.5510	69.8676
 1.5500	69.9142
 1.5490	69.9382
 1.5480	69.9089
 1.5470	69.8390
 1.5460	69.8689
 1.5450	69.8468
 1.5440	69.8547
 1.5430	69.8291
 1.5420	69.8516
 1.5410	69.8314
 1.5400	69.8117
 1.5390	69.7968
 1.5380	69.7971
 1.5370	69.7644
 1.5360	69.8304
 1.5350	69.8126
 1.5340	69.7696
 1.5330	69.7975
 1.5320	69.8426
 1.5310	69.7807
 1.5300	69.7919
 1.5290	69.7797
 1.5280	69.7795
 1.5270	69.7841
 1.5260	69.7278
 1.5250	69.7214
 1.5240	69.6882
 1.5230	69.6916
 1.5220	69.6935
 1.5210	69.6705
 1.5200	69.6338
 1.5190	69.5699
 1.5180	69.5988
 1.5170	69.5886
 1.5160	69.5508
 1.5150	69.5331
 1.5140	69.5162
 1.5130	69.4745
 1.5120	69.4490
 1.5110	69.4215
 1.5100	69.3965
 1.5090	69.3666
 1.5080	69.3282
 1.5070	69.3251
 1.5060	69.3170
 1.5050	69.2945
 1.5040	69.3205
 1.5030	69.3141
 1.5020	69.2779
 1.5010	69.2507
 1.5000	69.2183
 1.4990	69.2294
 1.4980	69.2659
 1.4970	69.2737
 1.4960	69.2662
 1.4950	69.2732
 1.4940	69.2777
 1.4930	69.2556
 1.4920	69.2257
 1.4910	69.2630
 1.4900	69.2720
 1.4890	69.2709
 1.4880	69.2524
 1.4870	69.2110
 1.4860	69.1818
 1.4850	69.1628
 1.4840	69.1552
 1.4830	69.1549
 1.4820	69.0875
 1.4810	69.0193
 1.4800	68.9243
 1.4790	68.8790
 1.4780	68.8238
 1.4770	68.7155
 1.4760	68.5700
 1.4750	68.4157
 1.4740	68.1613
 1.4730	67.7584
 1.4720	67.1557
 1.4710	66.2593
 1.4700	65.0923
 1.4690	63.9785
 1.4680	63.2280
 1.4670	63.0406
 1.4660	63.5279
 1.4650	64.4813
 1.4640	65.4900
 1.4630	66.3218
 1.4620	66.9636
 1.4610	67.3712
 1.4600	67.6182
 1.4590	67.7858
 1.4580	67.8850
 1.4570	68.0248
 1.4560	68.0296
 1.4550	68.0759
 1.4540	68.0460
 1.4530	68.0086
 1.4520	67.9652
 1.4510	67.9340
 1.4500	67.8089
 1.4490	67.6757
 1.4480	67.4674
 1.4470	67.3175
 1.4460	67.1159
 1.4450	66.8826
 1.4440	66.7009
 1.4430	66.5144
 1.4420	66.3219
 1.4410	66.0770
 1.4400	65.8959
 1.4390	65.7728
 1.4380	65.6406
 1.4370	65.5127
 1.4360	65.3711
 1.4350	65.2538
 1.4340	65.1118
 1.4330	65.0072
 1.4320	64.9012
 1.4310	64.8351
 1.4300	64.7591
 1.4290	64.8728
 1.4280	64.8150
 1.4270	64.8393
 1.4260	64.7818
 1.4250	64.6659
 1.4240	64.4055
 1.4230	64.0696
 1.4220	63.5285
 1.4210	63.1796
 1.4200	62.8451
 1.4190	62.7209
 1.4180	62.6079
 1.4170	62.4622
 1.4160	62.2735
 1.4150	62.0631
 1.4140	61.7945
 1.4130	61.5734
 1.4120	61.1254
 1.4110	60.6560
 1.4100	60.1985
 1.4090	59.8615
 1.4080	59.5980
 1.4070	59.0382
 1.4060	57.8427
 1.4050	55.6299
 1.4040	52.0500
 1.4030	47.3062
 1.4020	42.3466
 1.4010	39.0258
 1.4000	38.9076
 1.3990	42.1794
 1.3980	47.2015
 1.3970	52.5554
 1.3960	56.9925
 1.3950	59.9651
 1.3940	61.7858
 1.3930	62.8574
 1.3920	63.6061
 1.3910	64.1823
 1.3900	64.4849
 1.3890	64.8109
 1.3880	65.0095
 1.3870	65.2180
 1.3860	65.2315
 1.3850	65.2103
 1.3840	65.2055
 1.3830	65.1590
 1.3820	65.0099
 1.3810	64.8977
 1.3800	64.7269
 1.3790	64.5814
 1.3780	64.1944
 1.3770	64.0102
 1.3760	63.5869
 1.3750	63.4706
 1.3740	63.2441
 1.3730	63.0918
 1.3720	62.9027
 1.3710	62.9493
 1.3700	62.8765
 1.3690	62.9644
 1.3680	62.9184
 1.3670	63.0761
