Name: Anglesite PbSO_4
Type: Mineral
Class: Sulfate
Subclass: None
Particle Size: Fine
Sample No.: SO-10A
Owner: JPL
Wavelength Range: VSWIR
Origin: USA, Arizona, Santa Cruz County, Glove Mine.
Collection Date: N/A
Description: Particle size was 0-45um. Collected by:  JPL Original ASTER Spectral Library name was jpl.perkin.mineral.sulfate.none.fine.so10a.spectrum.txt
Measurement: Hemispherical reflectance
First Column: X
Second Column: Y
X Units: Wavelength (micrometers)
Y Units:Reflectance (percent)
First X Value:  2.5000
Last X Value:  0.4000
Number of X Values: 2101
Additional Information: mineral.sulfate.none.fine.vswir.so-10a.jpl.perkin.ancillary.txt

 2.5000	69.9805
 2.4990	70.0681
 2.4980	70.2145
 2.4970	70.3222
 2.4960	70.2033
 2.4950	70.1922
 2.4940	70.3069
 2.4930	70.1535
 2.4920	70.1191
 2.4910	70.2113
 2.4900	70.1912
 2.4890	70.0837
 2.4880	70.2660
 2.4870	70.0445
 2.4860	70.1455
 2.4850	70.1953
 2.4840	70.2664
 2.4830	70.1241
 2.4820	70.1695
 2.4810	70.1546
 2.4800	70.2488
 2.4790	70.1647
 2.4780	70.2843
 2.4770	70.0937
 2.4760	70.2433
 2.4750	70.2980
 2.4740	70.1443
 2.4730	70.3102
 2.4720	70.2165
 2.4710	70.1859
 2.4700	70.3861
 2.4690	70.2584
 2.4680	70.2048
 2.4670	70.2052
 2.4660	70.2651
 2.4650	70.3533
 2.4640	70.4052
 2.4630	70.2422
 2.4620	70.3347
 2.4610	70.4078
 2.4600	70.4150
 2.4590	70.3563
 2.4580	70.3100
 2.4570	70.3662
 2.4560	70.3821
 2.4550	70.3551
 2.4540	70.4532
 2.4530	70.4783
 2.4520	70.4115
 2.4510	70.4116
 2.4500	70.3105
 2.4490	70.2577
 2.4480	70.4283
 2.4470	70.4726
 2.4460	70.3531
 2.4450	70.4447
 2.4440	70.5153
 2.4430	70.5132
 2.4420	70.4157
 2.4410	70.4258
 2.4400	70.5062
 2.4390	70.4849
 2.4380	70.4122
 2.4370	70.3034
 2.4360	70.4518
 2.4350	70.4622
 2.4340	70.4565
 2.4330	70.3921
 2.4320	70.4250
 2.4310	70.4859
 2.4300	70.4831
 2.4290	70.4936
 2.4280	70.4319
 2.4270	70.4641
 2.4260	70.5650
 2.4250	70.5274
 2.4240	70.4988
 2.4230	70.5292
 2.4220	70.5578
 2.4210	70.5057
 2.4200	70.3980
 2.4190	70.4537
 2.4180	70.5217
 2.4170	70.4647
 2.4160	70.5609
 2.4150	70.5247
 2.4140	70.5032
 2.4130	70.4918
 2.4120	70.5212
 2.4110	70.5864
 2.4100	70.5420
 2.4090	70.5805
 2.4080	70.5007
 2.4070	70.5333
 2.4060	70.5704
 2.4050	70.6065
 2.4040	70.5683
 2.4030	70.5803
 2.4020	70.6041
 2.4010	70.6136
 2.4000	70.5970
 2.3990	70.6707
 2.3980	70.5320
 2.3970	70.6094
 2.3960	70.7610
 2.3950	70.7315
 2.3940	70.6954
 2.3930	70.6687
 2.3920	70.7358
 2.3910	70.7923
 2.3900	70.6890
 2.3890	70.7146
 2.3880	70.7934
 2.3870	70.7497
 2.3860	70.7651
 2.3850	70.8586
 2.3840	70.8656
 2.3830	70.8216
 2.3820	70.8186
 2.3810	70.8390
 2.3800	70.9094
 2.3790	70.8945
 2.3780	70.9130
 2.3770	70.9012
 2.3760	70.9598
 2.3750	70.9148
 2.3740	70.8413
 2.3730	70.8975
 2.3720	70.9109
 2.3710	70.8667
 2.3700	70.9098
 2.3690	70.9267
 2.3680	70.9550
 2.3670	70.9867
 2.3660	70.9554
 2.3650	71.0021
 2.3640	71.0839
 2.3630	71.0981
 2.3620	71.0450
 2.3610	71.0070
 2.3600	71.0065
 2.3590	71.0282
 2.3580	71.1040
 2.3570	71.1710
 2.3560	71.1586
 2.3550	71.0927
 2.3540	71.1019
 2.3530	71.1261
 2.3520	71.0703
 2.3510	71.0465
 2.3500	71.1074
 2.3490	71.1493
 2.3480	71.1257
 2.3470	71.1213
 2.3460	71.1220
 2.3450	71.1152
 2.3440	71.1267
 2.3430	71.1667
 2.3420	71.1583
 2.3410	71.1256
 2.3400	71.1218
 2.3390	71.1265
 2.3380	71.1210
 2.3370	71.1164
 2.3360	71.0853
 2.3350	71.0956
 2.3340	71.0754
 2.3330	71.1008
 2.3320	71.0628
 2.3310	71.0854
 2.3300	71.0665
 2.3290	71.0609
 2.3280	71.0413
 2.3270	71.0010
 2.3260	71.0515
 2.3250	71.0550
 2.3240	71.0502
 2.3230	71.0537
 2.3220	71.0118
 2.3210	70.9908
 2.3200	71.0304
 2.3190	70.9901
 2.3180	71.0015
 2.3170	71.0031
 2.3160	70.9800
 2.3150	70.9435
 2.3140	70.9624
 2.3130	70.9711
 2.3120	70.9648
 2.3110	70.9570
 2.3100	70.9113
 2.3090	70.9192
 2.3080	70.8968
 2.3070	70.9666
 2.3060	70.9693
 2.3050	70.9721
 2.3040	70.9285
 2.3030	70.9469
 2.3020	70.8663
 2.3010	70.9081
 2.3000	70.9021
 2.2990	70.9391
 2.2980	70.9036
 2.2970	70.9139
 2.2960	70.8825
 2.2950	70.8887
 2.2940	70.9371
 2.2930	70.8972
 2.2920	70.8665
 2.2910	70.8423
 2.2900	70.8302
 2.2890	70.8327
 2.2880	70.8209
 2.2870	70.8218
 2.2860	70.7756
 2.2850	70.8491
 2.2840	70.8606
 2.2830	70.8195
 2.2820	70.8018
 2.2810	70.8024
 2.2800	70.8116
 2.2790	70.7784
 2.2780	70.7577
 2.2770	70.7997
 2.2760	70.7657
 2.2750	70.7949
 2.2740	70.7669
 2.2730	70.7434
 2.2720	70.7809
 2.2710	70.7533
 2.2700	70.7567
 2.2690	70.7198
 2.2680	70.6861
 2.2670	70.7072
 2.2660	70.7516
 2.2650	70.7534
 2.2640	70.6605
 2.2630	70.6705
 2.2620	70.6318
 2.2610	70.6577
 2.2600	70.6405
 2.2590	70.6844
 2.2580	70.6410
 2.2570	70.7211
 2.2560	70.6288
 2.2550	70.6418
 2.2540	70.6087
 2.2530	70.6617
 2.2520	70.6692
 2.2510	70.6420
 2.2500	70.7130
 2.2490	70.6527
 2.2480	70.6207
 2.2470	70.7151
 2.2460	70.6476
 2.2450	70.6788
 2.2440	70.6617
 2.2430	70.6119
 2.2420	70.5827
 2.2410	70.5939
 2.2400	70.5997
 2.2390	70.6264
 2.2380	70.6228
 2.2370	70.6669
 2.2360	70.6604
 2.2350	70.5787
 2.2340	70.6992
 2.2330	70.6351
 2.2320	70.6222
 2.2310	70.6153
 2.2300	70.6241
 2.2290	70.6969
 2.2280	70.6722
 2.2270	70.6225
 2.2260	70.6355
 2.2250	70.7008
 2.2240	70.6260
 2.2230	70.7111
 2.2220	70.6250
 2.2210	70.6033
 2.2200	70.6588
 2.2190	70.7209
 2.2180	70.6853
 2.2170	70.8036
 2.2160	70.7625
 2.2150	70.6491
 2.2140	70.8148
 2.2130	70.7793
 2.2120	70.7973
 2.2110	70.7951
 2.2100	70.7702
 2.2090	70.7751
 2.2080	70.8528
 2.2070	70.8077
 2.2060	70.9060
 2.2050	70.8919
 2.2040	70.8756
 2.2030	70.9753
 2.2020	70.8871
 2.2010	70.9885
 2.2000	70.9345
 2.1990	70.9070
 2.1980	70.9405
 2.1970	70.9837
 2.1960	71.0431
 2.1950	70.8940
 2.1940	70.9621
 2.1930	71.0385
 2.1920	71.0241
 2.1910	71.0197
 2.1900	71.0156
 2.1890	71.0489
 2.1880	71.0014
 2.1870	70.9886
 2.1860	71.0080
 2.1850	71.0518
 2.1840	71.1293
 2.1830	71.0764
 2.1820	71.0722
 2.1810	71.1295
 2.1800	71.0206
 2.1790	71.1780
 2.1780	71.1171
 2.1770	71.1929
 2.1760	71.2272
 2.1750	71.1854
 2.1740	71.2060
 2.1730	71.2566
 2.1720	71.2225
 2.1710	71.2267
 2.1700	71.2951
 2.1690	71.3370
 2.1680	71.3275
 2.1670	71.3550
 2.1660	71.3663
 2.1650	71.4048
 2.1640	71.4083
 2.1630	71.4563
 2.1620	71.4159
 2.1610	71.4292
 2.1600	71.5234
 2.1590	71.4926
 2.1580	71.5441
 2.1570	71.5381
 2.1560	71.5533
 2.1550	71.6462
 2.1540	71.5811
 2.1530	71.6417
 2.1520	71.5452
 2.1510	71.5474
 2.1500	71.5656
 2.1490	71.6628
 2.1480	71.6153
 2.1470	71.5918
 2.1460	71.6259
 2.1450	71.6235
 2.1440	71.5885
 2.1430	71.6050
 2.1420	71.6185
 2.1410	71.6039
 2.1400	71.6115
 2.1390	71.5783
 2.1380	71.5433
 2.1370	71.4583
 2.1360	71.5049
 2.1350	71.4925
 2.1340	71.4231
 2.1330	71.5192
 2.1320	71.4308
 2.1310	71.4101
 2.1300	71.3976
 2.1290	71.4019
 2.1280	71.3752
 2.1270	71.2752
 2.1260	71.2387
 2.1250	71.1997
 2.1240	71.1855
 2.1230	71.2090
 2.1220	71.1537
 2.1210	71.1419
 2.1200	71.0917
 2.1190	71.0792
 2.1180	71.0429
 2.1170	70.9937
 2.1160	70.9000
 2.1150	70.8138
 2.1140	70.8116
 2.1130	70.7681
 2.1120	70.7335
 2.1110	70.6860
 2.1100	70.6392
 2.1090	70.5808
 2.1080	70.5531
 2.1070	70.5481
 2.1060	70.4911
 2.1050	70.5116
 2.1040	70.4713
 2.1030	70.4390
 2.1020	70.4171
 2.1010	70.3919
 2.1000	70.3342
 2.0990	70.3117
 2.0980	70.3038
 2.0970	70.3496
 2.0960	70.3727
 2.0950	70.3416
 2.0940	70.3241
 2.0930	70.3607
 2.0920	70.3681
 2.0910	70.3445
 2.0900	70.3510
 2.0890	70.4155
 2.0880	70.4088
 2.0870	70.3454
 2.0860	70.3366
 2.0850	70.3711
 2.0840	70.3966
 2.0830	70.4645
 2.0820	70.4644
 2.0810	70.4656
 2.0800	70.4531
 2.0790	70.4246
 2.0780	70.4584
 2.0770	70.4981
 2.0760	70.4706
 2.0750	70.4203
 2.0740	70.4254
 2.0730	70.4752
 2.0720	70.4956
 2.0710	70.5546
 2.0700	70.5483
 2.0690	70.4821
 2.0680	70.5504
 2.0670	70.5735
 2.0660	70.4873
 2.0650	70.4876
 2.0640	70.5186
 2.0630	70.5223
 2.0620	70.5827
 2.0610	70.6108
 2.0600	70.5931
 2.0590	70.6161
 2.0580	70.6092
 2.0570	70.6017
 2.0560	70.6708
 2.0550	70.7030
 2.0540	70.6827
 2.0530	70.6710
 2.0520	70.6886
 2.0510	70.6765
 2.0500	70.6981
 2.0490	70.6785
 2.0480	70.7239
 2.0470	70.7814
 2.0460	70.7932
 2.0450	70.7540
 2.0440	70.7334
 2.0430	70.7036
 2.0420	70.6853
 2.0410	70.7484
 2.0400	70.7922
 2.0390	70.7372
 2.0380	70.7443
 2.0370	70.7418
 2.0360	70.7294
 2.0350	70.7401
 2.0340	70.7514
 2.0330	70.7480
 2.0320	70.7765
 2.0310	70.7728
 2.0300	70.7734
 2.0290	70.7960
 2.0280	70.8183
 2.0270	70.7879
 2.0260	70.7633
 2.0250	70.7676
 2.0240	70.7924
 2.0230	70.7243
 2.0220	70.6823
 2.0210	70.7390
 2.0200	70.7676
 2.0190	70.6825
 2.0180	70.7207
 2.0170	70.7550
 2.0160	70.7782
 2.0150	70.7395
 2.0140	70.7517
 2.0130	70.7395
 2.0120	70.7553
 2.0110	70.7705
 2.0100	70.8046
 2.0090	70.8041
 2.0080	70.8100
 2.0070	70.7459
 2.0060	70.7540
 2.0050	70.7780
 2.0040	70.7879
 2.0030	70.7481
 2.0020	70.7586
 2.0010	70.7151
 2.0000	70.7146
 1.9990	70.7119
 1.9980	70.7342
 1.9970	70.7336
 1.9960	70.7598
 1.9950	70.7102
 1.9940	70.7336
 1.9930	70.7041
 1.9920	70.6745
 1.9910	70.6109
 1.9900	70.6634
 1.9890	70.6432
 1.9880	70.6393
 1.9870	70.6216
 1.9860	70.6241
 1.9850	70.5364
 1.9840	70.5837
 1.9830	70.6166
 1.9820	70.5977
 1.9810	70.5093
 1.9800	70.4906
 1.9790	70.4910
 1.9780	70.4715
 1.9770	70.6101
 1.9760	70.5502
 1.9750	70.5030
 1.9740	70.4268
 1.9730	70.3850
 1.9720	70.5093
 1.9710	70.4694
 1.9700	70.5178
 1.9690	70.5145
 1.9680	70.5906
 1.9670	70.4734
 1.9660	70.4927
 1.9650	70.4117
 1.9640	70.4414
 1.9630	70.4051
 1.9620	70.3936
 1.9610	70.4117
 1.9600	70.4051
 1.9590	70.3958
 1.9580	70.3490
 1.9570	70.4173
 1.9560	70.4318
 1.9550	70.3746
 1.9540	70.4085
 1.9530	70.4672
 1.9520	70.4213
 1.9510	70.3503
 1.9500	70.4539
 1.9490	70.3883
 1.9480	70.4369
 1.9470	70.3904
 1.9460	70.3816
 1.9450	70.3871
 1.9440	70.4394
 1.9430	70.3863
 1.9420	70.3932
 1.9410	70.3718
 1.9400	70.4419
 1.9390	70.4157
 1.9380	70.5164
 1.9370	70.4202
 1.9360	70.4437
 1.9350	70.4251
 1.9340	70.4393
 1.9330	70.4965
 1.9320	70.4585
 1.9310	70.4225
 1.9300	70.4683
 1.9290	70.5364
 1.9280	70.5819
 1.9270	70.5739
 1.9260	70.4974
 1.9250	70.5315
 1.9240	70.4863
 1.9230	70.4969
 1.9220	70.5371
 1.9210	70.4742
 1.9200	70.5442
 1.9190	70.5603
 1.9180	70.5805
 1.9170	70.5958
 1.9160	70.6199
 1.9150	70.5633
 1.9140	70.6397
 1.9130	70.5291
 1.9120	70.6630
 1.9110	70.5595
 1.9100	70.5867
 1.9090	70.6716
 1.9080	70.6776
 1.9070	70.7191
 1.9060	70.6633
 1.9050	70.7411
 1.9040	70.7022
 1.9030	70.7185
 1.9020	70.7580
 1.9010	70.7417
 1.9000	70.7652
 1.8990	70.7464
 1.8980	70.7435
 1.8970	70.7364
 1.8960	70.8242
 1.8950	70.7542
 1.8940	70.7957
 1.8930	70.7702
 1.8920	70.8632
 1.8910	70.7871
 1.8900	70.8111
 1.8890	70.7866
 1.8880	70.8694
 1.8870	70.8681
 1.8860	70.9439
 1.8850	70.8726
 1.8840	70.8579
 1.8830	70.8676
 1.8820	70.9097
 1.8810	70.7798
 1.8800	70.8771
 1.8790	70.8525
 1.8780	70.9107
 1.8770	70.8788
 1.8760	70.8885
 1.8750	70.8912
 1.8740	70.9195
 1.8730	70.9461
 1.8720	70.8690
 1.8710	70.9058
 1.8700	70.8983
 1.8690	70.8551
 1.8680	70.9726
 1.8670	70.9099
 1.8660	70.9468
 1.8650	71.0156
 1.8640	70.9479
 1.8630	70.9710
 1.8620	70.9697
 1.8610	70.9759
 1.8600	70.9884
 1.8590	70.9515
 1.8580	70.9125
 1.8570	70.8937
 1.8560	71.0006
 1.8550	70.9283
 1.8540	70.9306
 1.8530	70.9246
 1.8520	71.0045
 1.8510	71.0264
 1.8500	70.9309
 1.8490	70.9240
 1.8480	70.9806
 1.8470	71.0085
 1.8460	70.9436
 1.8450	70.9988
 1.8440	71.0521
 1.8430	71.0438
 1.8420	70.9760
 1.8410	70.9590
 1.8400	70.9844
 1.8390	70.9515
 1.8380	70.9554
 1.8370	70.9193
 1.8360	70.9048
 1.8350	70.9774
 1.8340	71.0284
 1.8330	71.0018
 1.8320	70.9753
 1.8310	70.9966
 1.8300	70.9812
 1.8290	71.0079
 1.8280	71.0233
 1.8270	70.9621
 1.8260	70.9774
 1.8250	70.9865
 1.8240	70.9911
 1.8230	70.9778
 1.8220	71.0272
 1.8210	71.0075
 1.8200	70.9880
 1.8190	70.9774
 1.8180	71.0098
 1.8170	71.0353
 1.8160	71.0246
 1.8150	71.0056
 1.8140	71.0308
 1.8130	71.0165
 1.8120	70.9961
 1.8110	71.0068
 1.8100	71.0052
 1.8090	70.9892
 1.8080	70.9955
 1.8070	71.0159
 1.8060	71.0397
 1.8050	71.0494
 1.8040	71.0472
 1.8030	71.0335
 1.8020	71.0250
 1.8010	71.0687
 1.8000	71.1334
 1.7990	71.0806
 1.7980	71.0398
 1.7970	71.0449
 1.7960	71.0351
 1.7950	70.9902
 1.7940	70.9765
 1.7930	70.9742
 1.7920	70.9640
 1.7910	70.9773
 1.7900	71.0215
 1.7890	71.0014
 1.7880	70.9475
 1.7870	70.9736
 1.7860	71.0123
 1.7850	70.9818
 1.7840	70.9554
 1.7830	70.9507
 1.7820	70.9440
 1.7810	70.9425
 1.7800	70.8945
 1.7790	70.8899
 1.7780	70.9962
 1.7770	71.0226
 1.7760	70.9459
 1.7750	70.9425
 1.7740	70.9716
 1.7730	70.9319
 1.7720	70.8869
 1.7710	70.9060
 1.7700	70.9748
 1.7690	70.9844
 1.7680	70.9460
 1.7670	70.9303
 1.7660	70.9368
 1.7650	70.9267
 1.7640	70.8941
 1.7630	70.9157
 1.7620	70.9496
 1.7610	70.9012
 1.7600	70.8630
 1.7590	70.8890
 1.7580	70.9332
 1.7570	70.9536
 1.7560	70.9400
 1.7550	70.9727
 1.7540	70.9440
 1.7530	70.9203
 1.7520	70.9477
 1.7510	70.9769
 1.7500	70.9811
 1.7490	70.9915
 1.7480	70.9131
 1.7470	70.9577
 1.7460	70.9497
 1.7450	70.9636
 1.7440	70.9879
 1.7430	70.9794
 1.7420	70.9743
 1.7410	70.9912
 1.7400	70.9929
 1.7390	70.9665
 1.7380	70.9552
 1.7370	70.9420
 1.7360	70.9819
 1.7350	70.9859
 1.7340	70.9772
 1.7330	71.0386
 1.7320	71.0659
 1.7310	71.0558
 1.7300	71.0574
 1.7290	71.0937
 1.7280	71.0098
 1.7270	70.9705
 1.7260	71.0266
 1.7250	71.0491
 1.7240	70.9915
 1.7230	71.0431
 1.7220	71.0242
 1.7210	71.0237
 1.7200	71.0300
 1.7190	71.0370
 1.7180	71.0696
 1.7170	71.0312
 1.7160	70.9705
 1.7150	70.9813
 1.7140	70.9366
 1.7130	70.9915
 1.7120	70.9363
 1.7110	70.9354
 1.7100	70.9719
 1.7090	70.9714
 1.7080	70.9179
 1.7070	70.9610
 1.7060	70.9790
 1.7050	70.9617
 1.7040	70.9395
 1.7030	70.9444
 1.7020	70.9127
 1.7010	70.9042
 1.7000	70.9759
 1.6990	70.9576
 1.6980	70.9433
 1.6970	71.0047
 1.6960	70.9669
 1.6950	70.9308
 1.6940	70.8927
 1.6930	70.9188
 1.6920	70.9161
 1.6910	70.9247
 1.6900	70.9484
 1.6890	70.9150
 1.6880	70.9067
 1.6870	70.9364
 1.6860	70.9334
 1.6850	70.9116
 1.6840	70.8626
 1.6830	70.9234
 1.6820	70.9603
 1.6810	70.9311
 1.6800	70.9143
 1.6790	70.9528
 1.6780	70.9246
 1.6770	70.9003
 1.6760	70.9143
 1.6750	70.8884
 1.6740	70.9094
 1.6730	70.9407
 1.6720	70.8637
 1.6710	70.9189
 1.6700	70.9508
 1.6690	70.9279
 1.6680	70.8855
 1.6670	70.8550
 1.6660	70.8699
 1.6650	70.8957
 1.6640	70.8745
 1.6630	70.8834
 1.6620	70.9148
 1.6610	70.9369
 1.6600	70.9016
 1.6590	70.8931
 1.6580	70.8267
 1.6570	70.8954
 1.6560	70.8618
 1.6550	70.9347
 1.6540	70.8142
 1.6530	70.8950
 1.6520	70.8539
 1.6510	70.8156
 1.6500	70.9146
 1.6490	70.8264
 1.6480	70.8908
 1.6470	70.9231
 1.6460	70.8998
 1.6450	70.8776
 1.6440	70.9100
 1.6430	70.8677
 1.6420	70.8411
 1.6410	70.8430
 1.6400	70.8581
 1.6390	70.7958
 1.6380	70.7273
 1.6370	70.8591
 1.6360	70.9004
 1.6350	70.8638
 1.6340	70.8193
 1.6330	70.8604
 1.6320	70.8230
 1.6310	70.8651
 1.6300	70.7841
 1.6290	70.8613
 1.6280	70.8317
 1.6270	70.9079
 1.6260	70.7656
 1.6250	70.9023
 1.6240	70.8305
 1.6230	70.8541
 1.6220	70.8361
 1.6210	70.8471
 1.6200	70.8315
 1.6190	70.8392
 1.6180	70.8436
 1.6170	70.9236
 1.6160	70.8937
 1.6150	70.8375
 1.6140	70.8349
 1.6130	70.8691
 1.6120	70.8512
 1.6110	70.9120
 1.6100	70.8543
 1.6090	70.8404
 1.6080	70.8277
 1.6070	70.8808
 1.6060	70.8697
 1.6050	70.9186
 1.6040	70.8449
 1.6030	70.9032
 1.6020	70.9152
 1.6010	70.8569
 1.6000	70.8553
 1.5990	70.8746
 1.5980	70.8488
 1.5970	70.8802
 1.5960	70.8224
 1.5950	70.8350
 1.5940	70.8268
 1.5930	70.8679
 1.5920	70.8478
 1.5910	70.8859
 1.5900	70.7164
 1.5890	70.8265
 1.5880	70.8261
 1.5870	70.8395
 1.5860	70.8586
 1.5850	70.8052
 1.5840	70.7931
 1.5830	70.8415
 1.5820	70.8292
 1.5810	70.7808
 1.5800	70.7938
 1.5790	70.7845
 1.5780	70.8443
 1.5770	70.8181
 1.5760	70.8161
 1.5750	70.7757
 1.5740	70.7292
 1.5730	70.7207
 1.5720	70.7675
 1.5710	70.8081
 1.5700	70.8112
 1.5690	70.8219
 1.5680	70.7793
 1.5670	70.7491
 1.5660	70.7449
 1.5650	70.7510
 1.5640	70.7666
 1.5630	70.7596
 1.5620	70.7265
 1.5610	70.7512
 1.5600	70.8062
 1.5590	70.8207
 1.5580	70.7898
 1.5570	70.8341
 1.5560	70.7650
 1.5550	70.7750
 1.5540	70.7127
 1.5530	70.7551
 1.5520	70.7561
 1.5510	70.7003
 1.5500	70.7347
 1.5490	70.7482
 1.5480	70.6785
 1.5470	70.7208
 1.5460	70.7835
 1.5450	70.7520
 1.5440	70.7131
 1.5430	70.7754
 1.5420	70.7605
 1.5410	70.7844
 1.5400	70.7486
 1.5390	70.7321
 1.5380	70.7032
 1.5370	70.6940
 1.5360	70.6923
 1.5350	70.6787
 1.5340	70.6789
 1.5330	70.7133
 1.5320	70.7111
 1.5310	70.6644
 1.5300	70.7076
 1.5290	70.6573
 1.5280	70.5864
 1.5270	70.5804
 1.5260	70.6300
 1.5250	70.6550
 1.5240	70.6514
 1.5230	70.6746
 1.5220	70.6651
 1.5210	70.6471
 1.5200	70.6330
 1.5190	70.6152
 1.5180	70.6323
 1.5170	70.6012
 1.5160	70.6068
 1.5150	70.6287
 1.5140	70.6082
 1.5130	70.6390
 1.5120	70.5995
 1.5110	70.5814
 1.5100	70.5903
 1.5090	70.6024
 1.5080	70.6527
 1.5070	70.6466
 1.5060	70.6093
 1.5050	70.6226
 1.5040	70.6558
 1.5030	70.6013
 1.5020	70.6067
 1.5010	70.6592
 1.5000	70.6221
 1.4990	70.6011
 1.4980	70.6238
 1.4970	70.5772
 1.4960	70.5474
 1.4950	70.5314
 1.4940	70.5361
 1.4930	70.5421
 1.4920	70.5825
 1.4910	70.5581
 1.4900	70.5511
 1.4890	70.5496
 1.4880	70.5221
 1.4870	70.5328
 1.4860	70.5253
 1.4850	70.5226
 1.4840	70.5285
 1.4830	70.5164
 1.4820	70.5641
 1.4810	70.5745
 1.4800	70.5134
 1.4790	70.4402
 1.4780	70.4841
 1.4770	70.5540
 1.4760	70.6053
 1.4750	70.5367
 1.4740	70.4889
 1.4730	70.5393
 1.4720	70.5308
 1.4710	70.5008
 1.4700	70.4753
 1.4690	70.4777
 1.4680	70.4989
 1.4670	70.4911
 1.4660	70.4996
 1.4650	70.5221
 1.4640	70.5105
 1.4630	70.4868
 1.4620	70.4765
 1.4610	70.4555
 1.4600	70.5105
 1.4590	70.4337
 1.4580	70.4264
 1.4570	70.4750
 1.4560	70.5150
 1.4550	70.4959
 1.4540	70.4893
 1.4530	70.4634
 1.4520	70.4363
 1.4510	70.4401
 1.4500	70.4647
 1.4490	70.4759
 1.4480	70.4428
 1.4470	70.4394
 1.4460	70.4581
 1.4450	70.4371
 1.4440	70.3456
 1.4430	70.3775
 1.4420	70.4416
 1.4410	70.4247
 1.4400	70.4753
 1.4390	70.4662
 1.4380	70.5029
 1.4370	70.4139
 1.4360	70.4170
 1.4350	70.3837
 1.4340	70.3552
 1.4330	70.3393
 1.4320	70.4149
 1.4310	70.3872
 1.4300	70.4176
 1.4290	70.3519
 1.4280	70.3641
 1.4270	70.3839
 1.4260	70.3832
 1.4250	70.3636
 1.4240	70.4099
 1.4230	70.3881
 1.4220	70.4103
 1.4210	70.3307
 1.4200	70.3148
 1.4190	70.3201
 1.4180	70.3525
 1.4170	70.3800
 1.4160	70.3758
 1.4150	70.4017
 1.4140	70.3338
 1.4130	70.3767
 1.4120	70.3397
 1.4110	70.3583
 1.4100	70.3266
 1.4090	70.2984
 1.4080	70.3152
 1.4070	70.2947
 1.4060	70.3094
 1.4050	70.3151
 1.4040	70.3723
 1.4030	70.3473
 1.4020	70.3412
 1.4010	70.3172
 1.4000	70.3261
 1.3990	70.3086
 1.3980	70.3365
 1.3970	70.3924
 1.3960	70.3716
 1.3950	70.3236
 1.3940	70.4178
 1.3930	70.4133
 1.3920	70.3093
 1.3910	70.3679
 1.3900	70.3847
 1.3890	70.3477
 1.3880	70.3624
 1.3870	70.3421
 1.3860	70.3323
 1.3850	70.2998
 1.3840	70.3322
 1.3830	70.2953
 1.3820	70.3383
 1.3810	70.2803
 1.3800	70.3107
 1.3790	70.3592
 1.3780	70.2999
 1.3770	70.2943
 1.3760	70.2906
 1.3750	70.2561
 1.3740	70.3567
 1.3730	70.2672
 1.3720	70.3949
 1.3710	70.2578
 1.3700	70.3384
 1.3690	70.2741
 1.3680	70.2814
 1.3670	70.3202
 1.3660	70.2838
 1.3650	70.2667
