Name: Almandine Garnet Fe_3Al_2(SiO_4)_3
Type: Mineral
Class: Silicate
Subclass: Nesosilicate
Particle Size: Medium
Sample No.: NS-4A
Owner: JPL
Wavelength Range: VSWIR
Origin: USA, Arizona, Graham County, Stanley Butte.
Collection Date: N/A
Description: Particle size was 45-125um.Collected by:  Burminco Original ASTER Spectral Library name was jpl.perkin.mineral.silicate.nesosilicate.medium.ns04a.spectrum.txt
Measurement: Hemispherical reflectance
First Column: X
Second Column: Y
X Units: Wavelength (micrometers)
Y Units:Reflectance (percent)
First X Value:  2.5000
Last X Value:  0.4000
Number of X Values: 2101
Additional Information: mineral.silicate.nesosilicate.medium.vswir.ns-4a.jpl.perkin.ancillary.txt

 2.5000	30.9599
 2.4990	30.4837
 2.4980	30.8012
 2.4970	30.7967
 2.4960	30.4359
 2.4950	30.6159
 2.4940	30.6249
 2.4930	30.4506
 2.4920	30.6412
 2.4910	30.4441
 2.4900	30.5881
 2.4890	30.5076
 2.4880	30.4300
 2.4870	30.2778
 2.4860	30.5640
 2.4850	30.2709
 2.4840	30.5436
 2.4830	30.3747
 2.4820	30.4239
 2.4810	30.2855
 2.4800	30.5315
 2.4790	30.1924
 2.4780	30.3355
 2.4770	30.1377
 2.4760	30.1862
 2.4750	30.0495
 2.4740	30.2798
 2.4730	30.0368
 2.4720	30.0871
 2.4710	30.0386
 2.4700	30.0140
 2.4690	29.9239
 2.4680	30.2102
 2.4670	29.8766
 2.4660	30.0996
 2.4650	29.8455
 2.4640	30.0774
 2.4630	29.8315
 2.4620	30.0604
 2.4610	29.8692
 2.4600	29.7943
 2.4590	29.7887
 2.4580	29.8511
 2.4570	29.6803
 2.4560	29.7469
 2.4550	29.8515
 2.4540	29.7743
 2.4530	29.6708
 2.4520	29.7793
 2.4510	29.6443
 2.4500	29.7838
 2.4490	29.6050
 2.4480	29.6823
 2.4470	29.5224
 2.4460	29.6820
 2.4450	29.5562
 2.4440	29.5608
 2.4430	29.4612
 2.4420	29.4919
 2.4410	29.4620
 2.4400	29.4804
 2.4390	29.4214
 2.4380	29.5293
 2.4370	29.4211
 2.4360	29.4308
 2.4350	29.4407
 2.4340	29.4384
 2.4330	29.3820
 2.4320	29.3949
 2.4310	29.2829
 2.4300	29.3786
 2.4290	29.2102
 2.4280	29.2992
 2.4270	29.1849
 2.4260	29.2604
 2.4250	29.1856
 2.4240	29.2542
 2.4230	29.1484
 2.4220	29.2055
 2.4210	29.0976
 2.4200	29.1940
 2.4190	29.1168
 2.4180	29.1374
 2.4170	29.0268
 2.4160	29.1214
 2.4150	29.1237
 2.4140	29.0431
 2.4130	28.9833
 2.4120	29.0100
 2.4110	28.9675
 2.4100	28.9830
 2.4090	28.9499
 2.4080	28.9436
 2.4070	28.9217
 2.4060	28.9124
 2.4050	28.8457
 2.4040	28.9357
 2.4030	28.8446
 2.4020	28.8935
 2.4010	28.8878
 2.4000	28.8744
 2.3990	28.7413
 2.3980	28.8102
 2.3970	28.8166
 2.3960	28.8605
 2.3950	28.6853
 2.3940	28.7420
 2.3930	28.7236
 2.3920	28.7503
 2.3910	28.7369
 2.3900	28.7071
 2.3890	28.6338
 2.3880	28.6833
 2.3870	28.6376
 2.3860	28.6845
 2.3850	28.6332
 2.3840	28.6725
 2.3830	28.6986
 2.3820	28.7061
 2.3810	28.6516
 2.3800	28.6363
 2.3790	28.6437
 2.3780	28.6650
 2.3770	28.6276
 2.3760	28.6182
 2.3750	28.5789
 2.3740	28.5797
 2.3730	28.5559
 2.3720	28.5607
 2.3710	28.5280
 2.3700	28.5740
 2.3690	28.5873
 2.3680	28.5059
 2.3670	28.4973
 2.3660	28.4991
 2.3650	28.4559
 2.3640	28.4633
 2.3630	28.4673
 2.3620	28.4496
 2.3610	28.4349
 2.3600	28.4395
 2.3590	28.4471
 2.3580	28.4284
 2.3570	28.4035
 2.3560	28.4091
 2.3550	28.3621
 2.3540	28.3507
 2.3530	28.4017
 2.3520	28.3541
 2.3510	28.3192
 2.3500	28.3556
 2.3490	28.3301
 2.3480	28.3052
 2.3470	28.3128
 2.3460	28.3047
 2.3450	28.2794
 2.3440	28.2727
 2.3430	28.2618
 2.3420	28.2326
 2.3410	28.2669
 2.3400	28.2159
 2.3390	28.2282
 2.3380	28.2208
 2.3370	28.2174
 2.3360	28.2019
 2.3350	28.1778
 2.3340	28.1689
 2.3330	28.1446
 2.3320	28.1050
 2.3310	28.1104
 2.3300	28.0585
 2.3290	28.0898
 2.3280	28.0941
 2.3270	28.1707
 2.3260	28.1357
 2.3250	28.0701
 2.3240	28.0836
 2.3230	28.1053
 2.3220	28.0125
 2.3210	28.0292
 2.3200	28.0196
 2.3190	28.0574
 2.3180	28.0734
 2.3170	28.0842
 2.3160	28.0487
 2.3150	28.0639
 2.3140	28.0081
 2.3130	27.9911
 2.3120	27.9573
 2.3110	28.0385
 2.3100	28.0140
 2.3090	28.0053
 2.3080	27.9945
 2.3070	28.0181
 2.3060	27.9638
 2.3050	27.9569
 2.3040	27.9636
 2.3030	28.0154
 2.3020	27.9412
 2.3010	27.9646
 2.3000	27.9750
 2.2990	27.9963
 2.2980	27.9453
 2.2970	28.0048
 2.2960	27.9317
 2.2950	27.9970
 2.2940	27.9640
 2.2930	27.9525
 2.2920	27.9366
 2.2910	28.0165
 2.2900	27.9471
 2.2890	27.9501
 2.2880	27.9370
 2.2870	27.9616
 2.2860	27.9189
 2.2850	28.0335
 2.2840	27.9736
 2.2830	28.0404
 2.2820	28.0003
 2.2810	27.9545
 2.2800	28.0205
 2.2790	27.9835
 2.2780	27.9203
 2.2770	27.9902
 2.2760	27.8958
 2.2750	27.9322
 2.2740	27.9305
 2.2730	27.9856
 2.2720	27.8886
 2.2710	28.0064
 2.2700	27.9160
 2.2690	27.9444
 2.2680	27.9071
 2.2670	27.9733
 2.2660	27.8894
 2.2650	27.9436
 2.2640	27.9328
 2.2630	27.9840
 2.2620	27.9060
 2.2610	28.0374
 2.2600	27.9484
 2.2590	27.9552
 2.2580	27.9280
 2.2570	27.9864
 2.2560	27.9454
 2.2550	28.0330
 2.2540	28.0033
 2.2530	28.0292
 2.2520	27.9742
 2.2510	28.0103
 2.2500	27.9057
 2.2490	27.9940
 2.2480	27.9606
 2.2470	28.0412
 2.2460	28.0405
 2.2450	28.0800
 2.2440	27.9313
 2.2430	28.0302
 2.2420	28.0203
 2.2410	28.0899
 2.2400	28.0245
 2.2390	28.0678
 2.2380	28.0702
 2.2370	28.1642
 2.2360	28.0376
 2.2350	28.2118
 2.2340	28.0650
 2.2330	28.1389
 2.2320	28.0825
 2.2310	28.1541
 2.2300	28.0654
 2.2290	28.1982
 2.2280	28.1765
 2.2270	28.1645
 2.2260	28.1276
 2.2250	28.2751
 2.2240	28.1060
 2.2230	28.2406
 2.2220	28.2426
 2.2210	28.2234
 2.2200	28.1842
 2.2190	28.2803
 2.2180	28.2763
 2.2170	28.3013
 2.2160	28.2577
 2.2150	28.3529
 2.2140	28.2454
 2.2130	28.3689
 2.2120	28.4159
 2.2110	28.3125
 2.2100	28.4050
 2.2090	28.4603
 2.2080	28.2468
 2.2070	28.4008
 2.2060	28.4182
 2.2050	28.4645
 2.2040	28.4561
 2.2030	28.5219
 2.2020	28.4767
 2.2010	28.5439
 2.2000	28.4414
 2.1990	28.5719
 2.1980	28.5425
 2.1970	28.5883
 2.1960	28.4921
 2.1950	28.5485
 2.1940	28.5890
 2.1930	28.6348
 2.1920	28.6344
 2.1910	28.7097
 2.1900	28.5982
 2.1890	28.7165
 2.1880	28.6807
 2.1870	28.7403
 2.1860	28.6376
 2.1850	28.7222
 2.1840	28.6623
 2.1830	28.8188
 2.1820	28.7495
 2.1810	28.8337
 2.1800	28.7771
 2.1790	28.8669
 2.1780	28.7845
 2.1770	28.8896
 2.1760	28.8024
 2.1750	28.9410
 2.1740	28.9223
 2.1730	28.9805
 2.1720	28.9454
 2.1710	29.0077
 2.1700	28.9060
 2.1690	29.0360
 2.1680	29.0339
 2.1670	29.1055
 2.1660	29.0710
 2.1650	29.0871
 2.1640	29.0765
 2.1630	29.1311
 2.1620	29.0993
 2.1610	29.2530
 2.1600	29.1794
 2.1590	29.2731
 2.1580	29.1829
 2.1570	29.3326
 2.1560	29.2939
 2.1550	29.2903
 2.1540	29.2797
 2.1530	29.3775
 2.1520	29.3225
 2.1510	29.3867
 2.1500	29.3721
 2.1490	29.4613
 2.1480	29.4471
 2.1470	29.4081
 2.1460	29.4592
 2.1450	29.4716
 2.1440	29.4755
 2.1430	29.5088
 2.1420	29.4746
 2.1410	29.5189
 2.1400	29.4563
 2.1390	29.5072
 2.1380	29.5195
 2.1370	29.5272
 2.1360	29.4777
 2.1350	29.5334
 2.1340	29.5170
 2.1330	29.6391
 2.1320	29.5367
 2.1310	29.5937
 2.1300	29.5671
 2.1290	29.5474
 2.1280	29.5179
 2.1270	29.5768
 2.1260	29.5513
 2.1250	29.5535
 2.1240	29.5129
 2.1230	29.5835
 2.1220	29.5575
 2.1210	29.5227
 2.1200	29.5199
 2.1190	29.5016
 2.1180	29.4781
 2.1170	29.5235
 2.1160	29.4843
 2.1150	29.5270
 2.1140	29.5354
 2.1130	29.5840
 2.1120	29.5684
 2.1110	29.5185
 2.1100	29.4648
 2.1090	29.5602
 2.1080	29.5070
 2.1070	29.5249
 2.1060	29.4904
 2.1050	29.4845
 2.1040	29.4866
 2.1030	29.5040
 2.1020	29.5045
 2.1010	29.5267
 2.1000	29.4849
 2.0990	29.4768
 2.0980	29.4663
 2.0970	29.4970
 2.0960	29.5293
 2.0950	29.6149
 2.0940	29.6048
 2.0930	29.5842
 2.0920	29.5551
 2.0910	29.6135
 2.0900	29.6624
 2.0890	29.6599
 2.0880	29.6716
 2.0870	29.7000
 2.0860	29.7454
 2.0850	29.7171
 2.0840	29.7288
 2.0830	29.7814
 2.0820	29.7487
 2.0810	29.7599
 2.0800	29.8051
 2.0790	29.8471
 2.0780	29.8129
 2.0770	29.8520
 2.0760	29.8956
 2.0750	29.8724
 2.0740	29.8841
 2.0730	29.8847
 2.0720	29.8921
 2.0710	29.9274
 2.0700	29.9295
 2.0690	29.9468
 2.0680	29.9581
 2.0670	29.9761
 2.0660	30.0147
 2.0650	29.9857
 2.0640	30.0214
 2.0630	30.0378
 2.0620	30.0303
 2.0610	30.0861
 2.0600	30.1171
 2.0590	30.1211
 2.0580	30.1519
 2.0570	30.1458
 2.0560	30.1094
 2.0550	30.1378
 2.0540	30.2023
 2.0530	30.2139
 2.0520	30.2097
 2.0510	30.2250
 2.0500	30.2971
 2.0490	30.2232
 2.0480	30.2564
 2.0470	30.2726
 2.0460	30.2563
 2.0450	30.2933
 2.0440	30.2852
 2.0430	30.2800
 2.0420	30.3220
 2.0410	30.3389
 2.0400	30.4147
 2.0390	30.3721
 2.0380	30.3859
 2.0370	30.4336
 2.0360	30.4550
 2.0350	30.3768
 2.0340	30.4037
 2.0330	30.4301
 2.0320	30.4636
 2.0310	30.4319
 2.0300	30.4414
 2.0290	30.4489
 2.0280	30.5364
 2.0270	30.4918
 2.0260	30.5009
 2.0250	30.4934
 2.0240	30.5552
 2.0230	30.5342
 2.0220	30.4933
 2.0210	30.4950
 2.0200	30.5656
 2.0190	30.5769
 2.0180	30.5451
 2.0170	30.5501
 2.0160	30.6319
 2.0150	30.5440
 2.0140	30.6476
 2.0130	30.6111
 2.0120	30.6691
 2.0110	30.6187
 2.0100	30.6206
 2.0090	30.5823
 2.0080	30.6200
 2.0070	30.6447
 2.0060	30.6772
 2.0050	30.6221
 2.0040	30.7150
 2.0030	30.6778
 2.0020	30.6686
 2.0010	30.6682
 2.0000	30.7096
 1.9990	30.6989
 1.9980	30.7245
 1.9970	30.6953
 1.9960	30.7348
 1.9950	30.6728
 1.9940	30.7029
 1.9930	30.6957
 1.9920	30.6920
 1.9910	30.6310
 1.9900	30.6712
 1.9890	30.7035
 1.9880	30.6876
 1.9870	30.6569
 1.9860	30.7089
 1.9850	30.6597
 1.9840	30.7394
 1.9830	30.6546
 1.9820	30.6870
 1.9810	30.6545
 1.9800	30.6837
 1.9790	30.6714
 1.9780	30.7048
 1.9770	30.5839
 1.9760	30.6728
 1.9750	30.6565
 1.9740	30.6124
 1.9730	30.6438
 1.9720	30.7275
 1.9710	30.6173
 1.9700	30.6805
 1.9690	30.6165
 1.9680	30.7104
 1.9670	30.6130
 1.9660	30.6893
 1.9650	30.6260
 1.9640	30.6792
 1.9630	30.6309
 1.9620	30.6924
 1.9610	30.6385
 1.9600	30.6590
 1.9590	30.5829
 1.9580	30.5926
 1.9570	30.5493
 1.9560	30.6562
 1.9550	30.5824
 1.9540	30.6452
 1.9530	30.5991
 1.9520	30.6687
 1.9510	30.5399
 1.9500	30.6737
 1.9490	30.5534
 1.9480	30.6761
 1.9470	30.5286
 1.9460	30.6120
 1.9450	30.5526
 1.9440	30.5160
 1.9430	30.6124
 1.9420	30.6823
 1.9410	30.5549
 1.9400	30.5848
 1.9390	30.5773
 1.9380	30.5944
 1.9370	30.5115
 1.9360	30.5230
 1.9350	30.5387
 1.9340	30.5513
 1.9330	30.5733
 1.9320	30.6465
 1.9310	30.4280
 1.9300	30.5158
 1.9290	30.4695
 1.9280	30.6141
 1.9270	30.5627
 1.9260	30.4336
 1.9250	30.4698
 1.9240	30.5374
 1.9230	30.4726
 1.9220	30.4840
 1.9210	30.3829
 1.9200	30.4974
 1.9190	30.3789
 1.9180	30.5454
 1.9170	30.3682
 1.9160	30.4346
 1.9150	30.3705
 1.9140	30.4140
 1.9130	30.3932
 1.9120	30.3985
 1.9110	30.3771
 1.9100	30.4217
 1.9090	30.3600
 1.9080	30.3503
 1.9070	30.2826
 1.9060	30.4228
 1.9050	30.2774
 1.9040	30.3740
 1.9030	30.2744
 1.9020	30.3255
 1.9010	30.2988
 1.9000	30.3379
 1.8990	30.2080
 1.8980	30.2322
 1.8970	30.1986
 1.8960	30.3306
 1.8950	30.2132
 1.8940	30.2816
 1.8930	30.1843
 1.8920	30.2412
 1.8910	30.1509
 1.8900	30.1958
 1.8890	30.1521
 1.8880	30.1757
 1.8870	30.0820
 1.8860	30.1871
 1.8850	30.0946
 1.8840	30.1788
 1.8830	30.0536
 1.8820	30.1207
 1.8810	30.0051
 1.8800	30.0914
 1.8790	30.0535
 1.8780	30.0789
 1.8770	29.9901
 1.8760	30.0613
 1.8750	29.9585
 1.8740	30.0096
 1.8730	29.9393
 1.8720	30.0210
 1.8710	29.8681
 1.8700	29.9077
 1.8690	29.8546
 1.8680	29.8568
 1.8670	29.8106
 1.8660	29.8672
 1.8650	29.7791
 1.8640	29.8009
 1.8630	29.7431
 1.8620	29.7695
 1.8610	29.6749
 1.8600	29.7658
 1.8590	29.6576
 1.8580	29.6025
 1.8570	29.5798
 1.8560	29.6059
 1.8550	29.5616
 1.8540	29.5852
 1.8530	29.4842
 1.8520	29.5317
 1.8510	29.4399
 1.8500	29.5314
 1.8490	29.4535
 1.8480	29.4439
 1.8470	29.3426
 1.8460	29.3767
 1.8450	29.3413
 1.8440	29.3456
 1.8430	29.2979
 1.8420	29.3548
 1.8410	29.2500
 1.8400	29.2402
 1.8390	29.1793
 1.8380	29.2101
 1.8370	29.1304
 1.8360	29.1617
 1.8350	29.0751
 1.8340	29.1034
 1.8330	29.0764
 1.8320	29.1111
 1.8310	28.9808
 1.8300	28.9911
 1.8290	28.9497
 1.8280	28.9534
 1.8270	28.9125
 1.8260	28.9046
 1.8250	28.8827
 1.8240	28.8570
 1.8230	28.7853
 1.8220	28.7998
 1.8210	28.7224
 1.8200	28.6866
 1.8190	28.6954
 1.8180	28.7016
 1.8170	28.6099
 1.8160	28.6290
 1.8150	28.6072
 1.8140	28.5906
 1.8130	28.5579
 1.8120	28.5125
 1.8110	28.5048
 1.8100	28.5067
 1.8090	28.4489
 1.8080	28.4424
 1.8070	28.4203
 1.8060	28.3832
 1.8050	28.3796
 1.8040	28.3680
 1.8030	28.2944
 1.8020	28.3006
 1.8010	28.2844
 1.8000	28.2458
 1.7990	28.2252
 1.7980	28.1978
 1.7970	28.1708
 1.7960	28.1449
 1.7950	28.0933
 1.7940	28.0646
 1.7930	28.0235
 1.7920	28.0211
 1.7910	27.9942
 1.7900	28.0036
 1.7890	28.0265
 1.7880	27.9106
 1.7870	27.9132
 1.7860	27.9392
 1.7850	27.8669
 1.7840	27.8103
 1.7830	27.8144
 1.7820	27.7960
 1.7810	27.7126
 1.7800	27.6694
 1.7790	27.6806
 1.7780	27.6634
 1.7770	27.6448
 1.7760	27.5714
 1.7750	27.6025
 1.7740	27.5800
 1.7730	27.5397
 1.7720	27.5050
 1.7710	27.5006
 1.7700	27.4154
 1.7690	27.4244
 1.7680	27.4296
 1.7670	27.4383
 1.7660	27.3723
 1.7650	27.3404
 1.7640	27.3142
 1.7630	27.3000
 1.7620	27.2902
 1.7610	27.3019
 1.7600	27.2583
 1.7590	27.2233
 1.7580	27.2020
 1.7570	27.2215
 1.7560	27.1668
 1.7550	27.1513
 1.7540	27.1180
 1.7530	27.1032
 1.7520	27.0895
 1.7510	27.0418
 1.7500	27.0015
 1.7490	27.0788
 1.7480	26.9877
 1.7470	26.9740
 1.7460	26.9672
 1.7450	26.9764
 1.7440	26.9364
 1.7430	26.9183
 1.7420	26.8552
 1.7410	26.9200
 1.7400	26.8412
 1.7390	26.8265
 1.7380	26.8301
 1.7370	26.8379
 1.7360	26.8092
 1.7350	26.8146
 1.7340	26.7450
 1.7330	26.7351
 1.7320	26.6654
 1.7310	26.7411
 1.7300	26.7221
 1.7290	26.7767
 1.7280	26.6406
 1.7270	26.6540
 1.7260	26.5887
 1.7250	26.6395
 1.7240	26.6109
 1.7230	26.6405
 1.7220	26.6180
 1.7210	26.6456
 1.7200	26.5628
 1.7190	26.5937
 1.7180	26.5309
 1.7170	26.5522
 1.7160	26.5253
 1.7150	26.5192
 1.7140	26.4915
 1.7130	26.5115
 1.7120	26.4506
 1.7110	26.4900
 1.7100	26.3871
 1.7090	26.4818
 1.7080	26.4123
 1.7070	26.4016
 1.7060	26.3558
 1.7050	26.3893
 1.7040	26.3066
 1.7030	26.3852
 1.7020	26.3568
 1.7010	26.3249
 1.7000	26.2804
 1.6990	26.3834
 1.6980	26.2850
 1.6970	26.3265
 1.6960	26.2803
 1.6950	26.2814
 1.6940	26.2120
 1.6930	26.3295
 1.6920	26.2612
 1.6910	26.2771
 1.6900	26.1581
 1.6890	26.2787
 1.6880	26.2110
 1.6870	26.3293
 1.6860	26.2367
 1.6850	26.2854
 1.6840	26.2412
 1.6830	26.2233
 1.6820	26.1957
 1.6810	26.2725
 1.6800	26.2351
 1.6790	26.3040
 1.6780	26.1543
 1.6770	26.2424
 1.6760	26.2113
 1.6750	26.2605
 1.6740	26.1544
 1.6730	26.2262
 1.6720	26.1802
 1.6710	26.2206
 1.6700	26.1476
 1.6690	26.2398
 1.6680	26.1159
 1.6670	26.3443
 1.6660	26.1486
 1.6650	26.2407
 1.6640	26.1405
 1.6630	26.1737
 1.6620	26.1266
 1.6610	26.2705
 1.6600	26.1608
 1.6590	26.2330
 1.6580	26.2107
 1.6570	26.2281
 1.6560	26.1825
 1.6550	26.2587
 1.6540	26.2586
 1.6530	26.3285
 1.6520	26.1655
 1.6510	26.3127
 1.6500	26.2494
 1.6490	26.3524
 1.6480	26.2033
 1.6470	26.3510
 1.6460	26.3046
 1.6450	26.3766
 1.6440	26.2569
 1.6430	26.3339
 1.6420	26.3133
 1.6410	26.2308
 1.6400	26.3556
 1.6390	26.3924
 1.6380	26.2692
 1.6370	26.4112
 1.6360	26.2481
 1.6350	26.4030
 1.6340	26.4312
 1.6330	26.4039
 1.6320	26.3745
 1.6310	26.4467
 1.6300	26.4090
 1.6290	26.4965
 1.6280	26.4556
 1.6270	26.4978
 1.6260	26.4854
 1.6250	26.4967
 1.6240	26.4666
 1.6230	26.5012
 1.6220	26.4792
 1.6210	26.5575
 1.6200	26.4945
 1.6190	26.6008
 1.6180	26.5666
 1.6170	26.6302
 1.6160	26.5405
 1.6150	26.6049
 1.6140	26.6113
 1.6130	26.6865
 1.6120	26.6016
 1.6110	26.7145
 1.6100	26.6368
 1.6090	26.6496
 1.6080	26.6749
 1.6070	26.7780
 1.6060	26.7347
 1.6050	26.8180
 1.6040	26.7287
 1.6030	26.8247
 1.6020	26.7752
 1.6010	26.8369
 1.6000	26.8229
 1.5990	26.8823
 1.5980	26.8499
 1.5970	26.9004
 1.5960	26.8662
 1.5950	26.9755
 1.5940	26.9645
 1.5930	26.9650
 1.5920	26.9622
 1.5910	26.9948
 1.5900	26.9897
 1.5890	27.0284
 1.5880	27.0152
 1.5870	27.0601
 1.5860	27.0602
 1.5850	27.1257
 1.5840	27.0528
 1.5830	27.1475
 1.5820	27.0677
 1.5810	27.1526
 1.5800	27.1654
 1.5790	27.1798
 1.5780	27.1670
 1.5770	27.2019
 1.5760	27.2450
 1.5750	27.2782
 1.5740	27.2356
 1.5730	27.3264
 1.5720	27.3125
 1.5710	27.3613
 1.5700	27.3291
 1.5690	27.3249
 1.5680	27.3227
 1.5670	27.4067
 1.5660	27.3553
 1.5650	27.4302
 1.5640	27.3763
 1.5630	27.4330
 1.5620	27.4408
 1.5610	27.5028
 1.5600	27.4353
 1.5590	27.5244
 1.5580	27.5238
 1.5570	27.5176
 1.5560	27.5369
 1.5550	27.5665
 1.5540	27.5141
 1.5530	27.6137
 1.5520	27.5598
 1.5510	27.6430
 1.5500	27.6501
 1.5490	27.6397
 1.5480	27.6447
 1.5470	27.6975
 1.5460	27.6582
 1.5450	27.6857
 1.5440	27.6623
 1.5430	27.7371
 1.5420	27.6812
 1.5410	27.7444
 1.5400	27.7152
 1.5390	27.7614
 1.5380	27.7619
 1.5370	27.7900
 1.5360	27.7831
 1.5350	27.8418
 1.5340	27.8375
 1.5330	27.8387
 1.5320	27.7701
 1.5310	27.8490
 1.5300	27.8030
 1.5290	27.8235
 1.5280	27.8428
 1.5270	27.8331
 1.5260	27.8230
 1.5250	27.8562
 1.5240	27.8926
 1.5230	27.9465
 1.5220	27.9135
 1.5210	27.9106
 1.5200	27.8524
 1.5190	27.8596
 1.5180	27.8869
 1.5170	27.8718
 1.5160	27.9021
 1.5150	27.9438
 1.5140	27.8714
 1.5130	27.8858
 1.5120	27.8964
 1.5110	27.8951
 1.5100	27.9240
 1.5090	27.9396
 1.5080	27.9451
 1.5070	27.9346
 1.5060	27.9096
 1.5050	27.9160
 1.5040	27.8979
 1.5030	27.9083
 1.5020	27.8982
 1.5010	27.8709
 1.5000	27.8741
 1.4990	27.8594
 1.4980	27.9078
 1.4970	27.8994
 1.4960	27.8535
 1.4950	27.8378
 1.4940	27.8320
 1.4930	27.8746
 1.4920	27.8547
 1.4910	27.7626
 1.4900	27.7726
 1.4890	27.7891
 1.4880	27.7983
 1.4870	27.7361
 1.4860	27.7344
 1.4850	27.7650
 1.4840	27.7740
 1.4830	27.7253
 1.4820	27.6457
 1.4810	27.6491
 1.4800	27.6507
 1.4790	27.6096
 1.4780	27.6599
 1.4770	27.6132
 1.4760	27.5716
 1.4750	27.5666
 1.4740	27.5762
 1.4730	27.4688
 1.4720	27.4738
 1.4710	27.4747
 1.4700	27.4558
 1.4690	27.3920
 1.4680	27.3704
 1.4670	27.3375
 1.4660	27.3620
 1.4650	27.3161
 1.4640	27.2719
 1.4630	27.2448
 1.4620	27.2127
 1.4610	27.1075
 1.4600	27.1393
 1.4590	27.1231
 1.4580	27.1003
 1.4570	27.0409
 1.4560	27.0327
 1.4550	26.9422
 1.4540	26.9397
 1.4530	26.9139
 1.4520	26.9339
 1.4510	26.8298
 1.4500	26.7841
 1.4490	26.7166
 1.4480	26.7104
 1.4470	26.6191
 1.4460	26.6077
 1.4450	26.5655
 1.4440	26.5642
 1.4430	26.4954
 1.4420	26.4859
 1.4410	26.3666
 1.4400	26.3723
 1.4390	26.3346
 1.4380	26.3059
 1.4370	26.2284
 1.4360	26.2349
 1.4350	26.1214
 1.4340	26.1580
 1.4330	26.0626
 1.4320	26.0389
 1.4310	25.9704
 1.4300	25.9245
 1.4290	25.8647
 1.4280	25.8288
 1.4270	25.7704
 1.4260	25.7484
 1.4250	25.6587
 1.4240	25.6261
 1.4230	25.5120
 1.4220	25.5576
 1.4210	25.4098
 1.4200	25.4007
 1.4190	25.3167
 1.4180	25.3315
 1.4170	25.2001
 1.4160	25.2252
 1.4150	25.0610
 1.4140	25.0679
 1.4130	24.9501
 1.4120	24.9785
 1.4110	24.8804
 1.4100	24.8681
 1.4090	24.7583
 1.4080	24.7289
 1.4070	24.5809
 1.4060	24.5945
 1.4050	24.5311
 1.4040	24.5027
 1.4030	24.3642
 1.4020	24.4576
 1.4010	24.2489
 1.4000	24.2720
 1.3990	24.1218
 1.3980	24.1988
 1.3970	24.1467
 1.3960	24.0957
 1.3950	23.9340
 1.3940	23.8499
 1.3930	23.7864
 1.3920	23.8368
 1.3910	23.7132
 1.3900	23.8095
 1.3890	23.6053
 1.3880	23.6376
 1.3870	23.4546
 1.3860	23.4700
 1.3850	23.3181
 1.3840	23.3684
 1.3830	23.1845
 1.3820	23.2200
 1.3810	23.1104
 1.3800	23.1503
 1.3790	22.9889
 1.3780	23.0761
 1.3770	22.9501
 1.3760	22.9828
 1.3750	22.8128
 1.3740	22.8016
 1.3730	22.6831
 1.3720	22.7030
 1.3710	22.6030
 1.3700	22.5789
 1.3690	22.4340
