Name: Fluorite CaF_2
Type: Mineral
Class: Halide
Subclass: None
Particle Size: Coarse
Sample No.: H-2B
Owner: JPL
Wavelength Range: VSWIR
Origin: United Kingdom, England, Durham County, Weardal.
Collection Date: N/A
Description: Particle size was 125-500um.Collected by:  Ward's Original ASTER Spectral Library name was jpl.perkin.mineral.halide.none.coarse.h02b.spectrum.txt
Measurement: Hemispherical reflectance
First Column: X
Second Column: Y
X Units: Wavelength (micrometers)
Y Units:Reflectance (percent)
First X Value:  2.5000
Last X Value:  0.4000
Number of X Values: 2101
Additional Information: mineral.halide.none.coarse.vswir.h-2b.jpl.perkin.ancillary.txt

 2.5000	62.6145
 2.4990	62.6338
 2.4980	62.7797
 2.4970	62.8301
 2.4960	62.4103
 2.4950	62.8715
 2.4940	62.7880
 2.4930	62.8218
 2.4920	62.7586
 2.4910	62.9469
 2.4900	62.9020
 2.4890	63.0431
 2.4880	63.1462
 2.4870	63.2263
 2.4860	63.1301
 2.4850	63.2851
 2.4840	63.1540
 2.4830	63.2530
 2.4820	63.2651
 2.4810	63.2905
 2.4800	63.4119
 2.4790	63.4014
 2.4780	63.4766
 2.4770	63.4012
 2.4760	63.3963
 2.4750	63.5979
 2.4740	63.6359
 2.4730	63.7257
 2.4720	63.7228
 2.4710	63.7468
 2.4700	63.7278
 2.4690	63.8469
 2.4680	63.8266
 2.4670	63.8304
 2.4660	63.9129
 2.4650	63.9493
 2.4640	63.9021
 2.4630	64.1151
 2.4620	64.1471
 2.4610	64.1704
 2.4600	64.0666
 2.4590	64.1971
 2.4580	64.3345
 2.4570	64.3887
 2.4560	64.3155
 2.4550	64.3670
 2.4540	64.3981
 2.4530	64.4007
 2.4520	64.4887
 2.4510	64.4462
 2.4500	64.5170
 2.4490	64.6411
 2.4480	64.6002
 2.4470	64.6817
 2.4460	64.7329
 2.4450	64.8421
 2.4440	64.7928
 2.4430	64.8403
 2.4420	64.8570
 2.4410	65.0004
 2.4400	65.0577
 2.4390	65.0517
 2.4380	64.9767
 2.4370	65.0864
 2.4360	65.1087
 2.4350	65.1050
 2.4340	65.2434
 2.4330	65.2496
 2.4320	65.3316
 2.4310	65.3087
 2.4300	65.2740
 2.4290	65.3310
 2.4280	65.3780
 2.4270	65.4778
 2.4260	65.4666
 2.4250	65.5365
 2.4240	65.5571
 2.4230	65.6117
 2.4220	65.5204
 2.4210	65.5960
 2.4200	65.6796
 2.4190	65.6994
 2.4180	65.5747
 2.4170	65.6665
 2.4160	65.7054
 2.4150	65.7747
 2.4140	65.8056
 2.4130	65.8345
 2.4120	65.7938
 2.4110	65.8214
 2.4100	65.9091
 2.4090	66.0436
 2.4080	66.0308
 2.4070	65.9635
 2.4060	66.0635
 2.4050	66.0826
 2.4040	66.0945
 2.4030	66.1270
 2.4020	66.1257
 2.4010	66.1435
 2.4000	66.2055
 2.3990	66.2228
 2.3980	66.2518
 2.3970	66.2282
 2.3960	66.2415
 2.3950	66.3021
 2.3940	66.3269
 2.3930	66.3931
 2.3920	66.4168
 2.3910	66.4562
 2.3900	66.5313
 2.3890	66.5463
 2.3880	66.5367
 2.3870	66.5563
 2.3860	66.5539
 2.3850	66.5977
 2.3840	66.6714
 2.3830	66.7032
 2.3820	66.7059
 2.3810	66.7324
 2.3800	66.7896
 2.3790	66.8601
 2.3780	66.9138
 2.3770	66.8686
 2.3760	66.8322
 2.3750	66.9327
 2.3740	66.9429
 2.3730	66.9915
 2.3720	66.9986
 2.3710	66.9594
 2.3700	67.0110
 2.3690	67.0897
 2.3680	67.1368
 2.3670	67.1998
 2.3660	67.1821
 2.3650	67.1920
 2.3640	67.2047
 2.3630	67.1815
 2.3620	67.2017
 2.3610	67.2665
 2.3600	67.3630
 2.3590	67.3833
 2.3580	67.4129
 2.3570	67.4514
 2.3560	67.4345
 2.3550	67.4472
 2.3540	67.4617
 2.3530	67.4952
 2.3520	67.4635
 2.3510	67.4414
 2.3500	67.5366
 2.3490	67.5516
 2.3480	67.5584
 2.3470	67.5731
 2.3460	67.5961
 2.3450	67.6274
 2.3440	67.6546
 2.3430	67.6526
 2.3420	67.6706
 2.3410	67.6979
 2.3400	67.7288
 2.3390	67.7722
 2.3380	67.7445
 2.3370	67.7045
 2.3360	67.7258
 2.3350	67.7630
 2.3340	67.7739
 2.3330	67.7418
 2.3320	67.7508
 2.3310	67.7186
 2.3300	67.7774
 2.3290	67.8153
 2.3280	67.7971
 2.3270	67.8066
 2.3260	67.8161
 2.3250	67.8261
 2.3240	67.7937
 2.3230	67.7792
 2.3220	67.8439
 2.3210	67.8555
 2.3200	67.8414
 2.3190	67.8224
 2.3180	67.8348
 2.3170	67.8370
 2.3160	67.8601
 2.3150	67.8698
 2.3140	67.8773
 2.3130	67.9008
 2.3120	67.9392
 2.3110	67.9297
 2.3100	67.9148
 2.3090	67.8565
 2.3080	67.8961
 2.3070	67.9195
 2.3060	67.9544
 2.3050	67.9009
 2.3040	67.9240
 2.3030	67.9301
 2.3020	67.9636
 2.3010	67.9000
 2.3000	67.9310
 2.2990	67.9240
 2.2980	68.0038
 2.2970	67.9808
 2.2960	67.9889
 2.2950	67.9635
 2.2940	67.9179
 2.2930	67.9371
 2.2920	67.9549
 2.2910	67.9132
 2.2900	67.9660
 2.2890	67.9416
 2.2880	68.0112
 2.2870	67.9154
 2.2860	67.9544
 2.2850	67.9794
 2.2840	68.0407
 2.2830	68.0276
 2.2820	67.9918
 2.2810	67.9877
 2.2800	68.0462
 2.2790	67.9964
 2.2780	67.9975
 2.2770	67.9887
 2.2760	67.9703
 2.2750	67.9465
 2.2740	68.0130
 2.2730	68.0248
 2.2720	67.9865
 2.2710	67.9565
 2.2700	68.0555
 2.2690	67.9826
 2.2680	67.9959
 2.2670	68.0333
 2.2660	67.9355
 2.2650	67.9649
 2.2640	68.0454
 2.2630	67.9576
 2.2620	67.9513
 2.2610	68.0311
 2.2600	67.9634
 2.2590	67.9094
 2.2580	67.9898
 2.2570	67.9185
 2.2560	68.0266
 2.2550	67.9431
 2.2540	68.0233
 2.2530	67.9150
 2.2520	67.9859
 2.2510	67.9595
 2.2500	67.9616
 2.2490	67.9935
 2.2480	67.9792
 2.2470	67.8838
 2.2460	67.8946
 2.2450	67.8834
 2.2440	67.9239
 2.2430	67.9715
 2.2420	67.9723
 2.2410	67.9213
 2.2400	67.9353
 2.2390	67.9858
 2.2380	67.9873
 2.2370	67.9883
 2.2360	67.9660
 2.2350	67.9060
 2.2340	67.9399
 2.2330	67.9620
 2.2320	67.9255
 2.2310	68.0144
 2.2300	67.9819
 2.2290	67.9116
 2.2280	67.9782
 2.2270	67.9446
 2.2260	67.9939
 2.2250	68.0290
 2.2240	67.9252
 2.2230	67.9673
 2.2220	67.9846
 2.2210	68.0061
 2.2200	68.0202
 2.2190	67.9995
 2.2180	68.0315
 2.2170	68.0202
 2.2160	68.0137
 2.2150	68.0301
 2.2140	68.0217
 2.2130	68.0465
 2.2120	68.1323
 2.2110	67.9568
 2.2100	68.0991
 2.2090	68.1183
 2.2080	68.0738
 2.2070	68.1130
 2.2060	68.1350
 2.2050	68.0754
 2.2040	68.1472
 2.2030	68.1485
 2.2020	68.2828
 2.2010	68.1691
 2.2000	68.2089
 2.1990	68.2195
 2.1980	68.2246
 2.1970	68.2470
 2.1960	68.1650
 2.1950	68.1697
 2.1940	68.2459
 2.1930	68.2131
 2.1920	68.2681
 2.1910	68.2265
 2.1900	68.2361
 2.1890	68.2210
 2.1880	68.2410
 2.1870	68.1690
 2.1860	68.2182
 2.1850	68.2918
 2.1840	68.3252
 2.1830	68.2963
 2.1820	68.3415
 2.1810	68.3097
 2.1800	68.3814
 2.1790	68.3656
 2.1780	68.3859
 2.1770	68.3458
 2.1760	68.4072
 2.1750	68.3725
 2.1740	68.4358
 2.1730	68.4571
 2.1720	68.4589
 2.1710	68.4182
 2.1700	68.4249
 2.1690	68.4976
 2.1680	68.5111
 2.1670	68.5563
 2.1660	68.5883
 2.1650	68.5089
 2.1640	68.5280
 2.1630	68.5534
 2.1620	68.5841
 2.1610	68.5721
 2.1600	68.6408
 2.1590	68.6307
 2.1580	68.6709
 2.1570	68.6810
 2.1560	68.6337
 2.1550	68.6507
 2.1540	68.7160
 2.1530	68.6246
 2.1520	68.7180
 2.1510	68.7068
 2.1500	68.6988
 2.1490	68.6256
 2.1480	68.6498
 2.1470	68.6638
 2.1460	68.6410
 2.1450	68.5949
 2.1440	68.7098
 2.1430	68.6286
 2.1420	68.6089
 2.1410	68.5639
 2.1400	68.6011
 2.1390	68.5633
 2.1380	68.5643
 2.1370	68.4916
 2.1360	68.4947
 2.1350	68.4363
 2.1340	68.4557
 2.1330	68.4493
 2.1320	68.4378
 2.1310	68.3445
 2.1300	68.3622
 2.1290	68.3154
 2.1280	68.2903
 2.1270	68.2574
 2.1260	68.1671
 2.1250	68.0720
 2.1240	68.1579
 2.1230	68.0844
 2.1220	68.0348
 2.1210	67.9603
 2.1200	67.9231
 2.1190	67.8607
 2.1180	67.8224
 2.1170	67.7370
 2.1160	67.6698
 2.1150	67.6160
 2.1140	67.5775
 2.1130	67.5002
 2.1120	67.4472
 2.1110	67.3990
 2.1100	67.4244
 2.1090	67.3652
 2.1080	67.2491
 2.1070	67.2235
 2.1060	67.2192
 2.1050	67.1285
 2.1040	67.0994
 2.1030	67.0399
 2.1020	66.9854
 2.1010	66.9298
 2.1000	66.8730
 2.0990	66.8441
 2.0980	66.8418
 2.0970	66.8216
 2.0960	66.8075
 2.0950	66.7954
 2.0940	66.8213
 2.0930	66.8333
 2.0920	66.8132
 2.0910	66.7932
 2.0900	66.8005
 2.0890	66.7662
 2.0880	66.7745
 2.0870	66.7666
 2.0860	66.7649
 2.0850	66.7643
 2.0840	66.7418
 2.0830	66.7011
 2.0820	66.6948
 2.0810	66.6447
 2.0800	66.6553
 2.0790	66.6562
 2.0780	66.6576
 2.0770	66.6863
 2.0760	66.6227
 2.0750	66.6352
 2.0740	66.6733
 2.0730	66.6455
 2.0720	66.6377
 2.0710	66.5991
 2.0700	66.5488
 2.0690	66.4831
 2.0680	66.4942
 2.0670	66.5043
 2.0660	66.4696
 2.0650	66.5043
 2.0640	66.4966
 2.0630	66.4503
 2.0620	66.4297
 2.0610	66.4095
 2.0600	66.3954
 2.0590	66.4234
 2.0580	66.4004
 2.0570	66.3579
 2.0560	66.3426
 2.0550	66.2907
 2.0540	66.2694
 2.0530	66.3008
 2.0520	66.2607
 2.0510	66.2100
 2.0500	66.1811
 2.0490	66.2089
 2.0480	66.2015
 2.0470	66.1713
 2.0460	66.1567
 2.0450	66.1460
 2.0440	66.1007
 2.0430	66.0711
 2.0420	66.0371
 2.0410	66.0179
 2.0400	65.9747
 2.0390	65.9508
 2.0380	65.9233
 2.0370	65.8705
 2.0360	65.7981
 2.0350	65.8065
 2.0340	65.8020
 2.0330	65.7626
 2.0320	65.7145
 2.0310	65.6834
 2.0300	65.5799
 2.0290	65.5285
 2.0280	65.5575
 2.0270	65.5197
 2.0260	65.4531
 2.0250	65.4430
 2.0240	65.3553
 2.0230	65.2663
 2.0220	65.1993
 2.0210	65.1738
 2.0200	65.1538
 2.0190	65.1289
 2.0180	65.0838
 2.0170	65.0291
 2.0160	64.8849
 2.0150	64.8707
 2.0140	64.8254
 2.0130	64.7577
 2.0120	64.7134
 2.0110	64.7093
 2.0100	64.6286
 2.0090	64.5585
 2.0080	64.4695
 2.0070	64.4493
 2.0060	64.3727
 2.0050	64.3133
 2.0040	64.2327
 2.0030	64.1697
 2.0020	64.0667
 2.0010	64.0445
 2.0000	63.9380
 1.9990	63.8691
 1.9980	63.8290
 1.9970	63.7963
 1.9960	63.6040
 1.9950	63.5195
 1.9940	63.5064
 1.9930	63.3890
 1.9920	63.3030
 1.9910	63.2424
 1.9900	63.1024
 1.9890	63.0785
 1.9880	63.0028
 1.9870	62.8718
 1.9860	62.8659
 1.9850	62.8003
 1.9840	62.6594
 1.9830	62.5895
 1.9820	62.4568
 1.9810	62.3976
 1.9800	62.2742
 1.9790	62.2576
 1.9780	62.1712
 1.9770	62.2053
 1.9760	62.0169
 1.9750	61.9328
 1.9740	61.8471
 1.9730	61.8495
 1.9720	61.7408
 1.9710	61.6934
 1.9700	61.5883
 1.9690	61.5911
 1.9680	61.4307
 1.9670	61.3729
 1.9660	61.3061
 1.9650	61.2559
 1.9640	61.1811
 1.9630	61.1797
 1.9620	61.0446
 1.9610	61.0995
 1.9600	60.9570
 1.9590	60.8849
 1.9580	60.8348
 1.9570	60.8380
 1.9560	60.7125
 1.9550	60.7492
 1.9540	60.5926
 1.9530	60.6385
 1.9520	60.5335
 1.9510	60.5541
 1.9500	60.4520
 1.9490	60.4715
 1.9480	60.4123
 1.9470	60.4053
 1.9460	60.3015
 1.9450	60.3091
 1.9440	60.3069
 1.9430	60.3015
 1.9420	60.3215
 1.9410	60.3273
 1.9400	60.1903
 1.9390	60.2411
 1.9380	60.2587
 1.9370	60.2384
 1.9360	60.1497
 1.9350	60.2417
 1.9340	60.2370
 1.9330	60.2846
 1.9320	60.2232
 1.9310	60.2377
 1.9300	60.2573
 1.9290	60.3017
 1.9280	60.3381
 1.9270	60.4280
 1.9260	60.3718
 1.9250	60.5042
 1.9240	60.4664
 1.9230	60.5568
 1.9220	60.6286
 1.9210	60.7683
 1.9200	60.7845
 1.9190	60.8845
 1.9180	60.9042
 1.9170	61.0938
 1.9160	61.0693
 1.9150	61.3543
 1.9140	61.3578
 1.9130	61.5269
 1.9120	61.6369
 1.9110	61.7736
 1.9100	61.9229
 1.9090	62.0809
 1.9080	62.2022
 1.9070	62.3807
 1.9060	62.5075
 1.9050	62.6634
 1.9040	62.8471
 1.9030	63.1280
 1.9020	63.2822
 1.9010	63.5519
 1.9000	63.7663
 1.8990	63.9514
 1.8980	64.1456
 1.8970	64.3751
 1.8960	64.5381
 1.8950	64.7729
 1.8940	64.8687
 1.8930	65.0608
 1.8920	65.1922
 1.8910	65.3435
 1.8900	65.5489
 1.8890	65.7284
 1.8880	65.8849
 1.8870	66.0836
 1.8860	66.2245
 1.8850	66.3404
 1.8840	66.4213
 1.8830	66.5447
 1.8820	66.6974
 1.8810	66.7907
 1.8800	66.9086
 1.8790	66.9323
 1.8780	67.0769
 1.8770	67.1848
 1.8760	67.1679
 1.8750	67.3156
 1.8740	67.3985
 1.8730	67.4499
 1.8720	67.4504
 1.8710	67.5268
 1.8700	67.5656
 1.8690	67.6114
 1.8680	67.5994
 1.8670	67.7109
 1.8660	67.7168
 1.8650	67.7435
 1.8640	67.7564
 1.8630	67.7572
 1.8620	67.7480
 1.8610	67.7398
 1.8600	67.7719
 1.8590	67.8730
 1.8580	67.9173
 1.8570	67.8841
 1.8560	67.8224
 1.8550	67.8732
 1.8540	67.8770
 1.8530	67.9240
 1.8520	67.9167
 1.8510	67.9453
 1.8500	67.8710
 1.8490	67.9419
 1.8480	67.8878
 1.8470	67.9152
 1.8460	67.9170
 1.8450	67.9909
 1.8440	67.9931
 1.8430	68.0104
 1.8420	67.9945
 1.8410	67.9455
 1.8400	67.9450
 1.8390	67.9579
 1.8380	67.9279
 1.8370	67.9300
 1.8360	67.8982
 1.8350	67.9414
 1.8340	67.9191
 1.8330	67.9115
 1.8320	67.8855
 1.8310	67.8958
 1.8300	67.8963
 1.8290	67.8959
 1.8280	67.8856
 1.8270	67.9051
 1.8260	67.8609
 1.8250	67.8830
 1.8240	67.8485
 1.8230	67.8570
 1.8220	67.8684
 1.8210	67.8614
 1.8200	67.8672
 1.8190	67.8443
 1.8180	67.8173
 1.8170	67.8285
 1.8160	67.8146
 1.8150	67.8292
 1.8140	67.8678
 1.8130	67.8855
 1.8120	67.8420
 1.8110	67.7850
 1.8100	67.8131
 1.8090	67.8887
 1.8080	67.8475
 1.8070	67.8461
 1.8060	67.7710
 1.8050	67.7839
 1.8040	67.7805
 1.8030	67.7556
 1.8020	67.7757
 1.8010	67.8346
 1.8000	67.8540
 1.7990	67.8301
 1.7980	67.8437
 1.7970	67.8091
 1.7960	67.7905
 1.7950	67.7869
 1.7940	67.7528
 1.7930	67.7859
 1.7920	67.7828
 1.7910	67.7658
 1.7900	67.7622
 1.7890	67.7612
 1.7880	67.7637
 1.7870	67.7603
 1.7860	67.7472
 1.7850	67.7409
 1.7840	67.7599
 1.7830	67.7632
 1.7820	67.7411
 1.7810	67.7646
 1.7800	67.7680
 1.7790	67.7446
 1.7780	67.7418
 1.7770	67.7273
 1.7760	67.7758
 1.7750	67.7468
 1.7740	67.7306
 1.7730	67.7436
 1.7720	67.7241
 1.7710	67.7452
 1.7700	67.7573
 1.7690	67.7428
 1.7680	67.7460
 1.7670	67.7183
 1.7660	67.7436
 1.7650	67.7504
 1.7640	67.7574
 1.7630	67.7482
 1.7620	67.7828
 1.7610	67.7862
 1.7600	67.7561
 1.7590	67.7429
 1.7580	67.7347
 1.7570	67.7006
 1.7560	67.7147
 1.7550	67.7702
 1.7540	67.7339
 1.7530	67.7375
 1.7520	67.7528
 1.7510	67.7277
 1.7500	67.7276
 1.7490	67.7305
 1.7480	67.8133
 1.7470	67.8082
 1.7460	67.8131
 1.7450	67.8002
 1.7440	67.7855
 1.7430	67.7881
 1.7420	67.8113
 1.7410	67.8182
 1.7400	67.8401
 1.7390	67.7957
 1.7380	67.8067
 1.7370	67.7819
 1.7360	67.7874
 1.7350	67.7453
 1.7340	67.7521
 1.7330	67.8098
 1.7320	67.8935
 1.7310	67.8948
 1.7300	67.8279
 1.7290	67.8138
 1.7280	67.8419
 1.7270	67.7891
 1.7260	67.8308
 1.7250	67.7902
 1.7240	67.8523
 1.7230	67.8188
 1.7220	67.8136
 1.7210	67.8176
 1.7200	67.8591
 1.7190	67.7443
 1.7180	67.7680
 1.7170	67.7606
 1.7160	67.7763
 1.7150	67.7982
 1.7140	67.7603
 1.7130	67.8341
 1.7120	67.8102
 1.7110	67.7466
 1.7100	67.7544
 1.7090	67.7272
 1.7080	67.7793
 1.7070	67.7849
 1.7060	67.7154
 1.7050	67.7388
 1.7040	67.7772
 1.7030	67.7432
 1.7020	67.7430
 1.7010	67.6646
 1.7000	67.6810
 1.6990	67.6543
 1.6980	67.6698
 1.6970	67.6486
 1.6960	67.6723
 1.6950	67.6227
 1.6940	67.6246
 1.6930	67.6197
 1.6920	67.6243
 1.6910	67.5843
 1.6900	67.6642
 1.6890	67.5912
 1.6880	67.6306
 1.6870	67.5780
 1.6860	67.6236
 1.6850	67.5933
 1.6840	67.6580
 1.6830	67.5676
 1.6820	67.6181
 1.6810	67.5590
 1.6800	67.5489
 1.6790	67.4982
 1.6780	67.5989
 1.6770	67.5955
 1.6760	67.5340
 1.6750	67.5950
 1.6740	67.5715
 1.6730	67.4776
 1.6720	67.5731
 1.6710	67.5729
 1.6700	67.5931
 1.6690	67.5325
 1.6680	67.4146
 1.6670	67.4362
 1.6660	67.5355
 1.6650	67.5062
 1.6640	67.5102
 1.6630	67.4889
 1.6620	67.4871
 1.6610	67.4655
 1.6600	67.4790
 1.6590	67.3935
 1.6580	67.4150
 1.6570	67.4050
 1.6560	67.4951
 1.6550	67.3972
 1.6540	67.4366
 1.6530	67.4217
 1.6520	67.4435
 1.6510	67.3391
 1.6500	67.3918
 1.6490	67.2926
 1.6480	67.4101
 1.6470	67.2582
 1.6460	67.3301
 1.6450	67.3116
 1.6440	67.3964
 1.6430	67.3233
 1.6420	67.3127
 1.6410	67.2809
 1.6400	67.3723
 1.6390	67.4493
 1.6380	67.3147
 1.6370	67.2998
 1.6360	67.3532
 1.6350	67.3033
 1.6340	67.3130
 1.6330	67.2763
 1.6320	67.3161
 1.6310	67.2228
 1.6300	67.2176
 1.6290	67.1726
 1.6280	67.2248
 1.6270	67.2500
 1.6260	67.2791
 1.6250	67.2314
 1.6240	67.3160
 1.6230	67.2451
 1.6220	67.2030
 1.6210	67.1311
 1.6200	67.2120
 1.6190	67.1423
 1.6180	67.1330
 1.6170	67.1744
 1.6160	67.2308
 1.6150	67.1516
 1.6140	67.1643
 1.6130	67.1471
 1.6120	67.0985
 1.6110	67.2281
 1.6100	67.1660
 1.6090	67.0856
 1.6080	67.1489
 1.6070	67.1402
 1.6060	67.1342
 1.6050	67.0985
 1.6040	67.1040
 1.6030	67.0262
 1.6020	67.1312
 1.6010	67.0895
 1.6000	67.1210
 1.5990	67.0524
 1.5980	67.0635
 1.5970	67.0487
 1.5960	67.0212
 1.5950	66.9858
 1.5940	67.0504
 1.5930	66.9720
 1.5920	67.0231
 1.5910	66.9696
 1.5900	66.9845
 1.5890	66.9690
 1.5880	67.0063
 1.5870	66.9339
 1.5860	66.9842
 1.5850	66.9604
 1.5840	67.0092
 1.5830	66.9555
 1.5820	66.9393
 1.5810	66.9093
 1.5800	66.9089
 1.5790	66.7953
 1.5780	66.8630
 1.5770	66.8600
 1.5760	66.8612
 1.5750	66.8563
 1.5740	66.9110
 1.5730	66.8706
 1.5720	66.8359
 1.5710	66.7746
 1.5700	66.8204
 1.5690	66.7748
 1.5680	66.7132
 1.5670	66.7072
 1.5660	66.7382
 1.5650	66.7291
 1.5640	66.6904
 1.5630	66.6893
 1.5620	66.6882
 1.5610	66.6437
 1.5600	66.6969
 1.5590	66.6905
 1.5580	66.6474
 1.5570	66.6563
 1.5560	66.6433
 1.5550	66.5926
 1.5540	66.6031
 1.5530	66.5653
 1.5520	66.5519
 1.5510	66.5206
 1.5500	66.5641
 1.5490	66.5470
 1.5480	66.5536
 1.5470	66.5603
 1.5460	66.5055
 1.5450	66.4448
 1.5440	66.4672
 1.5430	66.4872
 1.5420	66.4493
 1.5410	66.4291
 1.5400	66.4471
 1.5390	66.4426
 1.5380	66.3788
 1.5370	66.2822
 1.5360	66.2988
 1.5350	66.3553
 1.5340	66.3523
 1.5330	66.3129
 1.5320	66.3041
 1.5310	66.2401
 1.5300	66.2055
 1.5290	66.2794
 1.5280	66.2793
 1.5270	66.2284
 1.5260	66.1939
 1.5250	66.1662
 1.5240	66.1612
 1.5230	66.1321
 1.5220	66.1566
 1.5210	66.1206
 1.5200	66.0694
 1.5190	66.1156
 1.5180	66.0820
 1.5170	66.0022
 1.5160	66.0588
 1.5150	66.0432
 1.5140	65.9744
 1.5130	65.9296
 1.5120	65.8931
 1.5110	65.8730
 1.5100	65.8932
 1.5090	65.8725
 1.5080	65.8254
 1.5070	65.7793
 1.5060	65.8208
 1.5050	65.8134
 1.5040	65.7323
 1.5030	65.7482
 1.5020	65.7457
 1.5010	65.6730
 1.5000	65.6638
 1.4990	65.6763
 1.4980	65.6506
 1.4970	65.6106
 1.4960	65.5652
 1.4950	65.5536
 1.4940	65.5201
 1.4930	65.5000
 1.4920	65.4746
 1.4910	65.4822
 1.4900	65.4738
 1.4890	65.4312
 1.4880	65.4069
 1.4870	65.3843
 1.4860	65.3383
 1.4850	65.2866
 1.4840	65.2660
 1.4830	65.2780
 1.4820	65.2108
 1.4810	65.1769
 1.4800	65.1859
 1.4790	65.1693
 1.4780	65.1017
 1.4770	65.1148
 1.4760	65.0745
 1.4750	65.0331
 1.4740	64.9910
 1.4730	65.0184
 1.4720	65.0525
 1.4710	65.0071
 1.4700	64.9984
 1.4690	64.8998
 1.4680	64.8746
 1.4670	64.9294
 1.4660	64.8707
 1.4650	64.8352
 1.4640	64.8319
 1.4630	64.8140
 1.4620	64.7628
 1.4610	64.7684
 1.4600	64.7487
 1.4590	64.7459
 1.4580	64.7412
 1.4570	64.7467
 1.4560	64.6930
 1.4550	64.7187
 1.4540	64.6962
 1.4530	64.7128
 1.4520	64.6839
 1.4510	64.6347
 1.4500	64.6457
 1.4490	64.6376
 1.4480	64.6726
 1.4470	64.6524
 1.4460	64.6072
 1.4450	64.6288
 1.4440	64.6230
 1.4430	64.6487
 1.4420	64.6009
 1.4410	64.6381
 1.4400	64.5723
 1.4390	64.6104
 1.4380	64.5925
 1.4370	64.5691
 1.4360	64.5624
 1.4350	64.5732
 1.4340	64.6044
 1.4330	64.6323
 1.4320	64.6156
 1.4310	64.5969
 1.4300	64.6364
 1.4290	64.6760
 1.4280	64.6350
 1.4270	64.6067
 1.4260	64.7235
 1.4250	64.6792
 1.4240	64.7135
 1.4230	64.7438
 1.4220	64.7325
 1.4210	64.8026
 1.4200	64.7676
 1.4190	64.8008
 1.4180	64.8077
 1.4170	64.8517
 1.4160	64.8732
 1.4150	64.9464
 1.4140	64.8505
 1.4130	64.9567
 1.4120	65.0657
 1.4110	65.0928
 1.4100	65.1015
 1.4090	65.1292
 1.4080	65.1660
 1.4070	65.1721
 1.4060	65.2202
 1.4050	65.2490
 1.4040	65.2989
 1.4030	65.3396
 1.4020	65.3676
 1.4010	65.3553
 1.4000	65.3594
 1.3990	65.4451
 1.3980	65.6073
 1.3970	65.6215
 1.3960	65.6635
 1.3950	65.6768
 1.3940	65.6410
 1.3930	65.7469
 1.3920	65.7146
 1.3910	65.7686
 1.3900	65.8763
 1.3890	65.8957
 1.3880	65.7866
 1.3870	65.8064
 1.3860	65.7558
 1.3850	65.8385
 1.3840	65.9319
 1.3830	65.8562
 1.3820	65.7761
 1.3810	65.8815
 1.3800	65.9197
 1.3790	65.9755
 1.3780	65.9290
 1.3770	65.9377
 1.3760	65.9514
 1.3750	65.9122
 1.3740	65.8804
 1.3730	65.9238
 1.3720	65.9283
 1.3710	65.8748
 1.3700	65.8589
 1.3690	65.8952
 1.3680	65.9060
 1.3670	65.9271
 1.3660	65.8607
