Name: Gahnite ZnAl_2O_4
Type: Mineral
Class: Oxide
Subclass: None
Particle Size: Medium
Sample No.: O-11A
Owner: JPL
Wavelength Range: VSWIR
Origin: Nigeria, Kaduna, Jemaa, Godogodo Mine.
Collection Date: N/A
Description: Particle size was 45-125um.Collected by:  New, David Original ASTER Spectral Library name was jpl.perkin.mineral.oxide.none.medium.o11a.spectrum.txt
Measurement: Hemispherical reflectance
First Column: X
Second Column: Y
X Units: Wavelength (micrometers)
Y Units:Reflectance (percent)
First X Value:  2.5000
Last X Value:  0.4000
Number of X Values: 2101
Additional Information: mineral.oxide.none.medium.vswir.o-11a.jpl.perkin.ancillary.txt

 2.5000	 3.7363
 2.4990	 4.1724
 2.4980	 4.1104
 2.4970	 4.2763
 2.4960	 3.8247
 2.4950	 4.3181
 2.4940	 4.0659
 2.4930	 4.0688
 2.4920	 3.7482
 2.4910	 4.2577
 2.4900	 3.8460
 2.4890	 3.9856
 2.4880	 3.9528
 2.4870	 4.1200
 2.4860	 3.9465
 2.4850	 4.1115
 2.4840	 4.0644
 2.4830	 4.1255
 2.4820	 4.0000
 2.4810	 4.0066
 2.4800	 3.9448
 2.4790	 4.0752
 2.4780	 3.9255
 2.4770	 4.1030
 2.4760	 4.0244
 2.4750	 4.0320
 2.4740	 4.1169
 2.4730	 4.1243
 2.4720	 4.0420
 2.4710	 4.0176
 2.4700	 4.0234
 2.4690	 4.1984
 2.4680	 4.0769
 2.4670	 4.0996
 2.4660	 4.1926
 2.4650	 4.1341
 2.4640	 3.9381
 2.4630	 4.2344
 2.4620	 3.9399
 2.4610	 4.1169
 2.4600	 4.0650
 2.4590	 4.1534
 2.4580	 3.9843
 2.4570	 4.1594
 2.4560	 4.0557
 2.4550	 3.9973
 2.4540	 4.0554
 2.4530	 4.2647
 2.4520	 4.0503
 2.4510	 4.0766
 2.4500	 4.0549
 2.4490	 4.1441
 2.4480	 4.0067
 2.4470	 4.1196
 2.4460	 4.0762
 2.4450	 4.2249
 2.4440	 4.0146
 2.4430	 4.0401
 2.4420	 4.0246
 2.4410	 4.1147
 2.4400	 3.9981
 2.4390	 4.0877
 2.4380	 4.0926
 2.4370	 4.0627
 2.4360	 4.0962
 2.4350	 4.1523
 2.4340	 4.0898
 2.4330	 4.1336
 2.4320	 4.0806
 2.4310	 4.0874
 2.4300	 4.0582
 2.4290	 4.1392
 2.4280	 4.0794
 2.4270	 4.1595
 2.4260	 4.0826
 2.4250	 4.1683
 2.4240	 4.0762
 2.4230	 4.1813
 2.4220	 4.1475
 2.4210	 4.1403
 2.4200	 4.1380
 2.4190	 4.1818
 2.4180	 4.0229
 2.4170	 4.1349
 2.4160	 4.0474
 2.4150	 4.1171
 2.4140	 4.1487
 2.4130	 4.1631
 2.4120	 4.1216
 2.4110	 4.2590
 2.4100	 4.0996
 2.4090	 4.1790
 2.4080	 4.1738
 2.4070	 4.2627
 2.4060	 4.0952
 2.4050	 4.0945
 2.4040	 4.0780
 2.4030	 4.0948
 2.4020	 4.1302
 2.4010	 4.2118
 2.4000	 4.1535
 2.3990	 4.1829
 2.3980	 4.2038
 2.3970	 4.1391
 2.3960	 4.0714
 2.3950	 4.1242
 2.3940	 4.1657
 2.3930	 4.1742
 2.3920	 4.1209
 2.3910	 4.1665
 2.3900	 4.1502
 2.3890	 4.1406
 2.3880	 4.1806
 2.3870	 4.2090
 2.3860	 4.0843
 2.3850	 4.1746
 2.3840	 4.1201
 2.3830	 4.1208
 2.3820	 4.1305
 2.3810	 4.1803
 2.3800	 4.2235
 2.3790	 4.1840
 2.3780	 4.1778
 2.3770	 4.1717
 2.3760	 4.1399
 2.3750	 4.1753
 2.3740	 4.1761
 2.3730	 4.2377
 2.3720	 4.1997
 2.3710	 4.2078
 2.3700	 4.1467
 2.3690	 4.1631
 2.3680	 4.1928
 2.3670	 4.2234
 2.3660	 4.1805
 2.3650	 4.1819
 2.3640	 4.1548
 2.3630	 4.1102
 2.3620	 4.1644
 2.3610	 4.2279
 2.3600	 4.1969
 2.3590	 4.1623
 2.3580	 4.1449
 2.3570	 4.1817
 2.3560	 4.1865
 2.3550	 4.1961
 2.3540	 4.2226
 2.3530	 4.1728
 2.3520	 4.1425
 2.3510	 4.1631
 2.3500	 4.1874
 2.3490	 4.1749
 2.3480	 4.1810
 2.3470	 4.1974
 2.3460	 4.1942
 2.3450	 4.1396
 2.3440	 4.1655
 2.3430	 4.1785
 2.3420	 4.1815
 2.3410	 4.2297
 2.3400	 4.1787
 2.3390	 4.1111
 2.3380	 4.1448
 2.3370	 4.1388
 2.3360	 4.1399
 2.3350	 4.1417
 2.3340	 4.1905
 2.3330	 4.1017
 2.3320	 4.1464
 2.3310	 4.1556
 2.3300	 4.1557
 2.3290	 4.1534
 2.3280	 4.1539
 2.3270	 4.1391
 2.3260	 4.1126
 2.3250	 4.0842
 2.3240	 4.1896
 2.3230	 4.1507
 2.3220	 4.1557
 2.3210	 4.0826
 2.3200	 4.1149
 2.3190	 4.1232
 2.3180	 4.1691
 2.3170	 4.1756
 2.3160	 4.1829
 2.3150	 4.0986
 2.3140	 4.1668
 2.3130	 4.1041
 2.3120	 4.2048
 2.3110	 4.1384
 2.3100	 4.1046
 2.3090	 4.0856
 2.3080	 4.1598
 2.3070	 4.0961
 2.3060	 4.1504
 2.3050	 4.1076
 2.3040	 4.2118
 2.3030	 4.1227
 2.3020	 4.1077
 2.3010	 4.0824
 2.3000	 4.1021
 2.2990	 4.0633
 2.2980	 4.0992
 2.2970	 4.0990
 2.2960	 4.1968
 2.2950	 4.1043
 2.2940	 4.0731
 2.2930	 4.1044
 2.2920	 4.0903
 2.2910	 4.0486
 2.2900	 4.1223
 2.2890	 4.0343
 2.2880	 4.0294
 2.2870	 4.0279
 2.2860	 4.1024
 2.2850	 4.0187
 2.2840	 4.0830
 2.2830	 4.0583
 2.2820	 4.1127
 2.2810	 4.1052
 2.2800	 4.1294
 2.2790	 4.0184
 2.2780	 4.0440
 2.2770	 4.0886
 2.2760	 4.1258
 2.2750	 3.9937
 2.2740	 4.0293
 2.2730	 3.9974
 2.2720	 4.0662
 2.2710	 3.9845
 2.2700	 4.1275
 2.2690	 4.0097
 2.2680	 4.0311
 2.2670	 4.0498
 2.2660	 4.1178
 2.2650	 3.9849
 2.2640	 4.1012
 2.2630	 4.0480
 2.2620	 4.0342
 2.2610	 3.9254
 2.2600	 4.0644
 2.2590	 3.9836
 2.2580	 4.0720
 2.2570	 3.9696
 2.2560	 4.0160
 2.2550	 3.9800
 2.2540	 4.0122
 2.2530	 3.9622
 2.2520	 4.0122
 2.2510	 3.8835
 2.2500	 3.9451
 2.2490	 3.9585
 2.2480	 3.9950
 2.2470	 3.9726
 2.2460	 4.0027
 2.2450	 3.8974
 2.2440	 4.0296
 2.2430	 3.9655
 2.2420	 4.0824
 2.2410	 3.9199
 2.2400	 3.9460
 2.2390	 3.9057
 2.2380	 3.9973
 2.2370	 3.9179
 2.2360	 4.0482
 2.2350	 3.8272
 2.2340	 3.8856
 2.2330	 3.9479
 2.2320	 3.9355
 2.2310	 3.8969
 2.2300	 4.0043
 2.2290	 3.9211
 2.2280	 3.9189
 2.2270	 3.8292
 2.2260	 3.9093
 2.2250	 3.8342
 2.2240	 3.9391
 2.2230	 3.8150
 2.2220	 3.9298
 2.2210	 3.7860
 2.2200	 3.9774
 2.2190	 3.9012
 2.2180	 3.9412
 2.2170	 3.7745
 2.2160	 3.8795
 2.2150	 3.7458
 2.2140	 3.8672
 2.2130	 3.8147
 2.2120	 3.9972
 2.2110	 3.5733
 2.2100	 3.9416
 2.2090	 3.7636
 2.2080	 3.9459
 2.2070	 3.8314
 2.2060	 3.9423
 2.2050	 3.7822
 2.2040	 3.8566
 2.2030	 3.8291
 2.2020	 3.9028
 2.2010	 3.8085
 2.2000	 3.8973
 2.1990	 3.7776
 2.1980	 3.8545
 2.1970	 3.8042
 2.1960	 3.8293
 2.1950	 3.8282
 2.1940	 3.8814
 2.1930	 3.7760
 2.1920	 3.8753
 2.1910	 3.8571
 2.1900	 3.8857
 2.1890	 3.7535
 2.1880	 3.8705
 2.1870	 3.8344
 2.1860	 3.7781
 2.1850	 3.7099
 2.1840	 3.7898
 2.1830	 3.7686
 2.1820	 3.8364
 2.1810	 3.7221
 2.1800	 3.8438
 2.1790	 3.7393
 2.1780	 3.8562
 2.1770	 3.6954
 2.1760	 3.8672
 2.1750	 3.7583
 2.1740	 3.8584
 2.1730	 3.7565
 2.1720	 3.8114
 2.1710	 3.7906
 2.1700	 3.8949
 2.1690	 3.7194
 2.1680	 3.8074
 2.1670	 3.7090
 2.1660	 3.8173
 2.1650	 3.8087
 2.1640	 3.8103
 2.1630	 3.7785
 2.1620	 3.8030
 2.1610	 3.7498
 2.1600	 3.7226
 2.1590	 3.7256
 2.1580	 3.7702
 2.1570	 3.7400
 2.1560	 3.7594
 2.1550	 3.7905
 2.1540	 3.7978
 2.1530	 3.7549
 2.1520	 3.8216
 2.1510	 3.7640
 2.1500	 3.7886
 2.1490	 3.7430
 2.1480	 3.7613
 2.1470	 3.7251
 2.1460	 3.8136
 2.1450	 3.6700
 2.1440	 3.7680
 2.1430	 3.7345
 2.1420	 3.7634
 2.1410	 3.6733
 2.1400	 3.8311
 2.1390	 3.7280
 2.1380	 3.7617
 2.1370	 3.7176
 2.1360	 3.7242
 2.1350	 3.7018
 2.1340	 3.7229
 2.1330	 3.6859
 2.1320	 3.7516
 2.1310	 3.6451
 2.1300	 3.7807
 2.1290	 3.7391
 2.1280	 3.7175
 2.1270	 3.7607
 2.1260	 3.6837
 2.1250	 3.5985
 2.1240	 3.6839
 2.1230	 3.6522
 2.1220	 3.6695
 2.1210	 3.6641
 2.1200	 3.7004
 2.1190	 3.6278
 2.1180	 3.7176
 2.1170	 3.6513
 2.1160	 3.6571
 2.1150	 3.6742
 2.1140	 3.6890
 2.1130	 3.6114
 2.1120	 3.6501
 2.1110	 3.6645
 2.1100	 3.6869
 2.1090	 3.6819
 2.1080	 3.6375
 2.1070	 3.5860
 2.1060	 3.6623
 2.1050	 3.6004
 2.1040	 3.6214
 2.1030	 3.5960
 2.1020	 3.5819
 2.1010	 3.5924
 2.1000	 3.6993
 2.0990	 3.6129
 2.0980	 3.6135
 2.0970	 3.6148
 2.0960	 3.6431
 2.0950	 3.5878
 2.0940	 3.5846
 2.0930	 3.6128
 2.0920	 3.6178
 2.0910	 3.6238
 2.0900	 3.5900
 2.0890	 3.6082
 2.0880	 3.6651
 2.0870	 3.5968
 2.0860	 3.5896
 2.0850	 3.6081
 2.0840	 3.6269
 2.0830	 3.6426
 2.0820	 3.5741
 2.0810	 3.5315
 2.0800	 3.5960
 2.0790	 3.5835
 2.0780	 3.6136
 2.0770	 3.6239
 2.0760	 3.6103
 2.0750	 3.6515
 2.0740	 3.6952
 2.0730	 3.6198
 2.0720	 3.6314
 2.0710	 3.6299
 2.0700	 3.6255
 2.0690	 3.6239
 2.0680	 3.6367
 2.0670	 3.6126
 2.0660	 3.5977
 2.0650	 3.6276
 2.0640	 3.6617
 2.0630	 3.6503
 2.0620	 3.5991
 2.0610	 3.6669
 2.0600	 3.6202
 2.0590	 3.6526
 2.0580	 3.6948
 2.0570	 3.6968
 2.0560	 3.6749
 2.0550	 3.6110
 2.0540	 3.6102
 2.0530	 3.6739
 2.0520	 3.6337
 2.0510	 3.6760
 2.0500	 3.6855
 2.0490	 3.6323
 2.0480	 3.6438
 2.0470	 3.6955
 2.0460	 3.6478
 2.0450	 3.6851
 2.0440	 3.6372
 2.0430	 3.6721
 2.0420	 3.6434
 2.0410	 3.7097
 2.0400	 3.6357
 2.0390	 3.6320
 2.0380	 3.6135
 2.0370	 3.6599
 2.0360	 3.6654
 2.0350	 3.7338
 2.0340	 3.6511
 2.0330	 3.6317
 2.0320	 3.6310
 2.0310	 3.7247
 2.0300	 3.7258
 2.0290	 3.6696
 2.0280	 3.6519
 2.0270	 3.7014
 2.0260	 3.6258
 2.0250	 3.6636
 2.0240	 3.6917
 2.0230	 3.7250
 2.0220	 3.6366
 2.0210	 3.7524
 2.0200	 3.7276
 2.0190	 3.6924
 2.0180	 3.6720
 2.0170	 3.6950
 2.0160	 3.6707
 2.0150	 3.7085
 2.0140	 3.6141
 2.0130	 3.7248
 2.0120	 3.7206
 2.0110	 3.7294
 2.0100	 3.6535
 2.0090	 3.6787
 2.0080	 3.6456
 2.0070	 3.7878
 2.0060	 3.6556
 2.0050	 3.7216
 2.0040	 3.6951
 2.0030	 3.7504
 2.0020	 3.7424
 2.0010	 3.7385
 2.0000	 3.6767
 1.9990	 3.6888
 1.9980	 3.6402
 1.9970	 3.7372
 1.9960	 3.6788
 1.9950	 3.7212
 1.9940	 3.7825
 1.9930	 3.7888
 1.9920	 3.7374
 1.9910	 3.7932
 1.9900	 3.6963
 1.9890	 3.7107
 1.9880	 3.6825
 1.9870	 3.7551
 1.9860	 3.6590
 1.9850	 3.7552
 1.9840	 3.7546
 1.9830	 3.7267
 1.9820	 3.6727
 1.9810	 3.6979
 1.9800	 3.7188
 1.9790	 3.7432
 1.9780	 3.6847
 1.9770	 3.7793
 1.9760	 3.6840
 1.9750	 3.7443
 1.9740	 3.7384
 1.9730	 3.8247
 1.9720	 3.7185
 1.9710	 3.7840
 1.9700	 3.7961
 1.9690	 3.8532
 1.9680	 3.6890
 1.9670	 3.7962
 1.9660	 3.6910
 1.9650	 3.8701
 1.9640	 3.7175
 1.9630	 3.7062
 1.9620	 3.7136
 1.9610	 3.8846
 1.9600	 3.7350
 1.9590	 3.8793
 1.9580	 3.6910
 1.9570	 3.7952
 1.9560	 3.7284
 1.9550	 3.8520
 1.9540	 3.7342
 1.9530	 3.8552
 1.9520	 3.7239
 1.9510	 3.7990
 1.9500	 3.7597
 1.9490	 3.9237
 1.9480	 3.6989
 1.9470	 3.8978
 1.9460	 3.7843
 1.9450	 3.8727
 1.9440	 3.7350
 1.9430	 3.8113
 1.9420	 3.8024
 1.9410	 3.8477
 1.9400	 3.7697
 1.9390	 3.8648
 1.9380	 3.6920
 1.9370	 3.8587
 1.9360	 3.8015
 1.9350	 3.9628
 1.9340	 3.6936
 1.9330	 3.8902
 1.9320	 3.8011
 1.9310	 3.8444
 1.9300	 3.7307
 1.9290	 3.9133
 1.9280	 3.7873
 1.9270	 4.0311
 1.9260	 3.6229
 1.9250	 3.9151
 1.9240	 3.7424
 1.9230	 3.9102
 1.9220	 3.7615
 1.9210	 3.9073
 1.9200	 3.8419
 1.9190	 3.9654
 1.9180	 3.7798
 1.9170	 3.9012
 1.9160	 3.8451
 1.9150	 4.0090
 1.9140	 3.8251
 1.9130	 3.9168
 1.9120	 3.9332
 1.9110	 3.9529
 1.9100	 3.9456
 1.9090	 3.9384
 1.9080	 3.8892
 1.9070	 3.9624
 1.9060	 3.8734
 1.9050	 3.9425
 1.9040	 3.9101
 1.9030	 3.9439
 1.9020	 3.8825
 1.9010	 4.0100
 1.9000	 3.9342
 1.8990	 4.0013
 1.8980	 3.9470
 1.8970	 4.0861
 1.8960	 3.9755
 1.8950	 3.9915
 1.8940	 4.0067
 1.8930	 4.0358
 1.8920	 3.9443
 1.8910	 3.9950
 1.8900	 3.9864
 1.8890	 4.0328
 1.8880	 4.0320
 1.8870	 4.0911
 1.8860	 3.9670
 1.8850	 4.0309
 1.8840	 4.0114
 1.8830	 4.1508
 1.8820	 4.0043
 1.8810	 4.0735
 1.8800	 4.0662
 1.8790	 4.1140
 1.8780	 4.0309
 1.8770	 4.1346
 1.8760	 4.0493
 1.8750	 4.1101
 1.8740	 3.9727
 1.8730	 4.0627
 1.8720	 4.1268
 1.8710	 4.0754
 1.8700	 4.0090
 1.8690	 4.1364
 1.8680	 4.0501
 1.8670	 4.1074
 1.8660	 4.0839
 1.8650	 4.1360
 1.8640	 4.1307
 1.8630	 4.2569
 1.8620	 4.1767
 1.8610	 4.1868
 1.8600	 4.1317
 1.8590	 4.3175
 1.8580	 4.2005
 1.8570	 4.2162
 1.8560	 4.1600
 1.8550	 4.2382
 1.8540	 4.2298
 1.8530	 4.1878
 1.8520	 4.2207
 1.8510	 4.2380
 1.8500	 4.2067
 1.8490	 4.3218
 1.8480	 4.2603
 1.8470	 4.2563
 1.8460	 4.3298
 1.8450	 4.3660
 1.8440	 4.3299
 1.8430	 4.2807
 1.8420	 4.2603
 1.8410	 4.3764
 1.8400	 4.3194
 1.8390	 4.3052
 1.8380	 4.3418
 1.8370	 4.3731
 1.8360	 4.3754
 1.8350	 4.4005
 1.8340	 4.3722
 1.8330	 4.4250
 1.8320	 4.3970
 1.8310	 4.4130
 1.8300	 4.4389
 1.8290	 4.4708
 1.8280	 4.4230
 1.8270	 4.4614
 1.8260	 4.4662
 1.8250	 4.4853
 1.8240	 4.4740
 1.8230	 4.4817
 1.8220	 4.4509
 1.8210	 4.5166
 1.8200	 4.5244
 1.8190	 4.5543
 1.8180	 4.5179
 1.8170	 4.5503
 1.8160	 4.5303
 1.8150	 4.6104
 1.8140	 4.5719
 1.8130	 4.5892
 1.8120	 4.5960
 1.8110	 4.6214
 1.8100	 4.6296
 1.8090	 4.7014
 1.8080	 4.6884
 1.8070	 4.7340
 1.8060	 4.6870
 1.8050	 4.7421
 1.8040	 4.7620
 1.8030	 4.7745
 1.8020	 4.7668
 1.8010	 4.7520
 1.8000	 4.7776
 1.7990	 4.8244
 1.7980	 4.7836
 1.7970	 4.8735
 1.7960	 4.9012
 1.7950	 4.8548
 1.7940	 4.9154
 1.7930	 4.9707
 1.7920	 4.9009
 1.7910	 4.8870
 1.7900	 4.9305
 1.7890	 4.9421
 1.7880	 4.9596
 1.7870	 4.9955
 1.7860	 5.0241
 1.7850	 5.0246
 1.7840	 5.0083
 1.7830	 5.0837
 1.7820	 5.1710
 1.7810	 5.1255
 1.7800	 5.1165
 1.7790	 5.1367
 1.7780	 5.1187
 1.7770	 5.1277
 1.7760	 5.1613
 1.7750	 5.2265
 1.7740	 5.2280
 1.7730	 5.1820
 1.7720	 5.2118
 1.7710	 5.2751
 1.7700	 5.3275
 1.7690	 5.3230
 1.7680	 5.3565
 1.7670	 5.3038
 1.7660	 5.3686
 1.7650	 5.3761
 1.7640	 5.4157
 1.7630	 5.4545
 1.7620	 5.4717
 1.7610	 5.4492
 1.7600	 5.4986
 1.7590	 5.4965
 1.7580	 5.5780
 1.7570	 5.5659
 1.7560	 5.5929
 1.7550	 5.6511
 1.7540	 5.7057
 1.7530	 5.7184
 1.7520	 5.6819
 1.7510	 5.6837
 1.7500	 5.7499
 1.7490	 5.7652
 1.7480	 5.8296
 1.7470	 5.8193
 1.7460	 5.8263
 1.7450	 5.8037
 1.7440	 5.8798
 1.7430	 5.8758
 1.7420	 5.9031
 1.7410	 5.8887
 1.7400	 5.9768
 1.7390	 5.9631
 1.7380	 6.0346
 1.7370	 6.0696
 1.7360	 6.1118
 1.7350	 6.1119
 1.7340	 6.1619
 1.7330	 6.1879
 1.7320	 6.2595
 1.7310	 6.2154
 1.7300	 6.3222
 1.7290	 6.2795
 1.7280	 6.4100
 1.7270	 6.3594
 1.7260	 6.4388
 1.7250	 6.4232
 1.7240	 6.5536
 1.7230	 6.5040
 1.7220	 6.5278
 1.7210	 6.4941
 1.7200	 6.6204
 1.7190	 6.6272
 1.7180	 6.6588
 1.7170	 6.6810
 1.7160	 6.7588
 1.7150	 6.7419
 1.7140	 6.8233
 1.7130	 6.7873
 1.7120	 6.8779
 1.7110	 6.8836
 1.7100	 6.9741
 1.7090	 6.9989
 1.7080	 7.0257
 1.7070	 7.0326
 1.7060	 7.0999
 1.7050	 7.1567
 1.7040	 7.1850
 1.7030	 7.1477
 1.7020	 7.2877
 1.7010	 7.2318
 1.7000	 7.3293
 1.6990	 7.3273
 1.6980	 7.5043
 1.6970	 7.4990
 1.6960	 7.5008
 1.6950	 7.5128
 1.6940	 7.7029
 1.6930	 7.6367
 1.6920	 7.7513
 1.6910	 7.7551
 1.6900	 7.7915
 1.6890	 7.7298
 1.6880	 7.9142
 1.6870	 7.8798
 1.6860	 7.9956
 1.6850	 7.9789
 1.6840	 8.0965
 1.6830	 8.0218
 1.6820	 8.2211
 1.6810	 8.1252
 1.6800	 8.2409
 1.6790	 8.1531
 1.6780	 8.3437
 1.6770	 8.3763
 1.6760	 8.4961
 1.6750	 8.4485
 1.6740	 8.6266
 1.6730	 8.5199
 1.6720	 8.6553
 1.6710	 8.6080
 1.6700	 8.7503
 1.6690	 8.9890
 1.6680	 8.6969
 1.6670	 8.9533
 1.6660	 9.1072
 1.6650	 8.9140
 1.6640	 9.2318
 1.6630	 9.1392
 1.6620	 9.2422
 1.6610	 9.1638
 1.6600	 9.4345
 1.6590	 9.3309
 1.6580	 9.5172
 1.6570	 9.4513
 1.6560	 9.6627
 1.6550	 9.5897
 1.6540	 9.7936
 1.6530	 9.6658
 1.6520	 9.9062
 1.6510	 9.8678
 1.6500	10.1019
 1.6490	 9.9708
 1.6480	10.0852
 1.6470	10.1059
 1.6460	10.3024
 1.6450	10.2472
 1.6440	10.3829
 1.6430	10.3542
 1.6420	10.6181
 1.6410	10.3740
 1.6400	10.7403
 1.6390	10.6487
 1.6380	10.9263
 1.6370	10.8011
 1.6360	10.9909
 1.6350	10.9412
 1.6340	11.1721
 1.6330	11.0023
 1.6320	11.3038
 1.6310	11.2602
 1.6300	11.4240
 1.6290	11.4574
 1.6280	11.5767
 1.6270	11.5980
 1.6260	11.6974
 1.6250	11.7701
 1.6240	11.8849
 1.6230	11.8828
 1.6220	12.0674
 1.6210	12.0552
 1.6200	12.2718
 1.6190	12.2553
 1.6180	12.4223
 1.6170	12.4454
 1.6160	12.6094
 1.6150	12.5618
 1.6140	12.7125
 1.6130	12.8011
 1.6120	12.9525
 1.6110	12.8552
 1.6100	13.1458
 1.6090	13.0962
 1.6080	13.3906
 1.6070	13.2440
 1.6060	13.4422
 1.6050	13.4361
 1.6040	13.6638
 1.6030	13.6676
 1.6020	13.8151
 1.6010	13.8953
 1.6000	14.1347
 1.5990	14.0734
 1.5980	14.2772
 1.5970	14.2242
 1.5960	14.3907
 1.5950	14.3688
 1.5940	14.6123
 1.5930	14.6025
 1.5920	14.7680
 1.5910	14.8965
 1.5900	15.1154
 1.5890	15.1083
 1.5880	15.3371
 1.5870	15.2853
 1.5860	15.5504
 1.5850	15.5525
 1.5840	15.7491
 1.5830	15.7455
 1.5820	15.9257
 1.5810	15.9981
 1.5800	16.1568
 1.5790	16.3000
 1.5780	16.4624
 1.5770	16.4886
 1.5760	16.6064
 1.5750	16.7334
 1.5740	16.8248
 1.5730	16.9420
 1.5720	17.1337
 1.5710	17.1727
 1.5700	17.4068
 1.5690	17.4629
 1.5680	17.5933
 1.5670	17.6660
 1.5660	17.8522
 1.5650	17.9670
 1.5640	18.1048
 1.5630	18.2132
 1.5620	18.3274
 1.5610	18.4743
 1.5600	18.6119
 1.5590	18.6843
 1.5580	18.7844
 1.5570	18.9266
 1.5560	19.0991
 1.5550	19.2438
 1.5540	19.4139
 1.5530	19.4426
 1.5520	19.5780
 1.5510	19.7299
 1.5500	19.9087
 1.5490	20.0361
 1.5480	20.1933
 1.5470	20.2823
 1.5460	20.4589
 1.5450	20.6081
 1.5440	20.7437
 1.5430	20.8363
 1.5420	20.9867
 1.5410	21.1751
 1.5400	21.3165
 1.5390	21.3764
 1.5380	21.5719
 1.5370	21.7202
 1.5360	21.8346
 1.5350	21.9503
 1.5340	22.1108
 1.5330	22.2460
 1.5320	22.4316
 1.5310	22.5240
 1.5300	22.7241
 1.5290	22.7845
 1.5280	22.9719
 1.5270	23.0853
 1.5260	23.2182
 1.5250	23.3486
 1.5240	23.5263
 1.5230	23.6745
 1.5220	23.8358
 1.5210	23.9665
 1.5200	24.0775
 1.5190	24.1581
 1.5180	24.3542
 1.5170	24.4794
 1.5160	24.5924
 1.5150	24.7369
 1.5140	24.9285
 1.5130	25.0272
 1.5120	25.1612
 1.5110	25.3228
 1.5100	25.4225
 1.5090	25.5597
 1.5080	25.7675
 1.5070	25.9054
 1.5060	26.0507
 1.5050	26.1736
 1.5040	26.3394
 1.5030	26.5255
 1.5020	26.6769
 1.5010	26.8239
 1.5000	26.9997
 1.4990	27.1665
 1.4980	27.3092
 1.4970	27.4832
 1.4960	27.7084
 1.4950	27.9183
 1.4940	28.0774
 1.4930	28.2787
 1.4920	28.4904
 1.4910	28.7296
 1.4900	28.9254
 1.4890	29.1102
 1.4880	29.3266
 1.4870	29.5138
 1.4860	29.6544
 1.4850	29.8630
 1.4840	30.0474
 1.4830	30.2679
 1.4820	30.4300
 1.4810	30.6029
 1.4800	30.7701
 1.4790	31.0069
 1.4780	31.1900
 1.4770	31.3652
 1.4760	31.5602
 1.4750	31.7690
 1.4740	31.9230
 1.4730	32.0803
 1.4720	32.2672
 1.4710	32.4757
 1.4700	32.6560
 1.4690	32.8623
 1.4680	33.0408
 1.4670	33.2562
 1.4660	33.4291
 1.4650	33.5861
 1.4640	33.7083
 1.4630	33.9581
 1.4620	34.1139
 1.4610	34.2750
 1.4600	34.4888
 1.4590	34.6644
 1.4580	34.8796
 1.4570	35.0622
 1.4560	35.2032
 1.4550	35.4509
 1.4540	35.5718
 1.4530	35.8045
 1.4520	35.8991
 1.4510	36.1204
 1.4500	36.2577
 1.4490	36.4981
 1.4480	36.6621
 1.4470	36.8887
 1.4460	37.0553
 1.4450	37.1960
 1.4440	37.3193
 1.4430	37.5452
 1.4420	37.6758
 1.4410	37.9659
 1.4400	38.0472
 1.4390	38.2866
 1.4380	38.4082
 1.4370	38.5937
 1.4360	38.7454
 1.4350	38.8995
 1.4340	39.0696
 1.4330	39.3151
 1.4320	39.4063
 1.4310	39.6543
 1.4300	39.7873
 1.4290	39.9729
 1.4280	40.1806
 1.4270	40.3878
 1.4260	40.5540
 1.4250	40.6996
 1.4240	40.9537
 1.4230	41.1801
 1.4220	41.3452
 1.4210	41.5650
 1.4200	41.7214
 1.4190	41.9656
 1.4180	42.1078
 1.4170	42.3471
 1.4160	42.5229
 1.4150	42.7488
 1.4140	42.9200
 1.4130	43.1636
 1.4120	43.2516
 1.4110	43.4796
 1.4100	43.6977
 1.4090	43.9525
 1.4080	44.0777
 1.4070	44.2569
 1.4060	44.3631
 1.4050	44.5745
 1.4040	44.7644
 1.4030	44.9701
 1.4020	45.1154
 1.4010	45.3606
 1.4000	45.4540
 1.3990	45.7534
 1.3980	45.8705
 1.3970	46.1436
 1.3960	46.2921
 1.3950	46.4599
 1.3940	46.6596
 1.3930	46.8258
 1.3920	46.9997
 1.3910	47.2313
 1.3900	47.3686
 1.3890	47.7356
 1.3880	47.7386
 1.3870	48.0088
 1.3860	48.1974
 1.3850	48.3992
 1.3840	48.5292
 1.3830	48.7069
 1.3820	48.8098
 1.3810	49.0372
 1.3800	49.2943
 1.3790	49.4570
 1.3780	49.5832
 1.3770	49.8256
 1.3760	49.9824
 1.3750	50.2022
 1.3740	50.3293
 1.3730	50.4787
 1.3720	50.5915
 1.3710	50.8288
 1.3700	51.0276
 1.3690	51.3175
 1.3680	51.3634
 1.3670	51.5634
 1.3660	51.5520
 1.3650	51.7971
