Name: Sphalerite (Zn,Fe)S
Type: Mineral
Class: Sulfide
Subclass: None
Particle Size: Fine
Sample No.: S-1A
Owner: JPL
Wavelength Range: VSWIR
Origin: USA, Oklahoma, Ottawa County, Picher.
Collection Date: N/A
Description: Particle size was 0-45um. Collected by:  JPL Original ASTER Spectral Library name was jpl.perkin.mineral.sulfide.none.fine.s01a.spectrum.txt
Measurement: Hemispherical reflectance
First Column: X
Second Column: Y
X Units: Wavelength (micrometers)
Y Units:Reflectance (percent)
First X Value:  2.5000
Last X Value:  0.4000
Number of X Values: 2101
Additional Information: mineral.sulfide.none.fine.vswir.s-1a.jpl.perkin.ancillary.txt

 2.5000	14.6758
 2.4990	14.2225
 2.4980	14.5983
 2.4970	14.9198
 2.4960	14.0615
 2.4950	14.8055
 2.4940	14.4025
 2.4930	14.6857
 2.4920	14.5664
 2.4910	14.7837
 2.4900	14.6931
 2.4890	14.8531
 2.4880	14.6438
 2.4870	15.1069
 2.4860	14.7424
 2.4850	15.0224
 2.4840	14.7388
 2.4830	14.9594
 2.4820	14.9988
 2.4810	14.9931
 2.4800	14.8962
 2.4790	15.2098
 2.4780	14.9565
 2.4770	15.0565
 2.4760	14.9310
 2.4750	15.3552
 2.4740	14.9316
 2.4730	15.1744
 2.4720	15.0641
 2.4710	15.3714
 2.4700	15.1255
 2.4690	15.2965
 2.4680	15.3279
 2.4670	15.3318
 2.4660	15.2996
 2.4650	15.4716
 2.4640	15.3688
 2.4630	15.5399
 2.4620	15.4295
 2.4610	15.5774
 2.4600	15.4577
 2.4590	15.6234
 2.4580	15.4776
 2.4570	15.8214
 2.4560	15.6247
 2.4550	15.7920
 2.4540	15.7376
 2.4530	15.7553
 2.4520	15.8271
 2.4510	15.9994
 2.4500	15.8484
 2.4490	15.9889
 2.4480	15.9346
 2.4470	15.9704
 2.4460	15.9512
 2.4450	16.0923
 2.4440	16.0319
 2.4430	16.1732
 2.4420	16.1600
 2.4410	16.2674
 2.4400	16.1382
 2.4390	16.3447
 2.4380	16.1805
 2.4370	16.2956
 2.4360	16.3397
 2.4350	16.4528
 2.4340	16.3042
 2.4330	16.4812
 2.4320	16.3995
 2.4310	16.5560
 2.4300	16.4598
 2.4290	16.5533
 2.4280	16.5954
 2.4270	16.6262
 2.4260	16.6814
 2.4250	16.7733
 2.4240	16.7136
 2.4230	16.8938
 2.4220	16.8288
 2.4210	16.9454
 2.4200	16.9181
 2.4190	16.9367
 2.4180	16.8611
 2.4170	17.0655
 2.4160	17.0350
 2.4150	17.1222
 2.4140	17.0549
 2.4130	17.1452
 2.4120	17.1257
 2.4110	17.2345
 2.4100	17.1919
 2.4090	17.2740
 2.4080	17.2600
 2.4070	17.3342
 2.4060	17.3144
 2.4050	17.4223
 2.4040	17.4621
 2.4030	17.5639
 2.4020	17.5732
 2.4010	17.6041
 2.4000	17.5527
 2.3990	17.6885
 2.3980	17.6521
 2.3970	17.7553
 2.3960	17.7940
 2.3950	17.8508
 2.3940	17.8537
 2.3930	17.9228
 2.3920	17.9660
 2.3910	18.0092
 2.3900	18.0208
 2.3890	18.0733
 2.3880	18.0794
 2.3870	18.1166
 2.3860	18.1313
 2.3850	18.2647
 2.3840	18.3281
 2.3830	18.4218
 2.3820	18.4175
 2.3810	18.4379
 2.3800	18.4251
 2.3790	18.4973
 2.3780	18.5638
 2.3770	18.6263
 2.3760	18.6566
 2.3750	18.7275
 2.3740	18.7745
 2.3730	18.7674
 2.3720	18.8030
 2.3710	18.9261
 2.3700	18.9488
 2.3690	18.9967
 2.3680	18.9922
 2.3670	19.0321
 2.3660	19.1081
 2.3650	19.1629
 2.3640	19.1996
 2.3630	19.2956
 2.3620	19.3378
 2.3610	19.3845
 2.3600	19.4339
 2.3590	19.4810
 2.3580	19.5091
 2.3570	19.5417
 2.3560	19.6701
 2.3550	19.7211
 2.3540	19.6988
 2.3530	19.7703
 2.3520	19.8045
 2.3510	19.8404
 2.3500	19.9187
 2.3490	19.9668
 2.3480	20.0056
 2.3470	20.0212
 2.3460	20.1122
 2.3450	20.2099
 2.3440	20.2129
 2.3430	20.2656
 2.3420	20.3324
 2.3410	20.3862
 2.3400	20.4693
 2.3390	20.4968
 2.3380	20.5486
 2.3370	20.5680
 2.3360	20.6410
 2.3350	20.6833
 2.3340	20.7595
 2.3330	20.7857
 2.3320	20.8588
 2.3310	20.9225
 2.3300	20.9954
 2.3290	21.0098
 2.3280	21.0288
 2.3270	21.0798
 2.3260	21.1546
 2.3250	21.2162
 2.3240	21.2978
 2.3230	21.3158
 2.3220	21.4121
 2.3210	21.4214
 2.3200	21.5472
 2.3190	21.5442
 2.3180	21.6133
 2.3170	21.6722
 2.3160	21.7669
 2.3150	21.7913
 2.3140	21.8743
 2.3130	21.9268
 2.3120	21.9662
 2.3110	22.0324
 2.3100	22.1795
 2.3090	22.1288
 2.3080	22.2412
 2.3070	22.2784
 2.3060	22.3286
 2.3050	22.3787
 2.3040	22.4932
 2.3030	22.4944
 2.3020	22.5825
 2.3010	22.6637
 2.3000	22.7436
 2.2990	22.8059
 2.2980	22.8826
 2.2970	22.9380
 2.2960	22.9565
 2.2950	23.0328
 2.2940	23.1085
 2.2930	23.1456
 2.2920	23.2728
 2.2910	23.2803
 2.2900	23.3407
 2.2890	23.3996
 2.2880	23.5399
 2.2870	23.5632
 2.2860	23.6335
 2.2850	23.7098
 2.2840	23.8112
 2.2830	23.8498
 2.2820	23.9375
 2.2810	23.9928
 2.2800	24.0863
 2.2790	24.0528
 2.2780	24.2422
 2.2770	24.2299
 2.2760	24.2947
 2.2750	24.3848
 2.2740	24.5256
 2.2730	24.5039
 2.2720	24.6567
 2.2710	24.6784
 2.2700	24.7898
 2.2690	24.7852
 2.2680	24.9419
 2.2670	24.8550
 2.2660	25.0449
 2.2650	25.1435
 2.2640	25.2261
 2.2630	25.1629
 2.2620	25.3296
 2.2610	25.3608
 2.2600	25.4752
 2.2590	25.4481
 2.2580	25.6649
 2.2570	25.6237
 2.2560	25.7849
 2.2550	25.8037
 2.2540	25.9305
 2.2530	25.9202
 2.2520	26.1029
 2.2510	26.0640
 2.2500	26.2024
 2.2490	26.2261
 2.2480	26.4190
 2.2470	26.4235
 2.2460	26.6371
 2.2450	26.4992
 2.2440	26.6597
 2.2430	26.6999
 2.2420	26.8728
 2.2410	26.8766
 2.2400	27.0742
 2.2390	27.0366
 2.2380	27.1687
 2.2370	27.1907
 2.2360	27.4533
 2.2350	27.3276
 2.2340	27.5491
 2.2330	27.5129
 2.2320	27.6484
 2.2310	27.6055
 2.2300	27.7806
 2.2290	27.8758
 2.2280	28.0469
 2.2270	28.0278
 2.2260	28.1403
 2.2250	28.1263
 2.2240	28.3547
 2.2230	28.3833
 2.2220	28.6099
 2.2210	28.5668
 2.2200	28.6992
 2.2190	28.6824
 2.2180	28.8787
 2.2170	28.8941
 2.2160	29.1493
 2.2150	29.0871
 2.2140	29.2368
 2.2130	29.2670
 2.2120	29.4951
 2.2110	29.2130
 2.2100	29.7139
 2.2090	29.5727
 2.2080	29.8671
 2.2070	29.7485
 2.2060	30.0289
 2.2050	29.9840
 2.2040	30.1490
 2.2030	30.1879
 2.2020	30.3344
 2.2010	30.3388
 2.2000	30.5661
 2.1990	30.5187
 2.1980	30.7112
 2.1970	30.7364
 2.1960	30.8825
 2.1950	30.8868
 2.1940	31.1398
 2.1930	31.1775
 2.1920	31.2305
 2.1910	31.2948
 2.1900	31.4580
 2.1890	31.4927
 2.1880	31.6841
 2.1870	31.6545
 2.1860	32.0073
 2.1850	31.8106
 2.1840	32.0459
 2.1830	32.1226
 2.1820	32.2306
 2.1810	32.2550
 2.1800	32.4077
 2.1790	32.5174
 2.1780	32.6199
 2.1770	32.6461
 2.1760	32.8785
 2.1750	32.8525
 2.1740	33.0213
 2.1730	33.0624
 2.1720	33.2583
 2.1710	33.3349
 2.1700	33.4274
 2.1690	33.4835
 2.1680	33.6614
 2.1670	33.7179
 2.1660	33.9056
 2.1650	33.8894
 2.1640	34.0093
 2.1630	34.1052
 2.1620	34.2774
 2.1610	34.3628
 2.1600	34.5299
 2.1590	34.5418
 2.1580	34.6863
 2.1570	34.7334
 2.1560	34.8829
 2.1550	34.9828
 2.1540	35.1138
 2.1530	35.1838
 2.1520	35.3165
 2.1510	35.3477
 2.1500	35.5206
 2.1490	35.5412
 2.1480	35.7051
 2.1470	35.7828
 2.1460	35.9120
 2.1450	35.9882
 2.1440	36.0832
 2.1430	36.1204
 2.1420	36.3032
 2.1410	36.3403
 2.1400	36.4503
 2.1390	36.4911
 2.1380	36.6716
 2.1370	36.6975
 2.1360	36.8526
 2.1350	36.8901
 2.1340	37.0637
 2.1330	37.0738
 2.1320	37.2124
 2.1310	37.2611
 2.1300	37.3566
 2.1290	37.4743
 2.1280	37.5877
 2.1270	37.6476
 2.1260	37.7273
 2.1250	37.7322
 2.1240	37.8467
 2.1230	37.9562
 2.1220	38.0943
 2.1210	38.1014
 2.1200	38.2209
 2.1190	38.3037
 2.1180	38.3895
 2.1170	38.4535
 2.1160	38.5020
 2.1150	38.5167
 2.1140	38.6930
 2.1130	38.7606
 2.1120	38.8632
 2.1110	38.8976
 2.1100	38.9233
 2.1090	38.9932
 2.1080	39.0961
 2.1070	39.1599
 2.1060	39.2866
 2.1050	39.3788
 2.1040	39.4347
 2.1030	39.4554
 2.1020	39.5903
 2.1010	39.6962
 2.1000	39.7663
 2.0990	39.8459
 2.0980	39.8937
 2.0970	39.9603
 2.0960	40.1320
 2.0950	40.1619
 2.0940	40.3850
 2.0930	40.5020
 2.0920	40.5436
 2.0910	40.6408
 2.0900	40.7277
 2.0890	40.7935
 2.0880	40.9028
 2.0870	41.0386
 2.0860	41.1231
 2.0850	41.2323
 2.0840	41.3582
 2.0830	41.4203
 2.0820	41.5251
 2.0810	41.6218
 2.0800	41.7347
 2.0790	41.7968
 2.0780	41.8949
 2.0770	42.0174
 2.0760	42.0836
 2.0750	42.1705
 2.0740	42.2952
 2.0730	42.3900
 2.0720	42.5101
 2.0710	42.6127
 2.0700	42.6541
 2.0690	42.7579
 2.0680	42.8654
 2.0670	42.9670
 2.0660	43.0969
 2.0650	43.1799
 2.0640	43.2567
 2.0630	43.3840
 2.0620	43.4330
 2.0610	43.5297
 2.0600	43.6602
 2.0590	43.7043
 2.0580	43.8131
 2.0570	43.9547
 2.0560	43.9794
 2.0550	44.0762
 2.0540	44.2045
 2.0530	44.2931
 2.0520	44.3607
 2.0510	44.4634
 2.0500	44.5524
 2.0490	44.6386
 2.0480	44.7221
 2.0470	44.9014
 2.0460	44.9806
 2.0450	45.0233
 2.0440	45.0471
 2.0430	45.1709
 2.0420	45.2575
 2.0410	45.3624
 2.0400	45.4877
 2.0390	45.5482
 2.0380	45.6148
 2.0370	45.7353
 2.0360	45.7633
 2.0350	45.8402
 2.0340	45.9300
 2.0330	46.0453
 2.0320	46.1075
 2.0310	46.1986
 2.0300	46.2449
 2.0290	46.3240
 2.0280	46.3880
 2.0270	46.4878
 2.0260	46.5927
 2.0250	46.6123
 2.0240	46.7029
 2.0230	46.8697
 2.0220	46.8748
 2.0210	46.9421
 2.0200	47.0153
 2.0190	47.1106
 2.0180	47.1787
 2.0170	47.2277
 2.0160	47.2829
 2.0150	47.3879
 2.0140	47.4420
 2.0130	47.5463
 2.0120	47.6200
 2.0110	47.7455
 2.0100	47.7225
 2.0090	47.8201
 2.0080	47.8730
 2.0070	47.9876
 2.0060	47.9971
 2.0050	48.0838
 2.0040	48.0774
 2.0030	48.2031
 2.0020	48.2543
 2.0010	48.2916
 2.0000	48.3596
 1.9990	48.4837
 1.9980	48.5271
 1.9970	48.6183
 1.9960	48.5867
 1.9950	48.6152
 1.9940	48.6672
 1.9930	48.6890
 1.9920	48.8265
 1.9910	48.9674
 1.9900	48.9613
 1.9890	49.0564
 1.9880	49.0426
 1.9870	49.1715
 1.9860	49.1367
 1.9850	49.2350
 1.9840	49.2679
 1.9830	49.3429
 1.9820	49.3388
 1.9810	49.4771
 1.9800	49.5082
 1.9790	49.5396
 1.9780	49.5455
 1.9770	49.6670
 1.9760	49.6803
 1.9750	49.6601
 1.9740	49.6996
 1.9730	49.7990
 1.9720	49.8072
 1.9710	49.9254
 1.9700	49.9987
 1.9690	50.0114
 1.9680	50.0230
 1.9670	50.1607
 1.9660	50.1261
 1.9650	50.2438
 1.9640	50.1849
 1.9630	50.2631
 1.9620	50.3681
 1.9610	50.4365
 1.9600	50.4114
 1.9590	50.4780
 1.9580	50.4871
 1.9570	50.5326
 1.9560	50.5739
 1.9550	50.6806
 1.9540	50.6752
 1.9530	50.7361
 1.9520	50.7509
 1.9510	50.9105
 1.9500	50.7826
 1.9490	50.9229
 1.9480	50.9691
 1.9470	50.8911
 1.9460	50.8986
 1.9450	51.0666
 1.9440	51.0754
 1.9430	51.1190
 1.9420	51.0763
 1.9410	51.2404
 1.9400	51.2510
 1.9390	51.3344
 1.9380	51.3381
 1.9370	51.3960
 1.9360	51.3099
 1.9350	51.5583
 1.9340	51.4551
 1.9330	51.5917
 1.9320	51.4808
 1.9310	51.5919
 1.9300	51.7002
 1.9290	51.7011
 1.9280	51.7184
 1.9270	51.8395
 1.9260	51.7092
 1.9250	51.9414
 1.9240	51.8980
 1.9230	51.9493
 1.9220	51.8968
 1.9210	51.9942
 1.9200	51.9979
 1.9190	51.9791
 1.9180	51.9754
 1.9170	52.1410
 1.9160	51.9798
 1.9150	52.1893
 1.9140	52.1383
 1.9130	52.2676
 1.9120	52.2468
 1.9110	52.3430
 1.9100	52.2592
 1.9090	52.3566
 1.9080	52.3774
 1.9070	52.5033
 1.9060	52.4326
 1.9050	52.4933
 1.9040	52.4057
 1.9030	52.5176
 1.9020	52.5607
 1.9010	52.5812
 1.9000	52.5457
 1.8990	52.5944
 1.8980	52.5853
 1.8970	52.7036
 1.8960	52.6280
 1.8950	52.7297
 1.8940	52.7462
 1.8930	52.7876
 1.8920	52.7982
 1.8910	52.8280
 1.8900	52.7961
 1.8890	52.8982
 1.8880	52.9028
 1.8870	52.8642
 1.8860	52.9208
 1.8850	52.9722
 1.8840	53.0128
 1.8830	53.0015
 1.8820	52.9630
 1.8810	53.0392
 1.8800	53.0307
 1.8790	53.1612
 1.8780	53.1094
 1.8770	53.1030
 1.8760	53.1389
 1.8750	53.1845
 1.8740	53.1086
 1.8730	53.1442
 1.8720	53.0640
 1.8710	53.1313
 1.8700	53.1012
 1.8690	53.1941
 1.8680	53.1436
 1.8670	53.1919
 1.8660	53.1438
 1.8650	53.2110
 1.8640	53.2046
 1.8630	53.3028
 1.8620	53.3290
 1.8610	53.3212
 1.8600	53.3236
 1.8590	53.3077
 1.8580	53.2543
 1.8570	53.2757
 1.8560	53.2786
 1.8550	53.3330
 1.8540	53.3288
 1.8530	53.2754
 1.8520	53.2999
 1.8510	53.2688
 1.8500	53.2909
 1.8490	53.3222
 1.8480	53.2936
 1.8470	53.3018
 1.8460	53.2985
 1.8450	53.3107
 1.8440	53.3176
 1.8430	53.3750
 1.8420	53.3176
 1.8410	53.4078
 1.8400	53.3466
 1.8390	53.3501
 1.8380	53.3083
 1.8370	53.3110
 1.8360	53.3021
 1.8350	53.2959
 1.8340	53.2682
 1.8330	53.3087
 1.8320	53.3491
 1.8310	53.3627
 1.8300	53.3625
 1.8290	53.3633
 1.8280	53.3013
 1.8270	53.2416
 1.8260	53.3031
 1.8250	53.2912
 1.8240	53.2824
 1.8230	53.3314
 1.8220	53.2799
 1.8210	53.3478
 1.8200	53.3230
 1.8190	53.2897
 1.8180	53.2945
 1.8170	53.3276
 1.8160	53.3182
 1.8150	53.3167
 1.8140	53.3042
 1.8130	53.3138
 1.8120	53.2689
 1.8110	53.2638
 1.8100	53.2464
 1.8090	53.2601
 1.8080	53.2310
 1.8070	53.2043
 1.8060	53.2487
 1.8050	53.3009
 1.8040	53.2707
 1.8030	53.2095
 1.8020	53.1907
 1.8010	53.2113
 1.8000	53.2243
 1.7990	53.2326
 1.7980	53.2099
 1.7970	53.2044
 1.7960	53.1329
 1.7950	53.0984
 1.7940	53.1478
 1.7930	53.1637
 1.7920	53.1142
 1.7910	53.1425
 1.7900	53.1468
 1.7890	53.0848
 1.7880	53.1075
 1.7870	53.1102
 1.7860	53.0528
 1.7850	53.0584
 1.7840	53.1201
 1.7830	53.0429
 1.7820	53.0227
 1.7810	53.0624
 1.7800	53.0311
 1.7790	52.9622
 1.7780	52.9440
 1.7770	52.9882
 1.7760	52.9473
 1.7750	52.9056
 1.7740	52.9145
 1.7730	52.8855
 1.7720	52.8441
 1.7710	52.7776
 1.7700	52.8196
 1.7690	52.8241
 1.7680	52.8115
 1.7670	52.8051
 1.7660	52.7967
 1.7650	52.7638
 1.7640	52.7739
 1.7630	52.7602
 1.7620	52.7236
 1.7610	52.7193
 1.7600	52.7449
 1.7590	52.7008
 1.7580	52.6770
 1.7570	52.6777
 1.7560	52.6821
 1.7550	52.6498
 1.7540	52.6630
 1.7530	52.6296
 1.7520	52.5997
 1.7510	52.5918
 1.7500	52.5931
 1.7490	52.5376
 1.7480	52.5410
 1.7470	52.5049
 1.7460	52.4829
 1.7450	52.4819
 1.7440	52.5334
 1.7430	52.4798
 1.7420	52.4661
 1.7410	52.4179
 1.7400	52.4500
 1.7390	52.4551
 1.7380	52.4456
 1.7370	52.4336
 1.7360	52.4582
 1.7350	52.3860
 1.7340	52.3769
 1.7330	52.3718
 1.7320	52.3723
 1.7310	52.3832
 1.7300	52.3274
 1.7290	52.2748
 1.7280	52.3263
 1.7270	52.2766
 1.7260	52.3078
 1.7250	52.3464
 1.7240	52.3102
 1.7230	52.2152
 1.7220	52.2097
 1.7210	52.2026
 1.7200	52.2913
 1.7190	52.1636
 1.7180	52.1523
 1.7170	52.1453
 1.7160	52.0882
 1.7150	52.1409
 1.7140	52.1432
 1.7130	52.1357
 1.7120	52.1277
 1.7110	52.0571
 1.7100	52.0306
 1.7090	52.0675
 1.7080	52.0643
 1.7070	51.9466
 1.7060	52.0201
 1.7050	51.9394
 1.7040	51.9941
 1.7030	51.9852
 1.7020	51.9547
 1.7010	51.9500
 1.7000	51.9325
 1.6990	51.9010
 1.6980	51.8669
 1.6970	51.7627
 1.6960	51.9318
 1.6950	51.8084
 1.6940	51.9109
 1.6930	51.8022
 1.6920	51.8308
 1.6910	51.7979
 1.6900	51.7442
 1.6890	51.7498
 1.6880	51.7755
 1.6870	51.6751
 1.6860	51.7246
 1.6850	51.6951
 1.6840	51.7621
 1.6830	51.7181
 1.6820	51.7348
 1.6810	51.7493
 1.6800	51.7163
 1.6790	51.6607
 1.6780	51.7011
 1.6770	51.6179
 1.6760	51.7048
 1.6750	51.7053
 1.6740	51.6510
 1.6730	51.5924
 1.6720	51.6811
 1.6710	51.6515
 1.6700	51.6980
 1.6690	51.7308
 1.6680	51.5892
 1.6670	51.6190
 1.6660	51.7092
 1.6650	51.6744
 1.6640	51.6910
 1.6630	51.5741
 1.6620	51.6697
 1.6610	51.5706
 1.6600	51.6310
 1.6590	51.5523
 1.6580	51.5642
 1.6570	51.6334
 1.6560	51.5833
 1.6550	51.5488
 1.6540	51.5520
 1.6530	51.5717
 1.6520	51.6506
 1.6510	51.5608
 1.6500	51.6136
 1.6490	51.5681
 1.6480	51.6197
 1.6470	51.5712
 1.6460	51.5956
 1.6450	51.5435
 1.6440	51.6054
 1.6430	51.5351
 1.6420	51.6634
 1.6410	51.4413
 1.6400	51.5942
 1.6390	51.5598
 1.6380	51.5605
 1.6370	51.6143
 1.6360	51.5937
 1.6350	51.5220
 1.6340	51.5699
 1.6330	51.5225
 1.6320	51.5531
 1.6310	51.6073
 1.6300	51.5043
 1.6290	51.4857
 1.6280	51.5827
 1.6270	51.5539
 1.6260	51.6061
 1.6250	51.6075
 1.6240	51.5455
 1.6230	51.5286
 1.6220	51.5365
 1.6210	51.5162
 1.6200	51.5398
 1.6190	51.5178
 1.6180	51.5868
 1.6170	51.5776
 1.6160	51.5520
 1.6150	51.5145
 1.6140	51.5544
 1.6130	51.5166
 1.6120	51.5443
 1.6110	51.5910
 1.6100	51.5584
 1.6090	51.5752
 1.6080	51.6182
 1.6070	51.4657
 1.6060	51.4968
 1.6050	51.5074
 1.6040	51.5384
 1.6030	51.4905
 1.6020	51.5293
 1.6010	51.4947
 1.6000	51.5616
 1.5990	51.5908
 1.5980	51.6315
 1.5970	51.5050
 1.5960	51.5174
 1.5950	51.5258
 1.5940	51.6296
 1.5930	51.4931
 1.5920	51.5288
 1.5910	51.5513
 1.5900	51.5709
 1.5890	51.5027
 1.5880	51.5368
 1.5870	51.5257
 1.5860	51.5385
 1.5850	51.4621
 1.5840	51.4750
 1.5830	51.4926
 1.5820	51.5497
 1.5810	51.4640
 1.5800	51.5053
 1.5790	51.4382
 1.5780	51.5191
 1.5770	51.4711
 1.5760	51.5195
 1.5750	51.4700
 1.5740	51.5211
 1.5730	51.4846
 1.5720	51.5062
 1.5710	51.4882
 1.5700	51.5593
 1.5690	51.4943
 1.5680	51.4892
 1.5670	51.4985
 1.5660	51.5245
 1.5650	51.4840
 1.5640	51.5057
 1.5630	51.4860
 1.5620	51.5140
 1.5610	51.4992
 1.5600	51.5101
 1.5590	51.4487
 1.5580	51.4321
 1.5570	51.4592
 1.5560	51.5026
 1.5550	51.4299
 1.5540	51.4446
 1.5530	51.4259
 1.5520	51.4724
 1.5510	51.4751
 1.5500	51.4845
 1.5490	51.4685
 1.5480	51.4627
 1.5470	51.4234
 1.5460	51.4649
 1.5450	51.4847
 1.5440	51.4931
 1.5430	51.4261
 1.5420	51.4890
 1.5410	51.4867
 1.5400	51.4512
 1.5390	51.4549
 1.5380	51.5011
 1.5370	51.5236
 1.5360	51.5191
 1.5350	51.4585
 1.5340	51.4959
 1.5330	51.5098
 1.5320	51.5090
 1.5310	51.4323
 1.5300	51.4151
 1.5290	51.4268
 1.5280	51.4662
 1.5270	51.4778
 1.5260	51.4824
 1.5250	51.4539
 1.5240	51.4196
 1.5230	51.4149
 1.5220	51.4881
 1.5210	51.4799
 1.5200	51.4485
 1.5190	51.4004
 1.5180	51.3761
 1.5170	51.4102
 1.5160	51.4742
 1.5150	51.4661
 1.5140	51.4615
 1.5130	51.4434
 1.5120	51.4410
 1.5110	51.4413
 1.5100	51.4109
 1.5090	51.4239
 1.5080	51.4589
 1.5070	51.4595
 1.5060	51.4342
 1.5050	51.4155
 1.5040	51.4185
 1.5030	51.4240
 1.5020	51.4385
 1.5010	51.4456
 1.5000	51.4180
 1.4990	51.3826
 1.4980	51.4278
 1.4970	51.4757
 1.4960	51.4533
 1.4950	51.4568
 1.4940	51.4349
 1.4930	51.3839
 1.4920	51.4212
 1.4910	51.4535
 1.4900	51.4385
 1.4890	51.4171
 1.4880	51.4011
 1.4870	51.4094
 1.4860	51.3964
 1.4850	51.3879
 1.4840	51.3185
 1.4830	51.3633
 1.4820	51.4068
 1.4810	51.4286
 1.4800	51.4278
 1.4790	51.3878
 1.4780	51.3921
 1.4770	51.4484
 1.4760	51.4698
 1.4750	51.4471
 1.4740	51.3797
 1.4730	51.4536
 1.4720	51.4666
 1.4710	51.3909
 1.4700	51.3589
 1.4690	51.3755
 1.4680	51.3646
 1.4670	51.4214
 1.4660	51.3925
 1.4650	51.3864
 1.4640	51.3701
 1.4630	51.4010
 1.4620	51.4142
 1.4610	51.3765
 1.4600	51.4013
 1.4590	51.3752
 1.4580	51.3481
 1.4570	51.3827
 1.4560	51.3595
 1.4550	51.4448
 1.4540	51.3256
 1.4530	51.3380
 1.4520	51.3376
 1.4510	51.3764
 1.4500	51.4069
 1.4490	51.4197
 1.4480	51.3753
 1.4470	51.4336
 1.4460	51.3524
 1.4450	51.3954
 1.4440	51.3742
 1.4430	51.4023
 1.4420	51.4225
 1.4410	51.4678
 1.4400	51.3832
 1.4390	51.4131
 1.4380	51.3719
 1.4370	51.3819
 1.4360	51.2992
 1.4350	51.3253
 1.4340	51.3460
 1.4330	51.4232
 1.4320	51.4342
 1.4310	51.4641
 1.4300	51.4474
 1.4290	51.4062
 1.4280	51.3206
 1.4270	51.4245
 1.4260	51.3687
 1.4250	51.3784
 1.4240	51.4043
 1.4230	51.4288
 1.4220	51.3250
 1.4210	51.4084
 1.4200	51.3372
 1.4190	51.3813
 1.4180	51.3712
 1.4170	51.4069
 1.4160	51.3747
 1.4150	51.4355
 1.4140	51.3510
 1.4130	51.3973
 1.4120	51.3791
 1.4110	51.4148
 1.4100	51.3994
 1.4090	51.4263
 1.4080	51.3515
 1.4070	51.3480
 1.4060	51.3777
 1.4050	51.4665
 1.4040	51.3918
 1.4030	51.4425
 1.4020	51.3750
 1.4010	51.3839
 1.4000	51.4167
 1.3990	51.4255
 1.3980	51.4415
 1.3970	51.5117
 1.3960	51.4101
 1.3950	51.4689
 1.3940	51.4402
 1.3930	51.4073
 1.3920	51.4007
 1.3910	51.5798
 1.3900	51.4369
 1.3890	51.4792
 1.3880	51.4388
 1.3870	51.5944
 1.3860	51.4405
 1.3850	51.4870
 1.3840	51.5182
 1.3830	51.5707
 1.3820	51.4319
 1.3810	51.4251
 1.3800	51.3556
 1.3790	51.4711
 1.3780	51.4335
 1.3770	51.5486
 1.3760	51.4565
 1.3750	51.5680
 1.3740	51.4574
 1.3730	51.5077
 1.3720	51.3975
 1.3710	51.5211
 1.3700	51.4352
 1.3690	51.4800
 1.3680	51.4630
 1.3670	51.5504
 1.3660	51.4535
 1.3650	51.5725
