Name: Zircon ZrSiO_4
Type: Mineral
Class: Silicate
Subclass: Nesosilicate
Particle Size: Coarse
Sample No.: NS-9A
Owner: JPL
Wavelength Range: VSWIR
Origin: Malawi, Southern Malawi, Blantyre-Limbe District.
Collection Date: N/A
Description: Particle size was 125-500um.Collected by:  Burminco Original ASTER Spectral Library name was jpl.perkin.mineral.silicate.nesosilicate.coarse.ns09a.spectrum.txt
Measurement: Hemispherical reflectance
First Column: X
Second Column: Y
X Units: Wavelength (micrometers)
Y Units:Reflectance (percent)
First X Value:  2.5000
Last X Value:  0.4000
Number of X Values: 2101
Additional Information: mineral.silicate.nesosilicate.coarse.vswir.ns-9a.jpl.perkin.ancillary.txt

 2.5000	56.7039
 2.4990	56.8765
 2.4980	56.8647
 2.4970	57.1121
 2.4960	56.8254
 2.4950	56.9632
 2.4940	56.9790
 2.4930	56.9827
 2.4920	56.8502
 2.4910	57.2884
 2.4900	57.1253
 2.4890	57.3480
 2.4880	57.2866
 2.4870	57.2871
 2.4860	57.4357
 2.4850	57.6101
 2.4840	57.5532
 2.4830	57.6041
 2.4820	57.6270
 2.4810	57.6951
 2.4800	57.7167
 2.4790	57.8230
 2.4780	57.6001
 2.4770	57.8006
 2.4760	57.8240
 2.4750	58.0399
 2.4740	57.8919
 2.4730	58.1316
 2.4720	58.0607
 2.4710	58.1137
 2.4700	58.1062
 2.4690	58.2033
 2.4680	58.1948
 2.4670	58.2675
 2.4660	58.3315
 2.4650	58.4040
 2.4640	58.3998
 2.4630	58.4014
 2.4620	58.4269
 2.4610	58.4097
 2.4600	58.4508
 2.4590	58.5771
 2.4580	58.6303
 2.4570	58.6170
 2.4560	58.5968
 2.4550	58.8174
 2.4540	58.7953
 2.4530	58.8060
 2.4520	58.7413
 2.4510	58.8205
 2.4500	58.8503
 2.4490	58.9224
 2.4480	58.8979
 2.4470	59.0557
 2.4460	58.9775
 2.4450	59.1513
 2.4440	59.0667
 2.4430	59.1096
 2.4420	59.2028
 2.4410	59.3128
 2.4400	59.2282
 2.4390	59.2521
 2.4380	59.2339
 2.4370	59.2474
 2.4360	59.2356
 2.4350	59.3706
 2.4340	59.3921
 2.4330	59.4495
 2.4320	59.4371
 2.4310	59.5029
 2.4300	59.4814
 2.4290	59.4549
 2.4280	59.5158
 2.4270	59.6398
 2.4260	59.5790
 2.4250	59.5875
 2.4240	59.6248
 2.4230	59.6393
 2.4220	59.6581
 2.4210	59.6678
 2.4200	59.6351
 2.4190	59.6081
 2.4180	59.6875
 2.4170	59.7520
 2.4160	59.6835
 2.4150	59.7857
 2.4140	59.7054
 2.4130	59.7056
 2.4120	59.8162
 2.4110	59.7949
 2.4100	59.7104
 2.4090	59.7557
 2.4080	59.7928
 2.4070	59.8084
 2.4060	59.7621
 2.4050	59.7691
 2.4040	59.7650
 2.4030	59.7362
 2.4020	59.7736
 2.4010	59.7524
 2.4000	59.7292
 2.3990	59.6898
 2.3980	59.7001
 2.3970	59.7209
 2.3960	59.6977
 2.3950	59.6607
 2.3940	59.6265
 2.3930	59.6641
 2.3920	59.6516
 2.3910	59.6850
 2.3900	59.7058
 2.3890	59.6737
 2.3880	59.6127
 2.3870	59.6968
 2.3860	59.6747
 2.3850	59.7113
 2.3840	59.7086
 2.3830	59.7596
 2.3820	59.7672
 2.3810	59.7132
 2.3800	59.6719
 2.3790	59.7544
 2.3780	59.7872
 2.3770	59.8174
 2.3760	59.7988
 2.3750	59.7674
 2.3740	59.8097
 2.3730	59.8439
 2.3720	59.8339
 2.3710	59.8447
 2.3700	59.8725
 2.3690	59.8611
 2.3680	59.8660
 2.3670	59.9172
 2.3660	59.9388
 2.3650	59.9626
 2.3640	60.0278
 2.3630	60.0516
 2.3620	60.0621
 2.3610	60.0682
 2.3600	60.0484
 2.3590	60.0373
 2.3580	60.0611
 2.3570	60.1022
 2.3560	60.1262
 2.3550	60.1187
 2.3540	60.1444
 2.3530	60.1533
 2.3520	60.1932
 2.3510	60.2566
 2.3500	60.2661
 2.3490	60.2445
 2.3480	60.2682
 2.3470	60.3147
 2.3460	60.3355
 2.3450	60.3306
 2.3440	60.3432
 2.3430	60.3631
 2.3420	60.3958
 2.3410	60.4470
 2.3400	60.4754
 2.3390	60.4413
 2.3380	60.4527
 2.3370	60.4847
 2.3360	60.4837
 2.3350	60.4968
 2.3340	60.5138
 2.3330	60.4561
 2.3320	60.4537
 2.3310	60.4720
 2.3300	60.5069
 2.3290	60.5383
 2.3280	60.5356
 2.3270	60.5243
 2.3260	60.5196
 2.3250	60.5154
 2.3240	60.4853
 2.3230	60.4698
 2.3220	60.5046
 2.3210	60.4672
 2.3200	60.4752
 2.3190	60.4748
 2.3180	60.4942
 2.3170	60.5200
 2.3160	60.4796
 2.3150	60.4679
 2.3140	60.5126
 2.3130	60.4883
 2.3120	60.5292
 2.3110	60.4602
 2.3100	60.4756
 2.3090	60.5352
 2.3080	60.5431
 2.3070	60.5135
 2.3060	60.5084
 2.3050	60.4808
 2.3040	60.5038
 2.3030	60.4470
 2.3020	60.4452
 2.3010	60.4898
 2.3000	60.4783
 2.2990	60.4398
 2.2980	60.4824
 2.2970	60.4652
 2.2960	60.4242
 2.2950	60.3947
 2.2940	60.4279
 2.2930	60.4295
 2.2920	60.4404
 2.2910	60.3797
 2.2900	60.3830
 2.2890	60.3723
 2.2880	60.4200
 2.2870	60.3697
 2.2860	60.3709
 2.2850	60.3707
 2.2840	60.4040
 2.2830	60.3696
 2.2820	60.3292
 2.2810	60.3211
 2.2800	60.3532
 2.2790	60.2993
 2.2780	60.3286
 2.2770	60.3264
 2.2760	60.3353
 2.2750	60.3145
 2.2740	60.2967
 2.2730	60.2681
 2.2720	60.2831
 2.2710	60.2158
 2.2700	60.2167
 2.2690	60.1954
 2.2680	60.2108
 2.2670	60.1447
 2.2660	60.1147
 2.2650	60.1002
 2.2640	60.0942
 2.2630	60.1708
 2.2620	60.1879
 2.2610	60.1120
 2.2600	60.0698
 2.2590	60.0864
 2.2580	60.0574
 2.2570	59.9516
 2.2560	60.0558
 2.2550	60.0752
 2.2540	59.9860
 2.2530	60.0099
 2.2520	60.0144
 2.2510	59.9758
 2.2500	60.0578
 2.2490	59.9792
 2.2480	59.9517
 2.2470	60.0355
 2.2460	60.0463
 2.2450	59.9797
 2.2440	60.0882
 2.2430	60.0081
 2.2420	60.0340
 2.2410	60.0657
 2.2400	60.0936
 2.2390	60.0745
 2.2380	60.1089
 2.2370	60.1235
 2.2360	60.1669
 2.2350	60.0816
 2.2340	60.2656
 2.2330	60.2163
 2.2320	60.3365
 2.2310	60.2789
 2.2300	60.3213
 2.2290	60.2569
 2.2280	60.3805
 2.2270	60.3359
 2.2260	60.3782
 2.2250	60.3512
 2.2240	60.3942
 2.2230	60.3863
 2.2220	60.4551
 2.2210	60.3680
 2.2200	60.3738
 2.2190	60.3693
 2.2180	60.3308
 2.2170	60.2776
 2.2160	60.2085
 2.2150	60.1585
 2.2140	60.1331
 2.2130	60.1145
 2.2120	60.1278
 2.2110	59.9705
 2.2100	59.9774
 2.2090	59.9746
 2.2080	60.0150
 2.2070	59.9301
 2.2060	60.0006
 2.2050	59.9877
 2.2040	60.0243
 2.2030	59.9544
 2.2020	60.0524
 2.2010	60.0403
 2.2000	60.2215
 2.1990	60.1215
 2.1980	60.2492
 2.1970	60.1574
 2.1960	60.2333
 2.1950	60.2316
 2.1940	60.2245
 2.1930	60.1933
 2.1920	60.2810
 2.1910	60.1932
 2.1900	60.3181
 2.1890	60.2325
 2.1880	60.2424
 2.1870	60.2336
 2.1860	60.3603
 2.1850	60.2693
 2.1840	60.3343
 2.1830	60.3295
 2.1820	60.3711
 2.1810	60.3225
 2.1800	60.4590
 2.1790	60.4273
 2.1780	60.3353
 2.1770	60.4509
 2.1760	60.4924
 2.1750	60.4368
 2.1740	60.4984
 2.1730	60.4852
 2.1720	60.5428
 2.1710	60.4772
 2.1700	60.5710
 2.1690	60.5233
 2.1680	60.5127
 2.1670	60.5030
 2.1660	60.5313
 2.1650	60.5395
 2.1640	60.5810
 2.1630	60.6092
 2.1620	60.6002
 2.1610	60.7008
 2.1600	60.7176
 2.1590	60.7139
 2.1580	60.7337
 2.1570	60.7313
 2.1560	60.7671
 2.1550	60.7789
 2.1540	60.7929
 2.1530	60.7933
 2.1520	60.8318
 2.1510	60.8527
 2.1500	60.8110
 2.1490	60.8660
 2.1480	60.8566
 2.1470	60.8365
 2.1460	60.9103
 2.1450	60.9167
 2.1440	60.8228
 2.1430	60.8561
 2.1420	60.8232
 2.1410	60.8134
 2.1400	60.8515
 2.1390	60.8395
 2.1380	60.8329
 2.1370	60.7550
 2.1360	60.7704
 2.1350	60.7449
 2.1340	60.7202
 2.1330	60.6224
 2.1320	60.5989
 2.1310	60.5207
 2.1300	60.4916
 2.1290	60.3976
 2.1280	60.4534
 2.1270	60.3820
 2.1260	60.3116
 2.1250	60.2739
 2.1240	60.2624
 2.1230	60.1489
 2.1220	60.0297
 2.1210	59.9371
 2.1200	59.9131
 2.1190	59.8265
 2.1180	59.7860
 2.1170	59.6561
 2.1160	59.6408
 2.1150	59.5258
 2.1140	59.4186
 2.1130	59.3585
 2.1120	59.2882
 2.1110	59.1841
 2.1100	59.0986
 2.1090	58.9613
 2.1080	58.8257
 2.1070	58.7446
 2.1060	58.6815
 2.1050	58.5584
 2.1040	58.4787
 2.1030	58.3480
 2.1020	58.2196
 2.1010	58.0911
 2.1000	57.9975
 2.0990	57.8733
 2.0980	57.7722
 2.0970	57.7031
 2.0960	57.6210
 2.0950	57.5240
 2.0940	57.4707
 2.0930	57.3615
 2.0920	57.2110
 2.0910	57.0963
 2.0900	57.0295
 2.0890	56.9233
 2.0880	56.8635
 2.0870	56.7370
 2.0860	56.6019
 2.0850	56.5606
 2.0840	56.5061
 2.0830	56.4287
 2.0820	56.3509
 2.0810	56.2323
 2.0800	56.1710
 2.0790	56.1065
 2.0780	56.0413
 2.0770	55.9983
 2.0760	55.9145
 2.0750	55.8892
 2.0740	55.9079
 2.0730	55.8698
 2.0720	55.8739
 2.0710	55.9129
 2.0700	55.9542
 2.0690	55.9787
 2.0680	56.0278
 2.0670	56.1637
 2.0660	56.1718
 2.0650	56.2143
 2.0640	56.3204
 2.0630	56.3945
 2.0620	56.5954
 2.0610	56.7339
 2.0600	56.7708
 2.0590	56.8901
 2.0580	56.9992
 2.0570	57.1825
 2.0560	57.3146
 2.0550	57.4602
 2.0540	57.6167
 2.0530	57.7374
 2.0520	57.8412
 2.0510	58.0231
 2.0500	58.1196
 2.0490	58.2060
 2.0480	58.3664
 2.0470	58.5138
 2.0460	58.6861
 2.0450	58.7861
 2.0440	58.9231
 2.0430	59.0277
 2.0420	59.0595
 2.0410	59.2364
 2.0400	59.3115
 2.0390	59.3990
 2.0380	59.4621
 2.0370	59.5538
 2.0360	59.6719
 2.0350	59.7634
 2.0340	59.8056
 2.0330	59.9008
 2.0320	59.9688
 2.0310	60.0582
 2.0300	60.0930
 2.0290	60.1551
 2.0280	60.2248
 2.0270	60.3152
 2.0260	60.3603
 2.0250	60.4672
 2.0240	60.5096
 2.0230	60.5196
 2.0220	60.5958
 2.0210	60.6771
 2.0200	60.6892
 2.0190	60.7919
 2.0180	60.8118
 2.0170	60.7718
 2.0160	60.8521
 2.0150	60.9404
 2.0140	60.9623
 2.0130	60.9874
 2.0120	61.0042
 2.0110	61.0624
 2.0100	61.1117
 2.0090	61.1482
 2.0080	61.1853
 2.0070	61.3021
 2.0060	61.3030
 2.0050	61.3058
 2.0040	61.3387
 2.0030	61.3564
 2.0020	61.4131
 2.0010	61.4856
 2.0000	61.3646
 1.9990	61.4482
 1.9980	61.4508
 1.9970	61.5597
 1.9960	61.5308
 1.9950	61.5509
 1.9940	61.5259
 1.9930	61.5334
 1.9920	61.5660
 1.9910	61.6076
 1.9900	61.5530
 1.9890	61.6215
 1.9880	61.5360
 1.9870	61.5824
 1.9860	61.6016
 1.9850	61.5953
 1.9840	61.5710
 1.9830	61.5963
 1.9820	61.6407
 1.9810	61.7031
 1.9800	61.6515
 1.9790	61.7261
 1.9780	61.6599
 1.9770	61.6902
 1.9760	61.5922
 1.9750	61.7146
 1.9740	61.6145
 1.9730	61.6794
 1.9720	61.6819
 1.9710	61.7028
 1.9700	61.6851
 1.9690	61.6543
 1.9680	61.6693
 1.9670	61.6807
 1.9660	61.6739
 1.9650	61.7380
 1.9640	61.7204
 1.9630	61.6669
 1.9620	61.6156
 1.9610	61.7116
 1.9600	61.7107
 1.9590	61.7656
 1.9580	61.6943
 1.9570	61.7198
 1.9560	61.6937
 1.9550	61.6883
 1.9540	61.7119
 1.9530	61.6914
 1.9520	61.6586
 1.9510	61.7662
 1.9500	61.6766
 1.9490	61.6777
 1.9480	61.7076
 1.9470	61.7428
 1.9460	61.7373
 1.9450	61.7625
 1.9440	61.7726
 1.9430	61.7524
 1.9420	61.7053
 1.9410	61.8089
 1.9400	61.6878
 1.9390	61.7989
 1.9380	61.8263
 1.9370	61.8145
 1.9360	61.7256
 1.9350	61.7883
 1.9340	61.8345
 1.9330	61.8348
 1.9320	61.8659
 1.9310	61.8636
 1.9300	61.8803
 1.9290	61.8759
 1.9280	61.9222
 1.9270	62.0067
 1.9260	61.8797
 1.9250	61.9521
 1.9240	61.9390
 1.9230	62.0465
 1.9220	62.0205
 1.9210	62.1794
 1.9200	62.0769
 1.9190	62.1833
 1.9180	62.1082
 1.9170	62.2044
 1.9160	62.2684
 1.9150	62.2638
 1.9140	62.2552
 1.9130	62.3580
 1.9120	62.4274
 1.9110	62.4936
 1.9100	62.4408
 1.9090	62.5317
 1.9080	62.5114
 1.9070	62.6209
 1.9060	62.6506
 1.9050	62.7606
 1.9040	62.7428
 1.9030	62.8392
 1.9020	62.9313
 1.9010	62.9352
 1.9000	63.0194
 1.8990	63.0802
 1.8980	63.1481
 1.8970	63.2361
 1.8960	63.2873
 1.8950	63.2864
 1.8940	63.3161
 1.8930	63.4310
 1.8920	63.4457
 1.8910	63.5698
 1.8900	63.5506
 1.8890	63.6261
 1.8880	63.5840
 1.8870	63.6059
 1.8860	63.7229
 1.8850	63.8157
 1.8840	63.7720
 1.8830	63.7888
 1.8820	63.8602
 1.8810	63.8699
 1.8800	63.9191
 1.8790	63.9909
 1.8780	63.9731
 1.8770	63.9896
 1.8760	63.9950
 1.8750	64.0750
 1.8740	64.0071
 1.8730	64.0544
 1.8720	64.0666
 1.8710	64.1251
 1.8700	64.1482
 1.8690	64.2300
 1.8680	64.1511
 1.8670	64.1321
 1.8660	64.1639
 1.8650	64.2756
 1.8640	64.2255
 1.8630	64.2646
 1.8620	64.1913
 1.8610	64.2709
 1.8600	64.2963
 1.8590	64.1975
 1.8580	64.2126
 1.8570	64.2322
 1.8560	64.2750
 1.8550	64.3138
 1.8540	64.2624
 1.8530	64.3774
 1.8520	64.3226
 1.8510	64.2732
 1.8500	64.2760
 1.8490	64.3437
 1.8480	64.2605
 1.8470	64.3367
 1.8460	64.2813
 1.8450	64.3056
 1.8440	64.3082
 1.8430	64.3527
 1.8420	64.2876
 1.8410	64.3245
 1.8400	64.3013
 1.8390	64.2912
 1.8380	64.2918
 1.8370	64.3153
 1.8360	64.3466
 1.8350	64.3576
 1.8340	64.3401
 1.8330	64.3582
 1.8320	64.3617
 1.8310	64.3127
 1.8300	64.2470
 1.8290	64.3289
 1.8280	64.3253
 1.8270	64.2801
 1.8260	64.2901
 1.8250	64.3116
 1.8240	64.3281
 1.8230	64.3040
 1.8220	64.2768
 1.8210	64.3365
 1.8200	64.3311
 1.8190	64.2832
 1.8180	64.2712
 1.8170	64.3404
 1.8160	64.3288
 1.8150	64.3238
 1.8140	64.3077
 1.8130	64.2923
 1.8120	64.3503
 1.8110	64.3528
 1.8100	64.2697
 1.8090	64.2672
 1.8080	64.2770
 1.8070	64.2880
 1.8060	64.2780
 1.8050	64.2463
 1.8040	64.2849
 1.8030	64.3002
 1.8020	64.2739
 1.8010	64.2565
 1.8000	64.2694
 1.7990	64.2818
 1.7980	64.2662
 1.7970	64.2300
 1.7960	64.1822
 1.7950	64.1932
 1.7940	64.2103
 1.7930	64.1973
 1.7920	64.1388
 1.7910	64.1759
 1.7900	64.1370
 1.7890	64.0877
 1.7880	64.0972
 1.7870	64.1235
 1.7860	64.1542
 1.7850	64.0968
 1.7840	64.0952
 1.7830	64.1562
 1.7820	64.1458
 1.7810	64.0732
 1.7800	64.0789
 1.7790	64.1116
 1.7780	64.0636
 1.7770	63.9937
 1.7760	64.0150
 1.7750	63.9879
 1.7740	63.9621
 1.7730	63.9586
 1.7720	63.9262
 1.7710	63.9058
 1.7700	63.8826
 1.7690	63.8618
 1.7680	63.8527
 1.7670	63.8427
 1.7660	63.7716
 1.7650	63.7585
 1.7640	63.7722
 1.7630	63.7535
 1.7620	63.7283
 1.7610	63.7048
 1.7600	63.6974
 1.7590	63.6518
 1.7580	63.6291
 1.7570	63.5558
 1.7560	63.5331
 1.7550	63.5262
 1.7540	63.5029
 1.7530	63.4091
 1.7520	63.3664
 1.7510	63.3500
 1.7500	63.3578
 1.7490	63.3248
 1.7480	63.3250
 1.7470	63.2755
 1.7460	63.2590
 1.7450	63.2038
 1.7440	63.1960
 1.7430	63.1645
 1.7420	63.1529
 1.7410	63.0964
 1.7400	63.1680
 1.7390	63.1590
 1.7380	63.1192
 1.7370	63.1195
 1.7360	63.0981
 1.7350	63.0722
 1.7340	63.0738
 1.7330	63.0461
 1.7320	63.0585
 1.7310	63.0234
 1.7300	62.9975
 1.7290	62.9316
 1.7280	62.9294
 1.7270	62.8369
 1.7260	62.8535
 1.7250	62.8504
 1.7240	62.7632
 1.7230	62.7390
 1.7220	62.7134
 1.7210	62.7063
 1.7200	62.6628
 1.7190	62.6054
 1.7180	62.5901
 1.7170	62.5052
 1.7160	62.5505
 1.7150	62.5073
 1.7140	62.4931
 1.7130	62.3923
 1.7120	62.3663
 1.7110	62.2545
 1.7100	62.2728
 1.7090	62.2179
 1.7080	62.2237
 1.7070	62.2438
 1.7060	62.1663
 1.7050	62.1331
 1.7040	62.1484
 1.7030	62.1023
 1.7020	62.1127
 1.7010	62.0260
 1.7000	62.0603
 1.6990	62.0595
 1.6980	62.0851
 1.6970	62.0612
 1.6960	62.0328
 1.6950	61.9742
 1.6940	62.0267
 1.6930	62.0372
 1.6920	61.9561
 1.6910	61.9685
 1.6900	61.9719
 1.6890	61.9003
 1.6880	61.8626
 1.6870	61.8590
 1.6860	61.8771
 1.6850	61.8057
 1.6840	61.7972
 1.6830	61.7458
 1.6820	61.7503
 1.6810	61.7347
 1.6800	61.7259
 1.6790	61.5806
 1.6780	61.5897
 1.6770	61.5079
 1.6760	61.4790
 1.6750	61.3683
 1.6740	61.3646
 1.6730	61.1726
 1.6720	61.1495
 1.6710	61.0387
 1.6700	61.0348
 1.6690	60.9829
 1.6680	60.8064
 1.6670	60.7577
 1.6660	60.6745
 1.6650	60.6486
 1.6640	60.6890
 1.6630	60.5896
 1.6620	60.5795
 1.6610	60.5454
 1.6600	60.6713
 1.6590	60.5989
 1.6580	60.7131
 1.6570	60.7494
 1.6560	60.8941
 1.6550	60.8899
 1.6540	61.0541
 1.6530	61.0853
 1.6520	61.2475
 1.6510	61.2707
 1.6500	61.3762
 1.6490	61.4713
 1.6480	61.4951
 1.6470	61.5398
 1.6460	61.5920
 1.6450	61.6435
 1.6440	61.7604
 1.6430	61.7638
 1.6420	61.7605
 1.6410	61.6505
 1.6400	61.8393
 1.6390	61.8656
 1.6380	61.8976
 1.6370	61.8573
 1.6360	61.9637
 1.6350	61.8951
 1.6340	61.9381
 1.6330	61.9120
 1.6320	61.9287
 1.6310	61.9300
 1.6300	62.0109
 1.6290	61.9836
 1.6280	62.0041
 1.6270	61.9569
 1.6260	62.0250
 1.6250	61.9528
 1.6240	62.0482
 1.6230	62.0488
 1.6220	62.0565
 1.6210	62.0316
 1.6200	62.0262
 1.6190	62.0380
 1.6180	62.1031
 1.6170	62.0351
 1.6160	62.0039
 1.6150	61.9940
 1.6140	62.1243
 1.6130	62.0949
 1.6120	62.0503
 1.6110	62.0528
 1.6100	62.1298
 1.6090	62.0432
 1.6080	62.1534
 1.6070	62.0583
 1.6060	62.0828
 1.6050	62.0045
 1.6040	62.0247
 1.6030	62.0011
 1.6020	62.1053
 1.6010	61.9713
 1.6000	61.9705
 1.5990	61.9335
 1.5980	61.9472
 1.5970	61.9268
 1.5960	61.9542
 1.5950	61.8065
 1.5940	61.7802
 1.5930	61.7983
 1.5920	61.7782
 1.5910	61.7719
 1.5900	61.7151
 1.5890	61.6235
 1.5880	61.6394
 1.5870	61.5781
 1.5860	61.4954
 1.5850	61.4504
 1.5840	61.3937
 1.5830	61.3229
 1.5820	61.3505
 1.5810	61.2651
 1.5800	61.2205
 1.5790	61.1109
 1.5780	61.0345
 1.5770	61.0100
 1.5760	60.9148
 1.5750	60.8262
 1.5740	60.7161
 1.5730	60.5909
 1.5720	60.5013
 1.5710	60.4084
 1.5700	60.3138
 1.5690	60.1840
 1.5680	60.1254
 1.5670	60.0244
 1.5660	59.9953
 1.5650	59.8441
 1.5640	59.7495
 1.5630	59.6513
 1.5620	59.5722
 1.5610	59.4692
 1.5600	59.4061
 1.5590	59.3031
 1.5580	59.1792
 1.5570	59.0112
 1.5560	58.8683
 1.5550	58.6631
 1.5540	58.5065
 1.5530	58.3096
 1.5520	58.2006
 1.5510	57.9346
 1.5500	57.6667
 1.5490	57.4212
 1.5480	57.1327
 1.5470	56.8192
 1.5460	56.6331
 1.5450	56.3275
 1.5440	56.1123
 1.5430	55.8572
 1.5420	55.7005
 1.5410	55.5283
 1.5400	55.3854
 1.5390	55.2654
 1.5380	55.1759
 1.5370	55.0356
 1.5360	54.9388
 1.5350	54.8651
 1.5340	54.7886
 1.5330	54.7179
 1.5320	54.6866
 1.5310	54.5836
 1.5300	54.5239
 1.5290	54.3966
 1.5280	54.3053
 1.5270	54.1622
 1.5260	54.0602
 1.5250	53.9653
 1.5240	53.8223
 1.5230	53.6541
 1.5220	53.4095
 1.5210	53.1767
 1.5200	52.9425
 1.5190	52.6387
 1.5180	52.3005
 1.5170	51.8021
 1.5160	51.2077
 1.5150	50.5458
 1.5140	49.7932
 1.5130	48.8707
 1.5120	47.9067
 1.5110	46.7980
 1.5100	45.5617
 1.5090	44.3700
 1.5080	43.2454
 1.5070	42.3191
 1.5060	41.6688
 1.5050	41.3235
 1.5040	41.3134
 1.5030	41.5801
 1.5020	42.0168
 1.5010	42.5678
 1.5000	43.3020
 1.4990	44.0094
 1.4980	44.7110
 1.4970	45.4483
 1.4960	46.1332
 1.4950	46.7686
 1.4940	47.3540
 1.4930	47.8850
 1.4920	48.3577
 1.4910	48.8400
 1.4900	49.2772
 1.4890	49.6899
 1.4880	50.0164
 1.4870	50.2619
 1.4860	50.5512
 1.4850	50.8189
 1.4840	51.0127
 1.4830	51.1176
 1.4820	51.2253
 1.4810	51.4165
 1.4800	51.6020
 1.4790	51.7756
 1.4780	51.9566
 1.4770	52.1503
 1.4760	52.3453
 1.4750	52.6309
 1.4740	52.8272
 1.4730	53.0471
 1.4720	53.2962
 1.4710	53.5123
 1.4700	53.7243
 1.4690	53.9492
 1.4680	54.1584
 1.4670	54.3888
 1.4660	54.5879
 1.4650	54.8358
 1.4640	55.0926
 1.4630	55.3407
 1.4620	55.4834
 1.4610	55.6118
 1.4600	55.8141
 1.4590	56.0550
 1.4580	56.1297
 1.4570	56.2425
 1.4560	56.3793
 1.4550	56.4989
 1.4540	56.5648
 1.4530	56.7057
 1.4520	56.7723
 1.4510	56.9292
 1.4500	56.9773
 1.4490	57.1082
 1.4480	57.1784
 1.4470	57.3086
 1.4460	57.3289
 1.4450	57.4285
 1.4440	57.5011
 1.4430	57.6002
 1.4420	57.6630
 1.4410	57.6833
 1.4400	57.7450
 1.4390	57.8090
 1.4380	57.8280
 1.4370	57.9233
 1.4360	57.9447
 1.4350	58.0044
 1.4340	58.0885
 1.4330	58.1263
 1.4320	58.1814
 1.4310	58.2261
 1.4300	58.2496
 1.4290	58.3037
 1.4280	58.3176
 1.4270	58.3907
 1.4260	58.3897
 1.4250	58.4941
 1.4240	58.5175
 1.4230	58.5894
 1.4220	58.5698
 1.4210	58.6089
 1.4200	58.5325
 1.4190	58.5253
 1.4180	58.4363
 1.4170	58.4098
 1.4160	58.3542
 1.4150	58.5095
 1.4140	58.4803
 1.4130	58.5120
 1.4120	58.5893
 1.4110	58.6270
 1.4100	58.6000
 1.4090	58.5814
 1.4080	58.5043
 1.4070	58.5613
 1.4060	58.5962
 1.4050	58.5275
 1.4040	58.4776
 1.4030	58.4856
 1.4020	58.5083
 1.4010	58.4726
 1.4000	58.4016
 1.3990	58.3929
 1.3980	58.3530
 1.3970	58.3824
 1.3960	58.3554
 1.3950	58.2828
 1.3940	58.2688
 1.3930	58.2320
 1.3920	58.1617
 1.3910	58.2449
 1.3900	58.2299
 1.3890	58.2017
 1.3880	58.0327
 1.3870	58.0068
 1.3860	58.0458
 1.3850	58.0098
 1.3840	57.9006
 1.3830	57.9206
 1.3820	57.7413
 1.3810	57.7644
 1.3800	57.6668
 1.3790	57.7221
 1.3780	57.5792
 1.3770	57.6130
 1.3760	57.3447
 1.3750	57.3772
 1.3740	57.2371
 1.3730	57.1615
 1.3720	57.1456
 1.3710	57.0422
 1.3700	56.8332
 1.3690	56.8128
 1.3680	56.6432
