Name: Topaz Al_2SiO_4(F,OH)_2
Type: Mineral
Class: Silicate
Subclass: Nesosilicate
Particle Size: Fine
Sample No.: NS-6A
Owner: JPL
Wavelength Range: VSWIR
Origin: Australia, Western Australia, Grossmont.
Collection Date: N/A
Description: Particle size was 0-45um.Collected by:  Ward's Original ASTER Spectral Library name was jpl.perkin.mineral.silicate.nesosilicate.fine.ns06a.spectrum.txt
Measurement: Hemispherical reflectance
First Column: X
Second Column: Y
X Units: Wavelength (micrometers)
Y Units:Reflectance (percent)
First X Value:  2.5000
Last X Value:  0.4000
Number of X Values: 2101
Additional Information: mineral.silicate.nesosilicate.fine.vswir.ns-6a.jpl.perkin.ancillary.txt

 2.5000	43.4632
 2.4990	43.1570
 2.4980	43.5465
 2.4970	43.4342
 2.4960	43.3142
 2.4950	43.4437
 2.4940	43.6375
 2.4930	43.5769
 2.4920	43.6930
 2.4910	43.6226
 2.4900	43.9253
 2.4890	43.8319
 2.4880	43.9220
 2.4870	43.9474
 2.4860	44.1404
 2.4850	43.9785
 2.4840	44.1341
 2.4830	44.3235
 2.4820	44.3573
 2.4810	44.1885
 2.4800	44.2286
 2.4790	44.3217
 2.4780	44.4650
 2.4770	44.5043
 2.4760	44.3881
 2.4750	44.4444
 2.4740	44.5352
 2.4730	44.4859
 2.4720	44.5509
 2.4710	44.5127
 2.4700	44.5916
 2.4690	44.6220
 2.4680	44.6749
 2.4670	44.5512
 2.4660	44.7600
 2.4650	44.6599
 2.4640	44.7450
 2.4630	44.7002
 2.4620	44.8662
 2.4610	44.7826
 2.4600	44.8143
 2.4590	44.9278
 2.4580	44.8969
 2.4570	45.0205
 2.4560	45.0833
 2.4550	45.0987
 2.4540	45.1043
 2.4530	45.1301
 2.4520	45.2464
 2.4510	45.1416
 2.4500	45.2891
 2.4490	45.2536
 2.4480	45.3537
 2.4470	45.3305
 2.4460	45.2713
 2.4450	45.4029
 2.4440	45.4354
 2.4430	45.4000
 2.4420	45.5446
 2.4410	45.5441
 2.4400	45.5321
 2.4390	45.4909
 2.4380	45.5450
 2.4370	45.5665
 2.4360	45.6083
 2.4350	45.6091
 2.4340	45.6163
 2.4330	45.6292
 2.4320	45.6522
 2.4310	45.6190
 2.4300	45.6303
 2.4290	45.5537
 2.4280	45.5197
 2.4270	45.5481
 2.4260	45.7005
 2.4250	45.6723
 2.4240	45.6393
 2.4230	45.6534
 2.4220	45.6137
 2.4210	45.6075
 2.4200	45.6452
 2.4190	45.6891
 2.4180	45.8058
 2.4170	45.8009
 2.4160	45.8885
 2.4150	45.8442
 2.4140	45.9299
 2.4130	45.8779
 2.4120	45.9184
 2.4110	45.9058
 2.4100	45.9962
 2.4090	45.9791
 2.4080	46.0569
 2.4070	46.0644
 2.4060	46.0583
 2.4050	46.0899
 2.4040	46.1100
 2.4030	46.0487
 2.4020	46.0798
 2.4010	46.1561
 2.4000	46.2254
 2.3990	46.2309
 2.3980	46.2707
 2.3970	46.2351
 2.3960	46.2281
 2.3950	46.2250
 2.3940	46.2693
 2.3930	46.2713
 2.3920	46.3247
 2.3910	46.3553
 2.3900	46.3865
 2.3890	46.3503
 2.3880	46.3372
 2.3870	46.3619
 2.3860	46.3850
 2.3850	46.3949
 2.3840	46.4113
 2.3830	46.4359
 2.3820	46.3985
 2.3810	46.3932
 2.3800	46.4103
 2.3790	46.4528
 2.3780	46.4434
 2.3770	46.4279
 2.3760	46.4889
 2.3750	46.5333
 2.3740	46.5794
 2.3730	46.5607
 2.3720	46.5940
 2.3710	46.5796
 2.3700	46.5597
 2.3690	46.5771
 2.3680	46.6023
 2.3670	46.5796
 2.3660	46.5665
 2.3650	46.6369
 2.3640	46.6758
 2.3630	46.6556
 2.3620	46.6471
 2.3610	46.6734
 2.3600	46.6732
 2.3590	46.6794
 2.3580	46.7074
 2.3570	46.7306
 2.3560	46.7196
 2.3550	46.7453
 2.3540	46.7834
 2.3530	46.7560
 2.3520	46.7701
 2.3510	46.8397
 2.3500	46.8479
 2.3490	46.8088
 2.3480	46.8328
 2.3470	46.8542
 2.3460	46.8634
 2.3450	46.8780
 2.3440	46.8473
 2.3430	46.8231
 2.3420	46.8520
 2.3410	46.8053
 2.3400	46.8057
 2.3390	46.8777
 2.3380	46.8425
 2.3370	46.8659
 2.3360	46.8870
 2.3350	46.8669
 2.3340	46.8628
 2.3330	46.8693
 2.3320	46.8464
 2.3310	46.8755
 2.3300	46.8139
 2.3290	46.7963
 2.3280	46.8281
 2.3270	46.8330
 2.3260	46.8387
 2.3250	46.8434
 2.3240	46.7758
 2.3230	46.8146
 2.3220	46.8886
 2.3210	46.9166
 2.3200	46.8679
 2.3190	46.9164
 2.3180	46.9086
 2.3170	46.8927
 2.3160	46.9125
 2.3150	46.9547
 2.3140	46.9717
 2.3130	46.9479
 2.3120	47.0119
 2.3110	47.0782
 2.3100	46.9948
 2.3090	47.0039
 2.3080	46.9942
 2.3070	47.0252
 2.3060	47.0408
 2.3050	47.0672
 2.3040	46.9811
 2.3030	47.0706
 2.3020	47.1228
 2.3010	47.1018
 2.3000	47.1330
 2.2990	47.0676
 2.2980	47.1330
 2.2970	47.1231
 2.2960	47.1153
 2.2950	47.1477
 2.2940	47.1599
 2.2930	47.1274
 2.2920	47.1713
 2.2910	47.1882
 2.2900	47.1977
 2.2890	47.1905
 2.2880	47.2129
 2.2870	47.2932
 2.2860	47.2289
 2.2850	47.2299
 2.2840	47.2114
 2.2830	47.1573
 2.2820	47.1482
 2.2810	47.2481
 2.2800	47.2076
 2.2790	47.1772
 2.2780	47.2071
 2.2770	47.2680
 2.2760	47.2135
 2.2750	47.1971
 2.2740	47.1509
 2.2730	47.1411
 2.2720	47.0961
 2.2710	47.1232
 2.2700	47.1322
 2.2690	47.1354
 2.2680	47.0988
 2.2670	47.1301
 2.2660	47.0509
 2.2650	47.0414
 2.2640	47.0195
 2.2630	47.0703
 2.2620	46.9909
 2.2610	46.9992
 2.2600	47.0231
 2.2590	47.0912
 2.2580	47.0834
 2.2570	47.0628
 2.2560	47.0241
 2.2550	47.1403
 2.2540	47.1588
 2.2530	47.1422
 2.2520	47.1660
 2.2510	47.1590
 2.2500	47.1225
 2.2490	47.2015
 2.2480	47.1575
 2.2470	47.2396
 2.2460	47.2327
 2.2450	47.2271
 2.2440	47.2114
 2.2430	47.2289
 2.2420	47.1941
 2.2410	47.1400
 2.2400	47.2062
 2.2390	47.2204
 2.2380	47.2196
 2.2370	47.2207
 2.2360	47.2209
 2.2350	47.2635
 2.2340	47.2058
 2.2330	47.1920
 2.2320	47.2519
 2.2310	47.2859
 2.2300	47.2055
 2.2290	47.2782
 2.2280	47.2542
 2.2270	47.2867
 2.2260	47.2339
 2.2250	47.2571
 2.2240	47.2528
 2.2230	47.2337
 2.2220	47.2100
 2.2210	47.1596
 2.2200	47.1577
 2.2190	47.2468
 2.2180	47.1638
 2.2170	47.2639
 2.2160	47.1623
 2.2150	47.1714
 2.2140	47.1407
 2.2130	47.1312
 2.2120	47.2532
 2.2110	47.1259
 2.2100	47.1766
 2.2090	47.2257
 2.2080	47.1895
 2.2070	47.3090
 2.2060	47.2454
 2.2050	47.3198
 2.2040	47.2434
 2.2030	47.3001
 2.2020	47.3052
 2.2010	47.3739
 2.2000	47.3559
 2.1990	47.4232
 2.1980	47.3798
 2.1970	47.4339
 2.1960	47.4817
 2.1950	47.4182
 2.1940	47.4311
 2.1930	47.4830
 2.1920	47.3979
 2.1910	47.5277
 2.1900	47.4367
 2.1890	47.4530
 2.1880	47.4583
 2.1870	47.4533
 2.1860	47.4949
 2.1850	47.5885
 2.1840	47.5223
 2.1830	47.6050
 2.1820	47.5114
 2.1810	47.5565
 2.1800	47.6218
 2.1790	47.5828
 2.1780	47.5486
 2.1770	47.5489
 2.1760	47.5438
 2.1750	47.6189
 2.1740	47.5418
 2.1730	47.6291
 2.1720	47.5683
 2.1710	47.6074
 2.1700	47.6056
 2.1690	47.6416
 2.1680	47.6435
 2.1670	47.6808
 2.1660	47.7126
 2.1650	47.7715
 2.1640	47.7077
 2.1630	47.7160
 2.1620	47.7159
 2.1610	47.7625
 2.1600	47.6960
 2.1590	47.7102
 2.1580	47.6756
 2.1570	47.7238
 2.1560	47.7139
 2.1550	47.7328
 2.1540	47.6777
 2.1530	47.6801
 2.1520	47.6584
 2.1510	47.7644
 2.1500	47.7446
 2.1490	47.7288
 2.1480	47.7583
 2.1470	47.7674
 2.1460	47.8101
 2.1450	47.8078
 2.1440	47.7907
 2.1430	47.7866
 2.1420	47.8096
 2.1410	47.8182
 2.1400	47.8572
 2.1390	47.8870
 2.1380	47.8301
 2.1370	47.9060
 2.1360	47.9347
 2.1350	47.9703
 2.1340	47.9094
 2.1330	47.9833
 2.1320	48.0019
 2.1310	48.0093
 2.1300	47.9357
 2.1290	47.9508
 2.1280	47.9777
 2.1270	47.9924
 2.1260	47.9267
 2.1250	47.8781
 2.1240	47.8788
 2.1230	47.9133
 2.1220	47.8895
 2.1210	47.8412
 2.1200	47.8150
 2.1190	47.8014
 2.1180	47.7035
 2.1170	47.6674
 2.1160	47.6629
 2.1150	47.6622
 2.1140	47.5791
 2.1130	47.5904
 2.1120	47.5592
 2.1110	47.5250
 2.1100	47.4848
 2.1090	47.4414
 2.1080	47.4311
 2.1070	47.4402
 2.1060	47.3533
 2.1050	47.2754
 2.1040	47.2232
 2.1030	47.1391
 2.1020	47.0750
 2.1010	47.0429
 2.1000	46.9766
 2.0990	46.9095
 2.0980	46.7909
 2.0970	46.6419
 2.0960	46.4543
 2.0950	46.2826
 2.0940	45.9913
 2.0930	45.6895
 2.0920	45.2874
 2.0910	44.7935
 2.0900	44.3080
 2.0890	43.7710
 2.0880	43.1672
 2.0870	42.5614
 2.0860	41.9854
 2.0850	41.6448
 2.0840	41.4258
 2.0830	41.3033
 2.0820	41.3747
 2.0810	41.6489
 2.0800	42.0909
 2.0790	42.6876
 2.0780	43.2765
 2.0770	43.9088
 2.0760	44.5551
 2.0750	45.1767
 2.0740	45.6809
 2.0730	46.1295
 2.0720	46.4668
 2.0710	46.6810
 2.0700	46.9609
 2.0690	47.1807
 2.0680	47.2572
 2.0670	47.3054
 2.0660	47.3956
 2.0650	47.5050
 2.0640	47.5411
 2.0630	47.5692
 2.0620	47.5834
 2.0610	47.6104
 2.0600	47.6845
 2.0590	47.7361
 2.0580	47.7356
 2.0570	47.7060
 2.0560	47.7485
 2.0550	47.7877
 2.0540	47.8023
 2.0530	47.7988
 2.0520	47.8107
 2.0510	47.8069
 2.0500	47.8047
 2.0490	47.8304
 2.0480	47.8534
 2.0470	47.8561
 2.0460	47.8757
 2.0450	47.8909
 2.0440	47.9123
 2.0430	47.8994
 2.0420	47.9287
 2.0410	47.8934
 2.0400	47.9038
 2.0390	47.9340
 2.0380	47.9326
 2.0370	47.9731
 2.0360	48.0518
 2.0350	48.0340
 2.0340	48.0149
 2.0330	47.9903
 2.0320	47.9603
 2.0310	47.9627
 2.0300	48.0051
 2.0290	47.9525
 2.0280	47.9762
 2.0270	48.0223
 2.0260	47.9908
 2.0250	47.9534
 2.0240	47.9841
 2.0230	47.9829
 2.0220	48.0025
 2.0210	47.9723
 2.0200	47.9601
 2.0190	47.9902
 2.0180	48.0492
 2.0170	48.0437
 2.0160	47.9481
 2.0150	47.9849
 2.0140	47.9767
 2.0130	47.9709
 2.0120	48.0404
 2.0110	47.9731
 2.0100	47.9794
 2.0090	47.9937
 2.0080	48.0280
 2.0070	48.0776
 2.0060	48.1101
 2.0050	48.0967
 2.0040	48.0051
 2.0030	48.0193
 2.0020	48.0756
 2.0010	48.0397
 2.0000	48.1113
 1.9990	48.0725
 1.9980	48.1156
 1.9970	48.0604
 1.9960	48.0867
 1.9950	48.0955
 1.9940	48.1357
 1.9930	48.0812
 1.9920	47.9832
 1.9910	47.9772
 1.9900	48.0651
 1.9890	48.0085
 1.9880	48.0495
 1.9870	48.0264
 1.9860	47.9389
 1.9850	47.9670
 1.9840	47.9987
 1.9830	48.0395
 1.9820	48.0616
 1.9810	47.9820
 1.9800	47.9812
 1.9790	47.9615
 1.9780	48.0391
 1.9770	47.9313
 1.9760	47.9581
 1.9750	47.9408
 1.9740	47.9604
 1.9730	47.9740
 1.9720	47.9697
 1.9710	47.9289
 1.9700	47.9824
 1.9690	47.9984
 1.9680	47.9697
 1.9670	47.9263
 1.9660	47.9778
 1.9650	47.8687
 1.9640	47.9337
 1.9630	47.9490
 1.9620	47.8691
 1.9610	47.8686
 1.9600	47.9460
 1.9590	47.9581
 1.9580	47.9228
 1.9570	47.9306
 1.9560	47.9331
 1.9550	47.9356
 1.9540	48.0085
 1.9530	47.8927
 1.9520	47.9472
 1.9510	47.8593
 1.9500	47.9356
 1.9490	47.8968
 1.9480	47.9537
 1.9470	47.9454
 1.9460	47.9260
 1.9450	47.8892
 1.9440	47.9641
 1.9430	47.9323
 1.9420	47.9113
 1.9410	47.9121
 1.9400	47.9559
 1.9390	47.9481
 1.9380	47.9195
 1.9370	47.9593
 1.9360	47.9688
 1.9350	47.9134
 1.9340	47.9331
 1.9330	48.0223
 1.9320	48.0685
 1.9310	47.8982
 1.9300	47.9786
 1.9290	47.9327
 1.9280	47.9900
 1.9270	47.9610
 1.9260	47.8859
 1.9250	47.9821
 1.9240	47.9858
 1.9230	47.9276
 1.9220	48.0097
 1.9210	47.9388
 1.9200	47.9889
 1.9190	47.9636
 1.9180	47.9269
 1.9170	47.9748
 1.9160	48.0446
 1.9150	47.9564
 1.9140	47.9649
 1.9130	47.8587
 1.9120	47.9739
 1.9110	47.9465
 1.9100	48.0433
 1.9090	47.9522
 1.9080	48.0102
 1.9070	48.0302
 1.9060	48.0712
 1.9050	48.0334
 1.9040	48.0487
 1.9030	48.0414
 1.9020	48.0540
 1.9010	48.0740
 1.9000	48.1222
 1.8990	48.1038
 1.8980	48.1885
 1.8970	48.1683
 1.8960	48.2686
 1.8950	48.1897
 1.8940	48.2937
 1.8930	48.2174
 1.8920	48.2185
 1.8910	48.2094
 1.8900	48.2496
 1.8890	48.2162
 1.8880	48.3471
 1.8870	48.2654
 1.8860	48.3616
 1.8850	48.3133
 1.8840	48.3416
 1.8830	48.3149
 1.8820	48.3245
 1.8810	48.4224
 1.8800	48.4996
 1.8790	48.4573
 1.8780	48.3712
 1.8770	48.4130
 1.8760	48.4222
 1.8750	48.4806
 1.8740	48.4489
 1.8730	48.3897
 1.8720	48.4157
 1.8710	48.3724
 1.8700	48.4084
 1.8690	48.4009
 1.8680	48.4731
 1.8670	48.4667
 1.8660	48.4929
 1.8650	48.4779
 1.8640	48.5148
 1.8630	48.5202
 1.8620	48.5304
 1.8610	48.4992
 1.8600	48.5033
 1.8590	48.5054
 1.8580	48.5174
 1.8570	48.5253
 1.8560	48.4865
 1.8550	48.4556
 1.8540	48.4971
 1.8530	48.4739
 1.8520	48.4862
 1.8510	48.5085
 1.8500	48.5012
 1.8490	48.5258
 1.8480	48.5860
 1.8470	48.5252
 1.8460	48.5332
 1.8450	48.5353
 1.8440	48.6213
 1.8430	48.6215
 1.8420	48.6370
 1.8410	48.5654
 1.8400	48.6145
 1.8390	48.4984
 1.8380	48.5335
 1.8370	48.5569
 1.8360	48.5638
 1.8350	48.5560
 1.8340	48.5400
 1.8330	48.5984
 1.8320	48.6367
 1.8310	48.5705
 1.8300	48.5696
 1.8290	48.5483
 1.8280	48.5470
 1.8270	48.5818
 1.8260	48.5783
 1.8250	48.6270
 1.8240	48.5858
 1.8230	48.6177
 1.8220	48.6666
 1.8210	48.6053
 1.8200	48.5770
 1.8190	48.5817
 1.8180	48.6155
 1.8170	48.5804
 1.8160	48.5814
 1.8150	48.5950
 1.8140	48.5992
 1.8130	48.5980
 1.8120	48.5850
 1.8110	48.5788
 1.8100	48.6166
 1.8090	48.6599
 1.8080	48.6499
 1.8070	48.6266
 1.8060	48.6653
 1.8050	48.6742
 1.8040	48.6292
 1.8030	48.6491
 1.8020	48.6753
 1.8010	48.6295
 1.8000	48.6251
 1.7990	48.6607
 1.7980	48.6778
 1.7970	48.6540
 1.7960	48.6604
 1.7950	48.6538
 1.7940	48.6598
 1.7930	48.6907
 1.7920	48.6735
 1.7910	48.7025
 1.7900	48.6934
 1.7890	48.6364
 1.7880	48.6373
 1.7870	48.6760
 1.7860	48.6858
 1.7850	48.6565
 1.7840	48.6623
 1.7830	48.7473
 1.7820	48.7433
 1.7810	48.6248
 1.7800	48.6218
 1.7790	48.6739
 1.7780	48.6910
 1.7770	48.6860
 1.7760	48.6067
 1.7750	48.5847
 1.7740	48.6386
 1.7730	48.6725
 1.7720	48.6458
 1.7710	48.6313
 1.7700	48.6159
 1.7690	48.6392
 1.7680	48.6514
 1.7670	48.6273
 1.7660	48.6256
 1.7650	48.6213
 1.7640	48.6542
 1.7630	48.6673
 1.7620	48.6553
 1.7610	48.6811
 1.7600	48.6370
 1.7590	48.6396
 1.7580	48.6888
 1.7570	48.6659
 1.7560	48.6700
 1.7550	48.6766
 1.7540	48.6338
 1.7530	48.6971
 1.7520	48.7266
 1.7510	48.7034
 1.7500	48.6962
 1.7490	48.6777
 1.7480	48.7230
 1.7470	48.7161
 1.7460	48.7041
 1.7450	48.7415
 1.7440	48.7471
 1.7430	48.7058
 1.7420	48.7476
 1.7410	48.7725
 1.7400	48.7112
 1.7390	48.7517
 1.7380	48.7767
 1.7370	48.7917
 1.7360	48.7307
 1.7350	48.7237
 1.7340	48.7020
 1.7330	48.7563
 1.7320	48.7854
 1.7310	48.7873
 1.7300	48.7308
 1.7290	48.7718
 1.7280	48.7841
 1.7270	48.7204
 1.7260	48.7322
 1.7250	48.7694
 1.7240	48.7279
 1.7230	48.8134
 1.7220	48.7698
 1.7210	48.7516
 1.7200	48.7160
 1.7190	48.7414
 1.7180	48.7517
 1.7170	48.7407
 1.7160	48.7640
 1.7150	48.7859
 1.7140	48.7586
 1.7130	48.7805
 1.7120	48.7431
 1.7110	48.8156
 1.7100	48.7949
 1.7090	48.7956
 1.7080	48.7426
 1.7070	48.7741
 1.7060	48.7790
 1.7050	48.7831
 1.7040	48.7275
 1.7030	48.8115
 1.7020	48.7324
 1.7010	48.7642
 1.7000	48.7744
 1.6990	48.7925
 1.6980	48.7765
 1.6970	48.7362
 1.6960	48.6800
 1.6950	48.7927
 1.6940	48.7620
 1.6930	48.8385
 1.6920	48.7730
 1.6910	48.7489
 1.6900	48.7493
 1.6890	48.7052
 1.6880	48.6921
 1.6870	48.7401
 1.6860	48.6810
 1.6850	48.7391
 1.6840	48.7310
 1.6830	48.7638
 1.6820	48.7036
 1.6810	48.7015
 1.6800	48.7313
 1.6790	48.7567
 1.6780	48.8178
 1.6770	48.8090
 1.6760	48.7460
 1.6750	48.7587
 1.6740	48.7736
 1.6730	48.8254
 1.6720	48.7723
 1.6710	48.7570
 1.6700	48.7818
 1.6690	48.8039
 1.6680	48.6657
 1.6670	48.9218
 1.6660	48.7472
 1.6650	48.8057
 1.6640	48.8561
 1.6630	48.8123
 1.6620	48.7520
 1.6610	48.8807
 1.6600	48.8162
 1.6590	48.8129
 1.6580	48.7521
 1.6570	48.8166
 1.6560	48.7916
 1.6550	48.8635
 1.6540	48.8537
 1.6530	48.8829
 1.6520	48.7597
 1.6510	48.7698
 1.6500	48.7816
 1.6490	48.9309
 1.6480	48.8034
 1.6470	48.8333
 1.6460	48.7858
 1.6450	48.9038
 1.6440	48.7757
 1.6430	48.8895
 1.6420	48.8469
 1.6410	48.7631
 1.6400	48.8715
 1.6390	48.9414
 1.6380	48.8039
 1.6370	48.8648
 1.6360	48.8186
 1.6350	48.8758
 1.6340	48.8495
 1.6330	48.8926
 1.6320	48.8154
 1.6310	48.8509
 1.6300	48.8069
 1.6290	48.8334
 1.6280	48.8032
 1.6270	48.8742
 1.6260	48.8719
 1.6250	48.8217
 1.6240	48.8354
 1.6230	48.8510
 1.6220	48.8843
 1.6210	48.9211
 1.6200	48.8501
 1.6190	48.8573
 1.6180	48.8449
 1.6170	48.9124
 1.6160	48.7910
 1.6150	48.8494
 1.6140	48.8557
 1.6130	48.9073
 1.6120	48.8891
 1.6110	48.9156
 1.6100	48.8710
 1.6090	48.9077
 1.6080	48.8797
 1.6070	48.8742
 1.6060	48.8775
 1.6050	48.9709
 1.6040	48.8389
 1.6030	48.9085
 1.6020	48.8776
 1.6010	48.9335
 1.6000	48.8585
 1.5990	48.9466
 1.5980	48.9149
 1.5970	48.9144
 1.5960	48.8545
 1.5950	48.8939
 1.5940	48.8997
 1.5930	48.9300
 1.5920	48.8700
 1.5910	48.9558
 1.5900	48.9677
 1.5890	48.9240
 1.5880	48.8816
 1.5870	48.8862
 1.5860	48.9013
 1.5850	48.9643
 1.5840	48.9856
 1.5830	48.9619
 1.5820	48.8793
 1.5810	48.9710
 1.5800	48.8847
 1.5790	48.9097
 1.5780	48.8529
 1.5770	48.9158
 1.5760	48.8729
 1.5750	48.9482
 1.5740	48.9042
 1.5730	48.9342
 1.5720	48.9046
 1.5710	48.9166
 1.5700	48.9313
 1.5690	48.8971
 1.5680	48.9126
 1.5670	48.9863
 1.5660	48.9165
 1.5650	48.9650
 1.5640	48.9075
 1.5630	48.9231
 1.5620	48.9597
 1.5610	48.9233
 1.5600	48.9408
 1.5590	48.9349
 1.5580	48.8870
 1.5570	48.9519
 1.5560	48.9565
 1.5550	48.9515
 1.5540	48.9685
 1.5530	48.9215
 1.5520	48.8756
 1.5510	48.9157
 1.5500	48.9488
 1.5490	49.0062
 1.5480	48.9688
 1.5470	48.9604
 1.5460	48.9321
 1.5450	48.9771
 1.5440	48.9272
 1.5430	48.9341
 1.5420	48.9267
 1.5410	48.9401
 1.5400	48.9506
 1.5390	48.9580
 1.5380	48.9376
 1.5370	48.9381
 1.5360	48.9198
 1.5350	48.9601
 1.5340	48.9282
 1.5330	48.8662
 1.5320	48.9063
 1.5310	48.9628
 1.5300	48.8997
 1.5290	48.8695
 1.5280	48.8714
 1.5270	48.9228
 1.5260	48.9093
 1.5250	48.9408
 1.5240	48.9866
 1.5230	49.0061
 1.5220	49.0015
 1.5210	48.9636
 1.5200	48.9089
 1.5190	48.9547
 1.5180	48.9414
 1.5170	48.8964
 1.5160	48.9176
 1.5150	48.9154
 1.5140	48.9202
 1.5130	48.9810
 1.5120	48.9551
 1.5110	48.9599
 1.5100	48.9768
 1.5090	48.9838
 1.5080	48.9660
 1.5070	48.9368
 1.5060	48.9209
 1.5050	48.9592
 1.5040	48.9611
 1.5030	48.9876
 1.5020	48.9929
 1.5010	48.9481
 1.5000	48.9149
 1.4990	48.9946
 1.4980	49.0432
 1.4970	48.9564
 1.4960	48.9421
 1.4950	48.9872
 1.4940	48.9584
 1.4930	48.9064
 1.4920	48.9563
 1.4910	48.9580
 1.4900	48.9448
 1.4890	48.9773
 1.4880	48.9537
 1.4870	48.9207
 1.4860	48.9317
 1.4850	48.9643
 1.4840	48.9893
 1.4830	48.9655
 1.4820	48.9869
 1.4810	49.0050
 1.4800	48.9948
 1.4790	48.9354
 1.4780	48.9231
 1.4770	48.9551
 1.4760	48.9463
 1.4750	48.9600
 1.4740	48.9620
 1.4730	49.0068
 1.4720	49.0361
 1.4710	48.9966
 1.4700	48.9749
 1.4690	48.9727
 1.4680	48.9649
 1.4670	48.9483
 1.4660	48.9806
 1.4650	49.0180
 1.4640	49.0210
 1.4630	48.9419
 1.4620	48.9465
 1.4610	48.9912
 1.4600	48.9903
 1.4590	48.9618
 1.4580	49.0044
 1.4570	49.0202
 1.4560	49.0471
 1.4550	49.0039
 1.4540	49.0304
 1.4530	49.0191
 1.4520	49.0005
 1.4510	48.9174
 1.4500	48.9312
 1.4490	48.9418
 1.4480	49.0063
 1.4470	48.9793
 1.4460	48.9776
 1.4450	48.9695
 1.4440	49.0085
 1.4430	48.9920
 1.4420	48.9847
 1.4410	48.9742
 1.4400	48.9882
 1.4390	48.9982
 1.4380	49.0014
 1.4370	49.0220
 1.4360	48.9711
 1.4350	49.0027
 1.4340	49.0070
 1.4330	49.0271
 1.4320	49.0018
 1.4310	48.9784
 1.4300	49.0036
 1.4290	49.0019
 1.4280	48.9479
 1.4270	48.9395
 1.4260	49.0209
 1.4250	48.9701
 1.4240	48.9889
 1.4230	48.9730
 1.4220	49.0709
 1.4210	49.0104
 1.4200	48.9456
 1.4190	48.9203
 1.4180	49.0166
 1.4170	48.9135
 1.4160	48.9554
 1.4150	48.8989
 1.4140	48.9296
 1.4130	48.8345
 1.4120	48.8239
 1.4110	48.8372
 1.4100	48.8051
 1.4090	48.6341
 1.4080	48.4006
 1.4070	48.1950
 1.4060	47.9518
 1.4050	47.8800
 1.4040	47.9854
 1.4030	48.2124
 1.4020	48.4936
 1.4010	48.6374
 1.4000	48.7077
 1.3990	48.8556
 1.3980	49.0064
 1.3970	49.1018
 1.3960	49.1369
 1.3950	49.0734
 1.3940	49.0234
 1.3930	49.0245
 1.3920	49.1390
 1.3910	49.0908
 1.3900	49.1621
 1.3890	49.1941
 1.3880	49.2003
 1.3870	49.0466
 1.3860	49.2262
 1.3850	49.1728
 1.3840	49.2363
 1.3830	49.1251
 1.3820	49.0592
 1.3810	49.1124
 1.3800	49.1338
 1.3790	49.1796
 1.3780	49.1237
 1.3770	49.0832
 1.3760	49.1982
 1.3750	49.2134
 1.3740	49.1948
 1.3730	49.1289
 1.3720	49.1271
 1.3710	49.1762
 1.3700	49.1462
 1.3690	49.1728
 1.3680	49.1596
 1.3670	49.1559
