Name: Ferroaxinite Ca_2Fe^2+Al_2BSi_4O_15(OH)
Type: Mineral
Class: Silicate
Subclass: Cyclosilicate
Particle Size: Medium
Sample No.: CS-4A
Owner: JPL
Wavelength Range: VSWIR
Origin: Mexico, Baja California Norte, Los Gavelontos.
Collection Date: N/A
Description: Particle size was 45-125um.Collected by:  Ward's Original ASTER Spectral Library name was jpl.perkin.mineral.silicate.cyclosilicate.medium.cs04a.spectrum.txt
Measurement: Hemispherical reflectance
First Column: X
Second Column: Y
X Units: Wavelength (micrometers)
Y Units:Reflectance (percent)
First X Value:  2.5000
Last X Value:  0.4000
Number of X Values: 2101
Additional Information: mineral.silicate.cyclosilicate.medium.vswir.cs-4a.jpl.perkin.ancillary.txt

 2.5000	30.4516
 2.4990	30.4367
 2.4980	30.4631
 2.4970	30.4875
 2.4960	29.8901
 2.4950	30.4621
 2.4940	30.1575
 2.4930	30.2066
 2.4920	30.0970
 2.4910	30.1981
 2.4900	29.9499
 2.4890	30.1532
 2.4880	30.0660
 2.4870	30.0750
 2.4860	29.8734
 2.4850	30.2221
 2.4840	29.8897
 2.4830	30.1179
 2.4820	29.8460
 2.4810	29.9823
 2.4800	29.9080
 2.4790	30.0509
 2.4780	29.8258
 2.4770	29.8615
 2.4760	29.7416
 2.4750	29.9119
 2.4740	29.7364
 2.4730	29.8113
 2.4720	29.6851
 2.4710	29.6617
 2.4700	29.6004
 2.4690	29.5602
 2.4680	29.3846
 2.4670	29.3999
 2.4660	29.2964
 2.4650	29.3074
 2.4640	29.2068
 2.4630	29.2278
 2.4620	29.0696
 2.4610	28.9838
 2.4600	28.8497
 2.4590	28.8577
 2.4580	28.7071
 2.4570	28.7139
 2.4560	28.5371
 2.4550	28.4522
 2.4540	28.4316
 2.4530	28.3161
 2.4520	28.2343
 2.4510	28.2549
 2.4500	28.0410
 2.4490	27.9082
 2.4480	27.7813
 2.4470	27.8197
 2.4460	27.7106
 2.4450	27.6874
 2.4440	27.5441
 2.4430	27.4408
 2.4420	27.2728
 2.4410	27.3082
 2.4400	27.0996
 2.4390	27.0765
 2.4380	26.9140
 2.4370	26.8146
 2.4360	26.7489
 2.4350	26.7090
 2.4340	26.4547
 2.4330	26.5163
 2.4320	26.3776
 2.4310	26.2713
 2.4300	26.1052
 2.4290	26.1312
 2.4280	25.9365
 2.4270	25.8734
 2.4260	25.7388
 2.4250	25.6604
 2.4240	25.5498
 2.4230	25.5339
 2.4220	25.3494
 2.4210	25.2213
 2.4200	25.1329
 2.4190	25.0363
 2.4180	24.8954
 2.4170	24.8030
 2.4160	24.6214
 2.4150	24.5901
 2.4140	24.4392
 2.4130	24.3620
 2.4120	24.1266
 2.4110	24.0307
 2.4100	23.9393
 2.4090	23.9166
 2.4080	23.7394
 2.4070	23.7439
 2.4060	23.5089
 2.4050	23.3342
 2.4040	23.1804
 2.4030	23.1456
 2.4020	22.9840
 2.4010	22.8857
 2.4000	22.7419
 2.3990	22.6214
 2.3980	22.5138
 2.3970	22.4164
 2.3960	22.2184
 2.3950	22.0533
 2.3940	21.8892
 2.3930	21.7323
 2.3920	21.5457
 2.3910	21.4008
 2.3900	21.2351
 2.3890	21.0170
 2.3880	20.7675
 2.3870	20.5721
 2.3860	20.3335
 2.3850	20.1325
 2.3840	19.8696
 2.3830	19.6194
 2.3820	19.3735
 2.3810	19.1555
 2.3800	18.8359
 2.3790	18.6053
 2.3780	18.3829
 2.3770	18.1787
 2.3760	17.8990
 2.3750	17.6644
 2.3740	17.3949
 2.3730	17.2710
 2.3720	17.1537
 2.3710	16.9713
 2.3700	16.8320
 2.3690	16.7485
 2.3680	16.6615
 2.3670	16.5749
 2.3660	16.4512
 2.3650	16.4114
 2.3640	16.3938
 2.3630	16.4049
 2.3620	16.3714
 2.3610	16.3664
 2.3600	16.3558
 2.3590	16.3768
 2.3580	16.4220
 2.3570	16.4301
 2.3560	16.4021
 2.3550	16.4309
 2.3540	16.4123
 2.3530	16.3767
 2.3520	16.3790
 2.3510	16.3461
 2.3500	16.3123
 2.3490	16.2352
 2.3480	16.1185
 2.3470	15.9825
 2.3460	15.8994
 2.3450	15.7697
 2.3440	15.6134
 2.3430	15.5263
 2.3420	15.4212
 2.3410	15.1926
 2.3400	15.0274
 2.3390	14.8380
 2.3380	14.6360
 2.3370	14.4241
 2.3360	14.2195
 2.3350	13.9576
 2.3340	13.7754
 2.3330	13.5263
 2.3320	13.3112
 2.3310	13.1134
 2.3300	12.9088
 2.3290	12.7076
 2.3280	12.6096
 2.3270	12.3912
 2.3260	12.2410
 2.3250	12.1195
 2.3240	12.0497
 2.3230	11.8980
 2.3220	11.8663
 2.3210	11.7266
 2.3200	11.7048
 2.3190	11.7231
 2.3180	11.6944
 2.3170	11.6128
 2.3160	11.6897
 2.3150	11.6788
 2.3140	11.7458
 2.3130	11.7116
 2.3120	11.7816
 2.3110	11.8090
 2.3100	11.8415
 2.3090	11.7790
 2.3080	11.9028
 2.3070	11.9194
 2.3060	11.9995
 2.3050	11.9847
 2.3040	12.0483
 2.3030	12.0270
 2.3020	12.1537
 2.3010	12.1395
 2.3000	12.1416
 2.2990	12.1834
 2.2980	12.2756
 2.2970	12.2518
 2.2960	12.3594
 2.2950	12.3420
 2.2940	12.3924
 2.2930	12.4575
 2.2920	12.5286
 2.2910	12.6153
 2.2900	12.6823
 2.2890	12.6997
 2.2880	12.7784
 2.2870	12.7912
 2.2860	12.8762
 2.2850	12.8638
 2.2840	12.9070
 2.2830	12.9554
 2.2820	13.0242
 2.2810	12.9653
 2.2800	13.0860
 2.2790	13.0119
 2.2780	13.0552
 2.2770	13.0103
 2.2760	13.1304
 2.2750	13.0658
 2.2740	13.1648
 2.2730	13.0888
 2.2720	13.1295
 2.2710	13.0823
 2.2700	13.1829
 2.2690	13.0968
 2.2680	13.1933
 2.2670	13.1543
 2.2660	13.2088
 2.2650	13.2097
 2.2640	13.2515
 2.2630	13.1713
 2.2620	13.2770
 2.2610	13.2498
 2.2600	13.3817
 2.2590	13.3458
 2.2580	13.3744
 2.2570	13.4234
 2.2560	13.4903
 2.2550	13.4734
 2.2540	13.5469
 2.2530	13.4551
 2.2520	13.5906
 2.2510	13.5313
 2.2500	13.6355
 2.2490	13.5498
 2.2480	13.6738
 2.2470	13.5084
 2.2460	13.6089
 2.2450	13.6500
 2.2440	13.6611
 2.2430	13.5909
 2.2420	13.5932
 2.2410	13.5253
 2.2400	13.6171
 2.2390	13.4910
 2.2380	13.6166
 2.2370	13.5696
 2.2360	13.5939
 2.2350	13.4795
 2.2340	13.5197
 2.2330	13.4704
 2.2320	13.5181
 2.2310	13.4538
 2.2300	13.6359
 2.2290	13.3381
 2.2280	13.4141
 2.2270	13.3919
 2.2260	13.5412
 2.2250	13.3710
 2.2240	13.4265
 2.2230	13.2307
 2.2220	13.4505
 2.2210	13.2956
 2.2200	13.3587
 2.2190	13.2374
 2.2180	13.3154
 2.2170	13.2129
 2.2160	13.3275
 2.2150	13.2267
 2.2140	13.3017
 2.2130	13.0923
 2.2120	13.4022
 2.2110	12.9379
 2.2100	13.2648
 2.2090	13.0043
 2.2080	13.2181
 2.2070	13.0396
 2.2060	13.1283
 2.2050	13.0508
 2.2040	13.0731
 2.2030	12.9067
 2.2020	13.1487
 2.2010	12.8711
 2.2000	13.0543
 2.1990	12.9490
 2.1980	12.9685
 2.1970	12.8463
 2.1960	13.0045
 2.1950	12.8123
 2.1940	12.9048
 2.1930	12.8193
 2.1920	12.8984
 2.1910	12.7464
 2.1900	12.8801
 2.1890	12.7731
 2.1880	12.8755
 2.1870	12.7545
 2.1860	12.7961
 2.1850	12.7141
 2.1840	12.7696
 2.1830	12.6998
 2.1820	12.8172
 2.1810	12.6960
 2.1800	12.7395
 2.1790	12.6467
 2.1780	12.6529
 2.1770	12.6451
 2.1760	12.7246
 2.1750	12.5831
 2.1740	12.5892
 2.1730	12.5738
 2.1720	12.6176
 2.1710	12.5673
 2.1700	12.5907
 2.1690	12.5632
 2.1680	12.6146
 2.1670	12.5039
 2.1660	12.5686
 2.1650	12.5184
 2.1640	12.5420
 2.1630	12.4645
 2.1620	12.5389
 2.1610	12.5004
 2.1600	12.4993
 2.1590	12.4584
 2.1580	12.5543
 2.1570	12.4649
 2.1560	12.4349
 2.1550	12.4299
 2.1540	12.5359
 2.1530	12.3785
 2.1520	12.4113
 2.1510	12.3785
 2.1500	12.4412
 2.1490	12.3593
 2.1480	12.3526
 2.1470	12.2634
 2.1460	12.4481
 2.1450	12.3561
 2.1440	12.4341
 2.1430	12.3120
 2.1420	12.3089
 2.1410	12.2308
 2.1400	12.3618
 2.1390	12.2583
 2.1380	12.2578
 2.1370	12.2611
 2.1360	12.2984
 2.1350	12.2337
 2.1340	12.2574
 2.1330	12.1344
 2.1320	12.2127
 2.1310	12.2025
 2.1300	12.2308
 2.1290	12.1427
 2.1280	12.1818
 2.1270	12.0962
 2.1260	12.1881
 2.1250	12.0796
 2.1240	12.0920
 2.1230	12.0841
 2.1220	12.0936
 2.1210	12.0140
 2.1200	12.0844
 2.1190	12.0116
 2.1180	12.0910
 2.1170	11.9981
 2.1160	12.0249
 2.1150	11.9852
 2.1140	12.0323
 2.1130	11.9843
 2.1120	11.9855
 2.1110	11.9511
 2.1100	11.9972
 2.1090	11.9447
 2.1080	11.9088
 2.1070	11.8922
 2.1060	11.8879
 2.1050	11.8970
 2.1040	11.9130
 2.1030	11.8395
 2.1020	11.8799
 2.1010	11.8675
 2.1000	11.8998
 2.0990	11.8351
 2.0980	11.8389
 2.0970	11.7853
 2.0960	11.8082
 2.0950	11.7844
 2.0940	11.8333
 2.0930	11.8450
 2.0920	11.8702
 2.0910	11.8285
 2.0900	11.8165
 2.0890	11.8257
 2.0880	11.8396
 2.0870	11.8420
 2.0860	11.8504
 2.0850	11.8453
 2.0840	11.7915
 2.0830	11.8052
 2.0820	11.8428
 2.0810	11.8005
 2.0800	11.8518
 2.0790	11.8454
 2.0780	11.8467
 2.0770	11.8490
 2.0760	11.8648
 2.0750	11.8621
 2.0740	11.8289
 2.0730	11.8172
 2.0720	11.8290
 2.0710	11.8293
 2.0700	11.8590
 2.0690	11.9286
 2.0680	11.8717
 2.0670	11.8726
 2.0660	11.8995
 2.0650	11.8993
 2.0640	11.9095
 2.0630	11.9093
 2.0620	11.8726
 2.0610	11.8915
 2.0600	11.8713
 2.0590	11.8669
 2.0580	11.8737
 2.0570	11.9238
 2.0560	11.9218
 2.0550	11.9519
 2.0540	11.9547
 2.0530	11.9507
 2.0520	11.9012
 2.0510	11.9179
 2.0500	11.9525
 2.0490	12.0007
 2.0480	11.9754
 2.0470	11.9857
 2.0460	11.9741
 2.0450	11.9688
 2.0440	11.9738
 2.0430	12.0315
 2.0420	12.0001
 2.0410	12.0363
 2.0400	11.9993
 2.0390	12.0076
 2.0380	11.9951
 2.0370	12.0719
 2.0360	12.0414
 2.0350	12.0460
 2.0340	12.0908
 2.0330	12.0769
 2.0320	12.0233
 2.0310	12.1146
 2.0300	12.0785
 2.0290	12.1140
 2.0280	12.0685
 2.0270	12.1000
 2.0260	12.1081
 2.0250	12.1408
 2.0240	12.1018
 2.0230	12.1633
 2.0220	12.1485
 2.0210	12.1100
 2.0200	12.1196
 2.0190	12.1809
 2.0180	12.1531
 2.0170	12.2087
 2.0160	12.1648
 2.0150	12.2025
 2.0140	12.1527
 2.0130	12.2378
 2.0120	12.2057
 2.0110	12.2508
 2.0100	12.1949
 2.0090	12.2506
 2.0080	12.2117
 2.0070	12.2764
 2.0060	12.2202
 2.0050	12.3377
 2.0040	12.2748
 2.0030	12.3769
 2.0020	12.3552
 2.0010	12.3763
 2.0000	12.3237
 1.9990	12.4371
 1.9980	12.3610
 1.9970	12.4457
 1.9960	12.3950
 1.9950	12.3858
 1.9940	12.4041
 1.9930	12.4794
 1.9920	12.3907
 1.9910	12.5346
 1.9900	12.4274
 1.9890	12.4886
 1.9880	12.4385
 1.9870	12.5326
 1.9860	12.4942
 1.9850	12.5694
 1.9840	12.4543
 1.9830	12.5734
 1.9820	12.5179
 1.9810	12.6060
 1.9800	12.5607
 1.9790	12.6415
 1.9780	12.5252
 1.9770	12.6617
 1.9760	12.5973
 1.9750	12.6003
 1.9740	12.6398
 1.9730	12.6912
 1.9720	12.6558
 1.9710	12.7227
 1.9700	12.6915
 1.9690	12.7491
 1.9680	12.7111
 1.9670	12.7777
 1.9660	12.6943
 1.9650	12.7956
 1.9640	12.7674
 1.9630	12.7969
 1.9620	12.7975
 1.9610	12.9123
 1.9600	12.7236
 1.9590	12.8722
 1.9580	12.8276
 1.9570	12.9804
 1.9560	12.8734
 1.9550	13.0190
 1.9540	12.8884
 1.9530	13.0339
 1.9520	12.9390
 1.9510	12.9879
 1.9500	13.0277
 1.9490	13.0813
 1.9480	12.9776
 1.9470	13.1386
 1.9460	13.0374
 1.9450	13.1912
 1.9440	13.0403
 1.9430	13.2210
 1.9420	13.0418
 1.9410	13.2376
 1.9400	13.1108
 1.9390	13.2168
 1.9380	13.2531
 1.9370	13.2930
 1.9360	13.1399
 1.9350	13.3745
 1.9340	13.2461
 1.9330	13.4116
 1.9320	13.2938
 1.9310	13.4461
 1.9300	13.3716
 1.9290	13.5337
 1.9280	13.3872
 1.9270	13.6545
 1.9260	13.2372
 1.9250	13.6091
 1.9240	13.3800
 1.9230	13.6140
 1.9220	13.4949
 1.9210	13.5854
 1.9200	13.5716
 1.9190	13.6852
 1.9180	13.5947
 1.9170	13.7328
 1.9160	13.6672
 1.9150	13.7296
 1.9140	13.7059
 1.9130	13.8638
 1.9120	13.7674
 1.9110	13.9137
 1.9100	13.9063
 1.9090	13.9760
 1.9080	13.9324
 1.9070	14.0339
 1.9060	13.9720
 1.9050	14.1107
 1.9040	14.0366
 1.9030	14.1894
 1.9020	14.0549
 1.9010	14.1916
 1.9000	14.2131
 1.8990	14.2850
 1.8980	14.2339
 1.8970	14.3973
 1.8960	14.3158
 1.8950	14.4651
 1.8940	14.3778
 1.8930	14.5105
 1.8920	14.3658
 1.8910	14.5283
 1.8900	14.4851
 1.8890	14.6621
 1.8880	14.5603
 1.8870	14.6940
 1.8860	14.6873
 1.8850	14.7715
 1.8840	14.6946
 1.8830	14.8549
 1.8820	14.8424
 1.8810	14.9171
 1.8800	14.8299
 1.8790	15.0112
 1.8780	15.0348
 1.8770	15.1047
 1.8760	15.0067
 1.8750	15.0907
 1.8740	15.1046
 1.8730	15.1912
 1.8720	15.1776
 1.8710	15.2846
 1.8700	15.2932
 1.8690	15.3565
 1.8680	15.3598
 1.8670	15.4766
 1.8660	15.3969
 1.8650	15.5743
 1.8640	15.5540
 1.8630	15.6708
 1.8620	15.6119
 1.8610	15.7242
 1.8600	15.6792
 1.8590	15.7167
 1.8580	15.7690
 1.8570	15.8556
 1.8560	15.8058
 1.8550	15.9383
 1.8540	15.9229
 1.8530	16.0433
 1.8520	16.0610
 1.8510	16.1195
 1.8500	16.0840
 1.8490	16.1553
 1.8480	16.2150
 1.8470	16.2864
 1.8460	16.2819
 1.8450	16.3867
 1.8440	16.3476
 1.8430	16.4541
 1.8420	16.4241
 1.8410	16.5288
 1.8400	16.5186
 1.8390	16.5828
 1.8380	16.6085
 1.8370	16.7117
 1.8360	16.7063
 1.8350	16.9496
 1.8340	17.4080
 1.8330	17.7076
 1.8320	17.5842
 1.8310	17.5841
 1.8300	17.5172
 1.8290	17.5505
 1.8280	17.5824
 1.8270	17.6471
 1.8260	17.5867
 1.8250	17.5363
 1.8240	17.5578
 1.8230	17.6373
 1.8220	17.6046
 1.8210	17.7098
 1.8200	17.7018
 1.8190	17.7412
 1.8180	17.7587
 1.8170	17.8589
 1.8160	17.8857
 1.8150	17.9349
 1.8140	17.9263
 1.8130	18.0085
 1.8120	18.0321
 1.8110	18.0409
 1.8100	18.0768
 1.8090	18.1723
 1.8080	18.1788
 1.8070	18.2534
 1.8060	18.3183
 1.8050	18.3702
 1.8040	18.4230
 1.8030	18.4003
 1.8020	18.4458
 1.8010	18.5535
 1.8000	18.5701
 1.7990	18.6867
 1.7980	18.7092
 1.7970	18.7715
 1.7960	18.8208
 1.7950	18.8629
 1.7940	18.9205
 1.7930	18.9586
 1.7920	19.0405
 1.7910	19.0669
 1.7900	19.0875
 1.7890	19.1911
 1.7880	19.2457
 1.7870	19.2800
 1.7860	19.3114
 1.7850	19.4290
 1.7840	19.4900
 1.7830	19.5207
 1.7820	19.6023
 1.7810	19.6450
 1.7800	19.7054
 1.7790	19.7828
 1.7780	19.8400
 1.7770	19.9109
 1.7760	19.9684
 1.7750	19.9976
 1.7740	20.0942
 1.7730	20.1299
 1.7720	20.1953
 1.7710	20.3039
 1.7700	20.3811
 1.7690	20.4213
 1.7680	20.4993
 1.7670	20.5361
 1.7660	20.5825
 1.7650	20.6445
 1.7640	20.7521
 1.7630	20.7853
 1.7620	20.8963
 1.7610	20.9752
 1.7600	21.0475
 1.7590	21.0438
 1.7580	21.1146
 1.7570	21.1760
 1.7560	21.2419
 1.7550	21.2701
 1.7540	21.3880
 1.7530	21.4518
 1.7520	21.5170
 1.7510	21.5737
 1.7500	21.7037
 1.7490	21.7398
 1.7480	21.8463
 1.7470	21.9178
 1.7460	22.0375
 1.7450	22.0002
 1.7440	22.1060
 1.7430	22.2277
 1.7420	22.2623
 1.7410	22.3206
 1.7400	22.4917
 1.7390	22.5034
 1.7380	22.5719
 1.7370	22.5989
 1.7360	22.7380
 1.7350	22.8342
 1.7340	22.9104
 1.7330	22.9432
 1.7320	23.0486
 1.7310	23.0976
 1.7300	23.2791
 1.7290	23.2582
 1.7280	23.3917
 1.7270	23.4261
 1.7260	23.5833
 1.7250	23.5634
 1.7240	23.6844
 1.7230	23.7403
 1.7220	23.8322
 1.7210	23.8577
 1.7200	24.0332
 1.7190	24.0904
 1.7180	24.1554
 1.7170	24.1393
 1.7160	24.3327
 1.7150	24.3625
 1.7140	24.4918
 1.7130	24.4904
 1.7120	24.6621
 1.7110	24.7055
 1.7100	24.8171
 1.7090	24.9037
 1.7080	24.9804
 1.7070	25.0657
 1.7060	25.1633
 1.7050	25.2014
 1.7040	25.3061
 1.7030	25.3203
 1.7020	25.4536
 1.7010	25.5630
 1.7000	25.6011
 1.6990	25.6962
 1.6980	25.7734
 1.6970	25.7694
 1.6960	26.0014
 1.6950	25.9747
 1.6940	26.2290
 1.6930	26.1940
 1.6920	26.3352
 1.6910	26.3361
 1.6900	26.4192
 1.6890	26.5407
 1.6880	26.6796
 1.6870	26.7005
 1.6860	26.8625
 1.6850	26.9010
 1.6840	27.0205
 1.6830	27.0581
 1.6820	27.2257
 1.6810	27.2613
 1.6800	27.3559
 1.6790	27.3492
 1.6780	27.5733
 1.6770	27.5596
 1.6760	27.7370
 1.6750	27.7842
 1.6740	27.9697
 1.6730	27.9690
 1.6720	28.1825
 1.6710	28.1289
 1.6700	28.3997
 1.6690	28.5445
 1.6680	28.4116
 1.6670	28.5342
 1.6660	28.7392
 1.6650	28.6782
 1.6640	28.8736
 1.6630	28.9098
 1.6620	29.1006
 1.6610	29.1101
 1.6600	29.3266
 1.6590	29.3004
 1.6580	29.4594
 1.6570	29.5714
 1.6560	29.6525
 1.6550	29.6731
 1.6540	29.8265
 1.6530	29.8419
 1.6520	30.1089
 1.6510	29.9510
 1.6500	30.2763
 1.6490	30.2191
 1.6480	30.3947
 1.6470	30.4276
 1.6460	30.6471
 1.6450	30.6560
 1.6440	30.7614
 1.6430	30.8622
 1.6420	31.1101
 1.6410	30.9399
 1.6400	31.2430
 1.6390	31.2952
 1.6380	31.4099
 1.6370	31.3935
 1.6360	31.6676
 1.6350	31.6746
 1.6340	31.8590
 1.6330	31.8623
 1.6320	31.9804
 1.6310	32.0660
 1.6300	32.2167
 1.6290	32.2218
 1.6280	32.3568
 1.6270	32.4127
 1.6260	32.6640
 1.6250	32.6599
 1.6240	32.7766
 1.6230	32.8207
 1.6220	32.9796
 1.6210	33.1193
 1.6200	33.2149
 1.6190	33.1644
 1.6180	33.4476
 1.6170	33.4565
 1.6160	33.5971
 1.6150	33.6067
 1.6140	33.7308
 1.6130	33.8616
 1.6120	34.0400
 1.6110	34.0230
 1.6100	34.2045
 1.6090	34.1401
 1.6080	34.3573
 1.6070	34.3757
 1.6060	34.5223
 1.6050	34.5447
 1.6040	34.7395
 1.6030	34.7718
 1.6020	34.9542
 1.6010	34.9190
 1.6000	35.1210
 1.5990	35.1434
 1.5980	35.2948
 1.5970	35.2811
 1.5960	35.4211
 1.5950	35.5196
 1.5940	35.6429
 1.5930	35.6452
 1.5920	35.7847
 1.5910	35.8638
 1.5900	36.0425
 1.5890	36.0049
 1.5880	36.1313
 1.5870	36.1766
 1.5860	36.2935
 1.5850	36.3234
 1.5840	36.4852
 1.5830	36.4730
 1.5820	36.5707
 1.5810	36.6436
 1.5800	36.7284
 1.5790	36.7732
 1.5780	36.9123
 1.5770	36.8747
 1.5760	37.0079
 1.5750	37.0687
 1.5740	37.0989
 1.5730	37.1629
 1.5720	37.2387
 1.5710	37.2462
 1.5700	37.3175
 1.5690	37.3653
 1.5680	37.4302
 1.5670	37.4780
 1.5660	37.5062
 1.5650	37.5152
 1.5640	37.6230
 1.5630	37.5699
 1.5620	37.6368
 1.5610	37.5989
 1.5600	37.6939
 1.5590	37.6796
 1.5580	37.7794
 1.5570	37.7092
 1.5560	37.7915
 1.5550	37.7650
 1.5540	37.8338
 1.5530	37.8718
 1.5520	37.9408
 1.5510	37.9215
 1.5500	37.9872
 1.5490	38.0084
 1.5480	37.9969
 1.5470	38.0603
 1.5460	38.1770
 1.5450	38.1427
 1.5440	38.2596
 1.5430	38.2396
 1.5420	38.2890
 1.5410	38.3444
 1.5400	38.4221
 1.5390	38.4461
 1.5380	38.5303
 1.5370	38.6177
 1.5360	38.6499
 1.5350	38.6811
 1.5340	38.7382
 1.5330	38.7902
 1.5320	38.9239
 1.5310	39.0144
 1.5300	39.0127
 1.5290	39.0095
 1.5280	39.0725
 1.5270	39.1390
 1.5260	39.1811
 1.5250	39.2315
 1.5240	39.3405
 1.5230	39.4094
 1.5220	39.4424
 1.5210	39.4590
 1.5200	39.4863
 1.5190	39.4978
 1.5180	39.5718
 1.5170	39.6197
 1.5160	39.6693
 1.5150	39.6843
 1.5140	39.7318
 1.5130	39.7383
 1.5120	39.7610
 1.5110	39.7975
 1.5100	39.8253
 1.5090	39.8531
 1.5080	39.8259
 1.5070	39.8064
 1.5060	39.8348
 1.5050	39.8576
 1.5040	39.8341
 1.5030	39.8290
 1.5020	39.8248
 1.5010	39.8250
 1.5000	39.8179
 1.4990	39.8202
 1.4980	39.8106
 1.4970	39.7388
 1.4960	39.7012
 1.4950	39.6571
 1.4940	39.5870
 1.4930	39.5315
 1.4920	39.4712
 1.4910	39.4520
 1.4900	39.3851
 1.4890	39.3139
 1.4880	39.2703
 1.4870	39.1950
 1.4860	39.0789
 1.4850	39.0077
 1.4840	38.9269
 1.4830	38.8470
 1.4820	38.7527
 1.4810	38.6587
 1.4800	38.5274
 1.4790	38.4395
 1.4780	38.3399
 1.4770	38.2015
 1.4760	38.0459
 1.4750	38.0194
 1.4740	37.9037
 1.4730	37.7640
 1.4720	37.6033
 1.4710	37.4754
 1.4700	37.2972
 1.4690	37.1911
 1.4680	37.0541
 1.4670	36.8756
 1.4660	36.7731
 1.4650	36.6473
 1.4640	36.4037
 1.4630	36.2312
 1.4620	36.0716
 1.4610	35.9019
 1.4600	35.7397
 1.4590	35.5929
 1.4580	35.3556
 1.4570	35.1839
 1.4560	35.0089
 1.4550	34.8262
 1.4540	34.6046
 1.4530	34.4252
 1.4520	34.2259
 1.4510	34.0721
 1.4500	33.8030
 1.4490	33.6183
 1.4480	33.4368
 1.4470	33.2403
 1.4460	33.0371
 1.4450	32.8213
 1.4440	32.5573
 1.4430	32.3567
 1.4420	32.1525
 1.4410	31.9817
 1.4400	31.7000
 1.4390	31.5183
 1.4380	31.2239
 1.4370	31.0512
 1.4360	30.7644
 1.4350	30.5487
 1.4340	30.2923
 1.4330	30.0704
 1.4320	29.7877
 1.4310	29.6416
 1.4300	29.3612
 1.4290	29.1199
 1.4280	28.9414
 1.4270	28.6739
 1.4260	28.3664
 1.4250	28.2236
 1.4240	27.8583
 1.4230	27.6915
 1.4220	27.5116
 1.4210	27.2869
 1.4200	26.9662
 1.4190	26.7132
 1.4180	26.5129
 1.4170	26.3025
 1.4160	26.0136
 1.4150	25.9111
 1.4140	25.5761
 1.4130	25.3294
 1.4120	25.1182
 1.4110	25.0140
 1.4100	24.7032
 1.4090	24.4650
 1.4080	24.2029
 1.4070	23.9458
 1.4060	23.6825
 1.4050	23.5027
 1.4040	23.2868
 1.4030	23.1372
 1.4020	22.8467
 1.4010	22.6278
 1.4000	22.3189
 1.3990	22.1935
 1.3980	21.9097
 1.3970	21.7567
 1.3960	21.5970
 1.3950	21.3285
 1.3940	21.0255
 1.3930	20.8481
 1.3920	20.6648
 1.3910	20.5627
 1.3900	20.2573
 1.3890	20.0520
 1.3880	19.9071
 1.3870	19.7197
 1.3860	19.4204
 1.3850	19.2991
 1.3840	19.0740
 1.3830	18.8276
 1.3820	18.4788
 1.3810	18.3823
 1.3800	18.1134
 1.3790	18.1066
 1.3780	17.7667
 1.3770	17.8068
 1.3760	17.4406
 1.3750	17.3452
 1.3740	17.1184
 1.3730	17.0006
 1.3720	16.7600
 1.3710	16.7410
 1.3700	16.3787
 1.3690	16.3523
