Name: Cryolite Na_3AlF_6
Type: Mineral
Class: Halide
Subclass: None
Particle Size: Fine
Sample No.: H-1A
Owner: JPL
Wavelength Range: VSWIR
Origin: Denmark, Greenland, Ivigtut.
Collection Date: N/A
Description: Particle size was 0-45um.Collected by:  Ward's Original ASTER Spectral Library name was jpl.perkin.mineral.halide.none.fine.h01a.spectrum.txt
Measurement: Hemispherical reflectance
First Column: X
Second Column: Y
X Units: Wavelength (micrometers)
Y Units:Reflectance (percent)
First X Value:  2.5000
Last X Value:  0.4000
Number of X Values: 2101
Additional Information: mineral.halide.none.fine.vswir.h-1a.jpl.perkin.ancillary.txt

 2.5000	86.3943
 2.4990	86.2947
 2.4980	86.3842
 2.4970	86.4690
 2.4960	86.2520
 2.4950	86.4084
 2.4940	86.2383
 2.4930	86.2104
 2.4920	86.3539
 2.4910	86.0942
 2.4900	86.1736
 2.4890	86.0674
 2.4880	86.1712
 2.4870	86.0329
 2.4860	85.9982
 2.4850	85.9791
 2.4840	85.8720
 2.4830	85.9704
 2.4820	85.8132
 2.4810	85.9416
 2.4800	85.8936
 2.4790	85.8826
 2.4780	85.8134
 2.4770	85.7491
 2.4760	85.8115
 2.4750	85.5008
 2.4740	85.4689
 2.4730	85.5993
 2.4720	85.4778
 2.4710	85.6119
 2.4700	85.6476
 2.4690	85.6853
 2.4680	85.7938
 2.4670	85.7481
 2.4660	85.8081
 2.4650	85.7940
 2.4640	85.8730
 2.4630	85.8241
 2.4620	85.9177
 2.4610	85.9507
 2.4600	85.9306
 2.4590	85.9821
 2.4580	85.9245
 2.4570	85.9606
 2.4560	86.0032
 2.4550	86.0785
 2.4540	86.0191
 2.4530	86.1342
 2.4520	86.1876
 2.4510	86.1892
 2.4500	86.2331
 2.4490	86.3195
 2.4480	86.2534
 2.4470	86.3474
 2.4460	86.4264
 2.4450	86.4530
 2.4440	86.4223
 2.4430	86.5276
 2.4420	86.4814
 2.4410	86.5021
 2.4400	86.6212
 2.4390	86.6292
 2.4380	86.6535
 2.4370	86.7034
 2.4360	86.7024
 2.4350	86.7078
 2.4340	86.6867
 2.4330	86.8328
 2.4320	86.8107
 2.4310	86.8611
 2.4300	86.8434
 2.4290	86.8528
 2.4280	86.9524
 2.4270	86.9053
 2.4260	86.9123
 2.4250	86.8979
 2.4240	86.7992
 2.4230	86.8333
 2.4220	86.9348
 2.4210	86.9123
 2.4200	86.8628
 2.4190	86.8096
 2.4180	86.8842
 2.4170	86.9031
 2.4160	86.8881
 2.4150	86.8500
 2.4140	86.8225
 2.4130	86.8965
 2.4120	86.8405
 2.4110	86.8124
 2.4100	86.8597
 2.4090	86.8950
 2.4080	86.8637
 2.4070	86.8542
 2.4060	86.8993
 2.4050	86.8684
 2.4040	86.8859
 2.4030	86.8985
 2.4020	86.9039
 2.4010	86.9087
 2.4000	86.9503
 2.3990	87.0338
 2.3980	87.0174
 2.3970	87.0689
 2.3960	87.1083
 2.3950	87.2171
 2.3940	87.2322
 2.3930	87.2213
 2.3920	87.1852
 2.3910	87.2366
 2.3900	87.2524
 2.3890	87.2695
 2.3880	87.3260
 2.3870	87.4370
 2.3860	87.4396
 2.3850	87.4095
 2.3840	87.4721
 2.3830	87.5753
 2.3820	87.6203
 2.3810	87.6246
 2.3800	87.6680
 2.3790	87.6448
 2.3780	87.7262
 2.3770	87.8699
 2.3760	87.8924
 2.3750	87.9277
 2.3740	87.9700
 2.3730	88.0042
 2.3720	88.0628
 2.3710	88.0854
 2.3700	88.0790
 2.3690	88.1274
 2.3680	88.1768
 2.3670	88.2402
 2.3660	88.2840
 2.3650	88.3139
 2.3640	88.4244
 2.3630	88.5095
 2.3620	88.4876
 2.3610	88.5382
 2.3600	88.5804
 2.3590	88.5989
 2.3580	88.5789
 2.3570	88.6196
 2.3560	88.7155
 2.3550	88.7208
 2.3540	88.7432
 2.3530	88.7589
 2.3520	88.8260
 2.3510	88.8937
 2.3500	88.8883
 2.3490	88.9515
 2.3480	89.0267
 2.3470	89.0425
 2.3460	89.0324
 2.3450	89.1124
 2.3440	89.2083
 2.3430	89.2953
 2.3420	89.2664
 2.3410	89.2887
 2.3400	89.3543
 2.3390	89.3459
 2.3380	89.3705
 2.3370	89.4163
 2.3360	89.5017
 2.3350	89.5683
 2.3340	89.6318
 2.3330	89.7194
 2.3320	89.6970
 2.3310	89.7166
 2.3300	89.7945
 2.3290	89.8485
 2.3280	89.8519
 2.3270	89.8687
 2.3260	89.8547
 2.3250	89.9124
 2.3240	89.9942
 2.3230	89.9649
 2.3220	89.9909
 2.3210	90.0348
 2.3200	90.0409
 2.3190	90.0323
 2.3180	90.0193
 2.3170	90.0696
 2.3160	90.1220
 2.3150	90.1304
 2.3140	90.1584
 2.3130	90.1668
 2.3120	90.2942
 2.3110	90.2743
 2.3100	90.2073
 2.3090	90.1525
 2.3080	90.2097
 2.3070	90.2626
 2.3060	90.1776
 2.3050	90.2001
 2.3040	90.2301
 2.3030	90.2825
 2.3020	90.3038
 2.3010	90.3434
 2.3000	90.2610
 2.2990	90.3398
 2.2980	90.3740
 2.2970	90.3336
 2.2960	90.2685
 2.2950	90.3597
 2.2940	90.3410
 2.2930	90.3121
 2.2920	90.3071
 2.2910	90.3034
 2.2900	90.3256
 2.2890	90.3713
 2.2880	90.4159
 2.2870	90.3420
 2.2860	90.3968
 2.2850	90.4295
 2.2840	90.4036
 2.2830	90.3798
 2.2820	90.4206
 2.2810	90.4246
 2.2800	90.4162
 2.2790	90.4135
 2.2780	90.4721
 2.2770	90.4840
 2.2760	90.5101
 2.2750	90.4723
 2.2740	90.4159
 2.2730	90.5349
 2.2720	90.5914
 2.2710	90.4735
 2.2700	90.4219
 2.2690	90.4592
 2.2680	90.5579
 2.2670	90.4597
 2.2660	90.5052
 2.2650	90.4785
 2.2640	90.5253
 2.2630	90.5016
 2.2620	90.4959
 2.2610	90.5089
 2.2600	90.4251
 2.2590	90.4209
 2.2580	90.5312
 2.2570	90.4270
 2.2560	90.3328
 2.2550	90.4176
 2.2540	90.4801
 2.2530	90.4484
 2.2520	90.5969
 2.2510	90.4059
 2.2500	90.2972
 2.2490	90.3593
 2.2480	90.3760
 2.2470	90.3603
 2.2460	90.3599
 2.2450	90.2432
 2.2440	90.4219
 2.2430	90.2770
 2.2420	90.4080
 2.2410	90.3496
 2.2400	90.2498
 2.2390	90.2333
 2.2380	90.2792
 2.2370	90.3100
 2.2360	90.2600
 2.2350	90.2777
 2.2340	90.3730
 2.2330	90.3608
 2.2320	90.3836
 2.2310	90.4894
 2.2300	90.4616
 2.2290	90.4681
 2.2280	90.4173
 2.2270	90.4180
 2.2260	90.3570
 2.2250	90.3839
 2.2240	90.4315
 2.2230	90.5117
 2.2220	90.5797
 2.2210	90.5181
 2.2200	90.5257
 2.2190	90.5827
 2.2180	90.5622
 2.2170	90.6267
 2.2160	90.6952
 2.2150	90.6197
 2.2140	90.7223
 2.2130	90.6600
 2.2120	90.7850
 2.2110	90.7472
 2.2100	90.7898
 2.2090	90.8503
 2.2080	90.8353
 2.2070	90.8365
 2.2060	90.8398
 2.2050	90.8780
 2.2040	90.9729
 2.2030	91.0065
 2.2020	90.9817
 2.2010	90.9968
 2.2000	91.0297
 2.1990	91.0357
 2.1980	91.0342
 2.1970	91.0689
 2.1960	91.1011
 2.1950	91.0395
 2.1940	91.1779
 2.1930	91.0784
 2.1920	91.0824
 2.1910	91.1139
 2.1900	91.0898
 2.1890	91.1443
 2.1880	91.0247
 2.1870	91.1443
 2.1860	91.1235
 2.1850	91.1962
 2.1840	91.1875
 2.1830	91.2003
 2.1820	91.2208
 2.1810	91.3121
 2.1800	91.2639
 2.1790	91.3146
 2.1780	91.3046
 2.1770	91.3280
 2.1760	91.3729
 2.1750	91.3474
 2.1740	91.3623
 2.1730	91.4420
 2.1720	91.4752
 2.1710	91.4752
 2.1700	91.5013
 2.1690	91.5949
 2.1680	91.5413
 2.1670	91.7336
 2.1660	91.6532
 2.1650	91.6819
 2.1640	91.8657
 2.1630	91.8928
 2.1620	91.8895
 2.1610	91.8831
 2.1600	91.9177
 2.1590	92.0153
 2.1580	92.0383
 2.1570	92.0479
 2.1560	92.0594
 2.1550	92.1045
 2.1540	92.1461
 2.1530	92.0616
 2.1520	92.1424
 2.1510	92.1142
 2.1500	92.0957
 2.1490	92.1812
 2.1480	92.1833
 2.1470	92.2794
 2.1460	92.2354
 2.1450	92.1898
 2.1440	92.2135
 2.1430	92.1665
 2.1420	92.2552
 2.1410	92.2404
 2.1400	92.2136
 2.1390	92.2186
 2.1380	92.1826
 2.1370	92.2453
 2.1360	92.2041
 2.1350	92.2000
 2.1340	92.1638
 2.1330	92.1208
 2.1320	92.0746
 2.1310	92.0916
 2.1300	92.0618
 2.1290	92.0308
 2.1280	92.0267
 2.1270	91.9702
 2.1260	91.9025
 2.1250	91.8610
 2.1240	91.8453
 2.1230	91.7462
 2.1220	91.6661
 2.1210	91.6251
 2.1200	91.5939
 2.1190	91.5171
 2.1180	91.4971
 2.1170	91.4723
 2.1160	91.4650
 2.1150	91.3999
 2.1140	91.3021
 2.1130	91.2038
 2.1120	91.1387
 2.1110	91.1088
 2.1100	91.0390
 2.1090	91.0011
 2.1080	90.9722
 2.1070	90.9320
 2.1060	90.8882
 2.1050	90.8849
 2.1040	90.8128
 2.1030	90.6985
 2.1020	90.6821
 2.1010	90.7131
 2.1000	90.6107
 2.0990	90.5886
 2.0980	90.6229
 2.0970	90.6328
 2.0960	90.6429
 2.0950	90.6092
 2.0940	90.6075
 2.0930	90.6585
 2.0920	90.6873
 2.0910	90.7116
 2.0900	90.6402
 2.0890	90.6397
 2.0880	90.6855
 2.0870	90.6560
 2.0860	90.7334
 2.0850	90.7985
 2.0840	90.6863
 2.0830	90.7185
 2.0820	90.7336
 2.0810	90.7340
 2.0800	90.7835
 2.0790	90.7771
 2.0780	90.7865
 2.0770	90.7397
 2.0760	90.7172
 2.0750	90.8249
 2.0740	90.8520
 2.0730	90.8369
 2.0720	90.8769
 2.0710	90.7819
 2.0700	90.7274
 2.0690	90.8514
 2.0680	90.9036
 2.0670	90.9051
 2.0660	90.8835
 2.0650	90.9000
 2.0640	90.9032
 2.0630	90.8853
 2.0620	90.9157
 2.0610	90.9164
 2.0600	90.9470
 2.0590	90.9521
 2.0580	90.9514
 2.0570	90.9868
 2.0560	91.0052
 2.0550	91.0792
 2.0540	91.0478
 2.0530	91.0925
 2.0520	91.1398
 2.0510	91.0611
 2.0500	91.1001
 2.0490	91.0934
 2.0480	91.1086
 2.0470	91.0831
 2.0460	91.1085
 2.0450	91.1860
 2.0440	91.1722
 2.0430	91.1570
 2.0420	91.1232
 2.0410	91.1914
 2.0400	91.2027
 2.0390	91.2191
 2.0380	91.1790
 2.0370	91.2132
 2.0360	91.2252
 2.0350	91.2070
 2.0340	91.1555
 2.0330	91.1360
 2.0320	91.1821
 2.0310	91.1965
 2.0300	91.2226
 2.0290	91.2275
 2.0280	91.2083
 2.0270	91.2225
 2.0260	91.2255
 2.0250	91.2549
 2.0240	91.2136
 2.0230	91.2024
 2.0220	91.1493
 2.0210	91.1955
 2.0200	91.1976
 2.0190	91.1867
 2.0180	91.1055
 2.0170	91.1958
 2.0160	91.1530
 2.0150	91.1207
 2.0140	91.1567
 2.0130	91.2509
 2.0120	91.2216
 2.0110	91.2081
 2.0100	91.1575
 2.0090	91.0915
 2.0080	91.1291
 2.0070	91.1823
 2.0060	91.1581
 2.0050	91.2089
 2.0040	91.1995
 2.0030	91.1268
 2.0020	91.1818
 2.0010	91.1642
 2.0000	91.0783
 1.9990	91.0962
 1.9980	91.1727
 1.9970	91.0788
 1.9960	91.0648
 1.9950	91.0378
 1.9940	90.9617
 1.9930	90.9330
 1.9920	91.0265
 1.9910	90.9779
 1.9900	90.9271
 1.9890	90.9156
 1.9880	90.8095
 1.9870	90.7962
 1.9860	90.8120
 1.9850	90.7478
 1.9840	90.7158
 1.9830	90.8231
 1.9820	90.6954
 1.9810	90.6631
 1.9800	90.6830
 1.9790	90.6320
 1.9780	90.6536
 1.9770	90.5039
 1.9760	90.5260
 1.9750	90.5685
 1.9740	90.4751
 1.9730	90.4642
 1.9720	90.4368
 1.9710	90.3381
 1.9700	90.2914
 1.9690	90.2433
 1.9680	90.1892
 1.9670	90.1809
 1.9660	90.0508
 1.9650	90.0831
 1.9640	89.9278
 1.9630	89.8990
 1.9620	89.8255
 1.9610	89.6646
 1.9600	89.6258
 1.9590	89.5615
 1.9580	89.3678
 1.9570	89.3553
 1.9560	89.3031
 1.9550	89.1502
 1.9540	89.1121
 1.9530	89.1368
 1.9520	89.0009
 1.9510	89.0089
 1.9500	89.0741
 1.9490	88.9936
 1.9480	88.9723
 1.9470	88.9895
 1.9460	89.0218
 1.9450	89.0642
 1.9440	89.0083
 1.9430	88.9878
 1.9420	88.8912
 1.9410	88.9407
 1.9400	88.7932
 1.9390	88.7421
 1.9380	88.5810
 1.9370	88.5124
 1.9360	88.2771
 1.9350	88.3794
 1.9340	88.1470
 1.9330	88.0262
 1.9320	88.0005
 1.9310	87.9522
 1.9300	87.9052
 1.9290	87.8775
 1.9280	87.9641
 1.9270	88.1636
 1.9260	88.2235
 1.9250	88.3500
 1.9240	88.4837
 1.9230	88.5701
 1.9220	88.7875
 1.9210	88.9136
 1.9200	89.0644
 1.9190	89.1795
 1.9180	89.2990
 1.9170	89.4129
 1.9160	89.5219
 1.9150	89.7015
 1.9140	89.7621
 1.9130	89.8683
 1.9120	89.9129
 1.9110	90.0132
 1.9100	90.0510
 1.9090	90.2401
 1.9080	90.2541
 1.9070	90.2943
 1.9060	90.4029
 1.9050	90.4615
 1.9040	90.5375
 1.9030	90.6111
 1.9020	90.7935
 1.9010	90.8451
 1.9000	90.9173
 1.8990	90.8105
 1.8980	90.9248
 1.8970	91.0898
 1.8960	91.1943
 1.8950	91.2702
 1.8940	91.2539
 1.8930	91.3260
 1.8920	91.4784
 1.8910	91.4991
 1.8900	91.5850
 1.8890	91.5380
 1.8880	91.6928
 1.8870	91.6822
 1.8860	91.7589
 1.8850	91.8094
 1.8840	91.8168
 1.8830	91.8551
 1.8820	91.9044
 1.8810	91.9526
 1.8800	91.9321
 1.8790	91.9412
 1.8780	91.9926
 1.8770	92.1362
 1.8760	92.0228
 1.8750	92.0509
 1.8740	92.1276
 1.8730	92.0999
 1.8720	92.1771
 1.8710	92.2273
 1.8700	92.2500
 1.8690	92.2318
 1.8680	92.3183
 1.8670	92.4198
 1.8660	92.3897
 1.8650	92.3481
 1.8640	92.3328
 1.8630	92.3784
 1.8620	92.3890
 1.8610	92.4500
 1.8600	92.4460
 1.8590	92.4518
 1.8580	92.4223
 1.8570	92.4550
 1.8560	92.4781
 1.8550	92.5726
 1.8540	92.5010
 1.8530	92.5728
 1.8520	92.5557
 1.8510	92.5395
 1.8500	92.5264
 1.8490	92.4949
 1.8480	92.5530
 1.8470	92.5669
 1.8460	92.5493
 1.8450	92.5508
 1.8440	92.5970
 1.8430	92.6080
 1.8420	92.5775
 1.8410	92.5994
 1.8400	92.5604
 1.8390	92.5943
 1.8380	92.6020
 1.8370	92.6240
 1.8360	92.5933
 1.8350	92.5984
 1.8340	92.6275
 1.8330	92.6361
 1.8320	92.6707
 1.8310	92.6583
 1.8300	92.6364
 1.8290	92.5674
 1.8280	92.5939
 1.8270	92.6168
 1.8260	92.6406
 1.8250	92.6038
 1.8240	92.6642
 1.8230	92.6751
 1.8220	92.6737
 1.8210	92.6624
 1.8200	92.6827
 1.8190	92.6753
 1.8180	92.6254
 1.8170	92.6141
 1.8160	92.6517
 1.8150	92.6731
 1.8140	92.6421
 1.8130	92.6546
 1.8120	92.7000
 1.8110	92.7307
 1.8100	92.7191
 1.8090	92.6858
 1.8080	92.7014
 1.8070	92.6867
 1.8060	92.7124
 1.8050	92.7154
 1.8040	92.7400
 1.8030	92.7587
 1.8020	92.7316
 1.8010	92.7762
 1.8000	92.7985
 1.7990	92.8014
 1.7980	92.7859
 1.7970	92.7065
 1.7960	92.7312
 1.7950	92.7695
 1.7940	92.6823
 1.7930	92.6495
 1.7920	92.7101
 1.7910	92.7617
 1.7900	92.7339
 1.7890	92.7250
 1.7880	92.7443
 1.7870	92.6972
 1.7860	92.6410
 1.7850	92.6249
 1.7840	92.6250
 1.7830	92.6490
 1.7820	92.6648
 1.7810	92.6840
 1.7800	92.7498
 1.7790	92.7384
 1.7780	92.7168
 1.7770	92.6984
 1.7760	92.6704
 1.7750	92.6840
 1.7740	92.7340
 1.7730	92.7074
 1.7720	92.6665
 1.7710	92.6836
 1.7700	92.6762
 1.7690	92.6738
 1.7680	92.6903
 1.7670	92.6955
 1.7660	92.6503
 1.7650	92.6621
 1.7640	92.7352
 1.7630	92.6534
 1.7620	92.6079
 1.7610	92.6198
 1.7600	92.6611
 1.7590	92.6687
 1.7580	92.6754
 1.7570	92.6739
 1.7560	92.6264
 1.7550	92.6577
 1.7540	92.6609
 1.7530	92.6315
 1.7520	92.6814
 1.7510	92.7205
 1.7500	92.7758
 1.7490	92.7361
 1.7480	92.7553
 1.7470	92.7897
 1.7460	92.7981
 1.7450	92.7432
 1.7440	92.7424
 1.7430	92.8091
 1.7420	92.8398
 1.7410	92.8433
 1.7400	92.7762
 1.7390	92.7573
 1.7380	92.8256
 1.7370	92.7975
 1.7360	92.8271
 1.7350	92.8545
 1.7340	92.8567
 1.7330	92.8732
 1.7320	92.8289
 1.7310	92.9249
 1.7300	92.8682
 1.7290	92.8371
 1.7280	92.8541
 1.7270	92.8198
 1.7260	92.8912
 1.7250	92.9154
 1.7240	92.8691
 1.7230	92.8665
 1.7220	92.8822
 1.7210	92.9205
 1.7200	92.9147
 1.7190	92.9386
 1.7180	92.8751
 1.7170	92.8787
 1.7160	92.9267
 1.7150	92.9189
 1.7140	92.8968
 1.7130	92.8772
 1.7120	92.8938
 1.7110	92.8171
 1.7100	92.8593
 1.7090	92.8644
 1.7080	92.9127
 1.7070	92.8807
 1.7060	92.8667
 1.7050	92.8680
 1.7040	92.8592
 1.7030	92.8628
 1.7020	92.8627
 1.7010	92.8931
 1.7000	92.9067
 1.6990	92.9365
 1.6980	92.9327
 1.6970	92.9248
 1.6960	92.8925
 1.6950	92.9382
 1.6940	92.9631
 1.6930	92.8248
 1.6920	92.8173
 1.6910	92.8835
 1.6900	92.8853
 1.6890	92.8349
 1.6880	92.7981
 1.6870	92.8569
 1.6860	92.9198
 1.6850	92.8758
 1.6840	92.9238
 1.6830	92.8842
 1.6820	92.8748
 1.6810	92.8842
 1.6800	92.8273
 1.6790	92.8225
 1.6780	92.8189
 1.6770	92.8082
 1.6760	92.9782
 1.6750	92.9323
 1.6740	92.8948
 1.6730	92.8293
 1.6720	92.8649
 1.6710	92.9155
 1.6700	92.8096
 1.6690	92.9041
 1.6680	92.9276
 1.6670	92.9534
 1.6660	92.9233
 1.6650	92.7889
 1.6640	92.8868
 1.6630	92.9389
 1.6620	92.8433
 1.6610	92.8503
 1.6600	92.9445
 1.6590	92.8377
 1.6580	92.9177
 1.6570	92.8597
 1.6560	92.8523
 1.6550	92.8049
 1.6540	92.8744
 1.6530	92.8792
 1.6520	92.9719
 1.6510	92.9153
 1.6500	92.9001
 1.6490	92.9513
 1.6480	92.8387
 1.6470	92.9062
 1.6460	92.9297
 1.6450	92.8811
 1.6440	92.9423
 1.6430	92.9437
 1.6420	93.0114
 1.6410	92.7681
 1.6400	92.9662
 1.6390	92.9099
 1.6380	92.9276
 1.6370	93.0005
 1.6360	92.8987
 1.6350	92.8619
 1.6340	92.9891
 1.6330	92.8929
 1.6320	92.9062
 1.6310	92.9193
 1.6300	92.8528
 1.6290	92.7862
 1.6280	92.9811
 1.6270	92.8653
 1.6260	92.9736
 1.6250	92.9247
 1.6240	92.9516
 1.6230	92.9016
 1.6220	93.0042
 1.6210	92.9041
 1.6200	92.8966
 1.6190	92.9814
 1.6180	92.8825
 1.6170	92.9708
 1.6160	92.9695
 1.6150	92.9370
 1.6140	92.8933
 1.6130	92.8909
 1.6120	92.9621
 1.6110	92.9444
 1.6100	92.9404
 1.6090	92.9426
 1.6080	92.9823
 1.6070	92.9933
 1.6060	93.0156
 1.6050	92.9817
 1.6040	92.9541
 1.6030	92.9006
 1.6020	92.9566
 1.6010	93.0284
 1.6000	92.9904
 1.5990	92.8422
 1.5980	92.8865
 1.5970	92.9044
 1.5960	92.9546
 1.5950	92.9374
 1.5940	92.9250
 1.5930	92.9098
 1.5920	92.8949
 1.5910	92.9203
 1.5900	92.9350
 1.5890	92.9070
 1.5880	92.9028
 1.5870	92.9461
 1.5860	92.9290
 1.5850	92.9601
 1.5840	92.8912
 1.5830	92.9467
 1.5820	92.9852
 1.5810	92.9245
 1.5800	92.9256
 1.5790	92.8768
 1.5780	92.8560
 1.5770	92.8942
 1.5760	92.9731
 1.5750	92.8745
 1.5740	92.8852
 1.5730	92.9232
 1.5720	92.9985
 1.5710	92.9453
 1.5700	92.8554
 1.5690	92.8988
 1.5680	92.8862
 1.5670	92.8608
 1.5660	92.8369
 1.5650	92.8899
 1.5640	92.9001
 1.5630	92.8701
 1.5620	92.8632
 1.5610	92.8607
 1.5600	92.8113
 1.5590	92.8255
 1.5580	92.8334
 1.5570	92.8261
 1.5560	92.8621
 1.5550	92.8939
 1.5540	92.7908
 1.5530	92.8094
 1.5520	92.8896
 1.5510	92.8712
 1.5500	92.7915
 1.5490	92.7577
 1.5480	92.7814
 1.5470	92.8312
 1.5460	92.9138
 1.5450	92.8146
 1.5440	92.7559
 1.5430	92.7445
 1.5420	92.7394
 1.5410	92.8051
 1.5400	92.7784
 1.5390	92.7722
 1.5380	92.7481
 1.5370	92.7469
 1.5360	92.7595
 1.5350	92.7402
 1.5340	92.7206
 1.5330	92.7163
 1.5320	92.7209
 1.5310	92.7135
 1.5300	92.6877
 1.5290	92.7165
 1.5280	92.6709
 1.5270	92.7101
 1.5260	92.7408
 1.5250	92.6770
 1.5240	92.6917
 1.5230	92.6869
 1.5220	92.6324
 1.5210	92.6227
 1.5200	92.6938
 1.5190	92.6958
 1.5180	92.6776
 1.5170	92.7187
 1.5160	92.7099
 1.5150	92.6604
 1.5140	92.6736
 1.5130	92.6288
 1.5120	92.6155
 1.5110	92.6381
 1.5100	92.6297
 1.5090	92.6088
 1.5080	92.6253
 1.5070	92.6287
 1.5060	92.6049
 1.5050	92.6163
 1.5040	92.5439
 1.5030	92.4721
 1.5020	92.5149
 1.5010	92.5239
 1.5000	92.4772
 1.4990	92.4907
 1.4980	92.5036
 1.4970	92.5195
 1.4960	92.5527
 1.4950	92.5636
 1.4940	92.5020
 1.4930	92.5221
 1.4920	92.5100
 1.4910	92.4786
 1.4900	92.4549
 1.4890	92.4287
 1.4880	92.4806
 1.4870	92.4694
 1.4860	92.5182
 1.4850	92.4612
 1.4840	92.3668
 1.4830	92.3961
 1.4820	92.3986
 1.4810	92.4104
 1.4800	92.3491
 1.4790	92.3549
 1.4780	92.4241
 1.4770	92.4334
 1.4760	92.3746
 1.4750	92.3459
 1.4740	92.3103
 1.4730	92.2587
 1.4720	92.2351
 1.4710	92.2641
 1.4700	92.2562
 1.4690	92.2327
 1.4680	92.2516
 1.4670	92.2076
 1.4660	92.1901
 1.4650	92.1865
 1.4640	92.1866
 1.4630	92.1498
 1.4620	92.1092
 1.4610	92.0060
 1.4600	92.0393
 1.4590	91.9725
 1.4580	92.0438
 1.4570	92.0182
 1.4560	91.9347
 1.4550	91.9606
 1.4540	92.0416
 1.4530	92.0314
 1.4520	92.0800
 1.4510	92.1024
 1.4500	92.0790
 1.4490	92.1080
 1.4480	92.2396
 1.4470	92.2822
 1.4460	92.1925
 1.4450	92.1678
 1.4440	92.2178
 1.4430	92.2671
 1.4420	92.2732
 1.4410	92.3048
 1.4400	92.2017
 1.4390	92.2261
 1.4380	92.2708
 1.4370	92.2422
 1.4360	92.2902
 1.4350	92.2033
 1.4340	92.2265
 1.4330	92.2314
 1.4320	92.2759
 1.4310	92.2063
 1.4300	92.1291
 1.4290	92.2025
 1.4280	92.2826
 1.4270	92.2592
 1.4260	92.2572
 1.4250	92.3046
 1.4240	92.3945
 1.4230	92.3107
 1.4220	92.3654
 1.4210	92.3615
 1.4200	92.3816
 1.4190	92.3771
 1.4180	92.4116
 1.4170	92.4627
 1.4160	92.4024
 1.4150	92.4793
 1.4140	92.5156
 1.4130	92.5047
 1.4120	92.4729
 1.4110	92.5693
 1.4100	92.5258
 1.4090	92.5294
 1.4080	92.5706
 1.4070	92.5261
 1.4060	92.5950
 1.4050	92.5258
 1.4040	92.5859
 1.4030	92.6095
 1.4020	92.6068
 1.4010	92.6388
 1.4000	92.5923
 1.3990	92.6376
 1.3980	92.7311
 1.3970	92.6962
 1.3960	92.7990
 1.3950	92.7480
 1.3940	92.7993
 1.3930	92.8276
 1.3920	92.7713
 1.3910	92.8720
 1.3900	92.7137
 1.3890	92.8193
 1.3880	92.7973
 1.3870	92.8429
 1.3860	92.8270
 1.3850	92.8711
 1.3840	92.7757
 1.3830	92.8476
 1.3820	92.8035
 1.3810	92.9028
 1.3800	92.8989
 1.3790	92.7726
 1.3780	92.7225
 1.3770	92.8657
 1.3760	92.8836
 1.3750	92.8517
 1.3740	92.8515
 1.3730	92.9185
 1.3720	92.8683
 1.3710	92.9228
 1.3700	92.8900
 1.3690	92.8505
 1.3680	92.9376
 1.3670	92.9023
 1.3660	92.9060
 1.3650	92.9525
 1.3640	92.9017
