Name: Albite (Feldspar) (K,Na)AlSi_3O_8
Type: Mineral
Class: Silicate
Subclass: Tectosilicate
Particle Size: Fine
Sample No.: TS-6A
Owner: JPL
Wavelength Range: VSWIR
Origin: Unknown.
Collection Date: N/A
Description: Particle size was 0-45um.Collected by:  JPL Original ASTER Spectral Library name was jpl.perkin.mineral.silicate.tectosilicate.fine.ts06a.spectrum.txt
Measurement: Hemispherical reflectance
First Column: X
Second Column: Y
X Units: Wavelength (micrometers)
Y Units:Reflectance (percent)
First X Value:  2.5000
Last X Value:  0.4000
Number of X Values: 2101
Additional Information: mineral.silicate.tectosilicate.fine.vswir.ts-6a.jpl.perkin.ancillary.txt

 2.5000	72.9487
 2.4990	73.1798
 2.4980	72.9008
 2.4970	73.1443
 2.4960	72.9686
 2.4950	73.2294
 2.4940	73.0873
 2.4930	73.0857
 2.4920	72.9626
 2.4910	73.1467
 2.4900	72.9543
 2.4890	73.1896
 2.4880	73.1259
 2.4870	73.0376
 2.4860	73.1476
 2.4850	73.2953
 2.4840	73.3079
 2.4830	72.9829
 2.4820	73.0645
 2.4810	73.0634
 2.4800	73.3179
 2.4790	73.2427
 2.4780	73.1490
 2.4770	73.2526
 2.4760	73.1749
 2.4750	73.4230
 2.4740	73.2169
 2.4730	73.2946
 2.4720	73.3011
 2.4710	73.3240
 2.4700	73.2583
 2.4690	73.3668
 2.4680	73.3293
 2.4670	73.3697
 2.4660	73.4474
 2.4650	73.3899
 2.4640	73.3616
 2.4630	73.5447
 2.4620	73.4387
 2.4610	73.5058
 2.4600	73.3958
 2.4590	73.4895
 2.4580	73.4931
 2.4570	73.4313
 2.4560	73.5176
 2.4550	73.5668
 2.4540	73.5790
 2.4530	73.5881
 2.4520	73.5520
 2.4510	73.5156
 2.4500	73.5450
 2.4490	73.5515
 2.4480	73.5483
 2.4470	73.5743
 2.4460	73.4686
 2.4450	73.6301
 2.4440	73.5475
 2.4430	73.5474
 2.4420	73.5872
 2.4410	73.6313
 2.4400	73.6513
 2.4390	73.6132
 2.4380	73.5844
 2.4370	73.6000
 2.4360	73.5731
 2.4350	73.7503
 2.4340	73.7031
 2.4330	73.7847
 2.4320	73.6600
 2.4310	73.6905
 2.4300	73.8087
 2.4290	73.8212
 2.4280	73.8210
 2.4270	73.7972
 2.4260	73.8528
 2.4250	73.9573
 2.4240	73.9671
 2.4230	73.9545
 2.4220	73.9441
 2.4210	73.9990
 2.4200	74.0110
 2.4190	74.0595
 2.4180	74.1205
 2.4170	74.0752
 2.4160	74.1984
 2.4150	74.2180
 2.4140	74.1853
 2.4130	74.1607
 2.4120	74.1728
 2.4110	74.2958
 2.4100	74.3619
 2.4090	74.3283
 2.4080	74.4249
 2.4070	74.5165
 2.4060	74.4637
 2.4050	74.4344
 2.4040	74.4511
 2.4030	74.4572
 2.4020	74.4220
 2.4010	74.5061
 2.4000	74.5359
 2.3990	74.5604
 2.3980	74.5617
 2.3970	74.5846
 2.3960	74.6418
 2.3950	74.7165
 2.3940	74.6924
 2.3930	74.7328
 2.3920	74.7529
 2.3910	74.7795
 2.3900	74.7640
 2.3890	74.8443
 2.3880	74.8309
 2.3870	74.8456
 2.3860	74.8982
 2.3850	74.8995
 2.3840	74.9142
 2.3830	74.9030
 2.3820	74.9775
 2.3810	74.9912
 2.3800	74.9558
 2.3790	74.9757
 2.3780	74.9912
 2.3770	75.0162
 2.3760	75.0641
 2.3750	75.0824
 2.3740	75.0948
 2.3730	75.0682
 2.3720	75.0685
 2.3710	75.1480
 2.3700	75.1650
 2.3690	75.1026
 2.3680	75.1525
 2.3670	75.1766
 2.3660	75.1796
 2.3650	75.2328
 2.3640	75.2655
 2.3630	75.2641
 2.3620	75.2322
 2.3610	75.2589
 2.3600	75.3072
 2.3590	75.2615
 2.3580	75.2720
 2.3570	75.3201
 2.3560	75.2369
 2.3550	75.2428
 2.3540	75.2625
 2.3530	75.2485
 2.3520	75.2772
 2.3510	75.2791
 2.3500	75.2365
 2.3490	75.2472
 2.3480	75.2673
 2.3470	75.2371
 2.3460	75.2699
 2.3450	75.2317
 2.3440	75.2380
 2.3430	75.2530
 2.3420	75.2269
 2.3410	75.2498
 2.3400	75.2554
 2.3390	75.2161
 2.3380	75.2473
 2.3370	75.2963
 2.3360	75.3456
 2.3350	75.3396
 2.3340	75.3294
 2.3330	75.3277
 2.3320	75.3563
 2.3310	75.3386
 2.3300	75.2964
 2.3290	75.3030
 2.3280	75.3916
 2.3270	75.4400
 2.3260	75.4766
 2.3250	75.4289
 2.3240	75.4283
 2.3230	75.4246
 2.3220	75.4779
 2.3210	75.5262
 2.3200	75.5193
 2.3190	75.5258
 2.3180	75.5344
 2.3170	75.6001
 2.3160	75.6687
 2.3150	75.6406
 2.3140	75.5972
 2.3130	75.6174
 2.3120	75.6468
 2.3110	75.6404
 2.3100	75.7011
 2.3090	75.6798
 2.3080	75.6420
 2.3070	75.7074
 2.3060	75.7731
 2.3050	75.8291
 2.3040	75.7772
 2.3030	75.7977
 2.3020	75.8171
 2.3010	75.8594
 2.3000	75.8532
 2.2990	75.8342
 2.2980	75.8703
 2.2970	75.9163
 2.2960	75.9328
 2.2950	75.8925
 2.2940	75.9020
 2.2930	75.9063
 2.2920	75.9464
 2.2910	75.9616
 2.2900	75.9659
 2.2890	75.9624
 2.2880	75.9879
 2.2870	75.9794
 2.2860	76.0354
 2.2850	75.9721
 2.2840	75.9456
 2.2830	76.0357
 2.2820	76.0284
 2.2810	76.0403
 2.2800	76.0148
 2.2790	76.0423
 2.2780	76.0074
 2.2770	76.0424
 2.2760	76.1058
 2.2750	76.0364
 2.2740	76.0322
 2.2730	75.9894
 2.2720	76.0226
 2.2710	76.0085
 2.2700	76.0347
 2.2690	76.0479
 2.2680	76.0325
 2.2670	76.0028
 2.2660	76.0195
 2.2650	75.9541
 2.2640	76.0133
 2.2630	75.9794
 2.2620	76.0102
 2.2610	75.9776
 2.2600	75.9392
 2.2590	75.9947
 2.2580	76.0029
 2.2570	76.0237
 2.2560	75.9834
 2.2550	75.9612
 2.2540	75.9851
 2.2530	75.9844
 2.2520	76.0061
 2.2510	75.9401
 2.2500	75.9573
 2.2490	75.9398
 2.2480	75.9999
 2.2470	75.9676
 2.2460	76.0393
 2.2450	76.0133
 2.2440	75.9497
 2.2430	75.9323
 2.2420	75.9781
 2.2410	75.9880
 2.2400	75.9751
 2.2390	75.9427
 2.2380	75.9952
 2.2370	75.9718
 2.2360	76.0153
 2.2350	75.9713
 2.2340	76.0421
 2.2330	75.9949
 2.2320	75.9789
 2.2310	76.0090
 2.2300	76.0347
 2.2290	75.9696
 2.2280	76.0022
 2.2270	75.9724
 2.2260	76.0232
 2.2250	75.9796
 2.2240	75.9436
 2.2230	75.8783
 2.2220	75.9697
 2.2210	75.8765
 2.2200	75.9491
 2.2190	75.8338
 2.2180	75.8458
 2.2170	75.8744
 2.2160	75.8559
 2.2150	75.7856
 2.2140	75.7485
 2.2130	75.6961
 2.2120	75.7314
 2.2110	75.6400
 2.2100	75.7416
 2.2090	75.6875
 2.2080	75.5449
 2.2070	75.6252
 2.2060	75.5543
 2.2050	75.5596
 2.2040	75.5093
 2.2030	75.5497
 2.2020	75.5450
 2.2010	75.5048
 2.2000	75.5562
 2.1990	75.6110
 2.1980	75.4844
 2.1970	75.5415
 2.1960	75.5090
 2.1950	75.5066
 2.1940	75.5548
 2.1930	75.5619
 2.1920	75.6902
 2.1910	75.6861
 2.1900	75.7272
 2.1890	75.8293
 2.1880	75.9296
 2.1870	75.9239
 2.1860	76.0006
 2.1850	76.0444
 2.1840	76.1415
 2.1830	76.1571
 2.1820	76.3005
 2.1810	76.2926
 2.1800	76.3996
 2.1790	76.4036
 2.1780	76.5198
 2.1770	76.6605
 2.1760	76.7076
 2.1750	76.7731
 2.1740	76.8577
 2.1730	76.8840
 2.1720	76.9819
 2.1710	77.0626
 2.1700	77.0704
 2.1690	77.0581
 2.1680	77.1500
 2.1670	77.2143
 2.1660	77.3207
 2.1650	77.2992
 2.1640	77.3669
 2.1630	77.4191
 2.1620	77.5330
 2.1610	77.5211
 2.1600	77.5556
 2.1590	77.6068
 2.1580	77.6256
 2.1570	77.6794
 2.1560	77.7295
 2.1550	77.7743
 2.1540	77.7709
 2.1530	77.7221
 2.1520	77.7888
 2.1510	77.8270
 2.1500	77.8320
 2.1490	77.8580
 2.1480	77.8234
 2.1470	77.8990
 2.1460	77.9426
 2.1450	77.9326
 2.1440	77.9286
 2.1430	77.9061
 2.1420	77.9259
 2.1410	77.9104
 2.1400	77.9849
 2.1390	77.9349
 2.1380	77.9296
 2.1370	77.9201
 2.1360	77.8733
 2.1350	77.7929
 2.1340	77.8151
 2.1330	77.7998
 2.1320	77.8802
 2.1310	77.8465
 2.1300	77.7696
 2.1290	77.7802
 2.1280	77.7118
 2.1270	77.6739
 2.1260	77.6810
 2.1250	77.6574
 2.1240	77.6425
 2.1230	77.5460
 2.1220	77.5144
 2.1210	77.4731
 2.1200	77.4142
 2.1190	77.3680
 2.1180	77.3814
 2.1170	77.3832
 2.1160	77.3298
 2.1150	77.2340
 2.1140	77.2002
 2.1130	77.1960
 2.1120	77.1258
 2.1110	77.0464
 2.1100	76.9986
 2.1090	77.0194
 2.1080	76.9703
 2.1070	76.9368
 2.1060	76.9197
 2.1050	76.9129
 2.1040	76.8668
 2.1030	76.8307
 2.1020	76.8193
 2.1010	76.7248
 2.1000	76.6992
 2.0990	76.6897
 2.0980	76.7125
 2.0970	76.7623
 2.0960	76.7487
 2.0950	76.7034
 2.0940	76.7369
 2.0930	76.7689
 2.0920	76.7606
 2.0910	76.8073
 2.0900	76.8539
 2.0890	76.9023
 2.0880	76.8915
 2.0870	76.8774
 2.0860	76.8820
 2.0850	76.8761
 2.0840	76.8839
 2.0830	76.8931
 2.0820	76.8649
 2.0810	76.8867
 2.0800	76.9242
 2.0790	76.9096
 2.0780	76.9509
 2.0770	76.9775
 2.0760	76.9613
 2.0750	76.9911
 2.0740	77.0217
 2.0730	77.0001
 2.0720	77.0205
 2.0710	77.0901
 2.0700	77.0898
 2.0690	77.0949
 2.0680	77.0996
 2.0670	77.0885
 2.0660	77.1062
 2.0650	77.1434
 2.0640	77.1893
 2.0630	77.1332
 2.0620	77.1530
 2.0610	77.2135
 2.0600	77.1584
 2.0590	77.1473
 2.0580	77.1439
 2.0570	77.1688
 2.0560	77.2067
 2.0550	77.2331
 2.0540	77.2290
 2.0530	77.2286
 2.0520	77.2360
 2.0510	77.2395
 2.0500	77.2257
 2.0490	77.2355
 2.0480	77.2296
 2.0470	77.2822
 2.0460	77.3026
 2.0450	77.3352
 2.0440	77.2276
 2.0430	77.2222
 2.0420	77.2335
 2.0410	77.2565
 2.0400	77.3114
 2.0390	77.3509
 2.0380	77.3174
 2.0370	77.3358
 2.0360	77.2973
 2.0350	77.2664
 2.0340	77.2791
 2.0330	77.3153
 2.0320	77.2906
 2.0310	77.2806
 2.0300	77.2859
 2.0290	77.3021
 2.0280	77.2453
 2.0270	77.2987
 2.0260	77.3448
 2.0250	77.3452
 2.0240	77.2331
 2.0230	77.2379
 2.0220	77.3219
 2.0210	77.2641
 2.0200	77.1609
 2.0190	77.2516
 2.0180	77.2979
 2.0170	77.3050
 2.0160	77.1806
 2.0150	77.1865
 2.0140	77.2282
 2.0130	77.2382
 2.0120	77.2188
 2.0110	77.2388
 2.0100	77.2015
 2.0090	77.1512
 2.0080	77.2061
 2.0070	77.1828
 2.0060	77.1786
 2.0050	77.2013
 2.0040	77.1889
 2.0030	77.1823
 2.0020	77.1904
 2.0010	77.1801
 2.0000	77.1629
 1.9990	77.0819
 1.9980	77.1058
 1.9970	77.1061
 1.9960	77.0901
 1.9950	77.1039
 1.9940	77.0180
 1.9930	77.0371
 1.9920	77.0235
 1.9910	77.0639
 1.9900	77.0058
 1.9890	77.0039
 1.9880	76.9883
 1.9870	76.8930
 1.9860	76.9013
 1.9850	76.8675
 1.9840	76.8761
 1.9830	76.8525
 1.9820	76.8742
 1.9810	76.8791
 1.9800	76.7799
 1.9790	76.8166
 1.9780	76.8414
 1.9770	76.7796
 1.9760	76.7065
 1.9750	76.6907
 1.9740	76.7363
 1.9730	76.7933
 1.9720	76.7042
 1.9710	76.7059
 1.9700	76.6576
 1.9690	76.7283
 1.9680	76.6476
 1.9670	76.6434
 1.9660	76.6371
 1.9650	76.6134
 1.9640	76.6571
 1.9630	76.6330
 1.9620	76.6398
 1.9610	76.5804
 1.9600	76.5218
 1.9590	76.6772
 1.9580	76.4800
 1.9570	76.6095
 1.9560	76.6170
 1.9550	76.5825
 1.9540	76.5189
 1.9530	76.5425
 1.9520	76.4846
 1.9510	76.4592
 1.9500	76.4984
 1.9490	76.4718
 1.9480	76.4850
 1.9470	76.5014
 1.9460	76.5153
 1.9450	76.5125
 1.9440	76.4413
 1.9430	76.4823
 1.9420	76.4832
 1.9410	76.4745
 1.9400	76.4478
 1.9390	76.5120
 1.9380	76.4334
 1.9370	76.4790
 1.9360	76.4698
 1.9350	76.3778
 1.9340	76.3601
 1.9330	76.3787
 1.9320	76.3873
 1.9310	76.4129
 1.9300	76.4331
 1.9290	76.3720
 1.9280	76.3991
 1.9270	76.4771
 1.9260	76.3701
 1.9250	76.4376
 1.9240	76.3677
 1.9230	76.3560
 1.9220	76.4062
 1.9210	76.3722
 1.9200	76.3198
 1.9190	76.4382
 1.9180	76.3670
 1.9170	76.3677
 1.9160	76.3959
 1.9150	76.3898
 1.9140	76.3114
 1.9130	76.4021
 1.9120	76.4235
 1.9110	76.4533
 1.9100	76.4843
 1.9090	76.4512
 1.9080	76.4525
 1.9070	76.5425
 1.9060	76.5430
 1.9050	76.5593
 1.9040	76.5972
 1.9030	76.6423
 1.9020	76.6871
 1.9010	76.7719
 1.9000	76.7875
 1.8990	76.8697
 1.8980	76.9341
 1.8970	77.0634
 1.8960	77.0170
 1.8950	77.0890
 1.8940	77.1099
 1.8930	77.2900
 1.8920	77.2841
 1.8910	77.3237
 1.8900	77.3522
 1.8890	77.4642
 1.8880	77.4412
 1.8870	77.4777
 1.8860	77.4777
 1.8850	77.5335
 1.8840	77.4625
 1.8830	77.5696
 1.8820	77.5993
 1.8810	77.6747
 1.8800	77.6213
 1.8790	77.6911
 1.8780	77.6919
 1.8770	77.6601
 1.8760	77.7246
 1.8750	77.7410
 1.8740	77.6710
 1.8730	77.7699
 1.8720	77.7718
 1.8710	77.7752
 1.8700	77.8453
 1.8690	77.8482
 1.8680	77.8272
 1.8670	77.8249
 1.8660	77.8677
 1.8650	77.8918
 1.8640	77.8238
 1.8630	77.8487
 1.8620	77.9310
 1.8610	77.8680
 1.8600	77.8448
 1.8590	77.8372
 1.8580	77.8894
 1.8570	77.9344
 1.8560	77.9557
 1.8550	77.8922
 1.8540	77.8599
 1.8530	77.8841
 1.8520	77.9059
 1.8510	77.8577
 1.8500	77.9222
 1.8490	77.9939
 1.8480	77.9528
 1.8470	77.9320
 1.8460	77.8998
 1.8450	77.9501
 1.8440	77.9055
 1.8430	77.8764
 1.8420	77.8579
 1.8410	77.8960
 1.8400	77.9021
 1.8390	77.8970
 1.8380	77.9326
 1.8370	77.9393
 1.8360	77.9713
 1.8350	77.9568
 1.8340	77.9363
 1.8330	77.9558
 1.8320	77.9631
 1.8310	77.9463
 1.8300	77.9484
 1.8290	77.9371
 1.8280	77.9448
 1.8270	77.9510
 1.8260	77.8905
 1.8250	77.9191
 1.8240	77.9416
 1.8230	77.9339
 1.8220	77.9218
 1.8210	77.9174
 1.8200	77.9322
 1.8190	77.9583
 1.8180	77.9929
 1.8170	77.9706
 1.8160	77.9281
 1.8150	77.9402
 1.8140	77.9562
 1.8130	78.0046
 1.8120	77.9765
 1.8110	77.9932
 1.8100	77.9434
 1.8090	77.9235
 1.8080	77.9496
 1.8070	77.9618
 1.8060	77.9794
 1.8050	77.9614
 1.8040	77.9827
 1.8030	77.9788
 1.8020	77.9643
 1.8010	77.9607
 1.8000	77.9694
 1.7990	77.9486
 1.7980	77.9492
 1.7970	77.9732
 1.7960	77.9528
 1.7950	77.9717
 1.7940	77.9876
 1.7930	77.9829
 1.7920	77.9383
 1.7910	77.9287
 1.7900	77.9663
 1.7890	77.9642
 1.7880	77.9336
 1.7870	77.9212
 1.7860	77.9158
 1.7850	77.9395
 1.7840	77.9355
 1.7830	77.9103
 1.7820	77.9233
 1.7810	77.9428
 1.7800	77.9228
 1.7790	77.8847
 1.7780	77.9001
 1.7770	77.9000
 1.7760	77.8513
 1.7750	77.8419
 1.7740	77.9454
 1.7730	77.9668
 1.7720	77.8968
 1.7710	77.8888
 1.7700	77.9226
 1.7690	77.9530
 1.7680	77.9333
 1.7670	77.8968
 1.7660	77.9084
 1.7650	77.9060
 1.7640	77.9077
 1.7630	77.8758
 1.7620	77.8424
 1.7610	77.8727
 1.7600	77.8688
 1.7590	77.8183
 1.7580	77.8703
 1.7570	77.8944
 1.7560	77.9058
 1.7550	77.8445
 1.7540	77.8261
 1.7530	77.8878
 1.7520	77.9044
 1.7510	77.9063
 1.7500	77.9259
 1.7490	77.8924
 1.7480	77.8656
 1.7470	77.9166
 1.7460	77.9544
 1.7450	77.9401
 1.7440	77.9341
 1.7430	77.9273
 1.7420	77.9570
 1.7410	77.9735
 1.7400	77.9450
 1.7390	77.9608
 1.7380	77.9299
 1.7370	77.9591
 1.7360	77.9724
 1.7350	77.9572
 1.7340	77.9501
 1.7330	77.9559
 1.7320	77.9891
 1.7310	77.9278
 1.7300	77.9566
 1.7290	77.9782
 1.7280	77.9647
 1.7270	77.9514
 1.7260	77.9637
 1.7250	77.9576
 1.7240	77.9720
 1.7230	77.9889
 1.7220	78.0065
 1.7210	77.9858
 1.7200	77.9913
 1.7190	77.9956
 1.7180	77.9670
 1.7170	77.9228
 1.7160	77.9015
 1.7150	77.9739
 1.7140	77.9654
 1.7130	77.9533
 1.7120	77.9615
 1.7110	77.9018
 1.7100	77.9002
 1.7090	77.9294
 1.7080	77.9857
 1.7070	77.8922
 1.7060	77.9309
 1.7050	78.0053
 1.7040	77.9500
 1.7030	77.9596
 1.7020	77.9255
 1.7010	77.8465
 1.7000	77.8557
 1.6990	77.8681
 1.6980	77.9053
 1.6970	77.8735
 1.6960	77.9514
 1.6950	77.8886
 1.6940	77.9071
 1.6930	77.8719
 1.6920	77.9764
 1.6910	77.8641
 1.6900	77.9308
 1.6890	77.9353
 1.6880	77.9140
 1.6870	77.9061
 1.6860	77.9136
 1.6850	77.8714
 1.6840	77.8690
 1.6830	77.8692
 1.6820	77.9135
 1.6810	77.8724
 1.6800	77.8947
 1.6790	77.8826
 1.6780	77.8342
 1.6770	77.8431
 1.6760	77.8918
 1.6750	77.8662
 1.6740	77.8458
 1.6730	77.7836
 1.6720	77.8305
 1.6710	77.8810
 1.6700	77.8694
 1.6690	77.8684
 1.6680	77.8037
 1.6670	77.8335
 1.6660	77.8314
 1.6650	77.7917
 1.6640	77.8943
 1.6630	77.8093
 1.6620	77.8087
 1.6610	77.8481
 1.6600	77.8218
 1.6590	77.8562
 1.6580	77.8683
 1.6570	77.8344
 1.6560	77.8331
 1.6550	77.8642
 1.6540	77.7688
 1.6530	77.8052
 1.6520	77.9100
 1.6510	77.7939
 1.6500	77.8147
 1.6490	77.8031
 1.6480	77.8942
 1.6470	77.7978
 1.6460	77.8968
 1.6450	77.8101
 1.6440	77.7840
 1.6430	77.8546
 1.6420	77.8006
 1.6410	77.7542
 1.6400	77.8404
 1.6390	77.9020
 1.6380	77.8767
 1.6370	77.8196
 1.6360	77.7780
 1.6350	77.9032
 1.6340	77.8403
 1.6330	77.7125
 1.6320	77.8333
 1.6310	77.8361
 1.6300	77.7774
 1.6290	77.7891
 1.6280	77.8904
 1.6270	77.8017
 1.6260	77.8245
 1.6250	77.8605
 1.6240	77.8194
 1.6230	77.7767
 1.6220	77.7809
 1.6210	77.7946
 1.6200	77.8425
 1.6190	77.7721
 1.6180	77.7373
 1.6170	77.7413
 1.6160	77.8997
 1.6150	77.8191
 1.6140	77.8630
 1.6130	77.7519
 1.6120	77.7813
 1.6110	77.6914
 1.6100	77.7777
 1.6090	77.8014
 1.6080	77.7326
 1.6070	77.7477
 1.6060	77.7716
 1.6050	77.7770
 1.6040	77.7841
 1.6030	77.7630
 1.6020	77.7684
 1.6010	77.8496
 1.6000	77.7946
 1.5990	77.7137
 1.5980	77.7558
 1.5970	77.6987
 1.5960	77.7440
 1.5950	77.6803
 1.5940	77.7246
 1.5930	77.7489
 1.5920	77.7643
 1.5910	77.7612
 1.5900	77.7364
 1.5890	77.7105
 1.5880	77.7162
 1.5870	77.7458
 1.5860	77.7170
 1.5850	77.6543
 1.5840	77.6741
 1.5830	77.6639
 1.5820	77.7297
 1.5810	77.7162
 1.5800	77.6819
 1.5790	77.6598
 1.5780	77.6891
 1.5770	77.6766
 1.5760	77.7077
 1.5750	77.6621
 1.5740	77.6938
 1.5730	77.6927
 1.5720	77.6271
 1.5710	77.6796
 1.5700	77.6357
 1.5690	77.6106
 1.5680	77.6936
 1.5670	77.6420
 1.5660	77.5332
 1.5650	77.5195
 1.5640	77.5666
 1.5630	77.5658
 1.5620	77.5831
 1.5610	77.5573
 1.5600	77.5795
 1.5590	77.5656
 1.5580	77.5434
 1.5570	77.5579
 1.5560	77.5379
 1.5550	77.4968
 1.5540	77.4844
 1.5530	77.5122
 1.5520	77.4963
 1.5510	77.4836
 1.5500	77.5260
 1.5490	77.5142
 1.5480	77.5585
 1.5470	77.5460
 1.5460	77.5249
 1.5450	77.5407
 1.5440	77.5022
 1.5430	77.4686
 1.5420	77.4621
 1.5410	77.5203
 1.5400	77.5171
 1.5390	77.4065
 1.5380	77.4275
 1.5370	77.4263
 1.5360	77.3846
 1.5350	77.4101
 1.5340	77.4301
 1.5330	77.4291
 1.5320	77.4538
 1.5310	77.3578
 1.5300	77.3806
 1.5290	77.4088
 1.5280	77.3709
 1.5270	77.3542
 1.5260	77.3675
 1.5250	77.3648
 1.5240	77.3521
 1.5230	77.3239
 1.5220	77.3364
 1.5210	77.3508
 1.5200	77.3414
 1.5190	77.3296
 1.5180	77.3230
 1.5170	77.2865
 1.5160	77.2751
 1.5150	77.2629
 1.5140	77.2625
 1.5130	77.2523
 1.5120	77.2246
 1.5110	77.2602
 1.5100	77.2305
 1.5090	77.2324
 1.5080	77.3101
 1.5070	77.2915
 1.5060	77.2561
 1.5050	77.2292
 1.5040	77.1935
 1.5030	77.1749
 1.5020	77.1615
 1.5010	77.1715
 1.5000	77.2133
 1.4990	77.1970
 1.4980	77.1228
 1.4970	77.1209
 1.4960	77.1339
 1.4950	77.1161
 1.4940	77.1544
 1.4930	77.1439
 1.4920	77.0822
 1.4910	77.0897
 1.4900	77.1016
 1.4890	77.1016
 1.4880	77.0674
 1.4870	77.0407
 1.4860	77.0352
 1.4850	77.1251
 1.4840	77.1075
 1.4830	77.0513
 1.4820	77.0710
 1.4810	77.0339
 1.4800	77.0048
 1.4790	77.0466
 1.4780	77.0160
 1.4770	77.0219
 1.4760	76.9926
 1.4750	77.0259
 1.4740	76.9458
 1.4730	76.9203
 1.4720	76.9739
 1.4710	76.9570
 1.4700	76.8955
 1.4690	76.9244
 1.4680	76.9612
 1.4670	76.9474
 1.4660	76.9059
 1.4650	76.8824
 1.4640	76.8672
 1.4630	76.8963
 1.4620	76.8747
 1.4610	76.9089
 1.4600	76.8493
 1.4590	76.8816
 1.4580	76.8669
 1.4570	76.8021
 1.4560	76.7934
 1.4550	76.8415
 1.4540	76.8262
 1.4530	76.7749
 1.4520	76.7855
 1.4510	76.8180
 1.4500	76.8218
 1.4490	76.8171
 1.4480	76.7558
 1.4470	76.7481
 1.4460	76.7071
 1.4450	76.6542
 1.4440	76.6566
 1.4430	76.6709
 1.4420	76.7154
 1.4410	76.7250
 1.4400	76.6727
 1.4390	76.6696
 1.4380	76.6295
 1.4370	76.5928
 1.4360	76.5897
 1.4350	76.6022
 1.4340	76.6227
 1.4330	76.5804
 1.4320	76.6198
 1.4310	76.6596
 1.4300	76.5264
 1.4290	76.5222
 1.4280	76.4147
 1.4270	76.4972
 1.4260	76.4362
 1.4250	76.4197
 1.4240	76.3597
 1.4230	76.3415
 1.4220	76.2056
 1.4210	76.2543
 1.4200	76.1507
 1.4190	76.1411
 1.4180	76.0613
 1.4170	76.0481
 1.4160	75.9596
 1.4150	75.8781
 1.4140	75.7746
 1.4130	75.7796
 1.4120	75.7373
 1.4110	75.7627
 1.4100	75.7062
 1.4090	75.7329
 1.4080	75.8192
 1.4070	75.8325
 1.4060	75.7533
 1.4050	75.8650
 1.4040	75.9083
 1.4030	75.9169
 1.4020	75.9311
 1.4010	75.9915
 1.4000	75.9909
 1.3990	76.1173
 1.3980	76.1591
 1.3970	76.3059
 1.3960	76.2714
 1.3950	76.3281
 1.3940	76.3606
 1.3930	76.3931
 1.3920	76.4458
 1.3910	76.4843
 1.3900	76.5457
 1.3890	76.5465
 1.3880	76.5128
 1.3870	76.6079
 1.3860	76.5334
 1.3850	76.5940
 1.3840	76.6269
 1.3830	76.5941
 1.3820	76.5367
 1.3810	76.6201
 1.3800	76.5971
 1.3790	76.6833
 1.3780	76.6233
 1.3770	76.6300
 1.3760	76.6144
 1.3750	76.5918
 1.3740	76.6409
 1.3730	76.5832
 1.3720	76.5017
 1.3710	76.5998
 1.3700	76.4913
 1.3690	76.4902
 1.3680	76.5446
 1.3670	76.5307
 1.3660	76.5364
