Name: Vesuvianite Ca_10(Mg,Fe^2+)_2Al_4(Si_2O_7)_2(SiO_4)_5(OH,F)_4
Type: Mineral
Class: Silicate
Subclass: Sorosilicate
Particle Size: Fine
Sample No.: SS-3A
Owner: JPL
Wavelength Range: VSWIR
Origin: USA, California, Riverside County, Crestmore Quarry.
Collection Date: N/A
Description: Particle size was 0-45um.Collected by:  Burminco Original ASTER Spectral Library name was jpl.perkin.mineral.silicate.sorosilicate.fine.ss03a.spectrum.txt
Measurement: Hemispherical reflectance
First Column: X
Second Column: Y
X Units: Wavelength (micrometers)
Y Units:Reflectance (percent)
First X Value:  2.5000
Last X Value:  0.4000
Number of X Values: 2101
Additional Information: mineral.silicate.sorosilicate.fine.vswir.ss-3a.jpl.perkin.ancillary.txt

 2.5000	58.8259
 2.4990	58.9234
 2.4980	58.9491
 2.4970	59.1038
 2.4960	58.8154
 2.4950	59.1558
 2.4940	58.9303
 2.4930	58.9845
 2.4920	59.1659
 2.4910	59.2170
 2.4900	59.0411
 2.4890	59.1840
 2.4880	59.1032
 2.4870	59.2852
 2.4860	59.1550
 2.4850	59.2549
 2.4840	59.2968
 2.4830	59.1910
 2.4820	59.2100
 2.4810	59.3930
 2.4800	59.4481
 2.4790	59.3400
 2.4780	59.4225
 2.4770	59.4379
 2.4760	59.3508
 2.4750	59.5156
 2.4740	59.3959
 2.4730	59.4815
 2.4720	59.3920
 2.4710	59.6043
 2.4700	59.5391
 2.4690	59.5883
 2.4680	59.5005
 2.4670	59.6014
 2.4660	59.6099
 2.4650	59.7959
 2.4640	59.7056
 2.4630	59.7373
 2.4620	59.7320
 2.4610	59.7887
 2.4600	59.6667
 2.4590	59.7586
 2.4580	59.6871
 2.4570	59.7979
 2.4560	59.8310
 2.4550	59.7235
 2.4540	59.6926
 2.4530	59.8558
 2.4520	59.7314
 2.4510	59.7862
 2.4500	59.7498
 2.4490	59.7453
 2.4480	59.8008
 2.4470	59.8479
 2.4460	59.7853
 2.4450	59.7200
 2.4440	59.7317
 2.4430	59.7928
 2.4420	59.7637
 2.4410	59.7765
 2.4400	59.6868
 2.4390	59.7179
 2.4380	59.7168
 2.4370	59.6627
 2.4360	59.6897
 2.4350	59.6692
 2.4340	59.6262
 2.4330	59.7021
 2.4320	59.7004
 2.4310	59.7727
 2.4300	59.7342
 2.4290	59.7330
 2.4280	59.7741
 2.4270	59.8286
 2.4260	59.8093
 2.4250	59.7864
 2.4240	59.7450
 2.4230	59.8415
 2.4220	59.8467
 2.4210	59.8492
 2.4200	59.9327
 2.4190	59.9554
 2.4180	59.9143
 2.4170	59.9970
 2.4160	59.9066
 2.4150	59.9254
 2.4140	60.0418
 2.4130	60.0924
 2.4120	60.0165
 2.4110	59.9973
 2.4100	60.0778
 2.4090	60.1589
 2.4080	60.0991
 2.4070	60.1108
 2.4060	60.1114
 2.4050	60.1710
 2.4040	60.1418
 2.4030	60.1749
 2.4020	60.1551
 2.4010	60.2117
 2.4000	60.1939
 2.3990	60.2143
 2.3980	60.2560
 2.3970	60.3312
 2.3960	60.3292
 2.3950	60.3909
 2.3940	60.3637
 2.3930	60.4272
 2.3920	60.4709
 2.3910	60.6001
 2.3900	60.5918
 2.3890	60.6166
 2.3880	60.6047
 2.3870	60.6435
 2.3860	60.6173
 2.3850	60.6871
 2.3840	60.6884
 2.3830	60.6274
 2.3820	60.6777
 2.3810	60.7343
 2.3800	60.6767
 2.3790	60.6909
 2.3780	60.7146
 2.3770	60.6947
 2.3760	60.6052
 2.3750	60.5900
 2.3740	60.6168
 2.3730	60.6023
 2.3720	60.5341
 2.3710	60.4633
 2.3700	60.4348
 2.3690	60.4329
 2.3680	60.3933
 2.3670	60.3468
 2.3660	60.2643
 2.3650	60.1911
 2.3640	60.1251
 2.3630	60.1076
 2.3620	60.0516
 2.3610	60.0341
 2.3600	59.9652
 2.3590	59.7867
 2.3580	59.7604
 2.3570	59.7358
 2.3560	59.6331
 2.3550	59.6045
 2.3540	59.6114
 2.3530	59.6006
 2.3520	59.5648
 2.3510	59.5172
 2.3500	59.5482
 2.3490	59.6161
 2.3480	59.6112
 2.3470	59.6722
 2.3460	59.7353
 2.3450	59.7425
 2.3440	59.8219
 2.3430	59.8927
 2.3420	59.9702
 2.3410	60.0397
 2.3400	60.1352
 2.3390	60.2136
 2.3380	60.3382
 2.3370	60.4622
 2.3360	60.6401
 2.3350	60.7183
 2.3340	60.7654
 2.3330	60.8831
 2.3320	61.0550
 2.3310	61.1817
 2.3300	61.2936
 2.3290	61.3666
 2.3280	61.4592
 2.3270	61.5789
 2.3260	61.7084
 2.3250	61.8024
 2.3240	61.9216
 2.3230	61.9819
 2.3220	62.0442
 2.3210	62.0827
 2.3200	62.2005
 2.3190	62.2194
 2.3180	62.2655
 2.3170	62.2910
 2.3160	62.3114
 2.3150	62.3885
 2.3140	62.4357
 2.3130	62.5001
 2.3120	62.5028
 2.3110	62.4788
 2.3100	62.5576
 2.3090	62.6118
 2.3080	62.6513
 2.3070	62.6919
 2.3060	62.7686
 2.3050	62.7883
 2.3040	62.8673
 2.3030	62.9167
 2.3020	63.0341
 2.3010	63.1128
 2.3000	63.2572
 2.2990	63.3243
 2.2980	63.4932
 2.2970	63.5432
 2.2960	63.6422
 2.2950	63.7680
 2.2940	63.9338
 2.2930	64.0509
 2.2920	64.1141
 2.2910	64.2630
 2.2900	64.3820
 2.2890	64.4660
 2.2880	64.5802
 2.2870	64.6589
 2.2860	64.7715
 2.2850	64.8775
 2.2840	64.9376
 2.2830	65.0304
 2.2820	65.1567
 2.2810	65.2420
 2.2800	65.3610
 2.2790	65.3463
 2.2780	65.4578
 2.2770	65.4874
 2.2760	65.5396
 2.2750	65.5705
 2.2740	65.6677
 2.2730	65.7237
 2.2720	65.8406
 2.2710	65.8910
 2.2700	65.9958
 2.2690	66.0212
 2.2680	66.1003
 2.2670	66.0874
 2.2660	66.1870
 2.2650	66.3614
 2.2640	66.4398
 2.2630	66.4982
 2.2620	66.5420
 2.2610	66.5801
 2.2600	66.7731
 2.2590	66.8855
 2.2580	66.9973
 2.2570	67.0758
 2.2560	67.0737
 2.2550	67.1885
 2.2540	67.2914
 2.2530	67.3745
 2.2520	67.5114
 2.2510	67.5402
 2.2500	67.5655
 2.2490	67.7045
 2.2480	67.8615
 2.2470	67.9282
 2.2460	67.9968
 2.2450	68.0648
 2.2440	68.0754
 2.2430	68.1871
 2.2420	68.2691
 2.2410	68.3689
 2.2400	68.4150
 2.2390	68.4498
 2.2380	68.5439
 2.2370	68.5707
 2.2360	68.6166
 2.2350	68.7092
 2.2340	68.7459
 2.2330	68.7139
 2.2320	68.7956
 2.2310	68.8498
 2.2300	68.8865
 2.2290	68.9304
 2.2280	69.0350
 2.2270	69.0552
 2.2260	69.0713
 2.2250	69.1099
 2.2240	69.1694
 2.2230	69.2265
 2.2220	69.2721
 2.2210	69.1990
 2.2200	69.2787
 2.2190	69.2907
 2.2180	69.3531
 2.2170	69.3796
 2.2160	69.4146
 2.2150	69.4938
 2.2140	69.4703
 2.2130	69.5755
 2.2120	69.6611
 2.2110	69.5977
 2.2100	69.8417
 2.2090	69.8890
 2.2080	70.1073
 2.2070	70.1211
 2.2060	70.2754
 2.2050	70.3769
 2.2040	70.5539
 2.2030	70.6229
 2.2020	70.8104
 2.2010	70.9131
 2.2000	71.0844
 2.1990	71.2205
 2.1980	71.3531
 2.1970	71.4216
 2.1960	71.5937
 2.1950	71.6395
 2.1940	71.7207
 2.1930	71.8587
 2.1920	71.8665
 2.1910	71.9506
 2.1900	71.9608
 2.1890	71.9664
 2.1880	72.1585
 2.1870	72.1841
 2.1860	72.2180
 2.1850	72.3060
 2.1840	72.3245
 2.1830	72.3422
 2.1820	72.4707
 2.1810	72.5466
 2.1800	72.5687
 2.1790	72.5740
 2.1780	72.7209
 2.1770	72.6400
 2.1760	72.7361
 2.1750	72.8058
 2.1740	72.8258
 2.1730	72.8956
 2.1720	72.9074
 2.1710	72.9922
 2.1700	72.9801
 2.1690	73.0694
 2.1680	73.1902
 2.1670	73.1272
 2.1660	73.2038
 2.1650	73.2248
 2.1640	73.2397
 2.1630	73.2960
 2.1620	73.2741
 2.1610	73.3683
 2.1600	73.3455
 2.1590	73.3813
 2.1580	73.4023
 2.1570	73.3151
 2.1560	73.2999
 2.1550	73.3956
 2.1540	73.4270
 2.1530	73.3886
 2.1520	73.3981
 2.1510	73.4182
 2.1500	73.4333
 2.1490	73.5394
 2.1480	73.5155
 2.1470	73.4925
 2.1460	73.4704
 2.1450	73.5560
 2.1440	73.5301
 2.1430	73.6165
 2.1420	73.7091
 2.1410	73.7538
 2.1400	73.8721
 2.1390	73.9033
 2.1380	73.9518
 2.1370	73.9148
 2.1360	74.0644
 2.1350	74.0901
 2.1340	74.1719
 2.1330	74.2255
 2.1320	74.3184
 2.1310	74.3297
 2.1300	74.4260
 2.1290	74.5074
 2.1280	74.5729
 2.1270	74.5632
 2.1260	74.5686
 2.1250	74.6397
 2.1240	74.6840
 2.1230	74.7331
 2.1220	74.8112
 2.1210	74.8490
 2.1200	74.8603
 2.1190	74.8617
 2.1180	74.9210
 2.1170	74.9083
 2.1160	74.9603
 2.1150	74.9504
 2.1140	74.9939
 2.1130	75.0281
 2.1120	75.0610
 2.1110	75.1175
 2.1100	75.1618
 2.1090	75.1330
 2.1080	75.1128
 2.1070	75.1446
 2.1060	75.1968
 2.1050	75.2446
 2.1040	75.2611
 2.1030	75.2248
 2.1020	75.2813
 2.1010	75.3222
 2.1000	75.3334
 2.0990	75.3295
 2.0980	75.3742
 2.0970	75.4695
 2.0960	75.5206
 2.0950	75.5770
 2.0940	75.6211
 2.0930	75.6956
 2.0920	75.7478
 2.0910	75.7653
 2.0900	75.8019
 2.0890	75.8865
 2.0880	75.9397
 2.0870	75.9468
 2.0860	75.9995
 2.0850	75.9937
 2.0840	75.9984
 2.0830	76.0536
 2.0820	76.0899
 2.0810	76.1458
 2.0800	76.1786
 2.0790	76.2063
 2.0780	76.2148
 2.0770	76.3075
 2.0760	76.3480
 2.0750	76.2753
 2.0740	76.3045
 2.0730	76.3250
 2.0720	76.3093
 2.0710	76.3455
 2.0700	76.4090
 2.0690	76.5008
 2.0680	76.4978
 2.0670	76.4564
 2.0660	76.4718
 2.0650	76.4859
 2.0640	76.4880
 2.0630	76.4851
 2.0620	76.5277
 2.0610	76.5724
 2.0600	76.5666
 2.0590	76.6076
 2.0580	76.6029
 2.0570	76.6136
 2.0560	76.6680
 2.0550	76.6967
 2.0540	76.6640
 2.0530	76.6913
 2.0520	76.7198
 2.0510	76.6879
 2.0500	76.7113
 2.0490	76.7825
 2.0480	76.8180
 2.0470	76.8162
 2.0460	76.8074
 2.0450	76.8919
 2.0440	76.8881
 2.0430	76.9223
 2.0420	76.9285
 2.0410	76.9689
 2.0400	77.0104
 2.0390	76.9887
 2.0380	76.9078
 2.0370	76.9107
 2.0360	76.9448
 2.0350	76.9946
 2.0340	77.0064
 2.0330	76.9896
 2.0320	76.9477
 2.0310	76.9219
 2.0300	76.9784
 2.0290	76.9298
 2.0280	76.8872
 2.0270	76.9101
 2.0260	76.8660
 2.0250	76.8788
 2.0240	76.8214
 2.0230	76.8103
 2.0220	76.8203
 2.0210	76.8090
 2.0200	76.8095
 2.0190	76.8047
 2.0180	76.8012
 2.0170	76.7763
 2.0160	76.7536
 2.0150	76.8030
 2.0140	76.8119
 2.0130	76.7926
 2.0120	76.7392
 2.0110	76.7000
 2.0100	76.6918
 2.0090	76.8088
 2.0080	76.7859
 2.0070	76.7325
 2.0060	76.6777
 2.0050	76.7085
 2.0040	76.6949
 2.0030	76.6573
 2.0020	76.5985
 2.0010	76.5960
 2.0000	76.5334
 1.9990	76.5244
 1.9980	76.4858
 1.9970	76.4930
 1.9960	76.3833
 1.9950	76.3125
 1.9940	76.2778
 1.9930	76.3181
 1.9920	76.1457
 1.9910	76.1424
 1.9900	76.0487
 1.9890	76.0214
 1.9880	76.0583
 1.9870	76.0196
 1.9860	75.9598
 1.9850	76.0224
 1.9840	76.0410
 1.9830	76.0545
 1.9820	76.0563
 1.9810	76.1644
 1.9800	76.1224
 1.9790	76.1719
 1.9780	76.2408
 1.9770	76.2256
 1.9760	76.3040
 1.9750	76.3386
 1.9740	76.3487
 1.9730	76.3514
 1.9720	76.3081
 1.9710	76.4387
 1.9700	76.3726
 1.9690	76.4176
 1.9680	76.4494
 1.9670	76.4039
 1.9660	76.4389
 1.9650	76.4957
 1.9640	76.4798
 1.9630	76.5067
 1.9620	76.5308
 1.9610	76.5754
 1.9600	76.6607
 1.9590	76.7574
 1.9580	76.6567
 1.9570	76.7175
 1.9560	76.8215
 1.9550	76.8218
 1.9540	76.8671
 1.9530	76.7924
 1.9520	76.8320
 1.9510	76.9152
 1.9500	76.9732
 1.9490	76.8898
 1.9480	76.9704
 1.9470	77.0139
 1.9460	76.9639
 1.9450	77.0003
 1.9440	77.0711
 1.9430	77.1031
 1.9420	77.0515
 1.9410	77.0905
 1.9400	77.0277
 1.9390	77.2087
 1.9380	77.1679
 1.9370	77.1415
 1.9360	77.1400
 1.9350	77.1372
 1.9340	77.1870
 1.9330	77.3240
 1.9320	77.2034
 1.9310	77.2364
 1.9300	77.2706
 1.9290	77.2930
 1.9280	77.2734
 1.9270	77.3663
 1.9260	77.2640
 1.9250	77.3330
 1.9240	77.3497
 1.9230	77.3022
 1.9220	77.3790
 1.9210	77.4035
 1.9200	77.4319
 1.9190	77.4142
 1.9180	77.4491
 1.9170	77.4014
 1.9160	77.4257
 1.9150	77.5561
 1.9140	77.5670
 1.9130	77.6008
 1.9120	77.4916
 1.9110	77.5778
 1.9100	77.6623
 1.9090	77.7264
 1.9080	77.7197
 1.9070	77.7400
 1.9060	77.7141
 1.9050	77.8335
 1.9040	77.8430
 1.9030	77.9020
 1.9020	77.9504
 1.9010	77.9605
 1.9000	78.0025
 1.8990	78.0459
 1.8980	78.1167
 1.8970	78.0993
 1.8960	78.2054
 1.8950	78.2334
 1.8940	78.1896
 1.8930	78.3827
 1.8920	78.2944
 1.8910	78.3151
 1.8900	78.3745
 1.8890	78.4370
 1.8880	78.5340
 1.8870	78.5283
 1.8860	78.6320
 1.8850	78.5429
 1.8840	78.5844
 1.8830	78.6179
 1.8820	78.7013
 1.8810	78.7043
 1.8800	78.6858
 1.8790	78.7438
 1.8780	78.7377
 1.8770	78.8199
 1.8760	78.8338
 1.8750	78.8429
 1.8740	78.8349
 1.8730	78.8658
 1.8720	78.8935
 1.8710	78.9360
 1.8700	78.8832
 1.8690	78.9463
 1.8680	78.9849
 1.8670	78.9307
 1.8660	79.0076
 1.8650	79.0493
 1.8640	79.0805
 1.8630	79.0581
 1.8620	79.1187
 1.8610	79.1542
 1.8600	79.1248
 1.8590	79.1970
 1.8580	79.1424
 1.8570	79.1628
 1.8560	79.1669
 1.8550	79.1588
 1.8540	79.1998
 1.8530	79.2443
 1.8520	79.2116
 1.8510	79.2250
 1.8500	79.2123
 1.8490	79.3178
 1.8480	79.2918
 1.8470	79.3058
 1.8460	79.3003
 1.8450	79.2783
 1.8440	79.2729
 1.8430	79.3054
 1.8420	79.3218
 1.8410	79.3671
 1.8400	79.3531
 1.8390	79.4315
 1.8380	79.4099
 1.8370	79.3590
 1.8360	79.3441
 1.8350	79.3689
 1.8340	79.3830
 1.8330	79.3830
 1.8320	79.4049
 1.8310	79.4201
 1.8300	79.4097
 1.8290	79.4010
 1.8280	79.4508
 1.8270	79.5005
 1.8260	79.4942
 1.8250	79.5093
 1.8240	79.4956
 1.8230	79.5350
 1.8220	79.5859
 1.8210	79.5910
 1.8200	79.5327
 1.8190	79.5651
 1.8180	79.5628
 1.8170	79.5729
 1.8160	79.5775
 1.8150	79.6135
 1.8140	79.6021
 1.8130	79.6186
 1.8120	79.6299
 1.8110	79.6813
 1.8100	79.6691
 1.8090	79.6504
 1.8080	79.6292
 1.8070	79.6720
 1.8060	79.7144
 1.8050	79.7074
 1.8040	79.6664
 1.8030	79.6504
 1.8020	79.7269
 1.8010	79.7087
 1.8000	79.6837
 1.7990	79.7010
 1.7980	79.6753
 1.7970	79.6834
 1.7960	79.7163
 1.7950	79.6899
 1.7940	79.7095
 1.7930	79.7231
 1.7920	79.7287
 1.7910	79.7605
 1.7900	79.7509
 1.7890	79.7341
 1.7880	79.7035
 1.7870	79.6962
 1.7860	79.6958
 1.7850	79.7338
 1.7840	79.7150
 1.7830	79.6737
 1.7820	79.7275
 1.7810	79.7344
 1.7800	79.7076
 1.7790	79.6920
 1.7780	79.6722
 1.7770	79.6944
 1.7760	79.7158
 1.7750	79.6840
 1.7740	79.6582
 1.7730	79.6918
 1.7720	79.7105
 1.7710	79.7277
 1.7700	79.7036
 1.7690	79.7137
 1.7680	79.7331
 1.7670	79.7188
 1.7660	79.7587
 1.7650	79.6983
 1.7640	79.7186
 1.7630	79.7461
 1.7620	79.7198
 1.7610	79.6994
 1.7600	79.6858
 1.7590	79.7284
 1.7580	79.7988
 1.7570	79.8104
 1.7560	79.7188
 1.7550	79.7880
 1.7540	79.8446
 1.7530	79.7686
 1.7520	79.7926
 1.7510	79.7692
 1.7500	79.8259
 1.7490	79.8577
 1.7480	79.8462
 1.7470	79.8236
 1.7460	79.9037
 1.7450	79.8874
 1.7440	79.8524
 1.7430	79.9043
 1.7420	79.9209
 1.7410	79.9397
 1.7400	79.9077
 1.7390	79.8657
 1.7380	79.8935
 1.7370	79.8831
 1.7360	79.9279
 1.7350	79.8511
 1.7340	79.8643
 1.7330	79.9418
 1.7320	79.9348
 1.7310	79.9502
 1.7300	79.9821
 1.7290	79.9970
 1.7280	79.9374
 1.7270	79.9711
 1.7260	80.0305
 1.7250	79.9830
 1.7240	79.9371
 1.7230	79.9549
 1.7220	79.9652
 1.7210	79.9282
 1.7200	79.9941
 1.7190	79.9754
 1.7180	79.9800
 1.7170	79.9711
 1.7160	79.9757
 1.7150	80.0619
 1.7140	80.0858
 1.7130	79.9654
 1.7120	80.0111
 1.7110	79.9626
 1.7100	80.0160
 1.7090	79.9990
 1.7080	80.0000
 1.7070	79.9993
 1.7060	80.0171
 1.7050	79.9940
 1.7040	80.0503
 1.7030	79.9772
 1.7020	80.0049
 1.7010	79.9880
 1.7000	79.9676
 1.6990	79.9831
 1.6980	79.9750
 1.6970	79.9893
 1.6960	80.0556
 1.6950	80.0679
 1.6940	80.0007
 1.6930	79.9701
 1.6920	80.0233
 1.6910	79.9564
 1.6900	79.9288
 1.6890	80.0585
 1.6880	80.0424
 1.6870	80.0722
 1.6860	80.0562
 1.6850	80.0157
 1.6840	80.0352
 1.6830	80.0282
 1.6820	80.0592
 1.6810	80.0978
 1.6800	80.0088
 1.6790	80.0506
 1.6780	80.0168
 1.6770	80.0006
 1.6760	80.0860
 1.6750	80.1004
 1.6740	80.0542
 1.6730	80.1409
 1.6720	80.1042
 1.6710	80.1013
 1.6700	80.1761
 1.6690	80.2130
 1.6680	80.1309
 1.6670	80.1560
 1.6660	80.1805
 1.6650	80.1255
 1.6640	80.1132
 1.6630	80.1029
 1.6620	80.2401
 1.6610	80.2240
 1.6600	80.2344
 1.6590	80.1956
 1.6580	80.3047
 1.6570	80.2364
 1.6560	80.2702
 1.6550	80.2367
 1.6540	80.2899
 1.6530	80.2471
 1.6520	80.2317
 1.6510	80.2740
 1.6500	80.2862
 1.6490	80.2641
 1.6480	80.2777
 1.6470	80.2642
 1.6460	80.3249
 1.6450	80.3345
 1.6440	80.3457
 1.6430	80.2846
 1.6420	80.3978
 1.6410	80.2749
 1.6400	80.3961
 1.6390	80.3039
 1.6380	80.3566
 1.6370	80.3438
 1.6360	80.3630
 1.6350	80.2889
 1.6340	80.3551
 1.6330	80.3281
 1.6320	80.4010
 1.6310	80.4137
 1.6300	80.4018
 1.6290	80.4519
 1.6280	80.4232
 1.6270	80.5156
 1.6260	80.4574
 1.6250	80.3553
 1.6240	80.4415
 1.6230	80.4659
 1.6220	80.4048
 1.6210	80.4526
 1.6200	80.4131
 1.6190	80.3819
 1.6180	80.4620
 1.6170	80.4551
 1.6160	80.5081
 1.6150	80.5400
 1.6140	80.4695
 1.6130	80.4928
 1.6120	80.5920
 1.6110	80.5975
 1.6100	80.5407
 1.6090	80.6006
 1.6080	80.4939
 1.6070	80.5355
 1.6060	80.6132
 1.6050	80.5706
 1.6040	80.5340
 1.6030	80.5551
 1.6020	80.4958
 1.6010	80.5364
 1.6000	80.5451
 1.5990	80.5713
 1.5980	80.6113
 1.5970	80.5795
 1.5960	80.5912
 1.5950	80.5357
 1.5940	80.5456
 1.5930	80.4774
 1.5920	80.5184
 1.5910	80.5604
 1.5900	80.6511
 1.5890	80.5453
 1.5880	80.4498
 1.5870	80.5749
 1.5860	80.5999
 1.5850	80.5846
 1.5840	80.6161
 1.5830	80.5227
 1.5820	80.6015
 1.5810	80.5630
 1.5800	80.6096
 1.5790	80.5423
 1.5780	80.6019
 1.5770	80.6489
 1.5760	80.5993
 1.5750	80.5020
 1.5740	80.5698
 1.5730	80.5497
 1.5720	80.5890
 1.5710	80.5491
 1.5700	80.6305
 1.5690	80.6593
 1.5680	80.5945
 1.5670	80.4744
 1.5660	80.5181
 1.5650	80.5072
 1.5640	80.5926
 1.5630	80.5565
 1.5620	80.5651
 1.5610	80.5623
 1.5600	80.6066
 1.5590	80.5914
 1.5580	80.5834
 1.5570	80.5534
 1.5560	80.6005
 1.5550	80.5807
 1.5540	80.5512
 1.5530	80.5204
 1.5520	80.5261
 1.5510	80.5381
 1.5500	80.6326
 1.5490	80.6012
 1.5480	80.5679
 1.5470	80.5164
 1.5460	80.5268
 1.5450	80.5773
 1.5440	80.6090
 1.5430	80.5666
 1.5420	80.5431
 1.5410	80.5466
 1.5400	80.5257
 1.5390	80.5026
 1.5380	80.4565
 1.5370	80.4427
 1.5360	80.4653
 1.5350	80.5045
 1.5340	80.5487
 1.5330	80.4933
 1.5320	80.5044
 1.5310	80.5106
 1.5300	80.4587
 1.5290	80.4515
 1.5280	80.4692
 1.5270	80.4822
 1.5260	80.4842
 1.5250	80.4336
 1.5240	80.4206
 1.5230	80.4080
 1.5220	80.4176
 1.5210	80.4288
 1.5200	80.4419
 1.5190	80.4225
 1.5180	80.4048
 1.5170	80.4115
 1.5160	80.4758
 1.5150	80.4718
 1.5140	80.4301
 1.5130	80.4097
 1.5120	80.3591
 1.5110	80.3761
 1.5100	80.3683
 1.5090	80.3738
 1.5080	80.3913
 1.5070	80.3495
 1.5060	80.3080
 1.5050	80.2824
 1.5040	80.3295
 1.5030	80.3513
 1.5020	80.2627
 1.5010	80.2319
 1.5000	80.2681
 1.4990	80.2688
 1.4980	80.2132
 1.4970	80.1930
 1.4960	80.2212
 1.4950	80.2251
 1.4940	80.1524
 1.4930	80.1607
 1.4920	80.1983
 1.4910	80.1356
 1.4900	80.1314
 1.4890	80.1050
 1.4880	80.0832
 1.4870	80.1009
 1.4860	80.0666
 1.4850	80.0658
 1.4840	80.0695
 1.4830	80.0729
 1.4820	80.0187
 1.4810	79.9567
 1.4800	79.9312
 1.4790	79.9542
 1.4780	79.9292
 1.4770	79.9491
 1.4760	79.9171
 1.4750	79.9075
 1.4740	79.8500
 1.4730	79.8717
 1.4720	79.8764
 1.4710	79.8558
 1.4700	79.8158
 1.4690	79.7891
 1.4680	79.7631
 1.4670	79.7796
 1.4660	79.7227
 1.4650	79.6885
 1.4640	79.6930
 1.4630	79.6794
 1.4620	79.6800
 1.4610	79.7438
 1.4600	79.7080
 1.4590	79.6713
 1.4580	79.6142
 1.4570	79.6029
 1.4560	79.6191
 1.4550	79.6471
 1.4540	79.6055
 1.4530	79.6238
 1.4520	79.5965
 1.4510	79.5531
 1.4500	79.5819
 1.4490	79.5341
 1.4480	79.4655
 1.4470	79.3887
 1.4460	79.3151
 1.4450	79.3247
 1.4440	79.2018
 1.4430	79.1977
 1.4420	79.1235
 1.4410	78.9625
 1.4400	78.7745
 1.4390	78.7943
 1.4380	78.6942
 1.4370	78.6712
 1.4360	78.6269
 1.4350	78.6555
 1.4340	78.6461
 1.4330	78.7182
 1.4320	78.7702
 1.4310	78.8867
 1.4300	78.9100
 1.4290	79.0429
 1.4280	79.1094
 1.4270	79.2479
 1.4260	79.2638
 1.4250	79.3695
 1.4240	79.3809
 1.4230	79.3899
 1.4220	79.3309
 1.4210	79.3696
 1.4200	79.3482
 1.4190	79.2725
 1.4180	79.1249
 1.4170	79.0297
 1.4160	78.8534
 1.4150	78.7955
 1.4140	78.6041
 1.4130	78.5013
 1.4120	78.4353
 1.4110	78.3514
 1.4100	78.2327
 1.4090	78.1426
 1.4080	78.1035
 1.4070	78.1460
 1.4060	78.0996
 1.4050	78.1041
 1.4040	78.1154
 1.4030	78.1391
 1.4020	78.0689
 1.4010	78.0567
 1.4000	78.0656
 1.3990	78.0241
 1.3980	78.0126
 1.3970	78.0670
 1.3960	78.1249
 1.3950	78.1472
 1.3940	78.1656
 1.3930	78.3344
 1.3920	78.5324
 1.3910	78.7204
 1.3900	78.8771
 1.3890	79.1697
 1.3880	79.3030
 1.3870	79.5695
 1.3860	79.8834
 1.3850	79.9858
 1.3840	80.1619
 1.3830	80.2843
 1.3820	80.3031
 1.3810	80.3995
 1.3800	80.5643
 1.3790	80.5108
 1.3780	80.5119
 1.3770	80.5941
 1.3760	80.6579
 1.3750	80.7098
 1.3740	80.6991
 1.3730	80.7732
 1.3720	80.7769
 1.3710	80.7797
 1.3700	80.7934
