Name: Scorodite Fe^3+AsO_4.2H_2O
Type: Mineral
Class: Arsenate
Subclass: None
Particle Size: Coarse
Sample No.: A-2A
Owner: JPL
Wavelength Range: VSWIR
Origin: USA, Utah, Tooele County, Gold Hill.
Collection Date: N/A
Description: Particle size was 125-500um.Collected by:  Ward's Original ASTER Spectral Library name was jpl.perkin.mineral.arsenate.none.coarse.a02a.spectrum.txt
Measurement: Hemispherical reflectance
First Column: X
Second Column: Y
X Units: Wavelength (micrometers)
Y Units:Reflectance (percent)
First X Value:  2.5000
Last X Value:  0.4000
Number of X Values: 2101
Additional Information: mineral.arsenate.none.coarse.vswir.a-2a.jpl.perkin.ancillary.txt

 2.5000	 2.9517
 2.4990	 3.3712
 2.4980	 3.3378
 2.4970	 3.7255
 2.4960	 3.3195
 2.4950	 3.6640
 2.4940	 3.3905
 2.4930	 3.8388
 2.4920	 3.6167
 2.4910	 3.9511
 2.4900	 3.7087
 2.4890	 3.9867
 2.4880	 3.8276
 2.4870	 4.0376
 2.4860	 3.7810
 2.4850	 4.0130
 2.4840	 3.9207
 2.4830	 4.2829
 2.4820	 4.0198
 2.4810	 4.1382
 2.4800	 4.0439
 2.4790	 4.3334
 2.4780	 4.2986
 2.4770	 4.3969
 2.4760	 4.2974
 2.4750	 4.5716
 2.4740	 4.3427
 2.4730	 4.5275
 2.4720	 4.5277
 2.4710	 4.6089
 2.4700	 4.6629
 2.4690	 4.8011
 2.4680	 4.7114
 2.4670	 4.8817
 2.4660	 4.8345
 2.4650	 4.9083
 2.4640	 4.9270
 2.4630	 5.0592
 2.4620	 4.9713
 2.4610	 5.0698
 2.4600	 5.0963
 2.4590	 5.2428
 2.4580	 5.1868
 2.4570	 5.2746
 2.4560	 5.3185
 2.4550	 5.3012
 2.4540	 5.3776
 2.4530	 5.4295
 2.4520	 5.3648
 2.4510	 5.4656
 2.4500	 5.4168
 2.4490	 5.5466
 2.4480	 5.5100
 2.4470	 5.6358
 2.4460	 5.4782
 2.4450	 5.7800
 2.4440	 5.5739
 2.4430	 5.7675
 2.4420	 5.6736
 2.4410	 5.8272
 2.4400	 5.8694
 2.4390	 5.9535
 2.4380	 5.8502
 2.4370	 5.9431
 2.4360	 5.8881
 2.4350	 5.9762
 2.4340	 5.9044
 2.4330	 5.9472
 2.4320	 5.9285
 2.4310	 6.0410
 2.4300	 6.0072
 2.4290	 6.2114
 2.4280	 6.1395
 2.4270	 6.2601
 2.4260	 6.2645
 2.4250	 6.2778
 2.4240	 6.3396
 2.4230	 6.3971
 2.4220	 6.3389
 2.4210	 6.4531
 2.4200	 6.3963
 2.4190	 6.5353
 2.4180	 6.4586
 2.4170	 6.5638
 2.4160	 6.6062
 2.4150	 6.7515
 2.4140	 6.6618
 2.4130	 6.7283
 2.4120	 6.7552
 2.4110	 6.7977
 2.4100	 6.7303
 2.4090	 6.8669
 2.4080	 6.9141
 2.4070	 6.9289
 2.4060	 6.9028
 2.4050	 7.0245
 2.4040	 6.9698
 2.4030	 7.0980
 2.4020	 7.0795
 2.4010	 7.1170
 2.4000	 7.1064
 2.3990	 7.1895
 2.3980	 7.1945
 2.3970	 7.3004
 2.3960	 7.2920
 2.3950	 7.3182
 2.3940	 7.3800
 2.3930	 7.4011
 2.3920	 7.3982
 2.3910	 7.4791
 2.3900	 7.4475
 2.3890	 7.5576
 2.3880	 7.5604
 2.3870	 7.5998
 2.3860	 7.5474
 2.3850	 7.6235
 2.3840	 7.6502
 2.3830	 7.6868
 2.3820	 7.7434
 2.3810	 7.7943
 2.3800	 7.7809
 2.3790	 7.8342
 2.3780	 7.8471
 2.3770	 7.8562
 2.3760	 7.9089
 2.3750	 7.9568
 2.3740	 7.9189
 2.3730	 8.0097
 2.3720	 7.9829
 2.3710	 8.0102
 2.3700	 8.0425
 2.3690	 8.0913
 2.3680	 8.0910
 2.3670	 8.1460
 2.3660	 8.1065
 2.3650	 8.1308
 2.3640	 8.1724
 2.3630	 8.1577
 2.3620	 8.1530
 2.3610	 8.1839
 2.3600	 8.2169
 2.3590	 8.2095
 2.3580	 8.1960
 2.3570	 8.2085
 2.3560	 8.1615
 2.3550	 8.1641
 2.3540	 8.2008
 2.3530	 8.2128
 2.3520	 8.2098
 2.3510	 8.1649
 2.3500	 8.1715
 2.3490	 8.1375
 2.3480	 8.1065
 2.3470	 8.1797
 2.3460	 8.1649
 2.3450	 8.1167
 2.3440	 8.1303
 2.3430	 8.0977
 2.3420	 8.0666
 2.3410	 7.9992
 2.3400	 8.0335
 2.3390	 8.0743
 2.3380	 8.0566
 2.3370	 8.0170
 2.3360	 7.9554
 2.3350	 7.9694
 2.3340	 8.0035
 2.3330	 7.9881
 2.3320	 8.0149
 2.3310	 7.9836
 2.3300	 8.0000
 2.3290	 7.9914
 2.3280	 8.0402
 2.3270	 8.0480
 2.3260	 8.0260
 2.3250	 8.0360
 2.3240	 8.1377
 2.3230	 8.1328
 2.3220	 8.1428
 2.3210	 8.1727
 2.3200	 8.2551
 2.3190	 8.2307
 2.3180	 8.3300
 2.3170	 8.3682
 2.3160	 8.4437
 2.3150	 8.4552
 2.3140	 8.4802
 2.3130	 8.4966
 2.3120	 8.6044
 2.3110	 8.6003
 2.3100	 8.6996
 2.3090	 8.7436
 2.3080	 8.8292
 2.3070	 8.8803
 2.3060	 8.9597
 2.3050	 9.0279
 2.3040	 9.0861
 2.3030	 9.1099
 2.3020	 9.2408
 2.3010	 9.2451
 2.3000	 9.2935
 2.2990	 9.2669
 2.2980	 9.4348
 2.2970	 9.4304
 2.2960	 9.5428
 2.2950	 9.5628
 2.2940	 9.6305
 2.2930	 9.6509
 2.2920	 9.7579
 2.2910	 9.7237
 2.2900	 9.8361
 2.2890	 9.8516
 2.2880	 9.9237
 2.2870	 9.9119
 2.2860	 9.9622
 2.2850	 9.8954
 2.2840	10.0234
 2.2830	 9.9704
 2.2820	10.0856
 2.2810	10.0942
 2.2800	10.1266
 2.2790	10.0138
 2.2780	10.1534
 2.2770	10.0697
 2.2760	10.1009
 2.2750	10.0889
 2.2740	10.1641
 2.2730	10.1529
 2.2720	10.2056
 2.2710	10.1458
 2.2700	10.2556
 2.2690	10.1383
 2.2680	10.1898
 2.2670	10.2149
 2.2660	10.1630
 2.2650	10.1997
 2.2640	10.2923
 2.2630	10.1501
 2.2620	10.2402
 2.2610	10.1321
 2.2600	10.1935
 2.2590	10.1817
 2.2580	10.3009
 2.2570	10.2242
 2.2560	10.2720
 2.2550	10.1872
 2.2540	10.2508
 2.2530	10.2556
 2.2520	10.2521
 2.2510	10.1732
 2.2500	10.2828
 2.2490	10.1786
 2.2480	10.1981
 2.2470	10.1228
 2.2460	10.2479
 2.2450	10.1352
 2.2440	10.1498
 2.2430	10.1351
 2.2420	10.1895
 2.2410	10.0504
 2.2400	10.1647
 2.2390	10.0294
 2.2380	10.1252
 2.2370	 9.9432
 2.2360	10.0842
 2.2350	 9.9702
 2.2340	10.0216
 2.2330	 9.9550
 2.2320	 9.9606
 2.2310	 9.8733
 2.2300	 9.8781
 2.2290	 9.7740
 2.2280	 9.9330
 2.2270	 9.7886
 2.2260	 9.8178
 2.2250	 9.6562
 2.2240	 9.7166
 2.2230	 9.6188
 2.2220	 9.6255
 2.2210	 9.5947
 2.2200	 9.6044
 2.2190	 9.5297
 2.2180	 9.5772
 2.2170	 9.4782
 2.2160	 9.5323
 2.2150	 9.3918
 2.2140	 9.4376
 2.2130	 9.3195
 2.2120	 9.4407
 2.2110	 9.1851
 2.2100	 9.3969
 2.2090	 9.2586
 2.2080	 9.3190
 2.2070	 9.1938
 2.2060	 9.2426
 2.2050	 9.1857
 2.2040	 9.1943
 2.2030	 9.1095
 2.2020	 9.1169
 2.2010	 9.0666
 2.2000	 9.1397
 2.1990	 9.0205
 2.1980	 9.1347
 2.1970	 9.0012
 2.1960	 9.0258
 2.1950	 8.9698
 2.1940	 8.9784
 2.1930	 8.8674
 2.1920	 8.8994
 2.1910	 8.8358
 2.1900	 8.8885
 2.1890	 8.7955
 2.1880	 8.7975
 2.1870	 8.7632
 2.1860	 8.7999
 2.1850	 8.7196
 2.1840	 8.7731
 2.1830	 8.6930
 2.1820	 8.7356
 2.1810	 8.5621
 2.1800	 8.6602
 2.1790	 8.5537
 2.1780	 8.6551
 2.1770	 8.4553
 2.1760	 8.5492
 2.1750	 8.5288
 2.1740	 8.5389
 2.1730	 8.5244
 2.1720	 8.5160
 2.1710	 8.2874
 2.1700	 8.4238
 2.1690	 8.4455
 2.1680	 8.4130
 2.1670	 8.3144
 2.1660	 8.3242
 2.1650	 8.3113
 2.1640	 8.3992
 2.1630	 8.2663
 2.1620	 8.3644
 2.1610	 8.2012
 2.1600	 8.2542
 2.1590	 8.2396
 2.1580	 8.2460
 2.1570	 8.1849
 2.1560	 8.2032
 2.1550	 8.1631
 2.1540	 8.1896
 2.1530	 8.1149
 2.1520	 8.1279
 2.1510	 8.0639
 2.1500	 8.0961
 2.1490	 8.0007
 2.1480	 8.0907
 2.1470	 8.0182
 2.1460	 8.0618
 2.1450	 7.9703
 2.1440	 8.0170
 2.1430	 7.9398
 2.1420	 7.9174
 2.1410	 7.9904
 2.1400	 7.9854
 2.1390	 7.8446
 2.1380	 7.9572
 2.1370	 7.8316
 2.1360	 7.8174
 2.1350	 7.8274
 2.1340	 7.8642
 2.1330	 7.7313
 2.1320	 7.7818
 2.1310	 7.7461
 2.1300	 7.7529
 2.1290	 7.7048
 2.1280	 7.6970
 2.1270	 7.6749
 2.1260	 7.7546
 2.1250	 7.6215
 2.1240	 7.6577
 2.1230	 7.5680
 2.1220	 7.5651
 2.1210	 7.5330
 2.1200	 7.6314
 2.1190	 7.5412
 2.1180	 7.5641
 2.1170	 7.5575
 2.1160	 7.5548
 2.1150	 7.5112
 2.1140	 7.4923
 2.1130	 7.4385
 2.1120	 7.4799
 2.1110	 7.4183
 2.1100	 7.3662
 2.1090	 7.3822
 2.1080	 7.4142
 2.1070	 7.3319
 2.1060	 7.3686
 2.1050	 7.3555
 2.1040	 7.3856
 2.1030	 7.3304
 2.1020	 7.3407
 2.1010	 7.3646
 2.1000	 7.3619
 2.0990	 7.3125
 2.0980	 7.3246
 2.0970	 7.3173
 2.0960	 7.3271
 2.0950	 7.3651
 2.0940	 7.3893
 2.0930	 7.3483
 2.0920	 7.3514
 2.0910	 7.3414
 2.0900	 7.3790
 2.0890	 7.3294
 2.0880	 7.3301
 2.0870	 7.3015
 2.0860	 7.3762
 2.0850	 7.3931
 2.0840	 7.3740
 2.0830	 7.3155
 2.0820	 7.3209
 2.0810	 7.3784
 2.0800	 7.3863
 2.0790	 7.3031
 2.0780	 7.3786
 2.0770	 7.4601
 2.0760	 7.4116
 2.0750	 7.3801
 2.0740	 7.3975
 2.0730	 7.3723
 2.0720	 7.3646
 2.0710	 7.3967
 2.0700	 7.4333
 2.0690	 7.4483
 2.0680	 7.4170
 2.0670	 7.4127
 2.0660	 7.3892
 2.0650	 7.4155
 2.0640	 7.4821
 2.0630	 7.4779
 2.0620	 7.4557
 2.0610	 7.5074
 2.0600	 7.5082
 2.0590	 7.4999
 2.0580	 7.4863
 2.0570	 7.5236
 2.0560	 7.5159
 2.0550	 7.5624
 2.0540	 7.5828
 2.0530	 7.5314
 2.0520	 7.5097
 2.0510	 7.5636
 2.0500	 7.5068
 2.0490	 7.5452
 2.0480	 7.5524
 2.0470	 7.5329
 2.0460	 7.5564
 2.0450	 7.6693
 2.0440	 7.6664
 2.0430	 7.6087
 2.0420	 7.5712
 2.0410	 7.5870
 2.0400	 7.6191
 2.0390	 7.6772
 2.0380	 7.6106
 2.0370	 7.6902
 2.0360	 7.6700
 2.0350	 7.6485
 2.0340	 7.5953
 2.0330	 7.6645
 2.0320	 7.5994
 2.0310	 7.6227
 2.0300	 7.6079
 2.0290	 7.6326
 2.0280	 7.5609
 2.0270	 7.6125
 2.0260	 7.5855
 2.0250	 7.5811
 2.0240	 7.5128
 2.0230	 7.5631
 2.0220	 7.4674
 2.0210	 7.4710
 2.0200	 7.4259
 2.0190	 7.4166
 2.0180	 7.3569
 2.0170	 7.3049
 2.0160	 7.2626
 2.0150	 7.2540
 2.0140	 7.1926
 2.0130	 7.1520
 2.0120	 7.0320
 2.0110	 7.0912
 2.0100	 7.0001
 2.0090	 6.9593
 2.0080	 6.8734
 2.0070	 6.8668
 2.0060	 6.7598
 2.0050	 6.7392
 2.0040	 6.6129
 2.0030	 6.5884
 2.0020	 6.5364
 2.0010	 6.6035
 2.0000	 6.4827
 1.9990	 6.5433
 1.9980	 6.4486
 1.9970	 6.5046
 1.9960	 6.3841
 1.9950	 6.5153
 1.9940	 6.4577
 1.9930	 6.4314
 1.9920	 6.3912
 1.9910	 6.3819
 1.9900	 6.4170
 1.9890	 6.4605
 1.9880	 6.3508
 1.9870	 6.4589
 1.9860	 6.4538
 1.9850	 6.4840
 1.9840	 6.4505
 1.9830	 6.5032
 1.9820	 6.4261
 1.9810	 6.4806
 1.9800	 6.3214
 1.9790	 6.4080
 1.9780	 6.3190
 1.9770	 6.3443
 1.9760	 6.2418
 1.9750	 6.3742
 1.9740	 6.1970
 1.9730	 6.2847
 1.9720	 6.1541
 1.9710	 6.1789
 1.9700	 6.1170
 1.9690	 6.1105
 1.9680	 5.9638
 1.9670	 6.0731
 1.9660	 5.9558
 1.9650	 6.0445
 1.9640	 5.9905
 1.9630	 6.0561
 1.9620	 5.9188
 1.9610	 6.1007
 1.9600	 6.0203
 1.9590	 6.2219
 1.9580	 6.0799
 1.9570	 6.2704
 1.9560	 6.2090
 1.9550	 6.3662
 1.9540	 6.2976
 1.9530	 6.5329
 1.9520	 6.5038
 1.9510	 6.7259
 1.9500	 6.7003
 1.9490	 6.9812
 1.9480	 6.9139
 1.9470	 7.1688
 1.9460	 7.1658
 1.9450	 7.4204
 1.9440	 7.4112
 1.9430	 7.6334
 1.9420	 7.7331
 1.9410	 7.8302
 1.9400	 7.8831
 1.9390	 8.2067
 1.9380	 8.1711
 1.9370	 8.4361
 1.9360	 8.3978
 1.9350	 8.5915
 1.9340	 8.6304
 1.9330	 8.8914
 1.9320	 8.9763
 1.9310	 9.0647
 1.9300	 9.0650
 1.9290	 9.3683
 1.9280	 9.3679
 1.9270	 9.5938
 1.9260	 9.3529
 1.9250	 9.8635
 1.9240	 9.7950
 1.9230	 9.9592
 1.9220	 9.9930
 1.9210	10.1783
 1.9200	10.1267
 1.9190	10.3657
 1.9180	10.3769
 1.9170	10.5042
 1.9160	10.5426
 1.9150	10.7914
 1.9140	10.8231
 1.9130	10.8960
 1.9120	10.9201
 1.9110	11.0330
 1.9100	11.1130
 1.9090	11.2473
 1.9080	11.1825
 1.9070	11.3855
 1.9060	11.4317
 1.9050	11.4181
 1.9040	11.4164
 1.9030	11.7339
 1.9020	11.5894
 1.9010	11.7271
 1.9000	11.7233
 1.8990	11.8252
 1.8980	11.8709
 1.8970	11.9241
 1.8960	11.9678
 1.8950	12.0804
 1.8940	12.1164
 1.8930	12.2056
 1.8920	12.0614
 1.8910	12.2169
 1.8900	12.2566
 1.8890	12.2852
 1.8880	12.2957
 1.8870	12.3217
 1.8860	12.3515
 1.8850	12.4246
 1.8840	12.4213
 1.8830	12.4920
 1.8820	12.4492
 1.8810	12.4655
 1.8800	12.4965
 1.8790	12.5995
 1.8780	12.5545
 1.8770	12.5901
 1.8760	12.5558
 1.8750	12.6506
 1.8740	12.5418
 1.8730	12.6141
 1.8720	12.5794
 1.8710	12.7121
 1.8700	12.6310
 1.8690	12.7025
 1.8680	12.7137
 1.8670	12.7386
 1.8660	12.6461
 1.8650	12.7666
 1.8640	12.7439
 1.8630	12.7990
 1.8620	12.7873
 1.8610	12.8656
 1.8600	12.8286
 1.8590	12.8431
 1.8580	12.8077
 1.8570	12.9088
 1.8560	12.7825
 1.8550	12.8382
 1.8540	12.8344
 1.8530	12.8946
 1.8520	12.8252
 1.8510	12.9095
 1.8500	12.8531
 1.8490	12.8999
 1.8480	12.8520
 1.8470	12.8619
 1.8460	12.8178
 1.8450	12.9082
 1.8440	12.8564
 1.8430	12.8952
 1.8420	12.9026
 1.8410	12.9200
 1.8400	12.8890
 1.8390	12.8735
 1.8380	12.8113
 1.8370	12.8626
 1.8360	12.8762
 1.8350	12.9467
 1.8340	12.8660
 1.8330	12.9168
 1.8320	12.8891
 1.8310	12.9891
 1.8300	12.9000
 1.8290	12.9100
 1.8280	12.8923
 1.8270	13.0052
 1.8260	12.9957
 1.8250	12.9813
 1.8240	13.0001
 1.8230	13.0073
 1.8220	12.9696
 1.8210	12.9739
 1.8200	12.9404
 1.8190	12.9738
 1.8180	12.9774
 1.8170	13.0506
 1.8160	13.0761
 1.8150	13.0732
 1.8140	13.0495
 1.8130	13.0472
 1.8120	13.0371
 1.8110	13.1114
 1.8100	13.1552
 1.8090	13.1769
 1.8080	13.1403
 1.8070	13.1341
 1.8060	13.1738
 1.8050	13.1852
 1.8040	13.1842
 1.8030	13.2067
 1.8020	13.1833
 1.8010	13.1989
 1.8000	13.2356
 1.7990	13.2457
 1.7980	13.2622
 1.7970	13.2915
 1.7960	13.2858
 1.7950	13.3495
 1.7940	13.3285
 1.7930	13.3500
 1.7920	13.3875
 1.7910	13.3771
 1.7900	13.3830
 1.7890	13.4257
 1.7880	13.4191
 1.7870	13.4158
 1.7860	13.4826
 1.7850	13.4524
 1.7840	13.4329
 1.7830	13.4849
 1.7820	13.5089
 1.7810	13.5168
 1.7800	13.5243
 1.7790	13.5693
 1.7780	13.5888
 1.7770	13.6079
 1.7760	13.6752
 1.7750	13.6498
 1.7740	13.6394
 1.7730	13.6275
 1.7720	13.6603
 1.7710	13.7177
 1.7700	13.7941
 1.7690	13.7043
 1.7680	13.7296
 1.7670	13.8054
 1.7660	13.8139
 1.7650	13.8424
 1.7640	13.8723
 1.7630	13.8539
 1.7620	13.9124
 1.7610	13.9518
 1.7600	13.9960
 1.7590	13.9654
 1.7580	14.0508
 1.7570	13.9708
 1.7560	14.0007
 1.7550	14.0383
 1.7540	14.1237
 1.7530	14.0815
 1.7520	14.1204
 1.7510	14.1362
 1.7500	14.1916
 1.7490	14.2507
 1.7480	14.2860
 1.7470	14.2371
 1.7460	14.2795
 1.7450	14.2746
 1.7440	14.4240
 1.7430	14.4077
 1.7420	14.3823
 1.7410	14.3794
 1.7400	14.5005
 1.7390	14.4922
 1.7380	14.5011
 1.7370	14.4123
 1.7360	14.4998
 1.7350	14.5079
 1.7340	14.5631
 1.7330	14.6140
 1.7320	14.6693
 1.7310	14.5548
 1.7300	14.6960
 1.7290	14.6746
 1.7280	14.7555
 1.7270	14.7343
 1.7260	14.8071
 1.7250	14.8195
 1.7240	14.8605
 1.7230	14.8798
 1.7220	14.9165
 1.7210	14.9373
 1.7200	14.9973
 1.7190	15.0190
 1.7180	15.0041
 1.7170	15.0015
 1.7160	15.0836
 1.7150	15.1057
 1.7140	15.2029
 1.7130	15.1536
 1.7120	15.3002
 1.7110	15.2182
 1.7100	15.3295
 1.7090	15.3761
 1.7080	15.4268
 1.7070	15.4509
 1.7060	15.4542
 1.7050	15.4700
 1.7040	15.5711
 1.7030	15.5853
 1.7020	15.7162
 1.7010	15.6684
 1.7000	15.8028
 1.6990	15.8011
 1.6980	15.9041
 1.6970	15.9270
 1.6960	16.0438
 1.6950	16.0249
 1.6940	16.1039
 1.6930	16.1719
 1.6920	16.3315
 1.6910	16.2894
 1.6900	16.4640
 1.6890	16.4561
 1.6880	16.5076
 1.6870	16.4851
 1.6860	16.6124
 1.6850	16.7158
 1.6840	16.8382
 1.6830	16.8422
 1.6820	16.9187
 1.6810	16.9277
 1.6800	17.1169
 1.6790	17.1075
 1.6780	17.1929
 1.6770	17.1841
 1.6760	17.3988
 1.6750	17.3996
 1.6740	17.5368
 1.6730	17.5708
 1.6720	17.7252
 1.6710	17.6970
 1.6700	17.8565
 1.6690	18.0699
 1.6680	17.9340
 1.6670	18.1551
 1.6660	18.2137
 1.6650	18.1897
 1.6640	18.4592
 1.6630	18.4254
 1.6620	18.5649
 1.6610	18.6052
 1.6600	18.7418
 1.6590	18.7742
 1.6580	18.9718
 1.6570	19.0058
 1.6560	19.1759
 1.6550	19.1632
 1.6540	19.3545
 1.6530	19.3793
 1.6520	19.5449
 1.6510	19.5723
 1.6500	19.6751
 1.6490	19.6916
 1.6480	20.0371
 1.6470	19.9830
 1.6460	20.0849
 1.6450	20.0708
 1.6440	20.3470
 1.6430	20.3358
 1.6420	20.5875
 1.6410	20.4607
 1.6400	20.7462
 1.6390	20.8399
 1.6380	20.9959
 1.6370	20.9754
 1.6360	21.1611
 1.6350	21.2175
 1.6340	21.3349
 1.6330	21.3733
 1.6320	21.6404
 1.6310	21.5882
 1.6300	21.8189
 1.6290	21.8111
 1.6280	21.9665
 1.6270	22.0790
 1.6260	22.2191
 1.6250	22.3056
 1.6240	22.4883
 1.6230	22.5610
 1.6220	22.7933
 1.6210	22.6809
 1.6200	23.0095
 1.6190	22.9447
 1.6180	23.1317
 1.6170	23.2113
 1.6160	23.4440
 1.6150	23.4314
 1.6140	23.6558
 1.6130	23.6551
 1.6120	23.9327
 1.6110	23.8757
 1.6100	24.1726
 1.6090	24.2480
 1.6080	24.3899
 1.6070	24.4385
 1.6060	24.5605
 1.6050	24.6551
 1.6040	24.8831
 1.6030	24.9462
 1.6020	25.0902
 1.6010	25.1737
 1.6000	25.3396
 1.5990	25.3593
 1.5980	25.5077
 1.5970	25.6709
 1.5960	25.8279
 1.5950	25.8511
 1.5940	26.0202
 1.5930	26.2024
 1.5920	26.4059
 1.5910	26.4285
 1.5900	26.5833
 1.5890	26.6593
 1.5880	26.7940
 1.5870	26.8782
 1.5860	27.0203
 1.5850	27.1501
 1.5840	27.3844
 1.5830	27.4356
 1.5820	27.6249
 1.5810	27.6721
 1.5800	27.8608
 1.5790	27.9768
 1.5780	28.0972
 1.5770	28.1648
 1.5760	28.3502
 1.5750	28.4462
 1.5740	28.6342
 1.5730	28.6850
 1.5720	28.8649
 1.5710	28.9794
 1.5700	29.1423
 1.5690	29.2261
 1.5680	29.3194
 1.5670	29.4464
 1.5660	29.6566
 1.5650	29.6591
 1.5640	29.8284
 1.5630	29.8630
 1.5620	29.9860
 1.5610	30.1123
 1.5600	30.1577
 1.5590	30.2643
 1.5580	30.3801
 1.5570	30.4352
 1.5560	30.4982
 1.5550	30.5105
 1.5540	30.5916
 1.5530	30.6323
 1.5520	30.7215
 1.5510	30.6824
 1.5500	30.7160
 1.5490	30.6882
 1.5480	30.6825
 1.5470	30.5951
 1.5460	30.5263
 1.5450	30.4539
 1.5440	30.4111
 1.5430	30.3174
 1.5420	30.2385
 1.5410	30.0716
 1.5400	30.0119
 1.5390	29.9385
 1.5380	29.8176
 1.5370	29.7040
 1.5360	29.6430
 1.5350	29.5237
 1.5340	29.5149
 1.5330	29.5070
 1.5320	29.5200
 1.5310	29.5725
 1.5300	29.6678
 1.5290	29.6822
 1.5280	29.7932
 1.5270	29.9330
 1.5260	30.0425
 1.5250	30.1495
 1.5240	30.3302
 1.5230	30.4646
 1.5220	30.5777
 1.5210	30.7423
 1.5200	30.8821
 1.5190	31.0024
 1.5180	31.1427
 1.5170	31.2838
 1.5160	31.4286
 1.5150	31.4680
 1.5140	31.5800
 1.5130	31.7179
 1.5120	31.8144
 1.5110	31.8634
 1.5100	31.9219
 1.5090	31.9776
 1.5080	32.0289
 1.5070	32.0894
 1.5060	32.1701
 1.5050	32.1856
 1.5040	32.1546
 1.5030	32.1814
 1.5020	32.2393
 1.5010	32.2278
 1.5000	32.2321
 1.4990	32.2265
 1.4980	32.2040
 1.4970	32.1776
 1.4960	32.1642
 1.4950	32.1254
 1.4940	32.0654
 1.4930	32.0121
 1.4920	31.9094
 1.4910	31.8420
 1.4900	31.7692
 1.4890	31.6493
 1.4880	31.5189
 1.4870	31.4483
 1.4860	31.3037
 1.4850	31.1194
 1.4840	31.0049
 1.4830	30.9031
 1.4820	30.7374
 1.4810	30.5615
 1.4800	30.3883
 1.4790	30.2224
 1.4780	29.9940
 1.4770	29.8158
 1.4760	29.5609
 1.4750	29.3286
 1.4740	29.0341
 1.4730	28.7508
 1.4720	28.4319
 1.4710	28.0576
 1.4700	27.5574
 1.4690	27.0996
 1.4680	26.6975
 1.4670	26.3195
 1.4660	25.7830
 1.4650	25.3091
 1.4640	24.8524
 1.4630	24.5258
 1.4620	24.2023
 1.4610	23.9851
 1.4600	23.7214
 1.4590	23.5953
 1.4580	23.5091
 1.4570	23.5282
 1.4560	23.5673
 1.4550	23.7258
 1.4540	23.8941
 1.4530	24.2015
 1.4520	24.4906
 1.4510	24.8265
 1.4500	25.2205
 1.4490	25.6368
 1.4480	26.0745
 1.4470	26.6221
 1.4460	27.1246
 1.4450	27.7126
 1.4440	28.3126
 1.4430	28.9717
 1.4420	29.5080
 1.4410	30.1572
 1.4400	30.8086
 1.4390	31.4047
 1.4380	32.0482
 1.4370	32.6826
 1.4360	33.2610
 1.4350	33.8962
 1.4340	34.3557
 1.4330	34.9486
 1.4320	35.4678
 1.4310	35.9055
 1.4300	36.3337
 1.4290	36.8667
 1.4280	37.2242
 1.4270	37.6288
 1.4260	38.0179
 1.4250	38.4126
 1.4240	38.7409
 1.4230	39.1640
 1.4220	39.5119
 1.4210	39.9210
 1.4200	40.2757
 1.4190	40.7210
 1.4180	41.0620
 1.4170	41.4044
 1.4160	41.6667
 1.4150	42.1000
 1.4140	42.2839
 1.4130	42.6444
 1.4120	42.8918
 1.4110	43.2688
 1.4100	43.4761
 1.4090	43.7220
 1.4080	43.9639
 1.4070	44.2274
 1.4060	44.4278
 1.4050	44.6809
 1.4040	44.8337
 1.4030	45.1804
 1.4020	45.3232
 1.4010	45.4479
 1.4000	45.6033
 1.3990	45.8731
 1.3980	45.9107
 1.3970	46.2659
 1.3960	46.3123
 1.3950	46.4940
 1.3940	46.5625
 1.3930	46.7146
 1.3920	46.8157
 1.3910	47.0242
 1.3900	47.0271
 1.3890	47.1139
 1.3880	47.0884
 1.3870	47.2637
 1.3860	47.2462
 1.3850	47.3152
 1.3840	47.3002
 1.3830	47.4610
 1.3820	47.3797
 1.3810	47.4751
 1.3800	47.4727
 1.3790	47.5122
 1.3780	47.4547
 1.3770	47.6292
 1.3760	47.5638
 1.3750	47.6110
 1.3740	47.5991
 1.3730	47.6772
 1.3720	47.6193
 1.3710	47.6769
 1.3700	47.6793
 1.3690	47.8357
 1.3680	47.7770
 1.3670	47.8888
 1.3660	47.9894
