Name: Rutile TiO_2
Type: Mineral
Class: Oxide
Subclass: None
Particle Size: Medium
Sample No.: O-2A
Owner: JPL
Wavelength Range: VSWIR
Origin: Unknown.
Collection Date: N/A
Description: Particle size was 45-125um.Collected by:  JPL Original ASTER Spectral Library name was jpl.perkin.mineral.oxide.none.medium.o02a.spectrum.txt
Measurement: Hemispherical reflectance
First Column: X
Second Column: Y
X Units: Wavelength (micrometers)
Y Units:Reflectance (percent)
First X Value:  2.5000
Last X Value:  0.4000
Number of X Values: 2101
Additional Information: mineral.oxide.none.medium.vswir.o-2a.jpl.perkin.ancillary.txt

 2.5000	34.5061
 2.4990	33.9700
 2.4980	34.2327
 2.4970	34.2625
 2.4960	33.8929
 2.4950	34.2580
 2.4940	34.1804
 2.4930	34.1366
 2.4920	34.2739
 2.4910	34.2012
 2.4900	34.1129
 2.4890	34.1848
 2.4880	34.0965
 2.4870	34.0986
 2.4860	34.2611
 2.4850	33.8974
 2.4840	34.1312
 2.4830	34.1190
 2.4820	34.1516
 2.4810	34.0759
 2.4800	34.0840
 2.4790	34.0870
 2.4780	34.1226
 2.4770	34.0362
 2.4760	34.1720
 2.4750	33.9715
 2.4740	34.1633
 2.4730	34.1339
 2.4720	34.1645
 2.4710	34.0206
 2.4700	34.1610
 2.4690	34.1096
 2.4680	34.0752
 2.4670	33.8994
 2.4660	34.1063
 2.4650	33.9215
 2.4640	34.1839
 2.4630	33.9872
 2.4620	34.0208
 2.4610	34.1320
 2.4600	34.1996
 2.4590	34.0399
 2.4580	34.0929
 2.4570	33.9857
 2.4560	34.1102
 2.4550	34.0456
 2.4540	34.1158
 2.4530	34.0079
 2.4520	34.0752
 2.4510	34.0523
 2.4500	34.1659
 2.4490	34.1167
 2.4480	34.2211
 2.4470	34.0806
 2.4460	34.2072
 2.4450	34.0871
 2.4440	34.1968
 2.4430	34.0158
 2.4420	34.1145
 2.4410	34.1637
 2.4400	34.1466
 2.4390	34.0235
 2.4380	34.2586
 2.4370	34.1769
 2.4360	34.1971
 2.4350	34.0932
 2.4340	34.2238
 2.4330	34.1605
 2.4320	34.1882
 2.4310	34.1951
 2.4300	34.2295
 2.4290	34.1616
 2.4280	34.1774
 2.4270	34.1378
 2.4260	34.1164
 2.4250	34.1347
 2.4240	34.1841
 2.4230	34.1484
 2.4220	34.1661
 2.4210	34.1014
 2.4200	34.2330
 2.4190	34.2057
 2.4180	34.1993
 2.4170	34.1634
 2.4160	34.2221
 2.4150	34.1723
 2.4140	34.1584
 2.4130	34.1369
 2.4120	34.1351
 2.4110	34.0670
 2.4100	34.0138
 2.4090	33.9615
 2.4080	34.0811
 2.4070	33.9437
 2.4060	33.9750
 2.4050	34.0593
 2.4040	33.9947
 2.4030	33.9254
 2.4020	33.9570
 2.4010	33.8464
 2.4000	33.9564
 2.3990	33.9499
 2.3980	33.8737
 2.3970	33.8330
 2.3960	33.8668
 2.3950	33.8247
 2.3940	33.8789
 2.3930	33.7983
 2.3920	33.8110
 2.3910	33.8659
 2.3900	33.8542
 2.3890	33.7640
 2.3880	33.7793
 2.3870	33.8364
 2.3860	33.8350
 2.3850	33.7422
 2.3840	33.7760
 2.3830	33.8433
 2.3820	33.8357
 2.3810	33.8890
 2.3800	33.9048
 2.3790	33.8755
 2.3780	33.8581
 2.3770	33.8461
 2.3760	33.9233
 2.3750	33.8805
 2.3740	33.9085
 2.3730	33.8520
 2.3720	33.8624
 2.3710	33.9216
 2.3700	33.9419
 2.3690	33.9060
 2.3680	33.8855
 2.3670	33.8340
 2.3660	33.8943
 2.3650	33.9712
 2.3640	33.9214
 2.3630	33.8507
 2.3620	33.8620
 2.3610	33.9457
 2.3600	33.9470
 2.3590	33.8790
 2.3580	33.8816
 2.3570	33.9180
 2.3560	33.9612
 2.3550	33.9286
 2.3540	33.9097
 2.3530	33.9379
 2.3520	33.9461
 2.3510	33.8948
 2.3500	33.8974
 2.3490	33.9768
 2.3480	33.8817
 2.3470	33.8265
 2.3460	33.8692
 2.3450	33.8767
 2.3440	33.8477
 2.3430	33.7818
 2.3420	33.7670
 2.3410	33.7788
 2.3400	33.7096
 2.3390	33.7741
 2.3380	33.7292
 2.3370	33.7013
 2.3360	33.6682
 2.3350	33.5953
 2.3340	33.5894
 2.3330	33.6746
 2.3320	33.6191
 2.3310	33.5097
 2.3300	33.4791
 2.3290	33.4669
 2.3280	33.4104
 2.3270	33.3975
 2.3260	33.3227
 2.3250	33.3038
 2.3240	33.2658
 2.3230	33.2745
 2.3220	33.2042
 2.3210	33.2277
 2.3200	33.1570
 2.3190	33.1364
 2.3180	33.0974
 2.3170	33.0823
 2.3160	33.0024
 2.3150	32.9134
 2.3140	32.9291
 2.3130	32.9379
 2.3120	32.8302
 2.3110	33.0797
 2.3100	32.8847
 2.3090	32.7967
 2.3080	32.7091
 2.3070	32.7246
 2.3060	32.6988
 2.3050	32.6996
 2.3040	32.6584
 2.3030	32.6464
 2.3020	32.6630
 2.3010	32.6904
 2.3000	32.6533
 2.2990	32.6926
 2.2980	32.6544
 2.2970	32.6791
 2.2960	32.6849
 2.2950	32.6965
 2.2940	32.6158
 2.2930	32.7041
 2.2920	32.7467
 2.2910	32.7941
 2.2900	32.6956
 2.2890	32.7122
 2.2880	32.7906
 2.2870	32.8460
 2.2860	32.8152
 2.2850	32.8610
 2.2840	32.8169
 2.2830	32.8650
 2.2820	32.9553
 2.2810	32.9372
 2.2800	32.8302
 2.2790	33.0024
 2.2780	32.9373
 2.2770	33.0598
 2.2760	33.0424
 2.2750	33.0714
 2.2740	33.0075
 2.2730	33.1225
 2.2720	32.9720
 2.2710	33.0378
 2.2700	33.0713
 2.2690	33.0541
 2.2680	33.0449
 2.2670	33.1909
 2.2660	33.1019
 2.2650	33.0909
 2.2640	33.1550
 2.2630	33.1757
 2.2620	33.0252
 2.2610	33.1360
 2.2600	33.0308
 2.2590	33.0637
 2.2580	33.0123
 2.2570	33.1214
 2.2560	33.0456
 2.2550	32.9947
 2.2540	32.9922
 2.2530	33.0940
 2.2520	33.0363
 2.2510	33.0171
 2.2500	32.9536
 2.2490	33.0280
 2.2480	32.8994
 2.2470	33.1530
 2.2460	32.9123
 2.2450	32.9771
 2.2440	33.0147
 2.2430	33.0307
 2.2420	32.9392
 2.2410	32.9684
 2.2400	32.9666
 2.2390	32.9971
 2.2380	32.9505
 2.2370	32.8996
 2.2360	32.9484
 2.2350	33.0047
 2.2340	32.8779
 2.2330	33.0235
 2.2320	32.9081
 2.2310	32.9487
 2.2300	32.9317
 2.2290	32.9398
 2.2280	32.9132
 2.2270	32.8606
 2.2260	32.8353
 2.2250	32.9736
 2.2240	32.9096
 2.2230	32.8921
 2.2220	32.8672
 2.2210	32.9188
 2.2200	32.8619
 2.2190	32.9826
 2.2180	32.9163
 2.2170	32.9801
 2.2160	32.8128
 2.2150	32.9630
 2.2140	32.9431
 2.2130	32.9430
 2.2120	32.8604
 2.2110	32.8733
 2.2100	32.9234
 2.2090	32.8972
 2.2080	32.9665
 2.2070	32.9092
 2.2060	32.9002
 2.2050	32.9170
 2.2040	32.8619
 2.2030	32.9120
 2.2020	32.8926
 2.2010	32.9331
 2.2000	32.8790
 2.1990	32.8363
 2.1980	32.8459
 2.1970	32.9642
 2.1960	32.9087
 2.1950	33.0003
 2.1940	32.8387
 2.1930	32.8491
 2.1920	32.8231
 2.1910	33.0002
 2.1900	32.8335
 2.1890	32.8426
 2.1880	32.8758
 2.1870	32.9990
 2.1860	32.9180
 2.1850	32.8977
 2.1840	32.8233
 2.1830	32.8709
 2.1820	32.7615
 2.1810	32.9114
 2.1800	32.8256
 2.1790	32.8387
 2.1780	32.8170
 2.1770	32.9297
 2.1760	32.8639
 2.1750	32.9001
 2.1740	32.8575
 2.1730	32.9387
 2.1720	32.8782
 2.1710	32.8885
 2.1700	32.8553
 2.1690	32.8304
 2.1680	32.8394
 2.1670	32.8481
 2.1660	32.7877
 2.1650	32.9470
 2.1640	32.8287
 2.1630	32.9245
 2.1620	32.8320
 2.1610	33.0137
 2.1600	32.8625
 2.1590	32.8989
 2.1580	32.8406
 2.1570	32.8954
 2.1560	32.9412
 2.1550	32.9062
 2.1540	32.8098
 2.1530	32.9309
 2.1520	32.8472
 2.1510	32.8925
 2.1500	32.8955
 2.1490	32.8468
 2.1480	32.8676
 2.1470	32.8941
 2.1460	32.8525
 2.1450	32.8618
 2.1440	32.8632
 2.1430	32.8068
 2.1420	32.8004
 2.1410	32.8500
 2.1400	32.7345
 2.1390	32.7743
 2.1380	32.7322
 2.1370	32.7488
 2.1360	32.6852
 2.1350	32.7396
 2.1340	32.6769
 2.1330	32.6951
 2.1320	32.5806
 2.1310	32.6960
 2.1300	32.6313
 2.1290	32.5979
 2.1280	32.5809
 2.1270	32.5916
 2.1260	32.5278
 2.1250	32.5114
 2.1240	32.4109
 2.1230	32.4260
 2.1220	32.4201
 2.1210	32.4716
 2.1200	32.3890
 2.1190	32.3926
 2.1180	32.3203
 2.1170	32.3349
 2.1160	32.2738
 2.1150	32.2800
 2.1140	32.2374
 2.1130	32.2206
 2.1120	32.1370
 2.1110	32.1314
 2.1100	32.0585
 2.1090	32.1139
 2.1080	32.1030
 2.1070	32.0593
 2.1060	31.9826
 2.1050	32.0390
 2.1040	31.9869
 2.1030	31.9292
 2.1020	31.9191
 2.1010	31.9662
 2.1000	31.9361
 2.0990	31.9316
 2.0980	31.9160
 2.0970	31.8587
 2.0960	31.8649
 2.0950	31.8634
 2.0940	31.8462
 2.0930	31.8913
 2.0920	31.8411
 2.0910	31.8188
 2.0900	31.8348
 2.0890	31.8275
 2.0880	31.8163
 2.0870	31.8555
 2.0860	31.8375
 2.0850	31.8401
 2.0840	31.8356
 2.0830	31.8105
 2.0820	31.7989
 2.0810	31.8276
 2.0800	31.8477
 2.0790	31.8284
 2.0780	31.7685
 2.0770	31.7581
 2.0760	31.7375
 2.0750	31.7386
 2.0740	31.7843
 2.0730	31.8104
 2.0720	31.7764
 2.0710	31.7412
 2.0700	31.7302
 2.0690	31.7352
 2.0680	31.7713
 2.0670	31.7895
 2.0660	31.7738
 2.0650	31.7580
 2.0640	31.7492
 2.0630	31.7249
 2.0620	31.7365
 2.0610	31.6994
 2.0600	31.7254
 2.0590	31.7261
 2.0580	31.6894
 2.0570	31.6725
 2.0560	31.7046
 2.0550	31.7357
 2.0540	31.7417
 2.0530	31.6963
 2.0520	31.7418
 2.0510	31.6746
 2.0500	31.6439
 2.0490	31.6592
 2.0480	31.6968
 2.0470	31.7081
 2.0460	31.6849
 2.0450	31.6603
 2.0440	31.6866
 2.0430	31.5660
 2.0420	31.6208
 2.0410	31.5723
 2.0400	31.6053
 2.0390	31.6582
 2.0380	31.6056
 2.0370	31.6335
 2.0360	31.6295
 2.0350	31.5210
 2.0340	31.5710
 2.0330	31.5485
 2.0320	31.5777
 2.0310	31.5732
 2.0300	31.5464
 2.0290	31.5400
 2.0280	31.5188
 2.0270	31.5289
 2.0260	31.5483
 2.0250	31.4724
 2.0240	31.5010
 2.0230	31.5267
 2.0220	31.5345
 2.0210	31.5300
 2.0200	31.5450
 2.0190	31.4247
 2.0180	31.5297
 2.0170	31.4790
 2.0160	31.4451
 2.0150	31.4328
 2.0140	31.5038
 2.0130	31.4469
 2.0120	31.4690
 2.0110	31.3307
 2.0100	31.4051
 2.0090	31.3622
 2.0080	31.3794
 2.0070	31.3690
 2.0060	31.2472
 2.0050	31.2487
 2.0040	31.3801
 2.0030	31.3219
 2.0020	31.3316
 2.0010	31.2767
 2.0000	31.3599
 1.9990	31.3333
 1.9980	31.2386
 1.9970	31.1399
 1.9960	31.1874
 1.9950	31.2031
 1.9940	31.2746
 1.9930	31.1196
 1.9920	31.1408
 1.9910	31.1573
 1.9900	31.1763
 1.9890	31.1672
 1.9880	31.1953
 1.9870	31.0511
 1.9860	31.0911
 1.9850	31.0218
 1.9840	31.1293
 1.9830	31.0437
 1.9820	31.0916
 1.9810	31.0822
 1.9800	31.1365
 1.9790	30.9360
 1.9780	30.9998
 1.9770	30.9722
 1.9760	30.9685
 1.9750	30.8957
 1.9740	31.0392
 1.9730	30.9245
 1.9720	30.9691
 1.9710	30.8956
 1.9700	30.9875
 1.9690	30.9317
 1.9680	30.9140
 1.9670	30.8470
 1.9660	30.9141
 1.9650	30.8247
 1.9640	30.9424
 1.9630	30.8846
 1.9620	30.8552
 1.9610	30.7366
 1.9600	30.9013
 1.9590	30.7884
 1.9580	30.9092
 1.9570	30.7286
 1.9560	30.8199
 1.9550	30.7872
 1.9540	30.8268
 1.9530	30.6824
 1.9520	30.7237
 1.9510	30.7548
 1.9500	30.7990
 1.9490	30.6713
 1.9480	30.7798
 1.9470	30.6751
 1.9460	30.7617
 1.9450	30.6092
 1.9440	30.7317
 1.9430	30.6450
 1.9420	30.7486
 1.9410	30.6373
 1.9400	30.7060
 1.9390	30.6190
 1.9380	30.6802
 1.9370	30.6189
 1.9360	30.7179
 1.9350	30.5690
 1.9340	30.6856
 1.9330	30.5032
 1.9320	30.6693
 1.9310	30.4645
 1.9300	30.6637
 1.9290	30.5053
 1.9280	30.6217
 1.9270	30.5819
 1.9260	30.4030
 1.9250	30.4363
 1.9240	30.5917
 1.9230	30.4656
 1.9220	30.6083
 1.9210	30.4183
 1.9200	30.5839
 1.9190	30.3718
 1.9180	30.5585
 1.9170	30.3400
 1.9160	30.4870
 1.9150	30.3604
 1.9140	30.5431
 1.9130	30.4394
 1.9120	30.4988
 1.9110	30.3304
 1.9100	30.4137
 1.9090	30.3537
 1.9080	30.4746
 1.9070	30.3774
 1.9060	30.4339
 1.9050	30.3296
 1.9040	30.4637
 1.9030	30.3719
 1.9020	30.4474
 1.9010	30.3498
 1.9000	30.3717
 1.8990	30.3337
 1.8980	30.3159
 1.8970	30.2899
 1.8960	30.4435
 1.8950	30.2998
 1.8940	30.4187
 1.8930	30.3458
 1.8920	30.4206
 1.8910	30.3221
 1.8900	30.3633
 1.8890	30.2515
 1.8880	30.3873
 1.8870	30.2800
 1.8860	30.3672
 1.8850	30.3115
 1.8840	30.3958
 1.8830	30.2688
 1.8820	30.2381
 1.8810	30.2236
 1.8800	30.2800
 1.8790	30.2878
 1.8780	30.3287
 1.8770	30.2379
 1.8760	30.3541
 1.8750	30.1959
 1.8740	30.2420
 1.8730	30.2014
 1.8720	30.3016
 1.8710	30.0928
 1.8700	30.1521
 1.8690	30.1048
 1.8680	30.2034
 1.8670	30.1568
 1.8660	30.1632
 1.8650	30.1289
 1.8640	30.1776
 1.8630	30.1117
 1.8620	30.1683
 1.8610	30.1205
 1.8600	30.0951
 1.8590	30.0457
 1.8580	30.1031
 1.8570	29.9942
 1.8560	30.0979
 1.8550	30.0688
 1.8540	30.1412
 1.8530	30.0534
 1.8520	30.0616
 1.8510	30.0116
 1.8500	30.0425
 1.8490	29.9807
 1.8480	29.9945
 1.8470	29.9569
 1.8460	29.9880
 1.8450	29.9224
 1.8440	29.9421
 1.8430	29.9507
 1.8420	30.0546
 1.8410	30.0049
 1.8400	29.9325
 1.8390	29.9157
 1.8380	29.9140
 1.8370	29.8458
 1.8360	29.8810
 1.8350	29.8530
 1.8340	29.8671
 1.8330	29.8794
 1.8320	29.8934
 1.8310	29.8458
 1.8300	29.7956
 1.8290	29.8290
 1.8280	29.8581
 1.8270	29.8440
 1.8260	29.8342
 1.8250	29.7299
 1.8240	29.7974
 1.8230	29.8708
 1.8220	29.7980
 1.8210	29.7182
 1.8200	29.7070
 1.8190	29.6845
 1.8180	29.7437
 1.8170	29.7316
 1.8160	29.7553
 1.8150	29.7150
 1.8140	29.7001
 1.8130	29.6697
 1.8120	29.6860
 1.8110	29.6232
 1.8100	29.6637
 1.8090	29.6765
 1.8080	29.6690
 1.8070	29.6754
 1.8060	29.6168
 1.8050	29.6116
 1.8040	29.6470
 1.8030	29.5800
 1.8020	29.5949
 1.8010	29.5792
 1.8000	29.5753
 1.7990	29.5511
 1.7980	29.5286
 1.7970	29.5879
 1.7960	29.5595
 1.7950	29.4781
 1.7940	29.5144
 1.7930	29.5550
 1.7920	29.5262
 1.7910	29.4629
 1.7900	29.4503
 1.7890	29.4291
 1.7880	29.4200
 1.7870	29.4417
 1.7860	29.4551
 1.7850	29.4181
 1.7840	29.3840
 1.7830	29.4154
 1.7820	29.3811
 1.7810	29.3287
 1.7800	29.3160
 1.7790	29.3965
 1.7780	29.4210
 1.7770	29.3283
 1.7760	29.2601
 1.7750	29.2639
 1.7740	29.2789
 1.7730	29.3072
 1.7720	29.2607
 1.7710	29.2385
 1.7700	29.2587
 1.7690	29.2868
 1.7680	29.1819
 1.7670	29.1532
 1.7660	29.2038
 1.7650	29.2734
 1.7640	29.1871
 1.7630	29.1832
 1.7620	29.1839
 1.7610	29.1142
 1.7600	29.1162
 1.7590	29.1286
 1.7580	29.1237
 1.7570	29.1318
 1.7560	29.1479
 1.7550	29.0770
 1.7540	29.0506
 1.7530	29.0789
 1.7520	28.9915
 1.7510	29.0978
 1.7500	29.0499
 1.7490	29.0446
 1.7480	29.0004
 1.7470	29.0143
 1.7460	28.9970
 1.7450	29.0108
 1.7440	28.9713
 1.7430	29.0055
 1.7420	28.9551
 1.7410	29.0001
 1.7400	28.9600
 1.7390	28.9793
 1.7380	28.9617
 1.7370	28.9410
 1.7360	28.9131
 1.7350	28.9545
 1.7340	28.9270
 1.7330	28.8344
 1.7320	28.8581
 1.7310	28.9519
 1.7300	28.9125
 1.7290	28.9234
 1.7280	28.8912
 1.7270	28.8869
 1.7260	28.8625
 1.7250	28.8885
 1.7240	28.8334
 1.7230	28.8322
 1.7220	28.8177
 1.7210	28.8136
 1.7200	28.7424
 1.7190	28.8173
 1.7180	28.7598
 1.7170	28.8021
 1.7160	28.7375
 1.7150	28.7457
 1.7140	28.7052
 1.7130	28.7104
 1.7120	28.7063
 1.7110	28.7462
 1.7100	28.7660
 1.7090	28.7361
 1.7080	28.5862
 1.7070	28.7238
 1.7060	28.6606
 1.7050	28.6947
 1.7040	28.6398
 1.7030	28.6626
 1.7020	28.5952
 1.7010	28.6953
 1.7000	28.5212
 1.6990	28.5845
 1.6980	28.5751
 1.6970	28.5825
 1.6960	28.5090
 1.6950	28.5995
 1.6940	28.5566
 1.6930	28.5848
 1.6920	28.5588
 1.6910	28.6378
 1.6900	28.4452
 1.6890	28.5189
 1.6880	28.4553
 1.6870	28.4975
 1.6860	28.4890
 1.6850	28.5207
 1.6840	28.5114
 1.6830	28.5163
 1.6820	28.4511
 1.6810	28.4683
 1.6800	28.3296
 1.6790	28.4683
 1.6780	28.4075
 1.6770	28.4287
 1.6760	28.4260
 1.6750	28.4605
 1.6740	28.3865
 1.6730	28.4612
 1.6720	28.3140
 1.6710	28.4006
 1.6700	28.3512
 1.6690	28.3871
 1.6680	28.2476
 1.6670	28.4565
 1.6660	28.3718
 1.6650	28.4476
 1.6640	28.3675
 1.6630	28.3116
 1.6620	28.3738
 1.6610	28.3162
 1.6600	28.2893
 1.6590	28.3722
 1.6580	28.2536
 1.6570	28.3942
 1.6560	28.2358
 1.6550	28.3165
 1.6540	28.2297
 1.6530	28.2380
 1.6520	28.2962
 1.6510	28.2744
 1.6500	28.2415
 1.6490	28.2445
 1.6480	28.1657
 1.6470	28.2418
 1.6460	28.2411
 1.6450	28.2299
 1.6440	28.1238
 1.6430	28.2744
 1.6420	28.2971
 1.6410	28.2002
 1.6400	28.1345
 1.6390	28.1854
 1.6380	28.1181
 1.6370	28.1341
 1.6360	28.1542
 1.6350	28.1324
 1.6340	28.1241
 1.6330	28.1128
 1.6320	28.0718
 1.6310	28.1731
 1.6300	28.0373
 1.6290	28.1311
 1.6280	28.0422
 1.6270	28.0914
 1.6260	28.0174
 1.6250	28.1796
 1.6240	27.9801
 1.6230	28.0902
 1.6220	28.0859
 1.6210	28.0971
 1.6200	27.9774
 1.6190	28.0760
 1.6180	28.0795
 1.6170	28.0119
 1.6160	28.0218
 1.6150	28.0031
 1.6140	27.9559
 1.6130	28.0354
 1.6120	27.9538
 1.6110	28.0091
 1.6100	27.9935
 1.6090	28.0681
 1.6080	28.0105
 1.6070	27.9719
 1.6060	27.9799
 1.6050	28.0452
 1.6040	27.8978
 1.6030	27.9360
 1.6020	27.9220
 1.6010	27.9773
 1.6000	27.9115
 1.5990	27.9085
 1.5980	27.9518
 1.5970	28.0447
 1.5960	27.8643
 1.5950	27.9106
 1.5940	27.8508
 1.5930	27.9358
 1.5920	27.8945
 1.5910	27.9160
 1.5900	27.8203
 1.5890	27.9252
 1.5880	27.8422
 1.5870	27.8958
 1.5860	27.8037
 1.5850	27.8787
 1.5840	27.8387
 1.5830	27.8770
 1.5820	27.7759
 1.5810	27.8178
 1.5800	27.8201
 1.5790	27.8464
 1.5780	27.7853
 1.5770	27.8599
 1.5760	27.7350
 1.5750	27.8372
 1.5740	27.8543
 1.5730	27.8173
 1.5720	27.8177
 1.5710	27.8115
 1.5700	27.7720
 1.5690	27.8091
 1.5680	27.7315
 1.5670	27.7857
 1.5660	27.7642
 1.5650	27.8435
 1.5640	27.7537
 1.5630	27.8169
 1.5620	27.7021
 1.5610	27.6878
 1.5600	27.6847
 1.5590	27.7847
 1.5580	27.6745
 1.5570	27.6937
 1.5560	27.6634
 1.5550	27.7423
 1.5540	27.7271
 1.5530	27.7476
 1.5520	27.6775
 1.5510	27.7441
 1.5500	27.7035
 1.5490	27.7085
 1.5480	27.6402
 1.5470	27.6972
 1.5460	27.6612
 1.5450	27.6877
 1.5440	27.6313
 1.5430	27.6973
 1.5420	27.6738
 1.5410	27.6494
 1.5400	27.5640
 1.5390	27.6357
 1.5380	27.6574
 1.5370	27.6653
 1.5360	27.6465
 1.5350	27.6403
 1.5340	27.5780
 1.5330	27.6213
 1.5320	27.5965
 1.5310	27.5942
 1.5300	27.5826
 1.5290	27.6476
 1.5280	27.6177
 1.5270	27.6220
 1.5260	27.6233
 1.5250	27.6024
 1.5240	27.5323
 1.5230	27.5974
 1.5220	27.5826
 1.5210	27.5813
 1.5200	27.5804
 1.5190	27.5551
 1.5180	27.6099
 1.5170	27.6046
 1.5160	27.5602
 1.5150	27.5429
 1.5140	27.5583
 1.5130	27.5590
 1.5120	27.4891
 1.5110	27.5107
 1.5100	27.4916
 1.5090	27.5068
 1.5080	27.5339
 1.5070	27.5223
 1.5060	27.4912
 1.5050	27.4916
 1.5040	27.4719
 1.5030	27.4700
 1.5020	27.4890
 1.5010	27.5373
 1.5000	27.5589
 1.4990	27.5158
 1.4980	27.4584
 1.4970	27.4790
 1.4960	27.4832
 1.4950	27.4731
 1.4940	27.4926
 1.4930	27.4779
 1.4920	27.4691
 1.4910	27.4281
 1.4900	27.4688
 1.4890	27.4645
 1.4880	27.4556
 1.4870	27.4578
 1.4860	27.4542
 1.4850	27.4585
 1.4840	27.4684
 1.4830	27.4361
 1.4820	27.4726
 1.4810	27.4801
 1.4800	27.4110
 1.4790	27.3745
 1.4780	27.4004
 1.4770	27.4107
 1.4760	27.4400
 1.4750	27.4599
 1.4740	27.4570
 1.4730	27.4409
 1.4720	27.3904
 1.4710	27.3691
 1.4700	27.4201
 1.4690	27.3862
 1.4680	27.3708
 1.4670	27.3856
 1.4660	27.4174
 1.4650	27.3632
 1.4640	27.3854
 1.4630	27.3918
 1.4620	27.4324
 1.4610	27.3945
 1.4600	27.4077
 1.4590	27.3996
 1.4580	27.4127
 1.4570	27.3319
 1.4560	27.3908
 1.4550	27.3661
 1.4540	27.4041
 1.4530	27.4047
 1.4520	27.4036
 1.4510	27.3524
 1.4500	27.3497
 1.4490	27.2986
 1.4480	27.3280
 1.4470	27.3446
 1.4460	27.3356
 1.4450	27.2663
 1.4440	27.2576
 1.4430	27.2459
 1.4420	27.3020
 1.4410	27.2959
 1.4400	27.3579
 1.4390	27.3175
 1.4380	27.3150
 1.4370	27.2575
 1.4360	27.3512
 1.4350	27.2276
 1.4340	27.2352
 1.4330	27.2421
 1.4320	27.2990
 1.4310	27.1941
 1.4300	27.3330
 1.4290	27.2670
 1.4280	27.2598
 1.4270	27.2169
 1.4260	27.2501
 1.4250	27.1899
 1.4240	27.2774
 1.4230	27.2071
 1.4220	27.2878
 1.4210	27.2195
 1.4200	27.2555
 1.4190	27.2062
 1.4180	27.2709
 1.4170	27.1843
 1.4160	27.2141
 1.4150	27.1774
 1.4140	27.1924
 1.4130	27.1792
 1.4120	27.2124
 1.4110	27.1881
 1.4100	27.2457
 1.4090	27.1804
 1.4080	27.1577
 1.4070	27.0675
 1.4060	27.1452
 1.4050	27.0665
 1.4040	27.1513
 1.4030	27.0279
 1.4020	27.1575
 1.4010	26.9981
 1.4000	26.9637
 1.3990	26.8663
 1.3980	27.0251
 1.3970	26.9808
 1.3960	27.0527
 1.3950	26.9522
 1.3940	26.9544
 1.3930	26.7773
 1.3920	26.9439
 1.3910	26.9541
 1.3900	27.1125
 1.3890	27.0529
 1.3880	27.1923
 1.3870	27.1359
 1.3860	27.2169
 1.3850	27.0773
 1.3840	27.1511
 1.3830	27.0120
 1.3820	27.0528
 1.3810	27.0317
 1.3800	27.0623
 1.3790	27.0463
 1.3780	27.1216
 1.3770	27.0182
 1.3760	27.1100
 1.3750	27.0846
 1.3740	27.1356
 1.3730	27.0173
 1.3720	27.2080
 1.3710	27.0334
 1.3700	27.1434
 1.3690	27.0257
 1.3680	27.1182
 1.3670	27.0520
 1.3660	26.9616
 1.3650	27.0387
 1.3640	27.1360
 1.3630	27.0744
