Name: Enstatite Mg_2(SiO_3)_2
Type: Mineral
Class: Silicate
Subclass: Inosilicate
Particle Size: Fine
Sample No.: IN-10B
Owner: JPL
Wavelength Range: VSWIR
Origin: Norway, Telemark.
Collection Date: N/A
Description: Particle size was 0-45um.Collected by:  Burminco Original ASTER Spectral Library name was jpl.perkin.mineral.silicate.inosilicate.fine.in10b.spectrum.txt
Measurement: Hemispherical reflectance
First Column: X
Second Column: Y
X Units: Wavelength (micrometers)
Y Units:Reflectance (percent)
First X Value:  2.5000
Last X Value:  0.4000
Number of X Values: 2101
Additional Information: mineral.silicate.inosilicate.fine.vswir.in-10b.jpl.perkin.ancillary.txt

 2.5000	35.1335
 2.4990	35.0977
 2.4980	35.3695
 2.4970	35.5100
 2.4960	35.0924
 2.4950	35.3736
 2.4940	35.2848
 2.4930	35.2360
 2.4920	35.1002
 2.4910	35.3478
 2.4900	35.1383
 2.4890	35.3194
 2.4880	35.1411
 2.4870	35.2361
 2.4860	35.2227
 2.4850	35.2576
 2.4840	35.0170
 2.4830	35.1220
 2.4820	35.0535
 2.4810	35.1417
 2.4800	35.0243
 2.4790	35.1225
 2.4780	35.0921
 2.4770	35.1759
 2.4760	34.9901
 2.4750	34.9709
 2.4740	34.8915
 2.4730	35.0082
 2.4720	35.0389
 2.4710	34.9331
 2.4700	34.9748
 2.4690	35.1223
 2.4680	34.9611
 2.4670	34.9175
 2.4660	34.8073
 2.4650	35.0543
 2.4640	34.9403
 2.4630	34.9351
 2.4620	34.9152
 2.4610	34.9277
 2.4600	34.8187
 2.4590	34.8830
 2.4580	34.8924
 2.4570	34.8995
 2.4560	34.9138
 2.4550	34.8172
 2.4540	34.7707
 2.4530	34.9226
 2.4520	34.7943
 2.4510	34.9605
 2.4500	34.8205
 2.4490	34.9239
 2.4480	34.8808
 2.4470	34.9174
 2.4460	34.7494
 2.4450	34.9304
 2.4440	34.7634
 2.4430	34.8641
 2.4420	34.8982
 2.4410	34.8634
 2.4400	34.8285
 2.4390	34.8721
 2.4380	34.7851
 2.4370	34.7876
 2.4360	34.7343
 2.4350	34.8500
 2.4340	34.7295
 2.4330	34.8710
 2.4320	34.7740
 2.4310	34.8170
 2.4300	34.7974
 2.4290	34.8496
 2.4280	34.7256
 2.4270	34.8005
 2.4260	34.6539
 2.4250	34.7653
 2.4240	34.6165
 2.4230	34.8450
 2.4220	34.7327
 2.4210	34.6973
 2.4200	34.6619
 2.4190	34.7668
 2.4180	34.6682
 2.4170	34.7017
 2.4160	34.6677
 2.4150	34.6253
 2.4140	34.6822
 2.4130	34.7024
 2.4120	34.5995
 2.4110	34.5515
 2.4100	34.5039
 2.4090	34.5480
 2.4080	34.5637
 2.4070	34.5629
 2.4060	34.4660
 2.4050	34.4902
 2.4040	34.4420
 2.4030	34.4095
 2.4020	34.3740
 2.4010	34.4250
 2.4000	34.4181
 2.3990	34.3997
 2.3980	34.3156
 2.3970	34.3464
 2.3960	34.2603
 2.3950	34.2576
 2.3940	34.2569
 2.3930	34.3091
 2.3920	34.2488
 2.3910	34.2433
 2.3900	34.2288
 2.3890	34.2687
 2.3880	34.1397
 2.3870	34.1872
 2.3860	34.2479
 2.3850	34.2250
 2.3840	34.1958
 2.3830	34.2305
 2.3820	34.2239
 2.3810	34.2498
 2.3800	34.2566
 2.3790	34.2495
 2.3780	34.2630
 2.3770	34.3694
 2.3760	34.4080
 2.3750	34.3726
 2.3740	34.3610
 2.3730	34.4240
 2.3720	34.4489
 2.3710	34.4920
 2.3700	34.5395
 2.3690	34.5821
 2.3680	34.5416
 2.3670	34.5701
 2.3660	34.5982
 2.3650	34.5940
 2.3640	34.6391
 2.3630	34.6528
 2.3620	34.6232
 2.3610	34.6425
 2.3600	34.6743
 2.3590	34.7621
 2.3580	34.7767
 2.3570	34.7285
 2.3560	34.7564
 2.3550	34.7743
 2.3540	34.7369
 2.3530	34.7298
 2.3520	34.7852
 2.3510	34.8004
 2.3500	34.7859
 2.3490	34.7810
 2.3480	34.7952
 2.3470	34.7638
 2.3460	34.7650
 2.3450	34.7730
 2.3440	34.8167
 2.3430	34.8042
 2.3420	34.7943
 2.3410	34.8000
 2.3400	34.7652
 2.3390	34.7630
 2.3380	34.7526
 2.3370	34.6937
 2.3360	34.7141
 2.3350	34.7128
 2.3340	34.7034
 2.3330	34.6691
 2.3320	34.6560
 2.3310	34.6202
 2.3300	34.6127
 2.3290	34.5295
 2.3280	34.4946
 2.3270	34.4733
 2.3260	34.4118
 2.3250	34.3392
 2.3240	34.3263
 2.3230	34.2833
 2.3220	34.1931
 2.3210	34.0936
 2.3200	34.0794
 2.3190	33.9990
 2.3180	33.9903
 2.3170	33.9063
 2.3160	33.7990
 2.3150	33.7154
 2.3140	33.7037
 2.3130	33.6716
 2.3120	33.6120
 2.3110	33.5855
 2.3100	33.5283
 2.3090	33.5331
 2.3080	33.5953
 2.3070	33.5247
 2.3060	33.5083
 2.3050	33.4743
 2.3040	33.5307
 2.3030	33.5125
 2.3020	33.6048
 2.3010	33.5808
 2.3000	33.5891
 2.2990	33.6445
 2.2980	33.6824
 2.2970	33.6908
 2.2960	33.7294
 2.2950	33.7198
 2.2940	33.7563
 2.2930	33.7897
 2.2920	33.8457
 2.2910	33.8139
 2.2900	33.9451
 2.2890	33.9298
 2.2880	33.9886
 2.2870	34.0155
 2.2860	34.1194
 2.2850	34.1048
 2.2840	34.1429
 2.2830	34.0820
 2.2820	34.2207
 2.2810	34.1642
 2.2800	34.2827
 2.2790	34.3047
 2.2780	34.3871
 2.2770	34.3925
 2.2760	34.4623
 2.2750	34.3863
 2.2740	34.5016
 2.2730	34.5082
 2.2720	34.5122
 2.2710	34.5227
 2.2700	34.5903
 2.2690	34.5248
 2.2680	34.5054
 2.2670	34.5499
 2.2660	34.6246
 2.2650	34.5425
 2.2640	34.6512
 2.2630	34.6676
 2.2620	34.6702
 2.2610	34.6362
 2.2600	34.7169
 2.2590	34.6803
 2.2580	34.7511
 2.2570	34.7787
 2.2560	34.8011
 2.2550	34.7293
 2.2540	34.7947
 2.2530	34.7722
 2.2520	34.7784
 2.2510	34.7477
 2.2500	34.7893
 2.2490	34.8169
 2.2480	34.8626
 2.2470	34.7852
 2.2460	34.7665
 2.2450	34.7641
 2.2440	34.8558
 2.2430	34.7759
 2.2420	34.7915
 2.2410	34.8315
 2.2400	34.8345
 2.2390	34.7918
 2.2380	34.7843
 2.2370	34.7929
 2.2360	34.8555
 2.2350	34.7767
 2.2340	34.9270
 2.2330	34.7495
 2.2320	34.8447
 2.2310	34.7970
 2.2300	34.8963
 2.2290	34.8403
 2.2280	34.8796
 2.2270	34.8004
 2.2260	34.8532
 2.2250	34.8488
 2.2240	34.8985
 2.2230	34.8248
 2.2220	34.9208
 2.2210	34.7826
 2.2200	34.8817
 2.2190	34.8429
 2.2180	34.9567
 2.2170	34.8607
 2.2160	34.9290
 2.2150	34.8647
 2.2140	34.8780
 2.2130	34.7740
 2.2120	34.9753
 2.2110	34.7983
 2.2100	34.9628
 2.2090	34.8399
 2.2080	35.0474
 2.2070	34.8992
 2.2060	34.9428
 2.2050	34.8681
 2.2040	34.9857
 2.2030	34.8923
 2.2020	34.9313
 2.2010	34.9063
 2.2000	35.0294
 2.1990	34.9372
 2.1980	34.9523
 2.1970	34.9965
 2.1960	34.9645
 2.1950	34.9951
 2.1940	35.0278
 2.1930	35.0040
 2.1920	34.9244
 2.1910	34.9463
 2.1900	34.9536
 2.1890	34.9614
 2.1880	35.0252
 2.1870	34.9370
 2.1860	34.9427
 2.1850	34.9451
 2.1840	34.9912
 2.1830	34.9055
 2.1820	35.0227
 2.1810	34.9493
 2.1800	35.0150
 2.1790	34.9623
 2.1780	35.0266
 2.1770	34.9690
 2.1760	35.1074
 2.1750	34.9576
 2.1740	35.0465
 2.1730	35.0104
 2.1720	35.0407
 2.1710	35.0262
 2.1700	35.0589
 2.1690	34.9531
 2.1680	34.9938
 2.1670	35.0146
 2.1660	35.0400
 2.1650	34.9872
 2.1640	35.0929
 2.1630	35.0176
 2.1620	35.0018
 2.1610	35.0318
 2.1600	35.0898
 2.1590	34.9581
 2.1580	35.0300
 2.1570	35.0044
 2.1560	35.0772
 2.1550	35.0204
 2.1540	35.0726
 2.1530	35.0300
 2.1520	35.0720
 2.1510	35.0714
 2.1500	35.0763
 2.1490	34.9845
 2.1480	35.0531
 2.1470	35.0220
 2.1460	35.0184
 2.1450	34.9134
 2.1440	34.9578
 2.1430	34.8532
 2.1420	34.9446
 2.1410	34.9163
 2.1400	34.9522
 2.1390	34.9048
 2.1380	34.9050
 2.1370	34.8917
 2.1360	34.8434
 2.1350	34.7893
 2.1340	34.7533
 2.1330	34.7784
 2.1320	34.7599
 2.1310	34.6704
 2.1300	34.7446
 2.1290	34.6599
 2.1280	34.6765
 2.1270	34.5921
 2.1260	34.6431
 2.1250	34.5795
 2.1240	34.5494
 2.1230	34.4570
 2.1220	34.4745
 2.1210	34.3854
 2.1200	34.3988
 2.1190	34.3285
 2.1180	34.3972
 2.1170	34.3420
 2.1160	34.2826
 2.1150	34.2433
 2.1140	34.2697
 2.1130	34.1833
 2.1120	34.1408
 2.1110	34.1275
 2.1100	34.1127
 2.1090	34.0527
 2.1080	34.0122
 2.1070	34.0087
 2.1060	33.9951
 2.1050	33.9088
 2.1040	33.9252
 2.1030	33.9033
 2.1020	33.8360
 2.1010	33.7852
 2.1000	33.7374
 2.0990	33.7203
 2.0980	33.7033
 2.0970	33.7305
 2.0960	33.7605
 2.0950	33.6738
 2.0940	33.6669
 2.0930	33.6845
 2.0920	33.6977
 2.0910	33.7209
 2.0900	33.7290
 2.0890	33.6542
 2.0880	33.6549
 2.0870	33.6699
 2.0860	33.6523
 2.0850	33.5588
 2.0840	33.5410
 2.0830	33.5550
 2.0820	33.5422
 2.0810	33.5228
 2.0800	33.5388
 2.0790	33.5382
 2.0780	33.5062
 2.0770	33.4861
 2.0760	33.4950
 2.0750	33.5139
 2.0740	33.4580
 2.0730	33.4191
 2.0720	33.4209
 2.0710	33.4195
 2.0700	33.4079
 2.0690	33.3495
 2.0680	33.3302
 2.0670	33.3617
 2.0660	33.3648
 2.0650	33.3692
 2.0640	33.3156
 2.0630	33.2969
 2.0620	33.3076
 2.0610	33.3016
 2.0600	33.2860
 2.0590	33.2415
 2.0580	33.2208
 2.0570	33.2397
 2.0560	33.2070
 2.0550	33.1883
 2.0540	33.1525
 2.0530	33.1402
 2.0520	33.1306
 2.0510	33.1467
 2.0500	33.1439
 2.0490	33.1334
 2.0480	33.0771
 2.0470	33.0587
 2.0460	33.0376
 2.0450	33.0386
 2.0440	33.0436
 2.0430	33.0181
 2.0420	32.9595
 2.0410	32.9283
 2.0400	32.8943
 2.0390	32.8962
 2.0380	32.8717
 2.0370	32.8676
 2.0360	32.8555
 2.0350	32.8310
 2.0340	32.8243
 2.0330	32.8506
 2.0320	32.8212
 2.0310	32.7861
 2.0300	32.7543
 2.0290	32.7206
 2.0280	32.6464
 2.0270	32.7131
 2.0260	32.6958
 2.0250	32.6652
 2.0240	32.5993
 2.0230	32.6119
 2.0220	32.6114
 2.0210	32.6263
 2.0200	32.4907
 2.0190	32.5359
 2.0180	32.4912
 2.0170	32.4829
 2.0160	32.4688
 2.0150	32.5092
 2.0140	32.3833
 2.0130	32.3634
 2.0120	32.3128
 2.0110	32.4032
 2.0100	32.3661
 2.0090	32.3845
 2.0080	32.2829
 2.0070	32.2922
 2.0060	32.2655
 2.0050	32.2238
 2.0040	32.1946
 2.0030	32.2245
 2.0020	32.1456
 2.0010	32.2060
 2.0000	32.1051
 1.9990	32.0975
 1.9980	32.0547
 1.9970	32.0614
 1.9960	32.0193
 1.9950	32.0186
 1.9940	31.9641
 1.9930	32.0216
 1.9920	31.9633
 1.9910	31.9650
 1.9900	31.8944
 1.9890	31.8855
 1.9880	31.7990
 1.9870	31.8770
 1.9860	31.8021
 1.9850	31.8262
 1.9840	31.7606
 1.9830	31.6872
 1.9820	31.6354
 1.9810	31.7002
 1.9800	31.6268
 1.9790	31.6753
 1.9780	31.5881
 1.9770	31.6424
 1.9760	31.5924
 1.9750	31.6149
 1.9740	31.5625
 1.9730	31.6105
 1.9720	31.5154
 1.9710	31.5318
 1.9700	31.4983
 1.9690	31.4861
 1.9680	31.4118
 1.9670	31.4302
 1.9660	31.4279
 1.9650	31.4990
 1.9640	31.3652
 1.9630	31.3600
 1.9620	31.3598
 1.9610	31.3181
 1.9600	31.2947
 1.9590	31.3146
 1.9580	31.2933
 1.9570	31.3494
 1.9560	31.2895
 1.9550	31.2891
 1.9540	31.1801
 1.9530	31.2397
 1.9520	31.2557
 1.9510	31.2237
 1.9500	31.0927
 1.9490	31.2009
 1.9480	31.1426
 1.9470	31.2890
 1.9460	31.1313
 1.9450	31.1535
 1.9440	31.0400
 1.9430	31.1924
 1.9420	31.0488
 1.9410	31.1120
 1.9400	31.0854
 1.9390	31.1912
 1.9380	30.9503
 1.9370	31.0803
 1.9360	30.9611
 1.9350	31.0528
 1.9340	30.9463
 1.9330	31.0078
 1.9320	30.9979
 1.9310	31.0139
 1.9300	30.8947
 1.9290	31.0006
 1.9280	30.8952
 1.9270	31.0433
 1.9260	30.7800
 1.9250	31.0188
 1.9240	30.9433
 1.9230	31.0040
 1.9220	30.8236
 1.9210	30.9443
 1.9200	30.7567
 1.9190	30.9700
 1.9180	30.8274
 1.9170	30.9224
 1.9160	30.8612
 1.9150	30.8598
 1.9140	30.8426
 1.9130	30.9005
 1.9120	30.8262
 1.9110	30.8769
 1.9100	30.8313
 1.9090	30.9326
 1.9080	30.7985
 1.9070	30.8683
 1.9060	30.7712
 1.9050	30.9316
 1.9040	30.7577
 1.9030	30.9385
 1.9020	30.7403
 1.9010	30.9015
 1.9000	30.8154
 1.8990	30.8965
 1.8980	30.7793
 1.8970	30.8630
 1.8960	30.8598
 1.8950	30.9489
 1.8940	30.8552
 1.8930	30.9429
 1.8920	30.7850
 1.8910	30.8963
 1.8900	30.8058
 1.8890	31.0350
 1.8880	30.8905
 1.8870	30.9290
 1.8860	30.8654
 1.8850	30.9640
 1.8840	30.8974
 1.8830	30.9123
 1.8820	30.9103
 1.8810	30.9938
 1.8800	30.8799
 1.8790	31.0228
 1.8780	30.9799
 1.8770	30.9473
 1.8760	30.8617
 1.8750	30.9226
 1.8740	30.9504
 1.8730	30.9973
 1.8720	30.9571
 1.8710	30.9717
 1.8700	30.9315
 1.8690	30.9635
 1.8680	30.9009
 1.8670	30.9604
 1.8660	30.9619
 1.8650	30.9577
 1.8640	30.9993
 1.8630	31.0645
 1.8620	30.9511
 1.8610	31.0009
 1.8600	30.9787
 1.8590	31.0536
 1.8580	30.9960
 1.8570	31.0994
 1.8560	30.9862
 1.8550	31.0082
 1.8540	30.9983
 1.8530	31.0411
 1.8520	31.0089
 1.8510	31.0634
 1.8500	31.0184
 1.8490	31.0570
 1.8480	31.0269
 1.8470	31.0628
 1.8460	31.0264
 1.8450	31.0872
 1.8440	31.0804
 1.8430	31.1360
 1.8420	31.0863
 1.8410	31.1077
 1.8400	31.0906
 1.8390	31.1219
 1.8380	31.0976
 1.8370	31.1054
 1.8360	31.0572
 1.8350	31.1595
 1.8340	31.1724
 1.8330	31.1806
 1.8320	31.0952
 1.8310	31.1634
 1.8300	31.1953
 1.8290	31.1690
 1.8280	31.1542
 1.8270	31.2362
 1.8260	31.1638
 1.8250	31.2146
 1.8240	31.2485
 1.8230	31.3014
 1.8220	31.2675
 1.8210	31.2969
 1.8200	31.2552
 1.8190	31.2765
 1.8180	31.2709
 1.8170	31.3199
 1.8160	31.2639
 1.8150	31.3304
 1.8140	31.3560
 1.8130	31.3444
 1.8120	31.3419
 1.8110	31.3791
 1.8100	31.4005
 1.8090	31.4535
 1.8080	31.3925
 1.8070	31.4327
 1.8060	31.4396
 1.8050	31.4772
 1.8040	31.5130
 1.8030	31.5216
 1.8020	31.5000
 1.8010	31.5020
 1.8000	31.5567
 1.7990	31.6024
 1.7980	31.5689
 1.7970	31.5840
 1.7960	31.6181
 1.7950	31.6576
 1.7940	31.6442
 1.7930	31.6426
 1.7920	31.6114
 1.7910	31.6526
 1.7900	31.6616
 1.7890	31.6865
 1.7880	31.6845
 1.7870	31.6739
 1.7860	31.7455
 1.7850	31.7718
 1.7840	31.7874
 1.7830	31.7675
 1.7820	31.7782
 1.7810	31.8321
 1.7800	31.8471
 1.7790	31.8568
 1.7780	31.8386
 1.7770	31.8333
 1.7760	31.8807
 1.7750	31.8766
 1.7740	31.9104
 1.7730	31.9470
 1.7720	31.9452
 1.7710	31.9744
 1.7700	32.0399
 1.7690	32.0358
 1.7680	32.0312
 1.7670	32.0006
 1.7660	32.0750
 1.7650	32.1073
 1.7640	32.1381
 1.7630	32.1667
 1.7620	32.1925
 1.7610	32.1886
 1.7600	32.2592
 1.7590	32.2294
 1.7580	32.2035
 1.7570	32.2501
 1.7560	32.2540
 1.7550	32.2573
 1.7540	32.3441
 1.7530	32.3302
 1.7520	32.3633
 1.7510	32.3836
 1.7500	32.4692
 1.7490	32.4776
 1.7480	32.4964
 1.7470	32.5006
 1.7460	32.5037
 1.7450	32.5030
 1.7440	32.5896
 1.7430	32.5715
 1.7420	32.6364
 1.7410	32.6695
 1.7400	32.7090
 1.7390	32.7345
 1.7380	32.7589
 1.7370	32.7531
 1.7360	32.7904
 1.7350	32.7902
 1.7340	32.8416
 1.7330	32.8747
 1.7320	32.9271
 1.7310	32.8803
 1.7300	32.9779
 1.7290	32.9729
 1.7280	32.9893
 1.7270	32.9626
 1.7260	33.0289
 1.7250	33.1066
 1.7240	33.1362
 1.7230	33.1018
 1.7220	33.1877
 1.7210	33.1275
 1.7200	33.2478
 1.7190	33.2036
 1.7180	33.3034
 1.7170	33.2460
 1.7160	33.2552
 1.7150	33.2894
 1.7140	33.3104
 1.7130	33.4114
 1.7120	33.4363
 1.7110	33.4241
 1.7100	33.4676
 1.7090	33.4864
 1.7080	33.4878
 1.7070	33.5155
 1.7060	33.5958
 1.7050	33.6159
 1.7040	33.6526
 1.7030	33.5829
 1.7020	33.6589
 1.7010	33.6285
 1.7000	33.7682
 1.6990	33.7270
 1.6980	33.7731
 1.6970	33.7753
 1.6960	33.9246
 1.6950	33.8222
 1.6940	33.8858
 1.6930	33.9355
 1.6920	33.9410
 1.6910	33.9797
 1.6900	34.0761
 1.6890	34.0096
 1.6880	34.0943
 1.6870	34.0151
 1.6860	34.1590
 1.6850	34.1381
 1.6840	34.1954
 1.6830	34.2097
 1.6820	34.3237
 1.6810	34.2266
 1.6800	34.3623
 1.6790	34.3229
 1.6780	34.3754
 1.6770	34.3909
 1.6760	34.4843
 1.6750	34.4299
 1.6740	34.5535
 1.6730	34.5492
 1.6720	34.5979
 1.6710	34.6065
 1.6700	34.6156
 1.6690	34.7354
 1.6680	34.5420
 1.6670	34.6165
 1.6660	34.6995
 1.6650	34.7116
 1.6640	34.8176
 1.6630	34.7566
 1.6620	34.8802
 1.6610	34.8599
 1.6600	34.9616
 1.6590	34.9378
 1.6580	35.0400
 1.6570	35.0389
 1.6560	35.0989
 1.6550	35.1064
 1.6540	35.1058
 1.6530	35.1560
 1.6520	35.2238
 1.6510	35.0937
 1.6500	35.2692
 1.6490	35.1971
 1.6480	35.3348
 1.6470	35.3324
 1.6460	35.3594
 1.6450	35.3451
 1.6440	35.3219
 1.6430	35.4591
 1.6420	35.6068
 1.6410	35.3251
 1.6400	35.6134
 1.6390	35.5133
 1.6380	35.6591
 1.6370	35.6195
 1.6360	35.6728
 1.6350	35.6365
 1.6340	35.7711
 1.6330	35.7514
 1.6320	35.8363
 1.6310	35.7793
 1.6300	35.9249
 1.6290	35.7898
 1.6280	35.9582
 1.6270	35.9366
 1.6260	36.0367
 1.6250	35.9616
 1.6240	36.1184
 1.6230	36.0531
 1.6220	36.1714
 1.6210	36.0626
 1.6200	36.1655
 1.6190	36.1555
 1.6180	36.2580
 1.6170	36.2604
 1.6160	36.3476
 1.6150	36.3192
 1.6140	36.4128
 1.6130	36.3941
 1.6120	36.5106
 1.6110	36.3900
 1.6100	36.5330
 1.6090	36.4683
 1.6080	36.5237
 1.6070	36.5087
 1.6060	36.6679
 1.6050	36.6400
 1.6040	36.7239
 1.6030	36.6552
 1.6020	36.7884
 1.6010	36.7537
 1.6000	36.8967
 1.5990	36.8110
 1.5980	36.9221
 1.5970	36.8679
 1.5960	36.9694
 1.5950	36.9867
 1.5940	36.9586
 1.5930	36.9615
 1.5920	37.0395
 1.5910	37.0216
 1.5900	37.1771
 1.5890	37.1497
 1.5880	37.1466
 1.5870	37.2180
 1.5860	37.2948
 1.5850	37.2442
 1.5840	37.3608
 1.5830	37.3203
 1.5820	37.4237
 1.5810	37.3509
 1.5800	37.4266
 1.5790	37.4371
 1.5780	37.4881
 1.5770	37.4840
 1.5760	37.5946
 1.5750	37.5575
 1.5740	37.6433
 1.5730	37.6833
 1.5720	37.6433
 1.5710	37.6695
 1.5700	37.7484
 1.5690	37.7577
 1.5680	37.8343
 1.5670	37.7908
 1.5660	37.8411
 1.5650	37.7787
 1.5640	37.8723
 1.5630	37.8977
 1.5620	37.9499
 1.5610	37.9438
 1.5600	37.9720
 1.5590	38.0407
 1.5580	38.0681
 1.5570	38.0300
 1.5560	38.0886
 1.5550	38.0506
 1.5540	38.1672
 1.5530	38.1767
 1.5520	38.2204
 1.5510	38.2254
 1.5500	38.2361
 1.5490	38.2221
 1.5480	38.3745
 1.5470	38.3406
 1.5460	38.3624
 1.5450	38.3955
 1.5440	38.4594
 1.5430	38.4396
 1.5420	38.4767
 1.5410	38.4960
 1.5400	38.5490
 1.5390	38.5642
 1.5380	38.6474
 1.5370	38.6442
 1.5360	38.6431
 1.5350	38.6425
 1.5340	38.7033
 1.5330	38.7264
 1.5320	38.7890
 1.5310	38.7844
 1.5300	38.7724
 1.5290	38.7836
 1.5280	38.8034
 1.5270	38.8385
 1.5260	38.8700
 1.5250	38.8896
 1.5240	38.9525
 1.5230	38.9704
 1.5220	38.9825
 1.5210	38.9849
 1.5200	39.0126
 1.5190	39.0374
 1.5180	39.0831
 1.5170	39.1174
 1.5160	39.1376
 1.5150	39.1153
 1.5140	39.1164
 1.5130	39.1519
 1.5120	39.1977
 1.5110	39.1994
 1.5100	39.2615
 1.5090	39.2641
 1.5080	39.2864
 1.5070	39.3372
 1.5060	39.3670
 1.5050	39.3464
 1.5040	39.3917
 1.5030	39.4512
 1.5020	39.4326
 1.5010	39.4674
 1.5000	39.5355
 1.4990	39.5456
 1.4980	39.5465
 1.4970	39.5563
 1.4960	39.5572
 1.4950	39.5933
 1.4940	39.6513
 1.4930	39.6652
 1.4920	39.6602
 1.4910	39.6672
 1.4900	39.6687
 1.4890	39.7140
 1.4880	39.7295
 1.4870	39.7279
 1.4860	39.7429
 1.4850	39.8296
 1.4840	39.8050
 1.4830	39.7793
 1.4820	39.7982
 1.4810	39.8499
 1.4800	39.9042
 1.4790	39.9602
 1.4780	39.9670
 1.4770	39.9091
 1.4760	39.9258
 1.4750	39.9674
 1.4740	39.9846
 1.4730	40.0123
 1.4720	40.0171
 1.4710	40.0716
 1.4700	40.0523
 1.4690	40.0587
 1.4680	40.1353
 1.4670	40.1282
 1.4660	40.1132
 1.4650	40.1487
 1.4640	40.1570
 1.4630	40.2327
 1.4620	40.1838
 1.4610	40.2193
 1.4600	40.2110
 1.4590	40.2657
 1.4580	40.2884
 1.4570	40.3176
 1.4560	40.3032
 1.4550	40.3417
 1.4540	40.3514
 1.4530	40.3216
 1.4520	40.3024
 1.4510	40.3711
 1.4500	40.3521
 1.4490	40.3721
 1.4480	40.4275
 1.4470	40.5015
 1.4460	40.4292
 1.4450	40.4446
 1.4440	40.4897
 1.4430	40.5339
 1.4420	40.4478
 1.4410	40.4617
 1.4400	40.4983
 1.4390	40.5993
 1.4380	40.5742
 1.4370	40.5911
 1.4360	40.5286
 1.4350	40.6277
 1.4340	40.5854
 1.4330	40.6303
 1.4320	40.5849
 1.4310	40.6194
 1.4300	40.5848
 1.4290	40.6646
 1.4280	40.6732
 1.4270	40.7171
 1.4260	40.6562
 1.4250	40.7089
 1.4240	40.6914
 1.4230	40.7611
 1.4220	40.7428
 1.4210	40.8241
 1.4200	40.6882
 1.4190	40.7105
 1.4180	40.7840
 1.4170	40.7770
 1.4160	40.8347
 1.4150	40.8471
 1.4140	40.7620
 1.4130	40.8589
 1.4120	40.7984
 1.4110	40.8748
 1.4100	40.8804
 1.4090	40.8377
 1.4080	40.8180
 1.4070	40.8694
 1.4060	40.8136
 1.4050	40.8801
 1.4040	40.7877
 1.4030	40.9099
 1.4020	40.8446
 1.4010	40.7989
 1.4000	40.6182
 1.3990	40.5128
 1.3980	40.3078
 1.3970	40.1242
 1.3960	39.7990
 1.3950	39.5911
 1.3940	39.5802
 1.3930	39.7833
 1.3920	40.0795
 1.3910	40.5632
 1.3900	40.8050
 1.3890	40.9990
 1.3880	41.1435
 1.3870	41.1151
 1.3860	41.1932
 1.3850	41.1707
 1.3840	41.1995
 1.3830	41.1749
 1.3820	41.2008
 1.3810	41.2169
 1.3800	41.2337
 1.3790	41.2942
 1.3780	41.2685
 1.3770	41.3222
 1.3760	41.2919
 1.3750	41.3626
 1.3740	41.2944
 1.3730	41.3446
 1.3720	41.3046
 1.3710	41.4332
 1.3700	41.2879
 1.3690	41.3879
 1.3680	41.4329
 1.3670	41.4564
 1.3660	41.3513
