Name: Labradorite (Feldspar) (NaSi,CaAl)AlSi_2O_8
Type: Mineral
Class: Silicate
Subclass: Tectosilicate
Particle Size: Coarse
Sample No.: TS-2B
Owner: JPL
Wavelength Range: VSWIR
Origin: Canada, Quebec, Lake St. John.
Collection Date: N/A
Description: Particle size was 125-500um. Collected by:  Ward's Original ASTER Spectral Library name was jpl.perkin.mineral.silicate.tectosilicate.coarse.ts02b.spectrum.txt
Measurement: Hemispherical reflectance
First Column: X
Second Column: Y
X Units: Wavelength (micrometers)
Y Units:Reflectance (percent)
First X Value:  2.5000
Last X Value:  0.4000
Number of X Values: 2101
Additional Information: mineral.silicate.tectosilicate.coarse.vswir.ts-2b.jpl.perkin.ancillary.txt

 2.5000	17.4626
 2.4990	17.0048
 2.4980	17.5869
 2.4970	17.4157
 2.4960	16.9674
 2.4950	17.3626
 2.4940	17.3175
 2.4930	17.2030
 2.4920	17.4397
 2.4910	17.1005
 2.4900	17.3591
 2.4890	17.0636
 2.4880	17.4336
 2.4870	17.0834
 2.4860	17.2441
 2.4850	17.1918
 2.4840	17.3358
 2.4830	17.1755
 2.4820	17.3970
 2.4810	17.2896
 2.4800	17.2960
 2.4790	17.3639
 2.4780	17.3845
 2.4770	17.1977
 2.4760	17.2571
 2.4750	17.1459
 2.4740	17.4007
 2.4730	17.2246
 2.4720	17.3468
 2.4710	17.2289
 2.4700	17.2689
 2.4690	17.2791
 2.4680	17.1572
 2.4670	17.2272
 2.4660	17.2125
 2.4650	17.0450
 2.4640	17.3247
 2.4630	17.2891
 2.4620	17.3384
 2.4610	17.1376
 2.4600	17.2209
 2.4590	17.2184
 2.4580	17.3626
 2.4570	17.1417
 2.4560	17.2915
 2.4550	17.3903
 2.4540	17.2724
 2.4530	17.1584
 2.4520	17.2921
 2.4510	17.0389
 2.4500	17.2078
 2.4490	17.1704
 2.4480	17.2128
 2.4470	17.0684
 2.4460	17.2915
 2.4450	17.1749
 2.4440	17.2482
 2.4430	17.1659
 2.4420	17.2680
 2.4410	17.1634
 2.4400	17.2272
 2.4390	17.1722
 2.4380	17.2685
 2.4370	17.1516
 2.4360	17.2026
 2.4350	17.2372
 2.4340	17.2883
 2.4330	17.1992
 2.4320	17.2049
 2.4310	17.2148
 2.4300	17.2254
 2.4290	17.1694
 2.4280	17.1985
 2.4270	17.1266
 2.4260	17.2154
 2.4250	17.1390
 2.4240	17.2146
 2.4230	17.2712
 2.4220	17.2978
 2.4210	17.1592
 2.4200	17.1651
 2.4190	17.1351
 2.4180	17.2782
 2.4170	17.1273
 2.4160	17.2453
 2.4150	17.2411
 2.4140	17.1960
 2.4130	17.0939
 2.4120	17.1810
 2.4110	17.1670
 2.4100	17.1444
 2.4090	17.1637
 2.4080	17.2008
 2.4070	17.2091
 2.4060	17.1621
 2.4050	17.1707
 2.4040	17.2331
 2.4030	17.1856
 2.4020	17.2206
 2.4010	17.1316
 2.4000	17.2449
 2.3990	17.2307
 2.3980	17.1758
 2.3970	17.1592
 2.3960	17.1886
 2.3950	17.1306
 2.3940	17.1783
 2.3930	17.1768
 2.3920	17.2231
 2.3910	17.1228
 2.3900	17.1642
 2.3890	17.1399
 2.3880	17.1851
 2.3870	17.1617
 2.3860	17.1137
 2.3850	17.0903
 2.3840	17.1238
 2.3830	17.1376
 2.3820	17.1600
 2.3810	17.1295
 2.3800	17.1365
 2.3790	17.1292
 2.3780	17.1239
 2.3770	17.1313
 2.3760	17.1655
 2.3750	17.1511
 2.3740	17.1300
 2.3730	17.1582
 2.3720	17.1226
 2.3710	17.0690
 2.3700	17.0968
 2.3690	17.1155
 2.3680	17.1329
 2.3670	17.0931
 2.3660	17.0828
 2.3650	17.0515
 2.3640	17.0971
 2.3630	17.1420
 2.3620	17.0409
 2.3610	16.9367
 2.3600	16.9806
 2.3590	17.0153
 2.3580	17.0407
 2.3570	17.0284
 2.3560	17.0405
 2.3550	17.0328
 2.3540	17.0297
 2.3530	17.0514
 2.3520	17.0239
 2.3510	16.9693
 2.3500	16.9141
 2.3490	16.9383
 2.3480	16.9115
 2.3470	16.8587
 2.3460	16.8676
 2.3450	16.9306
 2.3440	16.9633
 2.3430	16.9406
 2.3420	16.9044
 2.3410	16.9253
 2.3400	16.9478
 2.3390	16.9279
 2.3380	16.9016
 2.3370	16.8831
 2.3360	16.8270
 2.3350	16.8397
 2.3340	16.8437
 2.3330	16.8495
 2.3320	16.8362
 2.3310	16.9099
 2.3300	16.8467
 2.3290	16.8472
 2.3280	16.8475
 2.3270	16.8690
 2.3260	16.8415
 2.3250	16.8576
 2.3240	16.8427
 2.3230	16.8275
 2.3220	16.7819
 2.3210	16.8236
 2.3200	16.7967
 2.3190	16.7592
 2.3180	16.7701
 2.3170	16.8357
 2.3160	16.8307
 2.3150	16.7927
 2.3140	16.7994
 2.3130	16.8538
 2.3120	16.7897
 2.3110	16.7886
 2.3100	16.8372
 2.3090	16.8414
 2.3080	16.7898
 2.3070	16.8699
 2.3060	16.8658
 2.3050	16.8603
 2.3040	16.8196
 2.3030	16.8859
 2.3020	16.8287
 2.3010	16.7829
 2.3000	16.8239
 2.2990	16.8981
 2.2980	16.7943
 2.2970	16.8078
 2.2960	16.7764
 2.2950	16.8813
 2.2940	16.7978
 2.2930	16.8101
 2.2920	16.7183
 2.2910	16.7904
 2.2900	16.7823
 2.2890	16.8331
 2.2880	16.7476
 2.2870	16.8709
 2.2860	16.7023
 2.2850	16.8114
 2.2840	16.8269
 2.2830	16.8085
 2.2820	16.7536
 2.2810	16.7894
 2.2800	16.7440
 2.2790	16.6920
 2.2780	16.7356
 2.2770	16.7689
 2.2760	16.7234
 2.2750	16.6962
 2.2740	16.6866
 2.2730	16.6791
 2.2720	16.6447
 2.2710	16.6979
 2.2700	16.6875
 2.2690	16.6865
 2.2680	16.6413
 2.2670	16.7402
 2.2660	16.6129
 2.2650	16.6839
 2.2640	16.6341
 2.2630	16.6517
 2.2620	16.6437
 2.2610	16.6186
 2.2600	16.5685
 2.2590	16.6058
 2.2580	16.5576
 2.2570	16.6102
 2.2560	16.5920
 2.2550	16.6495
 2.2540	16.5422
 2.2530	16.6214
 2.2520	16.5233
 2.2510	16.5913
 2.2500	16.4817
 2.2490	16.6046
 2.2480	16.6002
 2.2470	16.5374
 2.2460	16.5052
 2.2450	16.5282
 2.2440	16.5327
 2.2430	16.6142
 2.2420	16.4501
 2.2410	16.5546
 2.2400	16.4570
 2.2390	16.5240
 2.2380	16.5090
 2.2370	16.5502
 2.2360	16.5036
 2.2350	16.5495
 2.2340	16.4734
 2.2330	16.5545
 2.2320	16.4249
 2.2310	16.5539
 2.2300	16.4011
 2.2290	16.5543
 2.2280	16.4017
 2.2270	16.4774
 2.2260	16.4495
 2.2250	16.4439
 2.2240	16.3959
 2.2230	16.4871
 2.2220	16.4212
 2.2210	16.4849
 2.2200	16.3696
 2.2190	16.4405
 2.2180	16.3426
 2.2170	16.4367
 2.2160	16.3317
 2.2150	16.4034
 2.2140	16.2194
 2.2130	16.3305
 2.2120	16.3365
 2.2110	16.1975
 2.2100	16.2696
 2.2090	16.3793
 2.2080	16.3504
 2.2070	16.4092
 2.2060	16.2825
 2.2050	16.2570
 2.2040	16.2567
 2.2030	16.3376
 2.2020	16.3427
 2.2010	16.3518
 2.2000	16.3380
 2.1990	16.2885
 2.1980	16.3147
 2.1970	16.3447
 2.1960	16.2811
 2.1950	16.3222
 2.1940	16.2173
 2.1930	16.3556
 2.1920	16.2964
 2.1910	16.2949
 2.1900	16.2777
 2.1890	16.3804
 2.1880	16.2981
 2.1870	16.3845
 2.1860	16.3799
 2.1850	16.3640
 2.1840	16.2561
 2.1830	16.3432
 2.1820	16.3484
 2.1810	16.3045
 2.1800	16.3503
 2.1790	16.3948
 2.1780	16.2978
 2.1770	16.4394
 2.1760	16.4334
 2.1750	16.4044
 2.1740	16.3919
 2.1730	16.4239
 2.1720	16.3836
 2.1710	16.4454
 2.1700	16.4479
 2.1690	16.3809
 2.1680	16.4148
 2.1670	16.4667
 2.1660	16.4225
 2.1650	16.4437
 2.1640	16.5176
 2.1630	16.5044
 2.1620	16.4254
 2.1610	16.4010
 2.1600	16.4260
 2.1590	16.5212
 2.1580	16.3658
 2.1570	16.4799
 2.1560	16.4072
 2.1550	16.4400
 2.1540	16.4337
 2.1530	16.4989
 2.1520	16.4531
 2.1510	16.4866
 2.1500	16.4513
 2.1490	16.5154
 2.1480	16.4508
 2.1470	16.4190
 2.1460	16.3755
 2.1450	16.4229
 2.1440	16.3788
 2.1430	16.4884
 2.1420	16.4422
 2.1410	16.4541
 2.1400	16.4370
 2.1390	16.4439
 2.1380	16.3911
 2.1370	16.4326
 2.1360	16.3942
 2.1350	16.4419
 2.1340	16.3795
 2.1330	16.4281
 2.1320	16.4007
 2.1310	16.3363
 2.1300	16.3555
 2.1290	16.3127
 2.1280	16.3055
 2.1270	16.3339
 2.1260	16.3213
 2.1250	16.2907
 2.1240	16.2315
 2.1230	16.2577
 2.1220	16.2600
 2.1210	16.3114
 2.1200	16.2511
 2.1190	16.2627
 2.1180	16.1944
 2.1170	16.2307
 2.1160	16.1767
 2.1150	16.1761
 2.1140	16.1368
 2.1130	16.1629
 2.1120	16.1738
 2.1110	16.2369
 2.1100	16.1195
 2.1090	16.1186
 2.1080	16.1110
 2.1070	16.1049
 2.1060	16.0908
 2.1050	16.0805
 2.1040	16.0860
 2.1030	16.0586
 2.1020	16.0787
 2.1010	16.0921
 2.1000	16.0178
 2.0990	16.0227
 2.0980	16.0269
 2.0970	16.0303
 2.0960	15.9854
 2.0950	16.0455
 2.0940	16.0192
 2.0930	16.0583
 2.0920	16.0586
 2.0910	16.0103
 2.0900	15.9788
 2.0890	16.0054
 2.0880	16.0040
 2.0870	16.0420
 2.0860	16.0630
 2.0850	16.0399
 2.0840	15.9803
 2.0830	15.9801
 2.0820	16.0019
 2.0810	16.0216
 2.0800	16.0133
 2.0790	15.9686
 2.0780	15.9448
 2.0770	15.9370
 2.0760	15.9970
 2.0750	16.0211
 2.0740	15.9729
 2.0730	15.9479
 2.0720	15.9613
 2.0710	16.0145
 2.0700	16.0100
 2.0690	15.9448
 2.0680	15.9731
 2.0670	16.0047
 2.0660	15.9740
 2.0650	15.9862
 2.0640	16.0013
 2.0630	15.9877
 2.0620	15.9739
 2.0610	15.9394
 2.0600	15.9117
 2.0590	15.9279
 2.0580	15.9453
 2.0570	15.9383
 2.0560	15.9872
 2.0550	15.9478
 2.0540	15.9497
 2.0530	15.9642
 2.0520	15.9520
 2.0510	15.9157
 2.0500	15.8906
 2.0490	15.9173
 2.0480	16.0073
 2.0470	15.9753
 2.0460	15.9057
 2.0450	15.8652
 2.0440	15.8918
 2.0430	15.8837
 2.0420	15.9135
 2.0410	15.9130
 2.0400	15.8772
 2.0390	15.8487
 2.0380	15.8716
 2.0370	15.8635
 2.0360	15.8999
 2.0350	15.8571
 2.0340	15.8446
 2.0330	15.8156
 2.0320	15.8178
 2.0310	15.7925
 2.0300	15.7937
 2.0290	15.8333
 2.0280	15.8595
 2.0270	15.8237
 2.0260	15.8504
 2.0250	15.8070
 2.0240	15.8400
 2.0230	15.7876
 2.0220	15.7543
 2.0210	15.6827
 2.0200	15.7456
 2.0190	15.7326
 2.0180	15.7601
 2.0170	15.7509
 2.0160	15.7690
 2.0150	15.6825
 2.0140	15.7831
 2.0130	15.7202
 2.0120	15.7182
 2.0110	15.6618
 2.0100	15.7177
 2.0090	15.6589
 2.0080	15.7231
 2.0070	15.7279
 2.0060	15.6862
 2.0050	15.6069
 2.0040	15.6566
 2.0030	15.6316
 2.0020	15.6058
 2.0010	15.6003
 2.0000	15.6667
 1.9990	15.5893
 1.9980	15.6049
 1.9970	15.6157
 1.9960	15.6695
 1.9950	15.5614
 1.9940	15.5403
 1.9930	15.5330
 1.9920	15.5721
 1.9910	15.4925
 1.9900	15.6200
 1.9890	15.4448
 1.9880	15.4930
 1.9870	15.3993
 1.9860	15.5304
 1.9850	15.4752
 1.9840	15.4806
 1.9830	15.4156
 1.9820	15.4249
 1.9810	15.4166
 1.9800	15.3541
 1.9790	15.4427
 1.9780	15.4405
 1.9770	15.3476
 1.9760	15.4317
 1.9750	15.3177
 1.9740	15.4507
 1.9730	15.4462
 1.9720	15.3474
 1.9710	15.3164
 1.9700	15.3979
 1.9690	15.2969
 1.9680	15.3765
 1.9670	15.2760
 1.9660	15.3710
 1.9650	15.2551
 1.9640	15.3429
 1.9630	15.2866
 1.9620	15.2254
 1.9610	15.1920
 1.9600	15.2392
 1.9590	15.1849
 1.9580	15.2562
 1.9570	15.1679
 1.9560	15.2537
 1.9550	15.1746
 1.9540	15.2190
 1.9530	15.2102
 1.9520	15.2631
 1.9510	15.0977
 1.9500	15.1508
 1.9490	15.1140
 1.9480	15.1776
 1.9470	15.0759
 1.9460	15.1981
 1.9450	15.0794
 1.9440	15.1488
 1.9430	14.9898
 1.9420	15.1201
 1.9410	15.0227
 1.9400	15.0741
 1.9390	15.0018
 1.9380	15.0630
 1.9370	15.0470
 1.9360	14.9760
 1.9350	14.9813
 1.9340	15.0298
 1.9330	14.9056
 1.9320	14.9853
 1.9310	15.0041
 1.9300	15.0247
 1.9290	14.9016
 1.9280	15.0201
 1.9270	15.0464
 1.9260	14.8139
 1.9250	14.9194
 1.9240	14.9356
 1.9230	14.8114
 1.9220	14.9136
 1.9210	14.8368
 1.9200	14.9466
 1.9190	14.8189
 1.9180	14.9014
 1.9170	14.8500
 1.9160	14.8840
 1.9150	14.7754
 1.9140	14.9966
 1.9130	14.8414
 1.9120	14.9552
 1.9110	14.8232
 1.9100	14.9755
 1.9090	14.8816
 1.9080	14.9732
 1.9070	14.9254
 1.9060	14.9245
 1.9050	14.8865
 1.9040	14.9467
 1.9030	14.8823
 1.9020	14.9877
 1.9010	14.9565
 1.9000	14.9814
 1.8990	14.9595
 1.8980	15.1283
 1.8970	15.0115
 1.8960	15.0832
 1.8950	15.0847
 1.8940	15.1248
 1.8930	15.1518
 1.8920	15.1550
 1.8910	15.1041
 1.8900	15.1140
 1.8890	15.0859
 1.8880	15.2056
 1.8870	15.2025
 1.8860	15.2729
 1.8850	15.1731
 1.8840	15.1678
 1.8830	15.1458
 1.8820	15.2141
 1.8810	15.2216
 1.8800	15.2068
 1.8790	15.1648
 1.8780	15.1985
 1.8770	15.1754
 1.8760	15.2034
 1.8750	15.1370
 1.8740	15.1349
 1.8730	15.1176
 1.8720	15.1713
 1.8710	15.1203
 1.8700	15.1151
 1.8690	15.0973
 1.8680	15.2033
 1.8670	15.1337
 1.8660	15.1977
 1.8650	15.1542
 1.8640	15.1740
 1.8630	15.1701
 1.8620	15.2312
 1.8610	15.2007
 1.8600	15.2212
 1.8590	15.1407
 1.8580	15.1211
 1.8570	15.1826
 1.8560	15.1431
 1.8550	15.1424
 1.8540	15.1571
 1.8530	15.1341
 1.8520	15.1715
 1.8510	15.1520
 1.8500	15.1492
 1.8490	15.1120
 1.8480	15.1640
 1.8470	15.1270
 1.8460	15.1099
 1.8450	15.1268
 1.8440	15.1160
 1.8430	15.0931
 1.8420	15.1560
 1.8410	15.1110
 1.8400	15.1428
 1.8390	15.1018
 1.8380	15.1037
 1.8370	15.0790
 1.8360	15.1058
 1.8350	15.0755
 1.8340	15.0874
 1.8330	15.0407
 1.8320	15.0522
 1.8310	15.0212
 1.8300	15.0744
 1.8290	15.0794
 1.8280	15.1617
 1.8270	15.0965
 1.8260	15.0798
 1.8250	15.0642
 1.8240	15.1229
 1.8230	15.0762
 1.8220	15.1286
 1.8210	15.0935
 1.8200	15.0934
 1.8190	15.0600
 1.8180	15.1002
 1.8170	15.0536
 1.8160	15.0257
 1.8150	15.0601
 1.8140	15.0998
 1.8130	15.0485
 1.8120	14.9951
 1.8110	14.9887
 1.8100	15.0622
 1.8090	15.0710
 1.8080	15.0387
 1.8070	14.9766
 1.8060	15.0098
 1.8050	15.0184
 1.8040	15.0539
 1.8030	15.0499
 1.8020	15.0424
 1.8010	15.0152
 1.8000	15.0364
 1.7990	14.9864
 1.7980	14.9725
 1.7970	15.0032
 1.7960	15.0289
 1.7950	14.9614
 1.7940	14.9231
 1.7930	14.9900
 1.7920	14.9948
 1.7910	14.9617
 1.7900	14.9621
 1.7890	14.9401
 1.7880	14.9435
 1.7870	14.9659
 1.7860	14.9948
 1.7850	14.9430
 1.7840	14.8936
 1.7830	14.9210
 1.7820	14.9128
 1.7810	14.8799
 1.7800	14.9084
 1.7790	14.9399
 1.7780	14.9014
 1.7770	14.8917
 1.7760	14.8834
 1.7750	14.8777
 1.7740	14.8799
 1.7730	14.8690
 1.7720	14.8557
 1.7710	14.8823
 1.7700	14.8402
 1.7690	14.8377
 1.7680	14.8352
 1.7670	14.8104
 1.7660	14.8399
 1.7650	14.8777
 1.7640	14.8790
 1.7630	14.8615
 1.7620	14.8065
 1.7610	14.8344
 1.7600	14.7910
 1.7590	14.7984
 1.7580	14.8358
 1.7570	14.8763
 1.7560	14.8838
 1.7550	14.8277
 1.7540	14.8185
 1.7530	14.8091
 1.7520	14.8137
 1.7510	14.7959
 1.7500	14.8168
 1.7490	14.8625
 1.7480	14.7531
 1.7470	14.7699
 1.7460	14.7683
 1.7450	14.8070
 1.7440	14.7856
 1.7430	14.7698
 1.7420	14.7886
 1.7410	14.8601
 1.7400	14.8374
 1.7390	14.8220
 1.7380	14.7615
 1.7370	14.7672
 1.7360	14.7870
 1.7350	14.8058
 1.7340	14.7182
 1.7330	14.7254
 1.7320	14.7645
 1.7310	14.7863
 1.7300	14.7767
 1.7290	14.7994
 1.7280	14.7473
 1.7270	14.7635
 1.7260	14.7412
 1.7250	14.7603
 1.7240	14.7195
 1.7230	14.7500
 1.7220	14.7135
 1.7210	14.8091
 1.7200	14.8096
 1.7190	14.7457
 1.7180	14.6623
 1.7170	14.7586
 1.7160	14.6497
 1.7150	14.7164
 1.7140	14.6280
 1.7130	14.7526
 1.7120	14.7221
 1.7110	14.7075
 1.7100	14.6837
 1.7090	14.7276
 1.7080	14.7394
 1.7070	14.6802
 1.7060	14.6439
 1.7050	14.7328
 1.7040	14.6519
 1.7030	14.7125
 1.7020	14.6516
 1.7010	14.6786
 1.7000	14.6543
 1.6990	14.7143
 1.6980	14.6914
 1.6970	14.7167
 1.6960	14.6630
 1.6950	14.6835
 1.6940	14.6279
 1.6930	14.6951
 1.6920	14.6981
 1.6910	14.7189
 1.6900	14.6677
 1.6890	14.6726
 1.6880	14.5884
 1.6870	14.7368
 1.6860	14.6344
 1.6850	14.6301
 1.6840	14.5512
 1.6830	14.6226
 1.6820	14.5604
 1.6810	14.7322
 1.6800	14.5784
 1.6790	14.6006
 1.6780	14.5332
 1.6770	14.6035
 1.6760	14.5978
 1.6750	14.6131
 1.6740	14.5407
 1.6730	14.6968
 1.6720	14.5307
 1.6710	14.6113
 1.6700	14.5182
 1.6690	14.7201
 1.6680	14.4369
 1.6670	14.6764
 1.6660	14.5012
 1.6650	14.6682
 1.6640	14.6407
 1.6630	14.6622
 1.6620	14.5541
 1.6610	14.6479
 1.6600	14.5959
 1.6590	14.6891
 1.6580	14.4535
 1.6570	14.5535
 1.6560	14.5070
 1.6550	14.6298
 1.6540	14.4948
 1.6530	14.6169
 1.6520	14.6005
 1.6510	14.5811
 1.6500	14.5448
 1.6490	14.5979
 1.6480	14.5166
 1.6470	14.6206
 1.6460	14.5429
 1.6450	14.5221
 1.6440	14.6214
 1.6430	14.4863
 1.6420	14.5689
 1.6410	14.4545
 1.6400	14.5335
 1.6390	14.5471
 1.6380	14.4920
 1.6370	14.5294
 1.6360	14.5668
 1.6350	14.5638
 1.6340	14.5110
 1.6330	14.5186
 1.6320	14.3805
 1.6310	14.5075
 1.6300	14.4535
 1.6290	14.4686
 1.6280	14.4756
 1.6270	14.5251
 1.6260	14.5079
 1.6250	14.5052
 1.6240	14.4491
 1.6230	14.5132
 1.6220	14.4177
 1.6210	14.4837
 1.6200	14.4367
 1.6190	14.5426
 1.6180	14.4669
 1.6170	14.5354
 1.6160	14.5290
 1.6150	14.5536
 1.6140	14.4856
 1.6130	14.4896
 1.6120	14.3889
 1.6110	14.5131
 1.6100	14.4077
 1.6090	14.5015
 1.6080	14.5524
 1.6070	14.5174
 1.6060	14.4527
 1.6050	14.4725
 1.6040	14.4219
 1.6030	14.4304
 1.6020	14.4781
 1.6010	14.4814
 1.6000	14.4875
 1.5990	14.4961
 1.5980	14.4701
 1.5970	14.4879
 1.5960	14.4236
 1.5950	14.4685
 1.5940	14.4201
 1.5930	14.5063
 1.5920	14.4524
 1.5910	14.3818
 1.5900	14.4297
 1.5890	14.4827
 1.5880	14.4727
 1.5870	14.4153
 1.5860	14.3600
 1.5850	14.4666
 1.5840	14.3348
 1.5830	14.4956
 1.5820	14.3977
 1.5810	14.4124
 1.5800	14.4086
 1.5790	14.4363
 1.5780	14.4261
 1.5770	14.4761
 1.5760	14.3750
 1.5750	14.4736
 1.5740	14.4167
 1.5730	14.4413
 1.5720	14.4514
 1.5710	14.4202
 1.5700	14.4198
 1.5690	14.4296
 1.5680	14.3679
 1.5670	14.4208
 1.5660	14.3329
 1.5650	14.4183
 1.5640	14.4599
 1.5630	14.4610
 1.5620	14.4342
 1.5610	14.4001
 1.5600	14.3782
 1.5590	14.3843
 1.5580	14.4182
 1.5570	14.4201
 1.5560	14.3255
 1.5550	14.4118
 1.5540	14.4651
 1.5530	14.4658
 1.5520	14.3767
 1.5510	14.3797
 1.5500	14.3777
 1.5490	14.3977
 1.5480	14.3998
 1.5470	14.4075
 1.5460	14.3429
 1.5450	14.4154
 1.5440	14.3816
 1.5430	14.4309
 1.5420	14.4101
 1.5410	14.3924
 1.5400	14.4083
 1.5390	14.4755
 1.5380	14.4185
 1.5370	14.3393
 1.5360	14.3558
 1.5350	14.3807
 1.5340	14.3498
 1.5330	14.3992
 1.5320	14.3749
 1.5310	14.3595
 1.5300	14.3528
 1.5290	14.3524
 1.5280	14.3177
 1.5270	14.3954
 1.5260	14.4411
 1.5250	14.4033
 1.5240	14.3712
 1.5230	14.3477
 1.5220	14.3436
 1.5210	14.3643
 1.5200	14.3740
 1.5190	14.4011
 1.5180	14.3797
 1.5170	14.3889
 1.5160	14.3843
 1.5150	14.4031
 1.5140	14.3934
 1.5130	14.3498
 1.5120	14.3410
 1.5110	14.3663
 1.5100	14.3707
 1.5090	14.3357
 1.5080	14.2824
 1.5070	14.3465
 1.5060	14.3570
 1.5050	14.3427
 1.5040	14.3474
 1.5030	14.3167
 1.5020	14.3581
 1.5010	14.3304
 1.5000	14.2944
 1.4990	14.3561
 1.4980	14.4100
 1.4970	14.4005
 1.4960	14.3564
 1.4950	14.3401
 1.4940	14.3600
 1.4930	14.3231
 1.4920	14.3463
 1.4910	14.3511
 1.4900	14.3792
 1.4890	14.3815
 1.4880	14.3178
 1.4870	14.3683
 1.4860	14.3471
 1.4850	14.3325
 1.4840	14.3935
 1.4830	14.3144
 1.4820	14.2980
 1.4810	14.3306
 1.4800	14.3021
 1.4790	14.3375
 1.4780	14.3881
 1.4770	14.3730
 1.4760	14.3910
 1.4750	14.3199
 1.4740	14.3342
 1.4730	14.3322
 1.4720	14.3690
 1.4710	14.3261
 1.4700	14.2967
 1.4690	14.3483
 1.4680	14.3703
 1.4670	14.3213
 1.4660	14.3814
 1.4650	14.3392
 1.4640	14.2931
 1.4630	14.2959
 1.4620	14.3453
 1.4610	14.2987
 1.4600	14.2973
 1.4590	14.3027
 1.4580	14.3759
 1.4570	14.3546
 1.4560	14.3643
 1.4550	14.3711
 1.4540	14.4288
 1.4530	14.3723
 1.4520	14.3675
 1.4510	14.3028
 1.4500	14.2977
 1.4490	14.2848
 1.4480	14.3807
 1.4470	14.3431
 1.4460	14.3652
 1.4450	14.3704
 1.4440	14.3750
 1.4430	14.2940
 1.4420	14.3513
 1.4410	14.3828
 1.4400	14.3530
 1.4390	14.3049
 1.4380	14.3260
 1.4370	14.3192
 1.4360	14.3402
 1.4350	14.3082
 1.4340	14.3800
 1.4330	14.2757
 1.4320	14.2718
 1.4310	14.3280
 1.4300	14.3190
 1.4290	14.2537
 1.4280	14.2994
 1.4270	14.2981
 1.4260	14.3060
 1.4250	14.2539
 1.4240	14.2370
 1.4230	14.2404
 1.4220	14.2442
 1.4210	14.2264
 1.4200	14.2947
 1.4190	14.1731
 1.4180	14.2676
 1.4170	14.2509
 1.4160	14.2373
 1.4150	14.2740
 1.4140	14.2054
 1.4130	14.2032
 1.4120	14.2639
 1.4110	14.2698
 1.4100	14.2450
 1.4090	14.1643
 1.4080	14.1923
 1.4070	14.1671
 1.4060	14.1725
 1.4050	14.1864
 1.4040	14.1961
 1.4030	14.2437
 1.4020	14.3526
 1.4010	14.2181
 1.4000	14.2938
 1.3990	14.2699
 1.3980	14.3255
 1.3970	14.2658
 1.3960	14.3878
 1.3950	14.3466
 1.3940	14.4156
 1.3930	14.2675
 1.3920	14.3638
 1.3910	14.4700
 1.3900	14.5101
 1.3890	14.4092
 1.3880	14.4609
 1.3870	14.3292
 1.3860	14.5182
 1.3850	14.3941
 1.3840	14.4948
 1.3830	14.3879
 1.3820	14.4246
 1.3810	14.3828
 1.3800	14.5041
 1.3790	14.4727
 1.3780	14.5439
 1.3770	14.4807
 1.3760	14.5866
 1.3750	14.4631
 1.3740	14.5488
 1.3730	14.4929
 1.3720	14.5668
 1.3710	14.4702
 1.3700	14.4795
 1.3690	14.4481
 1.3680	14.5431
