Name: Orthoclase (Feldspar) (K,Na)AlSi_3O_8
Type: Mineral
Class: Silicate
Subclass: Tectosilicate
Particle Size: Coarse
Sample No.: TS-12A
Owner: JPL
Wavelength Range: VSWIR
Origin: India.
Collection Date: N/A
Description: Particle size was 125-500um.Collected by:  Burminco Original ASTER Spectral Library name was jpl.perkin.mineral.silicate.tectosilicate.coarse.ts12a.spectrum.txt
Measurement: Hemispherical reflectance
First Column: X
Second Column: Y
X Units: Wavelength (micrometers)
Y Units:Reflectance (percent)
First X Value:  2.5000
Last X Value:  0.4000
Number of X Values: 2101
Additional Information: mineral.silicate.tectosilicate.coarse.vswir.ts-12a.jpl.perkin.ancillary.txt

 2.5000	72.9899
 2.4990	72.8447
 2.4980	73.1105
 2.4970	72.9061
 2.4960	73.0690
 2.4950	73.0109
 2.4940	73.0385
 2.4930	73.0036
 2.4920	72.8019
 2.4910	72.8798
 2.4900	73.0311
 2.4890	72.9065
 2.4880	72.9811
 2.4870	72.9918
 2.4860	72.9662
 2.4850	73.0425
 2.4840	73.1419
 2.4830	73.2128
 2.4820	73.0831
 2.4810	73.2598
 2.4800	73.4170
 2.4790	73.0991
 2.4780	73.3465
 2.4770	73.0848
 2.4760	73.3639
 2.4750	73.2904
 2.4740	73.2411
 2.4730	73.3917
 2.4720	73.4468
 2.4710	73.3143
 2.4700	73.3686
 2.4690	73.3546
 2.4680	73.4313
 2.4670	73.4194
 2.4660	73.4314
 2.4650	73.3489
 2.4640	73.4871
 2.4630	73.5175
 2.4620	73.6896
 2.4610	73.4635
 2.4600	73.5448
 2.4590	73.4914
 2.4580	73.7726
 2.4570	73.7940
 2.4560	73.7575
 2.4550	73.6630
 2.4540	73.6127
 2.4530	73.5804
 2.4520	73.6821
 2.4510	73.6393
 2.4500	73.7717
 2.4490	73.6868
 2.4480	73.7428
 2.4470	73.7510
 2.4460	73.7980
 2.4450	73.7588
 2.4440	73.8666
 2.4430	73.7839
 2.4420	73.8232
 2.4410	73.8561
 2.4400	73.9081
 2.4390	73.9541
 2.4380	73.9232
 2.4370	73.9936
 2.4360	73.9579
 2.4350	73.8114
 2.4340	73.8742
 2.4330	73.8710
 2.4320	73.9232
 2.4310	74.0489
 2.4300	73.9429
 2.4290	73.9285
 2.4280	73.9579
 2.4270	73.9627
 2.4260	74.0090
 2.4250	73.9621
 2.4240	74.1186
 2.4230	74.1526
 2.4220	74.1878
 2.4210	74.1379
 2.4200	74.1600
 2.4190	74.2158
 2.4180	74.0974
 2.4170	74.1685
 2.4160	74.4048
 2.4150	74.3270
 2.4140	74.2446
 2.4130	74.2393
 2.4120	74.3968
 2.4110	74.3955
 2.4100	74.3577
 2.4090	74.2751
 2.4080	74.2966
 2.4070	74.4098
 2.4060	74.3995
 2.4050	74.3238
 2.4040	74.3713
 2.4030	74.4170
 2.4020	74.3963
 2.4010	74.4416
 2.4000	74.5602
 2.3990	74.5099
 2.3980	74.4174
 2.3970	74.4347
 2.3960	74.5123
 2.3950	74.5527
 2.3940	74.5732
 2.3930	74.6210
 2.3920	74.6871
 2.3910	74.6738
 2.3900	74.6644
 2.3890	74.6260
 2.3880	74.6206
 2.3870	74.6743
 2.3860	74.7102
 2.3850	74.7223
 2.3840	74.7646
 2.3830	74.8403
 2.3820	74.8550
 2.3810	74.7933
 2.3800	74.8009
 2.3790	74.8326
 2.3780	74.8920
 2.3770	74.9168
 2.3760	74.8988
 2.3750	74.8907
 2.3740	74.9183
 2.3730	74.9065
 2.3720	74.9876
 2.3710	75.0079
 2.3700	74.9987
 2.3690	75.0184
 2.3680	75.0019
 2.3670	74.9824
 2.3660	75.0635
 2.3650	75.1232
 2.3640	75.1002
 2.3630	75.1173
 2.3620	75.1416
 2.3610	75.1489
 2.3600	75.1937
 2.3590	75.2553
 2.3580	75.1959
 2.3570	75.1264
 2.3560	75.1410
 2.3550	75.1810
 2.3540	75.3029
 2.3530	75.2978
 2.3520	75.2080
 2.3510	75.2088
 2.3500	75.2119
 2.3490	75.2158
 2.3480	75.2415
 2.3470	75.2899
 2.3460	75.2916
 2.3450	75.3235
 2.3440	75.3059
 2.3430	75.2522
 2.3420	75.2667
 2.3410	75.2869
 2.3400	75.2966
 2.3390	75.3035
 2.3380	75.2545
 2.3370	75.1855
 2.3360	75.2114
 2.3350	75.3125
 2.3340	75.3379
 2.3330	75.3026
 2.3320	75.2256
 2.3310	75.2033
 2.3300	75.2208
 2.3290	75.2133
 2.3280	75.2233
 2.3270	75.2410
 2.3260	75.2740
 2.3250	75.1683
 2.3240	75.1107
 2.3230	75.1347
 2.3220	75.1965
 2.3210	75.1718
 2.3200	75.1119
 2.3190	75.1656
 2.3180	75.1606
 2.3170	75.1410
 2.3160	75.1138
 2.3150	75.1179
 2.3140	75.0930
 2.3130	75.1935
 2.3120	75.1942
 2.3110	75.0863
 2.3100	75.1598
 2.3090	75.1188
 2.3080	75.0908
 2.3070	75.1699
 2.3060	75.1326
 2.3050	75.0858
 2.3040	75.0660
 2.3030	75.0234
 2.3020	75.0152
 2.3010	75.0811
 2.3000	75.1209
 2.2990	75.1287
 2.2980	75.1042
 2.2970	75.1356
 2.2960	75.1195
 2.2950	75.1448
 2.2940	75.1102
 2.2930	75.1517
 2.2920	75.1376
 2.2910	75.1951
 2.2900	75.0490
 2.2890	75.0256
 2.2880	75.0279
 2.2870	75.0472
 2.2860	75.0488
 2.2850	75.1422
 2.2840	75.0396
 2.2830	75.1364
 2.2820	75.0712
 2.2810	75.1024
 2.2800	75.1172
 2.2790	75.0011
 2.2780	75.0576
 2.2770	75.0488
 2.2760	74.9922
 2.2750	75.0665
 2.2740	75.0049
 2.2730	75.1037
 2.2720	75.0492
 2.2710	75.0432
 2.2700	75.0396
 2.2690	75.1017
 2.2680	75.0622
 2.2670	75.0668
 2.2660	75.0349
 2.2650	75.0704
 2.2640	75.0016
 2.2630	75.0487
 2.2620	75.0182
 2.2610	75.0237
 2.2600	74.9849
 2.2590	75.1054
 2.2580	75.1007
 2.2570	74.9728
 2.2560	75.0071
 2.2550	75.0645
 2.2540	75.0021
 2.2530	75.0145
 2.2520	75.1000
 2.2510	75.0772
 2.2500	75.0327
 2.2490	75.0652
 2.2480	75.0139
 2.2470	75.0626
 2.2460	74.9819
 2.2450	75.0515
 2.2440	74.9252
 2.2430	75.0403
 2.2420	75.0598
 2.2410	75.0844
 2.2400	74.9513
 2.2390	75.0512
 2.2380	75.0099
 2.2370	75.0560
 2.2360	75.0821
 2.2350	75.0637
 2.2340	75.0936
 2.2330	75.1255
 2.2320	75.0558
 2.2310	75.0415
 2.2300	75.1122
 2.2290	75.0558
 2.2280	75.2061
 2.2270	75.1356
 2.2260	75.0516
 2.2250	75.1521
 2.2240	75.1168
 2.2230	75.1359
 2.2220	75.2824
 2.2210	75.1704
 2.2200	75.1510
 2.2190	75.2546
 2.2180	75.1992
 2.2170	75.3142
 2.2160	75.2441
 2.2150	75.3100
 2.2140	75.2067
 2.2130	75.3092
 2.2120	75.2984
 2.2110	75.1566
 2.2100	75.2534
 2.2090	75.2313
 2.2080	75.2711
 2.2070	75.3434
 2.2060	75.2823
 2.2050	75.2514
 2.2040	75.3155
 2.2030	75.4766
 2.2020	75.4209
 2.2010	75.4881
 2.2000	75.4986
 2.1990	75.5067
 2.1980	75.5201
 2.1970	75.4827
 2.1960	75.4800
 2.1950	75.5146
 2.1940	75.5367
 2.1930	75.6281
 2.1920	75.6295
 2.1910	75.6210
 2.1900	75.6365
 2.1890	75.7122
 2.1880	75.5910
 2.1870	75.6270
 2.1860	75.7118
 2.1850	75.6864
 2.1840	75.7182
 2.1830	75.8330
 2.1820	75.7270
 2.1810	75.8197
 2.1800	75.7170
 2.1790	75.8291
 2.1780	75.8326
 2.1770	75.8889
 2.1760	75.9437
 2.1750	75.9114
 2.1740	75.8658
 2.1730	75.9048
 2.1720	75.9883
 2.1710	76.0180
 2.1700	75.9781
 2.1690	76.0335
 2.1680	76.1164
 2.1670	76.1155
 2.1660	76.0368
 2.1650	76.1512
 2.1640	76.0630
 2.1630	76.2612
 2.1620	76.2038
 2.1610	76.2355
 2.1600	76.2672
 2.1590	76.3750
 2.1580	76.3721
 2.1570	76.4388
 2.1560	76.2735
 2.1550	76.3877
 2.1540	76.3138
 2.1530	76.3559
 2.1520	76.3919
 2.1510	76.3559
 2.1500	76.4435
 2.1490	76.3889
 2.1480	76.4904
 2.1470	76.3929
 2.1460	76.3712
 2.1450	76.3459
 2.1440	76.4197
 2.1430	76.4970
 2.1420	76.4526
 2.1410	76.4333
 2.1400	76.4729
 2.1390	76.4755
 2.1380	76.4084
 2.1370	76.4062
 2.1360	76.2845
 2.1350	76.3521
 2.1340	76.3074
 2.1330	76.3063
 2.1320	76.2242
 2.1310	76.1376
 2.1300	76.2202
 2.1290	76.2391
 2.1280	76.1960
 2.1270	76.2075
 2.1260	76.2062
 2.1250	76.0871
 2.1240	76.0562
 2.1230	76.0431
 2.1220	75.9407
 2.1210	75.9263
 2.1200	75.8388
 2.1190	75.8256
 2.1180	75.8519
 2.1170	75.7654
 2.1160	75.7335
 2.1150	75.6838
 2.1140	75.6159
 2.1130	75.5954
 2.1120	75.5748
 2.1110	75.5553
 2.1100	75.4955
 2.1090	75.3947
 2.1080	75.3391
 2.1070	75.3554
 2.1060	75.3263
 2.1050	75.2317
 2.1040	75.1578
 2.1030	75.2691
 2.1020	75.2174
 2.1010	75.1282
 2.1000	75.0818
 2.0990	75.0715
 2.0980	75.0333
 2.0970	75.0708
 2.0960	75.0593
 2.0950	75.0970
 2.0940	75.1443
 2.0930	75.1885
 2.0920	75.1502
 2.0910	75.1275
 2.0900	75.1602
 2.0890	75.2282
 2.0880	75.1899
 2.0870	75.1362
 2.0860	75.1697
 2.0850	75.1827
 2.0840	75.2092
 2.0830	75.2204
 2.0820	75.2328
 2.0810	75.2616
 2.0800	75.2316
 2.0790	75.2402
 2.0780	75.2555
 2.0770	75.2573
 2.0760	75.3166
 2.0750	75.3366
 2.0740	75.3165
 2.0730	75.2904
 2.0720	75.2741
 2.0710	75.2919
 2.0700	75.3400
 2.0690	75.3163
 2.0680	75.2969
 2.0670	75.3114
 2.0660	75.2776
 2.0650	75.2850
 2.0640	75.3399
 2.0630	75.3335
 2.0620	75.3535
 2.0610	75.3871
 2.0600	75.3878
 2.0590	75.4223
 2.0580	75.4505
 2.0570	75.4349
 2.0560	75.4033
 2.0550	75.3765
 2.0540	75.3880
 2.0530	75.3851
 2.0520	75.3817
 2.0510	75.3757
 2.0500	75.4638
 2.0490	75.4677
 2.0480	75.4570
 2.0470	75.4415
 2.0460	75.4834
 2.0450	75.5322
 2.0440	75.5310
 2.0430	75.4414
 2.0420	75.4497
 2.0410	75.4918
 2.0400	75.5041
 2.0390	75.4224
 2.0380	75.3959
 2.0370	75.5062
 2.0360	75.4700
 2.0350	75.5277
 2.0340	75.5091
 2.0330	75.4091
 2.0320	75.4263
 2.0310	75.4858
 2.0300	75.4843
 2.0290	75.4647
 2.0280	75.4511
 2.0270	75.4140
 2.0260	75.4265
 2.0250	75.4692
 2.0240	75.5107
 2.0230	75.4484
 2.0220	75.3374
 2.0210	75.4415
 2.0200	75.4735
 2.0190	75.4124
 2.0180	75.4493
 2.0170	75.4384
 2.0160	75.4120
 2.0150	75.3976
 2.0140	75.4029
 2.0130	75.3743
 2.0120	75.3613
 2.0110	75.3717
 2.0100	75.3899
 2.0090	75.3599
 2.0080	75.3184
 2.0070	75.3052
 2.0060	75.3368
 2.0050	75.3540
 2.0040	75.3710
 2.0030	75.2971
 2.0020	75.2780
 2.0010	75.2851
 2.0000	75.2368
 1.9990	75.2402
 1.9980	75.3037
 1.9970	75.2937
 1.9960	75.2455
 1.9950	75.2125
 1.9940	75.2255
 1.9930	75.2109
 1.9920	75.2208
 1.9910	75.1771
 1.9900	75.1690
 1.9890	75.0880
 1.9880	75.2130
 1.9870	75.1271
 1.9860	75.1587
 1.9850	75.0955
 1.9840	75.0386
 1.9830	75.0550
 1.9820	74.9784
 1.9810	74.9133
 1.9800	75.0008
 1.9790	74.8903
 1.9780	74.9656
 1.9770	74.9527
 1.9760	74.8964
 1.9750	74.8539
 1.9740	74.9075
 1.9730	74.8307
 1.9720	74.7619
 1.9710	74.8715
 1.9700	74.9422
 1.9690	74.7997
 1.9680	74.7873
 1.9670	74.7881
 1.9660	74.7952
 1.9650	74.7643
 1.9640	74.7793
 1.9630	74.7917
 1.9620	74.7852
 1.9610	74.8390
 1.9600	74.7586
 1.9590	74.6246
 1.9580	74.6255
 1.9570	74.6889
 1.9560	74.6821
 1.9550	74.6298
 1.9540	74.5759
 1.9530	74.6277
 1.9520	74.5273
 1.9510	74.6753
 1.9500	74.6511
 1.9490	74.5927
 1.9480	74.6252
 1.9470	74.6752
 1.9460	74.6718
 1.9450	74.5133
 1.9440	74.6518
 1.9430	74.5745
 1.9420	74.6447
 1.9410	74.6092
 1.9400	74.6556
 1.9390	74.4717
 1.9380	74.5769
 1.9370	74.5502
 1.9360	74.5939
 1.9350	74.5215
 1.9340	74.4452
 1.9330	74.5087
 1.9320	74.4545
 1.9310	74.4609
 1.9300	74.5219
 1.9290	74.5493
 1.9280	74.4634
 1.9270	74.5778
 1.9260	74.4149
 1.9250	74.4615
 1.9240	74.4477
 1.9230	74.4274
 1.9220	74.4204
 1.9210	74.3443
 1.9200	74.3968
 1.9190	74.4421
 1.9180	74.3818
 1.9170	74.2888
 1.9160	74.4541
 1.9150	74.3556
 1.9140	74.4189
 1.9130	74.4180
 1.9120	74.5251
 1.9110	74.4968
 1.9100	74.6442
 1.9090	74.5675
 1.9080	74.6236
 1.9070	74.5839
 1.9060	74.5808
 1.9050	74.6356
 1.9040	74.7299
 1.9030	74.6589
 1.9020	74.7559
 1.9010	74.8381
 1.9000	74.8608
 1.8990	74.9653
 1.8980	74.9509
 1.8970	74.9668
 1.8960	75.0645
 1.8950	75.0271
 1.8940	75.1126
 1.8930	75.1765
 1.8920	75.2046
 1.8910	75.2415
 1.8900	75.2236
 1.8890	75.1570
 1.8880	75.3038
 1.8870	75.3005
 1.8860	75.3448
 1.8850	75.3703
 1.8840	75.3791
 1.8830	75.3457
 1.8820	75.4028
 1.8810	75.3894
 1.8800	75.5629
 1.8790	75.4665
 1.8780	75.5034
 1.8770	75.5258
 1.8760	75.7242
 1.8750	75.7462
 1.8740	75.5955
 1.8730	75.5706
 1.8720	75.5636
 1.8710	75.5609
 1.8700	75.4981
 1.8690	75.5540
 1.8680	75.5035
 1.8670	75.4560
 1.8660	75.5791
 1.8650	75.5773
 1.8640	75.5732
 1.8630	75.5984
 1.8620	75.6387
 1.8610	75.6007
 1.8600	75.6104
 1.8590	75.5747
 1.8580	75.6522
 1.8570	75.6194
 1.8560	75.6258
 1.8550	75.5654
 1.8540	75.6022
 1.8530	75.6779
 1.8520	75.6927
 1.8510	75.5974
 1.8500	75.6570
 1.8490	75.6444
 1.8480	75.6529
 1.8470	75.6292
 1.8460	75.6610
 1.8450	75.6690
 1.8440	75.6336
 1.8430	75.6334
 1.8420	75.7196
 1.8410	75.6875
 1.8400	75.6928
 1.8390	75.6395
 1.8380	75.6796
 1.8370	75.6259
 1.8360	75.6247
 1.8350	75.5900
 1.8340	75.5946
 1.8330	75.6174
 1.8320	75.5675
 1.8310	75.5169
 1.8300	75.5934
 1.8290	75.5599
 1.8280	75.5381
 1.8270	75.5763
 1.8260	75.5632
 1.8250	75.5862
 1.8240	75.6494
 1.8230	75.6129
 1.8220	75.6632
 1.8210	75.5974
 1.8200	75.5386
 1.8190	75.4955
 1.8180	75.5365
 1.8170	75.5667
 1.8160	75.5596
 1.8150	75.5282
 1.8140	75.5211
 1.8130	75.4928
 1.8120	75.4750
 1.8110	75.4618
 1.8100	75.5680
 1.8090	75.5556
 1.8080	75.5241
 1.8070	75.5380
 1.8060	75.5274
 1.8050	75.4473
 1.8040	75.5351
 1.8030	75.5727
 1.8020	75.5205
 1.8010	75.5119
 1.8000	75.5428
 1.7990	75.5716
 1.7980	75.5324
 1.7970	75.4769
 1.7960	75.5494
 1.7950	75.6341
 1.7940	75.5833
 1.7930	75.4730
 1.7920	75.4566
 1.7910	75.4557
 1.7900	75.4968
 1.7890	75.4885
 1.7880	75.4086
 1.7870	75.4254
 1.7860	75.4786
 1.7850	75.4476
 1.7840	75.4746
 1.7830	75.4532
 1.7820	75.3631
 1.7810	75.4064
 1.7800	75.4261
 1.7790	75.4087
 1.7780	75.4251
 1.7770	75.4085
 1.7760	75.3636
 1.7750	75.3573
 1.7740	75.3699
 1.7730	75.4106
 1.7720	75.4347
 1.7710	75.4715
 1.7700	75.4422
 1.7690	75.4445
 1.7680	75.4207
 1.7670	75.3547
 1.7660	75.3977
 1.7650	75.4798
 1.7640	75.4076
 1.7630	75.3649
 1.7620	75.4266
 1.7610	75.4421
 1.7600	75.3916
 1.7590	75.4020
 1.7580	75.3754
 1.7570	75.3094
 1.7560	75.3214
 1.7550	75.3372
 1.7540	75.3021
 1.7530	75.3563
 1.7520	75.3429
 1.7510	75.3919
 1.7500	75.4107
 1.7490	75.3315
 1.7480	75.3724
 1.7470	75.4539
 1.7460	75.3732
 1.7450	75.3626
 1.7440	75.3029
 1.7430	75.2930
 1.7420	75.3442
 1.7410	75.3383
 1.7400	75.3430
 1.7390	75.3982
 1.7380	75.3557
 1.7370	75.3376
 1.7360	75.3972
 1.7350	75.3368
 1.7340	75.3261
 1.7330	75.3894
 1.7320	75.4040
 1.7310	75.3745
 1.7300	75.3327
 1.7290	75.3860
 1.7280	75.3541
 1.7270	75.3876
 1.7260	75.3760
 1.7250	75.3414
 1.7240	75.3423
 1.7230	75.2931
 1.7220	75.3031
 1.7210	75.3521
 1.7200	75.3560
 1.7190	75.3503
 1.7180	75.3722
 1.7170	75.3543
 1.7160	75.2799
 1.7150	75.2346
 1.7140	75.3101
 1.7130	75.2406
 1.7120	75.2529
 1.7110	75.2613
 1.7100	75.2209
 1.7090	75.2589
 1.7080	75.2966
 1.7070	75.2903
 1.7060	75.2891
 1.7050	75.2862
 1.7040	75.2727
 1.7030	75.2805
 1.7020	75.2452
 1.7010	75.2905
 1.7000	75.2392
 1.6990	75.3136
 1.6980	75.2190
 1.6970	75.2435
 1.6960	75.2387
 1.6950	75.2557
 1.6940	75.2834
 1.6930	75.1817
 1.6920	75.2386
 1.6910	75.2705
 1.6900	75.1700
 1.6890	75.1790
 1.6880	75.1668
 1.6870	75.1356
 1.6860	75.1135
 1.6850	75.2527
 1.6840	75.2079
 1.6830	75.2313
 1.6820	75.1865
 1.6810	75.1583
 1.6800	75.1302
 1.6790	75.1769
 1.6780	75.1333
 1.6770	75.1224
 1.6760	75.0837
 1.6750	75.1733
 1.6740	75.0656
 1.6730	75.1255
 1.6720	75.0978
 1.6710	75.1103
 1.6700	75.1492
 1.6690	75.1036
 1.6680	75.1047
 1.6670	75.0638
 1.6660	75.1004
 1.6650	75.1354
 1.6640	75.1024
 1.6630	75.0787
 1.6620	75.1151
 1.6610	75.1261
 1.6600	75.0494
 1.6590	75.1157
 1.6580	75.0347
 1.6570	75.0765
 1.6560	75.1058
 1.6550	75.0034
 1.6540	75.0534
 1.6530	75.0715
 1.6520	75.0474
 1.6510	75.0885
 1.6500	74.9652
 1.6490	75.0644
 1.6480	74.9988
 1.6470	75.0629
 1.6460	75.1172
 1.6450	75.0616
 1.6440	75.0167
 1.6430	75.0532
 1.6420	74.9346
 1.6410	74.9825
 1.6400	75.0899
 1.6390	75.0091
 1.6380	74.9458
 1.6370	75.0638
 1.6360	74.9170
 1.6350	75.0767
 1.6340	74.9146
 1.6330	75.0176
 1.6320	75.0521
 1.6310	75.0315
 1.6300	74.9355
 1.6290	75.0181
 1.6280	74.9843
 1.6270	74.9991
 1.6260	74.9374
 1.6250	74.9848
 1.6240	74.8974
 1.6230	75.0232
 1.6220	74.9316
 1.6210	75.0426
 1.6200	74.8554
 1.6190	74.9509
 1.6180	74.9275
 1.6170	74.9247
 1.6160	74.8939
 1.6150	74.9956
 1.6140	74.9338
 1.6130	74.9138
 1.6120	74.9773
 1.6110	74.9946
 1.6100	74.9932
 1.6090	74.9137
 1.6080	74.8690
 1.6070	74.9577
 1.6060	74.9726
 1.6050	74.9629
 1.6040	74.9436
 1.6030	74.9499
 1.6020	74.9312
 1.6010	74.9010
 1.6000	74.9582
 1.5990	74.8979
 1.5980	74.9548
 1.5970	74.9208
 1.5960	74.8715
 1.5950	74.8757
 1.5940	74.9410
 1.5930	74.9045
 1.5920	74.8318
 1.5910	74.8643
 1.5900	74.8778
 1.5890	74.9158
 1.5880	74.8150
 1.5870	74.8220
 1.5860	74.7576
 1.5850	74.7937
 1.5840	74.8990
 1.5830	74.8806
 1.5820	74.8101
 1.5810	74.8596
 1.5800	74.7914
 1.5790	74.8150
 1.5780	74.7974
 1.5770	74.8155
 1.5760	74.8268
 1.5750	74.7810
 1.5740	74.8412
 1.5730	74.8055
 1.5720	74.7792
 1.5710	74.8000
 1.5700	74.7623
 1.5690	74.7000
 1.5680	74.7350
 1.5670	74.7372
 1.5660	74.7235
 1.5650	74.7582
 1.5640	74.7491
 1.5630	74.7779
 1.5620	74.7053
 1.5610	74.7270
 1.5600	74.7185
 1.5590	74.7840
 1.5580	74.6820
 1.5570	74.6466
 1.5560	74.7380
 1.5550	74.7061
 1.5540	74.6947
 1.5530	74.7382
 1.5520	74.6766
 1.5510	74.7032
 1.5500	74.6742
 1.5490	74.6379
 1.5480	74.5110
 1.5470	74.5817
 1.5460	74.6992
 1.5450	74.7209
 1.5440	74.7258
 1.5430	74.6538
 1.5420	74.6074
 1.5410	74.6625
 1.5400	74.6041
 1.5390	74.5632
 1.5380	74.6463
 1.5370	74.7037
 1.5360	74.6194
 1.5350	74.6148
 1.5340	74.5801
 1.5330	74.5698
 1.5320	74.5330
 1.5310	74.5599
 1.5300	74.5517
 1.5290	74.5161
 1.5280	74.5777
 1.5270	74.5691
 1.5260	74.5322
 1.5250	74.5484
 1.5240	74.5326
 1.5230	74.4986
 1.5220	74.4207
 1.5210	74.4648
 1.5200	74.5040
 1.5190	74.4814
 1.5180	74.4487
 1.5170	74.3972
 1.5160	74.3956
 1.5150	74.3789
 1.5140	74.4441
 1.5130	74.4502
 1.5120	74.3758
 1.5110	74.3730
 1.5100	74.3915
 1.5090	74.4406
 1.5080	74.4604
 1.5070	74.4469
 1.5060	74.4229
 1.5050	74.3883
 1.5040	74.3653
 1.5030	74.4241
 1.5020	74.3727
 1.5010	74.3242
 1.5000	74.3745
 1.4990	74.3517
 1.4980	74.3515
 1.4970	74.2977
 1.4960	74.3173
 1.4950	74.3637
 1.4940	74.3286
 1.4930	74.3513
 1.4920	74.4067
 1.4910	74.3607
 1.4900	74.2664
 1.4890	74.2110
 1.4880	74.2834
 1.4870	74.3463
 1.4860	74.3234
 1.4850	74.2441
 1.4840	74.2554
 1.4830	74.2600
 1.4820	74.2302
 1.4810	74.2278
 1.4800	74.2971
 1.4790	74.2430
 1.4780	74.2016
 1.4770	74.2066
 1.4760	74.2052
 1.4750	74.1673
 1.4740	74.1888
 1.4730	74.1562
 1.4720	74.0948
 1.4710	74.0653
 1.4700	74.1495
 1.4690	74.1117
 1.4680	74.0859
 1.4670	74.0969
 1.4660	74.0864
 1.4650	74.1304
 1.4640	74.1267
 1.4630	74.1610
 1.4620	74.1566
 1.4610	74.0877
 1.4600	74.1116
 1.4590	74.0733
 1.4580	74.0288
 1.4570	74.0313
 1.4560	74.0583
 1.4550	74.0302
 1.4540	74.0305
 1.4530	74.0772
 1.4520	74.0973
 1.4510	74.0508
 1.4500	74.0694
 1.4490	73.9876
 1.4480	74.0223
 1.4470	74.0646
 1.4460	74.0634
 1.4450	74.0430
 1.4440	73.9746
 1.4430	73.9419
 1.4420	73.9398
 1.4410	73.8716
 1.4400	73.9685
 1.4390	73.9045
 1.4380	73.9395
 1.4370	73.9296
 1.4360	73.9451
 1.4350	73.8610
 1.4340	73.9275
 1.4330	73.8705
 1.4320	73.9046
 1.4310	73.8514
 1.4300	73.9229
 1.4290	73.8905
 1.4280	73.8531
 1.4270	73.7953
 1.4260	73.8216
 1.4250	73.8060
 1.4240	73.8791
 1.4230	73.7886
 1.4220	73.9336
 1.4210	73.8338
 1.4200	73.8508
 1.4190	73.7594
 1.4180	73.7869
 1.4170	73.7817
 1.4160	73.7524
 1.4150	73.7871
 1.4140	73.7742
 1.4130	73.7599
 1.4120	73.8245
 1.4110	73.8193
 1.4100	73.8431
 1.4090	73.7643
 1.4080	73.8073
 1.4070	73.8075
 1.4060	73.7474
 1.4050	73.7157
 1.4040	73.8593
 1.4030	73.7815
 1.4020	73.8497
 1.4010	73.7944
 1.4000	73.7804
 1.3990	73.8647
 1.3980	73.8907
 1.3970	73.9611
 1.3960	73.9347
 1.3950	73.8144
 1.3940	73.7887
 1.3930	73.8790
 1.3920	73.8905
 1.3910	73.8871
 1.3900	73.9938
 1.3890	73.8822
 1.3880	73.9923
 1.3870	73.8554
 1.3860	73.8867
 1.3850	73.9714
 1.3840	73.9367
 1.3830	73.8278
 1.3820	73.8426
 1.3810	73.8238
 1.3800	73.9212
 1.3790	73.8408
 1.3780	73.9239
 1.3770	73.8106
 1.3760	73.8036
 1.3750	73.8584
 1.3740	73.8089
 1.3730	73.8023
 1.3720	73.9167
 1.3710	73.8053
 1.3700	73.8275
 1.3690	73.8014
 1.3680	73.8426
 1.3670	73.9213
