Name: Gahnite ZnAl_2O_4
Type: Mineral
Class: Oxide
Subclass: None
Particle Size: Fine
Sample No.: O-11A
Owner: JPL
Wavelength Range: VSWIR
Origin: Nigeria, Kaduna, Jemaa, Godogodo Mine.
Collection Date: N/A
Description: Particle size was 0-45um.Collected by:  New, David Original ASTER Spectral Library name was jpl.perkin.mineral.oxide.none.fine.o11a.spectrum.txt
Measurement: Hemispherical reflectance
First Column: X
Second Column: Y
X Units: Wavelength (micrometers)
Y Units:Reflectance (percent)
First X Value:  2.5000
Last X Value:  0.4000
Number of X Values: 2101
Additional Information: mineral.oxide.none.fine.vswir.o-11a.jpl.perkin.ancillary.txt

 2.5000	14.4230
 2.4990	14.0703
 2.4980	14.4221
 2.4970	14.3370
 2.4960	14.0250
 2.4950	14.3856
 2.4940	14.4271
 2.4930	14.2592
 2.4920	14.3697
 2.4910	14.3238
 2.4900	14.5306
 2.4890	14.2178
 2.4880	14.5930
 2.4870	14.2349
 2.4860	14.5579
 2.4850	14.1941
 2.4840	14.4433
 2.4830	14.3934
 2.4820	14.3500
 2.4810	14.2268
 2.4800	14.5171
 2.4790	14.1945
 2.4780	14.4051
 2.4770	14.0986
 2.4760	14.5631
 2.4750	14.3163
 2.4740	14.5259
 2.4730	14.5014
 2.4720	14.4810
 2.4710	14.3632
 2.4700	14.4361
 2.4690	14.4277
 2.4680	14.5684
 2.4670	14.3171
 2.4660	14.6825
 2.4650	14.4316
 2.4640	14.4807
 2.4630	14.4970
 2.4620	14.5259
 2.4610	14.4575
 2.4600	14.4999
 2.4590	14.4668
 2.4580	14.4610
 2.4570	14.5329
 2.4560	14.6491
 2.4550	14.4520
 2.4540	14.6302
 2.4530	14.4551
 2.4520	14.5444
 2.4510	14.4961
 2.4500	14.6501
 2.4490	14.5046
 2.4480	14.5793
 2.4470	14.3515
 2.4460	14.5740
 2.4450	14.4864
 2.4440	14.6415
 2.4430	14.5927
 2.4420	14.6824
 2.4410	14.4223
 2.4400	14.5534
 2.4390	14.5649
 2.4380	14.6943
 2.4370	14.6078
 2.4360	14.6798
 2.4350	14.5650
 2.4340	14.6879
 2.4330	14.6061
 2.4320	14.6847
 2.4310	14.5341
 2.4300	14.6477
 2.4290	14.5916
 2.4280	14.7776
 2.4270	14.6488
 2.4260	14.6002
 2.4250	14.6393
 2.4240	14.6902
 2.4230	14.6104
 2.4220	14.7540
 2.4210	14.5803
 2.4200	14.7512
 2.4190	14.6418
 2.4180	14.7418
 2.4170	14.7057
 2.4160	14.6577
 2.4150	14.6874
 2.4140	14.7972
 2.4130	14.7220
 2.4120	14.6681
 2.4110	14.6930
 2.4100	14.7529
 2.4090	14.7216
 2.4080	14.8698
 2.4070	14.7402
 2.4060	14.7743
 2.4050	14.7585
 2.4040	14.8122
 2.4030	14.8303
 2.4020	14.7750
 2.4010	14.7611
 2.4000	14.7979
 2.3990	14.7502
 2.3980	14.8195
 2.3970	14.8112
 2.3960	14.8383
 2.3950	14.7891
 2.3940	14.8669
 2.3930	14.7832
 2.3920	14.8299
 2.3910	14.7994
 2.3900	14.8356
 2.3890	14.8228
 2.3880	14.7841
 2.3870	14.8106
 2.3860	14.8451
 2.3850	14.8438
 2.3840	14.8723
 2.3830	14.9378
 2.3820	14.9834
 2.3810	14.8610
 2.3800	14.8685
 2.3790	14.8967
 2.3780	14.9189
 2.3770	14.8722
 2.3760	14.9288
 2.3750	14.9171
 2.3740	14.8880
 2.3730	14.8631
 2.3720	14.8939
 2.3710	14.9065
 2.3700	14.8542
 2.3690	14.8754
 2.3680	14.9004
 2.3670	14.8697
 2.3660	14.9259
 2.3650	14.8992
 2.3640	14.9018
 2.3630	14.8591
 2.3620	14.8961
 2.3610	14.9411
 2.3600	14.8701
 2.3590	14.8241
 2.3580	14.8702
 2.3570	14.8540
 2.3560	14.8777
 2.3550	14.8884
 2.3540	14.8220
 2.3530	14.8576
 2.3520	14.8763
 2.3510	14.8207
 2.3500	14.7859
 2.3490	14.7698
 2.3480	14.7832
 2.3470	14.8437
 2.3460	14.8276
 2.3450	14.8473
 2.3440	14.8645
 2.3430	14.8373
 2.3420	14.7966
 2.3410	14.8267
 2.3400	14.7748
 2.3390	14.7706
 2.3380	14.8152
 2.3370	14.8106
 2.3360	14.7693
 2.3350	14.7523
 2.3340	14.7298
 2.3330	14.7403
 2.3320	14.7676
 2.3310	14.7569
 2.3300	14.6863
 2.3290	14.7582
 2.3280	14.7216
 2.3270	14.7296
 2.3260	14.7188
 2.3250	14.6831
 2.3240	14.6422
 2.3230	14.6523
 2.3220	14.6245
 2.3210	14.6201
 2.3200	14.6117
 2.3190	14.6853
 2.3180	14.6707
 2.3170	14.6890
 2.3160	14.6330
 2.3150	14.6262
 2.3140	14.5770
 2.3130	14.6539
 2.3120	14.6213
 2.3110	14.6198
 2.3100	14.5388
 2.3090	14.6370
 2.3080	14.5803
 2.3070	14.5678
 2.3060	14.5490
 2.3050	14.5522
 2.3040	14.4759
 2.3030	14.5058
 2.3020	14.4836
 2.3010	14.4537
 2.3000	14.4748
 2.2990	14.4729
 2.2980	14.3482
 2.2970	14.4516
 2.2960	14.4194
 2.2950	14.4094
 2.2940	14.3111
 2.2930	14.3774
 2.2920	14.3022
 2.2910	14.2888
 2.2900	14.3035
 2.2890	14.3972
 2.2880	14.2739
 2.2870	14.2906
 2.2860	14.2530
 2.2850	14.3143
 2.2840	14.1943
 2.2830	14.3213
 2.2820	14.1824
 2.2810	14.2530
 2.2800	14.1522
 2.2790	14.1849
 2.2780	14.1142
 2.2770	14.2191
 2.2760	14.1449
 2.2750	14.1764
 2.2740	14.0280
 2.2730	14.1343
 2.2720	14.0625
 2.2710	14.1325
 2.2700	13.9834
 2.2690	14.0716
 2.2680	13.9533
 2.2670	14.0142
 2.2660	13.9726
 2.2650	14.0194
 2.2640	13.8898
 2.2630	13.9386
 2.2620	13.8456
 2.2610	13.9330
 2.2600	13.9243
 2.2590	13.8409
 2.2580	13.7982
 2.2570	13.9367
 2.2560	13.7937
 2.2550	13.8619
 2.2540	13.7323
 2.2530	13.9114
 2.2520	13.7490
 2.2510	13.7723
 2.2500	13.6677
 2.2490	13.7315
 2.2480	13.7323
 2.2470	13.6839
 2.2460	13.6452
 2.2450	13.6539
 2.2440	13.5321
 2.2430	13.6228
 2.2420	13.5830
 2.2410	13.6391
 2.2400	13.4360
 2.2390	13.6601
 2.2380	13.5244
 2.2370	13.5484
 2.2360	13.4661
 2.2350	13.5635
 2.2340	13.3317
 2.2330	13.5106
 2.2320	13.4351
 2.2310	13.4059
 2.2300	13.3384
 2.2290	13.4604
 2.2280	13.3231
 2.2270	13.3992
 2.2260	13.2220
 2.2250	13.3688
 2.2240	13.2047
 2.2230	13.3406
 2.2220	13.1882
 2.2210	13.3181
 2.2200	13.2082
 2.2190	13.2184
 2.2180	13.1116
 2.2170	13.2293
 2.2160	13.0138
 2.2150	13.1744
 2.2140	12.9933
 2.2130	13.1480
 2.2120	13.0620
 2.2110	13.0571
 2.2100	13.0287
 2.2090	13.0689
 2.2080	12.9063
 2.2070	13.0835
 2.2060	12.8601
 2.2050	12.9976
 2.2040	12.8987
 2.2030	13.0050
 2.2020	12.8265
 2.2010	12.9238
 2.2000	12.8260
 2.1990	12.9439
 2.1980	12.8276
 2.1970	12.8335
 2.1960	12.7886
 2.1950	12.8268
 2.1940	12.7559
 2.1930	12.8456
 2.1920	12.7029
 2.1910	12.7985
 2.1900	12.6712
 2.1890	12.6985
 2.1880	12.7145
 2.1870	12.6941
 2.1860	12.5828
 2.1850	12.7054
 2.1840	12.6131
 2.1830	12.6809
 2.1820	12.5718
 2.1810	12.5712
 2.1800	12.4630
 2.1790	12.5539
 2.1780	12.4815
 2.1770	12.6288
 2.1760	12.5286
 2.1750	12.5234
 2.1740	12.4452
 2.1730	12.4977
 2.1720	12.4624
 2.1710	12.4230
 2.1700	12.3860
 2.1690	12.4026
 2.1680	12.3173
 2.1670	12.4358
 2.1660	12.4087
 2.1650	12.4410
 2.1640	12.3212
 2.1630	12.3369
 2.1620	12.3010
 2.1610	12.3690
 2.1600	12.2560
 2.1590	12.3609
 2.1580	12.3109
 2.1570	12.3096
 2.1560	12.2891
 2.1550	12.3659
 2.1540	12.1951
 2.1530	12.3214
 2.1520	12.1863
 2.1510	12.2728
 2.1500	12.1747
 2.1490	12.1993
 2.1480	12.1610
 2.1470	12.1962
 2.1460	12.1534
 2.1450	12.2055
 2.1440	12.0457
 2.1430	12.1549
 2.1420	12.1051
 2.1410	12.1469
 2.1400	12.0653
 2.1390	12.0664
 2.1380	12.0592
 2.1370	12.0871
 2.1360	12.0182
 2.1350	12.0176
 2.1340	11.9919
 2.1330	12.0346
 2.1320	11.9269
 2.1310	11.9525
 2.1300	11.9318
 2.1290	11.8766
 2.1280	11.8593
 2.1270	11.9402
 2.1260	11.7912
 2.1250	11.8300
 2.1240	11.8584
 2.1230	11.8749
 2.1220	11.8140
 2.1210	11.8685
 2.1200	11.7726
 2.1190	11.7818
 2.1180	11.7606
 2.1170	11.7544
 2.1160	11.7236
 2.1150	11.6725
 2.1140	11.6348
 2.1130	11.6879
 2.1120	11.6156
 2.1110	11.6935
 2.1100	11.6412
 2.1090	11.6059
 2.1080	11.5935
 2.1070	11.5889
 2.1060	11.5668
 2.1050	11.5965
 2.1040	11.5703
 2.1030	11.5677
 2.1020	11.4749
 2.1010	11.5425
 2.1000	11.5279
 2.0990	11.5133
 2.0980	11.4213
 2.0970	11.4770
 2.0960	11.4941
 2.0950	11.5383
 2.0940	11.5085
 2.0930	11.4927
 2.0920	11.4411
 2.0910	11.4911
 2.0900	11.4660
 2.0890	11.4935
 2.0880	11.4738
 2.0870	11.4519
 2.0860	11.5154
 2.0850	11.5121
 2.0840	11.4704
 2.0830	11.4793
 2.0820	11.4919
 2.0810	11.4882
 2.0800	11.4459
 2.0790	11.4771
 2.0780	11.4815
 2.0770	11.4817
 2.0760	11.4653
 2.0750	11.4631
 2.0740	11.4715
 2.0730	11.4210
 2.0720	11.4392
 2.0710	11.4788
 2.0700	11.4619
 2.0690	11.4563
 2.0680	11.4448
 2.0670	11.4679
 2.0660	11.5155
 2.0650	11.5017
 2.0640	11.4676
 2.0630	11.4452
 2.0620	11.4651
 2.0610	11.4623
 2.0600	11.4662
 2.0590	11.4315
 2.0580	11.4983
 2.0570	11.5631
 2.0560	11.5424
 2.0550	11.4518
 2.0540	11.5128
 2.0530	11.5272
 2.0520	11.4604
 2.0510	11.4665
 2.0500	11.5706
 2.0490	11.5505
 2.0480	11.5134
 2.0470	11.5425
 2.0460	11.6180
 2.0450	11.5281
 2.0440	11.6069
 2.0430	11.5469
 2.0420	11.5757
 2.0410	11.5897
 2.0400	11.6459
 2.0390	11.5892
 2.0380	11.6084
 2.0370	11.6536
 2.0360	11.6797
 2.0350	11.6187
 2.0340	11.6466
 2.0330	11.6224
 2.0320	11.6471
 2.0310	11.6681
 2.0300	11.6921
 2.0290	11.6822
 2.0280	11.6553
 2.0270	11.6072
 2.0260	11.6991
 2.0250	11.6404
 2.0240	11.6459
 2.0230	11.6551
 2.0220	11.7419
 2.0210	11.7524
 2.0200	11.7737
 2.0190	11.6784
 2.0180	11.7593
 2.0170	11.7204
 2.0160	11.7521
 2.0150	11.7380
 2.0140	11.8249
 2.0130	11.7831
 2.0120	11.7681
 2.0110	11.6978
 2.0100	11.7461
 2.0090	11.7600
 2.0080	11.8052
 2.0070	11.8049
 2.0060	11.8436
 2.0050	11.7667
 2.0040	11.7729
 2.0030	11.8344
 2.0020	11.8520
 2.0010	11.8381
 2.0000	11.8925
 1.9990	11.8441
 1.9980	11.8838
 1.9970	11.8303
 1.9960	11.9579
 1.9950	11.9335
 1.9940	11.9831
 1.9930	11.8915
 1.9920	12.0018
 1.9910	11.9028
 1.9900	11.9926
 1.9890	11.9041
 1.9880	12.0091
 1.9870	11.8694
 1.9860	11.9719
 1.9850	11.9439
 1.9840	12.0972
 1.9830	11.9866
 1.9820	12.0755
 1.9810	11.9949
 1.9800	12.0640
 1.9790	11.9027
 1.9780	12.0882
 1.9770	12.0549
 1.9760	12.0812
 1.9750	11.9485
 1.9740	12.1425
 1.9730	12.1137
 1.9720	12.1683
 1.9710	12.0657
 1.9700	12.2245
 1.9690	12.1084
 1.9680	12.1885
 1.9670	12.1547
 1.9660	12.2185
 1.9650	12.1633
 1.9640	12.2134
 1.9630	12.2140
 1.9620	12.2475
 1.9610	12.1982
 1.9600	12.3144
 1.9590	12.2439
 1.9580	12.3791
 1.9570	12.2521
 1.9560	12.3843
 1.9550	12.3105
 1.9540	12.4074
 1.9530	12.2603
 1.9520	12.4221
 1.9510	12.3454
 1.9500	12.4134
 1.9490	12.4355
 1.9480	12.5047
 1.9470	12.3440
 1.9460	12.5021
 1.9450	12.4518
 1.9440	12.5034
 1.9430	12.4824
 1.9420	12.6156
 1.9410	12.5044
 1.9400	12.5937
 1.9390	12.5563
 1.9380	12.6233
 1.9370	12.5128
 1.9360	12.6461
 1.9350	12.5969
 1.9340	12.7026
 1.9330	12.5934
 1.9320	12.7585
 1.9310	12.6500
 1.9300	12.6759
 1.9290	12.6475
 1.9280	12.8353
 1.9270	12.7752
 1.9260	12.6855
 1.9250	12.8349
 1.9240	12.7749
 1.9230	12.7095
 1.9220	12.9121
 1.9210	12.8325
 1.9200	12.9517
 1.9190	12.8370
 1.9180	12.9258
 1.9170	12.9412
 1.9160	12.9787
 1.9150	12.8947
 1.9140	13.0571
 1.9130	12.8952
 1.9120	12.9993
 1.9110	12.9235
 1.9100	13.1019
 1.9090	13.1443
 1.9080	13.0764
 1.9070	13.0284
 1.9060	13.1683
 1.9050	13.1033
 1.9040	13.2121
 1.9030	13.0877
 1.9020	13.2581
 1.9010	13.2397
 1.9000	13.2620
 1.8990	13.1898
 1.8980	13.3081
 1.8970	13.2501
 1.8960	13.4227
 1.8950	13.3174
 1.8940	13.4422
 1.8930	13.3499
 1.8920	13.4979
 1.8910	13.4059
 1.8900	13.4647
 1.8890	13.3654
 1.8880	13.5464
 1.8870	13.5630
 1.8860	13.5409
 1.8850	13.4878
 1.8840	13.6897
 1.8830	13.5244
 1.8820	13.6859
 1.8810	13.6353
 1.8800	13.7255
 1.8790	13.6833
 1.8780	13.8506
 1.8770	13.7610
 1.8760	13.8421
 1.8750	13.7901
 1.8740	13.9017
 1.8730	13.7588
 1.8720	13.9628
 1.8710	13.8753
 1.8700	13.9452
 1.8690	13.9355
 1.8680	14.0166
 1.8670	14.0027
 1.8660	14.1215
 1.8650	14.0943
 1.8640	14.1246
 1.8630	14.1014
 1.8620	14.2120
 1.8610	14.1591
 1.8600	14.2564
 1.8590	14.2139
 1.8580	14.3532
 1.8570	14.2658
 1.8560	14.3755
 1.8550	14.2992
 1.8540	14.3893
 1.8530	14.3664
 1.8520	14.4982
 1.8510	14.5358
 1.8500	14.5961
 1.8490	14.5333
 1.8480	14.6632
 1.8470	14.6631
 1.8460	14.7580
 1.8450	14.6680
 1.8440	14.8544
 1.8430	14.7444
 1.8420	14.8921
 1.8410	14.9060
 1.8400	14.9129
 1.8390	14.8852
 1.8380	15.0148
 1.8370	14.9542
 1.8360	14.9824
 1.8350	15.0376
 1.8340	15.1477
 1.8330	15.1696
 1.8320	15.1682
 1.8310	15.2075
 1.8300	15.3042
 1.8290	15.3195
 1.8280	15.4026
 1.8270	15.3767
 1.8260	15.4421
 1.8250	15.4781
 1.8240	15.6173
 1.8230	15.6366
 1.8220	15.6427
 1.8210	15.6244
 1.8200	15.6628
 1.8190	15.7024
 1.8180	15.8105
 1.8170	15.8806
 1.8160	15.8846
 1.8150	15.8663
 1.8140	15.9139
 1.8130	16.0017
 1.8120	16.1310
 1.8110	16.1750
 1.8100	16.2123
 1.8090	16.2370
 1.8080	16.2622
 1.8070	16.2663
 1.8060	16.3409
 1.8050	16.4194
 1.8040	16.4618
 1.8030	16.4696
 1.8020	16.5630
 1.8010	16.5889
 1.8000	16.6863
 1.7990	16.7291
 1.7980	16.7939
 1.7970	16.8124
 1.7960	16.8570
 1.7950	16.9385
 1.7940	17.0159
 1.7930	17.0402
 1.7920	17.0971
 1.7910	17.1229
 1.7900	17.1730
 1.7890	17.2404
 1.7880	17.3226
 1.7870	17.3916
 1.7860	17.4226
 1.7850	17.4892
 1.7840	17.5254
 1.7830	17.5747
 1.7820	17.6535
 1.7810	17.7189
 1.7800	17.7760
 1.7790	17.8219
 1.7780	17.9502
 1.7770	17.9728
 1.7760	17.9674
 1.7750	18.0663
 1.7740	18.1270
 1.7730	18.1677
 1.7720	18.1971
 1.7710	18.3255
 1.7700	18.3870
 1.7690	18.4698
 1.7680	18.5159
 1.7670	18.5986
 1.7660	18.6520
 1.7650	18.7521
 1.7640	18.8177
 1.7630	18.8544
 1.7620	18.9351
 1.7610	19.0011
 1.7600	19.0079
 1.7590	19.1662
 1.7580	19.2115
 1.7570	19.2140
 1.7560	19.3324
 1.7550	19.4862
 1.7540	19.5222
 1.7530	19.5689
 1.7520	19.6071
 1.7510	19.6841
 1.7500	19.7414
 1.7490	19.8167
 1.7480	19.9035
 1.7470	20.0337
 1.7460	20.0743
 1.7450	20.2049
 1.7440	20.1889
 1.7430	20.2779
 1.7420	20.3690
 1.7410	20.4933
 1.7400	20.5276
 1.7390	20.6901
 1.7380	20.6992
 1.7370	20.8557
 1.7360	20.8564
 1.7350	20.9210
 1.7340	20.9900
 1.7330	21.1312
 1.7320	21.1913
 1.7310	21.3628
 1.7300	21.3138
 1.7290	21.4212
 1.7280	21.5197
 1.7270	21.6260
 1.7260	21.6510
 1.7250	21.8059
 1.7240	21.8019
 1.7230	21.9384
 1.7220	21.9694
 1.7210	22.0882
 1.7200	22.1740
 1.7190	22.3077
 1.7180	22.3697
 1.7170	22.4548
 1.7160	22.4833
 1.7150	22.5906
 1.7140	22.6722
 1.7130	22.7938
 1.7120	22.8804
 1.7110	22.9677
 1.7100	22.9704
 1.7090	23.1453
 1.7080	23.2487
 1.7070	23.3361
 1.7060	23.3870
 1.7050	23.5414
 1.7040	23.5383
 1.7030	23.7053
 1.7020	23.7257
 1.7010	23.8710
 1.7000	23.9899
 1.6990	24.0796
 1.6980	24.1232
 1.6970	24.2553
 1.6960	24.3018
 1.6950	24.4815
 1.6940	24.4899
 1.6930	24.6433
 1.6920	24.6316
 1.6910	24.8256
 1.6900	24.9059
 1.6890	25.0755
 1.6880	25.0568
 1.6870	25.1805
 1.6860	25.2924
 1.6850	25.4710
 1.6840	25.4169
 1.6830	25.5985
 1.6820	25.6634
 1.6810	25.8120
 1.6800	25.8409
 1.6790	26.0361
 1.6780	26.0804
 1.6770	26.2126
 1.6760	26.1895
 1.6750	26.3409
 1.6740	26.3902
 1.6730	26.6221
 1.6720	26.6443
 1.6710	26.8438
 1.6700	26.9272
 1.6690	27.0841
 1.6680	26.9471
 1.6670	27.3476
 1.6660	27.2429
 1.6650	27.4117
 1.6640	27.4630
 1.6630	27.6924
 1.6620	27.6638
 1.6610	27.8597
 1.6600	27.8873
 1.6590	28.1774
 1.6580	28.2074
 1.6570	28.3717
 1.6560	28.3781
 1.6550	28.6834
 1.6540	28.6768
 1.6530	28.8292
 1.6520	28.8263
 1.6510	28.9913
 1.6500	29.0556
 1.6490	29.2817
 1.6480	29.2802
 1.6470	29.4657
 1.6460	29.5335
 1.6450	29.8367
 1.6440	29.7740
 1.6430	30.0003
 1.6420	30.0319
 1.6410	30.1035
 1.6400	30.2715
 1.6390	30.3576
 1.6380	30.4672
 1.6370	30.7047
 1.6360	30.7820
 1.6350	30.8672
 1.6340	30.9123
 1.6330	31.2195
 1.6320	31.2608
 1.6310	31.4970
 1.6300	31.4907
 1.6290	31.6154
 1.6280	31.7276
 1.6270	31.9738
 1.6260	31.9706
 1.6250	32.1477
 1.6240	32.2397
 1.6230	32.4638
 1.6220	32.4107
 1.6210	32.6888
 1.6200	32.8150
 1.6190	32.9412
 1.6180	33.0728
 1.6170	33.2548
 1.6160	33.2853
 1.6150	33.4581
 1.6140	33.5795
 1.6130	33.7418
 1.6120	33.8027
 1.6110	33.9983
 1.6100	34.0680
 1.6090	34.2893
 1.6080	34.3483
 1.6070	34.5052
 1.6060	34.5574
 1.6050	34.7653
 1.6040	34.8852
 1.6030	35.0745
 1.6020	35.2355
 1.6010	35.4075
 1.6000	35.4803
 1.5990	35.5884
 1.5980	35.6648
 1.5970	35.8359
 1.5960	35.9545
 1.5950	36.2038
 1.5940	36.2531
 1.5930	36.3840
 1.5920	36.5170
 1.5910	36.7898
 1.5900	36.8407
 1.5890	37.0598
 1.5880	37.0713
 1.5870	37.3212
 1.5860	37.3921
 1.5850	37.5552
 1.5840	37.6120
 1.5830	37.8536
 1.5820	38.0100
 1.5810	38.1117
 1.5800	38.2706
 1.5790	38.4687
 1.5780	38.5484
 1.5770	38.7889
 1.5760	38.8461
 1.5750	39.0748
 1.5740	39.0839
 1.5730	39.3121
 1.5720	39.3806
 1.5710	39.5997
 1.5700	39.6852
 1.5690	39.8802
 1.5680	40.0298
 1.5670	40.1385
 1.5660	40.2671
 1.5650	40.4798
 1.5640	40.5736
 1.5630	40.7553
 1.5620	40.9436
 1.5610	41.0634
 1.5600	41.2158
 1.5590	41.3757
 1.5580	41.4229
 1.5570	41.6421
 1.5560	41.8261
 1.5550	41.9776
 1.5540	42.0289
 1.5530	42.2339
 1.5520	42.3287
 1.5510	42.5241
 1.5500	42.6763
 1.5490	42.8235
 1.5480	42.9599
 1.5470	43.1122
 1.5460	43.2245
 1.5450	43.4026
 1.5440	43.5266
 1.5430	43.6813
 1.5420	43.8371
 1.5410	44.0019
 1.5400	44.1478
 1.5390	44.3228
 1.5380	44.4131
 1.5370	44.5644
 1.5360	44.7214
 1.5350	44.8742
 1.5340	44.9922
 1.5330	45.2042
 1.5320	45.3390
 1.5310	45.4455
 1.5300	45.5925
 1.5290	45.7565
 1.5280	45.8517
 1.5270	46.0093
 1.5260	46.1642
 1.5250	46.3095
 1.5240	46.4052
 1.5230	46.5426
 1.5220	46.6423
 1.5210	46.7656
 1.5200	46.9512
 1.5190	47.1546
 1.5180	47.2588
 1.5170	47.3811
 1.5160	47.5079
 1.5150	47.6200
 1.5140	47.7650
 1.5130	47.9285
 1.5120	48.0089
 1.5110	48.1390
 1.5100	48.2607
 1.5090	48.4070
 1.5080	48.5102
 1.5070	48.6040
 1.5060	48.7686
 1.5050	48.9228
 1.5040	49.1063
 1.5030	49.2885
 1.5020	49.3504
 1.5010	49.4931
 1.5000	49.6747
 1.4990	49.8031
 1.4980	49.9496
 1.4970	50.1546
 1.4960	50.3839
 1.4950	50.5487
 1.4940	50.6833
 1.4930	50.8576
 1.4920	51.0201
 1.4910	51.1148
 1.4900	51.2739
 1.4890	51.4564
 1.4880	51.6676
 1.4870	51.8345
 1.4860	51.9640
 1.4850	52.0934
 1.4840	52.2866
 1.4830	52.4534
 1.4820	52.5964
 1.4810	52.7243
 1.4800	52.9168
 1.4790	53.0600
 1.4780	53.1430
 1.4770	53.2753
 1.4760	53.4700
 1.4750	53.5427
 1.4740	53.6889
 1.4730	53.8548
 1.4720	54.0069
 1.4710	54.1576
 1.4700	54.3166
 1.4690	54.4924
 1.4680	54.6523
 1.4670	54.7210
 1.4660	54.7974
 1.4650	54.9846
 1.4640	55.2006
 1.4630	55.3643
 1.4620	55.4512
 1.4610	55.5944
 1.4600	55.7689
 1.4590	55.8958
 1.4580	56.0257
 1.4570	56.1606
 1.4560	56.3028
 1.4550	56.4073
 1.4540	56.5200
 1.4530	56.6605
 1.4520	56.8179
 1.4510	56.9363
 1.4500	57.1111
 1.4490	57.2188
 1.4480	57.3378
 1.4470	57.4916
 1.4460	57.5771
 1.4450	57.6337
 1.4440	57.8017
 1.4430	57.9675
 1.4420	58.0594
 1.4410	58.1208
 1.4400	58.3263
 1.4390	58.3790
 1.4380	58.5598
 1.4370	58.5873
 1.4360	58.7636
 1.4350	58.8876
 1.4340	58.9937
 1.4330	59.0763
 1.4320	59.2304
 1.4310	59.3610
 1.4300	59.4594
 1.4290	59.6186
 1.4280	59.7533
 1.4270	59.8473
 1.4260	59.9562
 1.4250	60.0776
 1.4240	60.2509
 1.4230	60.3471
 1.4220	60.5371
 1.4210	60.6792
 1.4200	60.7229
 1.4190	60.8614
 1.4180	61.0345
 1.4170	61.1317
 1.4160	61.2477
 1.4150	61.3272
 1.4140	61.4744
 1.4130	61.5031
 1.4120	61.7041
 1.4110	61.7949
 1.4100	61.9795
 1.4090	62.0587
 1.4080	62.2161
 1.4070	62.3146
 1.4060	62.4395
 1.4050	62.5170
 1.4040	62.7583
 1.4030	62.7984
 1.4020	62.9028
 1.4010	62.8560
 1.4000	63.0973
 1.3990	63.1596
 1.3980	63.3328
 1.3970	63.4492
 1.3960	63.6529
 1.3950	63.6879
 1.3940	63.7906
 1.3930	63.8640
 1.3920	64.0482
 1.3910	64.1229
 1.3900	64.3307
 1.3890	64.4002
 1.3880	64.4710
 1.3870	64.5148
 1.3860	64.6994
 1.3850	64.7959
 1.3840	64.8812
 1.3830	64.9591
 1.3820	65.0606
 1.3810	65.1522
 1.3800	65.4237
 1.3790	65.3983
 1.3780	65.6236
 1.3770	65.5924
 1.3760	65.7805
 1.3750	65.8440
 1.3740	65.9490
 1.3730	66.0116
 1.3720	66.0877
 1.3710	66.2228
 1.3700	66.3233
 1.3690	66.3477
 1.3680	66.5182
 1.3670	66.4688
 1.3660	66.6643
 1.3650	66.8041
