Name: Aphthitalite (K,Na)_3Na(SO_4)_2
Type: Mineral
Class: Sulfate
Subclass: None
Particle Size: Coarse
Sample No.: SO-9A
Owner: JPL
Wavelength Range: VSWIR
Origin: USA, California, San Bernadino County, Searles Lake.
Collection Date: N/A
Description: Particle size was 125-500um. Collected by:  Burminco Original ASTER Spectral Library name was jpl.perkin.mineral.sulfate.none.coarse.so09a.spectrum.txt
Measurement: Hemispherical reflectance
First Column: X
Second Column: Y
X Units: Wavelength (micrometers)
Y Units:Reflectance (percent)
First X Value:  2.5000
Last X Value:  0.4000
Number of X Values: 2101
Additional Information: mineral.sulfate.none.coarse.vswir.so-9a.jpl.perkin.ancillary.txt

 2.5000	74.2757
 2.4990	74.2115
 2.4980	74.3846
 2.4970	74.1714
 2.4960	74.2881
 2.4950	74.4201
 2.4940	74.2922
 2.4930	74.3093
 2.4920	74.2717
 2.4910	74.4493
 2.4900	74.3480
 2.4890	74.4389
 2.4880	74.4049
 2.4870	74.6445
 2.4860	74.6393
 2.4850	74.4946
 2.4840	74.5319
 2.4830	74.6261
 2.4820	74.6962
 2.4810	74.7555
 2.4800	74.6161
 2.4790	74.7387
 2.4780	74.7141
 2.4770	74.8994
 2.4760	74.8726
 2.4750	74.9371
 2.4740	74.9289
 2.4730	75.0057
 2.4720	75.1102
 2.4710	75.2367
 2.4700	75.1478
 2.4690	75.1085
 2.4680	75.1599
 2.4670	75.1905
 2.4660	75.2859
 2.4650	75.2276
 2.4640	75.3430
 2.4630	75.2320
 2.4620	75.3922
 2.4610	75.4745
 2.4600	75.4712
 2.4590	75.5049
 2.4580	75.6318
 2.4570	75.8122
 2.4560	75.6434
 2.4550	75.6718
 2.4540	75.6676
 2.4530	75.8145
 2.4520	75.7598
 2.4510	75.7619
 2.4500	75.7580
 2.4490	75.8390
 2.4480	75.8734
 2.4470	76.0934
 2.4460	75.9592
 2.4450	75.9922
 2.4440	76.0924
 2.4430	76.0468
 2.4420	76.1316
 2.4410	76.1587
 2.4400	76.1912
 2.4390	76.1351
 2.4380	76.1395
 2.4370	76.2654
 2.4360	76.2138
 2.4350	76.1906
 2.4340	76.2923
 2.4330	76.3414
 2.4320	76.3789
 2.4310	76.4404
 2.4300	76.4414
 2.4290	76.4136
 2.4280	76.4907
 2.4270	76.5738
 2.4260	76.5806
 2.4250	76.6246
 2.4240	76.6366
 2.4230	76.6728
 2.4220	76.7193
 2.4210	76.7285
 2.4200	76.7857
 2.4190	76.8279
 2.4180	76.8204
 2.4170	76.8671
 2.4160	76.8995
 2.4150	76.9078
 2.4140	76.8584
 2.4130	76.8933
 2.4120	77.0167
 2.4110	76.9999
 2.4100	77.0296
 2.4090	77.1309
 2.4080	77.1158
 2.4070	77.1621
 2.4060	77.1288
 2.4050	77.2071
 2.4040	77.2450
 2.4030	77.3042
 2.4020	77.3669
 2.4010	77.3812
 2.4000	77.4189
 2.3990	77.4819
 2.3980	77.5169
 2.3970	77.4998
 2.3960	77.5351
 2.3950	77.6298
 2.3940	77.6529
 2.3930	77.6972
 2.3920	77.8039
 2.3910	77.7856
 2.3900	77.7317
 2.3890	77.8311
 2.3880	77.9829
 2.3870	78.0055
 2.3860	78.0608
 2.3850	78.0994
 2.3840	78.1296
 2.3830	78.1549
 2.3820	78.1967
 2.3810	78.2619
 2.3800	78.3237
 2.3790	78.3850
 2.3780	78.3513
 2.3770	78.4635
 2.3760	78.5490
 2.3750	78.5365
 2.3740	78.5946
 2.3730	78.6685
 2.3720	78.7178
 2.3710	78.7455
 2.3700	78.7707
 2.3690	78.8358
 2.3680	78.8902
 2.3670	78.9330
 2.3660	78.9302
 2.3650	78.9399
 2.3640	79.0205
 2.3630	79.0494
 2.3620	79.1143
 2.3610	79.1402
 2.3600	79.1134
 2.3590	79.1449
 2.3580	79.1916
 2.3570	79.2713
 2.3560	79.3360
 2.3550	79.3244
 2.3540	79.3495
 2.3530	79.4380
 2.3520	79.4855
 2.3510	79.5502
 2.3500	79.5980
 2.3490	79.6072
 2.3480	79.5995
 2.3470	79.5725
 2.3460	79.5836
 2.3450	79.6641
 2.3440	79.7703
 2.3430	79.7502
 2.3420	79.6945
 2.3410	79.7519
 2.3400	79.8233
 2.3390	79.8682
 2.3380	79.8464
 2.3370	79.8121
 2.3360	79.8731
 2.3350	79.8607
 2.3340	79.8287
 2.3330	79.9362
 2.3320	79.9309
 2.3310	79.9407
 2.3300	79.9371
 2.3290	79.9277
 2.3280	79.9049
 2.3270	79.9508
 2.3260	79.9676
 2.3250	79.9685
 2.3240	79.9775
 2.3230	79.9921
 2.3220	80.0013
 2.3210	80.0513
 2.3200	80.0914
 2.3190	80.0106
 2.3180	79.9952
 2.3170	80.0841
 2.3160	80.1081
 2.3150	80.0527
 2.3140	80.0831
 2.3130	80.1104
 2.3120	80.0900
 2.3110	80.0896
 2.3100	80.1573
 2.3090	80.2044
 2.3080	80.1205
 2.3070	80.2036
 2.3060	80.2412
 2.3050	80.2035
 2.3040	80.1890
 2.3030	80.2331
 2.3020	80.2251
 2.3010	80.2691
 2.3000	80.2810
 2.2990	80.2563
 2.2980	80.3214
 2.2970	80.3221
 2.2960	80.3259
 2.2950	80.3783
 2.2940	80.4053
 2.2930	80.3878
 2.2920	80.3413
 2.2910	80.3345
 2.2900	80.3256
 2.2890	80.4027
 2.2880	80.4096
 2.2870	80.4333
 2.2860	80.3911
 2.2850	80.3659
 2.2840	80.4611
 2.2830	80.4559
 2.2820	80.4522
 2.2810	80.5049
 2.2800	80.5673
 2.2790	80.5774
 2.2780	80.4653
 2.2770	80.4437
 2.2760	80.4701
 2.2750	80.5276
 2.2740	80.5921
 2.2730	80.5685
 2.2720	80.5446
 2.2710	80.5402
 2.2700	80.5440
 2.2690	80.6159
 2.2680	80.6095
 2.2670	80.5231
 2.2660	80.6247
 2.2650	80.5222
 2.2640	80.5570
 2.2630	80.5221
 2.2620	80.5043
 2.2610	80.5750
 2.2600	80.6593
 2.2590	80.5957
 2.2580	80.5954
 2.2570	80.6213
 2.2560	80.5765
 2.2550	80.6433
 2.2540	80.5988
 2.2530	80.5391
 2.2520	80.6273
 2.2510	80.6222
 2.2500	80.6769
 2.2490	80.5902
 2.2480	80.6928
 2.2470	80.6616
 2.2460	80.6997
 2.2450	80.6632
 2.2440	80.6138
 2.2430	80.7097
 2.2420	80.7612
 2.2410	80.7082
 2.2400	80.7004
 2.2390	80.7136
 2.2380	80.6465
 2.2370	80.6661
 2.2360	80.7232
 2.2350	80.6875
 2.2340	80.6341
 2.2330	80.6708
 2.2320	80.6863
 2.2310	80.6506
 2.2300	80.6114
 2.2290	80.6505
 2.2280	80.6678
 2.2270	80.6767
 2.2260	80.5901
 2.2250	80.6864
 2.2240	80.6405
 2.2230	80.6720
 2.2220	80.6965
 2.2210	80.7002
 2.2200	80.7959
 2.2190	80.6582
 2.2180	80.6775
 2.2170	80.6890
 2.2160	80.7631
 2.2150	80.7402
 2.2140	80.7944
 2.2130	80.8013
 2.2120	80.8795
 2.2110	80.7932
 2.2100	80.8544
 2.2090	80.9978
 2.2080	80.9325
 2.2070	81.0636
 2.2060	80.9718
 2.2050	81.0317
 2.2040	81.0239
 2.2030	80.9527
 2.2020	81.0275
 2.2010	81.0818
 2.2000	81.1371
 2.1990	81.0626
 2.1980	81.1071
 2.1970	81.1573
 2.1960	81.1668
 2.1950	81.1262
 2.1940	81.1562
 2.1930	81.1553
 2.1920	81.1661
 2.1910	81.1307
 2.1900	81.1524
 2.1890	81.0780
 2.1880	81.1590
 2.1870	81.1985
 2.1860	81.2738
 2.1850	81.1776
 2.1840	81.2417
 2.1830	81.1646
 2.1820	81.2683
 2.1810	81.2531
 2.1800	81.2965
 2.1790	81.3247
 2.1780	81.3986
 2.1770	81.3014
 2.1760	81.4220
 2.1750	81.4290
 2.1740	81.3589
 2.1730	81.3965
 2.1720	81.3817
 2.1710	81.4347
 2.1700	81.4179
 2.1690	81.4420
 2.1680	81.5146
 2.1670	81.4674
 2.1660	81.4736
 2.1650	81.5141
 2.1640	81.5691
 2.1630	81.4246
 2.1620	81.5221
 2.1610	81.5286
 2.1600	81.5545
 2.1590	81.6633
 2.1580	81.5924
 2.1570	81.5774
 2.1560	81.6742
 2.1550	81.6060
 2.1540	81.6249
 2.1530	81.5142
 2.1520	81.6649
 2.1510	81.7033
 2.1500	81.7275
 2.1490	81.6591
 2.1480	81.5914
 2.1470	81.6395
 2.1460	81.6523
 2.1450	81.6042
 2.1440	81.7212
 2.1430	81.7305
 2.1420	81.6317
 2.1410	81.6380
 2.1400	81.5921
 2.1390	81.5530
 2.1380	81.5114
 2.1370	81.5360
 2.1360	81.5590
 2.1350	81.5135
 2.1340	81.4495
 2.1330	81.4708
 2.1320	81.4185
 2.1310	81.4005
 2.1300	81.3732
 2.1290	81.3348
 2.1280	81.3218
 2.1270	81.2753
 2.1260	81.2316
 2.1250	81.1425
 2.1240	81.1503
 2.1230	81.1024
 2.1220	81.0337
 2.1210	80.9740
 2.1200	80.9291
 2.1190	80.8883
 2.1180	80.8200
 2.1170	80.7591
 2.1160	80.7125
 2.1150	80.6597
 2.1140	80.6583
 2.1130	80.5902
 2.1120	80.4865
 2.1110	80.4731
 2.1100	80.4342
 2.1090	80.3195
 2.1080	80.3159
 2.1070	80.2974
 2.1060	80.2376
 2.1050	80.1267
 2.1040	80.0992
 2.1030	80.0109
 2.1020	79.9689
 2.1010	79.9121
 2.1000	79.8323
 2.0990	79.7953
 2.0980	79.8285
 2.0970	79.8282
 2.0960	79.8365
 2.0950	79.8193
 2.0940	79.8398
 2.0930	79.8044
 2.0920	79.7752
 2.0910	79.7969
 2.0900	79.8073
 2.0890	79.8124
 2.0880	79.8114
 2.0870	79.7773
 2.0860	79.7661
 2.0850	79.7842
 2.0840	79.7646
 2.0830	79.7077
 2.0820	79.6964
 2.0810	79.7212
 2.0800	79.7148
 2.0790	79.7220
 2.0780	79.7126
 2.0770	79.7186
 2.0760	79.7152
 2.0750	79.6826
 2.0740	79.6791
 2.0730	79.6444
 2.0720	79.6046
 2.0710	79.6131
 2.0700	79.7173
 2.0690	79.7279
 2.0680	79.5897
 2.0670	79.5595
 2.0660	79.5909
 2.0650	79.5934
 2.0640	79.5902
 2.0630	79.5457
 2.0620	79.5338
 2.0610	79.5517
 2.0600	79.5274
 2.0590	79.5507
 2.0580	79.5391
 2.0570	79.4994
 2.0560	79.4916
 2.0550	79.4802
 2.0540	79.4838
 2.0530	79.4687
 2.0520	79.4499
 2.0510	79.5088
 2.0500	79.4931
 2.0490	79.4385
 2.0480	79.3461
 2.0470	79.3565
 2.0460	79.4042
 2.0450	79.4579
 2.0440	79.4202
 2.0430	79.3325
 2.0420	79.3715
 2.0410	79.3742
 2.0400	79.3517
 2.0390	79.3448
 2.0380	79.3544
 2.0370	79.3458
 2.0360	79.3297
 2.0350	79.3211
 2.0340	79.3343
 2.0330	79.3149
 2.0320	79.3095
 2.0310	79.3013
 2.0300	79.2631
 2.0290	79.2420
 2.0280	79.2646
 2.0270	79.2734
 2.0260	79.1782
 2.0250	79.1981
 2.0240	79.2063
 2.0230	79.1627
 2.0220	79.1423
 2.0210	79.1591
 2.0200	79.1617
 2.0190	79.1494
 2.0180	79.0868
 2.0170	79.0615
 2.0160	79.0030
 2.0150	79.0358
 2.0140	79.0338
 2.0130	78.9296
 2.0120	78.9373
 2.0110	78.9764
 2.0100	78.9617
 2.0090	78.9619
 2.0080	78.8636
 2.0070	78.8318
 2.0060	78.8320
 2.0050	78.7722
 2.0040	78.7595
 2.0030	78.7295
 2.0020	78.6672
 2.0010	78.7359
 2.0000	78.6237
 1.9990	78.5789
 1.9980	78.5057
 1.9970	78.4294
 1.9960	78.4091
 1.9950	78.3711
 1.9940	78.2647
 1.9930	78.2242
 1.9920	78.2670
 1.9910	78.1572
 1.9900	78.0896
 1.9890	78.0474
 1.9880	78.0010
 1.9870	77.8683
 1.9860	77.8041
 1.9850	77.7840
 1.9840	77.7190
 1.9830	77.6629
 1.9820	77.5283
 1.9810	77.4729
 1.9800	77.4589
 1.9790	77.4304
 1.9780	77.3337
 1.9770	77.2696
 1.9760	77.3600
 1.9750	77.1854
 1.9740	77.1387
 1.9730	77.0702
 1.9720	77.0273
 1.9710	77.0052
 1.9700	76.9001
 1.9690	76.8805
 1.9680	76.7485
 1.9670	76.6832
 1.9660	76.5962
 1.9650	76.6214
 1.9640	76.5560
 1.9630	76.4983
 1.9620	76.3064
 1.9610	76.3536
 1.9600	76.2376
 1.9590	76.1429
 1.9580	76.1577
 1.9570	76.1615
 1.9560	76.0321
 1.9550	75.9335
 1.9540	75.9529
 1.9530	75.8546
 1.9520	75.8139
 1.9510	75.7608
 1.9500	75.7245
 1.9490	75.7013
 1.9480	75.7113
 1.9470	75.6324
 1.9460	75.6139
 1.9450	75.5377
 1.9440	75.4958
 1.9430	75.5651
 1.9420	75.5222
 1.9410	75.5608
 1.9400	75.6006
 1.9390	75.6152
 1.9380	75.4751
 1.9370	75.6067
 1.9360	75.6172
 1.9350	75.6169
 1.9340	75.6683
 1.9330	75.7856
 1.9320	75.8045
 1.9310	75.8381
 1.9300	75.9568
 1.9290	75.9402
 1.9280	76.1199
 1.9270	76.2352
 1.9260	76.2516
 1.9250	76.3350
 1.9240	76.4171
 1.9230	76.6348
 1.9220	76.6452
 1.9210	76.7762
 1.9200	76.8655
 1.9190	76.9784
 1.9180	77.1210
 1.9170	77.2123
 1.9160	77.3269
 1.9150	77.5343
 1.9140	77.6269
 1.9130	77.8296
 1.9120	77.9272
 1.9110	78.0608
 1.9100	78.1952
 1.9090	78.3615
 1.9080	78.5831
 1.9070	78.7190
 1.9060	78.8588
 1.9050	79.0638
 1.9040	79.1474
 1.9030	79.4399
 1.9020	79.6299
 1.9010	79.8229
 1.9000	80.0566
 1.8990	80.2984
 1.8980	80.3732
 1.8970	80.6475
 1.8960	80.8223
 1.8950	80.9888
 1.8940	81.2368
 1.8930	81.2885
 1.8920	81.4839
 1.8910	81.6893
 1.8900	81.7429
 1.8890	81.9825
 1.8880	82.0817
 1.8870	82.2624
 1.8860	82.3555
 1.8850	82.5052
 1.8840	82.5880
 1.8830	82.6769
 1.8820	82.8247
 1.8810	82.9058
 1.8800	82.9568
 1.8790	83.1001
 1.8780	83.1387
 1.8770	83.2011
 1.8760	83.3092
 1.8750	83.3925
 1.8740	83.3470
 1.8730	83.4696
 1.8720	83.4449
 1.8710	83.6097
 1.8700	83.6380
 1.8690	83.7173
 1.8680	83.7616
 1.8670	83.8017
 1.8660	83.7951
 1.8650	83.8712
 1.8640	83.8782
 1.8630	83.9627
 1.8620	83.9153
 1.8610	83.8698
 1.8600	83.9193
 1.8590	84.0029
 1.8580	84.0105
 1.8570	84.1229
 1.8560	84.0279
 1.8550	84.1327
 1.8540	84.1870
 1.8530	84.1633
 1.8520	84.1195
 1.8510	84.1514
 1.8500	84.1813
 1.8490	84.2515
 1.8480	84.1999
 1.8470	84.2208
 1.8460	84.2302
 1.8450	84.2801
 1.8440	84.2896
 1.8430	84.2769
 1.8420	84.2382
 1.8410	84.2603
 1.8400	84.2586
 1.8390	84.3051
 1.8380	84.3168
 1.8370	84.3184
 1.8360	84.3052
 1.8350	84.3792
 1.8340	84.4313
 1.8330	84.3863
 1.8320	84.3150
 1.8310	84.3530
 1.8300	84.3582
 1.8290	84.3286
 1.8280	84.2993
 1.8270	84.3234
 1.8260	84.3764
 1.8250	84.3989
 1.8240	84.3689
 1.8230	84.4071
 1.8220	84.4440
 1.8210	84.3627
 1.8200	84.3080
 1.8190	84.3611
 1.8180	84.3904
 1.8170	84.3974
 1.8160	84.3548
 1.8150	84.3001
 1.8140	84.3422
 1.8130	84.4322
 1.8120	84.4039
 1.8110	84.3893
 1.8100	84.3916
 1.8090	84.4596
 1.8080	84.4579
 1.8070	84.4508
 1.8060	84.4945
 1.8050	84.4466
 1.8040	84.4101
 1.8030	84.4162
 1.8020	84.4262
 1.8010	84.4727
 1.8000	84.4808
 1.7990	84.4647
 1.7980	84.4167
 1.7970	84.3781
 1.7960	84.3974
 1.7950	84.4611
 1.7940	84.4624
 1.7930	84.3965
 1.7920	84.4091
 1.7910	84.4469
 1.7900	84.4345
 1.7890	84.4618
 1.7880	84.4752
 1.7870	84.4461
 1.7860	84.4067
 1.7850	84.4419
 1.7840	84.4780
 1.7830	84.4696
 1.7820	84.4274
 1.7810	84.4237
 1.7800	84.5024
 1.7790	84.4766
 1.7780	84.4273
 1.7770	84.4205
 1.7760	84.4324
 1.7750	84.4820
 1.7740	84.5202
 1.7730	84.5166
 1.7720	84.4787
 1.7710	84.4544
 1.7700	84.4675
 1.7690	84.4797
 1.7680	84.4600
 1.7670	84.4897
 1.7660	84.5270
 1.7650	84.5498
 1.7640	84.5197
 1.7630	84.4568
 1.7620	84.4533
 1.7610	84.5050
 1.7600	84.4728
 1.7590	84.4773
 1.7580	84.5276
 1.7570	84.5353
 1.7560	84.5360
 1.7550	84.5474
 1.7540	84.5450
 1.7530	84.4903
 1.7520	84.5418
 1.7510	84.5370
 1.7500	84.5478
 1.7490	84.5400
 1.7480	84.5743
 1.7470	84.5866
 1.7460	84.6402
 1.7450	84.6831
 1.7440	84.6523
 1.7430	84.5740
 1.7420	84.5888
 1.7410	84.6727
 1.7400	84.6808
 1.7390	84.7184
 1.7380	84.7224
 1.7370	84.6470
 1.7360	84.7464
 1.7350	84.7120
 1.7340	84.7157
 1.7330	84.7637
 1.7320	84.7416
 1.7310	84.7135
 1.7300	85.3429
 1.7290	85.0345
 1.7280	84.7830
 1.7270	84.7392
 1.7260	84.7327
 1.7250	84.7651
 1.7240	84.7636
 1.7230	84.7796
 1.7220	84.8507
 1.7210	84.8620
 1.7200	84.8192
 1.7190	84.7931
 1.7180	84.8753
 1.7170	84.8343
 1.7160	84.7970
 1.7150	84.8731
 1.7140	84.8701
 1.7130	84.8904
 1.7120	84.9381
 1.7110	84.8386
 1.7100	84.8515
 1.7090	84.8484
 1.7080	84.8332
 1.7070	84.8997
 1.7060	84.9424
 1.7050	84.9273
 1.7040	84.9047
 1.7030	84.9289
 1.7020	84.9079
 1.7010	84.9009
 1.7000	84.9225
 1.6990	84.9136
 1.6980	84.9184
 1.6970	84.8679
 1.6960	84.9368
 1.6950	84.9953
 1.6940	84.8943
 1.6930	84.8188
 1.6920	84.8931
 1.6910	84.9041
 1.6900	84.9151
 1.6890	84.8690
 1.6880	84.9918
 1.6870	84.9867
 1.6860	85.0653
 1.6850	84.9708
 1.6840	85.0449
 1.6830	84.9081
 1.6820	84.8966
 1.6810	84.9357
 1.6800	85.0019
 1.6790	84.9984
 1.6780	84.9106
 1.6770	84.9794
 1.6760	85.0810
 1.6750	85.0060
 1.6740	85.0614
 1.6730	85.0069
 1.6720	85.0149
 1.6710	85.0344
 1.6700	85.0331
 1.6690	85.0717
 1.6680	85.0495
 1.6670	85.1159
 1.6660	85.1196
 1.6650	85.0269
 1.6640	84.9393
 1.6630	85.1273
 1.6620	85.0921
 1.6610	84.9747
 1.6600	85.2217
 1.6590	85.1649
 1.6580	85.1722
 1.6570	85.1102
 1.6560	85.0358
 1.6550	85.1474
 1.6540	85.0747
 1.6530	85.1486
 1.6520	85.1776
 1.6510	85.1134
 1.6500	85.2374
 1.6490	85.1234
 1.6480	85.1492
 1.6470	85.1374
 1.6460	85.2805
 1.6450	85.1450
 1.6440	85.2257
 1.6430	85.1237
 1.6420	85.2599
 1.6410	85.0670
 1.6400	85.2624
 1.6390	85.1197
 1.6380	85.1052
 1.6370	85.2446
 1.6360	85.2693
 1.6350	85.1789
 1.6340	85.2464
 1.6330	85.1896
 1.6320	85.2269
 1.6310	85.3329
 1.6300	85.2285
 1.6290	85.1464
 1.6280	85.2711
 1.6270	85.1737
 1.6260	85.2251
 1.6250	85.1600
 1.6240	85.2473
 1.6230	85.2230
 1.6220	85.1548
 1.6210	85.2240
 1.6200	85.2348
 1.6190	85.2301
 1.6180	85.3246
 1.6170	85.2302
 1.6160	85.2300
 1.6150	85.1731
 1.6140	85.2914
 1.6130	85.2618
 1.6120	85.2078
 1.6110	85.2152
 1.6100	85.2301
 1.6090	85.3544
 1.6080	85.2945
 1.6070	85.2821
 1.6060	85.2227
 1.6050	85.2506
 1.6040	85.2704
 1.6030	85.2580
 1.6020	85.2952
 1.6010	85.2618
 1.6000	85.2648
 1.5990	85.2941
 1.5980	85.1953
 1.5970	85.2352
 1.5960	85.2754
 1.5950	85.1917
 1.5940	85.2603
 1.5930	85.2303
 1.5920	85.3141
 1.5910	85.2290
 1.5900	85.2941
 1.5890	85.2511
 1.5880	85.2286
 1.5870	85.2229
 1.5860	85.2139
 1.5850	85.1946
 1.5840	85.2427
 1.5830	85.2152
 1.5820	85.1826
 1.5810	85.2518
 1.5800	85.2434
 1.5790	85.1970
 1.5780	85.1451
 1.5770	85.2695
 1.5760	85.1640
 1.5750	85.2046
 1.5740	85.1960
 1.5730	85.2506
 1.5720	85.1770
 1.5710	85.1649
 1.5700	85.1835
 1.5690	85.1353
 1.5680	85.1873
 1.5670	85.1342
 1.5660	85.1183
 1.5650	85.1242
 1.5640	85.1413
 1.5630	85.1191
 1.5620	85.1332
 1.5610	85.0975
 1.5600	85.1114
 1.5590	85.1492
 1.5580	85.1355
 1.5570	85.0981
 1.5560	85.1178
 1.5550	85.1354
 1.5540	85.0608
 1.5530	85.0119
 1.5520	85.0436
 1.5510	85.0443
 1.5500	85.0004
 1.5490	85.0418
 1.5480	85.0076
 1.5470	84.9746
 1.5460	85.0517
 1.5450	85.0065
 1.5440	84.9514
 1.5430	84.9618
 1.5420	84.9093
 1.5410	84.9262
 1.5400	84.9497
 1.5390	84.8736
 1.5380	84.8538
 1.5370	84.8435
 1.5360	84.8948
 1.5350	84.8825
 1.5340	84.8791
 1.5330	84.8264
 1.5320	84.8024
 1.5310	84.8145
 1.5300	84.7944
 1.5290	84.7825
 1.5280	84.7875
 1.5270	84.7743
 1.5260	84.7566
 1.5250	84.6960
 1.5240	84.7041
 1.5230	84.6850
 1.5220	84.7163
 1.5210	84.7263
 1.5200	84.7126
 1.5190	84.7566
 1.5180	84.7428
 1.5170	84.6848
 1.5160	84.6451
 1.5150	84.6105
 1.5140	84.6168
 1.5130	84.6328
 1.5120	84.6252
 1.5110	84.6271
 1.5100	84.6289
 1.5090	84.6144
 1.5080	84.5865
 1.5070	84.6094
 1.5060	84.6726
 1.5050	84.6298
 1.5040	84.6269
 1.5030	84.6155
 1.5020	84.5557
 1.5010	84.5295
 1.5000	84.5545
 1.4990	84.5623
 1.4980	84.4879
 1.4970	84.4368
 1.4960	84.4139
 1.4950	84.4416
 1.4940	84.4751
 1.4930	84.4285
 1.4920	84.4052
 1.4910	84.4243
 1.4900	84.4019
 1.4890	84.4085
 1.4880	84.4084
 1.4870	84.3783
 1.4860	84.3289
 1.4850	84.3013
 1.4840	84.3426
 1.4830	84.3588
 1.4820	84.3239
 1.4810	84.3335
 1.4800	84.3473
 1.4790	84.3249
 1.4780	84.2716
 1.4770	84.1832
 1.4760	84.2405
 1.4750	84.2913
 1.4740	84.2794
 1.4730	84.3065
 1.4720	84.2324
 1.4710	84.2451
 1.4700	84.2606
 1.4690	84.2432
 1.4680	84.2240
 1.4670	84.1864
 1.4660	84.2184
 1.4650	84.2531
 1.4640	84.2295
 1.4630	84.2491
 1.4620	84.2431
 1.4610	84.2412
 1.4600	84.2152
 1.4590	84.2345
 1.4580	84.2581
 1.4570	84.2506
 1.4560	84.2300
 1.4550	84.2270
 1.4540	84.2961
 1.4530	84.2249
 1.4520	84.1992
 1.4510	84.2101
 1.4500	84.2199
 1.4490	84.2755
 1.4480	84.2431
 1.4470	84.3073
 1.4460	84.2966
 1.4450	84.2750
 1.4440	84.2989
 1.4430	84.3112
 1.4420	84.2725
 1.4410	84.2958
 1.4400	84.3359
 1.4390	84.2802
 1.4380	84.3463
 1.4370	84.4160
 1.4360	84.4009
 1.4350	84.3468
 1.4340	84.3602
 1.4330	84.3421
 1.4320	84.4279
 1.4310	84.3919
 1.4300	84.3631
 1.4290	83.7865
 1.4280	84.3040
 1.4270	84.5164
 1.4260	84.4971
 1.4250	84.4915
 1.4240	84.4729
 1.4230	84.5635
 1.4220	84.6253
 1.4210	84.6440
 1.4200	84.6247
 1.4190	84.5970
 1.4180	84.6029
 1.4170	84.6538
 1.4160	84.7908
 1.4150	84.7117
 1.4140	84.7995
 1.4130	84.7841
 1.4120	84.8309
 1.4110	84.8807
 1.4100	84.9062
 1.4090	85.0017
 1.4080	85.0354
 1.4070	85.0086
 1.4060	85.0491
 1.4050	85.0424
 1.4040	85.0859
 1.4030	85.0753
 1.4020	85.1444
 1.4010	85.2747
 1.4000	85.2767
 1.3990	85.2910
 1.3980	85.3733
 1.3970	85.3454
 1.3960	85.4425
 1.3950	85.5292
 1.3940	85.5262
 1.3930	85.4459
 1.3920	85.5396
 1.3910	85.6143
 1.3900	85.6260
 1.3890	85.6910
 1.3880	85.6692
 1.3870	85.6970
 1.3860	85.6390
 1.3850	85.7532
 1.3840	85.6234
 1.3830	85.6771
 1.3820	85.6833
 1.3810	85.7191
 1.3800	85.7067
 1.3790	85.7832
 1.3780	85.6715
 1.3770	85.7859
 1.3760	85.7789
 1.3750	85.7928
 1.3740	85.7551
 1.3730	85.8143
 1.3720	85.8314
 1.3710	85.7668
 1.3700	85.7469
 1.3690	85.8059
 1.3680	85.8319
 1.3670	85.6959
