Name: Graphite C
Type: Mineral
Class: Element
Subclass: None
Particle Size: Coarse
Sample No.: E-1A
Owner: JPL
Wavelength Range: VSWIR
Origin: Mexico, Sonora, Morelos, San Jose Mine
Collection Date: N/A
Description: Particle size was 125-500um.Collected by Burminco Original ASTER Spectral Library name was jpl.beckman.mineral.element.none.coarse.e01a.spectrum.txt
Measurement: Hemispherical reflectance
First Column: X
Second Column: Y
X Units: Wavelength (micrometers)
Y Units:Reflectance (percent)
First X Value:  0.4000
Last X Value:  2.5000
Number of X Values: 826
Additional Information: mineral.element.none.coarse.vswir.e-1a.jpl.beckman.ancillary.txt

 0.4000	 4.5800
 0.4010	 4.7000
 0.4020	 4.7600
 0.4030	 4.5700
 0.4040	 4.5700
 0.4050	 4.5700
 0.4060	 4.5100
 0.4070	 4.4400
 0.4080	 4.5000
 0.4090	 4.5100
 0.4100	 4.4500
 0.4110	 4.5000
 0.4120	 4.5700
 0.4130	 4.6300
 0.4140	 4.5800
 0.4150	 4.4500
 0.4160	 4.3900
 0.4170	 4.4500
 0.4180	 4.4500
 0.4190	 4.5100
 0.4200	 4.5000
 0.4210	 4.4400
 0.4220	 4.3800
 0.4230	 4.5100
 0.4240	 4.5700
 0.4250	 4.5100
 0.4260	 4.5100
 0.4270	 4.4400
 0.4280	 4.4400
 0.4290	 4.4400
 0.4300	 4.3800
 0.4310	 4.3900
 0.4320	 4.3300
 0.4330	 4.0800
 0.4340	 4.0200
 0.4350	 4.0200
 0.4360	 4.0200
 0.4370	 4.0800
 0.4380	 3.9600
 0.4390	 3.9600
 0.4400	 3.9700
 0.4410	 3.9100
 0.4420	 3.8500
 0.4430	 3.9700
 0.4440	 3.9100
 0.4450	 3.8500
 0.4460	 3.9600
 0.4470	 3.8900
 0.4480	 3.8400
 0.4490	 3.8900
 0.4500	 3.9100
 0.4510	 3.8400
 0.4520	 3.8900
 0.4530	 3.8400
 0.4540	 3.8300
 0.4550	 3.8200
 0.4560	 3.8100
 0.4570	 3.9100
 0.4580	 3.8500
 0.4590	 3.8400
 0.4600	 3.8000
 0.4610	 3.7800
 0.4620	 3.8400
 0.4630	 3.7700
 0.4640	 3.7700
 0.4650	 3.7800
 0.4660	 3.7700
 0.4670	 3.7100
 0.4680	 3.7700
 0.4690	 3.7800
 0.4700	 3.7300
 0.4710	 3.7800
 0.4720	 3.7800
 0.4730	 3.7900
 0.4740	 3.7900
 0.4750	 3.8400
 0.4760	 3.7800
 0.4770	 3.7800
 0.4780	 3.7300
 0.4790	 3.7800
 0.4800	 3.7200
 0.4810	 3.6600
 0.4820	 3.7700
 0.4830	 3.7100
 0.4840	 3.7600
 0.4850	 3.7600
 0.4860	 3.7000
 0.4870	 3.6900
 0.4880	 3.8100
 0.4890	 3.6800
 0.4900	 3.7300
 0.4910	 3.7300
 0.4920	 3.7800
 0.4930	 3.7200
 0.4940	 3.7100
 0.4950	 3.7000
 0.4960	 3.7600
 0.4970	 3.7000
 0.4980	 3.6900
 0.4990	 3.7400
 0.5000	 3.7400
 0.5010	 3.7400
 0.5020	 3.6800
 0.5030	 3.7300
 0.5040	 3.6700
 0.5050	 3.6700
 0.5060	 3.6800
 0.5070	 3.7300
 0.5080	 3.6800
 0.5090	 3.7400
 0.5100	 3.6800
 0.5110	 3.6300
 0.5120	 3.6300
 0.5130	 3.6800
 0.5140	 3.6800
 0.5150	 3.5700
 0.5160	 3.6700
 0.5170	 3.6200
 0.5180	 3.6200
 0.5190	 3.6800
 0.5200	 3.5700
 0.5210	 3.6300
 0.5220	 3.6900
 0.5230	 3.6300
 0.5240	 3.6800
 0.5250	 3.6300
 0.5260	 3.6900
 0.5270	 3.6900
 0.5280	 3.5800
 0.5290	 3.6300
 0.5300	 3.5700
 0.5310	 3.6300
 0.5320	 3.5700
 0.5330	 3.5900
 0.5340	 3.6100
 0.5350	 3.5800
 0.5360	 3.5800
 0.5370	 3.5800
 0.5380	 3.5800
 0.5390	 3.6400
 0.5400	 3.5200
 0.5410	 3.5800
 0.5420	 3.5900
 0.5430	 3.6400
 0.5440	 3.6400
 0.5450	 3.5100
 0.5460	 3.5600
 0.5470	 3.5600
 0.5480	 3.5500
 0.5490	 3.6600
 0.5500	 3.5300
 0.5510	 3.5900
 0.5520	 3.5800
 0.5530	 3.5200
 0.5540	 3.5700
 0.5550	 3.6200
 0.5560	 3.5800
 0.5570	 3.5900
 0.5580	 3.5500
 0.5590	 3.5700
 0.5600	 3.5200
 0.5610	 3.5500
 0.5620	 3.4500
 0.5630	 3.5100
 0.5640	 3.5600
 0.5650	 3.6100
 0.5660	 3.5600
 0.5670	 3.4900
 0.5680	 3.6100
 0.5690	 3.5000
 0.5700	 3.6100
 0.5710	 3.5600
 0.5720	 3.5000
 0.5730	 3.5200
 0.5740	 3.4900
 0.5750	 3.5800
 0.5760	 3.5300
 0.5770	 3.4800
 0.5780	 3.5400
 0.5790	 3.5400
 0.5800	 3.5500
 0.5810	 3.4900
 0.5820	 3.4300
 0.5830	 3.6100
 0.5840	 3.4400
 0.5850	 3.5000
 0.5860	 3.4400
 0.5870	 3.4900
 0.5880	 3.5500
 0.5890	 3.5000
 0.5900	 3.5000
 0.5910	 3.4400
 0.5920	 3.4400
 0.5930	 3.5000
 0.5940	 3.4400
 0.5950	 3.5000
 0.5960	 3.5000
 0.5970	 3.4300
 0.5980	 3.4800
 0.5990	 3.4600
 0.6000	 3.4900
 0.6010	 3.4100
 0.6020	 3.5700
 0.6030	 3.5700
 0.6040	 3.4400
 0.6050	 3.5000
 0.6060	 3.4300
 0.6070	 3.4900
 0.6080	 3.6100
 0.6090	 3.4900
 0.6100	 3.5000
 0.6110	 3.4400
 0.6120	 3.5600
 0.6130	 3.5000
 0.6140	 3.4300
 0.6150	 3.5400
 0.6160	 3.4900
 0.6170	 3.4900
 0.6180	 3.5500
 0.6190	 3.4800
 0.6200	 3.5500
 0.6210	 3.4300
 0.6220	 3.4900
 0.6230	 3.5500
 0.6240	 3.4300
 0.6250	 3.5400
 0.6260	 3.4800
 0.6270	 3.5400
 0.6280	 3.4900
 0.6290	 3.4300
 0.6300	 3.5500
 0.6310	 3.4900
 0.6320	 3.5400
 0.6330	 3.6000
 0.6340	 3.4900
 0.6350	 3.4900
 0.6360	 3.4900
 0.6370	 3.4900
 0.6380	 3.5400
 0.6390	 3.4900
 0.6400	 3.5500
 0.6410	 3.4900
 0.6420	 3.5400
 0.6430	 3.5400
 0.6440	 3.4200
 0.6450	 3.4900
 0.6460	 3.4400
 0.6470	 3.4900
 0.6480	 3.4900
 0.6490	 3.4300
 0.6500	 3.5400
 0.6510	 3.4800
 0.6520	 3.5400
 0.6530	 3.4900
 0.6540	 3.4300
 0.6550	 3.5400
 0.6560	 3.5500
 0.6570	 3.5500
 0.6580	 3.5000
 0.6590	 3.4400
 0.6600	 3.5600
 0.6610	 3.4900
 0.6620	 3.6000
 0.6630	 3.4800
 0.6640	 3.4200
 0.6650	 3.5400
 0.6660	 3.5400
 0.6670	 3.6000
 0.6680	 3.4800
 0.6690	 3.4300
 0.6700	 3.5500
 0.6710	 3.4900
 0.6720	 3.5500
 0.6730	 3.4900
 0.6740	 3.4300
 0.6750	 3.5400
 0.6760	 3.4900
 0.6770	 3.6000
 0.6780	 3.4900
 0.6790	 3.4900
 0.6800	 3.5400
 0.6810	 3.4800
 0.6820	 3.5400
 0.6830	 3.4900
 0.6840	 3.4400
 0.6850	 3.5500
 0.6860	 3.5500
 0.6870	 3.4800
 0.6880	 3.5400
 0.6890	 3.4900
 0.6900	 3.5500
 0.6910	 3.5400
 0.6920	 3.5900
 0.6930	 3.5400
 0.6940	 3.4900
 0.6950	 3.5500
 0.6960	 3.5600
 0.6970	 3.6200
 0.6980	 3.5600
 0.6990	 3.4600
 0.7000	 3.5400
 0.7010	 3.5300
 0.7020	 3.6000
 0.7030	 3.4900
 0.7040	 3.5500
 0.7050	 3.6700
 0.7060	 3.5400
 0.7070	 3.5900
 0.7080	 3.5900
 0.7090	 3.5400
 0.7100	 3.6000
 0.7110	 3.5400
 0.7120	 3.6000
 0.7130	 3.5400
 0.7140	 3.6100
 0.7150	 3.6100
 0.7160	 3.5500
 0.7170	 3.6000
 0.7180	 3.4800
 0.7190	 3.6000
 0.7200	 3.6100
 0.7210	 3.5400
 0.7220	 3.6500
 0.7230	 3.5400
 0.7240	 3.6500
 0.7250	 3.6600
 0.7260	 3.6000
 0.7270	 3.6000
 0.7280	 3.5400
 0.7290	 3.5900
 0.7300	 3.6600
 0.7310	 3.5900
 0.7320	 3.6500
 0.7330	 3.5900
 0.7340	 3.6600
 0.7350	 3.6100
 0.7360	 3.6100
 0.7370	 3.6600
 0.7380	 3.5300
 0.7390	 3.6500
 0.7400	 3.6000
 0.7410	 3.5900
 0.7420	 3.6500
 0.7430	 3.5900
 0.7440	 3.6600
 0.7450	 3.6000
 0.7460	 3.5900
 0.7470	 3.7000
 0.7480	 3.7000
 0.7490	 3.7600
 0.7500	 3.6500
 0.7510	 3.5900
 0.7520	 3.5900
 0.7530	 3.6500
 0.7540	 3.7100
 0.7550	 3.7100
 0.7560	 3.6400
 0.7570	 3.6500
 0.7580	 3.7100
 0.7590	 3.6500
 0.7600	 3.6400
 0.7610	 3.5800
 0.7620	 3.6400
 0.7630	 3.6500
 0.7640	 3.7100
 0.7650	 3.6500
 0.7660	 3.5900
 0.7670	 3.7000
 0.7680	 3.7000
 0.7690	 3.7500
 0.7700	 3.7000
 0.7710	 3.5900
 0.7720	 3.6500
 0.7730	 3.6500
 0.7740	 3.8100
 0.7750	 3.7400
 0.7760	 3.6400
 0.7770	 3.7000
 0.7780	 3.7000
 0.7790	 3.7600
 0.7800	 3.7000
 0.7810	 3.6400
 0.7820	 3.7000
 0.7830	 3.6900
 0.7840	 3.7500
 0.7850	 3.7600
 0.7860	 3.7000
 0.7870	 3.6900
 0.7880	 3.7400
 0.7890	 3.8100
 0.7900	 3.7600
 0.7910	 3.7600
 0.7920	 3.7500
 0.7930	 3.7500
 0.7940	 3.8700
 0.7950	 3.8700
 0.7960	 3.7500
 0.7970	 3.8100
 0.7980	 3.7600
 0.7990	 3.8400
 0.8000	 4.0600
 0.8040	 4.0700
 0.8080	 4.0200
 0.8120	 4.0900
 0.8160	 4.0300
 0.8200	 4.0300
 0.8240	 4.1400
 0.8280	 4.0200
 0.8320	 4.0300
 0.8360	 4.0300
 0.8400	 4.0200
 0.8440	 4.0400
 0.8480	 4.0300
 0.8520	 3.9800
 0.8560	 3.9700
 0.8600	 3.9800
 0.8640	 4.1000
 0.8680	 4.1000
 0.8720	 4.1100
 0.8760	 4.1100
 0.8800	 4.1000
 0.8840	 4.0500
 0.8880	 4.1100
 0.8920	 4.1500
 0.8960	 4.1100
 0.9000	 4.1000
 0.9040	 4.1100
 0.9080	 4.0400
 0.9120	 4.0500
 0.9160	 3.9900
 0.9200	 4.1100
 0.9240	 4.0500
 0.9280	 4.0500
 0.9320	 4.0500
 0.9360	 4.1200
 0.9400	 4.1100
 0.9440	 4.0500
 0.9480	 4.0600
 0.9520	 4.1600
 0.9560	 4.0600
 0.9600	 4.1200
 0.9640	 4.1000
 0.9680	 4.1100
 0.9720	 4.1200
 0.9760	 4.1100
 0.9800	 4.1600
 0.9840	 4.1600
 0.9880	 4.1100
 0.9920	 4.1500
 0.9960	 4.1200
 1.0000	 4.1100
 1.0040	 4.1500
 1.0080	 4.1600
 1.0120	 4.1200
 1.0160	 4.1700
 1.0200	 4.1600
 1.0240	 4.2200
 1.0280	 4.1500
 1.0320	 4.1600
 1.0360	 4.1600
 1.0400	 4.1100
 1.0440	 4.1100
 1.0480	 4.1400
 1.0520	 4.0900
 1.0560	 4.1000
 1.0600	 4.1800
 1.0640	 4.1600
 1.0680	 4.1500
 1.0720	 4.1400
 1.0760	 4.1800
 1.0800	 4.2100
 1.0840	 4.1900
 1.0880	 4.2300
 1.0920	 4.1700
 1.0960	 4.2300
 1.1000	 4.2300
 1.1040	 4.2400
 1.1080	 4.2200
 1.1120	 4.3300
 1.1160	 4.2900
 1.1200	 4.3300
 1.1240	 4.3200
 1.1280	 4.2400
 1.1320	 4.3200
 1.1360	 4.3000
 1.1400	 4.2600
 1.1440	 4.2900
 1.1480	 4.3000
 1.1520	 4.2700
 1.1560	 4.2700
 1.1600	 4.2600
 1.1640	 4.2600
 1.1680	 4.2600
 1.1720	 4.3200
 1.1760	 4.3300
 1.1800	 4.3300
 1.1840	 4.3200
 1.1880	 4.3100
 1.1920	 4.3800
 1.1960	 4.3500
 1.2000	 4.3900
 1.2040	 4.3400
 1.2080	 4.3300
 1.2120	 4.3400
 1.2160	 4.3100
 1.2200	 4.3200
 1.2240	 4.3600
 1.2280	 4.4600
 1.2320	 4.4400
 1.2360	 4.4200
 1.2400	 4.4100
 1.2440	 4.3400
 1.2480	 4.3900
 1.2520	 4.3800
 1.2560	 4.3800
 1.2600	 4.4400
 1.2640	 4.3900
 1.2680	 4.4500
 1.2720	 4.4500
 1.2760	 4.4300
 1.2800	 4.4400
 1.2840	 4.5000
 1.2880	 4.4400
 1.2920	 4.5000
 1.2960	 4.4800
 1.3000	 4.5000
 1.3040	 4.5000
 1.3080	 4.4300
 1.3120	 4.4900
 1.3160	 4.4300
 1.3200	 4.4900
 1.3240	 4.4900
 1.3280	 4.5000
 1.3320	 4.5000
 1.3360	 4.5000
 1.3400	 4.5400
 1.3440	 4.5300
 1.3480	 4.5300
 1.3520	 4.5300
 1.3560	 4.4200
 1.3600	 4.4400
 1.3640	 4.5100
 1.3680	 4.5600
 1.3720	 4.5400
 1.3760	 4.6100
 1.3800	 4.6100
 1.3840	 4.5600
 1.3880	 4.6000
 1.3920	 4.6000
 1.3960	 4.6100
 1.4000	 4.6000
 1.4040	 4.5600
 1.4080	 4.5700
 1.4120	 4.5700
 1.4160	 4.5800
 1.4200	 4.6200
 1.4240	 4.6100
 1.4280	 4.6000
 1.4320	 4.6600
 1.4360	 4.6500
 1.4400	 4.6600
 1.4440	 4.6800
 1.4480	 4.6600
 1.4520	 4.6700
 1.4560	 4.6600
 1.4600	 4.6600
 1.4640	 4.6600
 1.4680	 4.6000
 1.4720	 4.6700
 1.4760	 4.6600
 1.4800	 4.6600
 1.4840	 4.7200
 1.4880	 4.7200
 1.4920	 4.7300
 1.4960	 4.6800
 1.5000	 4.7600
 1.5040	 4.6800
 1.5080	 4.6900
 1.5120	 4.6700
 1.5160	 4.7300
 1.5200	 4.7300
 1.5240	 4.7100
 1.5280	 4.8300
 1.5320	 4.7700
 1.5360	 4.7700
 1.5400	 4.7700
 1.5440	 4.7800
 1.5480	 4.7800
 1.5520	 4.7800
 1.5560	 4.8300
 1.5600	 4.7800
 1.5640	 4.8400
 1.5680	 4.7800
 1.5720	 4.7700
 1.5760	 4.8200
 1.5800	 4.7700
 1.5840	 4.7800
 1.5880	 4.7900
 1.5920	 4.8500
 1.5960	 4.8600
 1.6000	 4.8500
 1.6040	 4.8500
 1.6080	 4.8500
 1.6120	 4.8400
 1.6160	 4.8800
 1.6200	 4.8900
 1.6240	 4.8200
 1.6280	 4.8700
 1.6320	 4.8200
 1.6360	 4.8300
 1.6400	 4.8400
 1.6440	 4.8900
 1.6480	 4.8900
 1.6520	 4.8900
 1.6560	 4.8800
 1.6600	 4.8700
 1.6640	 4.9200
 1.6680	 4.9400
 1.6720	 4.9500
 1.6760	 4.8900
 1.6800	 5.0000
 1.6840	 4.9300
 1.6880	 4.9200
 1.6920	 4.9200
 1.6960	 4.9200
 1.7000	 4.9100
 1.7040	 4.9100
 1.7080	 4.9300
 1.7120	 4.9400
 1.7160	 4.9500
 1.7200	 5.0600
 1.7240	 5.0000
 1.7280	 5.0400
 1.7320	 4.9900
 1.7360	 5.0300
 1.7400	 4.9800
 1.7440	 4.9900
 1.7480	 5.0400
 1.7520	 5.0600
 1.7560	 5.0500
 1.7600	 5.0400
 1.7640	 4.9900
 1.7680	 4.9900
 1.7720	 5.0400
 1.7760	 5.0300
 1.7800	 5.0500
 1.7840	 5.0500
 1.7880	 5.0600
 1.7920	 5.1000
 1.7960	 5.0400
 1.8000	 5.0900
 1.8040	 5.0900
 1.8080	 5.1000
 1.8120	 5.0800
 1.8160	 5.0100
 1.8200	 5.0300
 1.8240	 5.0300
 1.8280	 5.0100
 1.8320	 5.0800
 1.8360	 5.0600
 1.8400	 5.1300
 1.8440	 5.0800
 1.8480	 5.0900
 1.8520	 5.0800
 1.8560	 5.1300
 1.8600	 5.1700
 1.8640	 5.1100
 1.8680	 5.1300
 1.8720	 5.1300
 1.8760	 5.1300
 1.8800	 5.1400
 1.8840	 5.1200
 1.8880	 5.1500
 1.8920	 5.1000
 1.8960	 5.0900
 1.9000	 5.1000
 1.9040	 5.1100
 1.9080	 5.1400
 1.9120	 5.1900
 1.9160	 5.1800
 1.9200	 5.1900
 1.9240	 5.1800
 1.9280	 5.1700
 1.9320	 5.1300
 1.9360	 5.1300
 1.9400	 5.1200
 1.9440	 5.1400
 1.9480	 5.1100
 1.9520	 5.1700
 1.9560	 5.1000
 1.9600	 5.1400
 1.9640	 5.1800
 1.9680	 5.1600
 1.9720	 5.1400
 1.9760	 5.1900
 1.9800	 5.2400
 1.9840	 5.2800
 1.9880	 5.2800
 1.9920	 5.2200
 1.9960	 5.3400
 2.0000	 5.2400
 2.0040	 5.2300
 2.0080	 5.3200
 2.0120	 5.2100
 2.0160	 5.2400
 2.0200	 5.1900
 2.0240	 5.2400
 2.0280	 5.2400
 2.0320	 5.2300
 2.0360	 5.2900
 2.0400	 5.3000
 2.0440	 5.3100
 2.0480	 5.3000
 2.0520	 5.2900
 2.0560	 5.3300
 2.0600	 5.3800
 2.0640	 5.3100
 2.0680	 5.3300
 2.0720	 5.3300
 2.0760	 5.3400
 2.0800	 5.3400
 2.0840	 5.2600
 2.0880	 5.2900
 2.0920	 5.2700
 2.0960	 5.3500
 2.1000	 5.3400
 2.1040	 5.3800
 2.1080	 5.3500
 2.1120	 5.4000
 2.1160	 5.3700
 2.1200	 5.3900
 2.1240	 5.4100
 2.1280	 5.3600
 2.1320	 5.4300
 2.1360	 5.3200
 2.1400	 5.3900
 2.1440	 5.3400
 2.1480	 5.3900
 2.1520	 5.4000
 2.1560	 5.3800
 2.1600	 5.3300
 2.1640	 5.2900
 2.1680	 5.3400
 2.1720	 5.3500
 2.1760	 5.3900
 2.1800	 5.4000
 2.1840	 5.4300
 2.1880	 5.3800
 2.1920	 5.3900
 2.1960	 5.4100
 2.2000	 5.4100
 2.2040	 5.4000
 2.2080	 5.4000
 2.2120	 5.4000
 2.2160	 5.3600
 2.2200	 5.3700
 2.2240	 5.4200
 2.2280	 5.3700
 2.2320	 5.4100
 2.2360	 5.4500
 2.2400	 5.4000
 2.2440	 5.4600
 2.2480	 5.4600
 2.2520	 5.4500
 2.2560	 5.5000
 2.2600	 5.5100
 2.2640	 5.5100
 2.2680	 5.4900
 2.2720	 5.4800
 2.2760	 5.5400
 2.2800	 5.5500
 2.2840	 5.5100
 2.2880	 5.5000
 2.2920	 5.5000
 2.2960	 5.5000
 2.3000	 5.4900
 2.3040	 5.4800
 2.3080	 5.5000
 2.3120	 5.5400
 2.3160	 5.5600
 2.3200	 5.5500
 2.3240	 5.5300
 2.3280	 5.5400
 2.3320	 5.5200
 2.3360	 5.6000
 2.3400	 5.5800
 2.3440	 5.5300
 2.3480	 5.5800
 2.3520	 5.5500
 2.3560	 5.5500
 2.3600	 5.4900
 2.3640	 5.5500
 2.3680	 5.5400
 2.3720	 5.5400
 2.3760	 5.5500
 2.3800	 5.5600
 2.3840	 5.6000
 2.3880	 5.5900
 2.3920	 5.5900
 2.3960	 5.6400
 2.4000	 5.6400
 2.4040	 5.7000
 2.4080	 5.6500
 2.4120	 5.6300
 2.4160	 5.6300
 2.4200	 5.6300
 2.4240	 5.6200
 2.4280	 5.6200
 2.4320	 5.5800
 2.4360	 5.6200
 2.4400	 5.6800
 2.4440	 5.6800
 2.4480	 5.6700
 2.4520	 5.6200
 2.4560	 5.6900
 2.4600	 5.6700
 2.4640	 5.7300
 2.4680	 5.7300
 2.4720	 5.7200
 2.4760	 5.7300
 2.4800	 5.7400
 2.4840	 5.7900
 2.4880	 5.8300
 2.4920	 5.8500
 2.4960	 5.8400
 2.5000	 5.7800
