Name: Jarosite KFe_3^3+(SO_4)_2(OH)_6
Type: Mineral
Class: Sulfate
Subclass: None
Particle Size: Medium
Sample No.: SO-7A
Owner: JPL
Wavelength Range: VSWIR
Origin: Mexico, Chihuahua.
Collection Date: N/A
Description: Particle size was 45-125um. Collected by:  Ward's Original ASTER Spectral Library name was jpl.perkin.mineral.sulfate.none.medium.so07a.spectrum.txt
Measurement: Hemispherical reflectance
First Column: X
Second Column: Y
X Units: Wavelength (micrometers)
Y Units:Reflectance (percent)
First X Value:  2.5000
Last X Value:  0.4000
Number of X Values: 2101
Additional Information: mineral.sulfate.none.medium.vswir.so-7a.jpl.perkin.ancillary.txt

 2.5000	46.0529
 2.4990	45.7238
 2.4980	46.0818
 2.4970	46.0485
 2.4960	45.7869
 2.4950	46.2564
 2.4940	46.0816
 2.4930	46.3477
 2.4920	46.2749
 2.4910	46.4332
 2.4900	46.3631
 2.4890	46.3964
 2.4880	46.4739
 2.4870	46.6139
 2.4860	46.5870
 2.4850	46.4897
 2.4840	46.4895
 2.4830	46.6148
 2.4820	46.5946
 2.4810	46.7739
 2.4800	46.6339
 2.4790	46.7211
 2.4780	46.5322
 2.4770	46.6783
 2.4760	46.4988
 2.4750	46.6612
 2.4740	46.4602
 2.4730	46.6424
 2.4720	46.6612
 2.4710	46.7028
 2.4700	46.8413
 2.4690	46.6583
 2.4680	46.7505
 2.4670	46.6555
 2.4660	46.7081
 2.4650	46.8099
 2.4640	46.8391
 2.4630	46.6620
 2.4620	46.9625
 2.4610	46.9562
 2.4600	46.8838
 2.4590	46.9413
 2.4580	46.9820
 2.4570	47.1367
 2.4560	47.0644
 2.4550	47.1733
 2.4540	47.2275
 2.4530	47.3024
 2.4520	47.3187
 2.4510	47.3646
 2.4500	47.4801
 2.4490	47.4555
 2.4480	47.5062
 2.4470	47.6839
 2.4460	47.7010
 2.4450	47.7526
 2.4440	47.7622
 2.4430	47.8630
 2.4420	47.9774
 2.4410	48.0426
 2.4400	48.0802
 2.4390	48.2326
 2.4380	48.2593
 2.4370	48.2921
 2.4360	48.3957
 2.4350	48.4140
 2.4340	48.4761
 2.4330	48.6213
 2.4320	48.6845
 2.4310	48.7748
 2.4300	48.9216
 2.4290	48.9873
 2.4280	49.0006
 2.4270	49.1409
 2.4260	49.1748
 2.4250	49.2045
 2.4240	49.3010
 2.4230	49.3378
 2.4220	49.4539
 2.4210	49.4588
 2.4200	49.4906
 2.4190	49.6992
 2.4180	49.8029
 2.4170	49.8588
 2.4160	49.9121
 2.4150	50.0244
 2.4140	50.0401
 2.4130	50.1385
 2.4120	50.2319
 2.4110	50.2960
 2.4100	50.3613
 2.4090	50.4301
 2.4080	50.4914
 2.4070	50.5121
 2.4060	50.6683
 2.4050	50.7332
 2.4040	50.8068
 2.4030	50.8141
 2.4020	50.9390
 2.4010	51.1464
 2.4000	51.1622
 2.3990	51.1780
 2.3980	51.2265
 2.3970	51.3562
 2.3960	51.4371
 2.3950	51.5566
 2.3940	51.6541
 2.3930	51.7496
 2.3920	51.8237
 2.3910	51.9258
 2.3900	52.0271
 2.3890	52.1640
 2.3880	52.2752
 2.3870	52.4008
 2.3860	52.4847
 2.3850	52.5852
 2.3840	52.6702
 2.3830	52.7707
 2.3820	52.8525
 2.3810	52.9373
 2.3800	53.0032
 2.3790	53.1576
 2.3780	53.2766
 2.3770	53.3625
 2.3760	53.4727
 2.3750	53.5783
 2.3740	53.6848
 2.3730	53.7598
 2.3720	53.8299
 2.3710	53.9227
 2.3700	54.0091
 2.3690	54.1256
 2.3680	54.1868
 2.3670	54.1979
 2.3660	54.3078
 2.3650	54.4777
 2.3640	54.5398
 2.3630	54.5251
 2.3620	54.5361
 2.3610	54.6065
 2.3600	54.7154
 2.3590	54.7734
 2.3580	54.8000
 2.3570	54.8498
 2.3560	54.9098
 2.3550	54.9587
 2.3540	54.9887
 2.3530	55.0286
 2.3520	55.0339
 2.3510	55.0717
 2.3500	55.1266
 2.3490	55.1129
 2.3480	55.1410
 2.3470	55.1737
 2.3460	55.1889
 2.3450	55.1727
 2.3440	55.1675
 2.3430	55.1541
 2.3420	55.0695
 2.3410	55.0024
 2.3400	55.0156
 2.3390	55.0423
 2.3380	54.9741
 2.3370	54.9269
 2.3360	54.9143
 2.3350	54.8298
 2.3340	54.7438
 2.3330	54.6585
 2.3320	54.5957
 2.3310	54.5135
 2.3300	54.4612
 2.3290	54.3380
 2.3280	54.2256
 2.3270	54.1021
 2.3260	54.0448
 2.3250	53.9358
 2.3240	53.8302
 2.3230	53.7396
 2.3220	53.6813
 2.3210	53.5636
 2.3200	53.4746
 2.3190	53.3188
 2.3180	53.1473
 2.3170	53.0842
 2.3160	53.0149
 2.3150	52.9251
 2.3140	52.7976
 2.3130	52.7230
 2.3120	52.5983
 2.3110	52.4427
 2.3100	52.3525
 2.3090	52.2415
 2.3080	52.1700
 2.3070	52.0671
 2.3060	51.8970
 2.3050	51.7796
 2.3040	51.7675
 2.3030	51.7062
 2.3020	51.5901
 2.3010	51.5258
 2.3000	51.3800
 2.2990	51.2815
 2.2980	51.2525
 2.2970	51.1644
 2.2960	51.1110
 2.2950	50.9379
 2.2940	50.8752
 2.2930	50.7935
 2.2920	50.8217
 2.2910	50.6740
 2.2900	50.6762
 2.2890	50.5800
 2.2880	50.5343
 2.2870	50.5407
 2.2860	50.4736
 2.2850	50.4135
 2.2840	50.4798
 2.2830	50.4203
 2.2820	50.4203
 2.2810	50.4508
 2.2800	50.4791
 2.2790	50.5142
 2.2780	50.6019
 2.2770	50.6003
 2.2760	50.6713
 2.2750	50.6682
 2.2740	50.7625
 2.2730	50.8219
 2.2720	50.9766
 2.2710	51.0614
 2.2700	51.1976
 2.2690	51.2843
 2.2680	51.3805
 2.2670	51.5380
 2.2660	51.6725
 2.2650	51.7264
 2.2640	51.8766
 2.2630	52.0366
 2.2620	52.3303
 2.2610	52.4106
 2.2600	52.5678
 2.2590	52.6682
 2.2580	52.7977
 2.2570	53.0273
 2.2560	53.1746
 2.2550	53.2999
 2.2540	53.4566
 2.2530	53.5432
 2.2520	53.7331
 2.2510	53.8870
 2.2500	53.9845
 2.2490	54.0993
 2.2480	54.2021
 2.2470	54.3428
 2.2460	54.4765
 2.2450	54.5705
 2.2440	54.7877
 2.2430	54.9140
 2.2420	55.0010
 2.2410	55.1114
 2.2400	55.2704
 2.2390	55.3600
 2.2380	55.5504
 2.2370	55.6523
 2.2360	55.8112
 2.2350	55.9356
 2.2340	56.0969
 2.2330	56.2318
 2.2320	56.3729
 2.2310	56.5104
 2.2300	56.5920
 2.2290	56.7247
 2.2280	56.9656
 2.2270	56.9430
 2.2260	57.1018
 2.2250	57.2454
 2.2240	57.2888
 2.2230	57.4093
 2.2220	57.4766
 2.2210	57.5430
 2.2200	57.7235
 2.2190	57.7622
 2.2180	57.8666
 2.2170	57.9224
 2.2160	57.9918
 2.2150	58.0892
 2.2140	58.2169
 2.2130	58.3616
 2.2120	58.3828
 2.2110	58.3646
 2.2100	58.5315
 2.2090	58.5861
 2.2080	58.6965
 2.2070	58.7600
 2.2060	58.8889
 2.2050	58.9304
 2.2040	59.0439
 2.2030	59.2394
 2.2020	59.2477
 2.2010	59.3487
 2.2000	59.4013
 2.1990	59.6184
 2.1980	59.6278
 2.1970	59.7074
 2.1960	59.8171
 2.1950	59.9045
 2.1940	59.9666
 2.1930	60.1764
 2.1920	60.1432
 2.1910	60.2382
 2.1900	60.2908
 2.1890	60.3897
 2.1880	60.4688
 2.1870	60.6656
 2.1860	60.6386
 2.1850	60.6828
 2.1840	60.8331
 2.1830	60.9291
 2.1820	60.9796
 2.1810	61.0522
 2.1800	61.1623
 2.1790	61.3069
 2.1780	61.3325
 2.1770	61.3694
 2.1760	61.4910
 2.1750	61.5101
 2.1740	61.5741
 2.1730	61.6716
 2.1720	61.7422
 2.1710	61.7786
 2.1700	61.8977
 2.1690	61.8707
 2.1680	62.0368
 2.1670	62.0623
 2.1660	62.1599
 2.1650	62.1817
 2.1640	62.3323
 2.1630	62.3903
 2.1620	62.5258
 2.1610	62.4571
 2.1600	62.4945
 2.1590	62.6452
 2.1580	62.6702
 2.1570	62.7663
 2.1560	62.8401
 2.1550	62.8653
 2.1540	62.8889
 2.1530	62.9480
 2.1520	63.0180
 2.1510	63.0882
 2.1500	63.0656
 2.1490	63.1364
 2.1480	63.1893
 2.1470	63.2496
 2.1460	63.2747
 2.1450	63.3658
 2.1440	63.4104
 2.1430	63.4188
 2.1420	63.4224
 2.1410	63.4597
 2.1400	63.5055
 2.1390	63.5473
 2.1380	63.5755
 2.1370	63.5572
 2.1360	63.6244
 2.1350	63.6510
 2.1340	63.6341
 2.1330	63.6804
 2.1320	63.7336
 2.1310	63.7286
 2.1300	63.7185
 2.1290	63.7242
 2.1280	63.7679
 2.1270	63.7752
 2.1260	63.7666
 2.1250	63.7570
 2.1240	63.8571
 2.1230	63.7953
 2.1220	63.7757
 2.1210	63.7531
 2.1200	63.7581
 2.1190	63.7480
 2.1180	63.7043
 2.1170	63.7108
 2.1160	63.7507
 2.1150	63.8045
 2.1140	63.7713
 2.1130	63.6986
 2.1120	63.7429
 2.1110	63.7469
 2.1100	63.6565
 2.1090	63.6676
 2.1080	63.7089
 2.1070	63.7344
 2.1060	63.6206
 2.1050	63.6527
 2.1040	63.6721
 2.1030	63.6881
 2.1020	63.7256
 2.1010	63.6710
 2.1000	63.6615
 2.0990	63.7430
 2.0980	63.7345
 2.0970	63.7398
 2.0960	63.8070
 2.0950	63.8867
 2.0940	63.9045
 2.0930	63.8829
 2.0920	63.8997
 2.0910	63.9772
 2.0900	64.0422
 2.0890	64.0849
 2.0880	64.1457
 2.0870	64.1808
 2.0860	64.2136
 2.0850	64.1953
 2.0840	64.1735
 2.0830	64.2163
 2.0820	64.2468
 2.0810	64.2345
 2.0800	64.3195
 2.0790	64.4067
 2.0780	64.3760
 2.0770	64.3696
 2.0760	64.3994
 2.0750	64.3807
 2.0740	64.4195
 2.0730	64.4840
 2.0720	64.5306
 2.0710	64.5560
 2.0700	64.5598
 2.0690	64.5985
 2.0680	64.6064
 2.0670	64.6117
 2.0660	64.6512
 2.0650	64.6592
 2.0640	64.6971
 2.0630	64.7527
 2.0620	64.7350
 2.0610	64.7767
 2.0600	64.7737
 2.0590	64.7798
 2.0580	64.8236
 2.0570	64.8106
 2.0560	64.8556
 2.0550	64.8837
 2.0540	64.8760
 2.0530	64.9197
 2.0520	64.9710
 2.0510	64.9594
 2.0500	64.9388
 2.0490	64.9804
 2.0480	65.0405
 2.0470	65.0650
 2.0460	65.0587
 2.0450	65.0533
 2.0440	65.0650
 2.0430	65.1587
 2.0420	65.1561
 2.0410	65.1183
 2.0400	65.1432
 2.0390	65.2310
 2.0380	65.1757
 2.0370	65.1579
 2.0360	65.1728
 2.0350	65.1750
 2.0340	65.1769
 2.0330	65.2708
 2.0320	65.2637
 2.0310	65.2658
 2.0300	65.2497
 2.0290	65.2502
 2.0280	65.2983
 2.0270	65.3424
 2.0260	65.3170
 2.0250	65.2724
 2.0240	65.2760
 2.0230	65.3165
 2.0220	65.3377
 2.0210	65.3193
 2.0200	65.3401
 2.0190	65.3443
 2.0180	65.3572
 2.0170	65.3406
 2.0160	65.3365
 2.0150	65.3449
 2.0140	65.3124
 2.0130	65.3283
 2.0120	65.3418
 2.0110	65.3914
 2.0100	65.3737
 2.0090	65.3344
 2.0080	65.3651
 2.0070	65.3706
 2.0060	65.3547
 2.0050	65.3692
 2.0040	65.4148
 2.0030	65.3661
 2.0020	65.3046
 2.0010	65.4146
 2.0000	65.3602
 1.9990	65.3992
 1.9980	65.2802
 1.9970	65.2275
 1.9960	65.2420
 1.9950	65.3354
 1.9940	65.2767
 1.9930	65.2779
 1.9920	65.1950
 1.9910	65.2777
 1.9900	65.2624
 1.9890	65.1827
 1.9880	65.1082
 1.9870	65.0894
 1.9860	65.1414
 1.9850	65.0934
 1.9840	65.0176
 1.9830	65.0364
 1.9820	64.9660
 1.9810	65.0272
 1.9800	64.9622
 1.9790	64.9404
 1.9780	64.9788
 1.9770	64.9545
 1.9760	64.8860
 1.9750	64.8779
 1.9740	64.8036
 1.9730	64.8024
 1.9720	64.7431
 1.9710	64.7812
 1.9700	64.7788
 1.9690	64.7977
 1.9680	64.7390
 1.9670	64.6684
 1.9660	64.6111
 1.9650	64.5895
 1.9640	64.6232
 1.9630	64.6553
 1.9620	64.6836
 1.9610	64.7104
 1.9600	64.5765
 1.9590	64.6822
 1.9580	64.5828
 1.9570	64.5390
 1.9560	64.5173
 1.9550	64.4979
 1.9540	64.5845
 1.9530	64.4569
 1.9520	64.4075
 1.9510	64.5311
 1.9500	64.4219
 1.9490	64.4782
 1.9480	64.4669
 1.9470	64.5163
 1.9460	64.4665
 1.9450	64.4697
 1.9440	64.4955
 1.9430	64.4846
 1.9420	64.4582
 1.9410	64.5699
 1.9400	64.5952
 1.9390	64.5603
 1.9380	64.5779
 1.9370	64.5265
 1.9360	64.6173
 1.9350	64.5585
 1.9340	64.5401
 1.9330	64.6822
 1.9320	64.6459
 1.9310	64.6927
 1.9300	64.5873
 1.9290	64.6641
 1.9280	64.8333
 1.9270	64.8497
 1.9260	64.6864
 1.9250	64.8501
 1.9240	64.8960
 1.9230	64.9112
 1.9220	64.9301
 1.9210	64.9611
 1.9200	64.9171
 1.9190	65.1003
 1.9180	65.1007
 1.9170	65.2262
 1.9160	65.2708
 1.9150	65.2074
 1.9140	65.4066
 1.9130	65.4381
 1.9120	65.3602
 1.9110	65.3811
 1.9100	65.4898
 1.9090	65.5808
 1.9080	65.7076
 1.9070	65.5758
 1.9060	65.6662
 1.9050	65.7082
 1.9040	65.7949
 1.9030	65.8163
 1.9020	65.8307
 1.9010	65.8843
 1.9000	66.0038
 1.8990	65.9931
 1.8980	65.9701
 1.8970	66.0346
 1.8960	65.9843
 1.8950	66.0915
 1.8940	66.0335
 1.8930	66.0510
 1.8920	66.0217
 1.8910	66.0139
 1.8900	65.9162
 1.8890	65.8232
 1.8880	65.8724
 1.8870	65.9344
 1.8860	65.8962
 1.8850	65.8727
 1.8840	65.7532
 1.8830	65.6540
 1.8820	65.6242
 1.8810	65.5275
 1.8800	65.5100
 1.8790	65.4738
 1.8780	65.4298
 1.8770	65.3818
 1.8760	65.3278
 1.8750	65.3268
 1.8740	65.2525
 1.8730	65.2194
 1.8720	65.1344
 1.8710	65.1044
 1.8700	65.0269
 1.8690	64.9974
 1.8680	65.0033
 1.8670	64.9845
 1.8660	65.0080
 1.8650	65.0278
 1.8640	64.9887
 1.8630	65.0005
 1.8620	65.1062
 1.8610	65.0972
 1.8600	65.0798
 1.8590	65.1612
 1.8580	65.1479
 1.8570	65.2434
 1.8560	65.3090
 1.8550	65.3587
 1.8540	65.3761
 1.8530	65.5396
 1.8520	65.5869
 1.8510	65.6713
 1.8500	65.8093
 1.8490	65.9197
 1.8480	66.0237
 1.8470	66.0808
 1.8460	66.1480
 1.8450	66.2924
 1.8440	66.3692
 1.8430	66.4544
 1.8420	66.5810
 1.8410	66.7010
 1.8400	66.7966
 1.8390	66.8818
 1.8380	66.9382
 1.8370	67.0365
 1.8360	67.0938
 1.8350	67.1985
 1.8340	67.3264
 1.8330	67.4725
 1.8320	67.5817
 1.8310	67.6657
 1.8300	67.7032
 1.8290	67.8880
 1.8280	67.9637
 1.8270	68.0436
 1.8260	68.1432
 1.8250	68.2701
 1.8240	68.3303
 1.8230	68.4043
 1.8220	68.4794
 1.8210	68.5372
 1.8200	68.6556
 1.8190	68.6860
 1.8180	68.7679
 1.8170	68.8941
 1.8160	68.9002
 1.8150	68.9468
 1.8140	69.0420
 1.8130	69.0924
 1.8120	69.1013
 1.8110	69.1726
 1.8100	69.2225
 1.8090	69.2718
 1.8080	69.3703
 1.8070	69.3975
 1.8060	69.3965
 1.8050	69.4783
 1.8040	69.5212
 1.8030	69.5193
 1.8020	69.6082
 1.8010	69.6818
 1.8000	69.7377
 1.7990	69.7603
 1.7980	69.7880
 1.7970	69.8893
 1.7960	69.9721
 1.7950	70.0085
 1.7940	70.0126
 1.7930	70.0631
 1.7920	70.0480
 1.7910	70.0574
 1.7900	70.1800
 1.7890	70.2289
 1.7880	70.2412
 1.7870	70.2538
 1.7860	70.3065
 1.7850	70.3738
 1.7840	70.4004
 1.7830	70.4555
 1.7820	70.5374
 1.7810	70.5740
 1.7800	70.6465
 1.7790	70.6767
 1.7780	70.6630
 1.7770	70.7080
 1.7760	70.8120
 1.7750	70.8518
 1.7740	70.8432
 1.7730	70.9044
 1.7720	70.9553
 1.7710	71.0474
 1.7700	71.1544
 1.7690	71.1375
 1.7680	71.1495
 1.7670	71.2662
 1.7660	71.3388
 1.7650	71.3671
 1.7640	71.4099
 1.7630	71.4502
 1.7620	71.4963
 1.7610	71.5623
 1.7600	71.6205
 1.7590	71.6075
 1.7580	71.6855
 1.7570	71.7383
 1.7560	71.7830
 1.7550	71.8752
 1.7540	71.9324
 1.7530	71.9806
 1.7520	72.0493
 1.7510	72.1072
 1.7500	72.1027
 1.7490	72.1613
 1.7480	72.2576
 1.7470	72.2753
 1.7460	72.3330
 1.7450	72.4193
 1.7440	72.4811
 1.7430	72.4953
 1.7420	72.5661
 1.7410	72.5818
 1.7400	72.6121
 1.7390	72.6533
 1.7380	72.7177
 1.7370	72.8172
 1.7360	72.8472
 1.7350	72.9072
 1.7340	72.9781
 1.7330	73.0098
 1.7320	73.0312
 1.7310	73.0519
 1.7300	73.1381
 1.7290	73.1780
 1.7280	73.1725
 1.7270	73.2211
 1.7260	73.3071
 1.7250	73.3158
 1.7240	73.3208
 1.7230	73.3149
 1.7220	73.3962
 1.7210	73.4830
 1.7200	73.4143
 1.7190	73.4803
 1.7180	73.5539
 1.7170	73.5821
 1.7160	73.6653
 1.7150	73.7362
 1.7140	73.7573
 1.7130	73.7491
 1.7120	73.7849
 1.7110	73.7820
 1.7100	73.8778
 1.7090	73.8866
 1.7080	73.8914
 1.7070	73.9463
 1.7060	73.9805
 1.7050	73.9389
 1.7040	74.0570
 1.7030	74.1077
 1.7020	74.1259
 1.7010	74.0746
 1.7000	74.1111
 1.6990	74.0907
 1.6980	74.1351
 1.6970	74.2198
 1.6960	74.3021
 1.6950	74.2648
 1.6940	74.1907
 1.6930	74.1885
 1.6920	74.3024
 1.6910	74.2560
 1.6900	74.2839
 1.6890	74.3853
 1.6880	74.2989
 1.6870	74.4317
 1.6860	74.3745
 1.6850	74.4200
 1.6840	74.4246
 1.6830	74.3495
 1.6820	74.4457
 1.6810	74.5126
 1.6800	74.5412
 1.6790	74.4958
 1.6780	74.5279
 1.6770	74.5975
 1.6760	74.6373
 1.6750	74.5874
 1.6740	74.6277
 1.6730	74.5691
 1.6720	74.7681
 1.6710	74.6868
 1.6700	74.6149
 1.6690	74.7379
 1.6680	74.6686
 1.6670	74.6625
 1.6660	74.7260
 1.6650	74.6554
 1.6640	74.6661
 1.6630	74.7230
 1.6620	74.8308
 1.6610	74.8456
 1.6600	74.8421
 1.6590	74.8624
 1.6580	74.8097
 1.6570	74.7538
 1.6560	74.8412
 1.6550	74.8932
 1.6540	74.8638
 1.6530	75.0855
 1.6520	74.9287
 1.6510	74.9697
 1.6500	75.0274
 1.6490	74.9917
 1.6480	75.0960
 1.6470	74.9650
 1.6460	75.1874
 1.6450	75.1124
 1.6440	75.0395
 1.6430	75.0654
 1.6420	75.1778
 1.6410	75.1709
 1.6400	75.2083
 1.6390	75.2391
 1.6380	75.1778
 1.6370	75.2589
 1.6360	75.2282
 1.6350	75.2187
 1.6340	75.2687
 1.6330	75.3047
 1.6320	75.2837
 1.6310	75.2369
 1.6300	75.3806
 1.6290	75.3795
 1.6280	75.3783
 1.6270	75.4474
 1.6260	75.4539
 1.6250	75.4969
 1.6240	75.5469
 1.6230	75.4516
 1.6220	75.5119
 1.6210	75.5183
 1.6200	75.5598
 1.6190	75.5386
 1.6180	75.5345
 1.6170	75.6213
 1.6160	75.5664
 1.6150	75.4609
 1.6140	75.5491
 1.6130	75.6162
 1.6120	75.6709
 1.6110	75.6612
 1.6100	75.6953
 1.6090	75.6792
 1.6080	75.6371
 1.6070	75.7016
 1.6060	75.7525
 1.6050	75.7195
 1.6040	75.7447
 1.6030	75.7770
 1.6020	75.7164
 1.6010	75.7600
 1.6000	75.6961
 1.5990	75.7627
 1.5980	75.7536
 1.5970	75.7064
 1.5960	75.7368
 1.5950	75.6213
 1.5940	75.7230
 1.5930	75.6866
 1.5920	75.6326
 1.5910	75.7050
 1.5900	75.7167
 1.5890	75.6584
 1.5880	75.6089
 1.5870	75.6095
 1.5860	75.6420
 1.5850	75.5920
 1.5840	75.6467
 1.5830	75.6744
 1.5820	75.6242
 1.5810	75.6482
 1.5800	75.6127
 1.5790	75.6141
 1.5780	75.6195
 1.5770	75.6147
 1.5760	75.6109
 1.5750	75.5651
 1.5740	75.5275
 1.5730	75.5028
 1.5720	75.5282
 1.5710	75.5543
 1.5700	75.5439
 1.5690	75.4766
 1.5680	75.5014
 1.5670	75.4147
 1.5660	75.4806
 1.5650	75.4224
 1.5640	75.4368
 1.5630	75.3249
 1.5620	75.2882
 1.5610	75.2799
 1.5600	75.3093
 1.5590	75.2517
 1.5580	75.2042
 1.5570	75.1871
 1.5560	75.1604
 1.5550	75.1164
 1.5540	75.1296
 1.5530	75.0617
 1.5520	75.0327
 1.5510	75.0532
 1.5500	75.0215
 1.5490	74.9800
 1.5480	75.0213
 1.5470	74.9598
 1.5460	74.8858
 1.5450	74.8733
 1.5440	74.8260
 1.5430	74.8079
 1.5420	74.8261
 1.5410	74.7912
 1.5400	74.7582
 1.5390	74.7233
 1.5380	74.7275
 1.5370	74.6837
 1.5360	74.6588
 1.5350	74.7147
 1.5340	74.6929
 1.5330	74.5822
 1.5320	74.6073
 1.5310	74.6521
 1.5300	74.6169
 1.5290	74.5576
 1.5280	74.5378
 1.5270	74.5273
 1.5260	74.5641
 1.5250	74.5511
 1.5240	74.4876
 1.5230	74.4728
 1.5220	74.5289
 1.5210	74.5395
 1.5200	74.4953
 1.5190	74.4798
 1.5180	74.5123
 1.5170	74.4944
 1.5160	74.4477
 1.5150	74.4586
 1.5140	74.4704
 1.5130	74.4392
 1.5120	74.4344
 1.5110	74.4112
 1.5100	74.4192
 1.5090	74.3604
 1.5080	74.2899
 1.5070	74.2779
 1.5060	74.2675
 1.5050	74.2426
 1.5040	74.1913
 1.5030	74.1367
 1.5020	74.0824
 1.5010	74.0084
 1.5000	73.8915
 1.4990	73.8867
 1.4980	73.8399
 1.4970	73.6898
 1.4960	73.5591
 1.4950	73.4744
 1.4940	73.4044
 1.4930	73.2263
 1.4920	73.0421
 1.4910	72.8943
 1.4900	72.8087
 1.4890	72.7126
 1.4880	72.5848
 1.4870	72.4700
 1.4860	72.3610
 1.4850	72.2688
 1.4840	72.1331
 1.4830	72.1100
 1.4820	72.1619
 1.4810	72.1131
 1.4800	72.0827
 1.4790	72.1371
 1.4780	72.1436
 1.4770	72.1826
 1.4760	72.2019
 1.4750	72.2256
 1.4740	72.3177
 1.4730	72.4427
 1.4720	72.5423
 1.4710	72.6691
 1.4700	72.7504
 1.4690	72.8418
 1.4680	72.9817
 1.4670	73.0721
 1.4660	73.1156
 1.4650	73.2628
 1.4640	73.4264
 1.4630	73.5185
 1.4620	73.6826
 1.4610	73.7913
 1.4600	73.8644
 1.4590	73.9516
 1.4580	74.0753
 1.4570	74.1785
 1.4560	74.2816
 1.4550	74.4547
 1.4540	74.4389
 1.4530	74.5180
 1.4520	74.5623
 1.4510	74.6082
 1.4500	74.6472
 1.4490	74.8029
 1.4480	74.8664
 1.4470	74.9348
 1.4460	74.9399
 1.4450	74.9034
 1.4440	74.9110
 1.4430	75.0202
 1.4420	74.9954
 1.4410	75.0044
 1.4400	75.0697
 1.4390	75.1143
 1.4380	75.1631
 1.4370	75.1154
 1.4360	75.0679
 1.4350	75.0971
 1.4340	75.0610
 1.4330	75.1025
 1.4320	75.1131
 1.4310	75.0974
 1.4300	75.0498
 1.4290	74.9990
 1.4280	75.0053
 1.4270	75.0559
 1.4260	75.0217
 1.4250	75.0439
 1.4240	75.0106
 1.4230	74.9406
 1.4220	74.9420
 1.4210	74.9034
 1.4200	74.8727
 1.4190	74.8950
 1.4180	74.8087
 1.4170	74.7857
 1.4160	74.7786
 1.4150	74.7351
 1.4140	74.7694
 1.4130	74.7020
 1.4120	74.6242
 1.4110	74.6710
 1.4100	74.6379
 1.4090	74.5793
 1.4080	74.6154
 1.4070	74.6355
 1.4060	74.6148
 1.4050	74.6523
 1.4040	74.5587
 1.4030	74.5112
 1.4020	74.5835
 1.4010	74.5937
 1.4000	74.5128
 1.3990	74.5573
 1.3980	74.5382
 1.3970	74.5429
 1.3960	74.5122
 1.3950	74.5261
 1.3940	74.4121
 1.3930	74.4334
 1.3920	74.4020
 1.3910	74.3450
 1.3900	74.2777
 1.3890	74.3073
 1.3880	74.2382
 1.3870	74.1581
 1.3860	74.0977
 1.3850	74.0241
 1.3840	73.9970
 1.3830	73.9395
 1.3820	73.7604
 1.3810	73.7749
 1.3800	73.6160
 1.3790	73.6971
 1.3780	73.6373
 1.3770	73.5685
 1.3760	73.4838
 1.3750	73.3956
 1.3740	73.3087
 1.3730	73.2761
 1.3720	73.1679
 1.3710	73.1899
 1.3700	73.0337
 1.3690	72.8992
 1.3680	72.9948
 1.3670	72.8212
 1.3660	72.7742
 1.3650	72.7227
