Name: Palygorskite (Mg,Al)_2Si_4O_10(OH).4H_2O
Type: Mineral
Class: Silicate
Subclass: Phyllosilicate
Particle Size: Fine
Sample No.: PS-4A
Owner: JPL
Wavelength Range: VSWIR
Origin: USA, Florida, Gadsden County.
Collection Date: N/A
Description: Particle size was 0-45um.Collected by:  Clay Mineral Society Original ASTER Spectral Library name was jpl.perkin.mineral.silicate.phyllosilicate.fine.ps04a.spectrum.txt
Measurement: Hemispherical reflectance
First Column: X
Second Column: Y
X Units: Wavelength (micrometers)
Y Units:Reflectance (percent)
First X Value:  2.5000
Last X Value:  0.4000
Number of X Values: 2101
Additional Information: mineral.silicate.phyllosilicate.fine.vswir.ps-4a.jpl.perkin.ancillary.txt

 2.5000	37.6310
 2.4990	37.3608
 2.4980	37.8308
 2.4970	37.8120
 2.4960	37.5880
 2.4950	37.8120
 2.4940	38.1417
 2.4930	38.0976
 2.4920	38.1958
 2.4910	38.3406
 2.4900	38.5263
 2.4890	38.4846
 2.4880	38.6441
 2.4870	38.7975
 2.4860	39.0774
 2.4850	38.8002
 2.4840	38.9903
 2.4830	39.0697
 2.4820	39.2949
 2.4810	39.3243
 2.4800	39.6399
 2.4790	39.6231
 2.4780	39.7770
 2.4770	39.7463
 2.4760	39.9581
 2.4750	39.7863
 2.4740	40.1168
 2.4730	40.0411
 2.4720	40.3376
 2.4710	40.2330
 2.4700	40.4270
 2.4690	40.4285
 2.4680	40.5453
 2.4670	40.6120
 2.4660	40.7479
 2.4650	40.8743
 2.4640	40.9520
 2.4630	40.9882
 2.4620	40.8977
 2.4610	40.9840
 2.4600	41.2037
 2.4590	41.0809
 2.4580	41.2431
 2.4570	41.2926
 2.4560	41.1925
 2.4550	41.2847
 2.4540	41.3657
 2.4530	41.3740
 2.4520	41.4255
 2.4510	41.3970
 2.4500	41.4739
 2.4490	41.3963
 2.4480	41.6017
 2.4470	41.5496
 2.4460	41.5684
 2.4450	41.4596
 2.4440	41.6623
 2.4430	41.6534
 2.4420	41.6298
 2.4410	41.6209
 2.4400	41.7492
 2.4390	41.8003
 2.4380	41.8237
 2.4370	41.8279
 2.4360	41.9927
 2.4350	41.9089
 2.4340	42.0594
 2.4330	42.0930
 2.4320	42.1929
 2.4310	42.1629
 2.4300	42.4137
 2.4290	42.3916
 2.4280	42.5245
 2.4270	42.5095
 2.4260	42.5949
 2.4250	42.7011
 2.4240	42.7089
 2.4230	42.7955
 2.4220	42.9935
 2.4210	43.0482
 2.4200	43.1537
 2.4190	43.1964
 2.4180	43.2506
 2.4170	43.2632
 2.4160	43.3476
 2.4150	43.5059
 2.4140	43.6248
 2.4130	43.6641
 2.4120	43.8477
 2.4110	43.8040
 2.4100	43.9636
 2.4090	44.0193
 2.4080	44.2004
 2.4070	44.2850
 2.4060	44.4520
 2.4050	44.4309
 2.4040	44.5292
 2.4030	44.7087
 2.4020	44.8074
 2.4010	44.8199
 2.4000	44.9469
 2.3990	45.1070
 2.3980	45.2964
 2.3970	45.4289
 2.3960	45.5856
 2.3950	45.7051
 2.3940	45.7447
 2.3930	45.8323
 2.3920	46.0170
 2.3910	46.1894
 2.3900	46.3810
 2.3890	46.4055
 2.3880	46.5649
 2.3870	46.7269
 2.3860	46.8814
 2.3850	46.9761
 2.3840	47.0986
 2.3830	47.1198
 2.3820	47.2934
 2.3810	47.4470
 2.3800	47.5506
 2.3790	47.7254
 2.3780	47.8599
 2.3770	47.9443
 2.3760	48.0300
 2.3750	48.1388
 2.3740	48.3043
 2.3730	48.4320
 2.3720	48.6282
 2.3710	48.7704
 2.3700	48.8520
 2.3690	48.9717
 2.3680	49.1383
 2.3670	49.2464
 2.3660	49.4600
 2.3650	49.6763
 2.3640	49.7726
 2.3630	49.8396
 2.3620	50.0307
 2.3610	50.2048
 2.3600	50.3113
 2.3590	50.3998
 2.3580	50.4996
 2.3570	50.6149
 2.3560	50.7010
 2.3550	50.7616
 2.3540	50.8976
 2.3530	51.0457
 2.3520	51.0969
 2.3510	51.1589
 2.3500	51.2230
 2.3490	51.2746
 2.3480	51.3327
 2.3470	51.3837
 2.3460	51.4204
 2.3450	51.5131
 2.3440	51.5457
 2.3430	51.5827
 2.3420	51.6665
 2.3410	51.7072
 2.3400	51.7541
 2.3390	51.8197
 2.3380	51.8751
 2.3370	51.8961
 2.3360	51.9429
 2.3350	52.0898
 2.3340	52.1321
 2.3330	52.2060
 2.3320	52.3335
 2.3310	52.4554
 2.3300	52.5299
 2.3290	52.6176
 2.3280	52.6955
 2.3270	52.8791
 2.3260	52.9998
 2.3250	53.1903
 2.3240	53.3812
 2.3230	53.5533
 2.3220	53.7016
 2.3210	53.8974
 2.3200	53.9879
 2.3190	54.1568
 2.3180	54.3295
 2.3170	54.5286
 2.3160	54.6658
 2.3150	54.8255
 2.3140	54.8611
 2.3130	55.0138
 2.3120	55.1252
 2.3110	55.2719
 2.3100	55.4002
 2.3090	55.5612
 2.3080	55.6190
 2.3070	55.7268
 2.3060	55.8408
 2.3050	56.0340
 2.3040	56.1520
 2.3030	56.2651
 2.3020	56.2739
 2.3010	56.4954
 2.3000	56.5723
 2.2990	56.7379
 2.2980	56.8483
 2.2970	56.9856
 2.2960	57.0183
 2.2950	57.0655
 2.2940	57.2229
 2.2930	57.3683
 2.2920	57.0790
 2.2910	57.4543
 2.2900	57.6115
 2.2890	57.7319
 2.2880	57.8574
 2.2870	58.0584
 2.2860	58.0701
 2.2850	58.1586
 2.2840	58.2273
 2.2830	58.3013
 2.2820	58.4783
 2.2810	58.5462
 2.2800	58.6134
 2.2790	58.7031
 2.2780	58.8196
 2.2770	58.9298
 2.2760	58.8279
 2.2750	58.9793
 2.2740	59.0608
 2.2730	59.1400
 2.2720	59.1272
 2.2710	59.2473
 2.2700	59.2496
 2.2690	59.3178
 2.2680	59.3264
 2.2670	59.3066
 2.2660	59.1819
 2.2650	59.2200
 2.2640	59.1879
 2.2630	59.2554
 2.2620	59.1584
 2.2610	59.1088
 2.2600	59.1714
 2.2590	59.1177
 2.2580	59.0295
 2.2570	59.0698
 2.2560	58.9733
 2.2550	59.0561
 2.2540	59.1037
 2.2530	59.0651
 2.2520	59.0415
 2.2510	59.0841
 2.2500	59.1816
 2.2490	59.1576
 2.2480	59.1605
 2.2470	59.3027
 2.2460	59.3120
 2.2450	59.4131
 2.2440	59.3766
 2.2430	59.4605
 2.2420	59.5029
 2.2410	59.5274
 2.2400	59.4957
 2.2390	59.5861
 2.2380	59.4474
 2.2370	59.4590
 2.2360	59.3616
 2.2350	59.2822
 2.2340	59.1147
 2.2330	59.0787
 2.2320	58.7142
 2.2310	58.5322
 2.2300	58.2089
 2.2290	57.9733
 2.2280	57.6565
 2.2270	57.2992
 2.2260	56.9129
 2.2250	56.7797
 2.2240	56.3339
 2.2230	56.1764
 2.2220	55.8541
 2.2210	55.8151
 2.2200	55.8597
 2.2190	55.8551
 2.2180	55.9004
 2.2170	56.1652
 2.2160	56.2356
 2.2150	56.6288
 2.2140	56.7402
 2.2130	57.0293
 2.2120	57.3986
 2.2110	57.6261
 2.2100	57.9853
 2.2090	58.2483
 2.2080	58.4446
 2.2070	58.6506
 2.2060	58.9621
 2.2050	59.1990
 2.2040	59.2475
 2.2030	59.6112
 2.2020	59.7916
 2.2010	59.9934
 2.2000	60.1903
 2.1990	60.4553
 2.1980	60.5431
 2.1970	60.7769
 2.1960	60.9556
 2.1950	61.1232
 2.1940	61.2143
 2.1930	61.4471
 2.1920	61.3769
 2.1910	61.5649
 2.1900	61.6584
 2.1890	61.8180
 2.1880	61.9124
 2.1870	62.0719
 2.1860	62.1159
 2.1850	62.1393
 2.1840	62.1818
 2.1830	62.3540
 2.1820	62.3572
 2.1810	62.5073
 2.1800	62.5156
 2.1790	62.6206
 2.1780	62.6973
 2.1770	62.9082
 2.1760	62.7952
 2.1750	62.9066
 2.1740	63.0022
 2.1730	63.0326
 2.1720	63.1400
 2.1710	63.1796
 2.1700	63.3070
 2.1690	63.3108
 2.1680	63.2851
 2.1670	63.3935
 2.1660	63.3531
 2.1650	63.4747
 2.1640	63.4793
 2.1630	63.5999
 2.1620	63.5818
 2.1610	63.7277
 2.1600	63.7046
 2.1590	63.8342
 2.1580	63.8942
 2.1570	63.8995
 2.1560	63.8871
 2.1550	63.9146
 2.1540	63.9627
 2.1530	64.0623
 2.1520	64.0421
 2.1510	64.0387
 2.1500	64.0571
 2.1490	64.1204
 2.1480	64.1441
 2.1470	64.1654
 2.1460	64.1464
 2.1450	64.1990
 2.1440	64.1092
 2.1430	64.1683
 2.1420	64.1673
 2.1410	64.1254
 2.1400	64.1464
 2.1390	64.1845
 2.1380	64.1544
 2.1370	64.1816
 2.1360	64.1827
 2.1350	64.2109
 2.1340	64.1191
 2.1330	64.0992
 2.1320	64.0994
 2.1310	64.1391
 2.1300	64.1468
 2.1290	64.0095
 2.1280	63.9415
 2.1270	63.9636
 2.1260	63.9249
 2.1250	63.9970
 2.1240	63.9396
 2.1230	63.8838
 2.1220	63.7748
 2.1210	63.7165
 2.1200	63.7549
 2.1190	63.7634
 2.1180	63.7107
 2.1170	63.6824
 2.1160	63.6502
 2.1150	63.6058
 2.1140	63.6240
 2.1130	63.5832
 2.1120	63.5224
 2.1110	63.5045
 2.1100	63.4649
 2.1090	63.4061
 2.1080	63.3596
 2.1070	63.3018
 2.1060	63.2864
 2.1050	63.2572
 2.1040	63.2446
 2.1030	63.2848
 2.1020	63.2066
 2.1010	63.1528
 2.1000	63.1079
 2.0990	63.1447
 2.0980	63.1223
 2.0970	62.9957
 2.0960	62.9323
 2.0950	62.9541
 2.0940	62.9423
 2.0930	62.9560
 2.0920	62.9712
 2.0910	62.9903
 2.0900	62.9502
 2.0890	62.8956
 2.0880	62.8776
 2.0870	62.8652
 2.0860	62.8769
 2.0850	62.8306
 2.0840	62.7870
 2.0830	62.7880
 2.0820	62.7242
 2.0810	62.6725
 2.0800	62.7222
 2.0790	62.7622
 2.0780	62.6725
 2.0770	62.6017
 2.0760	62.6203
 2.0750	62.6349
 2.0740	62.5996
 2.0730	62.5751
 2.0720	62.5230
 2.0710	62.5251
 2.0700	62.4994
 2.0690	62.4469
 2.0680	62.4283
 2.0670	62.3921
 2.0660	62.3341
 2.0650	62.3628
 2.0640	62.3412
 2.0630	62.1908
 2.0620	62.1468
 2.0610	62.1856
 2.0600	62.1605
 2.0590	62.0822
 2.0580	61.9955
 2.0570	61.9792
 2.0560	61.8897
 2.0550	61.8288
 2.0540	61.8402
 2.0530	61.7843
 2.0520	61.7778
 2.0510	61.7383
 2.0500	61.6874
 2.0490	61.6579
 2.0480	61.6449
 2.0470	61.5753
 2.0460	61.5448
 2.0450	61.4878
 2.0440	61.4452
 2.0430	61.3448
 2.0420	61.2972
 2.0410	61.2233
 2.0400	61.1851
 2.0390	61.1028
 2.0380	60.9865
 2.0370	60.9551
 2.0360	60.9548
 2.0350	60.8432
 2.0340	60.7330
 2.0330	60.6406
 2.0320	60.6581
 2.0310	60.5607
 2.0300	60.4322
 2.0290	60.2707
 2.0280	60.1915
 2.0270	60.0566
 2.0260	60.0546
 2.0250	59.9913
 2.0240	59.8376
 2.0230	59.7293
 2.0220	59.5764
 2.0210	59.4609
 2.0200	59.4034
 2.0190	59.2713
 2.0180	59.1338
 2.0170	59.0030
 2.0160	58.9850
 2.0150	58.8021
 2.0140	58.6917
 2.0130	58.5146
 2.0120	58.3522
 2.0110	58.2030
 2.0100	58.1127
 2.0090	57.9625
 2.0080	57.8261
 2.0070	57.6325
 2.0060	57.5173
 2.0050	57.3643
 2.0040	57.2819
 2.0030	57.0943
 2.0020	57.0292
 2.0010	56.8138
 2.0000	56.6397
 1.9990	56.4786
 1.9980	56.2469
 1.9970	56.1557
 1.9960	56.0023
 1.9950	55.7062
 1.9940	55.5675
 1.9930	55.4157
 1.9920	55.3102
 1.9910	55.1082
 1.9900	55.0333
 1.9890	54.7352
 1.9880	54.7195
 1.9870	54.4614
 1.9860	54.3666
 1.9850	54.1882
 1.9840	54.0741
 1.9830	53.8632
 1.9820	53.6804
 1.9810	53.6002
 1.9800	53.4950
 1.9790	53.2945
 1.9780	53.2116
 1.9770	53.0504
 1.9760	52.9590
 1.9750	52.8709
 1.9740	52.7417
 1.9730	52.5805
 1.9720	52.6151
 1.9710	52.3867
 1.9700	52.4081
 1.9690	52.2587
 1.9680	52.1424
 1.9670	51.9504
 1.9660	51.8991
 1.9650	51.7701
 1.9640	51.7029
 1.9630	51.5315
 1.9620	51.3910
 1.9610	51.2919
 1.9600	51.2269
 1.9590	51.0271
 1.9580	50.9577
 1.9570	50.6898
 1.9560	50.6666
 1.9550	50.4216
 1.9540	50.3341
 1.9530	50.1033
 1.9520	50.0078
 1.9510	49.6480
 1.9500	49.6234
 1.9490	49.2784
 1.9480	49.0957
 1.9470	48.7168
 1.9460	48.4893
 1.9450	48.2695
 1.9440	47.7959
 1.9430	47.3823
 1.9420	47.0706
 1.9410	46.5495
 1.9400	46.0769
 1.9390	45.4642
 1.9380	45.0048
 1.9370	44.2934
 1.9360	43.7731
 1.9350	43.1030
 1.9340	42.5699
 1.9330	41.9436
 1.9320	41.4168
 1.9310	40.8121
 1.9300	40.3301
 1.9290	39.8068
 1.9280	39.4177
 1.9270	39.0549
 1.9260	38.5570
 1.9250	38.2980
 1.9240	38.0816
 1.9230	37.7883
 1.9220	37.7109
 1.9210	37.4683
 1.9200	37.5508
 1.9190	37.3471
 1.9180	37.3827
 1.9170	37.4102
 1.9160	37.5086
 1.9150	37.5785
 1.9140	37.8137
 1.9130	37.9691
 1.9120	38.2152
 1.9110	38.4642
 1.9100	38.9641
 1.9090	39.3366
 1.9080	39.8100
 1.9070	40.4556
 1.9060	41.1748
 1.9050	41.8143
 1.9040	42.7308
 1.9030	43.6695
 1.9020	44.6581
 1.9010	45.6402
 1.9000	46.7284
 1.8990	47.5958
 1.8980	48.5731
 1.8970	49.4790
 1.8960	50.4712
 1.8950	51.3066
 1.8940	52.1897
 1.8930	52.9796
 1.8920	53.8322
 1.8910	54.4717
 1.8900	55.2919
 1.8890	56.0099
 1.8880	56.7556
 1.8870	57.3624
 1.8860	57.9670
 1.8850	58.4231
 1.8840	59.0128
 1.8830	59.5268
 1.8820	60.1028
 1.8810	60.5147
 1.8800	61.0754
 1.8790	61.5298
 1.8780	61.9870
 1.8770	62.3544
 1.8760	62.8271
 1.8750	63.2765
 1.8740	63.8083
 1.8730	64.3032
 1.8720	64.8135
 1.8710	65.1840
 1.8700	65.5982
 1.8690	65.8974
 1.8680	66.2587
 1.8670	66.4861
 1.8660	66.8097
 1.8650	66.9509
 1.8640	67.1248
 1.8630	67.1912
 1.8620	67.3915
 1.8610	67.4864
 1.8600	67.5758
 1.8590	67.6892
 1.8580	67.9621
 1.8570	68.0038
 1.8560	68.1072
 1.8550	68.1767
 1.8540	68.2829
 1.8530	68.3442
 1.8520	68.5184
 1.8510	68.5026
 1.8500	68.6290
 1.8490	68.7189
 1.8480	68.8294
 1.8470	68.8228
 1.8460	68.9254
 1.8450	68.9605
 1.8440	68.9925
 1.8430	69.0089
 1.8420	69.0323
 1.8410	69.0738
 1.8400	69.1524
 1.8390	69.1349
 1.8380	69.1942
 1.8370	69.2213
 1.8360	69.2825
 1.8350	69.2665
 1.8340	69.2853
 1.8330	69.2833
 1.8320	69.3574
 1.8310	69.2629
 1.8300	69.3177
 1.8290	69.3195
 1.8280	69.4062
 1.8270	69.3903
 1.8260	69.3895
 1.8250	69.4021
 1.8240	69.3877
 1.8230	69.4305
 1.8220	69.4673
 1.8210	69.4016
 1.8200	69.4412
 1.8190	69.4683
 1.8180	69.4194
 1.8170	69.4269
 1.8160	69.4504
 1.8150	69.4381
 1.8140	69.5101
 1.8130	69.5368
 1.8120	69.4200
 1.8110	69.4033
 1.8100	69.4474
 1.8090	69.5082
 1.8080	69.4931
 1.8070	69.4658
 1.8060	69.4470
 1.8050	69.4317
 1.8040	69.4689
 1.8030	69.4770
 1.8020	69.4947
 1.8010	69.5552
 1.8000	69.5811
 1.7990	69.5778
 1.7980	69.6102
 1.7970	69.5550
 1.7960	69.5710
 1.7950	69.6653
 1.7940	69.7238
 1.7930	69.7258
 1.7920	69.6863
 1.7910	69.6981
 1.7900	69.7919
 1.7890	69.8755
 1.7880	69.9206
 1.7870	69.8505
 1.7860	69.8470
 1.7850	69.9209
 1.7840	69.9669
 1.7830	69.9770
 1.7820	69.9675
 1.7810	69.9664
 1.7800	69.9999
 1.7790	70.0664
 1.7780	70.0847
 1.7770	70.1488
 1.7760	70.1825
 1.7750	70.2300
 1.7740	70.2434
 1.7730	70.2700
 1.7720	70.3782
 1.7710	70.4716
 1.7700	70.4520
 1.7690	70.3855
 1.7680	70.4361
 1.7670	70.5261
 1.7660	70.5363
 1.7650	70.6294
 1.7640	70.7070
 1.7630	70.6836
 1.7620	70.6889
 1.7610	70.7279
 1.7600	70.7770
 1.7590	70.8292
 1.7580	70.8415
 1.7570	70.8323
 1.7560	70.8536
 1.7550	70.9103
 1.7540	70.8713
 1.7530	70.9741
 1.7520	71.0180
 1.7510	71.0572
 1.7500	71.0527
 1.7490	71.0132
 1.7480	71.0515
 1.7470	71.0804
 1.7460	71.1020
 1.7450	71.2058
 1.7440	71.2527
 1.7430	71.2387
 1.7420	71.2052
 1.7410	71.2943
 1.7400	71.2962
 1.7390	71.2999
 1.7380	71.2749
 1.7370	71.3175
 1.7360	71.3196
 1.7350	71.3167
 1.7340	71.3692
 1.7330	71.4352
 1.7320	71.3693
 1.7310	71.4721
 1.7300	71.4512
 1.7290	71.4123
 1.7280	71.4118
 1.7270	71.4103
 1.7260	71.4486
 1.7250	71.4711
 1.7240	71.5475
 1.7230	71.6178
 1.7220	71.6110
 1.7210	71.5523
 1.7200	71.5891
 1.7190	71.6772
 1.7180	71.6523
 1.7170	71.6649
 1.7160	71.6162
 1.7150	71.6554
 1.7140	71.6155
 1.7130	71.6975
 1.7120	71.6679
 1.7110	71.7787
 1.7100	71.6888
 1.7090	71.7535
 1.7080	71.7689
 1.7070	71.6859
 1.7060	71.7878
 1.7050	71.8141
 1.7040	71.7585
 1.7030	71.7932
 1.7020	71.8310
 1.7010	71.8581
 1.7000	71.8126
 1.6990	71.7870
 1.6980	71.8340
 1.6970	71.8188
 1.6960	71.7912
 1.6950	71.8843
 1.6940	71.9411
 1.6930	71.8842
 1.6920	71.8085
 1.6910	71.8841
 1.6900	71.9383
 1.6890	71.9354
 1.6880	71.8788
 1.6870	71.8255
 1.6860	71.8483
 1.6850	71.9029
 1.6840	71.8113
 1.6830	71.8955
 1.6820	71.8997
 1.6810	71.9450
 1.6800	71.8884
 1.6790	71.8803
 1.6780	71.9207
 1.6770	71.9709
 1.6760	71.9487
 1.6750	71.8424
 1.6740	71.9402
 1.6730	71.9236
 1.6720	71.9114
 1.6710	71.8254
 1.6700	71.8279
 1.6690	71.8016
 1.6680	71.8511
 1.6670	71.8992
 1.6660	71.7599
 1.6650	71.8627
 1.6640	71.7535
 1.6630	71.8109
 1.6620	71.7890
 1.6610	71.8513
 1.6600	71.8765
 1.6590	71.8429
 1.6580	71.8063
 1.6570	71.8287
 1.6560	71.7491
 1.6550	71.8183
 1.6540	71.6780
 1.6530	71.8512
 1.6520	71.6798
 1.6510	71.8257
 1.6500	71.7466
 1.6490	71.6740
 1.6480	71.7721
 1.6470	71.7820
 1.6460	71.7909
 1.6450	71.8933
 1.6440	71.7186
 1.6430	71.7812
 1.6420	71.7382
 1.6410	71.7982
 1.6400	71.7781
 1.6390	71.7769
 1.6380	71.8198
 1.6370	71.6726
 1.6360	71.7491
 1.6350	71.7128
 1.6340	71.7195
 1.6330	71.6290
 1.6320	71.5625
 1.6310	71.5926
 1.6300	71.6544
 1.6290	71.5995
 1.6280	71.6296
 1.6270	71.5984
 1.6260	71.4858
 1.6250	71.5564
 1.6240	71.6259
 1.6230	71.4926
 1.6220	71.4983
 1.6210	71.5928
 1.6200	71.5044
 1.6190	71.5179
 1.6180	71.4755
 1.6170	71.4457
 1.6160	71.5186
 1.6150	71.5722
 1.6140	71.4225
 1.6130	71.3788
 1.6120	71.4233
 1.6110	71.3688
 1.6100	71.3918
 1.6090	71.3758
 1.6080	71.4486
 1.6070	71.4510
 1.6060	71.3781
 1.6050	71.3514
 1.6040	71.3145
 1.6030	71.3694
 1.6020	71.3229
 1.6010	71.3424
 1.6000	71.2639
 1.5990	71.2891
 1.5980	71.2674
 1.5970	71.1935
 1.5960	71.1730
 1.5950	71.2117
 1.5940	71.1795
 1.5930	71.0961
 1.5920	71.1733
 1.5910	71.1010
 1.5900	71.2205
 1.5890	71.2486
 1.5880	71.1184
 1.5870	71.0864
 1.5860	71.0090
 1.5850	71.0327
 1.5840	71.0636
 1.5830	70.9704
 1.5820	70.9219
 1.5810	70.9072
 1.5800	70.9688
 1.5790	70.8880
 1.5780	70.8990
 1.5770	70.9326
 1.5760	70.9624
 1.5750	70.9221
 1.5740	70.7600
 1.5730	70.7623
 1.5720	70.7878
 1.5710	70.7812
 1.5700	70.6903
 1.5690	70.7155
 1.5680	70.6906
 1.5670	70.6993
 1.5660	70.6866
 1.5650	70.6411
 1.5640	70.6302
 1.5630	70.6356
 1.5620	70.5405
 1.5610	70.5990
 1.5600	70.5865
 1.5590	70.5404
 1.5580	70.4780
 1.5570	70.4813
 1.5560	70.4859
 1.5550	70.4762
 1.5540	70.4464
 1.5530	70.3741
 1.5520	70.3619
 1.5510	70.3678
 1.5500	70.3767
 1.5490	70.3269
 1.5480	70.1931
 1.5470	70.1222
 1.5460	70.1118
 1.5450	70.1215
 1.5440	70.1216
 1.5430	70.0296
 1.5420	70.0549
 1.5410	70.0443
 1.5400	69.9338
 1.5390	69.9537
 1.5380	69.9506
 1.5370	69.9365
 1.5360	69.8258
 1.5350	69.7919
 1.5340	69.7784
 1.5330	69.7933
 1.5320	69.7828
 1.5310	69.6788
 1.5300	69.6167
 1.5290	69.6589
 1.5280	69.5800
 1.5270	69.5254
 1.5260	69.4675
 1.5250	69.4847
 1.5240	69.4425
 1.5230	69.3293
 1.5220	69.2492
 1.5210	69.2755
 1.5200	69.3011
 1.5190	69.2300
 1.5180	69.1399
 1.5170	69.1240
 1.5160	69.0732
 1.5150	68.9495
 1.5140	68.8855
 1.5130	68.8323
 1.5120	68.7852
 1.5110	68.7596
 1.5100	68.7096
 1.5090	68.6456
 1.5080	68.6077
 1.5070	68.6082
 1.5060	68.5219
 1.5050	68.4326
 1.5040	68.3121
 1.5030	68.1805
 1.5020	68.1310
 1.5010	68.1067
 1.5000	67.9823
 1.4990	67.9116
 1.4980	67.8836
 1.4970	67.7909
 1.4960	67.7117
 1.4950	67.6516
 1.4940	67.5558
 1.4930	67.4639
 1.4920	67.3307
 1.4910	67.2159
 1.4900	67.1189
 1.4890	66.9876
 1.4880	66.8983
 1.4870	66.7236
 1.4860	66.5296
 1.4850	66.4368
 1.4840	66.3533
 1.4830	66.2073
 1.4820	66.1000
 1.4810	65.9162
 1.4800	65.7372
 1.4790	65.6247
 1.4780	65.4896
 1.4770	65.2888
 1.4760	65.1704
 1.4750	64.9964
 1.4740	64.8742
 1.4730	64.8065
 1.4720	64.7309
 1.4710	64.5962
 1.4700	64.6044
 1.4690	64.6128
 1.4680	64.5036
 1.4670	64.4128
 1.4660	64.3919
 1.4650	64.3288
 1.4640	64.3374
 1.4630	64.2688
 1.4620	64.1904
 1.4610	64.1534
 1.4600	64.1177
 1.4590	64.0440
 1.4580	63.9401
 1.4570	63.8783
 1.4560	63.8337
 1.4550	63.6496
 1.4540	63.6153
 1.4530	63.5551
 1.4520	63.4056
 1.4510	63.3045
 1.4500	63.2261
 1.4490	63.0769
 1.4480	63.0045
 1.4470	62.8616
 1.4460	62.7149
 1.4450	62.5700
 1.4440	62.5183
 1.4430	62.4312
 1.4420	62.3773
 1.4410	62.3414
 1.4400	62.3681
 1.4390	62.3225
 1.4380	62.2041
 1.4370	62.0563
 1.4360	61.9766
 1.4350	61.7371
 1.4340	61.5424
 1.4330	61.2475
 1.4320	60.9686
 1.4310	60.7541
 1.4300	60.6238
 1.4290	60.5436
 1.4280	60.5889
 1.4270	60.5456
 1.4260	60.5499
 1.4250	60.4907
 1.4240	60.3540
 1.4230	60.0020
 1.4220	59.4608
 1.4210	58.5517
 1.4200	57.5716
 1.4190	56.8114
 1.4180	56.4682
 1.4170	56.5198
 1.4160	57.2836
 1.4150	58.3468
 1.4140	59.4018
 1.4130	60.1986
 1.4120	60.9181
 1.4110	61.4148
 1.4100	61.9257
 1.4090	62.2825
 1.4080	62.6459
 1.4070	62.9730
 1.4060	63.3683
 1.4050	63.7075
 1.4040	64.2141
 1.4030	64.4484
 1.4020	64.7920
 1.4010	65.1462
 1.4000	65.5045
 1.3990	65.8112
 1.3980	66.1364
 1.3970	66.4825
 1.3960	66.7945
 1.3950	67.0302
 1.3940	67.2845
 1.3930	67.5991
 1.3920	67.7442
 1.3910	67.9870
 1.3900	68.0504
 1.3890	68.2285
 1.3880	68.2213
 1.3870	68.3169
 1.3860	68.4982
 1.3850	68.6571
 1.3840	68.9065
 1.3830	69.0786
 1.3820	69.3305
 1.3810	69.4523
 1.3800	69.6847
 1.3790	69.7662
 1.3780	69.9844
 1.3770	70.1443
 1.3760	70.2003
 1.3750	70.2977
 1.3740	70.5366
 1.3730	70.5972
 1.3720	70.7184
 1.3710	70.7137
 1.3700	70.8878
 1.3690	70.8576
