Name: Natrojarosite NaFe_3^3+(SO_4)_2(OH)_6
Type: Mineral
Class: Sulfate
Subclass: None
Particle Size: Medium
Sample No.: SO-7C
Owner: JPL
Wavelength Range: VSWIR
Origin: USA, Utah, Tooele County, Gold Hill.
Collection Date: N/A
Description: Particle size was 45-125um. Collected by:  Ward's Original ASTER Spectral Library name was jpl.perkin.mineral.sulfate.none.medium.so07c.spectrum.txt
Measurement: Hemispherical reflectance
First Column: X
Second Column: Y
X Units: Wavelength (micrometers)
Y Units:Reflectance (percent)
First X Value:  2.5000
Last X Value:  0.4000
Number of X Values: 2101
Additional Information: mineral.sulfate.none.medium.vswir.so-7c.jpl.perkin.ancillary.txt

 2.5000	41.0722
 2.4990	41.2017
 2.4980	41.5516
 2.4970	41.8148
 2.4960	41.8474
 2.4950	42.1711
 2.4940	42.3595
 2.4930	42.5886
 2.4920	42.9388
 2.4910	42.9294
 2.4900	43.1107
 2.4890	43.1799
 2.4880	43.5371
 2.4870	43.2890
 2.4860	43.4859
 2.4850	43.6097
 2.4840	43.6290
 2.4830	43.7171
 2.4820	43.8303
 2.4810	43.7899
 2.4800	43.7493
 2.4790	43.7397
 2.4780	43.8384
 2.4770	43.6675
 2.4760	43.8727
 2.4750	43.6567
 2.4740	43.6365
 2.4730	43.5710
 2.4720	43.6557
 2.4710	43.5187
 2.4700	43.5325
 2.4690	43.5025
 2.4680	43.3460
 2.4670	43.3950
 2.4660	43.4477
 2.4650	43.3545
 2.4640	43.2911
 2.4630	43.4199
 2.4620	43.4035
 2.4610	43.3668
 2.4600	43.4200
 2.4590	43.4307
 2.4580	43.4496
 2.4570	43.6325
 2.4560	43.7513
 2.4550	43.8342
 2.4540	43.9390
 2.4530	44.0164
 2.4520	44.2056
 2.4510	44.3566
 2.4500	44.6058
 2.4490	44.7333
 2.4480	44.9483
 2.4470	45.1975
 2.4460	45.3258
 2.4450	45.4602
 2.4440	45.7519
 2.4430	45.8478
 2.4420	46.0359
 2.4410	46.1889
 2.4400	46.4013
 2.4390	46.4243
 2.4380	46.6649
 2.4370	46.7999
 2.4360	46.8372
 2.4350	46.9960
 2.4340	47.0500
 2.4330	47.1094
 2.4320	47.3028
 2.4310	47.2444
 2.4300	47.2612
 2.4290	47.3773
 2.4280	47.4884
 2.4270	47.4852
 2.4260	47.4640
 2.4250	47.4394
 2.4240	47.4280
 2.4230	47.4164
 2.4220	47.4567
 2.4210	47.4114
 2.4200	47.4274
 2.4190	47.5426
 2.4180	47.6006
 2.4170	47.5136
 2.4160	47.5801
 2.4150	47.6071
 2.4140	47.6847
 2.4130	47.6839
 2.4120	47.7638
 2.4110	47.8743
 2.4100	47.9321
 2.4090	47.9821
 2.4080	48.1582
 2.4070	48.2940
 2.4060	48.4217
 2.4050	48.5447
 2.4040	48.6510
 2.4030	48.7543
 2.4020	48.9946
 2.4010	49.1642
 2.4000	49.4108
 2.3990	49.6248
 2.3980	49.8873
 2.3970	50.1250
 2.3960	50.3779
 2.3950	50.6513
 2.3940	50.9781
 2.3930	51.1751
 2.3920	51.4522
 2.3910	51.7781
 2.3900	52.0713
 2.3890	52.3292
 2.3880	52.6746
 2.3870	52.9750
 2.3860	53.2322
 2.3850	53.5474
 2.3840	53.8549
 2.3830	54.1507
 2.3820	54.4759
 2.3810	54.7920
 2.3800	55.0678
 2.3790	55.3154
 2.3780	55.5575
 2.3770	55.7789
 2.3760	56.0063
 2.3750	56.2199
 2.3740	56.3906
 2.3730	56.6436
 2.3720	56.9595
 2.3710	57.2424
 2.3700	57.3982
 2.3690	57.6104
 2.3680	57.8243
 2.3670	57.9891
 2.3660	58.2068
 2.3650	58.3855
 2.3640	58.5528
 2.3630	58.6865
 2.3620	58.8464
 2.3610	59.1002
 2.3600	59.2713
 2.3590	59.3385
 2.3580	59.4557
 2.3570	59.6278
 2.3560	59.8254
 2.3550	59.9189
 2.3540	59.9595
 2.3530	60.1033
 2.3520	60.2289
 2.3510	60.3336
 2.3500	60.4160
 2.3490	60.5598
 2.3480	60.6534
 2.3470	60.6994
 2.3460	60.7472
 2.3450	60.8428
 2.3440	60.8853
 2.3430	60.9458
 2.3420	61.0225
 2.3410	61.0463
 2.3400	61.0224
 2.3390	61.0286
 2.3380	61.0932
 2.3370	61.1227
 2.3360	61.0780
 2.3350	61.0608
 2.3340	61.0703
 2.3330	61.0384
 2.3320	61.0385
 2.3310	61.0215
 2.3300	60.9259
 2.3290	60.8552
 2.3280	60.7865
 2.3270	60.6885
 2.3260	60.6110
 2.3250	60.4905
 2.3240	60.3437
 2.3230	60.2838
 2.3220	60.1286
 2.3210	59.9424
 2.3200	59.7552
 2.3190	59.6007
 2.3180	59.4319
 2.3170	59.2693
 2.3160	58.9489
 2.3150	58.7520
 2.3140	58.5166
 2.3130	58.2232
 2.3120	57.9881
 2.3110	57.7865
 2.3100	57.5375
 2.3090	57.2366
 2.3080	56.9829
 2.3070	56.7688
 2.3060	56.5379
 2.3050	56.3155
 2.3040	56.0978
 2.3030	55.8792
 2.3020	55.6945
 2.3010	55.5155
 2.3000	55.2894
 2.2990	55.1610
 2.2980	55.0153
 2.2970	54.8396
 2.2960	54.6764
 2.2950	54.4642
 2.2940	54.2571
 2.2930	54.1065
 2.2920	53.8272
 2.2910	53.5814
 2.2900	53.2746
 2.2890	53.0045
 2.2880	52.6327
 2.2870	52.3032
 2.2860	51.9533
 2.2850	51.5983
 2.2840	51.2556
 2.2830	50.8660
 2.2820	50.4515
 2.2810	50.0642
 2.2800	49.6384
 2.2790	49.3849
 2.2780	48.9653
 2.2770	48.6244
 2.2760	48.3136
 2.2750	47.9433
 2.2740	47.6610
 2.2730	47.4439
 2.2720	47.2564
 2.2710	47.1292
 2.2700	46.8656
 2.2690	46.8066
 2.2680	46.7174
 2.2670	46.6336
 2.2660	46.6180
 2.2650	46.7368
 2.2640	46.8155
 2.2630	46.9224
 2.2620	46.9666
 2.2610	47.1633
 2.2600	47.3974
 2.2590	47.7511
 2.2580	47.9490
 2.2570	48.3236
 2.2560	48.6116
 2.2550	49.0524
 2.2540	49.4901
 2.2530	49.8515
 2.2520	50.2261
 2.2510	50.6813
 2.2500	51.0736
 2.2490	51.4004
 2.2480	51.7275
 2.2470	52.1193
 2.2460	52.3503
 2.2450	52.6707
 2.2440	52.9428
 2.2430	53.1926
 2.2420	53.3653
 2.2410	53.5484
 2.2400	53.6967
 2.2390	53.8881
 2.2380	53.9115
 2.2370	54.1091
 2.2360	54.1773
 2.2350	54.3161
 2.2340	54.3591
 2.2330	54.4832
 2.2320	54.4842
 2.2310	54.5445
 2.2300	54.7348
 2.2290	54.7799
 2.2280	54.8186
 2.2270	54.9608
 2.2260	54.9940
 2.2250	55.1450
 2.2240	55.1548
 2.2230	55.4128
 2.2220	55.4666
 2.2210	55.6047
 2.2200	55.8021
 2.2190	55.9222
 2.2180	56.1056
 2.2170	56.2283
 2.2160	56.3458
 2.2150	56.4810
 2.2140	56.6713
 2.2130	56.8930
 2.2120	57.1197
 2.2110	57.1155
 2.2100	57.3906
 2.2090	57.5679
 2.2080	57.6388
 2.2070	57.9278
 2.2060	57.9522
 2.2050	58.2276
 2.2040	58.3080
 2.2030	58.4514
 2.2020	58.7152
 2.2010	58.8482
 2.2000	59.0419
 2.1990	59.1995
 2.1980	59.2763
 2.1970	59.3994
 2.1960	59.5541
 2.1950	59.6417
 2.1940	59.8861
 2.1930	59.9641
 2.1920	60.1499
 2.1910	60.3472
 2.1900	60.3258
 2.1890	60.4886
 2.1880	60.6397
 2.1870	60.8101
 2.1860	60.9373
 2.1850	61.0961
 2.1840	61.2778
 2.1830	61.3222
 2.1820	61.3972
 2.1810	61.5929
 2.1800	61.6241
 2.1790	61.7651
 2.1780	61.8527
 2.1770	61.9683
 2.1760	62.0048
 2.1750	62.1184
 2.1740	62.2292
 2.1730	62.3253
 2.1720	62.4230
 2.1710	62.4484
 2.1700	62.5861
 2.1690	62.6475
 2.1680	62.7434
 2.1670	62.7957
 2.1660	62.8365
 2.1650	62.8613
 2.1640	62.9860
 2.1630	63.0655
 2.1620	63.1277
 2.1610	63.1932
 2.1600	63.1940
 2.1590	63.2787
 2.1580	63.3427
 2.1570	63.4723
 2.1560	63.5183
 2.1550	63.5914
 2.1540	63.6552
 2.1530	63.7114
 2.1520	63.7763
 2.1510	63.8860
 2.1500	63.9200
 2.1490	64.0380
 2.1480	64.0650
 2.1470	64.1964
 2.1460	64.2270
 2.1450	64.2747
 2.1440	64.2652
 2.1430	64.3803
 2.1420	64.4356
 2.1410	64.5097
 2.1400	64.5367
 2.1390	64.5986
 2.1380	64.5797
 2.1370	64.6504
 2.1360	64.7842
 2.1350	64.7708
 2.1340	64.7620
 2.1330	64.8188
 2.1320	64.8799
 2.1310	64.8876
 2.1300	64.9943
 2.1290	65.0173
 2.1280	65.0447
 2.1270	65.0661
 2.1260	65.0300
 2.1250	65.0388
 2.1240	65.0926
 2.1230	65.1216
 2.1220	65.0922
 2.1210	65.1503
 2.1200	65.1147
 2.1190	65.1307
 2.1180	65.1803
 2.1170	65.2357
 2.1160	65.2491
 2.1150	65.2264
 2.1140	65.2187
 2.1130	65.2349
 2.1120	65.2329
 2.1110	65.2445
 2.1100	65.2531
 2.1090	65.2989
 2.1080	65.2040
 2.1070	65.2465
 2.1060	65.3206
 2.1050	65.3009
 2.1040	65.3072
 2.1030	65.3662
 2.1020	65.4502
 2.1010	65.4450
 2.1000	65.3560
 2.0990	65.4099
 2.0980	65.4485
 2.0970	65.5061
 2.0960	65.6008
 2.0950	65.6906
 2.0940	65.6404
 2.0930	65.6695
 2.0920	65.6956
 2.0910	65.7236
 2.0900	65.8412
 2.0890	65.8862
 2.0880	65.8294
 2.0870	65.9067
 2.0860	65.9868
 2.0850	66.0219
 2.0840	66.0430
 2.0830	66.0575
 2.0820	66.0894
 2.0810	66.1577
 2.0800	66.2193
 2.0790	66.2340
 2.0780	66.2321
 2.0770	66.2833
 2.0760	66.3810
 2.0750	66.4354
 2.0740	66.4261
 2.0730	66.4856
 2.0720	66.5956
 2.0710	66.6251
 2.0700	66.6547
 2.0690	66.7444
 2.0680	66.7629
 2.0670	66.7941
 2.0660	66.8448
 2.0650	66.8832
 2.0640	66.9419
 2.0630	66.9667
 2.0620	67.0434
 2.0610	67.1011
 2.0600	67.1479
 2.0590	67.2140
 2.0580	67.2471
 2.0570	67.2879
 2.0560	67.3496
 2.0550	67.4120
 2.0540	67.4720
 2.0530	67.4807
 2.0520	67.5154
 2.0510	67.5691
 2.0500	67.6487
 2.0490	67.6865
 2.0480	67.7310
 2.0470	67.8246
 2.0460	67.8643
 2.0450	67.9047
 2.0440	67.9344
 2.0430	67.9598
 2.0420	67.9905
 2.0410	68.0299
 2.0400	68.1483
 2.0390	68.2193
 2.0380	68.2194
 2.0370	68.2795
 2.0360	68.3500
 2.0350	68.4464
 2.0340	68.4705
 2.0330	68.5454
 2.0320	68.6567
 2.0310	68.7208
 2.0300	68.7796
 2.0290	68.8001
 2.0280	68.8626
 2.0270	68.9051
 2.0260	68.9549
 2.0250	69.0154
 2.0240	68.9877
 2.0230	68.9612
 2.0220	69.0608
 2.0210	69.0838
 2.0200	69.0362
 2.0190	69.0704
 2.0180	69.1426
 2.0170	69.1412
 2.0160	69.1580
 2.0150	69.1830
 2.0140	69.1647
 2.0130	69.1345
 2.0120	69.1350
 2.0110	69.2418
 2.0100	69.1881
 2.0090	69.2629
 2.0080	69.2921
 2.0070	69.2406
 2.0060	69.2662
 2.0050	69.2958
 2.0040	69.3806
 2.0030	69.2973
 2.0020	69.3273
 2.0010	69.3047
 2.0000	69.3583
 1.9990	69.4304
 1.9980	69.4212
 1.9970	69.3785
 1.9960	69.4498
 1.9950	69.4624
 1.9940	69.5847
 1.9930	69.5685
 1.9920	69.5643
 1.9910	69.6318
 1.9900	69.7407
 1.9890	69.7468
 1.9880	69.7578
 1.9870	69.7386
 1.9860	69.8068
 1.9850	69.8468
 1.9840	69.7983
 1.9830	69.7968
 1.9820	69.8388
 1.9810	69.9406
 1.9800	69.9255
 1.9790	69.9477
 1.9780	69.9528
 1.9770	69.9309
 1.9760	69.9709
 1.9750	69.8483
 1.9740	70.0271
 1.9730	69.9251
 1.9720	69.9270
 1.9710	69.9776
 1.9700	70.0725
 1.9690	70.0764
 1.9680	70.0754
 1.9670	70.0467
 1.9660	70.0338
 1.9650	69.9433
 1.9640	70.0870
 1.9630	70.0712
 1.9620	70.1041
 1.9610	70.1383
 1.9600	70.1394
 1.9590	70.1568
 1.9580	70.2348
 1.9570	70.1984
 1.9560	70.2587
 1.9550	70.2584
 1.9540	70.2479
 1.9530	70.2637
 1.9520	70.3231
 1.9510	70.2760
 1.9500	70.3465
 1.9490	70.3277
 1.9480	70.4868
 1.9470	70.3576
 1.9460	70.4612
 1.9450	70.4387
 1.9440	70.5731
 1.9430	70.4589
 1.9420	70.5078
 1.9410	70.5089
 1.9400	70.6625
 1.9390	70.5821
 1.9380	70.6890
 1.9370	70.7353
 1.9360	70.8218
 1.9350	70.7226
 1.9340	70.8924
 1.9330	70.8486
 1.9320	70.9074
 1.9310	71.0584
 1.9300	71.1203
 1.9290	71.1786
 1.9280	71.2331
 1.9270	71.3308
 1.9260	71.3687
 1.9250	71.5359
 1.9240	71.5149
 1.9230	71.6890
 1.9220	71.7973
 1.9210	71.8763
 1.9200	71.9833
 1.9190	72.0792
 1.9180	72.1930
 1.9170	72.2175
 1.9160	72.3031
 1.9150	72.4673
 1.9140	72.6161
 1.9130	72.6620
 1.9120	72.7127
 1.9110	72.7860
 1.9100	72.9249
 1.9090	73.0043
 1.9080	73.0299
 1.9070	73.1135
 1.9060	73.2507
 1.9050	73.3283
 1.9040	73.4576
 1.9030	73.5220
 1.9020	73.5743
 1.9010	73.7094
 1.9000	73.8162
 1.8990	73.8794
 1.8980	73.9092
 1.8970	73.9265
 1.8960	74.0352
 1.8950	74.0926
 1.8940	74.1055
 1.8930	74.0496
 1.8920	74.0772
 1.8910	74.0914
 1.8900	74.1382
 1.8890	74.0548
 1.8880	74.1407
 1.8870	74.0695
 1.8860	74.0778
 1.8850	73.9839
 1.8840	73.8774
 1.8830	73.7913
 1.8820	73.7271
 1.8810	73.5949
 1.8800	73.5282
 1.8790	73.4061
 1.8780	73.2072
 1.8770	73.0457
 1.8760	72.8230
 1.8750	72.5676
 1.8740	72.3113
 1.8730	71.9323
 1.8720	71.4858
 1.8710	71.0350
 1.8700	70.6161
 1.8690	70.1837
 1.8680	69.7044
 1.8670	69.2672
 1.8660	68.9362
 1.8650	68.6008
 1.8640	68.3004
 1.8630	68.0486
 1.8620	67.8997
 1.8610	67.7115
 1.8600	67.5378
 1.8590	67.3641
 1.8580	67.2977
 1.8570	67.2677
 1.8560	67.1561
 1.8550	66.9520
 1.8540	66.8823
 1.8530	66.7307
 1.8520	66.4718
 1.8510	66.2592
 1.8500	66.0803
 1.8490	65.9147
 1.8480	65.7830
 1.8470	65.6889
 1.8460	65.7721
 1.8450	65.8052
 1.8440	65.9620
 1.8430	66.1926
 1.8420	66.5344
 1.8410	66.9281
 1.8400	67.3818
 1.8390	67.8117
 1.8380	68.3552
 1.8370	68.9047
 1.8360	69.3707
 1.8350	69.8908
 1.8340	70.3683
 1.8330	70.8336
 1.8320	71.2475
 1.8310	71.6402
 1.8300	71.9852
 1.8290	72.3244
 1.8280	72.7076
 1.8270	72.9160
 1.8260	73.1207
 1.8250	73.3605
 1.8240	73.5686
 1.8230	73.7407
 1.8220	73.8975
 1.8210	73.9466
 1.8200	74.0554
 1.8190	74.1500
 1.8180	74.3128
 1.8170	74.3858
 1.8160	74.5157
 1.8150	74.6020
 1.8140	74.7069
 1.8130	74.8004
 1.8120	74.9364
 1.8110	75.0578
 1.8100	75.1693
 1.8090	75.2556
 1.8080	75.2968
 1.8070	75.4031
 1.8060	75.5721
 1.8050	75.6332
 1.8040	75.6231
 1.8030	75.7703
 1.8020	75.9478
 1.8010	75.9918
 1.8000	75.9889
 1.7990	75.9996
 1.7980	76.0722
 1.7970	76.1221
 1.7960	76.1731
 1.7950	76.1798
 1.7940	76.1860
 1.7930	76.2509
 1.7920	76.2926
 1.7910	76.3238
 1.7900	76.3191
 1.7890	76.3408
 1.7880	76.4168
 1.7870	76.4184
 1.7860	76.4599
 1.7850	76.5047
 1.7840	76.4875
 1.7830	76.5012
 1.7820	76.5767
 1.7810	76.6151
 1.7800	76.6107
 1.7790	76.6050
 1.7780	76.5903
 1.7770	76.6172
 1.7760	76.6833
 1.7750	76.7565
 1.7740	76.7418
 1.7730	76.7275
 1.7720	76.7344
 1.7710	76.7929
 1.7700	76.8087
 1.7690	76.8102
 1.7680	76.8629
 1.7670	76.9072
 1.7660	76.9059
 1.7650	76.9086
 1.7640	76.8960
 1.7630	76.9850
 1.7620	77.0453
 1.7610	77.0636
 1.7600	77.0546
 1.7590	77.1106
 1.7580	77.1657
 1.7570	77.2316
 1.7560	77.2256
 1.7550	77.2305
 1.7540	77.3011
 1.7530	77.3438
 1.7520	77.4034
 1.7510	77.3786
 1.7500	77.3713
 1.7490	77.4378
 1.7480	77.4649
 1.7470	77.5145
 1.7460	77.5034
 1.7450	77.5585
 1.7440	77.6000
 1.7430	77.5903
 1.7420	77.6759
 1.7410	77.6827
 1.7400	77.6499
 1.7390	77.7149
 1.7380	77.8362
 1.7370	77.7809
 1.7360	77.7624
 1.7350	77.8805
 1.7340	77.8464
 1.7330	77.8873
 1.7320	77.9555
 1.7310	77.9188
 1.7300	77.9200
 1.7290	77.9593
 1.7280	78.0034
 1.7270	77.9950
 1.7260	78.0151
 1.7250	77.9711
 1.7240	78.0172
 1.7230	78.0125
 1.7220	77.9634
 1.7210	78.0632
 1.7200	78.0708
 1.7190	78.1218
 1.7180	78.1279
 1.7170	78.0999
 1.7160	78.0468
 1.7150	78.0810
 1.7140	78.0123
 1.7130	78.1244
 1.7120	78.0959
 1.7110	78.1623
 1.7100	78.1492
 1.7090	78.1090
 1.7080	78.0419
 1.7070	78.0832
 1.7060	78.0613
 1.7050	78.0981
 1.7040	78.0386
 1.7030	78.0185
 1.7020	78.0606
 1.7010	78.0710
 1.7000	78.0837
 1.6990	78.1011
 1.6980	78.0046
 1.6970	78.0022
 1.6960	78.0049
 1.6950	78.0576
 1.6940	78.0650
 1.6930	78.0255
 1.6920	77.9648
 1.6910	77.9783
 1.6900	77.9654
 1.6890	78.0194
 1.6880	77.8958
 1.6870	77.9098
 1.6860	77.8506
 1.6850	77.8618
 1.6840	77.8623
 1.6830	77.9010
 1.6820	77.8847
 1.6810	77.9155
 1.6800	77.8609
 1.6790	77.8547
 1.6780	77.8063
 1.6770	77.8897
 1.6760	77.8585
 1.6750	77.7812
 1.6740	77.7118
 1.6730	77.6929
 1.6720	77.7401
 1.6710	77.6841
 1.6700	77.7815
 1.6690	77.7870
 1.6680	77.6527
 1.6670	77.7411
 1.6660	77.7115
 1.6650	77.7450
 1.6640	77.7203
 1.6630	77.7415
 1.6620	77.7105
 1.6610	77.6626
 1.6600	77.6968
 1.6590	77.7549
 1.6580	77.6430
 1.6570	77.7743
 1.6560	77.6632
 1.6550	77.7097
 1.6540	77.6729
 1.6530	77.6343
 1.6520	77.5628
 1.6510	77.5763
 1.6500	77.5227
 1.6490	77.6749
 1.6480	77.5143
 1.6470	77.5936
 1.6460	77.6386
 1.6450	77.5819
 1.6440	77.4667
 1.6430	77.6346
 1.6420	77.6324
 1.6410	77.4738
 1.6400	77.5336
 1.6390	77.6095
 1.6380	77.4644
 1.6370	77.4354
 1.6360	77.4655
 1.6350	77.6106
 1.6340	77.4504
 1.6330	77.3857
 1.6320	77.5252
 1.6310	77.4312
 1.6300	77.3876
 1.6290	77.3888
 1.6280	77.3763
 1.6270	77.4009
 1.6260	77.3682
 1.6250	77.2947
 1.6240	77.3242
 1.6230	77.3225
 1.6220	77.2341
 1.6210	77.2779
 1.6200	77.2289
 1.6190	77.2434
 1.6180	77.1696
 1.6170	77.1473
 1.6160	77.1527
 1.6150	77.1949
 1.6140	77.0956
 1.6130	77.0951
 1.6120	77.0686
 1.6110	77.1203
 1.6100	77.0487
 1.6090	76.9819
 1.6080	77.0202
 1.6070	76.9990
 1.6060	77.0289
 1.6050	77.0001
 1.6040	76.9293
 1.6030	76.8935
 1.6020	76.8507
 1.6010	76.7829
 1.6000	76.7740
 1.5990	76.7913
 1.5980	76.7704
 1.5970	76.7199
 1.5960	76.6433
 1.5950	76.6002
 1.5940	76.6504
 1.5930	76.5651
 1.5920	76.5103
 1.5910	76.5009
 1.5900	76.4517
 1.5890	76.4119
 1.5880	76.3126
 1.5870	76.2560
 1.5860	76.2779
 1.5850	76.2154
 1.5840	76.0720
 1.5830	76.0670
 1.5820	75.9762
 1.5810	75.9762
 1.5800	75.8799
 1.5790	75.8663
 1.5780	75.7255
 1.5770	75.6808
 1.5760	75.6635
 1.5750	75.5287
 1.5740	75.5209
 1.5730	75.4493
 1.5720	75.4015
 1.5710	75.3154
 1.5700	75.2116
 1.5690	75.1591
 1.5680	75.1390
 1.5670	75.1197
 1.5660	75.0232
 1.5650	74.9629
 1.5640	74.9510
 1.5630	74.9371
 1.5620	74.8422
 1.5610	74.6752
 1.5600	74.6638
 1.5590	74.6498
 1.5580	74.5122
 1.5570	74.4056
 1.5560	74.3567
 1.5550	74.3144
 1.5540	74.2688
 1.5530	74.2333
 1.5520	74.1375
 1.5510	74.0864
 1.5500	74.0692
 1.5490	74.0179
 1.5480	74.0064
 1.5470	73.9838
 1.5460	73.9462
 1.5450	73.9417
 1.5440	73.9275
 1.5430	73.9186
 1.5420	73.8903
 1.5410	73.8538
 1.5400	73.8460
 1.5390	73.8280
 1.5380	73.8652
 1.5370	73.8184
 1.5360	73.8570
 1.5350	73.8697
 1.5340	73.7934
 1.5330	73.8036
 1.5320	73.8290
 1.5310	73.8961
 1.5300	73.8676
 1.5290	73.9012
 1.5280	73.9289
 1.5270	73.9739
 1.5260	73.9556
 1.5250	73.9217
 1.5240	73.9569
 1.5230	73.9955
 1.5220	74.0572
 1.5210	74.1246
 1.5200	74.1071
 1.5190	74.1036
 1.5180	74.1175
 1.5170	74.1772
 1.5160	74.1589
 1.5150	74.1639
 1.5140	74.2105
 1.5130	74.2357
 1.5120	74.2744
 1.5110	74.2785
 1.5100	74.2832
 1.5090	74.3383
 1.5080	74.3775
 1.5070	74.3768
 1.5060	74.3424
 1.5050	74.3186
 1.5040	74.2721
 1.5030	74.2016
 1.5020	74.2072
 1.5010	74.1866
 1.5000	74.1013
 1.4990	74.0741
 1.4980	73.9727
 1.4970	73.8218
 1.4960	73.8012
 1.4950	73.7195
 1.4940	73.5859
 1.4930	73.3933
 1.4920	73.1936
 1.4910	72.9893
 1.4900	72.6304
 1.4890	72.2293
 1.4880	71.7760
 1.4870	71.2473
 1.4860	70.6434
 1.4850	69.9925
 1.4840	69.3579
 1.4830	68.7517
 1.4820	68.2233
 1.4810	67.7866
 1.4800	67.5498
 1.4790	67.4243
 1.4780	67.2971
 1.4770	67.2211
 1.4760	67.2613
 1.4750	67.4566
 1.4740	67.8115
 1.4730	68.1190
 1.4720	68.5300
 1.4710	68.9044
 1.4700	69.2202
 1.4690	69.6183
 1.4680	69.9868
 1.4670	70.4008
 1.4660	70.8259
 1.4650	71.1534
 1.4640	71.5588
 1.4630	72.0153
 1.4620	72.3533
 1.4610	72.7619
 1.4600	73.1522
 1.4590	73.4614
 1.4580	73.7641
 1.4570	74.0876
 1.4560	74.3434
 1.4550	74.5382
 1.4540	74.7232
 1.4530	74.8444
 1.4520	74.9717
 1.4510	75.1062
 1.4500	75.2591
 1.4490	75.4042
 1.4480	75.4375
 1.4470	75.5138
 1.4460	75.5831
 1.4450	75.7078
 1.4440	75.7069
 1.4430	75.7205
 1.4420	75.8595
 1.4410	75.9053
 1.4400	75.9480
 1.4390	75.9524
 1.4380	76.0021
 1.4370	75.9537
 1.4360	76.0205
 1.4350	76.0182
 1.4340	76.0194
 1.4330	75.9871
 1.4320	76.0738
 1.4310	76.0676
 1.4300	76.1089
 1.4290	76.0686
 1.4280	76.0965
 1.4270	76.0998
 1.4260	76.0934
 1.4250	76.0782
 1.4240	76.0684
 1.4230	76.0740
 1.4220	76.1392
 1.4210	76.0844
 1.4200	76.1187
 1.4190	76.0246
 1.4180	76.0483
 1.4170	75.9988
 1.4160	76.0188
 1.4150	75.9321
 1.4140	75.9016
 1.4130	75.9506
 1.4120	75.9242
 1.4110	75.8926
 1.4100	75.9573
 1.4090	75.7951
 1.4080	75.7851
 1.4070	75.7783
 1.4060	75.7600
 1.4050	75.6570
 1.4040	75.6731
 1.4030	75.5313
 1.4020	75.4416
 1.4010	75.4428
 1.4000	75.2590
 1.3990	75.2054
 1.3980	75.1862
 1.3970	75.1763
 1.3960	75.1560
 1.3950	75.1891
 1.3940	75.1401
 1.3930	75.0839
 1.3920	75.1451
 1.3910	74.9809
 1.3900	74.8807
 1.3890	74.8608
 1.3880	74.8346
 1.3870	74.7321
 1.3860	74.6534
 1.3850	74.4733
 1.3840	74.5099
 1.3830	74.4167
 1.3820	74.3956
 1.3810	74.2280
 1.3800	74.2090
 1.3790	74.1636
 1.3780	74.1275
 1.3770	74.0554
 1.3760	73.9918
 1.3750	73.8867
 1.3740	73.8640
 1.3730	73.7947
 1.3720	73.7585
 1.3710	73.7006
 1.3700	73.6159
 1.3690	73.4948
 1.3680	73.4896
 1.3670	73.3890
