Name: Nontronite Na_0.33Fe_2^3+(Si,Al)_4O_10(OH)_2.H_2O
Type: Mineral
Class: Silicate
Subclass: Phyllosilicate
Particle Size: Fine
Sample No.: PS-6D
Owner: JPL
Wavelength Range: VSWIR
Origin: USA, Washington, Grant County.
Collection Date: N/A
Description: Particle size was 0-45um.Collected by:  Clay Mineral Society Original ASTER Spectral Library name was jpl.perkin.mineral.silicate.phyllosilicate.fine.ps06d.spectrum.txt
Measurement: Hemispherical reflectance
First Column: X
Second Column: Y
X Units: Wavelength (micrometers)
Y Units:Reflectance (percent)
First X Value:  2.5000
Last X Value:  0.4000
Number of X Values: 2101
Additional Information: mineral.silicate.phyllosilicate.fine.vswir.ps-6d.jpl.perkin.ancillary.txt

 2.5000	27.7132
 2.4990	27.6056
 2.4980	27.8431
 2.4970	27.8170
 2.4960	27.7390
 2.4950	27.8713
 2.4940	28.0249
 2.4930	27.8883
 2.4920	28.1701
 2.4910	28.1418
 2.4900	28.4234
 2.4890	28.2718
 2.4880	28.5307
 2.4870	28.6912
 2.4860	28.8086
 2.4850	28.6130
 2.4840	28.9784
 2.4830	28.8582
 2.4820	29.1520
 2.4810	29.1785
 2.4800	29.4351
 2.4790	29.3633
 2.4780	29.5744
 2.4770	29.4742
 2.4760	29.8312
 2.4750	29.7391
 2.4740	29.9804
 2.4730	29.9446
 2.4720	30.1592
 2.4710	30.2080
 2.4700	30.5356
 2.4690	30.4165
 2.4680	30.5851
 2.4670	30.7131
 2.4660	30.8857
 2.4650	30.8658
 2.4640	31.0092
 2.4630	31.2186
 2.4620	31.2663
 2.4610	31.3921
 2.4600	31.6094
 2.4590	31.5458
 2.4580	31.8037
 2.4570	31.7573
 2.4560	31.9112
 2.4550	31.9514
 2.4540	32.1447
 2.4530	32.1918
 2.4520	32.4750
 2.4510	32.4392
 2.4500	32.6946
 2.4490	32.6730
 2.4480	32.9624
 2.4470	32.9307
 2.4460	33.0728
 2.4450	33.0851
 2.4440	33.3977
 2.4430	33.4114
 2.4420	33.4764
 2.4410	33.5740
 2.4400	33.7391
 2.4390	33.8278
 2.4380	33.9606
 2.4370	34.0331
 2.4360	34.1422
 2.4350	34.1538
 2.4340	34.3679
 2.4330	34.4929
 2.4320	34.5423
 2.4310	34.5492
 2.4300	34.8930
 2.4290	34.8646
 2.4280	35.0154
 2.4270	35.0856
 2.4260	35.1141
 2.4250	35.1932
 2.4240	35.3213
 2.4230	35.3431
 2.4220	35.5150
 2.4210	35.5418
 2.4200	35.6968
 2.4190	35.6643
 2.4180	35.7562
 2.4170	35.7852
 2.4160	35.8695
 2.4150	35.9286
 2.4140	36.0306
 2.4130	36.0092
 2.4120	36.1146
 2.4110	36.1337
 2.4100	36.2908
 2.4090	36.3010
 2.4080	36.3778
 2.4070	36.4444
 2.4060	36.5520
 2.4050	36.5109
 2.4040	36.6149
 2.4030	36.6643
 2.4020	36.6709
 2.4010	36.7092
 2.4000	36.7538
 2.3990	36.8162
 2.3980	36.9659
 2.3970	37.0881
 2.3960	37.2047
 2.3950	37.2607
 2.3940	37.3247
 2.3930	37.3585
 2.3920	37.5173
 2.3910	37.5582
 2.3900	37.6806
 2.3890	37.7618
 2.3880	37.9779
 2.3870	38.0717
 2.3860	38.1936
 2.3850	38.3275
 2.3840	38.4786
 2.3830	38.5480
 2.3820	38.7521
 2.3810	38.8814
 2.3800	39.0464
 2.3790	39.2444
 2.3780	39.3919
 2.3770	39.5024
 2.3760	39.6617
 2.3750	39.8008
 2.3740	39.9789
 2.3730	40.1028
 2.3720	40.2961
 2.3710	40.4493
 2.3700	40.5993
 2.3690	40.7301
 2.3680	40.9318
 2.3670	41.0907
 2.3660	41.2739
 2.3650	41.4434
 2.3640	41.6264
 2.3630	41.8023
 2.3620	41.9738
 2.3610	42.1668
 2.3600	42.3437
 2.3590	42.4958
 2.3580	42.6777
 2.3570	42.9011
 2.3560	43.1093
 2.3550	43.2539
 2.3540	43.4190
 2.3530	43.6047
 2.3520	43.7406
 2.3510	43.9517
 2.3500	44.0902
 2.3490	44.2319
 2.3480	44.4093
 2.3470	44.5224
 2.3460	44.6530
 2.3450	44.8209
 2.3440	44.9616
 2.3430	45.1382
 2.3420	45.3052
 2.3410	45.4162
 2.3400	45.5583
 2.3390	45.7000
 2.3380	45.7820
 2.3370	45.9326
 2.3360	46.0791
 2.3350	46.1587
 2.3340	46.1854
 2.3330	46.3679
 2.3320	46.4779
 2.3310	46.5867
 2.3300	46.7011
 2.3290	46.8257
 2.3280	46.9097
 2.3270	47.0061
 2.3260	46.9918
 2.3250	47.0795
 2.3240	47.1969
 2.3230	47.2364
 2.3220	47.1866
 2.3210	47.2334
 2.3200	47.3113
 2.3190	47.4434
 2.3180	47.4843
 2.3170	47.4565
 2.3160	47.4131
 2.3150	47.3795
 2.3140	47.2641
 2.3130	47.2448
 2.3120	47.1310
 2.3110	47.0752
 2.3100	46.9649
 2.3090	46.8636
 2.3080	46.7499
 2.3070	46.6220
 2.3060	46.3935
 2.3050	46.2163
 2.3040	46.0393
 2.3030	45.9142
 2.3020	45.6545
 2.3010	45.5673
 2.3000	45.3874
 2.2990	45.2060
 2.2980	45.0307
 2.2970	44.8812
 2.2960	44.7283
 2.2950	44.6217
 2.2940	44.5031
 2.2930	44.5024
 2.2920	44.3934
 2.2910	44.4772
 2.2900	44.3956
 2.2890	44.4857
 2.2880	44.5691
 2.2870	44.6830
 2.2860	44.7723
 2.2850	44.8992
 2.2840	45.0155
 2.2830	45.2017
 2.2820	45.4492
 2.2810	45.6549
 2.2800	45.8935
 2.2790	46.1632
 2.2780	46.4114
 2.2770	46.6862
 2.2760	46.8403
 2.2750	47.1745
 2.2740	47.4397
 2.2730	47.7551
 2.2720	47.9317
 2.2710	48.1814
 2.2700	48.4240
 2.2690	48.7325
 2.2680	48.8379
 2.2670	49.0295
 2.2660	49.1402
 2.2650	49.3704
 2.2640	49.4803
 2.2630	49.6098
 2.2620	49.5790
 2.2610	49.7671
 2.2600	49.7205
 2.2590	49.8123
 2.2580	49.7612
 2.2570	49.7713
 2.2560	49.6419
 2.2550	49.6599
 2.2540	49.6008
 2.2530	49.4999
 2.2520	49.3084
 2.2510	49.3024
 2.2500	49.1456
 2.2490	49.1402
 2.2480	48.9220
 2.2470	48.9078
 2.2460	48.7453
 2.2450	48.7452
 2.2440	48.6442
 2.2430	48.7044
 2.2420	48.6186
 2.2410	48.6505
 2.2400	48.4674
 2.2390	48.6607
 2.2380	48.6333
 2.2370	48.7602
 2.2360	48.7853
 2.2350	48.9228
 2.2340	48.9440
 2.2330	49.1779
 2.2320	49.2079
 2.2310	49.4079
 2.2300	49.4860
 2.2290	49.7214
 2.2280	49.8293
 2.2270	49.8744
 2.2260	50.1093
 2.2250	50.4191
 2.2240	50.4769
 2.2230	50.6705
 2.2220	50.7319
 2.2210	50.8585
 2.2200	51.0843
 2.2190	51.2022
 2.2180	51.3188
 2.2170	51.4173
 2.2160	51.6010
 2.2150	51.7414
 2.2140	51.7239
 2.2130	51.9245
 2.2120	52.0316
 2.2110	52.1162
 2.2100	52.3070
 2.2090	52.4344
 2.2080	52.5067
 2.2070	52.5500
 2.2060	52.7464
 2.2050	52.8425
 2.2040	52.9015
 2.2030	53.1373
 2.2020	53.1939
 2.2010	53.3657
 2.2000	53.5119
 2.1990	53.6264
 2.1980	53.6883
 2.1970	53.8155
 2.1960	53.9257
 2.1950	54.0709
 2.1940	54.0761
 2.1930	54.3032
 2.1920	54.4003
 2.1910	54.6053
 2.1900	54.6775
 2.1890	54.8203
 2.1880	54.8989
 2.1870	55.0540
 2.1860	55.1097
 2.1850	55.2597
 2.1840	55.3269
 2.1830	55.5559
 2.1820	55.6299
 2.1810	55.7286
 2.1800	55.8896
 2.1790	56.0109
 2.1780	56.0136
 2.1770	56.1944
 2.1760	56.2189
 2.1750	56.4085
 2.1740	56.4761
 2.1730	56.5551
 2.1720	56.6526
 2.1710	56.7829
 2.1700	56.8202
 2.1690	56.9786
 2.1680	56.9603
 2.1670	57.0800
 2.1660	57.1124
 2.1650	57.2236
 2.1640	57.2503
 2.1630	57.3440
 2.1620	57.3013
 2.1610	57.3712
 2.1600	57.4105
 2.1590	57.5588
 2.1580	57.5379
 2.1570	57.4937
 2.1560	57.5046
 2.1550	57.5715
 2.1540	57.5471
 2.1530	57.6626
 2.1520	57.6634
 2.1510	57.5925
 2.1500	57.5849
 2.1490	57.5426
 2.1480	57.5205
 2.1470	57.5126
 2.1460	57.4098
 2.1450	57.4957
 2.1440	57.4135
 2.1430	57.3686
 2.1420	57.3017
 2.1410	57.3116
 2.1400	57.2358
 2.1390	57.2082
 2.1380	57.1829
 2.1370	57.2033
 2.1360	57.1565
 2.1350	57.0476
 2.1340	56.9875
 2.1330	56.9377
 2.1320	56.8800
 2.1310	56.8620
 2.1300	56.7736
 2.1290	56.6949
 2.1280	56.5871
 2.1270	56.5657
 2.1260	56.4720
 2.1250	56.4622
 2.1240	56.3178
 2.1230	56.2540
 2.1220	56.1577
 2.1210	56.0343
 2.1200	56.0373
 2.1190	55.9884
 2.1180	55.8469
 2.1170	55.8082
 2.1160	55.7317
 2.1150	55.6251
 2.1140	55.5390
 2.1130	55.4527
 2.1120	55.4507
 2.1110	55.3443
 2.1100	55.1973
 2.1090	55.1401
 2.1080	55.0480
 2.1070	54.9910
 2.1060	54.9409
 2.1050	54.8752
 2.1040	54.8231
 2.1030	54.8041
 2.1020	54.6667
 2.1010	54.5652
 2.1000	54.4681
 2.0990	54.5158
 2.0980	54.4925
 2.0970	54.4101
 2.0960	54.3513
 2.0950	54.3132
 2.0940	54.2746
 2.0930	54.2270
 2.0920	54.1869
 2.0910	54.2270
 2.0900	54.1386
 2.0890	54.0071
 2.0880	54.0270
 2.0870	54.0106
 2.0860	53.9421
 2.0850	53.8925
 2.0840	53.8441
 2.0830	53.8491
 2.0820	53.8167
 2.0810	53.7448
 2.0800	53.6873
 2.0790	53.6668
 2.0780	53.5984
 2.0770	53.5322
 2.0760	53.4421
 2.0750	53.3767
 2.0740	53.3613
 2.0730	53.3767
 2.0720	53.3430
 2.0710	53.3002
 2.0700	53.2339
 2.0690	53.1555
 2.0680	53.1287
 2.0670	53.0835
 2.0660	52.9967
 2.0650	52.9382
 2.0640	52.8816
 2.0630	52.7286
 2.0620	52.6449
 2.0610	52.6485
 2.0600	52.5172
 2.0590	52.3646
 2.0580	52.3262
 2.0570	52.2736
 2.0560	52.1619
 2.0550	52.0674
 2.0540	52.0103
 2.0530	51.8473
 2.0520	51.8448
 2.0510	51.8024
 2.0500	51.7035
 2.0490	51.5752
 2.0480	51.4914
 2.0470	51.3542
 2.0460	51.2596
 2.0450	51.2252
 2.0440	51.1352
 2.0430	50.9722
 2.0420	50.8769
 2.0410	50.7851
 2.0400	50.6738
 2.0390	50.4888
 2.0380	50.4264
 2.0370	50.2977
 2.0360	50.1806
 2.0350	50.0113
 2.0340	49.8688
 2.0330	49.7511
 2.0320	49.6942
 2.0310	49.5184
 2.0300	49.3805
 2.0290	49.1621
 2.0280	49.0504
 2.0270	48.9171
 2.0260	48.7985
 2.0250	48.6096
 2.0240	48.4783
 2.0230	48.2843
 2.0220	48.1314
 2.0210	47.9400
 2.0200	47.8159
 2.0190	47.6936
 2.0180	47.5727
 2.0170	47.3681
 2.0160	47.2324
 2.0150	47.0074
 2.0140	46.9330
 2.0130	46.7596
 2.0120	46.5695
 2.0110	46.3793
 2.0100	46.2416
 2.0090	46.0076
 2.0080	45.9149
 2.0070	45.6239
 2.0060	45.5130
 2.0050	45.2896
 2.0040	45.1596
 2.0030	45.0362
 2.0020	44.8846
 2.0010	44.6169
 2.0000	44.4504
 1.9990	44.2772
 1.9980	44.0878
 1.9970	43.8910
 1.9960	43.7639
 1.9950	43.5594
 1.9940	43.3588
 1.9930	43.1978
 1.9920	43.0353
 1.9910	42.7610
 1.9900	42.6366
 1.9890	42.4200
 1.9880	42.2469
 1.9870	42.0582
 1.9860	41.9344
 1.9850	41.8136
 1.9840	41.6583
 1.9830	41.3998
 1.9820	41.2090
 1.9810	40.9879
 1.9800	40.9527
 1.9790	40.6857
 1.9780	40.6474
 1.9770	40.3729
 1.9760	40.2889
 1.9750	40.0894
 1.9740	39.9977
 1.9730	39.8274
 1.9720	39.7653
 1.9710	39.5277
 1.9700	39.4239
 1.9690	39.1746
 1.9680	39.1507
 1.9670	39.0031
 1.9660	38.8764
 1.9650	38.7156
 1.9640	38.6513
 1.9630	38.4678
 1.9620	38.3336
 1.9610	38.2231
 1.9600	38.2094
 1.9590	38.0184
 1.9580	37.9979
 1.9570	37.7126
 1.9560	37.6391
 1.9550	37.4667
 1.9540	37.3535
 1.9530	37.2743
 1.9520	37.2490
 1.9510	37.0157
 1.9500	36.9646
 1.9490	36.8187
 1.9480	36.7699
 1.9470	36.5680
 1.9460	36.5559
 1.9450	36.3374
 1.9440	36.2981
 1.9430	36.1676
 1.9420	36.0351
 1.9410	35.8773
 1.9400	35.7652
 1.9390	35.5861
 1.9380	35.5163
 1.9370	35.2748
 1.9360	35.1871
 1.9350	35.0260
 1.9340	34.8831
 1.9330	34.6813
 1.9320	34.5650
 1.9310	34.2021
 1.9300	34.1398
 1.9290	33.8312
 1.9280	33.7614
 1.9270	33.4070
 1.9260	33.1233
 1.9250	32.9157
 1.9240	32.5980
 1.9230	32.2544
 1.9220	31.9864
 1.9210	31.7613
 1.9200	31.5114
 1.9190	31.1429
 1.9180	30.7827
 1.9170	30.3413
 1.9160	30.2379
 1.9150	29.7523
 1.9140	29.5598
 1.9130	29.2104
 1.9120	29.0752
 1.9110	28.7697
 1.9100	28.7131
 1.9090	28.4226
 1.9080	28.5183
 1.9070	28.4272
 1.9060	28.6918
 1.9050	28.8532
 1.9040	29.1862
 1.9030	29.6874
 1.9020	30.4204
 1.9010	31.0623
 1.9000	31.9859
 1.8990	32.7885
 1.8980	33.8943
 1.8970	34.9331
 1.8960	36.1182
 1.8950	37.2886
 1.8940	38.5693
 1.8930	39.7626
 1.8920	41.0743
 1.8910	42.2407
 1.8900	43.4743
 1.8890	44.6524
 1.8880	45.8958
 1.8870	47.0286
 1.8860	48.2082
 1.8850	49.1269
 1.8840	50.1023
 1.8830	50.9719
 1.8820	52.1000
 1.8810	52.9007
 1.8800	53.7362
 1.8790	54.3798
 1.8780	55.0424
 1.8770	55.6528
 1.8760	56.4230
 1.8750	57.0269
 1.8740	57.6233
 1.8730	58.2393
 1.8720	58.9295
 1.8710	59.4874
 1.8700	60.0774
 1.8690	60.4900
 1.8680	61.0743
 1.8670	61.4907
 1.8660	61.8489
 1.8650	62.1409
 1.8640	62.4978
 1.8630	62.7899
 1.8620	63.1302
 1.8610	63.3199
 1.8600	63.5477
 1.8590	63.7717
 1.8580	64.0363
 1.8570	64.2717
 1.8560	64.4287
 1.8550	64.5812
 1.8540	64.6702
 1.8530	64.8118
 1.8520	65.0247
 1.8510	65.0565
 1.8500	65.1827
 1.8490	65.3736
 1.8480	65.5081
 1.8470	65.5674
 1.8460	65.6917
 1.8450	65.7505
 1.8440	65.7845
 1.8430	65.8569
 1.8420	65.9214
 1.8410	66.0189
 1.8400	66.0950
 1.8390	66.1033
 1.8380	66.2196
 1.8370	66.2245
 1.8360	66.2297
 1.8350	66.2749
 1.8340	66.3385
 1.8330	66.3187
 1.8320	66.4347
 1.8310	66.4002
 1.8300	66.4421
 1.8290	66.4302
 1.8280	66.5121
 1.8270	66.5757
 1.8260	66.5386
 1.8250	66.5445
 1.8240	66.5571
 1.8230	66.5901
 1.8220	66.6531
 1.8210	66.6414
 1.8200	66.6927
 1.8190	66.6872
 1.8180	66.6038
 1.8170	66.6610
 1.8160	66.7189
 1.8150	66.6388
 1.8140	66.7188
 1.8130	66.7872
 1.8120	66.7483
 1.8110	66.6857
 1.8100	66.7183
 1.8090	66.7629
 1.8080	66.7657
 1.8070	66.7555
 1.8060	66.7472
 1.8050	66.7565
 1.8040	66.7722
 1.8030	66.7273
 1.8020	66.7535
 1.8010	66.8332
 1.8000	66.8421
 1.7990	66.8162
 1.7980	66.7852
 1.7970	66.8097
 1.7960	66.8390
 1.7950	66.8832
 1.7940	66.8405
 1.7930	66.8501
 1.7920	66.9099
 1.7910	66.8755
 1.7900	66.9016
 1.7890	66.9886
 1.7880	67.0460
 1.7870	67.0357
 1.7860	67.0007
 1.7850	67.0213
 1.7840	67.0844
 1.7830	67.0710
 1.7820	67.0761
 1.7810	67.1651
 1.7800	67.1546
 1.7790	67.0992
 1.7780	67.1512
 1.7770	67.2697
 1.7760	67.3022
 1.7750	67.2864
 1.7740	67.3281
 1.7730	67.4054
 1.7720	67.4573
 1.7710	67.5434
 1.7700	67.5312
 1.7690	67.5071
 1.7680	67.5390
 1.7670	67.6281
 1.7660	67.6949
 1.7650	67.7580
 1.7640	67.7629
 1.7630	67.7966
 1.7620	67.8202
 1.7610	67.8168
 1.7600	67.8964
 1.7590	68.0561
 1.7580	68.0602
 1.7570	68.0418
 1.7560	68.0583
 1.7550	68.1520
 1.7540	68.1798
 1.7530	68.2381
 1.7520	68.2613
 1.7510	68.3554
 1.7500	68.4245
 1.7490	68.3611
 1.7480	68.3574
 1.7470	68.4327
 1.7460	68.5065
 1.7450	68.6112
 1.7440	68.6362
 1.7430	68.6876
 1.7420	68.7096
 1.7410	68.7257
 1.7400	68.7648
 1.7390	68.8169
 1.7380	68.8192
 1.7370	68.8915
 1.7360	68.8988
 1.7350	68.9426
 1.7340	68.9659
 1.7330	69.0104
 1.7320	68.9809
 1.7310	69.0593
 1.7300	69.1211
 1.7290	69.1413
 1.7280	69.1360
 1.7270	69.1714
 1.7260	69.1855
 1.7250	69.1934
 1.7240	69.2341
 1.7230	69.3406
 1.7220	69.3029
 1.7210	69.2767
 1.7200	69.2962
 1.7190	69.3389
 1.7180	69.3906
 1.7170	69.4516
 1.7160	69.4237
 1.7150	69.4541
 1.7140	69.4375
 1.7130	69.4449
 1.7120	69.4519
 1.7110	69.4864
 1.7100	69.5438
 1.7090	69.5138
 1.7080	69.4627
 1.7070	69.4998
 1.7060	69.5440
 1.7050	69.5171
 1.7040	69.5419
 1.7030	69.6243
 1.7020	69.5750
 1.7010	69.6349
 1.7000	69.5955
 1.6990	69.6728
 1.6980	69.6241
 1.6970	69.6030
 1.6960	69.5636
 1.6950	69.7236
 1.6940	69.6819
 1.6930	69.6547
 1.6920	69.6082
 1.6910	69.6587
 1.6900	69.6504
 1.6890	69.6271
 1.6880	69.6024
 1.6870	69.6877
 1.6860	69.6057
 1.6850	69.7097
 1.6840	69.6345
 1.6830	69.6938
 1.6820	69.6314
 1.6810	69.7500
 1.6800	69.6963
 1.6790	69.6716
 1.6780	69.6850
 1.6770	69.7181
 1.6760	69.6929
 1.6750	69.6659
 1.6740	69.7014
 1.6730	69.6530
 1.6720	69.6387
 1.6710	69.6694
 1.6700	69.6156
 1.6690	69.6096
 1.6680	69.5533
 1.6670	69.6192
 1.6660	69.5104
 1.6650	69.6269
 1.6640	69.5080
 1.6630	69.5469
 1.6620	69.4641
 1.6610	69.5755
 1.6600	69.6030
 1.6590	69.6173
 1.6580	69.5170
 1.6570	69.5332
 1.6560	69.5253
 1.6550	69.5010
 1.6540	69.3220
 1.6530	69.5238
 1.6520	69.4356
 1.6510	69.4696
 1.6500	69.4520
 1.6490	69.3782
 1.6480	69.3696
 1.6470	69.5032
 1.6460	69.3825
 1.6450	69.4636
 1.6440	69.3610
 1.6430	69.3518
 1.6420	69.4031
 1.6410	69.3897
 1.6400	69.3817
 1.6390	69.3588
 1.6380	69.2865
 1.6370	69.2488
 1.6360	69.2389
 1.6350	69.2966
 1.6340	69.2187
 1.6330	69.1916
 1.6320	69.1436
 1.6310	69.2083
 1.6300	69.0943
 1.6290	69.1310
 1.6280	69.1401
 1.6270	69.0101
 1.6260	69.0256
 1.6250	69.0751
 1.6240	69.0182
 1.6230	69.0123
 1.6220	68.9409
 1.6210	69.0207
 1.6200	68.9295
 1.6190	68.9772
 1.6180	68.8127
 1.6170	68.8831
 1.6160	68.9492
 1.6150	68.9174
 1.6140	68.7727
 1.6130	68.7449
 1.6120	68.7259
 1.6110	68.6828
 1.6100	68.7198
 1.6090	68.7616
 1.6080	68.6916
 1.6070	68.6979
 1.6060	68.6273
 1.6050	68.5501
 1.6040	68.5068
 1.6030	68.6716
 1.6020	68.5032
 1.6010	68.4110
 1.6000	68.4501
 1.5990	68.4076
 1.5980	68.3692
 1.5970	68.3012
 1.5960	68.2850
 1.5950	68.3026
 1.5940	68.2594
 1.5930	68.2384
 1.5920	68.1845
 1.5910	68.1502
 1.5900	68.1187
 1.5890	68.0965
 1.5880	68.0151
 1.5870	67.9831
 1.5860	67.9091
 1.5850	67.8605
 1.5840	67.9425
 1.5830	67.8507
 1.5820	67.7217
 1.5810	67.7149
 1.5800	67.7177
 1.5790	67.6740
 1.5780	67.6420
 1.5770	67.5982
 1.5760	67.4920
 1.5750	67.4797
 1.5740	67.4227
 1.5730	67.3661
 1.5720	67.3030
 1.5710	67.3009
 1.5700	67.2156
 1.5690	67.2092
 1.5680	67.1307
 1.5670	67.0888
 1.5660	67.0367
 1.5650	66.9991
 1.5640	66.9615
 1.5630	66.9564
 1.5620	66.9064
 1.5610	66.8430
 1.5600	66.7780
 1.5590	66.7717
 1.5580	66.6307
 1.5570	66.5996
 1.5560	66.5706
 1.5550	66.4650
 1.5540	66.4259
 1.5530	66.3429
 1.5520	66.2554
 1.5510	66.3258
 1.5500	66.2575
 1.5490	66.1410
 1.5480	66.0407
 1.5470	66.0074
 1.5460	65.9321
 1.5450	65.8584
 1.5440	65.8195
 1.5430	65.7258
 1.5420	65.6631
 1.5410	65.6071
 1.5400	65.4925
 1.5390	65.4649
 1.5380	65.4321
 1.5370	65.3224
 1.5360	65.1680
 1.5350	65.1529
 1.5340	65.0895
 1.5330	65.0219
 1.5320	65.0184
 1.5310	64.8706
 1.5300	64.7525
 1.5290	64.7608
 1.5280	64.6284
 1.5270	64.5135
 1.5260	64.4310
 1.5250	64.3668
 1.5240	64.2990
 1.5230	64.2110
 1.5220	64.1131
 1.5210	64.0564
 1.5200	64.0256
 1.5190	63.9042
 1.5180	63.7378
 1.5170	63.7160
 1.5160	63.6675
 1.5150	63.5451
 1.5140	63.4082
 1.5130	63.2959
 1.5120	63.2058
 1.5110	63.1232
 1.5100	63.0151
 1.5090	62.8446
 1.5080	62.7282
 1.5070	62.6672
 1.5060	62.5677
 1.5050	62.4523
 1.5040	62.3012
 1.5030	62.2247
 1.5020	62.1226
 1.5010	62.0034
 1.5000	61.8584
 1.4990	61.7028
 1.4980	61.6508
 1.4970	61.5815
 1.4960	61.4581
 1.4950	61.2884
 1.4940	61.1573
 1.4930	61.0274
 1.4920	60.9111
 1.4910	60.8040
 1.4900	60.5887
 1.4890	60.4599
 1.4880	60.4024
 1.4870	60.1772
 1.4860	59.9821
 1.4850	59.8988
 1.4840	59.8021
 1.4830	59.6435
 1.4820	59.5187
 1.4810	59.3333
 1.4800	59.1493
 1.4790	58.9725
 1.4780	58.7954
 1.4770	58.5706
 1.4760	58.4320
 1.4750	58.2467
 1.4740	58.0717
 1.4730	57.8511
 1.4720	57.7059
 1.4710	57.5020
 1.4700	57.4017
 1.4690	57.2041
 1.4680	57.0694
 1.4670	56.9662
 1.4660	56.8754
 1.4650	56.7694
 1.4640	56.7567
 1.4630	56.6375
 1.4620	56.6102
 1.4610	56.6388
 1.4600	56.5772
 1.4590	56.5605
 1.4580	56.5231
 1.4570	56.4127
 1.4560	56.3518
 1.4550	56.2791
 1.4540	56.2234
 1.4530	56.1182
 1.4520	55.9531
 1.4510	55.7406
 1.4500	55.6351
 1.4490	55.3922
 1.4480	55.1321
 1.4470	54.8391
 1.4460	54.5366
 1.4450	54.2247
 1.4440	53.9508
 1.4430	53.6538
 1.4420	53.4090
 1.4410	53.1151
 1.4400	52.9932
 1.4390	52.7703
 1.4380	52.4988
 1.4370	52.3170
 1.4360	52.2274
 1.4350	52.0087
 1.4340	51.9088
 1.4330	51.6695
 1.4320	51.5604
 1.4310	51.4113
 1.4300	51.2114
 1.4290	50.8899
 1.4280	50.7783
 1.4270	50.5282
 1.4260	50.3366
 1.4250	50.0635
 1.4240	49.9799
 1.4230	49.7699
 1.4220	49.6694
 1.4210	49.5544
 1.4200	49.5370
 1.4190	49.4943
 1.4180	49.5005
 1.4170	49.4501
 1.4160	49.5578
 1.4150	49.6062
 1.4140	49.7265
 1.4130	49.8444
 1.4120	50.0833
 1.4110	50.2847
 1.4100	50.6028
 1.4090	50.9159
 1.4080	51.2919
 1.4070	51.7701
 1.4060	52.2589
 1.4050	52.6485
 1.4040	53.3257
 1.4030	53.9431
 1.4020	54.5825
 1.4010	55.2179
 1.4000	56.0012
 1.3990	56.6403
 1.3980	57.3501
 1.3970	58.0944
 1.3960	58.9084
 1.3950	59.5548
 1.3940	60.2679
 1.3930	60.9530
 1.3920	61.6098
 1.3910	62.1686
 1.3900	62.7496
 1.3890	63.2787
 1.3880	63.7871
 1.3870	64.2066
 1.3860	64.6686
 1.3850	65.0284
 1.3840	65.4883
 1.3830	65.7144
 1.3820	66.1697
 1.3810	66.4284
 1.3800	66.6808
 1.3790	66.8458
 1.3780	67.1953
 1.3770	67.3584
 1.3760	67.5086
 1.3750	67.5515
 1.3740	67.8614
 1.3730	67.9779
 1.3720	68.1508
 1.3710	68.2296
 1.3700	68.3700
 1.3690	68.3767
