Name: Biotite K(Mg,Fe^2+)_3(Al,Fe^3+)Si_3O_10(OH,F)_2
Type: Mineral
Class: Silicate
Subclass: Phyllosilicate
Particle Size: Medium
Sample No.: PS-23A
Owner: JPL
Wavelength Range: VSWIR
Origin: Unknown.
Collection Date: N/A
Description: Particle size was 45-125um.Collected by:  JPL Original ASTER Spectral Library name was jpl.perkin.mineral.silicate.phyllosilicate.medium.ps23a.spectrum.txt
Measurement: Hemispherical reflectance
First Column: X
Second Column: Y
X Units: Wavelength (micrometers)
Y Units:Reflectance (percent)
First X Value:  2.5000
Last X Value:  0.4000
Number of X Values: 2101
Additional Information: mineral.silicate.phyllosilicate.medium.vswir.ps-23a.jpl.perkin.ancillary.txt

 2.5000	51.5897
 2.4990	51.1533
 2.4980	51.3411
 2.4970	51.4960
 2.4960	51.3337
 2.4950	51.2776
 2.4940	51.3169
 2.4930	51.2412
 2.4920	51.2454
 2.4910	51.2170
 2.4900	51.3809
 2.4890	51.1064
 2.4880	51.2581
 2.4870	50.9374
 2.4860	51.1994
 2.4850	51.2262
 2.4840	51.0545
 2.4830	51.1475
 2.4820	51.1864
 2.4810	50.9816
 2.4800	51.0859
 2.4790	50.9241
 2.4780	50.8686
 2.4770	50.8662
 2.4760	51.0591
 2.4750	50.8406
 2.4740	51.0553
 2.4730	50.8703
 2.4720	51.0569
 2.4710	50.7329
 2.4700	51.0189
 2.4690	50.7964
 2.4680	50.9764
 2.4670	50.7450
 2.4660	50.8190
 2.4650	50.8066
 2.4640	50.8635
 2.4630	50.6282
 2.4620	50.6769
 2.4610	50.7103
 2.4600	50.8101
 2.4590	50.8036
 2.4580	50.8432
 2.4570	50.6172
 2.4560	50.5602
 2.4550	50.6230
 2.4540	50.6464
 2.4530	50.6261
 2.4520	50.6263
 2.4510	50.5447
 2.4500	50.6062
 2.4490	50.4081
 2.4480	50.5328
 2.4470	50.4545
 2.4460	50.5681
 2.4450	50.4931
 2.4440	50.4970
 2.4430	50.1456
 2.4420	50.2496
 2.4410	50.1867
 2.4400	50.3836
 2.4390	50.3161
 2.4380	50.2971
 2.4370	50.1599
 2.4360	50.2180
 2.4350	50.1849
 2.4340	50.2475
 2.4330	50.1659
 2.4320	50.1630
 2.4310	50.1509
 2.4300	50.0965
 2.4290	49.9363
 2.4280	50.0292
 2.4270	49.9244
 2.4260	49.9448
 2.4250	49.9025
 2.4240	49.8041
 2.4230	49.7871
 2.4220	49.7734
 2.4210	49.6263
 2.4200	49.5906
 2.4190	49.5926
 2.4180	49.6256
 2.4170	49.4822
 2.4160	49.4909
 2.4150	49.3800
 2.4140	49.3978
 2.4130	49.3153
 2.4120	49.3188
 2.4110	49.2365
 2.4100	49.1950
 2.4090	49.1281
 2.4080	49.1840
 2.4070	49.0883
 2.4060	49.0723
 2.4050	49.0385
 2.4040	49.0045
 2.4030	48.8914
 2.4020	48.8832
 2.4010	48.8396
 2.4000	48.8495
 2.3990	48.7071
 2.3980	48.7601
 2.3970	48.7679
 2.3960	48.7796
 2.3950	48.7519
 2.3940	48.7788
 2.3930	48.6872
 2.3920	48.6644
 2.3910	48.6888
 2.3900	48.7217
 2.3890	48.7006
 2.3880	48.6965
 2.3870	48.6585
 2.3860	48.6929
 2.3850	48.7004
 2.3840	48.7893
 2.3830	48.7759
 2.3820	48.7724
 2.3810	48.7502
 2.3800	48.7978
 2.3790	48.8354
 2.3780	48.8828
 2.3770	48.9050
 2.3760	48.9173
 2.3750	48.9213
 2.3740	48.9118
 2.3730	48.8281
 2.3720	48.8304
 2.3710	48.8690
 2.3700	48.8969
 2.3690	48.8823
 2.3680	48.8688
 2.3670	48.8918
 2.3660	48.9023
 2.3650	48.8555
 2.3640	48.7671
 2.3630	48.7140
 2.3620	48.7434
 2.3610	48.6748
 2.3600	48.6244
 2.3590	48.5641
 2.3580	48.4875
 2.3570	48.4708
 2.3560	48.4864
 2.3550	48.3941
 2.3540	48.3371
 2.3530	48.2661
 2.3520	48.2513
 2.3510	48.2263
 2.3500	48.1685
 2.3490	48.1249
 2.3480	47.9613
 2.3470	47.9154
 2.3460	47.9561
 2.3450	47.8946
 2.3440	47.8427
 2.3430	47.8143
 2.3420	47.7540
 2.3410	47.7143
 2.3400	47.6762
 2.3390	47.6704
 2.3380	47.6161
 2.3370	47.5691
 2.3360	47.5938
 2.3350	47.6590
 2.3340	47.5744
 2.3330	47.5410
 2.3320	47.5677
 2.3310	47.6113
 2.3300	47.6597
 2.3290	47.5790
 2.3280	47.5517
 2.3270	47.6076
 2.3260	47.6208
 2.3250	47.6550
 2.3240	47.6832
 2.3230	47.7589
 2.3220	47.7779
 2.3210	47.8899
 2.3200	47.8815
 2.3190	47.8792
 2.3180	47.9819
 2.3170	48.0865
 2.3160	48.0440
 2.3150	48.1064
 2.3140	48.2189
 2.3130	48.2842
 2.3120	48.2872
 2.3110	48.2931
 2.3100	48.3836
 2.3090	48.5007
 2.3080	48.5179
 2.3070	48.5642
 2.3060	48.5516
 2.3050	48.6049
 2.3040	48.6133
 2.3030	48.7304
 2.3020	48.7449
 2.3010	48.8162
 2.3000	48.7638
 2.2990	48.8305
 2.2980	48.8601
 2.2970	48.9843
 2.2960	48.9990
 2.2950	49.0505
 2.2940	48.9644
 2.2930	48.9565
 2.2920	49.0727
 2.2910	49.1167
 2.2900	49.0211
 2.2890	49.0298
 2.2880	49.0211
 2.2870	49.0780
 2.2860	48.9909
 2.2850	48.9581
 2.2840	49.0208
 2.2830	49.0711
 2.2820	49.1044
 2.2810	48.9723
 2.2800	48.8878
 2.2790	48.9447
 2.2780	48.9549
 2.2770	49.0025
 2.2760	48.8688
 2.2750	48.8334
 2.2740	48.8355
 2.2730	48.8290
 2.2720	48.7926
 2.2710	48.7780
 2.2700	48.7303
 2.2690	48.7243
 2.2680	48.6854
 2.2670	48.6330
 2.2660	48.5121
 2.2650	48.5405
 2.2640	48.4335
 2.2630	48.3819
 2.2620	48.2375
 2.2610	48.3069
 2.2600	48.1530
 2.2590	48.1436
 2.2580	48.0852
 2.2570	48.0988
 2.2560	48.0497
 2.2550	47.9648
 2.2540	47.8435
 2.2530	47.9413
 2.2520	47.8320
 2.2510	47.9029
 2.2500	47.9469
 2.2490	47.9136
 2.2480	47.8242
 2.2470	47.9086
 2.2460	47.9233
 2.2450	48.0305
 2.2440	47.9278
 2.2430	48.0857
 2.2420	48.1546
 2.2410	48.1356
 2.2400	48.0888
 2.2390	48.1431
 2.2380	48.1345
 2.2370	48.1469
 2.2360	48.1201
 2.2350	48.2414
 2.2340	48.2269
 2.2330	48.3347
 2.2320	48.2400
 2.2310	48.3758
 2.2300	48.2422
 2.2290	48.2420
 2.2280	48.2420
 2.2270	48.3225
 2.2260	48.1993
 2.2250	48.2872
 2.2240	48.2089
 2.2230	48.2383
 2.2220	48.2446
 2.2210	48.2215
 2.2200	48.2513
 2.2190	48.2225
 2.2180	48.1655
 2.2170	48.1880
 2.2160	48.1731
 2.2150	48.1656
 2.2140	48.1468
 2.2130	48.1261
 2.2120	48.0561
 2.2110	48.1369
 2.2100	48.1154
 2.2090	48.1106
 2.2080	47.9759
 2.2070	48.1249
 2.2060	47.9895
 2.2050	48.0474
 2.2040	47.9758
 2.2030	48.0457
 2.2020	47.9161
 2.2010	47.9180
 2.2000	47.8624
 2.1990	47.9674
 2.1980	47.8669
 2.1970	47.9448
 2.1960	47.8263
 2.1950	47.8677
 2.1940	47.8317
 2.1930	47.8516
 2.1920	47.7761
 2.1910	47.7460
 2.1900	47.6285
 2.1890	47.6543
 2.1880	47.5553
 2.1870	47.6850
 2.1860	47.7547
 2.1850	47.7877
 2.1840	47.6051
 2.1830	47.5775
 2.1820	47.5814
 2.1810	47.5636
 2.1800	47.5246
 2.1790	47.5430
 2.1780	47.4005
 2.1770	47.5332
 2.1760	47.4912
 2.1750	47.4730
 2.1740	47.4338
 2.1730	47.4963
 2.1720	47.4451
 2.1710	47.3790
 2.1700	47.4029
 2.1690	47.4367
 2.1680	47.3038
 2.1670	47.3620
 2.1660	47.3801
 2.1650	47.3042
 2.1640	47.3068
 2.1630	47.3149
 2.1620	47.3132
 2.1610	47.3015
 2.1600	47.3130
 2.1590	47.2987
 2.1580	47.2111
 2.1570	47.2185
 2.1560	47.1735
 2.1550	47.1707
 2.1540	47.1426
 2.1530	47.1958
 2.1520	47.1073
 2.1510	47.1377
 2.1500	47.0412
 2.1490	47.0497
 2.1480	46.9614
 2.1470	46.9497
 2.1460	46.9060
 2.1450	46.9311
 2.1440	46.8876
 2.1430	46.8822
 2.1420	46.7652
 2.1410	46.7399
 2.1400	46.7783
 2.1390	46.7195
 2.1380	46.6447
 2.1370	46.6107
 2.1360	46.5717
 2.1350	46.4871
 2.1340	46.4398
 2.1330	46.4596
 2.1320	46.4196
 2.1310	46.3516
 2.1300	46.1874
 2.1290	46.2529
 2.1280	46.1731
 2.1270	46.0869
 2.1260	45.9811
 2.1250	46.0081
 2.1240	45.8895
 2.1230	45.8824
 2.1220	45.8007
 2.1210	45.7665
 2.1200	45.7434
 2.1190	45.6540
 2.1180	45.5516
 2.1170	45.4248
 2.1160	45.3493
 2.1150	45.3384
 2.1140	45.3217
 2.1130	45.2146
 2.1120	45.0996
 2.1110	45.0743
 2.1100	45.0067
 2.1090	44.9834
 2.1080	44.9031
 2.1070	44.8690
 2.1060	44.7981
 2.1050	44.8010
 2.1040	44.6648
 2.1030	44.6002
 2.1020	44.5916
 2.1010	44.6006
 2.1000	44.4537
 2.0990	44.4523
 2.0980	44.4290
 2.0970	44.3922
 2.0960	44.4298
 2.0950	44.4211
 2.0940	44.3232
 2.0930	44.2853
 2.0920	44.2307
 2.0910	44.2361
 2.0900	44.2032
 2.0890	44.2196
 2.0880	44.2157
 2.0870	44.1778
 2.0860	44.1487
 2.0850	44.1407
 2.0840	44.0473
 2.0830	44.0579
 2.0820	44.0577
 2.0810	44.0588
 2.0800	43.9665
 2.0790	43.9291
 2.0780	43.9177
 2.0770	43.8499
 2.0760	43.8178
 2.0750	43.7930
 2.0740	43.7586
 2.0730	43.7758
 2.0720	43.7872
 2.0710	43.7320
 2.0700	43.6476
 2.0690	43.6482
 2.0680	43.6233
 2.0670	43.5970
 2.0660	43.5771
 2.0650	43.5062
 2.0640	43.5001
 2.0630	43.4771
 2.0620	43.4564
 2.0610	43.4495
 2.0600	43.3716
 2.0590	43.3017
 2.0580	43.3154
 2.0570	43.3113
 2.0560	43.3237
 2.0550	43.2274
 2.0540	43.1937
 2.0530	43.1731
 2.0520	43.2043
 2.0510	43.1420
 2.0500	43.0742
 2.0490	43.0444
 2.0480	43.0584
 2.0470	43.0108
 2.0460	42.9475
 2.0450	42.9100
 2.0440	42.9256
 2.0430	42.8627
 2.0420	42.8541
 2.0410	42.8279
 2.0400	42.8052
 2.0390	42.8009
 2.0380	42.7435
 2.0370	42.6805
 2.0360	42.6201
 2.0350	42.5773
 2.0340	42.5871
 2.0330	42.5520
 2.0320	42.5658
 2.0310	42.5144
 2.0300	42.4909
 2.0290	42.4210
 2.0280	42.4104
 2.0270	42.3609
 2.0260	42.3239
 2.0250	42.3345
 2.0240	42.2833
 2.0230	42.2407
 2.0220	42.2410
 2.0210	42.2097
 2.0200	42.1408
 2.0190	42.0522
 2.0180	42.0470
 2.0170	41.9827
 2.0160	42.0028
 2.0150	41.9669
 2.0140	41.9622
 2.0130	41.8865
 2.0120	41.8922
 2.0110	41.8019
 2.0100	41.8191
 2.0090	41.7058
 2.0080	41.7498
 2.0070	41.7616
 2.0060	41.7419
 2.0050	41.6661
 2.0040	41.6105
 2.0030	41.5978
 2.0020	41.5502
 2.0010	41.4797
 2.0000	41.5528
 1.9990	41.4994
 1.9980	41.4302
 1.9970	41.3984
 1.9960	41.4254
 1.9950	41.3368
 1.9940	41.3143
 1.9930	41.2315
 1.9920	41.2624
 1.9910	41.1891
 1.9900	41.1598
 1.9890	41.0730
 1.9880	41.0970
 1.9870	41.0264
 1.9860	41.0754
 1.9850	41.0135
 1.9840	40.9681
 1.9830	40.9228
 1.9820	40.9160
 1.9810	40.8471
 1.9800	40.9762
 1.9790	40.7227
 1.9780	40.8101
 1.9770	40.7357
 1.9760	40.6796
 1.9750	40.6752
 1.9740	40.6795
 1.9730	40.6486
 1.9720	40.6466
 1.9710	40.5866
 1.9700	40.5792
 1.9690	40.5092
 1.9680	40.4728
 1.9670	40.4477
 1.9660	40.4850
 1.9650	40.3624
 1.9640	40.4421
 1.9630	40.2792
 1.9620	40.3236
 1.9610	40.2872
 1.9600	40.4091
 1.9590	40.1901
 1.9580	40.2754
 1.9570	40.1039
 1.9560	40.2349
 1.9550	40.0655
 1.9540	40.0888
 1.9530	40.0655
 1.9520	40.0431
 1.9510	39.9831
 1.9500	40.0089
 1.9490	39.9578
 1.9480	40.0104
 1.9470	39.9059
 1.9460	40.0116
 1.9450	39.8020
 1.9440	39.8704
 1.9430	39.8324
 1.9420	39.8479
 1.9410	39.7367
 1.9400	39.8032
 1.9390	39.7650
 1.9380	39.8567
 1.9370	39.5935
 1.9360	39.7687
 1.9350	39.6570
 1.9340	39.7163
 1.9330	39.6178
 1.9320	39.6022
 1.9310	39.5024
 1.9300	39.5836
 1.9290	39.4374
 1.9280	39.4943
 1.9270	39.4503
 1.9260	39.3863
 1.9250	39.4347
 1.9240	39.4636
 1.9230	39.2768
 1.9220	39.4223
 1.9210	39.2150
 1.9200	39.1306
 1.9190	39.1133
 1.9180	39.2367
 1.9170	39.0919
 1.9160	38.9892
 1.9150	38.9544
 1.9140	38.9736
 1.9130	38.8075
 1.9120	39.0295
 1.9110	38.8021
 1.9100	38.8396
 1.9090	38.7639
 1.9080	38.7928
 1.9070	38.6764
 1.9060	38.6915
 1.9050	38.5604
 1.9040	38.6983
 1.9030	38.5605
 1.9020	38.4996
 1.9010	38.4237
 1.9000	38.5000
 1.8990	38.3896
 1.8980	38.3244
 1.8970	38.2191
 1.8960	38.2651
 1.8950	38.1765
 1.8940	38.2019
 1.8930	38.0541
 1.8920	38.1093
 1.8910	38.0264
 1.8900	38.0283
 1.8890	37.9363
 1.8880	37.9536
 1.8870	37.8628
 1.8860	37.8912
 1.8850	37.7468
 1.8840	37.7288
 1.8830	37.7180
 1.8820	37.7457
 1.8810	37.6106
 1.8800	37.6530
 1.8790	37.5599
 1.8780	37.5956
 1.8770	37.4528
 1.8760	37.5967
 1.8750	37.5093
 1.8740	37.6137
 1.8730	37.5509
 1.8720	37.5036
 1.8710	37.4096
 1.8700	37.4066
 1.8690	37.3776
 1.8680	37.3443
 1.8670	37.1376
 1.8660	37.1144
 1.8650	37.0778
 1.8640	37.1018
 1.8630	36.9577
 1.8620	36.9529
 1.8610	36.8373
 1.8600	36.8444
 1.8590	36.8198
 1.8580	36.9132
 1.8570	36.7402
 1.8560	36.7741
 1.8550	36.7515
 1.8540	36.7312
 1.8530	36.6339
 1.8520	36.5933
 1.8510	36.5456
 1.8500	36.6063
 1.8490	36.4809
 1.8480	36.5249
 1.8470	36.4425
 1.8460	36.3962
 1.8450	36.3559
 1.8440	36.2926
 1.8430	36.2325
 1.8420	36.2341
 1.8410	36.2108
 1.8400	36.1867
 1.8390	36.1735
 1.8380	36.1681
 1.8370	36.0788
 1.8360	36.0578
 1.8350	36.0056
 1.8340	35.9956
 1.8330	35.9647
 1.8320	35.9055
 1.8310	35.7819
 1.8300	35.8225
 1.8290	35.8090
 1.8280	35.7647
 1.8270	35.6987
 1.8260	35.6345
 1.8250	35.5696
 1.8240	35.5512
 1.8230	35.5246
 1.8220	35.5213
 1.8210	35.4251
 1.8200	35.4844
 1.8190	35.3952
 1.8180	35.3677
 1.8170	35.2876
 1.8160	35.2826
 1.8150	35.2441
 1.8140	35.2403
 1.8130	35.2011
 1.8120	35.1706
 1.8110	35.0749
 1.8100	35.0019
 1.8090	34.9941
 1.8080	35.0010
 1.8070	34.9358
 1.8060	34.9092
 1.8050	34.8758
 1.8040	34.8729
 1.8030	34.8329
 1.8020	34.8623
 1.8010	34.7625
 1.8000	34.6948
 1.7990	34.7148
 1.7980	34.7344
 1.7970	34.6237
 1.7960	34.5490
 1.7950	34.5053
 1.7940	34.4671
 1.7930	34.4565
 1.7920	34.4405
 1.7910	34.4382
 1.7900	34.4164
 1.7890	34.3855
 1.7880	34.3166
 1.7870	34.2847
 1.7860	34.2773
 1.7850	34.1792
 1.7840	34.1727
 1.7830	34.1643
 1.7820	34.0893
 1.7810	34.0646
 1.7800	34.0346
 1.7790	33.9733
 1.7780	33.9946
 1.7770	33.9413
 1.7760	33.8874
 1.7750	33.9000
 1.7740	33.8556
 1.7730	33.8325
 1.7720	33.8159
 1.7710	33.7999
 1.7700	33.7743
 1.7690	33.7236
 1.7680	33.6639
 1.7670	33.6188
 1.7660	33.5690
 1.7650	33.5921
 1.7640	33.5662
 1.7630	33.5170
 1.7620	33.4722
 1.7610	33.4343
 1.7600	33.3213
 1.7590	33.3460
 1.7580	33.3412
 1.7570	33.3215
 1.7560	33.2863
 1.7550	33.2659
 1.7540	33.2213
 1.7530	33.1770
 1.7520	33.1264
 1.7510	33.1449
 1.7500	33.1121
 1.7490	33.0739
 1.7480	32.9855
 1.7470	32.9641
 1.7460	32.9353
 1.7450	32.9537
 1.7440	32.8955
 1.7430	32.8705
 1.7420	32.7494
 1.7410	32.7978
 1.7400	32.7939
 1.7390	32.7703
 1.7380	32.6965
 1.7370	32.6914
 1.7360	32.6059
 1.7350	32.6100
 1.7340	32.5091
 1.7330	32.5488
 1.7320	32.5414
 1.7310	32.5857
 1.7300	32.4265
 1.7290	32.3830
 1.7280	32.3433
 1.7270	32.3587
 1.7260	32.2463
 1.7250	32.2901
 1.7240	32.2650
 1.7230	32.2593
 1.7220	32.2260
 1.7210	32.1480
 1.7200	32.0711
 1.7190	32.0738
 1.7180	31.9984
 1.7170	32.0589
 1.7160	32.0015
 1.7150	31.9622
 1.7140	31.8349
 1.7130	31.8713
 1.7120	31.7922
 1.7110	31.8424
 1.7100	31.6909
 1.7090	31.7226
 1.7080	31.6041
 1.7070	31.6724
 1.7060	31.5419
 1.7050	31.5566
 1.7040	31.4670
 1.7030	31.4351
 1.7020	31.3808
 1.7010	31.4314
 1.7000	31.2941
 1.6990	31.3426
 1.6980	31.2171
 1.6970	31.2407
 1.6960	31.1675
 1.6950	31.1932
 1.6940	31.0727
 1.6930	31.0812
 1.6920	30.9538
 1.6910	31.0045
 1.6900	30.9217
 1.6890	30.9487
 1.6880	30.9016
 1.6870	30.9310
 1.6860	30.7431
 1.6850	30.8068
 1.6840	30.7354
 1.6830	30.8171
 1.6820	30.6903
 1.6810	30.6344
 1.6800	30.5288
 1.6790	30.5903
 1.6780	30.5638
 1.6770	30.5619
 1.6760	30.4858
 1.6750	30.4472
 1.6740	30.3861
 1.6730	30.3724
 1.6720	30.2122
 1.6710	30.3257
 1.6700	30.2503
 1.6690	30.2208
 1.6680	29.9807
 1.6670	30.2128
 1.6660	29.9896
 1.6650	30.1061
 1.6640	29.9112
 1.6630	29.9567
 1.6620	29.9753
 1.6610	29.8721
 1.6600	29.7857
 1.6590	29.8585
 1.6580	29.8017
 1.6570	29.8307
 1.6560	29.6218
 1.6550	29.7535
 1.6540	29.5443
 1.6530	29.7037
 1.6520	29.5115
 1.6510	29.6090
 1.6500	29.4803
 1.6490	29.5009
 1.6480	29.4329
 1.6470	29.3888
 1.6460	29.3222
 1.6450	29.3081
 1.6440	29.2894
 1.6430	29.3104
 1.6420	29.2017
 1.6410	29.2395
 1.6400	29.1724
 1.6390	29.2189
 1.6380	29.0432
 1.6370	29.0589
 1.6360	28.9645
 1.6350	29.0796
 1.6340	28.9436
 1.6330	28.9624
 1.6320	28.8050
 1.6310	28.8529
 1.6300	28.7957
 1.6290	28.8249
 1.6280	28.6660
 1.6270	28.7948
 1.6260	28.6659
 1.6250	28.7111
 1.6240	28.6737
 1.6230	28.6340
 1.6220	28.5031
 1.6210	28.5673
 1.6200	28.4882
 1.6190	28.5399
 1.6180	28.3618
 1.6170	28.4929
 1.6160	28.3299
 1.6150	28.4509
 1.6140	28.3025
 1.6130	28.3099
 1.6120	28.1668
 1.6110	28.2816
 1.6100	28.1073
 1.6090	28.1880
 1.6080	28.0804
 1.6070	28.1064
 1.6060	28.0379
 1.6050	28.0670
 1.6040	27.9718
 1.6030	27.9620
 1.6020	27.8873
 1.6010	27.9307
 1.6000	27.8033
 1.5990	27.8059
 1.5980	27.7591
 1.5970	27.7975
 1.5960	27.6312
 1.5950	27.6681
 1.5940	27.6190
 1.5930	27.6265
 1.5920	27.5894
 1.5910	27.6035
 1.5900	27.5208
 1.5890	27.4516
 1.5880	27.3980
 1.5870	27.4023
 1.5860	27.3679
 1.5850	27.3700
 1.5840	27.3189
 1.5830	27.3814
 1.5820	27.2800
 1.5810	27.2798
 1.5800	27.1618
 1.5790	27.2248
 1.5780	27.0546
 1.5770	27.1080
 1.5760	27.0553
 1.5750	27.0177
 1.5740	26.9255
 1.5730	26.9302
 1.5720	26.8774
 1.5710	26.9140
 1.5700	26.8260
 1.5690	26.8345
 1.5680	26.8097
 1.5670	26.8162
 1.5660	26.7563
 1.5650	26.7682
 1.5640	26.6086
 1.5630	26.6635
 1.5620	26.6274
 1.5610	26.5992
 1.5600	26.5068
 1.5590	26.5314
 1.5580	26.4992
 1.5570	26.5106
 1.5560	26.3805
 1.5550	26.3562
 1.5540	26.3118
 1.5530	26.3321
 1.5520	26.2324
 1.5510	26.2872
 1.5500	26.1807
 1.5490	26.1975
 1.5480	26.1378
 1.5470	26.1932
 1.5460	26.1142
 1.5450	26.0961
 1.5440	26.0073
 1.5430	26.0064
 1.5420	25.9650
 1.5410	25.9363
 1.5400	25.8816
 1.5390	25.9053
 1.5380	25.8800
 1.5370	25.8509
 1.5360	25.7960
 1.5350	25.7373
 1.5340	25.6891
 1.5330	25.7076
 1.5320	25.6461
 1.5310	25.6641
 1.5300	25.6510
 1.5290	25.6076
 1.5280	25.5423
 1.5270	25.5183
 1.5260	25.4754
 1.5250	25.4639
 1.5240	25.4192
 1.5230	25.3856
 1.5220	25.3281
 1.5210	25.3053
 1.5200	25.2595
 1.5190	25.2295
 1.5180	25.2149
 1.5170	25.1523
 1.5160	25.0600
 1.5150	25.1308
 1.5140	25.1251
 1.5130	25.1206
 1.5120	25.0914
 1.5110	25.0114
 1.5100	24.9430
 1.5090	24.9219
 1.5080	24.9007
 1.5070	24.8998
 1.5060	24.8897
 1.5050	24.8368
 1.5040	24.7576
 1.5030	24.7949
 1.5020	24.7783
 1.5010	24.7065
 1.5000	24.7004
 1.4990	24.6362
 1.4980	24.5848
 1.4970	24.5601
 1.4960	24.5430
 1.4950	24.5101
 1.4940	24.4855
 1.4930	24.4618
 1.4920	24.4365
 1.4910	24.3641
 1.4900	24.3564
 1.4890	24.4129
 1.4880	24.3535
 1.4870	24.2582
 1.4860	24.2868
 1.4850	24.2680
 1.4840	24.1916
 1.4830	24.1086
 1.4820	24.1078
 1.4810	24.0705
 1.4800	24.1050
 1.4790	24.0507
 1.4780	23.9649
 1.4770	23.9552
 1.4760	23.9040
 1.4750	23.8484
 1.4740	23.8806
 1.4730	23.8803
 1.4720	23.8803
 1.4710	23.7893
 1.4700	23.7369
 1.4690	23.6585
 1.4680	23.6719
 1.4670	23.6712
 1.4660	23.6371
 1.4650	23.5825
 1.4640	23.5961
 1.4630	23.5253
 1.4620	23.5033
 1.4610	23.4542
 1.4600	23.4965
 1.4590	23.3758
 1.4580	23.4056
 1.4570	23.3248
 1.4560	23.2780
 1.4550	23.2374
 1.4540	23.2885
 1.4530	23.1927
 1.4520	23.1575
 1.4510	23.0888
 1.4500	23.1327
 1.4490	23.0816
 1.4480	23.0516
 1.4470	23.0109
 1.4460	23.0068
 1.4450	22.9847
 1.4440	22.9726
 1.4430	22.8913
 1.4420	22.8958
 1.4410	22.7894
 1.4400	22.8056
 1.4390	22.7674
 1.4380	22.7847
 1.4370	22.7432
 1.4360	22.7666
 1.4350	22.6616
 1.4340	22.6817
 1.4330	22.5771
 1.4320	22.5812
 1.4310	22.4480
 1.4300	22.5347
 1.4290	22.4175
 1.4280	22.5077
 1.4270	22.4304
 1.4260	22.4586
 1.4250	22.3350
 1.4240	22.3608
 1.4230	22.2852
 1.4220	22.2859
 1.4210	22.1964
 1.4200	22.2566
 1.4190	22.1391
 1.4180	22.1591
 1.4170	22.1229
 1.4160	22.1463
 1.4150	22.0632
 1.4140	22.0333
 1.4130	21.9658
 1.4120	21.9617
 1.4110	21.9084
 1.4100	21.9009
 1.4090	21.7426
 1.4080	21.8033
 1.4070	21.6529
 1.4060	21.7590
 1.4050	21.6014
 1.4040	21.7255
 1.4030	21.6484
 1.4020	21.5956
 1.4010	21.5066
 1.4000	21.4979
 1.3990	21.4500
 1.3980	21.5001
 1.3970	21.4711
 1.3960	21.4425
 1.3950	21.3227
 1.3940	21.3216
 1.3930	21.2283
 1.3920	21.3110
 1.3910	21.1094
 1.3900	21.2381
 1.3890	21.1407
 1.3880	21.2002
 1.3870	21.0692
 1.3860	21.0654
 1.3850	21.1486
 1.3840	21.1159
 1.3830	21.0364
 1.3820	21.0808
 1.3810	20.9587
 1.3800	21.0032
 1.3790	20.8452
 1.3780	20.9975
 1.3770	20.8512
 1.3760	20.9054
 1.3750	20.7534
 1.3740	20.8217
 1.3730	20.7710
 1.3720	20.7993
 1.3710	20.6484
 1.3700	20.7617
 1.3690	20.5553
 1.3680	20.6731
 1.3670	20.5417
