Name: Chlorite (Mg,Al)_6(Si,Al)_4O_10(OH)_8
Type: Mineral
Class: Silicate
Subclass: Phyllosilicate
Particle Size: Coarse
Sample No.: PS-12C
Owner: JPL
Wavelength Range: VSWIR
Origin: USA, California.
Collection Date: N/A
Description: Particle size was 125-500um.Collected by:  Ward's Original ASTER Spectral Library name was jpl.perkin.mineral.silicate.phyllosilicate.coarse.ps12c.spectrum.txt
Measurement: Hemispherical reflectance
First Column: X
Second Column: Y
X Units: Wavelength (micrometers)
Y Units:Reflectance (percent)
First X Value:  2.5000
Last X Value:  0.4000
Number of X Values: 2101
Additional Information: mineral.silicate.phyllosilicate.coarse.vswir.ps-12c.jpl.perkin.ancillary.txt

 2.5000	25.3415
 2.4990	25.1662
 2.4980	25.1950
 2.4970	25.4439
 2.4960	24.8616
 2.4950	25.3989
 2.4940	25.1417
 2.4930	25.2287
 2.4920	25.0786
 2.4910	25.1812
 2.4900	25.0913
 2.4890	25.3210
 2.4880	25.0969
 2.4870	25.2978
 2.4860	25.1003
 2.4850	25.1297
 2.4840	25.2015
 2.4830	25.3440
 2.4820	25.1017
 2.4810	25.3432
 2.4800	25.0932
 2.4790	25.3404
 2.4780	25.0526
 2.4770	25.3692
 2.4760	25.0757
 2.4750	25.2245
 2.4740	25.2122
 2.4730	25.3502
 2.4720	25.1828
 2.4710	25.3426
 2.4700	25.2372
 2.4690	25.3659
 2.4680	25.3711
 2.4670	25.4571
 2.4660	25.4737
 2.4650	25.6269
 2.4640	25.6057
 2.4630	25.7700
 2.4620	25.6821
 2.4610	25.7951
 2.4600	25.9040
 2.4590	26.0466
 2.4580	26.0963
 2.4570	26.2213
 2.4560	26.4149
 2.4550	26.4051
 2.4540	26.5126
 2.4530	26.6265
 2.4520	26.6350
 2.4510	26.9217
 2.4500	26.9470
 2.4490	27.1097
 2.4480	27.1512
 2.4470	27.1461
 2.4460	27.3669
 2.4450	27.4993
 2.4440	27.4947
 2.4430	27.7234
 2.4420	27.7480
 2.4410	27.8824
 2.4400	27.9089
 2.4390	28.0947
 2.4380	28.1412
 2.4370	28.2277
 2.4360	28.2718
 2.4350	28.3874
 2.4340	28.3764
 2.4330	28.4759
 2.4320	28.5593
 2.4310	28.6625
 2.4300	28.6544
 2.4290	28.8373
 2.4280	28.8330
 2.4270	29.0710
 2.4260	29.0799
 2.4250	29.1775
 2.4240	29.1250
 2.4230	29.2255
 2.4220	29.3043
 2.4210	29.4150
 2.4200	29.4576
 2.4190	29.4577
 2.4180	29.4394
 2.4170	29.5421
 2.4160	29.4970
 2.4150	29.5619
 2.4140	29.5122
 2.4130	29.5277
 2.4120	29.4678
 2.4110	29.3580
 2.4100	29.3008
 2.4090	29.3160
 2.4080	29.1317
 2.4070	29.0897
 2.4060	28.9082
 2.4050	28.7582
 2.4040	28.6234
 2.4030	28.5083
 2.4020	28.3299
 2.4010	28.1950
 2.4000	28.0768
 2.3990	28.0131
 2.3980	27.7444
 2.3970	27.6737
 2.3960	27.5173
 2.3950	27.4061
 2.3940	27.2678
 2.3930	27.2780
 2.3920	27.1256
 2.3910	27.0428
 2.3900	26.9489
 2.3890	26.9315
 2.3880	26.8320
 2.3870	26.7582
 2.3860	26.6676
 2.3850	26.6959
 2.3840	26.6758
 2.3830	26.6855
 2.3820	26.6735
 2.3810	26.6724
 2.3800	26.5927
 2.3790	26.5736
 2.3780	26.6684
 2.3770	26.6466
 2.3760	26.5330
 2.3750	26.4852
 2.3740	26.3716
 2.3730	26.3724
 2.3720	26.2992
 2.3710	26.1867
 2.3700	26.0749
 2.3690	25.9412
 2.3680	25.8575
 2.3670	25.7463
 2.3660	25.5815
 2.3650	25.4574
 2.3640	25.3067
 2.3630	25.1433
 2.3620	24.9321
 2.3610	24.7338
 2.3600	24.5828
 2.3590	24.3768
 2.3580	24.1943
 2.3570	24.0541
 2.3560	23.8688
 2.3550	23.6573
 2.3540	23.4591
 2.3530	23.3297
 2.3520	23.1702
 2.3510	22.9651
 2.3500	22.7789
 2.3490	22.6170
 2.3480	22.5264
 2.3470	22.2979
 2.3460	22.0958
 2.3450	21.9409
 2.3440	21.8461
 2.3430	21.7324
 2.3420	21.6383
 2.3410	21.4291
 2.3400	21.2669
 2.3390	21.1807
 2.3380	21.0865
 2.3370	20.9763
 2.3360	20.8783
 2.3350	20.7903
 2.3340	20.7222
 2.3330	20.6258
 2.3320	20.5732
 2.3310	20.5294
 2.3300	20.5314
 2.3290	20.4663
 2.3280	20.4801
 2.3270	20.5030
 2.3260	20.5396
 2.3250	20.5598
 2.3240	20.5721
 2.3230	20.5792
 2.3220	20.7451
 2.3210	20.7342
 2.3200	20.8714
 2.3190	20.9261
 2.3180	21.0759
 2.3170	21.1319
 2.3160	21.2189
 2.3150	21.3346
 2.3140	21.4979
 2.3130	21.5548
 2.3120	21.7468
 2.3110	21.9036
 2.3100	22.0351
 2.3090	22.1402
 2.3080	22.2878
 2.3070	22.3704
 2.3060	22.4978
 2.3050	22.6062
 2.3040	22.7108
 2.3030	22.8389
 2.3020	22.9544
 2.3010	22.9750
 2.3000	23.0660
 2.2990	23.1522
 2.2980	23.2299
 2.2970	23.2775
 2.2960	23.3933
 2.2950	23.5219
 2.2940	23.6428
 2.2930	23.7712
 2.2920	23.9946
 2.2910	24.1247
 2.2900	24.3294
 2.2890	24.5024
 2.2880	24.7747
 2.2870	24.9606
 2.2860	25.1915
 2.2850	25.4299
 2.2840	25.7691
 2.2830	25.9385
 2.2820	26.2523
 2.2810	26.4685
 2.2800	26.7452
 2.2790	26.9911
 2.2780	27.2880
 2.2770	27.4213
 2.2760	27.6654
 2.2750	27.7434
 2.2740	27.9637
 2.2730	28.0273
 2.2720	28.1825
 2.2710	28.1814
 2.2700	28.3764
 2.2690	28.3916
 2.2680	28.4702
 2.2670	28.4057
 2.2660	28.4642
 2.2650	28.3629
 2.2640	28.4516
 2.2630	28.3912
 2.2620	28.3889
 2.2610	28.3031
 2.2600	28.2840
 2.2590	28.2056
 2.2580	28.1932
 2.2570	28.1439
 2.2560	28.1373
 2.2550	27.9891
 2.2540	28.0114
 2.2530	27.8174
 2.2520	27.9322
 2.2510	27.8306
 2.2500	27.8372
 2.2490	27.8253
 2.2480	27.9661
 2.2470	28.0114
 2.2460	28.1827
 2.2450	28.2671
 2.2440	28.5530
 2.2430	28.7600
 2.2420	29.0868
 2.2410	29.4466
 2.2400	29.8648
 2.2390	30.2813
 2.2380	30.8069
 2.2370	31.3054
 2.2360	31.8936
 2.2350	32.3480
 2.2340	32.9979
 2.2330	33.4863
 2.2320	34.1348
 2.2310	34.7111
 2.2300	35.3096
 2.2290	35.7392
 2.2280	36.4508
 2.2270	36.8628
 2.2260	37.4917
 2.2250	37.9149
 2.2240	38.5097
 2.2230	38.8997
 2.2220	39.3595
 2.2210	39.6161
 2.2200	40.2530
 2.2190	40.5362
 2.2180	40.8626
 2.2170	41.1842
 2.2160	41.5111
 2.2150	41.8159
 2.2140	42.1827
 2.2130	42.4423
 2.2120	42.8500
 2.2110	42.8718
 2.2100	43.3611
 2.2090	43.4398
 2.2080	43.7356
 2.2070	43.9680
 2.2060	44.2685
 2.2050	44.4182
 2.2040	44.6295
 2.2030	44.8521
 2.2020	45.0286
 2.2010	45.1605
 2.2000	45.3957
 2.1990	45.5621
 2.1980	45.7858
 2.1970	45.8296
 2.1960	46.0969
 2.1950	46.2072
 2.1940	46.3887
 2.1930	46.5813
 2.1920	46.7661
 2.1910	46.8472
 2.1900	46.9519
 2.1890	47.0630
 2.1880	47.3181
 2.1870	47.3356
 2.1860	47.5866
 2.1850	47.7569
 2.1840	47.9284
 2.1830	47.9540
 2.1820	48.1286
 2.1810	48.2457
 2.1800	48.3887
 2.1790	48.5239
 2.1780	48.7401
 2.1770	48.7924
 2.1760	48.9935
 2.1750	49.0507
 2.1740	49.2191
 2.1730	49.2786
 2.1720	49.4834
 2.1710	49.5417
 2.1700	49.6498
 2.1690	49.7092
 2.1680	49.7987
 2.1670	49.8623
 2.1660	50.0267
 2.1650	50.1829
 2.1640	50.2228
 2.1630	50.2434
 2.1620	50.4115
 2.1610	50.4449
 2.1600	50.4868
 2.1590	50.5407
 2.1580	50.5944
 2.1570	50.7081
 2.1560	50.7767
 2.1550	50.8252
 2.1540	50.9187
 2.1530	50.9143
 2.1520	51.0139
 2.1510	51.0360
 2.1500	51.0796
 2.1490	51.1073
 2.1480	51.2553
 2.1470	51.2797
 2.1460	51.3587
 2.1450	51.3056
 2.1440	51.3166
 2.1430	51.3128
 2.1420	51.3923
 2.1410	51.4476
 2.1400	51.4474
 2.1390	51.3712
 2.1380	51.3866
 2.1370	51.3413
 2.1360	51.4317
 2.1350	51.3573
 2.1340	51.2958
 2.1330	51.2346
 2.1320	51.2549
 2.1310	51.2088
 2.1300	51.1562
 2.1290	51.1325
 2.1280	51.2109
 2.1270	51.1008
 2.1260	51.0017
 2.1250	50.8947
 2.1240	50.8762
 2.1230	50.8642
 2.1220	50.8227
 2.1210	50.7456
 2.1200	50.6623
 2.1190	50.5848
 2.1180	50.5642
 2.1170	50.4984
 2.1160	50.5365
 2.1150	50.4853
 2.1140	50.3952
 2.1130	50.3635
 2.1120	50.3696
 2.1110	50.3306
 2.1100	50.3323
 2.1090	50.3172
 2.1080	50.3594
 2.1070	50.3312
 2.1060	50.3543
 2.1050	50.4001
 2.1040	50.4325
 2.1030	50.4839
 2.1020	50.5187
 2.1010	50.5487
 2.1000	50.6563
 2.0990	50.7428
 2.0980	50.9022
 2.0970	51.0135
 2.0960	51.1240
 2.0950	51.2055
 2.0940	51.2939
 2.0930	51.4298
 2.0920	51.5239
 2.0910	51.5725
 2.0900	51.6870
 2.0890	51.7450
 2.0880	51.7732
 2.0870	51.8707
 2.0860	51.8744
 2.0850	51.8289
 2.0840	51.8232
 2.0830	51.8196
 2.0820	51.7920
 2.0810	51.7663
 2.0800	51.7388
 2.0790	51.6841
 2.0780	51.7238
 2.0770	51.7349
 2.0760	51.6474
 2.0750	51.5698
 2.0740	51.5077
 2.0730	51.4909
 2.0720	51.4477
 2.0710	51.3810
 2.0700	51.3388
 2.0690	51.3204
 2.0680	51.2910
 2.0670	51.2239
 2.0660	51.1287
 2.0650	51.0807
 2.0640	51.0271
 2.0630	50.9246
 2.0620	50.8574
 2.0610	50.7831
 2.0600	50.6843
 2.0590	50.5594
 2.0580	50.4747
 2.0570	50.4397
 2.0560	50.2738
 2.0550	50.2064
 2.0540	50.1308
 2.0530	50.0230
 2.0520	49.9163
 2.0510	49.8011
 2.0500	49.6813
 2.0490	49.5442
 2.0480	49.4074
 2.0470	49.3029
 2.0460	49.1750
 2.0450	49.0018
 2.0440	48.8562
 2.0430	48.7066
 2.0420	48.4928
 2.0410	48.3936
 2.0400	48.2360
 2.0390	48.0782
 2.0380	47.9472
 2.0370	47.7870
 2.0360	47.5853
 2.0350	47.4579
 2.0340	47.2540
 2.0330	47.0727
 2.0320	46.8841
 2.0310	46.7183
 2.0300	46.4604
 2.0290	46.3451
 2.0280	46.1363
 2.0270	45.8722
 2.0260	45.6966
 2.0250	45.4909
 2.0240	45.2395
 2.0230	45.0961
 2.0220	44.8602
 2.0210	44.6851
 2.0200	44.5102
 2.0190	44.3225
 2.0180	44.1211
 2.0170	43.9776
 2.0160	43.7652
 2.0150	43.6309
 2.0140	43.4623
 2.0130	43.3605
 2.0120	43.1636
 2.0110	43.0295
 2.0100	42.9381
 2.0090	42.8846
 2.0080	42.6859
 2.0070	42.6583
 2.0060	42.5421
 2.0050	42.5083
 2.0040	42.3830
 2.0030	42.4089
 2.0020	42.3122
 2.0010	42.2139
 2.0000	42.1689
 1.9990	42.1983
 1.9980	42.0942
 1.9970	42.1050
 1.9960	42.0798
 1.9950	42.0575
 1.9940	41.9366
 1.9930	42.0462
 1.9920	41.9585
 1.9910	41.9500
 1.9900	41.9572
 1.9890	41.9452
 1.9880	41.8901
 1.9870	42.0173
 1.9860	41.9421
 1.9850	41.9848
 1.9840	42.0726
 1.9830	42.1630
 1.9820	42.1614
 1.9810	42.2625
 1.9800	42.2768
 1.9790	42.3588
 1.9780	42.4535
 1.9770	42.5868
 1.9760	42.6379
 1.9750	42.7299
 1.9740	42.8405
 1.9730	42.9839
 1.9720	43.0148
 1.9710	43.0976
 1.9700	43.1808
 1.9690	43.2477
 1.9680	43.3124
 1.9670	43.4326
 1.9660	43.4061
 1.9650	43.5854
 1.9640	43.6021
 1.9630	43.7638
 1.9620	43.7541
 1.9610	43.7809
 1.9600	43.7891
 1.9590	43.8826
 1.9580	43.8095
 1.9570	43.9500
 1.9560	43.9558
 1.9550	44.0197
 1.9540	44.0759
 1.9530	44.1891
 1.9520	44.2049
 1.9510	44.3655
 1.9500	44.3606
 1.9490	44.4888
 1.9480	44.6053
 1.9470	44.7167
 1.9460	44.7477
 1.9450	44.9648
 1.9440	45.0202
 1.9430	45.1316
 1.9420	45.1801
 1.9410	45.4094
 1.9400	45.4214
 1.9390	45.6418
 1.9380	45.5907
 1.9370	45.6753
 1.9360	45.7691
 1.9350	45.9587
 1.9340	45.9183
 1.9330	46.1077
 1.9320	46.0092
 1.9310	46.1609
 1.9300	46.1517
 1.9290	46.2417
 1.9280	46.1383
 1.9270	46.3639
 1.9260	46.2027
 1.9250	46.4393
 1.9240	46.3028
 1.9230	46.4182
 1.9220	46.4077
 1.9210	46.4339
 1.9200	46.3699
 1.9190	46.4579
 1.9180	46.4635
 1.9170	46.4514
 1.9160	46.3467
 1.9150	46.4858
 1.9140	46.4623
 1.9130	46.5141
 1.9120	46.4234
 1.9110	46.5225
 1.9100	46.4597
 1.9090	46.6172
 1.9080	46.4659
 1.9070	46.5515
 1.9060	46.5711
 1.9050	46.5951
 1.9040	46.5825
 1.9030	46.7096
 1.9020	46.5545
 1.9010	46.5930
 1.9000	46.6783
 1.8990	46.6772
 1.8980	46.5765
 1.8970	46.6081
 1.8960	46.5432
 1.8950	46.6106
 1.8940	46.5495
 1.8930	46.4733
 1.8920	46.4641
 1.8910	46.4266
 1.8900	46.3318
 1.8890	46.3435
 1.8880	46.2124
 1.8870	46.2047
 1.8860	45.9971
 1.8850	46.0875
 1.8840	45.9678
 1.8830	45.9063
 1.8820	45.9010
 1.8810	45.8444
 1.8800	45.8288
 1.8790	45.9768
 1.8780	45.9709
 1.8770	45.9932
 1.8760	46.0065
 1.8750	46.0924
 1.8740	46.0593
 1.8730	46.1926
 1.8720	46.2072
 1.8710	46.3029
 1.8700	46.2446
 1.8690	46.3398
 1.8680	46.4091
 1.8670	46.5246
 1.8660	46.5977
 1.8650	46.7469
 1.8640	46.7952
 1.8630	46.9746
 1.8620	46.9928
 1.8610	47.0704
 1.8600	47.0236
 1.8590	47.0748
 1.8580	47.1683
 1.8570	47.2545
 1.8560	47.2439
 1.8550	47.3867
 1.8540	47.4687
 1.8530	47.5513
 1.8520	47.5963
 1.8510	47.6535
 1.8500	47.7220
 1.8490	47.8883
 1.8480	47.9556
 1.8470	47.9762
 1.8460	47.9564
 1.8450	48.0861
 1.8440	48.1659
 1.8430	48.2755
 1.8420	48.2985
 1.8410	48.3217
 1.8400	48.3797
 1.8390	48.5495
 1.8380	48.5386
 1.8370	48.5098
 1.8360	48.5279
 1.8350	48.5962
 1.8340	48.5856
 1.8330	48.6766
 1.8320	48.6981
 1.8310	48.7113
 1.8300	48.6933
 1.8290	48.7630
 1.8280	48.7516
 1.8270	48.7873
 1.8260	48.7342
 1.8250	48.8072
 1.8240	48.8320
 1.8230	48.8796
 1.8220	48.8539
 1.8210	48.8334
 1.8200	48.8661
 1.8190	48.8373
 1.8180	48.8502
 1.8170	48.9215
 1.8160	48.9268
 1.8150	48.8977
 1.8140	48.8815
 1.8130	48.9242
 1.8120	48.9683
 1.8110	48.9876
 1.8100	48.9830
 1.8090	49.0120
 1.8080	48.9833
 1.8070	48.9368
 1.8060	48.9824
 1.8050	49.0021
 1.8040	48.9366
 1.8030	48.9757
 1.8020	48.9800
 1.8010	48.9500
 1.8000	48.9743
 1.7990	48.9464
 1.7980	48.9790
 1.7970	48.9702
 1.7960	48.8932
 1.7950	48.8992
 1.7940	48.8979
 1.7930	48.8765
 1.7920	48.8656
 1.7910	48.8532
 1.7900	48.8437
 1.7890	48.8514
 1.7880	48.8647
 1.7870	48.8250
 1.7860	48.7830
 1.7850	48.7813
 1.7840	48.8109
 1.7830	48.7739
 1.7820	48.6975
 1.7810	48.6504
 1.7800	48.5919
 1.7790	48.5813
 1.7780	48.6107
 1.7770	48.5297
 1.7760	48.4429
 1.7750	48.4478
 1.7740	48.4715
 1.7730	48.4157
 1.7720	48.3891
 1.7710	48.3063
 1.7700	48.2565
 1.7690	48.2526
 1.7680	48.2354
 1.7670	48.1969
 1.7660	48.1707
 1.7650	48.1166
 1.7640	48.0599
 1.7630	48.0712
 1.7620	48.0288
 1.7610	47.9761
 1.7600	47.9696
 1.7590	47.9516
 1.7580	47.9878
 1.7570	47.9494
 1.7560	47.9180
 1.7550	47.8768
 1.7540	47.8418
 1.7530	47.7800
 1.7520	47.7681
 1.7510	47.7099
 1.7500	47.6907
 1.7490	47.6533
 1.7480	47.5674
 1.7470	47.5216
 1.7460	47.4855
 1.7450	47.4631
 1.7440	47.4442
 1.7430	47.3727
 1.7420	47.3661
 1.7410	47.2789
 1.7400	47.2575
 1.7390	47.2089
 1.7380	47.2063
 1.7370	47.1378
 1.7360	47.0591
 1.7350	47.0304
 1.7340	47.0339
 1.7330	47.0134
 1.7320	46.9678
 1.7310	46.8880
 1.7300	46.9096
 1.7290	46.8143
 1.7280	46.7983
 1.7270	46.7346
 1.7260	46.6915
 1.7250	46.6393
 1.7240	46.6245
 1.7230	46.5210
 1.7220	46.4941
 1.7210	46.3672
 1.7200	46.3705
 1.7190	46.3694
 1.7180	46.3212
 1.7170	46.2806
 1.7160	46.2353
 1.7150	46.1219
 1.7140	46.1527
 1.7130	46.0939
 1.7120	46.0527
 1.7110	45.8721
 1.7100	45.9485
 1.7090	45.8675
 1.7080	45.8496
 1.7070	45.7000
 1.7060	45.6732
 1.7050	45.6173
 1.7040	45.6049
 1.7030	45.5149
 1.7020	45.4845
 1.7010	45.4274
 1.7000	45.3826
 1.6990	45.2638
 1.6980	45.3231
 1.6970	45.1889
 1.6960	45.1818
 1.6950	45.0804
 1.6940	45.0033
 1.6930	44.8902
 1.6920	44.9662
 1.6910	44.8558
 1.6900	44.8472
 1.6890	44.7269
 1.6880	44.7053
 1.6870	44.5789
 1.6860	44.6126
 1.6850	44.5210
 1.6840	44.4790
 1.6830	44.3855
 1.6820	44.3938
 1.6810	44.2872
 1.6800	44.2741
 1.6790	44.2162
 1.6780	44.0937
 1.6770	44.0335
 1.6760	44.0641
 1.6750	43.9357
 1.6740	43.9165
 1.6730	43.7732
 1.6720	43.8295
 1.6710	43.7321
 1.6700	43.7245
 1.6690	43.6909
 1.6680	43.4383
 1.6670	43.5128
 1.6660	43.4992
 1.6650	43.3677
 1.6640	43.3612
 1.6630	43.1967
 1.6620	43.2149
 1.6610	43.1056
 1.6600	43.1535
 1.6590	43.0111
 1.6580	42.8737
 1.6570	42.7620
 1.6560	42.8695
 1.6550	42.7806
 1.6540	42.7989
 1.6530	42.6126
 1.6520	42.5637
 1.6510	42.4430
 1.6500	42.4474
 1.6490	42.3273
 1.6480	42.2690
 1.6470	42.1511
 1.6460	42.1783
 1.6450	42.0540
 1.6440	42.0859
 1.6430	41.9468
 1.6420	41.9985
 1.6410	41.6882
 1.6400	41.8316
 1.6390	41.6731
 1.6380	41.6606
 1.6370	41.5160
 1.6360	41.4910
 1.6350	41.2956
 1.6340	41.3543
 1.6330	41.2565
 1.6320	41.1978
 1.6310	41.1021
 1.6300	41.1127
 1.6290	40.9174
 1.6280	41.0037
 1.6270	40.7620
 1.6260	40.8082
 1.6250	40.7360
 1.6240	40.6493
 1.6230	40.4652
 1.6220	40.5245
 1.6210	40.4026
 1.6200	40.3513
 1.6190	40.1541
 1.6180	40.1626
 1.6170	40.0291
 1.6160	40.0726
 1.6150	39.9051
 1.6140	39.8741
 1.6130	39.7233
 1.6120	39.8418
 1.6110	39.6211
 1.6100	39.6279
 1.6090	39.4526
 1.6080	39.4847
 1.6070	39.3301
 1.6060	39.2496
 1.6050	39.1949
 1.6040	39.1862
 1.6030	39.0318
 1.6020	38.9796
 1.6010	38.8564
 1.6000	38.9407
 1.5990	38.7297
 1.5980	38.7307
 1.5970	38.5803
 1.5960	38.5565
 1.5950	38.3937
 1.5940	38.4304
 1.5930	38.3021
 1.5920	38.2773
 1.5910	38.0837
 1.5900	38.0381
 1.5890	37.9952
 1.5880	37.8971
 1.5870	37.8026
 1.5860	37.7752
 1.5850	37.7332
 1.5840	37.6311
 1.5830	37.5123
 1.5820	37.5026
 1.5810	37.3381
 1.5800	37.3188
 1.5790	37.1868
 1.5780	37.1444
 1.5770	36.9773
 1.5760	36.9815
 1.5750	36.9022
 1.5740	36.8817
 1.5730	36.7418
 1.5720	36.7068
 1.5710	36.6423
 1.5700	36.5814
 1.5690	36.4962
 1.5680	36.4372
 1.5670	36.2978
 1.5660	36.2937
 1.5650	36.1914
 1.5640	36.1829
 1.5630	36.0548
 1.5620	36.0374
 1.5610	36.0017
 1.5600	35.9435
 1.5590	35.8666
 1.5580	35.7945
 1.5570	35.7342
 1.5560	35.6740
 1.5550	35.5706
 1.5540	35.5673
 1.5530	35.4951
 1.5520	35.4265
 1.5510	35.3191
 1.5500	35.3491
 1.5490	35.3222
 1.5480	35.2609
 1.5470	35.1727
 1.5460	35.1591
 1.5450	35.0990
 1.5440	35.0603
 1.5430	34.9980
 1.5420	34.9218
 1.5410	34.8545
 1.5400	34.8764
 1.5390	34.7999
 1.5380	34.7654
 1.5370	34.6890
 1.5360	34.6867
 1.5350	34.6098
 1.5340	34.5663
 1.5330	34.5244
 1.5320	34.4692
 1.5310	34.4321
 1.5300	34.3821
 1.5290	34.3032
 1.5280	34.2892
 1.5270	34.2699
 1.5260	34.2718
 1.5250	34.1821
 1.5240	34.1820
 1.5230	34.1146
 1.5220	34.1048
 1.5210	34.0763
 1.5200	34.0509
 1.5190	33.9984
 1.5180	33.9455
 1.5170	33.9053
 1.5160	33.9329
 1.5150	33.9330
 1.5140	33.9240
 1.5130	33.8549
 1.5120	33.8706
 1.5110	33.8740
 1.5100	33.7931
 1.5090	33.7728
 1.5080	33.7617
 1.5070	33.7504
 1.5060	33.7447
 1.5050	33.6858
 1.5040	33.6044
 1.5030	33.6484
 1.5020	33.6672
 1.5010	33.5864
 1.5000	33.5828
 1.4990	33.5656
 1.4980	33.5546
 1.4970	33.5542
 1.4960	33.4441
 1.4950	33.3931
 1.4940	33.4018
 1.4930	33.3259
 1.4920	33.2799
 1.4910	33.2391
 1.4900	33.1696
 1.4890	33.1829
 1.4880	33.1556
 1.4870	33.1084
 1.4860	33.0317
 1.4850	32.9899
 1.4840	32.9493
 1.4830	32.9155
 1.4820	32.8260
 1.4810	32.7758
 1.4800	32.7049
 1.4790	32.6723
 1.4780	32.5971
 1.4770	32.5183
 1.4760	32.3907
 1.4750	32.3417
 1.4740	32.2935
 1.4730	32.2411
 1.4720	32.1204
 1.4710	32.0551
 1.4700	31.9247
 1.4690	31.8585
 1.4680	31.8551
 1.4670	31.7688
 1.4660	31.6354
 1.4650	31.5504
 1.4640	31.4515
 1.4630	31.3713
 1.4620	31.2565
 1.4610	31.1579
 1.4600	30.9769
 1.4590	30.9315
 1.4580	30.8597
 1.4570	30.7719
 1.4560	30.6544
 1.4550	30.5623
 1.4540	30.4846
 1.4530	30.3859
 1.4520	30.2684
 1.4510	30.2195
 1.4500	30.1185
 1.4490	30.0608
 1.4480	29.9830
 1.4470	30.0428
 1.4460	29.9216
 1.4450	29.8019
 1.4440	29.6922
 1.4430	29.7113
 1.4420	29.6179
 1.4410	29.6558
 1.4400	29.6395
 1.4390	29.6229
 1.4380	29.5883
 1.4370	29.6241
 1.4360	29.5917
 1.4350	29.5543
 1.4340	29.5619
 1.4330	29.6170
 1.4320	29.5931
 1.4310	29.6437
 1.4300	29.6679
 1.4290	29.7432
 1.4280	29.6745
 1.4270	29.7669
 1.4260	29.7123
 1.4250	29.7443
 1.4240	29.7002
 1.4230	29.7093
 1.4220	29.6525
 1.4210	29.6616
 1.4200	29.5653
 1.4190	29.4934
 1.4180	29.3760
 1.4170	29.3060
 1.4160	29.1342
 1.4150	29.0193
 1.4140	28.7804
 1.4130	28.7032
 1.4120	28.5453
 1.4110	28.4952
 1.4100	28.4185
 1.4090	28.3877
 1.4080	28.3478
 1.4070	28.3222
 1.4060	28.2402
 1.4050	28.2578
 1.4040	28.1553
 1.4030	28.1315
 1.4020	27.8525
 1.4010	27.6575
 1.4000	27.3637
 1.3990	27.0571
 1.3980	26.7012
 1.3970	26.3450
 1.3960	25.7773
 1.3950	25.3754
 1.3940	24.7691
 1.3930	24.6235
 1.3920	24.2227
 1.3910	24.2010
 1.3900	24.2596
 1.3890	24.7603
 1.3880	25.1346
 1.3870	26.0768
 1.3860	26.8970
 1.3850	27.6833
 1.3840	28.3048
 1.3830	28.9399
 1.3820	29.1120
 1.3810	29.4043
 1.3800	29.3580
 1.3790	29.4179
 1.3780	29.4590
 1.3770	29.4879
 1.3760	29.3254
 1.3750	29.2854
 1.3740	29.2265
 1.3730	29.2381
 1.3720	29.1169
 1.3710	29.1814
 1.3700	29.0984
 1.3690	29.1492
 1.3680	29.0163
