Name: Garnetiferous Mica Schist
Type: Rock
Class: Metamorphic
Subclass: Schist
Particle Size: Solid
Sample No.: Ward84
Owner: JPL
Wavelength Range: All
Origin: Gassets, Windsor County, Vermont.
Collection Date: N/A
Description: The hand specimen is a porphyroblastic, schistose rockcomposed of scaly, silvery mica, quartz and garnet with biotite andsome staurolite and occasional kyanite. Geologic age - Upper Cambrian(?)Ward's Collection of American Rocks. Measurement: Hemispherical reflectanceCollected by:  Ward's Natural Science Original ASTER Spectral Library name was jpl.nicolet.rock.metamorphic.schist.solid.ward84.spectrum.txt
Measurement: Hemispherical reflectance
First Column: X
Second Column: Y 
X Units: Wavelength (micrometers)
Y Units: Reflectance (percent)
First X Value: 15.3416
Last X Value:  1.9998
Number of X Values: 2256
Additional Information: none

15.3416	 2.2065
15.2964	 2.2738
15.2514	 2.1757
15.2066	 2.2775
15.1622	 2.7004
15.1180	 2.8574
15.0740	 2.7769
15.0303	 2.6601
14.9869	 2.4335
14.9437	 2.5647
14.9008	 3.0536
14.8581	 3.2093
14.8156	 2.9947
14.7734	 3.1307
14.7314	 3.2071
14.6897	 3.2398
14.6482	 3.0199
14.6069	 3.1014
14.5659	 3.4172
14.5251	 3.6080
14.4845	 3.6505
14.4442	 3.4381
14.4041	 3.2908
14.3642	 3.3337
14.3245	 3.2952
14.2850	 3.2194
14.2458	 3.2736
14.2068	 3.5345
14.1679	 3.4869
14.1293	 3.4455
14.0909	 3.6221
14.0528	 3.6581
14.0148	 3.6259
13.9770	 3.7953
13.9394	 4.0289
13.9021	 3.9548
13.8649	 3.7416
13.8279	 3.7778
13.7911	 3.9427
13.7546	 3.9664
13.7182	 4.2399
13.6820	 4.2699
13.6460	 4.1557
13.6101	 4.2499
13.5745	 4.4598
13.5391	 4.4473
13.5038	 4.3266
13.4687	 4.3007
13.4339	 4.3397
13.3991	 4.3286
13.3646	 4.4673
13.3302	 4.4883
13.2961	 4.4176
13.2621	 4.3907
13.2282	 4.4787
13.1946	 4.4080
13.1611	 4.2270
13.1278	 4.0367
13.0946	 3.9159
13.0616	 4.0151
13.0288	 4.0907
12.9962	 3.9819
12.9637	 4.2451
12.9313	 4.6112
12.8992	 4.8021
12.8672	 5.0230
12.8353	 5.2257
12.8036	 5.4451
12.7721	 5.5466
12.7407	 5.5231
12.7095	 5.3527
12.6784	 5.1616
12.6475	 5.0550
12.6167	 5.1229
12.5861	 5.3321
12.5556	 5.7137
12.5253	 5.8978
12.4951	 5.6819
12.4651	 5.4773
12.4352	 5.2481
12.4054	 5.1890
12.3758	 4.7312
12.3463	 4.2213
12.3170	 4.0547
12.2878	 4.0459
12.2588	 4.0038
12.2299	 4.0606
12.2011	 4.1589
12.1725	 4.4140
12.1439	 4.7536
12.1156	 4.8794
12.0873	 4.9295
12.0592	 4.9373
12.0312	 4.9952
12.0034	 5.1334
11.9757	 5.4311
11.9481	 5.6878
11.9206	 5.6573
11.8933	 5.6505
11.8661	 5.9166
11.8390	 6.2089
11.8120	 6.4760
11.7852	 6.6864
11.7584	 6.7871
11.7318	 6.8289
11.7053	 6.9641
11.6790	 7.1022
11.6527	 7.1502
11.6266	 7.4447
11.6006	 7.6537
11.5747	 7.6767
11.5489	 7.7922
11.5233	 7.9217
11.4977	 8.0325
11.4723	 8.1438
11.4469	 8.3361
11.4217	 8.5144
11.3966	 8.6274
11.3716	 8.6274
11.3468	 8.5837
11.3220	 8.4171
11.2973	 8.2464
11.2728	 8.2284
11.2483	 8.2772
11.2240	 8.3108
11.1997	 8.4543
11.1756	 8.7873
11.1515	 9.1422
11.1276	 9.4487
11.1038	 9.6731
11.0801	 9.7784
11.0564	 9.9048
11.0329	 9.9279
11.0095	 9.9858
10.9862	 9.9923
10.9629	 9.8039
10.9398	 9.7148
10.9168	 9.7509
10.8938	 9.7597
10.8710	 9.5602
10.8483	 9.4233
10.8256	 9.2950
10.8031	 9.1589
10.7806	 8.9268
10.7582	 8.7905
10.7360	 8.8669
10.7138	 8.8770
10.6917	 8.8122
10.6697	 8.8983
10.6478	 9.0500
10.6260	 9.1442
10.6042	 9.2840
10.5826	 9.4809
10.5610	 9.6279
10.5396	10.0379
10.5182	10.5679
10.4969	10.9744
10.4757	11.3317
10.4546	11.7944
10.4335	12.3882
10.4126	12.9179
10.3917	13.3904
10.3709	13.7785
10.3502	14.1660
10.3296	14.5689
10.3091	14.8982
10.2886	15.1517
10.2683	15.4816
10.2480	15.8572
10.2277	16.0410
10.2076	16.3496
10.1876	16.6754
10.1676	16.9236
10.1477	17.1018
10.1279	17.3226
10.1081	17.8027
10.0885	18.1828
10.0689	18.3771
10.0494	18.4710
10.0299	18.6028
10.0106	18.8778
 9.9913	19.2663
 9.9720	19.5641
 9.9529	19.8526
 9.9338	20.1401
 9.9148	20.2535
 9.8959	20.4663
 9.8771	20.6851
 9.8583	20.8461
 9.8396	21.0804
 9.8210	21.2991
 9.8024	21.5891
 9.7839	21.9822
 9.7655	22.2272
 9.7471	22.3684
 9.7288	22.6214
 9.7106	22.8735
 9.6925	23.2566
 9.6744	23.5363
 9.6564	23.6708
 9.6384	23.7506
 9.6205	23.7769
 9.6027	23.6914
 9.5850	23.4428
 9.5673	23.0169
 9.5497	22.6888
 9.5321	22.3540
 9.5146	22.0231
 9.4972	21.9151
 9.4798	21.8019
 9.4625	21.5335
 9.4453	21.5903
 9.4281	22.0009
 9.4110	22.4093
 9.3940	22.8780
 9.3770	23.4379
 9.3600	23.8501
 9.3432	24.1298
 9.3264	24.3764
 9.3096	24.5778
 9.2930	24.8817
 9.2763	25.4454
 9.2598	25.6978
 9.2432	25.5965
 9.2268	25.4837
 9.2104	25.4905
 9.1941	25.5089
 9.1778	25.4665
 9.1616	25.5393
 9.1454	25.5556
 9.1293	25.4662
 9.1133	25.3065
 9.0973	25.1774
 9.0814	25.0456
 9.0655	24.7151
 9.0497	24.4575
 9.0339	24.2378
 9.0182	24.1380
 9.0025	23.8635
 8.9870	23.6053
 8.9714	23.3276
 8.9559	22.8394
 8.9405	22.3125
 8.9251	21.9849
 8.9097	21.6124
 8.8945	21.1451
 8.8792	20.5770
 8.8641	20.0316
 8.8489	19.5692
 8.8338	19.0344
 8.8188	18.5641
 8.8039	18.0695
 8.7889	17.3920
 8.7741	16.7710
 8.7592	15.9541
 8.7445	15.1078
 8.7297	14.3450
 8.7151	13.6347
 8.7005	12.9406
 8.6859	12.1331
 8.6714	11.2808
 8.6569	10.2492
 8.6425	 9.2141
 8.6281	 8.6869
 8.6137	 8.8041
 8.5994	 9.0907
 8.5852	 9.5143
 8.5710	 9.7973
 8.5569	 9.7836
 8.5428	 9.8120
 8.5287	 9.8628
 8.5147	 9.7737
 8.5008	 9.5228
 8.4869	 9.4206
 8.4730	 9.2729
 8.4592	 9.1128
 8.4454	 9.0254
 8.4316	 9.0441
 8.4180	 9.1298
 8.4043	 9.0290
 8.3907	 8.8173
 8.3772	 8.8182
 8.3637	 8.7887
 8.3502	 8.7664
 8.3368	 8.6642
 8.3234	 8.5244
 8.3100	 8.4505
 8.2967	 8.5850
 8.2835	 8.6059
 8.2703	 8.3408
 8.2571	 8.2588
 8.2440	 8.3867
 8.2309	 8.3881
 8.2179	 8.2845
 8.2049	 8.1764
 8.1919	 8.1288
 8.1790	 8.0008
 8.1661	 7.6574
 8.1532	 7.3555
 8.1404	 7.0538
 8.1277	 6.7063
 8.1150	 6.3706
 8.1023	 6.0318
 8.0897	 5.6468
 8.0770	 5.3767
 8.0645	 5.0633
 8.0520	 4.7196
 8.0395	 4.4801
 8.0270	 4.2477
 8.0146	 4.0772
 8.0023	 3.9001
 7.9899	 3.5332
 7.9776	 3.3066
 7.9654	 3.1914
 7.9532	 2.9728
 7.9410	 2.8534
 7.9288	 2.7741
 7.9167	 2.6630
 7.9047	 2.5848
 7.8926	 2.4205
 7.8807	 2.3658
 7.8687	 2.3137
 7.8568	 2.2443
 7.8449	 2.1843
 7.8330	 2.1073
 7.8212	 2.0753
 7.8094	 2.0609
 7.7977	 1.9238
 7.7860	 1.9202
 7.7743	 2.0497
 7.7627	 2.0594
 7.7511	 1.9660
 7.7395	 1.9410
 7.7280	 1.9118
 7.7165	 1.9102
 7.7050	 1.9602
 7.6936	 2.0106
 7.6822	 1.9405
 7.6708	 1.8628
 7.6595	 1.8452
 7.6482	 1.9627
 7.6369	 1.9994
 7.6257	 1.9680
 7.6145	 2.0919
 7.6033	 2.0876
 7.5922	 2.0485
 7.5811	 2.0532
 7.5700	 2.2039
 7.5590	 2.2144
 7.5480	 2.1585
 7.5370	 2.0883
 7.5261	 2.0925
 7.5152	 2.1047
 7.5043	 2.0871
 7.4935	 2.0677
 7.4826	 2.1103
 7.4718	 2.2344
 7.4611	 2.2944
 7.4504	 2.3332
 7.4397	 2.3260
 7.4290	 2.3090
 7.4184	 2.3330
 7.4078	 2.4552
 7.3972	 2.4373
 7.3867	 2.3381
 7.3762	 2.4371
 7.3657	 2.4839
 7.3553	 2.4811
 7.3449	 2.5478
 7.3345	 2.5760
 7.3241	 2.5372
 7.3138	 2.5269
 7.3035	 2.5783
 7.2932	 2.6355
 7.2830	 2.6610
 7.2727	 2.6757
 7.2626	 2.7808
 7.2524	 2.8456
 7.2423	 2.8426
 7.2322	 2.9215
 7.2221	 2.9871
 7.2120	 2.9457
 7.2020	 2.8786
 7.1921	 2.8910
 7.1821	 2.8737
 7.1722	 2.9388
 7.1623	 3.0881
 7.1524	 3.1007
 7.1425	 3.0326
 7.1327	 3.0119
 7.1229	 3.0735
 7.1131	 3.1488
 7.1034	 3.1403
 7.0937	 3.1538
 7.0840	 3.2574
 7.0743	 3.3061
 7.0647	 3.3173
 7.0551	 3.3378
 7.0455	 3.2909
 7.0359	 3.3267
 7.0264	 3.4346
 7.0169	 3.3751
 7.0074	 3.2575
 6.9979	 3.3072
 6.9885	 3.4399
 6.9791	 3.4662
 6.9697	 3.5291
 6.9604	 3.6456
 6.9510	 3.6030
 6.9417	 3.5861
 6.9324	 3.6768
 6.9232	 3.7746
 6.9140	 3.8651
 6.9047	 3.9083
 6.8956	 3.8658
 6.8864	 3.7875
 6.8773	 3.8150
 6.8682	 3.8822
 6.8591	 3.9552
 6.8500	 3.9382
 6.8410	 3.9346
 6.8320	 3.9547
 6.8230	 4.0038
 6.8140	 4.0240
 6.8051	 4.0455
 6.7962	 4.1646
 6.7873	 4.2764
 6.7784	 4.3429
 6.7695	 4.3818
 6.7607	 4.3261
 6.7519	 4.2987
 6.7431	 4.2783
 6.7344	 4.3160
 6.7256	 4.4759
 6.7169	 4.5501
 6.7082	 4.5078
 6.6996	 4.5236
 6.6909	 4.6110
 6.6823	 4.7005
 6.6737	 4.6906
 6.6651	 4.7051
 6.6566	 4.6912
 6.6480	 4.7130
 6.6395	 4.7276
 6.6310	 4.7324
 6.6226	 4.7279
 6.6141	 4.7629
 6.6057	 4.8452
 6.5973	 4.9111
 6.5889	 4.8906
 6.5805	 4.8899
 6.5722	 4.9378
 6.5639	 4.9771
 6.5556	 5.0321
 6.5473	 5.1495
 6.5390	 5.2540
 6.5308	 5.2101
 6.5226	 5.1850
 6.5144	 5.1149
 6.5062	 5.0728
 6.4981	 5.2118
 6.4900	 5.3321
 6.4818	 5.3670
 6.4737	 5.4321
 6.4657	 5.4199
 6.4576	 5.3333
 6.4496	 5.3139
 6.4416	 5.3931
 6.4336	 5.4441
 6.4256	 5.5626
 6.4177	 5.6966
 6.4097	 5.6272
 6.4018	 5.4632
 6.3939	 5.3940
 6.3860	 5.3836
 6.3782	 5.4734
 6.3704	 5.4815
 6.3625	 5.4631
 6.3547	 5.5442
 6.3470	 5.6033
 6.3392	 5.5112
 6.3315	 5.5377
 6.3237	 5.6255
 6.3160	 5.6061
 6.3083	 5.5274
 6.3007	 5.5391
 6.2930	 5.5999
 6.2854	 5.6375
 6.2778	 5.6747
 6.2702	 5.5893
 6.2626	 5.5503
 6.2551	 5.5109
 6.2476	 5.4908
 6.2400	 5.5575
 6.2325	 5.5288
 6.2251	 5.4564
 6.2176	 5.3875
 6.2101	 5.3828
 6.2027	 5.3201
 6.1953	 5.3169
 6.1879	 5.4097
 6.1805	 5.4022
 6.1732	 5.3515
 6.1658	 5.3197
 6.1585	 5.2691
 6.1512	 5.2159
 6.1439	 5.2640
 6.1367	 5.3522
 6.1294	 5.3401
 6.1222	 5.3331
 6.1149	 5.3805
 6.1077	 5.3637
 6.1006	 5.3093
 6.0934	 5.2867
 6.0862	 5.3652
 6.0791	 5.3409
 6.0720	 5.3060
 6.0649	 5.3467
 6.0578	 5.3133
 6.0507	 5.2990
 6.0437	 5.2802
 6.0366	 5.2143
 6.0296	 5.1969
 6.0226	 5.2070
 6.0156	 5.1695
 6.0087	 5.0954
 6.0017	 5.0881
 5.9948	 5.1216
 5.9878	 5.0967
 5.9809	 4.9508
 5.9740	 4.9771
 5.9672	 5.0772
 5.9603	 5.0828
 5.9535	 5.1052
 5.9466	 5.0878
 5.9398	 5.1428
 5.9330	 5.0851
 5.9262	 5.0325
 5.9195	 5.0305
 5.9127	 5.0236
 5.9060	 5.0686
 5.8993	 5.1180
 5.8926	 5.1060
 5.8859	 5.1149
 5.8792	 5.0680
 5.8726	 5.1063
 5.8659	 5.2138
 5.8593	 5.2154
 5.8527	 5.1998
 5.8461	 5.2172
 5.8395	 5.2679
 5.8329	 5.3338
 5.8264	 5.3300
 5.8198	 5.3039
 5.8133	 5.2586
 5.8068	 5.1875
 5.8003	 5.2286
 5.7938	 5.2687
 5.7874	 5.2815
 5.7809	 5.3144
 5.7745	 5.3667
 5.7680	 5.5230
 5.7616	 5.5022
 5.7552	 5.3928
 5.7489	 5.4297
 5.7425	 5.5053
 5.7361	 5.5491
 5.7298	 5.5874
 5.7235	 5.5818
 5.7172	 5.5423
 5.7109	 5.5308
 5.7046	 5.5912
 5.6983	 5.6570
 5.6921	 5.5964
 5.6858	 5.5049
 5.6796	 5.4201
 5.6734	 5.3979
 5.6672	 5.4263
 5.6610	 5.4839
 5.6548	 5.5238
 5.6487	 5.5330
 5.6425	 5.5824
 5.6364	 5.5673
 5.6303	 5.5099
 5.6242	 5.4319
 5.6181	 5.4038
 5.6120	 5.4569
 5.6059	 5.5184
 5.5999	 5.5111
 5.5938	 5.4341
 5.5878	 5.4293
 5.5818	 5.4419
 5.5758	 5.4835
 5.5698	 5.4470
 5.5638	 5.4744
 5.5578	 5.5241
 5.5519	 5.5200
 5.5460	 5.5004
 5.5400	 5.5240
 5.5341	 5.5963
 5.5282	 5.5907
 5.5223	 5.5654
 5.5164	 5.5841
 5.5106	 5.6162
 5.5047	 5.6562
 5.4989	 5.6449
 5.4931	 5.6435
 5.4873	 5.6763
 5.4815	 5.6919
 5.4757	 5.7476
 5.4699	 5.8213
 5.4641	 5.8809
 5.4584	 5.8249
 5.4527	 5.9311
 5.4469	 6.0209
 5.4412	 5.9098
 5.4355	 5.9036
 5.4298	 5.9550
 5.4241	 5.9840
 5.4185	 6.0034
 5.4128	 5.9814
 5.4072	 5.9822
 5.4015	 5.9810
 5.3959	 6.0769
 5.3903	 6.1766
 5.3847	 6.1365
 5.3791	 6.0902
 5.3735	 6.0309
 5.3680	 6.0716
 5.3624	 6.1425
 5.3569	 6.1472
 5.3514	 6.1276
 5.3458	 6.1805
 5.3403	 6.3509
 5.3348	 6.4498
 5.3294	 6.3969
 5.3239	 6.4346
 5.3184	 6.4755
 5.3130	 6.4458
 5.3075	 6.5350
 5.3021	 6.6409
 5.2967	 6.6882
 5.2913	 6.7643
 5.2859	 6.8068
 5.2805	 6.9100
 5.2751	 6.9667
 5.2698	 7.0011
 5.2644	 7.0939
 5.2591	 7.1921
 5.2538	 7.2529
 5.2485	 7.3229
 5.2431	 7.4665
 5.2378	 7.5311
 5.2326	 7.5250
 5.2273	 7.6052
 5.2220	 7.6912
 5.2168	 7.7807
 5.2115	 7.8919
 5.2063	 7.9915
 5.2011	 8.1072
 5.1959	 8.1008
 5.1907	 8.1720
 5.1855	 8.1973
 5.1803	 8.2279
 5.1751	 8.3559
 5.1700	 8.4333
 5.1648	 8.4760
 5.1597	 8.5671
 5.1545	 8.6424
 5.1494	 8.7750
 5.1443	 8.7693
 5.1392	 8.8170
 5.1341	 8.8953
 5.1291	 8.8651
 5.1240	 8.8376
 5.1189	 8.9652
 5.1139	 9.0691
 5.1088	 9.1448
 5.1038	 9.1669
 5.0988	 9.1724
 5.0938	 9.1679
 5.0888	 9.1606
 5.0838	 9.2738
 5.0788	 9.3574
 5.0738	 9.4266
 5.0689	 9.3825
 5.0639	 9.2831
 5.0590	 9.2194
 5.0541	 9.2957
 5.0491	 9.3898
 5.0442	 9.3545
 5.0393	 9.3049
 5.0344	 9.3090
 5.0296	 9.4183
 5.0247	 9.4642
 5.0198	 9.4888
 5.0150	 9.4881
 5.0101	 9.4740
 5.0053	 9.4951
 5.0004	 9.5094
 4.9956	 9.4855
 4.9908	 9.4329
 4.9860	 9.4606
 4.9812	 9.5176
 4.9765	 9.5628
 4.9717	 9.5711
 4.9669	 9.5446
 4.9622	 9.5440
 4.9574	 9.5505
 4.9527	 9.5503
 4.9480	 9.6163
 4.9432	 9.7120
 4.9385	 9.7032
 4.9338	 9.7049
 4.9291	 9.7010
 4.9245	 9.7596
 4.9198	 9.8915
 4.9151	 9.9643
 4.9105	 9.9235
 4.9058	 9.9865
 4.9012	10.0908
 4.8966	10.1792
 4.8919	10.2605
 4.8873	10.3163
 4.8827	10.3770
 4.8781	10.4621
 4.8736	10.5996
 4.8690	10.7760
 4.8644	10.9038
 4.8599	10.9495
 4.8553	10.9430
 4.8508	11.0059
 4.8462	11.0809
 4.8417	11.1777
 4.8372	11.2910
 4.8327	11.3476
 4.8282	11.3940
 4.8237	11.4765
 4.8192	11.5527
 4.8147	11.5763
 4.8103	11.6219
 4.8058	11.7106
 4.8014	11.7448
 4.7969	11.7905
 4.7925	11.9266
 4.7881	12.0333
 4.7836	12.0488
 4.7792	12.1925
 4.7748	12.3749
 4.7704	12.3375
 4.7660	12.3432
 4.7617	12.4759
 4.7573	12.5935
 4.7530	12.6819
 4.7486	12.7182
 4.7443	12.7799
 4.7399	12.9001
 4.7356	12.9263
 4.7313	12.9643
 4.7270	13.0718
 4.7226	13.0950
 4.7184	13.1349
 4.7141	13.2660
 4.7098	13.3372
 4.7055	13.3258
 4.7012	13.3441
 4.6970	13.3391
 4.6927	13.3198
 4.6885	13.3957
 4.6842	13.4952
 4.6800	13.5036
 4.6758	13.5385
 4.6716	13.5816
 4.6674	13.6813
 4.6632	13.8283
 4.6590	14.0364
 4.6548	14.1942
 4.6506	14.3891
 4.6465	14.5981
 4.6423	14.7242
 4.6382	14.8524
 4.6340	15.0166
 4.6299	15.1378
 4.6258	15.2395
 4.6216	15.3241
 4.6175	15.4304
 4.6134	15.5504
 4.6093	15.7003
 4.6052	15.8445
 4.6011	15.9057
 4.5971	15.9690
 4.5930	16.1421
 4.5889	16.3245
 4.5849	16.4169
 4.5808	16.4142
 4.5768	16.4516
 4.5727	16.5715
 4.5687	16.6445
 4.5647	16.6290
 4.5607	16.6797
 4.5567	16.7661
 4.5526	16.8719
 4.5487	16.8951
 4.5447	16.8761
 4.5407	16.8984
 4.5367	16.9198
 4.5328	16.9979
 4.5288	17.0482
 4.5248	17.0540
 4.5209	16.9505
 4.5170	16.9749
 4.5130	17.0674
 4.5091	17.0234
 4.5052	17.0297
 4.5013	17.0760
 4.4974	16.9758
 4.4935	16.9308
 4.4896	17.0560
 4.4857	17.0294
 4.4818	17.0265
 4.4779	17.0655
 4.4741	17.1277
 4.4702	17.3114
 4.4664	17.4304
 4.4625	17.5016
 4.4587	17.7245
 4.4549	17.9104
 4.4510	18.0714
 4.4472	18.2968
 4.4434	18.3258
 4.4396	18.3475
 4.4358	18.4512
 4.4320	18.5794
 4.4282	18.7000
 4.4245	18.7928
 4.4207	19.0028
 4.4169	19.1614
 4.4132	19.1899
 4.4094	19.3255
 4.4057	19.5104
 4.4019	19.6379
 4.3982	19.7494
 4.3945	19.9627
 4.3907	20.2196
 4.3870	20.3002
 4.3833	20.3322
 4.3796	20.4726
 4.3759	20.5831
 4.3722	20.6314
 4.3685	20.7243
 4.3649	20.8661
 4.3612	20.9820
 4.3575	21.1251
 4.3539	21.2389
 4.3502	21.2999
 4.3466	21.4252
 4.3429	21.5193
 4.3393	21.5157
 4.3357	21.5888
 4.3320	21.6745
 4.3284	21.7726
 4.3248	21.8081
 4.3212	21.7250
 4.3176	21.6981
 4.3140	21.6868
 4.3105	21.6837
 4.3069	21.7309
 4.3033	21.6922
 4.2997	21.7003
 4.2962	21.6680
 4.2926	21.5824
 4.2890	21.6695
 4.2855	21.6882
 4.2820	21.6966
 4.2784	21.7771
 4.2749	21.7867
 4.2714	21.8575
 4.2679	22.0355
 4.2644	22.2030
 4.2609	22.2344
 4.2574	22.2438
 4.2539	22.3648
 4.2504	22.4058
 4.2469	22.2490
 4.2434	22.1785
 4.2400	22.2804
 4.2365	22.3174
 4.2330	22.4132
 4.2296	22.4061
 4.2261	22.3693
 4.2227	22.4451
 4.2193	22.4318
 4.2158	22.4921
 4.2124	22.5716
 4.2090	22.6372
 4.2056	22.6598
 4.2022	22.7590
 4.1988	22.7870
 4.1954	22.8634
 4.1920	22.9895
 4.1886	22.9554
 4.1852	22.8789
 4.1818	22.8587
 4.1785	22.8590
 4.1751	22.9510
 4.1717	23.1463
 4.1684	23.2710
 4.1650	23.3513
 4.1617	23.3280
 4.1584	23.2833
 4.1550	23.3241
 4.1517	23.3428
 4.1484	23.4146
 4.1451	23.4678
 4.1418	23.4958
 4.1384	23.5336
 4.1351	23.6160
 4.1319	23.6628
 4.1286	23.7467
 4.1253	23.8225
 4.1220	23.8935
 4.1187	23.9608
 4.1155	23.9835
 4.1122	24.1085
 4.1089	24.0156
 4.1057	23.8854
 4.1024	23.9429
 4.0992	24.0599
 4.0959	24.0868
 4.0927	24.1494
 4.0895	24.3329
 4.0863	24.3757
 4.0830	24.4421
 4.0798	24.5684
 4.0766	24.6947
 4.0734	24.6516
 4.0702	24.5093
 4.0670	24.5330
 4.0639	24.4986
 4.0607	24.5723
 4.0575	24.6857
 4.0543	24.5964
 4.0511	24.5862
 4.0480	24.6700
 4.0448	24.7125
 4.0417	24.7292
 4.0385	24.6671
 4.0354	24.6582
 4.0323	24.7006
 4.0291	24.6116
 4.0260	24.6092
 4.0229	24.6920
 4.0197	24.7924
 4.0166	24.8327
 4.0135	24.7183
 4.0104	24.7415
 4.0073	24.7687
 4.0042	24.7069
 4.0011	24.8042
 3.9981	24.9026
 3.9950	24.7620
 3.9919	24.8332
 3.9888	25.0483
 3.9857	25.0697
 3.9827	25.0406
 3.9796	25.2136
 3.9766	25.2472
 3.9735	25.1630
 3.9705	25.1007
 3.9675	24.9837
 3.9644	25.0193
 3.9614	25.3228
 3.9584	25.4088
 3.9554	25.3602
 3.9523	25.3586
 3.9493	25.4156
 3.9463	25.4721
 3.9433	25.5059
 3.9403	25.6617
 3.9373	25.7140
 3.9343	25.7360
 3.9314	25.7618
 3.9284	25.7733
 3.9254	25.8315
 3.9224	25.8833
 3.9195	25.9560
 3.9165	25.9766
 3.9136	25.9058
 3.9106	25.7984
 3.9077	25.8679
 3.9047	25.9032
 3.9018	25.8378
 3.8988	25.8258
 3.8959	25.8849
 3.8930	25.9376
 3.8901	25.9825
 3.8872	25.8899
 3.8842	25.8932
 3.8813	26.0385
 3.8784	26.0112
 3.8755	25.9420
 3.8726	25.9194
 3.8697	25.9526
 3.8669	25.9156
 3.8640	25.9124
 3.8611	25.9230
 3.8582	25.8321
 3.8554	25.8611
 3.8525	25.8374
 3.8496	25.8659
 3.8468	26.0111
 3.8439	26.0213
 3.8411	25.9676
 3.8382	25.9362
 3.8354	26.0637
 3.8326	26.1754
 3.8297	26.1699
 3.8269	26.2464
 3.8241	26.2792
 3.8213	26.2432
 3.8185	26.2056
 3.8157	26.1035
 3.8128	26.1197
 3.8100	26.3079
 3.8072	26.3323
 3.8045	26.2666
 3.8017	26.3681
 3.7989	26.3005
 3.7961	26.1970
 3.7933	26.2083
 3.7906	26.3465
 3.7878	26.3590
 3.7850	26.2731
 3.7822	26.1316
 3.7795	26.1190
 3.7767	26.0162
 3.7740	25.8269
 3.7713	25.8529
 3.7685	25.8460
 3.7658	25.6990
 3.7630	25.6375
 3.7603	25.6781
 3.7576	25.6404
 3.7549	25.4284
 3.7521	25.1534
 3.7494	25.0848
 3.7467	25.0287
 3.7440	24.8597
 3.7413	24.6916
 3.7386	24.6539
 3.7359	24.5835
 3.7332	24.5066
 3.7306	24.4139
 3.7279	24.4209
 3.7252	24.4733
 3.7225	24.6415
 3.7199	24.7114
 3.7172	24.5751
 3.7145	24.4922
 3.7119	24.4321
 3.7092	24.4262
 3.7066	24.4400
 3.7039	24.5698
 3.7013	24.6701
 3.6986	24.8418
 3.6960	24.8495
 3.6934	24.8459
 3.6907	24.9122
 3.6881	25.0326
 3.6855	25.1962
 3.6829	25.2592
 3.6803	25.3081
 3.6776	25.2811
 3.6750	25.3630
 3.6724	25.3587
 3.6698	25.1923
 3.6672	25.2177
 3.6646	25.2667
 3.6620	25.3323
 3.6595	25.3841
 3.6569	25.5612
 3.6543	25.7303
 3.6517	25.7700
 3.6492	25.7690
 3.6466	25.7162
 3.6440	25.8398
 3.6415	26.0330
 3.6389	26.1882
 3.6364	26.2179
 3.6338	26.1785
 3.6313	26.2987
 3.6287	26.4577
 3.6262	26.5135
 3.6237	26.5493
 3.6211	26.6540
 3.6186	26.6820
 3.6161	26.5400
 3.6136	26.6028
 3.6111	26.8494
 3.6085	27.0592
 3.6060	27.0429
 3.6035	26.9596
 3.6010	27.0230
 3.5985	26.9712
 3.5960	26.7570
 3.5935	26.6677
 3.5910	26.8244
 3.5886	27.0311
 3.5861	26.9875
 3.5836	26.8524
 3.5811	26.8835
 3.5787	27.0353
 3.5762	26.9769
 3.5737	26.9658
 3.5713	27.2146
 3.5688	27.2098
 3.5663	27.1541
 3.5639	27.1500
 3.5614	27.1386
 3.5590	27.0717
 3.5566	27.0286
 3.5541	26.9663
 3.5517	27.0205
