Name: Gray Slate
Type: Rock
Class: Metamorphic
Subclass: Slate
Particle Size: Solid
Sample No.: Ward92
Owner: JPL
Wavelength Range: All
Origin: Ward's Collection of American Rocks.  Sample locality - near Bangor, Northampton County, Pennsylvania.  Collected by - JPL.
Collection Date: N/A
Description: A dark gray fissile rock containing some carbonate.Geologic age - Ordovician.Collected by:  Ward's Natural Science Original ASTER Spectral Library name was jpl.nicolet.rock.metamorphic.slate.solid.ward92.spectrum.txt
Measurement: Hemispherical reflectance
First Column: X
Second Column: Y
X Units: Wavelength (micrometers)
Y Units:Reflectance (percent)
First X Value: 15.3871
Last X Value:  1.9998
Number of X Values: 2257
Additional Information: none

15.3871	 4.0894
15.3416	 3.9334
15.2964	 3.7695
15.2514	 3.7828
15.2066	 3.7892
15.1622	 3.8513
15.1180	 4.0963
15.0740	 4.2252
15.0303	 4.2532
14.9869	 4.3196
14.9437	 4.4280
14.9008	 4.6226
14.8581	 4.5681
14.8156	 4.5803
14.7734	 4.5412
14.7314	 4.8035
14.6897	 4.8847
14.6482	 4.7382
14.6069	 4.8536
14.5659	 4.9015
14.5251	 4.9365
14.4845	 5.1894
14.4442	 5.2111
14.4041	 4.7106
14.3642	 4.2630
14.3245	 3.9313
14.2850	 3.7961
14.2458	 4.0211
14.2068	 4.1882
14.1679	 4.2019
14.1293	 4.3625
14.0909	 4.9961
14.0528	 5.5090
14.0148	 5.3496
13.9770	 5.1527
13.9394	 5.1706
13.9021	 5.3215
13.8649	 5.4068
13.8279	 5.4600
13.7911	 5.5657
13.7546	 5.4404
13.7182	 5.3577
13.6820	 5.5942
13.6460	 5.9182
13.6101	 5.9853
13.5745	 6.1668
13.5391	 6.3903
13.5038	 6.2265
13.4687	 6.1223
13.4339	 6.3515
13.3991	 6.2980
13.3646	 6.2988
13.3302	 6.5537
13.2961	 6.6809
13.2621	 6.7069
13.2282	 6.8237
13.1946	 6.9106
13.1611	 6.9790
13.1278	 7.1136
13.0946	 7.5525
13.0616	 7.7392
13.0288	 7.6415
12.9962	 7.9649
12.9637	 8.3725
12.9313	 8.5440
12.8992	 8.3506
12.8672	 8.0886
12.8353	 7.7176
12.8036	 7.2211
12.7721	 6.9657
12.7407	 6.6881
12.7095	 6.6453
12.6784	 6.7880
12.6475	 6.9431
12.6167	 7.3499
12.5861	 7.4396
12.5556	 7.0199
12.5253	 6.2788
12.4951	 5.5501
12.4651	 4.9004
12.4352	 4.4273
12.4054	 4.1118
12.3758	 3.8783
12.3463	 4.0700
12.3170	 4.5268
12.2878	 4.9739
12.2588	 5.0921
12.2299	 5.0621
12.2011	 5.2916
12.1725	 5.4823
12.1439	 5.6053
12.1156	 5.8479
12.0873	 6.0461
12.0592	 6.0544
12.0312	 5.9963
12.0034	 6.1668
11.9757	 6.2563
11.9481	 6.2437
11.9206	 6.3567
11.8933	 6.4822
11.8661	 6.5611
11.8390	 6.6293
11.8120	 6.6264
11.7852	 6.4883
11.7584	 6.4530
11.7318	 6.6283
11.7053	 6.7833
11.6790	 6.8815
11.6527	 7.0318
11.6266	 7.2029
11.6006	 7.2589
11.5747	 7.3095
11.5489	 7.4148
11.5233	 7.5327
11.4977	 7.5992
11.4723	 7.7736
11.4469	 7.8976
11.4217	 7.9540
11.3966	 8.1353
11.3716	 8.3264
11.3468	 8.4076
11.3220	 8.3015
11.2973	 8.3738
11.2728	 8.5636
11.2483	 8.6695
11.2240	 8.7434
11.1997	 8.9129
11.1756	 9.0974
11.1515	 9.1658
11.1276	 9.2418
11.1038	 9.4648
11.0801	 9.6282
11.0564	 9.6664
11.0329	 9.6428
11.0095	 9.5531
10.9862	 9.5517
10.9629	 9.5429
10.9398	 9.4562
10.9168	 9.4541
10.8938	 9.4462
10.8710	 9.4419
10.8483	 9.5123
10.8256	 9.7027
10.8031	 9.9966
10.7806	10.1182
10.7582	10.2732
10.7360	10.4885
10.7138	10.7388
10.6917	11.0879
10.6697	11.2395
10.6478	11.2775
10.6260	11.5191
10.6042	11.9692
10.5826	12.3807
10.5610	12.5899
10.5396	12.8176
10.5182	12.9861
10.4969	13.2399
10.4757	13.6960
10.4546	14.1667
10.4335	14.5224
10.4126	14.8017
10.3917	15.1626
10.3709	15.6847
10.3502	16.1386
10.3296	16.4829
10.3091	16.7947
10.2886	16.9505
10.2683	17.1394
10.2480	17.4135
10.2277	17.7024
10.2076	17.9886
10.1876	18.2608
10.1676	18.5324
10.1477	18.6901
10.1279	18.8656
10.1081	19.2111
10.0885	19.3616
10.0689	19.4508
10.0494	19.6527
10.0299	20.0302
10.0106	20.4940
 9.9913	20.8553
 9.9720	21.0143
 9.9529	21.1167
 9.9338	21.3238
 9.9148	21.4541
 9.8959	21.5999
 9.8771	21.7800
 9.8583	21.9535
 9.8396	22.1162
 9.8210	22.1564
 9.8024	22.4026
 9.7839	22.8417
 9.7655	23.1392
 9.7471	23.4215
 9.7288	23.9240
 9.7106	24.6409
 9.6925	25.2206
 9.6744	25.6938
 9.6564	26.0549
 9.6384	26.3180
 9.6205	26.4942
 9.6027	26.3823
 9.5850	26.4118
 9.5673	26.2677
 9.5497	26.1498
 9.5321	26.4401
 9.5146	26.5288
 9.4972	26.3282
 9.4798	26.3454
 9.4625	26.3538
 9.4453	26.5047
 9.4281	26.8773
 9.4110	27.3362
 9.3940	27.8659
 9.3770	28.3774
 9.3600	28.6433
 9.3432	28.6929
 9.3264	28.7001
 9.3096	28.6152
 9.2930	28.3685
 9.2763	28.1609
 9.2598	27.9941
 9.2432	28.0074
 9.2268	28.0988
 9.2104	28.2791
 9.1941	28.4824
 9.1778	28.6433
 9.1616	28.8069
 9.1454	28.9082
 9.1293	28.9854
 9.1133	29.0144
 9.0973	28.9499
 9.0814	28.7756
 9.0655	28.5871
 9.0497	28.2955
 9.0339	28.0875
 9.0182	28.0606
 9.0025	27.8987
 8.9870	27.6233
 8.9714	27.3935
 8.9559	27.2823
 8.9405	27.2570
 8.9251	27.3056
 8.9097	27.2060
 8.8945	26.9225
 8.8792	26.7047
 8.8641	26.4685
 8.8489	26.1869
 8.8338	25.9740
 8.8188	25.7015
 8.8039	25.3695
 8.7889	25.1174
 8.7741	24.9101
 8.7592	24.6647
 8.7445	24.2157
 8.7297	23.6110
 8.7151	23.0673
 8.7005	22.5523
 8.6859	21.7348
 8.6714	20.4766
 8.6569	19.0394
 8.6425	17.7004
 8.6281	16.9679
 8.6137	17.4821
 8.5994	18.8970
 8.5852	20.1150
 8.5710	20.7530
 8.5569	20.8367
 8.5428	20.8514
 8.5287	20.8227
 8.5147	20.5461
 8.5008	19.9920
 8.4869	19.5524
 8.4730	19.1015
 8.4592	18.6122
 8.4454	17.9507
 8.4316	17.1807
 8.4180	16.6849
 8.4043	16.1372
 8.3907	15.5646
 8.3772	15.0082
 8.3637	14.4413
 8.3502	14.1080
 8.3368	13.8136
 8.3234	13.4877
 8.3100	13.2625
 8.2967	13.0635
 8.2835	12.7339
 8.2703	12.5668
 8.2571	12.5592
 8.2440	12.4872
 8.2309	12.3194
 8.2179	12.2581
 8.2049	12.3361
 8.1919	12.3976
 8.1790	12.3746
 8.1661	12.2234
 8.1532	11.9014
 8.1404	11.7242
 8.1277	11.5841
 8.1150	11.3584
 8.1023	10.9707
 8.0897	10.5259
 8.0770	10.2747
 8.0645	 9.9367
 8.0520	 9.6603
 8.0395	 9.5280
 8.0270	 9.4032
 8.0146	 9.2142
 8.0023	 8.9490
 7.9899	 8.7170
 7.9776	 8.6372
 7.9654	 8.4813
 7.9532	 8.2676
 7.9410	 8.0927
 7.9288	 7.8733
 7.9167	 7.6522
 7.9047	 7.4623
 7.8926	 7.2144
 7.8807	 6.8652
 7.8687	 6.6565
 7.8568	 6.5310
 7.8449	 6.5127
 7.8330	 6.5672
 7.8212	 6.5546
 7.8094	 6.4212
 7.7977	 6.3048
 7.7860	 6.3934
 7.7743	 6.5608
 7.7627	 6.5633
 7.7511	 6.5066
 7.7395	 6.5242
 7.7280	 6.5974
 7.7165	 6.6706
 7.7050	 6.6121
 7.6936	 6.6410
 7.6822	 6.6800
 7.6708	 6.6033
 7.6595	 6.6876
 7.6482	 6.6998
 7.6369	 6.5441
 7.6257	 6.4411
 7.6145	 6.3177
 7.6033	 6.1377
 7.5922	 6.1363
 7.5811	 6.2168
 7.5700	 6.3354
 7.5590	 6.3892
 7.5480	 6.3972
 7.5370	 6.3118
 7.5261	 6.2663
 7.5152	 6.1399
 7.5043	 6.0530
 7.4935	 6.1048
 7.4826	 6.0449
 7.4718	 6.0331
 7.4611	 6.0594
 7.4504	 6.0595
 7.4397	 6.0228
 7.4290	 5.9617
 7.4184	 5.8639
 7.4078	 5.8263
 7.3972	 5.8752
 7.3867	 5.8171
 7.3762	 5.7306
 7.3657	 5.7214
 7.3553	 5.6767
 7.3449	 5.6076
 7.3345	 5.4565
 7.3241	 5.4601
 7.3138	 5.5078
 7.3035	 5.5869
 7.2932	 5.6392
 7.2830	 5.6301
 7.2727	 5.7066
 7.2626	 5.6552
 7.2524	 5.4627
 7.2423	 5.4660
 7.2322	 5.5308
 7.2221	 5.5598
 7.2120	 5.6693
 7.2020	 5.5950
 7.1921	 5.4496
 7.1821	 5.3338
 7.1722	 5.2777
 7.1623	 5.1707
 7.1524	 5.1081
 7.1425	 5.0838
 7.1327	 4.9850
 7.1229	 4.9684
 7.1131	 4.8498
 7.1034	 4.6147
 7.0937	 4.5411
 7.0840	 4.4619
 7.0743	 4.3173
 7.0647	 4.2337
 7.0551	 4.2413
 7.0455	 4.1921
 7.0359	 4.2190
 7.0264	 4.2810
 7.0169	 4.1545
 7.0074	 3.9650
 6.9979	 3.9642
 6.9885	 4.0288
 6.9791	 4.0736
 6.9697	 4.2210
 6.9604	 4.3510
 6.9510	 4.3295
 6.9417	 4.3075
 6.9324	 4.3283
 6.9232	 4.4514
 6.9140	 4.4248
 6.9047	 4.3537
 6.8956	 4.4540
 6.8864	 4.5642
 6.8773	 4.6528
 6.8682	 4.8215
 6.8591	 4.8713
 6.8500	 4.8380
 6.8410	 4.8945
 6.8320	 4.9435
 6.8230	 4.8539
 6.8140	 4.7604
 6.8051	 4.8017
 6.7962	 4.8369
 6.7873	 4.9020
 6.7784	 4.9379
 6.7695	 4.9260
 6.7607	 4.8287
 6.7519	 4.7406
 6.7431	 4.7204
 6.7344	 4.7654
 6.7256	 4.8475
 6.7169	 4.9200
 6.7082	 4.8757
 6.6996	 4.8234
 6.6909	 4.8191
 6.6823	 4.8550
 6.6737	 4.9446
 6.6651	 4.9597
 6.6566	 4.9666
 6.6480	 5.1405
 6.6395	 5.3040
 6.6310	 5.1857
 6.6226	 4.9987
 6.6141	 4.9226
 6.6057	 4.9121
 6.5973	 4.9857
 6.5889	 5.0114
 6.5805	 5.0400
 6.5722	 5.0391
 6.5639	 4.9080
 6.5556	 4.8873
 6.5473	 4.9100
 6.5390	 4.9825
 6.5308	 5.0798
 6.5226	 5.1384
 6.5144	 5.1787
 6.5062	 5.3360
 6.4981	 5.5878
 6.4900	 5.7162
 6.4818	 5.7204
 6.4737	 5.7173
 6.4657	 5.6609
 6.4576	 5.6123
 6.4496	 5.6778
 6.4416	 5.7370
 6.4336	 5.7923
 6.4256	 5.8310
 6.4177	 5.9365
 6.4097	 5.8958
 6.4018	 5.6607
 6.3939	 5.5299
 6.3860	 5.5894
 6.3782	 5.6256
 6.3704	 5.4738
 6.3625	 5.2854
 6.3547	 5.1637
 6.3470	 5.1232
 6.3392	 5.0967
 6.3315	 5.0568
 6.3237	 4.9233
 6.3160	 4.8011
 6.3083	 4.7780
 6.3007	 4.7187
 6.2930	 4.6433
 6.2854	 4.6960
 6.2778	 4.6354
 6.2702	 4.5456
 6.2626	 4.5040
 6.2551	 4.3720
 6.2476	 4.3434
 6.2400	 4.3877
 6.2325	 4.3899
 6.2251	 4.3688
 6.2176	 4.4560
 6.2101	 4.4162
 6.2027	 4.3765
 6.1953	 4.4647
 6.1879	 4.5205
 6.1805	 4.4895
 6.1732	 4.5376
 6.1658	 4.5612
 6.1585	 4.6207
 6.1512	 4.6618
 6.1439	 4.7229
 6.1367	 4.7464
 6.1294	 4.7242
 6.1222	 4.8426
 6.1149	 5.0226
 6.1077	 5.0578
 6.1006	 4.9153
 6.0934	 4.7904
 6.0862	 4.8378
 6.0791	 4.9333
 6.0720	 5.0291
 6.0649	 5.0881
 6.0578	 5.1876
 6.0507	 5.2466
 6.0437	 5.1287
 6.0366	 5.0230
 6.0296	 4.9585
 6.0226	 4.8684
 6.0156	 4.8828
 6.0087	 4.9180
 6.0017	 4.9333
 5.9948	 4.9038
 5.9878	 4.8228
 5.9809	 4.7269
 5.9740	 4.7711
 5.9672	 4.8123
 5.9603	 4.7130
 5.9535	 4.6312
 5.9466	 4.5506
 5.9398	 4.6711
 5.9330	 4.7197
 5.9262	 4.6235
 5.9195	 4.6738
 5.9127	 4.7730
 5.9060	 4.8585
 5.8993	 4.9100
 5.8926	 4.9322
 5.8859	 4.9958
 5.8792	 4.9546
 5.8726	 4.9146
 5.8659	 5.0394
 5.8593	 5.1610
 5.8527	 5.1961
 5.8461	 5.1402
 5.8395	 5.1527
 5.8329	 5.2532
 5.8264	 5.3750
 5.8198	 5.4529
 5.8133	 5.4357
 5.8068	 5.3806
 5.8003	 5.3957
 5.7938	 5.4838
 5.7874	 5.5193
 5.7809	 5.5274
 5.7745	 5.5439
 5.7680	 5.5347
 5.7616	 5.5434
 5.7552	 5.6279
 5.7489	 5.6424
 5.7425	 5.5959
 5.7361	 5.5718
 5.7298	 5.5929
 5.7235	 5.5818
 5.7172	 5.6195
 5.7109	 5.6182
 5.7046	 5.5804
 5.6983	 5.6488
 5.6921	 5.7169
 5.6858	 5.7188
 5.6796	 5.6405
 5.6734	 5.6700
 5.6672	 5.6586
 5.6610	 5.5525
 5.6548	 5.4403
 5.6487	 5.3939
 5.6425	 5.3155
 5.6364	 5.1750
 5.6303	 5.0831
 5.6242	 5.0793
 5.6181	 5.0982
 5.6120	 5.1217
 5.6059	 5.1426
 5.5999	 5.1169
 5.5938	 5.0658
 5.5878	 5.0487
 5.5818	 5.0569
 5.5758	 5.0645
 5.5698	 5.1379
 5.5638	 5.1935
 5.5578	 5.1665
 5.5519	 5.1339
 5.5460	 5.2190
 5.5400	 5.3060
 5.5341	 5.2208
 5.5282	 5.2139
 5.5223	 5.3100
 5.5164	 5.3477
 5.5106	 5.4078
 5.5047	 5.4798
 5.4989	 5.6155
 5.4931	 5.6989
 5.4873	 5.7329
 5.4815	 5.7748
 5.4757	 5.7803
 5.4699	 5.7317
 5.4641	 5.6922
 5.4584	 5.7725
 5.4527	 5.8267
 5.4469	 5.7571
 5.4412	 5.7358
 5.4355	 5.8149
 5.4298	 5.8643
 5.4241	 5.7600
 5.4185	 5.6513
 5.4128	 5.6254
 5.4072	 5.5518
 5.4015	 5.4227
 5.3959	 5.3336
 5.3903	 5.2796
 5.3847	 5.1047
 5.3791	 5.0509
 5.3735	 5.0545
 5.3680	 4.9819
 5.3624	 4.8763
 5.3569	 4.8691
 5.3514	 4.9062
 5.3458	 4.8498
 5.3403	 4.8608
 5.3348	 4.9513
 5.3294	 4.9709
 5.3239	 4.9999
 5.3184	 5.1290
 5.3130	 5.1415
 5.3075	 5.1405
 5.3021	 5.2235
 5.2967	 5.2098
 5.2913	 5.2330
 5.2859	 5.3023
 5.2805	 5.3154
 5.2751	 5.4235
 5.2698	 5.5248
 5.2644	 5.6083
 5.2591	 5.6914
 5.2538	 5.7632
 5.2485	 5.7993
 5.2431	 5.9388
 5.2378	 6.0945
 5.2326	 6.1635
 5.2273	 6.3815
 5.2220	 6.5819
 5.2168	 6.5923
 5.2115	 6.5861
 5.2063	 6.6488
 5.2011	 6.6950
 5.1959	 6.7669
 5.1907	 6.8807
 5.1855	 6.8801
 5.1803	 6.7728
 5.1751	 6.8340
 5.1700	 6.9080
 5.1648	 6.9152
 5.1597	 6.8896
 5.1545	 6.8292
 5.1494	 6.7687
 5.1443	 6.7694
 5.1392	 6.8858
 5.1341	 6.9574
 5.1291	 6.9668
 5.1240	 6.8887
 5.1189	 6.8485
 5.1139	 6.8442
 5.1088	 6.8896
 5.1038	 7.0465
 5.0988	 7.0428
 5.0938	 6.9245
 5.0888	 6.8350
 5.0838	 6.7611
 5.0788	 6.7036
 5.0738	 6.6902
 5.0689	 6.6297
 5.0639	 6.5966
 5.0590	 6.6743
 5.0541	 6.7448
 5.0491	 6.7440
 5.0442	 6.7248
 5.0393	 6.7698
 5.0344	 6.7778
 5.0296	 6.7057
 5.0247	 6.6559
 5.0198	 6.6582
 5.0150	 6.7067
 5.0101	 6.8614
 5.0053	 6.8548
 5.0004	 6.7587
 4.9956	 6.7162
 4.9908	 6.6880
 4.9860	 6.7681
 4.9812	 6.9986
 4.9765	 7.1421
 4.9717	 7.1732
 4.9669	 7.3328
 4.9622	 7.5053
 4.9574	 7.5674
 4.9527	 7.5858
 4.9480	 7.6547
 4.9432	 7.6930
 4.9385	 7.7264
 4.9338	 7.8583
 4.9291	 7.9087
 4.9245	 7.9790
 4.9198	 8.0828
 4.9151	 8.1866
 4.9105	 8.3069
 4.9058	 8.4859
 4.9012	 8.7550
 4.8966	 8.9504
 4.8919	 9.0939
 4.8873	 9.3613
 4.8827	 9.5241
 4.8781	 9.6236
 4.8736	 9.7516
 4.8690	 9.9002
 4.8644	 9.9652
 4.8599	10.0306
 4.8553	10.0293
 4.8508	10.1025
 4.8462	10.2582
 4.8417	10.3350
 4.8372	10.2938
 4.8327	10.3075
 4.8282	10.3943
 4.8237	10.4922
 4.8192	10.6311
 4.8147	10.6739
 4.8103	10.6563
 4.8058	10.6587
 4.8014	10.6639
 4.7969	10.7605
 4.7925	10.8235
 4.7881	10.8119
 4.7836	10.8391
 4.7792	10.8639
 4.7748	10.8642
 4.7704	10.9697
 4.7660	11.1148
 4.7617	11.0886
 4.7573	11.1472
 4.7530	11.2886
 4.7486	11.3290
 4.7443	11.2888
 4.7399	11.3505
 4.7356	11.4060
 4.7313	11.5031
 4.7270	11.5706
 4.7226	11.5263
 4.7184	11.5838
 4.7141	11.6621
 4.7098	11.6551
 4.7055	11.5756
 4.7012	11.5102
 4.6970	11.6338
 4.6927	11.7332
 4.6885	11.7612
 4.6842	11.6779
 4.6800	11.6581
 4.6758	11.7612
 4.6716	11.8623
 4.6674	11.9470
 4.6632	12.1231
 4.6590	12.2193
 4.6548	12.2283
 4.6506	12.2695
 4.6465	12.3037
 4.6423	12.3802
 4.6382	12.5253
 4.6340	12.7084
 4.6299	12.7683
 4.6258	12.7962
 4.6216	12.8183
 4.6175	12.9103
 4.6134	12.9356
 4.6093	12.9813
 4.6052	13.1235
 4.6011	13.1883
 4.5971	13.1589
 4.5930	13.2350
 4.5889	13.3201
 4.5849	13.2850
 4.5808	13.3774
 4.5768	13.4794
 4.5727	13.5626
 4.5687	13.6231
 4.5647	13.6084
 4.5607	13.5665
 4.5567	13.5497
 4.5526	13.5825
 4.5487	13.6441
 4.5447	13.6502
 4.5407	13.5613
 4.5367	13.4740
 4.5328	13.5003
 4.5288	13.4756
 4.5248	13.4495
 4.5209	13.4193
 4.5170	13.2305
 4.5130	13.1106
 4.5091	13.1159
 4.5052	13.1289
 4.5013	13.0481
 4.4974	12.9686
 4.4935	12.9573
 4.4896	13.0236
 4.4857	12.9773
 4.4818	12.9208
 4.4779	12.9392
 4.4741	13.0534
 4.4702	13.0237
 4.4664	12.9609
 4.4625	12.9439
 4.4587	13.0627
 4.4549	13.2148
 4.4510	13.2894
 4.4472	13.3693
 4.4434	13.4516
 4.4396	13.3823
 4.4358	13.4310
 4.4320	13.5763
 4.4282	13.6310
 4.4245	13.6802
 4.4207	13.8476
 4.4169	13.9021
 4.4132	13.9004
 4.4094	13.9941
 4.4057	14.2029
 4.4019	14.2037
 4.3982	14.0820
 4.3945	14.0853
 4.3907	14.2512
 4.3870	14.4768
 4.3833	14.6100
 4.3796	14.7082
 4.3759	14.8036
 4.3722	14.8352
 4.3685	14.9036
 4.3649	14.9412
 4.3612	14.9441
 4.3575	14.9593
 4.3539	15.0667
 4.3502	15.2019
 4.3466	15.2597
 4.3429	15.3296
 4.3393	15.3481
 4.3357	15.3588
 4.3320	15.4275
 4.3284	15.4331
 4.3248	15.5214
 4.3212	15.5678
 4.3176	15.4583
 4.3140	15.3434
 4.3105	15.3879
 4.3069	15.4946
 4.3033	15.5583
 4.2997	15.5080
 4.2962	15.4827
 4.2926	15.6180
 4.2890	15.7031
 4.2855	15.5879
 4.2820	15.4770
 4.2784	15.5163
 4.2749	15.5256
 4.2714	15.6247
 4.2679	15.6575
 4.2644	15.5867
 4.2609	15.6803
 4.2574	15.8146
 4.2539	15.8390
 4.2504	15.6997
 4.2469	15.5825
 4.2434	15.6785
 4.2400	15.8084
 4.2365	15.7918
 4.2330	15.8225
 4.2296	15.9870
 4.2261	15.9990
 4.2227	15.8712
 4.2193	15.7449
 4.2158	15.7512
 4.2124	15.9026
 4.2090	15.9081
 4.2056	15.9169
 4.2022	15.9385
 4.1988	15.8383
 4.1954	15.8000
 4.1920	15.9020
 4.1886	16.0000
 4.1852	15.9586
 4.1818	15.9656
 4.1785	16.0416
 4.1751	16.1964
 4.1717	16.2610
 4.1684	16.1758
 4.1650	16.0830
 4.1617	16.0981
 4.1584	16.0691
 4.1550	16.0641
 4.1517	16.1978
 4.1484	16.2346
 4.1451	16.2601
 4.1418	16.3129
 4.1384	16.2671
 4.1351	16.2384
 4.1319	16.2561
 4.1286	16.3017
 4.1253	16.4234
 4.1220	16.4733
 4.1187	16.4461
 4.1155	16.4125
 4.1122	16.4730
 4.1089	16.5728
 4.1057	16.5127
 4.1024	16.4395
 4.0992	16.5212
 4.0959	16.6175
 4.0927	16.6562
 4.0895	16.6883
 4.0863	16.5465
 4.0830	16.3651
 4.0798	16.3748
 4.0766	16.5985
 4.0734	16.8131
 4.0702	16.8306
 4.0670	16.7121
 4.0639	16.6429
 4.0607	16.6830
 4.0575	16.6153
 4.0543	16.6507
 4.0511	16.7114
 4.0480	16.6727
 4.0448	16.6135
 4.0417	16.5730
 4.0385	16.5647
 4.0354	16.6486
 4.0323	16.7756
 4.0291	16.7291
 4.0260	16.6018
 4.0229	16.5223
 4.0197	16.4483
 4.0166	16.4094
 4.0135	16.5146
 4.0104	16.5713
 4.0073	16.4406
 4.0042	16.4154
 4.0011	16.5003
 3.9981	16.4517
 3.9950	16.3968
 3.9919	16.5171
 3.9888	16.6168
 3.9857	16.6518
 3.9827	16.5480
 3.9796	16.4944
 3.9766	16.5306
 3.9735	16.4974
 3.9705	16.5229
 3.9675	16.5572
 3.9644	16.4770
 3.9614	16.5709
 3.9584	16.7179
 3.9554	16.7367
 3.9523	16.7158
 3.9493	16.6886
 3.9463	16.6715
 3.9433	16.6997
 3.9403	16.7872
 3.9373	16.6491
 3.9343	16.6030
 3.9314	16.7971
 3.9284	16.8091
 3.9254	16.8381
 3.9224	16.9007
 3.9195	16.7637
 3.9165	16.5167
 3.9136	16.6203
 3.9106	16.8104
 3.9077	16.9543
 3.9047	16.9477
 3.9018	16.8653
 3.8988	16.9225
 3.8959	17.0652
 3.8930	16.9721
 3.8901	16.8032
 3.8872	16.7575
 3.8842	16.7826
 3.8813	16.9071
 3.8784	16.9682
 3.8755	16.8612
 3.8726	16.8766
 3.8697	16.9391
 3.8669	16.9286
 3.8640	16.9225
 3.8611	16.8930
 3.8582	16.8729
 3.8554	16.7840
 3.8525	16.7298
 3.8496	16.8599
 3.8468	16.9216
 3.8439	16.9655
 3.8411	16.7391
 3.8382	16.6787
 3.8354	16.6762
 3.8326	16.5735
 3.8297	16.7016
 3.8269	16.7979
 3.8241	16.8086
 3.8213	16.8634
 3.8185	16.8430
 3.8157	16.7153
 3.8128	16.6342
 3.8100	16.6462
 3.8072	16.6602
 3.8045	16.7554
 3.8017	16.8722
 3.7989	17.0434
 3.7961	17.0838
 3.7933	16.8711
 3.7906	16.8123
 3.7878	16.9031
 3.7850	16.8960
 3.7822	16.8124
 3.7795	16.7385
 3.7767	16.7043
 3.7740	16.7624
 3.7713	16.8308
 3.7685	16.7257
 3.7658	16.7196
 3.7630	16.7233
 3.7603	16.5397
 3.7576	16.4102
 3.7549	16.4371
 3.7521	16.5461
 3.7494	16.5613
 3.7467	16.4087
 3.7440	16.5193
 3.7413	16.7368
 3.7386	16.7125
 3.7359	16.5887
 3.7332	16.5698
 3.7306	16.5574
 3.7279	16.4176
 3.7252	16.3062
 3.7225	16.3516
 3.7199	16.4664
 3.7172	16.4700
 3.7145	16.4362
 3.7119	16.3505
 3.7092	16.4317
 3.7066	16.4791
 3.7039	16.4019
 3.7013	16.3721
 3.6986	16.3851
 3.6960	16.4096
 3.6934	16.2593
 3.6907	16.1511
 3.6881	16.3240
 3.6855	16.5451
 3.6829	16.3738
 3.6803	16.2375
 3.6776	16.2276
 3.6750	16.3611
 3.6724	16.4270
 3.6698	16.2529
 3.6672	16.1378
 3.6646	16.1201
 3.6620	16.2950
 3.6595	16.2749
 3.6569	16.1731
 3.6543	16.0743
 3.6517	16.0528
 3.6492	16.2017
 3.6466	16.1853
 3.6440	16.1611
 3.6415	16.0314
 3.6389	15.8358
 3.6364	15.9200
 3.6338	15.9383
 3.6313	15.8657
 3.6287	16.0212
 3.6262	15.9901
 3.6237	15.8227
 3.6211	15.8268
 3.6186	15.7471
 3.6161	15.7203
 3.6136	15.7221
 3.6111	15.7600
 3.6085	15.6425
 3.6060	15.4132
 3.6035	15.4111
 3.6010	15.4729
 3.5985	15.3635
 3.5960	15.2417
 3.5935	15.1909
 3.5910	15.2088
 3.5886	15.2653
 3.5861	15.1041
 3.5836	15.0454
 3.5811	15.1282
 3.5787	15.0376
 3.5762	14.8201
 3.5737	14.6610
 3.5713	14.6518
 3.5688	14.7318
 3.5663	14.6345
 3.5639	14.5564
 3.5614	14.4175
 3.5590	14.2542
 3.5566	14.2804
 3.5541	14.2657
 3.5517	14.1829
 3.5493	14.1413
 3.5468	14.1508
 3.5444	14.0194
 3.5420	14.1542
 3.5396	14.1073
 3.5372	13.7390
