Name: Basaltic Andesite
Type: rock
Class: Igneous
Subclass: Intermediate
Particle Size: Fine
Sample No.: Andesite_H4
Owner: JHU
Wavelength Range: All
Origin: Agrigan Volcano, Mariana Is., via Smithsonian (Cat. No115263-19)
Collection Date: N/A
Description: A dark gray, porphyritic and vuggy rock.  The phenocrysts are plagioclase laths, orangish-yellow olivine and opaques.Particle size was 0-75 micrometers. Original ASTER Spectral Library name was jhu.becknic.rock.igneous.intermediate.fine.andesi4.spectrum.txt
Measurement: Directional (10 degree) hemispherical reflectance
First Column: X
Second Column: Y
X Units: Wavelength (micrometers)
Y Units:Reflectance (percent)
First X Value: 14.0110
Last X Value:  0.4000
Number of X Values: 2844
Additional Information: rock.igneous.intermediate.fine.all.andesite_h4.jhu.becknic.ancillary.txt

14.0110	 0.0619
13.9730	 0.1767
13.9360	 1.0013
13.8990	 1.3940
13.8610	 0.8250
13.8240	 1.1686
13.7880	 0.9187
13.7510	 0.3867
13.7150	 0.9947
13.6790	 2.0963
13.6430	 1.6875
13.6070	 0.9696
13.5710	 1.0727
13.5360	 1.4460
13.5000	 1.3716
13.4650	 1.8220
13.4300	 1.9164
13.3960	 1.1499
13.3610	 1.0917
13.3270	 1.6676
13.2930	 1.6847
13.2590	 1.4742
13.2250	 1.4855
13.1910	 1.5724
13.1580	 1.3982
13.1240	 1.5844
13.0910	 1.7439
13.0580	 1.5891
13.0260	 1.3865
12.9930	 1.1414
12.9600	 1.3097
12.9280	 1.6228
12.8960	 1.8722
12.8640	 1.8164
12.8320	 1.7871
12.8000	 1.8438
12.7690	 1.7320
12.7370	 1.8958
12.7060	 2.0620
12.6750	 2.0377
12.6440	 2.1694
12.6140	 2.3301
12.5830	 2.1382
12.5520	 2.0700
12.5220	 2.3327
12.4920	 2.6316
12.4620	 2.6208
12.4320	 2.6977
12.4020	 2.9508
12.3730	 3.1985
12.3430	 3.5388
12.3140	 3.7376
12.2850	 3.8590
12.2560	 4.1508
12.2270	 4.2727
12.1980	 4.2896
12.1690	 4.2891
12.1410	 4.3378
12.1130	 4.4751
12.0840	 4.4817
12.0560	 4.4156
12.0280	 4.3938
12.0000	 4.3205
11.9730	 4.1585
11.9450	 4.0772
11.9180	 3.9820
11.8900	 3.9316
11.8630	 3.9792
11.8360	 3.9743
11.8090	 3.9325
11.7820	 3.8719
11.7550	 3.7223
11.7290	 3.6804
11.7020	 3.6014
11.6760	 3.6204
11.6500	 3.5990
11.6240	 3.4865
11.5980	 3.5034
11.5720	 3.5137
11.5460	 3.5649
11.5200	 3.6394
11.4950	 3.5935
11.4690	 3.5489
11.4440	 3.4982
11.4190	 3.4950
11.3940	 3.5250
11.3690	 3.4976
11.3440	 3.4751
11.3190	 3.4753
11.2940	 3.4488
11.2700	 3.4259
11.2450	 3.4399
11.2210	 3.4101
11.1970	 3.3330
11.1730	 3.3059
11.1490	 3.2662
11.1250	 3.2691
11.1010	 3.2309
11.0770	 3.1312
11.0540	 3.1844
11.0300	 3.2515
11.0070	 3.2194
10.9830	 3.2339
10.9600	 3.2418
10.9370	 3.1596
10.9140	 3.1319
10.8910	 3.1863
10.8680	 3.2320
10.8460	 3.1873
10.8230	 3.1964
10.8000	 3.2100
10.7780	 3.1598
10.7550	 3.1549
10.7330	 3.1714
10.7110	 3.1212
10.6890	 3.0417
10.6670	 3.0556
10.6450	 3.0813
10.6230	 3.0989
10.6020	 3.0185
10.5800	 2.9564
10.5580	 2.9977
10.5370	 3.0228
10.5160	 3.0389
10.4940	 3.0300
10.4730	 2.9597
10.4520	 2.9655
10.4310	 2.9852
10.4100	 2.9381
10.3890	 2.8924
10.3680	 2.9121
10.3480	 2.8990
10.3270	 2.8139
10.3060	 2.8050
10.2860	 2.8090
10.2660	 2.7717
10.2450	 2.7204
10.2250	 2.6678
10.2050	 2.6273
10.1850	 2.6824
10.1650	 2.7476
10.1450	 2.7743
10.1250	 2.7771
10.1060	 2.7584
10.0860	 2.7790
10.0660	 2.7710
10.0470	 2.7551
10.0270	 2.7844
10.0080	 2.7654
 9.9887	 2.7452
 9.9695	 2.7626
 9.9504	 2.8013
 9.9313	 2.7358
 9.9123	 2.6829
 9.8934	 2.7309
 9.8746	 2.7724
 9.8558	 2.7855
 9.8371	 2.7494
 9.8185	 2.7276
 9.7999	 2.7068
 9.7814	 2.6771
 9.7630	 2.6730
 9.7447	 2.6981
 9.7264	 2.6815
 9.7082	 2.6158
 9.6900	 2.6020
 9.6719	 2.6124
 9.6539	 2.5730
 9.6360	 2.5945
 9.6181	 2.5976
 9.6003	 2.5015
 9.5825	 2.4753
 9.5649	 2.5008
 9.5472	 2.4886
 9.5297	 2.4556
 9.5122	 2.4073
 9.4948	 2.3749
 9.4774	 2.4039
 9.4601	 2.3707
 9.4429	 2.3229
 9.4257	 2.3529
 9.4086	 2.4223
 9.3916	 2.4182
 9.3746	 2.4426
 9.3577	 2.4649
 9.3408	 2.4276
 9.3240	 2.3871
 9.3073	 2.4384
 9.2906	 2.4834
 9.2740	 2.5071
 9.2574	 2.5434
 9.2409	 2.5929
 9.2245	 2.6241
 9.2081	 2.7511
 9.1918	 2.7862
 9.1755	 2.6838
 9.1593	 2.7389
 9.1431	 2.7834
 9.1270	 2.7593
 9.1110	 2.7527
 9.0950	 2.7996
 9.0791	 2.8186
 9.0632	 2.7743
 9.0474	 2.7875
 9.0316	 2.8629
 9.0159	 2.8059
 9.0003	 2.7467
 8.9847	 2.7694
 8.9691	 2.7485
 8.9536	 2.6880
 8.9382	 2.6595
 8.9228	 2.6545
 8.9075	 2.6381
 8.8922	 2.6623
 8.8770	 2.6571
 8.8618	 2.6346
 8.8467	 2.6356
 8.8316	 2.6200
 8.8166	 2.5774
 8.8016	 2.5411
 8.7867	 2.5533
 8.7718	 2.5294
 8.7570	 2.4787
 8.7422	 2.5233
 8.7275	 2.5514
 8.7129	 2.5746
 8.6982	 2.6023
 8.6837	 2.5898
 8.6692	 2.5308
 8.6547	 2.5015
 8.6403	 2.5132
 8.6259	 2.5376
 8.6116	 2.4928
 8.5973	 2.4509
 8.5830	 2.4933
 8.5688	 2.5380
 8.5547	 2.5554
 8.5406	 2.5641
 8.5266	 2.5645
 8.5126	 2.5408
 8.4986	 2.5205
 8.4847	 2.4984
 8.4708	 2.5090
 8.4570	 2.5216
 8.4432	 2.4766
 8.4295	 2.4143
 8.4158	 2.3917
 8.4022	 2.3792
 8.3886	 2.3330
 8.3750	 2.3158
 8.3615	 2.3700
 8.3481	 2.3847
 8.3347	 2.3320
 8.3213	 2.2992
 8.3079	 2.3156
 8.2946	 2.3065
 8.2814	 2.2692
 8.2682	 2.2432
 8.2550	 2.1907
 8.2419	 2.1616
 8.2288	 2.1418
 8.2158	 2.0925
 8.2028	 2.0867
 8.1898	 2.0852
 8.1769	 2.0395
 8.1640	 2.0013
 8.1512	 1.9995
 8.1384	 1.9945
 8.1256	 1.9652
 8.1129	 1.9322
 8.1002	 1.9629
 8.0876	 1.9519
 8.0750	 1.9135
 8.0624	 1.9418
 8.0499	 1.9833
 8.0374	 1.9788
 8.0250	 1.9812
 8.0126	 2.0072
 8.0002	 1.9517
 7.9879	 1.9437
 7.9756	 2.0862
 7.9634	 2.1464
 7.9512	 2.1654
 7.9390	 2.2333
 7.9268	 2.2671
 7.9147	 2.2714
 7.9027	 2.3067
 7.8906	 2.3379
 7.8786	 2.3880
 7.8667	 2.4467
 7.8548	 2.4954
 7.8429	 2.5554
 7.8310	 2.5720
 7.8192	 2.5797
 7.8075	 2.6210
 7.7957	 2.6555
 7.7840	 2.6784
 7.7723	 2.7176
 7.7607	 2.7940
 7.7491	 2.8617
 7.7375	 2.8870
 7.7260	 2.9189
 7.7145	 2.9868
 7.7031	 3.0490
 7.6916	 3.0748
 7.6802	 3.1200
 7.6689	 3.1997
 7.6575	 3.2763
 7.6462	 3.2951
 7.6350	 3.2979
 7.6238	 3.3276
 7.6126	 3.3951
 7.6014	 3.4605
 7.5903	 3.5179
 7.5792	 3.5772
 7.5681	 3.6382
 7.5571	 3.6972
 7.5461	 3.7525
 7.5351	 3.8049
 7.5242	 3.8578
 7.5133	 3.9077
 7.5024	 3.9639
 7.4916	 4.0291
 7.4807	 4.0877
 7.4700	 4.1285
 7.4592	 4.1878
 7.4485	 4.2496
 7.4378	 4.3200
 7.4272	 4.3387
 7.4165	 4.3990
 7.4059	 4.4868
 7.3954	 4.5517
 7.3848	 4.6075
 7.3743	 4.6664
 7.3639	 4.7275
 7.3534	 4.7798
 7.3430	 4.8473
 7.3326	 4.9003
 7.3223	 4.9359
 7.3119	 4.9982
 7.3016	 5.0733
 7.2914	 5.1278
 7.2811	 5.1876
 7.2709	 5.2348
 7.2607	 5.2950
 7.2506	 5.3548
 7.2404	 5.4156
 7.2303	 5.4759
 7.2203	 5.5254
 7.2102	 5.5603
 7.2002	 5.6187
 7.1902	 5.6702
 7.1803	 5.7377
 7.1703	 5.7945
 7.1604	 5.8141
 7.1506	 5.8835
 7.1407	 5.9498
 7.1309	 6.0096
 7.1211	 6.0506
 7.1113	 6.0924
 7.1016	 6.1376
 7.0919	 6.1722
 7.0822	 6.2337
 7.0725	 6.3049
 7.0629	 6.3384
 7.0533	 6.3722
 7.0437	 6.4233
 7.0341	 6.4652
 7.0246	 6.5086
 7.0151	 6.5423
 7.0056	 6.5688
 6.9962	 6.6150
 6.9867	 6.6782
 6.9773	 6.7260
 6.9679	 6.7345
 6.9586	 6.7629
 6.9493	 6.8299
 6.9400	 6.8789
 6.9307	 6.9291
 6.9214	 6.9626
 6.9122	 6.9893
 6.9030	 7.0327
 6.8938	 7.0901
 6.8847	 7.1339
 6.8755	 7.1709
 6.8664	 7.1946
 6.8573	 7.2070
 6.8483	 7.2773
 6.8393	 7.3228
 6.8302	 7.3280
 6.8213	 7.3488
 6.8123	 7.3877
 6.8034	 7.4171
 6.7944	 7.4550
 6.7855	 7.5056
 6.7767	 7.5249
 6.7678	 7.5394
 6.7590	 7.5790
 6.7502	 7.6005
 6.7414	 7.6317
 6.7327	 7.6610
 6.7239	 7.6577
 6.7152	 7.6524
 6.7065	 7.6732
 6.6979	 7.7192
 6.6892	 7.7055
 6.6806	 7.7023
 6.6720	 7.7412
 6.6634	 7.7587
 6.6549	 7.7937
 6.6464	 7.8127
 6.6378	 7.8031
 6.6294	 7.8304
 6.6209	 7.8541
 6.6124	 7.8792
 6.6040	 7.9171
 6.5956	 7.9192
 6.5872	 7.9186
 6.5789	 7.9327
 6.5705	 7.9741
 6.5622	 8.0135
 6.5539	 8.0273
 6.5456	 8.0594
 6.5374	 8.0927
 6.5292	 8.0941
 6.5209	 8.1086
 6.5128	 8.1525
 6.5046	 8.1560
 6.4964	 8.1537
 6.4883	 8.1891
 6.4802	 8.2038
 6.4721	 8.2413
 6.4640	 8.2810
 6.4560	 8.3044
 6.4480	 8.3250
 6.4399	 8.3402
 6.4320	 8.3226
 6.4240	 8.3283
 6.4160	 8.3496
 6.4081	 8.3683
 6.4002	 8.3803
 6.3923	 8.3920
 6.3844	 8.4206
 6.3766	 8.4244
 6.3687	 8.4042
 6.3609	 8.4228
 6.3531	 8.4202
 6.3454	 8.3946
 6.3376	 8.3995
 6.3299	 8.4054
 6.3221	 8.4012
 6.3144	 8.4241
 6.3068	 8.4288
 6.2991	 8.4063
 6.2914	 8.3580
 6.2838	 8.3444
 6.2762	 8.3514
 6.2686	 8.3433
 6.2611	 8.3171
 6.2535	 8.2922
 6.2460	 8.2929
 6.2385	 8.3006
 6.2310	 8.2769
 6.2235	 8.2696
 6.2160	 8.2755
 6.2086	 8.2605
 6.2011	 8.2402
 6.1937	 8.2188
 6.1863	 8.1963
 6.1790	 8.2141
 6.1716	 8.2130
 6.1643	 8.2005
 6.1570	 8.2067
 6.1496	 8.2303
 6.1424	 8.2472
 6.1351	 8.2816
 6.1278	 8.3250
 6.1206	 8.3421
 6.1134	 8.3592
 6.1062	 8.4231
 6.0990	 8.4802
 6.0918	 8.5099
 6.0847	 8.5734
 6.0776	 8.5908
 6.0704	 8.6290
 6.0633	 8.6867
 6.0563	 8.7093
 6.0492	 8.7108
 6.0421	 8.7813
 6.0351	 8.8549
 6.0281	 8.8889
 6.0211	 8.9294
 6.0141	 8.9862
 6.0071	 9.0182
 6.0002	 9.0743
 5.9932	 9.1364
 5.9863	 9.1800
 5.9794	 9.2325
 5.9725	 9.3056
 5.9657	 9.3621
 5.9588	 9.4280
 5.9520	 9.4870
 5.9451	 9.5364
 5.9383	 9.5623
 5.9315	 9.6164
 5.9247	 9.6886
 5.9180	 9.7670
 5.9112	 9.8198
 5.9045	 9.8395
 5.8978	 9.8857
 5.8911	 9.9281
 5.8844	 9.9501
 5.8777	10.0010
 5.8711	10.0680
 5.8644	10.1220
 5.8578	10.1660
 5.8512	10.2000
 5.8446	10.2760
 5.8380	10.3260
 5.8314	10.3420
 5.8249	10.3660
 5.8184	10.4070
 5.8118	10.4490
 5.8053	10.4700
 5.7988	10.5190
 5.7923	10.5660
 5.7859	10.5840
 5.7794	10.6170
 5.7730	10.6340
 5.7666	10.6330
 5.7602	10.6960
 5.7538	10.7340
 5.7474	10.7420
 5.7410	10.7780
 5.7347	10.8500
 5.7283	10.8710
 5.7220	10.8750
 5.7157	10.8870
 5.7094	10.9080
 5.7031	10.9370
 5.6969	10.9510
 5.6906	10.9880
 5.6844	11.0320
 5.6782	11.0500
 5.6719	11.0550
 5.6657	11.0860
 5.6596	11.1080
 5.6534	11.1200
 5.6472	11.1480
 5.6411	11.1700
 5.6349	11.2180
 5.6288	11.2700
 5.6227	11.2730
 5.6166	11.3040
 5.6106	11.3570
 5.6045	11.3690
 5.5984	11.4010
 5.5924	11.4440
 5.5864	11.4610
 5.5804	11.4910
 5.5744	11.5550
 5.5684	11.6150
 5.5624	11.6120
 5.5564	11.6290
 5.5505	11.6950
 5.5445	11.7360
 5.5386	11.7460
 5.5327	11.7690
 5.5268	11.8190
 5.5209	11.8540
 5.5151	11.8620
 5.5092	11.8990
 5.5033	11.9510
 5.4975	11.9830
 5.4917	12.0040
 5.4859	12.0580
 5.4801	12.0770
 5.4743	12.0590
 5.4685	12.0860
 5.4628	12.1140
 5.4570	12.1530
 5.4513	12.1870
 5.4455	12.2090
 5.4398	12.2320
 5.4341	12.2390
 5.4284	12.2510
 5.4228	12.2810
 5.4171	12.2890
 5.4114	12.3090
 5.4058	12.3220
 5.4002	12.3190
 5.3945	12.3300
 5.3889	12.3280
 5.3833	12.3080
 5.3778	12.3040
 5.3722	12.2740
 5.3666	12.2400
 5.3611	12.2380
 5.3555	12.2090
 5.3500	12.1960
 5.3445	12.2060
 5.3390	12.2320
 5.3335	12.2740
 5.3280	12.2950
 5.3225	12.3300
 5.3171	12.3720
 5.3116	12.4060
 5.3062	12.4460
 5.3008	12.4830
 5.2954	12.5350
 5.2900	12.5940
 5.2846	12.6680
 5.2792	12.7350
 5.2738	12.8250
 5.2684	12.9060
 5.2631	12.9480
 5.2578	13.0040
 5.2524	13.1110
 5.2471	13.2110
 5.2418	13.2920
 5.2365	13.3750
 5.2312	13.4600
 5.2260	13.5360
 5.2207	13.6120
 5.2154	13.6660
 5.2102	13.7050
 5.2050	13.7910
 5.1998	13.8820
 5.1945	13.9360
 5.1893	13.9830
 5.1842	14.0710
 5.1790	14.1130
 5.1738	14.1660
 5.1686	14.2220
 5.1635	14.2490
 5.1584	14.2920
 5.1532	14.3490
 5.1481	14.3820
 5.1430	14.4290
 5.1379	14.4960
 5.1328	14.5190
 5.1277	14.5340
 5.1227	14.5850
 5.1176	14.6320
 5.1126	14.6760
 5.1075	14.7360
 5.1025	14.7810
 5.0975	14.8000
 5.0925	14.8290
 5.0875	14.8230
 5.0825	14.8250
 5.0775	14.8750
 5.0726	14.9260
 5.0676	14.9410
 5.0627	14.9620
 5.0577	15.0160
 5.0528	15.0500
 5.0479	15.0470
 5.0430	15.0570
 5.0380	15.0980
 5.0332	15.1180
 5.0283	15.1500
 5.0234	15.1960
 5.0185	15.2390
 5.0137	15.2900
 5.0088	15.3040
 5.0040	15.3400
 4.9992	15.3960
 4.9944	15.4320
 4.9896	15.4690
 4.9848	15.5280
 4.9800	15.5660
 4.9752	15.5970
 4.9704	15.6720
 4.9657	15.7110
 4.9609	15.7080
 4.9562	15.7510
 4.9514	15.8160
 4.9467	15.8890
 4.9420	15.9420
 4.9373	15.9740
 4.9326	16.0500
 4.9279	16.1420
 4.9232	16.2080
 4.9186	16.2500
 4.9139	16.3230
 4.9092	16.3870
 4.9046	16.4220
 4.9000	16.4700
 4.8953	16.5230
 4.8907	16.5960
 4.8861	16.6480
 4.8815	16.6760
 4.8769	16.7130
 4.8723	16.7700
 4.8678	16.8080
 4.8632	16.8260
 4.8586	16.8520
 4.8541	16.9320
 4.8495	16.9930
 4.8450	17.0120
 4.8405	17.0440
 4.8360	17.1050
 4.8315	17.1360
 4.8270	17.1430
 4.8225	17.1490
 4.8180	17.1700
 4.8135	17.1890
 4.8090	17.2040
 4.8046	17.2350
 4.8001	17.2950
 4.7957	17.3260
 4.7913	17.3440
 4.7868	17.3780
 4.7824	17.4220
 4.7780	17.4430
 4.7736	17.4770
 4.7692	17.4900
 4.7648	17.4850
 4.7605	17.5220
 4.7561	17.5750
 4.7517	17.6080
 4.7474	17.6140
 4.7431	17.6400
 4.7387	17.6970
 4.7344	17.7360
 4.7301	17.7540
 4.7258	17.7820
 4.7215	17.8240
 4.7172	17.8470
 4.7129	17.8790
 4.7086	17.9210
 4.7043	17.9330
 4.7000	17.9530
 4.6958	17.9940
 4.6915	18.0280
 4.6873	18.0390
 4.6831	18.0540
 4.6788	18.0930
 4.6746	18.1420
 4.6704	18.1560
 4.6662	18.1930
 4.6620	18.2300
 4.6578	18.2600
 4.6536	18.2780
 4.6495	18.2970
 4.6453	18.3260
 4.6411	18.3330
 4.6370	18.3720
 4.6328	18.4290
 4.6287	18.4690
 4.6246	18.5210
 4.6205	18.5390
 4.6163	18.5510
 4.6122	18.5760
 4.6081	18.6160
 4.6040	18.6520
 4.6000	18.6790
 4.5959	18.6990
 4.5918	18.7200
 4.5877	18.7710
 4.5837	18.7840
 4.5796	18.7770
 4.5756	18.8220
 4.5716	18.8700
 4.5675	18.9120
 4.5635	18.9630
 4.5595	18.9680
 4.5555	18.9670
 4.5515	18.9760
 4.5475	19.0010
 4.5435	19.0370
 4.5395	19.0780
 4.5356	19.1110
 4.5316	19.1410
 4.5276	19.1470
 4.5237	19.1700
 4.5197	19.2090
 4.5158	19.2110
 4.5119	19.2080
 4.5080	19.2450
 4.5040	19.2970
 4.5001	19.2870
 4.4962	19.2670
 4.4923	19.3160
 4.4884	19.3630
 4.4846	19.3640
 4.4807	19.3810
 4.4768	19.4100
 4.4730	19.4320
 4.4691	19.4490
 4.4652	19.4590
 4.4614	19.4870
 4.4576	19.4950
 4.4537	19.5140
 4.4499	19.5350
 4.4461	19.5330
 4.4423	19.5230
 4.4385	19.5340
 4.4347	19.5630
 4.4309	19.5880
 4.4271	19.5790
 4.4233	19.5870
 4.4196	19.6170
 4.4158	19.6420
 4.4120	19.6470
 4.4083	19.6260
 4.4045	19.6390
 4.4008	19.6630
 4.3971	19.6640
 4.3934	19.6810
 4.3896	19.7090
 4.3859	19.7290
 4.3822	19.7440
 4.3785	19.7840
 4.3748	19.8090
 4.3711	19.7860
 4.3674	19.8130
 4.3638	19.8520
 4.3601	19.8440
 4.3564	19.8770
 4.3528	19.9090
 4.3491	19.8960
 4.3455	19.8890
 4.3418	19.9100
 4.3382	19.9380
 4.3346	19.9630
 4.3310	20.0090
 4.3273	20.0490
 4.3237	20.0460
 4.3201	20.0290
 4.3165	20.0590
 4.3129	20.0590
 4.3094	20.0780
 4.3058	20.1090
 4.3022	20.1210
 4.2986	20.1410
 4.2951	20.1730
 4.2915	20.2000
 4.2880	20.2260
 4.2844	20.2230
 4.2809	20.2090
 4.2774	20.2310
 4.2738	20.2380
 4.2703	20.2650
 4.2668	20.2930
 4.2633	20.2810
 4.2598	20.2880
 4.2563	20.3180
 4.2528	20.3400
 4.2493	20.3570
 4.2458	20.3800
 4.2424	20.3890
 4.2389	20.3810
 4.2354	20.3800
 4.2320	20.4040
 4.2285	20.4170
 4.2251	20.4070
 4.2216	20.4140
 4.2182	20.4340
 4.2148	20.4440
 4.2113	20.4460
 4.2079	20.4510
 4.2045	20.4600
 4.2011	20.4780
 4.1977	20.5030
 4.1943	20.5240
 4.1909	20.5180
 4.1875	20.5270
 4.1841	20.5600
 4.1808	20.5510
 4.1774	20.5510
 4.1740	20.5710
 4.1707	20.5640
 4.1673	20.5850
 4.1640	20.6320
 4.1606	20.6420
 4.1573	20.6180
 4.1540	20.5960
 4.1506	20.5890
 4.1473	20.6180
 4.1440	20.6560
 4.1407	20.6650
 4.1374	20.6670
 4.1341	20.6770
 4.1308	20.6770
 4.1275	20.6680
 4.1242	20.6660
 4.1209	20.7020
 4.1177	20.7230
 4.1144	20.7210
 4.1111	20.7000
 4.1079	20.7100
 4.1046	20.7530
 4.1014	20.7550
 4.0981	20.7330
 4.0949	20.7260
 4.0917	20.7600
 4.0884	20.7750
 4.0852	20.7740
 4.0820	20.8040
 4.0788	20.8250
 4.0756	20.8040
 4.0724	20.7870
 4.0692	20.8160
 4.0660	20.8250
 4.0628	20.8260
 4.0596	20.8310
 4.0565	20.8290
 4.0533	20.8340
 4.0501	20.8440
 4.0470	20.8620
 4.0438	20.8710
 4.0406	20.8730
 4.0375	20.8960
 4.0344	20.8970
 4.0312	20.8870
 4.0281	20.9020
 4.0250	20.9170
 4.0218	20.9000
 4.0187	20.9140
 4.0156	20.9240
 4.0125	20.9580
 4.0094	20.9540
 4.0063	20.9430
 4.0032	20.9250
 4.0001	20.9210
 3.9970	20.9370
 3.9940	20.9570
 3.9909	20.9670
 3.9878	20.9760
 3.9847	20.9950
 3.9817	21.0150
 3.9786	20.9960
 3.9756	21.0030
 3.9725	21.0070
 3.9695	20.9980
 3.9665	21.0080
 3.9634	21.0050
 3.9604	21.0060
 3.9574	21.0300
 3.9544	21.0280
 3.9513	21.0130
 3.9483	21.0300
 3.9453	21.0550
 3.9423	21.0570
 3.9393	21.0480
 3.9363	21.0680
 3.9333	21.0860
 3.9304	21.0880
 3.9274	21.1010
 3.9244	21.1070
 3.9214	21.0770
 3.9185	21.0910
 3.9155	21.1380
 3.9126	21.1160
 3.9096	21.0840
 3.9067	21.1220
 3.9037	21.1560
 3.9008	21.1620
 3.8979	21.1500
 3.8949	21.1550
 3.8920	21.1490
 3.8891	21.1400
 3.8862	21.1640
 3.8833	21.1570
 3.8804	21.1590
 3.8775	21.1680
 3.8746	21.1990
 3.8717	21.1920
 3.8688	21.1900
 3.8659	21.2020
 3.8630	21.2010
 3.8601	21.2040
 3.8573	21.2300
 3.8544	21.2500
 3.8515	21.2270
 3.8487	21.2250
 3.8458	21.2590
 3.8430	21.2390
 3.8401	21.2250
 3.8373	21.2420
 3.8344	21.2300
 3.8316	21.2390
 3.8288	21.2660
 3.8259	21.2690
 3.8231	21.2660
 3.8203	21.2630
 3.8175	21.2840
 3.8147	21.3130
 3.8119	21.2930
 3.8091	21.2660
 3.8063	21.2680
 3.8035	21.2850
 3.8007	21.3010
 3.7979	21.3190
 3.7951	21.3140
 3.7924	21.3120
 3.7896	21.3240
 3.7868	21.3340
 3.7841	21.3430
 3.7813	21.3110
 3.7785	21.2890
 3.7758	21.3110
 3.7730	21.3420
 3.7703	21.3400
 3.7676	21.3620
 3.7648	21.3770
 3.7621	21.3510
 3.7594	21.3260
 3.7566	21.3270
 3.7539	21.3450
 3.7512	21.3570
 3.7485	21.3630
 3.7458	21.3630
 3.7431	21.3870
 3.7404	21.3760
 3.7377	21.3600
 3.7350	21.3660
 3.7323	21.3580
 3.7296	21.3960
 3.7269	21.4160
 3.7242	21.3890
 3.7216	21.3720
 3.7189	21.3760
 3.7162	21.3920
 3.7136	21.4000
 3.7109	21.4100
 3.7083	21.4100
 3.7056	21.3930
 3.7030	21.3900
 3.7003	21.4030
 3.6977	21.4280
 3.6950	21.4280
 3.6924	21.4040
 3.6898	21.4130
 3.6872	21.4220
 3.6845	21.3860
 3.6819	21.3970
 3.6793	21.4160
 3.6767	21.4220
 3.6741	21.4420
 3.6715	21.4410
 3.6689	21.4020
 3.6663	21.4250
 3.6637	21.4530
 3.6611	21.4210
 3.6585	21.4090
 3.6560	21.4470
 3.6534	21.4670
 3.6508	21.4370
 3.6482	21.4510
 3.6457	21.4560
 3.6431	21.4490
 3.6406	21.4540
 3.6380	21.4590
 3.6355	21.4650
 3.6329	21.4580
 3.6304	21.4460
 3.6278	21.4530
 3.6253	21.4760
 3.6227	21.4750
 3.6202	21.4530
 3.6177	21.4670
 3.6152	21.4860
 3.6127	21.4830
 3.6101	21.5030
 3.6076	21.4790
 3.6051	21.4490
 3.6026	21.4340
 3.6001	21.4590
 3.5976	21.4730
 3.5951	21.4500
 3.5926	21.4860
 3.5901	21.4990
 3.5876	21.4810
 3.5852	21.4680
 3.5827	21.4660
 3.5802	21.4810
 3.5777	21.4970
 3.5753	21.4750
 3.5728	21.4940
 3.5704	21.4940
 3.5679	21.4720
 3.5654	21.4880
 3.5630	21.5320
 3.5605	21.5330
 3.5581	21.4860
 3.5557	21.4790
 3.5532	21.5130
 3.5508	21.5030
 3.5484	21.5030
 3.5459	21.5170
 3.5435	21.5280
 3.5411	21.5060
 3.5387	21.4810
 3.5363	21.4920
 3.5338	21.5030
 3.5314	21.4990
 3.5290	21.4940
 3.5266	21.4920
 3.5242	21.5090
 3.5218	21.5200
 3.5195	21.5350
 3.5171	21.5170
 3.5147	21.4720
 3.5123	21.4930
 3.5099	21.5320
 3.5075	21.4970
 3.5052	21.5040
 3.5028	21.5350
 3.5004	21.5390
 3.4981	21.5370
 3.4957	21.5310
 3.4934	21.5230
 3.4910	21.4800
 3.4887	21.5050
 3.4863	21.5380
 3.4840	21.5160
 3.4816	21.4980
 3.4793	21.4930
 3.4770	21.5210
 3.4746	21.5680
 3.4723	21.5580
 3.4700	21.5090
