Name: Adenostoma fasciculatum 1
Type: vegetation
Class: Shrub
Genus: Adenostoma
Species: fasciculatum
Sample No.: VH111
Owner: UCSB
Wavelength Range: TIR
Origin: 34.5084; -119.7687; WGS84
Collection Date: 6/3/2013
Description: Samples were collected as part of the HyspIRI Airborne Campaign. 48 individual plants were sampled in three times in 2013 - spring  summer  and fall. The name of the sample includes a 1  2  or 3 which references a different individual of the species. Samples were taken to JPL and processed within 48 hours of collection. The same leaves were processed in the Nicolet and then measured using the ASD.
Measurement: Hemispherical reflectance
First Column: X
Second Column: Y
X Units: Wavelength (micrometers)
Y Units: Reflectance (percentage)
First X Value: 2.501
Last X Value: 15.387
Number of X Values: 1737
Additional Information: vegetation.shrub.adenostoma.fasciculatum.tir.vh111.ucsb.nicolet.ancillary.txt

 2.5010	 5.5230
 2.5030	 5.4790
 2.5040	 5.3760
 2.5050	 5.4620
 2.5060	 5.5890
 2.5070	 5.5210
 2.5090	 5.4700
 2.5100	 5.4150
 2.5110	 5.5160
 2.5120	 5.4810
 2.5140	 5.4770
 2.5150	 5.4680
 2.5160	 5.4720
 2.5170	 5.4230
 2.5180	 5.4420
 2.5200	 5.3770
 2.5210	 5.3030
 2.5220	 5.3250
 2.5230	 5.4600
 2.5250	 5.4690
 2.5260	 5.4930
 2.5270	 5.4050
 2.5280	 5.4100
 2.5290	 5.3810
 2.5310	 5.5060
 2.5320	 5.5290
 2.5330	 5.4920
 2.5340	 5.3920
 2.5360	 5.4150
 2.5370	 5.3700
 2.5380	 5.3710
 2.5390	 5.3480
 2.5410	 5.3640
 2.5420	 5.4100
 2.5430	 5.4610
 2.5440	 5.5270
 2.5460	 5.5800
 2.5470	 5.5070
 2.5480	 5.3940
 2.5490	 5.3850
 2.5510	 5.5210
 2.5520	 5.5110
 2.5530	 5.5650
 2.5540	 5.6280
 2.5560	 5.6730
 2.5570	 5.5050
 2.5580	 5.5750
 2.5590	 5.5860
 2.5610	 5.4740
 2.5620	 5.4500
 2.5630	 5.5420
 2.5640	 5.5120
 2.5660	 5.4790
 2.5670	 5.3950
 2.5680	 5.4590
 2.5700	 5.5410
 2.5710	 5.6160
 2.5720	 5.5770
 2.5730	 5.4310
 2.5750	 5.5150
 2.5760	 5.7440
 2.5770	 5.7690
 2.5790	 5.7420
 2.5800	 5.6990
 2.5810	 5.6730
 2.5820	 5.5660
 2.5840	 5.5570
 2.5850	 5.5570
 2.5860	 5.5410
 2.5880	 5.4020
 2.5890	 5.4460
 2.5900	 5.5190
 2.5910	 5.5430
 2.5930	 5.4580
 2.5940	 5.5470
 2.5950	 5.5440
 2.5970	 5.5500
 2.5980	 5.5530
 2.5990	 5.6050
 2.6000	 5.5420
 2.6020	 5.5240
 2.6030	 5.4130
 2.6040	 5.4470
 2.6060	 5.4400
 2.6070	 5.4630
 2.6080	 5.4750
 2.6100	 5.4520
 2.6110	 5.3100
 2.6120	 5.3180
 2.6140	 5.3300
 2.6150	 5.3890
 2.6160	 5.4120
 2.6180	 5.3910
 2.6190	 5.2610
 2.6200	 5.2490
 2.6220	 5.2180
 2.6230	 5.1940
 2.6240	 5.1500
 2.6260	 5.2000
 2.6270	 5.2090
 2.6280	 5.2290
 2.6300	 5.1400
 2.6310	 5.1110
 2.6320	 5.0950
 2.6340	 5.1320
 2.6350	 5.1080
 2.6360	 5.0550
 2.6380	 4.9890
 2.6390	 5.0090
 2.6400	 4.9490
 2.6420	 4.9350
 2.6430	 4.9150
 2.6440	 4.8930
 2.6460	 4.8340
 2.6470	 4.8200
 2.6480	 4.8130
 2.6500	 4.9030
 2.6510	 4.8330
 2.6520	 4.6980
 2.6540	 4.5990
 2.6550	 4.7230
 2.6560	 4.7450
 2.6580	 4.7090
 2.6590	 4.6790
 2.6610	 4.6740
 2.6620	 4.5850
 2.6630	 4.5430
 2.6650	 4.5410
 2.6660	 4.5490
 2.6670	 4.3780
 2.6690	 4.4110
 2.6700	 4.3970
 2.6720	 4.3820
 2.6730	 4.3680
 2.6740	 4.3480
 2.6760	 4.2810
 2.6770	 4.3690
 2.6780	 4.3560
 2.6800	 4.3200
 2.6810	 4.2670
 2.6830	 4.2890
 2.6840	 4.1740
 2.6850	 4.1830
 2.6870	 4.1900
 2.6880	 4.0970
 2.6900	 3.8660
 2.6910	 3.8050
 2.6920	 3.8200
 2.6940	 3.7830
 2.6950	 3.6210
 2.6970	 3.5720
 2.6980	 3.4790
 2.6990	 3.5090
 2.7010	 3.4630
 2.7020	 3.4940
 2.7040	 3.4910
 2.7050	 3.3980
 2.7060	 3.2290
 2.7080	 3.1950
 2.7090	 3.1030
 2.7110	 3.1140
 2.7120	 3.1290
 2.7130	 3.1340
 2.7150	 3.0420
 2.7160	 2.9830
 2.7180	 2.8880
 2.7190	 2.9700
 2.7210	 2.9710
 2.7220	 2.9680
 2.7230	 2.9300
 2.7250	 2.9310
 2.7260	 2.8620
 2.7280	 2.8610
 2.7290	 2.7880
 2.7310	 2.7790
 2.7320	 2.7860
 2.7330	 2.7490
 2.7350	 2.6410
 2.7360	 2.5660
 2.7380	 2.5310
 2.7390	 2.6370
 2.7410	 2.6490
 2.7420	 2.6490
 2.7440	 2.5320
 2.7450	 2.4370
 2.7470	 2.4610
 2.7480	 2.5150
 2.7490	 2.4230
 2.7510	 2.4900
 2.7520	 2.4970
 2.7540	 2.4670
 2.7550	 2.4060
 2.7570	 2.4850
 2.7580	 2.4230
 2.7600	 2.3180
 2.7610	 2.2790
 2.7630	 2.3520
 2.7640	 2.3200
 2.7660	 2.3450
 2.7670	 2.2860
 2.7680	 2.2720
 2.7700	 2.2580
 2.7710	 2.3190
 2.7730	 2.2590
 2.7740	 2.2420
 2.7760	 2.2840
 2.7770	 2.3860
 2.7790	 2.2420
 2.7800	 2.3010
 2.7820	 2.3360
 2.7830	 2.3210
 2.7850	 2.2430
 2.7860	 2.2760
 2.7880	 2.2170
 2.7890	 2.1730
 2.7910	 2.1710
 2.7920	 2.1730
 2.7940	 2.1410
 2.7950	 2.1620
 2.7970	 2.1710
 2.7980	 2.1360
 2.8000	 2.0680
 2.8010	 2.1600
 2.8030	 2.0570
 2.8040	 2.0570
 2.8060	 2.1530
 2.8070	 2.1310
 2.8090	 2.0520
 2.8110	 2.1300
 2.8120	 2.1820
 2.8140	 2.2300
 2.8150	 2.2260
 2.8170	 2.1970
 2.8180	 2.0330
 2.8200	 2.0790
 2.8210	 2.1870
 2.8230	 2.2720
 2.8240	 2.1950
 2.8260	 2.2160
 2.8270	 2.1210
 2.8290	 2.0470
 2.8300	 2.0830
 2.8320	 2.2550
 2.8340	 2.1860
 2.8350	 2.1610
 2.8370	 2.1220
 2.8380	 2.1080
 2.8400	 2.0150
 2.8410	 1.9650
 2.8430	 1.9520
 2.8440	 2.0110
 2.8460	 2.0360
 2.8480	 2.0750
 2.8490	 2.0120
 2.8510	 2.0520
 2.8520	 2.0850
 2.8540	 2.1240
 2.8550	 2.0280
 2.8570	 2.0820
 2.8590	 2.1760
 2.8600	 2.1160
 2.8620	 1.9960
 2.8630	 2.1590
 2.8650	 2.0990
 2.8660	 2.0500
 2.8680	 2.0170
 2.8700	 2.0530
 2.8710	 2.0110
 2.8730	 2.0360
 2.8740	 2.0220
 2.8760	 2.0580
 2.8780	 2.0970
 2.8790	 2.1270
 2.8810	 2.0060
 2.8820	 1.9880
 2.8840	 1.9410
 2.8860	 1.9820
 2.8870	 1.9750
 2.8890	 2.0340
 2.8900	 1.8930
 2.8920	 1.9590
 2.8940	 2.1060
 2.8950	 2.2570
 2.8970	 2.1960
 2.8980	 2.2510
 2.9000	 2.0750
 2.9020	 1.9670
 2.9030	 1.9450
 2.9050	 2.0050
 2.9070	 2.0440
 2.9080	 2.0940
 2.9100	 2.0570
 2.9120	 2.0160
 2.9130	 1.9370
 2.9150	 2.1010
 2.9160	 2.0130
 2.9180	 2.0320
 2.9200	 2.0040
 2.9210	 1.9570
 2.9230	 2.0200
 2.9250	 2.1640
 2.9260	 2.0780
 2.9280	 2.1430
 2.9300	 2.1500
 2.9310	 2.0560
 2.9330	 1.9520
 2.9350	 1.9740
 2.9360	 2.0080
 2.9380	 2.0430
 2.9400	 2.0450
 2.9410	 2.0930
 2.9430	 2.1550
 2.9450	 2.2700
 2.9460	 2.2120
 2.9480	 2.2440
 2.9500	 2.1450
 2.9510	 2.0400
 2.9530	 2.0590
 2.9550	 2.1120
 2.9560	 2.1130
 2.9580	 2.0640
 2.9600	 1.9890
 2.9610	 2.0770
 2.9630	 2.0380
 2.9650	 2.0150
 2.9660	 2.0480
 2.9680	 2.1490
 2.9700	 2.1620
 2.9720	 2.1200
 2.9730	 2.0850
 2.9750	 2.1620
 2.9770	 2.0990
 2.9780	 2.1440
 2.9800	 2.1310
 2.9820	 2.2020
 2.9840	 2.2120
 2.9850	 2.2330
 2.9870	 2.2510
 2.9890	 2.2340
 2.9900	 2.1160
 2.9920	 2.1840
 2.9940	 2.2020
 2.9960	 2.2320
 2.9970	 2.2550
 2.9990	 2.2290
 3.0010	 2.1480
 3.0030	 2.1600
 3.0040	 2.2000
 3.0060	 2.2840
 3.0080	 2.2840
 3.0100	 2.2100
 3.0110	 2.0460
 3.0130	 2.0260
 3.0150	 2.0240
 3.0170	 2.0770
 3.0180	 2.0760
 3.0200	 2.1460
 3.0220	 2.1650
 3.0240	 2.1670
 3.0250	 2.1890
 3.0270	 2.2920
 3.0290	 2.1930
 3.0310	 2.1530
 3.0320	 2.1120
 3.0340	 2.0760
 3.0360	 2.0600
 3.0380	 2.2260
 3.0400	 2.2470
 3.0410	 2.2670
 3.0430	 2.2250
 3.0450	 2.2010
 3.0470	 2.0990
 3.0480	 2.1930
 3.0500	 2.2570
 3.0520	 2.2550
 3.0540	 2.1230
 3.0560	 2.1380
 3.0570	 2.1710
 3.0590	 2.1650
 3.0610	 2.1260
 3.0630	 2.1720
 3.0650	 2.1670
 3.0660	 2.2030
 3.0680	 2.1460
 3.0700	 2.1810
 3.0720	 2.1670
 3.0740	 2.1510
 3.0760	 2.0630
 3.0770	 2.1340
 3.0790	 2.1900
 3.0810	 2.1890
 3.0830	 2.1410
 3.0850	 2.1710
 3.0870	 2.1320
 3.0880	 2.1190
 3.0900	 2.1160
 3.0920	 2.2140
 3.0940	 2.2280
 3.0960	 2.2010
 3.0980	 2.1070
 3.0990	 2.1160
 3.1010	 2.1540
 3.1030	 2.2700
 3.1050	 2.2300
 3.1070	 2.2700
 3.1090	 2.2170
 3.1110	 2.2190
 3.1120	 2.1890
 3.1140	 2.1830
 3.1160	 2.1360
 3.1180	 2.0700
 3.1200	 1.9670
 3.1220	 1.9920
 3.1240	 2.1100
 3.1260	 2.2460
 3.1270	 2.2690
 3.1290	 2.2610
 3.1310	 2.2430
 3.1330	 2.2210
 3.1350	 2.1780
 3.1370	 2.2630
 3.1390	 2.3040
 3.1410	 2.2430
 3.1430	 2.1170
 3.1450	 2.1660
 3.1460	 2.2070
 3.1480	 2.1860
 3.1500	 2.1730
 3.1520	 2.1890
 3.1540	 2.1270
 3.1560	 2.1560
 3.1580	 2.1790
 3.1600	 2.1910
 3.1620	 2.1450
 3.1640	 2.1470
 3.1660	 2.2100
 3.1680	 2.3250
 3.1700	 2.2910
 3.1710	 2.2710
 3.1730	 2.2210
 3.1750	 2.2060
 3.1770	 2.1930
 3.1790	 2.1860
 3.1810	 2.2110
 3.1830	 2.2350
 3.1850	 2.1570
 3.1870	 2.2380
 3.1890	 2.2410
 3.1910	 2.2080
 3.1930	 2.1810
 3.1950	 2.2660
 3.1970	 2.2770
 3.1990	 2.2270
 3.2010	 2.1790
 3.2030	 2.2220
 3.2050	 2.2190
 3.2070	 2.2520
 3.2090	 2.2410
 3.2110	 2.2380
 3.2130	 2.1860
 3.2150	 2.2830
 3.2170	 2.2960
 3.2190	 2.2680
 3.2210	 2.1600
 3.2230	 2.2140
 3.2250	 2.2650
 3.2270	 2.2160
 3.2290	 2.1400
 3.2310	 2.2220
 3.2330	 2.2520
 3.2350	 2.2840
 3.2370	 2.2560
 3.2390	 2.2380
 3.2410	 2.2320
 3.2430	 2.2360
 3.2450	 2.2070
 3.2470	 2.2710
 3.2490	 2.2680
 3.2510	 2.3010
 3.2530	 2.2630
 3.2550	 2.2370
 3.2570	 2.1620
 3.2590	 2.1820
 3.2610	 2.1510
 3.2630	 2.1900
 3.2650	 2.2350
 3.2670	 2.2730
 3.2690	 2.2340
 3.2720	 2.2710
 3.2740	 2.1970
 3.2760	 2.1430
 3.2780	 2.1780
 3.2800	 2.3020
 3.2820	 2.2550
 3.2840	 2.2330
 3.2860	 2.1860
 3.2880	 2.2720
 3.2900	 2.2800
 3.2920	 2.2560
 3.2940	 2.2470
 3.2960	 2.2280
 3.2990	 2.2040
 3.3010	 2.2480
 3.3030	 2.1760
 3.3050	 2.2430
 3.3070	 2.2550
 3.3090	 2.2070
 3.3110	 2.1720
 3.3130	 2.1730
 3.3150	 2.0960
 3.3180	 2.1370
 3.3200	 2.1440
 3.3220	 2.1760
 3.3240	 2.1920
 3.3260	 2.2100
 3.3280	 2.1780
 3.3300	 2.2070
 3.3330	 2.1120
 3.3350	 2.0600
 3.3370	 2.0660
 3.3390	 2.1310
 3.3410	 2.1170
 3.3430	 2.1420
 3.3450	 2.0630
 3.3480	 2.0390
 3.3500	 2.0400
 3.3520	 2.1100
 3.3540	 2.0810
 3.3560	 2.1190
 3.3580	 2.0770
 3.3610	 2.0800
 3.3630	 2.0890
 3.3650	 2.0500
 3.3670	 2.0030
 3.3690	 2.1130
 3.3720	 2.1490
 3.3740	 2.0890
 3.3760	 2.0130
 3.3780	 2.1050
 3.3800	 2.1460
 3.3830	 2.1170
 3.3850	 2.0570
 3.3870	 2.0310
 3.3890	 1.9940
 3.3910	 2.0360
 3.3940	 2.0180
 3.3960	 2.0280
 3.3980	 1.9520
 3.4000	 1.9180
 3.4020	 1.9440
 3.4050	 2.0580
 3.4070	 2.1240
 3.4090	 2.2240
 3.4110	 2.2320
 3.4140	 2.2230
 3.4160	 2.2390
 3.4180	 2.3880
 3.4200	 2.5740
 3.4230	 2.8220
 3.4250	 2.9960
 3.4270	 3.1980
 3.4290	 3.2410
 3.4320	 3.1390
 3.4340	 2.9320
 3.4360	 2.7570
 3.4390	 2.6460
 3.4410	 2.6080
 3.4430	 2.5300
 3.4450	 2.4930
 3.4480	 2.4450
 3.4500	 2.4360
 3.4520	 2.4090
 3.4550	 2.4200
 3.4570	 2.4230
 3.4590	 2.4750
 3.4620	 2.4860
 3.4640	 2.4160
 3.4660	 2.2920
 3.4680	 2.3670
 3.4710	 2.4260
 3.4730	 2.4130
 3.4750	 2.3640
 3.4780	 2.3680
 3.4800	 2.2730
 3.4820	 2.1840
 3.4850	 2.1480
 3.4870	 2.2660
 3.4890	 2.2770
 3.4920	 2.2670
 3.4940	 2.2600
 3.4970	 2.3090
 3.4990	 2.2980
 3.5010	 2.3180
 3.5040	 2.3580
 3.5060	 2.5720
 3.5080	 2.8560
 3.5110	 3.0920
 3.5130	 3.0350
 3.5160	 2.8970
 3.5180	 2.6750
 3.5200	 2.6070
 3.5230	 2.5650
 3.5250	 2.5700
 3.5270	 2.5870
 3.5300	 2.5660
 3.5320	 2.5840
 3.5350	 2.6230
 3.5370	 2.5430
 3.5400	 2.5450
 3.5420	 2.5270
 3.5440	 2.5450
 3.5470	 2.6120
 3.5490	 2.6110
 3.5520	 2.5940
 3.5540	 2.6890
 3.5570	 2.6430
 3.5590	 2.5880
 3.5610	 2.5670
 3.5640	 2.6270
 3.5660	 2.6650
 3.5690	 2.7020
 3.5710	 2.6390
 3.5740	 2.5550
 3.5760	 2.5470
 3.5790	 2.5950
 3.5810	 2.6820
 3.5840	 2.7030
 3.5860	 2.6140
 3.5890	 2.6080
 3.5910	 2.6020
 3.5930	 2.6480
 3.5960	 2.6750
 3.5980	 2.6700
 3.6010	 2.6290
 3.6030	 2.7010
 3.6060	 2.7610
 3.6080	 2.7590
 3.6110	 2.6850
 3.6140	 2.6630
 3.6160	 2.6380
 3.6190	 2.6250
 3.6210	 2.6460
 3.6240	 2.6410
 3.6260	 2.6710
 3.6290	 2.7280
 3.6310	 2.6950
 3.6340	 2.6670
 3.6360	 2.6960
 3.6390	 2.7150
 3.6410	 2.6360
 3.6440	 2.6370
 3.6470	 2.6350
 3.6490	 2.6890
 3.6520	 2.6640
 3.6540	 2.6770
 3.6570	 2.6540
 3.6590	 2.6370
 3.6620	 2.6840
 3.6650	 2.7080
 3.6670	 2.6560
 3.6700	 2.6790
 3.6720	 2.7290
 3.6750	 2.7130
 3.6780	 2.6040
 3.6800	 2.6020
 3.6830	 2.6470
 3.6850	 2.6860
 3.6880	 2.6850
 3.6910	 2.7310
 3.6930	 2.7340
 3.6960	 2.7250
 3.6990	 2.7080
 3.7010	 2.7340
 3.7040	 2.7530
 3.7060	 2.7200
 3.7090	 2.7130
 3.7120	 2.7110
 3.7140	 2.6730
 3.7170	 2.7450
 3.7200	 2.7880
 3.7220	 2.7800
 3.7250	 2.7730
 3.7280	 2.7810
 3.7300	 2.7760
 3.7330	 2.7990
 3.7360	 2.8060
 3.7390	 2.7670
 3.7410	 2.7100
 3.7440	 2.7560
 3.7470	 2.7910
 3.7490	 2.7900
 3.7520	 2.7650
 3.7550	 2.7560
 3.7580	 2.7520
 3.7600	 2.7710
 3.7630	 2.7240
 3.7660	 2.7120
 3.7680	 2.7010
 3.7710	 2.7020
 3.7740	 2.7470
 3.7770	 2.8290
 3.7790	 2.8060
 3.7820	 2.7940
 3.7850	 2.7940
 3.7880	 2.8280
 3.7900	 2.8150
 3.7930	 2.8370
 3.7960	 2.8440
 3.7990	 2.8240
 3.8020	 2.8050
 3.8040	 2.7840
 3.8070	 2.7570
 3.8100	 2.8260
 3.8130	 2.8330
 3.8160	 2.8870
 3.8180	 2.8410
 3.8210	 2.8070
 3.8240	 2.8790
 3.8270	 2.9310
 3.8300	 2.9000
 3.8330	 2.8560
 3.8350	 2.8320
 3.8380	 2.8440
 3.8410	 2.8400
 3.8440	 2.8780
 3.8470	 2.9140
 3.8500	 2.9600
 3.8520	 2.9540
 3.8550	 2.9600
 3.8580	 2.9220
 3.8610	 2.8590
 3.8640	 2.8530
 3.8670	 2.9170
 3.8700	 2.9140
 3.8730	 2.9570
 3.8750	 2.9490
 3.8780	 2.9400
 3.8810	 2.9730
 3.8840	 3.0010
 3.8870	 2.9500
 3.8900	 2.9500
 3.8930	 2.9280
 3.8960	 2.9320
 3.8990	 2.9110
 3.9020	 2.9750
 3.9050	 2.9710
 3.9080	 2.9330
 3.9110	 2.9850
 3.9140	 3.0360
 3.9160	 2.9860
 3.9190	 3.0230
 3.9220	 2.9920
 3.9250	 2.9860
 3.9280	 2.9820
 3.9310	 2.9840
 3.9340	 3.0320
 3.9370	 3.0650
 3.9400	 3.0740
 3.9430	 3.0870
 3.9460	 3.0730
 3.9490	 3.0200
 3.9520	 2.9470
 3.9550	 2.9750
 3.9580	 3.0660
 3.9610	 3.1030
 3.9640	 3.0290
 3.9670	 3.0380
 3.9700	 3.0090
 3.9730	 3.0270
 3.9770	 3.0700
 3.9800	 3.1240
 3.9830	 3.1490
 3.9860	 3.1270
 3.9890	 3.1020
 3.9920	 3.1620
 3.9950	 3.1430
 3.9980	 3.1260
 4.0010	 3.0980
 4.0040	 3.1320
 4.0070	 3.2220
 4.0100	 3.2450
 4.0130	 3.2030
 4.0170	 3.2050
 4.0200	 3.2110
 4.0230	 3.1900
 4.0260	 3.1700
 4.0290	 3.1760
 4.0320	 3.1920
 4.0350	 3.2070
 4.0380	 3.2220
 4.0420	 3.2180
 4.0450	 3.2030
 4.0480	 3.1940
 4.0510	 3.1690
 4.0540	 3.1350
 4.0570	 3.1050
 4.0610	 3.2000
 4.0640	 3.2780
 4.0670	 3.2530
 4.0700	 3.2190
 4.0730	 3.2190
 4.0770	 3.2450
 4.0800	 3.2370
 4.0830	 3.1700
 4.0860	 3.1750
 4.0890	 3.2150
 4.0930	 3.2450
 4.0960	 3.1940
 4.0990	 3.2020
 4.1020	 3.2690
 4.1060	 3.3100
 4.1090	 3.2090
 4.1120	 3.1520
 4.1150	 3.2000
 4.1190	 3.2900
 4.1220	 3.3110
 4.1250	 3.2800
 4.1280	 3.2670
 4.1320	 3.3020
 4.1350	 3.3220
 4.1380	 3.3580
 4.1420	 3.3270
 4.1450	 3.2880
 4.1480	 3.2730
 4.1520	 3.2710
 4.1550	 3.2850
 4.1580	 3.3050
 4.1620	 3.3260
 4.1650	 3.3570
 4.1680	 3.3160
 4.1720	 3.2940
 4.1750	 3.3110
 4.1780	 3.3380
 4.1820	 3.3290
 4.1850	 3.3080
 4.1890	 3.2780
 4.1920	 3.2620
 4.1950	 3.2840
 4.1990	 3.3180
 4.2020	 3.2860
 4.2060	 3.3560
 4.2090	 3.4540
 4.2120	 3.4960
 4.2160	 3.4940
 4.2190	 3.4670
 4.2230	 3.5080
 4.2260	 3.5770
 4.2300	 3.5900
 4.2330	 3.6630
 4.2360	 3.6950
 4.2400	 3.6130
 4.2430	 3.5180
 4.2470	 3.5880
 4.2500	 3.5630
 4.2540	 3.5300
 4.2570	 3.5220
 4.2610	 3.5910
 4.2640	 3.6500
 4.2680	 3.6370
 4.2710	 3.5910
 4.2750	 3.5270
 4.2780	 3.4770
 4.2820	 3.5170
 4.2850	 3.6590
 4.2890	 3.7100
 4.2930	 3.6710
 4.2960	 3.5600
 4.3000	 3.4810
 4.3030	 3.4680
 4.3070	 3.5140
 4.3100	 3.5190
 4.3140	 3.4140
 4.3180	 3.3390
 4.3210	 3.3610
 4.3250	 3.3620
 4.3280	 3.3690
 4.3320	 3.3740
 4.3360	 3.2750
 4.3390	 3.2060
 4.3430	 3.2180
 4.3470	 3.2020
 4.3500	 3.2440
 4.3540	 3.2810
 4.3570	 3.2490
 4.3610	 3.1880
 4.3650	 3.2280
 4.3680	 3.3020
 4.3720	 3.2660
 4.3760	 3.2320
 4.3800	 3.1900
 4.3830	 3.1710
 4.3870	 3.1930
 4.3910	 3.2000
 4.3940	 3.2440
 4.3980	 3.2750
 4.4020	 3.2510
 4.4060	 3.1850
 4.4090	 3.1680
 4.4130	 3.2260
 4.4170	 3.2590
 4.4210	 3.3180
 4.4240	 3.2610
 4.4280	 3.1950
 4.4320	 3.1550
 4.4360	 3.1140
 4.4400	 3.1090
 4.4430	 3.1480
 4.4470	 3.1610
 4.4510	 3.1640
 4.4550	 3.2020
 4.4590	 3.2000
 4.4620	 3.1930
 4.4660	 3.1880
 4.4700	 3.1440
 4.4740	 3.1530
 4.4780	 3.1730
 4.4820	 3.1560
 4.4860	 3.1390
 4.4900	 3.1610
 4.4930	 3.1500
 4.4970	 3.0630
 4.5010	 3.0660
 4.5050	 3.0850
 4.5090	 3.0910
 4.5130	 3.1540
 4.5170	 3.1700
 4.5210	 3.1320
 4.5250	 3.0930
 4.5290	 3.0960
 4.5330	 3.1200
 4.5370	 3.1350
 4.5410	 3.1160
 4.5450	 3.0590
 4.5490	 3.0510
 4.5530	 3.1090
 4.5570	 3.1040
 4.5610	 3.0580
 4.5650	 3.0980
 4.5690	 3.0140
 4.5730	 2.9910
 4.5770	 3.0460
 4.5810	 3.0570
 4.5850	 3.1180
 4.5890	 3.1000
 4.5930	 3.0750
 4.5970	 3.0400
 4.6010	 3.0140
 4.6050	 3.0020
 4.6090	 3.0230
 4.6130	 3.0510
 4.6170	 3.0140
 4.6220	 3.0240
 4.6260	 3.0200
 4.6300	 2.9680
 4.6340	 3.0090
 4.6380	 3.0600
 4.6420	 3.0560
 4.6460	 3.0240
 4.6510	 3.0260
 4.6550	 3.0150
 4.6590	 2.9710
 4.6630	 2.9750
 4.6670	 3.0180
 4.6720	 2.9880
 4.6760	 2.9790
 4.6800	 3.0310
 4.6840	 3.0330
 4.6880	 3.0320
 4.6930	 3.0260
 4.6970	 3.0630
 4.7010	 3.0670
 4.7050	 3.0010
 4.7100	 2.9400
 4.7140	 2.9550
 4.7180	 3.0100
 4.7230	 3.0050
 4.7270	 2.9680
 4.7310	 2.9270
 4.7360	 2.9300
 4.7400	 2.9670
 4.7440	 2.9670
 4.7490	 2.9870
 4.7530	 2.9580
 4.7570	 2.9350
 4.7620	 3.0000
 4.7660	 3.0650
 4.7700	 3.0360
 4.7750	 2.9920
 4.7790	 3.0090
 4.7840	 3.0180
 4.7880	 2.9830
 4.7920	 3.0680
 4.7970	 3.1090
 4.8010	 3.0820
 4.8060	 3.0230
 4.8100	 3.0300
 4.8150	 3.0650
 4.8190	 3.0120
 4.8240	 2.9640
 4.8280	 3.0430
 4.8330	 3.0570
 4.8370	 3.0440
 4.8420	 3.0170
 4.8460	 3.0610
 4.8510	 3.0840
 4.8550	 3.0640
 4.8600	 2.9740
 4.8640	 2.9620
 4.8690	 3.0040
 4.8730	 3.0440
 4.8780	 3.0300
 4.8830	 2.9920
 4.8870	 3.1010
 4.8920	 3.1290
 4.8960	 3.0650
 4.9010	 3.0240
 4.9060	 3.0280
 4.9100	 3.1170
 4.9150	 3.0990
 4.9200	 3.0130
 4.9240	 2.9800
 4.9290	 3.0100
 4.9340	 3.0550
 4.9380	 3.0930
 4.9430	 3.0590
 4.9480	 3.0800
 4.9530	 3.0800
 4.9570	 3.0570
 4.9620	 3.0660
 4.9670	 3.0730
 4.9720	 3.0590
 4.9760	 3.0780
 4.9810	 3.0700
 4.9860	 3.0850
 4.9910	 3.0580
 4.9960	 3.0500
 5.0000	 3.0860
 5.0050	 3.1280
 5.0100	 3.1110
 5.0150	 3.0870
 5.0200	 3.0580
 5.0250	 3.0440
 5.0290	 3.0060
 5.0340	 3.0390
 5.0390	 3.0690
 5.0440	 3.1140
 5.0490	 3.0990
 5.0540	 3.1090
 5.0590	 3.0700
 5.0640	 3.0970
 5.0690	 3.1280
 5.0740	 3.0810
 5.0790	 2.9840
 5.0840	 3.0460
 5.0890	 3.1020
 5.0940	 3.0980
 5.0990	 3.0580
 5.1040	 3.1040
 5.1090	 3.1390
 5.1140	 3.1600
 5.1190	 3.1390
 5.1240	 3.1320
 5.1290	 3.0880
 5.1340	 3.0230
 5.1390	 2.9840
 5.1440	 3.0660
 5.1490	 3.1100
 5.1540	 3.1640
 5.1600	 3.1490
 5.1650	 3.1380
 5.1700	 3.1350
 5.1750	 3.1600
 5.1800	 3.1600
 5.1850	 3.1660
 5.1910	 3.1180
 5.1960	 3.1260
 5.2010	 3.1130
 5.2060	 3.1340
 5.2110	 3.1760
 5.2170	 3.1930
 5.2220	 3.1830
 5.2270	 3.1760
 5.2320	 3.1080
 5.2380	 3.1570
 5.2430	 3.1620
 5.2480	 3.0870
 5.2540	 3.0650
 5.2590	 3.1070
 5.2640	 3.1000
 5.2700	 3.0860
 5.2750	 3.0730
 5.2800	 3.0980
 5.2860	 3.1120
 5.2910	 3.1420
 5.2970	 3.0660
 5.3020	 3.0090
 5.3070	 3.0100
 5.3130	 3.0450
 5.3180	 3.0320
 5.3240	 3.0580
 5.3290	 3.0580
 5.3350	 3.0570
 5.3400	 3.0510
 5.3460	 3.0220
 5.3510	 2.9610
 5.3570	 2.9930
 5.3620	 2.9780
 5.3680	 2.9800
 5.3730	 2.9550
 5.3790	 2.9720
 5.3850	 3.0140
 5.3900	 3.0880
 5.3960	 3.0750
 5.4010	 3.0320
 5.4070	 2.9630
 5.4130	 3.0370
 5.4180	 3.0520
 5.4240	 2.9910
 5.4300	 2.8930
 5.4350	 2.9020
