Name: Salvia leucophylla 2
Type: vegetation
Class: Shrub
Genus: Salvia
Species: leucophylla
Sample No.: VH288
Owner: UCSB
Wavelength Range: TIR
Origin: 34.698; -120.0477; WGS84
Collection Date: 11/2/2013
Description: Samples were collected as part of the HyspIRI Airborne Campaign. 48 individual plants were sampled in three times in 2013 - spring  summer  and fall. The name of the sample includes a 1  2  or 3 which references a different individual of the species. Samples were taken to JPL and processed within 48 hours of collection. The same leaves were processed in the Nicolet and then measured using the ASD.
Measurement: Hemispherical reflectance
First Column: X
Second Column: Y
X Units: Wavelength (micrometers)
Y Units: Reflectance (percentage)
First X Value: 2.501
Last X Value: 15.387
Number of X Values: 1737
Additional Information: vegetation.shrub.salvia.leucophylla.tir.vh288.ucsb.nicolet.ancillary.txt

 2.5010	34.5080
 2.5030	34.2990
 2.5040	34.2230
 2.5050	34.3050
 2.5060	34.3850
 2.5070	34.4440
 2.5090	34.6670
 2.5100	34.6410
 2.5110	34.4100
 2.5120	34.3930
 2.5140	34.5310
 2.5150	34.5450
 2.5160	34.5730
 2.5170	34.5340
 2.5180	34.5750
 2.5200	34.5380
 2.5210	34.4120
 2.5220	34.2670
 2.5230	34.2610
 2.5250	34.4560
 2.5260	34.5070
 2.5270	34.3120
 2.5280	34.4690
 2.5290	34.6750
 2.5310	34.6880
 2.5320	34.4720
 2.5330	34.5550
 2.5340	34.5790
 2.5360	34.4250
 2.5370	34.4330
 2.5380	34.5700
 2.5390	34.6550
 2.5410	34.7240
 2.5420	34.6690
 2.5430	34.6260
 2.5440	34.6080
 2.5460	34.5940
 2.5470	34.6480
 2.5480	34.5950
 2.5490	34.6210
 2.5510	34.6260
 2.5520	34.6070
 2.5530	34.7450
 2.5540	34.8700
 2.5560	34.8350
 2.5570	34.7590
 2.5580	34.8410
 2.5590	34.7280
 2.5610	34.4010
 2.5620	34.2610
 2.5630	34.5890
 2.5640	34.8310
 2.5660	34.9800
 2.5670	35.1120
 2.5680	35.0470
 2.5700	34.7860
 2.5710	34.8130
 2.5720	34.9230
 2.5730	34.6300
 2.5750	34.6640
 2.5760	34.7900
 2.5770	34.5850
 2.5790	34.7130
 2.5800	34.8110
 2.5810	34.7060
 2.5820	34.7130
 2.5840	34.3550
 2.5850	34.3350
 2.5860	34.7490
 2.5880	34.6320
 2.5890	34.8310
 2.5900	35.0010
 2.5910	35.0910
 2.5930	34.8500
 2.5940	34.0240
 2.5950	33.2060
 2.5970	33.8130
 2.5980	34.6050
 2.5990	34.9550
 2.6000	34.9110
 2.6020	34.7560
 2.6030	34.6000
 2.6040	34.3620
 2.6060	33.9580
 2.6070	34.2770
 2.6080	34.5480
 2.6100	34.6250
 2.6110	34.7190
 2.6120	34.7490
 2.6140	34.6760
 2.6150	34.6920
 2.6160	34.2440
 2.6180	33.9040
 2.6190	34.2000
 2.6200	33.9150
 2.6220	34.0320
 2.6230	34.7110
 2.6240	34.7530
 2.6260	34.4750
 2.6270	33.9010
 2.6280	33.9730
 2.6300	33.7930
 2.6310	33.2920
 2.6320	33.5620
 2.6340	33.8750
 2.6350	33.8160
 2.6360	34.0480
 2.6380	34.1060
 2.6390	34.0290
 2.6400	33.9030
 2.6420	33.7800
 2.6430	33.7500
 2.6440	33.7160
 2.6460	33.3730
 2.6470	33.3440
 2.6480	33.4950
 2.6500	33.5530
 2.6510	33.3300
 2.6520	32.9560
 2.6540	32.8380
 2.6550	33.0010
 2.6560	33.0160
 2.6580	33.0680
 2.6590	32.7070
 2.6610	32.4710
 2.6620	32.5720
 2.6630	32.5600
 2.6650	32.0230
 2.6660	31.4940
 2.6670	31.4790
 2.6690	31.9040
 2.6700	31.3050
 2.6720	30.9270
 2.6730	31.6190
 2.6740	31.7980
 2.6760	31.4020
 2.6770	30.8310
 2.6780	30.6400
 2.6800	30.6640
 2.6810	30.8680
 2.6830	30.8590
 2.6840	30.5500
 2.6850	30.4450
 2.6870	30.2550
 2.6880	30.0250
 2.6900	29.8760
 2.6910	29.8060
 2.6920	29.3680
 2.6940	28.6430
 2.6950	28.1120
 2.6970	27.9990
 2.6980	27.9830
 2.6990	27.8590
 2.7010	27.4390
 2.7020	27.0620
 2.7040	26.6630
 2.7050	26.4380
 2.7060	26.2300
 2.7080	25.9820
 2.7090	25.6190
 2.7110	25.2740
 2.7120	25.0760
 2.7130	25.2250
 2.7150	25.1610
 2.7160	25.0670
 2.7180	24.6960
 2.7190	24.1710
 2.7210	23.4470
 2.7220	23.2820
 2.7230	22.9470
 2.7250	22.4200
 2.7260	22.5800
 2.7280	22.6720
 2.7290	22.3820
 2.7310	22.1000
 2.7320	22.1190
 2.7330	21.8460
 2.7350	21.1100
 2.7360	20.7680
 2.7380	20.7010
 2.7390	20.0770
 2.7410	19.5740
 2.7420	19.7390
 2.7440	19.9100
 2.7450	19.9100
 2.7470	19.6060
 2.7480	19.3600
 2.7490	19.1070
 2.7510	18.8080
 2.7520	18.3590
 2.7540	18.3390
 2.7550	18.0380
 2.7570	17.6730
 2.7580	17.7710
 2.7600	18.0350
 2.7610	17.8000
 2.7630	17.5220
 2.7640	17.4420
 2.7660	17.3720
 2.7670	17.1520
 2.7680	17.1520
 2.7700	17.1200
 2.7710	17.0170
 2.7730	16.9030
 2.7740	16.8700
 2.7760	16.8470
 2.7770	16.7980
 2.7790	16.4260
 2.7800	16.2610
 2.7820	16.1980
 2.7830	16.1780
 2.7850	16.1080
 2.7860	15.8610
 2.7880	15.7080
 2.7890	15.7340
 2.7910	15.8070
 2.7920	15.9400
 2.7940	15.8540
 2.7950	15.6760
 2.7970	15.4610
 2.7980	15.4130
 2.8000	15.4470
 2.8010	15.4830
 2.8030	15.0760
 2.8040	14.9440
 2.8060	15.1500
 2.8070	15.2150
 2.8090	15.1060
 2.8110	15.0540
 2.8120	15.0470
 2.8140	15.0710
 2.8150	14.9910
 2.8170	14.8410
 2.8180	14.7610
 2.8200	14.7480
 2.8210	14.7310
 2.8230	14.6720
 2.8240	14.5260
 2.8260	14.5850
 2.8270	14.7000
 2.8290	14.8380
 2.8300	14.6790
 2.8320	14.5390
 2.8340	14.2880
 2.8350	14.2960
 2.8370	14.3790
 2.8380	14.5450
 2.8400	14.4160
 2.8410	14.3800
 2.8430	14.3640
 2.8440	14.3880
 2.8460	14.3330
 2.8480	14.2570
 2.8490	14.1630
 2.8510	14.0270
 2.8520	13.9660
 2.8540	14.0550
 2.8550	14.0360
 2.8570	13.9990
 2.8590	13.8760
 2.8600	14.0000
 2.8620	14.1040
 2.8630	13.9990
 2.8650	13.8100
 2.8660	13.9200
 2.8680	13.9920
 2.8700	13.9340
 2.8710	13.6390
 2.8730	13.5860
 2.8740	13.4890
 2.8760	13.4820
 2.8780	13.6960
 2.8790	13.9220
 2.8810	13.7120
 2.8820	13.5160
 2.8840	13.6630
 2.8860	13.6990
 2.8870	13.7790
 2.8890	13.7800
 2.8900	13.5830
 2.8920	13.4310
 2.8940	13.4490
 2.8950	13.4770
 2.8970	13.3890
 2.8980	13.3800
 2.9000	13.4130
 2.9020	13.6000
 2.9030	13.3880
 2.9050	13.3840
 2.9070	13.5260
 2.9080	13.3080
 2.9100	13.2530
 2.9120	13.4730
 2.9130	13.5100
 2.9150	13.6770
 2.9160	13.7550
 2.9180	13.7290
 2.9200	13.4020
 2.9210	13.3640
 2.9230	13.2890
 2.9250	13.3260
 2.9260	13.4010
 2.9280	13.4000
 2.9300	13.5590
 2.9310	13.7760
 2.9330	13.5570
 2.9350	13.4130
 2.9360	13.4530
 2.9380	13.5090
 2.9400	13.4240
 2.9410	13.6650
 2.9430	13.6830
 2.9450	13.6090
 2.9460	13.5560
 2.9480	13.5160
 2.9500	13.5940
 2.9510	13.6330
 2.9530	13.7980
 2.9550	13.3520
 2.9560	13.1170
 2.9580	12.9960
 2.9600	12.4330
 2.9610	12.6770
 2.9630	13.0090
 2.9650	13.0020
 2.9660	12.8920
 2.9680	13.1800
 2.9700	13.0140
 2.9720	12.3730
 2.9730	12.9920
 2.9750	13.6210
 2.9770	12.4580
 2.9780	12.3320
 2.9800	13.0140
 2.9820	13.2880
 2.9840	13.5460
 2.9850	13.8030
 2.9870	13.6750
 2.9890	13.4720
 2.9900	14.5790
 2.9920	14.0010
 2.9940	12.3220
 2.9960	12.8860
 2.9970	13.4320
 2.9990	13.5540
 3.0010	14.3940
 3.0030	14.5310
 3.0040	14.0940
 3.0060	13.7710
 3.0080	13.6810
 3.0100	14.3980
 3.0110	14.4530
 3.0130	14.3710
 3.0150	14.1790
 3.0170	13.9850
 3.0180	13.9880
 3.0200	13.8730
 3.0220	13.5840
 3.0240	13.8100
 3.0250	14.2270
 3.0270	14.1950
 3.0290	13.8470
 3.0310	13.4680
 3.0320	13.6860
 3.0340	14.4750
 3.0360	15.3310
 3.0380	14.9970
 3.0400	14.2440
 3.0410	13.7840
 3.0430	13.7740
 3.0450	14.2520
 3.0470	15.9680
 3.0480	15.5780
 3.0500	12.5820
 3.0520	11.0530
 3.0540	11.9910
 3.0560	13.5750
 3.0570	13.6110
 3.0590	13.3580
 3.0610	13.7860
 3.0630	14.4360
 3.0650	14.3960
 3.0660	13.9600
 3.0680	14.2340
 3.0700	14.8490
 3.0720	14.3620
 3.0740	13.9180
 3.0760	13.8120
 3.0770	13.7860
 3.0790	13.8290
 3.0810	14.1840
 3.0830	14.2780
 3.0850	14.3340
 3.0870	14.2870
 3.0880	14.3440
 3.0900	14.4390
 3.0920	14.5630
 3.0940	14.3370
 3.0960	14.5570
 3.0980	14.7860
 3.0990	14.9040
 3.1010	14.5790
 3.1030	14.4600
 3.1050	14.6170
 3.1070	14.8130
 3.1090	14.7490
 3.1110	14.6890
 3.1120	14.6890
 3.1140	14.8380
 3.1160	14.8290
 3.1180	14.9550
 3.1200	14.9320
 3.1220	14.9080
 3.1240	14.8050
 3.1260	14.8000
 3.1270	14.6070
 3.1290	14.8270
 3.1310	14.9960
 3.1330	15.1570
 3.1350	14.6770
 3.1370	14.2790
 3.1390	14.6800
 3.1410	15.2300
 3.1430	15.6310
 3.1450	14.6380
 3.1460	14.0260
 3.1480	14.7170
 3.1500	15.4320
 3.1520	15.8480
 3.1540	15.8750
 3.1560	15.7340
 3.1580	15.6930
 3.1600	16.3990
 3.1620	16.1430
 3.1640	15.3000
 3.1660	15.5580
 3.1680	15.5400
 3.1700	14.7790
 3.1710	16.4310
 3.1730	16.1990
 3.1750	14.8400
 3.1770	15.4670
 3.1790	15.9950
 3.1810	15.7640
 3.1830	16.0600
 3.1850	15.8450
 3.1870	15.6250
 3.1890	15.6200
 3.1910	15.7200
 3.1930	15.9090
 3.1950	15.9940
 3.1970	16.0730
 3.1990	16.1760
 3.2010	16.0750
 3.2030	15.8880
 3.2050	15.9900
 3.2070	16.2010
 3.2090	16.1240
 3.2110	15.9260
 3.2130	15.9140
 3.2150	15.9610
 3.2170	16.0190
 3.2190	15.9560
 3.2210	15.9100
 3.2230	16.0730
 3.2250	16.0860
 3.2270	16.0270
 3.2290	16.1960
 3.2310	16.4690
 3.2330	16.3170
 3.2350	16.3630
 3.2370	16.4760
 3.2390	16.5090
 3.2410	16.3690
 3.2430	16.1840
 3.2450	16.0820
 3.2470	16.1550
 3.2490	16.2280
 3.2510	16.2900
 3.2530	16.3440
 3.2550	16.4540
 3.2570	16.5380
 3.2590	16.4880
 3.2610	16.3610
 3.2630	16.5200
 3.2650	16.5500
 3.2670	16.5830
 3.2690	16.6300
 3.2720	16.5350
 3.2740	16.3780
 3.2760	16.4160
 3.2780	16.5210
 3.2800	16.4530
 3.2820	16.4900
 3.2840	16.5220
 3.2860	16.4150
 3.2880	16.4070
 3.2900	16.5400
 3.2920	16.6520
 3.2940	16.4240
 3.2960	16.5080
 3.2990	16.5060
 3.3010	16.4050
 3.3030	16.3510
 3.3050	16.3150
 3.3070	16.5990
 3.3090	16.7260
 3.3110	16.4910
 3.3130	16.2700
 3.3150	16.1050
 3.3180	16.2360
 3.3200	16.3240
 3.3220	16.2430
 3.3240	16.1050
 3.3260	16.0420
 3.3280	15.8730
 3.3300	15.7910
 3.3330	15.7320
 3.3350	15.5790
 3.3370	15.4110
 3.3390	15.3980
 3.3410	15.3780
 3.3430	15.3850
 3.3450	15.2040
 3.3480	14.9550
 3.3500	14.7280
 3.3520	14.7080
 3.3540	14.6880
 3.3560	14.6920
 3.3580	14.6090
 3.3610	14.4220
 3.3630	14.1820
 3.3650	14.1960
 3.3670	14.2860
 3.3690	14.2450
 3.3720	14.1050
 3.3740	13.9590
 3.3760	13.9430
 3.3780	13.9050
 3.3800	13.7010
 3.3830	13.7400
 3.3850	13.6830
 3.3870	13.5480
 3.3890	13.3310
 3.3910	13.3140
 3.3940	13.2840
 3.3960	13.3470
 3.3980	13.3030
 3.4000	13.1620
 3.4020	13.0830
 3.4050	13.1430
 3.4070	13.1460
 3.4090	13.2110
 3.4110	13.1980
 3.4140	13.2080
 3.4160	13.2970
 3.4180	13.3760
 3.4200	13.3250
 3.4230	13.3170
 3.4250	13.2700
 3.4270	13.4080
 3.4290	13.6410
 3.4320	13.7840
 3.4340	13.7680
 3.4360	13.8970
 3.4390	13.9590
 3.4410	13.9840
 3.4430	14.0440
 3.4450	14.1370
 3.4480	14.2090
 3.4500	14.3400
 3.4520	14.3120
 3.4550	14.2890
 3.4570	14.2480
 3.4590	14.4500
 3.4620	14.7570
 3.4640	14.8160
 3.4660	14.8660
 3.4680	15.0050
 3.4710	14.9400
 3.4730	14.8520
 3.4750	14.8370
 3.4780	14.8120
 3.4800	14.6660
 3.4820	14.6600
 3.4850	14.7550
 3.4870	14.7870
 3.4890	14.6700
 3.4920	14.6080
 3.4940	14.4860
 3.4970	14.4220
 3.4990	14.5320
 3.5010	14.5180
 3.5040	14.4850
 3.5060	14.5330
 3.5080	14.5900
 3.5110	14.7470
 3.5130	15.1100
 3.5160	15.5230
 3.5180	15.8550
 3.5200	16.1020
 3.5230	16.3110
 3.5250	16.6630
 3.5270	17.0070
 3.5300	17.2600
 3.5320	17.4410
 3.5350	17.5830
 3.5370	17.6480
 3.5400	17.8770
 3.5420	18.1830
 3.5440	18.3300
 3.5470	18.3390
 3.5490	18.3480
 3.5520	18.4080
 3.5540	18.5910
 3.5570	18.7090
 3.5590	18.8400
 3.5610	18.9410
 3.5640	18.9850
 3.5660	18.9310
 3.5690	18.9540
 3.5710	19.0880
 3.5740	19.1950
 3.5760	19.3360
 3.5790	19.4730
 3.5810	19.5060
 3.5840	19.5370
 3.5860	19.6250
 3.5890	19.7520
 3.5910	19.7340
 3.5930	19.7220
 3.5960	19.7920
 3.5980	19.9510
 3.6010	19.9540
 3.6030	20.0800
 3.6060	20.1770
 3.6080	20.0800
 3.6110	20.0500
 3.6140	20.1810
 3.6160	20.2610
 3.6190	20.3470
 3.6210	20.4160
 3.6240	20.4580
 3.6260	20.4350
 3.6290	20.3470
 3.6310	20.3220
 3.6340	20.3910
 3.6360	20.4800
 3.6390	20.6000
 3.6410	20.6000
 3.6440	20.5130
 3.6470	20.4830
 3.6490	20.5430
 3.6520	20.5810
 3.6540	20.5840
 3.6570	20.4940
 3.6590	20.5380
 3.6620	20.5580
 3.6650	20.5930
 3.6670	20.5680
 3.6700	20.6650
 3.6720	20.6840
 3.6750	20.7050
 3.6780	20.7870
 3.6800	20.8560
 3.6830	20.8860
 3.6850	20.9580
 3.6880	20.9210
 3.6910	20.9070
 3.6930	20.9020
 3.6960	21.0240
 3.6990	21.0520
 3.7010	21.0960
 3.7040	21.0970
 3.7060	21.0050
 3.7090	21.0080
 3.7120	21.1080
 3.7140	21.0930
 3.7170	21.1110
 3.7200	21.2060
 3.7220	21.2270
 3.7250	21.1760
 3.7280	21.1480
 3.7300	21.1720
 3.7330	21.2370
 3.7360	21.1870
 3.7390	21.1880
 3.7410	21.1810
 3.7440	21.1680
 3.7470	21.1820
 3.7490	21.3020
 3.7520	21.2490
 3.7550	21.2070
 3.7580	21.2270
 3.7600	21.3280
 3.7630	21.3860
 3.7660	21.4700
 3.7680	21.4720
 3.7710	21.6040
 3.7740	21.7060
 3.7770	21.6300
 3.7790	21.5930
 3.7820	21.6420
 3.7850	21.6620
 3.7880	21.7230
 3.7900	21.6820
 3.7930	21.7140
 3.7960	21.7400
 3.7990	21.8030
 3.8020	21.8490
 3.8040	21.8870
 3.8070	21.9390
 3.8100	21.9810
 3.8130	21.9130
 3.8160	21.9410
 3.8180	21.9830
 3.8210	22.0020
 3.8240	22.0560
 3.8270	22.1050
 3.8300	22.0840
 3.8330	22.1480
 3.8350	22.4150
 3.8380	22.5320
 3.8410	22.4140
 3.8440	22.4090
 3.8470	22.4630
 3.8500	22.4760
 3.8520	22.5210
 3.8550	22.5590
 3.8580	22.5790
 3.8610	22.5830
 3.8640	22.5240
 3.8670	22.5800
 3.8700	22.6080
 3.8730	22.6370
 3.8750	22.6410
 3.8780	22.6560
 3.8810	22.6490
 3.8840	22.8050
 3.8870	22.8730
 3.8900	22.8930
 3.8930	22.9370
 3.8960	23.0450
 3.8990	22.9880
 3.9020	22.9470
 3.9050	23.0270
 3.9080	23.0910
 3.9110	23.1130
 3.9140	23.1890
 3.9160	23.2390
 3.9190	23.2110
 3.9220	23.1450
 3.9250	23.2450
 3.9280	23.3070
 3.9310	23.3520
 3.9340	23.3860
 3.9370	23.4280
 3.9400	23.4410
 3.9430	23.5210
 3.9460	23.5710
 3.9490	23.5860
 3.9520	23.6670
 3.9550	23.5690
 3.9580	23.4670
 3.9610	23.6030
 3.9640	23.7390
 3.9670	23.9630
 3.9700	24.0880
 3.9730	24.0130
 3.9770	24.0290
 3.9800	24.1150
 3.9830	24.0900
 3.9860	24.1840
 3.9890	24.3100
 3.9920	24.3560
 3.9950	24.3560
 3.9980	24.4040
 4.0010	24.4430
 4.0040	24.5180
 4.0070	24.5500
 4.0100	24.6000
 4.0130	24.6570
 4.0170	24.7590
 4.0200	24.7680
 4.0230	24.8520
 4.0260	24.9070
 4.0290	24.9790
 4.0320	25.0080
 4.0350	25.0640
 4.0380	25.1600
 4.0420	25.2200
 4.0450	25.2370
 4.0480	25.3210
 4.0510	25.3890
 4.0540	25.4350
 4.0570	25.4970
 4.0610	25.5040
 4.0640	25.4600
 4.0670	25.5520
 4.0700	25.6670
 4.0730	25.6700
 4.0770	25.7350
 4.0800	25.8100
 4.0830	25.7500
 4.0860	25.7980
 4.0890	25.9000
 4.0930	25.9530
 4.0960	25.9590
 4.0990	26.0500
 4.1020	26.0770
 4.1060	26.0390
 4.1090	26.0090
 4.1120	26.0270
 4.1150	26.1610
 4.1190	26.3230
 4.1220	26.2980
 4.1250	26.2270
 4.1280	26.2660
 4.1320	26.3560
 4.1350	26.3980
 4.1380	26.4380
 4.1420	26.4400
 4.1450	26.4780
 4.1480	26.4450
 4.1520	26.4960
 4.1550	26.6060
 4.1580	26.6810
 4.1620	26.6770
 4.1650	26.6050
 4.1680	26.5420
 4.1720	26.6140
 4.1750	26.6480
 4.1780	26.7060
 4.1820	26.7360
 4.1850	26.7470
 4.1890	26.7530
 4.1920	26.7130
 4.1950	26.7070
 4.1990	26.6260
 4.2020	26.5100
 4.2060	26.4320
 4.2090	26.2660
 4.2120	26.1660
 4.2160	26.0800
 4.2190	25.9020
 4.2230	25.6340
 4.2260	25.4660
 4.2300	25.2460
 4.2330	25.1060
 4.2360	25.0330
 4.2400	25.1120
 4.2430	25.4690
 4.2470	25.6920
 4.2500	25.6400
 4.2540	25.8200
 4.2570	26.0680
 4.2610	26.2760
 4.2640	26.2480
 4.2680	25.9850
 4.2710	25.9130
 4.2750	25.9880
 4.2780	25.8460
 4.2820	25.9710
 4.2850	26.2270
 4.2890	26.3190
 4.2930	26.4010
 4.2960	26.1690
 4.3000	26.0060
 4.3030	26.1370
 4.3070	26.1700
 4.3100	26.1340
 4.3140	26.2170
 4.3180	26.4110
 4.3210	26.5090
 4.3250	26.6150
 4.3280	26.5680
 4.3320	26.6540
 4.3360	26.7500
 4.3390	26.8260
 4.3430	26.7870
 4.3470	26.8540
 4.3500	26.9210
 4.3540	26.9040
 4.3570	26.8960
 4.3610	26.9010
 4.3650	26.8970
 4.3680	26.9290
 4.3720	26.9350
 4.3760	26.9980
 4.3800	27.0340
 4.3830	27.0590
 4.3870	27.0260
 4.3910	27.0870
 4.3940	27.0870
 4.3980	27.0760
 4.4020	27.0080
 4.4060	26.9390
 4.4090	26.9060
 4.4130	26.8740
 4.4170	26.9350
 4.4210	27.0320
 4.4240	27.0150
 4.4280	26.9550
 4.4320	26.9120
 4.4360	26.8940
 4.4400	26.8800
 4.4430	26.9260
 4.4470	26.8810
 4.4510	26.8070
 4.4550	26.8770
 4.4590	26.8960
 4.4620	26.8740
 4.4660	26.8210
 4.4700	26.7620
 4.4740	26.8250
 4.4780	26.8900
 4.4820	26.8710
 4.4860	26.8270
 4.4900	26.7960
 4.4930	26.7710
 4.4970	26.7590
 4.5010	26.7830
 4.5050	26.8400
 4.5090	26.7810
 4.5130	26.6510
 4.5170	26.6770
 4.5210	26.7170
 4.5250	26.6890
 4.5290	26.6770
 4.5330	26.6370
 4.5370	26.5530
 4.5410	26.4600
 4.5450	26.4610
 4.5490	26.6320
 4.5530	26.6730
 4.5570	26.5510
 4.5610	26.5020
 4.5650	26.5180
 4.5690	26.5030
 4.5730	26.4530
 4.5770	26.3980
 4.5810	26.3780
 4.5850	26.4670
 4.5890	26.5020
 4.5930	26.4040
 4.5970	26.3810
 4.6010	26.3330
 4.6050	26.2380
 4.6090	26.3570
 4.6130	26.4070
 4.6170	26.3330
 4.6220	26.3620
 4.6260	26.3020
 4.6300	26.2470
 4.6340	26.3390
 4.6380	26.3850
 4.6420	26.4010
 4.6460	26.4580
 4.6510	26.4160
 4.6550	26.2680
 4.6590	26.2220
 4.6630	26.3000
 4.6670	26.3190
 4.6720	26.2670
 4.6760	26.2650
 4.6800	26.3000
 4.6840	26.2680
 4.6880	26.3230
 4.6930	26.3280
 4.6970	26.2910
 4.7010	26.3090
 4.7050	26.2840
 4.7100	26.2730
 4.7140	26.2850
 4.7180	26.3890
 4.7230	26.3590
 4.7270	26.2750
 4.7310	26.3210
 4.7360	26.3740
 4.7400	26.3890
 4.7440	26.3440
 4.7490	26.3640
 4.7530	26.4640
 4.7570	26.4670
 4.7620	26.4520
 4.7660	26.4990
 4.7700	26.5250
 4.7750	26.5290
 4.7790	26.4820
 4.7840	26.5020
 4.7880	26.5280
 4.7920	26.5500
 4.7970	26.3990
 4.8010	26.4140
 4.8060	26.5230
 4.8100	26.6130
 4.8150	26.6930
 4.8190	26.6730
 4.8240	26.6650
 4.8280	26.6310
 4.8330	26.5860
 4.8370	26.6000
 4.8420	26.6430
 4.8460	26.6290
 4.8510	26.5430
 4.8550	26.6190
 4.8600	26.7060
 4.8640	26.7240
 4.8690	26.6600
 4.8730	26.5990
 4.8780	26.6300
 4.8830	26.6880
 4.8870	26.7090
 4.8920	26.6860
 4.8960	26.6870
 4.9010	26.6900
 4.9060	26.6540
 4.9100	26.6590
 4.9150	26.6780
 4.9200	26.7440
 4.9240	26.7560
 4.9290	26.7570
 4.9340	26.7280
 4.9380	26.6970
 4.9430	26.7620
 4.9480	26.8300
 4.9530	26.8300
 4.9570	26.8370
 4.9620	26.8840
 4.9670	26.9270
 4.9720	26.9870
 4.9760	27.0500
 4.9810	27.0330
 4.9860	27.0350
 4.9910	27.0630
 4.9960	27.1000
 5.0000	27.0920
 5.0050	27.1170
 5.0100	27.0880
 5.0150	27.1520
 5.0200	27.1220
 5.0250	27.0960
 5.0290	27.1140
 5.0340	27.1820
 5.0390	27.2210
 5.0440	27.2050
 5.0490	27.2200
 5.0540	27.2900
 5.0590	27.2890
 5.0640	27.2850
 5.0690	27.2600
 5.0740	27.3160
 5.0790	27.3570
 5.0840	27.3400
 5.0890	27.3130
 5.0940	27.3610
 5.0990	27.3860
 5.1040	27.4240
 5.1090	27.4220
 5.1140	27.3490
 5.1190	27.2660
 5.1240	27.2920
 5.1290	27.3700
 5.1340	27.4070
 5.1390	27.3770
 5.1440	27.2380
 5.1490	27.2720
 5.1540	27.5070
 5.1600	27.5830
 5.1650	27.4230
 5.1700	27.2850
 5.1750	27.2790
 5.1800	27.3110
 5.1850	27.3180
 5.1910	27.2510
 5.1960	27.1840
 5.2010	27.1830
 5.2060	27.2530
 5.2110	27.1260
 5.2170	27.0900
 5.2220	27.1750
 5.2270	27.1080
 5.2320	27.0030
 5.2380	27.0020
 5.2430	27.0750
 5.2480	27.1060
 5.2540	27.0590
 5.2590	27.0290
 5.2640	26.9610
 5.2700	26.9150
 5.2750	26.8600
 5.2800	26.8160
 5.2860	26.7820
 5.2910	26.6700
 5.2970	26.6730
 5.3020	26.6800
 5.3070	26.6500
 5.3130	26.7050
 5.3180	26.6240
 5.3240	26.5340
 5.3290	26.5700
 5.3350	26.5690
 5.3400	26.5010
 5.3460	26.3920
 5.3510	26.2640
 5.3570	26.3130
 5.3620	26.3390
 5.3680	26.3450
 5.3730	26.3200
 5.3790	26.2930
 5.3850	26.2640
 5.3900	26.3100
 5.3960	26.2640
 5.4010	26.3280
 5.4070	26.3030
 5.4130	26.1540
 5.4180	25.8260
 5.4240	25.6610
 5.4300	25.8350
 5.4350	25.9130
