Name: Bambusa beecheyana
Type: vegetation
Class: Tree
Genus: Bambusa
Species: beecheyana
Sample No.: JPL244
Owner: JPL
Wavelength Range: VSWIR
Origin: 34.12536; -118.11136; WGS84
Collection Date: 10/6/2016
Description: Samples were collected at the Huntington Garden in San Marino California as part of a JPL Subcontract studying HyTES imagery. Samples were taken to JPL and processed within 48 hours of collection. The same leaves were processed in the Nicolet and then measured using the ASD.
Measurement: Bidirectional reflectance
First Column: X
Second Column: Y
X Units: Wavelength (micrometer)
Y Units: Reflectance (percentage)
First X Value: 0.35
Last X Value: 2.5
Number of X Values: 2151
Additional Information: vegetation.tree.bambusa.beecheyana.vswir.jpl244.jpl.asd.ancillary.txt

 0.3500	 7.9760
 0.3510	 7.7240
 0.3520	 7.7470
 0.3530	 7.8610
 0.3540	 7.8580
 0.3550	 7.9030
 0.3560	 7.8960
 0.3570	 7.8240
 0.3580	 7.7280
 0.3590	 7.6370
 0.3600	 7.6180
 0.3610	 7.6600
 0.3620	 7.6590
 0.3630	 7.6580
 0.3640	 7.7050
 0.3650	 7.7960
 0.3660	 7.7420
 0.3670	 7.6650
 0.3680	 7.6170
 0.3690	 7.5980
 0.3700	 7.5700
 0.3710	 7.5770
 0.3720	 7.6280
 0.3730	 7.6600
 0.3740	 7.6600
 0.3750	 7.6510
 0.3760	 7.6540
 0.3770	 7.5950
 0.3780	 7.5750
 0.3790	 7.6050
 0.3800	 7.6130
 0.3810	 7.6170
 0.3820	 7.6330
 0.3830	 7.6580
 0.3840	 7.6260
 0.3850	 7.6360
 0.3860	 7.6560
 0.3870	 7.6300
 0.3880	 7.6650
 0.3890	 7.6880
 0.3900	 7.6810
 0.3910	 7.6900
 0.3920	 7.6830
 0.3930	 7.6710
 0.3940	 7.6750
 0.3950	 7.7240
 0.3960	 7.7480
 0.3970	 7.7410
 0.3980	 7.7290
 0.3990	 7.7240
 0.4000	 7.7280
 0.4010	 7.7380
 0.4020	 7.7530
 0.4030	 7.7520
 0.4040	 7.7380
 0.4050	 7.7220
 0.4060	 7.7370
 0.4070	 7.7740
 0.4080	 7.8040
 0.4090	 7.7970
 0.4100	 7.7990
 0.4110	 7.8110
 0.4120	 7.8250
 0.4130	 7.8240
 0.4140	 7.8260
 0.4150	 7.8370
 0.4160	 7.8510
 0.4170	 7.8490
 0.4180	 7.8430
 0.4190	 7.8440
 0.4200	 7.8590
 0.4210	 7.8570
 0.4220	 7.8570
 0.4230	 7.8710
 0.4240	 7.8640
 0.4250	 7.8570
 0.4260	 7.8580
 0.4270	 7.8640
 0.4280	 7.8510
 0.4290	 7.8440
 0.4300	 7.8470
 0.4310	 7.8200
 0.4320	 7.7910
 0.4330	 7.7710
 0.4340	 7.7620
 0.4350	 7.7490
 0.4360	 7.7420
 0.4370	 7.7460
 0.4380	 7.7630
 0.4390	 7.7790
 0.4400	 7.7930
 0.4410	 7.8070
 0.4420	 7.8170
 0.4430	 7.8240
 0.4440	 7.8270
 0.4450	 7.8300
 0.4460	 7.8280
 0.4470	 7.8340
 0.4480	 7.8460
 0.4490	 7.8510
 0.4500	 7.8540
 0.4510	 7.8560
 0.4520	 7.8580
 0.4530	 7.8600
 0.4540	 7.8680
 0.4550	 7.8790
 0.4560	 7.8780
 0.4570	 7.8760
 0.4580	 7.8750
 0.4590	 7.8720
 0.4600	 7.8690
 0.4610	 7.8750
 0.4620	 7.8790
 0.4630	 7.8710
 0.4640	 7.8690
 0.4650	 7.8720
 0.4660	 7.8740
 0.4670	 7.8690
 0.4680	 7.8670
 0.4690	 7.8640
 0.4700	 7.8580
 0.4710	 7.8650
 0.4720	 7.8680
 0.4730	 7.8670
 0.4740	 7.8630
 0.4750	 7.8630
 0.4760	 7.8650
 0.4770	 7.8670
 0.4780	 7.8730
 0.4790	 7.8760
 0.4800	 7.8730
 0.4810	 7.8620
 0.4820	 7.8580
 0.4830	 7.8570
 0.4840	 7.8530
 0.4850	 7.8380
 0.4860	 7.8310
 0.4870	 7.8330
 0.4880	 7.8400
 0.4890	 7.8440
 0.4900	 7.8460
 0.4910	 7.8530
 0.4920	 7.8700
 0.4930	 7.8870
 0.4940	 7.9050
 0.4950	 7.9220
 0.4960	 7.9360
 0.4970	 7.9550
 0.4980	 7.9790
 0.4990	 8.0050
 0.5000	 8.0370
 0.5010	 8.0660
 0.5020	 8.0960
 0.5030	 8.1350
 0.5040	 8.1810
 0.5050	 8.2310
 0.5060	 8.2830
 0.5070	 8.3400
 0.5080	 8.4080
 0.5090	 8.4840
 0.5100	 8.5630
 0.5110	 8.6540
 0.5120	 8.7540
 0.5130	 8.8640
 0.5140	 8.9890
 0.5150	 9.1270
 0.5160	 9.2720
 0.5170	 9.4230
 0.5180	 9.5920
 0.5190	 9.7690
 0.5200	 9.9510
 0.5210	10.1400
 0.5220	10.3280
 0.5230	10.5170
 0.5240	10.7080
 0.5250	10.8960
 0.5260	11.0760
 0.5270	11.2460
 0.5280	11.4050
 0.5290	11.5570
 0.5300	11.6920
 0.5310	11.8110
 0.5320	11.9190
 0.5330	12.0170
 0.5340	12.1040
 0.5350	12.1780
 0.5360	12.2440
 0.5370	12.2970
 0.5380	12.3370
 0.5390	12.3660
 0.5400	12.3840
 0.5410	12.3860
 0.5420	12.3780
 0.5430	12.3810
 0.5440	12.3970
 0.5450	12.4240
 0.5460	12.4590
 0.5470	12.5010
 0.5480	12.5350
 0.5490	12.5530
 0.5500	12.5620
 0.5510	12.5610
 0.5520	12.5490
 0.5530	12.5280
 0.5540	12.4990
 0.5550	12.4600
 0.5560	12.4100
 0.5570	12.3460
 0.5580	12.2760
 0.5590	12.1990
 0.5600	12.1130
 0.5610	12.0240
 0.5620	11.9300
 0.5630	11.8300
 0.5640	11.7230
 0.5650	11.6090
 0.5660	11.4860
 0.5670	11.3560
 0.5680	11.2220
 0.5690	11.0840
 0.5700	10.9480
 0.5710	10.8200
 0.5720	10.6940
 0.5730	10.5750
 0.5740	10.4660
 0.5750	10.3680
 0.5760	10.2810
 0.5770	10.2050
 0.5780	10.1360
 0.5790	10.0610
 0.5800	 9.9880
 0.5810	 9.9190
 0.5820	 9.8540
 0.5830	 9.7890
 0.5840	 9.7320
 0.5850	 9.6820
 0.5860	 9.6330
 0.5870	 9.5770
 0.5880	 9.5210
 0.5890	 9.4740
 0.5900	 9.4380
 0.5910	 9.4130
 0.5920	 9.3930
 0.5930	 9.3740
 0.5940	 9.3590
 0.5950	 9.3430
 0.5960	 9.3260
 0.5970	 9.3090
 0.5980	 9.2910
 0.5990	 9.2710
 0.6000	 9.2480
 0.6010	 9.2270
 0.6020	 9.2040
 0.6030	 9.1780
 0.6040	 9.1500
 0.6050	 9.1220
 0.6060	 9.0870
 0.6070	 9.0420
 0.6080	 8.9970
 0.6090	 8.9400
 0.6100	 8.8650
 0.6110	 8.7760
 0.6120	 8.7320
 0.6130	 8.7160
 0.6140	 8.7040
 0.6150	 8.6730
 0.6160	 8.6390
 0.6170	 8.6060
 0.6180	 8.5740
 0.6190	 8.5420
 0.6200	 8.5120
 0.6210	 8.4870
 0.6220	 8.4660
 0.6230	 8.4480
 0.6240	 8.4320
 0.6250	 8.4190
 0.6260	 8.4140
 0.6270	 8.4080
 0.6280	 8.4000
 0.6290	 8.3910
 0.6300	 8.3790
 0.6310	 8.3710
 0.6320	 8.3670
 0.6330	 8.3600
 0.6340	 8.3490
 0.6350	 8.3330
 0.6360	 8.3120
 0.6370	 8.2850
 0.6380	 8.2570
 0.6390	 8.2260
 0.6400	 8.1930
 0.6410	 8.1630
 0.6420	 8.1350
 0.6430	 8.1070
 0.6440	 8.0770
 0.6450	 8.0490
 0.6460	 8.0230
 0.6470	 7.9990
 0.6480	 7.9770
 0.6490	 7.9590
 0.6500	 7.9440
 0.6510	 7.9350
 0.6520	 7.9270
 0.6530	 7.9220
 0.6540	 7.9180
 0.6550	 7.9130
 0.6560	 7.9090
 0.6570	 7.9030
 0.6580	 7.8930
 0.6590	 7.8850
 0.6600	 7.8790
 0.6610	 7.8760
 0.6620	 7.8720
 0.6630	 7.8700
 0.6640	 7.8730
 0.6650	 7.8810
 0.6660	 7.8910
 0.6670	 7.9050
 0.6680	 7.9230
 0.6690	 7.9490
 0.6700	 7.9780
 0.6710	 8.0110
 0.6720	 8.0490
 0.6730	 8.0940
 0.6740	 8.1400
 0.6750	 8.1910
 0.6760	 8.2500
 0.6770	 8.3150
 0.6780	 8.3820
 0.6790	 8.4520
 0.6800	 8.5280
 0.6810	 8.6060
 0.6820	 8.6830
 0.6830	 8.7590
 0.6840	 8.8320
 0.6850	 8.9030
 0.6860	 8.9710
 0.6870	 9.0360
 0.6880	 9.1020
 0.6890	 9.1810
 0.6900	 9.2780
 0.6910	 9.3990
 0.6920	 9.5590
 0.6930	 9.7660
 0.6940	10.0280
 0.6950	10.3520
 0.6960	10.7420
 0.6970	11.1980
 0.6980	11.7170
 0.6990	12.2960
 0.7000	12.9280
 0.7010	13.6060
 0.7020	14.3220
 0.7030	15.0620
 0.7040	15.8210
 0.7050	16.5930
 0.7060	17.3720
 0.7070	18.1620
 0.7080	18.9610
 0.7090	19.7690
 0.7100	20.5860
 0.7110	21.4090
 0.7120	22.2380
 0.7130	23.0780
 0.7140	23.9280
 0.7150	24.7900
 0.7160	25.6600
 0.7170	26.5390
 0.7180	27.4260
 0.7190	28.3180
 0.7200	29.2170
 0.7210	30.1160
 0.7220	31.0180
 0.7230	31.9180
 0.7240	32.8120
 0.7250	33.7000
 0.7260	34.5780
 0.7270	35.4430
 0.7280	36.2970
 0.7290	37.1330
 0.7300	37.9500
 0.7310	38.7460
 0.7320	39.5220
 0.7330	40.2700
 0.7340	40.9880
 0.7350	41.6800
 0.7360	42.3430
 0.7370	42.9730
 0.7380	43.5720
 0.7390	44.1450
 0.7400	44.6810
 0.7410	45.1800
 0.7420	45.6480
 0.7430	46.0810
 0.7440	46.4810
 0.7450	46.8490
 0.7460	47.1860
 0.7470	47.4900
 0.7480	47.7660
 0.7490	48.0170
 0.7500	48.2420
 0.7510	48.4430
 0.7520	48.6220
 0.7530	48.7800
 0.7540	48.9230
 0.7550	49.0480
 0.7560	49.1600
 0.7570	49.2620
 0.7580	49.3510
 0.7590	49.4280
 0.7600	49.4940
 0.7610	49.5520
 0.7620	49.5980
 0.7630	49.6350
 0.7640	49.6660
 0.7650	49.6910
 0.7660	49.7100
 0.7670	49.7240
 0.7680	49.7310
 0.7690	49.7360
 0.7700	49.7370
 0.7710	49.7350
 0.7720	49.7340
 0.7730	49.7330
 0.7740	49.7300
 0.7750	49.7240
 0.7760	49.7210
 0.7770	49.7170
 0.7780	49.7120
 0.7790	49.7060
 0.7800	49.7030
 0.7810	49.7010
 0.7820	49.6960
 0.7830	49.6900
 0.7840	49.6830
 0.7850	49.6760
 0.7860	49.6700
 0.7870	49.6670
 0.7880	49.6620
 0.7890	49.6550
 0.7900	49.6480
 0.7910	49.6400
 0.7920	49.6320
 0.7930	49.6220
 0.7940	49.6100
 0.7950	49.5980
 0.7960	49.5870
 0.7970	49.5770
 0.7980	49.5640
 0.7990	49.5520
 0.8000	49.5400
 0.8010	49.5260
 0.8020	49.5110
 0.8030	49.4980
 0.8040	49.4850
 0.8050	49.4660
 0.8060	49.4480
 0.8070	49.4280
 0.8080	49.4080
 0.8090	49.3940
 0.8100	49.3780
 0.8110	49.3570
 0.8120	49.3350
 0.8130	49.3170
 0.8140	49.2980
 0.8150	49.2760
 0.8160	49.2510
 0.8170	49.2320
 0.8180	49.2120
 0.8190	49.1910
 0.8200	49.1700
 0.8210	49.1480
 0.8220	49.1250
 0.8230	49.1030
 0.8240	49.0860
 0.8250	49.0590
 0.8260	49.0340
 0.8270	49.0150
 0.8280	48.9930
 0.8290	48.9760
 0.8300	48.9580
 0.8310	48.9360
 0.8320	48.9120
 0.8330	48.8900
 0.8340	48.8700
 0.8350	48.8490
 0.8360	48.8340
 0.8370	48.8170
 0.8380	48.7980
 0.8390	48.7800
 0.8400	48.7650
 0.8410	48.7490
 0.8420	48.7310
 0.8430	48.7190
 0.8440	48.7040
 0.8450	48.6890
 0.8460	48.6760
 0.8470	48.6640
 0.8480	48.6510
 0.8490	48.6370
 0.8500	48.6240
 0.8510	48.6190
 0.8520	48.6130
 0.8530	48.6020
 0.8540	48.5910
 0.8550	48.5880
 0.8560	48.5830
 0.8570	48.5710
 0.8580	48.5600
 0.8590	48.5540
 0.8600	48.5500
 0.8610	48.5450
 0.8620	48.5420
 0.8630	48.5370
 0.8640	48.5310
 0.8650	48.5270
 0.8660	48.5260
 0.8670	48.5260
 0.8680	48.5260
 0.8690	48.5230
 0.8700	48.5220
 0.8710	48.5220
 0.8720	48.5210
 0.8730	48.5220
 0.8740	48.5240
 0.8750	48.5260
 0.8760	48.5250
 0.8770	48.5210
 0.8780	48.5270
 0.8790	48.5310
 0.8800	48.5290
 0.8810	48.5280
 0.8820	48.5300
 0.8830	48.5350
 0.8840	48.5400
 0.8850	48.5440
 0.8860	48.5450
 0.8870	48.5460
 0.8880	48.5480
 0.8890	48.5570
 0.8900	48.5620
 0.8910	48.5610
 0.8920	48.5580
 0.8930	48.5630
 0.8940	48.5710
 0.8950	48.5750
 0.8960	48.5730
 0.8970	48.5750
 0.8980	48.5820
 0.8990	48.5880
 0.9000	48.5830
 0.9010	48.5850
 0.9020	48.5860
 0.9030	48.5830
 0.9040	48.5880
 0.9050	48.5920
 0.9060	48.5930
 0.9070	48.5930
 0.9080	48.5900
 0.9090	48.5920
 0.9100	48.5950
 0.9110	48.5950
 0.9120	48.5960
 0.9130	48.5980
 0.9140	48.5990
 0.9150	48.5960
 0.9160	48.5910
 0.9170	48.5930
 0.9180	48.5960
 0.9190	48.5900
 0.9200	48.5840
 0.9210	48.5800
 0.9220	48.5760
 0.9230	48.5660
 0.9240	48.5610
 0.9250	48.5550
 0.9260	48.5460
 0.9270	48.5340
 0.9280	48.5250
 0.9290	48.5160
 0.9300	48.5070
 0.9310	48.5010
 0.9320	48.4860
 0.9330	48.4720
 0.9340	48.4610
 0.9350	48.4470
 0.9360	48.4340
 0.9370	48.4210
 0.9380	48.4060
 0.9390	48.3900
 0.9400	48.3750
 0.9410	48.3540
 0.9420	48.3280
 0.9430	48.3170
 0.9440	48.2990
 0.9450	48.2770
 0.9460	48.2550
 0.9470	48.2340
 0.9480	48.2120
 0.9490	48.1860
 0.9500	48.1590
 0.9510	48.1340
 0.9520	48.1010
 0.9530	48.0660
 0.9540	48.0390
 0.9550	48.0120
 0.9560	47.9890
 0.9570	47.9610
 0.9580	47.9250
 0.9590	47.9060
 0.9600	47.8770
 0.9610	47.8470
 0.9620	47.8320
 0.9630	47.8080
 0.9640	47.7900
 0.9650	47.7730
 0.9660	47.7500
 0.9670	47.7420
 0.9680	47.7300
 0.9690	47.7140
 0.9700	47.7020
 0.9710	47.6880
 0.9720	47.6710
 0.9730	47.6540
 0.9740	47.6410
 0.9750	47.6310
 0.9760	47.6190
 0.9770	47.6090
 0.9780	47.6030
 0.9790	47.5930
 0.9800	47.5960
 0.9810	47.5980
 0.9820	47.5810
 0.9830	47.5760
 0.9840	47.5710
 0.9850	47.5620
 0.9860	47.5520
 0.9870	47.5510
 0.9880	47.5500
 0.9890	47.5400
 0.9900	47.5190
 0.9910	47.5170
 0.9920	47.5260
 0.9930	47.5350
 0.9940	47.5300
 0.9950	47.5230
 0.9960	47.5190
 0.9970	47.5190
 0.9980	47.5170
 0.9990	47.5100
 1.0000	47.5060
 1.0010	47.9500
 1.0020	47.9540
 1.0030	47.9540
 1.0040	47.9520
 1.0050	47.9530
 1.0060	47.9520
 1.0070	47.9500
 1.0080	47.9520
 1.0090	47.9590
 1.0100	47.9600
 1.0110	47.9570
 1.0120	47.9590
 1.0130	47.9630
 1.0140	47.9650
 1.0150	47.9680
 1.0160	47.9730
 1.0170	47.9710
 1.0180	47.9670
 1.0190	47.9670
 1.0200	47.9740
 1.0210	47.9750
 1.0220	47.9750
 1.0230	47.9790
 1.0240	47.9810
 1.0250	47.9850
 1.0260	47.9970
 1.0270	48.0010
 1.0280	47.9970
 1.0290	48.0000
 1.0300	48.0050
 1.0310	48.0060
 1.0320	48.0090
 1.0330	48.0130
 1.0340	48.0140
 1.0350	48.0180
 1.0360	48.0270
 1.0370	48.0330
 1.0380	48.0350
 1.0390	48.0330
 1.0400	48.0340
 1.0410	48.0340
 1.0420	48.0370
 1.0430	48.0450
 1.0440	48.0480
 1.0450	48.0480
 1.0460	48.0490
 1.0470	48.0470
 1.0480	48.0460
 1.0490	48.0440
 1.0500	48.0440
 1.0510	48.0440
 1.0520	48.0450
 1.0530	48.0470
 1.0540	48.0520
 1.0550	48.0530
 1.0560	48.0510
 1.0570	48.0510
 1.0580	48.0480
 1.0590	48.0460
 1.0600	48.0450
 1.0610	48.0440
 1.0620	48.0420
 1.0630	48.0410
 1.0640	48.0420
 1.0650	48.0420
 1.0660	48.0420
 1.0670	48.0400
 1.0680	48.0380
 1.0690	48.0350
 1.0700	48.0310
 1.0710	48.0260
 1.0720	48.0220
 1.0730	48.0200
 1.0740	48.0160
 1.0750	48.0130
 1.0760	48.0100
 1.0770	48.0050
 1.0780	48.0000
 1.0790	47.9950
 1.0800	47.9910
 1.0810	47.9850
 1.0820	47.9810
 1.0830	47.9790
 1.0840	47.9760
 1.0850	47.9740
 1.0860	47.9700
 1.0870	47.9670
 1.0880	47.9620
 1.0890	47.9580
 1.0900	47.9540
 1.0910	47.9500
 1.0920	47.9470
 1.0930	47.9430
 1.0940	47.9400
 1.0950	47.9360
 1.0960	47.9330
 1.0970	47.9280
 1.0980	47.9220
 1.0990	47.9170
 1.1000	47.9110
 1.1010	47.9060
 1.1020	47.9030
 1.1030	47.9000
 1.1040	47.8930
 1.1050	47.8890
 1.1060	47.8870
 1.1070	47.8850
 1.1080	47.8820
 1.1090	47.8810
 1.1100	47.8780
 1.1110	47.8710
 1.1120	47.8670
 1.1130	47.8650
 1.1140	47.8610
 1.1150	47.8550
 1.1160	47.8500
 1.1170	47.8420
 1.1180	47.8340
 1.1190	47.8250
 1.1200	47.8170
 1.1210	47.8060
 1.1220	47.7920
 1.1230	47.7770
 1.1240	47.7650
 1.1250	47.7500
 1.1260	47.7350
 1.1270	47.7160
 1.1280	47.6960
 1.1290	47.6730
 1.1300	47.6480
 1.1310	47.6190
 1.1320	47.5880
 1.1330	47.5540
 1.1340	47.5160
 1.1350	47.4770
 1.1360	47.4360
 1.1370	47.3930
 1.1380	47.3460
 1.1390	47.2990
 1.1400	47.2490
 1.1410	47.1940
 1.1420	47.1420
 1.1430	47.0890
 1.1440	47.0340
 1.1450	46.9790
 1.1460	46.9250
 1.1470	46.8690
 1.1480	46.8180
 1.1490	46.7700
 1.1500	46.7230
 1.1510	46.6780
 1.1520	46.6340
 1.1530	46.5900
 1.1540	46.5500
 1.1550	46.5120
 1.1560	46.4790
 1.1570	46.4500
 1.1580	46.4240
 1.1590	46.3990
 1.1600	46.3750
 1.1610	46.3520
 1.1620	46.3330
 1.1630	46.3170
 1.1640	46.3020
 1.1650	46.2880
 1.1660	46.2770
 1.1670	46.2650
 1.1680	46.2540
 1.1690	46.2430
 1.1700	46.2310
 1.1710	46.2200
 1.1720	46.2100
 1.1730	46.1990
 1.1740	46.1890
 1.1750	46.1780
 1.1760	46.1670
 1.1770	46.1570
 1.1780	46.1480
 1.1790	46.1380
 1.1800	46.1250
 1.1810	46.1140
 1.1820	46.1020
 1.1830	46.0910
 1.1840	46.0800
 1.1850	46.0690
 1.1860	46.0570
 1.1870	46.0470
 1.1880	46.0360
 1.1890	46.0260
 1.1900	46.0180
 1.1910	46.0100
 1.1920	46.0020
 1.1930	45.9960
 1.1940	45.9890
 1.1950	45.9820
 1.1960	45.9760
 1.1970	45.9700
 1.1980	45.9650
 1.1990	45.9620
 1.2000	45.9620
 1.2010	45.9590
 1.2020	45.9590
 1.2030	45.9600
 1.2040	45.9590
 1.2050	45.9600
 1.2060	45.9620
 1.2070	45.9620
 1.2080	45.9630
 1.2090	45.9660
 1.2100	45.9690
 1.2110	45.9740
 1.2120	45.9810
 1.2130	45.9860
 1.2140	45.9890
 1.2150	45.9930
 1.2160	45.9950
 1.2170	45.9990
 1.2180	46.0060
 1.2190	46.0120
 1.2200	46.0190
 1.2210	46.0250
 1.2220	46.0290
 1.2230	46.0330
 1.2240	46.0380
 1.2250	46.0440
 1.2260	46.0520
 1.2270	46.0590
 1.2280	46.0640
 1.2290	46.0680
 1.2300	46.0730
 1.2310	46.0770
 1.2320	46.0830
 1.2330	46.0900
 1.2340	46.0960
 1.2350	46.0990
 1.2360	46.1030
 1.2370	46.1080
 1.2380	46.1100
 1.2390	46.1140
 1.2400	46.1190
 1.2410	46.1230
 1.2420	46.1270
 1.2430	46.1300
 1.2440	46.1320
 1.2450	46.1340
 1.2460	46.1380
 1.2470	46.1420
 1.2480	46.1430
 1.2490	46.1450
 1.2500	46.1460
 1.2510	46.1450
 1.2520	46.1470
 1.2530	46.1480
 1.2540	46.1480
 1.2550	46.1490
 1.2560	46.1470
 1.2570	46.1450
 1.2580	46.1430
 1.2590	46.1410
 1.2600	46.1390
 1.2610	46.1370
 1.2620	46.1350
 1.2630	46.1330
 1.2640	46.1280
 1.2650	46.1230
 1.2660	46.1190
 1.2670	46.1140
 1.2680	46.1110
 1.2690	46.1070
 1.2700	46.1000
 1.2710	46.0940
 1.2720	46.0880
 1.2730	46.0810
 1.2740	46.0760
 1.2750	46.0690
 1.2760	46.0610
 1.2770	46.0540
 1.2780	46.0470
 1.2790	46.0400
 1.2800	46.0320
 1.2810	46.0190
 1.2820	46.0040
 1.2830	45.9890
 1.2840	45.9740
 1.2850	45.9590
 1.2860	45.9460
 1.2870	45.9300
 1.2880	45.9140
 1.2890	45.8970
 1.2900	45.8770
 1.2910	45.8570
 1.2920	45.8370
 1.2930	45.8150
 1.2940	45.7910
 1.2950	45.7670
 1.2960	45.7410
 1.2970	45.7150
 1.2980	45.6890
 1.2990	45.6610
 1.3000	45.6300
 1.3010	45.5980
 1.3020	45.5650
 1.3030	45.5320
 1.3040	45.4990
 1.3050	45.4640
 1.3060	45.4290
 1.3070	45.3920
 1.3080	45.3550
 1.3090	45.3170
 1.3100	45.2770
 1.3110	45.2380
 1.3120	45.1970
 1.3130	45.1580
 1.3140	45.1160
 1.3150	45.0720
 1.3160	45.0280
 1.3170	44.9830
 1.3180	44.9360
 1.3190	44.8900
 1.3200	44.8430
 1.3210	44.7930
 1.3220	44.7420
 1.3230	44.6900
 1.3240	44.6380
 1.3250	44.5870
 1.3260	44.5330
 1.3270	44.4790
 1.3280	44.4230
 1.3290	44.3660
 1.3300	44.3080
 1.3310	44.2480
 1.3320	44.1880
 1.3330	44.1290
 1.3340	44.0680
 1.3350	44.0080
 1.3360	43.9460
 1.3370	43.8830
 1.3380	43.8210
 1.3390	43.7600
 1.3400	43.6970
 1.3410	43.6360
 1.3420	43.5740
 1.3430	43.5120
 1.3440	43.4510
 1.3450	43.3900
 1.3460	43.3290
 1.3470	43.2690
 1.3480	43.2080
 1.3490	43.1480
 1.3500	43.0890
 1.3510	43.0300
 1.3520	42.9700
 1.3530	42.9100
 1.3540	42.8490
 1.3550	42.7870
 1.3560	42.7260
 1.3570	42.6640
 1.3580	42.6000
 1.3590	42.5350
 1.3600	42.4680
 1.3610	42.3990
 1.3620	42.3320
 1.3630	42.2610
 1.3640	42.1860
 1.3650	42.1050
 1.3660	42.0200
 1.3670	41.9290
 1.3680	41.8330
 1.3690	41.7320
 1.3700	41.6250
 1.3710	41.5090
 1.3720	41.3840
 1.3730	41.2480
 1.3740	41.1020
 1.3750	40.9420
 1.3760	40.7670
 1.3770	40.5820
 1.3780	40.3780
 1.3790	40.1580
 1.3800	39.9240
 1.3810	39.6700
 1.3820	39.4010
 1.3830	39.1180
 1.3840	38.8140
 1.3850	38.4930
 1.3860	38.1550
 1.3870	37.7950
 1.3880	37.4280
 1.3890	37.0460
 1.3900	36.6490
 1.3910	36.2460
 1.3920	35.8310
 1.3930	35.4040
 1.3940	34.9760
 1.3950	34.5400
 1.3960	34.1040
 1.3970	33.6710
 1.3980	33.2390
 1.3990	32.8170
 1.4000	32.4000
 1.4010	31.9880
 1.4020	31.5890
 1.4030	31.1960
 1.4040	30.8170
 1.4050	30.4540
 1.4060	30.1030
 1.4070	29.7690
 1.4080	29.4510
 1.4090	29.1470
 1.4100	28.8600
 1.4110	28.5860
 1.4120	28.3290
 1.4130	28.0850
 1.4140	27.8550
 1.4150	27.6420
 1.4160	27.4410
 1.4170	27.2540
 1.4180	27.0790
 1.4190	26.9160
 1.4200	26.7630
 1.4210	26.6210
 1.4220	26.4880
 1.4230	26.3660
 1.4240	26.2520
 1.4250	26.1460
 1.4260	26.0490
 1.4270	25.9590
 1.4280	25.8770
 1.4290	25.8010
 1.4300	25.7330
 1.4310	25.6700
 1.4320	25.6150
 1.4330	25.5640
 1.4340	25.5190
 1.4350	25.4780
 1.4360	25.4420
 1.4370	25.4110
 1.4380	25.3840
 1.4390	25.3640
 1.4400	25.3460
 1.4410	25.3320
 1.4420	25.3210
 1.4430	25.3120
 1.4440	25.3050
 1.4450	25.3020
 1.4460	25.3000
 1.4470	25.3020
 1.4480	25.3060
 1.4490	25.3110
 1.4500	25.3190
 1.4510	25.3290
 1.4520	25.3410
 1.4530	25.3540
 1.4540	25.3700
 1.4550	25.3890
 1.4560	25.4090
 1.4570	25.4330
 1.4580	25.4600
 1.4590	25.4900
 1.4600	25.5250
 1.4610	25.5640
 1.4620	25.6080
 1.4630	25.6570
 1.4640	25.7100
 1.4650	25.7690
 1.4660	25.8320
 1.4670	25.9000
 1.4680	25.9730
 1.4690	26.0500
 1.4700	26.1310
 1.4710	26.2180
 1.4720	26.3070
 1.4730	26.4010
 1.4740	26.4980
 1.4750	26.5960
 1.4760	26.6990
 1.4770	26.8030
