Name: Quercus douglasii 1
Type: vegetation
Class: Tree
Genus: Quercus
Species: douglasii
Sample No.: VH169
Owner: UCSB
Wavelength Range: TIR
Origin: 34.7153; -120.0598; WGS84
Collection Date: 6/9/2013
Description: Samples were collected as part of the HyspIRI Airborne Campaign. 48 individual plants were sampled in three times in 2013 - spring  summer  and fall. The name of the sample includes a 1  2  or 3 which references a different individual of the species. Samples were taken to JPL and processed within 48 hours of collection. The same leaves were processed in the Nicolet and then measured using the ASD.
Measurement: Hemispherical reflectance
First Column: X
Second Column: Y
X Units: Wavelength (micrometers)
Y Units: Reflectance (percentage)
First X Value: 2.501
Last X Value: 15.387
Number of X Values: 1737
Additional Information: vegetation.tree.quercus.douglasii.tir.vh169.ucsb.nicolet.ancillary.txt

 2.5010	 8.4090
 2.5030	 8.6590
 2.5040	 8.7050
 2.5050	 8.4080
 2.5060	 8.2090
 2.5070	 8.0500
 2.5090	 8.1900
 2.5100	 8.2380
 2.5110	 8.2860
 2.5120	 8.2230
 2.5140	 8.2470
 2.5150	 8.2070
 2.5160	 8.1830
 2.5170	 8.0970
 2.5180	 8.1280
 2.5200	 8.1900
 2.5210	 8.2120
 2.5220	 8.1200
 2.5230	 8.0730
 2.5250	 8.0140
 2.5260	 8.0640
 2.5270	 8.0850
 2.5280	 8.1870
 2.5290	 8.1970
 2.5310	 8.1980
 2.5320	 8.1670
 2.5330	 8.2660
 2.5340	 8.2290
 2.5360	 8.1850
 2.5370	 8.1180
 2.5380	 8.1350
 2.5390	 8.0740
 2.5410	 8.1940
 2.5420	 8.2120
 2.5430	 8.0650
 2.5440	 8.0330
 2.5460	 8.2170
 2.5470	 8.1560
 2.5480	 8.2390
 2.5490	 8.2650
 2.5510	 8.1790
 2.5520	 8.1830
 2.5530	 8.2860
 2.5540	 8.2250
 2.5560	 8.2550
 2.5570	 8.1740
 2.5580	 8.2120
 2.5590	 8.1870
 2.5610	 8.2490
 2.5620	 8.2530
 2.5630	 8.3320
 2.5640	 8.2710
 2.5660	 8.2110
 2.5670	 8.1520
 2.5680	 8.1960
 2.5700	 8.2450
 2.5710	 8.3200
 2.5720	 8.1240
 2.5730	 8.0790
 2.5750	 8.0530
 2.5760	 8.1060
 2.5770	 8.1640
 2.5790	 8.2950
 2.5800	 8.3040
 2.5810	 8.2370
 2.5820	 8.1770
 2.5840	 8.1600
 2.5850	 8.1870
 2.5860	 8.2030
 2.5880	 7.9870
 2.5890	 7.9210
 2.5900	 7.9110
 2.5910	 8.0270
 2.5930	 8.1770
 2.5940	 8.0700
 2.5950	 7.9190
 2.5970	 8.1520
 2.5980	 8.1660
 2.5990	 8.0820
 2.6000	 7.9880
 2.6020	 8.0160
 2.6030	 7.9490
 2.6040	 7.8690
 2.6060	 7.9010
 2.6070	 7.9560
 2.6080	 7.9210
 2.6100	 7.8950
 2.6110	 7.9230
 2.6120	 7.9810
 2.6140	 7.8570
 2.6150	 7.8840
 2.6160	 7.9030
 2.6180	 7.9150
 2.6190	 7.8350
 2.6200	 7.7710
 2.6220	 7.7300
 2.6230	 7.7220
 2.6240	 7.6620
 2.6260	 7.7520
 2.6270	 7.7310
 2.6280	 7.6470
 2.6300	 7.5450
 2.6310	 7.4520
 2.6320	 7.4260
 2.6340	 7.6210
 2.6350	 7.6020
 2.6360	 7.5230
 2.6380	 7.4680
 2.6390	 7.4650
 2.6400	 7.3980
 2.6420	 7.3890
 2.6430	 7.2830
 2.6440	 7.3660
 2.6460	 7.3520
 2.6470	 7.2700
 2.6480	 7.2270
 2.6500	 7.3300
 2.6510	 7.3050
 2.6520	 7.1860
 2.6540	 7.1000
 2.6550	 7.1510
 2.6560	 7.1340
 2.6580	 7.0820
 2.6590	 6.9940
 2.6610	 6.9660
 2.6620	 6.7880
 2.6630	 6.7700
 2.6650	 6.8600
 2.6660	 6.9330
 2.6670	 6.7510
 2.6690	 6.7480
 2.6700	 6.8010
 2.6720	 6.8480
 2.6730	 6.7840
 2.6740	 6.8490
 2.6760	 6.7300
 2.6770	 6.6810
 2.6780	 6.7660
 2.6800	 6.8960
 2.6810	 6.7760
 2.6830	 6.6710
 2.6840	 6.5830
 2.6850	 6.5340
 2.6870	 6.3940
 2.6880	 6.4370
 2.6900	 6.3430
 2.6910	 6.3630
 2.6920	 6.3410
 2.6940	 6.3080
 2.6950	 6.2520
 2.6970	 6.2240
 2.6980	 6.1700
 2.6990	 6.2450
 2.7010	 6.2760
 2.7020	 6.1250
 2.7040	 6.0360
 2.7050	 6.0670
 2.7060	 5.8860
 2.7080	 5.8370
 2.7090	 5.8200
 2.7110	 5.8100
 2.7120	 5.7290
 2.7130	 5.7930
 2.7150	 5.7590
 2.7160	 5.7080
 2.7180	 5.7200
 2.7190	 5.6810
 2.7210	 5.4550
 2.7220	 5.4970
 2.7230	 5.4940
 2.7250	 5.3430
 2.7260	 5.2300
 2.7280	 5.3810
 2.7290	 5.3320
 2.7310	 5.2770
 2.7320	 5.1680
 2.7330	 5.0080
 2.7350	 5.0500
 2.7360	 5.2350
 2.7380	 4.9620
 2.7390	 4.7880
 2.7410	 4.7540
 2.7420	 4.7600
 2.7440	 4.7450
 2.7450	 4.7460
 2.7470	 4.7610
 2.7480	 4.7170
 2.7490	 4.4380
 2.7510	 4.1950
 2.7520	 4.1260
 2.7540	 4.4610
 2.7550	 4.5750
 2.7570	 4.4940
 2.7580	 4.4770
 2.7600	 4.4580
 2.7610	 4.3380
 2.7630	 4.5130
 2.7640	 4.3330
 2.7660	 4.0880
 2.7670	 3.8940
 2.7680	 4.0700
 2.7700	 4.1560
 2.7710	 4.1710
 2.7730	 4.1420
 2.7740	 4.2210
 2.7760	 4.1570
 2.7770	 4.0710
 2.7790	 4.0910
 2.7800	 4.1530
 2.7820	 4.0360
 2.7830	 4.0160
 2.7850	 4.0360
 2.7860	 4.0750
 2.7880	 3.8900
 2.7890	 3.9060
 2.7910	 3.9430
 2.7920	 4.0070
 2.7940	 3.9980
 2.7950	 4.0500
 2.7970	 3.9620
 2.7980	 3.9300
 2.8000	 3.6790
 2.8010	 3.6220
 2.8030	 3.6760
 2.8040	 3.7130
 2.8060	 3.6120
 2.8070	 3.7210
 2.8090	 3.6330
 2.8110	 3.6870
 2.8120	 3.6750
 2.8140	 3.6560
 2.8150	 3.5560
 2.8170	 3.6000
 2.8180	 3.5630
 2.8200	 3.6650
 2.8210	 3.5430
 2.8230	 3.4900
 2.8240	 3.5440
 2.8260	 3.5480
 2.8270	 3.3100
 2.8290	 3.5080
 2.8300	 3.6630
 2.8320	 3.6310
 2.8340	 3.4620
 2.8350	 3.3950
 2.8370	 3.2940
 2.8380	 3.4510
 2.8400	 3.4010
 2.8410	 3.3090
 2.8430	 3.1410
 2.8440	 3.1500
 2.8460	 3.2240
 2.8480	 3.4290
 2.8490	 3.4040
 2.8510	 3.2900
 2.8520	 3.2190
 2.8540	 3.2910
 2.8550	 3.1690
 2.8570	 3.2550
 2.8590	 3.1980
 2.8600	 3.1720
 2.8620	 3.1820
 2.8630	 3.3950
 2.8650	 3.4690
 2.8660	 3.4080
 2.8680	 3.2280
 2.8700	 3.3240
 2.8710	 3.4000
 2.8730	 3.3480
 2.8740	 3.2280
 2.8760	 3.2080
 2.8780	 3.2530
 2.8790	 3.4370
 2.8810	 3.3320
 2.8820	 3.2100
 2.8840	 3.1380
 2.8860	 3.3500
 2.8870	 3.4180
 2.8890	 3.2550
 2.8900	 2.9850
 2.8920	 2.9920
 2.8940	 3.1690
 2.8950	 3.2050
 2.8970	 3.0120
 2.8980	 2.9910
 2.9000	 2.9410
 2.9020	 3.0820
 2.9030	 3.0910
 2.9050	 3.2170
 2.9070	 3.2220
 2.9080	 3.1970
 2.9100	 3.1490
 2.9120	 3.1880
 2.9130	 2.9780
 2.9150	 3.0100
 2.9160	 2.9550
 2.9180	 2.9520
 2.9200	 2.8910
 2.9210	 3.0570
 2.9230	 3.0870
 2.9250	 3.2010
 2.9260	 3.2570
 2.9280	 3.2020
 2.9300	 2.9570
 2.9310	 3.0110
 2.9330	 3.0990
 2.9350	 3.1910
 2.9360	 3.1030
 2.9380	 2.9570
 2.9400	 2.8940
 2.9410	 2.9480
 2.9430	 2.3870
 2.9450	 2.4570
 2.9460	 2.8550
 2.9480	 3.1490
 2.9500	 3.2800
 2.9510	 3.4050
 2.9530	 2.7030
 2.9550	 2.5750
 2.9560	 3.0830
 2.9580	 3.1650
 2.9600	 2.7150
 2.9610	 3.3310
 2.9630	 3.6640
 2.9650	 3.3570
 2.9660	 3.0110
 2.9680	 2.0830
 2.9700	 1.9100
 2.9720	 3.0450
 2.9730	 3.3180
 2.9750	 2.0410
 2.9770	 2.0700
 2.9780	 4.2480
 2.9800	 4.1510
 2.9820	 3.2850
 2.9840	 3.3830
 2.9850	 2.9680
 2.9870	 2.8230
 2.9890	 2.8580
 2.9900	 2.7900
 2.9920	 4.0140
 2.9940	 4.7280
 2.9960	 4.0180
 2.9970	 3.0230
 2.9990	 2.9520
 3.0010	 2.5490
 3.0030	 2.4450
 3.0040	 2.9380
 3.0060	 3.4420
 3.0080	 3.1210
 3.0100	 2.5350
 3.0110	 2.4210
 3.0130	 2.9860
 3.0150	 3.0210
 3.0170	 3.2190
 3.0180	 3.9620
 3.0200	 4.2250
 3.0220	 3.7450
 3.0240	 3.4130
 3.0250	 3.2360
 3.0270	 3.2190
 3.0290	 3.1160
 3.0310	 2.9660
 3.0320	 2.8680
 3.0340	 3.0550
 3.0360	 2.3770
 3.0380	 1.8240
 3.0400	 2.2500
 3.0410	 2.6150
 3.0430	 2.5950
 3.0450	 1.6110
 3.0470	 2.6060
 3.0480	 3.5300
 3.0500	 2.8180
 3.0520	 2.4990
 3.0540	 3.4720
 3.0560	 4.2120
 3.0570	 4.5890
 3.0590	 3.9130
 3.0610	 2.8130
 3.0630	 2.9910
 3.0650	 3.3270
 3.0660	 2.0740
 3.0680	 2.3160
 3.0700	 3.9430
 3.0720	 3.7980
 3.0740	 3.2970
 3.0760	 3.0040
 3.0770	 3.0300
 3.0790	 3.2670
 3.0810	 3.3810
 3.0830	 3.3860
 3.0850	 3.4920
 3.0870	 3.5610
 3.0880	 3.4940
 3.0900	 3.3430
 3.0920	 3.5890
 3.0940	 3.6570
 3.0960	 3.4510
 3.0980	 3.3370
 3.0990	 3.2620
 3.1010	 3.1700
 3.1030	 3.3690
 3.1050	 3.4610
 3.1070	 3.4800
 3.1090	 3.5470
 3.1110	 3.3510
 3.1120	 2.9700
 3.1140	 2.9020
 3.1160	 3.1200
 3.1180	 3.4500
 3.1200	 3.4140
 3.1220	 3.4640
 3.1240	 3.4210
 3.1260	 3.6300
 3.1270	 3.7670
 3.1290	 3.6630
 3.1310	 3.5930
 3.1330	 3.5200
 3.1350	 2.7070
 3.1370	 2.3660
 3.1390	 2.6480
 3.1410	 3.4670
 3.1430	 3.4660
 3.1450	 4.0940
 3.1460	 4.4520
 3.1480	 3.8170
 3.1500	 3.2600
 3.1520	 3.2280
 3.1540	 3.5200
 3.1560	 3.4880
 3.1580	 3.3910
 3.1600	 3.6840
 3.1620	 4.4220
 3.1640	 4.4620
 3.1660	 3.2140
 3.1680	 2.2620
 3.1700	 3.1490
 3.1710	 4.2740
 3.1730	 3.8390
 3.1750	 3.3050
 3.1770	 3.7350
 3.1790	 3.5470
 3.1810	 3.6150
 3.1830	 4.2680
 3.1850	 4.2000
 3.1870	 3.9150
 3.1890	 3.8590
 3.1910	 3.8840
 3.1930	 3.8430
 3.1950	 3.8210
 3.1970	 3.6530
 3.1990	 3.8080
 3.2010	 3.9460
 3.2030	 4.1100
 3.2050	 4.3000
 3.2070	 4.2660
 3.2090	 4.1610
 3.2110	 4.2180
 3.2130	 4.1570
 3.2150	 4.1150
 3.2170	 3.9310
 3.2190	 4.0090
 3.2210	 4.0740
 3.2230	 4.0170
 3.2250	 4.1170
 3.2270	 4.3060
 3.2290	 4.0850
 3.2310	 3.8570
 3.2330	 3.8220
 3.2350	 3.8760
 3.2370	 3.8240
 3.2390	 3.9710
 3.2410	 4.1940
 3.2430	 4.1500
 3.2450	 3.8800
 3.2470	 3.8650
 3.2490	 3.7680
 3.2510	 3.8370
 3.2530	 4.1230
 3.2550	 4.3060
 3.2570	 3.9820
 3.2590	 3.9900
 3.2610	 4.3690
 3.2630	 4.4680
 3.2650	 4.0670
 3.2670	 4.1960
 3.2690	 4.4130
 3.2720	 4.4860
 3.2740	 4.4120
 3.2760	 4.3150
 3.2780	 4.3140
 3.2800	 4.1620
 3.2820	 4.1320
 3.2840	 4.2680
 3.2860	 4.1330
 3.2880	 4.0160
 3.2900	 4.0220
 3.2920	 3.9340
 3.2940	 3.9200
 3.2960	 4.1170
 3.2990	 4.1460
 3.3010	 4.1610
 3.3030	 3.9850
 3.3050	 4.1110
 3.3070	 4.1880
 3.3090	 4.0970
 3.3110	 4.1800
 3.3130	 4.2240
 3.3150	 4.1340
 3.3180	 4.0840
 3.3200	 4.0820
 3.3220	 4.2410
 3.3240	 4.3500
 3.3260	 4.3440
 3.3280	 4.2250
 3.3300	 4.1620
 3.3330	 4.0720
 3.3350	 4.0130
 3.3370	 3.9910
 3.3390	 3.9450
 3.3410	 3.9340
 3.3430	 4.0940
 3.3450	 4.0900
 3.3480	 4.2050
 3.3500	 4.1080
 3.3520	 3.9930
 3.3540	 3.8570
 3.3560	 3.8190
 3.3580	 3.8330
 3.3610	 4.0330
 3.3630	 3.9250
 3.3650	 3.8540
 3.3670	 3.7960
 3.3690	 3.8900
 3.3720	 3.9530
 3.3740	 3.7670
 3.3760	 3.5510
 3.3780	 3.5510
 3.3800	 3.5540
 3.3830	 3.6400
 3.3850	 3.6060
 3.3870	 3.4770
 3.3890	 3.5250
 3.3910	 3.6410
 3.3940	 3.4410
 3.3960	 3.3800
 3.3980	 3.4330
 3.4000	 3.3040
 3.4020	 3.1550
 3.4050	 3.2750
 3.4070	 3.2820
 3.4090	 3.4220
 3.4110	 3.5450
 3.4140	 3.6320
 3.4160	 3.7280
 3.4180	 3.9160
 3.4200	 4.1250
 3.4230	 4.4680
 3.4250	 4.8260
 3.4270	 5.2450
 3.4290	 5.4000
 3.4320	 5.3190
 3.4340	 4.9930
 3.4360	 4.5250
 3.4390	 4.2610
 3.4410	 4.3410
 3.4430	 4.3910
 3.4450	 4.4100
 3.4480	 4.3330
 3.4500	 4.0070
 3.4520	 3.9340
 3.4550	 3.7660
 3.4570	 3.7280
 3.4590	 3.9410
 3.4620	 3.9800
 3.4640	 4.0650
 3.4660	 4.1010
 3.4680	 4.1090
 3.4710	 4.2190
 3.4730	 4.2490
 3.4750	 4.1050
 3.4780	 4.1170
 3.4800	 4.1330
 3.4820	 4.1280
 3.4850	 4.0370
 3.4870	 4.1090
 3.4890	 4.0580
 3.4920	 3.9910
 3.4940	 4.0080
 3.4970	 4.0200
 3.4990	 3.9330
 3.5010	 3.9480
 3.5040	 4.1630
 3.5060	 4.5090
 3.5080	 4.8480
 3.5110	 5.3900
 3.5130	 5.5780
 3.5160	 5.2590
 3.5180	 5.0710
 3.5200	 5.0990
 3.5230	 4.9850
 3.5250	 5.0340
 3.5270	 5.1100
 3.5300	 5.1850
 3.5320	 5.0940
 3.5350	 4.9940
 3.5370	 4.9150
 3.5400	 4.9710
 3.5420	 4.9530
 3.5440	 4.9580
 3.5470	 4.9500
 3.5490	 4.9780
 3.5520	 4.9350
 3.5540	 4.9540
 3.5570	 4.9230
 3.5590	 4.9370
 3.5610	 5.0630
 3.5640	 5.0820
 3.5660	 4.9890
 3.5690	 4.9650
 3.5710	 5.0010
 3.5740	 5.1250
 3.5760	 5.1070
 3.5790	 5.1550
 3.5810	 5.2350
 3.5840	 5.2600
 3.5860	 5.1480
 3.5890	 5.1530
 3.5910	 5.2170
 3.5930	 5.3920
 3.5960	 5.4330
 3.5980	 5.1370
 3.6010	 4.8640
 3.6030	 4.9050
 3.6060	 5.0070
 3.6080	 5.2810
 3.6110	 5.2420
 3.6140	 4.9880
 3.6160	 4.9570
 3.6190	 5.1130
 3.6210	 5.0870
 3.6240	 5.1010
 3.6260	 5.1740
 3.6290	 5.2990
 3.6310	 5.2870
 3.6340	 5.2470
 3.6360	 5.2440
 3.6390	 5.2100
 3.6410	 5.0980
 3.6440	 5.1440
 3.6470	 5.1210
 3.6490	 5.1420
 3.6520	 5.1730
 3.6540	 5.2330
 3.6570	 5.2140
 3.6590	 5.2210
 3.6620	 5.1950
 3.6650	 5.1970
 3.6670	 5.1520
 3.6700	 5.1680
 3.6720	 5.1400
 3.6750	 5.1600
 3.6780	 5.1800
 3.6800	 5.2390
 3.6830	 5.2190
 3.6850	 5.2370
 3.6880	 5.1780
 3.6910	 5.1820
 3.6930	 5.1470
 3.6960	 5.2230
 3.6990	 5.2740
 3.7010	 5.3370
 3.7040	 5.3350
 3.7060	 5.3740
 3.7090	 5.3420
 3.7120	 5.3090
 3.7140	 5.2550
 3.7170	 5.2240
 3.7200	 5.2400
 3.7220	 5.3230
 3.7250	 5.1620
 3.7280	 5.2540
 3.7300	 5.4630
 3.7330	 5.4480
 3.7360	 5.3760
 3.7390	 5.4040
 3.7410	 5.2640
 3.7440	 5.1400
 3.7470	 5.1180
 3.7490	 5.2470
 3.7520	 5.3540
 3.7550	 5.4690
 3.7580	 5.4320
 3.7600	 5.4090
 3.7630	 5.3320
 3.7660	 5.3680
 3.7680	 5.4140
 3.7710	 5.5350
 3.7740	 5.5210
 3.7770	 5.3670
 3.7790	 5.3680
 3.7820	 5.4490
 3.7850	 5.3980
 3.7880	 5.3700
 3.7900	 5.3550
 3.7930	 5.3910
 3.7960	 5.4160
 3.7990	 5.4720
 3.8020	 5.5070
 3.8040	 5.3890
 3.8070	 5.3820
 3.8100	 5.4680
 3.8130	 5.4040
 3.8160	 5.4720
 3.8180	 5.4250
 3.8210	 5.4650
 3.8240	 5.5280
 3.8270	 5.5830
 3.8300	 5.4760
 3.8330	 5.3820
 3.8350	 5.3980
 3.8380	 5.4840
 3.8410	 5.4650
 3.8440	 5.4190
 3.8470	 5.3480
 3.8500	 5.3660
 3.8520	 5.4700
 3.8550	 5.4910
 3.8580	 5.5050
 3.8610	 5.5930
 3.8640	 5.5380
 3.8670	 5.5480
 3.8700	 5.5550
 3.8730	 5.5780
 3.8750	 5.6030
 3.8780	 5.6640
 3.8810	 5.6770
 3.8840	 5.6480
 3.8870	 5.6380
 3.8900	 5.6370
 3.8930	 5.5940
 3.8960	 5.6040
 3.8990	 5.6180
 3.9020	 5.6740
 3.9050	 5.6210
 3.9080	 5.5770
 3.9110	 5.5290
 3.9140	 5.5160
 3.9160	 5.5880
 3.9190	 5.6400
 3.9220	 5.6020
 3.9250	 5.6140
 3.9280	 5.6070
 3.9310	 5.6380
 3.9340	 5.6700
 3.9370	 5.6900
 3.9400	 5.6700
 3.9430	 5.6430
 3.9460	 5.5970
 3.9490	 5.6450
 3.9520	 5.6360
 3.9550	 5.6580
 3.9580	 5.6640
 3.9610	 5.7090
 3.9640	 5.7120
 3.9670	 5.6970
 3.9700	 5.6000
 3.9730	 5.6230
 3.9770	 5.6390
 3.9800	 5.6680
 3.9830	 5.6700
 3.9860	 5.6990
 3.9890	 5.7080
 3.9920	 5.6800
 3.9950	 5.6630
 3.9980	 5.7320
 4.0010	 5.6900
 4.0040	 5.6840
 4.0070	 5.7060
 4.0100	 5.7190
 4.0130	 5.7010
 4.0170	 5.7240
 4.0200	 5.7710
 4.0230	 5.7980
 4.0260	 5.8080
 4.0290	 5.8330
 4.0320	 5.7700
 4.0350	 5.7630
 4.0380	 5.7750
 4.0420	 5.7490
 4.0450	 5.6980
 4.0480	 5.7990
 4.0510	 5.8580
 4.0540	 5.8490
 4.0570	 5.8500
 4.0610	 5.8810
 4.0640	 5.8710
 4.0670	 5.7700
 4.0700	 5.6970
 4.0730	 5.7110
 4.0770	 5.7320
 4.0800	 5.7440
 4.0830	 5.7560
 4.0860	 5.8160
 4.0890	 5.8250
 4.0930	 5.8990
 4.0960	 5.9900
 4.0990	 5.9140
 4.1020	 5.8020
 4.1060	 5.8060
 4.1090	 6.0200
 4.1120	 6.0680
 4.1150	 5.8970
 4.1190	 5.8400
 4.1220	 5.8140
 4.1250	 5.8050
 4.1280	 5.8710
 4.1320	 5.9300
 4.1350	 5.9390
 4.1380	 5.9620
 4.1420	 5.8830
 4.1450	 5.8590
 4.1480	 5.9020
 4.1520	 5.9140
 4.1550	 5.8390
 4.1580	 5.8790
 4.1620	 5.9190
 4.1650	 5.9010
 4.1680	 5.8730
 4.1720	 5.9510
 4.1750	 5.9510
 4.1780	 5.9450
 4.1820	 5.9910
 4.1850	 6.0120
 4.1890	 6.0040
 4.1920	 5.9520
 4.1950	 5.9140
 4.1990	 6.0130
 4.2020	 6.1490
 4.2060	 6.0580
 4.2090	 5.9570
 4.2120	 6.1430
 4.2160	 6.1430
 4.2190	 6.0690
 4.2230	 6.0550
 4.2260	 5.8280
 4.2300	 5.7580
 4.2330	 5.7990
 4.2360	 5.7440
 4.2400	 5.8060
 4.2430	 5.6480
 4.2470	 5.6440
 4.2500	 5.7040
 4.2540	 5.8660
 4.2570	 6.0240
 4.2610	 6.0510
 4.2640	 5.9040
 4.2680	 5.9180
 4.2710	 5.8440
 4.2750	 5.8090
 4.2780	 5.9270
 4.2820	 6.0070
 4.2850	 5.9650
 4.2890	 5.8020
 4.2930	 5.7930
 4.2960	 5.9920
 4.3000	 5.9260
 4.3030	 5.8360
 4.3070	 5.8970
 4.3100	 6.0430
 4.3140	 5.9780
 4.3180	 5.9570
 4.3210	 6.0050
 4.3250	 5.9280
 4.3280	 5.8940
 4.3320	 5.9470
 4.3360	 5.9330
 4.3390	 5.8700
 4.3430	 5.8290
 4.3470	 5.8300
 4.3500	 5.8560
 4.3540	 5.8730
 4.3570	 5.8770
 4.3610	 5.8650
 4.3650	 5.8480
 4.3680	 5.9560
 4.3720	 6.0340
 4.3760	 5.9480
 4.3800	 5.8920
 4.3830	 5.8920
 4.3870	 5.9050
 4.3910	 5.9050
 4.3940	 5.8580
 4.3980	 5.8770
 4.4020	 5.9390
 4.4060	 5.9210
 4.4090	 5.8610
 4.4130	 5.8210
 4.4170	 5.8330
 4.4210	 5.8340
 4.4240	 5.8300
 4.4280	 5.8640
 4.4320	 5.8610
 4.4360	 5.8520
 4.4400	 5.8270
 4.4430	 5.7520
 4.4470	 5.7530
 4.4510	 5.8280
 4.4550	 5.8270
 4.4590	 5.8170
 4.4620	 5.8680
 4.4660	 5.8740
 4.4700	 5.8180
 4.4740	 5.7640
 4.4780	 5.7620
 4.4820	 5.7900
 4.4860	 5.7850
 4.4900	 5.7690
 4.4930	 5.7320
 4.4970	 5.6920
 4.5010	 5.7270
 4.5050	 5.7330
 4.5090	 5.6840
 4.5130	 5.7150
 4.5170	 5.7830
 4.5210	 5.7560
 4.5250	 5.7070
 4.5290	 5.7550
 4.5330	 5.7940
 4.5370	 5.7740
 4.5410	 5.6890
 4.5450	 5.6470
 4.5490	 5.7830
 4.5530	 5.8390
 4.5570	 5.7630
 4.5610	 5.7140
 4.5650	 5.6720
 4.5690	 5.6280
 4.5730	 5.6530
 4.5770	 5.6900
 4.5810	 5.7210
 4.5850	 5.7230
 4.5890	 5.6820
 4.5930	 5.6980
 4.5970	 5.6830
 4.6010	 5.5860
 4.6050	 5.5590
 4.6090	 5.3600
 4.6130	 5.4000
 4.6170	 5.7100
 4.6220	 5.8120
 4.6260	 5.7050
 4.6300	 5.5970
 4.6340	 5.5680
 4.6380	 5.6000
 4.6420	 5.6690
 4.6460	 5.6470
 4.6510	 5.6160
 4.6550	 5.6170
 4.6590	 5.5960
 4.6630	 5.5040
 4.6670	 5.5940
 4.6720	 5.7220
 4.6760	 5.7440
 4.6800	 5.7100
 4.6840	 5.6210
 4.6880	 5.5400
 4.6930	 5.5570
 4.6970	 5.5730
 4.7010	 5.6390
 4.7050	 5.7160
 4.7100	 5.7310
 4.7140	 5.6840
 4.7180	 5.6550
 4.7230	 5.6920
 4.7270	 5.7010
 4.7310	 5.6860
 4.7360	 5.6440
 4.7400	 5.6030
 4.7440	 5.5770
 4.7490	 5.6330
 4.7530	 5.6360
 4.7570	 5.6470
 4.7620	 5.5960
 4.7660	 5.5840
 4.7700	 5.6370
 4.7750	 5.6000
 4.7790	 5.4310
 4.7840	 5.3780
 4.7880	 5.6900
 4.7920	 5.6680
 4.7970	 5.4320
 4.8010	 5.4140
 4.8060	 5.4350
 4.8100	 5.5900
 4.8150	 5.6690
 4.8190	 5.6070
 4.8240	 5.5870
 4.8280	 5.6640
 4.8330	 5.6670
 4.8370	 5.6120
 4.8420	 5.6150
 4.8460	 5.6560
 4.8510	 5.6470
 4.8550	 5.6320
 4.8600	 5.6530
 4.8640	 5.6910
 4.8690	 5.6440
 4.8730	 5.5660
 4.8780	 5.5740
 4.8830	 5.6140
 4.8870	 5.6610
 4.8920	 5.6300
 4.8960	 5.5970
 4.9010	 5.5830
 4.9060	 5.6100
 4.9100	 5.6170
 4.9150	 5.6030
 4.9200	 5.6530
 4.9240	 5.7240
 4.9290	 5.6960
 4.9340	 5.6500
 4.9380	 5.6300
 4.9430	 5.5700
 4.9480	 5.5760
 4.9530	 5.6150
 4.9570	 5.6500
 4.9620	 5.6740
 4.9670	 5.6900
 4.9720	 5.7000
 4.9760	 5.6640
 4.9810	 5.6940
 4.9860	 5.7030
 4.9910	 5.6550
 4.9960	 5.6520
 5.0000	 5.7070
 5.0050	 5.7360
 5.0100	 5.6570
 5.0150	 5.6710
 5.0200	 5.6350
 5.0250	 5.7020
 5.0290	 5.7180
 5.0340	 5.6600
 5.0390	 5.6400
 5.0440	 5.6640
 5.0490	 5.6430
 5.0540	 5.6340
 5.0590	 5.6350
 5.0640	 5.6340
 5.0690	 5.6730
 5.0740	 5.6400
 5.0790	 5.5560
 5.0840	 5.5870
 5.0890	 5.5940
 5.0940	 5.6390
 5.0990	 5.6950
 5.1040	 5.6740
 5.1090	 5.6750
 5.1140	 5.7150
 5.1190	 5.6840
 5.1240	 5.6230
 5.1290	 5.6020
 5.1340	 5.6150
 5.1390	 5.6120
 5.1440	 5.6500
 5.1490	 5.6160
 5.1540	 5.5490
 5.1600	 5.5780
 5.1650	 5.7130
 5.1700	 5.6970
 5.1750	 5.6530
 5.1800	 5.6460
 5.1850	 5.5670
 5.1910	 5.5710
 5.1960	 5.6490
 5.2010	 5.6170
 5.2060	 5.6250
 5.2110	 5.5840
 5.2170	 5.5720
 5.2220	 5.5920
 5.2270	 5.6480
 5.2320	 5.6140
 5.2380	 5.5460
 5.2430	 5.5590
 5.2480	 5.6110
 5.2540	 5.5500
 5.2590	 5.5140
 5.2640	 5.5180
 5.2700	 5.5880
 5.2750	 5.6190
 5.2800	 5.5870
 5.2860	 5.5740
 5.2910	 5.5740
 5.2970	 5.5470
 5.3020	 5.5240
 5.3070	 5.4910
 5.3130	 5.5580
 5.3180	 5.5530
 5.3240	 5.5300
 5.3290	 5.5090
 5.3350	 5.5200
 5.3400	 5.4840
 5.3460	 5.4790
 5.3510	 5.4130
 5.3570	 5.4400
 5.3620	 5.4170
 5.3680	 5.3600
 5.3730	 5.3970
 5.3790	 5.3780
 5.3850	 5.3410
 5.3900	 5.4250
 5.3960	 5.4310
 5.4010	 5.3860
 5.4070	 5.2760
 5.4130	 5.2720
 5.4180	 5.3470
 5.4240	 5.4120
 5.4300	 5.3700
 5.4350	 5.3080
 5.4410	 5.2560
