Name: Quercus lobata 1
Type: vegetation
Class: Tree
Genus: Quercus
Species: lobata
Sample No.: VH085
Owner: UCSB
Wavelength Range: VSWIR
Origin: 34.7139; -120.0598; WGS84
Collection Date: 4/21/2013
Description: Samples were collected as part of the HyspIRI Airborne Campaign. 48 individual plants were sampled in three times in 2013 - spring  summer  and fall. The name of the sample includes a 1  2  or 3 which references a different individual of the species. Samples were taken to JPL and processed within 48 hours of collection. The same leaves were processed in the Nicolet and then measured using the ASD.
Measurement: Bidirectional reflectance
First Column: X
Second Column: Y
X Units: Wavelength (micrometers)
Y Units: Reflectance (percentage)
First X Value: 0.35
Last X Value: 2.5
Number of X Values: 2151
Additional Information: vegetation.tree.quercus.lobata.vswir.vh085.ucsb.asd.ancillary.txt

 0.3500	 5.5480
 0.3510	 5.3070
 0.3520	 5.2470
 0.3530	 5.2810
 0.3540	 5.2550
 0.3550	 5.1160
 0.3560	 5.0380
 0.3570	 5.0360
 0.3580	 5.0420
 0.3590	 5.0430
 0.3600	 5.0610
 0.3610	 5.0600
 0.3620	 4.9060
 0.3630	 4.9400
 0.3640	 5.0800
 0.3650	 5.1730
 0.3660	 5.2340
 0.3670	 5.2170
 0.3680	 5.1360
 0.3690	 5.0580
 0.3700	 5.1660
 0.3710	 5.2480
 0.3720	 5.1870
 0.3730	 5.1310
 0.3740	 5.1420
 0.3750	 5.1750
 0.3760	 5.1680
 0.3770	 5.1940
 0.3780	 5.1590
 0.3790	 5.1310
 0.3800	 5.2930
 0.3810	 5.3570
 0.3820	 5.3480
 0.3830	 5.3320
 0.3840	 5.3350
 0.3850	 5.3560
 0.3860	 5.3510
 0.3870	 5.2940
 0.3880	 5.3630
 0.3890	 5.3810
 0.3900	 5.3460
 0.3910	 5.4410
 0.3920	 5.4540
 0.3930	 5.4610
 0.3940	 5.5420
 0.3950	 5.6380
 0.3960	 5.7010
 0.3970	 5.7110
 0.3980	 5.6800
 0.3990	 5.7370
 0.4000	 5.8280
 0.4010	 5.9040
 0.4020	 5.9390
 0.4030	 5.9850
 0.4040	 6.0410
 0.4050	 6.0980
 0.4060	 6.1580
 0.4070	 6.2160
 0.4080	 6.2750
 0.4090	 6.3400
 0.4100	 6.4210
 0.4110	 6.4930
 0.4120	 6.5480
 0.4130	 6.6000
 0.4140	 6.6760
 0.4150	 6.7550
 0.4160	 6.8110
 0.4170	 6.8860
 0.4180	 6.9550
 0.4190	 7.0050
 0.4200	 7.0350
 0.4210	 7.0840
 0.4220	 7.1430
 0.4230	 7.2000
 0.4240	 7.2550
 0.4250	 7.2970
 0.4260	 7.3340
 0.4270	 7.3810
 0.4280	 7.4240
 0.4290	 7.4520
 0.4300	 7.4620
 0.4310	 7.4670
 0.4320	 7.5130
 0.4330	 7.5640
 0.4340	 7.5830
 0.4350	 7.6100
 0.4360	 7.6300
 0.4370	 7.6480
 0.4380	 7.6750
 0.4390	 7.6820
 0.4400	 7.6940
 0.4410	 7.7240
 0.4420	 7.7410
 0.4430	 7.7450
 0.4440	 7.7450
 0.4450	 7.7540
 0.4460	 7.7700
 0.4470	 7.7910
 0.4480	 7.8070
 0.4490	 7.8060
 0.4500	 7.8250
 0.4510	 7.8560
 0.4520	 7.8790
 0.4530	 7.8810
 0.4540	 7.8920
 0.4550	 7.9070
 0.4560	 7.9020
 0.4570	 7.9060
 0.4580	 7.9140
 0.4590	 7.9170
 0.4600	 7.9180
 0.4610	 7.9350
 0.4620	 7.9480
 0.4630	 7.9320
 0.4640	 7.9440
 0.4650	 7.9490
 0.4660	 7.9440
 0.4670	 7.9570
 0.4680	 7.9640
 0.4690	 7.9620
 0.4700	 7.9550
 0.4710	 7.9600
 0.4720	 7.9650
 0.4730	 7.9640
 0.4740	 7.9600
 0.4750	 7.9680
 0.4760	 7.9790
 0.4770	 7.9830
 0.4780	 7.9730
 0.4790	 7.9750
 0.4800	 7.9840
 0.4810	 7.9860
 0.4820	 7.9850
 0.4830	 7.9860
 0.4840	 7.9920
 0.4850	 8.0070
 0.4860	 8.0090
 0.4870	 8.0160
 0.4880	 8.0380
 0.4890	 8.0480
 0.4900	 8.0510
 0.4910	 8.0590
 0.4920	 8.0790
 0.4930	 8.0960
 0.4940	 8.1140
 0.4950	 8.1370
 0.4960	 8.1670
 0.4970	 8.1860
 0.4980	 8.2100
 0.4990	 8.2500
 0.5000	 8.2730
 0.5010	 8.3060
 0.5020	 8.3550
 0.5030	 8.4120
 0.5040	 8.4650
 0.5050	 8.5210
 0.5060	 8.5860
 0.5070	 8.6640
 0.5080	 8.7490
 0.5090	 8.8430
 0.5100	 8.9530
 0.5110	 9.0610
 0.5120	 9.1790
 0.5130	 9.3130
 0.5140	 9.4620
 0.5150	 9.6170
 0.5160	 9.7870
 0.5170	 9.9770
 0.5180	10.1650
 0.5190	10.3600
 0.5200	10.5660
 0.5210	10.7830
 0.5220	10.9990
 0.5230	11.2160
 0.5240	11.4340
 0.5250	11.6360
 0.5260	11.8410
 0.5270	12.0420
 0.5280	12.2230
 0.5290	12.3910
 0.5300	12.5540
 0.5310	12.7100
 0.5320	12.8510
 0.5330	12.9790
 0.5340	13.0980
 0.5350	13.2090
 0.5360	13.3060
 0.5370	13.4010
 0.5380	13.4900
 0.5390	13.5660
 0.5400	13.6410
 0.5410	13.7180
 0.5420	13.7960
 0.5430	13.8710
 0.5440	13.9370
 0.5450	13.9940
 0.5460	14.0440
 0.5470	14.0880
 0.5480	14.1300
 0.5490	14.1690
 0.5500	14.2000
 0.5510	14.2240
 0.5520	14.2350
 0.5530	14.2310
 0.5540	14.2190
 0.5550	14.1920
 0.5560	14.1480
 0.5570	14.0900
 0.5580	14.0190
 0.5590	13.9400
 0.5600	13.8550
 0.5610	13.7630
 0.5620	13.6600
 0.5630	13.5530
 0.5640	13.4500
 0.5650	13.3280
 0.5660	13.1920
 0.5670	13.0500
 0.5680	12.9110
 0.5690	12.7650
 0.5700	12.6150
 0.5710	12.4680
 0.5720	12.3380
 0.5730	12.2210
 0.5740	12.1200
 0.5750	12.0330
 0.5760	11.9420
 0.5770	11.8560
 0.5780	11.7770
 0.5790	11.6990
 0.5800	11.6200
 0.5810	11.5470
 0.5820	11.4840
 0.5830	11.4180
 0.5840	11.3530
 0.5850	11.2860
 0.5860	11.2100
 0.5870	11.1290
 0.5880	11.0560
 0.5890	11.0040
 0.5900	10.9740
 0.5910	10.9550
 0.5920	10.9450
 0.5930	10.9430
 0.5940	10.9300
 0.5950	10.9080
 0.5960	10.8810
 0.5970	10.8490
 0.5980	10.8180
 0.5990	10.7860
 0.6000	10.7510
 0.6010	10.7170
 0.6020	10.6820
 0.6030	10.6430
 0.6040	10.6010
 0.6050	10.5560
 0.6060	10.5050
 0.6070	10.4490
 0.6080	10.3920
 0.6090	10.3300
 0.6100	10.2670
 0.6110	10.2100
 0.6120	10.1480
 0.6130	10.0800
 0.6140	10.0100
 0.6150	 9.9480
 0.6160	 9.8910
 0.6170	 9.8370
 0.6180	 9.7890
 0.6190	 9.7440
 0.6200	 9.7030
 0.6210	 9.6650
 0.6220	 9.6330
 0.6230	 9.6090
 0.6240	 9.5870
 0.6250	 9.5640
 0.6260	 9.5450
 0.6270	 9.5310
 0.6280	 9.5210
 0.6290	 9.5140
 0.6300	 9.5070
 0.6310	 9.5010
 0.6320	 9.4940
 0.6330	 9.4840
 0.6340	 9.4670
 0.6350	 9.4460
 0.6360	 9.4210
 0.6370	 9.3890
 0.6380	 9.3470
 0.6390	 9.2990
 0.6400	 9.2520
 0.6410	 9.1970
 0.6420	 9.1420
 0.6430	 9.0900
 0.6440	 9.0320
 0.6450	 8.9780
 0.6460	 8.9270
 0.6470	 8.8750
 0.6480	 8.8240
 0.6490	 8.7840
 0.6500	 8.7530
 0.6510	 8.7190
 0.6520	 8.6900
 0.6530	 8.6640
 0.6540	 8.6380
 0.6550	 8.6070
 0.6560	 8.5730
 0.6570	 8.5390
 0.6580	 8.5080
 0.6590	 8.4700
 0.6600	 8.4320
 0.6610	 8.3980
 0.6620	 8.3660
 0.6630	 8.3280
 0.6640	 8.2930
 0.6650	 8.2680
 0.6660	 8.2460
 0.6670	 8.2290
 0.6680	 8.2170
 0.6690	 8.2090
 0.6700	 8.2020
 0.6710	 8.1990
 0.6720	 8.2000
 0.6730	 8.2010
 0.6740	 8.2060
 0.6750	 8.2160
 0.6760	 8.2260
 0.6770	 8.2410
 0.6780	 8.2560
 0.6790	 8.2750
 0.6800	 8.2990
 0.6810	 8.3250
 0.6820	 8.3570
 0.6830	 8.3950
 0.6840	 8.4420
 0.6850	 8.4980
 0.6860	 8.5660
 0.6870	 8.6510
 0.6880	 8.7570
 0.6890	 8.8940
 0.6900	 9.0700
 0.6910	 9.2860
 0.6920	 9.5470
 0.6930	 9.8630
 0.6940	10.2400
 0.6950	10.6760
 0.6960	11.1720
 0.6970	11.7280
 0.6980	12.3410
 0.6990	13.0040
 0.7000	13.7110
 0.7010	14.4550
 0.7020	15.2250
 0.7030	16.0110
 0.7040	16.8090
 0.7050	17.6160
 0.7060	18.4260
 0.7070	19.2320
 0.7080	20.0330
 0.7090	20.8290
 0.7100	21.6150
 0.7110	22.3950
 0.7120	23.1660
 0.7130	23.9190
 0.7140	24.6670
 0.7150	25.4060
 0.7160	26.1290
 0.7170	26.8300
 0.7180	27.5190
 0.7190	28.1930
 0.7200	28.8470
 0.7210	29.4890
 0.7220	30.1100
 0.7230	30.7070
 0.7240	31.2900
 0.7250	31.8500
 0.7260	32.3830
 0.7270	32.8900
 0.7280	33.3800
 0.7290	33.8440
 0.7300	34.2830
 0.7310	34.6990
 0.7320	35.0970
 0.7330	35.4720
 0.7340	35.8230
 0.7350	36.1510
 0.7360	36.4660
 0.7370	36.7620
 0.7380	37.0370
 0.7390	37.2970
 0.7400	37.5410
 0.7410	37.7700
 0.7420	37.9830
 0.7430	38.1800
 0.7440	38.3590
 0.7450	38.5250
 0.7460	38.6860
 0.7470	38.8320
 0.7480	38.9660
 0.7490	39.0910
 0.7500	39.2030
 0.7510	39.3070
 0.7520	39.4010
 0.7530	39.4860
 0.7540	39.5680
 0.7550	39.6410
 0.7560	39.7040
 0.7570	39.7640
 0.7580	39.8230
 0.7590	39.8770
 0.7600	39.9260
 0.7610	39.9700
 0.7620	40.0070
 0.7630	40.0380
 0.7640	40.0690
 0.7650	40.1020
 0.7660	40.1340
 0.7670	40.1620
 0.7680	40.1850
 0.7690	40.2030
 0.7700	40.2250
 0.7710	40.2510
 0.7720	40.2640
 0.7730	40.2770
 0.7740	40.2950
 0.7750	40.3140
 0.7760	40.3220
 0.7770	40.3350
 0.7780	40.3500
 0.7790	40.3600
 0.7800	40.3680
 0.7810	40.3800
 0.7820	40.3940
 0.7830	40.4080
 0.7840	40.4190
 0.7850	40.4240
 0.7860	40.4260
 0.7870	40.4360
 0.7880	40.4490
 0.7890	40.4590
 0.7900	40.4650
 0.7910	40.4650
 0.7920	40.4700
 0.7930	40.4800
 0.7940	40.4840
 0.7950	40.4910
 0.7960	40.4930
 0.7970	40.4900
 0.7980	40.4980
 0.7990	40.5000
 0.8000	40.4990
 0.8010	40.5020
 0.8020	40.4950
 0.8030	40.4920
 0.8040	40.4920
 0.8050	40.4860
 0.8060	40.4850
 0.8070	40.4840
 0.8080	40.4810
 0.8090	40.4770
 0.8100	40.4690
 0.8110	40.4650
 0.8120	40.4670
 0.8130	40.4620
 0.8140	40.4540
 0.8150	40.4450
 0.8160	40.4370
 0.8170	40.4340
 0.8180	40.4270
 0.8190	40.4180
 0.8200	40.4120
 0.8210	40.3990
 0.8220	40.3960
 0.8230	40.3980
 0.8240	40.3820
 0.8250	40.3720
 0.8260	40.3610
 0.8270	40.3460
 0.8280	40.3420
 0.8290	40.3370
 0.8300	40.3280
 0.8310	40.3160
 0.8320	40.3090
 0.8330	40.3010
 0.8340	40.2930
 0.8350	40.2850
 0.8360	40.2780
 0.8370	40.2740
 0.8380	40.2710
 0.8390	40.2680
 0.8400	40.2620
 0.8410	40.2550
 0.8420	40.2490
 0.8430	40.2500
 0.8440	40.2460
 0.8450	40.2390
 0.8460	40.2380
 0.8470	40.2460
 0.8480	40.2450
 0.8490	40.2380
 0.8500	40.2340
 0.8510	40.2390
 0.8520	40.2370
 0.8530	40.2320
 0.8540	40.2390
 0.8550	40.2400
 0.8560	40.2400
 0.8570	40.2390
 0.8580	40.2360
 0.8590	40.2410
 0.8600	40.2460
 0.8610	40.2480
 0.8620	40.2520
 0.8630	40.2550
 0.8640	40.2590
 0.8650	40.2640
 0.8660	40.2670
 0.8670	40.2740
 0.8680	40.2810
 0.8690	40.2810
 0.8700	40.2790
 0.8710	40.2770
 0.8720	40.2830
 0.8730	40.3000
 0.8740	40.3070
 0.8750	40.3060
 0.8760	40.3050
 0.8770	40.3160
 0.8780	40.3190
 0.8790	40.3220
 0.8800	40.3290
 0.8810	40.3380
 0.8820	40.3410
 0.8830	40.3440
 0.8840	40.3520
 0.8850	40.3610
 0.8860	40.3580
 0.8870	40.3580
 0.8880	40.3770
 0.8890	40.3840
 0.8900	40.3870
 0.8910	40.3880
 0.8920	40.3900
 0.8930	40.3960
 0.8940	40.4030
 0.8950	40.4080
 0.8960	40.4090
 0.8970	40.4140
 0.8980	40.4180
 0.8990	40.4180
 0.9000	40.4150
 0.9010	40.4290
 0.9020	40.4400
 0.9030	40.4360
 0.9040	40.4300
 0.9050	40.4490
 0.9060	40.4640
 0.9070	40.4570
 0.9080	40.4500
 0.9090	40.4570
 0.9100	40.4690
 0.9110	40.4760
 0.9120	40.4860
 0.9130	40.4860
 0.9140	40.4810
 0.9150	40.4810
 0.9160	40.4820
 0.9170	40.4800
 0.9180	40.4740
 0.9190	40.4670
 0.9200	40.4670
 0.9210	40.4700
 0.9220	40.4710
 0.9230	40.4700
 0.9240	40.4740
 0.9250	40.4700
 0.9260	40.4590
 0.9270	40.4490
 0.9280	40.4340
 0.9290	40.4270
 0.9300	40.4260
 0.9310	40.4090
 0.9320	40.3870
 0.9330	40.3690
 0.9340	40.3600
 0.9350	40.3530
 0.9360	40.3460
 0.9370	40.3270
 0.9380	40.2970
 0.9390	40.2730
 0.9400	40.2590
 0.9410	40.2460
 0.9420	40.2270
 0.9430	40.2080
 0.9440	40.1920
 0.9450	40.1660
 0.9460	40.1280
 0.9470	40.1060
 0.9480	40.0700
 0.9490	40.0290
 0.9500	39.9940
 0.9510	39.9570
 0.9520	39.9210
 0.9530	39.8800
 0.9540	39.8330
 0.9550	39.7910
 0.9560	39.7490
 0.9570	39.7080
 0.9580	39.6720
 0.9590	39.6430
 0.9600	39.6080
 0.9610	39.5670
 0.9620	39.5290
 0.9630	39.5050
 0.9640	39.4910
 0.9650	39.4740
 0.9660	39.4480
 0.9670	39.4630
 0.9680	39.4500
 0.9690	39.4240
 0.9700	39.4260
 0.9710	39.4120
 0.9720	39.4010
 0.9730	39.3960
 0.9740	39.3900
 0.9750	39.3850
 0.9760	39.3770
 0.9770	39.3730
 0.9780	39.3820
 0.9790	39.3800
 0.9800	39.3650
 0.9810	39.3650
 0.9820	39.3980
 0.9830	39.3990
 0.9840	39.3860
 0.9850	39.3850
 0.9860	39.4080
 0.9870	39.4110
 0.9880	39.4140
 0.9890	39.4340
 0.9900	39.4680
 0.9910	39.4530
 0.9920	39.4630
 0.9930	39.4740
 0.9940	39.4840
 0.9950	39.4940
 0.9960	39.5040
 0.9970	39.5150
 0.9980	39.5250
 0.9990	39.5350
 1.0000	39.5450
 1.0010	39.5560
 1.0020	39.5660
 1.0030	39.5760
 1.0040	39.5870
 1.0050	39.5970
 1.0060	39.6070
 1.0070	39.6170
 1.0080	39.6280
 1.0090	39.6380
 1.0100	39.6380
 1.0110	39.6540
 1.0120	39.6690
 1.0130	39.6850
 1.0140	39.6980
 1.0150	39.7110
 1.0160	39.7220
 1.0170	39.7320
 1.0180	39.7420
 1.0190	39.7530
 1.0200	39.7660
 1.0210	39.7770
 1.0220	39.7840
 1.0230	39.7950
 1.0240	39.8080
 1.0250	39.8170
 1.0260	39.8250
 1.0270	39.8340
 1.0280	39.8400
 1.0290	39.8480
 1.0300	39.8600
 1.0310	39.8700
 1.0320	39.8800
 1.0330	39.8920
 1.0340	39.8970
 1.0350	39.9010
 1.0360	39.9090
 1.0370	39.9150
 1.0380	39.9210
 1.0390	39.9290
 1.0400	39.9360
 1.0410	39.9400
 1.0420	39.9470
 1.0430	39.9590
 1.0440	39.9640
 1.0450	39.9660
 1.0460	39.9710
 1.0470	39.9740
 1.0480	39.9800
 1.0490	39.9910
 1.0500	39.9980
 1.0510	40.0000
 1.0520	40.0050
 1.0530	40.0120
 1.0540	40.0200
 1.0550	40.0270
 1.0560	40.0380
 1.0570	40.0430
 1.0580	40.0400
 1.0590	40.0450
 1.0600	40.0530
 1.0610	40.0590
 1.0620	40.0690
 1.0630	40.0760
 1.0640	40.0820
 1.0650	40.0840
 1.0660	40.0820
 1.0670	40.0840
 1.0680	40.0860
 1.0690	40.0860
 1.0700	40.0870
 1.0710	40.0920
 1.0720	40.0940
 1.0730	40.0930
 1.0740	40.0950
 1.0750	40.1010
 1.0760	40.1030
 1.0770	40.1060
 1.0780	40.1070
 1.0790	40.1060
 1.0800	40.1030
 1.0810	40.0950
 1.0820	40.0920
 1.0830	40.0920
 1.0840	40.0890
 1.0850	40.0890
 1.0860	40.0870
 1.0870	40.0830
 1.0880	40.0750
 1.0890	40.0710
 1.0900	40.0680
 1.0910	40.0620
 1.0920	40.0560
 1.0930	40.0490
 1.0940	40.0410
 1.0950	40.0360
 1.0960	40.0350
 1.0970	40.0300
 1.0980	40.0230
 1.0990	40.0180
 1.1000	40.0130
 1.1010	40.0060
 1.1020	40.0000
 1.1030	39.9920
 1.1040	39.9790
 1.1050	39.9660
 1.1060	39.9540
 1.1070	39.9440
 1.1080	39.9340
 1.1090	39.9250
 1.1100	39.9130
 1.1110	39.9000
 1.1120	39.8870
 1.1130	39.8710
 1.1140	39.8580
 1.1150	39.8460
 1.1160	39.8310
 1.1170	39.8160
 1.1180	39.8000
 1.1190	39.7820
 1.1200	39.7610
 1.1210	39.7430
 1.1220	39.7230
 1.1230	39.6990
 1.1240	39.6740
 1.1250	39.6440
 1.1260	39.6120
 1.1270	39.5750
 1.1280	39.5350
 1.1290	39.4910
 1.1300	39.4430
 1.1310	39.3910
 1.1320	39.3360
 1.1330	39.2750
 1.1340	39.2090
 1.1350	39.1390
 1.1360	39.0640
 1.1370	38.9860
 1.1380	38.9030
 1.1390	38.8190
 1.1400	38.7310
 1.1410	38.6390
 1.1420	38.5430
 1.1430	38.4470
 1.1440	38.3530
 1.1450	38.2580
 1.1460	38.1660
 1.1470	38.0770
 1.1480	37.9910
 1.1490	37.9050
 1.1500	37.8250
 1.1510	37.7490
 1.1520	37.6810
 1.1530	37.6170
 1.1540	37.5600
 1.1550	37.5090
 1.1560	37.4650
 1.1570	37.4270
 1.1580	37.3930
 1.1590	37.3640
 1.1600	37.3400
 1.1610	37.3190
 1.1620	37.3010
 1.1630	37.2860
 1.1640	37.2750
 1.1650	37.2660
 1.1660	37.2580
 1.1670	37.2520
 1.1680	37.2510
 1.1690	37.2470
 1.1700	37.2450
 1.1710	37.2420
 1.1720	37.2370
 1.1730	37.2350
 1.1740	37.2340
 1.1750	37.2320
 1.1760	37.2300
 1.1770	37.2290
 1.1780	37.2260
 1.1790	37.2210
 1.1800	37.2160
 1.1810	37.2090
 1.1820	37.2020
 1.1830	37.1950
 1.1840	37.1870
 1.1850	37.1810
 1.1860	37.1760
 1.1870	37.1720
 1.1880	37.1680
 1.1890	37.1650
 1.1900	37.1620
 1.1910	37.1600
 1.1920	37.1590
 1.1930	37.1590
 1.1940	37.1590
 1.1950	37.1590
 1.1960	37.1610
 1.1970	37.1650
 1.1980	37.1690
 1.1990	37.1740
 1.2000	37.1810
 1.2010	37.1850
 1.2020	37.1900
 1.2030	37.1990
 1.2040	37.2070
 1.2050	37.2140
 1.2060	37.2240
 1.2070	37.2350
 1.2080	37.2450
 1.2090	37.2540
 1.2100	37.2650
 1.2110	37.2770
 1.2120	37.2890
 1.2130	37.3010
 1.2140	37.3180
 1.2150	37.3320
 1.2160	37.3450
 1.2170	37.3590
 1.2180	37.3750
 1.2190	37.3890
 1.2200	37.4030
 1.2210	37.4190
 1.2220	37.4320
 1.2230	37.4470
 1.2240	37.4650
 1.2250	37.4810
 1.2260	37.4950
 1.2270	37.5100
 1.2280	37.5230
 1.2290	37.5350
 1.2300	37.5490
 1.2310	37.5630
 1.2320	37.5750
 1.2330	37.5880
 1.2340	37.6010
 1.2350	37.6150
 1.2360	37.6260
 1.2370	37.6350
 1.2380	37.6460
 1.2390	37.6540
 1.2400	37.6620
 1.2410	37.6710
 1.2420	37.6790
 1.2430	37.6870
 1.2440	37.6960
 1.2450	37.7060
 1.2460	37.7160
 1.2470	37.7240
 1.2480	37.7330
 1.2490	37.7390
 1.2500	37.7430
 1.2510	37.7510
 1.2520	37.7580
 1.2530	37.7640
 1.2540	37.7710
 1.2550	37.7750
 1.2560	37.7790
 1.2570	37.7820
 1.2580	37.7850
 1.2590	37.7870
 1.2600	37.7910
 1.2610	37.7920
 1.2620	37.7930
 1.2630	37.7930
 1.2640	37.7910
 1.2650	37.7900
 1.2660	37.7880
 1.2670	37.7850
 1.2680	37.7810
 1.2690	37.7760
 1.2700	37.7690
 1.2710	37.7620
 1.2720	37.7560
 1.2730	37.7480
 1.2740	37.7380
 1.2750	37.7280
 1.2760	37.7180
 1.2770	37.7060
 1.2780	37.6950
 1.2790	37.6850
 1.2800	37.6730
 1.2810	37.6580
 1.2820	37.6440
 1.2830	37.6300
 1.2840	37.6110
 1.2850	37.5950
 1.2860	37.5790
 1.2870	37.5620
 1.2880	37.5430
 1.2890	37.5250
 1.2900	37.5060
 1.2910	37.4850
 1.2920	37.4660
 1.2930	37.4450
 1.2940	37.4230
 1.2950	37.4000
 1.2960	37.3750
 1.2970	37.3470
 1.2980	37.3180
 1.2990	37.2880
 1.3000	37.2560
 1.3010	37.2230
 1.3020	37.1900
 1.3030	37.1540
 1.3040	37.1140
 1.3050	37.0760
 1.3060	37.0360
 1.3070	36.9920
 1.3080	36.9500
 1.3090	36.9030
 1.3100	36.8520
 1.3110	36.7990
 1.3120	36.7410
 1.3130	36.6780
 1.3140	36.6150
 1.3150	36.5490
 1.3160	36.4810
 1.3170	36.4130
 1.3180	36.3410
 1.3190	36.2670
 1.3200	36.1910
 1.3210	36.1110
 1.3220	36.0310
 1.3230	35.9490
 1.3240	35.8630
 1.3250	35.7780
 1.3260	35.6890
 1.3270	35.5970
 1.3280	35.5040
 1.3290	35.4080
 1.3300	35.3130
 1.3310	35.2170
 1.3320	35.1210
 1.3330	35.0230
 1.3340	34.9220
 1.3350	34.8190
 1.3360	34.7160
 1.3370	34.6110
 1.3380	34.5080
 1.3390	34.4060
 1.3400	34.3050
 1.3410	34.2050
 1.3420	34.1030
 1.3430	34.0020
 1.3440	33.9020
 1.3450	33.8020
 1.3460	33.7020
 1.3470	33.6050
 1.3480	33.5080
 1.3490	33.4110
 1.3500	33.3160
 1.3510	33.2210
 1.3520	33.1260
 1.3530	33.0290
 1.3540	32.9330
 1.3550	32.8380
 1.3560	32.7420
 1.3570	32.6450
 1.3580	32.5470
 1.3590	32.4460
 1.3600	32.3420
 1.3610	32.2350
 1.3620	32.1240
 1.3630	32.0110
 1.3640	31.8920
 1.3650	31.7680
 1.3660	31.6380
 1.3670	31.5000
 1.3680	31.3550
 1.3690	31.2020
 1.3700	31.0350
 1.3710	30.8590
 1.3720	30.6700
 1.3730	30.4660
 1.3740	30.2500
 1.3750	30.0180
 1.3760	29.7690
 1.3770	29.5040
 1.3780	29.2200
 1.3790	28.9180
 1.3800	28.5970
 1.3810	28.2540
 1.3820	27.8980
 1.3830	27.5250
 1.3840	27.1390
 1.3850	26.7380
 1.3860	26.3260
 1.3870	25.8970
 1.3880	25.4650
 1.3890	25.0230
 1.3900	24.5720
 1.3910	24.1210
 1.3920	23.6660
 1.3930	23.2070
 1.3940	22.7520
 1.3950	22.2950
 1.3960	21.8450
 1.3970	21.4060
 1.3980	20.9770
 1.3990	20.5670
 1.4000	20.1690
 1.4010	19.7840
 1.4020	19.4170
 1.4030	19.0640
 1.4040	18.7300
 1.4050	18.4140
 1.4060	18.1150
 1.4070	17.8370
 1.4080	17.5760
 1.4090	17.3310
 1.4100	17.1060
 1.4110	16.8970
 1.4120	16.7040
 1.4130	16.5260
 1.4140	16.3630
 1.4150	16.2160
 1.4160	16.0820
 1.4170	15.9600
 1.4180	15.8500
 1.4190	15.7500
 1.4200	15.6600
 1.4210	15.5790
 1.4220	15.5070
 1.4230	15.4430
 1.4240	15.3870
 1.4250	15.3370
 1.4260	15.2950
 1.4270	15.2560
 1.4280	15.2240
 1.4290	15.1960
 1.4300	15.1730
 1.4310	15.1540
 1.4320	15.1410
 1.4330	15.1300
 1.4340	15.1230
 1.4350	15.1190
 1.4360	15.1170
 1.4370	15.1180
 1.4380	15.1210
 1.4390	15.1260
 1.4400	15.1330
 1.4410	15.1430
 1.4420	15.1540
 1.4430	15.1660
 1.4440	15.1800
 1.4450	15.1950
 1.4460	15.2120
 1.4470	15.2290
 1.4480	15.2460
 1.4490	15.2630
 1.4500	15.2810
 1.4510	15.3000
 1.4520	15.3200
 1.4530	15.3410
 1.4540	15.3650
 1.4550	15.3890
 1.4560	15.4130
 1.4570	15.4410
 1.4580	15.4710
 1.4590	15.5040
 1.4600	15.5400
 1.4610	15.5790
 1.4620	15.6210
 1.4630	15.6670
 1.4640	15.7170
 1.4650	15.7700
 1.4660	15.8280
 1.4670	15.8890
 1.4680	15.9550
 1.4690	16.0270
 1.4700	16.1000
