Name: Cercidium pennisulare
Type: vegetation
Class: Tree
Genus: Cercidium
Species: pennisulare
Sample No.: JPL141
Owner: JPL
Wavelength Range: VSWIR
Origin: 34.12561; -118.11017; WGS84
Collection Date: 9/14/2016
Description: Samples were collected at the Huntington Garden in San Marino California as part of a JPL Subcontract studying HyTES imagery. Samples were taken to JPL and processed within 48 hours of collection. The same leaves were processed in the Nicolet and then measured using the ASD.
Measurement: Bidirectional reflectance
First Column: X
Second Column: Y
X Units: Wavelength (micrometer)
Y Units: Reflectance (percentage)
First X Value: 0.35
Last X Value: 2.5
Number of X Values: 2151
Additional Information: vegetation.tree.cercidium.pennisulare.vswir.jpl141.jpl.asd.ancillary.txt

 0.3500	 2.2490
 0.3510	 2.2070
 0.3520	 2.2700
 0.3530	 2.3280
 0.3540	 2.3040
 0.3550	 2.3480
 0.3560	 2.3600
 0.3570	 2.3070
 0.3580	 2.2090
 0.3590	 2.1860
 0.3600	 2.2270
 0.3610	 2.2680
 0.3620	 2.1900
 0.3630	 2.2840
 0.3640	 2.3620
 0.3650	 2.2360
 0.3660	 2.1860
 0.3670	 2.2050
 0.3680	 2.2540
 0.3690	 2.2790
 0.3700	 2.2700
 0.3710	 2.2640
 0.3720	 2.2740
 0.3730	 2.2620
 0.3740	 2.3030
 0.3750	 2.3500
 0.3760	 2.3280
 0.3770	 2.2230
 0.3780	 2.2270
 0.3790	 2.3200
 0.3800	 2.3080
 0.3810	 2.3250
 0.3820	 2.3490
 0.3830	 2.3460
 0.3840	 2.3140
 0.3850	 2.2930
 0.3860	 2.2840
 0.3870	 2.2830
 0.3880	 2.3080
 0.3890	 2.3320
 0.3900	 2.3390
 0.3910	 2.3270
 0.3920	 2.3600
 0.3930	 2.3950
 0.3940	 2.3950
 0.3950	 2.3940
 0.3960	 2.3900
 0.3970	 2.4000
 0.3980	 2.4430
 0.3990	 2.4950
 0.4000	 2.5250
 0.4010	 2.5300
 0.4020	 2.5380
 0.4030	 2.5410
 0.4040	 2.5490
 0.4050	 2.5730
 0.4060	 2.6210
 0.4070	 2.6620
 0.4080	 2.6890
 0.4090	 2.7150
 0.4100	 2.7610
 0.4110	 2.8020
 0.4120	 2.8250
 0.4130	 2.8580
 0.4140	 2.8970
 0.4150	 2.9380
 0.4160	 2.9800
 0.4170	 3.0310
 0.4180	 3.0810
 0.4190	 3.1250
 0.4200	 3.1610
 0.4210	 3.2010
 0.4220	 3.2400
 0.4230	 3.2770
 0.4240	 3.3120
 0.4250	 3.3470
 0.4260	 3.3870
 0.4270	 3.4330
 0.4280	 3.4580
 0.4290	 3.4880
 0.4300	 3.5300
 0.4310	 3.5600
 0.4320	 3.5940
 0.4330	 3.6280
 0.4340	 3.6560
 0.4350	 3.6920
 0.4360	 3.7190
 0.4370	 3.7350
 0.4380	 3.7460
 0.4390	 3.7640
 0.4400	 3.7810
 0.4410	 3.7920
 0.4420	 3.8040
 0.4430	 3.8230
 0.4440	 3.8440
 0.4450	 3.8620
 0.4460	 3.8890
 0.4470	 3.9120
 0.4480	 3.9290
 0.4490	 3.9540
 0.4500	 3.9740
 0.4510	 3.9900
 0.4520	 4.0030
 0.4530	 4.0200
 0.4540	 4.0360
 0.4550	 4.0510
 0.4560	 4.0620
 0.4570	 4.0710
 0.4580	 4.0760
 0.4590	 4.0800
 0.4600	 4.0880
 0.4610	 4.0980
 0.4620	 4.1040
 0.4630	 4.1030
 0.4640	 4.1030
 0.4650	 4.0960
 0.4660	 4.0900
 0.4670	 4.1070
 0.4680	 4.1110
 0.4690	 4.1070
 0.4700	 4.1050
 0.4710	 4.1070
 0.4720	 4.1090
 0.4730	 4.1140
 0.4740	 4.1210
 0.4750	 4.1250
 0.4760	 4.1250
 0.4770	 4.1230
 0.4780	 4.1230
 0.4790	 4.1240
 0.4800	 4.1310
 0.4810	 4.1440
 0.4820	 4.1500
 0.4830	 4.1550
 0.4840	 4.1620
 0.4850	 4.1710
 0.4860	 4.1840
 0.4870	 4.1960
 0.4880	 4.2040
 0.4890	 4.2140
 0.4900	 4.2280
 0.4910	 4.2410
 0.4920	 4.2500
 0.4930	 4.2600
 0.4940	 4.2720
 0.4950	 4.2870
 0.4960	 4.3160
 0.4970	 4.3400
 0.4980	 4.3650
 0.4990	 4.3970
 0.5000	 4.4260
 0.5010	 4.4580
 0.5020	 4.4980
 0.5030	 4.5430
 0.5040	 4.5900
 0.5050	 4.6400
 0.5060	 4.6950
 0.5070	 4.7590
 0.5080	 4.8280
 0.5090	 4.9010
 0.5100	 4.9770
 0.5110	 5.0510
 0.5120	 5.1330
 0.5130	 5.2250
 0.5140	 5.3190
 0.5150	 5.4180
 0.5160	 5.5220
 0.5170	 5.6330
 0.5180	 5.7500
 0.5190	 5.8680
 0.5200	 5.9870
 0.5210	 6.1090
 0.5220	 6.2260
 0.5230	 6.3450
 0.5240	 6.4650
 0.5250	 6.5800
 0.5260	 6.6880
 0.5270	 6.7920
 0.5280	 6.8950
 0.5290	 6.9900
 0.5300	 7.0750
 0.5310	 7.1510
 0.5320	 7.2210
 0.5330	 7.2850
 0.5340	 7.3410
 0.5350	 7.3910
 0.5360	 7.4380
 0.5370	 7.4830
 0.5380	 7.5250
 0.5390	 7.5680
 0.5400	 7.6250
 0.5410	 7.6930
 0.5420	 7.7610
 0.5430	 7.8130
 0.5440	 7.8430
 0.5450	 7.8490
 0.5460	 7.8330
 0.5470	 7.8060
 0.5480	 7.7790
 0.5490	 7.7620
 0.5500	 7.7590
 0.5510	 7.7580
 0.5520	 7.7500
 0.5530	 7.7330
 0.5540	 7.7110
 0.5550	 7.6830
 0.5560	 7.6500
 0.5570	 7.6120
 0.5580	 7.5690
 0.5590	 7.5230
 0.5600	 7.4770
 0.5610	 7.4290
 0.5620	 7.3770
 0.5630	 7.3200
 0.5640	 7.2590
 0.5650	 7.1990
 0.5660	 7.1360
 0.5670	 7.0690
 0.5680	 6.9990
 0.5690	 6.9250
 0.5700	 6.8510
 0.5710	 6.7800
 0.5720	 6.7110
 0.5730	 6.6430
 0.5740	 6.5750
 0.5750	 6.5070
 0.5760	 6.4450
 0.5770	 6.3900
 0.5780	 6.3410
 0.5790	 6.2970
 0.5800	 6.2550
 0.5810	 6.2140
 0.5820	 6.1750
 0.5830	 6.1340
 0.5840	 6.0940
 0.5850	 6.0590
 0.5860	 6.0330
 0.5870	 6.0160
 0.5880	 5.9960
 0.5890	 5.9640
 0.5900	 5.9310
 0.5910	 5.9020
 0.5920	 5.8770
 0.5930	 5.8560
 0.5940	 5.8360
 0.5950	 5.8160
 0.5960	 5.7970
 0.5970	 5.7870
 0.5980	 5.7770
 0.5990	 5.7630
 0.6000	 5.7460
 0.6010	 5.7290
 0.6020	 5.7100
 0.6030	 5.6880
 0.6040	 5.6620
 0.6050	 5.6330
 0.6060	 5.6030
 0.6070	 5.5730
 0.6080	 5.5420
 0.6090	 5.5170
 0.6100	 5.5060
 0.6110	 5.5070
 0.6120	 5.4700
 0.6130	 5.4080
 0.6140	 5.3420
 0.6150	 5.2950
 0.6160	 5.2510
 0.6170	 5.2100
 0.6180	 5.1770
 0.6190	 5.1500
 0.6200	 5.1250
 0.6210	 5.1000
 0.6220	 5.0760
 0.6230	 5.0560
 0.6240	 5.0400
 0.6250	 5.0260
 0.6260	 5.0120
 0.6270	 5.0010
 0.6280	 4.9930
 0.6290	 4.9870
 0.6300	 4.9840
 0.6310	 4.9790
 0.6320	 4.9710
 0.6330	 4.9560
 0.6340	 4.9390
 0.6350	 4.9200
 0.6360	 4.8980
 0.6370	 4.8700
 0.6380	 4.8380
 0.6390	 4.8030
 0.6400	 4.7660
 0.6410	 4.7270
 0.6420	 4.6870
 0.6430	 4.6470
 0.6440	 4.6060
 0.6450	 4.5620
 0.6460	 4.5200
 0.6470	 4.4830
 0.6480	 4.4470
 0.6490	 4.4180
 0.6500	 4.3950
 0.6510	 4.3710
 0.6520	 4.3500
 0.6530	 4.3300
 0.6540	 4.3080
 0.6550	 4.2880
 0.6560	 4.2660
 0.6570	 4.2400
 0.6580	 4.2120
 0.6590	 4.1790
 0.6600	 4.1440
 0.6610	 4.1090
 0.6620	 4.0770
 0.6630	 4.0450
 0.6640	 4.0140
 0.6650	 3.9850
 0.6660	 3.9590
 0.6670	 3.9390
 0.6680	 3.9240
 0.6690	 3.9140
 0.6700	 3.9070
 0.6710	 3.9040
 0.6720	 3.9060
 0.6730	 3.9140
 0.6740	 3.9230
 0.6750	 3.9350
 0.6760	 3.9540
 0.6770	 3.9780
 0.6780	 4.0050
 0.6790	 4.0350
 0.6800	 4.0690
 0.6810	 4.1080
 0.6820	 4.1550
 0.6830	 4.2080
 0.6840	 4.2650
 0.6850	 4.3330
 0.6860	 4.4100
 0.6870	 4.4940
 0.6880	 4.5920
 0.6890	 4.7060
 0.6900	 4.8400
 0.6910	 4.9960
 0.6920	 5.1760
 0.6930	 5.3830
 0.6940	 5.6130
 0.6950	 5.8660
 0.6960	 6.1430
 0.6970	 6.4410
 0.6980	 6.7580
 0.6990	 7.0940
 0.7000	 7.4500
 0.7010	 7.8210
 0.7020	 8.2040
 0.7030	 8.6000
 0.7040	 9.0080
 0.7050	 9.4260
 0.7060	 9.8530
 0.7070	10.2900
 0.7080	10.7380
 0.7090	11.1970
 0.7100	11.6600
 0.7110	12.1360
 0.7120	12.6250
 0.7130	13.1220
 0.7140	13.6260
 0.7150	14.1420
 0.7160	14.6700
 0.7170	15.2050
 0.7180	15.7490
 0.7190	16.2970
 0.7200	16.8450
 0.7210	17.3980
 0.7220	17.9530
 0.7230	18.5060
 0.7240	19.0530
 0.7250	19.5900
 0.7260	20.1190
 0.7270	20.6400
 0.7280	21.1480
 0.7290	21.6430
 0.7300	22.1210
 0.7310	22.5790
 0.7320	23.0220
 0.7330	23.4480
 0.7340	23.8540
 0.7350	24.2400
 0.7360	24.6050
 0.7370	24.9500
 0.7380	25.2770
 0.7390	25.5860
 0.7400	25.8720
 0.7410	26.1370
 0.7420	26.3850
 0.7430	26.6160
 0.7440	26.8280
 0.7450	27.0220
 0.7460	27.2010
 0.7470	27.3630
 0.7480	27.5110
 0.7490	27.6470
 0.7500	27.7700
 0.7510	27.8820
 0.7520	27.9830
 0.7530	28.0740
 0.7540	28.1530
 0.7550	28.2270
 0.7560	28.2970
 0.7570	28.3590
 0.7580	28.4130
 0.7590	28.4650
 0.7600	28.5140
 0.7610	28.5550
 0.7620	28.5920
 0.7630	28.6250
 0.7640	28.6510
 0.7650	28.6760
 0.7660	28.7000
 0.7670	28.7230
 0.7680	28.7440
 0.7690	28.7600
 0.7700	28.7760
 0.7710	28.7920
 0.7720	28.8070
 0.7730	28.8210
 0.7740	28.8330
 0.7750	28.8440
 0.7760	28.8560
 0.7770	28.8680
 0.7780	28.8790
 0.7790	28.8920
 0.7800	28.9050
 0.7810	28.9170
 0.7820	28.9270
 0.7830	28.9370
 0.7840	28.9460
 0.7850	28.9560
 0.7860	28.9670
 0.7870	28.9730
 0.7880	28.9810
 0.7890	28.9910
 0.7900	29.0010
 0.7910	29.0080
 0.7920	29.0140
 0.7930	29.0210
 0.7940	29.0290
 0.7950	29.0340
 0.7960	29.0390
 0.7970	29.0470
 0.7980	29.0520
 0.7990	29.0550
 0.8000	29.0580
 0.8010	29.0640
 0.8020	29.0660
 0.8030	29.0700
 0.8040	29.0750
 0.8050	29.0770
 0.8060	29.0780
 0.8070	29.0790
 0.8080	29.0820
 0.8090	29.0850
 0.8100	29.0870
 0.8110	29.0870
 0.8120	29.0870
 0.8130	29.0900
 0.8140	29.0880
 0.8150	29.0850
 0.8160	29.0840
 0.8170	29.0840
 0.8180	29.0850
 0.8190	29.0850
 0.8200	29.0860
 0.8210	29.0840
 0.8220	29.0810
 0.8230	29.0800
 0.8240	29.0830
 0.8250	29.0820
 0.8260	29.0800
 0.8270	29.0760
 0.8280	29.0760
 0.8290	29.0720
 0.8300	29.0680
 0.8310	29.0660
 0.8320	29.0640
 0.8330	29.0610
 0.8340	29.0590
 0.8350	29.0580
 0.8360	29.0620
 0.8370	29.0620
 0.8380	29.0590
 0.8390	29.0620
 0.8400	29.0630
 0.8410	29.0660
 0.8420	29.0710
 0.8430	29.0700
 0.8440	29.0680
 0.8450	29.0720
 0.8460	29.0800
 0.8470	29.0840
 0.8480	29.0890
 0.8490	29.0940
 0.8500	29.0940
 0.8510	29.0980
 0.8520	29.1040
 0.8530	29.1100
 0.8540	29.1130
 0.8550	29.1190
 0.8560	29.1240
 0.8570	29.1260
 0.8580	29.1290
 0.8590	29.1370
 0.8600	29.1450
 0.8610	29.1500
 0.8620	29.1590
 0.8630	29.1670
 0.8640	29.1740
 0.8650	29.1810
 0.8660	29.1890
 0.8670	29.1970
 0.8680	29.2030
 0.8690	29.2070
 0.8700	29.2180
 0.8710	29.2310
 0.8720	29.2410
 0.8730	29.2490
 0.8740	29.2540
 0.8750	29.2640
 0.8760	29.2770
 0.8770	29.2860
 0.8780	29.2920
 0.8790	29.3010
 0.8800	29.3110
 0.8810	29.3170
 0.8820	29.3280
 0.8830	29.3390
 0.8840	29.3450
 0.8850	29.3520
 0.8860	29.3600
 0.8870	29.3670
 0.8880	29.3740
 0.8890	29.3860
 0.8900	29.3970
 0.8910	29.4050
 0.8920	29.4110
 0.8930	29.4270
 0.8940	29.4370
 0.8950	29.4420
 0.8960	29.4490
 0.8970	29.4550
 0.8980	29.4630
 0.8990	29.4730
 0.9000	29.4780
 0.9010	29.4840
 0.9020	29.4930
 0.9030	29.4990
 0.9040	29.5020
 0.9050	29.5120
 0.9060	29.5230
 0.9070	29.5290
 0.9080	29.5300
 0.9090	29.5360
 0.9100	29.5450
 0.9110	29.5520
 0.9120	29.5570
 0.9130	29.5620
 0.9140	29.5640
 0.9150	29.5610
 0.9160	29.5690
 0.9170	29.5720
 0.9180	29.5740
 0.9190	29.5800
 0.9200	29.5820
 0.9210	29.5770
 0.9220	29.5720
 0.9230	29.5740
 0.9240	29.5700
 0.9250	29.5680
 0.9260	29.5690
 0.9270	29.5650
 0.9280	29.5530
 0.9290	29.5410
 0.9300	29.5330
 0.9310	29.5210
 0.9320	29.5090
 0.9330	29.5000
 0.9340	29.4920
 0.9350	29.4790
 0.9360	29.4700
 0.9370	29.4570
 0.9380	29.4370
 0.9390	29.4230
 0.9400	29.4090
 0.9410	29.3900
 0.9420	29.3700
 0.9430	29.3550
 0.9440	29.3280
 0.9450	29.2990
 0.9460	29.2770
 0.9470	29.2460
 0.9480	29.2140
 0.9490	29.1830
 0.9500	29.1530
 0.9510	29.1230
 0.9520	29.0770
 0.9530	29.0260
 0.9540	28.9870
 0.9550	28.9460
 0.9560	28.9100
 0.9570	28.8740
 0.9580	28.8320
 0.9590	28.8040
 0.9600	28.7740
 0.9610	28.7440
 0.9620	28.7200
 0.9630	28.6960
 0.9640	28.6760
 0.9650	28.6560
 0.9660	28.6360
 0.9670	28.6310
 0.9680	28.6270
 0.9690	28.6170
 0.9700	28.5990
 0.9710	28.5930
 0.9720	28.5800
 0.9730	28.5690
 0.9740	28.5720
 0.9750	28.5700
 0.9760	28.5690
 0.9770	28.5710
 0.9780	28.5750
 0.9790	28.5690
 0.9800	28.5670
 0.9810	28.5730
 0.9820	28.5800
 0.9830	28.5940
 0.9840	28.6040
 0.9850	28.6060
 0.9860	28.6000
 0.9870	28.6050
 0.9880	28.6120
 0.9890	28.6240
 0.9900	28.6470
 0.9910	28.6610
 0.9920	28.6690
 0.9930	28.6790
 0.9940	28.6970
 0.9950	28.7080
 0.9960	28.7160
 0.9970	28.7340
 0.9980	28.7630
 0.9990	28.7640
 1.0000	28.7720
 1.0010	29.6870
 1.0020	29.7060
 1.0030	29.7270
 1.0040	29.7450
 1.0050	29.7610
 1.0060	29.7800
 1.0070	29.7970
 1.0080	29.8160
 1.0090	29.8360
 1.0100	29.8550
 1.0110	29.8760
 1.0120	29.8950
 1.0130	29.9110
 1.0140	29.9300
 1.0150	29.9500
 1.0160	29.9710
 1.0170	29.9910
 1.0180	30.0090
 1.0190	30.0250
 1.0200	30.0400
 1.0210	30.0560
 1.0220	30.0770
 1.0230	30.0960
 1.0240	30.1160
 1.0250	30.1340
 1.0260	30.1510
 1.0270	30.1690
 1.0280	30.1890
 1.0290	30.2080
 1.0300	30.2260
 1.0310	30.2450
 1.0320	30.2650
 1.0330	30.2810
 1.0340	30.2970
 1.0350	30.3160
 1.0360	30.3330
 1.0370	30.3530
 1.0380	30.3710
 1.0390	30.3910
 1.0400	30.4100
 1.0410	30.4280
 1.0420	30.4440
 1.0430	30.4570
 1.0440	30.4730
 1.0450	30.4890
 1.0460	30.5050
 1.0470	30.5260
 1.0480	30.5420
 1.0490	30.5520
 1.0500	30.5640
 1.0510	30.5750
 1.0520	30.5850
 1.0530	30.5980
 1.0540	30.6130
 1.0550	30.6260
 1.0560	30.6420
 1.0570	30.6520
 1.0580	30.6590
 1.0590	30.6670
 1.0600	30.6740
 1.0610	30.6800
 1.0620	30.6870
 1.0630	30.6940
 1.0640	30.6990
 1.0650	30.7050
 1.0660	30.7160
 1.0670	30.7210
 1.0680	30.7230
 1.0690	30.7220
 1.0700	30.7230
 1.0710	30.7210
 1.0720	30.7230
 1.0730	30.7290
 1.0740	30.7300
 1.0750	30.7290
 1.0760	30.7280
 1.0770	30.7260
 1.0780	30.7250
 1.0790	30.7260
 1.0800	30.7250
 1.0810	30.7240
 1.0820	30.7230
 1.0830	30.7200
 1.0840	30.7170
 1.0850	30.7150
 1.0860	30.7120
 1.0870	30.7080
 1.0880	30.7030
 1.0890	30.6990
 1.0900	30.6960
 1.0910	30.6910
 1.0920	30.6850
 1.0930	30.6790
 1.0940	30.6700
 1.0950	30.6630
 1.0960	30.6580
 1.0970	30.6520
 1.0980	30.6480
 1.0990	30.6420
 1.1000	30.6340
 1.1010	30.6270
 1.1020	30.6180
 1.1030	30.6100
 1.1040	30.6050
 1.1050	30.5980
 1.1060	30.5910
 1.1070	30.5840
 1.1080	30.5770
 1.1090	30.5700
 1.1100	30.5620
 1.1110	30.5540
 1.1120	30.5450
 1.1130	30.5320
 1.1140	30.5210
 1.1150	30.5110
 1.1160	30.4990
 1.1170	30.4850
 1.1180	30.4710
 1.1190	30.4560
 1.1200	30.4390
 1.1210	30.4200
 1.1220	30.4000
 1.1230	30.3780
 1.1240	30.3520
 1.1250	30.3230
 1.1260	30.2930
 1.1270	30.2560
 1.1280	30.2160
 1.1290	30.1700
 1.1300	30.1200
 1.1310	30.0640
 1.1320	30.0040
 1.1330	29.9380
 1.1340	29.8670
 1.1350	29.7910
 1.1360	29.7100
 1.1370	29.6250
 1.1380	29.5370
 1.1390	29.4450
 1.1400	29.3480
 1.1410	29.2490
 1.1420	29.1470
 1.1430	29.0460
 1.1440	28.9440
 1.1450	28.8420
 1.1460	28.7420
 1.1470	28.6410
 1.1480	28.5460
 1.1490	28.4550
 1.1500	28.3680
 1.1510	28.2870
 1.1520	28.2090
 1.1530	28.1350
 1.1540	28.0670
 1.1550	28.0030
 1.1560	27.9440
 1.1570	27.8890
 1.1580	27.8400
 1.1590	27.7960
 1.1600	27.7560
 1.1610	27.7210
 1.1620	27.6870
 1.1630	27.6580
 1.1640	27.6310
 1.1650	27.6070
 1.1660	27.5860
 1.1670	27.5660
 1.1680	27.5480
 1.1690	27.5320
 1.1700	27.5180
 1.1710	27.5050
 1.1720	27.4950
 1.1730	27.4830
 1.1740	27.4720
 1.1750	27.4610
 1.1760	27.4480
 1.1770	27.4350
 1.1780	27.4210
 1.1790	27.4090
 1.1800	27.3960
 1.1810	27.3840
 1.1820	27.3730
 1.1830	27.3610
 1.1840	27.3480
 1.1850	27.3350
 1.1860	27.3210
 1.1870	27.3090
 1.1880	27.2980
 1.1890	27.2870
 1.1900	27.2790
 1.1910	27.2720
 1.1920	27.2660
 1.1930	27.2600
 1.1940	27.2560
 1.1950	27.2520
 1.1960	27.2480
 1.1970	27.2470
 1.1980	27.2470
 1.1990	27.2470
 1.2000	27.2490
 1.2010	27.2510
 1.2020	27.2550
 1.2030	27.2620
 1.2040	27.2670
 1.2050	27.2750
 1.2060	27.2820
 1.2070	27.2910
 1.2080	27.3020
 1.2090	27.3140
 1.2100	27.3280
 1.2110	27.3430
 1.2120	27.3590
 1.2130	27.3760
 1.2140	27.3950
 1.2150	27.4150
 1.2160	27.4360
 1.2170	27.4580
 1.2180	27.4810
 1.2190	27.5060
 1.2200	27.5320
 1.2210	27.5570
 1.2220	27.5830
 1.2230	27.6080
 1.2240	27.6340
 1.2250	27.6590
 1.2260	27.6830
 1.2270	27.7070
 1.2280	27.7300
 1.2290	27.7540
 1.2300	27.7780
 1.2310	27.8000
 1.2320	27.8230
 1.2330	27.8440
 1.2340	27.8630
 1.2350	27.8800
 1.2360	27.8980
 1.2370	27.9160
 1.2380	27.9340
 1.2390	27.9510
 1.2400	27.9680
 1.2410	27.9840
 1.2420	27.9990
 1.2430	28.0150
 1.2440	28.0310
 1.2450	28.0450
 1.2460	28.0590
 1.2470	28.0740
 1.2480	28.0880
 1.2490	28.1020
 1.2500	28.1150
 1.2510	28.1250
 1.2520	28.1350
 1.2530	28.1450
 1.2540	28.1540
 1.2550	28.1630
 1.2560	28.1720
 1.2570	28.1810
 1.2580	28.1880
 1.2590	28.1950
 1.2600	28.2020
 1.2610	28.2070
 1.2620	28.2120
 1.2630	28.2170
 1.2640	28.2220
 1.2650	28.2250
 1.2660	28.2290
 1.2670	28.2300
 1.2680	28.2310
 1.2690	28.2310
 1.2700	28.2300
 1.2710	28.2300
 1.2720	28.2280
 1.2730	28.2260
 1.2740	28.2240
 1.2750	28.2210
 1.2760	28.2170
 1.2770	28.2110
 1.2780	28.2070
 1.2790	28.2010
 1.2800	28.1940
 1.2810	28.1870
 1.2820	28.1790
 1.2830	28.1680
 1.2840	28.1580
 1.2850	28.1460
 1.2860	28.1300
 1.2870	28.1120
 1.2880	28.0930
 1.2890	28.0710
 1.2900	28.0450
 1.2910	28.0180
 1.2920	27.9870
 1.2930	27.9550
 1.2940	27.9200
 1.2950	27.8820
 1.2960	27.8450
 1.2970	27.8050
 1.2980	27.7630
 1.2990	27.7200
 1.3000	27.6750
 1.3010	27.6280
 1.3020	27.5780
 1.3030	27.5260
 1.3040	27.4710
 1.3050	27.4150
 1.3060	27.3590
 1.3070	27.3010
 1.3080	27.2390
 1.3090	27.1770
 1.3100	27.1120
 1.3110	27.0430
 1.3120	26.9730
 1.3130	26.9010
 1.3140	26.8280
 1.3150	26.7510
 1.3160	26.6750
 1.3170	26.5980
 1.3180	26.5190
 1.3190	26.4390
 1.3200	26.3570
 1.3210	26.2720
 1.3220	26.1860
 1.3230	26.0970
 1.3240	26.0060
 1.3250	25.9150
 1.3260	25.8210
 1.3270	25.7270
 1.3280	25.6330
 1.3290	25.5370
 1.3300	25.4390
 1.3310	25.3410
 1.3320	25.2410
 1.3330	25.1420
 1.3340	25.0440
 1.3350	24.9450
 1.3360	24.8470
 1.3370	24.7480
 1.3380	24.6500
 1.3390	24.5540
 1.3400	24.4580
 1.3410	24.3650
 1.3420	24.2710
 1.3430	24.1780
 1.3440	24.0850
 1.3450	23.9940
 1.3460	23.9050
 1.3470	23.8170
 1.3480	23.7300
 1.3490	23.6440
 1.3500	23.5590
 1.3510	23.4740
 1.3520	23.3890
 1.3530	23.3060
 1.3540	23.2230
 1.3550	23.1400
 1.3560	23.0570
 1.3570	22.9730
 1.3580	22.8890
 1.3590	22.8040
 1.3600	22.7160
 1.3610	22.6260
 1.3620	22.5320
 1.3630	22.4350
 1.3640	22.3320
 1.3650	22.2250
 1.3660	22.1140
 1.3670	21.9950
 1.3680	21.8700
 1.3690	21.7370
 1.3700	21.5930
 1.3710	21.4400
 1.3720	21.2770
 1.3730	21.1020
 1.3740	20.9160
 1.3750	20.7180
 1.3760	20.5060
 1.3770	20.2800
 1.3780	20.0360
 1.3790	19.7770
 1.3800	19.5040
 1.3810	19.2140
 1.3820	18.9120
 1.3830	18.5990
 1.3840	18.2730
 1.3850	17.9350
 1.3860	17.5890
 1.3870	17.2290
 1.3880	16.8700
 1.3890	16.5030
 1.3900	16.1320
 1.3910	15.7650
 1.3920	15.3960
 1.3930	15.0280
 1.3940	14.6660
 1.3950	14.3050
 1.3960	13.9510
 1.3970	13.6080
 1.3980	13.2730
 1.3990	12.9530
 1.4000	12.6440
 1.4010	12.3450
 1.4020	12.0590
 1.4030	11.7860
 1.4040	11.5260
 1.4050	11.2790
 1.4060	11.0450
 1.4070	10.8270
 1.4080	10.6220
 1.4090	10.4290
 1.4100	10.2490
 1.4110	10.0790
 1.4120	 9.9200
 1.4130	 9.7710
 1.4140	 9.6330
 1.4150	 9.5050
 1.4160	 9.3860
 1.4170	 9.2750
 1.4180	 9.1730
 1.4190	 9.0770
 1.4200	 8.9880
 1.4210	 8.9050
 1.4220	 8.8260
 1.4230	 8.7540
 1.4240	 8.6880
 1.4250	 8.6250
 1.4260	 8.5690
 1.4270	 8.5150
 1.4280	 8.4660
 1.4290	 8.4200
 1.4300	 8.3780
 1.4310	 8.3390
 1.4320	 8.3040
 1.4330	 8.2710
 1.4340	 8.2430
 1.4350	 8.2170
 1.4360	 8.1930
 1.4370	 8.1700
 1.4380	 8.1500
 1.4390	 8.1320
 1.4400	 8.1160
 1.4410	 8.1040
 1.4420	 8.0930
 1.4430	 8.0830
 1.4440	 8.0750
 1.4450	 8.0690
 1.4460	 8.0630
 1.4470	 8.0600
 1.4480	 8.0570
 1.4490	 8.0550
 1.4500	 8.0560
 1.4510	 8.0560
 1.4520	 8.0580
 1.4530	 8.0610
 1.4540	 8.0650
 1.4550	 8.0710
 1.4560	 8.0790
 1.4570	 8.0880
 1.4580	 8.0980
 1.4590	 8.1090
 1.4600	 8.1230
 1.4610	 8.1390
 1.4620	 8.1570
 1.4630	 8.1780
 1.4640	 8.2010
 1.4650	 8.2260
 1.4660	 8.2540
 1.4670	 8.2860
 1.4680	 8.3190
 1.4690	 8.3550
 1.4700	 8.3930
 1.4710	 8.4330
 1.4720	 8.4750
 1.4730	 8.5200
 1.4740	 8.5650
 1.4750	 8.6140
 1.4760	 8.6640
 1.4770	 8.7150
