Name: Calocedrus decrruens 2
Type: vegetation
Class: Tree
Genus: Calocedrus
Species: decurrens
Sample No.: VH152
Owner: UCSB
Wavelength Range: TIR
Origin: 37.0441; -119.3033; WGS84
Collection Date: 6/8/2013
Description: Samples were collected as part of the HyspIRI Airborne Campaign. 48 individual plants were sampled in three times in 2013 - spring  summer  and fall. The name of the sample includes a 1  2  or 3 which references a different individual of the species. Samples were taken to JPL and processed within 48 hours of collection. The same leaves were processed in the Nicolet and then measured using the ASD.
Measurement: Hemispherical reflectance
First Column: X
Second Column: Y
X Units: Wavelength (micrometers)
Y Units: Reflectance (percentage)
First X Value: 2.501
Last X Value: 15.387
Number of X Values: 1737
Additional Information: vegetation.tree.calocedrus.decurrens.tir.vh152.ucsb.nicolet.ancillary.txt

 2.5010	 7.0570
 2.5030	 7.1580
 2.5040	 7.1820
 2.5050	 7.1380
 2.5060	 7.2840
 2.5070	 7.1760
 2.5090	 7.0590
 2.5100	 7.0090
 2.5110	 6.9840
 2.5120	 6.9840
 2.5140	 7.1260
 2.5150	 7.0810
 2.5160	 7.1410
 2.5170	 7.1900
 2.5180	 7.2080
 2.5200	 7.1890
 2.5210	 7.1420
 2.5220	 7.0750
 2.5230	 7.2350
 2.5250	 7.1180
 2.5260	 7.0550
 2.5270	 7.0870
 2.5280	 7.0810
 2.5290	 6.9920
 2.5310	 7.0260
 2.5320	 7.0510
 2.5330	 7.1570
 2.5340	 7.1530
 2.5360	 6.9860
 2.5370	 6.9560
 2.5380	 7.0610
 2.5390	 7.0220
 2.5410	 7.1640
 2.5420	 7.2290
 2.5430	 7.3780
 2.5440	 7.2900
 2.5460	 7.0670
 2.5470	 7.0590
 2.5480	 7.2020
 2.5490	 7.0740
 2.5510	 7.0200
 2.5520	 7.0550
 2.5530	 7.1250
 2.5540	 7.1830
 2.5560	 7.3480
 2.5570	 7.2520
 2.5580	 7.2410
 2.5590	 7.1430
 2.5610	 7.1990
 2.5620	 7.3390
 2.5630	 7.3420
 2.5640	 7.2530
 2.5660	 7.2780
 2.5670	 7.2120
 2.5680	 7.3460
 2.5700	 7.3830
 2.5710	 7.3070
 2.5720	 7.2110
 2.5730	 7.3460
 2.5750	 7.3700
 2.5760	 7.3450
 2.5770	 7.3210
 2.5790	 7.4220
 2.5800	 7.2920
 2.5810	 7.2340
 2.5820	 7.2520
 2.5840	 7.2070
 2.5850	 7.1850
 2.5860	 7.2960
 2.5880	 7.3930
 2.5890	 7.4040
 2.5900	 7.2220
 2.5910	 7.2040
 2.5930	 7.0730
 2.5940	 6.9940
 2.5950	 7.1260
 2.5970	 7.2020
 2.5980	 7.0620
 2.5990	 7.0880
 2.6000	 7.0140
 2.6020	 6.9390
 2.6030	 6.9360
 2.6040	 7.1250
 2.6060	 7.1440
 2.6070	 7.0230
 2.6080	 6.8400
 2.6100	 6.7650
 2.6110	 6.6990
 2.6120	 6.5990
 2.6140	 6.5770
 2.6150	 6.7190
 2.6160	 6.7160
 2.6180	 6.7060
 2.6190	 6.6000
 2.6200	 6.5620
 2.6220	 6.4850
 2.6230	 6.3740
 2.6240	 6.3190
 2.6260	 6.4170
 2.6270	 6.3490
 2.6280	 6.3250
 2.6300	 6.2550
 2.6310	 6.1370
 2.6320	 6.0300
 2.6340	 6.1900
 2.6350	 6.2140
 2.6360	 6.1280
 2.6380	 5.9860
 2.6390	 5.8040
 2.6400	 5.6430
 2.6420	 5.7850
 2.6430	 5.8240
 2.6440	 5.8870
 2.6460	 5.8710
 2.6470	 5.8690
 2.6480	 5.7280
 2.6500	 5.5420
 2.6510	 5.4770
 2.6520	 5.4700
 2.6540	 5.3730
 2.6550	 5.3290
 2.6560	 5.4020
 2.6580	 5.5360
 2.6590	 5.4420
 2.6610	 5.4100
 2.6620	 5.2210
 2.6630	 5.1620
 2.6650	 5.1340
 2.6660	 5.1260
 2.6670	 4.9710
 2.6690	 5.0410
 2.6700	 5.0100
 2.6720	 4.8050
 2.6730	 4.7200
 2.6740	 4.8480
 2.6760	 4.7170
 2.6770	 4.6490
 2.6780	 4.6810
 2.6800	 4.6690
 2.6810	 4.4990
 2.6830	 4.4900
 2.6840	 4.3440
 2.6850	 4.3530
 2.6870	 4.3730
 2.6880	 4.3820
 2.6900	 4.2490
 2.6910	 4.1560
 2.6920	 4.1480
 2.6940	 4.2370
 2.6950	 4.2050
 2.6970	 4.2380
 2.6980	 4.0570
 2.6990	 3.9450
 2.7010	 3.9020
 2.7020	 3.9760
 2.7040	 3.9880
 2.7050	 3.9680
 2.7060	 3.8280
 2.7080	 3.8260
 2.7090	 3.8170
 2.7110	 3.8050
 2.7120	 3.7070
 2.7130	 3.7050
 2.7150	 3.5660
 2.7160	 3.5490
 2.7180	 3.5540
 2.7190	 3.5340
 2.7210	 3.4910
 2.7220	 3.5170
 2.7230	 3.5690
 2.7250	 3.4930
 2.7260	 3.4890
 2.7280	 3.5230
 2.7290	 3.3860
 2.7310	 3.5630
 2.7320	 3.6020
 2.7330	 3.4470
 2.7350	 3.3230
 2.7360	 3.4220
 2.7380	 3.5190
 2.7390	 3.5330
 2.7410	 3.5010
 2.7420	 3.5760
 2.7440	 3.4390
 2.7450	 3.5420
 2.7470	 3.4850
 2.7480	 3.5700
 2.7490	 3.4400
 2.7510	 3.4080
 2.7520	 3.3610
 2.7540	 3.3940
 2.7550	 3.3590
 2.7570	 3.3550
 2.7580	 3.5500
 2.7600	 3.5990
 2.7610	 3.4170
 2.7630	 3.5920
 2.7640	 3.6850
 2.7660	 3.5980
 2.7670	 3.5370
 2.7680	 3.4910
 2.7700	 3.3420
 2.7710	 3.5790
 2.7730	 3.7020
 2.7740	 3.6330
 2.7760	 3.4090
 2.7770	 3.4220
 2.7790	 3.4480
 2.7800	 3.5250
 2.7820	 3.5420
 2.7830	 3.6520
 2.7850	 3.5920
 2.7860	 3.5950
 2.7880	 3.4960
 2.7890	 3.5170
 2.7910	 3.5380
 2.7920	 3.5920
 2.7940	 3.5820
 2.7950	 3.5600
 2.7970	 3.5790
 2.7980	 3.5580
 2.8000	 3.4400
 2.8010	 3.5300
 2.8030	 3.4990
 2.8040	 3.5990
 2.8060	 3.5600
 2.8070	 3.6010
 2.8090	 3.5340
 2.8110	 3.6410
 2.8120	 3.6700
 2.8140	 3.5970
 2.8150	 3.5460
 2.8170	 3.4980
 2.8180	 3.5330
 2.8200	 3.5220
 2.8210	 3.3670
 2.8230	 3.4210
 2.8240	 3.4580
 2.8260	 3.5490
 2.8270	 3.2990
 2.8290	 3.3300
 2.8300	 3.5440
 2.8320	 3.6220
 2.8340	 3.5000
 2.8350	 3.6320
 2.8370	 3.6470
 2.8380	 3.5760
 2.8400	 3.5660
 2.8410	 3.6690
 2.8430	 3.5000
 2.8440	 3.5180
 2.8460	 3.5230
 2.8480	 3.5550
 2.8490	 3.4890
 2.8510	 3.4910
 2.8520	 3.3940
 2.8540	 3.4180
 2.8550	 3.4590
 2.8570	 3.5300
 2.8590	 3.5360
 2.8600	 3.5850
 2.8620	 3.4350
 2.8630	 3.4210
 2.8650	 3.3310
 2.8660	 3.3670
 2.8680	 3.3680
 2.8700	 3.4650
 2.8710	 3.5220
 2.8730	 3.6190
 2.8740	 3.6750
 2.8760	 3.8040
 2.8780	 3.7290
 2.8790	 3.6540
 2.8810	 3.3210
 2.8820	 3.3250
 2.8840	 3.5490
 2.8860	 3.5940
 2.8870	 3.4510
 2.8890	 3.3980
 2.8900	 3.5510
 2.8920	 3.6700
 2.8940	 3.6030
 2.8950	 3.4450
 2.8970	 3.4470
 2.8980	 3.5720
 2.9000	 3.5620
 2.9020	 3.5740
 2.9030	 3.5970
 2.9050	 3.6550
 2.9070	 3.4160
 2.9080	 3.5330
 2.9100	 3.5940
 2.9120	 3.6530
 2.9130	 3.5790
 2.9150	 3.5910
 2.9160	 3.5030
 2.9180	 3.4770
 2.9200	 3.3800
 2.9210	 3.4210
 2.9230	 3.4370
 2.9250	 3.5340
 2.9260	 3.5190
 2.9280	 3.6390
 2.9300	 3.6270
 2.9310	 3.7060
 2.9330	 3.5220
 2.9350	 3.5490
 2.9360	 3.7260
 2.9380	 3.8130
 2.9400	 3.7310
 2.9410	 3.7370
 2.9430	 3.6110
 2.9450	 3.8460
 2.9460	 4.0270
 2.9480	 3.8110
 2.9500	 3.6380
 2.9510	 3.8410
 2.9530	 3.9640
 2.9550	 3.7910
 2.9560	 3.4270
 2.9580	 3.4180
 2.9600	 3.2220
 2.9610	 3.3400
 2.9630	 3.3680
 2.9650	 3.8410
 2.9660	 3.8100
 2.9680	 4.1570
 2.9700	 4.1040
 2.9720	 3.9310
 2.9730	 3.5430
 2.9750	 3.3330
 2.9770	 2.8650
 2.9780	 3.0790
 2.9800	 3.6070
 2.9820	 3.7890
 2.9840	 3.6080
 2.9850	 3.5690
 2.9870	 3.5240
 2.9890	 3.7440
 2.9900	 3.8600
 2.9920	 3.1960
 2.9940	 2.8900
 2.9960	 2.4910
 2.9970	 2.7310
 2.9990	 2.5090
 3.0010	 2.9530
 3.0030	 3.1720
 3.0040	 3.1100
 3.0060	 3.5540
 3.0080	 3.5610
 3.0100	 3.4890
 3.0110	 3.8880
 3.0130	 3.5780
 3.0150	 3.8140
 3.0170	 5.1080
 3.0180	 4.7660
 3.0200	 3.6140
 3.0220	 3.6040
 3.0240	 3.7610
 3.0250	 3.5980
 3.0270	 3.5170
 3.0290	 3.9160
 3.0310	 3.9720
 3.0320	 3.9400
 3.0340	 3.8430
 3.0360	 3.5890
 3.0380	 3.9210
 3.0400	 3.9170
 3.0410	 3.7210
 3.0430	 2.8150
 3.0450	 2.3030
 3.0470	 3.6320
 3.0480	 3.8140
 3.0500	 3.5280
 3.0520	 3.6690
 3.0540	 3.0520
 3.0560	 1.9650
 3.0570	 1.8050
 3.0590	 2.8920
 3.0610	 2.2410
 3.0630	 1.6800
 3.0650	 3.3180
 3.0660	 4.9960
 3.0680	 4.5340
 3.0700	 3.5390
 3.0720	 3.3650
 3.0740	 3.1600
 3.0760	 3.2120
 3.0770	 3.5880
 3.0790	 3.4570
 3.0810	 3.3080
 3.0830	 3.3350
 3.0850	 3.4550
 3.0870	 3.4180
 3.0880	 3.4050
 3.0900	 3.4350
 3.0920	 3.7370
 3.0940	 3.6480
 3.0960	 3.4440
 3.0980	 3.4630
 3.0990	 3.5950
 3.1010	 3.6020
 3.1030	 3.3500
 3.1050	 3.1490
 3.1070	 3.4950
 3.1090	 3.5900
 3.1110	 3.5810
 3.1120	 3.6720
 3.1140	 3.6220
 3.1160	 3.5070
 3.1180	 3.3740
 3.1200	 3.2090
 3.1220	 3.3350
 3.1240	 3.4270
 3.1260	 3.4560
 3.1270	 3.6720
 3.1290	 3.7940
 3.1310	 3.3990
 3.1330	 3.0500
 3.1350	 3.2750
 3.1370	 2.9340
 3.1390	 3.1250
 3.1410	 3.5500
 3.1430	 3.3490
 3.1450	 3.2140
 3.1460	 3.0710
 3.1480	 3.1440
 3.1500	 2.4570
 3.1520	 3.2980
 3.1540	 4.0470
 3.1560	 3.7430
 3.1580	 3.7230
 3.1600	 4.0150
 3.1620	 3.6700
 3.1640	 3.1940
 3.1660	 3.0870
 3.1680	 2.9790
 3.1700	 2.7110
 3.1710	 3.0410
 3.1730	 3.0090
 3.1750	 2.3510
 3.1770	 2.7510
 3.1790	 4.1710
 3.1810	 3.6380
 3.1830	 3.0480
 3.1850	 3.1010
 3.1870	 3.4360
 3.1890	 3.5780
 3.1910	 3.7020
 3.1930	 3.6490
 3.1950	 3.5230
 3.1970	 3.2630
 3.1990	 3.3860
 3.2010	 3.5160
 3.2030	 3.5120
 3.2050	 3.4040
 3.2070	 3.2990
 3.2090	 3.2090
 3.2110	 3.4920
 3.2130	 3.5230
 3.2150	 3.5940
 3.2170	 3.4530
 3.2190	 3.5220
 3.2210	 3.4270
 3.2230	 3.4190
 3.2250	 3.3980
 3.2270	 3.4450
 3.2290	 3.4200
 3.2310	 3.2440
 3.2330	 3.1940
 3.2350	 3.4270
 3.2370	 3.3510
 3.2390	 3.2960
 3.2410	 3.2970
 3.2430	 3.5600
 3.2450	 3.6370
 3.2470	 3.4990
 3.2490	 3.2340
 3.2510	 3.0710
 3.2530	 3.2970
 3.2550	 3.4500
 3.2570	 3.2690
 3.2590	 3.3420
 3.2610	 3.5240
 3.2630	 3.5740
 3.2650	 3.3480
 3.2670	 3.3230
 3.2690	 3.2630
 3.2720	 3.3470
 3.2740	 3.3040
 3.2760	 3.4180
 3.2780	 3.2620
 3.2800	 3.1710
 3.2820	 3.3390
 3.2840	 3.4680
 3.2860	 3.3990
 3.2880	 3.4140
 3.2900	 3.4170
 3.2920	 3.5090
 3.2940	 3.4250
 3.2960	 3.3890
 3.2990	 3.4210
 3.3010	 3.5920
 3.3030	 3.5310
 3.3050	 3.1520
 3.3070	 3.1740
 3.3090	 3.3960
 3.3110	 3.1780
 3.3130	 3.3260
 3.3150	 3.5680
 3.3180	 3.5150
 3.3200	 3.1320
 3.3220	 2.9310
 3.3240	 3.0160
 3.3260	 3.2050
 3.3280	 3.2630
 3.3300	 3.2200
 3.3330	 3.0480
 3.3350	 3.0050
 3.3370	 3.0740
 3.3390	 3.1210
 3.3410	 3.1930
 3.3430	 3.2900
 3.3450	 3.0950
 3.3480	 3.0140
 3.3500	 2.9400
 3.3520	 2.9090
 3.3540	 2.9200
 3.3560	 2.9390
 3.3580	 2.9980
 3.3610	 3.0990
 3.3630	 2.9460
 3.3650	 2.9500
 3.3670	 2.8580
 3.3690	 2.7900
 3.3720	 2.8130
 3.3740	 2.9690
 3.3760	 2.8790
 3.3780	 2.7170
 3.3800	 2.6230
 3.3830	 2.7010
 3.3850	 2.7440
 3.3870	 2.6880
 3.3890	 2.5460
 3.3910	 2.5710
 3.3940	 2.4690
 3.3960	 2.6200
 3.3980	 2.6900
 3.4000	 2.6960
 3.4020	 2.6620
 3.4050	 2.7810
 3.4070	 2.7910
 3.4090	 2.9800
 3.4110	 3.1720
 3.4140	 3.3460
 3.4160	 3.5300
 3.4180	 3.9260
 3.4200	 4.3350
 3.4230	 4.8880
 3.4250	 5.5590
 3.4270	 6.1690
 3.4290	 6.4390
 3.4320	 6.3630
 3.4340	 5.9070
 3.4360	 5.5290
 3.4390	 5.1870
 3.4410	 4.9220
 3.4430	 4.7570
 3.4450	 4.7110
 3.4480	 4.6160
 3.4500	 4.5970
 3.4520	 4.3050
 3.4550	 4.3190
 3.4570	 4.2850
 3.4590	 4.2260
 3.4620	 4.2280
 3.4640	 4.2790
 3.4660	 4.1560
 3.4680	 3.9440
 3.4710	 3.9350
 3.4730	 4.0880
 3.4750	 4.0420
 3.4780	 3.9160
 3.4800	 3.7910
 3.4820	 3.7490
 3.4850	 3.6410
 3.4870	 3.6370
 3.4890	 3.5550
 3.4920	 3.5900
 3.4940	 3.6100
 3.4970	 3.5490
 3.4990	 3.4580
 3.5010	 3.5810
 3.5040	 3.8820
 3.5060	 4.5800
 3.5080	 5.4960
 3.5110	 6.3100
 3.5130	 6.4000
 3.5160	 6.0780
 3.5180	 5.6190
 3.5200	 5.2810
 3.5230	 5.0430
 3.5250	 4.8670
 3.5270	 4.6380
 3.5300	 4.5850
 3.5320	 4.5150
 3.5350	 4.5040
 3.5370	 4.3860
 3.5400	 4.3640
 3.5420	 4.3650
 3.5440	 4.4390
 3.5470	 4.4810
 3.5490	 4.4240
 3.5520	 4.3160
 3.5540	 4.4150
 3.5570	 4.4070
 3.5590	 4.2790
 3.5610	 4.1900
 3.5640	 4.1950
 3.5660	 4.0800
 3.5690	 3.9110
 3.5710	 3.9600
 3.5740	 4.1720
 3.5760	 4.1750
 3.5790	 4.1630
 3.5810	 4.2460
 3.5840	 4.4030
 3.5860	 4.2670
 3.5890	 4.1520
 3.5910	 4.0660
 3.5930	 3.9440
 3.5960	 3.9000
 3.5980	 4.1290
 3.6010	 4.1940
 3.6030	 4.0390
 3.6060	 4.0500
 3.6080	 4.1340
 3.6110	 4.0730
 3.6140	 4.0560
 3.6160	 4.0550
 3.6190	 4.1540
 3.6210	 4.1350
 3.6240	 4.0360
 3.6260	 3.9500
 3.6290	 4.1070
 3.6310	 4.1080
 3.6340	 4.0020
 3.6360	 4.0430
 3.6390	 4.1960
 3.6410	 4.1530
 3.6440	 4.0710
 3.6470	 4.0690
 3.6490	 4.1240
 3.6520	 4.1220
 3.6540	 4.1230
 3.6570	 4.1050
 3.6590	 4.1420
 3.6620	 4.0870
 3.6650	 4.0460
 3.6670	 4.0220
 3.6700	 4.0990
 3.6720	 4.1440
 3.6750	 4.1770
 3.6780	 4.1180
 3.6800	 4.0610
 3.6830	 4.0630
 3.6850	 4.1410
 3.6880	 4.1230
 3.6910	 4.1150
 3.6930	 4.1470
 3.6960	 4.2130
 3.6990	 4.1460
 3.7010	 4.1230
 3.7040	 4.0760
 3.7060	 4.1430
 3.7090	 4.2540
 3.7120	 4.2900
 3.7140	 4.1090
 3.7170	 4.0490
 3.7200	 4.0770
 3.7220	 4.1820
 3.7250	 4.1940
 3.7280	 4.1440
 3.7300	 4.0560
 3.7330	 4.0980
 3.7360	 4.1070
 3.7390	 4.0750
 3.7410	 4.1130
 3.7440	 4.1300
 3.7470	 4.0630
 3.7490	 4.1130
 3.7520	 4.2470
 3.7550	 4.3920
 3.7580	 4.4190
 3.7600	 4.3970
 3.7630	 4.3340
 3.7660	 4.2920
 3.7680	 4.3270
 3.7710	 4.4400
 3.7740	 4.3620
 3.7770	 4.2880
 3.7790	 4.2550
 3.7820	 4.2930
 3.7850	 4.4060
 3.7880	 4.5040
 3.7900	 4.4440
 3.7930	 4.4670
 3.7960	 4.4400
 3.7990	 4.4270
 3.8020	 4.3420
 3.8040	 4.3900
 3.8070	 4.4480
 3.8100	 4.4820
 3.8130	 4.4610
 3.8160	 4.4380
 3.8180	 4.3980
 3.8210	 4.4160
 3.8240	 4.4540
 3.8270	 4.5120
 3.8300	 4.4730
 3.8330	 4.5320
 3.8350	 4.5150
 3.8380	 4.4930
 3.8410	 4.4960
 3.8440	 4.5480
 3.8470	 4.5260
 3.8500	 4.5580
 3.8520	 4.6260
 3.8550	 4.6260
 3.8580	 4.5950
 3.8610	 4.5970
 3.8640	 4.6000
 3.8670	 4.5910
 3.8700	 4.5190
 3.8730	 4.5780
 3.8750	 4.5950
 3.8780	 4.6150
 3.8810	 4.5960
 3.8840	 4.5910
 3.8870	 4.5570
 3.8900	 4.5300
 3.8930	 4.5680
 3.8960	 4.6300
 3.8990	 4.5620
 3.9020	 4.5100
 3.9050	 4.5030
 3.9080	 4.5760
 3.9110	 4.5790
 3.9140	 4.6210
 3.9160	 4.5990
 3.9190	 4.6360
 3.9220	 4.6060
 3.9250	 4.5970
 3.9280	 4.5980
 3.9310	 4.6840
 3.9340	 4.6700
 3.9370	 4.6320
 3.9400	 4.6370
 3.9430	 4.6860
 3.9460	 4.6750
 3.9490	 4.6580
 3.9520	 4.6450
 3.9550	 4.6910
 3.9580	 4.6510
 3.9610	 4.6580
 3.9640	 4.6840
 3.9670	 4.7170
 3.9700	 4.6600
 3.9730	 4.6560
 3.9770	 4.6580
 3.9800	 4.6700
 3.9830	 4.6560
 3.9860	 4.6770
 3.9890	 4.6740
 3.9920	 4.6570
 3.9950	 4.6090
 3.9980	 4.6370
 4.0010	 4.5980
 4.0040	 4.6160
 4.0070	 4.6850
 4.0100	 4.7230
 4.0130	 4.6280
 4.0170	 4.6390
 4.0200	 4.6780
 4.0230	 4.6810
 4.0260	 4.6790
 4.0290	 4.6760
 4.0320	 4.6280
 4.0350	 4.6700
 4.0380	 4.6400
 4.0420	 4.6480
 4.0450	 4.6950
 4.0480	 4.7040
 4.0510	 4.6850
 4.0540	 4.7650
 4.0570	 4.7750
 4.0610	 4.7410
 4.0640	 4.6610
 4.0670	 4.5780
 4.0700	 4.6450
 4.0730	 4.7540
 4.0770	 4.7850
 4.0800	 4.7630
 4.0830	 4.6980
 4.0860	 4.7030
 4.0890	 4.6920
 4.0930	 4.6820
 4.0960	 4.6680
 4.0990	 4.7170
 4.1020	 4.7370
 4.1060	 4.7490
 4.1090	 4.7540
 4.1120	 4.7100
 4.1150	 4.6820
 4.1190	 4.6960
 4.1220	 4.6110
 4.1250	 4.5490
 4.1280	 4.6010
 4.1320	 4.6750
 4.1350	 4.6810
 4.1380	 4.6860
 4.1420	 4.7270
 4.1450	 4.7690
 4.1480	 4.6500
 4.1520	 4.6600
 4.1550	 4.6870
 4.1580	 4.6400
 4.1620	 4.5710
 4.1650	 4.6140
 4.1680	 4.6540
 4.1720	 4.6210
 4.1750	 4.5580
 4.1780	 4.5550
 4.1820	 4.5850
 4.1850	 4.5970
 4.1890	 4.5520
 4.1920	 4.6030
 4.1950	 4.6080
 4.1990	 4.5100
 4.2020	 4.4530
 4.2060	 4.5890
 4.2090	 4.6910
 4.2120	 4.6280
 4.2160	 4.6750
 4.2190	 4.7580
 4.2230	 4.5950
 4.2260	 4.5130
 4.2300	 4.6780
 4.2330	 5.0370
 4.2360	 4.9560
 4.2400	 4.7650
 4.2430	 4.7630
 4.2470	 4.8070
 4.2500	 4.8140
 4.2540	 4.7560
 4.2570	 4.6410
 4.2610	 4.6180
 4.2640	 4.5400
 4.2680	 4.2300
 4.2710	 4.1980
 4.2750	 4.3600
 4.2780	 4.4380
 4.2820	 4.4330
 4.2850	 4.4090
 4.2890	 4.4420
 4.2930	 4.5450
 4.2960	 4.4480
 4.3000	 4.2710
 4.3030	 4.2730
 4.3070	 4.2870
 4.3100	 4.2870
 4.3140	 4.2160
 4.3180	 4.2220
 4.3210	 4.3250
 4.3250	 4.3290
 4.3280	 4.2050
 4.3320	 4.1970
 4.3360	 4.2040
 4.3390	 4.3290
 4.3430	 4.2980
 4.3470	 4.2220
 4.3500	 4.1950
 4.3540	 4.1440
 4.3570	 4.1660
 4.3610	 4.2310
 4.3650	 4.1660
 4.3680	 4.1460
 4.3720	 4.1940
 4.3760	 4.2450
 4.3800	 4.1940
 4.3830	 4.1540
 4.3870	 4.1720
 4.3910	 4.1930
 4.3940	 4.0950
 4.3980	 4.0610
 4.4020	 4.1230
 4.4060	 4.1400
 4.4090	 4.0570
 4.4130	 4.0760
 4.4170	 4.1250
 4.4210	 4.1340
 4.4240	 4.0990
 4.4280	 4.0340
 4.4320	 4.0390
 4.4360	 3.9680
 4.4400	 3.9220
 4.4430	 4.0120
 4.4470	 4.0130
 4.4510	 3.9640
 4.4550	 3.9580
 4.4590	 3.9850
 4.4620	 3.9740
 4.4660	 4.0150
 4.4700	 4.0180
 4.4740	 4.0200
 4.4780	 4.0420
 4.4820	 4.0430
 4.4860	 4.0040
 4.4900	 3.9840
 4.4930	 3.9710
 4.4970	 3.9590
 4.5010	 3.9400
 4.5050	 3.9200
 4.5090	 3.9200
 4.5130	 3.9190
 4.5170	 3.9290
 4.5210	 3.8500
 4.5250	 3.7780
 4.5290	 3.8760
 4.5330	 3.9180
 4.5370	 3.9030
 4.5410	 3.8890
 4.5450	 3.8860
 4.5490	 3.8840
 4.5530	 3.9000
 4.5570	 3.8990
 4.5610	 3.9080
 4.5650	 3.9330
 4.5690	 3.9010
 4.5730	 3.8220
 4.5770	 3.8280
 4.5810	 3.8220
 4.5850	 3.8100
 4.5890	 3.8590
 4.5930	 3.9580
 4.5970	 3.8220
 4.6010	 3.7740
 4.6050	 3.8790
 4.6090	 4.0420
 4.6130	 3.9430
 4.6170	 3.9310
 4.6220	 3.9600
 4.6260	 3.6800
 4.6300	 3.6250
 4.6340	 3.7470
 4.6380	 3.7850
 4.6420	 3.7550
 4.6460	 3.7810
 4.6510	 3.8080
 4.6550	 3.7820
 4.6590	 3.7830
 4.6630	 3.8160
 4.6670	 3.8570
 4.6720	 3.8440
 4.6760	 3.7490
 4.6800	 3.7610
 4.6840	 3.7220
 4.6880	 3.6840
 4.6930	 3.6870
 4.6970	 3.7500
 4.7010	 3.7850
 4.7050	 3.7530
 4.7100	 3.7650
 4.7140	 3.7620
 4.7180	 3.7210
 4.7230	 3.7620
 4.7270	 3.7820
 4.7310	 3.7630
 4.7360	 3.7540
 4.7400	 3.7740
 4.7440	 3.7380
 4.7490	 3.7520
 4.7530	 3.8100
 4.7570	 3.8180
 4.7620	 3.7850
 4.7660	 3.7940
 4.7700	 3.7290
 4.7750	 3.7120
 4.7790	 3.7610
 4.7840	 3.7030
 4.7880	 3.7700
 4.7920	 3.9560
 4.7970	 3.8220
 4.8010	 3.7240
 4.8060	 3.7570
 4.8100	 3.7080
 4.8150	 3.7730
 4.8190	 3.7840
 4.8240	 3.7330
 4.8280	 3.6700
 4.8330	 3.6460
 4.8370	 3.7050
 4.8420	 3.7960
 4.8460	 3.8450
 4.8510	 3.8160
 4.8550	 3.8300
 4.8600	 3.8310
 4.8640	 3.8040
 4.8690	 3.8320
 4.8730	 3.8700
 4.8780	 3.8180
 4.8830	 3.7930
 4.8870	 3.8430
 4.8920	 3.8250
 4.8960	 3.8180
 4.9010	 3.8630
 4.9060	 3.8730
 4.9100	 3.8510
 4.9150	 3.8210
 4.9200	 3.8090
 4.9240	 3.8530
 4.9290	 3.9120
 4.9340	 3.9290
 4.9380	 3.9000
 4.9430	 3.8890
 4.9480	 3.9120
 4.9530	 3.8850
 4.9570	 3.9020
 4.9620	 3.8880
 4.9670	 3.8930
 4.9720	 3.9040
 4.9760	 3.9090
 4.9810	 3.8870
 4.9860	 3.8970
 4.9910	 3.8870
 4.9960	 3.9010
 5.0000	 3.9080
 5.0050	 3.9480
 5.0100	 3.9560
 5.0150	 3.9520
 5.0200	 3.9900
 5.0250	 3.9770
 5.0290	 3.8980
 5.0340	 3.9510
 5.0390	 4.0000
 5.0440	 3.9970
 5.0490	 4.0040
 5.0540	 4.0670
 5.0590	 4.0570
 5.0640	 4.0420
 5.0690	 3.9820
 5.0740	 3.9970
 5.0790	 3.9960
 5.0840	 4.0560
 5.0890	 4.0460
 5.0940	 3.9920
 5.0990	 4.0330
 5.1040	 4.0550
 5.1090	 4.0410
 5.1140	 4.0120
 5.1190	 3.9760
 5.1240	 4.0390
 5.1290	 4.0900
 5.1340	 4.0910
 5.1390	 4.0630
 5.1440	 4.0960
 5.1490	 4.1000
 5.1540	 4.1320
 5.1600	 4.1450
 5.1650	 4.0880
 5.1700	 4.0750
 5.1750	 4.1410
 5.1800	 4.1510
 5.1850	 4.1460
 5.1910	 4.1520
 5.1960	 4.1120
 5.2010	 4.0720
 5.2060	 4.1350
 5.2110	 4.1400
 5.2170	 4.1150
 5.2220	 4.0830
 5.2270	 4.0650
 5.2320	 4.0700
 5.2380	 4.0900
 5.2430	 4.0290
 5.2480	 4.0390
 5.2540	 4.0500
 5.2590	 4.0650
 5.2640	 4.1310
 5.2700	 4.1590
 5.2750	 4.0740
 5.2800	 4.0760
 5.2860	 4.0970
 5.2910	 4.1170
 5.2970	 4.1020
 5.3020	 4.1210
 5.3070	 4.1120
 5.3130	 4.0600
 5.3180	 4.0180
 5.3240	 4.1030
 5.3290	 4.1390
 5.3350	 4.1390
 5.3400	 4.0550
 5.3460	 4.0280
 5.3510	 4.0310
 5.3570	 4.0570
 5.3620	 4.0550
 5.3680	 4.0550
 5.3730	 4.0500
 5.3790	 4.1000
 5.3850	 4.0400
 5.3900	 3.9880
 5.3960	 3.9880
 5.4010	 4.0150
 5.4070	 3.9780
 5.4130	 3.9950
 5.4180	 3.9890
 5.4240	 3.9520
 5.4300	 3.9220
 5.4350	 3.9630
