Name: Aloe arborescens flower
Type: vegetation
Class: Shrub
Genus: Aloe
Species: arborescens_flower
Sample No.: JPL073
Owner: JPL
Wavelength Range: TIR
Origin: 34.12593; - 118.10983; WGS84
Collection Date: 2/2/2016
Description: Samples were collected at the Huntington Garden in San Marino California as part of a JPL Subcontract studying HyTES imagery. Samples were taken to JPL and processed within 48 hours of collection. The same leaves were processed in the Nicolet and then measured using the ASD.
Measurement: Hemispherical reflectance
First Column: X
Second Column: Y
X Units: Wavelength (micrometer)
Y Units: Reflectance (percentage)
First X Value: 2.501
Last X Value: 15.387
Number of X Values: 1737
Additional Information: 

 2.5010	 2.0750
 2.5030	 2.0660
 2.5040	 1.9320
 2.5050	 1.9190
 2.5060	 1.9250
 2.5070	 1.8900
 2.5090	 1.9680
 2.5100	 1.9760
 2.5110	 2.0330
 2.5120	 2.0150
 2.5140	 2.0010
 2.5150	 1.9400
 2.5160	 1.9190
 2.5170	 1.8990
 2.5180	 1.8980
 2.5200	 1.8590
 2.5210	 1.8710
 2.5220	 1.9060
 2.5230	 1.9310
 2.5250	 1.8960
 2.5260	 1.9370
 2.5270	 1.9330
 2.5280	 1.9730
 2.5300	 2.0180
 2.5310	 2.0510
 2.5320	 1.9820
 2.5330	 1.9260
 2.5340	 1.9070
 2.5360	 1.9510
 2.5370	 1.9410
 2.5380	 1.9790
 2.5390	 1.9750
 2.5410	 1.9730
 2.5420	 1.9560
 2.5430	 1.9510
 2.5440	 1.9450
 2.5460	 2.0240
 2.5470	 2.0140
 2.5480	 1.9460
 2.5490	 1.8600
 2.5510	 1.9310
 2.5520	 1.9590
 2.5530	 1.9120
 2.5540	 1.9170
 2.5560	 1.9310
 2.5570	 1.8730
 2.5580	 1.9390
 2.5590	 1.9450
 2.5610	 1.9410
 2.5620	 1.9460
 2.5630	 1.9730
 2.5650	 1.9880
 2.5660	 2.0130
 2.5670	 2.0120
 2.5680	 2.0010
 2.5700	 1.8910
 2.5710	 1.9460
 2.5720	 2.0150
 2.5730	 1.9780
 2.5750	 1.9520
 2.5760	 1.9560
 2.5770	 1.9030
 2.5790	 1.9140
 2.5800	 1.8950
 2.5810	 1.9340
 2.5820	 1.9430
 2.5840	 1.9980
 2.5850	 1.9970
 2.5860	 1.9320
 2.5880	 1.8840
 2.5890	 1.9370
 2.5900	 1.9840
 2.5910	 2.0190
 2.5930	 1.9950
 2.5940	 1.9700
 2.5950	 1.9410
 2.5970	 1.9800
 2.5980	 1.9690
 2.5990	 2.0310
 2.6010	 2.0570
 2.6020	 2.0360
 2.6030	 1.9740
 2.6040	 1.9440
 2.6060	 1.9320
 2.6070	 1.9170
 2.6080	 1.8910
 2.6100	 1.8850
 2.6110	 1.8730
 2.6120	 1.9020
 2.6140	 1.8440
 2.6150	 1.8610
 2.6160	 1.8810
 2.6180	 1.9370
 2.6190	 1.9300
 2.6200	 1.9370
 2.6220	 1.9220
 2.6230	 1.9280
 2.6240	 1.8890
 2.6260	 1.9020
 2.6270	 1.8770
 2.6280	 1.9260
 2.6300	 1.9380
 2.6310	 1.8980
 2.6320	 1.8680
 2.6340	 1.9540
 2.6350	 1.9160
 2.6360	 1.9200
 2.6380	 1.8960
 2.6390	 1.8760
 2.6400	 1.8770
 2.6420	 1.8350
 2.6430	 1.7700
 2.6440	 1.8280
 2.6460	 1.8460
 2.6470	 1.8570
 2.6480	 1.8250
 2.6500	 1.8540
 2.6510	 1.8890
 2.6520	 1.9170
 2.6540	 1.8700
 2.6550	 1.8400
 2.6570	 1.8230
 2.6580	 1.8350
 2.6590	 1.8680
 2.6610	 1.8630
 2.6620	 1.8050
 2.6630	 1.8160
 2.6650	 1.8080
 2.6660	 1.7920
 2.6670	 1.7430
 2.6690	 1.7370
 2.6700	 1.7490
 2.6720	 1.7780
 2.6730	 1.8430
 2.6740	 1.8870
 2.6760	 1.8450
 2.6770	 1.8530
 2.6780	 1.8080
 2.6800	 1.8220
 2.6810	 1.8260
 2.6830	 1.8040
 2.6840	 1.7790
 2.6850	 1.7950
 2.6870	 1.8230
 2.6880	 1.8150
 2.6900	 1.7970
 2.6910	 1.8420
 2.6920	 1.7670
 2.6940	 1.7450
 2.6950	 1.7670
 2.6970	 1.8090
 2.6980	 1.8610
 2.6990	 1.8820
 2.7010	 1.7790
 2.7020	 1.8020
 2.7040	 1.7870
 2.7050	 1.8110
 2.7060	 1.8270
 2.7080	 1.8040
 2.7090	 1.7660
 2.7110	 1.8140
 2.7120	 1.8000
 2.7130	 1.7660
 2.7150	 1.7070
 2.7160	 1.7180
 2.7180	 1.7740
 2.7190	 1.7960
 2.7210	 1.7700
 2.7220	 1.8390
 2.7230	 1.9330
 2.7250	 1.8900
 2.7260	 1.8000
 2.7280	 1.8590
 2.7290	 1.8330
 2.7310	 1.8590
 2.7320	 1.8530
 2.7340	 1.8850
 2.7350	 1.8450
 2.7360	 1.8340
 2.7380	 1.8250
 2.7390	 1.8610
 2.7410	 1.8370
 2.7420	 1.8310
 2.7440	 1.7990
 2.7450	 1.7650
 2.7470	 1.7600
 2.7480	 1.7990
 2.7490	 1.7770
 2.7510	 1.7960
 2.7520	 1.7520
 2.7540	 1.8130
 2.7550	 1.8350
 2.7570	 1.8140
 2.7580	 1.8160
 2.7600	 1.8440
 2.7610	 1.8530
 2.7630	 1.9480
 2.7640	 2.0000
 2.7660	 1.9570
 2.7670	 1.8810
 2.7690	 1.9210
 2.7700	 1.8830
 2.7720	 1.9280
 2.7730	 1.9080
 2.7740	 1.8600
 2.7760	 1.9060
 2.7770	 1.9560
 2.7790	 1.9140
 2.7800	 1.9330
 2.7820	 1.9080
 2.7830	 1.8710
 2.7850	 1.8680
 2.7860	 1.9620
 2.7880	 1.9870
 2.7890	 1.9790
 2.7910	 1.9510
 2.7920	 2.0230
 2.7940	 1.9640
 2.7950	 1.9480
 2.7970	 1.9930
 2.7980	 2.0150
 2.8000	 1.9700
 2.8010	 2.0070
 2.8030	 2.0170
 2.8040	 2.0230
 2.8060	 1.9910
 2.8080	 2.0080
 2.8090	 2.0550
 2.8110	 2.0750
 2.8120	 2.0280
 2.8140	 2.0100
 2.8150	 2.0110
 2.8170	 2.0950
 2.8180	 2.0880
 2.8200	 2.0750
 2.8210	 2.0850
 2.8230	 2.1130
 2.8240	 2.0480
 2.8260	 2.0420
 2.8270	 2.0970
 2.8290	 2.1780
 2.8310	 2.0730
 2.8320	 2.0090
 2.8340	 2.0370
 2.8350	 2.1000
 2.8370	 2.0550
 2.8380	 2.0700
 2.8400	 2.0760
 2.8410	 2.0570
 2.8430	 1.9800
 2.8440	 2.0550
 2.8460	 2.0880
 2.8480	 2.0600
 2.8490	 2.0750
 2.8510	 2.1610
 2.8520	 2.1530
 2.8540	 2.1260
 2.8550	 2.0670
 2.8570	 2.1610
 2.8590	 2.1590
 2.8600	 2.1090
 2.8620	 2.1150
 2.8630	 2.1360
 2.8650	 2.1450
 2.8660	 2.2060
 2.8680	 2.1840
 2.8700	 2.2080
 2.8710	 2.2090
 2.8730	 2.2150
 2.8740	 2.1930
 2.8760	 2.1930
 2.8780	 2.1860
 2.8790	 2.2240
 2.8810	 2.2090
 2.8820	 2.2380
 2.8840	 2.2140
 2.8860	 2.2500
 2.8870	 2.2500
 2.8890	 2.2570
 2.8900	 2.2390
 2.8920	 2.2850
 2.8940	 2.1760
 2.8950	 2.1080
 2.8970	 2.0880
 2.8990	 2.2260
 2.9000	 2.2880
 2.9020	 2.3100
 2.9030	 2.2310
 2.9050	 2.2020
 2.9070	 2.1290
 2.9080	 2.1060
 2.9100	 2.1080
 2.9120	 2.2450
 2.9130	 2.2660
 2.9150	 2.2180
 2.9160	 2.1980
 2.9180	 2.2360
 2.9200	 2.1850
 2.9210	 2.1470
 2.9230	 2.1840
 2.9250	 2.2260
 2.9260	 2.2210
 2.9280	 2.2320
 2.9300	 2.2310
 2.9310	 2.2830
 2.9330	 2.2520
 2.9350	 2.2710
 2.9360	 2.2870
 2.9380	 2.3230
 2.9400	 2.2710
 2.9410	 2.2680
 2.9430	 2.1710
 2.9450	 2.1860
 2.9460	 2.2510
 2.9480	 2.2440
 2.9500	 2.2140
 2.9510	 2.2030
 2.9530	 2.2000
 2.9550	 2.1970
 2.9560	 2.1730
 2.9580	 2.1920
 2.9600	 2.1700
 2.9610	 2.1780
 2.9630	 2.1730
 2.9650	 2.1840
 2.9670	 2.1510
 2.9680	 2.1870
 2.9700	 2.2150
 2.9720	 2.2070
 2.9730	 2.1460
 2.9750	 2.2010
 2.9770	 2.2380
 2.9780	 2.3020
 2.9800	 2.2330
 2.9820	 2.2370
 2.9840	 2.2460
 2.9850	 2.2480
 2.9870	 2.1790
 2.9890	 2.2150
 2.9900	 2.2630
 2.9920	 2.3180
 2.9940	 2.2320
 2.9960	 2.1500
 2.9970	 2.0790
 2.9990	 2.0630
 3.0010	 2.1160
 3.0030	 2.1800
 3.0040	 2.1690
 3.0060	 2.1760
 3.0080	 2.1200
 3.0100	 2.0840
 3.0110	 2.0500
 3.0130	 2.1400
 3.0150	 2.1850
 3.0170	 2.1830
 3.0180	 2.0570
 3.0200	 2.0610
 3.0220	 2.0800
 3.0240	 2.0590
 3.0250	 2.0610
 3.0270	 2.0910
 3.0290	 2.0620
 3.0310	 2.0950
 3.0320	 2.0120
 3.0340	 2.0250
 3.0360	 2.0780
 3.0380	 2.1160
 3.0400	 2.1210
 3.0410	 2.1010
 3.0430	 2.0620
 3.0450	 2.0850
 3.0470	 2.0450
 3.0480	 2.0380
 3.0500	 2.0390
 3.0520	 1.9960
 3.0540	 1.9880
 3.0560	 2.0760
 3.0570	 2.0380
 3.0590	 2.0140
 3.0610	 2.0050
 3.0630	 2.0140
 3.0650	 2.0500
 3.0670	 2.0500
 3.0680	 1.9730
 3.0700	 1.9760
 3.0720	 1.9920
 3.0740	 1.9820
 3.0760	 1.9740
 3.0770	 2.0180
 3.0790	 2.0410
 3.0810	 2.0410
 3.0830	 1.9710
 3.0850	 2.0260
 3.0870	 2.0450
 3.0880	 2.0850
 3.0900	 2.0610
 3.0920	 2.0110
 3.0940	 1.9780
 3.0960	 2.0060
 3.0980	 1.9550
 3.1000	 1.9780
 3.1010	 1.9940
 3.1030	 1.9680
 3.1050	 1.9240
 3.1070	 1.9660
 3.1090	 1.9530
 3.1110	 1.9540
 3.1130	 1.9470
 3.1140	 1.9520
 3.1160	 1.9060
 3.1180	 1.8890
 3.1200	 1.8800
 3.1220	 1.9250
 3.1240	 1.9310
 3.1260	 1.9250
 3.1280	 1.9010
 3.1290	 1.9480
 3.1310	 1.9210
 3.1330	 1.9220
 3.1350	 1.8710
 3.1370	 1.9040
 3.1390	 1.9300
 3.1410	 1.9460
 3.1430	 1.9450
 3.1450	 1.9070
 3.1470	 1.9070
 3.1480	 1.9410
 3.1500	 1.9040
 3.1520	 1.8820
 3.1540	 1.8070
 3.1560	 1.7500
 3.1580	 1.7660
 3.1600	 1.8270
 3.1620	 1.7990
 3.1640	 1.8200
 3.1660	 1.8230
 3.1680	 1.8090
 3.1700	 1.8080
 3.1720	 1.8550
 3.1730	 1.8320
 3.1750	 1.8580
 3.1770	 1.8000
 3.1790	 1.7100
 3.1810	 1.7040
 3.1830	 1.7870
 3.1850	 1.8090
 3.1870	 1.8240
 3.1890	 1.8330
 3.1910	 1.8500
 3.1930	 1.8060
 3.1950	 1.8120
 3.1970	 1.7920
 3.1990	 1.7970
 3.2010	 1.7910
 3.2030	 1.7720
 3.2050	 1.7270
 3.2070	 1.7710
 3.2090	 1.7470
 3.2110	 1.7270
 3.2130	 1.7090
 3.2150	 1.7830
 3.2170	 1.8060
 3.2190	 1.7730
 3.2210	 1.7080
 3.2230	 1.7220
 3.2250	 1.7170
 3.2270	 1.6980
 3.2290	 1.6570
 3.2310	 1.6760
 3.2330	 1.7050
 3.2350	 1.7350
 3.2370	 1.6880
 3.2390	 1.7080
 3.2410	 1.7170
 3.2430	 1.6980
 3.2450	 1.6670
 3.2470	 1.6840
 3.2490	 1.6900
 3.2510	 1.7070
 3.2530	 1.6880
 3.2550	 1.6900
 3.2570	 1.6780
 3.2590	 1.6960
 3.2610	 1.7040
 3.2630	 1.7250
 3.2650	 1.6680
 3.2670	 1.6090
 3.2700	 1.6230
 3.2720	 1.6840
 3.2740	 1.6570
 3.2760	 1.6670
 3.2780	 1.6650
 3.2800	 1.6660
 3.2820	 1.6360
 3.2840	 1.6510
 3.2860	 1.6660
 3.2880	 1.6630
 3.2900	 1.6250
 3.2920	 1.6130
 3.2940	 1.5880
 3.2970	 1.6200
 3.2990	 1.6500
 3.3010	 1.6430
 3.3030	 1.6000
 3.3050	 1.6160
 3.3070	 1.5950
 3.3090	 1.5900
 3.3110	 1.5940
 3.3130	 1.6330
 3.3160	 1.6190
 3.3180	 1.5410
 3.3200	 1.5380
 3.3220	 1.5850
 3.3240	 1.5260
 3.3260	 1.5170
 3.3280	 1.5230
 3.3300	 1.5400
 3.3330	 1.5860
 3.3350	 1.6120
 3.3370	 1.5180
 3.3390	 1.5300
 3.3410	 1.5480
 3.3430	 1.5280
 3.3450	 1.4960
 3.3480	 1.5360
 3.3500	 1.5340
 3.3520	 1.5340
 3.3540	 1.4810
 3.3560	 1.4450
 3.3580	 1.4020
 3.3610	 1.4160
 3.3630	 1.4250
 3.3650	 1.4450
 3.3670	 1.4050
 3.3690	 1.3650
 3.3720	 1.3580
 3.3740	 1.4250
 3.3760	 1.3750
 3.3780	 1.3420
 3.3800	 1.3900
 3.3830	 1.4140
 3.3850	 1.3980
 3.3870	 1.4210
 3.3890	 1.4020
 3.3910	 1.3650
 3.3940	 1.3200
 3.3960	 1.3170
 3.3980	 1.2780
 3.4000	 1.2870
 3.4030	 1.2990
 3.4050	 1.3100
 3.4070	 1.3530
 3.4090	 1.4430
 3.4110	 1.5280
 3.4140	 1.6870
 3.4160	 1.8800
 3.4180	 2.1320
 3.4200	 2.3940
 3.4230	 2.7870
 3.4250	 3.2800
 3.4270	 3.7640
 3.4300	 3.9300
 3.4320	 3.7360
 3.4340	 3.3000
 3.4360	 2.9020
 3.4390	 2.6370
 3.4410	 2.4910
 3.4430	 2.3960
 3.4450	 2.3300
 3.4480	 2.2470
 3.4500	 2.2460
 3.4520	 2.2780
 3.4550	 2.2690
 3.4570	 2.2140
 3.4590	 2.2210
 3.4620	 2.1900
 3.4640	 2.1380
 3.4660	 2.0590
 3.4690	 2.0540
 3.4710	 2.0630
 3.4730	 2.0660
 3.4760	 2.0090
 3.4780	 1.9600
 3.4800	 1.8790
 3.4830	 1.8430
 3.4850	 1.8270
 3.4870	 1.7800
 3.4900	 1.7250
 3.4920	 1.7150
 3.4940	 1.7000
 3.4970	 1.6960
 3.4990	 1.7300
 3.5010	 1.8140
 3.5040	 1.9920
 3.5060	 2.4370
 3.5080	 3.1050
 3.5110	 3.5580
 3.5130	 3.4340
 3.5160	 3.1060
 3.5180	 2.8140
 3.5200	 2.6190
 3.5230	 2.5020
 3.5250	 2.4180
 3.5280	 2.3450
 3.5300	 2.3140
 3.5320	 2.3100
 3.5350	 2.2680
 3.5370	 2.1800
 3.5400	 2.1700
 3.5420	 2.1410
 3.5440	 2.1330
 3.5470	 2.0950
 3.5490	 2.0880
 3.5520	 2.0910
 3.5540	 2.0910
 3.5570	 2.1080
 3.5590	 2.1200
 3.5610	 2.0630
 3.5640	 2.0530
 3.5660	 2.0310
 3.5690	 1.9980
 3.5710	 2.0050
 3.5740	 2.0230
 3.5760	 2.0010
 3.5790	 2.0190
 3.5810	 2.0250
 3.5840	 2.0210
 3.5860	 1.9970
 3.5890	 1.9680
 3.5910	 1.9570
 3.5940	 1.9890
 3.5960	 1.9770
 3.5990	 1.9620
 3.6010	 1.9990
 3.6040	 1.9980
 3.6060	 1.9660
 3.6090	 1.9740
 3.6110	 1.9780
 3.6140	 1.9970
 3.6160	 1.9570
 3.6190	 1.9650
 3.6210	 1.9930
 3.6240	 2.0090
 3.6260	 1.9800
 3.6290	 1.9710
 3.6310	 1.9700
 3.6340	 1.9560
 3.6360	 1.8920
 3.6390	 1.9130
 3.6410	 1.9970
 3.6440	 2.0430
 3.6470	 2.0040
 3.6490	 1.9800
 3.6520	 1.9690
 3.6540	 1.9640
 3.6570	 1.9490
 3.6590	 1.9700
 3.6620	 1.9870
 3.6650	 1.9840
 3.6670	 1.9530
 3.6700	 1.9600
 3.6720	 1.9580
 3.6750	 1.9740
 3.6780	 1.9900
 3.6800	 2.0040
 3.6830	 1.9680
 3.6850	 1.9610
 3.6880	 1.9590
 3.6910	 1.9490
 3.6930	 1.9220
 3.6960	 1.9560
 3.6990	 2.0100
 3.7010	 2.0480
 3.7040	 2.0240
 3.7070	 1.9980
 3.7090	 1.9680
 3.7120	 1.9650
 3.7150	 1.9490
 3.7170	 1.9690
 3.7200	 1.9560
 3.7230	 1.9500
 3.7250	 1.9310
 3.7280	 1.9470
 3.7310	 1.9620
 3.7330	 1.9740
 3.7360	 1.9440
 3.7390	 1.9510
 3.7410	 2.0060
 3.7440	 2.0460
 3.7470	 2.0250
 3.7490	 2.0230
 3.7520	 1.9880
 3.7550	 1.9710
 3.7580	 1.9590
 3.7600	 1.9650
 3.7630	 1.9760
 3.7660	 2.0150
 3.7690	 2.0370
 3.7710	 2.0370
 3.7740	 2.0160
 3.7770	 2.0350
 3.7790	 2.0120
 3.7820	 1.9980
 3.7850	 1.9710
 3.7880	 2.0020
 3.7910	 2.0090
 3.7930	 2.0010
 3.7960	 1.9790
 3.7990	 1.9490
 3.8020	 1.9630
 3.8040	 2.0120
 3.8070	 2.0270
 3.8100	 2.0190
 3.8130	 1.9970
 3.8160	 2.0040
 3.8180	 1.9980
 3.8210	 1.9780
 3.8240	 1.9690
 3.8270	 1.9790
 3.8300	 1.9620
 3.8330	 1.9930
 3.8350	 2.0010
 3.8380	 1.9860
 3.8410	 1.9940
 3.8440	 2.0080
 3.8470	 1.9990
 3.8500	 2.0080
 3.8520	 2.0020
 3.8550	 2.0040
 3.8580	 1.9800
 3.8610	 1.9770
 3.8640	 1.9670
 3.8670	 1.9970
 3.8700	 2.0140
 3.8730	 2.0370
 3.8760	 2.0250
 3.8780	 2.0060
 3.8810	 1.9980
 3.8840	 2.0190
 3.8870	 2.0340
 3.8900	 2.0290
 3.8930	 2.0270
 3.8960	 2.0120
 3.8990	 1.9900
 3.9020	 2.0020
 3.9050	 1.9940
 3.9080	 1.9880
 3.9110	 2.0050
 3.9140	 1.9980
 3.9170	 1.9470
 3.9190	 1.9500
 3.9220	 1.9890
 3.9250	 1.9980
 3.9280	 1.9660
 3.9310	 1.9440
 3.9340	 1.9530
 3.9370	 1.9780
 3.9400	 1.9980
 3.9430	 1.9870
 3.9460	 1.9660
 3.9490	 1.9760
 3.9520	 1.9820
 3.9550	 1.9750
 3.9580	 1.9500
 3.9610	 1.9610
 3.9640	 1.9680
 3.9670	 1.9600
 3.9700	 1.9760
 3.9740	 1.9900
 3.9770	 1.9950
 3.9800	 2.0010
 3.9830	 1.9780
 3.9860	 1.9640
 3.9890	 1.9610
 3.9920	 1.9670
 3.9950	 1.9900
 3.9980	 1.9860
 4.0010	 1.9440
 4.0040	 1.9520
 4.0070	 1.9580
 4.0100	 1.9720
 4.0140	 1.9600
 4.0170	 1.9350
 4.0200	 1.9420
 4.0230	 1.9490
 4.0260	 1.9190
 4.0290	 1.9280
 4.0320	 1.9330
 4.0350	 1.9570
 4.0390	 1.9730
 4.0420	 1.9630
 4.0450	 1.9520
 4.0480	 1.9510
 4.0510	 1.9580
 4.0540	 1.9720
 4.0570	 1.9330
 4.0610	 1.8990
 4.0640	 1.9260
 4.0670	 1.9540
 4.0700	 1.9560
 4.0730	 1.9620
 4.0770	 1.9530
 4.0800	 1.9460
 4.0830	 1.9120
 4.0860	 1.9240
 4.0890	 1.9260
 4.0930	 1.9010
 4.0960	 1.8950
 4.0990	 1.9290
 4.1020	 1.9310
 4.1060	 1.9370
 4.1090	 1.9800
 4.1120	 1.9720
 4.1150	 1.9380
 4.1190	 1.9180
 4.1220	 1.9330
 4.1250	 1.9460
 4.1290	 1.9510
 4.1320	 1.9560
 4.1350	 1.9500
 4.1380	 1.9460
 4.1420	 1.9400
 4.1450	 1.9190
 4.1480	 1.9130
 4.1520	 1.9300
 4.1550	 1.9380
 4.1580	 1.9560
 4.1620	 1.9640
 4.1650	 1.9540
 4.1680	 1.9330
 4.1720	 1.9570
 4.1750	 1.9390
 4.1780	 1.9140
 4.1820	 1.9350
 4.1850	 1.9690
 4.1890	 1.9630
 4.1920	 1.9550
 4.1950	 1.9270
 4.1990	 1.9050
 4.2020	 1.9130
 4.2060	 1.8840
 4.2090	 1.8950
 4.2120	 1.9640
 4.2160	 2.0280
 4.2190	 2.0790
 4.2230	 2.0980
 4.2260	 2.0490
 4.2300	 2.0500
 4.2330	 2.0740
 4.2360	 2.0000
 4.2400	 1.9970
 4.2430	 1.9780
 4.2470	 1.9180
 4.2500	 1.8920
 4.2540	 1.8970
 4.2570	 1.9450
 4.2610	 1.9640
 4.2640	 2.0090
 4.2680	 1.9940
 4.2710	 1.9410
 4.2750	 1.9610
 4.2780	 1.9780
 4.2820	 1.9860
 4.2850	 1.9520
 4.2890	 1.9720
 4.2930	 2.0100
 4.2960	 2.0020
 4.3000	 2.0180
 4.3030	 1.9860
 4.3070	 1.9540
 4.3100	 1.9320
 4.3140	 1.9570
 4.3180	 1.9370
 4.3210	 1.9510
 4.3250	 1.9870
 4.3280	 1.9880
 4.3320	 1.9830
 4.3360	 1.9660
 4.3390	 1.9430
 4.3430	 1.9200
 4.3470	 1.9060
 4.3500	 1.8870
 4.3540	 1.8900
 4.3580	 1.9190
 4.3610	 1.9110
 4.3650	 1.9130
 4.3690	 1.9110
 4.3720	 1.9040
 4.3760	 1.9100
 4.3800	 1.9160
 4.3830	 1.9130
 4.3870	 1.9090
 4.3910	 1.8940
 4.3940	 1.9160
 4.3980	 1.9280
 4.4020	 1.9400
 4.4060	 1.9300
 4.4090	 1.9130
 4.4130	 1.8870
 4.4170	 1.9040
 4.4210	 1.8970
 4.4240	 1.9120
 4.4280	 1.9230
 4.4320	 1.8940
 4.4360	 1.8860
 4.4400	 1.9130
 4.4430	 1.9210
 4.4470	 1.9250
 4.4510	 1.9030
 4.4550	 1.8910
 4.4590	 1.8970
 4.4630	 1.8980
 4.4660	 1.8910
 4.4700	 1.8770
 4.4740	 1.9170
 4.4780	 1.9660
 4.4820	 1.9480
 4.4860	 1.9510
 4.4900	 1.9380
 4.4930	 1.9450
 4.4970	 1.9410
 4.5010	 1.8970
 4.5050	 1.8780
 4.5090	 1.9220
 4.5130	 1.9230
 4.5170	 1.9400
 4.5210	 1.9310
 4.5250	 1.9190
 4.5290	 1.9130
 4.5330	 1.9150
 4.5370	 1.9010
 4.5410	 1.9250
 4.5450	 1.9200
 4.5490	 1.9160
 4.5530	 1.8750
 4.5570	 1.8850
 4.5610	 1.9340
 4.5650	 1.9230
 4.5690	 1.8770
 4.5730	 1.8690
 4.5770	 1.8820
 4.5810	 1.9250
 4.5850	 1.9340
 4.5890	 1.9120
 4.5930	 1.9030
 4.5970	 1.9080
 4.6010	 1.9310
 4.6050	 1.9310
 4.6090	 1.9040
 4.6130	 1.9010
 4.6170	 1.8990
 4.6220	 1.8990
 4.6260	 1.9130
 4.6300	 1.9280
 4.6340	 1.8740
 4.6380	 1.8540
 4.6420	 1.8650
 4.6460	 1.8870
 4.6510	 1.9140
 4.6550	 1.9350
 4.6590	 1.9080
 4.6630	 1.9090
 4.6670	 1.9120
 4.6720	 1.9030
 4.6760	 1.8850
 4.6800	 1.8790
 4.6840	 1.8740
 4.6880	 1.8770
 4.6930	 1.8860
 4.6970	 1.9170
 4.7010	 1.8770
 4.7050	 1.8990
 4.7100	 1.8920
 4.7140	 1.8840
 4.7180	 1.8970
 4.7230	 1.9030
 4.7270	 1.8920
 4.7310	 1.9360
 4.7360	 1.9380
 4.7400	 1.9120
 4.7440	 1.8860
 4.7490	 1.9160
 4.7530	 1.8970
 4.7570	 1.8970
 4.7620	 1.9310
 4.7660	 1.9120
 4.7700	 1.8880
 4.7750	 1.9110
 4.7790	 1.9180
 4.7840	 1.9320
 4.7880	 1.8790
 4.7920	 1.8760
 4.7970	 1.8900
 4.8010	 1.9010
 4.8060	 1.9130
 4.8100	 1.9260
 4.8150	 1.9100
 4.8190	 1.9130
 4.8240	 1.9150
 4.8280	 1.9100
 4.8330	 1.9070
 4.8370	 1.9300
 4.8420	 1.9340
 4.8460	 1.9310
 4.8510	 1.9150
 4.8550	 1.9190
 4.8600	 1.8790
 4.8640	 1.9000
 4.8690	 1.9120
 4.8740	 1.9070
 4.8780	 1.8930
 4.8830	 1.9060
 4.8870	 1.8980
 4.8920	 1.8770
 4.8970	 1.8930
 4.9010	 1.9160
 4.9060	 1.8800
 4.9100	 1.8860
 4.9150	 1.9120
 4.9200	 1.9450
 4.9240	 1.9090
 4.9290	 1.9030
 4.9340	 1.8910
 4.9390	 1.9140
 4.9430	 1.9350
 4.9480	 1.9400
 4.9530	 1.9250
 4.9570	 1.9480
 4.9620	 1.9350
 4.9670	 1.9460
 4.9720	 1.9030
 4.9760	 1.8950
 4.9810	 1.8830
 4.9860	 1.9420
 4.9910	 1.9480
 4.9960	 1.9300
 5.0000	 1.9450
 5.0050	 1.9450
 5.0100	 1.9150
 5.0150	 1.9370
 5.0200	 1.9560
 5.0250	 1.9290
 5.0300	 1.8850
 5.0340	 1.9340
 5.0390	 1.9440
 5.0440	 1.9310
 5.0490	 1.8850
 5.0540	 1.8630
 5.0590	 1.8670
 5.0640	 1.9230
 5.0690	 1.9270
 5.0740	 1.9130
 5.0790	 1.9120
 5.0840	 1.9620
 5.0890	 1.9480
 5.0940	 1.9480
 5.0990	 1.9330
 5.1040	 1.9610
 5.1090	 1.9610
 5.1140	 1.9760
 5.1190	 1.9730
 5.1240	 1.9600
 5.1290	 1.9230
 5.1340	 1.9450
 5.1390	 1.9320
 5.1440	 1.9480
 5.1490	 1.9200
 5.1550	 1.9160
 5.1600	 1.9060
 5.1650	 1.9360
 5.1700	 1.9490
 5.1750	 1.9290
 5.1800	 1.9070
 5.1850	 1.9500
 5.1910	 1.9590
 5.1960	 1.9400
 5.2010	 1.9230
 5.2060	 1.9090
 5.2110	 1.8920
 5.2170	 1.9280
 5.2220	 1.9080
 5.2270	 1.9100
 5.2330	 1.9030
 5.2380	 1.9660
 5.2430	 1.9430
 5.2480	 1.9210
 5.2540	 1.9130
 5.2590	 1.9240
 5.2640	 1.9030
 5.2700	 1.9290
 5.2750	 1.9350
 5.2800	 1.9550
 5.2860	 1.9500
 5.2910	 1.9750
 5.2970	 1.9360
 5.3020	 1.9390
 5.3080	 1.9150
 5.3130	 1.9070
 5.3180	 1.9100
 5.3240	 1.9310
 5.3290	 1.9220
 5.3350	 1.9560
 5.3400	 1.9560
 5.3460	 1.9650
 5.3510	 1.9380
 5.3570	 1.9500
 5.3620	 1.9450
 5.3680	 1.9690
 5.3740	 1.9570
 5.3790	 1.9810
 5.3850	 1.9560
 5.3900	 1.9660
 5.3960	 1.9430
 5.4010	 1.9230
 5.4070	 1.9420
 5.4130	 1.9430
 5.4180	 1.9000
 5.4240	 1.9370
 5.4300	 1.9540
 5.4350	 1.9660
 5.4410	 1.9510
 5.4470	 1.9800
 5.4530	 1.9660
 5.4580	 1.9500
 5.4640	 1.9190
 5.4700	 1.9270
 5.4760	 1.8800
 5.4810	 1.8980
 5.4870	 1.9120
 5.4930	 1.9150
 5.4990	 1.8800
