Name: Podocarpus gracilior
Type: vegetation
Class: Tree
Genus: Podocarpus
Species: gracilior
Sample No.: JPL188
Owner: JPL
Wavelength Range: VSWIR
Origin: 34.12605; -118.11517; WGS84
Collection Date: 10/3/2016
Description: Samples were collected at the Huntington Garden in San Marino California as part of a JPL Subcontract studying HyTES imagery. Samples were taken to JPL and processed within 48 hours of collection. The same leaves were processed in the Nicolet and then measured using the ASD.
Measurement: Bidirectional reflectance
First Column: X
Second Column: Y
X Units: Wavelength (micrometer)
Y Units: Reflectance (percentage)
First X Value: 0.35
Last X Value: 2.5
Number of X Values: 2151
Additional Information: vegetation.tree.podocarpus.gracilior.vswir.jpl188.jpl.asd.ancillary.txt

 0.3500	10.2320
 0.3510	10.2070
 0.3520	10.1040
 0.3530	 9.9710
 0.3540	 9.8850
 0.3550	 9.9290
 0.3560	 9.9340
 0.3570	 9.9070
 0.3580	 9.9350
 0.3590	 9.8990
 0.3600	 9.8320
 0.3610	 9.7890
 0.3620	 9.8380
 0.3630	 9.8580
 0.3640	 9.8540
 0.3650	 9.8490
 0.3660	 9.7930
 0.3670	 9.7710
 0.3680	 9.7740
 0.3690	 9.7360
 0.3700	 9.7630
 0.3710	 9.7850
 0.3720	 9.7570
 0.3730	 9.7160
 0.3740	 9.7200
 0.3750	 9.7480
 0.3760	 9.7560
 0.3770	 9.7260
 0.3780	 9.6990
 0.3790	 9.7120
 0.3800	 9.7840
 0.3810	 9.7700
 0.3820	 9.7300
 0.3830	 9.7290
 0.3840	 9.7790
 0.3850	 9.8160
 0.3860	 9.8070
 0.3870	 9.7560
 0.3880	 9.8150
 0.3890	 9.8490
 0.3900	 9.8310
 0.3910	 9.8550
 0.3920	 9.8670
 0.3930	 9.8580
 0.3940	 9.8420
 0.3950	 9.8730
 0.3960	 9.9080
 0.3970	 9.9250
 0.3980	 9.9150
 0.3990	 9.9230
 0.4000	 9.9400
 0.4010	 9.9570
 0.4020	 9.9700
 0.4030	 9.9740
 0.4040	 9.9770
 0.4050	 9.9980
 0.4060	10.0700
 0.4070	10.1070
 0.4080	10.1060
 0.4090	10.1200
 0.4100	10.1350
 0.4110	10.1550
 0.4120	10.1790
 0.4130	10.1990
 0.4140	10.2150
 0.4150	10.2290
 0.4160	10.2410
 0.4170	10.2500
 0.4180	10.2580
 0.4190	10.2660
 0.4200	10.2710
 0.4210	10.2880
 0.4220	10.2990
 0.4230	10.2950
 0.4240	10.2980
 0.4250	10.3050
 0.4260	10.3110
 0.4270	10.3060
 0.4280	10.3120
 0.4290	10.3120
 0.4300	10.2960
 0.4310	10.2580
 0.4320	10.2440
 0.4330	10.2420
 0.4340	10.2310
 0.4350	10.2150
 0.4360	10.2130
 0.4370	10.2260
 0.4380	10.2370
 0.4390	10.2450
 0.4400	10.2640
 0.4410	10.2950
 0.4420	10.3140
 0.4430	10.3240
 0.4440	10.3310
 0.4450	10.3410
 0.4460	10.3380
 0.4470	10.3470
 0.4480	10.3670
 0.4490	10.3720
 0.4500	10.3780
 0.4510	10.3860
 0.4520	10.3950
 0.4530	10.4080
 0.4540	10.4120
 0.4550	10.4100
 0.4560	10.4170
 0.4570	10.4200
 0.4580	10.4260
 0.4590	10.4340
 0.4600	10.4250
 0.4610	10.4280
 0.4620	10.4370
 0.4630	10.4390
 0.4640	10.4400
 0.4650	10.4360
 0.4660	10.4320
 0.4670	10.4390
 0.4680	10.4400
 0.4690	10.4380
 0.4700	10.4380
 0.4710	10.4360
 0.4720	10.4380
 0.4730	10.4450
 0.4740	10.4510
 0.4750	10.4440
 0.4760	10.4400
 0.4770	10.4470
 0.4780	10.4480
 0.4790	10.4460
 0.4800	10.4420
 0.4810	10.4370
 0.4820	10.4370
 0.4830	10.4350
 0.4840	10.4280
 0.4850	10.4200
 0.4860	10.4170
 0.4870	10.4180
 0.4880	10.4230
 0.4890	10.4320
 0.4900	10.4460
 0.4910	10.4660
 0.4920	10.4910
 0.4930	10.5170
 0.4940	10.5440
 0.4950	10.5760
 0.4960	10.6150
 0.4970	10.6560
 0.4980	10.6990
 0.4990	10.7500
 0.5000	10.8040
 0.5010	10.8640
 0.5020	10.9320
 0.5030	11.0120
 0.5040	11.0960
 0.5050	11.1900
 0.5060	11.3000
 0.5070	11.4160
 0.5080	11.5410
 0.5090	11.6790
 0.5100	11.8320
 0.5110	12.0010
 0.5120	12.1870
 0.5130	12.3860
 0.5140	12.5920
 0.5150	12.8120
 0.5160	13.0440
 0.5170	13.2860
 0.5180	13.5320
 0.5190	13.7850
 0.5200	14.0440
 0.5210	14.2990
 0.5220	14.5470
 0.5230	14.7860
 0.5240	15.0140
 0.5250	15.2330
 0.5260	15.4420
 0.5270	15.6340
 0.5280	15.8020
 0.5290	15.9630
 0.5300	16.1080
 0.5310	16.2340
 0.5320	16.3430
 0.5330	16.4380
 0.5340	16.5210
 0.5350	16.5890
 0.5360	16.6460
 0.5370	16.6890
 0.5380	16.7150
 0.5390	16.7250
 0.5400	16.7190
 0.5410	16.6990
 0.5420	16.6730
 0.5430	16.6600
 0.5440	16.6620
 0.5450	16.6830
 0.5460	16.7230
 0.5470	16.7720
 0.5480	16.8180
 0.5490	16.8510
 0.5500	16.8730
 0.5510	16.8880
 0.5520	16.8950
 0.5530	16.8910
 0.5540	16.8750
 0.5550	16.8470
 0.5560	16.8020
 0.5570	16.7380
 0.5580	16.6600
 0.5590	16.5690
 0.5600	16.4630
 0.5610	16.3410
 0.5620	16.2090
 0.5630	16.0710
 0.5640	15.9300
 0.5650	15.7820
 0.5660	15.6310
 0.5670	15.4760
 0.5680	15.3140
 0.5690	15.1540
 0.5700	14.9980
 0.5710	14.8450
 0.5720	14.7020
 0.5730	14.5640
 0.5740	14.4340
 0.5750	14.3120
 0.5760	14.2010
 0.5770	14.0970
 0.5780	13.9970
 0.5790	13.8970
 0.5800	13.8030
 0.5810	13.7160
 0.5820	13.6350
 0.5830	13.5630
 0.5840	13.4980
 0.5850	13.4390
 0.5860	13.3790
 0.5870	13.3170
 0.5880	13.2580
 0.5890	13.2070
 0.5900	13.1570
 0.5910	13.1100
 0.5920	13.0660
 0.5930	13.0300
 0.5940	12.9990
 0.5950	12.9720
 0.5960	12.9460
 0.5970	12.9210
 0.5980	12.8960
 0.5990	12.8710
 0.6000	12.8450
 0.6010	12.8260
 0.6020	12.8030
 0.6030	12.7730
 0.6040	12.7330
 0.6050	12.6910
 0.6060	12.6450
 0.6070	12.5940
 0.6080	12.5370
 0.6090	12.4600
 0.6100	12.3570
 0.6110	12.2390
 0.6120	12.1850
 0.6130	12.1680
 0.6140	12.1550
 0.6150	12.1210
 0.6160	12.0810
 0.6170	12.0390
 0.6180	11.9920
 0.6190	11.9450
 0.6200	11.9020
 0.6210	11.8660
 0.6220	11.8380
 0.6230	11.8150
 0.6240	11.7960
 0.6250	11.7790
 0.6260	11.7650
 0.6270	11.7540
 0.6280	11.7440
 0.6290	11.7340
 0.6300	11.7180
 0.6310	11.7040
 0.6320	11.6950
 0.6330	11.6820
 0.6340	11.6570
 0.6350	11.6220
 0.6360	11.5780
 0.6370	11.5250
 0.6380	11.4650
 0.6390	11.4010
 0.6400	11.3340
 0.6410	11.2630
 0.6420	11.1930
 0.6430	11.1250
 0.6440	11.0580
 0.6450	10.9930
 0.6460	10.9350
 0.6470	10.8830
 0.6480	10.8370
 0.6490	10.7960
 0.6500	10.7620
 0.6510	10.7360
 0.6520	10.7200
 0.6530	10.7090
 0.6540	10.6990
 0.6550	10.6870
 0.6560	10.6800
 0.6570	10.6750
 0.6580	10.6680
 0.6590	10.6590
 0.6600	10.6500
 0.6610	10.6420
 0.6620	10.6320
 0.6630	10.6250
 0.6640	10.6220
 0.6650	10.6220
 0.6660	10.6210
 0.6670	10.6230
 0.6680	10.6320
 0.6690	10.6450
 0.6700	10.6620
 0.6710	10.6850
 0.6720	10.7160
 0.6730	10.7520
 0.6740	10.7920
 0.6750	10.8360
 0.6760	10.8850
 0.6770	10.9400
 0.6780	11.0010
 0.6790	11.0670
 0.6800	11.1390
 0.6810	11.2160
 0.6820	11.2980
 0.6830	11.3840
 0.6840	11.4760
 0.6850	11.5740
 0.6860	11.6790
 0.6870	11.8000
 0.6880	11.9480
 0.6890	12.1320
 0.6900	12.3610
 0.6910	12.6510
 0.6920	13.0080
 0.6930	13.4410
 0.6940	13.9580
 0.6950	14.5620
 0.6960	15.2480
 0.6970	16.0130
 0.6980	16.8520
 0.6990	17.7550
 0.7000	18.7130
 0.7010	19.7150
 0.7020	20.7490
 0.7030	21.8090
 0.7040	22.8850
 0.7050	23.9710
 0.7060	25.0640
 0.7070	26.1610
 0.7080	27.2610
 0.7090	28.3680
 0.7100	29.4790
 0.7110	30.5950
 0.7120	31.7120
 0.7130	32.8270
 0.7140	33.9450
 0.7150	35.0630
 0.7160	36.1750
 0.7170	37.2870
 0.7180	38.3880
 0.7190	39.4780
 0.7200	40.5600
 0.7210	41.6240
 0.7220	42.6710
 0.7230	43.6990
 0.7240	44.7000
 0.7250	45.6750
 0.7260	46.6210
 0.7270	47.5360
 0.7280	48.4190
 0.7290	49.2670
 0.7300	50.0790
 0.7310	50.8570
 0.7320	51.5990
 0.7330	52.3030
 0.7340	52.9700
 0.7350	53.6050
 0.7360	54.2010
 0.7370	54.7620
 0.7380	55.2910
 0.7390	55.7870
 0.7400	56.2490
 0.7410	56.6790
 0.7420	57.0770
 0.7430	57.4470
 0.7440	57.7830
 0.7450	58.0880
 0.7460	58.3680
 0.7470	58.6210
 0.7480	58.8490
 0.7490	59.0550
 0.7500	59.2380
 0.7510	59.4030
 0.7520	59.5500
 0.7530	59.6830
 0.7540	59.8020
 0.7550	59.9090
 0.7560	60.0030
 0.7570	60.0840
 0.7580	60.1610
 0.7590	60.2290
 0.7600	60.2860
 0.7610	60.3370
 0.7620	60.3840
 0.7630	60.4270
 0.7640	60.4620
 0.7650	60.4900
 0.7660	60.5120
 0.7670	60.5300
 0.7680	60.5480
 0.7690	60.5630
 0.7700	60.5760
 0.7710	60.5870
 0.7720	60.5960
 0.7730	60.6020
 0.7740	60.6070
 0.7750	60.6150
 0.7760	60.6210
 0.7770	60.6280
 0.7780	60.6350
 0.7790	60.6410
 0.7800	60.6500
 0.7810	60.6610
 0.7820	60.6690
 0.7830	60.6740
 0.7840	60.6810
 0.7850	60.6880
 0.7860	60.6940
 0.7870	60.6940
 0.7880	60.6950
 0.7890	60.6960
 0.7900	60.6960
 0.7910	60.7000
 0.7920	60.7030
 0.7930	60.7030
 0.7940	60.7020
 0.7950	60.7010
 0.7960	60.6970
 0.7970	60.6910
 0.7980	60.6820
 0.7990	60.6720
 0.8000	60.6630
 0.8010	60.6550
 0.8020	60.6440
 0.8030	60.6360
 0.8040	60.6290
 0.8050	60.6180
 0.8060	60.6070
 0.8070	60.5920
 0.8080	60.5750
 0.8090	60.5590
 0.8100	60.5460
 0.8110	60.5310
 0.8120	60.5140
 0.8130	60.4930
 0.8140	60.4770
 0.8150	60.4620
 0.8160	60.4450
 0.8170	60.4280
 0.8180	60.4130
 0.8190	60.3970
 0.8200	60.3810
 0.8210	60.3680
 0.8220	60.3520
 0.8230	60.3340
 0.8240	60.3200
 0.8250	60.3030
 0.8260	60.2860
 0.8270	60.2710
 0.8280	60.2580
 0.8290	60.2440
 0.8300	60.2310
 0.8310	60.2180
 0.8320	60.2100
 0.8330	60.1990
 0.8340	60.1880
 0.8350	60.1790
 0.8360	60.1760
 0.8370	60.1690
 0.8380	60.1610
 0.8390	60.1590
 0.8400	60.1560
 0.8410	60.1530
 0.8420	60.1520
 0.8430	60.1530
 0.8440	60.1550
 0.8450	60.1570
 0.8460	60.1590
 0.8470	60.1650
 0.8480	60.1720
 0.8490	60.1790
 0.8500	60.1860
 0.8510	60.1910
 0.8520	60.1990
 0.8530	60.2070
 0.8540	60.2130
 0.8550	60.2180
 0.8560	60.2250
 0.8570	60.2340
 0.8580	60.2440
 0.8590	60.2570
 0.8600	60.2710
 0.8610	60.2850
 0.8620	60.2960
 0.8630	60.3110
 0.8640	60.3280
 0.8650	60.3460
 0.8660	60.3640
 0.8670	60.3800
 0.8680	60.3970
 0.8690	60.4150
 0.8700	60.4250
 0.8710	60.4380
 0.8720	60.4560
 0.8730	60.4760
 0.8740	60.4940
 0.8750	60.5110
 0.8760	60.5310
 0.8770	60.5530
 0.8780	60.5740
 0.8790	60.5900
 0.8800	60.6050
 0.8810	60.6350
 0.8820	60.6510
 0.8830	60.6650
 0.8840	60.6880
 0.8850	60.7050
 0.8860	60.7200
 0.8870	60.7330
 0.8880	60.7470
 0.8890	60.7720
 0.8900	60.7950
 0.8910	60.8130
 0.8920	60.8320
 0.8930	60.8500
 0.8940	60.8670
 0.8950	60.8830
 0.8960	60.9000
 0.8970	60.9170
 0.8980	60.9350
 0.8990	60.9530
 0.9000	60.9660
 0.9010	60.9850
 0.9020	61.0000
 0.9030	61.0100
 0.9040	61.0290
 0.9050	61.0450
 0.9060	61.0580
 0.9070	61.0710
 0.9080	61.0770
 0.9090	61.0870
 0.9100	61.0970
 0.9110	61.1060
 0.9120	61.1140
 0.9130	61.1270
 0.9140	61.1360
 0.9150	61.1360
 0.9160	61.1420
 0.9170	61.1480
 0.9180	61.1510
 0.9190	61.1500
 0.9200	61.1500
 0.9210	61.1510
 0.9220	61.1510
 0.9230	61.1460
 0.9240	61.1410
 0.9250	61.1390
 0.9260	61.1350
 0.9270	61.1220
 0.9280	61.1010
 0.9290	61.0830
 0.9300	61.0680
 0.9310	61.0460
 0.9320	61.0220
 0.9330	60.9990
 0.9340	60.9770
 0.9350	60.9480
 0.9360	60.9170
 0.9370	60.8890
 0.9380	60.8620
 0.9390	60.8260
 0.9400	60.8030
 0.9410	60.7770
 0.9420	60.7390
 0.9430	60.7030
 0.9440	60.6560
 0.9450	60.6050
 0.9460	60.5550
 0.9470	60.5000
 0.9480	60.4410
 0.9490	60.3810
 0.9500	60.3180
 0.9510	60.2340
 0.9520	60.1680
 0.9530	60.1080
 0.9540	60.0330
 0.9550	59.9520
 0.9560	59.8810
 0.9570	59.8160
 0.9580	59.7480
 0.9590	59.6910
 0.9600	59.6390
 0.9610	59.5870
 0.9620	59.5340
 0.9630	59.4910
 0.9640	59.4500
 0.9650	59.4120
 0.9660	59.3840
 0.9670	59.3550
 0.9680	59.3380
 0.9690	59.3240
 0.9700	59.3060
 0.9710	59.2950
 0.9720	59.2670
 0.9730	59.2410
 0.9740	59.2430
 0.9750	59.2530
 0.9760	59.2490
 0.9770	59.2300
 0.9780	59.2110
 0.9790	59.2090
 0.9800	59.2180
 0.9810	59.2270
 0.9820	59.2250
 0.9830	59.2260
 0.9840	59.2370
 0.9850	59.2470
 0.9860	59.2490
 0.9870	59.2670
 0.9880	59.2850
 0.9890	59.2990
 0.9900	59.3120
 0.9910	59.3090
 0.9920	59.3270
 0.9930	59.3530
 0.9940	59.3590
 0.9950	59.3880
 0.9960	59.4170
 0.9970	59.4390
 0.9980	59.4560
 0.9990	59.4740
 1.0000	59.4950
 1.0010	61.1250
 1.0020	61.1490
 1.0030	61.1660
 1.0040	61.1850
 1.0050	61.2050
 1.0060	61.2310
 1.0070	61.2620
 1.0080	61.2880
 1.0090	61.3170
 1.0100	61.3420
 1.0110	61.3590
 1.0120	61.3820
 1.0130	61.4060
 1.0140	61.4310
 1.0150	61.4570
 1.0160	61.4860
 1.0170	61.5060
 1.0180	61.5280
 1.0190	61.5550
 1.0200	61.5810
 1.0210	61.6080
 1.0220	61.6350
 1.0230	61.6600
 1.0240	61.6800
 1.0250	61.7040
 1.0260	61.7300
 1.0270	61.7550
 1.0280	61.7780
 1.0290	61.8030
 1.0300	61.8290
 1.0310	61.8530
 1.0320	61.8760
 1.0330	61.8970
 1.0340	61.9170
 1.0350	61.9350
 1.0360	61.9510
 1.0370	61.9730
 1.0380	61.9940
 1.0390	62.0150
 1.0400	62.0360
 1.0410	62.0600
 1.0420	62.0810
 1.0430	62.0980
 1.0440	62.1170
 1.0450	62.1370
 1.0460	62.1550
 1.0470	62.1750
 1.0480	62.1900
 1.0490	62.2000
 1.0500	62.2130
 1.0510	62.2220
 1.0520	62.2350
 1.0530	62.2510
 1.0540	62.2720
 1.0550	62.2870
 1.0560	62.3050
 1.0570	62.3140
 1.0580	62.3140
 1.0590	62.3180
 1.0600	62.3130
 1.0610	62.3170
 1.0620	62.3260
 1.0630	62.3310
 1.0640	62.3370
 1.0650	62.3430
 1.0660	62.3490
 1.0670	62.3530
 1.0680	62.3550
 1.0690	62.3590
 1.0700	62.3590
 1.0710	62.3560
 1.0720	62.3540
 1.0730	62.3510
 1.0740	62.3500
 1.0750	62.3500
 1.0760	62.3490
 1.0770	62.3490
 1.0780	62.3480
 1.0790	62.3460
 1.0800	62.3420
 1.0810	62.3390
 1.0820	62.3340
 1.0830	62.3270
 1.0840	62.3190
 1.0850	62.3100
 1.0860	62.3030
 1.0870	62.2960
 1.0880	62.2900
 1.0890	62.2820
 1.0900	62.2740
 1.0910	62.2660
 1.0920	62.2550
 1.0930	62.2460
 1.0940	62.2380
 1.0950	62.2300
 1.0960	62.2240
 1.0970	62.2140
 1.0980	62.2030
 1.0990	62.1930
 1.1000	62.1790
 1.1010	62.1680
 1.1020	62.1590
 1.1030	62.1490
 1.1040	62.1390
 1.1050	62.1310
 1.1060	62.1200
 1.1070	62.1060
 1.1080	62.0930
 1.1090	62.0790
 1.1100	62.0650
 1.1110	62.0510
 1.1120	62.0370
 1.1130	62.0250
 1.1140	62.0090
 1.1150	61.9930
 1.1160	61.9730
 1.1170	61.9510
 1.1180	61.9260
 1.1190	61.9010
 1.1200	61.8730
 1.1210	61.8410
 1.1220	61.8050
 1.1230	61.7650
 1.1240	61.7250
 1.1250	61.6760
 1.1260	61.6240
 1.1270	61.5620
 1.1280	61.4930
 1.1290	61.4150
 1.1300	61.3320
 1.1310	61.2390
 1.1320	61.1400
 1.1330	61.0310
 1.1340	60.9120
 1.1350	60.7860
 1.1360	60.6520
 1.1370	60.5090
 1.1380	60.3580
 1.1390	60.2010
 1.1400	60.0410
 1.1410	59.8760
 1.1420	59.7100
 1.1430	59.5450
 1.1440	59.3790
 1.1450	59.2100
 1.1460	59.0450
 1.1470	58.8760
 1.1480	58.7210
 1.1490	58.5700
 1.1500	58.4270
 1.1510	58.2920
 1.1520	58.1660
 1.1530	58.0420
 1.1540	57.9320
 1.1550	57.8320
 1.1560	57.7420
 1.1570	57.6590
 1.1580	57.5880
 1.1590	57.5200
 1.1600	57.4570
 1.1610	57.4020
 1.1620	57.3510
 1.1630	57.3090
 1.1640	57.2720
 1.1650	57.2360
 1.1660	57.2040
 1.1670	57.1730
 1.1680	57.1440
 1.1690	57.1180
 1.1700	57.0960
 1.1710	57.0730
 1.1720	57.0530
 1.1730	57.0300
 1.1740	57.0050
 1.1750	56.9830
 1.1760	56.9590
 1.1770	56.9360
 1.1780	56.9130
 1.1790	56.8900
 1.1800	56.8650
 1.1810	56.8400
 1.1820	56.8150
 1.1830	56.7880
 1.1840	56.7610
 1.1850	56.7320
 1.1860	56.7060
 1.1870	56.6820
 1.1880	56.6590
 1.1890	56.6380
 1.1900	56.6170
 1.1910	56.5930
 1.1920	56.5730
 1.1930	56.5550
 1.1940	56.5380
 1.1950	56.5240
 1.1960	56.5100
 1.1970	56.4980
 1.1980	56.4900
 1.1990	56.4850
 1.2000	56.4810
 1.2010	56.4800
 1.2020	56.4800
 1.2030	56.4820
 1.2040	56.4880
 1.2050	56.4970
 1.2060	56.5070
 1.2070	56.5180
 1.2080	56.5330
 1.2090	56.5470
 1.2100	56.5620
 1.2110	56.5810
 1.2120	56.6030
 1.2130	56.6260
 1.2140	56.6530
 1.2150	56.6790
 1.2160	56.7060
 1.2170	56.7350
 1.2180	56.7630
 1.2190	56.7920
 1.2200	56.8220
 1.2210	56.8530
 1.2220	56.8850
 1.2230	56.9200
 1.2240	56.9570
 1.2250	56.9930
 1.2260	57.0260
 1.2270	57.0590
 1.2280	57.0880
 1.2290	57.1170
 1.2300	57.1490
 1.2310	57.1790
 1.2320	57.2080
 1.2330	57.2370
 1.2340	57.2630
 1.2350	57.2840
 1.2360	57.3080
 1.2370	57.3320
 1.2380	57.3550
 1.2390	57.3760
 1.2400	57.3990
 1.2410	57.4190
 1.2420	57.4380
 1.2430	57.4580
 1.2440	57.4760
 1.2450	57.4940
 1.2460	57.5080
 1.2470	57.5210
 1.2480	57.5360
 1.2490	57.5500
 1.2500	57.5640
 1.2510	57.5780
 1.2520	57.5890
 1.2530	57.6000
 1.2540	57.6120
 1.2550	57.6220
 1.2560	57.6320
 1.2570	57.6410
 1.2580	57.6460
 1.2590	57.6510
 1.2600	57.6530
 1.2610	57.6540
 1.2620	57.6530
 1.2630	57.6520
 1.2640	57.6490
 1.2650	57.6480
 1.2660	57.6450
 1.2670	57.6420
 1.2680	57.6410
 1.2690	57.6370
 1.2700	57.6290
 1.2710	57.6200
 1.2720	57.6100
 1.2730	57.5970
 1.2740	57.5830
 1.2750	57.5690
 1.2760	57.5550
 1.2770	57.5390
 1.2780	57.5230
 1.2790	57.5060
 1.2800	57.4850
 1.2810	57.4570
 1.2820	57.4290
 1.2830	57.3980
 1.2840	57.3630
 1.2850	57.3300
 1.2860	57.2960
 1.2870	57.2560
 1.2880	57.2120
 1.2890	57.1660
 1.2900	57.1180
 1.2910	57.0660
 1.2920	57.0130
 1.2930	56.9600
 1.2940	56.9030
 1.2950	56.8400
 1.2960	56.7770
 1.2970	56.7120
 1.2980	56.6430
 1.2990	56.5710
 1.3000	56.4980
 1.3010	56.4210
 1.3020	56.3420
 1.3030	56.2630
 1.3040	56.1790
 1.3050	56.0930
 1.3060	56.0040
 1.3070	55.9100
 1.3080	55.8160
 1.3090	55.7200
 1.3100	55.6200
 1.3110	55.5190
 1.3120	55.4150
 1.3130	55.3060
 1.3140	55.1950
 1.3150	55.0800
 1.3160	54.9640
 1.3170	54.8460
 1.3180	54.7260
 1.3190	54.6040
 1.3200	54.4790
 1.3210	54.3500
 1.3220	54.2210
 1.3230	54.0900
 1.3240	53.9550
 1.3250	53.8180
 1.3260	53.6790
 1.3270	53.5350
 1.3280	53.3930
 1.3290	53.2490
 1.3300	53.1030
 1.3310	52.9560
 1.3320	52.8060
 1.3330	52.6560
 1.3340	52.5070
 1.3350	52.3590
 1.3360	52.2120
 1.3370	52.0630
 1.3380	51.9130
 1.3390	51.7660
 1.3400	51.6170
 1.3410	51.4710
 1.3420	51.3270
 1.3430	51.1830
 1.3440	51.0390
 1.3450	50.8980
 1.3460	50.7600
 1.3470	50.6230
 1.3480	50.4870
 1.3490	50.3530
 1.3500	50.2210
 1.3510	50.0880
 1.3520	49.9590
 1.3530	49.8310
 1.3540	49.7000
 1.3550	49.5720
 1.3560	49.4420
 1.3570	49.3090
 1.3580	49.1770
 1.3590	49.0400
 1.3600	48.9000
 1.3610	48.7570
 1.3620	48.6080
 1.3630	48.4540
 1.3640	48.2930
 1.3650	48.1230
 1.3660	47.9470
 1.3670	47.7620
 1.3680	47.5630
 1.3690	47.3540
 1.3700	47.1300
 1.3710	46.8930
 1.3720	46.6420
 1.3730	46.3720
 1.3740	46.0850
 1.3750	45.7770
 1.3760	45.4460
 1.3770	45.0950
 1.3780	44.7170
 1.3790	44.3170
 1.3800	43.8950
 1.3810	43.4450
 1.3820	42.9780
 1.3830	42.4910
 1.3840	41.9850
 1.3850	41.4590
 1.3860	40.9220
 1.3870	40.3640
 1.3880	39.8030
 1.3890	39.2310
 1.3900	38.6510
 1.3910	38.0710
 1.3920	37.4890
 1.3930	36.9050
 1.3940	36.3280
 1.3950	35.7530
 1.3960	35.1880
 1.3970	34.6370
 1.3980	34.0970
 1.3990	33.5780
 1.4000	33.0750
 1.4010	32.5870
 1.4020	32.1210
 1.4030	31.6700
 1.4040	31.2380
 1.4050	30.8290
 1.4060	30.4380
 1.4070	30.0740
 1.4080	29.7290
 1.4090	29.4010
 1.4100	29.0960
 1.4110	28.8080
 1.4120	28.5370
 1.4130	28.2860
 1.4140	28.0500
 1.4150	27.8310
 1.4160	27.6260
 1.4170	27.4340
 1.4180	27.2570
 1.4190	27.0910
 1.4200	26.9390
 1.4210	26.7970
 1.4220	26.6650
 1.4230	26.5450
 1.4240	26.4330
 1.4250	26.3270
 1.4260	26.2310
 1.4270	26.1410
 1.4280	26.0580
 1.4290	25.9820
 1.4300	25.9160
 1.4310	25.8550
 1.4320	25.8000
 1.4330	25.7500
 1.4340	25.7060
 1.4350	25.6650
 1.4360	25.6290
 1.4370	25.5960
 1.4380	25.5700
 1.4390	25.5460
 1.4400	25.5270
 1.4410	25.5130
 1.4420	25.5000
 1.4430	25.4890
 1.4440	25.4810
 1.4450	25.4760
 1.4460	25.4740
 1.4470	25.4750
 1.4480	25.4780
 1.4490	25.4830
 1.4500	25.4910
 1.4510	25.4990
 1.4520	25.5090
 1.4530	25.5210
 1.4540	25.5350
 1.4550	25.5500
 1.4560	25.5710
 1.4570	25.5940
 1.4580	25.6210
 1.4590	25.6510
 1.4600	25.6850
 1.4610	25.7220
 1.4620	25.7640
 1.4630	25.8100
 1.4640	25.8590
 1.4650	25.9130
 1.4660	25.9720
 1.4670	26.0350
 1.4680	26.1050
 1.4690	26.1780
 1.4700	26.2550
 1.4710	26.3370
 1.4720	26.4210
 1.4730	26.5100
 1.4740	26.6020
 1.4750	26.6980
 1.4760	26.7980
 1.4770	26.9010
