Name: Ceanothus spinosus 2
Type: vegetation
Class: Shrub
Genus: Ceanothus
Species: spinosus
Sample No.: VH010
Owner: UCSB
Wavelength Range: TIR
Origin: 34.4906; -119.7908; WGS84
Collection Date: 4/1/2013
Description: Samples were collected as part of the HyspIRI Airborne Campaign. 48 individual plants were sampled in three times in 2013 - spring  summer  and fall. The name of the sample includes a 1  2  or 3 which references a different individual of the species. Samples were taken to JPL and processed within 48 hours of collection. The same leaves were processed in the Nicolet and then measured using the ASD.
Measurement: Hemispherical reflectance
First Column: X
Second Column: Y
X Units: Wavelength (micrometers)
Y Units: Reflectance (percentage)
First X Value: 2.501
Last X Value: 15.387
Number of X Values: 1737
Additional Information: vegetation.shrub.ceanothus.spinosus.tir.vh010.ucsb.nicolet.ancillary.txt

 2.5010	 6.1340
 2.5030	 6.3410
 2.5040	 6.2000
 2.5050	 5.9440
 2.5060	 6.0580
 2.5070	 6.2250
 2.5090	 6.3020
 2.5100	 6.2090
 2.5110	 6.1120
 2.5120	 6.0710
 2.5140	 6.2740
 2.5150	 6.3560
 2.5160	 6.1710
 2.5170	 6.0340
 2.5180	 6.1380
 2.5200	 6.1610
 2.5210	 6.1220
 2.5220	 6.0250
 2.5230	 5.8730
 2.5250	 5.8140
 2.5260	 5.9440
 2.5270	 5.9650
 2.5280	 6.0190
 2.5290	 6.0650
 2.5310	 6.0560
 2.5320	 5.9390
 2.5330	 6.0320
 2.5340	 6.2250
 2.5360	 6.2410
 2.5370	 6.2420
 2.5380	 6.3050
 2.5390	 6.2950
 2.5410	 6.2390
 2.5420	 6.1840
 2.5430	 6.2060
 2.5440	 6.1130
 2.5460	 5.9220
 2.5470	 5.7960
 2.5480	 5.9990
 2.5490	 6.1210
 2.5510	 6.1850
 2.5520	 6.1420
 2.5530	 6.1250
 2.5540	 6.0600
 2.5560	 6.0400
 2.5570	 5.9920
 2.5580	 5.9830
 2.5590	 6.0220
 2.5610	 6.1350
 2.5620	 6.0660
 2.5630	 5.9500
 2.5640	 6.0220
 2.5660	 6.3020
 2.5670	 6.3450
 2.5680	 6.1360
 2.5700	 6.0390
 2.5710	 6.2390
 2.5720	 6.1770
 2.5730	 6.1380
 2.5750	 6.1350
 2.5760	 6.2770
 2.5770	 6.2570
 2.5790	 6.0830
 2.5800	 6.0120
 2.5810	 6.1280
 2.5820	 6.1790
 2.5840	 6.1370
 2.5850	 6.0420
 2.5860	 6.0570
 2.5880	 6.0930
 2.5890	 6.0120
 2.5900	 5.8770
 2.5910	 5.9440
 2.5930	 6.0520
 2.5940	 6.2280
 2.5950	 6.0680
 2.5970	 5.8970
 2.5980	 5.8340
 2.5990	 5.9240
 2.6000	 5.8670
 2.6020	 5.8250
 2.6030	 5.7570
 2.6040	 5.8520
 2.6060	 5.8650
 2.6070	 5.9450
 2.6080	 6.0970
 2.6100	 6.1360
 2.6110	 5.9590
 2.6120	 5.7940
 2.6140	 5.7350
 2.6150	 5.8740
 2.6160	 5.8690
 2.6180	 5.7270
 2.6190	 5.6160
 2.6200	 5.7090
 2.6220	 5.6620
 2.6230	 5.7030
 2.6240	 5.7120
 2.6260	 5.6820
 2.6270	 5.6370
 2.6280	 5.6350
 2.6300	 5.6580
 2.6310	 5.8140
 2.6320	 5.7500
 2.6340	 5.6250
 2.6350	 5.5350
 2.6360	 5.3920
 2.6380	 5.2690
 2.6390	 5.4230
 2.6400	 5.4490
 2.6420	 5.4690
 2.6430	 5.5510
 2.6440	 5.5260
 2.6460	 5.2310
 2.6470	 5.1560
 2.6480	 5.2540
 2.6500	 5.3710
 2.6510	 5.4210
 2.6520	 5.4700
 2.6540	 5.3100
 2.6550	 5.2270
 2.6560	 5.2780
 2.6580	 5.3320
 2.6590	 5.2580
 2.6610	 5.2880
 2.6620	 5.3510
 2.6630	 5.3850
 2.6650	 5.3320
 2.6660	 5.4500
 2.6670	 5.3170
 2.6690	 5.2560
 2.6700	 5.2240
 2.6720	 5.1640
 2.6730	 5.0150
 2.6740	 5.1730
 2.6760	 5.2520
 2.6770	 5.2310
 2.6780	 5.4240
 2.6800	 5.5030
 2.6810	 5.2490
 2.6830	 5.2830
 2.6840	 5.2400
 2.6850	 5.2430
 2.6870	 5.2180
 2.6880	 5.1910
 2.6900	 5.1420
 2.6910	 5.2380
 2.6920	 5.3280
 2.6940	 5.4030
 2.6950	 5.4020
 2.6970	 5.3310
 2.6980	 5.2540
 2.6990	 5.3210
 2.7010	 5.4200
 2.7020	 5.5340
 2.7040	 5.3650
 2.7050	 5.3690
 2.7060	 5.4070
 2.7080	 5.3010
 2.7090	 5.0890
 2.7110	 5.2290
 2.7120	 5.3760
 2.7130	 5.4400
 2.7150	 5.3260
 2.7160	 5.3300
 2.7180	 5.3650
 2.7190	 5.4470
 2.7210	 5.4510
 2.7220	 5.5130
 2.7230	 5.4770
 2.7250	 5.4660
 2.7260	 5.5440
 2.7280	 5.5050
 2.7290	 5.4690
 2.7310	 5.5810
 2.7320	 5.5980
 2.7330	 5.4910
 2.7350	 5.4020
 2.7360	 5.5510
 2.7380	 5.5400
 2.7390	 5.5740
 2.7410	 5.5630
 2.7420	 5.4840
 2.7440	 5.6940
 2.7450	 5.8990
 2.7470	 5.7120
 2.7480	 5.8060
 2.7490	 5.7470
 2.7510	 5.6510
 2.7520	 5.7100
 2.7540	 5.8630
 2.7550	 5.8750
 2.7570	 5.9660
 2.7580	 5.8480
 2.7600	 5.6250
 2.7610	 5.4870
 2.7630	 5.6210
 2.7640	 5.6110
 2.7660	 5.5100
 2.7670	 5.6590
 2.7680	 5.9260
 2.7700	 5.9910
 2.7710	 6.0110
 2.7730	 5.8830
 2.7740	 5.8540
 2.7760	 5.9240
 2.7770	 5.9570
 2.7790	 5.9750
 2.7800	 6.0600
 2.7820	 6.0150
 2.7830	 5.7780
 2.7850	 5.7380
 2.7860	 6.0440
 2.7880	 5.9410
 2.7890	 5.8720
 2.7910	 5.8900
 2.7920	 5.9400
 2.7940	 5.9160
 2.7950	 5.8800
 2.7970	 5.9460
 2.7980	 6.1580
 2.8000	 6.0380
 2.8010	 5.9060
 2.8030	 5.8600
 2.8040	 5.8700
 2.8060	 5.8030
 2.8070	 5.9730
 2.8090	 5.9740
 2.8110	 5.9680
 2.8120	 6.0150
 2.8140	 6.0660
 2.8150	 5.9420
 2.8170	 6.0370
 2.8180	 6.0590
 2.8200	 6.0290
 2.8210	 5.9370
 2.8230	 5.9790
 2.8240	 5.9470
 2.8260	 6.1050
 2.8270	 6.2640
 2.8290	 6.2540
 2.8300	 6.1710
 2.8320	 6.2220
 2.8340	 6.1710
 2.8350	 6.3390
 2.8370	 6.2910
 2.8380	 6.3240
 2.8400	 6.2600
 2.8410	 6.1980
 2.8430	 6.1310
 2.8440	 6.2170
 2.8460	 6.3740
 2.8480	 6.4470
 2.8490	 6.4340
 2.8510	 6.4060
 2.8520	 6.3590
 2.8540	 6.3580
 2.8550	 6.2350
 2.8570	 6.1980
 2.8590	 6.1660
 2.8600	 6.1670
 2.8620	 5.9840
 2.8630	 6.2000
 2.8650	 6.3560
 2.8660	 6.4220
 2.8680	 6.5100
 2.8700	 6.4780
 2.8710	 6.2840
 2.8730	 6.4500
 2.8740	 6.2810
 2.8760	 6.3680
 2.8780	 6.4140
 2.8790	 6.2430
 2.8810	 6.2860
 2.8820	 6.4690
 2.8840	 6.3870
 2.8860	 6.5130
 2.8870	 6.5830
 2.8890	 6.3880
 2.8900	 6.3400
 2.8920	 6.3680
 2.8940	 6.1950
 2.8950	 6.2830
 2.8970	 6.2760
 2.8980	 6.3760
 2.9000	 6.3260
 2.9020	 6.4790
 2.9030	 6.6260
 2.9050	 6.4130
 2.9070	 6.2200
 2.9080	 6.3100
 2.9100	 6.1950
 2.9120	 6.2450
 2.9130	 6.4510
 2.9150	 6.4820
 2.9160	 6.4110
 2.9180	 6.5030
 2.9200	 6.4340
 2.9210	 6.3230
 2.9230	 6.2500
 2.9250	 6.2620
 2.9260	 6.1770
 2.9280	 6.2040
 2.9300	 6.3430
 2.9310	 6.4390
 2.9330	 6.3230
 2.9350	 6.2960
 2.9360	 6.2750
 2.9380	 6.4850
 2.9400	 6.4290
 2.9410	 6.2670
 2.9430	 6.1130
 2.9450	 6.3020
 2.9460	 6.4180
 2.9480	 6.4090
 2.9500	 6.3430
 2.9510	 6.3230
 2.9530	 6.1760
 2.9550	 6.5710
 2.9560	 6.6320
 2.9580	 6.2930
 2.9600	 6.1280
 2.9610	 5.8700
 2.9630	 5.7350
 2.9650	 6.7780
 2.9660	 6.6220
 2.9680	 6.0230
 2.9700	 5.4490
 2.9720	 5.2050
 2.9730	 6.0980
 2.9750	 6.6410
 2.9770	 6.4470
 2.9780	 6.4320
 2.9800	 6.3350
 2.9820	 6.7550
 2.9840	 7.4750
 2.9850	 6.9910
 2.9870	 6.1570
 2.9890	 6.1400
 2.9900	 6.2710
 2.9920	 5.2930
 2.9940	 4.6610
 2.9960	 5.5200
 2.9970	 6.4330
 2.9990	 6.9210
 3.0010	 6.6870
 3.0030	 6.0990
 3.0040	 5.7980
 3.0060	 5.7020
 3.0080	 5.6730
 3.0100	 6.0480
 3.0110	 5.5570
 3.0130	 5.5030
 3.0150	 5.4830
 3.0170	 4.6780
 3.0180	 4.1880
 3.0200	 4.5700
 3.0220	 5.3790
 3.0240	 5.7050
 3.0250	 5.4570
 3.0270	 5.6180
 3.0290	 5.6010
 3.0310	 5.5180
 3.0320	 5.2100
 3.0340	 4.9830
 3.0360	 5.9270
 3.0380	 5.3010
 3.0400	 4.5590
 3.0410	 5.3990
 3.0430	 6.4170
 3.0450	 6.6070
 3.0470	 6.0300
 3.0480	 5.6200
 3.0500	 5.9260
 3.0520	 6.1930
 3.0540	 6.0450
 3.0560	 6.0230
 3.0570	 5.7260
 3.0590	 5.1030
 3.0610	 5.0930
 3.0630	 5.4520
 3.0650	 5.6810
 3.0660	 5.6930
 3.0680	 6.0090
 3.0700	 6.0410
 3.0720	 6.0310
 3.0740	 6.0260
 3.0760	 5.7920
 3.0770	 5.3970
 3.0790	 5.1950
 3.0810	 5.4280
 3.0830	 5.5300
 3.0850	 5.1960
 3.0870	 5.1560
 3.0880	 5.4370
 3.0900	 5.4670
 3.0920	 5.3470
 3.0940	 5.5010
 3.0960	 5.6560
 3.0980	 5.3800
 3.0990	 5.2350
 3.1010	 5.0950
 3.1030	 5.1000
 3.1050	 5.3150
 3.1070	 5.3930
 3.1090	 5.2350
 3.1110	 5.2830
 3.1120	 5.3900
 3.1140	 5.5090
 3.1160	 5.5750
 3.1180	 5.6200
 3.1200	 5.4910
 3.1220	 5.3620
 3.1240	 5.4070
 3.1260	 5.4850
 3.1270	 5.4330
 3.1290	 5.2600
 3.1310	 5.4120
 3.1330	 5.5900
 3.1350	 5.3580
 3.1370	 5.3710
 3.1390	 5.4780
 3.1410	 5.6620
 3.1430	 5.9280
 3.1450	 5.7710
 3.1460	 5.5660
 3.1480	 5.3260
 3.1500	 5.2070
 3.1520	 5.1310
 3.1540	 5.2150
 3.1560	 5.4020
 3.1580	 5.8470
 3.1600	 6.4290
 3.1620	 6.2340
 3.1640	 5.1770
 3.1660	 4.9320
 3.1680	 5.0980
 3.1700	 5.0320
 3.1710	 5.2270
 3.1730	 5.4740
 3.1750	 5.2920
 3.1770	 4.9610
 3.1790	 6.3610
 3.1810	 5.6310
 3.1830	 4.5160
 3.1850	 5.2010
 3.1870	 6.1060
 3.1890	 5.2270
 3.1910	 4.8780
 3.1930	 5.2370
 3.1950	 5.4560
 3.1970	 5.4210
 3.1990	 5.1630
 3.2010	 5.0210
 3.2030	 4.8580
 3.2050	 4.7740
 3.2070	 4.9510
 3.2090	 4.8410
 3.2110	 4.9400
 3.2130	 4.9320
 3.2150	 4.9560
 3.2170	 4.9830
 3.2190	 5.0750
 3.2210	 5.0270
 3.2230	 5.0350
 3.2250	 4.9530
 3.2270	 4.9340
 3.2290	 4.8560
 3.2310	 4.8980
 3.2330	 4.9550
 3.2350	 4.9880
 3.2370	 4.8450
 3.2390	 4.8900
 3.2410	 4.9420
 3.2430	 5.0190
 3.2450	 5.1230
 3.2470	 4.9740
 3.2490	 4.7840
 3.2510	 4.8710
 3.2530	 5.0020
 3.2550	 5.2300
 3.2570	 5.0310
 3.2590	 4.8960
 3.2610	 5.0110
 3.2630	 5.1470
 3.2650	 4.9120
 3.2670	 4.9180
 3.2690	 4.9050
 3.2720	 4.7930
 3.2740	 4.6740
 3.2760	 4.7950
 3.2780	 4.7720
 3.2800	 4.8030
 3.2820	 4.8300
 3.2840	 4.8660
 3.2860	 4.7840
 3.2880	 4.6810
 3.2900	 4.5580
 3.2920	 4.4940
 3.2940	 4.5300
 3.2960	 4.6390
 3.2990	 4.7320
 3.3010	 4.9830
 3.3030	 4.9630
 3.3050	 4.6430
 3.3070	 4.3820
 3.3090	 4.4970
 3.3110	 4.4800
 3.3130	 4.4910
 3.3150	 4.5120
 3.3180	 4.5590
 3.3200	 4.5880
 3.3220	 4.7790
 3.3240	 4.7420
 3.3260	 4.6610
 3.3280	 4.4890
 3.3300	 4.4620
 3.3330	 4.5750
 3.3350	 4.6560
 3.3370	 4.6090
 3.3390	 4.5010
 3.3410	 4.3290
 3.3430	 4.3000
 3.3450	 4.3180
 3.3480	 4.4300
 3.3500	 4.4100
 3.3520	 4.2640
 3.3540	 4.0940
 3.3560	 4.1180
 3.3580	 4.0190
 3.3610	 4.1750
 3.3630	 4.2760
 3.3650	 4.2800
 3.3670	 4.2940
 3.3690	 4.3230
 3.3720	 4.2430
 3.3740	 4.2460
 3.3760	 4.0690
 3.3780	 4.1610
 3.3800	 4.3110
 3.3830	 4.5010
 3.3850	 4.3960
 3.3870	 4.1780
 3.3890	 3.9830
 3.3910	 4.1060
 3.3940	 4.1520
 3.3960	 4.1070
 3.3980	 4.2280
 3.4000	 4.3300
 3.4020	 4.2810
 3.4050	 4.4960
 3.4070	 4.7870
 3.4090	 5.0270
 3.4110	 5.1610
 3.4140	 5.4180
 3.4160	 5.7880
 3.4180	 6.2470
 3.4200	 6.6740
 3.4230	 7.3250
 3.4250	 8.0550
 3.4270	 8.9100
 3.4290	 9.2810
 3.4320	 8.8240
 3.4340	 8.0080
 3.4360	 7.3840
 3.4390	 6.9850
 3.4410	 6.8310
 3.4430	 6.5470
 3.4450	 6.5000
 3.4480	 6.4780
 3.4500	 6.3960
 3.4520	 6.2160
 3.4550	 6.1990
 3.4570	 6.1830
 3.4590	 6.2290
 3.4620	 6.1850
 3.4640	 6.1210
 3.4660	 5.9630
 3.4680	 5.8810
 3.4710	 5.7630
 3.4730	 5.7960
 3.4750	 5.7650
 3.4780	 5.6350
 3.4800	 5.4780
 3.4820	 5.4360
 3.4850	 5.3810
 3.4870	 5.3700
 3.4890	 5.2540
 3.4920	 5.2480
 3.4940	 5.3380
 3.4970	 5.4950
 3.4990	 5.5510
 3.5010	 5.7730
 3.5040	 6.0900
 3.5060	 6.8660
 3.5080	 7.9150
 3.5110	 8.7080
 3.5130	 8.4470
 3.5160	 7.8230
 3.5180	 7.2160
 3.5200	 6.8330
 3.5230	 6.6680
 3.5250	 6.5760
 3.5270	 6.3730
 3.5300	 6.3380
 3.5320	 6.1140
 3.5350	 6.0550
 3.5370	 6.0160
 3.5400	 6.1410
 3.5420	 6.1550
 3.5440	 6.0620
 3.5470	 5.9470
 3.5490	 5.9370
 3.5520	 5.8320
 3.5540	 5.7100
 3.5570	 5.6480
 3.5590	 5.8080
 3.5610	 5.7900
 3.5640	 5.6260
 3.5660	 5.6350
 3.5690	 5.6430
 3.5710	 5.6450
 3.5740	 5.7700
 3.5760	 5.8910
 3.5790	 5.8560
 3.5810	 5.7340
 3.5840	 5.8340
 3.5860	 5.9760
 3.5890	 5.8380
 3.5910	 5.6750
 3.5930	 5.7470
 3.5960	 5.6750
 3.5980	 5.6020
 3.6010	 5.6550
 3.6030	 5.6460
 3.6060	 5.6210
 3.6080	 5.6190
 3.6110	 5.6790
 3.6140	 5.6740
 3.6160	 5.5910
 3.6190	 5.6730
 3.6210	 5.6150
 3.6240	 5.6280
 3.6260	 5.6970
 3.6290	 5.6360
 3.6310	 5.6260
 3.6340	 5.7020
 3.6360	 5.6410
 3.6390	 5.7390
 3.6410	 5.7450
 3.6440	 5.6530
 3.6470	 5.5780
 3.6490	 5.5080
 3.6520	 5.4590
 3.6540	 5.5980
 3.6570	 5.6190
 3.6590	 5.5780
 3.6620	 5.5620
 3.6650	 5.6010
 3.6670	 5.5640
 3.6700	 5.5230
 3.6720	 5.5010
 3.6750	 5.5320
 3.6780	 5.5000
 3.6800	 5.5200
 3.6830	 5.5060
 3.6850	 5.5060
 3.6880	 5.4350
 3.6910	 5.4140
 3.6930	 5.3980
 3.6960	 5.4820
 3.6990	 5.5350
 3.7010	 5.5520
 3.7040	 5.5250
 3.7060	 5.5500
 3.7090	 5.5240
 3.7120	 5.5190
 3.7140	 5.5150
 3.7170	 5.5370
 3.7200	 5.5110
 3.7220	 5.4510
 3.7250	 5.4250
 3.7280	 5.3460
 3.7300	 5.4150
 3.7330	 5.5610
 3.7360	 5.5690
 3.7390	 5.4720
 3.7410	 5.3870
 3.7440	 5.4270
 3.7470	 5.4170
 3.7490	 5.4030
 3.7520	 5.4510
 3.7550	 5.4770
 3.7580	 5.5080
 3.7600	 5.5640
 3.7630	 5.4970
 3.7660	 5.5110
 3.7680	 5.5490
 3.7710	 5.5250
 3.7740	 5.4930
 3.7770	 5.5560
 3.7790	 5.5340
 3.7820	 5.5000
 3.7850	 5.4490
 3.7880	 5.5420
 3.7900	 5.6020
 3.7930	 5.6230
 3.7960	 5.5470
 3.7990	 5.5360
 3.8020	 5.5200
 3.8040	 5.4880
 3.8070	 5.4440
 3.8100	 5.4490
 3.8130	 5.4720
 3.8160	 5.5280
 3.8180	 5.5210
 3.8210	 5.5490
 3.8240	 5.4950
 3.8270	 5.4380
 3.8300	 5.4180
 3.8330	 5.5460
 3.8350	 5.5960
 3.8380	 5.6360
 3.8410	 5.6160
 3.8440	 5.5630
 3.8470	 5.5100
 3.8500	 5.4850
 3.8520	 5.4690
 3.8550	 5.5010
 3.8580	 5.4350
 3.8610	 5.4000
 3.8640	 5.3870
 3.8670	 5.4880
 3.8700	 5.5970
 3.8730	 5.5880
 3.8750	 5.4700
 3.8780	 5.4050
 3.8810	 5.4470
 3.8840	 5.5590
 3.8870	 5.5680
 3.8900	 5.5290
 3.8930	 5.4750
 3.8960	 5.5920
 3.8990	 5.5850
 3.9020	 5.5160
 3.9050	 5.4860
 3.9080	 5.5220
 3.9110	 5.5030
 3.9140	 5.4290
 3.9160	 5.4200
 3.9190	 5.5080
 3.9220	 5.5140
 3.9250	 5.5020
 3.9280	 5.4830
 3.9310	 5.5130
 3.9340	 5.5100
 3.9370	 5.5540
 3.9400	 5.5330
 3.9430	 5.5590
 3.9460	 5.6020
 3.9490	 5.6320
 3.9520	 5.5400
 3.9550	 5.5550
 3.9580	 5.5450
 3.9610	 5.5290
 3.9640	 5.4990
 3.9670	 5.4910
 3.9700	 5.5430
 3.9730	 5.5260
 3.9770	 5.5370
 3.9800	 5.6320
 3.9830	 5.5320
 3.9860	 5.4840
 3.9890	 5.4900
 3.9920	 5.5460
 3.9950	 5.6190
 3.9980	 5.5980
 4.0010	 5.5280
 4.0040	 5.5160
 4.0070	 5.4660
 4.0100	 5.5420
 4.0130	 5.6760
 4.0170	 5.6500
 4.0200	 5.5650
 4.0230	 5.5900
 4.0260	 5.5510
 4.0290	 5.5630
 4.0320	 5.5940
 4.0350	 5.6070
 4.0380	 5.5160
 4.0420	 5.5560
 4.0450	 5.5740
 4.0480	 5.5410
 4.0510	 5.5930
 4.0540	 5.5630
 4.0570	 5.5110
 4.0610	 5.4230
 4.0640	 5.2990
 4.0670	 5.3580
 4.0700	 5.4670
 4.0730	 5.5060
 4.0770	 5.5520
 4.0800	 5.5670
 4.0830	 5.4760
 4.0860	 5.5120
 4.0890	 5.5310
 4.0930	 5.4900
 4.0960	 5.5620
 4.0990	 5.6010
 4.1020	 5.5930
 4.1060	 5.6110
 4.1090	 5.4870
 4.1120	 5.5030
 4.1150	 5.6900
 4.1190	 5.6610
 4.1220	 5.4700
 4.1250	 5.5040
 4.1280	 5.5410
 4.1320	 5.5660
 4.1350	 5.5630
 4.1380	 5.6270
 4.1420	 5.6580
 4.1450	 5.6100
 4.1480	 5.5440
 4.1520	 5.4920
 4.1550	 5.4820
 4.1580	 5.5120
 4.1620	 5.5010
 4.1650	 5.4550
 4.1680	 5.4080
 4.1720	 5.4640
 4.1750	 5.4670
 4.1780	 5.4960
 4.1820	 5.5980
 4.1850	 5.6670
 4.1890	 5.5710
 4.1920	 5.5020
 4.1950	 5.5360
 4.1990	 5.5740
 4.2020	 5.6870
 4.2060	 5.7480
 4.2090	 5.7180
 4.2120	 5.6620
 4.2160	 5.7940
 4.2190	 5.8490
 4.2230	 5.6540
 4.2260	 5.6490
 4.2300	 5.8520
 4.2330	 5.8120
 4.2360	 5.4990
 4.2400	 5.7310
 4.2430	 5.8160
 4.2470	 5.6250
 4.2500	 5.6050
 4.2540	 5.6710
 4.2570	 5.7560
 4.2610	 5.8330
 4.2640	 5.7790
 4.2680	 5.7730
 4.2710	 5.9650
 4.2750	 5.8860
 4.2780	 5.6340
 4.2820	 5.7760
 4.2850	 5.8050
 4.2890	 5.5440
 4.2930	 5.4800
 4.2960	 5.7590
 4.3000	 5.8720
 4.3030	 5.8520
 4.3070	 5.7430
 4.3100	 5.7250
 4.3140	 5.7650
 4.3180	 5.7110
 4.3210	 5.6060
 4.3250	 5.5240
 4.3280	 5.4600
 4.3320	 5.4550
 4.3360	 5.5330
 4.3390	 5.5800
 4.3430	 5.5570
 4.3470	 5.5980
 4.3500	 5.6090
 4.3540	 5.5670
 4.3570	 5.5850
 4.3610	 5.5650
 4.3650	 5.4660
 4.3680	 5.5230
 4.3720	 5.6080
 4.3760	 5.5260
 4.3800	 5.3970
 4.3830	 5.4020
 4.3870	 5.5180
 4.3910	 5.5800
 4.3940	 5.5810
 4.3980	 5.5300
 4.4020	 5.4890
 4.4060	 5.4510
 4.4090	 5.4020
 4.4130	 5.4370
 4.4170	 5.5200
 4.4210	 5.5380
 4.4240	 5.4140
 4.4280	 5.4070
 4.4320	 5.4780
 4.4360	 5.4780
 4.4400	 5.4950
 4.4430	 5.5580
 4.4470	 5.5200
 4.4510	 5.4580
 4.4550	 5.3680
 4.4590	 5.4000
 4.4620	 5.4630
 4.4660	 5.5010
 4.4700	 5.4860
 4.4740	 5.4770
 4.4780	 5.5160
 4.4820	 5.5560
 4.4860	 5.5950
 4.4900	 5.5430
 4.4930	 5.4700
 4.4970	 5.5100
 4.5010	 5.5420
 4.5050	 5.4920
 4.5090	 5.5010
 4.5130	 5.4940
 4.5170	 5.4770
 4.5210	 5.4470
 4.5250	 5.4160
 4.5290	 5.4360
 4.5330	 5.4070
 4.5370	 5.3410
 4.5410	 5.3730
 4.5450	 5.4940
 4.5490	 5.5360
 4.5530	 5.4770
 4.5570	 5.4200
 4.5610	 5.4470
 4.5650	 5.5020
 4.5690	 5.4760
 4.5730	 5.4930
 4.5770	 5.4520
 4.5810	 5.3840
 4.5850	 5.4030
 4.5890	 5.3480
 4.5930	 5.3050
 4.5970	 5.3640
 4.6010	 5.4220
 4.6050	 5.4780
 4.6090	 5.4430
 4.6130	 5.4220
 4.6170	 5.4570
 4.6220	 5.4470
 4.6260	 5.4130
 4.6300	 5.3830
 4.6340	 5.3780
 4.6380	 5.3770
 4.6420	 5.3260
 4.6460	 5.3770
 4.6510	 5.4760
 4.6550	 5.4440
 4.6590	 5.4360
 4.6630	 5.4840
 4.6670	 5.5150
 4.6720	 5.4730
 4.6760	 5.4720
 4.6800	 5.5250
 4.6840	 5.5240
 4.6880	 5.4990
 4.6930	 5.4760
 4.6970	 5.4430
 4.7010	 5.4090
 4.7050	 5.4630
 4.7100	 5.4600
 4.7140	 5.4020
 4.7180	 5.3890
 4.7230	 5.4470
 4.7270	 5.4870
 4.7310	 5.4750
 4.7360	 5.4790
 4.7400	 5.5550
 4.7440	 5.4920
 4.7490	 5.3820
 4.7530	 5.3170
 4.7570	 5.3430
 4.7620	 5.4690
 4.7660	 5.5040
 4.7700	 5.4060
 4.7750	 5.4190
 4.7790	 5.4380
 4.7840	 5.4820
 4.7880	 5.4690
 4.7920	 5.4400
 4.7970	 5.3940
 4.8010	 5.3980
 4.8060	 5.3970
 4.8100	 5.4440
 4.8150	 5.4900
 4.8190	 5.4930
 4.8240	 5.4450
 4.8280	 5.4080
 4.8330	 5.3790
 4.8370	 5.2890
 4.8420	 5.3020
 4.8460	 5.4130
 4.8510	 5.5070
 4.8550	 5.5320
 4.8600	 5.4580
 4.8640	 5.5050
 4.8690	 5.5300
 4.8730	 5.4890
 4.8780	 5.5030
 4.8830	 5.4580
 4.8870	 5.3760
 4.8920	 5.3760
 4.8960	 5.3060
 4.9010	 5.3060
 4.9060	 5.3970
 4.9100	 5.4900
 4.9150	 5.5270
 4.9200	 5.5010
 4.9240	 5.4170
 4.9290	 5.4340
 4.9340	 5.4340
 4.9380	 5.4760
 4.9430	 5.4580
 4.9480	 5.3400
 4.9530	 5.3660
 4.9570	 5.4390
 4.9620	 5.3950
 4.9670	 5.3770
 4.9720	 5.4300
 4.9760	 5.4600
 4.9810	 5.4360
 4.9860	 5.4670
 4.9910	 5.4320
 4.9960	 5.3790
 5.0000	 5.3600
 5.0050	 5.3750
 5.0100	 5.3930
 5.0150	 5.3270
 5.0200	 5.2760
 5.0250	 5.4450
 5.0290	 5.4660
 5.0340	 5.4400
 5.0390	 5.4530
 5.0440	 5.4010
 5.0490	 5.3360
 5.0540	 5.3100
 5.0590	 5.3230
 5.0640	 5.3470
 5.0690	 5.3640
 5.0740	 5.4560
 5.0790	 5.5340
 5.0840	 5.5490
 5.0890	 5.5430
 5.0940	 5.5270
 5.0990	 5.4670
 5.1040	 5.5150
 5.1090	 5.4830
 5.1140	 5.3420
 5.1190	 5.2570
 5.1240	 5.3770
 5.1290	 5.4600
 5.1340	 5.4830
 5.1390	 5.3880
 5.1440	 5.4050
 5.1490	 5.4250
 5.1540	 5.4240
 5.1600	 5.4510
 5.1650	 5.5400
 5.1700	 5.4980
 5.1750	 5.4520
 5.1800	 5.4070
 5.1850	 5.3910
 5.1910	 5.4640
 5.1960	 5.5400
 5.2010	 5.4590
 5.2060	 5.3930
 5.2110	 5.3810
 5.2170	 5.4350
 5.2220	 5.3930
 5.2270	 5.4400
 5.2320	 5.4510
 5.2380	 5.4460
 5.2430	 5.3930
 5.2480	 5.4220
 5.2540	 5.4450
 5.2590	 5.4700
 5.2640	 5.4160
 5.2700	 5.4470
 5.2750	 5.4250
 5.2800	 5.3940
 5.2860	 5.3670
 5.2910	 5.3850
 5.2970	 5.3330
 5.3020	 5.3790
 5.3070	 5.4420
 5.3130	 5.4690
 5.3180	 5.4180
 5.3240	 5.3190
 5.3290	 5.2770
 5.3350	 5.3210
 5.3400	 5.3570
 5.3460	 5.3700
 5.3510	 5.2930
 5.3570	 5.3430
 5.3620	 5.3720
 5.3680	 5.3250
 5.3730	 5.2680
 5.3790	 5.2580
 5.3850	 5.2690
 5.3900	 5.4180
 5.3960	 5.5560
 5.4010	 5.4720
 5.4070	 5.3430
 5.4130	 5.3720
 5.4180	 5.3630
 5.4240	 5.3770
 5.4300	 5.3780
 5.4350	 5.3680
