Name: Cedrus deodara
Type: vegetation
Class: Tree
Genus: Cedrus
Species: deodara
Sample No.: JPL103
Owner: JPL
Wavelength Range: TIR
Origin: 34.12803; - 118.11578; WGS84
Collection Date: 2/2/2016
Description: Samples were collected at the Huntington Garden in San Marino California as part of a JPL Subcontract studying HyTES imagery. Samples were taken to JPL and processed within 48 hours of collection. The same leaves were processed in the Nicolet and then measured using the ASD.
Measurement: Hemispherical reflectance
First Column: X
Second Column: Y
X Units: Wavelength (micrometer)
Y Units: Reflectance (percentage)
First X Value: 2.501
Last X Value: 15.387
Number of X Values: 1737
Additional Information: 

 2.5010	 5.2370
 2.5030	 5.1960
 2.5040	 5.2660
 2.5050	 5.3170
 2.5060	 5.3560
 2.5070	 5.3700
 2.5090	 5.3750
 2.5100	 5.3040
 2.5110	 5.2610
 2.5120	 5.2230
 2.5140	 5.2680
 2.5150	 5.2610
 2.5160	 5.2550
 2.5170	 5.2320
 2.5180	 5.2510
 2.5200	 5.1940
 2.5210	 5.1340
 2.5220	 5.1510
 2.5230	 5.2740
 2.5250	 5.3060
 2.5260	 5.3190
 2.5270	 5.2830
 2.5280	 5.2970
 2.5300	 5.2310
 2.5310	 5.2190
 2.5320	 5.2350
 2.5330	 5.2540
 2.5340	 5.2080
 2.5360	 5.2060
 2.5370	 5.2330
 2.5380	 5.2900
 2.5390	 5.2910
 2.5410	 5.2940
 2.5420	 5.3200
 2.5430	 5.3180
 2.5440	 5.2610
 2.5460	 5.2410
 2.5470	 5.2230
 2.5480	 5.2510
 2.5490	 5.2740
 2.5510	 5.3630
 2.5520	 5.3650
 2.5530	 5.3070
 2.5540	 5.1960
 2.5560	 5.1960
 2.5570	 5.2360
 2.5580	 5.2910
 2.5590	 5.3330
 2.5610	 5.3310
 2.5620	 5.3150
 2.5630	 5.3470
 2.5650	 5.3510
 2.5660	 5.4040
 2.5670	 5.3380
 2.5680	 5.3560
 2.5700	 5.3550
 2.5710	 5.3230
 2.5720	 5.3090
 2.5730	 5.3410
 2.5750	 5.3180
 2.5760	 5.3180
 2.5770	 5.3000
 2.5790	 5.3000
 2.5800	 5.2600
 2.5810	 5.2560
 2.5820	 5.2340
 2.5840	 5.2870
 2.5850	 5.3380
 2.5860	 5.3670
 2.5880	 5.3440
 2.5890	 5.3190
 2.5900	 5.2470
 2.5910	 5.2830
 2.5930	 5.3410
 2.5940	 5.3450
 2.5950	 5.2170
 2.5970	 5.2540
 2.5980	 5.2820
 2.5990	 5.2730
 2.6010	 5.2600
 2.6020	 5.2630
 2.6030	 5.2490
 2.6040	 5.2630
 2.6060	 5.2050
 2.6070	 5.2000
 2.6080	 5.1650
 2.6100	 5.2090
 2.6110	 5.1970
 2.6120	 5.1750
 2.6140	 5.1710
 2.6150	 5.2240
 2.6160	 5.2180
 2.6180	 5.1740
 2.6190	 5.1540
 2.6200	 5.2140
 2.6220	 5.2110
 2.6230	 5.1510
 2.6240	 5.0570
 2.6260	 5.1220
 2.6270	 5.1660
 2.6280	 5.1040
 2.6300	 5.0950
 2.6310	 5.1900
 2.6320	 5.1650
 2.6340	 5.1260
 2.6350	 5.0340
 2.6360	 5.0210
 2.6380	 5.0310
 2.6390	 5.0080
 2.6400	 4.9520
 2.6420	 4.9790
 2.6430	 4.9700
 2.6440	 4.9730
 2.6460	 4.9660
 2.6470	 5.0200
 2.6480	 5.0330
 2.6500	 4.9670
 2.6510	 4.9070
 2.6520	 4.9190
 2.6540	 4.9130
 2.6550	 4.9680
 2.6570	 4.9530
 2.6580	 4.9640
 2.6590	 4.9370
 2.6610	 4.9180
 2.6620	 4.9390
 2.6630	 4.9660
 2.6650	 4.9520
 2.6660	 4.9480
 2.6670	 4.8650
 2.6690	 4.8690
 2.6700	 4.8920
 2.6720	 4.9260
 2.6730	 4.8920
 2.6740	 4.8990
 2.6760	 4.8450
 2.6770	 4.8200
 2.6780	 4.8220
 2.6800	 4.8260
 2.6810	 4.7660
 2.6830	 4.8170
 2.6840	 4.8460
 2.6850	 4.7900
 2.6870	 4.7070
 2.6880	 4.7140
 2.6900	 4.6800
 2.6910	 4.6960
 2.6920	 4.6880
 2.6940	 4.6840
 2.6950	 4.6370
 2.6970	 4.6330
 2.6980	 4.6650
 2.6990	 4.6790
 2.7010	 4.6300
 2.7020	 4.6470
 2.7040	 4.7120
 2.7050	 4.8070
 2.7060	 4.7040
 2.7080	 4.6270
 2.7090	 4.6270
 2.7110	 4.6950
 2.7120	 4.7020
 2.7130	 4.6850
 2.7150	 4.5900
 2.7160	 4.5750
 2.7180	 4.4880
 2.7190	 4.5240
 2.7210	 4.5870
 2.7220	 4.6030
 2.7230	 4.6080
 2.7250	 4.5880
 2.7260	 4.5240
 2.7280	 4.5010
 2.7290	 4.4870
 2.7310	 4.5510
 2.7320	 4.5510
 2.7340	 4.4620
 2.7350	 4.3930
 2.7360	 4.4520
 2.7380	 4.4670
 2.7390	 4.5250
 2.7410	 4.5440
 2.7420	 4.5820
 2.7440	 4.5320
 2.7450	 4.5250
 2.7470	 4.5280
 2.7480	 4.5180
 2.7490	 4.4520
 2.7510	 4.4620
 2.7520	 4.4220
 2.7540	 4.4070
 2.7550	 4.4200
 2.7570	 4.5260
 2.7580	 4.4970
 2.7600	 4.4630
 2.7610	 4.3750
 2.7630	 4.4090
 2.7640	 4.5250
 2.7660	 4.5210
 2.7670	 4.4350
 2.7690	 4.4970
 2.7700	 4.5160
 2.7720	 4.4890
 2.7730	 4.4440
 2.7740	 4.4790
 2.7760	 4.4720
 2.7770	 4.5150
 2.7790	 4.5150
 2.7800	 4.5890
 2.7820	 4.5390
 2.7830	 4.4910
 2.7850	 4.4880
 2.7860	 4.5230
 2.7880	 4.4790
 2.7890	 4.4880
 2.7910	 4.5060
 2.7920	 4.5170
 2.7940	 4.4270
 2.7950	 4.3710
 2.7970	 4.3780
 2.7980	 4.4670
 2.8000	 4.4780
 2.8010	 4.5220
 2.8030	 4.5470
 2.8040	 4.5290
 2.8060	 4.4830
 2.8080	 4.5150
 2.8090	 4.4640
 2.8110	 4.4580
 2.8120	 4.4360
 2.8140	 4.4980
 2.8150	 4.4940
 2.8170	 4.4880
 2.8180	 4.4070
 2.8200	 4.3990
 2.8210	 4.4060
 2.8230	 4.4520
 2.8240	 4.4360
 2.8260	 4.4260
 2.8270	 4.4350
 2.8290	 4.4910
 2.8310	 4.4630
 2.8320	 4.4280
 2.8340	 4.4190
 2.8350	 4.4730
 2.8370	 4.4700
 2.8380	 4.5110
 2.8400	 4.4660
 2.8410	 4.4820
 2.8430	 4.4530
 2.8440	 4.4400
 2.8460	 4.4200
 2.8480	 4.4410
 2.8490	 4.4570
 2.8510	 4.5100
 2.8520	 4.4420
 2.8540	 4.4100
 2.8550	 4.4080
 2.8570	 4.4500
 2.8590	 4.5010
 2.8600	 4.4950
 2.8620	 4.4240
 2.8630	 4.4220
 2.8650	 4.4080
 2.8660	 4.5040
 2.8680	 4.5090
 2.8700	 4.4930
 2.8710	 4.4350
 2.8730	 4.5110
 2.8740	 4.5360
 2.8760	 4.5060
 2.8780	 4.4950
 2.8790	 4.4740
 2.8810	 4.4550
 2.8820	 4.4910
 2.8840	 4.4560
 2.8860	 4.4810
 2.8870	 4.4950
 2.8890	 4.4670
 2.8900	 4.4750
 2.8920	 4.4860
 2.8940	 4.3910
 2.8950	 4.4120
 2.8970	 4.4330
 2.8990	 4.5060
 2.9000	 4.5520
 2.9020	 4.5380
 2.9030	 4.4750
 2.9050	 4.4660
 2.9070	 4.4740
 2.9080	 4.5170
 2.9100	 4.4690
 2.9120	 4.4860
 2.9130	 4.4790
 2.9150	 4.4530
 2.9160	 4.4350
 2.9180	 4.5000
 2.9200	 4.5470
 2.9210	 4.5490
 2.9230	 4.5020
 2.9250	 4.4930
 2.9260	 4.4440
 2.9280	 4.4420
 2.9300	 4.4000
 2.9310	 4.4450
 2.9330	 4.5060
 2.9350	 4.5360
 2.9360	 4.4870
 2.9380	 4.5010
 2.9400	 4.5110
 2.9410	 4.4990
 2.9430	 4.4980
 2.9450	 4.5330
 2.9460	 4.4930
 2.9480	 4.4760
 2.9500	 4.4680
 2.9510	 4.5190
 2.9530	 4.4940
 2.9550	 4.4710
 2.9560	 4.4360
 2.9580	 4.5160
 2.9600	 4.5270
 2.9610	 4.5220
 2.9630	 4.4720
 2.9650	 4.5110
 2.9670	 4.4810
 2.9680	 4.4850
 2.9700	 4.4790
 2.9720	 4.5030
 2.9730	 4.4610
 2.9750	 4.4770
 2.9770	 4.5320
 2.9780	 4.5620
 2.9800	 4.5040
 2.9820	 4.4840
 2.9840	 4.4560
 2.9850	 4.4960
 2.9870	 4.4600
 2.9890	 4.4800
 2.9900	 4.4610
 2.9920	 4.4380
 2.9940	 4.4420
 2.9960	 4.4680
 2.9970	 4.4400
 2.9990	 4.4990
 3.0010	 4.5210
 3.0030	 4.5310
 3.0040	 4.5560
 3.0060	 4.5490
 3.0080	 4.4490
 3.0100	 4.4080
 3.0110	 4.4000
 3.0130	 4.5040
 3.0150	 4.5130
 3.0170	 4.5370
 3.0180	 4.4420
 3.0200	 4.4080
 3.0220	 4.4210
 3.0240	 4.4520
 3.0250	 4.4820
 3.0270	 4.5140
 3.0290	 4.5280
 3.0310	 4.5510
 3.0320	 4.4930
 3.0340	 4.4570
 3.0360	 4.4220
 3.0380	 4.4000
 3.0400	 4.3650
 3.0410	 4.4240
 3.0430	 4.4430
 3.0450	 4.4540
 3.0470	 4.4470
 3.0480	 4.4160
 3.0500	 4.4020
 3.0520	 4.5010
 3.0540	 4.4840
 3.0560	 4.4900
 3.0570	 4.5010
 3.0590	 4.4940
 3.0610	 4.4540
 3.0630	 4.5150
 3.0650	 4.5010
 3.0670	 4.4470
 3.0680	 4.3960
 3.0700	 4.4310
 3.0720	 4.4730
 3.0740	 4.5000
 3.0760	 4.4490
 3.0770	 4.4590
 3.0790	 4.4360
 3.0810	 4.4440
 3.0830	 4.4730
 3.0850	 4.5110
 3.0870	 4.4900
 3.0880	 4.4830
 3.0900	 4.4620
 3.0920	 4.4880
 3.0940	 4.4680
 3.0960	 4.4600
 3.0980	 4.3750
 3.1000	 4.4370
 3.1010	 4.4690
 3.1030	 4.4310
 3.1050	 4.4250
 3.1070	 4.5080
 3.1090	 4.5000
 3.1110	 4.5200
 3.1130	 4.5040
 3.1140	 4.4930
 3.1160	 4.4680
 3.1180	 4.4440
 3.1200	 4.5000
 3.1220	 4.5360
 3.1240	 4.4430
 3.1260	 4.4360
 3.1280	 4.4800
 3.1290	 4.5200
 3.1310	 4.4910
 3.1330	 4.5220
 3.1350	 4.5200
 3.1370	 4.5500
 3.1390	 4.5030
 3.1410	 4.4560
 3.1430	 4.3710
 3.1450	 4.3900
 3.1470	 4.4500
 3.1480	 4.4860
 3.1500	 4.4180
 3.1520	 4.4050
 3.1540	 4.4480
 3.1560	 4.4480
 3.1580	 4.4160
 3.1600	 4.4740
 3.1620	 4.4940
 3.1640	 4.4640
 3.1660	 4.4520
 3.1680	 4.4880
 3.1700	 4.4340
 3.1720	 4.4340
 3.1730	 4.4760
 3.1750	 4.4640
 3.1770	 4.4490
 3.1790	 4.5130
 3.1810	 4.4870
 3.1830	 4.4440
 3.1850	 4.4110
 3.1870	 4.4010
 3.1890	 4.4080
 3.1910	 4.4280
 3.1930	 4.4510
 3.1950	 4.4760
 3.1970	 4.3760
 3.1990	 4.3910
 3.2010	 4.4190
 3.2030	 4.4290
 3.2050	 4.4010
 3.2070	 4.4260
 3.2090	 4.3960
 3.2110	 4.4100
 3.2130	 4.4580
 3.2150	 4.4800
 3.2170	 4.3770
 3.2190	 4.3450
 3.2210	 4.4080
 3.2230	 4.4550
 3.2250	 4.4410
 3.2270	 4.4350
 3.2290	 4.4330
 3.2310	 4.4440
 3.2330	 4.4070
 3.2350	 4.4190
 3.2370	 4.3810
 3.2390	 4.3550
 3.2410	 4.3130
 3.2430	 4.3110
 3.2450	 4.3520
 3.2470	 4.3690
 3.2490	 4.3730
 3.2510	 4.4410
 3.2530	 4.4310
 3.2550	 4.3880
 3.2570	 4.3560
 3.2590	 4.3970
 3.2610	 4.3970
 3.2630	 4.3840
 3.2650	 4.4120
 3.2670	 4.4250
 3.2700	 4.3760
 3.2720	 4.3900
 3.2740	 4.4150
 3.2760	 4.4410
 3.2780	 4.4030
 3.2800	 4.4020
 3.2820	 4.3860
 3.2840	 4.3560
 3.2860	 4.2840
 3.2880	 4.3110
 3.2900	 4.3260
 3.2920	 4.3560
 3.2940	 4.3630
 3.2970	 4.3840
 3.2990	 4.3800
 3.3010	 4.3990
 3.3030	 4.3600
 3.3050	 4.3410
 3.3070	 4.3350
 3.3090	 4.3660
 3.3110	 4.3580
 3.3130	 4.3660
 3.3160	 4.3360
 3.3180	 4.3240
 3.3200	 4.3350
 3.3220	 4.3500
 3.3240	 4.3190
 3.3260	 4.3140
 3.3280	 4.3080
 3.3300	 4.3390
 3.3330	 4.3410
 3.3350	 4.3360
 3.3370	 4.2650
 3.3390	 4.2460
 3.3410	 4.2220
 3.3430	 4.2080
 3.3450	 4.2120
 3.3480	 4.2660
 3.3500	 4.2890
 3.3520	 4.2690
 3.3540	 4.2530
 3.3560	 4.2790
 3.3580	 4.2290
 3.3610	 4.1920
 3.3630	 4.1650
 3.3650	 4.1820
 3.3670	 4.1550
 3.3690	 4.1390
 3.3720	 4.1110
 3.3740	 4.1100
 3.3760	 4.1150
 3.3780	 4.1220
 3.3800	 4.0940
 3.3830	 4.0980
 3.3850	 4.1030
 3.3870	 4.0910
 3.3890	 4.0180
 3.3910	 4.0350
 3.3940	 4.0290
 3.3960	 4.0040
 3.3980	 3.9970
 3.4000	 3.9990
 3.4030	 3.9460
 3.4050	 3.9370
 3.4070	 3.9490
 3.4090	 3.9480
 3.4110	 3.9130
 3.4140	 3.9930
 3.4160	 4.0740
 3.4180	 4.1550
 3.4200	 4.2830
 3.4230	 4.5160
 3.4250	 4.7790
 3.4270	 5.0440
 3.4300	 5.2320
 3.4320	 5.2930
 3.4340	 5.2020
 3.4360	 5.0740
 3.4390	 4.9830
 3.4410	 4.9170
 3.4430	 4.8690
 3.4450	 4.8820
 3.4480	 4.8290
 3.4500	 4.7980
 3.4520	 4.7620
 3.4550	 4.7700
 3.4570	 4.7660
 3.4590	 4.7420
 3.4620	 4.7280
 3.4640	 4.7250
 3.4660	 4.6750
 3.4690	 4.6660
 3.4710	 4.6280
 3.4730	 4.5770
 3.4760	 4.5400
 3.4780	 4.5690
 3.4800	 4.5500
 3.4830	 4.5270
 3.4850	 4.4830
 3.4870	 4.4640
 3.4900	 4.4150
 3.4920	 4.4040
 3.4940	 4.3650
 3.4970	 4.3010
 3.4990	 4.2250
 3.5010	 4.2570
 3.5040	 4.3240
 3.5060	 4.5650
 3.5080	 4.9580
 3.5110	 5.2890
 3.5130	 5.3260
 3.5160	 5.2200
 3.5180	 5.1360
 3.5200	 5.0960
 3.5230	 4.9560
 3.5250	 4.9080
 3.5280	 4.8840
 3.5300	 4.8840
 3.5320	 4.8340
 3.5350	 4.7780
 3.5370	 4.8010
 3.5400	 4.8350
 3.5420	 4.8050
 3.5440	 4.8080
 3.5470	 4.7790
 3.5490	 4.7330
 3.5520	 4.7210
 3.5540	 4.7930
 3.5570	 4.8240
 3.5590	 4.8080
 3.5610	 4.7590
 3.5640	 4.7250
 3.5660	 4.7120
 3.5690	 4.7270
 3.5710	 4.6840
 3.5740	 4.6650
 3.5760	 4.6810
 3.5790	 4.6970
 3.5810	 4.7210
 3.5840	 4.7760
 3.5860	 4.7720
 3.5890	 4.7330
 3.5910	 4.6850
 3.5940	 4.6700
 3.5960	 4.6910
 3.5990	 4.7360
 3.6010	 4.6950
 3.6040	 4.6450
 3.6060	 4.6210
 3.6090	 4.6390
 3.6110	 4.6400
 3.6140	 4.6420
 3.6160	 4.6450
 3.6190	 4.6720
 3.6210	 4.6520
 3.6240	 4.6360
 3.6260	 4.6270
 3.6290	 4.6350
 3.6310	 4.6220
 3.6340	 4.6090
 3.6360	 4.5920
 3.6390	 4.6330
 3.6410	 4.6470
 3.6440	 4.6510
 3.6470	 4.6260
 3.6490	 4.5950
 3.6520	 4.5720
 3.6540	 4.5940
 3.6570	 4.6420
 3.6590	 4.6650
 3.6620	 4.6130
 3.6650	 4.6110
 3.6670	 4.6270
 3.6700	 4.6700
 3.6720	 4.6380
 3.6750	 4.6080
 3.6780	 4.6040
 3.6800	 4.6140
 3.6830	 4.6260
 3.6850	 4.6320
 3.6880	 4.6150
 3.6910	 4.6470
 3.6930	 4.6740
 3.6960	 4.6720
 3.6990	 4.6140
 3.7010	 4.6210
 3.7040	 4.6330
 3.7070	 4.6320
 3.7090	 4.6200
 3.7120	 4.5980
 3.7150	 4.6050
 3.7170	 4.6420
 3.7200	 4.6350
 3.7230	 4.6380
 3.7250	 4.6470
 3.7280	 4.6890
 3.7310	 4.6750
 3.7330	 4.6490
 3.7360	 4.6180
 3.7390	 4.6470
 3.7410	 4.6960
 3.7440	 4.6960
 3.7470	 4.6260
 3.7490	 4.5840
 3.7520	 4.5780
 3.7550	 4.6100
 3.7580	 4.6410
 3.7600	 4.6620
 3.7630	 4.6560
 3.7660	 4.6590
 3.7690	 4.6460
 3.7710	 4.6600
 3.7740	 4.6560
 3.7770	 4.6570
 3.7790	 4.6620
 3.7820	 4.6910
 3.7850	 4.6790
 3.7880	 4.6730
 3.7910	 4.6670
 3.7930	 4.6880
 3.7960	 4.6650
 3.7990	 4.6450
 3.8020	 4.6190
 3.8040	 4.6240
 3.8070	 4.6370
 3.8100	 4.6400
 3.8130	 4.6160
 3.8160	 4.6350
 3.8180	 4.6690
 3.8210	 4.6580
 3.8240	 4.6610
 3.8270	 4.6940
 3.8300	 4.6420
 3.8330	 4.6170
 3.8350	 4.6160
 3.8380	 4.6430
 3.8410	 4.6570
 3.8440	 4.6270
 3.8470	 4.6120
 3.8500	 4.6740
 3.8520	 4.7120
 3.8550	 4.6960
 3.8580	 4.6800
 3.8610	 4.7030
 3.8640	 4.6520
 3.8670	 4.6030
 3.8700	 4.6200
 3.8730	 4.6750
 3.8760	 4.6780
 3.8780	 4.6600
 3.8810	 4.6640
 3.8840	 4.6610
 3.8870	 4.6550
 3.8900	 4.6640
 3.8930	 4.6500
 3.8960	 4.6400
 3.8990	 4.6330
 3.9020	 4.6420
 3.9050	 4.6550
 3.9080	 4.6820
 3.9110	 4.6680
 3.9140	 4.6250
 3.9170	 4.6490
 3.9190	 4.6640
 3.9220	 4.6510
 3.9250	 4.6720
 3.9280	 4.6810
 3.9310	 4.6920
 3.9340	 4.6880
 3.9370	 4.6630
 3.9400	 4.6430
 3.9430	 4.6270
 3.9460	 4.6150
 3.9490	 4.6330
 3.9520	 4.6790
 3.9550	 4.6780
 3.9580	 4.6320
 3.9610	 4.6200
 3.9640	 4.6490
 3.9670	 4.6730
 3.9700	 4.6610
 3.9740	 4.6640
 3.9770	 4.6450
 3.9800	 4.6580
 3.9830	 4.7010
 3.9860	 4.6860
 3.9890	 4.6670
 3.9920	 4.6670
 3.9950	 4.6390
 3.9980	 4.6520
 4.0010	 4.6830
 4.0040	 4.7020
 4.0070	 4.6910
 4.0100	 4.6790
 4.0140	 4.6650
 4.0170	 4.6630
 4.0200	 4.6660
 4.0230	 4.6610
 4.0260	 4.6810
 4.0290	 4.7070
 4.0320	 4.7010
 4.0350	 4.7030
 4.0390	 4.7020
 4.0420	 4.6950
 4.0450	 4.6560
 4.0480	 4.6550
 4.0510	 4.6540
 4.0540	 4.6480
 4.0570	 4.6480
 4.0610	 4.6570
 4.0640	 4.6730
 4.0670	 4.6830
 4.0700	 4.6920
 4.0730	 4.7280
 4.0770	 4.7190
 4.0800	 4.7160
 4.0830	 4.7220
 4.0860	 4.6890
 4.0890	 4.6700
 4.0930	 4.7160
 4.0960	 4.6960
 4.0990	 4.6780
 4.1020	 4.6910
 4.1060	 4.7160
 4.1090	 4.7140
 4.1120	 4.6780
 4.1150	 4.6400
 4.1190	 4.6380
 4.1220	 4.6430
 4.1250	 4.6530
 4.1290	 4.7200
 4.1320	 4.7310
 4.1350	 4.6900
 4.1380	 4.6700
 4.1420	 4.6590
 4.1450	 4.6710
 4.1480	 4.6830
 4.1520	 4.6890
 4.1550	 4.6760
 4.1580	 4.6520
 4.1620	 4.6650
 4.1650	 4.6880
 4.1680	 4.6910
 4.1720	 4.6770
 4.1750	 4.6790
 4.1780	 4.6960
 4.1820	 4.6920
 4.1850	 4.6730
 4.1890	 4.6720
 4.1920	 4.6830
 4.1950	 4.7100
 4.1990	 4.7400
 4.2020	 4.8040
 4.2060	 4.8420
 4.2090	 4.8340
 4.2120	 4.8180
 4.2160	 4.8040
 4.2190	 4.8030
 4.2230	 4.7960
 4.2260	 4.8370
 4.2300	 4.9900
 4.2330	 5.0680
 4.2360	 5.0130
 4.2400	 4.9770
 4.2430	 5.0260
 4.2470	 4.9940
 4.2500	 4.8830
 4.2540	 4.8640
 4.2570	 4.8410
 4.2610	 4.8900
 4.2640	 4.9630
 4.2680	 5.0050
 4.2710	 4.9540
 4.2750	 4.8460
 4.2780	 4.8030
 4.2820	 4.8170
 4.2850	 4.8170
 4.2890	 4.8270
 4.2930	 4.8720
 4.2960	 4.9030
 4.3000	 4.8630
 4.3030	 4.8240
 4.3070	 4.8430
 4.3100	 4.8360
 4.3140	 4.8270
 4.3180	 4.7930
 4.3210	 4.7320
 4.3250	 4.7300
 4.3280	 4.7350
 4.3320	 4.7470
 4.3360	 4.7510
 4.3390	 4.6950
 4.3430	 4.6840
 4.3470	 4.6800
 4.3500	 4.6700
 4.3540	 4.6570
 4.3580	 4.6480
 4.3610	 4.6780
 4.3650	 4.6860
 4.3690	 4.6750
 4.3720	 4.6830
 4.3760	 4.6900
 4.3800	 4.6550
 4.3830	 4.6210
 4.3870	 4.6030
 4.3910	 4.6110
 4.3940	 4.6230
 4.3980	 4.6250
 4.4020	 4.6730
 4.4060	 4.6550
 4.4090	 4.6360
 4.4130	 4.6150
 4.4170	 4.5740
 4.4210	 4.6090
 4.4240	 4.6180
 4.4280	 4.6150
 4.4320	 4.5980
 4.4360	 4.5910
 4.4400	 4.6320
 4.4430	 4.6440
 4.4470	 4.6380
 4.4510	 4.6660
 4.4550	 4.6530
 4.4590	 4.6040
 4.4630	 4.6150
 4.4660	 4.6530
 4.4700	 4.6570
 4.4740	 4.6310
 4.4780	 4.6230
 4.4820	 4.5900
 4.4860	 4.5660
 4.4900	 4.6080
 4.4930	 4.6250
 4.4970	 4.6110
 4.5010	 4.6330
 4.5050	 4.5980
 4.5090	 4.5880
 4.5130	 4.6060
 4.5170	 4.5850
 4.5210	 4.5600
 4.5250	 4.5760
 4.5290	 4.5780
 4.5330	 4.5900
 4.5370	 4.6090
 4.5410	 4.6210
 4.5450	 4.5930
 4.5490	 4.5940
 4.5530	 4.5850
 4.5570	 4.5880
 4.5610	 4.5810
 4.5650	 4.5890
 4.5690	 4.5880
 4.5730	 4.5840
 4.5770	 4.5660
 4.5810	 4.5850
 4.5850	 4.6170
 4.5890	 4.6000
 4.5930	 4.5660
 4.5970	 4.5770
 4.6010	 4.5750
 4.6050	 4.5740
 4.6090	 4.5610
 4.6130	 4.5950
 4.6170	 4.5850
 4.6220	 4.5700
 4.6260	 4.5890
 4.6300	 4.6000
 4.6340	 4.5890
 4.6380	 4.6220
 4.6420	 4.6130
 4.6460	 4.5750
 4.6510	 4.5600
 4.6550	 4.5870
 4.6590	 4.5760
 4.6630	 4.5850
 4.6670	 4.5940
 4.6720	 4.5690
 4.6760	 4.5370
 4.6800	 4.5230
 4.6840	 4.5360
 4.6880	 4.5660
 4.6930	 4.5340
 4.6970	 4.5360
 4.7010	 4.5580
 4.7050	 4.5760
 4.7100	 4.5950
 4.7140	 4.6260
 4.7180	 4.5960
 4.7230	 4.5500
 4.7270	 4.5710
 4.7310	 4.6360
 4.7360	 4.6380
 4.7400	 4.6020
 4.7440	 4.6140
 4.7490	 4.6190
 4.7530	 4.6070
 4.7570	 4.6190
 4.7620	 4.5720
 4.7660	 4.5580
 4.7700	 4.5490
 4.7750	 4.5410
 4.7790	 4.5690
 4.7840	 4.5850
 4.7880	 4.5530
 4.7920	 4.5750
 4.7970	 4.5660
 4.8010	 4.5530
 4.8060	 4.5650
 4.8100	 4.5790
 4.8150	 4.5810
 4.8190	 4.5820
 4.8240	 4.5500
 4.8280	 4.5500
 4.8330	 4.5760
 4.8370	 4.5890
 4.8420	 4.5700
 4.8460	 4.5680
 4.8510	 4.5650
 4.8550	 4.5780
 4.8600	 4.5710
 4.8640	 4.5630
 4.8690	 4.5260
 4.8740	 4.5620
 4.8780	 4.6010
 4.8830	 4.5870
 4.8870	 4.5570
 4.8920	 4.5800
 4.8970	 4.5850
 4.9010	 4.6080
 4.9060	 4.5860
 4.9100	 4.5710
 4.9150	 4.5560
 4.9200	 4.5730
 4.9240	 4.5800
 4.9290	 4.6050
 4.9340	 4.6060
 4.9390	 4.6100
 4.9430	 4.5830
 4.9480	 4.5900
 4.9530	 4.5890
 4.9570	 4.6330
 4.9620	 4.6150
 4.9670	 4.5890
 4.9720	 4.5680
 4.9760	 4.5860
 4.9810	 4.6090
 4.9860	 4.6070
 4.9910	 4.5810
 4.9960	 4.5990
 5.0000	 4.5860
 5.0050	 4.5870
 5.0100	 4.6080
 5.0150	 4.6170
 5.0200	 4.6140
 5.0250	 4.6220
 5.0300	 4.5970
 5.0340	 4.6220
 5.0390	 4.6020
 5.0440	 4.6130
 5.0490	 4.5960
 5.0540	 4.5860
 5.0590	 4.5620
 5.0640	 4.5840
 5.0690	 4.5950
 5.0740	 4.6180
 5.0790	 4.6170
 5.0840	 4.5920
 5.0890	 4.5800
 5.0940	 4.6160
 5.0990	 4.6070
 5.1040	 4.6020
 5.1090	 4.6230
 5.1140	 4.6490
 5.1190	 4.6440
 5.1240	 4.6530
 5.1290	 4.6130
 5.1340	 4.5860
 5.1390	 4.5750
 5.1440	 4.6050
 5.1490	 4.6150
 5.1550	 4.6510
 5.1600	 4.6540
 5.1650	 4.6280
 5.1700	 4.5670
 5.1750	 4.5710
 5.1800	 4.6110
 5.1850	 4.6440
 5.1910	 4.6210
 5.1960	 4.6220
 5.2010	 4.5790
 5.2060	 4.5340
 5.2110	 4.5600
 5.2170	 4.6260
 5.2220	 4.6060
 5.2270	 4.6080
 5.2330	 4.5910
 5.2380	 4.6020
 5.2430	 4.6330
 5.2480	 4.6350
 5.2540	 4.6050
 5.2590	 4.6150
 5.2640	 4.5790
 5.2700	 4.5710
 5.2750	 4.5960
 5.2800	 4.6090
 5.2860	 4.5810
 5.2910	 4.5650
 5.2970	 4.5550
 5.3020	 4.6120
 5.3080	 4.6170
 5.3130	 4.5900
 5.3180	 4.5610
 5.3240	 4.6140
 5.3290	 4.6070
 5.3350	 4.5990
 5.3400	 4.6130
 5.3460	 4.6410
 5.3510	 4.6240
 5.3570	 4.6200
 5.3620	 4.5710
 5.3680	 4.5290
 5.3740	 4.5370
 5.3790	 4.5820
 5.3850	 4.5820
 5.3900	 4.5660
 5.3960	 4.5530
 5.4010	 4.5700
 5.4070	 4.5480
 5.4130	 4.5780
 5.4180	 4.5360
 5.4240	 4.5160
 5.4300	 4.4870
 5.4350	 4.5120
 5.4410	 4.4890
 5.4470	 4.4750
 5.4530	 4.4550
 5.4580	 4.5050
 5.4640	 4.5400
 5.4700	 4.5380
 5.4760	 4.5290
 5.4810	 4.5510
 5.4870	 4.5060
 5.4930	 4.4920
 5.4990	 4.4740
 5.5050	 4.4880
 5.5110	 4.4600
