Name: Cedrus atlantica
Type: vegetation
Class: Tree
Genus: Cedrus
Species: atlantica
Sample No.: JPL109
Owner: JPL
Wavelength Range: VSWIR
Origin: 34.12899; -118.11297;; WGS84
Collection Date: 9/7/2016
Description: Samples were collected at the Huntington Garden in San Marino California as part of a JPL Subcontract studying HyTES imagery. Samples were taken to JPL and processed within 48 hours of collection. The same leaves were processed in the Nicolet and then measured using the ASD.
Measurement: Bidirectional reflectance
First Column: X
Second Column: Y
X Units: Wavelength (micrometer)
Y Units: Reflectance (percentage)
First X Value: 0.35
Last X Value: 2.5
Number of X Values: 2151
Additional Information: vegetation.tree.cedrus.atlantica.vswir.jpl109.jpl.asd.ancillary.txt

 0.3500	 7.0070
 0.3510	 6.9720
 0.3520	 6.9450
 0.3530	 6.8670
 0.3540	 6.7180
 0.3550	 6.7470
 0.3560	 6.7710
 0.3570	 6.7800
 0.3580	 6.8370
 0.3590	 6.8410
 0.3600	 6.7350
 0.3610	 6.5930
 0.3620	 6.6620
 0.3630	 6.7080
 0.3640	 6.7090
 0.3650	 6.6940
 0.3660	 6.6760
 0.3670	 6.6420
 0.3680	 6.6130
 0.3690	 6.6280
 0.3700	 6.6490
 0.3710	 6.6680
 0.3720	 6.6750
 0.3730	 6.6460
 0.3740	 6.6300
 0.3750	 6.6360
 0.3760	 6.6490
 0.3770	 6.6040
 0.3780	 6.5960
 0.3790	 6.6200
 0.3800	 6.5910
 0.3810	 6.6050
 0.3820	 6.6240
 0.3830	 6.6150
 0.3840	 6.6070
 0.3850	 6.6100
 0.3860	 6.6100
 0.3870	 6.5940
 0.3880	 6.6040
 0.3890	 6.6300
 0.3900	 6.6450
 0.3910	 6.6110
 0.3920	 6.6130
 0.3930	 6.6200
 0.3940	 6.6100
 0.3950	 6.6460
 0.3960	 6.6500
 0.3970	 6.6320
 0.3980	 6.6320
 0.3990	 6.6260
 0.4000	 6.6350
 0.4010	 6.6590
 0.4020	 6.6690
 0.4030	 6.6720
 0.4040	 6.6860
 0.4050	 6.7160
 0.4060	 6.7360
 0.4070	 6.7420
 0.4080	 6.7440
 0.4090	 6.7580
 0.4100	 6.7970
 0.4110	 6.8260
 0.4120	 6.8360
 0.4130	 6.8740
 0.4140	 6.9180
 0.4150	 6.9630
 0.4160	 7.0050
 0.4170	 7.0290
 0.4180	 7.0660
 0.4190	 7.1180
 0.4200	 7.1590
 0.4210	 7.2030
 0.4220	 7.2440
 0.4230	 7.2770
 0.4240	 7.3200
 0.4250	 7.3680
 0.4260	 7.4150
 0.4270	 7.4550
 0.4280	 7.4900
 0.4290	 7.5180
 0.4300	 7.5480
 0.4310	 7.6060
 0.4320	 7.6560
 0.4330	 7.6900
 0.4340	 7.7120
 0.4350	 7.7320
 0.4360	 7.7580
 0.4370	 7.7850
 0.4380	 7.8000
 0.4390	 7.8160
 0.4400	 7.8330
 0.4410	 7.8500
 0.4420	 7.8530
 0.4430	 7.8640
 0.4440	 7.8820
 0.4450	 7.8970
 0.4460	 7.9140
 0.4470	 7.9300
 0.4480	 7.9420
 0.4490	 7.9470
 0.4500	 7.9560
 0.4510	 7.9710
 0.4520	 7.9850
 0.4530	 7.9860
 0.4540	 7.9930
 0.4550	 8.0020
 0.4560	 7.9980
 0.4570	 7.9960
 0.4580	 8.0040
 0.4590	 8.0170
 0.4600	 8.0110
 0.4610	 8.0120
 0.4620	 8.0160
 0.4630	 8.0120
 0.4640	 8.0120
 0.4650	 8.0150
 0.4660	 8.0150
 0.4670	 8.0060
 0.4680	 8.0110
 0.4690	 8.0160
 0.4700	 8.0070
 0.4710	 8.0050
 0.4720	 8.0040
 0.4730	 8.0050
 0.4740	 8.0090
 0.4750	 8.0020
 0.4760	 8.0010
 0.4770	 8.0090
 0.4780	 8.0030
 0.4790	 8.0000
 0.4800	 8.0040
 0.4810	 8.0110
 0.4820	 8.0130
 0.4830	 8.0150
 0.4840	 8.0180
 0.4850	 8.0230
 0.4860	 8.0280
 0.4870	 8.0310
 0.4880	 8.0330
 0.4890	 8.0430
 0.4900	 8.0490
 0.4910	 8.0530
 0.4920	 8.0600
 0.4930	 8.0640
 0.4940	 8.0700
 0.4950	 8.0820
 0.4960	 8.0950
 0.4970	 8.1050
 0.4980	 8.1170
 0.4990	 8.1360
 0.5000	 8.1470
 0.5010	 8.1630
 0.5020	 8.1900
 0.5030	 8.2250
 0.5040	 8.2560
 0.5050	 8.2840
 0.5060	 8.3140
 0.5070	 8.3580
 0.5080	 8.4050
 0.5090	 8.4540
 0.5100	 8.5080
 0.5110	 8.5600
 0.5120	 8.6160
 0.5130	 8.6800
 0.5140	 8.7440
 0.5150	 8.8180
 0.5160	 8.8950
 0.5170	 8.9650
 0.5180	 9.0400
 0.5190	 9.1220
 0.5200	 9.2090
 0.5210	 9.2930
 0.5220	 9.3790
 0.5230	 9.4620
 0.5240	 9.5390
 0.5250	 9.6150
 0.5260	 9.6900
 0.5270	 9.7620
 0.5280	 9.8300
 0.5290	 9.8910
 0.5300	 9.9470
 0.5310	10.0000
 0.5320	10.0440
 0.5330	10.0900
 0.5340	10.1320
 0.5350	10.1650
 0.5360	10.1980
 0.5370	10.2300
 0.5380	10.2620
 0.5390	10.2960
 0.5400	10.3380
 0.5410	10.3890
 0.5420	10.4400
 0.5430	10.4800
 0.5440	10.5020
 0.5450	10.5050
 0.5460	10.4930
 0.5470	10.4720
 0.5480	10.4530
 0.5490	10.4430
 0.5500	10.4360
 0.5510	10.4330
 0.5520	10.4270
 0.5530	10.4150
 0.5540	10.3990
 0.5550	10.3770
 0.5560	10.3510
 0.5570	10.3250
 0.5580	10.2960
 0.5590	10.2590
 0.5600	10.2160
 0.5610	10.1790
 0.5620	10.1380
 0.5630	10.0930
 0.5640	10.0470
 0.5650	 9.9960
 0.5660	 9.9410
 0.5670	 9.8840
 0.5680	 9.8250
 0.5690	 9.7650
 0.5700	 9.7060
 0.5710	 9.6510
 0.5720	 9.5940
 0.5730	 9.5440
 0.5740	 9.5020
 0.5750	 9.4630
 0.5760	 9.4330
 0.5770	 9.4000
 0.5780	 9.3570
 0.5790	 9.3150
 0.5800	 9.2770
 0.5810	 9.2440
 0.5820	 9.2180
 0.5830	 9.1970
 0.5840	 9.1790
 0.5850	 9.1620
 0.5860	 9.1400
 0.5870	 9.1140
 0.5880	 9.0820
 0.5890	 9.0480
 0.5900	 9.0200
 0.5910	 9.0070
 0.5920	 9.0030
 0.5930	 8.9960
 0.5940	 8.9850
 0.5950	 8.9690
 0.5960	 8.9500
 0.5970	 8.9350
 0.5980	 8.9200
 0.5990	 8.9050
 0.6000	 8.8910
 0.6010	 8.8740
 0.6020	 8.8550
 0.6030	 8.8340
 0.6040	 8.8160
 0.6050	 8.7920
 0.6060	 8.7660
 0.6070	 8.7430
 0.6080	 8.7170
 0.6090	 8.6990
 0.6100	 8.6960
 0.6110	 8.7040
 0.6120	 8.6730
 0.6130	 8.6160
 0.6140	 8.5550
 0.6150	 8.5110
 0.6160	 8.4740
 0.6170	 8.4400
 0.6180	 8.4090
 0.6190	 8.3860
 0.6200	 8.3650
 0.6210	 8.3440
 0.6220	 8.3220
 0.6230	 8.3040
 0.6240	 8.2870
 0.6250	 8.2720
 0.6260	 8.2580
 0.6270	 8.2470
 0.6280	 8.2380
 0.6290	 8.2320
 0.6300	 8.2260
 0.6310	 8.2190
 0.6320	 8.2090
 0.6330	 8.1970
 0.6340	 8.1830
 0.6350	 8.1680
 0.6360	 8.1530
 0.6370	 8.1330
 0.6380	 8.1130
 0.6390	 8.0910
 0.6400	 8.0660
 0.6410	 8.0370
 0.6420	 8.0060
 0.6430	 7.9780
 0.6440	 7.9510
 0.6450	 7.9210
 0.6460	 7.8910
 0.6470	 7.8620
 0.6480	 7.8340
 0.6490	 7.8070
 0.6500	 7.7820
 0.6510	 7.7640
 0.6520	 7.7450
 0.6530	 7.7250
 0.6540	 7.7050
 0.6550	 7.6840
 0.6560	 7.6620
 0.6570	 7.6390
 0.6580	 7.6120
 0.6590	 7.5830
 0.6600	 7.5540
 0.6610	 7.5250
 0.6620	 7.4970
 0.6630	 7.4660
 0.6640	 7.4360
 0.6650	 7.4120
 0.6660	 7.3910
 0.6670	 7.3710
 0.6680	 7.3540
 0.6690	 7.3390
 0.6700	 7.3290
 0.6710	 7.3230
 0.6720	 7.3200
 0.6730	 7.3180
 0.6740	 7.3170
 0.6750	 7.3200
 0.6760	 7.3260
 0.6770	 7.3320
 0.6780	 7.3420
 0.6790	 7.3550
 0.6800	 7.3730
 0.6810	 7.3910
 0.6820	 7.4130
 0.6830	 7.4430
 0.6840	 7.4790
 0.6850	 7.5190
 0.6860	 7.5670
 0.6870	 7.6260
 0.6880	 7.6990
 0.6890	 7.7850
 0.6900	 7.8850
 0.6910	 8.0050
 0.6920	 8.1470
 0.6930	 8.3120
 0.6940	 8.4990
 0.6950	 8.7070
 0.6960	 8.9400
 0.6970	 9.1980
 0.6980	 9.4780
 0.6990	 9.7750
 0.7000	10.0910
 0.7010	10.4250
 0.7020	10.7740
 0.7030	11.1350
 0.7040	11.5090
 0.7050	11.8940
 0.7060	12.2910
 0.7070	12.6990
 0.7080	13.1160
 0.7090	13.5420
 0.7100	13.9800
 0.7110	14.4330
 0.7120	14.8980
 0.7130	15.3730
 0.7140	15.8580
 0.7150	16.3540
 0.7160	16.8610
 0.7170	17.3840
 0.7180	17.9180
 0.7190	18.4610
 0.7200	19.0140
 0.7210	19.5730
 0.7220	20.1380
 0.7230	20.7070
 0.7240	21.2810
 0.7250	21.8520
 0.7260	22.4200
 0.7270	22.9840
 0.7280	23.5390
 0.7290	24.0870
 0.7300	24.6260
 0.7310	25.1500
 0.7320	25.6630
 0.7330	26.1620
 0.7340	26.6460
 0.7350	27.1140
 0.7360	27.5650
 0.7370	27.9980
 0.7380	28.4140
 0.7390	28.8120
 0.7400	29.1890
 0.7410	29.5480
 0.7420	29.8900
 0.7430	30.2110
 0.7440	30.5160
 0.7450	30.8040
 0.7460	31.0720
 0.7470	31.3230
 0.7480	31.5580
 0.7490	31.7770
 0.7500	31.9800
 0.7510	32.1700
 0.7520	32.3450
 0.7530	32.5060
 0.7540	32.6570
 0.7550	32.7970
 0.7560	32.9250
 0.7570	33.0430
 0.7580	33.1500
 0.7590	33.2500
 0.7600	33.3420
 0.7610	33.4290
 0.7620	33.5100
 0.7630	33.5850
 0.7640	33.6550
 0.7650	33.7210
 0.7660	33.7810
 0.7670	33.8360
 0.7680	33.8870
 0.7690	33.9360
 0.7700	33.9830
 0.7710	34.0260
 0.7720	34.0680
 0.7730	34.1060
 0.7740	34.1430
 0.7750	34.1790
 0.7760	34.2110
 0.7770	34.2420
 0.7780	34.2740
 0.7790	34.3070
 0.7800	34.3360
 0.7810	34.3640
 0.7820	34.3900
 0.7830	34.4150
 0.7840	34.4410
 0.7850	34.4670
 0.7860	34.4900
 0.7870	34.5090
 0.7880	34.5280
 0.7890	34.5480
 0.7900	34.5710
 0.7910	34.5870
 0.7920	34.6050
 0.7930	34.6230
 0.7940	34.6380
 0.7950	34.6540
 0.7960	34.6690
 0.7970	34.6830
 0.7980	34.6940
 0.7990	34.7070
 0.8000	34.7200
 0.8010	34.7320
 0.8020	34.7420
 0.8030	34.7480
 0.8040	34.7540
 0.8050	34.7630
 0.8060	34.7750
 0.8070	34.7830
 0.8080	34.7870
 0.8090	34.7910
 0.8100	34.8000
 0.8110	34.8090
 0.8120	34.8130
 0.8130	34.8170
 0.8140	34.8190
 0.8150	34.8220
 0.8160	34.8290
 0.8170	34.8340
 0.8180	34.8380
 0.8190	34.8430
 0.8200	34.8480
 0.8210	34.8490
 0.8220	34.8520
 0.8230	34.8560
 0.8240	34.8580
 0.8250	34.8620
 0.8260	34.8640
 0.8270	34.8630
 0.8280	34.8670
 0.8290	34.8690
 0.8300	34.8690
 0.8310	34.8690
 0.8320	34.8680
 0.8330	34.8730
 0.8340	34.8800
 0.8350	34.8840
 0.8360	34.8850
 0.8370	34.8880
 0.8380	34.8950
 0.8390	34.9000
 0.8400	34.9100
 0.8410	34.9210
 0.8420	34.9300
 0.8430	34.9410
 0.8440	34.9510
 0.8450	34.9620
 0.8460	34.9740
 0.8470	34.9810
 0.8480	34.9900
 0.8490	35.0010
 0.8500	35.0140
 0.8510	35.0250
 0.8520	35.0320
 0.8530	35.0400
 0.8540	35.0550
 0.8550	35.0710
 0.8560	35.0840
 0.8570	35.0910
 0.8580	35.0990
 0.8590	35.1150
 0.8600	35.1360
 0.8610	35.1550
 0.8620	35.1700
 0.8630	35.1790
 0.8640	35.1880
 0.8650	35.2000
 0.8660	35.2180
 0.8670	35.2280
 0.8680	35.2380
 0.8690	35.2550
 0.8700	35.2740
 0.8710	35.2870
 0.8720	35.2980
 0.8730	35.3150
 0.8740	35.3310
 0.8750	35.3480
 0.8760	35.3620
 0.8770	35.3730
 0.8780	35.3860
 0.8790	35.4010
 0.8800	35.4180
 0.8810	35.4360
 0.8820	35.4510
 0.8830	35.4630
 0.8840	35.4740
 0.8850	35.4880
 0.8860	35.4990
 0.8870	35.5120
 0.8880	35.5290
 0.8890	35.5450
 0.8900	35.5570
 0.8910	35.5690
 0.8920	35.5840
 0.8930	35.5960
 0.8940	35.6060
 0.8950	35.6190
 0.8960	35.6330
 0.8970	35.6410
 0.8980	35.6510
 0.8990	35.6640
 0.9000	35.6800
 0.9010	35.6910
 0.9020	35.7010
 0.9030	35.7140
 0.9040	35.7260
 0.9050	35.7370
 0.9060	35.7440
 0.9070	35.7480
 0.9080	35.7590
 0.9090	35.7660
 0.9100	35.7720
 0.9110	35.7820
 0.9120	35.7870
 0.9130	35.7960
 0.9140	35.8060
 0.9150	35.8130
 0.9160	35.8140
 0.9170	35.8130
 0.9180	35.8120
 0.9190	35.8170
 0.9200	35.8240
 0.9210	35.8270
 0.9220	35.8250
 0.9230	35.8190
 0.9240	35.8120
 0.9250	35.8020
 0.9260	35.7920
 0.9270	35.7910
 0.9280	35.7780
 0.9290	35.7590
 0.9300	35.7440
 0.9310	35.7380
 0.9320	35.7150
 0.9330	35.6950
 0.9340	35.6840
 0.9350	35.6600
 0.9360	35.6360
 0.9370	35.6140
 0.9380	35.5890
 0.9390	35.5570
 0.9400	35.5380
 0.9410	35.5150
 0.9420	35.4770
 0.9430	35.4380
 0.9440	35.3980
 0.9450	35.3520
 0.9460	35.2990
 0.9470	35.2480
 0.9480	35.1960
 0.9490	35.1370
 0.9500	35.0710
 0.9510	35.0040
 0.9520	34.9300
 0.9530	34.8510
 0.9540	34.7710
 0.9550	34.7110
 0.9560	34.6390
 0.9570	34.5630
 0.9580	34.4980
 0.9590	34.4380
 0.9600	34.3770
 0.9610	34.3210
 0.9620	34.2780
 0.9630	34.2420
 0.9640	34.2100
 0.9650	34.1790
 0.9660	34.1470
 0.9670	34.1240
 0.9680	34.1050
 0.9690	34.0910
 0.9700	34.0850
 0.9710	34.0730
 0.9720	34.0580
 0.9730	34.0400
 0.9740	34.0230
 0.9750	34.0170
 0.9760	34.0210
 0.9770	34.0270
 0.9780	34.0260
 0.9790	34.0300
 0.9800	34.0310
 0.9810	34.0340
 0.9820	34.0460
 0.9830	34.0480
 0.9840	34.0610
 0.9850	34.0800
 0.9860	34.0930
 0.9870	34.1060
 0.9880	34.1270
 0.9890	34.1560
 0.9900	34.1870
 0.9910	34.2070
 0.9920	34.2250
 0.9930	34.2470
 0.9940	34.2750
 0.9950	34.3080
 0.9960	34.3440
 0.9970	34.3760
 0.9980	34.4010
 0.9990	34.4190
 1.0000	34.4510
 1.0010	35.9570
 1.0020	35.9890
 1.0030	36.0250
 1.0040	36.0560
 1.0050	36.0870
 1.0060	36.1220
 1.0070	36.1550
 1.0080	36.1900
 1.0090	36.2280
 1.0100	36.2640
 1.0110	36.3010
 1.0120	36.3370
 1.0130	36.3740
 1.0140	36.4090
 1.0150	36.4410
 1.0160	36.4760
 1.0170	36.5100
 1.0180	36.5430
 1.0190	36.5770
 1.0200	36.6120
 1.0210	36.6490
 1.0220	36.6870
 1.0230	36.7230
 1.0240	36.7600
 1.0250	36.7960
 1.0260	36.8320
 1.0270	36.8670
 1.0280	36.9010
 1.0290	36.9360
 1.0300	36.9700
 1.0310	37.0040
 1.0320	37.0400
 1.0330	37.0750
 1.0340	37.1080
 1.0350	37.1420
 1.0360	37.1750
 1.0370	37.2080
 1.0380	37.2390
 1.0390	37.2700
 1.0400	37.3000
 1.0410	37.3300
 1.0420	37.3600
 1.0430	37.3900
 1.0440	37.4190
 1.0450	37.4480
 1.0460	37.4740
 1.0470	37.4960
 1.0480	37.5200
 1.0490	37.5450
 1.0500	37.5680
 1.0510	37.5910
 1.0520	37.6140
 1.0530	37.6350
 1.0540	37.6510
 1.0550	37.6710
 1.0560	37.6890
 1.0570	37.7090
 1.0580	37.7330
 1.0590	37.7520
 1.0600	37.7680
 1.0610	37.7830
 1.0620	37.7930
 1.0630	37.8050
 1.0640	37.8190
 1.0650	37.8310
 1.0660	37.8430
 1.0670	37.8530
 1.0680	37.8620
 1.0690	37.8690
 1.0700	37.8770
 1.0710	37.8830
 1.0720	37.8890
 1.0730	37.8940
 1.0740	37.8980
 1.0750	37.9020
 1.0760	37.9050
 1.0770	37.9100
 1.0780	37.9120
 1.0790	37.9120
 1.0800	37.9110
 1.0810	37.9070
 1.0820	37.9060
 1.0830	37.9060
 1.0840	37.9050
 1.0850	37.9040
 1.0860	37.9030
 1.0870	37.9000
 1.0880	37.8960
 1.0890	37.8910
 1.0900	37.8860
 1.0910	37.8810
 1.0920	37.8760
 1.0930	37.8680
 1.0940	37.8590
 1.0950	37.8490
 1.0960	37.8360
 1.0970	37.8260
 1.0980	37.8190
 1.0990	37.8090
 1.1000	37.8000
 1.1010	37.7880
 1.1020	37.7730
 1.1030	37.7580
 1.1040	37.7430
 1.1050	37.7300
 1.1060	37.7160
 1.1070	37.7030
 1.1080	37.6880
 1.1090	37.6730
 1.1100	37.6580
 1.1110	37.6430
 1.1120	37.6250
 1.1130	37.6030
 1.1140	37.5820
 1.1150	37.5610
 1.1160	37.5360
 1.1170	37.5110
 1.1180	37.4810
 1.1190	37.4480
 1.1200	37.4100
 1.1210	37.3680
 1.1220	37.3260
 1.1230	37.2750
 1.1240	37.2210
 1.1250	37.1590
 1.1260	37.0920
 1.1270	37.0170
 1.1280	36.9370
 1.1290	36.8450
 1.1300	36.7460
 1.1310	36.6350
 1.1320	36.5130
 1.1330	36.3830
 1.1340	36.2420
 1.1350	36.0920
 1.1360	35.9340
 1.1370	35.7680
 1.1380	35.5950
 1.1390	35.4160
 1.1400	35.2310
 1.1410	35.0450
 1.1420	34.8530
 1.1430	34.6590
 1.1440	34.4680
 1.1450	34.2740
 1.1460	34.0860
 1.1470	33.8970
 1.1480	33.7180
 1.1490	33.5420
 1.1500	33.3790
 1.1510	33.2240
 1.1520	33.0770
 1.1530	32.9400
 1.1540	32.8120
 1.1550	32.6910
 1.1560	32.5820
 1.1570	32.4820
 1.1580	32.3910
 1.1590	32.3090
 1.1600	32.2340
 1.1610	32.1660
 1.1620	32.1040
 1.1630	32.0460
 1.1640	31.9930
 1.1650	31.9450
 1.1660	31.9010
 1.1670	31.8600
 1.1680	31.8240
 1.1690	31.7890
 1.1700	31.7580
 1.1710	31.7280
 1.1720	31.7010
 1.1730	31.6730
 1.1740	31.6460
 1.1750	31.6190
 1.1760	31.5910
 1.1770	31.5620
 1.1780	31.5340
 1.1790	31.5040
 1.1800	31.4740
 1.1810	31.4430
 1.1820	31.4120
 1.1830	31.3820
 1.1840	31.3530
 1.1850	31.3240
 1.1860	31.2960
 1.1870	31.2690
 1.1880	31.2430
 1.1890	31.2180
 1.1900	31.1940
 1.1910	31.1710
 1.1920	31.1510
 1.1930	31.1310
 1.1940	31.1140
 1.1950	31.0990
 1.1960	31.0840
 1.1970	31.0720
 1.1980	31.0630
 1.1990	31.0570
 1.2000	31.0530
 1.2010	31.0530
 1.2020	31.0560
 1.2030	31.0630
 1.2040	31.0730
 1.2050	31.0860
 1.2060	31.1020
 1.2070	31.1210
 1.2080	31.1430
 1.2090	31.1680
 1.2100	31.1970
 1.2110	31.2280
 1.2120	31.2610
 1.2130	31.2970
 1.2140	31.3340
 1.2150	31.3750
 1.2160	31.4200
 1.2170	31.4670
 1.2180	31.5150
 1.2190	31.5660
 1.2200	31.6170
 1.2210	31.6680
 1.2220	31.7210
 1.2230	31.7740
 1.2240	31.8270
 1.2250	31.8800
 1.2260	31.9320
 1.2270	31.9820
 1.2280	32.0310
 1.2290	32.0800
 1.2300	32.1260
 1.2310	32.1720
 1.2320	32.2180
 1.2330	32.2630
 1.2340	32.3070
 1.2350	32.3500
 1.2360	32.3900
 1.2370	32.4270
 1.2380	32.4640
 1.2390	32.5010
 1.2400	32.5350
 1.2410	32.5700
 1.2420	32.6030
 1.2430	32.6350
 1.2440	32.6680
 1.2450	32.7000
 1.2460	32.7310
 1.2470	32.7590
 1.2480	32.7860
 1.2490	32.8110
 1.2500	32.8340
 1.2510	32.8580
 1.2520	32.8820
 1.2530	32.9050
 1.2540	32.9270
 1.2550	32.9470
 1.2560	32.9640
 1.2570	32.9800
 1.2580	32.9950
 1.2590	33.0090
 1.2600	33.0230
 1.2610	33.0350
 1.2620	33.0460
 1.2630	33.0550
 1.2640	33.0630
 1.2650	33.0690
 1.2660	33.0750
 1.2670	33.0800
 1.2680	33.0830
 1.2690	33.0860
 1.2700	33.0880
 1.2710	33.0880
 1.2720	33.0880
 1.2730	33.0860
 1.2740	33.0840
 1.2750	33.0810
 1.2760	33.0750
 1.2770	33.0650
 1.2780	33.0550
 1.2790	33.0420
 1.2800	33.0270
 1.2810	33.0120
 1.2820	32.9940
 1.2830	32.9740
 1.2840	32.9510
 1.2850	32.9250
 1.2860	32.8950
 1.2870	32.8630
 1.2880	32.8290
 1.2890	32.7930
 1.2900	32.7530
 1.2910	32.7100
 1.2920	32.6650
 1.2930	32.6160
 1.2940	32.5650
 1.2950	32.5100
 1.2960	32.4500
 1.2970	32.3870
 1.2980	32.3230
 1.2990	32.2540
 1.3000	32.1850
 1.3010	32.1130
 1.3020	32.0370
 1.3030	31.9590
 1.3040	31.8770
 1.3050	31.7920
 1.3060	31.7030
 1.3070	31.6110
 1.3080	31.5190
 1.3090	31.4230
 1.3100	31.3220
 1.3110	31.2180
 1.3120	31.1110
 1.3130	31.0010
 1.3140	30.8880
 1.3150	30.7730
 1.3160	30.6540
 1.3170	30.5320
 1.3180	30.4060
 1.3190	30.2770
 1.3200	30.1460
 1.3210	30.0110
 1.3220	29.8740
 1.3230	29.7350
 1.3240	29.5950
 1.3250	29.4530
 1.3260	29.3100
 1.3270	29.1640
 1.3280	29.0160
 1.3290	28.8660
 1.3300	28.7150
 1.3310	28.5630
 1.3320	28.4090
 1.3330	28.2550
 1.3340	28.1010
 1.3350	27.9470
 1.3360	27.7940
 1.3370	27.6410
 1.3380	27.4900
 1.3390	27.3410
 1.3400	27.1910
 1.3410	27.0450
 1.3420	26.9000
 1.3430	26.7580
 1.3440	26.6180
 1.3450	26.4800
 1.3460	26.3420
 1.3470	26.2090
 1.3480	26.0760
 1.3490	25.9470
 1.3500	25.8230
 1.3510	25.7000
 1.3520	25.5780
 1.3530	25.4580
 1.3540	25.3370
 1.3550	25.2160
 1.3560	25.0950
 1.3570	24.9720
 1.3580	24.8510
 1.3590	24.7260
 1.3600	24.5990
 1.3610	24.4700
 1.3620	24.3360
 1.3630	24.2000
 1.3640	24.0580
 1.3650	23.9100
 1.3660	23.7570
 1.3670	23.5960
 1.3680	23.4270
 1.3690	23.2500
 1.3700	23.0620
 1.3710	22.8660
 1.3720	22.6580
 1.3730	22.4380
 1.3740	22.2070
 1.3750	21.9610
 1.3760	21.7000
 1.3770	21.4240
 1.3780	21.1290
 1.3790	20.8200
 1.3800	20.4950
 1.3810	20.1530
 1.3820	19.8000
 1.3830	19.4340
 1.3840	19.0590
 1.3850	18.6720
 1.3860	18.2810
 1.3870	17.8780
 1.3880	17.4780
 1.3890	17.0740
 1.3900	16.6690
 1.3910	16.2700
 1.3920	15.8730
 1.3930	15.4800
 1.3940	15.0940
 1.3950	14.7110
 1.3960	14.3390
 1.3970	13.9780
 1.3980	13.6280
 1.3990	13.2960
 1.4000	12.9760
 1.4010	12.6680
 1.4020	12.3760
 1.4030	12.0950
 1.4040	11.8280
 1.4050	11.5770
 1.4060	11.3390
 1.4070	11.1160
 1.4080	10.9080
 1.4090	10.7110
 1.4100	10.5280
 1.4110	10.3560
 1.4120	10.1940
 1.4130	10.0450
 1.4140	 9.9050
 1.4150	 9.7760
 1.4160	 9.6580
 1.4170	 9.5470
 1.4180	 9.4440
 1.4190	 9.3480
 1.4200	 9.2580
 1.4210	 9.1750
 1.4220	 9.0960
 1.4230	 9.0250
 1.4240	 8.9590
 1.4250	 8.8970
 1.4260	 8.8410
 1.4270	 8.7890
 1.4280	 8.7410
 1.4290	 8.6970
 1.4300	 8.6560
 1.4310	 8.6190
 1.4320	 8.5860
 1.4330	 8.5550
 1.4340	 8.5270
 1.4350	 8.5020
 1.4360	 8.4800
 1.4370	 8.4610
 1.4380	 8.4440
 1.4390	 8.4300
 1.4400	 8.4170
 1.4410	 8.4060
 1.4420	 8.3960
 1.4430	 8.3880
 1.4440	 8.3820
 1.4450	 8.3770
 1.4460	 8.3740
 1.4470	 8.3720
 1.4480	 8.3710
 1.4490	 8.3710
 1.4500	 8.3720
 1.4510	 8.3750
 1.4520	 8.3780
 1.4530	 8.3820
 1.4540	 8.3880
 1.4550	 8.3940
 1.4560	 8.4020
 1.4570	 8.4110
 1.4580	 8.4210
 1.4590	 8.4330
 1.4600	 8.4470
 1.4610	 8.4630
 1.4620	 8.4810
 1.4630	 8.5020
 1.4640	 8.5240
 1.4650	 8.5480
 1.4660	 8.5750
 1.4670	 8.6050
 1.4680	 8.6370
 1.4690	 8.6710
 1.4700	 8.7070
 1.4710	 8.7440
 1.4720	 8.7840
 1.4730	 8.8250
 1.4740	 8.8700
 1.4750	 8.9160
 1.4760	 8.9640
 1.4770	 9.0140
 1.4780	 9.0650
