Name: Salvia leucophylla 2
Type: vegetation
Class: Shrub
Genus: Salvia
Species: leucophylla
Sample No.: VH288
Owner: UCSB
Wavelength Range: VSWIR
Origin: 34.698; -120.0477; WGS84
Collection Date: 11/2/2013
Description: Samples were collected as part of the HyspIRI Airborne Campaign. 48 individual plants were sampled in three times in 2013 - spring  summer  and fall. The name of the sample includes a 1  2  or 3 which references a different individual of the species. Samples were taken to JPL and processed within 48 hours of collection. The same leaves were processed in the Nicolet and then measured using the ASD.
Measurement: Bidirectional reflectance
First Column: X
Second Column: Y
X Units: Wavelength (micrometers)
Y Units: Reflectance (percentage)
First X Value: 0.35
Last X Value: 2.5
Number of X Values: 2151
Additional Information: vegetation.shrub.salvia.leucophylla.vswir.vh288.ucsb.asd.ancillary.txt

 0.3500	 8.7220
 0.3510	 9.0450
 0.3520	 9.1610
 0.3530	 9.0890
 0.3540	 9.0450
 0.3550	 9.3450
 0.3560	 9.3240
 0.3570	 9.1620
 0.3580	 9.3930
 0.3590	 9.6070
 0.3600	 9.6930
 0.3610	 9.6810
 0.3620	 9.7350
 0.3630	 9.9990
 0.3640	10.2280
 0.3650	10.1980
 0.3660	10.1170
 0.3670	10.2630
 0.3680	10.5180
 0.3690	10.5390
 0.3700	10.6560
 0.3710	10.8140
 0.3720	10.9580
 0.3730	11.1380
 0.3740	11.2460
 0.3750	11.3560
 0.3760	11.5520
 0.3770	11.6680
 0.3780	11.8800
 0.3790	12.1460
 0.3800	12.2480
 0.3810	12.4130
 0.3820	12.6590
 0.3830	12.9130
 0.3840	12.9850
 0.3850	13.0590
 0.3860	13.2110
 0.3870	13.4460
 0.3880	13.6350
 0.3890	13.7780
 0.3900	13.9080
 0.3910	14.0680
 0.3920	14.1670
 0.3930	14.2530
 0.3940	14.3880
 0.3950	14.6060
 0.3960	14.7670
 0.3970	14.8660
 0.3980	14.9720
 0.3990	15.1540
 0.4000	15.2850
 0.4010	15.3330
 0.4020	15.4060
 0.4030	15.5680
 0.4040	15.7200
 0.4050	15.7800
 0.4060	15.8520
 0.4070	15.9540
 0.4080	16.0620
 0.4090	16.1310
 0.4100	16.2000
 0.4110	16.3130
 0.4120	16.4460
 0.4130	16.4600
 0.4140	16.5340
 0.4150	16.6590
 0.4160	16.7660
 0.4170	16.8040
 0.4180	16.8700
 0.4190	16.9780
 0.4200	17.0540
 0.4210	17.1350
 0.4220	17.2140
 0.4230	17.2880
 0.4240	17.3870
 0.4250	17.4740
 0.4260	17.5480
 0.4270	17.6270
 0.4280	17.7060
 0.4290	17.7940
 0.4300	17.8890
 0.4310	17.9830
 0.4320	18.0730
 0.4330	18.1540
 0.4340	18.2260
 0.4350	18.3010
 0.4360	18.3750
 0.4370	18.4500
 0.4380	18.5290
 0.4390	18.6200
 0.4400	18.6950
 0.4410	18.7450
 0.4420	18.8070
 0.4430	18.8830
 0.4440	18.9650
 0.4450	19.0340
 0.4460	19.0820
 0.4470	19.1220
 0.4480	19.1700
 0.4490	19.2330
 0.4500	19.2810
 0.4510	19.3370
 0.4520	19.4150
 0.4530	19.4470
 0.4540	19.4900
 0.4550	19.5490
 0.4560	19.5950
 0.4570	19.6330
 0.4580	19.6780
 0.4590	19.7330
 0.4600	19.7760
 0.4610	19.8140
 0.4620	19.8550
 0.4630	19.8990
 0.4640	19.9480
 0.4650	19.9850
 0.4660	20.0150
 0.4670	20.0660
 0.4680	20.0920
 0.4690	20.1200
 0.4700	20.1700
 0.4710	20.2060
 0.4720	20.2390
 0.4730	20.2680
 0.4740	20.2900
 0.4750	20.3350
 0.4760	20.3680
 0.4770	20.3780
 0.4780	20.4090
 0.4790	20.4400
 0.4800	20.4660
 0.4810	20.4850
 0.4820	20.5090
 0.4830	20.5370
 0.4840	20.5680
 0.4850	20.6010
 0.4860	20.6270
 0.4870	20.6500
 0.4880	20.6750
 0.4890	20.7050
 0.4900	20.7440
 0.4910	20.7870
 0.4920	20.8260
 0.4930	20.8520
 0.4940	20.8870
 0.4950	20.9360
 0.4960	20.9780
 0.4970	21.0290
 0.4980	21.0880
 0.4990	21.1460
 0.5000	21.1890
 0.5010	21.2400
 0.5020	21.3090
 0.5030	21.3880
 0.5040	21.4480
 0.5050	21.5080
 0.5060	21.5850
 0.5070	21.6740
 0.5080	21.7670
 0.5090	21.8590
 0.5100	21.9480
 0.5110	22.0510
 0.5120	22.1610
 0.5130	22.2720
 0.5140	22.3880
 0.5150	22.5000
 0.5160	22.6110
 0.5170	22.7240
 0.5180	22.8520
 0.5190	22.9850
 0.5200	23.1170
 0.5210	23.2410
 0.5220	23.3630
 0.5230	23.4890
 0.5240	23.6190
 0.5250	23.7510
 0.5260	23.8780
 0.5270	23.9990
 0.5280	24.1180
 0.5290	24.2320
 0.5300	24.3480
 0.5310	24.4680
 0.5320	24.5840
 0.5330	24.6920
 0.5340	24.8010
 0.5350	24.9180
 0.5360	25.0230
 0.5370	25.1170
 0.5380	25.2070
 0.5390	25.3060
 0.5400	25.4100
 0.5410	25.5070
 0.5420	25.5920
 0.5430	25.6870
 0.5440	25.7720
 0.5450	25.8520
 0.5460	25.9340
 0.5470	26.0110
 0.5480	26.0910
 0.5490	26.1740
 0.5500	26.2490
 0.5510	26.3260
 0.5520	26.3990
 0.5530	26.4660
 0.5540	26.5340
 0.5550	26.6060
 0.5560	26.6770
 0.5570	26.7370
 0.5580	26.7860
 0.5590	26.8360
 0.5600	26.8860
 0.5610	26.9140
 0.5620	26.9600
 0.5630	27.0170
 0.5640	27.0620
 0.5650	27.0990
 0.5660	27.1260
 0.5670	27.1490
 0.5680	27.1850
 0.5690	27.2040
 0.5700	27.2160
 0.5710	27.2380
 0.5720	27.2640
 0.5730	27.2960
 0.5740	27.3350
 0.5750	27.3700
 0.5760	27.3990
 0.5770	27.4150
 0.5780	27.4190
 0.5790	27.4250
 0.5800	27.4250
 0.5810	27.4310
 0.5820	27.4560
 0.5830	27.4960
 0.5840	27.5350
 0.5850	27.5650
 0.5860	27.5840
 0.5870	27.5860
 0.5880	27.5880
 0.5890	27.6020
 0.5900	27.6150
 0.5910	27.6260
 0.5920	27.6420
 0.5930	27.6750
 0.5940	27.7160
 0.5950	27.7570
 0.5960	27.7930
 0.5970	27.8130
 0.5980	27.8300
 0.5990	27.8450
 0.6000	27.8570
 0.6010	27.8810
 0.6020	27.9030
 0.6030	27.9180
 0.6040	27.9270
 0.6050	27.9420
 0.6060	27.9560
 0.6070	27.9620
 0.6080	27.9650
 0.6090	27.9760
 0.6100	27.9910
 0.6110	28.0000
 0.6120	28.0010
 0.6130	28.0060
 0.6140	28.0210
 0.6150	28.0340
 0.6160	28.0420
 0.6170	28.0480
 0.6180	28.0560
 0.6190	28.0780
 0.6200	28.0920
 0.6210	28.1010
 0.6220	28.1190
 0.6230	28.1450
 0.6240	28.1730
 0.6250	28.2030
 0.6260	28.2300
 0.6270	28.2570
 0.6280	28.2920
 0.6290	28.3360
 0.6300	28.3560
 0.6310	28.3780
 0.6320	28.4050
 0.6330	28.4080
 0.6340	28.4220
 0.6350	28.4270
 0.6360	28.4030
 0.6370	28.3700
 0.6380	28.3240
 0.6390	28.2690
 0.6400	28.2100
 0.6410	28.1250
 0.6420	28.0350
 0.6430	27.9510
 0.6440	27.8600
 0.6450	27.7720
 0.6460	27.6870
 0.6470	27.6030
 0.6480	27.5410
 0.6490	27.4900
 0.6500	27.4470
 0.6510	27.4120
 0.6520	27.3930
 0.6530	27.3760
 0.6540	27.3580
 0.6550	27.3480
 0.6560	27.3290
 0.6570	27.3060
 0.6580	27.2910
 0.6590	27.2700
 0.6600	27.2320
 0.6610	27.1770
 0.6620	27.1120
 0.6630	27.0540
 0.6640	26.9870
 0.6650	26.9050
 0.6660	26.8520
 0.6670	26.8020
 0.6680	26.7490
 0.6690	26.6960
 0.6700	26.6600
 0.6710	26.6390
 0.6720	26.6270
 0.6730	26.6120
 0.6740	26.6120
 0.6750	26.6240
 0.6760	26.6450
 0.6770	26.6790
 0.6780	26.7160
 0.6790	26.7620
 0.6800	26.8370
 0.6810	26.9300
 0.6820	27.0510
 0.6830	27.2100
 0.6840	27.4090
 0.6850	27.6450
 0.6860	27.9190
 0.6870	28.2310
 0.6880	28.5890
 0.6890	28.9860
 0.6900	29.4150
 0.6910	29.8660
 0.6920	30.3320
 0.6930	30.8040
 0.6940	31.2770
 0.6950	31.7690
 0.6960	32.2570
 0.6970	32.7270
 0.6980	33.1740
 0.6990	33.6180
 0.7000	34.0470
 0.7010	34.4560
 0.7020	34.8430
 0.7030	35.2140
 0.7040	35.5660
 0.7050	35.8930
 0.7060	36.1950
 0.7070	36.4930
 0.7080	36.7770
 0.7090	37.0250
 0.7100	37.2500
 0.7110	37.4720
 0.7120	37.6900
 0.7130	37.8820
 0.7140	38.0560
 0.7150	38.2200
 0.7160	38.3800
 0.7170	38.5350
 0.7180	38.6840
 0.7190	38.8250
 0.7200	38.9550
 0.7210	39.0780
 0.7220	39.1980
 0.7230	39.3100
 0.7240	39.3990
 0.7250	39.5100
 0.7260	39.6260
 0.7270	39.7250
 0.7280	39.7950
 0.7290	39.8840
 0.7300	39.9840
 0.7310	40.0640
 0.7320	40.1470
 0.7330	40.2240
 0.7340	40.2980
 0.7350	40.3840
 0.7360	40.4500
 0.7370	40.5200
 0.7380	40.6060
 0.7390	40.6630
 0.7400	40.7270
 0.7410	40.7990
 0.7420	40.8690
 0.7430	40.9350
 0.7440	40.9970
 0.7450	41.0520
 0.7460	41.1010
 0.7470	41.1710
 0.7480	41.2450
 0.7490	41.3050
 0.7500	41.3510
 0.7510	41.4070
 0.7520	41.4640
 0.7530	41.5090
 0.7540	41.5690
 0.7550	41.6330
 0.7560	41.6920
 0.7570	41.7390
 0.7580	41.7750
 0.7590	41.8320
 0.7600	41.9060
 0.7610	41.9340
 0.7620	41.9750
 0.7630	42.0330
 0.7640	42.0940
 0.7650	42.1370
 0.7660	42.1790
 0.7670	42.2260
 0.7680	42.2730
 0.7690	42.3260
 0.7700	42.3730
 0.7710	42.4150
 0.7720	42.4720
 0.7730	42.5170
 0.7740	42.5560
 0.7750	42.5990
 0.7760	42.6440
 0.7770	42.6960
 0.7780	42.7500
 0.7790	42.7960
 0.7800	42.8390
 0.7810	42.8860
 0.7820	42.9370
 0.7830	42.9890
 0.7840	43.0400
 0.7850	43.0840
 0.7860	43.1230
 0.7870	43.1740
 0.7880	43.2170
 0.7890	43.2540
 0.7900	43.2950
 0.7910	43.3630
 0.7920	43.4180
 0.7930	43.4520
 0.7940	43.4880
 0.7950	43.5270
 0.7960	43.5840
 0.7970	43.6560
 0.7980	43.7140
 0.7990	43.7510
 0.8000	43.7830
 0.8010	43.8290
 0.8020	43.8950
 0.8030	43.9550
 0.8040	44.0040
 0.8050	44.0440
 0.8060	44.0840
 0.8070	44.1360
 0.8080	44.1890
 0.8090	44.2180
 0.8100	44.2780
 0.8110	44.3390
 0.8120	44.3830
 0.8130	44.4270
 0.8140	44.4780
 0.8150	44.5350
 0.8160	44.5890
 0.8170	44.6340
 0.8180	44.6800
 0.8190	44.7300
 0.8200	44.7840
 0.8210	44.8290
 0.8220	44.8730
 0.8230	44.9220
 0.8240	44.9720
 0.8250	45.0190
 0.8260	45.0640
 0.8270	45.1080
 0.8280	45.1530
 0.8290	45.2000
 0.8300	45.2510
 0.8310	45.3040
 0.8320	45.3470
 0.8330	45.3800
 0.8340	45.4170
 0.8350	45.4750
 0.8360	45.5370
 0.8370	45.5720
 0.8380	45.5970
 0.8390	45.6570
 0.8400	45.7190
 0.8410	45.7580
 0.8420	45.7840
 0.8430	45.8440
 0.8440	45.8960
 0.8450	45.9460
 0.8460	45.9980
 0.8470	46.0360
 0.8480	46.0700
 0.8490	46.1120
 0.8500	46.1650
 0.8510	46.2110
 0.8520	46.2630
 0.8530	46.3050
 0.8540	46.3130
 0.8550	46.3650
 0.8560	46.4300
 0.8570	46.4860
 0.8580	46.5330
 0.8590	46.5670
 0.8600	46.5920
 0.8610	46.6230
 0.8620	46.6940
 0.8630	46.7450
 0.8640	46.7790
 0.8650	46.8140
 0.8660	46.8710
 0.8670	46.9030
 0.8680	46.9290
 0.8690	46.9760
 0.8700	47.0000
 0.8710	47.0370
 0.8720	47.0920
 0.8730	47.1410
 0.8740	47.1800
 0.8750	47.2290
 0.8760	47.2840
 0.8770	47.3230
 0.8780	47.3530
 0.8790	47.3920
 0.8800	47.4470
 0.8810	47.4980
 0.8820	47.5340
 0.8830	47.5640
 0.8840	47.5970
 0.8850	47.6330
 0.8860	47.6940
 0.8870	47.7420
 0.8880	47.7480
 0.8890	47.7890
 0.8900	47.8300
 0.8910	47.8670
 0.8920	47.9100
 0.8930	47.9530
 0.8940	47.9950
 0.8950	48.0330
 0.8960	48.0630
 0.8970	48.1100
 0.8980	48.1440
 0.8990	48.1640
 0.9000	48.2030
 0.9010	48.2530
 0.9020	48.2960
 0.9030	48.3270
 0.9040	48.3600
 0.9050	48.3990
 0.9060	48.4390
 0.9070	48.4780
 0.9080	48.5190
 0.9090	48.5330
 0.9100	48.5550
 0.9110	48.6120
 0.9120	48.6670
 0.9130	48.7060
 0.9140	48.7360
 0.9150	48.7710
 0.9160	48.8130
 0.9170	48.8540
 0.9180	48.8860
 0.9190	48.9090
 0.9200	48.9520
 0.9210	49.0110
 0.9220	49.0800
 0.9230	49.1440
 0.9240	49.1630
 0.9250	49.1720
 0.9260	49.1950
 0.9270	49.2350
 0.9280	49.2780
 0.9290	49.3070
 0.9300	49.3280
 0.9310	49.3660
 0.9320	49.4190
 0.9330	49.4670
 0.9340	49.4970
 0.9350	49.5050
 0.9360	49.5180
 0.9370	49.5340
 0.9380	49.5590
 0.9390	49.6170
 0.9400	49.6660
 0.9410	49.7000
 0.9420	49.7200
 0.9430	49.7180
 0.9440	49.7270
 0.9450	49.7600
 0.9460	49.8070
 0.9470	49.8240
 0.9480	49.8400
 0.9490	49.8470
 0.9500	49.8440
 0.9510	49.8620
 0.9520	49.8710
 0.9530	49.8750
 0.9540	49.8840
 0.9550	49.9070
 0.9560	49.9050
 0.9570	49.8940
 0.9580	49.8950
 0.9590	49.9060
 0.9600	49.8910
 0.9610	49.8870
 0.9620	49.9320
 0.9630	49.9740
 0.9640	49.9760
 0.9650	49.9810
 0.9660	50.0330
 0.9670	50.0550
 0.9680	50.0690
 0.9690	50.0890
 0.9700	50.1180
 0.9710	50.1440
 0.9720	50.1540
 0.9730	50.1610
 0.9740	50.1850
 0.9750	50.2320
 0.9760	50.2630
 0.9770	50.2980
 0.9780	50.3640
 0.9790	50.3720
 0.9800	50.3780
 0.9810	50.4210
 0.9820	50.4980
 0.9830	50.5000
 0.9840	50.4870
 0.9850	50.5290
 0.9860	50.6470
 0.9870	50.6640
 0.9880	50.6930
 0.9890	50.7340
 0.9900	50.7420
 0.9910	50.7950
 0.9920	50.8460
 0.9930	50.8780
 0.9940	50.9040
 0.9950	50.9630
 0.9960	51.0110
 0.9970	51.0490
 0.9980	51.1000
 0.9990	51.1580
 1.0000	51.3170
 1.0010	51.5780
 1.0020	51.7560
 1.0030	51.7960
 1.0040	51.8360
 1.0050	51.8690
 1.0060	51.8970
 1.0070	51.9290
 1.0080	51.9660
 1.0090	52.0090
 1.0100	52.0500
 1.0110	52.0930
 1.0120	52.1360
 1.0130	52.1780
 1.0140	52.2230
 1.0150	52.2730
 1.0160	52.3170
 1.0170	52.3610
 1.0180	52.3990
 1.0190	52.4310
 1.0200	52.4640
 1.0210	52.4950
 1.0220	52.5320
 1.0230	52.5700
 1.0240	52.6110
 1.0250	52.6500
 1.0260	52.6890
 1.0270	52.7270
 1.0280	52.7640
 1.0290	52.8020
 1.0300	52.8390
 1.0310	52.8790
 1.0320	52.9220
 1.0330	52.9610
 1.0340	52.9940
 1.0350	53.0250
 1.0360	53.0540
 1.0370	53.0820
 1.0380	53.1140
 1.0390	53.1540
 1.0400	53.1830
 1.0410	53.2040
 1.0420	53.2310
 1.0430	53.2550
 1.0440	53.2830
 1.0450	53.3170
 1.0460	53.3480
 1.0470	53.3770
 1.0480	53.4060
 1.0490	53.4360
 1.0500	53.4650
 1.0510	53.4910
 1.0520	53.5200
 1.0530	53.5480
 1.0540	53.5740
 1.0550	53.6040
 1.0560	53.6360
 1.0570	53.6640
 1.0580	53.6910
 1.0590	53.7190
 1.0600	53.7420
 1.0610	53.7700
 1.0620	53.8030
 1.0630	53.8290
 1.0640	53.8460
 1.0650	53.8710
 1.0660	53.8980
 1.0670	53.9200
 1.0680	53.9410
 1.0690	53.9650
 1.0700	53.9890
 1.0710	54.0080
 1.0720	54.0310
 1.0730	54.0570
 1.0740	54.0820
 1.0750	54.1060
 1.0760	54.1270
 1.0770	54.1470
 1.0780	54.1680
 1.0790	54.1840
 1.0800	54.2050
 1.0810	54.2380
 1.0820	54.2610
 1.0830	54.2790
 1.0840	54.2950
 1.0850	54.3100
 1.0860	54.3150
 1.0870	54.3270
 1.0880	54.3380
 1.0890	54.3510
 1.0900	54.3670
 1.0910	54.3790
 1.0920	54.3940
 1.0930	54.4050
 1.0940	54.4120
 1.0950	54.4210
 1.0960	54.4310
 1.0970	54.4390
 1.0980	54.4430
 1.0990	54.4520
 1.1000	54.4650
 1.1010	54.4740
 1.1020	54.4840
 1.1030	54.4950
 1.1040	54.5020
 1.1050	54.5050
 1.1060	54.5110
 1.1070	54.5190
 1.1080	54.5240
 1.1090	54.5290
 1.1100	54.5290
 1.1110	54.5230
 1.1120	54.5240
 1.1130	54.5250
 1.1140	54.5270
 1.1150	54.5370
 1.1160	54.5390
 1.1170	54.5410
 1.1180	54.5350
 1.1190	54.5230
 1.1200	54.5080
 1.1210	54.4940
 1.1220	54.4760
 1.1230	54.4650
 1.1240	54.4540
 1.1250	54.4320
 1.1260	54.4090
 1.1270	54.3780
 1.1280	54.3360
 1.1290	54.2970
 1.1300	54.2580
 1.1310	54.2100
 1.1320	54.1610
 1.1330	54.1010
 1.1340	54.0280
 1.1350	53.9540
 1.1360	53.8740
 1.1370	53.7890
 1.1380	53.7080
 1.1390	53.6250
 1.1400	53.5370
 1.1410	53.4470
 1.1420	53.3510
 1.1430	53.2540
 1.1440	53.1580
 1.1450	53.0600
 1.1460	52.9650
 1.1470	52.8700
 1.1480	52.7790
 1.1490	52.6890
 1.1500	52.6060
 1.1510	52.5270
 1.1520	52.4500
 1.1530	52.3760
 1.1540	52.3080
 1.1550	52.2420
 1.1560	52.1790
 1.1570	52.1230
 1.1580	52.0690
 1.1590	52.0170
 1.1600	51.9710
 1.1610	51.9320
 1.1620	51.8930
 1.1630	51.8560
 1.1640	51.8200
 1.1650	51.7840
 1.1660	51.7460
 1.1670	51.7120
 1.1680	51.6800
 1.1690	51.6490
 1.1700	51.6240
 1.1710	51.5940
 1.1720	51.5620
 1.1730	51.5310
 1.1740	51.5020
 1.1750	51.4680
 1.1760	51.4310
 1.1770	51.3950
 1.1780	51.3540
 1.1790	51.3130
 1.1800	51.2780
 1.1810	51.2430
 1.1820	51.2090
 1.1830	51.1760
 1.1840	51.1440
 1.1850	51.1170
 1.1860	51.0970
 1.1870	51.0810
 1.1880	51.0700
 1.1890	51.0660
 1.1900	51.0650
 1.1910	51.0690
 1.1920	51.0770
 1.1930	51.0910
 1.1940	51.1090
 1.1950	51.1300
 1.1960	51.1540
 1.1970	51.1810
 1.1980	51.2070
 1.1990	51.2340
 1.2000	51.2650
 1.2010	51.2970
 1.2020	51.3310
 1.2030	51.3620
 1.2040	51.3960
 1.2050	51.4320
 1.2060	51.4720
 1.2070	51.5190
 1.2080	51.5650
 1.2090	51.6150
 1.2100	51.6700
 1.2110	51.7220
 1.2120	51.7740
 1.2130	51.8310
 1.2140	51.8850
 1.2150	51.9460
 1.2160	52.0140
 1.2170	52.0850
 1.2180	52.1560
 1.2190	52.2270
 1.2200	52.2990
 1.2210	52.3700
 1.2220	52.4390
 1.2230	52.5070
 1.2240	52.5770
 1.2250	52.6440
 1.2260	52.7120
 1.2270	52.7830
 1.2280	52.8480
 1.2290	52.9100
 1.2300	52.9740
 1.2310	53.0320
 1.2320	53.0910
 1.2330	53.1510
 1.2340	53.2070
 1.2350	53.2590
 1.2360	53.3090
 1.2370	53.3570
 1.2380	53.4040
 1.2390	53.4510
 1.2400	53.5000
 1.2410	53.5450
 1.2420	53.5860
 1.2430	53.6260
 1.2440	53.6630
 1.2450	53.7040
 1.2460	53.7450
 1.2470	53.7790
 1.2480	53.8120
 1.2490	53.8440
 1.2500	53.8760
 1.2510	53.9120
 1.2520	53.9440
 1.2530	53.9760
 1.2540	54.0080
 1.2550	54.0350
 1.2560	54.0660
 1.2570	54.0980
 1.2580	54.1240
 1.2590	54.1520
 1.2600	54.1820
 1.2610	54.2070
 1.2620	54.2300
 1.2630	54.2540
 1.2640	54.2730
 1.2650	54.2890
 1.2660	54.3040
 1.2670	54.3190
 1.2680	54.3350
 1.2690	54.3500
 1.2700	54.3660
 1.2710	54.3800
 1.2720	54.3930
 1.2730	54.4070
 1.2740	54.4170
 1.2750	54.4240
 1.2760	54.4280
 1.2770	54.4320
 1.2780	54.4350
 1.2790	54.4410
 1.2800	54.4500
 1.2810	54.4540
 1.2820	54.4590
 1.2830	54.4620
 1.2840	54.4630
 1.2850	54.4670
 1.2860	54.4640
 1.2870	54.4610
 1.2880	54.4580
 1.2890	54.4530
 1.2900	54.4450
 1.2910	54.4430
 1.2920	54.4380
 1.2930	54.4310
 1.2940	54.4250
 1.2950	54.4150
 1.2960	54.4050
 1.2970	54.3950
 1.2980	54.3840
 1.2990	54.3710
 1.3000	54.3570
 1.3010	54.3430
 1.3020	54.3260
 1.3030	54.3070
 1.3040	54.2870
 1.3050	54.2660
 1.3060	54.2420
 1.3070	54.2120
 1.3080	54.1790
 1.3090	54.1380
 1.3100	54.0970
 1.3110	54.0560
 1.3120	54.0130
 1.3130	53.9720
 1.3140	53.9250
 1.3150	53.8700
 1.3160	53.8140
 1.3170	53.7570
 1.3180	53.6930
 1.3190	53.6280
 1.3200	53.5640
 1.3210	53.4950
 1.3220	53.4200
 1.3230	53.3410
 1.3240	53.2560
 1.3250	53.1690
 1.3260	53.0830
 1.3270	52.9960
 1.3280	52.9080
 1.3290	52.8180
 1.3300	52.7260
 1.3310	52.6260
 1.3320	52.5250
 1.3330	52.4230
 1.3340	52.3150
 1.3350	52.2090
 1.3360	52.1040
 1.3370	51.9950
 1.3380	51.8860
 1.3390	51.7750
 1.3400	51.6610
 1.3410	51.5510
 1.3420	51.4390
 1.3430	51.3250
 1.3440	51.2140
 1.3450	51.1020
 1.3460	50.9860
 1.3470	50.8750
 1.3480	50.7660
 1.3490	50.6570
 1.3500	50.5510
 1.3510	50.4430
 1.3520	50.3330
 1.3530	50.2240
 1.3540	50.1090
 1.3550	49.9940
 1.3560	49.8800
 1.3570	49.7640
 1.3580	49.6500
 1.3590	49.5370
 1.3600	49.4220
 1.3610	49.3050
 1.3620	49.1890
 1.3630	49.0760
 1.3640	48.9610
 1.3650	48.8410
 1.3660	48.7190
 1.3670	48.5880
 1.3680	48.4490
 1.3690	48.3090
 1.3700	48.1600
 1.3710	48.0050
 1.3720	47.8430
 1.3730	47.6690
 1.3740	47.4890
 1.3750	47.2960
 1.3760	47.0900
 1.3770	46.8760
 1.3780	46.6480
 1.3790	46.4080
 1.3800	46.1570
 1.3810	45.8920
 1.3820	45.6160
 1.3830	45.3260
 1.3840	45.0250
 1.3850	44.7130
 1.3860	44.3910
 1.3870	44.0580
 1.3880	43.7210
 1.3890	43.3760
 1.3900	43.0250
 1.3910	42.6750
 1.3920	42.3210
 1.3930	41.9660
 1.3940	41.6130
 1.3950	41.2560
 1.3960	40.9010
 1.3970	40.5510
 1.3980	40.2020
 1.3990	39.8630
 1.4000	39.5270
 1.4010	39.1950
 1.4020	38.8760
 1.4030	38.5640
 1.4040	38.2620
 1.4050	37.9720
 1.4060	37.6890
 1.4070	37.4180
 1.4080	37.1600
 1.4090	36.9110
 1.4100	36.6780
 1.4110	36.4580
 1.4120	36.2510
 1.4130	36.0550
 1.4140	35.8710
 1.4150	35.6990
 1.4160	35.5380
 1.4170	35.3890
 1.4180	35.2500
 1.4190	35.1180
 1.4200	34.9970
 1.4210	34.8850
 1.4220	34.7810
 1.4230	34.6860
 1.4240	34.6000
 1.4250	34.5190
 1.4260	34.4480
 1.4270	34.3790
 1.4280	34.3160
 1.4290	34.2580
 1.4300	34.2040
 1.4310	34.1580
 1.4320	34.1200
 1.4330	34.0860
 1.4340	34.0570
 1.4350	34.0310
 1.4360	34.0100
 1.4370	33.9920
 1.4380	33.9770
 1.4390	33.9660
 1.4400	33.9590
 1.4410	33.9530
 1.4420	33.9490
 1.4430	33.9490
 1.4440	33.9480
 1.4450	33.9480
 1.4460	33.9510
 1.4470	33.9540
 1.4480	33.9610
 1.4490	33.9700
 1.4500	33.9790
 1.4510	33.9900
 1.4520	34.0020
 1.4530	34.0170
 1.4540	34.0330
 1.4550	34.0510
 1.4560	34.0710
 1.4570	34.0910
 1.4580	34.1120
 1.4590	34.1370
 1.4600	34.1640
 1.4610	34.1930
 1.4620	34.2280
 1.4630	34.2630
 1.4640	34.2980
 1.4650	34.3370
 1.4660	34.3800
 1.4670	34.4230
 1.4680	34.4720
 1.4690	34.5240
 1.4700	34.5750
