Name: Quercus agrifolia 2
Type: vegetation
Class: Tree
Genus: Quercus
Species: agrifolia
Sample No.: VH276
Owner: UCSB
Wavelength Range: VSWIR
Origin: 34.7156; -120.0603; WGS84
Collection Date: 11/2/2013
Description: Samples were collected as part of the HyspIRI Airborne Campaign. 48 individual plants were sampled in three times in 2013 - spring  summer  and fall. The name of the sample includes a 1  2  or 3 which references a different individual of the species. Samples were taken to JPL and processed within 48 hours of collection. The same leaves were processed in the Nicolet and then measured using the ASD.
Measurement: Bidirectional reflectance
First Column: X
Second Column: Y
X Units: Wavelength (micrometers)
Y Units: Reflectance (percentage)
First X Value: 0.35
Last X Value: 2.5
Number of X Values: 2151
Additional Information: vegetation.tree.quercus.agrifolia.vswir.vh276.ucsb.asd.ancillary.txt

 0.3500	 9.8850
 0.3510	10.0270
 0.3520	10.0950
 0.3530	10.1190
 0.3540	10.1340
 0.3550	 9.9770
 0.3560	 9.9180
 0.3570	 9.9430
 0.3580	 9.9130
 0.3590	 9.9620
 0.3600	 9.9380
 0.3610	 9.8140
 0.3620	 9.7650
 0.3630	 9.7910
 0.3640	 9.8660
 0.3650	 9.9390
 0.3660	 9.9140
 0.3670	 9.8720
 0.3680	 9.8530
 0.3690	 9.8640
 0.3700	 9.8380
 0.3710	 9.7950
 0.3720	 9.7550
 0.3730	 9.7270
 0.3740	 9.7110
 0.3750	 9.7200
 0.3760	 9.7540
 0.3770	 9.7420
 0.3780	 9.7430
 0.3790	 9.7540
 0.3800	 9.7170
 0.3810	 9.7380
 0.3820	 9.7620
 0.3830	 9.7440
 0.3840	 9.7140
 0.3850	 9.7270
 0.3860	 9.7270
 0.3870	 9.6590
 0.3880	 9.6970
 0.3890	 9.7040
 0.3900	 9.6650
 0.3910	 9.6990
 0.3920	 9.6960
 0.3930	 9.6840
 0.3940	 9.6980
 0.3950	 9.7190
 0.3960	 9.7220
 0.3970	 9.7010
 0.3980	 9.6630
 0.3990	 9.6630
 0.4000	 9.6870
 0.4010	 9.7180
 0.4020	 9.7540
 0.4030	 9.7440
 0.4040	 9.7390
 0.4050	 9.7810
 0.4060	 9.8140
 0.4070	 9.8060
 0.4080	 9.8000
 0.4090	 9.8660
 0.4100	 9.8630
 0.4110	 9.8640
 0.4120	 9.9090
 0.4130	 9.9240
 0.4140	 9.9640
 0.4150	10.0020
 0.4160	10.0000
 0.4170	10.0020
 0.4180	10.0380
 0.4190	10.0890
 0.4200	10.0920
 0.4210	10.1060
 0.4220	10.1300
 0.4230	10.1540
 0.4240	10.1640
 0.4250	10.1810
 0.4260	10.2080
 0.4270	10.2340
 0.4280	10.2540
 0.4290	10.2730
 0.4300	10.2890
 0.4310	10.2880
 0.4320	10.2770
 0.4330	10.2710
 0.4340	10.2800
 0.4350	10.2910
 0.4360	10.2990
 0.4370	10.3100
 0.4380	10.3360
 0.4390	10.3600
 0.4400	10.3830
 0.4410	10.4060
 0.4420	10.4360
 0.4430	10.4460
 0.4440	10.4490
 0.4450	10.4690
 0.4460	10.4880
 0.4470	10.4980
 0.4480	10.5040
 0.4490	10.5220
 0.4500	10.5360
 0.4510	10.5450
 0.4520	10.5500
 0.4530	10.5640
 0.4540	10.5720
 0.4550	10.5750
 0.4560	10.5810
 0.4570	10.5900
 0.4580	10.5950
 0.4590	10.5950
 0.4600	10.6040
 0.4610	10.6040
 0.4620	10.6090
 0.4630	10.6300
 0.4640	10.6340
 0.4650	10.6380
 0.4660	10.6470
 0.4670	10.6470
 0.4680	10.6540
 0.4690	10.6620
 0.4700	10.6630
 0.4710	10.6670
 0.4720	10.6810
 0.4730	10.6960
 0.4740	10.6980
 0.4750	10.7070
 0.4760	10.7160
 0.4770	10.7200
 0.4780	10.7320
 0.4790	10.7390
 0.4800	10.7470
 0.4810	10.7620
 0.4820	10.7660
 0.4830	10.7700
 0.4840	10.7780
 0.4850	10.7840
 0.4860	10.7980
 0.4870	10.8210
 0.4880	10.8470
 0.4890	10.8620
 0.4900	10.8920
 0.4910	10.9330
 0.4920	10.9720
 0.4930	11.0140
 0.4940	11.0560
 0.4950	11.1020
 0.4960	11.1580
 0.4970	11.2150
 0.4980	11.2760
 0.4990	11.3440
 0.5000	11.4250
 0.5010	11.5120
 0.5020	11.6040
 0.5030	11.7050
 0.5040	11.8110
 0.5050	11.9210
 0.5060	12.0380
 0.5070	12.1760
 0.5080	12.3230
 0.5090	12.4810
 0.5100	12.6570
 0.5110	12.8410
 0.5120	13.0340
 0.5130	13.2360
 0.5140	13.4510
 0.5150	13.6780
 0.5160	13.9110
 0.5170	14.1450
 0.5180	14.3820
 0.5190	14.6210
 0.5200	14.8590
 0.5210	15.0840
 0.5220	15.3000
 0.5230	15.5090
 0.5240	15.7100
 0.5250	15.8820
 0.5260	16.0380
 0.5270	16.1780
 0.5280	16.2960
 0.5290	16.3970
 0.5300	16.4760
 0.5310	16.5370
 0.5320	16.5910
 0.5330	16.6270
 0.5340	16.6460
 0.5350	16.6550
 0.5360	16.6590
 0.5370	16.6640
 0.5380	16.6720
 0.5390	16.6810
 0.5400	16.6890
 0.5410	16.6960
 0.5420	16.7090
 0.5430	16.7380
 0.5440	16.7880
 0.5450	16.8540
 0.5460	16.9320
 0.5470	17.0250
 0.5480	17.1170
 0.5490	17.1930
 0.5500	17.2430
 0.5510	17.2780
 0.5520	17.2990
 0.5530	17.3080
 0.5540	17.3070
 0.5550	17.2920
 0.5560	17.2600
 0.5570	17.2140
 0.5580	17.1440
 0.5590	17.0540
 0.5600	16.9490
 0.5610	16.8290
 0.5620	16.7000
 0.5630	16.5660
 0.5640	16.4280
 0.5650	16.2730
 0.5660	16.1020
 0.5670	15.9230
 0.5680	15.7520
 0.5690	15.5880
 0.5700	15.4290
 0.5710	15.2720
 0.5720	15.1350
 0.5730	15.0180
 0.5740	14.9190
 0.5750	14.8400
 0.5760	14.7740
 0.5770	14.7100
 0.5780	14.6430
 0.5790	14.5760
 0.5800	14.5100
 0.5810	14.4460
 0.5820	14.3860
 0.5830	14.3340
 0.5840	14.2850
 0.5850	14.2300
 0.5860	14.1600
 0.5870	14.0890
 0.5880	14.0210
 0.5890	13.9640
 0.5900	13.9440
 0.5910	13.9360
 0.5920	13.9310
 0.5930	13.9290
 0.5940	13.9230
 0.5950	13.9040
 0.5960	13.8680
 0.5970	13.8090
 0.5980	13.7460
 0.5990	13.6810
 0.6000	13.6100
 0.6010	13.5430
 0.6020	13.4680
 0.6030	13.3850
 0.6040	13.3040
 0.6050	13.2160
 0.6060	13.1230
 0.6070	13.0270
 0.6080	12.9300
 0.6090	12.8300
 0.6100	12.7160
 0.6110	12.5820
 0.6120	12.5100
 0.6130	12.4740
 0.6140	12.4430
 0.6150	12.3990
 0.6160	12.3640
 0.6170	12.3330
 0.6180	12.2970
 0.6190	12.2670
 0.6200	12.2430
 0.6210	12.2230
 0.6220	12.2100
 0.6230	12.2020
 0.6240	12.1990
 0.6250	12.1990
 0.6260	12.2010
 0.6270	12.2060
 0.6280	12.2140
 0.6290	12.2220
 0.6300	12.2280
 0.6310	12.2310
 0.6320	12.2330
 0.6330	12.2390
 0.6340	12.2370
 0.6350	12.2230
 0.6360	12.1990
 0.6370	12.1670
 0.6380	12.1230
 0.6390	12.0710
 0.6400	12.0150
 0.6410	11.9410
 0.6420	11.8640
 0.6430	11.7900
 0.6440	11.7110
 0.6450	11.6320
 0.6460	11.5540
 0.6470	11.4770
 0.6480	11.4060
 0.6490	11.3370
 0.6500	11.2700
 0.6510	11.2090
 0.6520	11.1490
 0.6530	11.0900
 0.6540	11.0330
 0.6550	10.9760
 0.6560	10.9210
 0.6570	10.8700
 0.6580	10.8230
 0.6590	10.7780
 0.6600	10.7360
 0.6610	10.7010
 0.6620	10.6750
 0.6630	10.6540
 0.6640	10.6390
 0.6650	10.6320
 0.6660	10.6340
 0.6670	10.6380
 0.6680	10.6490
 0.6690	10.6750
 0.6700	10.7040
 0.6710	10.7360
 0.6720	10.7730
 0.6730	10.8200
 0.6740	10.8730
 0.6750	10.9330
 0.6760	11.0010
 0.6770	11.0770
 0.6780	11.1640
 0.6790	11.2630
 0.6800	11.3780
 0.6810	11.5020
 0.6820	11.6450
 0.6830	11.8150
 0.6840	12.0130
 0.6850	12.2430
 0.6860	12.5090
 0.6870	12.8150
 0.6880	13.1740
 0.6890	13.5980
 0.6900	14.0900
 0.6910	14.6450
 0.6920	15.2780
 0.6930	15.9850
 0.6940	16.7660
 0.6950	17.6310
 0.6960	18.5650
 0.6970	19.5630
 0.6980	20.6200
 0.6990	21.7270
 0.7000	22.8710
 0.7010	24.0450
 0.7020	25.2410
 0.7030	26.4350
 0.7040	27.6330
 0.7050	28.8350
 0.7060	30.0230
 0.7070	31.1880
 0.7080	32.3340
 0.7090	33.4680
 0.7100	34.5670
 0.7110	35.6440
 0.7120	36.6980
 0.7130	37.7160
 0.7140	38.7070
 0.7150	39.6620
 0.7160	40.5770
 0.7170	41.4730
 0.7180	42.3350
 0.7190	43.1620
 0.7200	43.9560
 0.7210	44.7270
 0.7220	45.4690
 0.7230	46.1780
 0.7240	46.8520
 0.7250	47.5070
 0.7260	48.1290
 0.7270	48.7130
 0.7280	49.2710
 0.7290	49.7990
 0.7300	50.3120
 0.7310	50.8220
 0.7320	51.2780
 0.7330	51.7010
 0.7340	52.1090
 0.7350	52.5080
 0.7360	52.8790
 0.7370	53.2250
 0.7380	53.5500
 0.7390	53.8640
 0.7400	54.1420
 0.7410	54.3970
 0.7420	54.6460
 0.7430	54.8720
 0.7440	55.0750
 0.7450	55.2650
 0.7460	55.4530
 0.7470	55.6290
 0.7480	55.7820
 0.7490	55.9080
 0.7500	56.0240
 0.7510	56.1280
 0.7520	56.2250
 0.7530	56.3180
 0.7540	56.4060
 0.7550	56.4750
 0.7560	56.5290
 0.7570	56.5890
 0.7580	56.6380
 0.7590	56.6800
 0.7600	56.7200
 0.7610	56.7500
 0.7620	56.7900
 0.7630	56.8190
 0.7640	56.8230
 0.7650	56.8450
 0.7660	56.8600
 0.7670	56.8670
 0.7680	56.8780
 0.7690	56.8710
 0.7700	56.8620
 0.7710	56.8670
 0.7720	56.8890
 0.7730	56.8940
 0.7740	56.8850
 0.7750	56.8770
 0.7760	56.8820
 0.7770	56.8850
 0.7780	56.8820
 0.7790	56.8710
 0.7800	56.8710
 0.7810	56.8750
 0.7820	56.8750
 0.7830	56.8660
 0.7840	56.8730
 0.7850	56.8730
 0.7860	56.8560
 0.7870	56.8590
 0.7880	56.8690
 0.7890	56.8750
 0.7900	56.8730
 0.7910	56.8790
 0.7920	56.8760
 0.7930	56.8660
 0.7940	56.8650
 0.7950	56.8730
 0.7960	56.8850
 0.7970	56.8930
 0.7980	56.8940
 0.7990	56.8880
 0.8000	56.8890
 0.8010	56.9050
 0.8020	56.9110
 0.8030	56.9160
 0.8040	56.9250
 0.8050	56.9420
 0.8060	56.9580
 0.8070	56.9550
 0.8080	56.9470
 0.8090	56.9780
 0.8100	56.9910
 0.8110	57.0020
 0.8120	57.0190
 0.8130	57.0170
 0.8140	57.0240
 0.8150	57.0430
 0.8160	57.0680
 0.8170	57.0820
 0.8180	57.0880
 0.8190	57.0960
 0.8200	57.1130
 0.8210	57.1430
 0.8220	57.1610
 0.8230	57.1650
 0.8240	57.1750
 0.8250	57.1950
 0.8260	57.2080
 0.8270	57.2090
 0.8280	57.2210
 0.8290	57.2500
 0.8300	57.2700
 0.8310	57.2680
 0.8320	57.2870
 0.8330	57.3060
 0.8340	57.3250
 0.8350	57.3490
 0.8360	57.3670
 0.8370	57.3640
 0.8380	57.3560
 0.8390	57.3740
 0.8400	57.3840
 0.8410	57.3980
 0.8420	57.4200
 0.8430	57.4400
 0.8440	57.4620
 0.8450	57.4770
 0.8460	57.4810
 0.8470	57.4820
 0.8480	57.5100
 0.8490	57.5430
 0.8500	57.5530
 0.8510	57.5520
 0.8520	57.5530
 0.8530	57.5630
 0.8540	57.5820
 0.8550	57.5770
 0.8560	57.5790
 0.8570	57.5940
 0.8580	57.5940
 0.8590	57.6170
 0.8600	57.6370
 0.8610	57.6370
 0.8620	57.6230
 0.8630	57.6220
 0.8640	57.6300
 0.8650	57.6380
 0.8660	57.6550
 0.8670	57.6530
 0.8680	57.6470
 0.8690	57.6580
 0.8700	57.6380
 0.8710	57.6430
 0.8720	57.6690
 0.8730	57.6760
 0.8740	57.6630
 0.8750	57.6480
 0.8760	57.6470
 0.8770	57.6650
 0.8780	57.6560
 0.8790	57.6330
 0.8800	57.6190
 0.8810	57.6310
 0.8820	57.6280
 0.8830	57.6140
 0.8840	57.6050
 0.8850	57.6080
 0.8860	57.6110
 0.8870	57.6150
 0.8880	57.6150
 0.8890	57.5980
 0.8900	57.5790
 0.8910	57.5670
 0.8920	57.5600
 0.8930	57.5430
 0.8940	57.5350
 0.8950	57.5360
 0.8960	57.5320
 0.8970	57.5070
 0.8980	57.4940
 0.8990	57.4990
 0.9000	57.4950
 0.9010	57.4820
 0.9020	57.4620
 0.9030	57.4430
 0.9040	57.4400
 0.9050	57.4250
 0.9060	57.4050
 0.9070	57.3870
 0.9080	57.3720
 0.9090	57.3600
 0.9100	57.3550
 0.9110	57.3540
 0.9120	57.3380
 0.9130	57.3430
 0.9140	57.3370
 0.9150	57.2940
 0.9160	57.2790
 0.9170	57.2710
 0.9180	57.2730
 0.9190	57.2900
 0.9200	57.2660
 0.9210	57.2480
 0.9220	57.2320
 0.9230	57.1990
 0.9240	57.1950
 0.9250	57.1890
 0.9260	57.1760
 0.9270	57.1680
 0.9280	57.1260
 0.9290	57.1040
 0.9300	57.1040
 0.9310	57.0770
 0.9320	57.0640
 0.9330	57.0450
 0.9340	57.0170
 0.9350	57.0000
 0.9360	56.9880
 0.9370	56.9730
 0.9380	56.9590
 0.9390	56.9560
 0.9400	56.9330
 0.9410	56.9070
 0.9420	56.8910
 0.9430	56.8730
 0.9440	56.8680
 0.9450	56.8460
 0.9460	56.7940
 0.9470	56.7520
 0.9480	56.7120
 0.9490	56.6750
 0.9500	56.6440
 0.9510	56.6310
 0.9520	56.5970
 0.9530	56.5540
 0.9540	56.5210
 0.9550	56.4930
 0.9560	56.4370
 0.9570	56.3910
 0.9580	56.3810
 0.9590	56.3200
 0.9600	56.2780
 0.9610	56.2460
 0.9620	56.2010
 0.9630	56.1910
 0.9640	56.1860
 0.9650	56.1700
 0.9660	56.1440
 0.9670	56.1390
 0.9680	56.1350
 0.9690	56.1320
 0.9700	56.1310
 0.9710	56.1040
 0.9720	56.1000
 0.9730	56.1070
 0.9740	56.0930
 0.9750	56.0790
 0.9760	56.0780
 0.9770	56.0880
 0.9780	56.0990
 0.9790	56.0840
 0.9800	56.0860
 0.9810	56.1100
 0.9820	56.1360
 0.9830	56.1320
 0.9840	56.1430
 0.9850	56.1680
 0.9860	56.1860
 0.9870	56.1950
 0.9880	56.2160
 0.9890	56.2390
 0.9900	56.2460
 0.9910	56.2560
 0.9920	56.2940
 0.9930	56.3370
 0.9940	56.3470
 0.9950	56.3420
 0.9960	56.3450
 0.9970	56.3650
 0.9980	56.3960
 0.9990	56.4040
 1.0000	56.4920
 1.0010	56.6120
 1.0020	56.6940
 1.0030	56.7130
 1.0040	56.7270
 1.0050	56.7450
 1.0060	56.7670
 1.0070	56.7860
 1.0080	56.8030
 1.0090	56.8220
 1.0100	56.8420
 1.0110	56.8570
 1.0120	56.8760
 1.0130	56.9010
 1.0140	56.9250
 1.0150	56.9460
 1.0160	56.9740
 1.0170	57.0000
 1.0180	57.0150
 1.0190	57.0260
 1.0200	57.0440
 1.0210	57.0590
 1.0220	57.0740
 1.0230	57.0940
 1.0240	57.1160
 1.0250	57.1330
 1.0260	57.1510
 1.0270	57.1660
 1.0280	57.1720
 1.0290	57.1850
 1.0300	57.1990
 1.0310	57.2130
 1.0320	57.2280
 1.0330	57.2440
 1.0340	57.2620
 1.0350	57.2780
 1.0360	57.2880
 1.0370	57.3000
 1.0380	57.3090
 1.0390	57.3100
 1.0400	57.3180
 1.0410	57.3280
 1.0420	57.3350
 1.0430	57.3410
 1.0440	57.3480
 1.0450	57.3540
 1.0460	57.3630
 1.0470	57.3780
 1.0480	57.3880
 1.0490	57.3960
 1.0500	57.4050
 1.0510	57.4100
 1.0520	57.4170
 1.0530	57.4220
 1.0540	57.4260
 1.0550	57.4330
 1.0560	57.4390
 1.0570	57.4470
 1.0580	57.4600
 1.0590	57.4680
 1.0600	57.4740
 1.0610	57.4800
 1.0620	57.4850
 1.0630	57.4890
 1.0640	57.4920
 1.0650	57.4950
 1.0660	57.4990
 1.0670	57.4990
 1.0680	57.4970
 1.0690	57.4930
 1.0700	57.4930
 1.0710	57.4900
 1.0720	57.4890
 1.0730	57.4940
 1.0740	57.4940
 1.0750	57.4890
 1.0760	57.4870
 1.0770	57.4880
 1.0780	57.4840
 1.0790	57.4790
 1.0800	57.4720
 1.0810	57.4620
 1.0820	57.4530
 1.0830	57.4480
 1.0840	57.4400
 1.0850	57.4290
 1.0860	57.4170
 1.0870	57.4070
 1.0880	57.3960
 1.0890	57.3880
 1.0900	57.3850
 1.0910	57.3790
 1.0920	57.3750
 1.0930	57.3660
 1.0940	57.3550
 1.0950	57.3430
 1.0960	57.3250
 1.0970	57.3110
 1.0980	57.2960
 1.0990	57.2820
 1.1000	57.2690
 1.1010	57.2540
 1.1020	57.2390
 1.1030	57.2240
 1.1040	57.2010
 1.1050	57.1800
 1.1060	57.1590
 1.1070	57.1380
 1.1080	57.1160
 1.1090	57.0960
 1.1100	57.0760
 1.1110	57.0570
 1.1120	57.0360
 1.1130	57.0160
 1.1140	56.9960
 1.1150	56.9760
 1.1160	56.9530
 1.1170	56.9340
 1.1180	56.9100
 1.1190	56.8800
 1.1200	56.8490
 1.1210	56.8180
 1.1220	56.7830
 1.1230	56.7440
 1.1240	56.7030
 1.1250	56.6590
 1.1260	56.6120
 1.1270	56.5610
 1.1280	56.5090
 1.1290	56.4530
 1.1300	56.3960
 1.1310	56.3320
 1.1320	56.2650
 1.1330	56.1920
 1.1340	56.1140
 1.1350	56.0310
 1.1360	55.9440
 1.1370	55.8520
 1.1380	55.7530
 1.1390	55.6510
 1.1400	55.5440
 1.1410	55.4350
 1.1420	55.3260
 1.1430	55.2120
 1.1440	55.0980
 1.1450	54.9830
 1.1460	54.8700
 1.1470	54.7520
 1.1480	54.6420
 1.1490	54.5330
 1.1500	54.4320
 1.1510	54.3360
 1.1520	54.2450
 1.1530	54.1570
 1.1540	54.0780
 1.1550	54.0040
 1.1560	53.9380
 1.1570	53.8790
 1.1580	53.8220
 1.1590	53.7720
 1.1600	53.7250
 1.1610	53.6820
 1.1620	53.6460
 1.1630	53.6140
 1.1640	53.5860
 1.1650	53.5620
 1.1660	53.5470
 1.1670	53.5290
 1.1680	53.5130
 1.1690	53.4980
 1.1700	53.4830
 1.1710	53.4680
 1.1720	53.4550
 1.1730	53.4430
 1.1740	53.4310
 1.1750	53.4200
 1.1760	53.4110
 1.1770	53.4010
 1.1780	53.3880
 1.1790	53.3770
 1.1800	53.3640
 1.1810	53.3460
 1.1820	53.3300
 1.1830	53.3140
 1.1840	53.2970
 1.1850	53.2840
 1.1860	53.2700
 1.1870	53.2540
 1.1880	53.2400
 1.1890	53.2280
 1.1900	53.2150
 1.1910	53.2020
 1.1920	53.1920
 1.1930	53.1830
 1.1940	53.1760
 1.1950	53.1720
 1.1960	53.1690
 1.1970	53.1670
 1.1980	53.1640
 1.1990	53.1640
 1.2000	53.1660
 1.2010	53.1710
 1.2020	53.1790
 1.2030	53.1870
 1.2040	53.1940
 1.2050	53.2000
 1.2060	53.2090
 1.2070	53.2200
 1.2080	53.2350
 1.2090	53.2520
 1.2100	53.2710
 1.2110	53.2910
 1.2120	53.3150
 1.2130	53.3370
 1.2140	53.3590
 1.2150	53.3830
 1.2160	53.4080
 1.2170	53.4330
 1.2180	53.4610
 1.2190	53.4900
 1.2200	53.5210
 1.2210	53.5540
 1.2220	53.5860
 1.2230	53.6180
 1.2240	53.6510
 1.2250	53.6850
 1.2260	53.7180
 1.2270	53.7500
 1.2280	53.7820
 1.2290	53.8140
 1.2300	53.8450
 1.2310	53.8720
 1.2320	53.9040
 1.2330	53.9300
 1.2340	53.9560
 1.2350	53.9830
 1.2360	54.0110
 1.2370	54.0390
 1.2380	54.0650
 1.2390	54.0930
 1.2400	54.1150
 1.2410	54.1340
 1.2420	54.1510
 1.2430	54.1690
 1.2440	54.1830
 1.2450	54.1980
 1.2460	54.2150
 1.2470	54.2340
 1.2480	54.2550
 1.2490	54.2730
 1.2500	54.2870
 1.2510	54.2970
 1.2520	54.3080
 1.2530	54.3210
 1.2540	54.3330
 1.2550	54.3450
 1.2560	54.3560
 1.2570	54.3640
 1.2580	54.3710
 1.2590	54.3790
 1.2600	54.3870
 1.2610	54.3940
 1.2620	54.4010
 1.2630	54.4040
 1.2640	54.4050
 1.2650	54.4080
 1.2660	54.4090
 1.2670	54.4110
 1.2680	54.4140
 1.2690	54.4150
 1.2700	54.4160
 1.2710	54.4140
 1.2720	54.4130
 1.2730	54.4070
 1.2740	54.3980
 1.2750	54.3920
 1.2760	54.3840
 1.2770	54.3760
 1.2780	54.3690
 1.2790	54.3590
 1.2800	54.3470
 1.2810	54.3350
 1.2820	54.3240
 1.2830	54.3140
 1.2840	54.3060
 1.2850	54.2990
 1.2860	54.2910
 1.2870	54.2790
 1.2880	54.2650
 1.2890	54.2500
 1.2900	54.2340
 1.2910	54.2160
 1.2920	54.1990
 1.2930	54.1830
 1.2940	54.1630
 1.2950	54.1410
 1.2960	54.1170
 1.2970	54.0900
 1.2980	54.0630
 1.2990	54.0340
 1.3000	54.0040
 1.3010	53.9710
 1.3020	53.9350
 1.3030	53.8970
 1.3040	53.8530
 1.3050	53.8080
 1.3060	53.7600
 1.3070	53.7060
 1.3080	53.6490
 1.3090	53.5910
 1.3100	53.5280
 1.3110	53.4620
 1.3120	53.3970
 1.3130	53.3310
 1.3140	53.2590
 1.3150	53.1850
 1.3160	53.1080
 1.3170	53.0290
 1.3180	52.9440
 1.3190	52.8570
 1.3200	52.7670
 1.3210	52.6700
 1.3220	52.5720
 1.3230	52.4730
 1.3240	52.3670
 1.3250	52.2610
 1.3260	52.1530
 1.3270	52.0400
 1.3280	51.9270
 1.3290	51.8110
 1.3300	51.6940
 1.3310	51.5730
 1.3320	51.4500
 1.3330	51.3280
 1.3340	51.2030
 1.3350	51.0760
 1.3360	50.9460
 1.3370	50.8120
 1.3380	50.6770
 1.3390	50.5400
 1.3400	50.4040
 1.3410	50.2720
 1.3420	50.1400
 1.3430	50.0080
 1.3440	49.8790
 1.3450	49.7490
 1.3460	49.6150
 1.3470	49.4850
 1.3480	49.3560
 1.3490	49.2300
 1.3500	49.1060
 1.3510	48.9850
 1.3520	48.8650
 1.3530	48.7450
 1.3540	48.6260
 1.3550	48.5050
 1.3560	48.3810
 1.3570	48.2560
 1.3580	48.1300
 1.3590	47.9970
 1.3600	47.8660
 1.3610	47.7320
 1.3620	47.5890
 1.3630	47.4430
 1.3640	47.2900
 1.3650	47.1290
 1.3660	46.9630
 1.3670	46.7880
 1.3680	46.6050
 1.3690	46.4130
 1.3700	46.2070
 1.3710	45.9930
 1.3720	45.7670
 1.3730	45.5250
 1.3740	45.2700
 1.3750	44.9980
 1.3760	44.7050
 1.3770	44.3900
 1.3780	44.0510
 1.3790	43.6910
 1.3800	43.3090
 1.3810	42.8990
 1.3820	42.4690
 1.3830	42.0210
 1.3840	41.5470
 1.3850	41.0480
 1.3860	40.5320
 1.3870	39.9900
 1.3880	39.4380
 1.3890	38.8690
 1.3900	38.2850
 1.3910	37.6960
 1.3920	37.0990
 1.3930	36.4930
 1.3940	35.8870
 1.3950	35.2740
 1.3960	34.6630
 1.3970	34.0570
 1.3980	33.4570
 1.3990	32.8730
 1.4000	32.3010
 1.4010	31.7420
 1.4020	31.2030
 1.4030	30.6780
 1.4040	30.1740
 1.4050	29.6920
 1.4060	29.2310
 1.4070	28.7980
 1.4080	28.3870
 1.4090	27.9980
 1.4100	27.6360
 1.4110	27.2920
 1.4120	26.9710
 1.4130	26.6740
 1.4140	26.3980
 1.4150	26.1460
 1.4160	25.9160
 1.4170	25.7050
 1.4180	25.5110
 1.4190	25.3330
 1.4200	25.1710
 1.4210	25.0250
 1.4220	24.8940
 1.4230	24.7780
 1.4240	24.6740
 1.4250	24.5800
 1.4260	24.4980
 1.4270	24.4240
 1.4280	24.3600
 1.4290	24.3040
 1.4300	24.2570
 1.4310	24.2180
 1.4320	24.1860
 1.4330	24.1610
 1.4340	24.1440
 1.4350	24.1310
 1.4360	24.1230
 1.4370	24.1210
 1.4380	24.1240
 1.4390	24.1280
 1.4400	24.1370
 1.4410	24.1520
 1.4420	24.1680
 1.4430	24.1880
 1.4440	24.2110
 1.4450	24.2340
 1.4460	24.2590
 1.4470	24.2870
 1.4480	24.3170
 1.4490	24.3480
 1.4500	24.3790
 1.4510	24.4100
 1.4520	24.4420
 1.4530	24.4740
 1.4540	24.5080
 1.4550	24.5450
 1.4560	24.5830
 1.4570	24.6260
 1.4580	24.6710
 1.4590	24.7180
 1.4600	24.7700
 1.4610	24.8270
 1.4620	24.8880
 1.4630	24.9530
 1.4640	25.0230
 1.4650	25.0990
 1.4660	25.1780
 1.4670	25.2660
 1.4680	25.3580
 1.4690	25.4540
 1.4700	25.5570
