Name: Bambusa beecheyana
Type: vegetation
Class: Tree
Genus: Bambusa
Species: beecheyana
Sample No.: JPL246
Owner: JPL
Wavelength Range: VSWIR
Origin: 34.12536; -118.11136; WGS84
Collection Date: 10/6/2016
Description: Samples were collected at the Huntington Garden in San Marino California as part of a JPL Subcontract studying HyTES imagery. Samples were taken to JPL and processed within 48 hours of collection. The same leaves were processed in the Nicolet and then measured using the ASD.
Measurement: Bidirectional reflectance
First Column: X
Second Column: Y
X Units: Wavelength (micrometer)
Y Units: Reflectance (percentage)
First X Value: 0.35
Last X Value: 2.5
Number of X Values: 2151
Additional Information: vegetation.tree.bambusa.beecheyana.vswir.jpl246.jpl.asd.ancillary.txt

 0.3500	 6.6320
 0.3510	 6.5030
 0.3520	 6.3580
 0.3530	 6.3310
 0.3540	 6.4480
 0.3550	 6.4200
 0.3560	 6.3800
 0.3570	 6.3600
 0.3580	 6.3370
 0.3590	 6.3670
 0.3600	 6.3750
 0.3610	 6.3360
 0.3620	 6.3060
 0.3630	 6.3430
 0.3640	 6.3730
 0.3650	 6.3290
 0.3660	 6.3010
 0.3670	 6.2660
 0.3680	 6.2450
 0.3690	 6.2810
 0.3700	 6.2830
 0.3710	 6.2950
 0.3720	 6.3260
 0.3730	 6.2760
 0.3740	 6.2460
 0.3750	 6.2290
 0.3760	 6.2060
 0.3770	 6.2780
 0.3780	 6.3220
 0.3790	 6.3250
 0.3800	 6.3680
 0.3810	 6.3510
 0.3820	 6.3270
 0.3830	 6.3350
 0.3840	 6.3310
 0.3850	 6.2870
 0.3860	 6.2730
 0.3870	 6.3580
 0.3880	 6.3790
 0.3890	 6.3740
 0.3900	 6.3640
 0.3910	 6.3470
 0.3920	 6.3490
 0.3930	 6.3610
 0.3940	 6.3730
 0.3950	 6.4030
 0.3960	 6.4110
 0.3970	 6.4040
 0.3980	 6.4080
 0.3990	 6.4240
 0.4000	 6.4300
 0.4010	 6.4250
 0.4020	 6.4350
 0.4030	 6.4530
 0.4040	 6.4620
 0.4050	 6.4530
 0.4060	 6.4520
 0.4070	 6.4590
 0.4080	 6.4690
 0.4090	 6.4800
 0.4100	 6.4700
 0.4110	 6.4640
 0.4120	 6.4710
 0.4130	 6.4730
 0.4140	 6.4850
 0.4150	 6.4930
 0.4160	 6.4860
 0.4170	 6.4970
 0.4180	 6.5080
 0.4190	 6.5110
 0.4200	 6.5130
 0.4210	 6.5050
 0.4220	 6.5040
 0.4230	 6.5120
 0.4240	 6.4960
 0.4250	 6.4970
 0.4260	 6.5050
 0.4270	 6.4960
 0.4280	 6.4980
 0.4290	 6.5000
 0.4300	 6.4960
 0.4310	 6.4890
 0.4320	 6.4690
 0.4330	 6.4520
 0.4340	 6.4530
 0.4350	 6.4480
 0.4360	 6.4390
 0.4370	 6.4340
 0.4380	 6.4410
 0.4390	 6.4600
 0.4400	 6.4730
 0.4410	 6.4720
 0.4420	 6.4740
 0.4430	 6.4720
 0.4440	 6.4710
 0.4450	 6.4750
 0.4460	 6.4830
 0.4470	 6.4910
 0.4480	 6.4930
 0.4490	 6.4870
 0.4500	 6.4910
 0.4510	 6.5000
 0.4520	 6.5010
 0.4530	 6.5010
 0.4540	 6.5030
 0.4550	 6.5070
 0.4560	 6.5140
 0.4570	 6.5180
 0.4580	 6.5150
 0.4590	 6.5060
 0.4600	 6.5040
 0.4610	 6.5040
 0.4620	 6.5060
 0.4630	 6.5080
 0.4640	 6.5100
 0.4650	 6.5040
 0.4660	 6.4940
 0.4670	 6.4950
 0.4680	 6.4980
 0.4690	 6.4980
 0.4700	 6.4920
 0.4710	 6.4940
 0.4720	 6.5010
 0.4730	 6.5040
 0.4740	 6.4940
 0.4750	 6.4930
 0.4760	 6.4990
 0.4770	 6.5060
 0.4780	 6.4980
 0.4790	 6.4950
 0.4800	 6.4960
 0.4810	 6.4950
 0.4820	 6.4940
 0.4830	 6.4920
 0.4840	 6.4900
 0.4850	 6.4860
 0.4860	 6.4850
 0.4870	 6.4850
 0.4880	 6.4840
 0.4890	 6.4900
 0.4900	 6.4950
 0.4910	 6.5000
 0.4920	 6.5130
 0.4930	 6.5220
 0.4940	 6.5320
 0.4950	 6.5440
 0.4960	 6.5600
 0.4970	 6.5730
 0.4980	 6.5870
 0.4990	 6.6070
 0.5000	 6.6280
 0.5010	 6.6560
 0.5020	 6.6890
 0.5030	 6.7210
 0.5040	 6.7520
 0.5050	 6.7910
 0.5060	 6.8410
 0.5070	 6.8920
 0.5080	 6.9500
 0.5090	 7.0150
 0.5100	 7.0860
 0.5110	 7.1720
 0.5120	 7.2690
 0.5130	 7.3740
 0.5140	 7.4890
 0.5150	 7.6130
 0.5160	 7.7470
 0.5170	 7.8940
 0.5180	 8.0490
 0.5190	 8.2130
 0.5200	 8.3840
 0.5210	 8.5570
 0.5220	 8.7290
 0.5230	 8.9000
 0.5240	 9.0710
 0.5250	 9.2380
 0.5260	 9.3970
 0.5270	 9.5470
 0.5280	 9.6860
 0.5290	 9.8130
 0.5300	 9.9290
 0.5310	10.0340
 0.5320	10.1260
 0.5330	10.2060
 0.5340	10.2760
 0.5350	10.3370
 0.5360	10.3860
 0.5370	10.4240
 0.5380	10.4530
 0.5390	10.4740
 0.5400	10.4860
 0.5410	10.4930
 0.5420	10.4970
 0.5430	10.5020
 0.5440	10.5120
 0.5450	10.5260
 0.5460	10.5450
 0.5470	10.5640
 0.5480	10.5800
 0.5490	10.5930
 0.5500	10.6010
 0.5510	10.6020
 0.5520	10.5960
 0.5530	10.5820
 0.5540	10.5630
 0.5550	10.5310
 0.5560	10.4850
 0.5570	10.4310
 0.5580	10.3640
 0.5590	10.2870
 0.5600	10.2020
 0.5610	10.1090
 0.5620	10.0100
 0.5630	 9.9050
 0.5640	 9.7960
 0.5650	 9.6870
 0.5660	 9.5780
 0.5670	 9.4670
 0.5680	 9.3510
 0.5690	 9.2320
 0.5700	 9.1160
 0.5710	 9.0040
 0.5720	 8.8950
 0.5730	 8.7930
 0.5740	 8.6970
 0.5750	 8.6060
 0.5760	 8.5200
 0.5770	 8.4380
 0.5780	 8.3590
 0.5790	 8.2840
 0.5800	 8.2170
 0.5810	 8.1570
 0.5820	 8.1030
 0.5830	 8.0560
 0.5840	 8.0150
 0.5850	 7.9760
 0.5860	 7.9350
 0.5870	 7.8920
 0.5880	 7.8500
 0.5890	 7.8150
 0.5900	 7.7870
 0.5910	 7.7600
 0.5920	 7.7330
 0.5930	 7.7050
 0.5940	 7.6880
 0.5950	 7.6750
 0.5960	 7.6620
 0.5970	 7.6500
 0.5980	 7.6350
 0.5990	 7.6180
 0.6000	 7.6020
 0.6010	 7.5860
 0.6020	 7.5680
 0.6030	 7.5470
 0.6040	 7.5240
 0.6050	 7.4970
 0.6060	 7.4670
 0.6070	 7.4340
 0.6080	 7.3980
 0.6090	 7.3570
 0.6100	 7.3050
 0.6110	 7.2470
 0.6120	 7.2120
 0.6130	 7.1910
 0.6140	 7.1700
 0.6150	 7.1430
 0.6160	 7.1160
 0.6170	 7.0880
 0.6180	 7.0610
 0.6190	 7.0370
 0.6200	 7.0130
 0.6210	 6.9910
 0.6220	 6.9750
 0.6230	 6.9620
 0.6240	 6.9490
 0.6250	 6.9360
 0.6260	 6.9290
 0.6270	 6.9230
 0.6280	 6.9170
 0.6290	 6.9110
 0.6300	 6.9010
 0.6310	 6.8910
 0.6320	 6.8840
 0.6330	 6.8770
 0.6340	 6.8650
 0.6350	 6.8470
 0.6360	 6.8260
 0.6370	 6.8000
 0.6380	 6.7720
 0.6390	 6.7450
 0.6400	 6.7170
 0.6410	 6.6900
 0.6420	 6.6630
 0.6430	 6.6350
 0.6440	 6.6110
 0.6450	 6.5910
 0.6460	 6.5740
 0.6470	 6.5600
 0.6480	 6.5460
 0.6490	 6.5370
 0.6500	 6.5310
 0.6510	 6.5280
 0.6520	 6.5270
 0.6530	 6.5290
 0.6540	 6.5360
 0.6550	 6.5390
 0.6560	 6.5420
 0.6570	 6.5470
 0.6580	 6.5520
 0.6590	 6.5570
 0.6600	 6.5610
 0.6610	 6.5660
 0.6620	 6.5760
 0.6630	 6.5870
 0.6640	 6.6020
 0.6650	 6.6230
 0.6660	 6.6460
 0.6670	 6.6720
 0.6680	 6.7020
 0.6690	 6.7380
 0.6700	 6.7780
 0.6710	 6.8250
 0.6720	 6.8770
 0.6730	 6.9340
 0.6740	 6.9950
 0.6750	 7.0610
 0.6760	 7.1330
 0.6770	 7.2080
 0.6780	 7.2910
 0.6790	 7.3780
 0.6800	 7.4650
 0.6810	 7.5550
 0.6820	 7.6450
 0.6830	 7.7300
 0.6840	 7.8070
 0.6850	 7.8750
 0.6860	 7.9340
 0.6870	 7.9890
 0.6880	 8.0400
 0.6890	 8.0950
 0.6900	 8.1650
 0.6910	 8.2590
 0.6920	 8.3880
 0.6930	 8.5630
 0.6940	 8.7930
 0.6950	 9.0880
 0.6960	 9.4510
 0.6970	 9.8810
 0.6980	10.3770
 0.6990	10.9340
 0.7000	11.5430
 0.7010	12.1950
 0.7020	12.8820
 0.7030	13.5940
 0.7040	14.3250
 0.7050	15.0650
 0.7060	15.8110
 0.7070	16.5620
 0.7080	17.3160
 0.7090	18.0740
 0.7100	18.8380
 0.7110	19.6040
 0.7120	20.3730
 0.7130	21.1510
 0.7140	21.9340
 0.7150	22.7210
 0.7160	23.5140
 0.7170	24.3130
 0.7180	25.1150
 0.7190	25.9170
 0.7200	26.7170
 0.7210	27.5170
 0.7220	28.3150
 0.7230	29.1060
 0.7240	29.8910
 0.7250	30.6660
 0.7260	31.4310
 0.7270	32.1830
 0.7280	32.9180
 0.7290	33.6380
 0.7300	34.3410
 0.7310	35.0240
 0.7320	35.6840
 0.7330	36.3200
 0.7340	36.9310
 0.7350	37.5160
 0.7360	38.0730
 0.7370	38.6030
 0.7380	39.1050
 0.7390	39.5780
 0.7400	40.0210
 0.7410	40.4330
 0.7420	40.8160
 0.7430	41.1670
 0.7440	41.4880
 0.7450	41.7810
 0.7460	42.0460
 0.7470	42.2830
 0.7480	42.4930
 0.7490	42.6770
 0.7500	42.8450
 0.7510	42.9940
 0.7520	43.1230
 0.7530	43.2320
 0.7540	43.3310
 0.7550	43.4150
 0.7560	43.4870
 0.7570	43.5510
 0.7580	43.6040
 0.7590	43.6500
 0.7600	43.6890
 0.7610	43.7180
 0.7620	43.7400
 0.7630	43.7560
 0.7640	43.7670
 0.7650	43.7690
 0.7660	43.7680
 0.7670	43.7640
 0.7680	43.7540
 0.7690	43.7410
 0.7700	43.7260
 0.7710	43.7120
 0.7720	43.6980
 0.7730	43.6830
 0.7740	43.6670
 0.7750	43.6540
 0.7760	43.6370
 0.7770	43.6220
 0.7780	43.6090
 0.7790	43.5970
 0.7800	43.5870
 0.7810	43.5780
 0.7820	43.5680
 0.7830	43.5560
 0.7840	43.5470
 0.7850	43.5390
 0.7860	43.5280
 0.7870	43.5190
 0.7880	43.5100
 0.7890	43.5000
 0.7900	43.4880
 0.7910	43.4800
 0.7920	43.4700
 0.7930	43.4580
 0.7940	43.4480
 0.7950	43.4360
 0.7960	43.4240
 0.7970	43.4110
 0.7980	43.3980
 0.7990	43.3840
 0.8000	43.3710
 0.8010	43.3590
 0.8020	43.3460
 0.8030	43.3300
 0.8040	43.3130
 0.8050	43.2970
 0.8060	43.2810
 0.8070	43.2650
 0.8080	43.2500
 0.8090	43.2340
 0.8100	43.2150
 0.8110	43.1960
 0.8120	43.1790
 0.8130	43.1570
 0.8140	43.1370
 0.8150	43.1190
 0.8160	43.1010
 0.8170	43.0820
 0.8180	43.0640
 0.8190	43.0450
 0.8200	43.0250
 0.8210	43.0040
 0.8220	42.9840
 0.8230	42.9650
 0.8240	42.9440
 0.8250	42.9260
 0.8260	42.9060
 0.8270	42.8840
 0.8280	42.8670
 0.8290	42.8480
 0.8300	42.8280
 0.8310	42.8100
 0.8320	42.7910
 0.8330	42.7750
 0.8340	42.7580
 0.8350	42.7400
 0.8360	42.7240
 0.8370	42.7080
 0.8380	42.6920
 0.8390	42.6780
 0.8400	42.6630
 0.8410	42.6500
 0.8420	42.6380
 0.8430	42.6230
 0.8440	42.6120
 0.8450	42.6010
 0.8460	42.5880
 0.8470	42.5790
 0.8480	42.5690
 0.8490	42.5600
 0.8500	42.5530
 0.8510	42.5410
 0.8520	42.5310
 0.8530	42.5260
 0.8540	42.5220
 0.8550	42.5130
 0.8560	42.5050
 0.8570	42.5000
 0.8580	42.4960
 0.8590	42.4930
 0.8600	42.4910
 0.8610	42.4890
 0.8620	42.4850
 0.8630	42.4840
 0.8640	42.4860
 0.8650	42.4850
 0.8660	42.4820
 0.8670	42.4810
 0.8680	42.4800
 0.8690	42.4800
 0.8700	42.4820
 0.8710	42.4830
 0.8720	42.4840
 0.8730	42.4860
 0.8740	42.4910
 0.8750	42.4970
 0.8760	42.5020
 0.8770	42.5030
 0.8780	42.5010
 0.8790	42.5010
 0.8800	42.5050
 0.8810	42.5150
 0.8820	42.5240
 0.8830	42.5280
 0.8840	42.5290
 0.8850	42.5330
 0.8860	42.5400
 0.8870	42.5460
 0.8880	42.5500
 0.8890	42.5520
 0.8900	42.5580
 0.8910	42.5640
 0.8920	42.5690
 0.8930	42.5720
 0.8940	42.5750
 0.8950	42.5790
 0.8960	42.5860
 0.8970	42.5940
 0.8980	42.5980
 0.8990	42.6010
 0.9000	42.6090
 0.9010	42.6120
 0.9020	42.6130
 0.9030	42.6140
 0.9040	42.6190
 0.9050	42.6230
 0.9060	42.6270
 0.9070	42.6320
 0.9080	42.6320
 0.9090	42.6360
 0.9100	42.6410
 0.9110	42.6440
 0.9120	42.6440
 0.9130	42.6440
 0.9140	42.6450
 0.9150	42.6480
 0.9160	42.6510
 0.9170	42.6470
 0.9180	42.6440
 0.9190	42.6480
 0.9200	42.6510
 0.9210	42.6460
 0.9220	42.6370
 0.9230	42.6370
 0.9240	42.6380
 0.9250	42.6320
 0.9260	42.6210
 0.9270	42.6160
 0.9280	42.6130
 0.9290	42.6080
 0.9300	42.5990
 0.9310	42.5910
 0.9320	42.5840
 0.9330	42.5770
 0.9340	42.5690
 0.9350	42.5540
 0.9360	42.5410
 0.9370	42.5330
 0.9380	42.5290
 0.9390	42.5170
 0.9400	42.4970
 0.9410	42.4820
 0.9420	42.4770
 0.9430	42.4600
 0.9440	42.4480
 0.9450	42.4320
 0.9460	42.4070
 0.9470	42.3880
 0.9480	42.3850
 0.9490	42.3780
 0.9500	42.3550
 0.9510	42.3320
 0.9520	42.3060
 0.9530	42.2830
 0.9540	42.2650
 0.9550	42.2420
 0.9560	42.2220
 0.9570	42.2040
 0.9580	42.1830
 0.9590	42.1590
 0.9600	42.1390
 0.9610	42.1220
 0.9620	42.1060
 0.9630	42.0840
 0.9640	42.0730
 0.9650	42.0640
 0.9660	42.0490
 0.9670	42.0370
 0.9680	42.0280
 0.9690	42.0190
 0.9700	42.0060
 0.9710	41.9920
 0.9720	41.9800
 0.9730	41.9730
 0.9740	41.9680
 0.9750	41.9610
 0.9760	41.9550
 0.9770	41.9510
 0.9780	41.9480
 0.9790	41.9330
 0.9800	41.9210
 0.9810	41.9100
 0.9820	41.8950
 0.9830	41.8850
 0.9840	41.8880
 0.9850	41.8850
 0.9860	41.8590
 0.9870	41.8550
 0.9880	41.8600
 0.9890	41.8630
 0.9900	41.8570
 0.9910	41.8460
 0.9920	41.8390
 0.9930	41.8400
 0.9940	41.8480
 0.9950	41.8420
 0.9960	41.8390
 0.9970	41.8400
 0.9980	41.8350
 0.9990	41.8300
 1.0000	41.8270
 1.0010	42.3860
 1.0020	42.3830
 1.0030	42.3780
 1.0040	42.3760
 1.0050	42.3740
 1.0060	42.3730
 1.0070	42.3760
 1.0080	42.3780
 1.0090	42.3840
 1.0100	42.3840
 1.0110	42.3810
 1.0120	42.3800
 1.0130	42.3760
 1.0140	42.3740
 1.0150	42.3730
 1.0160	42.3730
 1.0170	42.3690
 1.0180	42.3680
 1.0190	42.3700
 1.0200	42.3680
 1.0210	42.3630
 1.0220	42.3620
 1.0230	42.3600
 1.0240	42.3580
 1.0250	42.3570
 1.0260	42.3590
 1.0270	42.3600
 1.0280	42.3640
 1.0290	42.3640
 1.0300	42.3610
 1.0310	42.3610
 1.0320	42.3610
 1.0330	42.3610
 1.0340	42.3640
 1.0350	42.3690
 1.0360	42.3680
 1.0370	42.3670
 1.0380	42.3660
 1.0390	42.3640
 1.0400	42.3630
 1.0410	42.3630
 1.0420	42.3620
 1.0430	42.3610
 1.0440	42.3610
 1.0450	42.3610
 1.0460	42.3600
 1.0470	42.3580
 1.0480	42.3560
 1.0490	42.3540
 1.0500	42.3520
 1.0510	42.3500
 1.0520	42.3490
 1.0530	42.3480
 1.0540	42.3480
 1.0550	42.3450
 1.0560	42.3410
 1.0570	42.3400
 1.0580	42.3370
 1.0590	42.3350
 1.0600	42.3340
 1.0610	42.3330
 1.0620	42.3320
 1.0630	42.3290
 1.0640	42.3270
 1.0650	42.3240
 1.0660	42.3160
 1.0670	42.3120
 1.0680	42.3090
 1.0690	42.3080
 1.0700	42.3060
 1.0710	42.3070
 1.0720	42.3070
 1.0730	42.3070
 1.0740	42.3050
 1.0750	42.3010
 1.0760	42.2990
 1.0770	42.2950
 1.0780	42.2930
 1.0790	42.2940
 1.0800	42.2940
 1.0810	42.2930
 1.0820	42.2910
 1.0830	42.2880
 1.0840	42.2850
 1.0850	42.2800
 1.0860	42.2780
 1.0870	42.2760
 1.0880	42.2730
 1.0890	42.2710
 1.0900	42.2710
 1.0910	42.2700
 1.0920	42.2700
 1.0930	42.2680
 1.0940	42.2640
 1.0950	42.2600
 1.0960	42.2550
 1.0970	42.2520
 1.0980	42.2510
 1.0990	42.2470
 1.1000	42.2400
 1.1010	42.2370
 1.1020	42.2330
 1.1030	42.2300
 1.1040	42.2290
 1.1050	42.2290
 1.1060	42.2270
 1.1070	42.2210
 1.1080	42.2160
 1.1090	42.2110
 1.1100	42.2070
 1.1110	42.2050
 1.1120	42.2010
 1.1130	42.1980
 1.1140	42.1950
 1.1150	42.1920
 1.1160	42.1880
 1.1170	42.1840
 1.1180	42.1790
 1.1190	42.1730
 1.1200	42.1660
 1.1210	42.1610
 1.1220	42.1540
 1.1230	42.1450
 1.1240	42.1350
 1.1250	42.1240
 1.1260	42.1100
 1.1270	42.0950
 1.1280	42.0800
 1.1290	42.0630
 1.1300	42.0460
 1.1310	42.0250
 1.1320	42.0030
 1.1330	41.9800
 1.1340	41.9550
 1.1350	41.9270
 1.1360	41.8990
 1.1370	41.8680
 1.1380	41.8330
 1.1390	41.7980
 1.1400	41.7610
 1.1410	41.7230
 1.1420	41.6840
 1.1430	41.6440
 1.1440	41.6050
 1.1450	41.5650
 1.1460	41.5280
 1.1470	41.4920
 1.1480	41.4570
 1.1490	41.4230
 1.1500	41.3890
 1.1510	41.3540
 1.1520	41.3220
 1.1530	41.2910
 1.1540	41.2640
 1.1550	41.2400
 1.1560	41.2160
 1.1570	41.1960
 1.1580	41.1770
 1.1590	41.1570
 1.1600	41.1390
 1.1610	41.1240
 1.1620	41.1080
 1.1630	41.0970
 1.1640	41.0850
 1.1650	41.0730
 1.1660	41.0600
 1.1670	41.0500
 1.1680	41.0410
 1.1690	41.0330
 1.1700	41.0280
 1.1710	41.0200
 1.1720	41.0120
 1.1730	41.0040
 1.1740	40.9960
 1.1750	40.9860
 1.1760	40.9780
 1.1770	40.9710
 1.1780	40.9610
 1.1790	40.9520
 1.1800	40.9430
 1.1810	40.9330
 1.1820	40.9250
 1.1830	40.9170
 1.1840	40.9060
 1.1850	40.8960
 1.1860	40.8870
 1.1870	40.8780
 1.1880	40.8700
 1.1890	40.8640
 1.1900	40.8580
 1.1910	40.8510
 1.1920	40.8450
 1.1930	40.8400
 1.1940	40.8340
 1.1950	40.8270
 1.1960	40.8200
 1.1970	40.8130
 1.1980	40.8070
 1.1990	40.8030
 1.2000	40.8000
 1.2010	40.7970
 1.2020	40.7960
 1.2030	40.7950
 1.2040	40.7940
 1.2050	40.7910
 1.2060	40.7890
 1.2070	40.7880
 1.2080	40.7840
 1.2090	40.7830
 1.2100	40.7810
 1.2110	40.7800
 1.2120	40.7790
 1.2130	40.7800
 1.2140	40.7830
 1.2150	40.7850
 1.2160	40.7890
 1.2170	40.7900
 1.2180	40.7920
 1.2190	40.7930
 1.2200	40.7920
 1.2210	40.7940
 1.2220	40.7960
 1.2230	40.7980
 1.2240	40.8040
 1.2250	40.8080
 1.2260	40.8110
 1.2270	40.8140
 1.2280	40.8150
 1.2290	40.8170
 1.2300	40.8180
 1.2310	40.8180
 1.2320	40.8190
 1.2330	40.8210
 1.2340	40.8220
 1.2350	40.8240
 1.2360	40.8250
 1.2370	40.8270
 1.2380	40.8290
 1.2390	40.8300
 1.2400	40.8320
 1.2410	40.8330
 1.2420	40.8320
 1.2430	40.8300
 1.2440	40.8290
 1.2450	40.8280
 1.2460	40.8260
 1.2470	40.8240
 1.2480	40.8240
 1.2490	40.8250
 1.2500	40.8250
 1.2510	40.8260
 1.2520	40.8250
 1.2530	40.8220
 1.2540	40.8200
 1.2550	40.8190
 1.2560	40.8160
 1.2570	40.8140
 1.2580	40.8110
 1.2590	40.8070
 1.2600	40.8030
 1.2610	40.7990
 1.2620	40.7940
 1.2630	40.7910
 1.2640	40.7850
 1.2650	40.7790
 1.2660	40.7730
 1.2670	40.7660
 1.2680	40.7620
 1.2690	40.7580
 1.2700	40.7540
 1.2710	40.7500
 1.2720	40.7440
 1.2730	40.7360
 1.2740	40.7290
 1.2750	40.7210
 1.2760	40.7140
 1.2770	40.7060
 1.2780	40.6980
 1.2790	40.6880
 1.2800	40.6770
 1.2810	40.6670
 1.2820	40.6560
 1.2830	40.6460
 1.2840	40.6340
 1.2850	40.6210
 1.2860	40.6080
 1.2870	40.5940
 1.2880	40.5810
 1.2890	40.5680
 1.2900	40.5520
 1.2910	40.5350
 1.2920	40.5190
 1.2930	40.5000
 1.2940	40.4810
 1.2950	40.4650
 1.2960	40.4450
 1.2970	40.4240
 1.2980	40.4050
 1.2990	40.3840
 1.3000	40.3630
 1.3010	40.3400
 1.3020	40.3170
 1.3030	40.2960
 1.3040	40.2740
 1.3050	40.2510
 1.3060	40.2270
 1.3070	40.2020
 1.3080	40.1770
 1.3090	40.1520
 1.3100	40.1280
 1.3110	40.1020
 1.3120	40.0740
 1.3130	40.0460
 1.3140	40.0180
 1.3150	39.9900
 1.3160	39.9610
 1.3170	39.9310
 1.3180	39.9000
 1.3190	39.8680
 1.3200	39.8340
 1.3210	39.8010
 1.3220	39.7690
 1.3230	39.7350
 1.3240	39.7000
 1.3250	39.6660
 1.3260	39.6300
 1.3270	39.5930
 1.3280	39.5540
 1.3290	39.5130
 1.3300	39.4720
 1.3310	39.4300
 1.3320	39.3890
 1.3330	39.3480
 1.3340	39.3070
 1.3350	39.2670
 1.3360	39.2250
 1.3370	39.1830
 1.3380	39.1400
 1.3390	39.0970
 1.3400	39.0530
 1.3410	39.0080
 1.3420	38.9640
 1.3430	38.9190
 1.3440	38.8750
 1.3450	38.8320
 1.3460	38.7910
 1.3470	38.7480
 1.3480	38.7070
 1.3490	38.6640
 1.3500	38.6210
 1.3510	38.5770
 1.3520	38.5340
 1.3530	38.4910
 1.3540	38.4470
 1.3550	38.4020
 1.3560	38.3580
 1.3570	38.3130
 1.3580	38.2690
 1.3590	38.2240
 1.3600	38.1780
 1.3610	38.1290
 1.3620	38.0790
 1.3630	38.0270
 1.3640	37.9730
 1.3650	37.9140
 1.3660	37.8530
 1.3670	37.7890
 1.3680	37.7200
 1.3690	37.6470
 1.3700	37.5680
 1.3710	37.4840
 1.3720	37.3920
 1.3730	37.2930
 1.3740	37.1860
 1.3750	37.0690
 1.3760	36.9420
 1.3770	36.8050
 1.3780	36.6570
 1.3790	36.4970
 1.3800	36.3240
 1.3810	36.1380
 1.3820	35.9380
 1.3830	35.7260
 1.3840	35.5000
 1.3850	35.2610
 1.3860	35.0090
 1.3870	34.7420
 1.3880	34.4650
 1.3890	34.1760
 1.3900	33.8750
 1.3910	33.5680
 1.3920	33.2510
 1.3930	32.9250
 1.3940	32.5960
 1.3950	32.2580
 1.3960	31.9190
 1.3970	31.5810
 1.3980	31.2400
 1.3990	30.9070
 1.4000	30.5770
 1.4010	30.2490
 1.4020	29.9300
 1.4030	29.6150
 1.4040	29.3090
 1.4050	29.0150
 1.4060	28.7310
 1.4070	28.4610
 1.4080	28.2000
 1.4090	27.9510
 1.4100	27.7140
 1.4110	27.4870
 1.4120	27.2750
 1.4130	27.0750
 1.4140	26.8860
 1.4150	26.7100
 1.4160	26.5460
 1.4170	26.3900
 1.4180	26.2460
 1.4190	26.1100
 1.4200	25.9810
 1.4210	25.8630
 1.4220	25.7520
 1.4230	25.6490
 1.4240	25.5550
 1.4250	25.4680
 1.4260	25.3870
 1.4270	25.3130
 1.4280	25.2450
 1.4290	25.1830
 1.4300	25.1260
 1.4310	25.0740
 1.4320	25.0280
 1.4330	24.9860
 1.4340	24.9500
 1.4350	24.9160
 1.4360	24.8870
 1.4370	24.8610
 1.4380	24.8390
 1.4390	24.8220
 1.4400	24.8090
 1.4410	24.7980
 1.4420	24.7900
 1.4430	24.7850
 1.4440	24.7810
 1.4450	24.7800
 1.4460	24.7800
 1.4470	24.7810
 1.4480	24.7860
 1.4490	24.7920
 1.4500	24.8010
 1.4510	24.8100
 1.4520	24.8210
 1.4530	24.8320
 1.4540	24.8440
 1.4550	24.8590
 1.4560	24.8760
 1.4570	24.8960
 1.4580	24.9200
 1.4590	24.9470
 1.4600	24.9770
 1.4610	25.0120
 1.4620	25.0490
 1.4630	25.0910
 1.4640	25.1360
 1.4650	25.1850
 1.4660	25.2380
 1.4670	25.2960
 1.4680	25.3580
 1.4690	25.4230
 1.4700	25.4930
 1.4710	25.5660
 1.4720	25.6400
 1.4730	25.7180
 1.4740	25.7980
 1.4750	25.8800
 1.4760	25.9670
 1.4770	26.0540
