Name: Quercus douglasii 3
Type: vegetation
Class: Tree
Genus: Quercus
Species: douglasii
Sample No.: VH177
Owner: UCSB
Wavelength Range: VSWIR
Origin: 34.7165; -120.0605; WGS84
Collection Date: 6/9/2013
Description: Samples were collected as part of the HyspIRI Airborne Campaign. 48 individual plants were sampled in three times in 2013 - spring  summer  and fall. The name of the sample includes a 1  2  or 3 which references a different individual of the species. Samples were taken to JPL and processed within 48 hours of collection. The same leaves were processed in the Nicolet and then measured using the ASD.
Measurement: Bidirectional reflectance
First Column: X
Second Column: Y
X Units: Wavelength (micrometers)
Y Units: Reflectance (percentage)
First X Value: 0.35
Last X Value: 2.5
Number of X Values: 2151
Additional Information: vegetation.tree.quercus.douglasii.vswir.vh177.ucsb.asd.ancillary.txt

 0.3500	 3.9770
 0.3510	 3.8880
 0.3520	 4.0910
 0.3530	 4.1800
 0.3540	 3.9600
 0.3550	 4.0630
 0.3560	 4.1120
 0.3570	 4.0540
 0.3580	 4.0190
 0.3590	 3.9520
 0.3600	 3.9480
 0.3610	 4.0260
 0.3620	 4.0780
 0.3630	 4.0310
 0.3640	 3.9650
 0.3650	 3.9680
 0.3660	 4.0430
 0.3670	 4.0600
 0.3680	 4.0300
 0.3690	 4.0440
 0.3700	 4.0470
 0.3710	 3.9720
 0.3720	 3.8510
 0.3730	 3.9280
 0.3740	 4.0130
 0.3750	 4.0490
 0.3760	 4.0380
 0.3770	 4.0550
 0.3780	 4.0970
 0.3790	 4.1180
 0.3800	 4.0490
 0.3810	 4.0400
 0.3820	 4.0750
 0.3830	 4.0990
 0.3840	 4.0270
 0.3850	 4.0380
 0.3860	 4.1030
 0.3870	 4.1240
 0.3880	 4.1200
 0.3890	 4.0910
 0.3900	 4.0570
 0.3910	 4.0510
 0.3920	 4.0490
 0.3930	 4.1070
 0.3940	 4.2210
 0.3950	 4.2150
 0.3960	 4.2040
 0.3970	 4.2170
 0.3980	 4.2420
 0.3990	 4.2930
 0.4000	 4.3350
 0.4010	 4.3570
 0.4020	 4.3810
 0.4030	 4.4070
 0.4040	 4.4310
 0.4050	 4.4560
 0.4060	 4.4610
 0.4070	 4.5180
 0.4080	 4.5950
 0.4090	 4.5890
 0.4100	 4.6150
 0.4110	 4.6480
 0.4120	 4.6750
 0.4130	 4.7170
 0.4140	 4.7760
 0.4150	 4.8300
 0.4160	 4.8670
 0.4170	 4.9060
 0.4180	 4.9590
 0.4190	 5.0160
 0.4200	 5.0370
 0.4210	 5.0810
 0.4220	 5.1230
 0.4230	 5.1440
 0.4240	 5.1950
 0.4250	 5.2420
 0.4260	 5.2830
 0.4270	 5.3170
 0.4280	 5.3610
 0.4290	 5.4140
 0.4300	 5.4640
 0.4310	 5.4910
 0.4320	 5.5250
 0.4330	 5.5730
 0.4340	 5.6240
 0.4350	 5.6480
 0.4360	 5.6730
 0.4370	 5.7000
 0.4380	 5.7140
 0.4390	 5.7410
 0.4400	 5.7580
 0.4410	 5.7610
 0.4420	 5.7930
 0.4430	 5.8180
 0.4440	 5.8320
 0.4450	 5.8510
 0.4460	 5.8730
 0.4470	 5.8990
 0.4480	 5.9260
 0.4490	 5.9310
 0.4500	 5.9320
 0.4510	 5.9430
 0.4520	 5.9650
 0.4530	 5.9880
 0.4540	 5.9930
 0.4550	 5.9940
 0.4560	 6.0040
 0.4570	 6.0220
 0.4580	 6.0310
 0.4590	 6.0250
 0.4600	 6.0260
 0.4610	 6.0300
 0.4620	 6.0370
 0.4630	 6.0470
 0.4640	 6.0480
 0.4650	 6.0480
 0.4660	 6.0500
 0.4670	 6.0540
 0.4680	 6.0600
 0.4690	 6.0640
 0.4700	 6.0600
 0.4710	 6.0590
 0.4720	 6.0520
 0.4730	 6.0520
 0.4740	 6.0610
 0.4750	 6.0610
 0.4760	 6.0580
 0.4770	 6.0570
 0.4780	 6.0570
 0.4790	 6.0490
 0.4800	 6.0460
 0.4810	 6.0560
 0.4820	 6.0690
 0.4830	 6.0740
 0.4840	 6.0710
 0.4850	 6.0710
 0.4860	 6.0720
 0.4870	 6.0730
 0.4880	 6.0780
 0.4890	 6.0950
 0.4900	 6.1030
 0.4910	 6.1050
 0.4920	 6.1110
 0.4930	 6.1200
 0.4940	 6.1300
 0.4950	 6.1410
 0.4960	 6.1480
 0.4970	 6.1590
 0.4980	 6.1710
 0.4990	 6.1870
 0.5000	 6.2010
 0.5010	 6.2180
 0.5020	 6.2440
 0.5030	 6.2680
 0.5040	 6.2920
 0.5050	 6.3250
 0.5060	 6.3670
 0.5070	 6.4090
 0.5080	 6.4550
 0.5090	 6.5070
 0.5100	 6.5620
 0.5110	 6.6340
 0.5120	 6.7140
 0.5130	 6.7980
 0.5140	 6.8850
 0.5150	 6.9850
 0.5160	 7.1040
 0.5170	 7.2360
 0.5180	 7.3640
 0.5190	 7.5010
 0.5200	 7.6500
 0.5210	 7.8070
 0.5220	 7.9670
 0.5230	 8.1280
 0.5240	 8.2910
 0.5250	 8.4520
 0.5260	 8.6100
 0.5270	 8.7630
 0.5280	 8.9020
 0.5290	 9.0380
 0.5300	 9.1620
 0.5310	 9.2690
 0.5320	 9.3810
 0.5330	 9.4820
 0.5340	 9.5710
 0.5350	 9.6510
 0.5360	 9.7270
 0.5370	 9.7990
 0.5380	 9.8640
 0.5390	 9.9210
 0.5400	 9.9790
 0.5410	10.0420
 0.5420	10.1080
 0.5430	10.1610
 0.5440	10.2130
 0.5450	10.2610
 0.5460	10.3030
 0.5470	10.3270
 0.5480	10.3430
 0.5490	10.3640
 0.5500	10.3870
 0.5510	10.4080
 0.5520	10.4170
 0.5530	10.4080
 0.5540	10.3910
 0.5550	10.3620
 0.5560	10.3200
 0.5570	10.2600
 0.5580	10.1900
 0.5590	10.1120
 0.5600	10.0310
 0.5610	 9.9460
 0.5620	 9.8580
 0.5630	 9.7680
 0.5640	 9.6760
 0.5650	 9.5700
 0.5660	 9.4630
 0.5670	 9.3550
 0.5680	 9.2370
 0.5690	 9.1160
 0.5700	 8.9990
 0.5710	 8.8800
 0.5720	 8.7690
 0.5730	 8.6690
 0.5740	 8.5810
 0.5750	 8.4960
 0.5760	 8.4170
 0.5770	 8.3390
 0.5780	 8.2580
 0.5790	 8.1820
 0.5800	 8.1130
 0.5810	 8.0550
 0.5820	 8.0020
 0.5830	 7.9590
 0.5840	 7.9090
 0.5850	 7.8550
 0.5860	 7.8100
 0.5870	 7.7580
 0.5880	 7.7110
 0.5890	 7.6700
 0.5900	 7.6450
 0.5910	 7.6300
 0.5920	 7.6220
 0.5930	 7.6130
 0.5940	 7.6030
 0.5950	 7.5880
 0.5960	 7.5660
 0.5970	 7.5460
 0.5980	 7.5260
 0.5990	 7.5080
 0.6000	 7.4900
 0.6010	 7.4530
 0.6020	 7.4210
 0.6030	 7.3940
 0.6040	 7.3590
 0.6050	 7.3210
 0.6060	 7.2800
 0.6070	 7.2360
 0.6080	 7.1920
 0.6090	 7.1490
 0.6100	 7.1120
 0.6110	 7.0790
 0.6120	 7.0230
 0.6130	 6.9600
 0.6140	 6.9040
 0.6150	 6.8570
 0.6160	 6.8160
 0.6170	 6.7780
 0.6180	 6.7380
 0.6190	 6.7030
 0.6200	 6.6770
 0.6210	 6.6560
 0.6220	 6.6320
 0.6230	 6.6110
 0.6240	 6.5900
 0.6250	 6.5780
 0.6260	 6.5650
 0.6270	 6.5580
 0.6280	 6.5500
 0.6290	 6.5400
 0.6300	 6.5320
 0.6310	 6.5270
 0.6320	 6.5220
 0.6330	 6.5140
 0.6340	 6.5040
 0.6350	 6.4900
 0.6360	 6.4760
 0.6370	 6.4580
 0.6380	 6.4360
 0.6390	 6.4100
 0.6400	 6.3890
 0.6410	 6.3560
 0.6420	 6.3250
 0.6430	 6.2980
 0.6440	 6.2670
 0.6450	 6.2410
 0.6460	 6.2130
 0.6470	 6.1810
 0.6480	 6.1500
 0.6490	 6.1250
 0.6500	 6.1040
 0.6510	 6.0840
 0.6520	 6.0620
 0.6530	 6.0410
 0.6540	 6.0250
 0.6550	 6.0030
 0.6560	 5.9800
 0.6570	 5.9580
 0.6580	 5.9320
 0.6590	 5.9110
 0.6600	 5.8890
 0.6610	 5.8660
 0.6620	 5.8440
 0.6630	 5.8230
 0.6640	 5.8070
 0.6650	 5.7930
 0.6660	 5.7810
 0.6670	 5.7730
 0.6680	 5.7690
 0.6690	 5.7680
 0.6700	 5.7680
 0.6710	 5.7710
 0.6720	 5.7780
 0.6730	 5.7810
 0.6740	 5.7880
 0.6750	 5.7970
 0.6760	 5.8090
 0.6770	 5.8280
 0.6780	 5.8480
 0.6790	 5.8660
 0.6800	 5.8900
 0.6810	 5.9110
 0.6820	 5.9380
 0.6830	 5.9700
 0.6840	 6.0020
 0.6850	 6.0380
 0.6860	 6.0820
 0.6870	 6.1260
 0.6880	 6.1850
 0.6890	 6.2580
 0.6900	 6.3470
 0.6910	 6.4620
 0.6920	 6.6160
 0.6930	 6.8110
 0.6940	 7.0560
 0.6950	 7.3450
 0.6960	 7.6970
 0.6970	 8.1160
 0.6980	 8.5960
 0.6990	 9.1350
 0.7000	 9.7290
 0.7010	10.3710
 0.7020	11.0570
 0.7030	11.7820
 0.7040	12.5410
 0.7050	13.3260
 0.7060	14.1330
 0.7070	14.9590
 0.7080	15.7980
 0.7090	16.6500
 0.7100	17.5080
 0.7110	18.3800
 0.7120	19.2640
 0.7130	20.1490
 0.7140	21.0400
 0.7150	21.9350
 0.7160	22.8290
 0.7170	23.7190
 0.7180	24.6080
 0.7190	25.4940
 0.7200	26.3740
 0.7210	27.2380
 0.7220	28.0930
 0.7230	28.9370
 0.7240	29.7590
 0.7250	30.5590
 0.7260	31.3370
 0.7270	32.0910
 0.7280	32.8230
 0.7290	33.5260
 0.7300	34.1990
 0.7310	34.8470
 0.7320	35.4680
 0.7330	36.0600
 0.7340	36.6240
 0.7350	37.1610
 0.7360	37.6640
 0.7370	38.1420
 0.7380	38.5990
 0.7390	39.0250
 0.7400	39.4250
 0.7410	39.8000
 0.7420	40.1530
 0.7430	40.4900
 0.7440	40.8020
 0.7450	41.0870
 0.7460	41.3500
 0.7470	41.5980
 0.7480	41.8250
 0.7490	42.0290
 0.7500	42.2270
 0.7510	42.4070
 0.7520	42.5700
 0.7530	42.7240
 0.7540	42.8610
 0.7550	42.9870
 0.7560	43.1020
 0.7570	43.2000
 0.7580	43.2960
 0.7590	43.3870
 0.7600	43.4690
 0.7610	43.5420
 0.7620	43.6060
 0.7630	43.6640
 0.7640	43.7210
 0.7650	43.7760
 0.7660	43.8230
 0.7670	43.8670
 0.7680	43.9160
 0.7690	43.9450
 0.7700	43.9740
 0.7710	44.0100
 0.7720	44.0330
 0.7730	44.0630
 0.7740	44.0930
 0.7750	44.1150
 0.7760	44.1330
 0.7770	44.1570
 0.7780	44.1800
 0.7790	44.1920
 0.7800	44.2060
 0.7810	44.2300
 0.7820	44.2570
 0.7830	44.2680
 0.7840	44.2860
 0.7850	44.3050
 0.7860	44.3180
 0.7870	44.3300
 0.7880	44.3400
 0.7890	44.3530
 0.7900	44.3680
 0.7910	44.3720
 0.7920	44.3800
 0.7930	44.3970
 0.7940	44.4140
 0.7950	44.4230
 0.7960	44.4250
 0.7970	44.4280
 0.7980	44.4380
 0.7990	44.4470
 0.8000	44.4530
 0.8010	44.4590
 0.8020	44.4590
 0.8030	44.4610
 0.8040	44.4650
 0.8050	44.4720
 0.8060	44.4680
 0.8070	44.4680
 0.8080	44.4730
 0.8090	44.4760
 0.8100	44.4730
 0.8110	44.4740
 0.8120	44.4810
 0.8130	44.4820
 0.8140	44.4750
 0.8150	44.4690
 0.8160	44.4680
 0.8170	44.4700
 0.8180	44.4690
 0.8190	44.4670
 0.8200	44.4670
 0.8210	44.4630
 0.8220	44.4630
 0.8230	44.4630
 0.8240	44.4540
 0.8250	44.4520
 0.8260	44.4490
 0.8270	44.4390
 0.8280	44.4350
 0.8290	44.4280
 0.8300	44.4240
 0.8310	44.4260
 0.8320	44.4230
 0.8330	44.4170
 0.8340	44.4120
 0.8350	44.4120
 0.8360	44.4100
 0.8370	44.4070
 0.8380	44.4060
 0.8390	44.4070
 0.8400	44.4060
 0.8410	44.4050
 0.8420	44.4070
 0.8430	44.4140
 0.8440	44.4110
 0.8450	44.4100
 0.8460	44.4190
 0.8470	44.4220
 0.8480	44.4330
 0.8490	44.4390
 0.8500	44.4290
 0.8510	44.4340
 0.8520	44.4430
 0.8530	44.4470
 0.8540	44.4460
 0.8550	44.4500
 0.8560	44.4580
 0.8570	44.4660
 0.8580	44.4700
 0.8590	44.4750
 0.8600	44.4810
 0.8610	44.4850
 0.8620	44.4870
 0.8630	44.4880
 0.8640	44.4930
 0.8650	44.5040
 0.8660	44.5170
 0.8670	44.5230
 0.8680	44.5210
 0.8690	44.5210
 0.8700	44.5340
 0.8710	44.5440
 0.8720	44.5450
 0.8730	44.5410
 0.8740	44.5570
 0.8750	44.5720
 0.8760	44.5780
 0.8770	44.5830
 0.8780	44.5870
 0.8790	44.5950
 0.8800	44.6050
 0.8810	44.6130
 0.8820	44.6180
 0.8830	44.6230
 0.8840	44.6310
 0.8850	44.6370
 0.8860	44.6460
 0.8870	44.6540
 0.8880	44.6580
 0.8890	44.6620
 0.8900	44.6660
 0.8910	44.6740
 0.8920	44.6860
 0.8930	44.6820
 0.8940	44.6850
 0.8950	44.6960
 0.8960	44.7000
 0.8970	44.6980
 0.8980	44.6960
 0.8990	44.6980
 0.9000	44.7020
 0.9010	44.7110
 0.9020	44.7220
 0.9030	44.7310
 0.9040	44.7320
 0.9050	44.7420
 0.9060	44.7530
 0.9070	44.7560
 0.9080	44.7510
 0.9090	44.7470
 0.9100	44.7470
 0.9110	44.7500
 0.9120	44.7610
 0.9130	44.7660
 0.9140	44.7700
 0.9150	44.7800
 0.9160	44.7840
 0.9170	44.7840
 0.9180	44.7830
 0.9190	44.7820
 0.9200	44.7790
 0.9210	44.7800
 0.9220	44.7810
 0.9230	44.7750
 0.9240	44.7710
 0.9250	44.7670
 0.9260	44.7580
 0.9270	44.7430
 0.9280	44.7320
 0.9290	44.7280
 0.9300	44.7280
 0.9310	44.7190
 0.9320	44.6960
 0.9330	44.6820
 0.9340	44.6740
 0.9350	44.6480
 0.9360	44.6380
 0.9370	44.6180
 0.9380	44.5800
 0.9390	44.5510
 0.9400	44.5340
 0.9410	44.5270
 0.9420	44.5180
 0.9430	44.4860
 0.9440	44.4560
 0.9450	44.4250
 0.9460	44.3890
 0.9470	44.3590
 0.9480	44.3240
 0.9490	44.2830
 0.9500	44.2390
 0.9510	44.1820
 0.9520	44.1430
 0.9530	44.1010
 0.9540	44.0360
 0.9550	43.9860
 0.9560	43.9350
 0.9570	43.8880
 0.9580	43.8490
 0.9590	43.7960
 0.9600	43.7500
 0.9610	43.7140
 0.9620	43.6880
 0.9630	43.6580
 0.9640	43.6220
 0.9650	43.5910
 0.9660	43.5760
 0.9670	43.5630
 0.9680	43.5440
 0.9690	43.5220
 0.9700	43.5030
 0.9710	43.4930
 0.9720	43.4810
 0.9730	43.4690
 0.9740	43.4630
 0.9750	43.4570
 0.9760	43.4460
 0.9770	43.4370
 0.9780	43.4420
 0.9790	43.4290
 0.9800	43.4230
 0.9810	43.4240
 0.9820	43.4240
 0.9830	43.4480
 0.9840	43.4600
 0.9850	43.4650
 0.9860	43.4810
 0.9870	43.4660
 0.9880	43.4690
 0.9890	43.4890
 0.9900	43.5040
 0.9910	43.5030
 0.9920	43.5160
 0.9930	43.5380
 0.9940	43.5490
 0.9950	43.5710
 0.9960	43.5950
 0.9970	43.6040
 0.9980	43.5930
 0.9990	43.6140
 1.0000	43.6770
 1.0010	43.7810
 1.0020	43.8460
 1.0030	43.8650
 1.0040	43.8850
 1.0050	43.9000
 1.0060	43.9210
 1.0070	43.9390
 1.0080	43.9570
 1.0090	43.9730
 1.0100	43.9910
 1.0110	44.0090
 1.0120	44.0270
 1.0130	44.0440
 1.0140	44.0610
 1.0150	44.0790
 1.0160	44.0950
 1.0170	44.1120
 1.0180	44.1300
 1.0190	44.1430
 1.0200	44.1550
 1.0210	44.1710
 1.0220	44.1830
 1.0230	44.1970
 1.0240	44.2160
 1.0250	44.2320
 1.0260	44.2500
 1.0270	44.2650
 1.0280	44.2800
 1.0290	44.2950
 1.0300	44.3080
 1.0310	44.3220
 1.0320	44.3340
 1.0330	44.3510
 1.0340	44.3610
 1.0350	44.3710
 1.0360	44.3820
 1.0370	44.3930
 1.0380	44.4060
 1.0390	44.4220
 1.0400	44.4330
 1.0410	44.4410
 1.0420	44.4510
 1.0430	44.4590
 1.0440	44.4680
 1.0450	44.4800
 1.0460	44.4890
 1.0470	44.4970
 1.0480	44.5050
 1.0490	44.5130
 1.0500	44.5210
 1.0510	44.5310
 1.0520	44.5400
 1.0530	44.5490
 1.0540	44.5610
 1.0550	44.5680
 1.0560	44.5740
 1.0570	44.5800
 1.0580	44.5840
 1.0590	44.5890
 1.0600	44.5940
 1.0610	44.5990
 1.0620	44.6020
 1.0630	44.6050
 1.0640	44.6080
 1.0650	44.6110
 1.0660	44.6130
 1.0670	44.6150
 1.0680	44.6170
 1.0690	44.6200
 1.0700	44.6220
 1.0710	44.6240
 1.0720	44.6240
 1.0730	44.6230
 1.0740	44.6210
 1.0750	44.6180
 1.0760	44.6150
 1.0770	44.6120
 1.0780	44.6100
 1.0790	44.6080
 1.0800	44.6060
 1.0810	44.6060
 1.0820	44.6030
 1.0830	44.6000
 1.0840	44.5960
 1.0850	44.5920
 1.0860	44.5880
 1.0870	44.5830
 1.0880	44.5790
 1.0890	44.5740
 1.0900	44.5690
 1.0910	44.5620
 1.0920	44.5540
 1.0930	44.5470
 1.0940	44.5390
 1.0950	44.5310
 1.0960	44.5240
 1.0970	44.5150
 1.0980	44.5020
 1.0990	44.4940
 1.1000	44.4890
 1.1010	44.4810
 1.1020	44.4740
 1.1030	44.4660
 1.1040	44.4560
 1.1050	44.4420
 1.1060	44.4320
 1.1070	44.4250
 1.1080	44.4130
 1.1090	44.4010
 1.1100	44.3890
 1.1110	44.3740
 1.1120	44.3600
 1.1130	44.3490
 1.1140	44.3350
 1.1150	44.3190
 1.1160	44.3020
 1.1170	44.2880
 1.1180	44.2680
 1.1190	44.2430
 1.1200	44.2200
 1.1210	44.1960
 1.1220	44.1660
 1.1230	44.1390
 1.1240	44.1060
 1.1250	44.0690
 1.1260	44.0270
 1.1270	43.9840
 1.1280	43.9390
 1.1290	43.8860
 1.1300	43.8310
 1.1310	43.7650
 1.1320	43.6900
 1.1330	43.6120
 1.1340	43.5260
 1.1350	43.4380
 1.1360	43.3470
 1.1370	43.2510
 1.1380	43.1510
 1.1390	43.0480
 1.1400	42.9370
 1.1410	42.8230
 1.1420	42.7040
 1.1430	42.5840
 1.1440	42.4640
 1.1450	42.3410
 1.1460	42.2220
 1.1470	42.1020
 1.1480	41.9870
 1.1490	41.8710
 1.1500	41.7640
 1.1510	41.6580
 1.1520	41.5620
 1.1530	41.4710
 1.1540	41.3880
 1.1550	41.3100
 1.1560	41.2390
 1.1570	41.1770
 1.1580	41.1190
 1.1590	41.0690
 1.1600	41.0240
 1.1610	40.9820
 1.1620	40.9470
 1.1630	40.9150
 1.1640	40.8860
 1.1650	40.8620
 1.1660	40.8440
 1.1670	40.8270
 1.1680	40.8150
 1.1690	40.8000
 1.1700	40.7850
 1.1710	40.7720
 1.1720	40.7600
 1.1730	40.7480
 1.1740	40.7380
 1.1750	40.7270
 1.1760	40.7140
 1.1770	40.7000
 1.1780	40.6870
 1.1790	40.6740
 1.1800	40.6620
 1.1810	40.6500
 1.1820	40.6380
 1.1830	40.6270
 1.1840	40.6130
 1.1850	40.5990
 1.1860	40.5860
 1.1870	40.5730
 1.1880	40.5620
 1.1890	40.5530
 1.1900	40.5450
 1.1910	40.5390
 1.1920	40.5340
 1.1930	40.5340
 1.1940	40.5330
 1.1950	40.5320
 1.1960	40.5330
 1.1970	40.5330
 1.1980	40.5330
 1.1990	40.5370
 1.2000	40.5420
 1.2010	40.5500
 1.2020	40.5580
 1.2030	40.5650
 1.2040	40.5740
 1.2050	40.5850
 1.2060	40.5990
 1.2070	40.6130
 1.2080	40.6270
 1.2090	40.6420
 1.2100	40.6560
 1.2110	40.6720
 1.2120	40.6890
 1.2130	40.7060
 1.2140	40.7220
 1.2150	40.7410
 1.2160	40.7610
 1.2170	40.7830
 1.2180	40.8050
 1.2190	40.8270
 1.2200	40.8490
 1.2210	40.8700
 1.2220	40.8910
 1.2230	40.9140
 1.2240	40.9350
 1.2250	40.9550
 1.2260	40.9760
 1.2270	40.9980
 1.2280	41.0190
 1.2290	41.0400
 1.2300	41.0600
 1.2310	41.0800
 1.2320	41.0990
 1.2330	41.1170
 1.2340	41.1340
 1.2350	41.1520
 1.2360	41.1680
 1.2370	41.1830
 1.2380	41.1990
 1.2390	41.2150
 1.2400	41.2300
 1.2410	41.2460
 1.2420	41.2610
 1.2430	41.2750
 1.2440	41.2880
 1.2450	41.2990
 1.2460	41.3110
 1.2470	41.3230
 1.2480	41.3340
 1.2490	41.3450
 1.2500	41.3560
 1.2510	41.3660
 1.2520	41.3760
 1.2530	41.3840
 1.2540	41.3890
 1.2550	41.3950
 1.2560	41.4020
 1.2570	41.4080
 1.2580	41.4130
 1.2590	41.4170
 1.2600	41.4200
 1.2610	41.4220
 1.2620	41.4240
 1.2630	41.4250
 1.2640	41.4260
 1.2650	41.4240
 1.2660	41.4220
 1.2670	41.4210
 1.2680	41.4160
 1.2690	41.4100
 1.2700	41.4070
 1.2710	41.3990
 1.2720	41.3910
 1.2730	41.3830
 1.2740	41.3720
 1.2750	41.3630
 1.2760	41.3530
 1.2770	41.3430
 1.2780	41.3320
 1.2790	41.3180
 1.2800	41.3020
 1.2810	41.2870
 1.2820	41.2690
 1.2830	41.2510
 1.2840	41.2350
 1.2850	41.2190
 1.2860	41.1990
 1.2870	41.1790
 1.2880	41.1590
 1.2890	41.1350
 1.2900	41.1080
 1.2910	41.0810
 1.2920	41.0540
 1.2930	41.0240
 1.2940	40.9950
 1.2950	40.9660
 1.2960	40.9330
 1.2970	40.8980
 1.2980	40.8580
 1.2990	40.8150
 1.3000	40.7720
 1.3010	40.7260
 1.3020	40.6810
 1.3030	40.6340
 1.3040	40.5830
 1.3050	40.5310
 1.3060	40.4760
 1.3070	40.4160
 1.3080	40.3530
 1.3090	40.2890
 1.3100	40.2240
 1.3110	40.1570
 1.3120	40.0880
 1.3130	40.0150
 1.3140	39.9390
 1.3150	39.8600
 1.3160	39.7780
 1.3170	39.6930
 1.3180	39.6070
 1.3190	39.5180
 1.3200	39.4250
 1.3210	39.3300
 1.3220	39.2320
 1.3230	39.1290
 1.3240	39.0240
 1.3250	38.9180
 1.3260	38.8090
 1.3270	38.6990
 1.3280	38.5870
 1.3290	38.4710
 1.3300	38.3530
 1.3310	38.2320
 1.3320	38.1100
 1.3330	37.9870
 1.3340	37.8620
 1.3350	37.7370
 1.3360	37.6120
 1.3370	37.4850
 1.3380	37.3560
 1.3390	37.2270
 1.3400	37.0980
 1.3410	36.9710
 1.3420	36.8450
 1.3430	36.7210
 1.3440	36.5990
 1.3450	36.4760
 1.3460	36.3540
 1.3470	36.2340
 1.3480	36.1140
 1.3490	35.9950
 1.3500	35.8770
 1.3510	35.7600
 1.3520	35.6430
 1.3530	35.5280
 1.3540	35.4140
 1.3550	35.2990
 1.3560	35.1830
 1.3570	35.0670
 1.3580	34.9490
 1.3590	34.8310
 1.3600	34.7110
 1.3610	34.5860
 1.3620	34.4550
 1.3630	34.3190
 1.3640	34.1770
 1.3650	34.0280
 1.3660	33.8740
 1.3670	33.7140
 1.3680	33.5440
 1.3690	33.3640
 1.3700	33.1720
 1.3710	32.9680
 1.3720	32.7510
 1.3730	32.5190
 1.3740	32.2750
 1.3750	32.0120
 1.3760	31.7290
 1.3770	31.4260
 1.3780	31.0980
 1.3790	30.7500
 1.3800	30.3830
 1.3810	29.9890
 1.3820	29.5780
 1.3830	29.1490
 1.3840	28.7000
 1.3850	28.2300
 1.3860	27.7480
 1.3870	27.2440
 1.3880	26.7340
 1.3890	26.2120
 1.3900	25.6800
 1.3910	25.1460
 1.3920	24.6050
 1.3930	24.0580
 1.3940	23.5140
 1.3950	22.9670
 1.3960	22.4270
 1.3970	21.8960
 1.3980	21.3730
 1.3990	20.8690
 1.4000	20.3770
 1.4010	19.8980
 1.4020	19.4390
 1.4030	18.9940
 1.4040	18.5690
 1.4050	18.1650
 1.4060	17.7800
 1.4070	17.4190
 1.4080	17.0780
 1.4090	16.7560
 1.4100	16.4560
 1.4110	16.1750
 1.4120	15.9130
 1.4130	15.6690
 1.4140	15.4420
 1.4150	15.2350
 1.4160	15.0430
 1.4170	14.8660
 1.4180	14.7050
 1.4190	14.5550
 1.4200	14.4180
 1.4210	14.2930
 1.4220	14.1790
 1.4230	14.0760
 1.4240	13.9820
 1.4250	13.8970
 1.4260	13.8200
 1.4270	13.7510
 1.4280	13.6900
 1.4290	13.6350
 1.4300	13.5880
 1.4310	13.5450
 1.4320	13.5090
 1.4330	13.4760
 1.4340	13.4480
 1.4350	13.4250
 1.4360	13.4070
 1.4370	13.3920
 1.4380	13.3810
 1.4390	13.3730
 1.4400	13.3680
 1.4410	13.3650
 1.4420	13.3660
 1.4430	13.3680
 1.4440	13.3710
 1.4450	13.3760
 1.4460	13.3830
 1.4470	13.3910
 1.4480	13.4010
 1.4490	13.4130
 1.4500	13.4260
 1.4510	13.4410
 1.4520	13.4570
 1.4530	13.4740
 1.4540	13.4920
 1.4550	13.5120
 1.4560	13.5330
 1.4570	13.5570
 1.4580	13.5840
 1.4590	13.6130
 1.4600	13.6450
 1.4610	13.6820
 1.4620	13.7220
 1.4630	13.7660
 1.4640	13.8150
 1.4650	13.8680
 1.4660	13.9260
 1.4670	13.9870
 1.4680	14.0530
 1.4690	14.1230
 1.4700	14.1980
