Name: Ceanothus spinosus 1
Type: vegetation
Class: Shrub
Genus: Ceanothus
Species: spinosus
Sample No.: VH200
Owner: UCSB
Wavelength Range: VSWIR
Origin: 34.4906; -119.7908; WGS84
Collection Date: 10/13/2013
Description: Samples were collected as part of the HyspIRI Airborne Campaign. 48 individual plants were sampled in three times in 2013 - spring  summer  and fall. The name of the sample includes a 1  2  or 3 which references a different individual of the species. Samples were taken to JPL and processed within 48 hours of collection. The same leaves were processed in the Nicolet and then measured using the ASD.
Measurement: Bidirectional reflectance
First Column: X
Second Column: Y
X Units: Wavelength (micrometers)
Y Units: Reflectance (percentage)
First X Value: 0.35
Last X Value: 2.5
Number of X Values: 2151
Additional Information: vegetation.shrub.ceanothus.spinosus.vswir.vh200.ucsb.asd.ancillary.txt

 0.3500	 8.5920
 0.3510	 8.8740
 0.3520	 8.9110
 0.3530	 8.8700
 0.3540	 8.9250
 0.3550	 8.8050
 0.3560	 8.7810
 0.3570	 8.8980
 0.3580	 9.0380
 0.3590	 8.8490
 0.3600	 8.7120
 0.3610	 8.8150
 0.3620	 8.9770
 0.3630	 9.0240
 0.3640	 8.9380
 0.3650	 8.7920
 0.3660	 8.7800
 0.3670	 8.8220
 0.3680	 8.8890
 0.3690	 8.9850
 0.3700	 8.9750
 0.3710	 8.9250
 0.3720	 8.8840
 0.3730	 8.8190
 0.3740	 8.7690
 0.3750	 8.7570
 0.3760	 8.7870
 0.3770	 8.7860
 0.3780	 8.7410
 0.3790	 8.7040
 0.3800	 8.7620
 0.3810	 8.7420
 0.3820	 8.6630
 0.3830	 8.5610
 0.3840	 8.4050
 0.3850	 8.5220
 0.3860	 8.7400
 0.3870	 8.7560
 0.3880	 8.6880
 0.3890	 8.6370
 0.3900	 8.6320
 0.3910	 8.6260
 0.3920	 8.5610
 0.3930	 8.5460
 0.3940	 8.6300
 0.3950	 8.6440
 0.3960	 8.6630
 0.3970	 8.6710
 0.3980	 8.6200
 0.3990	 8.5860
 0.4000	 8.5770
 0.4010	 8.5890
 0.4020	 8.6040
 0.4030	 8.5680
 0.4040	 8.5340
 0.4050	 8.5570
 0.4060	 8.6060
 0.4070	 8.6040
 0.4080	 8.5720
 0.4090	 8.5860
 0.4100	 8.5600
 0.4110	 8.5580
 0.4120	 8.6040
 0.4130	 8.6170
 0.4140	 8.6490
 0.4150	 8.6720
 0.4160	 8.6600
 0.4170	 8.6830
 0.4180	 8.6970
 0.4190	 8.6980
 0.4200	 8.7190
 0.4210	 8.7550
 0.4220	 8.7820
 0.4230	 8.7880
 0.4240	 8.7990
 0.4250	 8.8180
 0.4260	 8.8340
 0.4270	 8.8300
 0.4280	 8.8420
 0.4290	 8.8570
 0.4300	 8.8670
 0.4310	 8.8700
 0.4320	 8.8740
 0.4330	 8.8660
 0.4340	 8.8410
 0.4350	 8.8540
 0.4360	 8.8740
 0.4370	 8.8890
 0.4380	 8.9050
 0.4390	 8.9260
 0.4400	 8.9520
 0.4410	 8.9750
 0.4420	 8.9760
 0.4430	 8.9980
 0.4440	 9.0230
 0.4450	 9.0140
 0.4460	 9.0200
 0.4470	 9.0390
 0.4480	 9.0540
 0.4490	 9.0410
 0.4500	 9.0460
 0.4510	 9.0620
 0.4520	 9.0700
 0.4530	 9.0680
 0.4540	 9.0800
 0.4550	 9.0960
 0.4560	 9.0880
 0.4570	 9.0850
 0.4580	 9.0940
 0.4590	 9.1140
 0.4600	 9.1330
 0.4610	 9.1230
 0.4620	 9.1130
 0.4630	 9.1350
 0.4640	 9.1350
 0.4650	 9.1240
 0.4660	 9.1220
 0.4670	 9.1540
 0.4680	 9.1500
 0.4690	 9.1330
 0.4700	 9.1330
 0.4710	 9.1540
 0.4720	 9.1570
 0.4730	 9.1480
 0.4740	 9.1510
 0.4750	 9.1600
 0.4760	 9.1780
 0.4770	 9.1900
 0.4780	 9.1400
 0.4790	 9.1360
 0.4800	 9.1610
 0.4810	 9.1730
 0.4820	 9.1790
 0.4830	 9.1820
 0.4840	 9.1800
 0.4850	 9.1670
 0.4860	 9.1810
 0.4870	 9.2030
 0.4880	 9.2120
 0.4890	 9.2120
 0.4900	 9.2330
 0.4910	 9.2600
 0.4920	 9.2650
 0.4930	 9.2750
 0.4940	 9.3030
 0.4950	 9.3420
 0.4960	 9.3630
 0.4970	 9.4050
 0.4980	 9.4460
 0.4990	 9.4610
 0.5000	 9.4950
 0.5010	 9.5370
 0.5020	 9.5830
 0.5030	 9.6370
 0.5040	 9.6860
 0.5050	 9.7410
 0.5060	 9.8060
 0.5070	 9.8750
 0.5080	 9.9390
 0.5090	10.0070
 0.5100	10.0950
 0.5110	10.1950
 0.5120	10.3010
 0.5130	10.4110
 0.5140	10.5280
 0.5150	10.6550
 0.5160	10.7850
 0.5170	10.9140
 0.5180	11.0600
 0.5190	11.2140
 0.5200	11.3730
 0.5210	11.5360
 0.5220	11.6950
 0.5230	11.8510
 0.5240	12.0050
 0.5250	12.1530
 0.5260	12.3060
 0.5270	12.4560
 0.5280	12.5930
 0.5290	12.7240
 0.5300	12.8520
 0.5310	12.9740
 0.5320	13.0770
 0.5330	13.1720
 0.5340	13.2640
 0.5350	13.3590
 0.5360	13.4350
 0.5370	13.5040
 0.5380	13.5640
 0.5390	13.6120
 0.5400	13.6630
 0.5410	13.7040
 0.5420	13.7300
 0.5430	13.7640
 0.5440	13.7980
 0.5450	13.8360
 0.5460	13.8860
 0.5470	13.9600
 0.5480	14.0340
 0.5490	14.0890
 0.5500	14.1250
 0.5510	14.1410
 0.5520	14.1500
 0.5530	14.1630
 0.5540	14.1620
 0.5550	14.1530
 0.5560	14.1340
 0.5570	14.1010
 0.5580	14.0600
 0.5590	14.0160
 0.5600	13.9700
 0.5610	13.9120
 0.5620	13.8510
 0.5630	13.7850
 0.5640	13.7100
 0.5650	13.6320
 0.5660	13.5470
 0.5670	13.4540
 0.5680	13.3580
 0.5690	13.2610
 0.5700	13.1580
 0.5710	13.0510
 0.5720	12.9600
 0.5730	12.8810
 0.5740	12.8110
 0.5750	12.7430
 0.5760	12.6790
 0.5770	12.6240
 0.5780	12.5810
 0.5790	12.5540
 0.5800	12.5330
 0.5810	12.5110
 0.5820	12.4830
 0.5830	12.4350
 0.5840	12.3760
 0.5850	12.3140
 0.5860	12.2510
 0.5870	12.1870
 0.5880	12.1350
 0.5890	12.1030
 0.5900	12.0740
 0.5910	12.0500
 0.5920	12.0290
 0.5930	12.0060
 0.5940	11.9990
 0.5950	12.0000
 0.5960	11.9980
 0.5970	11.9770
 0.5980	11.9550
 0.5990	11.9390
 0.6000	11.9280
 0.6010	11.9110
 0.6020	11.8900
 0.6030	11.8680
 0.6040	11.8450
 0.6050	11.8230
 0.6060	11.7950
 0.6070	11.7600
 0.6080	11.7240
 0.6090	11.6760
 0.6100	11.6110
 0.6110	11.5350
 0.6120	11.5040
 0.6130	11.4910
 0.6140	11.4750
 0.6150	11.4590
 0.6160	11.4330
 0.6170	11.4030
 0.6180	11.3780
 0.6190	11.3510
 0.6200	11.3300
 0.6210	11.3150
 0.6220	11.3020
 0.6230	11.2890
 0.6240	11.2790
 0.6250	11.2750
 0.6260	11.2740
 0.6270	11.2750
 0.6280	11.2760
 0.6290	11.2770
 0.6300	11.2710
 0.6310	11.2710
 0.6320	11.2750
 0.6330	11.2650
 0.6340	11.2500
 0.6350	11.2270
 0.6360	11.1930
 0.6370	11.1560
 0.6380	11.1090
 0.6390	11.0510
 0.6400	10.9850
 0.6410	10.9240
 0.6420	10.8590
 0.6430	10.7890
 0.6440	10.7350
 0.6450	10.6760
 0.6460	10.6180
 0.6470	10.5690
 0.6480	10.5210
 0.6490	10.4830
 0.6500	10.4550
 0.6510	10.4340
 0.6520	10.4150
 0.6530	10.4000
 0.6540	10.3880
 0.6550	10.3740
 0.6560	10.3570
 0.6570	10.3360
 0.6580	10.3130
 0.6590	10.2880
 0.6600	10.2650
 0.6610	10.2420
 0.6620	10.2160
 0.6630	10.1880
 0.6640	10.1610
 0.6650	10.1390
 0.6660	10.1210
 0.6670	10.1110
 0.6680	10.1050
 0.6690	10.0970
 0.6700	10.1000
 0.6710	10.1060
 0.6720	10.1150
 0.6730	10.1320
 0.6740	10.1470
 0.6750	10.1660
 0.6760	10.1980
 0.6770	10.2310
 0.6780	10.2650
 0.6790	10.3040
 0.6800	10.3500
 0.6810	10.4030
 0.6820	10.4630
 0.6830	10.5330
 0.6840	10.6190
 0.6850	10.7210
 0.6860	10.8360
 0.6870	10.9680
 0.6880	11.1330
 0.6890	11.3350
 0.6900	11.5780
 0.6910	11.8720
 0.6920	12.2280
 0.6930	12.6480
 0.6940	13.1320
 0.6950	13.6850
 0.6960	14.3160
 0.6970	15.0240
 0.6980	15.8040
 0.6990	16.6450
 0.7000	17.5410
 0.7010	18.4850
 0.7020	19.4670
 0.7030	20.4740
 0.7040	21.5000
 0.7050	22.5370
 0.7060	23.5720
 0.7070	24.6030
 0.7080	25.6310
 0.7090	26.6580
 0.7100	27.6600
 0.7110	28.6410
 0.7120	29.6040
 0.7130	30.5460
 0.7140	31.4720
 0.7150	32.3800
 0.7160	33.2620
 0.7170	34.1080
 0.7180	34.9260
 0.7190	35.7210
 0.7200	36.4960
 0.7210	37.2320
 0.7220	37.9430
 0.7230	38.6320
 0.7240	39.2830
 0.7250	39.9060
 0.7260	40.5060
 0.7270	41.0780
 0.7280	41.6060
 0.7290	42.1130
 0.7300	42.6000
 0.7310	43.0560
 0.7320	43.4970
 0.7330	43.9030
 0.7340	44.2720
 0.7350	44.6240
 0.7360	44.9640
 0.7370	45.2860
 0.7380	45.5850
 0.7390	45.8660
 0.7400	46.1280
 0.7410	46.3690
 0.7420	46.5920
 0.7430	46.8020
 0.7440	47.0020
 0.7450	47.1890
 0.7460	47.3560
 0.7470	47.4990
 0.7480	47.6390
 0.7490	47.7820
 0.7500	47.9050
 0.7510	48.0050
 0.7520	48.0920
 0.7530	48.1830
 0.7540	48.2730
 0.7550	48.3550
 0.7560	48.4240
 0.7570	48.4850
 0.7580	48.5370
 0.7590	48.5820
 0.7600	48.6270
 0.7610	48.6810
 0.7620	48.7210
 0.7630	48.7510
 0.7640	48.7820
 0.7650	48.8180
 0.7660	48.8480
 0.7670	48.8740
 0.7680	48.9040
 0.7690	48.9070
 0.7700	48.9150
 0.7710	48.9430
 0.7720	48.9700
 0.7730	48.9960
 0.7740	49.0140
 0.7750	49.0210
 0.7760	49.0340
 0.7770	49.0560
 0.7780	49.0790
 0.7790	49.0880
 0.7800	49.0920
 0.7810	49.1000
 0.7820	49.1180
 0.7830	49.1480
 0.7840	49.1590
 0.7850	49.1760
 0.7860	49.2100
 0.7870	49.2110
 0.7880	49.2130
 0.7890	49.2300
 0.7900	49.2610
 0.7910	49.2770
 0.7920	49.2950
 0.7930	49.3140
 0.7940	49.3260
 0.7950	49.3330
 0.7960	49.3470
 0.7970	49.3720
 0.7980	49.4020
 0.7990	49.4040
 0.8000	49.4070
 0.8010	49.4310
 0.8020	49.4460
 0.8030	49.4620
 0.8040	49.4780
 0.8050	49.4900
 0.8060	49.5230
 0.8070	49.5520
 0.8080	49.5620
 0.8090	49.5590
 0.8100	49.5710
 0.8110	49.5950
 0.8120	49.6220
 0.8130	49.6500
 0.8140	49.6520
 0.8150	49.6580
 0.8160	49.6930
 0.8170	49.7230
 0.8180	49.7390
 0.8190	49.7430
 0.8200	49.7430
 0.8210	49.7630
 0.8220	49.7910
 0.8230	49.8160
 0.8240	49.8350
 0.8250	49.8400
 0.8260	49.8540
 0.8270	49.8790
 0.8280	49.8880
 0.8290	49.9040
 0.8300	49.9170
 0.8310	49.9230
 0.8320	49.9430
 0.8330	49.9570
 0.8340	49.9730
 0.8350	50.0050
 0.8360	50.0190
 0.8370	50.0280
 0.8380	50.0390
 0.8390	50.0540
 0.8400	50.0590
 0.8410	50.0690
 0.8420	50.0940
 0.8430	50.1290
 0.8440	50.1360
 0.8450	50.1480
 0.8460	50.1830
 0.8470	50.1880
 0.8480	50.1800
 0.8490	50.1850
 0.8500	50.2180
 0.8510	50.2410
 0.8520	50.2440
 0.8530	50.2420
 0.8540	50.2610
 0.8550	50.2910
 0.8560	50.2910
 0.8570	50.2800
 0.8580	50.3260
 0.8590	50.3370
 0.8600	50.3290
 0.8610	50.3290
 0.8620	50.3490
 0.8630	50.3610
 0.8640	50.3790
 0.8650	50.4070
 0.8660	50.4130
 0.8670	50.4150
 0.8680	50.4130
 0.8690	50.4090
 0.8700	50.4190
 0.8710	50.4250
 0.8720	50.4350
 0.8730	50.4640
 0.8740	50.4590
 0.8750	50.4540
 0.8760	50.4650
 0.8770	50.4790
 0.8780	50.4680
 0.8790	50.4730
 0.8800	50.5050
 0.8810	50.5120
 0.8820	50.4960
 0.8830	50.4740
 0.8840	50.4720
 0.8850	50.5230
 0.8860	50.5210
 0.8870	50.4930
 0.8880	50.4930
 0.8890	50.5100
 0.8900	50.5110
 0.8910	50.5030
 0.8920	50.5060
 0.8930	50.5120
 0.8940	50.5220
 0.8950	50.5330
 0.8960	50.5410
 0.8970	50.5430
 0.8980	50.5250
 0.8990	50.5020
 0.9000	50.5080
 0.9010	50.5040
 0.9020	50.5070
 0.9030	50.5210
 0.9040	50.5230
 0.9050	50.5120
 0.9060	50.4970
 0.9070	50.4930
 0.9080	50.5120
 0.9090	50.5080
 0.9100	50.4960
 0.9110	50.4960
 0.9120	50.4830
 0.9130	50.4950
 0.9140	50.5120
 0.9150	50.5030
 0.9160	50.4940
 0.9170	50.4850
 0.9180	50.4760
 0.9190	50.4650
 0.9200	50.4720
 0.9210	50.4800
 0.9220	50.4720
 0.9230	50.4410
 0.9240	50.4500
 0.9250	50.4560
 0.9260	50.4440
 0.9270	50.4250
 0.9280	50.4110
 0.9290	50.4100
 0.9300	50.4080
 0.9310	50.3850
 0.9320	50.3710
 0.9330	50.3470
 0.9340	50.3100
 0.9350	50.2850
 0.9360	50.2970
 0.9370	50.3200
 0.9380	50.3230
 0.9390	50.2760
 0.9400	50.2360
 0.9410	50.2190
 0.9420	50.2130
 0.9430	50.1790
 0.9440	50.1650
 0.9450	50.1500
 0.9460	50.1060
 0.9470	50.0360
 0.9480	50.0210
 0.9490	50.0170
 0.9500	49.9740
 0.9510	49.9260
 0.9520	49.8830
 0.9530	49.8400
 0.9540	49.7930
 0.9550	49.7640
 0.9560	49.6980
 0.9570	49.6310
 0.9580	49.6000
 0.9590	49.5430
 0.9600	49.5020
 0.9610	49.4790
 0.9620	49.4560
 0.9630	49.3980
 0.9640	49.3540
 0.9650	49.3380
 0.9660	49.3370
 0.9670	49.3030
 0.9680	49.2870
 0.9690	49.2810
 0.9700	49.2600
 0.9710	49.2650
 0.9720	49.2660
 0.9730	49.2580
 0.9740	49.2500
 0.9750	49.2450
 0.9760	49.2480
 0.9770	49.2600
 0.9780	49.2760
 0.9790	49.2720
 0.9800	49.2200
 0.9810	49.1760
 0.9820	49.2140
 0.9830	49.2580
 0.9840	49.2660
 0.9850	49.2650
 0.9860	49.2980
 0.9870	49.3200
 0.9880	49.3450
 0.9890	49.3610
 0.9900	49.3560
 0.9910	49.3920
 0.9920	49.4280
 0.9930	49.4650
 0.9940	49.5010
 0.9950	49.5380
 0.9960	49.5740
 0.9970	49.6100
 0.9980	49.6470
 0.9990	49.6830
 1.0000	49.7200
 1.0010	49.7560
 1.0020	49.7930
 1.0030	49.8290
 1.0040	49.8650
 1.0050	49.9020
 1.0060	49.9380
 1.0070	49.9750
 1.0080	50.0110
 1.0090	50.0480
 1.0100	50.0480
 1.0110	50.0620
 1.0120	50.0820
 1.0130	50.1110
 1.0140	50.1350
 1.0150	50.1570
 1.0160	50.1770
 1.0170	50.2090
 1.0180	50.2350
 1.0190	50.2500
 1.0200	50.2710
 1.0210	50.2870
 1.0220	50.3000
 1.0230	50.3220
 1.0240	50.3570
 1.0250	50.3810
 1.0260	50.4010
 1.0270	50.4240
 1.0280	50.4470
 1.0290	50.4660
 1.0300	50.4880
 1.0310	50.5060
 1.0320	50.5180
 1.0330	50.5270
 1.0340	50.5450
 1.0350	50.5650
 1.0360	50.5820
 1.0370	50.6020
 1.0380	50.6230
 1.0390	50.6430
 1.0400	50.6620
 1.0410	50.6890
 1.0420	50.7030
 1.0430	50.7060
 1.0440	50.7160
 1.0450	50.7290
 1.0460	50.7360
 1.0470	50.7420
 1.0480	50.7480
 1.0490	50.7430
 1.0500	50.7470
 1.0510	50.7530
 1.0520	50.7730
 1.0530	50.7790
 1.0540	50.7850
 1.0550	50.7970
 1.0560	50.8090
 1.0570	50.8130
 1.0580	50.8180
 1.0590	50.8250
 1.0600	50.8230
 1.0610	50.8240
 1.0620	50.8350
 1.0630	50.8400
 1.0640	50.8340
 1.0650	50.8370
 1.0660	50.8500
 1.0670	50.8560
 1.0680	50.8600
 1.0690	50.8630
 1.0700	50.8670
 1.0710	50.8690
 1.0720	50.8660
 1.0730	50.8600
 1.0740	50.8620
 1.0750	50.8650
 1.0760	50.8620
 1.0770	50.8630
 1.0780	50.8600
 1.0790	50.8450
 1.0800	50.8400
 1.0810	50.8470
 1.0820	50.8470
 1.0830	50.8490
 1.0840	50.8470
 1.0850	50.8410
 1.0860	50.8320
 1.0870	50.8260
 1.0880	50.8140
 1.0890	50.8130
 1.0900	50.8200
 1.0910	50.8150
 1.0920	50.8070
 1.0930	50.8000
 1.0940	50.7830
 1.0950	50.7730
 1.0960	50.7700
 1.0970	50.7640
 1.0980	50.7560
 1.0990	50.7480
 1.1000	50.7400
 1.1010	50.7330
 1.1020	50.7240
 1.1030	50.7220
 1.1040	50.7130
 1.1050	50.6990
 1.1060	50.6900
 1.1070	50.6790
 1.1080	50.6670
 1.1090	50.6590
 1.1100	50.6460
 1.1110	50.6270
 1.1120	50.6100
 1.1130	50.5920
 1.1140	50.5740
 1.1150	50.5530
 1.1160	50.5330
 1.1170	50.5130
 1.1180	50.4930
 1.1190	50.4750
 1.1200	50.4580
 1.1210	50.4360
 1.1220	50.4100
 1.1230	50.3800
 1.1240	50.3410
 1.1250	50.3010
 1.1260	50.2560
 1.1270	50.2090
 1.1280	50.1590
 1.1290	50.1030
 1.1300	50.0460
 1.1310	49.9810
 1.1320	49.9140
 1.1330	49.8370
 1.1340	49.7460
 1.1350	49.6600
 1.1360	49.5690
 1.1370	49.4800
 1.1380	49.3910
 1.1390	49.2970
 1.1400	49.1980
 1.1410	49.0970
 1.1420	48.9890
 1.1430	48.8810
 1.1440	48.7680
 1.1450	48.6450
 1.1460	48.5300
 1.1470	48.4180
 1.1480	48.3050
 1.1490	48.1910
 1.1500	48.0810
 1.1510	47.9640
 1.1520	47.8620
 1.1530	47.7660
 1.1540	47.6820
 1.1550	47.6110
 1.1560	47.5450
 1.1570	47.4820
 1.1580	47.4230
 1.1590	47.3710
 1.1600	47.3270
 1.1610	47.2960
 1.1620	47.2700
 1.1630	47.2470
 1.1640	47.2260
 1.1650	47.2060
 1.1660	47.1880
 1.1670	47.1730
 1.1680	47.1610
 1.1690	47.1510
 1.1700	47.1500
 1.1710	47.1410
 1.1720	47.1250
 1.1730	47.1180
 1.1740	47.1140
 1.1750	47.1040
 1.1760	47.1030
 1.1770	47.1070
 1.1780	47.1020
 1.1790	47.0990
 1.1800	47.1000
 1.1810	47.0980
 1.1820	47.0940
 1.1830	47.0890
 1.1840	47.0830
 1.1850	47.0800
 1.1860	47.0780
 1.1870	47.0790
 1.1880	47.0780
 1.1890	47.0760
 1.1900	47.0730
 1.1910	47.0670
 1.1920	47.0650
 1.1930	47.0680
 1.1940	47.0680
 1.1950	47.0670
 1.1960	47.0680
 1.1970	47.0670
 1.1980	47.0700
 1.1990	47.0800
 1.2000	47.0970
 1.2010	47.1160
 1.2020	47.1320
 1.2030	47.1430
 1.2040	47.1530
 1.2050	47.1710
 1.2060	47.1900
 1.2070	47.2130
 1.2080	47.2340
 1.2090	47.2520
 1.2100	47.2720
 1.2110	47.2900
 1.2120	47.3080
 1.2130	47.3290
 1.2140	47.3490
 1.2150	47.3710
 1.2160	47.3970
 1.2170	47.4240
 1.2180	47.4460
 1.2190	47.4710
 1.2200	47.4970
 1.2210	47.5210
 1.2220	47.5490
 1.2230	47.5750
 1.2240	47.6020
 1.2250	47.6260
 1.2260	47.6430
 1.2270	47.6640
 1.2280	47.6840
 1.2290	47.7020
 1.2300	47.7260
 1.2310	47.7480
 1.2320	47.7610
 1.2330	47.7810
 1.2340	47.8010
 1.2350	47.8190
 1.2360	47.8360
 1.2370	47.8580
 1.2380	47.8760
 1.2390	47.8870
 1.2400	47.9040
 1.2410	47.9240
 1.2420	47.9390
 1.2430	47.9560
 1.2440	47.9720
 1.2450	47.9830
 1.2460	47.9960
 1.2470	48.0100
 1.2480	48.0260
 1.2490	48.0470
 1.2500	48.0600
 1.2510	48.0730
 1.2520	48.0790
 1.2530	48.0820
 1.2540	48.0950
 1.2550	48.1030
 1.2560	48.1150
 1.2570	48.1280
 1.2580	48.1340
 1.2590	48.1400
 1.2600	48.1440
 1.2610	48.1460
 1.2620	48.1460
 1.2630	48.1460
 1.2640	48.1450
 1.2650	48.1470
 1.2660	48.1510
 1.2670	48.1500
 1.2680	48.1480
 1.2690	48.1490
 1.2700	48.1470
 1.2710	48.1430
 1.2720	48.1430
 1.2730	48.1430
 1.2740	48.1420
 1.2750	48.1390
 1.2760	48.1350
 1.2770	48.1220
 1.2780	48.1050
 1.2790	48.0890
 1.2800	48.0760
 1.2810	48.0630
 1.2820	48.0520
 1.2830	48.0360
 1.2840	48.0140
 1.2850	47.9890
 1.2860	47.9620
 1.2870	47.9390
 1.2880	47.9160
 1.2890	47.8930
 1.2900	47.8700
 1.2910	47.8450
 1.2920	47.8150
 1.2930	47.7870
 1.2940	47.7590
 1.2950	47.7280
 1.2960	47.6970
 1.2970	47.6620
 1.2980	47.6260
 1.2990	47.5940
 1.3000	47.5570
 1.3010	47.5150
 1.3020	47.4690
 1.3030	47.4180
 1.3040	47.3690
 1.3050	47.3170
 1.3060	47.2630
 1.3070	47.2080
 1.3080	47.1490
 1.3090	47.0870
 1.3100	47.0220
 1.3110	46.9510
 1.3120	46.8780
 1.3130	46.8050
 1.3140	46.7290
 1.3150	46.6520
 1.3160	46.5730
 1.3170	46.4930
 1.3180	46.4060
 1.3190	46.3170
 1.3200	46.2270
 1.3210	46.1340
 1.3220	46.0410
 1.3230	45.9430
 1.3240	45.8430
 1.3250	45.7410
 1.3260	45.6390
 1.3270	45.5370
 1.3280	45.4250
 1.3290	45.3060
 1.3300	45.1870
 1.3310	45.0580
 1.3320	44.9320
 1.3330	44.8100
 1.3340	44.6830
 1.3350	44.5600
 1.3360	44.4400
 1.3370	44.3150
 1.3380	44.1870
 1.3390	44.0560
 1.3400	43.9250
 1.3410	43.7980
 1.3420	43.6720
 1.3430	43.5460
 1.3440	43.4180
 1.3450	43.2910
 1.3460	43.1630
 1.3470	43.0370
 1.3480	42.9110
 1.3490	42.7870
 1.3500	42.6640
 1.3510	42.5400
 1.3520	42.4190
 1.3530	42.2970
 1.3540	42.1740
 1.3550	42.0530
 1.3560	41.9300
 1.3570	41.8090
 1.3580	41.6910
 1.3590	41.5680
 1.3600	41.4460
 1.3610	41.3230
 1.3620	41.1880
 1.3630	41.0510
 1.3640	40.9130
 1.3650	40.7650
 1.3660	40.6140
 1.3670	40.4590
 1.3680	40.2920
 1.3690	40.1110
 1.3700	39.9260
 1.3710	39.7320
 1.3720	39.5250
 1.3730	39.3070
 1.3740	39.0760
 1.3750	38.8270
 1.3760	38.5590
 1.3770	38.2720
 1.3780	37.9650
 1.3790	37.6370
 1.3800	37.2920
 1.3810	36.9270
 1.3820	36.5440
 1.3830	36.1440
 1.3840	35.7240
 1.3850	35.2840
 1.3860	34.8280
 1.3870	34.3490
 1.3880	33.8660
 1.3890	33.3690
 1.3900	32.8590
 1.3910	32.3480
 1.3920	31.8260
 1.3930	31.2960
 1.3940	30.7680
 1.3950	30.2360
 1.3960	29.7070
 1.3970	29.1830
 1.3980	28.6670
 1.3990	28.1660
 1.4000	27.6770
 1.4010	27.2020
 1.4020	26.7400
 1.4030	26.2870
 1.4040	25.8490
 1.4050	25.4310
 1.4060	25.0330
 1.4070	24.6570
 1.4080	24.3010
 1.4090	23.9600
 1.4100	23.6410
 1.4110	23.3410
 1.4120	23.0630
 1.4130	22.8060
 1.4140	22.5680
 1.4150	22.3510
 1.4160	22.1470
 1.4170	21.9590
 1.4180	21.7860
 1.4190	21.6270
 1.4200	21.4830
 1.4210	21.3540
 1.4220	21.2370
 1.4230	21.1320
 1.4240	21.0350
 1.4250	20.9470
 1.4260	20.8660
 1.4270	20.7960
 1.4280	20.7370
 1.4290	20.6850
 1.4300	20.6440
 1.4310	20.6060
 1.4320	20.5740
 1.4330	20.5470
 1.4340	20.5270
 1.4350	20.5100
 1.4360	20.4980
 1.4370	20.4900
 1.4380	20.4890
 1.4390	20.4920
 1.4400	20.4980
 1.4410	20.5080
 1.4420	20.5190
 1.4430	20.5330
 1.4440	20.5510
 1.4450	20.5740
 1.4460	20.5960
 1.4470	20.6200
 1.4480	20.6460
 1.4490	20.6700
 1.4500	20.6970
 1.4510	20.7230
 1.4520	20.7510
 1.4530	20.7810
 1.4540	20.8120
 1.4550	20.8440
 1.4560	20.8750
 1.4570	20.9070
 1.4580	20.9420
 1.4590	20.9800
 1.4600	21.0240
 1.4610	21.0700
 1.4620	21.1200
 1.4630	21.1740
 1.4640	21.2280
 1.4650	21.2850
 1.4660	21.3470
 1.4670	21.4150
 1.4680	21.4880
 1.4690	21.5630
 1.4700	21.6400
