Name: Acer rubrum
Type: Vegetation
Class: Tree
Genus: Acer
Species: rubrum
Sample No.: ACRU-3-21
Owner: UCSB
Wavelength Range: VSWIR
Origin: USA; Massachusetts; Harvard Forest
Collection Date: 7/8/2013
Description: Samples were collected as part of NSF Macrosystem Biology proposal titled: Collaborative Research: Thermal controls on ecosystem metabolism and function: scaling from leaves to canopies to regions. Samples were collected and overnighted to JPL facilities for processing. The same leaves were processed in the Nicolet and then measured using the ASD.
Measurement: Bidirectional reflectance
First Column: X
Second Column: Y
X Units: Wavelength (micrometers)
Y Units: Reflectance (percentage)
First X Value: 0.35
Last X Value: 2.5
Number of X Values: 2151
Additional Information: vegetation.tree.acer.rubrum.vswir.acru-3-21.ucsb.asd.ancillary.txt

 0.3500	 8.3880
 0.3510	 8.4100
 0.3520	 8.3210
 0.3530	 8.2190
 0.3540	 8.1890
 0.3550	 8.0540
 0.3560	 7.9590
 0.3570	 8.0110
 0.3580	 8.2250
 0.3590	 8.0290
 0.3600	 7.9130
 0.3610	 8.0530
 0.3620	 8.0640
 0.3630	 8.0630
 0.3640	 8.0320
 0.3650	 7.9540
 0.3660	 7.8950
 0.3670	 7.9140
 0.3680	 7.9950
 0.3690	 8.0630
 0.3700	 8.0680
 0.3710	 8.0370
 0.3720	 8.0120
 0.3730	 8.0580
 0.3740	 7.9810
 0.3750	 7.9250
 0.3760	 8.0440
 0.3770	 7.9850
 0.3780	 7.8760
 0.3790	 7.8310
 0.3800	 7.9150
 0.3810	 7.9510
 0.3820	 7.8720
 0.3830	 7.7430
 0.3840	 7.8700
 0.3850	 7.9010
 0.3860	 7.8680
 0.3870	 7.9020
 0.3880	 7.8460
 0.3890	 7.8180
 0.3900	 7.8360
 0.3910	 7.8070
 0.3920	 7.8510
 0.3930	 7.9000
 0.3940	 7.8870
 0.3950	 7.8510
 0.3960	 7.8060
 0.3970	 7.8110
 0.3980	 7.9140
 0.3990	 7.9470
 0.4000	 7.9150
 0.4010	 7.8520
 0.4020	 7.7960
 0.4030	 7.7940
 0.4040	 7.8410
 0.4050	 7.8960
 0.4060	 7.8360
 0.4070	 7.8160
 0.4080	 7.8560
 0.4090	 7.8820
 0.4100	 7.8580
 0.4110	 7.8680
 0.4120	 7.9310
 0.4130	 7.9260
 0.4140	 7.9310
 0.4150	 7.9560
 0.4160	 7.9860
 0.4170	 7.9920
 0.4180	 7.9890
 0.4190	 7.9910
 0.4200	 8.0100
 0.4210	 8.0350
 0.4220	 8.0560
 0.4230	 8.0660
 0.4240	 8.0700
 0.4250	 8.0690
 0.4260	 8.0790
 0.4270	 8.1150
 0.4280	 8.1040
 0.4290	 8.1040
 0.4300	 8.1330
 0.4310	 8.1400
 0.4320	 8.1390
 0.4330	 8.1430
 0.4340	 8.1570
 0.4350	 8.1400
 0.4360	 8.1270
 0.4370	 8.1300
 0.4380	 8.1420
 0.4390	 8.1260
 0.4400	 8.1240
 0.4410	 8.1530
 0.4420	 8.1610
 0.4430	 8.1530
 0.4440	 8.1450
 0.4450	 8.1540
 0.4460	 8.1540
 0.4470	 8.1570
 0.4480	 8.1700
 0.4490	 8.1920
 0.4500	 8.2040
 0.4510	 8.2070
 0.4520	 8.2090
 0.4530	 8.2200
 0.4540	 8.2200
 0.4550	 8.2160
 0.4560	 8.2330
 0.4570	 8.2320
 0.4580	 8.2390
 0.4590	 8.2600
 0.4600	 8.2430
 0.4610	 8.2370
 0.4620	 8.2410
 0.4630	 8.2440
 0.4640	 8.2440
 0.4650	 8.2440
 0.4660	 8.2430
 0.4670	 8.2400
 0.4680	 8.2350
 0.4690	 8.2380
 0.4700	 8.2480
 0.4710	 8.2460
 0.4720	 8.2420
 0.4730	 8.2380
 0.4740	 8.2330
 0.4750	 8.2230
 0.4760	 8.2280
 0.4770	 8.2460
 0.4780	 8.2340
 0.4790	 8.2410
 0.4800	 8.2530
 0.4810	 8.2470
 0.4820	 8.2380
 0.4830	 8.2360
 0.4840	 8.2440
 0.4850	 8.2530
 0.4860	 8.2560
 0.4870	 8.2620
 0.4880	 8.2740
 0.4890	 8.2710
 0.4900	 8.2760
 0.4910	 8.2900
 0.4920	 8.3020
 0.4930	 8.3260
 0.4940	 8.3500
 0.4950	 8.3710
 0.4960	 8.3960
 0.4970	 8.4090
 0.4980	 8.4290
 0.4990	 8.4720
 0.5000	 8.5030
 0.5010	 8.5360
 0.5020	 8.5720
 0.5030	 8.6080
 0.5040	 8.6500
 0.5050	 8.7070
 0.5060	 8.7770
 0.5070	 8.8390
 0.5080	 8.9120
 0.5090	 8.9980
 0.5100	 9.0910
 0.5110	 9.1880
 0.5120	 9.2980
 0.5130	 9.4260
 0.5140	 9.5780
 0.5150	 9.7230
 0.5160	 9.8820
 0.5170	10.0730
 0.5180	10.2640
 0.5190	10.4680
 0.5200	10.6850
 0.5210	10.9070
 0.5220	11.1360
 0.5230	11.3680
 0.5240	11.5990
 0.5250	11.8320
 0.5260	12.0610
 0.5270	12.2810
 0.5280	12.4890
 0.5290	12.6820
 0.5300	12.8580
 0.5310	13.0220
 0.5320	13.1800
 0.5330	13.3220
 0.5340	13.4540
 0.5350	13.5790
 0.5360	13.6710
 0.5370	13.7650
 0.5380	13.8580
 0.5390	13.9170
 0.5400	13.9690
 0.5410	14.0200
 0.5420	14.0740
 0.5430	14.1330
 0.5440	14.1910
 0.5450	14.2490
 0.5460	14.3110
 0.5470	14.3580
 0.5480	14.3990
 0.5490	14.4380
 0.5500	14.4720
 0.5510	14.4950
 0.5520	14.5070
 0.5530	14.5070
 0.5540	14.5020
 0.5550	14.4740
 0.5560	14.4260
 0.5570	14.3680
 0.5580	14.2890
 0.5590	14.1900
 0.5600	14.0780
 0.5610	13.9600
 0.5620	13.8330
 0.5630	13.6940
 0.5640	13.5380
 0.5650	13.3870
 0.5660	13.2340
 0.5670	13.0750
 0.5680	12.9100
 0.5690	12.7440
 0.5700	12.5780
 0.5710	12.4150
 0.5720	12.2600
 0.5730	12.1120
 0.5740	11.9710
 0.5750	11.8410
 0.5760	11.7210
 0.5770	11.6080
 0.5780	11.4990
 0.5790	11.3890
 0.5800	11.2870
 0.5810	11.1930
 0.5820	11.1090
 0.5830	11.0410
 0.5840	10.9810
 0.5850	10.9220
 0.5860	10.8630
 0.5870	10.8120
 0.5880	10.7670
 0.5890	10.7230
 0.5900	10.6770
 0.5910	10.6380
 0.5920	10.6060
 0.5930	10.5710
 0.5940	10.5470
 0.5950	10.5260
 0.5960	10.5020
 0.5970	10.4780
 0.5980	10.4530
 0.5990	10.4300
 0.6000	10.4090
 0.6010	10.3800
 0.6020	10.3460
 0.6030	10.3080
 0.6040	10.2680
 0.6050	10.2260
 0.6060	10.1760
 0.6070	10.1190
 0.6080	10.0630
 0.6090	10.0030
 0.6100	 9.9330
 0.6110	 9.8540
 0.6120	 9.8020
 0.6130	 9.7550
 0.6140	 9.7020
 0.6150	 9.6530
 0.6160	 9.6050
 0.6170	 9.5620
 0.6180	 9.5280
 0.6190	 9.4840
 0.6200	 9.4430
 0.6210	 9.4110
 0.6220	 9.3820
 0.6230	 9.3660
 0.6240	 9.3500
 0.6250	 9.3270
 0.6260	 9.3180
 0.6270	 9.3090
 0.6280	 9.2970
 0.6290	 9.2890
 0.6300	 9.2810
 0.6310	 9.2730
 0.6320	 9.2630
 0.6330	 9.2540
 0.6340	 9.2390
 0.6350	 9.2140
 0.6360	 9.1820
 0.6370	 9.1550
 0.6380	 9.1200
 0.6390	 9.0780
 0.6400	 9.0310
 0.6410	 8.9830
 0.6420	 8.9350
 0.6430	 8.8870
 0.6440	 8.8390
 0.6450	 8.7950
 0.6460	 8.7510
 0.6470	 8.7080
 0.6480	 8.6770
 0.6490	 8.6480
 0.6500	 8.6190
 0.6510	 8.5940
 0.6520	 8.5730
 0.6530	 8.5550
 0.6540	 8.5380
 0.6550	 8.5130
 0.6560	 8.4920
 0.6570	 8.4730
 0.6580	 8.4500
 0.6590	 8.4240
 0.6600	 8.3980
 0.6610	 8.3730
 0.6620	 8.3520
 0.6630	 8.3270
 0.6640	 8.3060
 0.6650	 8.2940
 0.6660	 8.2770
 0.6670	 8.2670
 0.6680	 8.2650
 0.6690	 8.2690
 0.6700	 8.2650
 0.6710	 8.2630
 0.6720	 8.2690
 0.6730	 8.2810
 0.6740	 8.2910
 0.6750	 8.3020
 0.6760	 8.3190
 0.6770	 8.3430
 0.6780	 8.3670
 0.6790	 8.3900
 0.6800	 8.4170
 0.6810	 8.4470
 0.6820	 8.4830
 0.6830	 8.5250
 0.6840	 8.5730
 0.6850	 8.6260
 0.6860	 8.6860
 0.6870	 8.7570
 0.6880	 8.8460
 0.6890	 8.9570
 0.6900	 9.0970
 0.6910	 9.2780
 0.6920	 9.5090
 0.6930	 9.7940
 0.6940	10.1410
 0.6950	10.5730
 0.6960	11.0820
 0.6970	11.6760
 0.6980	12.3630
 0.6990	13.1240
 0.7000	13.9570
 0.7010	14.8550
 0.7020	15.8120
 0.7030	16.7950
 0.7040	17.8100
 0.7050	18.8540
 0.7060	19.8940
 0.7070	20.9390
 0.7080	21.9880
 0.7090	23.0350
 0.7100	24.0730
 0.7110	25.1100
 0.7120	26.1440
 0.7130	27.1510
 0.7140	28.1610
 0.7150	29.1620
 0.7160	30.1400
 0.7170	31.1030
 0.7180	32.0570
 0.7190	32.9960
 0.7200	33.9090
 0.7210	34.8020
 0.7220	35.6770
 0.7230	36.5320
 0.7240	37.3660
 0.7250	38.1650
 0.7260	38.9340
 0.7270	39.6770
 0.7280	40.3830
 0.7290	41.0720
 0.7300	41.7310
 0.7310	42.3380
 0.7320	42.9330
 0.7330	43.5050
 0.7340	44.0400
 0.7350	44.5310
 0.7360	45.0090
 0.7370	45.4570
 0.7380	45.8700
 0.7390	46.2800
 0.7400	46.6500
 0.7410	46.9840
 0.7420	47.3070
 0.7430	47.6070
 0.7440	47.8820
 0.7450	48.1390
 0.7460	48.3850
 0.7470	48.5890
 0.7480	48.7810
 0.7490	48.9760
 0.7500	49.1330
 0.7510	49.2740
 0.7520	49.4070
 0.7530	49.5380
 0.7540	49.6580
 0.7550	49.7570
 0.7560	49.8410
 0.7570	49.9280
 0.7580	50.0060
 0.7590	50.0690
 0.7600	50.1190
 0.7610	50.1670
 0.7620	50.2210
 0.7630	50.2730
 0.7640	50.3100
 0.7650	50.3520
 0.7660	50.3750
 0.7670	50.3910
 0.7680	50.4250
 0.7690	50.4500
 0.7700	50.4570
 0.7710	50.4600
 0.7720	50.4910
 0.7730	50.5080
 0.7740	50.5110
 0.7750	50.5150
 0.7760	50.5270
 0.7770	50.5490
 0.7780	50.5710
 0.7790	50.5810
 0.7800	50.5860
 0.7810	50.5860
 0.7820	50.5900
 0.7830	50.6170
 0.7840	50.6180
 0.7850	50.6210
 0.7860	50.6410
 0.7870	50.6360
 0.7880	50.6250
 0.7890	50.6290
 0.7900	50.6580
 0.7910	50.6670
 0.7920	50.6680
 0.7930	50.6670
 0.7940	50.6680
 0.7950	50.6760
 0.7960	50.6840
 0.7970	50.6850
 0.7980	50.6800
 0.7990	50.6850
 0.8000	50.6890
 0.8010	50.6800
 0.8020	50.6750
 0.8030	50.6780
 0.8040	50.6840
 0.8050	50.6830
 0.8060	50.6850
 0.8070	50.6870
 0.8080	50.6830
 0.8090	50.6650
 0.8100	50.6640
 0.8110	50.6650
 0.8120	50.6600
 0.8130	50.6610
 0.8140	50.6480
 0.8150	50.6370
 0.8160	50.6410
 0.8170	50.6450
 0.8180	50.6400
 0.8190	50.6280
 0.8200	50.6170
 0.8210	50.6050
 0.8220	50.5990
 0.8230	50.6020
 0.8240	50.6100
 0.8250	50.6080
 0.8260	50.5970
 0.8270	50.5830
 0.8280	50.5700
 0.8290	50.5670
 0.8300	50.5620
 0.8310	50.5500
 0.8320	50.5600
 0.8330	50.5570
 0.8340	50.5440
 0.8350	50.5380
 0.8360	50.5400
 0.8370	50.5420
 0.8380	50.5340
 0.8390	50.5120
 0.8400	50.5240
 0.8410	50.5390
 0.8420	50.5360
 0.8430	50.5260
 0.8440	50.5280
 0.8450	50.5240
 0.8460	50.5070
 0.8470	50.5180
 0.8480	50.5270
 0.8490	50.5300
 0.8500	50.5310
 0.8510	50.5320
 0.8520	50.5220
 0.8530	50.5100
 0.8540	50.5150
 0.8550	50.5180
 0.8560	50.5110
 0.8570	50.5040
 0.8580	50.5240
 0.8590	50.5260
 0.8600	50.5250
 0.8610	50.5290
 0.8620	50.5180
 0.8630	50.5200
 0.8640	50.5240
 0.8650	50.5200
 0.8660	50.5240
 0.8670	50.5320
 0.8680	50.5390
 0.8690	50.5390
 0.8700	50.5190
 0.8710	50.5140
 0.8720	50.5290
 0.8730	50.5470
 0.8740	50.5480
 0.8750	50.5390
 0.8760	50.5340
 0.8770	50.5420
 0.8780	50.5490
 0.8790	50.5520
 0.8800	50.5480
 0.8810	50.5300
 0.8820	50.5330
 0.8830	50.5450
 0.8840	50.5500
 0.8850	50.5440
 0.8860	50.5500
 0.8870	50.5520
 0.8880	50.5390
 0.8890	50.5580
 0.8900	50.5600
 0.8910	50.5550
 0.8920	50.5680
 0.8930	50.5650
 0.8940	50.5570
 0.8950	50.5540
 0.8960	50.5600
 0.8970	50.5560
 0.8980	50.5490
 0.8990	50.5470
 0.9000	50.5490
 0.9010	50.5570
 0.9020	50.5580
 0.9030	50.5540
 0.9040	50.5670
 0.9050	50.5690
 0.9060	50.5620
 0.9070	50.5550
 0.9080	50.5540
 0.9090	50.5530
 0.9100	50.5590
 0.9110	50.5710
 0.9120	50.5530
 0.9130	50.5390
 0.9140	50.5380
 0.9150	50.5460
 0.9160	50.5430
 0.9170	50.5380
 0.9180	50.5380
 0.9190	50.5440
 0.9200	50.5520
 0.9210	50.5350
 0.9220	50.5150
 0.9230	50.5310
 0.9240	50.5290
 0.9250	50.5390
 0.9260	50.5350
 0.9270	50.4670
 0.9280	50.4530
 0.9290	50.4630
 0.9300	50.4630
 0.9310	50.4340
 0.9320	50.4380
 0.9330	50.4300
 0.9340	50.3950
 0.9350	50.3670
 0.9360	50.3670
 0.9370	50.3540
 0.9380	50.3200
 0.9390	50.3110
 0.9400	50.3060
 0.9410	50.2860
 0.9420	50.2510
 0.9430	50.2330
 0.9440	50.2160
 0.9450	50.1920
 0.9460	50.1630
 0.9470	50.1550
 0.9480	50.1060
 0.9490	50.0460
 0.9500	50.0110
 0.9510	49.9940
 0.9520	49.9650
 0.9530	49.9230
 0.9540	49.8750
 0.9550	49.8020
 0.9560	49.7420
 0.9570	49.7070
 0.9580	49.6880
 0.9590	49.6370
 0.9600	49.6040
 0.9610	49.5830
 0.9620	49.5470
 0.9630	49.5040
 0.9640	49.4900
 0.9650	49.4780
 0.9660	49.4350
 0.9670	49.4330
 0.9680	49.4110
 0.9690	49.3830
 0.9700	49.3820
 0.9710	49.3740
 0.9720	49.3610
 0.9730	49.3560
 0.9740	49.3620
 0.9750	49.3380
 0.9760	49.3230
 0.9770	49.3240
 0.9780	49.3290
 0.9790	49.3400
 0.9800	49.3310
 0.9810	49.3090
 0.9820	49.3000
 0.9830	49.3310
 0.9840	49.3260
 0.9850	49.3070
 0.9860	49.3250
 0.9870	49.2880
 0.9880	49.2800
 0.9890	49.3200
 0.9900	49.3700
 0.9910	49.3490
 0.9920	49.3650
 0.9930	49.3810
 0.9940	49.3970
 0.9950	49.4130
 0.9960	49.4300
 0.9970	49.4460
 0.9980	49.4620
 0.9990	49.4780
 1.0000	49.4940
 1.0010	49.5100
 1.0020	49.5260
 1.0030	49.5420
 1.0040	49.5580
 1.0050	49.5740
 1.0060	49.5900
 1.0070	49.6070
 1.0080	49.6230
 1.0090	49.6390
 1.0100	49.6390
 1.0110	49.6480
 1.0120	49.6570
 1.0130	49.6670
 1.0140	49.6780
 1.0150	49.6860
 1.0160	49.7000
 1.0170	49.7100
 1.0180	49.7110
 1.0190	49.7110
 1.0200	49.7120
 1.0210	49.7200
 1.0220	49.7400
 1.0230	49.7530
 1.0240	49.7720
 1.0250	49.7810
 1.0260	49.7800
 1.0270	49.7860
 1.0280	49.7960
 1.0290	49.8000
 1.0300	49.8010
 1.0310	49.8100
 1.0320	49.8170
 1.0330	49.8250
 1.0340	49.8410
 1.0350	49.8530
 1.0360	49.8570
 1.0370	49.8570
 1.0380	49.8570
 1.0390	49.8540
 1.0400	49.8520
 1.0410	49.8480
 1.0420	49.8490
 1.0430	49.8550
 1.0440	49.8570
 1.0450	49.8600
 1.0460	49.8640
 1.0470	49.8630
 1.0480	49.8660
 1.0490	49.8760
 1.0500	49.8790
 1.0510	49.8800
 1.0520	49.8790
 1.0530	49.8810
 1.0540	49.8810
 1.0550	49.8830
 1.0560	49.8900
 1.0570	49.8920
 1.0580	49.8880
 1.0590	49.8920
 1.0600	49.9020
 1.0610	49.9050
 1.0620	49.9120
 1.0630	49.9120
 1.0640	49.9010
 1.0650	49.8970
 1.0660	49.8980
 1.0670	49.8970
 1.0680	49.8970
 1.0690	49.9000
 1.0700	49.9020
 1.0710	49.9050
 1.0720	49.9050
 1.0730	49.9080
 1.0740	49.9050
 1.0750	49.8940
 1.0760	49.8900
 1.0770	49.8880
 1.0780	49.8840
 1.0790	49.8800
 1.0800	49.8780
 1.0810	49.8760
 1.0820	49.8720
 1.0830	49.8720
 1.0840	49.8690
 1.0850	49.8680
 1.0860	49.8600
 1.0870	49.8540
 1.0880	49.8470
 1.0890	49.8390
 1.0900	49.8270
 1.0910	49.8170
 1.0920	49.8060
 1.0930	49.7970
 1.0940	49.7890
 1.0950	49.7800
 1.0960	49.7700
 1.0970	49.7630
 1.0980	49.7590
 1.0990	49.7480
 1.1000	49.7340
 1.1010	49.7200
 1.1020	49.7010
 1.1030	49.6800
 1.1040	49.6670
 1.1050	49.6490
 1.1060	49.6330
 1.1070	49.6180
 1.1080	49.6010
 1.1090	49.5870
 1.1100	49.5680
 1.1110	49.5450
 1.1120	49.5240
 1.1130	49.4990
 1.1140	49.4780
 1.1150	49.4660
 1.1160	49.4450
 1.1170	49.4230
 1.1180	49.3970
 1.1190	49.3640
 1.1200	49.3310
 1.1210	49.2970
 1.1220	49.2610
 1.1230	49.2280
 1.1240	49.1950
 1.1250	49.1580
 1.1260	49.1250
 1.1270	49.0850
 1.1280	49.0390
 1.1290	48.9930
 1.1300	48.9480
 1.1310	48.8960
 1.1320	48.8450
 1.1330	48.7830
 1.1340	48.7090
 1.1350	48.6380
 1.1360	48.5610
 1.1370	48.4810
 1.1380	48.4020
 1.1390	48.3160
 1.1400	48.2250
 1.1410	48.1310
 1.1420	48.0340
 1.1430	47.9340
 1.1440	47.8350
 1.1450	47.7330
 1.1460	47.6350
 1.1470	47.5350
 1.1480	47.4410
 1.1490	47.3460
 1.1500	47.2600
 1.1510	47.1800
 1.1520	47.1050
 1.1530	47.0380
 1.1540	46.9730
 1.1550	46.9130
 1.1560	46.8580
 1.1570	46.8070
 1.1580	46.7610
 1.1590	46.7210
 1.1600	46.6870
 1.1610	46.6550
 1.1620	46.6270
 1.1630	46.6000
 1.1640	46.5740
 1.1650	46.5520
 1.1660	46.5330
 1.1670	46.5200
 1.1680	46.5150
 1.1690	46.5080
 1.1700	46.5050
 1.1710	46.4990
 1.1720	46.4890
 1.1730	46.4830
 1.1740	46.4790
 1.1750	46.4770
 1.1760	46.4690
 1.1770	46.4610
 1.1780	46.4500
 1.1790	46.4410
 1.1800	46.4410
 1.1810	46.4350
 1.1820	46.4300
 1.1830	46.4260
 1.1840	46.4140
 1.1850	46.4050
 1.1860	46.4010
 1.1870	46.3900
 1.1880	46.3840
 1.1890	46.3850
 1.1900	46.3790
 1.1910	46.3700
 1.1920	46.3630
 1.1930	46.3510
 1.1940	46.3420
 1.1950	46.3360
 1.1960	46.3310
 1.1970	46.3260
 1.1980	46.3220
 1.1990	46.3250
 1.2000	46.3270
 1.2010	46.3270
 1.2020	46.3280
 1.2030	46.3270
 1.2040	46.3280
 1.2050	46.3330
 1.2060	46.3400
 1.2070	46.3480
 1.2080	46.3570
 1.2090	46.3670
 1.2100	46.3750
 1.2110	46.3840
 1.2120	46.3950
 1.2130	46.4050
 1.2140	46.4180
 1.2150	46.4300
 1.2160	46.4410
 1.2170	46.4510
 1.2180	46.4640
 1.2190	46.4720
 1.2200	46.4840
 1.2210	46.5000
 1.2220	46.5120
 1.2230	46.5290
 1.2240	46.5480
 1.2250	46.5600
 1.2260	46.5740
 1.2270	46.5870
 1.2280	46.5950
 1.2290	46.6080
 1.2300	46.6200
 1.2310	46.6320
 1.2320	46.6480
 1.2330	46.6600
 1.2340	46.6700
 1.2350	46.6790
 1.2360	46.6860
 1.2370	46.6890
 1.2380	46.6940
 1.2390	46.7010
 1.2400	46.7100
 1.2410	46.7170
 1.2420	46.7240
 1.2430	46.7310
 1.2440	46.7370
 1.2450	46.7440
 1.2460	46.7520
 1.2470	46.7600
 1.2480	46.7680
 1.2490	46.7730
 1.2500	46.7800
 1.2510	46.7860
 1.2520	46.7880
 1.2530	46.7880
 1.2540	46.7880
 1.2550	46.7860
 1.2560	46.7860
 1.2570	46.7860
 1.2580	46.7840
 1.2590	46.7820
 1.2600	46.7790
 1.2610	46.7730
 1.2620	46.7650
 1.2630	46.7640
 1.2640	46.7600
 1.2650	46.7540
 1.2660	46.7520
 1.2670	46.7440
 1.2680	46.7330
 1.2690	46.7240
 1.2700	46.7200
 1.2710	46.7110
 1.2720	46.6920
 1.2730	46.6790
 1.2740	46.6640
 1.2750	46.6500
 1.2760	46.6420
 1.2770	46.6280
 1.2780	46.6140
 1.2790	46.6000
 1.2800	46.5850
 1.2810	46.5710
 1.2820	46.5550
 1.2830	46.5340
 1.2840	46.5140
 1.2850	46.4930
 1.2860	46.4700
 1.2870	46.4510
 1.2880	46.4360
 1.2890	46.4210
 1.2900	46.4030
 1.2910	46.3820
 1.2920	46.3610
 1.2930	46.3320
 1.2940	46.3010
 1.2950	46.2770
 1.2960	46.2460
 1.2970	46.2140
 1.2980	46.1850
 1.2990	46.1510
 1.3000	46.1190
 1.3010	46.0840
 1.3020	46.0460
 1.3030	46.0090
 1.3040	45.9640
 1.3050	45.9170
 1.3060	45.8710
 1.3070	45.8240
 1.3080	45.7720
 1.3090	45.7180
 1.3100	45.6630
 1.3110	45.6030
 1.3120	45.5410
 1.3130	45.4820
 1.3140	45.4190
 1.3150	45.3560
 1.3160	45.2860
 1.3170	45.2110
 1.3180	45.1310
 1.3190	45.0490
 1.3200	44.9620
 1.3210	44.8760
 1.3220	44.7860
 1.3230	44.6880
 1.3240	44.5870
 1.3250	44.4890
 1.3260	44.3900
 1.3270	44.2900
 1.3280	44.1900
 1.3290	44.0830
 1.3300	43.9720
 1.3310	43.8620
 1.3320	43.7500
 1.3330	43.6390
 1.3340	43.5250
 1.3350	43.4080
 1.3360	43.2900
 1.3370	43.1720
 1.3380	43.0580
 1.3390	42.9470
 1.3400	42.8360
 1.3410	42.7230
 1.3420	42.6070
 1.3430	42.4900
 1.3440	42.3730
 1.3450	42.2570
 1.3460	42.1430
 1.3470	42.0300
 1.3480	41.9170
 1.3490	41.8050
 1.3500	41.6940
 1.3510	41.5840
 1.3520	41.4740
 1.3530	41.3680
 1.3540	41.2610
 1.3550	41.1500
 1.3560	41.0400
 1.3570	40.9260
 1.3580	40.8130
 1.3590	40.7020
 1.3600	40.5870
 1.3610	40.4700
 1.3620	40.3480
 1.3630	40.2190
 1.3640	40.0850
 1.3650	39.9440
 1.3660	39.7950
 1.3670	39.6430
 1.3680	39.4820
 1.3690	39.3120
 1.3700	39.1310
 1.3710	38.9350
 1.3720	38.7260
 1.3730	38.5030
 1.3740	38.2670
 1.3750	38.0160
 1.3760	37.7470
 1.3770	37.4570
 1.3780	37.1440
 1.3790	36.8110
 1.3800	36.4570
 1.3810	36.0800
 1.3820	35.6820
 1.3830	35.2630
 1.3840	34.8240
 1.3850	34.3650
 1.3860	33.8890
 1.3870	33.3910
 1.3880	32.8840
 1.3890	32.3620
 1.3900	31.8260
 1.3910	31.2880
 1.3920	30.7400
 1.3930	30.1810
 1.3940	29.6240
 1.3950	29.0600
 1.3960	28.5010
 1.3970	27.9520
 1.3980	27.4070
 1.3990	26.8780
 1.4000	26.3610
 1.4010	25.8550
 1.4020	25.3690
 1.4030	24.8960
 1.4040	24.4410
 1.4050	24.0080
 1.4060	23.5930
 1.4070	23.2030
 1.4080	22.8360
 1.4090	22.4890
 1.4100	22.1660
 1.4110	21.8640
 1.4120	21.5830
 1.4130	21.3240
 1.4140	21.0850
 1.4150	20.8660
 1.4160	20.6670
 1.4170	20.4840
 1.4180	20.3170
 1.4190	20.1630
 1.4200	20.0230
 1.4210	19.8980
 1.4220	19.7850
 1.4230	19.6830
 1.4240	19.5900
 1.4250	19.5070
 1.4260	19.4320
 1.4270	19.3660
 1.4280	19.3110
 1.4290	19.2610
 1.4300	19.2190
 1.4310	19.1820
 1.4320	19.1500
 1.4330	19.1240
 1.4340	19.1050
 1.4350	19.0890
 1.4360	19.0780
 1.4370	19.0690
 1.4380	19.0630
 1.4390	19.0620
 1.4400	19.0620
 1.4410	19.0660
 1.4420	19.0740
 1.4430	19.0820
 1.4440	19.0930
 1.4450	19.1070
 1.4460	19.1240
 1.4470	19.1420
 1.4480	19.1630
 1.4490	19.1840
 1.4500	19.2030
 1.4510	19.2240
 1.4520	19.2490
 1.4530	19.2750
 1.4540	19.3040
 1.4550	19.3330
 1.4560	19.3640
 1.4570	19.3990
 1.4580	19.4380
 1.4590	19.4790
 1.4600	19.5250
 1.4610	19.5750
 1.4620	19.6310
 1.4630	19.6940
 1.4640	19.7590
 1.4650	19.8280
 1.4660	19.9040
 1.4670	19.9850
 1.4680	20.0710
 1.4690	20.1630
 1.4700	20.2580
 1.4710	20.3570
 1.4720	20.4620
 1.4730	20.5730
