Name: Baccharis pilularis 2
Type: vegetation
Class: Shrub
Genus: Baccharis
Species: pilularis
Sample No.: VH100
Owner: UCSB
Wavelength Range: TIR
Origin: 34.418; -119.8455; WGS84
Collection Date: 6/3/2013
Description: Samples were collected as part of the HyspIRI Airborne Campaign. 48 individual plants were sampled in three times in 2013 - spring  summer  and fall. The name of the sample includes a 1  2  or 3 which references a different individual of the species. Samples were taken to JPL and processed within 48 hours of collection. The same leaves were processed in the Nicolet and then measured using the ASD.
Measurement: Hemispherical reflectance
First Column: X
Second Column: Y
X Units: Wavelength (micrometers)
Y Units: Reflectance (percentage)
First X Value: 2.501
Last X Value: 15.387
Number of X Values: 1737
Additional Information: vegetation.shrub.baccharis.pilularis.tir.vh100.ucsb.nicolet.ancillary.txt

 2.5010	 3.5790
 2.5030	 3.6080
 2.5040	 3.6760
 2.5050	 3.6390
 2.5060	 3.6280
 2.5070	 3.6120
 2.5090	 3.6560
 2.5100	 3.6360
 2.5110	 3.6380
 2.5120	 3.6370
 2.5140	 3.6450
 2.5150	 3.6260
 2.5160	 3.6100
 2.5170	 3.6100
 2.5180	 3.6890
 2.5200	 3.6640
 2.5210	 3.6350
 2.5220	 3.6230
 2.5230	 3.6270
 2.5250	 3.6140
 2.5260	 3.6520
 2.5270	 3.6640
 2.5280	 3.6930
 2.5290	 3.6290
 2.5310	 3.6050
 2.5320	 3.6130
 2.5330	 3.7030
 2.5340	 3.7290
 2.5360	 3.7320
 2.5370	 3.7350
 2.5380	 3.7400
 2.5390	 3.7120
 2.5410	 3.7440
 2.5420	 3.7270
 2.5430	 3.7340
 2.5440	 3.7260
 2.5460	 3.7640
 2.5470	 3.7920
 2.5480	 3.8350
 2.5490	 3.8040
 2.5510	 3.7500
 2.5520	 3.7040
 2.5530	 3.7260
 2.5540	 3.7310
 2.5560	 3.8010
 2.5570	 3.8290
 2.5580	 3.8350
 2.5590	 3.8150
 2.5610	 3.8210
 2.5620	 3.7960
 2.5630	 3.7860
 2.5640	 3.7800
 2.5660	 3.8460
 2.5670	 3.8810
 2.5680	 3.8830
 2.5700	 3.8570
 2.5710	 3.8560
 2.5720	 3.8590
 2.5730	 3.8530
 2.5750	 3.8170
 2.5760	 3.8500
 2.5770	 3.8220
 2.5790	 3.8460
 2.5800	 3.8720
 2.5810	 3.8900
 2.5820	 3.8710
 2.5840	 3.8700
 2.5850	 3.8390
 2.5860	 3.8370
 2.5880	 3.8280
 2.5890	 3.8740
 2.5900	 3.8760
 2.5910	 3.8790
 2.5930	 3.8590
 2.5940	 3.8620
 2.5950	 3.8150
 2.5970	 3.8250
 2.5980	 3.8730
 2.5990	 3.8850
 2.6000	 3.8410
 2.6020	 3.9250
 2.6030	 3.9300
 2.6040	 3.8890
 2.6060	 3.8530
 2.6070	 3.9070
 2.6080	 3.8990
 2.6100	 3.8690
 2.6110	 3.8730
 2.6120	 3.8750
 2.6140	 3.8460
 2.6150	 3.8680
 2.6160	 3.8360
 2.6180	 3.8630
 2.6190	 3.8940
 2.6200	 3.9030
 2.6220	 3.8960
 2.6230	 3.9530
 2.6240	 3.9490
 2.6260	 3.9020
 2.6270	 3.8240
 2.6280	 3.8220
 2.6300	 3.8070
 2.6310	 3.8700
 2.6320	 3.9080
 2.6340	 3.9190
 2.6350	 3.8850
 2.6360	 3.8370
 2.6380	 3.8100
 2.6390	 3.8520
 2.6400	 3.8250
 2.6420	 3.8160
 2.6430	 3.8520
 2.6440	 3.9310
 2.6460	 3.8580
 2.6470	 3.8000
 2.6480	 3.7970
 2.6500	 3.7890
 2.6510	 3.7510
 2.6520	 3.7970
 2.6540	 3.8000
 2.6550	 3.8340
 2.6560	 3.7980
 2.6580	 3.7980
 2.6590	 3.7910
 2.6610	 3.7740
 2.6620	 3.7690
 2.6630	 3.7920
 2.6650	 3.7340
 2.6660	 3.6640
 2.6670	 3.6250
 2.6690	 3.6960
 2.6700	 3.6710
 2.6720	 3.6560
 2.6730	 3.6260
 2.6740	 3.6200
 2.6760	 3.5740
 2.6770	 3.5700
 2.6780	 3.5720
 2.6800	 3.5740
 2.6810	 3.6070
 2.6830	 3.6220
 2.6840	 3.5900
 2.6850	 3.6000
 2.6870	 3.5470
 2.6880	 3.5990
 2.6900	 3.6500
 2.6910	 3.6690
 2.6920	 3.6210
 2.6940	 3.5880
 2.6950	 3.5720
 2.6970	 3.5700
 2.6980	 3.4940
 2.6990	 3.4460
 2.7010	 3.4210
 2.7020	 3.4460
 2.7040	 3.3930
 2.7050	 3.3870
 2.7060	 3.4080
 2.7080	 3.4260
 2.7090	 3.4380
 2.7110	 3.4430
 2.7120	 3.4070
 2.7130	 3.4290
 2.7150	 3.3770
 2.7160	 3.3920
 2.7180	 3.4010
 2.7190	 3.3980
 2.7210	 3.3430
 2.7220	 3.3490
 2.7230	 3.3320
 2.7250	 3.3160
 2.7260	 3.2900
 2.7280	 3.3340
 2.7290	 3.2930
 2.7310	 3.2660
 2.7320	 3.2070
 2.7330	 3.2190
 2.7350	 3.2620
 2.7360	 3.2710
 2.7380	 3.2120
 2.7390	 3.2030
 2.7410	 3.1860
 2.7420	 3.2220
 2.7440	 3.2190
 2.7450	 3.2090
 2.7470	 3.1620
 2.7480	 3.1350
 2.7490	 3.0870
 2.7510	 3.1050
 2.7520	 3.1170
 2.7540	 3.0990
 2.7550	 3.0380
 2.7570	 3.0530
 2.7580	 3.0930
 2.7600	 3.0950
 2.7610	 3.0510
 2.7630	 3.0300
 2.7640	 3.0450
 2.7660	 3.0780
 2.7670	 3.0580
 2.7680	 3.0330
 2.7700	 2.9970
 2.7710	 3.0430
 2.7730	 3.0570
 2.7740	 3.0660
 2.7760	 3.0190
 2.7770	 2.9970
 2.7790	 2.9610
 2.7800	 2.9980
 2.7820	 2.9830
 2.7830	 2.9810
 2.7850	 2.9870
 2.7860	 3.0250
 2.7880	 3.0170
 2.7890	 2.9670
 2.7910	 2.9490
 2.7920	 2.9840
 2.7940	 2.9820
 2.7950	 2.9950
 2.7970	 2.9490
 2.7980	 2.9220
 2.8000	 2.8970
 2.8010	 2.9450
 2.8030	 2.9610
 2.8040	 2.9570
 2.8060	 2.9110
 2.8070	 2.9370
 2.8090	 2.9600
 2.8110	 2.9310
 2.8120	 2.9190
 2.8140	 2.9580
 2.8150	 2.8950
 2.8170	 2.8720
 2.8180	 2.8930
 2.8200	 2.9140
 2.8210	 2.8910
 2.8230	 2.9250
 2.8240	 2.8750
 2.8260	 2.8560
 2.8270	 2.8720
 2.8290	 2.8940
 2.8300	 2.8350
 2.8320	 2.8270
 2.8340	 2.8400
 2.8350	 2.8740
 2.8370	 2.8670
 2.8380	 2.8680
 2.8400	 2.8350
 2.8410	 2.8690
 2.8430	 2.8790
 2.8440	 2.8830
 2.8460	 2.8920
 2.8480	 2.9210
 2.8490	 2.8560
 2.8510	 2.8480
 2.8520	 2.8030
 2.8540	 2.8270
 2.8550	 2.8200
 2.8570	 2.8100
 2.8590	 2.7990
 2.8600	 2.8370
 2.8620	 2.8020
 2.8630	 2.8120
 2.8650	 2.7850
 2.8660	 2.7550
 2.8680	 2.7430
 2.8700	 2.7740
 2.8710	 2.7620
 2.8730	 2.7770
 2.8740	 2.7310
 2.8760	 2.7490
 2.8780	 2.7640
 2.8790	 2.8230
 2.8810	 2.8180
 2.8820	 2.8020
 2.8840	 2.7780
 2.8860	 2.7940
 2.8870	 2.7750
 2.8890	 2.7940
 2.8900	 2.8050
 2.8920	 2.8580
 2.8940	 2.8180
 2.8950	 2.7340
 2.8970	 2.7200
 2.8980	 2.7390
 2.9000	 2.7360
 2.9020	 2.8180
 2.9030	 2.8330
 2.9050	 2.8370
 2.9070	 2.7870
 2.9080	 2.7740
 2.9100	 2.7210
 2.9120	 2.7390
 2.9130	 2.7800
 2.9150	 2.8010
 2.9160	 2.7760
 2.9180	 2.8070
 2.9200	 2.8330
 2.9210	 2.8790
 2.9230	 2.8170
 2.9250	 2.8350
 2.9260	 2.8470
 2.9280	 2.8420
 2.9300	 2.8450
 2.9310	 2.8770
 2.9330	 2.8770
 2.9350	 2.8680
 2.9360	 2.8420
 2.9380	 2.8800
 2.9400	 2.8580
 2.9410	 2.8680
 2.9430	 2.9130
 2.9450	 2.9370
 2.9460	 2.8890
 2.9480	 2.9200
 2.9500	 2.9040
 2.9510	 2.9000
 2.9530	 2.9150
 2.9550	 2.9240
 2.9560	 2.9000
 2.9580	 2.8890
 2.9600	 2.8920
 2.9610	 2.9120
 2.9630	 2.8960
 2.9650	 2.9180
 2.9660	 2.9070
 2.9680	 2.9150
 2.9700	 2.9220
 2.9720	 2.9530
 2.9730	 2.9330
 2.9750	 2.9240
 2.9770	 2.9260
 2.9780	 2.9770
 2.9800	 2.9840
 2.9820	 3.0070
 2.9840	 2.9340
 2.9850	 2.9470
 2.9870	 2.9980
 2.9890	 3.0010
 2.9900	 2.9930
 2.9920	 3.0570
 2.9940	 3.0570
 2.9960	 3.0620
 2.9970	 3.0170
 2.9990	 3.0500
 3.0010	 3.0360
 3.0030	 3.0650
 3.0040	 3.0680
 3.0060	 3.0520
 3.0080	 3.0350
 3.0100	 3.0930
 3.0110	 3.0550
 3.0130	 3.0440
 3.0150	 3.0600
 3.0170	 3.0790
 3.0180	 3.0350
 3.0200	 3.0420
 3.0220	 3.0880
 3.0240	 3.1210
 3.0250	 3.0900
 3.0270	 3.1240
 3.0290	 3.1140
 3.0310	 3.1250
 3.0320	 3.1260
 3.0340	 3.1880
 3.0360	 3.2000
 3.0380	 3.2090
 3.0400	 3.1780
 3.0410	 3.1730
 3.0430	 3.1390
 3.0450	 3.1820
 3.0470	 3.1990
 3.0480	 3.2050
 3.0500	 3.1960
 3.0520	 3.2210
 3.0540	 3.2120
 3.0560	 3.2680
 3.0570	 3.2510
 3.0590	 3.2350
 3.0610	 3.2330
 3.0630	 3.2710
 3.0650	 3.2590
 3.0660	 3.2830
 3.0680	 3.2620
 3.0700	 3.2620
 3.0720	 3.2660
 3.0740	 3.2870
 3.0760	 3.2670
 3.0770	 3.3230
 3.0790	 3.3460
 3.0810	 3.3730
 3.0830	 3.3610
 3.0850	 3.3320
 3.0870	 3.3430
 3.0880	 3.3470
 3.0900	 3.3100
 3.0920	 3.3040
 3.0940	 3.3000
 3.0960	 3.3610
 3.0980	 3.3820
 3.0990	 3.4380
 3.1010	 3.4300
 3.1030	 3.4260
 3.1050	 3.4410
 3.1070	 3.4880
 3.1090	 3.4390
 3.1110	 3.3830
 3.1120	 3.3940
 3.1140	 3.4590
 3.1160	 3.4470
 3.1180	 3.4670
 3.1200	 3.4730
 3.1220	 3.5000
 3.1240	 3.4670
 3.1260	 3.4850
 3.1270	 3.4510
 3.1290	 3.4540
 3.1310	 3.4830
 3.1330	 3.5250
 3.1350	 3.4920
 3.1370	 3.4770
 3.1390	 3.4810
 3.1410	 3.5580
 3.1430	 3.5680
 3.1450	 3.5740
 3.1460	 3.5450
 3.1480	 3.5640
 3.1500	 3.5640
 3.1520	 3.5750
 3.1540	 3.5930
 3.1560	 3.6620
 3.1580	 3.6790
 3.1600	 3.6510
 3.1620	 3.6060
 3.1640	 3.6010
 3.1660	 3.5880
 3.1680	 3.6380
 3.1700	 3.6780
 3.1710	 3.7130
 3.1730	 3.7250
 3.1750	 3.7280
 3.1770	 3.6780
 3.1790	 3.6730
 3.1810	 3.6490
 3.1830	 3.6830
 3.1850	 3.7080
 3.1870	 3.6970
 3.1890	 3.6770
 3.1910	 3.7180
 3.1930	 3.6950
 3.1950	 3.7370
 3.1970	 3.7730
 3.1990	 3.7710
 3.2010	 3.7620
 3.2030	 3.7950
 3.2050	 3.7770
 3.2070	 3.8150
 3.2090	 3.8150
 3.2110	 3.7960
 3.2130	 3.7490
 3.2150	 3.7510
 3.2170	 3.7860
 3.2190	 3.8280
 3.2210	 3.7990
 3.2230	 3.8120
 3.2250	 3.8530
 3.2270	 3.8830
 3.2290	 3.8220
 3.2310	 3.8190
 3.2330	 3.8120
 3.2350	 3.8760
 3.2370	 3.8740
 3.2390	 3.8440
 3.2410	 3.8110
 3.2430	 3.8610
 3.2450	 3.8740
 3.2470	 3.8720
 3.2490	 3.8700
 3.2510	 3.8540
 3.2530	 3.7930
 3.2550	 3.8160
 3.2570	 3.8900
 3.2590	 3.8810
 3.2610	 3.8700
 3.2630	 3.9600
 3.2650	 3.9470
 3.2670	 3.9090
 3.2690	 3.8720
 3.2720	 3.8930
 3.2740	 3.8930
 3.2760	 3.9080
 3.2780	 3.9230
 3.2800	 3.9560
 3.2820	 3.9800
 3.2840	 4.0360
 3.2860	 3.9660
 3.2880	 3.9210
 3.2900	 3.9150
 3.2920	 3.9620
 3.2940	 3.9400
 3.2960	 3.9620
 3.2990	 3.9380
 3.3010	 3.9560
 3.3030	 3.9920
 3.3050	 4.0280
 3.3070	 4.0050
 3.3090	 4.0580
 3.3110	 4.0530
 3.3130	 4.0110
 3.3150	 3.9610
 3.3180	 3.9740
 3.3200	 3.9550
 3.3220	 3.9670
 3.3240	 3.9630
 3.3260	 3.9690
 3.3280	 3.9610
 3.3300	 3.9660
 3.3330	 3.9140
 3.3350	 3.8900
 3.3370	 3.8760
 3.3390	 3.8840
 3.3410	 3.8880
 3.3430	 3.8750
 3.3450	 3.8610
 3.3480	 3.9540
 3.3500	 3.9640
 3.3520	 3.9400
 3.3540	 3.8940
 3.3560	 3.8450
 3.3580	 3.7870
 3.3610	 3.7890
 3.3630	 3.7750
 3.3650	 3.7950
 3.3670	 3.7530
 3.3690	 3.7530
 3.3720	 3.7750
 3.3740	 3.7670
 3.3760	 3.7230
 3.3780	 3.7150
 3.3800	 3.6760
 3.3830	 3.7210
 3.3850	 3.7770
 3.3870	 3.8250
 3.3890	 3.8050
 3.3910	 3.7800
 3.3940	 3.7200
 3.3960	 3.7680
 3.3980	 3.7840
 3.4000	 3.7860
 3.4020	 3.7750
 3.4050	 3.7990
 3.4070	 3.7820
 3.4090	 3.7630
 3.4110	 3.7560
 3.4140	 3.8150
 3.4160	 3.8530
 3.4180	 3.8550
 3.4200	 3.9090
 3.4230	 4.0370
 3.4250	 4.0540
 3.4270	 4.1210
 3.4290	 4.2390
 3.4320	 4.2530
 3.4340	 4.1680
 3.4360	 4.1750
 3.4390	 4.1730
 3.4410	 4.1590
 3.4430	 4.1470
 3.4450	 4.2000
 3.4480	 4.1800
 3.4500	 4.1890
 3.4520	 4.1880
 3.4550	 4.1900
 3.4570	 4.2080
 3.4590	 4.2640
 3.4620	 4.2550
 3.4640	 4.2570
 3.4660	 4.1920
 3.4680	 4.2090
 3.4710	 4.2450
 3.4730	 4.2640
 3.4750	 4.2760
 3.4780	 4.2980
 3.4800	 4.2140
 3.4820	 4.2250
 3.4850	 4.2490
 3.4870	 4.2650
 3.4890	 4.2280
 3.4920	 4.2570
 3.4940	 4.2570
 3.4970	 4.2170
 3.4990	 4.1990
 3.5010	 4.2640
 3.5040	 4.2870
 3.5060	 4.3560
 3.5080	 4.4940
 3.5110	 4.6320
 3.5130	 4.6600
 3.5160	 4.6630
 3.5180	 4.6480
 3.5200	 4.6810
 3.5230	 4.6490
 3.5250	 4.6660
 3.5270	 4.7040
 3.5300	 4.6980
 3.5320	 4.6550
 3.5350	 4.7310
 3.5370	 4.7590
 3.5400	 4.7640
 3.5420	 4.7610
 3.5440	 4.7900
 3.5470	 4.7580
 3.5490	 4.7360
 3.5520	 4.7410
 3.5540	 4.7860
 3.5570	 4.8010
 3.5590	 4.7920
 3.5610	 4.7790
 3.5640	 4.8210
 3.5660	 4.8010
 3.5690	 4.8640
 3.5710	 4.8780
 3.5740	 4.8330
 3.5760	 4.8070
 3.5790	 4.8240
 3.5810	 4.8520
 3.5840	 4.9310
 3.5860	 4.9250
 3.5890	 4.9150
 3.5910	 4.8880
 3.5930	 4.8620
 3.5960	 4.8530
 3.5980	 4.9080
 3.6010	 4.8970
 3.6030	 4.9350
 3.6060	 4.9390
 3.6080	 4.9200
 3.6110	 4.9160
 3.6140	 4.9540
 3.6160	 4.9400
 3.6190	 4.9390
 3.6210	 4.9150
 3.6240	 4.9400
 3.6260	 4.9770
 3.6290	 4.9590
 3.6310	 4.8940
 3.6340	 4.9230
 3.6360	 4.9110
 3.6390	 4.9360
 3.6410	 4.9560
 3.6440	 4.9670
 3.6470	 4.9880
 3.6490	 5.0570
 3.6520	 5.0070
 3.6540	 4.9920
 3.6570	 4.9900
 3.6590	 5.0210
 3.6620	 5.0100
 3.6650	 5.0590
 3.6670	 5.0620
 3.6700	 5.0670
 3.6720	 5.0700
 3.6750	 5.0840
 3.6780	 5.0400
 3.6800	 5.0800
 3.6830	 5.0820
 3.6850	 5.0640
 3.6880	 5.0720
 3.6910	 5.1030
 3.6930	 5.1020
 3.6960	 5.1250
 3.6990	 5.1180
 3.7010	 5.1470
 3.7040	 5.1150
 3.7060	 5.1200
 3.7090	 5.1160
 3.7120	 5.1570
 3.7140	 5.1440
 3.7170	 5.1540
 3.7200	 5.1510
 3.7220	 5.1610
 3.7250	 5.1540
 3.7280	 5.1990
 3.7300	 5.1970
 3.7330	 5.2000
 3.7360	 5.2210
 3.7390	 5.2320
 3.7410	 5.2170
 3.7440	 5.2610
 3.7470	 5.2720
 3.7490	 5.2740
 3.7520	 5.2470
 3.7550	 5.2390
 3.7580	 5.2590
 3.7600	 5.2620
 3.7630	 5.2490
 3.7660	 5.2930
 3.7680	 5.2600
 3.7710	 5.2580
 3.7740	 5.2710
 3.7770	 5.2870
 3.7790	 5.2600
 3.7820	 5.2710
 3.7850	 5.3230
 3.7880	 5.3630
 3.7900	 5.3280
 3.7930	 5.3940
 3.7960	 5.4360
 3.7990	 5.4030
 3.8020	 5.3540
 3.8040	 5.3640
 3.8070	 5.3270
 3.8100	 5.3630
 3.8130	 5.4270
 3.8160	 5.4660
 3.8180	 5.4590
 3.8210	 5.4640
 3.8240	 5.4040
 3.8270	 5.4450
 3.8300	 5.4860
 3.8330	 5.4450
 3.8350	 5.3950
 3.8380	 5.4430
 3.8410	 5.4570
 3.8440	 5.4960
 3.8470	 5.4820
 3.8500	 5.4160
 3.8520	 5.4230
 3.8550	 5.4890
 3.8580	 5.5210
 3.8610	 5.5340
 3.8640	 5.5380
 3.8670	 5.5700
 3.8700	 5.5680
 3.8730	 5.5610
 3.8750	 5.5440
 3.8780	 5.5430
 3.8810	 5.5290
 3.8840	 5.5850
 3.8870	 5.6330
 3.8900	 5.6290
 3.8930	 5.5870
 3.8960	 5.5920
 3.8990	 5.6000
 3.9020	 5.6390
 3.9050	 5.6160
 3.9080	 5.6220
 3.9110	 5.6390
 3.9140	 5.6620
 3.9160	 5.6140
 3.9190	 5.6170
 3.9220	 5.5610
 3.9250	 5.5570
 3.9280	 5.5750
 3.9310	 5.6270
 3.9340	 5.6540
 3.9370	 5.6730
 3.9400	 5.6540
 3.9430	 5.6620
 3.9460	 5.6080
 3.9490	 5.5890
 3.9520	 5.6410
 3.9550	 5.7200
 3.9580	 5.6650
 3.9610	 5.6390
 3.9640	 5.6510
 3.9670	 5.6750
 3.9700	 5.6470
 3.9730	 5.6600
 3.9770	 5.6690
 3.9800	 5.6650
 3.9830	 5.6910
 3.9860	 5.7210
 3.9890	 5.7080
 3.9920	 5.6780
 3.9950	 5.6220
 3.9980	 5.6490
 4.0010	 5.6980
 4.0040	 5.7300
 4.0070	 5.7000
 4.0100	 5.6640
 4.0130	 5.7030
 4.0170	 5.7930
 4.0200	 5.7680
 4.0230	 5.7270
 4.0260	 5.7380
 4.0290	 5.7630
 4.0320	 5.7900
 4.0350	 5.7910
 4.0380	 5.7610
 4.0420	 5.7660
 4.0450	 5.7810
 4.0480	 5.8380
 4.0510	 5.8210
 4.0540	 5.8090
 4.0570	 5.8490
 4.0610	 5.8400
 4.0640	 5.7870
 4.0670	 5.8370
 4.0700	 5.8700
 4.0730	 5.8550
 4.0770	 5.8300
 4.0800	 5.8480
 4.0830	 5.8170
 4.0860	 5.7800
 4.0890	 5.8230
 4.0930	 5.8890
 4.0960	 5.8810
 4.0990	 5.8850
 4.1020	 5.8580
 4.1060	 5.8460
 4.1090	 5.8130
 4.1120	 5.8270
 4.1150	 5.8700
 4.1190	 5.8850
 4.1220	 5.8820
 4.1250	 5.9020
 4.1280	 5.8890
 4.1320	 5.8430
 4.1350	 5.8280
 4.1380	 5.8760
 4.1420	 5.8630
 4.1450	 5.8590
 4.1480	 5.8480
 4.1520	 5.8460
 4.1550	 5.8520
 4.1580	 5.8600
 4.1620	 5.8250
 4.1650	 5.8230
 4.1680	 5.8690
 4.1720	 5.8810
 4.1750	 5.8920
 4.1780	 5.9230
 4.1820	 5.9110
 4.1850	 5.8740
 4.1890	 5.8460
 4.1920	 5.8140
 4.1950	 5.7410
 4.1990	 5.5950
 4.2020	 5.3740
 4.2060	 5.0520
 4.2090	 4.6430
 4.2120	 4.2600
 4.2160	 3.9100
 4.2190	 3.6190
 4.2230	 3.3540
 4.2260	 3.1980
 4.2300	 3.0320
 4.2330	 2.9200
 4.2360	 2.8770
 4.2400	 2.9180
 4.2430	 3.0270
 4.2470	 3.2340
 4.2500	 3.5670
 4.2540	 4.1030
 4.2570	 4.5270
 4.2610	 4.2780
 4.2640	 3.8220
 4.2680	 3.6370
 4.2710	 3.5650
 4.2750	 3.5470
 4.2780	 3.5150
 4.2820	 3.5650
 4.2850	 3.6080
 4.2890	 3.6490
 4.2930	 3.6960
 4.2960	 3.8200
 4.3000	 3.9180
 4.3030	 3.9660
 4.3070	 4.0410
 4.3100	 4.2250
 4.3140	 4.4370
 4.3180	 4.6120
 4.3210	 4.7280
 4.3250	 4.8640
 4.3280	 5.0250
 4.3320	 5.1670
 4.3360	 5.2700
 4.3390	 5.3800
 4.3430	 5.4630
 4.3470	 5.5150
 4.3500	 5.5530
 4.3540	 5.5570
 4.3570	 5.5870
 4.3610	 5.6830
 4.3650	 5.7330
 4.3680	 5.7370
 4.3720	 5.7170
 4.3760	 5.7230
 4.3800	 5.7620
 4.3830	 5.7880
 4.3870	 5.7950
 4.3910	 5.7580
 4.3940	 5.7610
 4.3980	 5.7540
 4.4020	 5.6930
 4.4060	 5.6850
 4.4090	 5.7340
 4.4130	 5.7110
 4.4170	 5.6950
 4.4210	 5.7110
 4.4240	 5.7280
 4.4280	 5.7550
 4.4320	 5.7100
 4.4360	 5.6910
 4.4400	 5.7370
 4.4430	 5.7790
 4.4470	 5.7520
 4.4510	 5.7430
 4.4550	 5.7130
 4.4590	 5.7130
 4.4620	 5.7410
 4.4660	 5.7700
 4.4700	 5.7870
 4.4740	 5.8250
 4.4780	 5.8080
 4.4820	 5.7520
 4.4860	 5.7960
 4.4900	 5.8450
 4.4930	 5.8240
 4.4970	 5.8020
 4.5010	 5.7890
 4.5050	 5.7790
 4.5090	 5.7660
 4.5130	 5.7700
 4.5170	 5.7690
 4.5210	 5.7780
 4.5250	 5.7870
 4.5290	 5.7980
 4.5330	 5.7890
 4.5370	 5.7810
 4.5410	 5.8110
 4.5450	 5.8040
 4.5490	 5.7420
 4.5530	 5.7610
 4.5570	 5.8210
 4.5610	 5.8190
 4.5650	 5.7890
 4.5690	 5.7930
 4.5730	 5.7890
 4.5770	 5.7870
 4.5810	 5.7840
 4.5850	 5.7780
 4.5890	 5.8200
 4.5930	 5.8460
 4.5970	 5.7930
 4.6010	 5.7470
 4.6050	 5.7690
 4.6090	 5.7760
 4.6130	 5.7670
 4.6170	 5.8070
 4.6220	 5.8220
 4.6260	 5.7930
 4.6300	 5.7840
 4.6340	 5.7960
 4.6380	 5.7930
 4.6420	 5.7760
 4.6460	 5.8240
 4.6510	 5.8440
 4.6550	 5.8180
 4.6590	 5.8250
 4.6630	 5.7730
 4.6670	 5.7460
 4.6720	 5.7780
 4.6760	 5.7940
 4.6800	 5.7810
 4.6840	 5.7770
 4.6880	 5.8070
 4.6930	 5.8110
 4.6970	 5.7890
 4.7010	 5.7380
 4.7050	 5.7160
 4.7100	 5.7410
 4.7140	 5.7680
 4.7180	 5.7720
 4.7230	 5.7730
 4.7270	 5.7900
 4.7310	 5.7580
 4.7360	 5.7250
 4.7400	 5.7630
 4.7440	 5.7710
 4.7490	 5.7860
 4.7530	 5.7630
 4.7570	 5.7560
 4.7620	 5.7910
 4.7660	 5.7650
 4.7700	 5.7200
 4.7750	 5.7070
 4.7790	 5.7160
 4.7840	 5.7510
 4.7880	 5.7600
 4.7920	 5.7490
 4.7970	 5.7520
 4.8010	 5.7460
 4.8060	 5.7540
 4.8100	 5.7480
 4.8150	 5.7480
 4.8190	 5.7850
 4.8240	 5.7630
 4.8280	 5.7310
 4.8330	 5.7130
 4.8370	 5.7140
 4.8420	 5.6990
 4.8460	 5.7230
 4.8510	 5.7490
 4.8550	 5.7180
 4.8600	 5.7150
 4.8640	 5.7410
 4.8690	 5.7110
 4.8730	 5.7040
 4.8780	 5.7060
 4.8830	 5.6840
 4.8870	 5.6620
 4.8920	 5.7240
 4.8960	 5.7780
 4.9010	 5.7930
 4.9060	 5.7500
 4.9100	 5.6530
 4.9150	 5.6330
 4.9200	 5.7040
 4.9240	 5.6640
 4.9290	 5.6440
 4.9340	 5.6760
 4.9380	 5.6660
 4.9430	 5.6070
 4.9480	 5.6410
 4.9530	 5.7110
 4.9570	 5.7070
 4.9620	 5.6700
 4.9670	 5.6710
 4.9720	 5.6770
 4.9760	 5.7250
 4.9810	 5.6930
 4.9860	 5.6410
 4.9910	 5.6440
 4.9960	 5.6950
 5.0000	 5.7330
 5.0050	 5.6830
 5.0100	 5.6410
 5.0150	 5.6860
 5.0200	 5.6820
 5.0250	 5.6480
 5.0290	 5.6750
 5.0340	 5.7150
 5.0390	 5.6730
 5.0440	 5.7080
 5.0490	 5.7210
 5.0540	 5.7010
 5.0590	 5.6300
 5.0640	 5.6190
 5.0690	 5.6360
 5.0740	 5.6500
 5.0790	 5.6650
 5.0840	 5.6770
 5.0890	 5.6840
 5.0940	 5.7030
 5.0990	 5.7020
 5.1040	 5.7000
 5.1090	 5.6810
 5.1140	 5.7030
 5.1190	 5.7030
 5.1240	 5.6570
 5.1290	 5.6670
 5.1340	 5.7070
 5.1390	 5.7100
 5.1440	 5.6910
 5.1490	 5.6540
 5.1540	 5.6860
 5.1600	 5.7160
 5.1650	 5.6980
 5.1700	 5.7250
 5.1750	 5.7760
 5.1800	 5.7190
 5.1850	 5.6750
 5.1910	 5.6760
 5.1960	 5.7140
 5.2010	 5.7150
 5.2060	 5.7050
 5.2110	 5.7080
 5.2170	 5.6900
 5.2220	 5.6630
 5.2270	 5.6550
 5.2320	 5.6620
 5.2380	 5.6990
 5.2430	 5.6940
 5.2480	 5.7150
 5.2540	 5.6890
 5.2590	 5.6880
 5.2640	 5.7010
 5.2700	 5.7200
 5.2750	 5.6450
 5.2800	 5.6500
 5.2860	 5.6500
 5.2910	 5.6190
 5.2970	 5.6510
 5.3020	 5.6860
 5.3070	 5.6140
 5.3130	 5.6160
 5.3180	 5.6390
 5.3240	 5.6360
 5.3290	 5.6070
 5.3350	 5.6630
 5.3400	 5.7090
 5.3460	 5.6760
 5.3510	 5.5840
 5.3570	 5.5800
 5.3620	 5.6090
 5.3680	 5.6940
 5.3730	 5.6610
 5.3790	 5.5930
 5.3850	 5.6260
 5.3900	 5.6860
 5.3960	 5.6420
 5.4010	 5.6260
 5.4070	 5.5890
 5.4130	 5.5920
 5.4180	 5.5920
 5.4240	 5.5860
 5.4300	 5.5570
 5.4350	 5.5950
