Name: Adenostoma fasciculatum 1
Type: vegetation
Class: Shrub
Genus: Adenostoma
Species: fasciculatum
Sample No.: VH033
Owner: UCSB
Wavelength Range: TIR
Origin: 34.5084; -119.7687; WGS84
Collection Date: 4/1/2013
Description: Samples were collected as part of the HyspIRI Airborne Campaign. 48 individual plants were sampled in three times in 2013 - spring  summer  and fall. The name of the sample includes a 1  2  or 3 which references a different individual of the species. Samples were taken to JPL and processed within 48 hours of collection. The same leaves were processed in the Nicolet and then measured using the ASD.
Measurement: Hemispherical reflectance
First Column: X
Second Column: Y
X Units: Wavelength (micrometers)
Y Units: Reflectance (percentage)
First X Value: 2.501
Last X Value: 15.387
Number of X Values: 1737
Additional Information: vegetation.shrub.adenostoma.fasciculatum.tir.vh033.ucsb.nicolet.ancillary.txt

 2.5010	 4.0420
 2.5030	 3.9090
 2.5040	 3.8580
 2.5050	 4.0600
 2.5060	 4.2460
 2.5070	 4.3080
 2.5090	 4.1360
 2.5100	 4.0820
 2.5110	 4.0990
 2.5120	 4.2630
 2.5140	 4.2620
 2.5150	 4.1720
 2.5160	 4.1810
 2.5170	 4.2910
 2.5180	 4.1800
 2.5200	 4.0960
 2.5210	 4.0900
 2.5220	 3.9770
 2.5230	 3.9450
 2.5250	 4.1980
 2.5260	 4.2240
 2.5270	 4.2040
 2.5280	 4.2270
 2.5290	 4.3250
 2.5310	 4.3350
 2.5320	 4.2720
 2.5330	 4.1430
 2.5340	 4.1640
 2.5360	 4.2010
 2.5370	 4.3130
 2.5380	 4.1130
 2.5390	 3.9400
 2.5410	 4.0580
 2.5420	 4.3120
 2.5430	 4.1790
 2.5440	 3.9980
 2.5460	 4.0170
 2.5470	 4.2020
 2.5480	 4.2810
 2.5490	 4.3090
 2.5510	 4.3190
 2.5520	 4.3140
 2.5530	 4.2660
 2.5540	 4.3160
 2.5560	 4.1740
 2.5570	 4.2740
 2.5580	 4.3690
 2.5590	 4.3190
 2.5610	 4.2670
 2.5620	 4.2640
 2.5630	 4.2130
 2.5640	 4.1850
 2.5660	 4.1680
 2.5670	 4.3470
 2.5680	 4.3430
 2.5700	 4.2480
 2.5710	 4.1050
 2.5720	 4.2330
 2.5730	 4.3430
 2.5750	 4.3160
 2.5760	 4.2830
 2.5770	 4.1980
 2.5790	 3.9650
 2.5800	 4.0600
 2.5810	 4.3070
 2.5820	 4.4260
 2.5840	 4.3640
 2.5850	 4.3840
 2.5860	 4.2860
 2.5880	 4.1550
 2.5890	 4.0560
 2.5900	 4.1760
 2.5910	 4.1600
 2.5930	 4.1240
 2.5940	 4.0380
 2.5950	 4.0760
 2.5970	 4.0240
 2.5980	 3.9990
 2.5990	 4.1380
 2.6000	 4.2210
 2.6020	 4.0950
 2.6030	 4.1430
 2.6040	 4.2200
 2.6060	 4.2910
 2.6070	 4.1280
 2.6080	 3.9730
 2.6100	 3.9500
 2.6110	 4.0150
 2.6120	 4.0000
 2.6140	 4.0870
 2.6150	 4.0670
 2.6160	 4.0850
 2.6180	 3.9350
 2.6190	 3.8020
 2.6200	 3.9150
 2.6220	 3.9910
 2.6230	 3.9110
 2.6240	 3.8600
 2.6260	 3.8730
 2.6270	 3.8310
 2.6280	 3.7730
 2.6300	 3.7100
 2.6310	 3.7130
 2.6320	 3.9540
 2.6340	 3.9530
 2.6350	 3.8540
 2.6360	 3.6910
 2.6380	 3.6970
 2.6390	 3.6360
 2.6400	 3.5930
 2.6420	 3.5720
 2.6430	 3.6510
 2.6440	 3.6690
 2.6460	 3.6990
 2.6470	 3.6020
 2.6480	 3.6270
 2.6500	 3.6880
 2.6510	 3.7650
 2.6520	 3.7290
 2.6540	 3.7880
 2.6550	 3.5950
 2.6560	 3.4140
 2.6580	 3.4390
 2.6590	 3.4900
 2.6610	 3.3920
 2.6620	 3.4940
 2.6630	 3.5650
 2.6650	 3.5520
 2.6660	 3.4370
 2.6670	 3.4470
 2.6690	 3.4010
 2.6700	 3.3780
 2.6720	 3.1550
 2.6730	 3.2180
 2.6740	 3.1470
 2.6760	 3.0610
 2.6770	 3.1290
 2.6780	 3.1050
 2.6800	 2.9650
 2.6810	 3.0010
 2.6830	 3.1460
 2.6840	 3.2510
 2.6850	 3.1500
 2.6870	 3.0960
 2.6880	 3.0450
 2.6900	 3.0980
 2.6910	 3.0180
 2.6920	 2.9750
 2.6940	 2.8210
 2.6950	 2.9440
 2.6970	 2.9950
 2.6980	 2.9220
 2.6990	 2.8970
 2.7010	 2.9520
 2.7020	 2.8140
 2.7040	 2.7820
 2.7050	 2.6270
 2.7060	 2.6200
 2.7080	 2.6040
 2.7090	 2.6610
 2.7110	 2.6830
 2.7120	 2.7000
 2.7130	 2.6300
 2.7150	 2.6010
 2.7160	 2.5590
 2.7180	 2.4960
 2.7190	 2.3820
 2.7210	 2.3730
 2.7220	 2.2570
 2.7230	 2.3150
 2.7250	 2.2820
 2.7260	 2.1900
 2.7280	 2.2310
 2.7290	 2.3170
 2.7310	 2.1760
 2.7320	 2.1430
 2.7330	 2.2790
 2.7350	 2.4900
 2.7360	 2.3690
 2.7380	 2.3090
 2.7390	 2.1500
 2.7410	 2.1950
 2.7420	 2.1340
 2.7440	 2.1220
 2.7450	 2.0840
 2.7470	 2.1460
 2.7480	 2.2880
 2.7490	 2.3180
 2.7510	 2.1690
 2.7520	 2.0940
 2.7540	 2.0320
 2.7550	 2.0030
 2.7570	 2.1710
 2.7580	 2.2800
 2.7600	 2.0120
 2.7610	 2.1560
 2.7630	 2.1410
 2.7640	 2.0670
 2.7660	 1.9360
 2.7670	 1.9890
 2.7680	 1.9460
 2.7700	 1.9570
 2.7710	 1.9420
 2.7730	 2.0250
 2.7740	 2.0670
 2.7760	 2.0550
 2.7770	 1.9600
 2.7790	 2.0110
 2.7800	 2.0370
 2.7820	 2.0180
 2.7830	 1.8930
 2.7850	 2.0710
 2.7860	 2.2040
 2.7880	 2.2370
 2.7890	 2.1490
 2.7910	 2.1850
 2.7920	 2.0120
 2.7940	 1.9150
 2.7950	 1.9240
 2.7970	 1.9410
 2.7980	 1.8780
 2.8000	 1.9610
 2.8010	 1.9270
 2.8030	 2.0420
 2.8040	 1.9960
 2.8060	 1.9470
 2.8070	 1.9710
 2.8090	 2.1280
 2.8110	 2.1470
 2.8120	 1.9690
 2.8140	 1.9350
 2.8150	 2.0600
 2.8170	 2.0010
 2.8180	 1.9610
 2.8200	 1.9680
 2.8210	 2.1080
 2.8230	 1.9280
 2.8240	 1.8070
 2.8260	 1.7370
 2.8270	 2.0320
 2.8290	 1.9570
 2.8300	 1.9080
 2.8320	 1.9140
 2.8340	 1.8780
 2.8350	 1.7810
 2.8370	 1.9840
 2.8380	 1.9170
 2.8400	 1.8890
 2.8410	 1.9010
 2.8430	 1.9000
 2.8440	 1.9580
 2.8460	 2.0370
 2.8480	 1.9210
 2.8490	 1.9580
 2.8510	 1.7600
 2.8520	 1.8130
 2.8540	 1.8870
 2.8550	 1.9340
 2.8570	 1.8930
 2.8590	 2.1150
 2.8600	 2.0040
 2.8620	 1.9770
 2.8630	 2.0440
 2.8650	 1.9630
 2.8660	 1.7990
 2.8680	 1.8870
 2.8700	 1.9570
 2.8710	 2.0800
 2.8730	 1.9660
 2.8740	 2.0330
 2.8760	 2.0370
 2.8780	 2.0460
 2.8790	 1.8980
 2.8810	 2.0280
 2.8820	 1.9160
 2.8840	 1.8830
 2.8860	 2.1170
 2.8870	 2.2510
 2.8890	 1.9990
 2.8900	 1.9600
 2.8920	 1.9520
 2.8940	 1.9980
 2.8950	 2.0880
 2.8970	 2.1650
 2.8980	 1.9380
 2.9000	 1.8480
 2.9020	 1.8240
 2.9030	 2.0900
 2.9050	 2.1610
 2.9070	 2.0700
 2.9080	 1.8010
 2.9100	 1.8030
 2.9120	 1.8710
 2.9130	 2.0250
 2.9150	 2.0380
 2.9160	 2.0540
 2.9180	 1.8930
 2.9200	 1.9130
 2.9210	 1.8360
 2.9230	 1.8600
 2.9250	 1.8520
 2.9260	 1.9430
 2.9280	 2.0650
 2.9300	 2.2320
 2.9310	 2.0050
 2.9330	 1.9240
 2.9350	 2.0790
 2.9360	 2.0980
 2.9380	 1.9350
 2.9400	 1.9930
 2.9410	 2.0090
 2.9430	 1.9740
 2.9450	 1.8720
 2.9460	 2.0140
 2.9480	 2.0120
 2.9500	 1.8800
 2.9510	 1.8700
 2.9530	 2.0480
 2.9550	 2.1180
 2.9560	 1.9830
 2.9580	 1.8090
 2.9600	 1.8100
 2.9610	 1.8010
 2.9630	 1.7420
 2.9650	 1.4830
 2.9660	 2.1160
 2.9680	 2.8530
 2.9700	 2.6540
 2.9720	 2.1960
 2.9730	 2.3430
 2.9750	 2.5170
 2.9770	 2.4730
 2.9780	 1.8040
 2.9800	 1.6890
 2.9820	 2.0960
 2.9840	 2.5350
 2.9850	 2.1510
 2.9870	 1.9780
 2.9890	 1.5970
 2.9900	 1.4910
 2.9920	 1.5730
 2.9940	 2.0650
 2.9960	 2.5490
 2.9970	 2.8240
 2.9990	 2.8460
 3.0010	 2.3270
 3.0030	 1.7290
 3.0040	 1.8590
 3.0060	 2.1820
 3.0080	 2.2900
 3.0100	 2.5220
 3.0110	 2.5840
 3.0130	 1.9880
 3.0150	 1.9120
 3.0170	 2.3010
 3.0180	 2.5690
 3.0200	 2.5290
 3.0220	 2.0600
 3.0240	 1.7980
 3.0250	 2.2230
 3.0270	 2.4280
 3.0290	 2.5460
 3.0310	 2.3470
 3.0320	 1.3510
 3.0340	 1.1660
 3.0360	 2.0390
 3.0380	 2.0100
 3.0400	 2.0510
 3.0410	 2.0470
 3.0430	 1.8930
 3.0450	 1.7640
 3.0470	 1.6160
 3.0480	 1.4670
 3.0500	 1.7630
 3.0520	 1.9410
 3.0540	 2.4510
 3.0560	 2.3240
 3.0570	 1.9130
 3.0590	 1.6270
 3.0610	 1.4610
 3.0630	 1.4180
 3.0650	 1.7730
 3.0660	 2.2430
 3.0680	 2.3190
 3.0700	 1.9510
 3.0720	 2.0670
 3.0740	 2.2820
 3.0760	 2.3360
 3.0770	 2.0760
 3.0790	 2.0610
 3.0810	 2.1390
 3.0830	 2.1740
 3.0850	 2.0980
 3.0870	 2.1600
 3.0880	 2.1070
 3.0900	 2.1370
 3.0920	 2.0370
 3.0940	 1.8490
 3.0960	 1.3300
 3.0980	 1.2970
 3.0990	 1.6480
 3.1010	 2.0350
 3.1030	 2.3060
 3.1050	 2.3800
 3.1070	 2.2360
 3.1090	 2.2550
 3.1110	 2.1210
 3.1120	 2.1220
 3.1140	 2.0270
 3.1160	 2.0110
 3.1180	 2.1180
 3.1200	 2.2400
 3.1220	 2.1500
 3.1240	 2.0670
 3.1260	 2.1820
 3.1270	 2.3410
 3.1290	 2.0210
 3.1310	 1.8150
 3.1330	 1.7870
 3.1350	 2.0380
 3.1370	 2.1660
 3.1390	 1.9670
 3.1410	 1.7190
 3.1430	 1.9110
 3.1450	 2.1070
 3.1460	 2.3120
 3.1480	 2.4240
 3.1500	 2.1510
 3.1520	 1.8790
 3.1540	 1.9710
 3.1560	 2.2800
 3.1580	 2.0020
 3.1600	 1.6360
 3.1620	 2.0280
 3.1640	 2.1730
 3.1660	 2.1500
 3.1680	 1.9760
 3.1700	 2.0300
 3.1710	 2.2480
 3.1730	 2.5600
 3.1750	 2.2900
 3.1770	 1.9220
 3.1790	 1.7810
 3.1810	 1.5850
 3.1830	 1.7250
 3.1850	 2.1490
 3.1870	 1.5390
 3.1890	 1.3810
 3.1910	 2.1300
 3.1930	 2.3430
 3.1950	 2.1010
 3.1970	 2.1670
 3.1990	 2.1100
 3.2010	 2.1510
 3.2030	 2.1900
 3.2050	 2.3450
 3.2070	 2.1320
 3.2090	 1.9850
 3.2110	 2.0490
 3.2130	 2.1480
 3.2150	 2.0650
 3.2170	 2.0790
 3.2190	 2.1500
 3.2210	 2.1740
 3.2230	 2.0300
 3.2250	 2.0670
 3.2270	 2.0380
 3.2290	 1.9740
 3.2310	 2.0180
 3.2330	 2.0860
 3.2350	 1.9560
 3.2370	 1.9280
 3.2390	 1.8750
 3.2410	 2.0520
 3.2430	 2.1030
 3.2450	 1.9390
 3.2470	 1.7560
 3.2490	 1.8860
 3.2510	 2.0500
 3.2530	 2.0660
 3.2550	 2.1100
 3.2570	 2.2990
 3.2590	 2.3000
 3.2610	 2.2030
 3.2630	 2.0890
 3.2650	 2.0910
 3.2670	 1.9830
 3.2690	 2.0420
 3.2720	 2.1330
 3.2740	 2.1440
 3.2760	 1.9740
 3.2780	 2.0810
 3.2800	 2.1070
 3.2820	 2.0400
 3.2840	 2.0490
 3.2860	 2.0870
 3.2880	 1.9960
 3.2900	 2.0200
 3.2920	 1.9590
 3.2940	 2.0090
 3.2960	 2.0780
 3.2990	 2.1650
 3.3010	 2.0750
 3.3030	 2.0140
 3.3050	 1.9960
 3.3070	 2.0340
 3.3090	 1.9520
 3.3110	 1.9400
 3.3130	 1.9930
 3.3150	 2.0030
 3.3180	 1.9340
 3.3200	 2.0330
 3.3220	 1.9090
 3.3240	 1.8300
 3.3260	 1.8680
 3.3280	 1.9880
 3.3300	 1.9560
 3.3330	 1.9490
 3.3350	 1.8800
 3.3370	 2.0560
 3.3390	 2.0230
 3.3410	 2.0050
 3.3430	 1.9740
 3.3450	 1.9860
 3.3480	 1.8580
 3.3500	 1.8370
 3.3520	 1.7830
 3.3540	 1.8140
 3.3560	 1.9140
 3.3580	 1.9330
 3.3610	 1.7720
 3.3630	 1.7120
 3.3650	 1.7850
 3.3670	 2.0030
 3.3690	 2.0890
 3.3720	 2.0580
 3.3740	 1.8710
 3.3760	 1.8230
 3.3780	 1.7840
 3.3800	 1.8970
 3.3830	 2.0100
 3.3850	 2.0400
 3.3870	 1.8820
 3.3890	 1.9170
 3.3910	 1.9120
 3.3940	 1.8670
 3.3960	 1.8850
 3.3980	 1.9390
 3.4000	 1.8550
 3.4020	 1.9160
 3.4050	 1.9550
 3.4070	 2.0200
 3.4090	 2.1100
 3.4110	 2.2060
 3.4140	 2.2200
 3.4160	 2.4630
 3.4180	 2.5730
 3.4200	 2.6610
 3.4230	 2.7010
 3.4250	 2.9770
 3.4270	 3.2280
 3.4290	 3.3190
 3.4320	 3.0620
 3.4340	 2.8130
 3.4360	 2.6190
 3.4390	 2.5790
 3.4410	 2.5420
 3.4430	 2.4960
 3.4450	 2.4100
 3.4480	 2.4520
 3.4500	 2.3730
 3.4520	 2.2830
 3.4550	 2.1410
 3.4570	 2.3160
 3.4590	 2.4630
 3.4620	 2.4100
 3.4640	 2.1970
 3.4660	 2.1780
 3.4680	 2.1630
 3.4710	 2.2450
 3.4730	 2.2570
 3.4750	 2.1670
 3.4780	 2.1190
 3.4800	 2.2890
 3.4820	 2.1810
 3.4850	 2.1060
 3.4870	 2.1130
 3.4890	 2.1110
 3.4920	 2.0490
 3.4940	 2.1170
 3.4970	 2.0360
 3.4990	 2.1320
 3.5010	 2.2160
 3.5040	 2.3870
 3.5060	 2.5560
 3.5080	 2.8210
 3.5110	 2.9810
 3.5130	 2.8850
 3.5160	 2.6420
 3.5180	 2.5200
 3.5200	 2.4180
 3.5230	 2.3190
 3.5250	 2.2070
 3.5270	 2.4060
 3.5300	 2.3610
 3.5320	 2.3950
 3.5350	 2.3820
 3.5370	 2.3280
 3.5400	 2.3860
 3.5420	 2.5420
 3.5440	 2.4950
 3.5470	 2.4680
 3.5490	 2.4830
 3.5520	 2.4680
 3.5540	 2.3040
 3.5570	 2.3630
 3.5590	 2.3610
 3.5610	 2.2830
 3.5640	 2.1980
 3.5660	 2.2820
 3.5690	 2.3670
 3.5710	 2.5390
 3.5740	 2.3120
 3.5760	 2.3000
 3.5790	 2.3130
 3.5810	 2.3590
 3.5840	 2.4010
 3.5860	 2.4000
 3.5890	 2.3380
 3.5910	 2.4670
 3.5930	 2.5070
 3.5960	 2.2860
 3.5980	 2.1420
 3.6010	 2.2410
 3.6030	 2.3020
 3.6060	 2.3350
 3.6080	 2.3730
 3.6110	 2.4380
 3.6140	 2.3980
 3.6160	 2.3610
 3.6190	 2.2760
 3.6210	 2.2730
 3.6240	 2.2450
 3.6260	 2.3020
 3.6290	 2.3240
 3.6310	 2.3260
 3.6340	 2.3410
 3.6360	 2.4380
 3.6390	 2.4380
 3.6410	 2.4820
 3.6440	 2.4240
 3.6470	 2.3530
 3.6490	 2.3370
 3.6520	 2.4260
 3.6540	 2.3850
 3.6570	 2.3700
 3.6590	 2.3510
 3.6620	 2.4160
 3.6650	 2.3960
 3.6670	 2.4320
 3.6700	 2.3370
 3.6720	 2.3320
 3.6750	 2.3080
 3.6780	 2.4400
 3.6800	 2.4270
 3.6830	 2.3870
 3.6850	 2.3340
 3.6880	 2.3960
 3.6910	 2.3580
 3.6930	 2.3660
 3.6960	 2.3590
 3.6990	 2.3790
 3.7010	 2.3440
 3.7040	 2.4110
 3.7060	 2.4230
 3.7090	 2.4920
 3.7120	 2.4600
 3.7140	 2.4040
 3.7170	 2.3760
 3.7200	 2.3790
 3.7220	 2.3410
 3.7250	 2.4210
 3.7280	 2.3890
 3.7300	 2.4720
 3.7330	 2.5490
 3.7360	 2.5010
 3.7390	 2.4490
 3.7410	 2.4800
 3.7440	 2.4390
 3.7470	 2.4460
 3.7490	 2.4090
 3.7520	 2.3720
 3.7550	 2.3330
 3.7580	 2.3980
 3.7600	 2.3920
 3.7630	 2.4210
 3.7660	 2.3300
 3.7680	 2.3730
 3.7710	 2.3320
 3.7740	 2.3740
 3.7770	 2.4200
 3.7790	 2.3680
 3.7820	 2.3540
 3.7850	 2.3670
 3.7880	 2.2980
 3.7900	 2.4200
 3.7930	 2.4790
 3.7960	 2.5320
 3.7990	 2.4760
 3.8020	 2.5070
 3.8040	 2.4480
 3.8070	 2.4750
 3.8100	 2.5030
 3.8130	 2.5230
 3.8160	 2.5070
 3.8180	 2.5140
 3.8210	 2.4700
 3.8240	 2.5420
 3.8270	 2.4930
 3.8300	 2.5260
 3.8330	 2.5780
 3.8350	 2.5570
 3.8380	 2.4860
 3.8410	 2.5660
 3.8440	 2.4770
 3.8470	 2.4350
 3.8500	 2.4040
 3.8520	 2.3950
 3.8550	 2.4170
 3.8580	 2.4980
 3.8610	 2.5330
 3.8640	 2.6130
 3.8670	 2.5310
 3.8700	 2.5200
 3.8730	 2.5260
 3.8750	 2.5240
 3.8780	 2.5590
 3.8810	 2.6240
 3.8840	 2.5600
 3.8870	 2.5440
 3.8900	 2.5270
 3.8930	 2.5030
 3.8960	 2.4150
 3.8990	 2.4710
 3.9020	 2.5010
 3.9050	 2.5050
 3.9080	 2.5170
 3.9110	 2.6030
 3.9140	 2.5300
 3.9160	 2.5670
 3.9190	 2.6060
 3.9220	 2.6650
 3.9250	 2.6600
 3.9280	 2.6710
 3.9310	 2.5740
 3.9340	 2.5370
 3.9370	 2.5450
 3.9400	 2.6360
 3.9430	 2.6680
 3.9460	 2.6710
 3.9490	 2.5910
 3.9520	 2.6850
 3.9550	 2.6900
 3.9580	 2.6320
 3.9610	 2.5410
 3.9640	 2.6360
 3.9670	 2.6260
 3.9700	 2.6100
 3.9730	 2.6150
 3.9770	 2.7160
 3.9800	 2.6990
 3.9830	 2.6240
 3.9860	 2.5640
 3.9890	 2.6600
 3.9920	 2.6530
 3.9950	 2.6590
 3.9980	 2.6680
 4.0010	 2.6540
 4.0040	 2.5360
 4.0070	 2.5750
 4.0100	 2.5950
 4.0130	 2.6410
 4.0170	 2.6690
 4.0200	 2.7590
 4.0230	 2.7530
 4.0260	 2.8130
 4.0290	 2.7420
 4.0320	 2.7060
 4.0350	 2.7000
 4.0380	 2.7730
 4.0420	 2.6780
 4.0450	 2.7090
 4.0480	 2.7180
 4.0510	 2.6920
 4.0540	 2.6670
 4.0570	 2.7020
 4.0610	 2.6130
 4.0640	 2.6410
 4.0670	 2.6560
 4.0700	 2.7040
 4.0730	 2.7570
 4.0770	 2.9350
 4.0800	 2.8850
 4.0830	 2.8300
 4.0860	 2.7420
 4.0890	 2.7290
 4.0930	 2.7260
 4.0960	 2.7910
 4.0990	 2.7310
 4.1020	 2.6990
 4.1060	 2.7040
 4.1090	 2.7930
 4.1120	 2.7270
 4.1150	 2.6940
 4.1190	 2.6350
 4.1220	 2.6790
 4.1250	 2.6770
 4.1280	 2.7080
 4.1320	 2.6720
 4.1350	 2.7680
 4.1380	 2.8270
 4.1420	 2.8200
 4.1450	 2.7580
 4.1480	 2.7400
 4.1520	 2.6990
 4.1550	 2.7540
 4.1580	 2.7250
 4.1620	 2.7300
 4.1650	 2.6320
 4.1680	 2.6590
 4.1720	 2.7200
 4.1750	 2.7760
 4.1780	 2.7660
 4.1820	 2.8230
 4.1850	 2.7510
 4.1890	 2.7530
 4.1920	 2.7460
 4.1950	 2.7760
 4.1990	 2.7550
 4.2020	 2.7790
 4.2060	 2.6790
 4.2090	 2.7250
 4.2120	 2.7710
 4.2160	 2.8100
 4.2190	 2.6820
 4.2230	 2.9940
 4.2260	 2.8730
 4.2300	 2.6730
 4.2330	 2.4880
 4.2360	 2.6190
 4.2400	 2.4310
 4.2430	 2.7420
 4.2470	 2.7470
 4.2500	 2.6210
 4.2540	 2.6170
 4.2570	 2.8300
 4.2610	 2.7140
 4.2640	 2.6950
 4.2680	 2.8190
 4.2710	 2.9750
 4.2750	 2.6820
 4.2780	 2.6440
 4.2820	 2.4120
 4.2850	 2.4600
 4.2890	 2.5130
 4.2930	 2.7300
 4.2960	 2.5730
 4.3000	 2.5980
 4.3030	 2.5840
 4.3070	 2.6840
 4.3100	 2.6140
 4.3140	 2.5820
 4.3180	 2.6410
 4.3210	 2.8880
 4.3250	 2.8820
 4.3280	 2.7970
 4.3320	 2.5960
 4.3360	 2.6160
 4.3390	 2.6480
 4.3430	 2.6540
 4.3470	 2.6290
 4.3500	 2.6520
 4.3540	 2.6410
 4.3570	 2.6460
 4.3610	 2.5710
 4.3650	 2.6880
 4.3680	 2.7360
 4.3720	 2.7740
 4.3760	 2.6850
 4.3800	 2.6400
 4.3830	 2.6180
 4.3870	 2.6150
 4.3910	 2.5800
 4.3940	 2.5980
 4.3980	 2.5870
 4.4020	 2.7150
 4.4060	 2.7330
 4.4090	 2.7850
 4.4130	 2.7580
 4.4170	 2.7930
 4.4210	 2.7140
 4.4240	 2.7130
 4.4280	 2.6910
 4.4320	 2.7670
 4.4360	 2.6960
 4.4400	 2.6420
 4.4430	 2.5830
 4.4470	 2.6640
 4.4510	 2.6420
 4.4550	 2.6510
 4.4590	 2.6240
 4.4620	 2.6140
 4.4660	 2.5100
 4.4700	 2.5480
 4.4740	 2.5440
 4.4780	 2.5510
 4.4820	 2.5770
 4.4860	 2.6370
 4.4900	 2.5790
 4.4930	 2.6130
 4.4970	 2.5180
 4.5010	 2.5640
 4.5050	 2.6210
 4.5090	 2.6420
 4.5130	 2.5980
 4.5170	 2.6030
 4.5210	 2.5790
 4.5250	 2.6000
 4.5290	 2.5870
 4.5330	 2.6590
 4.5370	 2.6390
 4.5410	 2.6250
 4.5450	 2.4940
 4.5490	 2.5410
 4.5530	 2.5340
 4.5570	 2.5840
 4.5610	 2.5980
 4.5650	 2.5630
 4.5690	 2.5240
 4.5730	 2.5710
 4.5770	 2.5940
 4.5810	 2.6320
 4.5850	 2.5410
 4.5890	 2.5060
 4.5930	 2.4480
 4.5970	 2.4300
 4.6010	 2.4770
 4.6050	 2.5490
 4.6090	 2.4380
 4.6130	 2.4900
 4.6170	 2.4850
 4.6220	 2.5170
 4.6260	 2.5730
 4.6300	 2.6280
 4.6340	 2.5090
 4.6380	 2.5560
 4.6420	 2.5620
 4.6460	 2.4920
 4.6510	 2.3890
 4.6550	 2.4470
 4.6590	 2.4400
 4.6630	 2.5190
 4.6670	 2.5540
 4.6720	 2.6220
 4.6760	 2.5130
 4.6800	 2.5210
 4.6840	 2.5130
 4.6880	 2.5850
 4.6930	 2.5070
 4.6970	 2.5280
 4.7010	 2.4870
 4.7050	 2.5270
 4.7100	 2.5230
 4.7140	 2.5300
 4.7180	 2.4620
 4.7230	 2.4670
 4.7270	 2.4980
 4.7310	 2.5130
 4.7360	 2.4680
 4.7400	 2.6040
 4.7440	 2.6000
 4.7490	 2.5800
 4.7530	 2.4960
 4.7570	 2.5430
 4.7620	 2.5610
 4.7660	 2.6010
 4.7700	 2.4460
 4.7750	 2.3730
 4.7790	 2.3940
 4.7840	 2.5310
 4.7880	 2.5090
 4.7920	 2.5900
 4.7970	 2.5820
 4.8010	 2.5690
 4.8060	 2.5430
 4.8100	 2.5170
 4.8150	 2.4630
 4.8190	 2.5120
 4.8240	 2.5350
 4.8280	 2.6110
 4.8330	 2.5190
 4.8370	 2.4750
 4.8420	 2.4970
 4.8460	 2.5710
 4.8510	 2.4590
 4.8550	 2.5050
 4.8600	 2.5840
 4.8640	 2.5830
 4.8690	 2.5290
 4.8730	 2.5810
 4.8780	 2.5100
 4.8830	 2.5000
 4.8870	 2.5070
 4.8920	 2.5620
 4.8960	 2.4070
 4.9010	 2.4560
 4.9060	 2.4790
 4.9100	 2.5840
 4.9150	 2.6300
 4.9200	 2.6150
 4.9240	 2.5230
 4.9290	 2.4830
 4.9340	 2.4440
 4.9380	 2.5200
 4.9430	 2.4620
 4.9480	 2.5140
 4.9530	 2.5540
 4.9570	 2.6800
 4.9620	 2.6120
 4.9670	 2.6590
 4.9720	 2.6350
 4.9760	 2.6190
 4.9810	 2.5210
 4.9860	 2.5580
 4.9910	 2.5390
 4.9960	 2.5880
 5.0000	 2.5910
 5.0050	 2.6580
 5.0100	 2.6740
 5.0150	 2.6730
 5.0200	 2.6140
 5.0250	 2.6980
 5.0290	 2.6750
 5.0340	 2.6640
 5.0390	 2.6280
 5.0440	 2.6170
 5.0490	 2.5690
 5.0540	 2.6280
 5.0590	 2.6130
 5.0640	 2.6430
 5.0690	 2.6140
 5.0740	 2.6550
 5.0790	 2.5410
 5.0840	 2.6110
 5.0890	 2.6030
 5.0940	 2.6730
 5.0990	 2.6170
 5.1040	 2.5860
 5.1090	 2.5560
 5.1140	 2.5880
 5.1190	 2.5730
 5.1240	 2.6480
 5.1290	 2.5860
 5.1340	 2.5860
 5.1390	 2.5290
 5.1440	 2.6210
 5.1490	 2.5640
 5.1540	 2.6430
 5.1600	 2.6800
 5.1650	 2.7190
 5.1700	 2.7030
 5.1750	 2.6860
 5.1800	 2.5900
 5.1850	 2.6330
 5.1910	 2.6110
 5.1960	 2.6030
 5.2010	 2.5150
 5.2060	 2.6130
 5.2110	 2.6930
 5.2170	 2.6910
 5.2220	 2.5460
 5.2270	 2.5840
 5.2320	 2.6050
 5.2380	 2.6930
 5.2430	 2.6890
 5.2480	 2.6270
 5.2540	 2.5240
 5.2590	 2.5520
 5.2640	 2.5010
 5.2700	 2.6110
 5.2750	 2.5950
 5.2800	 2.5820
 5.2860	 2.5840
 5.2910	 2.7660
 5.2970	 2.7640
 5.3020	 2.7140
 5.3070	 2.5250
 5.3130	 2.5460
 5.3180	 2.5830
 5.3240	 2.6230
 5.3290	 2.6100
 5.3350	 2.6410
 5.3400	 2.6110
 5.3460	 2.6550
 5.3510	 2.6180
 5.3570	 2.7060
 5.3620	 2.5500
 5.3680	 2.4860
 5.3730	 2.5090
 5.3790	 2.5870
 5.3850	 2.5090
 5.3900	 2.4810
 5.3960	 2.4530
 5.4010	 2.5960
 5.4070	 2.5410
 5.4130	 2.5410
 5.4180	 2.5330
 5.4240	 2.5310
 5.4300	 2.4590
 5.4350	 2.4110
