Name: Abies concolor 2
Type: vegetation
Class: Tree
Genus: Abies
Species: concolor
Sample No.: VH256
Owner: UCSB
Wavelength Range: TIR
Origin: 37.0437; -119.3025; WGS84
Collection Date: 11/2/2013
Description: Samples were collected as part of the HyspIRI Airborne Campaign. 48 individual plants were sampled in three times in 2013 - spring  summer  and fall. The name of the sample includes a 1  2  or 3 which references a different individual of the species. Samples were taken to JPL and processed within 48 hours of collection. The same leaves were processed in the Nicolet and then measured using the ASD.
Measurement: Hemispherical reflectance
First Column: X
Second Column: Y
X Units: Wavelength (micrometers)
Y Units: Reflectance (percentage)
First X Value: 2.501
Last X Value: 15.387
Number of X Values: 1737
Additional Information: vegetation.tree.abies.concolor.tir.vh256.ucsb.nicolet.ancillary.txt

 2.5010	10.9140
 2.5030	10.7700
 2.5040	10.6460
 2.5050	10.7440
 2.5060	10.8580
 2.5070	10.8890
 2.5090	10.9700
 2.5100	10.9370
 2.5110	10.9130
 2.5120	10.8550
 2.5140	10.8960
 2.5150	10.9230
 2.5160	10.9060
 2.5170	10.8120
 2.5180	10.8720
 2.5200	10.9230
 2.5210	11.0340
 2.5220	10.8740
 2.5230	10.7740
 2.5250	10.8860
 2.5260	10.9400
 2.5270	10.7710
 2.5280	10.7380
 2.5290	10.7580
 2.5310	10.8810
 2.5320	10.9810
 2.5330	11.1410
 2.5340	11.1170
 2.5360	11.0290
 2.5370	10.7760
 2.5380	10.6120
 2.5390	10.7570
 2.5410	10.8960
 2.5420	10.7560
 2.5430	10.7850
 2.5440	10.8010
 2.5460	10.9540
 2.5470	10.9370
 2.5480	10.8310
 2.5490	10.8980
 2.5510	11.0560
 2.5520	11.0990
 2.5530	10.9980
 2.5540	10.9020
 2.5560	11.1010
 2.5570	10.9580
 2.5580	10.8930
 2.5590	10.9320
 2.5610	10.9960
 2.5620	10.9060
 2.5630	10.9700
 2.5640	11.0830
 2.5660	11.0540
 2.5670	10.9030
 2.5680	10.9680
 2.5700	10.9030
 2.5710	10.8580
 2.5720	10.9410
 2.5730	11.0920
 2.5750	10.9240
 2.5760	10.9700
 2.5770	11.1310
 2.5790	11.2420
 2.5800	11.2020
 2.5810	11.0780
 2.5820	10.9820
 2.5840	11.0070
 2.5850	11.0920
 2.5860	11.1210
 2.5880	11.1260
 2.5890	11.2040
 2.5900	11.1240
 2.5910	11.0670
 2.5930	10.9560
 2.5940	11.0320
 2.5950	11.1740
 2.5970	11.2010
 2.5980	11.0520
 2.5990	10.9840
 2.6000	10.9480
 2.6020	10.9470
 2.6030	10.8870
 2.6040	10.9530
 2.6060	11.0180
 2.6070	11.0210
 2.6080	10.9910
 2.6100	10.9610
 2.6110	10.8250
 2.6120	10.8200
 2.6140	10.8070
 2.6150	10.8520
 2.6160	10.8000
 2.6180	10.7780
 2.6190	10.7140
 2.6200	10.8130
 2.6220	10.9430
 2.6230	10.8840
 2.6240	10.7500
 2.6260	10.8280
 2.6270	10.6800
 2.6280	10.5900
 2.6300	10.6310
 2.6310	10.6780
 2.6320	10.5810
 2.6340	10.6310
 2.6350	10.6490
 2.6360	10.6760
 2.6380	10.6030
 2.6390	10.7410
 2.6400	10.6840
 2.6420	10.5290
 2.6430	10.4920
 2.6440	10.4210
 2.6460	10.4000
 2.6470	10.6170
 2.6480	10.6110
 2.6500	10.5450
 2.6510	10.4580
 2.6520	10.4520
 2.6540	10.4420
 2.6550	10.6490
 2.6560	10.6650
 2.6580	10.5440
 2.6590	10.5100
 2.6610	10.6880
 2.6620	10.6440
 2.6630	10.5680
 2.6650	10.4570
 2.6660	10.5640
 2.6670	10.6310
 2.6690	10.5250
 2.6700	10.4160
 2.6720	10.3370
 2.6730	10.3670
 2.6740	10.4610
 2.6760	10.4040
 2.6770	10.4670
 2.6780	10.5530
 2.6800	10.7310
 2.6810	10.5920
 2.6830	10.4480
 2.6840	10.3620
 2.6850	10.3350
 2.6870	10.2120
 2.6880	10.2880
 2.6900	10.2190
 2.6910	10.2530
 2.6920	10.2590
 2.6940	10.3260
 2.6950	10.2650
 2.6970	10.1410
 2.6980	 9.8760
 2.6990	 9.8560
 2.7010	 9.9620
 2.7020	 9.9570
 2.7040	 9.9360
 2.7050	 9.9230
 2.7060	 9.8010
 2.7080	10.0100
 2.7090	10.1230
 2.7110	10.0790
 2.7120	 9.9120
 2.7130	10.0330
 2.7150	 9.9340
 2.7160	 9.8070
 2.7180	 9.7100
 2.7190	 9.9150
 2.7210	10.0620
 2.7220	10.1330
 2.7230	10.0120
 2.7250	 9.8740
 2.7260	 9.8230
 2.7280	 9.9140
 2.7290	 9.9350
 2.7310	 9.8260
 2.7320	 9.6810
 2.7330	 9.7070
 2.7350	 9.8570
 2.7360	 9.9210
 2.7380	 9.7970
 2.7390	 9.9810
 2.7410	10.2680
 2.7420	10.3320
 2.7440	10.0680
 2.7450	 9.8890
 2.7470	 9.6900
 2.7480	 9.4290
 2.7490	 9.4850
 2.7510	 9.6940
 2.7520	 9.8910
 2.7540	 9.8900
 2.7550	 9.9910
 2.7570	10.0310
 2.7580	 9.6020
 2.7600	 9.6980
 2.7610	10.1630
 2.7630	10.2200
 2.7640	10.1310
 2.7660	10.1010
 2.7670	 9.8230
 2.7680	 9.8630
 2.7700	 9.7700
 2.7710	 9.8770
 2.7730	 9.9550
 2.7740	10.0950
 2.7760	 9.9450
 2.7770	 9.5700
 2.7790	 9.4700
 2.7800	 9.8340
 2.7820	 9.9630
 2.7830	 9.9370
 2.7850	 9.9530
 2.7860	10.0650
 2.7880	10.0460
 2.7890	10.1940
 2.7910	 9.9570
 2.7920	 9.8910
 2.7940	10.0710
 2.7950	10.2260
 2.7970	10.1640
 2.7980	10.1280
 2.8000	10.0270
 2.8010	10.1500
 2.8030	10.0590
 2.8040	 9.8490
 2.8060	 9.8020
 2.8070	 9.9430
 2.8090	 9.8800
 2.8110	 9.8170
 2.8120	 9.8430
 2.8140	 9.9750
 2.8150	 9.9160
 2.8170	 9.8970
 2.8180	 9.8850
 2.8200	10.0430
 2.8210	10.1540
 2.8230	10.1790
 2.8240	10.0430
 2.8260	10.0090
 2.8270	 9.9890
 2.8290	10.0730
 2.8300	 9.8090
 2.8320	 9.7550
 2.8340	 9.8120
 2.8350	10.0630
 2.8370	10.1300
 2.8380	10.0400
 2.8400	 9.8400
 2.8410	 9.8800
 2.8430	 9.9590
 2.8440	10.0970
 2.8460	10.0830
 2.8480	10.1290
 2.8490	10.1520
 2.8510	10.1500
 2.8520	 9.9950
 2.8540	10.0460
 2.8550	 9.9800
 2.8570	 9.9250
 2.8590	10.1720
 2.8600	10.3840
 2.8620	10.0540
 2.8630	 9.8770
 2.8650	 9.9550
 2.8660	10.2310
 2.8680	10.2330
 2.8700	10.1430
 2.8710	10.1810
 2.8730	10.1320
 2.8740	10.0630
 2.8760	 9.9650
 2.8780	 9.7290
 2.8790	 9.9850
 2.8810	10.0640
 2.8820	10.1750
 2.8840	10.1460
 2.8860	 9.9910
 2.8870	10.0060
 2.8890	10.1860
 2.8900	 9.9400
 2.8920	 9.7270
 2.8940	 9.6800
 2.8950	 9.9220
 2.8970	10.1610
 2.8980	10.1650
 2.9000	 9.9750
 2.9020	10.0370
 2.9030	10.0850
 2.9050	 9.9840
 2.9070	 9.8430
 2.9080	10.1230
 2.9100	10.1670
 2.9120	 9.9930
 2.9130	 9.8560
 2.9150	10.0230
 2.9160	10.1050
 2.9180	10.0440
 2.9200	 9.9140
 2.9210	10.0940
 2.9230	10.1060
 2.9250	10.0400
 2.9260	 9.9430
 2.9280	 9.9530
 2.9300	 9.9210
 2.9310	 9.9850
 2.9330	 9.9020
 2.9350	10.0510
 2.9360	10.1080
 2.9380	10.0440
 2.9400	 9.9520
 2.9410	 9.9650
 2.9430	 9.9630
 2.9450	 9.9180
 2.9460	 9.7890
 2.9480	 9.7320
 2.9500	 9.5010
 2.9510	 9.3670
 2.9530	 9.3660
 2.9550	 9.6950
 2.9560	 9.8160
 2.9580	 9.9150
 2.9600	10.0650
 2.9610	 9.9810
 2.9630	 9.7320
 2.9650	 9.6470
 2.9660	 9.9290
 2.9680	10.6770
 2.9700	10.6360
 2.9720	10.6750
 2.9730	10.3450
 2.9750	 9.8960
 2.9770	 9.8010
 2.9780	10.6320
 2.9800	11.0930
 2.9820	10.6200
 2.9840	 9.7950
 2.9850	 9.7310
 2.9870	 9.9620
 2.9890	10.2630
 2.9900	11.1720
 2.9920	11.9370
 2.9940	11.5210
 2.9960	10.7410
 2.9970	10.5320
 2.9990	10.3980
 3.0010	 9.9570
 3.0030	10.1170
 3.0040	10.2700
 3.0060	10.0140
 3.0080	 9.5790
 3.0100	 9.7050
 3.0110	10.5560
 3.0130	10.6600
 3.0150	 9.5030
 3.0170	 9.5960
 3.0180	 9.9480
 3.0200	10.1640
 3.0220	10.0150
 3.0240	10.0640
 3.0250	10.1480
 3.0270	 9.7880
 3.0290	 9.7710
 3.0310	 9.9410
 3.0320	 9.5860
 3.0340	 9.3740
 3.0360	 9.9140
 3.0380	10.5720
 3.0400	10.0990
 3.0410	10.2030
 3.0430	10.0080
 3.0450	 9.0170
 3.0470	 9.4500
 3.0480	 9.9400
 3.0500	 9.7860
 3.0520	11.1200
 3.0540	11.0510
 3.0560	 9.7280
 3.0570	 9.4050
 3.0590	10.0870
 3.0610	10.2520
 3.0630	 9.4400
 3.0650	 9.6500
 3.0660	10.0800
 3.0680	10.3950
 3.0700	10.4070
 3.0720	10.2090
 3.0740	10.0760
 3.0760	 9.4600
 3.0770	 9.7530
 3.0790	10.1630
 3.0810	 9.9720
 3.0830	 9.9000
 3.0850	10.0300
 3.0870	 9.9430
 3.0880	 9.9670
 3.0900	 9.8920
 3.0920	 9.8840
 3.0940	 9.7440
 3.0960	 9.7160
 3.0980	 9.7760
 3.0990	 9.7960
 3.1010	 9.9510
 3.1030	10.0660
 3.1050	 9.8840
 3.1070	 9.7690
 3.1090	 9.7150
 3.1110	 9.7720
 3.1120	 9.7910
 3.1140	 9.6010
 3.1160	 9.4510
 3.1180	 9.5200
 3.1200	 9.7930
 3.1220	 9.9250
 3.1240	 9.7880
 3.1260	 9.8580
 3.1270	 9.9460
 3.1290	 9.9380
 3.1310	 9.9700
 3.1330	 9.9400
 3.1350	10.4070
 3.1370	11.2690
 3.1390	11.4530
 3.1410	10.9670
 3.1430	10.2790
 3.1450	 9.8140
 3.1460	 9.0250
 3.1480	 9.0290
 3.1500	 8.6820
 3.1520	 8.4090
 3.1540	 9.3650
 3.1560	 9.9300
 3.1580	 9.8560
 3.1600	10.1000
 3.1620	10.0800
 3.1640	10.0510
 3.1660	 9.2690
 3.1680	 9.5200
 3.1700	10.7450
 3.1710	12.1420
 3.1730	11.8160
 3.1750	10.4700
 3.1770	 9.7750
 3.1790	10.5840
 3.1810	11.0050
 3.1830	10.5460
 3.1850	 9.7020
 3.1870	 9.3930
 3.1890	 9.5370
 3.1910	 9.8590
 3.1930	 9.8450
 3.1950	 9.8620
 3.1970	 9.8120
 3.1990	 9.9570
 3.2010	 9.9350
 3.2030	 9.7060
 3.2050	 9.6450
 3.2070	 9.7170
 3.2090	 9.7270
 3.2110	 9.8040
 3.2130	 9.7030
 3.2150	 9.5970
 3.2170	 9.6110
 3.2190	 9.6460
 3.2210	 9.5430
 3.2230	 9.6600
 3.2250	 9.6810
 3.2270	 9.7120
 3.2290	 9.7710
 3.2310	 9.7110
 3.2330	 9.5940
 3.2350	 9.4040
 3.2370	 9.3900
 3.2390	 9.6730
 3.2410	 9.7690
 3.2430	 9.7630
 3.2450	 9.7790
 3.2470	 9.8300
 3.2490	 9.7620
 3.2510	 9.6560
 3.2530	 9.5550
 3.2550	 9.6600
 3.2570	 9.6140
 3.2590	 9.7140
 3.2610	 9.7280
 3.2630	 9.5970
 3.2650	 9.5800
 3.2670	 9.7290
 3.2690	 9.6050
 3.2720	 9.4930
 3.2740	 9.5840
 3.2760	 9.7800
 3.2780	 9.6960
 3.2800	 9.5750
 3.2820	 9.5870
 3.2840	 9.7120
 3.2860	 9.7170
 3.2880	 9.6760
 3.2900	 9.5960
 3.2920	 9.7190
 3.2940	 9.7760
 3.2960	 9.7090
 3.2990	 9.6890
 3.3010	 9.6400
 3.3030	 9.3860
 3.3050	 9.2210
 3.3070	 9.4940
 3.3090	 9.5840
 3.3110	 9.3600
 3.3130	 9.4490
 3.3150	 9.4060
 3.3180	 9.4850
 3.3200	 9.7100
 3.3220	 9.8140
 3.3240	 9.6540
 3.3260	 9.3650
 3.3280	 9.3060
 3.3300	 9.4640
 3.3330	 9.5090
 3.3350	 9.4690
 3.3370	 9.4360
 3.3390	 9.4720
 3.3410	 9.5370
 3.3430	 9.5510
 3.3450	 9.3990
 3.3480	 9.4450
 3.3500	 9.5680
 3.3520	 9.6240
 3.3540	 9.4130
 3.3560	 9.2380
 3.3580	 9.2410
 3.3610	 9.3590
 3.3630	 9.3060
 3.3650	 9.2610
 3.3670	 9.2160
 3.3690	 9.2360
 3.3720	 9.2920
 3.3740	 9.2990
 3.3760	 9.2770
 3.3780	 9.4040
 3.3800	 9.4010
 3.3830	 9.3380
 3.3850	 9.1670
 3.3870	 9.1950
 3.3890	 9.3350
 3.3910	 9.2940
 3.3940	 9.2060
 3.3960	 9.2510
 3.3980	 9.1750
 3.4000	 9.1360
 3.4020	 9.1760
 3.4050	 9.2510
 3.4070	 9.2690
 3.4090	 9.2570
 3.4110	 9.2070
 3.4140	 9.4730
 3.4160	 9.7200
 3.4180	 9.8930
 3.4200	10.1010
 3.4230	10.4810
 3.4250	10.8790
 3.4270	11.2580
 3.4290	11.4340
 3.4320	11.3960
 3.4340	11.2330
 3.4360	11.0660
 3.4390	10.8870
 3.4410	10.7700
 3.4430	10.5400
 3.4450	10.5620
 3.4480	10.8150
 3.4500	10.7620
 3.4520	10.4180
 3.4550	10.2860
 3.4570	10.3150
 3.4590	10.4370
 3.4620	10.3430
 3.4640	10.1300
 3.4660	10.1000
 3.4680	10.2090
 3.4710	10.0570
 3.4730	10.0720
 3.4750	10.0030
 3.4780	10.0080
 3.4800	 9.9760
 3.4820	 9.9250
 3.4850	 9.7970
 3.4870	 9.7730
 3.4890	 9.8020
 3.4920	 9.8390
 3.4940	 9.8710
 3.4970	 9.8490
 3.4990	 9.7230
 3.5010	 9.8000
 3.5040	 9.9180
 3.5060	10.4190
 3.5080	11.0370
 3.5110	11.4950
 3.5130	11.4630
 3.5160	11.3130
 3.5180	11.1130
 3.5200	10.8580
 3.5230	10.6640
 3.5250	10.6640
 3.5270	10.5590
 3.5300	10.3940
 3.5320	10.3250
 3.5350	10.3440
 3.5370	10.2080
 3.5400	10.3480
 3.5420	10.5070
 3.5440	10.4590
 3.5470	10.2170
 3.5490	10.1070
 3.5520	10.1880
 3.5540	10.3420
 3.5570	10.3680
 3.5590	10.3450
 3.5610	10.2420
 3.5640	10.2040
 3.5660	10.1070
 3.5690	10.0330
 3.5710	10.0620
 3.5740	10.1370
 3.5760	10.0600
 3.5790	10.1230
 3.5810	10.1670
 3.5840	10.1560
 3.5860	10.0100
 3.5890	10.0040
 3.5910	10.0840
 3.5930	10.2330
 3.5960	10.1100
 3.5980	10.0010
 3.6010	 9.9420
 3.6030	10.0350
 3.6060	10.1200
 3.6080	10.0120
 3.6110	10.0130
 3.6140	10.0610
 3.6160	10.0750
 3.6190	10.1220
 3.6210	10.0790
 3.6240	10.1100
 3.6260	10.0920
 3.6290	10.0630
 3.6310	 9.9520
 3.6340	 9.9830
 3.6360	 9.9880
 3.6390	 9.9950
 3.6410	10.0340
 3.6440	10.1000
 3.6470	10.0890
 3.6490	10.1470
 3.6520	10.0640
 3.6540	 9.9100
 3.6570	 9.8880
 3.6590	10.0100
 3.6620	10.0130
 3.6650	 9.9550
 3.6670	10.0080
 3.6700	10.1070
 3.6720	10.0020
 3.6750	 9.9230
 3.6780	10.0370
 3.6800	10.1740
 3.6830	10.1390
 3.6850	10.1210
 3.6880	10.0830
 3.6910	 9.9570
 3.6930	 9.9070
 3.6960	 9.9930
 3.6990	 9.9630
 3.7010	 9.9800
 3.7040	10.0250
 3.7060	 9.9910
 3.7090	 9.9320
 3.7120	10.0980
 3.7140	10.1490
 3.7170	10.0000
 3.7200	 9.9080
 3.7220	 9.9730
 3.7250	 9.9630
 3.7280	 9.9220
 3.7300	 9.8880
 3.7330	10.0140
 3.7360	10.0140
 3.7390	10.0210
 3.7410	10.1280
 3.7440	10.0910
 3.7470	 9.9320
 3.7490	 9.9510
 3.7520	 9.9640
 3.7550	10.0020
 3.7580	 9.9780
 3.7600	 9.9020
 3.7630	 9.9790
 3.7660	10.1740
 3.7680	10.1650
 3.7710	10.0780
 3.7740	10.0100
 3.7770	10.0790
 3.7790	10.1570
 3.7820	10.1530
 3.7850	10.0570
 3.7880	10.0110
 3.7900	 9.9810
 3.7930	10.0390
 3.7960	10.0600
 3.7990	10.0860
 3.8020	10.0130
 3.8040	10.0210
 3.8070	 9.9460
 3.8100	 9.9800
 3.8130	10.0250
 3.8160	10.1040
 3.8180	10.0920
 3.8210	 9.9970
 3.8240	 9.9640
 3.8270	 9.9560
 3.8300	 9.9300
 3.8330	 9.9900
 3.8350	10.0420
 3.8380	10.2330
 3.8410	10.1760
 3.8440	10.0180
 3.8470	 9.9040
 3.8500	10.0170
 3.8520	10.1470
 3.8550	10.1920
 3.8580	10.1960
 3.8610	10.0650
 3.8640	10.0040
 3.8670	10.0720
 3.8700	10.0450
 3.8730	10.1260
 3.8750	10.1370
 3.8780	10.0210
 3.8810	10.0180
 3.8840	10.1100
 3.8870	10.0840
 3.8900	10.0840
 3.8930	10.0950
 3.8960	10.1560
 3.8990	10.1780
 3.9020	10.0600
 3.9050	10.0500
 3.9080	10.1810
 3.9110	10.2090
 3.9140	10.1820
 3.9160	10.0460
 3.9190	10.0550
 3.9220	10.0210
 3.9250	10.0210
 3.9280	10.0470
 3.9310	10.1110
 3.9340	10.0430
 3.9370	10.0810
 3.9400	10.1190
 3.9430	10.1180
 3.9460	10.0940
 3.9490	10.0920
 3.9520	10.1130
 3.9550	10.0730
 3.9580	10.0310
 3.9610	10.0240
 3.9640	10.0440
 3.9670	10.2090
 3.9700	10.1810
 3.9730	10.1630
 3.9770	10.1990
 3.9800	10.2010
 3.9830	10.1810
 3.9860	10.1750
 3.9890	10.1090
 3.9920	10.1270
 3.9950	10.1440
 3.9980	10.1310
 4.0010	10.1010
 4.0040	10.1290
 4.0070	10.0670
 4.0100	10.0830
 4.0130	10.1200
 4.0170	10.1420
 4.0200	10.0910
 4.0230	10.0390
 4.0260	10.0330
 4.0290	10.1490
 4.0320	10.1560
 4.0350	10.1690
 4.0380	10.1700
 4.0420	10.0760
 4.0450	10.0950
 4.0480	10.1130
 4.0510	10.0850
 4.0540	10.1080
 4.0570	10.0960
 4.0610	10.1080
 4.0640	10.1270
 4.0670	10.1470
 4.0700	10.1600
 4.0730	10.1210
 4.0770	10.0500
 4.0800	10.0900
 4.0830	10.2940
 4.0860	10.2850
 4.0890	10.1660
 4.0930	10.1480
 4.0960	10.1410
 4.0990	10.1670
 4.1020	10.2550
 4.1060	10.2100
 4.1090	 9.8950
 4.1120	 9.9100
 4.1150	10.1510
 4.1190	10.2000
 4.1220	10.2030
 4.1250	10.2520
 4.1280	10.2640
 4.1320	10.1750
 4.1350	10.1240
 4.1380	10.2410
 4.1420	10.2850
 4.1450	10.2270
 4.1480	10.1170
 4.1520	10.0950
 4.1550	10.1140
 4.1580	10.0870
 4.1620	10.1030
 4.1650	10.1610
 4.1680	10.1310
 4.1720	10.1880
 4.1750	10.2190
 4.1780	10.2300
 4.1820	10.1650
 4.1850	10.0820
 4.1890	10.1470
 4.1920	10.2540
 4.1950	10.2450
 4.1990	10.3320
 4.2020	10.4200
 4.2060	10.4940
 4.2090	10.5860
 4.2120	10.6910
 4.2160	10.7180
 4.2190	10.7030
 4.2230	10.8230
 4.2260	11.1820
 4.2300	11.4430
 4.2330	11.1460
 4.2360	11.0450
 4.2400	11.2540
 4.2430	11.1660
 4.2470	10.9340
 4.2500	10.6710
 4.2540	10.5240
 4.2570	10.5560
 4.2610	10.6460
 4.2640	10.7300
 4.2680	10.9170
 4.2710	10.7090
 4.2750	10.3970
 4.2780	10.5710
 4.2820	10.9650
 4.2850	11.0340
 4.2890	10.8630
 4.2930	10.6340
 4.2960	10.7770
 4.3000	10.8250
 4.3030	10.6660
 4.3070	10.4430
 4.3100	10.4500
 4.3140	10.6690
 4.3180	10.6160
 4.3210	10.4070
 4.3250	10.2990
 4.3280	10.3460
 4.3320	10.4290
 4.3360	10.3700
 4.3390	10.3830
 4.3430	10.2950
 4.3470	10.1420
 4.3500	10.2360
 4.3540	10.3180
 4.3570	10.2260
 4.3610	10.2120
 4.3650	10.2420
 4.3680	10.2410
 4.3720	10.2320
 4.3760	10.2400
 4.3800	10.1800
 4.3830	10.1350
 4.3870	10.1050
 4.3910	10.2040
 4.3940	10.2800
 4.3980	10.2070
 4.4020	10.1880
 4.4060	10.1370
 4.4090	10.1110
 4.4130	10.1740
 4.4170	10.1960
 4.4210	10.2040
 4.4240	10.1720
 4.4280	10.2030
 4.4320	10.2850
 4.4360	10.2610
 4.4400	10.2460
 4.4430	10.2300
 4.4470	10.1310
 4.4510	10.1000
 4.4550	10.1180
 4.4590	10.1580
 4.4620	10.1470
 4.4660	10.1200
 4.4700	10.1230
 4.4740	10.0760
 4.4780	10.0610
 4.4820	10.1020
 4.4860	10.1130
 4.4900	10.1000
 4.4930	10.0230
 4.4970	10.0500
 4.5010	10.0390
 4.5050	 9.9330
 4.5090	 9.9580
 4.5130	10.0350
 4.5170	10.0830
 4.5210	10.1100
 4.5250	10.1000
 4.5290	10.0670
 4.5330	 9.9830
 4.5370	10.0240
 4.5410	10.1170
 4.5450	10.0780
 4.5490	10.0780
 4.5530	10.0470
 4.5570	 9.9350
 4.5610	 9.9520
 4.5650	10.0990
 4.5690	10.1010
 4.5730	10.0850
 4.5770	10.1400
 4.5810	10.1450
 4.5850	10.0860
 4.5890	10.0580
 4.5930	10.1080
 4.5970	10.0740
 4.6010	10.0490
 4.6050	10.1920
 4.6090	10.1980
 4.6130	 9.9560
 4.6170	 9.9580
 4.6220	10.1180
 4.6260	10.0570
 4.6300	 9.9070
 4.6340	 9.8760
 4.6380	 9.9750
 4.6420	10.0670
 4.6460	10.0180
 4.6510	 9.9340
 4.6550	 9.9640
 4.6590	10.0220
 4.6630	10.0340
 4.6670	 9.9990
 4.6720	 9.9930
 4.6760	10.0570
 4.6800	10.0770
 4.6840	10.0710
 4.6880	 9.9770
 4.6930	 9.9120
 4.6970	 9.9670
 4.7010	10.0460
 4.7050	10.0810
 4.7100	10.0520
 4.7140	10.0660
 4.7180	10.0130
 4.7230	 9.9720
 4.7270	 9.9790
 4.7310	10.0250
 4.7360	10.0670
 4.7400	10.0440
 4.7440	 9.9960
 4.7490	10.0590
 4.7530	10.1200
 4.7570	10.1200
 4.7620	10.0730
 4.7660	10.0480
 4.7700	10.0150
 4.7750	 9.9770
 4.7790	10.0360
 4.7840	 9.9600
 4.7880	10.0080
 4.7920	10.2220
 4.7970	10.1600
 4.8010	10.0980
 4.8060	10.0440
 4.8100	10.0540
 4.8150	10.1000
 4.8190	10.1520
 4.8240	10.1180
 4.8280	10.0730
 4.8330	10.1010
 4.8370	10.0730
 4.8420	10.0300
 4.8460	10.0050
 4.8510	10.0400
 4.8550	10.0670
 4.8600	10.0520
 4.8640	10.1060
 4.8690	10.1330
 4.8730	10.0910
 4.8780	10.0110
 4.8830	 9.9840
 4.8870	 9.9880
 4.8920	10.0320
 4.8960	10.1090
 4.9010	10.1030
 4.9060	10.0910
 4.9100	10.1540
 4.9150	10.1620
 4.9200	10.1690
 4.9240	10.0980
 4.9290	10.1160
 4.9340	10.1680
 4.9380	10.1190
 4.9430	10.0980
 4.9480	10.1390
 4.9530	10.1450
 4.9570	10.1330
 4.9620	10.1190
 4.9670	10.1330
 4.9720	10.1170
 4.9760	10.0950
 4.9810	10.0830
 4.9860	10.1470
 4.9910	10.2660
 4.9960	10.2560
 5.0000	10.2030
 5.0050	10.2230
 5.0100	10.2020
 5.0150	10.2860
 5.0200	10.3260
 5.0250	10.2410
 5.0290	10.1950
 5.0340	10.1930
 5.0390	10.2320
 5.0440	10.2340
 5.0490	10.1530
 5.0540	10.1600
 5.0590	10.1820
 5.0640	10.2340
 5.0690	10.1820
 5.0740	10.1570
 5.0790	10.2340
 5.0840	10.2580
 5.0890	10.1890
 5.0940	10.2140
 5.0990	10.1860
 5.1040	10.1480
 5.1090	10.1470
 5.1140	10.1540
 5.1190	10.1490
 5.1240	10.2080
 5.1290	10.2480
 5.1340	10.3560
 5.1390	10.4030
 5.1440	10.2960
 5.1490	10.2270
 5.1540	10.2470
 5.1600	10.2390
 5.1650	10.2940
 5.1700	10.2230
 5.1750	10.1720
 5.1800	10.2130
 5.1850	10.1970
 5.1910	10.1850
 5.1960	10.1590
 5.2010	10.1760
 5.2060	10.1990
 5.2110	10.1970
 5.2170	10.1890
 5.2220	10.1890
 5.2270	10.2000
 5.2320	10.1110
 5.2380	10.1010
 5.2430	10.1920
 5.2480	10.2890
 5.2540	10.3190
 5.2590	10.3190
 5.2640	10.2520
 5.2700	10.2330
 5.2750	10.2430
 5.2800	10.2250
 5.2860	10.2420
 5.2910	10.2850
 5.2970	10.1960
 5.3020	10.1660
 5.3070	10.1690
 5.3130	10.1800
 5.3180	10.2000
 5.3240	10.1450
 5.3290	10.0900
 5.3350	10.1910
 5.3400	10.2390
 5.3460	10.3330
 5.3510	10.3340
 5.3570	10.2230
 5.3620	10.1930
 5.3680	10.2870
 5.3730	10.2540
 5.3790	10.1790
 5.3850	10.0990
 5.3900	10.0660
 5.3960	10.1550
 5.4010	10.2040
 5.4070	10.1800
 5.4130	10.1620
 5.4180	10.1680
 5.4240	10.2610
 5.4300	10.2240
 5.4350	10.1270
 5.4410	10.0420
