Name: Taxodium mucronatum
Type: vegetation
Class: Tree
Genus: Taxodium
Species: mucronatum
Sample No.: JPL118
Owner: JPL
Wavelength Range: VSWIR
Origin: 34.12622; -118.11437;; WGS84
Collection Date: 9/7/2016
Description: Samples were collected at the Huntington Garden in San Marino California as part of a JPL Subcontract studying HyTES imagery. Samples were taken to JPL and processed within 48 hours of collection. The same leaves were processed in the Nicolet and then measured using the ASD.
Measurement: Bidirectional reflectance
First Column: X
Second Column: Y
X Units: Wavelength (micrometer)
Y Units: Reflectance (percentage)
First X Value: 0.35
Last X Value: 2.5
Number of X Values: 2151
Additional Information: vegetation.tree.taxodium.mucronatum.vswir.jpl118.jpl.asd.ancillary.txt

 0.3500	 3.3200
 0.3510	 3.2570
 0.3520	 3.3400
 0.3530	 3.3870
 0.3540	 3.2790
 0.3550	 3.2950
 0.3560	 3.3380
 0.3570	 3.3440
 0.3580	 3.2880
 0.3590	 3.2590
 0.3600	 3.2100
 0.3610	 3.1420
 0.3620	 3.1460
 0.3630	 3.1290
 0.3640	 3.1150
 0.3650	 3.1430
 0.3660	 3.1680
 0.3670	 3.1710
 0.3680	 3.1610
 0.3690	 3.1670
 0.3700	 3.1950
 0.3710	 3.2010
 0.3720	 3.1710
 0.3730	 3.1530
 0.3740	 3.1400
 0.3750	 3.1340
 0.3760	 3.1330
 0.3770	 3.1210
 0.3780	 3.1550
 0.3790	 3.2000
 0.3800	 3.1530
 0.3810	 3.1450
 0.3820	 3.1520
 0.3830	 3.1400
 0.3840	 3.1080
 0.3850	 3.1170
 0.3860	 3.1510
 0.3870	 3.1670
 0.3880	 3.1620
 0.3890	 3.1520
 0.3900	 3.1560
 0.3910	 3.1940
 0.3920	 3.2130
 0.3930	 3.2200
 0.3940	 3.2300
 0.3950	 3.2310
 0.3960	 3.2500
 0.3970	 3.2740
 0.3980	 3.2770
 0.3990	 3.2690
 0.4000	 3.2760
 0.4010	 3.2940
 0.4020	 3.2810
 0.4030	 3.2940
 0.4040	 3.3130
 0.4050	 3.3140
 0.4060	 3.3360
 0.4070	 3.3650
 0.4080	 3.3770
 0.4090	 3.3530
 0.4100	 3.3680
 0.4110	 3.3940
 0.4120	 3.4090
 0.4130	 3.4240
 0.4140	 3.4460
 0.4150	 3.4690
 0.4160	 3.4850
 0.4170	 3.5090
 0.4180	 3.5200
 0.4190	 3.5170
 0.4200	 3.5220
 0.4210	 3.5490
 0.4220	 3.5770
 0.4230	 3.5910
 0.4240	 3.6010
 0.4250	 3.6140
 0.4260	 3.6280
 0.4270	 3.6400
 0.4280	 3.6600
 0.4290	 3.6670
 0.4300	 3.6620
 0.4310	 3.6710
 0.4320	 3.6790
 0.4330	 3.6850
 0.4340	 3.6920
 0.4350	 3.7030
 0.4360	 3.7140
 0.4370	 3.7220
 0.4380	 3.7250
 0.4390	 3.7340
 0.4400	 3.7440
 0.4410	 3.7530
 0.4420	 3.7570
 0.4430	 3.7690
 0.4440	 3.7870
 0.4450	 3.8000
 0.4460	 3.8140
 0.4470	 3.8210
 0.4480	 3.8280
 0.4490	 3.8530
 0.4500	 3.8710
 0.4510	 3.8840
 0.4520	 3.8980
 0.4530	 3.9070
 0.4540	 3.9120
 0.4550	 3.9180
 0.4560	 3.9310
 0.4570	 3.9400
 0.4580	 3.9480
 0.4590	 3.9530
 0.4600	 3.9550
 0.4610	 3.9550
 0.4620	 3.9560
 0.4630	 3.9570
 0.4640	 3.9620
 0.4650	 3.9660
 0.4660	 3.9660
 0.4670	 3.9590
 0.4680	 3.9580
 0.4690	 3.9640
 0.4700	 3.9720
 0.4710	 3.9710
 0.4720	 3.9690
 0.4730	 3.9680
 0.4740	 3.9630
 0.4750	 3.9650
 0.4760	 3.9680
 0.4770	 3.9690
 0.4780	 3.9710
 0.4790	 3.9730
 0.4800	 3.9750
 0.4810	 3.9770
 0.4820	 3.9820
 0.4830	 3.9850
 0.4840	 3.9850
 0.4850	 3.9900
 0.4860	 3.9990
 0.4870	 4.0120
 0.4880	 4.0260
 0.4890	 4.0420
 0.4900	 4.0630
 0.4910	 4.0850
 0.4920	 4.1020
 0.4930	 4.1310
 0.4940	 4.1620
 0.4950	 4.1920
 0.4960	 4.2280
 0.4970	 4.2720
 0.4980	 4.3230
 0.4990	 4.3780
 0.5000	 4.4360
 0.5010	 4.5000
 0.5020	 4.5680
 0.5030	 4.6380
 0.5040	 4.7190
 0.5050	 4.8100
 0.5060	 4.9100
 0.5070	 5.0190
 0.5080	 5.1290
 0.5090	 5.2440
 0.5100	 5.3770
 0.5110	 5.5160
 0.5120	 5.6590
 0.5130	 5.8080
 0.5140	 5.9660
 0.5150	 6.1360
 0.5160	 6.3090
 0.5170	 6.4780
 0.5180	 6.6590
 0.5190	 6.8440
 0.5200	 7.0290
 0.5210	 7.2160
 0.5220	 7.3970
 0.5230	 7.5730
 0.5240	 7.7430
 0.5250	 7.9040
 0.5260	 8.0590
 0.5270	 8.2070
 0.5280	 8.3410
 0.5290	 8.4630
 0.5300	 8.5780
 0.5310	 8.6840
 0.5320	 8.7760
 0.5330	 8.8590
 0.5340	 8.9350
 0.5350	 9.0040
 0.5360	 9.0630
 0.5370	 9.1160
 0.5380	 9.1650
 0.5390	 9.2120
 0.5400	 9.2600
 0.5410	 9.3070
 0.5420	 9.3530
 0.5430	 9.3990
 0.5440	 9.4340
 0.5450	 9.4590
 0.5460	 9.4790
 0.5470	 9.4930
 0.5480	 9.5060
 0.5490	 9.5190
 0.5500	 9.5360
 0.5510	 9.5450
 0.5520	 9.5450
 0.5530	 9.5360
 0.5540	 9.5150
 0.5550	 9.4870
 0.5560	 9.4490
 0.5570	 9.4000
 0.5580	 9.3410
 0.5590	 9.2750
 0.5600	 9.2030
 0.5610	 9.1260
 0.5620	 9.0440
 0.5630	 8.9580
 0.5640	 8.8710
 0.5650	 8.7760
 0.5660	 8.6760
 0.5670	 8.5720
 0.5680	 8.4670
 0.5690	 8.3590
 0.5700	 8.2490
 0.5710	 8.1410
 0.5720	 8.0390
 0.5730	 7.9410
 0.5740	 7.8490
 0.5750	 7.7630
 0.5760	 7.6850
 0.5770	 7.6110
 0.5780	 7.5380
 0.5790	 7.4640
 0.5800	 7.3930
 0.5810	 7.3290
 0.5820	 7.2720
 0.5830	 7.2180
 0.5840	 7.1660
 0.5850	 7.1160
 0.5860	 7.0670
 0.5870	 7.0190
 0.5880	 6.9730
 0.5890	 6.9270
 0.5900	 6.8850
 0.5910	 6.8540
 0.5920	 6.8300
 0.5930	 6.8070
 0.5940	 6.7800
 0.5950	 6.7540
 0.5960	 6.7290
 0.5970	 6.7060
 0.5980	 6.6810
 0.5990	 6.6540
 0.6000	 6.6260
 0.6010	 6.5970
 0.6020	 6.5640
 0.6030	 6.5260
 0.6040	 6.4890
 0.6050	 6.4470
 0.6060	 6.4000
 0.6070	 6.3480
 0.6080	 6.2940
 0.6090	 6.2410
 0.6100	 6.1910
 0.6110	 6.1390
 0.6120	 6.0810
 0.6130	 6.0170
 0.6140	 5.9520
 0.6150	 5.8950
 0.6160	 5.8380
 0.6170	 5.7860
 0.6180	 5.7410
 0.6190	 5.6970
 0.6200	 5.6580
 0.6210	 5.6250
 0.6220	 5.5950
 0.6230	 5.5680
 0.6240	 5.5440
 0.6250	 5.5250
 0.6260	 5.5100
 0.6270	 5.5010
 0.6280	 5.4930
 0.6290	 5.4840
 0.6300	 5.4790
 0.6310	 5.4730
 0.6320	 5.4620
 0.6330	 5.4460
 0.6340	 5.4250
 0.6350	 5.3990
 0.6360	 5.3670
 0.6370	 5.3310
 0.6380	 5.2870
 0.6390	 5.2360
 0.6400	 5.1780
 0.6410	 5.1150
 0.6420	 5.0500
 0.6430	 4.9830
 0.6440	 4.9140
 0.6450	 4.8440
 0.6460	 4.7750
 0.6470	 4.7090
 0.6480	 4.6460
 0.6490	 4.5880
 0.6500	 4.5380
 0.6510	 4.4950
 0.6520	 4.4570
 0.6530	 4.4200
 0.6540	 4.3840
 0.6550	 4.3480
 0.6560	 4.3080
 0.6570	 4.2630
 0.6580	 4.2150
 0.6590	 4.1670
 0.6600	 4.1160
 0.6610	 4.0630
 0.6620	 4.0120
 0.6630	 3.9610
 0.6640	 3.9130
 0.6650	 3.8690
 0.6660	 3.8290
 0.6670	 3.7930
 0.6680	 3.7630
 0.6690	 3.7390
 0.6700	 3.7220
 0.6710	 3.7100
 0.6720	 3.7030
 0.6730	 3.6980
 0.6740	 3.7010
 0.6750	 3.7070
 0.6760	 3.7170
 0.6770	 3.7340
 0.6780	 3.7540
 0.6790	 3.7790
 0.6800	 3.8100
 0.6810	 3.8480
 0.6820	 3.8980
 0.6830	 3.9600
 0.6840	 4.0340
 0.6850	 4.1300
 0.6860	 4.2470
 0.6870	 4.3860
 0.6880	 4.5560
 0.6890	 4.7630
 0.6900	 5.0080
 0.6910	 5.2930
 0.6920	 5.6170
 0.6930	 5.9800
 0.6940	 6.3810
 0.6950	 6.8160
 0.6960	 7.2820
 0.6970	 7.7760
 0.6980	 8.2950
 0.6990	 8.8310
 0.7000	 9.3850
 0.7010	 9.9530
 0.7020	10.5300
 0.7030	11.1150
 0.7040	11.7070
 0.7050	12.3010
 0.7060	12.8940
 0.7070	13.4900
 0.7080	14.0880
 0.7090	14.6890
 0.7100	15.2910
 0.7110	15.8930
 0.7120	16.4940
 0.7130	17.0960
 0.7140	17.6960
 0.7150	18.2930
 0.7160	18.8890
 0.7170	19.4800
 0.7180	20.0640
 0.7190	20.6420
 0.7200	21.2130
 0.7210	21.7740
 0.7220	22.3200
 0.7230	22.8510
 0.7240	23.3710
 0.7250	23.8690
 0.7260	24.3470
 0.7270	24.8070
 0.7280	25.2490
 0.7290	25.6690
 0.7300	26.0680
 0.7310	26.4470
 0.7320	26.8030
 0.7330	27.1380
 0.7340	27.4520
 0.7350	27.7480
 0.7360	28.0290
 0.7370	28.2920
 0.7380	28.5340
 0.7390	28.7620
 0.7400	28.9720
 0.7410	29.1670
 0.7420	29.3510
 0.7430	29.5200
 0.7440	29.6760
 0.7450	29.8180
 0.7460	29.9450
 0.7470	30.0650
 0.7480	30.1770
 0.7490	30.2810
 0.7500	30.3690
 0.7510	30.4500
 0.7520	30.5270
 0.7530	30.6000
 0.7540	30.6630
 0.7550	30.7200
 0.7560	30.7730
 0.7570	30.8210
 0.7580	30.8650
 0.7590	30.9070
 0.7600	30.9470
 0.7610	30.9800
 0.7620	31.0110
 0.7630	31.0400
 0.7640	31.0660
 0.7650	31.0890
 0.7660	31.1130
 0.7670	31.1370
 0.7680	31.1580
 0.7690	31.1740
 0.7700	31.1890
 0.7710	31.2040
 0.7720	31.2200
 0.7730	31.2360
 0.7740	31.2510
 0.7750	31.2640
 0.7760	31.2770
 0.7770	31.2880
 0.7780	31.3000
 0.7790	31.3160
 0.7800	31.3290
 0.7810	31.3380
 0.7820	31.3470
 0.7830	31.3590
 0.7840	31.3690
 0.7850	31.3790
 0.7860	31.3880
 0.7870	31.3960
 0.7880	31.4040
 0.7890	31.4120
 0.7900	31.4200
 0.7910	31.4270
 0.7920	31.4330
 0.7930	31.4400
 0.7940	31.4440
 0.7950	31.4490
 0.7960	31.4530
 0.7970	31.4560
 0.7980	31.4580
 0.7990	31.4600
 0.8000	31.4630
 0.8010	31.4660
 0.8020	31.4670
 0.8030	31.4650
 0.8040	31.4630
 0.8050	31.4630
 0.8060	31.4630
 0.8070	31.4610
 0.8080	31.4580
 0.8090	31.4550
 0.8100	31.4510
 0.8110	31.4500
 0.8120	31.4510
 0.8130	31.4460
 0.8140	31.4410
 0.8150	31.4350
 0.8160	31.4290
 0.8170	31.4270
 0.8180	31.4210
 0.8190	31.4150
 0.8200	31.4130
 0.8210	31.4080
 0.8220	31.3990
 0.8230	31.3900
 0.8240	31.3850
 0.8250	31.3780
 0.8260	31.3700
 0.8270	31.3650
 0.8280	31.3610
 0.8290	31.3530
 0.8300	31.3430
 0.8310	31.3370
 0.8320	31.3270
 0.8330	31.3200
 0.8340	31.3150
 0.8350	31.3080
 0.8360	31.3010
 0.8370	31.2950
 0.8380	31.2910
 0.8390	31.2910
 0.8400	31.2870
 0.8410	31.2850
 0.8420	31.2870
 0.8430	31.2880
 0.8440	31.2880
 0.8450	31.2890
 0.8460	31.2910
 0.8470	31.2900
 0.8480	31.2890
 0.8490	31.2870
 0.8500	31.2840
 0.8510	31.2800
 0.8520	31.2810
 0.8530	31.2840
 0.8540	31.2830
 0.8550	31.2870
 0.8560	31.2900
 0.8570	31.2900
 0.8580	31.2930
 0.8590	31.3000
 0.8600	31.3080
 0.8610	31.3130
 0.8620	31.3130
 0.8630	31.3160
 0.8640	31.3210
 0.8650	31.3230
 0.8660	31.3250
 0.8670	31.3270
 0.8680	31.3320
 0.8690	31.3420
 0.8700	31.3460
 0.8710	31.3480
 0.8720	31.3510
 0.8730	31.3590
 0.8740	31.3670
 0.8750	31.3740
 0.8760	31.3800
 0.8770	31.3870
 0.8780	31.3940
 0.8790	31.4010
 0.8800	31.4070
 0.8810	31.4110
 0.8820	31.4140
 0.8830	31.4200
 0.8840	31.4290
 0.8850	31.4360
 0.8860	31.4400
 0.8870	31.4450
 0.8880	31.4530
 0.8890	31.4630
 0.8900	31.4720
 0.8910	31.4790
 0.8920	31.4840
 0.8930	31.4900
 0.8940	31.4950
 0.8950	31.5000
 0.8960	31.5030
 0.8970	31.5120
 0.8980	31.5200
 0.8990	31.5240
 0.9000	31.5260
 0.9010	31.5300
 0.9020	31.5400
 0.9030	31.5520
 0.9040	31.5560
 0.9050	31.5580
 0.9060	31.5610
 0.9070	31.5680
 0.9080	31.5730
 0.9090	31.5740
 0.9100	31.5730
 0.9110	31.5730
 0.9120	31.5770
 0.9130	31.5840
 0.9140	31.5910
 0.9150	31.5930
 0.9160	31.5880
 0.9170	31.5880
 0.9180	31.5900
 0.9190	31.5870
 0.9200	31.5840
 0.9210	31.5830
 0.9220	31.5810
 0.9230	31.5720
 0.9240	31.5640
 0.9250	31.5570
 0.9260	31.5490
 0.9270	31.5350
 0.9280	31.5200
 0.9290	31.5090
 0.9300	31.4970
 0.9310	31.4760
 0.9320	31.4610
 0.9330	31.4400
 0.9340	31.4110
 0.9350	31.3900
 0.9360	31.3690
 0.9370	31.3480
 0.9380	31.3270
 0.9390	31.3050
 0.9400	31.2730
 0.9410	31.2400
 0.9420	31.2080
 0.9430	31.1730
 0.9440	31.1400
 0.9450	31.1070
 0.9460	31.0670
 0.9470	31.0180
 0.9480	30.9710
 0.9490	30.9240
 0.9500	30.8720
 0.9510	30.8080
 0.9520	30.7510
 0.9530	30.6950
 0.9540	30.6330
 0.9550	30.5750
 0.9560	30.5210
 0.9570	30.4670
 0.9580	30.4110
 0.9590	30.3620
 0.9600	30.3210
 0.9610	30.2820
 0.9620	30.2380
 0.9630	30.2090
 0.9640	30.1850
 0.9650	30.1620
 0.9660	30.1400
 0.9670	30.1210
 0.9680	30.1060
 0.9690	30.0950
 0.9700	30.0880
 0.9710	30.0730
 0.9720	30.0570
 0.9730	30.0450
 0.9740	30.0420
 0.9750	30.0380
 0.9760	30.0380
 0.9770	30.0390
 0.9780	30.0390
 0.9790	30.0320
 0.9800	30.0290
 0.9810	30.0290
 0.9820	30.0280
 0.9830	30.0440
 0.9840	30.0560
 0.9850	30.0620
 0.9860	30.0720
 0.9870	30.0870
 0.9880	30.0920
 0.9890	30.0940
 0.9900	30.1100
 0.9910	30.1320
 0.9920	30.1430
 0.9930	30.1460
 0.9940	30.1560
 0.9950	30.1730
 0.9960	30.1960
 0.9970	30.2240
 0.9980	30.2520
 0.9990	30.2580
 1.0000	30.2760
 1.0010	31.2930
 1.0020	31.3100
 1.0030	31.3300
 1.0040	31.3510
 1.0050	31.3710
 1.0060	31.3910
 1.0070	31.4100
 1.0080	31.4300
 1.0090	31.4490
 1.0100	31.4690
 1.0110	31.4890
 1.0120	31.5100
 1.0130	31.5320
 1.0140	31.5530
 1.0150	31.5740
 1.0160	31.5950
 1.0170	31.6170
 1.0180	31.6360
 1.0190	31.6560
 1.0200	31.6770
 1.0210	31.6960
 1.0220	31.7150
 1.0230	31.7350
 1.0240	31.7550
 1.0250	31.7750
 1.0260	31.7940
 1.0270	31.8140
 1.0280	31.8350
 1.0290	31.8550
 1.0300	31.8740
 1.0310	31.8940
 1.0320	31.9150
 1.0330	31.9350
 1.0340	31.9530
 1.0350	31.9700
 1.0360	31.9840
 1.0370	31.9970
 1.0380	32.0130
 1.0390	32.0300
 1.0400	32.0470
 1.0410	32.0640
 1.0420	32.0790
 1.0430	32.0930
 1.0440	32.1060
 1.0450	32.1140
 1.0460	32.1260
 1.0470	32.1400
 1.0480	32.1520
 1.0490	32.1630
 1.0500	32.1750
 1.0510	32.1870
 1.0520	32.1990
 1.0530	32.2090
 1.0540	32.2220
 1.0550	32.2290
 1.0560	32.2320
 1.0570	32.2380
 1.0580	32.2450
 1.0590	32.2490
 1.0600	32.2530
 1.0610	32.2570
 1.0620	32.2600
 1.0630	32.2620
 1.0640	32.2650
 1.0650	32.2670
 1.0660	32.2680
 1.0670	32.2700
 1.0680	32.2710
 1.0690	32.2730
 1.0700	32.2740
 1.0710	32.2750
 1.0720	32.2740
 1.0730	32.2720
 1.0740	32.2700
 1.0750	32.2680
 1.0760	32.2650
 1.0770	32.2630
 1.0780	32.2610
 1.0790	32.2570
 1.0800	32.2530
 1.0810	32.2510
 1.0820	32.2470
 1.0830	32.2420
 1.0840	32.2370
 1.0850	32.2340
 1.0860	32.2280
 1.0870	32.2210
 1.0880	32.2120
 1.0890	32.2050
 1.0900	32.1950
 1.0910	32.1870
 1.0920	32.1810
 1.0930	32.1730
 1.0940	32.1640
 1.0950	32.1550
 1.0960	32.1460
 1.0970	32.1370
 1.0980	32.1280
 1.0990	32.1180
 1.1000	32.1080
 1.1010	32.0970
 1.1020	32.0860
 1.1030	32.0730
 1.1040	32.0590
 1.1050	32.0460
 1.1060	32.0320
 1.1070	32.0190
 1.1080	32.0040
 1.1090	31.9880
 1.1100	31.9740
 1.1110	31.9620
 1.1120	31.9470
 1.1130	31.9330
 1.1140	31.9170
 1.1150	31.8980
 1.1160	31.8790
 1.1170	31.8600
 1.1180	31.8390
 1.1190	31.8160
 1.1200	31.7920
 1.1210	31.7660
 1.1220	31.7370
 1.1230	31.7050
 1.1240	31.6680
 1.1250	31.6260
 1.1260	31.5800
 1.1270	31.5260
 1.1280	31.4660
 1.1290	31.4010
 1.1300	31.3300
 1.1310	31.2520
 1.1320	31.1690
 1.1330	31.0780
 1.1340	30.9790
 1.1350	30.8740
 1.1360	30.7610
 1.1370	30.6410
 1.1380	30.5160
 1.1390	30.3880
 1.1400	30.2550
 1.1410	30.1210
 1.1420	29.9850
 1.1430	29.8480
 1.1440	29.7130
 1.1450	29.5780
 1.1460	29.4470
 1.1470	29.3160
 1.1480	29.1930
 1.1490	29.0730
 1.1500	28.9630
 1.1510	28.8600
 1.1520	28.7640
 1.1530	28.6750
 1.1540	28.5940
 1.1550	28.5190
 1.1560	28.4500
 1.1570	28.3900
 1.1580	28.3370
 1.1590	28.2870
 1.1600	28.2430
 1.1610	28.2040
 1.1620	28.1670
 1.1630	28.1360
 1.1640	28.1070
 1.1650	28.0810
 1.1660	28.0580
 1.1670	28.0360
 1.1680	28.0150
 1.1690	27.9960
 1.1700	27.9790
 1.1710	27.9610
 1.1720	27.9450
 1.1730	27.9280
 1.1740	27.9120
 1.1750	27.8950
 1.1760	27.8790
 1.1770	27.8640
 1.1780	27.8460
 1.1790	27.8280
 1.1800	27.8100
 1.1810	27.7930
 1.1820	27.7760
 1.1830	27.7600
 1.1840	27.7420
 1.1850	27.7250
 1.1860	27.7070
 1.1870	27.6900
 1.1880	27.6760
 1.1890	27.6640
 1.1900	27.6530
 1.1910	27.6450
 1.1920	27.6380
 1.1930	27.6300
 1.1940	27.6250
 1.1950	27.6200
 1.1960	27.6180
 1.1970	27.6190
 1.1980	27.6210
 1.1990	27.6260
 1.2000	27.6310
 1.2010	27.6390
 1.2020	27.6480
 1.2030	27.6580
 1.2040	27.6710
 1.2050	27.6830
 1.2060	27.6970
 1.2070	27.7130
 1.2080	27.7290
 1.2090	27.7450
 1.2100	27.7630
 1.2110	27.7820
 1.2120	27.8020
 1.2130	27.8210
 1.2140	27.8400
 1.2150	27.8600
 1.2160	27.8810
 1.2170	27.9010
 1.2180	27.9230
 1.2190	27.9460
 1.2200	27.9670
 1.2210	27.9900
 1.2220	28.0130
 1.2230	28.0360
 1.2240	28.0600
 1.2250	28.0830
 1.2260	28.1050
 1.2270	28.1260
 1.2280	28.1460
 1.2290	28.1660
 1.2300	28.1870
 1.2310	28.2090
 1.2320	28.2290
 1.2330	28.2480
 1.2340	28.2660
 1.2350	28.2840
 1.2360	28.3010
 1.2370	28.3170
 1.2380	28.3330
 1.2390	28.3500
 1.2400	28.3650
 1.2410	28.3810
 1.2420	28.3960
 1.2430	28.4090
 1.2440	28.4230
 1.2450	28.4370
 1.2460	28.4500
 1.2470	28.4630
 1.2480	28.4760
 1.2490	28.4890
 1.2500	28.5010
 1.2510	28.5110
 1.2520	28.5210
 1.2530	28.5300
 1.2540	28.5390
 1.2550	28.5480
 1.2560	28.5550
 1.2570	28.5600
 1.2580	28.5650
 1.2590	28.5690
 1.2600	28.5730
 1.2610	28.5760
 1.2620	28.5780
 1.2630	28.5790
 1.2640	28.5790
 1.2650	28.5780
 1.2660	28.5780
 1.2670	28.5770
 1.2680	28.5750
 1.2690	28.5710
 1.2700	28.5670
 1.2710	28.5610
 1.2720	28.5560
 1.2730	28.5490
 1.2740	28.5390
 1.2750	28.5290
 1.2760	28.5180
 1.2770	28.5050
 1.2780	28.4920
 1.2790	28.4770
 1.2800	28.4600
 1.2810	28.4420
 1.2820	28.4210
 1.2830	28.3990
 1.2840	28.3750
 1.2850	28.3490
 1.2860	28.3220
 1.2870	28.2940
 1.2880	28.2640
 1.2890	28.2340
 1.2900	28.2000
 1.2910	28.1630
 1.2920	28.1240
 1.2930	28.0820
 1.2940	28.0380
 1.2950	27.9930
 1.2960	27.9450
 1.2970	27.8950
 1.2980	27.8430
 1.2990	27.7890
 1.3000	27.7360
 1.3010	27.6790
 1.3020	27.6200
 1.3030	27.5590
 1.3040	27.4960
 1.3050	27.4310
 1.3060	27.3630
 1.3070	27.2950
 1.3080	27.2230
 1.3090	27.1500
 1.3100	27.0760
 1.3110	26.9980
 1.3120	26.9160
 1.3130	26.8310
 1.3140	26.7450
 1.3150	26.6560
 1.3160	26.5650
 1.3170	26.4750
 1.3180	26.3810
 1.3190	26.2840
 1.3200	26.1860
 1.3210	26.0840
 1.3220	25.9810
 1.3230	25.8750
 1.3240	25.7680
 1.3250	25.6610
 1.3260	25.5520
 1.3270	25.4410
 1.3280	25.3280
 1.3290	25.2140
 1.3300	25.0980
 1.3310	24.9810
 1.3320	24.8620
 1.3330	24.7450
 1.3340	24.6280
 1.3350	24.5110
 1.3360	24.3950
 1.3370	24.2780
 1.3380	24.1620
 1.3390	24.0460
 1.3400	23.9310
 1.3410	23.8180
 1.3420	23.7070
 1.3430	23.5970
 1.3440	23.4880
 1.3450	23.3800
 1.3460	23.2720
 1.3470	23.1670
 1.3480	23.0630
 1.3490	22.9610
 1.3500	22.8600
 1.3510	22.7600
 1.3520	22.6600
 1.3530	22.5620
 1.3540	22.4630
 1.3550	22.3640
 1.3560	22.2650
 1.3570	22.1640
 1.3580	22.0620
 1.3590	21.9590
 1.3600	21.8540
 1.3610	21.7460
 1.3620	21.6350
 1.3630	21.5200
 1.3640	21.4010
 1.3650	21.2740
 1.3660	21.1410
 1.3670	21.0020
 1.3680	20.8540
 1.3690	20.6980
 1.3700	20.5320
 1.3710	20.3560
 1.3720	20.1690
 1.3730	19.9700
 1.3740	19.7620
 1.3750	19.5390
 1.3760	19.3020
 1.3770	19.0500
 1.3780	18.7800
 1.3790	18.4950
 1.3800	18.1970
 1.3810	17.8810
 1.3820	17.5560
 1.3830	17.2170
 1.3840	16.8690
 1.3850	16.5090
 1.3860	16.1450
 1.3870	15.7690
 1.3880	15.3970
 1.3890	15.0200
 1.3900	14.6430
 1.3910	14.2700
 1.3920	13.8990
 1.3930	13.5290
 1.3940	13.1660
 1.3950	12.8080
 1.3960	12.4600
 1.3970	12.1250
 1.3980	11.8010
 1.3990	11.4930
 1.4000	11.1980
 1.4010	10.9140
 1.4020	10.6450
 1.4030	10.3890
 1.4040	10.1480
 1.4050	 9.9220
 1.4060	 9.7090
 1.4070	 9.5120
 1.4080	 9.3280
 1.4090	 9.1540
 1.4100	 8.9950
 1.4110	 8.8450
 1.4120	 8.7070
 1.4130	 8.5790
 1.4140	 8.4590
 1.4150	 8.3500
 1.4160	 8.2490
 1.4170	 8.1550
 1.4180	 8.0690
 1.4190	 7.9890
 1.4200	 7.9160
 1.4210	 7.8480
 1.4220	 7.7850
 1.4230	 7.7280
 1.4240	 7.6750
 1.4250	 7.6260
 1.4260	 7.5820
 1.4270	 7.5410
 1.4280	 7.5040
 1.4290	 7.4700
 1.4300	 7.4390
 1.4310	 7.4110
 1.4320	 7.3860
 1.4330	 7.3640
 1.4340	 7.3440
 1.4350	 7.3260
 1.4360	 7.3110
 1.4370	 7.2960
 1.4380	 7.2840
 1.4390	 7.2750
 1.4400	 7.2680
 1.4410	 7.2610
 1.4420	 7.2560
 1.4430	 7.2530
 1.4440	 7.2500
 1.4450	 7.2490
 1.4460	 7.2490
 1.4470	 7.2510
 1.4480	 7.2540
 1.4490	 7.2570
 1.4500	 7.2620
 1.4510	 7.2670
 1.4520	 7.2730
 1.4530	 7.2800
 1.4540	 7.2880
 1.4550	 7.2980
 1.4560	 7.3090
 1.4570	 7.3210
 1.4580	 7.3340
 1.4590	 7.3500
 1.4600	 7.3680
 1.4610	 7.3880
 1.4620	 7.4100
 1.4630	 7.4340
 1.4640	 7.4600
 1.4650	 7.4890
 1.4660	 7.5200
 1.4670	 7.5530
 1.4680	 7.5890
 1.4690	 7.6270
 1.4700	 7.6670
 1.4710	 7.7100
 1.4720	 7.7550
 1.4730	 7.8010
 1.4740	 7.8500
 1.4750	 7.9000
 1.4760	 7.9520
 1.4770	 8.0050
