Name: Pinus lambertiana 1
Type: vegetation
Class: Tree
Genus: Pinus
Species: lambertiana
Sample No.: VH052
Owner: UCSB
Wavelength Range: VSWIR
Origin: 37.043; -119.3043; WGS84
Collection Date: 4/20/2013
Description: Samples were collected as part of the HyspIRI Airborne Campaign. 48 individual plants were sampled in three times in 2013 - spring  summer  and fall. The name of the sample includes a 1  2  or 3 which references a different individual of the species. Samples were taken to JPL and processed within 48 hours of collection. The same leaves were processed in the Nicolet and then measured using the ASD.
Measurement: Bidirectional reflectance
First Column: X
Second Column: Y
X Units: Wavelength (micrometers)
Y Units: Reflectance (percentage)
First X Value: 0.35
Last X Value: 2.5
Number of X Values: 2151
Additional Information: vegetation.tree.pinus.lambertiana.vswir.vh052.ucsb.asd.ancillary.txt

 0.3500	 6.6830
 0.3510	 6.5830
 0.3520	 6.5800
 0.3530	 6.5160
 0.3540	 6.3300
 0.3550	 6.4600
 0.3560	 6.4650
 0.3570	 6.3180
 0.3580	 6.2200
 0.3590	 6.3730
 0.3600	 6.4010
 0.3610	 6.2120
 0.3620	 6.1620
 0.3630	 6.2030
 0.3640	 6.2510
 0.3650	 6.2460
 0.3660	 6.3070
 0.3670	 6.2960
 0.3680	 6.2220
 0.3690	 6.1860
 0.3700	 6.1200
 0.3710	 6.1430
 0.3720	 6.2550
 0.3730	 6.2010
 0.3740	 6.1750
 0.3750	 6.1430
 0.3760	 6.0470
 0.3770	 6.0570
 0.3780	 6.1340
 0.3790	 6.2330
 0.3800	 6.3090
 0.3810	 6.2360
 0.3820	 6.1120
 0.3830	 6.0400
 0.3840	 6.0510
 0.3850	 6.0550
 0.3860	 6.0280
 0.3870	 5.9850
 0.3880	 5.9690
 0.3890	 6.0100
 0.3900	 6.0610
 0.3910	 6.0050
 0.3920	 6.0010
 0.3930	 6.0250
 0.3940	 6.0330
 0.3950	 6.0460
 0.3960	 6.0120
 0.3970	 5.9620
 0.3980	 5.9570
 0.3990	 5.9830
 0.4000	 5.9740
 0.4010	 5.9380
 0.4020	 5.9820
 0.4030	 5.9710
 0.4040	 5.9560
 0.4050	 5.9940
 0.4060	 6.0050
 0.4070	 6.0190
 0.4080	 6.0310
 0.4090	 6.0210
 0.4100	 6.0460
 0.4110	 6.0760
 0.4120	 6.0920
 0.4130	 6.1130
 0.4140	 6.1300
 0.4150	 6.1580
 0.4160	 6.2030
 0.4170	 6.2240
 0.4180	 6.2570
 0.4190	 6.3130
 0.4200	 6.3790
 0.4210	 6.4460
 0.4220	 6.4980
 0.4230	 6.5290
 0.4240	 6.5590
 0.4250	 6.6020
 0.4260	 6.6470
 0.4270	 6.6820
 0.4280	 6.7350
 0.4290	 6.7750
 0.4300	 6.7960
 0.4310	 6.8210
 0.4320	 6.8560
 0.4330	 6.8930
 0.4340	 6.9230
 0.4350	 6.9350
 0.4360	 6.9550
 0.4370	 6.9900
 0.4380	 7.0290
 0.4390	 7.0550
 0.4400	 7.0710
 0.4410	 7.0830
 0.4420	 7.1080
 0.4430	 7.1260
 0.4440	 7.1360
 0.4450	 7.1450
 0.4460	 7.1610
 0.4470	 7.1810
 0.4480	 7.2010
 0.4490	 7.2180
 0.4500	 7.2230
 0.4510	 7.2270
 0.4520	 7.2400
 0.4530	 7.2560
 0.4540	 7.2700
 0.4550	 7.2780
 0.4560	 7.2760
 0.4570	 7.2710
 0.4580	 7.2730
 0.4590	 7.2830
 0.4600	 7.2950
 0.4610	 7.3040
 0.4620	 7.3080
 0.4630	 7.3040
 0.4640	 7.3050
 0.4650	 7.3020
 0.4660	 7.2980
 0.4670	 7.3080
 0.4680	 7.3170
 0.4690	 7.3220
 0.4700	 7.3210
 0.4710	 7.3260
 0.4720	 7.3200
 0.4730	 7.3070
 0.4740	 7.3000
 0.4750	 7.3080
 0.4760	 7.3130
 0.4770	 7.3110
 0.4780	 7.3200
 0.4790	 7.3120
 0.4800	 7.3010
 0.4810	 7.3020
 0.4820	 7.2920
 0.4830	 7.2900
 0.4840	 7.2960
 0.4850	 7.2930
 0.4860	 7.2910
 0.4870	 7.2940
 0.4880	 7.3000
 0.4890	 7.3130
 0.4900	 7.3330
 0.4910	 7.3470
 0.4920	 7.3400
 0.4930	 7.3510
 0.4940	 7.3730
 0.4950	 7.3990
 0.4960	 7.4290
 0.4970	 7.4560
 0.4980	 7.4830
 0.4990	 7.5180
 0.5000	 7.5700
 0.5010	 7.6140
 0.5020	 7.6550
 0.5030	 7.7200
 0.5040	 7.7900
 0.5050	 7.8670
 0.5060	 7.9540
 0.5070	 8.0570
 0.5080	 8.1590
 0.5090	 8.2680
 0.5100	 8.4010
 0.5110	 8.5410
 0.5120	 8.7000
 0.5130	 8.8780
 0.5140	 9.0650
 0.5150	 9.2600
 0.5160	 9.4720
 0.5170	 9.7050
 0.5180	 9.9400
 0.5190	10.1900
 0.5200	10.4510
 0.5210	10.7120
 0.5220	10.9840
 0.5230	11.2590
 0.5240	11.5310
 0.5250	11.8000
 0.5260	12.0640
 0.5270	12.3210
 0.5280	12.5670
 0.5290	12.8070
 0.5300	13.0330
 0.5310	13.2430
 0.5320	13.4430
 0.5330	13.6310
 0.5340	13.8090
 0.5350	13.9770
 0.5360	14.1350
 0.5370	14.2770
 0.5380	14.4050
 0.5390	14.5300
 0.5400	14.6450
 0.5410	14.7510
 0.5420	14.8520
 0.5430	14.9510
 0.5440	15.0510
 0.5450	15.1480
 0.5460	15.2420
 0.5470	15.3370
 0.5480	15.4290
 0.5490	15.5100
 0.5500	15.5730
 0.5510	15.6270
 0.5520	15.6680
 0.5530	15.6910
 0.5540	15.6960
 0.5550	15.6860
 0.5560	15.6550
 0.5570	15.5970
 0.5580	15.5260
 0.5590	15.4450
 0.5600	15.3560
 0.5610	15.2580
 0.5620	15.1520
 0.5630	15.0380
 0.5640	14.9140
 0.5650	14.7850
 0.5660	14.6440
 0.5670	14.4910
 0.5680	14.3340
 0.5690	14.1680
 0.5700	13.9970
 0.5710	13.8250
 0.5720	13.6560
 0.5730	13.4900
 0.5740	13.3330
 0.5750	13.1910
 0.5760	13.0470
 0.5770	12.9110
 0.5780	12.7890
 0.5790	12.6730
 0.5800	12.5650
 0.5810	12.4660
 0.5820	12.3740
 0.5830	12.2880
 0.5840	12.2070
 0.5850	12.1280
 0.5860	12.0520
 0.5870	11.9780
 0.5880	11.9070
 0.5890	11.8390
 0.5900	11.7820
 0.5910	11.7340
 0.5920	11.6960
 0.5930	11.6650
 0.5940	11.6350
 0.5950	11.6090
 0.5960	11.5850
 0.5970	11.5530
 0.5980	11.5220
 0.5990	11.4900
 0.6000	11.4530
 0.6010	11.4160
 0.6020	11.3670
 0.6030	11.3050
 0.6040	11.2370
 0.6050	11.1610
 0.6060	11.0780
 0.6070	10.9880
 0.6080	10.8880
 0.6090	10.7850
 0.6100	10.6760
 0.6110	10.5580
 0.6120	10.4490
 0.6130	10.3490
 0.6140	10.2540
 0.6150	10.1550
 0.6160	10.0610
 0.6170	 9.9740
 0.6180	 9.8940
 0.6190	 9.8230
 0.6200	 9.7570
 0.6210	 9.6990
 0.6220	 9.6510
 0.6230	 9.6090
 0.6240	 9.5750
 0.6250	 9.5450
 0.6260	 9.5170
 0.6270	 9.4920
 0.6280	 9.4730
 0.6290	 9.4650
 0.6300	 9.4510
 0.6310	 9.4410
 0.6320	 9.4340
 0.6330	 9.4180
 0.6340	 9.4000
 0.6350	 9.3740
 0.6360	 9.3350
 0.6370	 9.2860
 0.6380	 9.2270
 0.6390	 9.1590
 0.6400	 9.0880
 0.6410	 9.0080
 0.6420	 8.9220
 0.6430	 8.8310
 0.6440	 8.7360
 0.6450	 8.6410
 0.6460	 8.5460
 0.6470	 8.4520
 0.6480	 8.3630
 0.6490	 8.2810
 0.6500	 8.2060
 0.6510	 8.1400
 0.6520	 8.0780
 0.6530	 8.0200
 0.6540	 7.9630
 0.6550	 7.8930
 0.6560	 7.8190
 0.6570	 7.7410
 0.6580	 7.6550
 0.6590	 7.5620
 0.6600	 7.4670
 0.6610	 7.3740
 0.6620	 7.2870
 0.6630	 7.1990
 0.6640	 7.1180
 0.6650	 7.0490
 0.6660	 6.9880
 0.6670	 6.9340
 0.6680	 6.8900
 0.6690	 6.8550
 0.6700	 6.8310
 0.6710	 6.8110
 0.6720	 6.7950
 0.6730	 6.7850
 0.6740	 6.7850
 0.6750	 6.7910
 0.6760	 6.7970
 0.6770	 6.8080
 0.6780	 6.8230
 0.6790	 6.8440
 0.6800	 6.8700
 0.6810	 6.9080
 0.6820	 6.9550
 0.6830	 7.0140
 0.6840	 7.0960
 0.6850	 7.2010
 0.6860	 7.3350
 0.6870	 7.5060
 0.6880	 7.7290
 0.6890	 8.0130
 0.6900	 8.3650
 0.6910	 8.7890
 0.6920	 9.2910
 0.6930	 9.8710
 0.6940	10.5250
 0.6950	11.2470
 0.6960	12.0300
 0.6970	12.8670
 0.6980	13.7540
 0.6990	14.6800
 0.7000	15.6350
 0.7010	16.6110
 0.7020	17.6120
 0.7030	18.6150
 0.7040	19.6200
 0.7050	20.6260
 0.7060	21.6360
 0.7070	22.6430
 0.7080	23.6470
 0.7090	24.6520
 0.7100	25.6530
 0.7110	26.6580
 0.7120	27.6660
 0.7130	28.6640
 0.7140	29.6660
 0.7150	30.6730
 0.7160	31.6790
 0.7170	32.6820
 0.7180	33.6810
 0.7190	34.6750
 0.7200	35.6660
 0.7210	36.6460
 0.7220	37.6200
 0.7230	38.5860
 0.7240	39.5360
 0.7250	40.4620
 0.7260	41.3690
 0.7270	42.2590
 0.7280	43.1160
 0.7290	43.9450
 0.7300	44.7470
 0.7310	45.5190
 0.7320	46.2580
 0.7330	46.9710
 0.7340	47.6580
 0.7350	48.3070
 0.7360	48.9310
 0.7370	49.5220
 0.7380	50.0770
 0.7390	50.6040
 0.7400	51.1050
 0.7410	51.5780
 0.7420	52.0220
 0.7430	52.4350
 0.7440	52.8250
 0.7450	53.1880
 0.7460	53.5140
 0.7470	53.8270
 0.7480	54.1190
 0.7490	54.3820
 0.7500	54.6250
 0.7510	54.8580
 0.7520	55.0720
 0.7530	55.2590
 0.7540	55.4360
 0.7550	55.5990
 0.7560	55.7450
 0.7570	55.8770
 0.7580	56.0020
 0.7590	56.1150
 0.7600	56.2170
 0.7610	56.3140
 0.7620	56.4040
 0.7630	56.4860
 0.7640	56.5600
 0.7650	56.6250
 0.7660	56.6900
 0.7670	56.7540
 0.7680	56.8100
 0.7690	56.8560
 0.7700	56.9040
 0.7710	56.9570
 0.7720	57.0060
 0.7730	57.0420
 0.7740	57.0740
 0.7750	57.1130
 0.7760	57.1480
 0.7770	57.1860
 0.7780	57.2230
 0.7790	57.2510
 0.7800	57.2790
 0.7810	57.3110
 0.7820	57.3470
 0.7830	57.3790
 0.7840	57.4000
 0.7850	57.4210
 0.7860	57.4500
 0.7870	57.4810
 0.7880	57.5020
 0.7890	57.5210
 0.7900	57.5500
 0.7910	57.5670
 0.7920	57.5860
 0.7930	57.6090
 0.7940	57.6320
 0.7950	57.6470
 0.7960	57.6590
 0.7970	57.6750
 0.7980	57.6940
 0.7990	57.7100
 0.8000	57.7230
 0.8010	57.7340
 0.8020	57.7450
 0.8030	57.7580
 0.8040	57.7710
 0.8050	57.7810
 0.8060	57.7940
 0.8070	57.8010
 0.8080	57.8050
 0.8090	57.8190
 0.8100	57.8300
 0.8110	57.8370
 0.8120	57.8420
 0.8130	57.8450
 0.8140	57.8470
 0.8150	57.8480
 0.8160	57.8490
 0.8170	57.8630
 0.8180	57.8690
 0.8190	57.8670
 0.8200	57.8700
 0.8210	57.8800
 0.8220	57.8870
 0.8230	57.8880
 0.8240	57.8820
 0.8250	57.8820
 0.8260	57.8850
 0.8270	57.8860
 0.8280	57.8760
 0.8290	57.8640
 0.8300	57.8560
 0.8310	57.8550
 0.8320	57.8500
 0.8330	57.8500
 0.8340	57.8490
 0.8350	57.8380
 0.8360	57.8430
 0.8370	57.8500
 0.8380	57.8530
 0.8390	57.8590
 0.8400	57.8700
 0.8410	57.8830
 0.8420	57.8930
 0.8430	57.8960
 0.8440	57.9000
 0.8450	57.9110
 0.8460	57.9300
 0.8470	57.9440
 0.8480	57.9530
 0.8490	57.9610
 0.8500	57.9730
 0.8510	57.9810
 0.8520	57.9970
 0.8530	58.0140
 0.8540	58.0200
 0.8550	58.0250
 0.8560	58.0350
 0.8570	58.0460
 0.8580	58.0510
 0.8590	58.0630
 0.8600	58.0780
 0.8610	58.0910
 0.8620	58.1020
 0.8630	58.1090
 0.8640	58.1160
 0.8650	58.1280
 0.8660	58.1340
 0.8670	58.1470
 0.8680	58.1620
 0.8690	58.1700
 0.8700	58.1670
 0.8710	58.1720
 0.8720	58.1850
 0.8730	58.1930
 0.8740	58.2010
 0.8750	58.2070
 0.8760	58.2170
 0.8770	58.2370
 0.8780	58.2380
 0.8790	58.2360
 0.8800	58.2430
 0.8810	58.2450
 0.8820	58.2490
 0.8830	58.2530
 0.8840	58.2530
 0.8850	58.2500
 0.8860	58.2550
 0.8870	58.2580
 0.8880	58.2520
 0.8890	58.2540
 0.8900	58.2480
 0.8910	58.2430
 0.8920	58.2540
 0.8930	58.2450
 0.8940	58.2320
 0.8950	58.2240
 0.8960	58.2230
 0.8970	58.2160
 0.8980	58.2180
 0.8990	58.2210
 0.9000	58.1960
 0.9010	58.1810
 0.9020	58.1730
 0.9030	58.1660
 0.9040	58.1580
 0.9050	58.1480
 0.9060	58.1360
 0.9070	58.1240
 0.9080	58.1130
 0.9090	58.1030
 0.9100	58.0940
 0.9110	58.0830
 0.9120	58.0630
 0.9130	58.0540
 0.9140	58.0480
 0.9150	58.0340
 0.9160	58.0330
 0.9170	58.0160
 0.9180	57.9910
 0.9190	57.9760
 0.9200	57.9550
 0.9210	57.9310
 0.9220	57.9030
 0.9230	57.8720
 0.9240	57.8460
 0.9250	57.8060
 0.9260	57.7540
 0.9270	57.7080
 0.9280	57.6570
 0.9290	57.6120
 0.9300	57.5700
 0.9310	57.5160
 0.9320	57.4400
 0.9330	57.3610
 0.9340	57.2890
 0.9350	57.2190
 0.9360	57.1580
 0.9370	57.0900
 0.9380	57.0050
 0.9390	56.9130
 0.9400	56.8240
 0.9410	56.7270
 0.9420	56.6210
 0.9430	56.5310
 0.9440	56.4260
 0.9450	56.3010
 0.9460	56.1650
 0.9470	56.0190
 0.9480	55.8720
 0.9490	55.7190
 0.9500	55.5520
 0.9510	55.3650
 0.9520	55.1800
 0.9530	54.9940
 0.9540	54.8030
 0.9550	54.6190
 0.9560	54.4420
 0.9570	54.2630
 0.9580	54.0770
 0.9590	53.9200
 0.9600	53.7470
 0.9610	53.5990
 0.9620	53.5150
 0.9630	53.4000
 0.9640	53.3070
 0.9650	53.2150
 0.9660	53.0990
 0.9670	53.0310
 0.9680	52.9790
 0.9690	52.9240
 0.9700	52.8610
 0.9710	52.8190
 0.9720	52.7780
 0.9730	52.7320
 0.9740	52.6890
 0.9750	52.6600
 0.9760	52.6480
 0.9770	52.6280
 0.9780	52.5810
 0.9790	52.5610
 0.9800	52.5730
 0.9810	52.5870
 0.9820	52.5700
 0.9830	52.5500
 0.9840	52.5690
 0.9850	52.6100
 0.9860	52.6310
 0.9870	52.6300
 0.9880	52.6710
 0.9890	52.7380
 0.9900	52.7840
 0.9910	52.8220
 0.9920	52.9370
 0.9930	53.0530
 0.9940	53.1680
 0.9950	53.2830
 0.9960	53.3990
 0.9970	53.5140
 0.9980	53.6290
 0.9990	53.7450
 1.0000	53.8600
 1.0010	53.9750
 1.0020	54.0910
 1.0030	54.2060
 1.0040	54.3210
 1.0050	54.4360
 1.0060	54.5520
 1.0070	54.6670
 1.0080	54.7820
 1.0090	54.8980
 1.0100	54.8980
 1.0110	54.9770
 1.0120	55.0570
 1.0130	55.1420
 1.0140	55.2220
 1.0150	55.2970
 1.0160	55.3780
 1.0170	55.4620
 1.0180	55.5410
 1.0190	55.6190
 1.0200	55.6950
 1.0210	55.7700
 1.0220	55.8490
 1.0230	55.9250
 1.0240	56.0050
 1.0250	56.0800
 1.0260	56.1470
 1.0270	56.2210
 1.0280	56.3010
 1.0290	56.3740
 1.0300	56.4460
 1.0310	56.5160
 1.0320	56.5800
 1.0330	56.6470
 1.0340	56.7190
 1.0350	56.7900
 1.0360	56.8580
 1.0370	56.9230
 1.0380	56.9870
 1.0390	57.0510
 1.0400	57.1090
 1.0410	57.1650
 1.0420	57.2230
 1.0430	57.2770
 1.0440	57.3320
 1.0450	57.3930
 1.0460	57.4440
 1.0470	57.4880
 1.0480	57.5350
 1.0490	57.5800
 1.0500	57.6240
 1.0510	57.6670
 1.0520	57.7120
 1.0530	57.7550
 1.0540	57.7950
 1.0550	57.8350
 1.0560	57.8750
 1.0570	57.9110
 1.0580	57.9430
 1.0590	57.9730
 1.0600	57.9980
 1.0610	58.0250
 1.0620	58.0540
 1.0630	58.0790
 1.0640	58.1070
 1.0650	58.1300
 1.0660	58.1470
 1.0670	58.1650
 1.0680	58.1820
 1.0690	58.1990
 1.0700	58.2110
 1.0710	58.2210
 1.0720	58.2280
 1.0730	58.2300
 1.0740	58.2350
 1.0750	58.2390
 1.0760	58.2430
 1.0770	58.2510
 1.0780	58.2510
 1.0790	58.2490
 1.0800	58.2440
 1.0810	58.2320
 1.0820	58.2210
 1.0830	58.2110
 1.0840	58.1980
 1.0850	58.1830
 1.0860	58.1680
 1.0870	58.1510
 1.0880	58.1320
 1.0890	58.1110
 1.0900	58.0910
 1.0910	58.0650
 1.0920	58.0350
 1.0930	58.0060
 1.0940	57.9740
 1.0950	57.9410
 1.0960	57.9060
 1.0970	57.8690
 1.0980	57.8270
 1.0990	57.7880
 1.1000	57.7510
 1.1010	57.7100
 1.1020	57.6690
 1.1030	57.6250
 1.1040	57.5810
 1.1050	57.5370
 1.1060	57.4920
 1.1070	57.4490
 1.1080	57.4020
 1.1090	57.3550
 1.1100	57.3010
 1.1110	57.2430
 1.1120	57.1840
 1.1130	57.1190
 1.1140	57.0530
 1.1150	56.9910
 1.1160	56.9180
 1.1170	56.8420
 1.1180	56.7570
 1.1190	56.6660
 1.1200	56.5670
 1.1210	56.4620
 1.1220	56.3470
 1.1230	56.2190
 1.1240	56.0820
 1.1250	55.9310
 1.1260	55.7700
 1.1270	55.5900
 1.1280	55.3980
 1.1290	55.1870
 1.1300	54.9620
 1.1310	54.7160
 1.1320	54.4550
 1.1330	54.1770
 1.1340	53.8800
 1.1350	53.5690
 1.1360	53.2410
 1.1370	52.9000
 1.1380	52.5460
 1.1390	52.1850
 1.1400	51.8170
 1.1410	51.4480
 1.1420	51.0760
 1.1430	50.7030
 1.1440	50.3350
 1.1450	49.9640
 1.1460	49.6070
 1.1470	49.2510
 1.1480	48.9150
 1.1490	48.5890
 1.1500	48.2840
 1.1510	47.9940
 1.1520	47.7220
 1.1530	47.4670
 1.1540	47.2290
 1.1550	47.0070
 1.1560	46.8030
 1.1570	46.6170
 1.1580	46.4490
 1.1590	46.2950
 1.1600	46.1540
 1.1610	46.0270
 1.1620	45.9100
 1.1630	45.8060
 1.1640	45.7110
 1.1650	45.6230
 1.1660	45.5460
 1.1670	45.4730
 1.1680	45.4080
 1.1690	45.3450
 1.1700	45.2880
 1.1710	45.2320
 1.1720	45.1820
 1.1730	45.1300
 1.1740	45.0790
 1.1750	45.0290
 1.1760	44.9770
 1.1770	44.9230
 1.1780	44.8670
 1.1790	44.8100
 1.1800	44.7510
 1.1810	44.6920
 1.1820	44.6380
 1.1830	44.5860
 1.1840	44.5310
 1.1850	44.4780
 1.1860	44.4260
 1.1870	44.3730
 1.1880	44.3260
 1.1890	44.2830
 1.1900	44.2410
 1.1910	44.1990
 1.1920	44.1650
 1.1930	44.1350
 1.1940	44.1100
 1.1950	44.0900
 1.1960	44.0750
 1.1970	44.0620
 1.1980	44.0530
 1.1990	44.0490
 1.2000	44.0480
 1.2010	44.0510
 1.2020	44.0580
 1.2030	44.0680
 1.2040	44.0820
 1.2050	44.1000
 1.2060	44.1210
 1.2070	44.1470
 1.2080	44.1770
 1.2090	44.2110
 1.2100	44.2480
 1.2110	44.2900
 1.2120	44.3370
 1.2130	44.3850
 1.2140	44.4360
 1.2150	44.4920
 1.2160	44.5510
 1.2170	44.6160
 1.2180	44.6830
 1.2190	44.7500
 1.2200	44.8190
 1.2210	44.8880
 1.2220	44.9570
 1.2230	45.0290
 1.2240	45.1010
 1.2250	45.1720
 1.2260	45.2440
 1.2270	45.3150
 1.2280	45.3830
 1.2290	45.4500
 1.2300	45.5150
 1.2310	45.5810
 1.2320	45.6460
 1.2330	45.7080
 1.2340	45.7690
 1.2350	45.8280
 1.2360	45.8860
 1.2370	45.9420
 1.2380	45.9970
 1.2390	46.0510
 1.2400	46.1020
 1.2410	46.1550
 1.2420	46.2070
 1.2430	46.2580
 1.2440	46.3080
 1.2450	46.3540
 1.2460	46.3980
 1.2470	46.4400
 1.2480	46.4800
 1.2490	46.5190
 1.2500	46.5540
 1.2510	46.5890
 1.2520	46.6230
 1.2530	46.6560
 1.2540	46.6890
 1.2550	46.7190
 1.2560	46.7460
 1.2570	46.7710
 1.2580	46.7940
 1.2590	46.8150
 1.2600	46.8350
 1.2610	46.8530
 1.2620	46.8700
 1.2630	46.8840
 1.2640	46.8950
 1.2650	46.9040
 1.2660	46.9110
 1.2670	46.9160
 1.2680	46.9210
 1.2690	46.9230
 1.2700	46.9220
 1.2710	46.9200
 1.2720	46.9140
 1.2730	46.9070
 1.2740	46.8960
 1.2750	46.8820
 1.2760	46.8670
 1.2770	46.8510
 1.2780	46.8320
 1.2790	46.8110
 1.2800	46.7870
 1.2810	46.7560
 1.2820	46.7250
 1.2830	46.6910
 1.2840	46.6540
 1.2850	46.6140
 1.2860	46.5690
 1.2870	46.5200
 1.2880	46.4670
 1.2890	46.4080
 1.2900	46.3470
 1.2910	46.2800
 1.2920	46.2060
 1.2930	46.1290
 1.2940	46.0470
 1.2950	45.9580
 1.2960	45.8670
 1.2970	45.7690
 1.2980	45.6650
 1.2990	45.5570
 1.3000	45.4460
 1.3010	45.3280
 1.3020	45.2080
 1.3030	45.0830
 1.3040	44.9470
 1.3050	44.8080
 1.3060	44.6620
 1.3070	44.5080
 1.3080	44.3530
 1.3090	44.1950
 1.3100	44.0330
 1.3110	43.8650
 1.3120	43.6880
 1.3130	43.5050
 1.3140	43.3170
 1.3150	43.1210
 1.3160	42.9240
 1.3170	42.7240
 1.3180	42.5190
 1.3190	42.3080
 1.3200	42.0920
 1.3210	41.8700
 1.3220	41.6450
 1.3230	41.4180
 1.3240	41.1860
 1.3250	40.9510
 1.3260	40.7140
 1.3270	40.4720
 1.3280	40.2320
 1.3290	39.9870
 1.3300	39.7400
 1.3310	39.4940
 1.3320	39.2450
 1.3330	38.9970
 1.3340	38.7510
 1.3350	38.5040
 1.3360	38.2590
 1.3370	38.0150
 1.3380	37.7730
 1.3390	37.5330
 1.3400	37.2960
 1.3410	37.0650
 1.3420	36.8390
 1.3430	36.6150
 1.3440	36.3950
 1.3450	36.1790
 1.3460	35.9660
 1.3470	35.7600
 1.3480	35.5590
 1.3490	35.3610
 1.3500	35.1690
 1.3510	34.9770
 1.3520	34.7870
 1.3530	34.6000
 1.3540	34.4130
 1.3550	34.2280
 1.3560	34.0450
 1.3570	33.8610
 1.3580	33.6770
 1.3590	33.4920
 1.3600	33.3040
 1.3610	33.1130
 1.3620	32.9170
 1.3630	32.7160
 1.3640	32.5080
 1.3650	32.2930
 1.3660	32.0730
 1.3670	31.8430
 1.3680	31.6020
 1.3690	31.3500
 1.3700	31.0830
 1.3710	30.8030
 1.3720	30.5070
 1.3730	30.1950
 1.3740	29.8700
 1.3750	29.5260
 1.3760	29.1630
 1.3770	28.7790
 1.3780	28.3700
 1.3790	27.9420
 1.3800	27.4960
 1.3810	27.0290
 1.3820	26.5490
 1.3830	26.0540
 1.3840	25.5470
 1.3850	25.0230
 1.3860	24.4940
 1.3870	23.9490
 1.3880	23.4090
 1.3890	22.8640
 1.3900	22.3190
 1.3910	21.7840
 1.3920	21.2500
 1.3930	20.7220
 1.3940	20.2050
 1.3950	19.6940
 1.3960	19.1970
 1.3970	18.7170
 1.3980	18.2520
 1.3990	17.8100
 1.4000	17.3840
 1.4010	16.9750
 1.4020	16.5890
 1.4030	16.2160
 1.4040	15.8630
 1.4050	15.5310
 1.4060	15.2160
 1.4070	14.9220
 1.4080	14.6470
 1.4090	14.3880
 1.4100	14.1450
 1.4110	13.9160
 1.4120	13.7030
 1.4130	13.5040
 1.4140	13.3190
 1.4150	13.1500
 1.4160	12.9920
 1.4170	12.8450
 1.4180	12.7080
 1.4190	12.5790
 1.4200	12.4600
 1.4210	12.3500
 1.4220	12.2470
 1.4230	12.1540
 1.4240	12.0670
 1.4250	11.9860
 1.4260	11.9130
 1.4270	11.8440
 1.4280	11.7820
 1.4290	11.7240
 1.4300	11.6720
 1.4310	11.6250
 1.4320	11.5840
 1.4330	11.5450
 1.4340	11.5090
 1.4350	11.4770
 1.4360	11.4480
 1.4370	11.4230
 1.4380	11.4020
 1.4390	11.3830
 1.4400	11.3660
 1.4410	11.3520
 1.4420	11.3400
 1.4430	11.3310
 1.4440	11.3240
 1.4450	11.3190
 1.4460	11.3150
 1.4470	11.3130
 1.4480	11.3120
 1.4490	11.3130
 1.4500	11.3160
 1.4510	11.3210
 1.4520	11.3270
 1.4530	11.3330
 1.4540	11.3390
 1.4550	11.3480
 1.4560	11.3580
 1.4570	11.3700
 1.4580	11.3850
 1.4590	11.4020
 1.4600	11.4200
 1.4610	11.4400
 1.4620	11.4630
 1.4630	11.4900
 1.4640	11.5180
 1.4650	11.5490
 1.4660	11.5840
 1.4670	11.6210
 1.4680	11.6620
 1.4690	11.7060
 1.4700	11.7520
