Name: Heteromeles arbutifolia 1
Type: vegetation
Class: Shrub
Genus: Heteromeles
Species: arbutifolia
Sample No.: VH134
Owner: UCSB
Wavelength Range: VSWIR
Origin: 34.4907; -119.791; WGS84
Collection Date: 6/3/2013
Description: Samples were collected as part of the HyspIRI Airborne Campaign. 48 individual plants were sampled in three times in 2013 - spring  summer  and fall. The name of the sample includes a 1  2  or 3 which references a different individual of the species. Samples were taken to JPL and processed within 48 hours of collection. The same leaves were processed in the Nicolet and then measured using the ASD.
Measurement: Bidirectional reflectance
First Column: X
Second Column: Y
X Units: Wavelength (micrometers)
Y Units: Reflectance (percentage)
First X Value: 0.35
Last X Value: 2.5
Number of X Values: 2151
Additional Information: vegetation.shrub.heteromeles.arbutifolia.vswir.vh134.ucsb.asd.ancillary.txt

 0.3500	 6.7570
 0.3510	 6.6680
 0.3520	 6.7690
 0.3530	 6.8210
 0.3540	 6.6480
 0.3550	 6.5220
 0.3560	 6.5380
 0.3570	 6.5980
 0.3580	 6.5410
 0.3590	 6.6230
 0.3600	 6.6040
 0.3610	 6.4270
 0.3620	 6.3370
 0.3630	 6.4800
 0.3640	 6.5830
 0.3650	 6.4310
 0.3660	 6.4590
 0.3670	 6.4600
 0.3680	 6.4000
 0.3690	 6.3760
 0.3700	 6.4240
 0.3710	 6.4780
 0.3720	 6.4880
 0.3730	 6.4640
 0.3740	 6.4580
 0.3750	 6.4250
 0.3760	 6.3350
 0.3770	 6.3750
 0.3780	 6.3970
 0.3790	 6.3650
 0.3800	 6.3550
 0.3810	 6.3450
 0.3820	 6.3280
 0.3830	 6.3120
 0.3840	 6.3320
 0.3850	 6.3230
 0.3860	 6.3030
 0.3870	 6.3130
 0.3880	 6.3110
 0.3890	 6.3040
 0.3900	 6.2960
 0.3910	 6.2870
 0.3920	 6.3130
 0.3930	 6.3190
 0.3940	 6.2850
 0.3950	 6.3430
 0.3960	 6.3180
 0.3970	 6.2400
 0.3980	 6.2250
 0.3990	 6.2350
 0.4000	 6.2450
 0.4010	 6.2350
 0.4020	 6.1950
 0.4030	 6.1930
 0.4040	 6.2040
 0.4050	 6.1970
 0.4060	 6.2010
 0.4070	 6.2080
 0.4080	 6.2130
 0.4090	 6.2120
 0.4100	 6.2440
 0.4110	 6.2500
 0.4120	 6.2140
 0.4130	 6.2050
 0.4140	 6.2290
 0.4150	 6.2610
 0.4160	 6.2730
 0.4170	 6.2960
 0.4180	 6.3320
 0.4190	 6.3650
 0.4200	 6.3670
 0.4210	 6.3770
 0.4220	 6.4050
 0.4230	 6.4440
 0.4240	 6.4710
 0.4250	 6.4850
 0.4260	 6.4950
 0.4270	 6.5170
 0.4280	 6.5630
 0.4290	 6.5970
 0.4300	 6.6060
 0.4310	 6.6120
 0.4320	 6.6410
 0.4330	 6.6710
 0.4340	 6.6800
 0.4350	 6.6950
 0.4360	 6.7010
 0.4370	 6.7070
 0.4380	 6.7320
 0.4390	 6.7450
 0.4400	 6.7530
 0.4410	 6.7690
 0.4420	 6.7950
 0.4430	 6.8110
 0.4440	 6.8210
 0.4450	 6.8350
 0.4460	 6.8390
 0.4470	 6.8530
 0.4480	 6.8760
 0.4490	 6.8820
 0.4500	 6.8930
 0.4510	 6.9010
 0.4520	 6.8990
 0.4530	 6.9210
 0.4540	 6.9340
 0.4550	 6.9350
 0.4560	 6.9340
 0.4570	 6.9430
 0.4580	 6.9560
 0.4590	 6.9640
 0.4600	 6.9610
 0.4610	 6.9620
 0.4620	 6.9650
 0.4630	 6.9620
 0.4640	 6.9590
 0.4650	 6.9560
 0.4660	 6.9580
 0.4670	 6.9680
 0.4680	 6.9680
 0.4690	 6.9620
 0.4700	 6.9590
 0.4710	 6.9550
 0.4720	 6.9530
 0.4730	 6.9550
 0.4740	 6.9600
 0.4750	 6.9590
 0.4760	 6.9580
 0.4770	 6.9590
 0.4780	 6.9500
 0.4790	 6.9490
 0.4800	 6.9560
 0.4810	 6.9640
 0.4820	 6.9650
 0.4830	 6.9700
 0.4840	 6.9780
 0.4850	 6.9780
 0.4860	 6.9860
 0.4870	 6.9930
 0.4880	 6.9950
 0.4890	 7.0040
 0.4900	 7.0120
 0.4910	 7.0210
 0.4920	 7.0320
 0.4930	 7.0420
 0.4940	 7.0570
 0.4950	 7.0770
 0.4960	 7.0890
 0.4970	 7.1150
 0.4980	 7.1460
 0.4990	 7.1670
 0.5000	 7.1860
 0.5010	 7.2110
 0.5020	 7.2490
 0.5030	 7.2980
 0.5040	 7.3350
 0.5050	 7.3790
 0.5060	 7.4410
 0.5070	 7.4910
 0.5080	 7.5490
 0.5090	 7.6170
 0.5100	 7.6910
 0.5110	 7.7750
 0.5120	 7.8630
 0.5130	 7.9540
 0.5140	 8.0580
 0.5150	 8.1690
 0.5160	 8.2890
 0.5170	 8.4210
 0.5180	 8.5640
 0.5190	 8.7130
 0.5200	 8.8660
 0.5210	 9.0200
 0.5220	 9.1840
 0.5230	 9.3520
 0.5240	 9.5190
 0.5250	 9.6850
 0.5260	 9.8460
 0.5270	10.0000
 0.5280	10.1520
 0.5290	10.2910
 0.5300	10.4220
 0.5310	10.5460
 0.5320	10.6680
 0.5330	10.7820
 0.5340	10.8790
 0.5350	10.9580
 0.5360	11.0410
 0.5370	11.1180
 0.5380	11.1870
 0.5390	11.2500
 0.5400	11.3060
 0.5410	11.3620
 0.5420	11.4190
 0.5430	11.4670
 0.5440	11.5100
 0.5450	11.5540
 0.5460	11.6040
 0.5470	11.6410
 0.5480	11.6740
 0.5490	11.7040
 0.5500	11.7310
 0.5510	11.7540
 0.5520	11.7670
 0.5530	11.7700
 0.5540	11.7600
 0.5550	11.7380
 0.5560	11.7050
 0.5570	11.6630
 0.5580	11.6120
 0.5590	11.5520
 0.5600	11.4810
 0.5610	11.3980
 0.5620	11.3070
 0.5630	11.2090
 0.5640	11.1070
 0.5650	11.0060
 0.5660	10.9000
 0.5670	10.7870
 0.5680	10.6730
 0.5690	10.5560
 0.5700	10.4400
 0.5710	10.3270
 0.5720	10.2130
 0.5730	10.1050
 0.5740	10.0050
 0.5750	 9.9100
 0.5760	 9.8180
 0.5770	 9.7310
 0.5780	 9.6510
 0.5790	 9.5830
 0.5800	 9.5150
 0.5810	 9.4510
 0.5820	 9.3970
 0.5830	 9.3440
 0.5840	 9.2940
 0.5850	 9.2480
 0.5860	 9.2050
 0.5870	 9.1660
 0.5880	 9.1300
 0.5890	 9.0950
 0.5900	 9.0620
 0.5910	 9.0350
 0.5920	 9.0110
 0.5930	 8.9860
 0.5940	 8.9660
 0.5950	 8.9460
 0.5960	 8.9270
 0.5970	 8.9160
 0.5980	 8.9000
 0.5990	 8.8790
 0.6000	 8.8580
 0.6010	 8.8370
 0.6020	 8.8130
 0.6030	 8.7850
 0.6040	 8.7540
 0.6050	 8.7170
 0.6060	 8.6790
 0.6070	 8.6390
 0.6080	 8.5900
 0.6090	 8.5420
 0.6100	 8.4950
 0.6110	 8.4470
 0.6120	 8.4010
 0.6130	 8.3550
 0.6140	 8.3110
 0.6150	 8.2690
 0.6160	 8.2270
 0.6170	 8.1860
 0.6180	 8.1480
 0.6190	 8.1190
 0.6200	 8.0890
 0.6210	 8.0590
 0.6220	 8.0380
 0.6230	 8.0200
 0.6240	 8.0030
 0.6250	 7.9870
 0.6260	 7.9780
 0.6270	 7.9690
 0.6280	 7.9580
 0.6290	 7.9490
 0.6300	 7.9420
 0.6310	 7.9360
 0.6320	 7.9290
 0.6330	 7.9160
 0.6340	 7.9010
 0.6350	 7.8830
 0.6360	 7.8620
 0.6370	 7.8360
 0.6380	 7.8030
 0.6390	 7.7640
 0.6400	 7.7270
 0.6410	 7.6840
 0.6420	 7.6420
 0.6430	 7.6010
 0.6440	 7.5590
 0.6450	 7.5160
 0.6460	 7.4740
 0.6470	 7.4330
 0.6480	 7.3980
 0.6490	 7.3650
 0.6500	 7.3340
 0.6510	 7.3090
 0.6520	 7.2860
 0.6530	 7.2640
 0.6540	 7.2430
 0.6550	 7.2270
 0.6560	 7.2030
 0.6570	 7.1730
 0.6580	 7.1450
 0.6590	 7.1190
 0.6600	 7.0900
 0.6610	 7.0580
 0.6620	 7.0320
 0.6630	 7.0030
 0.6640	 6.9780
 0.6650	 6.9610
 0.6660	 6.9420
 0.6670	 6.9280
 0.6680	 6.9190
 0.6690	 6.9130
 0.6700	 6.9080
 0.6710	 6.9080
 0.6720	 6.9140
 0.6730	 6.9230
 0.6740	 6.9340
 0.6750	 6.9450
 0.6760	 6.9580
 0.6770	 6.9810
 0.6780	 7.0030
 0.6790	 7.0250
 0.6800	 7.0510
 0.6810	 7.0820
 0.6820	 7.1190
 0.6830	 7.1640
 0.6840	 7.2120
 0.6850	 7.2680
 0.6860	 7.3330
 0.6870	 7.4110
 0.6880	 7.5030
 0.6890	 7.6160
 0.6900	 7.7550
 0.6910	 7.9210
 0.6920	 8.1250
 0.6930	 8.3720
 0.6940	 8.6700
 0.6950	 9.0250
 0.6960	 9.4420
 0.6970	 9.9210
 0.6980	10.4660
 0.6990	11.0810
 0.7000	11.7590
 0.7010	12.4960
 0.7020	13.2900
 0.7030	14.1340
 0.7040	15.0210
 0.7050	15.9420
 0.7060	16.8960
 0.7070	17.8760
 0.7080	18.8770
 0.7090	19.8970
 0.7100	20.9340
 0.7110	21.9840
 0.7120	23.0480
 0.7130	24.1230
 0.7140	25.1970
 0.7150	26.2730
 0.7160	27.3500
 0.7170	28.4260
 0.7180	29.4930
 0.7190	30.5510
 0.7200	31.6000
 0.7210	32.6330
 0.7220	33.6510
 0.7230	34.6510
 0.7240	35.6210
 0.7250	36.5630
 0.7260	37.4760
 0.7270	38.3570
 0.7280	39.2050
 0.7290	40.0200
 0.7300	40.7990
 0.7310	41.5410
 0.7320	42.2510
 0.7330	42.9250
 0.7340	43.5610
 0.7350	44.1660
 0.7360	44.7360
 0.7370	45.2740
 0.7380	45.7830
 0.7390	46.2590
 0.7400	46.7130
 0.7410	47.1380
 0.7420	47.5280
 0.7430	47.8900
 0.7440	48.2330
 0.7450	48.5570
 0.7460	48.8510
 0.7470	49.1210
 0.7480	49.3740
 0.7490	49.6100
 0.7500	49.8210
 0.7510	50.0230
 0.7520	50.2070
 0.7530	50.3620
 0.7540	50.5150
 0.7550	50.6550
 0.7560	50.7800
 0.7570	50.8930
 0.7580	51.0040
 0.7590	51.1030
 0.7600	51.1870
 0.7610	51.2670
 0.7620	51.3460
 0.7630	51.4160
 0.7640	51.4700
 0.7650	51.5270
 0.7660	51.5790
 0.7670	51.6260
 0.7680	51.6690
 0.7690	51.7150
 0.7700	51.7530
 0.7710	51.7840
 0.7720	51.8270
 0.7730	51.8600
 0.7740	51.8870
 0.7750	51.9140
 0.7760	51.9360
 0.7770	51.9590
 0.7780	51.9840
 0.7790	52.0120
 0.7800	52.0320
 0.7810	52.0510
 0.7820	52.0720
 0.7830	52.0990
 0.7840	52.1210
 0.7850	52.1390
 0.7860	52.1560
 0.7870	52.1690
 0.7880	52.1870
 0.7890	52.2050
 0.7900	52.2170
 0.7910	52.2380
 0.7920	52.2500
 0.7930	52.2600
 0.7940	52.2820
 0.7950	52.2920
 0.7960	52.2990
 0.7970	52.3090
 0.7980	52.3170
 0.7990	52.3190
 0.8000	52.3260
 0.8010	52.3400
 0.8020	52.3460
 0.8030	52.3460
 0.8040	52.3440
 0.8050	52.3460
 0.8060	52.3510
 0.8070	52.3550
 0.8080	52.3600
 0.8090	52.3690
 0.8100	52.3710
 0.8110	52.3670
 0.8120	52.3590
 0.8130	52.3490
 0.8140	52.3470
 0.8150	52.3450
 0.8160	52.3360
 0.8170	52.3380
 0.8180	52.3330
 0.8190	52.3290
 0.8200	52.3380
 0.8210	52.3300
 0.8220	52.3230
 0.8230	52.3210
 0.8240	52.3130
 0.8250	52.3010
 0.8260	52.2910
 0.8270	52.2840
 0.8280	52.2690
 0.8290	52.2670
 0.8300	52.2690
 0.8310	52.2630
 0.8320	52.2510
 0.8330	52.2390
 0.8340	52.2310
 0.8350	52.2270
 0.8360	52.2270
 0.8370	52.2220
 0.8380	52.2120
 0.8390	52.2090
 0.8400	52.2050
 0.8410	52.2060
 0.8420	52.2140
 0.8430	52.2290
 0.8440	52.2210
 0.8450	52.2060
 0.8460	52.2030
 0.8470	52.2080
 0.8480	52.2080
 0.8490	52.2050
 0.8500	52.2110
 0.8510	52.2170
 0.8520	52.2220
 0.8530	52.2260
 0.8540	52.2270
 0.8550	52.2220
 0.8560	52.2180
 0.8570	52.2200
 0.8580	52.2350
 0.8590	52.2420
 0.8600	52.2380
 0.8610	52.2290
 0.8620	52.2350
 0.8630	52.2440
 0.8640	52.2530
 0.8650	52.2590
 0.8660	52.2540
 0.8670	52.2570
 0.8680	52.2670
 0.8690	52.2750
 0.8700	52.2790
 0.8710	52.2820
 0.8720	52.2840
 0.8730	52.2910
 0.8740	52.2960
 0.8750	52.3030
 0.8760	52.3100
 0.8770	52.3130
 0.8780	52.3200
 0.8790	52.3300
 0.8800	52.3380
 0.8810	52.3430
 0.8820	52.3520
 0.8830	52.3600
 0.8840	52.3640
 0.8850	52.3690
 0.8860	52.3780
 0.8870	52.3830
 0.8880	52.3830
 0.8890	52.3940
 0.8900	52.3990
 0.8910	52.4000
 0.8920	52.4060
 0.8930	52.4070
 0.8940	52.4110
 0.8950	52.4180
 0.8960	52.4190
 0.8970	52.4210
 0.8980	52.4240
 0.8990	52.4270
 0.9000	52.4300
 0.9010	52.4400
 0.9020	52.4430
 0.9030	52.4360
 0.9040	52.4340
 0.9050	52.4460
 0.9060	52.4590
 0.9070	52.4680
 0.9080	52.4790
 0.9090	52.4770
 0.9100	52.4710
 0.9110	52.4730
 0.9120	52.4840
 0.9130	52.4880
 0.9140	52.4900
 0.9150	52.4970
 0.9160	52.4960
 0.9170	52.4880
 0.9180	52.4800
 0.9190	52.4780
 0.9200	52.4800
 0.9210	52.4880
 0.9220	52.4890
 0.9230	52.4730
 0.9240	52.4640
 0.9250	52.4580
 0.9260	52.4480
 0.9270	52.4330
 0.9280	52.4310
 0.9290	52.4200
 0.9300	52.3990
 0.9310	52.3870
 0.9320	52.3660
 0.9330	52.3480
 0.9340	52.3350
 0.9350	52.3140
 0.9360	52.2910
 0.9370	52.2680
 0.9380	52.2460
 0.9390	52.2280
 0.9400	52.1920
 0.9410	52.1510
 0.9420	52.1180
 0.9430	52.0910
 0.9440	52.0530
 0.9450	52.0110
 0.9460	51.9710
 0.9470	51.9270
 0.9480	51.8750
 0.9490	51.8160
 0.9500	51.7540
 0.9510	51.7040
 0.9520	51.6380
 0.9530	51.5650
 0.9540	51.4960
 0.9550	51.4100
 0.9560	51.3370
 0.9570	51.2780
 0.9580	51.2190
 0.9590	51.1410
 0.9600	51.0710
 0.9610	51.0260
 0.9620	51.0000
 0.9630	50.9440
 0.9640	50.9040
 0.9650	50.8760
 0.9660	50.8390
 0.9670	50.8030
 0.9680	50.7670
 0.9690	50.7370
 0.9700	50.7200
 0.9710	50.7050
 0.9720	50.6920
 0.9730	50.6760
 0.9740	50.6570
 0.9750	50.6470
 0.9760	50.6400
 0.9770	50.6440
 0.9780	50.6600
 0.9790	50.6570
 0.9800	50.6360
 0.9810	50.6230
 0.9820	50.6440
 0.9830	50.6610
 0.9840	50.6660
 0.9850	50.6690
 0.9860	50.6830
 0.9870	50.6880
 0.9880	50.7010
 0.9890	50.7200
 0.9900	50.7370
 0.9910	50.7600
 0.9920	50.8450
 0.9930	50.9310
 0.9940	51.0160
 0.9950	51.1010
 0.9960	51.1860
 0.9970	51.2720
 0.9980	51.3570
 0.9990	51.4420
 1.0000	51.5270
 1.0010	51.6130
 1.0020	51.6980
 1.0030	51.7830
 1.0040	51.8680
 1.0050	51.9540
 1.0060	52.0390
 1.0070	52.1240
 1.0080	52.2100
 1.0090	52.2950
 1.0100	52.2950
 1.0110	52.3210
 1.0120	52.3460
 1.0130	52.3680
 1.0140	52.3920
 1.0150	52.4140
 1.0160	52.4440
 1.0170	52.4680
 1.0180	52.4910
 1.0190	52.5140
 1.0200	52.5310
 1.0210	52.5520
 1.0220	52.5800
 1.0230	52.6050
 1.0240	52.6320
 1.0250	52.6540
 1.0260	52.6720
 1.0270	52.6910
 1.0280	52.7110
 1.0290	52.7290
 1.0300	52.7470
 1.0310	52.7670
 1.0320	52.7870
 1.0330	52.8070
 1.0340	52.8290
 1.0350	52.8440
 1.0360	52.8580
 1.0370	52.8750
 1.0380	52.8920
 1.0390	52.9090
 1.0400	52.9270
 1.0410	52.9450
 1.0420	52.9610
 1.0430	52.9800
 1.0440	52.9940
 1.0450	53.0030
 1.0460	53.0150
 1.0470	53.0250
 1.0480	53.0380
 1.0490	53.0580
 1.0500	53.0710
 1.0510	53.0820
 1.0520	53.0910
 1.0530	53.0980
 1.0540	53.1000
 1.0550	53.1090
 1.0560	53.1220
 1.0570	53.1320
 1.0580	53.1440
 1.0590	53.1530
 1.0600	53.1610
 1.0610	53.1680
 1.0620	53.1720
 1.0630	53.1770
 1.0640	53.1780
 1.0650	53.1820
 1.0660	53.1910
 1.0670	53.1950
 1.0680	53.1970
 1.0690	53.2000
 1.0700	53.1980
 1.0710	53.1920
 1.0720	53.1890
 1.0730	53.1860
 1.0740	53.1840
 1.0750	53.1840
 1.0760	53.1830
 1.0770	53.1830
 1.0780	53.1820
 1.0790	53.1800
 1.0800	53.1770
 1.0810	53.1730
 1.0820	53.1680
 1.0830	53.1630
 1.0840	53.1570
 1.0850	53.1500
 1.0860	53.1460
 1.0870	53.1380
 1.0880	53.1300
 1.0890	53.1210
 1.0900	53.1090
 1.0910	53.0990
 1.0920	53.0910
 1.0930	53.0800
 1.0940	53.0700
 1.0950	53.0590
 1.0960	53.0450
 1.0970	53.0310
 1.0980	53.0180
 1.0990	53.0030
 1.1000	52.9880
 1.1010	52.9730
 1.1020	52.9560
 1.1030	52.9420
 1.1040	52.9280
 1.1050	52.9120
 1.1060	52.8950
 1.1070	52.8790
 1.1080	52.8610
 1.1090	52.8450
 1.1100	52.8240
 1.1110	52.8010
 1.1120	52.7780
 1.1130	52.7500
 1.1140	52.7230
 1.1150	52.6980
 1.1160	52.6690
 1.1170	52.6370
 1.1180	52.6020
 1.1190	52.5660
 1.1200	52.5260
 1.1210	52.4810
 1.1220	52.4360
 1.1230	52.3880
 1.1240	52.3350
 1.1250	52.2750
 1.1260	52.2120
 1.1270	52.1380
 1.1280	52.0550
 1.1290	51.9680
 1.1300	51.8790
 1.1310	51.7780
 1.1320	51.6700
 1.1330	51.5560
 1.1340	51.4330
 1.1350	51.3040
 1.1360	51.1690
 1.1370	51.0290
 1.1380	50.8810
 1.1390	50.7280
 1.1400	50.5710
 1.1410	50.4150
 1.1420	50.2560
 1.1430	50.0920
 1.1440	49.9290
 1.1450	49.7630
 1.1460	49.6020
 1.1470	49.4390
 1.1480	49.2860
 1.1490	49.1380
 1.1500	48.9980
 1.1510	48.8620
 1.1520	48.7350
 1.1530	48.6130
 1.1540	48.5010
 1.1550	48.3960
 1.1560	48.3010
 1.1570	48.2160
 1.1580	48.1400
 1.1590	48.0740
 1.1600	48.0150
 1.1610	47.9620
 1.1620	47.9130
 1.1630	47.8710
 1.1640	47.8310
 1.1650	47.7950
 1.1660	47.7640
 1.1670	47.7350
 1.1680	47.7080
 1.1690	47.6840
 1.1700	47.6620
 1.1710	47.6420
 1.1720	47.6270
 1.1730	47.6080
 1.1740	47.5920
 1.1750	47.5730
 1.1760	47.5520
 1.1770	47.5290
 1.1780	47.5060
 1.1790	47.4830
 1.1800	47.4570
 1.1810	47.4320
 1.1820	47.4090
 1.1830	47.3850
 1.1840	47.3630
 1.1850	47.3400
 1.1860	47.3170
 1.1870	47.2960
 1.1880	47.2770
 1.1890	47.2600
 1.1900	47.2450
 1.1910	47.2300
 1.1920	47.2160
 1.1930	47.2020
 1.1940	47.1920
 1.1950	47.1840
 1.1960	47.1780
 1.1970	47.1760
 1.1980	47.1780
 1.1990	47.1790
 1.2000	47.1810
 1.2010	47.1890
 1.2020	47.1990
 1.2030	47.2130
 1.2040	47.2310
 1.2050	47.2490
 1.2060	47.2680
 1.2070	47.2910
 1.2080	47.3170
 1.2090	47.3460
 1.2100	47.3760
 1.2110	47.4070
 1.2120	47.4400
 1.2130	47.4750
 1.2140	47.5110
 1.2150	47.5490
 1.2160	47.5910
 1.2170	47.6320
 1.2180	47.6750
 1.2190	47.7180
 1.2200	47.7580
 1.2210	47.7980
 1.2220	47.8370
 1.2230	47.8760
 1.2240	47.9180
 1.2250	47.9580
 1.2260	47.9970
 1.2270	48.0360
 1.2280	48.0710
 1.2290	48.1070
 1.2300	48.1420
 1.2310	48.1750
 1.2320	48.2070
 1.2330	48.2390
 1.2340	48.2670
 1.2350	48.2940
 1.2360	48.3210
 1.2370	48.3450
 1.2380	48.3690
 1.2390	48.3950
 1.2400	48.4210
 1.2410	48.4470
 1.2420	48.4710
 1.2430	48.4940
 1.2440	48.5150
 1.2450	48.5360
 1.2460	48.5580
 1.2470	48.5770
 1.2480	48.5950
 1.2490	48.6120
 1.2500	48.6280
 1.2510	48.6430
 1.2520	48.6590
 1.2530	48.6720
 1.2540	48.6800
 1.2550	48.6900
 1.2560	48.7010
 1.2570	48.7090
 1.2580	48.7180
 1.2590	48.7260
 1.2600	48.7320
 1.2610	48.7360
 1.2620	48.7390
 1.2630	48.7430
 1.2640	48.7460
 1.2650	48.7480
 1.2660	48.7480
 1.2670	48.7470
 1.2680	48.7440
 1.2690	48.7420
 1.2700	48.7400
 1.2710	48.7370
 1.2720	48.7330
 1.2730	48.7260
 1.2740	48.7170
 1.2750	48.7080
 1.2760	48.6950
 1.2770	48.6830
 1.2780	48.6690
 1.2790	48.6520
 1.2800	48.6380
 1.2810	48.6210
 1.2820	48.6030
 1.2830	48.5820
 1.2840	48.5580
 1.2850	48.5340
 1.2860	48.5070
 1.2870	48.4770
 1.2880	48.4460
 1.2890	48.4140
 1.2900	48.3770
 1.2910	48.3390
 1.2920	48.3000
 1.2930	48.2570
 1.2940	48.2100
 1.2950	48.1610
 1.2960	48.1070
 1.2970	48.0510
 1.2980	47.9950
 1.2990	47.9350
 1.3000	47.8730
 1.3010	47.8100
 1.3020	47.7430
 1.3030	47.6720
 1.3040	47.5970
 1.3050	47.5190
 1.3060	47.4360
 1.3070	47.3520
 1.3080	47.2630
 1.3090	47.1720
 1.3100	47.0800
 1.3110	46.9830
 1.3120	46.8820
 1.3130	46.7780
 1.3140	46.6700
 1.3150	46.5550
 1.3160	46.4390
 1.3170	46.3240
 1.3180	46.2010
 1.3190	46.0780
 1.3200	45.9500
 1.3210	45.8130
 1.3220	45.6770
 1.3230	45.5350
 1.3240	45.3870
 1.3250	45.2420
 1.3260	45.0910
 1.3270	44.9370
 1.3280	44.7820
 1.3290	44.6220
 1.3300	44.4600
 1.3310	44.2970
 1.3320	44.1290
 1.3330	43.9610
 1.3340	43.7940
 1.3350	43.6220
 1.3360	43.4490
 1.3370	43.2780
 1.3380	43.1040
 1.3390	42.9300
 1.3400	42.7580
 1.3410	42.5880
 1.3420	42.4180
 1.3430	42.2520
 1.3440	42.0850
 1.3450	41.9180
 1.3460	41.7500
 1.3470	41.5870
 1.3480	41.4250
 1.3490	41.2650
 1.3500	41.1090
 1.3510	40.9520
 1.3520	40.7930
 1.3530	40.6370
 1.3540	40.4800
 1.3550	40.3230
 1.3560	40.1660
 1.3570	40.0070
 1.3580	39.8480
 1.3590	39.6860
 1.3600	39.5200
 1.3610	39.3510
 1.3620	39.1740
 1.3630	38.9930
 1.3640	38.8050
 1.3650	38.6090
 1.3660	38.4070
 1.3670	38.1940
 1.3680	37.9710
 1.3690	37.7380
 1.3700	37.4860
 1.3710	37.2210
 1.3720	36.9400
 1.3730	36.6390
 1.3740	36.3240
 1.3750	35.9900
 1.3760	35.6310
 1.3770	35.2510
 1.3780	34.8420
 1.3790	34.4090
 1.3800	33.9550
 1.3810	33.4720
 1.3820	32.9700
 1.3830	32.4470
 1.3840	31.9040
 1.3850	31.3390
 1.3860	30.7620
 1.3870	30.1630
 1.3880	29.5620
 1.3890	28.9490
 1.3900	28.3260
 1.3910	27.7050
 1.3920	27.0800
 1.3930	26.4500
 1.3940	25.8280
 1.3950	25.2060
 1.3960	24.5930
 1.3970	23.9950
 1.3980	23.4080
 1.3990	22.8440
 1.4000	22.2990
 1.4010	21.7680
 1.4020	21.2620
 1.4030	20.7740
 1.4040	20.3080
 1.4050	19.8680
 1.4060	19.4520
 1.4070	19.0640
 1.4080	18.6970
 1.4090	18.3540
 1.4100	18.0360
 1.4110	17.7370
 1.4120	17.4600
 1.4130	17.2040
 1.4140	16.9660
 1.4150	16.7500
 1.4160	16.5520
 1.4170	16.3700
 1.4180	16.2050
 1.4190	16.0520
 1.4200	15.9140
 1.4210	15.7870
 1.4220	15.6720
 1.4230	15.5700
 1.4240	15.4770
 1.4250	15.3940
 1.4260	15.3210
 1.4270	15.2550
 1.4280	15.1980
 1.4290	15.1470
 1.4300	15.1050
 1.4310	15.0660
 1.4320	15.0340
 1.4330	15.0070
 1.4340	14.9860
 1.4350	14.9690
 1.4360	14.9560
 1.4370	14.9500
 1.4380	14.9460
 1.4390	14.9460
 1.4400	14.9510
 1.4410	14.9570
 1.4420	14.9660
 1.4430	14.9770
 1.4440	14.9900
 1.4450	15.0050
 1.4460	15.0230
 1.4470	15.0420
 1.4480	15.0640
 1.4490	15.0860
 1.4500	15.1090
 1.4510	15.1340
 1.4520	15.1600
 1.4530	15.1870
 1.4540	15.2150
 1.4550	15.2460
 1.4560	15.2770
 1.4570	15.3110
 1.4580	15.3470
 1.4590	15.3860
 1.4600	15.4300
 1.4610	15.4770
 1.4620	15.5280
 1.4630	15.5840
 1.4640	15.6440
 1.4650	15.7070
 1.4660	15.7770
 1.4670	15.8510
 1.4680	15.9300
 1.4690	16.0130
