Name: Salvia leucophylla 3
Type: vegetation
Class: Shrub
Genus: Salvia
Species: leucophylla
Sample No.: VH096
Owner: UCSB
Wavelength Range: VSWIR
Origin: 34.698; -120.0477; WGS84
Collection Date: 4/21/2013
Description: Samples were collected as part of the HyspIRI Airborne Campaign. 48 individual plants were sampled in three times in 2013 - spring  summer  and fall. The name of the sample includes a 1  2  or 3 which references a different individual of the species. Samples were taken to JPL and processed within 48 hours of collection. The same leaves were processed in the Nicolet and then measured using the ASD.
Measurement: Bidirectional reflectance
First Column: X
Second Column: Y
X Units: Wavelength (micrometers)
Y Units: Reflectance (percentage)
First X Value: 0.35
Last X Value: 2.5
Number of X Values: 2151
Additional Information: vegetation.shrub.salvia.leucophylla.vswir.vh096.ucsb.asd.ancillary.txt

 0.3500	 3.3310
 0.3510	 3.2140
 0.3520	 3.1100
 0.3530	 3.1090
 0.3540	 3.2450
 0.3550	 3.2610
 0.3560	 3.3230
 0.3570	 3.3820
 0.3580	 3.3140
 0.3590	 3.3740
 0.3600	 3.4840
 0.3610	 3.5610
 0.3620	 3.5670
 0.3630	 3.5690
 0.3640	 3.6850
 0.3650	 3.9210
 0.3660	 3.8510
 0.3670	 3.8270
 0.3680	 3.9180
 0.3690	 3.9870
 0.3700	 4.0890
 0.3710	 4.2370
 0.3720	 4.3950
 0.3730	 4.4450
 0.3740	 4.4140
 0.3750	 4.4670
 0.3760	 4.7230
 0.3770	 4.8950
 0.3780	 5.0110
 0.3790	 5.1340
 0.3800	 5.3350
 0.3810	 5.5520
 0.3820	 5.7530
 0.3830	 5.9270
 0.3840	 6.0940
 0.3850	 6.2560
 0.3860	 6.4440
 0.3870	 6.6810
 0.3880	 6.9010
 0.3890	 7.0840
 0.3900	 7.2590
 0.3910	 7.5000
 0.3920	 7.7380
 0.3930	 7.9720
 0.3940	 8.2010
 0.3950	 8.3920
 0.3960	 8.5610
 0.3970	 8.7190
 0.3980	 8.8790
 0.3990	 9.1060
 0.4000	 9.3050
 0.4010	 9.4590
 0.4020	 9.6660
 0.4030	 9.8850
 0.4040	10.0670
 0.4050	10.1940
 0.4060	10.3330
 0.4070	10.4970
 0.4080	10.6670
 0.4090	10.8090
 0.4100	10.9700
 0.4110	11.1070
 0.4120	11.2200
 0.4130	11.4120
 0.4140	11.5820
 0.4150	11.7220
 0.4160	11.8550
 0.4170	11.9810
 0.4180	12.1110
 0.4190	12.2460
 0.4200	12.3790
 0.4210	12.5090
 0.4220	12.6450
 0.4230	12.7890
 0.4240	12.9040
 0.4250	13.0120
 0.4260	13.1130
 0.4270	13.2080
 0.4280	13.3160
 0.4290	13.4240
 0.4300	13.5260
 0.4310	13.6220
 0.4320	13.7270
 0.4330	13.8270
 0.4340	13.9100
 0.4350	13.9940
 0.4360	14.0710
 0.4370	14.1350
 0.4380	14.1860
 0.4390	14.2310
 0.4400	14.2830
 0.4410	14.3460
 0.4420	14.4110
 0.4430	14.4530
 0.4440	14.4840
 0.4450	14.5290
 0.4460	14.5860
 0.4470	14.6470
 0.4480	14.7030
 0.4490	14.7420
 0.4500	14.7780
 0.4510	14.8210
 0.4520	14.8700
 0.4530	14.9090
 0.4540	14.9430
 0.4550	14.9750
 0.4560	15.0030
 0.4570	15.0310
 0.4580	15.0640
 0.4590	15.0960
 0.4600	15.1080
 0.4610	15.1290
 0.4620	15.1570
 0.4630	15.1820
 0.4640	15.2010
 0.4650	15.2200
 0.4660	15.2400
 0.4670	15.2580
 0.4680	15.2770
 0.4690	15.2950
 0.4700	15.3100
 0.4710	15.3330
 0.4720	15.3510
 0.4730	15.3660
 0.4740	15.3830
 0.4750	15.3960
 0.4760	15.4040
 0.4770	15.4110
 0.4780	15.4160
 0.4790	15.4400
 0.4800	15.4680
 0.4810	15.4800
 0.4820	15.4840
 0.4830	15.4920
 0.4840	15.5100
 0.4850	15.5400
 0.4860	15.5620
 0.4870	15.5810
 0.4880	15.6000
 0.4890	15.6100
 0.4900	15.6250
 0.4910	15.6510
 0.4920	15.6820
 0.4930	15.7010
 0.4940	15.7210
 0.4950	15.7480
 0.4960	15.7710
 0.4970	15.7910
 0.4980	15.8100
 0.4990	15.8340
 0.5000	15.8760
 0.5010	15.9110
 0.5020	15.9410
 0.5030	15.9850
 0.5040	16.0250
 0.5050	16.0670
 0.5060	16.1160
 0.5070	16.1730
 0.5080	16.2260
 0.5090	16.2770
 0.5100	16.3330
 0.5110	16.3960
 0.5120	16.4700
 0.5130	16.5520
 0.5140	16.6300
 0.5150	16.7140
 0.5160	16.7980
 0.5170	16.8800
 0.5180	16.9790
 0.5190	17.0800
 0.5200	17.1810
 0.5210	17.2840
 0.5220	17.3950
 0.5230	17.5020
 0.5240	17.6020
 0.5250	17.7020
 0.5260	17.8030
 0.5270	17.9010
 0.5280	17.9920
 0.5290	18.0810
 0.5300	18.1700
 0.5310	18.2580
 0.5320	18.3390
 0.5330	18.4110
 0.5340	18.4780
 0.5350	18.5430
 0.5360	18.6080
 0.5370	18.6680
 0.5380	18.7270
 0.5390	18.7890
 0.5400	18.8530
 0.5410	18.9240
 0.5420	19.0000
 0.5430	19.0700
 0.5440	19.1260
 0.5450	19.1700
 0.5460	19.2090
 0.5470	19.2240
 0.5480	19.2340
 0.5490	19.2520
 0.5500	19.2820
 0.5510	19.3050
 0.5520	19.3210
 0.5530	19.3330
 0.5540	19.3370
 0.5550	19.3290
 0.5560	19.3170
 0.5570	19.3110
 0.5580	19.2890
 0.5590	19.2620
 0.5600	19.2410
 0.5610	19.2230
 0.5620	19.2110
 0.5630	19.2020
 0.5640	19.1900
 0.5650	19.1630
 0.5660	19.1220
 0.5670	19.0740
 0.5680	19.0220
 0.5690	18.9730
 0.5700	18.9230
 0.5710	18.8700
 0.5720	18.8170
 0.5730	18.7770
 0.5740	18.7540
 0.5750	18.7370
 0.5760	18.7270
 0.5770	18.7030
 0.5780	18.6590
 0.5790	18.6160
 0.5800	18.5890
 0.5810	18.5790
 0.5820	18.5800
 0.5830	18.5700
 0.5840	18.5440
 0.5850	18.5130
 0.5860	18.4960
 0.5870	18.4770
 0.5880	18.4600
 0.5890	18.4530
 0.5900	18.4600
 0.5910	18.4820
 0.5920	18.5060
 0.5930	18.5160
 0.5940	18.5210
 0.5950	18.5260
 0.5960	18.5300
 0.5970	18.5230
 0.5980	18.5180
 0.5990	18.5110
 0.6000	18.4950
 0.6010	18.4750
 0.6020	18.4560
 0.6030	18.4410
 0.6040	18.4320
 0.6050	18.4220
 0.6060	18.4060
 0.6070	18.3860
 0.6080	18.3660
 0.6090	18.3520
 0.6100	18.3500
 0.6110	18.3560
 0.6120	18.3250
 0.6130	18.2710
 0.6140	18.2150
 0.6150	18.1660
 0.6160	18.1280
 0.6170	18.1000
 0.6180	18.0740
 0.6190	18.0560
 0.6200	18.0350
 0.6210	18.0120
 0.6220	18.0010
 0.6230	17.9950
 0.6240	17.9870
 0.6250	17.9750
 0.6260	17.9680
 0.6270	17.9620
 0.6280	17.9590
 0.6290	17.9640
 0.6300	17.9710
 0.6310	17.9730
 0.6320	17.9680
 0.6330	17.9660
 0.6340	17.9610
 0.6350	17.9500
 0.6360	17.9320
 0.6370	17.9210
 0.6380	17.9030
 0.6390	17.8790
 0.6400	17.8550
 0.6410	17.8270
 0.6420	17.7960
 0.6430	17.7610
 0.6440	17.7240
 0.6450	17.6930
 0.6460	17.6620
 0.6470	17.6240
 0.6480	17.5860
 0.6490	17.5520
 0.6500	17.5210
 0.6510	17.4880
 0.6520	17.4620
 0.6530	17.4380
 0.6540	17.4100
 0.6550	17.3770
 0.6560	17.3440
 0.6570	17.3080
 0.6580	17.2620
 0.6590	17.2170
 0.6600	17.1720
 0.6610	17.1250
 0.6620	17.0750
 0.6630	17.0330
 0.6640	16.9940
 0.6650	16.9550
 0.6660	16.9220
 0.6670	16.8940
 0.6680	16.8700
 0.6690	16.8490
 0.6700	16.8360
 0.6710	16.8280
 0.6720	16.8240
 0.6730	16.8270
 0.6740	16.8330
 0.6750	16.8380
 0.6760	16.8450
 0.6770	16.8600
 0.6780	16.8780
 0.6790	16.8980
 0.6800	16.9250
 0.6810	16.9550
 0.6820	16.9940
 0.6830	17.0440
 0.6840	17.1050
 0.6850	17.1780
 0.6860	17.2660
 0.6870	17.3760
 0.6880	17.5050
 0.6890	17.6570
 0.6900	17.8340
 0.6910	18.0390
 0.6920	18.2710
 0.6930	18.5310
 0.6940	18.8200
 0.6950	19.1400
 0.6960	19.4880
 0.6970	19.8620
 0.6980	20.2600
 0.6990	20.6800
 0.7000	21.1120
 0.7010	21.5600
 0.7020	22.0310
 0.7030	22.5070
 0.7040	22.9870
 0.7050	23.4730
 0.7060	23.9620
 0.7070	24.4550
 0.7080	24.9500
 0.7090	25.4460
 0.7100	25.9310
 0.7110	26.4270
 0.7120	26.9310
 0.7130	27.4180
 0.7140	27.9070
 0.7150	28.4010
 0.7160	28.8940
 0.7170	29.3730
 0.7180	29.8530
 0.7190	30.3300
 0.7200	30.8000
 0.7210	31.2610
 0.7220	31.7150
 0.7230	32.1620
 0.7240	32.5950
 0.7250	33.0320
 0.7260	33.4520
 0.7270	33.8430
 0.7280	34.2300
 0.7290	34.6050
 0.7300	34.9610
 0.7310	35.2960
 0.7320	35.6280
 0.7330	35.9450
 0.7340	36.2430
 0.7350	36.5330
 0.7360	36.8100
 0.7370	37.0740
 0.7380	37.3240
 0.7390	37.5510
 0.7400	37.7740
 0.7410	37.9920
 0.7420	38.1990
 0.7430	38.3850
 0.7440	38.5630
 0.7450	38.7340
 0.7460	38.8920
 0.7470	39.0420
 0.7480	39.1810
 0.7490	39.3100
 0.7500	39.4340
 0.7510	39.5610
 0.7520	39.6810
 0.7530	39.7860
 0.7540	39.8860
 0.7550	39.9830
 0.7560	40.0740
 0.7570	40.1560
 0.7580	40.2430
 0.7590	40.3250
 0.7600	40.3990
 0.7610	40.4700
 0.7620	40.5430
 0.7630	40.6160
 0.7640	40.6850
 0.7650	40.7450
 0.7660	40.8050
 0.7670	40.8700
 0.7680	40.9370
 0.7690	40.9890
 0.7700	41.0420
 0.7710	41.1040
 0.7720	41.1580
 0.7730	41.2090
 0.7740	41.2600
 0.7750	41.3140
 0.7760	41.3650
 0.7770	41.4210
 0.7780	41.4770
 0.7790	41.5290
 0.7800	41.5800
 0.7810	41.6310
 0.7820	41.6820
 0.7830	41.7230
 0.7840	41.7750
 0.7850	41.8260
 0.7860	41.8680
 0.7870	41.9210
 0.7880	41.9700
 0.7890	42.0170
 0.7900	42.0630
 0.7910	42.1060
 0.7920	42.1550
 0.7930	42.2070
 0.7940	42.2500
 0.7950	42.2860
 0.7960	42.3220
 0.7970	42.3650
 0.7980	42.4120
 0.7990	42.4540
 0.8000	42.4910
 0.8010	42.5290
 0.8020	42.5680
 0.8030	42.6060
 0.8040	42.6400
 0.8050	42.6700
 0.8060	42.6990
 0.8070	42.7350
 0.8080	42.7740
 0.8090	42.8020
 0.8100	42.8290
 0.8110	42.8580
 0.8120	42.8900
 0.8130	42.9190
 0.8140	42.9410
 0.8150	42.9590
 0.8160	42.9780
 0.8170	43.0080
 0.8180	43.0380
 0.8190	43.0650
 0.8200	43.0880
 0.8210	43.1100
 0.8220	43.1330
 0.8230	43.1530
 0.8240	43.1670
 0.8250	43.1910
 0.8260	43.2100
 0.8270	43.2190
 0.8280	43.2370
 0.8290	43.2520
 0.8300	43.2650
 0.8310	43.2830
 0.8320	43.3000
 0.8330	43.3200
 0.8340	43.3380
 0.8350	43.3490
 0.8360	43.3610
 0.8370	43.3760
 0.8380	43.3950
 0.8390	43.4180
 0.8400	43.4330
 0.8410	43.4520
 0.8420	43.4800
 0.8430	43.5010
 0.8440	43.5140
 0.8450	43.5320
 0.8460	43.5620
 0.8470	43.5820
 0.8480	43.6110
 0.8490	43.6360
 0.8500	43.6480
 0.8510	43.6810
 0.8520	43.7040
 0.8530	43.7210
 0.8540	43.7520
 0.8550	43.7790
 0.8560	43.7970
 0.8570	43.8130
 0.8580	43.8460
 0.8590	43.8810
 0.8600	43.9100
 0.8610	43.9310
 0.8620	43.9550
 0.8630	43.9910
 0.8640	44.0300
 0.8650	44.0610
 0.8660	44.0910
 0.8670	44.1260
 0.8680	44.1640
 0.8690	44.2010
 0.8700	44.2330
 0.8710	44.2600
 0.8720	44.2960
 0.8730	44.3500
 0.8740	44.3850
 0.8750	44.4110
 0.8760	44.4410
 0.8770	44.4880
 0.8780	44.5260
 0.8790	44.5650
 0.8800	44.6130
 0.8810	44.6630
 0.8820	44.7080
 0.8830	44.7500
 0.8840	44.7910
 0.8850	44.8310
 0.8860	44.8730
 0.8870	44.9190
 0.8880	44.9650
 0.8890	45.0020
 0.8900	45.0440
 0.8910	45.0930
 0.8920	45.1430
 0.8930	45.1950
 0.8940	45.2370
 0.8950	45.2720
 0.8960	45.3120
 0.8970	45.3510
 0.8980	45.4010
 0.8990	45.4570
 0.9000	45.4950
 0.9010	45.5340
 0.9020	45.5870
 0.9030	45.6480
 0.9040	45.6780
 0.9050	45.7110
 0.9060	45.7530
 0.9070	45.8010
 0.9080	45.8460
 0.9090	45.8890
 0.9100	45.9260
 0.9110	45.9580
 0.9120	46.0090
 0.9130	46.0550
 0.9140	46.0980
 0.9150	46.1380
 0.9160	46.1660
 0.9170	46.1950
 0.9180	46.2280
 0.9190	46.2620
 0.9200	46.3000
 0.9210	46.3370
 0.9220	46.3720
 0.9230	46.4070
 0.9240	46.4430
 0.9250	46.4610
 0.9260	46.4710
 0.9270	46.4950
 0.9280	46.5140
 0.9290	46.5360
 0.9300	46.5620
 0.9310	46.5790
 0.9320	46.6030
 0.9330	46.6150
 0.9340	46.6150
 0.9350	46.6230
 0.9360	46.6300
 0.9370	46.6400
 0.9380	46.6530
 0.9390	46.6670
 0.9400	46.6640
 0.9410	46.6570
 0.9420	46.6590
 0.9430	46.6640
 0.9440	46.6490
 0.9450	46.6300
 0.9460	46.6180
 0.9470	46.5970
 0.9480	46.5760
 0.9490	46.5530
 0.9500	46.5260
 0.9510	46.5120
 0.9520	46.4850
 0.9530	46.4420
 0.9540	46.3920
 0.9550	46.3580
 0.9560	46.3210
 0.9570	46.2850
 0.9580	46.2540
 0.9590	46.2060
 0.9600	46.1700
 0.9610	46.1560
 0.9620	46.1540
 0.9630	46.1260
 0.9640	46.1110
 0.9650	46.1040
 0.9660	46.0870
 0.9670	46.0910
 0.9680	46.0900
 0.9690	46.0830
 0.9700	46.0860
 0.9710	46.0980
 0.9720	46.1070
 0.9730	46.1010
 0.9740	46.0810
 0.9750	46.0860
 0.9760	46.1130
 0.9770	46.1370
 0.9780	46.1380
 0.9790	46.1300
 0.9800	46.1330
 0.9810	46.1500
 0.9820	46.1740
 0.9830	46.2040
 0.9840	46.2260
 0.9850	46.2410
 0.9860	46.2620
 0.9870	46.2910
 0.9880	46.3140
 0.9890	46.3210
 0.9900	46.3160
 0.9910	46.3430
 0.9920	46.3330
 0.9930	46.3230
 0.9940	46.3130
 0.9950	46.3030
 0.9960	46.2930
 0.9970	46.2830
 0.9980	46.2740
 0.9990	46.2640
 1.0000	46.2540
 1.0010	46.2440
 1.0020	46.2340
 1.0030	46.2240
 1.0040	46.2140
 1.0050	46.2040
 1.0060	46.1940
 1.0070	46.1850
 1.0080	46.1750
 1.0090	46.1650
 1.0100	46.1650
 1.0110	46.1920
 1.0120	46.2210
 1.0130	46.2520
 1.0140	46.2800
 1.0150	46.3050
 1.0160	46.3330
 1.0170	46.3600
 1.0180	46.3830
 1.0190	46.4110
 1.0200	46.4420
 1.0210	46.4680
 1.0220	46.4980
 1.0230	46.5250
 1.0240	46.5530
 1.0250	46.5760
 1.0260	46.5960
 1.0270	46.6190
 1.0280	46.6430
 1.0290	46.6680
 1.0300	46.6990
 1.0310	46.7250
 1.0320	46.7510
 1.0330	46.7740
 1.0340	46.7930
 1.0350	46.8120
 1.0360	46.8320
 1.0370	46.8510
 1.0380	46.8710
 1.0390	46.8910
 1.0400	46.9110
 1.0410	46.9330
 1.0420	46.9520
 1.0430	46.9740
 1.0440	46.9930
 1.0450	47.0080
 1.0460	47.0270
 1.0470	47.0480
 1.0480	47.0670
 1.0490	47.0840
 1.0500	47.1030
 1.0510	47.1220
 1.0520	47.1400
 1.0530	47.1570
 1.0540	47.1780
 1.0550	47.1930
 1.0560	47.2040
 1.0570	47.2190
 1.0580	47.2330
 1.0590	47.2480
 1.0600	47.2640
 1.0610	47.2800
 1.0620	47.2960
 1.0630	47.3110
 1.0640	47.3260
 1.0650	47.3400
 1.0660	47.3530
 1.0670	47.3660
 1.0680	47.3810
 1.0690	47.3980
 1.0700	47.4080
 1.0710	47.4150
 1.0720	47.4220
 1.0730	47.4220
 1.0740	47.4300
 1.0750	47.4430
 1.0760	47.4540
 1.0770	47.4690
 1.0780	47.4800
 1.0790	47.4880
 1.0800	47.4950
 1.0810	47.5000
 1.0820	47.5050
 1.0830	47.5100
 1.0840	47.5150
 1.0850	47.5200
 1.0860	47.5220
 1.0870	47.5250
 1.0880	47.5270
 1.0890	47.5300
 1.0900	47.5330
 1.0910	47.5340
 1.0920	47.5340
 1.0930	47.5330
 1.0940	47.5290
 1.0950	47.5270
 1.0960	47.5260
 1.0970	47.5250
 1.0980	47.5270
 1.0990	47.5250
 1.1000	47.5210
 1.1010	47.5180
 1.1020	47.5120
 1.1030	47.5070
 1.1040	47.5050
 1.1050	47.5040
 1.1060	47.4990
 1.1070	47.4970
 1.1080	47.4880
 1.1090	47.4750
 1.1100	47.4640
 1.1110	47.4510
 1.1120	47.4390
 1.1130	47.4290
 1.1140	47.4170
 1.1150	47.4090
 1.1160	47.3940
 1.1170	47.3750
 1.1180	47.3570
 1.1190	47.3360
 1.1200	47.3120
 1.1210	47.2860
 1.1220	47.2610
 1.1230	47.2310
 1.1240	47.1960
 1.1250	47.1560
 1.1260	47.1140
 1.1270	47.0630
 1.1280	47.0070
 1.1290	46.9430
 1.1300	46.8750
 1.1310	46.7960
 1.1320	46.7080
 1.1330	46.6150
 1.1340	46.5150
 1.1350	46.4090
 1.1360	46.2970
 1.1370	46.1800
 1.1380	46.0560
 1.1390	45.9280
 1.1400	45.7960
 1.1410	45.6640
 1.1420	45.5300
 1.1430	45.3960
 1.1440	45.2600
 1.1450	45.1200
 1.1460	44.9880
 1.1470	44.8560
 1.1480	44.7320
 1.1490	44.6120
 1.1500	44.5000
 1.1510	44.3900
 1.1520	44.2910
 1.1530	44.1990
 1.1540	44.1140
 1.1550	44.0370
 1.1560	43.9680
 1.1570	43.9080
 1.1580	43.8520
 1.1590	43.8000
 1.1600	43.7510
 1.1610	43.7030
 1.1620	43.6610
 1.1630	43.6230
 1.1640	43.5900
 1.1650	43.5610
 1.1660	43.5360
 1.1670	43.5120
 1.1680	43.4930
 1.1690	43.4710
 1.1700	43.4480
 1.1710	43.4260
 1.1720	43.4030
 1.1730	43.3810
 1.1740	43.3620
 1.1750	43.3400
 1.1760	43.3200
 1.1770	43.2960
 1.1780	43.2700
 1.1790	43.2450
 1.1800	43.2200
 1.1810	43.1910
 1.1820	43.1650
 1.1830	43.1390
 1.1840	43.1160
 1.1850	43.0950
 1.1860	43.0800
 1.1870	43.0660
 1.1880	43.0540
 1.1890	43.0440
 1.1900	43.0360
 1.1910	43.0300
 1.1920	43.0260
 1.1930	43.0240
 1.1940	43.0250
 1.1950	43.0280
 1.1960	43.0340
 1.1970	43.0430
 1.1980	43.0530
 1.1990	43.0640
 1.2000	43.0780
 1.2010	43.0920
 1.2020	43.1070
 1.2030	43.1260
 1.2040	43.1450
 1.2050	43.1670
 1.2060	43.1910
 1.2070	43.2160
 1.2080	43.2440
 1.2090	43.2720
 1.2100	43.3010
 1.2110	43.3330
 1.2120	43.3690
 1.2130	43.4050
 1.2140	43.4450
 1.2150	43.4850
 1.2160	43.5240
 1.2170	43.5640
 1.2180	43.6070
 1.2190	43.6500
 1.2200	43.6940
 1.2210	43.7400
 1.2220	43.7820
 1.2230	43.8220
 1.2240	43.8650
 1.2250	43.9070
 1.2260	43.9500
 1.2270	43.9910
 1.2280	44.0290
 1.2290	44.0640
 1.2300	44.0970
 1.2310	44.1310
 1.2320	44.1660
 1.2330	44.2000
 1.2340	44.2320
 1.2350	44.2650
 1.2360	44.2940
 1.2370	44.3200
 1.2380	44.3470
 1.2390	44.3730
 1.2400	44.4000
 1.2410	44.4290
 1.2420	44.4550
 1.2430	44.4790
 1.2440	44.5020
 1.2450	44.5240
 1.2460	44.5480
 1.2470	44.5700
 1.2480	44.5880
 1.2490	44.6080
 1.2500	44.6260
 1.2510	44.6440
 1.2520	44.6620
 1.2530	44.6800
 1.2540	44.6970
 1.2550	44.7090
 1.2560	44.7200
 1.2570	44.7330
 1.2580	44.7450
 1.2590	44.7560
 1.2600	44.7720
 1.2610	44.7820
 1.2620	44.7890
 1.2630	44.7950
 1.2640	44.8000
 1.2650	44.8020
 1.2660	44.8040
 1.2670	44.8070
 1.2680	44.8080
 1.2690	44.8090
 1.2700	44.8090
 1.2710	44.8050
 1.2720	44.7970
 1.2730	44.7880
 1.2740	44.7810
 1.2750	44.7740
 1.2760	44.7660
 1.2770	44.7590
 1.2780	44.7460
 1.2790	44.7330
 1.2800	44.7190
 1.2810	44.7050
 1.2820	44.6920
 1.2830	44.6760
 1.2840	44.6590
 1.2850	44.6430
 1.2860	44.6250
 1.2870	44.6050
 1.2880	44.5860
 1.2890	44.5660
 1.2900	44.5420
 1.2910	44.5170
 1.2920	44.4910
 1.2930	44.4650
 1.2940	44.4390
 1.2950	44.4070
 1.2960	44.3770
 1.2970	44.3460
 1.2980	44.3100
 1.2990	44.2740
 1.3000	44.2350
 1.3010	44.1930
 1.3020	44.1490
 1.3030	44.1060
 1.3040	44.0580
 1.3050	44.0060
 1.3060	43.9530
 1.3070	43.8960
 1.3080	43.8360
 1.3090	43.7750
 1.3100	43.7090
 1.3110	43.6400
 1.3120	43.5670
 1.3130	43.4900
 1.3140	43.4110
 1.3150	43.3270
 1.3160	43.2410
 1.3170	43.1520
 1.3180	43.0590
 1.3190	42.9630
 1.3200	42.8650
 1.3210	42.7630
 1.3220	42.6590
 1.3230	42.5510
 1.3240	42.4400
 1.3250	42.3270
 1.3260	42.2130
 1.3270	42.0960
 1.3280	41.9800
 1.3290	41.8590
 1.3300	41.7350
 1.3310	41.6090
 1.3320	41.4800
 1.3330	41.3520
 1.3340	41.2250
 1.3350	41.0950
 1.3360	40.9670
 1.3370	40.8350
 1.3380	40.7030
 1.3390	40.5720
 1.3400	40.4400
 1.3410	40.3100
 1.3420	40.1800
 1.3430	40.0520
 1.3440	39.9270
 1.3450	39.8010
 1.3460	39.6760
 1.3470	39.5530
 1.3480	39.4300
 1.3490	39.3070
 1.3500	39.1860
 1.3510	39.0650
 1.3520	38.9440
 1.3530	38.8230
 1.3540	38.7040
 1.3550	38.5840
 1.3560	38.4630
 1.3570	38.3440
 1.3580	38.2230
 1.3590	38.1000
 1.3600	37.9760
 1.3610	37.8490
 1.3620	37.7180
 1.3630	37.5860
 1.3640	37.4480
 1.3650	37.3020
 1.3660	37.1510
 1.3670	36.9920
 1.3680	36.8260
 1.3690	36.6530
 1.3700	36.4670
 1.3710	36.2720
 1.3720	36.0640
 1.3730	35.8410
 1.3740	35.6090
 1.3750	35.3620
 1.3760	35.0990
 1.3770	34.8190
 1.3780	34.5190
 1.3790	34.2030
 1.3800	33.8700
 1.3810	33.5170
 1.3820	33.1540
 1.3830	32.7770
 1.3840	32.3880
 1.3850	31.9860
 1.3860	31.5770
 1.3870	31.1540
 1.3880	30.7300
 1.3890	30.2990
 1.3900	29.8650
 1.3910	29.4350
 1.3920	29.0030
 1.3930	28.5730
 1.3940	28.1490
 1.3950	27.7260
 1.3960	27.3120
 1.3970	26.9090
 1.3980	26.5140
 1.3990	26.1370
 1.4000	25.7720
 1.4010	25.4200
 1.4020	25.0850
 1.4030	24.7610
 1.4040	24.4550
 1.4050	24.1650
 1.4060	23.8900
 1.4070	23.6340
 1.4080	23.3930
 1.4090	23.1670
 1.4100	22.9570
 1.4110	22.7590
 1.4120	22.5760
 1.4130	22.4050
 1.4140	22.2460
 1.4150	22.1030
 1.4160	21.9690
 1.4170	21.8450
 1.4180	21.7320
 1.4190	21.6270
 1.4200	21.5300
 1.4210	21.4410
 1.4220	21.3610
 1.4230	21.2880
 1.4240	21.2210
 1.4250	21.1600
 1.4260	21.1050
 1.4270	21.0540
 1.4280	21.0070
 1.4290	20.9650
 1.4300	20.9270
 1.4310	20.8930
 1.4320	20.8630
 1.4330	20.8380
 1.4340	20.8160
 1.4350	20.7980
 1.4360	20.7840
 1.4370	20.7720
 1.4380	20.7620
 1.4390	20.7550
 1.4400	20.7490
 1.4410	20.7460
 1.4420	20.7460
 1.4430	20.7470
 1.4440	20.7500
 1.4450	20.7550
 1.4460	20.7600
 1.4470	20.7660
 1.4480	20.7740
 1.4490	20.7820
 1.4500	20.7920
 1.4510	20.8040
 1.4520	20.8160
 1.4530	20.8290
 1.4540	20.8420
 1.4550	20.8560
 1.4560	20.8740
 1.4570	20.8930
 1.4580	20.9150
 1.4590	20.9390
 1.4600	20.9660
 1.4610	20.9940
 1.4620	21.0270
 1.4630	21.0630
 1.4640	21.1010
 1.4650	21.1430
 1.4660	21.1880
 1.4670	21.2360
 1.4680	21.2880
 1.4690	21.3450
 1.4700	21.4040
