Name: Bambusa beecheyana
Type: vegetation
Class: Tree
Genus: Bambusa
Species: beecheyana
Sample No.: JPL236
Owner: JPL
Wavelength Range: VSWIR
Origin: 34.12719; -118.11127; WGS84
Collection Date: 10/6/2016
Description: Samples were collected at the Huntington Garden in San Marino California as part of a JPL Subcontract studying HyTES imagery. Samples were taken to JPL and processed within 48 hours of collection. The same leaves were processed in the Nicolet and then measured using the ASD.
Measurement: Bidirectional reflectance
First Column: X
Second Column: Y
X Units: Wavelength (micrometer)
Y Units: Reflectance (percentage)
First X Value: 0.35
Last X Value: 2.5
Number of X Values: 2151
Additional Information: vegetation.tree.bambusa.beecheyana.vswir.jpl236.jpl.asd.ancillary.txt

 0.3500	 4.9810
 0.3510	 5.0850
 0.3520	 5.0480
 0.3530	 4.9990
 0.3540	 5.0500
 0.3550	 4.9850
 0.3560	 4.9150
 0.3570	 4.9090
 0.3580	 4.9820
 0.3590	 4.9170
 0.3600	 4.8780
 0.3610	 4.9280
 0.3620	 4.9440
 0.3630	 4.9720
 0.3640	 4.9780
 0.3650	 4.9300
 0.3660	 4.8350
 0.3670	 4.8530
 0.3680	 4.9410
 0.3690	 4.9300
 0.3700	 4.8980
 0.3710	 4.8620
 0.3720	 4.8300
 0.3730	 4.8070
 0.3740	 4.8530
 0.3750	 4.8920
 0.3760	 4.8470
 0.3770	 4.8580
 0.3780	 4.8040
 0.3790	 4.7390
 0.3800	 4.8470
 0.3810	 4.8840
 0.3820	 4.8520
 0.3830	 4.8060
 0.3840	 4.8250
 0.3850	 4.8350
 0.3860	 4.8410
 0.3870	 4.8610
 0.3880	 4.8010
 0.3890	 4.7840
 0.3900	 4.8380
 0.3910	 4.8760
 0.3920	 4.8350
 0.3930	 4.8040
 0.3940	 4.8400
 0.3950	 4.8210
 0.3960	 4.8450
 0.3970	 4.8830
 0.3980	 4.8650
 0.3990	 4.8810
 0.4000	 4.8970
 0.4010	 4.9000
 0.4020	 4.9230
 0.4030	 4.9050
 0.4040	 4.8840
 0.4050	 4.9010
 0.4060	 4.9310
 0.4070	 4.9490
 0.4080	 4.9450
 0.4090	 4.9280
 0.4100	 4.9440
 0.4110	 4.9750
 0.4120	 5.0030
 0.4130	 5.0150
 0.4140	 5.0020
 0.4150	 4.9880
 0.4160	 5.0020
 0.4170	 5.0480
 0.4180	 5.0590
 0.4190	 5.0360
 0.4200	 5.0390
 0.4210	 5.0480
 0.4220	 5.0660
 0.4230	 5.0890
 0.4240	 5.0940
 0.4250	 5.0970
 0.4260	 5.0980
 0.4270	 5.0900
 0.4280	 5.0820
 0.4290	 5.0930
 0.4300	 5.1150
 0.4310	 5.0990
 0.4320	 5.1000
 0.4330	 5.1140
 0.4340	 5.1190
 0.4350	 5.1100
 0.4360	 5.1140
 0.4370	 5.1250
 0.4380	 5.1140
 0.4390	 5.1280
 0.4400	 5.1420
 0.4410	 5.1380
 0.4420	 5.1370
 0.4430	 5.1400
 0.4440	 5.1460
 0.4450	 5.1530
 0.4460	 5.1700
 0.4470	 5.1760
 0.4480	 5.1680
 0.4490	 5.1730
 0.4500	 5.1790
 0.4510	 5.1800
 0.4520	 5.1780
 0.4530	 5.1940
 0.4540	 5.2040
 0.4550	 5.2030
 0.4560	 5.2020
 0.4570	 5.2020
 0.4580	 5.2060
 0.4590	 5.2100
 0.4600	 5.2110
 0.4610	 5.2080
 0.4620	 5.2070
 0.4630	 5.2120
 0.4640	 5.1940
 0.4650	 5.1980
 0.4660	 5.2170
 0.4670	 5.1980
 0.4680	 5.1930
 0.4690	 5.1990
 0.4700	 5.2020
 0.4710	 5.1960
 0.4720	 5.1970
 0.4730	 5.2020
 0.4740	 5.2000
 0.4750	 5.1990
 0.4760	 5.1980
 0.4770	 5.1970
 0.4780	 5.2000
 0.4790	 5.2020
 0.4800	 5.2050
 0.4810	 5.2090
 0.4820	 5.2040
 0.4830	 5.1950
 0.4840	 5.1910
 0.4850	 5.2000
 0.4860	 5.2000
 0.4870	 5.2020
 0.4880	 5.2160
 0.4890	 5.2150
 0.4900	 5.2170
 0.4910	 5.2250
 0.4920	 5.2370
 0.4930	 5.2410
 0.4940	 5.2500
 0.4950	 5.2690
 0.4960	 5.2860
 0.4970	 5.3020
 0.4980	 5.3240
 0.4990	 5.3530
 0.5000	 5.3790
 0.5010	 5.4070
 0.5020	 5.4400
 0.5030	 5.4820
 0.5040	 5.5220
 0.5050	 5.5670
 0.5060	 5.6250
 0.5070	 5.6930
 0.5080	 5.7570
 0.5090	 5.8280
 0.5100	 5.9230
 0.5110	 6.0190
 0.5120	 6.1220
 0.5130	 6.2380
 0.5140	 6.3690
 0.5150	 6.5090
 0.5160	 6.6610
 0.5170	 6.8240
 0.5180	 6.9940
 0.5190	 7.1750
 0.5200	 7.3670
 0.5210	 7.5650
 0.5220	 7.7690
 0.5230	 7.9720
 0.5240	 8.1730
 0.5250	 8.3700
 0.5260	 8.5580
 0.5270	 8.7390
 0.5280	 8.9130
 0.5290	 9.0740
 0.5300	 9.2210
 0.5310	 9.3530
 0.5320	 9.4750
 0.5330	 9.5860
 0.5340	 9.6850
 0.5350	 9.7690
 0.5360	 9.8420
 0.5370	 9.9090
 0.5380	 9.9660
 0.5390	10.0070
 0.5400	10.0530
 0.5410	10.0980
 0.5420	10.1360
 0.5430	10.1670
 0.5440	10.1950
 0.5450	10.2200
 0.5460	10.2430
 0.5470	10.2600
 0.5480	10.2750
 0.5490	10.2890
 0.5500	10.2990
 0.5510	10.2980
 0.5520	10.2890
 0.5530	10.2760
 0.5540	10.2470
 0.5550	10.2030
 0.5560	10.1480
 0.5570	10.0870
 0.5580	10.0110
 0.5590	 9.9240
 0.5600	 9.8320
 0.5610	 9.7340
 0.5620	 9.6280
 0.5630	 9.5160
 0.5640	 9.3990
 0.5650	 9.2730
 0.5660	 9.1430
 0.5670	 9.0110
 0.5680	 8.8790
 0.5690	 8.7420
 0.5700	 8.6020
 0.5710	 8.4650
 0.5720	 8.3320
 0.5730	 8.2040
 0.5740	 8.0820
 0.5750	 7.9710
 0.5760	 7.8700
 0.5770	 7.7780
 0.5780	 7.6930
 0.5790	 7.6110
 0.5800	 7.5340
 0.5810	 7.4600
 0.5820	 7.3890
 0.5830	 7.3240
 0.5840	 7.2640
 0.5850	 7.2080
 0.5860	 7.1530
 0.5870	 7.1020
 0.5880	 7.0540
 0.5890	 7.0110
 0.5900	 6.9760
 0.5910	 6.9430
 0.5920	 6.9120
 0.5930	 6.8870
 0.5940	 6.8620
 0.5950	 6.8390
 0.5960	 6.8180
 0.5970	 6.8000
 0.5980	 6.7780
 0.5990	 6.7560
 0.6000	 6.7360
 0.6010	 6.7120
 0.6020	 6.6860
 0.6030	 6.6560
 0.6040	 6.6180
 0.6050	 6.5830
 0.6060	 6.5460
 0.6070	 6.5010
 0.6080	 6.4570
 0.6090	 6.4070
 0.6100	 6.3520
 0.6110	 6.2950
 0.6120	 6.2480
 0.6130	 6.2040
 0.6140	 6.1570
 0.6150	 6.1100
 0.6160	 6.0640
 0.6170	 6.0220
 0.6180	 5.9860
 0.6190	 5.9520
 0.6200	 5.9190
 0.6210	 5.8900
 0.6220	 5.8650
 0.6230	 5.8440
 0.6240	 5.8250
 0.6250	 5.8100
 0.6260	 5.7940
 0.6270	 5.7850
 0.6280	 5.7790
 0.6290	 5.7710
 0.6300	 5.7610
 0.6310	 5.7510
 0.6320	 5.7410
 0.6330	 5.7300
 0.6340	 5.7150
 0.6350	 5.6970
 0.6360	 5.6740
 0.6370	 5.6430
 0.6380	 5.6120
 0.6390	 5.5820
 0.6400	 5.5480
 0.6410	 5.5150
 0.6420	 5.4810
 0.6430	 5.4450
 0.6440	 5.4110
 0.6450	 5.3780
 0.6460	 5.3450
 0.6470	 5.3140
 0.6480	 5.2910
 0.6490	 5.2700
 0.6500	 5.2500
 0.6510	 5.2350
 0.6520	 5.2190
 0.6530	 5.2070
 0.6540	 5.2000
 0.6550	 5.1890
 0.6560	 5.1760
 0.6570	 5.1630
 0.6580	 5.1490
 0.6590	 5.1360
 0.6600	 5.1220
 0.6610	 5.1090
 0.6620	 5.0980
 0.6630	 5.0870
 0.6640	 5.0810
 0.6650	 5.0790
 0.6660	 5.0810
 0.6670	 5.0870
 0.6680	 5.0950
 0.6690	 5.1070
 0.6700	 5.1250
 0.6710	 5.1460
 0.6720	 5.1680
 0.6730	 5.1970
 0.6740	 5.2280
 0.6750	 5.2620
 0.6760	 5.3010
 0.6770	 5.3370
 0.6780	 5.3800
 0.6790	 5.4290
 0.6800	 5.4780
 0.6810	 5.5320
 0.6820	 5.5870
 0.6830	 5.6380
 0.6840	 5.6870
 0.6850	 5.7410
 0.6860	 5.7940
 0.6870	 5.8420
 0.6880	 5.9020
 0.6890	 5.9740
 0.6900	 6.0620
 0.6910	 6.1770
 0.6920	 6.3290
 0.6930	 6.5240
 0.6940	 6.7680
 0.6950	 7.0700
 0.6960	 7.4310
 0.6970	 7.8520
 0.6980	 8.3340
 0.6990	 8.8740
 0.7000	 9.4610
 0.7010	10.0880
 0.7020	10.7520
 0.7030	11.4400
 0.7040	12.1440
 0.7050	12.8590
 0.7060	13.5840
 0.7070	14.3160
 0.7080	15.0520
 0.7090	15.7930
 0.7100	16.5390
 0.7110	17.2920
 0.7120	18.0530
 0.7130	18.8170
 0.7140	19.5910
 0.7150	20.3730
 0.7160	21.1630
 0.7170	21.9580
 0.7180	22.7550
 0.7190	23.5560
 0.7200	24.3620
 0.7210	25.1720
 0.7220	25.9790
 0.7230	26.7810
 0.7240	27.5770
 0.7250	28.3670
 0.7260	29.1480
 0.7270	29.9160
 0.7280	30.6660
 0.7290	31.4030
 0.7300	32.1230
 0.7310	32.8220
 0.7320	33.5020
 0.7330	34.1590
 0.7340	34.7900
 0.7350	35.3930
 0.7360	35.9730
 0.7370	36.5280
 0.7380	37.0550
 0.7390	37.5550
 0.7400	38.0260
 0.7410	38.4690
 0.7420	38.8820
 0.7430	39.2680
 0.7440	39.6260
 0.7450	39.9560
 0.7460	40.2590
 0.7470	40.5390
 0.7480	40.7960
 0.7490	41.0290
 0.7500	41.2420
 0.7510	41.4340
 0.7520	41.6070
 0.7530	41.7640
 0.7540	41.9050
 0.7550	42.0310
 0.7560	42.1450
 0.7570	42.2500
 0.7580	42.3440
 0.7590	42.4260
 0.7600	42.4990
 0.7610	42.5660
 0.7620	42.6210
 0.7630	42.6680
 0.7640	42.7110
 0.7650	42.7470
 0.7660	42.7790
 0.7670	42.8070
 0.7680	42.8290
 0.7690	42.8470
 0.7700	42.8620
 0.7710	42.8740
 0.7720	42.8860
 0.7730	42.8930
 0.7740	42.9000
 0.7750	42.9100
 0.7760	42.9160
 0.7770	42.9200
 0.7780	42.9230
 0.7790	42.9240
 0.7800	42.9290
 0.7810	42.9320
 0.7820	42.9340
 0.7830	42.9360
 0.7840	42.9390
 0.7850	42.9410
 0.7860	42.9390
 0.7870	42.9370
 0.7880	42.9360
 0.7890	42.9360
 0.7900	42.9340
 0.7910	42.9290
 0.7920	42.9230
 0.7930	42.9170
 0.7940	42.9140
 0.7950	42.9060
 0.7960	42.8990
 0.7970	42.8940
 0.7980	42.8860
 0.7990	42.8790
 0.8000	42.8690
 0.8010	42.8560
 0.8020	42.8430
 0.8030	42.8310
 0.8040	42.8190
 0.8050	42.8030
 0.8060	42.7890
 0.8070	42.7730
 0.8080	42.7560
 0.8090	42.7410
 0.8100	42.7250
 0.8110	42.7090
 0.8120	42.6920
 0.8130	42.6750
 0.8140	42.6550
 0.8150	42.6360
 0.8160	42.6180
 0.8170	42.6000
 0.8180	42.5790
 0.8190	42.5590
 0.8200	42.5420
 0.8210	42.5180
 0.8220	42.4960
 0.8230	42.4800
 0.8240	42.4610
 0.8250	42.4420
 0.8260	42.4190
 0.8270	42.3910
 0.8280	42.3720
 0.8290	42.3510
 0.8300	42.3310
 0.8310	42.3150
 0.8320	42.2960
 0.8330	42.2750
 0.8340	42.2530
 0.8350	42.2330
 0.8360	42.2150
 0.8370	42.1980
 0.8380	42.1810
 0.8390	42.1650
 0.8400	42.1520
 0.8410	42.1360
 0.8420	42.1180
 0.8430	42.1040
 0.8440	42.0910
 0.8450	42.0770
 0.8460	42.0640
 0.8470	42.0500
 0.8480	42.0380
 0.8490	42.0270
 0.8500	42.0160
 0.8510	42.0010
 0.8520	41.9920
 0.8530	41.9870
 0.8540	41.9770
 0.8550	41.9690
 0.8560	41.9600
 0.8570	41.9490
 0.8580	41.9420
 0.8590	41.9350
 0.8600	41.9310
 0.8610	41.9300
 0.8620	41.9270
 0.8630	41.9230
 0.8640	41.9170
 0.8650	41.9120
 0.8660	41.9110
 0.8670	41.9100
 0.8680	41.9070
 0.8690	41.9000
 0.8700	41.8970
 0.8710	41.8970
 0.8720	41.8980
 0.8730	41.8980
 0.8740	41.8970
 0.8750	41.8950
 0.8760	41.8950
 0.8770	41.8930
 0.8780	41.8990
 0.8790	41.9020
 0.8800	41.8990
 0.8810	41.9010
 0.8820	41.9040
 0.8830	41.9080
 0.8840	41.9100
 0.8850	41.9140
 0.8860	41.9150
 0.8870	41.9160
 0.8880	41.9170
 0.8890	41.9220
 0.8900	41.9200
 0.8910	41.9190
 0.8920	41.9280
 0.8930	41.9320
 0.8940	41.9340
 0.8950	41.9350
 0.8960	41.9360
 0.8970	41.9380
 0.8980	41.9430
 0.8990	41.9480
 0.9000	41.9480
 0.9010	41.9540
 0.9020	41.9580
 0.9030	41.9570
 0.9040	41.9570
 0.9050	41.9610
 0.9060	41.9650
 0.9070	41.9640
 0.9080	41.9640
 0.9090	41.9630
 0.9100	41.9660
 0.9110	41.9720
 0.9120	41.9710
 0.9130	41.9660
 0.9140	41.9600
 0.9150	41.9560
 0.9160	41.9600
 0.9170	41.9640
 0.9180	41.9620
 0.9190	41.9550
 0.9200	41.9560
 0.9210	41.9570
 0.9220	41.9540
 0.9230	41.9460
 0.9240	41.9400
 0.9250	41.9350
 0.9260	41.9340
 0.9270	41.9380
 0.9280	41.9220
 0.9290	41.9030
 0.9300	41.8920
 0.9310	41.8940
 0.9320	41.8820
 0.9330	41.8720
 0.9340	41.8660
 0.9350	41.8480
 0.9360	41.8390
 0.9370	41.8250
 0.9380	41.8070
 0.9390	41.8050
 0.9400	41.7970
 0.9410	41.7820
 0.9420	41.7650
 0.9430	41.7500
 0.9440	41.7340
 0.9450	41.7130
 0.9460	41.6920
 0.9470	41.6800
 0.9480	41.6530
 0.9490	41.6270
 0.9500	41.6150
 0.9510	41.5900
 0.9520	41.5680
 0.9530	41.5380
 0.9540	41.4980
 0.9550	41.4830
 0.9560	41.4600
 0.9570	41.4350
 0.9580	41.4190
 0.9590	41.3930
 0.9600	41.3580
 0.9610	41.3330
 0.9620	41.3300
 0.9630	41.3040
 0.9640	41.2840
 0.9650	41.2720
 0.9660	41.2600
 0.9670	41.2440
 0.9680	41.2260
 0.9690	41.2120
 0.9700	41.2070
 0.9710	41.1880
 0.9720	41.1740
 0.9730	41.1670
 0.9740	41.1600
 0.9750	41.1540
 0.9760	41.1460
 0.9770	41.1290
 0.9780	41.1070
 0.9790	41.1030
 0.9800	41.1040
 0.9810	41.1000
 0.9820	41.0860
 0.9830	41.0640
 0.9840	41.0640
 0.9850	41.0710
 0.9860	41.0560
 0.9870	41.0550
 0.9880	41.0540
 0.9890	41.0490
 0.9900	41.0440
 0.9910	41.0290
 0.9920	41.0210
 0.9930	41.0180
 0.9940	41.0130
 0.9950	41.0070
 0.9960	41.0010
 0.9970	41.0070
 0.9980	41.0290
 0.9990	41.0290
 1.0000	41.0100
 1.0010	41.2380
 1.0020	41.2360
 1.0030	41.2360
 1.0040	41.2350
 1.0050	41.2330
 1.0060	41.2350
 1.0070	41.2330
 1.0080	41.2300
 1.0090	41.2230
 1.0100	41.2210
 1.0110	41.2210
 1.0120	41.2200
 1.0130	41.2230
 1.0140	41.2230
 1.0150	41.2190
 1.0160	41.2170
 1.0170	41.2170
 1.0180	41.2170
 1.0190	41.2190
 1.0200	41.2210
 1.0210	41.2230
 1.0220	41.2250
 1.0230	41.2250
 1.0240	41.2210
 1.0250	41.2210
 1.0260	41.2220
 1.0270	41.2220
 1.0280	41.2240
 1.0290	41.2250
 1.0300	41.2230
 1.0310	41.2230
 1.0320	41.2210
 1.0330	41.2240
 1.0340	41.2250
 1.0350	41.2260
 1.0360	41.2290
 1.0370	41.2290
 1.0380	41.2310
 1.0390	41.2330
 1.0400	41.2350
 1.0410	41.2370
 1.0420	41.2380
 1.0430	41.2380
 1.0440	41.2380
 1.0450	41.2390
 1.0460	41.2380
 1.0470	41.2370
 1.0480	41.2360
 1.0490	41.2350
 1.0500	41.2330
 1.0510	41.2310
 1.0520	41.2290
 1.0530	41.2300
 1.0540	41.2320
 1.0550	41.2330
 1.0560	41.2350
 1.0570	41.2350
 1.0580	41.2320
 1.0590	41.2290
 1.0600	41.2260
 1.0610	41.2220
 1.0620	41.2140
 1.0630	41.2110
 1.0640	41.2120
 1.0650	41.2110
 1.0660	41.2150
 1.0670	41.2140
 1.0680	41.2130
 1.0690	41.2070
 1.0700	41.2050
 1.0710	41.2040
 1.0720	41.2020
 1.0730	41.2020
 1.0740	41.2000
 1.0750	41.1970
 1.0760	41.1930
 1.0770	41.1890
 1.0780	41.1850
 1.0790	41.1800
 1.0800	41.1770
 1.0810	41.1780
 1.0820	41.1740
 1.0830	41.1680
 1.0840	41.1630
 1.0850	41.1580
 1.0860	41.1520
 1.0870	41.1490
 1.0880	41.1490
 1.0890	41.1460
 1.0900	41.1400
 1.0910	41.1370
 1.0920	41.1310
 1.0930	41.1280
 1.0940	41.1290
 1.0950	41.1260
 1.0960	41.1200
 1.0970	41.1150
 1.0980	41.1070
 1.0990	41.1020
 1.1000	41.1010
 1.1010	41.0970
 1.1020	41.0910
 1.1030	41.0850
 1.1040	41.0790
 1.1050	41.0710
 1.1060	41.0660
 1.1070	41.0630
 1.1080	41.0570
 1.1090	41.0480
 1.1100	41.0430
 1.1110	41.0390
 1.1120	41.0340
 1.1130	41.0300
 1.1140	41.0240
 1.1150	41.0160
 1.1160	41.0090
 1.1170	41.0020
 1.1180	40.9950
 1.1190	40.9890
 1.1200	40.9790
 1.1210	40.9690
 1.1220	40.9570
 1.1230	40.9430
 1.1240	40.9290
 1.1250	40.9140
 1.1260	40.8990
 1.1270	40.8820
 1.1280	40.8660
 1.1290	40.8450
 1.1300	40.8210
 1.1310	40.7950
 1.1320	40.7660
 1.1330	40.7350
 1.1340	40.7050
 1.1350	40.6700
 1.1360	40.6310
 1.1370	40.5900
 1.1380	40.5480
 1.1390	40.5030
 1.1400	40.4570
 1.1410	40.4120
 1.1420	40.3670
 1.1430	40.3190
 1.1440	40.2710
 1.1450	40.2250
 1.1460	40.1770
 1.1470	40.1250
 1.1480	40.0780
 1.1490	40.0300
 1.1500	39.9860
 1.1510	39.9460
 1.1520	39.9080
 1.1530	39.8730
 1.1540	39.8390
 1.1550	39.8060
 1.1560	39.7750
 1.1570	39.7490
 1.1580	39.7240
 1.1590	39.7000
 1.1600	39.6780
 1.1610	39.6580
 1.1620	39.6380
 1.1630	39.6210
 1.1640	39.6050
 1.1650	39.5900
 1.1660	39.5770
 1.1670	39.5640
 1.1680	39.5530
 1.1690	39.5420
 1.1700	39.5320
 1.1710	39.5220
 1.1720	39.5130
 1.1730	39.5030
 1.1740	39.4920
 1.1750	39.4800
 1.1760	39.4700
 1.1770	39.4590
 1.1780	39.4500
 1.1790	39.4410
 1.1800	39.4300
 1.1810	39.4200
 1.1820	39.4090
 1.1830	39.3970
 1.1840	39.3870
 1.1850	39.3760
 1.1860	39.3650
 1.1870	39.3570
 1.1880	39.3480
 1.1890	39.3400
 1.1900	39.3320
 1.1910	39.3240
 1.1920	39.3160
 1.1930	39.3060
 1.1940	39.2990
 1.1950	39.2930
 1.1960	39.2870
 1.1970	39.2820
 1.1980	39.2770
 1.1990	39.2730
 1.2000	39.2690
 1.2010	39.2640
 1.2020	39.2630
 1.2030	39.2620
 1.2040	39.2600
 1.2050	39.2600
 1.2060	39.2600
 1.2070	39.2580
 1.2080	39.2550
 1.2090	39.2570
 1.2100	39.2580
 1.2110	39.2600
 1.2120	39.2630
 1.2130	39.2660
 1.2140	39.2660
 1.2150	39.2690
 1.2160	39.2720
 1.2170	39.2760
 1.2180	39.2800
 1.2190	39.2840
 1.2200	39.2890
 1.2210	39.2940
 1.2220	39.2980
 1.2230	39.3030
 1.2240	39.3080
 1.2250	39.3120
 1.2260	39.3190
 1.2270	39.3250
 1.2280	39.3280
 1.2290	39.3320
 1.2300	39.3350
 1.2310	39.3390
 1.2320	39.3430
 1.2330	39.3470
 1.2340	39.3510
 1.2350	39.3540
 1.2360	39.3560
 1.2370	39.3590
 1.2380	39.3620
 1.2390	39.3640
 1.2400	39.3660
 1.2410	39.3680
 1.2420	39.3690
 1.2430	39.3720
 1.2440	39.3740
 1.2450	39.3750
 1.2460	39.3760
 1.2470	39.3750
 1.2480	39.3760
 1.2490	39.3770
 1.2500	39.3770
 1.2510	39.3780
 1.2520	39.3780
 1.2530	39.3780
 1.2540	39.3770
 1.2550	39.3760
 1.2560	39.3740
 1.2570	39.3700
 1.2580	39.3680
 1.2590	39.3650
 1.2600	39.3610
 1.2610	39.3580
 1.2620	39.3540
 1.2630	39.3500
 1.2640	39.3440
 1.2650	39.3390
 1.2660	39.3350
 1.2670	39.3300
 1.2680	39.3250
 1.2690	39.3190
 1.2700	39.3120
 1.2710	39.3040
 1.2720	39.2950
 1.2730	39.2900
 1.2740	39.2830
 1.2750	39.2760
 1.2760	39.2700
 1.2770	39.2620
 1.2780	39.2540
 1.2790	39.2460
 1.2800	39.2360
 1.2810	39.2270
 1.2820	39.2160
 1.2830	39.2050
 1.2840	39.1940
 1.2850	39.1830
 1.2860	39.1710
 1.2870	39.1580
 1.2880	39.1450
 1.2890	39.1300
 1.2900	39.1140
 1.2910	39.0980
 1.2920	39.0810
 1.2930	39.0640
 1.2940	39.0440
 1.2950	39.0220
 1.2960	38.9990
 1.2970	38.9780
 1.2980	38.9550
 1.2990	38.9300
 1.3000	38.9070
 1.3010	38.8800
 1.3020	38.8530
 1.3030	38.8300
 1.3040	38.8030
 1.3050	38.7770
 1.3060	38.7500
 1.3070	38.7200
 1.3080	38.6880
 1.3090	38.6560
 1.3100	38.6210
 1.3110	38.5880
 1.3120	38.5540
 1.3130	38.5180
 1.3140	38.4810
 1.3150	38.4420
 1.3160	38.4030
 1.3170	38.3630
 1.3180	38.3220
 1.3190	38.2820
 1.3200	38.2400
 1.3210	38.1960
 1.3220	38.1520
 1.3230	38.1070
 1.3240	38.0620
 1.3250	38.0160
 1.3260	37.9680
 1.3270	37.9180
 1.3280	37.8670
 1.3290	37.8160
 1.3300	37.7640
 1.3310	37.7110
 1.3320	37.6560
 1.3330	37.6010
 1.3340	37.5460
 1.3350	37.4910
 1.3360	37.4360
 1.3370	37.3800
 1.3380	37.3240
 1.3390	37.2680
 1.3400	37.2110
 1.3410	37.1550
 1.3420	37.0990
 1.3430	37.0430
 1.3440	36.9880
 1.3450	36.9320
 1.3460	36.8760
 1.3470	36.8200
 1.3480	36.7630
 1.3490	36.7070
 1.3500	36.6510
 1.3510	36.5960
 1.3520	36.5410
 1.3530	36.4860
 1.3540	36.4320
 1.3550	36.3770
 1.3560	36.3210
 1.3570	36.2640
 1.3580	36.2060
 1.3590	36.1460
 1.3600	36.0850
 1.3610	36.0230
 1.3620	35.9600
 1.3630	35.8950
 1.3640	35.8260
 1.3650	35.7540
 1.3660	35.6780
 1.3670	35.6010
 1.3680	35.5190
 1.3690	35.4310
 1.3700	35.3370
 1.3710	35.2350
 1.3720	35.1240
 1.3730	35.0050
 1.3740	34.8780
 1.3750	34.7400
 1.3760	34.5900
 1.3770	34.4290
 1.3780	34.2520
 1.3790	34.0630
 1.3800	33.8600
 1.3810	33.6400
 1.3820	33.4070
 1.3830	33.1600
 1.3840	32.8960
 1.3850	32.6180
 1.3860	32.3240
 1.3870	32.0140
 1.3880	31.6940
 1.3890	31.3590
 1.3900	31.0130
 1.3910	30.6600
 1.3920	30.2960
 1.3930	29.9240
 1.3940	29.5460
 1.3950	29.1600
 1.3960	28.7730
 1.3970	28.3880
 1.3980	28.0030
 1.3990	27.6260
 1.4000	27.2540
 1.4010	26.8840
 1.4020	26.5240
 1.4030	26.1710
 1.4040	25.8280
 1.4050	25.4990
 1.4060	25.1800
 1.4070	24.8770
 1.4080	24.5860
 1.4090	24.3070
 1.4100	24.0430
 1.4110	23.7920
 1.4120	23.5540
 1.4130	23.3310
 1.4140	23.1210
 1.4150	22.9260
 1.4160	22.7430
 1.4170	22.5720
 1.4180	22.4140
 1.4190	22.2640
 1.4200	22.1260
 1.4210	21.9960
 1.4220	21.8750
 1.4230	21.7630
 1.4240	21.6600
 1.4250	21.5640
 1.4260	21.4760
 1.4270	21.3950
 1.4280	21.3220
 1.4290	21.2550
 1.4300	21.1950
 1.4310	21.1400
 1.4320	21.0900
 1.4330	21.0460
 1.4340	21.0080
 1.4350	20.9740
 1.4360	20.9460
 1.4370	20.9220
 1.4380	20.9000
 1.4390	20.8830
 1.4400	20.8700
 1.4410	20.8590
 1.4420	20.8510
 1.4430	20.8450
 1.4440	20.8420
 1.4450	20.8400
 1.4460	20.8400
 1.4470	20.8440
 1.4480	20.8490
 1.4490	20.8560
 1.4500	20.8650
 1.4510	20.8750
 1.4520	20.8860
 1.4530	20.9010
 1.4540	20.9160
 1.4550	20.9330
 1.4560	20.9520
 1.4570	20.9730
 1.4580	20.9980
 1.4590	21.0250
 1.4600	21.0570
 1.4610	21.0930
 1.4620	21.1320
 1.4630	21.1770
 1.4640	21.2240
 1.4650	21.2760
 1.4660	21.3340
 1.4670	21.3940
 1.4680	21.4600
 1.4690	21.5300
 1.4700	21.6040
 1.4710	21.6820
 1.4720	21.7620
 1.4730	21.8450
 1.4740	21.9310
 1.4750	22.0180
 1.4760	22.1100
 1.4770	22.2030
