Name: Baccharis pilularis 1
Type: vegetation
Class: Shrub
Genus: Baccharis
Species: pilularis
Sample No.: VH109
Owner: UCSB
Wavelength Range: VSWIR
Origin: 34.5084; -119.7687; WGS84
Collection Date: 6/3/2013
Description: Samples were collected as part of the HyspIRI Airborne Campaign. 48 individual plants were sampled in three times in 2013 - spring  summer  and fall. The name of the sample includes a 1  2  or 3 which references a different individual of the species. Samples were taken to JPL and processed within 48 hours of collection. The same leaves were processed in the Nicolet and then measured using the ASD.
Measurement: Bidirectional reflectance
First Column: X
Second Column: Y
X Units: Wavelength (micrometers)
Y Units: Reflectance (percentage)
First X Value: 0.35
Last X Value: 2.5
Number of X Values: 2151
Additional Information: vegetation.shrub.baccharis.pilularis.vswir.vh109.ucsb.asd.ancillary.txt

 0.3500	 4.8990
 0.3510	 4.8560
 0.3520	 4.7570
 0.3530	 4.6500
 0.3540	 4.5840
 0.3550	 4.6070
 0.3560	 4.6230
 0.3570	 4.6010
 0.3580	 4.5620
 0.3590	 4.6300
 0.3600	 4.7260
 0.3610	 4.7650
 0.3620	 4.6640
 0.3630	 4.6670
 0.3640	 4.6540
 0.3650	 4.5170
 0.3660	 4.5400
 0.3670	 4.6130
 0.3680	 4.6590
 0.3690	 4.6450
 0.3700	 4.6420
 0.3710	 4.6760
 0.3720	 4.7310
 0.3730	 4.7210
 0.3740	 4.7080
 0.3750	 4.6620
 0.3760	 4.5660
 0.3770	 4.6150
 0.3780	 4.6470
 0.3790	 4.6240
 0.3800	 4.6260
 0.3810	 4.6480
 0.3820	 4.7030
 0.3830	 4.7710
 0.3840	 4.7410
 0.3850	 4.6790
 0.3860	 4.6590
 0.3870	 4.7200
 0.3880	 4.6680
 0.3890	 4.6540
 0.3900	 4.7150
 0.3910	 4.7530
 0.3920	 4.7340
 0.3930	 4.7400
 0.3940	 4.8030
 0.3950	 4.7460
 0.3960	 4.7060
 0.3970	 4.7130
 0.3980	 4.7420
 0.3990	 4.7990
 0.4000	 4.8270
 0.4010	 4.8170
 0.4020	 4.8390
 0.4030	 4.8360
 0.4040	 4.8340
 0.4050	 4.8530
 0.4060	 4.8450
 0.4070	 4.8170
 0.4080	 4.8050
 0.4090	 4.8470
 0.4100	 4.8710
 0.4110	 4.8740
 0.4120	 4.8710
 0.4130	 4.8970
 0.4140	 4.9170
 0.4150	 4.9240
 0.4160	 4.9180
 0.4170	 4.9100
 0.4180	 4.9330
 0.4190	 4.9720
 0.4200	 4.9680
 0.4210	 4.9770
 0.4220	 4.9880
 0.4230	 4.9910
 0.4240	 5.0030
 0.4250	 4.9980
 0.4260	 4.9990
 0.4270	 5.0380
 0.4280	 5.0440
 0.4290	 5.0440
 0.4300	 5.0580
 0.4310	 5.0810
 0.4320	 5.0810
 0.4330	 5.0770
 0.4340	 5.0960
 0.4350	 5.1180
 0.4360	 5.1400
 0.4370	 5.1510
 0.4380	 5.1420
 0.4390	 5.1530
 0.4400	 5.1600
 0.4410	 5.1540
 0.4420	 5.1710
 0.4430	 5.1860
 0.4440	 5.1940
 0.4450	 5.2000
 0.4460	 5.2040
 0.4470	 5.2070
 0.4480	 5.2150
 0.4490	 5.2390
 0.4500	 5.2490
 0.4510	 5.2530
 0.4520	 5.2620
 0.4530	 5.2670
 0.4540	 5.2760
 0.4550	 5.2870
 0.4560	 5.2900
 0.4570	 5.3030
 0.4580	 5.3160
 0.4590	 5.3200
 0.4600	 5.3180
 0.4610	 5.3120
 0.4620	 5.3170
 0.4630	 5.3390
 0.4640	 5.3350
 0.4650	 5.3260
 0.4660	 5.3280
 0.4670	 5.3450
 0.4680	 5.3430
 0.4690	 5.3390
 0.4700	 5.3440
 0.4710	 5.3420
 0.4720	 5.3420
 0.4730	 5.3460
 0.4740	 5.3490
 0.4750	 5.3560
 0.4760	 5.3630
 0.4770	 5.3680
 0.4780	 5.3840
 0.4790	 5.3890
 0.4800	 5.3860
 0.4810	 5.3830
 0.4820	 5.3790
 0.4830	 5.3800
 0.4840	 5.3880
 0.4850	 5.4050
 0.4860	 5.4080
 0.4870	 5.4100
 0.4880	 5.4190
 0.4890	 5.4270
 0.4900	 5.4320
 0.4910	 5.4350
 0.4920	 5.4400
 0.4930	 5.4530
 0.4940	 5.4670
 0.4950	 5.4760
 0.4960	 5.4810
 0.4970	 5.4980
 0.4980	 5.5180
 0.4990	 5.5320
 0.5000	 5.5540
 0.5010	 5.5720
 0.5020	 5.5920
 0.5030	 5.6270
 0.5040	 5.6590
 0.5050	 5.6940
 0.5060	 5.7360
 0.5070	 5.7740
 0.5080	 5.8240
 0.5090	 5.8850
 0.5100	 5.9510
 0.5110	 6.0190
 0.5120	 6.0980
 0.5130	 6.1880
 0.5140	 6.2840
 0.5150	 6.3930
 0.5160	 6.5160
 0.5170	 6.6490
 0.5180	 6.7920
 0.5190	 6.9490
 0.5200	 7.1170
 0.5210	 7.2880
 0.5220	 7.4600
 0.5230	 7.6390
 0.5240	 7.8280
 0.5250	 8.0120
 0.5260	 8.1900
 0.5270	 8.3650
 0.5280	 8.5380
 0.5290	 8.7000
 0.5300	 8.8510
 0.5310	 8.9930
 0.5320	 9.1340
 0.5330	 9.2620
 0.5340	 9.3740
 0.5350	 9.4740
 0.5360	 9.5670
 0.5370	 9.6540
 0.5380	 9.7370
 0.5390	 9.8160
 0.5400	 9.8870
 0.5410	 9.9580
 0.5420	10.0340
 0.5430	10.0990
 0.5440	10.1620
 0.5450	10.2180
 0.5460	10.2620
 0.5470	10.2950
 0.5480	10.3230
 0.5490	10.3520
 0.5500	10.3820
 0.5510	10.4030
 0.5520	10.4150
 0.5530	10.4200
 0.5540	10.4060
 0.5550	10.3820
 0.5560	10.3460
 0.5570	10.2930
 0.5580	10.2310
 0.5590	10.1630
 0.5600	10.0870
 0.5610	 9.9990
 0.5620	 9.9060
 0.5630	 9.8050
 0.5640	 9.6930
 0.5650	 9.5760
 0.5660	 9.4560
 0.5670	 9.3350
 0.5680	 9.2190
 0.5690	 9.0950
 0.5700	 8.9680
 0.5710	 8.8440
 0.5720	 8.7210
 0.5730	 8.6060
 0.5740	 8.4980
 0.5750	 8.3930
 0.5760	 8.2940
 0.5770	 8.2060
 0.5780	 8.1290
 0.5790	 8.0500
 0.5800	 7.9830
 0.5810	 7.9240
 0.5820	 7.8590
 0.5830	 7.8000
 0.5840	 7.7480
 0.5850	 7.7000
 0.5860	 7.6530
 0.5870	 7.6100
 0.5880	 7.5700
 0.5890	 7.5320
 0.5900	 7.4970
 0.5910	 7.4680
 0.5920	 7.4430
 0.5930	 7.4220
 0.5940	 7.4030
 0.5950	 7.3870
 0.5960	 7.3730
 0.5970	 7.3600
 0.5980	 7.3460
 0.5990	 7.3280
 0.6000	 7.3060
 0.6010	 7.2810
 0.6020	 7.2520
 0.6030	 7.2180
 0.6040	 7.1790
 0.6050	 7.1390
 0.6060	 7.0950
 0.6070	 7.0480
 0.6080	 6.9930
 0.6090	 6.9470
 0.6100	 6.9080
 0.6110	 6.8670
 0.6120	 6.8140
 0.6130	 6.7560
 0.6140	 6.7000
 0.6150	 6.6490
 0.6160	 6.6030
 0.6170	 6.5600
 0.6180	 6.5170
 0.6190	 6.4850
 0.6200	 6.4570
 0.6210	 6.4300
 0.6220	 6.4060
 0.6230	 6.3880
 0.6240	 6.3760
 0.6250	 6.3670
 0.6260	 6.3480
 0.6270	 6.3340
 0.6280	 6.3290
 0.6290	 6.3290
 0.6300	 6.3260
 0.6310	 6.3170
 0.6320	 6.3060
 0.6330	 6.2990
 0.6340	 6.2880
 0.6350	 6.2750
 0.6360	 6.2610
 0.6370	 6.2370
 0.6380	 6.2120
 0.6390	 6.1860
 0.6400	 6.1580
 0.6410	 6.1250
 0.6420	 6.0900
 0.6430	 6.0540
 0.6440	 6.0180
 0.6450	 5.9800
 0.6460	 5.9430
 0.6470	 5.9120
 0.6480	 5.8790
 0.6490	 5.8500
 0.6500	 5.8240
 0.6510	 5.7980
 0.6520	 5.7780
 0.6530	 5.7620
 0.6540	 5.7460
 0.6550	 5.7260
 0.6560	 5.7040
 0.6570	 5.6820
 0.6580	 5.6590
 0.6590	 5.6350
 0.6600	 5.6130
 0.6610	 5.5920
 0.6620	 5.5740
 0.6630	 5.5570
 0.6640	 5.5420
 0.6650	 5.5320
 0.6660	 5.5240
 0.6670	 5.5190
 0.6680	 5.5170
 0.6690	 5.5160
 0.6700	 5.5190
 0.6710	 5.5240
 0.6720	 5.5310
 0.6730	 5.5390
 0.6740	 5.5490
 0.6750	 5.5610
 0.6760	 5.5760
 0.6770	 5.5910
 0.6780	 5.6090
 0.6790	 5.6290
 0.6800	 5.6490
 0.6810	 5.6710
 0.6820	 5.6980
 0.6830	 5.7270
 0.6840	 5.7580
 0.6850	 5.7940
 0.6860	 5.8350
 0.6870	 5.8850
 0.6880	 5.9490
 0.6890	 6.0310
 0.6900	 6.1350
 0.6910	 6.2670
 0.6920	 6.4450
 0.6930	 6.6700
 0.6940	 6.9450
 0.6950	 7.2810
 0.6960	 7.6860
 0.6970	 8.1590
 0.6980	 8.6960
 0.6990	 9.3050
 0.7000	 9.9760
 0.7010	10.7030
 0.7020	11.4840
 0.7030	12.3060
 0.7040	13.1650
 0.7050	14.0540
 0.7060	14.9630
 0.7070	15.8880
 0.7080	16.8230
 0.7090	17.7650
 0.7100	18.7120
 0.7110	19.6610
 0.7120	20.6110
 0.7130	21.5580
 0.7140	22.4960
 0.7150	23.4260
 0.7160	24.3460
 0.7170	25.2520
 0.7180	26.1400
 0.7190	27.0090
 0.7200	27.8590
 0.7210	28.6910
 0.7220	29.4990
 0.7230	30.2800
 0.7240	31.0300
 0.7250	31.7530
 0.7260	32.4450
 0.7270	33.1020
 0.7280	33.7350
 0.7290	34.3340
 0.7300	34.9000
 0.7310	35.4380
 0.7320	35.9430
 0.7330	36.4170
 0.7340	36.8630
 0.7350	37.2870
 0.7360	37.6820
 0.7370	38.0530
 0.7380	38.4000
 0.7390	38.7270
 0.7400	39.0280
 0.7410	39.3090
 0.7420	39.5760
 0.7430	39.8180
 0.7440	40.0400
 0.7450	40.2470
 0.7460	40.4370
 0.7470	40.6170
 0.7480	40.7810
 0.7490	40.9260
 0.7500	41.0660
 0.7510	41.1930
 0.7520	41.3090
 0.7530	41.4160
 0.7540	41.5100
 0.7550	41.5970
 0.7560	41.6790
 0.7570	41.7550
 0.7580	41.8230
 0.7590	41.8830
 0.7600	41.9360
 0.7610	41.9870
 0.7620	42.0330
 0.7630	42.0770
 0.7640	42.1170
 0.7650	42.1540
 0.7660	42.1900
 0.7670	42.2230
 0.7680	42.2510
 0.7690	42.2750
 0.7700	42.2970
 0.7710	42.3180
 0.7720	42.3410
 0.7730	42.3650
 0.7740	42.3870
 0.7750	42.4050
 0.7760	42.4230
 0.7770	42.4410
 0.7780	42.4580
 0.7790	42.4700
 0.7800	42.4900
 0.7810	42.5080
 0.7820	42.5220
 0.7830	42.5350
 0.7840	42.5470
 0.7850	42.5600
 0.7860	42.5750
 0.7870	42.5870
 0.7880	42.5980
 0.7890	42.6090
 0.7900	42.6220
 0.7910	42.6330
 0.7920	42.6440
 0.7930	42.6540
 0.7940	42.6620
 0.7950	42.6690
 0.7960	42.6770
 0.7970	42.6840
 0.7980	42.6870
 0.7990	42.6930
 0.8000	42.6980
 0.8010	42.7010
 0.8020	42.7090
 0.8030	42.7130
 0.8040	42.7140
 0.8050	42.7170
 0.8060	42.7160
 0.8070	42.7160
 0.8080	42.7170
 0.8090	42.7160
 0.8100	42.7190
 0.8110	42.7200
 0.8120	42.7160
 0.8130	42.7100
 0.8140	42.7080
 0.8150	42.7080
 0.8160	42.7070
 0.8170	42.6970
 0.8180	42.6990
 0.8190	42.7020
 0.8200	42.6900
 0.8210	42.6870
 0.8220	42.6830
 0.8230	42.6770
 0.8240	42.6800
 0.8250	42.6690
 0.8260	42.6560
 0.8270	42.6490
 0.8280	42.6470
 0.8290	42.6420
 0.8300	42.6330
 0.8310	42.6240
 0.8320	42.6210
 0.8330	42.6160
 0.8340	42.6110
 0.8350	42.6100
 0.8360	42.6040
 0.8370	42.6020
 0.8380	42.6020
 0.8390	42.5950
 0.8400	42.5900
 0.8410	42.5870
 0.8420	42.5860
 0.8430	42.5940
 0.8440	42.5950
 0.8450	42.5920
 0.8460	42.5930
 0.8470	42.5960
 0.8480	42.6000
 0.8490	42.6000
 0.8500	42.5940
 0.8510	42.6030
 0.8520	42.6110
 0.8530	42.6110
 0.8540	42.6030
 0.8550	42.6040
 0.8560	42.6120
 0.8570	42.6210
 0.8580	42.6220
 0.8590	42.6240
 0.8600	42.6280
 0.8610	42.6310
 0.8620	42.6340
 0.8630	42.6400
 0.8640	42.6440
 0.8650	42.6450
 0.8660	42.6500
 0.8670	42.6590
 0.8680	42.6670
 0.8690	42.6680
 0.8700	42.6720
 0.8710	42.6790
 0.8720	42.6860
 0.8730	42.6890
 0.8740	42.6940
 0.8750	42.7030
 0.8760	42.7140
 0.8770	42.7190
 0.8780	42.7240
 0.8790	42.7270
 0.8800	42.7310
 0.8810	42.7420
 0.8820	42.7510
 0.8830	42.7600
 0.8840	42.7690
 0.8850	42.7770
 0.8860	42.7810
 0.8870	42.7860
 0.8880	42.7930
 0.8890	42.7940
 0.8900	42.7990
 0.8910	42.8090
 0.8920	42.8190
 0.8930	42.8160
 0.8940	42.8160
 0.8950	42.8250
 0.8960	42.8340
 0.8970	42.8390
 0.8980	42.8410
 0.8990	42.8410
 0.9000	42.8460
 0.9010	42.8520
 0.9020	42.8580
 0.9030	42.8630
 0.9040	42.8630
 0.9050	42.8680
 0.9060	42.8740
 0.9070	42.8790
 0.9080	42.8820
 0.9090	42.8840
 0.9100	42.8870
 0.9110	42.8920
 0.9120	42.8940
 0.9130	42.9030
 0.9140	42.9080
 0.9150	42.9000
 0.9160	42.9000
 0.9170	42.9040
 0.9180	42.9080
 0.9190	42.9120
 0.9200	42.9160
 0.9210	42.9130
 0.9220	42.9030
 0.9230	42.8930
 0.9240	42.8890
 0.9250	42.8830
 0.9260	42.8750
 0.9270	42.8710
 0.9280	42.8670
 0.9290	42.8600
 0.9300	42.8480
 0.9310	42.8290
 0.9320	42.8150
 0.9330	42.8000
 0.9340	42.7810
 0.9350	42.7610
 0.9360	42.7480
 0.9370	42.7350
 0.9380	42.7180
 0.9390	42.7020
 0.9400	42.6810
 0.9410	42.6520
 0.9420	42.6210
 0.9430	42.6000
 0.9440	42.5770
 0.9450	42.5440
 0.9460	42.5020
 0.9470	42.4600
 0.9480	42.4160
 0.9490	42.3740
 0.9500	42.3360
 0.9510	42.2910
 0.9520	42.2350
 0.9530	42.1750
 0.9540	42.1200
 0.9550	42.0610
 0.9560	42.0000
 0.9570	41.9410
 0.9580	41.8900
 0.9590	41.8430
 0.9600	41.7980
 0.9610	41.7570
 0.9620	41.7210
 0.9630	41.6890
 0.9640	41.6600
 0.9650	41.6370
 0.9660	41.6190
 0.9670	41.5940
 0.9680	41.5670
 0.9690	41.5520
 0.9700	41.5500
 0.9710	41.5290
 0.9720	41.5100
 0.9730	41.5030
 0.9740	41.5050
 0.9750	41.4810
 0.9760	41.4720
 0.9770	41.4740
 0.9780	41.4700
 0.9790	41.4860
 0.9800	41.4880
 0.9810	41.4830
 0.9820	41.4900
 0.9830	41.4860
 0.9840	41.4970
 0.9850	41.5120
 0.9860	41.5080
 0.9870	41.5170
 0.9880	41.5420
 0.9890	41.5660
 0.9900	41.5720
 0.9910	41.5900
 0.9920	41.6340
 0.9930	41.6790
 0.9940	41.7230
 0.9950	41.7680
 0.9960	41.8120
 0.9970	41.8560
 0.9980	41.9010
 0.9990	41.9450
 1.0000	41.9900
 1.0010	42.0340
 1.0020	42.0790
 1.0030	42.1230
 1.0040	42.1670
 1.0050	42.2120
 1.0060	42.2560
 1.0070	42.3010
 1.0080	42.3450
 1.0090	42.3900
 1.0100	42.3900
 1.0110	42.4140
 1.0120	42.4360
 1.0130	42.4520
 1.0140	42.4700
 1.0150	42.4900
 1.0160	42.5090
 1.0170	42.5230
 1.0180	42.5340
 1.0190	42.5530
 1.0200	42.5720
 1.0210	42.5830
 1.0220	42.6030
 1.0230	42.6210
 1.0240	42.6370
 1.0250	42.6550
 1.0260	42.6810
 1.0270	42.6990
 1.0280	42.7120
 1.0290	42.7260
 1.0300	42.7370
 1.0310	42.7540
 1.0320	42.7750
 1.0330	42.7940
 1.0340	42.8130
 1.0350	42.8300
 1.0360	42.8430
 1.0370	42.8550
 1.0380	42.8690
 1.0390	42.8840
 1.0400	42.8990
 1.0410	42.9180
 1.0420	42.9310
 1.0430	42.9420
 1.0440	42.9540
 1.0450	42.9620
 1.0460	42.9740
 1.0470	42.9920
 1.0480	43.0050
 1.0490	43.0150
 1.0500	43.0260
 1.0510	43.0350
 1.0520	43.0420
 1.0530	43.0520
 1.0540	43.0640
 1.0550	43.0720
 1.0560	43.0780
 1.0570	43.0850
 1.0580	43.0880
 1.0590	43.0940
 1.0600	43.1020
 1.0610	43.1080
 1.0620	43.1120
 1.0630	43.1170
 1.0640	43.1230
 1.0650	43.1260
 1.0660	43.1280
 1.0670	43.1310
 1.0680	43.1350
 1.0690	43.1380
 1.0700	43.1420
 1.0710	43.1500
 1.0720	43.1490
 1.0730	43.1420
 1.0740	43.1410
 1.0750	43.1380
 1.0760	43.1380
 1.0770	43.1430
 1.0780	43.1440
 1.0790	43.1430
 1.0800	43.1410
 1.0810	43.1350
 1.0820	43.1290
 1.0830	43.1200
 1.0840	43.1140
 1.0850	43.1100
 1.0860	43.1080
 1.0870	43.1020
 1.0880	43.0960
 1.0890	43.0910
 1.0900	43.0840
 1.0910	43.0780
 1.0920	43.0770
 1.0930	43.0690
 1.0940	43.0580
 1.0950	43.0490
 1.0960	43.0390
 1.0970	43.0290
 1.0980	43.0210
 1.0990	43.0120
 1.1000	43.0030
 1.1010	42.9930
 1.1020	42.9840
 1.1030	42.9730
 1.1040	42.9610
 1.1050	42.9470
 1.1060	42.9340
 1.1070	42.9210
 1.1080	42.9080
 1.1090	42.8940
 1.1100	42.8800
 1.1110	42.8650
 1.1120	42.8500
 1.1130	42.8350
 1.1140	42.8170
 1.1150	42.7990
 1.1160	42.7800
 1.1170	42.7580
 1.1180	42.7350
 1.1190	42.7120
 1.1200	42.6850
 1.1210	42.6530
 1.1220	42.6200
 1.1230	42.5850
 1.1240	42.5450
 1.1250	42.5020
 1.1260	42.4580
 1.1270	42.4050
 1.1280	42.3430
 1.1290	42.2780
 1.1300	42.2080
 1.1310	42.1320
 1.1320	42.0520
 1.1330	41.9640
 1.1340	41.8690
 1.1350	41.7690
 1.1360	41.6630
 1.1370	41.5540
 1.1380	41.4400
 1.1390	41.3230
 1.1400	41.2020
 1.1410	41.0780
 1.1420	40.9510
 1.1430	40.8240
 1.1440	40.6970
 1.1450	40.5670
 1.1460	40.4420
 1.1470	40.3170
 1.1480	40.1970
 1.1490	40.0780
 1.1500	39.9670
 1.1510	39.8600
 1.1520	39.7620
 1.1530	39.6690
 1.1540	39.5840
 1.1550	39.5080
 1.1560	39.4370
 1.1570	39.3720
 1.1580	39.3150
 1.1590	39.2640
 1.1600	39.2180
 1.1610	39.1790
 1.1620	39.1470
 1.1630	39.1180
 1.1640	39.0920
 1.1650	39.0690
 1.1660	39.0490
 1.1670	39.0310
 1.1680	39.0190
 1.1690	39.0040
 1.1700	38.9900
 1.1710	38.9780
 1.1720	38.9680
 1.1730	38.9560
 1.1740	38.9470
 1.1750	38.9350
 1.1760	38.9220
 1.1770	38.9090
 1.1780	38.8930
 1.1790	38.8770
 1.1800	38.8600
 1.1810	38.8430
 1.1820	38.8280
 1.1830	38.8130
 1.1840	38.7970
 1.1850	38.7810
 1.1860	38.7640
 1.1870	38.7470
 1.1880	38.7330
 1.1890	38.7200
 1.1900	38.7080
 1.1910	38.6990
 1.1920	38.6910
 1.1930	38.6810
 1.1940	38.6750
 1.1950	38.6690
 1.1960	38.6660
 1.1970	38.6640
 1.1980	38.6640
 1.1990	38.6660
 1.2000	38.6690
 1.2010	38.6740
 1.2020	38.6820
 1.2030	38.6910
 1.2040	38.7020
 1.2050	38.7120
 1.2060	38.7250
 1.2070	38.7410
 1.2080	38.7580
 1.2090	38.7800
 1.2100	38.8020
 1.2110	38.8250
 1.2120	38.8470
 1.2130	38.8730
 1.2140	38.9000
 1.2150	38.9290
 1.2160	38.9610
 1.2170	38.9920
 1.2180	39.0230
 1.2190	39.0550
 1.2200	39.0860
 1.2210	39.1170
 1.2220	39.1490
 1.2230	39.1810
 1.2240	39.2150
 1.2250	39.2480
 1.2260	39.2770
 1.2270	39.3060
 1.2280	39.3350
 1.2290	39.3610
 1.2300	39.3890
 1.2310	39.4150
 1.2320	39.4390
 1.2330	39.4630
 1.2340	39.4870
 1.2350	39.5090
 1.2360	39.5310
 1.2370	39.5530
 1.2380	39.5730
 1.2390	39.5930
 1.2400	39.6120
 1.2410	39.6300
 1.2420	39.6470
 1.2430	39.6630
 1.2440	39.6790
 1.2450	39.6950
 1.2460	39.7110
 1.2470	39.7270
 1.2480	39.7430
 1.2490	39.7580
 1.2500	39.7700
 1.2510	39.7800
 1.2520	39.7900
 1.2530	39.7990
 1.2540	39.8080
 1.2550	39.8180
 1.2560	39.8260
 1.2570	39.8320
 1.2580	39.8360
 1.2590	39.8400
 1.2600	39.8420
 1.2610	39.8450
 1.2620	39.8460
 1.2630	39.8490
 1.2640	39.8510
 1.2650	39.8510
 1.2660	39.8500
 1.2670	39.8480
 1.2680	39.8440
 1.2690	39.8370
 1.2700	39.8320
 1.2710	39.8260
 1.2720	39.8210
 1.2730	39.8150
 1.2740	39.8080
 1.2750	39.7990
 1.2760	39.7890
 1.2770	39.7780
 1.2780	39.7650
 1.2790	39.7530
 1.2800	39.7410
 1.2810	39.7290
 1.2820	39.7180
 1.2830	39.7030
 1.2840	39.6880
 1.2850	39.6690
 1.2860	39.6470
 1.2870	39.6240
 1.2880	39.6000
 1.2890	39.5720
 1.2900	39.5440
 1.2910	39.5130
 1.2920	39.4800
 1.2930	39.4470
 1.2940	39.4110
 1.2950	39.3720
 1.2960	39.3300
 1.2970	39.2850
 1.2980	39.2370
 1.2990	39.1900
 1.3000	39.1400
 1.3010	39.0890
 1.3020	39.0370
 1.3030	38.9790
 1.3040	38.9150
 1.3050	38.8510
 1.3060	38.7850
 1.3070	38.7150
 1.3080	38.6450
 1.3090	38.5720
 1.3100	38.4960
 1.3110	38.4180
 1.3120	38.3360
 1.3130	38.2520
 1.3140	38.1650
 1.3150	38.0750
 1.3160	37.9830
 1.3170	37.8880
 1.3180	37.7890
 1.3190	37.6890
 1.3200	37.5850
 1.3210	37.4770
 1.3220	37.3670
 1.3230	37.2550
 1.3240	37.1380
 1.3250	37.0220
 1.3260	36.9050
 1.3270	36.7830
 1.3280	36.6600
 1.3290	36.5340
 1.3300	36.4050
 1.3310	36.2740
 1.3320	36.1420
 1.3330	36.0080
 1.3340	35.8760
 1.3350	35.7420
 1.3360	35.6070
 1.3370	35.4720
 1.3380	35.3370
 1.3390	35.2010
 1.3400	35.0640
 1.3410	34.9290
 1.3420	34.7940
 1.3430	34.6600
 1.3440	34.5280
 1.3450	34.3960
 1.3460	34.2640
 1.3470	34.1340
 1.3480	34.0030
 1.3490	33.8730
 1.3500	33.7450
 1.3510	33.6180
 1.3520	33.4880
 1.3530	33.3610
 1.3540	33.2340
 1.3550	33.1070
 1.3560	32.9810
 1.3570	32.8540
 1.3580	32.7250
 1.3590	32.5940
 1.3600	32.4590
 1.3610	32.3210
 1.3620	32.1790
 1.3630	32.0330
 1.3640	31.8830
 1.3650	31.7260
 1.3660	31.5630
 1.3670	31.3900
 1.3680	31.2080
 1.3690	31.0160
 1.3700	30.8100
 1.3710	30.5950
 1.3720	30.3660
 1.3730	30.1200
 1.3740	29.8630
 1.3750	29.5870
 1.3760	29.2910
 1.3770	28.9770
 1.3780	28.6390
 1.3790	28.2810
 1.3800	27.9040
 1.3810	27.5040
 1.3820	27.0880
 1.3830	26.6540
 1.3840	26.2040
 1.3850	25.7360
 1.3860	25.2580
 1.3870	24.7600
 1.3880	24.2610
 1.3890	23.7520
 1.3900	23.2350
 1.3910	22.7200
 1.3920	22.2000
 1.3930	21.6780
 1.3940	21.1620
 1.3950	20.6430
 1.3960	20.1350
 1.3970	19.6380
 1.3980	19.1500
 1.3990	18.6820
 1.4000	18.2290
 1.4010	17.7890
 1.4020	17.3700
 1.4030	16.9650
 1.4040	16.5810
 1.4050	16.2180
 1.4060	15.8730
 1.4070	15.5520
 1.4080	15.2500
 1.4090	14.9650
 1.4100	14.7020
 1.4110	14.4570
 1.4120	14.2290
 1.4130	14.0190
 1.4140	13.8240
 1.4150	13.6470
 1.4160	13.4840
 1.4170	13.3350
 1.4180	13.2000
 1.4190	13.0750
 1.4200	12.9610
 1.4210	12.8570
 1.4220	12.7640
 1.4230	12.6800
 1.4240	12.6060
 1.4250	12.5390
 1.4260	12.4810
 1.4270	12.4280
 1.4280	12.3810
 1.4290	12.3400
 1.4300	12.3070
 1.4310	12.2770
 1.4320	12.2550
 1.4330	12.2350
 1.4340	12.2190
 1.4350	12.2070
 1.4360	12.1980
 1.4370	12.1930
 1.4380	12.1920
 1.4390	12.1940
 1.4400	12.1990
 1.4410	12.2060
 1.4420	12.2160
 1.4430	12.2270
 1.4440	12.2400
 1.4450	12.2540
 1.4460	12.2700
 1.4470	12.2880
 1.4480	12.3060
 1.4490	12.3250
 1.4500	12.3450
 1.4510	12.3650
 1.4520	12.3870
 1.4530	12.4100
 1.4540	12.4340
 1.4550	12.4600
 1.4560	12.4870
 1.4570	12.5150
 1.4580	12.5450
 1.4590	12.5770
 1.4600	12.6120
 1.4610	12.6490
 1.4620	12.6910
 1.4630	12.7360
 1.4640	12.7850
 1.4650	12.8380
 1.4660	12.8940
 1.4670	12.9530
 1.4680	13.0170
 1.4690	13.0840
 1.4700	13.1560
