Name: Arctostaphylos glandulosa 3
Type: vegetation
Class: Shrub
Genus: Arctostaphylos
Species: glandulosa
Sample No.: VH039
Owner: UCSB
Wavelength Range: TIR
Origin: 34.5085; -119.7682; WGS84
Collection Date: 4/1/2013
Description: Samples were collected as part of the HyspIRI Airborne Campaign. 48 individual plants were sampled in three times in 2013 - spring  summer  and fall. The name of the sample includes a 1  2  or 3 which references a different individual of the species. Samples were taken to JPL and processed within 48 hours of collection. The same leaves were processed in the Nicolet and then measured using the ASD.
Measurement: Hemispherical reflectance
First Column: X
Second Column: Y
X Units: Wavelength (micrometers)
Y Units: Reflectance (percentage)
First X Value: 2.501
Last X Value: 15.387
Number of X Values: 1737
Additional Information: vegetation.shrub.arctostaphylos.glandulosa.tir.vh039.ucsb.nicolet.ancillary.txt

 2.5010	 6.9510
 2.5030	 6.9500
 2.5040	 6.9760
 2.5050	 6.7800
 2.5060	 6.8480
 2.5070	 6.9480
 2.5090	 6.9870
 2.5100	 6.9000
 2.5110	 6.8490
 2.5120	 6.8440
 2.5140	 6.9650
 2.5150	 6.9270
 2.5160	 6.8270
 2.5170	 6.7500
 2.5180	 6.8340
 2.5200	 6.8870
 2.5210	 6.9190
 2.5220	 6.9090
 2.5230	 6.9660
 2.5250	 6.8810
 2.5260	 6.8310
 2.5270	 6.8160
 2.5280	 6.9100
 2.5290	 6.8490
 2.5310	 6.8000
 2.5320	 6.7560
 2.5330	 6.7560
 2.5340	 6.7880
 2.5360	 6.8630
 2.5370	 6.8140
 2.5380	 6.7730
 2.5390	 6.7660
 2.5410	 6.8570
 2.5420	 6.9070
 2.5430	 6.9790
 2.5440	 6.9450
 2.5460	 6.9320
 2.5470	 6.8390
 2.5480	 6.9550
 2.5490	 6.9090
 2.5510	 6.9070
 2.5520	 6.9070
 2.5530	 6.9800
 2.5540	 6.9430
 2.5560	 6.8820
 2.5570	 6.8300
 2.5580	 6.8730
 2.5590	 6.9130
 2.5610	 6.9800
 2.5620	 6.9350
 2.5630	 6.9290
 2.5640	 6.8570
 2.5660	 6.8000
 2.5670	 6.7590
 2.5680	 6.8330
 2.5700	 6.9030
 2.5710	 6.9870
 2.5720	 6.9710
 2.5730	 6.9390
 2.5750	 6.9470
 2.5760	 7.1010
 2.5770	 7.0440
 2.5790	 7.0490
 2.5800	 6.9960
 2.5810	 6.9120
 2.5820	 6.8680
 2.5840	 7.0610
 2.5850	 7.1980
 2.5860	 7.1890
 2.5880	 7.0800
 2.5890	 7.0130
 2.5900	 6.9270
 2.5910	 6.9510
 2.5930	 6.9440
 2.5940	 6.9910
 2.5950	 6.9770
 2.5970	 6.9000
 2.5980	 6.8990
 2.5990	 7.0140
 2.6000	 6.9320
 2.6020	 6.8320
 2.6030	 6.8580
 2.6040	 6.9700
 2.6060	 7.0090
 2.6070	 7.1130
 2.6080	 7.0680
 2.6100	 7.1110
 2.6110	 6.9740
 2.6120	 7.0050
 2.6140	 7.0430
 2.6150	 6.9880
 2.6160	 6.9040
 2.6180	 6.8570
 2.6190	 6.7590
 2.6200	 6.8840
 2.6220	 6.9050
 2.6230	 6.8570
 2.6240	 6.7620
 2.6260	 6.8220
 2.6270	 6.9060
 2.6280	 6.9130
 2.6300	 6.7430
 2.6310	 6.7170
 2.6320	 6.6640
 2.6340	 6.6830
 2.6350	 6.7220
 2.6360	 6.7210
 2.6380	 6.6590
 2.6390	 6.6590
 2.6400	 6.6500
 2.6420	 6.7490
 2.6430	 6.7380
 2.6440	 6.6850
 2.6460	 6.6700
 2.6470	 6.6860
 2.6480	 6.6450
 2.6500	 6.6250
 2.6510	 6.5370
 2.6520	 6.6420
 2.6540	 6.6230
 2.6550	 6.5970
 2.6560	 6.6440
 2.6580	 6.6570
 2.6590	 6.5600
 2.6610	 6.5880
 2.6620	 6.5280
 2.6630	 6.5000
 2.6650	 6.5220
 2.6660	 6.6150
 2.6670	 6.5280
 2.6690	 6.4250
 2.6700	 6.3670
 2.6720	 6.4220
 2.6730	 6.3520
 2.6740	 6.3510
 2.6760	 6.3410
 2.6770	 6.4160
 2.6780	 6.3120
 2.6800	 6.3020
 2.6810	 6.3190
 2.6830	 6.3280
 2.6840	 6.2480
 2.6850	 6.1620
 2.6870	 6.1790
 2.6880	 6.1880
 2.6900	 6.1340
 2.6910	 6.1850
 2.6920	 6.1600
 2.6940	 6.1430
 2.6950	 6.0110
 2.6970	 5.9680
 2.6980	 5.9380
 2.6990	 5.9270
 2.7010	 5.8560
 2.7020	 5.8360
 2.7040	 5.7660
 2.7050	 5.7540
 2.7060	 5.7440
 2.7080	 5.6960
 2.7090	 5.5800
 2.7110	 5.4710
 2.7120	 5.4050
 2.7130	 5.4210
 2.7150	 5.3200
 2.7160	 5.3660
 2.7180	 5.4950
 2.7190	 5.5710
 2.7210	 5.4090
 2.7220	 5.3470
 2.7230	 5.3310
 2.7250	 5.3080
 2.7260	 5.2600
 2.7280	 5.3190
 2.7290	 5.2540
 2.7310	 5.2560
 2.7320	 5.2330
 2.7330	 5.1530
 2.7350	 5.0420
 2.7360	 5.0900
 2.7380	 5.0090
 2.7390	 4.9560
 2.7410	 4.8990
 2.7420	 5.0260
 2.7440	 5.0360
 2.7450	 5.0170
 2.7470	 4.9820
 2.7480	 4.9450
 2.7490	 4.8530
 2.7510	 4.8800
 2.7520	 4.7860
 2.7540	 4.7230
 2.7550	 4.6670
 2.7570	 4.6950
 2.7580	 4.7060
 2.7600	 4.6580
 2.7610	 4.5540
 2.7630	 4.6470
 2.7640	 4.6510
 2.7660	 4.5960
 2.7670	 4.5470
 2.7680	 4.5300
 2.7700	 4.4540
 2.7710	 4.5030
 2.7730	 4.4320
 2.7740	 4.3530
 2.7760	 4.3890
 2.7770	 4.4920
 2.7790	 4.4190
 2.7800	 4.3140
 2.7820	 4.2110
 2.7830	 4.2070
 2.7850	 4.0590
 2.7860	 4.1650
 2.7880	 4.1390
 2.7890	 4.1120
 2.7910	 4.0850
 2.7920	 4.0780
 2.7940	 3.8850
 2.7950	 3.8110
 2.7970	 3.7290
 2.7980	 3.7930
 2.8000	 3.8920
 2.8010	 3.8970
 2.8030	 3.8170
 2.8040	 3.8100
 2.8060	 3.7080
 2.8070	 3.7100
 2.8090	 3.6990
 2.8110	 3.7420
 2.8120	 3.6880
 2.8140	 3.6680
 2.8150	 3.4930
 2.8170	 3.4660
 2.8180	 3.4620
 2.8200	 3.4810
 2.8210	 3.4510
 2.8230	 3.4140
 2.8240	 3.3220
 2.8260	 3.4250
 2.8270	 3.4260
 2.8290	 3.4420
 2.8300	 3.3700
 2.8320	 3.4040
 2.8340	 3.4080
 2.8350	 3.3540
 2.8370	 3.1870
 2.8380	 3.1550
 2.8400	 3.1160
 2.8410	 3.2220
 2.8430	 3.2240
 2.8440	 3.3770
 2.8460	 3.3740
 2.8480	 3.2270
 2.8490	 3.0720
 2.8510	 3.1410
 2.8520	 3.1280
 2.8540	 3.1830
 2.8550	 3.1590
 2.8570	 3.2520
 2.8590	 3.2210
 2.8600	 3.0970
 2.8620	 3.0130
 2.8630	 3.2070
 2.8650	 3.2590
 2.8660	 3.1920
 2.8680	 3.0690
 2.8700	 3.0660
 2.8710	 2.9120
 2.8730	 2.9020
 2.8740	 2.9760
 2.8760	 3.0780
 2.8780	 3.0780
 2.8790	 3.1170
 2.8810	 3.0950
 2.8820	 3.1250
 2.8840	 3.1660
 2.8860	 3.1410
 2.8870	 2.9630
 2.8890	 2.9320
 2.8900	 2.8730
 2.8920	 2.8860
 2.8940	 2.8370
 2.8950	 2.8560
 2.8970	 2.8980
 2.8980	 2.8740
 2.9000	 2.8230
 2.9020	 2.9630
 2.9030	 2.9980
 2.9050	 3.0440
 2.9070	 2.9580
 2.9080	 2.8590
 2.9100	 2.8110
 2.9120	 2.8930
 2.9130	 2.9480
 2.9150	 2.9480
 2.9160	 2.8640
 2.9180	 2.9410
 2.9200	 2.8870
 2.9210	 2.8230
 2.9230	 2.7650
 2.9250	 2.8370
 2.9260	 2.8770
 2.9280	 2.9790
 2.9300	 2.9590
 2.9310	 2.9390
 2.9330	 2.7980
 2.9350	 2.7530
 2.9360	 2.8310
 2.9380	 3.0000
 2.9400	 2.9730
 2.9410	 2.9750
 2.9430	 2.9530
 2.9450	 2.8980
 2.9460	 2.8770
 2.9480	 2.9130
 2.9500	 2.9370
 2.9510	 2.8630
 2.9530	 2.8430
 2.9550	 3.0110
 2.9560	 3.0000
 2.9580	 2.8380
 2.9600	 2.7450
 2.9610	 2.8540
 2.9630	 2.9190
 2.9650	 2.9900
 2.9660	 2.8340
 2.9680	 2.9310
 2.9700	 3.0450
 2.9720	 2.7210
 2.9730	 2.4780
 2.9750	 2.6380
 2.9770	 2.6750
 2.9780	 2.7770
 2.9800	 2.8970
 2.9820	 2.6860
 2.9840	 2.6530
 2.9850	 2.7630
 2.9870	 2.3280
 2.9890	 2.4730
 2.9900	 2.9500
 2.9920	 3.1170
 2.9940	 2.6880
 2.9960	 2.9960
 2.9970	 2.7300
 2.9990	 2.4980
 3.0010	 2.8720
 3.0030	 3.1300
 3.0040	 3.0060
 3.0060	 2.9440
 3.0080	 3.1550
 3.0100	 3.3930
 3.0110	 3.2950
 3.0130	 2.7180
 3.0150	 2.1890
 3.0170	 2.6330
 3.0180	 2.6910
 3.0200	 2.5970
 3.0220	 2.7540
 3.0240	 2.8470
 3.0250	 2.6760
 3.0270	 2.4000
 3.0290	 2.6850
 3.0310	 2.9360
 3.0320	 2.6390
 3.0340	 2.4780
 3.0360	 3.0570
 3.0380	 3.3700
 3.0400	 3.1490
 3.0410	 2.9140
 3.0430	 2.5320
 3.0450	 2.6590
 3.0470	 3.0540
 3.0480	 3.0870
 3.0500	 2.8860
 3.0520	 3.3610
 3.0540	 3.7830
 3.0560	 3.4860
 3.0570	 3.1590
 3.0590	 2.7660
 3.0610	 2.4320
 3.0630	 2.6840
 3.0650	 2.6520
 3.0660	 2.5870
 3.0680	 2.7120
 3.0700	 2.7860
 3.0720	 2.8240
 3.0740	 3.1240
 3.0760	 3.2500
 3.0770	 3.1130
 3.0790	 2.9860
 3.0810	 2.8670
 3.0830	 2.8600
 3.0850	 3.0760
 3.0870	 3.0210
 3.0880	 3.1430
 3.0900	 3.2160
 3.0920	 3.0920
 3.0940	 3.0290
 3.0960	 3.0960
 3.0980	 3.1220
 3.0990	 3.0650
 3.1010	 3.0020
 3.1030	 3.0650
 3.1050	 3.0790
 3.1070	 3.2180
 3.1090	 3.2790
 3.1110	 3.2560
 3.1120	 3.1400
 3.1140	 3.1210
 3.1160	 3.1520
 3.1180	 3.3040
 3.1200	 3.3360
 3.1220	 3.3070
 3.1240	 3.2440
 3.1260	 3.2170
 3.1270	 3.2570
 3.1290	 3.4570
 3.1310	 3.4040
 3.1330	 3.4340
 3.1350	 3.4060
 3.1370	 3.5320
 3.1390	 3.5960
 3.1410	 3.2610
 3.1430	 3.0290
 3.1450	 3.3990
 3.1460	 3.5560
 3.1480	 3.5920
 3.1500	 3.6160
 3.1520	 3.6830
 3.1540	 3.3410
 3.1560	 3.4350
 3.1580	 3.6740
 3.1600	 3.5520
 3.1620	 3.5070
 3.1640	 3.8760
 3.1660	 3.7980
 3.1680	 3.4070
 3.1700	 3.4250
 3.1710	 3.7890
 3.1730	 3.5050
 3.1750	 3.5310
 3.1770	 3.7580
 3.1790	 3.7090
 3.1810	 3.4460
 3.1830	 3.8070
 3.1850	 3.7740
 3.1870	 3.6560
 3.1890	 3.6400
 3.1910	 3.6870
 3.1930	 3.7030
 3.1950	 3.6590
 3.1970	 3.7410
 3.1990	 3.8640
 3.2010	 3.7320
 3.2030	 3.7580
 3.2050	 3.9060
 3.2070	 3.9680
 3.2090	 3.8610
 3.2110	 3.8210
 3.2130	 3.8250
 3.2150	 3.8640
 3.2170	 3.8350
 3.2190	 3.9180
 3.2210	 3.9280
 3.2230	 3.8900
 3.2250	 3.8120
 3.2270	 3.8880
 3.2290	 3.8580
 3.2310	 3.7770
 3.2330	 3.9540
 3.2350	 4.1220
 3.2370	 3.9740
 3.2390	 3.9440
 3.2410	 3.8910
 3.2430	 3.9670
 3.2450	 3.9810
 3.2470	 3.9680
 3.2490	 3.9120
 3.2510	 3.9700
 3.2530	 3.9100
 3.2550	 3.8600
 3.2570	 3.8540
 3.2590	 3.7860
 3.2610	 3.7700
 3.2630	 3.8940
 3.2650	 3.8960
 3.2670	 4.0180
 3.2690	 4.0330
 3.2720	 3.9580
 3.2740	 3.9200
 3.2760	 3.9110
 3.2780	 3.8770
 3.2800	 3.9460
 3.2820	 3.9110
 3.2840	 3.8910
 3.2860	 3.8810
 3.2880	 3.9000
 3.2900	 3.9200
 3.2920	 4.0200
 3.2940	 3.9840
 3.2960	 3.9700
 3.2990	 3.9160
 3.3010	 3.8780
 3.3030	 3.8450
 3.3050	 3.8570
 3.3070	 3.8100
 3.3090	 3.8290
 3.3110	 3.8510
 3.3130	 3.8160
 3.3150	 3.7500
 3.3180	 3.7380
 3.3200	 3.6690
 3.3220	 3.6890
 3.3240	 3.6920
 3.3260	 3.7750
 3.3280	 3.6850
 3.3300	 3.6870
 3.3330	 3.6530
 3.3350	 3.6470
 3.3370	 3.6550
 3.3390	 3.5820
 3.3410	 3.4630
 3.3430	 3.5260
 3.3450	 3.6050
 3.3480	 3.5830
 3.3500	 3.5170
 3.3520	 3.4690
 3.3540	 3.3520
 3.3560	 3.2830
 3.3580	 3.1350
 3.3610	 3.1220
 3.3630	 3.0660
 3.3650	 3.0150
 3.3670	 3.0530
 3.3690	 3.1110
 3.3720	 2.9470
 3.3740	 2.8210
 3.3760	 2.8040
 3.3780	 2.8110
 3.3800	 2.7250
 3.3830	 2.7100
 3.3850	 2.7040
 3.3870	 2.7250
 3.3890	 2.6780
 3.3910	 2.6800
 3.3940	 2.5830
 3.3960	 2.4820
 3.3980	 2.4190
 3.4000	 2.4190
 3.4020	 2.3080
 3.4050	 2.3250
 3.4070	 2.3240
 3.4090	 2.2910
 3.4110	 2.1760
 3.4140	 2.2000
 3.4160	 2.3200
 3.4180	 2.5390
 3.4200	 2.8580
 3.4230	 3.4990
 3.4250	 4.2320
 3.4270	 5.0140
 3.4290	 5.4310
 3.4320	 5.4890
 3.4340	 5.2070
 3.4360	 4.8640
 3.4390	 4.5270
 3.4410	 4.3530
 3.4430	 4.1860
 3.4450	 4.1110
 3.4480	 4.0430
 3.4500	 3.9250
 3.4520	 3.7540
 3.4550	 3.8210
 3.4570	 3.9210
 3.4590	 3.9400
 3.4620	 3.8180
 3.4640	 3.8180
 3.4660	 3.7440
 3.4680	 3.6760
 3.4710	 3.7240
 3.4730	 3.8080
 3.4750	 3.7050
 3.4780	 3.6390
 3.4800	 3.5280
 3.4820	 3.5040
 3.4850	 3.4330
 3.4870	 3.3840
 3.4890	 3.3200
 3.4920	 3.3660
 3.4940	 3.3110
 3.4970	 3.2230
 3.4990	 3.0550
 3.5010	 2.9400
 3.5040	 3.0720
 3.5060	 3.4310
 3.5080	 4.2580
 3.5110	 5.3380
 3.5130	 5.7110
 3.5160	 5.6030
 3.5180	 5.3970
 3.5200	 5.2640
 3.5230	 5.0850
 3.5250	 5.0340
 3.5270	 4.9630
 3.5300	 4.8670
 3.5320	 4.7980
 3.5350	 4.8700
 3.5370	 4.8030
 3.5400	 4.8130
 3.5420	 4.8330
 3.5440	 4.7780
 3.5470	 4.7220
 3.5490	 4.7040
 3.5520	 4.6800
 3.5540	 4.6800
 3.5570	 4.6960
 3.5590	 4.7430
 3.5610	 4.7090
 3.5640	 4.7610
 3.5660	 4.8480
 3.5690	 4.9330
 3.5710	 4.8530
 3.5740	 4.7590
 3.5760	 4.7250
 3.5790	 4.6760
 3.5810	 4.6480
 3.5840	 4.7970
 3.5860	 4.8380
 3.5890	 4.8070
 3.5910	 4.7960
 3.5930	 4.8670
 3.5960	 4.7890
 3.5980	 4.6920
 3.6010	 4.6730
 3.6030	 4.7350
 3.6060	 4.6150
 3.6080	 4.5860
 3.6110	 4.6930
 3.6140	 4.7570
 3.6160	 4.7270
 3.6190	 4.7240
 3.6210	 4.7110
 3.6240	 4.7380
 3.6260	 4.7150
 3.6290	 4.7660
 3.6310	 4.7680
 3.6340	 4.7340
 3.6360	 4.6780
 3.6390	 4.6980
 3.6410	 4.6510
 3.6440	 4.6520
 3.6470	 4.6640
 3.6490	 4.7480
 3.6520	 4.7600
 3.6540	 4.7370
 3.6570	 4.7290
 3.6590	 4.8030
 3.6620	 4.7590
 3.6650	 4.7190
 3.6670	 4.7540
 3.6700	 4.7600
 3.6720	 4.6620
 3.6750	 4.6500
 3.6780	 4.6320
 3.6800	 4.6970
 3.6830	 4.6910
 3.6850	 4.6700
 3.6880	 4.6410
 3.6910	 4.6680
 3.6930	 4.6710
 3.6960	 4.6830
 3.6990	 4.6450
 3.7010	 4.6430
 3.7040	 4.6510
 3.7060	 4.7200
 3.7090	 4.7070
 3.7120	 4.7130
 3.7140	 4.7350
 3.7170	 4.8270
 3.7200	 4.8210
 3.7220	 4.8090
 3.7250	 4.7910
 3.7280	 4.8060
 3.7300	 4.8290
 3.7330	 4.8480
 3.7360	 4.7900
 3.7390	 4.7990
 3.7410	 4.7580
 3.7440	 4.7950
 3.7470	 4.8230
 3.7490	 4.8060
 3.7520	 4.8100
 3.7550	 4.7880
 3.7580	 4.7440
 3.7600	 4.7830
 3.7630	 4.7550
 3.7660	 4.7850
 3.7680	 4.7680
 3.7710	 4.8030
 3.7740	 4.8100
 3.7770	 4.8760
 3.7790	 4.8830
 3.7820	 4.8030
 3.7850	 4.7580
 3.7880	 4.8060
 3.7900	 4.7640
 3.7930	 4.7140
 3.7960	 4.7520
 3.7990	 4.8150
 3.8020	 4.8180
 3.8040	 4.8740
 3.8070	 4.8980
 3.8100	 4.8960
 3.8130	 4.8440
 3.8160	 4.8410
 3.8180	 4.8390
 3.8210	 4.8500
 3.8240	 4.8550
 3.8270	 4.8900
 3.8300	 4.8700
 3.8330	 4.8890
 3.8350	 4.9290
 3.8380	 4.9530
 3.8410	 4.9590
 3.8440	 4.9670
 3.8470	 4.9930
 3.8500	 5.0420
 3.8520	 4.9580
 3.8550	 4.8940
 3.8580	 4.8890
 3.8610	 4.9650
 3.8640	 5.0250
 3.8670	 5.0320
 3.8700	 4.9340
 3.8730	 4.9090
 3.8750	 4.9220
 3.8780	 4.9170
 3.8810	 4.9830
 3.8840	 5.0690
 3.8870	 5.0570
 3.8900	 5.0320
 3.8930	 4.9360
 3.8960	 4.8740
 3.8990	 4.8750
 3.9020	 4.9650
 3.9050	 4.9660
 3.9080	 4.9040
 3.9110	 4.8900
 3.9140	 4.9670
 3.9160	 4.9890
 3.9190	 5.0190
 3.9220	 5.0070
 3.9250	 5.0030
 3.9280	 4.9810
 3.9310	 5.0290
 3.9340	 5.0340
 3.9370	 5.0060
 3.9400	 4.9710
 3.9430	 4.9660
 3.9460	 4.9890
 3.9490	 4.9850
 3.9520	 4.9520
 3.9550	 4.9990
 3.9580	 5.0020
 3.9610	 5.0480
 3.9640	 5.0540
 3.9670	 5.0550
 3.9700	 5.0980
 3.9730	 5.1260
 3.9770	 5.1000
 3.9800	 5.0390
 3.9830	 5.0070
 3.9860	 5.0370
 3.9890	 4.9940
 3.9920	 5.0110
 3.9950	 5.0790
 3.9980	 5.0910
 4.0010	 5.0430
 4.0040	 5.0640
 4.0070	 5.0660
 4.0100	 5.0950
 4.0130	 5.1240
 4.0170	 5.1140
 4.0200	 5.0980
 4.0230	 5.1090
 4.0260	 5.1330
 4.0290	 5.1330
 4.0320	 5.0890
 4.0350	 5.0930
 4.0380	 5.0890
 4.0420	 5.0840
 4.0450	 5.1590
 4.0480	 5.2720
 4.0510	 5.2950
 4.0540	 5.2500
 4.0570	 5.1700
 4.0610	 5.1880
 4.0640	 5.2130
 4.0670	 5.2340
 4.0700	 5.1520
 4.0730	 5.1160
 4.0770	 5.1050
 4.0800	 5.1180
 4.0830	 5.1980
 4.0860	 5.2400
 4.0890	 5.1700
 4.0930	 5.1530
 4.0960	 5.1680
 4.0990	 5.2040
 4.1020	 5.1910
 4.1060	 5.1650
 4.1090	 5.1620
 4.1120	 5.2250
 4.1150	 5.2470
 4.1190	 5.2310
 4.1220	 5.1910
 4.1250	 5.2090
 4.1280	 5.2730
 4.1320	 5.2890
 4.1350	 5.2900
 4.1380	 5.2790
 4.1420	 5.2460
 4.1450	 5.3050
 4.1480	 5.3190
 4.1520	 5.3070
 4.1550	 5.2560
 4.1580	 5.2350
 4.1620	 5.2760
 4.1650	 5.3100
 4.1680	 5.2840
 4.1720	 5.3060
 4.1750	 5.2660
 4.1780	 5.3010
 4.1820	 5.3610
 4.1850	 5.3460
 4.1890	 5.3260
 4.1920	 5.3320
 4.1950	 5.3310
 4.1990	 5.3420
 4.2020	 5.3870
 4.2060	 5.3890
 4.2090	 5.3920
 4.2120	 5.4820
 4.2160	 5.6380
 4.2190	 5.7170
 4.2230	 5.7630
 4.2260	 5.9580
 4.2300	 5.7940
 4.2330	 5.7240
 4.2360	 5.8410
 4.2400	 5.8830
 4.2430	 5.7210
 4.2470	 5.6980
 4.2500	 5.5640
 4.2540	 5.5830
 4.2570	 5.5570
 4.2610	 5.5970
 4.2640	 5.5520
 4.2680	 5.6690
 4.2710	 5.6820
 4.2750	 5.5620
 4.2780	 5.4690
 4.2820	 5.4990
 4.2850	 5.5510
 4.2890	 5.7050
 4.2930	 5.8260
 4.2960	 5.7340
 4.3000	 5.6550
 4.3030	 5.6090
 4.3070	 5.5640
 4.3100	 5.4980
 4.3140	 5.4220
 4.3180	 5.3570
 4.3210	 5.2850
 4.3250	 5.3740
 4.3280	 5.3720
 4.3320	 5.3930
 4.3360	 5.3970
 4.3390	 5.4130
 4.3430	 5.4040
 4.3470	 5.3740
 4.3500	 5.3450
 4.3540	 5.3090
 4.3570	 5.2630
 4.3610	 5.2400
 4.3650	 5.2040
 4.3680	 5.2430
 4.3720	 5.2420
 4.3760	 5.2690
 4.3800	 5.2780
 4.3830	 5.2660
 4.3870	 5.2880
 4.3910	 5.2830
 4.3940	 5.2540
 4.3980	 5.2110
 4.4020	 5.2010
 4.4060	 5.2320
 4.4090	 5.1950
 4.4130	 5.1670
 4.4170	 5.2130
 4.4210	 5.2140
 4.4240	 5.1850
 4.4280	 5.1790
 4.4320	 5.1960
 4.4360	 5.1920
 4.4400	 5.1630
 4.4430	 5.1390
 4.4470	 5.1550
 4.4510	 5.1530
 4.4550	 5.1050
 4.4590	 5.1010
 4.4620	 5.1210
 4.4660	 5.1820
 4.4700	 5.1800
 4.4740	 5.1100
 4.4780	 5.1040
 4.4820	 5.1400
 4.4860	 5.1380
 4.4900	 5.1470
 4.4930	 5.1940
 4.4970	 5.1920
 4.5010	 5.1390
 4.5050	 5.1350
 4.5090	 5.1250
 4.5130	 5.0840
 4.5170	 5.1140
 4.5210	 5.1270
 4.5250	 5.1170
 4.5290	 5.1250
 4.5330	 5.1100
 4.5370	 5.0560
 4.5410	 5.0480
 4.5450	 5.0300
 4.5490	 5.0080
 4.5530	 5.0540
 4.5570	 5.0910
 4.5610	 5.0820
 4.5650	 5.1110
 4.5690	 5.0940
 4.5730	 5.0040
 4.5770	 4.9480
 4.5810	 4.9770
 4.5850	 5.0670
 4.5890	 5.0530
 4.5930	 5.0380
 4.5970	 5.0270
 4.6010	 5.0030
 4.6050	 5.0210
 4.6090	 4.9580
 4.6130	 4.9560
 4.6170	 5.0650
 4.6220	 5.0310
 4.6260	 5.0100
 4.6300	 5.0420
 4.6340	 5.0740
 4.6380	 5.0460
 4.6420	 4.9980
 4.6460	 4.9860
 4.6510	 4.9870
 4.6550	 4.9790
 4.6590	 4.9740
 4.6630	 5.0050
 4.6670	 4.9710
 4.6720	 4.9330
 4.6760	 4.9520
 4.6800	 4.9640
 4.6840	 4.9540
 4.6880	 5.0090
 4.6930	 4.9980
 4.6970	 4.9380
 4.7010	 4.9370
 4.7050	 4.9500
 4.7100	 4.9520
 4.7140	 4.9680
 4.7180	 4.9840
 4.7230	 4.9730
 4.7270	 4.9570
 4.7310	 4.9700
 4.7360	 4.9450
 4.7400	 4.9860
 4.7440	 5.0190
 4.7490	 5.0090
 4.7530	 4.9930
 4.7570	 4.9960
 4.7620	 4.9950
 4.7660	 5.0020
 4.7700	 5.0350
 4.7750	 4.9850
 4.7790	 4.8600
 4.7840	 4.9050
 4.7880	 4.9300
 4.7920	 4.9440
 4.7970	 4.9160
 4.8010	 4.8600
 4.8060	 4.8720
 4.8100	 4.9580
 4.8150	 4.9600
 4.8190	 4.9500
 4.8240	 4.9430
 4.8280	 4.9260
 4.8330	 4.9100
 4.8370	 4.8820
 4.8420	 4.9330
 4.8460	 4.9780
 4.8510	 4.9660
 4.8550	 5.0140
 4.8600	 5.0200
 4.8640	 4.9900
 4.8690	 4.9720
 4.8730	 4.9620
 4.8780	 5.0440
 4.8830	 5.0390
 4.8870	 4.9680
 4.8920	 4.9670
 4.8960	 4.9400
 4.9010	 4.9130
 4.9060	 4.9830
 4.9100	 4.9920
 4.9150	 4.9480
 4.9200	 4.9400
 4.9240	 4.9290
 4.9290	 4.9650
 4.9340	 4.9850
 4.9380	 4.9650
 4.9430	 4.9330
 4.9480	 4.9670
 4.9530	 4.9550
 4.9570	 4.9090
 4.9620	 4.9790
 4.9670	 5.0680
 4.9720	 5.0910
 4.9760	 5.0850
 4.9810	 4.9860
 4.9860	 4.9190
 4.9910	 4.9380
 4.9960	 4.9820
 5.0000	 5.0270
 5.0050	 5.0350
 5.0100	 4.9960
 5.0150	 4.9860
 5.0200	 4.9990
 5.0250	 5.0580
 5.0290	 5.0110
 5.0340	 5.0180
 5.0390	 5.0440
 5.0440	 5.0150
 5.0490	 4.9920
 5.0540	 5.0230
 5.0590	 5.0510
 5.0640	 5.0420
 5.0690	 4.9990
 5.0740	 5.0350
 5.0790	 5.0450
 5.0840	 5.0360
 5.0890	 5.0380
 5.0940	 5.0410
 5.0990	 5.0190
 5.1040	 5.0540
 5.1090	 5.1010
 5.1140	 5.0830
 5.1190	 5.0380
 5.1240	 5.0400
 5.1290	 5.0620
 5.1340	 5.0820
 5.1390	 5.0860
 5.1440	 5.0620
 5.1490	 5.0740
 5.1540	 5.0730
 5.1600	 4.9990
 5.1650	 4.9720
 5.1700	 4.9600
 5.1750	 4.9770
 5.1800	 5.0030
 5.1850	 5.0350
 5.1910	 5.0130
 5.1960	 4.9980
 5.2010	 4.9820
 5.2060	 5.0070
 5.2110	 4.9860
 5.2170	 5.0070
 5.2220	 5.0500
 5.2270	 5.0730
 5.2320	 5.0330
 5.2380	 5.0650
 5.2430	 5.0820
 5.2480	 5.0190
 5.2540	 4.9740
 5.2590	 4.9900
 5.2640	 4.9540
 5.2700	 4.9500
 5.2750	 4.9910
 5.2800	 5.0030
 5.2860	 4.9630
 5.2910	 4.9540
 5.2970	 4.9920
 5.3020	 5.0180
 5.3070	 4.9850
 5.3130	 4.9480
 5.3180	 4.9190
 5.3240	 4.9770
 5.3290	 5.0030
 5.3350	 4.9670
 5.3400	 4.9060
 5.3460	 4.9410
 5.3510	 4.9050
 5.3570	 4.8460
 5.3620	 4.8510
 5.3680	 4.9340
 5.3730	 4.9340
 5.3790	 4.8970
 5.3850	 4.8520
 5.3900	 4.8390
 5.3960	 4.8310
 5.4010	 4.8320
 5.4070	 4.8280
 5.4130	 4.9280
 5.4180	 4.9210
 5.4240	 4.9020
 5.4300	 4.8840
