Name: Salix babylonica
Type: vegetation
Class: Tree
Genus: Salix
Species: babylonica
Sample No.: JPL129
Owner: JPL
Wavelength Range: VSWIR
Origin: 34.12797; -118.11609;; WGS84
Collection Date: 9/7/2016
Description: Samples were collected at the Huntington Garden in San Marino California as part of a JPL Subcontract studying HyTES imagery. Samples were taken to JPL and processed within 48 hours of collection. The same leaves were processed in the Nicolet and then measured using the ASD.
Measurement: Bidirectional reflectance
First Column: X
Second Column: Y
X Units: Wavelength (micrometer)
Y Units: Reflectance (percentage)
First X Value: 0.35
Last X Value: 2.5
Number of X Values: 2151
Additional Information: vegetation.tree.salix.babylonica.vswir.jpl129.jpl.asd.ancillary.txt

 0.3500	 5.8890
 0.3510	 5.7930
 0.3520	 5.8320
 0.3530	 5.8680
 0.3540	 5.7870
 0.3550	 5.7390
 0.3560	 5.7210
 0.3570	 5.7110
 0.3580	 5.6830
 0.3590	 5.6950
 0.3600	 5.6970
 0.3610	 5.6700
 0.3620	 5.6470
 0.3630	 5.6460
 0.3640	 5.6600
 0.3650	 5.6700
 0.3660	 5.6220
 0.3670	 5.5870
 0.3680	 5.5940
 0.3690	 5.6360
 0.3700	 5.6600
 0.3710	 5.6660
 0.3720	 5.6560
 0.3730	 5.6290
 0.3740	 5.6010
 0.3750	 5.5710
 0.3760	 5.5450
 0.3770	 5.5750
 0.3780	 5.5970
 0.3790	 5.6000
 0.3800	 5.6150
 0.3810	 5.5860
 0.3820	 5.5640
 0.3830	 5.5770
 0.3840	 5.5840
 0.3850	 5.5770
 0.3860	 5.5730
 0.3870	 5.5870
 0.3880	 5.5530
 0.3890	 5.5300
 0.3900	 5.5340
 0.3910	 5.5270
 0.3920	 5.5470
 0.3930	 5.5660
 0.3940	 5.5590
 0.3950	 5.5480
 0.3960	 5.5520
 0.3970	 5.5680
 0.3980	 5.5780
 0.3990	 5.5770
 0.4000	 5.5620
 0.4010	 5.5370
 0.4020	 5.5080
 0.4030	 5.5250
 0.4040	 5.5460
 0.4050	 5.5330
 0.4060	 5.5440
 0.4070	 5.5520
 0.4080	 5.5580
 0.4090	 5.5750
 0.4100	 5.5780
 0.4110	 5.5740
 0.4120	 5.5730
 0.4130	 5.5740
 0.4140	 5.5620
 0.4150	 5.5600
 0.4160	 5.5870
 0.4170	 5.5880
 0.4180	 5.5890
 0.4190	 5.5960
 0.4200	 5.5930
 0.4210	 5.5910
 0.4220	 5.5960
 0.4230	 5.6060
 0.4240	 5.6120
 0.4250	 5.6180
 0.4260	 5.6210
 0.4270	 5.6120
 0.4280	 5.6040
 0.4290	 5.6030
 0.4300	 5.6090
 0.4310	 5.6020
 0.4320	 5.5910
 0.4330	 5.5820
 0.4340	 5.5790
 0.4350	 5.5820
 0.4360	 5.5840
 0.4370	 5.5840
 0.4380	 5.5840
 0.4390	 5.5940
 0.4400	 5.6070
 0.4410	 5.6170
 0.4420	 5.6210
 0.4430	 5.6230
 0.4440	 5.6240
 0.4450	 5.6280
 0.4460	 5.6350
 0.4470	 5.6370
 0.4480	 5.6380
 0.4490	 5.6530
 0.4500	 5.6650
 0.4510	 5.6720
 0.4520	 5.6750
 0.4530	 5.6670
 0.4540	 5.6720
 0.4550	 5.6850
 0.4560	 5.6890
 0.4570	 5.6960
 0.4580	 5.6990
 0.4590	 5.6940
 0.4600	 5.6900
 0.4610	 5.6950
 0.4620	 5.7030
 0.4630	 5.7070
 0.4640	 5.7020
 0.4650	 5.7040
 0.4660	 5.7110
 0.4670	 5.7110
 0.4680	 5.7080
 0.4690	 5.7070
 0.4700	 5.7080
 0.4710	 5.7130
 0.4720	 5.7140
 0.4730	 5.7150
 0.4740	 5.7190
 0.4750	 5.7190
 0.4760	 5.7210
 0.4770	 5.7260
 0.4780	 5.7300
 0.4790	 5.7370
 0.4800	 5.7380
 0.4810	 5.7290
 0.4820	 5.7270
 0.4830	 5.7330
 0.4840	 5.7400
 0.4850	 5.7430
 0.4860	 5.7470
 0.4870	 5.7510
 0.4880	 5.7560
 0.4890	 5.7640
 0.4900	 5.7750
 0.4910	 5.7860
 0.4920	 5.8000
 0.4930	 5.8190
 0.4940	 5.8400
 0.4950	 5.8600
 0.4960	 5.8760
 0.4970	 5.8940
 0.4980	 5.9200
 0.4990	 5.9560
 0.5000	 5.9950
 0.5010	 6.0320
 0.5020	 6.0710
 0.5030	 6.1170
 0.5040	 6.1690
 0.5050	 6.2290
 0.5060	 6.2970
 0.5070	 6.3660
 0.5080	 6.4440
 0.5090	 6.5340
 0.5100	 6.6360
 0.5110	 6.7500
 0.5120	 6.8720
 0.5130	 7.0010
 0.5140	 7.1450
 0.5150	 7.3040
 0.5160	 7.4740
 0.5170	 7.6550
 0.5180	 7.8470
 0.5190	 8.0490
 0.5200	 8.2580
 0.5210	 8.4750
 0.5220	 8.6960
 0.5230	 8.9160
 0.5240	 9.1330
 0.5250	 9.3440
 0.5260	 9.5490
 0.5270	 9.7460
 0.5280	 9.9310
 0.5290	10.1030
 0.5300	10.2610
 0.5310	10.4060
 0.5320	10.5390
 0.5330	10.6600
 0.5340	10.7710
 0.5350	10.8680
 0.5360	10.9500
 0.5370	11.0210
 0.5380	11.0870
 0.5390	11.1480
 0.5400	11.2000
 0.5410	11.2500
 0.5420	11.2990
 0.5430	11.3360
 0.5440	11.3710
 0.5450	11.4070
 0.5460	11.4420
 0.5470	11.4710
 0.5480	11.4960
 0.5490	11.5190
 0.5500	11.5390
 0.5510	11.5530
 0.5520	11.5550
 0.5530	11.5460
 0.5540	11.5270
 0.5550	11.4960
 0.5560	11.4490
 0.5570	11.3850
 0.5580	11.3080
 0.5590	11.2220
 0.5600	11.1250
 0.5610	11.0170
 0.5620	10.9000
 0.5630	10.7790
 0.5640	10.6580
 0.5650	10.5340
 0.5660	10.4070
 0.5670	10.2770
 0.5680	10.1470
 0.5690	10.0110
 0.5700	 9.8740
 0.5710	 9.7400
 0.5720	 9.6090
 0.5730	 9.4800
 0.5740	 9.3570
 0.5750	 9.2410
 0.5760	 9.1300
 0.5770	 9.0240
 0.5780	 8.9230
 0.5790	 8.8270
 0.5800	 8.7380
 0.5810	 8.6580
 0.5820	 8.5920
 0.5830	 8.5360
 0.5840	 8.4850
 0.5850	 8.4340
 0.5860	 8.3840
 0.5870	 8.3350
 0.5880	 8.2890
 0.5890	 8.2480
 0.5900	 8.2120
 0.5910	 8.1760
 0.5920	 8.1400
 0.5930	 8.1080
 0.5940	 8.0800
 0.5950	 8.0540
 0.5960	 8.0320
 0.5970	 8.0100
 0.5980	 7.9860
 0.5990	 7.9620
 0.6000	 7.9390
 0.6010	 7.9130
 0.6020	 7.8840
 0.6030	 7.8500
 0.6040	 7.8120
 0.6050	 7.7690
 0.6060	 7.7220
 0.6070	 7.6710
 0.6080	 7.6170
 0.6090	 7.5600
 0.6100	 7.4980
 0.6110	 7.4320
 0.6120	 7.3760
 0.6130	 7.3240
 0.6140	 7.2730
 0.6150	 7.2210
 0.6160	 7.1730
 0.6170	 7.1260
 0.6180	 7.0810
 0.6190	 7.0390
 0.6200	 7.0010
 0.6210	 6.9680
 0.6220	 6.9400
 0.6230	 6.9150
 0.6240	 6.8930
 0.6250	 6.8770
 0.6260	 6.8630
 0.6270	 6.8500
 0.6280	 6.8390
 0.6290	 6.8300
 0.6300	 6.8200
 0.6310	 6.8090
 0.6320	 6.7970
 0.6330	 6.7850
 0.6340	 6.7670
 0.6350	 6.7440
 0.6360	 6.7150
 0.6370	 6.6790
 0.6380	 6.6400
 0.6390	 6.5980
 0.6400	 6.5520
 0.6410	 6.5030
 0.6420	 6.4520
 0.6430	 6.4010
 0.6440	 6.3530
 0.6450	 6.3070
 0.6460	 6.2640
 0.6470	 6.2220
 0.6480	 6.1860
 0.6490	 6.1550
 0.6500	 6.1280
 0.6510	 6.1080
 0.6520	 6.0900
 0.6530	 6.0730
 0.6540	 6.0570
 0.6550	 6.0450
 0.6560	 6.0250
 0.6570	 6.0020
 0.6580	 5.9800
 0.6590	 5.9560
 0.6600	 5.9310
 0.6610	 5.9050
 0.6620	 5.8790
 0.6630	 5.8570
 0.6640	 5.8380
 0.6650	 5.8220
 0.6660	 5.8090
 0.6670	 5.7990
 0.6680	 5.7940
 0.6690	 5.7940
 0.6700	 5.7950
 0.6710	 5.7980
 0.6720	 5.8070
 0.6730	 5.8210
 0.6740	 5.8370
 0.6750	 5.8520
 0.6760	 5.8680
 0.6770	 5.8920
 0.6780	 5.9190
 0.6790	 5.9480
 0.6800	 5.9790
 0.6810	 6.0140
 0.6820	 6.0530
 0.6830	 6.0960
 0.6840	 6.1450
 0.6850	 6.2030
 0.6860	 6.2690
 0.6870	 6.3470
 0.6880	 6.4440
 0.6890	 6.5670
 0.6900	 6.7200
 0.6910	 6.9110
 0.6920	 7.1490
 0.6930	 7.4390
 0.6940	 7.7870
 0.6950	 8.1950
 0.6960	 8.6650
 0.6970	 9.1950
 0.6980	 9.7820
 0.6990	10.4200
 0.7000	11.1040
 0.7010	11.8290
 0.7020	12.5880
 0.7030	13.3730
 0.7040	14.1780
 0.7050	14.9980
 0.7060	15.8330
 0.7070	16.6710
 0.7080	17.5130
 0.7090	18.3610
 0.7100	19.2120
 0.7110	20.0680
 0.7120	20.9260
 0.7130	21.7770
 0.7140	22.6250
 0.7150	23.4700
 0.7160	24.3070
 0.7170	25.1360
 0.7180	25.9530
 0.7190	26.7580
 0.7200	27.5510
 0.7210	28.3270
 0.7220	29.0810
 0.7230	29.8140
 0.7240	30.5230
 0.7250	31.2090
 0.7260	31.8690
 0.7270	32.4990
 0.7280	33.1030
 0.7290	33.6770
 0.7300	34.2210
 0.7310	34.7390
 0.7320	35.2280
 0.7330	35.6900
 0.7340	36.1250
 0.7350	36.5340
 0.7360	36.9170
 0.7370	37.2750
 0.7380	37.6090
 0.7390	37.9190
 0.7400	38.2110
 0.7410	38.4820
 0.7420	38.7320
 0.7430	38.9640
 0.7440	39.1780
 0.7450	39.3720
 0.7460	39.5490
 0.7470	39.7120
 0.7480	39.8630
 0.7490	39.9990
 0.7500	40.1220
 0.7510	40.2340
 0.7520	40.3350
 0.7530	40.4300
 0.7540	40.5150
 0.7550	40.5910
 0.7560	40.6590
 0.7570	40.7210
 0.7580	40.7790
 0.7590	40.8310
 0.7600	40.8770
 0.7610	40.9180
 0.7620	40.9560
 0.7630	40.9910
 0.7640	41.0230
 0.7650	41.0490
 0.7660	41.0730
 0.7670	41.0950
 0.7680	41.1130
 0.7690	41.1310
 0.7700	41.1460
 0.7710	41.1590
 0.7720	41.1740
 0.7730	41.1850
 0.7740	41.1940
 0.7750	41.2020
 0.7760	41.2110
 0.7770	41.2210
 0.7780	41.2300
 0.7790	41.2340
 0.7800	41.2400
 0.7810	41.2450
 0.7820	41.2500
 0.7830	41.2530
 0.7840	41.2550
 0.7850	41.2560
 0.7860	41.2570
 0.7870	41.2570
 0.7880	41.2560
 0.7890	41.2540
 0.7900	41.2520
 0.7910	41.2490
 0.7920	41.2460
 0.7930	41.2410
 0.7940	41.2350
 0.7950	41.2290
 0.7960	41.2200
 0.7970	41.2100
 0.7980	41.2030
 0.7990	41.1940
 0.8000	41.1820
 0.8010	41.1690
 0.8020	41.1570
 0.8030	41.1430
 0.8040	41.1300
 0.8050	41.1170
 0.8060	41.1030
 0.8070	41.0880
 0.8080	41.0730
 0.8090	41.0580
 0.8100	41.0410
 0.8110	41.0240
 0.8120	41.0050
 0.8130	40.9860
 0.8140	40.9670
 0.8150	40.9480
 0.8160	40.9320
 0.8170	40.9110
 0.8180	40.8920
 0.8190	40.8760
 0.8200	40.8570
 0.8210	40.8370
 0.8220	40.8160
 0.8230	40.7970
 0.8240	40.7770
 0.8250	40.7580
 0.8260	40.7380
 0.8270	40.7190
 0.8280	40.7010
 0.8290	40.6800
 0.8300	40.6570
 0.8310	40.6370
 0.8320	40.6190
 0.8330	40.6030
 0.8340	40.5850
 0.8350	40.5650
 0.8360	40.5480
 0.8370	40.5340
 0.8380	40.5210
 0.8390	40.5050
 0.8400	40.4910
 0.8410	40.4800
 0.8420	40.4730
 0.8430	40.4610
 0.8440	40.4480
 0.8450	40.4370
 0.8460	40.4280
 0.8470	40.4210
 0.8480	40.4110
 0.8490	40.4000
 0.8500	40.3930
 0.8510	40.3900
 0.8520	40.3840
 0.8530	40.3770
 0.8540	40.3700
 0.8550	40.3650
 0.8560	40.3620
 0.8570	40.3590
 0.8580	40.3550
 0.8590	40.3530
 0.8600	40.3530
 0.8610	40.3530
 0.8620	40.3540
 0.8630	40.3530
 0.8640	40.3530
 0.8650	40.3570
 0.8660	40.3540
 0.8670	40.3530
 0.8680	40.3550
 0.8690	40.3580
 0.8700	40.3630
 0.8710	40.3660
 0.8720	40.3700
 0.8730	40.3780
 0.8740	40.3830
 0.8750	40.3870
 0.8760	40.3930
 0.8770	40.4020
 0.8780	40.4050
 0.8790	40.4110
 0.8800	40.4210
 0.8810	40.4270
 0.8820	40.4370
 0.8830	40.4450
 0.8840	40.4480
 0.8850	40.4540
 0.8860	40.4600
 0.8870	40.4660
 0.8880	40.4750
 0.8890	40.4840
 0.8900	40.4940
 0.8910	40.5030
 0.8920	40.5080
 0.8930	40.5160
 0.8940	40.5220
 0.8950	40.5280
 0.8960	40.5380
 0.8970	40.5490
 0.8980	40.5550
 0.8990	40.5580
 0.9000	40.5620
 0.9010	40.5670
 0.9020	40.5750
 0.9030	40.5830
 0.9040	40.5910
 0.9050	40.5980
 0.9060	40.6050
 0.9070	40.6140
 0.9080	40.6170
 0.9090	40.6190
 0.9100	40.6200
 0.9110	40.6190
 0.9120	40.6220
 0.9130	40.6260
 0.9140	40.6290
 0.9150	40.6270
 0.9160	40.6250
 0.9170	40.6260
 0.9180	40.6260
 0.9190	40.6190
 0.9200	40.6160
 0.9210	40.6100
 0.9220	40.6020
 0.9230	40.6020
 0.9240	40.5960
 0.9250	40.5860
 0.9260	40.5740
 0.9270	40.5620
 0.9280	40.5430
 0.9290	40.5310
 0.9300	40.5250
 0.9310	40.5030
 0.9320	40.4860
 0.9330	40.4710
 0.9340	40.4530
 0.9350	40.4330
 0.9360	40.4160
 0.9370	40.3950
 0.9380	40.3670
 0.9390	40.3440
 0.9400	40.3230
 0.9410	40.2990
 0.9420	40.2720
 0.9430	40.2490
 0.9440	40.2240
 0.9450	40.1940
 0.9460	40.1580
 0.9470	40.1090
 0.9480	40.0760
 0.9490	40.0450
 0.9500	40.0010
 0.9510	39.9620
 0.9520	39.9150
 0.9530	39.8620
 0.9540	39.8100
 0.9550	39.7650
 0.9560	39.7230
 0.9570	39.6810
 0.9580	39.6350
 0.9590	39.6010
 0.9600	39.5710
 0.9610	39.5400
 0.9620	39.5060
 0.9630	39.4680
 0.9640	39.4450
 0.9650	39.4300
 0.9660	39.4080
 0.9670	39.3870
 0.9680	39.3670
 0.9690	39.3500
 0.9700	39.3350
 0.9710	39.3190
 0.9720	39.3120
 0.9730	39.3090
 0.9740	39.3020
 0.9750	39.2710
 0.9760	39.2580
 0.9770	39.2610
 0.9780	39.2570
 0.9790	39.2390
 0.9800	39.2390
 0.9810	39.2470
 0.9820	39.2400
 0.9830	39.2230
 0.9840	39.2160
 0.9850	39.2210
 0.9860	39.2300
 0.9870	39.2360
 0.9880	39.2330
 0.9890	39.2280
 0.9900	39.2300
 0.9910	39.2260
 0.9920	39.2220
 0.9930	39.2290
 0.9940	39.2460
 0.9950	39.2380
 0.9960	39.2370
 0.9970	39.2530
 0.9980	39.2790
 0.9990	39.2710
 1.0000	39.2750
 1.0010	39.3350
 1.0020	39.3400
 1.0030	39.3410
 1.0040	39.3450
 1.0050	39.3520
 1.0060	39.3610
 1.0070	39.3700
 1.0080	39.3770
 1.0090	39.3810
 1.0100	39.3880
 1.0110	39.3910
 1.0120	39.3990
 1.0130	39.4140
 1.0140	39.4230
 1.0150	39.4310
 1.0160	39.4360
 1.0170	39.4380
 1.0180	39.4430
 1.0190	39.4510
 1.0200	39.4590
 1.0210	39.4660
 1.0220	39.4720
 1.0230	39.4790
 1.0240	39.4860
 1.0250	39.4930
 1.0260	39.5010
 1.0270	39.5070
 1.0280	39.5080
 1.0290	39.5130
 1.0300	39.5190
 1.0310	39.5240
 1.0320	39.5300
 1.0330	39.5380
 1.0340	39.5450
 1.0350	39.5520
 1.0360	39.5600
 1.0370	39.5680
 1.0380	39.5730
 1.0390	39.5760
 1.0400	39.5790
 1.0410	39.5790
 1.0420	39.5830
 1.0430	39.5870
 1.0440	39.5910
 1.0450	39.5970
 1.0460	39.6010
 1.0470	39.6020
 1.0480	39.6040
 1.0490	39.6030
 1.0500	39.6040
 1.0510	39.6060
 1.0520	39.6100
 1.0530	39.6120
 1.0540	39.6150
 1.0550	39.6160
 1.0560	39.6170
 1.0570	39.6190
 1.0580	39.6210
 1.0590	39.6220
 1.0600	39.6240
 1.0610	39.6240
 1.0620	39.6220
 1.0630	39.6230
 1.0640	39.6270
 1.0650	39.6280
 1.0660	39.6280
 1.0670	39.6290
 1.0680	39.6280
 1.0690	39.6230
 1.0700	39.6220
 1.0710	39.6240
 1.0720	39.6240
 1.0730	39.6230
 1.0740	39.6210
 1.0750	39.6180
 1.0760	39.6160
 1.0770	39.6150
 1.0780	39.6120
 1.0790	39.6110
 1.0800	39.6090
 1.0810	39.6040
 1.0820	39.6010
 1.0830	39.5970
 1.0840	39.5930
 1.0850	39.5900
 1.0860	39.5890
 1.0870	39.5850
 1.0880	39.5810
 1.0890	39.5770
 1.0900	39.5700
 1.0910	39.5650
 1.0920	39.5610
 1.0930	39.5570
 1.0940	39.5540
 1.0950	39.5490
 1.0960	39.5440
 1.0970	39.5380
 1.0980	39.5280
 1.0990	39.5210
 1.1000	39.5160
 1.1010	39.5100
 1.1020	39.5040
 1.1030	39.4990
 1.1040	39.4910
 1.1050	39.4830
 1.1060	39.4750
 1.1070	39.4680
 1.1080	39.4590
 1.1090	39.4480
 1.1100	39.4390
 1.1110	39.4300
 1.1120	39.4190
 1.1130	39.4100
 1.1140	39.4000
 1.1150	39.3870
 1.1160	39.3740
 1.1170	39.3610
 1.1180	39.3450
 1.1190	39.3260
 1.1200	39.3080
 1.1210	39.2870
 1.1220	39.2650
 1.1230	39.2420
 1.1240	39.2170
 1.1250	39.1880
 1.1260	39.1590
 1.1270	39.1240
 1.1280	39.0870
 1.1290	39.0450
 1.1300	39.0000
 1.1310	38.9480
 1.1320	38.8920
 1.1330	38.8330
 1.1340	38.7680
 1.1350	38.6990
 1.1360	38.6280
 1.1370	38.5520
 1.1380	38.4710
 1.1390	38.3860
 1.1400	38.2980
 1.1410	38.2090
 1.1420	38.1170
 1.1430	38.0260
 1.1440	37.9350
 1.1450	37.8410
 1.1460	37.7530
 1.1470	37.6650
 1.1480	37.5820
 1.1490	37.5000
 1.1500	37.4240
 1.1510	37.3490
 1.1520	37.2820
 1.1530	37.2210
 1.1540	37.1630
 1.1550	37.1110
 1.1560	37.0610
 1.1570	37.0160
 1.1580	36.9760
 1.1590	36.9410
 1.1600	36.9110
 1.1610	36.8840
 1.1620	36.8610
 1.1630	36.8410
 1.1640	36.8230
 1.1650	36.8070
 1.1660	36.7950
 1.1670	36.7820
 1.1680	36.7720
 1.1690	36.7610
 1.1700	36.7510
 1.1710	36.7420
 1.1720	36.7330
 1.1730	36.7240
 1.1740	36.7150
 1.1750	36.7070
 1.1760	36.6990
 1.1770	36.6900
 1.1780	36.6790
 1.1790	36.6700
 1.1800	36.6600
 1.1810	36.6500
 1.1820	36.6420
 1.1830	36.6310
 1.1840	36.6190
 1.1850	36.6060
 1.1860	36.5930
 1.1870	36.5810
 1.1880	36.5700
 1.1890	36.5610
 1.1900	36.5520
 1.1910	36.5430
 1.1920	36.5350
 1.1930	36.5290
 1.1940	36.5230
 1.1950	36.5180
 1.1960	36.5140
 1.1970	36.5120
 1.1980	36.5090
 1.1990	36.5070
 1.2000	36.5070
 1.2010	36.5060
 1.2020	36.5060
 1.2030	36.5080
 1.2040	36.5110
 1.2050	36.5140
 1.2060	36.5180
 1.2070	36.5230
 1.2080	36.5290
 1.2090	36.5320
 1.2100	36.5390
 1.2110	36.5450
 1.2120	36.5500
 1.2130	36.5580
 1.2140	36.5680
 1.2150	36.5780
 1.2160	36.5870
 1.2170	36.5990
 1.2180	36.6090
 1.2190	36.6200
 1.2200	36.6310
 1.2210	36.6420
 1.2220	36.6530
 1.2230	36.6650
 1.2240	36.6770
 1.2250	36.6880
 1.2260	36.7010
 1.2270	36.7130
 1.2280	36.7220
 1.2290	36.7310
 1.2300	36.7400
 1.2310	36.7480
 1.2320	36.7570
 1.2330	36.7650
 1.2340	36.7730
 1.2350	36.7780
 1.2360	36.7850
 1.2370	36.7930
 1.2380	36.8000
 1.2390	36.8060
 1.2400	36.8120
 1.2410	36.8170
 1.2420	36.8210
 1.2430	36.8260
 1.2440	36.8320
 1.2450	36.8370
 1.2460	36.8430
 1.2470	36.8480
 1.2480	36.8510
 1.2490	36.8540
 1.2500	36.8560
 1.2510	36.8580
 1.2520	36.8600
 1.2530	36.8620
 1.2540	36.8630
 1.2550	36.8630
 1.2560	36.8630
 1.2570	36.8630
 1.2580	36.8610
 1.2590	36.8590
 1.2600	36.8570
 1.2610	36.8530
 1.2620	36.8490
 1.2630	36.8450
 1.2640	36.8410
 1.2650	36.8360
 1.2660	36.8300
 1.2670	36.8230
 1.2680	36.8150
 1.2690	36.8070
 1.2700	36.7980
 1.2710	36.7870
 1.2720	36.7760
 1.2730	36.7660
 1.2740	36.7550
 1.2750	36.7410
 1.2760	36.7290
 1.2770	36.7150
 1.2780	36.7000
 1.2790	36.6850
 1.2800	36.6690
 1.2810	36.6530
 1.2820	36.6340
 1.2830	36.6160
 1.2840	36.5960
 1.2850	36.5740
 1.2860	36.5520
 1.2870	36.5290
 1.2880	36.5030
 1.2890	36.4770
 1.2900	36.4500
 1.2910	36.4200
 1.2920	36.3930
 1.2930	36.3630
 1.2940	36.3310
 1.2950	36.2990
 1.2960	36.2650
 1.2970	36.2310
 1.2980	36.1940
 1.2990	36.1560
 1.3000	36.1160
 1.3010	36.0740
 1.3020	36.0320
 1.3030	35.9900
 1.3040	35.9460
 1.3050	35.9000
 1.3060	35.8530
 1.3070	35.8030
 1.3080	35.7540
 1.3090	35.7020
 1.3100	35.6490
 1.3110	35.5940
 1.3120	35.5350
 1.3130	35.4750
 1.3140	35.4140
 1.3150	35.3490
 1.3160	35.2840
 1.3170	35.2180
 1.3180	35.1490
 1.3190	35.0780
 1.3200	35.0060
 1.3210	34.9300
 1.3220	34.8540
 1.3230	34.7760
 1.3240	34.6960
 1.3250	34.6150
 1.3260	34.5310
 1.3270	34.4460
 1.3280	34.3610
 1.3290	34.2730
 1.3300	34.1830
 1.3310	34.0920
 1.3320	33.9990
 1.3330	33.9080
 1.3340	33.8150
 1.3350	33.7210
 1.3360	33.6250
 1.3370	33.5290
 1.3380	33.4330
 1.3390	33.3380
 1.3400	33.2440
 1.3410	33.1510
 1.3420	33.0570
 1.3430	32.9640
 1.3440	32.8720
 1.3450	32.7790
 1.3460	32.6850
 1.3470	32.5930
 1.3480	32.5010
 1.3490	32.4100
 1.3500	32.3200
 1.3510	32.2310
 1.3520	32.1410
 1.3530	32.0510
 1.3540	31.9610
 1.3550	31.8700
 1.3560	31.7790
 1.3570	31.6860
 1.3580	31.5930
 1.3590	31.4970
 1.3600	31.3990
 1.3610	31.2990
 1.3620	31.1940
 1.3630	31.0860
 1.3640	30.9730
 1.3650	30.8550
 1.3660	30.7320
 1.3670	30.6010
 1.3680	30.4620
 1.3690	30.3140
 1.3700	30.1540
 1.3710	29.9840
 1.3720	29.8020
 1.3730	29.6050
 1.3740	29.3970
 1.3750	29.1750
 1.3760	28.9350
 1.3770	28.6780
 1.3780	28.4000
 1.3790	28.1020
 1.3800	27.7870
 1.3810	27.4490
 1.3820	27.0960
 1.3830	26.7260
 1.3840	26.3380
 1.3850	25.9310
 1.3860	25.5130
 1.3870	25.0770
 1.3880	24.6360
 1.3890	24.1840
 1.3900	23.7230
 1.3910	23.2600
 1.3920	22.7900
 1.3930	22.3160
 1.3940	21.8440
 1.3950	21.3690
 1.3960	20.9000
 1.3970	20.4400
 1.3980	19.9880
 1.3990	19.5540
 1.4000	19.1310
 1.4010	18.7200
 1.4020	18.3280
 1.4030	17.9480
 1.4040	17.5860
 1.4050	17.2440
 1.4060	16.9180
 1.4070	16.6150
 1.4080	16.3290
 1.4090	16.0590
 1.4100	15.8080
 1.4110	15.5720
 1.4120	15.3530
 1.4130	15.1510
 1.4140	14.9630
 1.4150	14.7920
 1.4160	14.6350
 1.4170	14.4890
 1.4180	14.3560
 1.4190	14.2320
 1.4200	14.1170
 1.4210	14.0130
 1.4220	13.9190
 1.4230	13.8340
 1.4240	13.7570
 1.4250	13.6860
 1.4260	13.6230
 1.4270	13.5650
 1.4280	13.5120
 1.4290	13.4660
 1.4300	13.4250
 1.4310	13.3890
 1.4320	13.3590
 1.4330	13.3320
 1.4340	13.3100
 1.4350	13.2900
 1.4360	13.2740
 1.4370	13.2630
 1.4380	13.2540
 1.4390	13.2480
 1.4400	13.2450
 1.4410	13.2440
 1.4420	13.2460
 1.4430	13.2500
 1.4440	13.2560
 1.4450	13.2630
 1.4460	13.2710
 1.4470	13.2820
 1.4480	13.2940
 1.4490	13.3070
 1.4500	13.3220
 1.4510	13.3370
 1.4520	13.3540
 1.4530	13.3720
 1.4540	13.3920
 1.4550	13.4140
 1.4560	13.4380
 1.4570	13.4640
 1.4580	13.4930
 1.4590	13.5240
 1.4600	13.5590
 1.4610	13.5970
 1.4620	13.6390
 1.4630	13.6850
 1.4640	13.7340
 1.4650	13.7880
 1.4660	13.8460
 1.4670	13.9080
 1.4680	13.9750
 1.4690	14.0460
 1.4700	14.1200
 1.4710	14.1990
 1.4720	14.2790
 1.4730	14.3620
 1.4740	14.4490
 1.4750	14.5380
 1.4760	14.6300
 1.4770	14.7250
 1.4780	14.8210
