Name: Pinus lambertiana 2
Type: vegetation
Class: Tree
Genus: Pinus
Species: lambertiana
Sample No.: VH162
Owner: UCSB
Wavelength Range: VSWIR
Origin: 37.0422; -119.3028; WGS84
Collection Date: 6/8/2013
Description: Samples were collected as part of the HyspIRI Airborne Campaign. 48 individual plants were sampled in three times in 2013 - spring  summer  and fall. The name of the sample includes a 1  2  or 3 which references a different individual of the species. Samples were taken to JPL and processed within 48 hours of collection. The same leaves were processed in the Nicolet and then measured using the ASD.
Measurement: Bidirectional reflectance
First Column: X
Second Column: Y
X Units: Wavelength (micrometers)
Y Units: Reflectance (percentage)
First X Value: 0.35
Last X Value: 2.5
Number of X Values: 2151
Additional Information: vegetation.tree.pinus.lambertiana.vswir.vh162.ucsb.asd.ancillary.txt

 0.3500	 6.9130
 0.3510	 7.0010
 0.3520	 6.8750
 0.3530	 6.7510
 0.3540	 6.8280
 0.3550	 6.9740
 0.3560	 6.9340
 0.3570	 6.7760
 0.3580	 6.7330
 0.3590	 6.7830
 0.3600	 6.7770
 0.3610	 6.7090
 0.3620	 6.7850
 0.3630	 6.7190
 0.3640	 6.6240
 0.3650	 6.6470
 0.3660	 6.6470
 0.3670	 6.6370
 0.3680	 6.6570
 0.3690	 6.7420
 0.3700	 6.7470
 0.3710	 6.6820
 0.3720	 6.6140
 0.3730	 6.6540
 0.3740	 6.6720
 0.3750	 6.6470
 0.3760	 6.6130
 0.3770	 6.6510
 0.3780	 6.6450
 0.3790	 6.6080
 0.3800	 6.6710
 0.3810	 6.6970
 0.3820	 6.6960
 0.3830	 6.7030
 0.3840	 6.7890
 0.3850	 6.7470
 0.3860	 6.6530
 0.3870	 6.6600
 0.3880	 6.7150
 0.3890	 6.7250
 0.3900	 6.6770
 0.3910	 6.6470
 0.3920	 6.6530
 0.3930	 6.6620
 0.3940	 6.6480
 0.3950	 6.6720
 0.3960	 6.6870
 0.3970	 6.6820
 0.3980	 6.6610
 0.3990	 6.6820
 0.4000	 6.6850
 0.4010	 6.6670
 0.4020	 6.7210
 0.4030	 6.7640
 0.4040	 6.7890
 0.4050	 6.8080
 0.4060	 6.7890
 0.4070	 6.8110
 0.4080	 6.8670
 0.4090	 6.8870
 0.4100	 6.9300
 0.4110	 6.9660
 0.4120	 6.9860
 0.4130	 7.0410
 0.4140	 7.0890
 0.4150	 7.1350
 0.4160	 7.1880
 0.4170	 7.2410
 0.4180	 7.2690
 0.4190	 7.2870
 0.4200	 7.3440
 0.4210	 7.4140
 0.4220	 7.4860
 0.4230	 7.5390
 0.4240	 7.5640
 0.4250	 7.6140
 0.4260	 7.6770
 0.4270	 7.7080
 0.4280	 7.7450
 0.4290	 7.7870
 0.4300	 7.8210
 0.4310	 7.8380
 0.4320	 7.8690
 0.4330	 7.9030
 0.4340	 7.9180
 0.4350	 7.9300
 0.4360	 7.9570
 0.4370	 7.9980
 0.4380	 8.0300
 0.4390	 8.0440
 0.4400	 8.0620
 0.4410	 8.0940
 0.4420	 8.1160
 0.4430	 8.1290
 0.4440	 8.1410
 0.4450	 8.1600
 0.4460	 8.1700
 0.4470	 8.1910
 0.4480	 8.2220
 0.4490	 8.2470
 0.4500	 8.2750
 0.4510	 8.2890
 0.4520	 8.2850
 0.4530	 8.3110
 0.4540	 8.3400
 0.4550	 8.3560
 0.4560	 8.3590
 0.4570	 8.3720
 0.4580	 8.3820
 0.4590	 8.3830
 0.4600	 8.3750
 0.4610	 8.3790
 0.4620	 8.3890
 0.4630	 8.3930
 0.4640	 8.3980
 0.4650	 8.4060
 0.4660	 8.4090
 0.4670	 8.4030
 0.4680	 8.4100
 0.4690	 8.4200
 0.4700	 8.4200
 0.4710	 8.4120
 0.4720	 8.4100
 0.4730	 8.4160
 0.4740	 8.4220
 0.4750	 8.4190
 0.4760	 8.4210
 0.4770	 8.4320
 0.4780	 8.4370
 0.4790	 8.4360
 0.4800	 8.4370
 0.4810	 8.4450
 0.4820	 8.4400
 0.4830	 8.4420
 0.4840	 8.4550
 0.4850	 8.4600
 0.4860	 8.4640
 0.4870	 8.4710
 0.4880	 8.4860
 0.4890	 8.5070
 0.4900	 8.5290
 0.4910	 8.5540
 0.4920	 8.5830
 0.4930	 8.6140
 0.4940	 8.6400
 0.4950	 8.6680
 0.4960	 8.7170
 0.4970	 8.7720
 0.4980	 8.8290
 0.4990	 8.8830
 0.5000	 8.9520
 0.5010	 9.0230
 0.5020	 9.1000
 0.5030	 9.1900
 0.5040	 9.2890
 0.5050	 9.3970
 0.5060	 9.5150
 0.5070	 9.6470
 0.5080	 9.7870
 0.5090	 9.9360
 0.5100	10.0910
 0.5110	10.2680
 0.5120	10.4530
 0.5130	10.6490
 0.5140	10.8770
 0.5150	11.1080
 0.5160	11.3470
 0.5170	11.6010
 0.5180	11.8610
 0.5190	12.1280
 0.5200	12.3980
 0.5210	12.6640
 0.5220	12.9280
 0.5230	13.1890
 0.5240	13.4460
 0.5250	13.6900
 0.5260	13.9170
 0.5270	14.1300
 0.5280	14.3340
 0.5290	14.5180
 0.5300	14.6830
 0.5310	14.8310
 0.5320	14.9670
 0.5330	15.0970
 0.5340	15.2100
 0.5350	15.2970
 0.5360	15.3850
 0.5370	15.4610
 0.5380	15.5240
 0.5390	15.5810
 0.5400	15.6310
 0.5410	15.6740
 0.5420	15.7120
 0.5430	15.7540
 0.5440	15.7960
 0.5450	15.8400
 0.5460	15.8870
 0.5470	15.9460
 0.5480	16.0000
 0.5490	16.0410
 0.5500	16.0690
 0.5510	16.0890
 0.5520	16.1000
 0.5530	16.0990
 0.5540	16.0870
 0.5550	16.0570
 0.5560	16.0080
 0.5570	15.9400
 0.5580	15.8580
 0.5590	15.7680
 0.5600	15.6730
 0.5610	15.5650
 0.5620	15.4510
 0.5630	15.3300
 0.5640	15.1980
 0.5650	15.0570
 0.5660	14.9100
 0.5670	14.7590
 0.5680	14.6050
 0.5690	14.4400
 0.5700	14.2740
 0.5710	14.1170
 0.5720	13.9550
 0.5730	13.7980
 0.5740	13.6530
 0.5750	13.5230
 0.5760	13.3940
 0.5770	13.2690
 0.5780	13.1510
 0.5790	13.0440
 0.5800	12.9450
 0.5810	12.8540
 0.5820	12.7670
 0.5830	12.6850
 0.5840	12.6070
 0.5850	12.5330
 0.5860	12.4670
 0.5870	12.4030
 0.5880	12.3460
 0.5890	12.2970
 0.5900	12.2490
 0.5910	12.2060
 0.5920	12.1680
 0.5930	12.1330
 0.5940	12.0960
 0.5950	12.0640
 0.5960	12.0370
 0.5970	12.0100
 0.5980	11.9810
 0.5990	11.9510
 0.6000	11.9190
 0.6010	11.8860
 0.6020	11.8480
 0.6030	11.8030
 0.6040	11.7530
 0.6050	11.6980
 0.6060	11.6390
 0.6070	11.5760
 0.6080	11.5070
 0.6090	11.4280
 0.6100	11.3400
 0.6110	11.2490
 0.6120	11.1770
 0.6130	11.1140
 0.6140	11.0490
 0.6150	10.9730
 0.6160	10.9040
 0.6170	10.8420
 0.6180	10.7840
 0.6190	10.7280
 0.6200	10.6800
 0.6210	10.6390
 0.6220	10.6000
 0.6230	10.5640
 0.6240	10.5360
 0.6250	10.5150
 0.6260	10.4940
 0.6270	10.4800
 0.6280	10.4700
 0.6290	10.4610
 0.6300	10.4480
 0.6310	10.4350
 0.6320	10.4200
 0.6330	10.3990
 0.6340	10.3690
 0.6350	10.3310
 0.6360	10.2830
 0.6370	10.2260
 0.6380	10.1580
 0.6390	10.0830
 0.6400	 9.9990
 0.6410	 9.9130
 0.6420	 9.8280
 0.6430	 9.7380
 0.6440	 9.6500
 0.6450	 9.5610
 0.6460	 9.4770
 0.6470	 9.3970
 0.6480	 9.3240
 0.6490	 9.2590
 0.6500	 9.2050
 0.6510	 9.1620
 0.6520	 9.1290
 0.6530	 9.0970
 0.6540	 9.0660
 0.6550	 9.0330
 0.6560	 8.9940
 0.6570	 8.9440
 0.6580	 8.8910
 0.6590	 8.8360
 0.6600	 8.7760
 0.6610	 8.7160
 0.6620	 8.6610
 0.6630	 8.6050
 0.6640	 8.5500
 0.6650	 8.5000
 0.6660	 8.4550
 0.6670	 8.4190
 0.6680	 8.3910
 0.6690	 8.3700
 0.6700	 8.3540
 0.6710	 8.3420
 0.6720	 8.3360
 0.6730	 8.3390
 0.6740	 8.3430
 0.6750	 8.3550
 0.6760	 8.3710
 0.6770	 8.3930
 0.6780	 8.4180
 0.6790	 8.4450
 0.6800	 8.4840
 0.6810	 8.5360
 0.6820	 8.5960
 0.6830	 8.6690
 0.6840	 8.7570
 0.6850	 8.8680
 0.6860	 9.0020
 0.6870	 9.1730
 0.6880	 9.3820
 0.6890	 9.6460
 0.6900	 9.9660
 0.6910	10.3430
 0.6920	10.7920
 0.6930	11.3070
 0.6940	11.8850
 0.6950	12.5220
 0.6960	13.2210
 0.6970	13.9750
 0.6980	14.7710
 0.6990	15.6050
 0.7000	16.4710
 0.7010	17.3670
 0.7020	18.2850
 0.7030	19.2170
 0.7040	20.1580
 0.7050	21.1070
 0.7060	22.0610
 0.7070	23.0180
 0.7080	23.9810
 0.7090	24.9570
 0.7100	25.9410
 0.7110	26.9360
 0.7120	27.9410
 0.7130	28.9560
 0.7140	29.9810
 0.7150	31.0160
 0.7160	32.0610
 0.7170	33.1140
 0.7180	34.1750
 0.7190	35.2470
 0.7200	36.3280
 0.7210	37.4060
 0.7220	38.4870
 0.7230	39.5690
 0.7240	40.6440
 0.7250	41.7140
 0.7260	42.7710
 0.7270	43.8100
 0.7280	44.8330
 0.7290	45.8300
 0.7300	46.8040
 0.7310	47.7600
 0.7320	48.6880
 0.7330	49.5870
 0.7340	50.4560
 0.7350	51.2930
 0.7360	52.1040
 0.7370	52.8830
 0.7380	53.6250
 0.7390	54.3390
 0.7400	55.0200
 0.7410	55.6650
 0.7420	56.2740
 0.7430	56.8580
 0.7440	57.4080
 0.7450	57.9220
 0.7460	58.4020
 0.7470	58.8490
 0.7480	59.2660
 0.7490	59.6580
 0.7500	60.0190
 0.7510	60.3510
 0.7520	60.6570
 0.7530	60.9390
 0.7540	61.1960
 0.7550	61.4330
 0.7560	61.6510
 0.7570	61.8450
 0.7580	62.0230
 0.7590	62.1900
 0.7600	62.3430
 0.7610	62.4830
 0.7620	62.6090
 0.7630	62.7220
 0.7640	62.8280
 0.7650	62.9280
 0.7660	63.0180
 0.7670	63.1000
 0.7680	63.1780
 0.7690	63.2470
 0.7700	63.3120
 0.7710	63.3730
 0.7720	63.4270
 0.7730	63.4760
 0.7740	63.5230
 0.7750	63.5690
 0.7760	63.6180
 0.7770	63.6610
 0.7780	63.6990
 0.7790	63.7350
 0.7800	63.7750
 0.7810	63.8130
 0.7820	63.8490
 0.7830	63.8870
 0.7840	63.9190
 0.7850	63.9470
 0.7860	63.9790
 0.7870	64.0140
 0.7880	64.0460
 0.7890	64.0760
 0.7900	64.1050
 0.7910	64.1250
 0.7920	64.1540
 0.7930	64.1860
 0.7940	64.2060
 0.7950	64.2260
 0.7960	64.2500
 0.7970	64.2750
 0.7980	64.2940
 0.7990	64.3140
 0.8000	64.3350
 0.8010	64.3590
 0.8020	64.3740
 0.8030	64.3880
 0.8040	64.4010
 0.8050	64.4130
 0.8060	64.4220
 0.8070	64.4440
 0.8080	64.4700
 0.8090	64.4710
 0.8100	64.4850
 0.8110	64.4990
 0.8120	64.5080
 0.8130	64.5200
 0.8140	64.5330
 0.8150	64.5450
 0.8160	64.5570
 0.8170	64.5710
 0.8180	64.5800
 0.8190	64.5880
 0.8200	64.5980
 0.8210	64.6120
 0.8220	64.6230
 0.8230	64.6300
 0.8240	64.6340
 0.8250	64.6400
 0.8260	64.6450
 0.8270	64.6440
 0.8280	64.6370
 0.8290	64.6360
 0.8300	64.6380
 0.8310	64.6390
 0.8320	64.6330
 0.8330	64.6310
 0.8340	64.6370
 0.8350	64.6480
 0.8360	64.6540
 0.8370	64.6620
 0.8380	64.6760
 0.8390	64.6910
 0.8400	64.7050
 0.8410	64.7240
 0.8420	64.7480
 0.8430	64.7640
 0.8440	64.7820
 0.8450	64.8010
 0.8460	64.8190
 0.8470	64.8380
 0.8480	64.8570
 0.8490	64.8750
 0.8500	64.8890
 0.8510	64.9060
 0.8520	64.9290
 0.8530	64.9510
 0.8540	64.9610
 0.8550	64.9790
 0.8560	64.9950
 0.8570	65.0090
 0.8580	65.0280
 0.8590	65.0500
 0.8600	65.0660
 0.8610	65.0750
 0.8620	65.0820
 0.8630	65.0970
 0.8640	65.1160
 0.8650	65.1300
 0.8660	65.1380
 0.8670	65.1480
 0.8680	65.1600
 0.8690	65.1680
 0.8700	65.1720
 0.8710	65.1810
 0.8720	65.1960
 0.8730	65.2080
 0.8740	65.2200
 0.8750	65.2250
 0.8760	65.2270
 0.8770	65.2450
 0.8780	65.2470
 0.8790	65.2450
 0.8800	65.2500
 0.8810	65.2630
 0.8820	65.2670
 0.8830	65.2660
 0.8840	65.2640
 0.8850	65.2620
 0.8860	65.2560
 0.8870	65.2510
 0.8880	65.2520
 0.8890	65.2460
 0.8900	65.2380
 0.8910	65.2340
 0.8920	65.2380
 0.8930	65.2350
 0.8940	65.2270
 0.8950	65.2180
 0.8960	65.2110
 0.8970	65.2070
 0.8980	65.2020
 0.8990	65.1920
 0.9000	65.1790
 0.9010	65.1730
 0.9020	65.1650
 0.9030	65.1500
 0.9040	65.1380
 0.9050	65.1260
 0.9060	65.1150
 0.9070	65.1030
 0.9080	65.0780
 0.9090	65.0700
 0.9100	65.0640
 0.9110	65.0450
 0.9120	65.0260
 0.9130	65.0160
 0.9140	65.0000
 0.9150	64.9700
 0.9160	64.9540
 0.9170	64.9370
 0.9180	64.9140
 0.9190	64.8870
 0.9200	64.8570
 0.9210	64.8210
 0.9220	64.7810
 0.9230	64.7410
 0.9240	64.6910
 0.9250	64.6360
 0.9260	64.5790
 0.9270	64.5190
 0.9280	64.4520
 0.9290	64.3910
 0.9300	64.3230
 0.9310	64.2190
 0.9320	64.1330
 0.9330	64.0510
 0.9340	63.9570
 0.9350	63.8540
 0.9360	63.7540
 0.9370	63.6450
 0.9380	63.5260
 0.9390	63.4210
 0.9400	63.3110
 0.9410	63.1830
 0.9420	63.0390
 0.9430	62.9080
 0.9440	62.7680
 0.9450	62.6140
 0.9460	62.4420
 0.9470	62.2460
 0.9480	62.0470
 0.9490	61.8420
 0.9500	61.6230
 0.9510	61.4050
 0.9520	61.1650
 0.9530	60.9160
 0.9540	60.6750
 0.9550	60.4310
 0.9560	60.1960
 0.9570	59.9690
 0.9580	59.7550
 0.9590	59.5560
 0.9600	59.3910
 0.9610	59.2470
 0.9620	59.1060
 0.9630	58.9820
 0.9640	58.8600
 0.9650	58.7490
 0.9660	58.6660
 0.9670	58.6050
 0.9680	58.5430
 0.9690	58.4800
 0.9700	58.4250
 0.9710	58.3720
 0.9720	58.3170
 0.9730	58.2680
 0.9740	58.2360
 0.9750	58.2210
 0.9760	58.1990
 0.9770	58.1700
 0.9780	58.1510
 0.9790	58.1520
 0.9800	58.1630
 0.9810	58.1680
 0.9820	58.1610
 0.9830	58.1990
 0.9840	58.2280
 0.9850	58.2530
 0.9860	58.3030
 0.9870	58.3530
 0.9880	58.3910
 0.9890	58.4310
 0.9900	58.4980
 0.9910	58.5710
 0.9920	58.6290
 0.9930	58.6770
 0.9940	58.7340
 0.9950	58.8250
 0.9960	58.8950
 0.9970	58.9560
 0.9980	59.0390
 0.9990	59.1220
 1.0000	59.4260
 1.0010	59.8710
 1.0020	60.1850
 1.0030	60.2760
 1.0040	60.3700
 1.0050	60.4720
 1.0060	60.5730
 1.0070	60.6680
 1.0080	60.7630
 1.0090	60.8510
 1.0100	60.9490
 1.0110	61.0530
 1.0120	61.1530
 1.0130	61.2580
 1.0140	61.3580
 1.0150	61.4530
 1.0160	61.5450
 1.0170	61.6420
 1.0180	61.7410
 1.0190	61.8400
 1.0200	61.9380
 1.0210	62.0360
 1.0220	62.1370
 1.0230	62.2370
 1.0240	62.3370
 1.0250	62.4370
 1.0260	62.5390
 1.0270	62.6370
 1.0280	62.7330
 1.0290	62.8270
 1.0300	62.9160
 1.0310	63.0070
 1.0320	63.0990
 1.0330	63.1890
 1.0340	63.2750
 1.0350	63.3610
 1.0360	63.4380
 1.0370	63.5150
 1.0380	63.5950
 1.0390	63.6750
 1.0400	63.7530
 1.0410	63.8340
 1.0420	63.9070
 1.0430	63.9710
 1.0440	64.0380
 1.0450	64.0980
 1.0460	64.1630
 1.0470	64.2310
 1.0480	64.2960
 1.0490	64.3690
 1.0500	64.4320
 1.0510	64.4900
 1.0520	64.5450
 1.0530	64.5950
 1.0540	64.6380
 1.0550	64.6800
 1.0560	64.7180
 1.0570	64.7600
 1.0580	64.8010
 1.0590	64.8400
 1.0600	64.8830
 1.0610	64.9200
 1.0620	64.9520
 1.0630	64.9830
 1.0640	65.0180
 1.0650	65.0440
 1.0660	65.0640
 1.0670	65.0820
 1.0680	65.0960
 1.0690	65.1020
 1.0700	65.1150
 1.0710	65.1310
 1.0720	65.1410
 1.0730	65.1510
 1.0740	65.1570
 1.0750	65.1620
 1.0760	65.1610
 1.0770	65.1570
 1.0780	65.1510
 1.0790	65.1380
 1.0800	65.1280
 1.0810	65.1210
 1.0820	65.1090
 1.0830	65.0970
 1.0840	65.0780
 1.0850	65.0540
 1.0860	65.0250
 1.0870	64.9970
 1.0880	64.9650
 1.0890	64.9350
 1.0900	64.9060
 1.0910	64.8720
 1.0920	64.8330
 1.0930	64.7960
 1.0940	64.7590
 1.0950	64.7180
 1.0960	64.6760
 1.0970	64.6330
 1.0980	64.5850
 1.0990	64.5360
 1.1000	64.4860
 1.1010	64.4340
 1.1020	64.3790
 1.1030	64.3210
 1.1040	64.2640
 1.1050	64.2060
 1.1060	64.1450
 1.1070	64.0810
 1.1080	64.0180
 1.1090	63.9540
 1.1100	63.8880
 1.1110	63.8270
 1.1120	63.7540
 1.1130	63.6750
 1.1140	63.5940
 1.1150	63.5070
 1.1160	63.4150
 1.1170	63.3260
 1.1180	63.2210
 1.1190	63.1060
 1.1200	62.9820
 1.1210	62.8510
 1.1220	62.7050
 1.1230	62.5490
 1.1240	62.3840
 1.1250	62.1960
 1.1260	61.9940
 1.1270	61.7680
 1.1280	61.5240
 1.1290	61.2580
 1.1300	60.9730
 1.1310	60.6640
 1.1320	60.3320
 1.1330	59.9830
 1.1340	59.6130
 1.1350	59.2250
 1.1360	58.8190
 1.1370	58.3950
 1.1380	57.9550
 1.1390	57.5050
 1.1400	57.0490
 1.1410	56.5930
 1.1420	56.1380
 1.1430	55.6840
 1.1440	55.2380
 1.1450	54.7900
 1.1460	54.3640
 1.1470	53.9440
 1.1480	53.5480
 1.1490	53.1670
 1.1500	52.8110
 1.1510	52.4710
 1.1520	52.1580
 1.1530	51.8690
 1.1540	51.6000
 1.1550	51.3540
 1.1560	51.1280
 1.1570	50.9220
 1.1580	50.7390
 1.1590	50.5750
 1.1600	50.4270
 1.1610	50.2920
 1.1620	50.1690
 1.1630	50.0590
 1.1640	49.9600
 1.1650	49.8690
 1.1660	49.7910
 1.1670	49.7150
 1.1680	49.6470
 1.1690	49.5810
 1.1700	49.5250
 1.1710	49.4670
 1.1720	49.4110
 1.1730	49.3570
 1.1740	49.3050
 1.1750	49.2540
 1.1760	49.2040
 1.1770	49.1520
 1.1780	49.0970
 1.1790	49.0410
 1.1800	48.9870
 1.1810	48.9330
 1.1820	48.8810
 1.1830	48.8280
 1.1840	48.7730
 1.1850	48.7180
 1.1860	48.6660
 1.1870	48.6160
 1.1880	48.5700
 1.1890	48.5260
 1.1900	48.4870
 1.1910	48.4530
 1.1920	48.4210
 1.1930	48.3930
 1.1940	48.3710
 1.1950	48.3520
 1.1960	48.3390
 1.1970	48.3320
 1.1980	48.3280
 1.1990	48.3290
 1.2000	48.3340
 1.2010	48.3430
 1.2020	48.3570
 1.2030	48.3740
 1.2040	48.3930
 1.2050	48.4140
 1.2060	48.4410
 1.2070	48.4720
 1.2080	48.5070
 1.2090	48.5480
 1.2100	48.5910
 1.2110	48.6360
 1.2120	48.6850
 1.2130	48.7360
 1.2140	48.7920
 1.2150	48.8490
 1.2160	48.9100
 1.2170	48.9700
 1.2180	49.0340
 1.2190	49.1000
 1.2200	49.1680
 1.2210	49.2400
 1.2220	49.3100
 1.2230	49.3820
 1.2240	49.4550
 1.2250	49.5250
 1.2260	49.5950
 1.2270	49.6660
 1.2280	49.7330
 1.2290	49.8030
 1.2300	49.8760
 1.2310	49.9450
 1.2320	50.0110
 1.2330	50.0740
 1.2340	50.1370
 1.2350	50.1950
 1.2360	50.2560
 1.2370	50.3160
 1.2380	50.3760
 1.2390	50.4350
 1.2400	50.4920
 1.2410	50.5490
 1.2420	50.6010
 1.2430	50.6500
 1.2440	50.7010
 1.2450	50.7490
 1.2460	50.7970
 1.2470	50.8440
 1.2480	50.8880
 1.2490	50.9300
 1.2500	50.9720
 1.2510	51.0090
 1.2520	51.0450
 1.2530	51.0830
 1.2540	51.1170
 1.2550	51.1510
 1.2560	51.1850
 1.2570	51.2150
 1.2580	51.2420
 1.2590	51.2650
 1.2600	51.2870
 1.2610	51.3050
 1.2620	51.3190
 1.2630	51.3290
 1.2640	51.3400
 1.2650	51.3500
 1.2660	51.3560
 1.2670	51.3640
 1.2680	51.3690
 1.2690	51.3700
 1.2700	51.3660
 1.2710	51.3600
 1.2720	51.3500
 1.2730	51.3350
 1.2740	51.3200
 1.2750	51.2980
 1.2760	51.2770
 1.2770	51.2560
 1.2780	51.2280
 1.2790	51.1990
 1.2800	51.1670
 1.2810	51.1280
 1.2820	51.0890
 1.2830	51.0480
 1.2840	51.0000
 1.2850	50.9470
 1.2860	50.8870
 1.2870	50.8230
 1.2880	50.7530
 1.2890	50.6800
 1.2900	50.6030
 1.2910	50.5200
 1.2920	50.4320
 1.2930	50.3370
 1.2940	50.2360
 1.2950	50.1320
 1.2960	50.0210
 1.2970	49.9040
 1.2980	49.7830
 1.2990	49.6550
 1.3000	49.5250
 1.3010	49.3920
 1.3020	49.2510
 1.3030	49.1070
 1.3040	48.9530
 1.3050	48.7890
 1.3060	48.6200
 1.3070	48.4450
 1.3080	48.2650
 1.3090	48.0800
 1.3100	47.8890
 1.3110	47.6940
 1.3120	47.4910
 1.3130	47.2850
 1.3140	47.0720
 1.3150	46.8520
 1.3160	46.6260
 1.3170	46.3970
 1.3180	46.1590
 1.3190	45.9150
 1.3200	45.6700
 1.3210	45.4170
 1.3220	45.1630
 1.3230	44.9070
 1.3240	44.6420
 1.3250	44.3780
 1.3260	44.1090
 1.3270	43.8370
 1.3280	43.5640
 1.3290	43.2880
 1.3300	43.0120
 1.3310	42.7380
 1.3320	42.4630
 1.3330	42.1900
 1.3340	41.9160
 1.3350	41.6400
 1.3360	41.3670
 1.3370	41.0960
 1.3380	40.8290
 1.3390	40.5660
 1.3400	40.3070
 1.3410	40.0560
 1.3420	39.8080
 1.3430	39.5630
 1.3440	39.3230
 1.3450	39.0890
 1.3460	38.8560
 1.3470	38.6310
 1.3480	38.4120
 1.3490	38.1970
 1.3500	37.9880
 1.3510	37.7810
 1.3520	37.5780
 1.3530	37.3770
 1.3540	37.1750
 1.3550	36.9760
 1.3560	36.7770
 1.3570	36.5780
 1.3580	36.3820
 1.3590	36.1810
 1.3600	35.9770
 1.3610	35.7710
 1.3620	35.5570
 1.3630	35.3400
 1.3640	35.1150
 1.3650	34.8810
 1.3660	34.6410
 1.3670	34.3890
 1.3680	34.1270
 1.3690	33.8530
 1.3700	33.5600
 1.3710	33.2540
 1.3720	32.9340
 1.3730	32.5950
 1.3740	32.2440
 1.3750	31.8730
 1.3760	31.4780
 1.3770	31.0640
 1.3780	30.6240
 1.3790	30.1640
 1.3800	29.6860
 1.3810	29.1840
 1.3820	28.6710
 1.3830	28.1410
 1.3840	27.5990
 1.3850	27.0410
 1.3860	26.4800
 1.3870	25.9040
 1.3880	25.3360
 1.3890	24.7650
 1.3900	24.1940
 1.3910	23.6340
 1.3920	23.0780
 1.3930	22.5290
 1.3940	21.9930
 1.3950	21.4630
 1.3960	20.9490
 1.3970	20.4540
 1.3980	19.9750
 1.3990	19.5220
 1.4000	19.0860
 1.4010	18.6680
 1.4020	18.2720
 1.4030	17.8940
 1.4040	17.5360
 1.4050	17.1990
 1.4060	16.8810
 1.4070	16.5850
 1.4080	16.3070
 1.4090	16.0440
 1.4100	15.8000
 1.4110	15.5700
 1.4120	15.3540
 1.4130	15.1550
 1.4140	14.9690
 1.4150	14.7980
 1.4160	14.6400
 1.4170	14.4920
 1.4180	14.3550
 1.4190	14.2260
 1.4200	14.1070
 1.4210	13.9970
 1.4220	13.8930
 1.4230	13.7990
 1.4240	13.7120
 1.4250	13.6300
 1.4260	13.5540
 1.4270	13.4840
 1.4280	13.4200
 1.4290	13.3610
 1.4300	13.3080
 1.4310	13.2590
 1.4320	13.2150
 1.4330	13.1740
 1.4340	13.1380
 1.4350	13.1050
 1.4360	13.0760
 1.4370	13.0490
 1.4380	13.0260
 1.4390	13.0060
 1.4400	12.9880
 1.4410	12.9740
 1.4420	12.9610
 1.4430	12.9510
 1.4440	12.9430
 1.4450	12.9360
 1.4460	12.9320
 1.4470	12.9300
 1.4480	12.9280
 1.4490	12.9280
 1.4500	12.9300
 1.4510	12.9320
 1.4520	12.9360
 1.4530	12.9420
 1.4540	12.9490
 1.4550	12.9580
 1.4560	12.9690
 1.4570	12.9810
 1.4580	12.9960
 1.4590	13.0120
 1.4600	13.0320
 1.4610	13.0550
 1.4620	13.0790
 1.4630	13.1070
 1.4640	13.1360
 1.4650	13.1680
 1.4660	13.2040
 1.4670	13.2440
 1.4680	13.2870
 1.4690	13.3330
 1.4700	13.3810
