Name: Ceanothus megacarpus 3
Type: vegetation
Class: Shrub
Genus: Ceanothus
Species: megacarpus
Sample No.: VH024
Owner: UCSB
Wavelength Range: TIR
Origin: 34.4909; -119.7914; WGS84
Collection Date: 4/1/2013
Description: Samples were collected as part of the HyspIRI Airborne Campaign. 48 individual plants were sampled in three times in 2013 - spring  summer  and fall. The name of the sample includes a 1  2  or 3 which references a different individual of the species. Samples were taken to JPL and processed within 48 hours of collection. The same leaves were processed in the Nicolet and then measured using the ASD.
Measurement: Hemispherical reflectance
First Column: X
Second Column: Y
X Units: Wavelength (micrometers)
Y Units: Reflectance (percentage)
First X Value: 2.501
Last X Value: 15.387
Number of X Values: 1737
Additional Information: vegetation.shrub.ceanothus.megacarpus.tir.vh024.ucsb.nicolet.ancillary.txt

 2.5010	14.7500
 2.5030	14.5860
 2.5040	14.5310
 2.5050	14.5300
 2.5060	14.5180
 2.5070	14.4210
 2.5090	14.4730
 2.5100	14.4260
 2.5110	14.4970
 2.5120	14.5280
 2.5140	14.6460
 2.5150	14.7640
 2.5160	14.7920
 2.5170	14.6620
 2.5180	14.6700
 2.5200	14.6080
 2.5210	14.6010
 2.5220	14.5280
 2.5230	14.4920
 2.5250	14.3580
 2.5260	14.3390
 2.5270	14.5520
 2.5280	14.6510
 2.5290	14.4840
 2.5310	14.5060
 2.5320	14.4930
 2.5330	14.4700
 2.5340	14.4560
 2.5360	14.5570
 2.5370	14.6070
 2.5380	14.5860
 2.5390	14.5130
 2.5410	14.5950
 2.5420	14.5940
 2.5430	14.5210
 2.5440	14.4220
 2.5460	14.4160
 2.5470	14.4440
 2.5480	14.5650
 2.5490	14.6140
 2.5510	14.7620
 2.5520	14.6600
 2.5530	14.6440
 2.5540	14.5260
 2.5560	14.4850
 2.5570	14.4320
 2.5580	14.5570
 2.5590	14.6370
 2.5610	14.5270
 2.5620	14.4550
 2.5630	14.4820
 2.5640	14.5120
 2.5660	14.5930
 2.5670	14.6300
 2.5680	14.6230
 2.5700	14.5690
 2.5710	14.5330
 2.5720	14.4430
 2.5730	14.4530
 2.5750	14.5460
 2.5760	14.5320
 2.5770	14.4240
 2.5790	14.3870
 2.5800	14.3920
 2.5810	14.6890
 2.5820	14.7410
 2.5840	14.7250
 2.5850	14.6470
 2.5860	14.5600
 2.5880	14.5770
 2.5890	14.7070
 2.5900	14.7010
 2.5910	14.5600
 2.5930	14.5240
 2.5940	14.5580
 2.5950	14.5090
 2.5970	14.4920
 2.5980	14.5200
 2.5990	14.6060
 2.6000	14.5660
 2.6020	14.5360
 2.6030	14.4360
 2.6040	14.6190
 2.6060	14.8020
 2.6070	14.6440
 2.6080	14.3370
 2.6100	14.4450
 2.6110	14.6390
 2.6120	14.5940
 2.6140	14.5410
 2.6150	14.7230
 2.6160	14.6780
 2.6180	14.5800
 2.6190	14.6520
 2.6200	14.6800
 2.6220	14.4460
 2.6230	14.4700
 2.6240	14.5250
 2.6260	14.6480
 2.6270	14.6600
 2.6280	14.6770
 2.6300	14.5760
 2.6310	14.4510
 2.6320	14.3350
 2.6340	14.5200
 2.6350	14.5180
 2.6360	14.4150
 2.6380	14.4850
 2.6390	14.6000
 2.6400	14.6530
 2.6420	14.5010
 2.6430	14.3890
 2.6440	14.5820
 2.6460	14.5000
 2.6470	14.3490
 2.6480	14.3320
 2.6500	14.4250
 2.6510	14.4480
 2.6520	14.5630
 2.6540	14.5450
 2.6550	14.5570
 2.6560	14.4290
 2.6580	14.4650
 2.6590	14.6050
 2.6610	14.5480
 2.6620	14.3660
 2.6630	14.4930
 2.6650	14.6070
 2.6660	14.8340
 2.6670	14.8880
 2.6690	14.8350
 2.6700	14.7970
 2.6720	14.7750
 2.6730	14.6840
 2.6740	14.7370
 2.6760	14.7650
 2.6770	14.7460
 2.6780	14.7380
 2.6800	14.7440
 2.6810	14.7300
 2.6830	14.7510
 2.6840	14.5690
 2.6850	14.5480
 2.6870	14.5310
 2.6880	14.5820
 2.6900	14.7030
 2.6910	14.8050
 2.6920	14.7450
 2.6940	14.7570
 2.6950	14.7960
 2.6970	14.8610
 2.6980	14.8450
 2.6990	14.9470
 2.7010	14.8560
 2.7020	14.5530
 2.7040	14.4510
 2.7050	14.7550
 2.7060	14.9510
 2.7080	15.1010
 2.7090	15.0330
 2.7110	14.8790
 2.7120	14.6760
 2.7130	14.6760
 2.7150	14.7240
 2.7160	14.8310
 2.7180	14.8560
 2.7190	14.9820
 2.7210	14.8470
 2.7220	14.8800
 2.7230	15.0100
 2.7250	15.0080
 2.7260	14.9900
 2.7280	15.0130
 2.7290	14.8920
 2.7310	14.8110
 2.7320	14.7680
 2.7330	14.8880
 2.7350	14.9190
 2.7360	14.9070
 2.7380	14.8360
 2.7390	15.0530
 2.7410	15.0740
 2.7420	14.9940
 2.7440	15.0810
 2.7450	14.9530
 2.7470	14.8010
 2.7480	14.8820
 2.7490	14.8870
 2.7510	14.9450
 2.7520	14.9840
 2.7540	14.8110
 2.7550	14.6860
 2.7570	14.9120
 2.7580	15.1070
 2.7600	15.0900
 2.7610	14.9280
 2.7630	14.9570
 2.7640	14.8290
 2.7660	14.7300
 2.7670	14.8070
 2.7680	14.8780
 2.7700	14.9890
 2.7710	15.0990
 2.7730	15.1710
 2.7740	15.2760
 2.7760	15.1770
 2.7770	15.2810
 2.7790	15.1560
 2.7800	15.0120
 2.7820	14.9880
 2.7830	14.9780
 2.7850	14.8960
 2.7860	14.8810
 2.7880	14.8860
 2.7890	15.0410
 2.7910	15.1310
 2.7920	15.1180
 2.7940	14.7970
 2.7950	14.8030
 2.7970	14.9130
 2.7980	15.0480
 2.8000	14.9680
 2.8010	14.9400
 2.8030	14.9590
 2.8040	15.0490
 2.8060	15.0510
 2.8070	15.0400
 2.8090	14.9520
 2.8110	14.9100
 2.8120	14.8300
 2.8140	15.0570
 2.8150	15.1050
 2.8170	15.0900
 2.8180	14.9790
 2.8200	15.0180
 2.8210	14.8930
 2.8230	14.8210
 2.8240	15.0260
 2.8260	15.2300
 2.8270	15.0160
 2.8290	14.8930
 2.8300	14.9320
 2.8320	15.0450
 2.8340	15.0560
 2.8350	15.0300
 2.8370	15.0400
 2.8380	15.1170
 2.8400	15.0900
 2.8410	15.0880
 2.8430	15.0080
 2.8440	15.1150
 2.8460	15.1270
 2.8480	15.0750
 2.8490	15.0000
 2.8510	14.9820
 2.8520	14.9790
 2.8540	15.0240
 2.8550	14.8640
 2.8570	14.9250
 2.8590	15.0370
 2.8600	15.1060
 2.8620	15.0950
 2.8630	15.1320
 2.8650	15.2020
 2.8660	15.1710
 2.8680	15.0030
 2.8700	14.9780
 2.8710	14.9040
 2.8730	15.0990
 2.8740	15.1600
 2.8760	15.2200
 2.8780	15.0850
 2.8790	15.0990
 2.8810	15.2140
 2.8820	15.0920
 2.8840	14.8740
 2.8860	14.9170
 2.8870	15.2130
 2.8890	15.3690
 2.8900	15.1260
 2.8920	15.1030
 2.8940	15.0580
 2.8950	14.8700
 2.8970	14.8580
 2.8980	15.0240
 2.9000	14.9310
 2.9020	14.9560
 2.9030	14.8340
 2.9050	14.9700
 2.9070	15.1980
 2.9080	15.3350
 2.9100	15.2870
 2.9120	15.2390
 2.9130	15.1760
 2.9150	15.0830
 2.9160	14.9300
 2.9180	15.1280
 2.9200	15.1480
 2.9210	15.0150
 2.9230	15.1160
 2.9250	15.2750
 2.9260	15.2600
 2.9280	15.2430
 2.9300	15.2930
 2.9310	15.3000
 2.9330	15.2220
 2.9350	15.1860
 2.9360	15.1040
 2.9380	15.0240
 2.9400	14.9860
 2.9410	15.0220
 2.9430	14.9540
 2.9450	15.0160
 2.9460	15.0100
 2.9480	15.2320
 2.9500	15.3160
 2.9510	15.2820
 2.9530	15.3300
 2.9550	15.1150
 2.9560	14.7160
 2.9580	14.9660
 2.9600	15.2160
 2.9610	15.4240
 2.9630	15.3130
 2.9650	15.0800
 2.9660	15.1880
 2.9680	15.6180
 2.9700	15.1930
 2.9720	15.0940
 2.9730	15.5660
 2.9750	15.2670
 2.9770	14.9710
 2.9780	14.6240
 2.9800	14.6170
 2.9820	15.0410
 2.9840	15.1570
 2.9850	15.4050
 2.9870	15.6560
 2.9890	15.5470
 2.9900	15.3700
 2.9920	15.0560
 2.9940	14.3740
 2.9960	14.2560
 2.9970	14.2720
 2.9990	14.2850
 3.0010	14.4630
 3.0030	14.5590
 3.0040	14.8020
 3.0060	15.0950
 3.0080	15.0750
 3.0100	15.1320
 3.0110	15.1430
 3.0130	15.3670
 3.0150	15.4010
 3.0170	15.5630
 3.0180	15.5310
 3.0200	15.1450
 3.0220	15.0560
 3.0240	14.8630
 3.0250	14.4430
 3.0270	15.3610
 3.0290	14.9450
 3.0310	14.9540
 3.0320	15.4450
 3.0340	14.8220
 3.0360	13.9520
 3.0380	14.5530
 3.0400	14.4650
 3.0410	14.5880
 3.0430	15.0950
 3.0450	15.1180
 3.0470	14.8910
 3.0480	15.0470
 3.0500	15.6690
 3.0520	15.7590
 3.0540	15.1230
 3.0560	14.7970
 3.0570	14.6330
 3.0590	15.1850
 3.0610	15.1730
 3.0630	14.8210
 3.0650	14.6000
 3.0660	14.5560
 3.0680	14.9960
 3.0700	15.2020
 3.0720	14.6410
 3.0740	14.5300
 3.0760	14.8570
 3.0770	14.8930
 3.0790	14.8830
 3.0810	14.9580
 3.0830	14.8860
 3.0850	14.7580
 3.0870	14.7990
 3.0880	14.9830
 3.0900	14.8000
 3.0920	14.9370
 3.0940	15.1570
 3.0960	15.3400
 3.0980	15.1610
 3.0990	15.2040
 3.1010	15.2410
 3.1030	14.9960
 3.1050	15.0090
 3.1070	14.9280
 3.1090	14.7950
 3.1110	15.0710
 3.1120	15.0590
 3.1140	15.0080
 3.1160	14.9740
 3.1180	15.0530
 3.1200	14.8840
 3.1220	14.8540
 3.1240	14.8510
 3.1260	15.0020
 3.1270	14.8440
 3.1290	14.5710
 3.1310	14.3030
 3.1330	14.6910
 3.1350	15.4960
 3.1370	15.4070
 3.1390	14.9590
 3.1410	15.2950
 3.1430	15.1200
 3.1450	14.8810
 3.1460	14.5000
 3.1480	14.5570
 3.1500	14.9250
 3.1520	14.7550
 3.1540	14.3000
 3.1560	15.6540
 3.1580	16.0010
 3.1600	14.9680
 3.1620	13.4820
 3.1640	13.7170
 3.1660	14.4000
 3.1680	15.4090
 3.1700	15.7560
 3.1710	14.6540
 3.1730	14.7320
 3.1750	15.7590
 3.1770	16.3450
 3.1790	15.6420
 3.1810	13.4610
 3.1830	13.4670
 3.1850	15.3970
 3.1870	15.5500
 3.1890	14.7420
 3.1910	14.6130
 3.1930	14.9030
 3.1950	14.5790
 3.1970	14.4860
 3.1990	14.5640
 3.2010	14.6060
 3.2030	14.6490
 3.2050	14.6010
 3.2070	14.6950
 3.2090	14.8950
 3.2110	14.7220
 3.2130	14.7110
 3.2150	14.9000
 3.2170	14.8600
 3.2190	14.7610
 3.2210	14.7240
 3.2230	14.6530
 3.2250	14.6720
 3.2270	14.6930
 3.2290	14.5720
 3.2310	14.5880
 3.2330	14.7120
 3.2350	14.7630
 3.2370	14.6770
 3.2390	14.5710
 3.2410	14.5150
 3.2430	14.5040
 3.2450	14.4570
 3.2470	14.4920
 3.2490	14.7800
 3.2510	14.7830
 3.2530	14.5470
 3.2550	14.7140
 3.2570	14.7130
 3.2590	14.8100
 3.2610	14.7420
 3.2630	14.6640
 3.2650	14.6180
 3.2670	14.6610
 3.2690	14.6580
 3.2720	14.6870
 3.2740	14.7260
 3.2760	14.7080
 3.2780	14.5930
 3.2800	14.6460
 3.2820	14.6760
 3.2840	14.6220
 3.2860	14.4610
 3.2880	14.4800
 3.2900	14.6370
 3.2920	14.7010
 3.2940	14.6640
 3.2960	14.6430
 3.2990	14.4430
 3.3010	14.2850
 3.3030	14.3070
 3.3050	14.3680
 3.3070	14.3520
 3.3090	14.3530
 3.3110	14.4360
 3.3130	14.5770
 3.3150	14.5000
 3.3180	14.4990
 3.3200	14.5450
 3.3220	14.5710
 3.3240	14.3960
 3.3260	14.4170
 3.3280	14.5050
 3.3300	14.5490
 3.3330	14.5140
 3.3350	14.4030
 3.3370	14.2130
 3.3390	14.4190
 3.3410	14.4820
 3.3430	14.3900
 3.3450	14.4610
 3.3480	14.4070
 3.3500	14.3000
 3.3520	14.3220
 3.3540	14.3870
 3.3560	14.5300
 3.3580	14.4730
 3.3610	14.3550
 3.3630	14.3020
 3.3650	14.3040
 3.3670	14.2190
 3.3690	14.2870
 3.3720	14.4390
 3.3740	14.4110
 3.3760	14.4350
 3.3780	14.4610
 3.3800	14.3740
 3.3830	14.4070
 3.3850	14.3220
 3.3870	14.3320
 3.3890	14.3160
 3.3910	14.2600
 3.3940	14.3310
 3.3960	14.5240
 3.3980	14.6050
 3.4000	14.6120
 3.4020	14.4850
 3.4050	14.5790
 3.4070	14.7950
 3.4090	14.9480
 3.4110	15.0910
 3.4140	15.3580
 3.4160	15.6170
 3.4180	15.9480
 3.4200	16.2870
 3.4230	16.7630
 3.4250	17.3930
 3.4270	17.9920
 3.4290	18.1270
 3.4320	17.7260
 3.4340	17.0230
 3.4360	16.3470
 3.4390	15.9770
 3.4410	15.8770
 3.4430	15.6210
 3.4450	15.5120
 3.4480	15.6790
 3.4500	15.8570
 3.4520	15.7760
 3.4550	15.6870
 3.4570	15.6430
 3.4590	15.5440
 3.4620	15.3730
 3.4640	15.2890
 3.4660	15.3090
 3.4680	15.3900
 3.4710	15.2790
 3.4730	15.1320
 3.4750	15.1000
 3.4780	15.0920
 3.4800	15.0100
 3.4820	14.9730
 3.4850	14.9090
 3.4870	14.9740
 3.4890	15.1030
 3.4920	15.2050
 3.4940	15.1400
 3.4970	15.1230
 3.4990	15.2160
 3.5010	15.4780
 3.5040	15.6240
 3.5060	16.0770
 3.5080	16.9210
 3.5110	17.4600
 3.5130	17.0930
 3.5160	16.4220
 3.5180	15.9890
 3.5200	15.7460
 3.5230	15.6060
 3.5250	15.5450
 3.5270	15.4580
 3.5300	15.3150
 3.5320	15.2300
 3.5350	15.3130
 3.5370	15.1740
 3.5400	15.1530
 3.5420	15.2520
 3.5440	15.2750
 3.5470	15.2450
 3.5490	15.2480
 3.5520	15.2070
 3.5540	15.1340
 3.5570	14.9660
 3.5590	15.0180
 3.5610	15.0740
 3.5640	15.1310
 3.5660	15.3280
 3.5690	15.2900
 3.5710	15.1980
 3.5740	15.2550
 3.5760	15.2850
 3.5790	15.2160
 3.5810	15.1520
 3.5840	15.2250
 3.5860	15.0420
 3.5890	14.8400
 3.5910	14.7250
 3.5930	14.7060
 3.5960	14.9070
 3.5980	14.9020
 3.6010	14.8190
 3.6030	14.8520
 3.6060	14.8000
 3.6080	14.8380
 3.6110	14.9850
 3.6140	15.0130
 3.6160	14.9420
 3.6190	15.0370
 3.6210	15.0250
 3.6240	15.0390
 3.6260	14.9590
 3.6290	14.8810
 3.6310	14.7370
 3.6340	14.8260
 3.6360	15.0400
 3.6390	14.9980
 3.6410	14.8200
 3.6440	14.7830
 3.6470	14.8310
 3.6490	14.9360
 3.6520	14.9140
 3.6540	14.9020
 3.6570	14.9220
 3.6590	14.9450
 3.6620	14.9970
 3.6650	14.9390
 3.6670	14.9380
 3.6700	15.0700
 3.6720	15.0450
 3.6750	15.0310
 3.6780	15.0270
 3.6800	14.9330
 3.6830	14.9210
 3.6850	14.9930
 3.6880	14.9030
 3.6910	14.8710
 3.6930	14.9040
 3.6960	14.9110
 3.6990	14.8880
 3.7010	14.8670
 3.7040	14.8310
 3.7060	14.9670
 3.7090	15.0200
 3.7120	14.9990
 3.7140	14.9400
 3.7170	14.9190
 3.7200	14.9180
 3.7220	14.8590
 3.7250	14.7110
 3.7280	14.7780
 3.7300	14.9310
 3.7330	14.9050
 3.7360	14.8370
 3.7390	14.8890
 3.7410	14.8630
 3.7440	14.9560
 3.7470	14.9980
 3.7490	14.9240
 3.7520	14.9050
 3.7550	14.8890
 3.7580	14.7840
 3.7600	14.7570
 3.7630	14.8450
 3.7660	14.9510
 3.7680	14.9560
 3.7710	14.8770
 3.7740	14.8240
 3.7770	14.8590
 3.7790	14.8680
 3.7820	14.9260
 3.7850	14.8980
 3.7880	14.8500
 3.7900	14.8300
 3.7930	14.9430
 3.7960	14.8930
 3.7990	14.8730
 3.8020	14.9440
 3.8040	14.9440
 3.8070	14.9250
 3.8100	14.9280
 3.8130	14.8650
 3.8160	14.8550
 3.8180	14.8900
 3.8210	14.9140
 3.8240	14.9430
 3.8270	14.9220
 3.8300	14.8170
 3.8330	14.7610
 3.8350	14.7790
 3.8380	14.8950
 3.8410	14.9120
 3.8440	14.8740
 3.8470	14.8930
 3.8500	14.8970
 3.8520	14.8520
 3.8550	14.8610
 3.8580	14.8610
 3.8610	14.8530
 3.8640	14.8500
 3.8670	14.8850
 3.8700	14.8280
 3.8730	14.8580
 3.8750	14.8980
 3.8780	14.8600
 3.8810	14.7830
 3.8840	14.8790
 3.8870	14.9280
 3.8900	14.8910
 3.8930	14.8980
 3.8960	14.9710
 3.8990	15.0010
 3.9020	14.9630
 3.9050	14.9030
 3.9080	14.8990
 3.9110	14.8760
 3.9140	14.9670
 3.9160	15.0150
 3.9190	14.9310
 3.9220	14.9000
 3.9250	14.9260
 3.9280	14.8710
 3.9310	14.8510
 3.9340	14.8580
 3.9370	14.8360
 3.9400	14.8080
 3.9430	14.8410
 3.9460	14.8720
 3.9490	14.9180
 3.9520	14.8910
 3.9550	14.8430
 3.9580	14.8090
 3.9610	14.8770
 3.9640	14.8910
 3.9670	14.8930
 3.9700	14.9410
 3.9730	14.9690
 3.9770	14.9440
 3.9800	14.8710
 3.9830	14.7960
 3.9860	14.8320
 3.9890	14.8880
 3.9920	14.9240
 3.9950	14.8890
 3.9980	14.8860
 4.0010	14.8730
 4.0040	14.8940
 4.0070	14.9170
 4.0100	14.9530
 4.0130	14.9060
 4.0170	14.8550
 4.0200	14.8460
 4.0230	14.9370
 4.0260	14.9680
 4.0290	14.9850
 4.0320	14.9770
 4.0350	14.9150
 4.0380	14.8830
 4.0420	14.9080
 4.0450	14.9190
 4.0480	14.9200
 4.0510	14.8690
 4.0540	14.8570
 4.0570	14.8400
 4.0610	14.7670
 4.0640	14.7370
 4.0670	14.8480
 4.0700	14.9060
 4.0730	14.9480
 4.0770	14.8660
 4.0800	14.7590
 4.0830	14.8180
 4.0860	14.8970
 4.0890	14.9080
 4.0930	14.9700
 4.0960	14.9410
 4.0990	14.9560
 4.1020	15.0880
 4.1060	15.0370
 4.1090	14.9550
 4.1120	14.9420
 4.1150	14.9140
 4.1190	14.9210
 4.1220	14.9610
 4.1250	14.9940
 4.1280	14.9240
 4.1320	14.9260
 4.1350	14.9450
 4.1380	14.9440
 4.1420	14.9310
 4.1450	14.9240
 4.1480	14.9090
 4.1520	14.9110
 4.1550	14.9440
 4.1580	14.9800
 4.1620	14.9250
 4.1650	14.9470
 4.1680	14.9440
 4.1720	14.9330
 4.1750	14.9280
 4.1780	14.8820
 4.1820	14.8910
 4.1850	15.0110
 4.1890	15.0100
 4.1920	14.9490
 4.1950	14.9330
 4.1990	15.0260
 4.2020	15.1560
 4.2060	15.1600
 4.2090	15.1960
 4.2120	15.4660
 4.2160	15.7490
 4.2190	15.8210
 4.2230	15.8090
 4.2260	15.8330
 4.2300	15.7170
 4.2330	15.7550
 4.2360	16.0380
 4.2400	16.0020
 4.2430	15.6940
 4.2470	15.3500
 4.2500	15.3010
 4.2540	15.4840
 4.2570	15.4490
 4.2610	15.3460
 4.2640	15.2920
 4.2680	15.2190
 4.2710	15.1280
 4.2750	15.2910
 4.2780	15.4860
 4.2820	15.7340
 4.2850	15.8290
 4.2890	15.9140
 4.2930	15.7600
 4.2960	15.5760
 4.3000	15.4590
 4.3030	15.2540
 4.3070	15.1880
 4.3100	15.3350
 4.3140	15.4390
 4.3180	15.2520
 4.3210	15.2110
 4.3250	15.2800
 4.3280	15.2580
 4.3320	15.2810
 4.3360	15.1900
 4.3390	15.0790
 4.3430	15.0750
 4.3470	15.0740
 4.3500	15.1720
 4.3540	15.2330
 4.3570	15.1070
 4.3610	15.1260
 4.3650	15.1560
 4.3680	15.1200
 4.3720	15.0210
 4.3760	14.9530
 4.3800	15.0390
 4.3830	15.0670
 4.3870	15.0170
 4.3910	15.0160
 4.3940	15.0620
 4.3980	15.0740
 4.4020	15.0210
 4.4060	15.0560
 4.4090	15.0960
 4.4130	15.0760
 4.4170	15.0730
 4.4210	15.1240
 4.4240	15.0900
 4.4280	15.0640
 4.4320	15.0810
 4.4360	15.0370
 4.4400	15.0530
 4.4430	15.1320
 4.4470	15.0920
 4.4510	15.0680
 4.4550	15.1380
 4.4590	15.1000
 4.4620	15.0640
 4.4660	15.0570
 4.4700	15.0490
 4.4740	15.0310
 4.4780	15.0420
 4.4820	15.0520
 4.4860	15.0770
 4.4900	15.0840
 4.4930	15.0620
 4.4970	15.0980
 4.5010	15.1330
 4.5050	15.1390
 4.5090	15.1710
 4.5130	15.1970
 4.5170	15.1390
 4.5210	15.1080
 4.5250	15.1000
 4.5290	15.0390
 4.5330	15.0500
 4.5370	15.0640
 4.5410	15.0130
 4.5450	14.9400
 4.5490	14.9840
 4.5530	14.9910
 4.5570	14.9380
 4.5610	14.9150
 4.5650	14.9250
 4.5690	14.9490
 4.5730	15.0040
 4.5770	15.0510
 4.5810	15.0720
 4.5850	15.0400
 4.5890	14.9920
 4.5930	14.9550
 4.5970	15.0320
 4.6010	15.0570
 4.6050	14.9920
 4.6090	14.9790
 4.6130	15.0270
 4.6170	15.0200
 4.6220	14.9510
 4.6260	15.0000
 4.6300	15.0910
 4.6340	15.1020
 4.6380	15.1010
 4.6420	15.0900
 4.6460	15.1450
 4.6510	15.1350
 4.6550	15.0910
 4.6590	15.0480
 4.6630	15.0790
 4.6670	15.0170
 4.6720	14.9650
 4.6760	14.9670
 4.6800	15.0080
 4.6840	15.0400
 4.6880	15.0410
 4.6930	15.0630
 4.6970	15.1240
 4.7010	15.0810
 4.7050	15.0390
 4.7100	15.0700
 4.7140	15.0150
 4.7180	14.9190
 4.7230	14.9370
 4.7270	14.9910
 4.7310	15.0330
 4.7360	15.0510
 4.7400	15.0590
 4.7440	15.0590
 4.7490	14.9810
 4.7530	14.9760
 4.7570	15.1180
 4.7620	15.1260
 4.7660	15.0880
 4.7700	15.0420
 4.7750	15.0400
 4.7790	15.0760
 4.7840	15.0910
 4.7880	15.0640
 4.7920	15.0330
 4.7970	14.9850
 4.8010	15.0240
 4.8060	15.0270
 4.8100	14.9930
 4.8150	15.0920
 4.8190	15.0790
 4.8240	15.0100
 4.8280	15.0340
 4.8330	15.0520
 4.8370	15.0840
 4.8420	15.0690
 4.8460	15.0340
 4.8510	15.0340
 4.8550	14.9790
 4.8600	14.9660
 4.8640	15.0470
 4.8690	15.1210
 4.8730	15.0540
 4.8780	14.9990
 4.8830	15.0380
 4.8870	15.0410
 4.8920	15.0230
 4.8960	15.0250
 4.9010	15.0640
 4.9060	15.0680
 4.9100	15.1190
 4.9150	15.1210
 4.9200	15.1660
 4.9240	15.1630
 4.9290	15.0600
 4.9340	15.0080
 4.9380	15.0350
 4.9430	15.0690
 4.9480	15.1050
 4.9530	15.0670
 4.9570	15.0800
 4.9620	15.0960
 4.9670	15.0890
 4.9720	15.0860
 4.9760	15.1770
 4.9810	15.1500
 4.9860	15.0970
 4.9910	15.1210
 4.9960	15.1250
 5.0000	15.1160
 5.0050	15.1140
 5.0100	15.0790
 5.0150	15.0190
 5.0200	14.9950
 5.0250	15.0620
 5.0290	15.1090
 5.0340	15.1620
 5.0390	15.1390
 5.0440	15.1400
 5.0490	15.0990
 5.0540	15.0920
 5.0590	15.0880
 5.0640	15.1930
 5.0690	15.1380
 5.0740	14.9920
 5.0790	14.9820
 5.0840	15.0830
 5.0890	15.1090
 5.0940	15.1150
 5.0990	15.1010
 5.1040	15.0560
 5.1090	15.0340
 5.1140	15.0580
 5.1190	15.0810
 5.1240	15.0460
 5.1290	15.0020
 5.1340	15.0370
 5.1390	15.0160
 5.1440	15.0450
 5.1490	15.0880
 5.1540	15.0590
 5.1600	15.0710
 5.1650	15.0890
 5.1700	15.0060
 5.1750	15.0230
 5.1800	15.0720
 5.1850	15.0410
 5.1910	14.9710
 5.1960	14.9860
 5.2010	15.0780
 5.2060	15.1310
 5.2110	15.1590
 5.2170	15.0960
 5.2220	14.9470
 5.2270	15.0100
 5.2320	15.1000
 5.2380	15.1180
 5.2430	15.0580
 5.2480	14.9880
 5.2540	14.9220
 5.2590	15.0250
 5.2640	15.0860
 5.2700	15.0750
 5.2750	15.0590
 5.2800	15.0600
 5.2860	14.9970
 5.2910	15.0520
 5.2970	15.1520
 5.3020	15.0540
 5.3070	14.9540
 5.3130	15.0110
 5.3180	15.0320
 5.3240	15.0980
 5.3290	15.1430
 5.3350	15.1500
 5.3400	15.1080
 5.3460	15.0290
 5.3510	14.9790
 5.3570	15.0630
 5.3620	15.0320
 5.3680	15.0270
 5.3730	14.9810
 5.3790	14.9900
 5.3850	15.0400
 5.3900	15.0620
 5.3960	14.9670
 5.4010	14.9570
 5.4070	15.0450
 5.4130	15.0500
 5.4180	14.9400
 5.4240	14.9900
 5.4300	14.9890
 5.4350	14.9360
