Name: Tsuga canadensis
Type: Vegetation
Class: Tree
Genus: Tsuga
Species: canadensis
Sample No.: TSCA-2-51
Owner: UCSB
Wavelength Range: VSWIR
Origin: USA; Massachusetts; Harvard Forest
Collection Date: 7/8/2013
Description: Samples were collected as part of NSF Macrosystem Biology proposal titled: Collaborative Research: Thermal controls on ecosystem metabolism and function: scaling from leaves to canopies to regions. Samples were collected and overnighted to JPL facilities for processing. The same leaves were processed in the Nicolet and then measured using the ASD.
Measurement: Bidirectional reflectance
First Column: X
Second Column: Y
X Units: Wavelength (micrometers)
Y Units: Reflectance (percentage)
First X Value: 0.35
Last X Value: 2.5
Number of X Values: 2151
Additional Information: vegetation.tree.tsuga.canadensis.vswir.tsca-2-51.ucsb.asd.ancillary.txt

 0.3500	 3.5610
 0.3510	 3.1220
 0.3520	 3.0000
 0.3530	 3.2850
 0.3540	 3.7060
 0.3550	 3.3780
 0.3560	 3.3450
 0.3570	 3.5050
 0.3580	 3.2570
 0.3590	 3.3310
 0.3600	 3.3340
 0.3610	 3.1620
 0.3620	 3.2640
 0.3630	 3.2240
 0.3640	 3.2030
 0.3650	 3.3620
 0.3660	 3.2790
 0.3670	 3.2350
 0.3680	 3.3020
 0.3690	 3.3910
 0.3700	 3.4160
 0.3710	 3.3510
 0.3720	 3.2430
 0.3730	 3.2440
 0.3740	 3.2650
 0.3750	 3.2350
 0.3760	 3.1430
 0.3770	 3.2310
 0.3780	 3.2260
 0.3790	 3.1370
 0.3800	 3.2070
 0.3810	 3.2680
 0.3820	 3.2920
 0.3830	 3.2810
 0.3840	 3.2230
 0.3850	 3.2200
 0.3860	 3.2450
 0.3870	 3.2410
 0.3880	 3.3460
 0.3890	 3.3150
 0.3900	 3.1650
 0.3910	 3.1820
 0.3920	 3.2580
 0.3930	 3.2860
 0.3940	 3.2370
 0.3950	 3.2830
 0.3960	 3.2990
 0.3970	 3.2790
 0.3980	 3.2680
 0.3990	 3.2560
 0.4000	 3.2790
 0.4010	 3.3320
 0.4020	 3.3560
 0.4030	 3.3440
 0.4040	 3.3320
 0.4050	 3.3500
 0.4060	 3.3680
 0.4070	 3.4000
 0.4080	 3.4360
 0.4090	 3.4530
 0.4100	 3.4050
 0.4110	 3.4070
 0.4120	 3.4850
 0.4130	 3.4810
 0.4140	 3.4780
 0.4150	 3.5140
 0.4160	 3.5820
 0.4170	 3.5390
 0.4180	 3.5320
 0.4190	 3.5860
 0.4200	 3.6040
 0.4210	 3.6120
 0.4220	 3.6160
 0.4230	 3.6200
 0.4240	 3.6230
 0.4250	 3.6420
 0.4260	 3.6580
 0.4270	 3.6470
 0.4280	 3.6780
 0.4290	 3.6880
 0.4300	 3.6650
 0.4310	 3.6810
 0.4320	 3.6910
 0.4330	 3.6890
 0.4340	 3.6830
 0.4350	 3.6940
 0.4360	 3.7090
 0.4370	 3.7230
 0.4380	 3.7450
 0.4390	 3.7490
 0.4400	 3.7330
 0.4410	 3.7110
 0.4420	 3.7350
 0.4430	 3.7440
 0.4440	 3.7420
 0.4450	 3.7490
 0.4460	 3.7450
 0.4470	 3.7460
 0.4480	 3.7550
 0.4490	 3.7570
 0.4500	 3.7660
 0.4510	 3.7780
 0.4520	 3.7900
 0.4530	 3.8090
 0.4540	 3.8080
 0.4550	 3.7990
 0.4560	 3.8190
 0.4570	 3.8250
 0.4580	 3.8150
 0.4590	 3.8020
 0.4600	 3.8260
 0.4610	 3.8330
 0.4620	 3.8300
 0.4630	 3.8390
 0.4640	 3.8350
 0.4650	 3.8420
 0.4660	 3.8570
 0.4670	 3.8500
 0.4680	 3.8570
 0.4690	 3.8700
 0.4700	 3.8740
 0.4710	 3.8640
 0.4720	 3.8530
 0.4730	 3.8460
 0.4740	 3.8430
 0.4750	 3.8560
 0.4760	 3.8630
 0.4770	 3.8580
 0.4780	 3.8580
 0.4790	 3.8630
 0.4800	 3.8760
 0.4810	 3.8930
 0.4820	 3.8900
 0.4830	 3.8900
 0.4840	 3.9010
 0.4850	 3.9120
 0.4860	 3.9030
 0.4870	 3.9000
 0.4880	 3.9170
 0.4890	 3.9220
 0.4900	 3.9310
 0.4910	 3.9480
 0.4920	 3.9680
 0.4930	 3.9730
 0.4940	 3.9770
 0.4950	 3.9910
 0.4960	 4.0120
 0.4970	 4.0360
 0.4980	 4.0550
 0.4990	 4.0680
 0.5000	 4.0920
 0.5010	 4.1240
 0.5020	 4.1640
 0.5030	 4.2120
 0.5040	 4.2510
 0.5050	 4.2910
 0.5060	 4.3420
 0.5070	 4.4100
 0.5080	 4.4850
 0.5090	 4.5600
 0.5100	 4.6330
 0.5110	 4.7260
 0.5120	 4.8360
 0.5130	 4.9540
 0.5140	 5.0720
 0.5150	 5.2050
 0.5160	 5.3460
 0.5170	 5.4890
 0.5180	 5.6470
 0.5190	 5.8110
 0.5200	 5.9780
 0.5210	 6.1450
 0.5220	 6.3150
 0.5230	 6.4760
 0.5240	 6.6250
 0.5250	 6.7770
 0.5260	 6.9240
 0.5270	 7.0590
 0.5280	 7.1740
 0.5290	 7.2830
 0.5300	 7.3840
 0.5310	 7.4740
 0.5320	 7.5450
 0.5330	 7.6110
 0.5340	 7.6740
 0.5350	 7.7330
 0.5360	 7.7680
 0.5370	 7.7990
 0.5380	 7.8350
 0.5390	 7.8680
 0.5400	 7.8930
 0.5410	 7.9160
 0.5420	 7.9420
 0.5430	 7.9740
 0.5440	 8.0040
 0.5450	 8.0300
 0.5460	 8.0520
 0.5470	 8.0630
 0.5480	 8.0740
 0.5490	 8.0900
 0.5500	 8.1010
 0.5510	 8.1110
 0.5520	 8.1130
 0.5530	 8.1050
 0.5540	 8.0920
 0.5550	 8.0630
 0.5560	 8.0180
 0.5570	 7.9680
 0.5580	 7.9070
 0.5590	 7.8390
 0.5600	 7.7650
 0.5610	 7.6840
 0.5620	 7.6010
 0.5630	 7.5150
 0.5640	 7.4240
 0.5650	 7.3310
 0.5660	 7.2270
 0.5670	 7.1160
 0.5680	 7.0160
 0.5690	 6.9000
 0.5700	 6.7830
 0.5710	 6.6780
 0.5720	 6.5740
 0.5730	 6.4830
 0.5740	 6.4020
 0.5750	 6.3220
 0.5760	 6.2540
 0.5770	 6.1940
 0.5780	 6.1350
 0.5790	 6.0800
 0.5800	 6.0290
 0.5810	 5.9800
 0.5820	 5.9310
 0.5830	 5.8800
 0.5840	 5.8320
 0.5850	 5.7890
 0.5860	 5.7480
 0.5870	 5.7030
 0.5880	 5.6630
 0.5890	 5.6360
 0.5900	 5.6090
 0.5910	 5.5930
 0.5920	 5.5820
 0.5930	 5.5670
 0.5940	 5.5520
 0.5950	 5.5380
 0.5960	 5.5260
 0.5970	 5.5110
 0.5980	 5.4940
 0.5990	 5.4750
 0.6000	 5.4540
 0.6010	 5.4380
 0.6020	 5.4210
 0.6030	 5.4010
 0.6040	 5.3800
 0.6050	 5.3500
 0.6060	 5.3200
 0.6070	 5.2950
 0.6080	 5.2640
 0.6090	 5.2310
 0.6100	 5.2010
 0.6110	 5.1750
 0.6120	 5.1380
 0.6130	 5.1000
 0.6140	 5.0670
 0.6150	 5.0340
 0.6160	 5.0030
 0.6170	 4.9760
 0.6180	 4.9500
 0.6190	 4.9270
 0.6200	 4.9060
 0.6210	 4.8890
 0.6220	 4.8770
 0.6230	 4.8610
 0.6240	 4.8490
 0.6250	 4.8450
 0.6260	 4.8370
 0.6270	 4.8330
 0.6280	 4.8300
 0.6290	 4.8270
 0.6300	 4.8230
 0.6310	 4.8200
 0.6320	 4.8150
 0.6330	 4.8090
 0.6340	 4.7980
 0.6350	 4.7840
 0.6360	 4.7650
 0.6370	 4.7390
 0.6380	 4.7090
 0.6390	 4.6790
 0.6400	 4.6530
 0.6410	 4.6200
 0.6420	 4.5850
 0.6430	 4.5540
 0.6440	 4.5260
 0.6450	 4.4970
 0.6460	 4.4680
 0.6470	 4.4440
 0.6480	 4.4250
 0.6490	 4.4080
 0.6500	 4.3930
 0.6510	 4.3780
 0.6520	 4.3680
 0.6530	 4.3590
 0.6540	 4.3490
 0.6550	 4.3430
 0.6560	 4.3390
 0.6570	 4.3310
 0.6580	 4.3140
 0.6590	 4.3000
 0.6600	 4.2900
 0.6610	 4.2810
 0.6620	 4.2690
 0.6630	 4.2550
 0.6640	 4.2460
 0.6650	 4.2440
 0.6660	 4.2370
 0.6670	 4.2310
 0.6680	 4.2300
 0.6690	 4.2350
 0.6700	 4.2420
 0.6710	 4.2520
 0.6720	 4.2620
 0.6730	 4.2760
 0.6740	 4.2900
 0.6750	 4.3070
 0.6760	 4.3310
 0.6770	 4.3510
 0.6780	 4.3730
 0.6790	 4.4020
 0.6800	 4.4380
 0.6810	 4.4670
 0.6820	 4.5020
 0.6830	 4.5480
 0.6840	 4.5870
 0.6850	 4.6330
 0.6860	 4.6870
 0.6870	 4.7480
 0.6880	 4.8200
 0.6890	 4.9110
 0.6900	 5.0270
 0.6910	 5.1710
 0.6920	 5.3550
 0.6930	 5.5780
 0.6940	 5.8440
 0.6950	 6.1720
 0.6960	 6.5570
 0.6970	 7.0010
 0.6980	 7.5020
 0.6990	 8.0600
 0.7000	 8.6740
 0.7010	 9.3380
 0.7020	10.0450
 0.7030	10.7920
 0.7040	11.5770
 0.7050	12.3950
 0.7060	13.2400
 0.7070	14.1170
 0.7080	15.0150
 0.7090	15.9260
 0.7100	16.8720
 0.7110	17.8310
 0.7120	18.8010
 0.7130	19.7990
 0.7140	20.7940
 0.7150	21.8010
 0.7160	22.8290
 0.7170	23.8520
 0.7180	24.8800
 0.7190	25.9110
 0.7200	26.9400
 0.7210	27.9630
 0.7220	28.9740
 0.7230	29.9740
 0.7240	30.9590
 0.7250	31.9250
 0.7260	32.8690
 0.7270	33.7880
 0.7280	34.6770
 0.7290	35.5330
 0.7300	36.3610
 0.7310	37.1630
 0.7320	37.9260
 0.7330	38.6540
 0.7340	39.3500
 0.7350	40.0160
 0.7360	40.6410
 0.7370	41.2330
 0.7380	41.7970
 0.7390	42.3280
 0.7400	42.8300
 0.7410	43.2950
 0.7420	43.7200
 0.7430	44.1430
 0.7440	44.5220
 0.7450	44.8540
 0.7460	45.1710
 0.7470	45.4830
 0.7480	45.7660
 0.7490	46.0080
 0.7500	46.2410
 0.7510	46.4470
 0.7520	46.6380
 0.7530	46.8300
 0.7540	46.9920
 0.7550	47.1240
 0.7560	47.2390
 0.7570	47.3620
 0.7580	47.4760
 0.7590	47.5750
 0.7600	47.6610
 0.7610	47.7380
 0.7620	47.8170
 0.7630	47.8920
 0.7640	47.9510
 0.7650	47.9860
 0.7660	48.0310
 0.7670	48.0830
 0.7680	48.1170
 0.7690	48.1430
 0.7700	48.1740
 0.7710	48.2140
 0.7720	48.2490
 0.7730	48.2830
 0.7740	48.3080
 0.7750	48.3230
 0.7760	48.3510
 0.7770	48.3570
 0.7780	48.3600
 0.7790	48.3970
 0.7800	48.4310
 0.7810	48.4490
 0.7820	48.4590
 0.7830	48.4850
 0.7840	48.5110
 0.7850	48.5290
 0.7860	48.5400
 0.7870	48.5580
 0.7880	48.5750
 0.7890	48.5900
 0.7900	48.6060
 0.7910	48.6420
 0.7920	48.6490
 0.7930	48.6410
 0.7940	48.6740
 0.7950	48.6950
 0.7960	48.7010
 0.7970	48.7070
 0.7980	48.7370
 0.7990	48.7600
 0.8000	48.7650
 0.8010	48.7620
 0.8020	48.7920
 0.8030	48.8170
 0.8040	48.8310
 0.8050	48.8410
 0.8060	48.8420
 0.8070	48.8400
 0.8080	48.8440
 0.8090	48.8570
 0.8100	48.8630
 0.8110	48.8710
 0.8120	48.8850
 0.8130	48.9020
 0.8140	48.9250
 0.8150	48.9390
 0.8160	48.9380
 0.8170	48.9490
 0.8180	48.9700
 0.8190	48.9820
 0.8200	48.9700
 0.8210	48.9790
 0.8220	49.0010
 0.8230	49.0200
 0.8240	49.0180
 0.8250	49.0070
 0.8260	49.0220
 0.8270	49.0600
 0.8280	49.0570
 0.8290	49.0500
 0.8300	49.0470
 0.8310	49.0490
 0.8320	49.0700
 0.8330	49.0840
 0.8340	49.0880
 0.8350	49.0940
 0.8360	49.1120
 0.8370	49.1340
 0.8380	49.1560
 0.8390	49.1740
 0.8400	49.1640
 0.8410	49.1720
 0.8420	49.2040
 0.8430	49.1990
 0.8440	49.2270
 0.8450	49.2650
 0.8460	49.2840
 0.8470	49.2850
 0.8480	49.2920
 0.8490	49.3050
 0.8500	49.3170
 0.8510	49.3480
 0.8520	49.3660
 0.8530	49.3760
 0.8540	49.4000
 0.8550	49.3960
 0.8560	49.4020
 0.8570	49.4300
 0.8580	49.4560
 0.8590	49.4670
 0.8600	49.4610
 0.8610	49.4610
 0.8620	49.5120
 0.8630	49.5160
 0.8640	49.5030
 0.8650	49.5160
 0.8660	49.5470
 0.8670	49.5640
 0.8680	49.5780
 0.8690	49.6060
 0.8700	49.6010
 0.8710	49.6010
 0.8720	49.6220
 0.8730	49.6580
 0.8740	49.6550
 0.8750	49.6580
 0.8760	49.6810
 0.8770	49.6950
 0.8780	49.6980
 0.8790	49.7000
 0.8800	49.7120
 0.8810	49.7340
 0.8820	49.7260
 0.8830	49.7270
 0.8840	49.7600
 0.8850	49.7650
 0.8860	49.7740
 0.8870	49.7870
 0.8880	49.7950
 0.8890	49.7980
 0.8900	49.7980
 0.8910	49.7950
 0.8920	49.7940
 0.8930	49.8230
 0.8940	49.8420
 0.8950	49.8340
 0.8960	49.8060
 0.8970	49.8320
 0.8980	49.8620
 0.8990	49.8730
 0.9000	49.8780
 0.9010	49.8800
 0.9020	49.8710
 0.9030	49.8650
 0.9040	49.8910
 0.9050	49.9040
 0.9060	49.9020
 0.9070	49.8960
 0.9080	49.9080
 0.9090	49.9270
 0.9100	49.9260
 0.9110	49.9040
 0.9120	49.9380
 0.9130	49.9590
 0.9140	49.9560
 0.9150	49.9420
 0.9160	49.9350
 0.9170	49.9290
 0.9180	49.9330
 0.9190	49.9480
 0.9200	49.9480
 0.9210	49.9230
 0.9220	49.8960
 0.9230	49.8990
 0.9240	49.9310
 0.9250	49.9260
 0.9260	49.8860
 0.9270	49.8660
 0.9280	49.8520
 0.9290	49.8450
 0.9300	49.8390
 0.9310	49.8170
 0.9320	49.7720
 0.9330	49.7490
 0.9340	49.7450
 0.9350	49.6980
 0.9360	49.6730
 0.9370	49.6520
 0.9380	49.6210
 0.9390	49.5940
 0.9400	49.5470
 0.9410	49.4990
 0.9420	49.4650
 0.9430	49.4430
 0.9440	49.3900
 0.9450	49.3280
 0.9460	49.2800
 0.9470	49.2300
 0.9480	49.1600
 0.9490	49.0720
 0.9500	48.9780
 0.9510	48.9010
 0.9520	48.8390
 0.9530	48.7690
 0.9540	48.6750
 0.9550	48.5650
 0.9560	48.4690
 0.9570	48.3840
 0.9580	48.3040
 0.9590	48.2530
 0.9600	48.2110
 0.9610	48.1450
 0.9620	48.0550
 0.9630	48.0690
 0.9640	48.0480
 0.9650	47.9990
 0.9660	47.9780
 0.9670	47.9750
 0.9680	47.9570
 0.9690	47.9330
 0.9700	47.9250
 0.9710	47.9370
 0.9720	47.9110
 0.9730	47.8690
 0.9740	47.8640
 0.9750	47.8950
 0.9760	47.9040
 0.9770	47.8930
 0.9780	47.8950
 0.9790	47.9230
 0.9800	47.9100
 0.9810	47.8950
 0.9820	47.9470
 0.9830	47.9940
 0.9840	48.0140
 0.9850	48.0340
 0.9860	48.0880
 0.9870	48.1120
 0.9880	48.1290
 0.9890	48.1470
 0.9900	48.1640
 0.9910	48.1760
 0.9920	48.2180
 0.9930	48.2590
 0.9940	48.3010
 0.9950	48.3430
 0.9960	48.3850
 0.9970	48.4260
 0.9980	48.4680
 0.9990	48.5100
 1.0000	48.5520
 1.0010	48.5930
 1.0020	48.6350
 1.0030	48.6770
 1.0040	48.7190
 1.0050	48.7610
 1.0060	48.8020
 1.0070	48.8440
 1.0080	48.8860
 1.0090	48.9280
 1.0100	48.9280
 1.0110	48.9610
 1.0120	48.9980
 1.0130	49.0280
 1.0140	49.0690
 1.0150	49.1180
 1.0160	49.1660
 1.0170	49.2170
 1.0180	49.2600
 1.0190	49.3010
 1.0200	49.3460
 1.0210	49.3840
 1.0220	49.4280
 1.0230	49.4680
 1.0240	49.5030
 1.0250	49.5400
 1.0260	49.5800
 1.0270	49.6150
 1.0280	49.6430
 1.0290	49.6790
 1.0300	49.7180
 1.0310	49.7500
 1.0320	49.7810
 1.0330	49.8150
 1.0340	49.8440
 1.0350	49.8790
 1.0360	49.9170
 1.0370	49.9510
 1.0380	49.9840
 1.0390	50.0120
 1.0400	50.0430
 1.0410	50.0750
 1.0420	50.1070
 1.0430	50.1470
 1.0440	50.1700
 1.0450	50.1790
 1.0460	50.2030
 1.0470	50.2230
 1.0480	50.2430
 1.0490	50.2760
 1.0500	50.3030
 1.0510	50.3210
 1.0520	50.3400
 1.0530	50.3600
 1.0540	50.3830
 1.0550	50.4020
 1.0560	50.4220
 1.0570	50.4350
 1.0580	50.4450
 1.0590	50.4550
 1.0600	50.4550
 1.0610	50.4680
 1.0620	50.4900
 1.0630	50.5070
 1.0640	50.5280
 1.0650	50.5440
 1.0660	50.5520
 1.0670	50.5630
 1.0680	50.5760
 1.0690	50.5900
 1.0700	50.6010
 1.0710	50.6120
 1.0720	50.6230
 1.0730	50.6340
 1.0740	50.6440
 1.0750	50.6600
 1.0760	50.6660
 1.0770	50.6640
 1.0780	50.6670
 1.0790	50.6690
 1.0800	50.6720
 1.0810	50.6800
 1.0820	50.6830
 1.0830	50.6780
 1.0840	50.6770
 1.0850	50.6720
 1.0860	50.6700
 1.0870	50.6690
 1.0880	50.6700
 1.0890	50.6660
 1.0900	50.6620
 1.0910	50.6530
 1.0920	50.6380
 1.0930	50.6270
 1.0940	50.6150
 1.0950	50.6020
 1.0960	50.5880
 1.0970	50.5780
 1.0980	50.5680
 1.0990	50.5580
 1.1000	50.5490
 1.1010	50.5400
 1.1020	50.5340
 1.1030	50.5200
 1.1040	50.5020
 1.1050	50.4840
 1.1060	50.4660
 1.1070	50.4420
 1.1080	50.4210
 1.1090	50.4050
 1.1100	50.3840
 1.1110	50.3590
 1.1120	50.3360
 1.1130	50.3150
 1.1140	50.2900
 1.1150	50.2610
 1.1160	50.2320
 1.1170	50.2020
 1.1180	50.1670
 1.1190	50.1340
 1.1200	50.0920
 1.1210	50.0420
 1.1220	49.9920
 1.1230	49.9320
 1.1240	49.8670
 1.1250	49.7970
 1.1260	49.7260
 1.1270	49.6390
 1.1280	49.5460
 1.1290	49.4390
 1.1300	49.3220
 1.1310	49.1930
 1.1320	49.0560
 1.1330	48.9070
 1.1340	48.7450
 1.1350	48.5750
 1.1360	48.3940
 1.1370	48.2030
 1.1380	48.0090
 1.1390	47.8040
 1.1400	47.5900
 1.1410	47.3750
 1.1420	47.1530
 1.1430	46.9320
 1.1440	46.7120
 1.1450	46.4880
 1.1460	46.2760
 1.1470	46.0640
 1.1480	45.8660
 1.1490	45.6790
 1.1500	45.5010
 1.1510	45.3270
 1.1520	45.1700
 1.1530	45.0260
 1.1540	44.8940
 1.1550	44.7700
 1.1560	44.6680
 1.1570	44.5740
 1.1580	44.4910
 1.1590	44.4220
 1.1600	44.3570
 1.1610	44.2960
 1.1620	44.2420
 1.1630	44.1920
 1.1640	44.1510
 1.1650	44.1170
 1.1660	44.0920
 1.1670	44.0660
 1.1680	44.0480
 1.1690	44.0280
 1.1700	44.0100
 1.1710	43.9950
 1.1720	43.9830
 1.1730	43.9690
 1.1740	43.9560
 1.1750	43.9390
 1.1760	43.9220
 1.1770	43.9040
 1.1780	43.8850
 1.1790	43.8660
 1.1800	43.8450
 1.1810	43.8250
 1.1820	43.8050
 1.1830	43.7820
 1.1840	43.7630
 1.1850	43.7460
 1.1860	43.7300
 1.1870	43.7160
 1.1880	43.7010
 1.1890	43.6830
 1.1900	43.6700
 1.1910	43.6540
 1.1920	43.6460
 1.1930	43.6420
 1.1940	43.6400
 1.1950	43.6400
 1.1960	43.6450
 1.1970	43.6480
 1.1980	43.6590
 1.1990	43.6700
 1.2000	43.6840
 1.2010	43.7030
 1.2020	43.7220
 1.2030	43.7430
 1.2040	43.7660
 1.2050	43.7890
 1.2060	43.8150
 1.2070	43.8430
 1.2080	43.8730
 1.2090	43.9040
 1.2100	43.9400
 1.2110	43.9770
 1.2120	44.0140
 1.2130	44.0560
 1.2140	44.1010
 1.2150	44.1480
 1.2160	44.1970
 1.2170	44.2500
 1.2180	44.2990
 1.2190	44.3470
 1.2200	44.3970
 1.2210	44.4480
 1.2220	44.4990
 1.2230	44.5500
 1.2240	44.6030
 1.2250	44.6550
 1.2260	44.7050
 1.2270	44.7570
 1.2280	44.8060
 1.2290	44.8530
 1.2300	44.9000
 1.2310	44.9470
 1.2320	44.9930
 1.2330	45.0380
 1.2340	45.0820
 1.2350	45.1240
 1.2360	45.1630
 1.2370	45.2000
 1.2380	45.2370
 1.2390	45.2720
 1.2400	45.3100
 1.2410	45.3480
 1.2420	45.3800
 1.2430	45.4140
 1.2440	45.4490
 1.2450	45.4820
 1.2460	45.5190
 1.2470	45.5560
 1.2480	45.5890
 1.2490	45.6170
 1.2500	45.6420
 1.2510	45.6660
 1.2520	45.6850
 1.2530	45.7040
 1.2540	45.7220
 1.2550	45.7380
 1.2560	45.7570
 1.2570	45.7790
 1.2580	45.7960
 1.2590	45.8110
 1.2600	45.8240
 1.2610	45.8350
 1.2620	45.8430
 1.2630	45.8510
 1.2640	45.8610
 1.2650	45.8670
 1.2660	45.8690
 1.2670	45.8720
 1.2680	45.8750
 1.2690	45.8760
 1.2700	45.8750
 1.2710	45.8700
 1.2720	45.8640
 1.2730	45.8540
 1.2740	45.8420
 1.2750	45.8330
 1.2760	45.8140
 1.2770	45.7930
 1.2780	45.7760
 1.2790	45.7550
 1.2800	45.7360
 1.2810	45.7160
 1.2820	45.6900
 1.2830	45.6630
 1.2840	45.6300
 1.2850	45.5950
 1.2860	45.5590
 1.2870	45.5200
 1.2880	45.4770
 1.2890	45.4350
 1.2900	45.3900
 1.2910	45.3440
 1.2920	45.2970
 1.2930	45.2460
 1.2940	45.1920
 1.2950	45.1320
 1.2960	45.0690
 1.2970	45.0050
 1.2980	44.9360
 1.2990	44.8630
 1.3000	44.7860
 1.3010	44.7040
 1.3020	44.6170
 1.3030	44.5260
 1.3040	44.4330
 1.3050	44.3360
 1.3060	44.2380
 1.3070	44.1410
 1.3080	44.0390
 1.3090	43.9310
 1.3100	43.8160
 1.3110	43.6950
 1.3120	43.5710
 1.3130	43.4410
 1.3140	43.3060
 1.3150	43.1680
 1.3160	43.0230
 1.3170	42.8730
 1.3180	42.7180
 1.3190	42.5560
 1.3200	42.3880
 1.3210	42.2130
 1.3220	42.0340
 1.3230	41.8540
 1.3240	41.6690
 1.3250	41.4820
 1.3260	41.2940
 1.3270	41.1020
 1.3280	40.9050
 1.3290	40.7080
 1.3300	40.5070
 1.3310	40.3010
 1.3320	40.0920
 1.3330	39.8850
 1.3340	39.6790
 1.3350	39.4730
 1.3360	39.2680
 1.3370	39.0590
 1.3380	38.8530
 1.3390	38.6490
 1.3400	38.4430
 1.3410	38.2420
 1.3420	38.0440
 1.3430	37.8480
 1.3440	37.6560
 1.3450	37.4650
 1.3460	37.2770
 1.3470	37.0900
 1.3480	36.9050
 1.3490	36.7240
 1.3500	36.5470
 1.3510	36.3710
 1.3520	36.1970
 1.3530	36.0210
 1.3540	35.8420
 1.3550	35.6670
 1.3560	35.4900
 1.3570	35.3110
 1.3580	35.1360
 1.3590	34.9570
 1.3600	34.7700
 1.3610	34.5800
 1.3620	34.3830
 1.3630	34.1770
 1.3640	33.9640
 1.3650	33.7420
 1.3660	33.5120
 1.3670	33.2690
 1.3680	33.0140
 1.3690	32.7440
 1.3700	32.4540
 1.3710	32.1510
 1.3720	31.8290
 1.3730	31.4840
 1.3740	31.1260
 1.3750	30.7460
 1.3760	30.3380
 1.3770	29.9100
 1.3780	29.4510
 1.3790	28.9670
 1.3800	28.4620
 1.3810	27.9280
 1.3820	27.3790
 1.3830	26.8090
 1.3840	26.2240
 1.3850	25.6210
 1.3860	25.0110
 1.3870	24.3790
 1.3880	23.7540
 1.3890	23.1220
 1.3900	22.4880
 1.3910	21.8640
 1.3920	21.2440
 1.3930	20.6280
 1.3940	20.0260
 1.3950	19.4300
 1.3960	18.8510
 1.3970	18.2930
 1.3980	17.7510
 1.3990	17.2370
 1.4000	16.7420
 1.4010	16.2660
 1.4020	15.8200
 1.4030	15.3960
 1.4040	14.9960
 1.4050	14.6240
 1.4060	14.2730
 1.4070	13.9480
 1.4080	13.6460
 1.4090	13.3630
 1.4100	13.1030
 1.4110	12.8610
 1.4120	12.6350
 1.4130	12.4290
 1.4140	12.2400
 1.4150	12.0660
 1.4160	11.9070
 1.4170	11.7610
 1.4180	11.6270
 1.4190	11.5040
 1.4200	11.3920
 1.4210	11.2900
 1.4220	11.1970
 1.4230	11.1130
 1.4240	11.0380
 1.4250	10.9690
 1.4260	10.9100
 1.4270	10.8540
 1.4280	10.8040
 1.4290	10.7590
 1.4300	10.7190
 1.4310	10.6830
 1.4320	10.6540
 1.4330	10.6280
 1.4340	10.6060
 1.4350	10.5870
 1.4360	10.5710
 1.4370	10.5580
 1.4380	10.5480
 1.4390	10.5420
 1.4400	10.5390
 1.4410	10.5390
 1.4420	10.5420
 1.4430	10.5460
 1.4440	10.5520
 1.4450	10.5600
 1.4460	10.5690
 1.4470	10.5810
 1.4480	10.5930
 1.4490	10.6060
 1.4500	10.6220
 1.4510	10.6360
 1.4520	10.6530
 1.4530	10.6700
 1.4540	10.6900
 1.4550	10.7120
 1.4560	10.7330
 1.4570	10.7580
 1.4580	10.7850
 1.4590	10.8150
 1.4600	10.8490
 1.4610	10.8870
 1.4620	10.9280
 1.4630	10.9730
 1.4640	11.0220
 1.4650	11.0760
 1.4660	11.1330
 1.4670	11.1960
 1.4680	11.2630
 1.4690	11.3330
 1.4700	11.4060
 1.4710	11.4840
 1.4720	11.5630
