Name: Pinus lambertiana 3
Type: vegetation
Class: Tree
Genus: Pinus
Species: lambertiana
Sample No.: VH165
Owner: UCSB
Wavelength Range: VSWIR
Origin: 37.0433; -119.3048; WGS84
Collection Date: 6/8/2013
Description: Samples were collected as part of the HyspIRI Airborne Campaign. 48 individual plants were sampled in three times in 2013 - spring  summer  and fall. The name of the sample includes a 1  2  or 3 which references a different individual of the species. Samples were taken to JPL and processed within 48 hours of collection. The same leaves were processed in the Nicolet and then measured using the ASD.
Measurement: Bidirectional reflectance
First Column: X
Second Column: Y
X Units: Wavelength (micrometers)
Y Units: Reflectance (percentage)
First X Value: 0.35
Last X Value: 2.5
Number of X Values: 2151
Additional Information: vegetation.tree.pinus.lambertiana.vswir.vh165.ucsb.asd.ancillary.txt

 0.3500	 4.6110
 0.3510	 4.7520
 0.3520	 4.7840
 0.3530	 4.7030
 0.3540	 4.5920
 0.3550	 4.5870
 0.3560	 4.4960
 0.3570	 4.4260
 0.3580	 4.5940
 0.3590	 4.7010
 0.3600	 4.6330
 0.3610	 4.4570
 0.3620	 4.4300
 0.3630	 4.5250
 0.3640	 4.6410
 0.3650	 4.6630
 0.3660	 4.5420
 0.3670	 4.5040
 0.3680	 4.5660
 0.3690	 4.5890
 0.3700	 4.4800
 0.3710	 4.4200
 0.3720	 4.4750
 0.3730	 4.4590
 0.3740	 4.4360
 0.3750	 4.4410
 0.3760	 4.4860
 0.3770	 4.5370
 0.3780	 4.5150
 0.3790	 4.4590
 0.3800	 4.5020
 0.3810	 4.4790
 0.3820	 4.4490
 0.3830	 4.4670
 0.3840	 4.4910
 0.3850	 4.4430
 0.3860	 4.4080
 0.3870	 4.4820
 0.3880	 4.4910
 0.3890	 4.4750
 0.3900	 4.4560
 0.3910	 4.4270
 0.3920	 4.4280
 0.3930	 4.4450
 0.3940	 4.4640
 0.3950	 4.4480
 0.3960	 4.4570
 0.3970	 4.4600
 0.3980	 4.4150
 0.3990	 4.4850
 0.4000	 4.5140
 0.4010	 4.4710
 0.4020	 4.5060
 0.4030	 4.5260
 0.4040	 4.5290
 0.4050	 4.5410
 0.4060	 4.5770
 0.4070	 4.6010
 0.4080	 4.6220
 0.4090	 4.6690
 0.4100	 4.6990
 0.4110	 4.7220
 0.4120	 4.7510
 0.4130	 4.7980
 0.4140	 4.8580
 0.4150	 4.9140
 0.4160	 4.9570
 0.4170	 5.0020
 0.4180	 5.0530
 0.4190	 5.1160
 0.4200	 5.1860
 0.4210	 5.2650
 0.4220	 5.3270
 0.4230	 5.3680
 0.4240	 5.4060
 0.4250	 5.4650
 0.4260	 5.5350
 0.4270	 5.5980
 0.4280	 5.6540
 0.4290	 5.7120
 0.4300	 5.7670
 0.4310	 5.7990
 0.4320	 5.8420
 0.4330	 5.8900
 0.4340	 5.9290
 0.4350	 5.9670
 0.4360	 6.0030
 0.4370	 6.0350
 0.4380	 6.0700
 0.4390	 6.1120
 0.4400	 6.1520
 0.4410	 6.1850
 0.4420	 6.2220
 0.4430	 6.2520
 0.4440	 6.2750
 0.4450	 6.2950
 0.4460	 6.3330
 0.4470	 6.3690
 0.4480	 6.3920
 0.4490	 6.4170
 0.4500	 6.4450
 0.4510	 6.4710
 0.4520	 6.4950
 0.4530	 6.5140
 0.4540	 6.5310
 0.4550	 6.5530
 0.4560	 6.5760
 0.4570	 6.5850
 0.4580	 6.5980
 0.4590	 6.6170
 0.4600	 6.6290
 0.4610	 6.6440
 0.4620	 6.6630
 0.4630	 6.6750
 0.4640	 6.6790
 0.4650	 6.6820
 0.4660	 6.6950
 0.4670	 6.7010
 0.4680	 6.7110
 0.4690	 6.7240
 0.4700	 6.7320
 0.4710	 6.7400
 0.4720	 6.7420
 0.4730	 6.7440
 0.4740	 6.7590
 0.4750	 6.7660
 0.4760	 6.7690
 0.4770	 6.7710
 0.4780	 6.7910
 0.4790	 6.8110
 0.4800	 6.8210
 0.4810	 6.8190
 0.4820	 6.8170
 0.4830	 6.8280
 0.4840	 6.8480
 0.4850	 6.8560
 0.4860	 6.8720
 0.4870	 6.8890
 0.4880	 6.9040
 0.4890	 6.9280
 0.4900	 6.9570
 0.4910	 6.9850
 0.4920	 7.0080
 0.4930	 7.0480
 0.4940	 7.0900
 0.4950	 7.1310
 0.4960	 7.1690
 0.4970	 7.2270
 0.4980	 7.2930
 0.4990	 7.3560
 0.5000	 7.4130
 0.5010	 7.4820
 0.5020	 7.5610
 0.5030	 7.6510
 0.5040	 7.7510
 0.5050	 7.8600
 0.5060	 7.9710
 0.5070	 8.0950
 0.5080	 8.2280
 0.5090	 8.3670
 0.5100	 8.5190
 0.5110	 8.6810
 0.5120	 8.8610
 0.5130	 9.0500
 0.5140	 9.2470
 0.5150	 9.4510
 0.5160	 9.6660
 0.5170	 9.8880
 0.5180	10.1240
 0.5190	10.3600
 0.5200	10.5930
 0.5210	10.8240
 0.5220	11.0520
 0.5230	11.2830
 0.5240	11.5180
 0.5250	11.7320
 0.5260	11.9380
 0.5270	12.1360
 0.5280	12.3210
 0.5290	12.4980
 0.5300	12.6650
 0.5310	12.8200
 0.5320	12.9590
 0.5330	13.0950
 0.5340	13.2240
 0.5350	13.3410
 0.5360	13.4440
 0.5370	13.5400
 0.5380	13.6330
 0.5390	13.7230
 0.5400	13.8100
 0.5410	13.8860
 0.5420	13.9530
 0.5430	14.0280
 0.5440	14.1020
 0.5450	14.1780
 0.5460	14.2560
 0.5470	14.3330
 0.5480	14.4010
 0.5490	14.4590
 0.5500	14.5160
 0.5510	14.5640
 0.5520	14.6020
 0.5530	14.6340
 0.5540	14.6520
 0.5550	14.6580
 0.5560	14.6520
 0.5570	14.6340
 0.5580	14.6040
 0.5590	14.5640
 0.5600	14.5130
 0.5610	14.4490
 0.5620	14.3750
 0.5630	14.2930
 0.5640	14.2070
 0.5650	14.1170
 0.5660	14.0190
 0.5670	13.9150
 0.5680	13.8070
 0.5690	13.6950
 0.5700	13.5820
 0.5710	13.4670
 0.5720	13.3430
 0.5730	13.2210
 0.5740	13.1060
 0.5750	12.9960
 0.5760	12.8970
 0.5770	12.8140
 0.5780	12.7410
 0.5790	12.6630
 0.5800	12.5860
 0.5810	12.5110
 0.5820	12.4380
 0.5830	12.3690
 0.5840	12.3080
 0.5850	12.2510
 0.5860	12.1940
 0.5870	12.1410
 0.5880	12.0870
 0.5890	12.0300
 0.5900	11.9790
 0.5910	11.9350
 0.5920	11.8960
 0.5930	11.8610
 0.5940	11.8380
 0.5950	11.8230
 0.5960	11.8130
 0.5970	11.8050
 0.5980	11.7970
 0.5990	11.7870
 0.6000	11.7720
 0.6010	11.7490
 0.6020	11.7210
 0.6030	11.6910
 0.6040	11.6530
 0.6050	11.6070
 0.6060	11.5520
 0.6070	11.4860
 0.6080	11.4140
 0.6090	11.3400
 0.6100	11.2630
 0.6110	11.1830
 0.6120	11.1070
 0.6130	11.0350
 0.6140	10.9630
 0.6150	10.8910
 0.6160	10.8230
 0.6170	10.7580
 0.6180	10.6970
 0.6190	10.6440
 0.6200	10.5950
 0.6210	10.5490
 0.6220	10.5110
 0.6230	10.4810
 0.6240	10.4570
 0.6250	10.4390
 0.6260	10.4280
 0.6270	10.4220
 0.6280	10.4150
 0.6290	10.4080
 0.6300	10.4060
 0.6310	10.4010
 0.6320	10.3890
 0.6330	10.3730
 0.6340	10.3440
 0.6350	10.3030
 0.6360	10.2490
 0.6370	10.1780
 0.6380	10.0940
 0.6390	10.0050
 0.6400	 9.9080
 0.6410	 9.7990
 0.6420	 9.6880
 0.6430	 9.5780
 0.6440	 9.4640
 0.6450	 9.3490
 0.6460	 9.2400
 0.6470	 9.1360
 0.6480	 9.0420
 0.6490	 8.9630
 0.6500	 8.8990
 0.6510	 8.8420
 0.6520	 8.7900
 0.6530	 8.7450
 0.6540	 8.7030
 0.6550	 8.6560
 0.6560	 8.6020
 0.6570	 8.5400
 0.6580	 8.4680
 0.6590	 8.3920
 0.6600	 8.3080
 0.6610	 8.2250
 0.6620	 8.1370
 0.6630	 8.0520
 0.6640	 7.9700
 0.6650	 7.8970
 0.6660	 7.8310
 0.6670	 7.7780
 0.6680	 7.7330
 0.6690	 7.6900
 0.6700	 7.6570
 0.6710	 7.6360
 0.6720	 7.6210
 0.6730	 7.6150
 0.6740	 7.6130
 0.6750	 7.6150
 0.6760	 7.6260
 0.6770	 7.6450
 0.6780	 7.6670
 0.6790	 7.6980
 0.6800	 7.7400
 0.6810	 7.7930
 0.6820	 7.8630
 0.6830	 7.9540
 0.6840	 8.0710
 0.6850	 8.2190
 0.6860	 8.4090
 0.6870	 8.6470
 0.6880	 8.9440
 0.6890	 9.3090
 0.6900	 9.7500
 0.6910	10.2670
 0.6920	10.8640
 0.6930	11.5320
 0.6940	12.2690
 0.6950	13.0670
 0.6960	13.9130
 0.6970	14.8030
 0.6980	15.7350
 0.6990	16.6940
 0.7000	17.6700
 0.7010	18.6590
 0.7020	19.6570
 0.7030	20.6530
 0.7040	21.6420
 0.7050	22.6230
 0.7060	23.5970
 0.7070	24.5600
 0.7080	25.5100
 0.7090	26.4500
 0.7100	27.3890
 0.7110	28.3180
 0.7120	29.2370
 0.7130	30.1480
 0.7140	31.0520
 0.7150	31.9470
 0.7160	32.8330
 0.7170	33.7130
 0.7180	34.5800
 0.7190	35.4340
 0.7200	36.2780
 0.7210	37.1110
 0.7220	37.9320
 0.7230	38.7350
 0.7240	39.5130
 0.7250	40.2700
 0.7260	41.0050
 0.7270	41.7170
 0.7280	42.4060
 0.7290	43.0670
 0.7300	43.7000
 0.7310	44.3070
 0.7320	44.8870
 0.7330	45.4400
 0.7340	45.9650
 0.7350	46.4680
 0.7360	46.9450
 0.7370	47.3970
 0.7380	47.8250
 0.7390	48.2340
 0.7400	48.6180
 0.7410	48.9790
 0.7420	49.3200
 0.7430	49.6390
 0.7440	49.9390
 0.7450	50.2220
 0.7460	50.4860
 0.7470	50.7290
 0.7480	50.9550
 0.7490	51.1690
 0.7500	51.3750
 0.7510	51.5610
 0.7520	51.7310
 0.7530	51.8910
 0.7540	52.0390
 0.7550	52.1780
 0.7560	52.3100
 0.7570	52.4300
 0.7580	52.5440
 0.7590	52.6510
 0.7600	52.7500
 0.7610	52.8470
 0.7620	52.9390
 0.7630	53.0220
 0.7640	53.0970
 0.7650	53.1730
 0.7660	53.2450
 0.7670	53.3130
 0.7680	53.3790
 0.7690	53.4400
 0.7700	53.5020
 0.7710	53.5630
 0.7720	53.6180
 0.7730	53.6730
 0.7740	53.7260
 0.7750	53.7780
 0.7760	53.8360
 0.7770	53.8880
 0.7780	53.9340
 0.7790	53.9770
 0.7800	54.0220
 0.7810	54.0700
 0.7820	54.1200
 0.7830	54.1630
 0.7840	54.2080
 0.7850	54.2510
 0.7860	54.2890
 0.7870	54.3350
 0.7880	54.3770
 0.7890	54.4170
 0.7900	54.4580
 0.7910	54.4980
 0.7920	54.5340
 0.7930	54.5690
 0.7940	54.6080
 0.7950	54.6420
 0.7960	54.6770
 0.7970	54.7150
 0.7980	54.7470
 0.7990	54.7740
 0.8000	54.8010
 0.8010	54.8330
 0.8020	54.8650
 0.8030	54.8910
 0.8040	54.9140
 0.8050	54.9420
 0.8060	54.9640
 0.8070	54.9860
 0.8080	55.0110
 0.8090	55.0330
 0.8100	55.0540
 0.8110	55.0760
 0.8120	55.0980
 0.8130	55.1120
 0.8140	55.1300
 0.8150	55.1490
 0.8160	55.1680
 0.8170	55.1890
 0.8180	55.2070
 0.8190	55.2220
 0.8200	55.2360
 0.8210	55.2530
 0.8220	55.2660
 0.8230	55.2780
 0.8240	55.2930
 0.8250	55.3040
 0.8260	55.3120
 0.8270	55.3180
 0.8280	55.3210
 0.8290	55.3250
 0.8300	55.3320
 0.8310	55.3420
 0.8320	55.3450
 0.8330	55.3520
 0.8340	55.3640
 0.8350	55.3790
 0.8360	55.3940
 0.8370	55.4030
 0.8380	55.4090
 0.8390	55.4230
 0.8400	55.4410
 0.8410	55.4580
 0.8420	55.4720
 0.8430	55.4930
 0.8440	55.5110
 0.8450	55.5290
 0.8460	55.5480
 0.8470	55.5620
 0.8480	55.5830
 0.8490	55.6030
 0.8500	55.6150
 0.8510	55.6400
 0.8520	55.6610
 0.8530	55.6760
 0.8540	55.6930
 0.8550	55.7140
 0.8560	55.7330
 0.8570	55.7480
 0.8580	55.7660
 0.8590	55.7880
 0.8600	55.8060
 0.8610	55.8200
 0.8620	55.8330
 0.8630	55.8510
 0.8640	55.8710
 0.8650	55.8900
 0.8660	55.9080
 0.8670	55.9280
 0.8680	55.9440
 0.8690	55.9530
 0.8700	55.9710
 0.8710	55.9910
 0.8720	56.0100
 0.8730	56.0240
 0.8740	56.0430
 0.8750	56.0620
 0.8760	56.0820
 0.8770	56.1070
 0.8780	56.1220
 0.8790	56.1330
 0.8800	56.1480
 0.8810	56.1670
 0.8820	56.1770
 0.8830	56.1890
 0.8840	56.2070
 0.8850	56.2190
 0.8860	56.2270
 0.8870	56.2330
 0.8880	56.2420
 0.8890	56.2550
 0.8900	56.2660
 0.8910	56.2760
 0.8920	56.2860
 0.8930	56.2910
 0.8940	56.2980
 0.8950	56.3100
 0.8960	56.3260
 0.8970	56.3320
 0.8980	56.3360
 0.8990	56.3400
 0.9000	56.3410
 0.9010	56.3470
 0.9020	56.3560
 0.9030	56.3630
 0.9040	56.3600
 0.9050	56.3600
 0.9060	56.3670
 0.9070	56.3780
 0.9080	56.3750
 0.9090	56.3730
 0.9100	56.3750
 0.9110	56.3810
 0.9120	56.3770
 0.9130	56.3820
 0.9140	56.3900
 0.9150	56.3880
 0.9160	56.3920
 0.9170	56.3910
 0.9180	56.3880
 0.9190	56.3890
 0.9200	56.3820
 0.9210	56.3790
 0.9220	56.3790
 0.9230	56.3700
 0.9240	56.3440
 0.9250	56.3310
 0.9260	56.3200
 0.9270	56.2800
 0.9280	56.2580
 0.9290	56.2360
 0.9300	56.2060
 0.9310	56.1730
 0.9320	56.1320
 0.9330	56.0910
 0.9340	56.0530
 0.9350	56.0060
 0.9360	55.9590
 0.9370	55.9120
 0.9380	55.8640
 0.9390	55.8110
 0.9400	55.7430
 0.9410	55.6710
 0.9420	55.6040
 0.9430	55.5420
 0.9440	55.4660
 0.9450	55.3830
 0.9460	55.2990
 0.9470	55.1910
 0.9480	55.0880
 0.9490	54.9780
 0.9500	54.8500
 0.9510	54.7280
 0.9520	54.5890
 0.9530	54.4370
 0.9540	54.2830
 0.9550	54.1440
 0.9560	53.9980
 0.9570	53.8550
 0.9580	53.7260
 0.9590	53.5920
 0.9600	53.4770
 0.9610	53.3730
 0.9620	53.2690
 0.9630	53.1840
 0.9640	53.1090
 0.9650	53.0360
 0.9660	52.9650
 0.9670	52.9170
 0.9680	52.8700
 0.9690	52.8240
 0.9700	52.7860
 0.9710	52.7420
 0.9720	52.7190
 0.9730	52.6940
 0.9740	52.6400
 0.9750	52.6240
 0.9760	52.6090
 0.9770	52.5930
 0.9780	52.5910
 0.9790	52.5740
 0.9800	52.5780
 0.9810	52.5870
 0.9820	52.5800
 0.9830	52.6170
 0.9840	52.6420
 0.9850	52.6660
 0.9860	52.7190
 0.9870	52.7460
 0.9880	52.7650
 0.9890	52.7890
 0.9900	52.8260
 0.9910	52.8680
 0.9920	52.9120
 0.9930	52.9610
 0.9940	53.0170
 0.9950	53.0710
 0.9960	53.1180
 0.9970	53.1670
 0.9980	53.2340
 0.9990	53.3130
 1.0000	53.8230
 1.0010	54.7370
 1.0020	55.2480
 1.0030	55.3100
 1.0040	55.3750
 1.0050	55.4430
 1.0060	55.5190
 1.0070	55.5900
 1.0080	55.6570
 1.0090	55.7170
 1.0100	55.7830
 1.0110	55.8460
 1.0120	55.9140
 1.0130	55.9870
 1.0140	56.0570
 1.0150	56.1280
 1.0160	56.1980
 1.0170	56.2650
 1.0180	56.3320
 1.0190	56.3980
 1.0200	56.4640
 1.0210	56.5320
 1.0220	56.6010
 1.0230	56.6700
 1.0240	56.7430
 1.0250	56.8100
 1.0260	56.8720
 1.0270	56.9380
 1.0280	57.0010
 1.0290	57.0660
 1.0300	57.1350
 1.0310	57.2000
 1.0320	57.2620
 1.0330	57.3200
 1.0340	57.3780
 1.0350	57.4340
 1.0360	57.4860
 1.0370	57.5460
 1.0380	57.6050
 1.0390	57.6650
 1.0400	57.7220
 1.0410	57.7830
 1.0420	57.8360
 1.0430	57.8830
 1.0440	57.9320
 1.0450	57.9790
 1.0460	58.0270
 1.0470	58.0800
 1.0480	58.1270
 1.0490	58.1730
 1.0500	58.2170
 1.0510	58.2580
 1.0520	58.2950
 1.0530	58.3310
 1.0540	58.3630
 1.0550	58.3960
 1.0560	58.4280
 1.0570	58.4610
 1.0580	58.4960
 1.0590	58.5280
 1.0600	58.5600
 1.0610	58.5880
 1.0620	58.6120
 1.0630	58.6370
 1.0640	58.6620
 1.0650	58.6840
 1.0660	58.7060
 1.0670	58.7240
 1.0680	58.7380
 1.0690	58.7460
 1.0700	58.7600
 1.0710	58.7740
 1.0720	58.7860
 1.0730	58.8000
 1.0740	58.8080
 1.0750	58.8100
 1.0760	58.8150
 1.0770	58.8190
 1.0780	58.8230
 1.0790	58.8300
 1.0800	58.8320
 1.0810	58.8310
 1.0820	58.8290
 1.0830	58.8290
 1.0840	58.8230
 1.0850	58.8130
 1.0860	58.8050
 1.0870	58.7940
 1.0880	58.7800
 1.0890	58.7680
 1.0900	58.7580
 1.0910	58.7440
 1.0920	58.7310
 1.0930	58.7100
 1.0940	58.6830
 1.0950	58.6600
 1.0960	58.6370
 1.0970	58.6120
 1.0980	58.5900
 1.0990	58.5670
 1.1000	58.5430
 1.1010	58.5150
 1.1020	58.4860
 1.1030	58.4550
 1.1040	58.4210
 1.1050	58.3860
 1.1060	58.3530
 1.1070	58.3230
 1.1080	58.2890
 1.1090	58.2540
 1.1100	58.2170
 1.1110	58.1800
 1.1120	58.1370
 1.1130	58.0920
 1.1140	58.0430
 1.1150	57.9940
 1.1160	57.9360
 1.1170	57.8710
 1.1180	57.8020
 1.1190	57.7280
 1.1200	57.6450
 1.1210	57.5610
 1.1220	57.4710
 1.1230	57.3700
 1.1240	57.2620
 1.1250	57.1380
 1.1260	57.0020
 1.1270	56.8550
 1.1280	56.6950
 1.1290	56.5210
 1.1300	56.3390
 1.1310	56.1360
 1.1320	55.9150
 1.1330	55.6820
 1.1340	55.4330
 1.1350	55.1730
 1.1360	54.9020
 1.1370	54.6170
 1.1380	54.3200
 1.1390	54.0170
 1.1400	53.7010
 1.1410	53.3810
 1.1420	53.0570
 1.1430	52.7290
 1.1440	52.4060
 1.1450	52.0790
 1.1460	51.7640
 1.1470	51.4470
 1.1480	51.1470
 1.1490	50.8500
 1.1500	50.5740
 1.1510	50.3070
 1.1520	50.0580
 1.1530	49.8230
 1.1540	49.6060
 1.1550	49.4040
 1.1560	49.2180
 1.1570	49.0500
 1.1580	48.8970
 1.1590	48.7590
 1.1600	48.6350
 1.1610	48.5230
 1.1620	48.4190
 1.1630	48.3250
 1.1640	48.2430
 1.1650	48.1660
 1.1660	48.1000
 1.1670	48.0360
 1.1680	47.9790
 1.1690	47.9240
 1.1700	47.8720
 1.1710	47.8250
 1.1720	47.7830
 1.1730	47.7390
 1.1740	47.7000
 1.1750	47.6590
 1.1760	47.6170
 1.1770	47.5720
 1.1780	47.5260
 1.1790	47.4790
 1.1800	47.4290
 1.1810	47.3790
 1.1820	47.3290
 1.1830	47.2810
 1.1840	47.2340
 1.1850	47.1860
 1.1860	47.1390
 1.1870	47.0950
 1.1880	47.0540
 1.1890	47.0150
 1.1900	46.9790
 1.1910	46.9450
 1.1920	46.9160
 1.1930	46.8880
 1.1940	46.8660
 1.1950	46.8480
 1.1960	46.8320
 1.1970	46.8210
 1.1980	46.8150
 1.1990	46.8160
 1.2000	46.8200
 1.2010	46.8290
 1.2020	46.8430
 1.2030	46.8580
 1.2040	46.8770
 1.2050	46.9010
 1.2060	46.9290
 1.2070	46.9610
 1.2080	46.9990
 1.2090	47.0380
 1.2100	47.0800
 1.2110	47.1270
 1.2120	47.1780
 1.2130	47.2320
 1.2140	47.2920
 1.2150	47.3540
 1.2160	47.4190
 1.2170	47.4840
 1.2180	47.5540
 1.2190	47.6270
 1.2200	47.6990
 1.2210	47.7740
 1.2220	47.8470
 1.2230	47.9170
 1.2240	47.9910
 1.2250	48.0640
 1.2260	48.1390
 1.2270	48.2140
 1.2280	48.2880
 1.2290	48.3600
 1.2300	48.4290
 1.2310	48.4970
 1.2320	48.5650
 1.2330	48.6300
 1.2340	48.6930
 1.2350	48.7550
 1.2360	48.8150
 1.2370	48.8730
 1.2380	48.9290
 1.2390	48.9850
 1.2400	49.0400
 1.2410	49.0920
 1.2420	49.1390
 1.2430	49.1870
 1.2440	49.2340
 1.2450	49.2790
 1.2460	49.3250
 1.2470	49.3710
 1.2480	49.4130
 1.2490	49.4550
 1.2500	49.4920
 1.2510	49.5280
 1.2520	49.5630
 1.2530	49.5950
 1.2540	49.6270
 1.2550	49.6580
 1.2560	49.6880
 1.2570	49.7150
 1.2580	49.7400
 1.2590	49.7630
 1.2600	49.7830
 1.2610	49.8020
 1.2620	49.8180
 1.2630	49.8320
 1.2640	49.8450
 1.2650	49.8560
 1.2660	49.8670
 1.2670	49.8780
 1.2680	49.8870
 1.2690	49.8930
 1.2700	49.8970
 1.2710	49.8990
 1.2720	49.8990
 1.2730	49.8980
 1.2740	49.8940
 1.2750	49.8850
 1.2760	49.8750
 1.2770	49.8640
 1.2780	49.8500
 1.2790	49.8350
 1.2800	49.8180
 1.2810	49.7960
 1.2820	49.7710
 1.2830	49.7450
 1.2840	49.7150
 1.2850	49.6810
 1.2860	49.6420
 1.2870	49.5990
 1.2880	49.5520
 1.2890	49.5010
 1.2900	49.4440
 1.2910	49.3820
 1.2920	49.3170
 1.2930	49.2440
 1.2940	49.1670
 1.2950	49.0870
 1.2960	48.9980
 1.2970	48.9020
 1.2980	48.8030
 1.2990	48.6980
 1.3000	48.5890
 1.3010	48.4760
 1.3020	48.3550
 1.3030	48.2300
 1.3040	48.1000
 1.3050	47.9640
 1.3060	47.8240
 1.3070	47.6760
 1.3080	47.5260
 1.3090	47.3720
 1.3100	47.2110
 1.3110	47.0440
 1.3120	46.8700
 1.3130	46.6930
 1.3140	46.5100
 1.3150	46.3240
 1.3160	46.1320
 1.3170	45.9350
 1.3180	45.7330
 1.3190	45.5270
 1.3200	45.3190
 1.3210	45.1040
 1.3220	44.8830
 1.3230	44.6590
 1.3240	44.4280
 1.3250	44.1980
 1.3260	43.9650
 1.3270	43.7280
 1.3280	43.4920
 1.3290	43.2500
 1.3300	43.0060
 1.3310	42.7620
 1.3320	42.5150
 1.3330	42.2690
 1.3340	42.0250
 1.3350	41.7820
 1.3360	41.5390
 1.3370	41.2940
 1.3380	41.0530
 1.3390	40.8130
 1.3400	40.5750
 1.3410	40.3430
 1.3420	40.1120
 1.3430	39.8830
 1.3440	39.6610
 1.3450	39.4410
 1.3460	39.2230
 1.3470	39.0110
 1.3480	38.8040
 1.3490	38.6000
 1.3500	38.4010
 1.3510	38.2040
 1.3520	38.0070
 1.3530	37.8140
 1.3540	37.6220
 1.3550	37.4300
 1.3560	37.2410
 1.3570	37.0520
 1.3580	36.8640
 1.3590	36.6740
 1.3600	36.4800
 1.3610	36.2840
 1.3620	36.0820
 1.3630	35.8750
 1.3640	35.6640
 1.3650	35.4450
 1.3660	35.2190
 1.3670	34.9850
 1.3680	34.7400
 1.3690	34.4840
 1.3700	34.2140
 1.3710	33.9300
 1.3720	33.6320
 1.3730	33.3180
 1.3740	32.9890
 1.3750	32.6420
 1.3760	32.2740
 1.3770	31.8860
 1.3780	31.4710
 1.3790	31.0360
 1.3800	30.5810
 1.3810	30.1020
 1.3820	29.6100
 1.3830	29.1020
 1.3840	28.5800
 1.3850	28.0390
 1.3860	27.4930
 1.3870	26.9300
 1.3880	26.3700
 1.3890	25.8050
 1.3900	25.2350
 1.3910	24.6720
 1.3920	24.1100
 1.3930	23.5490
 1.3940	22.9980
 1.3950	22.4520
 1.3960	21.9180
 1.3970	21.4010
 1.3980	20.8980
 1.3990	20.4170
 1.4000	19.9540
 1.4010	19.5060
 1.4020	19.0800
 1.4030	18.6700
 1.4040	18.2800
 1.4050	17.9130
 1.4060	17.5630
 1.4070	17.2350
 1.4080	16.9270
 1.4090	16.6350
 1.4100	16.3640
 1.4110	16.1080
 1.4120	15.8690
 1.4130	15.6470
 1.4140	15.4400
 1.4150	15.2490
 1.4160	15.0700
 1.4170	14.9040
 1.4180	14.7520
 1.4190	14.6090
 1.4200	14.4770
 1.4210	14.3560
 1.4220	14.2430
 1.4230	14.1410
 1.4240	14.0470
 1.4250	13.9590
 1.4260	13.8800
 1.4270	13.8050
 1.4280	13.7370
 1.4290	13.6750
 1.4300	13.6200
 1.4310	13.5700
 1.4320	13.5260
 1.4330	13.4850
 1.4340	13.4490
 1.4350	13.4170
 1.4360	13.3890
 1.4370	13.3640
 1.4380	13.3440
 1.4390	13.3260
 1.4400	13.3130
 1.4410	13.3030
 1.4420	13.2940
 1.4430	13.2880
 1.4440	13.2840
 1.4450	13.2820
 1.4460	13.2820
 1.4470	13.2830
 1.4480	13.2860
 1.4490	13.2910
 1.4500	13.2980
 1.4510	13.3060
 1.4520	13.3160
 1.4530	13.3250
 1.4540	13.3360
 1.4550	13.3490
 1.4560	13.3630
 1.4570	13.3800
 1.4580	13.3980
 1.4590	13.4180
 1.4600	13.4400
 1.4610	13.4650
 1.4620	13.4940
 1.4630	13.5250
 1.4640	13.5580
 1.4650	13.5950
 1.4660	13.6350
 1.4670	13.6790
 1.4680	13.7260
 1.4690	13.7770
 1.4700	13.8300
