Name: Pinus ponderosa 1
Type: vegetation
Class: Tree
Genus: Pinus
Species: ponderosa
Sample No.: VH058
Owner: UCSB
Wavelength Range: TIR
Origin: 37.0443; -119.3026; WGS84
Collection Date: 4/20/2013
Description: Samples were collected as part of the HyspIRI Airborne Campaign. 48 individual plants were sampled in three times in 2013 - spring  summer  and fall. The name of the sample includes a 1  2  or 3 which references a different individual of the species. Samples were taken to JPL and processed within 48 hours of collection. The same leaves were processed in the Nicolet and then measured using the ASD.
Measurement: Hemispherical reflectance
First Column: X
Second Column: Y
X Units: Wavelength (micrometers)
Y Units: Reflectance (percentage)
First X Value: 2.501
Last X Value: 15.387
Number of X Values: 1737
Additional Information: vegetation.tree.pinus.ponderosa.tir.vh058.ucsb.nicolet.ancillary.txt

 2.5010	 3.9700
 2.5030	 3.8800
 2.5040	 3.8450
 2.5050	 3.9370
 2.5060	 3.9740
 2.5070	 3.9210
 2.5090	 3.8420
 2.5100	 3.7970
 2.5110	 3.7760
 2.5120	 3.7540
 2.5140	 3.8050
 2.5150	 3.8760
 2.5160	 3.8830
 2.5170	 3.9080
 2.5180	 3.8980
 2.5200	 3.7600
 2.5210	 3.7970
 2.5220	 3.8990
 2.5230	 3.9310
 2.5250	 3.8820
 2.5260	 3.8010
 2.5270	 3.7190
 2.5280	 3.8290
 2.5290	 3.9050
 2.5310	 3.8800
 2.5320	 3.8980
 2.5330	 3.9090
 2.5340	 3.8980
 2.5360	 3.9550
 2.5370	 3.8970
 2.5380	 3.8790
 2.5390	 3.7710
 2.5410	 3.7530
 2.5420	 3.7830
 2.5430	 3.7280
 2.5440	 3.7980
 2.5460	 3.9010
 2.5470	 3.9520
 2.5480	 3.9610
 2.5490	 3.8990
 2.5510	 3.8730
 2.5520	 3.8560
 2.5530	 3.8460
 2.5540	 3.8180
 2.5560	 3.7780
 2.5570	 3.7020
 2.5580	 3.7520
 2.5590	 3.8750
 2.5610	 3.9440
 2.5620	 3.9140
 2.5630	 3.8470
 2.5640	 3.8620
 2.5660	 3.8700
 2.5670	 3.8560
 2.5680	 3.8370
 2.5700	 3.8170
 2.5710	 3.7840
 2.5720	 3.7990
 2.5730	 3.9100
 2.5750	 3.8790
 2.5760	 3.7270
 2.5770	 3.7360
 2.5790	 3.9300
 2.5800	 3.9740
 2.5810	 3.8590
 2.5820	 3.7150
 2.5840	 3.7960
 2.5850	 3.8660
 2.5860	 3.8470
 2.5880	 3.7950
 2.5890	 3.8370
 2.5900	 3.8550
 2.5910	 3.8560
 2.5930	 3.9000
 2.5940	 3.8740
 2.5950	 3.8030
 2.5970	 3.8590
 2.5980	 3.9300
 2.5990	 3.9390
 2.6000	 3.8170
 2.6020	 3.7430
 2.6030	 3.7820
 2.6040	 3.8430
 2.6060	 3.8060
 2.6070	 3.7840
 2.6080	 3.6790
 2.6100	 3.8070
 2.6110	 3.8590
 2.6120	 3.7460
 2.6140	 3.6760
 2.6150	 3.6990
 2.6160	 3.7400
 2.6180	 3.8220
 2.6190	 3.7410
 2.6200	 3.5640
 2.6220	 3.4910
 2.6230	 3.6360
 2.6240	 3.6640
 2.6260	 3.6060
 2.6270	 3.5830
 2.6280	 3.5550
 2.6300	 3.5100
 2.6310	 3.5260
 2.6320	 3.4850
 2.6340	 3.4250
 2.6350	 3.4310
 2.6360	 3.4600
 2.6380	 3.4630
 2.6390	 3.5020
 2.6400	 3.4790
 2.6420	 3.4150
 2.6430	 3.4620
 2.6440	 3.4810
 2.6460	 3.3350
 2.6470	 3.3270
 2.6480	 3.4170
 2.6500	 3.4920
 2.6510	 3.4030
 2.6520	 3.3850
 2.6540	 3.3600
 2.6550	 3.3520
 2.6560	 3.2590
 2.6580	 3.2340
 2.6590	 3.1890
 2.6610	 3.1840
 2.6620	 3.2030
 2.6630	 3.2170
 2.6650	 3.1690
 2.6660	 3.1480
 2.6670	 3.0760
 2.6690	 3.0740
 2.6700	 3.0330
 2.6720	 3.1010
 2.6730	 3.1700
 2.6740	 3.1120
 2.6760	 3.0600
 2.6770	 3.0270
 2.6780	 3.0430
 2.6800	 3.0770
 2.6810	 3.0400
 2.6830	 3.0340
 2.6840	 2.9480
 2.6850	 2.8810
 2.6870	 2.8780
 2.6880	 2.8310
 2.6900	 2.7340
 2.6910	 2.7540
 2.6920	 2.7820
 2.6940	 2.8350
 2.6950	 2.8610
 2.6970	 2.8590
 2.6980	 2.7980
 2.6990	 2.6990
 2.7010	 2.6840
 2.7020	 2.6690
 2.7040	 2.6560
 2.7050	 2.7550
 2.7060	 2.7250
 2.7080	 2.7250
 2.7090	 2.6820
 2.7110	 2.6060
 2.7120	 2.4640
 2.7130	 2.4850
 2.7150	 2.5560
 2.7160	 2.5110
 2.7180	 2.4360
 2.7190	 2.5070
 2.7210	 2.5720
 2.7220	 2.6270
 2.7230	 2.5260
 2.7250	 2.5550
 2.7260	 2.5420
 2.7280	 2.4360
 2.7290	 2.4210
 2.7310	 2.5240
 2.7320	 2.5800
 2.7330	 2.5830
 2.7350	 2.5940
 2.7360	 2.5170
 2.7380	 2.4340
 2.7390	 2.4280
 2.7410	 2.4310
 2.7420	 2.4370
 2.7440	 2.4510
 2.7450	 2.4880
 2.7470	 2.4750
 2.7480	 2.5690
 2.7490	 2.6090
 2.7510	 2.4880
 2.7520	 2.4440
 2.7540	 2.4770
 2.7550	 2.4650
 2.7570	 2.5620
 2.7580	 2.5370
 2.7600	 2.3740
 2.7610	 2.3320
 2.7630	 2.4270
 2.7640	 2.3470
 2.7660	 2.4750
 2.7670	 2.5250
 2.7680	 2.4100
 2.7700	 2.4330
 2.7710	 2.5640
 2.7730	 2.6070
 2.7740	 2.5180
 2.7760	 2.3510
 2.7770	 2.3730
 2.7790	 2.4590
 2.7800	 2.5680
 2.7820	 2.4510
 2.7830	 2.4150
 2.7850	 2.4800
 2.7860	 2.5890
 2.7880	 2.6230
 2.7890	 2.5760
 2.7910	 2.5530
 2.7920	 2.6320
 2.7940	 2.5790
 2.7950	 2.4470
 2.7970	 2.3650
 2.7980	 2.4270
 2.8000	 2.4260
 2.8010	 2.4090
 2.8030	 2.4350
 2.8040	 2.5740
 2.8060	 2.5590
 2.8070	 2.4960
 2.8090	 2.5020
 2.8110	 2.5810
 2.8120	 2.6490
 2.8140	 2.6180
 2.8150	 2.4980
 2.8170	 2.4830
 2.8180	 2.4110
 2.8200	 2.4130
 2.8210	 2.3530
 2.8230	 2.3320
 2.8240	 2.3670
 2.8260	 2.4800
 2.8270	 2.4330
 2.8290	 2.3960
 2.8300	 2.3480
 2.8320	 2.4210
 2.8340	 2.5510
 2.8350	 2.6130
 2.8370	 2.4880
 2.8380	 2.4400
 2.8400	 2.4600
 2.8410	 2.5110
 2.8430	 2.4810
 2.8440	 2.5370
 2.8460	 2.4890
 2.8480	 2.4380
 2.8490	 2.4710
 2.8510	 2.5400
 2.8520	 2.4920
 2.8540	 2.3490
 2.8550	 2.2790
 2.8570	 2.3410
 2.8590	 2.5170
 2.8600	 2.5510
 2.8620	 2.4620
 2.8630	 2.4800
 2.8650	 2.5130
 2.8660	 2.5670
 2.8680	 2.5300
 2.8700	 2.4790
 2.8710	 2.4450
 2.8730	 2.3830
 2.8740	 2.2790
 2.8760	 2.3920
 2.8780	 2.4310
 2.8790	 2.3970
 2.8810	 2.5030
 2.8820	 2.6610
 2.8840	 2.4570
 2.8860	 2.3150
 2.8870	 2.4540
 2.8890	 2.5550
 2.8900	 2.3880
 2.8920	 2.3100
 2.8940	 2.3150
 2.8950	 2.5350
 2.8970	 2.6640
 2.8980	 2.5910
 2.9000	 2.5170
 2.9020	 2.5440
 2.9030	 2.5400
 2.9050	 2.5010
 2.9070	 2.4720
 2.9080	 2.5830
 2.9100	 2.4970
 2.9120	 2.4960
 2.9130	 2.4020
 2.9150	 2.4080
 2.9160	 2.5040
 2.9180	 2.5140
 2.9200	 2.4330
 2.9210	 2.5030
 2.9230	 2.4930
 2.9250	 2.4330
 2.9260	 2.4740
 2.9280	 2.6420
 2.9300	 2.6360
 2.9310	 2.5080
 2.9330	 2.3780
 2.9350	 2.4020
 2.9360	 2.4810
 2.9380	 2.4140
 2.9400	 2.3370
 2.9410	 2.4210
 2.9430	 2.3900
 2.9450	 2.3770
 2.9460	 2.4700
 2.9480	 2.4780
 2.9500	 2.4790
 2.9510	 2.4660
 2.9530	 2.2220
 2.9550	 2.3440
 2.9560	 2.5660
 2.9580	 2.7100
 2.9600	 2.6260
 2.9610	 2.5940
 2.9630	 2.4340
 2.9650	 2.6280
 2.9660	 2.5370
 2.9680	 2.1020
 2.9700	 1.7650
 2.9720	 2.3170
 2.9730	 3.0510
 2.9750	 3.1270
 2.9770	 2.4880
 2.9780	 2.3800
 2.9800	 3.1490
 2.9820	 3.0960
 2.9840	 2.7700
 2.9850	 2.6510
 2.9870	 2.4460
 2.9890	 2.3080
 2.9900	 2.5300
 2.9920	 2.3650
 2.9940	 2.2650
 2.9960	 2.3520
 2.9970	 2.2100
 2.9990	 1.9960
 3.0010	 2.1590
 3.0030	 2.4800
 3.0040	 2.6480
 3.0060	 2.6850
 3.0080	 2.4900
 3.0100	 2.3120
 3.0110	 2.2150
 3.0130	 2.3320
 3.0150	 2.5200
 3.0170	 2.5660
 3.0180	 2.6750
 3.0200	 2.5880
 3.0220	 2.1830
 3.0240	 2.1300
 3.0250	 2.3010
 3.0270	 2.4510
 3.0290	 2.3680
 3.0310	 2.2530
 3.0320	 2.4620
 3.0340	 2.5000
 3.0360	 2.1020
 3.0380	 2.1990
 3.0400	 2.3990
 3.0410	 2.5780
 3.0430	 2.7960
 3.0450	 2.4990
 3.0470	 2.4830
 3.0480	 2.2190
 3.0500	 2.4530
 3.0520	 3.2530
 3.0540	 3.1120
 3.0560	 2.3320
 3.0570	 2.0180
 3.0590	 2.2960
 3.0610	 2.3850
 3.0630	 2.1660
 3.0650	 2.2660
 3.0660	 2.5020
 3.0680	 2.4410
 3.0700	 2.4210
 3.0720	 2.3790
 3.0740	 2.2920
 3.0760	 2.3560
 3.0770	 2.3700
 3.0790	 2.2350
 3.0810	 2.3220
 3.0830	 2.3800
 3.0850	 2.4350
 3.0870	 2.4690
 3.0880	 2.5040
 3.0900	 2.4690
 3.0920	 2.4530
 3.0940	 2.3940
 3.0960	 2.2580
 3.0980	 2.1710
 3.0990	 2.2380
 3.1010	 2.2170
 3.1030	 2.2980
 3.1050	 2.3580
 3.1070	 2.4000
 3.1090	 2.3870
 3.1110	 2.3800
 3.1120	 2.3700
 3.1140	 2.5460
 3.1160	 2.6440
 3.1180	 2.4780
 3.1200	 2.3630
 3.1220	 2.4630
 3.1240	 2.4160
 3.1260	 2.3770
 3.1270	 2.3800
 3.1290	 2.4290
 3.1310	 2.3810
 3.1330	 2.3120
 3.1350	 2.2450
 3.1370	 2.3400
 3.1390	 2.4700
 3.1410	 2.7260
 3.1430	 2.8570
 3.1450	 2.5660
 3.1460	 2.2620
 3.1480	 2.2500
 3.1500	 2.2200
 3.1520	 2.3440
 3.1540	 2.3760
 3.1560	 2.4660
 3.1580	 2.5060
 3.1600	 2.5550
 3.1620	 2.3880
 3.1640	 2.1850
 3.1660	 2.3910
 3.1680	 2.7330
 3.1700	 2.6700
 3.1710	 2.5320
 3.1730	 2.3580
 3.1750	 2.3830
 3.1770	 2.5870
 3.1790	 2.4910
 3.1810	 2.6640
 3.1830	 2.3270
 3.1850	 2.4260
 3.1870	 2.7100
 3.1890	 2.6570
 3.1910	 2.4870
 3.1930	 2.4210
 3.1950	 2.3710
 3.1970	 2.3690
 3.1990	 2.4090
 3.2010	 2.4170
 3.2030	 2.3720
 3.2050	 2.2860
 3.2070	 2.2960
 3.2090	 2.3830
 3.2110	 2.3640
 3.2130	 2.2760
 3.2150	 2.3110
 3.2170	 2.3620
 3.2190	 2.3650
 3.2210	 2.3450
 3.2230	 2.2850
 3.2250	 2.2430
 3.2270	 2.1940
 3.2290	 2.2400
 3.2310	 2.3210
 3.2330	 2.3630
 3.2350	 2.3340
 3.2370	 2.2810
 3.2390	 2.3140
 3.2410	 2.4080
 3.2430	 2.4480
 3.2450	 2.4590
 3.2470	 2.3480
 3.2490	 2.2560
 3.2510	 2.2870
 3.2530	 2.2370
 3.2550	 2.2280
 3.2570	 2.2490
 3.2590	 2.2790
 3.2610	 2.3030
 3.2630	 2.3600
 3.2650	 2.3410
 3.2670	 2.2740
 3.2690	 2.2460
 3.2720	 2.1570
 3.2740	 2.1420
 3.2760	 2.2210
 3.2780	 2.2410
 3.2800	 2.2380
 3.2820	 2.1730
 3.2840	 2.1320
 3.2860	 2.2220
 3.2880	 2.3130
 3.2900	 2.3120
 3.2920	 2.2910
 3.2940	 2.3170
 3.2960	 2.3620
 3.2990	 2.2830
 3.3010	 2.2090
 3.3030	 2.2010
 3.3050	 2.3260
 3.3070	 2.3320
 3.3090	 2.2400
 3.3110	 2.1790
 3.3130	 2.1800
 3.3150	 2.1480
 3.3180	 2.2000
 3.3200	 2.2630
 3.3220	 2.2130
 3.3240	 2.1240
 3.3260	 2.0180
 3.3280	 2.0910
 3.3300	 2.2440
 3.3330	 2.1770
 3.3350	 2.1060
 3.3370	 2.0710
 3.3390	 2.0300
 3.3410	 2.0620
 3.3430	 2.1360
 3.3450	 2.1850
 3.3480	 2.1160
 3.3500	 1.9930
 3.3520	 1.9260
 3.3540	 1.9300
 3.3560	 1.9510
 3.3580	 1.9770
 3.3610	 1.8990
 3.3630	 1.8410
 3.3650	 1.8490
 3.3670	 1.9230
 3.3690	 1.9400
 3.3720	 1.9430
 3.3740	 1.9140
 3.3760	 1.8130
 3.3780	 1.8530
 3.3800	 1.8360
 3.3830	 1.8630
 3.3850	 1.9100
 3.3870	 1.8700
 3.3890	 1.8090
 3.3910	 1.8180
 3.3940	 1.8400
 3.3960	 1.7830
 3.3980	 1.7550
 3.4000	 1.8190
 3.4020	 1.8730
 3.4050	 1.7890
 3.4070	 1.8190
 3.4090	 1.9560
 3.4110	 2.0690
 3.4140	 2.1350
 3.4160	 2.2250
 3.4180	 2.4060
 3.4200	 2.7300
 3.4230	 3.1470
 3.4250	 3.5460
 3.4270	 3.9180
 3.4290	 4.1070
 3.4320	 4.1000
 3.4340	 3.9670
 3.4360	 3.7350
 3.4390	 3.5370
 3.4410	 3.3990
 3.4430	 3.3370
 3.4450	 3.2800
 3.4480	 3.2030
 3.4500	 3.1450
 3.4520	 3.0680
 3.4550	 3.0270
 3.4570	 2.9670
 3.4590	 2.9770
 3.4620	 3.0440
 3.4640	 2.9770
 3.4660	 2.9100
 3.4680	 2.8410
 3.4710	 2.7550
 3.4730	 2.7290
 3.4750	 2.7600
 3.4780	 2.7890
 3.4800	 2.6650
 3.4820	 2.6250
 3.4850	 2.5850
 3.4870	 2.5440
 3.4890	 2.5630
 3.4920	 2.5080
 3.4940	 2.4130
 3.4970	 2.3930
 3.4990	 2.3850
 3.5010	 2.4720
 3.5040	 2.7150
 3.5060	 3.1310
 3.5080	 3.6960
 3.5110	 4.1800
 3.5130	 4.2660
 3.5160	 4.0860
 3.5180	 3.8280
 3.5200	 3.6820
 3.5230	 3.5730
 3.5250	 3.4430
 3.5270	 3.3440
 3.5300	 3.3110
 3.5320	 3.2590
 3.5350	 3.1600
 3.5370	 3.0990
 3.5400	 3.1730
 3.5420	 3.1230
 3.5440	 3.0320
 3.5470	 3.0370
 3.5490	 2.9760
 3.5520	 2.9530
 3.5540	 2.9610
 3.5570	 2.9370
 3.5590	 2.9090
 3.5610	 2.9370
 3.5640	 2.8750
 3.5660	 2.8160
 3.5690	 2.8390
 3.5710	 2.7710
 3.5740	 2.8340
 3.5760	 2.8930
 3.5790	 2.8790
 3.5810	 2.8700
 3.5840	 2.8560
 3.5860	 2.8670
 3.5890	 2.8980
 3.5910	 2.8160
 3.5930	 2.8260
 3.5960	 2.8590
 3.5980	 2.9650
 3.6010	 2.9830
 3.6030	 2.9500
 3.6060	 2.8680
 3.6080	 2.7970
 3.6110	 2.7770
 3.6140	 2.7390
 3.6160	 2.7340
 3.6190	 2.7140
 3.6210	 2.6850
 3.6240	 2.7120
 3.6260	 2.7830
 3.6290	 2.7570
 3.6310	 2.7090
 3.6340	 2.7680
 3.6360	 2.7650
 3.6390	 2.6940
 3.6410	 2.6900
 3.6440	 2.6770
 3.6470	 2.7000
 3.6490	 2.7710
 3.6520	 2.7270
 3.6540	 2.7190
 3.6570	 2.7630
 3.6590	 2.7620
 3.6620	 2.7020
 3.6650	 2.6740
 3.6670	 2.6830
 3.6700	 2.6720
 3.6720	 2.7260
 3.6750	 2.7370
 3.6780	 2.6880
 3.6800	 2.6870
 3.6830	 2.6920
 3.6850	 2.7340
 3.6880	 2.7110
 3.6910	 2.6550
 3.6930	 2.6500
 3.6960	 2.6480
 3.6990	 2.6550
 3.7010	 2.6670
 3.7040	 2.6530
 3.7060	 2.6740
 3.7090	 2.7710
 3.7120	 2.7840
 3.7140	 2.7170
 3.7170	 2.7110
 3.7200	 2.6540
 3.7220	 2.5180
 3.7250	 2.5630
 3.7280	 2.7180
 3.7300	 2.8210
 3.7330	 2.7560
 3.7360	 2.6490
 3.7390	 2.6290
 3.7410	 2.6660
 3.7440	 2.6700
 3.7470	 2.7210
 3.7490	 2.7870
 3.7520	 2.8320
 3.7550	 2.7600
 3.7580	 2.6980
 3.7600	 2.7090
 3.7630	 2.7120
 3.7660	 2.7340
 3.7680	 2.7540
 3.7710	 2.6910
 3.7740	 2.6380
 3.7770	 2.6740
 3.7790	 2.7010
 3.7820	 2.6430
 3.7850	 2.6600
 3.7880	 2.6680
 3.7900	 2.6900
 3.7930	 2.7440
 3.7960	 2.7680
 3.7990	 2.6940
 3.8020	 2.6520
 3.8040	 2.6540
 3.8070	 2.6880
 3.8100	 2.7760
 3.8130	 2.8120
 3.8160	 2.8080
 3.8180	 2.7650
 3.8210	 2.7480
 3.8240	 2.7690
 3.8270	 2.8090
 3.8300	 2.8160
 3.8330	 2.7340
 3.8350	 2.6710
 3.8380	 2.6900
 3.8410	 2.7260
 3.8440	 2.6710
 3.8470	 2.6390
 3.8500	 2.6520
 3.8520	 2.7370
 3.8550	 2.7770
 3.8580	 2.7790
 3.8610	 2.7300
 3.8640	 2.6980
 3.8670	 2.7220
 3.8700	 2.7410
 3.8730	 2.7810
 3.8750	 2.7940
 3.8780	 2.7840
 3.8810	 2.7680
 3.8840	 2.7830
 3.8870	 2.8030
 3.8900	 2.8120
 3.8930	 2.8250
 3.8960	 2.7930
 3.8990	 2.7850
 3.9020	 2.7700
 3.9050	 2.8290
 3.9080	 2.8200
 3.9110	 2.7520
 3.9140	 2.7100
 3.9160	 2.7800
 3.9190	 2.8590
 3.9220	 2.7890
 3.9250	 2.7260
 3.9280	 2.7540
 3.9310	 2.7760
 3.9340	 2.8150
 3.9370	 2.7820
 3.9400	 2.7250
 3.9430	 2.7330
 3.9460	 2.7900
 3.9490	 2.7430
 3.9520	 2.7200
 3.9550	 2.7120
 3.9580	 2.7180
 3.9610	 2.7430
 3.9640	 2.7830
 3.9670	 2.8420
 3.9700	 2.8710
 3.9730	 2.7810
 3.9770	 2.7640
 3.9800	 2.7930
 3.9830	 2.7960
 3.9860	 2.7590
 3.9890	 2.7570
 3.9920	 2.7770
 3.9950	 2.7880
 3.9980	 2.8030
 4.0010	 2.8030
 4.0040	 2.8190
 4.0070	 2.8570
 4.0100	 2.8810
 4.0130	 2.8900
 4.0170	 2.8290
 4.0200	 2.8090
 4.0230	 2.8220
 4.0260	 2.8210
 4.0290	 2.8120
 4.0320	 2.8410
 4.0350	 2.8290
 4.0380	 2.7470
 4.0420	 2.7480
 4.0450	 2.7990
 4.0480	 2.7820
 4.0510	 2.7990
 4.0540	 2.8060
 4.0570	 2.8360
 4.0610	 2.8150
 4.0640	 2.8150
 4.0670	 2.8540
 4.0700	 2.8810
 4.0730	 2.8100
 4.0770	 2.7680
 4.0800	 2.8250
 4.0830	 2.8310
 4.0860	 2.8250
 4.0890	 2.8080
 4.0930	 2.7690
 4.0960	 2.7840
 4.0990	 2.7990
 4.1020	 2.7740
 4.1060	 2.6720
 4.1090	 2.6980
 4.1120	 2.7530
 4.1150	 2.7250
 4.1190	 2.7330
 4.1220	 2.8060
 4.1250	 2.7950
 4.1280	 2.8150
 4.1320	 2.8320
 4.1350	 2.8120
 4.1380	 2.8060
 4.1420	 2.8130
 4.1450	 2.7250
 4.1480	 2.6920
 4.1520	 2.7370
 4.1550	 2.7560
 4.1580	 2.7320
 4.1620	 2.7570
 4.1650	 2.8080
 4.1680	 2.8570
 4.1720	 2.8450
 4.1750	 2.8120
 4.1780	 2.8220
 4.1820	 2.8500
 4.1850	 2.7960
 4.1890	 2.7470
 4.1920	 2.7440
 4.1950	 2.8020
 4.1990	 2.8460
 4.2020	 2.8910
 4.2060	 2.9580
 4.2090	 3.0060
 4.2120	 2.9760
 4.2160	 2.9470
 4.2190	 2.8510
 4.2230	 3.0010
 4.2260	 3.1410
 4.2300	 3.2100
 4.2330	 3.1850
 4.2360	 3.1680
 4.2400	 3.0020
 4.2430	 2.9520
 4.2470	 3.0730
 4.2500	 3.1850
 4.2540	 2.9970
 4.2570	 2.8960
 4.2610	 2.9820
 4.2640	 3.1660
 4.2680	 3.0760
 4.2710	 3.0730
 4.2750	 2.9590
 4.2780	 2.9810
 4.2820	 2.9710
 4.2850	 2.8800
 4.2890	 2.7100
 4.2930	 2.7570
 4.2960	 2.8710
 4.3000	 2.9240
 4.3030	 2.8820
 4.3070	 2.8770
 4.3100	 2.8090
 4.3140	 2.7720
 4.3180	 2.7470
 4.3210	 2.8940
 4.3250	 2.9200
 4.3280	 2.9260
 4.3320	 2.8100
 4.3360	 2.7570
 4.3390	 2.7610
 4.3430	 2.7770
 4.3470	 2.7590
 4.3500	 2.7400
 4.3540	 2.7360
 4.3570	 2.7820
 4.3610	 2.7300
 4.3650	 2.6360
 4.3680	 2.6200
 4.3720	 2.6600
 4.3760	 2.6410
 4.3800	 2.6170
 4.3830	 2.5760
 4.3870	 2.5950
 4.3910	 2.6300
 4.3940	 2.6390
 4.3980	 2.6190
 4.4020	 2.6240
 4.4060	 2.6260
 4.4090	 2.6640
 4.4130	 2.6130
 4.4170	 2.5660
 4.4210	 2.5530
 4.4240	 2.6640
 4.4280	 2.6400
 4.4320	 2.6320
 4.4360	 2.6230
 4.4400	 2.6100
 4.4430	 2.5860
 4.4470	 2.6470
 4.4510	 2.6080
 4.4550	 2.5760
 4.4590	 2.5720
 4.4620	 2.5760
 4.4660	 2.5540
 4.4700	 2.5620
 4.4740	 2.5380
 4.4780	 2.5260
 4.4820	 2.4900
 4.4860	 2.5290
 4.4900	 2.6030
 4.4930	 2.6660
 4.4970	 2.6100
 4.5010	 2.5740
 4.5050	 2.5700
 4.5090	 2.5680
 4.5130	 2.5050
 4.5170	 2.5280
 4.5210	 2.5610
 4.5250	 2.5590
 4.5290	 2.5210
 4.5330	 2.5380
 4.5370	 2.5320
 4.5410	 2.5180
 4.5450	 2.5300
 4.5490	 2.5500
 4.5530	 2.5260
 4.5570	 2.5350
 4.5610	 2.4990
 4.5650	 2.4940
 4.5690	 2.4660
 4.5730	 2.4860
 4.5770	 2.4980
 4.5810	 2.5230
 4.5850	 2.4860
 4.5890	 2.5140
 4.5930	 2.5320
 4.5970	 2.5850
 4.6010	 2.6290
 4.6050	 2.5800
 4.6090	 2.4430
 4.6130	 2.4200
 4.6170	 2.4300
 4.6220	 2.4520
 4.6260	 2.4570
 4.6300	 2.4660
 4.6340	 2.4640
 4.6380	 2.4450
 4.6420	 2.4450
 4.6460	 2.4470
 4.6510	 2.4050
 4.6550	 2.4500
 4.6590	 2.4420
 4.6630	 2.4570
 4.6670	 2.4490
 4.6720	 2.4810
 4.6760	 2.5000
 4.6800	 2.4910
 4.6840	 2.4370
 4.6880	 2.4530
 4.6930	 2.4960
 4.6970	 2.5310
 4.7010	 2.4920
 4.7050	 2.5290
 4.7100	 2.5210
 4.7140	 2.5410
 4.7180	 2.5220
 4.7230	 2.4950
 4.7270	 2.4540
 4.7310	 2.5080
 4.7360	 2.5080
 4.7400	 2.4670
 4.7440	 2.4290
 4.7490	 2.4300
 4.7530	 2.3770
 4.7570	 2.4020
 4.7620	 2.4190
 4.7660	 2.4360
 4.7700	 2.4660
 4.7750	 2.5480
 4.7790	 2.4790
 4.7840	 2.4160
 4.7880	 2.4000
 4.7920	 2.3930
 4.7970	 2.4310
 4.8010	 2.4820
 4.8060	 2.4930
 4.8100	 2.5110
 4.8150	 2.4450
 4.8190	 2.3950
 4.8240	 2.3570
 4.8280	 2.4330
 4.8330	 2.4380
 4.8370	 2.4250
 4.8420	 2.3990
 4.8460	 2.4290
 4.8510	 2.4700
 4.8550	 2.5090
 4.8600	 2.4290
 4.8640	 2.4260
 4.8690	 2.4360
 4.8730	 2.5170
 4.8780	 2.5130
 4.8830	 2.4810
 4.8870	 2.4290
 4.8920	 2.4840
 4.8960	 2.4710
 4.9010	 2.4590
 4.9060	 2.4160
 4.9100	 2.4730
 4.9150	 2.4760
 4.9200	 2.4320
 4.9240	 2.4350
 4.9290	 2.4800
 4.9340	 2.4570
 4.9380	 2.4720
 4.9430	 2.4170
 4.9480	 2.4670
 4.9530	 2.4640
 4.9570	 2.5270
 4.9620	 2.4520
 4.9670	 2.4490
 4.9720	 2.5180
 4.9760	 2.5910
 4.9810	 2.4820
 4.9860	 2.4140
 4.9910	 2.4690
 4.9960	 2.5730
 5.0000	 2.5250
 5.0050	 2.4890
 5.0100	 2.4740
 5.0150	 2.5120
 5.0200	 2.5180
 5.0250	 2.5420
 5.0290	 2.4470
 5.0340	 2.4560
 5.0390	 2.4840
 5.0440	 2.5160
 5.0490	 2.4650
 5.0540	 2.4940
 5.0590	 2.5090
 5.0640	 2.5010
 5.0690	 2.5130
 5.0740	 2.5410
 5.0790	 2.4570
 5.0840	 2.4770
 5.0890	 2.5120
 5.0940	 2.5620
 5.0990	 2.5410
 5.1040	 2.5760
 5.1090	 2.5770
 5.1140	 2.5310
 5.1190	 2.4370
 5.1240	 2.4480
 5.1290	 2.4600
 5.1340	 2.5700
 5.1390	 2.5430
 5.1440	 2.5470
 5.1490	 2.5600
 5.1540	 2.5920
 5.1600	 2.5340
 5.1650	 2.5280
 5.1700	 2.5190
 5.1750	 2.5620
 5.1800	 2.5280
 5.1850	 2.5480
 5.1910	 2.5300
 5.1960	 2.5720
 5.2010	 2.5740
 5.2060	 2.5880
 5.2110	 2.5050
 5.2170	 2.4720
 5.2220	 2.4610
 5.2270	 2.6050
 5.2320	 2.6140
 5.2380	 2.5490
 5.2430	 2.4860
 5.2480	 2.5310
 5.2540	 2.4800
 5.2590	 2.4660
 5.2640	 2.4570
 5.2700	 2.5430
 5.2750	 2.4650
 5.2800	 2.4570
 5.2860	 2.5000
 5.2910	 2.5730
 5.2970	 2.5330
 5.3020	 2.5230
 5.3070	 2.5380
 5.3130	 2.6370
 5.3180	 2.5640
 5.3240	 2.5290
 5.3290	 2.5070
 5.3350	 2.5140
 5.3400	 2.4840
 5.3460	 2.5230
 5.3510	 2.4370
 5.3570	 2.4550
 5.3620	 2.4400
 5.3680	 2.5080
 5.3730	 2.5020
 5.3790	 2.4650
 5.3850	 2.4080
 5.3900	 2.4570
 5.3960	 2.4640
 5.4010	 2.5250
 5.4070	 2.5290
 5.4130	 2.6190
 5.4180	 2.5250
 5.4240	 2.4600
 5.4300	 2.3790
 5.4350	 2.3720
 5.4410	 2.3480
