Name: Beaucarnea recurvata
Type: vegetation
Class: Tree
Genus: Beaucarnea
Species: recurvata
Sample No.: JPL070
Owner: JPL
Wavelength Range: TIR
Origin: 34.12603; - 118.11015; WGS84
Collection Date: 2/2/2016
Description: Samples were collected at the Huntington Garden in San Marino California as part of a JPL Subcontract studying HyTES imagery. Samples were taken to JPL and processed within 48 hours of collection. The same leaves were processed in the Nicolet and then measured using the ASD.
Measurement: Hemispherical reflectance
First Column: X
Second Column: Y
X Units: Wavelength (micrometer)
Y Units: Reflectance (percentage)
First X Value: 2.501
Last X Value: 15.387
Number of X Values: 1737
Additional Information: 

 2.5010	 5.3980
 2.5030	 5.3980
 2.5040	 5.4120
 2.5050	 5.3830
 2.5060	 5.3460
 2.5070	 5.3180
 2.5090	 5.4140
 2.5100	 5.3920
 2.5110	 5.3120
 2.5120	 5.2860
 2.5140	 5.3440
 2.5150	 5.3630
 2.5160	 5.3280
 2.5170	 5.3300
 2.5180	 5.3420
 2.5200	 5.3080
 2.5210	 5.3370
 2.5220	 5.3540
 2.5230	 5.2700
 2.5250	 5.2800
 2.5260	 5.3640
 2.5270	 5.3600
 2.5280	 5.4000
 2.5300	 5.3850
 2.5310	 5.2890
 2.5320	 5.1880
 2.5330	 5.3010
 2.5340	 5.3590
 2.5360	 5.3690
 2.5370	 5.3390
 2.5380	 5.4030
 2.5390	 5.4130
 2.5410	 5.4440
 2.5420	 5.4080
 2.5430	 5.3710
 2.5440	 5.3390
 2.5460	 5.3410
 2.5470	 5.3410
 2.5480	 5.3590
 2.5490	 5.3690
 2.5510	 5.3580
 2.5520	 5.2800
 2.5530	 5.3020
 2.5540	 5.3250
 2.5560	 5.4040
 2.5570	 5.3880
 2.5580	 5.4240
 2.5590	 5.4010
 2.5610	 5.3130
 2.5620	 5.2730
 2.5630	 5.3540
 2.5650	 5.3660
 2.5660	 5.4220
 2.5670	 5.3970
 2.5680	 5.3710
 2.5700	 5.3140
 2.5710	 5.3770
 2.5720	 5.4880
 2.5730	 5.4470
 2.5750	 5.3830
 2.5760	 5.4440
 2.5770	 5.4430
 2.5790	 5.4690
 2.5800	 5.4600
 2.5810	 5.4020
 2.5820	 5.3070
 2.5840	 5.3300
 2.5850	 5.3540
 2.5860	 5.3390
 2.5880	 5.2860
 2.5890	 5.3070
 2.5900	 5.2980
 2.5910	 5.4360
 2.5930	 5.4310
 2.5940	 5.2730
 2.5950	 5.0990
 2.5970	 5.2320
 2.5980	 5.3690
 2.5990	 5.4310
 2.6010	 5.3800
 2.6020	 5.4120
 2.6030	 5.3980
 2.6040	 5.2990
 2.6060	 5.1390
 2.6070	 5.1810
 2.6080	 5.2270
 2.6100	 5.2460
 2.6110	 5.2750
 2.6120	 5.2480
 2.6140	 5.1590
 2.6150	 5.1660
 2.6160	 5.0480
 2.6180	 5.0130
 2.6190	 5.1080
 2.6200	 5.0640
 2.6220	 5.0550
 2.6230	 5.1190
 2.6240	 5.1150
 2.6260	 5.1030
 2.6270	 4.9600
 2.6280	 4.9840
 2.6300	 4.9590
 2.6310	 4.9390
 2.6320	 5.0150
 2.6340	 5.0100
 2.6350	 4.9780
 2.6360	 5.0520
 2.6380	 5.0040
 2.6390	 4.9550
 2.6400	 4.9390
 2.6420	 4.9490
 2.6430	 4.9360
 2.6440	 4.9310
 2.6460	 4.8780
 2.6470	 4.8970
 2.6480	 4.8940
 2.6500	 4.9090
 2.6510	 4.7750
 2.6520	 4.6860
 2.6540	 4.7240
 2.6550	 4.7640
 2.6570	 4.7750
 2.6580	 4.7890
 2.6590	 4.6220
 2.6610	 4.6030
 2.6620	 4.6220
 2.6630	 4.5800
 2.6650	 4.4380
 2.6660	 4.3480
 2.6670	 4.2770
 2.6690	 4.3380
 2.6700	 4.3040
 2.6720	 4.3530
 2.6730	 4.4190
 2.6740	 4.3810
 2.6760	 4.3080
 2.6770	 4.3110
 2.6780	 4.3010
 2.6800	 4.2930
 2.6810	 4.3230
 2.6830	 4.3290
 2.6840	 4.2850
 2.6850	 4.3090
 2.6870	 4.2490
 2.6880	 4.2200
 2.6900	 4.2160
 2.6910	 4.2270
 2.6920	 4.1740
 2.6940	 4.0690
 2.6950	 4.0140
 2.6970	 4.0280
 2.6980	 4.0230
 2.6990	 4.0390
 2.7010	 3.9390
 2.7020	 3.9570
 2.7040	 3.9560
 2.7050	 3.9740
 2.7060	 3.9270
 2.7080	 3.8450
 2.7090	 3.7160
 2.7110	 3.6530
 2.7120	 3.6400
 2.7130	 3.7690
 2.7150	 3.8110
 2.7160	 3.7610
 2.7180	 3.6950
 2.7190	 3.6790
 2.7210	 3.5400
 2.7220	 3.5910
 2.7230	 3.5980
 2.7250	 3.5530
 2.7260	 3.5640
 2.7280	 3.6650
 2.7290	 3.6770
 2.7310	 3.6970
 2.7320	 3.6840
 2.7340	 3.6130
 2.7350	 3.5460
 2.7360	 3.6290
 2.7380	 3.5910
 2.7390	 3.4710
 2.7410	 3.4320
 2.7420	 3.5340
 2.7440	 3.5520
 2.7450	 3.6130
 2.7470	 3.6340
 2.7480	 3.6390
 2.7490	 3.5950
 2.7510	 3.5400
 2.7520	 3.4540
 2.7540	 3.4570
 2.7550	 3.4040
 2.7570	 3.4370
 2.7580	 3.4980
 2.7600	 3.5460
 2.7610	 3.5490
 2.7630	 3.5020
 2.7640	 3.4010
 2.7660	 3.5100
 2.7670	 3.5310
 2.7690	 3.4680
 2.7700	 3.4620
 2.7720	 3.4970
 2.7730	 3.4530
 2.7740	 3.4930
 2.7760	 3.4490
 2.7770	 3.4690
 2.7790	 3.5200
 2.7800	 3.6220
 2.7820	 3.5570
 2.7830	 3.4780
 2.7850	 3.4430
 2.7860	 3.4280
 2.7880	 3.4490
 2.7890	 3.5420
 2.7910	 3.4890
 2.7920	 3.4940
 2.7940	 3.4650
 2.7950	 3.4700
 2.7970	 3.4430
 2.7980	 3.4560
 2.8000	 3.3770
 2.8010	 3.4030
 2.8030	 3.4970
 2.8040	 3.5560
 2.8060	 3.5050
 2.8080	 3.4660
 2.8090	 3.4060
 2.8110	 3.4630
 2.8120	 3.4540
 2.8140	 3.4560
 2.8150	 3.4400
 2.8170	 3.5210
 2.8180	 3.4940
 2.8200	 3.5020
 2.8210	 3.4130
 2.8230	 3.4280
 2.8240	 3.4600
 2.8260	 3.4910
 2.8270	 3.5190
 2.8290	 3.5430
 2.8310	 3.4870
 2.8320	 3.5450
 2.8340	 3.4980
 2.8350	 3.4630
 2.8370	 3.4840
 2.8380	 3.5000
 2.8400	 3.4490
 2.8410	 3.4630
 2.8430	 3.4530
 2.8440	 3.4890
 2.8460	 3.5140
 2.8480	 3.5180
 2.8490	 3.4830
 2.8510	 3.4950
 2.8520	 3.4390
 2.8540	 3.4400
 2.8550	 3.4130
 2.8570	 3.4490
 2.8590	 3.4370
 2.8600	 3.4460
 2.8620	 3.4930
 2.8630	 3.5510
 2.8650	 3.4800
 2.8660	 3.4670
 2.8680	 3.4350
 2.8700	 3.4540
 2.8710	 3.4230
 2.8730	 3.4600
 2.8740	 3.4260
 2.8760	 3.4110
 2.8780	 3.4520
 2.8790	 3.4840
 2.8810	 3.4220
 2.8820	 3.3660
 2.8840	 3.3870
 2.8860	 3.4730
 2.8870	 3.4960
 2.8890	 3.5300
 2.8900	 3.4900
 2.8920	 3.5030
 2.8940	 3.4660
 2.8950	 3.5290
 2.8970	 3.5140
 2.8990	 3.4860
 2.9000	 3.3940
 2.9020	 3.3950
 2.9030	 3.4470
 2.9050	 3.4770
 2.9070	 3.4330
 2.9080	 3.5110
 2.9100	 3.5380
 2.9120	 3.5140
 2.9130	 3.4910
 2.9150	 3.5630
 2.9160	 3.4950
 2.9180	 3.4440
 2.9200	 3.4210
 2.9210	 3.4160
 2.9230	 3.4090
 2.9250	 3.4460
 2.9260	 3.4460
 2.9280	 3.4970
 2.9300	 3.4600
 2.9310	 3.4870
 2.9330	 3.4270
 2.9350	 3.4600
 2.9360	 3.5370
 2.9380	 3.5440
 2.9400	 3.5130
 2.9410	 3.5520
 2.9430	 3.4550
 2.9450	 3.4890
 2.9460	 3.4720
 2.9480	 3.4650
 2.9500	 3.4730
 2.9510	 3.5390
 2.9530	 3.4920
 2.9550	 3.5040
 2.9560	 3.5250
 2.9580	 3.5240
 2.9600	 3.4660
 2.9610	 3.4710
 2.9630	 3.4460
 2.9650	 3.5080
 2.9670	 3.5090
 2.9680	 3.4690
 2.9700	 3.4520
 2.9720	 3.5140
 2.9730	 3.5130
 2.9750	 3.5180
 2.9770	 3.5870
 2.9780	 3.5950
 2.9800	 3.5160
 2.9820	 3.5970
 2.9840	 3.5780
 2.9850	 3.5390
 2.9870	 3.4630
 2.9890	 3.4720
 2.9900	 3.5420
 2.9920	 3.5760
 2.9940	 3.5560
 2.9960	 3.5190
 2.9970	 3.4810
 2.9990	 3.5210
 3.0010	 3.5000
 3.0030	 3.5110
 3.0040	 3.5160
 3.0060	 3.5070
 3.0080	 3.4950
 3.0100	 3.4880
 3.0110	 3.4410
 3.0130	 3.4390
 3.0150	 3.5020
 3.0170	 3.5590
 3.0180	 3.5390
 3.0200	 3.5340
 3.0220	 3.5340
 3.0240	 3.5550
 3.0250	 3.5270
 3.0270	 3.6090
 3.0290	 3.6310
 3.0310	 3.6530
 3.0320	 3.5720
 3.0340	 3.5620
 3.0360	 3.5530
 3.0380	 3.5550
 3.0400	 3.5180
 3.0410	 3.5450
 3.0430	 3.5550
 3.0450	 3.6230
 3.0470	 3.6090
 3.0480	 3.5610
 3.0500	 3.5130
 3.0520	 3.5570
 3.0540	 3.5870
 3.0560	 3.5790
 3.0570	 3.5590
 3.0590	 3.5910
 3.0610	 3.5520
 3.0630	 3.5340
 3.0650	 3.5180
 3.0670	 3.5500
 3.0680	 3.5180
 3.0700	 3.4820
 3.0720	 3.4220
 3.0740	 3.4810
 3.0760	 3.5320
 3.0770	 3.5550
 3.0790	 3.5340
 3.0810	 3.5310
 3.0830	 3.4940
 3.0850	 3.5640
 3.0870	 3.5350
 3.0880	 3.4940
 3.0900	 3.5140
 3.0920	 3.5700
 3.0940	 3.5580
 3.0960	 3.5340
 3.0980	 3.4640
 3.1000	 3.5020
 3.1010	 3.5210
 3.1030	 3.5140
 3.1050	 3.5300
 3.1070	 3.5820
 3.1090	 3.5880
 3.1110	 3.5350
 3.1130	 3.4470
 3.1140	 3.4780
 3.1160	 3.4720
 3.1180	 3.4980
 3.1200	 3.5080
 3.1220	 3.5370
 3.1240	 3.5480
 3.1260	 3.5130
 3.1280	 3.4480
 3.1290	 3.5000
 3.1310	 3.5500
 3.1330	 3.5870
 3.1350	 3.5350
 3.1370	 3.5110
 3.1390	 3.5090
 3.1410	 3.5320
 3.1430	 3.4950
 3.1450	 3.4870
 3.1470	 3.4710
 3.1480	 3.5050
 3.1500	 3.4810
 3.1520	 3.4730
 3.1540	 3.4920
 3.1560	 3.5140
 3.1580	 3.4480
 3.1600	 3.4550
 3.1620	 3.4560
 3.1640	 3.4820
 3.1660	 3.4650
 3.1680	 3.4440
 3.1700	 3.4290
 3.1720	 3.4800
 3.1730	 3.4700
 3.1750	 3.5070
 3.1770	 3.4830
 3.1790	 3.4730
 3.1810	 3.4330
 3.1830	 3.4700
 3.1850	 3.4820
 3.1870	 3.4750
 3.1890	 3.4580
 3.1910	 3.5130
 3.1930	 3.4880
 3.1950	 3.4760
 3.1970	 3.4880
 3.1990	 3.4870
 3.2010	 3.4170
 3.2030	 3.4140
 3.2050	 3.4440
 3.2070	 3.4800
 3.2090	 3.4320
 3.2110	 3.4390
 3.2130	 3.4660
 3.2150	 3.4630
 3.2170	 3.4150
 3.2190	 3.4190
 3.2210	 3.4200
 3.2230	 3.4540
 3.2250	 3.4210
 3.2270	 3.4180
 3.2290	 3.3850
 3.2310	 3.3820
 3.2330	 3.4130
 3.2350	 3.4600
 3.2370	 3.4260
 3.2390	 3.4240
 3.2410	 3.4130
 3.2430	 3.4280
 3.2450	 3.3880
 3.2470	 3.4070
 3.2490	 3.4250
 3.2510	 3.4320
 3.2530	 3.4050
 3.2550	 3.4430
 3.2570	 3.4880
 3.2590	 3.5130
 3.2610	 3.3920
 3.2630	 3.3800
 3.2650	 3.3910
 3.2670	 3.4140
 3.2700	 3.3980
 3.2720	 3.3720
 3.2740	 3.3450
 3.2760	 3.3780
 3.2780	 3.3770
 3.2800	 3.3650
 3.2820	 3.3650
 3.2840	 3.3880
 3.2860	 3.3550
 3.2880	 3.3410
 3.2900	 3.3570
 3.2920	 3.4080
 3.2940	 3.3660
 3.2970	 3.3260
 3.2990	 3.3140
 3.3010	 3.3260
 3.3030	 3.2890
 3.3050	 3.3220
 3.3070	 3.2950
 3.3090	 3.2730
 3.3110	 3.2660
 3.3130	 3.2760
 3.3160	 3.2140
 3.3180	 3.1790
 3.3200	 3.2080
 3.3220	 3.2620
 3.3240	 3.2500
 3.3260	 3.2670
 3.3280	 3.2490
 3.3300	 3.2380
 3.3330	 3.2380
 3.3350	 3.2630
 3.3370	 3.2420
 3.3390	 3.1990
 3.3410	 3.1320
 3.3430	 3.1530
 3.3450	 3.1620
 3.3480	 3.1700
 3.3500	 3.1500
 3.3520	 3.1280
 3.3540	 3.1000
 3.3560	 3.1090
 3.3580	 3.0830
 3.3610	 3.1010
 3.3630	 3.0370
 3.3650	 3.0410
 3.3670	 3.0480
 3.3690	 3.0210
 3.3720	 3.0220
 3.3740	 2.9950
 3.3760	 2.9320
 3.3780	 2.9690
 3.3800	 3.0080
 3.3830	 3.0280
 3.3850	 2.9610
 3.3870	 2.9570
 3.3890	 2.9290
 3.3910	 2.8720
 3.3940	 2.7670
 3.3960	 2.7260
 3.3980	 2.6940
 3.4000	 2.6970
 3.4030	 2.6530
 3.4050	 2.6250
 3.4070	 2.5740
 3.4090	 2.6180
 3.4110	 2.6090
 3.4140	 2.6520
 3.4160	 2.7500
 3.4180	 2.9220
 3.4200	 3.1820
 3.4230	 3.6520
 3.4250	 4.3790
 3.4270	 5.2670
 3.4300	 5.9100
 3.4320	 5.9960
 3.4340	 5.6960
 3.4360	 5.3250
 3.4390	 5.0170
 3.4410	 4.8100
 3.4430	 4.6300
 3.4450	 4.5140
 3.4480	 4.4690
 3.4500	 4.4600
 3.4520	 4.4040
 3.4550	 4.3740
 3.4570	 4.2850
 3.4590	 4.2170
 3.4620	 4.2060
 3.4640	 4.2030
 3.4660	 4.1660
 3.4690	 4.1040
 3.4710	 4.0410
 3.4730	 4.0080
 3.4760	 3.9210
 3.4780	 3.8350
 3.4800	 3.7780
 3.4830	 3.7490
 3.4850	 3.7120
 3.4870	 3.6880
 3.4900	 3.6100
 3.4920	 3.5360
 3.4940	 3.4180
 3.4970	 3.3780
 3.4990	 3.3280
 3.5010	 3.2750
 3.5040	 3.2610
 3.5060	 3.5610
 3.5080	 4.4330
 3.5110	 5.4960
 3.5130	 5.8410
 3.5160	 5.6020
 3.5180	 5.2530
 3.5200	 5.0000
 3.5230	 4.7820
 3.5250	 4.6470
 3.5280	 4.5620
 3.5300	 4.4970
 3.5320	 4.4380
 3.5350	 4.4250
 3.5370	 4.3560
 3.5400	 4.2780
 3.5420	 4.2700
 3.5440	 4.2680
 3.5470	 4.2330
 3.5490	 4.2220
 3.5520	 4.1830
 3.5540	 4.1970
 3.5570	 4.1640
 3.5590	 4.1090
 3.5610	 4.0950
 3.5640	 4.1070
 3.5660	 4.1320
 3.5690	 4.1970
 3.5710	 4.1520
 3.5740	 4.0870
 3.5760	 4.0390
 3.5790	 4.0650
 3.5810	 4.1070
 3.5840	 4.1070
 3.5860	 4.0720
 3.5890	 4.0810
 3.5910	 4.1090
 3.5940	 4.1520
 3.5960	 4.1030
 3.5990	 4.0720
 3.6010	 4.0730
 3.6040	 4.0880
 3.6060	 4.0690
 3.6090	 4.0670
 3.6110	 4.0760
 3.6140	 4.1070
 3.6160	 4.0930
 3.6190	 4.0690
 3.6210	 4.0140
 3.6240	 4.0050
 3.6260	 4.0490
 3.6290	 4.0500
 3.6310	 4.0490
 3.6340	 4.0330
 3.6360	 3.9880
 3.6390	 4.0270
 3.6410	 4.0280
 3.6440	 4.0370
 3.6470	 4.0540
 3.6490	 4.0650
 3.6520	 4.0460
 3.6540	 4.0210
 3.6570	 4.0030
 3.6590	 4.0110
 3.6620	 4.0220
 3.6650	 4.0260
 3.6670	 3.9930
 3.6700	 4.0200
 3.6720	 4.0230
 3.6750	 4.0470
 3.6780	 4.0390
 3.6800	 4.0450
 3.6830	 4.0580
 3.6850	 4.0600
 3.6880	 4.0250
 3.6910	 4.0630
 3.6930	 4.0610
 3.6960	 4.0520
 3.6990	 4.0180
 3.7010	 3.9920
 3.7040	 3.9880
 3.7070	 4.0210
 3.7090	 4.0060
 3.7120	 4.0150
 3.7150	 4.0300
 3.7170	 4.0260
 3.7200	 4.0080
 3.7230	 4.0390
 3.7250	 4.0520
 3.7280	 4.0720
 3.7310	 4.0520
 3.7330	 4.0520
 3.7360	 4.0680
 3.7390	 4.0870
 3.7410	 4.0710
 3.7440	 4.0840
 3.7470	 4.1030
 3.7490	 4.0920
 3.7520	 4.0600
 3.7550	 4.0790
 3.7580	 4.0740
 3.7600	 4.0520
 3.7630	 4.0590
 3.7660	 4.1130
 3.7690	 4.1180
 3.7710	 4.1340
 3.7740	 4.1390
 3.7770	 4.0870
 3.7790	 4.0630
 3.7820	 4.1100
 3.7850	 4.1180
 3.7880	 4.1140
 3.7910	 4.0970
 3.7930	 4.1330
 3.7960	 4.1370
 3.7990	 4.1470
 3.8020	 4.1690
 3.8040	 4.1620
 3.8070	 4.1190
 3.8100	 4.1330
 3.8130	 4.1460
 3.8160	 4.1930
 3.8180	 4.2110
 3.8210	 4.1720
 3.8240	 4.1060
 3.8270	 4.1080
 3.8300	 4.1780
 3.8330	 4.2010
 3.8350	 4.1710
 3.8380	 4.1740
 3.8410	 4.2070
 3.8440	 4.2500
 3.8470	 4.2020
 3.8500	 4.1700
 3.8520	 4.1930
 3.8550	 4.2170
 3.8580	 4.2210
 3.8610	 4.2390
 3.8640	 4.2010
 3.8670	 4.1780
 3.8700	 4.1950
 3.8730	 4.2320
 3.8760	 4.2550
 3.8780	 4.2710
 3.8810	 4.2530
 3.8840	 4.2300
 3.8870	 4.1930
 3.8900	 4.2200
 3.8930	 4.2410
 3.8960	 4.2660
 3.8990	 4.2440
 3.9020	 4.2010
 3.9050	 4.1990
 3.9080	 4.2580
 3.9110	 4.2590
 3.9140	 4.2400
 3.9170	 4.2260
 3.9190	 4.2430
 3.9220	 4.2270
 3.9250	 4.2290
 3.9280	 4.2390
 3.9310	 4.2270
 3.9340	 4.2650
 3.9370	 4.2980
 3.9400	 4.2610
 3.9430	 4.2300
 3.9460	 4.2170
 3.9490	 4.2290
 3.9520	 4.2290
 3.9550	 4.2300
 3.9580	 4.2190
 3.9610	 4.2550
 3.9640	 4.2840
 3.9670	 4.2640
 3.9700	 4.2530
 3.9740	 4.2370
 3.9770	 4.2270
 3.9800	 4.2620
 3.9830	 4.2570
 3.9860	 4.2300
 3.9890	 4.2380
 3.9920	 4.2570
 3.9950	 4.2270
 3.9980	 4.2430
 4.0010	 4.2330
 4.0040	 4.2200
 4.0070	 4.2080
 4.0100	 4.2200
 4.0140	 4.2100
 4.0170	 4.2240
 4.0200	 4.2450
 4.0230	 4.2200
 4.0260	 4.2000
 4.0290	 4.2410
 4.0320	 4.2400
 4.0350	 4.2620
 4.0390	 4.2360
 4.0420	 4.2180
 4.0450	 4.2160
 4.0480	 4.2210
 4.0510	 4.2270
 4.0540	 4.2570
 4.0570	 4.2610
 4.0610	 4.2710
 4.0640	 4.2470
 4.0670	 4.2380
 4.0700	 4.2310
 4.0730	 4.2140
 4.0770	 4.2150
 4.0800	 4.2390
 4.0830	 4.2570
 4.0860	 4.2670
 4.0890	 4.2410
 4.0930	 4.2270
 4.0960	 4.2490
 4.0990	 4.2450
 4.1020	 4.2210
 4.1060	 4.2460
 4.1090	 4.2450
 4.1120	 4.2120
 4.1150	 4.2160
 4.1190	 4.2260
 4.1220	 4.2150
 4.1250	 4.1760
 4.1290	 4.1680
 4.1320	 4.2150
 4.1350	 4.2110
 4.1380	 4.1820
 4.1420	 4.1910
 4.1450	 4.1900
 4.1480	 4.1640
 4.1520	 4.1980
 4.1550	 4.2120
 4.1580	 4.1780
 4.1620	 4.1660
 4.1650	 4.1400
 4.1680	 4.1630
 4.1720	 4.1950
 4.1750	 4.1680
 4.1780	 4.1580
 4.1820	 4.1650
 4.1850	 4.1680
 4.1890	 4.1910
 4.1920	 4.2020
 4.1950	 4.1760
 4.1990	 4.1790
 4.2020	 4.2020
 4.2060	 4.1980
 4.2090	 4.2020
 4.2120	 4.2650
 4.2160	 4.3260
 4.2190	 4.3490
 4.2230	 4.2890
 4.2260	 4.2690
 4.2300	 4.3280
 4.2330	 4.3770
 4.2360	 4.3350
 4.2400	 4.2660
 4.2430	 4.2240
 4.2470	 4.2000
 4.2500	 4.2540
 4.2540	 4.2900
 4.2570	 4.2370
 4.2610	 4.1900
 4.2640	 4.2420
 4.2680	 4.3170
 4.2710	 4.3520
 4.2750	 4.2950
 4.2780	 4.2220
 4.2820	 4.2420
 4.2850	 4.2310
 4.2890	 4.2030
 4.2930	 4.2130
 4.2960	 4.2100
 4.3000	 4.2350
 4.3030	 4.2890
 4.3070	 4.1870
 4.3100	 4.1120
 4.3140	 4.1180
 4.3180	 4.0610
 4.3210	 4.0790
 4.3250	 4.1110
 4.3280	 4.1240
 4.3320	 4.1530
 4.3360	 4.1240
 4.3390	 4.0610
 4.3430	 4.0530
 4.3470	 4.0410
 4.3500	 4.0010
 4.3540	 4.0070
 4.3580	 4.0510
 4.3610	 4.0440
 4.3650	 4.0250
 4.3690	 4.0270
 4.3720	 4.0240
 4.3760	 4.0260
 4.3800	 4.0340
 4.3830	 4.0330
 4.3870	 4.0080
 4.3910	 4.0090
 4.3940	 4.0330
 4.3980	 4.0020
 4.4020	 4.0190
 4.4060	 4.0500
 4.4090	 4.0130
 4.4130	 3.9790
 4.4170	 3.9800
 4.4210	 3.9610
 4.4240	 3.9860
 4.4280	 4.0350
 4.4320	 4.0390
 4.4360	 3.9930
 4.4400	 3.9860
 4.4430	 4.0080
 4.4470	 4.0060
 4.4510	 3.9560
 4.4550	 3.9470
 4.4590	 3.9820
 4.4630	 3.9660
 4.4660	 3.9510
 4.4700	 3.9460
 4.4740	 3.9610
 4.4780	 3.9660
 4.4820	 3.9490
 4.4860	 3.9310
 4.4900	 3.9450
 4.4930	 3.9650
 4.4970	 3.9730
 4.5010	 3.9540
 4.5050	 3.9230
 4.5090	 3.9120
 4.5130	 3.8830
 4.5170	 3.8890
 4.5210	 3.9070
 4.5250	 3.9100
 4.5290	 3.9070
 4.5330	 3.9050
 4.5370	 3.9270
 4.5410	 3.9580
 4.5450	 3.9600
 4.5490	 3.9110
 4.5530	 3.9030
 4.5570	 3.9420
 4.5610	 3.9310
 4.5650	 3.9260
 4.5690	 3.9240
 4.5730	 3.9520
 4.5770	 3.9510
 4.5810	 3.9240
 4.5850	 3.8890
 4.5890	 3.8630
 4.5930	 3.8570
 4.5970	 3.8730
 4.6010	 3.9050
 4.6050	 3.9240
 4.6090	 3.8890
 4.6130	 3.8780
 4.6170	 3.8710
 4.6220	 3.8690
 4.6260	 3.8570
 4.6300	 3.9030
 4.6340	 3.8920
 4.6380	 3.8570
 4.6420	 3.8670
 4.6460	 3.8670
 4.6510	 3.8270
 4.6550	 3.8210
 4.6590	 3.8670
 4.6630	 3.9250
 4.6670	 3.9030
 4.6720	 3.8660
 4.6760	 3.8480
 4.6800	 3.8800
 4.6840	 3.8840
 4.6880	 3.8820
 4.6930	 3.8240
 4.6970	 3.8250
 4.7010	 3.8390
 4.7050	 3.8560
 4.7100	 3.8670
 4.7140	 3.8840
 4.7180	 3.8610
 4.7230	 3.8490
 4.7270	 3.8470
 4.7310	 3.8340
 4.7360	 3.8370
 4.7400	 3.8700
 4.7440	 3.8350
 4.7490	 3.8300
 4.7530	 3.8510
 4.7570	 3.8780
 4.7620	 3.8490
 4.7660	 3.8480
 4.7700	 3.8650
 4.7750	 3.8700
 4.7790	 3.8830
 4.7840	 3.9220
 4.7880	 3.9220
 4.7920	 3.8850
 4.7970	 3.8610
 4.8010	 3.8770
 4.8060	 3.8410
 4.8100	 3.8570
 4.8150	 3.8560
 4.8190	 3.8480
 4.8240	 3.8460
 4.8280	 3.8680
 4.8330	 3.8300
 4.8370	 3.8150
 4.8420	 3.8370
 4.8460	 3.8210
 4.8510	 3.8110
 4.8550	 3.8390
 4.8600	 3.8550
 4.8640	 3.8940
 4.8690	 3.8820
 4.8740	 3.8650
 4.8780	 3.8630
 4.8830	 3.8880
 4.8870	 3.9080
 4.8920	 3.9250
 4.8970	 3.9020
 4.9010	 3.8490
 4.9060	 3.8490
 4.9100	 3.9040
 4.9150	 3.8990
 4.9200	 3.9080
 4.9240	 3.9110
 4.9290	 3.9040
 4.9340	 3.8790
 4.9390	 3.8630
 4.9430	 3.8910
 4.9480	 3.9450
 4.9530	 3.9250
 4.9570	 3.9300
 4.9620	 3.9620
 4.9670	 3.9520
 4.9720	 3.9190
 4.9760	 3.9240
 4.9810	 3.9230
 4.9860	 3.9410
 4.9910	 3.9440
 4.9960	 3.9520
 5.0000	 3.9310
 5.0050	 3.9090
 5.0100	 3.9120
 5.0150	 3.9350
 5.0200	 3.9290
 5.0250	 3.9450
 5.0300	 3.9220
 5.0340	 3.9480
 5.0390	 3.9750
 5.0440	 3.9510
 5.0490	 3.9370
 5.0540	 4.0130
 5.0590	 4.0240
 5.0640	 4.0220
 5.0690	 4.0020
 5.0740	 3.9780
 5.0790	 3.9490
 5.0840	 3.9390
 5.0890	 3.9520
 5.0940	 3.9800
 5.0990	 3.9530
 5.1040	 3.9770
 5.1090	 3.9860
 5.1140	 3.9940
 5.1190	 4.0060
 5.1240	 4.0130
 5.1290	 4.0090
 5.1340	 3.9980
 5.1390	 3.9830
 5.1440	 3.9600
 5.1490	 3.9340
 5.1550	 3.9910
 5.1600	 3.9960
 5.1650	 4.0030
 5.1700	 4.0270
 5.1750	 4.0380
 5.1800	 4.0000
 5.1850	 3.9830
 5.1910	 3.9910
 5.1960	 4.0160
 5.2010	 3.9970
 5.2060	 4.0170
 5.2110	 3.9560
 5.2170	 3.9450
 5.2220	 3.9950
 5.2270	 4.0490
 5.2330	 4.0300
 5.2380	 3.9970
 5.2430	 3.9900
 5.2480	 4.0040
 5.2540	 4.0200
 5.2590	 4.0360
 5.2640	 4.0240
 5.2700	 4.0530
 5.2750	 4.0350
 5.2800	 4.0270
 5.2860	 4.0080
 5.2910	 3.9920
 5.2970	 3.9990
 5.3020	 4.0500
 5.3080	 4.0300
 5.3130	 4.0270
 5.3180	 3.9940
 5.3240	 3.9980
 5.3290	 4.0330
 5.3350	 4.0430
 5.3400	 4.0060
 5.3460	 3.9680
 5.3510	 3.9100
 5.3570	 3.9600
 5.3620	 4.0020
 5.3680	 4.0160
 5.3740	 3.9670
 5.3790	 3.9610
 5.3850	 3.9440
 5.3900	 3.9410
 5.3960	 3.9010
 5.4010	 3.9110
 5.4070	 3.9130
 5.4130	 3.9050
 5.4180	 3.8540
 5.4240	 3.8450
 5.4300	 3.9000
 5.4350	 3.9510
 5.4410	 3.9460
 5.4470	 3.9520
 5.4530	 3.9310
 5.4580	 3.8600
 5.4640	 3.7880
 5.4700	 3.8250
 5.4760	 3.8320
 5.4810	 3.8370
 5.4870	 3.8300
 5.4930	 3.8370
 5.4990	 3.8070
 5.5050	 3.8110
