Name: Puya venusta
Type: vegetation
Class: Shrub
Genus: Puya
Species: venusta
Sample No.: JPL079
Owner: JPL
Wavelength Range: VSWIR
Origin: 34.12562; - 118.1098; WGS84
Collection Date: 2/2/2016
Description: Samples were collected at the Huntington Garden in San Marino California as part of a JPL Subcontract studying HyTES imagery. Samples were taken to JPL and processed within 48 hours of collection. The same leaves were processed in the Nicolet and then measured using the ASD.
Measurement: Bidirectional reflectance
First Column: X
Second Column: Y
X Units: Wavelength (micrometer)
Y Units: Reflectance (percentage)
First X Value: 0.35
Last X Value: 2.5
Number of X Values: 2151
Additional Information: 

 0.3500	 9.5140
 0.3510	 8.9120
 0.3520	 9.1770
 0.3530	 9.9030
 0.3540	10.4310
 0.3550	10.4540
 0.3560	10.1160
 0.3570	 9.5910
 0.3580	 9.1320
 0.3590	 9.6030
 0.3600	10.2800
 0.3610	10.3570
 0.3620	 9.0230
 0.3630	 8.3560
 0.3640	 8.9850
 0.3650	10.3810
 0.3660	10.1440
 0.3670	 9.6940
 0.3680	 9.5490
 0.3690	 9.5790
 0.3700	10.0760
 0.3710	10.2340
 0.3720	10.0100
 0.3730	11.0060
 0.3740	11.1260
 0.3750	10.9200
 0.3760	11.3160
 0.3770	10.7920
 0.3780	10.6510
 0.3790	11.0340
 0.3800	11.0360
 0.3810	10.9590
 0.3820	11.1650
 0.3830	11.6330
 0.3840	11.4740
 0.3850	11.5200
 0.3860	11.8400
 0.3870	12.2090
 0.3880	12.5790
 0.3890	12.3630
 0.3900	11.8110
 0.3910	12.0180
 0.3920	12.3760
 0.3930	12.5370
 0.3940	12.4510
 0.3950	12.7340
 0.3960	12.9400
 0.3970	13.1440
 0.3980	13.5660
 0.3990	13.5170
 0.4000	13.3530
 0.4010	13.3200
 0.4020	13.3920
 0.4030	13.5890
 0.4040	13.7980
 0.4050	13.9430
 0.4060	14.1260
 0.4070	14.2670
 0.4080	14.3940
 0.4090	14.5820
 0.4100	14.6450
 0.4110	14.7490
 0.4120	14.9790
 0.4130	15.2250
 0.4140	15.3230
 0.4150	15.3870
 0.4160	15.5610
 0.4170	15.6080
 0.4180	15.7160
 0.4190	15.9480
 0.4200	16.2290
 0.4210	16.3900
 0.4220	16.4900
 0.4230	16.6120
 0.4240	16.7640
 0.4250	16.9710
 0.4260	17.1470
 0.4270	17.1960
 0.4280	17.3210
 0.4290	17.4800
 0.4300	17.6240
 0.4310	17.7240
 0.4320	17.8810
 0.4330	18.0330
 0.4340	18.1290
 0.4350	18.3080
 0.4360	18.4000
 0.4370	18.4160
 0.4380	18.4970
 0.4390	18.5310
 0.4400	18.5570
 0.4410	18.5900
 0.4420	18.5230
 0.4430	18.5940
 0.4440	18.7600
 0.4450	18.8730
 0.4460	18.9290
 0.4470	18.9290
 0.4480	18.9170
 0.4490	18.9860
 0.4500	19.1020
 0.4510	19.1680
 0.4520	19.1460
 0.4530	19.2440
 0.4540	19.2790
 0.4550	19.2640
 0.4560	19.3260
 0.4570	19.3300
 0.4580	19.3420
 0.4590	19.3880
 0.4600	19.3610
 0.4610	19.3510
 0.4620	19.3620
 0.4630	19.3850
 0.4640	19.5030
 0.4650	19.5610
 0.4660	19.5260
 0.4670	19.4980
 0.4680	19.4380
 0.4690	19.4060
 0.4700	19.4530
 0.4710	19.5590
 0.4720	19.6030
 0.4730	19.5560
 0.4740	19.4630
 0.4750	19.5410
 0.4760	19.5920
 0.4770	19.5320
 0.4780	19.5250
 0.4790	19.5350
 0.4800	19.5840
 0.4810	19.6690
 0.4820	19.5970
 0.4830	19.5820
 0.4840	19.6630
 0.4850	19.7210
 0.4860	19.7250
 0.4870	19.7310
 0.4880	19.7670
 0.4890	19.7480
 0.4900	19.7500
 0.4910	19.7850
 0.4920	19.8320
 0.4930	19.8640
 0.4940	19.8360
 0.4950	19.7740
 0.4960	19.8040
 0.4970	19.9100
 0.4980	19.9930
 0.4990	19.9830
 0.5000	20.0100
 0.5010	20.0610
 0.5020	20.1110
 0.5030	20.1350
 0.5040	20.2360
 0.5050	20.3580
 0.5060	20.4400
 0.5070	20.4570
 0.5080	20.5560
 0.5090	20.7160
 0.5100	20.8510
 0.5110	20.9950
 0.5120	21.1040
 0.5130	21.1880
 0.5140	21.3340
 0.5150	21.4910
 0.5160	21.6580
 0.5170	21.8360
 0.5180	21.9670
 0.5190	22.1420
 0.5200	22.3450
 0.5210	22.4870
 0.5220	22.6920
 0.5230	22.9010
 0.5240	23.0650
 0.5250	23.2130
 0.5260	23.3610
 0.5270	23.5240
 0.5280	23.7030
 0.5290	23.8440
 0.5300	23.9500
 0.5310	24.0440
 0.5320	24.1620
 0.5330	24.2550
 0.5340	24.3410
 0.5350	24.4370
 0.5360	24.5140
 0.5370	24.5740
 0.5380	24.6310
 0.5390	24.7050
 0.5400	24.8260
 0.5410	24.9850
 0.5420	25.1410
 0.5430	25.2070
 0.5440	25.2440
 0.5450	25.2480
 0.5460	25.2000
 0.5470	25.1120
 0.5480	25.0500
 0.5490	25.0330
 0.5500	25.0150
 0.5510	24.9850
 0.5520	24.9570
 0.5530	24.9470
 0.5540	24.9380
 0.5550	24.8890
 0.5560	24.8200
 0.5570	24.7870
 0.5580	24.7490
 0.5590	24.6740
 0.5600	24.5670
 0.5610	24.5000
 0.5620	24.4360
 0.5630	24.3450
 0.5640	24.2170
 0.5650	24.1230
 0.5660	24.0520
 0.5670	23.9820
 0.5680	23.8850
 0.5690	23.7890
 0.5700	23.6840
 0.5710	23.5670
 0.5720	23.4950
 0.5730	23.4020
 0.5740	23.2820
 0.5750	23.1700
 0.5760	23.0780
 0.5770	23.0020
 0.5780	22.9350
 0.5790	22.8630
 0.5800	22.7740
 0.5810	22.6920
 0.5820	22.6450
 0.5830	22.6240
 0.5840	22.6090
 0.5850	22.5860
 0.5860	22.5530
 0.5870	22.5120
 0.5880	22.4520
 0.5890	22.3730
 0.5900	22.3170
 0.5910	22.2580
 0.5920	22.2070
 0.5930	22.1930
 0.5940	22.1480
 0.5950	22.1210
 0.5960	22.1280
 0.5970	22.0980
 0.5980	22.0690
 0.5990	22.0520
 0.6000	22.0410
 0.6010	22.0110
 0.6020	21.9680
 0.6030	21.9250
 0.6040	21.9030
 0.6050	21.8620
 0.6060	21.7950
 0.6070	21.7120
 0.6080	21.6580
 0.6090	21.6090
 0.6100	21.6100
 0.6110	21.6930
 0.6120	21.6230
 0.6130	21.4810
 0.6140	21.3450
 0.6150	21.2460
 0.6160	21.1680
 0.6170	21.0940
 0.6180	21.0180
 0.6190	20.9700
 0.6200	20.9500
 0.6210	20.9320
 0.6220	20.8770
 0.6230	20.8240
 0.6240	20.7950
 0.6250	20.7860
 0.6260	20.7450
 0.6270	20.7290
 0.6280	20.7310
 0.6290	20.7250
 0.6300	20.6920
 0.6310	20.6790
 0.6320	20.6820
 0.6330	20.6400
 0.6340	20.6160
 0.6350	20.5850
 0.6360	20.5310
 0.6370	20.5170
 0.6380	20.5050
 0.6390	20.4660
 0.6400	20.3910
 0.6410	20.3320
 0.6420	20.2800
 0.6430	20.2260
 0.6440	20.1680
 0.6450	20.0980
 0.6460	20.0280
 0.6470	19.9730
 0.6480	19.9220
 0.6490	19.8800
 0.6500	19.8400
 0.6510	19.7960
 0.6520	19.7730
 0.6530	19.7500
 0.6540	19.7120
 0.6550	19.6720
 0.6560	19.6350
 0.6570	19.5930
 0.6580	19.5330
 0.6590	19.4680
 0.6600	19.4000
 0.6610	19.3390
 0.6620	19.3010
 0.6630	19.2350
 0.6640	19.1590
 0.6650	19.0970
 0.6660	19.0590
 0.6670	19.0240
 0.6680	18.9940
 0.6690	18.9800
 0.6700	18.9430
 0.6710	18.9150
 0.6720	18.9130
 0.6730	18.9170
 0.6740	18.9150
 0.6750	18.9050
 0.6760	18.8950
 0.6770	18.9210
 0.6780	18.9460
 0.6790	18.9630
 0.6800	18.9900
 0.6810	19.0270
 0.6820	19.0770
 0.6830	19.1410
 0.6840	19.2050
 0.6850	19.3100
 0.6860	19.4260
 0.6870	19.5220
 0.6880	19.6740
 0.6890	19.8650
 0.6900	20.0800
 0.6910	20.3170
 0.6920	20.5970
 0.6930	20.9090
 0.6940	21.2560
 0.6950	21.6710
 0.6960	22.0960
 0.6970	22.5390
 0.6980	23.0290
 0.6990	23.5720
 0.7000	24.1270
 0.7010	24.6770
 0.7020	25.2360
 0.7030	25.8220
 0.7040	26.4320
 0.7050	27.0550
 0.7060	27.6670
 0.7070	28.2860
 0.7080	28.9210
 0.7090	29.5750
 0.7100	30.2110
 0.7110	30.8540
 0.7120	31.5170
 0.7130	32.2010
 0.7140	32.8960
 0.7150	33.5940
 0.7160	34.2870
 0.7170	34.9690
 0.7180	35.6790
 0.7190	36.4010
 0.7200	37.1010
 0.7210	37.8100
 0.7220	38.5270
 0.7230	39.2390
 0.7240	39.9210
 0.7250	40.5770
 0.7260	41.2330
 0.7270	41.8910
 0.7280	42.4880
 0.7290	43.0870
 0.7300	43.6780
 0.7310	44.2240
 0.7320	44.7290
 0.7330	45.2210
 0.7340	45.6950
 0.7350	46.1140
 0.7360	46.5260
 0.7370	46.9370
 0.7380	47.3290
 0.7390	47.6380
 0.7400	47.9620
 0.7410	48.2880
 0.7420	48.5640
 0.7430	48.8160
 0.7440	49.0710
 0.7450	49.3120
 0.7460	49.4820
 0.7470	49.6590
 0.7480	49.8330
 0.7490	49.9860
 0.7500	50.1200
 0.7510	50.2400
 0.7520	50.3590
 0.7530	50.4840
 0.7540	50.5670
 0.7550	50.6340
 0.7560	50.6950
 0.7570	50.7430
 0.7580	50.8170
 0.7590	50.8830
 0.7600	50.9270
 0.7610	50.9820
 0.7620	50.9940
 0.7630	50.9990
 0.7640	51.0380
 0.7650	51.0700
 0.7660	51.0950
 0.7670	51.1150
 0.7680	51.1320
 0.7690	51.1530
 0.7700	51.1710
 0.7710	51.1790
 0.7720	51.1710
 0.7730	51.1770
 0.7740	51.1990
 0.7750	51.2270
 0.7760	51.2120
 0.7770	51.2120
 0.7780	51.2280
 0.7790	51.2320
 0.7800	51.2220
 0.7810	51.2190
 0.7820	51.2300
 0.7830	51.2470
 0.7840	51.2730
 0.7850	51.2740
 0.7860	51.2430
 0.7870	51.2400
 0.7880	51.2520
 0.7890	51.2720
 0.7900	51.2880
 0.7910	51.2730
 0.7920	51.2540
 0.7930	51.2570
 0.7940	51.2940
 0.7950	51.2930
 0.7960	51.2810
 0.7970	51.2770
 0.7980	51.2710
 0.7990	51.2630
 0.8000	51.2670
 0.8010	51.2890
 0.8020	51.2950
 0.8030	51.2720
 0.8040	51.2450
 0.8050	51.2440
 0.8060	51.2240
 0.8070	51.2050
 0.8080	51.2000
 0.8090	51.2140
 0.8100	51.2240
 0.8110	51.2130
 0.8120	51.1780
 0.8130	51.1440
 0.8140	51.1460
 0.8150	51.1510
 0.8160	51.1260
 0.8170	51.1060
 0.8180	51.0840
 0.8190	51.0740
 0.8200	51.0850
 0.8210	51.0520
 0.8220	51.0300
 0.8230	51.0200
 0.8240	50.9750
 0.8250	50.9520
 0.8260	50.9290
 0.8270	50.8940
 0.8280	50.8780
 0.8290	50.8310
 0.8300	50.7770
 0.8310	50.7420
 0.8320	50.7000
 0.8330	50.6660
 0.8340	50.6500
 0.8350	50.6500
 0.8360	50.6320
 0.8370	50.5890
 0.8380	50.5470
 0.8390	50.5440
 0.8400	50.5220
 0.8410	50.5110
 0.8420	50.5200
 0.8430	50.5110
 0.8440	50.5320
 0.8450	50.5470
 0.8460	50.5310
 0.8470	50.5230
 0.8480	50.5190
 0.8490	50.5070
 0.8500	50.4830
 0.8510	50.5020
 0.8520	50.5000
 0.8530	50.4770
 0.8540	50.4730
 0.8550	50.4830
 0.8560	50.4790
 0.8570	50.4660
 0.8580	50.4860
 0.8590	50.4710
 0.8600	50.4530
 0.8610	50.4570
 0.8620	50.4730
 0.8630	50.5140
 0.8640	50.5320
 0.8650	50.5000
 0.8660	50.4810
 0.8670	50.4830
 0.8680	50.4870
 0.8690	50.4720
 0.8700	50.4670
 0.8710	50.4670
 0.8720	50.4560
 0.8730	50.4270
 0.8740	50.4510
 0.8750	50.4750
 0.8760	50.4740
 0.8770	50.4670
 0.8780	50.4640
 0.8790	50.4680
 0.8800	50.4700
 0.8810	50.4500
 0.8820	50.4180
 0.8830	50.3910
 0.8840	50.3770
 0.8850	50.3530
 0.8860	50.3590
 0.8870	50.3850
 0.8880	50.4040
 0.8890	50.3830
 0.8900	50.3590
 0.8910	50.3410
 0.8920	50.3230
 0.8930	50.2740
 0.8940	50.2610
 0.8950	50.2870
 0.8960	50.3100
 0.8970	50.3150
 0.8980	50.2960
 0.8990	50.2610
 0.9000	50.2260
 0.9010	50.1890
 0.9020	50.1540
 0.9030	50.1370
 0.9040	50.1640
 0.9050	50.1690
 0.9060	50.1360
 0.9070	50.0950
 0.9080	50.1260
 0.9090	50.0920
 0.9100	50.0410
 0.9110	50.0290
 0.9120	49.9920
 0.9130	49.9740
 0.9140	49.9540
 0.9150	49.9100
 0.9160	49.8920
 0.9170	49.8460
 0.9180	49.7760
 0.9190	49.7150
 0.9200	49.6850
 0.9210	49.5890
 0.9220	49.4860
 0.9230	49.4780
 0.9240	49.3760
 0.9250	49.2680
 0.9260	49.1720
 0.9270	49.0530
 0.9280	48.9580
 0.9290	48.8700
 0.9300	48.7520
 0.9310	48.5730
 0.9320	48.4190
 0.9330	48.2970
 0.9340	48.1940
 0.9350	48.0860
 0.9360	47.9150
 0.9370	47.7120
 0.9380	47.5250
 0.9390	47.3920
 0.9400	47.2640
 0.9410	47.0850
 0.9420	46.8510
 0.9430	46.6440
 0.9440	46.4740
 0.9450	46.2920
 0.9460	46.0620
 0.9470	45.8120
 0.9480	45.5580
 0.9490	45.3040
 0.9500	45.0380
 0.9510	44.7250
 0.9520	44.4350
 0.9530	44.1730
 0.9540	43.9100
 0.9550	43.5700
 0.9560	43.2360
 0.9570	42.9140
 0.9580	42.6190
 0.9590	42.4980
 0.9600	42.3370
 0.9610	42.1540
 0.9620	42.0370
 0.9630	41.9760
 0.9640	41.9290
 0.9650	41.8320
 0.9660	41.6720
 0.9670	41.6350
 0.9680	41.5740
 0.9690	41.5100
 0.9700	41.5160
 0.9710	41.5750
 0.9720	41.5350
 0.9730	41.3990
 0.9740	41.2750
 0.9750	41.3060
 0.9760	41.3800
 0.9770	41.4300
 0.9780	41.4290
 0.9790	41.3570
 0.9800	41.3950
 0.9810	41.4630
 0.9820	41.4170
 0.9830	41.4970
 0.9840	41.5930
 0.9850	41.6420
 0.9860	41.6410
 0.9870	41.6560
 0.9880	41.7480
 0.9890	41.9010
 0.9900	42.0360
 0.9910	42.0150
 0.9920	41.9790
 0.9930	41.9880
 0.9940	42.0480
 0.9950	42.1670
 0.9960	42.3650
 0.9970	42.5130
 0.9980	42.4980
 0.9990	42.5670
 1.0000	42.6290
 1.0010	43.6650
 1.0020	43.7750
 1.0030	43.8280
 1.0040	43.9420
 1.0050	44.0710
 1.0060	44.1820
 1.0070	44.3470
 1.0080	44.4670
 1.0090	44.5590
 1.0100	44.6630
 1.0110	44.7540
 1.0120	44.8580
 1.0130	44.9810
 1.0140	45.0960
 1.0150	45.2170
 1.0160	45.3230
 1.0170	45.4340
 1.0180	45.5230
 1.0190	45.6090
 1.0200	45.6960
 1.0210	45.7880
 1.0220	45.9240
 1.0230	46.0570
 1.0240	46.2370
 1.0250	46.3520
 1.0260	46.4360
 1.0270	46.5350
 1.0280	46.6080
 1.0290	46.7000
 1.0300	46.8070
 1.0310	46.9160
 1.0320	47.0380
 1.0330	47.1370
 1.0340	47.2630
 1.0350	47.3690
 1.0360	47.4400
 1.0370	47.5370
 1.0380	47.6270
 1.0390	47.7170
 1.0400	47.7960
 1.0410	47.8630
 1.0420	47.9440
 1.0430	48.0320
 1.0440	48.0990
 1.0450	48.1580
 1.0460	48.2370
 1.0470	48.3180
 1.0480	48.3810
 1.0490	48.4580
 1.0500	48.5200
 1.0510	48.5530
 1.0520	48.5750
 1.0530	48.6200
 1.0540	48.6860
 1.0550	48.7290
 1.0560	48.7770
 1.0570	48.8010
 1.0580	48.7870
 1.0590	48.8100
 1.0600	48.8390
 1.0610	48.8690
 1.0620	48.9250
 1.0630	48.9650
 1.0640	48.9990
 1.0650	49.0230
 1.0660	49.0470
 1.0670	49.0590
 1.0680	49.0600
 1.0690	49.0380
 1.0700	49.0410
 1.0710	49.0540
 1.0720	49.0450
 1.0730	49.0340
 1.0740	49.0280
 1.0750	49.0130
 1.0760	48.9910
 1.0770	48.9740
 1.0780	48.9530
 1.0790	48.9210
 1.0800	48.8860
 1.0810	48.8540
 1.0820	48.8210
 1.0830	48.7860
 1.0840	48.7390
 1.0850	48.6830
 1.0860	48.6370
 1.0870	48.5840
 1.0880	48.5120
 1.0890	48.4630
 1.0900	48.4370
 1.0910	48.3840
 1.0920	48.3270
 1.0930	48.2670
 1.0940	48.1860
 1.0950	48.1230
 1.0960	48.0640
 1.0970	48.0120
 1.0980	47.9860
 1.0990	47.9320
 1.1000	47.8640
 1.1010	47.8000
 1.1020	47.7300
 1.1030	47.6400
 1.1040	47.5620
 1.1050	47.5060
 1.1060	47.4420
 1.1070	47.3780
 1.1080	47.3080
 1.1090	47.2450
 1.1100	47.1690
 1.1110	47.0840
 1.1120	47.0000
 1.1130	46.9120
 1.1140	46.8250
 1.1150	46.7410
 1.1160	46.6470
 1.1170	46.5690
 1.1180	46.4550
 1.1190	46.3160
 1.1200	46.1650
 1.1210	46.0090
 1.1220	45.8500
 1.1230	45.7000
 1.1240	45.5200
 1.1250	45.3080
 1.1260	45.0650
 1.1270	44.8120
 1.1280	44.5350
 1.1290	44.2410
 1.1300	43.9430
 1.1310	43.6010
 1.1320	43.2220
 1.1330	42.8330
 1.1340	42.4200
 1.1350	41.9850
 1.1360	41.5290
 1.1370	41.0560
 1.1380	40.5570
 1.1390	40.0630
 1.1400	39.5790
 1.1410	39.0920
 1.1420	38.6140
 1.1430	38.1300
 1.1440	37.6570
 1.1450	37.1690
 1.1460	36.7330
 1.1470	36.3090
 1.1480	35.9250
 1.1490	35.5780
 1.1500	35.2540
 1.1510	34.9540
 1.1520	34.6780
 1.1530	34.4290
 1.1540	34.2040
 1.1550	34.0050
 1.1560	33.8240
 1.1570	33.6690
 1.1580	33.5280
 1.1590	33.3980
 1.1600	33.2860
 1.1610	33.1900
 1.1620	33.1060
 1.1630	33.0410
 1.1640	32.9870
 1.1650	32.9330
 1.1660	32.8900
 1.1670	32.8460
 1.1680	32.7990
 1.1690	32.7620
 1.1700	32.7320
 1.1710	32.7050
 1.1720	32.6880
 1.1730	32.6670
 1.1740	32.6460
 1.1750	32.6320
 1.1760	32.6080
 1.1770	32.5790
 1.1780	32.5510
 1.1790	32.5110
 1.1800	32.4730
 1.1810	32.4460
 1.1820	32.4140
 1.1830	32.3910
 1.1840	32.3760
 1.1850	32.3490
 1.1860	32.3320
 1.1870	32.3200
 1.1880	32.2980
 1.1890	32.2650
 1.1900	32.2460
 1.1910	32.2250
 1.1920	32.2110
 1.1930	32.2120
 1.1940	32.2070
 1.1950	32.2010
 1.1960	32.1960
 1.1970	32.1920
 1.1980	32.1880
 1.1990	32.1870
 1.2000	32.1900
 1.2010	32.1930
 1.2020	32.1990
 1.2030	32.2120
 1.2040	32.2260
 1.2050	32.2410
 1.2060	32.2640
 1.2070	32.2910
 1.2080	32.3210
 1.2090	32.3590
 1.2100	32.3990
 1.2110	32.4330
 1.2120	32.4640
 1.2130	32.4940
 1.2140	32.5160
 1.2150	32.5470
 1.2160	32.5810
 1.2170	32.6180
 1.2180	32.6570
 1.2190	32.7010
 1.2200	32.7480
 1.2210	32.7930
 1.2220	32.8360
 1.2230	32.8740
 1.2240	32.9110
 1.2250	32.9570
 1.2260	33.0060
 1.2270	33.0530
 1.2280	33.1050
 1.2290	33.1490
 1.2300	33.1860
 1.2310	33.2310
 1.2320	33.2680
 1.2330	33.3070
 1.2340	33.3470
 1.2350	33.3880
 1.2360	33.4270
 1.2370	33.4660
 1.2380	33.5090
 1.2390	33.5540
 1.2400	33.6000
 1.2410	33.6530
 1.2420	33.7040
 1.2430	33.7420
 1.2440	33.7850
 1.2450	33.8200
 1.2460	33.8440
 1.2470	33.8700
 1.2480	33.8950
 1.2490	33.9220
 1.2500	33.9490
 1.2510	33.9850
 1.2520	34.0260
 1.2530	34.0550
 1.2540	34.0820
 1.2550	34.1010
 1.2560	34.1130
 1.2570	34.1390
 1.2580	34.1640
 1.2590	34.1830
 1.2600	34.2040
 1.2610	34.2140
 1.2620	34.2130
 1.2630	34.2140
 1.2640	34.2200
 1.2650	34.2230
 1.2660	34.2330
 1.2670	34.2290
 1.2680	34.2200
 1.2690	34.2100
 1.2700	34.1910
 1.2710	34.1760
 1.2720	34.1510
 1.2730	34.1200
 1.2740	34.0840
 1.2750	34.0410
 1.2760	34.0010
 1.2770	33.9580
 1.2780	33.9170
 1.2790	33.8730
 1.2800	33.8260
 1.2810	33.7730
 1.2820	33.7100
 1.2830	33.6400
 1.2840	33.5680
 1.2850	33.4900
 1.2860	33.4120
 1.2870	33.3340
 1.2880	33.2590
 1.2890	33.1720
 1.2900	33.0850
 1.2910	32.9840
 1.2920	32.8660
 1.2930	32.7530
 1.2940	32.6370
 1.2950	32.5220
 1.2960	32.4120
 1.2970	32.2920
 1.2980	32.1530
 1.2990	32.0090
 1.3000	31.8680
 1.3010	31.7230
 1.3020	31.5770
 1.3030	31.4110
 1.3040	31.2310
 1.3050	31.0560
 1.3060	30.8730
 1.3070	30.6980
 1.3080	30.5300
 1.3090	30.3510
 1.3100	30.1720
 1.3110	29.9900
 1.3120	29.8090
 1.3130	29.6230
 1.3140	29.4300
 1.3150	29.2370
 1.3160	29.0380
 1.3170	28.8320
 1.3180	28.6190
 1.3190	28.4070
 1.3200	28.1870
 1.3210	27.9610
 1.3220	27.7420
 1.3230	27.5190
 1.3240	27.2960
 1.3250	27.0790
 1.3260	26.8580
 1.3270	26.6440
 1.3280	26.4330
 1.3290	26.2230
 1.3300	26.0160
 1.3310	25.8070
 1.3320	25.5960
 1.3330	25.3890
 1.3340	25.1830
 1.3350	24.9800
 1.3360	24.7840
 1.3370	24.5990
 1.3380	24.4210
 1.3390	24.2410
 1.3400	24.0700
 1.3410	23.9010
 1.3420	23.7300
 1.3430	23.5690
 1.3440	23.4100
 1.3450	23.2500
 1.3460	23.0890
 1.3470	22.9360
 1.3480	22.7820
 1.3490	22.6400
 1.3500	22.5040
 1.3510	22.3790
 1.3520	22.2540
 1.3530	22.1260
 1.3540	22.0030
 1.3550	21.8730
 1.3560	21.7490
 1.3570	21.6310
 1.3580	21.5050
 1.3590	21.3820
 1.3600	21.2570
 1.3610	21.1280
 1.3620	21.0000
 1.3630	20.8630
 1.3640	20.7180
 1.3650	20.5700
 1.3660	20.4150
 1.3670	20.2560
 1.3680	20.0920
 1.3690	19.9180
 1.3700	19.7350
 1.3710	19.5500
 1.3720	19.3550
 1.3730	19.1530
 1.3740	18.9440
 1.3750	18.7270
 1.3760	18.5060
 1.3770	18.2810
 1.3780	18.0490
 1.3790	17.8120
 1.3800	17.5720
 1.3810	17.3280
 1.3820	17.0880
 1.3830	16.8460
 1.3840	16.6140
 1.3850	16.3860
 1.3860	16.1660
 1.3870	15.9530
 1.3880	15.7500
 1.3890	15.5510
 1.3900	15.3650
 1.3910	15.1950
 1.3920	15.0340
 1.3930	14.8820
 1.3940	14.7420
 1.3950	14.6100
 1.3960	14.4850
 1.3970	14.3700
 1.3980	14.2680
 1.3990	14.1750
 1.4000	14.0910
 1.4010	14.0190
 1.4020	13.9470
 1.4030	13.8770
 1.4040	13.8180
 1.4050	13.7610
 1.4060	13.7150
 1.4070	13.6790
 1.4080	13.6450
 1.4090	13.6070
 1.4100	13.5690
 1.4110	13.5310
 1.4120	13.4940
 1.4130	13.4620
 1.4140	13.4350
 1.4150	13.4120
 1.4160	13.3870
 1.4170	13.3650
 1.4180	13.3460
 1.4190	13.3260
 1.4200	13.3100
 1.4210	13.2960
 1.4220	13.2840
 1.4230	13.2750
 1.4240	13.2660
 1.4250	13.2540
 1.4260	13.2390
 1.4270	13.2270
 1.4280	13.2150
 1.4290	13.2030
 1.4300	13.1930
 1.4310	13.1850
 1.4320	13.1740
 1.4330	13.1660
 1.4340	13.1660
 1.4350	13.1590
 1.4360	13.1480
 1.4370	13.1440
 1.4380	13.1350
 1.4390	13.1310
 1.4400	13.1300
 1.4410	13.1280
 1.4420	13.1290
 1.4430	13.1260
 1.4440	13.1210
 1.4450	13.1200
 1.4460	13.1150
 1.4470	13.1100
 1.4480	13.1050
 1.4490	13.0990
 1.4500	13.0950
 1.4510	13.0950
 1.4520	13.0970
 1.4530	13.0980
 1.4540	13.0960
 1.4550	13.0930
 1.4560	13.0910
 1.4570	13.0910
 1.4580	13.0910
 1.4590	13.0920
 1.4600	13.0970
 1.4610	13.0990
 1.4620	13.1000
 1.4630	13.1020
 1.4640	13.1010
 1.4650	13.1040
 1.4660	13.1070
 1.4670	13.1070
 1.4680	13.1120
 1.4690	13.1170
 1.4700	13.1210
 1.4710	13.1310
 1.4720	13.1380
 1.4730	13.1430
 1.4740	13.1500
 1.4750	13.1540
 1.4760	13.1550
 1.4770	13.1580
 1.4780	13.1640
 1.4790	13.1720
 1.4800	13.1860
 1.4810	13.1990
 1.4820	13.2070
