Name: Acer rubrum
Type: Vegetation
Class: Tree
Genus: Acer
Species: rubrum
Sample No.: ACRU-3-23
Owner: UCSB
Wavelength Range: VSWIR
Origin: USA; Massachusetts; Harvard Forest
Collection Date: 7/8/2013
Description: Samples were collected as part of NSF Macrosystem Biology proposal titled: Collaborative Research: Thermal controls on ecosystem metabolism and function: scaling from leaves to canopies to regions. Samples were collected and overnighted to JPL facilities for processing. The same leaves were processed in the Nicolet and then measured using the ASD.
Measurement: Bidirectional reflectance
First Column: X
Second Column: Y
X Units: Wavelength (micrometers)
Y Units: Reflectance (percentage)
First X Value: 0.35
Last X Value: 2.5
Number of X Values: 2151
Additional Information: vegetation.tree.acer.rubrum.vswir.acru-3-23.ucsb.asd.ancillary.txt

 0.3500	 7.9660
 0.3510	 8.0280
 0.3520	 7.9260
 0.3530	 7.7170
 0.3540	 7.5420
 0.3550	 7.6520
 0.3560	 7.5360
 0.3570	 7.4040
 0.3580	 7.7120
 0.3590	 7.5480
 0.3600	 7.4910
 0.3610	 7.6970
 0.3620	 7.5380
 0.3630	 7.4730
 0.3640	 7.5060
 0.3650	 7.5350
 0.3660	 7.5200
 0.3670	 7.5460
 0.3680	 7.5830
 0.3690	 7.5370
 0.3700	 7.5160
 0.3710	 7.5550
 0.3720	 7.6200
 0.3730	 7.5760
 0.3740	 7.4720
 0.3750	 7.4670
 0.3760	 7.6460
 0.3770	 7.5890
 0.3780	 7.4930
 0.3790	 7.4660
 0.3800	 7.5040
 0.3810	 7.4870
 0.3820	 7.3960
 0.3830	 7.3030
 0.3840	 7.4650
 0.3850	 7.4840
 0.3860	 7.4180
 0.3870	 7.4450
 0.3880	 7.3810
 0.3890	 7.3860
 0.3900	 7.4660
 0.3910	 7.4630
 0.3920	 7.4630
 0.3930	 7.4800
 0.3940	 7.5030
 0.3950	 7.5050
 0.3960	 7.4640
 0.3970	 7.4620
 0.3980	 7.5870
 0.3990	 7.6020
 0.4000	 7.5740
 0.4010	 7.5480
 0.4020	 7.4930
 0.4030	 7.4930
 0.4040	 7.5390
 0.4050	 7.5820
 0.4060	 7.5300
 0.4070	 7.5190
 0.4080	 7.5630
 0.4090	 7.5910
 0.4100	 7.5810
 0.4110	 7.5930
 0.4120	 7.6440
 0.4130	 7.6520
 0.4140	 7.6390
 0.4150	 7.6510
 0.4160	 7.7150
 0.4170	 7.7180
 0.4180	 7.7090
 0.4190	 7.7090
 0.4200	 7.7090
 0.4210	 7.7410
 0.4220	 7.7660
 0.4230	 7.7610
 0.4240	 7.7670
 0.4250	 7.7780
 0.4260	 7.7910
 0.4270	 7.8050
 0.4280	 7.7990
 0.4290	 7.8030
 0.4300	 7.8250
 0.4310	 7.8320
 0.4320	 7.8290
 0.4330	 7.8250
 0.4340	 7.8200
 0.4350	 7.7990
 0.4360	 7.7910
 0.4370	 7.8000
 0.4380	 7.8140
 0.4390	 7.8140
 0.4400	 7.8200
 0.4410	 7.8390
 0.4420	 7.8460
 0.4430	 7.8430
 0.4440	 7.8430
 0.4450	 7.8520
 0.4460	 7.8420
 0.4470	 7.8380
 0.4480	 7.8530
 0.4490	 7.8830
 0.4500	 7.8870
 0.4510	 7.8850
 0.4520	 7.8980
 0.4530	 7.8920
 0.4540	 7.8840
 0.4550	 7.8890
 0.4560	 7.9100
 0.4570	 7.9050
 0.4580	 7.9070
 0.4590	 7.9290
 0.4600	 7.9150
 0.4610	 7.9090
 0.4620	 7.9150
 0.4630	 7.9200
 0.4640	 7.9150
 0.4650	 7.9090
 0.4660	 7.9070
 0.4670	 7.9060
 0.4680	 7.9020
 0.4690	 7.9020
 0.4700	 7.9070
 0.4710	 7.9160
 0.4720	 7.9140
 0.4730	 7.9050
 0.4740	 7.9010
 0.4750	 7.8900
 0.4760	 7.8910
 0.4770	 7.9060
 0.4780	 7.9040
 0.4790	 7.9090
 0.4800	 7.9120
 0.4810	 7.9040
 0.4820	 7.9010
 0.4830	 7.9050
 0.4840	 7.9140
 0.4850	 7.9280
 0.4860	 7.9260
 0.4870	 7.9250
 0.4880	 7.9370
 0.4890	 7.9390
 0.4900	 7.9480
 0.4910	 7.9590
 0.4920	 7.9630
 0.4930	 7.9890
 0.4940	 8.0140
 0.4950	 8.0310
 0.4960	 8.0540
 0.4970	 8.0630
 0.4980	 8.0750
 0.4990	 8.1090
 0.5000	 8.1450
 0.5010	 8.1790
 0.5020	 8.2100
 0.5030	 8.2430
 0.5040	 8.2740
 0.5050	 8.3190
 0.5060	 8.3830
 0.5070	 8.4370
 0.5080	 8.4980
 0.5090	 8.5700
 0.5100	 8.6520
 0.5110	 8.7340
 0.5120	 8.8240
 0.5130	 8.9300
 0.5140	 9.0600
 0.5150	 9.1880
 0.5160	 9.3240
 0.5170	 9.4800
 0.5180	 9.6400
 0.5190	 9.8180
 0.5200	10.0090
 0.5210	10.1960
 0.5220	10.3920
 0.5230	10.5950
 0.5240	10.7980
 0.5250	10.9900
 0.5260	11.1820
 0.5270	11.3710
 0.5280	11.5440
 0.5290	11.7050
 0.5300	11.8520
 0.5310	11.9880
 0.5320	12.1190
 0.5330	12.2330
 0.5340	12.3360
 0.5350	12.4310
 0.5360	12.5000
 0.5370	12.5710
 0.5380	12.6380
 0.5390	12.6760
 0.5400	12.7080
 0.5410	12.7390
 0.5420	12.7710
 0.5430	12.8040
 0.5440	12.8380
 0.5450	12.8740
 0.5460	12.9140
 0.5470	12.9570
 0.5480	12.9910
 0.5490	13.0130
 0.5500	13.0330
 0.5510	13.0440
 0.5520	13.0430
 0.5530	13.0300
 0.5540	13.0150
 0.5550	12.9830
 0.5560	12.9300
 0.5570	12.8650
 0.5580	12.7880
 0.5590	12.6970
 0.5600	12.5960
 0.5610	12.4900
 0.5620	12.3780
 0.5630	12.2570
 0.5640	12.1220
 0.5650	11.9880
 0.5660	11.8510
 0.5670	11.7100
 0.5680	11.5700
 0.5690	11.4220
 0.5700	11.2750
 0.5710	11.1400
 0.5720	11.0070
 0.5730	10.8770
 0.5740	10.7550
 0.5750	10.6450
 0.5760	10.5460
 0.5770	10.4570
 0.5780	10.3790
 0.5790	10.3070
 0.5800	10.2380
 0.5810	10.1710
 0.5820	10.1020
 0.5830	10.0410
 0.5840	 9.9790
 0.5850	 9.9160
 0.5860	 9.8590
 0.5870	 9.8140
 0.5880	 9.7750
 0.5890	 9.7350
 0.5900	 9.7000
 0.5910	 9.6680
 0.5920	 9.6370
 0.5930	 9.6030
 0.5940	 9.5800
 0.5950	 9.5610
 0.5960	 9.5410
 0.5970	 9.5220
 0.5980	 9.5040
 0.5990	 9.4850
 0.6000	 9.4650
 0.6010	 9.4430
 0.6020	 9.4160
 0.6030	 9.3870
 0.6040	 9.3580
 0.6050	 9.3250
 0.6060	 9.2870
 0.6070	 9.2440
 0.6080	 9.2050
 0.6090	 9.1560
 0.6100	 9.0960
 0.6110	 9.0350
 0.6120	 8.9980
 0.6130	 8.9660
 0.6140	 8.9270
 0.6150	 8.8920
 0.6160	 8.8560
 0.6170	 8.8250
 0.6180	 8.8000
 0.6190	 8.7640
 0.6200	 8.7330
 0.6210	 8.7090
 0.6220	 8.6860
 0.6230	 8.6710
 0.6240	 8.6590
 0.6250	 8.6460
 0.6260	 8.6340
 0.6270	 8.6250
 0.6280	 8.6180
 0.6290	 8.6120
 0.6300	 8.5990
 0.6310	 8.5890
 0.6320	 8.5830
 0.6330	 8.5760
 0.6340	 8.5590
 0.6350	 8.5350
 0.6360	 8.5110
 0.6370	 8.4910
 0.6380	 8.4630
 0.6390	 8.4260
 0.6400	 8.3860
 0.6410	 8.3510
 0.6420	 8.3150
 0.6430	 8.2770
 0.6440	 8.2430
 0.6450	 8.2110
 0.6460	 8.1790
 0.6470	 8.1490
 0.6480	 8.1270
 0.6490	 8.1080
 0.6500	 8.0870
 0.6510	 8.0670
 0.6520	 8.0540
 0.6530	 8.0470
 0.6540	 8.0400
 0.6550	 8.0250
 0.6560	 8.0110
 0.6570	 7.9990
 0.6580	 7.9850
 0.6590	 7.9710
 0.6600	 7.9540
 0.6610	 7.9380
 0.6620	 7.9270
 0.6630	 7.9130
 0.6640	 7.9000
 0.6650	 7.8910
 0.6660	 7.8830
 0.6670	 7.8800
 0.6680	 7.8850
 0.6690	 7.8970
 0.6700	 7.8990
 0.6710	 7.9050
 0.6720	 7.9200
 0.6730	 7.9340
 0.6740	 7.9510
 0.6750	 7.9710
 0.6760	 7.9970
 0.6770	 8.0290
 0.6780	 8.0590
 0.6790	 8.0900
 0.6800	 8.1250
 0.6810	 8.1620
 0.6820	 8.2010
 0.6830	 8.2470
 0.6840	 8.3000
 0.6850	 8.3520
 0.6860	 8.4050
 0.6870	 8.4650
 0.6880	 8.5420
 0.6890	 8.6320
 0.6900	 8.7410
 0.6910	 8.8780
 0.6920	 9.0520
 0.6930	 9.2690
 0.6940	 9.5370
 0.6950	 9.8730
 0.6960	10.2710
 0.6970	10.7440
 0.6980	11.3020
 0.6990	11.9340
 0.7000	12.6350
 0.7010	13.3990
 0.7020	14.2230
 0.7030	15.0850
 0.7040	15.9900
 0.7050	16.9350
 0.7060	17.8790
 0.7070	18.8440
 0.7080	19.8260
 0.7090	20.8140
 0.7100	21.7990
 0.7110	22.7900
 0.7120	23.7900
 0.7130	24.7840
 0.7140	25.7840
 0.7150	26.7770
 0.7160	27.7510
 0.7170	28.7240
 0.7180	29.6930
 0.7190	30.6490
 0.7200	31.5850
 0.7210	32.5120
 0.7220	33.4250
 0.7230	34.3190
 0.7240	35.1910
 0.7250	36.0320
 0.7260	36.8480
 0.7270	37.6400
 0.7280	38.3950
 0.7290	39.1310
 0.7300	39.8430
 0.7310	40.5150
 0.7320	41.1510
 0.7330	41.7660
 0.7340	42.3550
 0.7350	42.8920
 0.7360	43.4060
 0.7370	43.8960
 0.7380	44.3580
 0.7390	44.8070
 0.7400	45.2130
 0.7410	45.5820
 0.7420	45.9310
 0.7430	46.2530
 0.7440	46.5590
 0.7450	46.8500
 0.7460	47.1160
 0.7470	47.3340
 0.7480	47.5380
 0.7490	47.7440
 0.7500	47.9040
 0.7510	48.0460
 0.7520	48.1890
 0.7530	48.3380
 0.7540	48.4550
 0.7550	48.5630
 0.7560	48.6610
 0.7570	48.7300
 0.7580	48.8070
 0.7590	48.8780
 0.7600	48.9300
 0.7610	48.9750
 0.7620	49.0240
 0.7630	49.0690
 0.7640	49.1020
 0.7650	49.1350
 0.7660	49.1610
 0.7670	49.1840
 0.7680	49.2130
 0.7690	49.2150
 0.7700	49.2120
 0.7710	49.2250
 0.7720	49.2640
 0.7730	49.2690
 0.7740	49.2570
 0.7750	49.2570
 0.7760	49.2640
 0.7770	49.2840
 0.7780	49.3050
 0.7790	49.3070
 0.7800	49.3040
 0.7810	49.2990
 0.7820	49.3000
 0.7830	49.3160
 0.7840	49.3160
 0.7850	49.3210
 0.7860	49.3390
 0.7870	49.3240
 0.7880	49.3100
 0.7890	49.3120
 0.7900	49.3340
 0.7910	49.3400
 0.7920	49.3380
 0.7930	49.3400
 0.7940	49.3510
 0.7950	49.3440
 0.7960	49.3380
 0.7970	49.3380
 0.7980	49.3270
 0.7990	49.3250
 0.8000	49.3210
 0.8010	49.3090
 0.8020	49.3070
 0.8030	49.3160
 0.8040	49.3250
 0.8050	49.3260
 0.8060	49.3180
 0.8070	49.3100
 0.8080	49.3020
 0.8090	49.2900
 0.8100	49.2810
 0.8110	49.2710
 0.8120	49.2620
 0.8130	49.2560
 0.8140	49.2500
 0.8150	49.2420
 0.8160	49.2310
 0.8170	49.2280
 0.8180	49.2230
 0.8190	49.2160
 0.8200	49.2040
 0.8210	49.1870
 0.8220	49.1720
 0.8230	49.1660
 0.8240	49.1700
 0.8250	49.1630
 0.8260	49.1520
 0.8270	49.1410
 0.8280	49.1190
 0.8290	49.1170
 0.8300	49.1140
 0.8310	49.0940
 0.8320	49.0870
 0.8330	49.0760
 0.8340	49.0610
 0.8350	49.0500
 0.8360	49.0610
 0.8370	49.0740
 0.8380	49.0700
 0.8390	49.0410
 0.8400	49.0420
 0.8410	49.0360
 0.8420	49.0140
 0.8430	49.0280
 0.8440	49.0300
 0.8450	49.0090
 0.8460	48.9800
 0.8470	49.0010
 0.8480	49.0050
 0.8490	48.9990
 0.8500	49.0030
 0.8510	49.0010
 0.8520	48.9920
 0.8530	48.9750
 0.8540	48.9480
 0.8550	48.9540
 0.8560	48.9580
 0.8570	48.9530
 0.8580	48.9640
 0.8590	48.9650
 0.8600	48.9730
 0.8610	48.9890
 0.8620	48.9760
 0.8630	48.9630
 0.8640	48.9610
 0.8650	48.9660
 0.8660	48.9550
 0.8670	48.9420
 0.8680	48.9440
 0.8690	48.9640
 0.8700	48.9590
 0.8710	48.9460
 0.8720	48.9420
 0.8730	48.9500
 0.8740	48.9550
 0.8750	48.9570
 0.8760	48.9560
 0.8770	48.9500
 0.8780	48.9490
 0.8790	48.9540
 0.8800	48.9580
 0.8810	48.9440
 0.8820	48.9350
 0.8830	48.9490
 0.8840	48.9720
 0.8850	48.9390
 0.8860	48.9330
 0.8870	48.9390
 0.8880	48.9320
 0.8890	48.9580
 0.8900	48.9600
 0.8910	48.9470
 0.8920	48.9510
 0.8930	48.9650
 0.8940	48.9710
 0.8950	48.9630
 0.8960	48.9490
 0.8970	48.9440
 0.8980	48.9330
 0.8990	48.9210
 0.9000	48.9330
 0.9010	48.9590
 0.9020	48.9660
 0.9030	48.9520
 0.9040	48.9620
 0.9050	48.9630
 0.9060	48.9500
 0.9070	48.9330
 0.9080	48.9380
 0.9090	48.9490
 0.9100	48.9600
 0.9110	48.9630
 0.9120	48.9430
 0.9130	48.9180
 0.9140	48.9110
 0.9150	48.9310
 0.9160	48.9210
 0.9170	48.9130
 0.9180	48.9160
 0.9190	48.9280
 0.9200	48.9290
 0.9210	48.9190
 0.9220	48.9080
 0.9230	48.9090
 0.9240	48.9160
 0.9250	48.9320
 0.9260	48.9340
 0.9270	48.8920
 0.9280	48.8760
 0.9290	48.8670
 0.9300	48.8480
 0.9310	48.8230
 0.9320	48.8480
 0.9330	48.8470
 0.9340	48.7970
 0.9350	48.7620
 0.9360	48.7680
 0.9370	48.7600
 0.9380	48.7220
 0.9390	48.7120
 0.9400	48.7150
 0.9410	48.7080
 0.9420	48.6820
 0.9430	48.6460
 0.9440	48.6330
 0.9450	48.6310
 0.9460	48.6210
 0.9470	48.6080
 0.9480	48.5640
 0.9490	48.5140
 0.9500	48.4850
 0.9510	48.4760
 0.9520	48.4380
 0.9530	48.3940
 0.9540	48.3690
 0.9550	48.3310
 0.9560	48.2920
 0.9570	48.2560
 0.9580	48.2220
 0.9590	48.1810
 0.9600	48.1510
 0.9610	48.1260
 0.9620	48.0970
 0.9630	48.0670
 0.9640	48.0750
 0.9650	48.0780
 0.9660	48.0250
 0.9670	47.9960
 0.9680	47.9740
 0.9690	47.9630
 0.9700	47.9720
 0.9710	47.9620
 0.9720	47.9480
 0.9730	47.9430
 0.9740	47.9540
 0.9750	47.9420
 0.9760	47.9290
 0.9770	47.9230
 0.9780	47.9220
 0.9790	47.9300
 0.9800	47.9120
 0.9810	47.8820
 0.9820	47.8750
 0.9830	47.8780
 0.9840	47.8570
 0.9850	47.8520
 0.9860	47.9020
 0.9870	47.8690
 0.9880	47.8540
 0.9890	47.8860
 0.9900	47.9360
 0.9910	47.9160
 0.9920	47.9650
 0.9930	48.0140
 0.9940	48.0630
 0.9950	48.1110
 0.9960	48.1600
 0.9970	48.2090
 0.9980	48.2580
 0.9990	48.3060
 1.0000	48.3550
 1.0010	48.4040
 1.0020	48.4530
 1.0030	48.5010
 1.0040	48.5500
 1.0050	48.5990
 1.0060	48.6480
 1.0070	48.6960
 1.0080	48.7450
 1.0090	48.7940
 1.0100	48.7940
 1.0110	48.7920
 1.0120	48.7930
 1.0130	48.7980
 1.0140	48.8050
 1.0150	48.8090
 1.0160	48.8200
 1.0170	48.8290
 1.0180	48.8290
 1.0190	48.8270
 1.0200	48.8200
 1.0210	48.8170
 1.0220	48.8260
 1.0230	48.8340
 1.0240	48.8480
 1.0250	48.8550
 1.0260	48.8590
 1.0270	48.8660
 1.0280	48.8720
 1.0290	48.8750
 1.0300	48.8790
 1.0310	48.8840
 1.0320	48.8860
 1.0330	48.8860
 1.0340	48.8860
 1.0350	48.8860
 1.0360	48.8900
 1.0370	48.8920
 1.0380	48.8930
 1.0390	48.8980
 1.0400	48.9000
 1.0410	48.8960
 1.0420	48.8980
 1.0430	48.9090
 1.0440	48.9110
 1.0450	48.9090
 1.0460	48.9110
 1.0470	48.9090
 1.0480	48.9120
 1.0490	48.9260
 1.0500	48.9290
 1.0510	48.9270
 1.0520	48.9240
 1.0530	48.9260
 1.0540	48.9250
 1.0550	48.9280
 1.0560	48.9400
 1.0570	48.9400
 1.0580	48.9300
 1.0590	48.9310
 1.0600	48.9350
 1.0610	48.9360
 1.0620	48.9410
 1.0630	48.9410
 1.0640	48.9300
 1.0650	48.9270
 1.0660	48.9310
 1.0670	48.9290
 1.0680	48.9250
 1.0690	48.9180
 1.0700	48.9170
 1.0710	48.9160
 1.0720	48.9150
 1.0730	48.9230
 1.0740	48.9180
 1.0750	48.9020
 1.0760	48.8960
 1.0770	48.8900
 1.0780	48.8850
 1.0790	48.8870
 1.0800	48.8820
 1.0810	48.8730
 1.0820	48.8650
 1.0830	48.8570
 1.0840	48.8500
 1.0850	48.8480
 1.0860	48.8410
 1.0870	48.8330
 1.0880	48.8240
 1.0890	48.8170
 1.0900	48.8090
 1.0910	48.8000
 1.0920	48.7910
 1.0930	48.7820
 1.0940	48.7720
 1.0950	48.7620
 1.0960	48.7560
 1.0970	48.7470
 1.0980	48.7370
 1.0990	48.7260
 1.1000	48.7130
 1.1010	48.7000
 1.1020	48.6830
 1.1030	48.6710
 1.1040	48.6610
 1.1050	48.6480
 1.1060	48.6370
 1.1070	48.6290
 1.1080	48.6160
 1.1090	48.6010
 1.1100	48.5860
 1.1110	48.5710
 1.1120	48.5540
 1.1130	48.5360
 1.1140	48.5200
 1.1150	48.5070
 1.1160	48.4910
 1.1170	48.4770
 1.1180	48.4590
 1.1190	48.4360
 1.1200	48.4140
 1.1210	48.3910
 1.1220	48.3670
 1.1230	48.3450
 1.1240	48.3190
 1.1250	48.2910
 1.1260	48.2650
 1.1270	48.2310
 1.1280	48.1910
 1.1290	48.1530
 1.1300	48.1140
 1.1310	48.0720
 1.1320	48.0320
 1.1330	47.9830
 1.1340	47.9260
 1.1350	47.8710
 1.1360	47.8130
 1.1370	47.7530
 1.1380	47.6930
 1.1390	47.6270
 1.1400	47.5590
 1.1410	47.4880
 1.1420	47.4150
 1.1430	47.3410
 1.1440	47.2680
 1.1450	47.1940
 1.1460	47.1180
 1.1470	47.0390
 1.1480	46.9670
 1.1490	46.8920
 1.1500	46.8260
 1.1510	46.7680
 1.1520	46.7110
 1.1530	46.6560
 1.1540	46.6060
 1.1550	46.5610
 1.1560	46.5190
 1.1570	46.4830
 1.1580	46.4490
 1.1590	46.4160
 1.1600	46.3900
 1.1610	46.3650
 1.1620	46.3430
 1.1630	46.3250
 1.1640	46.3080
 1.1650	46.2910
 1.1660	46.2750
 1.1670	46.2630
 1.1680	46.2540
 1.1690	46.2450
 1.1700	46.2410
 1.1710	46.2350
 1.1720	46.2260
 1.1730	46.2190
 1.1740	46.2140
 1.1750	46.2100
 1.1760	46.2030
 1.1770	46.1970
 1.1780	46.1920
 1.1790	46.1880
 1.1800	46.1840
 1.1810	46.1740
 1.1820	46.1610
 1.1830	46.1520
 1.1840	46.1410
 1.1850	46.1330
 1.1860	46.1280
 1.1870	46.1200
 1.1880	46.1140
 1.1890	46.1100
 1.1900	46.1050
 1.1910	46.1010
 1.1920	46.0950
 1.1930	46.0850
 1.1940	46.0770
 1.1950	46.0700
 1.1960	46.0630
 1.1970	46.0550
 1.1980	46.0510
 1.1990	46.0510
 1.2000	46.0510
 1.2010	46.0510
 1.2020	46.0530
 1.2030	46.0550
 1.2040	46.0580
 1.2050	46.0590
 1.2060	46.0610
 1.2070	46.0640
 1.2080	46.0680
 1.2090	46.0740
 1.2100	46.0810
 1.2110	46.0890
 1.2120	46.0980
 1.2130	46.1050
 1.2140	46.1130
 1.2150	46.1210
 1.2160	46.1290
 1.2170	46.1330
 1.2180	46.1380
 1.2190	46.1400
 1.2200	46.1450
 1.2210	46.1550
 1.2220	46.1660
 1.2230	46.1800
 1.2240	46.1890
 1.2250	46.1970
 1.2260	46.2040
 1.2270	46.2100
 1.2280	46.2170
 1.2290	46.2230
 1.2300	46.2280
 1.2310	46.2370
 1.2320	46.2480
 1.2330	46.2580
 1.2340	46.2630
 1.2350	46.2670
 1.2360	46.2690
 1.2370	46.2680
 1.2380	46.2680
 1.2390	46.2710
 1.2400	46.2750
 1.2410	46.2750
 1.2420	46.2800
 1.2430	46.2850
 1.2440	46.2880
 1.2450	46.2940
 1.2460	46.2990
 1.2470	46.3020
 1.2480	46.3040
 1.2490	46.3060
 1.2500	46.3100
 1.2510	46.3120
 1.2520	46.3120
 1.2530	46.3090
 1.2540	46.3060
 1.2550	46.3050
 1.2560	46.3050
 1.2570	46.3060
 1.2580	46.3030
 1.2590	46.2990
 1.2600	46.2910
 1.2610	46.2820
 1.2620	46.2710
 1.2630	46.2680
 1.2640	46.2650
 1.2650	46.2580
 1.2660	46.2520
 1.2670	46.2450
 1.2680	46.2350
 1.2690	46.2300
 1.2700	46.2310
 1.2710	46.2240
 1.2720	46.2120
 1.2730	46.2050
 1.2740	46.1960
 1.2750	46.1910
 1.2760	46.1860
 1.2770	46.1750
 1.2780	46.1640
 1.2790	46.1500
 1.2800	46.1380
 1.2810	46.1280
 1.2820	46.1150
 1.2830	46.0990
 1.2840	46.0830
 1.2850	46.0660
 1.2860	46.0510
 1.2870	46.0350
 1.2880	46.0200
 1.2890	46.0050
 1.2900	45.9860
 1.2910	45.9670
 1.2920	45.9510
 1.2930	45.9280
 1.2940	45.9010
 1.2950	45.8780
 1.2960	45.8490
 1.2970	45.8190
 1.2980	45.7910
 1.2990	45.7570
 1.3000	45.7240
 1.3010	45.6900
 1.3020	45.6560
 1.3030	45.6250
 1.3040	45.5880
 1.3050	45.5460
 1.3060	45.5060
 1.3070	45.4630
 1.3080	45.4180
 1.3090	45.3690
 1.3100	45.3170
 1.3110	45.2630
 1.3120	45.2090
 1.3130	45.1570
 1.3140	45.1020
 1.3150	45.0500
 1.3160	44.9890
 1.3170	44.9230
 1.3180	44.8560
 1.3190	44.7900
 1.3200	44.7200
 1.3210	44.6510
 1.3220	44.5810
 1.3230	44.5030
 1.3240	44.4220
 1.3250	44.3450
 1.3260	44.2690
 1.3270	44.1910
 1.3280	44.1130
 1.3290	44.0290
 1.3300	43.9430
 1.3310	43.8570
 1.3320	43.7710
 1.3330	43.6870
 1.3340	43.5970
 1.3350	43.5040
 1.3360	43.4120
 1.3370	43.3190
 1.3380	43.2290
 1.3390	43.1440
 1.3400	43.0580
 1.3410	42.9700
 1.3420	42.8820
 1.3430	42.7910
 1.3440	42.7000
 1.3450	42.6090
 1.3460	42.5180
 1.3470	42.4280
 1.3480	42.3380
 1.3490	42.2490
 1.3500	42.1610
 1.3510	42.0740
 1.3520	41.9860
 1.3530	41.8980
 1.3540	41.8080
 1.3550	41.7170
 1.3560	41.6270
 1.3570	41.5360
 1.3580	41.4480
 1.3590	41.3560
 1.3600	41.2620
 1.3610	41.1640
 1.3620	41.0630
 1.3630	40.9580
 1.3640	40.8490
 1.3650	40.7350
 1.3660	40.6140
 1.3670	40.4890
 1.3680	40.3560
 1.3690	40.2150
 1.3700	40.0660
 1.3710	39.9050
 1.3720	39.7350
 1.3730	39.5530
 1.3740	39.3590
 1.3750	39.1520
 1.3760	38.9250
 1.3770	38.6790
 1.3780	38.4120
 1.3790	38.1280
 1.3800	37.8240
 1.3810	37.4990
 1.3820	37.1550
 1.3830	36.7920
 1.3840	36.4110
 1.3850	36.0120
 1.3860	35.5960
 1.3870	35.1600
 1.3880	34.7130
 1.3890	34.2510
 1.3900	33.7740
 1.3910	33.2900
 1.3920	32.7970
 1.3930	32.2920
 1.3940	31.7840
 1.3950	31.2710
 1.3960	30.7590
 1.3970	30.2530
 1.3980	29.7500
 1.3990	29.2590
 1.4000	28.7770
 1.4010	28.3060
 1.4020	27.8500
 1.4030	27.4040
 1.4040	26.9750
 1.4050	26.5630
 1.4060	26.1690
 1.4070	25.8010
 1.4080	25.4530
 1.4090	25.1210
 1.4100	24.8120
 1.4110	24.5230
 1.4120	24.2510
 1.4130	24.0000
 1.4140	23.7680
 1.4150	23.5560
 1.4160	23.3630
 1.4170	23.1850
 1.4180	23.0230
 1.4190	22.8750
 1.4200	22.7400
 1.4210	22.6200
 1.4220	22.5110
 1.4230	22.4140
 1.4240	22.3250
 1.4250	22.2450
 1.4260	22.1770
 1.4270	22.1140
 1.4280	22.0610
 1.4290	22.0130
 1.4300	21.9720
 1.4310	21.9370
 1.4320	21.9080
 1.4330	21.8850
 1.4340	21.8680
 1.4350	21.8540
 1.4360	21.8450
 1.4370	21.8400
 1.4380	21.8390
 1.4390	21.8420
 1.4400	21.8490
 1.4410	21.8590
 1.4420	21.8700
 1.4430	21.8820
 1.4440	21.8970
 1.4450	21.9150
 1.4460	21.9350
 1.4470	21.9580
 1.4480	21.9850
 1.4490	22.0120
 1.4500	22.0370
 1.4510	22.0640
 1.4520	22.0910
 1.4530	22.1200
 1.4540	22.1520
 1.4550	22.1880
 1.4560	22.2240
 1.4570	22.2640
 1.4580	22.3080
 1.4590	22.3530
 1.4600	22.4040
 1.4610	22.4600
 1.4620	22.5190
 1.4630	22.5860
 1.4640	22.6570
 1.4650	22.7310
 1.4660	22.8120
 1.4670	22.8980
 1.4680	22.9880
 1.4690	23.0850
 1.4700	23.1840
 1.4710	23.2900
 1.4720	23.4010
 1.4730	23.5150
