Name: Pyllostachys vivax
Type: vegetation
Class: Tree
Genus: Pyllostachys
Species: vivax
Sample No.: JPL192
Owner: JPL
Wavelength Range: TIR
Origin: 34.12505; -118.11546; WGS84
Collection Date: 10/3/2016
Description: Samples were collected at the Huntington Garden in San Marino California as part of a JPL Subcontract studying HyTES imagery. Samples were taken to JPL and processed within 48 hours of collection. The same leaves were processed in the Nicolet and then measured using the ASD.
Measurement: Hemispherical reflectance
First Column: X
Second Column: Y
X Units: Wavelength (micrometer)
Y Units: Reflectance (percentage)
First X Value: 2.501
Last X Value: 15.387
Number of X Values: 1737
Additional Information: vegetation.tree.pyllostachys.vivax.tir.jpl192.jpl.nicolet.ancillary.txt

 2.5010	 7.2540
 2.5030	 7.2180
 2.5040	 7.2330
 2.5050	 7.1870
 2.5060	 7.2270
 2.5070	 7.1900
 2.5090	 7.1030
 2.5100	 7.0320
 2.5110	 7.0430
 2.5120	 7.0440
 2.5140	 7.0600
 2.5150	 7.0220
 2.5160	 7.0220
 2.5170	 6.9790
 2.5180	 6.9860
 2.5200	 6.9460
 2.5210	 6.9670
 2.5220	 6.9520
 2.5230	 6.9880
 2.5250	 6.9540
 2.5260	 6.9760
 2.5270	 6.9760
 2.5280	 6.9520
 2.5300	 6.9610
 2.5310	 7.0160
 2.5320	 6.9320
 2.5330	 6.9100
 2.5340	 6.9430
 2.5360	 6.9540
 2.5370	 6.9020
 2.5380	 6.9650
 2.5390	 6.9910
 2.5410	 6.9920
 2.5420	 7.0050
 2.5430	 7.0400
 2.5440	 6.9770
 2.5460	 7.0080
 2.5470	 7.0470
 2.5480	 7.1040
 2.5490	 7.0930
 2.5510	 7.0830
 2.5520	 7.0330
 2.5530	 7.0560
 2.5540	 7.0650
 2.5560	 7.1070
 2.5570	 7.1130
 2.5580	 7.1370
 2.5590	 7.1210
 2.5610	 7.0620
 2.5620	 6.9970
 2.5630	 6.9780
 2.5650	 7.0010
 2.5660	 7.0730
 2.5670	 7.1090
 2.5680	 7.1340
 2.5700	 7.0570
 2.5710	 7.1100
 2.5720	 7.1180
 2.5730	 7.0410
 2.5750	 7.0660
 2.5760	 7.1020
 2.5770	 7.0020
 2.5790	 7.0340
 2.5800	 7.0840
 2.5810	 7.0590
 2.5820	 7.0570
 2.5840	 6.9610
 2.5850	 6.8540
 2.5860	 6.8900
 2.5880	 6.8360
 2.5890	 6.8950
 2.5900	 6.9550
 2.5910	 6.9780
 2.5930	 6.9040
 2.5940	 6.7230
 2.5950	 6.5390
 2.5970	 6.6870
 2.5980	 6.8240
 2.5990	 6.8950
 2.6010	 6.8120
 2.6020	 6.7490
 2.6030	 6.6160
 2.6040	 6.5230
 2.6060	 6.4380
 2.6070	 6.4360
 2.6080	 6.3980
 2.6100	 6.4030
 2.6110	 6.3890
 2.6120	 6.3880
 2.6140	 6.3210
 2.6150	 6.2850
 2.6160	 6.1000
 2.6180	 6.0420
 2.6190	 6.0390
 2.6200	 5.9520
 2.6220	 5.9030
 2.6230	 5.9570
 2.6240	 5.8940
 2.6260	 5.8130
 2.6270	 5.6650
 2.6280	 5.6940
 2.6300	 5.5910
 2.6310	 5.4360
 2.6320	 5.4400
 2.6340	 5.4670
 2.6350	 5.4280
 2.6360	 5.4130
 2.6380	 5.2700
 2.6390	 5.1930
 2.6400	 5.1220
 2.6420	 5.0960
 2.6430	 5.0580
 2.6440	 5.0020
 2.6460	 4.9010
 2.6470	 4.8520
 2.6480	 4.7410
 2.6500	 4.7530
 2.6510	 4.6940
 2.6520	 4.5920
 2.6540	 4.5270
 2.6550	 4.5260
 2.6570	 4.4550
 2.6580	 4.4600
 2.6590	 4.3440
 2.6610	 4.2920
 2.6620	 4.2400
 2.6630	 4.1780
 2.6650	 3.9990
 2.6660	 3.9290
 2.6670	 3.8460
 2.6690	 3.8310
 2.6700	 3.7220
 2.6720	 3.6770
 2.6730	 3.7670
 2.6740	 3.7580
 2.6760	 3.5970
 2.6770	 3.5460
 2.6780	 3.5360
 2.6800	 3.5840
 2.6810	 3.5890
 2.6830	 3.5500
 2.6840	 3.4100
 2.6850	 3.3670
 2.6870	 3.3650
 2.6880	 3.4470
 2.6900	 3.4020
 2.6910	 3.3550
 2.6920	 3.2290
 2.6940	 3.1430
 2.6950	 3.1100
 2.6970	 3.1360
 2.6980	 3.1240
 2.6990	 3.1220
 2.7010	 3.0540
 2.7020	 3.1030
 2.7040	 3.0880
 2.7050	 3.0810
 2.7060	 3.0410
 2.7080	 3.0430
 2.7090	 2.9130
 2.7110	 2.8680
 2.7120	 2.8950
 2.7130	 2.9330
 2.7150	 2.9370
 2.7160	 3.0060
 2.7180	 2.9350
 2.7190	 2.8200
 2.7210	 2.6830
 2.7220	 2.8000
 2.7230	 2.8180
 2.7250	 2.7650
 2.7260	 2.7950
 2.7280	 2.9170
 2.7290	 2.9090
 2.7310	 2.9440
 2.7320	 2.9140
 2.7340	 2.9260
 2.7350	 2.8820
 2.7360	 2.8770
 2.7380	 2.8680
 2.7390	 2.8150
 2.7410	 2.7130
 2.7420	 2.7660
 2.7440	 2.8520
 2.7450	 2.8940
 2.7470	 2.8490
 2.7480	 2.8390
 2.7490	 2.8440
 2.7510	 2.9050
 2.7520	 2.8310
 2.7540	 2.8540
 2.7550	 2.7670
 2.7570	 2.8050
 2.7580	 2.8380
 2.7600	 2.8890
 2.7610	 2.9040
 2.7630	 2.8530
 2.7640	 2.8150
 2.7660	 2.8800
 2.7670	 2.8590
 2.7690	 2.8620
 2.7700	 2.8060
 2.7720	 2.8590
 2.7730	 2.8830
 2.7740	 2.9720
 2.7760	 2.8850
 2.7770	 2.8290
 2.7790	 2.8350
 2.7800	 2.9000
 2.7820	 2.8390
 2.7830	 2.7900
 2.7850	 2.8370
 2.7860	 2.8820
 2.7880	 2.8350
 2.7890	 2.8890
 2.7910	 2.9040
 2.7920	 2.9000
 2.7940	 2.8690
 2.7950	 2.8780
 2.7970	 2.8320
 2.7980	 2.8670
 2.8000	 2.8440
 2.8010	 2.8530
 2.8030	 2.7730
 2.8040	 2.8160
 2.8060	 2.8730
 2.8080	 2.8830
 2.8090	 2.8220
 2.8110	 2.8460
 2.8120	 2.8540
 2.8140	 2.8620
 2.8150	 2.8660
 2.8170	 2.8970
 2.8180	 2.8890
 2.8200	 2.9090
 2.8210	 2.8950
 2.8230	 2.9340
 2.8240	 2.8920
 2.8260	 2.8800
 2.8270	 2.8600
 2.8290	 2.9560
 2.8310	 2.9290
 2.8320	 2.9260
 2.8340	 2.9090
 2.8350	 2.8870
 2.8370	 2.8070
 2.8380	 2.8690
 2.8400	 2.9210
 2.8410	 2.9270
 2.8430	 2.8980
 2.8440	 2.9160
 2.8460	 2.8600
 2.8480	 2.8990
 2.8490	 2.9040
 2.8510	 2.8770
 2.8520	 2.8530
 2.8540	 2.9210
 2.8550	 2.9240
 2.8570	 2.9660
 2.8590	 2.9620
 2.8600	 2.9560
 2.8620	 2.8750
 2.8630	 2.8900
 2.8650	 2.8630
 2.8660	 2.9020
 2.8680	 2.9000
 2.8700	 2.9490
 2.8710	 2.9580
 2.8730	 2.9890
 2.8740	 2.9590
 2.8760	 2.9810
 2.8780	 3.0030
 2.8790	 3.0300
 2.8810	 2.9950
 2.8820	 2.9570
 2.8840	 2.8960
 2.8860	 2.9280
 2.8870	 2.9480
 2.8890	 2.9720
 2.8900	 2.9840
 2.8920	 3.0050
 2.8940	 2.9590
 2.8950	 3.0140
 2.8970	 2.9470
 2.8990	 2.9080
 2.9000	 2.9670
 2.9020	 3.0790
 2.9030	 3.0420
 2.9050	 3.0350
 2.9070	 3.0300
 2.9080	 3.0180
 2.9100	 3.0310
 2.9120	 3.0880
 2.9130	 3.0380
 2.9150	 3.0300
 2.9160	 3.0200
 2.9180	 3.0180
 2.9200	 3.0480
 2.9210	 3.1410
 2.9230	 3.0740
 2.9250	 3.0880
 2.9260	 3.0470
 2.9280	 3.0510
 2.9300	 3.0590
 2.9310	 3.0570
 2.9330	 3.0850
 2.9350	 3.1480
 2.9360	 3.0770
 2.9380	 3.0940
 2.9400	 3.0600
 2.9410	 3.0970
 2.9430	 3.0740
 2.9450	 3.1030
 2.9460	 3.0740
 2.9480	 3.0660
 2.9500	 3.0210
 2.9510	 3.0590
 2.9530	 3.0820
 2.9550	 3.0840
 2.9560	 3.0240
 2.9580	 3.0620
 2.9600	 3.1010
 2.9610	 3.1890
 2.9630	 3.1370
 2.9650	 3.0500
 2.9670	 2.9650
 2.9680	 3.0530
 2.9700	 3.0770
 2.9720	 3.0760
 2.9730	 3.1090
 2.9750	 3.1100
 2.9770	 2.9910
 2.9780	 2.9960
 2.9800	 3.0600
 2.9820	 3.1060
 2.9840	 3.0830
 2.9850	 3.1360
 2.9870	 3.1010
 2.9890	 3.1150
 2.9900	 3.1220
 2.9920	 3.1330
 2.9940	 3.0500
 2.9960	 3.0470
 2.9970	 3.0530
 2.9990	 3.0860
 3.0010	 3.0450
 3.0030	 3.0850
 3.0040	 3.1020
 3.0060	 3.1380
 3.0080	 3.1060
 3.0100	 3.1020
 3.0110	 3.0780
 3.0130	 3.0910
 3.0150	 3.0380
 3.0170	 3.0240
 3.0180	 3.0200
 3.0200	 3.0440
 3.0220	 3.0470
 3.0240	 3.0640
 3.0250	 3.0360
 3.0270	 3.0800
 3.0290	 3.0670
 3.0310	 3.0580
 3.0320	 3.0870
 3.0340	 3.1460
 3.0360	 3.0940
 3.0380	 3.1080
 3.0400	 3.1080
 3.0410	 3.0940
 3.0430	 3.0320
 3.0450	 3.0780
 3.0470	 3.0350
 3.0480	 3.0020
 3.0500	 3.0050
 3.0520	 3.0310
 3.0540	 3.0380
 3.0560	 3.0890
 3.0570	 3.0960
 3.0590	 3.1170
 3.0610	 3.0810
 3.0630	 3.0610
 3.0650	 3.0130
 3.0670	 3.0760
 3.0680	 3.0850
 3.0700	 3.0460
 3.0720	 3.0340
 3.0740	 3.0930
 3.0760	 3.1060
 3.0770	 3.1210
 3.0790	 3.0760
 3.0810	 3.0460
 3.0830	 3.0100
 3.0850	 3.0420
 3.0870	 3.0300
 3.0880	 3.0810
 3.0900	 3.0720
 3.0920	 3.0660
 3.0940	 3.0300
 3.0960	 3.0390
 3.0980	 2.9800
 3.1000	 3.0160
 3.1010	 3.0260
 3.1030	 3.0260
 3.1050	 2.9740
 3.1070	 2.9760
 3.1090	 2.9950
 3.1110	 3.0770
 3.1130	 3.0540
 3.1140	 2.9970
 3.1160	 2.9360
 3.1180	 3.0010
 3.1200	 3.0240
 3.1220	 3.0000
 3.1240	 2.9470
 3.1260	 2.9690
 3.1280	 2.9630
 3.1290	 2.9670
 3.1310	 2.9480
 3.1330	 2.9910
 3.1350	 2.9470
 3.1370	 2.9590
 3.1390	 2.9790
 3.1410	 3.0350
 3.1430	 3.0090
 3.1450	 2.9670
 3.1470	 2.9280
 3.1480	 2.9860
 3.1500	 2.9850
 3.1520	 3.0080
 3.1540	 2.9960
 3.1560	 2.9630
 3.1580	 2.8820
 3.1600	 2.9060
 3.1620	 2.9050
 3.1640	 2.9020
 3.1660	 2.9280
 3.1680	 2.9830
 3.1700	 2.9360
 3.1720	 2.9180
 3.1730	 2.8920
 3.1750	 2.9000
 3.1770	 2.9010
 3.1790	 2.9690
 3.1810	 2.9460
 3.1830	 2.9120
 3.1850	 2.8830
 3.1870	 2.9130
 3.1890	 2.9030
 3.1910	 2.9080
 3.1930	 2.8860
 3.1950	 2.9070
 3.1970	 2.8880
 3.1990	 2.8900
 3.2010	 2.8570
 3.2030	 2.8490
 3.2050	 2.8420
 3.2070	 2.8890
 3.2090	 2.8750
 3.2110	 2.8320
 3.2130	 2.8040
 3.2150	 2.8380
 3.2170	 2.8080
 3.2190	 2.7960
 3.2210	 2.7420
 3.2230	 2.7600
 3.2250	 2.7580
 3.2270	 2.7350
 3.2290	 2.7470
 3.2310	 2.8190
 3.2330	 2.8050
 3.2350	 2.8060
 3.2370	 2.8070
 3.2390	 2.8370
 3.2410	 2.8100
 3.2430	 2.8060
 3.2450	 2.8160
 3.2470	 2.8520
 3.2490	 2.8020
 3.2510	 2.7950
 3.2530	 2.7750
 3.2550	 2.7500
 3.2570	 2.7490
 3.2590	 2.7520
 3.2610	 2.6880
 3.2630	 2.7160
 3.2650	 2.7710
 3.2670	 2.7940
 3.2700	 2.7470
 3.2720	 2.7560
 3.2740	 2.7520
 3.2760	 2.7250
 3.2780	 2.6800
 3.2800	 2.7410
 3.2820	 2.7520
 3.2840	 2.7370
 3.2860	 2.6870
 3.2880	 2.6800
 3.2900	 2.6480
 3.2920	 2.6430
 3.2940	 2.6350
 3.2970	 2.6510
 3.2990	 2.6320
 3.3010	 2.5940
 3.3030	 2.5610
 3.3050	 2.6390
 3.3070	 2.6470
 3.3090	 2.6270
 3.3110	 2.5730
 3.3130	 2.5790
 3.3160	 2.5730
 3.3180	 2.5770
 3.3200	 2.5580
 3.3220	 2.5460
 3.3240	 2.4900
 3.3260	 2.5120
 3.3280	 2.5100
 3.3300	 2.5310
 3.3330	 2.5060
 3.3350	 2.4910
 3.3370	 2.4600
 3.3390	 2.4340
 3.3410	 2.3760
 3.3430	 2.3760
 3.3450	 2.3460
 3.3480	 2.3730
 3.3500	 2.3130
 3.3520	 2.2790
 3.3540	 2.2540
 3.3560	 2.2670
 3.3580	 2.2520
 3.3610	 2.2470
 3.3630	 2.2060
 3.3650	 2.1820
 3.3670	 2.1520
 3.3690	 2.1540
 3.3720	 2.1490
 3.3740	 2.1960
 3.3760	 2.2010
 3.3780	 2.2280
 3.3800	 2.2210
 3.3830	 2.2210
 3.3850	 2.1840
 3.3870	 2.1450
 3.3890	 2.1120
 3.3910	 2.0860
 3.3940	 2.0300
 3.3960	 2.0370
 3.3980	 2.0230
 3.4000	 2.0430
 3.4030	 2.0190
 3.4050	 2.0630
 3.4070	 2.1220
 3.4090	 2.2090
 3.4110	 2.3240
 3.4140	 2.5700
 3.4160	 2.8050
 3.4180	 3.1830
 3.4200	 3.7480
 3.4230	 4.4810
 3.4250	 5.3270
 3.4270	 6.3350
 3.4300	 7.0220
 3.4320	 6.9110
 3.4340	 6.1760
 3.4360	 5.4520
 3.4390	 4.9370
 3.4410	 4.6560
 3.4430	 4.4500
 3.4450	 4.3050
 3.4480	 4.1970
 3.4500	 4.1040
 3.4520	 4.0230
 3.4550	 3.9650
 3.4570	 3.8910
 3.4590	 3.9210
 3.4620	 3.8530
 3.4640	 3.7600
 3.4660	 3.7010
 3.4690	 3.6580
 3.4710	 3.5750
 3.4730	 3.5090
 3.4760	 3.4160
 3.4780	 3.3940
 3.4800	 3.2960
 3.4830	 3.2090
 3.4850	 3.1340
 3.4870	 3.0580
 3.4900	 2.9860
 3.4920	 2.9450
 3.4940	 2.8330
 3.4970	 2.8340
 3.4990	 2.8850
 3.5010	 2.9750
 3.5040	 3.2020
 3.5060	 3.8830
 3.5080	 5.0870
 3.5110	 6.2810
 3.5130	 6.4610
 3.5160	 5.9170
 3.5180	 5.3420
 3.5200	 4.9700
 3.5230	 4.6430
 3.5250	 4.4010
 3.5280	 4.2600
 3.5300	 4.1860
 3.5320	 4.0820
 3.5350	 4.0390
 3.5370	 3.9660
 3.5400	 3.8710
 3.5420	 3.8040
 3.5440	 3.8230
 3.5470	 3.8070
 3.5490	 3.7830
 3.5520	 3.7390
 3.5540	 3.7220
 3.5570	 3.6760
 3.5590	 3.6860
 3.5610	 3.6810
 3.5640	 3.6360
 3.5660	 3.6080
 3.5690	 3.5950
 3.5710	 3.5890
 3.5740	 3.5970
 3.5760	 3.5790
 3.5790	 3.5740
 3.5810	 3.5640
 3.5840	 3.5560
 3.5860	 3.4970
 3.5890	 3.5050
 3.5910	 3.5340
 3.5940	 3.5440
 3.5960	 3.5500
 3.5990	 3.5500
 3.6010	 3.4830
 3.6040	 3.4960
 3.6060	 3.5200
 3.6090	 3.5040
 3.6110	 3.4710
 3.6140	 3.4800
 3.6160	 3.4850
 3.6190	 3.5400
 3.6210	 3.5190
 3.6240	 3.4660
 3.6260	 3.4520
 3.6290	 3.4630
 3.6310	 3.4480
 3.6340	 3.4650
 3.6360	 3.4630
 3.6390	 3.4590
 3.6410	 3.4600
 3.6440	 3.4890
 3.6470	 3.4510
 3.6490	 3.4130
 3.6520	 3.4250
 3.6540	 3.4670
 3.6570	 3.4360
 3.6590	 3.4290
 3.6620	 3.4740
 3.6650	 3.5050
 3.6670	 3.4730
 3.6700	 3.4780
 3.6720	 3.4830
 3.6750	 3.4820
 3.6780	 3.4810
 3.6800	 3.5160
 3.6830	 3.5240
 3.6850	 3.5240
 3.6880	 3.5270
 3.6910	 3.5140
 3.6930	 3.5010
 3.6960	 3.5170
 3.6990	 3.5200
 3.7010	 3.5590
 3.7040	 3.5170
 3.7070	 3.5070
 3.7090	 3.5200
 3.7120	 3.5630
 3.7150	 3.5770
 3.7170	 3.5690
 3.7200	 3.5440
 3.7230	 3.5630
 3.7250	 3.5610
 3.7280	 3.5800
 3.7310	 3.5700
 3.7330	 3.6050
 3.7360	 3.6350
 3.7390	 3.6370
 3.7410	 3.6410
 3.7440	 3.6770
 3.7470	 3.6950
 3.7490	 3.6790
 3.7520	 3.6230
 3.7550	 3.6480
 3.7580	 3.6980
 3.7600	 3.7560
 3.7630	 3.7380
 3.7660	 3.7290
 3.7690	 3.7570
 3.7710	 3.7600
 3.7740	 3.7220
 3.7770	 3.7370
 3.7790	 3.7250
 3.7820	 3.7560
 3.7850	 3.7880
 3.7880	 3.8010
 3.7910	 3.7950
 3.7930	 3.8380
 3.7960	 3.8450
 3.7990	 3.8670
 3.8020	 3.8960
 3.8040	 3.9190
 3.8070	 3.8510
 3.8100	 3.8280
 3.8130	 3.8470
 3.8160	 3.9180
 3.8180	 3.9360
 3.8210	 3.9360
 3.8240	 3.9180
 3.8270	 3.9100
 3.8300	 3.9080
 3.8330	 3.9300
 3.8350	 3.9520
 3.8380	 3.9860
 3.8410	 3.9830
 3.8440	 3.9930
 3.8470	 4.0050
 3.8500	 4.0300
 3.8520	 4.0150
 3.8550	 4.0210
 3.8580	 3.9970
 3.8610	 3.9980
 3.8640	 3.9930
 3.8670	 4.0290
 3.8700	 4.0530
 3.8730	 4.0420
 3.8760	 4.0210
 3.8780	 4.0390
 3.8810	 4.0430
 3.8840	 4.0440
 3.8870	 4.0560
 3.8900	 4.0420
 3.8930	 4.0360
 3.8960	 4.0620
 3.8990	 4.0640
 3.9020	 4.0710
 3.9050	 4.0440
 3.9080	 4.0200
 3.9110	 4.0410
 3.9140	 4.0670
 3.9170	 4.0460
 3.9190	 4.0670
 3.9220	 4.0700
 3.9250	 4.0860
 3.9280	 4.0690
 3.9310	 4.0730
 3.9340	 4.0770
 3.9370	 4.0770
 3.9400	 4.0550
 3.9430	 4.0560
 3.9460	 4.0540
 3.9490	 4.0510
 3.9520	 4.0540
 3.9550	 4.0890
 3.9580	 4.0660
 3.9610	 4.0380
 3.9640	 4.0160
 3.9670	 4.0120
 3.9700	 4.0290
 3.9740	 4.0680
 3.9770	 4.0520
 3.9800	 4.0150
 3.9830	 3.9830
 3.9860	 4.0220
 3.9890	 4.0520
 3.9920	 4.0300
 3.9950	 3.9970
 3.9980	 4.0110
 4.0010	 4.0210
 4.0040	 4.0320
 4.0070	 3.9970
 4.0100	 4.0110
 4.0140	 4.0420
 4.0170	 4.0790
 4.0200	 4.0660
 4.0230	 4.0490
 4.0260	 4.0420
 4.0290	 4.0190
 4.0320	 3.9850
 4.0350	 4.0090
 4.0390	 4.0300
 4.0420	 4.0750
 4.0450	 4.0850
 4.0480	 4.0570
 4.0510	 4.0150
 4.0540	 3.9710
 4.0570	 3.9970
 4.0610	 4.0220
 4.0640	 4.0200
 4.0670	 4.0200
 4.0700	 4.0170
 4.0730	 4.0350
 4.0770	 3.9900
 4.0800	 3.9750
 4.0830	 3.9880
 4.0860	 3.9670
 4.0890	 3.9860
 4.0930	 4.0210
 4.0960	 3.9930
 4.0990	 3.9770
 4.1020	 3.9670
 4.1060	 3.9460
 4.1090	 3.9330
 4.1120	 3.9420
 4.1150	 3.9350
 4.1190	 3.9400
 4.1220	 3.9330
 4.1250	 3.9480
 4.1290	 3.9290
 4.1320	 3.9000
 4.1350	 3.9050
 4.1380	 3.9270
 4.1420	 3.9150
 4.1450	 3.8970
 4.1480	 3.8630
 4.1520	 3.8700
 4.1550	 3.8530
 4.1580	 3.8480
 4.1620	 3.8410
 4.1650	 3.8120
 4.1680	 3.8140
 4.1720	 3.8500
 4.1750	 3.8550
 4.1780	 3.8470
 4.1820	 3.8140
 4.1850	 3.8310
 4.1890	 3.8370
 4.1920	 3.8150
 4.1950	 3.7830
 4.1990	 3.7550
 4.2020	 3.7740
 4.2060	 3.8200
 4.2090	 3.8330
 4.2120	 3.7760
 4.2160	 3.7280
 4.2190	 3.7820
 4.2230	 3.8050
 4.2260	 3.7660
 4.2300	 3.7280
 4.2330	 3.7740
 4.2360	 3.6970
 4.2400	 3.6290
 4.2430	 3.6590
 4.2470	 3.6750
 4.2500	 3.7110
 4.2540	 3.6910
 4.2570	 3.6610
 4.2610	 3.6690
 4.2640	 3.6310
 4.2680	 3.6220
 4.2710	 3.6700
 4.2750	 3.6940
 4.2780	 3.6630
 4.2820	 3.6780
 4.2850	 3.6530
 4.2890	 3.5580
 4.2930	 3.4410
 4.2960	 3.4670
 4.3000	 3.4980
 4.3030	 3.4760
 4.3070	 3.4680
 4.3100	 3.5190
 4.3140	 3.4710
 4.3180	 3.4400
 4.3210	 3.4610
 4.3250	 3.4590
 4.3280	 3.4220
 4.3320	 3.4140
 4.3360	 3.4160
 4.3390	 3.4210
 4.3430	 3.4350
 4.3470	 3.4490
 4.3500	 3.4060
 4.3540	 3.3790
 4.3580	 3.4030
 4.3610	 3.3920
 4.3650	 3.3320
 4.3690	 3.3110
 4.3720	 3.3320
 4.3760	 3.3350
 4.3800	 3.3100
 4.3830	 3.3140
 4.3870	 3.2960
 4.3910	 3.2920
 4.3940	 3.3120
 4.3980	 3.3300
 4.4020	 3.3190
 4.4060	 3.3050
 4.4090	 3.2860
 4.4130	 3.2980
 4.4170	 3.2990
 4.4210	 3.2640
 4.4240	 3.2400
 4.4280	 3.2620
 4.4320	 3.2630
 4.4360	 3.2380
 4.4400	 3.2210
 4.4430	 3.2440
 4.4470	 3.2190
 4.4510	 3.2030
 4.4550	 3.2300
 4.4590	 3.2260
 4.4630	 3.1800
 4.4660	 3.1710
 4.4700	 3.1780
 4.4740	 3.1680
 4.4780	 3.1730
 4.4820	 3.1920
 4.4860	 3.1920
 4.4900	 3.2000
 4.4930	 3.1950
 4.4970	 3.1870
 4.5010	 3.1710
 4.5050	 3.1610
 4.5090	 3.1740
 4.5130	 3.1450
 4.5170	 3.1230
 4.5210	 3.1120
 4.5250	 3.1360
 4.5290	 3.1590
 4.5330	 3.1490
 4.5370	 3.1290
 4.5410	 3.1000
 4.5450	 3.0960
 4.5490	 3.1140
 4.5530	 3.1230
 4.5570	 3.1010
 4.5610	 3.0770
 4.5650	 3.0860
 4.5690	 3.1100
 4.5730	 3.1090
 4.5770	 3.0980
 4.5810	 3.0960
 4.5850	 3.0920
 4.5890	 3.0900
 4.5930	 3.0660
 4.5970	 3.0560
 4.6010	 3.0620
 4.6050	 3.0660
 4.6090	 3.0920
 4.6130	 3.0980
 4.6170	 3.0680
 4.6220	 3.0560
 4.6260	 3.0440
 4.6300	 3.0590
 4.6340	 3.0950
 4.6380	 3.1210
 4.6420	 3.0970
 4.6460	 3.0490
 4.6510	 3.0330
 4.6550	 3.0470
 4.6590	 3.0510
 4.6630	 3.0540
 4.6670	 3.0380
 4.6720	 3.0480
 4.6760	 3.0480
 4.6800	 3.0510
 4.6840	 3.0560
 4.6880	 3.0340
 4.6930	 3.0070
 4.6970	 3.0330
 4.7010	 3.0290
 4.7050	 3.0190
 4.7100	 3.0190
 4.7140	 3.0320
 4.7180	 3.0360
 4.7230	 3.0370
 4.7270	 3.0230
 4.7310	 3.0240
 4.7360	 3.0430
 4.7400	 3.0430
 4.7440	 3.0280
 4.7490	 3.0360
 4.7530	 3.0440
 4.7570	 3.0590
 4.7620	 3.0370
 4.7660	 3.0060
 4.7700	 3.0050
 4.7750	 3.0650
 4.7790	 3.0770
 4.7840	 3.0480
 4.7880	 3.0180
 4.7920	 3.0370
 4.7970	 3.0420
 4.8010	 3.0580
 4.8060	 3.0590
 4.8100	 3.0630
 4.8150	 3.0550
 4.8190	 3.0450
 4.8240	 3.0470
 4.8280	 3.0550
 4.8330	 3.0240
 4.8370	 3.0040
 4.8420	 3.0190
 4.8460	 3.0460
 4.8510	 3.0580
 4.8550	 3.0530
 4.8600	 3.0470
 4.8640	 3.0330
 4.8690	 3.0320
 4.8740	 3.0680
 4.8780	 3.0500
 4.8830	 3.0260
 4.8870	 3.0350
 4.8920	 3.0490
 4.8970	 3.0410
 4.9010	 3.0660
 4.9060	 3.0590
 4.9100	 3.0590
 4.9150	 3.0630
 4.9200	 3.0640
 4.9240	 3.0590
 4.9290	 3.0700
 4.9340	 3.0640
 4.9390	 3.0530
 4.9430	 3.0680
 4.9480	 3.0890
 4.9530	 3.0770
 4.9570	 3.0910
 4.9620	 3.1170
 4.9670	 3.1170
 4.9720	 3.0630
 4.9760	 3.0640
 4.9810	 3.0710
 4.9860	 3.1080
 4.9910	 3.1370
 4.9960	 3.1490
 5.0000	 3.1270
 5.0050	 3.0920
 5.0100	 3.0950
 5.0150	 3.1470
 5.0200	 3.1740
 5.0250	 3.1710
 5.0300	 3.1510
 5.0340	 3.1970
 5.0390	 3.2060
 5.0440	 3.2040
 5.0490	 3.2180
 5.0540	 3.2290
 5.0590	 3.1890
 5.0640	 3.1960
 5.0690	 3.1980
 5.0740	 3.2290
 5.0790	 3.2370
 5.0840	 3.2210
 5.0890	 3.2060
 5.0940	 3.1860
 5.0990	 3.1570
 5.1040	 3.2020
 5.1090	 3.2670
 5.1140	 3.3050
 5.1190	 3.3050
 5.1240	 3.2730
 5.1290	 3.2530
 5.1340	 3.2710
 5.1390	 3.2610
 5.1440	 3.2820
 5.1490	 3.3040
 5.1550	 3.2970
 5.1600	 3.2850
 5.1650	 3.2990
 5.1700	 3.3170
 5.1750	 3.3330
 5.1800	 3.3230
 5.1850	 3.3550
 5.1910	 3.3590
 5.1960	 3.3710
 5.2010	 3.3740
 5.2060	 3.3600
 5.2110	 3.3090
 5.2170	 3.2980
 5.2220	 3.3250
 5.2270	 3.3610
 5.2330	 3.3690
 5.2380	 3.3660
 5.2430	 3.3280
 5.2480	 3.3290
 5.2540	 3.3580
 5.2590	 3.4080
 5.2640	 3.4210
 5.2700	 3.4130
 5.2750	 3.3520
 5.2800	 3.3450
 5.2860	 3.3650
 5.2910	 3.3610
 5.2970	 3.3390
 5.3020	 3.3760
 5.3080	 3.4040
 5.3130	 3.3830
 5.3180	 3.3420
 5.3240	 3.3730
 5.3290	 3.3600
 5.3350	 3.3430
 5.3400	 3.3210
 5.3460	 3.3120
 5.3510	 3.2820
 5.3570	 3.3500
 5.3620	 3.3650
 5.3680	 3.3490
 5.3740	 3.3050
 5.3790	 3.3050
 5.3850	 3.3140
 5.3900	 3.3480
 5.3960	 3.3500
 5.4010	 3.3520
 5.4070	 3.3050
 5.4130	 3.2980
 5.4180	 3.2550
 5.4240	 3.2350
 5.4300	 3.2080
 5.4350	 3.2060
 5.4410	 3.2210
 5.4470	 3.2680
 5.4530	 3.2230
 5.4580	 3.1960
 5.4640	 3.1780
 5.4700	 3.1910
 5.4760	 3.1620
 5.4810	 3.1570
