Name: Arctostaphylos glandulosa 1
Type: vegetation
Class: Shrub
Genus: Arctostaphylos
Species: glandulosa
Sample No.: VH146
Owner: UCSB
Wavelength Range: VSWIR
Origin: 37.0432; -119.304; WGS84
Collection Date: 6/8/2013
Description: Samples were collected as part of the HyspIRI Airborne Campaign. 48 individual plants were sampled in three times in 2013 - spring  summer  and fall. The name of the sample includes a 1  2  or 3 which references a different individual of the species. Samples were taken to JPL and processed within 48 hours of collection. The same leaves were processed in the Nicolet and then measured using the ASD.
Measurement: Bidirectional reflectance
First Column: X
Second Column: Y
X Units: Wavelength (micrometers)
Y Units: Reflectance (percentage)
First X Value: 0.35
Last X Value: 2.5
Number of X Values: 2151
Additional Information: vegetation.shrub.arctostaphylos.glandulosa.vswir.vh146.ucsb.asd.ancillary.txt

 0.3500	 4.0660
 0.3510	 3.7810
 0.3520	 3.7550
 0.3530	 3.7660
 0.3540	 3.6270
 0.3550	 3.8120
 0.3560	 3.7780
 0.3570	 3.6240
 0.3580	 3.7240
 0.3590	 3.7600
 0.3600	 3.7260
 0.3610	 3.6820
 0.3620	 3.7450
 0.3630	 3.6960
 0.3640	 3.6200
 0.3650	 3.6290
 0.3660	 3.5560
 0.3670	 3.5720
 0.3680	 3.6800
 0.3690	 3.7430
 0.3700	 3.6380
 0.3710	 3.6010
 0.3720	 3.7150
 0.3730	 3.6590
 0.3740	 3.6550
 0.3750	 3.6750
 0.3760	 3.6400
 0.3770	 3.6200
 0.3780	 3.6110
 0.3790	 3.6130
 0.3800	 3.6320
 0.3810	 3.6150
 0.3820	 3.5920
 0.3830	 3.5950
 0.3840	 3.6180
 0.3850	 3.6610
 0.3860	 3.7030
 0.3870	 3.7240
 0.3880	 3.7930
 0.3890	 3.7840
 0.3900	 3.7070
 0.3910	 3.7270
 0.3920	 3.7680
 0.3930	 3.8230
 0.3940	 3.8770
 0.3950	 3.9010
 0.3960	 3.9670
 0.3970	 4.0300
 0.3980	 4.0200
 0.3990	 4.0970
 0.4000	 4.1400
 0.4010	 4.1330
 0.4020	 4.2020
 0.4030	 4.2750
 0.4040	 4.3350
 0.4050	 4.3720
 0.4060	 4.3830
 0.4070	 4.4450
 0.4080	 4.5270
 0.4090	 4.5280
 0.4100	 4.5670
 0.4110	 4.6080
 0.4120	 4.6290
 0.4130	 4.6860
 0.4140	 4.7350
 0.4150	 4.7650
 0.4160	 4.7890
 0.4170	 4.8260
 0.4180	 4.8700
 0.4190	 4.9130
 0.4200	 4.9430
 0.4210	 4.9560
 0.4220	 4.9770
 0.4230	 5.0160
 0.4240	 5.0570
 0.4250	 5.0670
 0.4260	 5.0680
 0.4270	 5.0840
 0.4280	 5.0930
 0.4290	 5.1100
 0.4300	 5.1360
 0.4310	 5.1440
 0.4320	 5.1560
 0.4330	 5.1730
 0.4340	 5.1850
 0.4350	 5.2040
 0.4360	 5.2220
 0.4370	 5.2410
 0.4380	 5.2500
 0.4390	 5.2630
 0.4400	 5.2820
 0.4410	 5.3130
 0.4420	 5.3460
 0.4430	 5.3850
 0.4440	 5.4230
 0.4450	 5.4530
 0.4460	 5.5100
 0.4470	 5.5610
 0.4480	 5.5970
 0.4490	 5.6680
 0.4500	 5.7210
 0.4510	 5.7680
 0.4520	 5.8220
 0.4530	 5.8690
 0.4540	 5.9050
 0.4550	 5.9360
 0.4560	 5.9690
 0.4570	 5.9910
 0.4580	 6.0150
 0.4590	 6.0440
 0.4600	 6.0620
 0.4610	 6.0730
 0.4620	 6.0870
 0.4630	 6.1070
 0.4640	 6.1090
 0.4650	 6.1090
 0.4660	 6.1150
 0.4670	 6.1310
 0.4680	 6.1410
 0.4690	 6.1450
 0.4700	 6.1520
 0.4710	 6.1590
 0.4720	 6.1690
 0.4730	 6.1790
 0.4740	 6.1900
 0.4750	 6.2070
 0.4760	 6.2230
 0.4770	 6.2380
 0.4780	 6.2590
 0.4790	 6.2660
 0.4800	 6.2760
 0.4810	 6.3020
 0.4820	 6.3130
 0.4830	 6.3190
 0.4840	 6.3330
 0.4850	 6.3730
 0.4860	 6.4110
 0.4870	 6.4430
 0.4880	 6.4760
 0.4890	 6.5350
 0.4900	 6.5950
 0.4910	 6.6600
 0.4920	 6.7370
 0.4930	 6.8270
 0.4940	 6.9310
 0.4950	 7.0450
 0.4960	 7.1640
 0.4970	 7.3030
 0.4980	 7.4630
 0.4990	 7.6350
 0.5000	 7.8100
 0.5010	 8.0080
 0.5020	 8.2360
 0.5030	 8.4820
 0.5040	 8.7480
 0.5050	 9.0340
 0.5060	 9.3330
 0.5070	 9.6460
 0.5080	 9.9860
 0.5090	10.3480
 0.5100	10.7260
 0.5110	11.1160
 0.5120	11.5270
 0.5130	11.9590
 0.5140	12.3980
 0.5150	12.8400
 0.5160	13.2870
 0.5170	13.7420
 0.5180	14.2050
 0.5190	14.6650
 0.5200	15.1170
 0.5210	15.5560
 0.5220	15.9800
 0.5230	16.3850
 0.5240	16.7710
 0.5250	17.1380
 0.5260	17.4780
 0.5270	17.7900
 0.5280	18.0750
 0.5290	18.3340
 0.5300	18.5720
 0.5310	18.7890
 0.5320	18.9860
 0.5330	19.1600
 0.5340	19.3140
 0.5350	19.4500
 0.5360	19.5720
 0.5370	19.6800
 0.5380	19.7770
 0.5390	19.8640
 0.5400	19.9460
 0.5410	20.0270
 0.5420	20.1070
 0.5430	20.1830
 0.5440	20.2540
 0.5450	20.3220
 0.5460	20.3840
 0.5470	20.4300
 0.5480	20.4740
 0.5490	20.5190
 0.5500	20.5560
 0.5510	20.5870
 0.5520	20.6030
 0.5530	20.5960
 0.5540	20.5710
 0.5550	20.5230
 0.5560	20.4530
 0.5570	20.3610
 0.5580	20.2470
 0.5590	20.1210
 0.5600	19.9860
 0.5610	19.8320
 0.5620	19.6690
 0.5630	19.4960
 0.5640	19.3070
 0.5650	19.1040
 0.5660	18.8960
 0.5670	18.6840
 0.5680	18.4630
 0.5690	18.2260
 0.5700	17.9840
 0.5710	17.7470
 0.5720	17.5120
 0.5730	17.2810
 0.5740	17.0570
 0.5750	16.8450
 0.5760	16.6480
 0.5770	16.4620
 0.5780	16.2830
 0.5790	16.1170
 0.5800	15.9600
 0.5810	15.8130
 0.5820	15.6760
 0.5830	15.5410
 0.5840	15.4110
 0.5850	15.2880
 0.5860	15.1780
 0.5870	15.0720
 0.5880	14.9680
 0.5890	14.8670
 0.5900	14.7730
 0.5910	14.6940
 0.5920	14.6240
 0.5930	14.5580
 0.5940	14.4990
 0.5950	14.4440
 0.5960	14.3930
 0.5970	14.3470
 0.5980	14.2960
 0.5990	14.2430
 0.6000	14.1900
 0.6010	14.1260
 0.6020	14.0550
 0.6030	13.9780
 0.6040	13.8900
 0.6050	13.7930
 0.6060	13.6870
 0.6070	13.5740
 0.6080	13.4500
 0.6090	13.3190
 0.6100	13.1870
 0.6110	13.0570
 0.6120	12.9150
 0.6130	12.7660
 0.6140	12.6160
 0.6150	12.4760
 0.6160	12.3400
 0.6170	12.2090
 0.6180	12.0870
 0.6190	11.9830
 0.6200	11.8900
 0.6210	11.8050
 0.6220	11.7260
 0.6230	11.6620
 0.6240	11.6100
 0.6250	11.5680
 0.6260	11.5310
 0.6270	11.5030
 0.6280	11.4850
 0.6290	11.4720
 0.6300	11.4590
 0.6310	11.4400
 0.6320	11.4120
 0.6330	11.3690
 0.6340	11.3090
 0.6350	11.2330
 0.6360	11.1390
 0.6370	11.0200
 0.6380	10.8820
 0.6390	10.7270
 0.6400	10.5570
 0.6410	10.3740
 0.6420	10.1820
 0.6430	 9.9840
 0.6440	 9.7840
 0.6450	 9.5780
 0.6460	 9.3710
 0.6470	 9.1850
 0.6480	 9.0130
 0.6490	 8.8630
 0.6500	 8.7330
 0.6510	 8.6230
 0.6520	 8.5300
 0.6530	 8.4450
 0.6540	 8.3620
 0.6550	 8.2720
 0.6560	 8.1700
 0.6570	 8.0530
 0.6580	 7.9200
 0.6590	 7.7740
 0.6600	 7.6120
 0.6610	 7.4380
 0.6620	 7.2700
 0.6630	 7.1060
 0.6640	 6.9470
 0.6650	 6.7980
 0.6660	 6.6630
 0.6670	 6.5470
 0.6680	 6.4430
 0.6690	 6.3570
 0.6700	 6.2880
 0.6710	 6.2340
 0.6720	 6.1960
 0.6730	 6.1750
 0.6740	 6.1620
 0.6750	 6.1650
 0.6760	 6.1830
 0.6770	 6.2030
 0.6780	 6.2390
 0.6790	 6.3000
 0.6800	 6.3740
 0.6810	 6.4700
 0.6820	 6.6000
 0.6830	 6.7730
 0.6840	 6.9900
 0.6850	 7.2670
 0.6860	 7.6130
 0.6870	 8.0340
 0.6880	 8.5560
 0.6890	 9.1730
 0.6900	 9.8870
 0.6910	10.6980
 0.6920	11.6060
 0.6930	12.5970
 0.6940	13.6580
 0.6950	14.7790
 0.6960	15.9390
 0.6970	17.1300
 0.6980	18.3490
 0.6990	19.5830
 0.7000	20.8210
 0.7010	22.0540
 0.7020	23.2820
 0.7030	24.4910
 0.7040	25.6810
 0.7050	26.8540
 0.7060	28.0100
 0.7070	29.1470
 0.7080	30.2690
 0.7090	31.3810
 0.7100	32.4770
 0.7110	33.5640
 0.7120	34.6450
 0.7130	35.7200
 0.7140	36.7840
 0.7150	37.8400
 0.7160	38.8870
 0.7170	39.9260
 0.7180	40.9580
 0.7190	41.9810
 0.7200	42.9900
 0.7210	43.9850
 0.7220	44.9670
 0.7230	45.9320
 0.7240	46.8760
 0.7250	47.7890
 0.7260	48.6740
 0.7270	49.5340
 0.7280	50.3690
 0.7290	51.1760
 0.7300	51.9520
 0.7310	52.6920
 0.7320	53.4040
 0.7330	54.0800
 0.7340	54.7190
 0.7350	55.3310
 0.7360	55.9110
 0.7370	56.4570
 0.7380	56.9720
 0.7390	57.4630
 0.7400	57.9210
 0.7410	58.3460
 0.7420	58.7400
 0.7430	59.1110
 0.7440	59.4570
 0.7450	59.7770
 0.7460	60.0660
 0.7470	60.3380
 0.7480	60.5850
 0.7490	60.8060
 0.7500	61.0130
 0.7510	61.2020
 0.7520	61.3690
 0.7530	61.5200
 0.7540	61.6650
 0.7550	61.7930
 0.7560	61.9040
 0.7570	62.0040
 0.7580	62.1000
 0.7590	62.1850
 0.7600	62.2570
 0.7610	62.3300
 0.7620	62.3970
 0.7630	62.4580
 0.7640	62.5150
 0.7650	62.5600
 0.7660	62.6030
 0.7670	62.6440
 0.7680	62.6780
 0.7690	62.7080
 0.7700	62.7330
 0.7710	62.7560
 0.7720	62.7790
 0.7730	62.7990
 0.7740	62.8210
 0.7750	62.8480
 0.7760	62.8640
 0.7770	62.8840
 0.7780	62.9070
 0.7790	62.9240
 0.7800	62.9400
 0.7810	62.9570
 0.7820	62.9760
 0.7830	63.0010
 0.7840	63.0170
 0.7850	63.0280
 0.7860	63.0400
 0.7870	63.0520
 0.7880	63.0690
 0.7890	63.0900
 0.7900	63.1110
 0.7910	63.1230
 0.7920	63.1300
 0.7930	63.1390
 0.7940	63.1560
 0.7950	63.1680
 0.7960	63.1770
 0.7970	63.1850
 0.7980	63.2000
 0.7990	63.2110
 0.8000	63.2200
 0.8010	63.2290
 0.8020	63.2340
 0.8030	63.2410
 0.8040	63.2480
 0.8050	63.2530
 0.8060	63.2500
 0.8070	63.2530
 0.8080	63.2630
 0.8090	63.2680
 0.8100	63.2710
 0.8110	63.2790
 0.8120	63.2930
 0.8130	63.2960
 0.8140	63.2980
 0.8150	63.2980
 0.8160	63.2960
 0.8170	63.3000
 0.8180	63.3080
 0.8190	63.3110
 0.8200	63.3050
 0.8210	63.3070
 0.8220	63.3120
 0.8230	63.3130
 0.8240	63.3110
 0.8250	63.3160
 0.8260	63.3150
 0.8270	63.3050
 0.8280	63.2970
 0.8290	63.2940
 0.8300	63.2880
 0.8310	63.2760
 0.8320	63.2770
 0.8330	63.2750
 0.8340	63.2710
 0.8350	63.2720
 0.8360	63.2750
 0.8370	63.2780
 0.8380	63.2830
 0.8390	63.2930
 0.8400	63.3030
 0.8410	63.3110
 0.8420	63.3160
 0.8430	63.3180
 0.8440	63.3320
 0.8450	63.3420
 0.8460	63.3410
 0.8470	63.3530
 0.8480	63.3680
 0.8490	63.3790
 0.8500	63.3840
 0.8510	63.3940
 0.8520	63.4040
 0.8530	63.4120
 0.8540	63.4180
 0.8550	63.4230
 0.8560	63.4340
 0.8570	63.4480
 0.8580	63.4480
 0.8590	63.4550
 0.8600	63.4660
 0.8610	63.4790
 0.8620	63.4900
 0.8630	63.4910
 0.8640	63.4910
 0.8650	63.4970
 0.8660	63.5020
 0.8670	63.5050
 0.8680	63.5090
 0.8690	63.5170
 0.8700	63.5190
 0.8710	63.5250
 0.8720	63.5300
 0.8730	63.5240
 0.8740	63.5320
 0.8750	63.5350
 0.8760	63.5320
 0.8770	63.5370
 0.8780	63.5430
 0.8790	63.5400
 0.8800	63.5310
 0.8810	63.5310
 0.8820	63.5220
 0.8830	63.5180
 0.8840	63.5250
 0.8850	63.5230
 0.8860	63.5160
 0.8870	63.5100
 0.8880	63.5040
 0.8890	63.4870
 0.8900	63.4810
 0.8910	63.4820
 0.8920	63.4720
 0.8930	63.4560
 0.8940	63.4410
 0.8950	63.4300
 0.8960	63.4200
 0.8970	63.4090
 0.8980	63.3990
 0.8990	63.3880
 0.9000	63.3720
 0.9010	63.3650
 0.9020	63.3640
 0.9030	63.3600
 0.9040	63.3420
 0.9050	63.3250
 0.9060	63.3100
 0.9070	63.2940
 0.9080	63.2700
 0.9090	63.2570
 0.9100	63.2440
 0.9110	63.2210
 0.9120	63.1970
 0.9130	63.1840
 0.9140	63.1700
 0.9150	63.1410
 0.9160	63.1180
 0.9170	63.0990
 0.9180	63.0780
 0.9190	63.0490
 0.9200	63.0280
 0.9210	63.0060
 0.9220	62.9790
 0.9230	62.9500
 0.9240	62.9240
 0.9250	62.8870
 0.9260	62.8370
 0.9270	62.7870
 0.9280	62.7530
 0.9290	62.7200
 0.9300	62.6710
 0.9310	62.6000
 0.9320	62.5520
 0.9330	62.5000
 0.9340	62.4340
 0.9350	62.3720
 0.9360	62.3060
 0.9370	62.2420
 0.9380	62.1760
 0.9390	62.0900
 0.9400	62.0220
 0.9410	61.9540
 0.9420	61.8690
 0.9430	61.7680
 0.9440	61.6680
 0.9450	61.5700
 0.9460	61.4640
 0.9470	61.3290
 0.9480	61.1920
 0.9490	61.0510
 0.9500	60.8990
 0.9510	60.7320
 0.9520	60.5750
 0.9530	60.4150
 0.9540	60.2330
 0.9550	60.0470
 0.9560	59.8670
 0.9570	59.7070
 0.9580	59.5690
 0.9590	59.4330
 0.9600	59.3080
 0.9610	59.1950
 0.9620	59.0950
 0.9630	59.0010
 0.9640	58.9070
 0.9650	58.8270
 0.9660	58.7690
 0.9670	58.7070
 0.9680	58.6530
 0.9690	58.6040
 0.9700	58.5520
 0.9710	58.5030
 0.9720	58.4720
 0.9730	58.4450
 0.9740	58.4070
 0.9750	58.3860
 0.9760	58.3490
 0.9770	58.3120
 0.9780	58.3060
 0.9790	58.3100
 0.9800	58.3160
 0.9810	58.3190
 0.9820	58.3180
 0.9830	58.2980
 0.9840	58.3130
 0.9850	58.3530
 0.9860	58.3780
 0.9870	58.4110
 0.9880	58.4460
 0.9890	58.4790
 0.9900	58.5100
 0.9910	58.5480
 0.9920	58.6080
 0.9930	58.6720
 0.9940	58.7120
 0.9950	58.7440
 0.9960	58.7830
 0.9970	58.8380
 0.9980	58.9100
 0.9990	58.9520
 1.0000	59.0010
 1.0010	58.9780
 1.0020	59.0250
 1.0030	59.0850
 1.0040	59.1510
 1.0050	59.2180
 1.0060	59.2810
 1.0070	59.3460
 1.0080	59.4130
 1.0090	59.4790
 1.0100	59.5470
 1.0110	59.6160
 1.0120	59.6880
 1.0130	59.7640
 1.0140	59.8370
 1.0150	59.9150
 1.0160	59.9850
 1.0170	60.0500
 1.0180	60.1130
 1.0190	60.1790
 1.0200	60.2490
 1.0210	60.3180
 1.0220	60.3830
 1.0230	60.4480
 1.0240	60.5070
 1.0250	60.5700
 1.0260	60.6340
 1.0270	60.6980
 1.0280	60.7640
 1.0290	60.8290
 1.0300	60.9010
 1.0310	60.9640
 1.0320	61.0210
 1.0330	61.0810
 1.0340	61.1440
 1.0350	61.1980
 1.0360	61.2540
 1.0370	61.3100
 1.0380	61.3620
 1.0390	61.4080
 1.0400	61.4580
 1.0410	61.5110
 1.0420	61.5620
 1.0430	61.6130
 1.0440	61.6590
 1.0450	61.7040
 1.0460	61.7470
 1.0470	61.7870
 1.0480	61.8270
 1.0490	61.8650
 1.0500	61.9040
 1.0510	61.9420
 1.0520	61.9820
 1.0530	62.0200
 1.0540	62.0610
 1.0550	62.0950
 1.0560	62.1230
 1.0570	62.1520
 1.0580	62.1790
 1.0590	62.2040
 1.0600	62.2330
 1.0610	62.2550
 1.0620	62.2680
 1.0630	62.2880
 1.0640	62.3090
 1.0650	62.3290
 1.0660	62.3540
 1.0670	62.3750
 1.0680	62.3930
 1.0690	62.4110
 1.0700	62.4210
 1.0710	62.4260
 1.0720	62.4320
 1.0730	62.4320
 1.0740	62.4340
 1.0750	62.4390
 1.0760	62.4400
 1.0770	62.4390
 1.0780	62.4370
 1.0790	62.4340
 1.0800	62.4280
 1.0810	62.4180
 1.0820	62.4110
 1.0830	62.4060
 1.0840	62.3970
 1.0850	62.3860
 1.0860	62.3750
 1.0870	62.3600
 1.0880	62.3420
 1.0890	62.3240
 1.0900	62.3090
 1.0910	62.2850
 1.0920	62.2570
 1.0930	62.2290
 1.0940	62.1950
 1.0950	62.1640
 1.0960	62.1340
 1.0970	62.1040
 1.0980	62.0760
 1.0990	62.0450
 1.1000	62.0140
 1.1010	61.9810
 1.1020	61.9470
 1.1030	61.9100
 1.1040	61.8730
 1.1050	61.8340
 1.1060	61.7940
 1.1070	61.7540
 1.1080	61.7120
 1.1090	61.6670
 1.1100	61.6220
 1.1110	61.5780
 1.1120	61.5280
 1.1130	61.4780
 1.1140	61.4240
 1.1150	61.3640
 1.1160	61.3020
 1.1170	61.2410
 1.1180	61.1700
 1.1190	61.0950
 1.1200	61.0130
 1.1210	60.9240
 1.1220	60.8250
 1.1230	60.7170
 1.1240	60.5990
 1.1250	60.4660
 1.1260	60.3230
 1.1270	60.1610
 1.1280	59.9860
 1.1290	59.7940
 1.1300	59.5850
 1.1310	59.3620
 1.1320	59.1240
 1.1330	58.8700
 1.1340	58.6000
 1.1350	58.3140
 1.1360	58.0110
 1.1370	57.6950
 1.1380	57.3660
 1.1390	57.0300
 1.1400	56.6830
 1.1410	56.3340
 1.1420	55.9860
 1.1430	55.6340
 1.1440	55.2890
 1.1450	54.9430
 1.1460	54.6110
 1.1470	54.2820
 1.1480	53.9690
 1.1490	53.6650
 1.1500	53.3790
 1.1510	53.1000
 1.1520	52.8430
 1.1530	52.6040
 1.1540	52.3820
 1.1550	52.1770
 1.1560	51.9880
 1.1570	51.8160
 1.1580	51.6570
 1.1590	51.5100
 1.1600	51.3770
 1.1610	51.2560
 1.1620	51.1450
 1.1630	51.0440
 1.1640	50.9510
 1.1650	50.8650
 1.1660	50.7890
 1.1670	50.7160
 1.1680	50.6500
 1.1690	50.5850
 1.1700	50.5260
 1.1710	50.4640
 1.1720	50.4040
 1.1730	50.3460
 1.1740	50.2900
 1.1750	50.2320
 1.1760	50.1730
 1.1770	50.1170
 1.1780	50.0560
 1.1790	49.9940
 1.1800	49.9350
 1.1810	49.8720
 1.1820	49.8080
 1.1830	49.7440
 1.1840	49.6790
 1.1850	49.6120
 1.1860	49.5490
 1.1870	49.4870
 1.1880	49.4280
 1.1890	49.3720
 1.1900	49.3180
 1.1910	49.2650
 1.1920	49.2160
 1.1930	49.1690
 1.1940	49.1270
 1.1950	49.0860
 1.1960	49.0540
 1.1970	49.0260
 1.1980	49.0040
 1.1990	48.9920
 1.2000	48.9810
 1.2010	48.9760
 1.2020	48.9760
 1.2030	48.9820
 1.2040	48.9960
 1.2050	49.0170
 1.2060	49.0410
 1.2070	49.0720
 1.2080	49.1100
 1.2090	49.1530
 1.2100	49.2010
 1.2110	49.2550
 1.2120	49.3150
 1.2130	49.3790
 1.2140	49.4490
 1.2150	49.5230
 1.2160	49.6040
 1.2170	49.6830
 1.2180	49.7670
 1.2190	49.8540
 1.2200	49.9420
 1.2210	50.0340
 1.2220	50.1260
 1.2230	50.2160
 1.2240	50.3070
 1.2250	50.3970
 1.2260	50.4830
 1.2270	50.5700
 1.2280	50.6550
 1.2290	50.7370
 1.2300	50.8160
 1.2310	50.8940
 1.2320	50.9710
 1.2330	51.0440
 1.2340	51.1140
 1.2350	51.1820
 1.2360	51.2490
 1.2370	51.3120
 1.2380	51.3760
 1.2390	51.4410
 1.2400	51.5000
 1.2410	51.5570
 1.2420	51.6110
 1.2430	51.6620
 1.2440	51.7140
 1.2450	51.7620
 1.2460	51.8080
 1.2470	51.8540
 1.2480	51.8970
 1.2490	51.9410
 1.2500	51.9830
 1.2510	52.0230
 1.2520	52.0610
 1.2530	52.0960
 1.2540	52.1290
 1.2550	52.1600
 1.2560	52.1880
 1.2570	52.2150
 1.2580	52.2400
 1.2590	52.2640
 1.2600	52.2870
 1.2610	52.3070
 1.2620	52.3260
 1.2630	52.3410
 1.2640	52.3530
 1.2650	52.3630
 1.2660	52.3720
 1.2670	52.3820
 1.2680	52.3870
 1.2690	52.3870
 1.2700	52.3880
 1.2710	52.3870
 1.2720	52.3820
 1.2730	52.3790
 1.2740	52.3720
 1.2750	52.3610
 1.2760	52.3480
 1.2770	52.3330
 1.2780	52.3140
 1.2790	52.2890
 1.2800	52.2640
 1.2810	52.2380
 1.2820	52.2090
 1.2830	52.1770
 1.2840	52.1420
 1.2850	52.1040
 1.2860	52.0610
 1.2870	52.0160
 1.2880	51.9700
 1.2890	51.9190
 1.2900	51.8620
 1.2910	51.8040
 1.2920	51.7420
 1.2930	51.6730
 1.2940	51.6020
 1.2950	51.5260
 1.2960	51.4440
 1.2970	51.3550
 1.2980	51.2620
 1.2990	51.1650
 1.3000	51.0650
 1.3010	50.9630
 1.3020	50.8560
 1.3030	50.7420
 1.3040	50.6230
 1.3050	50.5000
 1.3060	50.3720
 1.3070	50.2400
 1.3080	50.1030
 1.3090	49.9590
 1.3100	49.8100
 1.3110	49.6540
 1.3120	49.4920
 1.3130	49.3270
 1.3140	49.1560
 1.3150	48.9800
 1.3160	48.8000
 1.3170	48.6160
 1.3180	48.4280
 1.3190	48.2330
 1.3200	48.0340
 1.3210	47.8290
 1.3220	47.6190
 1.3230	47.4080
 1.3240	47.1950
 1.3250	46.9790
 1.3260	46.7580
 1.3270	46.5330
 1.3280	46.3040
 1.3290	46.0730
 1.3300	45.8420
 1.3310	45.6100
 1.3320	45.3780
 1.3330	45.1460
 1.3340	44.9170
 1.3350	44.6870
 1.3360	44.4600
 1.3370	44.2320
 1.3380	44.0050
 1.3390	43.7800
 1.3400	43.5570
 1.3410	43.3400
 1.3420	43.1250
 1.3430	42.9130
 1.3440	42.7070
 1.3450	42.5040
 1.3460	42.3050
 1.3470	42.1090
 1.3480	41.9130
 1.3490	41.7230
 1.3500	41.5360
 1.3510	41.3510
 1.3520	41.1690
 1.3530	40.9900
 1.3540	40.8110
 1.3550	40.6320
 1.3560	40.4540
 1.3570	40.2760
 1.3580	40.0970
 1.3590	39.9150
 1.3600	39.7290
 1.3610	39.5370
 1.3620	39.3410
 1.3630	39.1390
 1.3640	38.9310
 1.3650	38.7160
 1.3660	38.4940
 1.3670	38.2620
 1.3680	38.0200
 1.3690	37.7670
 1.3700	37.4970
 1.3710	37.2150
 1.3720	36.9210
 1.3730	36.6080
 1.3740	36.2810
 1.3750	35.9380
 1.3760	35.5730
 1.3770	35.1850
 1.3780	34.7750
 1.3790	34.3440
 1.3800	33.8930
 1.3810	33.4190
 1.3820	32.9300
 1.3830	32.4230
 1.3840	31.9020
 1.3850	31.3630
 1.3860	30.8170
 1.3870	30.2540
 1.3880	29.6920
 1.3890	29.1240
 1.3900	28.5510
 1.3910	27.9830
 1.3920	27.4130
 1.3930	26.8440
 1.3940	26.2830
 1.3950	25.7230
 1.3960	25.1770
 1.3970	24.6440
 1.3980	24.1210
 1.3990	23.6220
 1.4000	23.1360
 1.4010	22.6610
 1.4020	22.2080
 1.4030	21.7680
 1.4040	21.3470
 1.4050	20.9480
 1.4060	20.5650
 1.4070	20.2050
 1.4080	19.8630
 1.4090	19.5370
 1.4100	19.2300
 1.4110	18.9400
 1.4120	18.6650
 1.4130	18.4090
 1.4140	18.1690
 1.4150	17.9440
 1.4160	17.7340
 1.4170	17.5360
 1.4180	17.3510
 1.4190	17.1780
 1.4200	17.0150
 1.4210	16.8630
 1.4220	16.7210
 1.4230	16.5890
 1.4240	16.4670
 1.4250	16.3530
 1.4260	16.2490
 1.4270	16.1510
 1.4280	16.0600
 1.4290	15.9750
 1.4300	15.8980
 1.4310	15.8280
 1.4320	15.7650
 1.4330	15.7070
 1.4340	15.6550
 1.4350	15.6070
 1.4360	15.5640
 1.4370	15.5270
 1.4380	15.4950
 1.4390	15.4660
 1.4400	15.4410
 1.4410	15.4210
 1.4420	15.4020
 1.4430	15.3880
 1.4440	15.3770
 1.4450	15.3700
 1.4460	15.3650
 1.4470	15.3610
 1.4480	15.3600
 1.4490	15.3610
 1.4500	15.3640
 1.4510	15.3690
 1.4520	15.3760
 1.4530	15.3850
 1.4540	15.3960
 1.4550	15.4090
 1.4560	15.4240
 1.4570	15.4420
 1.4580	15.4630
 1.4590	15.4860
 1.4600	15.5140
 1.4610	15.5450
 1.4620	15.5790
 1.4630	15.6180
 1.4640	15.6600
 1.4650	15.7040
 1.4660	15.7520
 1.4670	15.8050
 1.4680	15.8620
 1.4690	15.9240
