Name: Quercus agrifolia 1
Type: vegetation
Class: Tree
Genus: Quercus
Species: agrifolia
Sample No.: VH076
Owner: UCSB
Wavelength Range: TIR
Origin: 34.7153; -120.0601; WGS84
Collection Date: 4/21/2013
Description: Samples were collected as part of the HyspIRI Airborne Campaign. 48 individual plants were sampled in three times in 2013 - spring  summer  and fall. The name of the sample includes a 1  2  or 3 which references a different individual of the species. Samples were taken to JPL and processed within 48 hours of collection. The same leaves were processed in the Nicolet and then measured using the ASD.
Measurement: Hemispherical reflectance
First Column: X
Second Column: Y
X Units: Wavelength (micrometers)
Y Units: Reflectance (percentage)
First X Value: 2.501
Last X Value: 15.387
Number of X Values: 1737
Additional Information: vegetation.tree.quercus.agrifolia.tir.vh076.ucsb.nicolet.ancillary.txt

 2.5010	 6.0960
 2.5030	 6.2020
 2.5040	 6.2770
 2.5050	 6.2830
 2.5060	 6.1410
 2.5070	 6.1000
 2.5090	 6.2950
 2.5100	 6.2270
 2.5110	 6.1490
 2.5120	 6.1980
 2.5140	 6.1810
 2.5150	 6.1390
 2.5160	 6.1770
 2.5170	 6.1460
 2.5180	 6.1240
 2.5200	 6.0310
 2.5210	 6.1410
 2.5220	 6.1780
 2.5230	 6.2010
 2.5250	 6.1260
 2.5260	 6.1010
 2.5270	 6.0760
 2.5280	 6.0980
 2.5290	 6.1080
 2.5310	 6.1550
 2.5320	 6.0470
 2.5330	 6.0300
 2.5340	 6.0050
 2.5360	 6.0260
 2.5370	 5.9100
 2.5380	 5.9000
 2.5390	 5.9840
 2.5410	 6.1740
 2.5420	 6.1680
 2.5430	 6.2080
 2.5440	 6.2700
 2.5460	 6.2080
 2.5470	 6.0540
 2.5480	 6.0820
 2.5490	 6.1820
 2.5510	 6.1470
 2.5520	 6.0900
 2.5530	 6.1600
 2.5540	 6.0240
 2.5560	 5.9890
 2.5570	 6.0900
 2.5580	 6.2650
 2.5590	 6.2300
 2.5610	 6.1630
 2.5620	 6.1270
 2.5630	 6.0850
 2.5640	 5.9670
 2.5660	 6.0190
 2.5670	 6.0360
 2.5680	 6.0170
 2.5700	 5.9670
 2.5710	 6.0750
 2.5720	 6.1870
 2.5730	 6.2270
 2.5750	 6.1530
 2.5760	 6.0760
 2.5770	 5.9940
 2.5790	 6.1390
 2.5800	 6.1870
 2.5810	 6.1450
 2.5820	 6.0040
 2.5840	 5.9820
 2.5850	 6.0070
 2.5860	 6.0710
 2.5880	 6.0240
 2.5890	 5.9710
 2.5900	 6.0290
 2.5910	 6.0800
 2.5930	 5.9680
 2.5940	 5.9770
 2.5950	 5.9680
 2.5970	 6.0310
 2.5980	 6.0660
 2.5990	 6.1000
 2.6000	 6.0630
 2.6020	 6.0580
 2.6030	 5.9390
 2.6040	 5.9430
 2.6060	 5.9400
 2.6070	 5.9070
 2.6080	 5.9250
 2.6100	 6.0170
 2.6110	 5.9690
 2.6120	 5.9330
 2.6140	 5.9070
 2.6150	 5.9720
 2.6160	 5.9760
 2.6180	 5.9610
 2.6190	 5.8890
 2.6200	 5.9610
 2.6220	 5.9160
 2.6230	 5.8490
 2.6240	 5.8750
 2.6260	 5.9430
 2.6270	 5.7450
 2.6280	 5.7350
 2.6300	 5.7980
 2.6310	 5.7540
 2.6320	 5.6130
 2.6340	 5.6560
 2.6350	 5.6360
 2.6360	 5.6900
 2.6380	 5.7140
 2.6390	 5.7140
 2.6400	 5.6900
 2.6420	 5.7820
 2.6430	 5.7030
 2.6440	 5.5900
 2.6460	 5.5260
 2.6470	 5.5500
 2.6480	 5.6680
 2.6500	 5.7970
 2.6510	 5.7080
 2.6520	 5.6910
 2.6540	 5.5880
 2.6550	 5.5080
 2.6560	 5.5130
 2.6580	 5.5240
 2.6590	 5.4650
 2.6610	 5.4550
 2.6620	 5.4890
 2.6630	 5.5350
 2.6650	 5.5270
 2.6660	 5.6500
 2.6670	 5.5940
 2.6690	 5.4990
 2.6700	 5.5410
 2.6720	 5.6450
 2.6730	 5.6360
 2.6740	 5.7000
 2.6760	 5.6310
 2.6770	 5.5910
 2.6780	 5.5520
 2.6800	 5.5670
 2.6810	 5.6040
 2.6830	 5.6750
 2.6840	 5.5610
 2.6850	 5.4680
 2.6870	 5.3270
 2.6880	 5.3770
 2.6900	 5.4790
 2.6910	 5.6080
 2.6920	 5.5920
 2.6940	 5.5700
 2.6950	 5.4270
 2.6970	 5.4320
 2.6980	 5.4270
 2.6990	 5.4210
 2.7010	 5.3780
 2.7020	 5.4330
 2.7040	 5.3930
 2.7050	 5.4420
 2.7060	 5.4470
 2.7080	 5.4750
 2.7090	 5.4290
 2.7110	 5.5030
 2.7120	 5.5470
 2.7130	 5.5590
 2.7150	 5.4820
 2.7160	 5.4310
 2.7180	 5.3290
 2.7190	 5.4300
 2.7210	 5.4750
 2.7220	 5.4460
 2.7230	 5.3140
 2.7250	 5.3480
 2.7260	 5.4400
 2.7280	 5.4110
 2.7290	 5.3550
 2.7310	 5.4380
 2.7320	 5.4230
 2.7330	 5.3810
 2.7350	 5.3310
 2.7360	 5.3480
 2.7380	 5.3400
 2.7390	 5.4150
 2.7410	 5.4220
 2.7420	 5.4630
 2.7440	 5.3370
 2.7450	 5.2620
 2.7470	 5.3560
 2.7480	 5.4810
 2.7490	 5.4160
 2.7510	 5.4650
 2.7520	 5.4750
 2.7540	 5.4710
 2.7550	 5.3370
 2.7570	 5.3010
 2.7580	 5.2810
 2.7600	 5.4430
 2.7610	 5.5970
 2.7630	 5.6390
 2.7640	 5.3580
 2.7660	 5.2320
 2.7670	 5.3020
 2.7680	 5.4030
 2.7700	 5.3580
 2.7710	 5.3070
 2.7730	 5.3450
 2.7740	 5.5150
 2.7760	 5.5380
 2.7770	 5.5610
 2.7790	 5.4840
 2.7800	 5.4640
 2.7820	 5.3940
 2.7830	 5.4260
 2.7850	 5.4290
 2.7860	 5.4920
 2.7880	 5.4250
 2.7890	 5.4360
 2.7910	 5.4210
 2.7920	 5.4070
 2.7940	 5.4300
 2.7950	 5.4970
 2.7970	 5.3930
 2.7980	 5.3720
 2.8000	 5.3650
 2.8010	 5.4120
 2.8030	 5.4580
 2.8040	 5.5240
 2.8060	 5.4190
 2.8070	 5.4860
 2.8090	 5.5440
 2.8110	 5.5850
 2.8120	 5.4970
 2.8140	 5.4230
 2.8150	 5.4280
 2.8170	 5.4890
 2.8180	 5.4210
 2.8200	 5.5080
 2.8210	 5.4400
 2.8230	 5.4290
 2.8240	 5.4920
 2.8260	 5.6020
 2.8270	 5.5230
 2.8290	 5.5260
 2.8300	 5.5040
 2.8320	 5.5650
 2.8340	 5.5250
 2.8350	 5.4910
 2.8370	 5.5010
 2.8380	 5.5570
 2.8400	 5.5490
 2.8410	 5.5650
 2.8430	 5.4750
 2.8440	 5.5140
 2.8460	 5.5490
 2.8480	 5.5800
 2.8490	 5.5180
 2.8510	 5.6760
 2.8520	 5.6720
 2.8540	 5.6080
 2.8550	 5.5100
 2.8570	 5.5500
 2.8590	 5.5040
 2.8600	 5.4760
 2.8620	 5.4050
 2.8630	 5.4940
 2.8650	 5.4380
 2.8660	 5.4460
 2.8680	 5.4320
 2.8700	 5.5300
 2.8710	 5.4980
 2.8730	 5.5090
 2.8740	 5.4740
 2.8760	 5.5500
 2.8780	 5.4940
 2.8790	 5.4440
 2.8810	 5.4550
 2.8820	 5.4360
 2.8840	 5.3920
 2.8860	 5.5720
 2.8870	 5.5420
 2.8890	 5.4360
 2.8900	 5.4780
 2.8920	 5.6200
 2.8940	 5.5560
 2.8950	 5.6580
 2.8970	 5.6100
 2.8980	 5.5440
 2.9000	 5.5370
 2.9020	 5.5330
 2.9030	 5.3550
 2.9050	 5.4140
 2.9070	 5.5710
 2.9080	 5.6840
 2.9100	 5.5840
 2.9120	 5.4620
 2.9130	 5.4130
 2.9150	 5.5390
 2.9160	 5.5560
 2.9180	 5.5320
 2.9200	 5.5020
 2.9210	 5.5380
 2.9230	 5.4450
 2.9250	 5.4220
 2.9260	 5.4260
 2.9280	 5.4810
 2.9300	 5.5190
 2.9310	 5.6260
 2.9330	 5.6260
 2.9350	 5.5420
 2.9360	 5.4080
 2.9380	 5.4460
 2.9400	 5.5030
 2.9410	 5.5290
 2.9430	 5.5510
 2.9450	 5.5640
 2.9460	 5.5000
 2.9480	 5.5620
 2.9500	 5.4400
 2.9510	 5.4030
 2.9530	 5.2470
 2.9550	 5.3130
 2.9560	 5.4160
 2.9580	 5.4810
 2.9600	 5.4430
 2.9610	 5.5080
 2.9630	 5.3290
 2.9650	 5.4440
 2.9660	 5.7290
 2.9680	 5.5860
 2.9700	 5.4990
 2.9720	 5.6680
 2.9730	 5.5210
 2.9750	 5.3500
 2.9770	 5.1130
 2.9780	 5.1430
 2.9800	 5.3330
 2.9820	 5.5830
 2.9840	 5.7800
 2.9850	 5.6760
 2.9870	 5.5210
 2.9890	 5.5600
 2.9900	 5.5790
 2.9920	 5.7940
 2.9940	 5.7710
 2.9960	 5.7430
 2.9970	 5.7560
 2.9990	 5.9370
 3.0010	 5.6900
 3.0030	 5.4450
 3.0040	 5.4730
 3.0060	 5.5990
 3.0080	 5.6180
 3.0100	 5.7280
 3.0110	 5.7110
 3.0130	 5.3870
 3.0150	 5.2600
 3.0170	 5.6160
 3.0180	 5.7250
 3.0200	 5.8420
 3.0220	 5.7530
 3.0240	 5.5510
 3.0250	 5.5190
 3.0270	 5.5040
 3.0290	 5.5200
 3.0310	 5.5750
 3.0320	 5.5720
 3.0340	 5.4700
 3.0360	 5.4150
 3.0380	 6.0260
 3.0400	 6.1030
 3.0410	 5.7440
 3.0430	 5.7230
 3.0450	 5.9410
 3.0470	 5.2620
 3.0480	 4.8610
 3.0500	 5.3170
 3.0520	 5.5500
 3.0540	 5.2930
 3.0560	 5.2400
 3.0570	 5.2000
 3.0590	 4.9580
 3.0610	 5.2720
 3.0630	 5.8330
 3.0650	 5.4460
 3.0660	 5.1070
 3.0680	 5.1870
 3.0700	 5.3740
 3.0720	 5.3520
 3.0740	 5.3350
 3.0760	 5.3410
 3.0770	 5.3700
 3.0790	 5.3880
 3.0810	 5.4420
 3.0830	 5.3520
 3.0850	 5.2570
 3.0870	 5.3020
 3.0880	 5.4170
 3.0900	 5.2990
 3.0920	 5.3000
 3.0940	 5.4180
 3.0960	 5.4290
 3.0980	 5.4040
 3.0990	 5.4800
 3.1010	 5.3600
 3.1030	 5.3850
 3.1050	 5.4600
 3.1070	 5.3950
 3.1090	 5.3420
 3.1110	 5.2910
 3.1120	 5.2410
 3.1140	 5.3230
 3.1160	 5.3940
 3.1180	 5.5470
 3.1200	 5.5030
 3.1220	 5.4440
 3.1240	 5.3820
 3.1260	 5.4330
 3.1270	 5.4330
 3.1290	 5.4070
 3.1310	 5.2590
 3.1330	 5.2700
 3.1350	 5.3490
 3.1370	 5.3250
 3.1390	 5.2990
 3.1410	 5.3050
 3.1430	 5.4160
 3.1450	 5.7650
 3.1460	 5.7300
 3.1480	 5.4780
 3.1500	 5.3320
 3.1520	 5.2150
 3.1540	 5.0760
 3.1560	 5.1270
 3.1580	 5.1090
 3.1600	 5.1560
 3.1620	 5.0960
 3.1640	 5.1370
 3.1660	 5.4440
 3.1680	 5.4860
 3.1700	 5.1250
 3.1710	 4.7260
 3.1730	 4.8220
 3.1750	 5.1600
 3.1770	 5.2510
 3.1790	 5.0990
 3.1810	 5.0430
 3.1830	 5.0320
 3.1850	 4.9740
 3.1870	 5.0660
 3.1890	 5.2290
 3.1910	 5.2980
 3.1930	 5.2400
 3.1950	 5.2370
 3.1970	 5.2930
 3.1990	 5.3470
 3.2010	 5.2800
 3.2030	 5.3190
 3.2050	 5.2290
 3.2070	 5.2770
 3.2090	 5.1940
 3.2110	 5.1860
 3.2130	 5.2220
 3.2150	 5.2790
 3.2170	 5.2290
 3.2190	 5.2590
 3.2210	 5.2440
 3.2230	 5.2990
 3.2250	 5.1930
 3.2270	 5.1120
 3.2290	 5.0520
 3.2310	 5.1060
 3.2330	 5.1650
 3.2350	 5.1850
 3.2370	 5.1250
 3.2390	 5.1430
 3.2410	 5.2070
 3.2430	 5.1930
 3.2450	 5.1210
 3.2470	 5.1720
 3.2490	 5.2300
 3.2510	 5.1510
 3.2530	 5.0420
 3.2550	 5.1340
 3.2570	 5.1350
 3.2590	 5.1290
 3.2610	 5.0680
 3.2630	 5.1560
 3.2650	 5.1750
 3.2670	 5.1380
 3.2690	 5.1420
 3.2720	 5.1870
 3.2740	 5.1020
 3.2760	 5.1170
 3.2780	 5.0880
 3.2800	 5.0380
 3.2820	 5.0030
 3.2840	 5.0640
 3.2860	 5.0460
 3.2880	 5.0580
 3.2900	 4.9920
 3.2920	 5.0460
 3.2940	 5.0270
 3.2960	 5.0420
 3.2990	 5.0260
 3.3010	 5.0520
 3.3030	 5.0660
 3.3050	 5.0440
 3.3070	 5.0140
 3.3090	 5.0790
 3.3110	 5.0150
 3.3130	 4.9550
 3.3150	 4.9650
 3.3180	 5.0480
 3.3200	 4.9840
 3.3220	 5.0170
 3.3240	 4.9770
 3.3260	 5.0240
 3.3280	 5.0050
 3.3300	 4.9060
 3.3330	 4.8100
 3.3350	 4.9100
 3.3370	 5.0030
 3.3390	 4.9870
 3.3410	 4.8700
 3.3430	 4.9130
 3.3450	 4.8680
 3.3480	 4.8640
 3.3500	 4.7730
 3.3520	 4.7370
 3.3540	 4.8060
 3.3560	 4.8380
 3.3580	 4.7920
 3.3610	 4.7860
 3.3630	 4.7020
 3.3650	 4.6610
 3.3670	 4.6050
 3.3690	 4.7210
 3.3720	 4.6980
 3.3740	 4.7110
 3.3760	 4.6750
 3.3780	 4.7100
 3.3800	 4.7070
 3.3830	 4.6990
 3.3850	 4.6010
 3.3870	 4.6390
 3.3890	 4.6060
 3.3910	 4.5830
 3.3940	 4.6160
 3.3960	 4.7220
 3.3980	 4.6260
 3.4000	 4.4840
 3.4020	 4.4230
 3.4050	 4.3600
 3.4070	 4.3570
 3.4090	 4.4840
 3.4110	 4.6050
 3.4140	 4.7580
 3.4160	 4.8920
 3.4180	 5.2270
 3.4200	 5.7080
 3.4230	 6.5000
 3.4250	 7.4580
 3.4270	 8.5250
 3.4290	 9.1530
 3.4320	 9.0230
 3.4340	 8.3980
 3.4360	 7.8390
 3.4390	 7.3870
 3.4410	 7.0670
 3.4430	 6.8290
 3.4450	 6.7430
 3.4480	 6.5930
 3.4500	 6.4970
 3.4520	 6.5530
 3.4550	 6.4880
 3.4570	 6.3210
 3.4590	 6.3620
 3.4620	 6.2880
 3.4640	 6.1690
 3.4660	 6.1040
 3.4680	 6.0770
 3.4710	 6.0220
 3.4730	 6.0400
 3.4750	 5.9210
 3.4780	 5.7830
 3.4800	 5.7100
 3.4820	 5.6600
 3.4850	 5.6420
 3.4870	 5.6380
 3.4890	 5.5410
 3.4920	 5.4340
 3.4940	 5.3100
 3.4970	 5.2780
 3.4990	 5.2180
 3.5010	 5.2720
 3.5040	 5.4330
 3.5060	 6.0120
 3.5080	 7.1750
 3.5110	 8.3480
 3.5130	 8.5660
 3.5160	 8.0930
 3.5180	 7.6040
 3.5200	 7.2180
 3.5230	 6.8630
 3.5250	 6.6810
 3.5270	 6.5710
 3.5300	 6.4920
 3.5320	 6.3880
 3.5350	 6.3020
 3.5370	 6.2080
 3.5400	 6.2010
 3.5420	 6.2180
 3.5440	 6.2220
 3.5470	 6.1150
 3.5490	 6.0590
 3.5520	 6.0110
 3.5540	 6.1160
 3.5570	 6.1250
 3.5590	 6.0530
 3.5610	 5.9440
 3.5640	 5.9540
 3.5660	 5.9040
 3.5690	 5.8600
 3.5710	 5.9220
 3.5740	 5.9810
 3.5760	 5.8980
 3.5790	 5.8590
 3.5810	 5.8340
 3.5840	 5.8230
 3.5860	 5.7810
 3.5890	 5.7940
 3.5910	 5.8010
 3.5930	 5.8370
 3.5960	 5.8230
 3.5980	 5.8320
 3.6010	 5.7110
 3.6030	 5.7010
 3.6060	 5.7980
 3.6080	 5.8530
 3.6110	 5.7740
 3.6140	 5.7680
 3.6160	 5.7780
 3.6190	 5.8180
 3.6210	 5.7690
 3.6240	 5.7810
 3.6260	 5.7660
 3.6290	 5.6730
 3.6310	 5.6380
 3.6340	 5.6740
 3.6360	 5.6460
 3.6390	 5.6660
 3.6410	 5.6820
 3.6440	 5.6890
 3.6470	 5.6470
 3.6490	 5.6380
 3.6520	 5.6630
 3.6540	 5.7030
 3.6570	 5.6180
 3.6590	 5.5760
 3.6620	 5.5450
 3.6650	 5.6310
 3.6670	 5.6860
 3.6700	 5.6810
 3.6720	 5.6420
 3.6750	 5.6330
 3.6780	 5.6390
 3.6800	 5.6240
 3.6830	 5.5850
 3.6850	 5.6360
 3.6880	 5.5680
 3.6910	 5.5260
 3.6930	 5.5490
 3.6960	 5.5890
 3.6990	 5.5600
 3.7010	 5.5910
 3.7040	 5.6050
 3.7060	 5.6060
 3.7090	 5.5690
 3.7120	 5.5910
 3.7140	 5.5810
 3.7170	 5.6110
 3.7200	 5.6320
 3.7220	 5.6580
 3.7250	 5.6440
 3.7280	 5.6350
 3.7300	 5.6210
 3.7330	 5.6520
 3.7360	 5.6420
 3.7390	 5.6670
 3.7410	 5.6250
 3.7440	 5.5910
 3.7470	 5.5960
 3.7490	 5.5970
 3.7520	 5.5690
 3.7550	 5.5640
 3.7580	 5.5150
 3.7600	 5.5630
 3.7630	 5.5760
 3.7660	 5.5650
 3.7680	 5.5140
 3.7710	 5.5520
 3.7740	 5.6140
 3.7770	 5.6470
 3.7790	 5.6460
 3.7820	 5.7000
 3.7850	 5.6460
 3.7880	 5.6290
 3.7900	 5.5630
 3.7930	 5.5330
 3.7960	 5.5920
 3.7990	 5.6840
 3.8020	 5.6100
 3.8040	 5.5480
 3.8070	 5.5960
 3.8100	 5.6120
 3.8130	 5.5750
 3.8160	 5.6430
 3.8180	 5.6200
 3.8210	 5.6000
 3.8240	 5.5900
 3.8270	 5.6210
 3.8300	 5.6380
 3.8330	 5.5610
 3.8350	 5.4930
 3.8380	 5.5080
 3.8410	 5.5150
 3.8440	 5.5530
 3.8470	 5.5670
 3.8500	 5.6350
 3.8520	 5.6120
 3.8550	 5.6350
 3.8580	 5.6280
 3.8610	 5.6010
 3.8640	 5.6130
 3.8670	 5.6200
 3.8700	 5.5920
 3.8730	 5.6190
 3.8750	 5.6380
 3.8780	 5.5850
 3.8810	 5.5210
 3.8840	 5.5420
 3.8870	 5.5030
 3.8900	 5.4430
 3.8930	 5.4780
 3.8960	 5.5510
 3.8990	 5.5450
 3.9020	 5.5940
 3.9050	 5.6000
 3.9080	 5.5940
 3.9110	 5.5380
 3.9140	 5.5460
 3.9160	 5.5780
 3.9190	 5.5450
 3.9220	 5.4720
 3.9250	 5.5220
 3.9280	 5.5510
 3.9310	 5.6060
 3.9340	 5.5970
 3.9370	 5.5970
 3.9400	 5.5690
 3.9430	 5.5720
 3.9460	 5.5780
 3.9490	 5.5510
 3.9520	 5.5590
 3.9550	 5.5960
 3.9580	 5.5890
 3.9610	 5.6030
 3.9640	 5.5970
 3.9670	 5.6290
 3.9700	 5.6100
 3.9730	 5.5610
 3.9770	 5.5510
 3.9800	 5.5610
 3.9830	 5.5520
 3.9860	 5.6090
 3.9890	 5.5640
 3.9920	 5.5610
 3.9950	 5.5800
 3.9980	 5.5640
 4.0010	 5.5200
 4.0040	 5.5200
 4.0070	 5.5180
 4.0100	 5.5100
 4.0130	 5.5350
 4.0170	 5.5870
 4.0200	 5.5540
 4.0230	 5.5120
 4.0260	 5.5150
 4.0290	 5.5130
 4.0320	 5.4890
 4.0350	 5.4860
 4.0380	 5.5020
 4.0420	 5.5290
 4.0450	 5.5390
 4.0480	 5.5620
 4.0510	 5.5820
 4.0540	 5.6030
 4.0570	 5.5760
 4.0610	 5.5270
 4.0640	 5.5340
 4.0670	 5.5830
 4.0700	 5.5430
 4.0730	 5.5000
 4.0770	 5.4780
 4.0800	 5.5100
 4.0830	 5.5230
 4.0860	 5.5190
 4.0890	 5.5510
 4.0930	 5.5760
 4.0960	 5.5960
 4.0990	 5.5910
 4.1020	 5.5120
 4.1060	 5.5010
 4.1090	 5.4830
 4.1120	 5.4590
 4.1150	 5.4300
 4.1190	 5.4230
 4.1220	 5.4270
 4.1250	 5.4590
 4.1280	 5.4500
 4.1320	 5.5080
 4.1350	 5.5110
 4.1380	 5.4850
 4.1420	 5.4700
 4.1450	 5.4710
 4.1480	 5.4510
 4.1520	 5.4810
 4.1550	 5.4980
 4.1580	 5.5230
 4.1620	 5.5140
 4.1650	 5.5260
 4.1680	 5.5240
 4.1720	 5.5030
 4.1750	 5.4990
 4.1780	 5.5390
 4.1820	 5.5100
 4.1850	 5.4690
 4.1890	 5.5510
 4.1920	 5.5970
 4.1950	 5.5340
 4.1990	 5.5660
 4.2020	 5.6320
 4.2060	 5.7210
 4.2090	 5.7680
 4.2120	 5.7360
 4.2160	 5.5970
 4.2190	 5.5280
 4.2230	 5.6610
 4.2260	 5.9350
 4.2300	 6.0190
 4.2330	 5.8230
 4.2360	 5.7860
 4.2400	 5.7100
 4.2430	 5.6440
 4.2470	 5.6220
 4.2500	 5.5280
 4.2540	 5.6680
 4.2570	 5.7150
 4.2610	 5.6270
 4.2640	 5.5650
 4.2680	 5.5540
 4.2710	 5.5060
 4.2750	 5.5670
 4.2780	 5.7510
 4.2820	 5.7920
 4.2850	 5.7050
 4.2890	 5.6910
 4.2930	 5.6970
 4.2960	 5.7420
 4.3000	 5.6810
 4.3030	 5.6860
 4.3070	 5.7120
 4.3100	 5.6410
 4.3140	 5.6960
 4.3180	 5.6920
 4.3210	 5.5870
 4.3250	 5.5830
 4.3280	 5.5690
 4.3320	 5.6720
 4.3360	 5.7050
 4.3390	 5.5940
 4.3430	 5.5660
 4.3470	 5.6010
 4.3500	 5.5540
 4.3540	 5.5670
 4.3570	 5.5970
 4.3610	 5.5670
 4.3650	 5.5240
 4.3680	 5.4970
 4.3720	 5.5280
 4.3760	 5.5410
 4.3800	 5.5150
 4.3830	 5.5110
 4.3870	 5.5230
 4.3910	 5.5230
 4.3940	 5.5220
 4.3980	 5.5400
 4.4020	 5.5280
 4.4060	 5.5420
 4.4090	 5.5860
 4.4130	 5.5110
 4.4170	 5.5100
 4.4210	 5.5720
 4.4240	 5.5350
 4.4280	 5.5410
 4.4320	 5.5280
 4.4360	 5.4890
 4.4400	 5.5070
 4.4430	 5.5640
 4.4470	 5.5760
 4.4510	 5.5710
 4.4550	 5.5920
 4.4590	 5.5940
 4.4620	 5.5630
 4.4660	 5.5390
 4.4700	 5.5520
 4.4740	 5.5350
 4.4780	 5.5300
 4.4820	 5.5160
 4.4860	 5.5170
 4.4900	 5.5470
 4.4930	 5.5780
 4.4970	 5.5510
 4.5010	 5.4830
 4.5050	 5.4510
 4.5090	 5.4640
 4.5130	 5.5090
 4.5170	 5.4780
 4.5210	 5.4380
 4.5250	 5.4680
 4.5290	 5.5240
 4.5330	 5.5860
 4.5370	 5.5930
 4.5410	 5.5700
 4.5450	 5.5230
 4.5490	 5.4630
 4.5530	 5.4220
 4.5570	 5.4470
 4.5610	 5.4680
 4.5650	 5.4700
 4.5690	 5.5040
 4.5730	 5.5020
 4.5770	 5.4750
 4.5810	 5.4930
 4.5850	 5.5250
 4.5890	 5.4810
 4.5930	 5.4970
 4.5970	 5.5410
 4.6010	 5.5230
 4.6050	 5.5680
 4.6090	 5.5910
 4.6130	 5.5300
 4.6170	 5.4300
 4.6220	 5.3990
 4.6260	 5.4260
 4.6300	 5.4840
 4.6340	 5.5760
 4.6380	 5.6050
 4.6420	 5.5340
 4.6460	 5.4880
 4.6510	 5.4990
 4.6550	 5.4870
 4.6590	 5.4840
 4.6630	 5.4900
 4.6670	 5.5010
 4.6720	 5.5010
 4.6760	 5.5120
 4.6800	 5.5070
 4.6840	 5.4520
 4.6880	 5.4130
 4.6930	 5.4440
 4.6970	 5.4570
 4.7010	 5.4680
 4.7050	 5.5040
 4.7100	 5.5420
 4.7140	 5.5650
 4.7180	 5.4900
 4.7230	 5.4680
 4.7270	 5.4890
 4.7310	 5.4700
 4.7360	 5.4850
 4.7400	 5.5040
 4.7440	 5.5150
 4.7490	 5.5210
 4.7530	 5.4760
 4.7570	 5.4460
 4.7620	 5.4280
 4.7660	 5.4000
 4.7700	 5.3730
 4.7750	 5.4650
 4.7790	 5.5950
 4.7840	 5.6260
 4.7880	 5.6240
 4.7920	 5.5400
 4.7970	 5.4420
 4.8010	 5.5230
 4.8060	 5.5580
 4.8100	 5.5080
 4.8150	 5.4960
 4.8190	 5.5490
 4.8240	 5.5050
 4.8280	 5.4940
 4.8330	 5.5050
 4.8370	 5.4700
 4.8420	 5.4910
 4.8460	 5.5030
 4.8510	 5.5260
 4.8550	 5.5430
 4.8600	 5.5230
 4.8640	 5.5470
 4.8690	 5.5530
 4.8730	 5.5700
 4.8780	 5.6060
 4.8830	 5.5890
 4.8870	 5.4690
 4.8920	 5.4890
 4.8960	 5.5220
 4.9010	 5.4710
 4.9060	 5.4400
 4.9100	 5.5110
 4.9150	 5.5290
 4.9200	 5.4990
 4.9240	 5.5190
 4.9290	 5.5170
 4.9340	 5.4860
 4.9380	 5.5530
 4.9430	 5.5920
 4.9480	 5.5560
 4.9530	 5.5330
 4.9570	 5.5950
 4.9620	 5.6390
 4.9670	 5.6350
 4.9720	 5.6170
 4.9760	 5.6510
 4.9810	 5.5990
 4.9860	 5.5310
 4.9910	 5.5140
 4.9960	 5.5210
 5.0000	 5.4970
 5.0050	 5.5400
 5.0100	 5.5680
 5.0150	 5.5650
 5.0200	 5.5950
 5.0250	 5.6050
 5.0290	 5.5580
 5.0340	 5.5510
 5.0390	 5.5530
 5.0440	 5.5840
 5.0490	 5.5810
 5.0540	 5.5710
 5.0590	 5.5340
 5.0640	 5.5230
 5.0690	 5.5410
 5.0740	 5.5430
 5.0790	 5.5120
 5.0840	 5.5240
 5.0890	 5.5400
 5.0940	 5.6000
 5.0990	 5.6050
 5.1040	 5.5400
 5.1090	 5.4910
 5.1140	 5.5500
 5.1190	 5.5970
 5.1240	 5.5570
 5.1290	 5.5450
 5.1340	 5.6090
 5.1390	 5.5250
 5.1440	 5.5100
 5.1490	 5.5320
 5.1540	 5.5810
 5.1600	 5.5850
 5.1650	 5.5790
 5.1700	 5.5250
 5.1750	 5.5040
 5.1800	 5.5210
 5.1850	 5.5440
 5.1910	 5.5080
 5.1960	 5.4920
 5.2010	 5.5280
 5.2060	 5.5620
 5.2110	 5.5130
 5.2170	 5.4830
 5.2220	 5.5160
 5.2270	 5.6070
 5.2320	 5.5240
 5.2380	 5.5420
 5.2430	 5.5990
 5.2480	 5.5690
 5.2540	 5.5410
 5.2590	 5.5580
 5.2640	 5.5440
 5.2700	 5.5510
 5.2750	 5.5400
 5.2800	 5.5720
 5.2860	 5.5870
 5.2910	 5.5840
 5.2970	 5.5550
 5.3020	 5.5730
 5.3070	 5.5990
 5.3130	 5.6200
 5.3180	 5.5160
 5.3240	 5.5160
 5.3290	 5.5520
 5.3350	 5.5690
 5.3400	 5.5460
 5.3460	 5.5460
 5.3510	 5.4480
 5.3570	 5.4560
 5.3620	 5.4760
 5.3680	 5.5310
 5.3730	 5.5290
 5.3790	 5.5040
 5.3850	 5.5080
 5.3900	 5.5960
 5.3960	 5.5980
 5.4010	 5.5650
 5.4070	 5.5040
 5.4130	 5.5040
 5.4180	 5.5130
 5.4240	 5.5250
 5.4300	 5.5150
 5.4350	 5.5110
 5.4410	 5.4640
