Name: Ceanothus spinosus 1
Type: vegetation
Class: Shrub
Genus: Ceanothus
Species: spinosus
Sample No.: VH199
Owner: UCSB
Wavelength Range: VSWIR
Origin: 34.4906; -119.7908; WGS84
Collection Date: 10/13/2013
Description: Samples were collected as part of the HyspIRI Airborne Campaign. 48 individual plants were sampled in three times in 2013 - spring  summer  and fall. The name of the sample includes a 1  2  or 3 which references a different individual of the species. Samples were taken to JPL and processed within 48 hours of collection. The same leaves were processed in the Nicolet and then measured using the ASD.
Measurement: Bidirectional reflectance
First Column: X
Second Column: Y
X Units: Wavelength (micrometers)
Y Units: Reflectance (percentage)
First X Value: 0.35
Last X Value: 2.5
Number of X Values: 2151
Additional Information: vegetation.shrub.ceanothus.spinosus.vswir.vh199.ucsb.asd.ancillary.txt

 0.3500	10.2480
 0.3510	10.2430
 0.3520	10.1380
 0.3530	 9.9870
 0.3540	 9.8730
 0.3550	 9.8490
 0.3560	 9.8810
 0.3570	 9.9620
 0.3580	10.0750
 0.3590	10.0150
 0.3600	 9.9500
 0.3610	 9.9440
 0.3620	 9.8630
 0.3630	 9.7400
 0.3640	 9.7290
 0.3650	 9.8810
 0.3660	 9.7700
 0.3670	 9.6310
 0.3680	 9.5770
 0.3690	 9.6200
 0.3700	 9.6670
 0.3710	 9.6350
 0.3720	 9.5610
 0.3730	 9.6920
 0.3740	 9.7280
 0.3750	 9.6470
 0.3760	 9.5420
 0.3770	 9.5600
 0.3780	 9.6150
 0.3790	 9.6520
 0.3800	 9.6570
 0.3810	 9.5990
 0.3820	 9.5750
 0.3830	 9.6040
 0.3840	 9.4700
 0.3850	 9.4390
 0.3860	 9.5070
 0.3870	 9.5710
 0.3880	 9.5890
 0.3890	 9.5640
 0.3900	 9.5360
 0.3910	 9.5800
 0.3920	 9.4620
 0.3930	 9.3940
 0.3940	 9.5110
 0.3950	 9.5280
 0.3960	 9.5060
 0.3970	 9.4610
 0.3980	 9.3980
 0.3990	 9.4050
 0.4000	 9.4240
 0.4010	 9.4130
 0.4020	 9.3770
 0.4030	 9.3960
 0.4040	 9.4030
 0.4050	 9.3530
 0.4060	 9.3960
 0.4070	 9.4010
 0.4080	 9.3820
 0.4090	 9.4390
 0.4100	 9.4510
 0.4110	 9.4500
 0.4120	 9.4550
 0.4130	 9.4260
 0.4140	 9.4230
 0.4150	 9.4540
 0.4160	 9.5040
 0.4170	 9.5160
 0.4180	 9.5210
 0.4190	 9.5370
 0.4200	 9.5710
 0.4210	 9.6040
 0.4220	 9.6160
 0.4230	 9.6050
 0.4240	 9.6250
 0.4250	 9.6600
 0.4260	 9.6970
 0.4270	 9.7210
 0.4280	 9.7400
 0.4290	 9.7390
 0.4300	 9.7290
 0.4310	 9.7570
 0.4320	 9.7650
 0.4330	 9.7670
 0.4340	 9.7820
 0.4350	 9.7740
 0.4360	 9.7790
 0.4370	 9.8000
 0.4380	 9.8160
 0.4390	 9.8380
 0.4400	 9.8670
 0.4410	 9.8970
 0.4420	 9.9170
 0.4430	 9.9300
 0.4440	 9.9370
 0.4450	 9.9420
 0.4460	 9.9640
 0.4470	 9.9740
 0.4480	 9.9680
 0.4490	 9.9750
 0.4500	 9.9900
 0.4510	10.0020
 0.4520	10.0040
 0.4530	10.0180
 0.4540	10.0440
 0.4550	10.0660
 0.4560	10.0660
 0.4570	10.0660
 0.4580	10.0660
 0.4590	10.0660
 0.4600	10.0710
 0.4610	10.0910
 0.4620	10.1050
 0.4630	10.0900
 0.4640	10.0880
 0.4650	10.0950
 0.4660	10.0990
 0.4670	10.0930
 0.4680	10.0990
 0.4690	10.1030
 0.4700	10.0960
 0.4710	10.1190
 0.4720	10.1300
 0.4730	10.1270
 0.4740	10.1310
 0.4750	10.1230
 0.4760	10.1220
 0.4770	10.1360
 0.4780	10.1490
 0.4790	10.1440
 0.4800	10.1340
 0.4810	10.1390
 0.4820	10.1500
 0.4830	10.1600
 0.4840	10.1660
 0.4850	10.1700
 0.4860	10.1710
 0.4870	10.1790
 0.4880	10.2000
 0.4890	10.2110
 0.4900	10.2380
 0.4910	10.2700
 0.4920	10.2880
 0.4930	10.3260
 0.4940	10.3630
 0.4950	10.3930
 0.4960	10.4390
 0.4970	10.4870
 0.4980	10.5360
 0.4990	10.5900
 0.5000	10.6390
 0.5010	10.6960
 0.5020	10.7660
 0.5030	10.8490
 0.5040	10.9340
 0.5050	11.0260
 0.5060	11.1300
 0.5070	11.2430
 0.5080	11.3590
 0.5090	11.4840
 0.5100	11.6270
 0.5110	11.7680
 0.5120	11.9330
 0.5130	12.1210
 0.5140	12.2970
 0.5150	12.4940
 0.5160	12.7050
 0.5170	12.9190
 0.5180	13.1400
 0.5190	13.3750
 0.5200	13.6180
 0.5210	13.8560
 0.5220	14.0950
 0.5230	14.3410
 0.5240	14.5940
 0.5250	14.8230
 0.5260	15.0460
 0.5270	15.2690
 0.5280	15.4910
 0.5290	15.6960
 0.5300	15.8880
 0.5310	16.0670
 0.5320	16.2360
 0.5330	16.3900
 0.5340	16.5350
 0.5350	16.6770
 0.5360	16.8010
 0.5370	16.9180
 0.5380	17.0290
 0.5390	17.1240
 0.5400	17.2000
 0.5410	17.2690
 0.5420	17.3370
 0.5430	17.3980
 0.5440	17.4640
 0.5450	17.5340
 0.5460	17.6050
 0.5470	17.6990
 0.5480	17.7900
 0.5490	17.8610
 0.5500	17.9140
 0.5510	17.9520
 0.5520	17.9830
 0.5530	18.0120
 0.5540	18.0250
 0.5550	18.0220
 0.5560	18.0080
 0.5570	17.9860
 0.5580	17.9470
 0.5590	17.8920
 0.5600	17.8210
 0.5610	17.7390
 0.5620	17.6400
 0.5630	17.5300
 0.5640	17.4140
 0.5650	17.2900
 0.5660	17.1670
 0.5670	17.0470
 0.5680	16.9240
 0.5690	16.7940
 0.5700	16.6580
 0.5710	16.5200
 0.5720	16.3750
 0.5730	16.2420
 0.5740	16.1230
 0.5750	16.0120
 0.5760	15.8870
 0.5770	15.7670
 0.5780	15.6650
 0.5790	15.5610
 0.5800	15.4750
 0.5810	15.3990
 0.5820	15.3180
 0.5830	15.2490
 0.5840	15.1950
 0.5850	15.1480
 0.5860	15.0970
 0.5870	15.0320
 0.5880	14.9570
 0.5890	14.8830
 0.5900	14.8190
 0.5910	14.7630
 0.5920	14.7170
 0.5930	14.6810
 0.5940	14.6530
 0.5950	14.6340
 0.5960	14.6190
 0.5970	14.5900
 0.5980	14.5670
 0.5990	14.5470
 0.6000	14.5180
 0.6010	14.4850
 0.6020	14.4460
 0.6030	14.4010
 0.6040	14.3510
 0.6050	14.2920
 0.6060	14.2270
 0.6070	14.1580
 0.6080	14.0870
 0.6090	14.0030
 0.6100	13.9000
 0.6110	13.7870
 0.6120	13.7160
 0.6130	13.6660
 0.6140	13.6190
 0.6150	13.5630
 0.6160	13.5010
 0.6170	13.4420
 0.6180	13.3920
 0.6190	13.3380
 0.6200	13.2860
 0.6210	13.2440
 0.6220	13.2160
 0.6230	13.1930
 0.6240	13.1730
 0.6250	13.1580
 0.6260	13.1450
 0.6270	13.1340
 0.6280	13.1270
 0.6290	13.1230
 0.6300	13.1150
 0.6310	13.1070
 0.6320	13.1000
 0.6330	13.0900
 0.6340	13.0700
 0.6350	13.0360
 0.6360	12.9870
 0.6370	12.9280
 0.6380	12.8550
 0.6390	12.7690
 0.6400	12.6720
 0.6410	12.5700
 0.6420	12.4630
 0.6430	12.3510
 0.6440	12.2320
 0.6450	12.1240
 0.6460	12.0270
 0.6470	11.9360
 0.6480	11.8470
 0.6490	11.7690
 0.6500	11.7010
 0.6510	11.6350
 0.6520	11.5920
 0.6530	11.5540
 0.6540	11.5060
 0.6550	11.4630
 0.6560	11.4150
 0.6570	11.3620
 0.6580	11.3050
 0.6590	11.2410
 0.6600	11.1740
 0.6610	11.1090
 0.6620	11.0490
 0.6630	10.9850
 0.6640	10.9250
 0.6650	10.8750
 0.6660	10.8300
 0.6670	10.7950
 0.6680	10.7670
 0.6690	10.7450
 0.6700	10.7290
 0.6710	10.7200
 0.6720	10.7180
 0.6730	10.7170
 0.6740	10.7260
 0.6750	10.7420
 0.6760	10.7600
 0.6770	10.7810
 0.6780	10.8100
 0.6790	10.8470
 0.6800	10.8900
 0.6810	10.9500
 0.6820	11.0170
 0.6830	11.0900
 0.6840	11.1860
 0.6850	11.3160
 0.6860	11.4740
 0.6870	11.6550
 0.6880	11.8870
 0.6890	12.1760
 0.6900	12.5270
 0.6910	12.9450
 0.6920	13.4400
 0.6930	14.0130
 0.6940	14.6680
 0.6950	15.4120
 0.6960	16.2360
 0.6970	17.1300
 0.6980	18.0860
 0.6990	19.1030
 0.7000	20.1620
 0.7010	21.2480
 0.7020	22.3520
 0.7030	23.4700
 0.7040	24.5810
 0.7050	25.6650
 0.7060	26.7340
 0.7070	27.7810
 0.7080	28.7990
 0.7090	29.7870
 0.7100	30.7530
 0.7110	31.6710
 0.7120	32.5420
 0.7130	33.3980
 0.7140	34.2210
 0.7150	35.0070
 0.7160	35.7560
 0.7170	36.4650
 0.7180	37.1490
 0.7190	37.7960
 0.7200	38.3950
 0.7210	38.9900
 0.7220	39.5440
 0.7230	40.0550
 0.7240	40.5630
 0.7250	41.0370
 0.7260	41.4710
 0.7270	41.8720
 0.7280	42.2680
 0.7290	42.6350
 0.7300	42.9670
 0.7310	43.2700
 0.7320	43.5710
 0.7330	43.8510
 0.7340	44.1050
 0.7350	44.3480
 0.7360	44.5720
 0.7370	44.7760
 0.7380	44.9630
 0.7390	45.1310
 0.7400	45.3100
 0.7410	45.4790
 0.7420	45.6110
 0.7430	45.7360
 0.7440	45.8570
 0.7450	45.9700
 0.7460	46.0710
 0.7470	46.1630
 0.7480	46.2470
 0.7490	46.3210
 0.7500	46.3790
 0.7510	46.4380
 0.7520	46.4980
 0.7530	46.5510
 0.7540	46.5970
 0.7550	46.6300
 0.7560	46.6550
 0.7570	46.6850
 0.7580	46.7170
 0.7590	46.7520
 0.7600	46.7780
 0.7610	46.7780
 0.7620	46.7930
 0.7630	46.8130
 0.7640	46.8210
 0.7650	46.8300
 0.7660	46.8380
 0.7670	46.8460
 0.7680	46.8540
 0.7690	46.8620
 0.7700	46.8640
 0.7710	46.8620
 0.7720	46.8690
 0.7730	46.8700
 0.7740	46.8680
 0.7750	46.8670
 0.7760	46.8650
 0.7770	46.8650
 0.7780	46.8680
 0.7790	46.8750
 0.7800	46.8800
 0.7810	46.8770
 0.7820	46.8740
 0.7830	46.8930
 0.7840	46.8950
 0.7850	46.8880
 0.7860	46.8860
 0.7870	46.9020
 0.7880	46.9060
 0.7890	46.9020
 0.7900	46.9050
 0.7910	46.9010
 0.7920	46.9060
 0.7930	46.9170
 0.7940	46.9170
 0.7950	46.9130
 0.7960	46.9170
 0.7970	46.9250
 0.7980	46.9120
 0.7990	46.9200
 0.8000	46.9370
 0.8010	46.9440
 0.8020	46.9500
 0.8030	46.9510
 0.8040	46.9530
 0.8050	46.9650
 0.8060	46.9790
 0.8070	46.9660
 0.8080	46.9450
 0.8090	46.9690
 0.8100	46.9820
 0.8110	46.9900
 0.8120	47.0000
 0.8130	47.0010
 0.8140	47.0060
 0.8150	47.0070
 0.8160	46.9980
 0.8170	47.0020
 0.8180	47.0310
 0.8190	47.0580
 0.8200	47.0490
 0.8210	47.0400
 0.8220	47.0410
 0.8230	47.0510
 0.8240	47.0570
 0.8250	47.0760
 0.8260	47.0890
 0.8270	47.0890
 0.8280	47.0930
 0.8290	47.0940
 0.8300	47.0990
 0.8310	47.1100
 0.8320	47.1150
 0.8330	47.1180
 0.8340	47.1180
 0.8350	47.1180
 0.8360	47.1360
 0.8370	47.1390
 0.8380	47.1360
 0.8390	47.1600
 0.8400	47.1630
 0.8410	47.1560
 0.8420	47.1520
 0.8430	47.1580
 0.8440	47.1530
 0.8450	47.1630
 0.8460	47.1960
 0.8470	47.1840
 0.8480	47.1800
 0.8490	47.1810
 0.8500	47.1770
 0.8510	47.1970
 0.8520	47.2130
 0.8530	47.2150
 0.8540	47.2070
 0.8550	47.2130
 0.8560	47.2250
 0.8570	47.2300
 0.8580	47.2150
 0.8590	47.2110
 0.8600	47.2220
 0.8610	47.2350
 0.8620	47.2160
 0.8630	47.2050
 0.8640	47.2110
 0.8650	47.2290
 0.8660	47.2330
 0.8670	47.2300
 0.8680	47.2300
 0.8690	47.2380
 0.8700	47.2180
 0.8710	47.2150
 0.8720	47.2220
 0.8730	47.2090
 0.8740	47.2130
 0.8750	47.2200
 0.8760	47.2210
 0.8770	47.2150
 0.8780	47.2190
 0.8790	47.2150
 0.8800	47.1990
 0.8810	47.1940
 0.8820	47.1960
 0.8830	47.1910
 0.8840	47.1760
 0.8850	47.1710
 0.8860	47.1740
 0.8870	47.1740
 0.8880	47.1680
 0.8890	47.1640
 0.8900	47.1660
 0.8910	47.1650
 0.8920	47.1520
 0.8930	47.1570
 0.8940	47.1550
 0.8950	47.1330
 0.8960	47.0990
 0.8970	47.1050
 0.8980	47.1140
 0.8990	47.1110
 0.9000	47.1050
 0.9010	47.0860
 0.9020	47.0700
 0.9030	47.0710
 0.9040	47.1010
 0.9050	47.0950
 0.9060	47.0680
 0.9070	47.0470
 0.9080	47.0540
 0.9090	47.0480
 0.9100	47.0430
 0.9110	47.0500
 0.9120	47.0260
 0.9130	47.0240
 0.9140	47.0290
 0.9150	47.0170
 0.9160	47.0040
 0.9170	47.0000
 0.9180	47.0070
 0.9190	47.0160
 0.9200	47.0120
 0.9210	46.9930
 0.9220	46.9700
 0.9230	46.9530
 0.9240	46.9410
 0.9250	46.9430
 0.9260	46.9490
 0.9270	46.9400
 0.9280	46.9250
 0.9290	46.9060
 0.9300	46.8820
 0.9310	46.8530
 0.9320	46.8490
 0.9330	46.8510
 0.9340	46.8450
 0.9350	46.8370
 0.9360	46.8250
 0.9370	46.7990
 0.9380	46.7660
 0.9390	46.7510
 0.9400	46.7480
 0.9410	46.7420
 0.9420	46.7240
 0.9430	46.6910
 0.9440	46.6680
 0.9450	46.6610
 0.9460	46.6620
 0.9470	46.6370
 0.9480	46.6190
 0.9490	46.5900
 0.9500	46.5380
 0.9510	46.5110
 0.9520	46.4610
 0.9530	46.4190
 0.9540	46.4090
 0.9550	46.3440
 0.9560	46.3300
 0.9570	46.3260
 0.9580	46.2790
 0.9590	46.2410
 0.9600	46.2160
 0.9610	46.1930
 0.9620	46.1600
 0.9630	46.1350
 0.9640	46.0990
 0.9650	46.0680
 0.9660	46.0610
 0.9670	46.0530
 0.9680	46.0390
 0.9690	46.0370
 0.9700	46.0530
 0.9710	46.0220
 0.9720	45.9900
 0.9730	45.9710
 0.9740	45.9620
 0.9750	45.9820
 0.9760	45.9660
 0.9770	45.9340
 0.9780	45.9380
 0.9790	45.9500
 0.9800	45.9550
 0.9810	45.9460
 0.9820	45.9280
 0.9830	45.9670
 0.9840	45.9670
 0.9850	45.9480
 0.9860	45.9800
 0.9870	46.0180
 0.9880	46.0140
 0.9890	45.9900
 0.9900	45.9990
 0.9910	46.0460
 0.9920	46.0460
 0.9930	46.0460
 0.9940	46.0460
 0.9950	46.0470
 0.9960	46.0470
 0.9970	46.0470
 0.9980	46.0470
 0.9990	46.0470
 1.0000	46.0470
 1.0010	46.0480
 1.0020	46.0480
 1.0030	46.0480
 1.0040	46.0480
 1.0050	46.0480
 1.0060	46.0480
 1.0070	46.0490
 1.0080	46.0490
 1.0090	46.0490
 1.0100	46.0490
 1.0110	46.0490
 1.0120	46.0530
 1.0130	46.0550
 1.0140	46.0590
 1.0150	46.0670
 1.0160	46.0680
 1.0170	46.0710
 1.0180	46.0920
 1.0190	46.1140
 1.0200	46.1230
 1.0210	46.1370
 1.0220	46.1520
 1.0230	46.1660
 1.0240	46.1850
 1.0250	46.2020
 1.0260	46.2150
 1.0270	46.2290
 1.0280	46.2550
 1.0290	46.2630
 1.0300	46.2520
 1.0310	46.2560
 1.0320	46.2600
 1.0330	46.2570
 1.0340	46.2680
 1.0350	46.3040
 1.0360	46.3190
 1.0370	46.3190
 1.0380	46.3280
 1.0390	46.3320
 1.0400	46.3380
 1.0410	46.3480
 1.0420	46.3590
 1.0430	46.3720
 1.0440	46.3780
 1.0450	46.3870
 1.0460	46.3890
 1.0470	46.3750
 1.0480	46.3720
 1.0490	46.3690
 1.0500	46.3710
 1.0510	46.3740
 1.0520	46.3890
 1.0530	46.3980
 1.0540	46.4090
 1.0550	46.4180
 1.0560	46.4310
 1.0570	46.4290
 1.0580	46.4180
 1.0590	46.4140
 1.0600	46.4000
 1.0610	46.3950
 1.0620	46.4030
 1.0630	46.4020
 1.0640	46.3940
 1.0650	46.3910
 1.0660	46.3870
 1.0670	46.3820
 1.0680	46.3770
 1.0690	46.3720
 1.0700	46.3700
 1.0710	46.3690
 1.0720	46.3660
 1.0730	46.3660
 1.0740	46.3630
 1.0750	46.3530
 1.0760	46.3480
 1.0770	46.3420
 1.0780	46.3390
 1.0790	46.3400
 1.0800	46.3340
 1.0810	46.3220
 1.0820	46.3160
 1.0830	46.3080
 1.0840	46.3020
 1.0850	46.3020
 1.0860	46.3050
 1.0870	46.3010
 1.0880	46.2930
 1.0890	46.2860
 1.0900	46.2730
 1.0910	46.2690
 1.0920	46.2710
 1.0930	46.2650
 1.0940	46.2560
 1.0950	46.2500
 1.0960	46.2400
 1.0970	46.2310
 1.0980	46.2270
 1.0990	46.2220
 1.1000	46.2090
 1.1010	46.2010
 1.1020	46.1980
 1.1030	46.1930
 1.1040	46.1920
 1.1050	46.1910
 1.1060	46.1910
 1.1070	46.1970
 1.1080	46.1930
 1.1090	46.1850
 1.1100	46.1790
 1.1110	46.1690
 1.1120	46.1610
 1.1130	46.1600
 1.1140	46.1520
 1.1150	46.1440
 1.1160	46.1320
 1.1170	46.1160
 1.1180	46.1000
 1.1190	46.0810
 1.1200	46.0620
 1.1210	46.0450
 1.1220	46.0250
 1.1230	46.0060
 1.1240	45.9870
 1.1250	45.9630
 1.1260	45.9340
 1.1270	45.9100
 1.1280	45.8870
 1.1290	45.8580
 1.1300	45.8340
 1.1310	45.8000
 1.1320	45.7580
 1.1330	45.7150
 1.1340	45.6680
 1.1350	45.6160
 1.1360	45.5600
 1.1370	45.4980
 1.1380	45.4360
 1.1390	45.3750
 1.1400	45.3090
 1.1410	45.2440
 1.1420	45.1760
 1.1430	45.1060
 1.1440	45.0360
 1.1450	44.9640
 1.1460	44.8910
 1.1470	44.8130
 1.1480	44.7420
 1.1490	44.6740
 1.1500	44.6060
 1.1510	44.5420
 1.1520	44.4790
 1.1530	44.4110
 1.1540	44.3520
 1.1550	44.2980
 1.1560	44.2490
 1.1570	44.2010
 1.1580	44.1620
 1.1590	44.1250
 1.1600	44.0860
 1.1610	44.0570
 1.1620	44.0330
 1.1630	44.0130
 1.1640	44.0000
 1.1650	43.9870
 1.1660	43.9780
 1.1670	43.9670
 1.1680	43.9590
 1.1690	43.9490
 1.1700	43.9390
 1.1710	43.9300
 1.1720	43.9190
 1.1730	43.9120
 1.1740	43.9100
 1.1750	43.9050
 1.1760	43.9070
 1.1770	43.9070
 1.1780	43.9000
 1.1790	43.8970
 1.1800	43.8880
 1.1810	43.8760
 1.1820	43.8710
 1.1830	43.8630
 1.1840	43.8550
 1.1850	43.8460
 1.1860	43.8380
 1.1870	43.8380
 1.1880	43.8350
 1.1890	43.8360
 1.1900	43.8370
 1.1910	43.8390
 1.1920	43.8360
 1.1930	43.8350
 1.1940	43.8340
 1.1950	43.8270
 1.1960	43.8220
 1.1970	43.8240
 1.1980	43.8220
 1.1990	43.8210
 1.2000	43.8260
 1.2010	43.8340
 1.2020	43.8410
 1.2030	43.8510
 1.2040	43.8650
 1.2050	43.8740
 1.2060	43.8840
 1.2070	43.8930
 1.2080	43.9040
 1.2090	43.9190
 1.2100	43.9320
 1.2110	43.9440
 1.2120	43.9560
 1.2130	43.9680
 1.2140	43.9840
 1.2150	43.9960
 1.2160	44.0080
 1.2170	44.0220
 1.2180	44.0370
 1.2190	44.0430
 1.2200	44.0560
 1.2210	44.0710
 1.2220	44.0800
 1.2230	44.0910
 1.2240	44.1000
 1.2250	44.1140
 1.2260	44.1260
 1.2270	44.1380
 1.2280	44.1530
 1.2290	44.1630
 1.2300	44.1750
 1.2310	44.1930
 1.2320	44.2040
 1.2330	44.2150
 1.2340	44.2280
 1.2350	44.2410
 1.2360	44.2530
 1.2370	44.2680
 1.2380	44.2830
 1.2390	44.2960
 1.2400	44.3040
 1.2410	44.3140
 1.2420	44.3270
 1.2430	44.3350
 1.2440	44.3440
 1.2450	44.3510
 1.2460	44.3520
 1.2470	44.3530
 1.2480	44.3520
 1.2490	44.3590
 1.2500	44.3700
 1.2510	44.3790
 1.2520	44.3950
 1.2530	44.3980
 1.2540	44.3910
 1.2550	44.3910
 1.2560	44.3880
 1.2570	44.3870
 1.2580	44.3940
 1.2590	44.4000
 1.2600	44.4060
 1.2610	44.4080
 1.2620	44.4110
 1.2630	44.4090
 1.2640	44.4040
 1.2650	44.4060
 1.2660	44.4090
 1.2670	44.4060
 1.2680	44.4000
 1.2690	44.3910
 1.2700	44.3840
 1.2710	44.3820
 1.2720	44.3800
 1.2730	44.3720
 1.2740	44.3610
 1.2750	44.3500
 1.2760	44.3420
 1.2770	44.3390
 1.2780	44.3340
 1.2790	44.3240
 1.2800	44.3140
 1.2810	44.3070
 1.2820	44.2950
 1.2830	44.2870
 1.2840	44.2740
 1.2850	44.2580
 1.2860	44.2500
 1.2870	44.2360
 1.2880	44.2200
 1.2890	44.2060
 1.2900	44.1910
 1.2910	44.1600
 1.2920	44.1360
 1.2930	44.1130
 1.2940	44.0840
 1.2950	44.0640
 1.2960	44.0440
 1.2970	44.0210
 1.2980	44.0000
 1.2990	43.9720
 1.3000	43.9390
 1.3010	43.9000
 1.3020	43.8610
 1.3030	43.8270
 1.3040	43.7950
 1.3050	43.7610
 1.3060	43.7250
 1.3070	43.6870
 1.3080	43.6420
 1.3090	43.5990
 1.3100	43.5520
 1.3110	43.4990
 1.3120	43.4500
 1.3130	43.3980
 1.3140	43.3450
 1.3150	43.2970
 1.3160	43.2430
 1.3170	43.1850
 1.3180	43.1270
 1.3190	43.0690
 1.3200	43.0040
 1.3210	42.9390
 1.3220	42.8710
 1.3230	42.8040
 1.3240	42.7380
 1.3250	42.6750
 1.3260	42.6090
 1.3270	42.5350
 1.3280	42.4620
 1.3290	42.3860
 1.3300	42.3120
 1.3310	42.2420
 1.3320	42.1660
 1.3330	42.0890
 1.3340	42.0070
 1.3350	41.9230
 1.3360	41.8390
 1.3370	41.7540
 1.3380	41.6680
 1.3390	41.5780
 1.3400	41.4870
 1.3410	41.4000
 1.3420	41.3150
 1.3430	41.2290
 1.3440	41.1460
 1.3450	41.0630
 1.3460	40.9790
 1.3470	40.8970
 1.3480	40.8160
 1.3490	40.7360
 1.3500	40.6550
 1.3510	40.5740
 1.3520	40.4930
 1.3530	40.4070
 1.3540	40.3240
 1.3550	40.2410
 1.3560	40.1560
 1.3570	40.0790
 1.3580	39.9980
 1.3590	39.9100
 1.3600	39.8220
 1.3610	39.7290
 1.3620	39.6360
 1.3630	39.5450
 1.3640	39.4490
 1.3650	39.3460
 1.3660	39.2390
 1.3670	39.1210
 1.3680	38.9940
 1.3690	38.8630
 1.3700	38.7230
 1.3710	38.5780
 1.3720	38.4300
 1.3730	38.2690
 1.3740	38.0960
 1.3750	37.9110
 1.3760	37.7130
 1.3770	37.4970
 1.3780	37.2670
 1.3790	37.0260
 1.3800	36.7670
 1.3810	36.4930
 1.3820	36.2030
 1.3830	35.8970
 1.3840	35.5730
 1.3850	35.2300
 1.3860	34.8740
 1.3870	34.4990
 1.3880	34.1160
 1.3890	33.7190
 1.3900	33.3080
 1.3910	32.8910
 1.3920	32.4610
 1.3930	32.0210
 1.3940	31.5780
 1.3950	31.1260
 1.3960	30.6750
 1.3970	30.2270
 1.3980	29.7780
 1.3990	29.3400
 1.4000	28.9060
 1.4010	28.4750
 1.4020	28.0570
 1.4030	27.6490
 1.4040	27.2540
 1.4050	26.8740
 1.4060	26.5080
 1.4070	26.1610
 1.4080	25.8280
 1.4090	25.5080
 1.4100	25.2040
 1.4110	24.9120
 1.4120	24.6360
 1.4130	24.3800
 1.4140	24.1440
 1.4150	23.9260
 1.4160	23.7250
 1.4170	23.5390
 1.4180	23.3670
 1.4190	23.2080
 1.4200	23.0610
 1.4210	22.9270
 1.4220	22.8080
 1.4230	22.6990
 1.4240	22.6020
 1.4250	22.5140
 1.4260	22.4370
 1.4270	22.3660
 1.4280	22.3040
 1.4290	22.2480
 1.4300	22.1990
 1.4310	22.1570
 1.4320	22.1200
 1.4330	22.0910
 1.4340	22.0720
 1.4350	22.0530
 1.4360	22.0400
 1.4370	22.0320
 1.4380	22.0250
 1.4390	22.0220
 1.4400	22.0230
 1.4410	22.0270
 1.4420	22.0350
 1.4430	22.0450
 1.4440	22.0610
 1.4450	22.0800
 1.4460	22.0980
 1.4470	22.1220
 1.4480	22.1450
 1.4490	22.1690
 1.4500	22.1960
 1.4510	22.2190
 1.4520	22.2450
 1.4530	22.2720
 1.4540	22.2980
 1.4550	22.3250
 1.4560	22.3500
 1.4570	22.3770
 1.4580	22.4100
 1.4590	22.4460
 1.4600	22.4860
 1.4610	22.5270
 1.4620	22.5700
 1.4630	22.6150
 1.4640	22.6670
 1.4650	22.7230
 1.4660	22.7800
 1.4670	22.8460
 1.4680	22.9140
 1.4690	22.9850
 1.4700	23.0610
