Name: Cedrus deodara
Type: vegetation
Class: Tree
Genus: Cedrus
Species: deodara
Sample No.: JPL105
Owner: JPL
Wavelength Range: VSWIR
Origin: 34.12843; - 118.11538; WGS84
Collection Date: 2/2/2016
Description: Samples were collected at the Huntington Garden in San Marino California as part of a JPL Subcontract studying HyTES imagery. Samples were taken to JPL and processed within 48 hours of collection. The same leaves were processed in the Nicolet and then measured using the ASD.
Measurement: Bidirectional reflectance
First Column: X
Second Column: Y
X Units: Wavelength (micrometer)
Y Units: Reflectance (percentage)
First X Value: 0.35
Last X Value: 2.5
Number of X Values: 2151
Additional Information: 

 0.3500	 3.6560
 0.3510	 3.9510
 0.3520	 5.3880
 0.3530	 5.9510
 0.3540	 4.7120
 0.3550	 4.4880
 0.3560	 4.2020
 0.3570	 3.8470
 0.3580	 3.9140
 0.3590	 3.9270
 0.3600	 4.5730
 0.3610	 5.4070
 0.3620	 4.4930
 0.3630	 3.8750
 0.3640	 3.7830
 0.3650	 3.8870
 0.3660	 3.7490
 0.3670	 4.1760
 0.3680	 4.4260
 0.3690	 3.0810
 0.3700	 3.1110
 0.3710	 3.6120
 0.3720	 3.7160
 0.3730	 3.7170
 0.3740	 3.9100
 0.3750	 4.1590
 0.3760	 4.2220
 0.3770	 4.1360
 0.3780	 3.6800
 0.3790	 3.2370
 0.3800	 3.6070
 0.3810	 3.8300
 0.3820	 3.8560
 0.3830	 3.7680
 0.3840	 3.5440
 0.3850	 3.5620
 0.3860	 3.7280
 0.3870	 3.7930
 0.3880	 3.8540
 0.3890	 3.8030
 0.3900	 3.7070
 0.3910	 3.8040
 0.3920	 3.8900
 0.3930	 3.9230
 0.3940	 3.8790
 0.3950	 3.6620
 0.3960	 3.6520
 0.3970	 3.8160
 0.3980	 3.9020
 0.3990	 3.6670
 0.4000	 3.5510
 0.4010	 3.6390
 0.4020	 3.4660
 0.4030	 3.6570
 0.4040	 3.9290
 0.4050	 3.9370
 0.4060	 3.8640
 0.4070	 3.8990
 0.4080	 3.9590
 0.4090	 3.8240
 0.4100	 3.8170
 0.4110	 3.7540
 0.4120	 3.6200
 0.4130	 3.8590
 0.4140	 3.8790
 0.4150	 3.8200
 0.4160	 3.9410
 0.4170	 3.8730
 0.4180	 3.7370
 0.4190	 3.6700
 0.4200	 3.7860
 0.4210	 3.8000
 0.4220	 3.9070
 0.4230	 4.1640
 0.4240	 4.0490
 0.4250	 4.0290
 0.4260	 4.1070
 0.4270	 4.0920
 0.4280	 4.0800
 0.4290	 4.0890
 0.4300	 4.1100
 0.4310	 4.1020
 0.4320	 4.1700
 0.4330	 4.2550
 0.4340	 4.2830
 0.4350	 4.2710
 0.4360	 4.2420
 0.4370	 4.2440
 0.4380	 4.3250
 0.4390	 4.2370
 0.4400	 4.2150
 0.4410	 4.3500
 0.4420	 4.2430
 0.4430	 4.2160
 0.4440	 4.2870
 0.4450	 4.3550
 0.4460	 4.3980
 0.4470	 4.3300
 0.4480	 4.2160
 0.4490	 4.2910
 0.4500	 4.3420
 0.4510	 4.3730
 0.4520	 4.4230
 0.4530	 4.4890
 0.4540	 4.4390
 0.4550	 4.3400
 0.4560	 4.3750
 0.4570	 4.4560
 0.4580	 4.4760
 0.4590	 4.4170
 0.4600	 4.4290
 0.4610	 4.4470
 0.4620	 4.4410
 0.4630	 4.4080
 0.4640	 4.4190
 0.4650	 4.4540
 0.4660	 4.4500
 0.4670	 4.3160
 0.4680	 4.3330
 0.4690	 4.4000
 0.4700	 4.4040
 0.4710	 4.4230
 0.4720	 4.4270
 0.4730	 4.3980
 0.4740	 4.3440
 0.4750	 4.4440
 0.4760	 4.4840
 0.4770	 4.4050
 0.4780	 4.4550
 0.4790	 4.4260
 0.4800	 4.3980
 0.4810	 4.4750
 0.4820	 4.4680
 0.4830	 4.3990
 0.4840	 4.3600
 0.4850	 4.4770
 0.4860	 4.4430
 0.4870	 4.3760
 0.4880	 4.4070
 0.4890	 4.5240
 0.4900	 4.5380
 0.4910	 4.4700
 0.4920	 4.4400
 0.4930	 4.4320
 0.4940	 4.4620
 0.4950	 4.5170
 0.4960	 4.5390
 0.4970	 4.5010
 0.4980	 4.4920
 0.4990	 4.5750
 0.5000	 4.5640
 0.5010	 4.5550
 0.5020	 4.5990
 0.5030	 4.6940
 0.5040	 4.6890
 0.5050	 4.7000
 0.5060	 4.8040
 0.5070	 4.8760
 0.5080	 4.9190
 0.5090	 4.9610
 0.5100	 5.0330
 0.5110	 5.0730
 0.5120	 5.1750
 0.5130	 5.3440
 0.5140	 5.4450
 0.5150	 5.5390
 0.5160	 5.6520
 0.5170	 5.7880
 0.5180	 5.9090
 0.5190	 6.0440
 0.5200	 6.1870
 0.5210	 6.3160
 0.5220	 6.4920
 0.5230	 6.6430
 0.5240	 6.7390
 0.5250	 6.8830
 0.5260	 7.0350
 0.5270	 7.1750
 0.5280	 7.2900
 0.5290	 7.3790
 0.5300	 7.5070
 0.5310	 7.6580
 0.5320	 7.7150
 0.5330	 7.7520
 0.5340	 7.8260
 0.5350	 7.9500
 0.5360	 8.0130
 0.5370	 8.0580
 0.5380	 8.1080
 0.5390	 8.1730
 0.5400	 8.2320
 0.5410	 8.3170
 0.5420	 8.4260
 0.5430	 8.4780
 0.5440	 8.5250
 0.5450	 8.5690
 0.5460	 8.5920
 0.5470	 8.5560
 0.5480	 8.5170
 0.5490	 8.5110
 0.5500	 8.5450
 0.5510	 8.5630
 0.5520	 8.5710
 0.5530	 8.5780
 0.5540	 8.5480
 0.5550	 8.5360
 0.5560	 8.5280
 0.5570	 8.4630
 0.5580	 8.4080
 0.5590	 8.3660
 0.5600	 8.3240
 0.5610	 8.2520
 0.5620	 8.1590
 0.5630	 8.0780
 0.5640	 8.0370
 0.5650	 7.9860
 0.5660	 7.9020
 0.5670	 7.8020
 0.5680	 7.7370
 0.5690	 7.6630
 0.5700	 7.5570
 0.5710	 7.4270
 0.5720	 7.3530
 0.5730	 7.2610
 0.5740	 7.1520
 0.5750	 7.0730
 0.5760	 7.0110
 0.5770	 6.9450
 0.5780	 6.8730
 0.5790	 6.8230
 0.5800	 6.7800
 0.5810	 6.7410
 0.5820	 6.7060
 0.5830	 6.6900
 0.5840	 6.6420
 0.5850	 6.5670
 0.5860	 6.5340
 0.5870	 6.5180
 0.5880	 6.4970
 0.5890	 6.4560
 0.5900	 6.4100
 0.5910	 6.3780
 0.5920	 6.3530
 0.5930	 6.3150
 0.5940	 6.3100
 0.5950	 6.3130
 0.5960	 6.3040
 0.5970	 6.2770
 0.5980	 6.2660
 0.5990	 6.2570
 0.6000	 6.2300
 0.6010	 6.2050
 0.6020	 6.1820
 0.6030	 6.1600
 0.6040	 6.1410
 0.6050	 6.0910
 0.6060	 6.0350
 0.6070	 6.0010
 0.6080	 5.9720
 0.6090	 5.9460
 0.6100	 5.9190
 0.6110	 5.8830
 0.6120	 5.8370
 0.6130	 5.7870
 0.6140	 5.7360
 0.6150	 5.6810
 0.6160	 5.6110
 0.6170	 5.5450
 0.6180	 5.5010
 0.6190	 5.4720
 0.6200	 5.4410
 0.6210	 5.4120
 0.6220	 5.4010
 0.6230	 5.4050
 0.6240	 5.3850
 0.6250	 5.3320
 0.6260	 5.3220
 0.6270	 5.3200
 0.6280	 5.3090
 0.6290	 5.2900
 0.6300	 5.3090
 0.6310	 5.3220
 0.6320	 5.3140
 0.6330	 5.3090
 0.6340	 5.2980
 0.6350	 5.2820
 0.6360	 5.2650
 0.6370	 5.2410
 0.6380	 5.2340
 0.6390	 5.2160
 0.6400	 5.1440
 0.6410	 5.1160
 0.6420	 5.0890
 0.6430	 5.0440
 0.6440	 5.0250
 0.6450	 4.9890
 0.6460	 4.9330
 0.6470	 4.8700
 0.6480	 4.8390
 0.6490	 4.8160
 0.6500	 4.7920
 0.6510	 4.7770
 0.6520	 4.7640
 0.6530	 4.7250
 0.6540	 4.6660
 0.6550	 4.6680
 0.6560	 4.6640
 0.6570	 4.6360
 0.6580	 4.5920
 0.6590	 4.5440
 0.6600	 4.5080
 0.6610	 4.4840
 0.6620	 4.4580
 0.6630	 4.4350
 0.6640	 4.4130
 0.6650	 4.3870
 0.6660	 4.3420
 0.6670	 4.3140
 0.6680	 4.3030
 0.6690	 4.2920
 0.6700	 4.2990
 0.6710	 4.2990
 0.6720	 4.2850
 0.6730	 4.2860
 0.6740	 4.3060
 0.6750	 4.3180
 0.6760	 4.3100
 0.6770	 4.3310
 0.6780	 4.3500
 0.6790	 4.3620
 0.6800	 4.3850
 0.6810	 4.3800
 0.6820	 4.3970
 0.6830	 4.4590
 0.6840	 4.5340
 0.6850	 4.5600
 0.6860	 4.5890
 0.6870	 4.6820
 0.6880	 4.7900
 0.6890	 4.9050
 0.6900	 5.0400
 0.6910	 5.2250
 0.6920	 5.4520
 0.6930	 5.7230
 0.6940	 6.0430
 0.6950	 6.4300
 0.6960	 6.8340
 0.6970	 7.2760
 0.6980	 7.7830
 0.6990	 8.2880
 0.7000	 8.8480
 0.7010	 9.4630
 0.7020	10.0680
 0.7030	10.6760
 0.7040	11.3180
 0.7050	11.9950
 0.7060	12.6560
 0.7070	13.3210
 0.7080	14.0040
 0.7090	14.7140
 0.7100	15.4020
 0.7110	16.1050
 0.7120	16.8370
 0.7130	17.5950
 0.7140	18.3380
 0.7150	19.0900
 0.7160	19.8670
 0.7170	20.6310
 0.7180	21.4140
 0.7190	22.2120
 0.7200	23.0080
 0.7210	23.7870
 0.7220	24.5870
 0.7230	25.4000
 0.7240	26.1750
 0.7250	26.9320
 0.7260	27.6810
 0.7270	28.4300
 0.7280	29.1780
 0.7290	29.8940
 0.7300	30.5830
 0.7310	31.2590
 0.7320	31.9100
 0.7330	32.5410
 0.7340	33.1520
 0.7350	33.7410
 0.7360	34.2840
 0.7370	34.8030
 0.7380	35.3100
 0.7390	35.7860
 0.7400	36.2300
 0.7410	36.6460
 0.7420	37.0450
 0.7430	37.4380
 0.7440	37.7870
 0.7450	38.0960
 0.7460	38.4120
 0.7470	38.7080
 0.7480	38.9670
 0.7490	39.1940
 0.7500	39.4320
 0.7510	39.6560
 0.7520	39.8440
 0.7530	39.9920
 0.7540	40.1680
 0.7550	40.3380
 0.7560	40.4800
 0.7570	40.5920
 0.7580	40.7020
 0.7590	40.8100
 0.7600	40.9110
 0.7610	41.0000
 0.7620	41.0890
 0.7630	41.1710
 0.7640	41.2370
 0.7650	41.3000
 0.7660	41.3540
 0.7670	41.4080
 0.7680	41.4800
 0.7690	41.5300
 0.7700	41.5600
 0.7710	41.5870
 0.7720	41.6360
 0.7730	41.6800
 0.7740	41.7120
 0.7750	41.7330
 0.7760	41.7350
 0.7770	41.7720
 0.7780	41.8280
 0.7790	41.8550
 0.7800	41.8780
 0.7810	41.8980
 0.7820	41.9190
 0.7830	41.9440
 0.7840	41.9530
 0.7850	41.9540
 0.7860	41.9620
 0.7870	42.0030
 0.7880	42.0310
 0.7890	42.0360
 0.7900	42.0280
 0.7910	42.0330
 0.7920	42.0510
 0.7930	42.0690
 0.7940	42.0660
 0.7950	42.0610
 0.7960	42.0590
 0.7970	42.0700
 0.7980	42.1100
 0.7990	42.0980
 0.8000	42.0840
 0.8010	42.1090
 0.8020	42.1110
 0.8030	42.1200
 0.8040	42.1250
 0.8050	42.1080
 0.8060	42.1130
 0.8070	42.1250
 0.8080	42.1310
 0.8090	42.1240
 0.8100	42.1040
 0.8110	42.1090
 0.8120	42.1360
 0.8130	42.1250
 0.8140	42.1160
 0.8150	42.1060
 0.8160	42.0880
 0.8170	42.1020
 0.8180	42.1100
 0.8190	42.1090
 0.8200	42.1080
 0.8210	42.1220
 0.8220	42.1330
 0.8230	42.1300
 0.8240	42.1130
 0.8250	42.1150
 0.8260	42.1290
 0.8270	42.1430
 0.8280	42.1520
 0.8290	42.1350
 0.8300	42.1190
 0.8310	42.1250
 0.8320	42.1120
 0.8330	42.1290
 0.8340	42.1680
 0.8350	42.1920
 0.8360	42.1680
 0.8370	42.1600
 0.8380	42.1820
 0.8390	42.1980
 0.8400	42.2090
 0.8410	42.2110
 0.8420	42.2170
 0.8430	42.2590
 0.8440	42.2720
 0.8450	42.2590
 0.8460	42.2460
 0.8470	42.2750
 0.8480	42.3160
 0.8490	42.3470
 0.8500	42.3570
 0.8510	42.3670
 0.8520	42.3830
 0.8530	42.3990
 0.8540	42.4040
 0.8550	42.4460
 0.8560	42.4760
 0.8570	42.4760
 0.8580	42.4650
 0.8590	42.4970
 0.8600	42.5230
 0.8610	42.5170
 0.8620	42.5250
 0.8630	42.5700
 0.8640	42.6060
 0.8650	42.6000
 0.8660	42.6150
 0.8670	42.6580
 0.8680	42.6930
 0.8690	42.6840
 0.8700	42.6650
 0.8710	42.6810
 0.8720	42.7190
 0.8730	42.7330
 0.8740	42.7470
 0.8750	42.7680
 0.8760	42.7920
 0.8770	42.8060
 0.8780	42.8260
 0.8790	42.8390
 0.8800	42.8430
 0.8810	42.8610
 0.8820	42.8590
 0.8830	42.8690
 0.8840	42.9030
 0.8850	42.9040
 0.8860	42.9080
 0.8870	42.9190
 0.8880	42.9330
 0.8890	42.9560
 0.8900	42.9680
 0.8910	42.9680
 0.8920	42.9650
 0.8930	42.9640
 0.8940	42.9770
 0.8950	42.9950
 0.8960	43.0030
 0.8970	43.0080
 0.8980	43.0110
 0.8990	43.0110
 0.9000	43.0070
 0.9010	42.9930
 0.9020	42.9880
 0.9030	42.9960
 0.9040	42.9900
 0.9050	42.9670
 0.9060	42.9620
 0.9070	42.9860
 0.9080	42.9900
 0.9090	43.0130
 0.9100	43.0130
 0.9110	42.9690
 0.9120	42.9670
 0.9130	42.9800
 0.9140	42.9960
 0.9150	43.0030
 0.9160	42.9880
 0.9170	42.9850
 0.9180	42.9720
 0.9190	42.9310
 0.9200	42.9550
 0.9210	42.9350
 0.9220	42.8880
 0.9230	42.8880
 0.9240	42.8830
 0.9250	42.8860
 0.9260	42.8740
 0.9270	42.8140
 0.9280	42.7910
 0.9290	42.7670
 0.9300	42.7240
 0.9310	42.6770
 0.9320	42.6600
 0.9330	42.6710
 0.9340	42.6640
 0.9350	42.5630
 0.9360	42.5630
 0.9370	42.5400
 0.9380	42.4390
 0.9390	42.3880
 0.9400	42.3210
 0.9410	42.2580
 0.9420	42.2250
 0.9430	42.2330
 0.9440	42.1400
 0.9450	42.0270
 0.9460	41.9740
 0.9470	41.9410
 0.9480	41.8340
 0.9490	41.7500
 0.9500	41.7410
 0.9510	41.6100
 0.9520	41.5080
 0.9530	41.4120
 0.9540	41.2780
 0.9550	41.1440
 0.9560	41.0530
 0.9570	40.9870
 0.9580	40.9000
 0.9590	40.7300
 0.9600	40.6890
 0.9610	40.7010
 0.9620	40.6180
 0.9630	40.4630
 0.9640	40.3770
 0.9650	40.3610
 0.9660	40.3480
 0.9670	40.3110
 0.9680	40.2240
 0.9690	40.1710
 0.9700	40.2280
 0.9710	40.2410
 0.9720	40.2290
 0.9730	40.1780
 0.9740	40.0810
 0.9750	39.9960
 0.9760	39.9570
 0.9770	40.0090
 0.9780	40.1330
 0.9790	40.0530
 0.9800	40.0020
 0.9810	40.0280
 0.9820	40.0550
 0.9830	39.9770
 0.9840	39.9650
 0.9850	39.9970
 0.9860	39.9790
 0.9870	40.0200
 0.9880	40.0740
 0.9890	40.1170
 0.9900	40.1390
 0.9910	40.1340
 0.9920	40.0960
 0.9930	40.0760
 0.9940	40.1370
 0.9950	40.2640
 0.9960	40.3280
 0.9970	40.3240
 0.9980	40.3160
 0.9990	40.3270
 1.0000	40.3270
 1.0010	40.9340
 1.0020	40.9660
 1.0030	41.0010
 1.0040	41.0200
 1.0050	41.0620
 1.0060	41.1180
 1.0070	41.1700
 1.0080	41.2170
 1.0090	41.2730
 1.0100	41.3220
 1.0110	41.3510
 1.0120	41.3980
 1.0130	41.4670
 1.0140	41.5160
 1.0150	41.5660
 1.0160	41.5900
 1.0170	41.6360
 1.0180	41.6730
 1.0190	41.7170
 1.0200	41.7860
 1.0210	41.8350
 1.0220	41.8610
 1.0230	41.8940
 1.0240	41.9210
 1.0250	41.9590
 1.0260	41.9900
 1.0270	42.0380
 1.0280	42.1040
 1.0290	42.1580
 1.0300	42.2230
 1.0310	42.2770
 1.0320	42.3350
 1.0330	42.3630
 1.0340	42.3940
 1.0350	42.4280
 1.0360	42.4430
 1.0370	42.4660
 1.0380	42.5000
 1.0390	42.5450
 1.0400	42.5720
 1.0410	42.5970
 1.0420	42.6300
 1.0430	42.6520
 1.0440	42.6890
 1.0450	42.7520
 1.0460	42.7950
 1.0470	42.8300
 1.0480	42.8590
 1.0490	42.8650
 1.0500	42.8910
 1.0510	42.9120
 1.0520	42.9580
 1.0530	42.9870
 1.0540	43.0240
 1.0550	43.0540
 1.0560	43.0800
 1.0570	43.0880
 1.0580	43.0850
 1.0590	43.0950
 1.0600	43.0820
 1.0610	43.0940
 1.0620	43.1310
 1.0630	43.1640
 1.0640	43.2100
 1.0650	43.2420
 1.0660	43.2760
 1.0670	43.2980
 1.0680	43.3110
 1.0690	43.3090
 1.0700	43.3070
 1.0710	43.2900
 1.0720	43.2970
 1.0730	43.3060
 1.0740	43.3220
 1.0750	43.3710
 1.0760	43.3820
 1.0770	43.3690
 1.0780	43.3720
 1.0790	43.3660
 1.0800	43.3640
 1.0810	43.3840
 1.0820	43.3800
 1.0830	43.3450
 1.0840	43.3320
 1.0850	43.3230
 1.0860	43.3120
 1.0870	43.3030
 1.0880	43.3040
 1.0890	43.3090
 1.0900	43.3170
 1.0910	43.3100
 1.0920	43.3120
 1.0930	43.2970
 1.0940	43.2490
 1.0950	43.2270
 1.0960	43.2170
 1.0970	43.2020
 1.0980	43.1900
 1.0990	43.1820
 1.1000	43.1860
 1.1010	43.1710
 1.1020	43.1510
 1.1030	43.1270
 1.1040	43.1040
 1.1050	43.0700
 1.1060	43.0540
 1.1070	43.0590
 1.1080	43.0400
 1.1090	43.0200
 1.1100	42.9930
 1.1110	42.9550
 1.1120	42.9170
 1.1130	42.8760
 1.1140	42.8310
 1.1150	42.7750
 1.1160	42.7310
 1.1170	42.7030
 1.1180	42.6580
 1.1190	42.6100
 1.1200	42.5620
 1.1210	42.5100
 1.1220	42.4420
 1.1230	42.3720
 1.1240	42.3020
 1.1250	42.2220
 1.1260	42.1290
 1.1270	42.0330
 1.1280	41.9350
 1.1290	41.8280
 1.1300	41.7160
 1.1310	41.5830
 1.1320	41.4500
 1.1330	41.2880
 1.1340	41.0930
 1.1350	40.9070
 1.1360	40.7040
 1.1370	40.5050
 1.1380	40.3140
 1.1390	40.1140
 1.1400	39.9130
 1.1410	39.6910
 1.1420	39.4610
 1.1430	39.2330
 1.1440	39.0000
 1.1450	38.7580
 1.1460	38.5320
 1.1470	38.3030
 1.1480	38.0900
 1.1490	37.8910
 1.1500	37.6960
 1.1510	37.5030
 1.1520	37.3280
 1.1530	37.1680
 1.1540	37.0100
 1.1550	36.8580
 1.1560	36.7280
 1.1570	36.5960
 1.1580	36.4680
 1.1590	36.3610
 1.1600	36.2600
 1.1610	36.1760
 1.1620	36.1060
 1.1630	36.0380
 1.1640	35.9800
 1.1650	35.9180
 1.1660	35.8510
 1.1670	35.7980
 1.1680	35.7540
 1.1690	35.7040
 1.1700	35.6580
 1.1710	35.6130
 1.1720	35.5620
 1.1730	35.5150
 1.1740	35.4780
 1.1750	35.4340
 1.1760	35.3800
 1.1770	35.3440
 1.1780	35.3000
 1.1790	35.2420
 1.1800	35.1920
 1.1810	35.1460
 1.1820	35.1100
 1.1830	35.0840
 1.1840	35.0580
 1.1850	35.0320
 1.1860	34.9980
 1.1870	34.9630
 1.1880	34.9310
 1.1890	34.8960
 1.1900	34.8640
 1.1910	34.8340
 1.1920	34.8080
 1.1930	34.7880
 1.1940	34.7680
 1.1950	34.7510
 1.1960	34.7360
 1.1970	34.7120
 1.1980	34.6920
 1.1990	34.6810
 1.2000	34.6780
 1.2010	34.6930
 1.2020	34.7110
 1.2030	34.7200
 1.2040	34.7290
 1.2050	34.7390
 1.2060	34.7520
 1.2070	34.7850
 1.2080	34.8170
 1.2090	34.8350
 1.2100	34.8600
 1.2110	34.8840
 1.2120	34.8900
 1.2130	34.9210
 1.2140	34.9690
 1.2150	35.0130
 1.2160	35.0600
 1.2170	35.1160
 1.2180	35.1690
 1.2190	35.2300
 1.2200	35.2900
 1.2210	35.3410
 1.2220	35.3980
 1.2230	35.4420
 1.2240	35.4860
 1.2250	35.5450
 1.2260	35.5970
 1.2270	35.6520
 1.2280	35.7070
 1.2290	35.7500
 1.2300	35.7960
 1.2310	35.8410
 1.2320	35.8870
 1.2330	35.9440
 1.2340	35.9940
 1.2350	36.0430
 1.2360	36.0870
 1.2370	36.1280
 1.2380	36.1610
 1.2390	36.1910
 1.2400	36.2200
 1.2410	36.2560
 1.2420	36.2920
 1.2430	36.3230
 1.2440	36.3540
 1.2450	36.3800
 1.2460	36.4100
 1.2470	36.4490
 1.2480	36.4850
 1.2490	36.5200
 1.2500	36.5540
 1.2510	36.5800
 1.2520	36.6090
 1.2530	36.6450
 1.2540	36.6630
 1.2550	36.6770
 1.2560	36.7040
 1.2570	36.7230
 1.2580	36.7330
 1.2590	36.7510
 1.2600	36.7790
 1.2610	36.7890
 1.2620	36.7900
 1.2630	36.8060
 1.2640	36.8130
 1.2650	36.8060
 1.2660	36.8070
 1.2670	36.8090
 1.2680	36.8000
 1.2690	36.7980
 1.2700	36.8050
 1.2710	36.7980
 1.2720	36.7980
 1.2730	36.8020
 1.2740	36.7920
 1.2750	36.7780
 1.2760	36.7600
 1.2770	36.7410
 1.2780	36.7250
 1.2790	36.7080
 1.2800	36.6900
 1.2810	36.6720
 1.2820	36.6490
 1.2830	36.6270
 1.2840	36.6050
 1.2850	36.5700
 1.2860	36.5340
 1.2870	36.5000
 1.2880	36.4650
 1.2890	36.4320
 1.2900	36.3980
 1.2910	36.3590
 1.2920	36.3210
 1.2930	36.2800
 1.2940	36.2300
 1.2950	36.1770
 1.2960	36.1120
 1.2970	36.0420
 1.2980	35.9780
 1.2990	35.9110
 1.3000	35.8320
 1.3010	35.7440
 1.3020	35.6530
 1.3030	35.5620
 1.3040	35.4810
 1.3050	35.3970
 1.3060	35.3130
 1.3070	35.2250
 1.3080	35.1150
 1.3090	35.0130
 1.3100	34.9140
 1.3110	34.7960
 1.3120	34.6900
 1.3130	34.5850
 1.3140	34.4640
 1.3150	34.3280
 1.3160	34.1950
 1.3170	34.0560
 1.3180	33.9100
 1.3190	33.7610
 1.3200	33.6140
 1.3210	33.4570
 1.3220	33.2840
 1.3230	33.1160
 1.3240	32.9530
 1.3250	32.7900
 1.3260	32.6330
 1.3270	32.4800
 1.3280	32.3130
 1.3290	32.1350
 1.3300	31.9590
 1.3310	31.7780
 1.3320	31.5980
 1.3330	31.4160
 1.3340	31.2400
 1.3350	31.0700
 1.3360	30.8920
 1.3370	30.7210
 1.3380	30.5580
 1.3390	30.3850
 1.3400	30.2130
 1.3410	30.0450
 1.3420	29.8680
 1.3430	29.6900
 1.3440	29.5150
 1.3450	29.3540
 1.3460	29.2060
 1.3470	29.0560
 1.3480	28.9130
 1.3490	28.7670
 1.3500	28.6190
 1.3510	28.4620
 1.3520	28.3160
 1.3530	28.1710
 1.3540	28.0240
 1.3550	27.8730
 1.3560	27.7220
 1.3570	27.5820
 1.3580	27.4420
 1.3590	27.3100
 1.3600	27.1780
 1.3610	27.0320
 1.3620	26.8810
 1.3630	26.7230
 1.3640	26.5580
 1.3650	26.3890
 1.3660	26.2130
 1.3670	26.0310
 1.3680	25.8400
 1.3690	25.6430
 1.3700	25.4350
 1.3710	25.2150
 1.3720	24.9850
 1.3730	24.7360
 1.3740	24.4680
 1.3750	24.1910
 1.3760	23.8980
 1.3770	23.5860
 1.3780	23.2580
 1.3790	22.9150
 1.3800	22.5570
 1.3810	22.1800
 1.3820	21.7900
 1.3830	21.3880
 1.3840	20.9700
 1.3850	20.5330
 1.3860	20.0920
 1.3870	19.6300
 1.3880	19.1790
 1.3890	18.7260
 1.3900	18.2700
 1.3910	17.8220
 1.3920	17.3750
 1.3930	16.9240
 1.3940	16.4840
 1.3950	16.0460
 1.3960	15.6160
 1.3970	15.2010
 1.3980	14.7940
 1.3990	14.4070
 1.4000	14.0400
 1.4010	13.6870
 1.4020	13.3520
 1.4030	13.0300
 1.4040	12.7180
 1.4050	12.4220
 1.4060	12.1430
 1.4070	11.8830
 1.4080	11.6380
 1.4090	11.4060
 1.4100	11.1850
 1.4110	10.9750
 1.4120	10.7780
 1.4130	10.5960
 1.4140	10.4280
 1.4150	10.2720
 1.4160	10.1290
 1.4170	 9.9970
 1.4180	 9.8700
 1.4190	 9.7530
 1.4200	 9.6420
 1.4210	 9.5340
 1.4220	 9.4390
 1.4230	 9.3520
 1.4240	 9.2700
 1.4250	 9.1930
 1.4260	 9.1220
 1.4270	 9.0580
 1.4280	 8.9980
 1.4290	 8.9440
 1.4300	 8.8970
 1.4310	 8.8510
 1.4320	 8.8070
 1.4330	 8.7670
 1.4340	 8.7270
 1.4350	 8.6940
 1.4360	 8.6670
 1.4370	 8.6370
 1.4380	 8.6120
 1.4390	 8.5960
 1.4400	 8.5780
 1.4410	 8.5650
 1.4420	 8.5550
 1.4430	 8.5430
 1.4440	 8.5320
 1.4450	 8.5210
 1.4460	 8.5100
 1.4470	 8.5060
 1.4480	 8.5040
 1.4490	 8.5050
 1.4500	 8.5030
 1.4510	 8.5000
 1.4520	 8.5020
 1.4530	 8.5060
 1.4540	 8.5120
 1.4550	 8.5220
 1.4560	 8.5290
 1.4570	 8.5340
 1.4580	 8.5390
 1.4590	 8.5450
 1.4600	 8.5530
 1.4610	 8.5690
 1.4620	 8.5900
 1.4630	 8.6120
 1.4640	 8.6400
 1.4650	 8.6660
 1.4660	 8.6940
 1.4670	 8.7270
 1.4680	 8.7590
 1.4690	 8.7930
 1.4700	 8.8280
 1.4710	 8.8710
 1.4720	 8.9170
 1.4730	 8.9650
 1.4740	 9.0160
 1.4750	 9.0610
 1.4760	 9.1070
 1.4770	 9.1590
 1.4780	 9.2120
 1.4790	 9.2760
 1.4800	 9.3410
 1.4810	 9.3980
 1.4820	 9.4590
