Name: Macadamia integrifolia
Type: vegetation
Class: Tree
Genus: Macadamia
Species: integrifolia
Sample No.: JPL211
Owner: JPL
Wavelength Range: VSWIR
Origin: 34.12588; -118.11178; WGS84
Collection Date: 10/3/2016
Description: Samples were collected at the Huntington Garden in San Marino California as part of a JPL Subcontract studying HyTES imagery. Samples were taken to JPL and processed within 48 hours of collection. The same leaves were processed in the Nicolet and then measured using the ASD.
Measurement: Bidirectional reflectance
First Column: X
Second Column: Y
X Units: Wavelength (micrometer)
Y Units: Reflectance (percentage)
First X Value: 0.35
Last X Value: 2.5
Number of X Values: 2151
Additional Information: vegetation.tree.macadamia.integrifolia.vswir.jpl211.jpl.asd.ancillary.txt

 0.3500	 8.1840
 0.3510	 8.2850
 0.3520	 8.2560
 0.3530	 8.1850
 0.3540	 8.1860
 0.3550	 8.1320
 0.3560	 8.0940
 0.3570	 8.0980
 0.3580	 8.1300
 0.3590	 8.0350
 0.3600	 7.9760
 0.3610	 8.0150
 0.3620	 8.0260
 0.3630	 8.0130
 0.3640	 7.9790
 0.3650	 7.9410
 0.3660	 7.9480
 0.3670	 7.9760
 0.3680	 7.9920
 0.3690	 7.9600
 0.3700	 7.9520
 0.3710	 7.9390
 0.3720	 7.9100
 0.3730	 7.9040
 0.3740	 7.9070
 0.3750	 7.8920
 0.3760	 7.8460
 0.3770	 7.8460
 0.3780	 7.8470
 0.3790	 7.8320
 0.3800	 7.8170
 0.3810	 7.8350
 0.3820	 7.8620
 0.3830	 7.8710
 0.3840	 7.8450
 0.3850	 7.8540
 0.3860	 7.8590
 0.3870	 7.8040
 0.3880	 7.7820
 0.3890	 7.8020
 0.3900	 7.8350
 0.3910	 7.8200
 0.3920	 7.8110
 0.3930	 7.8180
 0.3940	 7.8320
 0.3950	 7.8190
 0.3960	 7.8250
 0.3970	 7.8300
 0.3980	 7.7920
 0.3990	 7.7780
 0.4000	 7.7860
 0.4010	 7.7980
 0.4020	 7.7870
 0.4030	 7.7690
 0.4040	 7.7660
 0.4050	 7.7830
 0.4060	 7.7770
 0.4070	 7.7640
 0.4080	 7.7510
 0.4090	 7.7450
 0.4100	 7.7750
 0.4110	 7.7840
 0.4120	 7.7500
 0.4130	 7.7340
 0.4140	 7.7570
 0.4150	 7.7800
 0.4160	 7.7610
 0.4170	 7.7500
 0.4180	 7.7490
 0.4190	 7.7540
 0.4200	 7.7560
 0.4210	 7.7560
 0.4220	 7.7510
 0.4230	 7.7430
 0.4240	 7.7450
 0.4250	 7.7480
 0.4260	 7.7470
 0.4270	 7.7400
 0.4280	 7.7410
 0.4290	 7.7390
 0.4300	 7.7260
 0.4310	 7.7050
 0.4320	 7.6920
 0.4330	 7.6750
 0.4340	 7.6450
 0.4350	 7.6380
 0.4360	 7.6420
 0.4370	 7.6500
 0.4380	 7.6610
 0.4390	 7.6760
 0.4400	 7.6890
 0.4410	 7.6980
 0.4420	 7.7110
 0.4430	 7.7140
 0.4440	 7.7140
 0.4450	 7.7200
 0.4460	 7.7210
 0.4470	 7.7280
 0.4480	 7.7410
 0.4490	 7.7450
 0.4500	 7.7430
 0.4510	 7.7430
 0.4520	 7.7530
 0.4530	 7.7620
 0.4540	 7.7630
 0.4550	 7.7620
 0.4560	 7.7680
 0.4570	 7.7650
 0.4580	 7.7650
 0.4590	 7.7740
 0.4600	 7.7740
 0.4610	 7.7820
 0.4620	 7.7900
 0.4630	 7.7870
 0.4640	 7.7880
 0.4650	 7.7890
 0.4660	 7.7900
 0.4670	 7.7950
 0.4680	 7.7970
 0.4690	 7.7990
 0.4700	 7.7990
 0.4710	 7.7980
 0.4720	 7.8010
 0.4730	 7.8070
 0.4740	 7.8090
 0.4750	 7.8070
 0.4760	 7.8080
 0.4770	 7.8140
 0.4780	 7.8230
 0.4790	 7.8240
 0.4800	 7.8210
 0.4810	 7.8190
 0.4820	 7.8100
 0.4830	 7.8020
 0.4840	 7.8000
 0.4850	 7.8020
 0.4860	 7.7980
 0.4870	 7.7960
 0.4880	 7.8010
 0.4890	 7.8150
 0.4900	 7.8240
 0.4910	 7.8310
 0.4920	 7.8460
 0.4930	 7.8660
 0.4940	 7.8820
 0.4950	 7.8920
 0.4960	 7.9120
 0.4970	 7.9420
 0.4980	 7.9730
 0.4990	 7.9950
 0.5000	 8.0320
 0.5010	 8.0720
 0.5020	 8.1110
 0.5030	 8.1580
 0.5040	 8.2130
 0.5050	 8.2740
 0.5060	 8.3400
 0.5070	 8.4100
 0.5080	 8.4950
 0.5090	 8.5950
 0.5100	 8.7080
 0.5110	 8.8280
 0.5120	 8.9630
 0.5130	 9.1170
 0.5140	 9.2830
 0.5150	 9.4670
 0.5160	 9.6650
 0.5170	 9.8740
 0.5180	10.0940
 0.5190	10.3250
 0.5200	10.5650
 0.5210	10.8070
 0.5220	11.0550
 0.5230	11.3040
 0.5240	11.5460
 0.5250	11.7750
 0.5260	11.9990
 0.5270	12.2140
 0.5280	12.4130
 0.5290	12.5980
 0.5300	12.7680
 0.5310	12.9240
 0.5320	13.0650
 0.5330	13.1890
 0.5340	13.2990
 0.5350	13.3970
 0.5360	13.4800
 0.5370	13.5480
 0.5380	13.6030
 0.5390	13.6420
 0.5400	13.6630
 0.5410	13.6690
 0.5420	13.6680
 0.5430	13.6770
 0.5440	13.7040
 0.5450	13.7510
 0.5460	13.8130
 0.5470	13.8820
 0.5480	13.9460
 0.5490	13.9950
 0.5500	14.0270
 0.5510	14.0510
 0.5520	14.0660
 0.5530	14.0670
 0.5540	14.0530
 0.5550	14.0200
 0.5560	13.9670
 0.5570	13.8970
 0.5580	13.8110
 0.5590	13.7110
 0.5600	13.5980
 0.5610	13.4780
 0.5620	13.3490
 0.5630	13.2170
 0.5640	13.0840
 0.5650	12.9420
 0.5660	12.7930
 0.5670	12.6400
 0.5680	12.4850
 0.5690	12.3280
 0.5700	12.1700
 0.5710	12.0120
 0.5720	11.8600
 0.5730	11.7150
 0.5740	11.5770
 0.5750	11.4460
 0.5760	11.3160
 0.5770	11.1930
 0.5780	11.0800
 0.5790	10.9740
 0.5800	10.8800
 0.5810	10.7970
 0.5820	10.7200
 0.5830	10.6450
 0.5840	10.5790
 0.5850	10.5220
 0.5860	10.4680
 0.5870	10.4130
 0.5880	10.3630
 0.5890	10.3220
 0.5900	10.2820
 0.5910	10.2430
 0.5920	10.2050
 0.5930	10.1690
 0.5940	10.1410
 0.5950	10.1170
 0.5960	10.0940
 0.5970	10.0700
 0.5980	10.0470
 0.5990	10.0230
 0.6000	 9.9980
 0.6010	 9.9770
 0.6020	 9.9520
 0.6030	 9.9210
 0.6040	 9.8840
 0.6050	 9.8420
 0.6060	 9.7950
 0.6070	 9.7440
 0.6080	 9.6920
 0.6090	 9.6200
 0.6100	 9.5230
 0.6110	 9.4120
 0.6120	 9.3590
 0.6130	 9.3380
 0.6140	 9.3230
 0.6150	 9.2900
 0.6160	 9.2550
 0.6170	 9.2190
 0.6180	 9.1800
 0.6190	 9.1400
 0.6200	 9.1030
 0.6210	 9.0720
 0.6220	 9.0480
 0.6230	 9.0290
 0.6240	 9.0150
 0.6250	 9.0040
 0.6260	 8.9960
 0.6270	 8.9890
 0.6280	 8.9830
 0.6290	 8.9790
 0.6300	 8.9700
 0.6310	 8.9640
 0.6320	 8.9610
 0.6330	 8.9550
 0.6340	 8.9410
 0.6350	 8.9200
 0.6360	 8.8940
 0.6370	 8.8620
 0.6380	 8.8230
 0.6390	 8.7790
 0.6400	 8.7360
 0.6410	 8.6910
 0.6420	 8.6450
 0.6430	 8.5990
 0.6440	 8.5540
 0.6450	 8.5090
 0.6460	 8.4650
 0.6470	 8.4250
 0.6480	 8.3910
 0.6490	 8.3620
 0.6500	 8.3380
 0.6510	 8.3220
 0.6520	 8.3080
 0.6530	 8.2980
 0.6540	 8.2900
 0.6550	 8.2810
 0.6560	 8.2730
 0.6570	 8.2630
 0.6580	 8.2520
 0.6590	 8.2450
 0.6600	 8.2390
 0.6610	 8.2320
 0.6620	 8.2230
 0.6630	 8.2170
 0.6640	 8.2160
 0.6650	 8.2180
 0.6660	 8.2220
 0.6670	 8.2300
 0.6680	 8.2420
 0.6690	 8.2530
 0.6700	 8.2710
 0.6710	 8.2920
 0.6720	 8.3150
 0.6730	 8.3430
 0.6740	 8.3740
 0.6750	 8.4100
 0.6760	 8.4490
 0.6770	 8.4910
 0.6780	 8.5360
 0.6790	 8.5850
 0.6800	 8.6400
 0.6810	 8.6970
 0.6820	 8.7550
 0.6830	 8.8160
 0.6840	 8.8810
 0.6850	 8.9500
 0.6860	 9.0220
 0.6870	 9.1020
 0.6880	 9.1980
 0.6890	 9.3220
 0.6900	 9.4860
 0.6910	 9.6990
 0.6920	 9.9720
 0.6930	10.3200
 0.6940	10.7570
 0.6950	11.2840
 0.6960	11.8980
 0.6970	12.5980
 0.6980	13.3770
 0.6990	14.2290
 0.7000	15.1420
 0.7010	16.1060
 0.7020	17.1140
 0.7030	18.1470
 0.7040	19.1970
 0.7050	20.2570
 0.7060	21.3250
 0.7070	22.3970
 0.7080	23.4690
 0.7090	24.5410
 0.7100	25.6150
 0.7110	26.6870
 0.7120	27.7550
 0.7130	28.8210
 0.7140	29.8850
 0.7150	30.9430
 0.7160	31.9910
 0.7170	33.0300
 0.7180	34.0580
 0.7190	35.0740
 0.7200	36.0760
 0.7210	37.0600
 0.7220	38.0250
 0.7230	38.9660
 0.7240	39.8830
 0.7250	40.7690
 0.7260	41.6270
 0.7270	42.4570
 0.7280	43.2530
 0.7290	44.0150
 0.7300	44.7430
 0.7310	45.4390
 0.7320	46.1000
 0.7330	46.7260
 0.7340	47.3190
 0.7350	47.8770
 0.7360	48.4020
 0.7370	48.8940
 0.7380	49.3520
 0.7390	49.7810
 0.7400	50.1810
 0.7410	50.5500
 0.7420	50.8890
 0.7430	51.2030
 0.7440	51.4880
 0.7450	51.7440
 0.7460	51.9750
 0.7470	52.1850
 0.7480	52.3730
 0.7490	52.5410
 0.7500	52.6910
 0.7510	52.8240
 0.7520	52.9430
 0.7530	53.0470
 0.7540	53.1390
 0.7550	53.2200
 0.7560	53.2910
 0.7570	53.3560
 0.7580	53.4120
 0.7590	53.4600
 0.7600	53.5020
 0.7610	53.5350
 0.7620	53.5660
 0.7630	53.5930
 0.7640	53.6120
 0.7650	53.6290
 0.7660	53.6390
 0.7670	53.6460
 0.7680	53.6510
 0.7690	53.6540
 0.7700	53.6550
 0.7710	53.6550
 0.7720	53.6540
 0.7730	53.6500
 0.7740	53.6480
 0.7750	53.6480
 0.7760	53.6460
 0.7770	53.6440
 0.7780	53.6430
 0.7790	53.6420
 0.7800	53.6400
 0.7810	53.6370
 0.7820	53.6340
 0.7830	53.6330
 0.7840	53.6320
 0.7850	53.6320
 0.7860	53.6300
 0.7870	53.6290
 0.7880	53.6280
 0.7890	53.6260
 0.7900	53.6220
 0.7910	53.6160
 0.7920	53.6150
 0.7930	53.6150
 0.7940	53.6120
 0.7950	53.6060
 0.7960	53.6000
 0.7970	53.5950
 0.7980	53.5900
 0.7990	53.5830
 0.8000	53.5740
 0.8010	53.5660
 0.8020	53.5560
 0.8030	53.5500
 0.8040	53.5450
 0.8050	53.5380
 0.8060	53.5290
 0.8070	53.5220
 0.8080	53.5140
 0.8090	53.4980
 0.8100	53.4890
 0.8110	53.4790
 0.8120	53.4660
 0.8130	53.4580
 0.8140	53.4490
 0.8150	53.4390
 0.8160	53.4300
 0.8170	53.4170
 0.8180	53.4050
 0.8190	53.3950
 0.8200	53.3850
 0.8210	53.3750
 0.8220	53.3650
 0.8230	53.3560
 0.8240	53.3430
 0.8250	53.3330
 0.8260	53.3220
 0.8270	53.3110
 0.8280	53.3000
 0.8290	53.2910
 0.8300	53.2810
 0.8310	53.2680
 0.8320	53.2610
 0.8330	53.2520
 0.8340	53.2420
 0.8350	53.2350
 0.8360	53.2270
 0.8370	53.2190
 0.8380	53.2120
 0.8390	53.2050
 0.8400	53.1990
 0.8410	53.1960
 0.8420	53.1960
 0.8430	53.1910
 0.8440	53.1890
 0.8450	53.1860
 0.8460	53.1790
 0.8470	53.1800
 0.8480	53.1810
 0.8490	53.1790
 0.8500	53.1720
 0.8510	53.1710
 0.8520	53.1700
 0.8530	53.1700
 0.8540	53.1710
 0.8550	53.1720
 0.8560	53.1710
 0.8570	53.1700
 0.8580	53.1730
 0.8590	53.1750
 0.8600	53.1790
 0.8610	53.1840
 0.8620	53.1870
 0.8630	53.1850
 0.8640	53.1850
 0.8650	53.1900
 0.8660	53.1940
 0.8670	53.2010
 0.8680	53.2050
 0.8690	53.2030
 0.8700	53.2050
 0.8710	53.2100
 0.8720	53.2160
 0.8730	53.2210
 0.8740	53.2220
 0.8750	53.2250
 0.8760	53.2310
 0.8770	53.2370
 0.8780	53.2450
 0.8790	53.2500
 0.8800	53.2500
 0.8810	53.2560
 0.8820	53.2620
 0.8830	53.2660
 0.8840	53.2690
 0.8850	53.2700
 0.8860	53.2750
 0.8870	53.2800
 0.8880	53.2790
 0.8890	53.2870
 0.8900	53.2960
 0.8910	53.3020
 0.8920	53.3030
 0.8930	53.3060
 0.8940	53.3050
 0.8950	53.3050
 0.8960	53.3150
 0.8970	53.3200
 0.8980	53.3220
 0.8990	53.3230
 0.9000	53.3250
 0.9010	53.3240
 0.9020	53.3280
 0.9030	53.3380
 0.9040	53.3370
 0.9050	53.3380
 0.9060	53.3410
 0.9070	53.3440
 0.9080	53.3480
 0.9090	53.3470
 0.9100	53.3450
 0.9110	53.3440
 0.9120	53.3440
 0.9130	53.3430
 0.9140	53.3420
 0.9150	53.3430
 0.9160	53.3400
 0.9170	53.3400
 0.9180	53.3390
 0.9190	53.3320
 0.9200	53.3320
 0.9210	53.3280
 0.9220	53.3210
 0.9230	53.3180
 0.9240	53.3100
 0.9250	53.3040
 0.9260	53.2980
 0.9270	53.2870
 0.9280	53.2700
 0.9290	53.2560
 0.9300	53.2480
 0.9310	53.2430
 0.9320	53.2250
 0.9330	53.2040
 0.9340	53.1870
 0.9350	53.1670
 0.9360	53.1490
 0.9370	53.1400
 0.9380	53.1310
 0.9390	53.0960
 0.9400	53.0700
 0.9410	53.0540
 0.9420	53.0370
 0.9430	53.0030
 0.9440	52.9790
 0.9450	52.9540
 0.9460	52.9200
 0.9470	52.8920
 0.9480	52.8540
 0.9490	52.8100
 0.9500	52.7650
 0.9510	52.7170
 0.9520	52.6780
 0.9530	52.6390
 0.9540	52.5910
 0.9550	52.5390
 0.9560	52.4960
 0.9570	52.4530
 0.9580	52.4040
 0.9590	52.3680
 0.9600	52.3270
 0.9610	52.2910
 0.9620	52.2700
 0.9630	52.2400
 0.9640	52.2070
 0.9650	52.1820
 0.9660	52.1690
 0.9670	52.1370
 0.9680	52.1100
 0.9690	52.0940
 0.9700	52.0840
 0.9710	52.0780
 0.9720	52.0700
 0.9730	52.0510
 0.9740	52.0230
 0.9750	52.0130
 0.9760	52.0120
 0.9770	52.0100
 0.9780	52.0010
 0.9790	51.9870
 0.9800	51.9940
 0.9810	52.0040
 0.9820	51.9880
 0.9830	51.9820
 0.9840	51.9890
 0.9850	52.0000
 0.9860	52.0000
 0.9870	52.0080
 0.9880	52.0020
 0.9890	51.9950
 0.9900	52.0060
 0.9910	52.0120
 0.9920	52.0160
 0.9930	52.0210
 0.9940	52.0290
 0.9950	52.0510
 0.9960	52.0720
 0.9970	52.0840
 0.9980	52.0860
 0.9990	52.0940
 1.0000	52.1030
 1.0010	51.6610
 1.0020	51.6740
 1.0030	51.6890
 1.0040	51.7060
 1.0050	51.7230
 1.0060	51.7400
 1.0070	51.7590
 1.0080	51.7770
 1.0090	51.7910
 1.0100	51.8070
 1.0110	51.8230
 1.0120	51.8380
 1.0130	51.8490
 1.0140	51.8640
 1.0150	51.8790
 1.0160	51.8980
 1.0170	51.9170
 1.0180	51.9320
 1.0190	51.9470
 1.0200	51.9580
 1.0210	51.9700
 1.0220	51.9890
 1.0230	52.0050
 1.0240	52.0240
 1.0250	52.0410
 1.0260	52.0600
 1.0270	52.0770
 1.0280	52.0940
 1.0290	52.1100
 1.0300	52.1250
 1.0310	52.1380
 1.0320	52.1490
 1.0330	52.1600
 1.0340	52.1700
 1.0350	52.1780
 1.0360	52.1900
 1.0370	52.2030
 1.0380	52.2170
 1.0390	52.2350
 1.0400	52.2470
 1.0410	52.2560
 1.0420	52.2660
 1.0430	52.2710
 1.0440	52.2800
 1.0450	52.2910
 1.0460	52.3010
 1.0470	52.3090
 1.0480	52.3190
 1.0490	52.3280
 1.0500	52.3370
 1.0510	52.3480
 1.0520	52.3570
 1.0530	52.3640
 1.0540	52.3700
 1.0550	52.3770
 1.0560	52.3850
 1.0570	52.3910
 1.0580	52.3950
 1.0590	52.4000
 1.0600	52.4030
 1.0610	52.4080
 1.0620	52.4140
 1.0630	52.4200
 1.0640	52.4270
 1.0650	52.4330
 1.0660	52.4420
 1.0670	52.4470
 1.0680	52.4490
 1.0690	52.4490
 1.0700	52.4530
 1.0710	52.4560
 1.0720	52.4590
 1.0730	52.4670
 1.0740	52.4690
 1.0750	52.4680
 1.0760	52.4700
 1.0770	52.4740
 1.0780	52.4750
 1.0790	52.4750
 1.0800	52.4770
 1.0810	52.4780
 1.0820	52.4780
 1.0830	52.4790
 1.0840	52.4800
 1.0850	52.4810
 1.0860	52.4800
 1.0870	52.4810
 1.0880	52.4850
 1.0890	52.4870
 1.0900	52.4900
 1.0910	52.4910
 1.0920	52.4910
 1.0930	52.4900
 1.0940	52.4870
 1.0950	52.4840
 1.0960	52.4820
 1.0970	52.4800
 1.0980	52.4790
 1.0990	52.4760
 1.1000	52.4730
 1.1010	52.4680
 1.1020	52.4600
 1.1030	52.4510
 1.1040	52.4460
 1.1050	52.4410
 1.1060	52.4380
 1.1070	52.4380
 1.1080	52.4320
 1.1090	52.4250
 1.1100	52.4180
 1.1110	52.4070
 1.1120	52.3990
 1.1130	52.3910
 1.1140	52.3820
 1.1150	52.3740
 1.1160	52.3630
 1.1170	52.3510
 1.1180	52.3360
 1.1190	52.3180
 1.1200	52.2980
 1.1210	52.2770
 1.1220	52.2540
 1.1230	52.2310
 1.1240	52.2060
 1.1250	52.1760
 1.1260	52.1440
 1.1270	52.1070
 1.1280	52.0680
 1.1290	52.0220
 1.1300	51.9710
 1.1310	51.9150
 1.1320	51.8540
 1.1330	51.7890
 1.1340	51.7210
 1.1350	51.6470
 1.1360	51.5680
 1.1370	51.4850
 1.1380	51.3950
 1.1390	51.3020
 1.1400	51.2050
 1.1410	51.1060
 1.1420	51.0070
 1.1430	50.9050
 1.1440	50.8040
 1.1450	50.7020
 1.1460	50.6010
 1.1470	50.4980
 1.1480	50.3990
 1.1490	50.2990
 1.1500	50.2060
 1.1510	50.1160
 1.1520	50.0320
 1.1530	49.9520
 1.1540	49.8770
 1.1550	49.8050
 1.1560	49.7400
 1.1570	49.6790
 1.1580	49.6250
 1.1590	49.5770
 1.1600	49.5330
 1.1610	49.4930
 1.1620	49.4550
 1.1630	49.4200
 1.1640	49.3880
 1.1650	49.3580
 1.1660	49.3310
 1.1670	49.3080
 1.1680	49.2880
 1.1690	49.2680
 1.1700	49.2520
 1.1710	49.2340
 1.1720	49.2150
 1.1730	49.1980
 1.1740	49.1830
 1.1750	49.1670
 1.1760	49.1510
 1.1770	49.1340
 1.1780	49.1150
 1.1790	49.0970
 1.1800	49.0810
 1.1810	49.0660
 1.1820	49.0480
 1.1830	49.0280
 1.1840	49.0100
 1.1850	48.9910
 1.1860	48.9740
 1.1870	48.9580
 1.1880	48.9420
 1.1890	48.9250
 1.1900	48.9100
 1.1910	48.8980
 1.1920	48.8850
 1.1930	48.8720
 1.1940	48.8620
 1.1950	48.8520
 1.1960	48.8440
 1.1970	48.8390
 1.1980	48.8350
 1.1990	48.8320
 1.2000	48.8280
 1.2010	48.8260
 1.2020	48.8280
 1.2030	48.8330
 1.2040	48.8400
 1.2050	48.8480
 1.2060	48.8560
 1.2070	48.8630
 1.2080	48.8740
 1.2090	48.8860
 1.2100	48.9000
 1.2110	48.9150
 1.2120	48.9310
 1.2130	48.9490
 1.2140	48.9670
 1.2150	48.9860
 1.2160	49.0080
 1.2170	49.0330
 1.2180	49.0570
 1.2190	49.0790
 1.2200	49.1030
 1.2210	49.1270
 1.2220	49.1520
 1.2230	49.1790
 1.2240	49.2060
 1.2250	49.2330
 1.2260	49.2610
 1.2270	49.2860
 1.2280	49.3110
 1.2290	49.3360
 1.2300	49.3600
 1.2310	49.3840
 1.2320	49.4070
 1.2330	49.4280
 1.2340	49.4490
 1.2350	49.4680
 1.2360	49.4880
 1.2370	49.5090
 1.2380	49.5280
 1.2390	49.5470
 1.2400	49.5670
 1.2410	49.5840
 1.2420	49.6000
 1.2430	49.6170
 1.2440	49.6320
 1.2450	49.6470
 1.2460	49.6630
 1.2470	49.6780
 1.2480	49.6910
 1.2490	49.7070
 1.2500	49.7210
 1.2510	49.7320
 1.2520	49.7440
 1.2530	49.7550
 1.2540	49.7620
 1.2550	49.7720
 1.2560	49.7810
 1.2570	49.7890
 1.2580	49.7970
 1.2590	49.8040
 1.2600	49.8090
 1.2610	49.8140
 1.2620	49.8180
 1.2630	49.8220
 1.2640	49.8240
 1.2650	49.8240
 1.2660	49.8240
 1.2670	49.8240
 1.2680	49.8240
 1.2690	49.8240
 1.2700	49.8240
 1.2710	49.8210
 1.2720	49.8150
 1.2730	49.8090
 1.2740	49.8020
 1.2750	49.7930
 1.2760	49.7870
 1.2770	49.7790
 1.2780	49.7690
 1.2790	49.7610
 1.2800	49.7500
 1.2810	49.7360
 1.2820	49.7220
 1.2830	49.7060
 1.2840	49.6900
 1.2850	49.6730
 1.2860	49.6550
 1.2870	49.6340
 1.2880	49.6120
 1.2890	49.5870
 1.2900	49.5620
 1.2910	49.5370
 1.2920	49.5110
 1.2930	49.4870
 1.2940	49.4580
 1.2950	49.4250
 1.2960	49.3930
 1.2970	49.3590
 1.2980	49.3230
 1.2990	49.2870
 1.3000	49.2490
 1.3010	49.2080
 1.3020	49.1670
 1.3030	49.1250
 1.3040	49.0800
 1.3050	49.0340
 1.3060	48.9860
 1.3070	48.9330
 1.3080	48.8780
 1.3090	48.8210
 1.3100	48.7620
 1.3110	48.7010
 1.3120	48.6380
 1.3130	48.5740
 1.3140	48.5070
 1.3150	48.4360
 1.3160	48.3620
 1.3170	48.2870
 1.3180	48.2060
 1.3190	48.1230
 1.3200	48.0370
 1.3210	47.9500
 1.3220	47.8620
 1.3230	47.7730
 1.3240	47.6810
 1.3250	47.5850
 1.3260	47.4890
 1.3270	47.3890
 1.3280	47.2860
 1.3290	47.1830
 1.3300	47.0770
 1.3310	46.9650
 1.3320	46.8540
 1.3330	46.7420
 1.3340	46.6260
 1.3350	46.5120
 1.3360	46.3970
 1.3370	46.2790
 1.3380	46.1620
 1.3390	46.0440
 1.3400	45.9260
 1.3410	45.8110
 1.3420	45.6980
 1.3430	45.5840
 1.3440	45.4710
 1.3450	45.3590
 1.3460	45.2450
 1.3470	45.1350
 1.3480	45.0280
 1.3490	44.9220
 1.3500	44.8170
 1.3510	44.7130
 1.3520	44.6080
 1.3530	44.5040
 1.3540	44.4000
 1.3550	44.2960
 1.3560	44.1910
 1.3570	44.0840
 1.3580	43.9750
 1.3590	43.8660
 1.3600	43.7520
 1.3610	43.6360
 1.3620	43.5140
 1.3630	43.3880
 1.3640	43.2570
 1.3650	43.1200
 1.3660	42.9790
 1.3670	42.8290
 1.3680	42.6700
 1.3690	42.5000
 1.3700	42.3170
 1.3710	42.1220
 1.3720	41.9150
 1.3730	41.6910
 1.3740	41.4550
 1.3750	41.2000
 1.3760	40.9230
 1.3770	40.6240
 1.3780	40.3000
 1.3790	39.9530
 1.3800	39.5830
 1.3810	39.1860
 1.3820	38.7670
 1.3830	38.3270
 1.3840	37.8630
 1.3850	37.3760
 1.3860	36.8710
 1.3870	36.3370
 1.3880	35.7970
 1.3890	35.2400
 1.3900	34.6690
 1.3910	34.0950
 1.3920	33.5120
 1.3930	32.9190
 1.3940	32.3260
 1.3950	31.7270
 1.3960	31.1330
 1.3970	30.5470
 1.3980	29.9670
 1.3990	29.4040
 1.4000	28.8530
 1.4010	28.3150
 1.4020	27.7980
 1.4030	27.2940
 1.4040	26.8110
 1.4050	26.3490
 1.4060	25.9040
 1.4070	25.4850
 1.4080	25.0870
 1.4090	24.7070
 1.4100	24.3520
 1.4110	24.0150
 1.4120	23.6960
 1.4130	23.3980
 1.4140	23.1170
 1.4150	22.8580
 1.4160	22.6150
 1.4170	22.3870
 1.4180	22.1760
 1.4190	21.9760
 1.4200	21.7890
 1.4210	21.6160
 1.4220	21.4550
 1.4230	21.3060
 1.4240	21.1690
 1.4250	21.0410
 1.4260	20.9220
 1.4270	20.8120
 1.4280	20.7120
 1.4290	20.6190
 1.4300	20.5350
 1.4310	20.4570
 1.4320	20.3870
 1.4330	20.3220
 1.4340	20.2630
 1.4350	20.2110
 1.4360	20.1630
 1.4370	20.1220
 1.4380	20.0860
 1.4390	20.0530
 1.4400	20.0270
 1.4410	20.0040
 1.4420	19.9840
 1.4430	19.9690
 1.4440	19.9570
 1.4450	19.9470
 1.4460	19.9410
 1.4470	19.9380
 1.4480	19.9380
 1.4490	19.9390
 1.4500	19.9430
 1.4510	19.9480
 1.4520	19.9550
 1.4530	19.9650
 1.4540	19.9790
 1.4550	19.9950
 1.4560	20.0130
 1.4570	20.0350
 1.4580	20.0590
 1.4590	20.0870
 1.4600	20.1190
 1.4610	20.1550
 1.4620	20.1970
 1.4630	20.2430
 1.4640	20.2930
 1.4650	20.3490
 1.4660	20.4090
 1.4670	20.4750
 1.4680	20.5460
 1.4690	20.6220
 1.4700	20.7020
 1.4710	20.7860
 1.4720	20.8740
 1.4730	20.9670
 1.4740	21.0640
 1.4750	21.1640
 1.4760	21.2690
