Name: Baccharis pilularis 1
Type: vegetation
Class: Shrub
Genus: Baccharis
Species: pilularis
Sample No.: VH109
Owner: UCSB
Wavelength Range: TIR
Origin: 34.5084; -119.7687; WGS84
Collection Date: 6/3/2013
Description: Samples were collected as part of the HyspIRI Airborne Campaign. 48 individual plants were sampled in three times in 2013 - spring  summer  and fall. The name of the sample includes a 1  2  or 3 which references a different individual of the species. Samples were taken to JPL and processed within 48 hours of collection. The same leaves were processed in the Nicolet and then measured using the ASD.
Measurement: Hemispherical reflectance
First Column: X
Second Column: Y
X Units: Wavelength (micrometers)
Y Units: Reflectance (percentage)
First X Value: 2.501
Last X Value: 15.387
Number of X Values: 1737
Additional Information: vegetation.shrub.baccharis.pilularis.tir.vh109.ucsb.nicolet.ancillary.txt

 2.5010	 5.3760
 2.5030	 5.3800
 2.5040	 5.5380
 2.5050	 5.5010
 2.5060	 5.5150
 2.5070	 5.4270
 2.5090	 5.3100
 2.5100	 5.2660
 2.5110	 5.4170
 2.5120	 5.4280
 2.5140	 5.4920
 2.5150	 5.5250
 2.5160	 5.4720
 2.5170	 5.3280
 2.5180	 5.2640
 2.5200	 5.2570
 2.5210	 5.3220
 2.5220	 5.3120
 2.5230	 5.4090
 2.5250	 5.4670
 2.5260	 5.5600
 2.5270	 5.5360
 2.5280	 5.5020
 2.5290	 5.3670
 2.5310	 5.3860
 2.5320	 5.4640
 2.5330	 5.4730
 2.5340	 5.3010
 2.5360	 5.2870
 2.5370	 5.3270
 2.5380	 5.3930
 2.5390	 5.4250
 2.5410	 5.3690
 2.5420	 5.3190
 2.5430	 5.4750
 2.5440	 5.4110
 2.5460	 5.3300
 2.5470	 5.3120
 2.5480	 5.3230
 2.5490	 5.2560
 2.5510	 5.3220
 2.5520	 5.3820
 2.5530	 5.4570
 2.5540	 5.4150
 2.5560	 5.4000
 2.5570	 5.4150
 2.5580	 5.4530
 2.5590	 5.3900
 2.5610	 5.3670
 2.5620	 5.3640
 2.5630	 5.4240
 2.5640	 5.3780
 2.5660	 5.4320
 2.5670	 5.4270
 2.5680	 5.3700
 2.5700	 5.2880
 2.5710	 5.4090
 2.5720	 5.4390
 2.5730	 5.3890
 2.5750	 5.4180
 2.5760	 5.4490
 2.5770	 5.3670
 2.5790	 5.4880
 2.5800	 5.4730
 2.5810	 5.4250
 2.5820	 5.3740
 2.5840	 5.4470
 2.5850	 5.3900
 2.5860	 5.3390
 2.5880	 5.2940
 2.5890	 5.4280
 2.5900	 5.4890
 2.5910	 5.4280
 2.5930	 5.3790
 2.5940	 5.3350
 2.5950	 5.3250
 2.5970	 5.4950
 2.5980	 5.4360
 2.5990	 5.3910
 2.6000	 5.4770
 2.6020	 5.5660
 2.6030	 5.4160
 2.6040	 5.3260
 2.6060	 5.2780
 2.6070	 5.3690
 2.6080	 5.3660
 2.6100	 5.3370
 2.6110	 5.3310
 2.6120	 5.4230
 2.6140	 5.4050
 2.6150	 5.4920
 2.6160	 5.4450
 2.6180	 5.3440
 2.6190	 5.2480
 2.6200	 5.3000
 2.6220	 5.2700
 2.6230	 5.2420
 2.6240	 5.2410
 2.6260	 5.3120
 2.6270	 5.2710
 2.6280	 5.2660
 2.6300	 5.1400
 2.6310	 5.1030
 2.6320	 5.1010
 2.6340	 5.1370
 2.6350	 5.1790
 2.6360	 5.2440
 2.6380	 5.1790
 2.6390	 5.2080
 2.6400	 5.1970
 2.6420	 5.1850
 2.6430	 5.0870
 2.6440	 5.1160
 2.6460	 5.0720
 2.6470	 5.0410
 2.6480	 5.0020
 2.6500	 5.0330
 2.6510	 4.9210
 2.6520	 4.8840
 2.6540	 4.9990
 2.6550	 5.0470
 2.6560	 4.9780
 2.6580	 5.1380
 2.6590	 5.0980
 2.6610	 5.0030
 2.6620	 4.8970
 2.6630	 4.9210
 2.6650	 4.9880
 2.6660	 4.9850
 2.6670	 4.8620
 2.6690	 4.9270
 2.6700	 5.0070
 2.6720	 5.0660
 2.6730	 4.8980
 2.6740	 4.8900
 2.6760	 4.8680
 2.6770	 4.9120
 2.6780	 4.8880
 2.6800	 4.9130
 2.6810	 4.9150
 2.6830	 4.9330
 2.6840	 4.8580
 2.6850	 4.8730
 2.6870	 4.8410
 2.6880	 4.7570
 2.6900	 4.6700
 2.6910	 4.6950
 2.6920	 4.6640
 2.6940	 4.7560
 2.6950	 4.7550
 2.6970	 4.7770
 2.6980	 4.7670
 2.6990	 4.8050
 2.7010	 4.7900
 2.7020	 4.8340
 2.7040	 4.8350
 2.7050	 4.8280
 2.7060	 4.7260
 2.7080	 4.7370
 2.7090	 4.7430
 2.7110	 4.7660
 2.7120	 4.7400
 2.7130	 4.7550
 2.7150	 4.6400
 2.7160	 4.5580
 2.7180	 4.5750
 2.7190	 4.6010
 2.7210	 4.6340
 2.7220	 4.7010
 2.7230	 4.6080
 2.7250	 4.5620
 2.7260	 4.3990
 2.7280	 4.3920
 2.7290	 4.4500
 2.7310	 4.5610
 2.7320	 4.4300
 2.7330	 4.3700
 2.7350	 4.3440
 2.7360	 4.4360
 2.7380	 4.4710
 2.7390	 4.4600
 2.7410	 4.2910
 2.7420	 4.1360
 2.7440	 4.1200
 2.7450	 4.2050
 2.7470	 4.1680
 2.7480	 4.2140
 2.7490	 4.0700
 2.7510	 4.1820
 2.7520	 4.2630
 2.7540	 4.2450
 2.7550	 4.1690
 2.7570	 4.1440
 2.7580	 4.1150
 2.7600	 4.1630
 2.7610	 3.9880
 2.7630	 3.9420
 2.7640	 3.9910
 2.7660	 3.9810
 2.7670	 3.8480
 2.7680	 3.8540
 2.7700	 3.8800
 2.7710	 4.0590
 2.7730	 3.9470
 2.7740	 3.8340
 2.7760	 3.7690
 2.7770	 3.7460
 2.7790	 3.6840
 2.7800	 3.8220
 2.7820	 3.8690
 2.7830	 3.9040
 2.7850	 3.8600
 2.7860	 3.8040
 2.7880	 3.6840
 2.7890	 3.6670
 2.7910	 3.6850
 2.7920	 3.7920
 2.7940	 3.6970
 2.7950	 3.5830
 2.7970	 3.6290
 2.7980	 3.7900
 2.8000	 3.7380
 2.8010	 3.5810
 2.8030	 3.5310
 2.8040	 3.6330
 2.8060	 3.5760
 2.8070	 3.6530
 2.8090	 3.7080
 2.8110	 3.7000
 2.8120	 3.6750
 2.8140	 3.7130
 2.8150	 3.6560
 2.8170	 3.6390
 2.8180	 3.5680
 2.8200	 3.6390
 2.8210	 3.5830
 2.8230	 3.6070
 2.8240	 3.5190
 2.8260	 3.5250
 2.8270	 3.4370
 2.8290	 3.4770
 2.8300	 3.4050
 2.8320	 3.3770
 2.8340	 3.3790
 2.8350	 3.4570
 2.8370	 3.3770
 2.8380	 3.3830
 2.8400	 3.3840
 2.8410	 3.4270
 2.8430	 3.4440
 2.8440	 3.4340
 2.8460	 3.3560
 2.8480	 3.4350
 2.8490	 3.4590
 2.8510	 3.4590
 2.8520	 3.4140
 2.8540	 3.4420
 2.8550	 3.4820
 2.8570	 3.4890
 2.8590	 3.4570
 2.8600	 3.4670
 2.8620	 3.3860
 2.8630	 3.4190
 2.8650	 3.4540
 2.8660	 3.4170
 2.8680	 3.2910
 2.8700	 3.3030
 2.8710	 3.2780
 2.8730	 3.2720
 2.8740	 3.3390
 2.8760	 3.4980
 2.8780	 3.4910
 2.8790	 3.5140
 2.8810	 3.4420
 2.8820	 3.4480
 2.8840	 3.3820
 2.8860	 3.4610
 2.8870	 3.5070
 2.8890	 3.5050
 2.8900	 3.3570
 2.8920	 3.3850
 2.8940	 3.3090
 2.8950	 3.3170
 2.8970	 3.3450
 2.8980	 3.3930
 2.9000	 3.3120
 2.9020	 3.2740
 2.9030	 3.2770
 2.9050	 3.4350
 2.9070	 3.4750
 2.9080	 3.3870
 2.9100	 3.2820
 2.9120	 3.3830
 2.9130	 3.3660
 2.9150	 3.3810
 2.9160	 3.3290
 2.9180	 3.3200
 2.9200	 3.3110
 2.9210	 3.3540
 2.9230	 3.2710
 2.9250	 3.3210
 2.9260	 3.3820
 2.9280	 3.4030
 2.9300	 3.3700
 2.9310	 3.3580
 2.9330	 3.3680
 2.9350	 3.4990
 2.9360	 3.4730
 2.9380	 3.5310
 2.9400	 3.5440
 2.9410	 3.5830
 2.9430	 3.4210
 2.9450	 3.4120
 2.9460	 3.4490
 2.9480	 3.4630
 2.9500	 3.3940
 2.9510	 3.4070
 2.9530	 3.3850
 2.9550	 3.4380
 2.9560	 3.4240
 2.9580	 3.4060
 2.9600	 3.3780
 2.9610	 3.4890
 2.9630	 3.5000
 2.9650	 3.4310
 2.9660	 3.4760
 2.9680	 3.5240
 2.9700	 3.3660
 2.9720	 3.4460
 2.9730	 3.5360
 2.9750	 3.5070
 2.9770	 3.3060
 2.9780	 3.3060
 2.9800	 3.4150
 2.9820	 3.5540
 2.9840	 3.5650
 2.9850	 3.5940
 2.9870	 3.4480
 2.9890	 3.4500
 2.9900	 3.4650
 2.9920	 3.4070
 2.9940	 3.3610
 2.9960	 3.4440
 2.9970	 3.4550
 2.9990	 3.5030
 3.0010	 3.3470
 3.0030	 3.4000
 3.0040	 3.4280
 3.0060	 3.4150
 3.0080	 3.4610
 3.0100	 3.4710
 3.0110	 3.4060
 3.0130	 3.5420
 3.0150	 3.6090
 3.0170	 3.6150
 3.0180	 3.5740
 3.0200	 3.5500
 3.0220	 3.4230
 3.0240	 3.4660
 3.0250	 3.5150
 3.0270	 3.5930
 3.0290	 3.5870
 3.0310	 3.5190
 3.0320	 3.4430
 3.0340	 3.5460
 3.0360	 3.5460
 3.0380	 3.5720
 3.0400	 3.5100
 3.0410	 3.4780
 3.0430	 3.4960
 3.0450	 3.5690
 3.0470	 3.4810
 3.0480	 3.5170
 3.0500	 3.5560
 3.0520	 3.5410
 3.0540	 3.4650
 3.0560	 3.5740
 3.0570	 3.6510
 3.0590	 3.7280
 3.0610	 3.6370
 3.0630	 3.6360
 3.0650	 3.6010
 3.0660	 3.6720
 3.0680	 3.6370
 3.0700	 3.6400
 3.0720	 3.5610
 3.0740	 3.4930
 3.0760	 3.5720
 3.0770	 3.6420
 3.0790	 3.5340
 3.0810	 3.5070
 3.0830	 3.5440
 3.0850	 3.5740
 3.0870	 3.5900
 3.0880	 3.7120
 3.0900	 3.6290
 3.0920	 3.6120
 3.0940	 3.5720
 3.0960	 3.6210
 3.0980	 3.6830
 3.0990	 3.7160
 3.1010	 3.6700
 3.1030	 3.7920
 3.1050	 3.7390
 3.1070	 3.6240
 3.1090	 3.5420
 3.1110	 3.6010
 3.1120	 3.6010
 3.1140	 3.7370
 3.1160	 3.7250
 3.1180	 3.7290
 3.1200	 3.6090
 3.1220	 3.6650
 3.1240	 3.6950
 3.1260	 3.6620
 3.1270	 3.6750
 3.1290	 3.7530
 3.1310	 3.6540
 3.1330	 3.6810
 3.1350	 3.7330
 3.1370	 3.7520
 3.1390	 3.7200
 3.1410	 3.7810
 3.1430	 3.7940
 3.1450	 3.7220
 3.1460	 3.5840
 3.1480	 3.5810
 3.1500	 3.6300
 3.1520	 3.7220
 3.1540	 3.7140
 3.1560	 3.7550
 3.1580	 3.7580
 3.1600	 3.7610
 3.1620	 3.7010
 3.1640	 3.8370
 3.1660	 3.9050
 3.1680	 3.8840
 3.1700	 3.8580
 3.1710	 3.8910
 3.1730	 3.8500
 3.1750	 3.8780
 3.1770	 3.8000
 3.1790	 3.7530
 3.1810	 3.7260
 3.1830	 3.8050
 3.1850	 3.7830
 3.1870	 3.8750
 3.1890	 3.9340
 3.1910	 3.9410
 3.1930	 3.8760
 3.1950	 3.7930
 3.1970	 3.7180
 3.1990	 3.7580
 3.2010	 3.8360
 3.2030	 3.9660
 3.2050	 3.8890
 3.2070	 3.8570
 3.2090	 3.8770
 3.2110	 3.9620
 3.2130	 3.8530
 3.2150	 3.8030
 3.2170	 3.8130
 3.2190	 3.9180
 3.2210	 3.9080
 3.2230	 3.8580
 3.2250	 3.8650
 3.2270	 3.9160
 3.2290	 3.8810
 3.2310	 3.9160
 3.2330	 3.9380
 3.2350	 3.9060
 3.2370	 3.8250
 3.2390	 3.8790
 3.2410	 3.8930
 3.2430	 3.9200
 3.2450	 3.9300
 3.2470	 3.9360
 3.2490	 3.8970
 3.2510	 3.9470
 3.2530	 3.9730
 3.2550	 4.0030
 3.2570	 3.8880
 3.2590	 3.8730
 3.2610	 3.9170
 3.2630	 3.9430
 3.2650	 3.8410
 3.2670	 3.8690
 3.2690	 3.8850
 3.2720	 3.9250
 3.2740	 3.8490
 3.2760	 3.8710
 3.2780	 3.9220
 3.2800	 3.9570
 3.2820	 3.8530
 3.2840	 3.8630
 3.2860	 3.9650
 3.2880	 4.0600
 3.2900	 3.9800
 3.2920	 3.9510
 3.2940	 3.9290
 3.2960	 3.9540
 3.2990	 3.8770
 3.3010	 3.8530
 3.3030	 3.8600
 3.3050	 3.9700
 3.3070	 3.9930
 3.3090	 3.9550
 3.3110	 3.8710
 3.3130	 3.9240
 3.3150	 3.9410
 3.3180	 3.9320
 3.3200	 3.8500
 3.3220	 3.8320
 3.3240	 3.8160
 3.3260	 3.8510
 3.3280	 3.8610
 3.3300	 3.8720
 3.3330	 3.8150
 3.3350	 3.7760
 3.3370	 3.7710
 3.3390	 3.7750
 3.3410	 3.6910
 3.3430	 3.6810
 3.3450	 3.6170
 3.3480	 3.6380
 3.3500	 3.6850
 3.3520	 3.6450
 3.3540	 3.5000
 3.3560	 3.4860
 3.3580	 3.5470
 3.3610	 3.5520
 3.3630	 3.4630
 3.3650	 3.4390
 3.3670	 3.3940
 3.3690	 3.4490
 3.3720	 3.4890
 3.3740	 3.5060
 3.3760	 3.5250
 3.3780	 3.5600
 3.3800	 3.6280
 3.3830	 3.6850
 3.3850	 3.5860
 3.3870	 3.5000
 3.3890	 3.4420
 3.3910	 3.4070
 3.3940	 3.3390
 3.3960	 3.3830
 3.3980	 3.4130
 3.4000	 3.4630
 3.4020	 3.4180
 3.4050	 3.5150
 3.4070	 3.6170
 3.4090	 3.7730
 3.4110	 3.9730
 3.4140	 4.2410
 3.4160	 4.5160
 3.4180	 4.9480
 3.4200	 5.4830
 3.4230	 6.1500
 3.4250	 6.8070
 3.4270	 7.5050
 3.4290	 7.9560
 3.4320	 7.6910
 3.4340	 6.8020
 3.4360	 6.0490
 3.4390	 5.5560
 3.4410	 5.2200
 3.4430	 4.9480
 3.4450	 4.8170
 3.4480	 4.7290
 3.4500	 4.7200
 3.4520	 4.6350
 3.4550	 4.6450
 3.4570	 4.6240
 3.4590	 4.6140
 3.4620	 4.5610
 3.4640	 4.5050
 3.4660	 4.4530
 3.4680	 4.3900
 3.4710	 4.2300
 3.4730	 4.1900
 3.4750	 4.2170
 3.4780	 4.1930
 3.4800	 4.0890
 3.4820	 3.9820
 3.4850	 3.9160
 3.4870	 3.9130
 3.4890	 3.9010
 3.4920	 3.9040
 3.4940	 3.9210
 3.4970	 4.0220
 3.4990	 4.1350
 3.5010	 4.3830
 3.5040	 4.7090
 3.5060	 5.3730
 3.5080	 6.4710
 3.5110	 7.4640
 3.5130	 7.3840
 3.5160	 6.4930
 3.5180	 5.7280
 3.5200	 5.3940
 3.5230	 5.1820
 3.5250	 5.0500
 3.5270	 4.9160
 3.5300	 4.8710
 3.5320	 4.7770
 3.5350	 4.6580
 3.5370	 4.6000
 3.5400	 4.6580
 3.5420	 4.6550
 3.5440	 4.6760
 3.5470	 4.6530
 3.5490	 4.6570
 3.5520	 4.6820
 3.5540	 4.6740
 3.5570	 4.5950
 3.5590	 4.5840
 3.5610	 4.5900
 3.5640	 4.6450
 3.5660	 4.5930
 3.5690	 4.5370
 3.5710	 4.4920
 3.5740	 4.5920
 3.5760	 4.6220
 3.5790	 4.6130
 3.5810	 4.5520
 3.5840	 4.5320
 3.5860	 4.4990
 3.5890	 4.5380
 3.5910	 4.4890
 3.5930	 4.5180
 3.5960	 4.5630
 3.5980	 4.5640
 3.6010	 4.5840
 3.6030	 4.5400
 3.6060	 4.4720
 3.6080	 4.5100
 3.6110	 4.5350
 3.6140	 4.6070
 3.6160	 4.5820
 3.6190	 4.5550
 3.6210	 4.5380
 3.6240	 4.5820
 3.6260	 4.5350
 3.6290	 4.4790
 3.6310	 4.4530
 3.6340	 4.5160
 3.6360	 4.5580
 3.6390	 4.5840
 3.6410	 4.5800
 3.6440	 4.6000
 3.6470	 4.5530
 3.6490	 4.5220
 3.6520	 4.5000
 3.6540	 4.5050
 3.6570	 4.4920
 3.6590	 4.6030
 3.6620	 4.6410
 3.6650	 4.5930
 3.6670	 4.5640
 3.6700	 4.5970
 3.6720	 4.5440
 3.6750	 4.5570
 3.6780	 4.5590
 3.6800	 4.5310
 3.6830	 4.5360
 3.6850	 4.5640
 3.6880	 4.5120
 3.6910	 4.5730
 3.6930	 4.5780
 3.6960	 4.5230
 3.6990	 4.4820
 3.7010	 4.5630
 3.7040	 4.6010
 3.7060	 4.5900
 3.7090	 4.4870
 3.7120	 4.4850
 3.7140	 4.5310
 3.7170	 4.5280
 3.7200	 4.5780
 3.7220	 4.6410
 3.7250	 4.5970
 3.7280	 4.5360
 3.7300	 4.4920
 3.7330	 4.5500
 3.7360	 4.5610
 3.7390	 4.5880
 3.7410	 4.5870
 3.7440	 4.5950
 3.7470	 4.5940
 3.7490	 4.5960
 3.7520	 4.4980
 3.7550	 4.4650
 3.7580	 4.4960
 3.7600	 4.6440
 3.7630	 4.6820
 3.7660	 4.6530
 3.7680	 4.6300
 3.7710	 4.6560
 3.7740	 4.6440
 3.7770	 4.6500
 3.7790	 4.5890
 3.7820	 4.6090
 3.7850	 4.6600
 3.7880	 4.7190
 3.7900	 4.6760
 3.7930	 4.6190
 3.7960	 4.6170
 3.7990	 4.6130
 3.8020	 4.6090
 3.8040	 4.6350
 3.8070	 4.5900
 3.8100	 4.5550
 3.8130	 4.5900
 3.8160	 4.6120
 3.8180	 4.6040
 3.8210	 4.6190
 3.8240	 4.6610
 3.8270	 4.7110
 3.8300	 4.6550
 3.8330	 4.5830
 3.8350	 4.6110
 3.8380	 4.6480
 3.8410	 4.6460
 3.8440	 4.6770
 3.8470	 4.6810
 3.8500	 4.7140
 3.8520	 4.7320
 3.8550	 4.7790
 3.8580	 4.7840
 3.8610	 4.7790
 3.8640	 4.7230
 3.8670	 4.6780
 3.8700	 4.6280
 3.8730	 4.5970
 3.8750	 4.6090
 3.8780	 4.6330
 3.8810	 4.6450
 3.8840	 4.6810
 3.8870	 4.7270
 3.8900	 4.7600
 3.8930	 4.7440
 3.8960	 4.7150
 3.8990	 4.6480
 3.9020	 4.6360
 3.9050	 4.6690
 3.9080	 4.7180
 3.9110	 4.6850
 3.9140	 4.6960
 3.9160	 4.7070
 3.9190	 4.6860
 3.9220	 4.6090
 3.9250	 4.6520
 3.9280	 4.6910
 3.9310	 4.7080
 3.9340	 4.7150
 3.9370	 4.6400
 3.9400	 4.5850
 3.9430	 4.6350
 3.9460	 4.6420
 3.9490	 4.6300
 3.9520	 4.6280
 3.9550	 4.6760
 3.9580	 4.6550
 3.9610	 4.6980
 3.9640	 4.7570
 3.9670	 4.7870
 3.9700	 4.7720
 3.9730	 4.7480
 3.9770	 4.7200
 3.9800	 4.6950
 3.9830	 4.6660
 3.9860	 4.7330
 3.9890	 4.7140
 3.9920	 4.6900
 3.9950	 4.7040
 3.9980	 4.7130
 4.0010	 4.7170
 4.0040	 4.7420
 4.0070	 4.6900
 4.0100	 4.6680
 4.0130	 4.6470
 4.0170	 4.6540
 4.0200	 4.6710
 4.0230	 4.6970
 4.0260	 4.6960
 4.0290	 4.7420
 4.0320	 4.8010
 4.0350	 4.7840
 4.0380	 4.7520
 4.0420	 4.7160
 4.0450	 4.6650
 4.0480	 4.6820
 4.0510	 4.7200
 4.0540	 4.7280
 4.0570	 4.7450
 4.0610	 4.7360
 4.0640	 4.7100
 4.0670	 4.7460
 4.0700	 4.6960
 4.0730	 4.6640
 4.0770	 4.6900
 4.0800	 4.6930
 4.0830	 4.6740
 4.0860	 4.7080
 4.0890	 4.7460
 4.0930	 4.7440
 4.0960	 4.6790
 4.0990	 4.7510
 4.1020	 4.7970
 4.1060	 4.7350
 4.1090	 4.7550
 4.1120	 4.7610
 4.1150	 4.7180
 4.1190	 4.7550
 4.1220	 4.7480
 4.1250	 4.7620
 4.1280	 4.8250
 4.1320	 4.8570
 4.1350	 4.8300
 4.1380	 4.8130
 4.1420	 4.8420
 4.1450	 4.8230
 4.1480	 4.7510
 4.1520	 4.7460
 4.1550	 4.7410
 4.1580	 4.7780
 4.1620	 4.7760
 4.1650	 4.7900
 4.1680	 4.8250
 4.1720	 4.8320
 4.1750	 4.8090
 4.1780	 4.8120
 4.1820	 4.8630
 4.1850	 4.8880
 4.1890	 4.8620
 4.1920	 4.8080
 4.1950	 4.7970
 4.1990	 4.9010
 4.2020	 4.9760
 4.2060	 4.9670
 4.2090	 4.9610
 4.2120	 5.0560
 4.2160	 5.0770
 4.2190	 5.1200
 4.2230	 5.2060
 4.2260	 5.2300
 4.2300	 5.2060
 4.2330	 5.1930
 4.2360	 5.1430
 4.2400	 5.0580
 4.2430	 5.0250
 4.2470	 5.0720
 4.2500	 5.0980
 4.2540	 5.0510
 4.2570	 4.9870
 4.2610	 5.0120
 4.2640	 5.0500
 4.2680	 5.0160
 4.2710	 4.9280
 4.2750	 4.9330
 4.2780	 5.0280
 4.2820	 5.0680
 4.2850	 5.0410
 4.2890	 5.0360
 4.2930	 5.0070
 4.2960	 5.1070
 4.3000	 5.1290
 4.3030	 5.0740
 4.3070	 4.9950
 4.3100	 4.9160
 4.3140	 4.9110
 4.3180	 4.9130
 4.3210	 4.8680
 4.3250	 4.8300
 4.3280	 4.7770
 4.3320	 4.7840
 4.3360	 4.8310
 4.3390	 4.8480
 4.3430	 4.8060
 4.3470	 4.7520
 4.3500	 4.7760
 4.3540	 4.7990
 4.3570	 4.8230
 4.3610	 4.8350
 4.3650	 4.8290
 4.3680	 4.8500
 4.3720	 4.8520
 4.3760	 4.7880
 4.3800	 4.7190
 4.3830	 4.7630
 4.3870	 4.7720
 4.3910	 4.8140
 4.3940	 4.8100
 4.3980	 4.7260
 4.4020	 4.7860
 4.4060	 4.8430
 4.4090	 4.9120
 4.4130	 4.8870
 4.4170	 4.7420
 4.4210	 4.6470
 4.4240	 4.6800
 4.4280	 4.7060
 4.4320	 4.7200
 4.4360	 4.7520
 4.4400	 4.7360
 4.4430	 4.6770
 4.4470	 4.6770
 4.4510	 4.7330
 4.4550	 4.7760
 4.4590	 4.7770
 4.4620	 4.7150
 4.4660	 4.6490
 4.4700	 4.6370
 4.4740	 4.6610
 4.4780	 4.7530
 4.4820	 4.7820
 4.4860	 4.7430
 4.4900	 4.7020
 4.4930	 4.7060
 4.4970	 4.7050
 4.5010	 4.7360
 4.5050	 4.7540
 4.5090	 4.7400
 4.5130	 4.7310
 4.5170	 4.7160
 4.5210	 4.6920
 4.5250	 4.6620
 4.5290	 4.6130
 4.5330	 4.7240
 4.5370	 4.7800
 4.5410	 4.7550
 4.5450	 4.7770
 4.5490	 4.7740
 4.5530	 4.7200
 4.5570	 4.6900
 4.5610	 4.6940
 4.5650	 4.7310
 4.5690	 4.7130
 4.5730	 4.6770
 4.5770	 4.6410
 4.5810	 4.6360
 4.5850	 4.6710
 4.5890	 4.6860
 4.5930	 4.6570
 4.5970	 4.6740
 4.6010	 4.6280
 4.6050	 4.5820
 4.6090	 4.6350
 4.6130	 4.6720
 4.6170	 4.6210
 4.6220	 4.6190
 4.6260	 4.6470
 4.6300	 4.6160
 4.6340	 4.5540
 4.6380	 4.5530
 4.6420	 4.5860
 4.6460	 4.6140
 4.6510	 4.6110
 4.6550	 4.5910
 4.6590	 4.5480
 4.6630	 4.5480
 4.6670	 4.5550
 4.6720	 4.5680
 4.6760	 4.5660
 4.6800	 4.5780
 4.6840	 4.6010
 4.6880	 4.6210
 4.6930	 4.5890
 4.6970	 4.5700
 4.7010	 4.6010
 4.7050	 4.6030
 4.7100	 4.5710
 4.7140	 4.6310
 4.7180	 4.6900
 4.7230	 4.6740
 4.7270	 4.6220
 4.7310	 4.5630
 4.7360	 4.5600
 4.7400	 4.5820
 4.7440	 4.5860
 4.7490	 4.6630
 4.7530	 4.6980
 4.7570	 4.6680
 4.7620	 4.6140
 4.7660	 4.6090
 4.7700	 4.6270
 4.7750	 4.6440
 4.7790	 4.6550
 4.7840	 4.6720
 4.7880	 4.6760
 4.7920	 4.6540
 4.7970	 4.6650
 4.8010	 4.6320
 4.8060	 4.5660
 4.8100	 4.5910
 4.8150	 4.5780
 4.8190	 4.5740
 4.8240	 4.5920
 4.8280	 4.5930
 4.8330	 4.6140
 4.8370	 4.7300
 4.8420	 4.7060
 4.8460	 4.6050
 4.8510	 4.5360
 4.8550	 4.5860
 4.8600	 4.5990
 4.8640	 4.5890
 4.8690	 4.6220
 4.8730	 4.6460
 4.8780	 4.6190
 4.8830	 4.6150
 4.8870	 4.6320
 4.8920	 4.6700
 4.8960	 4.6620
 4.9010	 4.6660
 4.9060	 4.6120
 4.9100	 4.5780
 4.9150	 4.5800
 4.9200	 4.5970
 4.9240	 4.5680
 4.9290	 4.6300
 4.9340	 4.6410
 4.9380	 4.6410
 4.9430	 4.6120
 4.9480	 4.5830
 4.9530	 4.5190
 4.9570	 4.5130
 4.9620	 4.5760
 4.9670	 4.6400
 4.9720	 4.6150
 4.9760	 4.6270
 4.9810	 4.6120
 4.9860	 4.6380
 4.9910	 4.6500
 4.9960	 4.6810
 5.0000	 4.6520
 5.0050	 4.6660
 5.0100	 4.6520
 5.0150	 4.6640
 5.0200	 4.6480
 5.0250	 4.6550
 5.0290	 4.6810
 5.0340	 4.6990
 5.0390	 4.6570
 5.0440	 4.6590
 5.0490	 4.6310
 5.0540	 4.6560
 5.0590	 4.6490
 5.0640	 4.6220
 5.0690	 4.6450
 5.0740	 4.7100
 5.0790	 4.7020
 5.0840	 4.6830
 5.0890	 4.6410
 5.0940	 4.6260
 5.0990	 4.6760
 5.1040	 4.6800
 5.1090	 4.6240
 5.1140	 4.6160
 5.1190	 4.5710
 5.1240	 4.6360
 5.1290	 4.6850
 5.1340	 4.6980
 5.1390	 4.6520
 5.1440	 4.6540
 5.1490	 4.6630
 5.1540	 4.6580
 5.1600	 4.6330
 5.1650	 4.6620
 5.1700	 4.6630
 5.1750	 4.6790
 5.1800	 4.6190
 5.1850	 4.6370
 5.1910	 4.6450
 5.1960	 4.6940
 5.2010	 4.6680
 5.2060	 4.6940
 5.2110	 4.6740
 5.2170	 4.6760
 5.2220	 4.6710
 5.2270	 4.6680
 5.2320	 4.6820
 5.2380	 4.6980
 5.2430	 4.6410
 5.2480	 4.6080
 5.2540	 4.5710
 5.2590	 4.5470
 5.2640	 4.6020
 5.2700	 4.6700
 5.2750	 4.6390
 5.2800	 4.6190
 5.2860	 4.5780
 5.2910	 4.5880
 5.2970	 4.5780
 5.3020	 4.6290
 5.3070	 4.5770
 5.3130	 4.5260
 5.3180	 4.5210
 5.3240	 4.5930
 5.3290	 4.6000
 5.3350	 4.6140
 5.3400	 4.5740
 5.3460	 4.5560
 5.3510	 4.4960
 5.3570	 4.4970
 5.3620	 4.5330
 5.3680	 4.5960
 5.3730	 4.5910
 5.3790	 4.5880
 5.3850	 4.5800
 5.3900	 4.6260
 5.3960	 4.5710
 5.4010	 4.5450
 5.4070	 4.5580
 5.4130	 4.5780
 5.4180	 4.5500
 5.4240	 4.5300
 5.4300	 4.4930
 5.4350	 4.5160
