Name: Bambusa beecheyana
Type: vegetation
Class: Tree
Genus: Bambusa
Species: beecheyana
Sample No.: JPL237
Owner: JPL
Wavelength Range: VSWIR
Origin: 34.12719; -118.11127; WGS84
Collection Date: 10/6/2016
Description: Samples were collected at the Huntington Garden in San Marino California as part of a JPL Subcontract studying HyTES imagery. Samples were taken to JPL and processed within 48 hours of collection. The same leaves were processed in the Nicolet and then measured using the ASD.
Measurement: Bidirectional reflectance
First Column: X
Second Column: Y
X Units: Wavelength (micrometer)
Y Units: Reflectance (percentage)
First X Value: 0.35
Last X Value: 2.5
Number of X Values: 2151
Additional Information: vegetation.tree.bambusa.beecheyana.vswir.jpl237.jpl.asd.ancillary.txt

 0.3500	 6.6130
 0.3510	 6.4550
 0.3520	 6.6570
 0.3530	 6.8030
 0.3540	 6.5950
 0.3550	 6.4990
 0.3560	 6.5580
 0.3570	 6.6300
 0.3580	 6.5230
 0.3590	 6.4300
 0.3600	 6.4590
 0.3610	 6.5580
 0.3620	 6.4740
 0.3630	 6.4820
 0.3640	 6.5040
 0.3650	 6.4360
 0.3660	 6.4230
 0.3670	 6.4510
 0.3680	 6.4640
 0.3690	 6.3950
 0.3700	 6.4090
 0.3710	 6.4540
 0.3720	 6.4750
 0.3730	 6.4710
 0.3740	 6.3960
 0.3750	 6.3540
 0.3760	 6.4340
 0.3770	 6.4170
 0.3780	 6.3770
 0.3790	 6.3640
 0.3800	 6.3890
 0.3810	 6.3380
 0.3820	 6.2890
 0.3830	 6.3120
 0.3840	 6.4020
 0.3850	 6.4300
 0.3860	 6.3940
 0.3870	 6.3570
 0.3880	 6.4170
 0.3890	 6.4100
 0.3900	 6.3250
 0.3910	 6.3260
 0.3920	 6.3540
 0.3930	 6.3690
 0.3940	 6.3580
 0.3950	 6.3700
 0.3960	 6.4010
 0.3970	 6.4060
 0.3980	 6.3440
 0.3990	 6.3830
 0.4000	 6.4070
 0.4010	 6.3720
 0.4020	 6.3550
 0.4030	 6.4020
 0.4040	 6.4440
 0.4050	 6.4230
 0.4060	 6.4190
 0.4070	 6.4410
 0.4080	 6.4700
 0.4090	 6.4730
 0.4100	 6.4850
 0.4110	 6.5080
 0.4120	 6.5280
 0.4130	 6.5150
 0.4140	 6.5160
 0.4150	 6.5340
 0.4160	 6.5510
 0.4170	 6.5540
 0.4180	 6.5590
 0.4190	 6.5790
 0.4200	 6.6200
 0.4210	 6.6120
 0.4220	 6.5960
 0.4230	 6.6120
 0.4240	 6.6400
 0.4250	 6.6390
 0.4260	 6.6280
 0.4270	 6.6430
 0.4280	 6.6530
 0.4290	 6.6560
 0.4300	 6.6560
 0.4310	 6.6560
 0.4320	 6.6460
 0.4330	 6.6290
 0.4340	 6.6130
 0.4350	 6.6340
 0.4360	 6.6420
 0.4370	 6.6330
 0.4380	 6.6400
 0.4390	 6.6570
 0.4400	 6.6760
 0.4410	 6.6880
 0.4420	 6.6820
 0.4430	 6.6900
 0.4440	 6.7080
 0.4450	 6.7170
 0.4460	 6.7120
 0.4470	 6.7140
 0.4480	 6.7280
 0.4490	 6.7300
 0.4500	 6.7350
 0.4510	 6.7430
 0.4520	 6.7520
 0.4530	 6.7500
 0.4540	 6.7490
 0.4550	 6.7550
 0.4560	 6.7690
 0.4570	 6.7610
 0.4580	 6.7540
 0.4590	 6.7620
 0.4600	 6.7710
 0.4610	 6.7690
 0.4620	 6.7630
 0.4630	 6.7670
 0.4640	 6.7770
 0.4650	 6.7760
 0.4660	 6.7650
 0.4670	 6.7650
 0.4680	 6.7770
 0.4690	 6.7800
 0.4700	 6.7670
 0.4710	 6.7610
 0.4720	 6.7700
 0.4730	 6.7790
 0.4740	 6.7710
 0.4750	 6.7810
 0.4760	 6.7880
 0.4770	 6.7820
 0.4780	 6.7830
 0.4790	 6.7850
 0.4800	 6.7880
 0.4810	 6.7900
 0.4820	 6.7820
 0.4830	 6.7860
 0.4840	 6.7940
 0.4850	 6.7790
 0.4860	 6.7730
 0.4870	 6.7830
 0.4880	 6.8020
 0.4890	 6.8050
 0.4900	 6.8130
 0.4910	 6.8290
 0.4920	 6.8480
 0.4930	 6.8620
 0.4940	 6.8780
 0.4950	 6.9000
 0.4960	 6.9260
 0.4970	 6.9510
 0.4980	 6.9760
 0.4990	 7.0050
 0.5000	 7.0390
 0.5010	 7.0800
 0.5020	 7.1260
 0.5030	 7.1760
 0.5040	 7.2380
 0.5050	 7.3050
 0.5060	 7.3720
 0.5070	 7.4560
 0.5080	 7.5450
 0.5090	 7.6400
 0.5100	 7.7460
 0.5110	 7.8650
 0.5120	 7.9980
 0.5130	 8.1460
 0.5140	 8.3030
 0.5150	 8.4780
 0.5160	 8.6640
 0.5170	 8.8550
 0.5180	 9.0660
 0.5190	 9.2900
 0.5200	 9.5200
 0.5210	 9.7480
 0.5220	 9.9810
 0.5230	10.2210
 0.5240	10.4640
 0.5250	10.6910
 0.5260	10.9140
 0.5270	11.1290
 0.5280	11.3340
 0.5290	11.5230
 0.5300	11.6930
 0.5310	11.8480
 0.5320	12.0010
 0.5330	12.1360
 0.5340	12.2520
 0.5350	12.3560
 0.5360	12.4550
 0.5370	12.5380
 0.5380	12.6050
 0.5390	12.6630
 0.5400	12.7150
 0.5410	12.7560
 0.5420	12.7880
 0.5430	12.8230
 0.5440	12.8620
 0.5450	12.9020
 0.5460	12.9400
 0.5470	12.9830
 0.5480	13.0190
 0.5490	13.0450
 0.5500	13.0670
 0.5510	13.0820
 0.5520	13.0850
 0.5530	13.0730
 0.5540	13.0480
 0.5550	13.0100
 0.5560	12.9580
 0.5570	12.8890
 0.5580	12.8090
 0.5590	12.7150
 0.5600	12.6070
 0.5610	12.4910
 0.5620	12.3680
 0.5630	12.2410
 0.5640	12.1110
 0.5650	11.9710
 0.5660	11.8250
 0.5670	11.6790
 0.5680	11.5280
 0.5690	11.3740
 0.5700	11.2180
 0.5710	11.0670
 0.5720	10.9270
 0.5730	10.7850
 0.5740	10.6460
 0.5750	10.5260
 0.5760	10.4080
 0.5770	10.2950
 0.5780	10.1910
 0.5790	10.0950
 0.5800	10.0030
 0.5810	 9.9160
 0.5820	 9.8350
 0.5830	 9.7670
 0.5840	 9.7040
 0.5850	 9.6420
 0.5860	 9.5810
 0.5870	 9.5210
 0.5880	 9.4620
 0.5890	 9.4080
 0.5900	 9.3570
 0.5910	 9.3140
 0.5920	 9.2770
 0.5930	 9.2420
 0.5940	 9.2130
 0.5950	 9.1890
 0.5960	 9.1670
 0.5970	 9.1400
 0.5980	 9.1110
 0.5990	 9.0850
 0.6000	 9.0640
 0.6010	 9.0350
 0.6020	 9.0000
 0.6030	 8.9640
 0.6040	 8.9280
 0.6050	 8.8810
 0.6060	 8.8270
 0.6070	 8.7700
 0.6080	 8.7140
 0.6090	 8.6480
 0.6100	 8.5670
 0.6110	 8.4800
 0.6120	 8.4170
 0.6130	 8.3690
 0.6140	 8.3250
 0.6150	 8.2730
 0.6160	 8.2230
 0.6170	 8.1740
 0.6180	 8.1240
 0.6190	 8.0780
 0.6200	 8.0370
 0.6210	 8.0000
 0.6220	 7.9680
 0.6230	 7.9410
 0.6240	 7.9190
 0.6250	 7.9000
 0.6260	 7.8840
 0.6270	 7.8730
 0.6280	 7.8630
 0.6290	 7.8490
 0.6300	 7.8380
 0.6310	 7.8300
 0.6320	 7.8200
 0.6330	 7.8050
 0.6340	 7.7820
 0.6350	 7.7550
 0.6360	 7.7250
 0.6370	 7.6810
 0.6380	 7.6350
 0.6390	 7.5880
 0.6400	 7.5380
 0.6410	 7.4860
 0.6420	 7.4300
 0.6430	 7.3740
 0.6440	 7.3270
 0.6450	 7.2780
 0.6460	 7.2270
 0.6470	 7.1790
 0.6480	 7.1400
 0.6490	 7.1070
 0.6500	 7.0770
 0.6510	 7.0500
 0.6520	 7.0320
 0.6530	 7.0170
 0.6540	 6.9980
 0.6550	 6.9830
 0.6560	 6.9660
 0.6570	 6.9450
 0.6580	 6.9220
 0.6590	 6.8970
 0.6600	 6.8720
 0.6610	 6.8460
 0.6620	 6.8180
 0.6630	 6.7980
 0.6640	 6.7810
 0.6650	 6.7640
 0.6660	 6.7510
 0.6670	 6.7450
 0.6680	 6.7430
 0.6690	 6.7420
 0.6700	 6.7460
 0.6710	 6.7580
 0.6720	 6.7750
 0.6730	 6.7900
 0.6740	 6.8090
 0.6750	 6.8330
 0.6760	 6.8620
 0.6770	 6.8920
 0.6780	 6.9230
 0.6790	 6.9600
 0.6800	 7.0060
 0.6810	 7.0530
 0.6820	 7.1020
 0.6830	 7.1540
 0.6840	 7.2170
 0.6850	 7.2830
 0.6860	 7.3570
 0.6870	 7.4450
 0.6880	 7.5530
 0.6890	 7.6870
 0.6900	 7.8530
 0.6910	 8.0620
 0.6920	 8.3240
 0.6930	 8.6440
 0.6940	 9.0290
 0.6950	 9.4860
 0.6960	10.0110
 0.6970	10.6000
 0.6980	11.2480
 0.6990	11.9510
 0.7000	12.6990
 0.7010	13.4800
 0.7020	14.2830
 0.7030	15.1020
 0.7040	15.9270
 0.7050	16.7510
 0.7060	17.5710
 0.7070	18.3860
 0.7080	19.1950
 0.7090	19.9960
 0.7100	20.7920
 0.7110	21.5860
 0.7120	22.3760
 0.7130	23.1590
 0.7140	23.9400
 0.7150	24.7180
 0.7160	25.4910
 0.7170	26.2640
 0.7180	27.0320
 0.7190	27.7930
 0.7200	28.5490
 0.7210	29.2970
 0.7220	30.0350
 0.7230	30.7640
 0.7240	31.4790
 0.7250	32.1800
 0.7260	32.8660
 0.7270	33.5380
 0.7280	34.1850
 0.7290	34.8170
 0.7300	35.4290
 0.7310	36.0150
 0.7320	36.5790
 0.7330	37.1220
 0.7340	37.6420
 0.7350	38.1380
 0.7360	38.6100
 0.7370	39.0570
 0.7380	39.4790
 0.7390	39.8800
 0.7400	40.2560
 0.7410	40.6080
 0.7420	40.9370
 0.7430	41.2410
 0.7440	41.5240
 0.7450	41.7860
 0.7460	42.0230
 0.7470	42.2440
 0.7480	42.4460
 0.7490	42.6280
 0.7500	42.7910
 0.7510	42.9430
 0.7520	43.0820
 0.7530	43.2050
 0.7540	43.3170
 0.7550	43.4180
 0.7560	43.5080
 0.7570	43.5870
 0.7580	43.6610
 0.7590	43.7280
 0.7600	43.7880
 0.7610	43.8360
 0.7620	43.8810
 0.7630	43.9210
 0.7640	43.9560
 0.7650	43.9870
 0.7660	44.0130
 0.7670	44.0330
 0.7680	44.0510
 0.7690	44.0660
 0.7700	44.0800
 0.7710	44.0930
 0.7720	44.0990
 0.7730	44.1070
 0.7740	44.1160
 0.7750	44.1220
 0.7760	44.1250
 0.7770	44.1290
 0.7780	44.1320
 0.7790	44.1340
 0.7800	44.1370
 0.7810	44.1370
 0.7820	44.1360
 0.7830	44.1380
 0.7840	44.1380
 0.7850	44.1360
 0.7860	44.1340
 0.7870	44.1340
 0.7880	44.1300
 0.7890	44.1240
 0.7900	44.1200
 0.7910	44.1160
 0.7920	44.1100
 0.7930	44.1030
 0.7940	44.0950
 0.7950	44.0900
 0.7960	44.0810
 0.7970	44.0700
 0.7980	44.0600
 0.7990	44.0490
 0.8000	44.0380
 0.8010	44.0240
 0.8020	44.0090
 0.8030	43.9980
 0.8040	43.9860
 0.8050	43.9690
 0.8060	43.9540
 0.8070	43.9380
 0.8080	43.9220
 0.8090	43.9060
 0.8100	43.8880
 0.8110	43.8700
 0.8120	43.8510
 0.8130	43.8340
 0.8140	43.8160
 0.8150	43.7970
 0.8160	43.7770
 0.8170	43.7570
 0.8180	43.7380
 0.8190	43.7210
 0.8200	43.7030
 0.8210	43.6800
 0.8220	43.6620
 0.8230	43.6470
 0.8240	43.6270
 0.8250	43.6090
 0.8260	43.5930
 0.8270	43.5770
 0.8280	43.5540
 0.8290	43.5370
 0.8300	43.5220
 0.8310	43.5050
 0.8320	43.4840
 0.8330	43.4680
 0.8340	43.4540
 0.8350	43.4380
 0.8360	43.4240
 0.8370	43.4090
 0.8380	43.3940
 0.8390	43.3830
 0.8400	43.3690
 0.8410	43.3580
 0.8420	43.3500
 0.8430	43.3380
 0.8440	43.3300
 0.8450	43.3210
 0.8460	43.3110
 0.8470	43.2980
 0.8480	43.2910
 0.8490	43.2870
 0.8500	43.2780
 0.8510	43.2740
 0.8520	43.2650
 0.8530	43.2570
 0.8540	43.2570
 0.8550	43.2530
 0.8560	43.2480
 0.8570	43.2450
 0.8580	43.2460
 0.8590	43.2430
 0.8600	43.2390
 0.8610	43.2360
 0.8620	43.2370
 0.8630	43.2380
 0.8640	43.2400
 0.8650	43.2450
 0.8660	43.2440
 0.8670	43.2410
 0.8680	43.2400
 0.8690	43.2430
 0.8700	43.2480
 0.8710	43.2510
 0.8720	43.2540
 0.8730	43.2580
 0.8740	43.2650
 0.8750	43.2690
 0.8760	43.2710
 0.8770	43.2760
 0.8780	43.2810
 0.8790	43.2860
 0.8800	43.2890
 0.8810	43.2960
 0.8820	43.3030
 0.8830	43.3070
 0.8840	43.3100
 0.8850	43.3190
 0.8860	43.3240
 0.8870	43.3260
 0.8880	43.3280
 0.8890	43.3350
 0.8900	43.3450
 0.8910	43.3520
 0.8920	43.3520
 0.8930	43.3620
 0.8940	43.3690
 0.8950	43.3720
 0.8960	43.3790
 0.8970	43.3860
 0.8980	43.3910
 0.8990	43.3910
 0.9000	43.3920
 0.9010	43.4020
 0.9020	43.4090
 0.9030	43.4090
 0.9040	43.4150
 0.9050	43.4190
 0.9060	43.4270
 0.9070	43.4390
 0.9080	43.4350
 0.9090	43.4360
 0.9100	43.4400
 0.9110	43.4430
 0.9120	43.4490
 0.9130	43.4530
 0.9140	43.4530
 0.9150	43.4490
 0.9160	43.4520
 0.9170	43.4550
 0.9180	43.4530
 0.9190	43.4430
 0.9200	43.4480
 0.9210	43.4540
 0.9220	43.4510
 0.9230	43.4360
 0.9240	43.4330
 0.9250	43.4300
 0.9260	43.4260
 0.9270	43.4230
 0.9280	43.4180
 0.9290	43.4080
 0.9300	43.3970
 0.9310	43.3950
 0.9320	43.3820
 0.9330	43.3670
 0.9340	43.3600
 0.9350	43.3570
 0.9360	43.3410
 0.9370	43.3210
 0.9380	43.3070
 0.9390	43.2940
 0.9400	43.2860
 0.9410	43.2770
 0.9420	43.2640
 0.9430	43.2520
 0.9440	43.2360
 0.9450	43.2190
 0.9460	43.2010
 0.9470	43.1740
 0.9480	43.1550
 0.9490	43.1370
 0.9500	43.1150
 0.9510	43.1010
 0.9520	43.0730
 0.9530	43.0410
 0.9540	43.0190
 0.9550	42.9970
 0.9560	42.9700
 0.9570	42.9430
 0.9580	42.9220
 0.9590	42.9070
 0.9600	42.8820
 0.9610	42.8550
 0.9620	42.8380
 0.9630	42.8300
 0.9640	42.8120
 0.9650	42.7890
 0.9660	42.7700
 0.9670	42.7540
 0.9680	42.7440
 0.9690	42.7280
 0.9700	42.7030
 0.9710	42.7110
 0.9720	42.7170
 0.9730	42.7100
 0.9740	42.6940
 0.9750	42.6940
 0.9760	42.6650
 0.9770	42.6370
 0.9780	42.6560
 0.9790	42.6540
 0.9800	42.6420
 0.9810	42.6270
 0.9820	42.6130
 0.9830	42.6040
 0.9840	42.6040
 0.9850	42.6070
 0.9860	42.6040
 0.9870	42.5930
 0.9880	42.5860
 0.9890	42.5810
 0.9900	42.5720
 0.9910	42.5640
 0.9920	42.5670
 0.9930	42.5730
 0.9940	42.5690
 0.9950	42.5670
 0.9960	42.5670
 0.9970	42.5690
 0.9980	42.5720
 0.9990	42.5620
 1.0000	42.5560
 1.0010	42.6870
 1.0020	42.6880
 1.0030	42.6920
 1.0040	42.6890
 1.0050	42.6890
 1.0060	42.6930
 1.0070	42.6920
 1.0080	42.6920
 1.0090	42.6940
 1.0100	42.6930
 1.0110	42.6880
 1.0120	42.6870
 1.0130	42.6890
 1.0140	42.6900
 1.0150	42.6920
 1.0160	42.6920
 1.0170	42.6900
 1.0180	42.6870
 1.0190	42.6830
 1.0200	42.6810
 1.0210	42.6850
 1.0220	42.6910
 1.0230	42.6940
 1.0240	42.7010
 1.0250	42.7020
 1.0260	42.6950
 1.0270	42.6940
 1.0280	42.6950
 1.0290	42.6950
 1.0300	42.6980
 1.0310	42.6990
 1.0320	42.6980
 1.0330	42.6980
 1.0340	42.7020
 1.0350	42.7010
 1.0360	42.7000
 1.0370	42.6990
 1.0380	42.7020
 1.0390	42.7060
 1.0400	42.7070
 1.0410	42.7080
 1.0420	42.7110
 1.0430	42.7110
 1.0440	42.7120
 1.0450	42.7170
 1.0460	42.7180
 1.0470	42.7160
 1.0480	42.7150
 1.0490	42.7150
 1.0500	42.7140
 1.0510	42.7170
 1.0520	42.7150
 1.0530	42.7120
 1.0540	42.7080
 1.0550	42.7060
 1.0560	42.7020
 1.0570	42.6990
 1.0580	42.6960
 1.0590	42.6950
 1.0600	42.6940
 1.0610	42.6930
 1.0620	42.6950
 1.0630	42.6950
 1.0640	42.6940
 1.0650	42.6940
 1.0660	42.6980
 1.0670	42.6980
 1.0680	42.6960
 1.0690	42.6920
 1.0700	42.6890
 1.0710	42.6810
 1.0720	42.6790
 1.0730	42.6800
 1.0740	42.6790
 1.0750	42.6780
 1.0760	42.6770
 1.0770	42.6760
 1.0780	42.6750
 1.0790	42.6740
 1.0800	42.6720
 1.0810	42.6690
 1.0820	42.6680
 1.0830	42.6680
 1.0840	42.6670
 1.0850	42.6670
 1.0860	42.6680
 1.0870	42.6670
 1.0880	42.6650
 1.0890	42.6620
 1.0900	42.6570
 1.0910	42.6550
 1.0920	42.6530
 1.0930	42.6500
 1.0940	42.6490
 1.0950	42.6470
 1.0960	42.6450
 1.0970	42.6430
 1.0980	42.6430
 1.0990	42.6410
 1.1000	42.6370
 1.1010	42.6340
 1.1020	42.6300
 1.1030	42.6290
 1.1040	42.6280
 1.1050	42.6250
 1.1060	42.6200
 1.1070	42.6130
 1.1080	42.6080
 1.1090	42.6040
 1.1100	42.6000
 1.1110	42.5990
 1.1120	42.5950
 1.1130	42.5900
 1.1140	42.5860
 1.1150	42.5830
 1.1160	42.5790
 1.1170	42.5750
 1.1180	42.5690
 1.1190	42.5600
 1.1200	42.5520
 1.1210	42.5400
 1.1220	42.5260
 1.1230	42.5130
 1.1240	42.5000
 1.1250	42.4860
 1.1260	42.4740
 1.1270	42.4590
 1.1280	42.4430
 1.1290	42.4240
 1.1300	42.4030
 1.1310	42.3780
 1.1320	42.3500
 1.1330	42.3190
 1.1340	42.2860
 1.1350	42.2520
 1.1360	42.2160
 1.1370	42.1780
 1.1380	42.1380
 1.1390	42.0940
 1.1400	42.0490
 1.1410	42.0030
 1.1420	41.9580
 1.1430	41.9120
 1.1440	41.8660
 1.1450	41.8180
 1.1460	41.7720
 1.1470	41.7250
 1.1480	41.6790
 1.1490	41.6330
 1.1500	41.5900
 1.1510	41.5490
 1.1520	41.5100
 1.1530	41.4750
 1.1540	41.4420
 1.1550	41.4110
 1.1560	41.3810
 1.1570	41.3560
 1.1580	41.3320
 1.1590	41.3080
 1.1600	41.2870
 1.1610	41.2680
 1.1620	41.2510
 1.1630	41.2370
 1.1640	41.2230
 1.1650	41.2090
 1.1660	41.1940
 1.1670	41.1820
 1.1680	41.1710
 1.1690	41.1600
 1.1700	41.1500
 1.1710	41.1420
 1.1720	41.1340
 1.1730	41.1270
 1.1740	41.1210
 1.1750	41.1140
 1.1760	41.1060
 1.1770	41.0960
 1.1780	41.0830
 1.1790	41.0720
 1.1800	41.0600
 1.1810	41.0470
 1.1820	41.0370
 1.1830	41.0280
 1.1840	41.0190
 1.1850	41.0110
 1.1860	41.0020
 1.1870	40.9930
 1.1880	40.9830
 1.1890	40.9750
 1.1900	40.9660
 1.1910	40.9570
 1.1920	40.9490
 1.1930	40.9430
 1.1940	40.9370
 1.1950	40.9320
 1.1960	40.9280
 1.1970	40.9230
 1.1980	40.9200
 1.1990	40.9160
 1.2000	40.9120
 1.2010	40.9110
 1.2020	40.9090
 1.2030	40.9080
 1.2040	40.9090
 1.2050	40.9070
 1.2060	40.9050
 1.2070	40.9030
 1.2080	40.9010
 1.2090	40.9020
 1.2100	40.9050
 1.2110	40.9080
 1.2120	40.9130
 1.2130	40.9160
 1.2140	40.9160
 1.2150	40.9180
 1.2160	40.9210
 1.2170	40.9230
 1.2180	40.9260
 1.2190	40.9310
 1.2200	40.9350
 1.2210	40.9380
 1.2220	40.9440
 1.2230	40.9510
 1.2240	40.9570
 1.2250	40.9620
 1.2260	40.9670
 1.2270	40.9700
 1.2280	40.9740
 1.2290	40.9800
 1.2300	40.9860
 1.2310	40.9910
 1.2320	40.9960
 1.2330	41.0000
 1.2340	41.0030
 1.2350	41.0060
 1.2360	41.0090
 1.2370	41.0110
 1.2380	41.0140
 1.2390	41.0160
 1.2400	41.0180
 1.2410	41.0210
 1.2420	41.0230
 1.2430	41.0230
 1.2440	41.0250
 1.2450	41.0270
 1.2460	41.0280
 1.2470	41.0280
 1.2480	41.0300
 1.2490	41.0310
 1.2500	41.0320
 1.2510	41.0330
 1.2520	41.0330
 1.2530	41.0320
 1.2540	41.0300
 1.2550	41.0280
 1.2560	41.0260
 1.2570	41.0240
 1.2580	41.0220
 1.2590	41.0190
 1.2600	41.0170
 1.2610	41.0130
 1.2620	41.0080
 1.2630	41.0050
 1.2640	41.0000
 1.2650	40.9940
 1.2660	40.9900
 1.2670	40.9830
 1.2680	40.9760
 1.2690	40.9730
 1.2700	40.9680
 1.2710	40.9620
 1.2720	40.9570
 1.2730	40.9480
 1.2740	40.9400
 1.2750	40.9320
 1.2760	40.9250
 1.2770	40.9190
 1.2780	40.9100
 1.2790	40.9010
 1.2800	40.8920
 1.2810	40.8800
 1.2820	40.8670
 1.2830	40.8530
 1.2840	40.8390
 1.2850	40.8250
 1.2860	40.8130
 1.2870	40.8000
 1.2880	40.7860
 1.2890	40.7720
 1.2900	40.7560
 1.2910	40.7380
 1.2920	40.7200
 1.2930	40.7020
 1.2940	40.6820
 1.2950	40.6610
 1.2960	40.6410
 1.2970	40.6220
 1.2980	40.6010
 1.2990	40.5800
 1.3000	40.5560
 1.3010	40.5300
 1.3020	40.5050
 1.3030	40.4810
 1.3040	40.4560
 1.3050	40.4330
 1.3060	40.4060
 1.3070	40.3780
 1.3080	40.3500
 1.3090	40.3210
 1.3100	40.2930
 1.3110	40.2650
 1.3120	40.2340
 1.3130	40.2030
 1.3140	40.1690
 1.3150	40.1340
 1.3160	40.0980
 1.3170	40.0620
 1.3180	40.0250
 1.3190	39.9870
 1.3200	39.9470
 1.3210	39.9080
 1.3220	39.8670
 1.3230	39.8250
 1.3240	39.7830
 1.3250	39.7390
 1.3260	39.6920
 1.3270	39.6470
 1.3280	39.5990
 1.3290	39.5510
 1.3300	39.5030
 1.3310	39.4530
 1.3320	39.4020
 1.3330	39.3510
 1.3340	39.2990
 1.3350	39.2470
 1.3360	39.1950
 1.3370	39.1420
 1.3380	39.0880
 1.3390	39.0360
 1.3400	38.9820
 1.3410	38.9280
 1.3420	38.8740
 1.3430	38.8190
 1.3440	38.7640
 1.3450	38.7090
 1.3460	38.6550
 1.3470	38.6020
 1.3480	38.5480
 1.3490	38.4940
 1.3500	38.4410
 1.3510	38.3880
 1.3520	38.3330
 1.3530	38.2810
 1.3540	38.2280
 1.3550	38.1740
 1.3560	38.1190
 1.3570	38.0620
 1.3580	38.0050
 1.3590	37.9460
 1.3600	37.8870
 1.3610	37.8280
 1.3620	37.7670
 1.3630	37.7040
 1.3640	37.6390
 1.3650	37.5670
 1.3660	37.4930
 1.3670	37.4160
 1.3680	37.3350
 1.3690	37.2500
 1.3700	37.1580
 1.3710	37.0590
 1.3720	36.9510
 1.3730	36.8340
 1.3740	36.7080
 1.3750	36.5720
 1.3760	36.4230
 1.3770	36.2640
 1.3780	36.0890
 1.3790	35.9010
 1.3800	35.7000
 1.3810	35.4820
 1.3820	35.2510
 1.3830	35.0060
 1.3840	34.7460
 1.3850	34.4720
 1.3860	34.1830
 1.3870	33.8780
 1.3880	33.5630
 1.3890	33.2350
 1.3900	32.8940
 1.3910	32.5460
 1.3920	32.1880
 1.3930	31.8190
 1.3940	31.4460
 1.3950	31.0660
 1.3960	30.6850
 1.3970	30.3040
 1.3980	29.9240
 1.3990	29.5510
 1.4000	29.1820
 1.4010	28.8180
 1.4020	28.4620
 1.4030	28.1130
 1.4040	27.7760
 1.4050	27.4510
 1.4060	27.1370
 1.4070	26.8370
 1.4080	26.5500
 1.4090	26.2750
 1.4100	26.0160
 1.4110	25.7690
 1.4120	25.5350
 1.4130	25.3140
 1.4140	25.1060
 1.4150	24.9130
 1.4160	24.7320
 1.4170	24.5620
 1.4180	24.4060
 1.4190	24.2580
 1.4200	24.1210
 1.4210	23.9950
 1.4220	23.8780
 1.4230	23.7710
 1.4240	23.6730
 1.4250	23.5820
 1.4260	23.4990
 1.4270	23.4220
 1.4280	23.3520
 1.4290	23.2870
 1.4300	23.2300
 1.4310	23.1780
 1.4320	23.1330
 1.4330	23.0920
 1.4340	23.0570
 1.4350	23.0260
 1.4360	22.9990
 1.4370	22.9760
 1.4380	22.9570
 1.4390	22.9420
 1.4400	22.9290
 1.4410	22.9210
 1.4420	22.9170
 1.4430	22.9150
 1.4440	22.9160
 1.4450	22.9180
 1.4460	22.9210
 1.4470	22.9270
 1.4480	22.9340
 1.4490	22.9420
 1.4500	22.9520
 1.4510	22.9640
 1.4520	22.9770
 1.4530	22.9920
 1.4540	23.0090
 1.4550	23.0270
 1.4560	23.0480
 1.4570	23.0720
 1.4580	23.0980
 1.4590	23.1280
 1.4600	23.1600
 1.4610	23.1960
 1.4620	23.2360
 1.4630	23.2790
 1.4640	23.3260
 1.4650	23.3790
 1.4660	23.4350
 1.4670	23.4960
 1.4680	23.5630
 1.4690	23.6330
 1.4700	23.7060
 1.4710	23.7820
 1.4720	23.8610
 1.4730	23.9450
 1.4740	24.0320
 1.4750	24.1220
 1.4760	24.2140
 1.4770	24.3070
