Name: Abies concolor 3
Type: vegetation
Class: Tree
Genus: Abies
Species: concolor
Sample No.: VH167
Owner: UCSB
Wavelength Range: VSWIR
Origin: 37.0439; -119.3058; WGS84
Collection Date: 6/8/2013
Description: Samples were collected as part of the HyspIRI Airborne Campaign. 48 individual plants were sampled in three times in 2013 - spring  summer  and fall. The name of the sample includes a 1  2  or 3 which references a different individual of the species. Samples were taken to JPL and processed within 48 hours of collection. The same leaves were processed in the Nicolet and then measured using the ASD.
Measurement: Bidirectional reflectance
First Column: X
Second Column: Y
X Units: Wavelength (micrometers)
Y Units: Reflectance (percentage)
First X Value: 0.35
Last X Value: 2.5
Number of X Values: 2151
Additional Information: vegetation.tree.abies.concolor.vswir.vh167.ucsb.asd.ancillary.txt

 0.3500	 6.6710
 0.3510	 6.3380
 0.3520	 6.2580
 0.3530	 6.2720
 0.3540	 6.1970
 0.3550	 6.2170
 0.3560	 6.1660
 0.3570	 6.0720
 0.3580	 6.0550
 0.3590	 6.1040
 0.3600	 6.1270
 0.3610	 6.0970
 0.3620	 6.0780
 0.3630	 6.1180
 0.3640	 6.1310
 0.3650	 6.0600
 0.3660	 6.1400
 0.3670	 6.1090
 0.3680	 6.0050
 0.3690	 6.0620
 0.3700	 6.1180
 0.3710	 6.0680
 0.3720	 5.9340
 0.3730	 5.9450
 0.3740	 5.9440
 0.3750	 5.9510
 0.3760	 5.9900
 0.3770	 5.9030
 0.3780	 5.8880
 0.3790	 5.9650
 0.3800	 5.9930
 0.3810	 5.9930
 0.3820	 5.9450
 0.3830	 5.8750
 0.3840	 5.8920
 0.3850	 5.9660
 0.3860	 6.0130
 0.3870	 5.9560
 0.3880	 5.8990
 0.3890	 5.8980
 0.3900	 5.9380
 0.3910	 5.9570
 0.3920	 5.9580
 0.3930	 5.9470
 0.3940	 5.9330
 0.3950	 6.0230
 0.3960	 6.0690
 0.3970	 6.0560
 0.3980	 6.0400
 0.3990	 6.0670
 0.4000	 6.0890
 0.4010	 6.0900
 0.4020	 6.1190
 0.4030	 6.1720
 0.4040	 6.2300
 0.4050	 6.2610
 0.4060	 6.2510
 0.4070	 6.2810
 0.4080	 6.3550
 0.4090	 6.4150
 0.4100	 6.4520
 0.4110	 6.4890
 0.4120	 6.5340
 0.4130	 6.5780
 0.4140	 6.6090
 0.4150	 6.6570
 0.4160	 6.7460
 0.4170	 6.8040
 0.4180	 6.8470
 0.4190	 6.8980
 0.4200	 7.0030
 0.4210	 7.0760
 0.4220	 7.1260
 0.4230	 7.1760
 0.4240	 7.2510
 0.4250	 7.3140
 0.4260	 7.3670
 0.4270	 7.4180
 0.4280	 7.4780
 0.4290	 7.5180
 0.4300	 7.5450
 0.4310	 7.5990
 0.4320	 7.6500
 0.4330	 7.6940
 0.4340	 7.7300
 0.4350	 7.7880
 0.4360	 7.8360
 0.4370	 7.8730
 0.4380	 7.9200
 0.4390	 7.9640
 0.4400	 8.0070
 0.4410	 8.0470
 0.4420	 8.0820
 0.4430	 8.1190
 0.4440	 8.1620
 0.4450	 8.1990
 0.4460	 8.2420
 0.4470	 8.2840
 0.4480	 8.3200
 0.4490	 8.3640
 0.4500	 8.4130
 0.4510	 8.4510
 0.4520	 8.4730
 0.4530	 8.5110
 0.4540	 8.5470
 0.4550	 8.5720
 0.4560	 8.5880
 0.4570	 8.6070
 0.4580	 8.6270
 0.4590	 8.6430
 0.4600	 8.6540
 0.4610	 8.6630
 0.4620	 8.6740
 0.4630	 8.6850
 0.4640	 8.7050
 0.4650	 8.7090
 0.4660	 8.7020
 0.4670	 8.7160
 0.4680	 8.7360
 0.4690	 8.7390
 0.4700	 8.7310
 0.4710	 8.7390
 0.4720	 8.7490
 0.4730	 8.7580
 0.4740	 8.7620
 0.4750	 8.7660
 0.4760	 8.7730
 0.4770	 8.7830
 0.4780	 8.7950
 0.4790	 8.7970
 0.4800	 8.8000
 0.4810	 8.8080
 0.4820	 8.8220
 0.4830	 8.8360
 0.4840	 8.8470
 0.4850	 8.8560
 0.4860	 8.8680
 0.4870	 8.8770
 0.4880	 8.8940
 0.4890	 8.9170
 0.4900	 8.9430
 0.4910	 8.9730
 0.4920	 9.0090
 0.4930	 9.0510
 0.4940	 9.0990
 0.4950	 9.1490
 0.4960	 9.2010
 0.4970	 9.2550
 0.4980	 9.3190
 0.4990	 9.3960
 0.5000	 9.4680
 0.5010	 9.5480
 0.5020	 9.6410
 0.5030	 9.7420
 0.5040	 9.8530
 0.5050	 9.9690
 0.5060	10.0870
 0.5070	10.2240
 0.5080	10.3720
 0.5090	10.5320
 0.5100	10.7030
 0.5110	10.8840
 0.5120	11.0730
 0.5130	11.2710
 0.5140	11.4810
 0.5150	11.7050
 0.5160	11.9390
 0.5170	12.1810
 0.5180	12.4280
 0.5190	12.6830
 0.5200	12.9400
 0.5210	13.1920
 0.5220	13.4490
 0.5230	13.7000
 0.5240	13.9390
 0.5250	14.1700
 0.5260	14.3900
 0.5270	14.5950
 0.5280	14.7820
 0.5290	14.9650
 0.5300	15.1300
 0.5310	15.2750
 0.5320	15.4090
 0.5330	15.5320
 0.5340	15.6420
 0.5350	15.7400
 0.5360	15.8290
 0.5370	15.9070
 0.5380	15.9740
 0.5390	16.0330
 0.5400	16.0940
 0.5410	16.1470
 0.5420	16.1880
 0.5430	16.2360
 0.5440	16.2880
 0.5450	16.3440
 0.5460	16.4040
 0.5470	16.4620
 0.5480	16.5170
 0.5490	16.5670
 0.5500	16.6050
 0.5510	16.6340
 0.5520	16.6500
 0.5530	16.6520
 0.5540	16.6400
 0.5550	16.6120
 0.5560	16.5680
 0.5570	16.5040
 0.5580	16.4290
 0.5590	16.3410
 0.5600	16.2440
 0.5610	16.1430
 0.5620	16.0330
 0.5630	15.9170
 0.5640	15.7980
 0.5650	15.6720
 0.5660	15.5380
 0.5670	15.3950
 0.5680	15.2420
 0.5690	15.0830
 0.5700	14.9230
 0.5710	14.7640
 0.5720	14.6110
 0.5730	14.4620
 0.5740	14.3210
 0.5750	14.1900
 0.5760	14.0720
 0.5770	13.9630
 0.5780	13.8620
 0.5790	13.7640
 0.5800	13.6670
 0.5810	13.5750
 0.5820	13.4920
 0.5830	13.4170
 0.5840	13.3430
 0.5850	13.2700
 0.5860	13.1990
 0.5870	13.1290
 0.5880	13.0610
 0.5890	13.0010
 0.5900	12.9460
 0.5910	12.9030
 0.5920	12.8680
 0.5930	12.8320
 0.5940	12.8020
 0.5950	12.7740
 0.5960	12.7460
 0.5970	12.7200
 0.5980	12.6960
 0.5990	12.6720
 0.6000	12.6450
 0.6010	12.6140
 0.6020	12.5780
 0.6030	12.5380
 0.6040	12.4910
 0.6050	12.4370
 0.6060	12.3750
 0.6070	12.3080
 0.6080	12.2360
 0.6090	12.1550
 0.6100	12.0660
 0.6110	11.9730
 0.6120	11.8940
 0.6130	11.8200
 0.6140	11.7480
 0.6150	11.6740
 0.6160	11.6020
 0.6170	11.5330
 0.6180	11.4700
 0.6190	11.4160
 0.6200	11.3650
 0.6210	11.3190
 0.6220	11.2810
 0.6230	11.2490
 0.6240	11.2180
 0.6250	11.1890
 0.6260	11.1730
 0.6270	11.1580
 0.6280	11.1460
 0.6290	11.1370
 0.6300	11.1270
 0.6310	11.1170
 0.6320	11.1020
 0.6330	11.0780
 0.6340	11.0470
 0.6350	11.0100
 0.6360	10.9630
 0.6370	10.9040
 0.6380	10.8350
 0.6390	10.7600
 0.6400	10.6820
 0.6410	10.5920
 0.6420	10.5010
 0.6430	10.4140
 0.6440	10.3220
 0.6450	10.2290
 0.6460	10.1410
 0.6470	10.0600
 0.6480	 9.9770
 0.6490	 9.9070
 0.6500	 9.8480
 0.6510	 9.7940
 0.6520	 9.7480
 0.6530	 9.7050
 0.6540	 9.6630
 0.6550	 9.6200
 0.6560	 9.5690
 0.6570	 9.5100
 0.6580	 9.4460
 0.6590	 9.3750
 0.6600	 9.2970
 0.6610	 9.2170
 0.6620	 9.1380
 0.6630	 9.0620
 0.6640	 8.9910
 0.6650	 8.9260
 0.6660	 8.8620
 0.6670	 8.8100
 0.6680	 8.7690
 0.6690	 8.7340
 0.6700	 8.7060
 0.6710	 8.6860
 0.6720	 8.6780
 0.6730	 8.6680
 0.6740	 8.6670
 0.6750	 8.6730
 0.6760	 8.6850
 0.6770	 8.7030
 0.6780	 8.7270
 0.6790	 8.7570
 0.6800	 8.7960
 0.6810	 8.8460
 0.6820	 8.9150
 0.6830	 9.0010
 0.6840	 9.1090
 0.6850	 9.2390
 0.6860	 9.3960
 0.6870	 9.5970
 0.6880	 9.8340
 0.6890	10.1180
 0.6900	10.4590
 0.6910	10.8680
 0.6920	11.3380
 0.6930	11.8770
 0.6940	12.4880
 0.6950	13.1660
 0.6960	13.9050
 0.6970	14.7040
 0.6980	15.5640
 0.6990	16.4680
 0.7000	17.4110
 0.7010	18.3840
 0.7020	19.3800
 0.7030	20.3910
 0.7040	21.4100
 0.7050	22.4320
 0.7060	23.4560
 0.7070	24.4900
 0.7080	25.5290
 0.7090	26.5690
 0.7100	27.6170
 0.7110	28.6780
 0.7120	29.7510
 0.7130	30.8310
 0.7140	31.9160
 0.7150	33.0130
 0.7160	34.1210
 0.7170	35.2320
 0.7180	36.3530
 0.7190	37.4820
 0.7200	38.6110
 0.7210	39.7420
 0.7220	40.8680
 0.7230	41.9860
 0.7240	43.0950
 0.7250	44.1980
 0.7260	45.2800
 0.7270	46.3340
 0.7280	47.3740
 0.7290	48.3850
 0.7300	49.3680
 0.7310	50.3220
 0.7320	51.2420
 0.7330	52.1320
 0.7340	52.9910
 0.7350	53.8150
 0.7360	54.6080
 0.7370	55.3650
 0.7380	56.0830
 0.7390	56.7690
 0.7400	57.4190
 0.7410	58.0340
 0.7420	58.6140
 0.7430	59.1580
 0.7440	59.6720
 0.7450	60.1540
 0.7460	60.5950
 0.7470	61.0120
 0.7480	61.4040
 0.7490	61.7630
 0.7500	62.0930
 0.7510	62.3990
 0.7520	62.6790
 0.7530	62.9320
 0.7540	63.1700
 0.7550	63.3920
 0.7560	63.5970
 0.7570	63.7800
 0.7580	63.9410
 0.7590	64.0950
 0.7600	64.2470
 0.7610	64.3820
 0.7620	64.5010
 0.7630	64.6110
 0.7640	64.7160
 0.7650	64.8070
 0.7660	64.8940
 0.7670	64.9730
 0.7680	65.0370
 0.7690	65.1070
 0.7700	65.1760
 0.7710	65.2400
 0.7720	65.3000
 0.7730	65.3520
 0.7740	65.4010
 0.7750	65.4530
 0.7760	65.5020
 0.7770	65.5500
 0.7780	65.5980
 0.7790	65.6460
 0.7800	65.6940
 0.7810	65.7350
 0.7820	65.7690
 0.7830	65.8090
 0.7840	65.8450
 0.7850	65.8780
 0.7860	65.9100
 0.7870	65.9490
 0.7880	65.9890
 0.7890	66.0260
 0.7900	66.0570
 0.7910	66.0870
 0.7920	66.1200
 0.7930	66.1540
 0.7940	66.1810
 0.7950	66.2080
 0.7960	66.2320
 0.7970	66.2550
 0.7980	66.2810
 0.7990	66.3060
 0.8000	66.3290
 0.8010	66.3500
 0.8020	66.3740
 0.8030	66.3970
 0.8040	66.4170
 0.8050	66.4330
 0.8060	66.4470
 0.8070	66.4620
 0.8080	66.4780
 0.8090	66.4870
 0.8100	66.5060
 0.8110	66.5280
 0.8120	66.5430
 0.8130	66.5530
 0.8140	66.5630
 0.8150	66.5760
 0.8160	66.5890
 0.8170	66.6050
 0.8180	66.6180
 0.8190	66.6310
 0.8200	66.6420
 0.8210	66.6510
 0.8220	66.6640
 0.8230	66.6780
 0.8240	66.6860
 0.8250	66.6910
 0.8260	66.6970
 0.8270	66.7030
 0.8280	66.7030
 0.8290	66.6980
 0.8300	66.6960
 0.8310	66.7030
 0.8320	66.7150
 0.8330	66.7240
 0.8340	66.7280
 0.8350	66.7280
 0.8360	66.7470
 0.8370	66.7660
 0.8380	66.7780
 0.8390	66.7890
 0.8400	66.8030
 0.8410	66.8170
 0.8420	66.8340
 0.8430	66.8540
 0.8440	66.8740
 0.8450	66.8960
 0.8460	66.9190
 0.8470	66.9380
 0.8480	66.9600
 0.8490	66.9820
 0.8500	66.9980
 0.8510	67.0150
 0.8520	67.0370
 0.8530	67.0600
 0.8540	67.0750
 0.8550	67.0890
 0.8560	67.1060
 0.8570	67.1280
 0.8580	67.1450
 0.8590	67.1620
 0.8600	67.1780
 0.8610	67.1900
 0.8620	67.2020
 0.8630	67.2200
 0.8640	67.2390
 0.8650	67.2560
 0.8660	67.2680
 0.8670	67.2800
 0.8680	67.2930
 0.8690	67.3110
 0.8700	67.3250
 0.8710	67.3370
 0.8720	67.3490
 0.8730	67.3610
 0.8740	67.3750
 0.8750	67.3910
 0.8760	67.4040
 0.8770	67.4080
 0.8780	67.4190
 0.8790	67.4310
 0.8800	67.4420
 0.8810	67.4600
 0.8820	67.4650
 0.8830	67.4660
 0.8840	67.4680
 0.8850	67.4730
 0.8860	67.4800
 0.8870	67.4860
 0.8880	67.4880
 0.8890	67.4860
 0.8900	67.4850
 0.8910	67.4830
 0.8920	67.4800
 0.8930	67.4930
 0.8940	67.4990
 0.8950	67.4920
 0.8960	67.4840
 0.8970	67.4740
 0.8980	67.4760
 0.8990	67.4830
 0.9000	67.4750
 0.9010	67.4720
 0.9020	67.4700
 0.9030	67.4660
 0.9040	67.4610
 0.9050	67.4560
 0.9060	67.4480
 0.9070	67.4370
 0.9080	67.4220
 0.9090	67.4150
 0.9100	67.4170
 0.9110	67.4200
 0.9120	67.4130
 0.9130	67.4020
 0.9140	67.3930
 0.9150	67.3870
 0.9160	67.3740
 0.9170	67.3590
 0.9180	67.3420
 0.9190	67.3210
 0.9200	67.2990
 0.9210	67.2820
 0.9220	67.2640
 0.9230	67.2390
 0.9240	67.2060
 0.9250	67.1770
 0.9260	67.1410
 0.9270	67.0760
 0.9280	67.0320
 0.9290	66.9950
 0.9300	66.9490
 0.9310	66.8870
 0.9320	66.8320
 0.9330	66.7640
 0.9340	66.6850
 0.9350	66.6180
 0.9360	66.5460
 0.9370	66.4660
 0.9380	66.3820
 0.9390	66.2990
 0.9400	66.2160
 0.9410	66.1200
 0.9420	66.0100
 0.9430	65.9010
 0.9440	65.7880
 0.9450	65.6670
 0.9460	65.5360
 0.9470	65.3850
 0.9480	65.2150
 0.9490	65.0480
 0.9500	64.8900
 0.9510	64.7050
 0.9520	64.4940
 0.9530	64.2820
 0.9540	64.0870
 0.9550	63.8710
 0.9560	63.6660
 0.9570	63.4800
 0.9580	63.3090
 0.9590	63.1380
 0.9600	62.9770
 0.9610	62.8310
 0.9620	62.7030
 0.9630	62.5790
 0.9640	62.4910
 0.9650	62.4240
 0.9660	62.3490
 0.9670	62.2690
 0.9680	62.1960
 0.9690	62.1390
 0.9700	62.0980
 0.9710	62.0430
 0.9720	61.9970
 0.9730	61.9640
 0.9740	61.9400
 0.9750	61.9130
 0.9760	61.9020
 0.9770	61.8960
 0.9780	61.8820
 0.9790	61.8950
 0.9800	61.8990
 0.9810	61.8910
 0.9820	61.8930
 0.9830	61.9280
 0.9840	61.9550
 0.9850	61.9690
 0.9860	61.9870
 0.9870	62.0280
 0.9880	62.0680
 0.9890	62.1160
 0.9900	62.1870
 0.9910	62.2450
 0.9920	62.2850
 0.9930	62.3290
 0.9940	62.4050
 0.9950	62.4850
 0.9960	62.5530
 0.9970	62.6160
 0.9980	62.6880
 0.9990	62.7620
 1.0000	63.0160
 1.0010	63.3830
 1.0020	63.6470
 1.0030	63.7290
 1.0040	63.8170
 1.0050	63.9020
 1.0060	63.9880
 1.0070	64.0790
 1.0080	64.1650
 1.0090	64.2520
 1.0100	64.3380
 1.0110	64.4210
 1.0120	64.5080
 1.0130	64.6010
 1.0140	64.6890
 1.0150	64.7740
 1.0160	64.8620
 1.0170	64.9540
 1.0180	65.0460
 1.0190	65.1390
 1.0200	65.2320
 1.0210	65.3220
 1.0220	65.4060
 1.0230	65.4910
 1.0240	65.5790
 1.0250	65.6620
 1.0260	65.7360
 1.0270	65.8220
 1.0280	65.9150
 1.0290	66.0000
 1.0300	66.0900
 1.0310	66.1720
 1.0320	66.2470
 1.0330	66.3200
 1.0340	66.3940
 1.0350	66.4650
 1.0360	66.5310
 1.0370	66.6010
 1.0380	66.6730
 1.0390	66.7490
 1.0400	66.8190
 1.0410	66.8890
 1.0420	66.9580
 1.0430	67.0260
 1.0440	67.0890
 1.0450	67.1540
 1.0460	67.2120
 1.0470	67.2570
 1.0480	67.3090
 1.0490	67.3620
 1.0500	67.4150
 1.0510	67.4720
 1.0520	67.5260
 1.0530	67.5760
 1.0540	67.6230
 1.0550	67.6700
 1.0560	67.7140
 1.0570	67.7570
 1.0580	67.8010
 1.0590	67.8390
 1.0600	67.8710
 1.0610	67.9040
 1.0620	67.9340
 1.0630	67.9630
 1.0640	67.9930
 1.0650	68.0200
 1.0660	68.0440
 1.0670	68.0670
 1.0680	68.0900
 1.0690	68.1150
 1.0700	68.1340
 1.0710	68.1530
 1.0720	68.1660
 1.0730	68.1720
 1.0740	68.1820
 1.0750	68.1920
 1.0760	68.1990
 1.0770	68.2070
 1.0780	68.2120
 1.0790	68.2130
 1.0800	68.2120
 1.0810	68.2120
 1.0820	68.2080
 1.0830	68.1990
 1.0840	68.1900
 1.0850	68.1780
 1.0860	68.1660
 1.0870	68.1510
 1.0880	68.1340
 1.0890	68.1150
 1.0900	68.0940
 1.0910	68.0690
 1.0920	68.0420
 1.0930	68.0120
 1.0940	67.9770
 1.0950	67.9440
 1.0960	67.9100
 1.0970	67.8750
 1.0980	67.8380
 1.0990	67.7990
 1.1000	67.7560
 1.1010	67.7140
 1.1020	67.6700
 1.1030	67.6260
 1.1040	67.5800
 1.1050	67.5340
 1.1060	67.4860
 1.1070	67.4350
 1.1080	67.3810
 1.1090	67.3260
 1.1100	67.2670
 1.1110	67.2050
 1.1120	67.1420
 1.1130	67.0830
 1.1140	67.0120
 1.1150	66.9380
 1.1160	66.8580
 1.1170	66.7730
 1.1180	66.6800
 1.1190	66.5840
 1.1200	66.4760
 1.1210	66.3560
 1.1220	66.2270
 1.1230	66.0840
 1.1240	65.9330
 1.1250	65.7660
 1.1260	65.5890
 1.1270	65.3890
 1.1280	65.1750
 1.1290	64.9360
 1.1300	64.6770
 1.1310	64.3970
 1.1320	64.0970
 1.1330	63.7780
 1.1340	63.4380
 1.1350	63.0820
 1.1360	62.7080
 1.1370	62.3160
 1.1380	61.9130
 1.1390	61.5000
 1.1400	61.0720
 1.1410	60.6450
 1.1420	60.2130
 1.1430	59.7780
 1.1440	59.3540
 1.1450	58.9290
 1.1460	58.5210
 1.1470	58.1180
 1.1480	57.7340
 1.1490	57.3570
 1.1500	57.0090
 1.1510	56.6770
 1.1520	56.3690
 1.1530	56.0830
 1.1540	55.8200
 1.1550	55.5780
 1.1560	55.3540
 1.1570	55.1510
 1.1580	54.9670
 1.1590	54.7980
 1.1600	54.6470
 1.1610	54.5120
 1.1620	54.3880
 1.1630	54.2750
 1.1640	54.1710
 1.1650	54.0740
 1.1660	53.9900
 1.1670	53.9080
 1.1680	53.8320
 1.1690	53.7610
 1.1700	53.6950
 1.1710	53.6310
 1.1720	53.5740
 1.1730	53.5150
 1.1740	53.4570
 1.1750	53.4000
 1.1760	53.3400
 1.1770	53.2790
 1.1780	53.2180
 1.1790	53.1550
 1.1800	53.0900
 1.1810	53.0270
 1.1820	52.9630
 1.1830	52.8990
 1.1840	52.8360
 1.1850	52.7750
 1.1860	52.7150
 1.1870	52.6560
 1.1880	52.6030
 1.1890	52.5530
 1.1900	52.5080
 1.1910	52.4660
 1.1920	52.4280
 1.1930	52.3940
 1.1940	52.3640
 1.1950	52.3340
 1.1960	52.3130
 1.1970	52.2980
 1.1980	52.2880
 1.1990	52.2870
 1.2000	52.2920
 1.2010	52.3010
 1.2020	52.3160
 1.2030	52.3390
 1.2040	52.3670
 1.2050	52.3990
 1.2060	52.4370
 1.2070	52.4810
 1.2080	52.5320
 1.2090	52.5850
 1.2100	52.6450
 1.2110	52.7090
 1.2120	52.7770
 1.2130	52.8490
 1.2140	52.9280
 1.2150	53.0080
 1.2160	53.0910
 1.2170	53.1750
 1.2180	53.2630
 1.2190	53.3530
 1.2200	53.4430
 1.2210	53.5350
 1.2220	53.6290
 1.2230	53.7230
 1.2240	53.8170
 1.2250	53.9120
 1.2260	54.0040
 1.2270	54.0940
 1.2280	54.1820
 1.2290	54.2690
 1.2300	54.3550
 1.2310	54.4410
 1.2320	54.5240
 1.2330	54.6040
 1.2340	54.6810
 1.2350	54.7520
 1.2360	54.8240
 1.2370	54.8940
 1.2380	54.9640
 1.2390	55.0320
 1.2400	55.0970
 1.2410	55.1630
 1.2420	55.2260
 1.2430	55.2850
 1.2440	55.3460
 1.2450	55.4050
 1.2460	55.4590
 1.2470	55.5130
 1.2480	55.5660
 1.2490	55.6150
 1.2500	55.6630
 1.2510	55.7130
 1.2520	55.7600
 1.2530	55.8030
 1.2540	55.8450
 1.2550	55.8820
 1.2560	55.9140
 1.2570	55.9460
 1.2580	55.9790
 1.2590	56.0080
 1.2600	56.0350
 1.2610	56.0610
 1.2620	56.0850
 1.2630	56.1020
 1.2640	56.1180
 1.2650	56.1330
 1.2660	56.1440
 1.2670	56.1520
 1.2680	56.1570
 1.2690	56.1610
 1.2700	56.1610
 1.2710	56.1570
 1.2720	56.1520
 1.2730	56.1410
 1.2740	56.1290
 1.2750	56.1130
 1.2760	56.0950
 1.2770	56.0750
 1.2780	56.0510
 1.2790	56.0240
 1.2800	55.9940
 1.2810	55.9590
 1.2820	55.9200
 1.2830	55.8760
 1.2840	55.8280
 1.2850	55.7780
 1.2860	55.7260
 1.2870	55.6660
 1.2880	55.6030
 1.2890	55.5330
 1.2900	55.4600
 1.2910	55.3800
 1.2920	55.3000
 1.2930	55.2170
 1.2940	55.1240
 1.2950	55.0260
 1.2960	54.9190
 1.2970	54.8050
 1.2980	54.6880
 1.2990	54.5630
 1.3000	54.4350
 1.3010	54.3030
 1.3020	54.1640
 1.3030	54.0170
 1.3040	53.8620
 1.3050	53.7020
 1.3060	53.5340
 1.3070	53.3630
 1.3080	53.1890
 1.3090	53.0060
 1.3100	52.8170
 1.3110	52.6190
 1.3120	52.4120
 1.3130	52.1990
 1.3140	51.9780
 1.3150	51.7490
 1.3160	51.5180
 1.3170	51.2830
 1.3180	51.0400
 1.3190	50.7910
 1.3200	50.5390
 1.3210	50.2750
 1.3220	50.0080
 1.3230	49.7370
 1.3240	49.4580
 1.3250	49.1810
 1.3260	48.8980
 1.3270	48.6120
 1.3280	48.3250
 1.3290	48.0330
 1.3300	47.7410
 1.3310	47.4480
 1.3320	47.1530
 1.3330	46.8580
 1.3340	46.5630
 1.3350	46.2660
 1.3360	45.9720
 1.3370	45.6790
 1.3380	45.3910
 1.3390	45.1060
 1.3400	44.8260
 1.3410	44.5510
 1.3420	44.2800
 1.3430	44.0120
 1.3440	43.7470
 1.3450	43.4870
 1.3460	43.2270
 1.3470	42.9760
 1.3480	42.7310
 1.3490	42.4900
 1.3500	42.2560
 1.3510	42.0250
 1.3520	41.7950
 1.3530	41.5660
 1.3540	41.3380
 1.3550	41.1140
 1.3560	40.8910
 1.3570	40.6670
 1.3580	40.4440
 1.3590	40.2170
 1.3600	39.9860
 1.3610	39.7520
 1.3620	39.5110
 1.3630	39.2630
 1.3640	39.0080
 1.3650	38.7430
 1.3660	38.4700
 1.3670	38.1840
 1.3680	37.8830
 1.3690	37.5700
 1.3700	37.2380
 1.3710	36.8900
 1.3720	36.5260
 1.3730	36.1380
 1.3740	35.7320
 1.3750	35.3040
 1.3760	34.8490
 1.3770	34.3710
 1.3780	33.8640
 1.3790	33.3320
 1.3800	32.7770
 1.3810	32.1930
 1.3820	31.5950
 1.3830	30.9750
 1.3840	30.3420
 1.3850	29.6890
 1.3860	29.0320
 1.3870	28.3550
 1.3880	27.6850
 1.3890	27.0100
 1.3900	26.3340
 1.3910	25.6700
 1.3920	25.0090
 1.3930	24.3530
 1.3940	23.7130
 1.3950	23.0790
 1.3960	22.4640
 1.3970	21.8710
 1.3980	21.2960
 1.3990	20.7510
 1.4000	20.2270
 1.4010	19.7240
 1.4020	19.2480
 1.4030	18.7930
 1.4040	18.3620
 1.4050	17.9570
 1.4060	17.5750
 1.4070	17.2190
 1.4080	16.8850
 1.4090	16.5700
 1.4100	16.2790
 1.4110	16.0050
 1.4120	15.7510
 1.4130	15.5140
 1.4140	15.2930
 1.4150	15.0910
 1.4160	14.9050
 1.4170	14.7290
 1.4180	14.5680
 1.4190	14.4170
 1.4200	14.2770
 1.4210	14.1470
 1.4220	14.0280
 1.4230	13.9170
 1.4240	13.8140
 1.4250	13.7200
 1.4260	13.6350
 1.4270	13.5550
 1.4280	13.4840
 1.4290	13.4170
 1.4300	13.3570
 1.4310	13.3010
 1.4320	13.2530
 1.4330	13.2070
 1.4340	13.1660
 1.4350	13.1300
 1.4360	13.0980
 1.4370	13.0700
 1.4380	13.0460
 1.4390	13.0260
 1.4400	13.0070
 1.4410	12.9920
 1.4420	12.9800
 1.4430	12.9700
 1.4440	12.9650
 1.4450	12.9610
 1.4460	12.9580
 1.4470	12.9570
 1.4480	12.9570
 1.4490	12.9590
 1.4500	12.9630
 1.4510	12.9680
 1.4520	12.9750
 1.4530	12.9840
 1.4540	12.9940
 1.4550	13.0060
 1.4560	13.0200
 1.4570	13.0370
 1.4580	13.0550
 1.4590	13.0750
 1.4600	13.0990
 1.4610	13.1250
 1.4620	13.1550
 1.4630	13.1880
 1.4640	13.2250
 1.4650	13.2650
 1.4660	13.3100
 1.4670	13.3590
 1.4680	13.4120
 1.4690	13.4670
 1.4700	13.5250
 1.4710	13.5870
