Name: Rubus occidentalis
Type: Vegetation
Class: Tree
Genus: Rubus
Species: occidentalis
Sample No.: RUOC-1-73
Owner: UCSB
Wavelength Range: VSWIR
Origin: USA; Massachusetts; Harvard Forest
Collection Date: 7/8/2013
Description: Samples were collected as part of NSF Macrosystem Biology proposal titled: Collaborative Research: Thermal controls on ecosystem metabolism and function: scaling from leaves to canopies to regions. Samples were collected and overnighted to JPL facilities for processing. The same leaves were processed in the Nicolet and then measured using the ASD.
Measurement: Bidirectional reflectance
First Column: X
Second Column: Y
X Units: Wavelength (micrometers)
Y Units: Reflectance (percentage)
First X Value: 0.35
Last X Value: 2.5
Number of X Values: 2151
Additional Information: vegetation.tree.rubus.occidentalis.vswir.ruoc-1-73.ucsb.asd.ancillary.txt

 0.3500	 5.0290
 0.3510	 5.1340
 0.3520	 4.8370
 0.3530	 4.5510
 0.3540	 4.6280
 0.3550	 4.6490
 0.3560	 4.7640
 0.3570	 4.9020
 0.3580	 4.8820
 0.3590	 4.6270
 0.3600	 4.6270
 0.3610	 4.8400
 0.3620	 4.4090
 0.3630	 4.3960
 0.3640	 4.6540
 0.3650	 4.7860
 0.3660	 4.7550
 0.3670	 4.6710
 0.3680	 4.6120
 0.3690	 4.6140
 0.3700	 4.5360
 0.3710	 4.5190
 0.3720	 4.6110
 0.3730	 4.6270
 0.3740	 4.6460
 0.3750	 4.6030
 0.3760	 4.4520
 0.3770	 4.4150
 0.3780	 4.5100
 0.3790	 4.6320
 0.3800	 4.5900
 0.3810	 4.4930
 0.3820	 4.4930
 0.3830	 4.6190
 0.3840	 4.6440
 0.3850	 4.6360
 0.3860	 4.6160
 0.3870	 4.5930
 0.3880	 4.5440
 0.3890	 4.5660
 0.3900	 4.6310
 0.3910	 4.5810
 0.3920	 4.5980
 0.3930	 4.6480
 0.3940	 4.6540
 0.3950	 4.5380
 0.3960	 4.5660
 0.3970	 4.6770
 0.3980	 4.6740
 0.3990	 4.6480
 0.4000	 4.6690
 0.4010	 4.7230
 0.4020	 4.6890
 0.4030	 4.6950
 0.4040	 4.7270
 0.4050	 4.7470
 0.4060	 4.7520
 0.4070	 4.7390
 0.4080	 4.7310
 0.4090	 4.7640
 0.4100	 4.7690
 0.4110	 4.7590
 0.4120	 4.7530
 0.4130	 4.7570
 0.4140	 4.7940
 0.4150	 4.8240
 0.4160	 4.8060
 0.4170	 4.8020
 0.4180	 4.7760
 0.4190	 4.7490
 0.4200	 4.7890
 0.4210	 4.7730
 0.4220	 4.7580
 0.4230	 4.7860
 0.4240	 4.7740
 0.4250	 4.7700
 0.4260	 4.7780
 0.4270	 4.7810
 0.4280	 4.7880
 0.4290	 4.7730
 0.4300	 4.7420
 0.4310	 4.7510
 0.4320	 4.7600
 0.4330	 4.7700
 0.4340	 4.7840
 0.4350	 4.7720
 0.4360	 4.7710
 0.4370	 4.7790
 0.4380	 4.7670
 0.4390	 4.7490
 0.4400	 4.7330
 0.4410	 4.7180
 0.4420	 4.6790
 0.4430	 4.6830
 0.4440	 4.7090
 0.4450	 4.7040
 0.4460	 4.7090
 0.4470	 4.7090
 0.4480	 4.7030
 0.4490	 4.7100
 0.4500	 4.7210
 0.4510	 4.7210
 0.4520	 4.7050
 0.4530	 4.7200
 0.4540	 4.7310
 0.4550	 4.7260
 0.4560	 4.7170
 0.4570	 4.7240
 0.4580	 4.7350
 0.4590	 4.7410
 0.4600	 4.7380
 0.4610	 4.7250
 0.4620	 4.7080
 0.4630	 4.6960
 0.4640	 4.7020
 0.4650	 4.7080
 0.4660	 4.7020
 0.4670	 4.6830
 0.4680	 4.6900
 0.4690	 4.6940
 0.4700	 4.6720
 0.4710	 4.6740
 0.4720	 4.6610
 0.4730	 4.6500
 0.4740	 4.6780
 0.4750	 4.6780
 0.4760	 4.6740
 0.4770	 4.6820
 0.4780	 4.6890
 0.4790	 4.6800
 0.4800	 4.6700
 0.4810	 4.6730
 0.4820	 4.6480
 0.4830	 4.6490
 0.4840	 4.6790
 0.4850	 4.6910
 0.4860	 4.7030
 0.4870	 4.7090
 0.4880	 4.7070
 0.4890	 4.7060
 0.4900	 4.7150
 0.4910	 4.7320
 0.4920	 4.7530
 0.4930	 4.7770
 0.4940	 4.7960
 0.4950	 4.8140
 0.4960	 4.8410
 0.4970	 4.8830
 0.4980	 4.9240
 0.4990	 4.9560
 0.5000	 5.0200
 0.5010	 5.0800
 0.5020	 5.1340
 0.5030	 5.2100
 0.5040	 5.3050
 0.5050	 5.4150
 0.5060	 5.5360
 0.5070	 5.6770
 0.5080	 5.8220
 0.5090	 5.9750
 0.5100	 6.1490
 0.5110	 6.3510
 0.5120	 6.5740
 0.5130	 6.8120
 0.5140	 7.0620
 0.5150	 7.3320
 0.5160	 7.6200
 0.5170	 7.9190
 0.5180	 8.2370
 0.5190	 8.5570
 0.5200	 8.8770
 0.5210	 9.2060
 0.5220	 9.5240
 0.5230	 9.8300
 0.5240	10.1240
 0.5250	10.4080
 0.5260	10.6750
 0.5270	10.9270
 0.5280	11.1640
 0.5290	11.3640
 0.5300	11.5420
 0.5310	11.7100
 0.5320	11.8660
 0.5330	12.0010
 0.5340	12.1130
 0.5350	12.2050
 0.5360	12.2970
 0.5370	12.3660
 0.5380	12.4180
 0.5390	12.4800
 0.5400	12.5290
 0.5410	12.5760
 0.5420	12.6290
 0.5430	12.6800
 0.5440	12.7320
 0.5450	12.7800
 0.5460	12.8140
 0.5470	12.8150
 0.5480	12.8020
 0.5490	12.7950
 0.5500	12.8090
 0.5510	12.8170
 0.5520	12.8080
 0.5530	12.7750
 0.5540	12.7320
 0.5550	12.6750
 0.5560	12.6020
 0.5570	12.5180
 0.5580	12.4190
 0.5590	12.3030
 0.5600	12.1730
 0.5610	12.0330
 0.5620	11.8840
 0.5630	11.7220
 0.5640	11.5440
 0.5650	11.3630
 0.5660	11.1750
 0.5670	10.9770
 0.5680	10.7760
 0.5690	10.5740
 0.5700	10.3710
 0.5710	10.1690
 0.5720	 9.9740
 0.5730	 9.7930
 0.5740	 9.6240
 0.5750	 9.4620
 0.5760	 9.3200
 0.5770	 9.1880
 0.5780	 9.0590
 0.5790	 8.9440
 0.5800	 8.8320
 0.5810	 8.7210
 0.5820	 8.6090
 0.5830	 8.5030
 0.5840	 8.4070
 0.5850	 8.3180
 0.5860	 8.2310
 0.5870	 8.1530
 0.5880	 8.0780
 0.5890	 8.0020
 0.5900	 7.9410
 0.5910	 7.8890
 0.5920	 7.8400
 0.5930	 7.7880
 0.5940	 7.7530
 0.5950	 7.7200
 0.5960	 7.6810
 0.5970	 7.6420
 0.5980	 7.6040
 0.5990	 7.5700
 0.6000	 7.5400
 0.6010	 7.4950
 0.6020	 7.4480
 0.6030	 7.4030
 0.6040	 7.3540
 0.6050	 7.3020
 0.6060	 7.2440
 0.6070	 7.1820
 0.6080	 7.1210
 0.6090	 7.0570
 0.6100	 6.9930
 0.6110	 6.9340
 0.6120	 6.8570
 0.6130	 6.7750
 0.6140	 6.6990
 0.6150	 6.6310
 0.6160	 6.5580
 0.6170	 6.4880
 0.6180	 6.4290
 0.6190	 6.3770
 0.6200	 6.3310
 0.6210	 6.2910
 0.6220	 6.2550
 0.6230	 6.2210
 0.6240	 6.1950
 0.6250	 6.1770
 0.6260	 6.1550
 0.6270	 6.1400
 0.6280	 6.1300
 0.6290	 6.1190
 0.6300	 6.1060
 0.6310	 6.0920
 0.6320	 6.0720
 0.6330	 6.0450
 0.6340	 6.0160
 0.6350	 5.9780
 0.6360	 5.9250
 0.6370	 5.8680
 0.6380	 5.7990
 0.6390	 5.7230
 0.6400	 5.6510
 0.6410	 5.5770
 0.6420	 5.4950
 0.6430	 5.4100
 0.6440	 5.3400
 0.6450	 5.2700
 0.6460	 5.2060
 0.6470	 5.1560
 0.6480	 5.1070
 0.6490	 5.0640
 0.6500	 5.0270
 0.6510	 4.9990
 0.6520	 4.9860
 0.6530	 4.9750
 0.6540	 4.9570
 0.6550	 4.9390
 0.6560	 4.9200
 0.6570	 4.9000
 0.6580	 4.8790
 0.6590	 4.8530
 0.6600	 4.8250
 0.6610	 4.8010
 0.6620	 4.7810
 0.6630	 4.7640
 0.6640	 4.7490
 0.6650	 4.7390
 0.6660	 4.7350
 0.6670	 4.7360
 0.6680	 4.7410
 0.6690	 4.7520
 0.6700	 4.7630
 0.6710	 4.7820
 0.6720	 4.8080
 0.6730	 4.8290
 0.6740	 4.8570
 0.6750	 4.8920
 0.6760	 4.9310
 0.6770	 4.9650
 0.6780	 5.0080
 0.6790	 5.0610
 0.6800	 5.1140
 0.6810	 5.1740
 0.6820	 5.2340
 0.6830	 5.2940
 0.6840	 5.3650
 0.6850	 5.4530
 0.6860	 5.5520
 0.6870	 5.6600
 0.6880	 5.7970
 0.6890	 5.9770
 0.6900	 6.2110
 0.6910	 6.5060
 0.6920	 6.8740
 0.6930	 7.3230
 0.6940	 7.8600
 0.6950	 8.4920
 0.6960	 9.2070
 0.6970	 9.9960
 0.6980	10.8480
 0.6990	11.7680
 0.7000	12.7330
 0.7010	13.7270
 0.7020	14.7400
 0.7030	15.7580
 0.7040	16.7720
 0.7050	17.7740
 0.7060	18.7610
 0.7070	19.7380
 0.7080	20.6960
 0.7090	21.6260
 0.7100	22.5340
 0.7110	23.4260
 0.7120	24.3010
 0.7130	25.1500
 0.7140	25.9720
 0.7150	26.7730
 0.7160	27.5550
 0.7170	28.3050
 0.7180	29.0390
 0.7190	29.7510
 0.7200	30.4290
 0.7210	31.0830
 0.7220	31.7190
 0.7230	32.3270
 0.7240	32.8900
 0.7250	33.4330
 0.7260	33.9550
 0.7270	34.4540
 0.7280	34.9360
 0.7290	35.3640
 0.7300	35.7620
 0.7310	36.1670
 0.7320	36.5340
 0.7330	36.8710
 0.7340	37.1900
 0.7350	37.4950
 0.7360	37.7730
 0.7370	38.0250
 0.7380	38.2580
 0.7390	38.4860
 0.7400	38.6940
 0.7410	38.8840
 0.7420	39.0600
 0.7430	39.2110
 0.7440	39.3480
 0.7450	39.4730
 0.7460	39.5820
 0.7470	39.6890
 0.7480	39.7830
 0.7490	39.8560
 0.7500	39.9230
 0.7510	39.9860
 0.7520	40.0430
 0.7530	40.0920
 0.7540	40.1280
 0.7550	40.1610
 0.7560	40.1960
 0.7570	40.2310
 0.7580	40.2490
 0.7590	40.2560
 0.7600	40.2670
 0.7610	40.2980
 0.7620	40.3120
 0.7630	40.3120
 0.7640	40.3150
 0.7650	40.3260
 0.7660	40.3310
 0.7670	40.3300
 0.7680	40.3320
 0.7690	40.3240
 0.7700	40.3180
 0.7710	40.3220
 0.7720	40.3280
 0.7730	40.3250
 0.7740	40.3240
 0.7750	40.3300
 0.7760	40.3150
 0.7770	40.3090
 0.7780	40.3140
 0.7790	40.3180
 0.7800	40.3130
 0.7810	40.3180
 0.7820	40.3270
 0.7830	40.3130
 0.7840	40.3180
 0.7850	40.3260
 0.7860	40.3260
 0.7870	40.3260
 0.7880	40.3260
 0.7890	40.3240
 0.7900	40.3220
 0.7910	40.3320
 0.7920	40.3320
 0.7930	40.3290
 0.7940	40.3460
 0.7950	40.3430
 0.7960	40.3350
 0.7970	40.3310
 0.7980	40.3270
 0.7990	40.3280
 0.8000	40.3270
 0.8010	40.3210
 0.8020	40.3390
 0.8030	40.3310
 0.8040	40.3090
 0.8050	40.3060
 0.8060	40.3130
 0.8070	40.3040
 0.8080	40.2910
 0.8090	40.3130
 0.8100	40.3120
 0.8110	40.3050
 0.8120	40.3020
 0.8130	40.2790
 0.8140	40.2720
 0.8150	40.2750
 0.8160	40.2720
 0.8170	40.2480
 0.8180	40.2410
 0.8190	40.2470
 0.8200	40.2400
 0.8210	40.2270
 0.8220	40.2260
 0.8230	40.2330
 0.8240	40.2250
 0.8250	40.2120
 0.8260	40.2000
 0.8270	40.1930
 0.8280	40.1910
 0.8290	40.1870
 0.8300	40.1730
 0.8310	40.1520
 0.8320	40.1540
 0.8330	40.1540
 0.8340	40.1450
 0.8350	40.1300
 0.8360	40.1410
 0.8370	40.1420
 0.8380	40.1300
 0.8390	40.1290
 0.8400	40.1240
 0.8410	40.1210
 0.8420	40.1210
 0.8430	40.1200
 0.8440	40.1190
 0.8450	40.1200
 0.8460	40.1190
 0.8470	40.1050
 0.8480	40.0910
 0.8490	40.0840
 0.8500	40.0870
 0.8510	40.1080
 0.8520	40.1090
 0.8530	40.0980
 0.8540	40.1030
 0.8550	40.1000
 0.8560	40.0920
 0.8570	40.0870
 0.8580	40.0920
 0.8590	40.1070
 0.8600	40.1090
 0.8610	40.0960
 0.8620	40.0950
 0.8630	40.1080
 0.8640	40.1150
 0.8650	40.1040
 0.8660	40.1060
 0.8670	40.1110
 0.8680	40.1150
 0.8690	40.1170
 0.8700	40.1120
 0.8710	40.1170
 0.8720	40.1240
 0.8730	40.1160
 0.8740	40.1310
 0.8750	40.1470
 0.8760	40.1520
 0.8770	40.1530
 0.8780	40.1540
 0.8790	40.1550
 0.8800	40.1530
 0.8810	40.1380
 0.8820	40.1630
 0.8830	40.1840
 0.8840	40.1690
 0.8850	40.1680
 0.8860	40.1730
 0.8870	40.1850
 0.8880	40.2020
 0.8890	40.2010
 0.8900	40.1950
 0.8910	40.1880
 0.8920	40.1850
 0.8930	40.2060
 0.8940	40.2100
 0.8950	40.2030
 0.8960	40.2190
 0.8970	40.2210
 0.8980	40.2140
 0.8990	40.2110
 0.9000	40.2260
 0.9010	40.2370
 0.9020	40.2440
 0.9030	40.2520
 0.9040	40.2630
 0.9050	40.2670
 0.9060	40.2760
 0.9070	40.2880
 0.9080	40.2830
 0.9090	40.2760
 0.9100	40.2740
 0.9110	40.2790
 0.9120	40.2940
 0.9130	40.2900
 0.9140	40.2790
 0.9150	40.2830
 0.9160	40.2950
 0.9170	40.2960
 0.9180	40.2880
 0.9190	40.2820
 0.9200	40.3040
 0.9210	40.3130
 0.9220	40.3080
 0.9230	40.3070
 0.9240	40.3100
 0.9250	40.3040
 0.9260	40.2970
 0.9270	40.3070
 0.9280	40.2950
 0.9290	40.2880
 0.9300	40.2950
 0.9310	40.2960
 0.9320	40.2740
 0.9330	40.2640
 0.9340	40.2660
 0.9350	40.2420
 0.9360	40.2480
 0.9370	40.2650
 0.9380	40.2650
 0.9390	40.2350
 0.9400	40.2070
 0.9410	40.2040
 0.9420	40.2170
 0.9430	40.1890
 0.9440	40.1650
 0.9450	40.1520
 0.9460	40.1480
 0.9470	40.1420
 0.9480	40.1460
 0.9490	40.1440
 0.9500	40.1180
 0.9510	40.0610
 0.9520	40.0140
 0.9530	40.0020
 0.9540	40.0190
 0.9550	40.0010
 0.9560	39.9860
 0.9570	39.9710
 0.9580	39.9460
 0.9590	39.9290
 0.9600	39.9170
 0.9610	39.9000
 0.9620	39.8740
 0.9630	39.8430
 0.9640	39.8430
 0.9650	39.8520
 0.9660	39.8340
 0.9670	39.8150
 0.9680	39.7970
 0.9690	39.7900
 0.9700	39.8060
 0.9710	39.8400
 0.9720	39.8410
 0.9730	39.8060
 0.9740	39.7660
 0.9750	39.7760
 0.9760	39.7600
 0.9770	39.7410
 0.9780	39.7710
 0.9790	39.7860
 0.9800	39.7690
 0.9810	39.7530
 0.9820	39.7750
 0.9830	39.7910
 0.9840	39.7910
 0.9850	39.7860
 0.9860	39.7910
 0.9870	39.7770
 0.9880	39.8030
 0.9890	39.8160
 0.9900	39.7550
 0.9910	39.7590
 0.9920	39.7890
 0.9930	39.8200
 0.9940	39.8500
 0.9950	39.8800
 0.9960	39.9110
 0.9970	39.9410
 0.9980	39.9710
 0.9990	40.0020
 1.0000	40.0320
 1.0010	40.0620
 1.0020	40.0930
 1.0030	40.1230
 1.0040	40.1530
 1.0050	40.1840
 1.0060	40.2140
 1.0070	40.2440
 1.0080	40.2750
 1.0090	40.3050
 1.0100	40.3050
 1.0110	40.2860
 1.0120	40.2880
 1.0130	40.3020
 1.0140	40.3080
 1.0150	40.3200
 1.0160	40.3350
 1.0170	40.3450
 1.0180	40.3450
 1.0190	40.3500
 1.0200	40.3530
 1.0210	40.3470
 1.0220	40.3500
 1.0230	40.3500
 1.0240	40.3520
 1.0250	40.3530
 1.0260	40.3490
 1.0270	40.3510
 1.0280	40.3570
 1.0290	40.3620
 1.0300	40.3710
 1.0310	40.3730
 1.0320	40.3730
 1.0330	40.3690
 1.0340	40.3700
 1.0350	40.3690
 1.0360	40.3760
 1.0370	40.3850
 1.0380	40.3880
 1.0390	40.3850
 1.0400	40.3880
 1.0410	40.3920
 1.0420	40.3950
 1.0430	40.4060
 1.0440	40.4060
 1.0450	40.3940
 1.0460	40.3900
 1.0470	40.3840
 1.0480	40.3820
 1.0490	40.3840
 1.0500	40.3890
 1.0510	40.3990
 1.0520	40.4060
 1.0530	40.4090
 1.0540	40.4130
 1.0550	40.4130
 1.0560	40.4060
 1.0570	40.4030
 1.0580	40.4010
 1.0590	40.4020
 1.0600	40.4040
 1.0610	40.4050
 1.0620	40.4090
 1.0630	40.4110
 1.0640	40.4070
 1.0650	40.4090
 1.0660	40.4240
 1.0670	40.4270
 1.0680	40.4260
 1.0690	40.4230
 1.0700	40.4220
 1.0710	40.4130
 1.0720	40.4100
 1.0730	40.4150
 1.0740	40.4110
 1.0750	40.3980
 1.0760	40.3940
 1.0770	40.3920
 1.0780	40.3870
 1.0790	40.3840
 1.0800	40.3820
 1.0810	40.3780
 1.0820	40.3770
 1.0830	40.3850
 1.0840	40.3830
 1.0850	40.3690
 1.0860	40.3640
 1.0870	40.3610
 1.0880	40.3560
 1.0890	40.3530
 1.0900	40.3580
 1.0910	40.3540
 1.0920	40.3390
 1.0930	40.3360
 1.0940	40.3390
 1.0950	40.3350
 1.0960	40.3320
 1.0970	40.3270
 1.0980	40.3110
 1.0990	40.3050
 1.1000	40.3080
 1.1010	40.3060
 1.1020	40.3050
 1.1030	40.3050
 1.1040	40.2970
 1.1050	40.2890
 1.1060	40.2810
 1.1070	40.2730
 1.1080	40.2640
 1.1090	40.2550
 1.1100	40.2470
 1.1110	40.2380
 1.1120	40.2310
 1.1130	40.2300
 1.1140	40.2240
 1.1150	40.2180
 1.1160	40.2120
 1.1170	40.2030
 1.1180	40.1940
 1.1190	40.1850
 1.1200	40.1750
 1.1210	40.1620
 1.1220	40.1530
 1.1230	40.1430
 1.1240	40.1290
 1.1250	40.1150
 1.1260	40.1020
 1.1270	40.0830
 1.1280	40.0640
 1.1290	40.0410
 1.1300	40.0140
 1.1310	39.9850
 1.1320	39.9540
 1.1330	39.9230
 1.1340	39.8920
 1.1350	39.8580
 1.1360	39.8240
 1.1370	39.7850
 1.1380	39.7420
 1.1390	39.6980
 1.1400	39.6490
 1.1410	39.6000
 1.1420	39.5550
 1.1430	39.5090
 1.1440	39.4650
 1.1450	39.4260
 1.1460	39.3830
 1.1470	39.3400
 1.1480	39.2980
 1.1490	39.2510
 1.1500	39.2150
 1.1510	39.1840
 1.1520	39.1510
 1.1530	39.1210
 1.1540	39.0950
 1.1550	39.0690
 1.1560	39.0450
 1.1570	39.0300
 1.1580	39.0210
 1.1590	39.0070
 1.1600	38.9970
 1.1610	38.9870
 1.1620	38.9760
 1.1630	38.9690
 1.1640	38.9670
 1.1650	38.9620
 1.1660	38.9580
 1.1670	38.9530
 1.1680	38.9450
 1.1690	38.9420
 1.1700	38.9420
 1.1710	38.9400
 1.1720	38.9420
 1.1730	38.9400
 1.1740	38.9380
 1.1750	38.9330
 1.1760	38.9290
 1.1770	38.9250
 1.1780	38.9210
 1.1790	38.9180
 1.1800	38.9160
 1.1810	38.9130
 1.1820	38.9120
 1.1830	38.9070
 1.1840	38.9030
 1.1850	38.8990
 1.1860	38.8920
 1.1870	38.8920
 1.1880	38.8890
 1.1890	38.8830
 1.1900	38.8810
 1.1910	38.8820
 1.1920	38.8820
 1.1930	38.8840
 1.1940	38.8840
 1.1950	38.8830
 1.1960	38.8770
 1.1970	38.8730
 1.1980	38.8710
 1.1990	38.8680
 1.2000	38.8720
 1.2010	38.8770
 1.2020	38.8780
 1.2030	38.8800
 1.2040	38.8850
 1.2050	38.8870
 1.2060	38.8890
 1.2070	38.8910
 1.2080	38.8900
 1.2090	38.8890
 1.2100	38.8900
 1.2110	38.8910
 1.2120	38.8940
 1.2130	38.8970
 1.2140	38.9010
 1.2150	38.9060
 1.2160	38.9120
 1.2170	38.9190
 1.2180	38.9250
 1.2190	38.9340
 1.2200	38.9440
 1.2210	38.9510
 1.2220	38.9570
 1.2230	38.9590
 1.2240	38.9620
 1.2250	38.9640
 1.2260	38.9660
 1.2270	38.9680
 1.2280	38.9670
 1.2290	38.9660
 1.2300	38.9650
 1.2310	38.9660
 1.2320	38.9710
 1.2330	38.9710
 1.2340	38.9730
 1.2350	38.9750
 1.2360	38.9770
 1.2370	38.9760
 1.2380	38.9830
 1.2390	38.9890
 1.2400	38.9930
 1.2410	38.9970
 1.2420	38.9960
 1.2430	38.9960
 1.2440	38.9970
 1.2450	38.9980
 1.2460	39.0000
 1.2470	39.0010
 1.2480	39.0000
 1.2490	38.9990
 1.2500	38.9950
 1.2510	38.9930
 1.2520	38.9930
 1.2530	38.9940
 1.2540	38.9950
 1.2550	38.9990
 1.2560	38.9990
 1.2570	38.9980
 1.2580	38.9970
 1.2590	38.9960
 1.2600	38.9940
 1.2610	38.9940
 1.2620	38.9960
 1.2630	38.9960
 1.2640	38.9940
 1.2650	38.9910
 1.2660	38.9870
 1.2670	38.9860
 1.2680	38.9810
 1.2690	38.9750
 1.2700	38.9660
 1.2710	38.9570
 1.2720	38.9520
 1.2730	38.9470
 1.2740	38.9400
 1.2750	38.9340
 1.2760	38.9290
 1.2770	38.9230
 1.2780	38.9180
 1.2790	38.9120
 1.2800	38.9040
 1.2810	38.8970
 1.2820	38.8860
 1.2830	38.8730
 1.2840	38.8590
 1.2850	38.8450
 1.2860	38.8330
 1.2870	38.8210
 1.2880	38.8100
 1.2890	38.7990
 1.2900	38.7850
 1.2910	38.7700
 1.2920	38.7570
 1.2930	38.7460
 1.2940	38.7380
 1.2950	38.7290
 1.2960	38.7170
 1.2970	38.7030
 1.2980	38.6820
 1.2990	38.6580
 1.3000	38.6360
 1.3010	38.6140
 1.3020	38.5970
 1.3030	38.5810
 1.3040	38.5550
 1.3050	38.5290
 1.3060	38.5030
 1.3070	38.4710
 1.3080	38.4410
 1.3090	38.4130
 1.3100	38.3840
 1.3110	38.3570
 1.3120	38.3280
 1.3130	38.2950
 1.3140	38.2590
 1.3150	38.2180
 1.3160	38.1810
 1.3170	38.1440
 1.3180	38.1080
 1.3190	38.0670
 1.3200	38.0260
 1.3210	37.9820
 1.3220	37.9360
 1.3230	37.8900
 1.3240	37.8420
 1.3250	37.7940
 1.3260	37.7460
 1.3270	37.7000
 1.3280	37.6540
 1.3290	37.6050
 1.3300	37.5520
 1.3310	37.4940
 1.3320	37.4380
 1.3330	37.3850
 1.3340	37.3310
 1.3350	37.2800
 1.3360	37.2270
 1.3370	37.1730
 1.3380	37.1180
 1.3390	37.0620
 1.3400	37.0100
 1.3410	36.9610
 1.3420	36.9110
 1.3430	36.8590
 1.3440	36.8080
 1.3450	36.7580
 1.3460	36.7060
 1.3470	36.6570
 1.3480	36.6110
 1.3490	36.5630
 1.3500	36.5120
 1.3510	36.4650
 1.3520	36.4180
 1.3530	36.3670
 1.3540	36.3180
 1.3550	36.2670
 1.3560	36.2120
 1.3570	36.1640
 1.3580	36.1160
 1.3590	36.0650
 1.3600	36.0130
 1.3610	35.9540
 1.3620	35.8890
 1.3630	35.8220
 1.3640	35.7510
 1.3650	35.6720
 1.3660	35.5910
 1.3670	35.5060
 1.3680	35.4130
 1.3690	35.3190
 1.3700	35.2160
 1.3710	35.1060
 1.3720	34.9910
 1.3730	34.8660
 1.3740	34.7330
 1.3750	34.5900
 1.3760	34.4330
 1.3770	34.2640
 1.3780	34.0780
 1.3790	33.8790
 1.3800	33.6680
 1.3810	33.4410
 1.3820	33.2010
 1.3830	32.9510
 1.3840	32.6850
 1.3850	32.4060
 1.3860	32.1150
 1.3870	31.8100
 1.3880	31.4960
 1.3890	31.1710
 1.3900	30.8350
 1.3910	30.4910
 1.3920	30.1430
 1.3930	29.7870
 1.3940	29.4280
 1.3950	29.0660
 1.3960	28.7040
 1.3970	28.3440
 1.3980	27.9880
 1.3990	27.6390
 1.4000	27.2980
 1.4010	26.9650
 1.4020	26.6400
 1.4030	26.3250
 1.4040	26.0250
 1.4050	25.7370
 1.4060	25.4650
 1.4070	25.2070
 1.4080	24.9600
 1.4090	24.7250
 1.4100	24.5050
 1.4110	24.3010
 1.4120	24.1140
 1.4130	23.9410
 1.4140	23.7810
 1.4150	23.6320
 1.4160	23.4960
 1.4170	23.3700
 1.4180	23.2560
 1.4190	23.1520
 1.4200	23.0540
 1.4210	22.9700
 1.4220	22.8950
 1.4230	22.8260
 1.4240	22.7680
 1.4250	22.7160
 1.4260	22.6670
 1.4270	22.6260
 1.4280	22.5930
 1.4290	22.5610
 1.4300	22.5330
 1.4310	22.5100
 1.4320	22.4890
 1.4330	22.4730
 1.4340	22.4620
 1.4350	22.4540
 1.4360	22.4510
 1.4370	22.4490
 1.4380	22.4520
 1.4390	22.4560
 1.4400	22.4620
 1.4410	22.4710
 1.4420	22.4810
 1.4430	22.4940
 1.4440	22.5070
 1.4450	22.5220
 1.4460	22.5390
 1.4470	22.5560
 1.4480	22.5760
 1.4490	22.5980
 1.4500	22.6190
 1.4510	22.6400
 1.4520	22.6620
 1.4530	22.6850
 1.4540	22.7110
 1.4550	22.7400
 1.4560	22.7700
 1.4570	22.8020
 1.4580	22.8370
 1.4590	22.8760
 1.4600	22.9210
 1.4610	22.9700
 1.4620	23.0210
 1.4630	23.0770
 1.4640	23.1370
 1.4650	23.2020
 1.4660	23.2740
 1.4670	23.3470
 1.4680	23.4250
 1.4690	23.5060
 1.4700	23.5880
 1.4710	23.6770
 1.4720	23.7670
