Name: Cedrus deodara
Type: vegetation
Class: Tree
Genus: Cedrus
Species: deodara
Sample No.: JPL212
Owner: JPL
Wavelength Range: TIR
Origin: 34.12495; -118.11089; WGS84
Collection Date: 10/3/2016
Description: Samples were collected at the Huntington Garden in San Marino California as part of a JPL Subcontract studying HyTES imagery. Samples were taken to JPL and processed within 48 hours of collection. The same leaves were processed in the Nicolet and then measured using the ASD.
Measurement: Hemispherical reflectance
First Column: X
Second Column: Y
X Units: Wavelength (micrometer)
Y Units: Reflectance (percentage)
First X Value: 2.501
Last X Value: 15.387
Number of X Values: 1737
Additional Information: vegetation.tree.cedrus.deodara.tir.jpl212.jpl.nicolet.ancillary.txt

 2.5010	 5.7120
 2.5030	 5.7130
 2.5040	 5.6570
 2.5050	 5.5500
 2.5060	 5.5570
 2.5070	 5.6070
 2.5090	 5.6460
 2.5100	 5.6060
 2.5110	 5.6270
 2.5120	 5.6300
 2.5140	 5.6270
 2.5150	 5.5290
 2.5160	 5.5100
 2.5170	 5.5120
 2.5180	 5.5640
 2.5200	 5.5560
 2.5210	 5.5300
 2.5220	 5.4940
 2.5230	 5.5820
 2.5250	 5.5900
 2.5260	 5.5300
 2.5270	 5.4650
 2.5280	 5.4680
 2.5300	 5.4790
 2.5310	 5.4910
 2.5320	 5.4360
 2.5330	 5.4370
 2.5340	 5.4160
 2.5360	 5.4180
 2.5370	 5.5210
 2.5380	 5.6430
 2.5390	 5.6020
 2.5410	 5.5680
 2.5420	 5.5340
 2.5430	 5.4960
 2.5440	 5.4900
 2.5460	 5.5120
 2.5470	 5.4930
 2.5480	 5.5390
 2.5490	 5.5290
 2.5510	 5.5210
 2.5520	 5.5070
 2.5530	 5.5100
 2.5540	 5.5610
 2.5560	 5.6250
 2.5570	 5.5760
 2.5580	 5.6160
 2.5590	 5.6270
 2.5610	 5.5850
 2.5620	 5.4650
 2.5630	 5.4890
 2.5650	 5.5030
 2.5660	 5.5710
 2.5670	 5.5290
 2.5680	 5.4880
 2.5700	 5.4580
 2.5710	 5.5110
 2.5720	 5.5350
 2.5730	 5.5160
 2.5750	 5.5260
 2.5760	 5.5870
 2.5770	 5.5480
 2.5790	 5.5320
 2.5800	 5.5040
 2.5810	 5.5730
 2.5820	 5.5690
 2.5840	 5.5100
 2.5850	 5.4870
 2.5860	 5.5970
 2.5880	 5.5460
 2.5890	 5.5120
 2.5900	 5.4900
 2.5910	 5.5380
 2.5930	 5.5300
 2.5940	 5.4340
 2.5950	 5.2950
 2.5970	 5.4270
 2.5980	 5.5010
 2.5990	 5.5460
 2.6010	 5.5360
 2.6020	 5.4650
 2.6030	 5.4170
 2.6040	 5.4500
 2.6060	 5.3960
 2.6070	 5.4430
 2.6080	 5.4560
 2.6100	 5.4580
 2.6110	 5.4050
 2.6120	 5.4380
 2.6140	 5.4270
 2.6150	 5.3650
 2.6160	 5.2280
 2.6180	 5.2140
 2.6190	 5.2330
 2.6200	 5.1920
 2.6220	 5.2020
 2.6230	 5.3330
 2.6240	 5.3230
 2.6260	 5.2990
 2.6270	 5.2220
 2.6280	 5.2320
 2.6300	 5.1790
 2.6310	 5.1310
 2.6320	 5.2090
 2.6340	 5.2980
 2.6350	 5.2960
 2.6360	 5.3490
 2.6380	 5.2970
 2.6390	 5.2350
 2.6400	 5.1710
 2.6420	 5.1340
 2.6430	 5.0790
 2.6440	 5.1070
 2.6460	 5.0750
 2.6470	 5.0780
 2.6480	 5.0570
 2.6500	 5.1180
 2.6510	 5.1070
 2.6520	 5.0690
 2.6540	 5.0540
 2.6550	 5.0430
 2.6570	 4.9740
 2.6580	 5.0020
 2.6590	 4.9650
 2.6610	 4.9990
 2.6620	 4.9720
 2.6630	 4.9400
 2.6650	 4.7820
 2.6660	 4.6960
 2.6670	 4.6970
 2.6690	 4.8510
 2.6700	 4.7780
 2.6720	 4.7550
 2.6730	 4.8540
 2.6740	 4.9100
 2.6760	 4.8380
 2.6770	 4.7770
 2.6780	 4.7230
 2.6800	 4.7700
 2.6810	 4.8580
 2.6830	 4.8740
 2.6840	 4.7600
 2.6850	 4.7530
 2.6870	 4.7090
 2.6880	 4.7530
 2.6900	 4.7630
 2.6910	 4.7750
 2.6920	 4.6500
 2.6940	 4.4930
 2.6950	 4.4120
 2.6970	 4.5130
 2.6980	 4.5450
 2.6990	 4.5290
 2.7010	 4.5100
 2.7020	 4.4870
 2.7040	 4.4320
 2.7050	 4.4280
 2.7060	 4.3780
 2.7080	 4.3970
 2.7090	 4.3470
 2.7110	 4.2680
 2.7120	 4.2730
 2.7130	 4.3850
 2.7150	 4.3750
 2.7160	 4.3520
 2.7180	 4.2630
 2.7190	 4.2520
 2.7210	 4.1750
 2.7220	 4.2350
 2.7230	 4.2410
 2.7250	 4.1950
 2.7260	 4.1920
 2.7280	 4.2100
 2.7290	 4.1790
 2.7310	 4.1850
 2.7320	 4.2060
 2.7340	 4.2270
 2.7350	 4.1760
 2.7360	 4.1620
 2.7380	 4.1710
 2.7390	 4.1060
 2.7410	 4.0090
 2.7420	 4.1220
 2.7440	 4.1500
 2.7450	 4.0880
 2.7470	 4.0380
 2.7480	 4.0830
 2.7490	 4.0750
 2.7510	 4.0330
 2.7520	 3.9910
 2.7540	 4.0250
 2.7550	 3.9320
 2.7570	 4.0310
 2.7580	 4.0940
 2.7600	 4.0740
 2.7610	 4.0560
 2.7630	 4.0690
 2.7640	 4.0530
 2.7660	 4.0820
 2.7670	 4.0500
 2.7690	 4.0140
 2.7700	 3.9670
 2.7720	 4.0260
 2.7730	 4.0680
 2.7740	 4.1010
 2.7760	 4.0360
 2.7770	 4.0430
 2.7790	 4.0190
 2.7800	 4.0190
 2.7820	 3.9770
 2.7830	 4.0300
 2.7850	 4.0140
 2.7860	 3.9990
 2.7880	 3.9720
 2.7890	 3.9930
 2.7910	 4.0090
 2.7920	 4.0190
 2.7940	 3.9980
 2.7950	 4.0670
 2.7970	 4.0290
 2.7980	 3.9900
 2.8000	 3.9570
 2.8010	 3.9460
 2.8030	 3.9120
 2.8040	 3.9520
 2.8060	 3.9830
 2.8080	 4.0150
 2.8090	 4.0240
 2.8110	 4.0390
 2.8120	 4.0020
 2.8140	 4.0080
 2.8150	 3.9590
 2.8170	 4.0130
 2.8180	 3.9860
 2.8200	 4.0060
 2.8210	 3.9540
 2.8230	 3.9160
 2.8240	 3.9080
 2.8260	 3.9870
 2.8270	 3.9900
 2.8290	 3.9760
 2.8310	 3.9340
 2.8320	 3.9080
 2.8340	 3.8670
 2.8350	 3.9190
 2.8370	 3.9060
 2.8380	 3.9340
 2.8400	 3.9770
 2.8410	 3.9790
 2.8430	 3.9200
 2.8440	 3.9400
 2.8460	 3.9240
 2.8480	 3.8780
 2.8490	 3.8690
 2.8510	 3.9050
 2.8520	 3.8590
 2.8540	 3.9090
 2.8550	 3.9170
 2.8570	 3.9460
 2.8590	 3.9070
 2.8600	 3.9230
 2.8620	 3.9290
 2.8630	 3.9780
 2.8650	 3.9290
 2.8660	 3.9410
 2.8680	 3.9300
 2.8700	 3.9330
 2.8710	 3.9130
 2.8730	 3.9540
 2.8740	 3.9810
 2.8760	 4.0260
 2.8780	 3.9430
 2.8790	 3.9400
 2.8810	 3.9350
 2.8820	 3.9480
 2.8840	 3.9750
 2.8860	 3.9800
 2.8870	 3.8930
 2.8890	 3.9310
 2.8900	 3.9400
 2.8920	 3.9630
 2.8940	 3.9120
 2.8950	 3.9380
 2.8970	 3.9770
 2.8990	 4.0230
 2.9000	 3.9520
 2.9020	 3.9380
 2.9030	 3.8880
 2.9050	 3.9420
 2.9070	 3.9410
 2.9080	 3.9650
 2.9100	 3.9630
 2.9120	 3.9570
 2.9130	 3.8670
 2.9150	 3.8870
 2.9160	 3.9070
 2.9180	 3.9400
 2.9200	 3.9220
 2.9210	 3.8990
 2.9230	 3.9250
 2.9250	 4.0230
 2.9260	 3.9630
 2.9280	 3.9300
 2.9300	 3.9490
 2.9310	 3.9160
 2.9330	 3.8890
 2.9350	 3.9760
 2.9360	 3.9680
 2.9380	 3.9620
 2.9400	 3.9480
 2.9410	 3.9600
 2.9430	 3.9110
 2.9450	 3.8920
 2.9460	 3.8870
 2.9480	 3.9530
 2.9500	 3.9530
 2.9510	 3.9500
 2.9530	 3.8940
 2.9550	 3.9440
 2.9560	 3.9560
 2.9580	 3.9230
 2.9600	 3.8960
 2.9610	 3.9690
 2.9630	 3.9820
 2.9650	 3.9590
 2.9670	 3.9190
 2.9680	 3.9600
 2.9700	 3.9410
 2.9720	 3.9740
 2.9730	 3.9980
 2.9750	 3.9660
 2.9770	 3.9040
 2.9780	 3.9060
 2.9800	 3.8670
 2.9820	 3.9440
 2.9840	 3.9820
 2.9850	 4.0320
 2.9870	 4.0020
 2.9890	 3.9950
 2.9900	 3.9690
 2.9920	 3.9730
 2.9940	 3.9400
 2.9960	 3.9660
 2.9970	 3.9520
 2.9990	 3.9170
 3.0010	 3.8810
 3.0030	 3.8940
 3.0040	 3.9480
 3.0060	 4.0050
 3.0080	 4.0090
 3.0100	 4.0080
 3.0110	 3.9530
 3.0130	 3.9860
 3.0150	 4.0010
 3.0170	 4.0210
 3.0180	 3.9890
 3.0200	 3.9840
 3.0220	 4.0060
 3.0240	 4.0130
 3.0250	 3.9140
 3.0270	 3.9430
 3.0290	 3.9270
 3.0310	 3.9010
 3.0320	 3.9430
 3.0340	 3.9850
 3.0360	 3.9710
 3.0380	 3.9750
 3.0400	 3.9810
 3.0410	 4.0180
 3.0430	 3.9760
 3.0450	 3.9730
 3.0470	 3.9390
 3.0480	 3.9650
 3.0500	 3.9620
 3.0520	 3.9860
 3.0540	 3.9460
 3.0560	 3.9470
 3.0570	 3.8990
 3.0590	 3.9050
 3.0610	 3.9430
 3.0630	 3.9800
 3.0650	 3.9550
 3.0670	 3.9690
 3.0680	 3.9470
 3.0700	 3.9860
 3.0720	 3.9630
 3.0740	 3.9690
 3.0760	 3.9620
 3.0770	 3.9770
 3.0790	 3.9380
 3.0810	 3.9720
 3.0830	 4.0010
 3.0850	 4.0280
 3.0870	 3.9890
 3.0880	 3.9900
 3.0900	 3.9590
 3.0920	 3.9670
 3.0940	 3.9270
 3.0960	 3.9570
 3.0980	 3.9690
 3.1000	 4.0180
 3.1010	 4.0120
 3.1030	 4.0190
 3.1050	 3.9500
 3.1070	 3.9820
 3.1090	 3.9780
 3.1110	 3.9800
 3.1130	 3.9690
 3.1140	 3.9720
 3.1160	 3.9600
 3.1180	 3.9960
 3.1200	 3.9920
 3.1220	 4.0230
 3.1240	 3.9990
 3.1260	 3.9970
 3.1280	 3.9390
 3.1290	 3.9570
 3.1310	 3.9480
 3.1330	 3.9770
 3.1350	 4.0070
 3.1370	 4.0520
 3.1390	 4.0740
 3.1410	 4.0920
 3.1430	 4.0310
 3.1450	 4.0140
 3.1470	 3.9800
 3.1480	 4.0020
 3.1500	 4.0050
 3.1520	 4.0090
 3.1540	 3.9740
 3.1560	 4.0440
 3.1580	 4.0560
 3.1600	 4.0160
 3.1620	 3.9580
 3.1640	 4.0160
 3.1660	 4.0050
 3.1680	 3.9790
 3.1700	 3.9780
 3.1720	 4.0160
 3.1730	 4.0600
 3.1750	 4.1010
 3.1770	 4.0380
 3.1790	 4.0210
 3.1810	 4.0220
 3.1830	 4.0300
 3.1850	 4.0320
 3.1870	 4.0420
 3.1890	 3.9680
 3.1910	 3.9760
 3.1930	 4.0020
 3.1950	 4.0300
 3.1970	 4.0100
 3.1990	 4.0480
 3.2010	 4.0490
 3.2030	 4.0500
 3.2050	 4.0490
 3.2070	 4.0700
 3.2090	 4.0670
 3.2110	 4.0710
 3.2130	 4.0410
 3.2150	 4.0240
 3.2170	 4.0170
 3.2190	 4.0380
 3.2210	 4.0280
 3.2230	 4.0590
 3.2250	 4.0290
 3.2270	 3.9950
 3.2290	 4.0160
 3.2310	 4.0680
 3.2330	 4.0630
 3.2350	 4.0510
 3.2370	 4.0010
 3.2390	 4.0290
 3.2410	 4.0140
 3.2430	 4.0230
 3.2450	 3.9730
 3.2470	 3.9640
 3.2490	 4.0090
 3.2510	 4.0640
 3.2530	 4.0430
 3.2550	 4.0120
 3.2570	 3.9940
 3.2590	 3.9900
 3.2610	 3.9830
 3.2630	 4.0330
 3.2650	 4.0170
 3.2670	 3.9940
 3.2700	 3.9920
 3.2720	 4.0350
 3.2740	 4.0430
 3.2760	 4.0450
 3.2780	 4.0440
 3.2800	 4.0910
 3.2820	 4.1080
 3.2840	 4.1140
 3.2860	 4.0810
 3.2880	 4.0600
 3.2900	 4.0180
 3.2920	 4.0310
 3.2940	 4.0450
 3.2970	 4.0590
 3.2990	 4.0210
 3.3010	 4.0270
 3.3030	 3.9770
 3.3050	 3.9910
 3.3070	 3.9920
 3.3090	 4.0330
 3.3110	 4.0250
 3.3130	 4.0300
 3.3160	 4.0350
 3.3180	 4.0470
 3.3200	 4.0060
 3.3220	 3.9760
 3.3240	 3.9680
 3.3260	 3.9830
 3.3280	 3.9730
 3.3300	 4.0020
 3.3330	 3.9890
 3.3350	 3.9830
 3.3370	 3.9560
 3.3390	 3.9830
 3.3410	 3.9810
 3.3430	 3.9810
 3.3450	 3.9570
 3.3480	 3.9800
 3.3500	 3.9420
 3.3520	 3.9200
 3.3540	 3.8720
 3.3560	 3.8930
 3.3580	 3.8880
 3.3610	 3.8950
 3.3630	 3.8790
 3.3650	 3.8840
 3.3670	 3.8700
 3.3690	 3.8470
 3.3720	 3.8090
 3.3740	 3.8150
 3.3760	 3.7920
 3.3780	 3.7850
 3.3800	 3.7170
 3.3830	 3.7070
 3.3850	 3.7250
 3.3870	 3.7400
 3.3890	 3.6610
 3.3910	 3.6340
 3.3940	 3.6560
 3.3960	 3.6720
 3.3980	 3.6830
 3.4000	 3.7030
 3.4030	 3.6340
 3.4050	 3.6130
 3.4070	 3.6190
 3.4090	 3.5980
 3.4110	 3.5960
 3.4140	 3.6930
 3.4160	 3.7670
 3.4180	 3.8330
 3.4200	 3.9210
 3.4230	 4.0840
 3.4250	 4.2670
 3.4270	 4.5040
 3.4300	 4.5840
 3.4320	 4.5960
 3.4340	 4.5620
 3.4360	 4.5430
 3.4390	 4.5050
 3.4410	 4.4840
 3.4430	 4.4050
 3.4450	 4.3800
 3.4480	 4.3810
 3.4500	 4.3700
 3.4520	 4.3030
 3.4550	 4.2940
 3.4570	 4.2680
 3.4590	 4.2790
 3.4620	 4.2940
 3.4640	 4.2980
 3.4660	 4.2550
 3.4690	 4.2280
 3.4710	 4.1940
 3.4730	 4.2110
 3.4760	 4.1740
 3.4780	 4.1550
 3.4800	 4.1370
 3.4830	 4.1310
 3.4850	 4.0650
 3.4870	 4.0280
 3.4900	 4.0210
 3.4920	 4.0660
 3.4940	 4.0610
 3.4970	 4.0340
 3.4990	 3.9860
 3.5010	 3.9580
 3.5040	 4.0010
 3.5060	 4.1900
 3.5080	 4.4910
 3.5110	 4.7610
 3.5130	 4.7970
 3.5160	 4.7390
 3.5180	 4.6590
 3.5200	 4.6160
 3.5230	 4.5580
 3.5250	 4.5370
 3.5280	 4.5180
 3.5300	 4.5090
 3.5320	 4.4690
 3.5350	 4.4650
 3.5370	 4.4620
 3.5400	 4.4620
 3.5420	 4.4430
 3.5440	 4.4720
 3.5470	 4.4430
 3.5490	 4.4090
 3.5520	 4.3890
 3.5540	 4.3950
 3.5570	 4.4050
 3.5590	 4.4370
 3.5610	 4.3860
 3.5640	 4.3830
 3.5660	 4.3960
 3.5690	 4.3750
 3.5710	 4.3490
 3.5740	 4.3690
 3.5760	 4.3750
 3.5790	 4.3810
 3.5810	 4.3920
 3.5840	 4.3830
 3.5860	 4.3540
 3.5890	 4.3740
 3.5910	 4.3870
 3.5940	 4.3680
 3.5960	 4.3690
 3.5990	 4.3860
 3.6010	 4.3350
 3.6040	 4.3280
 3.6060	 4.3510
 3.6090	 4.3740
 3.6110	 4.3650
 3.6140	 4.3810
 3.6160	 4.3630
 3.6190	 4.3500
 3.6210	 4.3360
 3.6240	 4.3710
 3.6260	 4.3740
 3.6290	 4.3450
 3.6310	 4.3230
 3.6340	 4.3430
 3.6360	 4.3330
 3.6390	 4.3500
 3.6410	 4.3470
 3.6440	 4.3610
 3.6470	 4.3860
 3.6490	 4.4100
 3.6520	 4.3940
 3.6540	 4.3940
 3.6570	 4.3740
 3.6590	 4.3810
 3.6620	 4.3980
 3.6650	 4.4060
 3.6670	 4.3450
 3.6700	 4.3150
 3.6720	 4.2970
 3.6750	 4.3230
 3.6780	 4.3370
 3.6800	 4.3560
 3.6830	 4.3300
 3.6850	 4.3470
 3.6880	 4.3710
 3.6910	 4.3670
 3.6930	 4.3510
 3.6960	 4.3570
 3.6990	 4.3230
 3.7010	 4.3270
 3.7040	 4.3320
 3.7070	 4.3330
 3.7090	 4.3440
 3.7120	 4.3680
 3.7150	 4.3570
 3.7170	 4.3400
 3.7200	 4.3140
 3.7230	 4.3580
 3.7250	 4.3760
 3.7280	 4.3810
 3.7310	 4.3920
 3.7330	 4.4020
 3.7360	 4.3610
 3.7390	 4.3680
 3.7410	 4.3860
 3.7440	 4.3480
 3.7470	 4.3530
 3.7490	 4.3900
 3.7520	 4.3620
 3.7550	 4.3600
 3.7580	 4.3530
 3.7600	 4.3690
 3.7630	 4.3790
 3.7660	 4.4020
 3.7690	 4.4020
 3.7710	 4.3830
 3.7740	 4.3660
 3.7770	 4.3620
 3.7790	 4.3440
 3.7820	 4.3370
 3.7850	 4.3150
 3.7880	 4.3320
 3.7910	 4.3470
 3.7930	 4.3710
 3.7960	 4.3650
 3.7990	 4.3600
 3.8020	 4.3790
 3.8040	 4.3810
 3.8070	 4.3920
 3.8100	 4.3880
 3.8130	 4.3530
 3.8160	 4.3860
 3.8180	 4.3560
 3.8210	 4.3650
 3.8240	 4.3790
 3.8270	 4.3500
 3.8300	 4.3420
 3.8330	 4.3820
 3.8350	 4.4050
 3.8380	 4.4050
 3.8410	 4.3970
 3.8440	 4.4000
 3.8470	 4.4020
 3.8500	 4.4040
 3.8520	 4.4140
 3.8550	 4.4370
 3.8580	 4.3920
 3.8610	 4.3720
 3.8640	 4.3630
 3.8670	 4.3900
 3.8700	 4.3850
 3.8730	 4.3940
 3.8760	 4.3940
 3.8780	 4.4090
 3.8810	 4.4230
 3.8840	 4.4260
 3.8870	 4.4180
 3.8900	 4.4160
 3.8930	 4.3980
 3.8960	 4.3880
 3.8990	 4.3890
 3.9020	 4.4090
 3.9050	 4.4170
 3.9080	 4.4000
 3.9110	 4.3680
 3.9140	 4.3790
 3.9170	 4.3740
 3.9190	 4.4070
 3.9220	 4.4040
 3.9250	 4.3940
 3.9280	 4.3840
 3.9310	 4.3510
 3.9340	 4.3490
 3.9370	 4.3950
 3.9400	 4.4210
 3.9430	 4.4170
 3.9460	 4.3940
 3.9490	 4.3930
 3.9520	 4.4200
 3.9550	 4.4520
 3.9580	 4.4410
 3.9610	 4.4200
 3.9640	 4.3990
 3.9670	 4.3910
 3.9700	 4.4160
 3.9740	 4.4310
 3.9770	 4.4190
 3.9800	 4.4200
 3.9830	 4.4260
 3.9860	 4.4190
 3.9890	 4.3840
 3.9920	 4.3660
 3.9950	 4.3540
 3.9980	 4.3770
 4.0010	 4.4230
 4.0040	 4.4250
 4.0070	 4.3830
 4.0100	 4.3880
 4.0140	 4.3950
 4.0170	 4.4040
 4.0200	 4.3950
 4.0230	 4.3940
 4.0260	 4.4280
 4.0290	 4.4730
 4.0320	 4.4630
 4.0350	 4.4290
 4.0390	 4.4230
 4.0420	 4.4180
 4.0450	 4.4080
 4.0480	 4.4190
 4.0510	 4.4100
 4.0540	 4.3920
 4.0570	 4.3760
 4.0610	 4.3950
 4.0640	 4.4110
 4.0670	 4.4480
 4.0700	 4.4420
 4.0730	 4.4470
 4.0770	 4.4300
 4.0800	 4.4230
 4.0830	 4.4150
 4.0860	 4.4250
 4.0890	 4.4260
 4.0930	 4.4300
 4.0960	 4.3820
 4.0990	 4.3570
 4.1020	 4.3680
 4.1060	 4.4000
 4.1090	 4.4080
 4.1120	 4.3970
 4.1150	 4.4040
 4.1190	 4.4380
 4.1220	 4.4190
 4.1250	 4.4020
 4.1290	 4.4040
 4.1320	 4.4150
 4.1350	 4.4320
 4.1380	 4.4470
 4.1420	 4.4430
 4.1450	 4.4250
 4.1480	 4.4000
 4.1520	 4.4010
 4.1550	 4.3870
 4.1580	 4.3860
 4.1620	 4.3720
 4.1650	 4.3610
 4.1680	 4.3910
 4.1720	 4.4110
 4.1750	 4.3620
 4.1780	 4.3490
 4.1820	 4.3890
 4.1850	 4.4020
 4.1890	 4.3760
 4.1920	 4.3770
 4.1950	 4.3760
 4.1990	 4.3800
 4.2020	 4.3840
 4.2060	 4.4140
 4.2090	 4.4250
 4.2120	 4.4750
 4.2160	 4.5120
 4.2190	 4.5210
 4.2230	 4.5320
 4.2260	 4.6190
 4.2300	 4.6850
 4.2330	 4.6270
 4.2360	 4.6200
 4.2400	 4.5930
 4.2430	 4.5140
 4.2470	 4.5500
 4.2500	 4.6100
 4.2540	 4.5270
 4.2570	 4.4270
 4.2610	 4.4370
 4.2640	 4.5110
 4.2680	 4.5280
 4.2710	 4.5660
 4.2750	 4.5730
 4.2780	 4.5150
 4.2820	 4.5460
 4.2850	 4.5890
 4.2890	 4.4690
 4.2930	 4.4140
 4.2960	 4.3930
 4.3000	 4.4170
 4.3030	 4.4470
 4.3070	 4.4730
 4.3100	 4.4590
 4.3140	 4.4400
 4.3180	 4.4100
 4.3210	 4.4010
 4.3250	 4.3750
 4.3280	 4.3770
 4.3320	 4.3940
 4.3360	 4.3810
 4.3390	 4.3750
 4.3430	 4.3720
 4.3470	 4.3680
 4.3500	 4.3570
 4.3540	 4.3300
 4.3580	 4.2930
 4.3610	 4.2810
 4.3650	 4.2990
 4.3690	 4.3020
 4.3720	 4.2670
 4.3760	 4.2620
 4.3800	 4.2930
 4.3830	 4.3180
 4.3870	 4.3120
 4.3910	 4.2820
 4.3940	 4.2860
 4.3980	 4.3000
 4.4020	 4.2940
 4.4060	 4.2970
 4.4090	 4.2890
 4.4130	 4.2850
 4.4170	 4.3020
 4.4210	 4.3070
 4.4240	 4.3010
 4.4280	 4.2890
 4.4320	 4.2820
 4.4360	 4.2780
 4.4400	 4.2670
 4.4430	 4.2710
 4.4470	 4.2780
 4.4510	 4.2600
 4.4550	 4.2560
 4.4590	 4.2490
 4.4630	 4.2590
 4.4660	 4.2870
 4.4700	 4.2880
 4.4740	 4.2600
 4.4780	 4.2270
 4.4820	 4.2150
 4.4860	 4.2500
 4.4900	 4.2850
 4.4930	 4.2700
 4.4970	 4.2100
 4.5010	 4.1810
 4.5050	 4.1670
 4.5090	 4.1770
 4.5130	 4.1850
 4.5170	 4.1710
 4.5210	 4.1520
 4.5250	 4.1570
 4.5290	 4.1980
 4.5330	 4.2170
 4.5370	 4.1910
 4.5410	 4.1950
 4.5450	 4.2080
 4.5490	 4.2080
 4.5530	 4.1730
 4.5570	 4.1530
 4.5610	 4.1480
 4.5650	 4.1840
 4.5690	 4.2030
 4.5730	 4.1590
 4.5770	 4.1510
 4.5810	 4.1920
 4.5850	 4.1840
 4.5890	 4.1490
 4.5930	 4.1620
 4.5970	 4.1890
 4.6010	 4.1620
 4.6050	 4.1620
 4.6090	 4.1900
 4.6130	 4.1840
 4.6170	 4.1660
 4.6220	 4.2230
 4.6260	 4.2210
 4.6300	 4.1540
 4.6340	 4.1230
 4.6380	 4.1300
 4.6420	 4.1390
 4.6460	 4.1710
 4.6510	 4.1920
 4.6550	 4.1820
 4.6590	 4.1610
 4.6630	 4.1820
 4.6670	 4.1590
 4.6720	 4.1040
 4.6760	 4.0980
 4.6800	 4.1570
 4.6840	 4.1480
 4.6880	 4.1420
 4.6930	 4.1670
 4.6970	 4.1290
 4.7010	 4.1060
 4.7050	 4.1270
 4.7100	 4.1180
 4.7140	 4.0970
 4.7180	 4.1060
 4.7230	 4.1330
 4.7270	 4.1200
 4.7310	 4.1040
 4.7360	 4.0920
 4.7400	 4.1190
 4.7440	 4.1360
 4.7490	 4.1600
 4.7530	 4.1540
 4.7570	 4.1260
 4.7620	 4.1090
 4.7660	 4.0940
 4.7700	 4.0810
 4.7750	 4.1070
 4.7790	 4.1120
 4.7840	 4.1070
 4.7880	 4.0810
 4.7920	 4.0980
 4.7970	 4.1100
 4.8010	 4.1040
 4.8060	 4.0720
 4.8100	 4.0760
 4.8150	 4.1010
 4.8190	 4.1440
 4.8240	 4.1260
 4.8280	 4.1190
 4.8330	 4.1020
 4.8370	 4.1140
 4.8420	 4.0940
 4.8460	 4.0990
 4.8510	 4.1050
 4.8550	 4.1190
 4.8600	 4.1180
 4.8640	 4.1080
 4.8690	 4.0710
 4.8740	 4.1110
 4.8780	 4.1260
 4.8830	 4.1070
 4.8870	 4.0840
 4.8920	 4.0920
 4.8970	 4.1110
 4.9010	 4.1200
 4.9060	 4.0810
 4.9100	 4.0720
 4.9150	 4.0920
 4.9200	 4.1210
 4.9240	 4.1060
 4.9290	 4.0990
 4.9340	 4.0750
 4.9390	 4.0830
 4.9430	 4.1010
 4.9480	 4.0990
 4.9530	 4.0740
 4.9570	 4.0750
 4.9620	 4.0850
 4.9670	 4.1160
 4.9720	 4.1070
 4.9760	 4.0800
 4.9810	 4.0630
 4.9860	 4.0900
 4.9910	 4.0890
 4.9960	 4.0790
 5.0000	 4.0810
 5.0050	 4.1090
 5.0100	 4.0810
 5.0150	 4.0830
 5.0200	 4.0860
 5.0250	 4.1070
 5.0300	 4.1010
 5.0340	 4.0860
 5.0390	 4.0690
 5.0440	 4.0890
 5.0490	 4.0810
 5.0540	 4.0410
 5.0590	 4.0070
 5.0640	 4.0490
 5.0690	 4.0790
 5.0740	 4.0980
 5.0790	 4.0740
 5.0840	 4.0670
 5.0890	 4.0550
 5.0940	 4.0760
 5.0990	 4.0530
 5.1040	 4.0280
 5.1090	 4.0180
 5.1140	 4.0670
 5.1190	 4.0960
 5.1240	 4.0990
 5.1290	 4.0760
 5.1340	 4.0960
 5.1390	 4.0970
 5.1440	 4.0970
 5.1490	 4.0530
 5.1550	 4.0760
 5.1600	 4.1060
 5.1650	 4.1100
 5.1700	 4.0700
 5.1750	 4.0600
 5.1800	 4.0370
 5.1850	 4.0350
 5.1910	 4.0200
 5.1960	 4.0160
 5.2010	 4.0320
 5.2060	 4.0670
 5.2110	 4.0330
 5.2170	 4.0370
 5.2220	 4.0390
 5.2270	 4.0430
 5.2330	 4.0490
 5.2380	 4.0750
 5.2430	 4.0580
 5.2480	 4.0620
 5.2540	 4.0530
 5.2590	 4.0690
 5.2640	 4.0590
 5.2700	 4.0590
 5.2750	 4.0230
 5.2800	 4.0350
 5.2860	 4.0310
 5.2910	 4.0290
 5.2970	 4.0420
 5.3020	 4.0570
 5.3080	 4.0160
 5.3130	 4.0000
 5.3180	 3.9860
 5.3240	 4.0110
 5.3290	 4.0350
 5.3350	 4.0830
 5.3400	 4.0180
 5.3460	 3.9430
 5.3510	 3.9220
 5.3570	 3.9780
 5.3620	 4.0090
 5.3680	 4.0220
 5.3740	 3.9860
 5.3790	 4.0000
 5.3850	 3.9840
 5.3900	 4.0010
 5.3960	 4.0080
 5.4010	 4.0250
 5.4070	 3.9790
 5.4130	 3.9550
 5.4180	 3.8850
 5.4240	 3.8860
 5.4300	 3.9180
 5.4350	 3.9580
 5.4410	 3.9560
 5.4470	 3.9640
 5.4530	 3.9540
 5.4580	 3.9530
 5.4640	 3.8740
 5.4700	 3.8840
 5.4760	 3.9030
 5.4810	 3.9090
 5.4870	 3.9170
