Name: Baccharis pilularis 2
Type: vegetation
Class: Shrub
Genus: Baccharis
Species: pilularis
Sample No.: VH232
Owner: UCSB
Wavelength Range: TIR
Origin: 34.5084; -119.7683; WGS84
Collection Date: 10/13/2013
Description: Samples were collected as part of the HyspIRI Airborne Campaign. 48 individual plants were sampled in three times in 2013 - spring  summer  and fall. The name of the sample includes a 1  2  or 3 which references a different individual of the species. Samples were taken to JPL and processed within 48 hours of collection. The same leaves were processed in the Nicolet and then measured using the ASD.
Measurement: Hemispherical reflectance
First Column: X
Second Column: Y
X Units: Wavelength (micrometers)
Y Units: Reflectance (percentage)
First X Value: 2.501
Last X Value: 15.387
Number of X Values: 1737
Additional Information: vegetation.shrub.baccharis.pilularis.tir.vh232.ucsb.nicolet.ancillary.txt

 2.5010	 5.4200
 2.5030	 5.4780
 2.5040	 5.5040
 2.5050	 5.4650
 2.5060	 5.2560
 2.5070	 5.1960
 2.5090	 5.4650
 2.5100	 5.5650
 2.5110	 5.5480
 2.5120	 5.5570
 2.5140	 5.4790
 2.5150	 5.4400
 2.5160	 5.7020
 2.5170	 5.6290
 2.5180	 5.4790
 2.5200	 5.6160
 2.5210	 5.5030
 2.5220	 5.3110
 2.5230	 5.4170
 2.5250	 5.3090
 2.5260	 5.2390
 2.5270	 5.3380
 2.5280	 5.2940
 2.5290	 5.2400
 2.5310	 5.3690
 2.5320	 5.3830
 2.5330	 5.3660
 2.5340	 5.3770
 2.5360	 5.4920
 2.5370	 5.4410
 2.5380	 5.2920
 2.5390	 5.3890
 2.5410	 5.5920
 2.5420	 5.4710
 2.5430	 5.3180
 2.5440	 5.2540
 2.5460	 5.4370
 2.5470	 5.5350
 2.5480	 5.5920
 2.5490	 5.3840
 2.5510	 5.3030
 2.5520	 5.2300
 2.5530	 5.2940
 2.5540	 5.3730
 2.5560	 5.4070
 2.5570	 5.3110
 2.5580	 5.3570
 2.5590	 5.2980
 2.5610	 5.3520
 2.5620	 5.4660
 2.5630	 5.6440
 2.5640	 5.4820
 2.5660	 5.4210
 2.5670	 5.4020
 2.5680	 5.4510
 2.5700	 5.4010
 2.5710	 5.3350
 2.5720	 5.3190
 2.5730	 5.4950
 2.5750	 5.7180
 2.5760	 5.9140
 2.5770	 5.7990
 2.5790	 5.6200
 2.5800	 5.6700
 2.5810	 5.9900
 2.5820	 5.6940
 2.5840	 5.4150
 2.5850	 5.4230
 2.5860	 5.5340
 2.5880	 5.4720
 2.5890	 5.3460
 2.5900	 5.2060
 2.5910	 5.3170
 2.5930	 5.2200
 2.5940	 5.2080
 2.5950	 5.2130
 2.5970	 5.1810
 2.5980	 5.2950
 2.5990	 5.4260
 2.6000	 5.4510
 2.6020	 5.5150
 2.6030	 5.5540
 2.6040	 5.6560
 2.6060	 5.5960
 2.6070	 5.5370
 2.6080	 5.4970
 2.6100	 5.4150
 2.6110	 5.4670
 2.6120	 5.6070
 2.6140	 5.6250
 2.6150	 5.6250
 2.6160	 5.5420
 2.6180	 5.5200
 2.6190	 5.2100
 2.6200	 5.1330
 2.6220	 5.1410
 2.6230	 5.1770
 2.6240	 5.1850
 2.6260	 5.2530
 2.6270	 5.1660
 2.6280	 5.1670
 2.6300	 5.2450
 2.6310	 5.2720
 2.6320	 5.3770
 2.6340	 5.4460
 2.6350	 5.2510
 2.6360	 5.1660
 2.6380	 5.0930
 2.6390	 5.0860
 2.6400	 5.1890
 2.6420	 5.3240
 2.6430	 5.2020
 2.6440	 5.1560
 2.6460	 5.2430
 2.6470	 5.2710
 2.6480	 5.2350
 2.6500	 5.2330
 2.6510	 5.1510
 2.6520	 5.1510
 2.6540	 5.0920
 2.6550	 5.0250
 2.6560	 4.9750
 2.6580	 4.8850
 2.6590	 4.9050
 2.6610	 5.0880
 2.6620	 5.0200
 2.6630	 5.0560
 2.6650	 4.9910
 2.6660	 4.9940
 2.6670	 4.8610
 2.6690	 4.7830
 2.6700	 4.9170
 2.6720	 5.1230
 2.6730	 5.1610
 2.6740	 5.0640
 2.6760	 4.8200
 2.6770	 4.6710
 2.6780	 4.7530
 2.6800	 5.0540
 2.6810	 5.1890
 2.6830	 5.2330
 2.6840	 5.1190
 2.6850	 4.8480
 2.6870	 4.6630
 2.6880	 4.9140
 2.6900	 5.0870
 2.6910	 5.0510
 2.6920	 5.0760
 2.6940	 4.9850
 2.6950	 4.9630
 2.6970	 5.0130
 2.6980	 4.8900
 2.6990	 5.0370
 2.7010	 4.7070
 2.7020	 4.4150
 2.7040	 4.7940
 2.7050	 5.0020
 2.7060	 4.7800
 2.7080	 4.7700
 2.7090	 4.7600
 2.7110	 4.8400
 2.7120	 4.7800
 2.7130	 4.8720
 2.7150	 4.8160
 2.7160	 4.7060
 2.7180	 4.5950
 2.7190	 4.6110
 2.7210	 4.5760
 2.7220	 4.6560
 2.7230	 4.6730
 2.7250	 4.7780
 2.7260	 4.6190
 2.7280	 4.2950
 2.7290	 4.0490
 2.7310	 4.3150
 2.7320	 4.6720
 2.7330	 4.6420
 2.7350	 4.4580
 2.7360	 4.3760
 2.7380	 4.6180
 2.7390	 4.5250
 2.7410	 4.4840
 2.7420	 4.5820
 2.7440	 4.3060
 2.7450	 4.4950
 2.7470	 4.6230
 2.7480	 4.5310
 2.7490	 3.8700
 2.7510	 3.6100
 2.7520	 3.7730
 2.7540	 4.0510
 2.7550	 3.8320
 2.7570	 3.8810
 2.7580	 3.7520
 2.7600	 3.7610
 2.7610	 3.7820
 2.7630	 3.8420
 2.7640	 4.2170
 2.7660	 4.6900
 2.7670	 4.3510
 2.7680	 4.2430
 2.7700	 4.1570
 2.7710	 3.7910
 2.7730	 3.2210
 2.7740	 3.3370
 2.7760	 3.7470
 2.7770	 3.6810
 2.7790	 3.7890
 2.7800	 3.9030
 2.7820	 3.6930
 2.7830	 3.9480
 2.7850	 4.5680
 2.7860	 4.5500
 2.7880	 4.0120
 2.7890	 3.5020
 2.7910	 3.5550
 2.7920	 3.7930
 2.7940	 3.6480
 2.7950	 3.6050
 2.7970	 3.4650
 2.7980	 3.6800
 2.8000	 3.6160
 2.8010	 3.6680
 2.8030	 3.8210
 2.8040	 3.7310
 2.8060	 3.5130
 2.8070	 3.4470
 2.8090	 3.5710
 2.8110	 3.7540
 2.8120	 3.8850
 2.8140	 3.8840
 2.8150	 3.6080
 2.8170	 3.5270
 2.8180	 3.4940
 2.8200	 3.5950
 2.8210	 3.6430
 2.8230	 4.0200
 2.8240	 4.0680
 2.8260	 3.7710
 2.8270	 3.4390
 2.8290	 3.6520
 2.8300	 3.6240
 2.8320	 3.5060
 2.8340	 3.4290
 2.8350	 3.5140
 2.8370	 3.4140
 2.8380	 3.5600
 2.8400	 3.6580
 2.8410	 3.8020
 2.8430	 3.7260
 2.8440	 3.6000
 2.8460	 3.4260
 2.8480	 3.3290
 2.8490	 3.2930
 2.8510	 3.3810
 2.8520	 3.5090
 2.8540	 3.6430
 2.8550	 3.4100
 2.8570	 3.3360
 2.8590	 3.3330
 2.8600	 3.2940
 2.8620	 3.4250
 2.8630	 3.7850
 2.8650	 3.6850
 2.8660	 3.6900
 2.8680	 3.7150
 2.8700	 3.6120
 2.8710	 3.5340
 2.8730	 3.7700
 2.8740	 3.7730
 2.8760	 3.7180
 2.8780	 3.3260
 2.8790	 3.1670
 2.8810	 3.1430
 2.8820	 3.1990
 2.8840	 3.6210
 2.8860	 3.3590
 2.8870	 2.9680
 2.8890	 2.7740
 2.8900	 2.9200
 2.8920	 3.4670
 2.8940	 3.6640
 2.8950	 3.5310
 2.8970	 3.6310
 2.8980	 3.4730
 2.9000	 3.1790
 2.9020	 3.4040
 2.9030	 3.7340
 2.9050	 3.9540
 2.9070	 3.8820
 2.9080	 3.4860
 2.9100	 3.2040
 2.9120	 3.3550
 2.9130	 3.5130
 2.9150	 3.6680
 2.9160	 3.3890
 2.9180	 3.3440
 2.9200	 3.3660
 2.9210	 3.4430
 2.9230	 3.5070
 2.9250	 3.5430
 2.9260	 3.4460
 2.9280	 3.4380
 2.9300	 3.3160
 2.9310	 3.3310
 2.9330	 3.2950
 2.9350	 3.4330
 2.9360	 3.5500
 2.9380	 3.4860
 2.9400	 3.4430
 2.9410	 3.6180
 2.9430	 3.5890
 2.9450	 3.6360
 2.9460	 3.3310
 2.9480	 3.5290
 2.9500	 3.8690
 2.9510	 3.7080
 2.9530	 3.2070
 2.9550	 3.0510
 2.9560	 3.6760
 2.9580	 3.4690
 2.9600	 3.0130
 2.9610	 3.3280
 2.9630	 4.1210
 2.9650	 5.4560
 2.9660	 4.3090
 2.9680	 2.8310
 2.9700	 2.8330
 2.9720	 2.6160
 2.9730	 3.5490
 2.9750	 4.4380
 2.9770	 4.9170
 2.9780	 5.3100
 2.9800	 3.8860
 2.9820	 2.6520
 2.9840	 2.2640
 2.9850	 2.0630
 2.9870	 1.5930
 2.9890	 1.5860
 2.9900	 2.8330
 2.9920	 5.4040
 2.9940	 4.6850
 2.9960	 4.8500
 2.9970	 5.2900
 2.9990	 4.7860
 3.0010	 3.9360
 3.0030	 3.6880
 3.0040	 4.8100
 3.0060	 4.4790
 3.0080	 2.0830
 3.0100	 1.9010
 3.0110	 3.5690
 3.0130	 3.8550
 3.0150	 4.2830
 3.0170	 4.7710
 3.0180	 3.5950
 3.0200	 3.6360
 3.0220	 3.4710
 3.0240	 3.6850
 3.0250	 4.9780
 3.0270	 4.8620
 3.0290	 4.4100
 3.0310	 4.6410
 3.0320	 2.8700
 3.0340	 3.6360
 3.0360	 4.9390
 3.0380	 4.4660
 3.0400	 4.1000
 3.0410	 4.0630
 3.0430	 3.7370
 3.0450	 3.9870
 3.0470	 5.7210
 3.0480	 5.8990
 3.0500	 4.3940
 3.0520	 3.8970
 3.0540	 3.6200
 3.0560	 3.5230
 3.0570	 3.2520
 3.0590	 2.0600
 3.0610	 2.1200
 3.0630	 2.3940
 3.0650	 2.9800
 3.0660	 4.3970
 3.0680	 5.7180
 3.0700	 4.0540
 3.0720	 2.4380
 3.0740	 2.3880
 3.0760	 3.1930
 3.0770	 3.5050
 3.0790	 3.6650
 3.0810	 3.9730
 3.0830	 3.8370
 3.0850	 3.8500
 3.0870	 3.9330
 3.0880	 3.7470
 3.0900	 3.5530
 3.0920	 3.6120
 3.0940	 3.7460
 3.0960	 3.6300
 3.0980	 3.6860
 3.0990	 3.9440
 3.1010	 3.7710
 3.1030	 3.3570
 3.1050	 3.7760
 3.1070	 4.2020
 3.1090	 3.9330
 3.1110	 4.0050
 3.1120	 3.8730
 3.1140	 3.5260
 3.1160	 3.7470
 3.1180	 3.7090
 3.1200	 3.4310
 3.1220	 3.5310
 3.1240	 3.6210
 3.1260	 3.4340
 3.1270	 3.4050
 3.1290	 3.6530
 3.1310	 3.5000
 3.1330	 3.3030
 3.1350	 2.7930
 3.1370	 2.6970
 3.1390	 2.9330
 3.1410	 1.9480
 3.1430	 2.5460
 3.1450	 4.3980
 3.1460	 4.5190
 3.1480	 4.0390
 3.1500	 3.4800
 3.1520	 3.7250
 3.1540	 4.3720
 3.1560	 5.0140
 3.1580	 4.8870
 3.1600	 4.8190
 3.1620	 5.5070
 3.1640	 5.1640
 3.1660	 4.4750
 3.1680	 4.6050
 3.1700	 5.3240
 3.1710	 5.1000
 3.1730	 3.9690
 3.1750	 2.9240
 3.1770	 3.1470
 3.1790	 3.2820
 3.1810	 4.5900
 3.1830	 5.2130
 3.1850	 3.9290
 3.1870	 2.5920
 3.1890	 3.4070
 3.1910	 4.1490
 3.1930	 4.1600
 3.1950	 3.9710
 3.1970	 3.6530
 3.1990	 3.6640
 3.2010	 3.9800
 3.2030	 4.0460
 3.2050	 3.7590
 3.2070	 3.5350
 3.2090	 3.2510
 3.2110	 3.5910
 3.2130	 3.9570
 3.2150	 3.8720
 3.2170	 3.6970
 3.2190	 3.9020
 3.2210	 3.8980
 3.2230	 3.9580
 3.2250	 4.1590
 3.2270	 4.2080
 3.2290	 4.1360
 3.2310	 3.9430
 3.2330	 3.9120
 3.2350	 3.9180
 3.2370	 3.7920
 3.2390	 3.9200
 3.2410	 4.6760
 3.2430	 4.2370
 3.2450	 3.3350
 3.2470	 3.3510
 3.2490	 3.8670
 3.2510	 4.2560
 3.2530	 4.5770
 3.2550	 4.4880
 3.2570	 4.5970
 3.2590	 4.5290
 3.2610	 3.7850
 3.2630	 3.9040
 3.2650	 3.9430
 3.2670	 3.8120
 3.2690	 4.1490
 3.2720	 4.4960
 3.2740	 3.8030
 3.2760	 3.6690
 3.2780	 4.0550
 3.2800	 3.9930
 3.2820	 3.8840
 3.2840	 4.1720
 3.2860	 4.1630
 3.2880	 4.1440
 3.2900	 4.0010
 3.2920	 3.7490
 3.2940	 3.5320
 3.2960	 3.6130
 3.2990	 3.9410
 3.3010	 3.8770
 3.3030	 4.1030
 3.3050	 4.1800
 3.3070	 4.1720
 3.3090	 4.2390
 3.3110	 3.9300
 3.3130	 4.0130
 3.3150	 3.9850
 3.3180	 3.7880
 3.3200	 3.8510
 3.3220	 3.7910
 3.3240	 3.7500
 3.3260	 3.7030
 3.3280	 3.6480
 3.3300	 3.7860
 3.3330	 3.7910
 3.3350	 3.6790
 3.3370	 3.8830
 3.3390	 3.9630
 3.3410	 3.7480
 3.3430	 3.7470
 3.3450	 3.6870
 3.3480	 3.6670
 3.3500	 3.7260
 3.3520	 3.9120
 3.3540	 3.9240
 3.3560	 3.7740
 3.3580	 3.7030
 3.3610	 3.5980
 3.3630	 3.5070
 3.3650	 3.5780
 3.3670	 3.4740
 3.3690	 3.3850
 3.3720	 3.4500
 3.3740	 3.5730
 3.3760	 3.5450
 3.3780	 3.7160
 3.3800	 3.7500
 3.3830	 3.6480
 3.3850	 3.7200
 3.3870	 3.8710
 3.3890	 3.6760
 3.3910	 3.4100
 3.3940	 3.3600
 3.3960	 3.3530
 3.3980	 3.2540
 3.4000	 3.1950
 3.4020	 3.3090
 3.4050	 3.5170
 3.4070	 3.7050
 3.4090	 3.9530
 3.4110	 4.1000
 3.4140	 4.4500
 3.4160	 4.7950
 3.4180	 5.3050
 3.4200	 6.0100
 3.4230	 6.9700
 3.4250	 7.9950
 3.4270	 8.9600
 3.4290	 9.5390
 3.4320	 9.1470
 3.4340	 7.9010
 3.4360	 6.7930
 3.4390	 6.1460
 3.4410	 5.4270
 3.4430	 5.0570
 3.4450	 5.0960
 3.4480	 5.2040
 3.4500	 5.4980
 3.4520	 5.5130
 3.4550	 5.2520
 3.4570	 4.9870
 3.4590	 5.0040
 3.4620	 4.9060
 3.4640	 4.8080
 3.4660	 4.6800
 3.4680	 4.5340
 3.4710	 4.4600
 3.4730	 4.5820
 3.4750	 4.6730
 3.4780	 4.4530
 3.4800	 4.2680
 3.4820	 4.3070
 3.4850	 4.3090
 3.4870	 4.1460
 3.4890	 3.9700
 3.4920	 3.9220
 3.4940	 4.0020
 3.4970	 4.2320
 3.4990	 4.3150
 3.5010	 4.6900
 3.5040	 5.2180
 3.5060	 6.0230
 3.5080	 7.4050
 3.5110	 8.8650
 3.5130	 8.6580
 3.5160	 7.5380
 3.5180	 6.7270
 3.5200	 6.3460
 3.5230	 5.9580
 3.5250	 5.6010
 3.5270	 5.4020
 3.5300	 5.3350
 3.5320	 5.1960
 3.5350	 5.1430
 3.5370	 5.1930
 3.5400	 5.2470
 3.5420	 5.2290
 3.5440	 5.2350
 3.5470	 5.1250
 3.5490	 5.0150
 3.5520	 4.9550
 3.5540	 4.8490
 3.5570	 4.7760
 3.5590	 4.8560
 3.5610	 4.8830
 3.5640	 4.8110
 3.5660	 4.6320
 3.5690	 4.6700
 3.5710	 4.8400
 3.5740	 4.9580
 3.5760	 4.8880
 3.5790	 4.8240
 3.5810	 4.8380
 3.5840	 4.7410
 3.5860	 4.7170
 3.5890	 4.8190
 3.5910	 4.8450
 3.5930	 4.8160
 3.5960	 4.8130
 3.5980	 4.6430
 3.6010	 4.6680
 3.6030	 4.8870
 3.6060	 4.8860
 3.6080	 4.8830
 3.6110	 4.7220
 3.6140	 4.7580
 3.6160	 4.8320
 3.6190	 4.8570
 3.6210	 4.7680
 3.6240	 4.7880
 3.6260	 4.8750
 3.6290	 4.9390
 3.6310	 4.8510
 3.6340	 4.8080
 3.6360	 4.7330
 3.6390	 4.7510
 3.6410	 4.7980
 3.6440	 4.6750
 3.6470	 4.6070
 3.6490	 4.6700
 3.6520	 4.6350
 3.6540	 4.6710
 3.6570	 4.8490
 3.6590	 4.8110
 3.6620	 4.5220
 3.6650	 4.5290
 3.6670	 4.7250
 3.6700	 4.7160
 3.6720	 4.7570
 3.6750	 4.8880
 3.6780	 4.7810
 3.6800	 4.7530
 3.6830	 4.7230
 3.6850	 4.7500
 3.6880	 4.7380
 3.6910	 4.7570
 3.6930	 4.7980
 3.6960	 4.7810
 3.6990	 4.7700
 3.7010	 4.7600
 3.7040	 4.7350
 3.7060	 4.8170
 3.7090	 4.8140
 3.7120	 4.7810
 3.7140	 4.8080
 3.7170	 4.7880
 3.7200	 4.6540
 3.7220	 4.6650
 3.7250	 4.6090
 3.7280	 4.7740
 3.7300	 4.7720
 3.7330	 4.6310
 3.7360	 4.7160
 3.7390	 4.8240
 3.7410	 4.8720
 3.7440	 4.9420
 3.7470	 4.9420
 3.7490	 5.0690
 3.7520	 5.1010
 3.7550	 5.0200
 3.7580	 4.9710
 3.7600	 4.8760
 3.7630	 4.9040
 3.7660	 4.7760
 3.7680	 4.5630
 3.7710	 4.6050
 3.7740	 4.7510
 3.7770	 4.7250
 3.7790	 4.6520
 3.7820	 4.7810
 3.7850	 4.8380
 3.7880	 4.8410
 3.7900	 4.7610
 3.7930	 4.6580
 3.7960	 4.7180
 3.7990	 4.7690
 3.8020	 4.8710
 3.8040	 4.8810
 3.8070	 4.8560
 3.8100	 4.7340
 3.8130	 4.7060
 3.8160	 4.7410
 3.8180	 4.6640
 3.8210	 4.7730
 3.8240	 4.9580
 3.8270	 4.9480
 3.8300	 4.8160
 3.8330	 4.7020
 3.8350	 4.6680
 3.8380	 4.7620
 3.8410	 4.6850
 3.8440	 4.5860
 3.8470	 4.6520
 3.8500	 4.7610
 3.8520	 4.7680
 3.8550	 4.6970
 3.8580	 4.6890
 3.8610	 4.7850
 3.8640	 4.8820
 3.8670	 4.9320
 3.8700	 4.8160
 3.8730	 4.7310
 3.8750	 4.7700
 3.8780	 4.8010
 3.8810	 4.8090
 3.8840	 4.7040
 3.8870	 4.7180
 3.8900	 4.8540
 3.8930	 4.8110
 3.8960	 4.7390
 3.8990	 4.7730
 3.9020	 4.9030
 3.9050	 4.9830
 3.9080	 4.8220
 3.9110	 4.6910
 3.9140	 4.8980
 3.9160	 4.9650
 3.9190	 4.8830
 3.9220	 4.8390
 3.9250	 4.8630
 3.9280	 4.8740
 3.9310	 4.9740
 3.9340	 4.9710
 3.9370	 4.8970
 3.9400	 4.8320
 3.9430	 4.8670
 3.9460	 4.8210
 3.9490	 4.6940
 3.9520	 4.7420
 3.9550	 4.8490
 3.9580	 4.8280
 3.9610	 4.8340
 3.9640	 4.8360
 3.9670	 4.8260
 3.9700	 4.8040
 3.9730	 4.7290
 3.9770	 4.6760
 3.9800	 4.6460
 3.9830	 4.7020
 3.9860	 4.7800
 3.9890	 4.7940
 3.9920	 4.8090
 3.9950	 4.9040
 3.9980	 4.9390
 4.0010	 4.8580
 4.0040	 4.8170
 4.0070	 4.8540
 4.0100	 4.8050
 4.0130	 4.7120
 4.0170	 4.7280
 4.0200	 4.8350
 4.0230	 4.9220
 4.0260	 4.9910
 4.0290	 4.9460
 4.0320	 4.8110
 4.0350	 4.7170
 4.0380	 4.7240
 4.0420	 4.7680
 4.0450	 4.7180
 4.0480	 4.8020
 4.0510	 4.8460
 4.0540	 4.8250
 4.0570	 4.9090
 4.0610	 4.9290
 4.0640	 4.9690
 4.0670	 4.9260
 4.0700	 4.9330
 4.0730	 4.9880
 4.0770	 4.8940
 4.0800	 4.8710
 4.0830	 5.0320
 4.0860	 4.9580
 4.0890	 4.7190
 4.0930	 4.7510
 4.0960	 4.7480
 4.0990	 4.6740
 4.1020	 4.7960
 4.1060	 4.9040
 4.1090	 4.9850
 4.1120	 4.8720
 4.1150	 4.6470
 4.1190	 4.7060
 4.1220	 4.8220
 4.1250	 4.9380
 4.1280	 4.8970
 4.1320	 4.8940
 4.1350	 4.9610
 4.1380	 4.8770
 4.1420	 4.8050
 4.1450	 4.8570
 4.1480	 4.8540
 4.1520	 4.9490
 4.1550	 4.9620
 4.1580	 4.8660
 4.1620	 4.8360
 4.1650	 4.9140
 4.1680	 4.9440
 4.1720	 4.9060
 4.1750	 4.8280
 4.1780	 4.8060
 4.1820	 4.9110
 4.1850	 4.9450
 4.1890	 4.9100
 4.1920	 4.9620
 4.1950	 5.0320
 4.1990	 5.0300
 4.2020	 4.9860
 4.2060	 5.1320
 4.2090	 5.3920
 4.2120	 5.4660
 4.2160	 5.4880
 4.2190	 5.7030
 4.2230	 5.8420
 4.2260	 6.0230
 4.2300	 5.9910
 4.2330	 5.7110
 4.2360	 5.7020
 4.2400	 6.0460
 4.2430	 6.1480
 4.2470	 5.9970
 4.2500	 5.4940
 4.2540	 5.3220
 4.2570	 5.2230
 4.2610	 5.0840
 4.2640	 5.3460
 4.2680	 5.8970
 4.2710	 5.9840
 4.2750	 5.6460
 4.2780	 5.4010
 4.2820	 5.4580
 4.2850	 5.4960
 4.2890	 5.7050
 4.2930	 5.7380
 4.2960	 5.6630
 4.3000	 5.5450
 4.3030	 5.3590
 4.3070	 5.3930
 4.3100	 5.3670
 4.3140	 5.2610
 4.3180	 5.1540
 4.3210	 5.1300
 4.3250	 5.1780
 4.3280	 5.2030
 4.3320	 5.0640
 4.3360	 5.1060
 4.3390	 5.1140
 4.3430	 5.0570
 4.3470	 5.0720
 4.3500	 5.1040
 4.3540	 5.0770
 4.3570	 4.9640
 4.3610	 4.9420
 4.3650	 4.9100
 4.3680	 4.8760
 4.3720	 4.8920
 4.3760	 4.8650
 4.3800	 4.8780
 4.3830	 4.9300
 4.3870	 4.8880
 4.3910	 4.8190
 4.3940	 4.8500
 4.3980	 4.9200
 4.4020	 4.9680
 4.4060	 4.8740
 4.4090	 4.8170
 4.4130	 4.7450
 4.4170	 4.7180
 4.4210	 4.8110
 4.4240	 4.8330
 4.4280	 4.8260
 4.4320	 4.7990
 4.4360	 4.8340
 4.4400	 4.8530
 4.4430	 4.7580
 4.4470	 4.7120
 4.4510	 4.7750
 4.4550	 4.8560
 4.4590	 4.8230
 4.4620	 4.7920
 4.4660	 4.7850
 4.4700	 4.7610
 4.4740	 4.7270
 4.4780	 4.7930
 4.4820	 4.8730
 4.4860	 4.8770
 4.4900	 4.8430
 4.4930	 4.9030
 4.4970	 4.8870
 4.5010	 4.8010
 4.5050	 4.8100
 4.5090	 4.8570
 4.5130	 4.9570
 4.5170	 4.9400
 4.5210	 4.8590
 4.5250	 4.8520
 4.5290	 4.8260
 4.5330	 4.7950
 4.5370	 4.7940
 4.5410	 4.7860
 4.5450	 4.8660
 4.5490	 4.8840
 4.5530	 4.8010
 4.5570	 4.8170
 4.5610	 4.7510
 4.5650	 4.7750
 4.5690	 4.6840
 4.5730	 4.6630
 4.5770	 4.6880
 4.5810	 4.7810
 4.5850	 4.8170
 4.5890	 4.7020
 4.5930	 4.6260
 4.5970	 4.7200
 4.6010	 4.5620
 4.6050	 4.5910
 4.6090	 4.7110
 4.6130	 4.7170
 4.6170	 4.7740
 4.6220	 4.6440
 4.6260	 4.5970
 4.6300	 4.7600
 4.6340	 4.6700
 4.6380	 4.5910
 4.6420	 4.6770
 4.6460	 4.6980
 4.6510	 4.7700
 4.6550	 4.9100
 4.6590	 4.9080
 4.6630	 4.7880
 4.6670	 4.7290
 4.6720	 4.7130
 4.6760	 4.6890
 4.6800	 4.6860
 4.6840	 4.7010
 4.6880	 4.5890
 4.6930	 4.6000
 4.6970	 4.6370
 4.7010	 4.6090
 4.7050	 4.6040
 4.7100	 4.5890
 4.7140	 4.6240
 4.7180	 4.6870
 4.7230	 4.7240
 4.7270	 4.6810
 4.7310	 4.6800
 4.7360	 4.7530
 4.7400	 4.6980
 4.7440	 4.6220
 4.7490	 4.6500
 4.7530	 4.7250
 4.7570	 4.7470
 4.7620	 4.7190
 4.7660	 4.7650
 4.7700	 4.7390
 4.7750	 4.7250
 4.7790	 4.8230
 4.7840	 5.0290
 4.7880	 4.9810
 4.7920	 4.5570
 4.7970	 4.1850
 4.8010	 4.4960
 4.8060	 4.6710
 4.8100	 4.6390
 4.8150	 4.6970
 4.8190	 4.7380
 4.8240	 4.7000
 4.8280	 4.7000
 4.8330	 4.7490
 4.8370	 4.7530
 4.8420	 4.6530
 4.8460	 4.7010
 4.8510	 4.5800
 4.8550	 4.4930
 4.8600	 4.5490
 4.8640	 4.6250
 4.8690	 4.7360
 4.8730	 4.7520
 4.8780	 4.6000
 4.8830	 4.6250
 4.8870	 4.6310
 4.8920	 4.6910
 4.8960	 4.7550
 4.9010	 4.7890
 4.9060	 4.7750
 4.9100	 4.7560
 4.9150	 4.6890
 4.9200	 4.6680
 4.9240	 4.7550
 4.9290	 4.7940
 4.9340	 4.7620
 4.9380	 4.7550
 4.9430	 4.6420
 4.9480	 4.6310
 4.9530	 4.5810
 4.9570	 4.6190
 4.9620	 4.6730
 4.9670	 4.6630
 4.9720	 4.6740
 4.9760	 4.7410
 4.9810	 4.6580
 4.9860	 4.6450
 4.9910	 4.6450
 4.9960	 4.7080
 5.0000	 4.7150
 5.0050	 4.6300
 5.0100	 4.6900
 5.0150	 4.8050
 5.0200	 4.7260
 5.0250	 4.6950
 5.0290	 4.6810
 5.0340	 4.6970
 5.0390	 4.7070
 5.0440	 4.7640
 5.0490	 4.7550
 5.0540	 4.6690
 5.0590	 4.6230
 5.0640	 4.6570
 5.0690	 4.6460
 5.0740	 4.6650
 5.0790	 4.6220
 5.0840	 4.6480
 5.0890	 4.5590
 5.0940	 4.4800
 5.0990	 4.5350
 5.1040	 4.6430
 5.1090	 4.6190
 5.1140	 4.6980
 5.1190	 4.7360
 5.1240	 4.7250
 5.1290	 4.7010
 5.1340	 4.6740
 5.1390	 4.5980
 5.1440	 4.6830
 5.1490	 4.6670
 5.1540	 4.5980
 5.1600	 4.6980
 5.1650	 4.7170
 5.1700	 4.5990
 5.1750	 4.5980
 5.1800	 4.6140
 5.1850	 4.6360
 5.1910	 4.5940
 5.1960	 4.6370
 5.2010	 4.6640
 5.2060	 4.6710
 5.2110	 4.7060
 5.2170	 4.8110
 5.2220	 4.7750
 5.2270	 4.7240
 5.2320	 4.6290
 5.2380	 4.5720
 5.2430	 4.6150
 5.2480	 4.6550
 5.2540	 4.6740
 5.2590	 4.7350
 5.2640	 4.6770
 5.2700	 4.6620
 5.2750	 4.6230
 5.2800	 4.7020
 5.2860	 4.7260
 5.2910	 4.7200
 5.2970	 4.6230
 5.3020	 4.6340
 5.3070	 4.6110
 5.3130	 4.5970
 5.3180	 4.5830
 5.3240	 4.5880
 5.3290	 4.5730
 5.3350	 4.5970
 5.3400	 4.5670
 5.3460	 4.6090
 5.3510	 4.5890
 5.3570	 4.5900
 5.3620	 4.6700
 5.3680	 4.7060
 5.3730	 4.6000
 5.3790	 4.4770
 5.3850	 4.4080
 5.3900	 4.4890
 5.3960	 4.5700
 5.4010	 4.5390
 5.4070	 4.4680
 5.4130	 4.5620
 5.4180	 4.5660
 5.4240	 4.5060
 5.4300	 4.4540
 5.4350	 4.4310
