Name: Ombu tree
Type: vegetation
Class: Tree
Genus: Ombu
Species: tree
Sample No.: JPL166
Owner: JPL
Wavelength Range: VSWIR
Origin: 34.12568; -118.11213; WGS84
Collection Date: 9/14/2016
Description: Samples were collected at the Huntington Garden in San Marino California as part of a JPL Subcontract studying HyTES imagery. Samples were taken to JPL and processed within 48 hours of collection. The same leaves were processed in the Nicolet and then measured using the ASD.
Measurement: Bidirectional reflectance
First Column: X
Second Column: Y
X Units: Wavelength (micrometer)
Y Units: Reflectance (percentage)
First X Value: 0.35
Last X Value: 2.5
Number of X Values: 2151
Additional Information: vegetation.tree.ombu.tree.vswir.jpl166.jpl.asd.ancillary.txt

 0.3500	 3.1880
 0.3510	 3.2340
 0.3520	 3.1790
 0.3530	 3.0900
 0.3540	 3.0510
 0.3550	 3.0290
 0.3560	 3.0560
 0.3570	 3.0840
 0.3580	 3.0400
 0.3590	 3.0520
 0.3600	 3.0430
 0.3610	 2.9890
 0.3620	 2.9620
 0.3630	 2.9660
 0.3640	 2.9910
 0.3650	 3.0210
 0.3660	 3.0340
 0.3670	 2.9620
 0.3680	 2.8840
 0.3690	 2.9600
 0.3700	 3.0210
 0.3710	 3.0160
 0.3720	 2.9600
 0.3730	 2.9490
 0.3740	 2.9880
 0.3750	 3.0330
 0.3760	 3.0310
 0.3770	 2.9570
 0.3780	 2.8980
 0.3790	 2.8960
 0.3800	 2.9450
 0.3810	 2.9620
 0.3820	 2.9730
 0.3830	 2.9920
 0.3840	 2.9370
 0.3850	 2.9180
 0.3860	 2.9160
 0.3870	 2.8810
 0.3880	 2.9260
 0.3890	 2.9530
 0.3900	 2.9240
 0.3910	 2.8760
 0.3920	 2.9100
 0.3930	 2.9160
 0.3940	 2.8360
 0.3950	 2.8550
 0.3960	 2.8980
 0.3970	 2.9340
 0.3980	 2.9510
 0.3990	 2.9100
 0.4000	 2.8810
 0.4010	 2.8970
 0.4020	 2.9380
 0.4030	 2.9430
 0.4040	 2.9360
 0.4050	 2.9480
 0.4060	 2.9370
 0.4070	 2.9680
 0.4080	 3.0170
 0.4090	 3.0080
 0.4100	 3.0150
 0.4110	 3.0360
 0.4120	 3.0600
 0.4130	 3.0740
 0.4140	 3.1000
 0.4150	 3.1390
 0.4160	 3.1830
 0.4170	 3.2120
 0.4180	 3.2360
 0.4190	 3.2650
 0.4200	 3.3130
 0.4210	 3.3500
 0.4220	 3.3840
 0.4230	 3.4230
 0.4240	 3.4580
 0.4250	 3.4980
 0.4260	 3.5390
 0.4270	 3.5690
 0.4280	 3.5990
 0.4290	 3.6300
 0.4300	 3.6610
 0.4310	 3.6900
 0.4320	 3.7320
 0.4330	 3.7710
 0.4340	 3.7920
 0.4350	 3.8210
 0.4360	 3.8500
 0.4370	 3.8750
 0.4380	 3.8960
 0.4390	 3.9220
 0.4400	 3.9540
 0.4410	 3.9860
 0.4420	 4.0100
 0.4430	 4.0270
 0.4440	 4.0470
 0.4450	 4.0800
 0.4460	 4.1070
 0.4470	 4.1360
 0.4480	 4.1660
 0.4490	 4.1870
 0.4500	 4.2100
 0.4510	 4.2330
 0.4520	 4.2540
 0.4530	 4.2750
 0.4540	 4.2980
 0.4550	 4.3230
 0.4560	 4.3440
 0.4570	 4.3540
 0.4580	 4.3580
 0.4590	 4.3660
 0.4600	 4.3790
 0.4610	 4.3850
 0.4620	 4.3910
 0.4630	 4.4060
 0.4640	 4.4130
 0.4650	 4.4140
 0.4660	 4.4160
 0.4670	 4.4260
 0.4680	 4.4340
 0.4690	 4.4380
 0.4700	 4.4390
 0.4710	 4.4410
 0.4720	 4.4460
 0.4730	 4.4540
 0.4740	 4.4620
 0.4750	 4.4640
 0.4760	 4.4670
 0.4770	 4.4720
 0.4780	 4.4800
 0.4790	 4.4870
 0.4800	 4.4920
 0.4810	 4.4970
 0.4820	 4.5080
 0.4830	 4.5130
 0.4840	 4.5160
 0.4850	 4.5310
 0.4860	 4.5450
 0.4870	 4.5550
 0.4880	 4.5640
 0.4890	 4.5750
 0.4900	 4.5890
 0.4910	 4.6070
 0.4920	 4.6260
 0.4930	 4.6470
 0.4940	 4.6690
 0.4950	 4.6920
 0.4960	 4.7140
 0.4970	 4.7460
 0.4980	 4.7840
 0.4990	 4.8170
 0.5000	 4.8490
 0.5010	 4.8840
 0.5020	 4.9270
 0.5030	 4.9780
 0.5040	 5.0260
 0.5050	 5.0760
 0.5060	 5.1330
 0.5070	 5.1920
 0.5080	 5.2560
 0.5090	 5.3240
 0.5100	 5.3940
 0.5110	 5.4690
 0.5120	 5.5510
 0.5130	 5.6390
 0.5140	 5.7280
 0.5150	 5.8320
 0.5160	 5.9410
 0.5170	 6.0490
 0.5180	 6.1630
 0.5190	 6.2840
 0.5200	 6.4110
 0.5210	 6.5420
 0.5220	 6.6790
 0.5230	 6.8160
 0.5240	 6.9490
 0.5250	 7.0800
 0.5260	 7.2110
 0.5270	 7.3400
 0.5280	 7.4630
 0.5290	 7.5780
 0.5300	 7.6850
 0.5310	 7.7830
 0.5320	 7.8730
 0.5330	 7.9560
 0.5340	 8.0320
 0.5350	 8.1010
 0.5360	 8.1630
 0.5370	 8.2170
 0.5380	 8.2640
 0.5390	 8.3110
 0.5400	 8.3570
 0.5410	 8.4050
 0.5420	 8.4540
 0.5430	 8.4910
 0.5440	 8.5180
 0.5450	 8.5360
 0.5460	 8.5460
 0.5470	 8.5510
 0.5480	 8.5560
 0.5490	 8.5630
 0.5500	 8.5720
 0.5510	 8.5770
 0.5520	 8.5740
 0.5530	 8.5600
 0.5540	 8.5400
 0.5550	 8.5120
 0.5560	 8.4760
 0.5570	 8.4320
 0.5580	 8.3830
 0.5590	 8.3280
 0.5600	 8.2670
 0.5610	 8.2020
 0.5620	 8.1340
 0.5630	 8.0630
 0.5640	 7.9870
 0.5650	 7.9090
 0.5660	 7.8280
 0.5670	 7.7440
 0.5680	 7.6590
 0.5690	 7.5710
 0.5700	 7.4830
 0.5710	 7.4010
 0.5720	 7.3180
 0.5730	 7.2400
 0.5740	 7.1690
 0.5750	 7.1040
 0.5760	 7.0460
 0.5770	 6.9910
 0.5780	 6.9380
 0.5790	 6.8910
 0.5800	 6.8480
 0.5810	 6.8070
 0.5820	 6.7650
 0.5830	 6.7260
 0.5840	 6.6860
 0.5850	 6.6470
 0.5860	 6.6080
 0.5870	 6.5700
 0.5880	 6.5360
 0.5890	 6.5060
 0.5900	 6.4810
 0.5910	 6.4590
 0.5920	 6.4420
 0.5930	 6.4250
 0.5940	 6.4070
 0.5950	 6.3920
 0.5960	 6.3790
 0.5970	 6.3660
 0.5980	 6.3520
 0.5990	 6.3370
 0.6000	 6.3220
 0.6010	 6.3030
 0.6020	 6.2840
 0.6030	 6.2640
 0.6040	 6.2400
 0.6050	 6.2120
 0.6060	 6.1830
 0.6070	 6.1530
 0.6080	 6.1190
 0.6090	 6.0880
 0.6100	 6.0620
 0.6110	 6.0410
 0.6120	 6.0040
 0.6130	 5.9570
 0.6140	 5.9090
 0.6150	 5.8710
 0.6160	 5.8340
 0.6170	 5.7990
 0.6180	 5.7720
 0.6190	 5.7480
 0.6200	 5.7240
 0.6210	 5.7020
 0.6220	 5.6850
 0.6230	 5.6680
 0.6240	 5.6530
 0.6250	 5.6410
 0.6260	 5.6320
 0.6270	 5.6250
 0.6280	 5.6190
 0.6290	 5.6140
 0.6300	 5.6100
 0.6310	 5.6060
 0.6320	 5.5990
 0.6330	 5.5870
 0.6340	 5.5750
 0.6350	 5.5590
 0.6360	 5.5390
 0.6370	 5.5150
 0.6380	 5.4870
 0.6390	 5.4570
 0.6400	 5.4260
 0.6410	 5.3950
 0.6420	 5.3590
 0.6430	 5.3210
 0.6440	 5.2880
 0.6450	 5.2540
 0.6460	 5.2190
 0.6470	 5.1860
 0.6480	 5.1590
 0.6490	 5.1370
 0.6500	 5.1170
 0.6510	 5.0970
 0.6520	 5.0810
 0.6530	 5.0660
 0.6540	 5.0520
 0.6550	 5.0370
 0.6560	 5.0210
 0.6570	 5.0030
 0.6580	 4.9810
 0.6590	 4.9540
 0.6600	 4.9270
 0.6610	 4.9010
 0.6620	 4.8740
 0.6630	 4.8500
 0.6640	 4.8290
 0.6650	 4.8100
 0.6660	 4.7930
 0.6670	 4.7790
 0.6680	 4.7710
 0.6690	 4.7710
 0.6700	 4.7760
 0.6710	 4.7850
 0.6720	 4.7980
 0.6730	 4.8170
 0.6740	 4.8420
 0.6750	 4.8720
 0.6760	 4.9080
 0.6770	 4.9490
 0.6780	 4.9950
 0.6790	 5.0480
 0.6800	 5.1070
 0.6810	 5.1730
 0.6820	 5.2460
 0.6830	 5.3240
 0.6840	 5.4070
 0.6850	 5.4910
 0.6860	 5.5780
 0.6870	 5.6710
 0.6880	 5.7720
 0.6890	 5.8830
 0.6900	 6.0080
 0.6910	 6.1510
 0.6920	 6.3180
 0.6930	 6.5100
 0.6940	 6.7330
 0.6950	 6.9950
 0.6960	 7.2950
 0.6970	 7.6330
 0.6980	 8.0090
 0.6990	 8.4240
 0.7000	 8.8760
 0.7010	 9.3630
 0.7020	 9.8830
 0.7030	10.4320
 0.7040	11.0100
 0.7050	11.6140
 0.7060	12.2450
 0.7070	12.8990
 0.7080	13.5770
 0.7090	14.2820
 0.7100	15.0070
 0.7110	15.7590
 0.7120	16.5380
 0.7130	17.3380
 0.7140	18.1580
 0.7150	19.0000
 0.7160	19.8600
 0.7170	20.7380
 0.7180	21.6280
 0.7190	22.5270
 0.7200	23.4360
 0.7210	24.3460
 0.7220	25.2560
 0.7230	26.1630
 0.7240	27.0600
 0.7250	27.9420
 0.7260	28.8090
 0.7270	29.6590
 0.7280	30.4820
 0.7290	31.2800
 0.7300	32.0510
 0.7310	32.7900
 0.7320	33.4980
 0.7330	34.1740
 0.7340	34.8170
 0.7350	35.4240
 0.7360	35.9990
 0.7370	36.5430
 0.7380	37.0550
 0.7390	37.5280
 0.7400	37.9690
 0.7410	38.3790
 0.7420	38.7570
 0.7430	39.1050
 0.7440	39.4240
 0.7450	39.7160
 0.7460	39.9800
 0.7470	40.2190
 0.7480	40.4360
 0.7490	40.6320
 0.7500	40.8030
 0.7510	40.9570
 0.7520	41.0970
 0.7530	41.2220
 0.7540	41.3310
 0.7550	41.4290
 0.7560	41.5180
 0.7570	41.5950
 0.7580	41.6670
 0.7590	41.7320
 0.7600	41.7890
 0.7610	41.8350
 0.7620	41.8730
 0.7630	41.9060
 0.7640	41.9360
 0.7650	41.9630
 0.7660	41.9830
 0.7670	41.9990
 0.7680	42.0160
 0.7690	42.0270
 0.7700	42.0360
 0.7710	42.0450
 0.7720	42.0500
 0.7730	42.0570
 0.7740	42.0630
 0.7750	42.0690
 0.7760	42.0720
 0.7770	42.0750
 0.7780	42.0790
 0.7790	42.0840
 0.7800	42.0870
 0.7810	42.0900
 0.7820	42.0950
 0.7830	42.1000
 0.7840	42.1030
 0.7850	42.1050
 0.7860	42.1070
 0.7870	42.1080
 0.7880	42.1080
 0.7890	42.1070
 0.7900	42.1070
 0.7910	42.1060
 0.7920	42.1040
 0.7930	42.1020
 0.7940	42.1050
 0.7950	42.1010
 0.7960	42.0950
 0.7970	42.0920
 0.7980	42.0870
 0.7990	42.0840
 0.8000	42.0790
 0.8010	42.0710
 0.8020	42.0630
 0.8030	42.0540
 0.8040	42.0460
 0.8050	42.0370
 0.8060	42.0270
 0.8070	42.0160
 0.8080	42.0050
 0.8090	41.9950
 0.8100	41.9870
 0.8110	41.9770
 0.8120	41.9650
 0.8130	41.9510
 0.8140	41.9350
 0.8150	41.9210
 0.8160	41.9100
 0.8170	41.8930
 0.8180	41.8800
 0.8190	41.8700
 0.8200	41.8550
 0.8210	41.8380
 0.8220	41.8220
 0.8230	41.8070
 0.8240	41.7910
 0.8250	41.7740
 0.8260	41.7570
 0.8270	41.7410
 0.8280	41.7260
 0.8290	41.7070
 0.8300	41.6870
 0.8310	41.6660
 0.8320	41.6510
 0.8330	41.6370
 0.8340	41.6210
 0.8350	41.6020
 0.8360	41.5890
 0.8370	41.5780
 0.8380	41.5680
 0.8390	41.5560
 0.8400	41.5460
 0.8410	41.5340
 0.8420	41.5210
 0.8430	41.5120
 0.8440	41.5030
 0.8450	41.4940
 0.8460	41.4860
 0.8470	41.4790
 0.8480	41.4730
 0.8490	41.4660
 0.8500	41.4560
 0.8510	41.4470
 0.8520	41.4420
 0.8530	41.4380
 0.8540	41.4340
 0.8550	41.4290
 0.8560	41.4250
 0.8570	41.4230
 0.8580	41.4270
 0.8590	41.4250
 0.8600	41.4220
 0.8610	41.4230
 0.8620	41.4260
 0.8630	41.4220
 0.8640	41.4180
 0.8650	41.4210
 0.8660	41.4260
 0.8670	41.4290
 0.8680	41.4290
 0.8690	41.4280
 0.8700	41.4300
 0.8710	41.4330
 0.8720	41.4360
 0.8730	41.4390
 0.8740	41.4460
 0.8750	41.4520
 0.8760	41.4550
 0.8770	41.4590
 0.8780	41.4670
 0.8790	41.4730
 0.8800	41.4770
 0.8810	41.4820
 0.8820	41.4850
 0.8830	41.4880
 0.8840	41.4920
 0.8850	41.5010
 0.8860	41.5090
 0.8870	41.5150
 0.8880	41.5190
 0.8890	41.5270
 0.8900	41.5300
 0.8910	41.5340
 0.8920	41.5440
 0.8930	41.5460
 0.8940	41.5520
 0.8950	41.5620
 0.8960	41.5670
 0.8970	41.5690
 0.8980	41.5720
 0.8990	41.5770
 0.9000	41.5830
 0.9010	41.5930
 0.9020	41.6030
 0.9030	41.6100
 0.9040	41.6110
 0.9050	41.6130
 0.9060	41.6160
 0.9070	41.6170
 0.9080	41.6160
 0.9090	41.6190
 0.9100	41.6250
 0.9110	41.6280
 0.9120	41.6190
 0.9130	41.6160
 0.9140	41.6190
 0.9150	41.6220
 0.9160	41.6160
 0.9170	41.6100
 0.9180	41.6080
 0.9190	41.6080
 0.9200	41.6030
 0.9210	41.5940
 0.9220	41.5810
 0.9230	41.5680
 0.9240	41.5560
 0.9250	41.5460
 0.9260	41.5340
 0.9270	41.5170
 0.9280	41.5050
 0.9290	41.4880
 0.9300	41.4650
 0.9310	41.4440
 0.9320	41.4220
 0.9330	41.4010
 0.9340	41.3770
 0.9350	41.3410
 0.9360	41.3140
 0.9370	41.2920
 0.9380	41.2670
 0.9390	41.2290
 0.9400	41.1980
 0.9410	41.1650
 0.9420	41.1270
 0.9430	41.0930
 0.9440	41.0550
 0.9450	41.0080
 0.9460	40.9570
 0.9470	40.9100
 0.9480	40.8640
 0.9490	40.8110
 0.9500	40.7510
 0.9510	40.6820
 0.9520	40.6110
 0.9530	40.5420
 0.9540	40.4790
 0.9550	40.4100
 0.9560	40.3510
 0.9570	40.2960
 0.9580	40.2360
 0.9590	40.1750
 0.9600	40.1320
 0.9610	40.0980
 0.9620	40.0570
 0.9630	40.0150
 0.9640	39.9820
 0.9650	39.9560
 0.9660	39.9330
 0.9670	39.9200
 0.9680	39.8940
 0.9690	39.8640
 0.9700	39.8480
 0.9710	39.8460
 0.9720	39.8330
 0.9730	39.8160
 0.9740	39.8110
 0.9750	39.7950
 0.9760	39.7840
 0.9770	39.7790
 0.9780	39.7760
 0.9790	39.7660
 0.9800	39.7600
 0.9810	39.7600
 0.9820	39.7660
 0.9830	39.7740
 0.9840	39.7680
 0.9850	39.7620
 0.9860	39.7750
 0.9870	39.7850
 0.9880	39.7900
 0.9890	39.7970
 0.9900	39.8140
 0.9910	39.8220
 0.9920	39.8290
 0.9930	39.8400
 0.9940	39.8530
 0.9950	39.8630
 0.9960	39.8750
 0.9970	39.8940
 0.9980	39.9210
 0.9990	39.9440
 1.0000	39.9550
 1.0010	40.9060
 1.0020	40.9200
 1.0030	40.9380
 1.0040	40.9560
 1.0050	40.9720
 1.0060	40.9900
 1.0070	41.0080
 1.0080	41.0270
 1.0090	41.0470
 1.0100	41.0640
 1.0110	41.0800
 1.0120	41.0980
 1.0130	41.1130
 1.0140	41.1320
 1.0150	41.1560
 1.0160	41.1760
 1.0170	41.1970
 1.0180	41.2180
 1.0190	41.2330
 1.0200	41.2500
 1.0210	41.2670
 1.0220	41.2830
 1.0230	41.3030
 1.0240	41.3290
 1.0250	41.3500
 1.0260	41.3690
 1.0270	41.3870
 1.0280	41.4010
 1.0290	41.4170
 1.0300	41.4310
 1.0310	41.4480
 1.0320	41.4670
 1.0330	41.4860
 1.0340	41.5080
 1.0350	41.5290
 1.0360	41.5470
 1.0370	41.5630
 1.0380	41.5770
 1.0390	41.5870
 1.0400	41.6010
 1.0410	41.6160
 1.0420	41.6320
 1.0430	41.6540
 1.0440	41.6690
 1.0450	41.6790
 1.0460	41.6930
 1.0470	41.7090
 1.0480	41.7200
 1.0490	41.7290
 1.0500	41.7400
 1.0510	41.7480
 1.0520	41.7560
 1.0530	41.7670
 1.0540	41.7850
 1.0550	41.7950
 1.0560	41.8010
 1.0570	41.8090
 1.0580	41.8150
 1.0590	41.8210
 1.0600	41.8290
 1.0610	41.8360
 1.0620	41.8420
 1.0630	41.8460
 1.0640	41.8490
 1.0650	41.8520
 1.0660	41.8530
 1.0670	41.8540
 1.0680	41.8550
 1.0690	41.8560
 1.0700	41.8560
 1.0710	41.8530
 1.0720	41.8530
 1.0730	41.8540
 1.0740	41.8540
 1.0750	41.8570
 1.0760	41.8540
 1.0770	41.8480
 1.0780	41.8430
 1.0790	41.8340
 1.0800	41.8280
 1.0810	41.8250
 1.0820	41.8200
 1.0830	41.8150
 1.0840	41.8090
 1.0850	41.8020
 1.0860	41.7950
 1.0870	41.7860
 1.0880	41.7770
 1.0890	41.7670
 1.0900	41.7550
 1.0910	41.7440
 1.0920	41.7340
 1.0930	41.7240
 1.0940	41.7170
 1.0950	41.7050
 1.0960	41.6910
 1.0970	41.6790
 1.0980	41.6640
 1.0990	41.6510
 1.1000	41.6410
 1.1010	41.6280
 1.1020	41.6160
 1.1030	41.6030
 1.1040	41.5910
 1.1050	41.5760
 1.1060	41.5620
 1.1070	41.5480
 1.1080	41.5340
 1.1090	41.5190
 1.1100	41.5030
 1.1110	41.4880
 1.1120	41.4710
 1.1130	41.4560
 1.1140	41.4380
 1.1150	41.4190
 1.1160	41.3980
 1.1170	41.3770
 1.1180	41.3540
 1.1190	41.3290
 1.1200	41.3040
 1.1210	41.2750
 1.1220	41.2440
 1.1230	41.2090
 1.1240	41.1690
 1.1250	41.1240
 1.1260	41.0780
 1.1270	41.0210
 1.1280	40.9590
 1.1290	40.8900
 1.1300	40.8160
 1.1310	40.7340
 1.1320	40.6480
 1.1330	40.5540
 1.1340	40.4530
 1.1350	40.3430
 1.1360	40.2250
 1.1370	40.1010
 1.1380	39.9700
 1.1390	39.8350
 1.1400	39.6950
 1.1410	39.5540
 1.1420	39.4090
 1.1430	39.2610
 1.1440	39.1150
 1.1450	38.9650
 1.1460	38.8240
 1.1470	38.6850
 1.1480	38.5520
 1.1490	38.4250
 1.1500	38.3030
 1.1510	38.1850
 1.1520	38.0750
 1.1530	37.9730
 1.1540	37.8780
 1.1550	37.7900
 1.1560	37.7110
 1.1570	37.6380
 1.1580	37.5710
 1.1590	37.5110
 1.1600	37.4580
 1.1610	37.4100
 1.1620	37.3650
 1.1630	37.3250
 1.1640	37.2900
 1.1650	37.2560
 1.1660	37.2260
 1.1670	37.1980
 1.1680	37.1730
 1.1690	37.1480
 1.1700	37.1270
 1.1710	37.1070
 1.1720	37.0870
 1.1730	37.0680
 1.1740	37.0490
 1.1750	37.0300
 1.1760	37.0100
 1.1770	36.9920
 1.1780	36.9710
 1.1790	36.9500
 1.1800	36.9290
 1.1810	36.9060
 1.1820	36.8870
 1.1830	36.8700
 1.1840	36.8510
 1.1850	36.8330
 1.1860	36.8160
 1.1870	36.7980
 1.1880	36.7800
 1.1890	36.7620
 1.1900	36.7460
 1.1910	36.7290
 1.1920	36.7160
 1.1930	36.7080
 1.1940	36.6980
 1.1950	36.6880
 1.1960	36.6800
 1.1970	36.6720
 1.1980	36.6660
 1.1990	36.6630
 1.2000	36.6620
 1.2010	36.6640
 1.2020	36.6680
 1.2030	36.6730
 1.2040	36.6820
 1.2050	36.6900
 1.2060	36.7010
 1.2070	36.7100
 1.2080	36.7190
 1.2090	36.7310
 1.2100	36.7450
 1.2110	36.7600
 1.2120	36.7790
 1.2130	36.7970
 1.2140	36.8170
 1.2150	36.8370
 1.2160	36.8580
 1.2170	36.8820
 1.2180	36.9070
 1.2190	36.9300
 1.2200	36.9550
 1.2210	36.9810
 1.2220	37.0080
 1.2230	37.0360
 1.2240	37.0640
 1.2250	37.0890
 1.2260	37.1140
 1.2270	37.1390
 1.2280	37.1640
 1.2290	37.1900
 1.2300	37.2140
 1.2310	37.2340
 1.2320	37.2580
 1.2330	37.2790
 1.2340	37.3000
 1.2350	37.3220
 1.2360	37.3420
 1.2370	37.3590
 1.2380	37.3770
 1.2390	37.3960
 1.2400	37.4130
 1.2410	37.4290
 1.2420	37.4460
 1.2430	37.4630
 1.2440	37.4780
 1.2450	37.4940
 1.2460	37.5080
 1.2470	37.5190
 1.2480	37.5330
 1.2490	37.5450
 1.2500	37.5570
 1.2510	37.5710
 1.2520	37.5800
 1.2530	37.5890
 1.2540	37.5990
 1.2550	37.6070
 1.2560	37.6150
 1.2570	37.6240
 1.2580	37.6310
 1.2590	37.6370
 1.2600	37.6430
 1.2610	37.6460
 1.2620	37.6480
 1.2630	37.6500
 1.2640	37.6490
 1.2650	37.6470
 1.2660	37.6470
 1.2670	37.6430
 1.2680	37.6390
 1.2690	37.6350
 1.2700	37.6280
 1.2710	37.6220
 1.2720	37.6160
 1.2730	37.6090
 1.2740	37.6010
 1.2750	37.5900
 1.2760	37.5760
 1.2770	37.5620
 1.2780	37.5470
 1.2790	37.5300
 1.2800	37.5110
 1.2810	37.4910
 1.2820	37.4700
 1.2830	37.4470
 1.2840	37.4250
 1.2850	37.3990
 1.2860	37.3700
 1.2870	37.3380
 1.2880	37.3050
 1.2890	37.2690
 1.2900	37.2310
 1.2910	37.1900
 1.2920	37.1470
 1.2930	37.1020
 1.2940	37.0560
 1.2950	37.0090
 1.2960	36.9580
 1.2970	36.9050
 1.2980	36.8490
 1.2990	36.7890
 1.3000	36.7260
 1.3010	36.6600
 1.3020	36.5930
 1.3030	36.5250
 1.3040	36.4560
 1.3050	36.3850
 1.3060	36.3090
 1.3070	36.2300
 1.3080	36.1480
 1.3090	36.0640
 1.3100	35.9770
 1.3110	35.8870
 1.3120	35.7940
 1.3130	35.7000
 1.3140	35.6020
 1.3150	35.5010
 1.3160	35.3990
 1.3170	35.2940
 1.3180	35.1850
 1.3190	35.0750
 1.3200	34.9610
 1.3210	34.8440
 1.3220	34.7260
 1.3230	34.6050
 1.3240	34.4820
 1.3250	34.3580
 1.3260	34.2310
 1.3270	34.1000
 1.3280	33.9690
 1.3290	33.8360
 1.3300	33.7020
 1.3310	33.5670
 1.3320	33.4310
 1.3330	33.2950
 1.3340	33.1580
 1.3350	33.0210
 1.3360	32.8840
 1.3370	32.7440
 1.3380	32.6060
 1.3390	32.4700
 1.3400	32.3350
 1.3410	32.2040
 1.3420	32.0740
 1.3430	31.9450
 1.3440	31.8180
 1.3450	31.6920
 1.3460	31.5660
 1.3470	31.4430
 1.3480	31.3200
 1.3490	31.2000
 1.3500	31.0820
 1.3510	30.9650
 1.3520	30.8490
 1.3530	30.7340
 1.3540	30.6180
 1.3550	30.5020
 1.3560	30.3860
 1.3570	30.2680
 1.3580	30.1500
 1.3590	30.0280
 1.3600	29.9000
 1.3610	29.7680
 1.3620	29.6300
 1.3630	29.4880
 1.3640	29.3400
 1.3650	29.1850
 1.3660	29.0240
 1.3670	28.8510
 1.3680	28.6660
 1.3690	28.4720
 1.3700	28.2590
 1.3710	28.0340
 1.3720	27.7950
 1.3730	27.5370
 1.3740	27.2650
 1.3750	26.9740
 1.3760	26.6600
 1.3770	26.3260
 1.3780	25.9660
 1.3790	25.5850
 1.3800	25.1850
 1.3810	24.7570
 1.3820	24.3130
 1.3830	23.8500
 1.3840	23.3690
 1.3850	22.8670
 1.3860	22.3560
 1.3870	21.8220
 1.3880	21.2910
 1.3890	20.7500
 1.3900	20.2040
 1.3910	19.6630
 1.3920	19.1210
 1.3930	18.5790
 1.3940	18.0470
 1.3950	17.5170
 1.3960	17.0010
 1.3970	16.5010
 1.3980	16.0150
 1.3990	15.5510
 1.4000	15.1060
 1.4010	14.6760
 1.4020	14.2690
 1.4030	13.8800
 1.4040	13.5120
 1.4050	13.1660
 1.4060	12.8390
 1.4070	12.5350
 1.4080	12.2500
 1.4090	11.9800
 1.4100	11.7310
 1.4110	11.4960
 1.4120	11.2790
 1.4130	11.0790
 1.4140	10.8910
 1.4150	10.7180
 1.4160	10.5570
 1.4170	10.4080
 1.4180	10.2720
 1.4190	10.1430
 1.4200	10.0240
 1.4210	 9.9130
 1.4220	 9.8100
 1.4230	 9.7150
 1.4240	 9.6270
 1.4250	 9.5450
 1.4260	 9.4690
 1.4270	 9.3980
 1.4280	 9.3330
 1.4290	 9.2720
 1.4300	 9.2170
 1.4310	 9.1660
 1.4320	 9.1220
 1.4330	 9.0790
 1.4340	 9.0400
 1.4350	 9.0040
 1.4360	 8.9720
 1.4370	 8.9430
 1.4380	 8.9180
 1.4390	 8.8970
 1.4400	 8.8790
 1.4410	 8.8620
 1.4420	 8.8480
 1.4430	 8.8360
 1.4440	 8.8260
 1.4450	 8.8170
 1.4460	 8.8110
 1.4470	 8.8060
 1.4480	 8.8040
 1.4490	 8.8040
 1.4500	 8.8050
 1.4510	 8.8080
 1.4520	 8.8130
 1.4530	 8.8180
 1.4540	 8.8250
 1.4550	 8.8350
 1.4560	 8.8460
 1.4570	 8.8610
 1.4580	 8.8790
 1.4590	 8.9000
 1.4600	 8.9240
 1.4610	 8.9490
 1.4620	 8.9770
 1.4630	 9.0110
 1.4640	 9.0480
 1.4650	 9.0890
 1.4660	 9.1350
 1.4670	 9.1830
 1.4680	 9.2350
 1.4690	 9.2920
 1.4700	 9.3500
 1.4710	 9.4110
 1.4720	 9.4760
 1.4730	 9.5430
 1.4740	 9.6150
 1.4750	 9.6880
 1.4760	 9.7640
 1.4770	 9.8440
 1.4780	 9.9240
 1.4790	10.0070
