Name: Umbellularia californica 2
Type: vegetation
Class: Shrub
Genus: Umbellularia
Species: californica
Sample No.: VH106
Owner: UCSB
Wavelength Range: TIR
Origin: 34.5074; -119.7632; WGS84
Collection Date: 6/3/2013
Description: Samples were collected as part of the HyspIRI Airborne Campaign. 48 individual plants were sampled in three times in 2013 - spring  summer  and fall. The name of the sample includes a 1  2  or 3 which references a different individual of the species. Samples were taken to JPL and processed within 48 hours of collection. The same leaves were processed in the Nicolet and then measured using the ASD.
Measurement: Hemispherical reflectance
First Column: X
Second Column: Y
X Units: Wavelength (micrometers)
Y Units: Reflectance (percentage)
First X Value: 2.501
Last X Value: 15.387
Number of X Values: 1737
Additional Information: vegetation.shrub.umbellularia.californica.tir.vh106.ucsb.nicolet.ancillary.txt

 2.5010	 2.4140
 2.5030	 2.4080
 2.5040	 2.4290
 2.5050	 2.4210
 2.5060	 2.4580
 2.5070	 2.4370
 2.5090	 2.4580
 2.5100	 2.4460
 2.5110	 2.4140
 2.5120	 2.4230
 2.5140	 2.4310
 2.5150	 2.3700
 2.5160	 2.3650
 2.5170	 2.3710
 2.5180	 2.4120
 2.5200	 2.4180
 2.5210	 2.4250
 2.5220	 2.4180
 2.5230	 2.4500
 2.5250	 2.4230
 2.5260	 2.4240
 2.5270	 2.3990
 2.5280	 2.4170
 2.5290	 2.4190
 2.5310	 2.4610
 2.5320	 2.4240
 2.5330	 2.4230
 2.5340	 2.4400
 2.5360	 2.4500
 2.5370	 2.4040
 2.5380	 2.4210
 2.5390	 2.4320
 2.5410	 2.4470
 2.5420	 2.4200
 2.5430	 2.4010
 2.5440	 2.4140
 2.5460	 2.5110
 2.5470	 2.5150
 2.5480	 2.4480
 2.5490	 2.4110
 2.5510	 2.4420
 2.5520	 2.4170
 2.5530	 2.4330
 2.5540	 2.4390
 2.5560	 2.4770
 2.5570	 2.4820
 2.5580	 2.5130
 2.5590	 2.4680
 2.5610	 2.4660
 2.5620	 2.4500
 2.5630	 2.4370
 2.5640	 2.4300
 2.5660	 2.5050
 2.5670	 2.5150
 2.5680	 2.5020
 2.5700	 2.5130
 2.5710	 2.5790
 2.5720	 2.5090
 2.5730	 2.4560
 2.5750	 2.4760
 2.5760	 2.5340
 2.5770	 2.4400
 2.5790	 2.4360
 2.5800	 2.4880
 2.5810	 2.5290
 2.5820	 2.5240
 2.5840	 2.5370
 2.5850	 2.5000
 2.5860	 2.5340
 2.5880	 2.4960
 2.5890	 2.4960
 2.5900	 2.5200
 2.5910	 2.5330
 2.5930	 2.4690
 2.5940	 2.4740
 2.5950	 2.4810
 2.5970	 2.4900
 2.5980	 2.4700
 2.5990	 2.5240
 2.6000	 2.5120
 2.6020	 2.4810
 2.6030	 2.4480
 2.6040	 2.4750
 2.6060	 2.4560
 2.6070	 2.4700
 2.6080	 2.4740
 2.6100	 2.4760
 2.6110	 2.4280
 2.6120	 2.4140
 2.6140	 2.3960
 2.6150	 2.4430
 2.6160	 2.4350
 2.6180	 2.3950
 2.6190	 2.3530
 2.6200	 2.3600
 2.6220	 2.3990
 2.6230	 2.4360
 2.6240	 2.3620
 2.6260	 2.3680
 2.6270	 2.3620
 2.6280	 2.3610
 2.6300	 2.3160
 2.6310	 2.3050
 2.6320	 2.3270
 2.6340	 2.3830
 2.6350	 2.3610
 2.6360	 2.3000
 2.6380	 2.2950
 2.6390	 2.3780
 2.6400	 2.3240
 2.6420	 2.2630
 2.6430	 2.2290
 2.6440	 2.2430
 2.6460	 2.2330
 2.6470	 2.2000
 2.6480	 2.2180
 2.6500	 2.2870
 2.6510	 2.2300
 2.6520	 2.2130
 2.6540	 2.1830
 2.6550	 2.1500
 2.6560	 2.1350
 2.6580	 2.1710
 2.6590	 2.1710
 2.6610	 2.2160
 2.6620	 2.1810
 2.6630	 2.1380
 2.6650	 2.1000
 2.6660	 2.1110
 2.6670	 2.1350
 2.6690	 2.2040
 2.6700	 2.1570
 2.6720	 2.0940
 2.6730	 2.0520
 2.6740	 2.0450
 2.6760	 2.0060
 2.6770	 2.0080
 2.6780	 2.0020
 2.6800	 2.0160
 2.6810	 1.9930
 2.6830	 2.0230
 2.6840	 2.0300
 2.6850	 2.0140
 2.6870	 1.9890
 2.6880	 1.9890
 2.6900	 1.9550
 2.6910	 1.9920
 2.6920	 1.9330
 2.6940	 1.9350
 2.6950	 1.9810
 2.6970	 2.0050
 2.6980	 1.9360
 2.6990	 1.9100
 2.7010	 1.8810
 2.7020	 1.9050
 2.7040	 1.8870
 2.7050	 1.8990
 2.7060	 1.9270
 2.7080	 1.9740
 2.7090	 1.9440
 2.7110	 1.9090
 2.7120	 1.8550
 2.7130	 1.8600
 2.7150	 1.8500
 2.7160	 1.8710
 2.7180	 1.8460
 2.7190	 1.8460
 2.7210	 1.8090
 2.7220	 1.7970
 2.7230	 1.7680
 2.7250	 1.7920
 2.7260	 1.7660
 2.7280	 1.7790
 2.7290	 1.8320
 2.7310	 1.8780
 2.7320	 1.8310
 2.7330	 1.8280
 2.7350	 1.7970
 2.7360	 1.8150
 2.7380	 1.7920
 2.7390	 1.7710
 2.7410	 1.7190
 2.7420	 1.7280
 2.7440	 1.7340
 2.7450	 1.7370
 2.7470	 1.7250
 2.7480	 1.7530
 2.7490	 1.7340
 2.7510	 1.7360
 2.7520	 1.7250
 2.7540	 1.7430
 2.7550	 1.6680
 2.7570	 1.6640
 2.7580	 1.6940
 2.7600	 1.7440
 2.7610	 1.7240
 2.7630	 1.7110
 2.7640	 1.6620
 2.7660	 1.6930
 2.7670	 1.6820
 2.7680	 1.7030
 2.7700	 1.7210
 2.7710	 1.7210
 2.7730	 1.6760
 2.7740	 1.6590
 2.7760	 1.6300
 2.7770	 1.6890
 2.7790	 1.6630
 2.7800	 1.6580
 2.7820	 1.6480
 2.7830	 1.6400
 2.7850	 1.6020
 2.7860	 1.6430
 2.7880	 1.6760
 2.7890	 1.6580
 2.7910	 1.5860
 2.7920	 1.6120
 2.7940	 1.5600
 2.7950	 1.5580
 2.7970	 1.5600
 2.7980	 1.5650
 2.8000	 1.5860
 2.8010	 1.6440
 2.8030	 1.6200
 2.8040	 1.6390
 2.8060	 1.5880
 2.8070	 1.5800
 2.8090	 1.5730
 2.8110	 1.5550
 2.8120	 1.5330
 2.8140	 1.5690
 2.8150	 1.5690
 2.8170	 1.5780
 2.8180	 1.6070
 2.8200	 1.6580
 2.8210	 1.6030
 2.8230	 1.5630
 2.8240	 1.5280
 2.8260	 1.5220
 2.8270	 1.5290
 2.8290	 1.5780
 2.8300	 1.6210
 2.8320	 1.6330
 2.8340	 1.5560
 2.8350	 1.5300
 2.8370	 1.5170
 2.8380	 1.5490
 2.8400	 1.4910
 2.8410	 1.4870
 2.8430	 1.5130
 2.8440	 1.5500
 2.8460	 1.5480
 2.8480	 1.5430
 2.8490	 1.5120
 2.8510	 1.5720
 2.8520	 1.5930
 2.8540	 1.6050
 2.8550	 1.5670
 2.8570	 1.5500
 2.8590	 1.4910
 2.8600	 1.4960
 2.8620	 1.4770
 2.8630	 1.5070
 2.8650	 1.5290
 2.8660	 1.5530
 2.8680	 1.5110
 2.8700	 1.4950
 2.8710	 1.4680
 2.8730	 1.5290
 2.8740	 1.5970
 2.8760	 1.5960
 2.8780	 1.5120
 2.8790	 1.5330
 2.8810	 1.5310
 2.8820	 1.5330
 2.8840	 1.5280
 2.8860	 1.5560
 2.8870	 1.5410
 2.8890	 1.5350
 2.8900	 1.5530
 2.8920	 1.5990
 2.8940	 1.5280
 2.8950	 1.5090
 2.8970	 1.4980
 2.8980	 1.5090
 2.9000	 1.5310
 2.9020	 1.5760
 2.9030	 1.5460
 2.9050	 1.5110
 2.9070	 1.4670
 2.9080	 1.5370
 2.9100	 1.5480
 2.9120	 1.4980
 2.9130	 1.4640
 2.9150	 1.5150
 2.9160	 1.5600
 2.9180	 1.5850
 2.9200	 1.4910
 2.9210	 1.4890
 2.9230	 1.5520
 2.9250	 1.6200
 2.9260	 1.5810
 2.9280	 1.5490
 2.9300	 1.5430
 2.9310	 1.5780
 2.9330	 1.5370
 2.9350	 1.5300
 2.9360	 1.5200
 2.9380	 1.5530
 2.9400	 1.5450
 2.9410	 1.5610
 2.9430	 1.5690
 2.9450	 1.5900
 2.9460	 1.5760
 2.9480	 1.6030
 2.9500	 1.5710
 2.9510	 1.5990
 2.9530	 1.5970
 2.9550	 1.5930
 2.9560	 1.5840
 2.9580	 1.6070
 2.9600	 1.6460
 2.9610	 1.6710
 2.9630	 1.6310
 2.9650	 1.6320
 2.9660	 1.6080
 2.9680	 1.6180
 2.9700	 1.5940
 2.9720	 1.6170
 2.9730	 1.6010
 2.9750	 1.6000
 2.9770	 1.5690
 2.9780	 1.6190
 2.9800	 1.6210
 2.9820	 1.6180
 2.9840	 1.6270
 2.9850	 1.6730
 2.9870	 1.6300
 2.9890	 1.6040
 2.9900	 1.5740
 2.9920	 1.6200
 2.9940	 1.6080
 2.9960	 1.6520
 2.9970	 1.6530
 2.9990	 1.6760
 3.0010	 1.6950
 3.0030	 1.7160
 3.0040	 1.7030
 3.0060	 1.7110
 3.0080	 1.6790
 3.0100	 1.7200
 3.0110	 1.7490
 3.0130	 1.7630
 3.0150	 1.6860
 3.0170	 1.6250
 3.0180	 1.6230
 3.0200	 1.6850
 3.0220	 1.7300
 3.0240	 1.7790
 3.0250	 1.7380
 3.0270	 1.7010
 3.0290	 1.6880
 3.0310	 1.7600
 3.0320	 1.7700
 3.0340	 1.7570
 3.0360	 1.6970
 3.0380	 1.7190
 3.0400	 1.7540
 3.0410	 1.7390
 3.0430	 1.7010
 3.0450	 1.7460
 3.0470	 1.7390
 3.0480	 1.7200
 3.0500	 1.6890
 3.0520	 1.7310
 3.0540	 1.7480
 3.0560	 1.7910
 3.0570	 1.8230
 3.0590	 1.8390
 3.0610	 1.7990
 3.0630	 1.8250
 3.0650	 1.7500
 3.0660	 1.7330
 3.0680	 1.7730
 3.0700	 1.8450
 3.0720	 1.8330
 3.0740	 1.8190
 3.0760	 1.7960
 3.0770	 1.8510
 3.0790	 1.8780
 3.0810	 1.8510
 3.0830	 1.7570
 3.0850	 1.8110
 3.0870	 1.8430
 3.0880	 1.8800
 3.0900	 1.8980
 3.0920	 1.8830
 3.0940	 1.7980
 3.0960	 1.7780
 3.0980	 1.7760
 3.0990	 1.8130
 3.1010	 1.8180
 3.1030	 1.8300
 3.1050	 1.8580
 3.1070	 1.9390
 3.1090	 1.8910
 3.1110	 1.8660
 3.1120	 1.8710
 3.1140	 1.9520
 3.1160	 1.9640
 3.1180	 1.9770
 3.1200	 1.9180
 3.1220	 1.9050
 3.1240	 1.9310
 3.1260	 1.9490
 3.1270	 1.9240
 3.1290	 1.9140
 3.1310	 1.9070
 3.1330	 1.9320
 3.1350	 1.9160
 3.1370	 1.9590
 3.1390	 1.9780
 3.1410	 2.0230
 3.1430	 1.9900
 3.1450	 2.0000
 3.1460	 1.9600
 3.1480	 1.9590
 3.1500	 1.9740
 3.1520	 1.9930
 3.1540	 1.9410
 3.1560	 1.9860
 3.1580	 2.0020
 3.1600	 2.0160
 3.1620	 2.0380
 3.1640	 2.0680
 3.1660	 2.0050
 3.1680	 2.0050
 3.1700	 2.0040
 3.1710	 2.0490
 3.1730	 2.0350
 3.1750	 2.0150
 3.1770	 2.0350
 3.1790	 2.0700
 3.1810	 2.0460
 3.1830	 2.0740
 3.1850	 2.0750
 3.1870	 2.1120
 3.1890	 2.1100
 3.1910	 2.1190
 3.1930	 2.0720
 3.1950	 2.0830
 3.1970	 2.0720
 3.1990	 2.1000
 3.2010	 2.1490
 3.2030	 2.1420
 3.2050	 2.0760
 3.2070	 2.0890
 3.2090	 2.0540
 3.2110	 2.0730
 3.2130	 2.1140
 3.2150	 2.1230
 3.2170	 2.0880
 3.2190	 2.1280
 3.2210	 2.0990
 3.2230	 2.1600
 3.2250	 2.1680
 3.2270	 2.1620
 3.2290	 2.1340
 3.2310	 2.1330
 3.2330	 2.1000
 3.2350	 2.1420
 3.2370	 2.1330
 3.2390	 2.1750
 3.2410	 2.1820
 3.2430	 2.1940
 3.2450	 2.1920
 3.2470	 2.2170
 3.2490	 2.1740
 3.2510	 2.1480
 3.2530	 2.1220
 3.2550	 2.1690
 3.2570	 2.1840
 3.2590	 2.1450
 3.2610	 2.1150
 3.2630	 2.1990
 3.2650	 2.2380
 3.2670	 2.2180
 3.2690	 2.1460
 3.2720	 2.1250
 3.2740	 2.1470
 3.2760	 2.1940
 3.2780	 2.1820
 3.2800	 2.2540
 3.2820	 2.2550
 3.2840	 2.2220
 3.2860	 2.2000
 3.2880	 2.2000
 3.2900	 2.2260
 3.2920	 2.2570
 3.2940	 2.2030
 3.2960	 2.2030
 3.2990	 2.1990
 3.3010	 2.2020
 3.3030	 2.1910
 3.3050	 2.1950
 3.3070	 2.1510
 3.3090	 2.1700
 3.3110	 2.2160
 3.3130	 2.2340
 3.3150	 2.1790
 3.3180	 2.1700
 3.3200	 2.1500
 3.3220	 2.1800
 3.3240	 2.1960
 3.3260	 2.1570
 3.3280	 2.1440
 3.3300	 2.1770
 3.3330	 2.1540
 3.3350	 2.1790
 3.3370	 2.1230
 3.3390	 2.1410
 3.3410	 2.1520
 3.3430	 2.1390
 3.3450	 2.0870
 3.3480	 2.0880
 3.3500	 2.0880
 3.3520	 2.1160
 3.3540	 2.1120
 3.3560	 2.1010
 3.3580	 1.9970
 3.3610	 1.9120
 3.3630	 1.8850
 3.3650	 1.9540
 3.3670	 1.9830
 3.3690	 1.9780
 3.3720	 1.9180
 3.3740	 1.8770
 3.3760	 1.8560
 3.3780	 1.8860
 3.3800	 1.8890
 3.3830	 1.9200
 3.3850	 1.9030
 3.3870	 1.9110
 3.3890	 1.9090
 3.3910	 1.8860
 3.3940	 1.8310
 3.3960	 1.8260
 3.3980	 1.7680
 3.4000	 1.7390
 3.4020	 1.7860
 3.4050	 1.8230
 3.4070	 1.7890
 3.4090	 1.8240
 3.4110	 1.9310
 3.4140	 2.1340
 3.4160	 2.2750
 3.4180	 2.4860
 3.4200	 2.7760
 3.4230	 3.1530
 3.4250	 3.5950
 3.4270	 4.1090
 3.4290	 4.4530
 3.4320	 4.4520
 3.4340	 4.0720
 3.4360	 3.7160
 3.4390	 3.4610
 3.4410	 3.3140
 3.4430	 3.2160
 3.4450	 3.1620
 3.4480	 3.0110
 3.4500	 3.0040
 3.4520	 3.0200
 3.4550	 3.0530
 3.4570	 3.0170
 3.4590	 3.0010
 3.4620	 2.9810
 3.4640	 2.9990
 3.4660	 2.9820
 3.4680	 2.9180
 3.4710	 2.8470
 3.4730	 2.8140
 3.4750	 2.7290
 3.4780	 2.7110
 3.4800	 2.6360
 3.4820	 2.5830
 3.4850	 2.5420
 3.4870	 2.5350
 3.4890	 2.4870
 3.4920	 2.4620
 3.4940	 2.3910
 3.4970	 2.3610
 3.4990	 2.4060
 3.5010	 2.5450
 3.5040	 2.7210
 3.5060	 3.1500
 3.5080	 3.8330
 3.5110	 4.4870
 3.5130	 4.6010
 3.5160	 4.2900
 3.5180	 3.8860
 3.5200	 3.6230
 3.5230	 3.4870
 3.5250	 3.4150
 3.5270	 3.3380
 3.5300	 3.3120
 3.5320	 3.2870
 3.5350	 3.2720
 3.5370	 3.1900
 3.5400	 3.2570
 3.5420	 3.2850
 3.5440	 3.2290
 3.5470	 3.1370
 3.5490	 3.1700
 3.5520	 3.1690
 3.5540	 3.1390
 3.5570	 3.0760
 3.5590	 3.0930
 3.5610	 3.0980
 3.5640	 3.1180
 3.5660	 3.1060
 3.5690	 3.1040
 3.5710	 3.0710
 3.5740	 3.0660
 3.5760	 3.0270
 3.5790	 3.0800
 3.5810	 3.1020
 3.5840	 3.1120
 3.5860	 3.0970
 3.5890	 3.0880
 3.5910	 3.0930
 3.5930	 3.1010
 3.5960	 3.0660
 3.5980	 3.0720
 3.6010	 3.0480
 3.6030	 3.0060
 3.6060	 2.9900
 3.6080	 3.0660
 3.6110	 3.0660
 3.6140	 3.0640
 3.6160	 3.0040
 3.6190	 3.0170
 3.6210	 3.0550
 3.6240	 3.0560
 3.6260	 3.0180
 3.6290	 3.0490
 3.6310	 3.0310
 3.6340	 3.0290
 3.6360	 3.0290
 3.6390	 3.0410
 3.6410	 3.0230
 3.6440	 3.0740
 3.6470	 3.1030
 3.6490	 3.1180
 3.6520	 3.0860
 3.6540	 3.0440
 3.6570	 3.0150
 3.6590	 3.0770
 3.6620	 3.0910
 3.6650	 3.1300
 3.6670	 3.1140
 3.6700	 3.0640
 3.6720	 3.0540
 3.6750	 3.0360
 3.6780	 2.9720
 3.6800	 3.0060
 3.6830	 3.0090
 3.6850	 3.0810
 3.6880	 3.1000
 3.6910	 3.0680
 3.6930	 3.0850
 3.6960	 3.1340
 3.6990	 3.1190
 3.7010	 3.1590
 3.7040	 3.1130
 3.7060	 3.0710
 3.7090	 3.0860
 3.7120	 3.1220
 3.7140	 3.1410
 3.7170	 3.1590
 3.7200	 3.1240
 3.7220	 3.1520
 3.7250	 3.1280
 3.7280	 3.1410
 3.7300	 3.1750
 3.7330	 3.2230
 3.7360	 3.1740
 3.7390	 3.1650
 3.7410	 3.1730
 3.7440	 3.2000
 3.7470	 3.1750
 3.7490	 3.1640
 3.7520	 3.1560
 3.7550	 3.1830
 3.7580	 3.1790
 3.7600	 3.1960
 3.7630	 3.1910
 3.7660	 3.2450
 3.7680	 3.2140
 3.7710	 3.1520
 3.7740	 3.1790
 3.7770	 3.2350
 3.7790	 3.2490
 3.7820	 3.2340
 3.7850	 3.2150
 3.7880	 3.2770
 3.7900	 3.2750
 3.7930	 3.2420
 3.7960	 3.2460
 3.7990	 3.2790
 3.8020	 3.2560
 3.8040	 3.2730
 3.8070	 3.3090
 3.8100	 3.3120
 3.8130	 3.2810
 3.8160	 3.2760
 3.8180	 3.2800
 3.8210	 3.2910
 3.8240	 3.2690
 3.8270	 3.2680
 3.8300	 3.2880
 3.8330	 3.3190
 3.8350	 3.2950
 3.8380	 3.2960
 3.8410	 3.2550
 3.8440	 3.2730
 3.8470	 3.3450
 3.8500	 3.3760
 3.8520	 3.3280
 3.8550	 3.3100
 3.8580	 3.3120
 3.8610	 3.3580
 3.8640	 3.3640
 3.8670	 3.3820
 3.8700	 3.3760
 3.8730	 3.3680
 3.8750	 3.3470
 3.8780	 3.3380
 3.8810	 3.3070
 3.8840	 3.3610
 3.8870	 3.3390
 3.8900	 3.3050
 3.8930	 3.3220
 3.8960	 3.3590
 3.8990	 3.3810
 3.9020	 3.4470
 3.9050	 3.4400
 3.9080	 3.3980
 3.9110	 3.4100
 3.9140	 3.4170
 3.9160	 3.4050
 3.9190	 3.4420
 3.9220	 3.4340
 3.9250	 3.4200
 3.9280	 3.3920
 3.9310	 3.3630
 3.9340	 3.3430
 3.9370	 3.3860
 3.9400	 3.3900
 3.9430	 3.3970
 3.9460	 3.3630
 3.9490	 3.3810
 3.9520	 3.3800
 3.9550	 3.3850
 3.9580	 3.3560
 3.9610	 3.3460
 3.9640	 3.3820
 3.9670	 3.4270
 3.9700	 3.4370
 3.9730	 3.4440
 3.9770	 3.4090
 3.9800	 3.3830
 3.9830	 3.3490
 3.9860	 3.3920
 3.9890	 3.4520
 3.9920	 3.4940
 3.9950	 3.4900
 3.9980	 3.4850
 4.0010	 3.4190
 4.0040	 3.3830
 4.0070	 3.3930
 4.0100	 3.4360
 4.0130	 3.4240
 4.0170	 3.4480
 4.0200	 3.4470
 4.0230	 3.4110
 4.0260	 3.3790
 4.0290	 3.3970
 4.0320	 3.4030
 4.0350	 3.4290
 4.0380	 3.4280
 4.0420	 3.4540
 4.0450	 3.4710
 4.0480	 3.4490
 4.0510	 3.4060
 4.0540	 3.4070
 4.0570	 3.4120
 4.0610	 3.4120
 4.0640	 3.4030
 4.0670	 3.4340
 4.0700	 3.4230
 4.0730	 3.4200
 4.0770	 3.3740
 4.0800	 3.3680
 4.0830	 3.4030
 4.0860	 3.4600
 4.0890	 3.4740
 4.0930	 3.4730
 4.0960	 3.4300
 4.0990	 3.4140
 4.1020	 3.4270
 4.1060	 3.4270
 4.1090	 3.3910
 4.1120	 3.4260
 4.1150	 3.4740
 4.1190	 3.4620
 4.1220	 3.3740
 4.1250	 3.3570
 4.1280	 3.3680
 4.1320	 3.3880
 4.1350	 3.3930
 4.1380	 3.4230
 4.1420	 3.4260
 4.1450	 3.3680
 4.1480	 3.3240
 4.1520	 3.3750
 4.1550	 3.4160
 4.1580	 3.4260
 4.1620	 3.3660
 4.1650	 3.3120
 4.1680	 3.3220
 4.1720	 3.3330
 4.1750	 3.3420
 4.1780	 3.3650
 4.1820	 3.3730
 4.1850	 3.3990
 4.1890	 3.3500
 4.1920	 3.2930
 4.1950	 3.2540
 4.1990	 3.1900
 4.2020	 3.0440
 4.2060	 2.8670
 4.2090	 2.6340
 4.2120	 2.3800
 4.2160	 2.1380
 4.2190	 1.9910
 4.2230	 1.8860
 4.2260	 1.7930
 4.2300	 1.7060
 4.2330	 1.6100
 4.2360	 1.5550
 4.2400	 1.6180
 4.2430	 1.6620
 4.2470	 1.7260
 4.2500	 1.9360
 4.2540	 2.2780
 4.2570	 2.5070
 4.2610	 2.3550
 4.2640	 2.0410
 4.2680	 1.8950
 4.2710	 1.8990
 4.2750	 1.9510
 4.2780	 1.9400
 4.2820	 1.9990
 4.2850	 2.0150
 4.2890	 1.9930
 4.2930	 2.0070
 4.2960	 2.0810
 4.3000	 2.1550
 4.3030	 2.2140
 4.3070	 2.2620
 4.3100	 2.3340
 4.3140	 2.4220
 4.3180	 2.5250
 4.3210	 2.5920
 4.3250	 2.6470
 4.3280	 2.7430
 4.3320	 2.8450
 4.3360	 2.9100
 4.3390	 2.9960
 4.3430	 3.0490
 4.3470	 3.0770
 4.3500	 3.0920
 4.3540	 3.1170
 4.3570	 3.1580
 4.3610	 3.1930
 4.3650	 3.1430
 4.3680	 3.1430
 4.3720	 3.1340
 4.3760	 3.1590
 4.3800	 3.2040
 4.3830	 3.1810
 4.3870	 3.1410
 4.3910	 3.1490
 4.3940	 3.1430
 4.3980	 3.1030
 4.4020	 3.1060
 4.4060	 3.1260
 4.4090	 3.1360
 4.4130	 3.1300
 4.4170	 3.1050
 4.4210	 3.1240
 4.4240	 3.1140
 4.4280	 3.1480
 4.4320	 3.2020
 4.4360	 3.1970
 4.4400	 3.1590
 4.4430	 3.1710
 4.4470	 3.1650
 4.4510	 3.1370
 4.4550	 3.1300
 4.4590	 3.1530
 4.4620	 3.1130
 4.4660	 3.0970
 4.4700	 3.1380
 4.4740	 3.1650
 4.4780	 3.1680
 4.4820	 3.1880
 4.4860	 3.2000
 4.4900	 3.1840
 4.4930	 3.1430
 4.4970	 3.1570
 4.5010	 3.2100
 4.5050	 3.2260
 4.5090	 3.2050
 4.5130	 3.1740
 4.5170	 3.1580
 4.5210	 3.1340
 4.5250	 3.1360
 4.5290	 3.1200
 4.5330	 3.1080
 4.5370	 3.1220
 4.5410	 3.1720
 4.5450	 3.1790
 4.5490	 3.1330
 4.5530	 3.1550
 4.5570	 3.1510
 4.5610	 3.1070
 4.5650	 3.1100
 4.5690	 3.1380
 4.5730	 3.0970
 4.5770	 3.0910
 4.5810	 3.1140
 4.5850	 3.1140
 4.5890	 3.0740
 4.5930	 3.0700
 4.5970	 3.0910
 4.6010	 3.1210
 4.6050	 3.1710
 4.6090	 3.1440
 4.6130	 3.1170
 4.6170	 3.1350
 4.6220	 3.0960
 4.6260	 3.0720
 4.6300	 3.1100
 4.6340	 3.0930
 4.6380	 3.0970
 4.6420	 3.1380
 4.6460	 3.1890
 4.6510	 3.1300
 4.6550	 3.0670
 4.6590	 3.1070
 4.6630	 3.1640
 4.6670	 3.1470
 4.6720	 3.1310
 4.6760	 3.1270
 4.6800	 3.0900
 4.6840	 3.1100
 4.6880	 3.1470
 4.6930	 3.1590
 4.6970	 3.1330
 4.7010	 3.0810
 4.7050	 3.0740
 4.7100	 3.0720
 4.7140	 3.1220
 4.7180	 3.1020
 4.7230	 3.0790
 4.7270	 3.0840
 4.7310	 3.1030
 4.7360	 3.1380
 4.7400	 3.1800
 4.7440	 3.1620
 4.7490	 3.1230
 4.7530	 3.0810
 4.7570	 3.0020
 4.7620	 3.0160
 4.7660	 3.0790
 4.7700	 3.1300
 4.7750	 3.1760
 4.7790	 3.1210
 4.7840	 3.0750
 4.7880	 3.0690
 4.7920	 3.0910
 4.7970	 3.0900
 4.8010	 3.0720
 4.8060	 3.0270
 4.8100	 3.0290
 4.8150	 3.0710
 4.8190	 3.0870
 4.8240	 3.0610
 4.8280	 3.0500
 4.8330	 3.0480
 4.8370	 3.0690
 4.8420	 3.0510
 4.8460	 3.0480
 4.8510	 3.0530
 4.8550	 3.0550
 4.8600	 3.0610
 4.8640	 3.0880
 4.8690	 3.1020
 4.8730	 3.0660
 4.8780	 3.0560
 4.8830	 3.0680
 4.8870	 3.0320
 4.8920	 2.9780
 4.8960	 2.9870
 4.9010	 3.0540
 4.9060	 3.0610
 4.9100	 3.0930
 4.9150	 3.0770
 4.9200	 3.0830
 4.9240	 3.0990
 4.9290	 3.0950
 4.9340	 3.0730
 4.9380	 3.0470
 4.9430	 3.0600
 4.9480	 3.0600
 4.9530	 3.0680
 4.9570	 3.0730
 4.9620	 3.0630
 4.9670	 3.0500
 4.9720	 2.9810
 4.9760	 2.9850
 4.9810	 2.9820
 4.9860	 2.9740
 4.9910	 2.9650
 4.9960	 3.0040
 5.0000	 3.0270
 5.0050	 3.0400
 5.0100	 3.0500
 5.0150	 3.0810
 5.0200	 3.0470
 5.0250	 3.0490
 5.0290	 3.0370
 5.0340	 3.0350
 5.0390	 3.0340
 5.0440	 3.0160
 5.0490	 3.0180
 5.0540	 3.0270
 5.0590	 3.0200
 5.0640	 3.0580
 5.0690	 3.0490
 5.0740	 3.1030
 5.0790	 3.0610
 5.0840	 3.0280
 5.0890	 3.0050
 5.0940	 3.0300
 5.0990	 3.0500
 5.1040	 3.0380
 5.1090	 3.0400
 5.1140	 3.0450
 5.1190	 2.9900
 5.1240	 2.9880
 5.1290	 3.0180
 5.1340	 3.0410
 5.1390	 3.0840
 5.1440	 3.0770
 5.1490	 3.0230
 5.1540	 3.0440
 5.1600	 3.0420
 5.1650	 3.0660
 5.1700	 3.0920
 5.1750	 3.1130
 5.1800	 3.0970
 5.1850	 3.0700
 5.1910	 3.0490
 5.1960	 3.0390
 5.2010	 3.0210
 5.2060	 3.0540
 5.2110	 3.0920
 5.2170	 3.0940
 5.2220	 3.0750
 5.2270	 3.1100
 5.2320	 3.1000
 5.2380	 3.0650
 5.2430	 3.0230
 5.2480	 3.0410
 5.2540	 3.0590
 5.2590	 3.0640
 5.2640	 3.0510
 5.2700	 3.0890
 5.2750	 3.1040
 5.2800	 3.0920
 5.2860	 3.0630
 5.2910	 3.0930
 5.2970	 3.0690
 5.3020	 3.0600
 5.3070	 3.0740
 5.3130	 3.0490
 5.3180	 3.0210
 5.3240	 3.0630
 5.3290	 3.0630
 5.3350	 3.0900
 5.3400	 3.0570
 5.3460	 3.0270
 5.3510	 3.0050
 5.3570	 3.0200
 5.3620	 3.0300
 5.3680	 3.0230
 5.3730	 3.0050
 5.3790	 3.0390
 5.3850	 3.0340
 5.3900	 3.0120
 5.3960	 2.9880
 5.4010	 2.9870
 5.4070	 2.9920
 5.4130	 3.0090
 5.4180	 3.0100
 5.4240	 3.0200
 5.4300	 3.0050
