Name: Quercus agrifolia
Type: vegetation
Class: Tree
Genus: Quercus
Species: agrifolia
Sample No.: JPL181
Owner: JPL
Wavelength Range: VSWIR
Origin: 34.12859; -118.11386; WGS84
Collection Date: 10/3/2016
Description: Samples were collected at the Huntington Garden in San Marino California as part of a JPL Subcontract studying HyTES imagery. Samples were taken to JPL and processed within 48 hours of collection. The same leaves were processed in the Nicolet and then measured using the ASD.
Measurement: Bidirectional reflectance
First Column: X
Second Column: Y
X Units: Wavelength (micrometer)
Y Units: Reflectance (percentage)
First X Value: 0.35
Last X Value: 2.5
Number of X Values: 2151
Additional Information: vegetation.tree.quercus.agrifolia.vswir.jpl181.jpl.asd.ancillary.txt

 0.3500	 5.7040
 0.3510	 5.6120
 0.3520	 5.6310
 0.3530	 5.6460
 0.3540	 5.5730
 0.3550	 5.5720
 0.3560	 5.5670
 0.3570	 5.5450
 0.3580	 5.5240
 0.3590	 5.4920
 0.3600	 5.4620
 0.3610	 5.4550
 0.3620	 5.5010
 0.3630	 5.4730
 0.3640	 5.4550
 0.3650	 5.5200
 0.3660	 5.4760
 0.3670	 5.4440
 0.3680	 5.4480
 0.3690	 5.4410
 0.3700	 5.3950
 0.3710	 5.3740
 0.3720	 5.3960
 0.3730	 5.3790
 0.3740	 5.3740
 0.3750	 5.3780
 0.3760	 5.3730
 0.3770	 5.3500
 0.3780	 5.3360
 0.3790	 5.3340
 0.3800	 5.3280
 0.3810	 5.3640
 0.3820	 5.3820
 0.3830	 5.3470
 0.3840	 5.3220
 0.3850	 5.3160
 0.3860	 5.3300
 0.3870	 5.3500
 0.3880	 5.3140
 0.3890	 5.2870
 0.3900	 5.2940
 0.3910	 5.3040
 0.3920	 5.3320
 0.3930	 5.3600
 0.3940	 5.3660
 0.3950	 5.3080
 0.3960	 5.2960
 0.3970	 5.3270
 0.3980	 5.3410
 0.3990	 5.3520
 0.4000	 5.3510
 0.4010	 5.3420
 0.4020	 5.3410
 0.4030	 5.3840
 0.4040	 5.4110
 0.4050	 5.3830
 0.4060	 5.4090
 0.4070	 5.4210
 0.4080	 5.4120
 0.4090	 5.4150
 0.4100	 5.4560
 0.4110	 5.4770
 0.4120	 5.4610
 0.4130	 5.4720
 0.4140	 5.4990
 0.4150	 5.5210
 0.4160	 5.5230
 0.4170	 5.5200
 0.4180	 5.5320
 0.4190	 5.5560
 0.4200	 5.5750
 0.4210	 5.5740
 0.4220	 5.5710
 0.4230	 5.5840
 0.4240	 5.6050
 0.4250	 5.6290
 0.4260	 5.6400
 0.4270	 5.6260
 0.4280	 5.6300
 0.4290	 5.6320
 0.4300	 5.6240
 0.4310	 5.6280
 0.4320	 5.6320
 0.4330	 5.6290
 0.4340	 5.6150
 0.4350	 5.6120
 0.4360	 5.6190
 0.4370	 5.6330
 0.4380	 5.6470
 0.4390	 5.6570
 0.4400	 5.6640
 0.4410	 5.6720
 0.4420	 5.6940
 0.4430	 5.7030
 0.4440	 5.7040
 0.4450	 5.7080
 0.4460	 5.7110
 0.4470	 5.7180
 0.4480	 5.7270
 0.4490	 5.7350
 0.4500	 5.7410
 0.4510	 5.7460
 0.4520	 5.7510
 0.4530	 5.7590
 0.4540	 5.7620
 0.4550	 5.7610
 0.4560	 5.7610
 0.4570	 5.7730
 0.4580	 5.7820
 0.4590	 5.7810
 0.4600	 5.7790
 0.4610	 5.7790
 0.4620	 5.7800
 0.4630	 5.7810
 0.4640	 5.7890
 0.4650	 5.7960
 0.4660	 5.8000
 0.4670	 5.8000
 0.4680	 5.7910
 0.4690	 5.7840
 0.4700	 5.7850
 0.4710	 5.7920
 0.4720	 5.7940
 0.4730	 5.7910
 0.4740	 5.7930
 0.4750	 5.8000
 0.4760	 5.8040
 0.4770	 5.8000
 0.4780	 5.7960
 0.4790	 5.8050
 0.4800	 5.8110
 0.4810	 5.8020
 0.4820	 5.8040
 0.4830	 5.8050
 0.4840	 5.8000
 0.4850	 5.7970
 0.4860	 5.7940
 0.4870	 5.7970
 0.4880	 5.8040
 0.4890	 5.8150
 0.4900	 5.8190
 0.4910	 5.8210
 0.4920	 5.8290
 0.4930	 5.8420
 0.4940	 5.8560
 0.4950	 5.8700
 0.4960	 5.8860
 0.4970	 5.9020
 0.4980	 5.9190
 0.4990	 5.9400
 0.5000	 5.9590
 0.5010	 5.9790
 0.5020	 6.0030
 0.5030	 6.0310
 0.5040	 6.0660
 0.5050	 6.1020
 0.5060	 6.1340
 0.5070	 6.1700
 0.5080	 6.2160
 0.5090	 6.2670
 0.5100	 6.3190
 0.5110	 6.3790
 0.5120	 6.4460
 0.5130	 6.5190
 0.5140	 6.6020
 0.5150	 6.6860
 0.5160	 6.7790
 0.5170	 6.8850
 0.5180	 6.9920
 0.5190	 7.1100
 0.5200	 7.2340
 0.5210	 7.3540
 0.5220	 7.4850
 0.5230	 7.6210
 0.5240	 7.7550
 0.5250	 7.8840
 0.5260	 8.0130
 0.5270	 8.1360
 0.5280	 8.2490
 0.5290	 8.3610
 0.5300	 8.4680
 0.5310	 8.5660
 0.5320	 8.6550
 0.5330	 8.7360
 0.5340	 8.8070
 0.5350	 8.8670
 0.5360	 8.9200
 0.5370	 8.9680
 0.5380	 9.0070
 0.5390	 9.0350
 0.5400	 9.0590
 0.5410	 9.0720
 0.5420	 9.0750
 0.5430	 9.0880
 0.5440	 9.1090
 0.5450	 9.1370
 0.5460	 9.1690
 0.5470	 9.2070
 0.5480	 9.2420
 0.5490	 9.2680
 0.5500	 9.2830
 0.5510	 9.2980
 0.5520	 9.3090
 0.5530	 9.3100
 0.5540	 9.2980
 0.5550	 9.2780
 0.5560	 9.2500
 0.5570	 9.2080
 0.5580	 9.1560
 0.5590	 9.0940
 0.5600	 9.0240
 0.5610	 8.9470
 0.5620	 8.8640
 0.5630	 8.7800
 0.5640	 8.7000
 0.5650	 8.6220
 0.5660	 8.5430
 0.5670	 8.4590
 0.5680	 8.3660
 0.5690	 8.2740
 0.5700	 8.1830
 0.5710	 8.0920
 0.5720	 8.0030
 0.5730	 7.9200
 0.5740	 7.8430
 0.5750	 7.7660
 0.5760	 7.6940
 0.5770	 7.6290
 0.5780	 7.5700
 0.5790	 7.5120
 0.5800	 7.4580
 0.5810	 7.4090
 0.5820	 7.3700
 0.5830	 7.3370
 0.5840	 7.3080
 0.5850	 7.2830
 0.5860	 7.2580
 0.5870	 7.2330
 0.5880	 7.2040
 0.5890	 7.1710
 0.5900	 7.1340
 0.5910	 7.0990
 0.5920	 7.0720
 0.5930	 7.0570
 0.5940	 7.0500
 0.5950	 7.0420
 0.5960	 7.0290
 0.5970	 7.0170
 0.5980	 7.0070
 0.5990	 6.9970
 0.6000	 6.9850
 0.6010	 6.9760
 0.6020	 6.9660
 0.6030	 6.9510
 0.6040	 6.9290
 0.6050	 6.9020
 0.6060	 6.8750
 0.6070	 6.8460
 0.6080	 6.8150
 0.6090	 6.7750
 0.6100	 6.7250
 0.6110	 6.6680
 0.6120	 6.6390
 0.6130	 6.6260
 0.6140	 6.6140
 0.6150	 6.5900
 0.6160	 6.5660
 0.6170	 6.5420
 0.6180	 6.5180
 0.6190	 6.4970
 0.6200	 6.4790
 0.6210	 6.4620
 0.6220	 6.4490
 0.6230	 6.4380
 0.6240	 6.4280
 0.6250	 6.4200
 0.6260	 6.4140
 0.6270	 6.4100
 0.6280	 6.4050
 0.6290	 6.3990
 0.6300	 6.3970
 0.6310	 6.3920
 0.6320	 6.3850
 0.6330	 6.3810
 0.6340	 6.3760
 0.6350	 6.3660
 0.6360	 6.3500
 0.6370	 6.3310
 0.6380	 6.3120
 0.6390	 6.2910
 0.6400	 6.2640
 0.6410	 6.2380
 0.6420	 6.2140
 0.6430	 6.1930
 0.6440	 6.1670
 0.6450	 6.1420
 0.6460	 6.1200
 0.6470	 6.1010
 0.6480	 6.0810
 0.6490	 6.0670
 0.6500	 6.0570
 0.6510	 6.0470
 0.6520	 6.0400
 0.6530	 6.0350
 0.6540	 6.0290
 0.6550	 6.0190
 0.6560	 6.0110
 0.6570	 6.0050
 0.6580	 5.9960
 0.6590	 5.9870
 0.6600	 5.9770
 0.6610	 5.9670
 0.6620	 5.9550
 0.6630	 5.9460
 0.6640	 5.9400
 0.6650	 5.9380
 0.6660	 5.9400
 0.6670	 5.9440
 0.6680	 5.9510
 0.6690	 5.9620
 0.6700	 5.9730
 0.6710	 5.9860
 0.6720	 6.0030
 0.6730	 6.0240
 0.6740	 6.0490
 0.6750	 6.0730
 0.6760	 6.0980
 0.6770	 6.1310
 0.6780	 6.1660
 0.6790	 6.2040
 0.6800	 6.2430
 0.6810	 6.2850
 0.6820	 6.3290
 0.6830	 6.3750
 0.6840	 6.4220
 0.6850	 6.4670
 0.6860	 6.5120
 0.6870	 6.5590
 0.6880	 6.6140
 0.6890	 6.6810
 0.6900	 6.7620
 0.6910	 6.8620
 0.6920	 6.9870
 0.6930	 7.1450
 0.6940	 7.3420
 0.6950	 7.5820
 0.6960	 7.8690
 0.6970	 8.2040
 0.6980	 8.5890
 0.6990	 9.0230
 0.7000	 9.5030
 0.7010	10.0230
 0.7020	10.5800
 0.7030	11.1710
 0.7040	11.7900
 0.7050	12.4340
 0.7060	13.1010
 0.7070	13.7870
 0.7080	14.4910
 0.7090	15.2160
 0.7100	15.9650
 0.7110	16.7330
 0.7120	17.5160
 0.7130	18.3180
 0.7140	19.1410
 0.7150	19.9820
 0.7160	20.8360
 0.7170	21.7070
 0.7180	22.5900
 0.7190	23.4810
 0.7200	24.3780
 0.7210	25.2820
 0.7220	26.1870
 0.7230	27.0910
 0.7240	27.9890
 0.7250	28.8810
 0.7260	29.7610
 0.7270	30.6260
 0.7280	31.4740
 0.7290	32.3000
 0.7300	33.1010
 0.7310	33.8770
 0.7320	34.6300
 0.7330	35.3570
 0.7340	36.0530
 0.7350	36.7180
 0.7360	37.3530
 0.7370	37.9570
 0.7380	38.5300
 0.7390	39.0670
 0.7400	39.5730
 0.7410	40.0480
 0.7420	40.4900
 0.7430	40.9050
 0.7440	41.2890
 0.7450	41.6430
 0.7460	41.9710
 0.7470	42.2700
 0.7480	42.5410
 0.7490	42.7880
 0.7500	43.0130
 0.7510	43.2190
 0.7520	43.4070
 0.7530	43.5750
 0.7540	43.7280
 0.7550	43.8660
 0.7560	43.9890
 0.7570	44.0970
 0.7580	44.1970
 0.7590	44.2860
 0.7600	44.3640
 0.7610	44.4370
 0.7620	44.4980
 0.7630	44.5520
 0.7640	44.6040
 0.7650	44.6460
 0.7660	44.6790
 0.7670	44.7070
 0.7680	44.7340
 0.7690	44.7580
 0.7700	44.7790
 0.7710	44.7980
 0.7720	44.8190
 0.7730	44.8340
 0.7740	44.8470
 0.7750	44.8600
 0.7760	44.8710
 0.7770	44.8820
 0.7780	44.8930
 0.7790	44.9020
 0.7800	44.9090
 0.7810	44.9170
 0.7820	44.9260
 0.7830	44.9320
 0.7840	44.9400
 0.7850	44.9470
 0.7860	44.9520
 0.7870	44.9590
 0.7880	44.9690
 0.7890	44.9780
 0.7900	44.9820
 0.7910	44.9870
 0.7920	44.9910
 0.7930	44.9960
 0.7940	45.0010
 0.7950	45.0040
 0.7960	45.0060
 0.7970	45.0060
 0.7980	45.0090
 0.7990	45.0110
 0.8000	45.0130
 0.8010	45.0150
 0.8020	45.0190
 0.8030	45.0180
 0.8040	45.0160
 0.8050	45.0190
 0.8060	45.0200
 0.8070	45.0200
 0.8080	45.0160
 0.8090	45.0120
 0.8100	45.0100
 0.8110	45.0070
 0.8120	45.0040
 0.8130	45.0040
 0.8140	45.0010
 0.8150	44.9970
 0.8160	44.9950
 0.8170	44.9930
 0.8180	44.9950
 0.8190	44.9960
 0.8200	44.9910
 0.8210	44.9850
 0.8220	44.9830
 0.8230	44.9820
 0.8240	44.9740
 0.8250	44.9730
 0.8260	44.9750
 0.8270	44.9740
 0.8280	44.9720
 0.8290	44.9660
 0.8300	44.9610
 0.8310	44.9580
 0.8320	44.9580
 0.8330	44.9580
 0.8340	44.9550
 0.8350	44.9510
 0.8360	44.9490
 0.8370	44.9470
 0.8380	44.9470
 0.8390	44.9500
 0.8400	44.9510
 0.8410	44.9520
 0.8420	44.9540
 0.8430	44.9570
 0.8440	44.9580
 0.8450	44.9600
 0.8460	44.9630
 0.8470	44.9640
 0.8480	44.9660
 0.8490	44.9700
 0.8500	44.9750
 0.8510	44.9760
 0.8520	44.9780
 0.8530	44.9820
 0.8540	44.9870
 0.8550	44.9900
 0.8560	44.9950
 0.8570	45.0000
 0.8580	45.0020
 0.8590	45.0080
 0.8600	45.0170
 0.8610	45.0250
 0.8620	45.0250
 0.8630	45.0290
 0.8640	45.0360
 0.8650	45.0430
 0.8660	45.0470
 0.8670	45.0520
 0.8680	45.0590
 0.8690	45.0630
 0.8700	45.0670
 0.8710	45.0710
 0.8720	45.0770
 0.8730	45.0860
 0.8740	45.0950
 0.8750	45.0990
 0.8760	45.1010
 0.8770	45.1120
 0.8780	45.1190
 0.8790	45.1250
 0.8800	45.1310
 0.8810	45.1350
 0.8820	45.1420
 0.8830	45.1490
 0.8840	45.1550
 0.8850	45.1620
 0.8860	45.1660
 0.8870	45.1710
 0.8880	45.1800
 0.8890	45.1820
 0.8900	45.1850
 0.8910	45.1890
 0.8920	45.1930
 0.8930	45.2030
 0.8940	45.2110
 0.8950	45.2140
 0.8960	45.2160
 0.8970	45.2170
 0.8980	45.2220
 0.8990	45.2300
 0.9000	45.2350
 0.9010	45.2400
 0.9020	45.2430
 0.9030	45.2430
 0.9040	45.2440
 0.9050	45.2510
 0.9060	45.2560
 0.9070	45.2570
 0.9080	45.2600
 0.9090	45.2640
 0.9100	45.2670
 0.9110	45.2690
 0.9120	45.2750
 0.9130	45.2810
 0.9140	45.2830
 0.9150	45.2780
 0.9160	45.2830
 0.9170	45.2900
 0.9180	45.2920
 0.9190	45.2880
 0.9200	45.2850
 0.9210	45.2870
 0.9220	45.2900
 0.9230	45.2850
 0.9240	45.2740
 0.9250	45.2690
 0.9260	45.2680
 0.9270	45.2600
 0.9280	45.2520
 0.9290	45.2420
 0.9300	45.2350
 0.9310	45.2360
 0.9320	45.2290
 0.9330	45.2180
 0.9340	45.2050
 0.9350	45.1870
 0.9360	45.1730
 0.9370	45.1640
 0.9380	45.1580
 0.9390	45.1450
 0.9400	45.1280
 0.9410	45.1110
 0.9420	45.0950
 0.9430	45.0730
 0.9440	45.0600
 0.9450	45.0440
 0.9460	45.0180
 0.9470	44.9880
 0.9480	44.9590
 0.9490	44.9290
 0.9500	44.8990
 0.9510	44.8770
 0.9520	44.8440
 0.9530	44.8000
 0.9540	44.7530
 0.9550	44.7250
 0.9560	44.6860
 0.9570	44.6430
 0.9580	44.6090
 0.9590	44.5810
 0.9600	44.5470
 0.9610	44.5120
 0.9620	44.4880
 0.9630	44.4640
 0.9640	44.4420
 0.9650	44.4230
 0.9660	44.4090
 0.9670	44.3920
 0.9680	44.3770
 0.9690	44.3660
 0.9700	44.3570
 0.9710	44.3400
 0.9720	44.3340
 0.9730	44.3300
 0.9740	44.3120
 0.9750	44.2890
 0.9760	44.2980
 0.9770	44.3160
 0.9780	44.3010
 0.9790	44.2890
 0.9800	44.2870
 0.9810	44.2880
 0.9820	44.2830
 0.9830	44.2810
 0.9840	44.2890
 0.9850	44.3010
 0.9860	44.3090
 0.9870	44.2990
 0.9880	44.3030
 0.9890	44.3070
 0.9900	44.2900
 0.9910	44.3180
 0.9920	44.3400
 0.9930	44.3510
 0.9940	44.3610
 0.9950	44.3580
 0.9960	44.3660
 0.9970	44.3880
 0.9980	44.4110
 0.9990	44.4230
 1.0000	44.4250
 1.0010	45.4220
 1.0020	45.4310
 1.0030	45.4400
 1.0040	45.4530
 1.0050	45.4670
 1.0060	45.4820
 1.0070	45.4980
 1.0080	45.5150
 1.0090	45.5310
 1.0100	45.5470
 1.0110	45.5650
 1.0120	45.5820
 1.0130	45.5970
 1.0140	45.6120
 1.0150	45.6260
 1.0160	45.6410
 1.0170	45.6570
 1.0180	45.6730
 1.0190	45.6890
 1.0200	45.7040
 1.0210	45.7160
 1.0220	45.7250
 1.0230	45.7370
 1.0240	45.7490
 1.0250	45.7640
 1.0260	45.7850
 1.0270	45.8010
 1.0280	45.8180
 1.0290	45.8320
 1.0300	45.8420
 1.0310	45.8560
 1.0320	45.8710
 1.0330	45.8840
 1.0340	45.8970
 1.0350	45.9110
 1.0360	45.9250
 1.0370	45.9370
 1.0380	45.9480
 1.0390	45.9580
 1.0400	45.9690
 1.0410	45.9790
 1.0420	45.9900
 1.0430	46.0030
 1.0440	46.0140
 1.0450	46.0240
 1.0460	46.0350
 1.0470	46.0500
 1.0480	46.0610
 1.0490	46.0710
 1.0500	46.0810
 1.0510	46.0880
 1.0520	46.0940
 1.0530	46.0990
 1.0540	46.1040
 1.0550	46.1080
 1.0560	46.1100
 1.0570	46.1150
 1.0580	46.1190
 1.0590	46.1250
 1.0600	46.1340
 1.0610	46.1400
 1.0620	46.1460
 1.0630	46.1520
 1.0640	46.1590
 1.0650	46.1640
 1.0660	46.1720
 1.0670	46.1760
 1.0680	46.1780
 1.0690	46.1760
 1.0700	46.1770
 1.0710	46.1770
 1.0720	46.1760
 1.0730	46.1760
 1.0740	46.1760
 1.0750	46.1740
 1.0760	46.1740
 1.0770	46.1760
 1.0780	46.1750
 1.0790	46.1710
 1.0800	46.1690
 1.0810	46.1680
 1.0820	46.1670
 1.0830	46.1700
 1.0840	46.1690
 1.0850	46.1670
 1.0860	46.1640
 1.0870	46.1600
 1.0880	46.1560
 1.0890	46.1510
 1.0900	46.1440
 1.0910	46.1380
 1.0920	46.1290
 1.0930	46.1240
 1.0940	46.1210
 1.0950	46.1180
 1.0960	46.1180
 1.0970	46.1160
 1.0980	46.1150
 1.0990	46.1100
 1.1000	46.1010
 1.1010	46.0940
 1.1020	46.0840
 1.1030	46.0750
 1.1040	46.0690
 1.1050	46.0630
 1.1060	46.0570
 1.1070	46.0530
 1.1080	46.0460
 1.1090	46.0390
 1.1100	46.0300
 1.1110	46.0200
 1.1120	46.0100
 1.1130	46.0000
 1.1140	45.9890
 1.1150	45.9780
 1.1160	45.9650
 1.1170	45.9530
 1.1180	45.9380
 1.1190	45.9240
 1.1200	45.9060
 1.1210	45.8870
 1.1220	45.8670
 1.1230	45.8420
 1.1240	45.8170
 1.1250	45.7890
 1.1260	45.7570
 1.1270	45.7240
 1.1280	45.6920
 1.1290	45.6520
 1.1300	45.6080
 1.1310	45.5600
 1.1320	45.5050
 1.1330	45.4470
 1.1340	45.3860
 1.1350	45.3190
 1.1360	45.2480
 1.1370	45.1720
 1.1380	45.0910
 1.1390	45.0060
 1.1400	44.9150
 1.1410	44.8230
 1.1420	44.7300
 1.1430	44.6320
 1.1440	44.5330
 1.1450	44.4330
 1.1460	44.3340
 1.1470	44.2320
 1.1480	44.1360
 1.1490	44.0430
 1.1500	43.9530
 1.1510	43.8660
 1.1520	43.7830
 1.1530	43.7020
 1.1540	43.6280
 1.1550	43.5570
 1.1560	43.4930
 1.1570	43.4350
 1.1580	43.3810
 1.1590	43.3290
 1.1600	43.2820
 1.1610	43.2400
 1.1620	43.2020
 1.1630	43.1690
 1.1640	43.1390
 1.1650	43.1090
 1.1660	43.0780
 1.1670	43.0530
 1.1680	43.0320
 1.1690	43.0120
 1.1700	42.9980
 1.1710	42.9800
 1.1720	42.9620
 1.1730	42.9450
 1.1740	42.9290
 1.1750	42.9120
 1.1760	42.8970
 1.1770	42.8820
 1.1780	42.8660
 1.1790	42.8490
 1.1800	42.8310
 1.1810	42.8110
 1.1820	42.7920
 1.1830	42.7730
 1.1840	42.7540
 1.1850	42.7350
 1.1860	42.7160
 1.1870	42.6990
 1.1880	42.6840
 1.1890	42.6700
 1.1900	42.6570
 1.1910	42.6460
 1.1920	42.6350
 1.1930	42.6240
 1.1940	42.6140
 1.1950	42.6060
 1.1960	42.5960
 1.1970	42.5890
 1.1980	42.5840
 1.1990	42.5800
 1.2000	42.5770
 1.2010	42.5730
 1.2020	42.5720
 1.2030	42.5700
 1.2040	42.5710
 1.2050	42.5750
 1.2060	42.5780
 1.2070	42.5820
 1.2080	42.5870
 1.2090	42.5930
 1.2100	42.6010
 1.2110	42.6120
 1.2120	42.6250
 1.2130	42.6420
 1.2140	42.6620
 1.2150	42.6820
 1.2160	42.7040
 1.2170	42.7270
 1.2180	42.7520
 1.2190	42.7790
 1.2200	42.8110
 1.2210	42.8440
 1.2220	42.8780
 1.2230	42.9130
 1.2240	42.9470
 1.2250	42.9790
 1.2260	43.0100
 1.2270	43.0400
 1.2280	43.0700
 1.2290	43.1010
 1.2300	43.1300
 1.2310	43.1570
 1.2320	43.1840
 1.2330	43.2090
 1.2340	43.2330
 1.2350	43.2550
 1.2360	43.2780
 1.2370	43.3000
 1.2380	43.3220
 1.2390	43.3420
 1.2400	43.3610
 1.2410	43.3790
 1.2420	43.3960
 1.2430	43.4130
 1.2440	43.4310
 1.2450	43.4490
 1.2460	43.4650
 1.2470	43.4810
 1.2480	43.4970
 1.2490	43.5090
 1.2500	43.5210
 1.2510	43.5320
 1.2520	43.5430
 1.2530	43.5550
 1.2540	43.5660
 1.2550	43.5750
 1.2560	43.5840
 1.2570	43.5930
 1.2580	43.6010
 1.2590	43.6080
 1.2600	43.6160
 1.2610	43.6220
 1.2620	43.6260
 1.2630	43.6270
 1.2640	43.6290
 1.2650	43.6310
 1.2660	43.6330
 1.2670	43.6360
 1.2680	43.6360
 1.2690	43.6350
 1.2700	43.6320
 1.2710	43.6270
 1.2720	43.6230
 1.2730	43.6190
 1.2740	43.6160
 1.2750	43.6130
 1.2760	43.6090
 1.2770	43.6060
 1.2780	43.5990
 1.2790	43.5920
 1.2800	43.5860
 1.2810	43.5770
 1.2820	43.5680
 1.2830	43.5570
 1.2840	43.5420
 1.2850	43.5300
 1.2860	43.5160
 1.2870	43.4990
 1.2880	43.4800
 1.2890	43.4600
 1.2900	43.4330
 1.2910	43.4050
 1.2920	43.3750
 1.2930	43.3460
 1.2940	43.3170
 1.2950	43.2880
 1.2960	43.2560
 1.2970	43.2190
 1.2980	43.1800
 1.2990	43.1400
 1.3000	43.0990
 1.3010	43.0570
 1.3020	43.0120
 1.3030	42.9630
 1.3040	42.9130
 1.3050	42.8630
 1.3060	42.8140
 1.3070	42.7600
 1.3080	42.7050
 1.3090	42.6480
 1.3100	42.5870
 1.3110	42.5250
 1.3120	42.4620
 1.3130	42.3940
 1.3140	42.3260
 1.3150	42.2570
 1.3160	42.1870
 1.3170	42.1160
 1.3180	42.0430
 1.3190	41.9670
 1.3200	41.8860
 1.3210	41.8020
 1.3220	41.7180
 1.3230	41.6330
 1.3240	41.5450
 1.3250	41.4560
 1.3260	41.3650
 1.3270	41.2700
 1.3280	41.1730
 1.3290	41.0740
 1.3300	40.9730
 1.3310	40.8710
 1.3320	40.7680
 1.3330	40.6640
 1.3340	40.5590
 1.3350	40.4530
 1.3360	40.3460
 1.3370	40.2370
 1.3380	40.1310
 1.3390	40.0240
 1.3400	39.9150
 1.3410	39.8080
 1.3420	39.6980
 1.3430	39.5910
 1.3440	39.4870
 1.3450	39.3820
 1.3460	39.2800
 1.3470	39.1780
 1.3480	39.0760
 1.3490	38.9770
 1.3500	38.8810
 1.3510	38.7840
 1.3520	38.6880
 1.3530	38.5920
 1.3540	38.4940
 1.3550	38.3970
 1.3560	38.2990
 1.3570	38.2000
 1.3580	38.1020
 1.3590	38.0000
 1.3600	37.8940
 1.3610	37.7870
 1.3620	37.6750
 1.3630	37.5600
 1.3640	37.4410
 1.3650	37.3150
 1.3660	37.1840
 1.3670	37.0470
 1.3680	36.9010
 1.3690	36.7450
 1.3700	36.5780
 1.3710	36.4010
 1.3720	36.2110
 1.3730	36.0070
 1.3740	35.7920
 1.3750	35.5600
 1.3760	35.3100
 1.3770	35.0430
 1.3780	34.7530
 1.3790	34.4440
 1.3800	34.1150
 1.3810	33.7590
 1.3820	33.3850
 1.3830	32.9920
 1.3840	32.5760
 1.3850	32.1390
 1.3860	31.6860
 1.3870	31.2090
 1.3880	30.7240
 1.3890	30.2240
 1.3900	29.7100
 1.3910	29.1930
 1.3920	28.6660
 1.3930	28.1320
 1.3940	27.6000
 1.3950	27.0600
 1.3960	26.5250
 1.3970	25.9970
 1.3980	25.4740
 1.3990	24.9670
 1.4000	24.4700
 1.4010	23.9830
 1.4020	23.5130
 1.4030	23.0550
 1.4040	22.6140
 1.4050	22.1930
 1.4060	21.7870
 1.4070	21.4050
 1.4080	21.0420
 1.4090	20.6950
 1.4100	20.3710
 1.4110	20.0620
 1.4120	19.7710
 1.4130	19.5010
 1.4140	19.2480
 1.4150	19.0140
 1.4160	18.7960
 1.4170	18.5910
 1.4180	18.4020
 1.4190	18.2250
 1.4200	18.0620
 1.4210	17.9110
 1.4220	17.7700
 1.4230	17.6410
 1.4240	17.5220
 1.4250	17.4110
 1.4260	17.3100
 1.4270	17.2150
 1.4280	17.1290
 1.4290	17.0500
 1.4300	16.9800
 1.4310	16.9150
 1.4320	16.8570
 1.4330	16.8040
 1.4340	16.7580
 1.4350	16.7150
 1.4360	16.6770
 1.4370	16.6440
 1.4380	16.6150
 1.4390	16.5910
 1.4400	16.5710
 1.4410	16.5540
 1.4420	16.5400
 1.4430	16.5290
 1.4440	16.5220
 1.4450	16.5160
 1.4460	16.5130
 1.4470	16.5130
 1.4480	16.5150
 1.4490	16.5180
 1.4500	16.5230
 1.4510	16.5300
 1.4520	16.5380
 1.4530	16.5490
 1.4540	16.5610
 1.4550	16.5750
 1.4560	16.5910
 1.4570	16.6100
 1.4580	16.6330
 1.4590	16.6580
 1.4600	16.6870
 1.4610	16.7190
 1.4620	16.7540
 1.4630	16.7940
 1.4640	16.8380
 1.4650	16.8870
 1.4660	16.9400
 1.4670	17.0000
 1.4680	17.0650
 1.4690	17.1340
 1.4700	17.2060
 1.4710	17.2820
 1.4720	17.3610
 1.4730	17.4430
 1.4740	17.5300
 1.4750	17.6180
 1.4760	17.7100
 1.4770	17.8060
