Name: Phyllostachys aurea
Type: vegetation
Class: Tree
Genus: Phyllostachys
Species: aurea
Sample No.: JPL090
Owner: JPL
Wavelength Range: VSWIR
Origin: 34.12507; - 118.11533; WGS84
Collection Date: 2/2/2016
Description: Samples were collected at the Huntington Garden in San Marino California as part of a JPL Subcontract studying HyTES imagery. Samples were taken to JPL and processed within 48 hours of collection. The same leaves were processed in the Nicolet and then measured using the ASD.
Measurement: Bidirectional reflectance
First Column: X
Second Column: Y
X Units: Wavelength (micrometer)
Y Units: Reflectance (percentage)
First X Value: 0.35
Last X Value: 2.5
Number of X Values: 2151
Additional Information: 

 0.3500	 5.3120
 0.3510	 6.8830
 0.3520	 5.5790
 0.3530	 3.6800
 0.3540	 3.5430
 0.3550	 4.2700
 0.3560	 4.6040
 0.3570	 4.5580
 0.3580	 4.7130
 0.3590	 4.6180
 0.3600	 4.4050
 0.3610	 4.2240
 0.3620	 4.1360
 0.3630	 4.3060
 0.3640	 4.5540
 0.3650	 4.6930
 0.3660	 4.8750
 0.3670	 4.5970
 0.3680	 4.2550
 0.3690	 4.7510
 0.3700	 5.2090
 0.3710	 4.7980
 0.3720	 3.6850
 0.3730	 3.9290
 0.3740	 4.3570
 0.3750	 4.5420
 0.3760	 4.4160
 0.3770	 4.3670
 0.3780	 4.2660
 0.3790	 4.3100
 0.3800	 4.8950
 0.3810	 4.8780
 0.3820	 5.0170
 0.3830	 5.6040
 0.3840	 5.2050
 0.3850	 4.8500
 0.3860	 4.4020
 0.3870	 3.6280
 0.3880	 4.3290
 0.3890	 4.9220
 0.3900	 4.8180
 0.3910	 4.6600
 0.3920	 4.9160
 0.3930	 5.0110
 0.3940	 4.6100
 0.3950	 4.5350
 0.3960	 4.5840
 0.3970	 4.6110
 0.3980	 4.5290
 0.3990	 4.5010
 0.4000	 4.6340
 0.4010	 4.7880
 0.4020	 4.5210
 0.4030	 4.5020
 0.4040	 4.5880
 0.4050	 4.5780
 0.4060	 4.8930
 0.4070	 4.7330
 0.4080	 4.3570
 0.4090	 4.6250
 0.4100	 4.9530
 0.4110	 4.9610
 0.4120	 4.6450
 0.4130	 4.5820
 0.4140	 4.5870
 0.4150	 4.5960
 0.4160	 4.5810
 0.4170	 4.5570
 0.4180	 4.5760
 0.4190	 4.6460
 0.4200	 4.7350
 0.4210	 4.7360
 0.4220	 4.7130
 0.4230	 4.7330
 0.4240	 4.7970
 0.4250	 4.8010
 0.4260	 4.7970
 0.4270	 4.8780
 0.4280	 4.8360
 0.4290	 4.7900
 0.4300	 4.8280
 0.4310	 4.9630
 0.4320	 4.9630
 0.4330	 4.8840
 0.4340	 4.8440
 0.4350	 4.8960
 0.4360	 4.9420
 0.4370	 4.9310
 0.4380	 4.8630
 0.4390	 4.9010
 0.4400	 4.9540
 0.4410	 4.9550
 0.4420	 4.9900
 0.4430	 4.9810
 0.4440	 4.9450
 0.4450	 4.9350
 0.4460	 4.9700
 0.4470	 5.0090
 0.4480	 5.0390
 0.4490	 5.0850
 0.4500	 5.1060
 0.4510	 5.0570
 0.4520	 4.9490
 0.4530	 4.9700
 0.4540	 5.0120
 0.4550	 5.0220
 0.4560	 4.9940
 0.4570	 5.0190
 0.4580	 5.0650
 0.4590	 5.0920
 0.4600	 5.0780
 0.4610	 5.0020
 0.4620	 4.9940
 0.4630	 5.1480
 0.4640	 5.1110
 0.4650	 5.0620
 0.4660	 5.0920
 0.4670	 5.1660
 0.4680	 5.2160
 0.4690	 5.2350
 0.4700	 5.2210
 0.4710	 5.1200
 0.4720	 5.1300
 0.4730	 5.1850
 0.4740	 5.1150
 0.4750	 5.1410
 0.4760	 5.2110
 0.4770	 5.2500
 0.4780	 5.1920
 0.4790	 5.1620
 0.4800	 5.1300
 0.4810	 5.0590
 0.4820	 5.1020
 0.4830	 5.1510
 0.4840	 5.1520
 0.4850	 5.1160
 0.4860	 5.1710
 0.4870	 5.2360
 0.4880	 5.2410
 0.4890	 5.2610
 0.4900	 5.2240
 0.4910	 5.1840
 0.4920	 5.2350
 0.4930	 5.2990
 0.4940	 5.3080
 0.4950	 5.2750
 0.4960	 5.3290
 0.4970	 5.3590
 0.4980	 5.3780
 0.4990	 5.4280
 0.5000	 5.5160
 0.5010	 5.6010
 0.5020	 5.6540
 0.5030	 5.6690
 0.5040	 5.7130
 0.5050	 5.8100
 0.5060	 5.9380
 0.5070	 5.9880
 0.5080	 6.0790
 0.5090	 6.2100
 0.5100	 6.3360
 0.5110	 6.4680
 0.5120	 6.6250
 0.5130	 6.8130
 0.5140	 7.0180
 0.5150	 7.2300
 0.5160	 7.4210
 0.5170	 7.5910
 0.5180	 7.8740
 0.5190	 8.1360
 0.5200	 8.3770
 0.5210	 8.6960
 0.5220	 9.0190
 0.5230	 9.3010
 0.5240	 9.5360
 0.5250	 9.7780
 0.5260	10.0590
 0.5270	10.3490
 0.5280	10.6000
 0.5290	10.8350
 0.5300	11.0720
 0.5310	11.3050
 0.5320	11.4920
 0.5330	11.6500
 0.5340	11.8100
 0.5350	11.9870
 0.5360	12.1210
 0.5370	12.2630
 0.5380	12.4240
 0.5390	12.5790
 0.5400	12.7070
 0.5410	12.8260
 0.5420	12.9500
 0.5430	13.0840
 0.5440	13.1880
 0.5450	13.2530
 0.5460	13.2890
 0.5470	13.3320
 0.5480	13.3460
 0.5490	13.3420
 0.5500	13.4010
 0.5510	13.4500
 0.5520	13.4730
 0.5530	13.4770
 0.5540	13.4710
 0.5550	13.4440
 0.5560	13.3980
 0.5570	13.3430
 0.5580	13.2780
 0.5590	13.1990
 0.5600	13.1100
 0.5610	13.0340
 0.5620	12.9090
 0.5630	12.7670
 0.5640	12.6630
 0.5650	12.5320
 0.5660	12.3860
 0.5670	12.2390
 0.5680	12.0950
 0.5690	11.9300
 0.5700	11.7610
 0.5710	11.6050
 0.5720	11.4230
 0.5730	11.2550
 0.5740	11.1180
 0.5750	11.0010
 0.5760	10.8700
 0.5770	10.7520
 0.5780	10.6530
 0.5790	10.5260
 0.5800	10.4180
 0.5810	10.3300
 0.5820	10.2440
 0.5830	10.1550
 0.5840	10.0920
 0.5850	10.0410
 0.5860	 9.9460
 0.5870	 9.8790
 0.5880	 9.8280
 0.5890	 9.7670
 0.5900	 9.7140
 0.5910	 9.6460
 0.5920	 9.5860
 0.5930	 9.5670
 0.5940	 9.5290
 0.5950	 9.4790
 0.5960	 9.4360
 0.5970	 9.4300
 0.5980	 9.4080
 0.5990	 9.3720
 0.6000	 9.3370
 0.6010	 9.2810
 0.6020	 9.2310
 0.6030	 9.1910
 0.6040	 9.1430
 0.6050	 9.1020
 0.6060	 9.0380
 0.6070	 8.9410
 0.6080	 8.8560
 0.6090	 8.7720
 0.6100	 8.7120
 0.6110	 8.6970
 0.6120	 8.6190
 0.6130	 8.5030
 0.6140	 8.3860
 0.6150	 8.2990
 0.6160	 8.2130
 0.6170	 8.1270
 0.6180	 8.0510
 0.6190	 8.0240
 0.6200	 7.9810
 0.6210	 7.9090
 0.6220	 7.8390
 0.6230	 7.8020
 0.6240	 7.7770
 0.6250	 7.7490
 0.6260	 7.7390
 0.6270	 7.7170
 0.6280	 7.7040
 0.6290	 7.7250
 0.6300	 7.7260
 0.6310	 7.7020
 0.6320	 7.6660
 0.6330	 7.6420
 0.6340	 7.6360
 0.6350	 7.6150
 0.6360	 7.5580
 0.6370	 7.4930
 0.6380	 7.4360
 0.6390	 7.3810
 0.6400	 7.3080
 0.6410	 7.2300
 0.6420	 7.1390
 0.6430	 7.0410
 0.6440	 6.9620
 0.6450	 6.8630
 0.6460	 6.7630
 0.6470	 6.6910
 0.6480	 6.6260
 0.6490	 6.5700
 0.6500	 6.5140
 0.6510	 6.4460
 0.6520	 6.3930
 0.6530	 6.3500
 0.6540	 6.3100
 0.6550	 6.2770
 0.6560	 6.2470
 0.6570	 6.2090
 0.6580	 6.1520
 0.6590	 6.0980
 0.6600	 6.0300
 0.6610	 5.9520
 0.6620	 5.8910
 0.6630	 5.8380
 0.6640	 5.7890
 0.6650	 5.7380
 0.6660	 5.6750
 0.6670	 5.6410
 0.6680	 5.6320
 0.6690	 5.6160
 0.6700	 5.5750
 0.6710	 5.5380
 0.6720	 5.5290
 0.6730	 5.5510
 0.6740	 5.5450
 0.6750	 5.5400
 0.6760	 5.5660
 0.6770	 5.5760
 0.6780	 5.5890
 0.6790	 5.6110
 0.6800	 5.6430
 0.6810	 5.7030
 0.6820	 5.7480
 0.6830	 5.7780
 0.6840	 5.8860
 0.6850	 5.9980
 0.6860	 6.1070
 0.6870	 6.2320
 0.6880	 6.4090
 0.6890	 6.6360
 0.6900	 6.9120
 0.6910	 7.2420
 0.6920	 7.6280
 0.6930	 8.0660
 0.6940	 8.5690
 0.6950	 9.1840
 0.6960	 9.8380
 0.6970	10.5370
 0.6980	11.3020
 0.6990	12.0850
 0.7000	12.9060
 0.7010	13.7650
 0.7020	14.6430
 0.7030	15.4810
 0.7040	16.3070
 0.7050	17.1440
 0.7060	17.9690
 0.7070	18.7660
 0.7080	19.5310
 0.7090	20.2790
 0.7100	21.0260
 0.7110	21.7710
 0.7120	22.5020
 0.7130	23.2060
 0.7140	23.9130
 0.7150	24.5990
 0.7160	25.2520
 0.7170	25.9310
 0.7180	26.6130
 0.7190	27.2710
 0.7200	27.8880
 0.7210	28.5370
 0.7220	29.1770
 0.7230	29.7890
 0.7240	30.3810
 0.7250	30.9520
 0.7260	31.5090
 0.7270	32.0600
 0.7280	32.6020
 0.7290	33.1190
 0.7300	33.6110
 0.7310	34.0800
 0.7320	34.5180
 0.7330	34.9560
 0.7340	35.3940
 0.7350	35.8010
 0.7360	36.1550
 0.7370	36.4930
 0.7380	36.8370
 0.7390	37.1400
 0.7400	37.4220
 0.7410	37.6980
 0.7420	37.9720
 0.7430	38.2150
 0.7440	38.4450
 0.7450	38.6550
 0.7460	38.8160
 0.7470	38.9970
 0.7480	39.1800
 0.7490	39.3390
 0.7500	39.4640
 0.7510	39.5780
 0.7520	39.6860
 0.7530	39.7840
 0.7540	39.8700
 0.7550	39.9530
 0.7560	40.0360
 0.7570	40.1180
 0.7580	40.1810
 0.7590	40.2330
 0.7600	40.2820
 0.7610	40.3310
 0.7620	40.3770
 0.7630	40.4150
 0.7640	40.4420
 0.7650	40.4580
 0.7660	40.4970
 0.7670	40.5390
 0.7680	40.5400
 0.7690	40.5420
 0.7700	40.5470
 0.7710	40.5590
 0.7720	40.5920
 0.7730	40.5960
 0.7740	40.6040
 0.7750	40.6370
 0.7760	40.6250
 0.7770	40.6070
 0.7780	40.6040
 0.7790	40.6230
 0.7800	40.6350
 0.7810	40.6320
 0.7820	40.6230
 0.7830	40.6250
 0.7840	40.6140
 0.7850	40.6080
 0.7860	40.6170
 0.7870	40.6070
 0.7880	40.5940
 0.7890	40.5940
 0.7900	40.6090
 0.7910	40.5930
 0.7920	40.5780
 0.7930	40.5720
 0.7940	40.5640
 0.7950	40.5450
 0.7960	40.5330
 0.7970	40.5290
 0.7980	40.5050
 0.7990	40.5010
 0.8000	40.5050
 0.8010	40.5020
 0.8020	40.4890
 0.8030	40.4710
 0.8040	40.4460
 0.8050	40.4170
 0.8060	40.4120
 0.8070	40.4010
 0.8080	40.3700
 0.8090	40.3280
 0.8100	40.3450
 0.8110	40.3520
 0.8120	40.3170
 0.8130	40.2980
 0.8140	40.2890
 0.8150	40.2940
 0.8160	40.3040
 0.8170	40.2630
 0.8180	40.2370
 0.8190	40.2400
 0.8200	40.2530
 0.8210	40.2200
 0.8220	40.1990
 0.8230	40.2040
 0.8240	40.2000
 0.8250	40.1830
 0.8260	40.1740
 0.8270	40.1740
 0.8280	40.1420
 0.8290	40.1290
 0.8300	40.1140
 0.8310	40.0760
 0.8320	40.0730
 0.8330	40.0890
 0.8340	40.0890
 0.8350	40.0470
 0.8360	40.0340
 0.8370	40.0410
 0.8380	40.0530
 0.8390	40.0540
 0.8400	40.0490
 0.8410	40.0480
 0.8420	40.0520
 0.8430	40.0460
 0.8440	40.0330
 0.8450	40.0290
 0.8460	40.0440
 0.8470	40.0690
 0.8480	40.0670
 0.8490	40.0510
 0.8500	40.0450
 0.8510	40.0530
 0.8520	40.0530
 0.8530	40.0570
 0.8540	40.0810
 0.8550	40.0750
 0.8560	40.0690
 0.8570	40.0720
 0.8580	40.0680
 0.8590	40.0990
 0.8600	40.1270
 0.8610	40.1250
 0.8620	40.0990
 0.8630	40.1000
 0.8640	40.1230
 0.8650	40.1440
 0.8660	40.1260
 0.8670	40.1320
 0.8680	40.1480
 0.8690	40.1450
 0.8700	40.1680
 0.8710	40.1750
 0.8720	40.1750
 0.8730	40.2000
 0.8740	40.1990
 0.8750	40.2040
 0.8760	40.2280
 0.8770	40.2540
 0.8780	40.2690
 0.8790	40.2640
 0.8800	40.2460
 0.8810	40.2350
 0.8820	40.2630
 0.8830	40.3120
 0.8840	40.3450
 0.8850	40.3120
 0.8860	40.2810
 0.8870	40.2770
 0.8880	40.2990
 0.8890	40.3280
 0.8900	40.3260
 0.8910	40.3150
 0.8920	40.3320
 0.8930	40.3740
 0.8940	40.3780
 0.8950	40.3500
 0.8960	40.3390
 0.8970	40.3240
 0.8980	40.3490
 0.8990	40.3910
 0.9000	40.3730
 0.9010	40.3970
 0.9020	40.3940
 0.9030	40.3520
 0.9040	40.3580
 0.9050	40.3640
 0.9060	40.3700
 0.9070	40.3740
 0.9080	40.3680
 0.9090	40.3900
 0.9100	40.4080
 0.9110	40.4000
 0.9120	40.4030
 0.9130	40.4100
 0.9140	40.3950
 0.9150	40.3510
 0.9160	40.3290
 0.9170	40.3370
 0.9180	40.3600
 0.9190	40.3690
 0.9200	40.3380
 0.9210	40.3320
 0.9220	40.3500
 0.9230	40.3570
 0.9240	40.3870
 0.9250	40.3400
 0.9260	40.2730
 0.9270	40.3320
 0.9280	40.3520
 0.9290	40.3030
 0.9300	40.2500
 0.9310	40.3060
 0.9320	40.2610
 0.9330	40.2300
 0.9340	40.2690
 0.9350	40.3070
 0.9360	40.2590
 0.9370	40.2200
 0.9380	40.2270
 0.9390	40.1840
 0.9400	40.1670
 0.9410	40.1920
 0.9420	40.2180
 0.9430	40.1260
 0.9440	40.1210
 0.9450	40.1240
 0.9460	40.0600
 0.9470	40.0060
 0.9480	40.0270
 0.9490	40.0560
 0.9500	40.0200
 0.9510	39.9300
 0.9520	39.9470
 0.9530	39.9810
 0.9540	39.9340
 0.9550	39.9330
 0.9560	39.8970
 0.9570	39.8250
 0.9580	39.7620
 0.9590	39.8190
 0.9600	39.8270
 0.9610	39.7800
 0.9620	39.7340
 0.9630	39.7140
 0.9640	39.7500
 0.9650	39.7650
 0.9660	39.6910
 0.9670	39.6610
 0.9680	39.7000
 0.9690	39.7300
 0.9700	39.6640
 0.9710	39.6040
 0.9720	39.5850
 0.9730	39.5720
 0.9740	39.5210
 0.9750	39.5090
 0.9760	39.5580
 0.9770	39.6110
 0.9780	39.5900
 0.9790	39.5060
 0.9800	39.4770
 0.9810	39.5100
 0.9820	39.5490
 0.9830	39.5430
 0.9840	39.5490
 0.9850	39.5620
 0.9860	39.5520
 0.9870	39.5440
 0.9880	39.5510
 0.9890	39.5860
 0.9900	39.6370
 0.9910	39.6070
 0.9920	39.5100
 0.9930	39.4440
 0.9940	39.4820
 0.9950	39.4330
 0.9960	39.3590
 0.9970	39.3840
 0.9980	39.5530
 0.9990	39.4870
 1.0000	39.4300
 1.0010	39.7690
 1.0020	39.7480
 1.0030	39.7170
 1.0040	39.6980
 1.0050	39.7170
 1.0060	39.7260
 1.0070	39.7490
 1.0080	39.7510
 1.0090	39.7380
 1.0100	39.7310
 1.0110	39.7080
 1.0120	39.6980
 1.0130	39.7160
 1.0140	39.7140
 1.0150	39.6970
 1.0160	39.6940
 1.0170	39.6880
 1.0180	39.6540
 1.0190	39.6370
 1.0200	39.6650
 1.0210	39.7020
 1.0220	39.7200
 1.0230	39.7340
 1.0240	39.7430
 1.0250	39.7480
 1.0260	39.7380
 1.0270	39.7430
 1.0280	39.7530
 1.0290	39.7640
 1.0300	39.7900
 1.0310	39.7930
 1.0320	39.7840
 1.0330	39.7680
 1.0340	39.7680
 1.0350	39.7450
 1.0360	39.7490
 1.0370	39.7940
 1.0380	39.8070
 1.0390	39.8230
 1.0400	39.8240
 1.0410	39.8040
 1.0420	39.7950
 1.0430	39.7710
 1.0440	39.7720
 1.0450	39.7950
 1.0460	39.8100
 1.0470	39.8420
 1.0480	39.8580
 1.0490	39.8600
 1.0500	39.8640
 1.0510	39.8580
 1.0520	39.8600
 1.0530	39.8670
 1.0540	39.8810
 1.0550	39.8850
 1.0560	39.8920
 1.0570	39.8870
 1.0580	39.8640
 1.0590	39.8600
 1.0600	39.8600
 1.0610	39.8600
 1.0620	39.8610
 1.0630	39.8720
 1.0640	39.8920
 1.0650	39.9040
 1.0660	39.9440
 1.0670	39.9500
 1.0680	39.9380
 1.0690	39.9000
 1.0700	39.8840
 1.0710	39.8500
 1.0720	39.8440
 1.0730	39.8600
 1.0740	39.8720
 1.0750	39.8960
 1.0760	39.9050
 1.0770	39.9130
 1.0780	39.9190
 1.0790	39.9130
 1.0800	39.9150
 1.0810	39.9270
 1.0820	39.9260
 1.0830	39.9200
 1.0840	39.9110
 1.0850	39.8860
 1.0860	39.8690
 1.0870	39.8700
 1.0880	39.8790
 1.0890	39.8890
 1.0900	39.9270
 1.0910	39.9270
 1.0920	39.9070
 1.0930	39.8970
 1.0940	39.8710
 1.0950	39.8570
 1.0960	39.8490
 1.0970	39.8420
 1.0980	39.8400
 1.0990	39.8330
 1.1000	39.8310
 1.1010	39.8210
 1.1020	39.7930
 1.1030	39.7820
 1.1040	39.7860
 1.1050	39.7990
 1.1060	39.8090
 1.1070	39.8440
 1.1080	39.8420
 1.1090	39.8190
 1.1100	39.8030
 1.1110	39.7720
 1.1120	39.7560
 1.1130	39.7440
 1.1140	39.7360
 1.1150	39.7360
 1.1160	39.7310
 1.1170	39.7310
 1.1180	39.7260
 1.1190	39.7150
 1.1200	39.7090
 1.1210	39.6980
 1.1220	39.6920
 1.1230	39.6830
 1.1240	39.6760
 1.1250	39.6620
 1.1260	39.6470
 1.1270	39.6220
 1.1280	39.5880
 1.1290	39.5580
 1.1300	39.5170
 1.1310	39.4910
 1.1320	39.4780
 1.1330	39.4570
 1.1340	39.4470
 1.1350	39.4200
 1.1360	39.3800
 1.1370	39.3360
 1.1380	39.2980
 1.1390	39.2580
 1.1400	39.2170
 1.1410	39.1830
 1.1420	39.1280
 1.1430	39.0640
 1.1440	39.0190
 1.1450	38.9750
 1.1460	38.9330
 1.1470	38.9100
 1.1480	38.8700
 1.1490	38.8180
 1.1500	38.7720
 1.1510	38.7250
 1.1520	38.6790
 1.1530	38.6340
 1.1540	38.5930
 1.1550	38.5500
 1.1560	38.5110
 1.1570	38.4900
 1.1580	38.4650
 1.1590	38.4460
 1.1600	38.4280
 1.1610	38.3990
 1.1620	38.3800
 1.1630	38.3770
 1.1640	38.3790
 1.1650	38.3760
 1.1660	38.3900
 1.1670	38.3820
 1.1680	38.3570
 1.1690	38.3340
 1.1700	38.2970
 1.1710	38.2740
 1.1720	38.2570
 1.1730	38.2430
 1.1740	38.2350
 1.1750	38.2390
 1.1760	38.2350
 1.1770	38.2260
 1.1780	38.2150
 1.1790	38.1950
 1.1800	38.1730
 1.1810	38.1600
 1.1820	38.1550
 1.1830	38.1480
 1.1840	38.1470
 1.1850	38.1370
 1.1860	38.1250
 1.1870	38.1150
 1.1880	38.1030
 1.1890	38.0900
 1.1900	38.0770
 1.1910	38.0530
 1.1920	38.0450
 1.1930	38.0520
 1.1940	38.0440
 1.1950	38.0390
 1.1960	38.0350
 1.1970	38.0110
 1.1980	37.9870
 1.1990	37.9730
 1.2000	37.9730
 1.2010	37.9790
 1.2020	37.9880
 1.2030	37.9940
 1.2040	37.9890
 1.2050	37.9920
 1.2060	37.9910
 1.2070	37.9820
 1.2080	37.9840
 1.2090	37.9840
 1.2100	37.9840
 1.2110	37.9850
 1.2120	37.9910
 1.2130	37.9970
 1.2140	38.0030
 1.2150	38.0070
 1.2160	38.0130
 1.2170	38.0190
 1.2180	38.0280
 1.2190	38.0400
 1.2200	38.0530
 1.2210	38.0610
 1.2220	38.0630
 1.2230	38.0600
 1.2240	38.0670
 1.2250	38.0800
 1.2260	38.0800
 1.2270	38.0870
 1.2280	38.0900
 1.2290	38.0900
 1.2300	38.0970
 1.2310	38.1130
 1.2320	38.1380
 1.2330	38.1450
 1.2340	38.1520
 1.2350	38.1610
 1.2360	38.1680
 1.2370	38.1670
 1.2380	38.1760
 1.2390	38.1850
 1.2400	38.1940
 1.2410	38.1950
 1.2420	38.1980
 1.2430	38.2160
 1.2440	38.2200
 1.2450	38.2200
 1.2460	38.2360
 1.2470	38.2400
 1.2480	38.2420
 1.2490	38.2570
 1.2500	38.2610
 1.2510	38.2550
 1.2520	38.2540
 1.2530	38.2430
 1.2540	38.2300
 1.2550	38.2310
 1.2560	38.2290
 1.2570	38.2310
 1.2580	38.2410
 1.2590	38.2450
 1.2600	38.2490
 1.2610	38.2520
 1.2620	38.2510
 1.2630	38.2490
 1.2640	38.2530
 1.2650	38.2530
 1.2660	38.2550
 1.2670	38.2490
 1.2680	38.2360
 1.2690	38.2250
 1.2700	38.2200
 1.2710	38.2150
 1.2720	38.2070
 1.2730	38.2020
 1.2740	38.1900
 1.2750	38.1730
 1.2760	38.1650
 1.2770	38.1660
 1.2780	38.1570
 1.2790	38.1480
 1.2800	38.1510
 1.2810	38.1390
 1.2820	38.1210
 1.2830	38.1210
 1.2840	38.1190
 1.2850	38.1090
 1.2860	38.1080
 1.2870	38.1030
 1.2880	38.0930
 1.2890	38.0740
 1.2900	38.0590
 1.2910	38.0500
 1.2920	38.0470
 1.2930	38.0450
 1.2940	38.0390
 1.2950	38.0270
 1.2960	38.0130
 1.2970	37.9870
 1.2980	37.9610
 1.2990	37.9440
 1.3000	37.9180
 1.3010	37.9000
 1.3020	37.8910
 1.3030	37.8760
 1.3040	37.8570
 1.3050	37.8310
 1.3060	37.8020
 1.3070	37.7840
 1.3080	37.7670
 1.3090	37.7440
 1.3100	37.7180
 1.3110	37.6840
 1.3120	37.6400
 1.3130	37.5990
 1.3140	37.5650
 1.3150	37.5360
 1.3160	37.5060
 1.3170	37.4800
 1.3180	37.4540
 1.3190	37.4240
 1.3200	37.3870
 1.3210	37.3460
 1.3220	37.3040
 1.3230	37.2640
 1.3240	37.2180
 1.3250	37.1730
 1.3260	37.1300
 1.3270	37.0770
 1.3280	37.0230
 1.3290	36.9740
 1.3300	36.9250
 1.3310	36.8700
 1.3320	36.8230
 1.3330	36.7820
 1.3340	36.7370
 1.3350	36.6910
 1.3360	36.6420
 1.3370	36.5940
 1.3380	36.5430
 1.3390	36.4980
 1.3400	36.4490
 1.3410	36.3820
 1.3420	36.3190
 1.3430	36.2550
 1.3440	36.1940
 1.3450	36.1360
 1.3460	36.0860
 1.3470	36.0320
 1.3480	35.9800
 1.3490	35.9280
 1.3500	35.8750
 1.3510	35.8240
 1.3520	35.7740
 1.3530	35.7170
 1.3540	35.6610
 1.3550	35.6140
 1.3560	35.5560
 1.3570	35.5040
 1.3580	35.4560
 1.3590	35.3960
 1.3600	35.3410
 1.3610	35.2830
 1.3620	35.2240
 1.3630	35.1620
 1.3640	35.0920
 1.3650	35.0240
 1.3660	34.9560
 1.3670	34.8890
 1.3680	34.8250
 1.3690	34.7460
 1.3700	34.6600
 1.3710	34.5660
 1.3720	34.4610
 1.3730	34.3590
 1.3740	34.2420
 1.3750	34.1130
 1.3760	33.9790
 1.3770	33.8300
 1.3780	33.6700
 1.3790	33.5020
 1.3800	33.3180
 1.3810	33.1160
 1.3820	32.9020
 1.3830	32.6710
 1.3840	32.4300
 1.3850	32.1770
 1.3860	31.9100
 1.3870	31.6310
 1.3880	31.3400
 1.3890	31.0340
 1.3900	30.7170
 1.3910	30.3960
 1.3920	30.0670
 1.3930	29.7290
 1.3940	29.3880
 1.3950	29.0380
 1.3960	28.6850
 1.3970	28.3300
 1.3980	27.9720
 1.3990	27.6210
 1.4000	27.2730
 1.4010	26.9320
 1.4020	26.5980
 1.4030	26.2700
 1.4040	25.9500
 1.4050	25.6360
 1.4060	25.3320
 1.4070	25.0420
 1.4080	24.7630
 1.4090	24.4970
 1.4100	24.2470
 1.4110	24.0030
 1.4120	23.7730
 1.4130	23.5600
 1.4140	23.3530
 1.4150	23.1630
 1.4160	22.9820
 1.4170	22.8080
 1.4180	22.6480
 1.4190	22.5000
 1.4200	22.3610
 1.4210	22.2270
 1.4220	22.1000
 1.4230	21.9850
 1.4240	21.8760
 1.4250	21.7740
 1.4260	21.6840
 1.4270	21.6040
 1.4280	21.5340
 1.4290	21.4660
 1.4300	21.4100
 1.4310	21.3510
 1.4320	21.2880
 1.4330	21.2390
 1.4340	21.1970
 1.4350	21.1600
 1.4360	21.1320
 1.4370	21.1060
 1.4380	21.0800
 1.4390	21.0660
 1.4400	21.0590
 1.4410	21.0550
 1.4420	21.0530
 1.4430	21.0460
 1.4440	21.0350
 1.4450	21.0250
 1.4460	21.0230
 1.4470	21.0300
 1.4480	21.0370
 1.4490	21.0470
 1.4500	21.0520
 1.4510	21.0530
 1.4520	21.0580
 1.4530	21.0650
 1.4540	21.0750
 1.4550	21.0930
 1.4560	21.1100
 1.4570	21.1300
 1.4580	21.1560
 1.4590	21.1780
 1.4600	21.2080
 1.4610	21.2440
 1.4620	21.2770
 1.4630	21.3160
 1.4640	21.3540
 1.4650	21.3950
 1.4660	21.4480
 1.4670	21.5010
 1.4680	21.5590
 1.4690	21.6280
 1.4700	21.6940
 1.4710	21.7670
 1.4720	21.8460
 1.4730	21.9200
 1.4740	21.9950
 1.4750	22.0740
 1.4760	22.1550
 1.4770	22.2370
 1.4780	22.3220
 1.4790	22.4140
 1.4800	22.5050
 1.4810	22.6000
