Name: Salvia leucophylla 3
Type: vegetation
Class: Shrub
Genus: Salvia
Species: leucophylla
Sample No.: VH191
Owner: UCSB
Wavelength Range: VSWIR
Origin: 34.698; -120.0477; WGS84
Collection Date: 6/9/2013
Description: Samples were collected as part of the HyspIRI Airborne Campaign. 48 individual plants were sampled in three times in 2013 - spring  summer  and fall. The name of the sample includes a 1  2  or 3 which references a different individual of the species. Samples were taken to JPL and processed within 48 hours of collection. The same leaves were processed in the Nicolet and then measured using the ASD.
Measurement: Bidirectional reflectance
First Column: X
Second Column: Y
X Units: Wavelength (micrometers)
Y Units: Reflectance (percentage)
First X Value: 0.35
Last X Value: 2.5
Number of X Values: 2151
Additional Information: vegetation.shrub.salvia.leucophylla.vswir.vh191.ucsb.asd.ancillary.txt

 0.3500	 5.8030
 0.3510	 5.7060
 0.3520	 5.7020
 0.3530	 5.7420
 0.3540	 5.7480
 0.3550	 5.7510
 0.3560	 5.7320
 0.3570	 5.7100
 0.3580	 5.7260
 0.3590	 5.8020
 0.3600	 5.8670
 0.3610	 5.8590
 0.3620	 5.7210
 0.3630	 5.7680
 0.3640	 5.8630
 0.3650	 5.8320
 0.3660	 5.8390
 0.3670	 5.9070
 0.3680	 6.0190
 0.3690	 6.1430
 0.3700	 6.1940
 0.3710	 6.2040
 0.3720	 6.2110
 0.3730	 6.2100
 0.3740	 6.2940
 0.3750	 6.4270
 0.3760	 6.5090
 0.3770	 6.4240
 0.3780	 6.4160
 0.3790	 6.5270
 0.3800	 6.6090
 0.3810	 6.6810
 0.3820	 6.7200
 0.3830	 6.7160
 0.3840	 6.6950
 0.3850	 6.7410
 0.3860	 6.8490
 0.3870	 6.9730
 0.3880	 7.0810
 0.3890	 7.0570
 0.3900	 6.9800
 0.3910	 7.1100
 0.3920	 7.2200
 0.3930	 7.2430
 0.3940	 7.1890
 0.3950	 7.1890
 0.3960	 7.2470
 0.3970	 7.3240
 0.3980	 7.3710
 0.3990	 7.3830
 0.4000	 7.4210
 0.4010	 7.4830
 0.4020	 7.5000
 0.4030	 7.5220
 0.4040	 7.5380
 0.4050	 7.5300
 0.4060	 7.5540
 0.4070	 7.5770
 0.4080	 7.6020
 0.4090	 7.6460
 0.4100	 7.6900
 0.4110	 7.7360
 0.4120	 7.7810
 0.4130	 7.7800
 0.4140	 7.8320
 0.4150	 7.8790
 0.4160	 7.8670
 0.4170	 7.9340
 0.4180	 8.0030
 0.4190	 8.0490
 0.4200	 8.1160
 0.4210	 8.1630
 0.4220	 8.2120
 0.4230	 8.2770
 0.4240	 8.3190
 0.4250	 8.3750
 0.4260	 8.4350
 0.4270	 8.4770
 0.4280	 8.5450
 0.4290	 8.6040
 0.4300	 8.6430
 0.4310	 8.6940
 0.4320	 8.7590
 0.4330	 8.8240
 0.4340	 8.8860
 0.4350	 8.9520
 0.4360	 9.0130
 0.4370	 9.0590
 0.4380	 9.0890
 0.4390	 9.1230
 0.4400	 9.1650
 0.4410	 9.2150
 0.4420	 9.2590
 0.4430	 9.3060
 0.4440	 9.3520
 0.4450	 9.3910
 0.4460	 9.4280
 0.4470	 9.4710
 0.4480	 9.5140
 0.4490	 9.5370
 0.4500	 9.5750
 0.4510	 9.6170
 0.4520	 9.6510
 0.4530	 9.6940
 0.4540	 9.7290
 0.4550	 9.7570
 0.4560	 9.7920
 0.4570	 9.8370
 0.4580	 9.8730
 0.4590	 9.8960
 0.4600	 9.9220
 0.4610	 9.9510
 0.4620	 9.9860
 0.4630	10.0260
 0.4640	10.0540
 0.4650	10.0810
 0.4660	10.1170
 0.4670	10.1590
 0.4680	10.1870
 0.4690	10.2100
 0.4700	10.2380
 0.4710	10.2710
 0.4720	10.2920
 0.4730	10.3080
 0.4740	10.3410
 0.4750	10.3690
 0.4760	10.3890
 0.4770	10.4050
 0.4780	10.4210
 0.4790	10.4390
 0.4800	10.4640
 0.4810	10.4980
 0.4820	10.5220
 0.4830	10.5450
 0.4840	10.5750
 0.4850	10.6130
 0.4860	10.6400
 0.4870	10.6690
 0.4880	10.7090
 0.4890	10.7440
 0.4900	10.7780
 0.4910	10.8170
 0.4920	10.8650
 0.4930	10.9150
 0.4940	10.9730
 0.4950	11.0370
 0.4960	11.0950
 0.4970	11.1660
 0.4980	11.2430
 0.4990	11.3160
 0.5000	11.3910
 0.5010	11.4740
 0.5020	11.5680
 0.5030	11.6720
 0.5040	11.7770
 0.5050	11.8880
 0.5060	12.0040
 0.5070	12.1290
 0.5080	12.2590
 0.5090	12.3950
 0.5100	12.5380
 0.5110	12.6830
 0.5120	12.8310
 0.5130	12.9860
 0.5140	13.1540
 0.5150	13.3260
 0.5160	13.4940
 0.5170	13.6580
 0.5180	13.8320
 0.5190	14.0050
 0.5200	14.1780
 0.5210	14.3560
 0.5220	14.5260
 0.5230	14.6940
 0.5240	14.8640
 0.5250	15.0300
 0.5260	15.1920
 0.5270	15.3520
 0.5280	15.5130
 0.5290	15.6680
 0.5300	15.8150
 0.5310	15.9570
 0.5320	16.1010
 0.5330	16.2420
 0.5340	16.3810
 0.5350	16.5210
 0.5360	16.6500
 0.5370	16.7830
 0.5380	16.9200
 0.5390	17.0540
 0.5400	17.1830
 0.5410	17.3200
 0.5420	17.4690
 0.5430	17.6020
 0.5440	17.7270
 0.5450	17.8450
 0.5460	17.9530
 0.5470	18.0430
 0.5480	18.1270
 0.5490	18.2170
 0.5500	18.3220
 0.5510	18.4210
 0.5520	18.5130
 0.5530	18.6010
 0.5540	18.6890
 0.5550	18.7720
 0.5560	18.8480
 0.5570	18.9230
 0.5580	19.0020
 0.5590	19.0820
 0.5600	19.1620
 0.5610	19.2410
 0.5620	19.3230
 0.5630	19.4050
 0.5640	19.4810
 0.5650	19.5450
 0.5660	19.6030
 0.5670	19.6620
 0.5680	19.7240
 0.5690	19.7800
 0.5700	19.8290
 0.5710	19.8750
 0.5720	19.9260
 0.5730	19.9830
 0.5740	20.0420
 0.5750	20.0970
 0.5760	20.1520
 0.5770	20.2090
 0.5780	20.2680
 0.5790	20.3350
 0.5800	20.3960
 0.5810	20.4490
 0.5820	20.4960
 0.5830	20.5390
 0.5840	20.5810
 0.5850	20.6220
 0.5860	20.6630
 0.5870	20.7130
 0.5880	20.7690
 0.5890	20.8220
 0.5900	20.8730
 0.5910	20.9230
 0.5920	20.9780
 0.5930	21.0440
 0.5940	21.1100
 0.5950	21.1750
 0.5960	21.2350
 0.5970	21.2860
 0.5980	21.3310
 0.5990	21.3750
 0.6000	21.4260
 0.6010	21.4760
 0.6020	21.5230
 0.6030	21.5660
 0.6040	21.6100
 0.6050	21.6520
 0.6060	21.6920
 0.6070	21.7310
 0.6080	21.7720
 0.6090	21.8160
 0.6100	21.8700
 0.6110	21.9370
 0.6120	21.9620
 0.6130	21.9660
 0.6140	21.9720
 0.6150	21.9850
 0.6160	22.0010
 0.6170	22.0210
 0.6180	22.0470
 0.6190	22.0740
 0.6200	22.1040
 0.6210	22.1360
 0.6220	22.1690
 0.6230	22.2020
 0.6240	22.2420
 0.6250	22.2900
 0.6260	22.3370
 0.6270	22.3810
 0.6280	22.4270
 0.6290	22.4770
 0.6300	22.5250
 0.6310	22.5680
 0.6320	22.6040
 0.6330	22.6330
 0.6340	22.6520
 0.6350	22.6600
 0.6360	22.6550
 0.6370	22.6380
 0.6380	22.6020
 0.6390	22.5480
 0.6400	22.4830
 0.6410	22.4090
 0.6420	22.3210
 0.6430	22.2230
 0.6440	22.1330
 0.6450	22.0380
 0.6460	21.9410
 0.6470	21.8500
 0.6480	21.7730
 0.6490	21.7090
 0.6500	21.6590
 0.6510	21.6250
 0.6520	21.5950
 0.6530	21.5710
 0.6540	21.5500
 0.6550	21.5310
 0.6560	21.5070
 0.6570	21.4720
 0.6580	21.4220
 0.6590	21.3610
 0.6600	21.2890
 0.6610	21.2070
 0.6620	21.1110
 0.6630	21.0090
 0.6640	20.9020
 0.6650	20.7960
 0.6660	20.7000
 0.6670	20.6160
 0.6680	20.5420
 0.6690	20.4790
 0.6700	20.4370
 0.6710	20.4130
 0.6720	20.4040
 0.6730	20.4090
 0.6740	20.4390
 0.6750	20.4860
 0.6760	20.5420
 0.6770	20.6210
 0.6780	20.7120
 0.6790	20.8220
 0.6800	20.9660
 0.6810	21.1410
 0.6820	21.3600
 0.6830	21.6380
 0.6840	21.9760
 0.6850	22.3710
 0.6860	22.8230
 0.6870	23.3290
 0.6880	23.8770
 0.6890	24.4540
 0.6900	25.0520
 0.6910	25.6640
 0.6920	26.2700
 0.6930	26.8600
 0.6940	27.4300
 0.6950	27.9740
 0.6960	28.4930
 0.6970	28.9810
 0.6980	29.4340
 0.6990	29.8590
 0.7000	30.2560
 0.7010	30.6230
 0.7020	30.9560
 0.7030	31.2630
 0.7040	31.5510
 0.7050	31.8220
 0.7060	32.0670
 0.7070	32.2940
 0.7080	32.5050
 0.7090	32.6990
 0.7100	32.8780
 0.7110	33.0480
 0.7120	33.2100
 0.7130	33.3610
 0.7140	33.5040
 0.7150	33.6410
 0.7160	33.7720
 0.7170	33.8920
 0.7180	34.0110
 0.7190	34.1280
 0.7200	34.2430
 0.7210	34.3510
 0.7220	34.4540
 0.7230	34.5550
 0.7240	34.6550
 0.7250	34.7520
 0.7260	34.8450
 0.7270	34.9370
 0.7280	35.0270
 0.7290	35.1170
 0.7300	35.2050
 0.7310	35.2900
 0.7320	35.3770
 0.7330	35.4590
 0.7340	35.5400
 0.7350	35.6240
 0.7360	35.7060
 0.7370	35.7850
 0.7380	35.8640
 0.7390	35.9410
 0.7400	36.0190
 0.7410	36.0980
 0.7420	36.1740
 0.7430	36.2510
 0.7440	36.3290
 0.7450	36.4070
 0.7460	36.4820
 0.7470	36.5540
 0.7480	36.6280
 0.7490	36.7060
 0.7500	36.7810
 0.7510	36.8550
 0.7520	36.9270
 0.7530	36.9970
 0.7540	37.0730
 0.7550	37.1490
 0.7560	37.2220
 0.7570	37.2940
 0.7580	37.3640
 0.7590	37.4340
 0.7600	37.5060
 0.7610	37.5820
 0.7620	37.6530
 0.7630	37.7220
 0.7640	37.7960
 0.7650	37.8720
 0.7660	37.9430
 0.7670	38.0100
 0.7680	38.0830
 0.7690	38.1510
 0.7700	38.2210
 0.7710	38.2940
 0.7720	38.3630
 0.7730	38.4320
 0.7740	38.5020
 0.7750	38.5720
 0.7760	38.6390
 0.7770	38.7100
 0.7780	38.7830
 0.7790	38.8530
 0.7800	38.9200
 0.7810	38.9870
 0.7820	39.0550
 0.7830	39.1190
 0.7840	39.1860
 0.7850	39.2510
 0.7860	39.3110
 0.7870	39.3790
 0.7880	39.4470
 0.7890	39.5100
 0.7900	39.5680
 0.7910	39.6300
 0.7920	39.6920
 0.7930	39.7510
 0.7940	39.8080
 0.7950	39.8680
 0.7960	39.9290
 0.7970	39.9880
 0.7980	40.0440
 0.7990	40.0970
 0.8000	40.1520
 0.8010	40.2130
 0.8020	40.2560
 0.8030	40.3080
 0.8040	40.3620
 0.8050	40.4050
 0.8060	40.4550
 0.8070	40.5030
 0.8080	40.5490
 0.8090	40.6000
 0.8100	40.6450
 0.8110	40.6890
 0.8120	40.7340
 0.8130	40.7770
 0.8140	40.8190
 0.8150	40.8580
 0.8160	40.8950
 0.8170	40.9400
 0.8180	40.9860
 0.8190	41.0280
 0.8200	41.0590
 0.8210	41.0910
 0.8220	41.1260
 0.8230	41.1630
 0.8240	41.2010
 0.8250	41.2350
 0.8260	41.2720
 0.8270	41.3120
 0.8280	41.3470
 0.8290	41.3800
 0.8300	41.4140
 0.8310	41.4470
 0.8320	41.4690
 0.8330	41.5060
 0.8340	41.5450
 0.8350	41.5670
 0.8360	41.6000
 0.8370	41.6350
 0.8380	41.6670
 0.8390	41.7030
 0.8400	41.7340
 0.8410	41.7680
 0.8420	41.8060
 0.8430	41.8460
 0.8440	41.8750
 0.8450	41.9010
 0.8460	41.9320
 0.8470	41.9670
 0.8480	42.0020
 0.8490	42.0360
 0.8500	42.0690
 0.8510	42.1030
 0.8520	42.1420
 0.8530	42.1780
 0.8540	42.2050
 0.8550	42.2380
 0.8560	42.2720
 0.8570	42.3060
 0.8580	42.3410
 0.8590	42.3780
 0.8600	42.4160
 0.8610	42.4560
 0.8620	42.4920
 0.8630	42.5230
 0.8640	42.5570
 0.8650	42.5970
 0.8660	42.6340
 0.8670	42.6710
 0.8680	42.7080
 0.8690	42.7460
 0.8700	42.7770
 0.8710	42.8130
 0.8720	42.8530
 0.8730	42.8960
 0.8740	42.9360
 0.8750	42.9750
 0.8760	43.0150
 0.8770	43.0540
 0.8780	43.0930
 0.8790	43.1330
 0.8800	43.1740
 0.8810	43.2090
 0.8820	43.2430
 0.8830	43.2810
 0.8840	43.3240
 0.8850	43.3620
 0.8860	43.4020
 0.8870	43.4380
 0.8880	43.4660
 0.8890	43.5030
 0.8900	43.5440
 0.8910	43.5860
 0.8920	43.6230
 0.8930	43.6570
 0.8940	43.6920
 0.8950	43.7290
 0.8960	43.7670
 0.8970	43.8060
 0.8980	43.8450
 0.8990	43.8780
 0.9000	43.9060
 0.9010	43.9470
 0.9020	43.9840
 0.9030	44.0120
 0.9040	44.0510
 0.9050	44.0880
 0.9060	44.1180
 0.9070	44.1490
 0.9080	44.1950
 0.9090	44.2260
 0.9100	44.2520
 0.9110	44.2850
 0.9120	44.3190
 0.9130	44.3520
 0.9140	44.3860
 0.9150	44.4200
 0.9160	44.4520
 0.9170	44.4790
 0.9180	44.5060
 0.9190	44.5400
 0.9200	44.5690
 0.9210	44.6020
 0.9220	44.6330
 0.9230	44.6560
 0.9240	44.6800
 0.9250	44.7070
 0.9260	44.7310
 0.9270	44.7500
 0.9280	44.7740
 0.9290	44.8110
 0.9300	44.8470
 0.9310	44.8600
 0.9320	44.8760
 0.9330	44.9010
 0.9340	44.9280
 0.9350	44.9370
 0.9360	44.9550
 0.9370	44.9810
 0.9380	45.0050
 0.9390	45.0080
 0.9400	45.0180
 0.9410	45.0360
 0.9420	45.0540
 0.9430	45.0570
 0.9440	45.0650
 0.9450	45.0760
 0.9460	45.0920
 0.9470	45.1150
 0.9480	45.1150
 0.9490	45.1100
 0.9500	45.1180
 0.9510	45.1300
 0.9520	45.1320
 0.9530	45.1300
 0.9540	45.1290
 0.9550	45.1190
 0.9560	45.1200
 0.9570	45.1250
 0.9580	45.1250
 0.9590	45.1210
 0.9600	45.1180
 0.9610	45.1130
 0.9620	45.1030
 0.9630	45.1050
 0.9640	45.1190
 0.9650	45.1340
 0.9660	45.1370
 0.9670	45.1250
 0.9680	45.1250
 0.9690	45.1320
 0.9700	45.1330
 0.9710	45.1570
 0.9720	45.1690
 0.9730	45.1700
 0.9740	45.1790
 0.9750	45.1820
 0.9760	45.1950
 0.9770	45.2090
 0.9780	45.2110
 0.9790	45.2270
 0.9800	45.2390
 0.9810	45.2430
 0.9820	45.2490
 0.9830	45.2600
 0.9840	45.2690
 0.9850	45.2870
 0.9860	45.3190
 0.9870	45.3290
 0.9880	45.3520
 0.9890	45.3720
 0.9900	45.3630
 0.9910	45.3760
 0.9920	45.4110
 0.9930	45.4330
 0.9940	45.4150
 0.9950	45.4330
 0.9960	45.4480
 0.9970	45.4550
 0.9980	45.4640
 0.9990	45.4670
 1.0000	45.5700
 1.0010	45.7270
 1.0020	45.8170
 1.0030	45.8300
 1.0040	45.8440
 1.0050	45.8560
 1.0060	45.8740
 1.0070	45.8930
 1.0080	45.9090
 1.0090	45.9250
 1.0100	45.9420
 1.0110	45.9590
 1.0120	45.9740
 1.0130	45.9860
 1.0140	46.0010
 1.0150	46.0150
 1.0160	46.0310
 1.0170	46.0510
 1.0180	46.0690
 1.0190	46.0860
 1.0200	46.1030
 1.0210	46.1140
 1.0220	46.1270
 1.0230	46.1420
 1.0240	46.1560
 1.0250	46.1700
 1.0260	46.1850
 1.0270	46.2020
 1.0280	46.2180
 1.0290	46.2310
 1.0300	46.2470
 1.0310	46.2610
 1.0320	46.2720
 1.0330	46.2810
 1.0340	46.2950
 1.0350	46.3070
 1.0360	46.3200
 1.0370	46.3340
 1.0380	46.3480
 1.0390	46.3640
 1.0400	46.3780
 1.0410	46.3910
 1.0420	46.4040
 1.0430	46.4180
 1.0440	46.4310
 1.0450	46.4440
 1.0460	46.4580
 1.0470	46.4710
 1.0480	46.4840
 1.0490	46.4970
 1.0500	46.5100
 1.0510	46.5210
 1.0520	46.5330
 1.0530	46.5460
 1.0540	46.5610
 1.0550	46.5750
 1.0560	46.5910
 1.0570	46.6030
 1.0580	46.6170
 1.0590	46.6270
 1.0600	46.6330
 1.0610	46.6410
 1.0620	46.6440
 1.0630	46.6530
 1.0640	46.6680
 1.0650	46.6800
 1.0660	46.6950
 1.0670	46.7070
 1.0680	46.7180
 1.0690	46.7270
 1.0700	46.7340
 1.0710	46.7400
 1.0720	46.7450
 1.0730	46.7490
 1.0740	46.7530
 1.0750	46.7560
 1.0760	46.7630
 1.0770	46.7730
 1.0780	46.7810
 1.0790	46.7920
 1.0800	46.8020
 1.0810	46.8060
 1.0820	46.8140
 1.0830	46.8240
 1.0840	46.8320
 1.0850	46.8370
 1.0860	46.8440
 1.0870	46.8490
 1.0880	46.8520
 1.0890	46.8580
 1.0900	46.8660
 1.0910	46.8720
 1.0920	46.8780
 1.0930	46.8830
 1.0940	46.8850
 1.0950	46.8900
 1.0960	46.8950
 1.0970	46.9000
 1.0980	46.9050
 1.0990	46.9100
 1.1000	46.9160
 1.1010	46.9200
 1.1020	46.9220
 1.1030	46.9250
 1.1040	46.9270
 1.1050	46.9320
 1.1060	46.9350
 1.1070	46.9410
 1.1080	46.9440
 1.1090	46.9440
 1.1100	46.9460
 1.1110	46.9500
 1.1120	46.9520
 1.1130	46.9540
 1.1140	46.9540
 1.1150	46.9530
 1.1160	46.9520
 1.1170	46.9520
 1.1180	46.9500
 1.1190	46.9460
 1.1200	46.9420
 1.1210	46.9380
 1.1220	46.9310
 1.1230	46.9270
 1.1240	46.9240
 1.1250	46.9180
 1.1260	46.9140
 1.1270	46.9010
 1.1280	46.8840
 1.1290	46.8660
 1.1300	46.8430
 1.1310	46.8200
 1.1320	46.7970
 1.1330	46.7710
 1.1340	46.7450
 1.1350	46.7130
 1.1360	46.6780
 1.1370	46.6420
 1.1380	46.6030
 1.1390	46.5590
 1.1400	46.5150
 1.1410	46.4740
 1.1420	46.4310
 1.1430	46.3830
 1.1440	46.3360
 1.1450	46.2890
 1.1460	46.2410
 1.1470	46.1920
 1.1480	46.1470
 1.1490	46.1030
 1.1500	46.0590
 1.1510	46.0170
 1.1520	45.9770
 1.1530	45.9360
 1.1540	45.9010
 1.1550	45.8680
 1.1560	45.8380
 1.1570	45.8110
 1.1580	45.7850
 1.1590	45.7590
 1.1600	45.7340
 1.1610	45.7100
 1.1620	45.6880
 1.1630	45.6700
 1.1640	45.6540
 1.1650	45.6390
 1.1660	45.6290
 1.1670	45.6160
 1.1680	45.6030
 1.1690	45.5900
 1.1700	45.5760
 1.1710	45.5620
 1.1720	45.5490
 1.1730	45.5350
 1.1740	45.5220
 1.1750	45.5080
 1.1760	45.4910
 1.1770	45.4760
 1.1780	45.4600
 1.1790	45.4460
 1.1800	45.4330
 1.1810	45.4180
 1.1820	45.4020
 1.1830	45.3850
 1.1840	45.3710
 1.1850	45.3590
 1.1860	45.3500
 1.1870	45.3440
 1.1880	45.3380
 1.1890	45.3350
 1.1900	45.3320
 1.1910	45.3300
 1.1920	45.3300
 1.1930	45.3310
 1.1940	45.3320
 1.1950	45.3360
 1.1960	45.3420
 1.1970	45.3460
 1.1980	45.3520
 1.1990	45.3610
 1.2000	45.3660
 1.2010	45.3730
 1.2020	45.3870
 1.2030	45.3980
 1.2040	45.4090
 1.2050	45.4220
 1.2060	45.4340
 1.2070	45.4480
 1.2080	45.4660
 1.2090	45.4850
 1.2100	45.5040
 1.2110	45.5250
 1.2120	45.5480
 1.2130	45.5710
 1.2140	45.5950
 1.2150	45.6180
 1.2160	45.6410
 1.2170	45.6650
 1.2180	45.6890
 1.2190	45.7150
 1.2200	45.7430
 1.2210	45.7680
 1.2220	45.7930
 1.2230	45.8190
 1.2240	45.8450
 1.2250	45.8710
 1.2260	45.8950
 1.2270	45.9180
 1.2280	45.9390
 1.2290	45.9590
 1.2300	45.9820
 1.2310	46.0040
 1.2320	46.0250
 1.2330	46.0420
 1.2340	46.0600
 1.2350	46.0790
 1.2360	46.0960
 1.2370	46.1130
 1.2380	46.1300
 1.2390	46.1450
 1.2400	46.1590
 1.2410	46.1740
 1.2420	46.1880
 1.2430	46.2000
 1.2440	46.2130
 1.2450	46.2240
 1.2460	46.2340
 1.2470	46.2440
 1.2480	46.2570
 1.2490	46.2690
 1.2500	46.2810
 1.2510	46.2940
 1.2520	46.3030
 1.2530	46.3110
 1.2540	46.3190
 1.2550	46.3260
 1.2560	46.3360
 1.2570	46.3460
 1.2580	46.3550
 1.2590	46.3620
 1.2600	46.3680
 1.2610	46.3740
 1.2620	46.3790
 1.2630	46.3830
 1.2640	46.3880
 1.2650	46.3930
 1.2660	46.3960
 1.2670	46.4010
 1.2680	46.4060
 1.2690	46.4080
 1.2700	46.4090
 1.2710	46.4120
 1.2720	46.4130
 1.2730	46.4160
 1.2740	46.4200
 1.2750	46.4200
 1.2760	46.4200
 1.2770	46.4200
 1.2780	46.4170
 1.2790	46.4170
 1.2800	46.4180
 1.2810	46.4170
 1.2820	46.4170
 1.2830	46.4170
 1.2840	46.4150
 1.2850	46.4140
 1.2860	46.4130
 1.2870	46.4100
 1.2880	46.4060
 1.2890	46.3980
 1.2900	46.3900
 1.2910	46.3810
 1.2920	46.3730
 1.2930	46.3650
 1.2940	46.3550
 1.2950	46.3430
 1.2960	46.3310
 1.2970	46.3150
 1.2980	46.3000
 1.2990	46.2830
 1.3000	46.2610
 1.3010	46.2410
 1.3020	46.2200
 1.3030	46.2040
 1.3040	46.1870
 1.3050	46.1670
 1.3060	46.1440
 1.3070	46.1190
 1.3080	46.0930
 1.3090	46.0660
 1.3100	46.0390
 1.3110	46.0110
 1.3120	45.9810
 1.3130	45.9520
 1.3140	45.9220
 1.3150	45.8910
 1.3160	45.8570
 1.3170	45.8230
 1.3180	45.7850
 1.3190	45.7470
 1.3200	45.7070
 1.3210	45.6620
 1.3220	45.6210
 1.3230	45.5790
 1.3240	45.5330
 1.3250	45.4900
 1.3260	45.4430
 1.3270	45.3940
 1.3280	45.3450
 1.3290	45.2940
 1.3300	45.2420
 1.3310	45.1890
 1.3320	45.1360
 1.3330	45.0830
 1.3340	45.0280
 1.3350	44.9730
 1.3360	44.9160
 1.3370	44.8580
 1.3380	44.7990
 1.3390	44.7380
 1.3400	44.6790
 1.3410	44.6200
 1.3420	44.5600
 1.3430	44.4990
 1.3440	44.4370
 1.3450	44.3740
 1.3460	44.3120
 1.3470	44.2490
 1.3480	44.1860
 1.3490	44.1220
 1.3500	44.0570
 1.3510	43.9920
 1.3520	43.9260
 1.3530	43.8600
 1.3540	43.7960
 1.3550	43.7300
 1.3560	43.6640
 1.3570	43.6010
 1.3580	43.5350
 1.3590	43.4680
 1.3600	43.3990
 1.3610	43.3280
 1.3620	43.2560
 1.3630	43.1830
 1.3640	43.1090
 1.3650	43.0340
 1.3660	42.9560
 1.3670	42.8760
 1.3680	42.7910
 1.3690	42.6990
 1.3700	42.6000
 1.3710	42.4960
 1.3720	42.3840
 1.3730	42.2650
 1.3740	42.1380
 1.3750	41.9990
 1.3760	41.8480
 1.3770	41.6870
 1.3780	41.5090
 1.3790	41.3210
 1.3800	41.1200
 1.3810	40.9040
 1.3820	40.6760
 1.3830	40.4380
 1.3840	40.1850
 1.3850	39.9200
 1.3860	39.6420
 1.3870	39.3490
 1.3880	39.0460
 1.3890	38.7310
 1.3900	38.4050
 1.3910	38.0720
 1.3920	37.7280
 1.3930	37.3750
 1.3940	37.0180
 1.3950	36.6520
 1.3960	36.2850
 1.3970	35.9160
 1.3980	35.5450
 1.3990	35.1820
 1.4000	34.8210
 1.4010	34.4630
 1.4020	34.1130
 1.4030	33.7660
 1.4040	33.4260
 1.4050	33.0980
 1.4060	32.7780
 1.4070	32.4740
 1.4080	32.1820
 1.4090	31.9000
 1.4100	31.6350
 1.4110	31.3810
 1.4120	31.1410
 1.4130	30.9150
 1.4140	30.7030
 1.4150	30.5060
 1.4160	30.3230
 1.4170	30.1490
 1.4180	29.9890
 1.4190	29.8400
 1.4200	29.7010
 1.4210	29.5740
 1.4220	29.4560
 1.4230	29.3500
 1.4240	29.2540
 1.4250	29.1650
 1.4260	29.0860
 1.4270	29.0120
 1.4280	28.9480
 1.4290	28.8890
 1.4300	28.8370
 1.4310	28.7910
 1.4320	28.7520
 1.4330	28.7170
 1.4340	28.6880
 1.4350	28.6650
 1.4360	28.6480
 1.4370	28.6340
 1.4380	28.6250
 1.4390	28.6190
 1.4400	28.6150
 1.4410	28.6160
 1.4420	28.6190
 1.4430	28.6250
 1.4440	28.6340
 1.4450	28.6440
 1.4460	28.6550
 1.4470	28.6670
 1.4480	28.6810
 1.4490	28.6970
 1.4500	28.7130
 1.4510	28.7310
 1.4520	28.7490
 1.4530	28.7670
 1.4540	28.7870
 1.4550	28.8100
 1.4560	28.8340
 1.4570	28.8600
 1.4580	28.8900
 1.4590	28.9200
 1.4600	28.9530
 1.4610	28.9900
 1.4620	29.0290
 1.4630	29.0720
 1.4640	29.1210
 1.4650	29.1730
 1.4660	29.2280
 1.4670	29.2870
 1.4680	29.3510
 1.4690	29.4190
 1.4700	29.4900
