Name: Betula lenta
Type: Vegetation
Class: Tree
Genus: Betula
Species: lenta
Sample No.: BELE-1-55
Owner: UCSB
Wavelength Range: VSWIR
Origin: USA; Massachusetts; Harvard Forest
Collection Date: 7/8/2013
Description: Samples were collected as part of NSF Macrosystem Biology proposal titled: Collaborative Research: Thermal controls on ecosystem metabolism and function: scaling from leaves to canopies to regions. Samples were collected and overnighted to JPL facilities for processing. The same leaves were processed in the Nicolet and then measured using the ASD.
Measurement: Bidirectional reflectance
First Column: X
Second Column: Y
X Units: Wavelength (micrometers)
Y Units: Reflectance (percentage)
First X Value: 0.35
Last X Value: 2.5
Number of X Values: 2151
Additional Information: vegetation.tree.betula.lenta.vswir.bele-1-55.ucsb.asd.ancillary.txt

 0.3500	 4.5200
 0.3510	 4.2570
 0.3520	 4.4640
 0.3530	 4.5700
 0.3540	 4.2150
 0.3550	 4.4970
 0.3560	 4.4080
 0.3570	 4.0940
 0.3580	 4.2200
 0.3590	 4.2300
 0.3600	 4.2420
 0.3610	 4.2930
 0.3620	 4.2080
 0.3630	 4.1920
 0.3640	 4.2780
 0.3650	 4.4030
 0.3660	 4.3410
 0.3670	 4.3240
 0.3680	 4.3490
 0.3690	 4.2650
 0.3700	 4.1680
 0.3710	 4.1380
 0.3720	 4.1970
 0.3730	 4.2810
 0.3740	 4.2500
 0.3750	 4.1680
 0.3760	 4.1470
 0.3770	 4.1690
 0.3780	 4.2090
 0.3790	 4.2630
 0.3800	 4.3320
 0.3810	 4.2120
 0.3820	 4.1140
 0.3830	 4.1510
 0.3840	 4.0700
 0.3850	 4.0760
 0.3860	 4.1570
 0.3870	 4.2200
 0.3880	 4.2060
 0.3890	 4.1660
 0.3900	 4.1640
 0.3910	 4.2690
 0.3920	 4.2780
 0.3930	 4.2540
 0.3940	 4.2660
 0.3950	 4.2340
 0.3960	 4.2130
 0.3970	 4.1900
 0.3980	 4.1360
 0.3990	 4.1740
 0.4000	 4.2100
 0.4010	 4.2070
 0.4020	 4.2240
 0.4030	 4.2360
 0.4040	 4.2490
 0.4050	 4.2720
 0.4060	 4.3190
 0.4070	 4.3200
 0.4080	 4.2900
 0.4090	 4.2970
 0.4100	 4.2880
 0.4110	 4.2750
 0.4120	 4.2640
 0.4130	 4.2390
 0.4140	 4.2570
 0.4150	 4.2850
 0.4160	 4.2790
 0.4170	 4.2600
 0.4180	 4.2820
 0.4190	 4.3180
 0.4200	 4.2730
 0.4210	 4.2980
 0.4220	 4.3160
 0.4230	 4.2750
 0.4240	 4.2910
 0.4250	 4.3120
 0.4260	 4.3320
 0.4270	 4.3550
 0.4280	 4.3320
 0.4290	 4.3130
 0.4300	 4.3200
 0.4310	 4.3340
 0.4320	 4.3460
 0.4330	 4.3600
 0.4340	 4.3790
 0.4350	 4.4020
 0.4360	 4.4040
 0.4370	 4.3800
 0.4380	 4.3490
 0.4390	 4.3420
 0.4400	 4.3390
 0.4410	 4.3270
 0.4420	 4.3100
 0.4430	 4.3280
 0.4440	 4.3450
 0.4450	 4.3110
 0.4460	 4.3010
 0.4470	 4.3100
 0.4480	 4.3280
 0.4490	 4.3420
 0.4500	 4.3380
 0.4510	 4.3380
 0.4520	 4.3570
 0.4530	 4.3600
 0.4540	 4.3510
 0.4550	 4.3470
 0.4560	 4.3640
 0.4570	 4.3600
 0.4580	 4.3600
 0.4590	 4.3740
 0.4600	 4.3610
 0.4610	 4.3570
 0.4620	 4.3630
 0.4630	 4.3670
 0.4640	 4.3590
 0.4650	 4.3560
 0.4660	 4.3600
 0.4670	 4.3540
 0.4680	 4.3530
 0.4690	 4.3480
 0.4700	 4.3350
 0.4710	 4.3560
 0.4720	 4.3690
 0.4730	 4.3610
 0.4740	 4.3390
 0.4750	 4.3490
 0.4760	 4.3580
 0.4770	 4.3500
 0.4780	 4.3430
 0.4790	 4.3510
 0.4800	 4.3610
 0.4810	 4.3550
 0.4820	 4.3580
 0.4830	 4.3670
 0.4840	 4.3750
 0.4850	 4.3760
 0.4860	 4.3770
 0.4870	 4.3830
 0.4880	 4.3920
 0.4890	 4.3970
 0.4900	 4.3980
 0.4910	 4.3980
 0.4920	 4.4010
 0.4930	 4.4200
 0.4940	 4.4380
 0.4950	 4.4470
 0.4960	 4.4550
 0.4970	 4.4590
 0.4980	 4.4610
 0.4990	 4.4660
 0.5000	 4.5010
 0.5010	 4.5310
 0.5020	 4.5460
 0.5030	 4.5660
 0.5040	 4.5970
 0.5050	 4.6260
 0.5060	 4.6500
 0.5070	 4.6880
 0.5080	 4.7360
 0.5090	 4.7910
 0.5100	 4.8490
 0.5110	 4.9130
 0.5120	 4.9880
 0.5130	 5.0740
 0.5140	 5.1660
 0.5150	 5.2670
 0.5160	 5.3820
 0.5170	 5.5120
 0.5180	 5.6360
 0.5190	 5.7800
 0.5200	 5.9380
 0.5210	 6.0850
 0.5220	 6.2510
 0.5230	 6.4220
 0.5240	 6.5890
 0.5250	 6.7540
 0.5260	 6.9140
 0.5270	 7.0660
 0.5280	 7.2090
 0.5290	 7.3390
 0.5300	 7.4610
 0.5310	 7.5750
 0.5320	 7.6780
 0.5330	 7.7700
 0.5340	 7.8530
 0.5350	 7.9270
 0.5360	 7.9850
 0.5370	 8.0390
 0.5380	 8.0920
 0.5390	 8.1420
 0.5400	 8.1920
 0.5410	 8.2400
 0.5420	 8.2870
 0.5430	 8.3380
 0.5440	 8.3860
 0.5450	 8.4260
 0.5460	 8.4540
 0.5470	 8.4510
 0.5480	 8.4380
 0.5490	 8.4320
 0.5500	 8.4380
 0.5510	 8.4430
 0.5520	 8.4410
 0.5530	 8.4300
 0.5540	 8.4080
 0.5550	 8.3750
 0.5560	 8.3310
 0.5570	 8.2760
 0.5580	 8.2140
 0.5590	 8.1440
 0.5600	 8.0680
 0.5610	 7.9930
 0.5620	 7.8980
 0.5630	 7.7910
 0.5640	 7.6860
 0.5650	 7.5780
 0.5660	 7.4600
 0.5670	 7.3350
 0.5680	 7.2180
 0.5690	 7.1020
 0.5700	 6.9880
 0.5710	 6.8790
 0.5720	 6.7710
 0.5730	 6.6640
 0.5740	 6.5590
 0.5750	 6.4600
 0.5760	 6.3790
 0.5770	 6.3050
 0.5780	 6.2320
 0.5790	 6.1690
 0.5800	 6.1090
 0.5810	 6.0520
 0.5820	 5.9970
 0.5830	 5.9380
 0.5840	 5.8880
 0.5850	 5.8470
 0.5860	 5.8100
 0.5870	 5.7810
 0.5880	 5.7530
 0.5890	 5.7170
 0.5900	 5.6840
 0.5910	 5.6510
 0.5920	 5.6210
 0.5930	 5.5960
 0.5940	 5.5750
 0.5950	 5.5530
 0.5960	 5.5300
 0.5970	 5.5140
 0.5980	 5.5060
 0.5990	 5.4960
 0.6000	 5.4750
 0.6010	 5.4540
 0.6020	 5.4320
 0.6030	 5.4090
 0.6040	 5.3810
 0.6050	 5.3530
 0.6060	 5.3240
 0.6070	 5.2940
 0.6080	 5.2680
 0.6090	 5.2470
 0.6100	 5.2280
 0.6110	 5.2100
 0.6120	 5.1770
 0.6130	 5.1300
 0.6140	 5.0810
 0.6150	 5.0450
 0.6160	 5.0110
 0.6170	 4.9810
 0.6180	 4.9580
 0.6190	 4.9360
 0.6200	 4.9170
 0.6210	 4.8990
 0.6220	 4.8760
 0.6230	 4.8600
 0.6240	 4.8500
 0.6250	 4.8430
 0.6260	 4.8360
 0.6270	 4.8270
 0.6280	 4.8190
 0.6290	 4.8140
 0.6300	 4.8120
 0.6310	 4.8110
 0.6320	 4.8040
 0.6330	 4.7900
 0.6340	 4.7780
 0.6350	 4.7640
 0.6360	 4.7440
 0.6370	 4.7270
 0.6380	 4.7090
 0.6390	 4.6850
 0.6400	 4.6560
 0.6410	 4.6280
 0.6420	 4.6010
 0.6430	 4.5770
 0.6440	 4.5560
 0.6450	 4.5320
 0.6460	 4.5120
 0.6470	 4.5030
 0.6480	 4.4860
 0.6490	 4.4680
 0.6500	 4.4540
 0.6510	 4.4470
 0.6520	 4.4380
 0.6530	 4.4320
 0.6540	 4.4270
 0.6550	 4.4140
 0.6560	 4.4060
 0.6570	 4.4020
 0.6580	 4.3990
 0.6590	 4.3920
 0.6600	 4.3810
 0.6610	 4.3710
 0.6620	 4.3700
 0.6630	 4.3620
 0.6640	 4.3590
 0.6650	 4.3650
 0.6660	 4.3650
 0.6670	 4.3690
 0.6680	 4.3770
 0.6690	 4.3840
 0.6700	 4.3950
 0.6710	 4.4120
 0.6720	 4.4330
 0.6730	 4.4490
 0.6740	 4.4690
 0.6750	 4.4920
 0.6760	 4.5170
 0.6770	 4.5510
 0.6780	 4.5830
 0.6790	 4.6130
 0.6800	 4.6480
 0.6810	 4.6870
 0.6820	 4.7250
 0.6830	 4.7600
 0.6840	 4.7950
 0.6850	 4.8320
 0.6860	 4.8700
 0.6870	 4.9080
 0.6880	 4.9570
 0.6890	 5.0130
 0.6900	 5.0790
 0.6910	 5.1660
 0.6920	 5.2860
 0.6930	 5.4390
 0.6940	 5.6320
 0.6950	 5.8840
 0.6960	 6.1910
 0.6970	 6.5590
 0.6980	 6.9950
 0.6990	 7.5030
 0.7000	 8.0710
 0.7010	 8.6970
 0.7020	 9.3860
 0.7030	10.1230
 0.7040	10.9000
 0.7050	11.7100
 0.7060	12.5490
 0.7070	13.4100
 0.7080	14.2870
 0.7090	15.1800
 0.7100	16.0790
 0.7110	16.9890
 0.7120	17.9070
 0.7130	18.8180
 0.7140	19.7270
 0.7150	20.6390
 0.7160	21.5490
 0.7170	22.4430
 0.7180	23.3290
 0.7190	24.2030
 0.7200	25.0590
 0.7210	25.8940
 0.7220	26.7140
 0.7230	27.5170
 0.7240	28.2900
 0.7250	29.0240
 0.7260	29.7310
 0.7270	30.4200
 0.7280	31.0860
 0.7290	31.7090
 0.7300	32.3010
 0.7310	32.8780
 0.7320	33.4080
 0.7330	33.9060
 0.7340	34.3810
 0.7350	34.8330
 0.7360	35.2570
 0.7370	35.6500
 0.7380	36.0150
 0.7390	36.3690
 0.7400	36.6870
 0.7410	36.9750
 0.7420	37.2520
 0.7430	37.5090
 0.7440	37.7370
 0.7450	37.9400
 0.7460	38.1390
 0.7470	38.3280
 0.7480	38.4900
 0.7490	38.6230
 0.7500	38.7530
 0.7510	38.8760
 0.7520	38.9830
 0.7530	39.0720
 0.7540	39.1610
 0.7550	39.2370
 0.7560	39.3000
 0.7570	39.3610
 0.7580	39.4100
 0.7590	39.4580
 0.7600	39.5090
 0.7610	39.5430
 0.7620	39.5700
 0.7630	39.5930
 0.7640	39.6110
 0.7650	39.6260
 0.7660	39.6430
 0.7670	39.6590
 0.7680	39.6720
 0.7690	39.6750
 0.7700	39.6810
 0.7710	39.6930
 0.7720	39.6950
 0.7730	39.6980
 0.7740	39.7000
 0.7750	39.7000
 0.7760	39.7000
 0.7770	39.7020
 0.7780	39.7040
 0.7790	39.7040
 0.7800	39.7080
 0.7810	39.7140
 0.7820	39.7180
 0.7830	39.7220
 0.7840	39.7210
 0.7850	39.7180
 0.7860	39.7150
 0.7870	39.7190
 0.7880	39.7250
 0.7890	39.7280
 0.7900	39.7260
 0.7910	39.7250
 0.7920	39.7230
 0.7930	39.7210
 0.7940	39.7220
 0.7950	39.7210
 0.7960	39.7200
 0.7970	39.7200
 0.7980	39.7150
 0.7990	39.7120
 0.8000	39.7130
 0.8010	39.7170
 0.8020	39.7160
 0.8030	39.7120
 0.8040	39.7130
 0.8050	39.7220
 0.8060	39.7120
 0.8070	39.6930
 0.8080	39.6810
 0.8090	39.6920
 0.8100	39.7010
 0.8110	39.6950
 0.8120	39.6770
 0.8130	39.6620
 0.8140	39.6660
 0.8150	39.6710
 0.8160	39.6610
 0.8170	39.6620
 0.8180	39.6510
 0.8190	39.6390
 0.8200	39.6450
 0.8210	39.6390
 0.8220	39.6280
 0.8230	39.6230
 0.8240	39.6270
 0.8250	39.6240
 0.8260	39.6130
 0.8270	39.6020
 0.8280	39.5930
 0.8290	39.5880
 0.8300	39.5880
 0.8310	39.5870
 0.8320	39.5700
 0.8330	39.5580
 0.8340	39.5550
 0.8350	39.5600
 0.8360	39.5590
 0.8370	39.5550
 0.8380	39.5480
 0.8390	39.5410
 0.8400	39.5350
 0.8410	39.5280
 0.8420	39.5250
 0.8430	39.5420
 0.8440	39.5320
 0.8450	39.5120
 0.8460	39.5050
 0.8470	39.5070
 0.8480	39.5020
 0.8490	39.4990
 0.8500	39.5060
 0.8510	39.5030
 0.8520	39.4990
 0.8530	39.4930
 0.8540	39.4810
 0.8550	39.4800
 0.8560	39.4830
 0.8570	39.4840
 0.8580	39.4760
 0.8590	39.4790
 0.8600	39.4810
 0.8610	39.4760
 0.8620	39.4740
 0.8630	39.4740
 0.8640	39.4700
 0.8650	39.4630
 0.8660	39.4700
 0.8670	39.4710
 0.8680	39.4650
 0.8690	39.4550
 0.8700	39.4510
 0.8710	39.4520
 0.8720	39.4520
 0.8730	39.4500
 0.8740	39.4530
 0.8750	39.4580
 0.8760	39.4570
 0.8770	39.4510
 0.8780	39.4520
 0.8790	39.4470
 0.8800	39.4380
 0.8810	39.4470
 0.8820	39.4470
 0.8830	39.4380
 0.8840	39.4290
 0.8850	39.4350
 0.8860	39.4460
 0.8870	39.4440
 0.8880	39.4240
 0.8890	39.4300
 0.8900	39.4310
 0.8910	39.4270
 0.8920	39.4270
 0.8930	39.4320
 0.8940	39.4300
 0.8950	39.4160
 0.8960	39.4030
 0.8970	39.4190
 0.8980	39.4300
 0.8990	39.4240
 0.9000	39.4230
 0.9010	39.4190
 0.9020	39.4140
 0.9030	39.4110
 0.9040	39.4120
 0.9050	39.4120
 0.9060	39.4100
 0.9070	39.4060
 0.9080	39.4060
 0.9090	39.4040
 0.9100	39.4040
 0.9110	39.4070
 0.9120	39.4020
 0.9130	39.4140
 0.9140	39.4190
 0.9150	39.3980
 0.9160	39.4010
 0.9170	39.4020
 0.9180	39.3970
 0.9190	39.3930
 0.9200	39.3890
 0.9210	39.3910
 0.9220	39.3930
 0.9230	39.3870
 0.9240	39.3800
 0.9250	39.3670
 0.9260	39.3510
 0.9270	39.3390
 0.9280	39.3290
 0.9290	39.3330
 0.9300	39.3480
 0.9310	39.3510
 0.9320	39.3450
 0.9330	39.3290
 0.9340	39.3070
 0.9350	39.2860
 0.9360	39.2660
 0.9370	39.2600
 0.9380	39.2660
 0.9390	39.2600
 0.9400	39.2610
 0.9410	39.2470
 0.9420	39.2170
 0.9430	39.2090
 0.9440	39.1870
 0.9450	39.1700
 0.9460	39.1700
 0.9470	39.1570
 0.9480	39.1350
 0.9490	39.1170
 0.9500	39.1050
 0.9510	39.0660
 0.9520	39.0410
 0.9530	39.0170
 0.9540	38.9790
 0.9550	38.9500
 0.9560	38.9370
 0.9570	38.9310
 0.9580	38.9150
 0.9590	38.8780
 0.9600	38.8550
 0.9610	38.8400
 0.9620	38.8160
 0.9630	38.7910
 0.9640	38.7760
 0.9650	38.7790
 0.9660	38.7940
 0.9670	38.7700
 0.9680	38.7480
 0.9690	38.7410
 0.9700	38.7480
 0.9710	38.7500
 0.9720	38.7420
 0.9730	38.7290
 0.9740	38.7170
 0.9750	38.7180
 0.9760	38.7330
 0.9770	38.7440
 0.9780	38.7360
 0.9790	38.7400
 0.9800	38.7310
 0.9810	38.7080
 0.9820	38.6930
 0.9830	38.7120
 0.9840	38.7150
 0.9850	38.7070
 0.9860	38.7160
 0.9870	38.7230
 0.9880	38.7280
 0.9890	38.7360
 0.9900	38.7530
 0.9910	38.7560
 0.9920	38.7680
 0.9930	38.7800
 0.9940	38.7910
 0.9950	38.8030
 0.9960	38.8150
 0.9970	38.8260
 0.9980	38.8380
 0.9990	38.8500
 1.0000	38.8610
 1.0010	38.8730
 1.0020	38.8850
 1.0030	38.8960
 1.0040	38.9080
 1.0050	38.9200
 1.0060	38.9320
 1.0070	38.9430
 1.0080	38.9550
 1.0090	38.9670
 1.0100	38.9670
 1.0110	38.9740
 1.0120	38.9790
 1.0130	38.9700
 1.0140	38.9740
 1.0150	38.9820
 1.0160	38.9900
 1.0170	39.0020
 1.0180	39.0130
 1.0190	39.0190
 1.0200	39.0300
 1.0210	39.0300
 1.0220	39.0340
 1.0230	39.0410
 1.0240	39.0480
 1.0250	39.0520
 1.0260	39.0600
 1.0270	39.0630
 1.0280	39.0550
 1.0290	39.0580
 1.0300	39.0680
 1.0310	39.0740
 1.0320	39.0860
 1.0330	39.0900
 1.0340	39.0880
 1.0350	39.0880
 1.0360	39.0900
 1.0370	39.0970
 1.0380	39.1020
 1.0390	39.1060
 1.0400	39.1160
 1.0410	39.1330
 1.0420	39.1370
 1.0430	39.1400
 1.0440	39.1440
 1.0450	39.1400
 1.0460	39.1380
 1.0470	39.1400
 1.0480	39.1440
 1.0490	39.1500
 1.0500	39.1510
 1.0510	39.1570
 1.0520	39.1600
 1.0530	39.1590
 1.0540	39.1500
 1.0550	39.1490
 1.0560	39.1500
 1.0570	39.1520
 1.0580	39.1560
 1.0590	39.1570
 1.0600	39.1570
 1.0610	39.1580
 1.0620	39.1580
 1.0630	39.1590
 1.0640	39.1650
 1.0650	39.1650
 1.0660	39.1620
 1.0670	39.1590
 1.0680	39.1560
 1.0690	39.1470
 1.0700	39.1470
 1.0710	39.1500
 1.0720	39.1510
 1.0730	39.1560
 1.0740	39.1570
 1.0750	39.1590
 1.0760	39.1580
 1.0770	39.1550
 1.0780	39.1520
 1.0790	39.1430
 1.0800	39.1390
 1.0810	39.1370
 1.0820	39.1320
 1.0830	39.1280
 1.0840	39.1240
 1.0850	39.1200
 1.0860	39.1120
 1.0870	39.1080
 1.0880	39.1060
 1.0890	39.1030
 1.0900	39.1010
 1.0910	39.0970
 1.0920	39.0920
 1.0930	39.0860
 1.0940	39.0780
 1.0950	39.0700
 1.0960	39.0610
 1.0970	39.0540
 1.0980	39.0460
 1.0990	39.0400
 1.1000	39.0360
 1.1010	39.0320
 1.1020	39.0260
 1.1030	39.0240
 1.1040	39.0210
 1.1050	39.0140
 1.1060	39.0080
 1.1070	39.0020
 1.1080	38.9940
 1.1090	38.9840
 1.1100	38.9740
 1.1110	38.9610
 1.1120	38.9510
 1.1130	38.9410
 1.1140	38.9320
 1.1150	38.9290
 1.1160	38.9200
 1.1170	38.9090
 1.1180	38.8980
 1.1190	38.8850
 1.1200	38.8710
 1.1210	38.8550
 1.1220	38.8420
 1.1230	38.8310
 1.1240	38.8150
 1.1250	38.7980
 1.1260	38.7830
 1.1270	38.7600
 1.1280	38.7300
 1.1290	38.7020
 1.1300	38.6700
 1.1310	38.6370
 1.1320	38.6030
 1.1330	38.5630
 1.1340	38.5200
 1.1350	38.4730
 1.1360	38.4210
 1.1370	38.3670
 1.1380	38.3180
 1.1390	38.2640
 1.1400	38.2060
 1.1410	38.1490
 1.1420	38.0910
 1.1430	38.0320
 1.1440	37.9750
 1.1450	37.9210
 1.1460	37.8650
 1.1470	37.8060
 1.1480	37.7510
 1.1490	37.6970
 1.1500	37.6460
 1.1510	37.5960
 1.1520	37.5520
 1.1530	37.5140
 1.1540	37.4780
 1.1550	37.4430
 1.1560	37.4140
 1.1570	37.3910
 1.1580	37.3700
 1.1590	37.3540
 1.1600	37.3420
 1.1610	37.3290
 1.1620	37.3150
 1.1630	37.3030
 1.1640	37.2930
 1.1650	37.2860
 1.1660	37.2820
 1.1670	37.2770
 1.1680	37.2750
 1.1690	37.2730
 1.1700	37.2710
 1.1710	37.2670
 1.1720	37.2600
 1.1730	37.2540
 1.1740	37.2450
 1.1750	37.2390
 1.1760	37.2350
 1.1770	37.2320
 1.1780	37.2270
 1.1790	37.2180
 1.1800	37.2090
 1.1810	37.2020
 1.1820	37.1970
 1.1830	37.1930
 1.1840	37.1870
 1.1850	37.1790
 1.1860	37.1700
 1.1870	37.1650
 1.1880	37.1610
 1.1890	37.1580
 1.1900	37.1550
 1.1910	37.1560
 1.1920	37.1550
 1.1930	37.1560
 1.1940	37.1560
 1.1950	37.1560
 1.1960	37.1510
 1.1970	37.1460
 1.1980	37.1470
 1.1990	37.1500
 1.2000	37.1510
 1.2010	37.1550
 1.2020	37.1570
 1.2030	37.1570
 1.2040	37.1600
 1.2050	37.1650
 1.2060	37.1710
 1.2070	37.1790
 1.2080	37.1850
 1.2090	37.1920
 1.2100	37.2020
 1.2110	37.2090
 1.2120	37.2170
 1.2130	37.2240
 1.2140	37.2270
 1.2150	37.2340
 1.2160	37.2440
 1.2170	37.2550
 1.2180	37.2690
 1.2190	37.2830
 1.2200	37.2950
 1.2210	37.3100
 1.2220	37.3220
 1.2230	37.3280
 1.2240	37.3380
 1.2250	37.3460
 1.2260	37.3520
 1.2270	37.3620
 1.2280	37.3720
 1.2290	37.3800
 1.2300	37.3890
 1.2310	37.3990
 1.2320	37.4080
 1.2330	37.4150
 1.2340	37.4230
 1.2350	37.4330
 1.2360	37.4390
 1.2370	37.4410
 1.2380	37.4490
 1.2390	37.4570
 1.2400	37.4630
 1.2410	37.4740
 1.2420	37.4820
 1.2430	37.4870
 1.2440	37.4900
 1.2450	37.4930
 1.2460	37.4970
 1.2470	37.4980
 1.2480	37.4990
 1.2490	37.5020
 1.2500	37.5040
 1.2510	37.5060
 1.2520	37.5130
 1.2530	37.5150
 1.2540	37.5180
 1.2550	37.5250
 1.2560	37.5290
 1.2570	37.5340
 1.2580	37.5380
 1.2590	37.5400
 1.2600	37.5380
 1.2610	37.5390
 1.2620	37.5390
 1.2630	37.5380
 1.2640	37.5350
 1.2650	37.5280
 1.2660	37.5230
 1.2670	37.5180
 1.2680	37.5160
 1.2690	37.5140
 1.2700	37.5100
 1.2710	37.5060
 1.2720	37.5000
 1.2730	37.4970
 1.2740	37.4960
 1.2750	37.4940
 1.2760	37.4940
 1.2770	37.4890
 1.2780	37.4830
 1.2790	37.4750
 1.2800	37.4650
 1.2810	37.4550
 1.2820	37.4440
 1.2830	37.4320
 1.2840	37.4190
 1.2850	37.4080
 1.2860	37.3980
 1.2870	37.3870
 1.2880	37.3760
 1.2890	37.3640
 1.2900	37.3520
 1.2910	37.3400
 1.2920	37.3250
 1.2930	37.3060
 1.2940	37.2870
 1.2950	37.2690
 1.2960	37.2490
 1.2970	37.2300
 1.2980	37.2090
 1.2990	37.1840
 1.3000	37.1600
 1.3010	37.1390
 1.3020	37.1180
 1.3030	37.0930
 1.3040	37.0640
 1.3050	37.0320
 1.3060	36.9980
 1.3070	36.9650
 1.3080	36.9300
 1.3090	36.8950
 1.3100	36.8600
 1.3110	36.8200
 1.3120	36.7790
 1.3130	36.7380
 1.3140	36.6960
 1.3150	36.6510
 1.3160	36.6070
 1.3170	36.5630
 1.3180	36.5170
 1.3190	36.4660
 1.3200	36.4130
 1.3210	36.3600
 1.3220	36.3050
 1.3230	36.2490
 1.3240	36.1910
 1.3250	36.1320
 1.3260	36.0740
 1.3270	36.0170
 1.3280	35.9610
 1.3290	35.9010
 1.3300	35.8400
 1.3310	35.7770
 1.3320	35.7110
 1.3330	35.6460
 1.3340	35.5820
 1.3350	35.5170
 1.3360	35.4520
 1.3370	35.3840
 1.3380	35.3170
 1.3390	35.2490
 1.3400	35.1790
 1.3410	35.1090
 1.3420	35.0410
 1.3430	34.9740
 1.3440	34.9070
 1.3450	34.8390
 1.3460	34.7730
 1.3470	34.7060
 1.3480	34.6370
 1.3490	34.5700
 1.3500	34.5040
 1.3510	34.4390
 1.3520	34.3760
 1.3530	34.3090
 1.3540	34.2430
 1.3550	34.1760
 1.3560	34.1070
 1.3570	34.0380
 1.3580	33.9690
 1.3590	33.8980
 1.3600	33.8270
 1.3610	33.7540
 1.3620	33.6790
 1.3630	33.6000
 1.3640	33.5110
 1.3650	33.4180
 1.3660	33.3170
 1.3670	33.2100
 1.3680	33.1040
 1.3690	32.9890
 1.3700	32.8650
 1.3710	32.7360
 1.3720	32.5960
 1.3730	32.4480
 1.3740	32.2900
 1.3750	32.1180
 1.3760	31.9330
 1.3770	31.7310
 1.3780	31.5090
 1.3790	31.2750
 1.3800	31.0230
 1.3810	30.7530
 1.3820	30.4700
 1.3830	30.1760
 1.3840	29.8650
 1.3850	29.5400
 1.3860	29.2040
 1.3870	28.8510
 1.3880	28.4920
 1.3890	28.1210
 1.3900	27.7400
 1.3910	27.3560
 1.3920	26.9630
 1.3930	26.5600
 1.3940	26.1570
 1.3950	25.7480
 1.3960	25.3390
 1.3970	24.9350
 1.3980	24.5350
 1.3990	24.1440
 1.4000	23.7630
 1.4010	23.3890
 1.4020	23.0280
 1.4030	22.6760
 1.4040	22.3390
 1.4050	22.0170
 1.4060	21.7090
 1.4070	21.4200
 1.4080	21.1430
 1.4090	20.8800
 1.4100	20.6350
 1.4110	20.4050
 1.4120	20.1910
 1.4130	19.9900
 1.4140	19.8030
 1.4150	19.6330
 1.4160	19.4750
 1.4170	19.3310
 1.4180	19.2030
 1.4190	19.0820
 1.4200	18.9700
 1.4210	18.8690
 1.4220	18.7750
 1.4230	18.6920
 1.4240	18.6180
 1.4250	18.5510
 1.4260	18.4930
 1.4270	18.4410
 1.4280	18.3980
 1.4290	18.3580
 1.4300	18.3230
 1.4310	18.2940
 1.4320	18.2700
 1.4330	18.2500
 1.4340	18.2340
 1.4350	18.2230
 1.4360	18.2160
 1.4370	18.2120
 1.4380	18.2110
 1.4390	18.2140
 1.4400	18.2180
 1.4410	18.2270
 1.4420	18.2390
 1.4430	18.2520
 1.4440	18.2690
 1.4450	18.2860
 1.4460	18.3040
 1.4470	18.3250
 1.4480	18.3440
 1.4490	18.3640
 1.4500	18.3860
 1.4510	18.4090
 1.4520	18.4340
 1.4530	18.4610
 1.4540	18.4890
 1.4550	18.5200
 1.4560	18.5510
 1.4570	18.5850
 1.4580	18.6240
 1.4590	18.6630
 1.4600	18.7060
 1.4610	18.7550
 1.4620	18.8070
 1.4630	18.8640
 1.4640	18.9260
 1.4650	18.9920
 1.4660	19.0610
 1.4670	19.1360
 1.4680	19.2150
 1.4690	19.2980
 1.4700	19.3840
 1.4710	19.4730
 1.4720	19.5660
 1.4730	19.6640
