Name: Arctostaphylos glandulosa 2
Type: vegetation
Class: Shrub
Genus: Arctostaphylos
Species: glandulosa
Sample No.: VH055
Owner: UCSB
Wavelength Range: TIR
Origin: 37.0441; -119.3033; WGS84
Collection Date: 4/20/2013
Description: Samples were collected as part of the HyspIRI Airborne Campaign. 48 individual plants were sampled in three times in 2013 - spring  summer  and fall. The name of the sample includes a 1  2  or 3 which references a different individual of the species. Samples were taken to JPL and processed within 48 hours of collection. The same leaves were processed in the Nicolet and then measured using the ASD.
Measurement: Hemispherical reflectance
First Column: X
Second Column: Y
X Units: Wavelength (micrometers)
Y Units: Reflectance (percentage)
First X Value: 2.501
Last X Value: 15.387
Number of X Values: 1737
Additional Information: vegetation.shrub.arctostaphylos.glandulosa.tir.vh055.ucsb.nicolet.ancillary.txt

 2.5010	 6.6230
 2.5030	 6.5250
 2.5040	 6.5210
 2.5050	 6.4630
 2.5060	 6.3960
 2.5070	 6.4600
 2.5090	 6.3780
 2.5100	 6.2560
 2.5110	 6.4100
 2.5120	 6.5180
 2.5140	 6.5140
 2.5150	 6.5400
 2.5160	 6.5350
 2.5170	 6.5350
 2.5180	 6.4240
 2.5200	 6.2510
 2.5210	 6.3120
 2.5220	 6.4130
 2.5230	 6.5540
 2.5250	 6.6070
 2.5260	 6.5410
 2.5270	 6.4770
 2.5280	 6.3600
 2.5290	 6.3890
 2.5310	 6.4440
 2.5320	 6.4090
 2.5330	 6.4670
 2.5340	 6.3970
 2.5360	 6.3150
 2.5370	 6.4290
 2.5380	 6.3830
 2.5390	 6.2760
 2.5410	 6.3470
 2.5420	 6.4230
 2.5430	 6.4750
 2.5440	 6.3910
 2.5460	 6.5610
 2.5470	 6.6400
 2.5480	 6.6120
 2.5490	 6.5770
 2.5510	 6.4770
 2.5520	 6.4010
 2.5530	 6.5020
 2.5540	 6.5030
 2.5560	 6.5040
 2.5570	 6.5150
 2.5580	 6.4840
 2.5590	 6.5110
 2.5610	 6.5710
 2.5620	 6.4510
 2.5630	 6.4270
 2.5640	 6.4700
 2.5660	 6.5410
 2.5670	 6.6590
 2.5680	 6.7360
 2.5700	 6.6640
 2.5710	 6.6660
 2.5720	 6.6230
 2.5730	 6.5390
 2.5750	 6.4200
 2.5760	 6.4960
 2.5770	 6.6260
 2.5790	 6.5970
 2.5800	 6.5790
 2.5810	 6.5410
 2.5820	 6.4850
 2.5840	 6.4010
 2.5850	 6.5310
 2.5860	 6.7410
 2.5880	 6.7880
 2.5890	 6.7900
 2.5900	 6.7390
 2.5910	 6.7760
 2.5930	 6.5940
 2.5940	 6.4880
 2.5950	 6.3780
 2.5970	 6.3460
 2.5980	 6.4000
 2.5990	 6.3280
 2.6000	 6.2050
 2.6020	 6.2340
 2.6030	 6.2240
 2.6040	 6.3530
 2.6060	 6.3040
 2.6070	 6.1790
 2.6080	 6.1070
 2.6100	 6.1640
 2.6110	 6.3010
 2.6120	 6.3360
 2.6140	 6.1960
 2.6150	 6.0870
 2.6160	 6.0290
 2.6180	 6.1650
 2.6190	 6.2090
 2.6200	 6.1440
 2.6220	 5.9960
 2.6230	 6.1130
 2.6240	 6.0720
 2.6260	 5.8570
 2.6270	 5.8850
 2.6280	 5.9420
 2.6300	 5.8690
 2.6310	 5.7480
 2.6320	 5.5200
 2.6340	 5.5600
 2.6350	 5.6550
 2.6360	 5.7030
 2.6380	 5.7310
 2.6390	 5.7430
 2.6400	 5.6340
 2.6420	 5.5000
 2.6430	 5.4860
 2.6440	 5.5350
 2.6460	 5.5040
 2.6470	 5.4540
 2.6480	 5.3870
 2.6500	 5.3980
 2.6510	 5.4200
 2.6520	 5.3760
 2.6540	 5.2850
 2.6550	 5.3520
 2.6560	 5.3030
 2.6580	 5.1200
 2.6590	 5.1450
 2.6610	 5.2240
 2.6620	 5.1440
 2.6630	 5.0460
 2.6650	 4.8930
 2.6660	 4.8930
 2.6670	 4.9250
 2.6690	 4.8580
 2.6700	 4.6870
 2.6720	 4.5850
 2.6730	 4.6250
 2.6740	 4.6470
 2.6760	 4.5640
 2.6770	 4.5280
 2.6780	 4.5290
 2.6800	 4.6090
 2.6810	 4.5300
 2.6830	 4.5210
 2.6840	 4.4340
 2.6850	 4.3900
 2.6870	 4.3090
 2.6880	 4.3130
 2.6900	 4.2370
 2.6910	 4.1060
 2.6920	 4.0730
 2.6940	 4.1700
 2.6950	 4.2140
 2.6970	 4.2210
 2.6980	 4.1950
 2.6990	 4.0050
 2.7010	 3.9130
 2.7020	 3.8550
 2.7040	 3.8140
 2.7050	 3.8500
 2.7060	 3.8330
 2.7080	 3.7970
 2.7090	 3.7660
 2.7110	 3.6430
 2.7120	 3.6140
 2.7130	 3.6860
 2.7150	 3.6470
 2.7160	 3.6360
 2.7180	 3.5960
 2.7190	 3.4870
 2.7210	 3.4850
 2.7220	 3.6070
 2.7230	 3.5160
 2.7250	 3.4060
 2.7260	 3.5000
 2.7280	 3.6770
 2.7290	 3.6180
 2.7310	 3.6270
 2.7320	 3.6940
 2.7330	 3.5970
 2.7350	 3.4270
 2.7360	 3.4360
 2.7380	 3.2630
 2.7390	 3.0640
 2.7410	 3.2500
 2.7420	 3.4270
 2.7440	 3.5170
 2.7450	 3.4460
 2.7470	 3.2980
 2.7480	 3.2680
 2.7490	 3.2050
 2.7510	 3.3080
 2.7520	 3.3640
 2.7540	 3.3780
 2.7550	 3.3860
 2.7570	 3.3870
 2.7580	 3.3780
 2.7600	 3.4150
 2.7610	 3.5530
 2.7630	 3.5320
 2.7640	 3.3870
 2.7660	 3.3570
 2.7670	 3.2640
 2.7680	 3.3170
 2.7700	 3.2870
 2.7710	 3.2280
 2.7730	 3.2580
 2.7740	 3.2230
 2.7760	 3.2280
 2.7770	 3.3420
 2.7790	 3.4010
 2.7800	 3.5820
 2.7820	 3.4750
 2.7830	 3.3380
 2.7850	 3.1500
 2.7860	 3.2670
 2.7880	 3.4280
 2.7890	 3.4480
 2.7910	 3.3500
 2.7920	 3.3190
 2.7940	 3.3080
 2.7950	 3.3170
 2.7970	 3.3340
 2.7980	 3.2050
 2.8000	 3.1470
 2.8010	 3.1440
 2.8030	 3.0570
 2.8040	 3.1680
 2.8060	 3.2690
 2.8070	 3.1500
 2.8090	 3.0390
 2.8110	 3.0570
 2.8120	 3.1190
 2.8140	 3.1340
 2.8150	 3.0580
 2.8170	 3.1680
 2.8180	 3.2680
 2.8200	 3.1980
 2.8210	 3.0240
 2.8230	 3.2520
 2.8240	 3.3210
 2.8260	 3.2140
 2.8270	 3.1010
 2.8290	 3.2140
 2.8300	 3.1860
 2.8320	 3.1440
 2.8340	 3.1930
 2.8350	 3.2150
 2.8370	 3.1890
 2.8380	 3.2360
 2.8400	 3.2270
 2.8410	 3.2260
 2.8430	 3.1440
 2.8440	 3.0830
 2.8460	 3.1610
 2.8480	 3.1850
 2.8490	 3.2400
 2.8510	 3.3560
 2.8520	 3.1660
 2.8540	 2.9830
 2.8550	 3.0070
 2.8570	 3.1500
 2.8590	 3.1310
 2.8600	 3.2210
 2.8620	 3.2350
 2.8630	 3.2510
 2.8650	 3.3080
 2.8660	 3.3070
 2.8680	 3.2220
 2.8700	 3.2020
 2.8710	 2.9820
 2.8730	 3.0740
 2.8740	 3.2140
 2.8760	 3.1920
 2.8780	 3.2970
 2.8790	 3.3650
 2.8810	 3.5080
 2.8820	 3.4840
 2.8840	 3.2690
 2.8860	 3.2300
 2.8870	 3.2290
 2.8890	 3.3340
 2.8900	 3.2910
 2.8920	 3.1960
 2.8940	 3.1210
 2.8950	 3.1040
 2.8970	 3.1550
 2.8980	 3.2840
 2.9000	 3.2790
 2.9020	 3.2340
 2.9030	 3.2700
 2.9050	 3.2070
 2.9070	 3.3070
 2.9080	 3.4240
 2.9100	 3.1820
 2.9120	 2.9810
 2.9130	 2.8590
 2.9150	 2.9400
 2.9160	 3.0540
 2.9180	 3.2520
 2.9200	 3.3480
 2.9210	 3.3060
 2.9230	 3.3060
 2.9250	 3.4180
 2.9260	 3.3300
 2.9280	 3.2600
 2.9300	 3.3230
 2.9310	 3.3270
 2.9330	 3.2240
 2.9350	 3.2570
 2.9360	 3.2790
 2.9380	 3.2690
 2.9400	 3.3040
 2.9410	 3.4060
 2.9430	 3.3380
 2.9450	 3.2340
 2.9460	 3.0970
 2.9480	 3.1120
 2.9500	 3.1400
 2.9510	 3.0560
 2.9530	 2.9400
 2.9550	 3.0590
 2.9560	 3.2150
 2.9580	 3.5730
 2.9600	 3.6760
 2.9610	 3.5930
 2.9630	 3.6260
 2.9650	 3.4540
 2.9660	 3.3430
 2.9680	 3.3040
 2.9700	 3.0050
 2.9720	 2.5890
 2.9730	 2.7910
 2.9750	 3.7660
 2.9770	 4.2530
 2.9780	 3.9980
 2.9800	 3.8920
 2.9820	 3.6440
 2.9840	 2.9900
 2.9850	 3.1720
 2.9870	 3.3520
 2.9890	 2.8660
 2.9900	 3.2410
 2.9920	 3.9190
 2.9940	 3.7480
 2.9960	 3.5460
 2.9970	 3.7500
 2.9990	 3.8500
 3.0010	 3.6560
 3.0030	 3.4040
 3.0040	 3.3850
 3.0060	 3.5070
 3.0080	 3.7750
 3.0100	 3.8030
 3.0110	 3.1660
 3.0130	 2.8960
 3.0150	 2.9460
 3.0170	 3.1920
 3.0180	 3.2090
 3.0200	 3.1970
 3.0220	 3.1640
 3.0240	 3.3710
 3.0250	 3.3580
 3.0270	 3.4120
 3.0290	 3.2920
 3.0310	 3.2650
 3.0320	 3.4530
 3.0340	 3.7130
 3.0360	 3.5780
 3.0380	 3.6150
 3.0400	 3.1910
 3.0410	 2.9990
 3.0430	 2.8680
 3.0450	 3.5740
 3.0470	 3.9890
 3.0480	 4.1400
 3.0500	 3.8350
 3.0520	 3.3700
 3.0540	 3.6050
 3.0560	 3.7870
 3.0570	 3.9110
 3.0590	 4.0390
 3.0610	 4.1230
 3.0630	 3.8640
 3.0650	 3.6800
 3.0660	 3.4790
 3.0680	 3.0610
 3.0700	 3.1410
 3.0720	 3.4380
 3.0740	 3.5190
 3.0760	 3.5500
 3.0770	 3.4890
 3.0790	 3.3220
 3.0810	 3.3040
 3.0830	 3.3190
 3.0850	 3.2890
 3.0870	 3.2420
 3.0880	 3.2680
 3.0900	 3.3870
 3.0920	 3.2360
 3.0940	 3.2670
 3.0960	 3.3260
 3.0980	 3.2340
 3.0990	 3.4020
 3.1010	 3.3840
 3.1030	 3.1040
 3.1050	 2.9960
 3.1070	 3.1210
 3.1090	 3.2970
 3.1110	 3.2800
 3.1120	 3.1800
 3.1140	 3.1230
 3.1160	 3.0600
 3.1180	 3.1190
 3.1200	 3.1900
 3.1220	 3.1790
 3.1240	 3.2530
 3.1260	 3.2800
 3.1270	 3.2170
 3.1290	 3.2270
 3.1310	 3.2350
 3.1330	 3.4000
 3.1350	 3.4090
 3.1370	 3.1410
 3.1390	 2.8730
 3.1410	 3.1100
 3.1430	 3.5660
 3.1450	 3.5850
 3.1460	 3.2030
 3.1480	 3.1210
 3.1500	 3.3050
 3.1520	 3.2710
 3.1540	 3.2020
 3.1560	 3.4280
 3.1580	 3.7930
 3.1600	 3.9160
 3.1620	 3.4620
 3.1640	 2.9030
 3.1660	 2.8110
 3.1680	 2.9860
 3.1700	 3.2100
 3.1710	 3.5810
 3.1730	 4.2000
 3.1750	 3.8520
 3.1770	 3.0140
 3.1790	 3.1230
 3.1810	 3.3960
 3.1830	 3.8100
 3.1850	 4.0080
 3.1870	 3.4440
 3.1890	 3.0150
 3.1910	 3.1740
 3.1930	 3.2160
 3.1950	 3.1780
 3.1970	 3.1850
 3.1990	 3.2160
 3.2010	 3.2170
 3.2030	 3.3340
 3.2050	 3.3310
 3.2070	 3.2130
 3.2090	 3.1050
 3.2110	 3.1190
 3.2130	 3.1180
 3.2150	 3.1910
 3.2170	 3.3530
 3.2190	 3.3870
 3.2210	 3.2670
 3.2230	 3.2380
 3.2250	 3.3290
 3.2270	 3.3740
 3.2290	 3.2990
 3.2310	 3.2840
 3.2330	 3.1940
 3.2350	 3.1630
 3.2370	 3.2010
 3.2390	 3.1860
 3.2410	 3.2050
 3.2430	 3.2850
 3.2450	 3.2460
 3.2470	 3.2020
 3.2490	 3.0830
 3.2510	 2.9330
 3.2530	 2.8860
 3.2550	 3.0860
 3.2570	 3.2430
 3.2590	 3.3690
 3.2610	 3.2870
 3.2630	 3.2010
 3.2650	 3.1960
 3.2670	 3.1350
 3.2690	 3.1770
 3.2720	 3.2130
 3.2740	 3.2930
 3.2760	 3.2720
 3.2780	 3.1500
 3.2800	 3.2050
 3.2820	 3.2360
 3.2840	 3.2000
 3.2860	 3.1870
 3.2880	 3.1650
 3.2900	 3.0670
 3.2920	 3.0360
 3.2940	 3.1060
 3.2960	 3.1270
 3.2990	 3.0710
 3.3010	 3.1060
 3.3030	 3.1420
 3.3050	 3.0240
 3.3070	 3.0180
 3.3090	 3.0870
 3.3110	 3.0400
 3.3130	 3.0590
 3.3150	 3.0920
 3.3180	 3.0050
 3.3200	 3.0060
 3.3220	 3.0380
 3.3240	 2.9860
 3.3260	 3.0060
 3.3280	 2.9680
 3.3300	 2.9270
 3.3330	 2.9690
 3.3350	 3.0660
 3.3370	 3.0730
 3.3390	 3.0410
 3.3410	 2.9350
 3.3430	 2.8730
 3.3450	 2.8490
 3.3480	 2.7920
 3.3500	 2.7870
 3.3520	 2.8840
 3.3540	 3.0240
 3.3560	 3.0460
 3.3580	 2.9840
 3.3610	 2.8530
 3.3630	 2.6900
 3.3650	 2.6380
 3.3670	 2.5700
 3.3690	 2.6130
 3.3720	 2.7240
 3.3740	 2.7330
 3.3760	 2.7700
 3.3780	 2.6270
 3.3800	 2.3780
 3.3830	 2.4770
 3.3850	 2.7710
 3.3870	 2.7170
 3.3890	 2.6500
 3.3910	 2.7060
 3.3940	 2.5430
 3.3960	 2.4580
 3.3980	 2.3550
 3.4000	 2.3320
 3.4020	 2.5080
 3.4050	 2.5560
 3.4070	 2.5220
 3.4090	 2.6330
 3.4110	 2.7480
 3.4140	 2.9750
 3.4160	 3.0400
 3.4180	 3.1450
 3.4200	 3.4440
 3.4230	 3.9270
 3.4250	 4.5560
 3.4270	 5.2160
 3.4290	 5.4850
 3.4320	 5.3280
 3.4340	 5.0490
 3.4360	 4.8210
 3.4390	 4.5110
 3.4410	 4.4330
 3.4430	 4.4630
 3.4450	 4.2920
 3.4480	 4.0950
 3.4500	 4.1330
 3.4520	 4.0390
 3.4550	 3.9030
 3.4570	 3.8810
 3.4590	 3.8660
 3.4620	 3.8690
 3.4640	 3.7560
 3.4660	 3.7340
 3.4680	 3.8630
 3.4710	 3.8710
 3.4730	 3.7620
 3.4750	 3.6860
 3.4780	 3.7080
 3.4800	 3.6940
 3.4820	 3.5380
 3.4850	 3.5130
 3.4870	 3.5180
 3.4890	 3.3660
 3.4920	 3.2480
 3.4940	 3.2450
 3.4970	 3.2260
 3.4990	 3.2380
 3.5010	 3.3580
 3.5040	 3.5340
 3.5060	 3.9490
 3.5080	 4.6600
 3.5110	 5.3310
 3.5130	 5.4170
 3.5160	 5.0760
 3.5180	 4.8150
 3.5200	 4.6690
 3.5230	 4.5290
 3.5250	 4.4370
 3.5270	 4.4300
 3.5300	 4.4410
 3.5320	 4.2610
 3.5350	 4.1470
 3.5370	 4.2540
 3.5400	 4.2660
 3.5420	 4.0380
 3.5440	 3.8820
 3.5470	 3.9220
 3.5490	 4.0850
 3.5520	 4.0390
 3.5540	 3.9250
 3.5570	 3.9160
 3.5590	 3.9980
 3.5610	 3.8950
 3.5640	 3.8200
 3.5660	 3.9550
 3.5690	 3.9640
 3.5710	 3.8710
 3.5740	 3.8830
 3.5760	 3.8510
 3.5790	 3.8410
 3.5810	 3.8930
 3.5840	 3.9320
 3.5860	 3.9880
 3.5890	 3.9490
 3.5910	 3.7880
 3.5930	 3.7210
 3.5960	 3.8320
 3.5980	 3.9180
 3.6010	 3.9970
 3.6030	 3.8880
 3.6060	 3.7720
 3.6080	 3.8180
 3.6110	 3.8370
 3.6140	 3.8580
 3.6160	 3.8970
 3.6190	 3.8630
 3.6210	 3.8370
 3.6240	 3.8040
 3.6260	 3.7810
 3.6290	 3.7180
 3.6310	 3.7030
 3.6340	 3.7590
 3.6360	 3.7840
 3.6390	 3.7640
 3.6410	 3.8190
 3.6440	 3.9230
 3.6470	 3.8610
 3.6490	 3.7880
 3.6520	 3.8100
 3.6540	 3.7570
 3.6570	 3.7260
 3.6590	 3.7260
 3.6620	 3.6450
 3.6650	 3.7070
 3.6670	 3.7980
 3.6700	 3.8090
 3.6720	 3.8230
 3.6750	 3.8570
 3.6780	 3.9050
 3.6800	 3.9470
 3.6830	 3.8260
 3.6850	 3.6750
 3.6880	 3.6630
 3.6910	 3.7650
 3.6930	 3.8270
 3.6960	 3.8130
 3.6990	 3.7930
 3.7010	 3.8040
 3.7040	 3.8000
 3.7060	 3.8140
 3.7090	 3.8060
 3.7120	 3.7810
 3.7140	 3.7440
 3.7170	 3.7100
 3.7200	 3.7610
 3.7220	 3.8370
 3.7250	 3.8980
 3.7280	 3.8850
 3.7300	 3.8140
 3.7330	 3.8740
 3.7360	 3.8790
 3.7390	 3.8240
 3.7410	 3.9110
 3.7440	 3.9940
 3.7470	 3.9980
 3.7490	 3.8840
 3.7520	 3.7880
 3.7550	 3.8170
 3.7580	 3.9660
 3.7600	 3.9970
 3.7630	 3.8820
 3.7660	 3.6790
 3.7680	 3.7200
 3.7710	 3.8340
 3.7740	 3.8690
 3.7770	 3.8990
 3.7790	 3.8720
 3.7820	 3.9280
 3.7850	 3.9710
 3.7880	 3.9520
 3.7900	 3.9400
 3.7930	 3.8140
 3.7960	 3.7450
 3.7990	 3.7610
 3.8020	 3.8040
 3.8040	 3.9340
 3.8070	 4.0060
 3.8100	 3.8990
 3.8130	 3.8550
 3.8160	 3.9410
 3.8180	 3.9870
 3.8210	 3.9410
 3.8240	 3.9460
 3.8270	 4.0210
 3.8300	 3.9890
 3.8330	 3.9560
 3.8350	 3.9700
 3.8380	 3.8910
 3.8410	 3.9160
 3.8440	 3.9950
 3.8470	 4.0550
 3.8500	 4.1130
 3.8520	 4.0540
 3.8550	 4.0110
 3.8580	 4.0570
 3.8610	 4.0150
 3.8640	 4.0070
 3.8670	 4.0330
 3.8700	 4.0330
 3.8730	 4.0440
 3.8750	 3.9680
 3.8780	 3.9150
 3.8810	 3.9890
 3.8840	 4.0720
 3.8870	 4.0300
 3.8900	 3.9800
 3.8930	 3.9930
 3.8960	 3.9990
 3.8990	 4.0510
 3.9020	 4.0560
 3.9050	 4.1200
 3.9080	 4.1250
 3.9110	 4.0460
 3.9140	 4.0290
 3.9160	 4.0360
 3.9190	 4.1020
 3.9220	 4.0760
 3.9250	 4.0030
 3.9280	 4.0030
 3.9310	 4.0060
 3.9340	 4.0700
 3.9370	 4.1540
 3.9400	 4.1210
 3.9430	 4.1180
 3.9460	 4.2070
 3.9490	 4.1690
 3.9520	 4.1190
 3.9550	 4.1320
 3.9580	 4.1190
 3.9610	 4.0490
 3.9640	 4.0830
 3.9670	 4.1560
 3.9700	 4.1850
 3.9730	 4.1890
 3.9770	 4.1110
 3.9800	 4.1370
 3.9830	 4.1770
 3.9860	 4.1160
 3.9890	 4.1190
 3.9920	 4.1820
 3.9950	 4.2630
 3.9980	 4.2950
 4.0010	 4.2330
 4.0040	 4.1530
 4.0070	 4.1170
 4.0100	 4.0960
 4.0130	 4.1420
 4.0170	 4.1450
 4.0200	 4.1460
 4.0230	 4.1420
 4.0260	 4.1850
 4.0290	 4.1410
 4.0320	 4.1460
 4.0350	 4.2200
 4.0380	 4.1770
 4.0420	 4.1780
 4.0450	 4.2450
 4.0480	 4.1790
 4.0510	 4.0510
 4.0540	 4.0250
 4.0570	 4.0810
 4.0610	 4.1140
 4.0640	 4.1570
 4.0670	 4.1430
 4.0700	 4.1320
 4.0730	 4.1290
 4.0770	 4.1360
 4.0800	 4.1120
 4.0830	 4.0600
 4.0860	 4.1680
 4.0890	 4.2260
 4.0930	 4.0560
 4.0960	 4.1420
 4.0990	 4.2310
 4.1020	 4.2440
 4.1060	 4.2130
 4.1090	 4.1710
 4.1120	 4.1340
 4.1150	 4.1390
 4.1190	 4.1540
 4.1220	 4.2100
 4.1250	 4.2610
 4.1280	 4.2370
 4.1320	 4.1970
 4.1350	 4.2270
 4.1380	 4.2050
 4.1420	 4.1970
 4.1450	 4.2150
 4.1480	 4.1230
 4.1520	 4.1280
 4.1550	 4.1660
 4.1580	 4.1410
 4.1620	 4.1680
 4.1650	 4.1400
 4.1680	 4.1640
 4.1720	 4.2150
 4.1750	 4.2230
 4.1780	 4.2290
 4.1820	 4.2610
 4.1850	 4.2460
 4.1890	 4.2070
 4.1920	 4.1410
 4.1950	 4.1470
 4.1990	 4.1730
 4.2020	 4.2340
 4.2060	 4.2830
 4.2090	 4.2670
 4.2120	 4.2170
 4.2160	 4.4670
 4.2190	 4.5560
 4.2230	 4.7060
 4.2260	 4.8070
 4.2300	 4.5150
 4.2330	 4.3940
 4.2360	 4.8460
 4.2400	 4.9120
 4.2430	 4.4720
 4.2470	 4.4880
 4.2500	 4.5300
 4.2540	 4.2350
 4.2570	 4.2160
 4.2610	 4.3850
 4.2640	 4.6730
 4.2680	 4.6930
 4.2710	 4.5070
 4.2750	 4.3710
 4.2780	 4.3350
 4.2820	 4.3650
 4.2850	 4.3540
 4.2890	 4.2270
 4.2930	 4.0510
 4.2960	 4.1150
 4.3000	 4.2260
 4.3030	 4.1890
 4.3070	 4.2380
 4.3100	 4.2350
 4.3140	 4.2180
 4.3180	 4.0980
 4.3210	 4.1140
 4.3250	 4.1750
 4.3280	 4.1730
 4.3320	 4.1020
 4.3360	 4.1020
 4.3390	 4.1430
 4.3430	 4.0990
 4.3470	 3.9680
 4.3500	 3.9590
 4.3540	 4.0120
 4.3570	 3.9370
 4.3610	 3.9270
 4.3650	 3.9680
 4.3680	 3.9160
 4.3720	 3.8360
 4.3760	 3.8080
 4.3800	 3.9170
 4.3830	 3.9700
 4.3870	 3.9260
 4.3910	 3.8680
 4.3940	 3.9520
 4.3980	 3.9870
 4.4020	 3.9890
 4.4060	 3.9740
 4.4090	 3.8860
 4.4130	 3.8330
 4.4170	 3.7320
 4.4210	 3.7280
 4.4240	 3.8300
 4.4280	 3.8790
 4.4320	 3.8900
 4.4360	 3.7750
 4.4400	 3.8450
 4.4430	 3.9060
 4.4470	 3.9230
 4.4510	 3.8540
 4.4550	 3.8190
 4.4590	 3.8050
 4.4620	 3.8660
 4.4660	 3.8940
 4.4700	 3.9080
 4.4740	 3.8610
 4.4780	 3.8040
 4.4820	 3.7160
 4.4860	 3.7170
 4.4900	 3.7290
 4.4930	 3.7810
 4.4970	 3.7720
 4.5010	 3.7980
 4.5050	 3.8670
 4.5090	 3.8290
 4.5130	 3.7230
 4.5170	 3.7730
 4.5210	 3.8090
 4.5250	 3.7640
 4.5290	 3.6480
 4.5330	 3.6820
 4.5370	 3.7270
 4.5410	 3.7670
 4.5450	 3.7720
 4.5490	 3.7400
 4.5530	 3.6870
 4.5570	 3.6930
 4.5610	 3.8050
 4.5650	 3.8520
 4.5690	 3.7130
 4.5730	 3.6270
 4.5770	 3.6020
 4.5810	 3.5660
 4.5850	 3.6230
 4.5890	 3.6980
 4.5930	 3.6140
 4.5970	 3.6000
 4.6010	 3.6060
 4.6050	 3.5780
 4.6090	 3.5150
 4.6130	 3.5960
 4.6170	 3.6400
 4.6220	 3.7250
 4.6260	 3.8190
 4.6300	 3.7970
 4.6340	 3.6570
 4.6380	 3.6670
 4.6420	 3.7080
 4.6460	 3.6620
 4.6510	 3.5970
 4.6550	 3.6700
 4.6590	 3.7330
 4.6630	 3.7660
 4.6670	 3.7320
 4.6720	 3.6880
 4.6760	 3.5710
 4.6800	 3.5260
 4.6840	 3.5430
 4.6880	 3.6250
 4.6930	 3.5970
 4.6970	 3.5740
 4.7010	 3.5690
 4.7050	 3.6130
 4.7100	 3.5340
 4.7140	 3.4930
 4.7180	 3.4630
 4.7230	 3.6130
 4.7270	 3.6830
 4.7310	 3.7190
 4.7360	 3.6610
 4.7400	 3.6210
 4.7440	 3.5830
 4.7490	 3.5850
 4.7530	 3.5990
 4.7570	 3.6230
 4.7620	 3.6040
 4.7660	 3.5700
 4.7700	 3.5190
 4.7750	 3.5090
 4.7790	 3.4550
 4.7840	 3.4510
 4.7880	 3.6230
 4.7920	 3.7490
 4.7970	 3.6740
 4.8010	 3.6330
 4.8060	 3.6230
 4.8100	 3.5770
 4.8150	 3.5000
 4.8190	 3.5060
 4.8240	 3.4790
 4.8280	 3.6160
 4.8330	 3.7300
 4.8370	 3.8090
 4.8420	 3.7850
 4.8460	 3.7300
 4.8510	 3.6290
 4.8550	 3.6260
 4.8600	 3.6480
 4.8640	 3.6930
 4.8690	 3.6660
 4.8730	 3.6380
 4.8780	 3.6190
 4.8830	 3.6220
 4.8870	 3.6500
 4.8920	 3.6870
 4.8960	 3.6700
 4.9010	 3.7230
 4.9060	 3.7430
 4.9100	 3.7380
 4.9150	 3.6690
 4.9200	 3.6590
 4.9240	 3.5480
 4.9290	 3.5420
 4.9340	 3.6400
 4.9380	 3.7200
 4.9430	 3.7040
 4.9480	 3.7320
 4.9530	 3.6610
 4.9570	 3.6590
 4.9620	 3.5930
 4.9670	 3.6170
 4.9720	 3.6100
 4.9760	 3.7070
 4.9810	 3.7700
 4.9860	 3.8220
 4.9910	 3.7800
 4.9960	 3.7460
 5.0000	 3.7620
 5.0050	 3.7420
 5.0100	 3.6960
 5.0150	 3.6690
 5.0200	 3.5980
 5.0250	 3.6890
 5.0290	 3.6770
 5.0340	 3.6620
 5.0390	 3.6560
 5.0440	 3.7260
 5.0490	 3.7350
 5.0540	 3.7340
 5.0590	 3.6920
 5.0640	 3.6470
 5.0690	 3.5820
 5.0740	 3.6170
 5.0790	 3.6880
 5.0840	 3.7760
 5.0890	 3.7760
 5.0940	 3.8410
 5.0990	 3.8030
 5.1040	 3.8190
 5.1090	 3.7650
 5.1140	 3.7780
 5.1190	 3.7910
 5.1240	 3.9210
 5.1290	 3.9030
 5.1340	 3.8160
 5.1390	 3.7400
 5.1440	 3.7530
 5.1490	 3.6460
 5.1540	 3.6390
 5.1600	 3.6750
 5.1650	 3.7600
 5.1700	 3.7700
 5.1750	 3.7630
 5.1800	 3.6990
 5.1850	 3.6980
 5.1910	 3.7270
 5.1960	 3.8240
 5.2010	 3.7690
 5.2060	 3.7460
 5.2110	 3.7830
 5.2170	 3.8070
 5.2220	 3.7760
 5.2270	 3.8290
 5.2320	 3.8530
 5.2380	 3.8780
 5.2430	 3.7330
 5.2480	 3.6990
 5.2540	 3.7360
 5.2590	 3.8000
 5.2640	 3.7680
 5.2700	 3.8220
 5.2750	 3.8090
 5.2800	 3.8900
 5.2860	 3.8330
 5.2910	 3.7880
 5.2970	 3.7570
 5.3020	 3.7590
 5.3070	 3.7530
 5.3130	 3.7720
 5.3180	 3.6300
 5.3240	 3.6740
 5.3290	 3.6950
 5.3350	 3.7120
 5.3400	 3.6800
 5.3460	 3.6770
 5.3510	 3.6880
 5.3570	 3.7380
 5.3620	 3.7320
 5.3680	 3.8250
 5.3730	 3.7910
 5.3790	 3.7410
 5.3850	 3.6900
 5.3900	 3.7060
 5.3960	 3.6330
 5.4010	 3.5970
 5.4070	 3.5660
 5.4130	 3.5760
 5.4180	 3.5510
 5.4240	 3.5990
 5.4300	 3.6650
