Name: Pinus ponderosa 1
Type: vegetation
Class: Tree
Genus: Pinus
Species: ponderosa
Sample No.: VH154
Owner: UCSB
Wavelength Range: TIR
Origin: 37.0443; -119.3026; WGS84
Collection Date: 6/8/2013
Description: Samples were collected as part of the HyspIRI Airborne Campaign. 48 individual plants were sampled in three times in 2013 - spring  summer  and fall. The name of the sample includes a 1  2  or 3 which references a different individual of the species. Samples were taken to JPL and processed within 48 hours of collection. The same leaves were processed in the Nicolet and then measured using the ASD.
Measurement: Hemispherical reflectance
First Column: X
Second Column: Y
X Units: Wavelength (micrometers)
Y Units: Reflectance (percentage)
First X Value: 2.501
Last X Value: 15.387
Number of X Values: 1737
Additional Information: vegetation.tree.pinus.ponderosa.tir.vh154.ucsb.nicolet.ancillary.txt

 2.5010	 5.2990
 2.5030	 5.4280
 2.5040	 5.5330
 2.5050	 5.4780
 2.5060	 5.4840
 2.5070	 5.3560
 2.5090	 5.3190
 2.5100	 5.3280
 2.5110	 5.4110
 2.5120	 5.3550
 2.5140	 5.3760
 2.5150	 5.3880
 2.5160	 5.3770
 2.5170	 5.2990
 2.5180	 5.4260
 2.5200	 5.3510
 2.5210	 5.3340
 2.5220	 5.3580
 2.5230	 5.4160
 2.5250	 5.3920
 2.5260	 5.4910
 2.5270	 5.5450
 2.5280	 5.5500
 2.5290	 5.4030
 2.5310	 5.3810
 2.5320	 5.3970
 2.5330	 5.4810
 2.5340	 5.4110
 2.5360	 5.4010
 2.5370	 5.2910
 2.5380	 5.1600
 2.5390	 5.1620
 2.5410	 5.2680
 2.5420	 5.3420
 2.5430	 5.3480
 2.5440	 5.1450
 2.5460	 5.2980
 2.5470	 5.4160
 2.5480	 5.4460
 2.5490	 5.4920
 2.5510	 5.4860
 2.5520	 5.3750
 2.5530	 5.3600
 2.5540	 5.3170
 2.5560	 5.2260
 2.5570	 5.2870
 2.5580	 5.4840
 2.5590	 5.4190
 2.5610	 5.4060
 2.5620	 5.3720
 2.5630	 5.3340
 2.5640	 5.2820
 2.5660	 5.3900
 2.5670	 5.3690
 2.5680	 5.3370
 2.5700	 5.3150
 2.5710	 5.3160
 2.5720	 5.4630
 2.5730	 5.6470
 2.5750	 5.5950
 2.5760	 5.6840
 2.5770	 5.6030
 2.5790	 5.3920
 2.5800	 5.2730
 2.5810	 5.3100
 2.5820	 5.2580
 2.5840	 5.3360
 2.5850	 5.3320
 2.5860	 5.1410
 2.5880	 5.0630
 2.5890	 5.3800
 2.5900	 5.5500
 2.5910	 5.4580
 2.5930	 5.3680
 2.5940	 5.3890
 2.5950	 5.2160
 2.5970	 5.1650
 2.5980	 5.1840
 2.5990	 5.3820
 2.6000	 5.4910
 2.6020	 5.4750
 2.6030	 5.3280
 2.6040	 5.3380
 2.6060	 5.3150
 2.6070	 5.3350
 2.6080	 5.3030
 2.6100	 5.2230
 2.6110	 4.9250
 2.6120	 4.9920
 2.6140	 5.0780
 2.6150	 5.0420
 2.6160	 5.0610
 2.6180	 5.2280
 2.6190	 5.1890
 2.6200	 5.3310
 2.6220	 5.2490
 2.6230	 5.1980
 2.6240	 5.0660
 2.6260	 5.0240
 2.6270	 5.0280
 2.6280	 5.1220
 2.6300	 5.0960
 2.6310	 5.1790
 2.6320	 4.9910
 2.6340	 4.9470
 2.6350	 4.8920
 2.6360	 4.9210
 2.6380	 4.9300
 2.6390	 4.8530
 2.6400	 4.7760
 2.6420	 4.7560
 2.6430	 4.7270
 2.6440	 4.8430
 2.6460	 4.8710
 2.6470	 4.9480
 2.6480	 4.7710
 2.6500	 4.6800
 2.6510	 4.7230
 2.6520	 4.8230
 2.6540	 4.7280
 2.6550	 4.7750
 2.6560	 4.7040
 2.6580	 4.5900
 2.6590	 4.5890
 2.6610	 4.6830
 2.6620	 4.6350
 2.6630	 4.6970
 2.6650	 4.6890
 2.6660	 4.5590
 2.6670	 4.4780
 2.6690	 4.5400
 2.6700	 4.5290
 2.6720	 4.5920
 2.6730	 4.6090
 2.6740	 4.6340
 2.6760	 4.5540
 2.6770	 4.5210
 2.6780	 4.2220
 2.6800	 4.2550
 2.6810	 4.2970
 2.6830	 4.2580
 2.6840	 4.1940
 2.6850	 4.3270
 2.6870	 4.3870
 2.6880	 4.3730
 2.6900	 4.3270
 2.6910	 4.4390
 2.6920	 4.3410
 2.6940	 4.2270
 2.6950	 4.0820
 2.6970	 4.0430
 2.6980	 4.0390
 2.6990	 4.1540
 2.7010	 4.1130
 2.7020	 4.2350
 2.7040	 4.1700
 2.7050	 4.0710
 2.7060	 3.9590
 2.7080	 3.9730
 2.7090	 3.9010
 2.7110	 3.7960
 2.7120	 3.7750
 2.7130	 3.9060
 2.7150	 3.8450
 2.7160	 3.8020
 2.7180	 3.7220
 2.7190	 3.8170
 2.7210	 3.8260
 2.7220	 3.9490
 2.7230	 3.9330
 2.7250	 3.8330
 2.7260	 3.6840
 2.7280	 3.6730
 2.7290	 3.6410
 2.7310	 3.8530
 2.7320	 3.8900
 2.7330	 3.7730
 2.7350	 3.5890
 2.7360	 3.7610
 2.7380	 3.6050
 2.7390	 3.3850
 2.7410	 3.5280
 2.7420	 3.8250
 2.7440	 3.6600
 2.7450	 3.3630
 2.7470	 3.3580
 2.7480	 3.7430
 2.7490	 3.8200
 2.7510	 3.4830
 2.7520	 3.1060
 2.7540	 3.3450
 2.7550	 3.5820
 2.7570	 3.5600
 2.7580	 3.5740
 2.7600	 3.6480
 2.7610	 3.5330
 2.7630	 3.2840
 2.7640	 3.2370
 2.7660	 3.5050
 2.7670	 3.5420
 2.7680	 3.5510
 2.7700	 3.5160
 2.7710	 3.5260
 2.7730	 3.4120
 2.7740	 3.4030
 2.7760	 3.4050
 2.7770	 3.5490
 2.7790	 3.4750
 2.7800	 3.2560
 2.7820	 3.2760
 2.7830	 3.4900
 2.7850	 3.4050
 2.7860	 3.4330
 2.7880	 3.4220
 2.7890	 3.4550
 2.7910	 3.2720
 2.7920	 3.2760
 2.7940	 3.3320
 2.7950	 3.3740
 2.7970	 3.3040
 2.7980	 3.3650
 2.8000	 3.4390
 2.8010	 3.4170
 2.8030	 3.3020
 2.8040	 3.3010
 2.8060	 3.1660
 2.8070	 3.2940
 2.8090	 3.3630
 2.8110	 3.2730
 2.8120	 3.2270
 2.8140	 3.3580
 2.8150	 3.3890
 2.8170	 3.4090
 2.8180	 3.2680
 2.8200	 3.1220
 2.8210	 3.2450
 2.8230	 3.5390
 2.8240	 3.3280
 2.8260	 3.4250
 2.8270	 3.7360
 2.8290	 3.6060
 2.8300	 3.2510
 2.8320	 3.3460
 2.8340	 3.1230
 2.8350	 3.0850
 2.8370	 3.3600
 2.8380	 3.5560
 2.8400	 3.4630
 2.8410	 3.5310
 2.8430	 3.4500
 2.8440	 3.3590
 2.8460	 3.1940
 2.8480	 3.2850
 2.8490	 3.3710
 2.8510	 3.2940
 2.8520	 3.2260
 2.8540	 3.4240
 2.8550	 3.3000
 2.8570	 3.2590
 2.8590	 3.2180
 2.8600	 3.4090
 2.8620	 3.4930
 2.8630	 3.5970
 2.8650	 3.4520
 2.8660	 3.4440
 2.8680	 3.2220
 2.8700	 3.1210
 2.8710	 3.2410
 2.8730	 3.4160
 2.8740	 3.2530
 2.8760	 3.2540
 2.8780	 3.2060
 2.8790	 3.3400
 2.8810	 3.3080
 2.8820	 3.1850
 2.8840	 2.9560
 2.8860	 3.3810
 2.8870	 3.5400
 2.8890	 3.4430
 2.8900	 3.2230
 2.8920	 3.1250
 2.8940	 3.2170
 2.8950	 3.5210
 2.8970	 3.4360
 2.8980	 3.3600
 2.9000	 3.2090
 2.9020	 3.2610
 2.9030	 3.4400
 2.9050	 3.5890
 2.9070	 3.4680
 2.9080	 3.5040
 2.9100	 3.3530
 2.9120	 3.3850
 2.9130	 3.3300
 2.9150	 3.2080
 2.9160	 3.1000
 2.9180	 3.2480
 2.9200	 3.3160
 2.9210	 3.3930
 2.9230	 3.2990
 2.9250	 3.3510
 2.9260	 3.2540
 2.9280	 3.3390
 2.9300	 3.2840
 2.9310	 3.4580
 2.9330	 3.4190
 2.9350	 3.3500
 2.9360	 3.3730
 2.9380	 3.4730
 2.9400	 3.3110
 2.9410	 3.3990
 2.9430	 3.2500
 2.9450	 3.4180
 2.9460	 3.6120
 2.9480	 3.7170
 2.9500	 3.2270
 2.9510	 3.2300
 2.9530	 3.2690
 2.9550	 3.1900
 2.9560	 2.8780
 2.9580	 2.8870
 2.9600	 2.9870
 2.9610	 3.4660
 2.9630	 3.7060
 2.9650	 3.9010
 2.9660	 3.0400
 2.9680	 3.2950
 2.9700	 4.0410
 2.9720	 4.2540
 2.9730	 4.6900
 2.9750	 5.0160
 2.9770	 4.6540
 2.9780	 3.6000
 2.9800	 3.6670
 2.9820	 3.2420
 2.9840	 3.1620
 2.9850	 3.0610
 2.9870	 3.3370
 2.9890	 3.3880
 2.9900	 3.2650
 2.9920	 3.2250
 2.9940	 3.8590
 2.9960	 4.2290
 2.9970	 3.1460
 2.9990	 2.6700
 3.0010	 2.9120
 3.0030	 3.2690
 3.0040	 3.4230
 3.0060	 3.5040
 3.0080	 3.5350
 3.0100	 3.5270
 3.0110	 2.6640
 3.0130	 2.4540
 3.0150	 2.5830
 3.0170	 3.0700
 3.0180	 3.9770
 3.0200	 4.2980
 3.0220	 4.1020
 3.0240	 3.7540
 3.0250	 3.5050
 3.0270	 3.4030
 3.0290	 3.3860
 3.0310	 3.5850
 3.0320	 3.7660
 3.0340	 3.5410
 3.0360	 3.0080
 3.0380	 3.1810
 3.0400	 3.5050
 3.0410	 2.6400
 3.0430	 2.5210
 3.0450	 2.8880
 3.0470	 2.1670
 3.0480	 1.9450
 3.0500	 2.4970
 3.0520	 4.3740
 3.0540	 4.7710
 3.0560	 4.1000
 3.0570	 3.1390
 3.0590	 3.3050
 3.0610	 5.3680
 3.0630	 5.6110
 3.0650	 2.8540
 3.0660	 2.2090
 3.0680	 3.0190
 3.0700	 3.3190
 3.0720	 3.7530
 3.0740	 4.1790
 3.0760	 3.6940
 3.0770	 3.5590
 3.0790	 3.5180
 3.0810	 3.3730
 3.0830	 3.3510
 3.0850	 3.4630
 3.0870	 3.3900
 3.0880	 3.4090
 3.0900	 3.4880
 3.0920	 3.5330
 3.0940	 3.4570
 3.0960	 3.4720
 3.0980	 3.4560
 3.0990	 3.4970
 3.1010	 3.5640
 3.1030	 3.5610
 3.1050	 3.3390
 3.1070	 3.3120
 3.1090	 3.4610
 3.1110	 3.4850
 3.1120	 3.3470
 3.1140	 3.2420
 3.1160	 3.1360
 3.1180	 3.4210
 3.1200	 3.7940
 3.1220	 3.6320
 3.1240	 3.4330
 3.1260	 3.6950
 3.1270	 3.5460
 3.1290	 3.4690
 3.1310	 3.7620
 3.1330	 4.0160
 3.1350	 4.1860
 3.1370	 4.8870
 3.1390	 3.6040
 3.1410	 2.7890
 3.1430	 4.2040
 3.1450	 4.3510
 3.1460	 2.8720
 3.1480	 2.3540
 3.1500	 2.5810
 3.1520	 2.6300
 3.1540	 2.5190
 3.1560	 3.0150
 3.1580	 3.3380
 3.1600	 2.8010
 3.1620	 2.7490
 3.1640	 4.3560
 3.1660	 4.8850
 3.1680	 4.6720
 3.1700	 4.5040
 3.1710	 3.1020
 3.1730	 2.8200
 3.1750	 3.5740
 3.1770	 4.1620
 3.1790	 4.5720
 3.1810	 3.6370
 3.1830	 2.7710
 3.1850	 3.1060
 3.1870	 3.1280
 3.1890	 3.2960
 3.1910	 3.6360
 3.1930	 3.4640
 3.1950	 3.4290
 3.1970	 3.5250
 3.1990	 3.5770
 3.2010	 3.5920
 3.2030	 3.6290
 3.2050	 3.6200
 3.2070	 3.5940
 3.2090	 3.3930
 3.2110	 3.1100
 3.2130	 3.2160
 3.2150	 3.4600
 3.2170	 3.5390
 3.2190	 3.6180
 3.2210	 3.5790
 3.2230	 3.3750
 3.2250	 3.2810
 3.2270	 3.4380
 3.2290	 3.4320
 3.2310	 3.3840
 3.2330	 3.3340
 3.2350	 3.4020
 3.2370	 3.5100
 3.2390	 3.7730
 3.2410	 3.7580
 3.2430	 3.5560
 3.2450	 3.5450
 3.2470	 3.6770
 3.2490	 3.5550
 3.2510	 3.4540
 3.2530	 3.5560
 3.2550	 3.9190
 3.2570	 3.9430
 3.2590	 3.5550
 3.2610	 3.2060
 3.2630	 3.2240
 3.2650	 3.2400
 3.2670	 3.3560
 3.2690	 3.2660
 3.2720	 3.3310
 3.2740	 3.6480
 3.2760	 3.6330
 3.2780	 3.6580
 3.2800	 3.5260
 3.2820	 3.3070
 3.2840	 3.3060
 3.2860	 3.4660
 3.2880	 3.5710
 3.2900	 3.4900
 3.2920	 3.3540
 3.2940	 3.3550
 3.2960	 3.3130
 3.2990	 3.5250
 3.3010	 3.7840
 3.3030	 3.7450
 3.3050	 3.5710
 3.3070	 3.5180
 3.3090	 3.4750
 3.3110	 3.1420
 3.3130	 3.2730
 3.3150	 3.3050
 3.3180	 3.3350
 3.3200	 3.3540
 3.3220	 3.3420
 3.3240	 3.2930
 3.3260	 3.4070
 3.3280	 3.3110
 3.3300	 3.2550
 3.3330	 3.1850
 3.3350	 3.3540
 3.3370	 3.4790
 3.3390	 3.2600
 3.3410	 3.0480
 3.3430	 3.0920
 3.3450	 3.1420
 3.3480	 3.1460
 3.3500	 3.0940
 3.3520	 3.1170
 3.3540	 3.1030
 3.3560	 3.0940
 3.3580	 3.1010
 3.3610	 3.2340
 3.3630	 3.2190
 3.3650	 3.2040
 3.3670	 3.1790
 3.3690	 3.1830
 3.3720	 3.0840
 3.3740	 3.0480
 3.3760	 2.9020
 3.3780	 2.9460
 3.3800	 3.1330
 3.3830	 3.2000
 3.3850	 3.0280
 3.3870	 2.9860
 3.3890	 2.9570
 3.3910	 3.0190
 3.3940	 2.9850
 3.3960	 2.9020
 3.3980	 2.9470
 3.4000	 3.0070
 3.4020	 3.0990
 3.4050	 3.1380
 3.4070	 3.1300
 3.4090	 3.2970
 3.4110	 3.4480
 3.4140	 3.6180
 3.4160	 3.6900
 3.4180	 3.8350
 3.4200	 3.9870
 3.4230	 4.1530
 3.4250	 4.3130
 3.4270	 4.5670
 3.4290	 4.7260
 3.4320	 4.7050
 3.4340	 4.4440
 3.4360	 4.2300
 3.4390	 4.1270
 3.4410	 4.2160
 3.4430	 4.1690
 3.4450	 3.9840
 3.4480	 3.9890
 3.4500	 3.8620
 3.4520	 3.5170
 3.4550	 3.4240
 3.4570	 3.5460
 3.4590	 3.7790
 3.4620	 3.7000
 3.4640	 3.7070
 3.4660	 3.8650
 3.4680	 3.9040
 3.4710	 3.8560
 3.4730	 3.8360
 3.4750	 3.6740
 3.4780	 3.6430
 3.4800	 3.6570
 3.4820	 3.6700
 3.4850	 3.6250
 3.4870	 3.6000
 3.4890	 3.5670
 3.4920	 3.6130
 3.4940	 3.6860
 3.4970	 3.6640
 3.4990	 3.6370
 3.5010	 3.8150
 3.5040	 4.0120
 3.5060	 4.2760
 3.5080	 4.5300
 3.5110	 4.6960
 3.5130	 4.7100
 3.5160	 4.6540
 3.5180	 4.4260
 3.5200	 4.2510
 3.5230	 4.1330
 3.5250	 4.0980
 3.5270	 4.0480
 3.5300	 4.0770
 3.5320	 4.1260
 3.5350	 4.1710
 3.5370	 4.0890
 3.5400	 4.0140
 3.5420	 3.9890
 3.5440	 3.9340
 3.5470	 3.8770
 3.5490	 3.9140
 3.5520	 3.9880
 3.5540	 4.0790
 3.5570	 4.1130
 3.5590	 4.1200
 3.5610	 4.0210
 3.5640	 4.0140
 3.5660	 3.9910
 3.5690	 3.9050
 3.5710	 3.8450
 3.5740	 3.9580
 3.5760	 3.9820
 3.5790	 3.9560
 3.5810	 3.9420
 3.5840	 4.0800
 3.5860	 4.0390
 3.5890	 3.8020
 3.5910	 3.6320
 3.5930	 3.8130
 3.5960	 4.0630
 3.5980	 4.0650
 3.6010	 3.8980
 3.6030	 3.7920
 3.6060	 3.8870
 3.6080	 4.0330
 3.6110	 4.0620
 3.6140	 4.0590
 3.6160	 3.9980
 3.6190	 3.9890
 3.6210	 4.1040
 3.6240	 4.0580
 3.6260	 3.9010
 3.6290	 3.8420
 3.6310	 3.8340
 3.6340	 3.9510
 3.6360	 4.0470
 3.6390	 4.0440
 3.6410	 3.9460
 3.6440	 3.9010
 3.6470	 3.8690
 3.6490	 3.9110
 3.6520	 3.9040
 3.6540	 3.9240
 3.6570	 3.9460
 3.6590	 4.0420
 3.6620	 4.0220
 3.6650	 4.0140
 3.6670	 4.0010
 3.6700	 3.9620
 3.6720	 3.9670
 3.6750	 4.0000
 3.6780	 3.9910
 3.6800	 3.9760
 3.6830	 3.9030
 3.6850	 3.9170
 3.6880	 3.9100
 3.6910	 3.9650
 3.6930	 3.9660
 3.6960	 3.9700
 3.6990	 3.9950
 3.7010	 4.0450
 3.7040	 4.0520
 3.7060	 4.0550
 3.7090	 4.0370
 3.7120	 4.0470
 3.7140	 3.9950
 3.7170	 3.8680
 3.7200	 3.9310
 3.7220	 4.1100
 3.7250	 4.1640
 3.7280	 4.1170
 3.7300	 4.0330
 3.7330	 4.0300
 3.7360	 3.9710
 3.7390	 4.0040
 3.7410	 3.9980
 3.7440	 3.9980
 3.7470	 3.9480
 3.7490	 3.9720
 3.7520	 4.0250
 3.7550	 4.0340
 3.7580	 4.0000
 3.7600	 4.0630
 3.7630	 4.0600
 3.7660	 4.1580
 3.7680	 4.1410
 3.7710	 4.0800
 3.7740	 4.1250
 3.7770	 4.1270
 3.7790	 4.1080
 3.7820	 4.1370
 3.7850	 4.1100
 3.7880	 4.1220
 3.7900	 4.1230
 3.7930	 4.1290
 3.7960	 4.0330
 3.7990	 4.0250
 3.8020	 4.0550
 3.8040	 4.0760
 3.8070	 4.0330
 3.8100	 3.9530
 3.8130	 3.8930
 3.8160	 4.0720
 3.8180	 4.1230
 3.8210	 4.1010
 3.8240	 4.0640
 3.8270	 4.0420
 3.8300	 4.0720
 3.8330	 4.1250
 3.8350	 4.1530
 3.8380	 4.1590
 3.8410	 4.0620
 3.8440	 4.1140
 3.8470	 4.1840
 3.8500	 4.1010
 3.8520	 4.0310
 3.8550	 4.0890
 3.8580	 4.1250
 3.8610	 4.1620
 3.8640	 4.1190
 3.8670	 4.0610
 3.8700	 4.0590
 3.8730	 4.1030
 3.8750	 4.1430
 3.8780	 4.1270
 3.8810	 4.1000
 3.8840	 4.1510
 3.8870	 4.1390
 3.8900	 4.1460
 3.8930	 4.1160
 3.8960	 4.1200
 3.8990	 4.1570
 3.9020	 4.1880
 3.9050	 4.1600
 3.9080	 4.1010
 3.9110	 4.0760
 3.9140	 4.1060
 3.9160	 4.0960
 3.9190	 4.1600
 3.9220	 4.1490
 3.9250	 4.1460
 3.9280	 4.1340
 3.9310	 4.1570
 3.9340	 4.1540
 3.9370	 4.1360
 3.9400	 4.1510
 3.9430	 4.1970
 3.9460	 4.1970
 3.9490	 4.2020
 3.9520	 4.1560
 3.9550	 4.1220
 3.9580	 4.1130
 3.9610	 4.0920
 3.9640	 4.1010
 3.9670	 4.1310
 3.9700	 4.0710
 3.9730	 4.0880
 3.9770	 4.1370
 3.9800	 4.1420
 3.9830	 4.1090
 3.9860	 4.1290
 3.9890	 4.1890
 3.9920	 4.2330
 3.9950	 4.1470
 3.9980	 4.1750
 4.0010	 4.1710
 4.0040	 4.1560
 4.0070	 4.1130
 4.0100	 4.0870
 4.0130	 4.1210
 4.0170	 4.1700
 4.0200	 4.1370
 4.0230	 4.1400
 4.0260	 4.1270
 4.0290	 4.1270
 4.0320	 4.1500
 4.0350	 4.1930
 4.0380	 4.1450
 4.0420	 4.1050
 4.0450	 4.0710
 4.0480	 4.0950
 4.0510	 4.1660
 4.0540	 4.2550
 4.0570	 4.2500
 4.0610	 4.1370
 4.0640	 4.0470
 4.0670	 4.1160
 4.0700	 4.1570
 4.0730	 4.1630
 4.0770	 4.2230
 4.0800	 4.2360
 4.0830	 4.1160
 4.0860	 4.1120
 4.0890	 4.0710
 4.0930	 4.1230
 4.0960	 4.1380
 4.0990	 4.1290
 4.1020	 4.1910
 4.1060	 4.1590
 4.1090	 4.0530
 4.1120	 4.1610
 4.1150	 4.2480
 4.1190	 4.3010
 4.1220	 4.2550
 4.1250	 4.1380
 4.1280	 4.0820
 4.1320	 4.0830
 4.1350	 4.1170
 4.1380	 4.1360
 4.1420	 4.1260
 4.1450	 4.1760
 4.1480	 4.2140
 4.1520	 4.1840
 4.1550	 4.1490
 4.1580	 4.1940
 4.1620	 4.1330
 4.1650	 4.0880
 4.1680	 4.1300
 4.1720	 4.1470
 4.1750	 4.1170
 4.1780	 4.1510
 4.1820	 4.1300
 4.1850	 4.1600
 4.1890	 4.1360
 4.1920	 4.1330
 4.1950	 4.1620
 4.1990	 4.2210
 4.2020	 4.1690
 4.2060	 4.0850
 4.2090	 4.1060
 4.2120	 4.1010
 4.2160	 4.0180
 4.2190	 4.0140
 4.2230	 3.7610
 4.2260	 3.1790
 4.2300	 3.4920
 4.2330	 3.9650
 4.2360	 4.0820
 4.2400	 4.2630
 4.2430	 4.1060
 4.2470	 3.7590
 4.2500	 3.7350
 4.2540	 4.0280
 4.2570	 4.1760
 4.2610	 3.9530
 4.2640	 3.9900
 4.2680	 4.3570
 4.2710	 4.3490
 4.2750	 4.1330
 4.2780	 3.8340
 4.2820	 3.8670
 4.2850	 3.8940
 4.2890	 3.8820
 4.2930	 3.9300
 4.2960	 3.9750
 4.3000	 3.9300
 4.3030	 3.9850
 4.3070	 3.9720
 4.3100	 3.9590
 4.3140	 3.9850
 4.3180	 4.0140
 4.3210	 4.0190
 4.3250	 3.8790
 4.3280	 3.8290
 4.3320	 3.8770
 4.3360	 3.8260
 4.3390	 3.9140
 4.3430	 3.9770
 4.3470	 3.9580
 4.3500	 3.9370
 4.3540	 3.9390
 4.3570	 3.9150
 4.3610	 3.9330
 4.3650	 3.9800
 4.3680	 3.9600
 4.3720	 3.9050
 4.3760	 3.8930
 4.3800	 3.8880
 4.3830	 3.9050
 4.3870	 3.9500
 4.3910	 3.9570
 4.3940	 3.9680
 4.3980	 3.9430
 4.4020	 3.8620
 4.4060	 3.9270
 4.4090	 3.9730
 4.4130	 3.9250
 4.4170	 3.9060
 4.4210	 3.9060
 4.4240	 3.8710
 4.4280	 3.8660
 4.4320	 3.8920
 4.4360	 3.9190
 4.4400	 3.8720
 4.4430	 3.8210
 4.4470	 3.8060
 4.4510	 3.7960
 4.4550	 3.7830
 4.4590	 3.7860
 4.4620	 3.8540
 4.4660	 3.9000
 4.4700	 3.8610
 4.4740	 3.8360
 4.4780	 3.8580
 4.4820	 3.8630
 4.4860	 3.8290
 4.4900	 3.8540
 4.4930	 3.8910
 4.4970	 3.8830
 4.5010	 3.8170
 4.5050	 3.7840
 4.5090	 3.7730
 4.5130	 3.7580
 4.5170	 3.7720
 4.5210	 3.7980
 4.5250	 3.7690
 4.5290	 3.7820
 4.5330	 3.8100
 4.5370	 3.8110
 4.5410	 3.8320
 4.5450	 3.8500
 4.5490	 3.8480
 4.5530	 3.7260
 4.5570	 3.6650
 4.5610	 3.7410
 4.5650	 3.7710
 4.5690	 3.7070
 4.5730	 3.6840
 4.5770	 3.7610
 4.5810	 3.8360
 4.5850	 3.8000
 4.5890	 3.7690
 4.5930	 3.7930
 4.5970	 3.7040
 4.6010	 3.6340
 4.6050	 3.6340
 4.6090	 3.7190
 4.6130	 3.7140
 4.6170	 3.6710
 4.6220	 3.7070
 4.6260	 3.6040
 4.6300	 3.5230
 4.6340	 3.5950
 4.6380	 3.7420
 4.6420	 3.7630
 4.6460	 3.7360
 4.6510	 3.7380
 4.6550	 3.6940
 4.6590	 3.6520
 4.6630	 3.6910
 4.6670	 3.7210
 4.6720	 3.6780
 4.6760	 3.6530
 4.6800	 3.6780
 4.6840	 3.6930
 4.6880	 3.6640
 4.6930	 3.6920
 4.6970	 3.7400
 4.7010	 3.7330
 4.7050	 3.6890
 4.7100	 3.6330
 4.7140	 3.6590
 4.7180	 3.7030
 4.7230	 3.7420
 4.7270	 3.8250
 4.7310	 3.8220
 4.7360	 3.7600
 4.7400	 3.7250
 4.7440	 3.7300
 4.7490	 3.7770
 4.7530	 3.7550
 4.7570	 3.6950
 4.7620	 3.6370
 4.7660	 3.6890
 4.7700	 3.6880
 4.7750	 3.6050
 4.7790	 3.6540
 4.7840	 3.6190
 4.7880	 3.4760
 4.7920	 3.5630
 4.7970	 3.7410
 4.8010	 3.8140
 4.8060	 3.8850
 4.8100	 3.8670
 4.8150	 3.7400
 4.8190	 3.7100
 4.8240	 3.7220
 4.8280	 3.7010
 4.8330	 3.6620
 4.8370	 3.6980
 4.8420	 3.7550
 4.8460	 3.7160
 4.8510	 3.6500
 4.8550	 3.7000
 4.8600	 3.7380
 4.8640	 3.7380
 4.8690	 3.6860
 4.8730	 3.6700
 4.8780	 3.7140
 4.8830	 3.7600
 4.8870	 3.7360
 4.8920	 3.6880
 4.8960	 3.6870
 4.9010	 3.7290
 4.9060	 3.7210
 4.9100	 3.7510
 4.9150	 3.7200
 4.9200	 3.7170
 4.9240	 3.6840
 4.9290	 3.7120
 4.9340	 3.7670
 4.9380	 3.7590
 4.9430	 3.7010
 4.9480	 3.6660
 4.9530	 3.7050
 4.9570	 3.7430
 4.9620	 3.7170
 4.9670	 3.7130
 4.9720	 3.7360
 4.9760	 3.7340
 4.9810	 3.6830
 4.9860	 3.7360
 4.9910	 3.8510
 4.9960	 3.8830
 5.0000	 3.8540
 5.0050	 3.8420
 5.0100	 3.7410
 5.0150	 3.7300
 5.0200	 3.7770
 5.0250	 3.7910
 5.0290	 3.7640
 5.0340	 3.7800
 5.0390	 3.8890
 5.0440	 3.8790
 5.0490	 3.7960
 5.0540	 3.7880
 5.0590	 3.7830
 5.0640	 3.7640
 5.0690	 3.7130
 5.0740	 3.7720
 5.0790	 3.8090
 5.0840	 3.8500
 5.0890	 3.8280
 5.0940	 3.8650
 5.0990	 3.9230
 5.1040	 3.8510
 5.1090	 3.7870
 5.1140	 3.8170
 5.1190	 3.7820
 5.1240	 3.7600
 5.1290	 3.7730
 5.1340	 3.8330
 5.1390	 3.8030
 5.1440	 3.7870
 5.1490	 3.7390
 5.1540	 3.7110
 5.1600	 3.7160
 5.1650	 3.7150
 5.1700	 3.7860
 5.1750	 3.8580
 5.1800	 3.8760
 5.1850	 3.7910
 5.1910	 3.7430
 5.1960	 3.7720
 5.2010	 3.7450
 5.2060	 3.8060
 5.2110	 3.8370
 5.2170	 3.8520
 5.2220	 3.8050
 5.2270	 3.8200
 5.2320	 3.8600
 5.2380	 3.8690
 5.2430	 3.8860
 5.2480	 3.8700
 5.2540	 3.8320
 5.2590	 3.8490
 5.2640	 3.7960
 5.2700	 3.8230
 5.2750	 3.8830
 5.2800	 3.8610
 5.2860	 3.7720
 5.2910	 3.7720
 5.2970	 3.8020
 5.3020	 3.8750
 5.3070	 3.8420
 5.3130	 3.8190
 5.3180	 3.7930
 5.3240	 3.8130
 5.3290	 3.8170
 5.3350	 3.8530
 5.3400	 3.8320
 5.3460	 3.7670
 5.3510	 3.7550
 5.3570	 3.7830
 5.3620	 3.7770
 5.3680	 3.8060
 5.3730	 3.7740
 5.3790	 3.8270
 5.3850	 3.8400
 5.3900	 3.8090
 5.3960	 3.7560
 5.4010	 3.8240
 5.4070	 3.7990
 5.4130	 3.7920
 5.4180	 3.7600
 5.4240	 3.7410
 5.4300	 3.7320
 5.4350	 3.7340
 5.4410	 3.6760
