Name: Ficus macrophylla f. columnaris
Type: vegetation
Class: Tree
Genus: Ficus
Species: macrophylla_columnaris
Sample No.: JPL096
Owner: JPL
Wavelength Range: VSWIR
Origin: 34.12573; - 118.11237; WGS84
Collection Date: 2/2/2016
Description: Samples were collected at the Huntington Garden in San Marino California as part of a JPL Subcontract studying HyTES imagery. Samples were taken to JPL and processed within 48 hours of collection. The same leaves were processed in the Nicolet and then measured using the ASD.
Measurement: Bidirectional reflectance
First Column: X
Second Column: Y
X Units: Wavelength (micrometer)
Y Units: Reflectance (percentage)
First X Value: 0.35
Last X Value: 2.5
Number of X Values: 2151
Additional Information: 

 0.3500	16.9400
 0.3510	17.0910
 0.3520	16.3370
 0.3530	16.3810
 0.3540	17.9420
 0.3550	17.5500
 0.3560	17.1860
 0.3570	17.1480
 0.3580	16.8350
 0.3590	16.3130
 0.3600	16.1950
 0.3610	16.5820
 0.3620	16.9020
 0.3630	16.9560
 0.3640	16.8670
 0.3650	16.8030
 0.3660	16.7280
 0.3670	16.4180
 0.3680	16.0970
 0.3690	16.2710
 0.3700	16.6000
 0.3710	16.8500
 0.3720	16.8660
 0.3730	16.5150
 0.3740	16.4320
 0.3750	16.6300
 0.3760	16.8480
 0.3770	16.6350
 0.3780	16.6230
 0.3790	16.8670
 0.3800	16.9060
 0.3810	16.6620
 0.3820	16.2630
 0.3830	15.9210
 0.3840	15.9250
 0.3850	15.9930
 0.3860	16.2200
 0.3870	16.6510
 0.3880	16.2220
 0.3890	16.1240
 0.3900	16.5090
 0.3910	16.3650
 0.3920	16.0000
 0.3930	15.9390
 0.3940	16.3770
 0.3950	16.6140
 0.3960	16.6680
 0.3970	16.5070
 0.3980	16.1690
 0.3990	16.1680
 0.4000	16.2910
 0.4010	16.3260
 0.4020	16.1600
 0.4030	16.3370
 0.4040	16.5080
 0.4050	16.3050
 0.4060	16.0210
 0.4070	15.9330
 0.4080	16.0110
 0.4090	16.0410
 0.4100	16.2070
 0.4110	16.3060
 0.4120	16.2500
 0.4130	16.2060
 0.4140	16.2960
 0.4150	16.3170
 0.4160	16.0970
 0.4170	16.1240
 0.4180	16.2580
 0.4190	16.2950
 0.4200	16.0300
 0.4210	15.9690
 0.4220	16.1060
 0.4230	16.2960
 0.4240	16.3640
 0.4250	16.2660
 0.4260	16.1370
 0.4270	16.1630
 0.4280	16.1700
 0.4290	16.1540
 0.4300	16.1100
 0.4310	16.0050
 0.4320	15.9080
 0.4330	15.8780
 0.4340	15.9080
 0.4350	15.7550
 0.4360	15.6330
 0.4370	15.6510
 0.4380	15.8160
 0.4390	15.9320
 0.4400	15.9940
 0.4410	16.0240
 0.4420	16.0100
 0.4430	16.0420
 0.4440	16.0970
 0.4450	16.1150
 0.4460	16.1490
 0.4470	16.1350
 0.4480	16.0850
 0.4490	16.1030
 0.4500	16.1150
 0.4510	16.1060
 0.4520	16.0960
 0.4530	16.1840
 0.4540	16.2140
 0.4550	16.1830
 0.4560	16.1820
 0.4570	16.1280
 0.4580	16.1220
 0.4590	16.1900
 0.4600	16.1930
 0.4610	16.1860
 0.4620	16.1900
 0.4630	16.2020
 0.4640	16.1630
 0.4650	16.1520
 0.4660	16.1810
 0.4670	16.1910
 0.4680	16.1560
 0.4690	16.1440
 0.4700	16.1800
 0.4710	16.0880
 0.4720	16.1600
 0.4730	16.2880
 0.4740	16.1990
 0.4750	16.1810
 0.4760	16.2150
 0.4770	16.2460
 0.4780	16.2090
 0.4790	16.2070
 0.4800	16.2130
 0.4810	16.1840
 0.4820	16.1820
 0.4830	16.1370
 0.4840	16.0570
 0.4850	16.0210
 0.4860	15.9940
 0.4870	15.9630
 0.4880	15.9300
 0.4890	15.9090
 0.4900	15.9440
 0.4910	15.9960
 0.4920	15.9980
 0.4930	15.9960
 0.4940	16.0560
 0.4950	16.1450
 0.4960	16.0990
 0.4970	16.1080
 0.4980	16.1680
 0.4990	16.2200
 0.5000	16.2290
 0.5010	16.2500
 0.5020	16.2810
 0.5030	16.2790
 0.5040	16.2660
 0.5050	16.2860
 0.5060	16.3470
 0.5070	16.3670
 0.5080	16.4050
 0.5090	16.4410
 0.5100	16.4360
 0.5110	16.4750
 0.5120	16.5170
 0.5130	16.5490
 0.5140	16.6130
 0.5150	16.6720
 0.5160	16.7690
 0.5170	16.9220
 0.5180	16.9760
 0.5190	17.0290
 0.5200	17.1240
 0.5210	17.2540
 0.5220	17.3930
 0.5230	17.5250
 0.5240	17.6470
 0.5250	17.7800
 0.5260	17.9090
 0.5270	18.0210
 0.5280	18.1190
 0.5290	18.2590
 0.5300	18.4060
 0.5310	18.5260
 0.5320	18.5940
 0.5330	18.6860
 0.5340	18.7890
 0.5350	18.8660
 0.5360	18.8800
 0.5370	18.8970
 0.5380	18.9280
 0.5390	18.9350
 0.5400	18.8510
 0.5410	18.6960
 0.5420	18.5190
 0.5430	18.3870
 0.5440	18.3470
 0.5450	18.4130
 0.5460	18.5690
 0.5470	18.7700
 0.5480	18.9540
 0.5490	19.0720
 0.5500	19.0930
 0.5510	19.1210
 0.5520	19.1570
 0.5530	19.1830
 0.5540	19.2340
 0.5550	19.2460
 0.5560	19.2220
 0.5570	19.2090
 0.5580	19.1550
 0.5590	19.0890
 0.5600	19.0310
 0.5610	18.9500
 0.5620	18.8660
 0.5630	18.7650
 0.5640	18.6350
 0.5650	18.5330
 0.5660	18.4570
 0.5670	18.3840
 0.5680	18.2720
 0.5690	18.1590
 0.5700	18.0620
 0.5710	17.9800
 0.5720	17.8800
 0.5730	17.7820
 0.5740	17.6910
 0.5750	17.6020
 0.5760	17.5320
 0.5770	17.4670
 0.5780	17.3940
 0.5790	17.3180
 0.5800	17.2340
 0.5810	17.1630
 0.5820	17.1230
 0.5830	17.0990
 0.5840	17.0860
 0.5850	17.0760
 0.5860	17.0610
 0.5870	17.0070
 0.5880	16.9700
 0.5890	16.9890
 0.5900	16.9800
 0.5910	16.9860
 0.5920	16.9970
 0.5930	16.9810
 0.5940	16.9840
 0.5950	16.9740
 0.5960	16.9510
 0.5970	16.9810
 0.5980	16.9910
 0.5990	16.9840
 0.6000	16.9760
 0.6010	16.9490
 0.6020	16.9270
 0.6030	16.9120
 0.6040	16.8830
 0.6050	16.8760
 0.6060	16.8660
 0.6070	16.8290
 0.6080	16.7960
 0.6090	16.6660
 0.6100	16.4320
 0.6110	16.1700
 0.6120	16.1330
 0.6130	16.2580
 0.6140	16.4260
 0.6150	16.4550
 0.6160	16.4900
 0.6170	16.5210
 0.6180	16.5090
 0.6190	16.4800
 0.6200	16.4580
 0.6210	16.4380
 0.6220	16.3970
 0.6230	16.4070
 0.6240	16.4300
 0.6250	16.4380
 0.6260	16.4580
 0.6270	16.4610
 0.6280	16.4490
 0.6290	16.4380
 0.6300	16.4310
 0.6310	16.4210
 0.6320	16.4230
 0.6330	16.4670
 0.6340	16.4740
 0.6350	16.4530
 0.6360	16.4350
 0.6370	16.4490
 0.6380	16.4510
 0.6390	16.4350
 0.6400	16.4130
 0.6410	16.4240
 0.6420	16.4210
 0.6430	16.3940
 0.6440	16.3960
 0.6450	16.3920
 0.6460	16.3890
 0.6470	16.3990
 0.6480	16.4020
 0.6490	16.3920
 0.6500	16.3800
 0.6510	16.3850
 0.6520	16.3810
 0.6530	16.3970
 0.6540	16.4370
 0.6550	16.4370
 0.6560	16.4300
 0.6570	16.4380
 0.6580	16.4660
 0.6590	16.4530
 0.6600	16.4540
 0.6610	16.4750
 0.6620	16.4720
 0.6630	16.4780
 0.6640	16.4910
 0.6650	16.5030
 0.6660	16.5300
 0.6670	16.5260
 0.6680	16.5200
 0.6690	16.5680
 0.6700	16.6050
 0.6710	16.6230
 0.6720	16.6290
 0.6730	16.6500
 0.6740	16.6760
 0.6750	16.7160
 0.6760	16.7640
 0.6770	16.7650
 0.6780	16.7700
 0.6790	16.8040
 0.6800	16.8690
 0.6810	16.9210
 0.6820	16.9540
 0.6830	16.9780
 0.6840	17.0110
 0.6850	17.0220
 0.6860	17.0360
 0.6870	17.0810
 0.6880	17.1120
 0.6890	17.1300
 0.6900	17.1540
 0.6910	17.2110
 0.6920	17.2630
 0.6930	17.3630
 0.6940	17.5390
 0.6950	17.7460
 0.6960	18.0110
 0.6970	18.3490
 0.6980	18.7670
 0.6990	19.2290
 0.7000	19.7700
 0.7010	20.3970
 0.7020	21.0890
 0.7030	21.8050
 0.7040	22.5640
 0.7050	23.3770
 0.7060	24.2090
 0.7070	25.0890
 0.7080	26.0080
 0.7090	26.9510
 0.7100	27.9280
 0.7110	28.9240
 0.7120	29.9470
 0.7130	31.0340
 0.7140	32.1230
 0.7150	33.2220
 0.7160	34.3410
 0.7170	35.4770
 0.7180	36.6370
 0.7190	37.8140
 0.7200	38.9940
 0.7210	40.1570
 0.7220	41.3250
 0.7230	42.5070
 0.7240	43.6950
 0.7250	44.8540
 0.7260	45.9880
 0.7270	47.0970
 0.7280	48.1400
 0.7290	49.1810
 0.7300	50.2010
 0.7310	51.1560
 0.7320	52.0980
 0.7330	53.0050
 0.7340	53.8610
 0.7350	54.6620
 0.7360	55.3890
 0.7370	56.0980
 0.7380	56.8150
 0.7390	57.4400
 0.7400	58.0390
 0.7410	58.6050
 0.7420	59.1160
 0.7430	59.6030
 0.7440	60.0460
 0.7450	60.4480
 0.7460	60.8300
 0.7470	61.1610
 0.7480	61.4670
 0.7490	61.7600
 0.7500	62.0080
 0.7510	62.2380
 0.7520	62.4620
 0.7530	62.6750
 0.7540	62.7980
 0.7550	62.9320
 0.7560	63.0900
 0.7570	63.2170
 0.7580	63.3450
 0.7590	63.4520
 0.7600	63.5290
 0.7610	63.5950
 0.7620	63.6580
 0.7630	63.7280
 0.7640	63.8000
 0.7650	63.8490
 0.7660	63.8690
 0.7670	63.8940
 0.7680	63.9720
 0.7690	63.9940
 0.7700	63.9980
 0.7710	64.0070
 0.7720	63.9940
 0.7730	64.0110
 0.7740	64.0550
 0.7750	64.0990
 0.7760	64.0760
 0.7770	64.0740
 0.7780	64.0910
 0.7790	64.0870
 0.7800	64.1050
 0.7810	64.1100
 0.7820	64.0980
 0.7830	64.0970
 0.7840	64.1080
 0.7850	64.1060
 0.7860	64.0880
 0.7870	64.1070
 0.7880	64.1170
 0.7890	64.1020
 0.7900	64.0660
 0.7910	64.0620
 0.7920	64.0780
 0.7930	64.0930
 0.7940	64.0860
 0.7950	64.0560
 0.7960	64.0200
 0.7970	63.9930
 0.7980	63.9790
 0.7990	63.9990
 0.8000	64.0140
 0.8010	63.9940
 0.8020	63.9850
 0.8030	63.9730
 0.8040	63.9500
 0.8050	63.9100
 0.8060	63.8730
 0.8070	63.8540
 0.8080	63.8560
 0.8090	63.8610
 0.8100	63.8480
 0.8110	63.8000
 0.8120	63.7420
 0.8130	63.7600
 0.8140	63.7430
 0.8150	63.7200
 0.8160	63.7320
 0.8170	63.7450
 0.8180	63.7050
 0.8190	63.6410
 0.8200	63.6140
 0.8210	63.6310
 0.8220	63.6340
 0.8230	63.6160
 0.8240	63.6140
 0.8250	63.5630
 0.8260	63.5200
 0.8270	63.5180
 0.8280	63.5240
 0.8290	63.5300
 0.8300	63.5300
 0.8310	63.5250
 0.8320	63.5290
 0.8330	63.4870
 0.8340	63.4330
 0.8350	63.4320
 0.8360	63.4520
 0.8370	63.4600
 0.8380	63.4550
 0.8390	63.4650
 0.8400	63.4720
 0.8410	63.4700
 0.8420	63.4640
 0.8430	63.4650
 0.8440	63.4710
 0.8450	63.4800
 0.8460	63.4870
 0.8470	63.4870
 0.8480	63.5130
 0.8490	63.5330
 0.8500	63.5140
 0.8510	63.5380
 0.8520	63.5580
 0.8530	63.5630
 0.8540	63.5610
 0.8550	63.5740
 0.8560	63.6060
 0.8570	63.6370
 0.8580	63.6300
 0.8590	63.6460
 0.8600	63.6560
 0.8610	63.6500
 0.8620	63.6760
 0.8630	63.6720
 0.8640	63.6930
 0.8650	63.7750
 0.8660	63.8260
 0.8670	63.7980
 0.8680	63.7490
 0.8690	63.7570
 0.8700	63.7830
 0.8710	63.7800
 0.8720	63.7720
 0.8730	63.8080
 0.8740	63.8310
 0.8750	63.8980
 0.8760	63.9810
 0.8770	63.9810
 0.8780	63.9980
 0.8790	63.9760
 0.8800	63.9430
 0.8810	64.0710
 0.8820	64.0450
 0.8830	63.9990
 0.8840	64.0520
 0.8850	64.0660
 0.8860	64.1080
 0.8870	64.1410
 0.8880	64.1290
 0.8890	64.1370
 0.8900	64.1480
 0.8910	64.1500
 0.8920	64.1380
 0.8930	64.1730
 0.8940	64.2090
 0.8950	64.2230
 0.8960	64.2100
 0.8970	64.2170
 0.8980	64.2060
 0.8990	64.1960
 0.9000	64.2470
 0.9010	64.2530
 0.9020	64.2650
 0.9030	64.2950
 0.9040	64.2710
 0.9050	64.2250
 0.9060	64.2090
 0.9070	64.2440
 0.9080	64.2910
 0.9090	64.3050
 0.9100	64.2830
 0.9110	64.2460
 0.9120	64.2390
 0.9130	64.2190
 0.9140	64.2540
 0.9150	64.3710
 0.9160	64.3250
 0.9170	64.3050
 0.9180	64.3220
 0.9190	64.3130
 0.9200	64.2720
 0.9210	64.2800
 0.9220	64.3020
 0.9230	64.2590
 0.9240	64.2580
 0.9250	64.2400
 0.9260	64.2160
 0.9270	64.2400
 0.9280	64.1980
 0.9290	64.1490
 0.9300	64.1150
 0.9310	64.0700
 0.9320	64.1190
 0.9330	64.0810
 0.9340	63.9450
 0.9350	63.9270
 0.9360	63.9120
 0.9370	63.8840
 0.9380	63.8520
 0.9390	63.8290
 0.9400	63.7750
 0.9410	63.7400
 0.9420	63.7440
 0.9430	63.7200
 0.9440	63.7040
 0.9450	63.6140
 0.9460	63.4510
 0.9470	63.4170
 0.9480	63.3220
 0.9490	63.2640
 0.9500	63.2850
 0.9510	63.1150
 0.9520	62.9580
 0.9530	62.9100
 0.9540	62.9440
 0.9550	62.7880
 0.9560	62.7490
 0.9570	62.7700
 0.9580	62.7060
 0.9590	62.5750
 0.9600	62.4140
 0.9610	62.3130
 0.9620	62.3160
 0.9630	62.2540
 0.9640	62.2440
 0.9650	62.2470
 0.9660	62.1990
 0.9670	62.2160
 0.9680	62.1670
 0.9690	62.0680
 0.9700	62.0050
 0.9710	62.0090
 0.9720	62.0690
 0.9730	62.0830
 0.9740	61.9760
 0.9750	62.0020
 0.9760	62.0010
 0.9770	61.9840
 0.9780	62.0220
 0.9790	62.0330
 0.9800	62.0270
 0.9810	62.0280
 0.9820	62.0480
 0.9830	62.0480
 0.9840	62.0140
 0.9850	61.9940
 0.9860	62.0490
 0.9870	62.1800
 0.9880	62.1660
 0.9890	62.0640
 0.9900	62.0420
 0.9910	62.0370
 0.9920	62.0560
 0.9930	62.1140
 0.9940	62.2020
 0.9950	62.1950
 0.9960	62.1980
 0.9970	62.2240
 0.9980	62.2490
 0.9990	62.2870
 1.0000	62.3030
 1.0010	62.8140
 1.0020	62.8490
 1.0030	62.8780
 1.0040	62.8950
 1.0050	62.9010
 1.0060	62.9390
 1.0070	62.9940
 1.0080	63.0250
 1.0090	63.0310
 1.0100	63.0630
 1.0110	63.1160
 1.0120	63.1370
 1.0130	63.1590
 1.0140	63.1810
 1.0150	63.1720
 1.0160	63.1620
 1.0170	63.2180
 1.0180	63.2830
 1.0190	63.3290
 1.0200	63.3790
 1.0210	63.4240
 1.0220	63.4400
 1.0230	63.4630
 1.0240	63.4920
 1.0250	63.5140
 1.0260	63.5210
 1.0270	63.5430
 1.0280	63.5750
 1.0290	63.5950
 1.0300	63.5840
 1.0310	63.6140
 1.0320	63.6810
 1.0330	63.7200
 1.0340	63.7300
 1.0350	63.7710
 1.0360	63.7900
 1.0370	63.8370
 1.0380	63.8660
 1.0390	63.9340
 1.0400	63.9590
 1.0410	63.9320
 1.0420	63.9380
 1.0430	63.9570
 1.0440	63.9750
 1.0450	63.9840
 1.0460	64.0160
 1.0470	64.0950
 1.0480	64.1250
 1.0490	64.1240
 1.0500	64.1450
 1.0510	64.1370
 1.0520	64.1570
 1.0530	64.1740
 1.0540	64.2280
 1.0550	64.2420
 1.0560	64.2180
 1.0570	64.2340
 1.0580	64.2700
 1.0590	64.2810
 1.0600	64.3040
 1.0610	64.3090
 1.0620	64.2790
 1.0630	64.2670
 1.0640	64.2540
 1.0650	64.2490
 1.0660	64.2400
 1.0670	64.2460
 1.0680	64.2630
 1.0690	64.2990
 1.0700	64.3190
 1.0710	64.3520
 1.0720	64.3560
 1.0730	64.3460
 1.0740	64.3270
 1.0750	64.2860
 1.0760	64.2600
 1.0770	64.2160
 1.0780	64.2060
 1.0790	64.2210
 1.0800	64.2290
 1.0810	64.2660
 1.0820	64.2760
 1.0830	64.2640
 1.0840	64.2600
 1.0850	64.2550
 1.0860	64.2420
 1.0870	64.2300
 1.0880	64.2180
 1.0890	64.2130
 1.0900	64.2070
 1.0910	64.2000
 1.0920	64.2090
 1.0930	64.1950
 1.0940	64.1660
 1.0950	64.1440
 1.0960	64.0930
 1.0970	64.0820
 1.0980	64.1010
 1.0990	64.1070
 1.1000	64.1390
 1.1010	64.1550
 1.1020	64.1700
 1.1030	64.1570
 1.1040	64.1440
 1.1050	64.1200
 1.1060	64.1000
 1.1070	64.0740
 1.1080	64.0440
 1.1090	64.0070
 1.1100	63.9890
 1.1110	63.9640
 1.1120	63.9510
 1.1130	63.9690
 1.1140	63.9650
 1.1150	63.9580
 1.1160	63.9460
 1.1170	63.9290
 1.1180	63.9040
 1.1190	63.8720
 1.1200	63.8260
 1.1210	63.7840
 1.1220	63.7590
 1.1230	63.7440
 1.1240	63.7090
 1.1250	63.6520
 1.1260	63.5800
 1.1270	63.4950
 1.1280	63.3750
 1.1290	63.2830
 1.1300	63.1960
 1.1310	63.0960
 1.1320	63.0120
 1.1330	62.8940
 1.1340	62.7440
 1.1350	62.6090
 1.1360	62.4670
 1.1370	62.3170
 1.1380	62.1860
 1.1390	62.0270
 1.1400	61.8730
 1.1410	61.7100
 1.1420	61.5180
 1.1430	61.3310
 1.1440	61.1490
 1.1450	60.9510
 1.1460	60.7770
 1.1470	60.6270
 1.1480	60.4650
 1.1490	60.2980
 1.1500	60.1450
 1.1510	59.9910
 1.1520	59.8560
 1.1530	59.7320
 1.1540	59.6190
 1.1550	59.5190
 1.1560	59.4290
 1.1570	59.3600
 1.1580	59.2960
 1.1590	59.2400
 1.1600	59.1860
 1.1610	59.1130
 1.1620	59.0560
 1.1630	58.9870
 1.1640	58.9240
 1.1650	58.8810
 1.1660	58.8510
 1.1670	58.8180
 1.1680	58.8040
 1.1690	58.7800
 1.1700	58.7490
 1.1710	58.7250
 1.1720	58.7030
 1.1730	58.6840
 1.1740	58.6680
 1.1750	58.6560
 1.1760	58.6420
 1.1770	58.6300
 1.1780	58.6120
 1.1790	58.5900
 1.1800	58.5640
 1.1810	58.5210
 1.1820	58.4770
 1.1830	58.4440
 1.1840	58.4060
 1.1850	58.3810
 1.1860	58.3620
 1.1870	58.3190
 1.1880	58.2930
 1.1890	58.2710
 1.1900	58.2600
 1.1910	58.2650
 1.1920	58.2660
 1.1930	58.2820
 1.1940	58.2710
 1.1950	58.2420
 1.1960	58.2200
 1.1970	58.2010
 1.1980	58.1970
 1.1990	58.2120
 1.2000	58.2310
 1.2010	58.2430
 1.2020	58.2390
 1.2030	58.2330
 1.2040	58.2260
 1.2050	58.2180
 1.2060	58.2330
 1.2070	58.2560
 1.2080	58.2680
 1.2090	58.2750
 1.2100	58.2760
 1.2110	58.2910
 1.2120	58.3100
 1.2130	58.3360
 1.2140	58.3810
 1.2150	58.4160
 1.2160	58.4510
 1.2170	58.4780
 1.2180	58.5050
 1.2190	58.5260
 1.2200	58.5440
 1.2210	58.5690
 1.2220	58.6090
 1.2230	58.6560
 1.2240	58.7100
 1.2250	58.7640
 1.2260	58.8130
 1.2270	58.8520
 1.2280	58.8830
 1.2290	58.9170
 1.2300	58.9450
 1.2310	58.9680
 1.2320	58.9870
 1.2330	59.0060
 1.2340	59.0320
 1.2350	59.0650
 1.2360	59.0920
 1.2370	59.1210
 1.2380	59.1430
 1.2390	59.1670
 1.2400	59.1860
 1.2410	59.2060
 1.2420	59.2310
 1.2430	59.2520
 1.2440	59.2630
 1.2450	59.2830
 1.2460	59.3100
 1.2470	59.3170
 1.2480	59.3290
 1.2490	59.3610
 1.2500	59.3930
 1.2510	59.4240
 1.2520	59.4490
 1.2530	59.4490
 1.2540	59.4480
 1.2550	59.4460
 1.2560	59.4490
 1.2570	59.4800
 1.2580	59.5010
 1.2590	59.5120
 1.2600	59.5300
 1.2610	59.5350
 1.2620	59.5230
 1.2630	59.5090
 1.2640	59.5090
 1.2650	59.5100
 1.2660	59.5160
 1.2670	59.5280
 1.2680	59.5370
 1.2690	59.5430
 1.2700	59.5370
 1.2710	59.5120
 1.2720	59.4950
 1.2730	59.4800
 1.2740	59.4550
 1.2750	59.4510
 1.2760	59.4390
 1.2770	59.4040
 1.2780	59.3780
 1.2790	59.3520
 1.2800	59.3140
 1.2810	59.2830
 1.2820	59.2570
 1.2830	59.2230
 1.2840	59.1990
 1.2850	59.1710
 1.2860	59.1280
 1.2870	59.0780
 1.2880	59.0210
 1.2890	58.9500
 1.2900	58.8840
 1.2910	58.8290
 1.2920	58.7860
 1.2930	58.7410
 1.2940	58.6900
 1.2950	58.6350
 1.2960	58.5640
 1.2970	58.4930
 1.2980	58.4240
 1.2990	58.3590
 1.3000	58.2960
 1.3010	58.2300
 1.3020	58.1590
 1.3030	58.0720
 1.3040	57.9700
 1.3050	57.8770
 1.3060	57.7810
 1.3070	57.6770
 1.3080	57.5880
 1.3090	57.4890
 1.3100	57.3790
 1.3110	57.2820
 1.3120	57.1720
 1.3130	57.0410
 1.3140	56.9190
 1.3150	56.8010
 1.3160	56.6760
 1.3170	56.5470
 1.3180	56.4270
 1.3190	56.3000
 1.3200	56.1400
 1.3210	55.9800
 1.3220	55.8300
 1.3230	55.6750
 1.3240	55.5270
 1.3250	55.3840
 1.3260	55.2460
 1.3270	55.1050
 1.3280	54.9540
 1.3290	54.8060
 1.3300	54.6400
 1.3310	54.4560
 1.3320	54.2820
 1.3330	54.1150
 1.3340	53.9630
 1.3350	53.8170
 1.3360	53.6600
 1.3370	53.4880
 1.3380	53.3150
 1.3390	53.1470
 1.3400	52.9790
 1.3410	52.8230
 1.3420	52.6740
 1.3430	52.5110
 1.3440	52.3710
 1.3450	52.2310
 1.3460	52.0910
 1.3470	51.9470
 1.3480	51.8040
 1.3490	51.6600
 1.3500	51.5120
 1.3510	51.3750
 1.3520	51.2410
 1.3530	51.1050
 1.3540	50.9660
 1.3550	50.8360
 1.3560	50.7000
 1.3570	50.5590
 1.3580	50.4260
 1.3590	50.2810
 1.3600	50.1280
 1.3610	49.9750
 1.3620	49.8060
 1.3630	49.6250
 1.3640	49.4360
 1.3650	49.2470
 1.3660	49.0540
 1.3670	48.8530
 1.3680	48.6340
 1.3690	48.3920
 1.3700	48.1370
 1.3710	47.8630
 1.3720	47.5710
 1.3730	47.2630
 1.3740	46.9260
 1.3750	46.5640
 1.3760	46.1790
 1.3770	45.7690
 1.3780	45.3330
 1.3790	44.8730
 1.3800	44.3770
 1.3810	43.8550
 1.3820	43.3180
 1.3830	42.7580
 1.3840	42.1800
 1.3850	41.5900
 1.3860	40.9740
 1.3870	40.3250
 1.3880	39.6790
 1.3890	39.0170
 1.3900	38.3580
 1.3910	37.7090
 1.3920	37.0650
 1.3930	36.4250
 1.3940	35.7980
 1.3950	35.1750
 1.3960	34.5680
 1.3970	33.9800
 1.3980	33.4010
 1.3990	32.8470
 1.4000	32.3190
 1.4010	31.8060
 1.4020	31.3140
 1.4030	30.8450
 1.4040	30.3940
 1.4050	29.9730
 1.4060	29.5810
 1.4070	29.2180
 1.4080	28.8820
 1.4090	28.5630
 1.4100	28.2600
 1.4110	27.9760
 1.4120	27.7070
 1.4130	27.4550
 1.4140	27.2220
 1.4150	27.0110
 1.4160	26.8150
 1.4170	26.6310
 1.4180	26.4620
 1.4190	26.3010
 1.4200	26.1520
 1.4210	26.0160
 1.4220	25.8930
 1.4230	25.7810
 1.4240	25.6660
 1.4250	25.5620
 1.4260	25.4650
 1.4270	25.3770
 1.4280	25.2990
 1.4290	25.2290
 1.4300	25.1690
 1.4310	25.1110
 1.4320	25.0590
 1.4330	25.0080
 1.4340	24.9590
 1.4350	24.9140
 1.4360	24.8710
 1.4370	24.8370
 1.4380	24.8090
 1.4390	24.7880
 1.4400	24.7670
 1.4410	24.7490
 1.4420	24.7360
 1.4430	24.7210
 1.4440	24.7130
 1.4450	24.7090
 1.4460	24.7000
 1.4470	24.6980
 1.4480	24.6980
 1.4490	24.7000
 1.4500	24.7080
 1.4510	24.7070
 1.4520	24.7110
 1.4530	24.7170
 1.4540	24.7270
 1.4550	24.7480
 1.4560	24.7640
 1.4570	24.7830
 1.4580	24.8030
 1.4590	24.8240
 1.4600	24.8500
 1.4610	24.8820
 1.4620	24.9200
 1.4630	24.9620
 1.4640	25.0150
 1.4650	25.0720
 1.4660	25.1300
 1.4670	25.1890
 1.4680	25.2510
 1.4690	25.3170
 1.4700	25.3930
 1.4710	25.4740
 1.4720	25.5580
 1.4730	25.6430
 1.4740	25.7230
 1.4750	25.8050
 1.4760	25.8950
 1.4770	25.9880
 1.4780	26.0880
 1.4790	26.1920
 1.4800	26.3000
