Name: Baccharis pilularis 1
Type: vegetation
Class: Shrub
Genus: Baccharis
Species: pilularis
Sample No.: VH031
Owner: UCSB
Wavelength Range: VSWIR
Origin: 34.5084; -119.7687; WGS84
Collection Date: 4/1/2013
Description: Samples were collected as part of the HyspIRI Airborne Campaign. 48 individual plants were sampled in three times in 2013 - spring  summer  and fall. The name of the sample includes a 1  2  or 3 which references a different individual of the species. Samples were taken to JPL and processed within 48 hours of collection. The same leaves were processed in the Nicolet and then measured using the ASD.
Measurement: Bidirectional reflectance
First Column: X
Second Column: Y
X Units: Wavelength (micrometers)
Y Units: Reflectance (percentage)
First X Value: 0.35
Last X Value: 2.5
Number of X Values: 2151
Additional Information: vegetation.shrub.baccharis.pilularis.vswir.vh031.ucsb.asd.ancillary.txt

 0.3500	 6.0170
 0.3510	 6.2410
 0.3520	 6.0180
 0.3530	 5.7790
 0.3540	 5.8950
 0.3550	 5.8860
 0.3560	 5.8320
 0.3570	 5.7560
 0.3580	 5.6630
 0.3590	 5.7270
 0.3600	 5.7480
 0.3610	 5.6850
 0.3620	 5.7620
 0.3630	 5.8500
 0.3640	 5.7970
 0.3650	 5.5810
 0.3660	 5.6380
 0.3670	 5.6720
 0.3680	 5.6580
 0.3690	 5.7480
 0.3700	 5.7040
 0.3710	 5.6510
 0.3720	 5.6750
 0.3730	 5.7190
 0.3740	 5.6840
 0.3750	 5.6200
 0.3760	 5.6000
 0.3770	 5.5460
 0.3780	 5.5440
 0.3790	 5.5810
 0.3800	 5.5650
 0.3810	 5.6160
 0.3820	 5.6460
 0.3830	 5.5970
 0.3840	 5.5320
 0.3850	 5.6030
 0.3860	 5.6690
 0.3870	 5.5480
 0.3880	 5.5450
 0.3890	 5.5440
 0.3900	 5.5120
 0.3910	 5.5250
 0.3920	 5.5370
 0.3930	 5.5410
 0.3940	 5.5380
 0.3950	 5.5460
 0.3960	 5.5650
 0.3970	 5.5760
 0.3980	 5.5570
 0.3990	 5.5630
 0.4000	 5.5520
 0.4010	 5.5110
 0.4020	 5.4740
 0.4030	 5.4830
 0.4040	 5.4950
 0.4050	 5.4780
 0.4060	 5.5090
 0.4070	 5.5350
 0.4080	 5.5230
 0.4090	 5.4650
 0.4100	 5.4690
 0.4110	 5.4950
 0.4120	 5.5110
 0.4130	 5.5360
 0.4140	 5.5290
 0.4150	 5.5100
 0.4160	 5.5110
 0.4170	 5.5320
 0.4180	 5.5710
 0.4190	 5.6030
 0.4200	 5.5900
 0.4210	 5.6010
 0.4220	 5.6330
 0.4230	 5.6680
 0.4240	 5.6830
 0.4250	 5.7140
 0.4260	 5.7560
 0.4270	 5.7880
 0.4280	 5.8280
 0.4290	 5.8770
 0.4300	 5.9250
 0.4310	 5.9510
 0.4320	 5.9920
 0.4330	 6.0290
 0.4340	 6.0470
 0.4350	 6.0820
 0.4360	 6.1250
 0.4370	 6.1650
 0.4380	 6.1900
 0.4390	 6.2190
 0.4400	 6.2590
 0.4410	 6.3090
 0.4420	 6.3430
 0.4430	 6.3760
 0.4440	 6.4020
 0.4450	 6.4150
 0.4460	 6.4590
 0.4470	 6.5020
 0.4480	 6.5300
 0.4490	 6.5620
 0.4500	 6.5860
 0.4510	 6.6070
 0.4520	 6.6320
 0.4530	 6.6680
 0.4540	 6.6940
 0.4550	 6.7110
 0.4560	 6.7280
 0.4570	 6.7390
 0.4580	 6.7550
 0.4590	 6.7790
 0.4600	 6.8010
 0.4610	 6.8170
 0.4620	 6.8310
 0.4630	 6.8450
 0.4640	 6.8530
 0.4650	 6.8630
 0.4660	 6.8780
 0.4670	 6.8880
 0.4680	 6.8950
 0.4690	 6.9000
 0.4700	 6.9040
 0.4710	 6.8950
 0.4720	 6.9030
 0.4730	 6.9230
 0.4740	 6.9330
 0.4750	 6.9380
 0.4760	 6.9450
 0.4770	 6.9530
 0.4780	 6.9570
 0.4790	 6.9600
 0.4800	 6.9670
 0.4810	 6.9790
 0.4820	 6.9810
 0.4830	 6.9910
 0.4840	 7.0040
 0.4850	 6.9940
 0.4860	 7.0140
 0.4870	 7.0340
 0.4880	 7.0340
 0.4890	 7.0410
 0.4900	 7.0520
 0.4910	 7.0700
 0.4920	 7.0940
 0.4930	 7.1110
 0.4940	 7.1290
 0.4950	 7.1520
 0.4960	 7.1740
 0.4970	 7.1960
 0.4980	 7.2230
 0.4990	 7.2550
 0.5000	 7.2840
 0.5010	 7.3190
 0.5020	 7.3590
 0.5030	 7.3930
 0.5040	 7.4360
 0.5050	 7.4880
 0.5060	 7.5460
 0.5070	 7.6100
 0.5080	 7.6810
 0.5090	 7.7540
 0.5100	 7.8270
 0.5110	 7.9200
 0.5120	 8.0210
 0.5130	 8.1280
 0.5140	 8.2440
 0.5150	 8.3680
 0.5160	 8.5050
 0.5170	 8.6540
 0.5180	 8.8090
 0.5190	 8.9700
 0.5200	 9.1390
 0.5210	 9.3150
 0.5220	 9.4940
 0.5230	 9.6740
 0.5240	 9.8510
 0.5250	10.0230
 0.5260	10.1930
 0.5270	10.3620
 0.5280	10.5230
 0.5290	10.6660
 0.5300	10.7990
 0.5310	10.9250
 0.5320	11.0450
 0.5330	11.1580
 0.5340	11.2600
 0.5350	11.3500
 0.5360	11.4300
 0.5370	11.5050
 0.5380	11.5750
 0.5390	11.6360
 0.5400	11.6930
 0.5410	11.7460
 0.5420	11.7950
 0.5430	11.8460
 0.5440	11.8950
 0.5450	11.9410
 0.5460	11.9860
 0.5470	12.0240
 0.5480	12.0560
 0.5490	12.0830
 0.5500	12.1060
 0.5510	12.1220
 0.5520	12.1280
 0.5530	12.1210
 0.5540	12.1040
 0.5550	12.0740
 0.5560	12.0290
 0.5570	11.9710
 0.5580	11.9060
 0.5590	11.8310
 0.5600	11.7450
 0.5610	11.6620
 0.5620	11.5730
 0.5630	11.4760
 0.5640	11.3730
 0.5650	11.2640
 0.5660	11.1490
 0.5670	11.0290
 0.5680	10.9100
 0.5690	10.7890
 0.5700	10.6630
 0.5710	10.5320
 0.5720	10.4140
 0.5730	10.3030
 0.5740	10.1980
 0.5750	10.0990
 0.5760	10.0060
 0.5770	 9.9170
 0.5780	 9.8310
 0.5790	 9.7460
 0.5800	 9.6650
 0.5810	 9.5920
 0.5820	 9.5310
 0.5830	 9.4780
 0.5840	 9.4310
 0.5850	 9.3850
 0.5860	 9.3350
 0.5870	 9.2850
 0.5880	 9.2450
 0.5890	 9.2190
 0.5900	 9.1910
 0.5910	 9.1700
 0.5920	 9.1550
 0.5930	 9.1430
 0.5940	 9.1290
 0.5950	 9.1110
 0.5960	 9.0910
 0.5970	 9.0720
 0.5980	 9.0520
 0.5990	 9.0310
 0.6000	 9.0090
 0.6010	 8.9840
 0.6020	 8.9520
 0.6030	 8.9140
 0.6040	 8.8720
 0.6050	 8.8270
 0.6060	 8.7780
 0.6070	 8.7220
 0.6080	 8.6630
 0.6090	 8.6030
 0.6100	 8.5440
 0.6110	 8.4850
 0.6120	 8.4270
 0.6130	 8.3680
 0.6140	 8.3080
 0.6150	 8.2590
 0.6160	 8.2080
 0.6170	 8.1590
 0.6180	 8.1150
 0.6190	 8.0780
 0.6200	 8.0470
 0.6210	 8.0190
 0.6220	 7.9950
 0.6230	 7.9680
 0.6240	 7.9470
 0.6250	 7.9340
 0.6260	 7.9200
 0.6270	 7.9090
 0.6280	 7.9010
 0.6290	 7.8900
 0.6300	 7.8870
 0.6310	 7.8850
 0.6320	 7.8820
 0.6330	 7.8800
 0.6340	 7.8690
 0.6350	 7.8550
 0.6360	 7.8430
 0.6370	 7.8300
 0.6380	 7.8120
 0.6390	 7.7900
 0.6400	 7.7640
 0.6410	 7.7340
 0.6420	 7.7020
 0.6430	 7.6700
 0.6440	 7.6320
 0.6450	 7.5940
 0.6460	 7.5550
 0.6470	 7.5120
 0.6480	 7.4710
 0.6490	 7.4280
 0.6500	 7.3870
 0.6510	 7.3530
 0.6520	 7.3180
 0.6530	 7.2820
 0.6540	 7.2450
 0.6550	 7.2080
 0.6560	 7.1690
 0.6570	 7.1270
 0.6580	 7.0850
 0.6590	 7.0430
 0.6600	 7.0010
 0.6610	 6.9620
 0.6620	 6.9250
 0.6630	 6.8900
 0.6640	 6.8590
 0.6650	 6.8320
 0.6660	 6.8130
 0.6670	 6.7940
 0.6680	 6.7750
 0.6690	 6.7650
 0.6700	 6.7620
 0.6710	 6.7610
 0.6720	 6.7580
 0.6730	 6.7600
 0.6740	 6.7660
 0.6750	 6.7720
 0.6760	 6.7780
 0.6770	 6.7930
 0.6780	 6.8080
 0.6790	 6.8230
 0.6800	 6.8440
 0.6810	 6.8730
 0.6820	 6.9040
 0.6830	 6.9370
 0.6840	 6.9790
 0.6850	 7.0300
 0.6860	 7.0880
 0.6870	 7.1550
 0.6880	 7.2400
 0.6890	 7.3420
 0.6900	 7.4690
 0.6910	 7.6280
 0.6920	 7.8210
 0.6930	 8.0490
 0.6940	 8.3190
 0.6950	 8.6430
 0.6960	 9.0200
 0.6970	 9.4510
 0.6980	 9.9420
 0.6990	10.4880
 0.7000	11.0890
 0.7010	11.7430
 0.7020	12.4500
 0.7030	13.2030
 0.7040	13.9980
 0.7050	14.8300
 0.7060	15.6960
 0.7070	16.5920
 0.7080	17.5140
 0.7090	18.4640
 0.7100	19.4400
 0.7110	20.4390
 0.7120	21.4610
 0.7130	22.5010
 0.7140	23.5570
 0.7150	24.6300
 0.7160	25.7170
 0.7170	26.8100
 0.7180	27.9140
 0.7190	29.0270
 0.7200	30.1420
 0.7210	31.2540
 0.7220	32.3670
 0.7230	33.4770
 0.7240	34.5690
 0.7250	35.6510
 0.7260	36.7150
 0.7270	37.7560
 0.7280	38.7740
 0.7290	39.7640
 0.7300	40.7260
 0.7310	41.6600
 0.7320	42.5570
 0.7330	43.4230
 0.7340	44.2580
 0.7350	45.0600
 0.7360	45.8300
 0.7370	46.5630
 0.7380	47.2610
 0.7390	47.9320
 0.7400	48.5660
 0.7410	49.1650
 0.7420	49.7350
 0.7430	50.2750
 0.7440	50.7830
 0.7450	51.2610
 0.7460	51.7080
 0.7470	52.1250
 0.7480	52.5160
 0.7490	52.8800
 0.7500	53.2160
 0.7510	53.5270
 0.7520	53.8160
 0.7530	54.0850
 0.7540	54.3220
 0.7550	54.5450
 0.7560	54.7570
 0.7570	54.9550
 0.7580	55.1260
 0.7590	55.2840
 0.7600	55.4340
 0.7610	55.5710
 0.7620	55.6940
 0.7630	55.8070
 0.7640	55.9110
 0.7650	56.0060
 0.7660	56.0950
 0.7670	56.1760
 0.7680	56.2480
 0.7690	56.3150
 0.7700	56.3780
 0.7710	56.4380
 0.7720	56.4980
 0.7730	56.5510
 0.7740	56.6010
 0.7750	56.6480
 0.7760	56.6880
 0.7770	56.7270
 0.7780	56.7660
 0.7790	56.8060
 0.7800	56.8440
 0.7810	56.8790
 0.7820	56.9130
 0.7830	56.9480
 0.7840	56.9790
 0.7850	57.0050
 0.7860	57.0300
 0.7870	57.0580
 0.7880	57.0860
 0.7890	57.1110
 0.7900	57.1330
 0.7910	57.1570
 0.7920	57.1810
 0.7930	57.2050
 0.7940	57.2240
 0.7950	57.2390
 0.7960	57.2590
 0.7970	57.2810
 0.7980	57.2910
 0.7990	57.3080
 0.8000	57.3250
 0.8010	57.3360
 0.8020	57.3460
 0.8030	57.3600
 0.8040	57.3710
 0.8050	57.3760
 0.8060	57.3840
 0.8070	57.3930
 0.8080	57.4000
 0.8090	57.4080
 0.8100	57.4090
 0.8110	57.4120
 0.8120	57.4160
 0.8130	57.4120
 0.8140	57.4090
 0.8150	57.4100
 0.8160	57.4110
 0.8170	57.4130
 0.8180	57.4070
 0.8190	57.4020
 0.8200	57.4090
 0.8210	57.4020
 0.8220	57.3930
 0.8230	57.3880
 0.8240	57.3890
 0.8250	57.3740
 0.8260	57.3610
 0.8270	57.3560
 0.8280	57.3390
 0.8290	57.3240
 0.8300	57.3100
 0.8310	57.2910
 0.8320	57.2740
 0.8330	57.2590
 0.8340	57.2430
 0.8350	57.2250
 0.8360	57.2220
 0.8370	57.2170
 0.8380	57.2080
 0.8390	57.2030
 0.8400	57.2030
 0.8410	57.2050
 0.8420	57.2070
 0.8430	57.2040
 0.8440	57.2060
 0.8450	57.2100
 0.8460	57.2130
 0.8470	57.2170
 0.8480	57.2160
 0.8490	57.2150
 0.8500	57.2220
 0.8510	57.2260
 0.8520	57.2330
 0.8530	57.2400
 0.8540	57.2370
 0.8550	57.2320
 0.8560	57.2350
 0.8570	57.2470
 0.8580	57.2530
 0.8590	57.2540
 0.8600	57.2540
 0.8610	57.2570
 0.8620	57.2670
 0.8630	57.2740
 0.8640	57.2770
 0.8650	57.2770
 0.8660	57.2800
 0.8670	57.2800
 0.8680	57.2790
 0.8690	57.2810
 0.8700	57.2980
 0.8710	57.3070
 0.8720	57.3110
 0.8730	57.3240
 0.8740	57.3280
 0.8750	57.3320
 0.8760	57.3390
 0.8770	57.3470
 0.8780	57.3580
 0.8790	57.3590
 0.8800	57.3530
 0.8810	57.3650
 0.8820	57.3710
 0.8830	57.3710
 0.8840	57.3710
 0.8850	57.3820
 0.8860	57.3840
 0.8870	57.3830
 0.8880	57.3850
 0.8890	57.3810
 0.8900	57.3780
 0.8910	57.3790
 0.8920	57.3800
 0.8930	57.3690
 0.8940	57.3680
 0.8950	57.3710
 0.8960	57.3580
 0.8970	57.3610
 0.8980	57.3620
 0.8990	57.3520
 0.9000	57.3420
 0.9010	57.3290
 0.9020	57.3240
 0.9030	57.3240
 0.9040	57.3170
 0.9050	57.3200
 0.9060	57.3170
 0.9070	57.3030
 0.9080	57.2980
 0.9090	57.2930
 0.9100	57.2850
 0.9110	57.2730
 0.9120	57.2690
 0.9130	57.2610
 0.9140	57.2470
 0.9150	57.2350
 0.9160	57.2360
 0.9170	57.2300
 0.9180	57.2110
 0.9190	57.1840
 0.9200	57.1690
 0.9210	57.1440
 0.9220	57.1160
 0.9230	57.1020
 0.9240	57.0580
 0.9250	57.0270
 0.9260	57.0030
 0.9270	56.9520
 0.9280	56.9210
 0.9290	56.8720
 0.9300	56.8030
 0.9310	56.7500
 0.9320	56.6830
 0.9330	56.6150
 0.9340	56.5560
 0.9350	56.5070
 0.9360	56.4320
 0.9370	56.3480
 0.9380	56.2680
 0.9390	56.1840
 0.9400	56.0990
 0.9410	56.0150
 0.9420	55.9300
 0.9430	55.8440
 0.9440	55.7340
 0.9450	55.6150
 0.9460	55.4990
 0.9470	55.3670
 0.9480	55.2400
 0.9490	55.0970
 0.9500	54.9270
 0.9510	54.7650
 0.9520	54.5750
 0.9530	54.3720
 0.9540	54.1800
 0.9550	53.9990
 0.9560	53.8000
 0.9570	53.6030
 0.9580	53.4340
 0.9590	53.2890
 0.9600	53.1360
 0.9610	52.9950
 0.9620	52.8920
 0.9630	52.7840
 0.9640	52.6740
 0.9650	52.5820
 0.9660	52.5190
 0.9670	52.4390
 0.9680	52.3720
 0.9690	52.3280
 0.9700	52.2960
 0.9710	52.2390
 0.9720	52.2090
 0.9730	52.1910
 0.9740	52.1540
 0.9750	52.1340
 0.9760	52.1350
 0.9770	52.1360
 0.9780	52.1150
 0.9790	52.1210
 0.9800	52.1310
 0.9810	52.1470
 0.9820	52.1800
 0.9830	52.2120
 0.9840	52.2440
 0.9850	52.2720
 0.9860	52.2980
 0.9870	52.3470
 0.9880	52.4000
 0.9890	52.4600
 0.9900	52.5370
 0.9910	52.5960
 0.9920	52.6930
 0.9930	52.7900
 0.9940	52.8860
 0.9950	52.9830
 0.9960	53.0790
 0.9970	53.1760
 0.9980	53.2730
 0.9990	53.3690
 1.0000	53.4660
 1.0010	53.5620
 1.0020	53.6590
 1.0030	53.7560
 1.0040	53.8520
 1.0050	53.9490
 1.0060	54.0450
 1.0070	54.1420
 1.0080	54.2390
 1.0090	54.3350
 1.0100	54.3350
 1.0110	54.4080
 1.0120	54.4810
 1.0130	54.5490
 1.0140	54.6200
 1.0150	54.6930
 1.0160	54.7670
 1.0170	54.8370
 1.0180	54.9060
 1.0190	54.9750
 1.0200	55.0400
 1.0210	55.1090
 1.0220	55.1780
 1.0230	55.2470
 1.0240	55.3210
 1.0250	55.3870
 1.0260	55.4520
 1.0270	55.5140
 1.0280	55.5710
 1.0290	55.6280
 1.0300	55.6840
 1.0310	55.7400
 1.0320	55.7960
 1.0330	55.8500
 1.0340	55.9010
 1.0350	55.9540
 1.0360	56.0050
 1.0370	56.0570
 1.0380	56.1080
 1.0390	56.1620
 1.0400	56.2090
 1.0410	56.2540
 1.0420	56.2940
 1.0430	56.3270
 1.0440	56.3630
 1.0450	56.3940
 1.0460	56.4290
 1.0470	56.4690
 1.0480	56.5050
 1.0490	56.5430
 1.0500	56.5760
 1.0510	56.6040
 1.0520	56.6270
 1.0530	56.6550
 1.0540	56.6820
 1.0550	56.7110
 1.0560	56.7470
 1.0570	56.7730
 1.0580	56.7950
 1.0590	56.8180
 1.0600	56.8410
 1.0610	56.8590
 1.0620	56.8750
 1.0630	56.8910
 1.0640	56.9040
 1.0650	56.9170
 1.0660	56.9320
 1.0670	56.9430
 1.0680	56.9510
 1.0690	56.9550
 1.0700	56.9600
 1.0710	56.9640
 1.0720	56.9660
 1.0730	56.9670
 1.0740	56.9690
 1.0750	56.9730
 1.0760	56.9730
 1.0770	56.9750
 1.0780	56.9710
 1.0790	56.9560
 1.0800	56.9510
 1.0810	56.9540
 1.0820	56.9470
 1.0830	56.9390
 1.0840	56.9300
 1.0850	56.9150
 1.0860	56.8980
 1.0870	56.8810
 1.0880	56.8680
 1.0890	56.8470
 1.0900	56.8200
 1.0910	56.7970
 1.0920	56.7740
 1.0930	56.7480
 1.0940	56.7240
 1.0950	56.6950
 1.0960	56.6620
 1.0970	56.6310
 1.0980	56.5970
 1.0990	56.5640
 1.1000	56.5330
 1.1010	56.4980
 1.1020	56.4610
 1.1030	56.4220
 1.1040	56.3760
 1.1050	56.3330
 1.1060	56.2880
 1.1070	56.2410
 1.1080	56.1920
 1.1090	56.1440
 1.1100	56.0890
 1.1110	56.0280
 1.1120	55.9660
 1.1130	55.8990
 1.1140	55.8310
 1.1150	55.7690
 1.1160	55.6920
 1.1170	55.6100
 1.1180	55.5190
 1.1190	55.4180
 1.1200	55.3070
 1.1210	55.1970
 1.1220	55.0770
 1.1230	54.9420
 1.1240	54.7970
 1.1250	54.6390
 1.1260	54.4670
 1.1270	54.2820
 1.1280	54.0910
 1.1290	53.8770
 1.1300	53.6480
 1.1310	53.4010
 1.1320	53.1350
 1.1330	52.8540
 1.1340	52.5560
 1.1350	52.2450
 1.1360	51.9170
 1.1370	51.5780
 1.1380	51.2260
 1.1390	50.8630
 1.1400	50.4870
 1.1410	50.1090
 1.1420	49.7290
 1.1430	49.3470
 1.1440	48.9690
 1.1450	48.5870
 1.1460	48.2210
 1.1470	47.8560
 1.1480	47.5130
 1.1490	47.1820
 1.1500	46.8730
 1.1510	46.5750
 1.1520	46.3010
 1.1530	46.0430
 1.1540	45.8110
 1.1550	45.6000
 1.1560	45.4130
 1.1570	45.2480
 1.1580	45.1030
 1.1590	44.9730
 1.1600	44.8580
 1.1610	44.7600
 1.1620	44.6770
 1.1630	44.6070
 1.1640	44.5510
 1.1650	44.4990
 1.1660	44.4590
 1.1670	44.4210
 1.1680	44.3900
 1.1690	44.3600
 1.1700	44.3380
 1.1710	44.3140
 1.1720	44.2950
 1.1730	44.2730
 1.1740	44.2490
 1.1750	44.2270
 1.1760	44.2020
 1.1770	44.1750
 1.1780	44.1470
 1.1790	44.1170
 1.1800	44.0870
 1.1810	44.0550
 1.1820	44.0230
 1.1830	43.9930
 1.1840	43.9620
 1.1850	43.9320
 1.1860	43.9040
 1.1870	43.8770
 1.1880	43.8530
 1.1890	43.8290
 1.1900	43.8100
 1.1910	43.7920
 1.1920	43.7800
 1.1930	43.7730
 1.1940	43.7690
 1.1950	43.7700
 1.1960	43.7730
 1.1970	43.7780
 1.1980	43.7890
 1.1990	43.8030
 1.2000	43.8210
 1.2010	43.8440
 1.2020	43.8700
 1.2030	43.9000
 1.2040	43.9370
 1.2050	43.9760
 1.2060	44.0190
 1.2070	44.0690
 1.2080	44.1210
 1.2090	44.1760
 1.2100	44.2360
 1.2110	44.2980
 1.2120	44.3640
 1.2130	44.4330
 1.2140	44.5040
 1.2150	44.5770
 1.2160	44.6530
 1.2170	44.7280
 1.2180	44.8050
 1.2190	44.8820
 1.2200	44.9610
 1.2210	45.0410
 1.2220	45.1220
 1.2230	45.2020
 1.2240	45.2790
 1.2250	45.3540
 1.2260	45.4280
 1.2270	45.4990
 1.2280	45.5720
 1.2290	45.6440
 1.2300	45.7130
 1.2310	45.7780
 1.2320	45.8390
 1.2330	45.8940
 1.2340	45.9510
 1.2350	46.0060
 1.2360	46.0630
 1.2370	46.1190
 1.2380	46.1750
 1.2390	46.2290
 1.2400	46.2810
 1.2410	46.3290
 1.2420	46.3760
 1.2430	46.4220
 1.2440	46.4680
 1.2450	46.5130
 1.2460	46.5560
 1.2470	46.5960
 1.2480	46.6320
 1.2490	46.6670
 1.2500	46.7000
 1.2510	46.7320
 1.2520	46.7630
 1.2530	46.7910
 1.2540	46.8170
 1.2550	46.8400
 1.2560	46.8610
 1.2570	46.8800
 1.2580	46.8980
 1.2590	46.9130
 1.2600	46.9260
 1.2610	46.9360
 1.2620	46.9420
 1.2630	46.9460
 1.2640	46.9480
 1.2650	46.9490
 1.2660	46.9480
 1.2670	46.9440
 1.2680	46.9380
 1.2690	46.9310
 1.2700	46.9210
 1.2710	46.9090
 1.2720	46.8940
 1.2730	46.8740
 1.2740	46.8500
 1.2750	46.8260
 1.2760	46.7970
 1.2770	46.7650
 1.2780	46.7310
 1.2790	46.6930
 1.2800	46.6510
 1.2810	46.6090
 1.2820	46.5640
 1.2830	46.5150
 1.2840	46.4630
 1.2850	46.4060
 1.2860	46.3450
 1.2870	46.2810
 1.2880	46.2150
 1.2890	46.1430
 1.2900	46.0670
 1.2910	45.9870
 1.2920	45.9030
 1.2930	45.8130
 1.2940	45.7190
 1.2950	45.6190
 1.2960	45.5140
 1.2970	45.4060
 1.2980	45.2910
 1.2990	45.1710
 1.3000	45.0450
 1.3010	44.9120
 1.3020	44.7750
 1.3030	44.6340
 1.3040	44.4860
 1.3050	44.3300
 1.3060	44.1710
 1.3070	44.0030
 1.3080	43.8310
 1.3090	43.6560
 1.3100	43.4700
 1.3110	43.2770
 1.3120	43.0770
 1.3130	42.8700
 1.3140	42.6580
 1.3150	42.4420
 1.3160	42.2200
 1.3170	41.9930
 1.3180	41.7600
 1.3190	41.5190
 1.3200	41.2740
 1.3210	41.0190
 1.3220	40.7580
 1.3230	40.4940
 1.3240	40.2240
 1.3250	39.9530
 1.3260	39.6790
 1.3270	39.3980
 1.3280	39.1150
 1.3290	38.8250
 1.3300	38.5340
 1.3310	38.2400
 1.3320	37.9420
 1.3330	37.6460
 1.3340	37.3500
 1.3350	37.0540
 1.3360	36.7580
 1.3370	36.4590
 1.3380	36.1640
 1.3390	35.8730
 1.3400	35.5830
 1.3410	35.2990
 1.3420	35.0180
 1.3430	34.7380
 1.3440	34.4640
 1.3450	34.1940
 1.3460	33.9270
 1.3470	33.6660
 1.3480	33.4080
 1.3490	33.1560
 1.3500	32.9090
 1.3510	32.6640
 1.3520	32.4190
 1.3530	32.1800
 1.3540	31.9400
 1.3550	31.7030
 1.3560	31.4700
 1.3570	31.2350
 1.3580	31.0020
 1.3590	30.7680
 1.3600	30.5280
 1.3610	30.2860
 1.3620	30.0370
 1.3630	29.7810
 1.3640	29.5200
 1.3650	29.2500
 1.3660	28.9730
 1.3670	28.6870
 1.3680	28.3860
 1.3690	28.0720
 1.3700	27.7400
 1.3710	27.3950
 1.3720	27.0340
 1.3730	26.6540
 1.3740	26.2600
 1.3750	25.8460
 1.3760	25.4090
 1.3770	24.9550
 1.3780	24.4750
 1.3790	23.9760
 1.3800	23.4610
 1.3810	22.9220
 1.3820	22.3770
 1.3830	21.8180
 1.3840	21.2510
 1.3850	20.6720
 1.3860	20.0940
 1.3870	19.5040
 1.3880	18.9260
 1.3890	18.3490
 1.3900	17.7770
 1.3910	17.2200
 1.3920	16.6710
 1.3930	16.1330
 1.3940	15.6130
 1.3950	15.1040
 1.3960	14.6160
 1.3970	14.1490
 1.3980	13.7030
 1.3990	13.2860
 1.4000	12.8900
 1.4010	12.5140
 1.4020	12.1630
 1.4030	11.8320
 1.4040	11.5230
 1.4050	11.2370
 1.4060	10.9720
 1.4070	10.7290
 1.4080	10.5060
 1.4090	10.2990
 1.4100	10.1110
 1.4110	 9.9380
 1.4120	 9.7790
 1.4130	 9.6350
 1.4140	 9.5030
 1.4150	 9.3850
 1.4160	 9.2770
 1.4170	 9.1800
 1.4180	 9.0930
 1.4190	 9.0150
 1.4200	 8.9430
 1.4210	 8.8790
 1.4220	 8.8220
 1.4230	 8.7710
 1.4240	 8.7260
 1.4250	 8.6850
 1.4260	 8.6510
 1.4270	 8.6200
 1.4280	 8.5940
 1.4290	 8.5710
 1.4300	 8.5510
 1.4310	 8.5340
 1.4320	 8.5220
 1.4330	 8.5110
 1.4340	 8.5040
 1.4350	 8.4980
 1.4360	 8.4950
 1.4370	 8.4930
 1.4380	 8.4940
 1.4390	 8.4980
 1.4400	 8.5030
 1.4410	 8.5090
 1.4420	 8.5170
 1.4430	 8.5240
 1.4440	 8.5340
 1.4450	 8.5450
 1.4460	 8.5570
 1.4470	 8.5700
 1.4480	 8.5830
 1.4490	 8.5960
 1.4500	 8.6090
 1.4510	 8.6230
 1.4520	 8.6380
 1.4530	 8.6540
 1.4540	 8.6710
 1.4550	 8.6880
 1.4560	 8.7070
 1.4570	 8.7260
 1.4580	 8.7470
 1.4590	 8.7680
 1.4600	 8.7920
 1.4610	 8.8170
 1.4620	 8.8440
 1.4630	 8.8740
 1.4640	 8.9070
 1.4650	 8.9420
 1.4660	 8.9800
 1.4670	 9.0200
 1.4680	 9.0630
 1.4690	 9.1080
 1.4700	 9.1550
