Name: Arctostaphylos glandulosa 3
Type: vegetation
Class: Shrub
Genus: Arctostaphylos
Species: glandulosa
Sample No.: VH039
Owner: UCSB
Wavelength Range: VSWIR
Origin: 34.5085; -119.7682; WGS84
Collection Date: 4/1/2013
Description: Samples were collected as part of the HyspIRI Airborne Campaign. 48 individual plants were sampled in three times in 2013 - spring  summer  and fall. The name of the sample includes a 1  2  or 3 which references a different individual of the species. Samples were taken to JPL and processed within 48 hours of collection. The same leaves were processed in the Nicolet and then measured using the ASD.
Measurement: Bidirectional reflectance
First Column: X
Second Column: Y
X Units: Wavelength (micrometers)
Y Units: Reflectance (percentage)
First X Value: 0.35
Last X Value: 2.5
Number of X Values: 2151
Additional Information: vegetation.shrub.arctostaphylos.glandulosa.vswir.vh039.ucsb.asd.ancillary.txt

 0.3500	 5.7400
 0.3510	 6.1390
 0.3520	 6.0900
 0.3530	 5.8660
 0.3540	 5.8500
 0.3550	 5.9550
 0.3560	 5.9600
 0.3570	 5.9050
 0.3580	 5.9460
 0.3590	 5.9410
 0.3600	 5.8990
 0.3610	 5.8400
 0.3620	 5.7680
 0.3630	 5.8370
 0.3640	 5.8820
 0.3650	 5.7710
 0.3660	 5.8030
 0.3670	 5.8250
 0.3680	 5.8330
 0.3690	 5.9070
 0.3700	 5.8950
 0.3710	 5.8310
 0.3720	 5.7860
 0.3730	 5.8590
 0.3740	 5.7930
 0.3750	 5.7170
 0.3760	 5.8010
 0.3770	 5.8010
 0.3780	 5.8150
 0.3790	 5.8490
 0.3800	 5.8230
 0.3810	 5.8640
 0.3820	 5.8890
 0.3830	 5.8600
 0.3840	 5.9240
 0.3850	 5.9040
 0.3860	 5.8510
 0.3870	 5.8720
 0.3880	 5.8620
 0.3890	 5.8530
 0.3900	 5.8500
 0.3910	 5.8230
 0.3920	 5.8470
 0.3930	 5.8720
 0.3940	 5.8530
 0.3950	 5.8250
 0.3960	 5.7970
 0.3970	 5.7840
 0.3980	 5.7950
 0.3990	 5.7950
 0.4000	 5.7920
 0.4010	 5.7960
 0.4020	 5.8230
 0.4030	 5.8180
 0.4040	 5.7920
 0.4050	 5.7700
 0.4060	 5.7910
 0.4070	 5.8110
 0.4080	 5.8150
 0.4090	 5.8110
 0.4100	 5.7990
 0.4110	 5.7800
 0.4120	 5.7670
 0.4130	 5.7930
 0.4140	 5.8220
 0.4150	 5.8300
 0.4160	 5.8180
 0.4170	 5.8400
 0.4180	 5.8570
 0.4190	 5.8640
 0.4200	 5.8930
 0.4210	 5.9350
 0.4220	 5.9590
 0.4230	 5.9620
 0.4240	 6.0210
 0.4250	 6.0650
 0.4260	 6.1060
 0.4270	 6.1850
 0.4280	 6.2440
 0.4290	 6.3030
 0.4300	 6.3700
 0.4310	 6.4230
 0.4320	 6.5100
 0.4330	 6.6120
 0.4340	 6.7010
 0.4350	 6.7900
 0.4360	 6.8790
 0.4370	 6.9720
 0.4380	 7.0780
 0.4390	 7.1590
 0.4400	 7.2530
 0.4410	 7.3750
 0.4420	 7.4590
 0.4430	 7.5330
 0.4440	 7.6180
 0.4450	 7.7240
 0.4460	 7.8110
 0.4470	 7.8940
 0.4480	 7.9810
 0.4490	 8.0630
 0.4500	 8.1380
 0.4510	 8.2100
 0.4520	 8.2820
 0.4530	 8.3580
 0.4540	 8.4200
 0.4550	 8.4670
 0.4560	 8.5100
 0.4570	 8.5510
 0.4580	 8.5910
 0.4590	 8.6280
 0.4600	 8.6550
 0.4610	 8.6890
 0.4620	 8.7200
 0.4630	 8.7340
 0.4640	 8.7500
 0.4650	 8.7600
 0.4660	 8.7670
 0.4670	 8.7910
 0.4680	 8.8140
 0.4690	 8.8260
 0.4700	 8.8270
 0.4710	 8.8340
 0.4720	 8.8470
 0.4730	 8.8640
 0.4740	 8.8800
 0.4750	 8.8850
 0.4760	 8.8900
 0.4770	 8.8970
 0.4780	 8.8970
 0.4790	 8.9070
 0.4800	 8.9200
 0.4810	 8.9240
 0.4820	 8.9270
 0.4830	 8.9410
 0.4840	 8.9590
 0.4850	 8.9640
 0.4860	 8.9730
 0.4870	 8.9870
 0.4880	 9.0030
 0.4890	 9.0280
 0.4900	 9.0410
 0.4910	 9.0520
 0.4920	 9.0830
 0.4930	 9.1180
 0.4940	 9.1490
 0.4950	 9.1780
 0.4960	 9.2220
 0.4970	 9.2690
 0.4980	 9.3160
 0.4990	 9.3650
 0.5000	 9.4300
 0.5010	 9.4880
 0.5020	 9.5430
 0.5030	 9.6180
 0.5040	 9.6990
 0.5050	 9.7860
 0.5060	 9.8800
 0.5070	 9.9810
 0.5080	10.0940
 0.5090	10.2170
 0.5100	10.3480
 0.5110	10.4810
 0.5120	10.6280
 0.5130	10.7910
 0.5140	10.9560
 0.5150	11.1340
 0.5160	11.3250
 0.5170	11.5210
 0.5180	11.7230
 0.5190	11.9350
 0.5200	12.1520
 0.5210	12.3680
 0.5220	12.5890
 0.5230	12.8090
 0.5240	13.0250
 0.5250	13.2400
 0.5260	13.4510
 0.5270	13.6500
 0.5280	13.8330
 0.5290	14.0120
 0.5300	14.1820
 0.5310	14.3400
 0.5320	14.4880
 0.5330	14.6240
 0.5340	14.7520
 0.5350	14.8710
 0.5360	14.9780
 0.5370	15.0770
 0.5380	15.1710
 0.5390	15.2610
 0.5400	15.3490
 0.5410	15.4380
 0.5420	15.5270
 0.5430	15.6070
 0.5440	15.6840
 0.5450	15.7550
 0.5460	15.8130
 0.5470	15.8580
 0.5480	15.8960
 0.5490	15.9320
 0.5500	15.9690
 0.5510	15.9970
 0.5520	16.0160
 0.5530	16.0250
 0.5540	16.0170
 0.5550	15.9980
 0.5560	15.9670
 0.5570	15.9110
 0.5580	15.8500
 0.5590	15.7770
 0.5600	15.6910
 0.5610	15.6060
 0.5620	15.5100
 0.5630	15.4050
 0.5640	15.2960
 0.5650	15.1750
 0.5660	15.0510
 0.5670	14.9270
 0.5680	14.8000
 0.5690	14.6610
 0.5700	14.5190
 0.5710	14.3840
 0.5720	14.2520
 0.5730	14.1280
 0.5740	14.0150
 0.5750	13.9120
 0.5760	13.8130
 0.5770	13.7120
 0.5780	13.6090
 0.5790	13.5240
 0.5800	13.4420
 0.5810	13.3630
 0.5820	13.2930
 0.5830	13.2260
 0.5840	13.1580
 0.5850	13.0890
 0.5860	13.0240
 0.5870	12.9640
 0.5880	12.9030
 0.5890	12.8410
 0.5900	12.7940
 0.5910	12.7610
 0.5920	12.7350
 0.5930	12.7090
 0.5940	12.6870
 0.5950	12.6640
 0.5960	12.6380
 0.5970	12.6170
 0.5980	12.5880
 0.5990	12.5540
 0.6000	12.5230
 0.6010	12.4800
 0.6020	12.4330
 0.6030	12.3860
 0.6040	12.3370
 0.6050	12.2810
 0.6060	12.2180
 0.6070	12.1540
 0.6080	12.0840
 0.6090	12.0150
 0.6100	11.9500
 0.6110	11.8920
 0.6120	11.8150
 0.6130	11.7260
 0.6140	11.6380
 0.6150	11.5600
 0.6160	11.4890
 0.6170	11.4220
 0.6180	11.3580
 0.6190	11.3070
 0.6200	11.2610
 0.6210	11.2170
 0.6220	11.1760
 0.6230	11.1420
 0.6240	11.1110
 0.6250	11.0800
 0.6260	11.0570
 0.6270	11.0400
 0.6280	11.0270
 0.6290	11.0170
 0.6300	11.0030
 0.6310	10.9870
 0.6320	10.9720
 0.6330	10.9550
 0.6340	10.9340
 0.6350	10.9010
 0.6360	10.8560
 0.6370	10.8150
 0.6380	10.7650
 0.6390	10.7050
 0.6400	10.6420
 0.6410	10.5700
 0.6420	10.4940
 0.6430	10.4140
 0.6440	10.3310
 0.6450	10.2480
 0.6460	10.1690
 0.6470	10.0960
 0.6480	10.0240
 0.6490	 9.9570
 0.6500	 9.8970
 0.6510	 9.8410
 0.6520	 9.7880
 0.6530	 9.7390
 0.6540	 9.6940
 0.6550	 9.6430
 0.6560	 9.5850
 0.6570	 9.5200
 0.6580	 9.4510
 0.6590	 9.3800
 0.6600	 9.3070
 0.6610	 9.2320
 0.6620	 9.1540
 0.6630	 9.0820
 0.6640	 9.0130
 0.6650	 8.9470
 0.6660	 8.8880
 0.6670	 8.8340
 0.6680	 8.7880
 0.6690	 8.7510
 0.6700	 8.7250
 0.6710	 8.7040
 0.6720	 8.6860
 0.6730	 8.6730
 0.6740	 8.6640
 0.6750	 8.6630
 0.6760	 8.6700
 0.6770	 8.6780
 0.6780	 8.6930
 0.6790	 8.7150
 0.6800	 8.7420
 0.6810	 8.7770
 0.6820	 8.8290
 0.6830	 8.9020
 0.6840	 8.9890
 0.6850	 9.0960
 0.6860	 9.2260
 0.6870	 9.3800
 0.6880	 9.5750
 0.6890	 9.8070
 0.6900	10.0760
 0.6910	10.3930
 0.6920	10.7600
 0.6930	11.1780
 0.6940	11.6480
 0.6950	12.1710
 0.6960	12.7470
 0.6970	13.3760
 0.6980	14.0580
 0.6990	14.7840
 0.7000	15.5500
 0.7010	16.3510
 0.7020	17.1830
 0.7030	18.0310
 0.7040	18.8920
 0.7050	19.7650
 0.7060	20.6430
 0.7070	21.5200
 0.7080	22.3890
 0.7090	23.2490
 0.7100	24.0990
 0.7110	24.9440
 0.7120	25.7810
 0.7130	26.5960
 0.7140	27.4030
 0.7150	28.1940
 0.7160	28.9610
 0.7170	29.7120
 0.7180	30.4460
 0.7190	31.1590
 0.7200	31.8490
 0.7210	32.5190
 0.7220	33.1640
 0.7230	33.7850
 0.7240	34.3780
 0.7250	34.9440
 0.7260	35.4810
 0.7270	35.9910
 0.7280	36.4840
 0.7290	36.9450
 0.7300	37.3730
 0.7310	37.7750
 0.7320	38.1550
 0.7330	38.5150
 0.7340	38.8560
 0.7350	39.1750
 0.7360	39.4660
 0.7370	39.7350
 0.7380	39.9880
 0.7390	40.2310
 0.7400	40.4580
 0.7410	40.6680
 0.7420	40.8650
 0.7430	41.0380
 0.7440	41.2060
 0.7450	41.3700
 0.7460	41.5150
 0.7470	41.6480
 0.7480	41.7720
 0.7490	41.8850
 0.7500	41.9830
 0.7510	42.0740
 0.7520	42.1610
 0.7530	42.2450
 0.7540	42.3200
 0.7550	42.3880
 0.7560	42.4520
 0.7570	42.5140
 0.7580	42.5640
 0.7590	42.6120
 0.7600	42.6620
 0.7610	42.7050
 0.7620	42.7420
 0.7630	42.7750
 0.7640	42.8060
 0.7650	42.8390
 0.7660	42.8700
 0.7670	42.8980
 0.7680	42.9260
 0.7690	42.9550
 0.7700	42.9770
 0.7710	42.9940
 0.7720	43.0210
 0.7730	43.0410
 0.7740	43.0570
 0.7750	43.0760
 0.7760	43.0950
 0.7770	43.1140
 0.7780	43.1290
 0.7790	43.1380
 0.7800	43.1530
 0.7810	43.1730
 0.7820	43.1930
 0.7830	43.2040
 0.7840	43.2120
 0.7850	43.2220
 0.7860	43.2360
 0.7870	43.2590
 0.7880	43.2730
 0.7890	43.2800
 0.7900	43.2910
 0.7910	43.2930
 0.7920	43.2960
 0.7930	43.3050
 0.7940	43.3180
 0.7950	43.3230
 0.7960	43.3260
 0.7970	43.3330
 0.7980	43.3410
 0.7990	43.3440
 0.8000	43.3460
 0.8010	43.3510
 0.8020	43.3520
 0.8030	43.3460
 0.8040	43.3400
 0.8050	43.3440
 0.8060	43.3450
 0.8070	43.3410
 0.8080	43.3320
 0.8090	43.3180
 0.8100	43.3200
 0.8110	43.3210
 0.8120	43.3140
 0.8130	43.3120
 0.8140	43.3040
 0.8150	43.2960
 0.8160	43.2920
 0.8170	43.2830
 0.8180	43.2680
 0.8190	43.2530
 0.8200	43.2450
 0.8210	43.2350
 0.8220	43.2230
 0.8230	43.2110
 0.8240	43.2000
 0.8250	43.1860
 0.8260	43.1710
 0.8270	43.1560
 0.8280	43.1450
 0.8290	43.1340
 0.8300	43.1180
 0.8310	43.0970
 0.8320	43.0880
 0.8330	43.0770
 0.8340	43.0610
 0.8350	43.0440
 0.8360	43.0280
 0.8370	43.0160
 0.8380	43.0090
 0.8390	43.0010
 0.8400	42.9920
 0.8410	42.9860
 0.8420	42.9840
 0.8430	42.9810
 0.8440	42.9710
 0.8450	42.9620
 0.8460	42.9570
 0.8470	42.9500
 0.8480	42.9450
 0.8490	42.9400
 0.8500	42.9300
 0.8510	42.9260
 0.8520	42.9270
 0.8530	42.9290
 0.8540	42.9280
 0.8550	42.9260
 0.8560	42.9220
 0.8570	42.9190
 0.8580	42.9260
 0.8590	42.9290
 0.8600	42.9280
 0.8610	42.9250
 0.8620	42.9160
 0.8630	42.9080
 0.8640	42.9030
 0.8650	42.9030
 0.8660	42.9150
 0.8670	42.9230
 0.8680	42.9220
 0.8690	42.9170
 0.8700	42.9250
 0.8710	42.9360
 0.8720	42.9420
 0.8730	42.9400
 0.8740	42.9500
 0.8750	42.9600
 0.8760	42.9640
 0.8770	42.9640
 0.8780	42.9660
 0.8790	42.9740
 0.8800	42.9830
 0.8810	42.9760
 0.8820	42.9770
 0.8830	42.9850
 0.8840	42.9910
 0.8850	42.9950
 0.8860	42.9950
 0.8870	42.9990
 0.8880	43.0090
 0.8890	43.0110
 0.8900	43.0110
 0.8910	43.0130
 0.8920	43.0170
 0.8930	43.0160
 0.8940	43.0160
 0.8950	43.0170
 0.8960	43.0160
 0.8970	43.0120
 0.8980	43.0100
 0.8990	43.0090
 0.9000	43.0040
 0.9010	43.0070
 0.9020	43.0110
 0.9030	43.0150
 0.9040	43.0280
 0.9050	43.0370
 0.9060	43.0370
 0.9070	43.0290
 0.9080	43.0220
 0.9090	43.0200
 0.9100	43.0230
 0.9110	43.0260
 0.9120	43.0300
 0.9130	43.0190
 0.9140	43.0080
 0.9150	43.0130
 0.9160	43.0040
 0.9170	43.0000
 0.9180	43.0020
 0.9190	43.0050
 0.9200	42.9960
 0.9210	42.9840
 0.9220	42.9740
 0.9230	42.9700
 0.9240	42.9570
 0.9250	42.9470
 0.9260	42.9360
 0.9270	42.9160
 0.9280	42.9030
 0.9290	42.8850
 0.9300	42.8630
 0.9310	42.8480
 0.9320	42.8180
 0.9330	42.7920
 0.9340	42.7760
 0.9350	42.7570
 0.9360	42.7260
 0.9370	42.6870
 0.9380	42.6510
 0.9390	42.6260
 0.9400	42.5990
 0.9410	42.5710
 0.9420	42.5430
 0.9430	42.5100
 0.9440	42.4700
 0.9450	42.4250
 0.9460	42.3770
 0.9470	42.3230
 0.9480	42.2610
 0.9490	42.2020
 0.9500	42.1510
 0.9510	42.0790
 0.9520	41.9980
 0.9530	41.9110
 0.9540	41.8200
 0.9550	41.7360
 0.9560	41.6600
 0.9570	41.5840
 0.9580	41.5010
 0.9590	41.4170
 0.9600	41.3480
 0.9610	41.2940
 0.9620	41.2450
 0.9630	41.2020
 0.9640	41.1410
 0.9650	41.0730
 0.9660	41.0230
 0.9670	41.0210
 0.9680	40.9890
 0.9690	40.9460
 0.9700	40.9340
 0.9710	40.9060
 0.9720	40.8870
 0.9730	40.8720
 0.9740	40.8510
 0.9750	40.8580
 0.9760	40.8460
 0.9770	40.8270
 0.9780	40.8300
 0.9790	40.8140
 0.9800	40.8050
 0.9810	40.8050
 0.9820	40.8080
 0.9830	40.8290
 0.9840	40.8450
 0.9850	40.8520
 0.9860	40.8580
 0.9870	40.8780
 0.9880	40.8870
 0.9890	40.8920
 0.9900	40.9100
 0.9910	40.9010
 0.9920	40.9910
 0.9930	41.0810
 0.9940	41.1710
 0.9950	41.2610
 0.9960	41.3510
 0.9970	41.4410
 0.9980	41.5300
 0.9990	41.6200
 1.0000	41.7100
 1.0010	41.8000
 1.0020	41.8900
 1.0030	41.9800
 1.0040	42.0700
 1.0050	42.1600
 1.0060	42.2500
 1.0070	42.3400
 1.0080	42.4300
 1.0090	42.5200
 1.0100	42.5200
 1.0110	42.5440
 1.0120	42.5700
 1.0130	42.5960
 1.0140	42.6240
 1.0150	42.6560
 1.0160	42.6850
 1.0170	42.7120
 1.0180	42.7350
 1.0190	42.7580
 1.0200	42.7840
 1.0210	42.8090
 1.0220	42.8360
 1.0230	42.8630
 1.0240	42.8900
 1.0250	42.9180
 1.0260	42.9490
 1.0270	42.9740
 1.0280	42.9970
 1.0290	43.0190
 1.0300	43.0360
 1.0310	43.0560
 1.0320	43.0800
 1.0330	43.0980
 1.0340	43.1200
 1.0350	43.1430
 1.0360	43.1640
 1.0370	43.1870
 1.0380	43.2080
 1.0390	43.2260
 1.0400	43.2460
 1.0410	43.2650
 1.0420	43.2840
 1.0430	43.3050
 1.0440	43.3230
 1.0450	43.3400
 1.0460	43.3550
 1.0470	43.3670
 1.0480	43.3810
 1.0490	43.3930
 1.0500	43.4090
 1.0510	43.4280
 1.0520	43.4480
 1.0530	43.4620
 1.0540	43.4780
 1.0550	43.4880
 1.0560	43.4900
 1.0570	43.4970
 1.0580	43.5030
 1.0590	43.5110
 1.0600	43.5230
 1.0610	43.5310
 1.0620	43.5390
 1.0630	43.5450
 1.0640	43.5480
 1.0650	43.5530
 1.0660	43.5620
 1.0670	43.5660
 1.0680	43.5690
 1.0690	43.5690
 1.0700	43.5710
 1.0710	43.5710
 1.0720	43.5710
 1.0730	43.5740
 1.0740	43.5750
 1.0750	43.5760
 1.0760	43.5730
 1.0770	43.5680
 1.0780	43.5640
 1.0790	43.5570
 1.0800	43.5510
 1.0810	43.5480
 1.0820	43.5430
 1.0830	43.5360
 1.0840	43.5310
 1.0850	43.5280
 1.0860	43.5230
 1.0870	43.5150
 1.0880	43.5060
 1.0890	43.4980
 1.0900	43.4890
 1.0910	43.4800
 1.0920	43.4730
 1.0930	43.4620
 1.0940	43.4460
 1.0950	43.4330
 1.0960	43.4200
 1.0970	43.4070
 1.0980	43.3950
 1.0990	43.3810
 1.1000	43.3670
 1.1010	43.3520
 1.1020	43.3370
 1.1030	43.3200
 1.1040	43.3030
 1.1050	43.2840
 1.1060	43.2640
 1.1070	43.2440
 1.1080	43.2230
 1.1090	43.2010
 1.1100	43.1780
 1.1110	43.1540
 1.1120	43.1280
 1.1130	43.0980
 1.1140	43.0680
 1.1150	43.0410
 1.1160	43.0070
 1.1170	42.9720
 1.1180	42.9330
 1.1190	42.8910
 1.1200	42.8440
 1.1210	42.7950
 1.1220	42.7420
 1.1230	42.6840
 1.1240	42.6230
 1.1250	42.5560
 1.1260	42.4860
 1.1270	42.4100
 1.1280	42.3300
 1.1290	42.2430
 1.1300	42.1540
 1.1310	42.0560
 1.1320	41.9510
 1.1330	41.8390
 1.1340	41.7220
 1.1350	41.5970
 1.1360	41.4640
 1.1370	41.3240
 1.1380	41.1770
 1.1390	41.0210
 1.1400	40.8600
 1.1410	40.6970
 1.1420	40.5270
 1.1430	40.3530
 1.1440	40.1770
 1.1450	39.9930
 1.1460	39.8170
 1.1470	39.6400
 1.1480	39.4700
 1.1490	39.3020
 1.1500	39.1430
 1.1510	38.9880
 1.1520	38.8430
 1.1530	38.7040
 1.1540	38.5770
 1.1550	38.4590
 1.1560	38.3500
 1.1570	38.2530
 1.1580	38.1640
 1.1590	38.0840
 1.1600	38.0140
 1.1610	37.9510
 1.1620	37.8960
 1.1630	37.8480
 1.1640	37.8040
 1.1650	37.7660
 1.1660	37.7360
 1.1670	37.7070
 1.1680	37.6840
 1.1690	37.6600
 1.1700	37.6370
 1.1710	37.6170
 1.1720	37.5990
 1.1730	37.5790
 1.1740	37.5610
 1.1750	37.5410
 1.1760	37.5190
 1.1770	37.4930
 1.1780	37.4660
 1.1790	37.4400
 1.1800	37.4130
 1.1810	37.3850
 1.1820	37.3570
 1.1830	37.3260
 1.1840	37.2960
 1.1850	37.2660
 1.1860	37.2380
 1.1870	37.2100
 1.1880	37.1830
 1.1890	37.1560
 1.1900	37.1310
 1.1910	37.1080
 1.1920	37.0860
 1.1930	37.0660
 1.1940	37.0490
 1.1950	37.0350
 1.1960	37.0230
 1.1970	37.0110
 1.1980	37.0000
 1.1990	36.9910
 1.2000	36.9830
 1.2010	36.9790
 1.2020	36.9800
 1.2030	36.9830
 1.2040	36.9890
 1.2050	36.9990
 1.2060	37.0110
 1.2070	37.0260
 1.2080	37.0450
 1.2090	37.0660
 1.2100	37.0920
 1.2110	37.1220
 1.2120	37.1580
 1.2130	37.1960
 1.2140	37.2370
 1.2150	37.2810
 1.2160	37.3280
 1.2170	37.3760
 1.2180	37.4260
 1.2190	37.4810
 1.2200	37.5360
 1.2210	37.5920
 1.2220	37.6490
 1.2230	37.7070
 1.2240	37.7640
 1.2250	37.8190
 1.2260	37.8720
 1.2270	37.9230
 1.2280	37.9720
 1.2290	38.0220
 1.2300	38.0720
 1.2310	38.1180
 1.2320	38.1620
 1.2330	38.2040
 1.2340	38.2440
 1.2350	38.2840
 1.2360	38.3220
 1.2370	38.3580
 1.2380	38.3940
 1.2390	38.4280
 1.2400	38.4610
 1.2410	38.4950
 1.2420	38.5250
 1.2430	38.5510
 1.2440	38.5760
 1.2450	38.6020
 1.2460	38.6250
 1.2470	38.6490
 1.2480	38.6740
 1.2490	38.6970
 1.2500	38.7200
 1.2510	38.7430
 1.2520	38.7620
 1.2530	38.7770
 1.2540	38.7920
 1.2550	38.8070
 1.2560	38.8210
 1.2570	38.8340
 1.2580	38.8440
 1.2590	38.8530
 1.2600	38.8600
 1.2610	38.8680
 1.2620	38.8750
 1.2630	38.8810
 1.2640	38.8860
 1.2650	38.8900
 1.2660	38.8910
 1.2670	38.8920
 1.2680	38.8950
 1.2690	38.8960
 1.2700	38.8950
 1.2710	38.8940
 1.2720	38.8900
 1.2730	38.8830
 1.2740	38.8780
 1.2750	38.8710
 1.2760	38.8630
 1.2770	38.8540
 1.2780	38.8420
 1.2790	38.8280
 1.2800	38.8110
 1.2810	38.7930
 1.2820	38.7750
 1.2830	38.7550
 1.2840	38.7340
 1.2850	38.7120
 1.2860	38.6870
 1.2870	38.6590
 1.2880	38.6290
 1.2890	38.5970
 1.2900	38.5610
 1.2910	38.5230
 1.2920	38.4840
 1.2930	38.4400
 1.2940	38.3920
 1.2950	38.3410
 1.2960	38.2870
 1.2970	38.2320
 1.2980	38.1740
 1.2990	38.1130
 1.3000	38.0500
 1.3010	37.9820
 1.3020	37.9110
 1.3030	37.8380
 1.3040	37.7610
 1.3050	37.6800
 1.3060	37.5960
 1.3070	37.5080
 1.3080	37.4170
 1.3090	37.3250
 1.3100	37.2290
 1.3110	37.1300
 1.3120	37.0280
 1.3130	36.9210
 1.3140	36.8100
 1.3150	36.6960
 1.3160	36.5780
 1.3170	36.4560
 1.3180	36.3290
 1.3190	36.2000
 1.3200	36.0670
 1.3210	35.9280
 1.3220	35.7880
 1.3230	35.6430
 1.3240	35.4950
 1.3250	35.3460
 1.3260	35.1940
 1.3270	35.0380
 1.3280	34.8790
 1.3290	34.7170
 1.3300	34.5560
 1.3310	34.3920
 1.3320	34.2260
 1.3330	34.0600
 1.3340	33.8920
 1.3350	33.7230
 1.3360	33.5550
 1.3370	33.3840
 1.3380	33.2130
 1.3390	33.0420
 1.3400	32.8710
 1.3410	32.7040
 1.3420	32.5380
 1.3430	32.3730
 1.3440	32.2110
 1.3450	32.0490
 1.3460	31.8860
 1.3470	31.7260
 1.3480	31.5650
 1.3490	31.4100
 1.3500	31.2570
 1.3510	31.1050
 1.3520	30.9540
 1.3530	30.8060
 1.3540	30.6540
 1.3550	30.5030
 1.3560	30.3530
 1.3570	30.2010
 1.3580	30.0510
 1.3590	29.8980
 1.3600	29.7420
 1.3610	29.5830
 1.3620	29.4190
 1.3630	29.2500
 1.3640	29.0770
 1.3650	28.8970
 1.3660	28.7120
 1.3670	28.5180
 1.3680	28.3150
 1.3690	28.1030
 1.3700	27.8790
 1.3710	27.6430
 1.3720	27.3940
 1.3730	27.1270
 1.3740	26.8490
 1.3750	26.5540
 1.3760	26.2400
 1.3770	25.9090
 1.3780	25.5550
 1.3790	25.1830
 1.3800	24.7940
 1.3810	24.3840
 1.3820	23.9630
 1.3830	23.5260
 1.3840	23.0770
 1.3850	22.6150
 1.3860	22.1460
 1.3870	21.6620
 1.3880	21.1800
 1.3890	20.6910
 1.3900	20.2000
 1.3910	19.7150
 1.3920	19.2310
 1.3930	18.7510
 1.3940	18.2790
 1.3950	17.8100
 1.3960	17.3520
 1.3970	16.9080
 1.3980	16.4760
 1.3990	16.0660
 1.4000	15.6720
 1.4010	15.2930
 1.4020	14.9330
 1.4030	14.5880
 1.4040	14.2620
 1.4050	13.9560
 1.4060	13.6680
 1.4070	13.4030
 1.4080	13.1540
 1.4090	12.9210
 1.4100	12.7050
 1.4110	12.5050
 1.4120	12.3210
 1.4130	12.1530
 1.4140	11.9990
 1.4150	11.8600
 1.4160	11.7340
 1.4170	11.6180
 1.4180	11.5130
 1.4190	11.4160
 1.4200	11.3290
 1.4210	11.2510
 1.4220	11.1790
 1.4230	11.1160
 1.4240	11.0600
 1.4250	11.0080
 1.4260	10.9640
 1.4270	10.9240
 1.4280	10.8900
 1.4290	10.8590
 1.4300	10.8330
 1.4310	10.8100
 1.4320	10.7910
 1.4330	10.7750
 1.4340	10.7630
 1.4350	10.7530
 1.4360	10.7450
 1.4370	10.7410
 1.4380	10.7390
 1.4390	10.7380
 1.4400	10.7390
 1.4410	10.7410
 1.4420	10.7460
 1.4430	10.7520
 1.4440	10.7590
 1.4450	10.7680
 1.4460	10.7770
 1.4470	10.7860
 1.4480	10.7960
 1.4490	10.8080
 1.4500	10.8200
 1.4510	10.8330
 1.4520	10.8460
 1.4530	10.8610
 1.4540	10.8760
 1.4550	10.8920
 1.4560	10.9090
 1.4570	10.9280
 1.4580	10.9480
 1.4590	10.9690
 1.4600	10.9920
 1.4610	11.0160
 1.4620	11.0430
 1.4630	11.0730
 1.4640	11.1040
 1.4650	11.1390
 1.4660	11.1760
 1.4670	11.2170
 1.4680	11.2600
