Name: Adenostoma fasciculatum 1
Type: vegetation
Class: Shrub
Genus: Adenostoma
Species: fasciculatum
Sample No.: VH218
Owner: UCSB
Wavelength Range: VSWIR
Origin: 34.5084; -119.7687; WGS84
Collection Date: 10/13/2013
Description: Samples were collected as part of the HyspIRI Airborne Campaign. 48 individual plants were sampled in three times in 2013 - spring  summer  and fall. The name of the sample includes a 1  2  or 3 which references a different individual of the species. Samples were taken to JPL and processed within 48 hours of collection. The same leaves were processed in the Nicolet and then measured using the ASD.
Measurement: Bidirectional reflectance
First Column: X
Second Column: Y
X Units: Wavelength (micrometers)
Y Units: Reflectance (percentage)
First X Value: 0.35
Last X Value: 2.5
Number of X Values: 2151
Additional Information: vegetation.shrub.adenostoma.fasciculatum.vswir.vh218.ucsb.asd.ancillary.txt

 0.3500	 1.5720
 0.3510	 1.7030
 0.3520	 1.7100
 0.3530	 1.5200
 0.3540	 1.2720
 0.3550	 1.4750
 0.3560	 1.6080
 0.3570	 1.6140
 0.3580	 1.6550
 0.3590	 1.4970
 0.3600	 1.4110
 0.3610	 1.5010
 0.3620	 1.5890
 0.3630	 1.6310
 0.3640	 1.6290
 0.3650	 1.6100
 0.3660	 1.6210
 0.3670	 1.6760
 0.3680	 1.7300
 0.3690	 1.7070
 0.3700	 1.7050
 0.3710	 1.6900
 0.3720	 1.6490
 0.3730	 1.6580
 0.3740	 1.5150
 0.3750	 1.4070
 0.3760	 1.5350
 0.3770	 1.5260
 0.3780	 1.4950
 0.3790	 1.5240
 0.3800	 1.6360
 0.3810	 1.6680
 0.3820	 1.6630
 0.3830	 1.6380
 0.3840	 1.4340
 0.3850	 1.4590
 0.3860	 1.6230
 0.3870	 1.6780
 0.3880	 1.6780
 0.3890	 1.6430
 0.3900	 1.6040
 0.3910	 1.6060
 0.3920	 1.6280
 0.3930	 1.6950
 0.3940	 1.7760
 0.3950	 1.6460
 0.3960	 1.6200
 0.3970	 1.6740
 0.3980	 1.6440
 0.3990	 1.6020
 0.4000	 1.6120
 0.4010	 1.6570
 0.4020	 1.6210
 0.4030	 1.6840
 0.4040	 1.7520
 0.4050	 1.7290
 0.4060	 1.7500
 0.4070	 1.7660
 0.4080	 1.7650
 0.4090	 1.7650
 0.4100	 1.7560
 0.4110	 1.7610
 0.4120	 1.7810
 0.4130	 1.7660
 0.4140	 1.8040
 0.4150	 1.8520
 0.4160	 1.8510
 0.4170	 1.8820
 0.4180	 1.8960
 0.4190	 1.8970
 0.4200	 1.9440
 0.4210	 1.9470
 0.4220	 1.9500
 0.4230	 1.9850
 0.4240	 2.0090
 0.4250	 2.0290
 0.4260	 2.0500
 0.4270	 2.0750
 0.4280	 2.0730
 0.4290	 2.0860
 0.4300	 2.1240
 0.4310	 2.1460
 0.4320	 2.1520
 0.4330	 2.1670
 0.4340	 2.2030
 0.4350	 2.1730
 0.4360	 2.1910
 0.4370	 2.2460
 0.4380	 2.2370
 0.4390	 2.2330
 0.4400	 2.2510
 0.4410	 2.2790
 0.4420	 2.2650
 0.4430	 2.2720
 0.4440	 2.3000
 0.4450	 2.3220
 0.4460	 2.3330
 0.4470	 2.3290
 0.4480	 2.3250
 0.4490	 2.3580
 0.4500	 2.3820
 0.4510	 2.4060
 0.4520	 2.4340
 0.4530	 2.4280
 0.4540	 2.4320
 0.4550	 2.4430
 0.4560	 2.4340
 0.4570	 2.4390
 0.4580	 2.4540
 0.4590	 2.4710
 0.4600	 2.4790
 0.4610	 2.4910
 0.4620	 2.4940
 0.4630	 2.4820
 0.4640	 2.5130
 0.4650	 2.5250
 0.4660	 2.5150
 0.4670	 2.5440
 0.4680	 2.5690
 0.4690	 2.5740
 0.4700	 2.5570
 0.4710	 2.5460
 0.4720	 2.5470
 0.4730	 2.5600
 0.4740	 2.5800
 0.4750	 2.5850
 0.4760	 2.5910
 0.4770	 2.6050
 0.4780	 2.6140
 0.4790	 2.6110
 0.4800	 2.6040
 0.4810	 2.6050
 0.4820	 2.6050
 0.4830	 2.6200
 0.4840	 2.6440
 0.4850	 2.6480
 0.4860	 2.6440
 0.4870	 2.6540
 0.4880	 2.6810
 0.4890	 2.6760
 0.4900	 2.6880
 0.4910	 2.7190
 0.4920	 2.7430
 0.4930	 2.7630
 0.4940	 2.7880
 0.4950	 2.8140
 0.4960	 2.8260
 0.4970	 2.8550
 0.4980	 2.8900
 0.4990	 2.9180
 0.5000	 2.9550
 0.5010	 2.9850
 0.5020	 3.0170
 0.5030	 3.0760
 0.5040	 3.1280
 0.5050	 3.1900
 0.5060	 3.2680
 0.5070	 3.3220
 0.5080	 3.4000
 0.5090	 3.4900
 0.5100	 3.5620
 0.5110	 3.6290
 0.5120	 3.7180
 0.5130	 3.8320
 0.5140	 3.9380
 0.5150	 4.0380
 0.5160	 4.1460
 0.5170	 4.2720
 0.5180	 4.3890
 0.5190	 4.5200
 0.5200	 4.6600
 0.5210	 4.7890
 0.5220	 4.9260
 0.5230	 5.0580
 0.5240	 5.1800
 0.5250	 5.3070
 0.5260	 5.4220
 0.5270	 5.5360
 0.5280	 5.6600
 0.5290	 5.7700
 0.5300	 5.8660
 0.5310	 5.9550
 0.5320	 6.0480
 0.5330	 6.1300
 0.5340	 6.2040
 0.5350	 6.2740
 0.5360	 6.3270
 0.5370	 6.3900
 0.5380	 6.4580
 0.5390	 6.5070
 0.5400	 6.5700
 0.5410	 6.6310
 0.5420	 6.6810
 0.5430	 6.7370
 0.5440	 6.7920
 0.5450	 6.8390
 0.5460	 6.8700
 0.5470	 6.8880
 0.5480	 6.9060
 0.5490	 6.9260
 0.5500	 6.9360
 0.5510	 6.9650
 0.5520	 6.9930
 0.5530	 7.0030
 0.5540	 7.0050
 0.5550	 6.9980
 0.5560	 6.9810
 0.5570	 6.9550
 0.5580	 6.9310
 0.5590	 6.9060
 0.5600	 6.8740
 0.5610	 6.8290
 0.5620	 6.7800
 0.5630	 6.7290
 0.5640	 6.6730
 0.5650	 6.6180
 0.5660	 6.5570
 0.5670	 6.4900
 0.5680	 6.4290
 0.5690	 6.3550
 0.5700	 6.2780
 0.5710	 6.2100
 0.5720	 6.1330
 0.5730	 6.0630
 0.5740	 5.9990
 0.5750	 5.9320
 0.5760	 5.8640
 0.5770	 5.7990
 0.5780	 5.7390
 0.5790	 5.6850
 0.5800	 5.6320
 0.5810	 5.5830
 0.5820	 5.5440
 0.5830	 5.5040
 0.5840	 5.4730
 0.5850	 5.4500
 0.5860	 5.4220
 0.5870	 5.3990
 0.5880	 5.3770
 0.5890	 5.3500
 0.5900	 5.3250
 0.5910	 5.2970
 0.5920	 5.2720
 0.5930	 5.2590
 0.5940	 5.2460
 0.5950	 5.2280
 0.5960	 5.2090
 0.5970	 5.1980
 0.5980	 5.1900
 0.5990	 5.1790
 0.6000	 5.1640
 0.6010	 5.1490
 0.6020	 5.1350
 0.6030	 5.1190
 0.6040	 5.0950
 0.6050	 5.0630
 0.6060	 5.0290
 0.6070	 4.9970
 0.6080	 4.9640
 0.6090	 4.9330
 0.6100	 4.9060
 0.6110	 4.8850
 0.6120	 4.8460
 0.6130	 4.7910
 0.6140	 4.7330
 0.6150	 4.6940
 0.6160	 4.6570
 0.6170	 4.6180
 0.6180	 4.5760
 0.6190	 4.5440
 0.6200	 4.5180
 0.6210	 4.4970
 0.6220	 4.4800
 0.6230	 4.4620
 0.6240	 4.4440
 0.6250	 4.4330
 0.6260	 4.4280
 0.6270	 4.4210
 0.6280	 4.4150
 0.6290	 4.4180
 0.6300	 4.4210
 0.6310	 4.4170
 0.6320	 4.4070
 0.6330	 4.3980
 0.6340	 4.3860
 0.6350	 4.3710
 0.6360	 4.3520
 0.6370	 4.3230
 0.6380	 4.2840
 0.6390	 4.2410
 0.6400	 4.2010
 0.6410	 4.1520
 0.6420	 4.1020
 0.6430	 4.0560
 0.6440	 4.0100
 0.6450	 3.9560
 0.6460	 3.9010
 0.6470	 3.8550
 0.6480	 3.8110
 0.6490	 3.7730
 0.6500	 3.7430
 0.6510	 3.7160
 0.6520	 3.6900
 0.6530	 3.6660
 0.6540	 3.6420
 0.6550	 3.6130
 0.6560	 3.5870
 0.6570	 3.5570
 0.6580	 3.5180
 0.6590	 3.4830
 0.6600	 3.4450
 0.6610	 3.4020
 0.6620	 3.3620
 0.6630	 3.3250
 0.6640	 3.2890
 0.6650	 3.2520
 0.6660	 3.2190
 0.6670	 3.1950
 0.6680	 3.1780
 0.6690	 3.1590
 0.6700	 3.1510
 0.6710	 3.1440
 0.6720	 3.1370
 0.6730	 3.1360
 0.6740	 3.1410
 0.6750	 3.1490
 0.6760	 3.1590
 0.6770	 3.1730
 0.6780	 3.1940
 0.6790	 3.2180
 0.6800	 3.2400
 0.6810	 3.2740
 0.6820	 3.3110
 0.6830	 3.3540
 0.6840	 3.4190
 0.6850	 3.4930
 0.6860	 3.5780
 0.6870	 3.6810
 0.6880	 3.8050
 0.6890	 3.9630
 0.6900	 4.1570
 0.6910	 4.3760
 0.6920	 4.6380
 0.6930	 4.9410
 0.6940	 5.2850
 0.6950	 5.6660
 0.6960	 6.0800
 0.6970	 6.5350
 0.6980	 7.0320
 0.6990	 7.5520
 0.7000	 8.0950
 0.7010	 8.6630
 0.7020	 9.2550
 0.7030	 9.8500
 0.7040	10.4570
 0.7050	11.0820
 0.7060	11.7060
 0.7070	12.3340
 0.7080	12.9670
 0.7090	13.6060
 0.7100	14.2500
 0.7110	14.9010
 0.7120	15.5580
 0.7130	16.2160
 0.7140	16.8800
 0.7150	17.5510
 0.7160	18.2240
 0.7170	18.8970
 0.7180	19.5710
 0.7190	20.2400
 0.7200	20.9000
 0.7210	21.5680
 0.7220	22.2270
 0.7230	22.8710
 0.7240	23.5080
 0.7250	24.1210
 0.7260	24.7270
 0.7270	25.3300
 0.7280	25.8840
 0.7290	26.4300
 0.7300	26.9610
 0.7310	27.4560
 0.7320	27.9400
 0.7330	28.3980
 0.7340	28.8280
 0.7350	29.2430
 0.7360	29.6340
 0.7370	30.0020
 0.7380	30.3500
 0.7390	30.6890
 0.7400	31.0000
 0.7410	31.2840
 0.7420	31.5520
 0.7430	31.8190
 0.7440	32.0610
 0.7450	32.2750
 0.7460	32.4820
 0.7470	32.6610
 0.7480	32.8300
 0.7490	33.0000
 0.7500	33.1580
 0.7510	33.2940
 0.7520	33.4170
 0.7530	33.5360
 0.7540	33.6490
 0.7550	33.7490
 0.7560	33.8390
 0.7570	33.9280
 0.7580	34.0060
 0.7590	34.0860
 0.7600	34.1700
 0.7610	34.2350
 0.7620	34.2920
 0.7630	34.3420
 0.7640	34.3860
 0.7650	34.4440
 0.7660	34.4950
 0.7670	34.5380
 0.7680	34.5860
 0.7690	34.6240
 0.7700	34.6590
 0.7710	34.6990
 0.7720	34.7430
 0.7730	34.7810
 0.7740	34.8110
 0.7750	34.8340
 0.7760	34.8680
 0.7770	34.9030
 0.7780	34.9350
 0.7790	34.9650
 0.7800	34.9850
 0.7810	35.0100
 0.7820	35.0460
 0.7830	35.0850
 0.7840	35.1130
 0.7850	35.1420
 0.7860	35.1760
 0.7870	35.1940
 0.7880	35.2240
 0.7890	35.2610
 0.7900	35.2880
 0.7910	35.3100
 0.7920	35.3290
 0.7930	35.3510
 0.7940	35.3810
 0.7950	35.4000
 0.7960	35.4130
 0.7970	35.4360
 0.7980	35.4830
 0.7990	35.5060
 0.8000	35.5250
 0.8010	35.5590
 0.8020	35.5760
 0.8030	35.5910
 0.8040	35.6090
 0.8050	35.6290
 0.8060	35.6620
 0.8070	35.6850
 0.8080	35.6970
 0.8090	35.7090
 0.8100	35.7280
 0.8110	35.7460
 0.8120	35.7620
 0.8130	35.7860
 0.8140	35.8010
 0.8150	35.8150
 0.8160	35.8370
 0.8170	35.8640
 0.8180	35.8830
 0.8190	35.8950
 0.8200	35.9080
 0.8210	35.9290
 0.8220	35.9460
 0.8230	35.9620
 0.8240	35.9860
 0.8250	35.9990
 0.8260	36.0030
 0.8270	36.0080
 0.8280	36.0340
 0.8290	36.0520
 0.8300	36.0600
 0.8310	36.0670
 0.8320	36.0910
 0.8330	36.1050
 0.8340	36.1150
 0.8350	36.1340
 0.8360	36.1430
 0.8370	36.1610
 0.8380	36.1840
 0.8390	36.1920
 0.8400	36.2080
 0.8410	36.2260
 0.8420	36.2420
 0.8430	36.2570
 0.8440	36.2680
 0.8450	36.2910
 0.8460	36.3290
 0.8470	36.3310
 0.8480	36.3500
 0.8490	36.3780
 0.8500	36.3920
 0.8510	36.4090
 0.8520	36.4230
 0.8530	36.4300
 0.8540	36.4340
 0.8550	36.4610
 0.8560	36.5020
 0.8570	36.5430
 0.8580	36.5600
 0.8590	36.5420
 0.8600	36.5410
 0.8610	36.5730
 0.8620	36.5920
 0.8630	36.5990
 0.8640	36.6040
 0.8650	36.6170
 0.8660	36.6420
 0.8670	36.6520
 0.8680	36.6630
 0.8690	36.6910
 0.8700	36.7040
 0.8710	36.7290
 0.8720	36.7550
 0.8730	36.7570
 0.8740	36.7680
 0.8750	36.7820
 0.8760	36.7950
 0.8770	36.8170
 0.8780	36.8290
 0.8790	36.8480
 0.8800	36.8720
 0.8810	36.8640
 0.8820	36.8700
 0.8830	36.8890
 0.8840	36.9070
 0.8850	36.9120
 0.8860	36.9210
 0.8870	36.9270
 0.8880	36.9240
 0.8890	36.9360
 0.8900	36.9460
 0.8910	36.9520
 0.8920	36.9600
 0.8930	36.9690
 0.8940	36.9860
 0.8950	37.0050
 0.8960	37.0130
 0.8970	37.0120
 0.8980	37.0070
 0.8990	37.0040
 0.9000	37.0080
 0.9010	37.0230
 0.9020	37.0230
 0.9030	37.0100
 0.9040	37.0270
 0.9050	37.0370
 0.9060	37.0510
 0.9070	37.0670
 0.9080	37.0580
 0.9090	37.0500
 0.9100	37.0550
 0.9110	37.0710
 0.9120	37.0620
 0.9130	37.0620
 0.9140	37.0730
 0.9150	37.0840
 0.9160	37.0670
 0.9170	37.0810
 0.9180	37.1110
 0.9190	37.1150
 0.9200	37.1060
 0.9210	37.0980
 0.9220	37.0930
 0.9230	37.0920
 0.9240	37.1010
 0.9250	37.1060
 0.9260	37.0980
 0.9270	37.0790
 0.9280	37.0730
 0.9290	37.0670
 0.9300	37.0580
 0.9310	37.0510
 0.9320	37.0540
 0.9330	37.0470
 0.9340	37.0220
 0.9350	36.9940
 0.9360	36.9950
 0.9370	36.9870
 0.9380	36.9510
 0.9390	36.9170
 0.9400	36.8940
 0.9410	36.8690
 0.9420	36.8410
 0.9430	36.8310
 0.9440	36.8000
 0.9450	36.7530
 0.9460	36.7020
 0.9470	36.6600
 0.9480	36.6210
 0.9490	36.5790
 0.9500	36.5270
 0.9510	36.4700
 0.9520	36.3890
 0.9530	36.2970
 0.9540	36.2150
 0.9550	36.1600
 0.9560	36.1050
 0.9570	36.0320
 0.9580	35.9410
 0.9590	35.8820
 0.9600	35.8190
 0.9610	35.7490
 0.9620	35.6830
 0.9630	35.6470
 0.9640	35.6270
 0.9650	35.6090
 0.9660	35.5820
 0.9670	35.5510
 0.9680	35.5080
 0.9690	35.4740
 0.9700	35.4680
 0.9710	35.4290
 0.9720	35.4100
 0.9730	35.4130
 0.9740	35.4120
 0.9750	35.3880
 0.9760	35.3900
 0.9770	35.4000
 0.9780	35.3850
 0.9790	35.3820
 0.9800	35.3890
 0.9810	35.3920
 0.9820	35.3850
 0.9830	35.4410
 0.9840	35.4560
 0.9850	35.4470
 0.9860	35.4770
 0.9870	35.5010
 0.9880	35.5360
 0.9890	35.5620
 0.9900	35.5590
 0.9910	35.5520
 0.9920	35.6140
 0.9930	35.6750
 0.9940	35.7360
 0.9950	35.7980
 0.9960	35.8590
 0.9970	35.9200
 0.9980	35.9820
 0.9990	36.0430
 1.0000	36.1050
 1.0010	36.1660
 1.0020	36.2270
 1.0030	36.2890
 1.0040	36.3500
 1.0050	36.4110
 1.0060	36.4730
 1.0070	36.5340
 1.0080	36.5960
 1.0090	36.6570
 1.0100	36.6570
 1.0110	36.6950
 1.0120	36.7360
 1.0130	36.7780
 1.0140	36.8190
 1.0150	36.8610
 1.0160	36.9000
 1.0170	36.9500
 1.0180	36.9960
 1.0190	37.0500
 1.0200	37.1050
 1.0210	37.1420
 1.0220	37.1780
 1.0230	37.2150
 1.0240	37.2420
 1.0250	37.2820
 1.0260	37.3330
 1.0270	37.3760
 1.0280	37.4220
 1.0290	37.4630
 1.0300	37.4960
 1.0310	37.5320
 1.0320	37.5660
 1.0330	37.5990
 1.0340	37.6340
 1.0350	37.6730
 1.0360	37.7200
 1.0370	37.7580
 1.0380	37.7970
 1.0390	37.8380
 1.0400	37.8700
 1.0410	37.8920
 1.0420	37.9250
 1.0430	37.9580
 1.0440	37.9910
 1.0450	38.0340
 1.0460	38.0670
 1.0470	38.0900
 1.0480	38.1180
 1.0490	38.1450
 1.0500	38.1730
 1.0510	38.2110
 1.0520	38.2380
 1.0530	38.2640
 1.0540	38.2860
 1.0550	38.3080
 1.0560	38.3210
 1.0570	38.3450
 1.0580	38.3750
 1.0590	38.3990
 1.0600	38.4290
 1.0610	38.4500
 1.0620	38.4620
 1.0630	38.4790
 1.0640	38.4950
 1.0650	38.5090
 1.0660	38.5220
 1.0670	38.5360
 1.0680	38.5500
 1.0690	38.5620
 1.0700	38.5740
 1.0710	38.5900
 1.0720	38.6000
 1.0730	38.6070
 1.0740	38.6160
 1.0750	38.6240
 1.0760	38.6310
 1.0770	38.6370
 1.0780	38.6420
 1.0790	38.6400
 1.0800	38.6440
 1.0810	38.6550
 1.0820	38.6590
 1.0830	38.6650
 1.0840	38.6680
 1.0850	38.6650
 1.0860	38.6660
 1.0870	38.6630
 1.0880	38.6580
 1.0890	38.6580
 1.0900	38.6570
 1.0910	38.6520
 1.0920	38.6510
 1.0930	38.6430
 1.0940	38.6250
 1.0950	38.6150
 1.0960	38.6080
 1.0970	38.6000
 1.0980	38.5980
 1.0990	38.5890
 1.1000	38.5770
 1.1010	38.5650
 1.1020	38.5520
 1.1030	38.5340
 1.1040	38.5180
 1.1050	38.5080
 1.1060	38.4970
 1.1070	38.4900
 1.1080	38.4750
 1.1090	38.4590
 1.1100	38.4390
 1.1110	38.4180
 1.1120	38.3900
 1.1130	38.3560
 1.1140	38.3230
 1.1150	38.2850
 1.1160	38.2470
 1.1170	38.2120
 1.1180	38.1730
 1.1190	38.1340
 1.1200	38.0860
 1.1210	38.0390
 1.1220	37.9850
 1.1230	37.9200
 1.1240	37.8540
 1.1250	37.7800
 1.1260	37.6980
 1.1270	37.6120
 1.1280	37.5240
 1.1290	37.4210
 1.1300	37.3100
 1.1310	37.1890
 1.1320	37.0520
 1.1330	36.9130
 1.1340	36.7690
 1.1350	36.6170
 1.1360	36.4600
 1.1370	36.2950
 1.1380	36.1180
 1.1390	35.9360
 1.1400	35.7470
 1.1410	35.5540
 1.1420	35.3570
 1.1430	35.1520
 1.1440	34.9500
 1.1450	34.7430
 1.1460	34.5440
 1.1470	34.3470
 1.1480	34.1570
 1.1490	33.9670
 1.1500	33.7880
 1.1510	33.6160
 1.1520	33.4500
 1.1530	33.2890
 1.1540	33.1410
 1.1550	33.0010
 1.1560	32.8710
 1.1570	32.7550
 1.1580	32.6490
 1.1590	32.5480
 1.1600	32.4510
 1.1610	32.3650
 1.1620	32.2850
 1.1630	32.2110
 1.1640	32.1450
 1.1650	32.0800
 1.1660	32.0170
 1.1670	31.9610
 1.1680	31.9110
 1.1690	31.8620
 1.1700	31.8170
 1.1710	31.7740
 1.1720	31.7340
 1.1730	31.6950
 1.1740	31.6580
 1.1750	31.6230
 1.1760	31.5850
 1.1770	31.5430
 1.1780	31.5010
 1.1790	31.4580
 1.1800	31.4160
 1.1810	31.3780
 1.1820	31.3380
 1.1830	31.2960
 1.1840	31.2570
 1.1850	31.2160
 1.1860	31.1760
 1.1870	31.1390
 1.1880	31.1060
 1.1890	31.0760
 1.1900	31.0480
 1.1910	31.0220
 1.1920	30.9990
 1.1930	30.9780
 1.1940	30.9580
 1.1950	30.9400
 1.1960	30.9270
 1.1970	30.9150
 1.1980	30.9020
 1.1990	30.8950
 1.2000	30.8920
 1.2010	30.8920
 1.2020	30.9000
 1.2030	30.9150
 1.2040	30.9350
 1.2050	30.9630
 1.2060	30.9930
 1.2070	31.0280
 1.2080	31.0700
 1.2090	31.1120
 1.2100	31.1600
 1.2110	31.2120
 1.2120	31.2670
 1.2130	31.3240
 1.2140	31.3870
 1.2150	31.4490
 1.2160	31.5100
 1.2170	31.5760
 1.2180	31.6430
 1.2190	31.7100
 1.2200	31.7820
 1.2210	31.8540
 1.2220	31.9210
 1.2230	31.9940
 1.2240	32.0680
 1.2250	32.1340
 1.2260	32.2020
 1.2270	32.2710
 1.2280	32.3340
 1.2290	32.3950
 1.2300	32.4530
 1.2310	32.5080
 1.2320	32.5620
 1.2330	32.6200
 1.2340	32.6750
 1.2350	32.7310
 1.2360	32.7840
 1.2370	32.8350
 1.2380	32.8820
 1.2390	32.9290
 1.2400	32.9750
 1.2410	33.0170
 1.2420	33.0580
 1.2430	33.0980
 1.2440	33.1380
 1.2450	33.1750
 1.2460	33.2120
 1.2470	33.2490
 1.2480	33.2880
 1.2490	33.3230
 1.2500	33.3530
 1.2510	33.3820
 1.2520	33.4100
 1.2530	33.4390
 1.2540	33.4710
 1.2550	33.5020
 1.2560	33.5270
 1.2570	33.5510
 1.2580	33.5750
 1.2590	33.5960
 1.2600	33.6150
 1.2610	33.6330
 1.2620	33.6510
 1.2630	33.6630
 1.2640	33.6770
 1.2650	33.6880
 1.2660	33.7000
 1.2670	33.7140
 1.2680	33.7240
 1.2690	33.7330
 1.2700	33.7420
 1.2710	33.7470
 1.2720	33.7540
 1.2730	33.7590
 1.2740	33.7600
 1.2750	33.7560
 1.2760	33.7520
 1.2770	33.7510
 1.2780	33.7490
 1.2790	33.7440
 1.2800	33.7350
 1.2810	33.7210
 1.2820	33.7010
 1.2830	33.6830
 1.2840	33.6670
 1.2850	33.6460
 1.2860	33.6250
 1.2870	33.6020
 1.2880	33.5760
 1.2890	33.5450
 1.2900	33.5150
 1.2910	33.4820
 1.2920	33.4450
 1.2930	33.4050
 1.2940	33.3630
 1.2950	33.3200
 1.2960	33.2700
 1.2970	33.2170
 1.2980	33.1590
 1.2990	33.0950
 1.3000	33.0340
 1.3010	32.9690
 1.3020	32.9010
 1.3030	32.8310
 1.3040	32.7540
 1.3050	32.6720
 1.3060	32.5870
 1.3070	32.4960
 1.3080	32.4010
 1.3090	32.3060
 1.3100	32.2070
 1.3110	32.1040
 1.3120	31.9990
 1.3130	31.8900
 1.3140	31.7760
 1.3150	31.6580
 1.3160	31.5360
 1.3170	31.4100
 1.3180	31.2790
 1.3190	31.1480
 1.3200	31.0140
 1.3210	30.8770
 1.3220	30.7360
 1.3230	30.5900
 1.3240	30.4360
 1.3250	30.2800
 1.3260	30.1230
 1.3270	29.9610
 1.3280	29.7990
 1.3290	29.6370
 1.3300	29.4700
 1.3310	29.3000
 1.3320	29.1280
 1.3330	28.9540
 1.3340	28.7810
 1.3350	28.6120
 1.3360	28.4420
 1.3370	28.2670
 1.3380	28.0960
 1.3390	27.9230
 1.3400	27.7470
 1.3410	27.5780
 1.3420	27.4100
 1.3430	27.2410
 1.3440	27.0750
 1.3450	26.9120
 1.3460	26.7490
 1.3470	26.5910
 1.3480	26.4370
 1.3490	26.2840
 1.3500	26.1350
 1.3510	25.9890
 1.3520	25.8420
 1.3530	25.6960
 1.3540	25.5520
 1.3550	25.4080
 1.3560	25.2650
 1.3570	25.1240
 1.3580	24.9850
 1.3590	24.8420
 1.3600	24.6970
 1.3610	24.5520
 1.3620	24.4040
 1.3630	24.2520
 1.3640	24.0960
 1.3650	23.9330
 1.3660	23.7650
 1.3670	23.5900
 1.3680	23.4080
 1.3690	23.2180
 1.3700	23.0190
 1.3710	22.8120
 1.3720	22.5930
 1.3730	22.3620
 1.3740	22.1190
 1.3750	21.8620
 1.3760	21.5920
 1.3770	21.3060
 1.3780	21.0020
 1.3790	20.6800
 1.3800	20.3440
 1.3810	19.9890
 1.3820	19.6250
 1.3830	19.2500
 1.3840	18.8640
 1.3850	18.4680
 1.3860	18.0650
 1.3870	17.6490
 1.3880	17.2360
 1.3890	16.8170
 1.3900	16.3970
 1.3910	15.9830
 1.3920	15.5690
 1.3930	15.1550
 1.3940	14.7490
 1.3950	14.3470
 1.3960	13.9540
 1.3970	13.5720
 1.3980	13.1980
 1.3990	12.8370
 1.4000	12.4880
 1.4010	12.1520
 1.4020	11.8310
 1.4030	11.5230
 1.4040	11.2310
 1.4050	10.9540
 1.4060	10.6910
 1.4070	10.4460
 1.4080	10.2130
 1.4090	 9.9910
 1.4100	 9.7840
 1.4110	 9.5900
 1.4120	 9.4080
 1.4130	 9.2390
 1.4140	 9.0810
 1.4150	 8.9350
 1.4160	 8.8000
 1.4170	 8.6740
 1.4180	 8.5590
 1.4190	 8.4510
 1.4200	 8.3500
 1.4210	 8.2570
 1.4220	 8.1720
 1.4230	 8.0930
 1.4240	 8.0200
 1.4250	 7.9520
 1.4260	 7.8920
 1.4270	 7.8370
 1.4280	 7.7890
 1.4290	 7.7430
 1.4300	 7.7020
 1.4310	 7.6630
 1.4320	 7.6270
 1.4330	 7.5940
 1.4340	 7.5660
 1.4350	 7.5410
 1.4360	 7.5190
 1.4370	 7.5000
 1.4380	 7.4830
 1.4390	 7.4680
 1.4400	 7.4550
 1.4410	 7.4440
 1.4420	 7.4350
 1.4430	 7.4300
 1.4440	 7.4270
 1.4450	 7.4240
 1.4460	 7.4220
 1.4470	 7.4230
 1.4480	 7.4240
 1.4490	 7.4270
 1.4500	 7.4320
 1.4510	 7.4360
 1.4520	 7.4410
 1.4530	 7.4480
 1.4540	 7.4560
 1.4550	 7.4660
 1.4560	 7.4760
 1.4570	 7.4880
 1.4580	 7.5010
 1.4590	 7.5150
 1.4600	 7.5340
 1.4610	 7.5520
 1.4620	 7.5710
 1.4630	 7.5940
 1.4640	 7.6180
 1.4650	 7.6450
 1.4660	 7.6750
 1.4670	 7.7050
 1.4680	 7.7390
 1.4690	 7.7750
