Name: Pinus lambertiana 2
Type: vegetation
Class: Tree
Genus: Pinus
Species: lambertiana
Sample No.: VH161
Owner: UCSB
Wavelength Range: TIR
Origin: 37.0422; -119.3028; WGS84
Collection Date: 6/8/2013
Description: Samples were collected as part of the HyspIRI Airborne Campaign. 48 individual plants were sampled in three times in 2013 - spring  summer  and fall. The name of the sample includes a 1  2  or 3 which references a different individual of the species. Samples were taken to JPL and processed within 48 hours of collection. The same leaves were processed in the Nicolet and then measured using the ASD.
Measurement: Hemispherical reflectance
First Column: X
Second Column: Y
X Units: Wavelength (micrometers)
Y Units: Reflectance (percentage)
First X Value: 2.501
Last X Value: 15.387
Number of X Values: 1737
Additional Information: vegetation.tree.pinus.lambertiana.tir.vh161.ucsb.nicolet.ancillary.txt

 2.5010	 5.9330
 2.5030	 5.6670
 2.5040	 5.8130
 2.5050	 6.0040
 2.5060	 6.1320
 2.5070	 6.2710
 2.5090	 6.2650
 2.5100	 5.8340
 2.5110	 5.6440
 2.5120	 5.7890
 2.5140	 5.8070
 2.5150	 5.7190
 2.5160	 5.7790
 2.5170	 5.6440
 2.5180	 5.7320
 2.5200	 5.8230
 2.5210	 5.8050
 2.5220	 5.8690
 2.5230	 5.8690
 2.5250	 5.7650
 2.5260	 5.9010
 2.5270	 5.9450
 2.5280	 5.8490
 2.5290	 5.7930
 2.5310	 5.8530
 2.5320	 5.8150
 2.5330	 5.8200
 2.5340	 5.8110
 2.5360	 5.7940
 2.5370	 5.6580
 2.5380	 5.8370
 2.5390	 5.9020
 2.5410	 5.7420
 2.5420	 5.7430
 2.5430	 5.9400
 2.5440	 5.9840
 2.5460	 6.0060
 2.5470	 5.8720
 2.5480	 5.8860
 2.5490	 5.9160
 2.5510	 5.9450
 2.5520	 5.9180
 2.5530	 5.9530
 2.5540	 5.9310
 2.5560	 5.9610
 2.5570	 5.9190
 2.5580	 6.0880
 2.5590	 6.0890
 2.5610	 6.0740
 2.5620	 6.0810
 2.5630	 6.0320
 2.5640	 5.9570
 2.5660	 6.0240
 2.5670	 5.9670
 2.5680	 6.0170
 2.5700	 6.0410
 2.5710	 6.1220
 2.5720	 6.0090
 2.5730	 5.9810
 2.5750	 5.8330
 2.5760	 5.8550
 2.5770	 5.9270
 2.5790	 6.0780
 2.5800	 6.1410
 2.5810	 6.1040
 2.5820	 6.0090
 2.5840	 6.0770
 2.5850	 6.0970
 2.5860	 6.1490
 2.5880	 6.0700
 2.5890	 6.0790
 2.5900	 6.0190
 2.5910	 6.0050
 2.5930	 5.9680
 2.5940	 5.9340
 2.5950	 5.7590
 2.5970	 5.8410
 2.5980	 5.7890
 2.5990	 5.8160
 2.6000	 5.8580
 2.6020	 5.8850
 2.6030	 5.8350
 2.6040	 5.8720
 2.6060	 5.8360
 2.6070	 5.7520
 2.6080	 5.8060
 2.6100	 5.8210
 2.6110	 5.7390
 2.6120	 5.7080
 2.6140	 5.6360
 2.6150	 5.7940
 2.6160	 5.7940
 2.6180	 5.7880
 2.6190	 5.6670
 2.6200	 5.6590
 2.6220	 5.7560
 2.6230	 5.6870
 2.6240	 5.5470
 2.6260	 5.6250
 2.6270	 5.6040
 2.6280	 5.4900
 2.6300	 5.3890
 2.6310	 5.4810
 2.6320	 5.4990
 2.6340	 5.5660
 2.6350	 5.4520
 2.6360	 5.4340
 2.6380	 5.3570
 2.6390	 5.3860
 2.6400	 5.4160
 2.6420	 5.4530
 2.6430	 5.4030
 2.6440	 5.4000
 2.6460	 5.2930
 2.6470	 5.1980
 2.6480	 5.1280
 2.6500	 5.2090
 2.6510	 5.2460
 2.6520	 5.2510
 2.6540	 5.1020
 2.6550	 5.0220
 2.6560	 4.9050
 2.6580	 5.1130
 2.6590	 5.2550
 2.6610	 5.1660
 2.6620	 5.0660
 2.6630	 5.1150
 2.6650	 5.0900
 2.6660	 5.1480
 2.6670	 5.1310
 2.6690	 5.1750
 2.6700	 5.0740
 2.6720	 4.9540
 2.6730	 4.8020
 2.6740	 4.8530
 2.6760	 4.9390
 2.6770	 5.0680
 2.6780	 4.9780
 2.6800	 4.9220
 2.6810	 4.8120
 2.6830	 4.8220
 2.6840	 4.7440
 2.6850	 4.7960
 2.6870	 4.8110
 2.6880	 4.7520
 2.6900	 4.5950
 2.6910	 4.5310
 2.6920	 4.4680
 2.6940	 4.4980
 2.6950	 4.5130
 2.6970	 4.6510
 2.6980	 4.5280
 2.6990	 4.4900
 2.7010	 4.5100
 2.7020	 4.5170
 2.7040	 4.3950
 2.7050	 4.4280
 2.7060	 4.2810
 2.7080	 4.0690
 2.7090	 4.0310
 2.7110	 4.2750
 2.7120	 4.2890
 2.7130	 4.2100
 2.7150	 4.1650
 2.7160	 4.3360
 2.7180	 4.3450
 2.7190	 4.3320
 2.7210	 4.3030
 2.7220	 4.2500
 2.7230	 4.2390
 2.7250	 4.2680
 2.7260	 4.1410
 2.7280	 4.1460
 2.7290	 4.0070
 2.7310	 3.9270
 2.7320	 4.0290
 2.7330	 4.1180
 2.7350	 4.0350
 2.7360	 4.1270
 2.7380	 4.1940
 2.7390	 4.2890
 2.7410	 4.2300
 2.7420	 4.2290
 2.7440	 4.0160
 2.7450	 4.0490
 2.7470	 4.2250
 2.7480	 4.3720
 2.7490	 4.2400
 2.7510	 4.1140
 2.7520	 4.1790
 2.7540	 4.3390
 2.7550	 4.4360
 2.7570	 4.2900
 2.7580	 3.8710
 2.7600	 3.7210
 2.7610	 3.7140
 2.7630	 3.7570
 2.7640	 3.8100
 2.7660	 3.9840
 2.7670	 4.1820
 2.7680	 4.5180
 2.7700	 4.4220
 2.7710	 4.2740
 2.7730	 4.1410
 2.7740	 4.1190
 2.7760	 3.9250
 2.7770	 3.9060
 2.7790	 4.1060
 2.7800	 4.0310
 2.7820	 3.9340
 2.7830	 4.1860
 2.7850	 4.0770
 2.7860	 3.9710
 2.7880	 3.9130
 2.7890	 4.0030
 2.7910	 4.0400
 2.7920	 4.1720
 2.7940	 4.1840
 2.7950	 4.0740
 2.7970	 3.8160
 2.7980	 3.7170
 2.8000	 3.7950
 2.8010	 4.0450
 2.8030	 3.9820
 2.8040	 4.0000
 2.8060	 4.0310
 2.8070	 4.0780
 2.8090	 4.0600
 2.8110	 4.0840
 2.8120	 3.9530
 2.8140	 3.8430
 2.8150	 3.7860
 2.8170	 3.9980
 2.8180	 4.0330
 2.8200	 3.9220
 2.8210	 3.9110
 2.8230	 4.1000
 2.8240	 3.9740
 2.8260	 4.0910
 2.8270	 4.0810
 2.8290	 3.9560
 2.8300	 3.8570
 2.8320	 3.8530
 2.8340	 3.9380
 2.8350	 4.0260
 2.8370	 4.0100
 2.8380	 4.1200
 2.8400	 3.9930
 2.8410	 3.9860
 2.8430	 4.0190
 2.8440	 4.1200
 2.8460	 4.0470
 2.8480	 4.0510
 2.8490	 4.0920
 2.8510	 4.1160
 2.8520	 4.1020
 2.8540	 4.1700
 2.8550	 4.0710
 2.8570	 4.0670
 2.8590	 3.9590
 2.8600	 3.9820
 2.8620	 3.9570
 2.8630	 4.0260
 2.8650	 4.1620
 2.8660	 4.1570
 2.8680	 3.9420
 2.8700	 3.9820
 2.8710	 3.8510
 2.8730	 4.1160
 2.8740	 4.1680
 2.8760	 4.0050
 2.8780	 3.9350
 2.8790	 4.0690
 2.8810	 4.0510
 2.8820	 3.9830
 2.8840	 3.9780
 2.8860	 4.0820
 2.8870	 3.9860
 2.8890	 3.9830
 2.8900	 3.9300
 2.8920	 3.9130
 2.8940	 3.7630
 2.8950	 3.8640
 2.8970	 3.8530
 2.8980	 3.9340
 2.9000	 3.9870
 2.9020	 4.0190
 2.9030	 4.0670
 2.9050	 4.0930
 2.9070	 4.1270
 2.9080	 4.4170
 2.9100	 4.1530
 2.9120	 3.9080
 2.9130	 3.9980
 2.9150	 4.0250
 2.9160	 4.0120
 2.9180	 4.2000
 2.9200	 4.1200
 2.9210	 4.1860
 2.9230	 4.0750
 2.9250	 4.0300
 2.9260	 4.0150
 2.9280	 4.0480
 2.9300	 4.0820
 2.9310	 4.1340
 2.9330	 3.9330
 2.9350	 3.9740
 2.9360	 3.9630
 2.9380	 4.0350
 2.9400	 4.0090
 2.9410	 3.9430
 2.9430	 3.9330
 2.9450	 4.0290
 2.9460	 3.9740
 2.9480	 4.1170
 2.9500	 4.3010
 2.9510	 4.4120
 2.9530	 4.7960
 2.9550	 4.5550
 2.9560	 4.1480
 2.9580	 4.3000
 2.9600	 4.2710
 2.9610	 3.5150
 2.9630	 2.9170
 2.9650	 3.0670
 2.9660	 3.4520
 2.9680	 2.8030
 2.9700	 2.9980
 2.9720	 3.9690
 2.9730	 3.3830
 2.9750	 3.1780
 2.9770	 3.6790
 2.9780	 2.3500
 2.9800	 2.1720
 2.9820	 3.7610
 2.9840	 4.2630
 2.9850	 3.5670
 2.9870	 3.0520
 2.9890	 3.6350
 2.9900	 5.0250
 2.9920	 5.0710
 2.9940	 3.1020
 2.9960	 2.5120
 2.9970	 3.1470
 2.9990	 3.3470
 3.0010	 3.7760
 3.0030	 4.3020
 3.0040	 4.3310
 3.0060	 4.4760
 3.0080	 4.2490
 3.0100	 3.9140
 3.0110	 4.0800
 3.0130	 4.3470
 3.0150	 3.9560
 3.0170	 3.8390
 3.0180	 3.8320
 3.0200	 4.0280
 3.0220	 4.0550
 3.0240	 4.3650
 3.0250	 3.9650
 3.0270	 3.7240
 3.0290	 3.7460
 3.0310	 4.1160
 3.0320	 3.9360
 3.0340	 4.3940
 3.0360	 4.4970
 3.0380	 4.9100
 3.0400	 5.0040
 3.0410	 4.3970
 3.0430	 4.4930
 3.0450	 5.0680
 3.0470	 5.7900
 3.0480	 6.9880
 3.0500	 5.9170
 3.0520	 4.4820
 3.0540	 4.2550
 3.0560	 3.1420
 3.0570	 2.9030
 3.0590	 4.2820
 3.0610	 4.0940
 3.0630	 2.7430
 3.0650	 2.3030
 3.0660	 2.5520
 3.0680	 3.2100
 3.0700	 3.4050
 3.0720	 3.4340
 3.0740	 3.7200
 3.0760	 4.0540
 3.0770	 4.2450
 3.0790	 4.2350
 3.0810	 4.1580
 3.0830	 3.8960
 3.0850	 4.0100
 3.0870	 4.2600
 3.0880	 4.1820
 3.0900	 3.8570
 3.0920	 3.9290
 3.0940	 4.0850
 3.0960	 4.1610
 3.0980	 3.9740
 3.0990	 3.8710
 3.1010	 3.8730
 3.1030	 3.8260
 3.1050	 3.7520
 3.1070	 3.7800
 3.1090	 3.7050
 3.1110	 3.8840
 3.1120	 4.1010
 3.1140	 4.1110
 3.1160	 3.9640
 3.1180	 3.7260
 3.1200	 3.7240
 3.1220	 4.1730
 3.1240	 4.2720
 3.1260	 4.1860
 3.1270	 3.7000
 3.1290	 3.8180
 3.1310	 4.3480
 3.1330	 4.0720
 3.1350	 2.9950
 3.1370	 2.5600
 3.1390	 2.9160
 3.1410	 3.1330
 3.1430	 3.6180
 3.1450	 4.1290
 3.1460	 4.7230
 3.1480	 4.6220
 3.1500	 4.1910
 3.1520	 4.5060
 3.1540	 4.4750
 3.1560	 4.1070
 3.1580	 3.8950
 3.1600	 4.1570
 3.1620	 4.1430
 3.1640	 4.0610
 3.1660	 3.5700
 3.1680	 3.7960
 3.1700	 4.7820
 3.1710	 4.8460
 3.1730	 3.8830
 3.1750	 3.7800
 3.1770	 4.1280
 3.1790	 3.6530
 3.1810	 3.4530
 3.1830	 3.8580
 3.1850	 3.5940
 3.1870	 3.7140
 3.1890	 3.8960
 3.1910	 3.9720
 3.1930	 3.9710
 3.1950	 4.0370
 3.1970	 3.9690
 3.1990	 3.8740
 3.2010	 4.0330
 3.2030	 4.0420
 3.2050	 3.8710
 3.2070	 3.9960
 3.2090	 3.7600
 3.2110	 3.8080
 3.2130	 3.9950
 3.2150	 4.0470
 3.2170	 3.9060
 3.2190	 3.7930
 3.2210	 3.9430
 3.2230	 4.1140
 3.2250	 3.9700
 3.2270	 3.9120
 3.2290	 4.0650
 3.2310	 4.0610
 3.2330	 3.7920
 3.2350	 3.7930
 3.2370	 3.9610
 3.2390	 3.9930
 3.2410	 4.1130
 3.2430	 3.9930
 3.2450	 3.6970
 3.2470	 3.9950
 3.2490	 4.0610
 3.2510	 3.8630
 3.2530	 3.9050
 3.2550	 3.8460
 3.2570	 3.6650
 3.2590	 3.8940
 3.2610	 3.9390
 3.2630	 3.8200
 3.2650	 3.9350
 3.2670	 3.8650
 3.2690	 3.7920
 3.2720	 4.1260
 3.2740	 4.0480
 3.2760	 3.9200
 3.2780	 3.9090
 3.2800	 3.8520
 3.2820	 3.7850
 3.2840	 3.8640
 3.2860	 3.9520
 3.2880	 3.9690
 3.2900	 3.9550
 3.2920	 4.0260
 3.2940	 3.8130
 3.2960	 3.7300
 3.2990	 3.9230
 3.3010	 4.0560
 3.3030	 3.9130
 3.3050	 3.9310
 3.3070	 3.8890
 3.3090	 3.7670
 3.3110	 3.6820
 3.3130	 3.7540
 3.3150	 3.8230
 3.3180	 3.8970
 3.3200	 3.8090
 3.3220	 3.7820
 3.3240	 3.7520
 3.3260	 3.8160
 3.3280	 3.8320
 3.3300	 3.7460
 3.3330	 3.5950
 3.3350	 3.6330
 3.3370	 3.7090
 3.3390	 3.8280
 3.3410	 3.8260
 3.3430	 3.8720
 3.3450	 3.8770
 3.3480	 3.8370
 3.3500	 3.7950
 3.3520	 3.7050
 3.3540	 3.5930
 3.3560	 3.5190
 3.3580	 3.4370
 3.3610	 3.5190
 3.3630	 3.4920
 3.3650	 3.5840
 3.3670	 3.5020
 3.3690	 3.4420
 3.3720	 3.4370
 3.3740	 3.3400
 3.3760	 3.3590
 3.3780	 3.4480
 3.3800	 3.3540
 3.3830	 3.3890
 3.3850	 3.4470
 3.3870	 3.4140
 3.3890	 3.1190
 3.3910	 3.2980
 3.3940	 3.4540
 3.3960	 3.4340
 3.3980	 3.3370
 3.4000	 3.2870
 3.4020	 3.1430
 3.4050	 3.2420
 3.4070	 3.4060
 3.4090	 3.5610
 3.4110	 3.4940
 3.4140	 3.5710
 3.4160	 3.6190
 3.4180	 3.7420
 3.4200	 4.0000
 3.4230	 4.4120
 3.4250	 4.8880
 3.4270	 5.3900
 3.4290	 5.6770
 3.4320	 5.8190
 3.4340	 5.7820
 3.4360	 5.6460
 3.4390	 5.3210
 3.4410	 5.0260
 3.4430	 4.7410
 3.4450	 4.7640
 3.4480	 4.7460
 3.4500	 4.7830
 3.4520	 4.7770
 3.4550	 4.7760
 3.4570	 4.5750
 3.4590	 4.4710
 3.4620	 4.5270
 3.4640	 4.5650
 3.4660	 4.4920
 3.4680	 4.4210
 3.4710	 4.3450
 3.4730	 4.3900
 3.4750	 4.3080
 3.4780	 4.2390
 3.4800	 4.2210
 3.4820	 4.1640
 3.4850	 4.0820
 3.4870	 4.0800
 3.4890	 4.0150
 3.4920	 4.0750
 3.4940	 4.0640
 3.4970	 3.9220
 3.4990	 3.8220
 3.5010	 3.9140
 3.5040	 3.9950
 3.5060	 4.4040
 3.5080	 5.0420
 3.5110	 5.6680
 3.5130	 5.7830
 3.5160	 5.5650
 3.5180	 5.4080
 3.5200	 5.3930
 3.5230	 5.2660
 3.5250	 5.1550
 3.5270	 5.0910
 3.5300	 4.9380
 3.5320	 4.8290
 3.5350	 4.8330
 3.5370	 4.7620
 3.5400	 4.7630
 3.5420	 4.8020
 3.5440	 4.7390
 3.5470	 4.5390
 3.5490	 4.6170
 3.5520	 4.5900
 3.5540	 4.4000
 3.5570	 4.3880
 3.5590	 4.4460
 3.5610	 4.4270
 3.5640	 4.5050
 3.5660	 4.5500
 3.5690	 4.6660
 3.5710	 4.6800
 3.5740	 4.6100
 3.5760	 4.5520
 3.5790	 4.5390
 3.5810	 4.5000
 3.5840	 4.5620
 3.5860	 4.6330
 3.5890	 4.6560
 3.5910	 4.5710
 3.5930	 4.6100
 3.5960	 4.7480
 3.5980	 4.8020
 3.6010	 4.5300
 3.6030	 4.5200
 3.6060	 4.4430
 3.6080	 4.4560
 3.6110	 4.4720
 3.6140	 4.4100
 3.6160	 4.4230
 3.6190	 4.4490
 3.6210	 4.4070
 3.6240	 4.4660
 3.6260	 4.4040
 3.6290	 4.2690
 3.6310	 4.2510
 3.6340	 4.3830
 3.6360	 4.4970
 3.6390	 4.5280
 3.6410	 4.4410
 3.6440	 4.3380
 3.6470	 4.3800
 3.6490	 4.4340
 3.6520	 4.3910
 3.6540	 4.3790
 3.6570	 4.3450
 3.6590	 4.3390
 3.6620	 4.2720
 3.6650	 4.2990
 3.6670	 4.3260
 3.6700	 4.3870
 3.6720	 4.3940
 3.6750	 4.3340
 3.6780	 4.3300
 3.6800	 4.3620
 3.6830	 4.3340
 3.6850	 4.3160
 3.6880	 4.3240
 3.6910	 4.4210
 3.6930	 4.3810
 3.6960	 4.3490
 3.6990	 4.3500
 3.7010	 4.3830
 3.7040	 4.3620
 3.7060	 4.3970
 3.7090	 4.4340
 3.7120	 4.4830
 3.7140	 4.4490
 3.7170	 4.3080
 3.7200	 4.1820
 3.7220	 4.3700
 3.7250	 4.4660
 3.7280	 4.3870
 3.7300	 4.2680
 3.7330	 4.2660
 3.7360	 4.3830
 3.7390	 4.4760
 3.7410	 4.4580
 3.7440	 4.4640
 3.7470	 4.3420
 3.7490	 4.3870
 3.7520	 4.4610
 3.7550	 4.4000
 3.7580	 4.3850
 3.7600	 4.4940
 3.7630	 4.4900
 3.7660	 4.4510
 3.7680	 4.4100
 3.7710	 4.4710
 3.7740	 4.5410
 3.7770	 4.4820
 3.7790	 4.3640
 3.7820	 4.4350
 3.7850	 4.4730
 3.7880	 4.4930
 3.7900	 4.4410
 3.7930	 4.4070
 3.7960	 4.2950
 3.7990	 4.3320
 3.8020	 4.4250
 3.8040	 4.5170
 3.8070	 4.5640
 3.8100	 4.5730
 3.8130	 4.4810
 3.8160	 4.4110
 3.8180	 4.3870
 3.8210	 4.4360
 3.8240	 4.3850
 3.8270	 4.4560
 3.8300	 4.5620
 3.8330	 4.5960
 3.8350	 4.4760
 3.8380	 4.5170
 3.8410	 4.5980
 3.8440	 4.4480
 3.8470	 4.3800
 3.8500	 4.4180
 3.8520	 4.4610
 3.8550	 4.4510
 3.8580	 4.3900
 3.8610	 4.4170
 3.8640	 4.4060
 3.8670	 4.4260
 3.8700	 4.4360
 3.8730	 4.4790
 3.8750	 4.4990
 3.8780	 4.5010
 3.8810	 4.4660
 3.8840	 4.4850
 3.8870	 4.4230
 3.8900	 4.4610
 3.8930	 4.4460
 3.8960	 4.4800
 3.8990	 4.5800
 3.9020	 4.5400
 3.9050	 4.4390
 3.9080	 4.4700
 3.9110	 4.4830
 3.9140	 4.4770
 3.9160	 4.5050
 3.9190	 4.5460
 3.9220	 4.5920
 3.9250	 4.5810
 3.9280	 4.5300
 3.9310	 4.4670
 3.9340	 4.4330
 3.9370	 4.4820
 3.9400	 4.4360
 3.9430	 4.4780
 3.9460	 4.4740
 3.9490	 4.4840
 3.9520	 4.5110
 3.9550	 4.5610
 3.9580	 4.5390
 3.9610	 4.5360
 3.9640	 4.5210
 3.9670	 4.5380
 3.9700	 4.4670
 3.9730	 4.4760
 3.9770	 4.4960
 3.9800	 4.4410
 3.9830	 4.4050
 3.9860	 4.4920
 3.9890	 4.5160
 3.9920	 4.5350
 3.9950	 4.5140
 3.9980	 4.5350
 4.0010	 4.5510
 4.0040	 4.5750
 4.0070	 4.5350
 4.0100	 4.5060
 4.0130	 4.5060
 4.0170	 4.5460
 4.0200	 4.5210
 4.0230	 4.5150
 4.0260	 4.5080
 4.0290	 4.5550
 4.0320	 4.5610
 4.0350	 4.5310
 4.0380	 4.4920
 4.0420	 4.4840
 4.0450	 4.5780
 4.0480	 4.6230
 4.0510	 4.5370
 4.0540	 4.5830
 4.0570	 4.6390
 4.0610	 4.6300
 4.0640	 4.5730
 4.0670	 4.5200
 4.0700	 4.5180
 4.0730	 4.5320
 4.0770	 4.4610
 4.0800	 4.4700
 4.0830	 4.4980
 4.0860	 4.5520
 4.0890	 4.5690
 4.0930	 4.5640
 4.0960	 4.5990
 4.0990	 4.5680
 4.1020	 4.5490
 4.1060	 4.6640
 4.1090	 4.7050
 4.1120	 4.6700
 4.1150	 4.6730
 4.1190	 4.6450
 4.1220	 4.5830
 4.1250	 4.5700
 4.1280	 4.6230
 4.1320	 4.6320
 4.1350	 4.5720
 4.1380	 4.5650
 4.1420	 4.5780
 4.1450	 4.5690
 4.1480	 4.4930
 4.1520	 4.4640
 4.1550	 4.5540
 4.1580	 4.6220
 4.1620	 4.5860
 4.1650	 4.5590
 4.1680	 4.5320
 4.1720	 4.5560
 4.1750	 4.5670
 4.1780	 4.5670
 4.1820	 4.5160
 4.1850	 4.5500
 4.1890	 4.6410
 4.1920	 4.6640
 4.1950	 4.6300
 4.1990	 4.6280
 4.2020	 4.6690
 4.2060	 4.7300
 4.2090	 4.7290
 4.2120	 4.8230
 4.2160	 4.8570
 4.2190	 4.8510
 4.2230	 4.8740
 4.2260	 4.8840
 4.2300	 4.6850
 4.2330	 4.7410
 4.2360	 4.8710
 4.2400	 4.8830
 4.2430	 4.7960
 4.2470	 4.7670
 4.2500	 4.8060
 4.2540	 4.8410
 4.2570	 4.7950
 4.2610	 4.7670
 4.2640	 4.6350
 4.2680	 4.6280
 4.2710	 4.6200
 4.2750	 4.8540
 4.2780	 5.0050
 4.2820	 4.8410
 4.2850	 4.8290
 4.2890	 4.9290
 4.2930	 4.9900
 4.2960	 4.9410
 4.3000	 4.7990
 4.3030	 4.7620
 4.3070	 4.7300
 4.3100	 4.6990
 4.3140	 4.7540
 4.3180	 4.7400
 4.3210	 4.6740
 4.3250	 4.6810
 4.3280	 4.6760
 4.3320	 4.6300
 4.3360	 4.5910
 4.3390	 4.5500
 4.3430	 4.5620
 4.3470	 4.6000
 4.3500	 4.5350
 4.3540	 4.4940
 4.3570	 4.5600
 4.3610	 4.6100
 4.3650	 4.5770
 4.3680	 4.6030
 4.3720	 4.6180
 4.3760	 4.5770
 4.3800	 4.5920
 4.3830	 4.5920
 4.3870	 4.5260
 4.3910	 4.4750
 4.3940	 4.4810
 4.3980	 4.5130
 4.4020	 4.5150
 4.4060	 4.5220
 4.4090	 4.5670
 4.4130	 4.5660
 4.4170	 4.5340
 4.4210	 4.4730
 4.4240	 4.4150
 4.4280	 4.4060
 4.4320	 4.4520
 4.4360	 4.4990
 4.4400	 4.4600
 4.4430	 4.4700
 4.4470	 4.5320
 4.4510	 4.5270
 4.4550	 4.4720
 4.4590	 4.4310
 4.4620	 4.4280
 4.4660	 4.4390
 4.4700	 4.4140
 4.4740	 4.3400
 4.4780	 4.3580
 4.4820	 4.4440
 4.4860	 4.4790
 4.4900	 4.4520
 4.4930	 4.4090
 4.4970	 4.4470
 4.5010	 4.5360
 4.5050	 4.6230
 4.5090	 4.5140
 4.5130	 4.4410
 4.5170	 4.4440
 4.5210	 4.3600
 4.5250	 4.3150
 4.5290	 4.3780
 4.5330	 4.4310
 4.5370	 4.4090
 4.5410	 4.3480
 4.5450	 4.3370
 4.5490	 4.3860
 4.5530	 4.3920
 4.5570	 4.2690
 4.5610	 4.2650
 4.5650	 4.3850
 4.5690	 4.4380
 4.5730	 4.3510
 4.5770	 4.2740
 4.5810	 4.2960
 4.5850	 4.3030
 4.5890	 4.3310
 4.5930	 4.3630
 4.5970	 4.3810
 4.6010	 4.3970
 4.6050	 4.4040
 4.6090	 4.3950
 4.6130	 4.3010
 4.6170	 4.0930
 4.6220	 4.1590
 4.6260	 4.3300
 4.6300	 4.4480
 4.6340	 4.3860
 4.6380	 4.2480
 4.6420	 4.2900
 4.6460	 4.3460
 4.6510	 4.3180
 4.6550	 4.3100
 4.6590	 4.3520
 4.6630	 4.3490
 4.6670	 4.3360
 4.6720	 4.3300
 4.6760	 4.2940
 4.6800	 4.3380
 4.6840	 4.3830
 4.6880	 4.2700
 4.6930	 4.2390
 4.6970	 4.3190
 4.7010	 4.3320
 4.7050	 4.3360
 4.7100	 4.3720
 4.7140	 4.4300
 4.7180	 4.3480
 4.7230	 4.3020
 4.7270	 4.2990
 4.7310	 4.2690
 4.7360	 4.2680
 4.7400	 4.2720
 4.7440	 4.2000
 4.7490	 4.2690
 4.7530	 4.3480
 4.7570	 4.3770
 4.7620	 4.3990
 4.7660	 4.4550
 4.7700	 4.4490
 4.7750	 4.4110
 4.7790	 4.3790
 4.7840	 4.4430
 4.7880	 4.4780
 4.7920	 4.3000
 4.7970	 4.1960
 4.8010	 4.1720
 4.8060	 4.2540
 4.8100	 4.3280
 4.8150	 4.3960
 4.8190	 4.3700
 4.8240	 4.3520
 4.8280	 4.4230
 4.8330	 4.4250
 4.8370	 4.3310
 4.8420	 4.3390
 4.8460	 4.4230
 4.8510	 4.4040
 4.8550	 4.3520
 4.8600	 4.3280
 4.8640	 4.2720
 4.8690	 4.2540
 4.8730	 4.3250
 4.8780	 4.3800
 4.8830	 4.3690
 4.8870	 4.3380
 4.8920	 4.3370
 4.8960	 4.3470
 4.9010	 4.3530
 4.9060	 4.3900
 4.9100	 4.4220
 4.9150	 4.4010
 4.9200	 4.3090
 4.9240	 4.2310
 4.9290	 4.2730
 4.9340	 4.2890
 4.9380	 4.2480
 4.9430	 4.2850
 4.9480	 4.3770
 4.9530	 4.3910
 4.9570	 4.3550
 4.9620	 4.3060
 4.9670	 4.3440
 4.9720	 4.4080
 4.9760	 4.4310
 4.9810	 4.4090
 4.9860	 4.3700
 4.9910	 4.3300
 4.9960	 4.3840
 5.0000	 4.4580
 5.0050	 4.4230
 5.0100	 4.3100
 5.0150	 4.2940
 5.0200	 4.3700
 5.0250	 4.4070
 5.0290	 4.4300
 5.0340	 4.4530
 5.0390	 4.3640
 5.0440	 4.3720
 5.0490	 4.3990
 5.0540	 4.3870
 5.0590	 4.3770
 5.0640	 4.4200
 5.0690	 4.4400
 5.0740	 4.4130
 5.0790	 4.3970
 5.0840	 4.4240
 5.0890	 4.4390
 5.0940	 4.4400
 5.0990	 4.3940
 5.1040	 4.3960
 5.1090	 4.3840
 5.1140	 4.3460
 5.1190	 4.3350
 5.1240	 4.4130
 5.1290	 4.4330
 5.1340	 4.4540
 5.1390	 4.4340
 5.1440	 4.4210
 5.1490	 4.3700
 5.1540	 4.3750
 5.1600	 4.3870
 5.1650	 4.4730
 5.1700	 4.4440
 5.1750	 4.4140
 5.1800	 4.4220
 5.1850	 4.4530
 5.1910	 4.4550
 5.1960	 4.4250
 5.2010	 4.4180
 5.2060	 4.4450
 5.2110	 4.4190
 5.2170	 4.4410
 5.2220	 4.4880
 5.2270	 4.4910
 5.2320	 4.4320
 5.2380	 4.4390
 5.2430	 4.4010
 5.2480	 4.3980
 5.2540	 4.3700
 5.2590	 4.4430
 5.2640	 4.4670
 5.2700	 4.4680
 5.2750	 4.5010
 5.2800	 4.5240
 5.2860	 4.4630
 5.2910	 4.4550
 5.2970	 4.4510
 5.3020	 4.4380
 5.3070	 4.4240
 5.3130	 4.4420
 5.3180	 4.4470
 5.3240	 4.4640
 5.3290	 4.4190
 5.3350	 4.4330
 5.3400	 4.3930
 5.3460	 4.4270
 5.3510	 4.4710
 5.3570	 4.5020
 5.3620	 4.4400
 5.3680	 4.4260
 5.3730	 4.3940
 5.3790	 4.3660
 5.3850	 4.3550
 5.3900	 4.3380
 5.3960	 4.3150
 5.4010	 4.3670
 5.4070	 4.3320
 5.4130	 4.3220
 5.4180	 4.3100
 5.4240	 4.3440
 5.4300	 4.3660
 5.4350	 4.3330
 5.4410	 4.2940
