Name: Ceanothus spinosus 3
Type: vegetation
Class: Shrub
Genus: Ceanothus
Species: spinosus
Sample No.: VH011
Owner: UCSB
Wavelength Range: TIR
Origin: 34.4906; -119.7908; WGS84
Collection Date: 4/1/2013
Description: Samples were collected as part of the HyspIRI Airborne Campaign. 48 individual plants were sampled in three times in 2013 - spring  summer  and fall. The name of the sample includes a 1  2  or 3 which references a different individual of the species. Samples were taken to JPL and processed within 48 hours of collection. The same leaves were processed in the Nicolet and then measured using the ASD.
Measurement: Hemispherical reflectance
First Column: X
Second Column: Y
X Units: Wavelength (micrometers)
Y Units: Reflectance (percentage)
First X Value: 2.501
Last X Value: 15.387
Number of X Values: 1737
Additional Information: vegetation.shrub.ceanothus.spinosus.tir.vh011.ucsb.nicolet.ancillary.txt

 2.5010	 9.1950
 2.5030	 9.0730
 2.5040	 9.1570
 2.5050	 9.1470
 2.5060	 9.1630
 2.5070	 9.1600
 2.5090	 9.1590
 2.5100	 9.1250
 2.5110	 9.0550
 2.5120	 8.9310
 2.5140	 8.9280
 2.5150	 8.9710
 2.5160	 9.1180
 2.5170	 9.2190
 2.5180	 9.1250
 2.5200	 8.9550
 2.5210	 9.0950
 2.5220	 9.0520
 2.5230	 9.0210
 2.5250	 9.0780
 2.5260	 9.0720
 2.5270	 8.9450
 2.5280	 9.0800
 2.5290	 9.1480
 2.5310	 9.1460
 2.5320	 8.9820
 2.5330	 9.0010
 2.5340	 9.0340
 2.5360	 9.0220
 2.5370	 9.0710
 2.5380	 9.1090
 2.5390	 9.0490
 2.5410	 9.1470
 2.5420	 9.2310
 2.5430	 9.1930
 2.5440	 9.0780
 2.5460	 9.0620
 2.5470	 9.0900
 2.5480	 9.1900
 2.5490	 9.2050
 2.5510	 9.2040
 2.5520	 9.0790
 2.5530	 9.0150
 2.5540	 9.0740
 2.5560	 9.1420
 2.5570	 9.1180
 2.5580	 9.1150
 2.5590	 9.1370
 2.5610	 9.2170
 2.5620	 9.1890
 2.5630	 9.1680
 2.5640	 9.1240
 2.5660	 9.1630
 2.5670	 9.1190
 2.5680	 9.1250
 2.5700	 9.1600
 2.5710	 9.2490
 2.5720	 9.1670
 2.5730	 9.2500
 2.5750	 9.2250
 2.5760	 9.2320
 2.5770	 9.2020
 2.5790	 9.1230
 2.5800	 9.1770
 2.5810	 9.2130
 2.5820	 9.1610
 2.5840	 9.2010
 2.5850	 9.1500
 2.5860	 9.2490
 2.5880	 9.2960
 2.5890	 9.1510
 2.5900	 9.0030
 2.5910	 9.0490
 2.5930	 9.0790
 2.5940	 9.1800
 2.5950	 9.2640
 2.5970	 9.3150
 2.5980	 9.1220
 2.5990	 9.0210
 2.6000	 9.0040
 2.6020	 9.0300
 2.6030	 8.8860
 2.6040	 8.9200
 2.6060	 8.9600
 2.6070	 8.9160
 2.6080	 8.9530
 2.6100	 9.0600
 2.6110	 9.0050
 2.6120	 8.8820
 2.6140	 8.8360
 2.6150	 8.9530
 2.6160	 8.9650
 2.6180	 8.8970
 2.6190	 8.7920
 2.6200	 8.8190
 2.6220	 8.8420
 2.6230	 8.8940
 2.6240	 8.8750
 2.6260	 8.8290
 2.6270	 8.7540
 2.6280	 8.7580
 2.6300	 8.8010
 2.6310	 8.8390
 2.6320	 8.8210
 2.6340	 8.8520
 2.6350	 8.7290
 2.6360	 8.6920
 2.6380	 8.6210
 2.6390	 8.6770
 2.6400	 8.6730
 2.6420	 8.6360
 2.6430	 8.5640
 2.6440	 8.4950
 2.6460	 8.5110
 2.6470	 8.6540
 2.6480	 8.6440
 2.6500	 8.5960
 2.6510	 8.6410
 2.6520	 8.6970
 2.6540	 8.5870
 2.6550	 8.6510
 2.6560	 8.6910
 2.6580	 8.7050
 2.6590	 8.6400
 2.6610	 8.6560
 2.6620	 8.6780
 2.6630	 8.7170
 2.6650	 8.7560
 2.6660	 8.7350
 2.6670	 8.5960
 2.6690	 8.5800
 2.6700	 8.6650
 2.6720	 8.7060
 2.6730	 8.6390
 2.6740	 8.7420
 2.6760	 8.7210
 2.6770	 8.7230
 2.6780	 8.6610
 2.6800	 8.5990
 2.6810	 8.7250
 2.6830	 8.9080
 2.6840	 8.8660
 2.6850	 8.8190
 2.6870	 8.8030
 2.6880	 8.8850
 2.6900	 8.7730
 2.6910	 8.7250
 2.6920	 8.6840
 2.6940	 8.7860
 2.6950	 8.8510
 2.6970	 8.9010
 2.6980	 8.8900
 2.6990	 8.9210
 2.7010	 8.8220
 2.7020	 8.7780
 2.7040	 8.8060
 2.7050	 8.8640
 2.7060	 8.8430
 2.7080	 8.9330
 2.7090	 8.9760
 2.7110	 9.0120
 2.7120	 8.9700
 2.7130	 9.0500
 2.7150	 9.1440
 2.7160	 9.1380
 2.7180	 9.0470
 2.7190	 9.0590
 2.7210	 9.0750
 2.7220	 9.1910
 2.7230	 9.2660
 2.7250	 9.3530
 2.7260	 9.2320
 2.7280	 9.2390
 2.7290	 9.2610
 2.7310	 9.3200
 2.7320	 9.2870
 2.7330	 9.3520
 2.7350	 9.4280
 2.7360	 9.4900
 2.7380	 9.4150
 2.7390	 9.4480
 2.7410	 9.4660
 2.7420	 9.5670
 2.7440	 9.6130
 2.7450	 9.6160
 2.7470	 9.5650
 2.7480	 9.6300
 2.7490	 9.6150
 2.7510	 9.7620
 2.7520	 9.7910
 2.7540	 9.7160
 2.7550	 9.7920
 2.7570	 9.8250
 2.7580	 9.7560
 2.7600	 9.7770
 2.7610	 9.6770
 2.7630	 9.7220
 2.7640	 9.7520
 2.7660	 9.8410
 2.7670	 9.8120
 2.7680	 9.8340
 2.7700	 9.8320
 2.7710	 9.9210
 2.7730	 9.9280
 2.7740	 9.9950
 2.7760	 9.8990
 2.7770	 9.8400
 2.7790	 9.9090
 2.7800	10.0390
 2.7820	 9.9580
 2.7830	 9.8620
 2.7850	 9.8530
 2.7860	 9.8470
 2.7880	 9.8920
 2.7890	10.0340
 2.7910	10.0050
 2.7920	10.0190
 2.7940	 9.9220
 2.7950	 9.9900
 2.7970	 9.9680
 2.7980	 9.9220
 2.8000	 9.7880
 2.8010	 9.8090
 2.8030	 9.9290
 2.8040	10.0970
 2.8060	10.0040
 2.8070	 9.9130
 2.8090	 9.8520
 2.8110	 9.8410
 2.8120	 9.8810
 2.8140	10.0490
 2.8150	10.0980
 2.8170	10.0840
 2.8180	10.0550
 2.8200	10.1340
 2.8210	10.0300
 2.8230	10.0070
 2.8240	10.0580
 2.8260	10.0620
 2.8270	10.0410
 2.8290	10.0780
 2.8300	10.0650
 2.8320	10.0080
 2.8340	 9.9050
 2.8350	 9.9810
 2.8370	 9.9830
 2.8380	10.0090
 2.8400	10.0590
 2.8410	10.1470
 2.8430	 9.9590
 2.8440	 9.8690
 2.8460	 9.8570
 2.8480	 9.9340
 2.8490	 9.8740
 2.8510	 9.8580
 2.8520	 9.8480
 2.8540	 9.9350
 2.8550	 9.8690
 2.8570	 9.9440
 2.8590	10.0090
 2.8600	10.1110
 2.8620	 9.9400
 2.8630	 9.8730
 2.8650	 9.9440
 2.8660	10.0300
 2.8680	 9.9990
 2.8700	 9.9750
 2.8710	 9.8970
 2.8730	 9.7950
 2.8740	 9.8440
 2.8760	10.0540
 2.8780	10.0310
 2.8790	 9.9800
 2.8810	 9.8570
 2.8820	 9.9150
 2.8840	 9.8850
 2.8860	 9.8770
 2.8870	 9.7510
 2.8890	 9.6770
 2.8900	 9.7470
 2.8920	 9.9420
 2.8940	 9.9330
 2.8950	 9.8690
 2.8970	 9.8190
 2.8980	 9.7610
 2.9000	 9.7190
 2.9020	 9.7450
 2.9030	 9.6710
 2.9050	 9.7580
 2.9070	 9.6660
 2.9080	 9.5170
 2.9100	 9.3840
 2.9120	 9.4640
 2.9130	 9.5680
 2.9150	 9.6260
 2.9160	 9.5750
 2.9180	 9.5480
 2.9200	 9.5070
 2.9210	 9.6000
 2.9230	 9.5620
 2.9250	 9.5670
 2.9260	 9.4330
 2.9280	 9.3350
 2.9300	 9.2370
 2.9310	 9.2790
 2.9330	 9.1990
 2.9350	 9.1800
 2.9360	 9.1270
 2.9380	 9.2230
 2.9400	 9.2280
 2.9410	 9.1850
 2.9430	 8.9990
 2.9450	 9.0630
 2.9460	 9.1240
 2.9480	 9.0580
 2.9500	 8.8880
 2.9510	 9.0140
 2.9530	 9.1620
 2.9550	 9.0830
 2.9560	 8.9360
 2.9580	 8.8460
 2.9600	 8.5980
 2.9610	 8.6090
 2.9630	 8.7930
 2.9650	 9.3010
 2.9660	 9.0850
 2.9680	 8.8910
 2.9700	 8.9410
 2.9720	 8.6280
 2.9730	 8.5420
 2.9750	 8.6540
 2.9770	 8.3440
 2.9780	 8.2010
 2.9800	 8.4850
 2.9820	 8.8130
 2.9840	 9.1790
 2.9850	 9.1180
 2.9870	 8.8330
 2.9890	 8.6480
 2.9900	 8.3600
 2.9920	 8.4230
 2.9940	 8.5210
 2.9960	 8.4780
 2.9970	 8.1830
 2.9990	 7.5090
 3.0010	 7.4320
 3.0030	 7.8460
 3.0040	 8.0000
 3.0060	 8.0880
 3.0080	 8.1190
 3.0100	 8.0590
 3.0110	 7.7490
 3.0130	 7.7230
 3.0150	 8.0030
 3.0170	 8.1600
 3.0180	 8.1770
 3.0200	 8.1210
 3.0220	 7.8200
 3.0240	 7.5320
 3.0250	 7.5140
 3.0270	 7.3770
 3.0290	 7.3640
 3.0310	 7.4160
 3.0320	 7.3270
 3.0340	 7.5670
 3.0360	 7.3010
 3.0380	 7.3380
 3.0400	 7.4940
 3.0410	 7.6260
 3.0430	 7.9110
 3.0450	 8.0300
 3.0470	 7.7270
 3.0480	 7.7420
 3.0500	 8.1040
 3.0520	 8.2740
 3.0540	 8.0540
 3.0560	 7.9290
 3.0570	 7.8750
 3.0590	 7.6240
 3.0610	 7.4020
 3.0630	 7.4360
 3.0650	 7.6730
 3.0660	 7.7630
 3.0680	 7.3760
 3.0700	 7.3730
 3.0720	 7.6100
 3.0740	 7.6080
 3.0760	 7.5170
 3.0770	 7.4690
 3.0790	 7.2840
 3.0810	 7.3830
 3.0830	 7.4920
 3.0850	 7.4520
 3.0870	 7.4230
 3.0880	 7.5710
 3.0900	 7.4990
 3.0920	 7.3790
 3.0940	 7.3850
 3.0960	 7.3580
 3.0980	 7.2790
 3.0990	 7.3450
 3.1010	 7.4880
 3.1030	 7.4040
 3.1050	 7.2080
 3.1070	 7.2260
 3.1090	 7.1880
 3.1110	 7.0790
 3.1120	 7.1220
 3.1140	 7.2400
 3.1160	 7.2090
 3.1180	 7.1290
 3.1200	 7.0400
 3.1220	 7.0490
 3.1240	 7.1520
 3.1260	 7.2670
 3.1270	 7.3060
 3.1290	 7.1770
 3.1310	 6.9760
 3.1330	 7.0330
 3.1350	 7.1370
 3.1370	 7.0010
 3.1390	 6.7770
 3.1410	 6.9900
 3.1430	 7.1000
 3.1450	 6.9100
 3.1460	 6.8840
 3.1480	 7.0400
 3.1500	 6.8770
 3.1520	 6.7380
 3.1540	 6.6030
 3.1560	 6.5620
 3.1580	 6.5670
 3.1600	 6.6900
 3.1620	 6.7560
 3.1640	 6.8950
 3.1660	 6.9600
 3.1680	 7.0610
 3.1700	 6.9330
 3.1710	 6.7250
 3.1730	 6.2210
 3.1750	 6.3950
 3.1770	 7.0030
 3.1790	 7.5640
 3.1810	 7.2710
 3.1830	 6.9240
 3.1850	 6.8250
 3.1870	 6.9890
 3.1890	 7.0130
 3.1910	 6.8140
 3.1930	 6.7150
 3.1950	 6.7430
 3.1970	 6.7660
 3.1990	 6.8860
 3.2010	 6.6840
 3.2030	 6.6340
 3.2050	 6.7220
 3.2070	 6.7890
 3.2090	 6.7410
 3.2110	 6.7310
 3.2130	 6.6890
 3.2150	 6.6890
 3.2170	 6.6590
 3.2190	 6.7100
 3.2210	 6.6690
 3.2230	 6.6440
 3.2250	 6.5660
 3.2270	 6.6530
 3.2290	 6.6450
 3.2310	 6.6560
 3.2330	 6.6220
 3.2350	 6.7010
 3.2370	 6.6200
 3.2390	 6.5570
 3.2410	 6.5670
 3.2430	 6.6160
 3.2450	 6.6460
 3.2470	 6.7330
 3.2490	 6.7520
 3.2510	 6.7470
 3.2530	 6.6400
 3.2550	 6.5590
 3.2570	 6.4820
 3.2590	 6.5170
 3.2610	 6.4660
 3.2630	 6.4670
 3.2650	 6.4960
 3.2670	 6.5140
 3.2690	 6.4700
 3.2720	 6.4940
 3.2740	 6.4980
 3.2760	 6.5260
 3.2780	 6.5340
 3.2800	 6.5230
 3.2820	 6.4500
 3.2840	 6.4900
 3.2860	 6.5020
 3.2880	 6.5300
 3.2900	 6.4580
 3.2920	 6.4180
 3.2940	 6.4350
 3.2960	 6.4730
 3.2990	 6.3780
 3.3010	 6.3750
 3.3030	 6.3420
 3.3050	 6.3410
 3.3070	 6.2840
 3.3090	 6.2410
 3.3110	 6.1840
 3.3130	 6.2340
 3.3150	 6.2050
 3.3180	 6.2230
 3.3200	 6.2800
 3.3220	 6.3040
 3.3240	 6.1930
 3.3260	 6.2310
 3.3280	 6.2520
 3.3300	 6.2550
 3.3330	 6.1730
 3.3350	 6.1690
 3.3370	 6.1600
 3.3390	 6.1610
 3.3410	 6.1330
 3.3430	 6.1470
 3.3450	 6.0370
 3.3480	 5.9210
 3.3500	 5.8050
 3.3520	 5.9200
 3.3540	 5.9840
 3.3560	 5.9100
 3.3580	 5.8020
 3.3610	 5.8950
 3.3630	 5.9270
 3.3650	 5.8830
 3.3670	 5.8470
 3.3690	 5.8740
 3.3720	 5.8710
 3.3740	 5.9210
 3.3760	 5.8650
 3.3780	 5.8780
 3.3800	 5.9290
 3.3830	 6.0190
 3.3850	 6.0100
 3.3870	 5.9680
 3.3890	 5.9620
 3.3910	 6.0040
 3.3940	 5.9570
 3.3960	 5.9810
 3.3980	 6.0410
 3.4000	 6.1680
 3.4020	 6.2910
 3.4050	 6.5470
 3.4070	 6.8830
 3.4090	 7.3540
 3.4110	 7.8360
 3.4140	 8.3740
 3.4160	 8.8870
 3.4180	 9.6530
 3.4200	10.5250
 3.4230	11.5980
 3.4250	12.8810
 3.4270	14.1740
 3.4290	14.7950
 3.4320	14.1990
 3.4340	12.7470
 3.4360	11.5770
 3.4390	10.8650
 3.4410	10.4610
 3.4430	10.2040
 3.4450	10.1020
 3.4480	 9.9590
 3.4500	 9.8240
 3.4520	 9.7190
 3.4550	 9.5490
 3.4570	 9.3750
 3.4590	 9.3380
 3.4620	 9.2780
 3.4640	 9.1730
 3.4660	 8.9930
 3.4680	 8.8570
 3.4710	 8.7290
 3.4730	 8.5630
 3.4750	 8.3490
 3.4780	 8.2780
 3.4800	 8.1860
 3.4820	 8.1080
 3.4850	 7.9580
 3.4870	 7.8790
 3.4890	 7.7720
 3.4920	 7.8150
 3.4940	 7.9160
 3.4970	 8.1400
 3.4990	 8.4020
 3.5010	 8.8530
 3.5040	 9.5390
 3.5060	10.6850
 3.5080	12.3420
 3.5110	13.7310
 3.5130	13.4080
 3.5160	12.1100
 3.5180	11.0750
 3.5200	10.5320
 3.5230	10.1740
 3.5250	 9.9420
 3.5270	 9.6810
 3.5300	 9.4380
 3.5320	 9.3250
 3.5350	 9.3060
 3.5370	 9.2080
 3.5400	 9.1510
 3.5420	 9.0030
 3.5440	 8.9110
 3.5470	 8.8180
 3.5490	 8.7660
 3.5520	 8.7070
 3.5540	 8.7380
 3.5570	 8.6890
 3.5590	 8.6720
 3.5610	 8.6480
 3.5640	 8.6230
 3.5660	 8.4420
 3.5690	 8.3930
 3.5710	 8.4100
 3.5740	 8.4160
 3.5760	 8.3850
 3.5790	 8.4380
 3.5810	 8.3460
 3.5840	 8.2830
 3.5860	 8.2210
 3.5890	 8.2150
 3.5910	 8.3890
 3.5930	 8.6250
 3.5960	 8.5770
 3.5980	 8.3970
 3.6010	 8.2010
 3.6030	 8.1440
 3.6060	 8.1500
 3.6080	 8.1900
 3.6110	 8.1770
 3.6140	 8.2240
 3.6160	 8.2080
 3.6190	 8.1710
 3.6210	 8.1390
 3.6240	 8.1200
 3.6260	 8.1000
 3.6290	 8.1800
 3.6310	 8.1260
 3.6340	 8.1000
 3.6360	 8.1180
 3.6390	 8.0570
 3.6410	 8.0240
 3.6440	 8.0930
 3.6470	 8.1280
 3.6490	 8.1300
 3.6520	 8.0670
 3.6540	 8.0670
 3.6570	 8.0780
 3.6590	 8.0680
 3.6620	 8.0210
 3.6650	 8.0610
 3.6670	 8.0260
 3.6700	 8.0440
 3.6720	 8.0380
 3.6750	 8.0400
 3.6780	 8.0300
 3.6800	 8.0620
 3.6830	 8.0790
 3.6850	 8.0390
 3.6880	 7.9950
 3.6910	 8.0270
 3.6930	 7.9630
 3.6960	 7.9230
 3.6990	 7.9830
 3.7010	 7.9940
 3.7040	 7.9340
 3.7060	 7.9540
 3.7090	 7.9940
 3.7120	 8.0090
 3.7140	 7.9710
 3.7170	 7.9430
 3.7200	 7.9730
 3.7220	 8.0020
 3.7250	 7.9310
 3.7280	 7.9970
 3.7300	 8.0530
 3.7330	 8.0710
 3.7360	 7.9690
 3.7390	 7.9410
 3.7410	 8.0000
 3.7440	 7.9890
 3.7470	 7.9480
 3.7490	 7.9780
 3.7520	 7.9180
 3.7550	 7.9450
 3.7580	 7.9610
 3.7600	 7.9950
 3.7630	 8.0060
 3.7660	 8.0100
 3.7680	 7.9520
 3.7710	 7.9310
 3.7740	 7.8860
 3.7770	 7.9280
 3.7790	 7.9410
 3.7820	 7.9480
 3.7850	 7.9270
 3.7880	 7.9330
 3.7900	 7.9610
 3.7930	 7.9710
 3.7960	 7.9400
 3.7990	 7.9670
 3.8020	 7.9580
 3.8040	 7.9540
 3.8070	 7.9250
 3.8100	 7.9810
 3.8130	 8.0310
 3.8160	 8.0340
 3.8180	 8.0130
 3.8210	 8.0110
 3.8240	 7.9300
 3.8270	 7.9140
 3.8300	 7.9550
 3.8330	 7.9940
 3.8350	 7.9610
 3.8380	 7.9860
 3.8410	 7.9820
 3.8440	 8.0070
 3.8470	 8.0260
 3.8500	 8.0850
 3.8520	 8.0610
 3.8550	 8.0350
 3.8580	 7.9980
 3.8610	 8.0370
 3.8640	 8.0910
 3.8670	 8.1240
 3.8700	 8.0720
 3.8730	 8.0420
 3.8750	 8.0230
 3.8780	 8.0210
 3.8810	 8.0130
 3.8840	 8.0250
 3.8870	 8.0390
 3.8900	 8.0720
 3.8930	 7.9990
 3.8960	 7.9300
 3.8990	 7.9270
 3.9020	 7.9810
 3.9050	 7.9940
 3.9080	 7.9500
 3.9110	 7.9800
 3.9140	 8.0500
 3.9160	 8.0450
 3.9190	 8.0100
 3.9220	 7.9750
 3.9250	 7.9850
 3.9280	 8.0070
 3.9310	 7.9970
 3.9340	 7.9310
 3.9370	 8.0460
 3.9400	 8.0500
 3.9430	 7.9760
 3.9460	 7.9300
 3.9490	 7.9530
 3.9520	 7.9890
 3.9550	 8.0420
 3.9580	 8.0390
 3.9610	 8.0280
 3.9640	 7.9880
 3.9670	 8.0210
 3.9700	 8.0430
 3.9730	 8.0620
 3.9770	 8.1120
 3.9800	 8.1110
 3.9830	 8.0320
 3.9860	 8.0340
 3.9890	 8.0310
 3.9920	 8.0490
 3.9950	 8.0140
 3.9980	 8.0320
 4.0010	 8.0430
 4.0040	 8.0450
 4.0070	 8.0200
 4.0100	 8.0920
 4.0130	 8.1270
 4.0170	 8.1290
 4.0200	 8.0660
 4.0230	 8.0150
 4.0260	 8.0210
 4.0290	 8.0720
 4.0320	 8.0440
 4.0350	 8.0320
 4.0380	 8.0510
 4.0420	 8.0920
 4.0450	 8.1160
 4.0480	 8.1310
 4.0510	 8.1130
 4.0540	 8.1160
 4.0570	 8.0900
 4.0610	 8.0900
 4.0640	 8.0520
 4.0670	 8.0360
 4.0700	 8.0360
 4.0730	 8.0090
 4.0770	 8.0000
 4.0800	 8.0320
 4.0830	 7.9980
 4.0860	 7.9380
 4.0890	 7.9680
 4.0930	 8.0560
 4.0960	 8.0810
 4.0990	 8.0780
 4.1020	 8.0850
 4.1060	 8.0700
 4.1090	 8.0230
 4.1120	 8.0400
 4.1150	 8.0490
 4.1190	 8.0790
 4.1220	 8.0330
 4.1250	 8.0130
 4.1280	 8.0530
 4.1320	 8.1110
 4.1350	 8.0880
 4.1380	 8.0720
 4.1420	 8.0400
 4.1450	 8.0130
 4.1480	 7.9900
 4.1520	 8.0300
 4.1550	 8.0420
 4.1580	 8.0040
 4.1620	 7.9640
 4.1650	 7.9930
 4.1680	 8.0430
 4.1720	 8.0830
 4.1750	 8.0710
 4.1780	 8.0440
 4.1820	 8.0550
 4.1850	 8.0530
 4.1890	 8.0440
 4.1920	 8.1040
 4.1950	 8.1970
 4.1990	 8.2580
 4.2020	 8.3730
 4.2060	 8.5960
 4.2090	 8.7830
 4.2120	 9.0110
 4.2160	 9.1040
 4.2190	 9.3210
 4.2230	 9.7130
 4.2260	 9.9060
 4.2300	10.0440
 4.2330	10.1310
 4.2360	 9.9640
 4.2400	 9.8990
 4.2430	 9.7820
 4.2470	 9.7520
 4.2500	 9.5720
 4.2540	 9.3230
 4.2570	 9.1980
 4.2610	 9.3510
 4.2640	 9.5490
 4.2680	 9.6230
 4.2710	 9.6100
 4.2750	 9.5620
 4.2780	 9.5030
 4.2820	 9.4540
 4.2850	 9.2300
 4.2890	 9.1980
 4.2930	 9.2210
 4.2960	 9.1980
 4.3000	 9.2370
 4.3030	 9.2460
 4.3070	 9.1710
 4.3100	 9.1240
 4.3140	 8.9050
 4.3180	 8.6570
 4.3210	 8.5920
 4.3250	 8.5720
 4.3280	 8.4930
 4.3320	 8.4400
 4.3360	 8.4150
 4.3390	 8.3630
 4.3430	 8.3220
 4.3470	 8.3400
 4.3500	 8.3100
 4.3540	 8.2520
 4.3570	 8.1720
 4.3610	 8.1390
 4.3650	 8.1250
 4.3680	 8.1260
 4.3720	 8.1120
 4.3760	 8.0480
 4.3800	 7.9760
 4.3830	 7.9540
 4.3870	 7.9520
 4.3910	 8.0430
 4.3940	 8.0570
 4.3980	 8.0240
 4.4020	 7.9810
 4.4060	 8.0120
 4.4090	 8.0370
 4.4130	 7.9870
 4.4170	 7.9830
 4.4210	 7.9370
 4.4240	 7.9140
 4.4280	 7.9680
 4.4320	 7.9460
 4.4360	 7.8820
 4.4400	 7.8820
 4.4430	 7.9110
 4.4470	 7.9000
 4.4510	 7.9060
 4.4550	 7.9090
 4.4590	 7.8860
 4.4620	 7.9170
 4.4660	 7.9720
 4.4700	 7.9360
 4.4740	 7.9440
 4.4780	 7.9790
 4.4820	 7.9200
 4.4860	 7.8740
 4.4900	 7.8990
 4.4930	 7.9260
 4.4970	 7.8760
 4.5010	 7.8420
 4.5050	 7.8920
 4.5090	 7.8980
 4.5130	 7.8750
 4.5170	 7.8750
 4.5210	 7.9080
 4.5250	 7.9390
 4.5290	 7.9150
 4.5330	 7.8660
 4.5370	 7.8460
 4.5410	 7.8560
 4.5450	 7.8490
 4.5490	 7.8730
 4.5530	 7.8890
 4.5570	 7.8340
 4.5610	 7.8130
 4.5650	 7.8640
 4.5690	 7.9180
 4.5730	 7.9360
 4.5770	 7.8860
 4.5810	 7.8140
 4.5850	 7.7560
 4.5890	 7.7660
 4.5930	 7.8030
 4.5970	 7.8550
 4.6010	 7.8880
 4.6050	 7.8580
 4.6090	 7.7660
 4.6130	 7.7880
 4.6170	 7.7990
 4.6220	 7.7770
 4.6260	 7.8020
 4.6300	 7.8350
 4.6340	 7.8250
 4.6380	 7.7960
 4.6420	 7.7890
 4.6460	 7.7660
 4.6510	 7.7010
 4.6550	 7.6850
 4.6590	 7.7410
 4.6630	 7.7810
 4.6670	 7.7620
 4.6720	 7.7530
 4.6760	 7.7570
 4.6800	 7.7300
 4.6840	 7.7410
 4.6880	 7.7640
 4.6930	 7.7440
 4.6970	 7.7780
 4.7010	 7.7680
 4.7050	 7.7560
 4.7100	 7.7920
 4.7140	 7.7610
 4.7180	 7.7370
 4.7230	 7.7440
 4.7270	 7.7590
 4.7310	 7.7700
 4.7360	 7.7850
 4.7400	 7.7820
 4.7440	 7.7280
 4.7490	 7.7460
 4.7530	 7.7590
 4.7570	 7.7340
 4.7620	 7.7150
 4.7660	 7.7320
 4.7700	 7.7590
 4.7750	 7.8300
 4.7790	 7.8060
 4.7840	 7.7840
 4.7880	 7.7910
 4.7920	 7.7870
 4.7970	 7.7100
 4.8010	 7.6500
 4.8060	 7.6260
 4.8100	 7.6300
 4.8150	 7.6840
 4.8190	 7.6920
 4.8240	 7.6940
 4.8280	 7.7040
 4.8330	 7.6570
 4.8370	 7.6290
 4.8420	 7.7050
 4.8460	 7.7150
 4.8510	 7.6680
 4.8550	 7.7000
 4.8600	 7.7470
 4.8640	 7.7430
 4.8690	 7.7250
 4.8730	 7.7200
 4.8780	 7.7330
 4.8830	 7.7300
 4.8870	 7.6810
 4.8920	 7.6820
 4.8960	 7.6880
 4.9010	 7.6590
 4.9060	 7.6460
 4.9100	 7.6610
 4.9150	 7.6680
 4.9200	 7.6850
 4.9240	 7.6790
 4.9290	 7.7180
 4.9340	 7.7500
 4.9380	 7.7430
 4.9430	 7.7200
 4.9480	 7.6750
 4.9530	 7.6370
 4.9570	 7.6580
 4.9620	 7.6030
 4.9670	 7.6550
 4.9720	 7.7490
 4.9760	 7.6980
 4.9810	 7.6810
 4.9860	 7.6690
 4.9910	 7.6490
 4.9960	 7.6940
 5.0000	 7.6770
 5.0050	 7.6850
 5.0100	 7.7030
 5.0150	 7.6960
 5.0200	 7.6720
 5.0250	 7.6930
 5.0290	 7.7270
 5.0340	 7.7460
 5.0390	 7.7450
 5.0440	 7.7530
 5.0490	 7.7080
 5.0540	 7.6570
 5.0590	 7.6270
 5.0640	 7.6460
 5.0690	 7.6250
 5.0740	 7.6630
 5.0790	 7.6940
 5.0840	 7.6830
 5.0890	 7.6200
 5.0940	 7.6300
 5.0990	 7.6600
 5.1040	 7.6290
 5.1090	 7.5970
 5.1140	 7.6240
 5.1190	 7.6430
 5.1240	 7.7000
 5.1290	 7.6940
 5.1340	 7.6680
 5.1390	 7.6630
 5.1440	 7.6810
 5.1490	 7.6060
 5.1540	 7.5350
 5.1600	 7.5510
 5.1650	 7.6400
 5.1700	 7.6830
 5.1750	 7.7240
 5.1800	 7.7000
 5.1850	 7.6610
 5.1910	 7.6640
 5.1960	 7.6460
 5.2010	 7.5540
 5.2060	 7.5430
 5.2110	 7.5630
 5.2170	 7.6140
 5.2220	 7.5710
 5.2270	 7.5340
 5.2320	 7.5330
 5.2380	 7.5710
 5.2430	 7.5750
 5.2480	 7.6110
 5.2540	 7.5680
 5.2590	 7.5490
 5.2640	 7.5210
 5.2700	 7.5600
 5.2750	 7.5840
 5.2800	 7.5620
 5.2860	 7.5260
 5.2910	 7.5540
 5.2970	 7.5720
 5.3020	 7.5940
 5.3070	 7.5350
 5.3130	 7.5150
 5.3180	 7.4800
 5.3240	 7.4420
 5.3290	 7.4840
 5.3350	 7.5490
 5.3400	 7.5110
 5.3460	 7.4930
 5.3510	 7.4680
 5.3570	 7.4990
 5.3620	 7.4650
 5.3680	 7.4310
 5.3730	 7.4110
 5.3790	 7.4450
 5.3850	 7.4300
 5.3900	 7.4140
 5.3960	 7.3560
 5.4010	 7.3940
 5.4070	 7.4030
 5.4130	 7.4200
 5.4180	 7.3980
 5.4240	 7.3760
 5.4300	 7.3120
 5.4350	 7.3110
