Name: Adenostoma fasciculatum 3
Type: vegetation
Class: Shrub
Genus: Adenostoma
Species: fasciculatum
Sample No.: VH115
Owner: UCSB
Wavelength Range: VSWIR
Origin: 34.5084; -119.7686; WGS84
Collection Date: 6/3/2013
Description: Samples were collected as part of the HyspIRI Airborne Campaign. 48 individual plants were sampled in three times in 2013 - spring  summer  and fall. The name of the sample includes a 1  2  or 3 which references a different individual of the species. Samples were taken to JPL and processed within 48 hours of collection. The same leaves were processed in the Nicolet and then measured using the ASD.
Measurement: Bidirectional reflectance
First Column: X
Second Column: Y
X Units: Wavelength (micrometers)
Y Units: Reflectance (percentage)
First X Value: 0.35
Last X Value: 2.5
Number of X Values: 2151
Additional Information: vegetation.shrub.adenostoma.fasciculatum.vswir.vh115.ucsb.asd.ancillary.txt

 0.3500	 1.3640
 0.3510	 1.4040
 0.3520	 1.3420
 0.3530	 1.2750
 0.3540	 1.3070
 0.3550	 1.4360
 0.3560	 1.4310
 0.3570	 1.3060
 0.3580	 1.2090
 0.3590	 1.1700
 0.3600	 1.1530
 0.3610	 1.1370
 0.3620	 1.1330
 0.3630	 1.1930
 0.3640	 1.2690
 0.3650	 1.2930
 0.3660	 1.2220
 0.3670	 1.2270
 0.3680	 1.2860
 0.3690	 1.2510
 0.3700	 1.2730
 0.3710	 1.2330
 0.3720	 1.1040
 0.3730	 1.0930
 0.3740	 1.2010
 0.3750	 1.2790
 0.3760	 1.1980
 0.3770	 1.1870
 0.3780	 1.1990
 0.3790	 1.2230
 0.3800	 1.2790
 0.3810	 1.2700
 0.3820	 1.2500
 0.3830	 1.2500
 0.3840	 1.1900
 0.3850	 1.1740
 0.3860	 1.2110
 0.3870	 1.2590
 0.3880	 1.2270
 0.3890	 1.2030
 0.3900	 1.2280
 0.3910	 1.2790
 0.3920	 1.2670
 0.3930	 1.2450
 0.3940	 1.2670
 0.3950	 1.2990
 0.3960	 1.2940
 0.3970	 1.2650
 0.3980	 1.2530
 0.3990	 1.2780
 0.4000	 1.2750
 0.4010	 1.2380
 0.4020	 1.2400
 0.4030	 1.2910
 0.4040	 1.3220
 0.4050	 1.2910
 0.4060	 1.3050
 0.4070	 1.3230
 0.4080	 1.3330
 0.4090	 1.3480
 0.4100	 1.3450
 0.4110	 1.3470
 0.4120	 1.3680
 0.4130	 1.3980
 0.4140	 1.3900
 0.4150	 1.3730
 0.4160	 1.3860
 0.4170	 1.3910
 0.4180	 1.4060
 0.4190	 1.4340
 0.4200	 1.4610
 0.4210	 1.4680
 0.4220	 1.4620
 0.4230	 1.4590
 0.4240	 1.4620
 0.4250	 1.4760
 0.4260	 1.4990
 0.4270	 1.5210
 0.4280	 1.5340
 0.4290	 1.5410
 0.4300	 1.5480
 0.4310	 1.5620
 0.4320	 1.5690
 0.4330	 1.5770
 0.4340	 1.5930
 0.4350	 1.6150
 0.4360	 1.6180
 0.4370	 1.6070
 0.4380	 1.6120
 0.4390	 1.6220
 0.4400	 1.6330
 0.4410	 1.6420
 0.4420	 1.6560
 0.4430	 1.6570
 0.4440	 1.6520
 0.4450	 1.6560
 0.4460	 1.6690
 0.4470	 1.6830
 0.4480	 1.6970
 0.4490	 1.7150
 0.4500	 1.7190
 0.4510	 1.7180
 0.4520	 1.7210
 0.4530	 1.7260
 0.4540	 1.7350
 0.4550	 1.7480
 0.4560	 1.7660
 0.4570	 1.7710
 0.4580	 1.7730
 0.4590	 1.7810
 0.4600	 1.7860
 0.4610	 1.7930
 0.4620	 1.7950
 0.4630	 1.7880
 0.4640	 1.8020
 0.4650	 1.8210
 0.4660	 1.8270
 0.4670	 1.8020
 0.4680	 1.8050
 0.4690	 1.8230
 0.4700	 1.8340
 0.4710	 1.8340
 0.4720	 1.8380
 0.4730	 1.8470
 0.4740	 1.8580
 0.4750	 1.8500
 0.4760	 1.8450
 0.4770	 1.8530
 0.4780	 1.8570
 0.4790	 1.8610
 0.4800	 1.8660
 0.4810	 1.8730
 0.4820	 1.8890
 0.4830	 1.8910
 0.4840	 1.8830
 0.4850	 1.8970
 0.4860	 1.9070
 0.4870	 1.9090
 0.4880	 1.9070
 0.4890	 1.9110
 0.4900	 1.9240
 0.4910	 1.9380
 0.4920	 1.9450
 0.4930	 1.9590
 0.4940	 1.9680
 0.4950	 1.9720
 0.4960	 1.9900
 0.4970	 2.0090
 0.4980	 2.0260
 0.4990	 2.0420
 0.5000	 2.0640
 0.5010	 2.0810
 0.5020	 2.0980
 0.5030	 2.1250
 0.5040	 2.1550
 0.5050	 2.1870
 0.5060	 2.2220
 0.5070	 2.2620
 0.5080	 2.2990
 0.5090	 2.3360
 0.5100	 2.3790
 0.5110	 2.4250
 0.5120	 2.4770
 0.5130	 2.5350
 0.5140	 2.5960
 0.5150	 2.6600
 0.5160	 2.7270
 0.5170	 2.7950
 0.5180	 2.8690
 0.5190	 2.9400
 0.5200	 3.0100
 0.5210	 3.0910
 0.5220	 3.1710
 0.5230	 3.2490
 0.5240	 3.3260
 0.5250	 3.4080
 0.5260	 3.4770
 0.5270	 3.5410
 0.5280	 3.6140
 0.5290	 3.6850
 0.5300	 3.7450
 0.5310	 3.7960
 0.5320	 3.8540
 0.5330	 3.9050
 0.5340	 3.9500
 0.5350	 3.9920
 0.5360	 4.0310
 0.5370	 4.0680
 0.5380	 4.1050
 0.5390	 4.1410
 0.5400	 4.1710
 0.5410	 4.2030
 0.5420	 4.2400
 0.5430	 4.2690
 0.5440	 4.3000
 0.5450	 4.3290
 0.5460	 4.3510
 0.5470	 4.3640
 0.5480	 4.3710
 0.5490	 4.3790
 0.5500	 4.4000
 0.5510	 4.4170
 0.5520	 4.4260
 0.5530	 4.4320
 0.5540	 4.4310
 0.5550	 4.4250
 0.5560	 4.4140
 0.5570	 4.4020
 0.5580	 4.3830
 0.5590	 4.3610
 0.5600	 4.3390
 0.5610	 4.3130
 0.5620	 4.2860
 0.5630	 4.2560
 0.5640	 4.2250
 0.5650	 4.1910
 0.5660	 4.1570
 0.5670	 4.1190
 0.5680	 4.0730
 0.5690	 4.0290
 0.5700	 3.9850
 0.5710	 3.9420
 0.5720	 3.8990
 0.5730	 3.8540
 0.5740	 3.8090
 0.5750	 3.7680
 0.5760	 3.7320
 0.5770	 3.6980
 0.5780	 3.6660
 0.5790	 3.6450
 0.5800	 3.6220
 0.5810	 3.5970
 0.5820	 3.5700
 0.5830	 3.5460
 0.5840	 3.5230
 0.5850	 3.5030
 0.5860	 3.4840
 0.5870	 3.4730
 0.5880	 3.4600
 0.5890	 3.4400
 0.5900	 3.4220
 0.5910	 3.4060
 0.5920	 3.3940
 0.5930	 3.3840
 0.5940	 3.3820
 0.5950	 3.3810
 0.5960	 3.3760
 0.5970	 3.3710
 0.5980	 3.3700
 0.5990	 3.3690
 0.6000	 3.3630
 0.6010	 3.3550
 0.6020	 3.3470
 0.6030	 3.3390
 0.6040	 3.3290
 0.6050	 3.3110
 0.6060	 3.2910
 0.6070	 3.2750
 0.6080	 3.2600
 0.6090	 3.2440
 0.6100	 3.2310
 0.6110	 3.2220
 0.6120	 3.1980
 0.6130	 3.1680
 0.6140	 3.1400
 0.6150	 3.1170
 0.6160	 3.0930
 0.6170	 3.0700
 0.6180	 3.0520
 0.6190	 3.0420
 0.6200	 3.0290
 0.6210	 3.0140
 0.6220	 3.0050
 0.6230	 2.9980
 0.6240	 2.9930
 0.6250	 2.9890
 0.6260	 2.9840
 0.6270	 2.9830
 0.6280	 2.9830
 0.6290	 2.9820
 0.6300	 2.9870
 0.6310	 2.9890
 0.6320	 2.9860
 0.6330	 2.9840
 0.6340	 2.9780
 0.6350	 2.9700
 0.6360	 2.9620
 0.6370	 2.9460
 0.6380	 2.9250
 0.6390	 2.9040
 0.6400	 2.8890
 0.6410	 2.8660
 0.6420	 2.8410
 0.6430	 2.8180
 0.6440	 2.7940
 0.6450	 2.7700
 0.6460	 2.7450
 0.6470	 2.7190
 0.6480	 2.6930
 0.6490	 2.6720
 0.6500	 2.6580
 0.6510	 2.6480
 0.6520	 2.6360
 0.6530	 2.6220
 0.6540	 2.6080
 0.6550	 2.5940
 0.6560	 2.5810
 0.6570	 2.5650
 0.6580	 2.5430
 0.6590	 2.5240
 0.6600	 2.5020
 0.6610	 2.4790
 0.6620	 2.4600
 0.6630	 2.4390
 0.6640	 2.4170
 0.6650	 2.3980
 0.6660	 2.3830
 0.6670	 2.3690
 0.6680	 2.3570
 0.6690	 2.3480
 0.6700	 2.3420
 0.6710	 2.3380
 0.6720	 2.3360
 0.6730	 2.3400
 0.6740	 2.3460
 0.6750	 2.3520
 0.6760	 2.3580
 0.6770	 2.3650
 0.6780	 2.3760
 0.6790	 2.3930
 0.6800	 2.4130
 0.6810	 2.4320
 0.6820	 2.4560
 0.6830	 2.4880
 0.6840	 2.5250
 0.6850	 2.5720
 0.6860	 2.6250
 0.6870	 2.6830
 0.6880	 2.7600
 0.6890	 2.8490
 0.6900	 2.9530
 0.6910	 3.0800
 0.6920	 3.2280
 0.6930	 3.3960
 0.6940	 3.5880
 0.6950	 3.8070
 0.6960	 4.0510
 0.6970	 4.3190
 0.6980	 4.6080
 0.6990	 4.9180
 0.7000	 5.2540
 0.7010	 5.6110
 0.7020	 5.9750
 0.7030	 6.3540
 0.7040	 6.7460
 0.7050	 7.1490
 0.7060	 7.5590
 0.7070	 7.9800
 0.7080	 8.4100
 0.7090	 8.8490
 0.7100	 9.2940
 0.7110	 9.7490
 0.7120	10.2150
 0.7130	10.6940
 0.7140	11.1760
 0.7150	11.6640
 0.7160	12.1610
 0.7170	12.6660
 0.7180	13.1810
 0.7190	13.7010
 0.7200	14.2240
 0.7210	14.7480
 0.7220	15.2750
 0.7230	15.8030
 0.7240	16.3260
 0.7250	16.8420
 0.7260	17.3520
 0.7270	17.8540
 0.7280	18.3410
 0.7290	18.8160
 0.7300	19.2800
 0.7310	19.7290
 0.7320	20.1640
 0.7330	20.5810
 0.7340	20.9810
 0.7350	21.3670
 0.7360	21.7370
 0.7370	22.0900
 0.7380	22.4240
 0.7390	22.7410
 0.7400	23.0380
 0.7410	23.3180
 0.7420	23.5850
 0.7430	23.8330
 0.7440	24.0700
 0.7450	24.2960
 0.7460	24.5020
 0.7470	24.6930
 0.7480	24.8720
 0.7490	25.0400
 0.7500	25.1950
 0.7510	25.3400
 0.7520	25.4740
 0.7530	25.5960
 0.7540	25.7120
 0.7550	25.8220
 0.7560	25.9250
 0.7570	26.0150
 0.7580	26.1040
 0.7590	26.1870
 0.7600	26.2630
 0.7610	26.3320
 0.7620	26.4000
 0.7630	26.4650
 0.7640	26.5230
 0.7650	26.5780
 0.7660	26.6310
 0.7670	26.6840
 0.7680	26.7350
 0.7690	26.7790
 0.7700	26.8240
 0.7710	26.8730
 0.7720	26.9140
 0.7730	26.9540
 0.7740	26.9930
 0.7750	27.0320
 0.7760	27.0710
 0.7770	27.1090
 0.7780	27.1450
 0.7790	27.1800
 0.7800	27.2170
 0.7810	27.2530
 0.7820	27.2860
 0.7830	27.3200
 0.7840	27.3530
 0.7850	27.3880
 0.7860	27.4230
 0.7870	27.4590
 0.7880	27.4890
 0.7890	27.5160
 0.7900	27.5480
 0.7910	27.5800
 0.7920	27.6110
 0.7930	27.6420
 0.7940	27.6720
 0.7950	27.7020
 0.7960	27.7330
 0.7970	27.7660
 0.7980	27.7970
 0.7990	27.8260
 0.8000	27.8530
 0.8010	27.8780
 0.8020	27.9010
 0.8030	27.9290
 0.8040	27.9600
 0.8050	27.9840
 0.8060	28.0140
 0.8070	28.0420
 0.8080	28.0660
 0.8090	28.0890
 0.8100	28.1140
 0.8110	28.1420
 0.8120	28.1690
 0.8130	28.1920
 0.8140	28.2140
 0.8150	28.2360
 0.8160	28.2580
 0.8170	28.2830
 0.8180	28.3060
 0.8190	28.3290
 0.8200	28.3550
 0.8210	28.3810
 0.8220	28.4050
 0.8230	28.4270
 0.8240	28.4480
 0.8250	28.4700
 0.8260	28.4900
 0.8270	28.5090
 0.8280	28.5310
 0.8290	28.5490
 0.8300	28.5700
 0.8310	28.5980
 0.8320	28.6140
 0.8330	28.6300
 0.8340	28.6480
 0.8350	28.6690
 0.8360	28.6930
 0.8370	28.7170
 0.8380	28.7400
 0.8390	28.7670
 0.8400	28.7860
 0.8410	28.8070
 0.8420	28.8340
 0.8430	28.8590
 0.8440	28.8830
 0.8450	28.9030
 0.8460	28.9210
 0.8470	28.9540
 0.8480	28.9780
 0.8490	28.9970
 0.8500	29.0200
 0.8510	29.0440
 0.8520	29.0690
 0.8530	29.0950
 0.8540	29.1180
 0.8550	29.1380
 0.8560	29.1600
 0.8570	29.1840
 0.8580	29.2040
 0.8590	29.2250
 0.8600	29.2460
 0.8610	29.2670
 0.8620	29.2950
 0.8630	29.3160
 0.8640	29.3340
 0.8650	29.3570
 0.8660	29.3740
 0.8670	29.3920
 0.8680	29.4150
 0.8690	29.4410
 0.8700	29.4610
 0.8710	29.4790
 0.8720	29.5000
 0.8730	29.5250
 0.8740	29.5440
 0.8750	29.5620
 0.8760	29.5840
 0.8770	29.6050
 0.8780	29.6220
 0.8790	29.6450
 0.8800	29.6710
 0.8810	29.6760
 0.8820	29.6880
 0.8830	29.7070
 0.8840	29.7250
 0.8850	29.7440
 0.8860	29.7680
 0.8870	29.7820
 0.8880	29.7800
 0.8890	29.8060
 0.8900	29.8190
 0.8910	29.8260
 0.8920	29.8440
 0.8930	29.8590
 0.8940	29.8700
 0.8950	29.8820
 0.8960	29.8970
 0.8970	29.9030
 0.8980	29.9140
 0.8990	29.9340
 0.9000	29.9520
 0.9010	29.9640
 0.9020	29.9730
 0.9030	29.9830
 0.9040	29.9910
 0.9050	30.0040
 0.9060	30.0160
 0.9070	30.0250
 0.9080	30.0370
 0.9090	30.0490
 0.9100	30.0590
 0.9110	30.0700
 0.9120	30.0810
 0.9130	30.0980
 0.9140	30.1140
 0.9150	30.1220
 0.9160	30.1240
 0.9170	30.1290
 0.9180	30.1390
 0.9190	30.1550
 0.9200	30.1630
 0.9210	30.1620
 0.9220	30.1580
 0.9230	30.1570
 0.9240	30.1680
 0.9250	30.1720
 0.9260	30.1710
 0.9270	30.1760
 0.9280	30.1730
 0.9290	30.1660
 0.9300	30.1590
 0.9310	30.1520
 0.9320	30.1370
 0.9330	30.1270
 0.9340	30.1220
 0.9350	30.1110
 0.9360	30.0990
 0.9370	30.0840
 0.9380	30.0700
 0.9390	30.0690
 0.9400	30.0530
 0.9410	30.0270
 0.9420	30.0010
 0.9430	29.9800
 0.9440	29.9470
 0.9450	29.9080
 0.9460	29.8710
 0.9470	29.8270
 0.9480	29.7830
 0.9490	29.7380
 0.9500	29.6910
 0.9510	29.6470
 0.9520	29.5830
 0.9530	29.5090
 0.9540	29.4410
 0.9550	29.3760
 0.9560	29.3150
 0.9570	29.2530
 0.9580	29.1890
 0.9590	29.1310
 0.9600	29.0820
 0.9610	29.0390
 0.9620	28.9990
 0.9630	28.9680
 0.9640	28.9290
 0.9650	28.8960
 0.9660	28.8860
 0.9670	28.8650
 0.9680	28.8420
 0.9690	28.8220
 0.9700	28.8100
 0.9710	28.8050
 0.9720	28.8020
 0.9730	28.7960
 0.9740	28.7850
 0.9750	28.7740
 0.9760	28.7820
 0.9770	28.7930
 0.9780	28.7850
 0.9790	28.8000
 0.9800	28.8070
 0.9810	28.8180
 0.9820	28.8560
 0.9830	28.8670
 0.9840	28.8770
 0.9850	28.8930
 0.9860	28.9070
 0.9870	28.9280
 0.9880	28.9550
 0.9890	28.9880
 0.9900	29.0240
 0.9910	29.0440
 0.9920	29.0880
 0.9930	29.1330
 0.9940	29.1780
 0.9950	29.2220
 0.9960	29.2670
 0.9970	29.3110
 0.9980	29.3560
 0.9990	29.4010
 1.0000	29.4450
 1.0010	29.4900
 1.0020	29.5350
 1.0030	29.5790
 1.0040	29.6240
 1.0050	29.6680
 1.0060	29.7130
 1.0070	29.7580
 1.0080	29.8020
 1.0090	29.8470
 1.0100	29.8470
 1.0110	29.8900
 1.0120	29.9340
 1.0130	29.9810
 1.0140	30.0250
 1.0150	30.0670
 1.0160	30.1110
 1.0170	30.1520
 1.0180	30.1930
 1.0190	30.2340
 1.0200	30.2760
 1.0210	30.3180
 1.0220	30.3630
 1.0230	30.4050
 1.0240	30.4460
 1.0250	30.4840
 1.0260	30.5150
 1.0270	30.5530
 1.0280	30.5940
 1.0290	30.6330
 1.0300	30.6760
 1.0310	30.7150
 1.0320	30.7530
 1.0330	30.7860
 1.0340	30.8210
 1.0350	30.8580
 1.0360	30.8930
 1.0370	30.9290
 1.0380	30.9640
 1.0390	31.0010
 1.0400	31.0360
 1.0410	31.0720
 1.0420	31.1060
 1.0430	31.1390
 1.0440	31.1720
 1.0450	31.2060
 1.0460	31.2370
 1.0470	31.2650
 1.0480	31.2940
 1.0490	31.3190
 1.0500	31.3460
 1.0510	31.3750
 1.0520	31.4030
 1.0530	31.4270
 1.0540	31.4500
 1.0550	31.4740
 1.0560	31.4970
 1.0570	31.5210
 1.0580	31.5480
 1.0590	31.5710
 1.0600	31.5930
 1.0610	31.6140
 1.0620	31.6330
 1.0630	31.6520
 1.0640	31.6700
 1.0650	31.6900
 1.0660	31.7100
 1.0670	31.7290
 1.0680	31.7470
 1.0690	31.7660
 1.0700	31.7820
 1.0710	31.7960
 1.0720	31.8100
 1.0730	31.8210
 1.0740	31.8340
 1.0750	31.8450
 1.0760	31.8570
 1.0770	31.8700
 1.0780	31.8810
 1.0790	31.8910
 1.0800	31.8990
 1.0810	31.9030
 1.0820	31.9100
 1.0830	31.9160
 1.0840	31.9220
 1.0850	31.9280
 1.0860	31.9340
 1.0870	31.9380
 1.0880	31.9410
 1.0890	31.9420
 1.0900	31.9420
 1.0910	31.9400
 1.0920	31.9360
 1.0930	31.9340
 1.0940	31.9310
 1.0950	31.9280
 1.0960	31.9250
 1.0970	31.9220
 1.0980	31.9200
 1.0990	31.9150
 1.1000	31.9100
 1.1010	31.9030
 1.1020	31.8940
 1.1030	31.8820
 1.1040	31.8700
 1.1050	31.8600
 1.1060	31.8480
 1.1070	31.8360
 1.1080	31.8240
 1.1090	31.8100
 1.1100	31.7950
 1.1110	31.7780
 1.1120	31.7590
 1.1130	31.7410
 1.1140	31.7170
 1.1150	31.6930
 1.1160	31.6640
 1.1170	31.6320
 1.1180	31.5970
 1.1190	31.5610
 1.1200	31.5220
 1.1210	31.4790
 1.1220	31.4310
 1.1230	31.3780
 1.1240	31.3190
 1.1250	31.2540
 1.1260	31.1850
 1.1270	31.1070
 1.1280	31.0220
 1.1290	30.9310
 1.1300	30.8340
 1.1310	30.7270
 1.1320	30.6130
 1.1330	30.4930
 1.1340	30.3650
 1.1350	30.2300
 1.1360	30.0890
 1.1370	29.9400
 1.1380	29.7850
 1.1390	29.6230
 1.1400	29.4580
 1.1410	29.2910
 1.1420	29.1180
 1.1430	28.9440
 1.1440	28.7700
 1.1450	28.5930
 1.1460	28.4220
 1.1470	28.2500
 1.1480	28.0870
 1.1490	27.9270
 1.1500	27.7760
 1.1510	27.6310
 1.1520	27.4940
 1.1530	27.3640
 1.1540	27.2430
 1.1550	27.1310
 1.1560	27.0250
 1.1570	26.9260
 1.1580	26.8390
 1.1590	26.7580
 1.1600	26.6850
 1.1610	26.6200
 1.1620	26.5610
 1.1630	26.5060
 1.1640	26.4570
 1.1650	26.4120
 1.1660	26.3740
 1.1670	26.3360
 1.1680	26.3030
 1.1690	26.2720
 1.1700	26.2450
 1.1710	26.2160
 1.1720	26.1900
 1.1730	26.1630
 1.1740	26.1370
 1.1750	26.1090
 1.1760	26.0830
 1.1770	26.0570
 1.1780	26.0290
 1.1790	26.0020
 1.1800	25.9750
 1.1810	25.9460
 1.1820	25.9190
 1.1830	25.8920
 1.1840	25.8660
 1.1850	25.8410
 1.1860	25.8190
 1.1870	25.7970
 1.1880	25.7770
 1.1890	25.7580
 1.1900	25.7410
 1.1910	25.7240
 1.1920	25.7110
 1.1930	25.7000
 1.1940	25.6910
 1.1950	25.6850
 1.1960	25.6800
 1.1970	25.6760
 1.1980	25.6750
 1.1990	25.6760
 1.2000	25.6830
 1.2010	25.6940
 1.2020	25.7080
 1.2030	25.7260
 1.2040	25.7460
 1.2050	25.7680
 1.2060	25.7950
 1.2070	25.8240
 1.2080	25.8550
 1.2090	25.8900
 1.2100	25.9270
 1.2110	25.9670
 1.2120	26.0080
 1.2130	26.0530
 1.2140	26.1000
 1.2150	26.1480
 1.2160	26.1990
 1.2170	26.2510
 1.2180	26.3040
 1.2190	26.3580
 1.2200	26.4130
 1.2210	26.4700
 1.2220	26.5270
 1.2230	26.5840
 1.2240	26.6400
 1.2250	26.6940
 1.2260	26.7480
 1.2270	26.8010
 1.2280	26.8530
 1.2290	26.9040
 1.2300	26.9540
 1.2310	27.0030
 1.2320	27.0500
 1.2330	27.0960
 1.2340	27.1400
 1.2350	27.1820
 1.2360	27.2240
 1.2370	27.2640
 1.2380	27.3040
 1.2390	27.3440
 1.2400	27.3840
 1.2410	27.4250
 1.2420	27.4620
 1.2430	27.4990
 1.2440	27.5330
 1.2450	27.5660
 1.2460	27.6000
 1.2470	27.6320
 1.2480	27.6630
 1.2490	27.6950
 1.2500	27.7240
 1.2510	27.7520
 1.2520	27.7800
 1.2530	27.8070
 1.2540	27.8350
 1.2550	27.8620
 1.2560	27.8860
 1.2570	27.9080
 1.2580	27.9290
 1.2590	27.9490
 1.2600	27.9700
 1.2610	27.9890
 1.2620	28.0060
 1.2630	28.0220
 1.2640	28.0380
 1.2650	28.0520
 1.2660	28.0630
 1.2670	28.0740
 1.2680	28.0830
 1.2690	28.0890
 1.2700	28.0940
 1.2710	28.0990
 1.2720	28.1020
 1.2730	28.1030
 1.2740	28.1030
 1.2750	28.1030
 1.2760	28.1010
 1.2770	28.0970
 1.2780	28.0910
 1.2790	28.0830
 1.2800	28.0760
 1.2810	28.0670
 1.2820	28.0560
 1.2830	28.0440
 1.2840	28.0290
 1.2850	28.0110
 1.2860	27.9920
 1.2870	27.9700
 1.2880	27.9450
 1.2890	27.9180
 1.2900	27.8890
 1.2910	27.8580
 1.2920	27.8250
 1.2930	27.7910
 1.2940	27.7540
 1.2950	27.7140
 1.2960	27.6680
 1.2970	27.6200
 1.2980	27.5680
 1.2990	27.5140
 1.3000	27.4600
 1.3010	27.4020
 1.3020	27.3400
 1.3030	27.2750
 1.3040	27.2070
 1.3050	27.1370
 1.3060	27.0640
 1.3070	26.9860
 1.3080	26.9060
 1.3090	26.8190
 1.3100	26.7300
 1.3110	26.6390
 1.3120	26.5430
 1.3130	26.4450
 1.3140	26.3420
 1.3150	26.2330
 1.3160	26.1230
 1.3170	26.0100
 1.3180	25.8950
 1.3190	25.7760
 1.3200	25.6540
 1.3210	25.5260
 1.3220	25.3960
 1.3230	25.2640
 1.3240	25.1290
 1.3250	24.9930
 1.3260	24.8550
 1.3270	24.7160
 1.3280	24.5750
 1.3290	24.4300
 1.3300	24.2850
 1.3310	24.1370
 1.3320	23.9880
 1.3330	23.8400
 1.3340	23.6910
 1.3350	23.5420
 1.3360	23.3940
 1.3370	23.2450
 1.3380	23.0980
 1.3390	22.9520
 1.3400	22.8070
 1.3410	22.6630
 1.3420	22.5220
 1.3430	22.3820
 1.3440	22.2430
 1.3450	22.1070
 1.3460	21.9720
 1.3470	21.8390
 1.3480	21.7080
 1.3490	21.5800
 1.3500	21.4560
 1.3510	21.3340
 1.3520	21.2120
 1.3530	21.0910
 1.3540	20.9710
 1.3550	20.8490
 1.3560	20.7290
 1.3570	20.6100
 1.3580	20.4910
 1.3590	20.3730
 1.3600	20.2510
 1.3610	20.1280
 1.3620	20.0030
 1.3630	19.8750
 1.3640	19.7420
 1.3650	19.6050
 1.3660	19.4650
 1.3670	19.3190
 1.3680	19.1660
 1.3690	19.0060
 1.3700	18.8360
 1.3710	18.6570
 1.3720	18.4690
 1.3730	18.2710
 1.3740	18.0640
 1.3750	17.8440
 1.3760	17.6110
 1.3770	17.3650
 1.3780	17.1020
 1.3790	16.8260
 1.3800	16.5390
 1.3810	16.2370
 1.3820	15.9280
 1.3830	15.6090
 1.3840	15.2820
 1.3850	14.9450
 1.3860	14.6060
 1.3870	14.2570
 1.3880	13.9120
 1.3890	13.5640
 1.3900	13.2140
 1.3910	12.8700
 1.3920	12.5260
 1.3930	12.1860
 1.3940	11.8510
 1.3950	11.5200
 1.3960	11.1990
 1.3970	10.8880
 1.3980	10.5860
 1.3990	10.2980
 1.4000	10.0200
 1.4010	 9.7520
 1.4020	 9.4980
 1.4030	 9.2550
 1.4040	 9.0230
 1.4050	 8.8060
 1.4060	 8.6000
 1.4070	 8.4070
 1.4080	 8.2260
 1.4090	 8.0560
 1.4100	 7.8970
 1.4110	 7.7470
 1.4120	 7.6080
 1.4130	 7.4780
 1.4140	 7.3580
 1.4150	 7.2480
 1.4160	 7.1460
 1.4170	 7.0500
 1.4180	 6.9620
 1.4190	 6.8790
 1.4200	 6.8030
 1.4210	 6.7330
 1.4220	 6.6690
 1.4230	 6.6100
 1.4240	 6.5550
 1.4250	 6.5050
 1.4260	 6.4580
 1.4270	 6.4150
 1.4280	 6.3770
 1.4290	 6.3420
 1.4300	 6.3110
 1.4310	 6.2820
 1.4320	 6.2560
 1.4330	 6.2320
 1.4340	 6.2110
 1.4350	 6.1910
 1.4360	 6.1740
 1.4370	 6.1590
 1.4380	 6.1470
 1.4390	 6.1370
 1.4400	 6.1280
 1.4410	 6.1210
 1.4420	 6.1150
 1.4430	 6.1110
 1.4440	 6.1090
 1.4450	 6.1060
 1.4460	 6.1050
 1.4470	 6.1050
 1.4480	 6.1060
 1.4490	 6.1090
 1.4500	 6.1120
 1.4510	 6.1160
 1.4520	 6.1220
 1.4530	 6.1270
 1.4540	 6.1340
 1.4550	 6.1420
 1.4560	 6.1500
 1.4570	 6.1590
 1.4580	 6.1710
 1.4590	 6.1820
 1.4600	 6.1950
 1.4610	 6.2110
 1.4620	 6.2270
 1.4630	 6.2460
 1.4640	 6.2670
 1.4650	 6.2900
 1.4660	 6.3150
 1.4670	 6.3410
 1.4680	 6.3690
 1.4690	 6.3990
