Name: Puya venusta
Type: vegetation
Class: Shrub
Genus: Puya
Species: venusta
Sample No.: JPL080
Owner: JPL
Wavelength Range: VSWIR
Origin: 34.12562; - 118.1098; WGS84
Collection Date: 2/2/2016
Description: Samples were collected at the Huntington Garden in San Marino California as part of a JPL Subcontract studying HyTES imagery. Samples were taken to JPL and processed within 48 hours of collection. The same leaves were processed in the Nicolet and then measured using the ASD.
Measurement: Bidirectional reflectance
First Column: X
Second Column: Y
X Units: Wavelength (micrometer)
Y Units: Reflectance (percentage)
First X Value: 0.35
Last X Value: 2.5
Number of X Values: 2151
Additional Information: 

 0.3500	 7.3970
 0.3510	 5.8390
 0.3520	 5.8190
 0.3530	 6.5430
 0.3540	 6.9110
 0.3550	 6.8710
 0.3560	 7.4420
 0.3570	 7.8140
 0.3580	 6.6410
 0.3590	 6.5760
 0.3600	 7.2710
 0.3610	 7.9170
 0.3620	 7.3940
 0.3630	 7.2450
 0.3640	 7.5330
 0.3650	 7.8480
 0.3660	 7.5780
 0.3670	 7.7730
 0.3680	 8.0750
 0.3690	 7.3480
 0.3700	 7.2340
 0.3710	 7.7480
 0.3720	 8.5070
 0.3730	 8.9340
 0.3740	 8.9160
 0.3750	 8.6620
 0.3760	 8.4690
 0.3770	 8.4000
 0.3780	 8.4070
 0.3790	 8.4460
 0.3800	 8.4810
 0.3810	 8.3450
 0.3820	 8.0370
 0.3830	 7.8010
 0.3840	 8.3520
 0.3850	 8.9080
 0.3860	 9.0830
 0.3870	 8.8400
 0.3880	 9.2190
 0.3890	 9.1210
 0.3900	 8.4650
 0.3910	 8.3160
 0.3920	 8.8330
 0.3930	 9.2350
 0.3940	 9.0960
 0.3950	 9.3820
 0.3960	 9.5130
 0.3970	 9.3590
 0.3980	 9.0800
 0.3990	 9.2240
 0.4000	 9.5080
 0.4010	 9.6930
 0.4020	 9.7110
 0.4030	 9.7600
 0.4040	 9.8040
 0.4050	 9.8020
 0.4060	 9.8550
 0.4070	10.0960
 0.4080	10.4300
 0.4090	10.6220
 0.4100	10.5150
 0.4110	10.5770
 0.4120	10.9040
 0.4130	10.7680
 0.4140	10.9040
 0.4150	11.2260
 0.4160	11.4100
 0.4170	11.3390
 0.4180	11.4110
 0.4190	11.6580
 0.4200	11.7690
 0.4210	11.8600
 0.4220	12.0620
 0.4230	12.3580
 0.4240	12.3480
 0.4250	12.3120
 0.4260	12.4170
 0.4270	12.7160
 0.4280	12.8940
 0.4290	12.9310
 0.4300	12.9570
 0.4310	13.2490
 0.4320	13.5080
 0.4330	13.6310
 0.4340	13.6260
 0.4350	13.6600
 0.4360	13.7940
 0.4370	13.9370
 0.4380	13.9120
 0.4390	13.9580
 0.4400	14.0270
 0.4410	14.0750
 0.4420	14.1820
 0.4430	14.2130
 0.4440	14.1770
 0.4450	14.1630
 0.4460	14.3790
 0.4470	14.5050
 0.4480	14.4680
 0.4490	14.5200
 0.4500	14.6250
 0.4510	14.7390
 0.4520	14.8170
 0.4530	14.8300
 0.4540	14.7740
 0.4550	14.7370
 0.4560	14.8460
 0.4570	14.9650
 0.4580	15.0220
 0.4590	15.0020
 0.4600	14.9720
 0.4610	15.0190
 0.4620	15.0440
 0.4630	14.9490
 0.4640	15.0290
 0.4650	15.1230
 0.4660	15.1430
 0.4670	15.1030
 0.4680	15.1270
 0.4690	15.1770
 0.4700	15.1930
 0.4710	15.1530
 0.4720	15.1670
 0.4730	15.2150
 0.4740	15.2160
 0.4750	15.1910
 0.4760	15.2160
 0.4770	15.3070
 0.4780	15.3880
 0.4790	15.3460
 0.4800	15.2680
 0.4810	15.2740
 0.4820	15.2800
 0.4830	15.3520
 0.4840	15.4580
 0.4850	15.4890
 0.4860	15.5170
 0.4870	15.5270
 0.4880	15.5040
 0.4890	15.4730
 0.4900	15.4840
 0.4910	15.5140
 0.4920	15.5130
 0.4930	15.5540
 0.4940	15.6060
 0.4950	15.6410
 0.4960	15.6430
 0.4970	15.6710
 0.4980	15.7350
 0.4990	15.8160
 0.5000	15.8360
 0.5010	15.9190
 0.5020	16.0350
 0.5030	16.0410
 0.5040	16.0970
 0.5050	16.1710
 0.5060	16.2390
 0.5070	16.3780
 0.5080	16.5000
 0.5090	16.6010
 0.5100	16.7120
 0.5110	16.8640
 0.5120	17.0230
 0.5130	17.1660
 0.5140	17.2850
 0.5150	17.4500
 0.5160	17.6400
 0.5170	17.8110
 0.5180	17.9360
 0.5190	18.1000
 0.5200	18.3000
 0.5210	18.4650
 0.5220	18.6620
 0.5230	18.8460
 0.5240	18.9910
 0.5250	19.1470
 0.5260	19.3110
 0.5270	19.4660
 0.5280	19.6030
 0.5290	19.7580
 0.5300	19.8850
 0.5310	19.9750
 0.5320	20.0680
 0.5330	20.1720
 0.5340	20.2630
 0.5350	20.3270
 0.5360	20.4120
 0.5370	20.5030
 0.5380	20.5770
 0.5390	20.6110
 0.5400	20.7120
 0.5410	20.8670
 0.5420	21.0300
 0.5430	21.1390
 0.5440	21.1870
 0.5450	21.1820
 0.5460	21.1350
 0.5470	21.0350
 0.5480	20.9630
 0.5490	20.9450
 0.5500	20.9280
 0.5510	20.9050
 0.5520	20.8850
 0.5530	20.8760
 0.5540	20.8590
 0.5550	20.8220
 0.5560	20.7650
 0.5570	20.7010
 0.5580	20.6480
 0.5590	20.5990
 0.5600	20.5460
 0.5610	20.4850
 0.5620	20.4220
 0.5630	20.3500
 0.5640	20.2590
 0.5650	20.1810
 0.5660	20.1000
 0.5670	20.0120
 0.5680	19.9280
 0.5690	19.8260
 0.5700	19.7220
 0.5710	19.6310
 0.5720	19.5380
 0.5730	19.4410
 0.5740	19.3430
 0.5750	19.2470
 0.5760	19.1820
 0.5770	19.1260
 0.5780	19.0610
 0.5790	18.9960
 0.5800	18.9290
 0.5810	18.8720
 0.5820	18.8400
 0.5830	18.8030
 0.5840	18.7580
 0.5850	18.7120
 0.5860	18.6770
 0.5870	18.6650
 0.5880	18.6360
 0.5890	18.5680
 0.5900	18.5210
 0.5910	18.4910
 0.5920	18.4650
 0.5930	18.4280
 0.5940	18.3920
 0.5950	18.3740
 0.5960	18.3640
 0.5970	18.3050
 0.5980	18.2790
 0.5990	18.2740
 0.6000	18.2550
 0.6010	18.2360
 0.6020	18.1940
 0.6030	18.1390
 0.6040	18.1080
 0.6050	18.0850
 0.6060	18.0550
 0.6070	18.0110
 0.6080	17.9460
 0.6090	17.9060
 0.6100	17.9210
 0.6110	17.9860
 0.6120	17.9450
 0.6130	17.8260
 0.6140	17.6820
 0.6150	17.5740
 0.6160	17.5060
 0.6170	17.4440
 0.6180	17.3650
 0.6190	17.3460
 0.6200	17.3130
 0.6210	17.2550
 0.6220	17.2150
 0.6230	17.2080
 0.6240	17.1900
 0.6250	17.1380
 0.6260	17.0950
 0.6270	17.0780
 0.6280	17.0890
 0.6290	17.1120
 0.6300	17.0740
 0.6310	17.0610
 0.6320	17.0800
 0.6330	17.0440
 0.6340	17.0150
 0.6350	16.9930
 0.6360	16.9630
 0.6370	16.9180
 0.6380	16.8650
 0.6390	16.8140
 0.6400	16.7750
 0.6410	16.7280
 0.6420	16.6580
 0.6430	16.5750
 0.6440	16.5290
 0.6450	16.4890
 0.6460	16.4310
 0.6470	16.3510
 0.6480	16.3050
 0.6490	16.2690
 0.6500	16.2290
 0.6510	16.1820
 0.6520	16.1510
 0.6530	16.1280
 0.6540	16.0940
 0.6550	16.0130
 0.6560	15.9890
 0.6570	15.9840
 0.6580	15.9220
 0.6590	15.8730
 0.6600	15.8150
 0.6610	15.7430
 0.6620	15.6730
 0.6630	15.6100
 0.6640	15.5520
 0.6650	15.4960
 0.6660	15.4430
 0.6670	15.3990
 0.6680	15.3570
 0.6690	15.3100
 0.6700	15.2930
 0.6710	15.2770
 0.6720	15.2540
 0.6730	15.2580
 0.6740	15.2480
 0.6750	15.2350
 0.6760	15.2420
 0.6770	15.2660
 0.6780	15.2880
 0.6790	15.3130
 0.6800	15.3620
 0.6810	15.4230
 0.6820	15.4880
 0.6830	15.5550
 0.6840	15.6320
 0.6850	15.7330
 0.6860	15.8610
 0.6870	16.0160
 0.6880	16.1950
 0.6890	16.4000
 0.6900	16.6300
 0.6910	16.8900
 0.6920	17.2070
 0.6930	17.5420
 0.6940	17.8800
 0.6950	18.2770
 0.6960	18.6980
 0.6970	19.1420
 0.6980	19.6170
 0.6990	20.1120
 0.7000	20.6180
 0.7010	21.1320
 0.7020	21.6510
 0.7030	22.1900
 0.7040	22.7420
 0.7050	23.2970
 0.7060	23.8460
 0.7070	24.3930
 0.7080	24.9360
 0.7090	25.4770
 0.7100	26.0350
 0.7110	26.6130
 0.7120	27.1930
 0.7130	27.7440
 0.7140	28.3070
 0.7150	28.8740
 0.7160	29.4370
 0.7170	30.0250
 0.7180	30.6150
 0.7190	31.1890
 0.7200	31.7410
 0.7210	32.3120
 0.7220	32.8840
 0.7230	33.4410
 0.7240	33.9710
 0.7250	34.4980
 0.7260	35.0060
 0.7270	35.4840
 0.7280	35.9550
 0.7290	36.4030
 0.7300	36.8240
 0.7310	37.2180
 0.7320	37.5900
 0.7330	37.9520
 0.7340	38.3040
 0.7350	38.6330
 0.7360	38.9220
 0.7370	39.1960
 0.7380	39.4730
 0.7390	39.7350
 0.7400	39.9710
 0.7410	40.1770
 0.7420	40.3610
 0.7430	40.5570
 0.7440	40.7350
 0.7450	40.8840
 0.7460	41.0230
 0.7470	41.1490
 0.7480	41.2630
 0.7490	41.3620
 0.7500	41.4450
 0.7510	41.5270
 0.7520	41.6060
 0.7530	41.6740
 0.7540	41.7340
 0.7550	41.7860
 0.7560	41.8330
 0.7570	41.8780
 0.7580	41.9060
 0.7590	41.9330
 0.7600	41.9710
 0.7610	42.0210
 0.7620	42.0420
 0.7630	42.0440
 0.7640	42.0480
 0.7650	42.0680
 0.7660	42.0810
 0.7670	42.0820
 0.7680	42.0820
 0.7690	42.1030
 0.7700	42.1250
 0.7710	42.1340
 0.7720	42.1370
 0.7730	42.1470
 0.7740	42.1440
 0.7750	42.1180
 0.7760	42.1350
 0.7770	42.1450
 0.7780	42.1430
 0.7790	42.1420
 0.7800	42.1400
 0.7810	42.1420
 0.7820	42.1470
 0.7830	42.1530
 0.7840	42.1610
 0.7850	42.1660
 0.7860	42.1630
 0.7870	42.1590
 0.7880	42.1720
 0.7890	42.1780
 0.7900	42.1580
 0.7910	42.1600
 0.7920	42.1640
 0.7930	42.1640
 0.7940	42.1700
 0.7950	42.1750
 0.7960	42.1820
 0.7970	42.1830
 0.7980	42.1590
 0.7990	42.1290
 0.8000	42.1220
 0.8010	42.1460
 0.8020	42.1510
 0.8030	42.1560
 0.8040	42.1430
 0.8050	42.0990
 0.8060	42.1030
 0.8070	42.1090
 0.8080	42.1070
 0.8090	42.1120
 0.8100	42.0960
 0.8110	42.0760
 0.8120	42.0610
 0.8130	42.0410
 0.8140	42.0440
 0.8150	42.0440
 0.8160	42.0190
 0.8170	42.0120
 0.8180	41.9770
 0.8190	41.9390
 0.8200	41.9420
 0.8210	41.9380
 0.8220	41.9390
 0.8230	41.9260
 0.8240	41.8590
 0.8250	41.8360
 0.8260	41.8310
 0.8270	41.8110
 0.8280	41.7560
 0.8290	41.7100
 0.8300	41.6890
 0.8310	41.6840
 0.8320	41.6430
 0.8330	41.6300
 0.8340	41.6190
 0.8350	41.5620
 0.8360	41.5500
 0.8370	41.5420
 0.8380	41.5290
 0.8390	41.5280
 0.8400	41.5080
 0.8410	41.4820
 0.8420	41.4660
 0.8430	41.4680
 0.8440	41.4750
 0.8450	41.4710
 0.8460	41.4590
 0.8470	41.4680
 0.8480	41.4730
 0.8490	41.4680
 0.8500	41.4580
 0.8510	41.4590
 0.8520	41.4670
 0.8530	41.4700
 0.8540	41.4580
 0.8550	41.4430
 0.8560	41.4310
 0.8570	41.4330
 0.8580	41.4580
 0.8590	41.4310
 0.8600	41.4340
 0.8610	41.4870
 0.8620	41.4750
 0.8630	41.4580
 0.8640	41.4470
 0.8650	41.4430
 0.8660	41.4580
 0.8670	41.4770
 0.8680	41.4840
 0.8690	41.4720
 0.8700	41.4730
 0.8710	41.4460
 0.8720	41.4240
 0.8730	41.4600
 0.8740	41.4520
 0.8750	41.4400
 0.8760	41.4370
 0.8770	41.4230
 0.8780	41.4220
 0.8790	41.4330
 0.8800	41.4410
 0.8810	41.4210
 0.8820	41.4300
 0.8830	41.4190
 0.8840	41.3730
 0.8850	41.3930
 0.8860	41.3780
 0.8870	41.3500
 0.8880	41.3500
 0.8890	41.3550
 0.8900	41.3670
 0.8910	41.3580
 0.8920	41.3080
 0.8930	41.2760
 0.8940	41.2950
 0.8950	41.3270
 0.8960	41.3080
 0.8970	41.3230
 0.8980	41.3180
 0.8990	41.2700
 0.9000	41.2060
 0.9010	41.2330
 0.9020	41.2390
 0.9030	41.1930
 0.9040	41.2080
 0.9050	41.1960
 0.9060	41.1710
 0.9070	41.1520
 0.9080	41.1420
 0.9090	41.0790
 0.9100	41.0460
 0.9110	41.0910
 0.9120	41.0680
 0.9130	41.0490
 0.9140	41.0100
 0.9150	40.9260
 0.9160	40.8810
 0.9170	40.8680
 0.9180	40.8550
 0.9190	40.8170
 0.9200	40.8080
 0.9210	40.7490
 0.9220	40.6620
 0.9230	40.6100
 0.9240	40.4980
 0.9250	40.4000
 0.9260	40.3190
 0.9270	40.2040
 0.9280	40.0850
 0.9290	39.9810
 0.9300	39.8930
 0.9310	39.8140
 0.9320	39.7340
 0.9330	39.6090
 0.9340	39.4420
 0.9350	39.2910
 0.9360	39.1140
 0.9370	38.9620
 0.9380	38.8520
 0.9390	38.7370
 0.9400	38.5980
 0.9410	38.4360
 0.9420	38.2770
 0.9430	38.1800
 0.9440	38.0260
 0.9450	37.8220
 0.9460	37.5970
 0.9470	37.3520
 0.9480	37.1870
 0.9490	37.0020
 0.9500	36.7140
 0.9510	36.4100
 0.9520	36.1770
 0.9530	35.9710
 0.9540	35.7250
 0.9550	35.4570
 0.9560	35.1490
 0.9570	34.9010
 0.9580	34.7890
 0.9590	34.7100
 0.9600	34.5450
 0.9610	34.3730
 0.9620	34.2820
 0.9630	34.1010
 0.9640	33.9830
 0.9650	33.9280
 0.9660	33.8850
 0.9670	33.9030
 0.9680	33.8660
 0.9690	33.8210
 0.9700	33.8420
 0.9710	33.7770
 0.9720	33.6960
 0.9730	33.6710
 0.9740	33.7230
 0.9750	33.6410
 0.9760	33.6430
 0.9770	33.6760
 0.9780	33.6150
 0.9790	33.7010
 0.9800	33.7180
 0.9810	33.6950
 0.9820	33.7520
 0.9830	33.8000
 0.9840	33.7660
 0.9850	33.7470
 0.9860	33.8570
 0.9870	33.8840
 0.9880	33.8830
 0.9890	33.9060
 0.9900	33.9830
 0.9910	34.0680
 0.9920	34.1900
 0.9930	34.2720
 0.9940	34.2400
 0.9950	34.2660
 0.9960	34.3530
 0.9970	34.4480
 0.9980	34.5050
 0.9990	34.6340
 1.0000	34.6430
 1.0010	35.6990
 1.0020	35.7880
 1.0030	35.9060
 1.0040	35.9820
 1.0050	36.0570
 1.0060	36.1140
 1.0070	36.1610
 1.0080	36.2250
 1.0090	36.3060
 1.0100	36.3880
 1.0110	36.4700
 1.0120	36.5560
 1.0130	36.6620
 1.0140	36.7600
 1.0150	36.8520
 1.0160	36.9420
 1.0170	37.0630
 1.0180	37.1620
 1.0190	37.2440
 1.0200	37.3260
 1.0210	37.4290
 1.0220	37.5400
 1.0230	37.6350
 1.0240	37.7600
 1.0250	37.8510
 1.0260	37.8840
 1.0270	37.9630
 1.0280	38.0670
 1.0290	38.1550
 1.0300	38.2600
 1.0310	38.3480
 1.0320	38.4110
 1.0330	38.4870
 1.0340	38.5870
 1.0350	38.6520
 1.0360	38.7400
 1.0370	38.8340
 1.0380	38.9150
 1.0390	38.9890
 1.0400	39.0590
 1.0410	39.1180
 1.0420	39.1840
 1.0430	39.2640
 1.0440	39.3140
 1.0450	39.3380
 1.0460	39.3890
 1.0470	39.4230
 1.0480	39.4760
 1.0490	39.5690
 1.0500	39.6430
 1.0510	39.7090
 1.0520	39.7840
 1.0530	39.8410
 1.0540	39.8970
 1.0550	39.9310
 1.0560	39.9420
 1.0570	39.9650
 1.0580	39.9740
 1.0590	39.9970
 1.0600	40.0360
 1.0610	40.0610
 1.0620	40.0760
 1.0630	40.1050
 1.0640	40.1370
 1.0650	40.1700
 1.0660	40.2380
 1.0670	40.2650
 1.0680	40.2720
 1.0690	40.2570
 1.0700	40.2530
 1.0710	40.2230
 1.0720	40.2170
 1.0730	40.2380
 1.0740	40.2260
 1.0750	40.1900
 1.0760	40.1780
 1.0770	40.1730
 1.0780	40.1490
 1.0790	40.1240
 1.0800	40.1050
 1.0810	40.0700
 1.0820	40.0400
 1.0830	40.0400
 1.0840	40.0150
 1.0850	39.9570
 1.0860	39.9140
 1.0870	39.8780
 1.0880	39.8390
 1.0890	39.8000
 1.0900	39.7720
 1.0910	39.7330
 1.0920	39.6900
 1.0930	39.6350
 1.0940	39.5700
 1.0950	39.5110
 1.0960	39.4350
 1.0970	39.3750
 1.0980	39.3260
 1.0990	39.2810
 1.1000	39.2600
 1.1010	39.2130
 1.1020	39.1630
 1.1030	39.1050
 1.1040	39.0200
 1.1050	38.9300
 1.1060	38.8580
 1.1070	38.7900
 1.1080	38.7260
 1.1090	38.6760
 1.1100	38.6140
 1.1110	38.5520
 1.1120	38.4810
 1.1130	38.3970
 1.1140	38.3220
 1.1150	38.2540
 1.1160	38.1720
 1.1170	38.0910
 1.1180	38.0020
 1.1190	37.9100
 1.1200	37.7940
 1.1210	37.6730
 1.1220	37.5360
 1.1230	37.3780
 1.1240	37.2160
 1.1250	37.0420
 1.1260	36.8700
 1.1270	36.6600
 1.1280	36.4310
 1.1290	36.1820
 1.1300	35.9140
 1.1310	35.6190
 1.1320	35.3020
 1.1330	34.9710
 1.1340	34.6160
 1.1350	34.2420
 1.1360	33.8510
 1.1370	33.4450
 1.1380	33.0320
 1.1390	32.6210
 1.1400	32.2190
 1.1410	31.8240
 1.1420	31.4280
 1.1430	31.0480
 1.1440	30.6710
 1.1450	30.2940
 1.1460	29.9470
 1.1470	29.6090
 1.1480	29.2920
 1.1490	28.9970
 1.1500	28.7270
 1.1510	28.4700
 1.1520	28.2400
 1.1530	28.0390
 1.1540	27.8560
 1.1550	27.6930
 1.1560	27.5470
 1.1570	27.4230
 1.1580	27.3210
 1.1590	27.2200
 1.1600	27.1340
 1.1610	27.0560
 1.1620	26.9830
 1.1630	26.9320
 1.1640	26.8840
 1.1650	26.8390
 1.1660	26.8060
 1.1670	26.7690
 1.1680	26.7310
 1.1690	26.6980
 1.1700	26.6700
 1.1710	26.6390
 1.1720	26.6050
 1.1730	26.5800
 1.1740	26.5570
 1.1750	26.5410
 1.1760	26.5270
 1.1770	26.5150
 1.1780	26.4990
 1.1790	26.4710
 1.1800	26.4350
 1.1810	26.4010
 1.1820	26.3770
 1.1830	26.3500
 1.1840	26.3410
 1.1850	26.3390
 1.1860	26.3210
 1.1870	26.3030
 1.1880	26.2780
 1.1890	26.2350
 1.1900	26.2160
 1.1910	26.2030
 1.1920	26.1930
 1.1930	26.2040
 1.1940	26.2010
 1.1950	26.1900
 1.1960	26.1850
 1.1970	26.1720
 1.1980	26.1540
 1.1990	26.1560
 1.2000	26.1570
 1.2010	26.1620
 1.2020	26.1780
 1.2030	26.1840
 1.2040	26.1820
 1.2050	26.1860
 1.2060	26.1940
 1.2070	26.2000
 1.2080	26.2200
 1.2090	26.2570
 1.2100	26.2870
 1.2110	26.3150
 1.2120	26.3480
 1.2130	26.3750
 1.2140	26.3850
 1.2150	26.4120
 1.2160	26.4480
 1.2170	26.4750
 1.2180	26.5040
 1.2190	26.5390
 1.2200	26.5670
 1.2210	26.5980
 1.2220	26.6360
 1.2230	26.6710
 1.2240	26.7030
 1.2250	26.7420
 1.2260	26.7830
 1.2270	26.8200
 1.2280	26.8530
 1.2290	26.8850
 1.2300	26.9170
 1.2310	26.9520
 1.2320	26.9910
 1.2330	27.0290
 1.2340	27.0670
 1.2350	27.1100
 1.2360	27.1400
 1.2370	27.1620
 1.2380	27.1900
 1.2390	27.2210
 1.2400	27.2590
 1.2410	27.3100
 1.2420	27.3570
 1.2430	27.3900
 1.2440	27.4110
 1.2450	27.4310
 1.2460	27.4490
 1.2470	27.4720
 1.2480	27.5030
 1.2490	27.5400
 1.2500	27.5820
 1.2510	27.6190
 1.2520	27.6470
 1.2530	27.6640
 1.2540	27.6830
 1.2550	27.7020
 1.2560	27.7150
 1.2570	27.7310
 1.2580	27.7460
 1.2590	27.7570
 1.2600	27.7650
 1.2610	27.7760
 1.2620	27.7860
 1.2630	27.7950
 1.2640	27.7990
 1.2650	27.8000
 1.2660	27.7990
 1.2670	27.7890
 1.2680	27.7860
 1.2690	27.7830
 1.2700	27.7780
 1.2710	27.7810
 1.2720	27.7690
 1.2730	27.7540
 1.2740	27.7290
 1.2750	27.6950
 1.2760	27.6670
 1.2770	27.6310
 1.2780	27.5950
 1.2790	27.5510
 1.2800	27.5000
 1.2810	27.4540
 1.2820	27.4080
 1.2830	27.3620
 1.2840	27.3180
 1.2850	27.2700
 1.2860	27.2100
 1.2870	27.1500
 1.2880	27.0870
 1.2890	27.0170
 1.2900	26.9350
 1.2910	26.8620
 1.2920	26.7760
 1.2930	26.6880
 1.2940	26.6030
 1.2950	26.4980
 1.2960	26.3950
 1.2970	26.2870
 1.2980	26.1650
 1.2990	26.0490
 1.3000	25.9340
 1.3010	25.8150
 1.3020	25.6960
 1.3030	25.5800
 1.3040	25.4540
 1.3050	25.3180
 1.3060	25.1850
 1.3070	25.0480
 1.3080	24.9060
 1.3090	24.7690
 1.3100	24.6240
 1.3110	24.4640
 1.3120	24.2990
 1.3130	24.1350
 1.3140	23.9770
 1.3150	23.8280
 1.3160	23.6710
 1.3170	23.5170
 1.3180	23.3550
 1.3190	23.1890
 1.3200	23.0190
 1.3210	22.8460
 1.3220	22.6730
 1.3230	22.4900
 1.3240	22.3040
 1.3250	22.1240
 1.3260	21.9420
 1.3270	21.7680
 1.3280	21.5980
 1.3290	21.4260
 1.3300	21.2570
 1.3310	21.0790
 1.3320	20.8990
 1.3330	20.7330
 1.3340	20.5720
 1.3350	20.4170
 1.3360	20.2700
 1.3370	20.1150
 1.3380	19.9580
 1.3390	19.8100
 1.3400	19.6640
 1.3410	19.5230
 1.3420	19.3880
 1.3430	19.2540
 1.3440	19.1190
 1.3450	18.9900
 1.3460	18.8640
 1.3470	18.7420
 1.3480	18.6230
 1.3490	18.5100
 1.3500	18.4030
 1.3510	18.2990
 1.3520	18.1980
 1.3530	18.0930
 1.3540	17.9910
 1.3550	17.8870
 1.3560	17.7830
 1.3570	17.6770
 1.3580	17.5720
 1.3590	17.4660
 1.3600	17.3540
 1.3610	17.2450
 1.3620	17.1350
 1.3630	17.0240
 1.3640	16.9120
 1.3650	16.7960
 1.3660	16.6740
 1.3670	16.5420
 1.3680	16.4080
 1.3690	16.2640
 1.3700	16.1120
 1.3710	15.9590
 1.3720	15.7960
 1.3730	15.6320
 1.3740	15.4610
 1.3750	15.2810
 1.3760	15.1010
 1.3770	14.9100
 1.3780	14.7110
 1.3790	14.5110
 1.3800	14.3000
 1.3810	14.0880
 1.3820	13.8800
 1.3830	13.6700
 1.3840	13.4660
 1.3850	13.2660
 1.3860	13.0660
 1.3870	12.8680
 1.3880	12.6750
 1.3890	12.4810
 1.3900	12.2960
 1.3910	12.1260
 1.3920	11.9600
 1.3930	11.8070
 1.3940	11.6610
 1.3950	11.5210
 1.3960	11.3910
 1.3970	11.2670
 1.3980	11.1590
 1.3990	11.0590
 1.4000	10.9610
 1.4010	10.8700
 1.4020	10.7790
 1.4030	10.6930
 1.4040	10.6180
 1.4050	10.5530
 1.4060	10.5010
 1.4070	10.4510
 1.4080	10.4020
 1.4090	10.3550
 1.4100	10.3060
 1.4110	10.2600
 1.4120	10.2190
 1.4130	10.1810
 1.4140	10.1510
 1.4150	10.1220
 1.4160	10.0930
 1.4170	10.0710
 1.4180	10.0470
 1.4190	10.0280
 1.4200	10.0120
 1.4210	 9.9920
 1.4220	 9.9750
 1.4230	 9.9560
 1.4240	 9.9400
 1.4250	 9.9230
 1.4260	 9.9040
 1.4270	 9.8880
 1.4280	 9.8730
 1.4290	 9.8600
 1.4300	 9.8510
 1.4310	 9.8430
 1.4320	 9.8350
 1.4330	 9.8300
 1.4340	 9.8280
 1.4350	 9.8240
 1.4360	 9.8210
 1.4370	 9.8190
 1.4380	 9.8140
 1.4390	 9.8090
 1.4400	 9.8040
 1.4410	 9.8000
 1.4420	 9.7980
 1.4430	 9.7910
 1.4440	 9.7820
 1.4450	 9.7770
 1.4460	 9.7660
 1.4470	 9.7640
 1.4480	 9.7700
 1.4490	 9.7700
 1.4500	 9.7720
 1.4510	 9.7710
 1.4520	 9.7640
 1.4530	 9.7580
 1.4540	 9.7560
 1.4550	 9.7620
 1.4560	 9.7660
 1.4570	 9.7680
 1.4580	 9.7740
 1.4590	 9.7700
 1.4600	 9.7660
 1.4610	 9.7640
 1.4620	 9.7620
 1.4630	 9.7660
 1.4640	 9.7770
 1.4650	 9.7900
 1.4660	 9.8040
 1.4670	 9.8160
 1.4680	 9.8210
 1.4690	 9.8250
 1.4700	 9.8260
 1.4710	 9.8280
 1.4720	 9.8370
 1.4730	 9.8450
 1.4740	 9.8550
 1.4750	 9.8640
 1.4760	 9.8720
 1.4770	 9.8850
 1.4780	 9.9000
 1.4790	 9.9180
 1.4800	 9.9350
 1.4810	 9.9460
 1.4820	 9.9590
