Name: Acer paxii
Type: vegetation
Class: Tree
Genus: Acer
Species: paxii
Sample No.: JPL225
Owner: JPL
Wavelength Range: VSWIR
Origin: 34.12661; -118.11491; WGS84
Collection Date: 10/3/2016
Description: Samples were collected at the Huntington Garden in San Marino California as part of a JPL Subcontract studying HyTES imagery. Samples were taken to JPL and processed within 48 hours of collection. The same leaves were processed in the Nicolet and then measured using the ASD.
Measurement: Bidirectional reflectance
First Column: X
Second Column: Y
X Units: Wavelength (micrometer)
Y Units: Reflectance (percentage)
First X Value: 0.35
Last X Value: 2.5
Number of X Values: 2151
Additional Information: vegetation.tree.acer.paxii.vswir.jpl225.jpl.asd.ancillary.txt

 0.3500	 5.2110
 0.3510	 5.1770
 0.3520	 5.2000
 0.3530	 5.2220
 0.3540	 5.1940
 0.3550	 5.1670
 0.3560	 5.2050
 0.3570	 5.2440
 0.3580	 5.1740
 0.3590	 5.1280
 0.3600	 5.0960
 0.3610	 5.0840
 0.3620	 5.1420
 0.3630	 5.1090
 0.3640	 5.0700
 0.3650	 5.1070
 0.3660	 5.0450
 0.3670	 5.0330
 0.3680	 5.0760
 0.3690	 5.0770
 0.3700	 5.0430
 0.3710	 5.0120
 0.3720	 5.0170
 0.3730	 5.0850
 0.3740	 5.0620
 0.3750	 5.0240
 0.3760	 5.0760
 0.3770	 5.0940
 0.3780	 5.0570
 0.3790	 4.9940
 0.3800	 4.9630
 0.3810	 4.9560
 0.3820	 4.9560
 0.3830	 4.9530
 0.3840	 4.9580
 0.3850	 4.9730
 0.3860	 4.9720
 0.3870	 4.9380
 0.3880	 4.9640
 0.3890	 4.9900
 0.3900	 4.9860
 0.3910	 4.9680
 0.3920	 4.9510
 0.3930	 4.9400
 0.3940	 4.9350
 0.3950	 4.9470
 0.3960	 4.9650
 0.3970	 4.9730
 0.3980	 4.9550
 0.3990	 4.9260
 0.4000	 4.9140
 0.4010	 4.9310
 0.4020	 4.9710
 0.4030	 4.9620
 0.4040	 4.9390
 0.4050	 4.9450
 0.4060	 4.9570
 0.4070	 4.9640
 0.4080	 4.9620
 0.4090	 4.9490
 0.4100	 4.9510
 0.4110	 4.9720
 0.4120	 5.0000
 0.4130	 4.9940
 0.4140	 5.0050
 0.4150	 5.0220
 0.4160	 5.0230
 0.4170	 5.0500
 0.4180	 5.0560
 0.4190	 5.0400
 0.4200	 5.0460
 0.4210	 5.0660
 0.4220	 5.0850
 0.4230	 5.0970
 0.4240	 5.1140
 0.4250	 5.1180
 0.4260	 5.1200
 0.4270	 5.1380
 0.4280	 5.1620
 0.4290	 5.1740
 0.4300	 5.1720
 0.4310	 5.1770
 0.4320	 5.1800
 0.4330	 5.1830
 0.4340	 5.1900
 0.4350	 5.1970
 0.4360	 5.2050
 0.4370	 5.2130
 0.4380	 5.2130
 0.4390	 5.2140
 0.4400	 5.2200
 0.4410	 5.2310
 0.4420	 5.2390
 0.4430	 5.2470
 0.4440	 5.2570
 0.4450	 5.2660
 0.4460	 5.2750
 0.4470	 5.2820
 0.4480	 5.2870
 0.4490	 5.2950
 0.4500	 5.2960
 0.4510	 5.2980
 0.4520	 5.3100
 0.4530	 5.3180
 0.4540	 5.3280
 0.4550	 5.3340
 0.4560	 5.3330
 0.4570	 5.3390
 0.4580	 5.3460
 0.4590	 5.3500
 0.4600	 5.3590
 0.4610	 5.3620
 0.4620	 5.3630
 0.4630	 5.3630
 0.4640	 5.3570
 0.4650	 5.3520
 0.4660	 5.3530
 0.4670	 5.3600
 0.4680	 5.3630
 0.4690	 5.3610
 0.4700	 5.3570
 0.4710	 5.3680
 0.4720	 5.3710
 0.4730	 5.3680
 0.4740	 5.3680
 0.4750	 5.3670
 0.4760	 5.3680
 0.4770	 5.3700
 0.4780	 5.3720
 0.4790	 5.3710
 0.4800	 5.3730
 0.4810	 5.3810
 0.4820	 5.3780
 0.4830	 5.3780
 0.4840	 5.3820
 0.4850	 5.3830
 0.4860	 5.3790
 0.4870	 5.3840
 0.4880	 5.4010
 0.4890	 5.4050
 0.4900	 5.4130
 0.4910	 5.4240
 0.4920	 5.4310
 0.4930	 5.4420
 0.4940	 5.4530
 0.4950	 5.4640
 0.4960	 5.4800
 0.4970	 5.5020
 0.4980	 5.5240
 0.4990	 5.5440
 0.5000	 5.5670
 0.5010	 5.5890
 0.5020	 5.6130
 0.5030	 5.6440
 0.5040	 5.6830
 0.5050	 5.7220
 0.5060	 5.7580
 0.5070	 5.8070
 0.5080	 5.8600
 0.5090	 5.9170
 0.5100	 5.9790
 0.5110	 6.0510
 0.5120	 6.1310
 0.5130	 6.2210
 0.5140	 6.3220
 0.5150	 6.4260
 0.5160	 6.5350
 0.5170	 6.6540
 0.5180	 6.7920
 0.5190	 6.9350
 0.5200	 7.0800
 0.5210	 7.2320
 0.5220	 7.3880
 0.5230	 7.5460
 0.5240	 7.7040
 0.5250	 7.8590
 0.5260	 8.0120
 0.5270	 8.1580
 0.5280	 8.2930
 0.5290	 8.4230
 0.5300	 8.5450
 0.5310	 8.6560
 0.5320	 8.7550
 0.5330	 8.8430
 0.5340	 8.9240
 0.5350	 8.9970
 0.5360	 9.0610
 0.5370	 9.1150
 0.5380	 9.1620
 0.5390	 9.2050
 0.5400	 9.2430
 0.5410	 9.2800
 0.5420	 9.3150
 0.5430	 9.3460
 0.5440	 9.3710
 0.5450	 9.3920
 0.5460	 9.4130
 0.5470	 9.4280
 0.5480	 9.4420
 0.5490	 9.4540
 0.5500	 9.4630
 0.5510	 9.4650
 0.5520	 9.4610
 0.5530	 9.4480
 0.5540	 9.4270
 0.5550	 9.3950
 0.5560	 9.3540
 0.5570	 9.3040
 0.5580	 9.2400
 0.5590	 9.1670
 0.5600	 9.0900
 0.5610	 9.0060
 0.5620	 8.9170
 0.5630	 8.8200
 0.5640	 8.7170
 0.5650	 8.6170
 0.5660	 8.5160
 0.5670	 8.4100
 0.5680	 8.3040
 0.5690	 8.1960
 0.5700	 8.0890
 0.5710	 7.9870
 0.5720	 7.8890
 0.5730	 7.7950
 0.5740	 7.7060
 0.5750	 7.6250
 0.5760	 7.5510
 0.5770	 7.4840
 0.5780	 7.4210
 0.5790	 7.3640
 0.5800	 7.3080
 0.5810	 7.2550
 0.5820	 7.2050
 0.5830	 7.1570
 0.5840	 7.1150
 0.5850	 7.0790
 0.5860	 7.0430
 0.5870	 7.0050
 0.5880	 6.9660
 0.5890	 6.9310
 0.5900	 6.8940
 0.5910	 6.8630
 0.5920	 6.8380
 0.5930	 6.8200
 0.5940	 6.8050
 0.5950	 6.7900
 0.5960	 6.7770
 0.5970	 6.7620
 0.5980	 6.7460
 0.5990	 6.7310
 0.6000	 6.7170
 0.6010	 6.6980
 0.6020	 6.6770
 0.6030	 6.6550
 0.6040	 6.6280
 0.6050	 6.6030
 0.6060	 6.5760
 0.6070	 6.5460
 0.6080	 6.5140
 0.6090	 6.4800
 0.6100	 6.4440
 0.6110	 6.4110
 0.6120	 6.3790
 0.6130	 6.3460
 0.6140	 6.3130
 0.6150	 6.2810
 0.6160	 6.2530
 0.6170	 6.2260
 0.6180	 6.1960
 0.6190	 6.1710
 0.6200	 6.1510
 0.6210	 6.1320
 0.6220	 6.1110
 0.6230	 6.0960
 0.6240	 6.0860
 0.6250	 6.0780
 0.6260	 6.0690
 0.6270	 6.0620
 0.6280	 6.0560
 0.6290	 6.0520
 0.6300	 6.0470
 0.6310	 6.0410
 0.6320	 6.0320
 0.6330	 6.0260
 0.6340	 6.0130
 0.6350	 5.9950
 0.6360	 5.9760
 0.6370	 5.9550
 0.6380	 5.9290
 0.6390	 5.8990
 0.6400	 5.8670
 0.6410	 5.8380
 0.6420	 5.8090
 0.6430	 5.7800
 0.6440	 5.7490
 0.6450	 5.7230
 0.6460	 5.7020
 0.6470	 5.6800
 0.6480	 5.6580
 0.6490	 5.6420
 0.6500	 5.6320
 0.6510	 5.6240
 0.6520	 5.6190
 0.6530	 5.6140
 0.6540	 5.6080
 0.6550	 5.6040
 0.6560	 5.5990
 0.6570	 5.5940
 0.6580	 5.5880
 0.6590	 5.5820
 0.6600	 5.5740
 0.6610	 5.5650
 0.6620	 5.5580
 0.6630	 5.5530
 0.6640	 5.5500
 0.6650	 5.5500
 0.6660	 5.5550
 0.6670	 5.5640
 0.6680	 5.5740
 0.6690	 5.5870
 0.6700	 5.6020
 0.6710	 5.6220
 0.6720	 5.6480
 0.6730	 5.6760
 0.6740	 5.7050
 0.6750	 5.7380
 0.6760	 5.7770
 0.6770	 5.8180
 0.6780	 5.8650
 0.6790	 5.9160
 0.6800	 5.9660
 0.6810	 6.0210
 0.6820	 6.0790
 0.6830	 6.1380
 0.6840	 6.1960
 0.6850	 6.2520
 0.6860	 6.3090
 0.6870	 6.3700
 0.6880	 6.4350
 0.6890	 6.5100
 0.6900	 6.6020
 0.6910	 6.7180
 0.6920	 6.8700
 0.6930	 7.0630
 0.6940	 7.3040
 0.6950	 7.6010
 0.6960	 7.9570
 0.6970	 8.3750
 0.6980	 8.8560
 0.6990	 9.3940
 0.7000	 9.9810
 0.7010	10.6120
 0.7020	11.2820
 0.7030	11.9830
 0.7040	12.7050
 0.7050	13.4430
 0.7060	14.1930
 0.7070	14.9530
 0.7080	15.7200
 0.7090	16.4930
 0.7100	17.2710
 0.7110	18.0560
 0.7120	18.8510
 0.7130	19.6540
 0.7140	20.4610
 0.7150	21.2750
 0.7160	22.0930
 0.7170	22.9170
 0.7180	23.7450
 0.7190	24.5760
 0.7200	25.4080
 0.7210	26.2380
 0.7220	27.0630
 0.7230	27.8810
 0.7240	28.6930
 0.7250	29.4950
 0.7260	30.2810
 0.7270	31.0510
 0.7280	31.8080
 0.7290	32.5440
 0.7300	33.2570
 0.7310	33.9490
 0.7320	34.6190
 0.7330	35.2620
 0.7340	35.8780
 0.7350	36.4670
 0.7360	37.0280
 0.7370	37.5600
 0.7380	38.0650
 0.7390	38.5450
 0.7400	38.9940
 0.7410	39.4120
 0.7420	39.8030
 0.7430	40.1670
 0.7440	40.5030
 0.7450	40.8110
 0.7460	41.0900
 0.7470	41.3450
 0.7480	41.5760
 0.7490	41.7840
 0.7500	41.9720
 0.7510	42.1440
 0.7520	42.2980
 0.7530	42.4370
 0.7540	42.5580
 0.7550	42.6670
 0.7560	42.7660
 0.7570	42.8520
 0.7580	42.9300
 0.7590	42.9980
 0.7600	43.0570
 0.7610	43.1110
 0.7620	43.1560
 0.7630	43.1960
 0.7640	43.2300
 0.7650	43.2550
 0.7660	43.2750
 0.7670	43.2920
 0.7680	43.3060
 0.7690	43.3190
 0.7700	43.3300
 0.7710	43.3370
 0.7720	43.3400
 0.7730	43.3430
 0.7740	43.3460
 0.7750	43.3490
 0.7760	43.3520
 0.7770	43.3520
 0.7780	43.3520
 0.7790	43.3530
 0.7800	43.3560
 0.7810	43.3580
 0.7820	43.3600
 0.7830	43.3620
 0.7840	43.3630
 0.7850	43.3620
 0.7860	43.3620
 0.7870	43.3610
 0.7880	43.3580
 0.7890	43.3550
 0.7900	43.3530
 0.7910	43.3520
 0.7920	43.3480
 0.7930	43.3430
 0.7940	43.3410
 0.7950	43.3380
 0.7960	43.3330
 0.7970	43.3260
 0.7980	43.3180
 0.7990	43.3110
 0.8000	43.3030
 0.8010	43.2930
 0.8020	43.2820
 0.8030	43.2750
 0.8040	43.2690
 0.8050	43.2600
 0.8060	43.2520
 0.8070	43.2370
 0.8080	43.2200
 0.8090	43.2090
 0.8100	43.2000
 0.8110	43.1890
 0.8120	43.1770
 0.8130	43.1630
 0.8140	43.1450
 0.8150	43.1270
 0.8160	43.1140
 0.8170	43.1040
 0.8180	43.0940
 0.8190	43.0810
 0.8200	43.0650
 0.8210	43.0480
 0.8220	43.0330
 0.8230	43.0200
 0.8240	43.0070
 0.8250	42.9930
 0.8260	42.9780
 0.8270	42.9640
 0.8280	42.9520
 0.8290	42.9390
 0.8300	42.9250
 0.8310	42.9090
 0.8320	42.8920
 0.8330	42.8800
 0.8340	42.8720
 0.8350	42.8630
 0.8360	42.8480
 0.8370	42.8360
 0.8380	42.8290
 0.8390	42.8220
 0.8400	42.8130
 0.8410	42.8060
 0.8420	42.8020
 0.8430	42.7950
 0.8440	42.7830
 0.8450	42.7730
 0.8460	42.7680
 0.8470	42.7640
 0.8480	42.7610
 0.8490	42.7570
 0.8500	42.7530
 0.8510	42.7500
 0.8520	42.7480
 0.8530	42.7470
 0.8540	42.7450
 0.8550	42.7420
 0.8560	42.7410
 0.8570	42.7390
 0.8580	42.7340
 0.8590	42.7320
 0.8600	42.7320
 0.8610	42.7320
 0.8620	42.7280
 0.8630	42.7300
 0.8640	42.7320
 0.8650	42.7330
 0.8660	42.7340
 0.8670	42.7370
 0.8680	42.7390
 0.8690	42.7410
 0.8700	42.7460
 0.8710	42.7510
 0.8720	42.7540
 0.8730	42.7580
 0.8740	42.7600
 0.8750	42.7610
 0.8760	42.7640
 0.8770	42.7700
 0.8780	42.7770
 0.8790	42.7820
 0.8800	42.7840
 0.8810	42.7880
 0.8820	42.7910
 0.8830	42.7960
 0.8840	42.8020
 0.8850	42.8050
 0.8860	42.8060
 0.8870	42.8080
 0.8880	42.8110
 0.8890	42.8140
 0.8900	42.8190
 0.8910	42.8260
 0.8920	42.8300
 0.8930	42.8350
 0.8940	42.8380
 0.8950	42.8410
 0.8960	42.8450
 0.8970	42.8410
 0.8980	42.8430
 0.8990	42.8520
 0.9000	42.8600
 0.9010	42.8640
 0.9020	42.8620
 0.9030	42.8610
 0.9040	42.8720
 0.9050	42.8720
 0.9060	42.8700
 0.9070	42.8720
 0.9080	42.8740
 0.9090	42.8750
 0.9100	42.8750
 0.9110	42.8720
 0.9120	42.8710
 0.9130	42.8700
 0.9140	42.8720
 0.9150	42.8740
 0.9160	42.8690
 0.9170	42.8690
 0.9180	42.8710
 0.9190	42.8650
 0.9200	42.8560
 0.9210	42.8500
 0.9220	42.8470
 0.9230	42.8430
 0.9240	42.8310
 0.9250	42.8240
 0.9260	42.8190
 0.9270	42.8080
 0.9280	42.7900
 0.9290	42.7750
 0.9300	42.7620
 0.9310	42.7420
 0.9320	42.7270
 0.9330	42.7160
 0.9340	42.7040
 0.9350	42.6890
 0.9360	42.6630
 0.9370	42.6400
 0.9380	42.6250
 0.9390	42.6030
 0.9400	42.5860
 0.9410	42.5690
 0.9420	42.5450
 0.9430	42.5140
 0.9440	42.4870
 0.9450	42.4600
 0.9460	42.4310
 0.9470	42.4000
 0.9480	42.3630
 0.9490	42.3220
 0.9500	42.2810
 0.9510	42.2380
 0.9520	42.2040
 0.9530	42.1660
 0.9540	42.1170
 0.9550	42.0650
 0.9560	42.0180
 0.9570	41.9760
 0.9580	41.9390
 0.9590	41.8990
 0.9600	41.8590
 0.9610	41.8260
 0.9620	41.8020
 0.9630	41.7750
 0.9640	41.7490
 0.9650	41.7240
 0.9660	41.7000
 0.9670	41.6800
 0.9680	41.6670
 0.9690	41.6560
 0.9700	41.6350
 0.9710	41.6170
 0.9720	41.5990
 0.9730	41.5850
 0.9740	41.5800
 0.9750	41.5730
 0.9760	41.5620
 0.9770	41.5510
 0.9780	41.5400
 0.9790	41.5300
 0.9800	41.5260
 0.9810	41.5260
 0.9820	41.5260
 0.9830	41.5280
 0.9840	41.5180
 0.9850	41.5090
 0.9860	41.5160
 0.9870	41.5190
 0.9880	41.5200
 0.9890	41.5210
 0.9900	41.5240
 0.9910	41.5250
 0.9920	41.5350
 0.9930	41.5410
 0.9940	41.5320
 0.9950	41.5310
 0.9960	41.5400
 0.9970	41.5510
 0.9980	41.5600
 0.9990	41.5740
 1.0000	41.5850
 1.0010	43.1830
 1.0020	43.1930
 1.0030	43.2030
 1.0040	43.2100
 1.0050	43.2230
 1.0060	43.2340
 1.0070	43.2410
 1.0080	43.2480
 1.0090	43.2530
 1.0100	43.2600
 1.0110	43.2690
 1.0120	43.2770
 1.0130	43.2840
 1.0140	43.2940
 1.0150	43.3020
 1.0160	43.3120
 1.0170	43.3210
 1.0180	43.3300
 1.0190	43.3370
 1.0200	43.3390
 1.0210	43.3440
 1.0220	43.3540
 1.0230	43.3620
 1.0240	43.3700
 1.0250	43.3800
 1.0260	43.3940
 1.0270	43.4030
 1.0280	43.4100
 1.0290	43.4200
 1.0300	43.4270
 1.0310	43.4340
 1.0320	43.4450
 1.0330	43.4540
 1.0340	43.4600
 1.0350	43.4670
 1.0360	43.4770
 1.0370	43.4880
 1.0380	43.4940
 1.0390	43.4970
 1.0400	43.5030
 1.0410	43.5070
 1.0420	43.5130
 1.0430	43.5250
 1.0440	43.5300
 1.0450	43.5320
 1.0460	43.5350
 1.0470	43.5350
 1.0480	43.5380
 1.0490	43.5440
 1.0500	43.5470
 1.0510	43.5490
 1.0520	43.5500
 1.0530	43.5520
 1.0540	43.5530
 1.0550	43.5540
 1.0560	43.5570
 1.0570	43.5570
 1.0580	43.5540
 1.0590	43.5530
 1.0600	43.5550
 1.0610	43.5540
 1.0620	43.5540
 1.0630	43.5520
 1.0640	43.5460
 1.0650	43.5430
 1.0660	43.5430
 1.0670	43.5410
 1.0680	43.5380
 1.0690	43.5350
 1.0700	43.5310
 1.0710	43.5240
 1.0720	43.5170
 1.0730	43.5080
 1.0740	43.5020
 1.0750	43.4950
 1.0760	43.4880
 1.0770	43.4850
 1.0780	43.4790
 1.0790	43.4680
 1.0800	43.4600
 1.0810	43.4510
 1.0820	43.4420
 1.0830	43.4330
 1.0840	43.4260
 1.0850	43.4210
 1.0860	43.4150
 1.0870	43.4070
 1.0880	43.4010
 1.0890	43.3910
 1.0900	43.3760
 1.0910	43.3660
 1.0920	43.3590
 1.0930	43.3500
 1.0940	43.3430
 1.0950	43.3350
 1.0960	43.3280
 1.0970	43.3190
 1.0980	43.3100
 1.0990	43.3000
 1.1000	43.2880
 1.1010	43.2770
 1.1020	43.2660
 1.1030	43.2550
 1.1040	43.2450
 1.1050	43.2360
 1.1060	43.2250
 1.1070	43.2120
 1.1080	43.2010
 1.1090	43.1880
 1.1100	43.1760
 1.1110	43.1650
 1.1120	43.1540
 1.1130	43.1420
 1.1140	43.1290
 1.1150	43.1170
 1.1160	43.1020
 1.1170	43.0850
 1.1180	43.0670
 1.1190	43.0450
 1.1200	43.0240
 1.1210	43.0040
 1.1220	42.9800
 1.1230	42.9550
 1.1240	42.9280
 1.1250	42.8960
 1.1260	42.8600
 1.1270	42.8210
 1.1280	42.7780
 1.1290	42.7330
 1.1300	42.6860
 1.1310	42.6330
 1.1320	42.5780
 1.1330	42.5170
 1.1340	42.4480
 1.1350	42.3770
 1.1360	42.3030
 1.1370	42.2240
 1.1380	42.1430
 1.1390	42.0580
 1.1400	41.9660
 1.1410	41.8730
 1.1420	41.7800
 1.1430	41.6830
 1.1440	41.5890
 1.1450	41.4940
 1.1460	41.4000
 1.1470	41.3070
 1.1480	41.2170
 1.1490	41.1270
 1.1500	41.0440
 1.1510	40.9650
 1.1520	40.8910
 1.1530	40.8240
 1.1540	40.7590
 1.1550	40.6980
 1.1560	40.6400
 1.1570	40.5860
 1.1580	40.5390
 1.1590	40.5000
 1.1600	40.4650
 1.1610	40.4310
 1.1620	40.4020
 1.1630	40.3740
 1.1640	40.3460
 1.1650	40.3220
 1.1660	40.3000
 1.1670	40.2810
 1.1680	40.2650
 1.1690	40.2490
 1.1700	40.2340
 1.1710	40.2190
 1.1720	40.2040
 1.1730	40.1890
 1.1740	40.1740
 1.1750	40.1600
 1.1760	40.1450
 1.1770	40.1300
 1.1780	40.1160
 1.1790	40.1010
 1.1800	40.0860
 1.1810	40.0700
 1.1820	40.0530
 1.1830	40.0360
 1.1840	40.0190
 1.1850	40.0010
 1.1860	39.9850
 1.1870	39.9710
 1.1880	39.9560
 1.1890	39.9420
 1.1900	39.9290
 1.1910	39.9140
 1.1920	39.9020
 1.1930	39.8900
 1.1940	39.8780
 1.1950	39.8670
 1.1960	39.8580
 1.1970	39.8490
 1.1980	39.8430
 1.1990	39.8380
 1.2000	39.8340
 1.2010	39.8330
 1.2020	39.8310
 1.2030	39.8310
 1.2040	39.8310
 1.2050	39.8300
 1.2060	39.8310
 1.2070	39.8330
 1.2080	39.8360
 1.2090	39.8440
 1.2100	39.8510
 1.2110	39.8580
 1.2120	39.8660
 1.2130	39.8770
 1.2140	39.8890
 1.2150	39.9010
 1.2160	39.9170
 1.2170	39.9320
 1.2180	39.9460
 1.2190	39.9610
 1.2200	39.9750
 1.2210	39.9920
 1.2220	40.0110
 1.2230	40.0290
 1.2240	40.0490
 1.2250	40.0680
 1.2260	40.0840
 1.2270	40.1030
 1.2280	40.1230
 1.2290	40.1410
 1.2300	40.1580
 1.2310	40.1740
 1.2320	40.1860
 1.2330	40.1990
 1.2340	40.2120
 1.2350	40.2250
 1.2360	40.2380
 1.2370	40.2510
 1.2380	40.2640
 1.2390	40.2750
 1.2400	40.2830
 1.2410	40.2920
 1.2420	40.3010
 1.2430	40.3090
 1.2440	40.3180
 1.2450	40.3270
 1.2460	40.3340
 1.2470	40.3400
 1.2480	40.3450
 1.2490	40.3490
 1.2500	40.3530
 1.2510	40.3580
 1.2520	40.3630
 1.2530	40.3680
 1.2540	40.3720
 1.2550	40.3760
 1.2560	40.3800
 1.2570	40.3810
 1.2580	40.3820
 1.2590	40.3820
 1.2600	40.3800
 1.2610	40.3790
 1.2620	40.3780
 1.2630	40.3760
 1.2640	40.3720
 1.2650	40.3690
 1.2660	40.3670
 1.2670	40.3610
 1.2680	40.3550
 1.2690	40.3490
 1.2700	40.3420
 1.2710	40.3360
 1.2720	40.3300
 1.2730	40.3250
 1.2740	40.3180
 1.2750	40.3110
 1.2760	40.3010
 1.2770	40.2910
 1.2780	40.2790
 1.2790	40.2650
 1.2800	40.2510
 1.2810	40.2360
 1.2820	40.2190
 1.2830	40.2020
 1.2840	40.1810
 1.2850	40.1590
 1.2860	40.1380
 1.2870	40.1150
 1.2880	40.0880
 1.2890	40.0600
 1.2900	40.0320
 1.2910	39.9990
 1.2920	39.9660
 1.2930	39.9330
 1.2940	39.8970
 1.2950	39.8570
 1.2960	39.8160
 1.2970	39.7730
 1.2980	39.7270
 1.2990	39.6800
 1.3000	39.6330
 1.3010	39.5840
 1.3020	39.5340
 1.3030	39.4820
 1.3040	39.4280
 1.3050	39.3730
 1.3060	39.3180
 1.3070	39.2610
 1.3080	39.2030
 1.3090	39.1450
 1.3100	39.0830
 1.3110	39.0200
 1.3120	38.9530
 1.3130	38.8850
 1.3140	38.8150
 1.3150	38.7450
 1.3160	38.6720
 1.3170	38.5990
 1.3180	38.5230
 1.3190	38.4440
 1.3200	38.3660
 1.3210	38.2870
 1.3220	38.2050
 1.3230	38.1250
 1.3240	38.0410
 1.3250	37.9550
 1.3260	37.8690
 1.3270	37.7790
 1.3280	37.6870
 1.3290	37.5950
 1.3300	37.5000
 1.3310	37.4040
 1.3320	37.3050
 1.3330	37.2070
 1.3340	37.1070
 1.3350	37.0070
 1.3360	36.9070
 1.3370	36.8050
 1.3380	36.7060
 1.3390	36.6070
 1.3400	36.5070
 1.3410	36.4100
 1.3420	36.3110
 1.3430	36.2120
 1.3440	36.1170
 1.3450	36.0210
 1.3460	35.9250
 1.3470	35.8310
 1.3480	35.7370
 1.3490	35.6440
 1.3500	35.5530
 1.3510	35.4620
 1.3520	35.3710
 1.3530	35.2800
 1.3540	35.1880
 1.3550	35.0950
 1.3560	35.0010
 1.3570	34.9070
 1.3580	34.8110
 1.3590	34.7130
 1.3600	34.6130
 1.3610	34.5090
 1.3620	34.4010
 1.3630	34.2920
 1.3640	34.1770
 1.3650	34.0550
 1.3660	33.9270
 1.3670	33.7890
 1.3680	33.6420
 1.3690	33.4880
 1.3700	33.3210
 1.3710	33.1440
 1.3720	32.9550
 1.3730	32.7510
 1.3740	32.5330
 1.3750	32.3000
 1.3760	32.0460
 1.3770	31.7720
 1.3780	31.4760
 1.3790	31.1600
 1.3800	30.8230
 1.3810	30.4630
 1.3820	30.0850
 1.3830	29.6870
 1.3840	29.2690
 1.3850	28.8300
 1.3860	28.3780
 1.3870	27.9030
 1.3880	27.4220
 1.3890	26.9280
 1.3900	26.4220
 1.3910	25.9130
 1.3920	25.3970
 1.3930	24.8740
 1.3940	24.3530
 1.3950	23.8290
 1.3960	23.3110
 1.3970	22.8020
 1.3980	22.3000
 1.3990	21.8160
 1.4000	21.3440
 1.4010	20.8840
 1.4020	20.4430
 1.4030	20.0160
 1.4040	19.6070
 1.4050	19.2190
 1.4060	18.8490
 1.4070	18.5020
 1.4080	18.1750
 1.4090	17.8660
 1.4100	17.5760
 1.4110	17.3030
 1.4120	17.0460
 1.4130	16.8080
 1.4140	16.5870
 1.4150	16.3840
 1.4160	16.1960
 1.4170	16.0220
 1.4180	15.8620
 1.4190	15.7110
 1.4200	15.5720
 1.4210	15.4450
 1.4220	15.3260
 1.4230	15.2190
 1.4240	15.1210
 1.4250	15.0300
 1.4260	14.9490
 1.4270	14.8730
 1.4280	14.8050
 1.4290	14.7420
 1.4300	14.6860
 1.4310	14.6350
 1.4320	14.5910
 1.4330	14.5510
 1.4340	14.5170
 1.4350	14.4870
 1.4360	14.4630
 1.4370	14.4420
 1.4380	14.4240
 1.4390	14.4100
 1.4400	14.3980
 1.4410	14.3910
 1.4420	14.3870
 1.4430	14.3850
 1.4440	14.3850
 1.4450	14.3870
 1.4460	14.3910
 1.4470	14.3970
 1.4480	14.4050
 1.4490	14.4140
 1.4500	14.4250
 1.4510	14.4380
 1.4520	14.4520
 1.4530	14.4680
 1.4540	14.4860
 1.4550	14.5070
 1.4560	14.5300
 1.4570	14.5550
 1.4580	14.5830
 1.4590	14.6130
 1.4600	14.6470
 1.4610	14.6840
 1.4620	14.7250
 1.4630	14.7710
 1.4640	14.8210
 1.4650	14.8760
 1.4660	14.9360
 1.4670	14.9990
 1.4680	15.0680
 1.4690	15.1410
 1.4700	15.2180
 1.4710	15.2990
 1.4720	15.3830
 1.4730	15.4700
 1.4740	15.5610
 1.4750	15.6550
 1.4760	15.7520
 1.4770	15.8520
 1.4780	15.9530
 1.4790	16.0570
