Name: Melaleuca linariifolia
Type: vegetation
Class: Tree
Genus: Melaleuca
Species: linariifolia
Sample No.: JPL162
Owner: JPL
Wavelength Range: VSWIR
Origin: 34.12556; -118.11365; WGS84
Collection Date: 9/14/2016
Description: Samples were collected at the Huntington Garden in San Marino California as part of a JPL Subcontract studying HyTES imagery. Samples were taken to JPL and processed within 48 hours of collection. The same leaves were processed in the Nicolet and then measured using the ASD.
Measurement: Bidirectional reflectance
First Column: X
Second Column: Y
X Units: Wavelength (micrometer)
Y Units: Reflectance (percentage)
First X Value: 0.35
Last X Value: 2.5
Number of X Values: 2151
Additional Information: vegetation.tree.melaleuca.linariifolia.vswir.jpl162.jpl.asd.ancillary.txt

 0.3500	 4.8750
 0.3510	 4.6980
 0.3520	 4.6480
 0.3530	 4.6640
 0.3540	 4.6560
 0.3550	 4.6440
 0.3560	 4.6530
 0.3570	 4.6580
 0.3580	 4.6150
 0.3590	 4.5450
 0.3600	 4.5100
 0.3610	 4.4890
 0.3620	 4.3340
 0.3630	 4.3280
 0.3640	 4.4270
 0.3650	 4.4960
 0.3660	 4.4150
 0.3670	 4.3890
 0.3680	 4.4320
 0.3690	 4.4240
 0.3700	 4.4030
 0.3710	 4.3630
 0.3720	 4.3310
 0.3730	 4.4040
 0.3740	 4.3880
 0.3750	 4.3220
 0.3760	 4.2980
 0.3770	 4.3000
 0.3780	 4.2780
 0.3790	 4.2440
 0.3800	 4.2540
 0.3810	 4.2590
 0.3820	 4.2810
 0.3830	 4.3150
 0.3840	 4.2560
 0.3850	 4.2010
 0.3860	 4.1800
 0.3870	 4.1920
 0.3880	 4.2210
 0.3890	 4.2460
 0.3900	 4.2600
 0.3910	 4.2720
 0.3920	 4.2630
 0.3930	 4.2620
 0.3940	 4.2830
 0.3950	 4.2770
 0.3960	 4.2600
 0.3970	 4.2560
 0.3980	 4.2860
 0.3990	 4.3220
 0.4000	 4.3300
 0.4010	 4.3120
 0.4020	 4.3270
 0.4030	 4.3350
 0.4040	 4.3500
 0.4050	 4.3850
 0.4060	 4.4190
 0.4070	 4.4490
 0.4080	 4.4710
 0.4090	 4.4830
 0.4100	 4.5160
 0.4110	 4.5650
 0.4120	 4.6120
 0.4130	 4.6160
 0.4140	 4.6390
 0.4150	 4.6790
 0.4160	 4.7170
 0.4170	 4.7440
 0.4180	 4.7770
 0.4190	 4.8140
 0.4200	 4.8320
 0.4210	 4.8700
 0.4220	 4.9100
 0.4230	 4.9350
 0.4240	 4.9550
 0.4250	 4.9800
 0.4260	 5.0040
 0.4270	 5.0130
 0.4280	 5.0340
 0.4290	 5.0520
 0.4300	 5.0650
 0.4310	 5.0910
 0.4320	 5.1070
 0.4330	 5.1220
 0.4340	 5.1450
 0.4350	 5.1600
 0.4360	 5.1660
 0.4370	 5.1710
 0.4380	 5.1870
 0.4390	 5.2040
 0.4400	 5.2160
 0.4410	 5.2210
 0.4420	 5.2380
 0.4430	 5.2620
 0.4440	 5.2920
 0.4450	 5.3270
 0.4460	 5.3630
 0.4470	 5.3980
 0.4480	 5.4320
 0.4490	 5.4710
 0.4500	 5.5050
 0.4510	 5.5360
 0.4520	 5.5680
 0.4530	 5.6050
 0.4540	 5.6340
 0.4550	 5.6540
 0.4560	 5.6690
 0.4570	 5.6900
 0.4580	 5.7040
 0.4590	 5.7040
 0.4600	 5.7080
 0.4610	 5.7110
 0.4620	 5.7170
 0.4630	 5.7260
 0.4640	 5.7190
 0.4650	 5.7130
 0.4660	 5.7150
 0.4670	 5.7120
 0.4680	 5.7130
 0.4690	 5.7140
 0.4700	 5.7110
 0.4710	 5.7030
 0.4720	 5.6960
 0.4730	 5.6950
 0.4740	 5.7040
 0.4750	 5.7090
 0.4760	 5.7100
 0.4770	 5.7110
 0.4780	 5.7180
 0.4790	 5.7210
 0.4800	 5.7210
 0.4810	 5.7250
 0.4820	 5.7320
 0.4830	 5.7440
 0.4840	 5.7600
 0.4850	 5.7780
 0.4860	 5.7990
 0.4870	 5.8200
 0.4880	 5.8450
 0.4890	 5.8820
 0.4900	 5.9300
 0.4910	 5.9780
 0.4920	 6.0160
 0.4930	 6.0730
 0.4940	 6.1430
 0.4950	 6.2240
 0.4960	 6.3100
 0.4970	 6.4050
 0.4980	 6.5120
 0.4990	 6.6300
 0.5000	 6.7630
 0.5010	 6.9060
 0.5020	 7.0590
 0.5030	 7.2290
 0.5040	 7.4170
 0.5050	 7.6170
 0.5060	 7.8280
 0.5070	 8.0530
 0.5080	 8.2950
 0.5090	 8.5540
 0.5100	 8.8260
 0.5110	 9.1130
 0.5120	 9.4160
 0.5130	 9.7330
 0.5140	10.0530
 0.5150	10.3880
 0.5160	10.7360
 0.5170	11.0930
 0.5180	11.4550
 0.5190	11.8240
 0.5200	12.1950
 0.5210	12.5600
 0.5220	12.9210
 0.5230	13.2740
 0.5240	13.6190
 0.5250	13.9500
 0.5260	14.2610
 0.5270	14.5520
 0.5280	14.8300
 0.5290	15.0890
 0.5300	15.3280
 0.5310	15.5460
 0.5320	15.7430
 0.5330	15.9280
 0.5340	16.0980
 0.5350	16.2480
 0.5360	16.3900
 0.5370	16.5170
 0.5380	16.6320
 0.5390	16.7490
 0.5400	16.8770
 0.5410	17.0190
 0.5420	17.1620
 0.5430	17.2810
 0.5440	17.3660
 0.5450	17.4140
 0.5460	17.4300
 0.5470	17.4280
 0.5480	17.4290
 0.5490	17.4440
 0.5500	17.4690
 0.5510	17.4880
 0.5520	17.4920
 0.5530	17.4770
 0.5540	17.4430
 0.5550	17.3910
 0.5560	17.3200
 0.5570	17.2330
 0.5580	17.1340
 0.5590	17.0210
 0.5600	16.8940
 0.5610	16.7590
 0.5620	16.6170
 0.5630	16.4680
 0.5640	16.3160
 0.5650	16.1520
 0.5660	15.9790
 0.5670	15.7990
 0.5680	15.6100
 0.5690	15.4170
 0.5700	15.2180
 0.5710	15.0150
 0.5720	14.8150
 0.5730	14.6230
 0.5740	14.4410
 0.5750	14.2690
 0.5760	14.1010
 0.5770	13.9390
 0.5780	13.7870
 0.5790	13.6450
 0.5800	13.5150
 0.5810	13.3960
 0.5820	13.2840
 0.5830	13.1810
 0.5840	13.0800
 0.5850	12.9790
 0.5860	12.8790
 0.5870	12.7920
 0.5880	12.7100
 0.5890	12.6260
 0.5900	12.5450
 0.5910	12.4710
 0.5920	12.4060
 0.5930	12.3510
 0.5940	12.2990
 0.5950	12.2480
 0.5960	12.1980
 0.5970	12.1530
 0.5980	12.1090
 0.5990	12.0630
 0.6000	12.0090
 0.6010	11.9460
 0.6020	11.8780
 0.6030	11.8040
 0.6040	11.7200
 0.6050	11.6280
 0.6060	11.5280
 0.6070	11.4210
 0.6080	11.3070
 0.6090	11.2030
 0.6100	11.1180
 0.6110	11.0460
 0.6120	10.9190
 0.6130	10.7570
 0.6140	10.5890
 0.6150	10.4480
 0.6160	10.3180
 0.6170	10.1960
 0.6180	10.0850
 0.6190	 9.9880
 0.6200	 9.9030
 0.6210	 9.8260
 0.6220	 9.7500
 0.6230	 9.6860
 0.6240	 9.6340
 0.6250	 9.5940
 0.6260	 9.5580
 0.6270	 9.5290
 0.6280	 9.5070
 0.6290	 9.4900
 0.6300	 9.4780
 0.6310	 9.4640
 0.6320	 9.4380
 0.6330	 9.3970
 0.6340	 9.3470
 0.6350	 9.2850
 0.6360	 9.2050
 0.6370	 9.1060
 0.6380	 8.9890
 0.6390	 8.8550
 0.6400	 8.7080
 0.6410	 8.5460
 0.6420	 8.3750
 0.6430	 8.1980
 0.6440	 8.0170
 0.6450	 7.8350
 0.6460	 7.6570
 0.6470	 7.4890
 0.6480	 7.3370
 0.6490	 7.2050
 0.6500	 7.0900
 0.6510	 6.9900
 0.6520	 6.9020
 0.6530	 6.8210
 0.6540	 6.7400
 0.6550	 6.6540
 0.6560	 6.5590
 0.6570	 6.4510
 0.6580	 6.3290
 0.6590	 6.1970
 0.6600	 6.0550
 0.6610	 5.9050
 0.6620	 5.7530
 0.6630	 5.6020
 0.6640	 5.4580
 0.6650	 5.3240
 0.6660	 5.2030
 0.6670	 5.0970
 0.6680	 5.0050
 0.6690	 4.9280
 0.6700	 4.8680
 0.6710	 4.8210
 0.6720	 4.7860
 0.6730	 4.7640
 0.6740	 4.7540
 0.6750	 4.7540
 0.6760	 4.7620
 0.6770	 4.7820
 0.6780	 4.8130
 0.6790	 4.8590
 0.6800	 4.9200
 0.6810	 5.0040
 0.6820	 5.1170
 0.6830	 5.2680
 0.6840	 5.4610
 0.6850	 5.7060
 0.6860	 6.0110
 0.6870	 6.3840
 0.6880	 6.8350
 0.6890	 7.3660
 0.6900	 7.9800
 0.6910	 8.6810
 0.6920	 9.4650
 0.6930	10.3190
 0.6940	11.2330
 0.6950	12.2020
 0.6960	13.2130
 0.6970	14.2580
 0.6980	15.3260
 0.6990	16.4060
 0.7000	17.4900
 0.7010	18.5690
 0.7020	19.6400
 0.7030	20.6930
 0.7040	21.7260
 0.7050	22.7360
 0.7060	23.7220
 0.7070	24.6830
 0.7080	25.6170
 0.7090	26.5270
 0.7100	27.4160
 0.7110	28.2880
 0.7120	29.1400
 0.7130	29.9660
 0.7140	30.7740
 0.7150	31.5630
 0.7160	32.3330
 0.7170	33.0870
 0.7180	33.8180
 0.7190	34.5260
 0.7200	35.2130
 0.7210	35.8770
 0.7220	36.5160
 0.7230	37.1270
 0.7240	37.7110
 0.7250	38.2700
 0.7260	38.8010
 0.7270	39.3030
 0.7280	39.7790
 0.7290	40.2260
 0.7300	40.6450
 0.7310	41.0400
 0.7320	41.4100
 0.7330	41.7570
 0.7340	42.0810
 0.7350	42.3840
 0.7360	42.6620
 0.7370	42.9210
 0.7380	43.1630
 0.7390	43.3850
 0.7400	43.5920
 0.7410	43.7840
 0.7420	43.9600
 0.7430	44.1170
 0.7440	44.2620
 0.7450	44.3960
 0.7460	44.5190
 0.7470	44.6290
 0.7480	44.7270
 0.7490	44.8140
 0.7500	44.8930
 0.7510	44.9630
 0.7520	45.0260
 0.7530	45.0830
 0.7540	45.1350
 0.7550	45.1800
 0.7560	45.2200
 0.7570	45.2580
 0.7580	45.2930
 0.7590	45.3260
 0.7600	45.3550
 0.7610	45.3810
 0.7620	45.4020
 0.7630	45.4220
 0.7640	45.4420
 0.7650	45.4560
 0.7660	45.4680
 0.7670	45.4810
 0.7680	45.4900
 0.7690	45.5010
 0.7700	45.5120
 0.7710	45.5200
 0.7720	45.5270
 0.7730	45.5340
 0.7740	45.5400
 0.7750	45.5470
 0.7760	45.5530
 0.7770	45.5580
 0.7780	45.5630
 0.7790	45.5690
 0.7800	45.5740
 0.7810	45.5770
 0.7820	45.5790
 0.7830	45.5830
 0.7840	45.5860
 0.7850	45.5870
 0.7860	45.5890
 0.7870	45.5880
 0.7880	45.5860
 0.7890	45.5840
 0.7900	45.5820
 0.7910	45.5790
 0.7920	45.5770
 0.7930	45.5760
 0.7940	45.5710
 0.7950	45.5630
 0.7960	45.5570
 0.7970	45.5530
 0.7980	45.5450
 0.7990	45.5360
 0.8000	45.5260
 0.8010	45.5130
 0.8020	45.5050
 0.8030	45.4960
 0.8040	45.4860
 0.8050	45.4730
 0.8060	45.4590
 0.8070	45.4430
 0.8080	45.4280
 0.8090	45.4160
 0.8100	45.4030
 0.8110	45.3860
 0.8120	45.3670
 0.8130	45.3490
 0.8140	45.3320
 0.8150	45.3160
 0.8160	45.2970
 0.8170	45.2810
 0.8180	45.2630
 0.8190	45.2460
 0.8200	45.2300
 0.8210	45.2130
 0.8220	45.1940
 0.8230	45.1750
 0.8240	45.1600
 0.8250	45.1400
 0.8260	45.1180
 0.8270	45.0990
 0.8280	45.0840
 0.8290	45.0650
 0.8300	45.0450
 0.8310	45.0260
 0.8320	45.0070
 0.8330	44.9890
 0.8340	44.9730
 0.8350	44.9590
 0.8360	44.9480
 0.8370	44.9360
 0.8380	44.9220
 0.8390	44.9120
 0.8400	44.9000
 0.8410	44.8910
 0.8420	44.8840
 0.8430	44.8750
 0.8440	44.8690
 0.8450	44.8640
 0.8460	44.8580
 0.8470	44.8520
 0.8480	44.8440
 0.8490	44.8380
 0.8500	44.8360
 0.8510	44.8320
 0.8520	44.8310
 0.8530	44.8310
 0.8540	44.8250
 0.8550	44.8210
 0.8560	44.8200
 0.8570	44.8200
 0.8580	44.8210
 0.8590	44.8230
 0.8600	44.8260
 0.8610	44.8290
 0.8620	44.8310
 0.8630	44.8350
 0.8640	44.8370
 0.8650	44.8360
 0.8660	44.8420
 0.8670	44.8450
 0.8680	44.8450
 0.8690	44.8510
 0.8700	44.8570
 0.8710	44.8610
 0.8720	44.8650
 0.8730	44.8700
 0.8740	44.8720
 0.8750	44.8790
 0.8760	44.8860
 0.8770	44.8880
 0.8780	44.8950
 0.8790	44.9010
 0.8800	44.9050
 0.8810	44.9130
 0.8820	44.9200
 0.8830	44.9210
 0.8840	44.9210
 0.8850	44.9270
 0.8860	44.9340
 0.8870	44.9400
 0.8880	44.9430
 0.8890	44.9450
 0.8900	44.9500
 0.8910	44.9540
 0.8920	44.9560
 0.8930	44.9630
 0.8940	44.9680
 0.8950	44.9700
 0.8960	44.9750
 0.8970	44.9760
 0.8980	44.9790
 0.8990	44.9820
 0.9000	44.9780
 0.9010	44.9770
 0.9020	44.9800
 0.9030	44.9860
 0.9040	44.9870
 0.9050	44.9820
 0.9060	44.9770
 0.9070	44.9750
 0.9080	44.9800
 0.9090	44.9820
 0.9100	44.9820
 0.9110	44.9820
 0.9120	44.9770
 0.9130	44.9780
 0.9140	44.9760
 0.9150	44.9670
 0.9160	44.9630
 0.9170	44.9680
 0.9180	44.9690
 0.9190	44.9530
 0.9200	44.9390
 0.9210	44.9350
 0.9220	44.9290
 0.9230	44.9080
 0.9240	44.8950
 0.9250	44.8800
 0.9260	44.8620
 0.9270	44.8470
 0.9280	44.8270
 0.9290	44.8020
 0.9300	44.7740
 0.9310	44.7480
 0.9320	44.7210
 0.9330	44.6950
 0.9340	44.6700
 0.9350	44.6410
 0.9360	44.6090
 0.9370	44.5710
 0.9380	44.5300
 0.9390	44.4930
 0.9400	44.4590
 0.9410	44.4200
 0.9420	44.3730
 0.9430	44.3250
 0.9440	44.2800
 0.9450	44.2290
 0.9460	44.1680
 0.9470	44.1040
 0.9480	44.0400
 0.9490	43.9770
 0.9500	43.9120
 0.9510	43.8330
 0.9520	43.7510
 0.9530	43.6710
 0.9540	43.5960
 0.9550	43.5230
 0.9560	43.4420
 0.9570	43.3620
 0.9580	43.2930
 0.9590	43.2330
 0.9600	43.1710
 0.9610	43.1150
 0.9620	43.0730
 0.9630	43.0150
 0.9640	42.9610
 0.9650	42.9220
 0.9660	42.8980
 0.9670	42.8600
 0.9680	42.8320
 0.9690	42.8100
 0.9700	42.7830
 0.9710	42.7710
 0.9720	42.7530
 0.9730	42.7250
 0.9740	42.6960
 0.9750	42.6860
 0.9760	42.6730
 0.9770	42.6580
 0.9780	42.6520
 0.9790	42.6520
 0.9800	42.6460
 0.9810	42.6330
 0.9820	42.6240
 0.9830	42.6270
 0.9840	42.6390
 0.9850	42.6450
 0.9860	42.6350
 0.9870	42.6380
 0.9880	42.6450
 0.9890	42.6530
 0.9900	42.6650
 0.9910	42.6770
 0.9920	42.6890
 0.9930	42.6960
 0.9940	42.7000
 0.9950	42.7190
 0.9960	42.7430
 0.9970	42.7580
 0.9980	42.7590
 0.9990	42.7890
 1.0000	42.8140
 1.0010	42.9670
 1.0020	42.9840
 1.0030	43.0010
 1.0040	43.0190
 1.0050	43.0420
 1.0060	43.0660
 1.0070	43.0910
 1.0080	43.1120
 1.0090	43.1270
 1.0100	43.1480
 1.0110	43.1690
 1.0120	43.1900
 1.0130	43.2160
 1.0140	43.2390
 1.0150	43.2620
 1.0160	43.2810
 1.0170	43.2990
 1.0180	43.3210
 1.0190	43.3420
 1.0200	43.3630
 1.0210	43.3850
 1.0220	43.4080
 1.0230	43.4290
 1.0240	43.4470
 1.0250	43.4660
 1.0260	43.4870
 1.0270	43.5070
 1.0280	43.5280
 1.0290	43.5470
 1.0300	43.5610
 1.0310	43.5790
 1.0320	43.5980
 1.0330	43.6170
 1.0340	43.6420
 1.0350	43.6610
 1.0360	43.6790
 1.0370	43.6980
 1.0380	43.7140
 1.0390	43.7280
 1.0400	43.7420
 1.0410	43.7530
 1.0420	43.7670
 1.0430	43.7830
 1.0440	43.7960
 1.0450	43.8110
 1.0460	43.8240
 1.0470	43.8340
 1.0480	43.8450
 1.0490	43.8570
 1.0500	43.8670
 1.0510	43.8780
 1.0520	43.8870
 1.0530	43.8990
 1.0540	43.9100
 1.0550	43.9210
 1.0560	43.9340
 1.0570	43.9440
 1.0580	43.9540
 1.0590	43.9610
 1.0600	43.9680
 1.0610	43.9730
 1.0620	43.9750
 1.0630	43.9800
 1.0640	43.9850
 1.0650	43.9900
 1.0660	43.9970
 1.0670	44.0020
 1.0680	44.0060
 1.0690	44.0100
 1.0700	44.0110
 1.0710	44.0110
 1.0720	44.0110
 1.0730	44.0080
 1.0740	44.0090
 1.0750	44.0120
 1.0760	44.0130
 1.0770	44.0140
 1.0780	44.0130
 1.0790	44.0080
 1.0800	44.0060
 1.0810	44.0050
 1.0820	44.0020
 1.0830	44.0020
 1.0840	43.9960
 1.0850	43.9870
 1.0860	43.9760
 1.0870	43.9670
 1.0880	43.9550
 1.0890	43.9460
 1.0900	43.9400
 1.0910	43.9310
 1.0920	43.9230
 1.0930	43.9120
 1.0940	43.8990
 1.0950	43.8860
 1.0960	43.8720
 1.0970	43.8580
 1.0980	43.8440
 1.0990	43.8280
 1.1000	43.8100
 1.1010	43.7940
 1.1020	43.7760
 1.1030	43.7600
 1.1040	43.7460
 1.1050	43.7300
 1.1060	43.7110
 1.1070	43.6910
 1.1080	43.6710
 1.1090	43.6500
 1.1100	43.6280
 1.1110	43.6070
 1.1120	43.5840
 1.1130	43.5600
 1.1140	43.5340
 1.1150	43.5080
 1.1160	43.4800
 1.1170	43.4500
 1.1180	43.4170
 1.1190	43.3840
 1.1200	43.3480
 1.1210	43.3090
 1.1220	43.2650
 1.1230	43.2150
 1.1240	43.1610
 1.1250	43.1020
 1.1260	43.0400
 1.1270	42.9690
 1.1280	42.8940
 1.1290	42.8080
 1.1300	42.7140
 1.1310	42.6130
 1.1320	42.5060
 1.1330	42.3890
 1.1340	42.2630
 1.1350	42.1290
 1.1360	41.9880
 1.1370	41.8370
 1.1380	41.6790
 1.1390	41.5160
 1.1400	41.3460
 1.1410	41.1720
 1.1420	40.9970
 1.1430	40.8200
 1.1440	40.6440
 1.1450	40.4640
 1.1460	40.2930
 1.1470	40.1230
 1.1480	39.9600
 1.1490	39.7990
 1.1500	39.6490
 1.1510	39.5040
 1.1520	39.3690
 1.1530	39.2430
 1.1540	39.1250
 1.1550	39.0140
 1.1560	38.9100
 1.1570	38.8150
 1.1580	38.7300
 1.1590	38.6510
 1.1600	38.5790
 1.1610	38.5150
 1.1620	38.4550
 1.1630	38.3980
 1.1640	38.3450
 1.1650	38.2960
 1.1660	38.2510
 1.1670	38.2080
 1.1680	38.1700
 1.1690	38.1310
 1.1700	38.0940
 1.1710	38.0580
 1.1720	38.0230
 1.1730	37.9870
 1.1740	37.9530
 1.1750	37.9160
 1.1760	37.8770
 1.1770	37.8410
 1.1780	37.8030
 1.1790	37.7650
 1.1800	37.7270
 1.1810	37.6890
 1.1820	37.6510
 1.1830	37.6150
 1.1840	37.5820
 1.1850	37.5490
 1.1860	37.5190
 1.1870	37.4900
 1.1880	37.4650
 1.1890	37.4400
 1.1900	37.4200
 1.1910	37.4020
 1.1920	37.3880
 1.1930	37.3770
 1.1940	37.3680
 1.1950	37.3600
 1.1960	37.3570
 1.1970	37.3550
 1.1980	37.3560
 1.1990	37.3600
 1.2000	37.3670
 1.2010	37.3760
 1.2020	37.3870
 1.2030	37.4010
 1.2040	37.4150
 1.2050	37.4320
 1.2060	37.4500
 1.2070	37.4700
 1.2080	37.4910
 1.2090	37.5130
 1.2100	37.5370
 1.2110	37.5630
 1.2120	37.5900
 1.2130	37.6180
 1.2140	37.6480
 1.2150	37.6790
 1.2160	37.7100
 1.2170	37.7450
 1.2180	37.7790
 1.2190	37.8140
 1.2200	37.8500
 1.2210	37.8850
 1.2220	37.9210
 1.2230	37.9590
 1.2240	37.9980
 1.2250	38.0350
 1.2260	38.0710
 1.2270	38.1050
 1.2280	38.1400
 1.2290	38.1730
 1.2300	38.2050
 1.2310	38.2350
 1.2320	38.2650
 1.2330	38.2930
 1.2340	38.3210
 1.2350	38.3510
 1.2360	38.3780
 1.2370	38.4040
 1.2380	38.4280
 1.2390	38.4520
 1.2400	38.4740
 1.2410	38.4950
 1.2420	38.5150
 1.2430	38.5360
 1.2440	38.5540
 1.2450	38.5710
 1.2460	38.5880
 1.2470	38.6040
 1.2480	38.6210
 1.2490	38.6380
 1.2500	38.6550
 1.2510	38.6710
 1.2520	38.6840
 1.2530	38.6950
 1.2540	38.7050
 1.2550	38.7140
 1.2560	38.7240
 1.2570	38.7330
 1.2580	38.7400
 1.2590	38.7470
 1.2600	38.7520
 1.2610	38.7560
 1.2620	38.7570
 1.2630	38.7590
 1.2640	38.7590
 1.2650	38.7580
 1.2660	38.7570
 1.2670	38.7530
 1.2680	38.7490
 1.2690	38.7440
 1.2700	38.7360
 1.2710	38.7280
 1.2720	38.7200
 1.2730	38.7090
 1.2740	38.6980
 1.2750	38.6840
 1.2760	38.6690
 1.2770	38.6530
 1.2780	38.6340
 1.2790	38.6130
 1.2800	38.5910
 1.2810	38.5670
 1.2820	38.5420
 1.2830	38.5190
 1.2840	38.4920
 1.2850	38.4620
 1.2860	38.4310
 1.2870	38.3980
 1.2880	38.3620
 1.2890	38.3250
 1.2900	38.2860
 1.2910	38.2450
 1.2920	38.2020
 1.2930	38.1570
 1.2940	38.1100
 1.2950	38.0620
 1.2960	38.0110
 1.2970	37.9570
 1.2980	37.9000
 1.2990	37.8420
 1.3000	37.7820
 1.3010	37.7190
 1.3020	37.6550
 1.3030	37.5850
 1.3040	37.5110
 1.3050	37.4360
 1.3060	37.3560
 1.3070	37.2720
 1.3080	37.1890
 1.3090	37.1020
 1.3100	37.0120
 1.3110	36.9200
 1.3120	36.8230
 1.3130	36.7210
 1.3140	36.6150
 1.3150	36.5050
 1.3160	36.3920
 1.3170	36.2760
 1.3180	36.1570
 1.3190	36.0360
 1.3200	35.9120
 1.3210	35.7840
 1.3220	35.6540
 1.3230	35.5190
 1.3240	35.3810
 1.3250	35.2420
 1.3260	35.1000
 1.3270	34.9560
 1.3280	34.8100
 1.3290	34.6610
 1.3300	34.5090
 1.3310	34.3540
 1.3320	34.1990
 1.3330	34.0430
 1.3340	33.8860
 1.3350	33.7270
 1.3360	33.5690
 1.3370	33.4100
 1.3380	33.2510
 1.3390	33.0930
 1.3400	32.9360
 1.3410	32.7810
 1.3420	32.6270
 1.3430	32.4750
 1.3440	32.3250
 1.3450	32.1750
 1.3460	32.0260
 1.3470	31.8800
 1.3480	31.7330
 1.3490	31.5900
 1.3500	31.4490
 1.3510	31.3090
 1.3520	31.1690
 1.3530	31.0310
 1.3540	30.8920
 1.3550	30.7520
 1.3560	30.6140
 1.3570	30.4740
 1.3580	30.3340
 1.3590	30.1920
 1.3600	30.0450
 1.3610	29.8970
 1.3620	29.7430
 1.3630	29.5850
 1.3640	29.4220
 1.3650	29.2520
 1.3660	29.0780
 1.3670	28.8940
 1.3680	28.7010
 1.3690	28.4980
 1.3700	28.2790
 1.3710	28.0480
 1.3720	27.8050
 1.3730	27.5430
 1.3740	27.2680
 1.3750	26.9750
 1.3760	26.6610
 1.3770	26.3280
 1.3780	25.9710
 1.3790	25.5940
 1.3800	25.1960
 1.3810	24.7740
 1.3820	24.3380
 1.3830	23.8840
 1.3840	23.4140
 1.3850	22.9250
 1.3860	22.4280
 1.3870	21.9110
 1.3880	21.3960
 1.3890	20.8720
 1.3900	20.3440
 1.3910	19.8210
 1.3920	19.2960
 1.3930	18.7730
 1.3940	18.2580
 1.3950	17.7450
 1.3960	17.2430
 1.3970	16.7560
 1.3980	16.2810
 1.3990	15.8280
 1.4000	15.3910
 1.4010	14.9700
 1.4020	14.5700
 1.4030	14.1860
 1.4040	13.8220
 1.4050	13.4790
 1.4060	13.1520
 1.4070	12.8480
 1.4080	12.5630
 1.4090	12.2930
 1.4100	12.0440
 1.4110	11.8080
 1.4120	11.5870
 1.4130	11.3830
 1.4140	11.1920
 1.4150	11.0180
 1.4160	10.8570
 1.4170	10.7050
 1.4180	10.5650
 1.4190	10.4340
 1.4200	10.3120
 1.4210	10.1990
 1.4220	10.0940
 1.4230	 9.9990
 1.4240	 9.9100
 1.4250	 9.8260
 1.4260	 9.7500
 1.4270	 9.6780
 1.4280	 9.6120
 1.4290	 9.5510
 1.4300	 9.4960
 1.4310	 9.4460
 1.4320	 9.4010
 1.4330	 9.3580
 1.4340	 9.3200
 1.4350	 9.2850
 1.4360	 9.2530
 1.4370	 9.2250
 1.4380	 9.2010
 1.4390	 9.1790
 1.4400	 9.1600
 1.4410	 9.1440
 1.4420	 9.1310
 1.4430	 9.1200
 1.4440	 9.1100
 1.4450	 9.1020
 1.4460	 9.0970
 1.4470	 9.0920
 1.4480	 9.0900
 1.4490	 9.0890
 1.4500	 9.0900
 1.4510	 9.0920
 1.4520	 9.0950
 1.4530	 9.1010
 1.4540	 9.1070
 1.4550	 9.1160
 1.4560	 9.1260
 1.4570	 9.1380
 1.4580	 9.1530
 1.4590	 9.1710
 1.4600	 9.1910
 1.4610	 9.2140
 1.4620	 9.2400
 1.4630	 9.2700
 1.4640	 9.3020
 1.4650	 9.3380
 1.4660	 9.3790
 1.4670	 9.4220
 1.4680	 9.4700
 1.4690	 9.5200
 1.4700	 9.5730
 1.4710	 9.6290
 1.4720	 9.6890
 1.4730	 9.7510
 1.4740	 9.8170
 1.4750	 9.8840
 1.4760	 9.9540
