Name: Ceanothus megacarpus 2
Type: vegetation
Class: Shrub
Genus: Ceanothus
Species: megacarpus
Sample No.: VH214
Owner: UCSB
Wavelength Range: TIR
Origin: 34.4909; -119.7914; WGS84
Collection Date: 10/13/2013
Description: Samples were collected as part of the HyspIRI Airborne Campaign. 48 individual plants were sampled in three times in 2013 - spring  summer  and fall. The name of the sample includes a 1  2  or 3 which references a different individual of the species. Samples were taken to JPL and processed within 48 hours of collection. The same leaves were processed in the Nicolet and then measured using the ASD.
Measurement: Hemispherical reflectance
First Column: X
Second Column: Y
X Units: Wavelength (micrometers)
Y Units: Reflectance (percentage)
First X Value: 2.501
Last X Value: 15.387
Number of X Values: 1737
Additional Information: vegetation.shrub.ceanothus.megacarpus.tir.vh214.ucsb.nicolet.ancillary.txt

 2.5010	 5.3220
 2.5030	 5.3200
 2.5040	 5.2750
 2.5050	 5.1220
 2.5060	 5.1320
 2.5070	 5.0870
 2.5090	 5.3090
 2.5100	 5.3550
 2.5110	 5.1270
 2.5120	 5.1370
 2.5140	 5.2570
 2.5150	 5.3410
 2.5160	 5.3990
 2.5170	 5.3820
 2.5180	 5.5220
 2.5200	 5.5040
 2.5210	 5.4890
 2.5220	 5.3850
 2.5230	 5.2670
 2.5250	 5.2390
 2.5260	 5.2360
 2.5270	 5.2320
 2.5280	 5.2930
 2.5290	 5.2940
 2.5310	 5.4520
 2.5320	 5.4580
 2.5330	 5.5320
 2.5340	 5.4750
 2.5360	 5.2670
 2.5370	 5.1860
 2.5380	 5.3710
 2.5390	 5.3340
 2.5410	 5.3040
 2.5420	 5.5200
 2.5430	 5.5710
 2.5440	 5.1620
 2.5460	 5.1490
 2.5470	 5.4480
 2.5480	 5.4570
 2.5490	 5.3710
 2.5510	 5.3190
 2.5520	 5.2200
 2.5530	 5.3540
 2.5540	 5.3630
 2.5560	 5.2730
 2.5570	 5.1620
 2.5580	 5.2980
 2.5590	 5.2340
 2.5610	 5.2320
 2.5620	 5.2940
 2.5630	 5.3360
 2.5640	 5.4670
 2.5660	 5.4320
 2.5670	 5.3130
 2.5680	 5.4330
 2.5700	 5.6320
 2.5710	 5.7400
 2.5720	 5.3470
 2.5730	 5.2580
 2.5750	 5.5360
 2.5760	 5.5990
 2.5770	 5.4570
 2.5790	 5.6030
 2.5800	 5.7360
 2.5810	 5.5920
 2.5820	 5.4190
 2.5840	 5.3110
 2.5850	 5.1580
 2.5860	 5.2400
 2.5880	 5.3220
 2.5890	 5.4820
 2.5900	 5.2560
 2.5910	 5.0920
 2.5930	 5.1330
 2.5940	 5.3260
 2.5950	 5.3460
 2.5970	 5.2670
 2.5980	 5.3900
 2.5990	 5.5470
 2.6000	 5.4530
 2.6020	 5.4550
 2.6030	 5.4530
 2.6040	 5.4110
 2.6060	 5.3870
 2.6070	 5.5670
 2.6080	 5.5910
 2.6100	 5.4200
 2.6110	 5.1630
 2.6120	 5.2010
 2.6140	 5.3080
 2.6150	 5.2390
 2.6160	 5.1760
 2.6180	 5.2550
 2.6190	 5.2020
 2.6200	 5.1200
 2.6220	 5.0470
 2.6230	 5.2050
 2.6240	 5.1940
 2.6260	 5.3680
 2.6270	 5.4590
 2.6280	 5.3800
 2.6300	 5.4280
 2.6310	 5.4210
 2.6320	 5.1540
 2.6340	 5.1020
 2.6350	 5.0080
 2.6360	 5.0380
 2.6380	 5.0660
 2.6390	 5.2050
 2.6400	 5.2650
 2.6420	 5.2910
 2.6430	 5.2630
 2.6440	 5.2090
 2.6460	 5.1310
 2.6470	 5.0180
 2.6480	 4.8530
 2.6500	 5.0380
 2.6510	 5.0800
 2.6520	 4.9250
 2.6540	 4.8330
 2.6550	 4.8820
 2.6560	 4.9260
 2.6580	 5.1200
 2.6590	 5.2310
 2.6610	 5.2630
 2.6620	 5.1010
 2.6630	 4.9480
 2.6650	 4.9370
 2.6660	 4.7000
 2.6670	 4.6130
 2.6690	 4.8380
 2.6700	 4.9320
 2.6720	 4.9800
 2.6730	 4.8260
 2.6740	 4.9740
 2.6760	 5.1350
 2.6770	 4.9400
 2.6780	 4.6680
 2.6800	 4.6010
 2.6810	 4.5840
 2.6830	 4.7810
 2.6840	 4.9360
 2.6850	 4.8820
 2.6870	 4.8560
 2.6880	 4.8250
 2.6900	 4.7390
 2.6910	 4.8210
 2.6920	 4.9600
 2.6940	 4.9660
 2.6950	 4.7850
 2.6970	 4.7620
 2.6980	 4.9410
 2.6990	 5.0920
 2.7010	 4.9450
 2.7020	 5.0700
 2.7040	 4.9270
 2.7050	 4.6940
 2.7060	 4.6750
 2.7080	 4.7610
 2.7090	 4.6950
 2.7110	 4.8160
 2.7120	 4.8180
 2.7130	 4.8020
 2.7150	 4.6950
 2.7160	 4.6690
 2.7180	 4.7040
 2.7190	 5.0540
 2.7210	 5.1010
 2.7220	 4.6490
 2.7230	 4.3980
 2.7250	 4.6830
 2.7260	 4.7260
 2.7280	 4.3560
 2.7290	 4.4540
 2.7310	 4.7910
 2.7320	 4.6540
 2.7330	 4.8580
 2.7350	 4.8520
 2.7360	 4.6270
 2.7380	 4.4880
 2.7390	 4.5230
 2.7410	 4.0410
 2.7420	 3.8610
 2.7440	 4.3400
 2.7450	 4.8120
 2.7470	 4.8180
 2.7480	 4.6530
 2.7490	 4.1990
 2.7510	 4.4050
 2.7520	 4.5720
 2.7540	 4.3850
 2.7550	 4.0350
 2.7570	 4.0120
 2.7580	 4.4300
 2.7600	 4.6140
 2.7610	 4.0860
 2.7630	 4.3340
 2.7640	 5.0720
 2.7660	 4.9450
 2.7670	 4.4670
 2.7680	 4.8680
 2.7700	 4.9350
 2.7710	 5.0490
 2.7730	 5.0280
 2.7740	 4.6710
 2.7760	 4.1700
 2.7770	 4.0430
 2.7790	 4.3390
 2.7800	 4.4950
 2.7820	 4.5030
 2.7830	 4.6740
 2.7850	 4.6480
 2.7860	 4.5740
 2.7880	 4.4940
 2.7890	 4.7390
 2.7910	 4.5920
 2.7920	 4.5580
 2.7940	 4.5070
 2.7950	 4.2170
 2.7970	 4.3370
 2.7980	 4.8840
 2.8000	 4.8090
 2.8010	 4.4280
 2.8030	 4.2700
 2.8040	 4.1720
 2.8060	 4.2230
 2.8070	 4.3310
 2.8090	 4.3330
 2.8110	 4.5070
 2.8120	 4.5020
 2.8140	 4.4690
 2.8150	 4.2810
 2.8170	 4.4400
 2.8180	 4.3760
 2.8200	 4.1820
 2.8210	 4.5810
 2.8230	 5.0340
 2.8240	 4.9820
 2.8260	 4.6230
 2.8270	 4.2640
 2.8290	 4.3730
 2.8300	 4.2220
 2.8320	 4.1270
 2.8340	 4.1820
 2.8350	 4.3630
 2.8370	 4.2220
 2.8380	 4.2210
 2.8400	 4.3090
 2.8410	 4.5970
 2.8430	 4.6890
 2.8440	 4.5240
 2.8460	 4.3080
 2.8480	 4.3280
 2.8490	 4.2980
 2.8510	 4.4330
 2.8520	 4.4920
 2.8540	 4.3910
 2.8550	 4.2540
 2.8570	 4.4690
 2.8590	 4.5450
 2.8600	 4.5710
 2.8620	 4.5470
 2.8630	 4.4180
 2.8650	 4.0420
 2.8660	 3.8910
 2.8680	 4.2250
 2.8700	 4.2380
 2.8710	 4.4230
 2.8730	 4.5470
 2.8740	 4.2780
 2.8760	 4.2610
 2.8780	 4.3960
 2.8790	 4.7890
 2.8810	 4.3800
 2.8820	 4.3520
 2.8840	 4.3470
 2.8860	 4.4530
 2.8870	 4.9940
 2.8890	 4.7970
 2.8900	 4.3340
 2.8920	 4.2600
 2.8940	 4.5470
 2.8950	 4.1770
 2.8970	 3.9880
 2.8980	 4.4820
 2.9000	 4.7070
 2.9020	 4.8120
 2.9030	 4.7380
 2.9050	 4.9230
 2.9070	 5.2220
 2.9080	 4.8630
 2.9100	 4.1660
 2.9120	 4.3170
 2.9130	 4.5050
 2.9150	 4.2340
 2.9160	 4.3830
 2.9180	 4.5300
 2.9200	 4.4490
 2.9210	 4.5040
 2.9230	 4.4540
 2.9250	 4.4870
 2.9260	 4.4500
 2.9280	 4.4790
 2.9300	 4.6070
 2.9310	 4.5410
 2.9330	 4.1970
 2.9350	 4.3380
 2.9360	 4.5300
 2.9380	 4.6090
 2.9400	 4.4610
 2.9410	 4.5770
 2.9430	 5.0160
 2.9450	 4.5810
 2.9460	 3.9930
 2.9480	 4.1470
 2.9500	 4.0040
 2.9510	 4.3680
 2.9530	 4.7850
 2.9550	 4.7320
 2.9560	 4.5200
 2.9580	 4.3310
 2.9600	 3.6890
 2.9610	 3.8170
 2.9630	 4.9800
 2.9650	 4.7130
 2.9660	 4.4440
 2.9680	 5.0900
 2.9700	 5.6940
 2.9720	 4.3830
 2.9730	 2.5600
 2.9750	 4.8050
 2.9770	 5.6140
 2.9780	 4.7020
 2.9800	 5.3010
 2.9820	 4.7960
 2.9840	 3.3380
 2.9850	 3.9940
 2.9870	 5.3560
 2.9890	 7.1180
 2.9900	 5.8170
 2.9920	 5.8060
 2.9940	 6.8280
 2.9960	 5.3100
 2.9970	 0.6990
 2.9990	 1.2690
 3.0010	 3.8800
 3.0030	 4.0630
 3.0040	 3.3270
 3.0060	 2.7010
 3.0080	 2.6460
 3.0100	 2.6500
 3.0110	 3.7830
 3.0130	 4.8730
 3.0150	 4.1100
 3.0170	 3.9560
 3.0180	 4.5570
 3.0200	 4.4920
 3.0220	 4.6760
 3.0240	 5.7060
 3.0250	 5.5540
 3.0270	 4.6160
 3.0290	 4.6020
 3.0310	 5.1960
 3.0320	 5.2270
 3.0340	 4.7650
 3.0360	 3.5660
 3.0380	 2.8550
 3.0400	 3.6580
 3.0410	 6.0590
 3.0430	 5.2600
 3.0450	 3.5120
 3.0470	 3.9820
 3.0480	 3.5090
 3.0500	 5.7740
 3.0520	 7.3220
 3.0540	 5.0730
 3.0560	 5.6820
 3.0570	 7.1470
 3.0590	 6.8810
 3.0610	 6.9030
 3.0630	 6.5610
 3.0650	 4.1600
 3.0660	 1.3220
 3.0680	 3.1920
 3.0700	 5.5310
 3.0720	 5.7100
 3.0740	 5.5080
 3.0760	 4.7360
 3.0770	 4.4780
 3.0790	 4.5790
 3.0810	 4.7920
 3.0830	 4.9280
 3.0850	 4.6160
 3.0870	 4.4670
 3.0880	 4.4660
 3.0900	 4.6520
 3.0920	 4.5570
 3.0940	 4.2590
 3.0960	 4.4420
 3.0980	 4.4850
 3.0990	 4.5880
 3.1010	 4.3680
 3.1030	 4.3440
 3.1050	 4.7950
 3.1070	 5.0020
 3.1090	 4.8320
 3.1110	 4.8810
 3.1120	 4.8440
 3.1140	 4.7720
 3.1160	 4.8300
 3.1180	 5.0380
 3.1200	 4.7100
 3.1220	 4.5250
 3.1240	 4.6590
 3.1260	 4.8300
 3.1270	 4.9330
 3.1290	 4.8540
 3.1310	 4.8680
 3.1330	 5.1660
 3.1350	 5.1510
 3.1370	 3.9760
 3.1390	 3.5840
 3.1410	 5.6930
 3.1430	 6.0930
 3.1450	 4.5190
 3.1460	 2.0230
 3.1480	 3.6570
 3.1500	 4.7910
 3.1520	 3.2810
 3.1540	 3.2000
 3.1560	 2.6360
 3.1580	 3.4280
 3.1600	 4.9080
 3.1620	 4.1040
 3.1640	 2.7570
 3.1660	 2.6090
 3.1680	 2.6200
 3.1700	 3.4390
 3.1710	 2.1020
 3.1730	 1.4550
 3.1750	 5.0790
 3.1770	 6.4700
 3.1790	 7.3940
 3.1810	 6.0440
 3.1830	 3.2820
 3.1850	 3.5360
 3.1870	 4.3190
 3.1890	 3.9090
 3.1910	 3.9020
 3.1930	 4.4430
 3.1950	 4.6390
 3.1970	 4.2040
 3.1990	 4.3490
 3.2010	 4.3950
 3.2030	 3.9260
 3.2050	 3.8430
 3.2070	 4.2530
 3.2090	 4.2950
 3.2110	 4.3770
 3.2130	 4.4840
 3.2150	 4.5170
 3.2170	 4.2510
 3.2190	 4.1450
 3.2210	 4.1620
 3.2230	 4.0700
 3.2250	 4.0320
 3.2270	 4.2840
 3.2290	 4.5080
 3.2310	 4.5370
 3.2330	 4.5240
 3.2350	 4.5590
 3.2370	 4.1150
 3.2390	 3.7870
 3.2410	 3.8570
 3.2430	 4.2500
 3.2450	 4.0850
 3.2470	 4.2090
 3.2490	 4.5730
 3.2510	 4.6280
 3.2530	 4.5110
 3.2550	 5.1740
 3.2570	 5.1950
 3.2590	 4.2200
 3.2610	 3.7590
 3.2630	 4.1270
 3.2650	 4.1360
 3.2670	 4.1150
 3.2690	 4.1760
 3.2720	 4.1890
 3.2740	 3.8920
 3.2760	 4.0300
 3.2780	 4.1460
 3.2800	 3.9560
 3.2820	 3.7810
 3.2840	 3.9160
 3.2860	 4.0620
 3.2880	 4.2040
 3.2900	 4.0800
 3.2920	 4.1730
 3.2940	 3.9170
 3.2960	 3.8000
 3.2990	 3.9980
 3.3010	 3.9350
 3.3030	 3.9260
 3.3050	 3.8690
 3.3070	 3.5810
 3.3090	 4.2500
 3.3110	 4.9370
 3.3130	 4.6710
 3.3150	 4.5490
 3.3180	 4.3020
 3.3200	 3.9750
 3.3220	 3.8690
 3.3240	 3.8980
 3.3260	 4.1500
 3.3280	 4.1200
 3.3300	 4.0660
 3.3330	 4.2330
 3.3350	 4.1370
 3.3370	 4.0730
 3.3390	 4.1480
 3.3410	 4.0520
 3.3430	 4.0760
 3.3450	 4.1660
 3.3480	 4.0600
 3.3500	 3.7020
 3.3520	 3.8460
 3.3540	 4.0800
 3.3560	 4.0920
 3.3580	 3.9310
 3.3610	 4.0450
 3.3630	 3.9840
 3.3650	 3.9070
 3.3670	 3.9140
 3.3690	 3.8100
 3.3720	 3.7580
 3.3740	 3.7580
 3.3760	 3.7620
 3.3780	 3.8480
 3.3800	 3.8280
 3.3830	 3.8100
 3.3850	 3.8420
 3.3870	 4.0780
 3.3890	 4.1280
 3.3910	 4.0480
 3.3940	 4.0510
 3.3960	 3.8140
 3.3980	 3.6070
 3.4000	 3.7650
 3.4020	 3.8820
 3.4050	 3.8960
 3.4070	 4.0650
 3.4090	 4.2340
 3.4110	 4.3430
 3.4140	 4.6340
 3.4160	 4.8590
 3.4180	 5.3640
 3.4200	 6.0240
 3.4230	 6.7420
 3.4250	 7.4080
 3.4270	 8.1440
 3.4290	 8.6900
 3.4320	 8.4540
 3.4340	 7.5280
 3.4360	 6.7230
 3.4390	 6.2400
 3.4410	 6.0850
 3.4430	 5.8940
 3.4450	 5.8320
 3.4480	 5.4430
 3.4500	 5.1010
 3.4520	 5.0360
 3.4550	 4.7780
 3.4570	 4.9160
 3.4590	 5.1870
 3.4620	 5.3950
 3.4640	 5.4180
 3.4660	 5.1280
 3.4680	 4.9540
 3.4710	 5.0720
 3.4730	 5.0450
 3.4750	 4.9600
 3.4780	 4.8670
 3.4800	 4.8300
 3.4820	 4.8410
 3.4850	 4.8810
 3.4870	 4.7340
 3.4890	 4.5340
 3.4920	 4.5680
 3.4940	 4.4680
 3.4970	 4.3940
 3.4990	 4.4500
 3.5010	 4.4190
 3.5040	 4.5670
 3.5060	 5.2510
 3.5080	 6.5160
 3.5110	 7.8470
 3.5130	 8.0560
 3.5160	 7.2430
 3.5180	 6.3180
 3.5200	 5.8350
 3.5230	 5.8340
 3.5250	 5.8490
 3.5270	 5.6790
 3.5300	 5.5030
 3.5320	 5.4060
 3.5350	 5.4300
 3.5370	 5.3490
 3.5400	 5.1290
 3.5420	 5.1190
 3.5440	 5.2860
 3.5470	 5.2410
 3.5490	 5.1030
 3.5520	 5.1970
 3.5540	 5.3140
 3.5570	 5.1230
 3.5590	 5.0240
 3.5610	 5.0400
 3.5640	 4.9950
 3.5660	 4.9470
 3.5690	 5.0850
 3.5710	 5.0250
 3.5740	 4.9460
 3.5760	 4.9990
 3.5790	 5.0930
 3.5810	 5.0990
 3.5840	 5.3280
 3.5860	 5.7110
 3.5890	 5.4590
 3.5910	 5.2550
 3.5930	 5.1750
 3.5960	 4.8850
 3.5980	 5.2220
 3.6010	 5.4350
 3.6030	 5.1420
 3.6060	 4.9010
 3.6080	 4.7480
 3.6110	 4.8020
 3.6140	 4.8730
 3.6160	 4.7550
 3.6190	 4.6790
 3.6210	 4.7500
 3.6240	 4.7700
 3.6260	 4.8260
 3.6290	 4.8240
 3.6310	 4.7960
 3.6340	 4.7730
 3.6360	 4.6400
 3.6390	 4.6870
 3.6410	 4.8520
 3.6440	 4.8610
 3.6470	 4.6910
 3.6490	 4.7200
 3.6520	 4.7730
 3.6540	 4.8100
 3.6570	 4.6970
 3.6590	 4.6910
 3.6620	 4.7700
 3.6650	 4.8540
 3.6670	 4.8040
 3.6700	 4.7880
 3.6720	 4.7190
 3.6750	 4.7800
 3.6780	 4.8730
 3.6800	 4.8080
 3.6830	 4.6570
 3.6850	 4.7580
 3.6880	 4.9060
 3.6910	 4.7930
 3.6930	 4.7070
 3.6960	 4.8640
 3.6990	 4.8390
 3.7010	 4.7940
 3.7040	 4.7850
 3.7060	 4.7700
 3.7090	 4.7520
 3.7120	 4.7910
 3.7140	 4.8770
 3.7170	 4.8420
 3.7200	 4.7740
 3.7220	 4.7930
 3.7250	 4.6860
 3.7280	 4.6550
 3.7300	 4.7220
 3.7330	 4.6410
 3.7360	 4.5320
 3.7390	 4.5510
 3.7410	 4.6650
 3.7440	 4.6440
 3.7470	 4.7110
 3.7490	 4.6080
 3.7520	 4.5400
 3.7550	 4.7250
 3.7580	 4.7420
 3.7600	 4.5610
 3.7630	 4.5270
 3.7660	 4.6050
 3.7680	 4.5050
 3.7710	 4.5900
 3.7740	 4.9270
 3.7770	 5.0710
 3.7790	 4.9440
 3.7820	 4.8940
 3.7850	 4.7950
 3.7880	 4.6400
 3.7900	 4.6200
 3.7930	 4.7080
 3.7960	 4.7120
 3.7990	 4.7320
 3.8020	 4.8840
 3.8040	 4.8610
 3.8070	 4.7240
 3.8100	 4.6770
 3.8130	 4.6040
 3.8160	 4.6070
 3.8180	 4.6220
 3.8210	 4.6240
 3.8240	 4.6600
 3.8270	 4.7820
 3.8300	 4.8330
 3.8330	 4.8260
 3.8350	 4.6320
 3.8380	 4.6430
 3.8410	 4.6910
 3.8440	 4.6840
 3.8470	 4.8210
 3.8500	 4.7970
 3.8520	 4.6850
 3.8550	 4.6650
 3.8580	 4.5890
 3.8610	 4.6570
 3.8640	 4.7190
 3.8670	 4.7100
 3.8700	 4.7220
 3.8730	 4.7050
 3.8750	 4.7260
 3.8780	 4.7700
 3.8810	 4.7990
 3.8840	 4.7310
 3.8870	 4.6960
 3.8900	 4.7610
 3.8930	 4.8070
 3.8960	 4.7720
 3.8990	 4.7120
 3.9020	 4.6830
 3.9050	 4.7000
 3.9080	 4.7700
 3.9110	 4.7750
 3.9140	 4.8180
 3.9160	 4.7840
 3.9190	 4.7790
 3.9220	 4.7460
 3.9250	 4.6260
 3.9280	 4.6030
 3.9310	 4.6870
 3.9340	 4.7480
 3.9370	 4.7670
 3.9400	 4.7150
 3.9430	 4.7460
 3.9460	 4.7020
 3.9490	 4.6650
 3.9520	 4.7040
 3.9550	 4.8130
 3.9580	 4.8310
 3.9610	 4.7410
 3.9640	 4.7760
 3.9670	 4.8250
 3.9700	 4.7370
 3.9730	 4.7260
 3.9770	 4.6970
 3.9800	 4.6820
 3.9830	 4.6920
 3.9860	 4.7030
 3.9890	 4.6590
 3.9920	 4.6750
 3.9950	 4.7480
 3.9980	 4.7900
 4.0010	 4.7520
 4.0040	 4.6840
 4.0070	 4.6020
 4.0100	 4.5810
 4.0130	 4.6830
 4.0170	 4.7350
 4.0200	 4.6570
 4.0230	 4.6520
 4.0260	 4.7540
 4.0290	 4.7700
 4.0320	 4.8000
 4.0350	 4.8440
 4.0380	 4.7370
 4.0420	 4.7070
 4.0450	 4.7740
 4.0480	 4.7690
 4.0510	 4.7660
 4.0540	 4.7430
 4.0570	 4.7240
 4.0610	 4.7980
 4.0640	 4.7620
 4.0670	 4.7900
 4.0700	 4.8340
 4.0730	 4.7870
 4.0770	 4.7200
 4.0800	 4.7220
 4.0830	 4.7530
 4.0860	 4.7460
 4.0890	 4.8170
 4.0930	 4.8780
 4.0960	 4.8560
 4.0990	 4.7600
 4.1020	 4.7710
 4.1060	 4.8220
 4.1090	 4.7690
 4.1120	 4.9210
 4.1150	 4.9880
 4.1190	 4.7770
 4.1220	 4.7390
 4.1250	 4.7420
 4.1280	 4.7280
 4.1320	 4.7600
 4.1350	 4.7610
 4.1380	 4.7570
 4.1420	 4.7550
 4.1450	 4.7750
 4.1480	 4.8510
 4.1520	 4.8280
 4.1550	 4.8120
 4.1580	 4.9110
 4.1620	 4.8600
 4.1650	 4.7750
 4.1680	 4.8450
 4.1720	 4.8540
 4.1750	 4.8520
 4.1780	 4.8230
 4.1820	 4.8680
 4.1850	 4.8890
 4.1890	 4.8880
 4.1920	 4.8280
 4.1950	 4.7350
 4.1990	 4.8380
 4.2020	 4.8680
 4.2060	 4.9290
 4.2090	 5.0570
 4.2120	 5.1990
 4.2160	 5.4670
 4.2190	 5.5600
 4.2230	 5.5910
 4.2260	 5.6400
 4.2300	 5.8180
 4.2330	 6.0330
 4.2360	 6.0070
 4.2400	 6.0490
 4.2430	 6.2330
 4.2470	 6.2420
 4.2500	 5.6790
 4.2540	 5.4220
 4.2570	 5.2420
 4.2610	 5.2120
 4.2640	 5.5820
 4.2680	 5.5410
 4.2710	 5.1760
 4.2750	 5.2790
 4.2780	 5.4630
 4.2820	 5.2330
 4.2850	 5.1990
 4.2890	 5.3640
 4.2930	 5.3030
 4.2960	 5.2640
 4.3000	 5.4280
 4.3030	 5.4500
 4.3070	 5.4200
 4.3100	 5.1890
 4.3140	 4.9940
 4.3180	 5.0220
 4.3210	 5.1690
 4.3250	 5.0800
 4.3280	 4.8500
 4.3320	 4.8620
 4.3360	 4.9590
 4.3390	 4.9070
 4.3430	 4.9100
 4.3470	 4.9060
 4.3500	 4.9300
 4.3540	 4.8440
 4.3570	 4.7440
 4.3610	 4.7200
 4.3650	 4.7370
 4.3680	 4.8190
 4.3720	 4.8020
 4.3760	 4.8640
 4.3800	 4.8830
 4.3830	 4.8180
 4.3870	 4.8500
 4.3910	 4.8760
 4.3940	 4.8450
 4.3980	 4.8500
 4.4020	 4.8090
 4.4060	 4.7460
 4.4090	 4.7880
 4.4130	 4.8090
 4.4170	 4.7480
 4.4210	 4.7570
 4.4240	 4.7950
 4.4280	 4.7260
 4.4320	 4.5820
 4.4360	 4.5830
 4.4400	 4.7950
 4.4430	 4.8840
 4.4470	 4.9000
 4.4510	 4.8390
 4.4550	 4.7360
 4.4590	 4.6960
 4.4620	 4.6760
 4.4660	 4.5870
 4.4700	 4.5990
 4.4740	 4.7610
 4.4780	 4.8400
 4.4820	 4.8790
 4.4860	 4.9330
 4.4900	 4.8900
 4.4930	 4.8080
 4.4970	 4.6350
 4.5010	 4.6180
 4.5050	 4.7270
 4.5090	 4.6670
 4.5130	 4.6270
 4.5170	 4.7200
 4.5210	 4.7820
 4.5250	 4.8050
 4.5290	 4.8770
 4.5330	 4.9050
 4.5370	 4.7380
 4.5410	 4.5690
 4.5450	 4.6370
 4.5490	 4.6710
 4.5530	 4.6040
 4.5570	 4.7380
 4.5610	 4.9170
 4.5650	 4.8240
 4.5690	 4.5710
 4.5730	 4.6910
 4.5770	 4.7480
 4.5810	 4.6080
 4.5850	 4.6560
 4.5890	 4.7860
 4.5930	 4.7920
 4.5970	 4.7790
 4.6010	 4.8120
 4.6050	 4.8780
 4.6090	 4.8310
 4.6130	 4.6860
 4.6170	 4.5660
 4.6220	 4.7450
 4.6260	 4.8790
 4.6300	 4.7850
 4.6340	 4.7680
 4.6380	 4.8170
 4.6420	 4.7830
 4.6460	 4.8060
 4.6510	 4.7790
 4.6550	 4.6980
 4.6590	 4.5970
 4.6630	 4.6550
 4.6670	 4.8520
 4.6720	 4.9150
 4.6760	 4.7460
 4.6800	 4.6860
 4.6840	 4.7710
 4.6880	 4.8010
 4.6930	 4.6900
 4.6970	 4.6640
 4.7010	 4.6870
 4.7050	 4.6570
 4.7100	 4.4860
 4.7140	 4.5510
 4.7180	 4.7420
 4.7230	 4.7290
 4.7270	 4.5830
 4.7310	 4.6570
 4.7360	 4.7150
 4.7400	 4.7410
 4.7440	 4.7960
 4.7490	 4.8080
 4.7530	 4.7900
 4.7570	 4.7580
 4.7620	 4.6720
 4.7660	 4.6490
 4.7700	 4.6340
 4.7750	 4.7400
 4.7790	 4.6670
 4.7840	 4.5690
 4.7880	 4.6740
 4.7920	 4.8450
 4.7970	 4.8920
 4.8010	 4.6550
 4.8060	 4.7190
 4.8100	 4.8450
 4.8150	 4.7860
 4.8190	 4.8120
 4.8240	 4.7260
 4.8280	 4.6410
 4.8330	 4.6340
 4.8370	 4.6550
 4.8420	 4.6460
 4.8460	 4.6510
 4.8510	 4.6310
 4.8550	 4.6640
 4.8600	 4.7280
 4.8640	 4.7520
 4.8690	 4.6430
 4.8730	 4.6530
 4.8780	 4.7490
 4.8830	 4.7530
 4.8870	 4.7020
 4.8920	 4.7030
 4.8960	 4.7310
 4.9010	 4.7970
 4.9060	 4.7390
 4.9100	 4.6920
 4.9150	 4.7100
 4.9200	 4.7330
 4.9240	 4.7510
 4.9290	 4.8290
 4.9340	 4.7620
 4.9380	 4.7430
 4.9430	 4.7590
 4.9480	 4.7820
 4.9530	 4.7500
 4.9570	 4.7230
 4.9620	 4.6520
 4.9670	 4.6490
 4.9720	 4.6500
 4.9760	 4.6550
 4.9810	 4.6880
 4.9860	 4.7360
 4.9910	 4.7490
 4.9960	 4.7780
 5.0000	 4.8030
 5.0050	 4.7870
 5.0100	 4.6820
 5.0150	 4.7490
 5.0200	 4.8120
 5.0250	 4.8670
 5.0290	 4.7200
 5.0340	 4.7090
 5.0390	 4.7310
 5.0440	 4.6050
 5.0490	 4.5920
 5.0540	 4.6670
 5.0590	 4.6980
 5.0640	 4.6780
 5.0690	 4.5980
 5.0740	 4.6370
 5.0790	 4.6700
 5.0840	 4.7970
 5.0890	 4.8450
 5.0940	 4.7030
 5.0990	 4.6110
 5.1040	 4.6790
 5.1090	 4.7030
 5.1140	 4.7740
 5.1190	 4.7480
 5.1240	 4.7020
 5.1290	 4.7200
 5.1340	 4.7500
 5.1390	 4.6540
 5.1440	 4.6560
 5.1490	 4.6740
 5.1540	 4.7390
 5.1600	 4.7220
 5.1650	 4.6460
 5.1700	 4.6310
 5.1750	 4.6850
 5.1800	 4.7210
 5.1850	 4.7770
 5.1910	 4.6930
 5.1960	 4.6600
 5.2010	 4.6880
 5.2060	 4.7680
 5.2110	 4.7810
 5.2170	 4.7730
 5.2220	 4.7220
 5.2270	 4.7210
 5.2320	 4.6920
 5.2380	 4.7050
 5.2430	 4.7710
 5.2480	 4.8410
 5.2540	 4.7760
 5.2590	 4.6780
 5.2640	 4.6100
 5.2700	 4.7850
 5.2750	 4.8310
 5.2800	 4.7600
 5.2860	 4.7500
 5.2910	 4.8320
 5.2970	 4.7200
 5.3020	 4.6870
 5.3070	 4.6380
 5.3130	 4.6770
 5.3180	 4.6930
 5.3240	 4.7320
 5.3290	 4.7360
 5.3350	 4.7270
 5.3400	 4.7200
 5.3460	 4.7740
 5.3510	 4.6980
 5.3570	 4.6560
 5.3620	 4.6320
 5.3680	 4.6760
 5.3730	 4.6680
 5.3790	 4.6390
 5.3850	 4.6180
 5.3900	 4.6770
 5.3960	 4.6470
 5.4010	 4.5930
 5.4070	 4.5520
 5.4130	 4.5550
 5.4180	 4.5300
 5.4240	 4.6210
 5.4300	 4.7420
 5.4350	 4.7840
