Name: Umbellularia californica 1
Type: vegetation
Class: Shrub
Genus: Umbellularia
Species: californica
Sample No.: VH236
Owner: UCSB
Wavelength Range: VSWIR
Origin: 34.5074; -119.7634; WGS84
Collection Date: 10/13/2013
Description: Samples were collected as part of the HyspIRI Airborne Campaign. 48 individual plants were sampled in three times in 2013 - spring  summer  and fall. The name of the sample includes a 1  2  or 3 which references a different individual of the species. Samples were taken to JPL and processed within 48 hours of collection. The same leaves were processed in the Nicolet and then measured using the ASD.
Measurement: Bidirectional reflectance
First Column: X
Second Column: Y
X Units: Wavelength (micrometers)
Y Units: Reflectance (percentage)
First X Value: 0.35
Last X Value: 2.5
Number of X Values: 2151
Additional Information: vegetation.shrub.umbellularia.californica.vswir.vh236.ucsb.asd.ancillary.txt

 0.3500	 8.3870
 0.3510	 8.6350
 0.3520	 8.3630
 0.3530	 8.0190
 0.3540	 8.0540
 0.3550	 8.2130
 0.3560	 8.1400
 0.3570	 8.0760
 0.3580	 8.4350
 0.3590	 8.3410
 0.3600	 8.2930
 0.3610	 8.4000
 0.3620	 8.0220
 0.3630	 7.9860
 0.3640	 8.1250
 0.3650	 8.1390
 0.3660	 8.2710
 0.3670	 8.2440
 0.3680	 8.0960
 0.3690	 8.0740
 0.3700	 8.0980
 0.3710	 8.1260
 0.3720	 8.1230
 0.3730	 8.0570
 0.3740	 8.0170
 0.3750	 8.0540
 0.3760	 8.1510
 0.3770	 8.0520
 0.3780	 8.0190
 0.3790	 8.0740
 0.3800	 8.0300
 0.3810	 8.0270
 0.3820	 8.0330
 0.3830	 8.0320
 0.3840	 8.1200
 0.3850	 8.0820
 0.3860	 7.9980
 0.3870	 8.0110
 0.3880	 7.9450
 0.3890	 7.9750
 0.3900	 8.0930
 0.3910	 8.0880
 0.3920	 8.0070
 0.3930	 7.9630
 0.3940	 8.0060
 0.3950	 8.0050
 0.3960	 7.9820
 0.3970	 7.9900
 0.3980	 8.0760
 0.3990	 8.0800
 0.4000	 8.0200
 0.4010	 7.9620
 0.4020	 8.0160
 0.4030	 8.0650
 0.4040	 8.0940
 0.4050	 8.1100
 0.4060	 8.1150
 0.4070	 8.1040
 0.4080	 8.0880
 0.4090	 8.0950
 0.4100	 8.1450
 0.4110	 8.1820
 0.4120	 8.1780
 0.4130	 8.1850
 0.4140	 8.1920
 0.4150	 8.2120
 0.4160	 8.2500
 0.4170	 8.2570
 0.4180	 8.2890
 0.4190	 8.3390
 0.4200	 8.3340
 0.4210	 8.3510
 0.4220	 8.3830
 0.4230	 8.4160
 0.4240	 8.4550
 0.4250	 8.4800
 0.4260	 8.4910
 0.4270	 8.4980
 0.4280	 8.5070
 0.4290	 8.5370
 0.4300	 8.5750
 0.4310	 8.5630
 0.4320	 8.5670
 0.4330	 8.5730
 0.4340	 8.5610
 0.4350	 8.5730
 0.4360	 8.6020
 0.4370	 8.6350
 0.4380	 8.6600
 0.4390	 8.6660
 0.4400	 8.6790
 0.4410	 8.7110
 0.4420	 8.7300
 0.4430	 8.7400
 0.4440	 8.7480
 0.4450	 8.7640
 0.4460	 8.7800
 0.4470	 8.7950
 0.4480	 8.8100
 0.4490	 8.8250
 0.4500	 8.8460
 0.4510	 8.8700
 0.4520	 8.8890
 0.4530	 8.8900
 0.4540	 8.9000
 0.4550	 8.9230
 0.4560	 8.9450
 0.4570	 8.9620
 0.4580	 8.9700
 0.4590	 8.9740
 0.4600	 8.9980
 0.4610	 9.0160
 0.4620	 9.0270
 0.4630	 9.0380
 0.4640	 9.0680
 0.4650	 9.0890
 0.4660	 9.0890
 0.4670	 9.0830
 0.4680	 9.0820
 0.4690	 9.0950
 0.4700	 9.1160
 0.4710	 9.1130
 0.4720	 9.1150
 0.4730	 9.1250
 0.4740	 9.1330
 0.4750	 9.1310
 0.4760	 9.1340
 0.4770	 9.1410
 0.4780	 9.1340
 0.4790	 9.1220
 0.4800	 9.1280
 0.4810	 9.1620
 0.4820	 9.1590
 0.4830	 9.1560
 0.4840	 9.1720
 0.4850	 9.2000
 0.4860	 9.2200
 0.4870	 9.2360
 0.4880	 9.2580
 0.4890	 9.2990
 0.4900	 9.3420
 0.4910	 9.3850
 0.4920	 9.4360
 0.4930	 9.4990
 0.4940	 9.5690
 0.4950	 9.6420
 0.4960	 9.7100
 0.4970	 9.8040
 0.4980	 9.9120
 0.4990	10.0190
 0.5000	10.1380
 0.5010	10.2630
 0.5020	10.3990
 0.5030	10.5570
 0.5040	10.7210
 0.5050	10.9000
 0.5060	11.1030
 0.5070	11.3240
 0.5080	11.5680
 0.5090	11.8260
 0.5100	12.0880
 0.5110	12.3720
 0.5120	12.6740
 0.5130	12.9960
 0.5140	13.3470
 0.5150	13.7090
 0.5160	14.0810
 0.5170	14.4660
 0.5180	14.8630
 0.5190	15.2750
 0.5200	15.7000
 0.5210	16.1350
 0.5220	16.5740
 0.5230	17.0140
 0.5240	17.4510
 0.5250	17.8710
 0.5260	18.2940
 0.5270	18.7150
 0.5280	19.1230
 0.5290	19.5210
 0.5300	19.9000
 0.5310	20.2610
 0.5320	20.6170
 0.5330	20.9540
 0.5340	21.2800
 0.5350	21.6030
 0.5360	21.8990
 0.5370	22.1800
 0.5380	22.4450
 0.5390	22.6870
 0.5400	22.9260
 0.5410	23.1520
 0.5420	23.3580
 0.5430	23.5560
 0.5440	23.7500
 0.5450	23.9440
 0.5460	24.1360
 0.5470	24.3230
 0.5480	24.4990
 0.5490	24.6540
 0.5500	24.7890
 0.5510	24.8950
 0.5520	24.9830
 0.5530	25.0590
 0.5540	25.0970
 0.5550	25.1050
 0.5560	25.0840
 0.5570	25.0310
 0.5580	24.9660
 0.5590	24.8790
 0.5600	24.7640
 0.5610	24.6380
 0.5620	24.4940
 0.5630	24.3350
 0.5640	24.1660
 0.5650	23.9810
 0.5660	23.7940
 0.5670	23.6060
 0.5680	23.4000
 0.5690	23.1700
 0.5700	22.9270
 0.5710	22.6860
 0.5720	22.4430
 0.5730	22.2050
 0.5740	21.9730
 0.5750	21.7430
 0.5760	21.5240
 0.5770	21.3240
 0.5780	21.1420
 0.5790	20.9680
 0.5800	20.7970
 0.5810	20.6340
 0.5820	20.4810
 0.5830	20.3230
 0.5840	20.1660
 0.5850	20.0190
 0.5860	19.8870
 0.5870	19.7660
 0.5880	19.6590
 0.5890	19.5690
 0.5900	19.4830
 0.5910	19.3890
 0.5920	19.2920
 0.5930	19.2080
 0.5940	19.1410
 0.5950	19.0820
 0.5960	19.0220
 0.5970	18.9580
 0.5980	18.8940
 0.5990	18.8280
 0.6000	18.7580
 0.6010	18.6780
 0.6020	18.5860
 0.6030	18.4840
 0.6040	18.3730
 0.6050	18.2480
 0.6060	18.1110
 0.6070	17.9650
 0.6080	17.8180
 0.6090	17.6550
 0.6100	17.4750
 0.6110	17.2890
 0.6120	17.1290
 0.6130	16.9830
 0.6140	16.8390
 0.6150	16.6890
 0.6160	16.5410
 0.6170	16.3980
 0.6180	16.2640
 0.6190	16.1340
 0.6200	16.0250
 0.6210	15.9330
 0.6220	15.8440
 0.6230	15.7780
 0.6240	15.7250
 0.6250	15.6750
 0.6260	15.6360
 0.6270	15.6140
 0.6280	15.5980
 0.6290	15.5750
 0.6300	15.5630
 0.6310	15.5440
 0.6320	15.5120
 0.6330	15.4740
 0.6340	15.4260
 0.6350	15.3550
 0.6360	15.2540
 0.6370	15.1290
 0.6380	14.9760
 0.6390	14.7960
 0.6400	14.5960
 0.6410	14.3830
 0.6420	14.1610
 0.6430	13.9320
 0.6440	13.6980
 0.6450	13.4620
 0.6460	13.2320
 0.6470	13.0160
 0.6480	12.8210
 0.6490	12.6530
 0.6500	12.5050
 0.6510	12.3650
 0.6520	12.2470
 0.6530	12.1400
 0.6540	12.0350
 0.6550	11.9370
 0.6560	11.8110
 0.6570	11.6670
 0.6580	11.5280
 0.6590	11.3780
 0.6600	11.2080
 0.6610	11.0290
 0.6620	10.8680
 0.6630	10.7040
 0.6640	10.5470
 0.6650	10.4090
 0.6660	10.2740
 0.6670	10.1590
 0.6680	10.0670
 0.6690	 9.9890
 0.6700	 9.9240
 0.6710	 9.8740
 0.6720	 9.8390
 0.6730	 9.8200
 0.6740	 9.8050
 0.6750	 9.7970
 0.6760	 9.8010
 0.6770	 9.8170
 0.6780	 9.8430
 0.6790	 9.8810
 0.6800	 9.9340
 0.6810	10.0070
 0.6820	10.1060
 0.6830	10.2390
 0.6840	10.4150
 0.6850	10.6500
 0.6860	10.9530
 0.6870	11.3400
 0.6880	11.8340
 0.6890	12.4490
 0.6900	13.1950
 0.6910	14.0770
 0.6920	15.1040
 0.6930	16.2810
 0.6940	17.6010
 0.6950	19.0420
 0.6960	20.6030
 0.6970	22.2600
 0.6980	23.9860
 0.6990	25.7790
 0.7000	27.5960
 0.7010	29.4090
 0.7020	31.2090
 0.7030	32.9790
 0.7040	34.7040
 0.7050	36.3680
 0.7060	37.9710
 0.7070	39.5040
 0.7080	40.9630
 0.7090	42.3550
 0.7100	43.6840
 0.7110	44.9570
 0.7120	46.1620
 0.7130	47.2700
 0.7140	48.3530
 0.7150	49.3980
 0.7160	50.3780
 0.7170	51.2770
 0.7180	52.1440
 0.7190	52.9760
 0.7200	53.7540
 0.7210	54.4860
 0.7220	55.1800
 0.7230	55.8380
 0.7240	56.4630
 0.7250	57.0500
 0.7260	57.5880
 0.7270	58.0810
 0.7280	58.5760
 0.7290	59.0210
 0.7300	59.4380
 0.7310	59.8610
 0.7320	60.2240
 0.7330	60.5580
 0.7340	60.8770
 0.7350	61.1730
 0.7360	61.4620
 0.7370	61.7270
 0.7380	61.9630
 0.7390	62.2030
 0.7400	62.4090
 0.7410	62.5930
 0.7420	62.7790
 0.7430	62.9570
 0.7440	63.1110
 0.7450	63.2450
 0.7460	63.3800
 0.7470	63.5200
 0.7480	63.6420
 0.7490	63.7380
 0.7500	63.8230
 0.7510	63.9170
 0.7520	63.9990
 0.7530	64.0530
 0.7540	64.1430
 0.7550	64.2220
 0.7560	64.2690
 0.7570	64.2900
 0.7580	64.3170
 0.7590	64.3640
 0.7600	64.4200
 0.7610	64.4330
 0.7620	64.4480
 0.7630	64.4750
 0.7640	64.5080
 0.7650	64.5330
 0.7660	64.5600
 0.7670	64.5770
 0.7680	64.5660
 0.7690	64.5750
 0.7700	64.5970
 0.7710	64.6190
 0.7720	64.6220
 0.7730	64.6330
 0.7740	64.6480
 0.7750	64.6560
 0.7760	64.6450
 0.7770	64.6450
 0.7780	64.6580
 0.7790	64.6690
 0.7800	64.6610
 0.7810	64.6570
 0.7820	64.6720
 0.7830	64.7100
 0.7840	64.7010
 0.7850	64.6890
 0.7860	64.7060
 0.7870	64.7130
 0.7880	64.7040
 0.7890	64.7020
 0.7900	64.7230
 0.7910	64.7090
 0.7920	64.7050
 0.7930	64.7170
 0.7940	64.7250
 0.7950	64.7190
 0.7960	64.7260
 0.7970	64.7520
 0.7980	64.7610
 0.7990	64.7460
 0.8000	64.7330
 0.8010	64.7420
 0.8020	64.7390
 0.8030	64.7450
 0.8040	64.7590
 0.8050	64.7730
 0.8060	64.7960
 0.8070	64.7750
 0.8080	64.7350
 0.8090	64.7560
 0.8100	64.7610
 0.8110	64.7580
 0.8120	64.7600
 0.8130	64.7620
 0.8140	64.7700
 0.8150	64.7820
 0.8160	64.7890
 0.8170	64.7700
 0.8180	64.7650
 0.8190	64.7770
 0.8200	64.7900
 0.8210	64.7900
 0.8220	64.7990
 0.8230	64.8150
 0.8240	64.8140
 0.8250	64.8190
 0.8260	64.8110
 0.8270	64.7950
 0.8280	64.8180
 0.8290	64.8140
 0.8300	64.8040
 0.8310	64.8130
 0.8320	64.8080
 0.8330	64.8110
 0.8340	64.8080
 0.8350	64.7840
 0.8360	64.7880
 0.8370	64.8020
 0.8380	64.8160
 0.8390	64.8260
 0.8400	64.8410
 0.8410	64.8390
 0.8420	64.8250
 0.8430	64.8350
 0.8440	64.8370
 0.8450	64.8410
 0.8460	64.8550
 0.8470	64.8560
 0.8480	64.8550
 0.8490	64.8640
 0.8500	64.8880
 0.8510	64.8840
 0.8520	64.8760
 0.8530	64.8700
 0.8540	64.8630
 0.8550	64.8810
 0.8560	64.8910
 0.8570	64.8880
 0.8580	64.8920
 0.8590	64.8910
 0.8600	64.8920
 0.8610	64.8990
 0.8620	64.8970
 0.8630	64.8890
 0.8640	64.8860
 0.8650	64.8930
 0.8660	64.8920
 0.8670	64.8850
 0.8680	64.8830
 0.8690	64.8890
 0.8700	64.8790
 0.8710	64.8990
 0.8720	64.9210
 0.8730	64.8900
 0.8740	64.8760
 0.8750	64.8710
 0.8760	64.8660
 0.8770	64.8590
 0.8780	64.8740
 0.8790	64.8770
 0.8800	64.8610
 0.8810	64.8700
 0.8820	64.8600
 0.8830	64.8490
 0.8840	64.8530
 0.8850	64.8630
 0.8860	64.8690
 0.8870	64.8510
 0.8880	64.8070
 0.8890	64.7940
 0.8900	64.8030
 0.8910	64.8160
 0.8920	64.8140
 0.8930	64.7910
 0.8940	64.7860
 0.8950	64.7850
 0.8960	64.7510
 0.8970	64.7560
 0.8980	64.7520
 0.8990	64.7320
 0.9000	64.7280
 0.9010	64.7420
 0.9020	64.7460
 0.9030	64.7250
 0.9040	64.6820
 0.9050	64.6840
 0.9060	64.7010
 0.9070	64.6930
 0.9080	64.6540
 0.9090	64.6490
 0.9100	64.6650
 0.9110	64.6720
 0.9120	64.6520
 0.9130	64.6240
 0.9140	64.6050
 0.9150	64.6010
 0.9160	64.5990
 0.9170	64.5770
 0.9180	64.5600
 0.9190	64.5750
 0.9200	64.5640
 0.9210	64.5420
 0.9220	64.5320
 0.9230	64.5470
 0.9240	64.4990
 0.9250	64.4730
 0.9260	64.4710
 0.9270	64.4380
 0.9280	64.4170
 0.9290	64.4070
 0.9300	64.4040
 0.9310	64.3950
 0.9320	64.3560
 0.9330	64.3190
 0.9340	64.3060
 0.9350	64.3170
 0.9360	64.3330
 0.9370	64.2950
 0.9380	64.2020
 0.9390	64.1440
 0.9400	64.1370
 0.9410	64.1260
 0.9420	64.0830
 0.9430	64.0610
 0.9440	64.0320
 0.9450	64.0110
 0.9460	63.9930
 0.9470	63.9200
 0.9480	63.8540
 0.9490	63.8010
 0.9500	63.7530
 0.9510	63.7000
 0.9520	63.6680
 0.9530	63.6110
 0.9540	63.4990
 0.9550	63.4220
 0.9560	63.3680
 0.9570	63.3340
 0.9580	63.3080
 0.9590	63.2480
 0.9600	63.1680
 0.9610	63.0980
 0.9620	63.0560
 0.9630	63.0150
 0.9640	62.9950
 0.9650	62.9870
 0.9660	62.9700
 0.9670	62.9320
 0.9680	62.9180
 0.9690	62.9230
 0.9700	62.9190
 0.9710	62.8630
 0.9720	62.8470
 0.9730	62.8680
 0.9740	62.8760
 0.9750	62.8540
 0.9760	62.8190
 0.9770	62.8070
 0.9780	62.8450
 0.9790	62.8520
 0.9800	62.8680
 0.9810	62.8700
 0.9820	62.8230
 0.9830	62.7790
 0.9840	62.7900
 0.9850	62.8400
 0.9860	62.8750
 0.9870	62.8720
 0.9880	62.9160
 0.9890	62.9650
 0.9900	62.9450
 0.9910	62.9390
 0.9920	62.9100
 0.9930	62.8810
 0.9940	62.8520
 0.9950	62.8230
 0.9960	62.7940
 0.9970	62.7650
 0.9980	62.7360
 0.9990	62.7070
 1.0000	62.6780
 1.0010	62.6490
 1.0020	62.6200
 1.0030	62.5910
 1.0040	62.5630
 1.0050	62.5340
 1.0060	62.5050
 1.0070	62.4760
 1.0080	62.4470
 1.0090	62.4180
 1.0100	62.4180
 1.0110	62.4340
 1.0120	62.4520
 1.0130	62.4700
 1.0140	62.4890
 1.0150	62.5130
 1.0160	62.5260
 1.0170	62.5300
 1.0180	62.5410
 1.0190	62.5450
 1.0200	62.5660
 1.0210	62.6030
 1.0220	62.6290
 1.0230	62.6550
 1.0240	62.6820
 1.0250	62.6970
 1.0260	62.6980
 1.0270	62.7130
 1.0280	62.7270
 1.0290	62.7420
 1.0300	62.7620
 1.0310	62.7790
 1.0320	62.7930
 1.0330	62.8080
 1.0340	62.8290
 1.0350	62.8590
 1.0360	62.8780
 1.0370	62.8820
 1.0380	62.8910
 1.0390	62.8910
 1.0400	62.8930
 1.0410	62.8930
 1.0420	62.8990
 1.0430	62.9070
 1.0440	62.9120
 1.0450	62.9200
 1.0460	62.9320
 1.0470	62.9430
 1.0480	62.9540
 1.0490	62.9760
 1.0500	62.9890
 1.0510	62.9940
 1.0520	62.9970
 1.0530	63.0050
 1.0540	63.0110
 1.0550	63.0200
 1.0560	63.0380
 1.0570	63.0430
 1.0580	63.0370
 1.0590	63.0420
 1.0600	63.0480
 1.0610	63.0510
 1.0620	63.0610
 1.0630	63.0650
 1.0640	63.0600
 1.0650	63.0580
 1.0660	63.0530
 1.0670	63.0540
 1.0680	63.0550
 1.0690	63.0570
 1.0700	63.0570
 1.0710	63.0590
 1.0720	63.0620
 1.0730	63.0640
 1.0740	63.0660
 1.0750	63.0730
 1.0760	63.0770
 1.0770	63.0790
 1.0780	63.0790
 1.0790	63.0760
 1.0800	63.0770
 1.0810	63.0790
 1.0820	63.0800
 1.0830	63.0870
 1.0840	63.0900
 1.0850	63.0940
 1.0860	63.0930
 1.0870	63.0830
 1.0880	63.0660
 1.0890	63.0550
 1.0900	63.0380
 1.0910	63.0240
 1.0920	63.0170
 1.0930	63.0060
 1.0940	62.9880
 1.0950	62.9720
 1.0960	62.9540
 1.0970	62.9380
 1.0980	62.9180
 1.0990	62.9050
 1.1000	62.9010
 1.1010	62.8930
 1.1020	62.8960
 1.1030	62.8820
 1.1040	62.8570
 1.1050	62.8440
 1.1060	62.8280
 1.1070	62.8060
 1.1080	62.7880
 1.1090	62.7770
 1.1100	62.7550
 1.1110	62.7230
 1.1120	62.6990
 1.1130	62.6730
 1.1140	62.6460
 1.1150	62.6230
 1.1160	62.5970
 1.1170	62.5690
 1.1180	62.5390
 1.1190	62.5150
 1.1200	62.4770
 1.1210	62.4290
 1.1220	62.3800
 1.1230	62.3320
 1.1240	62.2840
 1.1250	62.2310
 1.1260	62.1880
 1.1270	62.1220
 1.1280	62.0410
 1.1290	61.9600
 1.1300	61.8710
 1.1310	61.7800
 1.1320	61.6920
 1.1330	61.5900
 1.1340	61.4830
 1.1350	61.3610
 1.1360	61.2250
 1.1370	61.0830
 1.1380	60.9400
 1.1390	60.7890
 1.1400	60.6320
 1.1410	60.4770
 1.1420	60.3140
 1.1430	60.1460
 1.1440	59.9870
 1.1450	59.8310
 1.1460	59.6800
 1.1470	59.5340
 1.1480	59.3880
 1.1490	59.2460
 1.1500	59.1050
 1.1510	58.9590
 1.1520	58.8300
 1.1530	58.7040
 1.1540	58.5960
 1.1550	58.5040
 1.1560	58.4200
 1.1570	58.3460
 1.1580	58.2790
 1.1590	58.2140
 1.1600	58.1580
 1.1610	58.1090
 1.1620	58.0640
 1.1630	58.0180
 1.1640	57.9740
 1.1650	57.9350
 1.1660	57.8960
 1.1670	57.8640
 1.1680	57.8400
 1.1690	57.8160
 1.1700	57.7980
 1.1710	57.7740
 1.1720	57.7520
 1.1730	57.7250
 1.1740	57.6930
 1.1750	57.6630
 1.1760	57.6360
 1.1770	57.6040
 1.1780	57.5800
 1.1790	57.5590
 1.1800	57.5330
 1.1810	57.5100
 1.1820	57.4810
 1.1830	57.4510
 1.1840	57.4240
 1.1850	57.3880
 1.1860	57.3550
 1.1870	57.3280
 1.1880	57.3030
 1.1890	57.2810
 1.1900	57.2630
 1.1910	57.2510
 1.1920	57.2350
 1.1930	57.2190
 1.1940	57.2030
 1.1950	57.1830
 1.1960	57.1710
 1.1970	57.1650
 1.1980	57.1610
 1.1990	57.1600
 1.2000	57.1630
 1.2010	57.1670
 1.2020	57.1800
 1.2030	57.1960
 1.2040	57.2130
 1.2050	57.2320
 1.2060	57.2510
 1.2070	57.2780
 1.2080	57.3130
 1.2090	57.3520
 1.2100	57.3880
 1.2110	57.4240
 1.2120	57.4580
 1.2130	57.5000
 1.2140	57.5430
 1.2150	57.5890
 1.2160	57.6420
 1.2170	57.6930
 1.2180	57.7370
 1.2190	57.7840
 1.2200	57.8380
 1.2210	57.8850
 1.2220	57.9310
 1.2230	57.9840
 1.2240	58.0320
 1.2250	58.0790
 1.2260	58.1270
 1.2270	58.1750
 1.2280	58.2180
 1.2290	58.2540
 1.2300	58.2910
 1.2310	58.3270
 1.2320	58.3590
 1.2330	58.3940
 1.2340	58.4300
 1.2350	58.4690
 1.2360	58.5020
 1.2370	58.5330
 1.2380	58.5640
 1.2390	58.5920
 1.2400	58.6160
 1.2410	58.6380
 1.2420	58.6650
 1.2430	58.6860
 1.2440	58.7080
 1.2450	58.7360
 1.2460	58.7560
 1.2470	58.7720
 1.2480	58.7930
 1.2490	58.8110
 1.2500	58.8280
 1.2510	58.8470
 1.2520	58.8630
 1.2530	58.8750
 1.2540	58.8900
 1.2550	58.9020
 1.2560	58.9100
 1.2570	58.9220
 1.2580	58.9280
 1.2590	58.9350
 1.2600	58.9420
 1.2610	58.9500
 1.2620	58.9570
 1.2630	58.9610
 1.2640	58.9660
 1.2650	58.9580
 1.2660	58.9430
 1.2670	58.9370
 1.2680	58.9320
 1.2690	58.9270
 1.2700	58.9240
 1.2710	58.9150
 1.2720	58.9030
 1.2730	58.8950
 1.2740	58.8860
 1.2750	58.8810
 1.2760	58.8760
 1.2770	58.8620
 1.2780	58.8460
 1.2790	58.8290
 1.2800	58.8000
 1.2810	58.7720
 1.2820	58.7470
 1.2830	58.7180
 1.2840	58.6960
 1.2850	58.6760
 1.2860	58.6480
 1.2870	58.6230
 1.2880	58.5990
 1.2890	58.5760
 1.2900	58.5510
 1.2910	58.5250
 1.2920	58.4980
 1.2930	58.4660
 1.2940	58.4290
 1.2950	58.3900
 1.2960	58.3490
 1.2970	58.3040
 1.2980	58.2600
 1.2990	58.2140
 1.3000	58.1740
 1.3010	58.1310
 1.3020	58.0760
 1.3030	58.0280
 1.3040	57.9660
 1.3050	57.9020
 1.3060	57.8420
 1.3070	57.7650
 1.3080	57.6890
 1.3090	57.6120
 1.3100	57.5290
 1.3110	57.4400
 1.3120	57.3500
 1.3130	57.2550
 1.3140	57.1570
 1.3150	57.0600
 1.3160	56.9600
 1.3170	56.8600
 1.3180	56.7510
 1.3190	56.6370
 1.3200	56.5120
 1.3210	56.3830
 1.3220	56.2530
 1.3230	56.1190
 1.3240	55.9920
 1.3250	55.8620
 1.3260	55.7240
 1.3270	55.5890
 1.3280	55.4480
 1.3290	55.2980
 1.3300	55.1430
 1.3310	54.9890
 1.3320	54.8310
 1.3330	54.6660
 1.3340	54.5060
 1.3350	54.3430
 1.3360	54.1710
 1.3370	54.0040
 1.3380	53.8370
 1.3390	53.6620
 1.3400	53.4840
 1.3410	53.3090
 1.3420	53.1310
 1.3430	52.9550
 1.3440	52.7840
 1.3450	52.6150
 1.3460	52.4460
 1.3470	52.2810
 1.3480	52.1200
 1.3490	51.9600
 1.3500	51.8050
 1.3510	51.6500
 1.3520	51.4910
 1.3530	51.3370
 1.3540	51.1810
 1.3550	51.0180
 1.3560	50.8560
 1.3570	50.6910
 1.3580	50.5240
 1.3590	50.3570
 1.3600	50.1880
 1.3610	50.0110
 1.3620	49.8250
 1.3630	49.6360
 1.3640	49.4340
 1.3650	49.2260
 1.3660	49.0140
 1.3670	48.7850
 1.3680	48.5480
 1.3690	48.3010
 1.3700	48.0320
 1.3710	47.7490
 1.3720	47.4520
 1.3730	47.1330
 1.3740	46.7970
 1.3750	46.4380
 1.3760	46.0530
 1.3770	45.6410
 1.3780	45.1990
 1.3790	44.7340
 1.3800	44.2430
 1.3810	43.7250
 1.3820	43.1810
 1.3830	42.6130
 1.3840	42.0220
 1.3850	41.4040
 1.3860	40.7680
 1.3870	40.1040
 1.3880	39.4370
 1.3890	38.7510
 1.3900	38.0560
 1.3910	37.3600
 1.3920	36.6570
 1.3930	35.9470
 1.3940	35.2400
 1.3950	34.5300
 1.3960	33.8290
 1.3970	33.1380
 1.3980	32.4590
 1.3990	31.8050
 1.4000	31.1660
 1.4010	30.5440
 1.4020	29.9460
 1.4030	29.3660
 1.4040	28.8150
 1.4050	28.2910
 1.4060	27.7890
 1.4070	27.3200
 1.4080	26.8740
 1.4090	26.4550
 1.4100	26.0670
 1.4110	25.7040
 1.4120	25.3690
 1.4130	25.0570
 1.4140	24.7690
 1.4150	24.5080
 1.4160	24.2680
 1.4170	24.0470
 1.4180	23.8480
 1.4190	23.6650
 1.4200	23.4980
 1.4210	23.3440
 1.4220	23.2060
 1.4230	23.0840
 1.4240	22.9740
 1.4250	22.8740
 1.4260	22.7900
 1.4270	22.7130
 1.4280	22.6460
 1.4290	22.5870
 1.4300	22.5400
 1.4310	22.4970
 1.4320	22.4610
 1.4330	22.4310
 1.4340	22.4060
 1.4350	22.3900
 1.4360	22.3800
 1.4370	22.3780
 1.4380	22.3790
 1.4390	22.3840
 1.4400	22.3920
 1.4410	22.4020
 1.4420	22.4180
 1.4430	22.4390
 1.4440	22.4610
 1.4450	22.4840
 1.4460	22.5090
 1.4470	22.5380
 1.4480	22.5670
 1.4490	22.5980
 1.4500	22.6320
 1.4510	22.6650
 1.4520	22.7030
 1.4530	22.7420
 1.4540	22.7810
 1.4550	22.8240
 1.4560	22.8700
 1.4570	22.9150
 1.4580	22.9650
 1.4590	23.0180
 1.4600	23.0770
 1.4610	23.1410
 1.4620	23.2110
 1.4630	23.2860
 1.4640	23.3660
 1.4650	23.4510
 1.4660	23.5410
 1.4670	23.6390
 1.4680	23.7460
 1.4690	23.8570
