Name: Bambusa tuldoides
Type: vegetation
Class: Tree
Genus: Bambusa
Species: tuldoides
Sample No.: JPL216
Owner: JPL
Wavelength Range: VSWIR
Origin: 34.125377; -118.111364; WGS84
Collection Date: 10/3/2016
Description: Samples were collected at the Huntington Garden in San Marino California as part of a JPL Subcontract studying HyTES imagery. Samples were taken to JPL and processed within 48 hours of collection. The same leaves were processed in the Nicolet and then measured using the ASD.
Measurement: Bidirectional reflectance
First Column: X
Second Column: Y
X Units: Wavelength (micrometer)
Y Units: Reflectance (percentage)
First X Value: 0.35
Last X Value: 2.5
Number of X Values: 2151
Additional Information: vegetation.tree.bambusa.tuldoides.vswir.jpl216.jpl.asd.ancillary.txt

 0.3500	 7.2210
 0.3510	 7.2360
 0.3520	 7.2210
 0.3530	 7.0880
 0.3540	 6.8760
 0.3550	 6.9820
 0.3560	 7.0830
 0.3570	 7.0190
 0.3580	 6.7890
 0.3590	 6.8300
 0.3600	 6.9600
 0.3610	 7.0080
 0.3620	 6.9020
 0.3630	 6.8710
 0.3640	 6.8770
 0.3650	 6.8380
 0.3660	 6.7690
 0.3670	 6.7880
 0.3680	 6.8510
 0.3690	 6.8190
 0.3700	 6.8380
 0.3710	 6.8480
 0.3720	 6.8130
 0.3730	 6.7770
 0.3740	 6.8460
 0.3750	 6.9050
 0.3760	 6.8250
 0.3770	 6.7820
 0.3780	 6.7280
 0.3790	 6.7110
 0.3800	 6.8410
 0.3810	 6.8280
 0.3820	 6.7640
 0.3830	 6.7550
 0.3840	 6.7920
 0.3850	 6.8270
 0.3860	 6.8390
 0.3870	 6.8280
 0.3880	 6.8530
 0.3890	 6.8710
 0.3900	 6.8680
 0.3910	 6.8660
 0.3920	 6.8400
 0.3930	 6.8290
 0.3940	 6.8530
 0.3950	 6.8420
 0.3960	 6.8660
 0.3970	 6.8980
 0.3980	 6.8800
 0.3990	 6.8640
 0.4000	 6.8600
 0.4010	 6.8650
 0.4020	 6.8580
 0.4030	 6.8680
 0.4040	 6.8820
 0.4050	 6.8810
 0.4060	 6.8500
 0.4070	 6.8560
 0.4080	 6.8860
 0.4090	 6.8830
 0.4100	 6.8940
 0.4110	 6.8910
 0.4120	 6.8680
 0.4130	 6.8810
 0.4140	 6.9050
 0.4150	 6.9200
 0.4160	 6.9150
 0.4170	 6.9160
 0.4180	 6.9270
 0.4190	 6.9380
 0.4200	 6.9340
 0.4210	 6.9400
 0.4220	 6.9350
 0.4230	 6.9130
 0.4240	 6.9140
 0.4250	 6.9200
 0.4260	 6.9220
 0.4270	 6.9200
 0.4280	 6.9270
 0.4290	 6.9270
 0.4300	 6.9130
 0.4310	 6.8990
 0.4320	 6.8910
 0.4330	 6.8870
 0.4340	 6.8780
 0.4350	 6.8660
 0.4360	 6.8500
 0.4370	 6.8420
 0.4380	 6.8590
 0.4390	 6.8740
 0.4400	 6.8830
 0.4410	 6.8890
 0.4420	 6.8980
 0.4430	 6.8990
 0.4440	 6.9020
 0.4450	 6.9160
 0.4460	 6.9210
 0.4470	 6.9230
 0.4480	 6.9250
 0.4490	 6.9290
 0.4500	 6.9390
 0.4510	 6.9490
 0.4520	 6.9530
 0.4530	 6.9590
 0.4540	 6.9600
 0.4550	 6.9610
 0.4560	 6.9670
 0.4570	 6.9720
 0.4580	 6.9730
 0.4590	 6.9720
 0.4600	 6.9770
 0.4610	 6.9840
 0.4620	 6.9860
 0.4630	 6.9800
 0.4640	 6.9780
 0.4650	 6.9800
 0.4660	 6.9800
 0.4670	 6.9760
 0.4680	 6.9840
 0.4690	 6.9900
 0.4700	 6.9860
 0.4710	 6.9830
 0.4720	 6.9870
 0.4730	 6.9920
 0.4740	 6.9900
 0.4750	 6.9860
 0.4760	 6.9890
 0.4770	 6.9980
 0.4780	 6.9980
 0.4790	 6.9980
 0.4800	 7.0010
 0.4810	 7.0020
 0.4820	 7.0030
 0.4830	 7.0040
 0.4840	 7.0030
 0.4850	 6.9980
 0.4860	 6.9940
 0.4870	 6.9990
 0.4880	 7.0150
 0.4890	 7.0150
 0.4900	 7.0210
 0.4910	 7.0350
 0.4920	 7.0510
 0.4930	 7.0660
 0.4940	 7.0850
 0.4950	 7.1080
 0.4960	 7.1270
 0.4970	 7.1490
 0.4980	 7.1770
 0.4990	 7.2100
 0.5000	 7.2430
 0.5010	 7.2790
 0.5020	 7.3200
 0.5030	 7.3670
 0.5040	 7.4140
 0.5050	 7.4650
 0.5060	 7.5260
 0.5070	 7.5980
 0.5080	 7.6750
 0.5090	 7.7560
 0.5100	 7.8490
 0.5110	 7.9530
 0.5120	 8.0650
 0.5130	 8.1860
 0.5140	 8.3190
 0.5150	 8.4630
 0.5160	 8.6170
 0.5170	 8.7820
 0.5180	 8.9560
 0.5190	 9.1400
 0.5200	 9.3310
 0.5210	 9.5280
 0.5220	 9.7230
 0.5230	 9.9190
 0.5240	10.1180
 0.5250	10.3080
 0.5260	10.4940
 0.5270	10.6740
 0.5280	10.8460
 0.5290	11.0080
 0.5300	11.1600
 0.5310	11.2980
 0.5320	11.4240
 0.5330	11.5370
 0.5340	11.6400
 0.5350	11.7330
 0.5360	11.8110
 0.5370	11.8820
 0.5380	11.9450
 0.5390	11.9960
 0.5400	12.0350
 0.5410	12.0660
 0.5420	12.0950
 0.5430	12.1270
 0.5440	12.1620
 0.5450	12.1980
 0.5460	12.2370
 0.5470	12.2790
 0.5480	12.3180
 0.5490	12.3480
 0.5500	12.3680
 0.5510	12.3850
 0.5520	12.3960
 0.5530	12.3970
 0.5540	12.3860
 0.5550	12.3640
 0.5560	12.3300
 0.5570	12.2850
 0.5580	12.2260
 0.5590	12.1550
 0.5600	12.0730
 0.5610	11.9850
 0.5620	11.8870
 0.5630	11.7800
 0.5640	11.6690
 0.5650	11.5540
 0.5660	11.4370
 0.5670	11.3180
 0.5680	11.1930
 0.5690	11.0650
 0.5700	10.9380
 0.5710	10.8150
 0.5720	10.6990
 0.5730	10.5920
 0.5740	10.4890
 0.5750	10.3900
 0.5760	10.2970
 0.5770	10.2100
 0.5780	10.1300
 0.5790	10.0560
 0.5800	 9.9830
 0.5810	 9.9120
 0.5820	 9.8470
 0.5830	 9.7880
 0.5840	 9.7340
 0.5850	 9.6830
 0.5860	 9.6360
 0.5870	 9.5920
 0.5880	 9.5510
 0.5890	 9.5140
 0.5900	 9.4790
 0.5910	 9.4440
 0.5920	 9.4120
 0.5930	 9.3870
 0.5940	 9.3620
 0.5950	 9.3400
 0.5960	 9.3200
 0.5970	 9.3040
 0.5980	 9.2840
 0.5990	 9.2630
 0.6000	 9.2440
 0.6010	 9.2230
 0.6020	 9.1990
 0.6030	 9.1710
 0.6040	 9.1400
 0.6050	 9.1080
 0.6060	 9.0710
 0.6070	 9.0310
 0.6080	 8.9890
 0.6090	 8.9370
 0.6100	 8.8740
 0.6110	 8.8050
 0.6120	 8.7600
 0.6130	 8.7300
 0.6140	 8.7040
 0.6150	 8.6670
 0.6160	 8.6270
 0.6170	 8.5880
 0.6180	 8.5550
 0.6190	 8.5200
 0.6200	 8.4870
 0.6210	 8.4570
 0.6220	 8.4340
 0.6230	 8.4150
 0.6240	 8.3980
 0.6250	 8.3830
 0.6260	 8.3740
 0.6270	 8.3670
 0.6280	 8.3590
 0.6290	 8.3510
 0.6300	 8.3400
 0.6310	 8.3310
 0.6320	 8.3220
 0.6330	 8.3050
 0.6340	 8.2820
 0.6350	 8.2510
 0.6360	 8.2140
 0.6370	 8.1670
 0.6380	 8.1160
 0.6390	 8.0610
 0.6400	 8.0000
 0.6410	 7.9400
 0.6420	 7.8820
 0.6430	 7.8270
 0.6440	 7.7700
 0.6450	 7.7150
 0.6460	 7.6640
 0.6470	 7.6180
 0.6480	 7.5770
 0.6490	 7.5440
 0.6500	 7.5190
 0.6510	 7.5000
 0.6520	 7.4860
 0.6530	 7.4760
 0.6540	 7.4700
 0.6550	 7.4630
 0.6560	 7.4560
 0.6570	 7.4450
 0.6580	 7.4310
 0.6590	 7.4160
 0.6600	 7.3990
 0.6610	 7.3810
 0.6620	 7.3620
 0.6630	 7.3460
 0.6640	 7.3350
 0.6650	 7.3270
 0.6660	 7.3180
 0.6670	 7.3130
 0.6680	 7.3130
 0.6690	 7.3170
 0.6700	 7.3240
 0.6710	 7.3350
 0.6720	 7.3530
 0.6730	 7.3770
 0.6740	 7.4040
 0.6750	 7.4350
 0.6760	 7.4690
 0.6770	 7.5050
 0.6780	 7.5470
 0.6790	 7.5950
 0.6800	 7.6490
 0.6810	 7.7080
 0.6820	 7.7720
 0.6830	 7.8430
 0.6840	 7.9210
 0.6850	 8.0090
 0.6860	 8.1080
 0.6870	 8.2240
 0.6880	 8.3590
 0.6890	 8.5190
 0.6900	 8.7090
 0.6910	 8.9400
 0.6920	 9.2110
 0.6930	 9.5290
 0.6940	 9.8980
 0.6950	10.3210
 0.6960	10.7990
 0.6970	11.3320
 0.6980	11.9160
 0.6990	12.5470
 0.7000	13.2170
 0.7010	13.9200
 0.7020	14.6490
 0.7030	15.3930
 0.7040	16.1470
 0.7050	16.9060
 0.7060	17.6690
 0.7070	18.4320
 0.7080	19.1930
 0.7090	19.9540
 0.7100	20.7200
 0.7110	21.4890
 0.7120	22.2570
 0.7130	23.0270
 0.7140	23.8010
 0.7150	24.5790
 0.7160	25.3590
 0.7170	26.1440
 0.7180	26.9290
 0.7190	27.7140
 0.7200	28.5000
 0.7210	29.2820
 0.7220	30.0610
 0.7230	30.8380
 0.7240	31.6060
 0.7250	32.3630
 0.7260	33.1080
 0.7270	33.8400
 0.7280	34.5560
 0.7290	35.2570
 0.7300	35.9390
 0.7310	36.6000
 0.7320	37.2410
 0.7330	37.8600
 0.7340	38.4540
 0.7350	39.0220
 0.7360	39.5680
 0.7370	40.0890
 0.7380	40.5830
 0.7390	41.0540
 0.7400	41.4970
 0.7410	41.9130
 0.7420	42.3050
 0.7430	42.6680
 0.7440	43.0040
 0.7450	43.3160
 0.7460	43.6050
 0.7470	43.8720
 0.7480	44.1160
 0.7490	44.3370
 0.7500	44.5390
 0.7510	44.7220
 0.7520	44.8890
 0.7530	45.0420
 0.7540	45.1790
 0.7550	45.3030
 0.7560	45.4140
 0.7570	45.5160
 0.7580	45.6060
 0.7590	45.6890
 0.7600	45.7640
 0.7610	45.8280
 0.7620	45.8840
 0.7630	45.9320
 0.7640	45.9760
 0.7650	46.0150
 0.7660	46.0490
 0.7670	46.0790
 0.7680	46.1030
 0.7690	46.1240
 0.7700	46.1420
 0.7710	46.1580
 0.7720	46.1710
 0.7730	46.1830
 0.7740	46.1940
 0.7750	46.2030
 0.7760	46.2120
 0.7770	46.2190
 0.7780	46.2250
 0.7790	46.2330
 0.7800	46.2400
 0.7810	46.2430
 0.7820	46.2450
 0.7830	46.2500
 0.7840	46.2530
 0.7850	46.2530
 0.7860	46.2540
 0.7870	46.2540
 0.7880	46.2540
 0.7890	46.2530
 0.7900	46.2500
 0.7910	46.2460
 0.7920	46.2420
 0.7930	46.2380
 0.7940	46.2360
 0.7950	46.2290
 0.7960	46.2210
 0.7970	46.2140
 0.7980	46.2070
 0.7990	46.1970
 0.8000	46.1860
 0.8010	46.1750
 0.8020	46.1630
 0.8030	46.1520
 0.8040	46.1400
 0.8050	46.1280
 0.8060	46.1130
 0.8070	46.0980
 0.8080	46.0820
 0.8090	46.0700
 0.8100	46.0550
 0.8110	46.0390
 0.8120	46.0230
 0.8130	46.0050
 0.8140	45.9870
 0.8150	45.9670
 0.8160	45.9460
 0.8170	45.9300
 0.8180	45.9150
 0.8190	45.8990
 0.8200	45.8780
 0.8210	45.8590
 0.8220	45.8400
 0.8230	45.8200
 0.8240	45.8030
 0.8250	45.7890
 0.8260	45.7740
 0.8270	45.7560
 0.8280	45.7350
 0.8290	45.7190
 0.8300	45.7030
 0.8310	45.6840
 0.8320	45.6660
 0.8330	45.6490
 0.8340	45.6340
 0.8350	45.6200
 0.8360	45.6090
 0.8370	45.5970
 0.8380	45.5820
 0.8390	45.5680
 0.8400	45.5580
 0.8410	45.5480
 0.8420	45.5390
 0.8430	45.5310
 0.8440	45.5200
 0.8450	45.5110
 0.8460	45.5050
 0.8470	45.4970
 0.8480	45.4910
 0.8490	45.4850
 0.8500	45.4770
 0.8510	45.4720
 0.8520	45.4670
 0.8530	45.4610
 0.8540	45.4570
 0.8550	45.4590
 0.8560	45.4600
 0.8570	45.4570
 0.8580	45.4540
 0.8590	45.4520
 0.8600	45.4500
 0.8610	45.4490
 0.8620	45.4540
 0.8630	45.4540
 0.8640	45.4520
 0.8650	45.4540
 0.8660	45.4610
 0.8670	45.4600
 0.8680	45.4590
 0.8690	45.4660
 0.8700	45.4730
 0.8710	45.4760
 0.8720	45.4790
 0.8730	45.4890
 0.8740	45.4940
 0.8750	45.4990
 0.8760	45.5050
 0.8770	45.5130
 0.8780	45.5180
 0.8790	45.5240
 0.8800	45.5330
 0.8810	45.5390
 0.8820	45.5480
 0.8830	45.5580
 0.8840	45.5650
 0.8850	45.5680
 0.8860	45.5750
 0.8870	45.5820
 0.8880	45.5860
 0.8890	45.5930
 0.8900	45.6040
 0.8910	45.6120
 0.8920	45.6150
 0.8930	45.6200
 0.8940	45.6310
 0.8950	45.6440
 0.8960	45.6510
 0.8970	45.6540
 0.8980	45.6600
 0.8990	45.6680
 0.9000	45.6710
 0.9010	45.6800
 0.9020	45.6900
 0.9030	45.6960
 0.9040	45.7030
 0.9050	45.7080
 0.9060	45.7140
 0.9070	45.7200
 0.9080	45.7240
 0.9090	45.7240
 0.9100	45.7250
 0.9110	45.7300
 0.9120	45.7360
 0.9130	45.7340
 0.9140	45.7320
 0.9150	45.7410
 0.9160	45.7520
 0.9170	45.7530
 0.9180	45.7480
 0.9190	45.7490
 0.9200	45.7510
 0.9210	45.7490
 0.9220	45.7440
 0.9230	45.7410
 0.9240	45.7380
 0.9250	45.7370
 0.9260	45.7360
 0.9270	45.7290
 0.9280	45.7180
 0.9290	45.7050
 0.9300	45.6960
 0.9310	45.6900
 0.9320	45.6780
 0.9330	45.6700
 0.9340	45.6660
 0.9350	45.6530
 0.9360	45.6370
 0.9370	45.6200
 0.9380	45.6070
 0.9390	45.6030
 0.9400	45.5900
 0.9410	45.5710
 0.9420	45.5520
 0.9430	45.5330
 0.9440	45.5190
 0.9450	45.5050
 0.9460	45.4820
 0.9470	45.4520
 0.9480	45.4230
 0.9490	45.4030
 0.9500	45.3910
 0.9510	45.3570
 0.9520	45.3240
 0.9530	45.2970
 0.9540	45.2730
 0.9550	45.2540
 0.9560	45.2210
 0.9570	45.1840
 0.9580	45.1570
 0.9590	45.1340
 0.9600	45.1100
 0.9610	45.0860
 0.9620	45.0680
 0.9630	45.0480
 0.9640	45.0290
 0.9650	45.0140
 0.9660	45.0030
 0.9670	44.9910
 0.9680	44.9700
 0.9690	44.9500
 0.9700	44.9420
 0.9710	44.9420
 0.9720	44.9300
 0.9730	44.9120
 0.9740	44.9000
 0.9750	44.9000
 0.9760	44.8870
 0.9770	44.8740
 0.9780	44.8840
 0.9790	44.8810
 0.9800	44.8680
 0.9810	44.8580
 0.9820	44.8570
 0.9830	44.8430
 0.9840	44.8390
 0.9850	44.8420
 0.9860	44.8390
 0.9870	44.8380
 0.9880	44.8490
 0.9890	44.8520
 0.9900	44.8270
 0.9910	44.8150
 0.9920	44.8200
 0.9930	44.8350
 0.9940	44.8440
 0.9950	44.8300
 0.9960	44.8300
 0.9970	44.8320
 0.9980	44.8120
 0.9990	44.8310
 1.0000	44.8290
 1.0010	45.3560
 1.0020	45.3560
 1.0030	45.3560
 1.0040	45.3560
 1.0050	45.3590
 1.0060	45.3640
 1.0070	45.3630
 1.0080	45.3660
 1.0090	45.3760
 1.0100	45.3780
 1.0110	45.3760
 1.0120	45.3790
 1.0130	45.3780
 1.0140	45.3770
 1.0150	45.3760
 1.0160	45.3780
 1.0170	45.3770
 1.0180	45.3780
 1.0190	45.3790
 1.0200	45.3800
 1.0210	45.3800
 1.0220	45.3800
 1.0230	45.3830
 1.0240	45.3920
 1.0250	45.3940
 1.0260	45.3930
 1.0270	45.3960
 1.0280	45.3990
 1.0290	45.4010
 1.0300	45.4050
 1.0310	45.4080
 1.0320	45.4080
 1.0330	45.4080
 1.0340	45.4120
 1.0350	45.4140
 1.0360	45.4170
 1.0370	45.4230
 1.0380	45.4260
 1.0390	45.4310
 1.0400	45.4340
 1.0410	45.4350
 1.0420	45.4370
 1.0430	45.4380
 1.0440	45.4390
 1.0450	45.4380
 1.0460	45.4410
 1.0470	45.4490
 1.0480	45.4520
 1.0490	45.4540
 1.0500	45.4560
 1.0510	45.4570
 1.0520	45.4550
 1.0530	45.4550
 1.0540	45.4570
 1.0550	45.4560
 1.0560	45.4510
 1.0570	45.4490
 1.0580	45.4480
 1.0590	45.4480
 1.0600	45.4500
 1.0610	45.4520
 1.0620	45.4570
 1.0630	45.4570
 1.0640	45.4550
 1.0650	45.4520
 1.0660	45.4410
 1.0670	45.4350
 1.0680	45.4310
 1.0690	45.4280
 1.0700	45.4250
 1.0710	45.4260
 1.0720	45.4230
 1.0730	45.4180
 1.0740	45.4160
 1.0750	45.4180
 1.0760	45.4150
 1.0770	45.4140
 1.0780	45.4110
 1.0790	45.4020
 1.0800	45.3960
 1.0810	45.3920
 1.0820	45.3870
 1.0830	45.3840
 1.0840	45.3810
 1.0850	45.3750
 1.0860	45.3720
 1.0870	45.3700
 1.0880	45.3680
 1.0890	45.3640
 1.0900	45.3590
 1.0910	45.3530
 1.0920	45.3440
 1.0930	45.3390
 1.0940	45.3370
 1.0950	45.3330
 1.0960	45.3270
 1.0970	45.3220
 1.0980	45.3160
 1.0990	45.3100
 1.1000	45.3040
 1.1010	45.3000
 1.1020	45.2970
 1.1030	45.2910
 1.1040	45.2880
 1.1050	45.2870
 1.1060	45.2830
 1.1070	45.2780
 1.1080	45.2740
 1.1090	45.2670
 1.1100	45.2620
 1.1110	45.2570
 1.1120	45.2520
 1.1130	45.2480
 1.1140	45.2430
 1.1150	45.2370
 1.1160	45.2310
 1.1170	45.2230
 1.1180	45.2150
 1.1190	45.2070
 1.1200	45.1970
 1.1210	45.1840
 1.1220	45.1710
 1.1230	45.1550
 1.1240	45.1390
 1.1250	45.1230
 1.1260	45.1100
 1.1270	45.0900
 1.1280	45.0700
 1.1290	45.0450
 1.1300	45.0150
 1.1310	44.9840
 1.1320	44.9500
 1.1330	44.9150
 1.1340	44.8800
 1.1350	44.8390
 1.1360	44.7920
 1.1370	44.7460
 1.1380	44.6960
 1.1390	44.6430
 1.1400	44.5910
 1.1410	44.5390
 1.1420	44.4830
 1.1430	44.4270
 1.1440	44.3710
 1.1450	44.3120
 1.1460	44.2560
 1.1470	44.1990
 1.1480	44.1450
 1.1490	44.0930
 1.1500	44.0420
 1.1510	43.9900
 1.1520	43.9440
 1.1530	43.8990
 1.1540	43.8590
 1.1550	43.8220
 1.1560	43.7900
 1.1570	43.7600
 1.1580	43.7340
 1.1590	43.7100
 1.1600	43.6870
 1.1610	43.6660
 1.1620	43.6450
 1.1630	43.6260
 1.1640	43.6090
 1.1650	43.5940
 1.1660	43.5810
 1.1670	43.5690
 1.1680	43.5610
 1.1690	43.5510
 1.1700	43.5420
 1.1710	43.5340
 1.1720	43.5250
 1.1730	43.5160
 1.1740	43.5070
 1.1750	43.4960
 1.1760	43.4850
 1.1770	43.4740
 1.1780	43.4660
 1.1790	43.4570
 1.1800	43.4460
 1.1810	43.4350
 1.1820	43.4240
 1.1830	43.4120
 1.1840	43.4000
 1.1850	43.3890
 1.1860	43.3760
 1.1870	43.3640
 1.1880	43.3540
 1.1890	43.3450
 1.1900	43.3370
 1.1910	43.3310
 1.1920	43.3230
 1.1930	43.3130
 1.1940	43.3060
 1.1950	43.2980
 1.1960	43.2930
 1.1970	43.2890
 1.1980	43.2840
 1.1990	43.2800
 1.2000	43.2750
 1.2010	43.2720
 1.2020	43.2720
 1.2030	43.2710
 1.2040	43.2720
 1.2050	43.2730
 1.2060	43.2710
 1.2070	43.2730
 1.2080	43.2740
 1.2090	43.2730
 1.2100	43.2760
 1.2110	43.2790
 1.2120	43.2820
 1.2130	43.2860
 1.2140	43.2910
 1.2150	43.2950
 1.2160	43.2990
 1.2170	43.3040
 1.2180	43.3090
 1.2190	43.3130
 1.2200	43.3180
 1.2210	43.3260
 1.2220	43.3350
 1.2230	43.3430
 1.2240	43.3500
 1.2250	43.3550
 1.2260	43.3610
 1.2270	43.3700
 1.2280	43.3780
 1.2290	43.3870
 1.2300	43.3940
 1.2310	43.3990
 1.2320	43.4050
 1.2330	43.4080
 1.2340	43.4120
 1.2350	43.4170
 1.2360	43.4200
 1.2370	43.4220
 1.2380	43.4250
 1.2390	43.4280
 1.2400	43.4300
 1.2410	43.4340
 1.2420	43.4380
 1.2430	43.4420
 1.2440	43.4440
 1.2450	43.4460
 1.2460	43.4470
 1.2470	43.4480
 1.2480	43.4500
 1.2490	43.4520
 1.2500	43.4550
 1.2510	43.4560
 1.2520	43.4550
 1.2530	43.4530
 1.2540	43.4500
 1.2550	43.4490
 1.2560	43.4490
 1.2570	43.4490
 1.2580	43.4480
 1.2590	43.4470
 1.2600	43.4450
 1.2610	43.4420
 1.2620	43.4390
 1.2630	43.4340
 1.2640	43.4290
 1.2650	43.4220
 1.2660	43.4150
 1.2670	43.4110
 1.2680	43.4060
 1.2690	43.4010
 1.2700	43.3960
 1.2710	43.3870
 1.2720	43.3770
 1.2730	43.3680
 1.2740	43.3600
 1.2750	43.3540
 1.2760	43.3480
 1.2770	43.3400
 1.2780	43.3310
 1.2790	43.3210
 1.2800	43.3110
 1.2810	43.3000
 1.2820	43.2870
 1.2830	43.2760
 1.2840	43.2630
 1.2850	43.2480
 1.2860	43.2320
 1.2870	43.2150
 1.2880	43.1950
 1.2890	43.1770
 1.2900	43.1570
 1.2910	43.1370
 1.2920	43.1160
 1.2930	43.0930
 1.2940	43.0690
 1.2950	43.0420
 1.2960	43.0150
 1.2970	42.9880
 1.2980	42.9580
 1.2990	42.9290
 1.3000	42.8990
 1.3010	42.8670
 1.3020	42.8350
 1.3030	42.8020
 1.3040	42.7680
 1.3050	42.7350
 1.3060	42.6980
 1.3070	42.6600
 1.3080	42.6220
 1.3090	42.5800
 1.3100	42.5390
 1.3110	42.5000
 1.3120	42.4590
 1.3130	42.4170
 1.3140	42.3740
 1.3150	42.3280
 1.3160	42.2840
 1.3170	42.2380
 1.3180	42.1940
 1.3190	42.1480
 1.3200	42.0990
 1.3210	42.0490
 1.3220	41.9980
 1.3230	41.9450
 1.3240	41.8930
 1.3250	41.8400
 1.3260	41.7840
 1.3270	41.7280
 1.3280	41.6710
 1.3290	41.6130
 1.3300	41.5550
 1.3310	41.4970
 1.3320	41.4370
 1.3330	41.3770
 1.3340	41.3150
 1.3350	41.2530
 1.3360	41.1890
 1.3370	41.1250
 1.3380	41.0630
 1.3390	41.0000
 1.3400	40.9370
 1.3410	40.8740
 1.3420	40.8090
 1.3430	40.7460
 1.3440	40.6830
 1.3450	40.6200
 1.3460	40.5580
 1.3470	40.4960
 1.3480	40.4330
 1.3490	40.3710
 1.3500	40.3090
 1.3510	40.2450
 1.3520	40.1810
 1.3530	40.1180
 1.3540	40.0530
 1.3550	39.9880
 1.3560	39.9240
 1.3570	39.8570
 1.3580	39.7890
 1.3590	39.7210
 1.3600	39.6520
 1.3610	39.5800
 1.3620	39.5060
 1.3630	39.4300
 1.3640	39.3500
 1.3650	39.2660
 1.3660	39.1790
 1.3670	39.0850
 1.3680	38.9860
 1.3690	38.8830
 1.3700	38.7680
 1.3710	38.6460
 1.3720	38.5140
 1.3730	38.3710
 1.3740	38.2190
 1.3750	38.0550
 1.3760	37.8750
 1.3770	37.6810
 1.3780	37.4690
 1.3790	37.2420
 1.3800	36.9980
 1.3810	36.7350
 1.3820	36.4570
 1.3830	36.1650
 1.3840	35.8540
 1.3850	35.5260
 1.3860	35.1820
 1.3870	34.8200
 1.3880	34.4480
 1.3890	34.0610
 1.3900	33.6630
 1.3910	33.2570
 1.3920	32.8400
 1.3930	32.4140
 1.3940	31.9830
 1.3950	31.5440
 1.3960	31.1060
 1.3970	30.6710
 1.3980	30.2380
 1.3990	29.8160
 1.4000	29.3990
 1.4010	28.9890
 1.4020	28.5920
 1.4030	28.2040
 1.4040	27.8290
 1.4050	27.4690
 1.4060	27.1240
 1.4070	26.7980
 1.4080	26.4870
 1.4090	26.1900
 1.4100	25.9110
 1.4110	25.6450
 1.4120	25.3970
 1.4130	25.1640
 1.4140	24.9450
 1.4150	24.7440
 1.4160	24.5570
 1.4170	24.3820
 1.4180	24.2220
 1.4190	24.0710
 1.4200	23.9310
 1.4210	23.8020
 1.4220	23.6830
 1.4230	23.5740
 1.4240	23.4740
 1.4250	23.3810
 1.4260	23.2970
 1.4270	23.2190
 1.4280	23.1480
 1.4290	23.0840
 1.4300	23.0280
 1.4310	22.9770
 1.4320	22.9310
 1.4330	22.8910
 1.4340	22.8570
 1.4350	22.8280
 1.4360	22.8030
 1.4370	22.7830
 1.4380	22.7670
 1.4390	22.7540
 1.4400	22.7450
 1.4410	22.7380
 1.4420	22.7340
 1.4430	22.7330
 1.4440	22.7350
 1.4450	22.7390
 1.4460	22.7450
 1.4470	22.7530
 1.4480	22.7620
 1.4490	22.7720
 1.4500	22.7840
 1.4510	22.7980
 1.4520	22.8140
 1.4530	22.8320
 1.4540	22.8510
 1.4550	22.8730
 1.4560	22.8970
 1.4570	22.9240
 1.4580	22.9540
 1.4590	22.9860
 1.4600	23.0220
 1.4610	23.0640
 1.4620	23.1110
 1.4630	23.1620
 1.4640	23.2180
 1.4650	23.2760
 1.4660	23.3400
 1.4670	23.4080
 1.4680	23.4810
 1.4690	23.5590
 1.4700	23.6410
 1.4710	23.7280
 1.4720	23.8160
 1.4730	23.9080
 1.4740	24.0040
 1.4750	24.1030
 1.4760	24.2060
 1.4770	24.3110
