Name: Olea africana
Type: vegetation
Class: Tree
Genus: Olea
Species: africana
Sample No.: JPL226
Owner: JPL
Wavelength Range: VSWIR
Origin: 34.12663; -118.11491; WGS84
Collection Date: 10/3/2016
Description: Samples were collected at the Huntington Garden in San Marino California as part of a JPL Subcontract studying HyTES imagery. Samples were taken to JPL and processed within 48 hours of collection. The same leaves were processed in the Nicolet and then measured using the ASD.
Measurement: Bidirectional reflectance
First Column: X
Second Column: Y
X Units: Wavelength (micrometer)
Y Units: Reflectance (percentage)
First X Value: 0.35
Last X Value: 2.5
Number of X Values: 2151
Additional Information: vegetation.tree.olea.africana.vswir.jpl226.jpl.asd.ancillary.txt

 0.3500	 5.8720
 0.3510	 5.7980
 0.3520	 5.8670
 0.3530	 5.8730
 0.3540	 5.7200
 0.3550	 5.7870
 0.3560	 5.7210
 0.3570	 5.5970
 0.3580	 5.6700
 0.3590	 5.6940
 0.3600	 5.6570
 0.3610	 5.6170
 0.3620	 5.6860
 0.3630	 5.6700
 0.3640	 5.5990
 0.3650	 5.5610
 0.3660	 5.6240
 0.3670	 5.6570
 0.3680	 5.6570
 0.3690	 5.6960
 0.3700	 5.6410
 0.3710	 5.5830
 0.3720	 5.5770
 0.3730	 5.5620
 0.3740	 5.5550
 0.3750	 5.5420
 0.3760	 5.5190
 0.3770	 5.5490
 0.3780	 5.5680
 0.3790	 5.5610
 0.3800	 5.5650
 0.3810	 5.5730
 0.3820	 5.5870
 0.3830	 5.6000
 0.3840	 5.5800
 0.3850	 5.5940
 0.3860	 5.6090
 0.3870	 5.5730
 0.3880	 5.5650
 0.3890	 5.5650
 0.3900	 5.5600
 0.3910	 5.5450
 0.3920	 5.5690
 0.3930	 5.5900
 0.3940	 5.5710
 0.3950	 5.5440
 0.3960	 5.5360
 0.3970	 5.5480
 0.3980	 5.5640
 0.3990	 5.5790
 0.4000	 5.5650
 0.4010	 5.5360
 0.4020	 5.5640
 0.4030	 5.5870
 0.4040	 5.5880
 0.4050	 5.5720
 0.4060	 5.5770
 0.4070	 5.6000
 0.4080	 5.6180
 0.4090	 5.5990
 0.4100	 5.5990
 0.4110	 5.6140
 0.4120	 5.6320
 0.4130	 5.6550
 0.4140	 5.6700
 0.4150	 5.6770
 0.4160	 5.6810
 0.4170	 5.6960
 0.4180	 5.6990
 0.4190	 5.6950
 0.4200	 5.7120
 0.4210	 5.7190
 0.4220	 5.7250
 0.4230	 5.7400
 0.4240	 5.7670
 0.4250	 5.7840
 0.4260	 5.7920
 0.4270	 5.7980
 0.4280	 5.8160
 0.4290	 5.8220
 0.4300	 5.8150
 0.4310	 5.8320
 0.4320	 5.8410
 0.4330	 5.8440
 0.4340	 5.8500
 0.4350	 5.8550
 0.4360	 5.8560
 0.4370	 5.8610
 0.4380	 5.8870
 0.4390	 5.8940
 0.4400	 5.8920
 0.4410	 5.8960
 0.4420	 5.9140
 0.4430	 5.9260
 0.4440	 5.9370
 0.4450	 5.9560
 0.4460	 5.9580
 0.4470	 5.9610
 0.4480	 5.9710
 0.4490	 5.9830
 0.4500	 5.9950
 0.4510	 6.0010
 0.4520	 6.0010
 0.4530	 6.0130
 0.4540	 6.0220
 0.4550	 6.0260
 0.4560	 6.0360
 0.4570	 6.0470
 0.4580	 6.0550
 0.4590	 6.0610
 0.4600	 6.0660
 0.4610	 6.0710
 0.4620	 6.0780
 0.4630	 6.0900
 0.4640	 6.0850
 0.4650	 6.0870
 0.4660	 6.0970
 0.4670	 6.1010
 0.4680	 6.1040
 0.4690	 6.1100
 0.4700	 6.1190
 0.4710	 6.1180
 0.4720	 6.1180
 0.4730	 6.1220
 0.4740	 6.1320
 0.4750	 6.1360
 0.4760	 6.1380
 0.4770	 6.1400
 0.4780	 6.1400
 0.4790	 6.1410
 0.4800	 6.1450
 0.4810	 6.1530
 0.4820	 6.1520
 0.4830	 6.1510
 0.4840	 6.1540
 0.4850	 6.1620
 0.4860	 6.1730
 0.4870	 6.1820
 0.4880	 6.1860
 0.4890	 6.1910
 0.4900	 6.2010
 0.4910	 6.2130
 0.4920	 6.2240
 0.4930	 6.2320
 0.4940	 6.2450
 0.4950	 6.2630
 0.4960	 6.2810
 0.4970	 6.2980
 0.4980	 6.3160
 0.4990	 6.3410
 0.5000	 6.3720
 0.5010	 6.4060
 0.5020	 6.4410
 0.5030	 6.4780
 0.5040	 6.5180
 0.5050	 6.5670
 0.5060	 6.6310
 0.5070	 6.6970
 0.5080	 6.7700
 0.5090	 6.8530
 0.5100	 6.9440
 0.5110	 7.0460
 0.5120	 7.1600
 0.5130	 7.2880
 0.5140	 7.4300
 0.5150	 7.5820
 0.5160	 7.7470
 0.5170	 7.9250
 0.5180	 8.1090
 0.5190	 8.3050
 0.5200	 8.5130
 0.5210	 8.7290
 0.5220	 8.9490
 0.5230	 9.1700
 0.5240	 9.3870
 0.5250	 9.6020
 0.5260	 9.8080
 0.5270	10.0070
 0.5280	10.2000
 0.5290	10.3800
 0.5300	10.5460
 0.5310	10.6990
 0.5320	10.8440
 0.5330	10.9730
 0.5340	11.0890
 0.5350	11.1960
 0.5360	11.2940
 0.5370	11.3780
 0.5380	11.4510
 0.5390	11.5230
 0.5400	11.5900
 0.5410	11.6550
 0.5420	11.7200
 0.5430	11.7780
 0.5440	11.8300
 0.5450	11.8740
 0.5460	11.9080
 0.5470	11.9370
 0.5480	11.9660
 0.5490	11.9950
 0.5500	12.0210
 0.5510	12.0390
 0.5520	12.0470
 0.5530	12.0420
 0.5540	12.0200
 0.5550	11.9790
 0.5560	11.9230
 0.5570	11.8510
 0.5580	11.7670
 0.5590	11.6740
 0.5600	11.5740
 0.5610	11.4660
 0.5620	11.3600
 0.5630	11.2510
 0.5640	11.1330
 0.5650	11.0160
 0.5660	10.8960
 0.5670	10.7690
 0.5680	10.6340
 0.5690	10.4880
 0.5700	10.3360
 0.5710	10.1880
 0.5720	10.0430
 0.5730	 9.9100
 0.5740	 9.7870
 0.5750	 9.6690
 0.5760	 9.5580
 0.5770	 9.4530
 0.5780	 9.3570
 0.5790	 9.2750
 0.5800	 9.1990
 0.5810	 9.1260
 0.5820	 9.0570
 0.5830	 8.9820
 0.5840	 8.9030
 0.5850	 8.8270
 0.5860	 8.7620
 0.5870	 8.7180
 0.5880	 8.6860
 0.5890	 8.6530
 0.5900	 8.6170
 0.5910	 8.5810
 0.5920	 8.5480
 0.5930	 8.5210
 0.5940	 8.4950
 0.5950	 8.4770
 0.5960	 8.4640
 0.5970	 8.4480
 0.5980	 8.4270
 0.5990	 8.4050
 0.6000	 8.3860
 0.6010	 8.3630
 0.6020	 8.3340
 0.6030	 8.3000
 0.6040	 8.2580
 0.6050	 8.2110
 0.6060	 8.1600
 0.6070	 8.1080
 0.6080	 8.0500
 0.6090	 7.9880
 0.6100	 7.9240
 0.6110	 7.8640
 0.6120	 7.8070
 0.6130	 7.7480
 0.6140	 7.6850
 0.6150	 7.6280
 0.6160	 7.5760
 0.6170	 7.5280
 0.6180	 7.4810
 0.6190	 7.4390
 0.6200	 7.4020
 0.6210	 7.3720
 0.6220	 7.3470
 0.6230	 7.3260
 0.6240	 7.3050
 0.6250	 7.2860
 0.6260	 7.2740
 0.6270	 7.2640
 0.6280	 7.2570
 0.6290	 7.2530
 0.6300	 7.2450
 0.6310	 7.2370
 0.6320	 7.2290
 0.6330	 7.2230
 0.6340	 7.2090
 0.6350	 7.1900
 0.6360	 7.1700
 0.6370	 7.1430
 0.6380	 7.1100
 0.6390	 7.0730
 0.6400	 7.0370
 0.6410	 6.9990
 0.6420	 6.9600
 0.6430	 6.9210
 0.6440	 6.8810
 0.6450	 6.8400
 0.6460	 6.7990
 0.6470	 6.7620
 0.6480	 6.7290
 0.6490	 6.6990
 0.6500	 6.6730
 0.6510	 6.6520
 0.6520	 6.6340
 0.6530	 6.6190
 0.6540	 6.6060
 0.6550	 6.5910
 0.6560	 6.5730
 0.6570	 6.5530
 0.6580	 6.5340
 0.6590	 6.5150
 0.6600	 6.4920
 0.6610	 6.4690
 0.6620	 6.4540
 0.6630	 6.4410
 0.6640	 6.4300
 0.6650	 6.4230
 0.6660	 6.4210
 0.6670	 6.4200
 0.6680	 6.4220
 0.6690	 6.4280
 0.6700	 6.4380
 0.6710	 6.4480
 0.6720	 6.4610
 0.6730	 6.4800
 0.6740	 6.5010
 0.6750	 6.5230
 0.6760	 6.5470
 0.6770	 6.5770
 0.6780	 6.6060
 0.6790	 6.6370
 0.6800	 6.6730
 0.6810	 6.7100
 0.6820	 6.7490
 0.6830	 6.7890
 0.6840	 6.8340
 0.6850	 6.8780
 0.6860	 6.9260
 0.6870	 6.9820
 0.6880	 7.0530
 0.6890	 7.1470
 0.6900	 7.2730
 0.6910	 7.4420
 0.6920	 7.6630
 0.6930	 7.9460
 0.6940	 8.2990
 0.6950	 8.7310
 0.6960	 9.2370
 0.6970	 9.8150
 0.6980	10.4610
 0.6990	11.1760
 0.7000	11.9470
 0.7010	12.7620
 0.7020	13.6080
 0.7030	14.4780
 0.7040	15.3640
 0.7050	16.2610
 0.7060	17.1650
 0.7070	18.0690
 0.7080	18.9730
 0.7090	19.8810
 0.7100	20.7910
 0.7110	21.7050
 0.7120	22.6220
 0.7130	23.5360
 0.7140	24.4520
 0.7150	25.3700
 0.7160	26.2850
 0.7170	27.2020
 0.7180	28.1150
 0.7190	29.0230
 0.7200	29.9270
 0.7210	30.8190
 0.7220	31.7000
 0.7230	32.5690
 0.7240	33.4190
 0.7250	34.2480
 0.7260	35.0560
 0.7270	35.8410
 0.7280	36.6020
 0.7290	37.3370
 0.7300	38.0420
 0.7310	38.7150
 0.7320	39.3610
 0.7330	39.9780
 0.7340	40.5650
 0.7350	41.1210
 0.7360	41.6470
 0.7370	42.1440
 0.7380	42.6100
 0.7390	43.0470
 0.7400	43.4580
 0.7410	43.8410
 0.7420	44.1950
 0.7430	44.5280
 0.7440	44.8330
 0.7450	45.1080
 0.7460	45.3620
 0.7470	45.5980
 0.7480	45.8130
 0.7490	46.0050
 0.7500	46.1830
 0.7510	46.3430
 0.7520	46.4870
 0.7530	46.6190
 0.7540	46.7400
 0.7550	46.8480
 0.7560	46.9440
 0.7570	47.0310
 0.7580	47.1100
 0.7590	47.1830
 0.7600	47.2510
 0.7610	47.3120
 0.7620	47.3630
 0.7630	47.4080
 0.7640	47.4520
 0.7650	47.4910
 0.7660	47.5250
 0.7670	47.5530
 0.7680	47.5780
 0.7690	47.6020
 0.7700	47.6250
 0.7710	47.6470
 0.7720	47.6720
 0.7730	47.6900
 0.7740	47.7040
 0.7750	47.7210
 0.7760	47.7380
 0.7770	47.7530
 0.7780	47.7660
 0.7790	47.7790
 0.7800	47.7910
 0.7810	47.8050
 0.7820	47.8210
 0.7830	47.8380
 0.7840	47.8480
 0.7850	47.8580
 0.7860	47.8690
 0.7870	47.8760
 0.7880	47.8850
 0.7890	47.8960
 0.7900	47.9060
 0.7910	47.9140
 0.7920	47.9210
 0.7930	47.9280
 0.7940	47.9380
 0.7950	47.9470
 0.7960	47.9530
 0.7970	47.9570
 0.7980	47.9580
 0.7990	47.9610
 0.8000	47.9630
 0.8010	47.9620
 0.8020	47.9650
 0.8030	47.9700
 0.8040	47.9760
 0.8050	47.9810
 0.8060	47.9810
 0.8070	47.9780
 0.8080	47.9750
 0.8090	47.9720
 0.8100	47.9700
 0.8110	47.9680
 0.8120	47.9660
 0.8130	47.9640
 0.8140	47.9620
 0.8150	47.9620
 0.8160	47.9620
 0.8170	47.9560
 0.8180	47.9560
 0.8190	47.9600
 0.8200	47.9570
 0.8210	47.9530
 0.8220	47.9500
 0.8230	47.9470
 0.8240	47.9430
 0.8250	47.9390
 0.8260	47.9360
 0.8270	47.9340
 0.8280	47.9360
 0.8290	47.9340
 0.8300	47.9300
 0.8310	47.9250
 0.8320	47.9260
 0.8330	47.9230
 0.8340	47.9190
 0.8350	47.9220
 0.8360	47.9210
 0.8370	47.9220
 0.8380	47.9260
 0.8390	47.9290
 0.8400	47.9320
 0.8410	47.9350
 0.8420	47.9390
 0.8430	47.9460
 0.8440	47.9490
 0.8450	47.9550
 0.8460	47.9670
 0.8470	47.9690
 0.8480	47.9730
 0.8490	47.9800
 0.8500	47.9860
 0.8510	47.9900
 0.8520	47.9980
 0.8530	48.0060
 0.8540	48.0080
 0.8550	48.0150
 0.8560	48.0220
 0.8570	48.0260
 0.8580	48.0300
 0.8590	48.0410
 0.8600	48.0510
 0.8610	48.0550
 0.8620	48.0660
 0.8630	48.0740
 0.8640	48.0770
 0.8650	48.0790
 0.8660	48.0930
 0.8670	48.1050
 0.8680	48.1150
 0.8690	48.1240
 0.8700	48.1270
 0.8710	48.1340
 0.8720	48.1430
 0.8730	48.1480
 0.8740	48.1540
 0.8750	48.1640
 0.8760	48.1750
 0.8770	48.1740
 0.8780	48.1860
 0.8790	48.2000
 0.8800	48.2080
 0.8810	48.2130
 0.8820	48.2190
 0.8830	48.2260
 0.8840	48.2320
 0.8850	48.2300
 0.8860	48.2380
 0.8870	48.2510
 0.8880	48.2590
 0.8890	48.2630
 0.8900	48.2660
 0.8910	48.2700
 0.8920	48.2750
 0.8930	48.2830
 0.8940	48.2920
 0.8950	48.2970
 0.8960	48.2980
 0.8970	48.2970
 0.8980	48.3040
 0.8990	48.3150
 0.9000	48.3180
 0.9010	48.3230
 0.9020	48.3260
 0.9030	48.3300
 0.9040	48.3420
 0.9050	48.3480
 0.9060	48.3500
 0.9070	48.3510
 0.9080	48.3490
 0.9090	48.3540
 0.9100	48.3560
 0.9110	48.3520
 0.9120	48.3620
 0.9130	48.3660
 0.9140	48.3650
 0.9150	48.3630
 0.9160	48.3610
 0.9170	48.3640
 0.9180	48.3660
 0.9190	48.3610
 0.9200	48.3600
 0.9210	48.3600
 0.9220	48.3590
 0.9230	48.3560
 0.9240	48.3450
 0.9250	48.3390
 0.9260	48.3360
 0.9270	48.3240
 0.9280	48.3030
 0.9290	48.2860
 0.9300	48.2740
 0.9310	48.2520
 0.9320	48.2420
 0.9330	48.2290
 0.9340	48.2060
 0.9350	48.1830
 0.9360	48.1580
 0.9370	48.1320
 0.9380	48.1080
 0.9390	48.0940
 0.9400	48.0710
 0.9410	48.0400
 0.9420	48.0040
 0.9430	47.9680
 0.9440	47.9310
 0.9450	47.8990
 0.9460	47.8660
 0.9470	47.8100
 0.9480	47.7610
 0.9490	47.7190
 0.9500	47.6740
 0.9510	47.6070
 0.9520	47.5410
 0.9530	47.4840
 0.9540	47.4330
 0.9550	47.3690
 0.9560	47.2970
 0.9570	47.2320
 0.9580	47.1810
 0.9590	47.1230
 0.9600	47.0770
 0.9610	47.0350
 0.9620	46.9910
 0.9630	46.9540
 0.9640	46.9120
 0.9650	46.8750
 0.9660	46.8540
 0.9670	46.8240
 0.9680	46.8070
 0.9690	46.7940
 0.9700	46.7720
 0.9710	46.7550
 0.9720	46.7420
 0.9730	46.7290
 0.9740	46.7160
 0.9750	46.7070
 0.9760	46.6990
 0.9770	46.6850
 0.9780	46.6700
 0.9790	46.6780
 0.9800	46.6810
 0.9810	46.6780
 0.9820	46.6800
 0.9830	46.6800
 0.9840	46.6900
 0.9850	46.7030
 0.9860	46.7090
 0.9870	46.7280
 0.9880	46.7330
 0.9890	46.7320
 0.9900	46.7470
 0.9910	46.7620
 0.9920	46.7820
 0.9930	46.8070
 0.9940	46.8300
 0.9950	46.8270
 0.9960	46.8430
 0.9970	46.8750
 0.9980	46.8960
 0.9990	46.9190
 1.0000	46.9390
 1.0010	48.4890
 1.0020	48.5100
 1.0030	48.5310
 1.0040	48.5530
 1.0050	48.5780
 1.0060	48.5980
 1.0070	48.6210
 1.0080	48.6440
 1.0090	48.6650
 1.0100	48.6890
 1.0110	48.7170
 1.0120	48.7400
 1.0130	48.7620
 1.0140	48.7850
 1.0150	48.8090
 1.0160	48.8310
 1.0170	48.8540
 1.0180	48.8760
 1.0190	48.8980
 1.0200	48.9200
 1.0210	48.9450
 1.0220	48.9710
 1.0230	48.9930
 1.0240	49.0120
 1.0250	49.0350
 1.0260	49.0560
 1.0270	49.0780
 1.0280	49.1040
 1.0290	49.1280
 1.0300	49.1490
 1.0310	49.1730
 1.0320	49.2010
 1.0330	49.2250
 1.0340	49.2430
 1.0350	49.2640
 1.0360	49.2850
 1.0370	49.3040
 1.0380	49.3230
 1.0390	49.3450
 1.0400	49.3650
 1.0410	49.3810
 1.0420	49.3980
 1.0430	49.4170
 1.0440	49.4350
 1.0450	49.4520
 1.0460	49.4690
 1.0470	49.4860
 1.0480	49.5020
 1.0490	49.5160
 1.0500	49.5310
 1.0510	49.5500
 1.0520	49.5640
 1.0530	49.5760
 1.0540	49.5870
 1.0550	49.5970
 1.0560	49.6040
 1.0570	49.6140
 1.0580	49.6270
 1.0590	49.6350
 1.0600	49.6400
 1.0610	49.6470
 1.0620	49.6520
 1.0630	49.6570
 1.0640	49.6630
 1.0650	49.6670
 1.0660	49.6670
 1.0670	49.6680
 1.0680	49.6680
 1.0690	49.6680
 1.0700	49.6680
 1.0710	49.6680
 1.0720	49.6650
 1.0730	49.6600
 1.0740	49.6570
 1.0750	49.6550
 1.0760	49.6510
 1.0770	49.6490
 1.0780	49.6450
 1.0790	49.6370
 1.0800	49.6310
 1.0810	49.6260
 1.0820	49.6170
 1.0830	49.6030
 1.0840	49.5930
 1.0850	49.5850
 1.0860	49.5760
 1.0870	49.5670
 1.0880	49.5610
 1.0890	49.5520
 1.0900	49.5370
 1.0910	49.5260
 1.0920	49.5180
 1.0930	49.5070
 1.0940	49.4930
 1.0950	49.4800
 1.0960	49.4640
 1.0970	49.4500
 1.0980	49.4360
 1.0990	49.4230
 1.1000	49.4100
 1.1010	49.3960
 1.1020	49.3800
 1.1030	49.3660
 1.1040	49.3550
 1.1050	49.3410
 1.1060	49.3260
 1.1070	49.3120
 1.1080	49.2970
 1.1090	49.2780
 1.1100	49.2620
 1.1110	49.2470
 1.1120	49.2290
 1.1130	49.2100
 1.1140	49.1900
 1.1150	49.1680
 1.1160	49.1450
 1.1170	49.1200
 1.1180	49.0940
 1.1190	49.0670
 1.1200	49.0390
 1.1210	49.0070
 1.1220	48.9740
 1.1230	48.9380
 1.1240	48.8960
 1.1250	48.8480
 1.1260	48.7970
 1.1270	48.7380
 1.1280	48.6720
 1.1290	48.5990
 1.1300	48.5210
 1.1310	48.4350
 1.1320	48.3430
 1.1330	48.2430
 1.1340	48.1360
 1.1350	48.0210
 1.1360	47.8980
 1.1370	47.7690
 1.1380	47.6340
 1.1390	47.4930
 1.1400	47.3470
 1.1410	47.1970
 1.1420	47.0440
 1.1430	46.8900
 1.1440	46.7360
 1.1450	46.5770
 1.1460	46.4260
 1.1470	46.2750
 1.1480	46.1300
 1.1490	45.9880
 1.1500	45.8550
 1.1510	45.7280
 1.1520	45.6060
 1.1530	45.4910
 1.1540	45.3830
 1.1550	45.2810
 1.1560	45.1870
 1.1570	45.1030
 1.1580	45.0250
 1.1590	44.9530
 1.1600	44.8870
 1.1610	44.8270
 1.1620	44.7710
 1.1630	44.7190
 1.1640	44.6700
 1.1650	44.6240
 1.1660	44.5800
 1.1670	44.5400
 1.1680	44.5040
 1.1690	44.4690
 1.1700	44.4350
 1.1710	44.4030
 1.1720	44.3750
 1.1730	44.3450
 1.1740	44.3170
 1.1750	44.2910
 1.1760	44.2640
 1.1770	44.2360
 1.1780	44.2080
 1.1790	44.1790
 1.1800	44.1480
 1.1810	44.1180
 1.1820	44.0900
 1.1830	44.0640
 1.1840	44.0360
 1.1850	44.0100
 1.1860	43.9840
 1.1870	43.9590
 1.1880	43.9360
 1.1890	43.9160
 1.1900	43.8980
 1.1910	43.8820
 1.1920	43.8680
 1.1930	43.8550
 1.1940	43.8460
 1.1950	43.8390
 1.1960	43.8340
 1.1970	43.8310
 1.1980	43.8300
 1.1990	43.8310
 1.2000	43.8330
 1.2010	43.8390
 1.2020	43.8490
 1.2030	43.8600
 1.2040	43.8740
 1.2050	43.8910
 1.2060	43.9070
 1.2070	43.9250
 1.2080	43.9440
 1.2090	43.9650
 1.2100	43.9900
 1.2110	44.0170
 1.2120	44.0450
 1.2130	44.0750
 1.2140	44.1080
 1.2150	44.1410
 1.2160	44.1750
 1.2170	44.2110
 1.2180	44.2460
 1.2190	44.2820
 1.2200	44.3180
 1.2210	44.3560
 1.2220	44.3930
 1.2230	44.4300
 1.2240	44.4680
 1.2250	44.5050
 1.2260	44.5410
 1.2270	44.5780
 1.2280	44.6120
 1.2290	44.6440
 1.2300	44.6730
 1.2310	44.7020
 1.2320	44.7310
 1.2330	44.7620
 1.2340	44.7910
 1.2350	44.8200
 1.2360	44.8470
 1.2370	44.8740
 1.2380	44.8990
 1.2390	44.9240
 1.2400	44.9470
 1.2410	44.9720
 1.2420	44.9960
 1.2430	45.0170
 1.2440	45.0410
 1.2450	45.0630
 1.2460	45.0830
 1.2470	45.1050
 1.2480	45.1270
 1.2490	45.1470
 1.2500	45.1650
 1.2510	45.1820
 1.2520	45.1970
 1.2530	45.2120
 1.2540	45.2290
 1.2550	45.2430
 1.2560	45.2550
 1.2570	45.2660
 1.2580	45.2750
 1.2590	45.2840
 1.2600	45.2920
 1.2610	45.2990
 1.2620	45.3060
 1.2630	45.3120
 1.2640	45.3160
 1.2650	45.3200
 1.2660	45.3220
 1.2670	45.3250
 1.2680	45.3260
 1.2690	45.3260
 1.2700	45.3250
 1.2710	45.3240
 1.2720	45.3220
 1.2730	45.3180
 1.2740	45.3140
 1.2750	45.3070
 1.2760	45.2980
 1.2770	45.2890
 1.2780	45.2800
 1.2790	45.2690
 1.2800	45.2590
 1.2810	45.2480
 1.2820	45.2330
 1.2830	45.2160
 1.2840	45.1990
 1.2850	45.1770
 1.2860	45.1530
 1.2870	45.1260
 1.2880	45.0980
 1.2890	45.0630
 1.2900	45.0260
 1.2910	44.9890
 1.2920	44.9480
 1.2930	44.9070
 1.2940	44.8620
 1.2950	44.8140
 1.2960	44.7610
 1.2970	44.7050
 1.2980	44.6460
 1.2990	44.5850
 1.3000	44.5230
 1.3010	44.4580
 1.3020	44.3880
 1.3030	44.3140
 1.3040	44.2350
 1.3050	44.1550
 1.3060	44.0740
 1.3070	43.9900
 1.3080	43.9030
 1.3090	43.8130
 1.3100	43.7190
 1.3110	43.6230
 1.3120	43.5250
 1.3130	43.4220
 1.3140	43.3170
 1.3150	43.2100
 1.3160	43.1000
 1.3170	42.9890
 1.3180	42.8760
 1.3190	42.7570
 1.3200	42.6360
 1.3210	42.5110
 1.3220	42.3840
 1.3230	42.2560
 1.3240	42.1270
 1.3250	41.9970
 1.3260	41.8640
 1.3270	41.7260
 1.3280	41.5860
 1.3290	41.4440
 1.3300	41.2980
 1.3310	41.1530
 1.3320	41.0070
 1.3330	40.8600
 1.3340	40.7120
 1.3350	40.5630
 1.3360	40.4130
 1.3370	40.2630
 1.3380	40.1140
 1.3390	39.9680
 1.3400	39.8200
 1.3410	39.6760
 1.3420	39.5320
 1.3430	39.3880
 1.3440	39.2460
 1.3450	39.1060
 1.3460	38.9670
 1.3470	38.8310
 1.3480	38.6960
 1.3490	38.5640
 1.3500	38.4340
 1.3510	38.3050
 1.3520	38.1760
 1.3530	38.0490
 1.3540	37.9200
 1.3550	37.7920
 1.3560	37.6630
 1.3570	37.5330
 1.3580	37.4020
 1.3590	37.2690
 1.3600	37.1300
 1.3610	36.9890
 1.3620	36.8430
 1.3630	36.6910
 1.3640	36.5350
 1.3650	36.3720
 1.3660	36.2020
 1.3670	36.0240
 1.3680	35.8360
 1.3690	35.6360
 1.3700	35.4230
 1.3710	35.1960
 1.3720	34.9540
 1.3730	34.6930
 1.3740	34.4190
 1.3750	34.1240
 1.3760	33.8080
 1.3770	33.4710
 1.3780	33.1060
 1.3790	32.7170
 1.3800	32.3050
 1.3810	31.8650
 1.3820	31.4070
 1.3830	30.9270
 1.3840	30.4280
 1.3850	29.9090
 1.3860	29.3750
 1.3870	28.8180
 1.3880	28.2580
 1.3890	27.6850
 1.3900	27.1020
 1.3910	26.5220
 1.3920	25.9370
 1.3930	25.3500
 1.3940	24.7680
 1.3950	24.1840
 1.3960	23.6110
 1.3970	23.0510
 1.3980	22.5020
 1.3990	21.9760
 1.4000	21.4660
 1.4010	20.9700
 1.4020	20.4960
 1.4030	20.0390
 1.4040	19.6030
 1.4050	19.1910
 1.4060	18.7980
 1.4070	18.4300
 1.4080	18.0820
 1.4090	17.7530
 1.4100	17.4460
 1.4110	17.1570
 1.4120	16.8860
 1.4130	16.6350
 1.4140	16.3990
 1.4150	16.1820
 1.4160	15.9800
 1.4170	15.7900
 1.4180	15.6150
 1.4190	15.4510
 1.4200	15.2970
 1.4210	15.1570
 1.4220	15.0260
 1.4230	14.9060
 1.4240	14.7970
 1.4250	14.6940
 1.4260	14.6000
 1.4270	14.5120
 1.4280	14.4320
 1.4290	14.3580
 1.4300	14.2900
 1.4310	14.2280
 1.4320	14.1730
 1.4330	14.1220
 1.4340	14.0780
 1.4350	14.0380
 1.4360	14.0020
 1.4370	13.9700
 1.4380	13.9420
 1.4390	13.9170
 1.4400	13.8970
 1.4410	13.8790
 1.4420	13.8670
 1.4430	13.8560
 1.4440	13.8470
 1.4450	13.8420
 1.4460	13.8380
 1.4470	13.8360
 1.4480	13.8370
 1.4490	13.8400
 1.4500	13.8440
 1.4510	13.8500
 1.4520	13.8590
 1.4530	13.8700
 1.4540	13.8820
 1.4550	13.8960
 1.4560	13.9130
 1.4570	13.9310
 1.4580	13.9540
 1.4590	13.9790
 1.4600	14.0070
 1.4610	14.0390
 1.4620	14.0730
 1.4630	14.1120
 1.4640	14.1550
 1.4650	14.2010
 1.4660	14.2530
 1.4670	14.3090
 1.4680	14.3690
 1.4690	14.4320
 1.4700	14.4990
 1.4710	14.5720
 1.4720	14.6460
 1.4730	14.7230
 1.4740	14.8040
 1.4750	14.8870
 1.4760	14.9750
 1.4770	15.0650
 1.4780	15.1570
