Name: Baccharis pilularis 1
Type: vegetation
Class: Shrub
Genus: Baccharis
Species: pilularis
Sample No.: VH110
Owner: UCSB
Wavelength Range: TIR
Origin: 34.5084; -119.7687; WGS84
Collection Date: 6/3/2013
Description: Samples were collected as part of the HyspIRI Airborne Campaign. 48 individual plants were sampled in three times in 2013 - spring  summer  and fall. The name of the sample includes a 1  2  or 3 which references a different individual of the species. Samples were taken to JPL and processed within 48 hours of collection. The same leaves were processed in the Nicolet and then measured using the ASD.
Measurement: Hemispherical reflectance
First Column: X
Second Column: Y
X Units: Wavelength (micrometers)
Y Units: Reflectance (percentage)
First X Value: 2.501
Last X Value: 15.387
Number of X Values: 1737
Additional Information: vegetation.shrub.baccharis.pilularis.tir.vh110.ucsb.nicolet.ancillary.txt

 2.5010	 6.3900
 2.5030	 6.4540
 2.5040	 6.4650
 2.5050	 6.2830
 2.5060	 6.2660
 2.5070	 6.2060
 2.5090	 6.2430
 2.5100	 6.2910
 2.5110	 6.2610
 2.5120	 6.1500
 2.5140	 6.3360
 2.5150	 6.3740
 2.5160	 6.3160
 2.5170	 6.3050
 2.5180	 6.2860
 2.5200	 6.2140
 2.5210	 6.2530
 2.5220	 6.1360
 2.5230	 6.0410
 2.5250	 6.2250
 2.5260	 6.5120
 2.5270	 6.3970
 2.5280	 6.3210
 2.5290	 6.3470
 2.5310	 6.4090
 2.5320	 6.3510
 2.5330	 6.2290
 2.5340	 6.2500
 2.5360	 6.4060
 2.5370	 6.4540
 2.5380	 6.4540
 2.5390	 6.3820
 2.5410	 6.2780
 2.5420	 6.1580
 2.5430	 6.2030
 2.5440	 6.2630
 2.5460	 6.4010
 2.5470	 6.3930
 2.5480	 6.4010
 2.5490	 6.2960
 2.5510	 6.2290
 2.5520	 6.2960
 2.5530	 6.3930
 2.5540	 6.2840
 2.5560	 6.2780
 2.5570	 6.3050
 2.5580	 6.3500
 2.5590	 6.3930
 2.5610	 6.3250
 2.5620	 6.3220
 2.5630	 6.4160
 2.5640	 6.5060
 2.5660	 6.6170
 2.5670	 6.4630
 2.5680	 6.3030
 2.5700	 6.4810
 2.5710	 6.7720
 2.5720	 6.6270
 2.5730	 6.5060
 2.5750	 6.3350
 2.5760	 6.2510
 2.5770	 6.3110
 2.5790	 6.4480
 2.5800	 6.4450
 2.5810	 6.4020
 2.5820	 6.3940
 2.5840	 6.4570
 2.5850	 6.4950
 2.5860	 6.5130
 2.5880	 6.4480
 2.5890	 6.4460
 2.5900	 6.4200
 2.5910	 6.4330
 2.5930	 6.2820
 2.5940	 6.2910
 2.5950	 6.3510
 2.5970	 6.4070
 2.5980	 6.4010
 2.5990	 6.4240
 2.6000	 6.4320
 2.6020	 6.3770
 2.6030	 6.3310
 2.6040	 6.4040
 2.6060	 6.3200
 2.6070	 6.2050
 2.6080	 6.1920
 2.6100	 6.4560
 2.6110	 6.5280
 2.6120	 6.4650
 2.6140	 6.3490
 2.6150	 6.2930
 2.6160	 6.2810
 2.6180	 6.3790
 2.6190	 6.4080
 2.6200	 6.3570
 2.6220	 6.2580
 2.6230	 6.3460
 2.6240	 6.2860
 2.6260	 6.2680
 2.6270	 6.2830
 2.6280	 6.3770
 2.6300	 6.2580
 2.6310	 6.1900
 2.6320	 6.2100
 2.6340	 6.3260
 2.6350	 6.1760
 2.6360	 6.0920
 2.6380	 6.0350
 2.6390	 6.0500
 2.6400	 6.0430
 2.6420	 6.0480
 2.6430	 6.0910
 2.6440	 6.1960
 2.6460	 6.0720
 2.6470	 5.9130
 2.6480	 5.8890
 2.6500	 6.0660
 2.6510	 6.1400
 2.6520	 6.1500
 2.6540	 5.9920
 2.6550	 6.0720
 2.6560	 6.0800
 2.6580	 6.0490
 2.6590	 6.0310
 2.6610	 6.0890
 2.6620	 5.9550
 2.6630	 5.9340
 2.6650	 6.0250
 2.6660	 6.0310
 2.6670	 6.0670
 2.6690	 6.0540
 2.6700	 5.7850
 2.6720	 5.8650
 2.6730	 5.9870
 2.6740	 5.9490
 2.6760	 5.8970
 2.6770	 5.8720
 2.6780	 5.8540
 2.6800	 6.0230
 2.6810	 5.9560
 2.6830	 5.6930
 2.6840	 5.7570
 2.6850	 5.9440
 2.6870	 5.8840
 2.6880	 5.7500
 2.6900	 5.6630
 2.6910	 5.7600
 2.6920	 5.6140
 2.6940	 5.5930
 2.6950	 5.6720
 2.6970	 5.7420
 2.6980	 5.7400
 2.6990	 5.6810
 2.7010	 5.6280
 2.7020	 5.7850
 2.7040	 5.6610
 2.7050	 5.6200
 2.7060	 5.6530
 2.7080	 5.6720
 2.7090	 5.5800
 2.7110	 5.5960
 2.7120	 5.5920
 2.7130	 5.5560
 2.7150	 5.3280
 2.7160	 5.2220
 2.7180	 5.2370
 2.7190	 5.2430
 2.7210	 4.9900
 2.7220	 4.8540
 2.7230	 4.9110
 2.7250	 5.0880
 2.7260	 5.0440
 2.7280	 4.9020
 2.7290	 4.7900
 2.7310	 4.7020
 2.7320	 4.6220
 2.7330	 4.5360
 2.7350	 4.5950
 2.7360	 4.7470
 2.7380	 4.5260
 2.7390	 4.3680
 2.7410	 4.3260
 2.7420	 4.4480
 2.7440	 4.3110
 2.7450	 4.2440
 2.7470	 4.2070
 2.7480	 4.2630
 2.7490	 4.1820
 2.7510	 4.1280
 2.7520	 4.1140
 2.7540	 4.1450
 2.7550	 4.0570
 2.7570	 3.9200
 2.7580	 3.7530
 2.7600	 3.8870
 2.7610	 3.9510
 2.7630	 3.9780
 2.7640	 3.8690
 2.7660	 3.8490
 2.7670	 3.8260
 2.7680	 3.8530
 2.7700	 3.7680
 2.7710	 3.9000
 2.7730	 3.9790
 2.7740	 3.8010
 2.7760	 3.5660
 2.7770	 3.5940
 2.7790	 3.6350
 2.7800	 3.7190
 2.7820	 3.6530
 2.7830	 3.5550
 2.7850	 3.5680
 2.7860	 3.6670
 2.7880	 3.5390
 2.7890	 3.4940
 2.7910	 3.4800
 2.7920	 3.5180
 2.7940	 3.5810
 2.7950	 3.5770
 2.7970	 3.5570
 2.7980	 3.6280
 2.8000	 3.4680
 2.8010	 3.4660
 2.8030	 3.4560
 2.8040	 3.4980
 2.8060	 3.4940
 2.8070	 3.5530
 2.8090	 3.5800
 2.8110	 3.5210
 2.8120	 3.3720
 2.8140	 3.3980
 2.8150	 3.2800
 2.8170	 3.2730
 2.8180	 3.3540
 2.8200	 3.4680
 2.8210	 3.4680
 2.8230	 3.4800
 2.8240	 3.4080
 2.8260	 3.3960
 2.8270	 3.2530
 2.8290	 3.2680
 2.8300	 3.4350
 2.8320	 3.4850
 2.8340	 3.3640
 2.8350	 3.3610
 2.8370	 3.3750
 2.8380	 3.3120
 2.8400	 3.1350
 2.8410	 3.1510
 2.8430	 3.1420
 2.8440	 3.3700
 2.8460	 3.3720
 2.8480	 3.2930
 2.8490	 3.2960
 2.8510	 3.3320
 2.8520	 3.2330
 2.8540	 3.2210
 2.8550	 3.2320
 2.8570	 3.1930
 2.8590	 3.2210
 2.8600	 3.3870
 2.8620	 3.3960
 2.8630	 3.3560
 2.8650	 3.2060
 2.8660	 3.2480
 2.8680	 3.3440
 2.8700	 3.2670
 2.8710	 2.9790
 2.8730	 3.0350
 2.8740	 3.2440
 2.8760	 3.3030
 2.8780	 3.0870
 2.8790	 3.0430
 2.8810	 3.1530
 2.8820	 3.2990
 2.8840	 3.4350
 2.8860	 3.4410
 2.8870	 3.2760
 2.8890	 3.1670
 2.8900	 3.1650
 2.8920	 3.2880
 2.8940	 3.2940
 2.8950	 3.4130
 2.8970	 3.4640
 2.8980	 3.2580
 2.9000	 3.0440
 2.9020	 3.2010
 2.9030	 3.2630
 2.9050	 3.1630
 2.9070	 3.1330
 2.9080	 3.3280
 2.9100	 3.3170
 2.9120	 3.2480
 2.9130	 3.1860
 2.9150	 3.3030
 2.9160	 3.3080
 2.9180	 3.2050
 2.9200	 3.1680
 2.9210	 3.3000
 2.9230	 3.3480
 2.9250	 3.3890
 2.9260	 3.3530
 2.9280	 3.3950
 2.9300	 3.2490
 2.9310	 3.1860
 2.9330	 3.2180
 2.9350	 3.2610
 2.9360	 3.3250
 2.9380	 3.5000
 2.9400	 3.4110
 2.9410	 3.3080
 2.9430	 3.3220
 2.9450	 3.3470
 2.9460	 3.2540
 2.9480	 3.2380
 2.9500	 3.2490
 2.9510	 3.3000
 2.9530	 3.2890
 2.9550	 3.3010
 2.9560	 3.2840
 2.9580	 3.3380
 2.9600	 3.3500
 2.9610	 3.3660
 2.9630	 3.2900
 2.9650	 3.2310
 2.9660	 3.2430
 2.9680	 3.4120
 2.9700	 3.3940
 2.9720	 3.4910
 2.9730	 3.4880
 2.9750	 3.3300
 2.9770	 3.2200
 2.9780	 3.4400
 2.9800	 3.5770
 2.9820	 3.4310
 2.9840	 3.2720
 2.9850	 3.2300
 2.9870	 3.1520
 2.9890	 3.2890
 2.9900	 3.3010
 2.9920	 3.4710
 2.9940	 3.4650
 2.9960	 3.3290
 2.9970	 3.3750
 2.9990	 3.5140
 3.0010	 3.5400
 3.0030	 3.5140
 3.0040	 3.3590
 3.0060	 3.4410
 3.0080	 3.4240
 3.0100	 3.4710
 3.0110	 3.5460
 3.0130	 3.5510
 3.0150	 3.4960
 3.0170	 3.5080
 3.0180	 3.4400
 3.0200	 3.4340
 3.0220	 3.3870
 3.0240	 3.4850
 3.0250	 3.4880
 3.0270	 3.4630
 3.0290	 3.3700
 3.0310	 3.3520
 3.0320	 3.3910
 3.0340	 3.5400
 3.0360	 3.5700
 3.0380	 3.4910
 3.0400	 3.3620
 3.0410	 3.4000
 3.0430	 3.4660
 3.0450	 3.5490
 3.0470	 3.5120
 3.0480	 3.4890
 3.0500	 3.4490
 3.0520	 3.6090
 3.0540	 3.6800
 3.0560	 3.7170
 3.0570	 3.5430
 3.0590	 3.3150
 3.0610	 3.3270
 3.0630	 3.4550
 3.0650	 3.4280
 3.0660	 3.5510
 3.0680	 3.5790
 3.0700	 3.6470
 3.0720	 3.5410
 3.0740	 3.4360
 3.0760	 3.4830
 3.0770	 3.5050
 3.0790	 3.3890
 3.0810	 3.4560
 3.0830	 3.4100
 3.0850	 3.3710
 3.0870	 3.4170
 3.0880	 3.4660
 3.0900	 3.4200
 3.0920	 3.5400
 3.0940	 3.5230
 3.0960	 3.5330
 3.0980	 3.6170
 3.0990	 3.6480
 3.1010	 3.5860
 3.1030	 3.5570
 3.1050	 3.4590
 3.1070	 3.4390
 3.1090	 3.4840
 3.1110	 3.5490
 3.1120	 3.5320
 3.1140	 3.6650
 3.1160	 3.6960
 3.1180	 3.6100
 3.1200	 3.5130
 3.1220	 3.5220
 3.1240	 3.5520
 3.1260	 3.5820
 3.1270	 3.5290
 3.1290	 3.5610
 3.1310	 3.5320
 3.1330	 3.5510
 3.1350	 3.6110
 3.1370	 3.7680
 3.1390	 3.6920
 3.1410	 3.5770
 3.1430	 3.6810
 3.1450	 3.8600
 3.1460	 3.8000
 3.1480	 3.7170
 3.1500	 3.7590
 3.1520	 3.7340
 3.1540	 3.5680
 3.1560	 3.6670
 3.1580	 3.7210
 3.1600	 3.7510
 3.1620	 3.7190
 3.1640	 3.8020
 3.1660	 3.9220
 3.1680	 3.9180
 3.1700	 3.7790
 3.1710	 3.8130
 3.1730	 3.7420
 3.1750	 3.6550
 3.1770	 3.7330
 3.1790	 3.8870
 3.1810	 3.8550
 3.1830	 3.8860
 3.1850	 3.7810
 3.1870	 3.8410
 3.1890	 3.9180
 3.1910	 3.9790
 3.1930	 3.8910
 3.1950	 3.8760
 3.1970	 3.9050
 3.1990	 3.9690
 3.2010	 3.9780
 3.2030	 3.9740
 3.2050	 3.9020
 3.2070	 3.8700
 3.2090	 3.8380
 3.2110	 3.9740
 3.2130	 3.9350
 3.2150	 3.8250
 3.2170	 3.7900
 3.2190	 3.9240
 3.2210	 4.0550
 3.2230	 4.0780
 3.2250	 3.9160
 3.2270	 3.9670
 3.2290	 4.0010
 3.2310	 3.9460
 3.2330	 3.8830
 3.2350	 3.9080
 3.2370	 3.9560
 3.2390	 4.0090
 3.2410	 3.9720
 3.2430	 3.9900
 3.2450	 4.0120
 3.2470	 4.1150
 3.2490	 4.0640
 3.2510	 4.0970
 3.2530	 4.1050
 3.2550	 4.0730
 3.2570	 4.0690
 3.2590	 4.1150
 3.2610	 4.1390
 3.2630	 4.1370
 3.2650	 4.0450
 3.2670	 4.0330
 3.2690	 4.0480
 3.2720	 4.0960
 3.2740	 4.1250
 3.2760	 4.1160
 3.2780	 4.0300
 3.2800	 4.1100
 3.2820	 4.1730
 3.2840	 4.2460
 3.2860	 4.2380
 3.2880	 4.2400
 3.2900	 4.1690
 3.2920	 4.0680
 3.2940	 4.0390
 3.2960	 4.0780
 3.2990	 4.1230
 3.3010	 4.2180
 3.3030	 4.1740
 3.3050	 4.1100
 3.3070	 4.1120
 3.3090	 4.2010
 3.3110	 4.1400
 3.3130	 4.2040
 3.3150	 4.1770
 3.3180	 4.1160
 3.3200	 4.1880
 3.3220	 4.2340
 3.3240	 4.1290
 3.3260	 4.1460
 3.3280	 4.1270
 3.3300	 4.1310
 3.3330	 4.0460
 3.3350	 4.0260
 3.3370	 3.9250
 3.3390	 3.8970
 3.3410	 3.8450
 3.3430	 3.8470
 3.3450	 3.8890
 3.3480	 3.9110
 3.3500	 3.7710
 3.3520	 3.7670
 3.3540	 3.7940
 3.3560	 3.8290
 3.3580	 3.8200
 3.3610	 3.6430
 3.3630	 3.5590
 3.3650	 3.6850
 3.3670	 3.7270
 3.3690	 3.7130
 3.3720	 3.6810
 3.3740	 3.7810
 3.3760	 3.8580
 3.3780	 3.8830
 3.3800	 3.7900
 3.3830	 3.7540
 3.3850	 3.8360
 3.3870	 3.8650
 3.3890	 3.6440
 3.3910	 3.4890
 3.3940	 3.3820
 3.3960	 3.3800
 3.3980	 3.3640
 3.4000	 3.5870
 3.4020	 3.7910
 3.4050	 3.8370
 3.4070	 3.7970
 3.4090	 3.8500
 3.4110	 3.9720
 3.4140	 4.2320
 3.4160	 4.5190
 3.4180	 4.9920
 3.4200	 5.6080
 3.4230	 6.4030
 3.4250	 7.1910
 3.4270	 8.0320
 3.4290	 8.5000
 3.4320	 8.1930
 3.4340	 7.1800
 3.4360	 6.2430
 3.4390	 5.7040
 3.4410	 5.4060
 3.4430	 5.1600
 3.4450	 4.9970
 3.4480	 4.8050
 3.4500	 4.8410
 3.4520	 4.8320
 3.4550	 4.8240
 3.4570	 4.7950
 3.4590	 4.6670
 3.4620	 4.6190
 3.4640	 4.7240
 3.4660	 4.6830
 3.4680	 4.6370
 3.4710	 4.5230
 3.4730	 4.3850
 3.4750	 4.3030
 3.4780	 4.3120
 3.4800	 4.2870
 3.4820	 4.2240
 3.4850	 4.1640
 3.4870	 4.1010
 3.4890	 4.0640
 3.4920	 4.1260
 3.4940	 4.1460
 3.4970	 4.2310
 3.4990	 4.3470
 3.5010	 4.5690
 3.5040	 4.9360
 3.5060	 5.6260
 3.5080	 6.8230
 3.5110	 7.8870
 3.5130	 7.8050
 3.5160	 6.9720
 3.5180	 6.1330
 3.5200	 5.7400
 3.5230	 5.5060
 3.5250	 5.3420
 3.5270	 5.3100
 3.5300	 5.2960
 3.5320	 5.2110
 3.5350	 5.2110
 3.5370	 5.1960
 3.5400	 5.0930
 3.5420	 5.1090
 3.5440	 5.1650
 3.5470	 5.1290
 3.5490	 5.0690
 3.5520	 5.0760
 3.5540	 5.1000
 3.5570	 5.0630
 3.5590	 5.0910
 3.5610	 5.1240
 3.5640	 5.2030
 3.5660	 5.0890
 3.5690	 5.0390
 3.5710	 5.0620
 3.5740	 5.0530
 3.5760	 4.9950
 3.5790	 5.0660
 3.5810	 5.1250
 3.5840	 5.1150
 3.5860	 5.0310
 3.5890	 5.1290
 3.5910	 5.1210
 3.5930	 5.1420
 3.5960	 5.1860
 3.5980	 5.0980
 3.6010	 5.0370
 3.6030	 5.0860
 3.6060	 5.1130
 3.6080	 5.1670
 3.6110	 5.1790
 3.6140	 5.0840
 3.6160	 5.0050
 3.6190	 5.1250
 3.6210	 5.1530
 3.6240	 5.1330
 3.6260	 5.0970
 3.6290	 5.1560
 3.6310	 5.1750
 3.6340	 5.1980
 3.6360	 5.2210
 3.6390	 5.1370
 3.6410	 5.0720
 3.6440	 5.0980
 3.6470	 5.0820
 3.6490	 5.1130
 3.6520	 5.0850
 3.6540	 5.0540
 3.6570	 5.0600
 3.6590	 5.0580
 3.6620	 5.0660
 3.6650	 5.1270
 3.6670	 5.0970
 3.6700	 5.0320
 3.6720	 5.0530
 3.6750	 5.1020
 3.6780	 5.1360
 3.6800	 5.1830
 3.6830	 5.0800
 3.6850	 5.0610
 3.6880	 5.1890
 3.6910	 5.2930
 3.6930	 5.2300
 3.6960	 5.1530
 3.6990	 5.1320
 3.7010	 5.1760
 3.7040	 5.1620
 3.7060	 5.1570
 3.7090	 5.1930
 3.7120	 5.2440
 3.7140	 5.3050
 3.7170	 5.2810
 3.7200	 5.2200
 3.7220	 5.2660
 3.7250	 5.2880
 3.7280	 5.3220
 3.7300	 5.2850
 3.7330	 5.2490
 3.7360	 5.2320
 3.7390	 5.3040
 3.7410	 5.3530
 3.7440	 5.3240
 3.7470	 5.2720
 3.7490	 5.2790
 3.7520	 5.2300
 3.7550	 5.2790
 3.7580	 5.3060
 3.7600	 5.2930
 3.7630	 5.3040
 3.7660	 5.3240
 3.7680	 5.3050
 3.7710	 5.3490
 3.7740	 5.4240
 3.7770	 5.4680
 3.7790	 5.4470
 3.7820	 5.3310
 3.7850	 5.3280
 3.7880	 5.4580
 3.7900	 5.4730
 3.7930	 5.4310
 3.7960	 5.3940
 3.7990	 5.4400
 3.8020	 5.5000
 3.8040	 5.5170
 3.8070	 5.4690
 3.8100	 5.4830
 3.8130	 5.4510
 3.8160	 5.4510
 3.8180	 5.4550
 3.8210	 5.4260
 3.8240	 5.4640
 3.8270	 5.5110
 3.8300	 5.4490
 3.8330	 5.4580
 3.8350	 5.5190
 3.8380	 5.4930
 3.8410	 5.4660
 3.8440	 5.4670
 3.8470	 5.4490
 3.8500	 5.5210
 3.8520	 5.4830
 3.8550	 5.4700
 3.8580	 5.5100
 3.8610	 5.5720
 3.8640	 5.5620
 3.8670	 5.4950
 3.8700	 5.4880
 3.8730	 5.5650
 3.8750	 5.6450
 3.8780	 5.6000
 3.8810	 5.5750
 3.8840	 5.5760
 3.8870	 5.5040
 3.8900	 5.5170
 3.8930	 5.4920
 3.8960	 5.4940
 3.8990	 5.4940
 3.9020	 5.5670
 3.9050	 5.5330
 3.9080	 5.4910
 3.9110	 5.5490
 3.9140	 5.5840
 3.9160	 5.5550
 3.9190	 5.6080
 3.9220	 5.6020
 3.9250	 5.5800
 3.9280	 5.5830
 3.9310	 5.5140
 3.9340	 5.4880
 3.9370	 5.6060
 3.9400	 5.5590
 3.9430	 5.5300
 3.9460	 5.5370
 3.9490	 5.5180
 3.9520	 5.4520
 3.9550	 5.4840
 3.9580	 5.5590
 3.9610	 5.5850
 3.9640	 5.5280
 3.9670	 5.5720
 3.9700	 5.4900
 3.9730	 5.4800
 3.9770	 5.5390
 3.9800	 5.6200
 3.9830	 5.6380
 3.9860	 5.5750
 3.9890	 5.5180
 3.9920	 5.5200
 3.9950	 5.4730
 3.9980	 5.5500
 4.0010	 5.6510
 4.0040	 5.6890
 4.0070	 5.6520
 4.0100	 5.6650
 4.0130	 5.6130
 4.0170	 5.5350
 4.0200	 5.5520
 4.0230	 5.6090
 4.0260	 5.6280
 4.0290	 5.5700
 4.0320	 5.5400
 4.0350	 5.5530
 4.0380	 5.5390
 4.0420	 5.6460
 4.0450	 5.7640
 4.0480	 5.6920
 4.0510	 5.5980
 4.0540	 5.6130
 4.0570	 5.6780
 4.0610	 5.7340
 4.0640	 5.7570
 4.0670	 5.6910
 4.0700	 5.5600
 4.0730	 5.5490
 4.0770	 5.5980
 4.0800	 5.6760
 4.0830	 5.7310
 4.0860	 5.7310
 4.0890	 5.6970
 4.0930	 5.7060
 4.0960	 5.7230
 4.0990	 5.7780
 4.1020	 5.7280
 4.1060	 5.7160
 4.1090	 5.7380
 4.1120	 5.7430
 4.1150	 5.6970
 4.1190	 5.6650
 4.1220	 5.6600
 4.1250	 5.7610
 4.1280	 5.7050
 4.1320	 5.6750
 4.1350	 5.7840
 4.1380	 5.7500
 4.1420	 5.7740
 4.1450	 5.7970
 4.1480	 5.7160
 4.1520	 5.6970
 4.1550	 5.7720
 4.1580	 5.7610
 4.1620	 5.6760
 4.1650	 5.6500
 4.1680	 5.6950
 4.1720	 5.8000
 4.1750	 5.8560
 4.1780	 5.8640
 4.1820	 5.8260
 4.1850	 5.7980
 4.1890	 5.8270
 4.1920	 5.8410
 4.1950	 5.8040
 4.1990	 5.8440
 4.2020	 5.8360
 4.2060	 5.7710
 4.2090	 5.8080
 4.2120	 5.9150
 4.2160	 5.9770
 4.2190	 5.9960
 4.2230	 6.1350
 4.2260	 6.1460
 4.2300	 6.2160
 4.2330	 6.0910
 4.2360	 5.9290
 4.2400	 6.0370
 4.2430	 6.1400
 4.2470	 6.1600
 4.2500	 6.0610
 4.2540	 5.9550
 4.2570	 5.9350
 4.2610	 6.0820
 4.2640	 6.0970
 4.2680	 5.9950
 4.2710	 5.9330
 4.2750	 5.9650
 4.2780	 6.0330
 4.2820	 6.0990
 4.2850	 6.1740
 4.2890	 6.1700
 4.2930	 6.2020
 4.2960	 6.1030
 4.3000	 5.9790
 4.3030	 6.0210
 4.3070	 6.0320
 4.3100	 6.0510
 4.3140	 5.9960
 4.3180	 5.9540
 4.3210	 6.0580
 4.3250	 6.0010
 4.3280	 5.8900
 4.3320	 5.8910
 4.3360	 5.8350
 4.3390	 5.7970
 4.3430	 5.8090
 4.3470	 5.7930
 4.3500	 5.7200
 4.3540	 5.8010
 4.3570	 5.8550
 4.3610	 5.7950
 4.3650	 5.7950
 4.3680	 5.7490
 4.3720	 5.7570
 4.3760	 5.8030
 4.3800	 5.7730
 4.3830	 5.7350
 4.3870	 5.7410
 4.3910	 5.8290
 4.3940	 5.8670
 4.3980	 5.8700
 4.4020	 5.7950
 4.4060	 5.7610
 4.4090	 5.8160
 4.4130	 5.8050
 4.4170	 5.7530
 4.4210	 5.7780
 4.4240	 5.8020
 4.4280	 5.6920
 4.4320	 5.5950
 4.4360	 5.6280
 4.4400	 5.7050
 4.4430	 5.7220
 4.4470	 5.6620
 4.4510	 5.6100
 4.4550	 5.6040
 4.4590	 5.6250
 4.4620	 5.6400
 4.4660	 5.7140
 4.4700	 5.6970
 4.4740	 5.5980
 4.4780	 5.6390
 4.4820	 5.6940
 4.4860	 5.6790
 4.4900	 5.6630
 4.4930	 5.6600
 4.4970	 5.7150
 4.5010	 5.6760
 4.5050	 5.5980
 4.5090	 5.6010
 4.5130	 5.6310
 4.5170	 5.6750
 4.5210	 5.6760
 4.5250	 5.5750
 4.5290	 5.5100
 4.5330	 5.6230
 4.5370	 5.6620
 4.5410	 5.5920
 4.5450	 5.5640
 4.5490	 5.5660
 4.5530	 5.5660
 4.5570	 5.6120
 4.5610	 5.6340
 4.5650	 5.6040
 4.5690	 5.5570
 4.5730	 5.5020
 4.5770	 5.5500
 4.5810	 5.6220
 4.5850	 5.6030
 4.5890	 5.5720
 4.5930	 5.5020
 4.5970	 5.5020
 4.6010	 5.4760
 4.6050	 5.4830
 4.6090	 5.5450
 4.6130	 5.5430
 4.6170	 5.5050
 4.6220	 5.5020
 4.6260	 5.4720
 4.6300	 5.5090
 4.6340	 5.4970
 4.6380	 5.4540
 4.6420	 5.4340
 4.6460	 5.4870
 4.6510	 5.4760
 4.6550	 5.4670
 4.6590	 5.4570
 4.6630	 5.3920
 4.6670	 5.4350
 4.6720	 5.4940
 4.6760	 5.5010
 4.6800	 5.4120
 4.6840	 5.3130
 4.6880	 5.2950
 4.6930	 5.3680
 4.6970	 5.4680
 4.7010	 5.5320
 4.7050	 5.5310
 4.7100	 5.4550
 4.7140	 5.4920
 4.7180	 5.4930
 4.7230	 5.4790
 4.7270	 5.4660
 4.7310	 5.4460
 4.7360	 5.4520
 4.7400	 5.4630
 4.7440	 5.4760
 4.7490	 5.4810
 4.7530	 5.4490
 4.7570	 5.4890
 4.7620	 5.4660
 4.7660	 5.4790
 4.7700	 5.5640
 4.7750	 5.5590
 4.7790	 5.4700
 4.7840	 5.4890
 4.7880	 5.5110
 4.7920	 5.5110
 4.7970	 5.4850
 4.8010	 5.5290
 4.8060	 5.5420
 4.8100	 5.4620
 4.8150	 5.4370
 4.8190	 5.5250
 4.8240	 5.5310
 4.8280	 5.4800
 4.8330	 5.4440
 4.8370	 5.4570
 4.8420	 5.4550
 4.8460	 5.5280
 4.8510	 5.6020
 4.8550	 5.5720
 4.8600	 5.5670
 4.8640	 5.5280
 4.8690	 5.4740
 4.8730	 5.5450
 4.8780	 5.5990
 4.8830	 5.5670
 4.8870	 5.5490
 4.8920	 5.5510
 4.8960	 5.4880
 4.9010	 5.4930
 4.9060	 5.5330
 4.9100	 5.5950
 4.9150	 5.6040
 4.9200	 5.5920
 4.9240	 5.5030
 4.9290	 5.5180
 4.9340	 5.5490
 4.9380	 5.5000
 4.9430	 5.5320
 4.9480	 5.6080
 4.9530	 5.6340
 4.9570	 5.5330
 4.9620	 5.5330
 4.9670	 5.6360
 4.9720	 5.6170
 4.9760	 5.6690
 4.9810	 5.7400
 4.9860	 5.7880
 4.9910	 5.7650
 4.9960	 5.7730
 5.0000	 5.8170
 5.0050	 5.8230
 5.0100	 5.7320
 5.0150	 5.7300
 5.0200	 5.7860
 5.0250	 5.7660
 5.0290	 5.6740
 5.0340	 5.6620
 5.0390	 5.6380
 5.0440	 5.6480
 5.0490	 5.6210
 5.0540	 5.6760
 5.0590	 5.7040
 5.0640	 5.7740
 5.0690	 5.7980
 5.0740	 5.7710
 5.0790	 5.7190
 5.0840	 5.7310
 5.0890	 5.6740
 5.0940	 5.6280
 5.0990	 5.6180
 5.1040	 5.7260
 5.1090	 5.7190
 5.1140	 5.6490
 5.1190	 5.6600
 5.1240	 5.7950
 5.1290	 5.7480
 5.1340	 5.7480
 5.1390	 5.7860
 5.1440	 5.8020
 5.1490	 5.7580
 5.1540	 5.6820
 5.1600	 5.6220
 5.1650	 5.6670
 5.1700	 5.7520
 5.1750	 5.8120
 5.1800	 5.7780
 5.1850	 5.7330
 5.1910	 5.6830
 5.1960	 5.7620
 5.2010	 5.8110
 5.2060	 5.8500
 5.2110	 5.8730
 5.2170	 5.9240
 5.2220	 5.8070
 5.2270	 5.7570
 5.2320	 5.7840
 5.2380	 5.7840
 5.2430	 5.8340
 5.2480	 5.8170
 5.2540	 5.7060
 5.2590	 5.7630
 5.2640	 5.7860
 5.2700	 5.8060
 5.2750	 5.7990
 5.2800	 5.8130
 5.2860	 5.7860
 5.2910	 5.7990
 5.2970	 5.7430
 5.3020	 5.7890
 5.3070	 5.7200
 5.3130	 5.6670
 5.3180	 5.6870
 5.3240	 5.7330
 5.3290	 5.6930
 5.3350	 5.5990
 5.3400	 5.6000
 5.3460	 5.6980
 5.3510	 5.7350
 5.3570	 5.7470
 5.3620	 5.7410
 5.3680	 5.7510
 5.3730	 5.7040
 5.3790	 5.6980
 5.3850	 5.6820
 5.3900	 5.7060
 5.3960	 5.6460
 5.4010	 5.5910
 5.4070	 5.5570
 5.4130	 5.5950
 5.4180	 5.6430
 5.4240	 5.6940
 5.4300	 5.6610
 5.4350	 5.6320
