Name: Quercus ilex
Type: vegetation
Class: Tree
Genus: Quercus
Species: ilex
Sample No.: JPL114
Owner: JPL
Wavelength Range: VSWIR
Origin: 34.12768; -118.1133;; WGS84
Collection Date: 9/7/2016
Description: Samples were collected at the Huntington Garden in San Marino California as part of a JPL Subcontract studying HyTES imagery. Samples were taken to JPL and processed within 48 hours of collection. The same leaves were processed in the Nicolet and then measured using the ASD.
Measurement: Bidirectional reflectance
First Column: X
Second Column: Y
X Units: Wavelength (micrometer)
Y Units: Reflectance (percentage)
First X Value: 0.35
Last X Value: 2.5
Number of X Values: 2151
Additional Information: vegetation.tree.quercus.ilex.vswir.jpl114.jpl.asd.ancillary.txt

 0.3500	 7.5920
 0.3510	 7.6750
 0.3520	 7.6990
 0.3530	 7.6650
 0.3540	 7.6210
 0.3550	 7.6250
 0.3560	 7.5800
 0.3570	 7.5180
 0.3580	 7.5200
 0.3590	 7.5160
 0.3600	 7.4920
 0.3610	 7.4670
 0.3620	 7.4980
 0.3630	 7.5070
 0.3640	 7.4980
 0.3650	 7.4910
 0.3660	 7.4840
 0.3670	 7.4540
 0.3680	 7.4210
 0.3690	 7.4270
 0.3700	 7.4140
 0.3710	 7.3730
 0.3720	 7.3380
 0.3730	 7.4070
 0.3740	 7.4380
 0.3750	 7.4250
 0.3760	 7.4090
 0.3770	 7.4320
 0.3780	 7.4330
 0.3790	 7.3990
 0.3800	 7.3620
 0.3810	 7.3490
 0.3820	 7.3260
 0.3830	 7.2840
 0.3840	 7.2990
 0.3850	 7.3370
 0.3860	 7.3630
 0.3870	 7.3500
 0.3880	 7.3220
 0.3890	 7.3280
 0.3900	 7.3570
 0.3910	 7.3390
 0.3920	 7.3280
 0.3930	 7.3330
 0.3940	 7.3470
 0.3950	 7.3460
 0.3960	 7.3460
 0.3970	 7.3460
 0.3980	 7.3390
 0.3990	 7.3500
 0.4000	 7.3530
 0.4010	 7.3400
 0.4020	 7.3270
 0.4030	 7.3100
 0.4040	 7.3120
 0.4050	 7.3460
 0.4060	 7.3580
 0.4070	 7.3550
 0.4080	 7.3520
 0.4090	 7.3660
 0.4100	 7.3920
 0.4110	 7.4090
 0.4120	 7.4140
 0.4130	 7.4250
 0.4140	 7.4400
 0.4150	 7.4520
 0.4160	 7.4560
 0.4170	 7.4600
 0.4180	 7.4680
 0.4190	 7.4760
 0.4200	 7.4770
 0.4210	 7.4850
 0.4220	 7.4920
 0.4230	 7.4910
 0.4240	 7.5040
 0.4250	 7.5150
 0.4260	 7.5190
 0.4270	 7.5150
 0.4280	 7.5180
 0.4290	 7.5210
 0.4300	 7.5120
 0.4310	 7.4780
 0.4320	 7.4560
 0.4330	 7.4440
 0.4340	 7.4300
 0.4350	 7.4150
 0.4360	 7.4140
 0.4370	 7.4310
 0.4380	 7.4560
 0.4390	 7.4680
 0.4400	 7.4870
 0.4410	 7.5210
 0.4420	 7.5350
 0.4430	 7.5430
 0.4440	 7.5480
 0.4450	 7.5500
 0.4460	 7.5580
 0.4470	 7.5620
 0.4480	 7.5630
 0.4490	 7.5710
 0.4500	 7.5750
 0.4510	 7.5780
 0.4520	 7.5840
 0.4530	 7.5860
 0.4540	 7.5880
 0.4550	 7.5910
 0.4560	 7.5940
 0.4570	 7.6040
 0.4580	 7.6100
 0.4590	 7.6100
 0.4600	 7.6110
 0.4610	 7.6120
 0.4620	 7.6150
 0.4630	 7.6200
 0.4640	 7.6180
 0.4650	 7.6220
 0.4660	 7.6300
 0.4670	 7.6280
 0.4680	 7.6250
 0.4690	 7.6250
 0.4700	 7.6290
 0.4710	 7.6260
 0.4720	 7.6300
 0.4730	 7.6390
 0.4740	 7.6460
 0.4750	 7.6430
 0.4760	 7.6390
 0.4770	 7.6400
 0.4780	 7.6430
 0.4790	 7.6420
 0.4800	 7.6380
 0.4810	 7.6350
 0.4820	 7.6300
 0.4830	 7.6230
 0.4840	 7.6160
 0.4850	 7.6160
 0.4860	 7.6150
 0.4870	 7.6070
 0.4880	 7.5950
 0.4890	 7.6030
 0.4900	 7.6200
 0.4910	 7.6360
 0.4920	 7.6400
 0.4930	 7.6510
 0.4940	 7.6600
 0.4950	 7.6660
 0.4960	 7.6800
 0.4970	 7.6940
 0.4980	 7.7090
 0.4990	 7.7270
 0.5000	 7.7460
 0.5010	 7.7640
 0.5020	 7.7780
 0.5030	 7.7880
 0.5040	 7.8080
 0.5050	 7.8330
 0.5060	 7.8570
 0.5070	 7.8840
 0.5080	 7.9100
 0.5090	 7.9400
 0.5100	 7.9790
 0.5110	 8.0190
 0.5120	 8.0600
 0.5130	 8.1060
 0.5140	 8.1600
 0.5150	 8.2200
 0.5160	 8.2840
 0.5170	 8.3540
 0.5180	 8.4330
 0.5190	 8.5120
 0.5200	 8.5960
 0.5210	 8.6940
 0.5220	 8.7880
 0.5230	 8.8830
 0.5240	 8.9810
 0.5250	 9.0810
 0.5260	 9.1790
 0.5270	 9.2740
 0.5280	 9.3670
 0.5290	 9.4550
 0.5300	 9.5370
 0.5310	 9.6120
 0.5320	 9.6850
 0.5330	 9.7490
 0.5340	 9.8080
 0.5350	 9.8640
 0.5360	 9.9080
 0.5370	 9.9460
 0.5380	 9.9760
 0.5390	 9.9930
 0.5400	 9.9890
 0.5410	 9.9670
 0.5420	 9.9380
 0.5430	 9.9270
 0.5440	 9.9450
 0.5450	 9.9880
 0.5460	10.0460
 0.5470	10.1140
 0.5480	10.1770
 0.5490	10.2240
 0.5500	10.2510
 0.5510	10.2710
 0.5520	10.2870
 0.5530	10.2990
 0.5540	10.3060
 0.5550	10.3060
 0.5560	10.2960
 0.5570	10.2730
 0.5580	10.2390
 0.5590	10.1960
 0.5600	10.1460
 0.5610	10.0890
 0.5620	10.0250
 0.5630	 9.9550
 0.5640	 9.8840
 0.5650	 9.8130
 0.5660	 9.7390
 0.5670	 9.6610
 0.5680	 9.5820
 0.5690	 9.5020
 0.5700	 9.4240
 0.5710	 9.3520
 0.5720	 9.2870
 0.5730	 9.2300
 0.5740	 9.1820
 0.5750	 9.1410
 0.5760	 9.1080
 0.5770	 9.0740
 0.5780	 9.0350
 0.5790	 8.9950
 0.5800	 8.9570
 0.5810	 8.9200
 0.5820	 8.8860
 0.5830	 8.8530
 0.5840	 8.8270
 0.5850	 8.8080
 0.5860	 8.7800
 0.5870	 8.7440
 0.5880	 8.7080
 0.5890	 8.6800
 0.5900	 8.6630
 0.5910	 8.6520
 0.5920	 8.6460
 0.5930	 8.6430
 0.5940	 8.6410
 0.5950	 8.6410
 0.5960	 8.6430
 0.5970	 8.6430
 0.5980	 8.6350
 0.5990	 8.6260
 0.6000	 8.6210
 0.6010	 8.6180
 0.6020	 8.6110
 0.6030	 8.5980
 0.6040	 8.5820
 0.6050	 8.5630
 0.6060	 8.5400
 0.6070	 8.5150
 0.6080	 8.4860
 0.6090	 8.4360
 0.6100	 8.3590
 0.6110	 8.2680
 0.6120	 8.2460
 0.6130	 8.2610
 0.6140	 8.2790
 0.6150	 8.2740
 0.6160	 8.2650
 0.6170	 8.2550
 0.6180	 8.2410
 0.6190	 8.2210
 0.6200	 8.2030
 0.6210	 8.1890
 0.6220	 8.1800
 0.6230	 8.1730
 0.6240	 8.1660
 0.6250	 8.1600
 0.6260	 8.1580
 0.6270	 8.1550
 0.6280	 8.1510
 0.6290	 8.1470
 0.6300	 8.1390
 0.6310	 8.1340
 0.6320	 8.1360
 0.6330	 8.1380
 0.6340	 8.1360
 0.6350	 8.1280
 0.6360	 8.1170
 0.6370	 8.1060
 0.6380	 8.0940
 0.6390	 8.0790
 0.6400	 8.0610
 0.6410	 8.0400
 0.6420	 8.0200
 0.6430	 8.0030
 0.6440	 7.9880
 0.6450	 7.9710
 0.6460	 7.9550
 0.6470	 7.9440
 0.6480	 7.9300
 0.6490	 7.9200
 0.6500	 7.9120
 0.6510	 7.9030
 0.6520	 7.8980
 0.6530	 7.8950
 0.6540	 7.8920
 0.6550	 7.8890
 0.6560	 7.8840
 0.6570	 7.8770
 0.6580	 7.8720
 0.6590	 7.8680
 0.6600	 7.8610
 0.6610	 7.8510
 0.6620	 7.8430
 0.6630	 7.8380
 0.6640	 7.8330
 0.6650	 7.8310
 0.6660	 7.8300
 0.6670	 7.8300
 0.6680	 7.8310
 0.6690	 7.8360
 0.6700	 7.8400
 0.6710	 7.8460
 0.6720	 7.8560
 0.6730	 7.8660
 0.6740	 7.8770
 0.6750	 7.8910
 0.6760	 7.9070
 0.6770	 7.9220
 0.6780	 7.9390
 0.6790	 7.9570
 0.6800	 7.9740
 0.6810	 7.9960
 0.6820	 8.0210
 0.6830	 8.0490
 0.6840	 8.0780
 0.6850	 8.1080
 0.6860	 8.1410
 0.6870	 8.1780
 0.6880	 8.2230
 0.6890	 8.2750
 0.6900	 8.3390
 0.6910	 8.4180
 0.6920	 8.5170
 0.6930	 8.6400
 0.6940	 8.7920
 0.6950	 8.9860
 0.6960	 9.2210
 0.6970	 9.5010
 0.6980	 9.8280
 0.6990	10.2080
 0.7000	10.6410
 0.7010	11.1220
 0.7020	11.6490
 0.7030	12.2230
 0.7040	12.8360
 0.7050	13.4810
 0.7060	14.1560
 0.7070	14.8590
 0.7080	15.5900
 0.7090	16.3470
 0.7100	17.1270
 0.7110	17.9300
 0.7120	18.7510
 0.7130	19.5880
 0.7140	20.4430
 0.7150	21.3110
 0.7160	22.1870
 0.7170	23.0770
 0.7180	23.9720
 0.7190	24.8720
 0.7200	25.7780
 0.7210	26.6830
 0.7220	27.5870
 0.7230	28.4840
 0.7240	29.3720
 0.7250	30.2450
 0.7260	31.1020
 0.7270	31.9440
 0.7280	32.7630
 0.7290	33.5600
 0.7300	34.3340
 0.7310	35.0840
 0.7320	35.8060
 0.7330	36.5000
 0.7340	37.1650
 0.7350	37.8030
 0.7360	38.4170
 0.7370	39.0020
 0.7380	39.5550
 0.7390	40.0790
 0.7400	40.5770
 0.7410	41.0510
 0.7420	41.4980
 0.7430	41.9180
 0.7440	42.3130
 0.7450	42.6850
 0.7460	43.0310
 0.7470	43.3560
 0.7480	43.6590
 0.7490	43.9390
 0.7500	44.2000
 0.7510	44.4400
 0.7520	44.6630
 0.7530	44.8760
 0.7540	45.0680
 0.7550	45.2450
 0.7560	45.4090
 0.7570	45.5590
 0.7580	45.6970
 0.7590	45.8240
 0.7600	45.9410
 0.7610	46.0510
 0.7620	46.1520
 0.7630	46.2450
 0.7640	46.3320
 0.7650	46.4140
 0.7660	46.4890
 0.7670	46.5600
 0.7680	46.6280
 0.7690	46.6850
 0.7700	46.7400
 0.7710	46.7940
 0.7720	46.8430
 0.7730	46.8880
 0.7740	46.9320
 0.7750	46.9750
 0.7760	47.0150
 0.7770	47.0530
 0.7780	47.0900
 0.7790	47.1230
 0.7800	47.1570
 0.7810	47.1910
 0.7820	47.2210
 0.7830	47.2470
 0.7840	47.2740
 0.7850	47.3010
 0.7860	47.3280
 0.7870	47.3500
 0.7880	47.3720
 0.7890	47.3940
 0.7900	47.4140
 0.7910	47.4360
 0.7920	47.4570
 0.7930	47.4750
 0.7940	47.4900
 0.7950	47.5020
 0.7960	47.5140
 0.7970	47.5280
 0.7980	47.5450
 0.7990	47.5560
 0.8000	47.5650
 0.8010	47.5750
 0.8020	47.5880
 0.8030	47.5970
 0.8040	47.6020
 0.8050	47.6100
 0.8060	47.6180
 0.8070	47.6230
 0.8080	47.6250
 0.8090	47.6280
 0.8100	47.6330
 0.8110	47.6380
 0.8120	47.6420
 0.8130	47.6420
 0.8140	47.6430
 0.8150	47.6480
 0.8160	47.6540
 0.8170	47.6530
 0.8180	47.6520
 0.8190	47.6560
 0.8200	47.6620
 0.8210	47.6630
 0.8220	47.6650
 0.8230	47.6680
 0.8240	47.6660
 0.8250	47.6650
 0.8260	47.6670
 0.8270	47.6720
 0.8280	47.6800
 0.8290	47.6800
 0.8300	47.6780
 0.8310	47.6820
 0.8320	47.6840
 0.8330	47.6870
 0.8340	47.6920
 0.8350	47.6990
 0.8360	47.7030
 0.8370	47.7080
 0.8380	47.7140
 0.8390	47.7200
 0.8400	47.7250
 0.8410	47.7350
 0.8420	47.7500
 0.8430	47.7620
 0.8440	47.7690
 0.8450	47.7790
 0.8460	47.7950
 0.8470	47.8020
 0.8480	47.8100
 0.8490	47.8210
 0.8500	47.8330
 0.8510	47.8420
 0.8520	47.8510
 0.8530	47.8620
 0.8540	47.8750
 0.8550	47.8860
 0.8560	47.8980
 0.8570	47.9120
 0.8580	47.9280
 0.8590	47.9430
 0.8600	47.9600
 0.8610	47.9800
 0.8620	47.9980
 0.8630	48.0120
 0.8640	48.0240
 0.8650	48.0370
 0.8660	48.0540
 0.8670	48.0690
 0.8680	48.0840
 0.8690	48.1030
 0.8700	48.1210
 0.8710	48.1410
 0.8720	48.1610
 0.8730	48.1770
 0.8740	48.1980
 0.8750	48.2180
 0.8760	48.2350
 0.8770	48.2570
 0.8780	48.2770
 0.8790	48.2970
 0.8800	48.3150
 0.8810	48.3340
 0.8820	48.3520
 0.8830	48.3690
 0.8840	48.3840
 0.8850	48.4060
 0.8860	48.4280
 0.8870	48.4470
 0.8880	48.4650
 0.8890	48.4830
 0.8900	48.5040
 0.8910	48.5260
 0.8920	48.5440
 0.8930	48.5660
 0.8940	48.5850
 0.8950	48.6010
 0.8960	48.6180
 0.8970	48.6330
 0.8980	48.6510
 0.8990	48.6720
 0.9000	48.6930
 0.9010	48.7070
 0.9020	48.7240
 0.9030	48.7470
 0.9040	48.7710
 0.9050	48.7900
 0.9060	48.8010
 0.9070	48.8110
 0.9080	48.8360
 0.9090	48.8550
 0.9100	48.8670
 0.9110	48.8770
 0.9120	48.8940
 0.9130	48.9140
 0.9140	48.9300
 0.9150	48.9400
 0.9160	48.9550
 0.9170	48.9650
 0.9180	48.9720
 0.9190	48.9840
 0.9200	49.0030
 0.9210	49.0150
 0.9220	49.0190
 0.9230	49.0220
 0.9240	49.0400
 0.9250	49.0480
 0.9260	49.0450
 0.9270	49.0480
 0.9280	49.0540
 0.9290	49.0560
 0.9300	49.0540
 0.9310	49.0540
 0.9320	49.0530
 0.9330	49.0510
 0.9340	49.0490
 0.9350	49.0420
 0.9360	49.0380
 0.9370	49.0340
 0.9380	49.0280
 0.9390	49.0210
 0.9400	49.0160
 0.9410	49.0070
 0.9420	48.9930
 0.9430	48.9770
 0.9440	48.9640
 0.9450	48.9520
 0.9460	48.9400
 0.9470	48.9220
 0.9480	48.8980
 0.9490	48.8710
 0.9500	48.8440
 0.9510	48.8140
 0.9520	48.7820
 0.9530	48.7470
 0.9540	48.7100
 0.9550	48.6790
 0.9560	48.6520
 0.9570	48.6230
 0.9580	48.5900
 0.9590	48.5630
 0.9600	48.5300
 0.9610	48.4960
 0.9620	48.4710
 0.9630	48.4480
 0.9640	48.4350
 0.9650	48.4240
 0.9660	48.4070
 0.9670	48.3950
 0.9680	48.3840
 0.9690	48.3720
 0.9700	48.3610
 0.9710	48.3540
 0.9720	48.3450
 0.9730	48.3320
 0.9740	48.3240
 0.9750	48.3370
 0.9760	48.3390
 0.9770	48.3320
 0.9780	48.3330
 0.9790	48.3350
 0.9800	48.3310
 0.9810	48.3300
 0.9820	48.3460
 0.9830	48.3590
 0.9840	48.3610
 0.9850	48.3640
 0.9860	48.3790
 0.9870	48.3970
 0.9880	48.4090
 0.9890	48.4160
 0.9900	48.4240
 0.9910	48.4390
 0.9920	48.4510
 0.9930	48.4650
 0.9940	48.4890
 0.9950	48.5050
 0.9960	48.5110
 0.9970	48.5250
 0.9980	48.5580
 0.9990	48.5670
 1.0000	48.5750
 1.0010	51.6480
 1.0020	51.6610
 1.0030	51.6720
 1.0040	51.6900
 1.0050	51.7070
 1.0060	51.7210
 1.0070	51.7380
 1.0080	51.7540
 1.0090	51.7650
 1.0100	51.7810
 1.0110	51.8010
 1.0120	51.8180
 1.0130	51.8330
 1.0140	51.8470
 1.0150	51.8610
 1.0160	51.8740
 1.0170	51.8840
 1.0180	51.8960
 1.0190	51.9080
 1.0200	51.9210
 1.0210	51.9420
 1.0220	51.9640
 1.0230	51.9830
 1.0240	52.0050
 1.0250	52.0230
 1.0260	52.0340
 1.0270	52.0510
 1.0280	52.0680
 1.0290	52.0830
 1.0300	52.0990
 1.0310	52.1160
 1.0320	52.1320
 1.0330	52.1490
 1.0340	52.1710
 1.0350	52.1880
 1.0360	52.2010
 1.0370	52.2180
 1.0380	52.2340
 1.0390	52.2490
 1.0400	52.2640
 1.0410	52.2830
 1.0420	52.2990
 1.0430	52.3140
 1.0440	52.3280
 1.0450	52.3410
 1.0460	52.3550
 1.0470	52.3680
 1.0480	52.3810
 1.0490	52.3950
 1.0500	52.4090
 1.0510	52.4270
 1.0520	52.4390
 1.0530	52.4500
 1.0540	52.4620
 1.0550	52.4700
 1.0560	52.4750
 1.0570	52.4810
 1.0580	52.4840
 1.0590	52.4900
 1.0600	52.4960
 1.0610	52.5010
 1.0620	52.5080
 1.0630	52.5120
 1.0640	52.5120
 1.0650	52.5140
 1.0660	52.5180
 1.0670	52.5210
 1.0680	52.5240
 1.0690	52.5290
 1.0700	52.5310
 1.0710	52.5320
 1.0720	52.5320
 1.0730	52.5310
 1.0740	52.5300
 1.0750	52.5280
 1.0760	52.5270
 1.0770	52.5290
 1.0780	52.5280
 1.0790	52.5240
 1.0800	52.5210
 1.0810	52.5160
 1.0820	52.5120
 1.0830	52.5090
 1.0840	52.5070
 1.0850	52.5050
 1.0860	52.5030
 1.0870	52.5010
 1.0880	52.5010
 1.0890	52.5000
 1.0900	52.4980
 1.0910	52.4970
 1.0920	52.4960
 1.0930	52.4940
 1.0940	52.4890
 1.0950	52.4870
 1.0960	52.4880
 1.0970	52.4860
 1.0980	52.4850
 1.0990	52.4830
 1.1000	52.4800
 1.1010	52.4780
 1.1020	52.4760
 1.1030	52.4750
 1.1040	52.4740
 1.1050	52.4710
 1.1060	52.4690
 1.1070	52.4660
 1.1080	52.4610
 1.1090	52.4550
 1.1100	52.4510
 1.1110	52.4480
 1.1120	52.4440
 1.1130	52.4430
 1.1140	52.4380
 1.1150	52.4300
 1.1160	52.4230
 1.1170	52.4150
 1.1180	52.4050
 1.1190	52.3920
 1.1200	52.3800
 1.1210	52.3630
 1.1220	52.3450
 1.1230	52.3290
 1.1240	52.3080
 1.1250	52.2840
 1.1260	52.2600
 1.1270	52.2270
 1.1280	52.1880
 1.1290	52.1460
 1.1300	52.0990
 1.1310	52.0480
 1.1320	51.9940
 1.1330	51.9340
 1.1340	51.8700
 1.1350	51.7990
 1.1360	51.7230
 1.1370	51.6420
 1.1380	51.5560
 1.1390	51.4650
 1.1400	51.3710
 1.1410	51.2760
 1.1420	51.1790
 1.1430	51.0790
 1.1440	50.9780
 1.1450	50.8740
 1.1460	50.7720
 1.1470	50.6670
 1.1480	50.5670
 1.1490	50.4680
 1.1500	50.3730
 1.1510	50.2810
 1.1520	50.1950
 1.1530	50.1140
 1.1540	50.0380
 1.1550	49.9680
 1.1560	49.9020
 1.1570	49.8390
 1.1580	49.7830
 1.1590	49.7340
 1.1600	49.6910
 1.1610	49.6520
 1.1620	49.6190
 1.1630	49.5890
 1.1640	49.5610
 1.1650	49.5360
 1.1660	49.5160
 1.1670	49.4960
 1.1680	49.4780
 1.1690	49.4600
 1.1700	49.4440
 1.1710	49.4290
 1.1720	49.4160
 1.1730	49.4020
 1.1740	49.3880
 1.1750	49.3750
 1.1760	49.3590
 1.1770	49.3440
 1.1780	49.3280
 1.1790	49.3100
 1.1800	49.2940
 1.1810	49.2780
 1.1820	49.2600
 1.1830	49.2430
 1.1840	49.2240
 1.1850	49.2060
 1.1860	49.1900
 1.1870	49.1720
 1.1880	49.1570
 1.1890	49.1410
 1.1900	49.1270
 1.1910	49.1140
 1.1920	49.1030
 1.1930	49.0950
 1.1940	49.0870
 1.1950	49.0810
 1.1960	49.0770
 1.1970	49.0720
 1.1980	49.0700
 1.1990	49.0700
 1.2000	49.0700
 1.2010	49.0720
 1.2020	49.0770
 1.2030	49.0830
 1.2040	49.0910
 1.2050	49.1010
 1.2060	49.1120
 1.2070	49.1240
 1.2080	49.1380
 1.2090	49.1550
 1.2100	49.1740
 1.2110	49.1930
 1.2120	49.2140
 1.2130	49.2360
 1.2140	49.2580
 1.2150	49.2840
 1.2160	49.3150
 1.2170	49.3470
 1.2180	49.3800
 1.2190	49.4140
 1.2200	49.4470
 1.2210	49.4820
 1.2220	49.5180
 1.2230	49.5530
 1.2240	49.5880
 1.2250	49.6230
 1.2260	49.6570
 1.2270	49.6890
 1.2280	49.7220
 1.2290	49.7540
 1.2300	49.7840
 1.2310	49.8160
 1.2320	49.8460
 1.2330	49.8720
 1.2340	49.9000
 1.2350	49.9280
 1.2360	49.9540
 1.2370	49.9790
 1.2380	50.0040
 1.2390	50.0260
 1.2400	50.0470
 1.2410	50.0680
 1.2420	50.0900
 1.2430	50.1110
 1.2440	50.1310
 1.2450	50.1490
 1.2460	50.1660
 1.2470	50.1830
 1.2480	50.1980
 1.2490	50.2150
 1.2500	50.2310
 1.2510	50.2460
 1.2520	50.2630
 1.2530	50.2760
 1.2540	50.2880
 1.2550	50.2990
 1.2560	50.3070
 1.2570	50.3160
 1.2580	50.3260
 1.2590	50.3340
 1.2600	50.3400
 1.2610	50.3460
 1.2620	50.3510
 1.2630	50.3530
 1.2640	50.3560
 1.2650	50.3610
 1.2660	50.3650
 1.2670	50.3690
 1.2680	50.3730
 1.2690	50.3740
 1.2700	50.3770
 1.2710	50.3790
 1.2720	50.3820
 1.2730	50.3860
 1.2740	50.3870
 1.2750	50.3870
 1.2760	50.3870
 1.2770	50.3840
 1.2780	50.3810
 1.2790	50.3760
 1.2800	50.3700
 1.2810	50.3620
 1.2820	50.3540
 1.2830	50.3440
 1.2840	50.3310
 1.2850	50.3160
 1.2860	50.2990
 1.2870	50.2790
 1.2880	50.2560
 1.2890	50.2300
 1.2900	50.2020
 1.2910	50.1730
 1.2920	50.1400
 1.2930	50.1040
 1.2940	50.0660
 1.2950	50.0250
 1.2960	49.9820
 1.2970	49.9380
 1.2980	49.8900
 1.2990	49.8400
 1.3000	49.7890
 1.3010	49.7350
 1.3020	49.6760
 1.3030	49.6180
 1.3040	49.5590
 1.3050	49.4950
 1.3060	49.4330
 1.3070	49.3690
 1.3080	49.3030
 1.3090	49.2380
 1.3100	49.1710
 1.3110	49.0990
 1.3120	49.0270
 1.3130	48.9520
 1.3140	48.8760
 1.3150	48.7980
 1.3160	48.7200
 1.3170	48.6410
 1.3180	48.5620
 1.3190	48.4810
 1.3200	48.3970
 1.3210	48.3130
 1.3220	48.2260
 1.3230	48.1370
 1.3240	48.0450
 1.3250	47.9520
 1.3260	47.8570
 1.3270	47.7590
 1.3280	47.6600
 1.3290	47.5570
 1.3300	47.4510
 1.3310	47.3470
 1.3320	47.2390
 1.3330	47.1320
 1.3340	47.0250
 1.3350	46.9130
 1.3360	46.7990
 1.3370	46.6860
 1.3380	46.5730
 1.3390	46.4600
 1.3400	46.3470
 1.3410	46.2340
 1.3420	46.1210
 1.3430	46.0070
 1.3440	45.8940
 1.3450	45.7830
 1.3460	45.6720
 1.3470	45.5620
 1.3480	45.4530
 1.3490	45.3460
 1.3500	45.2400
 1.3510	45.1340
 1.3520	45.0290
 1.3530	44.9250
 1.3540	44.8190
 1.3550	44.7120
 1.3560	44.6030
 1.3570	44.4930
 1.3580	44.3830
 1.3590	44.2710
 1.3600	44.1560
 1.3610	44.0410
 1.3620	43.9220
 1.3630	43.7980
 1.3640	43.6690
 1.3650	43.5340
 1.3660	43.3940
 1.3670	43.2480
 1.3680	43.0920
 1.3690	42.9280
 1.3700	42.7500
 1.3710	42.5600
 1.3720	42.3590
 1.3730	42.1420
 1.3740	41.9110
 1.3750	41.6640
 1.3760	41.3960
 1.3770	41.1080
 1.3780	40.7950
 1.3790	40.4600
 1.3800	40.1020
 1.3810	39.7160
 1.3820	39.3110
 1.3830	38.8860
 1.3840	38.4370
 1.3850	37.9660
 1.3860	37.4770
 1.3870	36.9640
 1.3880	36.4420
 1.3890	35.9040
 1.3900	35.3520
 1.3910	34.7950
 1.3920	34.2270
 1.3930	33.6490
 1.3940	33.0690
 1.3950	32.4810
 1.3960	31.8960
 1.3970	31.3190
 1.3980	30.7460
 1.3990	30.1900
 1.4000	29.6440
 1.4010	29.1060
 1.4020	28.5860
 1.4030	28.0800
 1.4040	27.5930
 1.4050	27.1280
 1.4060	26.6810
 1.4070	26.2590
 1.4080	25.8580
 1.4090	25.4760
 1.4100	25.1190
 1.4110	24.7800
 1.4120	24.4630
 1.4130	24.1670
 1.4140	23.8900
 1.4150	23.6360
 1.4160	23.4010
 1.4170	23.1820
 1.4180	22.9810
 1.4190	22.7940
 1.4200	22.6210
 1.4210	22.4620
 1.4220	22.3180
 1.4230	22.1870
 1.4240	22.0680
 1.4250	21.9580
 1.4260	21.8610
 1.4270	21.7710
 1.4280	21.6900
 1.4290	21.6180
 1.4300	21.5560
 1.4310	21.5000
 1.4320	21.4540
 1.4330	21.4130
 1.4340	21.3800
 1.4350	21.3510
 1.4360	21.3280
 1.4370	21.3110
 1.4380	21.2990
 1.4390	21.2910
 1.4400	21.2880
 1.4410	21.2880
 1.4420	21.2920
 1.4430	21.2980
 1.4440	21.3080
 1.4450	21.3200
 1.4460	21.3350
 1.4470	21.3520
 1.4480	21.3700
 1.4490	21.3900
 1.4500	21.4120
 1.4510	21.4350
 1.4520	21.4590
 1.4530	21.4850
 1.4540	21.5130
 1.4550	21.5440
 1.4560	21.5760
 1.4570	21.6100
 1.4580	21.6470
 1.4590	21.6870
 1.4600	21.7310
 1.4610	21.7780
 1.4620	21.8300
 1.4630	21.8860
 1.4640	21.9470
 1.4650	22.0130
 1.4660	22.0840
 1.4670	22.1610
 1.4680	22.2430
 1.4690	22.3290
 1.4700	22.4200
 1.4710	22.5180
 1.4720	22.6180
 1.4730	22.7220
 1.4740	22.8310
 1.4750	22.9410
 1.4760	23.0570
 1.4770	23.1750
 1.4780	23.2940
