Name: Salvia leucophylla 1
Type: vegetation
Class: Shrub
Genus: Salvia
Species: leucophylla
Sample No.: VH187
Owner: UCSB
Wavelength Range: VSWIR
Origin: 34.698; -120.0477; WGS84
Collection Date: 6/9/2013
Description: Samples were collected as part of the HyspIRI Airborne Campaign. 48 individual plants were sampled in three times in 2013 - spring  summer  and fall. The name of the sample includes a 1  2  or 3 which references a different individual of the species. Samples were taken to JPL and processed within 48 hours of collection. The same leaves were processed in the Nicolet and then measured using the ASD.
Measurement: Bidirectional reflectance
First Column: X
Second Column: Y
X Units: Wavelength (micrometers)
Y Units: Reflectance (percentage)
First X Value: 0.35
Last X Value: 2.5
Number of X Values: 2151
Additional Information: vegetation.shrub.salvia.leucophylla.vswir.vh187.ucsb.asd.ancillary.txt

 0.3500	 5.2860
 0.3510	 5.2680
 0.3520	 5.3370
 0.3530	 5.3840
 0.3540	 5.3370
 0.3550	 5.3540
 0.3560	 5.3450
 0.3570	 5.3740
 0.3580	 5.5280
 0.3590	 5.3680
 0.3600	 5.2900
 0.3610	 5.4240
 0.3620	 5.4210
 0.3630	 5.4180
 0.3640	 5.4930
 0.3650	 5.6450
 0.3660	 5.6060
 0.3670	 5.6800
 0.3680	 5.8510
 0.3690	 5.8920
 0.3700	 5.9960
 0.3710	 6.0820
 0.3720	 6.1050
 0.3730	 6.1670
 0.3740	 6.1830
 0.3750	 6.2370
 0.3760	 6.4090
 0.3770	 6.5100
 0.3780	 6.6420
 0.3790	 6.7850
 0.3800	 6.8230
 0.3810	 6.8990
 0.3820	 6.9830
 0.3830	 7.0360
 0.3840	 7.0800
 0.3850	 7.1610
 0.3860	 7.2810
 0.3870	 7.4340
 0.3880	 7.5960
 0.3890	 7.6770
 0.3900	 7.6730
 0.3910	 7.6710
 0.3920	 7.7830
 0.3930	 7.9210
 0.3940	 8.0040
 0.3950	 8.0930
 0.3960	 8.1630
 0.3970	 8.2090
 0.3980	 8.2450
 0.3990	 8.3320
 0.4000	 8.4230
 0.4010	 8.4990
 0.4020	 8.5770
 0.4030	 8.6410
 0.4040	 8.6750
 0.4050	 8.6900
 0.4060	 8.7550
 0.4070	 8.8300
 0.4080	 8.8990
 0.4090	 8.9610
 0.4100	 9.0040
 0.4110	 9.0530
 0.4120	 9.1140
 0.4130	 9.1720
 0.4140	 9.2380
 0.4150	 9.3130
 0.4160	 9.3890
 0.4170	 9.4410
 0.4180	 9.5110
 0.4190	 9.6000
 0.4200	 9.6730
 0.4210	 9.7440
 0.4220	 9.8100
 0.4230	 9.8780
 0.4240	 9.9810
 0.4250	10.0760
 0.4260	10.1530
 0.4270	10.2190
 0.4280	10.2690
 0.4290	10.3370
 0.4300	10.4280
 0.4310	10.5130
 0.4320	10.6080
 0.4330	10.6990
 0.4340	10.7710
 0.4350	10.8440
 0.4360	10.9200
 0.4370	10.9920
 0.4380	11.0520
 0.4390	11.1020
 0.4400	11.1590
 0.4410	11.2260
 0.4420	11.2830
 0.4430	11.3350
 0.4440	11.3890
 0.4450	11.4470
 0.4460	11.4980
 0.4470	11.5540
 0.4480	11.6120
 0.4490	11.6500
 0.4500	11.6980
 0.4510	11.7490
 0.4520	11.7930
 0.4530	11.8260
 0.4540	11.8630
 0.4550	11.9080
 0.4560	11.9550
 0.4570	11.9860
 0.4580	12.0180
 0.4590	12.0590
 0.4600	12.0890
 0.4610	12.1260
 0.4620	12.1630
 0.4630	12.1870
 0.4640	12.2090
 0.4650	12.2320
 0.4660	12.2620
 0.4670	12.3030
 0.4680	12.3280
 0.4690	12.3500
 0.4700	12.3780
 0.4710	12.3960
 0.4720	12.4180
 0.4730	12.4420
 0.4740	12.4600
 0.4750	12.4740
 0.4760	12.4900
 0.4770	12.5100
 0.4780	12.5300
 0.4790	12.5470
 0.4800	12.5570
 0.4810	12.5650
 0.4820	12.5920
 0.4830	12.6060
 0.4840	12.6120
 0.4850	12.6440
 0.4860	12.6770
 0.4870	12.7080
 0.4880	12.7380
 0.4890	12.7550
 0.4900	12.7830
 0.4910	12.8220
 0.4920	12.8590
 0.4930	12.8960
 0.4940	12.9400
 0.4950	12.9880
 0.4960	13.0270
 0.4970	13.0770
 0.4980	13.1340
 0.4990	13.1900
 0.5000	13.2630
 0.5010	13.3440
 0.5020	13.4290
 0.5030	13.5130
 0.5040	13.6100
 0.5050	13.7150
 0.5060	13.8260
 0.5070	13.9450
 0.5080	14.0720
 0.5090	14.2130
 0.5100	14.3740
 0.5110	14.5380
 0.5120	14.7080
 0.5130	14.8900
 0.5140	15.0840
 0.5150	15.2920
 0.5160	15.5110
 0.5170	15.7350
 0.5180	15.9680
 0.5190	16.2080
 0.5200	16.4530
 0.5210	16.7020
 0.5220	16.9550
 0.5230	17.2070
 0.5240	17.4550
 0.5250	17.7060
 0.5260	17.9490
 0.5270	18.1850
 0.5280	18.4160
 0.5290	18.6460
 0.5300	18.8720
 0.5310	19.0890
 0.5320	19.2950
 0.5330	19.4930
 0.5340	19.6850
 0.5350	19.8720
 0.5360	20.0490
 0.5370	20.2230
 0.5380	20.3920
 0.5390	20.5520
 0.5400	20.7180
 0.5410	20.8860
 0.5420	21.0490
 0.5430	21.1990
 0.5440	21.3360
 0.5450	21.4630
 0.5460	21.5800
 0.5470	21.6680
 0.5480	21.7510
 0.5490	21.8430
 0.5500	21.9340
 0.5510	22.0240
 0.5520	22.1050
 0.5530	22.1730
 0.5540	22.2310
 0.5550	22.2840
 0.5560	22.3310
 0.5570	22.3690
 0.5580	22.4050
 0.5590	22.4350
 0.5600	22.4560
 0.5610	22.4680
 0.5620	22.4710
 0.5630	22.4620
 0.5640	22.4420
 0.5650	22.4220
 0.5660	22.4050
 0.5670	22.3930
 0.5680	22.3860
 0.5690	22.3680
 0.5700	22.3380
 0.5710	22.3030
 0.5720	22.2770
 0.5730	22.2500
 0.5740	22.2180
 0.5750	22.1780
 0.5760	22.1400
 0.5770	22.1140
 0.5780	22.1020
 0.5790	22.0980
 0.5800	22.0880
 0.5810	22.0650
 0.5820	22.0280
 0.5830	21.9970
 0.5840	21.9800
 0.5850	21.9730
 0.5860	21.9610
 0.5870	21.9550
 0.5880	21.9500
 0.5890	21.9390
 0.5900	21.9250
 0.5910	21.9100
 0.5920	21.9030
 0.5930	21.9080
 0.5940	21.9180
 0.5950	21.9240
 0.5960	21.9290
 0.5970	21.9440
 0.5980	21.9580
 0.5990	21.9690
 0.6000	21.9740
 0.6010	21.9740
 0.6020	21.9650
 0.6030	21.9490
 0.6040	21.9290
 0.6050	21.9050
 0.6060	21.8740
 0.6070	21.8360
 0.6080	21.7970
 0.6090	21.7670
 0.6100	21.7470
 0.6110	21.7290
 0.6120	21.6700
 0.6130	21.5940
 0.6140	21.5200
 0.6150	21.4570
 0.6160	21.3990
 0.6170	21.3460
 0.6180	21.3000
 0.6190	21.2580
 0.6200	21.2250
 0.6210	21.2000
 0.6220	21.1760
 0.6230	21.1580
 0.6240	21.1470
 0.6250	21.1420
 0.6260	21.1420
 0.6270	21.1490
 0.6280	21.1580
 0.6290	21.1630
 0.6300	21.1770
 0.6310	21.1850
 0.6320	21.1810
 0.6330	21.1680
 0.6340	21.1470
 0.6350	21.1160
 0.6360	21.0700
 0.6370	21.0030
 0.6380	20.9170
 0.6390	20.8160
 0.6400	20.7070
 0.6410	20.5810
 0.6420	20.4450
 0.6430	20.3040
 0.6440	20.1570
 0.6450	20.0070
 0.6460	19.8610
 0.6470	19.7280
 0.6480	19.5990
 0.6490	19.4880
 0.6500	19.3960
 0.6510	19.3110
 0.6520	19.2330
 0.6530	19.1620
 0.6540	19.0930
 0.6550	19.0180
 0.6560	18.9340
 0.6570	18.8400
 0.6580	18.7360
 0.6590	18.6100
 0.6600	18.4710
 0.6610	18.3260
 0.6620	18.1790
 0.6630	18.0240
 0.6640	17.8670
 0.6650	17.7190
 0.6660	17.5910
 0.6670	17.4680
 0.6680	17.3550
 0.6690	17.2650
 0.6700	17.1870
 0.6710	17.1270
 0.6720	17.0850
 0.6730	17.0570
 0.6740	17.0410
 0.6750	17.0380
 0.6760	17.0510
 0.6770	17.0770
 0.6780	17.1140
 0.6790	17.1670
 0.6800	17.2490
 0.6810	17.3590
 0.6820	17.5090
 0.6830	17.7070
 0.6840	17.9580
 0.6850	18.2680
 0.6860	18.6420
 0.6870	19.0830
 0.6880	19.5900
 0.6890	20.1550
 0.6900	20.7740
 0.6910	21.4450
 0.6920	22.1600
 0.6930	22.9090
 0.6940	23.6800
 0.6950	24.4650
 0.6960	25.2600
 0.6970	26.0570
 0.6980	26.8480
 0.6990	27.6300
 0.7000	28.3980
 0.7010	29.1490
 0.7020	29.8710
 0.7030	30.5670
 0.7040	31.2360
 0.7050	31.8790
 0.7060	32.4960
 0.7070	33.0860
 0.7080	33.6460
 0.7090	34.1770
 0.7100	34.6820
 0.7110	35.1650
 0.7120	35.6290
 0.7130	36.0710
 0.7140	36.4890
 0.7150	36.8890
 0.7160	37.2740
 0.7170	37.6390
 0.7180	37.9860
 0.7190	38.3200
 0.7200	38.6420
 0.7210	38.9440
 0.7220	39.2310
 0.7230	39.5050
 0.7240	39.7570
 0.7250	40.0000
 0.7260	40.2330
 0.7270	40.4510
 0.7280	40.6580
 0.7290	40.8520
 0.7300	41.0340
 0.7310	41.2090
 0.7320	41.3720
 0.7330	41.5270
 0.7340	41.6740
 0.7350	41.8140
 0.7360	41.9450
 0.7370	42.0670
 0.7380	42.1790
 0.7390	42.2940
 0.7400	42.4000
 0.7410	42.4960
 0.7420	42.5870
 0.7430	42.6830
 0.7440	42.7740
 0.7450	42.8560
 0.7460	42.9250
 0.7470	43.0010
 0.7480	43.0730
 0.7490	43.1350
 0.7500	43.1980
 0.7510	43.2560
 0.7520	43.3110
 0.7530	43.3680
 0.7540	43.4230
 0.7550	43.4750
 0.7560	43.5240
 0.7570	43.5670
 0.7580	43.6150
 0.7590	43.6650
 0.7600	43.7130
 0.7610	43.7550
 0.7620	43.7960
 0.7630	43.8390
 0.7640	43.8840
 0.7650	43.9230
 0.7660	43.9630
 0.7670	44.0070
 0.7680	44.0500
 0.7690	44.0840
 0.7700	44.1160
 0.7710	44.1530
 0.7720	44.1970
 0.7730	44.2380
 0.7740	44.2680
 0.7750	44.2930
 0.7760	44.3380
 0.7770	44.3790
 0.7780	44.4120
 0.7790	44.4420
 0.7800	44.4770
 0.7810	44.5170
 0.7820	44.5580
 0.7830	44.5850
 0.7840	44.6190
 0.7850	44.6540
 0.7860	44.6870
 0.7870	44.7250
 0.7880	44.7580
 0.7890	44.7870
 0.7900	44.8150
 0.7910	44.8450
 0.7920	44.8770
 0.7930	44.9090
 0.7940	44.9400
 0.7950	44.9690
 0.7960	44.9940
 0.7970	45.0160
 0.7980	45.0400
 0.7990	45.0640
 0.8000	45.0900
 0.8010	45.1170
 0.8020	45.1380
 0.8030	45.1560
 0.8040	45.1720
 0.8050	45.1890
 0.8060	45.2120
 0.8070	45.2340
 0.8080	45.2520
 0.8090	45.2650
 0.8100	45.2790
 0.8110	45.2960
 0.8120	45.3150
 0.8130	45.3310
 0.8140	45.3420
 0.8150	45.3550
 0.8160	45.3720
 0.8170	45.3780
 0.8180	45.3840
 0.8190	45.3950
 0.8200	45.4120
 0.8210	45.4190
 0.8220	45.4260
 0.8230	45.4370
 0.8240	45.4480
 0.8250	45.4550
 0.8260	45.4650
 0.8270	45.4780
 0.8280	45.4810
 0.8290	45.4850
 0.8300	45.4920
 0.8310	45.5020
 0.8320	45.5020
 0.8330	45.5110
 0.8340	45.5230
 0.8350	45.5280
 0.8360	45.5370
 0.8370	45.5430
 0.8380	45.5460
 0.8390	45.5570
 0.8400	45.5710
 0.8410	45.5800
 0.8420	45.5840
 0.8430	45.5980
 0.8440	45.6070
 0.8450	45.6180
 0.8460	45.6340
 0.8470	45.6380
 0.8480	45.6490
 0.8490	45.6640
 0.8500	45.6750
 0.8510	45.6930
 0.8520	45.7060
 0.8530	45.7140
 0.8540	45.7220
 0.8550	45.7290
 0.8560	45.7460
 0.8570	45.7700
 0.8580	45.7800
 0.8590	45.7930
 0.8600	45.8050
 0.8610	45.8170
 0.8620	45.8350
 0.8630	45.8550
 0.8640	45.8710
 0.8650	45.8850
 0.8660	45.9040
 0.8670	45.9200
 0.8680	45.9350
 0.8690	45.9530
 0.8700	45.9740
 0.8710	45.9940
 0.8720	46.0120
 0.8730	46.0280
 0.8740	46.0540
 0.8750	46.0710
 0.8760	46.0820
 0.8770	46.1060
 0.8780	46.1230
 0.8790	46.1390
 0.8800	46.1620
 0.8810	46.1910
 0.8820	46.2140
 0.8830	46.2320
 0.8840	46.2500
 0.8850	46.2700
 0.8860	46.2890
 0.8870	46.3100
 0.8880	46.3340
 0.8890	46.3500
 0.8900	46.3650
 0.8910	46.3860
 0.8920	46.4130
 0.8930	46.4300
 0.8940	46.4450
 0.8950	46.4620
 0.8960	46.4830
 0.8970	46.5070
 0.8980	46.5200
 0.8990	46.5290
 0.9000	46.5550
 0.9010	46.5770
 0.9020	46.5980
 0.9030	46.6200
 0.9040	46.6420
 0.9050	46.6530
 0.9060	46.6700
 0.9070	46.6960
 0.9080	46.7120
 0.9090	46.7190
 0.9100	46.7320
 0.9110	46.7580
 0.9120	46.7740
 0.9130	46.7890
 0.9140	46.8050
 0.9150	46.8250
 0.9160	46.8430
 0.9170	46.8630
 0.9180	46.8800
 0.9190	46.8900
 0.9200	46.9030
 0.9210	46.9170
 0.9220	46.9330
 0.9230	46.9510
 0.9240	46.9660
 0.9250	46.9760
 0.9260	46.9810
 0.9270	46.9880
 0.9280	47.0010
 0.9290	47.0120
 0.9300	47.0240
 0.9310	47.0450
 0.9320	47.0440
 0.9330	47.0480
 0.9340	47.0610
 0.9350	47.0530
 0.9360	47.0620
 0.9370	47.0620
 0.9380	47.0490
 0.9390	47.0550
 0.9400	47.0650
 0.9410	47.0650
 0.9420	47.0520
 0.9430	47.0410
 0.9440	47.0470
 0.9450	47.0530
 0.9460	47.0490
 0.9470	47.0420
 0.9480	47.0190
 0.9490	46.9930
 0.9500	46.9800
 0.9510	46.9730
 0.9520	46.9600
 0.9530	46.9390
 0.9540	46.9140
 0.9550	46.8930
 0.9560	46.8630
 0.9570	46.8400
 0.9580	46.8330
 0.9590	46.8100
 0.9600	46.7810
 0.9610	46.7580
 0.9620	46.7480
 0.9630	46.7320
 0.9640	46.7270
 0.9650	46.7200
 0.9660	46.6970
 0.9670	46.7010
 0.9680	46.7030
 0.9690	46.6930
 0.9700	46.6790
 0.9710	46.6810
 0.9720	46.6800
 0.9730	46.6750
 0.9740	46.6720
 0.9750	46.6710
 0.9760	46.6690
 0.9770	46.6660
 0.9780	46.6600
 0.9790	46.6740
 0.9800	46.6850
 0.9810	46.6820
 0.9820	46.6710
 0.9830	46.6810
 0.9840	46.6910
 0.9850	46.6970
 0.9860	46.7060
 0.9870	46.7170
 0.9880	46.7290
 0.9890	46.7400
 0.9900	46.7490
 0.9910	46.7600
 0.9920	46.7720
 0.9930	46.7830
 0.9940	46.7920
 0.9950	46.8070
 0.9960	46.8140
 0.9970	46.8220
 0.9980	46.8420
 0.9990	46.8520
 1.0000	47.1510
 1.0010	47.7430
 1.0020	48.0480
 1.0030	48.0590
 1.0040	48.0740
 1.0050	48.0890
 1.0060	48.1070
 1.0070	48.1240
 1.0080	48.1410
 1.0090	48.1550
 1.0100	48.1690
 1.0110	48.1830
 1.0120	48.1980
 1.0130	48.2130
 1.0140	48.2250
 1.0150	48.2380
 1.0160	48.2520
 1.0170	48.2570
 1.0180	48.2660
 1.0190	48.2820
 1.0200	48.2940
 1.0210	48.3080
 1.0220	48.3230
 1.0230	48.3370
 1.0240	48.3470
 1.0250	48.3610
 1.0260	48.3810
 1.0270	48.3950
 1.0280	48.4080
 1.0290	48.4210
 1.0300	48.4310
 1.0310	48.4460
 1.0320	48.4660
 1.0330	48.4810
 1.0340	48.4950
 1.0350	48.5130
 1.0360	48.5270
 1.0370	48.5420
 1.0380	48.5580
 1.0390	48.5780
 1.0400	48.5930
 1.0410	48.6030
 1.0420	48.6180
 1.0430	48.6340
 1.0440	48.6500
 1.0450	48.6730
 1.0460	48.6900
 1.0470	48.7050
 1.0480	48.7190
 1.0490	48.7280
 1.0500	48.7400
 1.0510	48.7540
 1.0520	48.7650
 1.0530	48.7780
 1.0540	48.7940
 1.0550	48.8040
 1.0560	48.8100
 1.0570	48.8160
 1.0580	48.8180
 1.0590	48.8230
 1.0600	48.8300
 1.0610	48.8360
 1.0620	48.8450
 1.0630	48.8500
 1.0640	48.8530
 1.0650	48.8550
 1.0660	48.8550
 1.0670	48.8540
 1.0680	48.8530
 1.0690	48.8520
 1.0700	48.8510
 1.0710	48.8510
 1.0720	48.8500
 1.0730	48.8500
 1.0740	48.8500
 1.0750	48.8500
 1.0760	48.8470
 1.0770	48.8450
 1.0780	48.8420
 1.0790	48.8360
 1.0800	48.8320
 1.0810	48.8280
 1.0820	48.8240
 1.0830	48.8170
 1.0840	48.8140
 1.0850	48.8140
 1.0860	48.8120
 1.0870	48.8110
 1.0880	48.8150
 1.0890	48.8120
 1.0900	48.8050
 1.0910	48.8010
 1.0920	48.7960
 1.0930	48.7920
 1.0940	48.7900
 1.0950	48.7880
 1.0960	48.7860
 1.0970	48.7840
 1.0980	48.7840
 1.0990	48.7810
 1.1000	48.7760
 1.1010	48.7720
 1.1020	48.7660
 1.1030	48.7610
 1.1040	48.7580
 1.1050	48.7600
 1.1060	48.7590
 1.1070	48.7600
 1.1080	48.7590
 1.1090	48.7540
 1.1100	48.7510
 1.1110	48.7490
 1.1120	48.7460
 1.1130	48.7410
 1.1140	48.7370
 1.1150	48.7320
 1.1160	48.7280
 1.1170	48.7270
 1.1180	48.7210
 1.1190	48.7130
 1.1200	48.7030
 1.1210	48.6890
 1.1220	48.6750
 1.1230	48.6600
 1.1240	48.6440
 1.1250	48.6250
 1.1260	48.6060
 1.1270	48.5810
 1.1280	48.5540
 1.1290	48.5240
 1.1300	48.4890
 1.1310	48.4520
 1.1320	48.4140
 1.1330	48.3700
 1.1340	48.3210
 1.1350	48.2680
 1.1360	48.2090
 1.1370	48.1450
 1.1380	48.0780
 1.1390	48.0080
 1.1400	47.9360
 1.1410	47.8640
 1.1420	47.7890
 1.1430	47.7120
 1.1440	47.6360
 1.1450	47.5570
 1.1460	47.4800
 1.1470	47.4020
 1.1480	47.3270
 1.1490	47.2500
 1.1500	47.1790
 1.1510	47.1110
 1.1520	47.0460
 1.1530	46.9830
 1.1540	46.9230
 1.1550	46.8670
 1.1560	46.8140
 1.1570	46.7660
 1.1580	46.7220
 1.1590	46.6780
 1.1600	46.6380
 1.1610	46.6000
 1.1620	46.5650
 1.1630	46.5320
 1.1640	46.5020
 1.1650	46.4720
 1.1660	46.4420
 1.1670	46.4140
 1.1680	46.3890
 1.1690	46.3630
 1.1700	46.3400
 1.1710	46.3140
 1.1720	46.2890
 1.1730	46.2640
 1.1740	46.2390
 1.1750	46.2120
 1.1760	46.1850
 1.1770	46.1540
 1.1780	46.1220
 1.1790	46.0940
 1.1800	46.0660
 1.1810	46.0390
 1.1820	46.0140
 1.1830	45.9880
 1.1840	45.9650
 1.1850	45.9450
 1.1860	45.9260
 1.1870	45.9070
 1.1880	45.8920
 1.1890	45.8780
 1.1900	45.8690
 1.1910	45.8640
 1.1920	45.8610
 1.1930	45.8610
 1.1940	45.8610
 1.1950	45.8620
 1.1960	45.8670
 1.1970	45.8700
 1.1980	45.8750
 1.1990	45.8850
 1.2000	45.8920
 1.2010	45.9030
 1.2020	45.9150
 1.2030	45.9260
 1.2040	45.9430
 1.2050	45.9620
 1.2060	45.9800
 1.2070	46.0020
 1.2080	46.0230
 1.2090	46.0430
 1.2100	46.0660
 1.2110	46.0910
 1.2120	46.1160
 1.2130	46.1430
 1.2140	46.1730
 1.2150	46.2020
 1.2160	46.2330
 1.2170	46.2630
 1.2180	46.2950
 1.2190	46.3280
 1.2200	46.3610
 1.2210	46.3950
 1.2220	46.4300
 1.2230	46.4630
 1.2240	46.4970
 1.2250	46.5300
 1.2260	46.5610
 1.2270	46.5880
 1.2280	46.6130
 1.2290	46.6400
 1.2300	46.6650
 1.2310	46.6910
 1.2320	46.7180
 1.2330	46.7410
 1.2340	46.7630
 1.2350	46.7850
 1.2360	46.8050
 1.2370	46.8230
 1.2380	46.8430
 1.2390	46.8630
 1.2400	46.8800
 1.2410	46.8990
 1.2420	46.9140
 1.2430	46.9270
 1.2440	46.9440
 1.2450	46.9590
 1.2460	46.9760
 1.2470	46.9940
 1.2480	47.0100
 1.2490	47.0240
 1.2500	47.0370
 1.2510	47.0500
 1.2520	47.0630
 1.2530	47.0740
 1.2540	47.0830
 1.2550	47.0910
 1.2560	47.0990
 1.2570	47.1060
 1.2580	47.1160
 1.2590	47.1220
 1.2600	47.1260
 1.2610	47.1310
 1.2620	47.1350
 1.2630	47.1370
 1.2640	47.1420
 1.2650	47.1470
 1.2660	47.1520
 1.2670	47.1570
 1.2680	47.1600
 1.2690	47.1640
 1.2700	47.1670
 1.2710	47.1690
 1.2720	47.1720
 1.2730	47.1740
 1.2740	47.1750
 1.2750	47.1780
 1.2760	47.1810
 1.2770	47.1840
 1.2780	47.1850
 1.2790	47.1850
 1.2800	47.1860
 1.2810	47.1840
 1.2820	47.1820
 1.2830	47.1770
 1.2840	47.1720
 1.2850	47.1660
 1.2860	47.1590
 1.2870	47.1500
 1.2880	47.1390
 1.2890	47.1250
 1.2900	47.1070
 1.2910	47.0890
 1.2920	47.0690
 1.2930	47.0440
 1.2940	47.0170
 1.2950	46.9880
 1.2960	46.9550
 1.2970	46.9190
 1.2980	46.8840
 1.2990	46.8470
 1.3000	46.8060
 1.3010	46.7650
 1.3020	46.7210
 1.3030	46.6730
 1.3040	46.6250
 1.3050	46.5780
 1.3060	46.5280
 1.3070	46.4760
 1.3080	46.4240
 1.3090	46.3720
 1.3100	46.3190
 1.3110	46.2650
 1.3120	46.2090
 1.3130	46.1500
 1.3140	46.0900
 1.3150	46.0280
 1.3160	45.9670
 1.3170	45.9070
 1.3180	45.8460
 1.3190	45.7850
 1.3200	45.7200
 1.3210	45.6530
 1.3220	45.5860
 1.3230	45.5190
 1.3240	45.4530
 1.3250	45.3870
 1.3260	45.3170
 1.3270	45.2460
 1.3280	45.1740
 1.3290	45.1000
 1.3300	45.0260
 1.3310	44.9520
 1.3320	44.8760
 1.3330	44.8010
 1.3340	44.7220
 1.3350	44.6410
 1.3360	44.5600
 1.3370	44.4780
 1.3380	44.3940
 1.3390	44.3130
 1.3400	44.2320
 1.3410	44.1490
 1.3420	44.0650
 1.3430	43.9840
 1.3440	43.9020
 1.3450	43.8190
 1.3460	43.7380
 1.3470	43.6550
 1.3480	43.5710
 1.3490	43.4870
 1.3500	43.4020
 1.3510	43.3160
 1.3520	43.2270
 1.3530	43.1390
 1.3540	43.0510
 1.3550	42.9620
 1.3560	42.8770
 1.3570	42.7910
 1.3580	42.7030
 1.3590	42.6160
 1.3600	42.5260
 1.3610	42.4320
 1.3620	42.3350
 1.3630	42.2380
 1.3640	42.1370
 1.3650	42.0320
 1.3660	41.9230
 1.3670	41.8060
 1.3680	41.6820
 1.3690	41.5510
 1.3700	41.4130
 1.3710	41.2680
 1.3720	41.1120
 1.3730	40.9430
 1.3740	40.7650
 1.3750	40.5720
 1.3760	40.3690
 1.3770	40.1520
 1.3780	39.9170
 1.3790	39.6660
 1.3800	39.3970
 1.3810	39.1090
 1.3820	38.8090
 1.3830	38.4930
 1.3840	38.1620
 1.3850	37.8180
 1.3860	37.4590
 1.3870	37.0850
 1.3880	36.7020
 1.3890	36.3070
 1.3900	35.9000
 1.3910	35.4890
 1.3920	35.0690
 1.3930	34.6440
 1.3940	34.2160
 1.3950	33.7810
 1.3960	33.3480
 1.3970	32.9160
 1.3980	32.4890
 1.3990	32.0720
 1.4000	31.6600
 1.4010	31.2570
 1.4020	30.8660
 1.4030	30.4820
 1.4040	30.1110
 1.4050	29.7560
 1.4060	29.4120
 1.4070	29.0860
 1.4080	28.7740
 1.4090	28.4760
 1.4100	28.1950
 1.4110	27.9260
 1.4120	27.6750
 1.4130	27.4390
 1.4140	27.2160
 1.4150	27.0100
 1.4160	26.8190
 1.4170	26.6400
 1.4180	26.4750
 1.4190	26.3220
 1.4200	26.1800
 1.4210	26.0500
 1.4220	25.9290
 1.4230	25.8190
 1.4240	25.7180
 1.4250	25.6240
 1.4260	25.5370
 1.4270	25.4580
 1.4280	25.3860
 1.4290	25.3210
 1.4300	25.2630
 1.4310	25.2120
 1.4320	25.1680
 1.4330	25.1280
 1.4340	25.0940
 1.4350	25.0630
 1.4360	25.0380
 1.4370	25.0170
 1.4380	25.0000
 1.4390	24.9880
 1.4400	24.9800
 1.4410	24.9740
 1.4420	24.9710
 1.4430	24.9710
 1.4440	24.9720
 1.4450	24.9750
 1.4460	24.9820
 1.4470	24.9900
 1.4480	25.0000
 1.4490	25.0120
 1.4500	25.0240
 1.4510	25.0370
 1.4520	25.0530
 1.4530	25.0710
 1.4540	25.0900
 1.4550	25.1100
 1.4560	25.1320
 1.4570	25.1550
 1.4580	25.1800
 1.4590	25.2100
 1.4600	25.2440
 1.4610	25.2810
 1.4620	25.3210
 1.4630	25.3650
 1.4640	25.4120
 1.4650	25.4630
 1.4660	25.5180
 1.4670	25.5780
 1.4680	25.6420
 1.4690	25.7100
 1.4700	25.7830
