Name: Abies concolor 3
Type: vegetation
Class: Tree
Genus: Abies
Species: concolor
Sample No.: VH168
Owner: UCSB
Wavelength Range: VSWIR
Origin: 37.0439; -119.3058; WGS84
Collection Date: 6/8/2013
Description: Samples were collected as part of the HyspIRI Airborne Campaign. 48 individual plants were sampled in three times in 2013 - spring  summer  and fall. The name of the sample includes a 1  2  or 3 which references a different individual of the species. Samples were taken to JPL and processed within 48 hours of collection. The same leaves were processed in the Nicolet and then measured using the ASD.
Measurement: Bidirectional reflectance
First Column: X
Second Column: Y
X Units: Wavelength (micrometers)
Y Units: Reflectance (percentage)
First X Value: 0.35
Last X Value: 2.5
Number of X Values: 2151
Additional Information: vegetation.tree.abies.concolor.vswir.vh168.ucsb.asd.ancillary.txt

 0.3500	 5.1560
 0.3510	 4.9840
 0.3520	 4.9360
 0.3530	 4.8930
 0.3540	 4.8030
 0.3550	 5.0340
 0.3560	 5.1330
 0.3570	 5.0030
 0.3580	 4.7940
 0.3590	 4.8690
 0.3600	 4.9220
 0.3610	 4.8380
 0.3620	 4.8730
 0.3630	 4.9280
 0.3640	 4.8650
 0.3650	 4.6630
 0.3660	 4.7650
 0.3670	 4.8720
 0.3680	 4.8840
 0.3690	 4.8540
 0.3700	 4.7590
 0.3710	 4.7430
 0.3720	 4.8450
 0.3730	 4.8340
 0.3740	 4.7820
 0.3750	 4.7400
 0.3760	 4.7330
 0.3770	 4.6860
 0.3780	 4.6760
 0.3790	 4.7070
 0.3800	 4.7050
 0.3810	 4.7360
 0.3820	 4.7670
 0.3830	 4.7760
 0.3840	 4.7600
 0.3850	 4.7460
 0.3860	 4.7470
 0.3870	 4.7730
 0.3880	 4.7910
 0.3890	 4.8110
 0.3900	 4.8200
 0.3910	 4.7670
 0.3920	 4.7810
 0.3930	 4.7980
 0.3940	 4.7610
 0.3950	 4.7280
 0.3960	 4.7220
 0.3970	 4.7440
 0.3980	 4.7730
 0.3990	 4.8170
 0.4000	 4.8120
 0.4010	 4.7670
 0.4020	 4.7780
 0.4030	 4.8240
 0.4040	 4.8740
 0.4050	 4.9010
 0.4060	 4.8790
 0.4070	 4.8650
 0.4080	 4.8900
 0.4090	 4.9590
 0.4100	 5.0020
 0.4110	 5.0210
 0.4120	 5.0410
 0.4130	 5.1040
 0.4140	 5.1550
 0.4150	 5.1980
 0.4160	 5.2520
 0.4170	 5.2660
 0.4180	 5.2910
 0.4190	 5.3370
 0.4200	 5.3800
 0.4210	 5.4420
 0.4220	 5.4980
 0.4230	 5.5310
 0.4240	 5.5730
 0.4250	 5.6260
 0.4260	 5.6810
 0.4270	 5.7200
 0.4280	 5.7660
 0.4290	 5.8070
 0.4300	 5.8470
 0.4310	 5.8970
 0.4320	 5.9500
 0.4330	 6.0000
 0.4340	 6.0440
 0.4350	 6.0800
 0.4360	 6.1090
 0.4370	 6.1400
 0.4380	 6.1860
 0.4390	 6.2200
 0.4400	 6.2460
 0.4410	 6.2760
 0.4420	 6.3170
 0.4430	 6.3440
 0.4440	 6.3700
 0.4450	 6.4100
 0.4460	 6.4260
 0.4470	 6.4550
 0.4480	 6.5020
 0.4490	 6.5260
 0.4500	 6.5460
 0.4510	 6.5660
 0.4520	 6.5900
 0.4530	 6.6130
 0.4540	 6.6330
 0.4550	 6.6450
 0.4560	 6.6550
 0.4570	 6.6750
 0.4580	 6.6940
 0.4590	 6.7050
 0.4600	 6.7000
 0.4610	 6.7100
 0.4620	 6.7240
 0.4630	 6.7150
 0.4640	 6.7230
 0.4650	 6.7330
 0.4660	 6.7430
 0.4670	 6.7470
 0.4680	 6.7430
 0.4690	 6.7410
 0.4700	 6.7490
 0.4710	 6.7460
 0.4720	 6.7430
 0.4730	 6.7440
 0.4740	 6.7550
 0.4750	 6.7600
 0.4760	 6.7660
 0.4770	 6.7710
 0.4780	 6.7640
 0.4790	 6.7620
 0.4800	 6.7620
 0.4810	 6.7640
 0.4820	 6.7610
 0.4830	 6.7680
 0.4840	 6.7790
 0.4850	 6.7800
 0.4860	 6.7910
 0.4870	 6.8070
 0.4880	 6.8220
 0.4890	 6.8260
 0.4900	 6.8360
 0.4910	 6.8550
 0.4920	 6.8810
 0.4930	 6.9050
 0.4940	 6.9320
 0.4950	 6.9590
 0.4960	 6.9940
 0.4970	 7.0360
 0.4980	 7.0830
 0.4990	 7.1310
 0.5000	 7.1870
 0.5010	 7.2440
 0.5020	 7.3070
 0.5030	 7.3840
 0.5040	 7.4650
 0.5050	 7.5550
 0.5060	 7.6570
 0.5070	 7.7650
 0.5080	 7.8750
 0.5090	 7.9920
 0.5100	 8.1310
 0.5110	 8.2830
 0.5120	 8.4410
 0.5130	 8.6090
 0.5140	 8.7880
 0.5150	 8.9820
 0.5160	 9.1890
 0.5170	 9.4050
 0.5180	 9.6190
 0.5190	 9.8410
 0.5200	10.0680
 0.5210	10.3000
 0.5220	10.5300
 0.5230	10.7570
 0.5240	10.9790
 0.5250	11.1820
 0.5260	11.3810
 0.5270	11.5730
 0.5280	11.7490
 0.5290	11.9110
 0.5300	12.0550
 0.5310	12.1840
 0.5320	12.3050
 0.5330	12.4130
 0.5340	12.5120
 0.5350	12.6050
 0.5360	12.6820
 0.5370	12.7470
 0.5380	12.8050
 0.5390	12.8610
 0.5400	12.9130
 0.5410	12.9590
 0.5420	13.0010
 0.5430	13.0500
 0.5440	13.0940
 0.5450	13.1380
 0.5460	13.1880
 0.5470	13.2320
 0.5480	13.2710
 0.5490	13.3050
 0.5500	13.3330
 0.5510	13.3540
 0.5520	13.3670
 0.5530	13.3680
 0.5540	13.3510
 0.5550	13.3200
 0.5560	13.2770
 0.5570	13.2220
 0.5580	13.1460
 0.5590	13.0560
 0.5600	12.9590
 0.5610	12.8580
 0.5620	12.7530
 0.5630	12.6410
 0.5640	12.5200
 0.5650	12.3930
 0.5660	12.2620
 0.5670	12.1300
 0.5680	11.9910
 0.5690	11.8440
 0.5700	11.6980
 0.5710	11.5560
 0.5720	11.4120
 0.5730	11.2750
 0.5740	11.1510
 0.5750	11.0370
 0.5760	10.9310
 0.5770	10.8290
 0.5780	10.7340
 0.5790	10.6400
 0.5800	10.5470
 0.5810	10.4640
 0.5820	10.3880
 0.5830	10.3180
 0.5840	10.2480
 0.5850	10.1770
 0.5860	10.1130
 0.5870	10.0540
 0.5880	 9.9970
 0.5890	 9.9390
 0.5900	 9.8880
 0.5910	 9.8510
 0.5920	 9.8260
 0.5930	 9.7980
 0.5940	 9.7720
 0.5950	 9.7430
 0.5960	 9.7110
 0.5970	 9.6860
 0.5980	 9.6610
 0.5990	 9.6330
 0.6000	 9.6040
 0.6010	 9.5700
 0.6020	 9.5340
 0.6030	 9.4960
 0.6040	 9.4560
 0.6050	 9.4040
 0.6060	 9.3470
 0.6070	 9.2850
 0.6080	 9.2140
 0.6090	 9.1450
 0.6100	 9.0770
 0.6110	 9.0080
 0.6120	 8.9360
 0.6130	 8.8620
 0.6140	 8.7880
 0.6150	 8.7220
 0.6160	 8.6570
 0.6170	 8.5960
 0.6180	 8.5410
 0.6190	 8.4920
 0.6200	 8.4440
 0.6210	 8.4020
 0.6220	 8.3710
 0.6230	 8.3410
 0.6240	 8.3180
 0.6250	 8.2940
 0.6260	 8.2760
 0.6270	 8.2640
 0.6280	 8.2540
 0.6290	 8.2430
 0.6300	 8.2330
 0.6310	 8.2240
 0.6320	 8.2140
 0.6330	 8.1940
 0.6340	 8.1720
 0.6350	 8.1440
 0.6360	 8.1030
 0.6370	 8.0520
 0.6380	 7.9990
 0.6390	 7.9440
 0.6400	 7.8840
 0.6410	 7.8130
 0.6420	 7.7430
 0.6430	 7.6730
 0.6440	 7.5980
 0.6450	 7.5240
 0.6460	 7.4520
 0.6470	 7.3860
 0.6480	 7.3180
 0.6490	 7.2610
 0.6500	 7.2170
 0.6510	 7.1730
 0.6520	 7.1350
 0.6530	 7.0990
 0.6540	 7.0620
 0.6550	 7.0240
 0.6560	 6.9800
 0.6570	 6.9310
 0.6580	 6.8810
 0.6590	 6.8220
 0.6600	 6.7610
 0.6610	 6.6960
 0.6620	 6.6310
 0.6630	 6.5730
 0.6640	 6.5180
 0.6650	 6.4660
 0.6660	 6.4170
 0.6670	 6.3790
 0.6680	 6.3500
 0.6690	 6.3210
 0.6700	 6.2990
 0.6710	 6.2840
 0.6720	 6.2770
 0.6730	 6.2680
 0.6740	 6.2690
 0.6750	 6.2760
 0.6760	 6.2790
 0.6770	 6.2880
 0.6780	 6.3040
 0.6790	 6.3270
 0.6800	 6.3590
 0.6810	 6.3950
 0.6820	 6.4420
 0.6830	 6.5040
 0.6840	 6.5780
 0.6850	 6.6690
 0.6860	 6.7850
 0.6870	 6.9290
 0.6880	 7.1090
 0.6890	 7.3230
 0.6900	 7.5820
 0.6910	 7.8960
 0.6920	 8.2640
 0.6930	 8.6900
 0.6940	 9.1740
 0.6950	 9.7140
 0.6960	10.3150
 0.6970	10.9720
 0.6980	11.6780
 0.6990	12.4290
 0.7000	13.2140
 0.7010	14.0280
 0.7020	14.8660
 0.7030	15.7180
 0.7040	16.5840
 0.7050	17.4620
 0.7060	18.3480
 0.7070	19.2420
 0.7080	20.1420
 0.7090	21.0500
 0.7100	21.9700
 0.7110	22.9030
 0.7120	23.8480
 0.7130	24.8040
 0.7140	25.7730
 0.7150	26.7550
 0.7160	27.7450
 0.7170	28.7490
 0.7180	29.7640
 0.7190	30.7880
 0.7200	31.8160
 0.7210	32.8510
 0.7220	33.8920
 0.7230	34.9330
 0.7240	35.9650
 0.7250	36.9900
 0.7260	38.0080
 0.7270	39.0140
 0.7280	40.0000
 0.7290	40.9680
 0.7300	41.9180
 0.7310	42.8420
 0.7320	43.7400
 0.7330	44.6100
 0.7340	45.4530
 0.7350	46.2710
 0.7360	47.0590
 0.7370	47.8140
 0.7380	48.5340
 0.7390	49.2230
 0.7400	49.8840
 0.7410	50.5130
 0.7420	51.1070
 0.7430	51.6690
 0.7440	52.2010
 0.7450	52.7020
 0.7460	53.1670
 0.7470	53.6010
 0.7480	54.0060
 0.7490	54.3840
 0.7500	54.7330
 0.7510	55.0580
 0.7520	55.3570
 0.7530	55.6320
 0.7540	55.8840
 0.7550	56.1110
 0.7560	56.3190
 0.7570	56.5140
 0.7580	56.6900
 0.7590	56.8530
 0.7600	57.0040
 0.7610	57.1420
 0.7620	57.2650
 0.7630	57.3750
 0.7640	57.4730
 0.7650	57.5710
 0.7660	57.6610
 0.7670	57.7410
 0.7680	57.8110
 0.7690	57.8800
 0.7700	57.9450
 0.7710	58.0050
 0.7720	58.0570
 0.7730	58.1050
 0.7740	58.1500
 0.7750	58.1950
 0.7760	58.2380
 0.7770	58.2800
 0.7780	58.3190
 0.7790	58.3540
 0.7800	58.3860
 0.7810	58.4180
 0.7820	58.4520
 0.7830	58.4820
 0.7840	58.5160
 0.7850	58.5480
 0.7860	58.5740
 0.7870	58.5960
 0.7880	58.6230
 0.7890	58.6540
 0.7900	58.6820
 0.7910	58.7010
 0.7920	58.7210
 0.7930	58.7420
 0.7940	58.7600
 0.7950	58.7860
 0.7960	58.8110
 0.7970	58.8280
 0.7980	58.8410
 0.7990	58.8560
 0.8000	58.8750
 0.8010	58.8940
 0.8020	58.9090
 0.8030	58.9200
 0.8040	58.9300
 0.8050	58.9420
 0.8060	58.9570
 0.8070	58.9730
 0.8080	58.9860
 0.8090	58.9890
 0.8100	58.9970
 0.8110	59.0100
 0.8120	59.0220
 0.8130	59.0300
 0.8140	59.0410
 0.8150	59.0500
 0.8160	59.0530
 0.8170	59.0660
 0.8180	59.0800
 0.8190	59.0900
 0.8200	59.0970
 0.8210	59.1070
 0.8220	59.1150
 0.8230	59.1180
 0.8240	59.1200
 0.8250	59.1270
 0.8260	59.1360
 0.8270	59.1400
 0.8280	59.1350
 0.8290	59.1330
 0.8300	59.1330
 0.8310	59.1300
 0.8320	59.1320
 0.8330	59.1380
 0.8340	59.1420
 0.8350	59.1460
 0.8360	59.1550
 0.8370	59.1670
 0.8380	59.1820
 0.8390	59.1950
 0.8400	59.2080
 0.8410	59.2190
 0.8420	59.2320
 0.8430	59.2610
 0.8440	59.2830
 0.8450	59.2990
 0.8460	59.3160
 0.8470	59.3350
 0.8480	59.3560
 0.8490	59.3750
 0.8500	59.3890
 0.8510	59.4040
 0.8520	59.4210
 0.8530	59.4410
 0.8540	59.4620
 0.8550	59.4810
 0.8560	59.4960
 0.8570	59.5070
 0.8580	59.5180
 0.8590	59.5360
 0.8600	59.5550
 0.8610	59.5710
 0.8620	59.5830
 0.8630	59.5930
 0.8640	59.6060
 0.8650	59.6230
 0.8660	59.6340
 0.8670	59.6440
 0.8680	59.6540
 0.8690	59.6640
 0.8700	59.6750
 0.8710	59.6790
 0.8720	59.6810
 0.8730	59.6970
 0.8740	59.7100
 0.8750	59.7150
 0.8760	59.7190
 0.8770	59.7330
 0.8780	59.7350
 0.8790	59.7360
 0.8800	59.7450
 0.8810	59.7570
 0.8820	59.7550
 0.8830	59.7510
 0.8840	59.7530
 0.8850	59.7500
 0.8860	59.7490
 0.8870	59.7500
 0.8880	59.7460
 0.8890	59.7430
 0.8900	59.7330
 0.8910	59.7260
 0.8920	59.7330
 0.8930	59.7280
 0.8940	59.7130
 0.8950	59.6980
 0.8960	59.6920
 0.8970	59.6960
 0.8980	59.6890
 0.8990	59.6740
 0.9000	59.6730
 0.9010	59.6570
 0.9020	59.6410
 0.9030	59.6340
 0.9040	59.6250
 0.9050	59.6120
 0.9060	59.5950
 0.9070	59.5780
 0.9080	59.5680
 0.9090	59.5510
 0.9100	59.5340
 0.9110	59.5230
 0.9120	59.5050
 0.9130	59.4870
 0.9140	59.4730
 0.9150	59.4600
 0.9160	59.4390
 0.9170	59.4100
 0.9180	59.3820
 0.9190	59.3650
 0.9200	59.3480
 0.9210	59.3110
 0.9220	59.2650
 0.9230	59.2330
 0.9240	59.2000
 0.9250	59.1530
 0.9260	59.0920
 0.9270	59.0310
 0.9280	58.9690
 0.9290	58.9080
 0.9300	58.8460
 0.9310	58.7770
 0.9320	58.6970
 0.9330	58.6140
 0.9340	58.5330
 0.9350	58.4480
 0.9360	58.3540
 0.9370	58.2610
 0.9380	58.1710
 0.9390	58.0710
 0.9400	57.9700
 0.9410	57.8610
 0.9420	57.7380
 0.9430	57.6080
 0.9440	57.4790
 0.9450	57.3430
 0.9460	57.1950
 0.9470	57.0250
 0.9480	56.8640
 0.9490	56.6880
 0.9500	56.4800
 0.9510	56.2760
 0.9520	56.0620
 0.9530	55.8350
 0.9540	55.5990
 0.9550	55.3820
 0.9560	55.1800
 0.9570	54.9840
 0.9580	54.7880
 0.9590	54.6020
 0.9600	54.4430
 0.9610	54.3070
 0.9620	54.1790
 0.9630	54.0630
 0.9640	53.9510
 0.9650	53.8630
 0.9660	53.8090
 0.9670	53.7490
 0.9680	53.6900
 0.9690	53.6310
 0.9700	53.5720
 0.9710	53.5260
 0.9720	53.4900
 0.9730	53.4640
 0.9740	53.4440
 0.9750	53.4110
 0.9760	53.3910
 0.9770	53.3820
 0.9780	53.3760
 0.9790	53.3880
 0.9800	53.3840
 0.9810	53.3850
 0.9820	53.4240
 0.9830	53.4350
 0.9840	53.4630
 0.9850	53.5070
 0.9860	53.5490
 0.9870	53.5940
 0.9880	53.6390
 0.9890	53.6820
 0.9900	53.7230
 0.9910	53.7870
 0.9920	53.8540
 0.9930	53.9180
 0.9940	53.9830
 0.9950	54.0540
 0.9960	54.1290
 0.9970	54.2100
 0.9980	54.2970
 0.9990	54.3580
 1.0000	54.5810
 1.0010	54.8950
 1.0020	55.1320
 1.0030	55.2160
 1.0040	55.3000
 1.0050	55.3860
 1.0060	55.4770
 1.0070	55.5700
 1.0080	55.6590
 1.0090	55.7490
 1.0100	55.8380
 1.0110	55.9240
 1.0120	56.0130
 1.0130	56.1060
 1.0140	56.1950
 1.0150	56.2830
 1.0160	56.3730
 1.0170	56.4610
 1.0180	56.5500
 1.0190	56.6420
 1.0200	56.7360
 1.0210	56.8290
 1.0220	56.9190
 1.0230	57.0090
 1.0240	57.0980
 1.0250	57.1860
 1.0260	57.2750
 1.0270	57.3610
 1.0280	57.4450
 1.0290	57.5250
 1.0300	57.5990
 1.0310	57.6780
 1.0320	57.7580
 1.0330	57.8380
 1.0340	57.9120
 1.0350	57.9850
 1.0360	58.0570
 1.0370	58.1290
 1.0380	58.2000
 1.0390	58.2770
 1.0400	58.3450
 1.0410	58.4060
 1.0420	58.4670
 1.0430	58.5240
 1.0440	58.5830
 1.0450	58.6420
 1.0460	58.7000
 1.0470	58.7610
 1.0480	58.8170
 1.0490	58.8690
 1.0500	58.9220
 1.0510	58.9760
 1.0520	59.0270
 1.0530	59.0730
 1.0540	59.1180
 1.0550	59.1570
 1.0560	59.1870
 1.0570	59.2210
 1.0580	59.2510
 1.0590	59.2850
 1.0600	59.3210
 1.0610	59.3520
 1.0620	59.3800
 1.0630	59.4100
 1.0640	59.4400
 1.0650	59.4640
 1.0660	59.4890
 1.0670	59.5090
 1.0680	59.5250
 1.0690	59.5320
 1.0700	59.5450
 1.0710	59.5580
 1.0720	59.5660
 1.0730	59.5750
 1.0740	59.5790
 1.0750	59.5770
 1.0760	59.5770
 1.0770	59.5750
 1.0780	59.5730
 1.0790	59.5730
 1.0800	59.5670
 1.0810	59.5590
 1.0820	59.5480
 1.0830	59.5310
 1.0840	59.5130
 1.0850	59.4950
 1.0860	59.4730
 1.0870	59.4510
 1.0880	59.4290
 1.0890	59.4030
 1.0900	59.3750
 1.0910	59.3460
 1.0920	59.3150
 1.0930	59.2810
 1.0940	59.2440
 1.0950	59.2060
 1.0960	59.1650
 1.0970	59.1240
 1.0980	59.0840
 1.0990	59.0410
 1.1000	58.9950
 1.1010	58.9500
 1.1020	58.9060
 1.1030	58.8570
 1.1040	58.8020
 1.1050	58.7510
 1.1060	58.6980
 1.1070	58.6440
 1.1080	58.5890
 1.1090	58.5360
 1.1100	58.4760
 1.1110	58.4090
 1.1120	58.3420
 1.1130	58.2730
 1.1140	58.1990
 1.1150	58.1240
 1.1160	58.0410
 1.1170	57.9550
 1.1180	57.8590
 1.1190	57.7550
 1.1200	57.6440
 1.1210	57.5240
 1.1220	57.3950
 1.1230	57.2540
 1.1240	57.0980
 1.1250	56.9250
 1.1260	56.7390
 1.1270	56.5320
 1.1280	56.3080
 1.1290	56.0660
 1.1300	55.8090
 1.1310	55.5250
 1.1320	55.2190
 1.1330	54.8950
 1.1340	54.5450
 1.1350	54.1820
 1.1360	53.8020
 1.1370	53.4070
 1.1380	52.9950
 1.1390	52.5740
 1.1400	52.1420
 1.1410	51.7110
 1.1420	51.2790
 1.1430	50.8490
 1.1440	50.4280
 1.1450	50.0070
 1.1460	49.6050
 1.1470	49.2080
 1.1480	48.8350
 1.1490	48.4750
 1.1500	48.1410
 1.1510	47.8240
 1.1520	47.5320
 1.1530	47.2640
 1.1540	47.0160
 1.1550	46.7880
 1.1560	46.5810
 1.1570	46.3920
 1.1580	46.2230
 1.1590	46.0710
 1.1600	45.9340
 1.1610	45.8130
 1.1620	45.7040
 1.1630	45.6060
 1.1640	45.5200
 1.1650	45.4400
 1.1660	45.3690
 1.1670	45.3020
 1.1680	45.2420
 1.1690	45.1840
 1.1700	45.1360
 1.1710	45.0850
 1.1720	45.0370
 1.1730	44.9880
 1.1740	44.9410
 1.1750	44.8920
 1.1760	44.8430
 1.1770	44.7940
 1.1780	44.7420
 1.1790	44.6890
 1.1800	44.6320
 1.1810	44.5730
 1.1820	44.5120
 1.1830	44.4520
 1.1840	44.3960
 1.1850	44.3430
 1.1860	44.2920
 1.1870	44.2420
 1.1880	44.1940
 1.1890	44.1460
 1.1900	44.1040
 1.1910	44.0630
 1.1920	44.0290
 1.1930	43.9970
 1.1940	43.9720
 1.1950	43.9530
 1.1960	43.9370
 1.1970	43.9250
 1.1980	43.9200
 1.1990	43.9190
 1.2000	43.9210
 1.2010	43.9290
 1.2020	43.9420
 1.2030	43.9570
 1.2040	43.9780
 1.2050	44.0050
 1.2060	44.0340
 1.2070	44.0710
 1.2080	44.1120
 1.2090	44.1540
 1.2100	44.2010
 1.2110	44.2530
 1.2120	44.3080
 1.2130	44.3690
 1.2140	44.4360
 1.2150	44.5060
 1.2160	44.5790
 1.2170	44.6540
 1.2180	44.7320
 1.2190	44.8120
 1.2200	44.8930
 1.2210	44.9770
 1.2220	45.0620
 1.2230	45.1460
 1.2240	45.2300
 1.2250	45.3150
 1.2260	45.4000
 1.2270	45.4860
 1.2280	45.5690
 1.2290	45.6510
 1.2300	45.7270
 1.2310	45.8010
 1.2320	45.8730
 1.2330	45.9440
 1.2340	46.0140
 1.2350	46.0840
 1.2360	46.1510
 1.2370	46.2180
 1.2380	46.2820
 1.2390	46.3440
 1.2400	46.4030
 1.2410	46.4620
 1.2420	46.5200
 1.2430	46.5750
 1.2440	46.6310
 1.2450	46.6860
 1.2460	46.7350
 1.2470	46.7820
 1.2480	46.8280
 1.2490	46.8730
 1.2500	46.9160
 1.2510	46.9580
 1.2520	46.9960
 1.2530	47.0320
 1.2540	47.0670
 1.2550	47.1010
 1.2560	47.1340
 1.2570	47.1640
 1.2580	47.1910
 1.2590	47.2160
 1.2600	47.2390
 1.2610	47.2600
 1.2620	47.2780
 1.2630	47.2960
 1.2640	47.3080
 1.2650	47.3170
 1.2660	47.3260
 1.2670	47.3290
 1.2680	47.3320
 1.2690	47.3320
 1.2700	47.3250
 1.2710	47.3200
 1.2720	47.3120
 1.2730	47.3000
 1.2740	47.2890
 1.2750	47.2710
 1.2760	47.2490
 1.2770	47.2240
 1.2780	47.1970
 1.2790	47.1670
 1.2800	47.1330
 1.2810	47.1000
 1.2820	47.0620
 1.2830	47.0160
 1.2840	46.9690
 1.2850	46.9160
 1.2860	46.8590
 1.2870	46.7980
 1.2880	46.7340
 1.2890	46.6660
 1.2900	46.5930
 1.2910	46.5140
 1.2920	46.4310
 1.2930	46.3430
 1.2940	46.2480
 1.2950	46.1460
 1.2960	46.0400
 1.2970	45.9290
 1.2980	45.8120
 1.2990	45.6900
 1.3000	45.5650
 1.3010	45.4330
 1.3020	45.2950
 1.3030	45.1540
 1.3040	45.0050
 1.3050	44.8490
 1.3060	44.6890
 1.3070	44.5190
 1.3080	44.3470
 1.3090	44.1680
 1.3100	43.9810
 1.3110	43.7910
 1.3120	43.5920
 1.3130	43.3880
 1.3140	43.1790
 1.3150	42.9660
 1.3160	42.7470
 1.3170	42.5240
 1.3180	42.2980
 1.3190	42.0650
 1.3200	41.8250
 1.3210	41.5790
 1.3220	41.3280
 1.3230	41.0730
 1.3240	40.8150
 1.3250	40.5560
 1.3260	40.2950
 1.3270	40.0300
 1.3280	39.7640
 1.3290	39.4940
 1.3300	39.2230
 1.3310	38.9530
 1.3320	38.6800
 1.3330	38.4100
 1.3340	38.1430
 1.3350	37.8730
 1.3360	37.6080
 1.3370	37.3420
 1.3380	37.0770
 1.3390	36.8180
 1.3400	36.5600
 1.3410	36.3110
 1.3420	36.0670
 1.3430	35.8260
 1.3440	35.5910
 1.3450	35.3590
 1.3460	35.1280
 1.3470	34.9050
 1.3480	34.6850
 1.3490	34.4700
 1.3500	34.2610
 1.3510	34.0540
 1.3520	33.8490
 1.3530	33.6480
 1.3540	33.4460
 1.3550	33.2470
 1.3560	33.0490
 1.3570	32.8510
 1.3580	32.6510
 1.3590	32.4500
 1.3600	32.2430
 1.3610	32.0350
 1.3620	31.8210
 1.3630	31.5990
 1.3640	31.3700
 1.3650	31.1300
 1.3660	30.8820
 1.3670	30.6250
 1.3680	30.3540
 1.3690	30.0720
 1.3700	29.7730
 1.3710	29.4600
 1.3720	29.1330
 1.3730	28.7860
 1.3740	28.4260
 1.3750	28.0460
 1.3760	27.6440
 1.3770	27.2220
 1.3780	26.7740
 1.3790	26.3050
 1.3800	25.8200
 1.3810	25.3100
 1.3820	24.7890
 1.3830	24.2520
 1.3840	23.7040
 1.3850	23.1390
 1.3860	22.5730
 1.3870	21.9910
 1.3880	21.4180
 1.3890	20.8430
 1.3900	20.2680
 1.3910	19.7060
 1.3920	19.1490
 1.3930	18.5980
 1.3940	18.0620
 1.3950	17.5330
 1.3960	17.0210
 1.3970	16.5290
 1.3980	16.0540
 1.3990	15.6050
 1.4000	15.1750
 1.4010	14.7640
 1.4020	14.3760
 1.4030	14.0050
 1.4040	13.6550
 1.4050	13.3270
 1.4060	13.0180
 1.4070	12.7320
 1.4080	12.4640
 1.4090	12.2130
 1.4100	11.9800
 1.4110	11.7630
 1.4120	11.5610
 1.4130	11.3730
 1.4140	11.1990
 1.4150	11.0390
 1.4160	10.8920
 1.4170	10.7550
 1.4180	10.6300
 1.4190	10.5110
 1.4200	10.4020
 1.4210	10.3020
 1.4220	10.2080
 1.4230	10.1240
 1.4240	10.0440
 1.4250	 9.9720
 1.4260	 9.9070
 1.4270	 9.8460
 1.4280	 9.7880
 1.4290	 9.7370
 1.4300	 9.6900
 1.4310	 9.6470
 1.4320	 9.6120
 1.4330	 9.5780
 1.4340	 9.5470
 1.4350	 9.5210
 1.4360	 9.4960
 1.4370	 9.4760
 1.4380	 9.4580
 1.4390	 9.4440
 1.4400	 9.4310
 1.4410	 9.4220
 1.4420	 9.4140
 1.4430	 9.4080
 1.4440	 9.4050
 1.4450	 9.4020
 1.4460	 9.4010
 1.4470	 9.4020
 1.4480	 9.4060
 1.4490	 9.4100
 1.4500	 9.4150
 1.4510	 9.4220
 1.4520	 9.4290
 1.4530	 9.4360
 1.4540	 9.4440
 1.4550	 9.4560
 1.4560	 9.4660
 1.4570	 9.4810
 1.4580	 9.4980
 1.4590	 9.5160
 1.4600	 9.5360
 1.4610	 9.5600
 1.4620	 9.5870
 1.4630	 9.6160
 1.4640	 9.6460
 1.4650	 9.6800
 1.4660	 9.7150
 1.4670	 9.7540
 1.4680	 9.7990
 1.4690	 9.8460
 1.4700	 9.8950
 1.4710	 9.9480
