Name: Quercus lobata 2
Type: vegetation
Class: Tree
Genus: Quercus
Species: lobata
Sample No.: VH087
Owner: UCSB
Wavelength Range: VSWIR
Origin: 34.7146; -120.0588; WGS84
Collection Date: 4/21/2013
Description: Samples were collected as part of the HyspIRI Airborne Campaign. 48 individual plants were sampled in three times in 2013 - spring  summer  and fall. The name of the sample includes a 1  2  or 3 which references a different individual of the species. Samples were taken to JPL and processed within 48 hours of collection. The same leaves were processed in the Nicolet and then measured using the ASD.
Measurement: Bidirectional reflectance
First Column: X
Second Column: Y
X Units: Wavelength (micrometers)
Y Units: Reflectance (percentage)
First X Value: 0.35
Last X Value: 2.5
Number of X Values: 2151
Additional Information: vegetation.tree.quercus.lobata.vswir.vh087.ucsb.asd.ancillary.txt

 0.3500	 7.1590
 0.3510	 7.4260
 0.3520	 7.4190
 0.3530	 7.3700
 0.3540	 7.4900
 0.3550	 7.2160
 0.3560	 7.0640
 0.3570	 7.1290
 0.3580	 7.2540
 0.3590	 7.2920
 0.3600	 7.2530
 0.3610	 7.1880
 0.3620	 7.1880
 0.3630	 7.1890
 0.3640	 7.1890
 0.3650	 7.1970
 0.3660	 7.2320
 0.3670	 7.2090
 0.3680	 7.1890
 0.3690	 7.3040
 0.3700	 7.3580
 0.3710	 7.3550
 0.3720	 7.3180
 0.3730	 7.2400
 0.3740	 7.3060
 0.3750	 7.3790
 0.3760	 7.2930
 0.3770	 7.2770
 0.3780	 7.3170
 0.3790	 7.3770
 0.3800	 7.4170
 0.3810	 7.4020
 0.3820	 7.3750
 0.3830	 7.3820
 0.3840	 7.4410
 0.3850	 7.4260
 0.3860	 7.4130
 0.3870	 7.5130
 0.3880	 7.5640
 0.3890	 7.5980
 0.3900	 7.6270
 0.3910	 7.6350
 0.3920	 7.7070
 0.3930	 7.7850
 0.3940	 7.8250
 0.3950	 7.9070
 0.3960	 7.9220
 0.3970	 7.9160
 0.3980	 7.9900
 0.3990	 8.0550
 0.4000	 8.1030
 0.4010	 8.1360
 0.4020	 8.1660
 0.4030	 8.2230
 0.4040	 8.2930
 0.4050	 8.3500
 0.4060	 8.3810
 0.4070	 8.4560
 0.4080	 8.5510
 0.4090	 8.5920
 0.4100	 8.6460
 0.4110	 8.7040
 0.4120	 8.7590
 0.4130	 8.8360
 0.4140	 8.9050
 0.4150	 8.9660
 0.4160	 9.0320
 0.4170	 9.1000
 0.4180	 9.1710
 0.4190	 9.2310
 0.4200	 9.2590
 0.4210	 9.3050
 0.4220	 9.3600
 0.4230	 9.4080
 0.4240	 9.4430
 0.4250	 9.4730
 0.4260	 9.5110
 0.4270	 9.5670
 0.4280	 9.5890
 0.4290	 9.6210
 0.4300	 9.6710
 0.4310	 9.6830
 0.4320	 9.6900
 0.4330	 9.7070
 0.4340	 9.7350
 0.4350	 9.7410
 0.4360	 9.7580
 0.4370	 9.7870
 0.4380	 9.8100
 0.4390	 9.8290
 0.4400	 9.8470
 0.4410	 9.8650
 0.4420	 9.8730
 0.4430	 9.8890
 0.4440	 9.9120
 0.4450	 9.9290
 0.4460	 9.9330
 0.4470	 9.9440
 0.4480	 9.9700
 0.4490	 9.9960
 0.4500	10.0100
 0.4510	10.0180
 0.4520	10.0270
 0.4530	10.0280
 0.4540	10.0410
 0.4550	10.0550
 0.4560	10.0470
 0.4570	10.0470
 0.4580	10.0610
 0.4590	10.0820
 0.4600	10.0830
 0.4610	10.0790
 0.4620	10.0780
 0.4630	10.0820
 0.4640	10.0840
 0.4650	10.0840
 0.4660	10.0830
 0.4670	10.0790
 0.4680	10.0870
 0.4690	10.0920
 0.4700	10.0830
 0.4710	10.0740
 0.4720	10.0710
 0.4730	10.0760
 0.4740	10.0830
 0.4750	10.0930
 0.4760	10.0930
 0.4770	10.0830
 0.4780	10.0870
 0.4790	10.0890
 0.4800	10.0920
 0.4810	10.1010
 0.4820	10.1010
 0.4830	10.0980
 0.4840	10.0980
 0.4850	10.1050
 0.4860	10.1110
 0.4870	10.1170
 0.4880	10.1270
 0.4890	10.1470
 0.4900	10.1600
 0.4910	10.1690
 0.4920	10.1830
 0.4930	10.1870
 0.4940	10.2040
 0.4950	10.2390
 0.4960	10.2610
 0.4970	10.2920
 0.4980	10.3290
 0.4990	10.3670
 0.5000	10.4010
 0.5010	10.4420
 0.5020	10.4920
 0.5030	10.5420
 0.5040	10.6080
 0.5050	10.6890
 0.5060	10.7780
 0.5070	10.8620
 0.5080	10.9610
 0.5090	11.0780
 0.5100	11.2110
 0.5110	11.3500
 0.5120	11.5020
 0.5130	11.6710
 0.5140	11.8460
 0.5150	12.0460
 0.5160	12.2670
 0.5170	12.5010
 0.5180	12.7400
 0.5190	12.9880
 0.5200	13.2440
 0.5210	13.5060
 0.5220	13.7650
 0.5230	14.0240
 0.5240	14.2860
 0.5250	14.5390
 0.5260	14.7840
 0.5270	15.0160
 0.5280	15.2280
 0.5290	15.4310
 0.5300	15.6180
 0.5310	15.7900
 0.5320	15.9520
 0.5330	16.1050
 0.5340	16.2460
 0.5350	16.3720
 0.5360	16.4870
 0.5370	16.5880
 0.5380	16.6800
 0.5390	16.7680
 0.5400	16.8510
 0.5410	16.9290
 0.5420	17.0010
 0.5430	17.0690
 0.5440	17.1420
 0.5450	17.2130
 0.5460	17.2750
 0.5470	17.3340
 0.5480	17.3930
 0.5490	17.4490
 0.5500	17.4900
 0.5510	17.5220
 0.5520	17.5400
 0.5530	17.5420
 0.5540	17.5340
 0.5550	17.5080
 0.5560	17.4620
 0.5570	17.4040
 0.5580	17.3270
 0.5590	17.2310
 0.5600	17.1190
 0.5610	16.9970
 0.5620	16.8680
 0.5630	16.7330
 0.5640	16.5940
 0.5650	16.4520
 0.5660	16.2990
 0.5670	16.1360
 0.5680	15.9700
 0.5690	15.8030
 0.5700	15.6320
 0.5710	15.4570
 0.5720	15.2800
 0.5730	15.1080
 0.5740	14.9500
 0.5750	14.8120
 0.5760	14.6840
 0.5770	14.5620
 0.5780	14.4440
 0.5790	14.3300
 0.5800	14.2240
 0.5810	14.1250
 0.5820	14.0310
 0.5830	13.9460
 0.5840	13.8660
 0.5850	13.7890
 0.5860	13.7150
 0.5870	13.6390
 0.5880	13.5680
 0.5890	13.5090
 0.5900	13.4520
 0.5910	13.4020
 0.5920	13.3580
 0.5930	13.3190
 0.5940	13.2860
 0.5950	13.2590
 0.5960	13.2350
 0.5970	13.2100
 0.5980	13.1890
 0.5990	13.1670
 0.6000	13.1340
 0.6010	13.1010
 0.6020	13.0670
 0.6030	13.0280
 0.6040	12.9820
 0.6050	12.9290
 0.6060	12.8690
 0.6070	12.8030
 0.6080	12.7350
 0.6090	12.6550
 0.6100	12.5680
 0.6110	12.4830
 0.6120	12.4060
 0.6130	12.3340
 0.6140	12.2610
 0.6150	12.1900
 0.6160	12.1260
 0.6170	12.0670
 0.6180	12.0080
 0.6190	11.9500
 0.6200	11.8990
 0.6210	11.8570
 0.6220	11.8190
 0.6230	11.7860
 0.6240	11.7580
 0.6250	11.7350
 0.6260	11.7160
 0.6270	11.7020
 0.6280	11.6910
 0.6290	11.6780
 0.6300	11.6670
 0.6310	11.6540
 0.6320	11.6380
 0.6330	11.6230
 0.6340	11.6010
 0.6350	11.5710
 0.6360	11.5340
 0.6370	11.4860
 0.6380	11.4280
 0.6390	11.3640
 0.6400	11.2970
 0.6410	11.2260
 0.6420	11.1520
 0.6430	11.0760
 0.6440	11.0000
 0.6450	10.9300
 0.6460	10.8640
 0.6470	10.8010
 0.6480	10.7480
 0.6490	10.7000
 0.6500	10.6560
 0.6510	10.6220
 0.6520	10.5930
 0.6530	10.5680
 0.6540	10.5410
 0.6550	10.5170
 0.6560	10.4860
 0.6570	10.4500
 0.6580	10.4110
 0.6590	10.3790
 0.6600	10.3430
 0.6610	10.3010
 0.6620	10.2650
 0.6630	10.2300
 0.6640	10.1990
 0.6650	10.1720
 0.6660	10.1470
 0.6670	10.1280
 0.6680	10.1160
 0.6690	10.1080
 0.6700	10.1010
 0.6710	10.0950
 0.6720	10.0920
 0.6730	10.0980
 0.6740	10.1060
 0.6750	10.1130
 0.6760	10.1200
 0.6770	10.1320
 0.6780	10.1500
 0.6790	10.1700
 0.6800	10.1870
 0.6810	10.2110
 0.6820	10.2420
 0.6830	10.2790
 0.6840	10.3280
 0.6850	10.3870
 0.6860	10.4600
 0.6870	10.5500
 0.6880	10.6730
 0.6890	10.8320
 0.6900	11.0350
 0.6910	11.2970
 0.6920	11.6230
 0.6930	12.0200
 0.6940	12.4940
 0.6950	13.0500
 0.6960	13.6810
 0.6970	14.3840
 0.6980	15.1510
 0.6990	15.9750
 0.7000	16.8440
 0.7010	17.7440
 0.7020	18.6650
 0.7030	19.6050
 0.7040	20.5500
 0.7050	21.4850
 0.7060	22.4170
 0.7070	23.3390
 0.7080	24.2500
 0.7090	25.1470
 0.7100	26.0280
 0.7110	26.9010
 0.7120	27.7670
 0.7130	28.6100
 0.7140	29.4410
 0.7150	30.2630
 0.7160	31.0720
 0.7170	31.8550
 0.7180	32.6280
 0.7190	33.3870
 0.7200	34.1200
 0.7210	34.8360
 0.7220	35.5300
 0.7230	36.2010
 0.7240	36.8490
 0.7250	37.4780
 0.7260	38.0790
 0.7270	38.6460
 0.7280	39.1870
 0.7290	39.7040
 0.7300	40.2010
 0.7310	40.6770
 0.7320	41.1150
 0.7330	41.5280
 0.7340	41.9210
 0.7350	42.2950
 0.7360	42.6420
 0.7370	42.9640
 0.7380	43.2680
 0.7390	43.5610
 0.7400	43.8270
 0.7410	44.0700
 0.7420	44.3020
 0.7430	44.5160
 0.7440	44.7200
 0.7450	44.9140
 0.7460	45.0850
 0.7470	45.2380
 0.7480	45.3810
 0.7490	45.5190
 0.7500	45.6430
 0.7510	45.7530
 0.7520	45.8540
 0.7530	45.9540
 0.7540	46.0430
 0.7550	46.1240
 0.7560	46.1970
 0.7570	46.2650
 0.7580	46.3290
 0.7590	46.3840
 0.7600	46.4320
 0.7610	46.4830
 0.7620	46.5280
 0.7630	46.5690
 0.7640	46.6110
 0.7650	46.6460
 0.7660	46.6800
 0.7670	46.7150
 0.7680	46.7460
 0.7690	46.7660
 0.7700	46.7880
 0.7710	46.8160
 0.7720	46.8390
 0.7730	46.8640
 0.7740	46.8850
 0.7750	46.8990
 0.7760	46.9130
 0.7770	46.9320
 0.7780	46.9530
 0.7790	46.9710
 0.7800	46.9880
 0.7810	47.0020
 0.7820	47.0150
 0.7830	47.0310
 0.7840	47.0520
 0.7850	47.0680
 0.7860	47.0750
 0.7870	47.0830
 0.7880	47.0930
 0.7890	47.1060
 0.7900	47.1240
 0.7910	47.1300
 0.7920	47.1360
 0.7930	47.1430
 0.7940	47.1460
 0.7950	47.1530
 0.7960	47.1600
 0.7970	47.1650
 0.7980	47.1700
 0.7990	47.1720
 0.8000	47.1720
 0.8010	47.1720
 0.8020	47.1750
 0.8030	47.1760
 0.8040	47.1740
 0.8050	47.1710
 0.8060	47.1690
 0.8070	47.1650
 0.8080	47.1590
 0.8090	47.1510
 0.8100	47.1470
 0.8110	47.1440
 0.8120	47.1360
 0.8130	47.1260
 0.8140	47.1160
 0.8150	47.1040
 0.8160	47.0880
 0.8170	47.0860
 0.8180	47.0780
 0.8190	47.0690
 0.8200	47.0700
 0.8210	47.0570
 0.8220	47.0410
 0.8230	47.0280
 0.8240	47.0190
 0.8250	47.0080
 0.8260	46.9910
 0.8270	46.9730
 0.8280	46.9690
 0.8290	46.9620
 0.8300	46.9480
 0.8310	46.9300
 0.8320	46.9240
 0.8330	46.9080
 0.8340	46.8920
 0.8350	46.8940
 0.8360	46.8870
 0.8370	46.8720
 0.8380	46.8580
 0.8390	46.8550
 0.8400	46.8440
 0.8410	46.8390
 0.8420	46.8410
 0.8430	46.8340
 0.8440	46.8280
 0.8450	46.8250
 0.8460	46.8230
 0.8470	46.8150
 0.8480	46.8110
 0.8490	46.8060
 0.8500	46.7970
 0.8510	46.7950
 0.8520	46.7920
 0.8530	46.7900
 0.8540	46.7970
 0.8550	46.8010
 0.8560	46.8000
 0.8570	46.7980
 0.8580	46.7970
 0.8590	46.7970
 0.8600	46.7980
 0.8610	46.7980
 0.8620	46.7960
 0.8630	46.8020
 0.8640	46.8090
 0.8650	46.8100
 0.8660	46.8140
 0.8670	46.8130
 0.8680	46.8110
 0.8690	46.8170
 0.8700	46.8190
 0.8710	46.8250
 0.8720	46.8360
 0.8730	46.8460
 0.8740	46.8440
 0.8750	46.8480
 0.8760	46.8620
 0.8770	46.8750
 0.8780	46.8750
 0.8790	46.8750
 0.8800	46.8790
 0.8810	46.8820
 0.8820	46.8960
 0.8830	46.9080
 0.8840	46.9110
 0.8850	46.9260
 0.8860	46.9330
 0.8870	46.9360
 0.8880	46.9430
 0.8890	46.9460
 0.8900	46.9500
 0.8910	46.9600
 0.8920	46.9760
 0.8930	46.9860
 0.8940	46.9830
 0.8950	46.9830
 0.8960	47.0080
 0.8970	47.0200
 0.8980	47.0250
 0.8990	47.0300
 0.9000	47.0400
 0.9010	47.0520
 0.9020	47.0600
 0.9030	47.0640
 0.9040	47.0720
 0.9050	47.0770
 0.9060	47.0800
 0.9070	47.0840
 0.9080	47.0980
 0.9090	47.1050
 0.9100	47.1120
 0.9110	47.1230
 0.9120	47.1260
 0.9130	47.1270
 0.9140	47.1340
 0.9150	47.1480
 0.9160	47.1580
 0.9170	47.1570
 0.9180	47.1530
 0.9190	47.1580
 0.9200	47.1520
 0.9210	47.1530
 0.9220	47.1620
 0.9230	47.1660
 0.9240	47.1670
 0.9250	47.1630
 0.9260	47.1550
 0.9270	47.1480
 0.9280	47.1460
 0.9290	47.1420
 0.9300	47.1340
 0.9310	47.1230
 0.9320	47.1170
 0.9330	47.1040
 0.9340	47.0870
 0.9350	47.0900
 0.9360	47.0730
 0.9370	47.0560
 0.9380	47.0480
 0.9390	47.0360
 0.9400	47.0210
 0.9410	46.9990
 0.9420	46.9750
 0.9430	46.9610
 0.9440	46.9350
 0.9450	46.9140
 0.9460	46.9030
 0.9470	46.8640
 0.9480	46.8220
 0.9490	46.7810
 0.9500	46.7460
 0.9510	46.7340
 0.9520	46.6970
 0.9530	46.6540
 0.9540	46.6250
 0.9550	46.5700
 0.9560	46.5200
 0.9570	46.4780
 0.9580	46.4370
 0.9590	46.3970
 0.9600	46.3660
 0.9610	46.3350
 0.9620	46.2950
 0.9630	46.2760
 0.9640	46.2420
 0.9650	46.2140
 0.9660	46.2160
 0.9670	46.1880
 0.9680	46.1740
 0.9690	46.1750
 0.9700	46.1690
 0.9710	46.1330
 0.9720	46.1250
 0.9730	46.1210
 0.9740	46.0850
 0.9750	46.0960
 0.9760	46.1100
 0.9770	46.1080
 0.9780	46.0950
 0.9790	46.1000
 0.9800	46.1040
 0.9810	46.0940
 0.9820	46.0690
 0.9830	46.0790
 0.9840	46.0910
 0.9850	46.0930
 0.9860	46.0880
 0.9870	46.0880
 0.9880	46.0940
 0.9890	46.1000
 0.9900	46.1020
 0.9910	46.1340
 0.9920	46.2020
 0.9930	46.2710
 0.9940	46.3390
 0.9950	46.4080
 0.9960	46.4760
 0.9970	46.5450
 0.9980	46.6140
 0.9990	46.6820
 1.0000	46.7510
 1.0010	46.8190
 1.0020	46.8880
 1.0030	46.9560
 1.0040	47.0250
 1.0050	47.0940
 1.0060	47.1620
 1.0070	47.2310
 1.0080	47.2990
 1.0090	47.3680
 1.0100	47.3680
 1.0110	47.3760
 1.0120	47.3840
 1.0130	47.3920
 1.0140	47.4000
 1.0150	47.4090
 1.0160	47.4140
 1.0170	47.4220
 1.0180	47.4320
 1.0190	47.4440
 1.0200	47.4540
 1.0210	47.4640
 1.0220	47.4730
 1.0230	47.4810
 1.0240	47.4870
 1.0250	47.4950
 1.0260	47.5060
 1.0270	47.5150
 1.0280	47.5260
 1.0290	47.5340
 1.0300	47.5370
 1.0310	47.5440
 1.0320	47.5510
 1.0330	47.5590
 1.0340	47.5720
 1.0350	47.5850
 1.0360	47.5920
 1.0370	47.6030
 1.0380	47.6110
 1.0390	47.6150
 1.0400	47.6210
 1.0410	47.6270
 1.0420	47.6330
 1.0430	47.6370
 1.0440	47.6410
 1.0450	47.6460
 1.0460	47.6500
 1.0470	47.6520
 1.0480	47.6560
 1.0490	47.6590
 1.0500	47.6640
 1.0510	47.6700
 1.0520	47.6790
 1.0530	47.6850
 1.0540	47.6940
 1.0550	47.6980
 1.0560	47.6970
 1.0570	47.7030
 1.0580	47.7100
 1.0590	47.7160
 1.0600	47.7250
 1.0610	47.7310
 1.0620	47.7360
 1.0630	47.7380
 1.0640	47.7360
 1.0650	47.7370
 1.0660	47.7370
 1.0670	47.7370
 1.0680	47.7380
 1.0690	47.7420
 1.0700	47.7440
 1.0710	47.7460
 1.0720	47.7480
 1.0730	47.7510
 1.0740	47.7530
 1.0750	47.7550
 1.0760	47.7540
 1.0770	47.7530
 1.0780	47.7510
 1.0790	47.7470
 1.0800	47.7450
 1.0810	47.7470
 1.0820	47.7460
 1.0830	47.7430
 1.0840	47.7410
 1.0850	47.7360
 1.0860	47.7320
 1.0870	47.7290
 1.0880	47.7250
 1.0890	47.7220
 1.0900	47.7200
 1.0910	47.7170
 1.0920	47.7140
 1.0930	47.7090
 1.0940	47.7040
 1.0950	47.6970
 1.0960	47.6870
 1.0970	47.6800
 1.0980	47.6740
 1.0990	47.6680
 1.1000	47.6640
 1.1010	47.6590
 1.1020	47.6510
 1.1030	47.6440
 1.1040	47.6360
 1.1050	47.6260
 1.1060	47.6170
 1.1070	47.6070
 1.1080	47.5970
 1.1090	47.5880
 1.1100	47.5760
 1.1110	47.5610
 1.1120	47.5480
 1.1130	47.5340
 1.1140	47.5210
 1.1150	47.5130
 1.1160	47.4990
 1.1170	47.4810
 1.1180	47.4640
 1.1190	47.4460
 1.1200	47.4270
 1.1210	47.4100
 1.1220	47.3910
 1.1230	47.3680
 1.1240	47.3420
 1.1250	47.3130
 1.1260	47.2820
 1.1270	47.2460
 1.1280	47.2040
 1.1290	47.1610
 1.1300	47.1170
 1.1310	47.0660
 1.1320	47.0130
 1.1330	46.9530
 1.1340	46.8870
 1.1350	46.8180
 1.1360	46.7440
 1.1370	46.6670
 1.1380	46.5880
 1.1390	46.5050
 1.1400	46.4190
 1.1410	46.3300
 1.1420	46.2380
 1.1430	46.1450
 1.1440	46.0520
 1.1450	45.9580
 1.1460	45.8660
 1.1470	45.7710
 1.1480	45.6820
 1.1490	45.5960
 1.1500	45.5170
 1.1510	45.4410
 1.1520	45.3700
 1.1530	45.3030
 1.1540	45.2410
 1.1550	45.1850
 1.1560	45.1330
 1.1570	45.0860
 1.1580	45.0490
 1.1590	45.0140
 1.1600	44.9850
 1.1610	44.9590
 1.1620	44.9360
 1.1630	44.9150
 1.1640	44.8960
 1.1650	44.8810
 1.1660	44.8720
 1.1670	44.8610
 1.1680	44.8530
 1.1690	44.8440
 1.1700	44.8320
 1.1710	44.8240
 1.1720	44.8190
 1.1730	44.8130
 1.1740	44.8090
 1.1750	44.8040
 1.1760	44.7990
 1.1770	44.7900
 1.1780	44.7810
 1.1790	44.7730
 1.1800	44.7640
 1.1810	44.7560
 1.1820	44.7480
 1.1830	44.7400
 1.1840	44.7350
 1.1850	44.7290
 1.1860	44.7220
 1.1870	44.7170
 1.1880	44.7110
 1.1890	44.7050
 1.1900	44.6990
 1.1910	44.6910
 1.1920	44.6860
 1.1930	44.6820
 1.1940	44.6790
 1.1950	44.6780
 1.1960	44.6780
 1.1970	44.6760
 1.1980	44.6740
 1.1990	44.6740
 1.2000	44.6760
 1.2010	44.6770
 1.2020	44.6800
 1.2030	44.6840
 1.2040	44.6870
 1.2050	44.6930
 1.2060	44.7020
 1.2070	44.7090
 1.2080	44.7160
 1.2090	44.7220
 1.2100	44.7300
 1.2110	44.7380
 1.2120	44.7450
 1.2130	44.7540
 1.2140	44.7650
 1.2150	44.7750
 1.2160	44.7860
 1.2170	44.7980
 1.2180	44.8100
 1.2190	44.8210
 1.2200	44.8350
 1.2210	44.8510
 1.2220	44.8650
 1.2230	44.8790
 1.2240	44.8900
 1.2250	44.8990
 1.2260	44.9090
 1.2270	44.9200
 1.2280	44.9310
 1.2290	44.9420
 1.2300	44.9530
 1.2310	44.9610
 1.2320	44.9690
 1.2330	44.9780
 1.2340	44.9880
 1.2350	44.9980
 1.2360	45.0070
 1.2370	45.0170
 1.2380	45.0260
 1.2390	45.0340
 1.2400	45.0420
 1.2410	45.0500
 1.2420	45.0590
 1.2430	45.0660
 1.2440	45.0720
 1.2450	45.0800
 1.2460	45.0880
 1.2470	45.0950
 1.2480	45.1030
 1.2490	45.1090
 1.2500	45.1110
 1.2510	45.1130
 1.2520	45.1180
 1.2530	45.1230
 1.2540	45.1270
 1.2550	45.1280
 1.2560	45.1290
 1.2570	45.1270
 1.2580	45.1250
 1.2590	45.1250
 1.2600	45.1300
 1.2610	45.1300
 1.2620	45.1310
 1.2630	45.1310
 1.2640	45.1290
 1.2650	45.1270
 1.2660	45.1240
 1.2670	45.1220
 1.2680	45.1190
 1.2690	45.1150
 1.2700	45.1080
 1.2710	45.0990
 1.2720	45.0910
 1.2730	45.0810
 1.2740	45.0710
 1.2750	45.0640
 1.2760	45.0540
 1.2770	45.0420
 1.2780	45.0300
 1.2790	45.0160
 1.2800	45.0010
 1.2810	44.9860
 1.2820	44.9710
 1.2830	44.9530
 1.2840	44.9350
 1.2850	44.9180
 1.2860	44.9000
 1.2870	44.8810
 1.2880	44.8640
 1.2890	44.8440
 1.2900	44.8200
 1.2910	44.7950
 1.2920	44.7660
 1.2930	44.7380
 1.2940	44.7100
 1.2950	44.6790
 1.2960	44.6490
 1.2970	44.6180
 1.2980	44.5850
 1.2990	44.5490
 1.3000	44.5090
 1.3010	44.4690
 1.3020	44.4280
 1.3030	44.3850
 1.3040	44.3450
 1.3050	44.3000
 1.3060	44.2500
 1.3070	44.1980
 1.3080	44.1440
 1.3090	44.0870
 1.3100	44.0310
 1.3110	43.9740
 1.3120	43.9110
 1.3130	43.8470
 1.3140	43.7810
 1.3150	43.7100
 1.3160	43.6380
 1.3170	43.5660
 1.3180	43.4900
 1.3190	43.4130
 1.3200	43.3330
 1.3210	43.2500
 1.3220	43.1640
 1.3230	43.0770
 1.3240	42.9860
 1.3250	42.8940
 1.3260	42.8010
 1.3270	42.7070
 1.3280	42.6110
 1.3290	42.5140
 1.3300	42.4140
 1.3310	42.3130
 1.3320	42.2110
 1.3330	42.1080
 1.3340	42.0060
 1.3350	41.9010
 1.3360	41.7950
 1.3370	41.6880
 1.3380	41.5810
 1.3390	41.4720
 1.3400	41.3640
 1.3410	41.2590
 1.3420	41.1550
 1.3430	41.0510
 1.3440	40.9480
 1.3450	40.8460
 1.3460	40.7420
 1.3470	40.6420
 1.3480	40.5450
 1.3490	40.4470
 1.3500	40.3510
 1.3510	40.2540
 1.3520	40.1570
 1.3530	40.0590
 1.3540	39.9610
 1.3550	39.8640
 1.3560	39.7670
 1.3570	39.6670
 1.3580	39.5670
 1.3590	39.4640
 1.3600	39.3580
 1.3610	39.2500
 1.3620	39.1390
 1.3630	39.0240
 1.3640	38.9040
 1.3650	38.7790
 1.3660	38.6470
 1.3670	38.5050
 1.3680	38.3570
 1.3690	38.2010
 1.3700	38.0330
 1.3710	37.8540
 1.3720	37.6620
 1.3730	37.4540
 1.3740	37.2340
 1.3750	36.9990
 1.3760	36.7450
 1.3770	36.4720
 1.3780	36.1770
 1.3790	35.8650
 1.3800	35.5340
 1.3810	35.1790
 1.3820	34.8090
 1.3830	34.4210
 1.3840	34.0160
 1.3850	33.5940
 1.3860	33.1570
 1.3870	32.6990
 1.3880	32.2340
 1.3890	31.7560
 1.3900	31.2650
 1.3910	30.7710
 1.3920	30.2700
 1.3930	29.7640
 1.3940	29.2590
 1.3950	28.7520
 1.3960	28.2520
 1.3970	27.7580
 1.3980	27.2730
 1.3990	26.8040
 1.4000	26.3460
 1.4010	25.9000
 1.4020	25.4720
 1.4030	25.0560
 1.4040	24.6600
 1.4050	24.2840
 1.4060	23.9260
 1.4070	23.5910
 1.4080	23.2740
 1.4090	22.9760
 1.4100	22.6980
 1.4110	22.4350
 1.4120	22.1930
 1.4130	21.9670
 1.4140	21.7580
 1.4150	21.5680
 1.4160	21.3930
 1.4170	21.2330
 1.4180	21.0860
 1.4190	20.9500
 1.4200	20.8260
 1.4210	20.7130
 1.4220	20.6120
 1.4230	20.5210
 1.4240	20.4390
 1.4250	20.3650
 1.4260	20.3000
 1.4270	20.2410
 1.4280	20.1890
 1.4290	20.1420
 1.4300	20.1010
 1.4310	20.0650
 1.4320	20.0360
 1.4330	20.0100
 1.4340	19.9900
 1.4350	19.9730
 1.4360	19.9600
 1.4370	19.9500
 1.4380	19.9440
 1.4390	19.9420
 1.4400	19.9410
 1.4410	19.9420
 1.4420	19.9460
 1.4430	19.9510
 1.4440	19.9600
 1.4450	19.9700
 1.4460	19.9810
 1.4470	19.9940
 1.4480	20.0080
 1.4490	20.0230
 1.4500	20.0410
 1.4510	20.0580
 1.4520	20.0770
 1.4530	20.0980
 1.4540	20.1200
 1.4550	20.1440
 1.4560	20.1710
 1.4570	20.2000
 1.4580	20.2310
 1.4590	20.2640
 1.4600	20.3020
 1.4610	20.3420
 1.4620	20.3880
 1.4630	20.4390
 1.4640	20.4930
 1.4650	20.5520
 1.4660	20.6160
 1.4670	20.6840
 1.4680	20.7580
 1.4690	20.8360
 1.4700	20.9180
