Name: Heteromeles arbutifolia 1
Type: vegetation
Class: Shrub
Genus: Heteromeles
Species: arbutifolia
Sample No.: VH134
Owner: UCSB
Wavelength Range: TIR
Origin: 34.4907; -119.791; WGS84
Collection Date: 6/3/2013
Description: Samples were collected as part of the HyspIRI Airborne Campaign. 48 individual plants were sampled in three times in 2013 - spring  summer  and fall. The name of the sample includes a 1  2  or 3 which references a different individual of the species. Samples were taken to JPL and processed within 48 hours of collection. The same leaves were processed in the Nicolet and then measured using the ASD.
Measurement: Hemispherical reflectance
First Column: X
Second Column: Y
X Units: Wavelength (micrometers)
Y Units: Reflectance (percentage)
First X Value: 2.501
Last X Value: 15.387
Number of X Values: 1737
Additional Information: vegetation.shrub.heteromeles.arbutifolia.tir.vh134.ucsb.nicolet.ancillary.txt

 2.5010	 5.9810
 2.5030	 6.1060
 2.5040	 6.1150
 2.5050	 6.0510
 2.5060	 6.0950
 2.5070	 6.1220
 2.5090	 6.1480
 2.5100	 6.1010
 2.5110	 6.0110
 2.5120	 5.8910
 2.5140	 5.9510
 2.5150	 5.9330
 2.5160	 5.9500
 2.5170	 5.8990
 2.5180	 6.0310
 2.5200	 6.0320
 2.5210	 5.9900
 2.5220	 5.9400
 2.5230	 5.8680
 2.5250	 5.8080
 2.5260	 5.9390
 2.5270	 6.0600
 2.5280	 6.1110
 2.5290	 6.0210
 2.5310	 5.9960
 2.5320	 5.9550
 2.5330	 5.9730
 2.5340	 5.9160
 2.5360	 6.0230
 2.5370	 6.0120
 2.5380	 5.9960
 2.5390	 5.9690
 2.5410	 6.1080
 2.5420	 6.0170
 2.5430	 6.0670
 2.5440	 6.1160
 2.5460	 6.1170
 2.5470	 6.0460
 2.5480	 5.9860
 2.5490	 5.9470
 2.5510	 5.9600
 2.5520	 5.9600
 2.5530	 6.0440
 2.5540	 6.0750
 2.5560	 6.1310
 2.5570	 6.0470
 2.5580	 6.0800
 2.5590	 6.0890
 2.5610	 6.1120
 2.5620	 6.0550
 2.5630	 6.0780
 2.5640	 6.0920
 2.5660	 6.2110
 2.5670	 6.1290
 2.5680	 6.0100
 2.5700	 6.0490
 2.5710	 6.2330
 2.5720	 6.1280
 2.5730	 6.1180
 2.5750	 6.1550
 2.5760	 6.1510
 2.5770	 6.0810
 2.5790	 6.0450
 2.5800	 5.9870
 2.5810	 6.0520
 2.5820	 5.9880
 2.5840	 6.0220
 2.5850	 5.9640
 2.5860	 5.9890
 2.5880	 6.1110
 2.5890	 6.1170
 2.5900	 5.9490
 2.5910	 5.9100
 2.5930	 5.9400
 2.5940	 6.0700
 2.5950	 6.0340
 2.5970	 6.0360
 2.5980	 6.0560
 2.5990	 6.0060
 2.6000	 5.8320
 2.6020	 5.8360
 2.6030	 5.7940
 2.6040	 5.8330
 2.6060	 5.8000
 2.6070	 5.7860
 2.6080	 5.7610
 2.6100	 5.8320
 2.6110	 5.8340
 2.6120	 5.8110
 2.6140	 5.7070
 2.6150	 5.6330
 2.6160	 5.6350
 2.6180	 5.7990
 2.6190	 5.7770
 2.6200	 5.7650
 2.6220	 5.7340
 2.6230	 5.7190
 2.6240	 5.6390
 2.6260	 5.6490
 2.6270	 5.6510
 2.6280	 5.7180
 2.6300	 5.6520
 2.6310	 5.5580
 2.6320	 5.5150
 2.6340	 5.5440
 2.6350	 5.5140
 2.6360	 5.6720
 2.6380	 5.6550
 2.6390	 5.5240
 2.6400	 5.4080
 2.6420	 5.4570
 2.6430	 5.4280
 2.6440	 5.3960
 2.6460	 5.3300
 2.6470	 5.3430
 2.6480	 5.2970
 2.6500	 5.3890
 2.6510	 5.4640
 2.6520	 5.4400
 2.6540	 5.2520
 2.6550	 5.3070
 2.6560	 5.2670
 2.6580	 5.2510
 2.6590	 5.2200
 2.6610	 5.3440
 2.6620	 5.3730
 2.6630	 5.3130
 2.6650	 5.2160
 2.6660	 5.2110
 2.6670	 5.2140
 2.6690	 5.2960
 2.6700	 5.2550
 2.6720	 5.2690
 2.6730	 5.2790
 2.6740	 5.2970
 2.6760	 5.1870
 2.6770	 5.1950
 2.6780	 5.1230
 2.6800	 5.1350
 2.6810	 5.2400
 2.6830	 5.2510
 2.6840	 5.1550
 2.6850	 5.1890
 2.6870	 5.0130
 2.6880	 4.9880
 2.6900	 4.9510
 2.6910	 5.0110
 2.6920	 5.1210
 2.6940	 5.1940
 2.6950	 5.0970
 2.6970	 5.0160
 2.6980	 4.8750
 2.6990	 4.8540
 2.7010	 4.9030
 2.7020	 5.0500
 2.7040	 4.9720
 2.7050	 5.0010
 2.7060	 5.0860
 2.7080	 5.0760
 2.7090	 4.9830
 2.7110	 5.0310
 2.7120	 4.9850
 2.7130	 4.9200
 2.7150	 4.8960
 2.7160	 4.9500
 2.7180	 4.9210
 2.7190	 5.0130
 2.7210	 4.9880
 2.7220	 4.9480
 2.7230	 4.9170
 2.7250	 4.9590
 2.7260	 4.8740
 2.7280	 4.9170
 2.7290	 4.8730
 2.7310	 5.0080
 2.7320	 4.9340
 2.7330	 4.9260
 2.7350	 4.9090
 2.7360	 4.9040
 2.7380	 4.9130
 2.7390	 5.0080
 2.7410	 4.8300
 2.7420	 4.8550
 2.7440	 4.8810
 2.7450	 4.9600
 2.7470	 4.9630
 2.7480	 4.9190
 2.7490	 4.7270
 2.7510	 4.7000
 2.7520	 4.8090
 2.7540	 4.9280
 2.7550	 4.8880
 2.7570	 5.0430
 2.7580	 5.0270
 2.7600	 4.9720
 2.7610	 4.8540
 2.7630	 4.7770
 2.7640	 4.7950
 2.7660	 5.0220
 2.7670	 4.9930
 2.7680	 4.9390
 2.7700	 4.8210
 2.7710	 4.8610
 2.7730	 4.8240
 2.7740	 4.8820
 2.7760	 4.8770
 2.7770	 4.9570
 2.7790	 5.0070
 2.7800	 5.0040
 2.7820	 4.9520
 2.7830	 4.9210
 2.7850	 4.8450
 2.7860	 4.9540
 2.7880	 4.9770
 2.7890	 4.9010
 2.7910	 4.8060
 2.7920	 4.8010
 2.7940	 4.7940
 2.7950	 4.9050
 2.7970	 4.8740
 2.7980	 4.8360
 2.8000	 4.8590
 2.8010	 4.9380
 2.8030	 4.8800
 2.8040	 4.8870
 2.8060	 4.8200
 2.8070	 4.7850
 2.8090	 4.7530
 2.8110	 4.8450
 2.8120	 4.8730
 2.8140	 4.9090
 2.8150	 4.8540
 2.8170	 4.9180
 2.8180	 4.9180
 2.8200	 4.9630
 2.8210	 4.9380
 2.8230	 4.8680
 2.8240	 4.8500
 2.8260	 4.9850
 2.8270	 5.0040
 2.8290	 4.9290
 2.8300	 4.7800
 2.8320	 4.9250
 2.8340	 4.8970
 2.8350	 4.8030
 2.8370	 4.7340
 2.8380	 4.8870
 2.8400	 4.8740
 2.8410	 4.8230
 2.8430	 4.7860
 2.8440	 4.8330
 2.8460	 4.8500
 2.8480	 4.9620
 2.8490	 4.9450
 2.8510	 5.0660
 2.8520	 5.0150
 2.8540	 4.8840
 2.8550	 4.8660
 2.8570	 5.0560
 2.8590	 4.9230
 2.8600	 4.7670
 2.8620	 4.7210
 2.8630	 4.8270
 2.8650	 4.8620
 2.8660	 4.8580
 2.8680	 4.8850
 2.8700	 5.0030
 2.8710	 5.0060
 2.8730	 5.0430
 2.8740	 5.0610
 2.8760	 5.0120
 2.8780	 4.9070
 2.8790	 4.9200
 2.8810	 4.7900
 2.8820	 4.9320
 2.8840	 5.0010
 2.8860	 5.0850
 2.8870	 4.9930
 2.8890	 5.0220
 2.8900	 5.0140
 2.8920	 4.9860
 2.8940	 4.9200
 2.8950	 4.9400
 2.8970	 4.9120
 2.8980	 4.9590
 2.9000	 5.0010
 2.9020	 5.0160
 2.9030	 4.8670
 2.9050	 4.8670
 2.9070	 4.8580
 2.9080	 4.9730
 2.9100	 4.9780
 2.9120	 4.9390
 2.9130	 4.7850
 2.9150	 4.7550
 2.9160	 4.8340
 2.9180	 4.9210
 2.9200	 4.8880
 2.9210	 4.9580
 2.9230	 4.8660
 2.9250	 4.9830
 2.9260	 5.1360
 2.9280	 5.1990
 2.9300	 5.1950
 2.9310	 5.1470
 2.9330	 4.9230
 2.9350	 4.9450
 2.9360	 4.9460
 2.9380	 4.9950
 2.9400	 5.0380
 2.9410	 5.1880
 2.9430	 5.0840
 2.9450	 5.0630
 2.9460	 5.0910
 2.9480	 5.1910
 2.9500	 5.0260
 2.9510	 5.0630
 2.9530	 5.0270
 2.9550	 5.0510
 2.9560	 4.9790
 2.9580	 5.0370
 2.9600	 5.0810
 2.9610	 5.1970
 2.9630	 5.0980
 2.9650	 5.0650
 2.9660	 5.0470
 2.9680	 5.0720
 2.9700	 4.9970
 2.9720	 5.0380
 2.9730	 5.0480
 2.9750	 5.0840
 2.9770	 5.0190
 2.9780	 5.1170
 2.9800	 5.1430
 2.9820	 5.1550
 2.9840	 5.0530
 2.9850	 5.0150
 2.9870	 4.9780
 2.9890	 5.0500
 2.9900	 5.0610
 2.9920	 5.0530
 2.9940	 5.0150
 2.9960	 5.1490
 2.9970	 5.0720
 2.9990	 5.0220
 3.0010	 4.9740
 3.0030	 5.1110
 3.0040	 5.2090
 3.0060	 5.2810
 3.0080	 5.1380
 3.0100	 5.0480
 3.0110	 4.9730
 3.0130	 5.1240
 3.0150	 5.1630
 3.0170	 5.1480
 3.0180	 5.0780
 3.0200	 5.0020
 3.0220	 4.9830
 3.0240	 5.0650
 3.0250	 5.0760
 3.0270	 5.1050
 3.0290	 5.0690
 3.0310	 5.1520
 3.0320	 5.1860
 3.0340	 5.1650
 3.0360	 5.0330
 3.0380	 5.1350
 3.0400	 5.1710
 3.0410	 5.1700
 3.0430	 5.0990
 3.0450	 5.1280
 3.0470	 5.0760
 3.0480	 5.1300
 3.0500	 5.1570
 3.0520	 5.0980
 3.0540	 4.9780
 3.0560	 5.0450
 3.0570	 5.0800
 3.0590	 5.2070
 3.0610	 5.1920
 3.0630	 5.1420
 3.0650	 5.0990
 3.0660	 5.2150
 3.0680	 5.1860
 3.0700	 5.0870
 3.0720	 4.9270
 3.0740	 5.0240
 3.0760	 5.1390
 3.0770	 5.0590
 3.0790	 4.9350
 3.0810	 5.0710
 3.0830	 5.1000
 3.0850	 5.1140
 3.0870	 5.0600
 3.0880	 5.0200
 3.0900	 5.0550
 3.0920	 5.1790
 3.0940	 5.0340
 3.0960	 4.9970
 3.0980	 5.0350
 3.0990	 5.0740
 3.1010	 5.0480
 3.1030	 5.1630
 3.1050	 5.1050
 3.1070	 5.0310
 3.1090	 4.9550
 3.1110	 4.9760
 3.1120	 4.8380
 3.1140	 4.9470
 3.1160	 5.1580
 3.1180	 5.1670
 3.1200	 4.9850
 3.1220	 5.0260
 3.1240	 5.0560
 3.1260	 5.1640
 3.1270	 5.1480
 3.1290	 5.0840
 3.1310	 5.0930
 3.1330	 5.1650
 3.1350	 5.0870
 3.1370	 5.1470
 3.1390	 5.1320
 3.1410	 5.0850
 3.1430	 5.0050
 3.1450	 4.9000
 3.1460	 4.8020
 3.1480	 4.9060
 3.1500	 4.9850
 3.1520	 4.9700
 3.1540	 4.9990
 3.1560	 5.0490
 3.1580	 4.9520
 3.1600	 4.9370
 3.1620	 4.9470
 3.1640	 4.9790
 3.1660	 4.9400
 3.1680	 5.0060
 3.1700	 5.0730
 3.1710	 5.1320
 3.1730	 4.9840
 3.1750	 4.8790
 3.1770	 4.8200
 3.1790	 4.9180
 3.1810	 4.8840
 3.1830	 4.9310
 3.1850	 4.9830
 3.1870	 5.0630
 3.1890	 4.9860
 3.1910	 4.9340
 3.1930	 4.9470
 3.1950	 5.0330
 3.1970	 5.0320
 3.1990	 4.9510
 3.2010	 4.7880
 3.2030	 4.8850
 3.2050	 4.8970
 3.2070	 4.8680
 3.2090	 4.8450
 3.2110	 4.9280
 3.2130	 4.9090
 3.2150	 4.9130
 3.2170	 4.8270
 3.2190	 4.8270
 3.2210	 4.7860
 3.2230	 4.8550
 3.2250	 4.8810
 3.2270	 4.9030
 3.2290	 4.8460
 3.2310	 4.8450
 3.2330	 4.8670
 3.2350	 4.9290
 3.2370	 4.9050
 3.2390	 4.9060
 3.2410	 4.7930
 3.2430	 4.8150
 3.2450	 4.8360
 3.2470	 4.8870
 3.2490	 4.8130
 3.2510	 4.7500
 3.2530	 4.6960
 3.2550	 4.7240
 3.2570	 4.7680
 3.2590	 4.8620
 3.2610	 4.8040
 3.2630	 4.7810
 3.2650	 4.7470
 3.2670	 4.8090
 3.2690	 4.8240
 3.2720	 4.7190
 3.2740	 4.6150
 3.2760	 4.6780
 3.2780	 4.6640
 3.2800	 4.7160
 3.2820	 4.8010
 3.2840	 4.8280
 3.2860	 4.7310
 3.2880	 4.6750
 3.2900	 4.6580
 3.2920	 4.6580
 3.2940	 4.6130
 3.2960	 4.6380
 3.2990	 4.6870
 3.3010	 4.6990
 3.3030	 4.6430
 3.3050	 4.6180
 3.3070	 4.4820
 3.3090	 4.5720
 3.3110	 4.6020
 3.3130	 4.5960
 3.3150	 4.5810
 3.3180	 4.5290
 3.3200	 4.3860
 3.3220	 4.3590
 3.3240	 4.3660
 3.3260	 4.4590
 3.3280	 4.3990
 3.3300	 4.3500
 3.3330	 4.3370
 3.3350	 4.2990
 3.3370	 4.2630
 3.3390	 4.3520
 3.3410	 4.3480
 3.3430	 4.3120
 3.3450	 4.2880
 3.3480	 4.3860
 3.3500	 4.3420
 3.3520	 4.3340
 3.3540	 4.3110
 3.3560	 4.3220
 3.3580	 4.1820
 3.3610	 4.1210
 3.3630	 4.1570
 3.3650	 4.2120
 3.3670	 4.1460
 3.3690	 4.1540
 3.3720	 4.1060
 3.3740	 4.2320
 3.3760	 4.3030
 3.3780	 4.2890
 3.3800	 4.2140
 3.3830	 4.2900
 3.3850	 4.3070
 3.3870	 4.3260
 3.3890	 4.3140
 3.3910	 4.2790
 3.3940	 4.2160
 3.3960	 4.2580
 3.3980	 4.2910
 3.4000	 4.4260
 3.4020	 4.4720
 3.4050	 4.6130
 3.4070	 4.7060
 3.4090	 4.9150
 3.4110	 5.1240
 3.4140	 5.4420
 3.4160	 5.8000
 3.4180	 6.2740
 3.4200	 6.8580
 3.4230	 7.6820
 3.4250	 8.7380
 3.4270	 9.9160
 3.4290	10.5640
 3.4320	10.2230
 3.4340	 9.1750
 3.4360	 8.3120
 3.4390	 7.6540
 3.4410	 7.1720
 3.4430	 6.8440
 3.4450	 6.6960
 3.4480	 6.5610
 3.4500	 6.5050
 3.4520	 6.4110
 3.4550	 6.3500
 3.4570	 6.2760
 3.4590	 6.3000
 3.4620	 6.2330
 3.4640	 6.1710
 3.4660	 6.0470
 3.4680	 6.0000
 3.4710	 5.9150
 3.4730	 5.7570
 3.4750	 5.5990
 3.4780	 5.5420
 3.4800	 5.4650
 3.4820	 5.4620
 3.4850	 5.4100
 3.4870	 5.3850
 3.4890	 5.2970
 3.4920	 5.2680
 3.4940	 5.3600
 3.4970	 5.4520
 3.4990	 5.4970
 3.5010	 5.6350
 3.5040	 5.9010
 3.5060	 6.7900
 3.5080	 8.2550
 3.5110	 9.5220
 3.5130	 9.4430
 3.5160	 8.5170
 3.5180	 7.5820
 3.5200	 7.0860
 3.5230	 6.7360
 3.5250	 6.4890
 3.5270	 6.2590
 3.5300	 6.1210
 3.5320	 6.0650
 3.5350	 6.0620
 3.5370	 5.9380
 3.5400	 5.8690
 3.5420	 5.8560
 3.5440	 5.8510
 3.5470	 5.7730
 3.5490	 5.7880
 3.5520	 5.8010
 3.5540	 5.7740
 3.5570	 5.7800
 3.5590	 5.7750
 3.5610	 5.6320
 3.5640	 5.6820
 3.5660	 5.7000
 3.5690	 5.6740
 3.5710	 5.6280
 3.5740	 5.6620
 3.5760	 5.6660
 3.5790	 5.5810
 3.5810	 5.5250
 3.5840	 5.5270
 3.5860	 5.4590
 3.5890	 5.5170
 3.5910	 5.5240
 3.5930	 5.5080
 3.5960	 5.5230
 3.5980	 5.5490
 3.6010	 5.5310
 3.6030	 5.5590
 3.6060	 5.5100
 3.6080	 5.5000
 3.6110	 5.4940
 3.6140	 5.4390
 3.6160	 5.3970
 3.6190	 5.4440
 3.6210	 5.4470
 3.6240	 5.4280
 3.6260	 5.4060
 3.6290	 5.4520
 3.6310	 5.4460
 3.6340	 5.4380
 3.6360	 5.3460
 3.6390	 5.3170
 3.6410	 5.3910
 3.6440	 5.4670
 3.6470	 5.4840
 3.6490	 5.4840
 3.6520	 5.4070
 3.6540	 5.3890
 3.6570	 5.3910
 3.6590	 5.3500
 3.6620	 5.2790
 3.6650	 5.3340
 3.6670	 5.3740
 3.6700	 5.3750
 3.6720	 5.3170
 3.6750	 5.3680
 3.6780	 5.3510
 3.6800	 5.3810
 3.6830	 5.3570
 3.6850	 5.3350
 3.6880	 5.2900
 3.6910	 5.3160
 3.6930	 5.3510
 3.6960	 5.3900
 3.6990	 5.3290
 3.7010	 5.2760
 3.7040	 5.2250
 3.7060	 5.2480
 3.7090	 5.2670
 3.7120	 5.2650
 3.7140	 5.1620
 3.7170	 5.1730
 3.7200	 5.1660
 3.7220	 5.2420
 3.7250	 5.2230
 3.7280	 5.1960
 3.7300	 5.2320
 3.7330	 5.2940
 3.7360	 5.2610
 3.7390	 5.2440
 3.7410	 5.1850
 3.7440	 5.2130
 3.7470	 5.2550
 3.7490	 5.3210
 3.7520	 5.2890
 3.7550	 5.2560
 3.7580	 5.2510
 3.7600	 5.2530
 3.7630	 5.2290
 3.7660	 5.2740
 3.7680	 5.2630
 3.7710	 5.2320
 3.7740	 5.2160
 3.7770	 5.1980
 3.7790	 5.1900
 3.7820	 5.2430
 3.7850	 5.2020
 3.7880	 5.1990
 3.7900	 5.1890
 3.7930	 5.2600
 3.7960	 5.3090
 3.7990	 5.2760
 3.8020	 5.2400
 3.8040	 5.2650
 3.8070	 5.2470
 3.8100	 5.2410
 3.8130	 5.2270
 3.8160	 5.2220
 3.8180	 5.2870
 3.8210	 5.3320
 3.8240	 5.2910
 3.8270	 5.2530
 3.8300	 5.2450
 3.8330	 5.3240
 3.8350	 5.2550
 3.8380	 5.2080
 3.8410	 5.2890
 3.8440	 5.2930
 3.8470	 5.2690
 3.8500	 5.2600
 3.8520	 5.2270
 3.8550	 5.2250
 3.8580	 5.1560
 3.8610	 5.1730
 3.8640	 5.2290
 3.8670	 5.2770
 3.8700	 5.2100
 3.8730	 5.1850
 3.8750	 5.1530
 3.8780	 5.2040
 3.8810	 5.2620
 3.8840	 5.2970
 3.8870	 5.2750
 3.8900	 5.2770
 3.8930	 5.2300
 3.8960	 5.2440
 3.8990	 5.2420
 3.9020	 5.2660
 3.9050	 5.2570
 3.9080	 5.2570
 3.9110	 5.2160
 3.9140	 5.2310
 3.9160	 5.1930
 3.9190	 5.1790
 3.9220	 5.2300
 3.9250	 5.2910
 3.9280	 5.2570
 3.9310	 5.2640
 3.9340	 5.2510
 3.9370	 5.2320
 3.9400	 5.2410
 3.9430	 5.2470
 3.9460	 5.2210
 3.9490	 5.2140
 3.9520	 5.1770
 3.9550	 5.1910
 3.9580	 5.1450
 3.9610	 5.1770
 3.9640	 5.2260
 3.9670	 5.2480
 3.9700	 5.2370
 3.9730	 5.2570
 3.9770	 5.2600
 3.9800	 5.2890
 3.9830	 5.2170
 3.9860	 5.1870
 3.9890	 5.2450
 3.9920	 5.2800
 3.9950	 5.2150
 3.9980	 5.1930
 4.0010	 5.2100
 4.0040	 5.2090
 4.0070	 5.2180
 4.0100	 5.2250
 4.0130	 5.2200
 4.0170	 5.2080
 4.0200	 5.1890
 4.0230	 5.1980
 4.0260	 5.2130
 4.0290	 5.2050
 4.0320	 5.1410
 4.0350	 5.1560
 4.0380	 5.2690
 4.0420	 5.3170
 4.0450	 5.2600
 4.0480	 5.2170
 4.0510	 5.2050
 4.0540	 5.2160
 4.0570	 5.2640
 4.0610	 5.2810
 4.0640	 5.2440
 4.0670	 5.2720
 4.0700	 5.2430
 4.0730	 5.2150
 4.0770	 5.1610
 4.0800	 5.2040
 4.0830	 5.2250
 4.0860	 5.2200
 4.0890	 5.2190
 4.0930	 5.1850
 4.0960	 5.1630
 4.0990	 5.2020
 4.1020	 5.2080
 4.1060	 5.1830
 4.1090	 5.1740
 4.1120	 5.2180
 4.1150	 5.1900
 4.1190	 5.1850
 4.1220	 5.2280
 4.1250	 5.2460
 4.1280	 5.2540
 4.1320	 5.2900
 4.1350	 5.2530
 4.1380	 5.2110
 4.1420	 5.1860
 4.1450	 5.1840
 4.1480	 5.1800
 4.1520	 5.1770
 4.1550	 5.1150
 4.1580	 5.1520
 4.1620	 5.1990
 4.1650	 5.1890
 4.1680	 5.1610
 4.1720	 5.1890
 4.1750	 5.2110
 4.1780	 5.2020
 4.1820	 5.1390
 4.1850	 5.1520
 4.1890	 5.2070
 4.1920	 5.2630
 4.1950	 5.1930
 4.1990	 5.1440
 4.2020	 5.1680
 4.2060	 5.1620
 4.2090	 5.0900
 4.2120	 5.1500
 4.2160	 5.1030
 4.2190	 5.0770
 4.2230	 5.1370
 4.2260	 5.1360
 4.2300	 5.0970
 4.2330	 5.1680
 4.2360	 5.1690
 4.2400	 5.0810
 4.2430	 5.0500
 4.2470	 5.0960
 4.2500	 5.1470
 4.2540	 5.1350
 4.2570	 5.1440
 4.2610	 5.2070
 4.2640	 5.2420
 4.2680	 5.2420
 4.2710	 5.1580
 4.2750	 5.0670
 4.2780	 5.0550
 4.2820	 5.1370
 4.2850	 5.2770
 4.2890	 5.3030
 4.2930	 5.1110
 4.2960	 5.0150
 4.3000	 4.9740
 4.3030	 5.0400
 4.3070	 5.0730
 4.3100	 5.0840
 4.3140	 5.0850
 4.3180	 4.9990
 4.3210	 4.9680
 4.3250	 5.0370
 4.3280	 5.1250
 4.3320	 5.1570
 4.3360	 5.0650
 4.3390	 5.0410
 4.3430	 5.1040
 4.3470	 5.1700
 4.3500	 5.1260
 4.3540	 5.0930
 4.3570	 5.0760
 4.3610	 5.0800
 4.3650	 5.0850
 4.3680	 5.1120
 4.3720	 5.1380
 4.3760	 5.1260
 4.3800	 5.0420
 4.3830	 5.0140
 4.3870	 5.0410
 4.3910	 5.0810
 4.3940	 5.0630
 4.3980	 5.0390
 4.4020	 5.0340
 4.4060	 5.0450
 4.4090	 5.0780
 4.4130	 5.1010
 4.4170	 5.1140
 4.4210	 5.0470
 4.4240	 4.9240
 4.4280	 4.9380
 4.4320	 5.0030
 4.4360	 5.0050
 4.4400	 5.0020
 4.4430	 5.0510
 4.4470	 5.0300
 4.4510	 4.9830
 4.4550	 4.9970
 4.4590	 5.0940
 4.4620	 5.1140
 4.4660	 5.0200
 4.4700	 5.0210
 4.4740	 5.0930
 4.4780	 5.0640
 4.4820	 5.0090
 4.4860	 5.0060
 4.4900	 5.0800
 4.4930	 5.1290
 4.4970	 5.0640
 4.5010	 5.0390
 4.5050	 5.0550
 4.5090	 5.0200
 4.5130	 5.0680
 4.5170	 5.1400
 4.5210	 5.0620
 4.5250	 4.9400
 4.5290	 4.8990
 4.5330	 4.9440
 4.5370	 5.0090
 4.5410	 5.0710
 4.5450	 5.0680
 4.5490	 5.0400
 4.5530	 5.0400
 4.5570	 5.0540
 4.5610	 5.0190
 4.5650	 5.0320
 4.5690	 5.0650
 4.5730	 5.0920
 4.5770	 5.0590
 4.5810	 5.0230
 4.5850	 4.9650
 4.5890	 4.9060
 4.5930	 4.8660
 4.5970	 4.9350
 4.6010	 5.0030
 4.6050	 4.9940
 4.6090	 4.9450
 4.6130	 4.9880
 4.6170	 5.0800
 4.6220	 5.0850
 4.6260	 5.0750
 4.6300	 5.0870
 4.6340	 5.0750
 4.6380	 5.0140
 4.6420	 4.9460
 4.6460	 4.9580
 4.6510	 4.9720
 4.6550	 4.9770
 4.6590	 4.9640
 4.6630	 4.9650
 4.6670	 4.9540
 4.6720	 4.8850
 4.6760	 4.8980
 4.6800	 4.9430
 4.6840	 4.9290
 4.6880	 4.9270
 4.6930	 4.9520
 4.6970	 4.9820
 4.7010	 4.9620
 4.7050	 4.9900
 4.7100	 5.0530
 4.7140	 5.0330
 4.7180	 4.9970
 4.7230	 5.0100
 4.7270	 5.0080
 4.7310	 4.9810
 4.7360	 4.9160
 4.7400	 4.9380
 4.7440	 4.8930
 4.7490	 4.8550
 4.7530	 4.8930
 4.7570	 4.8980
 4.7620	 4.9210
 4.7660	 4.9950
 4.7700	 4.9240
 4.7750	 4.8910
 4.7790	 4.9490
 4.7840	 5.0000
 4.7880	 4.9960
 4.7920	 4.9700
 4.7970	 4.9510
 4.8010	 4.9730
 4.8060	 4.9760
 4.8100	 4.9210
 4.8150	 4.8820
 4.8190	 4.9130
 4.8240	 4.9560
 4.8280	 4.9510
 4.8330	 4.9490
 4.8370	 5.0050
 4.8420	 5.0090
 4.8460	 4.9570
 4.8510	 4.9120
 4.8550	 4.9130
 4.8600	 4.9160
 4.8640	 4.9100
 4.8690	 4.8510
 4.8730	 4.8100
 4.8780	 4.7880
 4.8830	 4.8790
 4.8870	 4.9380
 4.8920	 4.9460
 4.8960	 4.9340
 4.9010	 4.9340
 4.9060	 4.8990
 4.9100	 4.9590
 4.9150	 5.0080
 4.9200	 4.9720
 4.9240	 4.9420
 4.9290	 4.9200
 4.9340	 4.8910
 4.9380	 4.9130
 4.9430	 4.9120
 4.9480	 4.9320
 4.9530	 4.9130
 4.9570	 4.9250
 4.9620	 4.9260
 4.9670	 4.9310
 4.9720	 4.9350
 4.9760	 4.9950
 4.9810	 4.9260
 4.9860	 4.8370
 4.9910	 4.8660
 4.9960	 4.8870
 5.0000	 4.8820
 5.0050	 4.9460
 5.0100	 4.9780
 5.0150	 4.9630
 5.0200	 4.8820
 5.0250	 4.8600
 5.0290	 4.9310
 5.0340	 4.9890
 5.0390	 4.9710
 5.0440	 4.9040
 5.0490	 4.8820
 5.0540	 4.9660
 5.0590	 4.9500
 5.0640	 4.8750
 5.0690	 4.8490
 5.0740	 4.9010
 5.0790	 4.8600
 5.0840	 4.9250
 5.0890	 4.9170
 5.0940	 4.9280
 5.0990	 4.9730
 5.1040	 4.9540
 5.1090	 4.9650
 5.1140	 4.9540
 5.1190	 4.9000
 5.1240	 4.9200
 5.1290	 4.9090
 5.1340	 4.9340
 5.1390	 4.9190
 5.1440	 4.9430
 5.1490	 5.0010
 5.1540	 5.0450
 5.1600	 4.9550
 5.1650	 4.9130
 5.1700	 4.9560
 5.1750	 4.9700
 5.1800	 4.9000
 5.1850	 4.9090
 5.1910	 4.9240
 5.1960	 4.9050
 5.2010	 4.8790
 5.2060	 4.9290
 5.2110	 4.9320
 5.2170	 4.9390
 5.2220	 4.9390
 5.2270	 4.9550
 5.2320	 4.9230
 5.2380	 4.8880
 5.2430	 4.8270
 5.2480	 4.9210
 5.2540	 4.9760
 5.2590	 4.9470
 5.2640	 4.8610
 5.2700	 4.8720
 5.2750	 4.8950
 5.2800	 4.9040
 5.2860	 4.8740
 5.2910	 4.8160
 5.2970	 4.7920
 5.3020	 4.8970
 5.3070	 4.8990
 5.3130	 4.8640
 5.3180	 4.8740
 5.3240	 4.9150
 5.3290	 4.8930
 5.3350	 4.8840
 5.3400	 4.8750
 5.3460	 4.9020
 5.3510	 4.8700
 5.3570	 4.8630
 5.3620	 4.8200
 5.3680	 4.8250
 5.3730	 4.8370
 5.3790	 4.7970
 5.3850	 4.7360
 5.3900	 4.7710
 5.3960	 4.7480
 5.4010	 4.7050
 5.4070	 4.7480
 5.4130	 4.8560
 5.4180	 4.8420
 5.4240	 4.8150
 5.4300	 4.7520
 5.4350	 4.7310
