Name: Quercus agrifolia 3
Type: vegetation
Class: Tree
Genus: Quercus
Species: agrifolia
Sample No.: VH179
Owner: UCSB
Wavelength Range: VSWIR
Origin: 34.7165; -120.0603; WGS84
Collection Date: 6/9/2013
Description: Samples were collected as part of the HyspIRI Airborne Campaign. 48 individual plants were sampled in three times in 2013 - spring  summer  and fall. The name of the sample includes a 1  2  or 3 which references a different individual of the species. Samples were taken to JPL and processed within 48 hours of collection. The same leaves were processed in the Nicolet and then measured using the ASD.
Measurement: Bidirectional reflectance
First Column: X
Second Column: Y
X Units: Wavelength (micrometers)
Y Units: Reflectance (percentage)
First X Value: 0.35
Last X Value: 2.5
Number of X Values: 2151
Additional Information: vegetation.tree.quercus.agrifolia.vswir.vh179.ucsb.asd.ancillary.txt

 0.3500	 5.1300
 0.3510	 4.9810
 0.3520	 5.0690
 0.3530	 5.1190
 0.3540	 4.9460
 0.3550	 5.0110
 0.3560	 5.0260
 0.3570	 5.0240
 0.3580	 5.1460
 0.3590	 4.9370
 0.3600	 4.7930
 0.3610	 4.8770
 0.3620	 4.9100
 0.3630	 4.9140
 0.3640	 4.9430
 0.3650	 5.0060
 0.3660	 4.8840
 0.3670	 4.8870
 0.3680	 4.9730
 0.3690	 4.8890
 0.3700	 4.8900
 0.3710	 4.9180
 0.3720	 4.9190
 0.3730	 4.9140
 0.3740	 4.8180
 0.3750	 4.7730
 0.3760	 4.9010
 0.3770	 4.8960
 0.3780	 4.8990
 0.3790	 4.9310
 0.3800	 4.8930
 0.3810	 4.8900
 0.3820	 4.8840
 0.3830	 4.8470
 0.3840	 4.8200
 0.3850	 4.7990
 0.3860	 4.8050
 0.3870	 4.8540
 0.3880	 4.9440
 0.3890	 4.9230
 0.3900	 4.8070
 0.3910	 4.7740
 0.3920	 4.8090
 0.3930	 4.8570
 0.3940	 4.8700
 0.3950	 4.8510
 0.3960	 4.8530
 0.3970	 4.8540
 0.3980	 4.8250
 0.3990	 4.8300
 0.4000	 4.8460
 0.4010	 4.8540
 0.4020	 4.8550
 0.4030	 4.8800
 0.4040	 4.8950
 0.4050	 4.8760
 0.4060	 4.8880
 0.4070	 4.9070
 0.4080	 4.9280
 0.4090	 4.9440
 0.4100	 4.9370
 0.4110	 4.9320
 0.4120	 4.9510
 0.4130	 4.9760
 0.4140	 4.9970
 0.4150	 5.0190
 0.4160	 5.0380
 0.4170	 5.0480
 0.4180	 5.0700
 0.4190	 5.1030
 0.4200	 5.1260
 0.4210	 5.1420
 0.4220	 5.1500
 0.4230	 5.1660
 0.4240	 5.2210
 0.4250	 5.2570
 0.4260	 5.2710
 0.4270	 5.2890
 0.4280	 5.2920
 0.4290	 5.3010
 0.4300	 5.3290
 0.4310	 5.3410
 0.4320	 5.3730
 0.4330	 5.4010
 0.4340	 5.4100
 0.4350	 5.4270
 0.4360	 5.4410
 0.4370	 5.4510
 0.4380	 5.4640
 0.4390	 5.4710
 0.4400	 5.4840
 0.4410	 5.5040
 0.4420	 5.5120
 0.4430	 5.5250
 0.4440	 5.5390
 0.4450	 5.5490
 0.4460	 5.5610
 0.4470	 5.5790
 0.4480	 5.5990
 0.4490	 5.6040
 0.4500	 5.6200
 0.4510	 5.6380
 0.4520	 5.6430
 0.4530	 5.6490
 0.4540	 5.6560
 0.4550	 5.6670
 0.4560	 5.6910
 0.4570	 5.6920
 0.4580	 5.6930
 0.4590	 5.7060
 0.4600	 5.7040
 0.4610	 5.7100
 0.4620	 5.7210
 0.4630	 5.7210
 0.4640	 5.7140
 0.4650	 5.7170
 0.4660	 5.7290
 0.4670	 5.7330
 0.4680	 5.7330
 0.4690	 5.7370
 0.4700	 5.7440
 0.4710	 5.7370
 0.4720	 5.7350
 0.4730	 5.7400
 0.4740	 5.7450
 0.4750	 5.7470
 0.4760	 5.7480
 0.4770	 5.7510
 0.4780	 5.7560
 0.4790	 5.7630
 0.4800	 5.7600
 0.4810	 5.7510
 0.4820	 5.7630
 0.4830	 5.7650
 0.4840	 5.7550
 0.4850	 5.7710
 0.4860	 5.7840
 0.4870	 5.7960
 0.4880	 5.8060
 0.4890	 5.8020
 0.4900	 5.8110
 0.4910	 5.8350
 0.4920	 5.8520
 0.4930	 5.8720
 0.4940	 5.8930
 0.4950	 5.9130
 0.4960	 5.9250
 0.4970	 5.9450
 0.4980	 5.9720
 0.4990	 5.9960
 0.5000	 6.0270
 0.5010	 6.0660
 0.5020	 6.1120
 0.5030	 6.1500
 0.5040	 6.1900
 0.5050	 6.2380
 0.5060	 6.2880
 0.5070	 6.3440
 0.5080	 6.4070
 0.5090	 6.4780
 0.5100	 6.5640
 0.5110	 6.6430
 0.5120	 6.7320
 0.5130	 6.8310
 0.5140	 6.9320
 0.5150	 7.0460
 0.5160	 7.1690
 0.5170	 7.2930
 0.5180	 7.4330
 0.5190	 7.5730
 0.5200	 7.7180
 0.5210	 7.8760
 0.5220	 8.0380
 0.5230	 8.1900
 0.5240	 8.3360
 0.5250	 8.4950
 0.5260	 8.6430
 0.5270	 8.7790
 0.5280	 8.9120
 0.5290	 9.0490
 0.5300	 9.1740
 0.5310	 9.2870
 0.5320	 9.3920
 0.5330	 9.4850
 0.5340	 9.5710
 0.5350	 9.6520
 0.5360	 9.7270
 0.5370	 9.7990
 0.5380	 9.8630
 0.5390	 9.9140
 0.5400	 9.9690
 0.5410	10.0260
 0.5420	10.0780
 0.5430	10.1250
 0.5440	10.1690
 0.5450	10.2150
 0.5460	10.2560
 0.5470	10.2900
 0.5480	10.3240
 0.5490	10.3590
 0.5500	10.3880
 0.5510	10.4130
 0.5520	10.4290
 0.5530	10.4340
 0.5540	10.4290
 0.5550	10.4160
 0.5560	10.3940
 0.5570	10.3590
 0.5580	10.3120
 0.5590	10.2570
 0.5600	10.1940
 0.5610	10.1250
 0.5620	10.0500
 0.5630	 9.9700
 0.5640	 9.8840
 0.5650	 9.7940
 0.5660	 9.6960
 0.5670	 9.5890
 0.5680	 9.4700
 0.5690	 9.3620
 0.5700	 9.2590
 0.5710	 9.1500
 0.5720	 9.0410
 0.5730	 8.9370
 0.5740	 8.8450
 0.5750	 8.7770
 0.5760	 8.7210
 0.5770	 8.6680
 0.5780	 8.6100
 0.5790	 8.5450
 0.5800	 8.4770
 0.5810	 8.4180
 0.5820	 8.3690
 0.5830	 8.3240
 0.5840	 8.2810
 0.5850	 8.2340
 0.5860	 8.1900
 0.5870	 8.1380
 0.5880	 8.0850
 0.5890	 8.0370
 0.5900	 8.0100
 0.5910	 7.9980
 0.5920	 7.9920
 0.5930	 7.9790
 0.5940	 7.9550
 0.5950	 7.9250
 0.5960	 7.8970
 0.5970	 7.8790
 0.5980	 7.8660
 0.5990	 7.8510
 0.6000	 7.8330
 0.6010	 7.8140
 0.6020	 7.7900
 0.6030	 7.7630
 0.6040	 7.7370
 0.6050	 7.7070
 0.6060	 7.6730
 0.6070	 7.6310
 0.6080	 7.5880
 0.6090	 7.5410
 0.6100	 7.4910
 0.6110	 7.4460
 0.6120	 7.3970
 0.6130	 7.3490
 0.6140	 7.3010
 0.6150	 7.2560
 0.6160	 7.2170
 0.6170	 7.1790
 0.6180	 7.1430
 0.6190	 7.1070
 0.6200	 7.0780
 0.6210	 7.0570
 0.6220	 7.0350
 0.6230	 7.0110
 0.6240	 6.9920
 0.6250	 6.9840
 0.6260	 6.9760
 0.6270	 6.9680
 0.6280	 6.9600
 0.6290	 6.9490
 0.6300	 6.9460
 0.6310	 6.9380
 0.6320	 6.9290
 0.6330	 6.9210
 0.6340	 6.9090
 0.6350	 6.8930
 0.6360	 6.8710
 0.6370	 6.8440
 0.6380	 6.8120
 0.6390	 6.7750
 0.6400	 6.7390
 0.6410	 6.6960
 0.6420	 6.6530
 0.6430	 6.6120
 0.6440	 6.5680
 0.6450	 6.5200
 0.6460	 6.4790
 0.6470	 6.4430
 0.6480	 6.4070
 0.6490	 6.3730
 0.6500	 6.3460
 0.6510	 6.3230
 0.6520	 6.2990
 0.6530	 6.2780
 0.6540	 6.2560
 0.6550	 6.2330
 0.6560	 6.2080
 0.6570	 6.1810
 0.6580	 6.1530
 0.6590	 6.1160
 0.6600	 6.0770
 0.6610	 6.0450
 0.6620	 6.0160
 0.6630	 5.9840
 0.6640	 5.9510
 0.6650	 5.9220
 0.6660	 5.9010
 0.6670	 5.8790
 0.6680	 5.8620
 0.6690	 5.8510
 0.6700	 5.8420
 0.6710	 5.8340
 0.6720	 5.8300
 0.6730	 5.8300
 0.6740	 5.8320
 0.6750	 5.8340
 0.6760	 5.8450
 0.6770	 5.8580
 0.6780	 5.8720
 0.6790	 5.8870
 0.6800	 5.9080
 0.6810	 5.9330
 0.6820	 5.9630
 0.6830	 6.0010
 0.6840	 6.0460
 0.6850	 6.0980
 0.6860	 6.1630
 0.6870	 6.2460
 0.6880	 6.3420
 0.6890	 6.4600
 0.6900	 6.6020
 0.6910	 6.7800
 0.6920	 6.9950
 0.6930	 7.2530
 0.6940	 7.5600
 0.6950	 7.9200
 0.6960	 8.3380
 0.6970	 8.8190
 0.6980	 9.3550
 0.6990	 9.9520
 0.7000	10.6020
 0.7010	11.3020
 0.7020	12.0440
 0.7030	12.8200
 0.7040	13.6260
 0.7050	14.4540
 0.7060	15.2930
 0.7070	16.1480
 0.7080	17.0130
 0.7090	17.8810
 0.7100	18.7490
 0.7110	19.6240
 0.7120	20.5050
 0.7130	21.3810
 0.7140	22.2570
 0.7150	23.1330
 0.7160	24.0040
 0.7170	24.8680
 0.7180	25.7220
 0.7190	26.5680
 0.7200	27.4070
 0.7210	28.2270
 0.7220	29.0350
 0.7230	29.8280
 0.7240	30.5960
 0.7250	31.3450
 0.7260	32.0710
 0.7270	32.7690
 0.7280	33.4450
 0.7290	34.0910
 0.7300	34.7100
 0.7310	35.3040
 0.7320	35.8740
 0.7330	36.4170
 0.7340	36.9320
 0.7350	37.4240
 0.7360	37.8880
 0.7370	38.3220
 0.7380	38.7300
 0.7390	39.1250
 0.7400	39.5000
 0.7410	39.8470
 0.7420	40.1610
 0.7430	40.4720
 0.7440	40.7620
 0.7450	41.0250
 0.7460	41.2740
 0.7470	41.5040
 0.7480	41.7150
 0.7490	41.9090
 0.7500	42.0930
 0.7510	42.2640
 0.7520	42.4200
 0.7530	42.5580
 0.7540	42.6900
 0.7550	42.8090
 0.7560	42.9170
 0.7570	43.0160
 0.7580	43.1110
 0.7590	43.1980
 0.7600	43.2750
 0.7610	43.3450
 0.7620	43.4110
 0.7630	43.4720
 0.7640	43.5240
 0.7650	43.5750
 0.7660	43.6230
 0.7670	43.6720
 0.7680	43.7190
 0.7690	43.7480
 0.7700	43.7810
 0.7710	43.8220
 0.7720	43.8460
 0.7730	43.8710
 0.7740	43.8960
 0.7750	43.9180
 0.7760	43.9490
 0.7770	43.9760
 0.7780	43.9960
 0.7790	44.0120
 0.7800	44.0290
 0.7810	44.0550
 0.7820	44.0810
 0.7830	44.0890
 0.7840	44.1100
 0.7850	44.1320
 0.7860	44.1480
 0.7870	44.1690
 0.7880	44.1850
 0.7890	44.1950
 0.7900	44.2030
 0.7910	44.2180
 0.7920	44.2380
 0.7930	44.2590
 0.7940	44.2740
 0.7950	44.2910
 0.7960	44.3010
 0.7970	44.3040
 0.7980	44.3180
 0.7990	44.3320
 0.8000	44.3470
 0.8010	44.3610
 0.8020	44.3630
 0.8030	44.3730
 0.8040	44.3870
 0.8050	44.3930
 0.8060	44.3980
 0.8070	44.4110
 0.8080	44.4280
 0.8090	44.4370
 0.8100	44.4400
 0.8110	44.4470
 0.8120	44.4610
 0.8130	44.4730
 0.8140	44.4820
 0.8150	44.4910
 0.8160	44.5010
 0.8170	44.5070
 0.8180	44.5130
 0.8190	44.5210
 0.8200	44.5350
 0.8210	44.5450
 0.8220	44.5540
 0.8230	44.5630
 0.8240	44.5720
 0.8250	44.5860
 0.8260	44.5940
 0.8270	44.5950
 0.8280	44.6010
 0.8290	44.6100
 0.8300	44.6200
 0.8310	44.6280
 0.8320	44.6310
 0.8330	44.6390
 0.8340	44.6530
 0.8350	44.6700
 0.8360	44.6790
 0.8370	44.6870
 0.8380	44.6960
 0.8390	44.7050
 0.8400	44.7220
 0.8410	44.7350
 0.8420	44.7430
 0.8430	44.7610
 0.8440	44.7700
 0.8450	44.7810
 0.8460	44.8000
 0.8470	44.8060
 0.8480	44.8190
 0.8490	44.8360
 0.8500	44.8480
 0.8510	44.8640
 0.8520	44.8780
 0.8530	44.8890
 0.8540	44.8970
 0.8550	44.9050
 0.8560	44.9220
 0.8570	44.9430
 0.8580	44.9470
 0.8590	44.9510
 0.8600	44.9650
 0.8610	44.9820
 0.8620	44.9850
 0.8630	44.9950
 0.8640	45.0100
 0.8650	45.0240
 0.8660	45.0360
 0.8670	45.0480
 0.8680	45.0590
 0.8690	45.0650
 0.8700	45.0720
 0.8710	45.0810
 0.8720	45.0900
 0.8730	45.1000
 0.8740	45.1140
 0.8750	45.1250
 0.8760	45.1320
 0.8770	45.1420
 0.8780	45.1510
 0.8790	45.1540
 0.8800	45.1570
 0.8810	45.1730
 0.8820	45.1850
 0.8830	45.1940
 0.8840	45.2040
 0.8850	45.2120
 0.8860	45.2180
 0.8870	45.2220
 0.8880	45.2270
 0.8890	45.2250
 0.8900	45.2280
 0.8910	45.2370
 0.8920	45.2510
 0.8930	45.2540
 0.8940	45.2570
 0.8950	45.2610
 0.8960	45.2620
 0.8970	45.2720
 0.8980	45.2700
 0.8990	45.2610
 0.9000	45.2720
 0.9010	45.2760
 0.9020	45.2900
 0.9030	45.3130
 0.9040	45.3130
 0.9050	45.3090
 0.9060	45.3120
 0.9070	45.3220
 0.9080	45.3270
 0.9090	45.3250
 0.9100	45.3280
 0.9110	45.3420
 0.9120	45.3370
 0.9130	45.3340
 0.9140	45.3370
 0.9150	45.3420
 0.9160	45.3410
 0.9170	45.3430
 0.9180	45.3470
 0.9190	45.3450
 0.9200	45.3440
 0.9210	45.3440
 0.9220	45.3450
 0.9230	45.3420
 0.9240	45.3440
 0.9250	45.3400
 0.9260	45.3300
 0.9270	45.3210
 0.9280	45.3180
 0.9290	45.3090
 0.9300	45.2970
 0.9310	45.3020
 0.9320	45.2830
 0.9330	45.2700
 0.9340	45.2670
 0.9350	45.2460
 0.9360	45.2410
 0.9370	45.2320
 0.9380	45.2080
 0.9390	45.1910
 0.9400	45.1820
 0.9410	45.1700
 0.9420	45.1470
 0.9430	45.1180
 0.9440	45.1020
 0.9450	45.0860
 0.9460	45.0560
 0.9470	45.0240
 0.9480	44.9860
 0.9490	44.9520
 0.9500	44.9230
 0.9510	44.8800
 0.9520	44.8340
 0.9530	44.7840
 0.9540	44.7290
 0.9550	44.6790
 0.9560	44.6270
 0.9570	44.5800
 0.9580	44.5420
 0.9590	44.4890
 0.9600	44.4400
 0.9610	44.4040
 0.9620	44.3840
 0.9630	44.3520
 0.9640	44.3270
 0.9650	44.3070
 0.9660	44.2870
 0.9670	44.2890
 0.9680	44.2670
 0.9690	44.2340
 0.9700	44.2250
 0.9710	44.2270
 0.9720	44.2230
 0.9730	44.2120
 0.9740	44.2040
 0.9750	44.2130
 0.9760	44.2210
 0.9770	44.2180
 0.9780	44.2030
 0.9790	44.2060
 0.9800	44.2130
 0.9810	44.2150
 0.9820	44.2170
 0.9830	44.2320
 0.9840	44.2420
 0.9850	44.2500
 0.9860	44.2690
 0.9870	44.2840
 0.9880	44.3040
 0.9890	44.3250
 0.9900	44.3410
 0.9910	44.3660
 0.9920	44.3930
 0.9930	44.4120
 0.9940	44.4170
 0.9950	44.4440
 0.9960	44.4640
 0.9970	44.4850
 0.9980	44.5210
 0.9990	44.5340
 1.0000	44.7230
 1.0010	45.0600
 1.0020	45.2480
 1.0030	45.2700
 1.0040	45.2940
 1.0050	45.3190
 1.0060	45.3470
 1.0070	45.3720
 1.0080	45.3980
 1.0090	45.4210
 1.0100	45.4460
 1.0110	45.4730
 1.0120	45.4990
 1.0130	45.5240
 1.0140	45.5490
 1.0150	45.5710
 1.0160	45.5950
 1.0170	45.6140
 1.0180	45.6350
 1.0190	45.6600
 1.0200	45.6830
 1.0210	45.7090
 1.0220	45.7340
 1.0230	45.7570
 1.0240	45.7740
 1.0250	45.7970
 1.0260	45.8230
 1.0270	45.8450
 1.0280	45.8700
 1.0290	45.8920
 1.0300	45.9100
 1.0310	45.9310
 1.0320	45.9560
 1.0330	45.9750
 1.0340	45.9940
 1.0350	46.0150
 1.0360	46.0290
 1.0370	46.0450
 1.0380	46.0630
 1.0390	46.0840
 1.0400	46.1000
 1.0410	46.1150
 1.0420	46.1310
 1.0430	46.1440
 1.0440	46.1600
 1.0450	46.1820
 1.0460	46.1990
 1.0470	46.2170
 1.0480	46.2320
 1.0490	46.2380
 1.0500	46.2510
 1.0510	46.2670
 1.0520	46.2790
 1.0530	46.2930
 1.0540	46.3140
 1.0550	46.3260
 1.0560	46.3320
 1.0570	46.3410
 1.0580	46.3460
 1.0590	46.3550
 1.0600	46.3680
 1.0610	46.3790
 1.0620	46.3930
 1.0630	46.4040
 1.0640	46.4150
 1.0650	46.4230
 1.0660	46.4260
 1.0670	46.4320
 1.0680	46.4370
 1.0690	46.4410
 1.0700	46.4470
 1.0710	46.4560
 1.0720	46.4620
 1.0730	46.4680
 1.0740	46.4730
 1.0750	46.4770
 1.0760	46.4800
 1.0770	46.4820
 1.0780	46.4850
 1.0790	46.4870
 1.0800	46.4880
 1.0810	46.4920
 1.0820	46.4930
 1.0830	46.4900
 1.0840	46.4890
 1.0850	46.4890
 1.0860	46.4870
 1.0870	46.4860
 1.0880	46.4870
 1.0890	46.4850
 1.0900	46.4800
 1.0910	46.4770
 1.0920	46.4720
 1.0930	46.4680
 1.0940	46.4650
 1.0950	46.4620
 1.0960	46.4580
 1.0970	46.4540
 1.0980	46.4510
 1.0990	46.4450
 1.1000	46.4380
 1.1010	46.4300
 1.1020	46.4190
 1.1030	46.4080
 1.1040	46.3990
 1.1050	46.3910
 1.1060	46.3810
 1.1070	46.3740
 1.1080	46.3620
 1.1090	46.3480
 1.1100	46.3340
 1.1110	46.3200
 1.1120	46.3040
 1.1130	46.2850
 1.1140	46.2670
 1.1150	46.2500
 1.1160	46.2310
 1.1170	46.2160
 1.1180	46.1940
 1.1190	46.1690
 1.1200	46.1390
 1.1210	46.1060
 1.1220	46.0720
 1.1230	46.0360
 1.1240	45.9980
 1.1250	45.9560
 1.1260	45.9120
 1.1270	45.8610
 1.1280	45.8060
 1.1290	45.7430
 1.1300	45.6740
 1.1310	45.6020
 1.1320	45.5250
 1.1330	45.4410
 1.1340	45.3520
 1.1350	45.2540
 1.1360	45.1490
 1.1370	45.0350
 1.1380	44.9160
 1.1390	44.7930
 1.1400	44.6650
 1.1410	44.5350
 1.1420	44.4010
 1.1430	44.2630
 1.1440	44.1280
 1.1450	43.9910
 1.1460	43.8540
 1.1470	43.7150
 1.1480	43.5830
 1.1490	43.4480
 1.1500	43.3240
 1.1510	43.2060
 1.1520	43.0940
 1.1530	42.9870
 1.1540	42.8870
 1.1550	42.7940
 1.1560	42.7100
 1.1570	42.6340
 1.1580	42.5650
 1.1590	42.5010
 1.1600	42.4430
 1.1610	42.3910
 1.1620	42.3460
 1.1630	42.3070
 1.1640	42.2730
 1.1650	42.2410
 1.1660	42.2150
 1.1670	42.1900
 1.1680	42.1680
 1.1690	42.1480
 1.1700	42.1300
 1.1710	42.1140
 1.1720	42.1010
 1.1730	42.0870
 1.1740	42.0730
 1.1750	42.0590
 1.1760	42.0430
 1.1770	42.0240
 1.1780	42.0050
 1.1790	41.9880
 1.1800	41.9710
 1.1810	41.9540
 1.1820	41.9380
 1.1830	41.9190
 1.1840	41.9000
 1.1850	41.8810
 1.1860	41.8630
 1.1870	41.8450
 1.1880	41.8280
 1.1890	41.8110
 1.1900	41.7970
 1.1910	41.7860
 1.1920	41.7750
 1.1930	41.7670
 1.1940	41.7580
 1.1950	41.7490
 1.1960	41.7440
 1.1970	41.7400
 1.1980	41.7360
 1.1990	41.7360
 1.2000	41.7360
 1.2010	41.7370
 1.2020	41.7410
 1.2030	41.7470
 1.2040	41.7550
 1.2050	41.7660
 1.2060	41.7790
 1.2070	41.7940
 1.2080	41.8100
 1.2090	41.8260
 1.2100	41.8450
 1.2110	41.8660
 1.2120	41.8890
 1.2130	41.9160
 1.2140	41.9460
 1.2150	41.9790
 1.2160	42.0150
 1.2170	42.0520
 1.2180	42.0930
 1.2190	42.1370
 1.2200	42.1800
 1.2210	42.2260
 1.2220	42.2720
 1.2230	42.3170
 1.2240	42.3640
 1.2250	42.4100
 1.2260	42.4540
 1.2270	42.4970
 1.2280	42.5380
 1.2290	42.5800
 1.2300	42.6230
 1.2310	42.6640
 1.2320	42.7030
 1.2330	42.7390
 1.2340	42.7750
 1.2350	42.8100
 1.2360	42.8430
 1.2370	42.8760
 1.2380	42.9090
 1.2390	42.9410
 1.2400	42.9690
 1.2410	42.9990
 1.2420	43.0240
 1.2430	43.0470
 1.2440	43.0720
 1.2450	43.0960
 1.2460	43.1210
 1.2470	43.1490
 1.2480	43.1730
 1.2490	43.1950
 1.2500	43.2170
 1.2510	43.2370
 1.2520	43.2570
 1.2530	43.2770
 1.2540	43.2940
 1.2550	43.3100
 1.2560	43.3250
 1.2570	43.3390
 1.2580	43.3540
 1.2590	43.3660
 1.2600	43.3760
 1.2610	43.3860
 1.2620	43.3940
 1.2630	43.4020
 1.2640	43.4100
 1.2650	43.4180
 1.2660	43.4240
 1.2670	43.4290
 1.2680	43.4330
 1.2690	43.4360
 1.2700	43.4390
 1.2710	43.4380
 1.2720	43.4370
 1.2730	43.4340
 1.2740	43.4290
 1.2750	43.4280
 1.2760	43.4250
 1.2770	43.4210
 1.2780	43.4140
 1.2790	43.4040
 1.2800	43.3930
 1.2810	43.3800
 1.2820	43.3680
 1.2830	43.3550
 1.2840	43.3410
 1.2850	43.3270
 1.2860	43.3110
 1.2870	43.2940
 1.2880	43.2760
 1.2890	43.2560
 1.2900	43.2320
 1.2910	43.2090
 1.2920	43.1840
 1.2930	43.1560
 1.2940	43.1250
 1.2950	43.0920
 1.2960	43.0540
 1.2970	43.0130
 1.2980	42.9750
 1.2990	42.9330
 1.3000	42.8860
 1.3010	42.8400
 1.3020	42.7910
 1.3030	42.7370
 1.3040	42.6820
 1.3050	42.6230
 1.3060	42.5600
 1.3070	42.4950
 1.3080	42.4280
 1.3090	42.3610
 1.3100	42.2890
 1.3110	42.2140
 1.3120	42.1350
 1.3130	42.0510
 1.3140	41.9630
 1.3150	41.8720
 1.3160	41.7790
 1.3170	41.6840
 1.3180	41.5840
 1.3190	41.4800
 1.3200	41.3710
 1.3210	41.2560
 1.3220	41.1390
 1.3230	41.0210
 1.3240	40.9010
 1.3250	40.7790
 1.3260	40.6520
 1.3270	40.5220
 1.3280	40.3890
 1.3290	40.2500
 1.3300	40.1100
 1.3310	39.9690
 1.3320	39.8240
 1.3330	39.6790
 1.3340	39.5310
 1.3350	39.3790
 1.3360	39.2280
 1.3370	39.0750
 1.3380	38.9210
 1.3390	38.7690
 1.3400	38.6170
 1.3410	38.4650
 1.3420	38.3140
 1.3430	38.1650
 1.3440	38.0170
 1.3450	37.8700
 1.3460	37.7250
 1.3470	37.5820
 1.3480	37.4400
 1.3490	37.2990
 1.3500	37.1600
 1.3510	37.0230
 1.3520	36.8850
 1.3530	36.7490
 1.3540	36.6120
 1.3550	36.4760
 1.3560	36.3420
 1.3570	36.2050
 1.3580	36.0680
 1.3590	35.9290
 1.3600	35.7850
 1.3610	35.6390
 1.3620	35.4880
 1.3630	35.3320
 1.3640	35.1700
 1.3650	35.0000
 1.3660	34.8250
 1.3670	34.6400
 1.3680	34.4460
 1.3690	34.2420
 1.3700	34.0260
 1.3710	33.8000
 1.3720	33.5590
 1.3730	33.3030
 1.3740	33.0330
 1.3750	32.7450
 1.3760	32.4390
 1.3770	32.1140
 1.3780	31.7630
 1.3790	31.3900
 1.3800	30.9940
 1.3810	30.5720
 1.3820	30.1330
 1.3830	29.6740
 1.3840	29.1960
 1.3850	28.6970
 1.3860	28.1860
 1.3870	27.6530
 1.3880	27.1160
 1.3890	26.5670
 1.3900	26.0090
 1.3910	25.4510
 1.3920	24.8890
 1.3930	24.3240
 1.3940	23.7640
 1.3950	23.2020
 1.3960	22.6490
 1.3970	22.1070
 1.3980	21.5760
 1.3990	21.0640
 1.4000	20.5650
 1.4010	20.0800
 1.4020	19.6170
 1.4030	19.1670
 1.4040	18.7390
 1.4050	18.3340
 1.4060	17.9480
 1.4070	17.5870
 1.4080	17.2450
 1.4090	16.9220
 1.4100	16.6210
 1.4110	16.3380
 1.4120	16.0760
 1.4130	15.8310
 1.4140	15.6040
 1.4150	15.3960
 1.4160	15.2050
 1.4170	15.0270
 1.4180	14.8660
 1.4190	14.7170
 1.4200	14.5800
 1.4210	14.4550
 1.4220	14.3410
 1.4230	14.2370
 1.4240	14.1430
 1.4250	14.0560
 1.4260	13.9780
 1.4270	13.9080
 1.4280	13.8450
 1.4290	13.7880
 1.4300	13.7380
 1.4310	13.6930
 1.4320	13.6530
 1.4330	13.6190
 1.4340	13.5910
 1.4350	13.5670
 1.4360	13.5480
 1.4370	13.5330
 1.4380	13.5210
 1.4390	13.5130
 1.4400	13.5080
 1.4410	13.5050
 1.4420	13.5040
 1.4430	13.5060
 1.4440	13.5100
 1.4450	13.5150
 1.4460	13.5230
 1.4470	13.5330
 1.4480	13.5440
 1.4490	13.5560
 1.4500	13.5690
 1.4510	13.5840
 1.4520	13.6000
 1.4530	13.6180
 1.4540	13.6370
 1.4550	13.6570
 1.4560	13.6780
 1.4570	13.7010
 1.4580	13.7260
 1.4590	13.7540
 1.4600	13.7870
 1.4610	13.8220
 1.4620	13.8610
 1.4630	13.9040
 1.4640	13.9500
 1.4650	14.0010
 1.4660	14.0550
 1.4670	14.1150
 1.4680	14.1790
 1.4690	14.2460
 1.4700	14.3180
