Name: Arctostaphylos glandulosa 1
Type: vegetation
Class: Shrub
Genus: Arctostaphylos
Species: glandulosa
Sample No.: VH241
Owner: UCSB
Wavelength Range: VSWIR
Origin: 37.0432; -119.304; WGS84
Collection Date: 11/2/2013
Description: Samples were collected as part of the HyspIRI Airborne Campaign. 48 individual plants were sampled in three times in 2013 - spring  summer  and fall. The name of the sample includes a 1  2  or 3 which references a different individual of the species. Samples were taken to JPL and processed within 48 hours of collection. The same leaves were processed in the Nicolet and then measured using the ASD.
Measurement: Bidirectional reflectance
First Column: X
Second Column: Y
X Units: Wavelength (micrometers)
Y Units: Reflectance (percentage)
First X Value: 0.35
Last X Value: 2.5
Number of X Values: 2151
Additional Information: vegetation.shrub.arctostaphylos.glandulosa.vswir.vh241.ucsb.asd.ancillary.txt

 0.3500	 5.6390
 0.3510	 5.6270
 0.3520	 5.5160
 0.3530	 5.4100
 0.3540	 5.3880
 0.3550	 5.4580
 0.3560	 5.4880
 0.3570	 5.4450
 0.3580	 5.3650
 0.3590	 5.3660
 0.3600	 5.3670
 0.3610	 5.3330
 0.3620	 5.3210
 0.3630	 5.2870
 0.3640	 5.2760
 0.3650	 5.3080
 0.3660	 5.2280
 0.3670	 5.2020
 0.3680	 5.2260
 0.3690	 5.1910
 0.3700	 5.1830
 0.3710	 5.1900
 0.3720	 5.2040
 0.3730	 5.2390
 0.3740	 5.2810
 0.3750	 5.2910
 0.3760	 5.2440
 0.3770	 5.2100
 0.3780	 5.2150
 0.3790	 5.2430
 0.3800	 5.2440
 0.3810	 5.2620
 0.3820	 5.2520
 0.3830	 5.2010
 0.3840	 5.1810
 0.3850	 5.2020
 0.3860	 5.2470
 0.3870	 5.2760
 0.3880	 5.2220
 0.3890	 5.2010
 0.3900	 5.2350
 0.3910	 5.2320
 0.3920	 5.2480
 0.3930	 5.2650
 0.3940	 5.2710
 0.3950	 5.2970
 0.3960	 5.3150
 0.3970	 5.3250
 0.3980	 5.3460
 0.3990	 5.3740
 0.4000	 5.3960
 0.4010	 5.4180
 0.4020	 5.4690
 0.4030	 5.4990
 0.4040	 5.5300
 0.4050	 5.5880
 0.4060	 5.6400
 0.4070	 5.6810
 0.4080	 5.7210
 0.4090	 5.7780
 0.4100	 5.8420
 0.4110	 5.9010
 0.4120	 5.9470
 0.4130	 5.9750
 0.4140	 6.0340
 0.4150	 6.1140
 0.4160	 6.1820
 0.4170	 6.2130
 0.4180	 6.2800
 0.4190	 6.3800
 0.4200	 6.4470
 0.4210	 6.4950
 0.4220	 6.5520
 0.4230	 6.6230
 0.4240	 6.6460
 0.4250	 6.6820
 0.4260	 6.7370
 0.4270	 6.7910
 0.4280	 6.8490
 0.4290	 6.9020
 0.4300	 6.9410
 0.4310	 6.9580
 0.4320	 7.0040
 0.4330	 7.0560
 0.4340	 7.0810
 0.4350	 7.0950
 0.4360	 7.1240
 0.4370	 7.1680
 0.4380	 7.2090
 0.4390	 7.2400
 0.4400	 7.2730
 0.4410	 7.3160
 0.4420	 7.3540
 0.4430	 7.3740
 0.4440	 7.3970
 0.4450	 7.4500
 0.4460	 7.4880
 0.4470	 7.5230
 0.4480	 7.5580
 0.4490	 7.5820
 0.4500	 7.6260
 0.4510	 7.6740
 0.4520	 7.7020
 0.4530	 7.7270
 0.4540	 7.7540
 0.4550	 7.7810
 0.4560	 7.8040
 0.4570	 7.8230
 0.4580	 7.8500
 0.4590	 7.8790
 0.4600	 7.8750
 0.4610	 7.8910
 0.4620	 7.9190
 0.4630	 7.9370
 0.4640	 7.9560
 0.4650	 7.9640
 0.4660	 7.9670
 0.4670	 7.9810
 0.4680	 7.9940
 0.4690	 8.0060
 0.4700	 8.0200
 0.4710	 8.0270
 0.4720	 8.0440
 0.4730	 8.0620
 0.4740	 8.0630
 0.4750	 8.0720
 0.4760	 8.0800
 0.4770	 8.0860
 0.4780	 8.1090
 0.4790	 8.1290
 0.4800	 8.1460
 0.4810	 8.1630
 0.4820	 8.1770
 0.4830	 8.1870
 0.4840	 8.1970
 0.4850	 8.2140
 0.4860	 8.2270
 0.4870	 8.2440
 0.4880	 8.2730
 0.4890	 8.3070
 0.4900	 8.3400
 0.4910	 8.3750
 0.4920	 8.4140
 0.4930	 8.4550
 0.4940	 8.5120
 0.4950	 8.5810
 0.4960	 8.6300
 0.4970	 8.6930
 0.4980	 8.7710
 0.4990	 8.8550
 0.5000	 8.9550
 0.5010	 9.0600
 0.5020	 9.1680
 0.5030	 9.2880
 0.5040	 9.4130
 0.5050	 9.5460
 0.5060	 9.6920
 0.5070	 9.8680
 0.5080	10.0480
 0.5090	10.2330
 0.5100	10.4340
 0.5110	10.6510
 0.5120	10.8790
 0.5130	11.1190
 0.5140	11.3800
 0.5150	11.6410
 0.5160	11.9080
 0.5170	12.1890
 0.5180	12.4780
 0.5190	12.7690
 0.5200	13.0600
 0.5210	13.3510
 0.5220	13.6320
 0.5230	13.9110
 0.5240	14.1890
 0.5250	14.4440
 0.5260	14.6830
 0.5270	14.9110
 0.5280	15.1310
 0.5290	15.3290
 0.5300	15.5110
 0.5310	15.6790
 0.5320	15.8300
 0.5330	15.9690
 0.5340	16.0970
 0.5350	16.2160
 0.5360	16.3300
 0.5370	16.4220
 0.5380	16.4980
 0.5390	16.5740
 0.5400	16.6410
 0.5410	16.7010
 0.5420	16.7560
 0.5430	16.8190
 0.5440	16.8790
 0.5450	16.9360
 0.5460	16.9940
 0.5470	17.0660
 0.5480	17.1340
 0.5490	17.1880
 0.5500	17.2340
 0.5510	17.2730
 0.5520	17.3030
 0.5530	17.3220
 0.5540	17.3310
 0.5550	17.3250
 0.5560	17.3020
 0.5570	17.2600
 0.5580	17.2040
 0.5590	17.1330
 0.5600	17.0480
 0.5610	16.9530
 0.5620	16.8500
 0.5630	16.7360
 0.5640	16.6090
 0.5650	16.4720
 0.5660	16.3320
 0.5670	16.1880
 0.5680	16.0360
 0.5690	15.8810
 0.5700	15.7230
 0.5710	15.5610
 0.5720	15.4050
 0.5730	15.2540
 0.5740	15.1100
 0.5750	14.9770
 0.5760	14.8460
 0.5770	14.7170
 0.5780	14.5930
 0.5790	14.4830
 0.5800	14.3740
 0.5810	14.2720
 0.5820	14.1840
 0.5830	14.1050
 0.5840	14.0310
 0.5850	13.9590
 0.5860	13.8850
 0.5870	13.8130
 0.5880	13.7460
 0.5890	13.6830
 0.5900	13.6220
 0.5910	13.5680
 0.5920	13.5200
 0.5930	13.4720
 0.5940	13.4330
 0.5950	13.3980
 0.5960	13.3640
 0.5970	13.3310
 0.5980	13.2950
 0.5990	13.2570
 0.6000	13.2210
 0.6010	13.1810
 0.6020	13.1380
 0.6030	13.0930
 0.6040	13.0430
 0.6050	12.9860
 0.6060	12.9230
 0.6070	12.8530
 0.6080	12.7790
 0.6090	12.7000
 0.6100	12.6130
 0.6110	12.5190
 0.6120	12.4420
 0.6130	12.3700
 0.6140	12.2940
 0.6150	12.2140
 0.6160	12.1400
 0.6170	12.0720
 0.6180	12.0060
 0.6190	11.9450
 0.6200	11.8910
 0.6210	11.8440
 0.6220	11.8040
 0.6230	11.7700
 0.6240	11.7420
 0.6250	11.7190
 0.6260	11.7060
 0.6270	11.6950
 0.6280	11.6860
 0.6290	11.6830
 0.6300	11.6740
 0.6310	11.6630
 0.6320	11.6500
 0.6330	11.6270
 0.6340	11.5920
 0.6350	11.5450
 0.6360	11.4830
 0.6370	11.4060
 0.6380	11.3160
 0.6390	11.2140
 0.6400	11.1000
 0.6410	10.9770
 0.6420	10.8500
 0.6430	10.7230
 0.6440	10.5910
 0.6450	10.4620
 0.6460	10.3400
 0.6470	10.2250
 0.6480	10.1270
 0.6490	10.0390
 0.6500	 9.9620
 0.6510	 9.8970
 0.6520	 9.8480
 0.6530	 9.8020
 0.6540	 9.7540
 0.6550	 9.7110
 0.6560	 9.6620
 0.6570	 9.6040
 0.6580	 9.5390
 0.6590	 9.4670
 0.6600	 9.3880
 0.6610	 9.3050
 0.6620	 9.2210
 0.6630	 9.1350
 0.6640	 9.0500
 0.6650	 8.9740
 0.6660	 8.9110
 0.6670	 8.8520
 0.6680	 8.7990
 0.6690	 8.7560
 0.6700	 8.7260
 0.6710	 8.7030
 0.6720	 8.6890
 0.6730	 8.6840
 0.6740	 8.6840
 0.6750	 8.6920
 0.6760	 8.7090
 0.6770	 8.7290
 0.6780	 8.7580
 0.6790	 8.7980
 0.6800	 8.8470
 0.6810	 8.9080
 0.6820	 8.9860
 0.6830	 9.0850
 0.6840	 9.2080
 0.6850	 9.3650
 0.6860	 9.5590
 0.6870	 9.7950
 0.6880	10.0930
 0.6890	10.4520
 0.6900	10.8810
 0.6910	11.3910
 0.6920	11.9810
 0.6930	12.6560
 0.6940	13.4160
 0.6950	14.2490
 0.6960	15.1570
 0.6970	16.1300
 0.6980	17.1580
 0.6990	18.2320
 0.7000	19.3440
 0.7010	20.4900
 0.7020	21.6630
 0.7030	22.8490
 0.7040	24.0440
 0.7050	25.2410
 0.7060	26.4330
 0.7070	27.6170
 0.7080	28.7930
 0.7090	29.9640
 0.7100	31.1340
 0.7110	32.2890
 0.7120	33.4290
 0.7130	34.5610
 0.7140	35.6840
 0.7150	36.7890
 0.7160	37.8740
 0.7170	38.9500
 0.7180	40.0020
 0.7190	41.0290
 0.7200	42.0370
 0.7210	43.0330
 0.7220	43.9970
 0.7230	44.9280
 0.7240	45.8430
 0.7250	46.7130
 0.7260	47.5500
 0.7270	48.3620
 0.7280	49.1390
 0.7290	49.8770
 0.7300	50.5790
 0.7310	51.2450
 0.7320	51.8790
 0.7330	52.4790
 0.7340	53.0460
 0.7350	53.5910
 0.7360	54.0990
 0.7370	54.5780
 0.7380	55.0330
 0.7390	55.4470
 0.7400	55.8490
 0.7410	56.2290
 0.7420	56.5690
 0.7430	56.8900
 0.7440	57.1920
 0.7450	57.4740
 0.7460	57.7310
 0.7470	57.9780
 0.7480	58.2050
 0.7490	58.4040
 0.7500	58.5780
 0.7510	58.7490
 0.7520	58.9120
 0.7530	59.0540
 0.7540	59.1770
 0.7550	59.2940
 0.7560	59.4070
 0.7570	59.5070
 0.7580	59.5930
 0.7590	59.6720
 0.7600	59.7460
 0.7610	59.8120
 0.7620	59.8750
 0.7630	59.9330
 0.7640	59.9840
 0.7650	60.0400
 0.7660	60.0830
 0.7670	60.1130
 0.7680	60.1420
 0.7690	60.1810
 0.7700	60.2140
 0.7710	60.2380
 0.7720	60.2640
 0.7730	60.2900
 0.7740	60.3120
 0.7750	60.3280
 0.7760	60.3510
 0.7770	60.3850
 0.7780	60.4110
 0.7790	60.4110
 0.7800	60.4390
 0.7810	60.4710
 0.7820	60.4930
 0.7830	60.5010
 0.7840	60.5270
 0.7850	60.5510
 0.7860	60.5640
 0.7870	60.5940
 0.7880	60.6070
 0.7890	60.6170
 0.7900	60.6460
 0.7910	60.6710
 0.7920	60.6890
 0.7930	60.7050
 0.7940	60.7280
 0.7950	60.7470
 0.7960	60.7710
 0.7970	60.7950
 0.7980	60.8010
 0.7990	60.8300
 0.8000	60.8590
 0.8010	60.8690
 0.8020	60.8870
 0.8030	60.9070
 0.8040	60.9290
 0.8050	60.9560
 0.8060	60.9680
 0.8070	60.9800
 0.8080	61.0040
 0.8090	61.0400
 0.8100	61.0560
 0.8110	61.0740
 0.8120	61.1060
 0.8130	61.1320
 0.8140	61.1480
 0.8150	61.1590
 0.8160	61.1740
 0.8170	61.2040
 0.8180	61.2330
 0.8190	61.2550
 0.8200	61.2740
 0.8210	61.3040
 0.8220	61.3320
 0.8230	61.3520
 0.8240	61.3690
 0.8250	61.3860
 0.8260	61.4030
 0.8270	61.4220
 0.8280	61.4450
 0.8290	61.4540
 0.8300	61.4660
 0.8310	61.4910
 0.8320	61.5000
 0.8330	61.5150
 0.8340	61.5360
 0.8350	61.5590
 0.8360	61.5780
 0.8370	61.6050
 0.8380	61.6340
 0.8390	61.6480
 0.8400	61.6760
 0.8410	61.7060
 0.8420	61.7300
 0.8430	61.7560
 0.8440	61.7690
 0.8450	61.7850
 0.8460	61.8160
 0.8470	61.8470
 0.8480	61.8690
 0.8490	61.8880
 0.8500	61.9120
 0.8510	61.9330
 0.8520	61.9540
 0.8530	61.9760
 0.8540	62.0000
 0.8550	62.0300
 0.8560	62.0480
 0.8570	62.0540
 0.8580	62.0660
 0.8590	62.0830
 0.8600	62.1050
 0.8610	62.1260
 0.8620	62.1340
 0.8630	62.1550
 0.8640	62.1720
 0.8650	62.1730
 0.8660	62.1850
 0.8670	62.2070
 0.8680	62.2320
 0.8690	62.2490
 0.8700	62.2630
 0.8710	62.2660
 0.8720	62.2700
 0.8730	62.2930
 0.8740	62.3030
 0.8750	62.3130
 0.8760	62.3230
 0.8770	62.3230
 0.8780	62.3280
 0.8790	62.3340
 0.8800	62.3370
 0.8810	62.3360
 0.8820	62.3400
 0.8830	62.3480
 0.8840	62.3550
 0.8850	62.3460
 0.8860	62.3530
 0.8870	62.3650
 0.8880	62.3660
 0.8890	62.3720
 0.8900	62.3740
 0.8910	62.3750
 0.8920	62.3800
 0.8930	62.3610
 0.8940	62.3390
 0.8950	62.3320
 0.8960	62.3480
 0.8970	62.3480
 0.8980	62.3390
 0.8990	62.3370
 0.9000	62.3470
 0.9010	62.3290
 0.9020	62.3170
 0.9030	62.3230
 0.9040	62.3190
 0.9050	62.3110
 0.9060	62.2990
 0.9070	62.2870
 0.9080	62.2880
 0.9090	62.2790
 0.9100	62.2730
 0.9110	62.2780
 0.9120	62.2690
 0.9130	62.2430
 0.9140	62.2250
 0.9150	62.2340
 0.9160	62.2280
 0.9170	62.2250
 0.9180	62.2200
 0.9190	62.2020
 0.9200	62.1820
 0.9210	62.1600
 0.9220	62.1420
 0.9230	62.1310
 0.9240	62.1090
 0.9250	62.0810
 0.9260	62.0560
 0.9270	62.0450
 0.9280	62.0330
 0.9290	62.0020
 0.9300	61.9590
 0.9310	61.9250
 0.9320	61.8920
 0.9330	61.8550
 0.9340	61.8140
 0.9350	61.7700
 0.9360	61.7540
 0.9370	61.7160
 0.9380	61.6490
 0.9390	61.6180
 0.9400	61.5840
 0.9410	61.5330
 0.9420	61.4680
 0.9430	61.4110
 0.9440	61.3600
 0.9450	61.3060
 0.9460	61.2390
 0.9470	61.1430
 0.9480	61.0550
 0.9490	60.9660
 0.9500	60.8620
 0.9510	60.7510
 0.9520	60.6400
 0.9530	60.5230
 0.9540	60.3970
 0.9550	60.2940
 0.9560	60.1850
 0.9570	60.0680
 0.9580	59.9540
 0.9590	59.8570
 0.9600	59.7720
 0.9610	59.6880
 0.9620	59.6060
 0.9630	59.5680
 0.9640	59.5270
 0.9650	59.4840
 0.9660	59.4550
 0.9670	59.4320
 0.9680	59.4080
 0.9690	59.3810
 0.9700	59.3570
 0.9710	59.3560
 0.9720	59.3460
 0.9730	59.3320
 0.9740	59.3370
 0.9750	59.3520
 0.9760	59.3670
 0.9770	59.3730
 0.9780	59.3700
 0.9790	59.3800
 0.9800	59.4110
 0.9810	59.4450
 0.9820	59.4570
 0.9830	59.4960
 0.9840	59.5220
 0.9850	59.5530
 0.9860	59.6160
 0.9870	59.6430
 0.9880	59.6830
 0.9890	59.7330
 0.9900	59.7690
 0.9910	59.8180
 0.9920	59.8750
 0.9930	59.9310
 0.9940	59.9820
 0.9950	60.0550
 0.9960	60.1190
 0.9970	60.1740
 0.9980	60.2290
 0.9990	60.2700
 1.0000	60.5090
 1.0010	60.8850
 1.0020	61.1370
 1.0030	61.1970
 1.0040	61.2580
 1.0050	61.3200
 1.0060	61.3770
 1.0070	61.4300
 1.0080	61.4930
 1.0090	61.5650
 1.0100	61.6290
 1.0110	61.6950
 1.0120	61.7590
 1.0130	61.8150
 1.0140	61.8760
 1.0150	61.9360
 1.0160	62.0040
 1.0170	62.0690
 1.0180	62.1310
 1.0190	62.1910
 1.0200	62.2510
 1.0210	62.3130
 1.0220	62.3730
 1.0230	62.4300
 1.0240	62.4830
 1.0250	62.5360
 1.0260	62.5840
 1.0270	62.6350
 1.0280	62.6890
 1.0290	62.7400
 1.0300	62.7900
 1.0310	62.8410
 1.0320	62.8910
 1.0330	62.9430
 1.0340	62.9980
 1.0350	63.0520
 1.0360	63.1000
 1.0370	63.1460
 1.0380	63.1910
 1.0390	63.2330
 1.0400	63.2760
 1.0410	63.3200
 1.0420	63.3610
 1.0430	63.3980
 1.0440	63.4370
 1.0450	63.4820
 1.0460	63.5170
 1.0470	63.5420
 1.0480	63.5760
 1.0490	63.6090
 1.0500	63.6390
 1.0510	63.6700
 1.0520	63.7070
 1.0530	63.7360
 1.0540	63.7570
 1.0550	63.7820
 1.0560	63.8090
 1.0570	63.8340
 1.0580	63.8570
 1.0590	63.8800
 1.0600	63.9060
 1.0610	63.9280
 1.0620	63.9460
 1.0630	63.9660
 1.0640	63.9860
 1.0650	64.0040
 1.0660	64.0240
 1.0670	64.0410
 1.0680	64.0560
 1.0690	64.0680
 1.0700	64.0790
 1.0710	64.0880
 1.0720	64.0970
 1.0730	64.1050
 1.0740	64.1140
 1.0750	64.1270
 1.0760	64.1320
 1.0770	64.1330
 1.0780	64.1360
 1.0790	64.1360
 1.0800	64.1370
 1.0810	64.1430
 1.0820	64.1420
 1.0830	64.1360
 1.0840	64.1300
 1.0850	64.1220
 1.0860	64.1150
 1.0870	64.1060
 1.0880	64.0960
 1.0890	64.0860
 1.0900	64.0770
 1.0910	64.0660
 1.0920	64.0560
 1.0930	64.0420
 1.0940	64.0240
 1.0950	64.0040
 1.0960	63.9820
 1.0970	63.9600
 1.0980	63.9360
 1.0990	63.9130
 1.1000	63.8900
 1.1010	63.8670
 1.1020	63.8440
 1.1030	63.8210
 1.1040	63.7930
 1.1050	63.7640
 1.1060	63.7330
 1.1070	63.6970
 1.1080	63.6650
 1.1090	63.6330
 1.1100	63.6000
 1.1110	63.5710
 1.1120	63.5330
 1.1130	63.4930
 1.1140	63.4510
 1.1150	63.4060
 1.1160	63.3580
 1.1170	63.3130
 1.1180	63.2590
 1.1190	63.2030
 1.1200	63.1380
 1.1210	63.0670
 1.1220	62.9890
 1.1230	62.9030
 1.1240	62.8060
 1.1250	62.7000
 1.1260	62.5900
 1.1270	62.4610
 1.1280	62.3200
 1.1290	62.1660
 1.1300	61.9990
 1.1310	61.8160
 1.1320	61.6210
 1.1330	61.4120
 1.1340	61.1860
 1.1350	60.9490
 1.1360	60.6990
 1.1370	60.4350
 1.1380	60.1610
 1.1390	59.8830
 1.1400	59.5960
 1.1410	59.3040
 1.1420	59.0040
 1.1430	58.7040
 1.1440	58.4090
 1.1450	58.1080
 1.1460	57.8240
 1.1470	57.5450
 1.1480	57.2780
 1.1490	57.0190
 1.1500	56.7790
 1.1510	56.5490
 1.1520	56.3370
 1.1530	56.1410
 1.1540	55.9590
 1.1550	55.7930
 1.1560	55.6410
 1.1570	55.5000
 1.1580	55.3780
 1.1590	55.2710
 1.1600	55.1750
 1.1610	55.0890
 1.1620	55.0130
 1.1630	54.9420
 1.1640	54.8770
 1.1650	54.8200
 1.1660	54.7740
 1.1670	54.7290
 1.1680	54.6910
 1.1690	54.6550
 1.1700	54.6250
 1.1710	54.5920
 1.1720	54.5610
 1.1730	54.5290
 1.1740	54.4950
 1.1750	54.4640
 1.1760	54.4320
 1.1770	54.3990
 1.1780	54.3640
 1.1790	54.3260
 1.1800	54.2850
 1.1810	54.2450
 1.1820	54.2040
 1.1830	54.1610
 1.1840	54.1180
 1.1850	54.0770
 1.1860	54.0370
 1.1870	53.9970
 1.1880	53.9590
 1.1890	53.9200
 1.1900	53.8850
 1.1910	53.8510
 1.1920	53.8200
 1.1930	53.7900
 1.1940	53.7630
 1.1950	53.7380
 1.1960	53.7140
 1.1970	53.6960
 1.1980	53.6830
 1.1990	53.6780
 1.2000	53.6780
 1.2010	53.6860
 1.2020	53.7020
 1.2030	53.7220
 1.2040	53.7480
 1.2050	53.7820
 1.2060	53.8210
 1.2070	53.8670
 1.2080	53.9180
 1.2090	53.9720
 1.2100	54.0310
 1.2110	54.0960
 1.2120	54.1680
 1.2130	54.2440
 1.2140	54.3270
 1.2150	54.4110
 1.2160	54.5000
 1.2170	54.5890
 1.2180	54.6780
 1.2190	54.7710
 1.2200	54.8640
 1.2210	54.9560
 1.2220	55.0510
 1.2230	55.1470
 1.2240	55.2420
 1.2250	55.3350
 1.2260	55.4250
 1.2270	55.5150
 1.2280	55.6030
 1.2290	55.6890
 1.2300	55.7760
 1.2310	55.8590
 1.2320	55.9400
 1.2330	56.0210
 1.2340	56.0970
 1.2350	56.1700
 1.2360	56.2400
 1.2370	56.3070
 1.2380	56.3720
 1.2390	56.4330
 1.2400	56.4930
 1.2410	56.5540
 1.2420	56.6110
 1.2430	56.6690
 1.2440	56.7250
 1.2450	56.7750
 1.2460	56.8250
 1.2470	56.8740
 1.2480	56.9200
 1.2490	56.9670
 1.2500	57.0110
 1.2510	57.0530
 1.2520	57.0940
 1.2530	57.1320
 1.2540	57.1690
 1.2550	57.2000
 1.2560	57.2280
 1.2570	57.2560
 1.2580	57.2810
 1.2590	57.3060
 1.2600	57.3340
 1.2610	57.3560
 1.2620	57.3740
 1.2630	57.3890
 1.2640	57.4030
 1.2650	57.4150
 1.2660	57.4280
 1.2670	57.4410
 1.2680	57.4510
 1.2690	57.4590
 1.2700	57.4630
 1.2710	57.4610
 1.2720	57.4560
 1.2730	57.4470
 1.2740	57.4370
 1.2750	57.4290
 1.2760	57.4180
 1.2770	57.4040
 1.2780	57.3880
 1.2790	57.3710
 1.2800	57.3540
 1.2810	57.3360
 1.2820	57.3110
 1.2830	57.2800
 1.2840	57.2460
 1.2850	57.2100
 1.2860	57.1730
 1.2870	57.1310
 1.2880	57.0880
 1.2890	57.0410
 1.2900	56.9870
 1.2910	56.9270
 1.2920	56.8640
 1.2930	56.7960
 1.2940	56.7230
 1.2950	56.6490
 1.2960	56.5720
 1.2970	56.4910
 1.2980	56.4070
 1.2990	56.3170
 1.3000	56.2220
 1.3010	56.1220
 1.3020	56.0160
 1.3030	55.9060
 1.3040	55.7880
 1.3050	55.6650
 1.3060	55.5420
 1.3070	55.4120
 1.3080	55.2800
 1.3090	55.1440
 1.3100	54.9980
 1.3110	54.8470
 1.3120	54.6910
 1.3130	54.5310
 1.3140	54.3640
 1.3150	54.1910
 1.3160	54.0140
 1.3170	53.8330
 1.3180	53.6450
 1.3190	53.4540
 1.3200	53.2580
 1.3210	53.0550
 1.3220	52.8460
 1.3230	52.6340
 1.3240	52.4180
 1.3250	52.2020
 1.3260	51.9830
 1.3270	51.7600
 1.3280	51.5340
 1.3290	51.3020
 1.3300	51.0690
 1.3310	50.8350
 1.3320	50.5980
 1.3330	50.3610
 1.3340	50.1220
 1.3350	49.8810
 1.3360	49.6430
 1.3370	49.4040
 1.3380	49.1670
 1.3390	48.9320
 1.3400	48.6960
 1.3410	48.4650
 1.3420	48.2380
 1.3430	48.0120
 1.3440	47.7910
 1.3450	47.5730
 1.3460	47.3570
 1.3470	47.1460
 1.3480	46.9410
 1.3490	46.7370
 1.3500	46.5380
 1.3510	46.3400
 1.3520	46.1430
 1.3530	45.9490
 1.3540	45.7540
 1.3550	45.5610
 1.3560	45.3660
 1.3570	45.1670
 1.3580	44.9690
 1.3590	44.7670
 1.3600	44.5600
 1.3610	44.3480
 1.3620	44.1270
 1.3630	43.9000
 1.3640	43.6650
 1.3650	43.4200
 1.3660	43.1680
 1.3670	42.9040
 1.3680	42.6260
 1.3690	42.3370
 1.3700	42.0300
 1.3710	41.7070
 1.3720	41.3710
 1.3730	41.0160
 1.3740	40.6440
 1.3750	40.2560
 1.3760	39.8410
 1.3770	39.4030
 1.3780	38.9390
 1.3790	38.4510
 1.3800	37.9410
 1.3810	37.4040
 1.3820	36.8500
 1.3830	36.2730
 1.3840	35.6840
 1.3850	35.0770
 1.3860	34.4620
 1.3870	33.8300
 1.3880	33.1990
 1.3890	32.5580
 1.3900	31.9140
 1.3910	31.2790
 1.3920	30.6420
 1.3930	30.0080
 1.3940	29.3850
 1.3950	28.7630
 1.3960	28.1530
 1.3970	27.5600
 1.3980	26.9800
 1.3990	26.4250
 1.4000	25.8900
 1.4010	25.3710
 1.4020	24.8770
 1.4030	24.4020
 1.4040	23.9480
 1.4050	23.5200
 1.4060	23.1130
 1.4070	22.7300
 1.4080	22.3700
 1.4090	22.0300
 1.4100	21.7130
 1.4110	21.4170
 1.4120	21.1410
 1.4130	20.8850
 1.4140	20.6480
 1.4150	20.4310
 1.4160	20.2300
 1.4170	20.0440
 1.4180	19.8730
 1.4190	19.7140
 1.4200	19.5690
 1.4210	19.4370
 1.4220	19.3160
 1.4230	19.2070
 1.4240	19.1080
 1.4250	19.0170
 1.4260	18.9360
 1.4270	18.8620
 1.4280	18.7980
 1.4290	18.7390
 1.4300	18.6880
 1.4310	18.6440
 1.4320	18.6060
 1.4330	18.5730
 1.4340	18.5480
 1.4350	18.5250
 1.4360	18.5070
 1.4370	18.4930
 1.4380	18.4840
 1.4390	18.4800
 1.4400	18.4800
 1.4410	18.4820
 1.4420	18.4880
 1.4430	18.4960
 1.4440	18.5060
 1.4450	18.5190
 1.4460	18.5340
 1.4470	18.5500
 1.4480	18.5680
 1.4490	18.5880
 1.4500	18.6090
 1.4510	18.6320
 1.4520	18.6560
 1.4530	18.6820
 1.4540	18.7090
 1.4550	18.7380
 1.4560	18.7690
 1.4570	18.8030
 1.4580	18.8400
 1.4590	18.8800
 1.4600	18.9240
 1.4610	18.9720
 1.4620	19.0250
 1.4630	19.0810
 1.4640	19.1420
 1.4650	19.2070
 1.4660	19.2770
 1.4670	19.3510
 1.4680	19.4310
