Name: Umbellularia californica 1
Type: vegetation
Class: Shrub
Genus: Umbellularia
Species: californica
Sample No.: VH025
Owner: UCSB
Wavelength Range: VSWIR
Origin: 34.5074; -119.7634; WGS84
Collection Date: 4/1/2013
Description: Samples were collected as part of the HyspIRI Airborne Campaign. 48 individual plants were sampled in three times in 2013 - spring  summer  and fall. The name of the sample includes a 1  2  or 3 which references a different individual of the species. Samples were taken to JPL and processed within 48 hours of collection. The same leaves were processed in the Nicolet and then measured using the ASD.
Measurement: Bidirectional reflectance
First Column: X
Second Column: Y
X Units: Wavelength (micrometers)
Y Units: Reflectance (percentage)
First X Value: 0.35
Last X Value: 2.5
Number of X Values: 2151
Additional Information: vegetation.shrub.umbellularia.californica.vswir.vh025.ucsb.asd.ancillary.txt

 0.3500	 7.1900
 0.3510	 7.2160
 0.3520	 7.3520
 0.3530	 7.4540
 0.3540	 7.4230
 0.3550	 7.3070
 0.3560	 7.2610
 0.3570	 7.2530
 0.3580	 7.1740
 0.3590	 7.1460
 0.3600	 7.1440
 0.3610	 7.1260
 0.3620	 7.0550
 0.3630	 7.0610
 0.3640	 7.1460
 0.3650	 7.2400
 0.3660	 7.1360
 0.3670	 7.0790
 0.3680	 7.0830
 0.3690	 7.0160
 0.3700	 7.0590
 0.3710	 7.1060
 0.3720	 7.0830
 0.3730	 7.0360
 0.3740	 7.0870
 0.3750	 7.1350
 0.3760	 7.0610
 0.3770	 7.0200
 0.3780	 7.0070
 0.3790	 7.0030
 0.3800	 6.9790
 0.3810	 6.9220
 0.3820	 6.8930
 0.3830	 6.9190
 0.3840	 6.9340
 0.3850	 6.9330
 0.3860	 6.9190
 0.3870	 6.9120
 0.3880	 6.9960
 0.3890	 6.9840
 0.3900	 6.8980
 0.3910	 6.9740
 0.3920	 6.9540
 0.3930	 6.8980
 0.3940	 6.8840
 0.3950	 6.8710
 0.3960	 6.8830
 0.3970	 6.9010
 0.3980	 6.8940
 0.3990	 6.8810
 0.4000	 6.8830
 0.4010	 6.9020
 0.4020	 6.9200
 0.4030	 6.9440
 0.4040	 6.9340
 0.4050	 6.8810
 0.4060	 6.9210
 0.4070	 6.9280
 0.4080	 6.9010
 0.4090	 6.9140
 0.4100	 6.9070
 0.4110	 6.9140
 0.4120	 6.9480
 0.4130	 6.9630
 0.4140	 6.9640
 0.4150	 6.9560
 0.4160	 6.9490
 0.4170	 6.9820
 0.4180	 7.0050
 0.4190	 7.0090
 0.4200	 7.0270
 0.4210	 7.0390
 0.4220	 7.0410
 0.4230	 7.0360
 0.4240	 7.0510
 0.4250	 7.0740
 0.4260	 7.0900
 0.4270	 7.0850
 0.4280	 7.1000
 0.4290	 7.1120
 0.4300	 7.1120
 0.4310	 7.1160
 0.4320	 7.1180
 0.4330	 7.1220
 0.4340	 7.1290
 0.4350	 7.1190
 0.4360	 7.1140
 0.4370	 7.1200
 0.4380	 7.1320
 0.4390	 7.1430
 0.4400	 7.1560
 0.4410	 7.1700
 0.4420	 7.1660
 0.4430	 7.1650
 0.4440	 7.1710
 0.4450	 7.1800
 0.4460	 7.1940
 0.4470	 7.2050
 0.4480	 7.2100
 0.4490	 7.2180
 0.4500	 7.2230
 0.4510	 7.2260
 0.4520	 7.2270
 0.4530	 7.2340
 0.4540	 7.2440
 0.4550	 7.2540
 0.4560	 7.2660
 0.4570	 7.2710
 0.4580	 7.2710
 0.4590	 7.2720
 0.4600	 7.2840
 0.4610	 7.2800
 0.4620	 7.2710
 0.4630	 7.2780
 0.4640	 7.2940
 0.4650	 7.3020
 0.4660	 7.2960
 0.4670	 7.2850
 0.4680	 7.2890
 0.4690	 7.2900
 0.4700	 7.2760
 0.4710	 7.2790
 0.4720	 7.2920
 0.4730	 7.2980
 0.4740	 7.2850
 0.4750	 7.2850
 0.4760	 7.2910
 0.4770	 7.2940
 0.4780	 7.2880
 0.4790	 7.2890
 0.4800	 7.2970
 0.4810	 7.3020
 0.4820	 7.3000
 0.4830	 7.3070
 0.4840	 7.3220
 0.4850	 7.3270
 0.4860	 7.3310
 0.4870	 7.3350
 0.4880	 7.3410
 0.4890	 7.3580
 0.4900	 7.3740
 0.4910	 7.3890
 0.4920	 7.4070
 0.4930	 7.4330
 0.4940	 7.4610
 0.4950	 7.4880
 0.4960	 7.5130
 0.4970	 7.5430
 0.4980	 7.5760
 0.4990	 7.6110
 0.5000	 7.6560
 0.5010	 7.7110
 0.5020	 7.7710
 0.5030	 7.8260
 0.5040	 7.8950
 0.5050	 7.9750
 0.5060	 8.0620
 0.5070	 8.1580
 0.5080	 8.2590
 0.5090	 8.3710
 0.5100	 8.5000
 0.5110	 8.6360
 0.5120	 8.7850
 0.5130	 8.9470
 0.5140	 9.1150
 0.5150	 9.3070
 0.5160	 9.5150
 0.5170	 9.7260
 0.5180	 9.9470
 0.5190	10.1790
 0.5200	10.4180
 0.5210	10.6590
 0.5220	10.9000
 0.5230	11.1420
 0.5240	11.3860
 0.5250	11.6340
 0.5260	11.8660
 0.5270	12.0860
 0.5280	12.3010
 0.5290	12.5010
 0.5300	12.6910
 0.5310	12.8710
 0.5320	13.0380
 0.5330	13.1930
 0.5340	13.3340
 0.5350	13.4590
 0.5360	13.5770
 0.5370	13.6900
 0.5380	13.7940
 0.5390	13.8800
 0.5400	13.9670
 0.5410	14.0510
 0.5420	14.1270
 0.5430	14.1980
 0.5440	14.2630
 0.5450	14.3260
 0.5460	14.3890
 0.5470	14.4450
 0.5480	14.4960
 0.5490	14.5420
 0.5500	14.5770
 0.5510	14.6100
 0.5520	14.6330
 0.5530	14.6370
 0.5540	14.6250
 0.5550	14.5940
 0.5560	14.5450
 0.5570	14.4820
 0.5580	14.4020
 0.5590	14.3110
 0.5600	14.2110
 0.5610	14.0980
 0.5620	13.9800
 0.5630	13.8540
 0.5640	13.7150
 0.5650	13.5660
 0.5660	13.4160
 0.5670	13.2630
 0.5680	13.1010
 0.5690	12.9360
 0.5700	12.7740
 0.5710	12.6140
 0.5720	12.4560
 0.5730	12.3020
 0.5740	12.1560
 0.5750	12.0190
 0.5760	11.8920
 0.5770	11.7670
 0.5780	11.6420
 0.5790	11.5300
 0.5800	11.4270
 0.5810	11.3360
 0.5820	11.2560
 0.5830	11.1790
 0.5840	11.1040
 0.5850	11.0340
 0.5860	10.9690
 0.5870	10.9080
 0.5880	10.8530
 0.5890	10.8050
 0.5900	10.7660
 0.5910	10.7330
 0.5920	10.6990
 0.5930	10.6580
 0.5940	10.6280
 0.5950	10.6020
 0.5960	10.5720
 0.5970	10.5440
 0.5980	10.5130
 0.5990	10.4790
 0.6000	10.4420
 0.6010	10.4050
 0.6020	10.3620
 0.6030	10.3140
 0.6040	10.2680
 0.6050	10.2120
 0.6060	10.1500
 0.6070	10.0880
 0.6080	10.0230
 0.6090	 9.9550
 0.6100	 9.8820
 0.6110	 9.8050
 0.6120	 9.7340
 0.6130	 9.6650
 0.6140	 9.5950
 0.6150	 9.5280
 0.6160	 9.4620
 0.6170	 9.3990
 0.6180	 9.3420
 0.6190	 9.2920
 0.6200	 9.2480
 0.6210	 9.2090
 0.6220	 9.1760
 0.6230	 9.1470
 0.6240	 9.1210
 0.6250	 9.0980
 0.6260	 9.0810
 0.6270	 9.0680
 0.6280	 9.0590
 0.6290	 9.0520
 0.6300	 9.0420
 0.6310	 9.0320
 0.6320	 9.0230
 0.6330	 9.0080
 0.6340	 8.9850
 0.6350	 8.9550
 0.6360	 8.9200
 0.6370	 8.8740
 0.6380	 8.8220
 0.6390	 8.7660
 0.6400	 8.7010
 0.6410	 8.6310
 0.6420	 8.5600
 0.6430	 8.4890
 0.6440	 8.4210
 0.6450	 8.3490
 0.6460	 8.2800
 0.6470	 8.2210
 0.6480	 8.1670
 0.6490	 8.1170
 0.6500	 8.0740
 0.6510	 8.0390
 0.6520	 8.0050
 0.6530	 7.9730
 0.6540	 7.9430
 0.6550	 7.9150
 0.6560	 7.8810
 0.6570	 7.8440
 0.6580	 7.8080
 0.6590	 7.7680
 0.6600	 7.7270
 0.6610	 7.6840
 0.6620	 7.6420
 0.6630	 7.6040
 0.6640	 7.5690
 0.6650	 7.5390
 0.6660	 7.5160
 0.6670	 7.4950
 0.6680	 7.4790
 0.6690	 7.4710
 0.6700	 7.4650
 0.6710	 7.4620
 0.6720	 7.4630
 0.6730	 7.4690
 0.6740	 7.4790
 0.6750	 7.4920
 0.6760	 7.5050
 0.6770	 7.5200
 0.6780	 7.5410
 0.6790	 7.5670
 0.6800	 7.5970
 0.6810	 7.6300
 0.6820	 7.6670
 0.6830	 7.7110
 0.6840	 7.7710
 0.6850	 7.8430
 0.6860	 7.9280
 0.6870	 8.0330
 0.6880	 8.1750
 0.6890	 8.3520
 0.6900	 8.5750
 0.6910	 8.8600
 0.6920	 9.2100
 0.6930	 9.6310
 0.6940	10.1320
 0.6950	10.7210
 0.6960	11.3870
 0.6970	12.1270
 0.6980	12.9350
 0.6990	13.8060
 0.7000	14.7250
 0.7010	15.6790
 0.7020	16.6580
 0.7030	17.6520
 0.7040	18.6500
 0.7050	19.6420
 0.7060	20.6210
 0.7070	21.5900
 0.7080	22.5480
 0.7090	23.4950
 0.7100	24.4150
 0.7110	25.3210
 0.7120	26.2160
 0.7130	27.0930
 0.7140	27.9510
 0.7150	28.7910
 0.7160	29.6130
 0.7170	30.4230
 0.7180	31.2090
 0.7190	31.9750
 0.7200	32.7290
 0.7210	33.4590
 0.7220	34.1690
 0.7230	34.8600
 0.7240	35.5310
 0.7250	36.1710
 0.7260	36.7850
 0.7270	37.3800
 0.7280	37.9580
 0.7290	38.5000
 0.7300	39.0080
 0.7310	39.4930
 0.7320	39.9550
 0.7330	40.4010
 0.7340	40.8290
 0.7350	41.2230
 0.7360	41.5980
 0.7370	41.9480
 0.7380	42.2730
 0.7390	42.5850
 0.7400	42.8730
 0.7410	43.1390
 0.7420	43.3910
 0.7430	43.6250
 0.7440	43.8420
 0.7450	44.0400
 0.7460	44.2220
 0.7470	44.3970
 0.7480	44.5580
 0.7490	44.7000
 0.7500	44.8330
 0.7510	44.9540
 0.7520	45.0610
 0.7530	45.1520
 0.7540	45.2370
 0.7550	45.3190
 0.7560	45.3940
 0.7570	45.4520
 0.7580	45.5140
 0.7590	45.5680
 0.7600	45.6120
 0.7610	45.6620
 0.7620	45.7030
 0.7630	45.7360
 0.7640	45.7680
 0.7650	45.8010
 0.7660	45.8270
 0.7670	45.8450
 0.7680	45.8580
 0.7690	45.8770
 0.7700	45.8910
 0.7710	45.8980
 0.7720	45.9180
 0.7730	45.9320
 0.7740	45.9450
 0.7750	45.9580
 0.7760	45.9580
 0.7770	45.9620
 0.7780	45.9740
 0.7790	45.9910
 0.7800	45.9930
 0.7810	45.9970
 0.7820	46.0060
 0.7830	46.0080
 0.7840	46.0180
 0.7850	46.0270
 0.7860	46.0290
 0.7870	46.0330
 0.7880	46.0350
 0.7890	46.0380
 0.7900	46.0450
 0.7910	46.0530
 0.7920	46.0590
 0.7930	46.0580
 0.7940	46.0460
 0.7950	46.0480
 0.7960	46.0490
 0.7970	46.0440
 0.7980	46.0500
 0.7990	46.0500
 0.8000	46.0460
 0.8010	46.0400
 0.8020	46.0360
 0.8030	46.0340
 0.8040	46.0320
 0.8050	46.0240
 0.8060	46.0230
 0.8070	46.0160
 0.8080	46.0030
 0.8090	46.0040
 0.8100	45.9890
 0.8110	45.9760
 0.8120	45.9750
 0.8130	45.9600
 0.8140	45.9500
 0.8150	45.9440
 0.8160	45.9350
 0.8170	45.9230
 0.8180	45.9130
 0.8190	45.9030
 0.8200	45.8930
 0.8210	45.8790
 0.8220	45.8690
 0.8230	45.8620
 0.8240	45.8470
 0.8250	45.8230
 0.8260	45.8060
 0.8270	45.8000
 0.8280	45.7890
 0.8290	45.7810
 0.8300	45.7740
 0.8310	45.7590
 0.8320	45.7270
 0.8330	45.7110
 0.8340	45.7110
 0.8350	45.7120
 0.8360	45.6940
 0.8370	45.6790
 0.8380	45.6700
 0.8390	45.6580
 0.8400	45.6580
 0.8410	45.6550
 0.8420	45.6430
 0.8430	45.6340
 0.8440	45.6260
 0.8450	45.6200
 0.8460	45.6150
 0.8470	45.6050
 0.8480	45.5900
 0.8490	45.5790
 0.8500	45.5780
 0.8510	45.5820
 0.8520	45.5750
 0.8530	45.5600
 0.8540	45.5500
 0.8550	45.5440
 0.8560	45.5440
 0.8570	45.5420
 0.8580	45.5250
 0.8590	45.5270
 0.8600	45.5270
 0.8610	45.5150
 0.8620	45.5140
 0.8630	45.5170
 0.8640	45.5210
 0.8650	45.5190
 0.8660	45.5060
 0.8670	45.4960
 0.8680	45.4950
 0.8690	45.5000
 0.8700	45.5020
 0.8710	45.4960
 0.8720	45.4880
 0.8730	45.4900
 0.8740	45.4820
 0.8750	45.4730
 0.8760	45.4720
 0.8770	45.4780
 0.8780	45.4850
 0.8790	45.4830
 0.8800	45.4760
 0.8810	45.4780
 0.8820	45.4850
 0.8830	45.4820
 0.8840	45.4660
 0.8850	45.4600
 0.8860	45.4730
 0.8870	45.4840
 0.8880	45.4780
 0.8890	45.4830
 0.8900	45.4840
 0.8910	45.4800
 0.8920	45.4730
 0.8930	45.4630
 0.8940	45.4720
 0.8950	45.4860
 0.8960	45.4760
 0.8970	45.4750
 0.8980	45.4730
 0.8990	45.4660
 0.9000	45.4650
 0.9010	45.4670
 0.9020	45.4640
 0.9030	45.4580
 0.9040	45.4640
 0.9050	45.4630
 0.9060	45.4610
 0.9070	45.4660
 0.9080	45.4690
 0.9090	45.4760
 0.9100	45.4790
 0.9110	45.4760
 0.9120	45.4730
 0.9130	45.4800
 0.9140	45.4840
 0.9150	45.4730
 0.9160	45.4740
 0.9170	45.4670
 0.9180	45.4550
 0.9190	45.4480
 0.9200	45.4460
 0.9210	45.4440
 0.9220	45.4400
 0.9230	45.4400
 0.9240	45.4400
 0.9250	45.4330
 0.9260	45.4180
 0.9270	45.4080
 0.9280	45.4120
 0.9290	45.4050
 0.9300	45.3870
 0.9310	45.3770
 0.9320	45.3810
 0.9330	45.3720
 0.9340	45.3490
 0.9350	45.3410
 0.9360	45.3290
 0.9370	45.3150
 0.9380	45.3000
 0.9390	45.2880
 0.9400	45.2760
 0.9410	45.2500
 0.9420	45.2150
 0.9430	45.2030
 0.9440	45.1790
 0.9450	45.1570
 0.9460	45.1450
 0.9470	45.1160
 0.9480	45.0840
 0.9490	45.0460
 0.9500	45.0060
 0.9510	44.9760
 0.9520	44.9570
 0.9530	44.9280
 0.9540	44.8770
 0.9550	44.8340
 0.9560	44.7910
 0.9570	44.7470
 0.9580	44.7050
 0.9590	44.6960
 0.9600	44.6660
 0.9610	44.6240
 0.9620	44.5950
 0.9630	44.5700
 0.9640	44.5550
 0.9650	44.5450
 0.9660	44.5300
 0.9670	44.5020
 0.9680	44.4890
 0.9690	44.4740
 0.9700	44.4400
 0.9710	44.4360
 0.9720	44.4210
 0.9730	44.4030
 0.9740	44.4030
 0.9750	44.3830
 0.9760	44.3780
 0.9770	44.3810
 0.9780	44.3700
 0.9790	44.3570
 0.9800	44.3540
 0.9810	44.3600
 0.9820	44.3630
 0.9830	44.3550
 0.9840	44.3620
 0.9850	44.3650
 0.9860	44.3380
 0.9870	44.3390
 0.9880	44.3580
 0.9890	44.3730
 0.9900	44.3700
 0.9910	44.3730
 0.9920	44.3890
 0.9930	44.4040
 0.9940	44.4190
 0.9950	44.4340
 0.9960	44.4490
 0.9970	44.4650
 0.9980	44.4800
 0.9990	44.4950
 1.0000	44.5100
 1.0010	44.5260
 1.0020	44.5410
 1.0030	44.5560
 1.0040	44.5710
 1.0050	44.5870
 1.0060	44.6020
 1.0070	44.6170
 1.0080	44.6320
 1.0090	44.6480
 1.0100	44.6480
 1.0110	44.6540
 1.0120	44.6590
 1.0130	44.6650
 1.0140	44.6700
 1.0150	44.6740
 1.0160	44.6780
 1.0170	44.6840
 1.0180	44.6870
 1.0190	44.6900
 1.0200	44.6980
 1.0210	44.7070
 1.0220	44.7130
 1.0230	44.7170
 1.0240	44.7180
 1.0250	44.7240
 1.0260	44.7280
 1.0270	44.7340
 1.0280	44.7460
 1.0290	44.7530
 1.0300	44.7580
 1.0310	44.7620
 1.0320	44.7640
 1.0330	44.7680
 1.0340	44.7730
 1.0350	44.7760
 1.0360	44.7810
 1.0370	44.7870
 1.0380	44.7930
 1.0390	44.8010
 1.0400	44.8040
 1.0410	44.8030
 1.0420	44.8050
 1.0430	44.8010
 1.0440	44.8030
 1.0450	44.8130
 1.0460	44.8150
 1.0470	44.8150
 1.0480	44.8170
 1.0490	44.8160
 1.0500	44.8170
 1.0510	44.8210
 1.0520	44.8250
 1.0530	44.8260
 1.0540	44.8240
 1.0550	44.8240
 1.0560	44.8240
 1.0570	44.8250
 1.0580	44.8280
 1.0590	44.8300
 1.0600	44.8320
 1.0610	44.8310
 1.0620	44.8270
 1.0630	44.8270
 1.0640	44.8280
 1.0650	44.8270
 1.0660	44.8280
 1.0670	44.8270
 1.0680	44.8250
 1.0690	44.8180
 1.0700	44.8140
 1.0710	44.8110
 1.0720	44.8080
 1.0730	44.8080
 1.0740	44.8030
 1.0750	44.7950
 1.0760	44.7900
 1.0770	44.7840
 1.0780	44.7780
 1.0790	44.7740
 1.0800	44.7690
 1.0810	44.7610
 1.0820	44.7550
 1.0830	44.7520
 1.0840	44.7470
 1.0850	44.7420
 1.0860	44.7330
 1.0870	44.7260
 1.0880	44.7180
 1.0890	44.7090
 1.0900	44.6980
 1.0910	44.6910
 1.0920	44.6840
 1.0930	44.6770
 1.0940	44.6740
 1.0950	44.6650
 1.0960	44.6510
 1.0970	44.6400
 1.0980	44.6260
 1.0990	44.6160
 1.1000	44.6110
 1.1010	44.6010
 1.1020	44.5870
 1.1030	44.5760
 1.1040	44.5670
 1.1050	44.5540
 1.1060	44.5440
 1.1070	44.5400
 1.1080	44.5280
 1.1090	44.5110
 1.1100	44.4970
 1.1110	44.4780
 1.1120	44.4630
 1.1130	44.4530
 1.1140	44.4390
 1.1150	44.4260
 1.1160	44.4100
 1.1170	44.3920
 1.1180	44.3720
 1.1190	44.3510
 1.1200	44.3290
 1.1210	44.3070
 1.1220	44.2830
 1.1230	44.2590
 1.1240	44.2330
 1.1250	44.2020
 1.1260	44.1680
 1.1270	44.1320
 1.1280	44.0920
 1.1290	44.0480
 1.1300	44.0030
 1.1310	43.9500
 1.1320	43.8910
 1.1330	43.8300
 1.1340	43.7650
 1.1350	43.6950
 1.1360	43.6210
 1.1370	43.5420
 1.1380	43.4590
 1.1390	43.3750
 1.1400	43.2860
 1.1410	43.1970
 1.1420	43.1090
 1.1430	43.0190
 1.1440	42.9310
 1.1450	42.8440
 1.1460	42.7560
 1.1470	42.6640
 1.1480	42.5790
 1.1490	42.4920
 1.1500	42.4150
 1.1510	42.3420
 1.1520	42.2730
 1.1530	42.2090
 1.1540	42.1490
 1.1550	42.0920
 1.1560	42.0400
 1.1570	41.9950
 1.1580	41.9560
 1.1590	41.9170
 1.1600	41.8800
 1.1610	41.8460
 1.1620	41.8140
 1.1630	41.7870
 1.1640	41.7640
 1.1650	41.7400
 1.1660	41.7180
 1.1670	41.6970
 1.1680	41.6760
 1.1690	41.6570
 1.1700	41.6400
 1.1710	41.6230
 1.1720	41.6080
 1.1730	41.5920
 1.1740	41.5760
 1.1750	41.5580
 1.1760	41.5360
 1.1770	41.5160
 1.1780	41.4950
 1.1790	41.4750
 1.1800	41.4560
 1.1810	41.4370
 1.1820	41.4150
 1.1830	41.3920
 1.1840	41.3690
 1.1850	41.3480
 1.1860	41.3300
 1.1870	41.3120
 1.1880	41.2950
 1.1890	41.2780
 1.1900	41.2630
 1.1910	41.2480
 1.1920	41.2360
 1.1930	41.2260
 1.1940	41.2170
 1.1950	41.2100
 1.1960	41.2050
 1.1970	41.2000
 1.1980	41.1970
 1.1990	41.1960
 1.2000	41.1970
 1.2010	41.2010
 1.2020	41.2050
 1.2030	41.2100
 1.2040	41.2170
 1.2050	41.2220
 1.2060	41.2300
 1.2070	41.2380
 1.2080	41.2460
 1.2090	41.2590
 1.2100	41.2720
 1.2110	41.2870
 1.2120	41.3040
 1.2130	41.3200
 1.2140	41.3340
 1.2150	41.3510
 1.2160	41.3700
 1.2170	41.3910
 1.2180	41.4130
 1.2190	41.4360
 1.2200	41.4580
 1.2210	41.4800
 1.2220	41.5030
 1.2230	41.5260
 1.2240	41.5490
 1.2250	41.5710
 1.2260	41.5920
 1.2270	41.6140
 1.2280	41.6340
 1.2290	41.6530
 1.2300	41.6700
 1.2310	41.6860
 1.2320	41.7040
 1.2330	41.7210
 1.2340	41.7360
 1.2350	41.7500
 1.2360	41.7630
 1.2370	41.7740
 1.2380	41.7850
 1.2390	41.7990
 1.2400	41.8110
 1.2410	41.8210
 1.2420	41.8310
 1.2430	41.8390
 1.2440	41.8470
 1.2450	41.8530
 1.2460	41.8600
 1.2470	41.8670
 1.2480	41.8740
 1.2490	41.8820
 1.2500	41.8880
 1.2510	41.8920
 1.2520	41.8960
 1.2530	41.9000
 1.2540	41.9020
 1.2550	41.9060
 1.2560	41.9090
 1.2570	41.9130
 1.2580	41.9160
 1.2590	41.9170
 1.2600	41.9160
 1.2610	41.9150
 1.2620	41.9130
 1.2630	41.9100
 1.2640	41.9090
 1.2650	41.9070
 1.2660	41.9030
 1.2670	41.8970
 1.2680	41.8930
 1.2690	41.8890
 1.2700	41.8830
 1.2710	41.8790
 1.2720	41.8740
 1.2730	41.8640
 1.2740	41.8540
 1.2750	41.8440
 1.2760	41.8320
 1.2770	41.8240
 1.2780	41.8150
 1.2790	41.8030
 1.2800	41.7930
 1.2810	41.7790
 1.2820	41.7630
 1.2830	41.7490
 1.2840	41.7350
 1.2850	41.7170
 1.2860	41.7010
 1.2870	41.6840
 1.2880	41.6650
 1.2890	41.6420
 1.2900	41.6210
 1.2910	41.5980
 1.2920	41.5730
 1.2930	41.5500
 1.2940	41.5230
 1.2950	41.4940
 1.2960	41.4650
 1.2970	41.4340
 1.2980	41.4010
 1.2990	41.3650
 1.3000	41.3270
 1.3010	41.2870
 1.3020	41.2460
 1.3030	41.2060
 1.3040	41.1640
 1.3050	41.1200
 1.3060	41.0750
 1.3070	41.0290
 1.3080	40.9790
 1.3090	40.9270
 1.3100	40.8720
 1.3110	40.8160
 1.3120	40.7580
 1.3130	40.7010
 1.3140	40.6400
 1.3150	40.5740
 1.3160	40.5080
 1.3170	40.4410
 1.3180	40.3700
 1.3190	40.2970
 1.3200	40.2240
 1.3210	40.1460
 1.3220	40.0670
 1.3230	39.9890
 1.3240	39.9080
 1.3250	39.8250
 1.3260	39.7390
 1.3270	39.6500
 1.3280	39.5620
 1.3290	39.4730
 1.3300	39.3830
 1.3310	39.2910
 1.3320	39.1970
 1.3330	39.1030
 1.3340	39.0070
 1.3350	38.9090
 1.3360	38.8110
 1.3370	38.7120
 1.3380	38.6120
 1.3390	38.5130
 1.3400	38.4120
 1.3410	38.3130
 1.3420	38.2140
 1.3430	38.1140
 1.3440	38.0160
 1.3450	37.9170
 1.3460	37.8170
 1.3470	37.7190
 1.3480	37.6210
 1.3490	37.5230
 1.3500	37.4250
 1.3510	37.3310
 1.3520	37.2350
 1.3530	37.1380
 1.3540	37.0410
 1.3550	36.9420
 1.3560	36.8420
 1.3570	36.7420
 1.3580	36.6410
 1.3590	36.5390
 1.3600	36.4350
 1.3610	36.3290
 1.3620	36.2180
 1.3630	36.1050
 1.3640	35.9860
 1.3650	35.8600
 1.3660	35.7290
 1.3670	35.5920
 1.3680	35.4470
 1.3690	35.2920
 1.3700	35.1290
 1.3710	34.9560
 1.3720	34.7700
 1.3730	34.5710
 1.3740	34.3580
 1.3750	34.1320
 1.3760	33.8880
 1.3770	33.6240
 1.3780	33.3410
 1.3790	33.0390
 1.3800	32.7180
 1.3810	32.3780
 1.3820	32.0220
 1.3830	31.6490
 1.3840	31.2580
 1.3850	30.8500
 1.3860	30.4270
 1.3870	29.9830
 1.3880	29.5350
 1.3890	29.0730
 1.3900	28.6000
 1.3910	28.1270
 1.3920	27.6440
 1.3930	27.1550
 1.3940	26.6680
 1.3950	26.1750
 1.3960	25.6890
 1.3970	25.2100
 1.3980	24.7390
 1.3990	24.2820
 1.4000	23.8350
 1.4010	23.4000
 1.4020	22.9800
 1.4030	22.5720
 1.4040	22.1820
 1.4050	21.8090
 1.4060	21.4520
 1.4070	21.1190
 1.4080	20.8030
 1.4090	20.5030
 1.4100	20.2250
 1.4110	19.9610
 1.4120	19.7150
 1.4130	19.4860
 1.4140	19.2720
 1.4150	19.0750
 1.4160	18.8930
 1.4170	18.7240
 1.4180	18.5690
 1.4190	18.4270
 1.4200	18.2960
 1.4210	18.1760
 1.4220	18.0660
 1.4230	17.9660
 1.4240	17.8750
 1.4250	17.7910
 1.4260	17.7180
 1.4270	17.6500
 1.4280	17.5890
 1.4290	17.5340
 1.4300	17.4850
 1.4310	17.4420
 1.4320	17.4060
 1.4330	17.3740
 1.4340	17.3480
 1.4350	17.3260
 1.4360	17.3080
 1.4370	17.2940
 1.4380	17.2840
 1.4390	17.2770
 1.4400	17.2730
 1.4410	17.2740
 1.4420	17.2780
 1.4430	17.2820
 1.4440	17.2890
 1.4450	17.2970
 1.4460	17.3070
 1.4470	17.3200
 1.4480	17.3350
 1.4490	17.3510
 1.4500	17.3690
 1.4510	17.3880
 1.4520	17.4090
 1.4530	17.4330
 1.4540	17.4560
 1.4550	17.4810
 1.4560	17.5080
 1.4570	17.5370
 1.4580	17.5700
 1.4590	17.6080
 1.4600	17.6500
 1.4610	17.6940
 1.4620	17.7420
 1.4630	17.7950
 1.4640	17.8500
 1.4650	17.9100
 1.4660	17.9760
 1.4670	18.0450
 1.4680	18.1190
 1.4690	18.1980
