Name: Quercus douglasii 1
Type: vegetation
Class: Tree
Genus: Quercus
Species: douglasii
Sample No.: VH170
Owner: UCSB
Wavelength Range: TIR
Origin: 34.7153; -120.0598; WGS84
Collection Date: 6/9/2013
Description: Samples were collected as part of the HyspIRI Airborne Campaign. 48 individual plants were sampled in three times in 2013 - spring  summer  and fall. The name of the sample includes a 1  2  or 3 which references a different individual of the species. Samples were taken to JPL and processed within 48 hours of collection. The same leaves were processed in the Nicolet and then measured using the ASD.
Measurement: Hemispherical reflectance
First Column: X
Second Column: Y
X Units: Wavelength (micrometers)
Y Units: Reflectance (percentage)
First X Value: 2.501
Last X Value: 15.387
Number of X Values: 1737
Additional Information: vegetation.tree.quercus.douglasii.tir.vh170.ucsb.nicolet.ancillary.txt

 2.5010	 7.1700
 2.5030	 7.0740
 2.5040	 6.7070
 2.5050	 6.7520
 2.5060	 7.0690
 2.5070	 6.9570
 2.5090	 6.7340
 2.5100	 6.7830
 2.5110	 6.8840
 2.5120	 6.6990
 2.5140	 6.7590
 2.5150	 6.7590
 2.5160	 6.8440
 2.5170	 6.8670
 2.5180	 6.8320
 2.5200	 6.8350
 2.5210	 7.0130
 2.5220	 7.0680
 2.5230	 7.0520
 2.5250	 6.9560
 2.5260	 6.9470
 2.5270	 6.7420
 2.5280	 6.7740
 2.5290	 6.8620
 2.5310	 6.8810
 2.5320	 6.8920
 2.5330	 6.9520
 2.5340	 6.8760
 2.5360	 6.7770
 2.5370	 6.8500
 2.5380	 6.9300
 2.5390	 6.8050
 2.5410	 6.9590
 2.5420	 6.9650
 2.5430	 6.8000
 2.5440	 6.7010
 2.5460	 6.8130
 2.5470	 6.9600
 2.5480	 7.1040
 2.5490	 6.9740
 2.5510	 6.8060
 2.5520	 6.7230
 2.5530	 6.8100
 2.5540	 6.8120
 2.5560	 6.8790
 2.5570	 6.9120
 2.5580	 6.9440
 2.5590	 6.9510
 2.5610	 7.0110
 2.5620	 7.0120
 2.5630	 7.0820
 2.5640	 7.0240
 2.5660	 6.8940
 2.5670	 6.9040
 2.5680	 6.9990
 2.5700	 6.9760
 2.5710	 7.0210
 2.5720	 6.9290
 2.5730	 6.8800
 2.5750	 6.8770
 2.5760	 6.9400
 2.5770	 6.6950
 2.5790	 6.6280
 2.5800	 6.6850
 2.5810	 6.8580
 2.5820	 6.8790
 2.5840	 6.8660
 2.5850	 6.9050
 2.5860	 6.9220
 2.5880	 6.8750
 2.5890	 7.1540
 2.5900	 7.1460
 2.5910	 6.9210
 2.5930	 7.0550
 2.5940	 7.0190
 2.5950	 6.8330
 2.5970	 6.9770
 2.5980	 7.0260
 2.5990	 6.9720
 2.6000	 6.8670
 2.6020	 6.7840
 2.6030	 6.7880
 2.6040	 6.8170
 2.6060	 6.8070
 2.6070	 6.7820
 2.6080	 6.5590
 2.6100	 6.6140
 2.6110	 6.7160
 2.6120	 6.6690
 2.6140	 6.6710
 2.6150	 6.8530
 2.6160	 6.7610
 2.6180	 6.5400
 2.6190	 6.2810
 2.6200	 6.4410
 2.6220	 6.4470
 2.6230	 6.3540
 2.6240	 6.2790
 2.6260	 6.3350
 2.6270	 6.3200
 2.6280	 6.3530
 2.6300	 6.2170
 2.6310	 6.1510
 2.6320	 6.2280
 2.6340	 6.2240
 2.6350	 6.1090
 2.6360	 6.0950
 2.6380	 6.1620
 2.6390	 6.2290
 2.6400	 6.0850
 2.6420	 6.1010
 2.6430	 6.0700
 2.6440	 6.0870
 2.6460	 6.0440
 2.6470	 5.9770
 2.6480	 5.8440
 2.6500	 5.8650
 2.6510	 5.7840
 2.6520	 5.8840
 2.6540	 5.8760
 2.6550	 5.7520
 2.6560	 5.6680
 2.6580	 5.7660
 2.6590	 5.9400
 2.6610	 5.8610
 2.6620	 5.7530
 2.6630	 5.8430
 2.6650	 5.9650
 2.6660	 5.8460
 2.6670	 5.5980
 2.6690	 5.6210
 2.6700	 5.6880
 2.6720	 5.6380
 2.6730	 5.4260
 2.6740	 5.5140
 2.6760	 5.5430
 2.6770	 5.3540
 2.6780	 5.3680
 2.6800	 5.6010
 2.6810	 5.5380
 2.6830	 5.4040
 2.6840	 5.2080
 2.6850	 5.3460
 2.6870	 5.3930
 2.6880	 5.4320
 2.6900	 5.3080
 2.6910	 5.1550
 2.6920	 5.1220
 2.6940	 5.3250
 2.6950	 5.1090
 2.6970	 4.9880
 2.6980	 4.9740
 2.6990	 5.0630
 2.7010	 5.1870
 2.7020	 5.1600
 2.7040	 4.8680
 2.7050	 4.7350
 2.7060	 4.6420
 2.7080	 4.6630
 2.7090	 4.7100
 2.7110	 4.7840
 2.7120	 4.6560
 2.7130	 4.5580
 2.7150	 4.4350
 2.7160	 4.4100
 2.7180	 4.3700
 2.7190	 4.5540
 2.7210	 4.5780
 2.7220	 4.4470
 2.7230	 4.2090
 2.7250	 4.0920
 2.7260	 4.0820
 2.7280	 4.1860
 2.7290	 3.9950
 2.7310	 3.7130
 2.7320	 3.6200
 2.7330	 3.8860
 2.7350	 3.7850
 2.7360	 3.7200
 2.7380	 3.8090
 2.7390	 3.8090
 2.7410	 3.9420
 2.7420	 3.9460
 2.7440	 3.6580
 2.7450	 3.5960
 2.7470	 3.2640
 2.7480	 3.1820
 2.7490	 3.4740
 2.7510	 3.7000
 2.7520	 3.4810
 2.7540	 3.3340
 2.7550	 3.1790
 2.7570	 3.4670
 2.7580	 3.5210
 2.7600	 3.1980
 2.7610	 3.2810
 2.7630	 3.3380
 2.7640	 3.2560
 2.7660	 3.2690
 2.7670	 3.2690
 2.7680	 3.4390
 2.7700	 3.2460
 2.7710	 3.0200
 2.7730	 3.1120
 2.7740	 3.2870
 2.7760	 3.2080
 2.7770	 3.1230
 2.7790	 2.9200
 2.7800	 2.8800
 2.7820	 2.9590
 2.7830	 2.9720
 2.7850	 3.0530
 2.7860	 3.2140
 2.7880	 3.0160
 2.7890	 2.7170
 2.7910	 2.6910
 2.7920	 2.9300
 2.7940	 3.2130
 2.7950	 3.5100
 2.7970	 3.1020
 2.7980	 2.6700
 2.8000	 2.7900
 2.8010	 3.0680
 2.8030	 2.9000
 2.8040	 2.7330
 2.8060	 2.4710
 2.8070	 2.3290
 2.8090	 2.4100
 2.8110	 2.5520
 2.8120	 2.4830
 2.8140	 2.6570
 2.8150	 2.6390
 2.8170	 2.5630
 2.8180	 2.4900
 2.8200	 2.6830
 2.8210	 2.8640
 2.8230	 2.6530
 2.8240	 2.4410
 2.8260	 2.5910
 2.8270	 2.6150
 2.8290	 2.4910
 2.8300	 2.4290
 2.8320	 2.7640
 2.8340	 2.9540
 2.8350	 2.8100
 2.8370	 2.5540
 2.8380	 2.6420
 2.8400	 2.6290
 2.8410	 2.4980
 2.8430	 2.4670
 2.8440	 2.5800
 2.8460	 2.6100
 2.8480	 2.8020
 2.8490	 2.7640
 2.8510	 2.7420
 2.8520	 2.5120
 2.8540	 2.5250
 2.8550	 2.7130
 2.8570	 2.6570
 2.8590	 2.4690
 2.8600	 2.5690
 2.8620	 2.6530
 2.8630	 2.6990
 2.8650	 2.7420
 2.8660	 2.9020
 2.8680	 2.7230
 2.8700	 2.5700
 2.8710	 2.6970
 2.8730	 2.7630
 2.8740	 2.6570
 2.8760	 2.4020
 2.8780	 2.2360
 2.8790	 2.0640
 2.8810	 2.2460
 2.8820	 2.7390
 2.8840	 2.5920
 2.8860	 2.7290
 2.8870	 2.5600
 2.8890	 2.4860
 2.8900	 2.6470
 2.8920	 2.6410
 2.8940	 2.4100
 2.8950	 2.5090
 2.8970	 2.5060
 2.8980	 2.4790
 2.9000	 2.4060
 2.9020	 2.3350
 2.9030	 2.5600
 2.9050	 2.7960
 2.9070	 2.6940
 2.9080	 2.7040
 2.9100	 2.7170
 2.9120	 2.6600
 2.9130	 2.5010
 2.9150	 2.4850
 2.9160	 2.4280
 2.9180	 2.4280
 2.9200	 2.5620
 2.9210	 2.7370
 2.9230	 2.6940
 2.9250	 2.5610
 2.9260	 2.5390
 2.9280	 2.6600
 2.9300	 2.5400
 2.9310	 2.5040
 2.9330	 2.6030
 2.9350	 2.6670
 2.9360	 2.6280
 2.9380	 2.8280
 2.9400	 2.7170
 2.9410	 2.3760
 2.9430	 2.3640
 2.9450	 2.5440
 2.9460	 2.5670
 2.9480	 2.9260
 2.9500	 2.9970
 2.9510	 2.7610
 2.9530	 2.7190
 2.9550	 3.2370
 2.9560	 3.3170
 2.9580	 2.9360
 2.9600	 2.7830
 2.9610	 2.6760
 2.9630	 2.7310
 2.9650	 2.1710
 2.9660	 2.4060
 2.9680	 3.5350
 2.9700	 3.8910
 2.9720	 2.7360
 2.9730	 1.0600
 2.9750	 2.3530
 2.9770	 4.0880
 2.9780	 3.3670
 2.9800	 2.7030
 2.9820	 3.4870
 2.9840	 4.0510
 2.9850	 4.3960
 2.9870	 3.7370
 2.9890	 2.6520
 2.9900	 0.9920
 2.9920	 -0.509
 2.9940	 0.3880
 2.9960	 0.7120
 2.9970	 0.2300
 2.9990	 1.4870
 3.0010	 2.0160
 3.0030	 2.0980
 3.0040	 2.3930
 3.0060	 2.4540
 3.0080	 2.4560
 3.0100	 3.3780
 3.0110	 3.2610
 3.0130	 1.9520
 3.0150	 2.0630
 3.0170	 3.0500
 3.0180	 3.1170
 3.0200	 2.4830
 3.0220	 2.3430
 3.0240	 2.4520
 3.0250	 2.5720
 3.0270	 2.5800
 3.0290	 2.3930
 3.0310	 2.1350
 3.0320	 2.1730
 3.0340	 2.5090
 3.0360	 3.6880
 3.0380	 3.6610
 3.0400	 1.9370
 3.0410	 -0.489
 3.0430	 -1.379
 3.0450	 0.1750
 3.0470	 -0.224
 3.0480	 -0.252
 3.0500	 3.6450
 3.0520	 2.5750
 3.0540	 2.8510
 3.0560	 3.9750
 3.0570	 2.8870
 3.0590	 1.5640
 3.0610	 2.0200
 3.0630	 3.8020
 3.0650	 4.2650
 3.0660	 2.6310
 3.0680	 1.8760
 3.0700	 3.4080
 3.0720	 3.2530
 3.0740	 2.8280
 3.0760	 2.8900
 3.0770	 3.2590
 3.0790	 2.8460
 3.0810	 2.7260
 3.0830	 2.7030
 3.0850	 2.6830
 3.0870	 2.7320
 3.0880	 3.1060
 3.0900	 3.0360
 3.0920	 2.8840
 3.0940	 2.7780
 3.0960	 2.6820
 3.0980	 2.6390
 3.0990	 2.9830
 3.1010	 3.2350
 3.1030	 3.1200
 3.1050	 2.6950
 3.1070	 2.4040
 3.1090	 2.4390
 3.1110	 3.0460
 3.1120	 3.3900
 3.1140	 3.3170
 3.1160	 2.9510
 3.1180	 3.1430
 3.1200	 3.6230
 3.1220	 3.4600
 3.1240	 2.9630
 3.1260	 2.6000
 3.1270	 2.6340
 3.1290	 2.7040
 3.1310	 2.5620
 3.1330	 2.7190
 3.1350	 2.9040
 3.1370	 3.7870
 3.1390	 3.9210
 3.1410	 3.9050
 3.1430	 3.5140
 3.1450	 2.8440
 3.1460	 3.0040
 3.1480	 3.5680
 3.1500	 2.6350
 3.1520	 2.5280
 3.1540	 3.4750
 3.1560	 3.8110
 3.1580	 2.9570
 3.1600	 2.7450
 3.1620	 2.7780
 3.1640	 2.8770
 3.1660	 2.6390
 3.1680	 3.3940
 3.1700	 2.4940
 3.1710	 1.9660
 3.1730	 2.0600
 3.1750	 1.9400
 3.1770	 1.8330
 3.1790	 2.3830
 3.1810	 2.7550
 3.1830	 2.5910
 3.1850	 3.0770
 3.1870	 3.3420
 3.1890	 3.2000
 3.1910	 3.1590
 3.1930	 3.1970
 3.1950	 3.3070
 3.1970	 3.0680
 3.1990	 2.9280
 3.2010	 3.0420
 3.2030	 3.1280
 3.2050	 3.0500
 3.2070	 3.2010
 3.2090	 3.2010
 3.2110	 3.1460
 3.2130	 3.1800
 3.2150	 3.2450
 3.2170	 3.0910
 3.2190	 3.1530
 3.2210	 3.2870
 3.2230	 3.2000
 3.2250	 3.2020
 3.2270	 3.2970
 3.2290	 3.2740
 3.2310	 3.0500
 3.2330	 3.1640
 3.2350	 3.5500
 3.2370	 3.7570
 3.2390	 3.6370
 3.2410	 3.1650
 3.2430	 3.0900
 3.2450	 3.0400
 3.2470	 3.1080
 3.2490	 3.2470
 3.2510	 3.5370
 3.2530	 3.6710
 3.2550	 3.4120
 3.2570	 3.1870
 3.2590	 3.0310
 3.2610	 2.9800
 3.2630	 3.2340
 3.2650	 3.3430
 3.2670	 3.6010
 3.2690	 3.2860
 3.2720	 3.2630
 3.2740	 3.5000
 3.2760	 3.4880
 3.2780	 3.5370
 3.2800	 3.4070
 3.2820	 3.3340
 3.2840	 3.3760
 3.2860	 3.5470
 3.2880	 3.7420
 3.2900	 3.6120
 3.2920	 3.5170
 3.2940	 3.3660
 3.2960	 3.2560
 3.2990	 3.2340
 3.3010	 3.3570
 3.3030	 3.4620
 3.3050	 3.5940
 3.3070	 3.6280
 3.3090	 4.0200
 3.3110	 3.9410
 3.3130	 3.7020
 3.3150	 3.3900
 3.3180	 3.4980
 3.3200	 3.8910
 3.3220	 3.9270
 3.3240	 3.7450
 3.3260	 3.7640
 3.3280	 3.6030
 3.3300	 3.5740
 3.3330	 3.5890
 3.3350	 3.4870
 3.3370	 3.3350
 3.3390	 3.4300
 3.3410	 3.2660
 3.3430	 3.2990
 3.3450	 3.5270
 3.3480	 3.6010
 3.3500	 3.3400
 3.3520	 3.3570
 3.3540	 3.4700
 3.3560	 3.5660
 3.3580	 3.5720
 3.3610	 3.5450
 3.3630	 3.4270
 3.3650	 3.3040
 3.3670	 3.2990
 3.3690	 3.2460
 3.3720	 3.3540
 3.3740	 3.5580
 3.3760	 3.7030
 3.3780	 3.6240
 3.3800	 3.2430
 3.3830	 3.0940
 3.3850	 2.9540
 3.3870	 3.0000
 3.3890	 3.1730
 3.3910	 3.3010
 3.3940	 3.0310
 3.3960	 2.7210
 3.3980	 2.8780
 3.4000	 3.1710
 3.4020	 2.9520
 3.4050	 2.9740
 3.4070	 3.0710
 3.4090	 3.1030
 3.4110	 3.2630
 3.4140	 3.5090
 3.4160	 3.5990
 3.4180	 3.7450
 3.4200	 3.8860
 3.4230	 4.1200
 3.4250	 4.2630
 3.4270	 4.3020
 3.4290	 4.1870
 3.4320	 3.9090
 3.4340	 3.8520
 3.4360	 3.9850
 3.4390	 3.8520
 3.4410	 3.7400
 3.4430	 3.7950
 3.4450	 3.6630
 3.4480	 3.5090
 3.4500	 3.4220
 3.4520	 2.8170
 3.4550	 2.7650
 3.4570	 3.2670
 3.4590	 3.6210
 3.4620	 3.5380
 3.4640	 3.6220
 3.4660	 3.6210
 3.4680	 3.4290
 3.4710	 3.3730
 3.4730	 3.5540
 3.4750	 3.5750
 3.4780	 3.5680
 3.4800	 3.4820
 3.4820	 3.4800
 3.4850	 3.3520
 3.4870	 3.3220
 3.4890	 3.4250
 3.4920	 3.4350
 3.4940	 3.4030
 3.4970	 3.3230
 3.4990	 3.3380
 3.5010	 3.6920
 3.5040	 3.7600
 3.5060	 3.8780
 3.5080	 4.2020
 3.5110	 4.4680
 3.5130	 4.6350
 3.5160	 4.6170
 3.5180	 4.2190
 3.5200	 3.9920
 3.5230	 4.0440
 3.5250	 4.3120
 3.5270	 4.4350
 3.5300	 4.2950
 3.5320	 4.1200
 3.5350	 4.2200
 3.5370	 4.2800
 3.5400	 4.3950
 3.5420	 4.3600
 3.5440	 4.2640
 3.5470	 4.1120
 3.5490	 4.1790
 3.5520	 4.3890
 3.5540	 4.4610
 3.5570	 4.3390
 3.5590	 4.2530
 3.5610	 4.2930
 3.5640	 4.4260
 3.5660	 4.4320
 3.5690	 4.4020
 3.5710	 4.4450
 3.5740	 4.4950
 3.5760	 4.3760
 3.5790	 4.3330
 3.5810	 4.3540
 3.5840	 4.5820
 3.5860	 4.5220
 3.5890	 4.4640
 3.5910	 4.3610
 3.5930	 4.4930
 3.5960	 4.5570
 3.5980	 4.3480
 3.6010	 4.1960
 3.6030	 4.2010
 3.6060	 4.1700
 3.6080	 4.2850
 3.6110	 4.4570
 3.6140	 4.4090
 3.6160	 4.3720
 3.6190	 4.4660
 3.6210	 4.4950
 3.6240	 4.4020
 3.6260	 4.3190
 3.6290	 4.1950
 3.6310	 4.1190
 3.6340	 4.4750
 3.6360	 4.6330
 3.6390	 4.4420
 3.6410	 4.3100
 3.6440	 4.3020
 3.6470	 4.4200
 3.6490	 4.5550
 3.6520	 4.4780
 3.6540	 4.4300
 3.6570	 4.4990
 3.6590	 4.5320
 3.6620	 4.5390
 3.6650	 4.5530
 3.6670	 4.5180
 3.6700	 4.5500
 3.6720	 4.5920
 3.6750	 4.5520
 3.6780	 4.4760
 3.6800	 4.4900
 3.6830	 4.5040
 3.6850	 4.5100
 3.6880	 4.5240
 3.6910	 4.5920
 3.6930	 4.5650
 3.6960	 4.6090
 3.6990	 4.5850
 3.7010	 4.6000
 3.7040	 4.5250
 3.7060	 4.5050
 3.7090	 4.4950
 3.7120	 4.6230
 3.7140	 4.6000
 3.7170	 4.4840
 3.7200	 4.5180
 3.7220	 4.6250
 3.7250	 4.7820
 3.7280	 4.9370
 3.7300	 4.8300
 3.7330	 4.6980
 3.7360	 4.7320
 3.7390	 4.8060
 3.7410	 4.7780
 3.7440	 4.8130
 3.7470	 4.7490
 3.7490	 4.6620
 3.7520	 4.5460
 3.7550	 4.6210
 3.7580	 4.6650
 3.7600	 4.6440
 3.7630	 4.6100
 3.7660	 4.6300
 3.7680	 4.5230
 3.7710	 4.5890
 3.7740	 4.6050
 3.7770	 4.6130
 3.7790	 4.7180
 3.7820	 4.7220
 3.7850	 4.6810
 3.7880	 4.7940
 3.7900	 4.8610
 3.7930	 4.8990
 3.7960	 4.8230
 3.7990	 4.7250
 3.8020	 4.7220
 3.8040	 4.8160
 3.8070	 4.6850
 3.8100	 4.7010
 3.8130	 4.7440
 3.8160	 4.7800
 3.8180	 4.6890
 3.8210	 4.7500
 3.8240	 4.6850
 3.8270	 4.7070
 3.8300	 4.9110
 3.8330	 5.0080
 3.8350	 4.8950
 3.8380	 4.6770
 3.8410	 4.5960
 3.8440	 4.8280
 3.8470	 5.0090
 3.8500	 5.0150
 3.8520	 4.8930
 3.8550	 4.8920
 3.8580	 4.9650
 3.8610	 4.9810
 3.8640	 4.9160
 3.8670	 4.8750
 3.8700	 4.8060
 3.8730	 4.8780
 3.8750	 4.8870
 3.8780	 4.9110
 3.8810	 4.9250
 3.8840	 4.8770
 3.8870	 4.7770
 3.8900	 4.8680
 3.8930	 4.9210
 3.8960	 4.8080
 3.8990	 4.6990
 3.9020	 4.7510
 3.9050	 4.8060
 3.9080	 4.9170
 3.9110	 4.9060
 3.9140	 4.9450
 3.9160	 4.9560
 3.9190	 4.9040
 3.9220	 4.8300
 3.9250	 4.8560
 3.9280	 4.9420
 3.9310	 4.9800
 3.9340	 4.8880
 3.9370	 4.9040
 3.9400	 4.9300
 3.9430	 4.9840
 3.9460	 5.0120
 3.9490	 4.9180
 3.9520	 4.8300
 3.9550	 4.9150
 3.9580	 4.9450
 3.9610	 4.9950
 3.9640	 4.9910
 3.9670	 5.0320
 3.9700	 5.0850
 3.9730	 5.0580
 3.9770	 4.9820
 3.9800	 5.0110
 3.9830	 4.9660
 3.9860	 5.0150
 3.9890	 5.1620
 3.9920	 5.1290
 3.9950	 4.9100
 3.9980	 4.8960
 4.0010	 4.8800
 4.0040	 4.9690
 4.0070	 4.9380
 4.0100	 4.8890
 4.0130	 4.9850
 4.0170	 5.1200
 4.0200	 5.1060
 4.0230	 5.0290
 4.0260	 5.0210
 4.0290	 5.1630
 4.0320	 5.2110
 4.0350	 5.0860
 4.0380	 4.9960
 4.0420	 5.0890
 4.0450	 5.1710
 4.0480	 5.0940
 4.0510	 5.0920
 4.0540	 5.1890
 4.0570	 5.1800
 4.0610	 5.2120
 4.0640	 5.2270
 4.0670	 5.2190
 4.0700	 5.1720
 4.0730	 5.1310
 4.0770	 5.0500
 4.0800	 5.0550
 4.0830	 5.1060
 4.0860	 5.0620
 4.0890	 4.9480
 4.0930	 5.0150
 4.0960	 5.0860
 4.0990	 5.0690
 4.1020	 5.0050
 4.1060	 5.1570
 4.1090	 5.1830
 4.1120	 5.0390
 4.1150	 5.0180
 4.1190	 5.0930
 4.1220	 5.1860
 4.1250	 5.2110
 4.1280	 5.1850
 4.1320	 5.1820
 4.1350	 5.2890
 4.1380	 5.2870
 4.1420	 5.1910
 4.1450	 5.1210
 4.1480	 5.1440
 4.1520	 5.1830
 4.1550	 5.1380
 4.1580	 5.1500
 4.1620	 5.2100
 4.1650	 5.2130
 4.1680	 5.1830
 4.1720	 5.2650
 4.1750	 5.2600
 4.1780	 5.1680
 4.1820	 5.1690
 4.1850	 5.1540
 4.1890	 5.1020
 4.1920	 5.0680
 4.1950	 5.1450
 4.1990	 5.2830
 4.2020	 5.3440
 4.2060	 5.4970
 4.2090	 5.7300
 4.2120	 5.9420
 4.2160	 5.7150
 4.2190	 5.5900
 4.2230	 5.9320
 4.2260	 6.6230
 4.2300	 6.4740
 4.2330	 6.1250
 4.2360	 5.7800
 4.2400	 5.5140
 4.2430	 5.6010
 4.2470	 5.8130
 4.2500	 5.7770
 4.2540	 5.5870
 4.2570	 5.5150
 4.2610	 5.5200
 4.2640	 5.2480
 4.2680	 5.1050
 4.2710	 5.1630
 4.2750	 5.4190
 4.2780	 5.4890
 4.2820	 5.4490
 4.2850	 5.5740
 4.2890	 5.5820
 4.2930	 5.5470
 4.2960	 5.6420
 4.3000	 5.4620
 4.3030	 5.2840
 4.3070	 5.4490
 4.3100	 5.6080
 4.3140	 5.5310
 4.3180	 5.4620
 4.3210	 5.3510
 4.3250	 5.3150
 4.3280	 5.3330
 4.3320	 5.3310
 4.3360	 5.3020
 4.3390	 5.3150
 4.3430	 5.1980
 4.3470	 5.1710
 4.3500	 5.2240
 4.3540	 5.1020
 4.3570	 5.0630
 4.3610	 5.1650
 4.3650	 5.1740
 4.3680	 5.1430
 4.3720	 5.0480
 4.3760	 5.0710
 4.3800	 5.1070
 4.3830	 5.0140
 4.3870	 4.9480
 4.3910	 5.0520
 4.3940	 5.1480
 4.3980	 5.0890
 4.4020	 4.9820
 4.4060	 5.0240
 4.4090	 4.9730
 4.4130	 4.8970
 4.4170	 5.0040
 4.4210	 5.0040
 4.4240	 4.9300
 4.4280	 4.9430
 4.4320	 4.8780
 4.4360	 4.8710
 4.4400	 4.8960
 4.4430	 4.9370
 4.4470	 5.0830
 4.4510	 5.1170
 4.4550	 5.0020
 4.4590	 4.9420
 4.4620	 4.9570
 4.4660	 5.0310
 4.4700	 5.0620
 4.4740	 5.0730
 4.4780	 5.0080
 4.4820	 4.9480
 4.4860	 4.9160
 4.4900	 4.9340
 4.4930	 4.9240
 4.4970	 4.9720
 4.5010	 5.0350
 4.5050	 4.9810
 4.5090	 4.9340
 4.5130	 5.0180
 4.5170	 5.0120
 4.5210	 5.0010
 4.5250	 4.8940
 4.5290	 4.8750
 4.5330	 5.0170
 4.5370	 4.9920
 4.5410	 4.8910
 4.5450	 4.9230
 4.5490	 4.9270
 4.5530	 4.8420
 4.5570	 4.8970
 4.5610	 4.9240
 4.5650	 4.8550
 4.5690	 4.8800
 4.5730	 4.8120
 4.5770	 4.8270
 4.5810	 4.8970
 4.5850	 4.8540
 4.5890	 4.7500
 4.5930	 4.7520
 4.5970	 4.8050
 4.6010	 4.7100
 4.6050	 4.7910
 4.6090	 4.9900
 4.6130	 4.8100
 4.6170	 4.7080
 4.6220	 4.8180
 4.6260	 4.7090
 4.6300	 4.6800
 4.6340	 4.7740
 4.6380	 4.7480
 4.6420	 4.8310
 4.6460	 4.8790
 4.6510	 4.8390
 4.6550	 4.7490
 4.6590	 4.6300
 4.6630	 4.6210
 4.6670	 4.6850
 4.6720	 4.7180
 4.6760	 4.6920
 4.6800	 4.7180
 4.6840	 4.7750
 4.6880	 4.7490
 4.6930	 4.7580
 4.6970	 4.8070
 4.7010	 4.7870
 4.7050	 4.7180
 4.7100	 4.7620
 4.7140	 4.7390
 4.7180	 4.7280
 4.7230	 4.7530
 4.7270	 4.8450
 4.7310	 4.8820
 4.7360	 4.8600
 4.7400	 4.8570
 4.7440	 4.8310
 4.7490	 4.7800
 4.7530	 4.7770
 4.7570	 4.8410
 4.7620	 4.8510
 4.7660	 4.8870
 4.7700	 4.8760
 4.7750	 4.8340
 4.7790	 5.0140
 4.7840	 5.1200
 4.7880	 4.8000
 4.7920	 4.4640
 4.7970	 4.7650
 4.8010	 4.9760
 4.8060	 4.7270
 4.8100	 4.6850
 4.8150	 4.8110
 4.8190	 4.7910
 4.8240	 4.7880
 4.8280	 4.7960
 4.8330	 4.7690
 4.8370	 4.7490
 4.8420	 4.6740
 4.8460	 4.6220
 4.8510	 4.7390
 4.8550	 4.8260
 4.8600	 4.8390
 4.8640	 4.7950
 4.8690	 4.7230
 4.8730	 4.8030
 4.8780	 4.8660
 4.8830	 4.9120
 4.8870	 4.8450
 4.8920	 4.7510
 4.8960	 4.7410
 4.9010	 4.7600
 4.9060	 4.7970
 4.9100	 4.8950
 4.9150	 4.8480
 4.9200	 4.7930
 4.9240	 4.8240
 4.9290	 4.7740
 4.9340	 4.7240
 4.9380	 4.7530
 4.9430	 4.8090
 4.9480	 4.8310
 4.9530	 4.8760
 4.9570	 4.8540
 4.9620	 4.7760
 4.9670	 4.7850
 4.9720	 4.8190
 4.9760	 4.8370
 4.9810	 4.8460
 4.9860	 4.8830
 4.9910	 4.8550
 4.9960	 4.7340
 5.0000	 4.7070
 5.0050	 4.8460
 5.0100	 4.9130
 5.0150	 4.8130
 5.0200	 4.8150
 5.0250	 4.7800
 5.0290	 4.8580
 5.0340	 4.9630
 5.0390	 4.9720
 5.0440	 5.0520
 5.0490	 4.9940
 5.0540	 4.9470
 5.0590	 4.8740
 5.0640	 4.8620
 5.0690	 4.9010
 5.0740	 4.9110
 5.0790	 4.8660
 5.0840	 4.8500
 5.0890	 4.8360
 5.0940	 4.8690
 5.0990	 4.9650
 5.1040	 4.8980
 5.1090	 4.6950
 5.1140	 4.7160
 5.1190	 4.7630
 5.1240	 4.8230
 5.1290	 4.8710
 5.1340	 4.7630
 5.1390	 4.7240
 5.1440	 4.8500
 5.1490	 4.9030
 5.1540	 4.8720
 5.1600	 4.7680
 5.1650	 4.8500
 5.1700	 4.9050
 5.1750	 4.8760
 5.1800	 4.8490
 5.1850	 4.8690
 5.1910	 4.8810
 5.1960	 4.9110
 5.2010	 4.9700
 5.2060	 5.0240
 5.2110	 4.9280
 5.2170	 4.8330
 5.2220	 4.8040
 5.2270	 4.8090
 5.2320	 4.8020
 5.2380	 4.8430
 5.2430	 4.8760
 5.2480	 4.8680
 5.2540	 4.7550
 5.2590	 4.7120
 5.2640	 4.7610
 5.2700	 4.8500
 5.2750	 4.8760
 5.2800	 4.8050
 5.2860	 4.7890
 5.2910	 4.7740
 5.2970	 4.7160
 5.3020	 4.7930
 5.3070	 4.7170
 5.3130	 4.6530
 5.3180	 4.6550
 5.3240	 4.6230
 5.3290	 4.6010
 5.3350	 4.7790
 5.3400	 4.8570
 5.3460	 4.8140
 5.3510	 4.8010
 5.3570	 4.8610
 5.3620	 4.7370
 5.3680	 4.6520
 5.3730	 4.7010
 5.3790	 4.6970
 5.3850	 4.7240
 5.3900	 4.7700
 5.3960	 4.7840
 5.4010	 4.7820
 5.4070	 4.6910
 5.4130	 4.6850
 5.4180	 4.7610
 5.4240	 4.7170
 5.4300	 4.5460
 5.4350	 4.5750
 5.4410	 4.5680
