Name: Bambusa beecheyana
Type: vegetation
Class: Tree
Genus: Bambusa
Species: beecheyana
Sample No.: JPL245
Owner: JPL
Wavelength Range: VSWIR
Origin: 34.12536; -118.11136; WGS84
Collection Date: 10/6/2016
Description: Samples were collected at the Huntington Garden in San Marino California as part of a JPL Subcontract studying HyTES imagery. Samples were taken to JPL and processed within 48 hours of collection. The same leaves were processed in the Nicolet and then measured using the ASD.
Measurement: Bidirectional reflectance
First Column: X
Second Column: Y
X Units: Wavelength (micrometer)
Y Units: Reflectance (percentage)
First X Value: 0.35
Last X Value: 2.5
Number of X Values: 2151
Additional Information: vegetation.tree.bambusa.beecheyana.vswir.jpl245.jpl.asd.ancillary.txt

 0.3500	 7.3930
 0.3510	 7.2860
 0.3520	 7.2660
 0.3530	 7.3160
 0.3540	 7.3990
 0.3550	 7.4040
 0.3560	 7.3840
 0.3570	 7.3370
 0.3580	 7.2420
 0.3590	 7.1720
 0.3600	 7.1710
 0.3610	 7.2290
 0.3620	 7.2800
 0.3630	 7.2520
 0.3640	 7.1880
 0.3650	 7.1580
 0.3660	 7.1840
 0.3670	 7.2160
 0.3680	 7.2230
 0.3690	 7.1950
 0.3700	 7.2010
 0.3710	 7.2070
 0.3720	 7.1920
 0.3730	 7.1890
 0.3740	 7.1830
 0.3750	 7.1410
 0.3760	 7.0640
 0.3770	 7.1280
 0.3780	 7.1790
 0.3790	 7.1700
 0.3800	 7.1590
 0.3810	 7.1930
 0.3820	 7.2060
 0.3830	 7.1730
 0.3840	 7.2080
 0.3850	 7.2010
 0.3860	 7.1630
 0.3870	 7.1500
 0.3880	 7.1960
 0.3890	 7.2430
 0.3900	 7.2620
 0.3910	 7.2530
 0.3920	 7.2220
 0.3930	 7.2190
 0.3940	 7.2680
 0.3950	 7.2980
 0.3960	 7.2930
 0.3970	 7.2740
 0.3980	 7.2730
 0.3990	 7.2890
 0.4000	 7.3140
 0.4010	 7.3260
 0.4020	 7.2870
 0.4030	 7.3100
 0.4040	 7.3450
 0.4050	 7.3330
 0.4060	 7.3250
 0.4070	 7.3410
 0.4080	 7.3600
 0.4090	 7.3460
 0.4100	 7.3830
 0.4110	 7.4110
 0.4120	 7.4020
 0.4130	 7.4240
 0.4140	 7.4270
 0.4150	 7.4220
 0.4160	 7.4330
 0.4170	 7.4400
 0.4180	 7.4460
 0.4190	 7.4510
 0.4200	 7.4540
 0.4210	 7.4650
 0.4220	 7.4710
 0.4230	 7.4660
 0.4240	 7.4760
 0.4250	 7.4760
 0.4260	 7.4670
 0.4270	 7.4650
 0.4280	 7.4710
 0.4290	 7.4760
 0.4300	 7.4710
 0.4310	 7.4510
 0.4320	 7.4400
 0.4330	 7.4340
 0.4340	 7.4220
 0.4350	 7.4110
 0.4360	 7.4020
 0.4370	 7.4030
 0.4380	 7.4240
 0.4390	 7.4420
 0.4400	 7.4530
 0.4410	 7.4610
 0.4420	 7.4740
 0.4430	 7.4810
 0.4440	 7.4840
 0.4450	 7.4870
 0.4460	 7.4860
 0.4470	 7.4860
 0.4480	 7.4900
 0.4490	 7.4980
 0.4500	 7.5030
 0.4510	 7.5090
 0.4520	 7.5180
 0.4530	 7.5140
 0.4540	 7.5080
 0.4550	 7.5080
 0.4560	 7.5160
 0.4570	 7.5270
 0.4580	 7.5350
 0.4590	 7.5370
 0.4600	 7.5350
 0.4610	 7.5350
 0.4620	 7.5330
 0.4630	 7.5240
 0.4640	 7.5240
 0.4650	 7.5270
 0.4660	 7.5290
 0.4670	 7.5290
 0.4680	 7.5270
 0.4690	 7.5260
 0.4700	 7.5280
 0.4710	 7.5240
 0.4720	 7.5180
 0.4730	 7.5180
 0.4740	 7.5260
 0.4750	 7.5290
 0.4760	 7.5290
 0.4770	 7.5280
 0.4780	 7.5290
 0.4790	 7.5270
 0.4800	 7.5280
 0.4810	 7.5330
 0.4820	 7.5270
 0.4830	 7.5230
 0.4840	 7.5240
 0.4850	 7.5230
 0.4860	 7.5160
 0.4870	 7.5160
 0.4880	 7.5280
 0.4890	 7.5380
 0.4900	 7.5440
 0.4910	 7.5490
 0.4920	 7.5560
 0.4930	 7.5710
 0.4940	 7.5880
 0.4950	 7.6050
 0.4960	 7.6250
 0.4970	 7.6450
 0.4980	 7.6710
 0.4990	 7.7040
 0.5000	 7.7350
 0.5010	 7.7690
 0.5020	 7.8090
 0.5030	 7.8520
 0.5040	 7.9010
 0.5050	 7.9550
 0.5060	 8.0150
 0.5070	 8.0870
 0.5080	 8.1640
 0.5090	 8.2490
 0.5100	 8.3460
 0.5110	 8.4550
 0.5120	 8.5730
 0.5130	 8.7000
 0.5140	 8.8420
 0.5150	 8.9990
 0.5160	 9.1660
 0.5170	 9.3420
 0.5180	 9.5310
 0.5190	 9.7300
 0.5200	 9.9370
 0.5210	10.1520
 0.5220	10.3610
 0.5230	10.5700
 0.5240	10.7800
 0.5250	10.9830
 0.5260	11.1770
 0.5270	11.3610
 0.5280	11.5320
 0.5290	11.6920
 0.5300	11.8380
 0.5310	11.9680
 0.5320	12.0820
 0.5330	12.1890
 0.5340	12.2840
 0.5350	12.3650
 0.5360	12.4290
 0.5370	12.4830
 0.5380	12.5310
 0.5390	12.5670
 0.5400	12.5880
 0.5410	12.6010
 0.5420	12.6130
 0.5430	12.6270
 0.5440	12.6450
 0.5450	12.6690
 0.5460	12.6990
 0.5470	12.7310
 0.5480	12.7580
 0.5490	12.7770
 0.5500	12.7850
 0.5510	12.7880
 0.5520	12.7850
 0.5530	12.7730
 0.5540	12.7490
 0.5550	12.7120
 0.5560	12.6600
 0.5570	12.5960
 0.5580	12.5200
 0.5590	12.4340
 0.5600	12.3400
 0.5610	12.2360
 0.5620	12.1230
 0.5630	12.0030
 0.5640	11.8760
 0.5650	11.7470
 0.5660	11.6150
 0.5670	11.4770
 0.5680	11.3350
 0.5690	11.1950
 0.5700	11.0580
 0.5710	10.9250
 0.5720	10.7930
 0.5730	10.6640
 0.5740	10.5430
 0.5750	10.4320
 0.5760	10.3310
 0.5770	10.2370
 0.5780	10.1480
 0.5790	10.0670
 0.5800	 9.9880
 0.5810	 9.9110
 0.5820	 9.8390
 0.5830	 9.7730
 0.5840	 9.7160
 0.5850	 9.6660
 0.5860	 9.6170
 0.5870	 9.5660
 0.5880	 9.5160
 0.5890	 9.4740
 0.5900	 9.4340
 0.5910	 9.3960
 0.5920	 9.3590
 0.5930	 9.3240
 0.5940	 9.2950
 0.5950	 9.2750
 0.5960	 9.2620
 0.5970	 9.2510
 0.5980	 9.2370
 0.5990	 9.2210
 0.6000	 9.2050
 0.6010	 9.1860
 0.6020	 9.1610
 0.6030	 9.1290
 0.6040	 9.0950
 0.6050	 9.0560
 0.6060	 9.0130
 0.6070	 8.9660
 0.6080	 8.9130
 0.6090	 8.8500
 0.6100	 8.7740
 0.6110	 8.6920
 0.6120	 8.6400
 0.6130	 8.6090
 0.6140	 8.5820
 0.6150	 8.5440
 0.6160	 8.5040
 0.6170	 8.4640
 0.6180	 8.4230
 0.6190	 8.3860
 0.6200	 8.3530
 0.6210	 8.3240
 0.6220	 8.3000
 0.6230	 8.2810
 0.6240	 8.2650
 0.6250	 8.2510
 0.6260	 8.2370
 0.6270	 8.2260
 0.6280	 8.2180
 0.6290	 8.2110
 0.6300	 8.1990
 0.6310	 8.1880
 0.6320	 8.1810
 0.6330	 8.1710
 0.6340	 8.1550
 0.6350	 8.1330
 0.6360	 8.1090
 0.6370	 8.0790
 0.6380	 8.0450
 0.6390	 8.0090
 0.6400	 7.9750
 0.6410	 7.9360
 0.6420	 7.8970
 0.6430	 7.8610
 0.6440	 7.8280
 0.6450	 7.7950
 0.6460	 7.7620
 0.6470	 7.7340
 0.6480	 7.7100
 0.6490	 7.6880
 0.6500	 7.6690
 0.6510	 7.6560
 0.6520	 7.6490
 0.6530	 7.6430
 0.6540	 7.6370
 0.6550	 7.6320
 0.6560	 7.6260
 0.6570	 7.6170
 0.6580	 7.6080
 0.6590	 7.5990
 0.6600	 7.5900
 0.6610	 7.5810
 0.6620	 7.5740
 0.6630	 7.5720
 0.6640	 7.5740
 0.6650	 7.5800
 0.6660	 7.5910
 0.6670	 7.6030
 0.6680	 7.6180
 0.6690	 7.6400
 0.6700	 7.6670
 0.6710	 7.6980
 0.6720	 7.7320
 0.6730	 7.7710
 0.6740	 7.8160
 0.6750	 7.8650
 0.6760	 7.9180
 0.6770	 7.9740
 0.6780	 8.0350
 0.6790	 8.1010
 0.6800	 8.1710
 0.6810	 8.2430
 0.6820	 8.3170
 0.6830	 8.3890
 0.6840	 8.4570
 0.6850	 8.5240
 0.6860	 8.5920
 0.6870	 8.6600
 0.6880	 8.7330
 0.6890	 8.8170
 0.6900	 8.9260
 0.6910	 9.0720
 0.6920	 9.2570
 0.6930	 9.4920
 0.6940	 9.7850
 0.6950	10.1460
 0.6960	10.5740
 0.6970	11.0680
 0.6980	11.6230
 0.6990	12.2350
 0.7000	12.8950
 0.7010	13.5950
 0.7020	14.3260
 0.7030	15.0770
 0.7040	15.8410
 0.7050	16.6130
 0.7060	17.3860
 0.7070	18.1630
 0.7080	18.9410
 0.7090	19.7190
 0.7100	20.5000
 0.7110	21.2820
 0.7120	22.0640
 0.7130	22.8470
 0.7140	23.6350
 0.7150	24.4250
 0.7160	25.2150
 0.7170	26.0110
 0.7180	26.8060
 0.7190	27.5980
 0.7200	28.3860
 0.7210	29.1740
 0.7220	29.9570
 0.7230	30.7300
 0.7240	31.4940
 0.7250	32.2470
 0.7260	32.9870
 0.7270	33.7120
 0.7280	34.4200
 0.7290	35.1100
 0.7300	35.7810
 0.7310	36.4300
 0.7320	37.0580
 0.7330	37.6630
 0.7340	38.2420
 0.7350	38.7940
 0.7360	39.3230
 0.7370	39.8260
 0.7380	40.3010
 0.7390	40.7480
 0.7400	41.1680
 0.7410	41.5600
 0.7420	41.9260
 0.7430	42.2660
 0.7440	42.5760
 0.7450	42.8590
 0.7460	43.1180
 0.7470	43.3550
 0.7480	43.5680
 0.7490	43.7590
 0.7500	43.9310
 0.7510	44.0840
 0.7520	44.2190
 0.7530	44.3400
 0.7540	44.4500
 0.7550	44.5470
 0.7560	44.6300
 0.7570	44.7050
 0.7580	44.7710
 0.7590	44.8300
 0.7600	44.8810
 0.7610	44.9250
 0.7620	44.9600
 0.7630	44.9860
 0.7640	45.0070
 0.7650	45.0260
 0.7660	45.0390
 0.7670	45.0470
 0.7680	45.0510
 0.7690	45.0540
 0.7700	45.0530
 0.7710	45.0510
 0.7720	45.0480
 0.7730	45.0430
 0.7740	45.0390
 0.7750	45.0340
 0.7760	45.0300
 0.7770	45.0240
 0.7780	45.0180
 0.7790	45.0140
 0.7800	45.0080
 0.7810	45.0030
 0.7820	44.9990
 0.7830	44.9940
 0.7840	44.9870
 0.7850	44.9790
 0.7860	44.9700
 0.7870	44.9630
 0.7880	44.9580
 0.7890	44.9530
 0.7900	44.9430
 0.7910	44.9320
 0.7920	44.9220
 0.7930	44.9110
 0.7940	44.9020
 0.7950	44.8910
 0.7960	44.8790
 0.7970	44.8650
 0.7980	44.8510
 0.7990	44.8370
 0.8000	44.8230
 0.8010	44.8080
 0.8020	44.7930
 0.8030	44.7760
 0.8040	44.7580
 0.8050	44.7410
 0.8060	44.7260
 0.8070	44.7070
 0.8080	44.6860
 0.8090	44.6670
 0.8100	44.6480
 0.8110	44.6280
 0.8120	44.6070
 0.8130	44.5870
 0.8140	44.5660
 0.8150	44.5440
 0.8160	44.5200
 0.8170	44.4980
 0.8180	44.4790
 0.8190	44.4610
 0.8200	44.4380
 0.8210	44.4170
 0.8220	44.3960
 0.8230	44.3740
 0.8240	44.3510
 0.8250	44.3280
 0.8260	44.3070
 0.8270	44.2880
 0.8280	44.2680
 0.8290	44.2490
 0.8300	44.2300
 0.8310	44.2110
 0.8320	44.1880
 0.8330	44.1680
 0.8340	44.1510
 0.8350	44.1340
 0.8360	44.1180
 0.8370	44.1010
 0.8380	44.0840
 0.8390	44.0690
 0.8400	44.0540
 0.8410	44.0410
 0.8420	44.0300
 0.8430	44.0140
 0.8440	44.0010
 0.8450	43.9920
 0.8460	43.9820
 0.8470	43.9690
 0.8480	43.9600
 0.8490	43.9520
 0.8500	43.9440
 0.8510	43.9360
 0.8520	43.9300
 0.8530	43.9250
 0.8540	43.9180
 0.8550	43.9120
 0.8560	43.9080
 0.8570	43.9050
 0.8580	43.9000
 0.8590	43.8980
 0.8600	43.8960
 0.8610	43.8940
 0.8620	43.8930
 0.8630	43.8940
 0.8640	43.8950
 0.8650	43.8910
 0.8660	43.8910
 0.8670	43.8930
 0.8680	43.8960
 0.8690	43.8990
 0.8700	43.8970
 0.8710	43.8970
 0.8720	43.9030
 0.8730	43.9110
 0.8740	43.9140
 0.8750	43.9160
 0.8760	43.9200
 0.8770	43.9220
 0.8780	43.9280
 0.8790	43.9370
 0.8800	43.9450
 0.8810	43.9510
 0.8820	43.9550
 0.8830	43.9610
 0.8840	43.9680
 0.8850	43.9710
 0.8860	43.9750
 0.8870	43.9820
 0.8880	43.9890
 0.8890	43.9920
 0.8900	43.9990
 0.8910	44.0080
 0.8920	44.0130
 0.8930	44.0180
 0.8940	44.0220
 0.8950	44.0270
 0.8960	44.0350
 0.8970	44.0380
 0.8980	44.0430
 0.8990	44.0510
 0.9000	44.0560
 0.9010	44.0590
 0.9020	44.0660
 0.9030	44.0740
 0.9040	44.0770
 0.9050	44.0740
 0.9060	44.0760
 0.9070	44.0840
 0.9080	44.0890
 0.9090	44.0890
 0.9100	44.0870
 0.9110	44.0890
 0.9120	44.0940
 0.9130	44.1000
 0.9140	44.1040
 0.9150	44.1010
 0.9160	44.1010
 0.9170	44.0980
 0.9180	44.0950
 0.9190	44.0980
 0.9200	44.0970
 0.9210	44.0960
 0.9220	44.0930
 0.9230	44.0860
 0.9240	44.0820
 0.9250	44.0770
 0.9260	44.0700
 0.9270	44.0640
 0.9280	44.0610
 0.9290	44.0560
 0.9300	44.0460
 0.9310	44.0370
 0.9320	44.0290
 0.9330	44.0210
 0.9340	44.0100
 0.9350	43.9950
 0.9360	43.9860
 0.9370	43.9750
 0.9380	43.9580
 0.9390	43.9370
 0.9400	43.9250
 0.9410	43.9160
 0.9420	43.9020
 0.9430	43.8860
 0.9440	43.8650
 0.9450	43.8480
 0.9460	43.8360
 0.9470	43.8100
 0.9480	43.7920
 0.9490	43.7720
 0.9500	43.7420
 0.9510	43.7210
 0.9520	43.7000
 0.9530	43.6770
 0.9540	43.6540
 0.9550	43.6330
 0.9560	43.6050
 0.9570	43.5760
 0.9580	43.5560
 0.9590	43.5360
 0.9600	43.5150
 0.9610	43.4960
 0.9620	43.4770
 0.9630	43.4560
 0.9640	43.4350
 0.9650	43.4150
 0.9660	43.3970
 0.9670	43.3840
 0.9680	43.3790
 0.9690	43.3690
 0.9700	43.3450
 0.9710	43.3320
 0.9720	43.3230
 0.9730	43.3120
 0.9740	43.2970
 0.9750	43.2980
 0.9760	43.2880
 0.9770	43.2740
 0.9780	43.2730
 0.9790	43.2590
 0.9800	43.2500
 0.9810	43.2470
 0.9820	43.2440
 0.9830	43.2350
 0.9840	43.2280
 0.9850	43.2220
 0.9860	43.2160
 0.9870	43.2030
 0.9880	43.1950
 0.9890	43.1990
 0.9900	43.2110
 0.9910	43.2100
 0.9920	43.1990
 0.9930	43.1860
 0.9940	43.1750
 0.9950	43.1730
 0.9960	43.1830
 0.9970	43.1900
 0.9980	43.1760
 0.9990	43.1610
 1.0000	43.1720
 1.0010	44.1400
 1.0020	44.1390
 1.0030	44.1370
 1.0040	44.1370
 1.0050	44.1400
 1.0060	44.1410
 1.0070	44.1380
 1.0080	44.1360
 1.0090	44.1300
 1.0100	44.1270
 1.0110	44.1280
 1.0120	44.1280
 1.0130	44.1300
 1.0140	44.1310
 1.0150	44.1300
 1.0160	44.1270
 1.0170	44.1260
 1.0180	44.1240
 1.0190	44.1250
 1.0200	44.1300
 1.0210	44.1290
 1.0220	44.1270
 1.0230	44.1280
 1.0240	44.1270
 1.0250	44.1260
 1.0260	44.1250
 1.0270	44.1260
 1.0280	44.1230
 1.0290	44.1250
 1.0300	44.1360
 1.0310	44.1400
 1.0320	44.1410
 1.0330	44.1440
 1.0340	44.1420
 1.0350	44.1410
 1.0360	44.1430
 1.0370	44.1440
 1.0380	44.1460
 1.0390	44.1470
 1.0400	44.1490
 1.0410	44.1490
 1.0420	44.1510
 1.0430	44.1560
 1.0440	44.1580
 1.0450	44.1590
 1.0460	44.1610
 1.0470	44.1630
 1.0480	44.1640
 1.0490	44.1640
 1.0500	44.1650
 1.0510	44.1650
 1.0520	44.1640
 1.0530	44.1640
 1.0540	44.1640
 1.0550	44.1650
 1.0560	44.1670
 1.0570	44.1660
 1.0580	44.1650
 1.0590	44.1620
 1.0600	44.1580
 1.0610	44.1530
 1.0620	44.1470
 1.0630	44.1430
 1.0640	44.1390
 1.0650	44.1330
 1.0660	44.1290
 1.0670	44.1240
 1.0680	44.1180
 1.0690	44.1090
 1.0700	44.1060
 1.0710	44.1050
 1.0720	44.1010
 1.0730	44.1000
 1.0740	44.0950
 1.0750	44.0880
 1.0760	44.0820
 1.0770	44.0770
 1.0780	44.0710
 1.0790	44.0630
 1.0800	44.0570
 1.0810	44.0500
 1.0820	44.0450
 1.0830	44.0430
 1.0840	44.0390
 1.0850	44.0360
 1.0860	44.0320
 1.0870	44.0270
 1.0880	44.0210
 1.0890	44.0160
 1.0900	44.0100
 1.0910	44.0050
 1.0920	43.9990
 1.0930	43.9940
 1.0940	43.9870
 1.0950	43.9840
 1.0960	43.9850
 1.0970	43.9820
 1.0980	43.9790
 1.0990	43.9770
 1.1000	43.9720
 1.1010	43.9680
 1.1020	43.9640
 1.1030	43.9620
 1.1040	43.9590
 1.1050	43.9550
 1.1060	43.9530
 1.1070	43.9520
 1.1080	43.9500
 1.1090	43.9460
 1.1100	43.9430
 1.1110	43.9400
 1.1120	43.9360
 1.1130	43.9320
 1.1140	43.9280
 1.1150	43.9230
 1.1160	43.9200
 1.1170	43.9200
 1.1180	43.9160
 1.1190	43.9080
 1.1200	43.9020
 1.1210	43.8930
 1.1220	43.8820
 1.1230	43.8740
 1.1240	43.8660
 1.1250	43.8560
 1.1260	43.8440
 1.1270	43.8310
 1.1280	43.8140
 1.1290	43.7960
 1.1300	43.7770
 1.1310	43.7570
 1.1320	43.7360
 1.1330	43.7100
 1.1340	43.6820
 1.1350	43.6520
 1.1360	43.6190
 1.1370	43.5820
 1.1380	43.5460
 1.1390	43.5090
 1.1400	43.4680
 1.1410	43.4260
 1.1420	43.3840
 1.1430	43.3400
 1.1440	43.2960
 1.1450	43.2510
 1.1460	43.2080
 1.1470	43.1640
 1.1480	43.1220
 1.1490	43.0820
 1.1500	43.0440
 1.1510	43.0080
 1.1520	42.9730
 1.1530	42.9380
 1.1540	42.9070
 1.1550	42.8750
 1.1560	42.8470
 1.1570	42.8230
 1.1580	42.8020
 1.1590	42.7820
 1.1600	42.7630
 1.1610	42.7450
 1.1620	42.7280
 1.1630	42.7120
 1.1640	42.7000
 1.1650	42.6880
 1.1660	42.6750
 1.1670	42.6630
 1.1680	42.6500
 1.1690	42.6400
 1.1700	42.6300
 1.1710	42.6220
 1.1720	42.6150
 1.1730	42.6060
 1.1740	42.5980
 1.1750	42.5880
 1.1760	42.5780
 1.1770	42.5700
 1.1780	42.5600
 1.1790	42.5500
 1.1800	42.5420
 1.1810	42.5320
 1.1820	42.5230
 1.1830	42.5140
 1.1840	42.5020
 1.1850	42.4890
 1.1860	42.4780
 1.1870	42.4650
 1.1880	42.4550
 1.1890	42.4490
 1.1900	42.4400
 1.1910	42.4310
 1.1920	42.4240
 1.1930	42.4170
 1.1940	42.4100
 1.1950	42.4050
 1.1960	42.3990
 1.1970	42.3920
 1.1980	42.3870
 1.1990	42.3830
 1.2000	42.3790
 1.2010	42.3750
 1.2020	42.3750
 1.2030	42.3730
 1.2040	42.3690
 1.2050	42.3680
 1.2060	42.3660
 1.2070	42.3640
 1.2080	42.3660
 1.2090	42.3670
 1.2100	42.3690
 1.2110	42.3700
 1.2120	42.3710
 1.2130	42.3720
 1.2140	42.3720
 1.2150	42.3730
 1.2160	42.3760
 1.2170	42.3780
 1.2180	42.3830
 1.2190	42.3890
 1.2200	42.3930
 1.2210	42.3980
 1.2220	42.4020
 1.2230	42.4030
 1.2240	42.4070
 1.2250	42.4110
 1.2260	42.4150
 1.2270	42.4200
 1.2280	42.4240
 1.2290	42.4270
 1.2300	42.4300
 1.2310	42.4330
 1.2320	42.4370
 1.2330	42.4410
 1.2340	42.4440
 1.2350	42.4470
 1.2360	42.4480
 1.2370	42.4490
 1.2380	42.4490
 1.2390	42.4510
 1.2400	42.4510
 1.2410	42.4510
 1.2420	42.4530
 1.2430	42.4540
 1.2440	42.4550
 1.2450	42.4590
 1.2460	42.4610
 1.2470	42.4620
 1.2480	42.4620
 1.2490	42.4620
 1.2500	42.4600
 1.2510	42.4590
 1.2520	42.4580
 1.2530	42.4570
 1.2540	42.4550
 1.2550	42.4540
 1.2560	42.4530
 1.2570	42.4500
 1.2580	42.4470
 1.2590	42.4430
 1.2600	42.4370
 1.2610	42.4330
 1.2620	42.4280
 1.2630	42.4250
 1.2640	42.4210
 1.2650	42.4150
 1.2660	42.4090
 1.2670	42.4030
 1.2680	42.3970
 1.2690	42.3920
 1.2700	42.3880
 1.2710	42.3840
 1.2720	42.3810
 1.2730	42.3760
 1.2740	42.3690
 1.2750	42.3630
 1.2760	42.3580
 1.2770	42.3510
 1.2780	42.3440
 1.2790	42.3360
 1.2800	42.3260
 1.2810	42.3160
 1.2820	42.3040
 1.2830	42.2910
 1.2840	42.2790
 1.2850	42.2650
 1.2860	42.2510
 1.2870	42.2360
 1.2880	42.2220
 1.2890	42.2040
 1.2900	42.1860
 1.2910	42.1660
 1.2920	42.1440
 1.2930	42.1210
 1.2940	42.0950
 1.2950	42.0690
 1.2960	42.0410
 1.2970	42.0140
 1.2980	41.9880
 1.2990	41.9600
 1.3000	41.9330
 1.3010	41.9020
 1.3020	41.8690
 1.3030	41.8370
 1.3040	41.8030
 1.3050	41.7710
 1.3060	41.7400
 1.3070	41.7060
 1.3080	41.6740
 1.3090	41.6400
 1.3100	41.6060
 1.3110	41.5720
 1.3120	41.5360
 1.3130	41.5000
 1.3140	41.4630
 1.3150	41.4260
 1.3160	41.3880
 1.3170	41.3500
 1.3180	41.3110
 1.3190	41.2740
 1.3200	41.2360
 1.3210	41.1970
 1.3220	41.1600
 1.3230	41.1190
 1.3240	41.0780
 1.3250	41.0370
 1.3260	40.9950
 1.3270	40.9530
 1.3280	40.9110
 1.3290	40.8680
 1.3300	40.8230
 1.3310	40.7770
 1.3320	40.7310
 1.3330	40.6840
 1.3340	40.6370
 1.3350	40.5920
 1.3360	40.5460
 1.3370	40.5000
 1.3380	40.4540
 1.3390	40.4080
 1.3400	40.3610
 1.3410	40.3150
 1.3420	40.2690
 1.3430	40.2220
 1.3440	40.1770
 1.3450	40.1320
 1.3460	40.0860
 1.3470	40.0410
 1.3480	39.9970
 1.3490	39.9520
 1.3500	39.9070
 1.3510	39.8630
 1.3520	39.8160
 1.3530	39.7700
 1.3540	39.7230
 1.3550	39.6750
 1.3560	39.6270
 1.3570	39.5790
 1.3580	39.5300
 1.3590	39.4810
 1.3600	39.4300
 1.3610	39.3780
 1.3620	39.3240
 1.3630	39.2670
 1.3640	39.2070
 1.3650	39.1440
 1.3660	39.0770
 1.3670	39.0060
 1.3680	38.9300
 1.3690	38.8490
 1.3700	38.7620
 1.3710	38.6690
 1.3720	38.5690
 1.3730	38.4610
 1.3740	38.3440
 1.3750	38.2150
 1.3760	38.0740
 1.3770	37.9210
 1.3780	37.7540
 1.3790	37.5740
 1.3800	37.3820
 1.3810	37.1730
 1.3820	36.9520
 1.3830	36.7180
 1.3840	36.4670
 1.3850	36.2030
 1.3860	35.9240
 1.3870	35.6280
 1.3880	35.3230
 1.3890	35.0050
 1.3900	34.6740
 1.3910	34.3370
 1.3920	33.9910
 1.3930	33.6350
 1.3940	33.2750
 1.3950	32.9060
 1.3960	32.5360
 1.3970	32.1660
 1.3980	31.7970
 1.3990	31.4350
 1.4000	31.0770
 1.4010	30.7220
 1.4020	30.3770
 1.4030	30.0390
 1.4040	29.7120
 1.4050	29.3950
 1.4060	29.0890
 1.4070	28.7960
 1.4080	28.5160
 1.4090	28.2490
 1.4100	27.9960
 1.4110	27.7560
 1.4120	27.5290
 1.4130	27.3150
 1.4140	27.1150
 1.4150	26.9290
 1.4160	26.7540
 1.4170	26.5910
 1.4180	26.4400
 1.4190	26.2970
 1.4200	26.1630
 1.4210	26.0400
 1.4220	25.9240
 1.4230	25.8190
 1.4240	25.7230
 1.4250	25.6340
 1.4260	25.5530
 1.4270	25.4770
 1.4280	25.4090
 1.4290	25.3470
 1.4300	25.2910
 1.4310	25.2400
 1.4320	25.1950
 1.4330	25.1550
 1.4340	25.1210
 1.4350	25.0900
 1.4360	25.0650
 1.4370	25.0440
 1.4380	25.0260
 1.4390	25.0110
 1.4400	24.9980
 1.4410	24.9890
 1.4420	24.9840
 1.4430	24.9810
 1.4440	24.9800
 1.4450	24.9820
 1.4460	24.9850
 1.4470	24.9900
 1.4480	24.9970
 1.4490	25.0050
 1.4500	25.0160
 1.4510	25.0280
 1.4520	25.0410
 1.4530	25.0570
 1.4540	25.0720
 1.4550	25.0910
 1.4560	25.1120
 1.4570	25.1360
 1.4580	25.1630
 1.4590	25.1930
 1.4600	25.2250
 1.4610	25.2610
 1.4620	25.3010
 1.4630	25.3460
 1.4640	25.3940
 1.4650	25.4460
 1.4660	25.5030
 1.4670	25.5640
 1.4680	25.6300
 1.4690	25.7000
 1.4700	25.7730
 1.4710	25.8510
 1.4720	25.9320
 1.4730	26.0150
 1.4740	26.1000
 1.4750	26.1860
 1.4760	26.2750
 1.4770	26.3670
