Name: Adenostoma fasciculatum 2
Type: vegetation
Class: Shrub
Genus: Adenostoma
Species: fasciculatum
Sample No.: VH041
Owner: UCSB
Wavelength Range: TIR
Origin: 34.5084; -119.7687; WGS84
Collection Date: 4/1/2013
Description: Samples were collected as part of the HyspIRI Airborne Campaign. 48 individual plants were sampled in three times in 2013 - spring  summer  and fall. The name of the sample includes a 1  2  or 3 which references a different individual of the species. Samples were taken to JPL and processed within 48 hours of collection. The same leaves were processed in the Nicolet and then measured using the ASD.
Measurement: Hemispherical reflectance
First Column: X
Second Column: Y
X Units: Wavelength (micrometers)
Y Units: Reflectance (percentage)
First X Value: 2.501
Last X Value: 15.387
Number of X Values: 1737
Additional Information: vegetation.shrub.adenostoma.fasciculatum.tir.vh041.ucsb.nicolet.ancillary.txt

 2.5010	10.8700
 2.5030	10.9010
 2.5040	10.9570
 2.5050	10.9000
 2.5060	10.8450
 2.5070	10.7530
 2.5090	10.7800
 2.5100	10.7130
 2.5110	10.7060
 2.5120	10.6800
 2.5140	10.7400
 2.5150	10.8280
 2.5160	10.8460
 2.5170	10.7700
 2.5180	10.7790
 2.5200	10.7560
 2.5210	10.7800
 2.5220	10.8720
 2.5230	10.9230
 2.5250	10.7370
 2.5260	10.7180
 2.5270	10.7770
 2.5280	10.8700
 2.5290	10.9180
 2.5310	11.0110
 2.5320	10.9320
 2.5330	10.7980
 2.5340	10.6560
 2.5360	10.7210
 2.5370	10.8210
 2.5380	10.8430
 2.5390	10.7710
 2.5410	10.8120
 2.5420	10.8420
 2.5430	10.9730
 2.5440	11.0280
 2.5460	10.9430
 2.5470	10.7910
 2.5480	10.8090
 2.5490	10.8780
 2.5510	10.8460
 2.5520	10.7900
 2.5530	10.8010
 2.5540	10.8240
 2.5560	10.8590
 2.5570	10.8320
 2.5580	10.8330
 2.5590	10.8420
 2.5610	10.9610
 2.5620	10.9500
 2.5630	10.9590
 2.5640	10.9490
 2.5660	11.0010
 2.5670	10.9960
 2.5680	10.9410
 2.5700	10.8150
 2.5710	10.8450
 2.5720	10.8960
 2.5730	10.8880
 2.5750	10.9630
 2.5760	11.1340
 2.5770	11.0390
 2.5790	10.9080
 2.5800	10.9520
 2.5810	11.0470
 2.5820	10.9600
 2.5840	10.9210
 2.5850	10.8980
 2.5860	10.9440
 2.5880	10.8620
 2.5890	10.8320
 2.5900	10.8160
 2.5910	10.9840
 2.5930	10.9810
 2.5940	10.9350
 2.5950	10.8420
 2.5970	10.8660
 2.5980	10.9350
 2.5990	10.9720
 2.6000	10.9440
 2.6020	10.9490
 2.6030	10.8970
 2.6040	10.9780
 2.6060	10.9440
 2.6070	10.8930
 2.6080	10.8620
 2.6100	10.7870
 2.6110	10.6860
 2.6120	10.7000
 2.6140	10.7090
 2.6150	10.8530
 2.6160	10.7680
 2.6180	10.6980
 2.6190	10.6940
 2.6200	10.7130
 2.6220	10.5720
 2.6230	10.5400
 2.6240	10.6190
 2.6260	10.6770
 2.6270	10.6160
 2.6280	10.5740
 2.6300	10.5400
 2.6310	10.6020
 2.6320	10.6040
 2.6340	10.6460
 2.6350	10.5040
 2.6360	10.4670
 2.6380	10.4470
 2.6390	10.4050
 2.6400	10.3900
 2.6420	10.4440
 2.6430	10.4150
 2.6440	10.4320
 2.6460	10.3090
 2.6470	10.2660
 2.6480	10.2330
 2.6500	10.1910
 2.6510	10.1830
 2.6520	10.3170
 2.6540	10.3390
 2.6550	10.2630
 2.6560	10.1550
 2.6580	10.2070
 2.6590	10.1560
 2.6610	10.0790
 2.6620	10.0950
 2.6630	10.2000
 2.6650	10.1440
 2.6660	10.1180
 2.6670	10.0690
 2.6690	10.1020
 2.6700	10.1760
 2.6720	10.2130
 2.6730	10.0930
 2.6740	10.0030
 2.6760	10.0030
 2.6770	10.0670
 2.6780	10.1560
 2.6800	10.1980
 2.6810	10.0610
 2.6830	 9.9980
 2.6840	 9.9320
 2.6850	 9.9440
 2.6870	 9.9220
 2.6880	 9.9720
 2.6900	 9.8880
 2.6910	 9.7770
 2.6920	 9.7440
 2.6940	 9.7770
 2.6950	 9.6980
 2.6970	 9.7040
 2.6980	 9.6820
 2.6990	 9.6830
 2.7010	 9.6600
 2.7020	 9.6440
 2.7040	 9.6240
 2.7050	 9.6720
 2.7060	 9.6850
 2.7080	 9.6040
 2.7090	 9.4370
 2.7110	 9.4170
 2.7120	 9.4180
 2.7130	 9.3940
 2.7150	 9.3610
 2.7160	 9.4460
 2.7180	 9.4740
 2.7190	 9.4400
 2.7210	 9.3390
 2.7220	 9.2900
 2.7230	 9.2770
 2.7250	 9.2990
 2.7260	 9.1930
 2.7280	 9.1550
 2.7290	 9.1070
 2.7310	 9.2310
 2.7320	 9.3230
 2.7330	 9.3110
 2.7350	 9.1500
 2.7360	 9.1510
 2.7380	 9.1840
 2.7390	 9.1620
 2.7410	 8.9890
 2.7420	 9.0620
 2.7440	 9.1780
 2.7450	 9.1950
 2.7470	 9.2080
 2.7480	 9.4020
 2.7490	 9.2820
 2.7510	 9.1910
 2.7520	 9.2020
 2.7540	 9.2560
 2.7550	 9.1340
 2.7570	 9.1050
 2.7580	 9.1370
 2.7600	 9.2840
 2.7610	 9.2180
 2.7630	 9.1880
 2.7640	 9.1280
 2.7660	 9.2550
 2.7670	 9.2600
 2.7680	 9.1780
 2.7700	 9.0630
 2.7710	 9.0520
 2.7730	 9.0580
 2.7740	 9.0930
 2.7760	 9.1560
 2.7770	 9.2970
 2.7790	 9.1650
 2.7800	 9.0640
 2.7820	 9.1260
 2.7830	 9.2760
 2.7850	 9.1180
 2.7860	 9.0800
 2.7880	 8.9930
 2.7890	 9.0310
 2.7910	 9.1860
 2.7920	 9.1960
 2.7940	 9.1570
 2.7950	 9.2020
 2.7970	 9.1740
 2.7980	 9.1230
 2.8000	 8.9590
 2.8010	 9.0790
 2.8030	 9.1070
 2.8040	 9.0360
 2.8060	 9.0130
 2.8070	 9.0160
 2.8090	 9.0220
 2.8110	 9.1040
 2.8120	 9.0390
 2.8140	 9.0710
 2.8150	 9.0340
 2.8170	 9.1150
 2.8180	 9.0960
 2.8200	 9.1020
 2.8210	 9.1520
 2.8230	 9.1980
 2.8240	 9.1530
 2.8260	 9.0970
 2.8270	 8.9690
 2.8290	 9.0540
 2.8300	 9.1260
 2.8320	 9.1700
 2.8340	 9.1520
 2.8350	 9.1350
 2.8370	 9.0690
 2.8380	 9.1080
 2.8400	 9.1240
 2.8410	 9.1750
 2.8430	 9.1750
 2.8440	 9.1340
 2.8460	 9.1080
 2.8480	 9.1820
 2.8490	 9.0900
 2.8510	 9.1130
 2.8520	 9.0800
 2.8540	 9.0700
 2.8550	 9.0690
 2.8570	 9.1760
 2.8590	 9.1180
 2.8600	 9.0780
 2.8620	 9.0550
 2.8630	 9.1360
 2.8650	 9.0630
 2.8660	 9.1440
 2.8680	 9.1540
 2.8700	 9.1650
 2.8710	 9.1230
 2.8730	 9.1840
 2.8740	 9.1580
 2.8760	 9.2360
 2.8780	 9.2840
 2.8790	 9.2760
 2.8810	 9.2960
 2.8820	 9.3110
 2.8840	 9.1360
 2.8860	 9.1210
 2.8870	 9.1210
 2.8890	 9.1390
 2.8900	 9.0960
 2.8920	 9.1860
 2.8940	 9.1480
 2.8950	 9.0610
 2.8970	 9.0910
 2.8980	 9.1760
 2.9000	 9.2270
 2.9020	 9.3100
 2.9030	 9.2080
 2.9050	 9.1410
 2.9070	 9.0980
 2.9080	 9.1760
 2.9100	 9.1140
 2.9120	 9.1240
 2.9130	 9.1030
 2.9150	 9.1180
 2.9160	 9.1200
 2.9180	 9.1240
 2.9200	 9.1110
 2.9210	 9.1900
 2.9230	 9.1500
 2.9250	 9.2090
 2.9260	 9.2030
 2.9280	 9.2770
 2.9300	 9.2110
 2.9310	 9.1050
 2.9330	 9.0360
 2.9350	 9.0200
 2.9360	 9.0700
 2.9380	 9.1930
 2.9400	 9.2000
 2.9410	 9.1670
 2.9430	 9.1410
 2.9450	 9.0900
 2.9460	 9.1340
 2.9480	 9.2440
 2.9500	 9.2350
 2.9510	 9.3240
 2.9530	 9.3090
 2.9550	 9.1560
 2.9560	 9.0730
 2.9580	 8.8330
 2.9600	 8.8400
 2.9610	 8.9530
 2.9630	 9.0310
 2.9650	 9.2420
 2.9660	 9.2390
 2.9680	 9.5350
 2.9700	 9.7850
 2.9720	 9.4320
 2.9730	 9.0900
 2.9750	 9.0700
 2.9770	 9.0690
 2.9780	 9.1350
 2.9800	 8.7210
 2.9820	 8.8580
 2.9840	 9.2820
 2.9850	 9.4210
 2.9870	 8.9600
 2.9890	 8.7650
 2.9900	 9.2740
 2.9920	 9.2670
 2.9940	 8.7330
 2.9960	 8.7840
 2.9970	 9.0540
 2.9990	 9.1600
 3.0010	 9.3200
 3.0030	 9.1830
 3.0040	 9.0670
 3.0060	 9.1140
 3.0080	 8.9080
 3.0100	 8.7890
 3.0110	 9.2930
 3.0130	 9.8410
 3.0150	 9.4330
 3.0170	 9.2560
 3.0180	 8.8200
 3.0200	 8.6840
 3.0220	 8.8950
 3.0240	 8.8580
 3.0250	 8.8160
 3.0270	 9.1920
 3.0290	 9.1240
 3.0310	 9.0880
 3.0320	 9.6640
 3.0340	 9.6670
 3.0360	 9.1250
 3.0380	 8.7670
 3.0400	 8.9410
 3.0410	 9.0380
 3.0430	 8.5000
 3.0450	 8.5060
 3.0470	 9.0170
 3.0480	 9.6230
 3.0500	 9.6840
 3.0520	 9.3440
 3.0540	 9.0830
 3.0560	 9.2540
 3.0570	 9.4570
 3.0590	 9.6160
 3.0610	 9.4530
 3.0630	 9.2050
 3.0650	 8.9400
 3.0660	 9.1850
 3.0680	 9.2980
 3.0700	 9.3380
 3.0720	 9.0410
 3.0740	 8.8960
 3.0760	 9.0170
 3.0770	 9.1640
 3.0790	 9.1480
 3.0810	 9.0130
 3.0830	 8.8700
 3.0850	 8.9700
 3.0870	 8.9560
 3.0880	 9.0400
 3.0900	 8.9780
 3.0920	 9.0100
 3.0940	 9.2510
 3.0960	 9.2590
 3.0980	 9.1470
 3.0990	 9.0220
 3.1010	 8.9770
 3.1030	 9.2220
 3.1050	 9.2150
 3.1070	 9.0390
 3.1090	 8.9570
 3.1110	 9.1530
 3.1120	 9.1360
 3.1140	 9.0150
 3.1160	 8.9960
 3.1180	 9.1050
 3.1200	 9.1020
 3.1220	 9.0380
 3.1240	 8.9600
 3.1260	 9.0390
 3.1270	 8.9930
 3.1290	 8.9200
 3.1310	 9.1760
 3.1330	 9.2580
 3.1350	 9.0950
 3.1370	 9.1050
 3.1390	 9.0930
 3.1410	 9.3650
 3.1430	 9.3140
 3.1450	 9.3200
 3.1460	 9.1660
 3.1480	 8.9230
 3.1500	 8.9720
 3.1520	 8.8730
 3.1540	 8.9190
 3.1560	 9.2070
 3.1580	 9.3670
 3.1600	 9.3930
 3.1620	 9.1280
 3.1640	 9.1490
 3.1660	 9.2850
 3.1680	 9.4940
 3.1700	 9.2500
 3.1710	 9.0740
 3.1730	 9.3300
 3.1750	 9.2490
 3.1770	 8.6830
 3.1790	 8.2000
 3.1810	 8.1420
 3.1830	 8.5680
 3.1850	 8.7310
 3.1870	 8.9010
 3.1890	 9.0890
 3.1910	 9.1980
 3.1930	 9.0410
 3.1950	 9.0490
 3.1970	 9.0130
 3.1990	 8.9700
 3.2010	 8.9950
 3.2030	 9.1420
 3.2050	 9.0290
 3.2070	 8.9920
 3.2090	 8.9470
 3.2110	 8.9990
 3.2130	 8.9870
 3.2150	 9.0300
 3.2170	 9.0740
 3.2190	 9.0790
 3.2210	 9.0270
 3.2230	 9.0950
 3.2250	 9.0800
 3.2270	 9.0300
 3.2290	 9.0080
 3.2310	 9.0120
 3.2330	 8.9750
 3.2350	 8.9260
 3.2370	 8.9530
 3.2390	 9.1290
 3.2410	 9.1160
 3.2430	 9.0390
 3.2450	 8.9800
 3.2470	 9.0080
 3.2490	 8.9590
 3.2510	 8.8950
 3.2530	 9.0150
 3.2550	 9.1760
 3.2570	 9.0610
 3.2590	 8.9700
 3.2610	 8.8290
 3.2630	 8.7970
 3.2650	 8.8710
 3.2670	 8.9800
 3.2690	 8.9620
 3.2720	 8.9680
 3.2740	 8.9640
 3.2760	 9.0630
 3.2780	 9.0660
 3.2800	 9.0570
 3.2820	 8.9840
 3.2840	 8.9830
 3.2860	 8.9650
 3.2880	 8.9760
 3.2900	 8.9420
 3.2920	 8.9950
 3.2940	 8.9600
 3.2960	 8.8800
 3.2990	 8.8630
 3.3010	 9.0300
 3.3030	 9.0670
 3.3050	 9.0320
 3.3070	 9.0400
 3.3090	 9.0180
 3.3110	 8.9150
 3.3130	 8.8950
 3.3150	 8.9250
 3.3180	 8.9440
 3.3200	 8.9110
 3.3220	 8.9290
 3.3240	 8.9160
 3.3260	 8.8720
 3.3280	 8.8760
 3.3300	 8.9370
 3.3330	 8.9000
 3.3350	 8.9050
 3.3370	 8.8580
 3.3390	 8.8320
 3.3410	 8.7810
 3.3430	 8.8230
 3.3450	 8.7890
 3.3480	 8.8120
 3.3500	 8.8530
 3.3520	 8.8860
 3.3540	 8.9080
 3.3560	 8.9280
 3.3580	 8.8120
 3.3610	 8.8100
 3.3630	 8.8230
 3.3650	 8.8370
 3.3670	 8.8080
 3.3690	 8.8260
 3.3720	 8.8370
 3.3740	 8.8950
 3.3760	 8.9160
 3.3780	 8.8850
 3.3800	 8.8110
 3.3830	 8.8540
 3.3850	 8.8840
 3.3870	 8.8450
 3.3890	 8.8650
 3.3910	 8.8980
 3.3940	 8.7820
 3.3960	 8.7880
 3.3980	 8.8440
 3.4000	 8.9270
 3.4020	 8.8710
 3.4050	 8.9730
 3.4070	 9.1210
 3.4090	 9.1360
 3.4110	 9.0510
 3.4140	 9.1710
 3.4160	 9.2920
 3.4180	 9.3620
 3.4200	 9.4560
 3.4230	 9.6710
 3.4250	 9.9300
 3.4270	10.1820
 3.4290	10.2550
 3.4320	10.0930
 3.4340	 9.7910
 3.4360	 9.6150
 3.4390	 9.4910
 3.4410	 9.3660
 3.4430	 9.1930
 3.4450	 9.2580
 3.4480	 9.3250
 3.4500	 9.3440
 3.4520	 9.2310
 3.4550	 9.1480
 3.4570	 9.1610
 3.4590	 9.2860
 3.4620	 9.2190
 3.4640	 9.2600
 3.4660	 9.2790
 3.4680	 9.1550
 3.4710	 9.0650
 3.4730	 9.1470
 3.4750	 9.1520
 3.4780	 9.1430
 3.4800	 9.1190
 3.4820	 9.1450
 3.4850	 9.0520
 3.4870	 9.1090
 3.4890	 9.0780
 3.4920	 9.0650
 3.4940	 9.0830
 3.4970	 9.1950
 3.4990	 9.1980
 3.5010	 9.1490
 3.5040	 9.1830
 3.5060	 9.4030
 3.5080	 9.7290
 3.5110	10.0020
 3.5130	 9.8730
 3.5160	 9.6080
 3.5180	 9.4630
 3.5200	 9.3330
 3.5230	 9.2010
 3.5250	 9.1650
 3.5270	 9.1760
 3.5300	 9.2700
 3.5320	 9.2770
 3.5350	 9.3190
 3.5370	 9.3080
 3.5400	 9.2900
 3.5420	 9.2480
 3.5440	 9.2610
 3.5470	 9.2060
 3.5490	 9.2230
 3.5520	 9.1900
 3.5540	 9.2330
 3.5570	 9.2300
 3.5590	 9.2340
 3.5610	 9.1740
 3.5640	 9.2060
 3.5660	 9.2690
 3.5690	 9.3360
 3.5710	 9.2530
 3.5740	 9.1200
 3.5760	 9.1170
 3.5790	 9.2050
 3.5810	 9.1410
 3.5840	 9.1960
 3.5860	 9.2240
 3.5890	 9.2770
 3.5910	 9.2210
 3.5930	 9.2440
 3.5960	 9.2860
 3.5980	 9.1600
 3.6010	 9.0760
 3.6030	 9.2160
 3.6060	 9.2730
 3.6080	 9.2340
 3.6110	 9.2280
 3.6140	 9.2490
 3.6160	 9.2250
 3.6190	 9.2010
 3.6210	 9.1880
 3.6240	 9.2240
 3.6260	 9.2440
 3.6290	 9.3330
 3.6310	 9.3460
 3.6340	 9.3090
 3.6360	 9.2070
 3.6390	 9.2360
 3.6410	 9.2830
 3.6440	 9.2880
 3.6470	 9.2360
 3.6490	 9.3000
 3.6520	 9.2980
 3.6540	 9.2490
 3.6570	 9.2190
 3.6590	 9.3040
 3.6620	 9.3210
 3.6650	 9.3230
 3.6670	 9.3230
 3.6700	 9.3130
 3.6720	 9.2930
 3.6750	 9.3090
 3.6780	 9.2640
 3.6800	 9.2750
 3.6830	 9.3030
 3.6850	 9.3400
 3.6880	 9.3280
 3.6910	 9.3640
 3.6930	 9.3310
 3.6960	 9.3240
 3.6990	 9.2840
 3.7010	 9.2500
 3.7040	 9.2060
 3.7060	 9.3150
 3.7090	 9.3600
 3.7120	 9.3110
 3.7140	 9.2900
 3.7170	 9.3100
 3.7200	 9.3200
 3.7220	 9.3940
 3.7250	 9.4020
 3.7280	 9.4400
 3.7300	 9.4500
 3.7330	 9.4020
 3.7360	 9.3570
 3.7390	 9.3850
 3.7410	 9.4100
 3.7440	 9.5300
 3.7470	 9.5030
 3.7490	 9.3590
 3.7520	 9.2470
 3.7550	 9.2970
 3.7580	 9.3170
 3.7600	 9.2920
 3.7630	 9.2490
 3.7660	 9.2690
 3.7680	 9.3180
 3.7710	 9.3140
 3.7740	 9.3030
 3.7770	 9.3360
 3.7790	 9.3420
 3.7820	 9.3510
 3.7850	 9.3090
 3.7880	 9.3240
 3.7900	 9.3950
 3.7930	 9.4330
 3.7960	 9.3850
 3.7990	 9.3900
 3.8020	 9.3830
 3.8040	 9.4220
 3.8070	 9.4690
 3.8100	 9.4820
 3.8130	 9.4980
 3.8160	 9.4840
 3.8180	 9.3880
 3.8210	 9.3960
 3.8240	 9.4300
 3.8270	 9.4510
 3.8300	 9.4620
 3.8330	 9.5000
 3.8350	 9.4550
 3.8380	 9.4360
 3.8410	 9.4850
 3.8440	 9.5540
 3.8470	 9.5230
 3.8500	 9.5010
 3.8520	 9.4880
 3.8550	 9.4710
 3.8580	 9.4390
 3.8610	 9.4750
 3.8640	 9.4470
 3.8670	 9.5010
 3.8700	 9.5210
 3.8730	 9.4820
 3.8750	 9.4940
 3.8780	 9.4970
 3.8810	 9.4930
 3.8840	 9.5490
 3.8870	 9.4880
 3.8900	 9.4980
 3.8930	 9.5810
 3.8960	 9.5820
 3.8990	 9.5520
 3.9020	 9.5610
 3.9050	 9.5970
 3.9080	 9.6170
 3.9110	 9.5630
 3.9140	 9.5670
 3.9160	 9.6020
 3.9190	 9.6370
 3.9220	 9.6310
 3.9250	 9.6050
 3.9280	 9.5320
 3.9310	 9.6060
 3.9340	 9.6380
 3.9370	 9.5950
 3.9400	 9.5740
 3.9430	 9.6510
 3.9460	 9.6490
 3.9490	 9.5980
 3.9520	 9.5630
 3.9550	 9.5840
 3.9580	 9.6220
 3.9610	 9.6790
 3.9640	 9.6590
 3.9670	 9.6590
 3.9700	 9.6310
 3.9730	 9.6560
 3.9770	 9.6850
 3.9800	 9.6930
 3.9830	 9.6670
 3.9860	 9.7300
 3.9890	 9.7420
 3.9920	 9.6970
 3.9950	 9.6440
 3.9980	 9.7040
 4.0010	 9.6940
 4.0040	 9.7070
 4.0070	 9.7390
 4.0100	 9.7290
 4.0130	 9.6910
 4.0170	 9.6690
 4.0200	 9.6650
 4.0230	 9.6890
 4.0260	 9.7170
 4.0290	 9.7080
 4.0320	 9.6640
 4.0350	 9.6800
 4.0380	 9.6600
 4.0420	 9.6090
 4.0450	 9.6660
 4.0480	 9.7630
 4.0510	 9.7460
 4.0540	 9.8100
 4.0570	 9.8760
 4.0610	 9.8430
 4.0640	 9.7640
 4.0670	 9.7410
 4.0700	 9.7290
 4.0730	 9.7700
 4.0770	 9.8200
 4.0800	 9.7860
 4.0830	 9.7610
 4.0860	 9.7950
 4.0890	 9.8540
 4.0930	 9.8580
 4.0960	 9.7720
 4.0990	 9.7830
 4.1020	 9.8190
 4.1060	 9.8090
 4.1090	 9.8270
 4.1120	 9.8190
 4.1150	 9.8210
 4.1190	 9.8580
 4.1220	 9.8210
 4.1250	 9.7870
 4.1280	 9.7820
 4.1320	 9.7940
 4.1350	 9.7690
 4.1380	 9.8210
 4.1420	 9.8440
 4.1450	 9.8410
 4.1480	 9.8050
 4.1520	 9.8060
 4.1550	 9.8300
 4.1580	 9.8620
 4.1620	 9.8280
 4.1650	 9.8130
 4.1680	 9.7860
 4.1720	 9.7960
 4.1750	 9.8420
 4.1780	 9.9080
 4.1820	 9.9320
 4.1850	 9.9470
 4.1890	 9.9720
 4.1920	10.0180
 4.1950	10.0230
 4.1990	10.0730
 4.2020	10.2180
 4.2060	10.2950
 4.2090	10.3750
 4.2120	10.5250
 4.2160	10.5720
 4.2190	10.7690
 4.2230	10.9360
 4.2260	11.0040
 4.2300	11.0910
 4.2330	11.2070
 4.2360	11.3630
 4.2400	11.3840
 4.2430	11.0760
 4.2470	10.9220
 4.2500	10.8300
 4.2540	10.6570
 4.2570	10.5400
 4.2610	10.6270
 4.2640	10.7190
 4.2680	10.8330
 4.2710	10.8920
 4.2750	10.8400
 4.2780	10.8520
 4.2820	10.9430
 4.2850	10.8400
 4.2890	10.8000
 4.2930	10.8220
 4.2960	10.7100
 4.3000	10.6910
 4.3030	10.7220
 4.3070	10.5400
 4.3100	10.4440
 4.3140	10.3600
 4.3180	10.3570
 4.3210	10.3260
 4.3250	10.2710
 4.3280	10.2250
 4.3320	10.2310
 4.3360	10.1880
 4.3390	10.1220
 4.3430	10.0870
 4.3470	10.0540
 4.3500	10.0550
 4.3540	10.1160
 4.3570	10.0960
 4.3610	10.0520
 4.3650	10.0350
 4.3680	10.0650
 4.3720	10.0400
 4.3760	 9.9470
 4.3800	 9.9270
 4.3830	 9.9790
 4.3870	10.0310
 4.3910	10.0600
 4.3940	10.0240
 4.3980	 9.9800
 4.4020	10.0020
 4.4060	10.0260
 4.4090	10.0230
 4.4130	 9.9980
 4.4170	 9.9790
 4.4210	10.0390
 4.4240	10.0590
 4.4280	10.0200
 4.4320	10.0350
 4.4360	10.0120
 4.4400	 9.9560
 4.4430	 9.9410
 4.4470	 9.9370
 4.4510	 9.9740
 4.4550	 9.9960
 4.4590	 9.9670
 4.4620	 9.9680
 4.4660	 9.9810
 4.4700	10.0200
 4.4740	10.0260
 4.4780	 9.9600
 4.4820	 9.9410
 4.4860	 9.9920
 4.4900	10.0070
 4.4930	10.0260
 4.4970	10.0120
 4.5010	10.0080
 4.5050	10.0080
 4.5090	 9.9610
 4.5130	 9.9160
 4.5170	 9.9540
 4.5210	 9.9210
 4.5250	 9.9000
 4.5290	 9.9160
 4.5330	 9.9400
 4.5370	 9.9340
 4.5410	 9.8390
 4.5450	 9.8140
 4.5490	 9.8600
 4.5530	 9.9260
 4.5570	 9.9640
 4.5610	 9.9810
 4.5650	10.0010
 4.5690	 9.9740
 4.5730	 9.9840
 4.5770	 9.9630
 4.5810	 9.9350
 4.5850	 9.9160
 4.5890	 9.9080
 4.5930	 9.9010
 4.5970	 9.8920
 4.6010	 9.8870
 4.6050	 9.9250
 4.6090	 9.9360
 4.6130	 9.8400
 4.6170	 9.7900
 4.6220	 9.9050
 4.6260	10.0030
 4.6300	 9.9970
 4.6340	 9.9520
 4.6380	 9.8880
 4.6420	 9.8910
 4.6460	 9.9140
 4.6510	 9.9040
 4.6550	 9.9160
 4.6590	 9.9130
 4.6630	 9.8930
 4.6670	 9.8800
 4.6720	 9.9120
 4.6760	 9.9630
 4.6800	 9.9620
 4.6840	 9.9470
 4.6880	 9.9540
 4.6930	 9.9730
 4.6970	 9.9190
 4.7010	 9.8770
 4.7050	 9.9400
 4.7100	 9.9760
 4.7140	 9.9400
 4.7180	 9.9110
 4.7230	 9.9560
 4.7270	 9.9580
 4.7310	 9.9280
 4.7360	 9.9100
 4.7400	 9.9210
 4.7440	 9.9170
 4.7490	 9.9600
 4.7530	10.0360
 4.7570	10.0100
 4.7620	 9.9770
 4.7660	 9.9640
 4.7700	 9.9210
 4.7750	 9.9470
 4.7790	10.0340
 4.7840	10.0440
 4.7880	10.0200
 4.7920	10.0070
 4.7970	 9.9550
 4.8010	 9.9370
 4.8060	 9.9390
 4.8100	 9.9830
 4.8150	10.0720
 4.8190	10.0910
 4.8240	10.0170
 4.8280	 9.9680
 4.8330	 9.9750
 4.8370	10.0160
 4.8420	10.0240
 4.8460	10.0760
 4.8510	10.0940
 4.8550	10.0750
 4.8600	10.0430
 4.8640	10.0190
 4.8690	 9.9970
 4.8730	10.0440
 4.8780	10.0960
 4.8830	10.1250
 4.8870	10.1060
 4.8920	10.0940
 4.8960	10.0720
 4.9010	10.0620
 4.9060	10.0730
 4.9100	10.1030
 4.9150	10.0750
 4.9200	10.0530
 4.9240	10.0670
 4.9290	10.1130
 4.9340	10.1260
 4.9380	10.1950
 4.9430	10.1530
 4.9480	10.0980
 4.9530	10.1250
 4.9570	10.1370
 4.9620	10.1100
 4.9670	10.1530
 4.9720	10.1900
 4.9760	10.2160
 4.9810	10.1970
 4.9860	10.1630
 4.9910	10.1340
 4.9960	10.1930
 5.0000	10.2610
 5.0050	10.3040
 5.0100	10.2570
 5.0150	10.2370
 5.0200	10.2540
 5.0250	10.2600
 5.0290	10.2590
 5.0340	10.2320
 5.0390	10.2230
 5.0440	10.2670
 5.0490	10.3170
 5.0540	10.2850
 5.0590	10.1920
 5.0640	10.2240
 5.0690	10.2810
 5.0740	10.2960
 5.0790	10.2600
 5.0840	10.2230
 5.0890	10.2240
 5.0940	10.2790
 5.0990	10.3000
 5.1040	10.2990
 5.1090	10.2610
 5.1140	10.2540
 5.1190	10.1820
 5.1240	10.1730
 5.1290	10.2320
 5.1340	10.2640
 5.1390	10.2950
 5.1440	10.3160
 5.1490	10.2850
 5.1540	10.2730
 5.1600	10.2520
 5.1650	10.2940
 5.1700	10.2750
 5.1750	10.2740
 5.1800	10.2730
 5.1850	10.2640
 5.1910	10.2170
 5.1960	10.2170
 5.2010	10.2540
 5.2060	10.3120
 5.2110	10.3300
 5.2170	10.3080
 5.2220	10.2810
 5.2270	10.2950
 5.2320	10.2370
 5.2380	10.2190
 5.2430	10.2230
 5.2480	10.3020
 5.2540	10.2530
 5.2590	10.2130
 5.2640	10.2680
 5.2700	10.3030
 5.2750	10.2680
 5.2800	10.2510
 5.2860	10.2260
 5.2910	10.2610
 5.2970	10.2590
 5.3020	10.2410
 5.3070	10.2140
 5.3130	10.2380
 5.3180	10.2350
 5.3240	10.2480
 5.3290	10.2220
 5.3350	10.2290
 5.3400	10.2900
 5.3460	10.3230
 5.3510	10.2580
 5.3570	10.2450
 5.3620	10.2400
 5.3680	10.2690
 5.3730	10.2710
 5.3790	10.2610
 5.3850	10.1940
 5.3900	10.1740
 5.3960	10.1530
 5.4010	10.1910
 5.4070	10.2030
 5.4130	10.2110
 5.4180	10.1680
 5.4240	10.1840
 5.4300	10.2350
 5.4350	10.2460
