Name: Chorisia speciosa
Type: vegetation
Class: Tree
Genus: Chorisia
Species: speciosa
Sample No.: JPL242
Owner: JPL
Wavelength Range: VSWIR
Origin: 34.12641; -118.10985; WGS84
Collection Date: 10/6/2016
Description: Samples were collected at the Huntington Garden in San Marino California as part of a JPL Subcontract studying HyTES imagery. Samples were taken to JPL and processed within 48 hours of collection. The same leaves were processed in the Nicolet and then measured using the ASD.
Measurement: Bidirectional reflectance
First Column: X
Second Column: Y
X Units: Wavelength (micrometer)
Y Units: Reflectance (percentage)
First X Value: 0.35
Last X Value: 2.5
Number of X Values: 2151
Additional Information: vegetation.tree.chorisia.speciosa.vswir.jpl242.jpl.asd.ancillary.txt

 0.3500	 6.1380
 0.3510	 6.2120
 0.3520	 6.2030
 0.3530	 6.1260
 0.3540	 6.0650
 0.3550	 6.1260
 0.3560	 6.2070
 0.3570	 6.1900
 0.3580	 6.0080
 0.3590	 6.0310
 0.3600	 6.0500
 0.3610	 5.9780
 0.3620	 5.9720
 0.3630	 5.9980
 0.3640	 6.0190
 0.3650	 6.0020
 0.3660	 5.9560
 0.3670	 5.9570
 0.3680	 5.9820
 0.3690	 5.9480
 0.3700	 5.9100
 0.3710	 5.8990
 0.3720	 5.9160
 0.3730	 5.9050
 0.3740	 5.8830
 0.3750	 5.8780
 0.3760	 5.9040
 0.3770	 5.8780
 0.3780	 5.8390
 0.3790	 5.8200
 0.3800	 5.8410
 0.3810	 5.8630
 0.3820	 5.8710
 0.3830	 5.8660
 0.3840	 5.8790
 0.3850	 5.8800
 0.3860	 5.8630
 0.3870	 5.8360
 0.3880	 5.8440
 0.3890	 5.8680
 0.3900	 5.8900
 0.3910	 5.8940
 0.3920	 5.9010
 0.3930	 5.9130
 0.3940	 5.9220
 0.3950	 5.9140
 0.3960	 5.9360
 0.3970	 5.9610
 0.3980	 5.9390
 0.3990	 5.9380
 0.4000	 5.9620
 0.4010	 5.9990
 0.4020	 6.0360
 0.4030	 6.0180
 0.4040	 6.0060
 0.4050	 6.0510
 0.4060	 6.0540
 0.4070	 6.0620
 0.4080	 6.0880
 0.4090	 6.1190
 0.4100	 6.1460
 0.4110	 6.1570
 0.4120	 6.1560
 0.4130	 6.1780
 0.4140	 6.2080
 0.4150	 6.2330
 0.4160	 6.2480
 0.4170	 6.2600
 0.4180	 6.2820
 0.4190	 6.3120
 0.4200	 6.3290
 0.4210	 6.3230
 0.4220	 6.3230
 0.4230	 6.3460
 0.4240	 6.3600
 0.4250	 6.3740
 0.4260	 6.3810
 0.4270	 6.3720
 0.4280	 6.3770
 0.4290	 6.3840
 0.4300	 6.3870
 0.4310	 6.3870
 0.4320	 6.3870
 0.4330	 6.3850
 0.4340	 6.3810
 0.4350	 6.3730
 0.4360	 6.3720
 0.4370	 6.3850
 0.4380	 6.4100
 0.4390	 6.4420
 0.4400	 6.4720
 0.4410	 6.4960
 0.4420	 6.5150
 0.4430	 6.5290
 0.4440	 6.5490
 0.4450	 6.5830
 0.4460	 6.6090
 0.4470	 6.6350
 0.4480	 6.6640
 0.4490	 6.6940
 0.4500	 6.7210
 0.4510	 6.7490
 0.4520	 6.7810
 0.4530	 6.8110
 0.4540	 6.8370
 0.4550	 6.8610
 0.4560	 6.8850
 0.4570	 6.9110
 0.4580	 6.9330
 0.4590	 6.9500
 0.4600	 6.9740
 0.4610	 6.9900
 0.4620	 7.0020
 0.4630	 7.0170
 0.4640	 7.0310
 0.4650	 7.0390
 0.4660	 7.0420
 0.4670	 7.0460
 0.4680	 7.0540
 0.4690	 7.0590
 0.4700	 7.0560
 0.4710	 7.0570
 0.4720	 7.0600
 0.4730	 7.0640
 0.4740	 7.0690
 0.4750	 7.0730
 0.4760	 7.0750
 0.4770	 7.0770
 0.4780	 7.0840
 0.4790	 7.0940
 0.4800	 7.1070
 0.4810	 7.1210
 0.4820	 7.1370
 0.4830	 7.1510
 0.4840	 7.1660
 0.4850	 7.1930
 0.4860	 7.2200
 0.4870	 7.2550
 0.4880	 7.3070
 0.4890	 7.3600
 0.4900	 7.4210
 0.4910	 7.4920
 0.4920	 7.5720
 0.4930	 7.6620
 0.4940	 7.7600
 0.4950	 7.8650
 0.4960	 7.9760
 0.4970	 8.1010
 0.4980	 8.2370
 0.4990	 8.3800
 0.5000	 8.5390
 0.5010	 8.7090
 0.5020	 8.8880
 0.5030	 9.0790
 0.5040	 9.2890
 0.5050	 9.5110
 0.5060	 9.7410
 0.5070	 9.9900
 0.5080	10.2510
 0.5090	10.5240
 0.5100	10.8110
 0.5110	11.1180
 0.5120	11.4390
 0.5130	11.7710
 0.5140	12.1170
 0.5150	12.4700
 0.5160	12.8330
 0.5170	13.2070
 0.5180	13.5880
 0.5190	13.9710
 0.5200	14.3550
 0.5210	14.7410
 0.5220	15.1210
 0.5230	15.4940
 0.5240	15.8600
 0.5250	16.2100
 0.5260	16.5450
 0.5270	16.8680
 0.5280	17.1750
 0.5290	17.4620
 0.5300	17.7310
 0.5310	17.9840
 0.5320	18.2200
 0.5330	18.4380
 0.5340	18.6390
 0.5350	18.8220
 0.5360	18.9890
 0.5370	19.1450
 0.5380	19.2900
 0.5390	19.4210
 0.5400	19.5450
 0.5410	19.6600
 0.5420	19.7680
 0.5430	19.8680
 0.5440	19.9620
 0.5450	20.0500
 0.5460	20.1280
 0.5470	20.2010
 0.5480	20.2690
 0.5490	20.3310
 0.5500	20.3820
 0.5510	20.4180
 0.5520	20.4430
 0.5530	20.4590
 0.5540	20.4550
 0.5550	20.4340
 0.5560	20.3950
 0.5570	20.3360
 0.5580	20.2630
 0.5590	20.1780
 0.5600	20.0790
 0.5610	19.9650
 0.5620	19.8380
 0.5630	19.6980
 0.5640	19.5490
 0.5650	19.3940
 0.5660	19.2370
 0.5670	19.0790
 0.5680	18.9160
 0.5690	18.7460
 0.5700	18.5690
 0.5710	18.3880
 0.5720	18.2090
 0.5730	18.0340
 0.5740	17.8650
 0.5750	17.7060
 0.5760	17.5520
 0.5770	17.4070
 0.5780	17.2700
 0.5790	17.1410
 0.5800	17.0170
 0.5810	16.8970
 0.5820	16.7780
 0.5830	16.6590
 0.5840	16.5450
 0.5850	16.4370
 0.5860	16.3360
 0.5870	16.2430
 0.5880	16.1590
 0.5890	16.0860
 0.5900	16.0190
 0.5910	15.9590
 0.5920	15.9020
 0.5930	15.8440
 0.5940	15.7910
 0.5950	15.7440
 0.5960	15.7020
 0.5970	15.6610
 0.5980	15.6130
 0.5990	15.5610
 0.6000	15.5110
 0.6010	15.4530
 0.6020	15.3870
 0.6030	15.3150
 0.6040	15.2390
 0.6050	15.1540
 0.6060	15.0630
 0.6070	14.9660
 0.6080	14.8590
 0.6090	14.7450
 0.6100	14.6250
 0.6110	14.5000
 0.6120	14.3870
 0.6130	14.2750
 0.6140	14.1590
 0.6150	14.0440
 0.6160	13.9290
 0.6170	13.8180
 0.6180	13.7150
 0.6190	13.6210
 0.6200	13.5340
 0.6210	13.4550
 0.6220	13.3830
 0.6230	13.3250
 0.6240	13.2810
 0.6250	13.2460
 0.6260	13.2150
 0.6270	13.1930
 0.6280	13.1760
 0.6290	13.1600
 0.6300	13.1420
 0.6310	13.1230
 0.6320	13.0980
 0.6330	13.0560
 0.6340	12.9960
 0.6350	12.9150
 0.6360	12.8120
 0.6370	12.6880
 0.6380	12.5400
 0.6390	12.3720
 0.6400	12.1910
 0.6410	11.9990
 0.6420	11.7990
 0.6430	11.5950
 0.6440	11.3860
 0.6450	11.1770
 0.6460	10.9720
 0.6470	10.7790
 0.6480	10.5980
 0.6490	10.4370
 0.6500	10.3020
 0.6510	10.1930
 0.6520	10.1040
 0.6530	10.0280
 0.6540	 9.9580
 0.6550	 9.8860
 0.6560	 9.8060
 0.6570	 9.7140
 0.6580	 9.6070
 0.6590	 9.4820
 0.6600	 9.3430
 0.6610	 9.1960
 0.6620	 9.0490
 0.6630	 8.8980
 0.6640	 8.7490
 0.6650	 8.6110
 0.6660	 8.4860
 0.6670	 8.3750
 0.6680	 8.2770
 0.6690	 8.1940
 0.6700	 8.1300
 0.6710	 8.0800
 0.6720	 8.0400
 0.6730	 8.0190
 0.6740	 8.0090
 0.6750	 8.0110
 0.6760	 8.0250
 0.6770	 8.0490
 0.6780	 8.0850
 0.6790	 8.1360
 0.6800	 8.2040
 0.6810	 8.3040
 0.6820	 8.4400
 0.6830	 8.6180
 0.6840	 8.8440
 0.6850	 9.1320
 0.6860	 9.4920
 0.6870	 9.9320
 0.6880	10.4620
 0.6890	11.0880
 0.6900	11.8080
 0.6910	12.6190
 0.6920	13.5140
 0.6930	14.4760
 0.6940	15.4900
 0.6950	16.5430
 0.6960	17.6210
 0.6970	18.7070
 0.6980	19.7880
 0.6990	20.8530
 0.7000	21.8940
 0.7010	22.9030
 0.7020	23.8720
 0.7030	24.7990
 0.7040	25.6810
 0.7050	26.5140
 0.7060	27.3040
 0.7070	28.0510
 0.7080	28.7560
 0.7090	29.4230
 0.7100	30.0530
 0.7110	30.6560
 0.7120	31.2330
 0.7130	31.7770
 0.7140	32.2910
 0.7150	32.7820
 0.7160	33.2520
 0.7170	33.6950
 0.7180	34.1190
 0.7190	34.5250
 0.7200	34.9090
 0.7210	35.2730
 0.7220	35.6190
 0.7230	35.9470
 0.7240	36.2540
 0.7250	36.5420
 0.7260	36.8140
 0.7270	37.0730
 0.7280	37.3160
 0.7290	37.5400
 0.7300	37.7490
 0.7310	37.9470
 0.7320	38.1320
 0.7330	38.3050
 0.7340	38.4650
 0.7350	38.6120
 0.7360	38.7500
 0.7370	38.8800
 0.7380	39.0000
 0.7390	39.1130
 0.7400	39.2190
 0.7410	39.3170
 0.7420	39.4050
 0.7430	39.4880
 0.7440	39.5620
 0.7450	39.6290
 0.7460	39.6930
 0.7470	39.7510
 0.7480	39.8030
 0.7490	39.8500
 0.7500	39.8920
 0.7510	39.9300
 0.7520	39.9650
 0.7530	39.9960
 0.7540	40.0270
 0.7550	40.0550
 0.7560	40.0800
 0.7570	40.1020
 0.7580	40.1220
 0.7590	40.1430
 0.7600	40.1630
 0.7610	40.1790
 0.7620	40.1950
 0.7630	40.2090
 0.7640	40.2210
 0.7650	40.2350
 0.7660	40.2460
 0.7670	40.2560
 0.7680	40.2680
 0.7690	40.2770
 0.7700	40.2850
 0.7710	40.2930
 0.7720	40.3030
 0.7730	40.3140
 0.7740	40.3230
 0.7750	40.3300
 0.7760	40.3360
 0.7770	40.3440
 0.7780	40.3510
 0.7790	40.3550
 0.7800	40.3610
 0.7810	40.3680
 0.7820	40.3770
 0.7830	40.3850
 0.7840	40.3890
 0.7850	40.3910
 0.7860	40.3950
 0.7870	40.4010
 0.7880	40.4020
 0.7890	40.4010
 0.7900	40.4040
 0.7910	40.4040
 0.7920	40.4060
 0.7930	40.4090
 0.7940	40.4070
 0.7950	40.4040
 0.7960	40.4020
 0.7970	40.4020
 0.7980	40.3930
 0.7990	40.3880
 0.8000	40.3860
 0.8010	40.3790
 0.8020	40.3730
 0.8030	40.3650
 0.8040	40.3570
 0.8050	40.3490
 0.8060	40.3410
 0.8070	40.3320
 0.8080	40.3220
 0.8090	40.3150
 0.8100	40.3050
 0.8110	40.2920
 0.8120	40.2780
 0.8130	40.2660
 0.8140	40.2530
 0.8150	40.2400
 0.8160	40.2260
 0.8170	40.2140
 0.8180	40.2000
 0.8190	40.1880
 0.8200	40.1770
 0.8210	40.1640
 0.8220	40.1480
 0.8230	40.1310
 0.8240	40.1180
 0.8250	40.1030
 0.8260	40.0890
 0.8270	40.0750
 0.8280	40.0610
 0.8290	40.0460
 0.8300	40.0310
 0.8310	40.0170
 0.8320	40.0060
 0.8330	39.9920
 0.8340	39.9790
 0.8350	39.9670
 0.8360	39.9570
 0.8370	39.9480
 0.8380	39.9400
 0.8390	39.9310
 0.8400	39.9250
 0.8410	39.9190
 0.8420	39.9110
 0.8430	39.9030
 0.8440	39.8970
 0.8450	39.8940
 0.8460	39.8930
 0.8470	39.8870
 0.8480	39.8800
 0.8490	39.8750
 0.8500	39.8760
 0.8510	39.8740
 0.8520	39.8720
 0.8530	39.8710
 0.8540	39.8710
 0.8550	39.8690
 0.8560	39.8710
 0.8570	39.8750
 0.8580	39.8770
 0.8590	39.8770
 0.8600	39.8770
 0.8610	39.8810
 0.8620	39.8840
 0.8630	39.8890
 0.8640	39.8940
 0.8650	39.8990
 0.8660	39.9060
 0.8670	39.9120
 0.8680	39.9170
 0.8690	39.9210
 0.8700	39.9300
 0.8710	39.9400
 0.8720	39.9470
 0.8730	39.9520
 0.8740	39.9600
 0.8750	39.9670
 0.8760	39.9750
 0.8770	39.9880
 0.8780	39.9980
 0.8790	40.0020
 0.8800	40.0050
 0.8810	40.0140
 0.8820	40.0260
 0.8830	40.0380
 0.8840	40.0470
 0.8850	40.0520
 0.8860	40.0620
 0.8870	40.0730
 0.8880	40.0800
 0.8890	40.0900
 0.8900	40.1030
 0.8910	40.1170
 0.8920	40.1280
 0.8930	40.1350
 0.8940	40.1380
 0.8950	40.1430
 0.8960	40.1550
 0.8970	40.1640
 0.8980	40.1730
 0.8990	40.1810
 0.9000	40.1860
 0.9010	40.1980
 0.9020	40.2080
 0.9030	40.2140
 0.9040	40.2240
 0.9050	40.2310
 0.9060	40.2360
 0.9070	40.2420
 0.9080	40.2510
 0.9090	40.2610
 0.9100	40.2680
 0.9110	40.2720
 0.9120	40.2750
 0.9130	40.2780
 0.9140	40.2830
 0.9150	40.2900
 0.9160	40.2910
 0.9170	40.2940
 0.9180	40.2950
 0.9190	40.2900
 0.9200	40.2900
 0.9210	40.2850
 0.9220	40.2790
 0.9230	40.2800
 0.9240	40.2760
 0.9250	40.2730
 0.9260	40.2680
 0.9270	40.2570
 0.9280	40.2470
 0.9290	40.2340
 0.9300	40.2190
 0.9310	40.2070
 0.9320	40.1990
 0.9330	40.1890
 0.9340	40.1720
 0.9350	40.1510
 0.9360	40.1370
 0.9370	40.1220
 0.9380	40.1000
 0.9390	40.0780
 0.9400	40.0600
 0.9410	40.0430
 0.9420	40.0230
 0.9430	40.0070
 0.9440	39.9790
 0.9450	39.9440
 0.9460	39.9110
 0.9470	39.8890
 0.9480	39.8600
 0.9490	39.8250
 0.9500	39.7870
 0.9510	39.7420
 0.9520	39.7010
 0.9530	39.6580
 0.9540	39.6130
 0.9550	39.5810
 0.9560	39.5400
 0.9570	39.4940
 0.9580	39.4530
 0.9590	39.4150
 0.9600	39.3870
 0.9610	39.3600
 0.9620	39.3290
 0.9630	39.3200
 0.9640	39.2990
 0.9650	39.2730
 0.9660	39.2610
 0.9670	39.2450
 0.9680	39.2350
 0.9690	39.2270
 0.9700	39.2140
 0.9710	39.2020
 0.9720	39.1920
 0.9730	39.1870
 0.9740	39.1900
 0.9750	39.1770
 0.9760	39.1700
 0.9770	39.1740
 0.9780	39.1780
 0.9790	39.1720
 0.9800	39.1710
 0.9810	39.1700
 0.9820	39.1630
 0.9830	39.1580
 0.9840	39.1660
 0.9850	39.1740
 0.9860	39.1670
 0.9870	39.1770
 0.9880	39.2010
 0.9890	39.2150
 0.9900	39.2030
 0.9910	39.2100
 0.9920	39.2130
 0.9930	39.2200
 0.9940	39.2460
 0.9950	39.2610
 0.9960	39.2740
 0.9970	39.2820
 0.9980	39.2790
 0.9990	39.2830
 1.0000	39.3010
 1.0010	40.5490
 1.0020	40.5540
 1.0030	40.5610
 1.0040	40.5730
 1.0050	40.5820
 1.0060	40.5950
 1.0070	40.6110
 1.0080	40.6230
 1.0090	40.6360
 1.0100	40.6460
 1.0110	40.6500
 1.0120	40.6580
 1.0130	40.6650
 1.0140	40.6720
 1.0150	40.6790
 1.0160	40.6860
 1.0170	40.6930
 1.0180	40.7030
 1.0190	40.7150
 1.0200	40.7240
 1.0210	40.7320
 1.0220	40.7380
 1.0230	40.7460
 1.0240	40.7550
 1.0250	40.7640
 1.0260	40.7760
 1.0270	40.7850
 1.0280	40.7890
 1.0290	40.7990
 1.0300	40.8110
 1.0310	40.8220
 1.0320	40.8350
 1.0330	40.8480
 1.0340	40.8580
 1.0350	40.8650
 1.0360	40.8670
 1.0370	40.8700
 1.0380	40.8740
 1.0390	40.8720
 1.0400	40.8780
 1.0410	40.8920
 1.0420	40.8990
 1.0430	40.9080
 1.0440	40.9150
 1.0450	40.9150
 1.0460	40.9190
 1.0470	40.9240
 1.0480	40.9300
 1.0490	40.9370
 1.0500	40.9420
 1.0510	40.9470
 1.0520	40.9510
 1.0530	40.9520
 1.0540	40.9490
 1.0550	40.9500
 1.0560	40.9480
 1.0570	40.9510
 1.0580	40.9580
 1.0590	40.9600
 1.0600	40.9620
 1.0610	40.9640
 1.0620	40.9630
 1.0630	40.9630
 1.0640	40.9620
 1.0650	40.9610
 1.0660	40.9590
 1.0670	40.9560
 1.0680	40.9530
 1.0690	40.9500
 1.0700	40.9440
 1.0710	40.9360
 1.0720	40.9310
 1.0730	40.9260
 1.0740	40.9210
 1.0750	40.9190
 1.0760	40.9150
 1.0770	40.9100
 1.0780	40.9060
 1.0790	40.9020
 1.0800	40.8980
 1.0810	40.8940
 1.0820	40.8900
 1.0830	40.8850
 1.0840	40.8790
 1.0850	40.8710
 1.0860	40.8630
 1.0870	40.8560
 1.0880	40.8480
 1.0890	40.8410
 1.0900	40.8350
 1.0910	40.8290
 1.0920	40.8240
 1.0930	40.8180
 1.0940	40.8110
 1.0950	40.8030
 1.0960	40.7930
 1.0970	40.7860
 1.0980	40.7810
 1.0990	40.7740
 1.1000	40.7650
 1.1010	40.7590
 1.1020	40.7520
 1.1030	40.7450
 1.1040	40.7390
 1.1050	40.7320
 1.1060	40.7240
 1.1070	40.7120
 1.1080	40.7050
 1.1090	40.7000
 1.1100	40.6910
 1.1110	40.6820
 1.1120	40.6730
 1.1130	40.6620
 1.1140	40.6520
 1.1150	40.6440
 1.1160	40.6330
 1.1170	40.6200
 1.1180	40.6070
 1.1190	40.5930
 1.1200	40.5760
 1.1210	40.5560
 1.1220	40.5350
 1.1230	40.5110
 1.1240	40.4850
 1.1250	40.4570
 1.1260	40.4290
 1.1270	40.3950
 1.1280	40.3580
 1.1290	40.3170
 1.1300	40.2720
 1.1310	40.2220
 1.1320	40.1680
 1.1330	40.1100
 1.1340	40.0480
 1.1350	39.9810
 1.1360	39.9090
 1.1370	39.8300
 1.1380	39.7490
 1.1390	39.6640
 1.1400	39.5760
 1.1410	39.4870
 1.1420	39.3960
 1.1430	39.3030
 1.1440	39.2110
 1.1450	39.1170
 1.1460	39.0260
 1.1470	38.9330
 1.1480	38.8480
 1.1490	38.7650
 1.1500	38.6890
 1.1510	38.6190
 1.1520	38.5520
 1.1530	38.4890
 1.1540	38.4330
 1.1550	38.3810
 1.1560	38.3340
 1.1570	38.2930
 1.1580	38.2590
 1.1590	38.2290
 1.1600	38.2030
 1.1610	38.1790
 1.1620	38.1580
 1.1630	38.1410
 1.1640	38.1270
 1.1650	38.1140
 1.1660	38.1050
 1.1670	38.0950
 1.1680	38.0850
 1.1690	38.0770
 1.1700	38.0680
 1.1710	38.0630
 1.1720	38.0610
 1.1730	38.0560
 1.1740	38.0520
 1.1750	38.0460
 1.1760	38.0380
 1.1770	38.0310
 1.1780	38.0250
 1.1790	38.0190
 1.1800	38.0120
 1.1810	38.0050
 1.1820	37.9980
 1.1830	37.9910
 1.1840	37.9830
 1.1850	37.9740
 1.1860	37.9660
 1.1870	37.9570
 1.1880	37.9500
 1.1890	37.9470
 1.1900	37.9410
 1.1910	37.9360
 1.1920	37.9310
 1.1930	37.9260
 1.1940	37.9210
 1.1950	37.9180
 1.1960	37.9160
 1.1970	37.9140
 1.1980	37.9110
 1.1990	37.9090
 1.2000	37.9060
 1.2010	37.9060
 1.2020	37.9070
 1.2030	37.9090
 1.2040	37.9120
 1.2050	37.9170
 1.2060	37.9220
 1.2070	37.9290
 1.2080	37.9370
 1.2090	37.9430
 1.2100	37.9490
 1.2110	37.9560
 1.2120	37.9630
 1.2130	37.9710
 1.2140	37.9810
 1.2150	37.9900
 1.2160	38.0000
 1.2170	38.0110
 1.2180	38.0210
 1.2190	38.0300
 1.2200	38.0410
 1.2210	38.0510
 1.2220	38.0640
 1.2230	38.0760
 1.2240	38.0880
 1.2250	38.0960
 1.2260	38.1060
 1.2270	38.1180
 1.2280	38.1290
 1.2290	38.1410
 1.2300	38.1530
 1.2310	38.1620
 1.2320	38.1700
 1.2330	38.1790
 1.2340	38.1870
 1.2350	38.1930
 1.2360	38.1990
 1.2370	38.2040
 1.2380	38.2100
 1.2390	38.2160
 1.2400	38.2220
 1.2410	38.2280
 1.2420	38.2340
 1.2430	38.2380
 1.2440	38.2430
 1.2450	38.2470
 1.2460	38.2500
 1.2470	38.2530
 1.2480	38.2550
 1.2490	38.2590
 1.2500	38.2610
 1.2510	38.2620
 1.2520	38.2630
 1.2530	38.2630
 1.2540	38.2650
 1.2550	38.2680
 1.2560	38.2670
 1.2570	38.2680
 1.2580	38.2670
 1.2590	38.2640
 1.2600	38.2610
 1.2610	38.2570
 1.2620	38.2520
 1.2630	38.2450
 1.2640	38.2400
 1.2650	38.2340
 1.2660	38.2290
 1.2670	38.2240
 1.2680	38.2180
 1.2690	38.2120
 1.2700	38.2030
 1.2710	38.1950
 1.2720	38.1860
 1.2730	38.1750
 1.2740	38.1630
 1.2750	38.1490
 1.2760	38.1360
 1.2770	38.1230
 1.2780	38.1080
 1.2790	38.0930
 1.2800	38.0750
 1.2810	38.0560
 1.2820	38.0370
 1.2830	38.0150
 1.2840	37.9920
 1.2850	37.9680
 1.2860	37.9430
 1.2870	37.9170
 1.2880	37.8880
 1.2890	37.8580
 1.2900	37.8270
 1.2910	37.7940
 1.2920	37.7590
 1.2930	37.7230
 1.2940	37.6850
 1.2950	37.6450
 1.2960	37.6040
 1.2970	37.5630
 1.2980	37.5190
 1.2990	37.4740
 1.3000	37.4270
 1.3010	37.3790
 1.3020	37.3300
 1.3030	37.2800
 1.3040	37.2270
 1.3050	37.1750
 1.3060	37.1180
 1.3070	37.0610
 1.3080	37.0060
 1.3090	36.9480
 1.3100	36.8880
 1.3110	36.8260
 1.3120	36.7620
 1.3130	36.6970
 1.3140	36.6310
 1.3150	36.5650
 1.3160	36.4960
 1.3170	36.4250
 1.3180	36.3530
 1.3190	36.2780
 1.3200	36.2030
 1.3210	36.1280
 1.3220	36.0510
 1.3230	35.9730
 1.3240	35.8940
 1.3250	35.8120
 1.3260	35.7280
 1.3270	35.6460
 1.3280	35.5600
 1.3290	35.4720
 1.3300	35.3850
 1.3310	35.2960
 1.3320	35.2050
 1.3330	35.1150
 1.3340	35.0240
 1.3350	34.9320
 1.3360	34.8400
 1.3370	34.7480
 1.3380	34.6570
 1.3390	34.5650
 1.3400	34.4740
 1.3410	34.3830
 1.3420	34.2920
 1.3430	34.2030
 1.3440	34.1160
 1.3450	34.0270
 1.3460	33.9380
 1.3470	33.8520
 1.3480	33.7650
 1.3490	33.6800
 1.3500	33.5960
 1.3510	33.5120
 1.3520	33.4260
 1.3530	33.3420
 1.3540	33.2570
 1.3550	33.1710
 1.3560	33.0870
 1.3570	33.0000
 1.3580	32.9120
 1.3590	32.8210
 1.3600	32.7270
 1.3610	32.6300
 1.3620	32.5270
 1.3630	32.4200
 1.3640	32.3080
 1.3650	32.1890
 1.3660	32.0660
 1.3670	31.9360
 1.3680	31.7970
 1.3690	31.6480
 1.3700	31.4870
 1.3710	31.3150
 1.3720	31.1300
 1.3730	30.9310
 1.3740	30.7200
 1.3750	30.4910
 1.3760	30.2440
 1.3770	29.9790
 1.3780	29.6950
 1.3790	29.3930
 1.3800	29.0730
 1.3810	28.7330
 1.3820	28.3770
 1.3830	28.0040
 1.3840	27.6130
 1.3850	27.2040
 1.3860	26.7830
 1.3870	26.3420
 1.3880	25.8970
 1.3890	25.4390
 1.3900	24.9730
 1.3910	24.5070
 1.3920	24.0350
 1.3930	23.5600
 1.3940	23.0900
 1.3950	22.6180
 1.3960	22.1520
 1.3970	21.6960
 1.3980	21.2490
 1.3990	20.8190
 1.4000	20.4040
 1.4010	20.0010
 1.4020	19.6150
 1.4030	19.2430
 1.4040	18.8890
 1.4050	18.5540
 1.4060	18.2370
 1.4070	17.9420
 1.4080	17.6650
 1.4090	17.4030
 1.4100	17.1610
 1.4110	16.9340
 1.4120	16.7230
 1.4130	16.5290
 1.4140	16.3500
 1.4150	16.1860
 1.4160	16.0360
 1.4170	15.8980
 1.4180	15.7730
 1.4190	15.6560
 1.4200	15.5490
 1.4210	15.4520
 1.4220	15.3640
 1.4230	15.2850
 1.4240	15.2150
 1.4250	15.1510
 1.4260	15.0940
 1.4270	15.0420
 1.4280	14.9960
 1.4290	14.9550
 1.4300	14.9190
 1.4310	14.8890
 1.4320	14.8640
 1.4330	14.8430
 1.4340	14.8260
 1.4350	14.8110
 1.4360	14.8000
 1.4370	14.7920
 1.4380	14.7870
 1.4390	14.7850
 1.4400	14.7860
 1.4410	14.7900
 1.4420	14.7960
 1.4430	14.8030
 1.4440	14.8120
 1.4450	14.8220
 1.4460	14.8340
 1.4470	14.8480
 1.4480	14.8630
 1.4490	14.8790
 1.4500	14.8950
 1.4510	14.9130
 1.4520	14.9330
 1.4530	14.9540
 1.4540	14.9760
 1.4550	15.0000
 1.4560	15.0250
 1.4570	15.0520
 1.4580	15.0830
 1.4590	15.1170
 1.4600	15.1560
 1.4610	15.1970
 1.4620	15.2420
 1.4630	15.2910
 1.4640	15.3430
 1.4650	15.3990
 1.4660	15.4600
 1.4670	15.5250
 1.4680	15.5950
 1.4690	15.6680
 1.4700	15.7450
 1.4710	15.8260
 1.4720	15.9090
 1.4730	15.9940
 1.4740	16.0840
 1.4750	16.1760
 1.4760	16.2730
 1.4770	16.3720
