Name: Quercus agrifolia 1
Type: vegetation
Class: Tree
Genus: Quercus
Species: agrifolia
Sample No.: VH172
Owner: UCSB
Wavelength Range: VSWIR
Origin: 34.7153; -120.0601; WGS84
Collection Date: 6/9/2013
Description: Samples were collected as part of the HyspIRI Airborne Campaign. 48 individual plants were sampled in three times in 2013 - spring  summer  and fall. The name of the sample includes a 1  2  or 3 which references a different individual of the species. Samples were taken to JPL and processed within 48 hours of collection. The same leaves were processed in the Nicolet and then measured using the ASD.
Measurement: Bidirectional reflectance
First Column: X
Second Column: Y
X Units: Wavelength (micrometers)
Y Units: Reflectance (percentage)
First X Value: 0.35
Last X Value: 2.5
Number of X Values: 2151
Additional Information: vegetation.tree.quercus.agrifolia.vswir.vh172.ucsb.asd.ancillary.txt

 0.3500	 3.0420
 0.3510	 3.2670
 0.3520	 3.2500
 0.3530	 3.1540
 0.3540	 3.1870
 0.3550	 3.2240
 0.3560	 3.1610
 0.3570	 3.1070
 0.3580	 3.2300
 0.3590	 3.3060
 0.3600	 3.2230
 0.3610	 3.0480
 0.3620	 3.0680
 0.3630	 3.0760
 0.3640	 3.0400
 0.3650	 3.0020
 0.3660	 3.1210
 0.3670	 3.2080
 0.3680	 3.2150
 0.3690	 3.2060
 0.3700	 3.2350
 0.3710	 3.2580
 0.3720	 3.2410
 0.3730	 3.1870
 0.3740	 3.2350
 0.3750	 3.2670
 0.3760	 3.1580
 0.3770	 3.1500
 0.3780	 3.1750
 0.3790	 3.1960
 0.3800	 3.1940
 0.3810	 3.1690
 0.3820	 3.1410
 0.3830	 3.1270
 0.3840	 3.1520
 0.3850	 3.1320
 0.3860	 3.1140
 0.3870	 3.1630
 0.3880	 3.1260
 0.3890	 3.1280
 0.3900	 3.1670
 0.3910	 3.1120
 0.3920	 3.0740
 0.3930	 3.0940
 0.3940	 3.1610
 0.3950	 3.1290
 0.3960	 3.1170
 0.3970	 3.1280
 0.3980	 3.1230
 0.3990	 3.1320
 0.4000	 3.1390
 0.4010	 3.1390
 0.4020	 3.1660
 0.4030	 3.1990
 0.4040	 3.2100
 0.4050	 3.1890
 0.4060	 3.1780
 0.4070	 3.1730
 0.4080	 3.1750
 0.4090	 3.1750
 0.4100	 3.1820
 0.4110	 3.1870
 0.4120	 3.1890
 0.4130	 3.2140
 0.4140	 3.2170
 0.4150	 3.2160
 0.4160	 3.2260
 0.4170	 3.2270
 0.4180	 3.2400
 0.4190	 3.2590
 0.4200	 3.2590
 0.4210	 3.2660
 0.4220	 3.2770
 0.4230	 3.2840
 0.4240	 3.2850
 0.4250	 3.2920
 0.4260	 3.3010
 0.4270	 3.3060
 0.4280	 3.3180
 0.4290	 3.3260
 0.4300	 3.3210
 0.4310	 3.3120
 0.4320	 3.3380
 0.4330	 3.3690
 0.4340	 3.3730
 0.4350	 3.3840
 0.4360	 3.3800
 0.4370	 3.3740
 0.4380	 3.3840
 0.4390	 3.3760
 0.4400	 3.3690
 0.4410	 3.3790
 0.4420	 3.3730
 0.4430	 3.3780
 0.4440	 3.3860
 0.4450	 3.3840
 0.4460	 3.3850
 0.4470	 3.3950
 0.4480	 3.4100
 0.4490	 3.4120
 0.4500	 3.4140
 0.4510	 3.4250
 0.4520	 3.4400
 0.4530	 3.4320
 0.4540	 3.4360
 0.4550	 3.4520
 0.4560	 3.4550
 0.4570	 3.4410
 0.4580	 3.4350
 0.4590	 3.4500
 0.4600	 3.4590
 0.4610	 3.4630
 0.4620	 3.4580
 0.4630	 3.4460
 0.4640	 3.4540
 0.4650	 3.4530
 0.4660	 3.4450
 0.4670	 3.4390
 0.4680	 3.4440
 0.4690	 3.4550
 0.4700	 3.4610
 0.4710	 3.4490
 0.4720	 3.4490
 0.4730	 3.4630
 0.4740	 3.4650
 0.4750	 3.4570
 0.4760	 3.4560
 0.4770	 3.4610
 0.4780	 3.4590
 0.4790	 3.4550
 0.4800	 3.4540
 0.4810	 3.4590
 0.4820	 3.4710
 0.4830	 3.4820
 0.4840	 3.4850
 0.4850	 3.4790
 0.4860	 3.4780
 0.4870	 3.4890
 0.4880	 3.5020
 0.4890	 3.5050
 0.4900	 3.5080
 0.4910	 3.5180
 0.4920	 3.5320
 0.4930	 3.5350
 0.4940	 3.5420
 0.4950	 3.5570
 0.4960	 3.5710
 0.4970	 3.5820
 0.4980	 3.5990
 0.4990	 3.6240
 0.5000	 3.6350
 0.5010	 3.6530
 0.5020	 3.6810
 0.5030	 3.7090
 0.5040	 3.7340
 0.5050	 3.7600
 0.5060	 3.7990
 0.5070	 3.8480
 0.5080	 3.8890
 0.5090	 3.9310
 0.5100	 3.9880
 0.5110	 4.0530
 0.5120	 4.1190
 0.5130	 4.1850
 0.5140	 4.2610
 0.5150	 4.3540
 0.5160	 4.4490
 0.5170	 4.5500
 0.5180	 4.6580
 0.5190	 4.7760
 0.5200	 4.8960
 0.5210	 5.0200
 0.5220	 5.1460
 0.5230	 5.2730
 0.5240	 5.4030
 0.5250	 5.5280
 0.5260	 5.6430
 0.5270	 5.7550
 0.5280	 5.8690
 0.5290	 5.9740
 0.5300	 6.0690
 0.5310	 6.1540
 0.5320	 6.2390
 0.5330	 6.3080
 0.5340	 6.3730
 0.5350	 6.4320
 0.5360	 6.4920
 0.5370	 6.5410
 0.5380	 6.5850
 0.5390	 6.6240
 0.5400	 6.6640
 0.5410	 6.7080
 0.5420	 6.7550
 0.5430	 6.7980
 0.5440	 6.8320
 0.5450	 6.8600
 0.5460	 6.8870
 0.5470	 6.8900
 0.5480	 6.8900
 0.5490	 6.9040
 0.5500	 6.9190
 0.5510	 6.9280
 0.5520	 6.9270
 0.5530	 6.9170
 0.5540	 6.9070
 0.5550	 6.8870
 0.5560	 6.8580
 0.5570	 6.8160
 0.5580	 6.7710
 0.5590	 6.7140
 0.5600	 6.6540
 0.5610	 6.5920
 0.5620	 6.5280
 0.5630	 6.4590
 0.5640	 6.3830
 0.5650	 6.2990
 0.5660	 6.2040
 0.5670	 6.1000
 0.5680	 5.9990
 0.5690	 5.9070
 0.5700	 5.8160
 0.5710	 5.7260
 0.5720	 5.6390
 0.5730	 5.5620
 0.5740	 5.4960
 0.5750	 5.4520
 0.5760	 5.4080
 0.5770	 5.3630
 0.5780	 5.3120
 0.5790	 5.2700
 0.5800	 5.2220
 0.5810	 5.1740
 0.5820	 5.1360
 0.5830	 5.1020
 0.5840	 5.0630
 0.5850	 5.0200
 0.5860	 4.9820
 0.5870	 4.9380
 0.5880	 4.8980
 0.5890	 4.8630
 0.5900	 4.8460
 0.5910	 4.8380
 0.5920	 4.8320
 0.5930	 4.8280
 0.5940	 4.8190
 0.5950	 4.8040
 0.5960	 4.7880
 0.5970	 4.7680
 0.5980	 4.7490
 0.5990	 4.7320
 0.6000	 4.7160
 0.6010	 4.7010
 0.6020	 4.6750
 0.6030	 4.6530
 0.6040	 4.6380
 0.6050	 4.6110
 0.6060	 4.5800
 0.6070	 4.5540
 0.6080	 4.5240
 0.6090	 4.4940
 0.6100	 4.4750
 0.6110	 4.4630
 0.6120	 4.4250
 0.6130	 4.3790
 0.6140	 4.3370
 0.6150	 4.3070
 0.6160	 4.2710
 0.6170	 4.2400
 0.6180	 4.2170
 0.6190	 4.1980
 0.6200	 4.1810
 0.6210	 4.1620
 0.6220	 4.1480
 0.6230	 4.1300
 0.6240	 4.1160
 0.6250	 4.1080
 0.6260	 4.1040
 0.6270	 4.0960
 0.6280	 4.0870
 0.6290	 4.0820
 0.6300	 4.0810
 0.6310	 4.0810
 0.6320	 4.0760
 0.6330	 4.0660
 0.6340	 4.0620
 0.6350	 4.0530
 0.6360	 4.0390
 0.6370	 4.0210
 0.6380	 4.0020
 0.6390	 3.9810
 0.6400	 3.9540
 0.6410	 3.9290
 0.6420	 3.9050
 0.6430	 3.8790
 0.6440	 3.8530
 0.6450	 3.8250
 0.6460	 3.7980
 0.6470	 3.7760
 0.6480	 3.7530
 0.6490	 3.7330
 0.6500	 3.7170
 0.6510	 3.7080
 0.6520	 3.6940
 0.6530	 3.6750
 0.6540	 3.6590
 0.6550	 3.6480
 0.6560	 3.6320
 0.6570	 3.6140
 0.6580	 3.6010
 0.6590	 3.5810
 0.6600	 3.5600
 0.6610	 3.5400
 0.6620	 3.5280
 0.6630	 3.5100
 0.6640	 3.4970
 0.6650	 3.4890
 0.6660	 3.4790
 0.6670	 3.4720
 0.6680	 3.4690
 0.6690	 3.4630
 0.6700	 3.4610
 0.6710	 3.4600
 0.6720	 3.4660
 0.6730	 3.4710
 0.6740	 3.4760
 0.6750	 3.4850
 0.6760	 3.4970
 0.6770	 3.5100
 0.6780	 3.5250
 0.6790	 3.5400
 0.6800	 3.5580
 0.6810	 3.5780
 0.6820	 3.6020
 0.6830	 3.6290
 0.6840	 3.6570
 0.6850	 3.6930
 0.6860	 3.7350
 0.6870	 3.7830
 0.6880	 3.8420
 0.6890	 3.9090
 0.6900	 3.9950
 0.6910	 4.1000
 0.6920	 4.2340
 0.6930	 4.3970
 0.6940	 4.5940
 0.6950	 4.8260
 0.6960	 5.1060
 0.6970	 5.4310
 0.6980	 5.8030
 0.6990	 6.2220
 0.7000	 6.6930
 0.7010	 7.2020
 0.7020	 7.7510
 0.7030	 8.3360
 0.7040	 8.9490
 0.7050	 9.5850
 0.7060	10.2410
 0.7070	10.9100
 0.7080	11.5870
 0.7090	12.2680
 0.7100	12.9550
 0.7110	13.6470
 0.7120	14.3380
 0.7130	15.0280
 0.7140	15.7150
 0.7150	16.3960
 0.7160	17.0700
 0.7170	17.7360
 0.7180	18.3930
 0.7190	19.0400
 0.7200	19.6730
 0.7210	20.2920
 0.7220	20.8980
 0.7230	21.4900
 0.7240	22.0620
 0.7250	22.6160
 0.7260	23.1500
 0.7270	23.6640
 0.7280	24.1600
 0.7290	24.6320
 0.7300	25.0830
 0.7310	25.5140
 0.7320	25.9250
 0.7330	26.3170
 0.7340	26.6900
 0.7350	27.0400
 0.7360	27.3670
 0.7370	27.6780
 0.7380	27.9770
 0.7390	28.2560
 0.7400	28.5180
 0.7410	28.7650
 0.7420	28.9970
 0.7430	29.2170
 0.7440	29.4220
 0.7450	29.6100
 0.7460	29.7820
 0.7470	29.9450
 0.7480	30.0950
 0.7490	30.2300
 0.7500	30.3590
 0.7510	30.4790
 0.7520	30.5900
 0.7530	30.6920
 0.7540	30.7790
 0.7550	30.8580
 0.7560	30.9320
 0.7570	30.9950
 0.7580	31.0590
 0.7590	31.1180
 0.7600	31.1730
 0.7610	31.2310
 0.7620	31.2700
 0.7630	31.2990
 0.7640	31.3360
 0.7650	31.3760
 0.7660	31.4050
 0.7670	31.4270
 0.7680	31.4560
 0.7690	31.4820
 0.7700	31.5020
 0.7710	31.5190
 0.7720	31.5360
 0.7730	31.5540
 0.7740	31.5720
 0.7750	31.5880
 0.7760	31.6030
 0.7770	31.6130
 0.7780	31.6210
 0.7790	31.6290
 0.7800	31.6390
 0.7810	31.6520
 0.7820	31.6670
 0.7830	31.6800
 0.7840	31.6880
 0.7850	31.6940
 0.7860	31.6990
 0.7870	31.7120
 0.7880	31.7170
 0.7890	31.7220
 0.7900	31.7340
 0.7910	31.7400
 0.7920	31.7450
 0.7930	31.7510
 0.7940	31.7550
 0.7950	31.7580
 0.7960	31.7620
 0.7970	31.7680
 0.7980	31.7780
 0.7990	31.7780
 0.8000	31.7710
 0.8010	31.7660
 0.8020	31.7760
 0.8030	31.7780
 0.8040	31.7750
 0.8050	31.7740
 0.8060	31.7700
 0.8070	31.7690
 0.8080	31.7690
 0.8090	31.7610
 0.8100	31.7580
 0.8110	31.7610
 0.8120	31.7660
 0.8130	31.7620
 0.8140	31.7540
 0.8150	31.7480
 0.8160	31.7500
 0.8170	31.7490
 0.8180	31.7340
 0.8190	31.7190
 0.8200	31.7240
 0.8210	31.7270
 0.8220	31.7250
 0.8230	31.7170
 0.8240	31.7020
 0.8250	31.6980
 0.8260	31.6930
 0.8270	31.6820
 0.8280	31.6830
 0.8290	31.6770
 0.8300	31.6690
 0.8310	31.6650
 0.8320	31.6610
 0.8330	31.6570
 0.8340	31.6510
 0.8350	31.6410
 0.8360	31.6380
 0.8370	31.6350
 0.8380	31.6320
 0.8390	31.6330
 0.8400	31.6230
 0.8410	31.6160
 0.8420	31.6210
 0.8430	31.6290
 0.8440	31.6250
 0.8450	31.6190
 0.8460	31.6210
 0.8470	31.6200
 0.8480	31.6220
 0.8490	31.6240
 0.8500	31.6220
 0.8510	31.6200
 0.8520	31.6220
 0.8530	31.6260
 0.8540	31.6230
 0.8550	31.6210
 0.8560	31.6230
 0.8570	31.6270
 0.8580	31.6290
 0.8590	31.6340
 0.8600	31.6380
 0.8610	31.6390
 0.8620	31.6410
 0.8630	31.6340
 0.8640	31.6330
 0.8650	31.6480
 0.8660	31.6480
 0.8670	31.6500
 0.8680	31.6530
 0.8690	31.6540
 0.8700	31.6520
 0.8710	31.6520
 0.8720	31.6540
 0.8730	31.6580
 0.8740	31.6640
 0.8750	31.6700
 0.8760	31.6750
 0.8770	31.6850
 0.8780	31.6850
 0.8790	31.6890
 0.8800	31.7020
 0.8810	31.7040
 0.8820	31.7050
 0.8830	31.7040
 0.8840	31.7020
 0.8850	31.6960
 0.8860	31.7000
 0.8870	31.7120
 0.8880	31.7250
 0.8890	31.7240
 0.8900	31.7230
 0.8910	31.7240
 0.8920	31.7250
 0.8930	31.7300
 0.8940	31.7370
 0.8950	31.7420
 0.8960	31.7420
 0.8970	31.7420
 0.8980	31.7430
 0.8990	31.7470
 0.9000	31.7520
 0.9010	31.7530
 0.9020	31.7540
 0.9030	31.7580
 0.9040	31.7720
 0.9050	31.7750
 0.9060	31.7740
 0.9070	31.7750
 0.9080	31.7800
 0.9090	31.7780
 0.9100	31.7750
 0.9110	31.7770
 0.9120	31.7830
 0.9130	31.7910
 0.9140	31.7940
 0.9150	31.7930
 0.9160	31.7980
 0.9170	31.7990
 0.9180	31.7940
 0.9190	31.7880
 0.9200	31.7930
 0.9210	31.8020
 0.9220	31.8060
 0.9230	31.7990
 0.9240	31.7900
 0.9250	31.7830
 0.9260	31.7790
 0.9270	31.7800
 0.9280	31.7680
 0.9290	31.7610
 0.9300	31.7560
 0.9310	31.7380
 0.9320	31.7260
 0.9330	31.7220
 0.9340	31.7210
 0.9350	31.7170
 0.9360	31.7030
 0.9370	31.6820
 0.9380	31.6590
 0.9390	31.6430
 0.9400	31.6360
 0.9410	31.6290
 0.9420	31.6120
 0.9430	31.5780
 0.9440	31.5560
 0.9450	31.5510
 0.9460	31.5490
 0.9470	31.5200
 0.9480	31.4830
 0.9490	31.4500
 0.9500	31.4230
 0.9510	31.3910
 0.9520	31.3530
 0.9530	31.3170
 0.9540	31.2890
 0.9550	31.2480
 0.9560	31.2130
 0.9570	31.1830
 0.9580	31.1520
 0.9590	31.1010
 0.9600	31.0770
 0.9610	31.0600
 0.9620	31.0240
 0.9630	31.0050
 0.9640	30.9830
 0.9650	30.9650
 0.9660	30.9600
 0.9670	30.9430
 0.9680	30.9370
 0.9690	30.9380
 0.9700	30.9350
 0.9710	30.9180
 0.9720	30.9050
 0.9730	30.8990
 0.9740	30.8960
 0.9750	30.8800
 0.9760	30.8690
 0.9770	30.8680
 0.9780	30.8740
 0.9790	30.8930
 0.9800	30.8970
 0.9810	30.8900
 0.9820	30.8890
 0.9830	30.8780
 0.9840	30.8850
 0.9850	30.9060
 0.9860	30.9220
 0.9870	30.9190
 0.9880	30.9130
 0.9890	30.9210
 0.9900	30.9470
 0.9910	30.9600
 0.9920	30.9660
 0.9930	30.9770
 0.9940	30.9980
 0.9950	31.0020
 0.9960	31.0120
 0.9970	31.0330
 0.9980	31.0570
 0.9990	31.0670
 1.0000	31.1530
 1.0010	31.3030
 1.0020	31.3900
 1.0030	31.4020
 1.0040	31.4150
 1.0050	31.4290
 1.0060	31.4400
 1.0070	31.4510
 1.0080	31.4620
 1.0090	31.4720
 1.0100	31.4840
 1.0110	31.4940
 1.0120	31.5060
 1.0130	31.5230
 1.0140	31.5350
 1.0150	31.5470
 1.0160	31.5590
 1.0170	31.5710
 1.0180	31.5770
 1.0190	31.5860
 1.0200	31.5980
 1.0210	31.6070
 1.0220	31.6210
 1.0230	31.6310
 1.0240	31.6420
 1.0250	31.6510
 1.0260	31.6550
 1.0270	31.6620
 1.0280	31.6710
 1.0290	31.6810
 1.0300	31.6950
 1.0310	31.7050
 1.0320	31.7160
 1.0330	31.7220
 1.0340	31.7290
 1.0350	31.7380
 1.0360	31.7480
 1.0370	31.7620
 1.0380	31.7710
 1.0390	31.7790
 1.0400	31.7890
 1.0410	31.7970
 1.0420	31.8060
 1.0430	31.8180
 1.0440	31.8270
 1.0450	31.8330
 1.0460	31.8400
 1.0470	31.8460
 1.0480	31.8530
 1.0490	31.8610
 1.0500	31.8670
 1.0510	31.8720
 1.0520	31.8770
 1.0530	31.8840
 1.0540	31.8910
 1.0550	31.8960
 1.0560	31.9020
 1.0570	31.9060
 1.0580	31.9090
 1.0590	31.9120
 1.0600	31.9160
 1.0610	31.9180
 1.0620	31.9170
 1.0630	31.9170
 1.0640	31.9190
 1.0650	31.9190
 1.0660	31.9170
 1.0670	31.9160
 1.0680	31.9150
 1.0690	31.9130
 1.0700	31.9120
 1.0710	31.9120
 1.0720	31.9120
 1.0730	31.9140
 1.0740	31.9130
 1.0750	31.9150
 1.0760	31.9130
 1.0770	31.9080
 1.0780	31.9030
 1.0790	31.8930
 1.0800	31.8870
 1.0810	31.8820
 1.0820	31.8770
 1.0830	31.8720
 1.0840	31.8680
 1.0850	31.8630
 1.0860	31.8580
 1.0870	31.8550
 1.0880	31.8560
 1.0890	31.8530
 1.0900	31.8480
 1.0910	31.8430
 1.0920	31.8360
 1.0930	31.8310
 1.0940	31.8260
 1.0950	31.8220
 1.0960	31.8180
 1.0970	31.8140
 1.0980	31.8100
 1.0990	31.8050
 1.1000	31.7990
 1.1010	31.7940
 1.1020	31.7880
 1.1030	31.7810
 1.1040	31.7740
 1.1050	31.7680
 1.1060	31.7620
 1.1070	31.7560
 1.1080	31.7490
 1.1090	31.7430
 1.1100	31.7360
 1.1110	31.7280
 1.1120	31.7190
 1.1130	31.7110
 1.1140	31.7020
 1.1150	31.6910
 1.1160	31.6810
 1.1170	31.6730
 1.1180	31.6610
 1.1190	31.6450
 1.1200	31.6310
 1.1210	31.6140
 1.1220	31.5940
 1.1230	31.5740
 1.1240	31.5530
 1.1250	31.5280
 1.1260	31.5030
 1.1270	31.4710
 1.1280	31.4370
 1.1290	31.3980
 1.1300	31.3560
 1.1310	31.3090
 1.1320	31.2590
 1.1330	31.2040
 1.1340	31.1440
 1.1350	31.0800
 1.1360	31.0110
 1.1370	30.9390
 1.1380	30.8630
 1.1390	30.7840
 1.1400	30.7010
 1.1410	30.6170
 1.1420	30.5330
 1.1430	30.4470
 1.1440	30.3590
 1.1450	30.2690
 1.1460	30.1800
 1.1470	30.0870
 1.1480	30.0010
 1.1490	29.9160
 1.1500	29.8370
 1.1510	29.7630
 1.1520	29.6930
 1.1530	29.6270
 1.1540	29.5680
 1.1550	29.5130
 1.1560	29.4620
 1.1570	29.4150
 1.1580	29.3740
 1.1590	29.3380
 1.1600	29.3060
 1.1610	29.2800
 1.1620	29.2580
 1.1630	29.2360
 1.1640	29.2190
 1.1650	29.2040
 1.1660	29.1920
 1.1670	29.1800
 1.1680	29.1710
 1.1690	29.1640
 1.1700	29.1580
 1.1710	29.1530
 1.1720	29.1520
 1.1730	29.1470
 1.1740	29.1420
 1.1750	29.1370
 1.1760	29.1310
 1.1770	29.1220
 1.1780	29.1120
 1.1790	29.1030
 1.1800	29.0930
 1.1810	29.0810
 1.1820	29.0700
 1.1830	29.0600
 1.1840	29.0490
 1.1850	29.0390
 1.1860	29.0310
 1.1870	29.0220
 1.1880	29.0140
 1.1890	29.0050
 1.1900	28.9980
 1.1910	28.9910
 1.1920	28.9860
 1.1930	28.9850
 1.1940	28.9820
 1.1950	28.9800
 1.1960	28.9770
 1.1970	28.9730
 1.1980	28.9710
 1.1990	28.9710
 1.2000	28.9720
 1.2010	28.9730
 1.2020	28.9760
 1.2030	28.9790
 1.2040	28.9830
 1.2050	28.9880
 1.2060	28.9950
 1.2070	29.0050
 1.2080	29.0140
 1.2090	29.0240
 1.2100	29.0360
 1.2110	29.0490
 1.2120	29.0600
 1.2130	29.0740
 1.2140	29.0890
 1.2150	29.1060
 1.2160	29.1250
 1.2170	29.1450
 1.2180	29.1660
 1.2190	29.1870
 1.2200	29.2070
 1.2210	29.2290
 1.2220	29.2510
 1.2230	29.2720
 1.2240	29.2950
 1.2250	29.3170
 1.2260	29.3380
 1.2270	29.3590
 1.2280	29.3770
 1.2290	29.3950
 1.2300	29.4150
 1.2310	29.4350
 1.2320	29.4560
 1.2330	29.4750
 1.2340	29.4920
 1.2350	29.5050
 1.2360	29.5200
 1.2370	29.5340
 1.2380	29.5490
 1.2390	29.5650
 1.2400	29.5790
 1.2410	29.5920
 1.2420	29.6060
 1.2430	29.6200
 1.2440	29.6310
 1.2450	29.6440
 1.2460	29.6560
 1.2470	29.6670
 1.2480	29.6790
 1.2490	29.6900
 1.2500	29.6990
 1.2510	29.7110
 1.2520	29.7200
 1.2530	29.7280
 1.2540	29.7350
 1.2550	29.7390
 1.2560	29.7440
 1.2570	29.7500
 1.2580	29.7540
 1.2590	29.7580
 1.2600	29.7610
 1.2610	29.7640
 1.2620	29.7660
 1.2630	29.7700
 1.2640	29.7730
 1.2650	29.7760
 1.2660	29.7780
 1.2670	29.7760
 1.2680	29.7720
 1.2690	29.7690
 1.2700	29.7660
 1.2710	29.7620
 1.2720	29.7610
 1.2730	29.7570
 1.2740	29.7510
 1.2750	29.7470
 1.2760	29.7410
 1.2770	29.7340
 1.2780	29.7290
 1.2790	29.7210
 1.2800	29.7120
 1.2810	29.7060
 1.2820	29.6980
 1.2830	29.6860
 1.2840	29.6750
 1.2850	29.6650
 1.2860	29.6520
 1.2870	29.6390
 1.2880	29.6250
 1.2890	29.6120
 1.2900	29.5950
 1.2910	29.5760
 1.2920	29.5550
 1.2930	29.5340
 1.2940	29.5080
 1.2950	29.4830
 1.2960	29.4590
 1.2970	29.4320
 1.2980	29.4030
 1.2990	29.3730
 1.3000	29.3430
 1.3010	29.3100
 1.3020	29.2740
 1.3030	29.2360
 1.3040	29.1950
 1.3050	29.1550
 1.3060	29.1130
 1.3070	29.0680
 1.3080	29.0210
 1.3090	28.9730
 1.3100	28.9250
 1.3110	28.8740
 1.3120	28.8220
 1.3130	28.7670
 1.3140	28.7100
 1.3150	28.6490
 1.3160	28.5880
 1.3170	28.5250
 1.3180	28.4590
 1.3190	28.3930
 1.3200	28.3240
 1.3210	28.2550
 1.3220	28.1830
 1.3230	28.1080
 1.3240	28.0310
 1.3250	27.9520
 1.3260	27.8720
 1.3270	27.7900
 1.3280	27.7080
 1.3290	27.6230
 1.3300	27.5350
 1.3310	27.4470
 1.3320	27.3570
 1.3330	27.2660
 1.3340	27.1730
 1.3350	27.0810
 1.3360	26.9880
 1.3370	26.8930
 1.3380	26.7980
 1.3390	26.7010
 1.3400	26.6050
 1.3410	26.5100
 1.3420	26.4160
 1.3430	26.3220
 1.3440	26.2280
 1.3450	26.1350
 1.3460	26.0410
 1.3470	25.9500
 1.3480	25.8590
 1.3490	25.7700
 1.3500	25.6830
 1.3510	25.5960
 1.3520	25.5070
 1.3530	25.4170
 1.3540	25.3260
 1.3550	25.2330
 1.3560	25.1420
 1.3570	25.0520
 1.3580	24.9600
 1.3590	24.8670
 1.3600	24.7710
 1.3610	24.6720
 1.3620	24.5690
 1.3630	24.4610
 1.3640	24.3490
 1.3650	24.2330
 1.3660	24.1140
 1.3670	23.9880
 1.3680	23.8560
 1.3690	23.7160
 1.3700	23.5670
 1.3710	23.4110
 1.3720	23.2460
 1.3730	23.0690
 1.3740	22.8810
 1.3750	22.6790
 1.3760	22.4630
 1.3770	22.2330
 1.3780	21.9840
 1.3790	21.7200
 1.3800	21.4400
 1.3810	21.1400
 1.3820	20.8280
 1.3830	20.5010
 1.3840	20.1610
 1.3850	19.8060
 1.3860	19.4420
 1.3870	19.0610
 1.3880	18.6780
 1.3890	18.2840
 1.3900	17.8830
 1.3910	17.4830
 1.3920	17.0780
 1.3930	16.6690
 1.3940	16.2630
 1.3950	15.8540
 1.3960	15.4510
 1.3970	15.0560
 1.3980	14.6680
 1.3990	14.2950
 1.4000	13.9320
 1.4010	13.5780
 1.4020	13.2400
 1.4030	12.9140
 1.4040	12.6050
 1.4050	12.3140
 1.4060	12.0360
 1.4070	11.7780
 1.4080	11.5340
 1.4090	11.3040
 1.4100	11.0900
 1.4110	10.8930
 1.4120	10.7070
 1.4130	10.5390
 1.4140	10.3830
 1.4150	10.2410
 1.4160	10.1110
 1.4170	 9.9920
 1.4180	 9.8830
 1.4190	 9.7850
 1.4200	 9.6940
 1.4210	 9.6130
 1.4220	 9.5390
 1.4230	 9.4730
 1.4240	 9.4150
 1.4250	 9.3620
 1.4260	 9.3150
 1.4270	 9.2760
 1.4280	 9.2400
 1.4290	 9.2110
 1.4300	 9.1870
 1.4310	 9.1650
 1.4320	 9.1480
 1.4330	 9.1350
 1.4340	 9.1250
 1.4350	 9.1190
 1.4360	 9.1180
 1.4370	 9.1160
 1.4380	 9.1180
 1.4390	 9.1210
 1.4400	 9.1260
 1.4410	 9.1360
 1.4420	 9.1460
 1.4430	 9.1560
 1.4440	 9.1710
 1.4450	 9.1840
 1.4460	 9.1980
 1.4470	 9.2150
 1.4480	 9.2300
 1.4490	 9.2450
 1.4500	 9.2630
 1.4510	 9.2830
 1.4520	 9.3020
 1.4530	 9.3210
 1.4540	 9.3420
 1.4550	 9.3620
 1.4560	 9.3860
 1.4570	 9.4110
 1.4580	 9.4370
 1.4590	 9.4660
 1.4600	 9.4970
 1.4610	 9.5290
 1.4620	 9.5670
 1.4630	 9.6070
 1.4640	 9.6500
 1.4650	 9.6930
 1.4660	 9.7430
 1.4670	 9.7930
 1.4680	 9.8480
 1.4690	 9.9090
 1.4700	 9.9700
