Name: Caesalpinia cacalaco
Type: vegetation
Class: Tree
Genus: Caesalpinia
Species: cacalaco
Sample No.: JPL241
Owner: JPL
Wavelength Range: TIR
Origin: 34.1263; -118.10989; WGS84
Collection Date: 10/6/2016
Description: Samples were collected at the Huntington Garden in San Marino California as part of a JPL Subcontract studying HyTES imagery. Samples were taken to JPL and processed within 48 hours of collection. The same leaves were processed in the Nicolet and then measured using the ASD.
Measurement: Hemispherical reflectance
First Column: X
Second Column: Y
X Units: Wavelength (micrometer)
Y Units: Reflectance (percentage)
First X Value: 2.501
Last X Value: 15.387
Number of X Values: 1737
Additional Information: vegetation.tree.caesalpinia.cacalaco.tir.jpl241.jpl.nicolet.ancillary.txt

 2.5010	 3.6070
 2.5030	 3.5650
 2.5040	 3.5550
 2.5050	 3.5590
 2.5060	 3.5330
 2.5070	 3.4720
 2.5090	 3.5280
 2.5100	 3.4840
 2.5110	 3.5120
 2.5120	 3.5680
 2.5140	 3.5350
 2.5150	 3.4390
 2.5160	 3.4040
 2.5170	 3.4000
 2.5180	 3.4530
 2.5200	 3.4540
 2.5210	 3.4630
 2.5220	 3.4730
 2.5230	 3.4520
 2.5250	 3.4180
 2.5260	 3.4360
 2.5270	 3.4340
 2.5280	 3.4710
 2.5300	 3.3960
 2.5310	 3.3890
 2.5320	 3.3790
 2.5330	 3.3460
 2.5340	 3.3540
 2.5360	 3.3480
 2.5370	 3.3340
 2.5380	 3.4080
 2.5390	 3.4350
 2.5410	 3.4460
 2.5420	 3.2840
 2.5430	 3.2340
 2.5440	 3.2940
 2.5460	 3.3170
 2.5470	 3.2780
 2.5480	 3.2960
 2.5490	 3.3010
 2.5510	 3.2740
 2.5520	 3.2150
 2.5530	 3.2430
 2.5540	 3.3430
 2.5560	 3.4510
 2.5570	 3.4010
 2.5580	 3.4250
 2.5590	 3.3590
 2.5610	 3.1600
 2.5620	 2.9670
 2.5630	 3.0390
 2.5650	 3.0960
 2.5660	 3.2560
 2.5670	 3.3930
 2.5680	 3.3110
 2.5700	 3.0420
 2.5710	 3.1180
 2.5720	 3.2650
 2.5730	 3.1290
 2.5750	 3.1390
 2.5760	 3.1670
 2.5770	 3.0390
 2.5790	 3.2290
 2.5800	 3.3570
 2.5810	 3.2170
 2.5820	 3.1410
 2.5840	 2.9680
 2.5850	 2.9310
 2.5860	 3.0780
 2.5880	 2.9450
 2.5890	 3.0320
 2.5900	 3.1400
 2.5910	 3.2900
 2.5930	 3.1960
 2.5940	 2.8270
 2.5950	 2.4300
 2.5970	 2.7810
 2.5980	 3.1160
 2.5990	 3.2660
 2.6010	 3.2360
 2.6020	 3.1510
 2.6030	 2.9940
 2.6040	 2.8190
 2.6060	 2.6480
 2.6070	 2.8210
 2.6080	 2.9630
 2.6100	 3.0060
 2.6110	 3.0650
 2.6120	 3.1070
 2.6140	 2.9870
 2.6150	 3.0130
 2.6160	 2.7880
 2.6180	 2.6570
 2.6190	 2.8640
 2.6200	 2.8320
 2.6220	 2.8320
 2.6230	 3.0980
 2.6240	 3.1230
 2.6260	 3.0190
 2.6270	 2.7730
 2.6280	 2.8140
 2.6300	 2.7260
 2.6310	 2.5360
 2.6320	 2.6880
 2.6340	 2.8370
 2.6350	 2.8570
 2.6360	 3.0840
 2.6380	 3.0360
 2.6390	 2.9790
 2.6400	 2.9880
 2.6420	 2.9770
 2.6430	 2.9120
 2.6440	 2.9080
 2.6460	 2.6980
 2.6470	 2.7530
 2.6480	 2.8970
 2.6500	 2.9610
 2.6510	 2.8780
 2.6520	 2.6710
 2.6540	 2.6310
 2.6550	 2.7230
 2.6570	 2.6830
 2.6580	 2.7620
 2.6590	 2.6390
 2.6610	 2.6590
 2.6620	 2.6780
 2.6630	 2.6150
 2.6650	 2.3420
 2.6660	 2.1630
 2.6670	 2.1870
 2.6690	 2.3740
 2.6700	 2.1610
 2.6720	 2.1710
 2.6730	 2.4970
 2.6740	 2.5870
 2.6760	 2.4220
 2.6770	 2.2160
 2.6780	 2.1970
 2.6800	 2.3350
 2.6810	 2.5040
 2.6830	 2.5830
 2.6840	 2.5530
 2.6850	 2.5450
 2.6870	 2.5160
 2.6880	 2.5870
 2.6900	 2.5140
 2.6910	 2.5840
 2.6920	 2.5570
 2.6940	 2.3240
 2.6950	 2.2410
 2.6970	 2.4490
 2.6980	 2.5500
 2.6990	 2.5600
 2.7010	 2.4490
 2.7020	 2.4410
 2.7040	 2.4890
 2.7050	 2.5650
 2.7060	 2.5800
 2.7080	 2.4640
 2.7090	 2.2220
 2.7110	 2.1420
 2.7120	 2.2220
 2.7130	 2.4520
 2.7150	 2.5030
 2.7160	 2.5100
 2.7180	 2.4290
 2.7190	 2.3070
 2.7210	 2.0060
 2.7220	 2.1430
 2.7230	 2.2690
 2.7250	 2.1640
 2.7260	 2.2380
 2.7280	 2.4350
 2.7290	 2.5080
 2.7310	 2.6220
 2.7320	 2.6360
 2.7340	 2.5820
 2.7350	 2.3270
 2.7360	 2.3400
 2.7380	 2.2840
 2.7390	 2.0520
 2.7410	 1.9190
 2.7420	 2.0860
 2.7440	 2.3290
 2.7450	 2.4690
 2.7470	 2.4790
 2.7480	 2.5040
 2.7490	 2.4810
 2.7510	 2.4360
 2.7520	 2.3430
 2.7540	 2.3630
 2.7550	 2.0960
 2.7570	 2.1440
 2.7580	 2.3760
 2.7600	 2.5360
 2.7610	 2.4730
 2.7630	 2.2460
 2.7640	 2.2700
 2.7660	 2.3660
 2.7670	 2.2460
 2.7690	 2.2690
 2.7700	 2.2680
 2.7720	 2.3260
 2.7730	 2.4300
 2.7740	 2.5420
 2.7760	 2.5270
 2.7770	 2.5010
 2.7790	 2.4390
 2.7800	 2.3690
 2.7820	 2.3150
 2.7830	 2.4120
 2.7850	 2.4180
 2.7860	 2.2640
 2.7880	 2.1590
 2.7890	 2.3580
 2.7910	 2.4360
 2.7920	 2.4500
 2.7940	 2.4630
 2.7950	 2.5000
 2.7970	 2.4420
 2.7980	 2.4510
 2.8000	 2.4000
 2.8010	 2.3370
 2.8030	 2.2040
 2.8040	 2.2270
 2.8060	 2.3390
 2.8080	 2.4700
 2.8090	 2.4550
 2.8110	 2.5080
 2.8120	 2.4980
 2.8140	 2.4490
 2.8150	 2.3790
 2.8170	 2.4450
 2.8180	 2.4470
 2.8200	 2.4290
 2.8210	 2.4070
 2.8230	 2.4440
 2.8240	 2.4140
 2.8260	 2.4220
 2.8270	 2.4170
 2.8290	 2.4890
 2.8310	 2.4760
 2.8320	 2.4640
 2.8340	 2.4180
 2.8350	 2.4360
 2.8370	 2.3780
 2.8380	 2.3830
 2.8400	 2.4520
 2.8410	 2.4960
 2.8430	 2.4420
 2.8440	 2.5030
 2.8460	 2.4910
 2.8480	 2.5180
 2.8490	 2.4240
 2.8510	 2.4000
 2.8520	 2.3960
 2.8540	 2.4380
 2.8550	 2.4490
 2.8570	 2.5000
 2.8590	 2.4720
 2.8600	 2.4770
 2.8620	 2.4980
 2.8630	 2.5640
 2.8650	 2.5130
 2.8660	 2.5050
 2.8680	 2.4700
 2.8700	 2.4980
 2.8710	 2.4690
 2.8730	 2.4670
 2.8740	 2.4510
 2.8760	 2.5320
 2.8780	 2.5270
 2.8790	 2.5150
 2.8810	 2.4940
 2.8820	 2.5170
 2.8840	 2.4830
 2.8860	 2.4810
 2.8870	 2.4610
 2.8890	 2.5010
 2.8900	 2.5160
 2.8920	 2.5920
 2.8940	 2.5500
 2.8950	 2.5400
 2.8970	 2.4840
 2.8990	 2.5340
 2.9000	 2.4940
 2.9020	 2.5010
 2.9030	 2.4750
 2.9050	 2.5220
 2.9070	 2.5510
 2.9080	 2.5600
 2.9100	 2.5170
 2.9120	 2.5140
 2.9130	 2.4840
 2.9150	 2.4960
 2.9160	 2.5250
 2.9180	 2.6250
 2.9200	 2.6150
 2.9210	 2.5650
 2.9230	 2.5270
 2.9250	 2.5740
 2.9260	 2.5660
 2.9280	 2.6140
 2.9300	 2.5950
 2.9310	 2.5780
 2.9330	 2.5150
 2.9350	 2.5760
 2.9360	 2.6010
 2.9380	 2.6340
 2.9400	 2.5470
 2.9410	 2.5300
 2.9430	 2.5530
 2.9450	 2.6190
 2.9460	 2.5810
 2.9480	 2.5660
 2.9500	 2.5260
 2.9510	 2.6120
 2.9530	 2.6110
 2.9550	 2.6070
 2.9560	 2.6090
 2.9580	 2.5970
 2.9600	 2.4970
 2.9610	 2.4870
 2.9630	 2.5180
 2.9650	 2.6040
 2.9670	 2.5570
 2.9680	 2.5150
 2.9700	 2.4880
 2.9720	 2.5350
 2.9730	 2.5010
 2.9750	 2.4470
 2.9770	 2.4250
 2.9780	 2.5100
 2.9800	 2.5180
 2.9820	 2.5400
 2.9840	 2.5080
 2.9850	 2.4990
 2.9870	 2.5400
 2.9890	 2.6090
 2.9900	 2.5320
 2.9920	 2.5100
 2.9940	 2.4620
 2.9960	 2.5010
 2.9970	 2.4710
 2.9990	 2.4960
 3.0010	 2.5230
 3.0030	 2.5300
 3.0040	 2.4820
 3.0060	 2.5480
 3.0080	 2.5680
 3.0100	 2.5830
 3.0110	 2.5170
 3.0130	 2.5240
 3.0150	 2.4630
 3.0170	 2.4710
 3.0180	 2.4830
 3.0200	 2.5060
 3.0220	 2.4480
 3.0240	 2.4600
 3.0250	 2.4570
 3.0270	 2.4590
 3.0290	 2.4060
 3.0310	 2.4290
 3.0320	 2.4180
 3.0340	 2.4360
 3.0360	 2.4360
 3.0380	 2.4610
 3.0400	 2.4570
 3.0410	 2.5270
 3.0430	 2.5130
 3.0450	 2.4990
 3.0470	 2.5170
 3.0480	 2.5640
 3.0500	 2.4850
 3.0520	 2.4370
 3.0540	 2.4450
 3.0560	 2.5140
 3.0570	 2.5040
 3.0590	 2.5040
 3.0610	 2.4900
 3.0630	 2.5450
 3.0650	 2.5100
 3.0670	 2.4660
 3.0680	 2.4180
 3.0700	 2.5030
 3.0720	 2.4710
 3.0740	 2.4630
 3.0760	 2.5170
 3.0770	 2.4910
 3.0790	 2.4060
 3.0810	 2.4420
 3.0830	 2.4080
 3.0850	 2.4210
 3.0870	 2.4140
 3.0880	 2.4050
 3.0900	 2.3820
 3.0920	 2.4240
 3.0940	 2.4070
 3.0960	 2.4140
 3.0980	 2.4030
 3.1000	 2.4350
 3.1010	 2.4220
 3.1030	 2.4570
 3.1050	 2.4640
 3.1070	 2.5120
 3.1090	 2.4720
 3.1110	 2.4870
 3.1130	 2.4800
 3.1140	 2.4740
 3.1160	 2.4620
 3.1180	 2.4540
 3.1200	 2.4010
 3.1220	 2.4150
 3.1240	 2.4010
 3.1260	 2.4390
 3.1280	 2.3790
 3.1290	 2.3660
 3.1310	 2.3910
 3.1330	 2.4300
 3.1350	 2.4010
 3.1370	 2.3680
 3.1390	 2.3300
 3.1410	 2.3680
 3.1430	 2.3880
 3.1450	 2.3850
 3.1470	 2.3600
 3.1480	 2.3860
 3.1500	 2.3690
 3.1520	 2.4030
 3.1540	 2.3240
 3.1560	 2.3410
 3.1580	 2.3940
 3.1600	 2.4450
 3.1620	 2.3830
 3.1640	 2.3580
 3.1660	 2.3340
 3.1680	 2.3990
 3.1700	 2.3460
 3.1720	 2.3570
 3.1730	 2.3650
 3.1750	 2.3720
 3.1770	 2.3490
 3.1790	 2.3480
 3.1810	 2.3230
 3.1830	 2.3600
 3.1850	 2.3130
 3.1870	 2.2950
 3.1890	 2.3240
 3.1910	 2.3510
 3.1930	 2.2950
 3.1950	 2.3160
 3.1970	 2.3230
 3.1990	 2.3600
 3.2010	 2.3550
 3.2030	 2.3450
 3.2050	 2.2880
 3.2070	 2.2870
 3.2090	 2.2720
 3.2110	 2.2670
 3.2130	 2.2180
 3.2150	 2.3080
 3.2170	 2.3130
 3.2190	 2.2800
 3.2210	 2.2500
 3.2230	 2.2970
 3.2250	 2.3010
 3.2270	 2.2870
 3.2290	 2.2600
 3.2310	 2.3070
 3.2330	 2.3020
 3.2350	 2.2880
 3.2370	 2.2470
 3.2390	 2.2820
 3.2410	 2.2500
 3.2430	 2.2290
 3.2450	 2.1990
 3.2470	 2.1820
 3.2490	 2.1940
 3.2510	 2.2650
 3.2530	 2.2300
 3.2550	 2.2150
 3.2570	 2.2170
 3.2590	 2.2720
 3.2610	 2.2530
 3.2630	 2.2330
 3.2650	 2.2350
 3.2670	 2.2470
 3.2700	 2.2200
 3.2720	 2.2110
 3.2740	 2.1910
 3.2760	 2.2180
 3.2780	 2.2030
 3.2800	 2.2280
 3.2820	 2.2080
 3.2840	 2.1970
 3.2860	 2.1790
 3.2880	 2.2150
 3.2900	 2.2270
 3.2920	 2.2280
 3.2940	 2.1990
 3.2970	 2.2000
 3.2990	 2.1650
 3.3010	 2.1560
 3.3030	 2.1350
 3.3050	 2.1910
 3.3070	 2.1870
 3.3090	 2.1910
 3.3110	 2.1660
 3.3130	 2.1810
 3.3160	 2.1640
 3.3180	 2.1370
 3.3200	 2.1300
 3.3220	 2.1490
 3.3240	 2.1190
 3.3260	 2.1310
 3.3280	 2.1420
 3.3300	 2.1120
 3.3330	 2.0820
 3.3350	 2.1190
 3.3370	 2.1070
 3.3390	 2.1410
 3.3410	 2.1320
 3.3430	 2.1000
 3.3450	 2.0400
 3.3480	 2.0300
 3.3500	 1.9800
 3.3520	 1.9970
 3.3540	 1.9990
 3.3560	 1.9630
 3.3580	 1.9340
 3.3610	 1.9440
 3.3630	 1.9200
 3.3650	 1.9400
 3.3670	 1.8750
 3.3690	 1.8540
 3.3720	 1.8460
 3.3740	 1.8610
 3.3760	 1.8390
 3.3780	 1.8480
 3.3800	 1.8520
 3.3830	 1.8680
 3.3850	 1.8440
 3.3870	 1.8760
 3.3890	 1.8300
 3.3910	 1.7850
 3.3940	 1.7190
 3.3960	 1.6990
 3.3980	 1.6750
 3.4000	 1.6350
 3.4030	 1.5560
 3.4050	 1.5640
 3.4070	 1.6030
 3.4090	 1.6720
 3.4110	 1.6570
 3.4140	 1.7140
 3.4160	 1.8060
 3.4180	 1.9660
 3.4200	 2.1990
 3.4230	 2.6120
 3.4250	 3.0990
 3.4270	 3.6360
 3.4300	 3.9330
 3.4320	 3.9080
 3.4340	 3.6350
 3.4360	 3.4180
 3.4390	 3.2180
 3.4410	 3.0950
 3.4430	 2.9770
 3.4450	 2.8890
 3.4480	 2.8090
 3.4500	 2.8030
 3.4520	 2.7820
 3.4550	 2.7860
 3.4570	 2.7530
 3.4590	 2.7430
 3.4620	 2.7000
 3.4640	 2.7030
 3.4660	 2.6790
 3.4690	 2.6910
 3.4710	 2.6290
 3.4730	 2.5780
 3.4760	 2.5390
 3.4780	 2.5260
 3.4800	 2.4990
 3.4830	 2.5070
 3.4850	 2.4300
 3.4870	 2.3370
 3.4900	 2.2680
 3.4920	 2.2360
 3.4940	 2.1710
 3.4970	 2.1440
 3.4990	 2.1000
 3.5010	 2.1200
 3.5040	 2.1670
 3.5060	 2.4210
 3.5080	 2.9560
 3.5110	 3.5930
 3.5130	 3.8410
 3.5160	 3.7070
 3.5180	 3.4530
 3.5200	 3.3020
 3.5230	 3.2020
 3.5250	 3.1270
 3.5280	 3.0140
 3.5300	 2.9590
 3.5320	 2.9160
 3.5350	 2.8990
 3.5370	 2.8370
 3.5400	 2.8070
 3.5420	 2.7810
 3.5440	 2.7760
 3.5470	 2.7390
 3.5490	 2.7410
 3.5520	 2.7150
 3.5540	 2.6850
 3.5570	 2.6350
 3.5590	 2.6340
 3.5610	 2.6400
 3.5640	 2.6620
 3.5660	 2.6380
 3.5690	 2.6590
 3.5710	 2.6600
 3.5740	 2.6370
 3.5760	 2.6330
 3.5790	 2.6830
 3.5810	 2.6540
 3.5840	 2.6240
 3.5860	 2.6090
 3.5890	 2.6230
 3.5910	 2.5950
 3.5940	 2.5820
 3.5960	 2.5690
 3.5990	 2.5760
 3.6010	 2.5560
 3.6040	 2.5670
 3.6060	 2.5610
 3.6090	 2.5380
 3.6110	 2.5200
 3.6140	 2.5520
 3.6160	 2.5620
 3.6190	 2.5870
 3.6210	 2.5700
 3.6240	 2.5820
 3.6260	 2.5390
 3.6290	 2.5590
 3.6310	 2.5580
 3.6340	 2.5400
 3.6360	 2.4720
 3.6390	 2.4990
 3.6410	 2.5270
 3.6440	 2.5370
 3.6470	 2.5430
 3.6490	 2.5570
 3.6520	 2.5010
 3.6540	 2.4740
 3.6570	 2.4690
 3.6590	 2.4860
 3.6620	 2.4660
 3.6650	 2.5000
 3.6670	 2.4990
 3.6700	 2.4990
 3.6720	 2.4900
 3.6750	 2.4890
 3.6780	 2.4680
 3.6800	 2.4920
 3.6830	 2.5040
 3.6850	 2.4810
 3.6880	 2.4380
 3.6910	 2.4550
 3.6930	 2.4410
 3.6960	 2.4830
 3.6990	 2.4910
 3.7010	 2.4710
 3.7040	 2.4240
 3.7070	 2.4780
 3.7090	 2.4950
 3.7120	 2.4740
 3.7150	 2.4690
 3.7170	 2.4700
 3.7200	 2.4740
 3.7230	 2.4600
 3.7250	 2.4550
 3.7280	 2.4750
 3.7310	 2.4440
 3.7330	 2.4250
 3.7360	 2.4500
 3.7390	 2.4950
 3.7410	 2.4400
 3.7440	 2.4420
 3.7470	 2.4570
 3.7490	 2.4600
 3.7520	 2.4440
 3.7550	 2.4630
 3.7580	 2.4380
 3.7600	 2.4120
 3.7630	 2.4040
 3.7660	 2.4300
 3.7690	 2.4240
 3.7710	 2.4270
 3.7740	 2.4340
 3.7770	 2.4720
 3.7790	 2.4190
 3.7820	 2.4010
 3.7850	 2.4340
 3.7880	 2.4970
 3.7910	 2.4880
 3.7930	 2.4560
 3.7960	 2.4620
 3.7990	 2.4780
 3.8020	 2.4690
 3.8040	 2.4710
 3.8070	 2.4440
 3.8100	 2.4310
 3.8130	 2.4320
 3.8160	 2.4560
 3.8180	 2.4490
 3.8210	 2.4350
 3.8240	 2.4200
 3.8270	 2.4580
 3.8300	 2.4650
 3.8330	 2.4770
 3.8350	 2.4600
 3.8380	 2.4590
 3.8410	 2.4390
 3.8440	 2.4330
 3.8470	 2.4350
 3.8500	 2.4680
 3.8520	 2.4940
 3.8550	 2.5090
 3.8580	 2.4560
 3.8610	 2.4270
 3.8640	 2.4270
 3.8670	 2.4560
 3.8700	 2.4520
 3.8730	 2.4660
 3.8760	 2.4680
 3.8780	 2.4650
 3.8810	 2.4450
 3.8840	 2.4580
 3.8870	 2.4870
 3.8900	 2.5050
 3.8930	 2.4840
 3.8960	 2.5020
 3.8990	 2.5160
 3.9020	 2.5050
 3.9050	 2.4650
 3.9080	 2.4380
 3.9110	 2.4330
 3.9140	 2.4590
 3.9170	 2.4270
 3.9190	 2.4210
 3.9220	 2.4180
 3.9250	 2.4490
 3.9280	 2.4620
 3.9310	 2.4720
 3.9340	 2.4910
 3.9370	 2.5260
 3.9400	 2.4790
 3.9430	 2.4650
 3.9460	 2.4400
 3.9490	 2.4130
 3.9520	 2.4100
 3.9550	 2.4160
 3.9580	 2.4110
 3.9610	 2.4420
 3.9640	 2.4490
 3.9670	 2.4650
 3.9700	 2.4300
 3.9740	 2.4050
 3.9770	 2.4240
 3.9800	 2.4440
 3.9830	 2.4550
 3.9860	 2.4450
 3.9890	 2.4220
 3.9920	 2.4560
 3.9950	 2.4750
 3.9980	 2.4750
 4.0010	 2.4590
 4.0040	 2.4790
 4.0070	 2.4710
 4.0100	 2.4660
 4.0140	 2.4600
 4.0170	 2.4520
 4.0200	 2.4370
 4.0230	 2.4460
 4.0260	 2.4530
 4.0290	 2.4720
 4.0320	 2.4760
 4.0350	 2.4860
 4.0390	 2.4690
 4.0420	 2.4840
 4.0450	 2.4550
 4.0480	 2.4260
 4.0510	 2.4160
 4.0540	 2.4310
 4.0570	 2.4130
 4.0610	 2.4500
 4.0640	 2.4560
 4.0670	 2.4510
 4.0700	 2.4390
 4.0730	 2.4520
 4.0770	 2.4520
 4.0800	 2.4240
 4.0830	 2.3890
 4.0860	 2.3980
 4.0890	 2.4140
 4.0930	 2.4310
 4.0960	 2.4190
 4.0990	 2.4180
 4.1020	 2.4360
 4.1060	 2.4440
 4.1090	 2.4360
 4.1120	 2.4210
 4.1150	 2.3760
 4.1190	 2.3790
 4.1220	 2.4120
 4.1250	 2.4370
 4.1290	 2.4270
 4.1320	 2.4430
 4.1350	 2.4280
 4.1380	 2.3850
 4.1420	 2.3540
 4.1450	 2.3990
 4.1480	 2.4190
 4.1520	 2.4070
 4.1550	 2.4170
 4.1580	 2.4230
 4.1620	 2.3880
 4.1650	 2.3710
 4.1680	 2.3780
 4.1720	 2.4040
 4.1750	 2.4010
 4.1780	 2.4080
 4.1820	 2.3910
 4.1850	 2.3540
 4.1890	 2.3450
 4.1920	 2.3540
 4.1950	 2.3900
 4.1990	 2.4410
 4.2020	 2.4160
 4.2060	 2.4160
 4.2090	 2.4850
 4.2120	 2.4710
 4.2160	 2.4230
 4.2190	 2.4860
 4.2230	 2.4920
 4.2260	 2.5400
 4.2300	 2.5490
 4.2330	 2.5230
 4.2360	 2.5060
 4.2400	 2.5550
 4.2430	 2.5380
 4.2470	 2.5530
 4.2500	 2.4880
 4.2540	 2.4190
 4.2570	 2.3790
 4.2610	 2.4090
 4.2640	 2.4280
 4.2680	 2.4160
 4.2710	 2.4170
 4.2750	 2.4800
 4.2780	 2.5110
 4.2820	 2.5150
 4.2850	 2.4900
 4.2890	 2.4790
 4.2930	 2.4650
 4.2960	 2.4270
 4.3000	 2.3860
 4.3030	 2.4040
 4.3070	 2.3910
 4.3100	 2.4060
 4.3140	 2.4350
 4.3180	 2.4190
 4.3210	 2.3990
 4.3250	 2.3770
 4.3280	 2.3480
 4.3320	 2.3980
 4.3360	 2.4140
 4.3390	 2.3550
 4.3430	 2.3220
 4.3470	 2.3370
 4.3500	 2.3330
 4.3540	 2.3590
 4.3580	 2.3890
 4.3610	 2.3890
 4.3650	 2.3520
 4.3690	 2.3350
 4.3720	 2.3230
 4.3760	 2.3170
 4.3800	 2.2900
 4.3830	 2.2880
 4.3870	 2.3100
 4.3910	 2.3010
 4.3940	 2.3000
 4.3980	 2.3360
 4.4020	 2.3310
 4.4060	 2.3070
 4.4090	 2.3110
 4.4130	 2.3290
 4.4170	 2.3280
 4.4210	 2.2910
 4.4240	 2.2570
 4.4280	 2.2510
 4.4320	 2.2750
 4.4360	 2.2980
 4.4400	 2.2980
 4.4430	 2.2830
 4.4470	 2.2710
 4.4510	 2.2460
 4.4550	 2.2280
 4.4590	 2.2640
 4.4630	 2.2800
 4.4660	 2.2680
 4.4700	 2.2630
 4.4740	 2.2910
 4.4780	 2.2770
 4.4820	 2.2540
 4.4860	 2.2450
 4.4900	 2.2460
 4.4930	 2.2570
 4.4970	 2.2690
 4.5010	 2.2530
 4.5050	 2.2220
 4.5090	 2.2260
 4.5130	 2.2470
 4.5170	 2.2280
 4.5210	 2.2450
 4.5250	 2.2550
 4.5290	 2.2520
 4.5330	 2.2410
 4.5370	 2.2080
 4.5410	 2.1960
 4.5450	 2.2040
 4.5490	 2.2120
 4.5530	 2.1950
 4.5570	 2.1960
 4.5610	 2.2110
 4.5650	 2.2430
 4.5690	 2.2670
 4.5730	 2.2600
 4.5770	 2.2420
 4.5810	 2.2410
 4.5850	 2.2230
 4.5890	 2.1920
 4.5930	 2.2050
 4.5970	 2.2380
 4.6010	 2.2230
 4.6050	 2.2090
 4.6090	 2.2120
 4.6130	 2.2320
 4.6170	 2.2250
 4.6220	 2.2140
 4.6260	 2.2190
 4.6300	 2.2330
 4.6340	 2.2180
 4.6380	 2.2040
 4.6420	 2.2410
 4.6460	 2.2300
 4.6510	 2.1940
 4.6550	 2.2150
 4.6590	 2.2380
 4.6630	 2.2280
 4.6670	 2.2100
 4.6720	 2.1860
 4.6760	 2.1670
 4.6800	 2.1630
 4.6840	 2.1810
 4.6880	 2.1880
 4.6930	 2.1640
 4.6970	 2.1760
 4.7010	 2.1900
 4.7050	 2.1930
 4.7100	 2.1790
 4.7140	 2.1740
 4.7180	 2.1920
 4.7230	 2.1870
 4.7270	 2.1590
 4.7310	 2.1600
 4.7360	 2.1890
 4.7400	 2.2020
 4.7440	 2.1710
 4.7490	 2.1500
 4.7530	 2.1660
 4.7570	 2.1710
 4.7620	 2.1530
 4.7660	 2.1410
 4.7700	 2.1370
 4.7750	 2.1320
 4.7790	 2.1420
 4.7840	 2.1550
 4.7880	 2.1330
 4.7920	 2.1150
 4.7970	 2.0870
 4.8010	 2.0950
 4.8060	 2.1150
 4.8100	 2.1590
 4.8150	 2.1700
 4.8190	 2.1670
 4.8240	 2.1560
 4.8280	 2.1770
 4.8330	 2.1630
 4.8370	 2.1230
 4.8420	 2.1050
 4.8460	 2.1160
 4.8510	 2.1390
 4.8550	 2.1470
 4.8600	 2.1370
 4.8640	 2.1450
 4.8690	 2.1680
 4.8740	 2.1710
 4.8780	 2.1630
 4.8830	 2.1900
 4.8870	 2.1850
 4.8920	 2.1630
 4.8970	 2.1480
 4.9010	 2.1410
 4.9060	 2.1500
 4.9100	 2.1660
 4.9150	 2.1520
 4.9200	 2.1650
 4.9240	 2.1530
 4.9290	 2.1320
 4.9340	 2.1370
 4.9390	 2.1580
 4.9430	 2.1660
 4.9480	 2.1650
 4.9530	 2.1310
 4.9570	 2.1160
 4.9620	 2.1250
 4.9670	 2.1690
 4.9720	 2.1930
 4.9760	 2.1910
 4.9810	 2.1510
 4.9860	 2.1510
 4.9910	 2.1870
 4.9960	 2.1720
 5.0000	 2.1260
 5.0050	 2.1650
 5.0100	 2.1600
 5.0150	 2.1480
 5.0200	 2.1520
 5.0250	 2.1520
 5.0300	 2.1570
 5.0340	 2.1650
 5.0390	 2.1500
 5.0440	 2.1640
 5.0490	 2.1640
 5.0540	 2.1700
 5.0590	 2.1580
 5.0640	 2.1720
 5.0690	 2.1750
 5.0740	 2.1860
 5.0790	 2.1540
 5.0840	 2.1380
 5.0890	 2.1520
 5.0940	 2.1700
 5.0990	 2.1830
 5.1040	 2.2150
 5.1090	 2.2090
 5.1140	 2.1760
 5.1190	 2.1410
 5.1240	 2.1580
 5.1290	 2.1800
 5.1340	 2.1880
 5.1390	 2.1400
 5.1440	 2.1330
 5.1490	 2.1360
 5.1550	 2.1420
 5.1600	 2.1280
 5.1650	 2.1660
 5.1700	 2.1760
 5.1750	 2.1790
 5.1800	 2.1850
 5.1850	 2.1790
 5.1910	 2.1560
 5.1960	 2.1220
 5.2010	 2.0710
 5.2060	 2.0830
 5.2110	 2.0360
 5.2170	 2.0700
 5.2220	 2.1450
 5.2270	 2.1570
 5.2330	 2.1440
 5.2380	 2.1350
 5.2430	 2.1370
 5.2480	 2.1460
 5.2540	 2.1330
 5.2590	 2.1370
 5.2640	 2.1140
 5.2700	 2.1110
 5.2750	 2.0730
 5.2800	 2.1010
 5.2860	 2.1230
 5.2910	 2.0850
 5.2970	 2.1040
 5.3020	 2.1550
 5.3080	 2.1380
 5.3130	 2.1640
 5.3180	 2.1530
 5.3240	 2.1650
 5.3290	 2.1440
 5.3350	 2.1170
 5.3400	 2.1200
 5.3460	 2.0930
 5.3510	 1.9890
 5.3570	 2.0600
 5.3620	 2.1040
 5.3680	 2.1350
 5.3740	 2.1410
 5.3790	 2.1650
 5.3850	 2.1420
 5.3900	 2.1370
 5.3960	 2.1180
 5.4010	 2.1310
 5.4070	 2.1010
 5.4130	 2.0890
 5.4180	 1.9820
 5.4240	 1.9120
 5.4300	 2.0490
 5.4350	 2.1110
 5.4410	 2.0610
 5.4470	 2.0840
 5.4530	 2.0700
 5.4580	 2.0170
 5.4640	 1.9230
 5.4700	 1.9990
 5.4760	 1.9920
 5.4810	 1.9480
