Name: Baccharis pilularis 1
Type: vegetation
Class: Shrub
Genus: Baccharis
Species: pilularis
Sample No.: VH001
Owner: UCSB
Wavelength Range: VSWIR
Origin: 34.418; -119.8455; WGS84
Collection Date: 4/1/2013
Description: Samples were collected as part of the HyspIRI Airborne Campaign. 48 individual plants were sampled in three times in 2013 - spring  summer  and fall. The name of the sample includes a 1  2  or 3 which references a different individual of the species. Samples were taken to JPL and processed within 48 hours of collection. The same leaves were processed in the Nicolet and then measured using the ASD.
Measurement: Bidirectional reflectance
First Column: X
Second Column: Y
X Units: Wavelength (micrometers)
Y Units: Reflectance (percentage)
First X Value: 0.35
Last X Value: 2.5
Number of X Values: 2151
Additional Information: vegetation.shrub.baccharis.pilularis.vswir.vh001.ucsb.asd.ancillary.txt

 0.3500	 2.9910
 0.3510	 3.0730
 0.3520	 3.2010
 0.3530	 3.2590
 0.3540	 3.2180
 0.3550	 3.1340
 0.3560	 3.1510
 0.3570	 3.1630
 0.3580	 2.9960
 0.3590	 3.0690
 0.3600	 3.1450
 0.3610	 3.1000
 0.3620	 3.0430
 0.3630	 3.0850
 0.3640	 3.1770
 0.3650	 3.2250
 0.3660	 3.1600
 0.3670	 3.1460
 0.3680	 3.1740
 0.3690	 3.1220
 0.3700	 3.1280
 0.3710	 3.1260
 0.3720	 3.0800
 0.3730	 3.0480
 0.3740	 3.1130
 0.3750	 3.1860
 0.3760	 3.1590
 0.3770	 3.1030
 0.3780	 3.1170
 0.3790	 3.1750
 0.3800	 3.1500
 0.3810	 3.0740
 0.3820	 3.0500
 0.3830	 3.1110
 0.3840	 3.1270
 0.3850	 3.1190
 0.3860	 3.1210
 0.3870	 3.1640
 0.3880	 3.2260
 0.3890	 3.2220
 0.3900	 3.1850
 0.3910	 3.2570
 0.3920	 3.2410
 0.3930	 3.2180
 0.3940	 3.2570
 0.3950	 3.2180
 0.3960	 3.2150
 0.3970	 3.2620
 0.3980	 3.3180
 0.3990	 3.3090
 0.4000	 3.3100
 0.4010	 3.3550
 0.4020	 3.4100
 0.4030	 3.4400
 0.4040	 3.4400
 0.4050	 3.4300
 0.4060	 3.4910
 0.4070	 3.5170
 0.4080	 3.5200
 0.4090	 3.5770
 0.4100	 3.5710
 0.4110	 3.5850
 0.4120	 3.6510
 0.4130	 3.6810
 0.4140	 3.7010
 0.4150	 3.7190
 0.4160	 3.7460
 0.4170	 3.8050
 0.4180	 3.8400
 0.4190	 3.8600
 0.4200	 3.9280
 0.4210	 3.9680
 0.4220	 3.9880
 0.4230	 4.0110
 0.4240	 4.0490
 0.4250	 4.0840
 0.4260	 4.1110
 0.4270	 4.1380
 0.4280	 4.1750
 0.4290	 4.2040
 0.4300	 4.2240
 0.4310	 4.2570
 0.4320	 4.2900
 0.4330	 4.3200
 0.4340	 4.3500
 0.4350	 4.3700
 0.4360	 4.3920
 0.4370	 4.4130
 0.4380	 4.4210
 0.4390	 4.4320
 0.4400	 4.4520
 0.4410	 4.4750
 0.4420	 4.4790
 0.4430	 4.4890
 0.4440	 4.5140
 0.4450	 4.5470
 0.4460	 4.5610
 0.4470	 4.5780
 0.4480	 4.6060
 0.4490	 4.6300
 0.4500	 4.6440
 0.4510	 4.6510
 0.4520	 4.6580
 0.4530	 4.6770
 0.4540	 4.6980
 0.4550	 4.7170
 0.4560	 4.7400
 0.4570	 4.7530
 0.4580	 4.7560
 0.4590	 4.7550
 0.4600	 4.7700
 0.4610	 4.7690
 0.4620	 4.7630
 0.4630	 4.7770
 0.4640	 4.7930
 0.4650	 4.8010
 0.4660	 4.7980
 0.4670	 4.7900
 0.4680	 4.7980
 0.4690	 4.8040
 0.4700	 4.7960
 0.4710	 4.8050
 0.4720	 4.8210
 0.4730	 4.8340
 0.4740	 4.8340
 0.4750	 4.8320
 0.4760	 4.8370
 0.4770	 4.8480
 0.4780	 4.8500
 0.4790	 4.8510
 0.4800	 4.8580
 0.4810	 4.8710
 0.4820	 4.8760
 0.4830	 4.8880
 0.4840	 4.9050
 0.4850	 4.9140
 0.4860	 4.9260
 0.4870	 4.9330
 0.4880	 4.9340
 0.4890	 4.9520
 0.4900	 4.9720
 0.4910	 4.9890
 0.4920	 5.0050
 0.4930	 5.0300
 0.4940	 5.0550
 0.4950	 5.0790
 0.4960	 5.1050
 0.4970	 5.1340
 0.4980	 5.1640
 0.4990	 5.1970
 0.5000	 5.2360
 0.5010	 5.2850
 0.5020	 5.3410
 0.5030	 5.3900
 0.5040	 5.4490
 0.5050	 5.5200
 0.5060	 5.6020
 0.5070	 5.6900
 0.5080	 5.7750
 0.5090	 5.8670
 0.5100	 5.9810
 0.5110	 6.1020
 0.5120	 6.2300
 0.5130	 6.3670
 0.5140	 6.5140
 0.5150	 6.6830
 0.5160	 6.8630
 0.5170	 7.0430
 0.5180	 7.2340
 0.5190	 7.4340
 0.5200	 7.6410
 0.5210	 7.8500
 0.5220	 8.0610
 0.5230	 8.2730
 0.5240	 8.4850
 0.5250	 8.7010
 0.5260	 8.9020
 0.5270	 9.0900
 0.5280	 9.2740
 0.5290	 9.4400
 0.5300	 9.5960
 0.5310	 9.7450
 0.5320	 9.8820
 0.5330	10.0040
 0.5340	10.1120
 0.5350	10.2080
 0.5360	10.2960
 0.5370	10.3790
 0.5380	10.4540
 0.5390	10.5180
 0.5400	10.5880
 0.5410	10.6590
 0.5420	10.7260
 0.5430	10.7860
 0.5440	10.8410
 0.5450	10.8890
 0.5460	10.9220
 0.5470	10.9370
 0.5480	10.9490
 0.5490	10.9630
 0.5500	10.9790
 0.5510	10.9970
 0.5520	11.0080
 0.5530	11.0050
 0.5540	10.9910
 0.5550	10.9670
 0.5560	10.9340
 0.5570	10.8910
 0.5580	10.8340
 0.5590	10.7690
 0.5600	10.6960
 0.5610	10.6070
 0.5620	10.5050
 0.5630	10.3950
 0.5640	10.2770
 0.5650	10.1480
 0.5660	10.0190
 0.5670	 9.8890
 0.5680	 9.7510
 0.5690	 9.6150
 0.5700	 9.4860
 0.5710	 9.3620
 0.5720	 9.2340
 0.5730	 9.1070
 0.5740	 8.9880
 0.5750	 8.8850
 0.5760	 8.7960
 0.5770	 8.7110
 0.5780	 8.6240
 0.5790	 8.5450
 0.5800	 8.4640
 0.5810	 8.3850
 0.5820	 8.3150
 0.5830	 8.2520
 0.5840	 8.1940
 0.5850	 8.1400
 0.5860	 8.0860
 0.5870	 8.0340
 0.5880	 7.9850
 0.5890	 7.9360
 0.5900	 7.8970
 0.5910	 7.8630
 0.5920	 7.8320
 0.5930	 7.8020
 0.5940	 7.7760
 0.5950	 7.7510
 0.5960	 7.7260
 0.5970	 7.7060
 0.5980	 7.6870
 0.5990	 7.6650
 0.6000	 7.6360
 0.6010	 7.6050
 0.6020	 7.5700
 0.6030	 7.5330
 0.6040	 7.4940
 0.6050	 7.4470
 0.6060	 7.3940
 0.6070	 7.3410
 0.6080	 7.2840
 0.6090	 7.2310
 0.6100	 7.1830
 0.6110	 7.1410
 0.6120	 7.0810
 0.6130	 7.0070
 0.6140	 6.9330
 0.6150	 6.8730
 0.6160	 6.8130
 0.6170	 6.7550
 0.6180	 6.7090
 0.6190	 6.6680
 0.6200	 6.6320
 0.6210	 6.6000
 0.6220	 6.5700
 0.6230	 6.5450
 0.6240	 6.5230
 0.6250	 6.5040
 0.6260	 6.4830
 0.6270	 6.4690
 0.6280	 6.4620
 0.6290	 6.4570
 0.6300	 6.4520
 0.6310	 6.4450
 0.6320	 6.4360
 0.6330	 6.4220
 0.6340	 6.4040
 0.6350	 6.3820
 0.6360	 6.3550
 0.6370	 6.3150
 0.6380	 6.2720
 0.6390	 6.2260
 0.6400	 6.1710
 0.6410	 6.1110
 0.6420	 6.0510
 0.6430	 5.9930
 0.6440	 5.9300
 0.6450	 5.8630
 0.6460	 5.8010
 0.6470	 5.7470
 0.6480	 5.6960
 0.6490	 5.6490
 0.6500	 5.6070
 0.6510	 5.5690
 0.6520	 5.5320
 0.6530	 5.4970
 0.6540	 5.4640
 0.6550	 5.4330
 0.6560	 5.3990
 0.6570	 5.3610
 0.6580	 5.3230
 0.6590	 5.2820
 0.6600	 5.2410
 0.6610	 5.2000
 0.6620	 5.1590
 0.6630	 5.1210
 0.6640	 5.0870
 0.6650	 5.0560
 0.6660	 5.0350
 0.6670	 5.0150
 0.6680	 4.9990
 0.6690	 4.9940
 0.6700	 4.9900
 0.6710	 4.9890
 0.6720	 4.9930
 0.6730	 5.0020
 0.6740	 5.0150
 0.6750	 5.0300
 0.6760	 5.0480
 0.6770	 5.0660
 0.6780	 5.0910
 0.6790	 5.1240
 0.6800	 5.1620
 0.6810	 5.2010
 0.6820	 5.2430
 0.6830	 5.2920
 0.6840	 5.3580
 0.6850	 5.4330
 0.6860	 5.5200
 0.6870	 5.6220
 0.6880	 5.7570
 0.6890	 5.9160
 0.6900	 6.1050
 0.6910	 6.3390
 0.6920	 6.6210
 0.6930	 6.9530
 0.6940	 7.3360
 0.6950	 7.7780
 0.6960	 8.2720
 0.6970	 8.8160
 0.6980	 9.4110
 0.6990	10.0570
 0.7000	10.7430
 0.7010	11.4620
 0.7020	12.2070
 0.7030	12.9770
 0.7040	13.7630
 0.7050	14.5540
 0.7060	15.3460
 0.7070	16.1370
 0.7080	16.9270
 0.7090	17.7150
 0.7100	18.4830
 0.7110	19.2430
 0.7120	19.9970
 0.7130	20.7320
 0.7140	21.4510
 0.7150	22.1550
 0.7160	22.8410
 0.7170	23.5090
 0.7180	24.1490
 0.7190	24.7700
 0.7200	25.3790
 0.7210	25.9600
 0.7220	26.5200
 0.7230	27.0600
 0.7240	27.5750
 0.7250	28.0560
 0.7260	28.5150
 0.7270	28.9580
 0.7280	29.3800
 0.7290	29.7710
 0.7300	30.1310
 0.7310	30.4680
 0.7320	30.7910
 0.7330	31.1020
 0.7340	31.3950
 0.7350	31.6610
 0.7360	31.9110
 0.7370	32.1450
 0.7380	32.3640
 0.7390	32.5710
 0.7400	32.7600
 0.7410	32.9340
 0.7420	33.0950
 0.7430	33.2460
 0.7440	33.3820
 0.7450	33.5050
 0.7460	33.6220
 0.7470	33.7330
 0.7480	33.8340
 0.7490	33.9240
 0.7500	34.0050
 0.7510	34.0800
 0.7520	34.1470
 0.7530	34.2070
 0.7540	34.2590
 0.7550	34.3110
 0.7560	34.3610
 0.7570	34.3970
 0.7580	34.4370
 0.7590	34.4720
 0.7600	34.5000
 0.7610	34.5320
 0.7620	34.5630
 0.7630	34.5900
 0.7640	34.6130
 0.7650	34.6380
 0.7660	34.6590
 0.7670	34.6750
 0.7680	34.6850
 0.7690	34.6990
 0.7700	34.7140
 0.7710	34.7300
 0.7720	34.7490
 0.7730	34.7610
 0.7740	34.7740
 0.7750	34.7900
 0.7760	34.7990
 0.7770	34.8090
 0.7780	34.8260
 0.7790	34.8490
 0.7800	34.8580
 0.7810	34.8690
 0.7820	34.8880
 0.7830	34.9030
 0.7840	34.9170
 0.7850	34.9280
 0.7860	34.9370
 0.7870	34.9520
 0.7880	34.9630
 0.7890	34.9750
 0.7900	34.9900
 0.7910	35.0060
 0.7920	35.0230
 0.7930	35.0340
 0.7940	35.0340
 0.7950	35.0450
 0.7960	35.0560
 0.7970	35.0630
 0.7980	35.0750
 0.7990	35.0850
 0.8000	35.0920
 0.8010	35.0970
 0.8020	35.1040
 0.8030	35.1110
 0.8040	35.1140
 0.8050	35.1150
 0.8060	35.1180
 0.8070	35.1220
 0.8080	35.1260
 0.8090	35.1320
 0.8100	35.1290
 0.8110	35.1280
 0.8120	35.1300
 0.8130	35.1230
 0.8140	35.1210
 0.8150	35.1210
 0.8160	35.1150
 0.8170	35.1110
 0.8180	35.1070
 0.8190	35.1050
 0.8200	35.1060
 0.8210	35.0980
 0.8220	35.0930
 0.8230	35.0940
 0.8240	35.0860
 0.8250	35.0680
 0.8260	35.0570
 0.8270	35.0560
 0.8280	35.0440
 0.8290	35.0430
 0.8300	35.0420
 0.8310	35.0300
 0.8320	35.0100
 0.8330	34.9990
 0.8340	34.9990
 0.8350	35.0040
 0.8360	34.9920
 0.8370	34.9840
 0.8380	34.9830
 0.8390	34.9760
 0.8400	34.9800
 0.8410	34.9810
 0.8420	34.9760
 0.8430	34.9750
 0.8440	34.9700
 0.8450	34.9690
 0.8460	34.9760
 0.8470	34.9670
 0.8480	34.9570
 0.8490	34.9550
 0.8500	34.9670
 0.8510	34.9740
 0.8520	34.9720
 0.8530	34.9660
 0.8540	34.9660
 0.8550	34.9690
 0.8560	34.9710
 0.8570	34.9720
 0.8580	34.9660
 0.8590	34.9780
 0.8600	34.9880
 0.8610	34.9860
 0.8620	34.9940
 0.8630	35.0070
 0.8640	35.0200
 0.8650	35.0300
 0.8660	35.0310
 0.8670	35.0350
 0.8680	35.0460
 0.8690	35.0600
 0.8700	35.0770
 0.8710	35.0850
 0.8720	35.0870
 0.8730	35.0930
 0.8740	35.0990
 0.8750	35.1100
 0.8760	35.1270
 0.8770	35.1480
 0.8780	35.1670
 0.8790	35.1790
 0.8800	35.1870
 0.8810	35.2010
 0.8820	35.2300
 0.8830	35.2490
 0.8840	35.2490
 0.8850	35.2630
 0.8860	35.2880
 0.8870	35.3120
 0.8880	35.3270
 0.8890	35.3470
 0.8900	35.3680
 0.8910	35.3850
 0.8920	35.3950
 0.8930	35.4040
 0.8940	35.4320
 0.8950	35.4650
 0.8960	35.4750
 0.8970	35.4920
 0.8980	35.5100
 0.8990	35.5240
 0.9000	35.5380
 0.9010	35.5610
 0.9020	35.5810
 0.9030	35.5940
 0.9040	35.6120
 0.9050	35.6290
 0.9060	35.6480
 0.9070	35.6690
 0.9080	35.6940
 0.9090	35.7100
 0.9100	35.7250
 0.9110	35.7460
 0.9120	35.7630
 0.9130	35.7880
 0.9140	35.8050
 0.9150	35.8030
 0.9160	35.8180
 0.9170	35.8320
 0.9180	35.8370
 0.9190	35.8390
 0.9200	35.8550
 0.9210	35.8650
 0.9220	35.8710
 0.9230	35.8840
 0.9240	35.8920
 0.9250	35.8920
 0.9260	35.8880
 0.9270	35.8860
 0.9280	35.8930
 0.9290	35.8980
 0.9300	35.8940
 0.9310	35.8890
 0.9320	35.8950
 0.9330	35.8880
 0.9340	35.8670
 0.9350	35.8610
 0.9360	35.8550
 0.9370	35.8490
 0.9380	35.8400
 0.9390	35.8240
 0.9400	35.8120
 0.9410	35.7840
 0.9420	35.7430
 0.9430	35.7370
 0.9440	35.7140
 0.9450	35.6900
 0.9460	35.6730
 0.9470	35.6400
 0.9480	35.5990
 0.9490	35.5520
 0.9500	35.5060
 0.9510	35.4740
 0.9520	35.4480
 0.9530	35.4070
 0.9540	35.3460
 0.9550	35.2990
 0.9560	35.2450
 0.9570	35.1940
 0.9580	35.1580
 0.9590	35.1480
 0.9600	35.1120
 0.9610	35.0680
 0.9620	35.0510
 0.9630	35.0370
 0.9640	35.0210
 0.9650	35.0080
 0.9660	35.0020
 0.9670	34.9890
 0.9680	34.9900
 0.9690	34.9880
 0.9700	34.9640
 0.9710	34.9690
 0.9720	34.9630
 0.9730	34.9530
 0.9740	34.9560
 0.9750	34.9590
 0.9760	34.9680
 0.9770	34.9780
 0.9780	34.9800
 0.9790	34.9850
 0.9800	34.9980
 0.9810	35.0100
 0.9820	35.0150
 0.9830	35.0360
 0.9840	35.0550
 0.9850	35.0590
 0.9860	35.0500
 0.9870	35.0640
 0.9880	35.0970
 0.9890	35.1240
 0.9900	35.1250
 0.9910	35.1540
 0.9920	35.2180
 0.9930	35.2810
 0.9940	35.3450
 0.9950	35.4090
 0.9960	35.4720
 0.9970	35.5360
 0.9980	35.5990
 0.9990	35.6630
 1.0000	35.7270
 1.0010	35.7900
 1.0020	35.8540
 1.0030	35.9180
 1.0040	35.9810
 1.0050	36.0450
 1.0060	36.1090
 1.0070	36.1720
 1.0080	36.2360
 1.0090	36.3000
 1.0100	36.3000
 1.0110	36.3150
 1.0120	36.3300
 1.0130	36.3490
 1.0140	36.3640
 1.0150	36.3740
 1.0160	36.3870
 1.0170	36.4050
 1.0180	36.4200
 1.0190	36.4350
 1.0200	36.4540
 1.0210	36.4690
 1.0220	36.4800
 1.0230	36.4910
 1.0240	36.4990
 1.0250	36.5120
 1.0260	36.5250
 1.0270	36.5390
 1.0280	36.5590
 1.0290	36.5740
 1.0300	36.5870
 1.0310	36.5980
 1.0320	36.6070
 1.0330	36.6170
 1.0340	36.6300
 1.0350	36.6400
 1.0360	36.6560
 1.0370	36.6720
 1.0380	36.6850
 1.0390	36.6980
 1.0400	36.7080
 1.0410	36.7130
 1.0420	36.7220
 1.0430	36.7300
 1.0440	36.7380
 1.0450	36.7470
 1.0460	36.7550
 1.0470	36.7590
 1.0480	36.7650
 1.0490	36.7750
 1.0500	36.7810
 1.0510	36.7860
 1.0520	36.7940
 1.0530	36.7990
 1.0540	36.8020
 1.0550	36.8050
 1.0560	36.8070
 1.0570	36.8120
 1.0580	36.8200
 1.0590	36.8240
 1.0600	36.8310
 1.0610	36.8330
 1.0620	36.8300
 1.0630	36.8310
 1.0640	36.8340
 1.0650	36.8350
 1.0660	36.8370
 1.0670	36.8380
 1.0680	36.8380
 1.0690	36.8350
 1.0700	36.8340
 1.0710	36.8330
 1.0720	36.8300
 1.0730	36.8260
 1.0740	36.8220
 1.0750	36.8160
 1.0760	36.8130
 1.0770	36.8120
 1.0780	36.8070
 1.0790	36.8010
 1.0800	36.7950
 1.0810	36.7840
 1.0820	36.7780
 1.0830	36.7770
 1.0840	36.7720
 1.0850	36.7660
 1.0860	36.7610
 1.0870	36.7550
 1.0880	36.7460
 1.0890	36.7380
 1.0900	36.7300
 1.0910	36.7230
 1.0920	36.7170
 1.0930	36.7090
 1.0940	36.7030
 1.0950	36.6930
 1.0960	36.6790
 1.0970	36.6670
 1.0980	36.6520
 1.0990	36.6410
 1.1000	36.6330
 1.1010	36.6220
 1.1020	36.6090
 1.1030	36.5980
 1.1040	36.5900
 1.1050	36.5780
 1.1060	36.5680
 1.1070	36.5630
 1.1080	36.5520
 1.1090	36.5380
 1.1100	36.5250
 1.1110	36.5100
 1.1120	36.4970
 1.1130	36.4860
 1.1140	36.4720
 1.1150	36.4580
 1.1160	36.4420
 1.1170	36.4270
 1.1180	36.4070
 1.1190	36.3860
 1.1200	36.3640
 1.1210	36.3410
 1.1220	36.3120
 1.1230	36.2840
 1.1240	36.2540
 1.1250	36.2170
 1.1260	36.1750
 1.1270	36.1300
 1.1280	36.0810
 1.1290	36.0250
 1.1300	35.9650
 1.1310	35.8970
 1.1320	35.8210
 1.1330	35.7410
 1.1340	35.6550
 1.1350	35.5630
 1.1360	35.4640
 1.1370	35.3590
 1.1380	35.2520
 1.1390	35.1400
 1.1400	35.0240
 1.1410	34.9070
 1.1420	34.7900
 1.1430	34.6700
 1.1440	34.5540
 1.1450	34.4390
 1.1460	34.3260
 1.1470	34.2120
 1.1480	34.1070
 1.1490	34.0060
 1.1500	33.9150
 1.1510	33.8330
 1.1520	33.7560
 1.1530	33.6860
 1.1540	33.6240
 1.1550	33.5700
 1.1560	33.5220
 1.1570	33.4820
 1.1580	33.4500
 1.1590	33.4200
 1.1600	33.3940
 1.1610	33.3750
 1.1620	33.3580
 1.1630	33.3450
 1.1640	33.3360
 1.1650	33.3280
 1.1660	33.3210
 1.1670	33.3160
 1.1680	33.3140
 1.1690	33.3120
 1.1700	33.3110
 1.1710	33.3100
 1.1720	33.3090
 1.1730	33.3090
 1.1740	33.3100
 1.1750	33.3080
 1.1760	33.3030
 1.1770	33.3000
 1.1780	33.2950
 1.1790	33.2910
 1.1800	33.2900
 1.1810	33.2870
 1.1820	33.2810
 1.1830	33.2750
 1.1840	33.2690
 1.1850	33.2630
 1.1860	33.2610
 1.1870	33.2590
 1.1880	33.2560
 1.1890	33.2540
 1.1900	33.2520
 1.1910	33.2480
 1.1920	33.2470
 1.1930	33.2460
 1.1940	33.2470
 1.1950	33.2510
 1.1960	33.2560
 1.1970	33.2610
 1.1980	33.2670
 1.1990	33.2750
 1.2000	33.2850
 1.2010	33.2980
 1.2020	33.3080
 1.2030	33.3180
 1.2040	33.3300
 1.2050	33.3410
 1.2060	33.3540
 1.2070	33.3690
 1.2080	33.3810
 1.2090	33.3940
 1.2100	33.4090
 1.2110	33.4250
 1.2120	33.4420
 1.2130	33.4580
 1.2140	33.4760
 1.2150	33.4930
 1.2160	33.5100
 1.2170	33.5290
 1.2180	33.5500
 1.2190	33.5690
 1.2200	33.5870
 1.2210	33.6070
 1.2220	33.6250
 1.2230	33.6430
 1.2240	33.6620
 1.2250	33.6790
 1.2260	33.6960
 1.2270	33.7120
 1.2280	33.7280
 1.2290	33.7430
 1.2300	33.7580
 1.2310	33.7710
 1.2320	33.7860
 1.2330	33.8010
 1.2340	33.8150
 1.2350	33.8300
 1.2360	33.8430
 1.2370	33.8550
 1.2380	33.8660
 1.2390	33.8780
 1.2400	33.8880
 1.2410	33.8980
 1.2420	33.9070
 1.2430	33.9150
 1.2440	33.9240
 1.2450	33.9320
 1.2460	33.9410
 1.2470	33.9500
 1.2480	33.9590
 1.2490	33.9670
 1.2500	33.9750
 1.2510	33.9810
 1.2520	33.9850
 1.2530	33.9880
 1.2540	33.9900
 1.2550	33.9940
 1.2560	33.9980
 1.2570	34.0020
 1.2580	34.0070
 1.2590	34.0090
 1.2600	34.0080
 1.2610	34.0070
 1.2620	34.0060
 1.2630	34.0010
 1.2640	33.9980
 1.2650	33.9950
 1.2660	33.9900
 1.2670	33.9850
 1.2680	33.9790
 1.2690	33.9730
 1.2700	33.9650
 1.2710	33.9570
 1.2720	33.9490
 1.2730	33.9360
 1.2740	33.9220
 1.2750	33.9090
 1.2760	33.8940
 1.2770	33.8820
 1.2780	33.8690
 1.2790	33.8500
 1.2800	33.8330
 1.2810	33.8130
 1.2820	33.7910
 1.2830	33.7720
 1.2840	33.7490
 1.2850	33.7230
 1.2860	33.6980
 1.2870	33.6690
 1.2880	33.6380
 1.2890	33.6040
 1.2900	33.5700
 1.2910	33.5330
 1.2920	33.4940
 1.2930	33.4570
 1.2940	33.4180
 1.2950	33.3760
 1.2960	33.3340
 1.2970	33.2890
 1.2980	33.2410
 1.2990	33.1880
 1.3000	33.1330
 1.3010	33.0760
 1.3020	33.0170
 1.3030	32.9590
 1.3040	32.9000
 1.3050	32.8380
 1.3060	32.7730
 1.3070	32.7070
 1.3080	32.6370
 1.3090	32.5650
 1.3100	32.4910
 1.3110	32.4150
 1.3120	32.3360
 1.3130	32.2560
 1.3140	32.1740
 1.3150	32.0890
 1.3160	32.0020
 1.3170	31.9150
 1.3180	31.8220
 1.3190	31.7260
 1.3200	31.6300
 1.3210	31.5300
 1.3220	31.4280
 1.3230	31.3290
 1.3240	31.2250
 1.3250	31.1200
 1.3260	31.0140
 1.3270	30.9020
 1.3280	30.7920
 1.3290	30.6800
 1.3300	30.5660
 1.3310	30.4530
 1.3320	30.3380
 1.3330	30.2210
 1.3340	30.1050
 1.3350	29.9880
 1.3360	29.8720
 1.3370	29.7560
 1.3380	29.6380
 1.3390	29.5200
 1.3400	29.4010
 1.3410	29.2850
 1.3420	29.1710
 1.3430	29.0560
 1.3440	28.9420
 1.3450	28.8300
 1.3460	28.7170
 1.3470	28.6060
 1.3480	28.4950
 1.3490	28.3860
 1.3500	28.2770
 1.3510	28.1690
 1.3520	28.0600
 1.3530	27.9510
 1.3540	27.8410
 1.3550	27.7300
 1.3560	27.6190
 1.3570	27.5060
 1.3580	27.3920
 1.3590	27.2750
 1.3600	27.1540
 1.3610	27.0290
 1.3620	26.8970
 1.3630	26.7620
 1.3640	26.6210
 1.3650	26.4710
 1.3660	26.3160
 1.3670	26.1520
 1.3680	25.9760
 1.3690	25.7890
 1.3700	25.5890
 1.3710	25.3770
 1.3720	25.1510
 1.3730	24.9100
 1.3740	24.6570
 1.3750	24.3870
 1.3760	24.0980
 1.3770	23.7890
 1.3780	23.4590
 1.3790	23.1110
 1.3800	22.7450
 1.3810	22.3600
 1.3820	21.9630
 1.3830	21.5500
 1.3840	21.1240
 1.3850	20.6830
 1.3860	20.2360
 1.3870	19.7720
 1.3880	19.3110
 1.3890	18.8460
 1.3900	18.3760
 1.3910	17.9110
 1.3920	17.4470
 1.3930	16.9840
 1.3940	16.5300
 1.3950	16.0820
 1.3960	15.6460
 1.3970	15.2250
 1.3980	14.8190
 1.3990	14.4340
 1.4000	14.0650
 1.4010	13.7110
 1.4020	13.3790
 1.4030	13.0630
 1.4040	12.7670
 1.4050	12.4920
 1.4060	12.2360
 1.4070	11.9990
 1.4080	11.7790
 1.4090	11.5760
 1.4100	11.3900
 1.4110	11.2190
 1.4120	11.0630
 1.4130	10.9200
 1.4140	10.7900
 1.4150	10.6730
 1.4160	10.5680
 1.4170	10.4730
 1.4180	10.3880
 1.4190	10.3110
 1.4200	10.2430
 1.4210	10.1810
 1.4220	10.1270
 1.4230	10.0800
 1.4240	10.0380
 1.4250	10.0010
 1.4260	 9.9710
 1.4270	 9.9440
 1.4280	 9.9210
 1.4290	 9.9020
 1.4300	 9.8870
 1.4310	 9.8760
 1.4320	 9.8690
 1.4330	 9.8630
 1.4340	 9.8610
 1.4350	 9.8610
 1.4360	 9.8640
 1.4370	 9.8680
 1.4380	 9.8740
 1.4390	 9.8820
 1.4400	 9.8910
 1.4410	 9.9020
 1.4420	 9.9150
 1.4430	 9.9280
 1.4440	 9.9420
 1.4450	 9.9580
 1.4460	 9.9750
 1.4470	 9.9930
 1.4480	10.0110
 1.4490	10.0290
 1.4500	10.0480
 1.4510	10.0680
 1.4520	10.0900
 1.4530	10.1130
 1.4540	10.1370
 1.4550	10.1630
 1.4560	10.1910
 1.4570	10.2200
 1.4580	10.2520
 1.4590	10.2860
 1.4600	10.3230
 1.4610	10.3640
 1.4620	10.4080
 1.4630	10.4560
 1.4640	10.5080
 1.4650	10.5620
 1.4660	10.6190
 1.4670	10.6810
 1.4680	10.7480
 1.4690	10.8180
 1.4700	10.8910
