Name: Bambusa tuldoides
Type: vegetation
Class: Tree
Genus: Bambusa
Species: tuldoides
Sample No.: JPL146
Owner: JPL
Wavelength Range: VSWIR
Origin: 34.12526; -118.11174; WGS84
Collection Date: 9/14/2016
Description: Samples were collected at the Huntington Garden in San Marino California as part of a JPL Subcontract studying HyTES imagery. Samples were taken to JPL and processed within 48 hours of collection. The same leaves were processed in the Nicolet and then measured using the ASD.
Measurement: Bidirectional reflectance
First Column: X
Second Column: Y
X Units: Wavelength (micrometer)
Y Units: Reflectance (percentage)
First X Value: 0.35
Last X Value: 2.5
Number of X Values: 2151
Additional Information: vegetation.tree.bambusa.tuldoides.vswir.jpl146.jpl.asd.ancillary.txt

 0.3500	 5.5610
 0.3510	 5.5080
 0.3520	 5.4480
 0.3530	 5.4670
 0.3540	 5.5940
 0.3550	 5.5510
 0.3560	 5.6160
 0.3570	 5.6710
 0.3580	 5.4680
 0.3590	 5.4450
 0.3600	 5.4890
 0.3610	 5.5040
 0.3620	 5.5170
 0.3630	 5.4610
 0.3640	 5.3840
 0.3650	 5.3530
 0.3660	 5.3800
 0.3670	 5.4150
 0.3680	 5.4320
 0.3690	 5.4270
 0.3700	 5.4280
 0.3710	 5.4280
 0.3720	 5.4160
 0.3730	 5.3830
 0.3740	 5.3410
 0.3750	 5.3530
 0.3760	 5.4500
 0.3770	 5.4810
 0.3780	 5.4380
 0.3790	 5.3660
 0.3800	 5.3400
 0.3810	 5.3320
 0.3820	 5.3360
 0.3830	 5.3460
 0.3840	 5.3370
 0.3850	 5.3670
 0.3860	 5.3930
 0.3870	 5.3630
 0.3880	 5.3750
 0.3890	 5.3820
 0.3900	 5.3610
 0.3910	 5.3260
 0.3920	 5.3190
 0.3930	 5.3310
 0.3940	 5.3380
 0.3950	 5.3170
 0.3960	 5.3040
 0.3970	 5.3180
 0.3980	 5.3610
 0.3990	 5.3640
 0.4000	 5.3460
 0.4010	 5.3260
 0.4020	 5.3190
 0.4030	 5.3330
 0.4040	 5.3470
 0.4050	 5.3420
 0.4060	 5.3340
 0.4070	 5.3540
 0.4080	 5.3750
 0.4090	 5.3410
 0.4100	 5.3420
 0.4110	 5.3660
 0.4120	 5.3840
 0.4130	 5.3730
 0.4140	 5.3740
 0.4150	 5.3840
 0.4160	 5.3910
 0.4170	 5.3950
 0.4180	 5.3910
 0.4190	 5.3880
 0.4200	 5.4070
 0.4210	 5.4190
 0.4220	 5.4200
 0.4230	 5.4150
 0.4240	 5.4200
 0.4250	 5.4270
 0.4260	 5.4350
 0.4270	 5.4460
 0.4280	 5.4460
 0.4290	 5.4450
 0.4300	 5.4450
 0.4310	 5.4400
 0.4320	 5.4440
 0.4330	 5.4440
 0.4340	 5.4300
 0.4350	 5.4290
 0.4360	 5.4350
 0.4370	 5.4430
 0.4380	 5.4490
 0.4390	 5.4590
 0.4400	 5.4660
 0.4410	 5.4690
 0.4420	 5.4870
 0.4430	 5.4930
 0.4440	 5.4860
 0.4450	 5.4780
 0.4460	 5.4930
 0.4470	 5.5110
 0.4480	 5.5200
 0.4490	 5.5180
 0.4500	 5.5170
 0.4510	 5.5240
 0.4520	 5.5370
 0.4530	 5.5440
 0.4540	 5.5450
 0.4550	 5.5420
 0.4560	 5.5430
 0.4570	 5.5440
 0.4580	 5.5440
 0.4590	 5.5470
 0.4600	 5.5600
 0.4610	 5.5670
 0.4620	 5.5710
 0.4630	 5.5740
 0.4640	 5.5720
 0.4650	 5.5700
 0.4660	 5.5720
 0.4670	 5.5760
 0.4680	 5.5790
 0.4690	 5.5770
 0.4700	 5.5740
 0.4710	 5.5760
 0.4720	 5.5770
 0.4730	 5.5780
 0.4740	 5.5850
 0.4750	 5.5830
 0.4760	 5.5800
 0.4770	 5.5810
 0.4780	 5.5850
 0.4790	 5.5900
 0.4800	 5.5930
 0.4810	 5.5940
 0.4820	 5.5910
 0.4830	 5.5900
 0.4840	 5.5920
 0.4850	 5.5950
 0.4860	 5.6010
 0.4870	 5.6070
 0.4880	 5.6150
 0.4890	 5.6200
 0.4900	 5.6320
 0.4910	 5.6490
 0.4920	 5.6690
 0.4930	 5.6890
 0.4940	 5.7050
 0.4950	 5.7220
 0.4960	 5.7500
 0.4970	 5.7750
 0.4980	 5.7990
 0.4990	 5.8290
 0.5000	 5.8650
 0.5010	 5.9050
 0.5020	 5.9490
 0.5030	 5.9970
 0.5040	 6.0530
 0.5050	 6.1170
 0.5060	 6.1870
 0.5070	 6.2600
 0.5080	 6.3470
 0.5090	 6.4460
 0.5100	 6.5490
 0.5110	 6.6630
 0.5120	 6.7890
 0.5130	 6.9270
 0.5140	 7.0730
 0.5150	 7.2370
 0.5160	 7.4150
 0.5170	 7.5990
 0.5180	 7.7930
 0.5190	 8.0010
 0.5200	 8.2210
 0.5210	 8.4440
 0.5220	 8.6670
 0.5230	 8.8930
 0.5240	 9.1210
 0.5250	 9.3380
 0.5260	 9.5540
 0.5270	 9.7660
 0.5280	 9.9640
 0.5290	10.1500
 0.5300	10.3240
 0.5310	10.4850
 0.5320	10.6300
 0.5330	10.7660
 0.5340	10.8920
 0.5350	11.0070
 0.5360	11.1080
 0.5370	11.1970
 0.5380	11.2770
 0.5390	11.3450
 0.5400	11.4120
 0.5410	11.4740
 0.5420	11.5310
 0.5430	11.5860
 0.5440	11.6350
 0.5450	11.6790
 0.5460	11.7180
 0.5470	11.7540
 0.5480	11.7880
 0.5490	11.8190
 0.5500	11.8460
 0.5510	11.8660
 0.5520	11.8720
 0.5530	11.8630
 0.5540	11.8480
 0.5550	11.8180
 0.5560	11.7700
 0.5570	11.7050
 0.5580	11.6280
 0.5590	11.5400
 0.5600	11.4400
 0.5610	11.3330
 0.5620	11.2160
 0.5630	11.0920
 0.5640	10.9670
 0.5650	10.8400
 0.5660	10.7120
 0.5670	10.5810
 0.5680	10.4430
 0.5690	10.3010
 0.5700	10.1560
 0.5710	10.0120
 0.5720	 9.8760
 0.5730	 9.7470
 0.5740	 9.6230
 0.5750	 9.5010
 0.5760	 9.3860
 0.5770	 9.2760
 0.5780	 9.1690
 0.5790	 9.0730
 0.5800	 8.9890
 0.5810	 8.9130
 0.5820	 8.8410
 0.5830	 8.7740
 0.5840	 8.7100
 0.5850	 8.6500
 0.5860	 8.5950
 0.5870	 8.5450
 0.5880	 8.4980
 0.5890	 8.4530
 0.5900	 8.4060
 0.5910	 8.3590
 0.5920	 8.3180
 0.5930	 8.2860
 0.5940	 8.2640
 0.5950	 8.2450
 0.5960	 8.2260
 0.5970	 8.2080
 0.5980	 8.1920
 0.5990	 8.1740
 0.6000	 8.1500
 0.6010	 8.1230
 0.6020	 8.0930
 0.6030	 8.0580
 0.6040	 8.0150
 0.6050	 7.9640
 0.6060	 7.9100
 0.6070	 7.8520
 0.6080	 7.7870
 0.6090	 7.7160
 0.6100	 7.6400
 0.6110	 7.5640
 0.6120	 7.4990
 0.6130	 7.4410
 0.6140	 7.3850
 0.6150	 7.3270
 0.6160	 7.2700
 0.6170	 7.2160
 0.6180	 7.1690
 0.6190	 7.1190
 0.6200	 7.0760
 0.6210	 7.0410
 0.6220	 7.0110
 0.6230	 6.9850
 0.6240	 6.9620
 0.6250	 6.9430
 0.6260	 6.9280
 0.6270	 6.9140
 0.6280	 6.9020
 0.6290	 6.8920
 0.6300	 6.8830
 0.6310	 6.8740
 0.6320	 6.8630
 0.6330	 6.8540
 0.6340	 6.8370
 0.6350	 6.8130
 0.6360	 6.7840
 0.6370	 6.7510
 0.6380	 6.7120
 0.6390	 6.6690
 0.6400	 6.6240
 0.6410	 6.5770
 0.6420	 6.5280
 0.6430	 6.4760
 0.6440	 6.4270
 0.6450	 6.3780
 0.6460	 6.3310
 0.6470	 6.2860
 0.6480	 6.2450
 0.6490	 6.2080
 0.6500	 6.1750
 0.6510	 6.1470
 0.6520	 6.1240
 0.6530	 6.1030
 0.6540	 6.0820
 0.6550	 6.0610
 0.6560	 6.0380
 0.6570	 6.0110
 0.6580	 5.9810
 0.6590	 5.9490
 0.6600	 5.9180
 0.6610	 5.8880
 0.6620	 5.8580
 0.6630	 5.8310
 0.6640	 5.8090
 0.6650	 5.7920
 0.6660	 5.7800
 0.6670	 5.7710
 0.6680	 5.7650
 0.6690	 5.7660
 0.6700	 5.7700
 0.6710	 5.7800
 0.6720	 5.7940
 0.6730	 5.8080
 0.6740	 5.8240
 0.6750	 5.8450
 0.6760	 5.8700
 0.6770	 5.8970
 0.6780	 5.9290
 0.6790	 5.9650
 0.6800	 6.0020
 0.6810	 6.0430
 0.6820	 6.0910
 0.6830	 6.1420
 0.6840	 6.1950
 0.6850	 6.2560
 0.6860	 6.3270
 0.6870	 6.4110
 0.6880	 6.5100
 0.6890	 6.6350
 0.6900	 6.7940
 0.6910	 6.9920
 0.6920	 7.2410
 0.6930	 7.5440
 0.6940	 7.9040
 0.6950	 8.3290
 0.6960	 8.8190
 0.6970	 9.3710
 0.6980	 9.9810
 0.6990	10.6440
 0.7000	11.3500
 0.7010	12.0880
 0.7020	12.8500
 0.7030	13.6290
 0.7040	14.4160
 0.7050	15.2020
 0.7060	15.9890
 0.7070	16.7690
 0.7080	17.5420
 0.7090	18.3120
 0.7100	19.0750
 0.7110	19.8350
 0.7120	20.5910
 0.7130	21.3440
 0.7140	22.0910
 0.7150	22.8330
 0.7160	23.5700
 0.7170	24.3070
 0.7180	25.0370
 0.7190	25.7580
 0.7200	26.4730
 0.7210	27.1800
 0.7220	27.8770
 0.7230	28.5600
 0.7240	29.2290
 0.7250	29.8860
 0.7260	30.5280
 0.7270	31.1500
 0.7280	31.7510
 0.7290	32.3310
 0.7300	32.8920
 0.7310	33.4360
 0.7320	33.9570
 0.7330	34.4560
 0.7340	34.9320
 0.7350	35.3840
 0.7360	35.8140
 0.7370	36.2220
 0.7380	36.6080
 0.7390	36.9710
 0.7400	37.3110
 0.7410	37.6300
 0.7420	37.9310
 0.7430	38.2120
 0.7440	38.4690
 0.7450	38.7040
 0.7460	38.9210
 0.7470	39.1210
 0.7480	39.3050
 0.7490	39.4730
 0.7500	39.6270
 0.7510	39.7640
 0.7520	39.8890
 0.7530	40.0050
 0.7540	40.1100
 0.7550	40.2050
 0.7560	40.2900
 0.7570	40.3630
 0.7580	40.4350
 0.7590	40.5010
 0.7600	40.5570
 0.7610	40.6070
 0.7620	40.6520
 0.7630	40.6920
 0.7640	40.7280
 0.7650	40.7590
 0.7660	40.7840
 0.7670	40.8060
 0.7680	40.8290
 0.7690	40.8460
 0.7700	40.8620
 0.7710	40.8770
 0.7720	40.8870
 0.7730	40.8970
 0.7740	40.9070
 0.7750	40.9160
 0.7760	40.9260
 0.7770	40.9330
 0.7780	40.9370
 0.7790	40.9390
 0.7800	40.9440
 0.7810	40.9510
 0.7820	40.9560
 0.7830	40.9580
 0.7840	40.9580
 0.7850	40.9590
 0.7860	40.9610
 0.7870	40.9600
 0.7880	40.9580
 0.7890	40.9580
 0.7900	40.9570
 0.7910	40.9530
 0.7920	40.9480
 0.7930	40.9440
 0.7940	40.9400
 0.7950	40.9360
 0.7960	40.9280
 0.7970	40.9180
 0.7980	40.9120
 0.7990	40.9030
 0.8000	40.8920
 0.8010	40.8810
 0.8020	40.8680
 0.8030	40.8590
 0.8040	40.8510
 0.8050	40.8390
 0.8060	40.8230
 0.8070	40.8100
 0.8080	40.7980
 0.8090	40.7810
 0.8100	40.7700
 0.8110	40.7560
 0.8120	40.7390
 0.8130	40.7240
 0.8140	40.7060
 0.8150	40.6880
 0.8160	40.6720
 0.8170	40.6560
 0.8180	40.6400
 0.8190	40.6220
 0.8200	40.6020
 0.8210	40.5880
 0.8220	40.5740
 0.8230	40.5580
 0.8240	40.5420
 0.8250	40.5260
 0.8260	40.5100
 0.8270	40.4960
 0.8280	40.4810
 0.8290	40.4660
 0.8300	40.4500
 0.8310	40.4320
 0.8320	40.4170
 0.8330	40.4050
 0.8340	40.3950
 0.8350	40.3820
 0.8360	40.3710
 0.8370	40.3610
 0.8380	40.3500
 0.8390	40.3370
 0.8400	40.3300
 0.8410	40.3230
 0.8420	40.3110
 0.8430	40.3000
 0.8440	40.2950
 0.8450	40.2900
 0.8460	40.2810
 0.8470	40.2740
 0.8480	40.2690
 0.8490	40.2660
 0.8500	40.2620
 0.8510	40.2550
 0.8520	40.2520
 0.8530	40.2500
 0.8540	40.2450
 0.8550	40.2460
 0.8560	40.2450
 0.8570	40.2430
 0.8580	40.2430
 0.8590	40.2440
 0.8600	40.2460
 0.8610	40.2480
 0.8620	40.2460
 0.8630	40.2460
 0.8640	40.2480
 0.8650	40.2540
 0.8660	40.2620
 0.8670	40.2630
 0.8680	40.2650
 0.8690	40.2740
 0.8700	40.2810
 0.8710	40.2870
 0.8720	40.2940
 0.8730	40.3020
 0.8740	40.3060
 0.8750	40.3100
 0.8760	40.3170
 0.8770	40.3270
 0.8780	40.3330
 0.8790	40.3390
 0.8800	40.3470
 0.8810	40.3510
 0.8820	40.3620
 0.8830	40.3730
 0.8840	40.3820
 0.8850	40.3940
 0.8860	40.3990
 0.8870	40.4040
 0.8880	40.4130
 0.8890	40.4230
 0.8900	40.4320
 0.8910	40.4390
 0.8920	40.4460
 0.8930	40.4540
 0.8940	40.4650
 0.8950	40.4750
 0.8960	40.4820
 0.8970	40.4860
 0.8980	40.4930
 0.8990	40.5050
 0.9000	40.5160
 0.9010	40.5170
 0.9020	40.5230
 0.9030	40.5370
 0.9040	40.5480
 0.9050	40.5490
 0.9060	40.5510
 0.9070	40.5590
 0.9080	40.5700
 0.9090	40.5700
 0.9100	40.5710
 0.9110	40.5820
 0.9120	40.5860
 0.9130	40.5890
 0.9140	40.5890
 0.9150	40.5830
 0.9160	40.5870
 0.9170	40.5930
 0.9180	40.6000
 0.9190	40.6090
 0.9200	40.6030
 0.9210	40.5960
 0.9220	40.5940
 0.9230	40.5970
 0.9240	40.5940
 0.9250	40.5920
 0.9260	40.5920
 0.9270	40.5890
 0.9280	40.5800
 0.9290	40.5740
 0.9300	40.5710
 0.9310	40.5610
 0.9320	40.5540
 0.9330	40.5440
 0.9340	40.5310
 0.9350	40.5230
 0.9360	40.5170
 0.9370	40.5070
 0.9380	40.4910
 0.9390	40.4750
 0.9400	40.4690
 0.9410	40.4610
 0.9420	40.4450
 0.9430	40.4280
 0.9440	40.4100
 0.9450	40.3990
 0.9460	40.3930
 0.9470	40.3760
 0.9480	40.3520
 0.9490	40.3300
 0.9500	40.3130
 0.9510	40.2890
 0.9520	40.2640
 0.9530	40.2400
 0.9540	40.2160
 0.9550	40.2000
 0.9560	40.1710
 0.9570	40.1420
 0.9580	40.1270
 0.9590	40.1050
 0.9600	40.0810
 0.9610	40.0630
 0.9620	40.0490
 0.9630	40.0300
 0.9640	40.0150
 0.9650	40.0020
 0.9660	39.9880
 0.9670	39.9750
 0.9680	39.9640
 0.9690	39.9540
 0.9700	39.9450
 0.9710	39.9280
 0.9720	39.9190
 0.9730	39.9130
 0.9740	39.9040
 0.9750	39.9020
 0.9760	39.8970
 0.9770	39.8880
 0.9780	39.8760
 0.9790	39.8660
 0.9800	39.8550
 0.9810	39.8480
 0.9820	39.8510
 0.9830	39.8450
 0.9840	39.8430
 0.9850	39.8400
 0.9860	39.8280
 0.9870	39.8320
 0.9880	39.8290
 0.9890	39.8200
 0.9900	39.8200
 0.9910	39.8200
 0.9920	39.8140
 0.9930	39.8090
 0.9940	39.8100
 0.9950	39.8120
 0.9960	39.8140
 0.9970	39.8130
 0.9980	39.8030
 0.9990	39.7850
 1.0000	39.7850
 1.0010	40.0660
 1.0020	40.0650
 1.0030	40.0690
 1.0040	40.0670
 1.0050	40.0640
 1.0060	40.0660
 1.0070	40.0650
 1.0080	40.0640
 1.0090	40.0630
 1.0100	40.0640
 1.0110	40.0660
 1.0120	40.0650
 1.0130	40.0660
 1.0140	40.0670
 1.0150	40.0660
 1.0160	40.0640
 1.0170	40.0680
 1.0180	40.0710
 1.0190	40.0720
 1.0200	40.0720
 1.0210	40.0680
 1.0220	40.0660
 1.0230	40.0650
 1.0240	40.0640
 1.0250	40.0630
 1.0260	40.0630
 1.0270	40.0630
 1.0280	40.0600
 1.0290	40.0600
 1.0300	40.0630
 1.0310	40.0640
 1.0320	40.0680
 1.0330	40.0700
 1.0340	40.0720
 1.0350	40.0680
 1.0360	40.0660
 1.0370	40.0680
 1.0380	40.0670
 1.0390	40.0670
 1.0400	40.0660
 1.0410	40.0660
 1.0420	40.0660
 1.0430	40.0680
 1.0440	40.0680
 1.0450	40.0670
 1.0460	40.0670
 1.0470	40.0660
 1.0480	40.0650
 1.0490	40.0650
 1.0500	40.0650
 1.0510	40.0650
 1.0520	40.0650
 1.0530	40.0660
 1.0540	40.0680
 1.0550	40.0680
 1.0560	40.0650
 1.0570	40.0660
 1.0580	40.0690
 1.0590	40.0690
 1.0600	40.0690
 1.0610	40.0690
 1.0620	40.0670
 1.0630	40.0660
 1.0640	40.0680
 1.0650	40.0700
 1.0660	40.0730
 1.0670	40.0740
 1.0680	40.0720
 1.0690	40.0710
 1.0700	40.0690
 1.0710	40.0620
 1.0720	40.0620
 1.0730	40.0670
 1.0740	40.0680
 1.0750	40.0720
 1.0760	40.0740
 1.0770	40.0740
 1.0780	40.0740
 1.0790	40.0700
 1.0800	40.0710
 1.0810	40.0730
 1.0820	40.0750
 1.0830	40.0840
 1.0840	40.0870
 1.0850	40.0870
 1.0860	40.0850
 1.0870	40.0840
 1.0880	40.0790
 1.0890	40.0770
 1.0900	40.0770
 1.0910	40.0750
 1.0920	40.0720
 1.0930	40.0710
 1.0940	40.0710
 1.0950	40.0710
 1.0960	40.0730
 1.0970	40.0720
 1.0980	40.0690
 1.0990	40.0680
 1.1000	40.0680
 1.1010	40.0660
 1.1020	40.0630
 1.1030	40.0610
 1.1040	40.0580
 1.1050	40.0540
 1.1060	40.0510
 1.1070	40.0490
 1.1080	40.0460
 1.1090	40.0450
 1.1100	40.0410
 1.1110	40.0360
 1.1120	40.0310
 1.1130	40.0230
 1.1140	40.0170
 1.1150	40.0110
 1.1160	40.0050
 1.1170	39.9980
 1.1180	39.9900
 1.1190	39.9810
 1.1200	39.9700
 1.1210	39.9590
 1.1220	39.9470
 1.1230	39.9330
 1.1240	39.9190
 1.1250	39.9030
 1.1260	39.8870
 1.1270	39.8700
 1.1280	39.8540
 1.1290	39.8330
 1.1300	39.8100
 1.1310	39.7860
 1.1320	39.7580
 1.1330	39.7280
 1.1340	39.6940
 1.1350	39.6600
 1.1360	39.6210
 1.1370	39.5810
 1.1380	39.5430
 1.1390	39.5030
 1.1400	39.4610
 1.1410	39.4170
 1.1420	39.3720
 1.1430	39.3260
 1.1440	39.2780
 1.1450	39.2300
 1.1460	39.1830
 1.1470	39.1350
 1.1480	39.0890
 1.1490	39.0440
 1.1500	39.0030
 1.1510	38.9620
 1.1520	38.9240
 1.1530	38.8880
 1.1540	38.8550
 1.1550	38.8240
 1.1560	38.7940
 1.1570	38.7690
 1.1580	38.7470
 1.1590	38.7250
 1.1600	38.7060
 1.1610	38.6870
 1.1620	38.6700
 1.1630	38.6550
 1.1640	38.6410
 1.1650	38.6280
 1.1660	38.6180
 1.1670	38.6070
 1.1680	38.5960
 1.1690	38.5850
 1.1700	38.5740
 1.1710	38.5640
 1.1720	38.5550
 1.1730	38.5460
 1.1740	38.5390
 1.1750	38.5310
 1.1760	38.5220
 1.1770	38.5150
 1.1780	38.5050
 1.1790	38.4950
 1.1800	38.4840
 1.1810	38.4720
 1.1820	38.4610
 1.1830	38.4490
 1.1840	38.4370
 1.1850	38.4260
 1.1860	38.4150
 1.1870	38.4040
 1.1880	38.3940
 1.1890	38.3870
 1.1900	38.3790
 1.1910	38.3750
 1.1920	38.3680
 1.1930	38.3590
 1.1940	38.3510
 1.1950	38.3410
 1.1960	38.3330
 1.1970	38.3270
 1.1980	38.3220
 1.1990	38.3200
 1.2000	38.3190
 1.2010	38.3190
 1.2020	38.3190
 1.2030	38.3160
 1.2040	38.3150
 1.2050	38.3150
 1.2060	38.3120
 1.2070	38.3130
 1.2080	38.3130
 1.2090	38.3130
 1.2100	38.3160
 1.2110	38.3190
 1.2120	38.3230
 1.2130	38.3260
 1.2140	38.3270
 1.2150	38.3300
 1.2160	38.3320
 1.2170	38.3350
 1.2180	38.3410
 1.2190	38.3460
 1.2200	38.3510
 1.2210	38.3550
 1.2220	38.3600
 1.2230	38.3660
 1.2240	38.3710
 1.2250	38.3750
 1.2260	38.3790
 1.2270	38.3830
 1.2280	38.3900
 1.2290	38.3960
 1.2300	38.4010
 1.2310	38.4060
 1.2320	38.4080
 1.2330	38.4090
 1.2340	38.4120
 1.2350	38.4160
 1.2360	38.4190
 1.2370	38.4220
 1.2380	38.4250
 1.2390	38.4280
 1.2400	38.4310
 1.2410	38.4310
 1.2420	38.4330
 1.2430	38.4350
 1.2440	38.4370
 1.2450	38.4390
 1.2460	38.4420
 1.2470	38.4440
 1.2480	38.4440
 1.2490	38.4430
 1.2500	38.4430
 1.2510	38.4410
 1.2520	38.4390
 1.2530	38.4390
 1.2540	38.4380
 1.2550	38.4370
 1.2560	38.4370
 1.2570	38.4350
 1.2580	38.4340
 1.2590	38.4330
 1.2600	38.4290
 1.2610	38.4260
 1.2620	38.4220
 1.2630	38.4180
 1.2640	38.4100
 1.2650	38.4060
 1.2660	38.4010
 1.2670	38.3930
 1.2680	38.3880
 1.2690	38.3820
 1.2700	38.3750
 1.2710	38.3700
 1.2720	38.3630
 1.2730	38.3560
 1.2740	38.3490
 1.2750	38.3400
 1.2760	38.3320
 1.2770	38.3250
 1.2780	38.3170
 1.2790	38.3060
 1.2800	38.2950
 1.2810	38.2830
 1.2820	38.2700
 1.2830	38.2580
 1.2840	38.2460
 1.2850	38.2330
 1.2860	38.2200
 1.2870	38.2060
 1.2880	38.1910
 1.2890	38.1750
 1.2900	38.1610
 1.2910	38.1450
 1.2920	38.1300
 1.2930	38.1150
 1.2940	38.1000
 1.2950	38.0830
 1.2960	38.0670
 1.2970	38.0510
 1.2980	38.0310
 1.2990	38.0120
 1.3000	37.9920
 1.3010	37.9720
 1.3020	37.9510
 1.3030	37.9300
 1.3040	37.9100
 1.3050	37.8900
 1.3060	37.8680
 1.3070	37.8440
 1.3080	37.8180
 1.3090	37.7900
 1.3100	37.7620
 1.3110	37.7360
 1.3120	37.7080
 1.3130	37.6790
 1.3140	37.6490
 1.3150	37.6170
 1.3160	37.5850
 1.3170	37.5520
 1.3180	37.5190
 1.3190	37.4850
 1.3200	37.4490
 1.3210	37.4120
 1.3220	37.3730
 1.3230	37.3340
 1.3240	37.2940
 1.3250	37.2520
 1.3260	37.2100
 1.3270	37.1660
 1.3280	37.1210
 1.3290	37.0730
 1.3300	37.0250
 1.3310	36.9760
 1.3320	36.9260
 1.3330	36.8760
 1.3340	36.8260
 1.3350	36.7740
 1.3360	36.7210
 1.3370	36.6680
 1.3380	36.6150
 1.3390	36.5630
 1.3400	36.5110
 1.3410	36.4580
 1.3420	36.4040
 1.3430	36.3490
 1.3440	36.2940
 1.3450	36.2410
 1.3460	36.1880
 1.3470	36.1350
 1.3480	36.0820
 1.3490	36.0310
 1.3500	35.9790
 1.3510	35.9280
 1.3520	35.8760
 1.3530	35.8250
 1.3540	35.7720
 1.3550	35.7180
 1.3560	35.6630
 1.3570	35.6060
 1.3580	35.5520
 1.3590	35.4960
 1.3600	35.4390
 1.3610	35.3830
 1.3620	35.3200
 1.3630	35.2560
 1.3640	35.1910
 1.3650	35.1240
 1.3660	35.0560
 1.3670	34.9840
 1.3680	34.9060
 1.3690	34.8220
 1.3700	34.7310
 1.3710	34.6340
 1.3720	34.5320
 1.3730	34.4200
 1.3740	34.3000
 1.3750	34.1720
 1.3760	34.0310
 1.3770	33.8770
 1.3780	33.7100
 1.3790	33.5300
 1.3800	33.3360
 1.3810	33.1260
 1.3820	32.9040
 1.3830	32.6680
 1.3840	32.4170
 1.3850	32.1530
 1.3860	31.8740
 1.3870	31.5790
 1.3880	31.2770
 1.3890	30.9610
 1.3900	30.6340
 1.3910	30.3020
 1.3920	29.9600
 1.3930	29.6090
 1.3940	29.2540
 1.3950	28.8910
 1.3960	28.5270
 1.3970	28.1630
 1.3980	27.8000
 1.3990	27.4440
 1.4000	27.0910
 1.4010	26.7420
 1.4020	26.4040
 1.4030	26.0720
 1.4040	25.7510
 1.4050	25.4430
 1.4060	25.1450
 1.4070	24.8610
 1.4080	24.5900
 1.4090	24.3310
 1.4100	24.0870
 1.4110	23.8560
 1.4120	23.6370
 1.4130	23.4310
 1.4140	23.2380
 1.4150	23.0580
 1.4160	22.8890
 1.4170	22.7330
 1.4180	22.5870
 1.4190	22.4510
 1.4200	22.3250
 1.4210	22.2080
 1.4220	22.0990
 1.4230	22.0000
 1.4240	21.9090
 1.4250	21.8240
 1.4260	21.7470
 1.4270	21.6760
 1.4280	21.6120
 1.4290	21.5530
 1.4300	21.5010
 1.4310	21.4530
 1.4320	21.4120
 1.4330	21.3740
 1.4340	21.3420
 1.4350	21.3130
 1.4360	21.2890
 1.4370	21.2690
 1.4380	21.2520
 1.4390	21.2380
 1.4400	21.2270
 1.4410	21.2180
 1.4420	21.2130
 1.4430	21.2090
 1.4440	21.2090
 1.4450	21.2100
 1.4460	21.2150
 1.4470	21.2210
 1.4480	21.2270
 1.4490	21.2350
 1.4500	21.2430
 1.4510	21.2520
 1.4520	21.2620
 1.4530	21.2750
 1.4540	21.2890
 1.4550	21.3050
 1.4560	21.3240
 1.4570	21.3450
 1.4580	21.3690
 1.4590	21.3950
 1.4600	21.4240
 1.4610	21.4560
 1.4620	21.4930
 1.4630	21.5340
 1.4640	21.5780
 1.4650	21.6270
 1.4660	21.6810
 1.4670	21.7380
 1.4680	21.7990
 1.4690	21.8640
 1.4700	21.9320
 1.4710	22.0040
 1.4720	22.0790
 1.4730	22.1550
 1.4740	22.2350
 1.4750	22.3160
 1.4760	22.4000
 1.4770	22.4860
