Name: Baccharis pilularis 3
Type: vegetation
Class: Shrub
Genus: Baccharis
Species: pilularis
Sample No.: VH233
Owner: UCSB
Wavelength Range: TIR
Origin: 34.5088; -119.7683; WGS84
Collection Date: 10/13/2013
Description: Samples were collected as part of the HyspIRI Airborne Campaign. 48 individual plants were sampled in three times in 2013 - spring  summer  and fall. The name of the sample includes a 1  2  or 3 which references a different individual of the species. Samples were taken to JPL and processed within 48 hours of collection. The same leaves were processed in the Nicolet and then measured using the ASD.
Measurement: Hemispherical reflectance
First Column: X
Second Column: Y
X Units: Wavelength (micrometers)
Y Units: Reflectance (percentage)
First X Value: 2.501
Last X Value: 15.387
Number of X Values: 1737
Additional Information: vegetation.shrub.baccharis.pilularis.tir.vh233.ucsb.nicolet.ancillary.txt

 2.5010	 6.5380
 2.5030	 6.4380
 2.5040	 6.5240
 2.5050	 6.4860
 2.5060	 6.4720
 2.5070	 6.6110
 2.5090	 6.7660
 2.5100	 6.5170
 2.5110	 6.3070
 2.5120	 6.2030
 2.5140	 6.2900
 2.5150	 6.2210
 2.5160	 6.1510
 2.5170	 6.0080
 2.5180	 6.0460
 2.5200	 6.1400
 2.5210	 6.1000
 2.5220	 6.0700
 2.5230	 6.2630
 2.5250	 6.4350
 2.5260	 6.5730
 2.5270	 6.4740
 2.5280	 6.2630
 2.5290	 6.0500
 2.5310	 6.1270
 2.5320	 6.1800
 2.5330	 6.2060
 2.5340	 6.3290
 2.5360	 6.3960
 2.5370	 6.3060
 2.5380	 6.3400
 2.5390	 6.3110
 2.5410	 6.0990
 2.5420	 6.1360
 2.5430	 6.3790
 2.5440	 6.2990
 2.5460	 6.4000
 2.5470	 6.3240
 2.5480	 6.1820
 2.5490	 6.1510
 2.5510	 6.2530
 2.5520	 6.5070
 2.5530	 6.6010
 2.5540	 6.6300
 2.5560	 6.6010
 2.5570	 6.1640
 2.5580	 6.0580
 2.5590	 6.4210
 2.5610	 6.5980
 2.5620	 6.4370
 2.5630	 6.3190
 2.5640	 6.2230
 2.5660	 6.3130
 2.5670	 6.2550
 2.5680	 6.3040
 2.5700	 6.5100
 2.5710	 6.6200
 2.5720	 6.3920
 2.5730	 6.1830
 2.5750	 6.2200
 2.5760	 6.3760
 2.5770	 6.4490
 2.5790	 6.6610
 2.5800	 6.6470
 2.5810	 6.3790
 2.5820	 6.2680
 2.5840	 6.3320
 2.5850	 6.2500
 2.5860	 6.3740
 2.5880	 6.2250
 2.5890	 6.0060
 2.5900	 6.1070
 2.5910	 6.3730
 2.5930	 6.5030
 2.5940	 6.6170
 2.5950	 6.4940
 2.5970	 6.5170
 2.5980	 6.4710
 2.5990	 6.4240
 2.6000	 6.3880
 2.6020	 6.4120
 2.6030	 6.2220
 2.6040	 6.1390
 2.6060	 6.3580
 2.6070	 6.5360
 2.6080	 6.5220
 2.6100	 6.3910
 2.6110	 6.1300
 2.6120	 6.2270
 2.6140	 6.2940
 2.6150	 6.2830
 2.6160	 6.3210
 2.6180	 6.3140
 2.6190	 6.2340
 2.6200	 6.2240
 2.6220	 6.0570
 2.6230	 6.0860
 2.6240	 6.2110
 2.6260	 6.2440
 2.6270	 6.1500
 2.6280	 6.2340
 2.6300	 6.3190
 2.6310	 6.2060
 2.6320	 5.9870
 2.6340	 6.0270
 2.6350	 6.1070
 2.6360	 6.1910
 2.6380	 6.1670
 2.6390	 6.0550
 2.6400	 6.0600
 2.6420	 6.1830
 2.6430	 6.0090
 2.6440	 5.8080
 2.6460	 5.7910
 2.6470	 5.9000
 2.6480	 5.7600
 2.6500	 5.5950
 2.6510	 5.6220
 2.6520	 5.7340
 2.6540	 5.7040
 2.6550	 5.6830
 2.6560	 5.8060
 2.6580	 5.7530
 2.6590	 5.6590
 2.6610	 5.5990
 2.6620	 5.7330
 2.6630	 5.8440
 2.6650	 5.7910
 2.6660	 5.8770
 2.6670	 5.8440
 2.6690	 5.6020
 2.6700	 5.4250
 2.6720	 5.4990
 2.6730	 5.3970
 2.6740	 5.5090
 2.6760	 5.6440
 2.6770	 5.6370
 2.6780	 5.5000
 2.6800	 5.5450
 2.6810	 5.5800
 2.6830	 5.6090
 2.6840	 5.5520
 2.6850	 5.4500
 2.6870	 5.4970
 2.6880	 5.5800
 2.6900	 5.5850
 2.6910	 5.6400
 2.6920	 5.5140
 2.6940	 5.4380
 2.6950	 5.4200
 2.6970	 5.3340
 2.6980	 5.5250
 2.6990	 5.7320
 2.7010	 5.6050
 2.7020	 5.4830
 2.7040	 5.2630
 2.7050	 5.3370
 2.7060	 5.3060
 2.7080	 5.3830
 2.7090	 5.5320
 2.7110	 5.5270
 2.7120	 5.3440
 2.7130	 5.1170
 2.7150	 5.0470
 2.7160	 5.2150
 2.7180	 5.2100
 2.7190	 5.3500
 2.7210	 5.4430
 2.7220	 5.3170
 2.7230	 5.2150
 2.7250	 5.4010
 2.7260	 5.3380
 2.7280	 4.9050
 2.7290	 4.5270
 2.7310	 4.6820
 2.7320	 4.8200
 2.7330	 5.1110
 2.7350	 5.1870
 2.7360	 4.9020
 2.7380	 4.7840
 2.7390	 4.7860
 2.7410	 4.8690
 2.7420	 4.7390
 2.7440	 4.8110
 2.7450	 5.5220
 2.7470	 5.8580
 2.7480	 5.4300
 2.7490	 5.1940
 2.7510	 5.1400
 2.7520	 4.5320
 2.7540	 4.1080
 2.7550	 4.2940
 2.7570	 4.6650
 2.7580	 4.4320
 2.7600	 4.3950
 2.7610	 4.3380
 2.7630	 4.1390
 2.7640	 4.1660
 2.7660	 4.4290
 2.7670	 4.6780
 2.7680	 5.0010
 2.7700	 5.0210
 2.7710	 4.7770
 2.7730	 4.6440
 2.7740	 4.5710
 2.7760	 4.1270
 2.7770	 4.2760
 2.7790	 4.2600
 2.7800	 4.5280
 2.7820	 4.4370
 2.7830	 4.1780
 2.7850	 4.1440
 2.7860	 4.1560
 2.7880	 4.1180
 2.7890	 4.1520
 2.7910	 4.1700
 2.7920	 4.0650
 2.7940	 3.7030
 2.7950	 3.9070
 2.7970	 3.9980
 2.7980	 3.8710
 2.8000	 4.0030
 2.8010	 4.0730
 2.8030	 4.0650
 2.8040	 4.1130
 2.8060	 3.9020
 2.8070	 3.7400
 2.8090	 3.8510
 2.8110	 3.9650
 2.8120	 3.9130
 2.8140	 4.0520
 2.8150	 3.9310
 2.8170	 3.7640
 2.8180	 3.5920
 2.8200	 3.5920
 2.8210	 3.9470
 2.8230	 4.1270
 2.8240	 3.8910
 2.8260	 4.1060
 2.8270	 4.1680
 2.8290	 3.8420
 2.8300	 3.6280
 2.8320	 3.8260
 2.8340	 3.8960
 2.8350	 3.5910
 2.8370	 3.3840
 2.8380	 3.5200
 2.8400	 3.8260
 2.8410	 3.7190
 2.8430	 3.4130
 2.8440	 3.5640
 2.8460	 3.7280
 2.8480	 3.8340
 2.8490	 3.8850
 2.8510	 3.8590
 2.8520	 3.7970
 2.8540	 3.6680
 2.8550	 3.6660
 2.8570	 3.7210
 2.8590	 3.7450
 2.8600	 3.8160
 2.8620	 3.9990
 2.8630	 3.9740
 2.8650	 3.8450
 2.8660	 3.7250
 2.8680	 3.5540
 2.8700	 3.4910
 2.8710	 3.4510
 2.8730	 3.6720
 2.8740	 3.6820
 2.8760	 3.5140
 2.8780	 3.3860
 2.8790	 3.0290
 2.8810	 2.8540
 2.8820	 3.2200
 2.8840	 4.0870
 2.8860	 4.5190
 2.8870	 3.9820
 2.8890	 3.8850
 2.8900	 4.0800
 2.8920	 4.1440
 2.8940	 4.2020
 2.8950	 4.2700
 2.8970	 4.0850
 2.8980	 3.6590
 2.9000	 3.4260
 2.9020	 3.3580
 2.9030	 3.3740
 2.9050	 3.3130
 2.9070	 3.3980
 2.9080	 3.8180
 2.9100	 3.8940
 2.9120	 3.7550
 2.9130	 3.6130
 2.9150	 3.6240
 2.9160	 3.7810
 2.9180	 3.6800
 2.9200	 3.5920
 2.9210	 3.7550
 2.9230	 3.6930
 2.9250	 3.6990
 2.9260	 3.5960
 2.9280	 3.6090
 2.9300	 3.5600
 2.9310	 3.5900
 2.9330	 3.6300
 2.9350	 3.6880
 2.9360	 3.4300
 2.9380	 3.2580
 2.9400	 3.2630
 2.9410	 3.1610
 2.9430	 3.6090
 2.9450	 4.1130
 2.9460	 3.8820
 2.9480	 3.6340
 2.9500	 3.7360
 2.9510	 4.1340
 2.9530	 3.2830
 2.9550	 2.8300
 2.9560	 2.7520
 2.9580	 3.4190
 2.9600	 4.6570
 2.9610	 5.2130
 2.9630	 4.6090
 2.9650	 4.6200
 2.9660	 4.5590
 2.9680	 5.1160
 2.9700	 3.6370
 2.9720	 1.1830
 2.9730	 3.2710
 2.9750	 5.0860
 2.9770	 2.7720
 2.9780	 1.8960
 2.9800	 4.2430
 2.9820	 5.8660
 2.9840	 4.5430
 2.9850	 3.0460
 2.9870	 2.9850
 2.9890	 5.4220
 2.9900	 5.7610
 2.9920	 4.0880
 2.9940	 4.1160
 2.9960	 3.5130
 2.9970	 0.4440
 2.9990	 -0.447
 3.0010	 2.6430
 3.0030	 3.9780
 3.0040	 2.4230
 3.0060	 1.9230
 3.0080	 2.8190
 3.0100	 2.7170
 3.0110	 4.1190
 3.0130	 4.8710
 3.0150	 3.2040
 3.0170	 2.6900
 3.0180	 2.6010
 3.0200	 3.3060
 3.0220	 4.2110
 3.0240	 4.2850
 3.0250	 3.7740
 3.0270	 3.6750
 3.0290	 2.8990
 3.0310	 2.8790
 3.0320	 2.5790
 3.0340	 1.9740
 3.0360	 2.5870
 3.0380	 3.2610
 3.0400	 2.0380
 3.0410	 1.0570
 3.0430	 2.0650
 3.0450	 1.5280
 3.0470	 2.7510
 3.0480	 2.5500
 3.0500	 2.1010
 3.0520	 3.1920
 3.0540	 2.6540
 3.0560	 2.1540
 3.0570	 4.3310
 3.0590	 6.4280
 3.0610	 5.4450
 3.0630	 3.0360
 3.0650	 2.4540
 3.0660	 3.5920
 3.0680	 4.9800
 3.0700	 4.4410
 3.0720	 2.9840
 3.0740	 3.8030
 3.0760	 4.2660
 3.0770	 3.7400
 3.0790	 3.7720
 3.0810	 3.9860
 3.0830	 4.0100
 3.0850	 3.8430
 3.0870	 3.7900
 3.0880	 3.9940
 3.0900	 4.1050
 3.0920	 4.0690
 3.0940	 3.8530
 3.0960	 4.0910
 3.0980	 4.0210
 3.0990	 3.8790
 3.1010	 4.1120
 3.1030	 4.6580
 3.1050	 4.3770
 3.1070	 3.9450
 3.1090	 4.0050
 3.1110	 4.2610
 3.1120	 4.0640
 3.1140	 4.0080
 3.1160	 4.1050
 3.1180	 4.2780
 3.1200	 4.2330
 3.1220	 4.2230
 3.1240	 3.8240
 3.1260	 3.4940
 3.1270	 3.5400
 3.1290	 4.0140
 3.1310	 4.5490
 3.1330	 4.9830
 3.1350	 4.5430
 3.1370	 3.9920
 3.1390	 3.8500
 3.1410	 2.8890
 3.1430	 2.7390
 3.1450	 3.9950
 3.1460	 4.5050
 3.1480	 3.2120
 3.1500	 2.2720
 3.1520	 2.9510
 3.1540	 2.4970
 3.1560	 3.4560
 3.1580	 5.2280
 3.1600	 6.0200
 3.1620	 5.6020
 3.1640	 5.4060
 3.1660	 3.0930
 3.1680	 1.4420
 3.1700	 5.0950
 3.1710	 7.9150
 3.1730	 4.9190
 3.1750	 2.2900
 3.1770	 2.7480
 3.1790	 3.4430
 3.1810	 4.6600
 3.1830	 4.3170
 3.1850	 4.4320
 3.1870	 4.5640
 3.1890	 3.8060
 3.1910	 3.8890
 3.1930	 4.1340
 3.1950	 4.3410
 3.1970	 4.5030
 3.1990	 4.4730
 3.2010	 3.8480
 3.2030	 4.0340
 3.2050	 4.1730
 3.2070	 4.4710
 3.2090	 4.7910
 3.2110	 4.6390
 3.2130	 4.4570
 3.2150	 4.5020
 3.2170	 4.3910
 3.2190	 4.2230
 3.2210	 4.2800
 3.2230	 4.3080
 3.2250	 4.3690
 3.2270	 4.3700
 3.2290	 4.3160
 3.2310	 4.3660
 3.2330	 4.5120
 3.2350	 4.2990
 3.2370	 3.9030
 3.2390	 4.0780
 3.2410	 4.6010
 3.2430	 4.8220
 3.2450	 5.1350
 3.2470	 5.0410
 3.2490	 4.4930
 3.2510	 4.3460
 3.2530	 4.1190
 3.2550	 4.1710
 3.2570	 4.3330
 3.2590	 3.9150
 3.2610	 3.5450
 3.2630	 3.5750
 3.2650	 3.8620
 3.2670	 4.1450
 3.2690	 4.0780
 3.2720	 4.1580
 3.2740	 4.2900
 3.2760	 4.2320
 3.2780	 4.1470
 3.2800	 4.2660
 3.2820	 4.5500
 3.2840	 4.4960
 3.2860	 4.1410
 3.2880	 4.1410
 3.2900	 4.1210
 3.2920	 4.1410
 3.2940	 3.7720
 3.2960	 3.8210
 3.2990	 4.1920
 3.3010	 4.2350
 3.3030	 4.2720
 3.3050	 4.2160
 3.3070	 4.4140
 3.3090	 4.4980
 3.3110	 4.2710
 3.3130	 4.2190
 3.3150	 3.7960
 3.3180	 3.6250
 3.3200	 3.9270
 3.3220	 4.1420
 3.3240	 4.1260
 3.3260	 4.1630
 3.3280	 4.2000
 3.3300	 4.0710
 3.3330	 4.0320
 3.3350	 3.9730
 3.3370	 3.9030
 3.3390	 4.1310
 3.3410	 4.3280
 3.3430	 4.1500
 3.3450	 3.9120
 3.3480	 3.9190
 3.3500	 3.8930
 3.3520	 3.8690
 3.3540	 4.0060
 3.3560	 3.9410
 3.3580	 3.8740
 3.3610	 3.8940
 3.3630	 3.7670
 3.3650	 3.7250
 3.3670	 3.7970
 3.3690	 3.9440
 3.3720	 3.8960
 3.3740	 3.9790
 3.3760	 3.9740
 3.3780	 3.8670
 3.3800	 3.9140
 3.3830	 4.0970
 3.3850	 4.1570
 3.3870	 4.1470
 3.3890	 3.8440
 3.3910	 3.4380
 3.3940	 3.4260
 3.3960	 3.2980
 3.3980	 3.4150
 3.4000	 3.7350
 3.4020	 3.7530
 3.4050	 3.7990
 3.4070	 3.8230
 3.4090	 4.0510
 3.4110	 4.2120
 3.4140	 4.4840
 3.4160	 4.8900
 3.4180	 5.4090
 3.4200	 6.0060
 3.4230	 7.0280
 3.4250	 8.1410
 3.4270	 9.2190
 3.4290	 9.7550
 3.4320	 9.1240
 3.4340	 7.9110
 3.4360	 7.0360
 3.4390	 6.3250
 3.4410	 5.8520
 3.4430	 5.8760
 3.4450	 5.5990
 3.4480	 5.3570
 3.4500	 5.4110
 3.4520	 5.2100
 3.4550	 5.3690
 3.4570	 5.2760
 3.4590	 4.8290
 3.4620	 4.8650
 3.4640	 5.1020
 3.4660	 5.2140
 3.4680	 5.1030
 3.4710	 4.8640
 3.4730	 4.7370
 3.4750	 4.6860
 3.4780	 4.6550
 3.4800	 4.5470
 3.4820	 4.6120
 3.4850	 4.6220
 3.4870	 4.5410
 3.4890	 4.4490
 3.4920	 4.4340
 3.4940	 4.4250
 3.4970	 4.5030
 3.4990	 4.5970
 3.5010	 4.7750
 3.5040	 5.1850
 3.5060	 6.1300
 3.5080	 7.5650
 3.5110	 8.7930
 3.5130	 8.7080
 3.5160	 7.6520
 3.5180	 6.7350
 3.5200	 6.3680
 3.5230	 6.1220
 3.5250	 5.8560
 3.5270	 5.6890
 3.5300	 5.5850
 3.5320	 5.5700
 3.5350	 5.5570
 3.5370	 5.4550
 3.5400	 5.3270
 3.5420	 5.2660
 3.5440	 5.3500
 3.5470	 5.3130
 3.5490	 5.1440
 3.5520	 5.0660
 3.5540	 5.1890
 3.5570	 5.3770
 3.5590	 5.3800
 3.5610	 5.3550
 3.5640	 5.3460
 3.5660	 5.3020
 3.5690	 5.3240
 3.5710	 5.5110
 3.5740	 5.6570
 3.5760	 5.4480
 3.5790	 5.3910
 3.5810	 5.2080
 3.5840	 5.1330
 3.5860	 5.1340
 3.5890	 5.2400
 3.5910	 5.3300
 3.5930	 5.0850
 3.5960	 4.8910
 3.5980	 5.2940
 3.6010	 5.3180
 3.6030	 5.2490
 3.6060	 5.2650
 3.6080	 4.9480
 3.6110	 4.8870
 3.6140	 5.0800
 3.6160	 5.2720
 3.6190	 5.3290
 3.6210	 5.1710
 3.6240	 5.0840
 3.6260	 5.0510
 3.6290	 4.9990
 3.6310	 5.1370
 3.6340	 5.3270
 3.6360	 5.2940
 3.6390	 5.0430
 3.6410	 4.9560
 3.6440	 5.2430
 3.6470	 5.2560
 3.6490	 5.0840
 3.6520	 5.0620
 3.6540	 5.1940
 3.6570	 5.1080
 3.6590	 4.9460
 3.6620	 4.9050
 3.6650	 4.9030
 3.6670	 4.9040
 3.6700	 4.9870
 3.6720	 5.0190
 3.6750	 5.0550
 3.6780	 5.0940
 3.6800	 5.1580
 3.6830	 5.1220
 3.6850	 5.0520
 3.6880	 5.1410
 3.6910	 5.1870
 3.6930	 5.0770
 3.6960	 5.0220
 3.6990	 5.0220
 3.7010	 5.0400
 3.7040	 5.0640
 3.7060	 5.1160
 3.7090	 5.1390
 3.7120	 5.1420
 3.7140	 5.1800
 3.7170	 5.0950
 3.7200	 5.0130
 3.7220	 5.0590
 3.7250	 5.1560
 3.7280	 5.1740
 3.7300	 5.0170
 3.7330	 5.0530
 3.7360	 5.1400
 3.7390	 5.0050
 3.7410	 4.9940
 3.7440	 5.2630
 3.7470	 5.3050
 3.7490	 5.1040
 3.7520	 5.0840
 3.7550	 5.1930
 3.7580	 5.2430
 3.7600	 5.2560
 3.7630	 5.2810
 3.7660	 5.1930
 3.7680	 5.0340
 3.7710	 5.0520
 3.7740	 5.1600
 3.7770	 5.2470
 3.7790	 5.0790
 3.7820	 4.9710
 3.7850	 5.0500
 3.7880	 5.0780
 3.7900	 5.0940
 3.7930	 5.1010
 3.7960	 5.1250
 3.7990	 5.2840
 3.8020	 5.3090
 3.8040	 5.2460
 3.8070	 5.1300
 3.8100	 5.0740
 3.8130	 5.1510
 3.8160	 5.1860
 3.8180	 5.2140
 3.8210	 5.3590
 3.8240	 5.2690
 3.8270	 5.1970
 3.8300	 5.2760
 3.8330	 5.3510
 3.8350	 5.3490
 3.8380	 5.2920
 3.8410	 5.3320
 3.8440	 5.4040
 3.8470	 5.2390
 3.8500	 5.0810
 3.8520	 5.0990
 3.8550	 5.1880
 3.8580	 5.1860
 3.8610	 5.1750
 3.8640	 5.1060
 3.8670	 5.0850
 3.8700	 5.2190
 3.8730	 5.2890
 3.8750	 5.2260
 3.8780	 5.2070
 3.8810	 5.2150
 3.8840	 5.2910
 3.8870	 5.3170
 3.8900	 5.2140
 3.8930	 5.0580
 3.8960	 5.0730
 3.8990	 5.1210
 3.9020	 5.2360
 3.9050	 5.2380
 3.9080	 5.1450
 3.9110	 5.3190
 3.9140	 5.4350
 3.9160	 5.3190
 3.9190	 5.2490
 3.9220	 5.2310
 3.9250	 5.2950
 3.9280	 5.3260
 3.9310	 5.3450
 3.9340	 5.3340
 3.9370	 5.1590
 3.9400	 5.0940
 3.9430	 5.1870
 3.9460	 5.2640
 3.9490	 5.2620
 3.9520	 5.2220
 3.9550	 5.2130
 3.9580	 5.2760
 3.9610	 5.3190
 3.9640	 5.2680
 3.9670	 5.2160
 3.9700	 5.2660
 3.9730	 5.2600
 3.9770	 5.2000
 3.9800	 5.1760
 3.9830	 5.2490
 3.9860	 5.2790
 3.9890	 5.2060
 3.9920	 5.1970
 3.9950	 5.2640
 3.9980	 5.2900
 4.0010	 5.2080
 4.0040	 5.2330
 4.0070	 5.2810
 4.0100	 5.2830
 4.0130	 5.2770
 4.0170	 5.3490
 4.0200	 5.3250
 4.0230	 5.2670
 4.0260	 5.2740
 4.0290	 5.3020
 4.0320	 5.3280
 4.0350	 5.2850
 4.0380	 5.2550
 4.0420	 5.2470
 4.0450	 5.2170
 4.0480	 5.2580
 4.0510	 5.2310
 4.0540	 5.3300
 4.0570	 5.5360
 4.0610	 5.5760
 4.0640	 5.3690
 4.0670	 5.2320
 4.0700	 5.2430
 4.0730	 5.2760
 4.0770	 5.2640
 4.0800	 5.1480
 4.0830	 5.2110
 4.0860	 5.2900
 4.0890	 5.2600
 4.0930	 5.3050
 4.0960	 5.3590
 4.0990	 5.4270
 4.1020	 5.4690
 4.1060	 5.4820
 4.1090	 5.5400
 4.1120	 5.5660
 4.1150	 5.6590
 4.1190	 5.4040
 4.1220	 5.2070
 4.1250	 5.3020
 4.1280	 5.3870
 4.1320	 5.3600
 4.1350	 5.3800
 4.1380	 5.4120
 4.1420	 5.3980
 4.1450	 5.4040
 4.1480	 5.4170
 4.1520	 5.4200
 4.1550	 5.3970
 4.1580	 5.3950
 4.1620	 5.4250
 4.1650	 5.4330
 4.1680	 5.4760
 4.1720	 5.5160
 4.1750	 5.4000
 4.1780	 5.2670
 4.1820	 5.2030
 4.1850	 5.2400
 4.1890	 5.3020
 4.1920	 5.3250
 4.1950	 5.3560
 4.1990	 5.4100
 4.2020	 5.4500
 4.2060	 5.4490
 4.2090	 5.4270
 4.2120	 5.3770
 4.2160	 5.3180
 4.2190	 5.3640
 4.2230	 5.4010
 4.2260	 5.3930
 4.2300	 4.9760
 4.2330	 4.8160
 4.2360	 5.0320
 4.2400	 5.2180
 4.2430	 5.4720
 4.2470	 5.2640
 4.2500	 5.2120
 4.2540	 5.3810
 4.2570	 5.3180
 4.2610	 5.1070
 4.2640	 5.2670
 4.2680	 5.4330
 4.2710	 5.3990
 4.2750	 5.4720
 4.2780	 5.4910
 4.2820	 5.3700
 4.2850	 5.5580
 4.2890	 5.6470
 4.2930	 5.5620
 4.2960	 5.5580
 4.3000	 5.6740
 4.3030	 5.5270
 4.3070	 5.3960
 4.3100	 5.2240
 4.3140	 5.2470
 4.3180	 5.3420
 4.3210	 5.4190
 4.3250	 5.5020
 4.3280	 5.5360
 4.3320	 5.5220
 4.3360	 5.5300
 4.3390	 5.4800
 4.3430	 5.4660
 4.3470	 5.4860
 4.3500	 5.4440
 4.3540	 5.3280
 4.3570	 5.3390
 4.3610	 5.3590
 4.3650	 5.2740
 4.3680	 5.2840
 4.3720	 5.4070
 4.3760	 5.4220
 4.3800	 5.3610
 4.3830	 5.3790
 4.3870	 5.3390
 4.3910	 5.3140
 4.3940	 5.3560
 4.3980	 5.3740
 4.4020	 5.3950
 4.4060	 5.3450
 4.4090	 5.3460
 4.4130	 5.3440
 4.4170	 5.3220
 4.4210	 5.3070
 4.4240	 5.3180
 4.4280	 5.3200
 4.4320	 5.3130
 4.4360	 5.2260
 4.4400	 5.2280
 4.4430	 5.2840
 4.4470	 5.3090
 4.4510	 5.3000
 4.4550	 5.3320
 4.4590	 5.3030
 4.4620	 5.2830
 4.4660	 5.2780
 4.4700	 5.3630
 4.4740	 5.3130
 4.4780	 5.2010
 4.4820	 5.1670
 4.4860	 5.2760
 4.4900	 5.3080
 4.4930	 5.3030
 4.4970	 5.2840
 4.5010	 5.1970
 4.5050	 5.2610
 4.5090	 5.3840
 4.5130	 5.3940
 4.5170	 5.2900
 4.5210	 5.2390
 4.5250	 5.3750
 4.5290	 5.4270
 4.5330	 5.4280
 4.5370	 5.3960
 4.5410	 5.3690
 4.5450	 5.4170
 4.5490	 5.4100
 4.5530	 5.2910
 4.5570	 5.2230
 4.5610	 5.2700
 4.5650	 5.3390
 4.5690	 5.2370
 4.5730	 5.1130
 4.5770	 5.1840
 4.5810	 5.2270
 4.5850	 5.1280
 4.5890	 5.0380
 4.5930	 5.0650
 4.5970	 5.2600
 4.6010	 5.2730
 4.6050	 5.1880
 4.6090	 5.2330
 4.6130	 5.2820
 4.6170	 5.3250
 4.6220	 5.3170
 4.6260	 5.2850
 4.6300	 5.2530
 4.6340	 5.1210
 4.6380	 5.0210
 4.6420	 5.2510
 4.6460	 5.3960
 4.6510	 5.2590
 4.6550	 5.0720
 4.6590	 5.0860
 4.6630	 5.2000
 4.6670	 5.2820
 4.6720	 5.1830
 4.6760	 5.1660
 4.6800	 5.2910
 4.6840	 5.2670
 4.6880	 5.2410
 4.6930	 5.1340
 4.6970	 5.1410
 4.7010	 5.2650
 4.7050	 5.2700
 4.7100	 5.1380
 4.7140	 5.1890
 4.7180	 5.2880
 4.7230	 5.2110
 4.7270	 5.1040
 4.7310	 5.1680
 4.7360	 5.2250
 4.7400	 5.2540
 4.7440	 5.2910
 4.7490	 5.3020
 4.7530	 5.2670
 4.7570	 5.2070
 4.7620	 5.1490
 4.7660	 5.1520
 4.7700	 5.1010
 4.7750	 5.0750
 4.7790	 5.0720
 4.7840	 5.1450
 4.7880	 5.2410
 4.7920	 5.3850
 4.7970	 5.4790
 4.8010	 5.1090
 4.8060	 4.8110
 4.8100	 4.9430
 4.8150	 5.1600
 4.8190	 5.3640
 4.8240	 5.3970
 4.8280	 5.2910
 4.8330	 5.2120
 4.8370	 5.2490
 4.8420	 5.1970
 4.8460	 5.1710
 4.8510	 5.1320
 4.8550	 5.2280
 4.8600	 5.2830
 4.8640	 5.2840
 4.8690	 5.2640
 4.8730	 5.2500
 4.8780	 5.2330
 4.8830	 5.2300
 4.8870	 5.2100
 4.8920	 5.2060
 4.8960	 5.2350
 4.9010	 5.2130
 4.9060	 5.1920
 4.9100	 5.2260
 4.9150	 5.1680
 4.9200	 5.1010
 4.9240	 5.1380
 4.9290	 5.2040
 4.9340	 5.1980
 4.9380	 5.2630
 4.9430	 5.2960
 4.9480	 5.2540
 4.9530	 5.2300
 4.9570	 5.2530
 4.9620	 5.2480
 4.9670	 5.2950
 4.9720	 5.2500
 4.9760	 5.1930
 4.9810	 5.1870
 4.9860	 5.2750
 4.9910	 5.2550
 4.9960	 5.2090
 5.0000	 5.1640
 5.0050	 5.1900
 5.0100	 5.1690
 5.0150	 5.1500
 5.0200	 5.1730
 5.0250	 5.2140
 5.0290	 5.2500
 5.0340	 5.2610
 5.0390	 5.2030
 5.0440	 5.2280
 5.0490	 5.1950
 5.0540	 5.1830
 5.0590	 5.1940
 5.0640	 5.2610
 5.0690	 5.2250
 5.0740	 5.1940
 5.0790	 5.2050
 5.0840	 5.1850
 5.0890	 5.1840
 5.0940	 5.2950
 5.0990	 5.2980
 5.1040	 5.2560
 5.1090	 5.2050
 5.1140	 5.2880
 5.1190	 5.3080
 5.1240	 5.2460
 5.1290	 5.1750
 5.1340	 5.2160
 5.1390	 5.2320
 5.1440	 5.2850
 5.1490	 5.3290
 5.1540	 5.2280
 5.1600	 5.2740
 5.1650	 5.3140
 5.1700	 5.2280
 5.1750	 5.2100
 5.1800	 5.1960
 5.1850	 5.2590
 5.1910	 5.2850
 5.1960	 5.2670
 5.2010	 5.2320
 5.2060	 5.2490
 5.2110	 5.2140
 5.2170	 5.2210
 5.2220	 5.2220
 5.2270	 5.2150
 5.2320	 5.1640
 5.2380	 5.1840
 5.2430	 5.1650
 5.2480	 5.1960
 5.2540	 5.1820
 5.2590	 5.2160
 5.2640	 5.2310
 5.2700	 5.2990
 5.2750	 5.3030
 5.2800	 5.3650
 5.2860	 5.2510
 5.2910	 5.1780
 5.2970	 5.0850
 5.3020	 5.0220
 5.3070	 5.0430
 5.3130	 5.1090
 5.3180	 5.1610
 5.3240	 5.1460
 5.3290	 5.1410
 5.3350	 5.1400
 5.3400	 5.1070
 5.3460	 5.0880
 5.3510	 5.0530
 5.3570	 5.1450
 5.3620	 5.1680
 5.3680	 5.0730
 5.3730	 4.9400
 5.3790	 5.0350
 5.3850	 5.1320
 5.3900	 5.1240
 5.3960	 5.0540
 5.4010	 5.0550
 5.4070	 5.0090
 5.4130	 4.9720
 5.4180	 4.9370
 5.4240	 5.0150
 5.4300	 5.0490
 5.4350	 5.1020
