Name: Pinus ponderosa 3
Type: vegetation
Class: Tree
Genus: Pinus
Species: ponderosa
Sample No.: VH068
Owner: UCSB
Wavelength Range: TIR
Origin: 37.043; -119.3048; WGS84
Collection Date: 4/20/2013
Description: Samples were collected as part of the HyspIRI Airborne Campaign. 48 individual plants were sampled in three times in 2013 - spring  summer  and fall. The name of the sample includes a 1  2  or 3 which references a different individual of the species. Samples were taken to JPL and processed within 48 hours of collection. The same leaves were processed in the Nicolet and then measured using the ASD.
Measurement: Hemispherical reflectance
First Column: X
Second Column: Y
X Units: Wavelength (micrometers)
Y Units: Reflectance (percentage)
First X Value: 2.501
Last X Value: 15.387
Number of X Values: 1737
Additional Information: vegetation.tree.pinus.ponderosa.tir.vh068.ucsb.nicolet.ancillary.txt

 2.5010	 3.3630
 2.5030	 3.3490
 2.5040	 3.3480
 2.5050	 3.3730
 2.5060	 3.3970
 2.5070	 3.4100
 2.5090	 3.3460
 2.5100	 3.2910
 2.5110	 3.3080
 2.5120	 3.1690
 2.5140	 3.2430
 2.5150	 3.3640
 2.5160	 3.3510
 2.5170	 3.2630
 2.5180	 3.3000
 2.5200	 3.3160
 2.5210	 3.3230
 2.5220	 3.3360
 2.5230	 3.2560
 2.5250	 3.2330
 2.5260	 3.1990
 2.5270	 3.2410
 2.5280	 3.3280
 2.5290	 3.3900
 2.5310	 3.3600
 2.5320	 3.2460
 2.5330	 3.2660
 2.5340	 3.2590
 2.5360	 3.2580
 2.5370	 3.2550
 2.5380	 3.3800
 2.5390	 3.3900
 2.5410	 3.3110
 2.5420	 3.3360
 2.5430	 3.4580
 2.5440	 3.4730
 2.5460	 3.4290
 2.5470	 3.4360
 2.5480	 3.4680
 2.5490	 3.4680
 2.5510	 3.4930
 2.5520	 3.4850
 2.5530	 3.4100
 2.5540	 3.3020
 2.5560	 3.3710
 2.5570	 3.4820
 2.5580	 3.4950
 2.5590	 3.4010
 2.5610	 3.4280
 2.5620	 3.4660
 2.5630	 3.4740
 2.5640	 3.4700
 2.5660	 3.4480
 2.5670	 3.4170
 2.5680	 3.3960
 2.5700	 3.3640
 2.5710	 3.4310
 2.5720	 3.4620
 2.5730	 3.5040
 2.5750	 3.4840
 2.5760	 3.5380
 2.5770	 3.4920
 2.5790	 3.3750
 2.5800	 3.3940
 2.5810	 3.4580
 2.5820	 3.4090
 2.5840	 3.4130
 2.5850	 3.4930
 2.5860	 3.4720
 2.5880	 3.4520
 2.5890	 3.5130
 2.5900	 3.5470
 2.5910	 3.5380
 2.5930	 3.5670
 2.5940	 3.4730
 2.5950	 3.3450
 2.5970	 3.3570
 2.5980	 3.3960
 2.5990	 3.3930
 2.6000	 3.3390
 2.6020	 3.3750
 2.6030	 3.3660
 2.6040	 3.3740
 2.6060	 3.2630
 2.6070	 3.1630
 2.6080	 3.1440
 2.6100	 3.2380
 2.6110	 3.3270
 2.6120	 3.3410
 2.6140	 3.2040
 2.6150	 3.1930
 2.6160	 3.2600
 2.6180	 3.3000
 2.6190	 3.2180
 2.6200	 3.1360
 2.6220	 3.1380
 2.6230	 3.2480
 2.6240	 3.2590
 2.6260	 3.2440
 2.6270	 3.0940
 2.6280	 3.0380
 2.6300	 3.1360
 2.6310	 3.1550
 2.6320	 3.0650
 2.6340	 3.0500
 2.6350	 3.1030
 2.6360	 3.0620
 2.6380	 3.0030
 2.6390	 3.0060
 2.6400	 2.9570
 2.6420	 3.0280
 2.6430	 3.0450
 2.6440	 2.9980
 2.6460	 2.9270
 2.6470	 3.0110
 2.6480	 3.0580
 2.6500	 2.9790
 2.6510	 2.8900
 2.6520	 2.9090
 2.6540	 2.9240
 2.6550	 3.0250
 2.6560	 2.9790
 2.6580	 2.8910
 2.6590	 2.9060
 2.6610	 2.9140
 2.6620	 2.8410
 2.6630	 2.7950
 2.6650	 2.7280
 2.6660	 2.8000
 2.6670	 2.7870
 2.6690	 2.7100
 2.6700	 2.7000
 2.6720	 2.7070
 2.6730	 2.7020
 2.6740	 2.7180
 2.6760	 2.8170
 2.6770	 2.8490
 2.6780	 2.6980
 2.6800	 2.6190
 2.6810	 2.5710
 2.6830	 2.6010
 2.6840	 2.5990
 2.6850	 2.6350
 2.6870	 2.5770
 2.6880	 2.3990
 2.6900	 2.3390
 2.6910	 2.4750
 2.6920	 2.4460
 2.6940	 2.3940
 2.6950	 2.3840
 2.6970	 2.4540
 2.6980	 2.5200
 2.6990	 2.5200
 2.7010	 2.4450
 2.7020	 2.4660
 2.7040	 2.4000
 2.7050	 2.3390
 2.7060	 2.3290
 2.7080	 2.3510
 2.7090	 2.3900
 2.7110	 2.3700
 2.7120	 2.3380
 2.7130	 2.3740
 2.7150	 2.2320
 2.7160	 2.1800
 2.7180	 2.2510
 2.7190	 2.2390
 2.7210	 2.2980
 2.7220	 2.3490
 2.7230	 2.2350
 2.7250	 2.1430
 2.7260	 2.1350
 2.7280	 2.1310
 2.7290	 2.1800
 2.7310	 2.1800
 2.7320	 2.1060
 2.7330	 2.2150
 2.7350	 2.3100
 2.7360	 2.3330
 2.7380	 2.2680
 2.7390	 2.2160
 2.7410	 2.2510
 2.7420	 2.2880
 2.7440	 2.3270
 2.7450	 2.3930
 2.7470	 2.3160
 2.7480	 2.3190
 2.7490	 2.2640
 2.7510	 2.2760
 2.7520	 2.2720
 2.7540	 2.1540
 2.7550	 2.0370
 2.7570	 2.1000
 2.7580	 2.0980
 2.7600	 2.1420
 2.7610	 2.1370
 2.7630	 2.1100
 2.7640	 2.1570
 2.7660	 2.2850
 2.7670	 2.3390
 2.7680	 2.3660
 2.7700	 2.1990
 2.7710	 2.0620
 2.7730	 2.0430
 2.7740	 2.1610
 2.7760	 2.2850
 2.7770	 2.2420
 2.7790	 2.1750
 2.7800	 2.2400
 2.7820	 2.2600
 2.7830	 2.2670
 2.7850	 2.1560
 2.7860	 2.2250
 2.7880	 2.2980
 2.7890	 2.2850
 2.7910	 2.1410
 2.7920	 2.1220
 2.7940	 2.0660
 2.7950	 2.1180
 2.7970	 2.1200
 2.7980	 2.1440
 2.8000	 2.1280
 2.8010	 2.1330
 2.8030	 2.1370
 2.8040	 2.1560
 2.8060	 2.1320
 2.8070	 2.1330
 2.8090	 2.0700
 2.8110	 2.1320
 2.8120	 2.2030
 2.8140	 2.1460
 2.8150	 2.1330
 2.8170	 2.2830
 2.8180	 2.2480
 2.8200	 2.1890
 2.8210	 2.1520
 2.8230	 2.1950
 2.8240	 2.2620
 2.8260	 2.2610
 2.8270	 2.2440
 2.8290	 2.1930
 2.8300	 2.1260
 2.8320	 2.2430
 2.8340	 2.2660
 2.8350	 2.2070
 2.8370	 2.1420
 2.8380	 2.1860
 2.8400	 2.1530
 2.8410	 2.1370
 2.8430	 2.1940
 2.8440	 2.1660
 2.8460	 2.0680
 2.8480	 2.1140
 2.8490	 2.1890
 2.8510	 2.1820
 2.8520	 2.2160
 2.8540	 2.2330
 2.8550	 2.1100
 2.8570	 2.1350
 2.8590	 2.0970
 2.8600	 2.1200
 2.8620	 2.2670
 2.8630	 2.3800
 2.8650	 2.3780
 2.8660	 2.3190
 2.8680	 2.1880
 2.8700	 2.2400
 2.8710	 2.3080
 2.8730	 2.2880
 2.8740	 2.2020
 2.8760	 2.2320
 2.8780	 2.1210
 2.8790	 2.0770
 2.8810	 2.2000
 2.8820	 2.1900
 2.8840	 1.9960
 2.8860	 2.0900
 2.8870	 2.1790
 2.8890	 2.2120
 2.8900	 2.1630
 2.8920	 2.1840
 2.8940	 2.1110
 2.8950	 2.1610
 2.8970	 2.1900
 2.8980	 2.2160
 2.9000	 2.1460
 2.9020	 2.1030
 2.9030	 2.1010
 2.9050	 2.0770
 2.9070	 2.0480
 2.9080	 2.0770
 2.9100	 2.1060
 2.9120	 2.2230
 2.9130	 2.2410
 2.9150	 2.2240
 2.9160	 2.1760
 2.9180	 2.1850
 2.9200	 2.1080
 2.9210	 2.0520
 2.9230	 2.0840
 2.9250	 2.2090
 2.9260	 2.2310
 2.9280	 2.2430
 2.9300	 2.2810
 2.9310	 2.3320
 2.9330	 2.2660
 2.9350	 2.2650
 2.9360	 2.1500
 2.9380	 2.1620
 2.9400	 2.1880
 2.9410	 2.1110
 2.9430	 2.1500
 2.9450	 2.2350
 2.9460	 2.2650
 2.9480	 2.2980
 2.9500	 2.1630
 2.9510	 2.0600
 2.9530	 2.0680
 2.9550	 2.1430
 2.9560	 2.0690
 2.9580	 2.1360
 2.9600	 2.1570
 2.9610	 2.2550
 2.9630	 2.2080
 2.9650	 2.1930
 2.9660	 2.2340
 2.9680	 2.1350
 2.9700	 2.0650
 2.9720	 1.9700
 2.9730	 1.8120
 2.9750	 2.0640
 2.9770	 2.3610
 2.9780	 2.5190
 2.9800	 2.3170
 2.9820	 2.4650
 2.9840	 2.4970
 2.9850	 2.5780
 2.9870	 2.4470
 2.9890	 2.3430
 2.9900	 2.0450
 2.9920	 1.7580
 2.9940	 2.2740
 2.9960	 2.4130
 2.9970	 1.9690
 2.9990	 1.9540
 3.0010	 1.9960
 3.0030	 2.0460
 3.0040	 2.1280
 3.0060	 2.2520
 3.0080	 2.3130
 3.0100	 2.4780
 3.0110	 2.4580
 3.0130	 2.3920
 3.0150	 2.3570
 3.0170	 2.2170
 3.0180	 2.0840
 3.0200	 1.9930
 3.0220	 2.0050
 3.0240	 2.1880
 3.0250	 2.2070
 3.0270	 2.1400
 3.0290	 2.0240
 3.0310	 2.1820
 3.0320	 2.6350
 3.0340	 2.3080
 3.0360	 1.9780
 3.0380	 2.6160
 3.0400	 2.6490
 3.0410	 1.9320
 3.0430	 1.5950
 3.0450	 1.8810
 3.0470	 1.9540
 3.0480	 1.5750
 3.0500	 1.8830
 3.0520	 2.6000
 3.0540	 2.3900
 3.0560	 1.9030
 3.0570	 1.6070
 3.0590	 2.2050
 3.0610	 2.3860
 3.0630	 2.4180
 3.0650	 2.4190
 3.0660	 2.2910
 3.0680	 2.2300
 3.0700	 2.4420
 3.0720	 2.4060
 3.0740	 2.2410
 3.0760	 2.1230
 3.0770	 2.1240
 3.0790	 2.0780
 3.0810	 1.9800
 3.0830	 1.9310
 3.0850	 2.0750
 3.0870	 2.1960
 3.0880	 2.1620
 3.0900	 2.1190
 3.0920	 2.0840
 3.0940	 2.0950
 3.0960	 2.2780
 3.0980	 2.2230
 3.0990	 2.1020
 3.1010	 2.1290
 3.1030	 2.1800
 3.1050	 2.3490
 3.1070	 2.3530
 3.1090	 2.0610
 3.1110	 1.9120
 3.1120	 2.0340
 3.1140	 2.1580
 3.1160	 2.1140
 3.1180	 1.9990
 3.1200	 1.9700
 3.1220	 2.0860
 3.1240	 2.0650
 3.1260	 2.1680
 3.1270	 2.2720
 3.1290	 2.2160
 3.1310	 2.1320
 3.1330	 2.1520
 3.1350	 2.0460
 3.1370	 2.0590
 3.1390	 2.1570
 3.1410	 2.1310
 3.1430	 2.2140
 3.1450	 2.2230
 3.1460	 1.9720
 3.1480	 1.9520
 3.1500	 2.0770
 3.1520	 2.2290
 3.1540	 2.1710
 3.1560	 2.2090
 3.1580	 2.2380
 3.1600	 2.3500
 3.1620	 2.1690
 3.1640	 2.0460
 3.1660	 1.8250
 3.1680	 2.1080
 3.1700	 2.4550
 3.1710	 2.8110
 3.1730	 2.7620
 3.1750	 2.0850
 3.1770	 2.0780
 3.1790	 2.1990
 3.1810	 1.8840
 3.1830	 2.1090
 3.1850	 2.5570
 3.1870	 2.5750
 3.1890	 2.4900
 3.1910	 2.1320
 3.1930	 1.8420
 3.1950	 1.9240
 3.1970	 2.0100
 3.1990	 2.0590
 3.2010	 1.9980
 3.2030	 2.0110
 3.2050	 2.0940
 3.2070	 2.1430
 3.2090	 2.1420
 3.2110	 2.1970
 3.2130	 2.1510
 3.2150	 2.1000
 3.2170	 1.9950
 3.2190	 2.0570
 3.2210	 2.1550
 3.2230	 2.0930
 3.2250	 2.0480
 3.2270	 2.0600
 3.2290	 2.0220
 3.2310	 1.9460
 3.2330	 1.9670
 3.2350	 1.9510
 3.2370	 1.9780
 3.2390	 2.0710
 3.2410	 2.0790
 3.2430	 2.0460
 3.2450	 2.0010
 3.2470	 2.0140
 3.2490	 2.0640
 3.2510	 2.1140
 3.2530	 2.0510
 3.2550	 1.9990
 3.2570	 1.9360
 3.2590	 1.9580
 3.2610	 2.0210
 3.2630	 1.9460
 3.2650	 1.9830
 3.2670	 2.0970
 3.2690	 2.0250
 3.2720	 1.9800
 3.2740	 2.0520
 3.2760	 2.0640
 3.2780	 2.0730
 3.2800	 2.1590
 3.2820	 2.0460
 3.2840	 1.9360
 3.2860	 1.9960
 3.2880	 2.0470
 3.2900	 2.0060
 3.2920	 2.0380
 3.2940	 1.9900
 3.2960	 1.9570
 3.2990	 1.9980
 3.3010	 2.0830
 3.3030	 2.1120
 3.3050	 2.0700
 3.3070	 2.0580
 3.3090	 1.9880
 3.3110	 1.9070
 3.3130	 2.0060
 3.3150	 2.1030
 3.3180	 1.9560
 3.3200	 1.8140
 3.3220	 1.8390
 3.3240	 1.8580
 3.3260	 1.8360
 3.3280	 1.8760
 3.3300	 1.9170
 3.3330	 1.9120
 3.3350	 1.8890
 3.3370	 1.8500
 3.3390	 1.8450
 3.3410	 1.8760
 3.3430	 1.8940
 3.3450	 1.8060
 3.3480	 1.7730
 3.3500	 1.8390
 3.3520	 1.9420
 3.3540	 1.9170
 3.3560	 1.8200
 3.3580	 1.6370
 3.3610	 1.5550
 3.3630	 1.6540
 3.3650	 1.7340
 3.3670	 1.6990
 3.3690	 1.6670
 3.3720	 1.6860
 3.3740	 1.6470
 3.3760	 1.6140
 3.3780	 1.6100
 3.3800	 1.5600
 3.3830	 1.6140
 3.3850	 1.6900
 3.3870	 1.5910
 3.3890	 1.5180
 3.3910	 1.6270
 3.3940	 1.6940
 3.3960	 1.6780
 3.3980	 1.6190
 3.4000	 1.6530
 3.4020	 1.6500
 3.4050	 1.7030
 3.4070	 1.7220
 3.4090	 1.7440
 3.4110	 1.7810
 3.4140	 1.8550
 3.4160	 2.0150
 3.4180	 2.2040
 3.4200	 2.3290
 3.4230	 2.6070
 3.4250	 3.0040
 3.4270	 3.3930
 3.4290	 3.5730
 3.4320	 3.5620
 3.4340	 3.3890
 3.4360	 3.2190
 3.4390	 3.0070
 3.4410	 2.8740
 3.4430	 2.9140
 3.4450	 2.9320
 3.4480	 2.8090
 3.4500	 2.8000
 3.4520	 2.8500
 3.4550	 2.8150
 3.4570	 2.7910
 3.4590	 2.7070
 3.4620	 2.5960
 3.4640	 2.5760
 3.4660	 2.5840
 3.4680	 2.5560
 3.4710	 2.5000
 3.4730	 2.5470
 3.4750	 2.4440
 3.4780	 2.3190
 3.4800	 2.2960
 3.4820	 2.2850
 3.4850	 2.2790
 3.4870	 2.2670
 3.4890	 2.2550
 3.4920	 2.1550
 3.4940	 2.0720
 3.4970	 1.9790
 3.4990	 1.9230
 3.5010	 2.0460
 3.5040	 2.2520
 3.5060	 2.6790
 3.5080	 3.1830
 3.5110	 3.6000
 3.5130	 3.7190
 3.5160	 3.6050
 3.5180	 3.3880
 3.5200	 3.2800
 3.5230	 3.2120
 3.5250	 3.0310
 3.5270	 2.8500
 3.5300	 2.8920
 3.5320	 2.9410
 3.5350	 2.8860
 3.5370	 2.8070
 3.5400	 2.7360
 3.5420	 2.7170
 3.5440	 2.7490
 3.5470	 2.7560
 3.5490	 2.7510
 3.5520	 2.7490
 3.5540	 2.6880
 3.5570	 2.6450
 3.5590	 2.6700
 3.5610	 2.6560
 3.5640	 2.6660
 3.5660	 2.6520
 3.5690	 2.6090
 3.5710	 2.6370
 3.5740	 2.6510
 3.5760	 2.5930
 3.5790	 2.5080
 3.5810	 2.5140
 3.5840	 2.5350
 3.5860	 2.5300
 3.5890	 2.5330
 3.5910	 2.5740
 3.5930	 2.5810
 3.5960	 2.5800
 3.5980	 2.5550
 3.6010	 2.4690
 3.6030	 2.4950
 3.6060	 2.5830
 3.6080	 2.5530
 3.6110	 2.4650
 3.6140	 2.4290
 3.6160	 2.4680
 3.6190	 2.5210
 3.6210	 2.4990
 3.6240	 2.4280
 3.6260	 2.4530
 3.6290	 2.4580
 3.6310	 2.3780
 3.6340	 2.3350
 3.6360	 2.3820
 3.6390	 2.4430
 3.6410	 2.4330
 3.6440	 2.3980
 3.6470	 2.4140
 3.6490	 2.4850
 3.6520	 2.5050
 3.6540	 2.4920
 3.6570	 2.4720
 3.6590	 2.3980
 3.6620	 2.4000
 3.6650	 2.4270
 3.6670	 2.4580
 3.6700	 2.4940
 3.6720	 2.4460
 3.6750	 2.4180
 3.6780	 2.4310
 3.6800	 2.4220
 3.6830	 2.4610
 3.6850	 2.4030
 3.6880	 2.3630
 3.6910	 2.4030
 3.6930	 2.4230
 3.6960	 2.3980
 3.6990	 2.3900
 3.7010	 2.4040
 3.7040	 2.4120
 3.7060	 2.4210
 3.7090	 2.4220
 3.7120	 2.4520
 3.7140	 2.4850
 3.7170	 2.4570
 3.7200	 2.4400
 3.7220	 2.4740
 3.7250	 2.4500
 3.7280	 2.4070
 3.7300	 2.4570
 3.7330	 2.4870
 3.7360	 2.4380
 3.7390	 2.3770
 3.7410	 2.3350
 3.7440	 2.3860
 3.7470	 2.4450
 3.7490	 2.3480
 3.7520	 2.3180
 3.7550	 2.4450
 3.7580	 2.4530
 3.7600	 2.4050
 3.7630	 2.4120
 3.7660	 2.3890
 3.7680	 2.4110
 3.7710	 2.4370
 3.7740	 2.3840
 3.7770	 2.3750
 3.7790	 2.3680
 3.7820	 2.3820
 3.7850	 2.4350
 3.7880	 2.4410
 3.7900	 2.3690
 3.7930	 2.3570
 3.7960	 2.4190
 3.7990	 2.4490
 3.8020	 2.4320
 3.8040	 2.4520
 3.8070	 2.5140
 3.8100	 2.5410
 3.8130	 2.4850
 3.8160	 2.4130
 3.8180	 2.4010
 3.8210	 2.4190
 3.8240	 2.4380
 3.8270	 2.3850
 3.8300	 2.3700
 3.8330	 2.3370
 3.8350	 2.3630
 3.8380	 2.3920
 3.8410	 2.4030
 3.8440	 2.4310
 3.8470	 2.5360
 3.8500	 2.5200
 3.8520	 2.4250
 3.8550	 2.4680
 3.8580	 2.4760
 3.8610	 2.4610
 3.8640	 2.4870
 3.8670	 2.4530
 3.8700	 2.4600
 3.8730	 2.4600
 3.8750	 2.4420
 3.8780	 2.4560
 3.8810	 2.5220
 3.8840	 2.5220
 3.8870	 2.4510
 3.8900	 2.4150
 3.8930	 2.3920
 3.8960	 2.4250
 3.8990	 2.4600
 3.9020	 2.4850
 3.9050	 2.4800
 3.9080	 2.4610
 3.9110	 2.4580
 3.9140	 2.4830
 3.9160	 2.5180
 3.9190	 2.4650
 3.9220	 2.4550
 3.9250	 2.4800
 3.9280	 2.5150
 3.9310	 2.4910
 3.9340	 2.4720
 3.9370	 2.4980
 3.9400	 2.4980
 3.9430	 2.4430
 3.9460	 2.4550
 3.9490	 2.4320
 3.9520	 2.4380
 3.9550	 2.4900
 3.9580	 2.4980
 3.9610	 2.4480
 3.9640	 2.4780
 3.9670	 2.4460
 3.9700	 2.4600
 3.9730	 2.4910
 3.9770	 2.5220
 3.9800	 2.4870
 3.9830	 2.4570
 3.9860	 2.4360
 3.9890	 2.4860
 3.9920	 2.4870
 3.9950	 2.4920
 3.9980	 2.5290
 4.0010	 2.5000
 4.0040	 2.4550
 4.0070	 2.4730
 4.0100	 2.5080
 4.0130	 2.5240
 4.0170	 2.4700
 4.0200	 2.4770
 4.0230	 2.5070
 4.0260	 2.5260
 4.0290	 2.5380
 4.0320	 2.5400
 4.0350	 2.5050
 4.0380	 2.4680
 4.0420	 2.4570
 4.0450	 2.4540
 4.0480	 2.4650
 4.0510	 2.4900
 4.0540	 2.4790
 4.0570	 2.4820
 4.0610	 2.4480
 4.0640	 2.5010
 4.0670	 2.5200
 4.0700	 2.4740
 4.0730	 2.4730
 4.0770	 2.4890
 4.0800	 2.4880
 4.0830	 2.5060
 4.0860	 2.5060
 4.0890	 2.4940
 4.0930	 2.4960
 4.0960	 2.5300
 4.0990	 2.5200
 4.1020	 2.5020
 4.1060	 2.5100
 4.1090	 2.4990
 4.1120	 2.5240
 4.1150	 2.5260
 4.1190	 2.4940
 4.1220	 2.4990
 4.1250	 2.4710
 4.1280	 2.5110
 4.1320	 2.4780
 4.1350	 2.4510
 4.1380	 2.4610
 4.1420	 2.4540
 4.1450	 2.4500
 4.1480	 2.4740
 4.1520	 2.4860
 4.1550	 2.5230
 4.1580	 2.5020
 4.1620	 2.5030
 4.1650	 2.5360
 4.1680	 2.4790
 4.1720	 2.3930
 4.1750	 2.4270
 4.1780	 2.4650
 4.1820	 2.4730
 4.1850	 2.4890
 4.1890	 2.5370
 4.1920	 2.5850
 4.1950	 2.5640
 4.1990	 2.4480
 4.2020	 2.4560
 4.2060	 2.4770
 4.2090	 2.5280
 4.2120	 2.5500
 4.2160	 2.5170
 4.2190	 2.5990
 4.2230	 2.8640
 4.2260	 2.9660
 4.2300	 2.8660
 4.2330	 2.6420
 4.2360	 2.6290
 4.2400	 2.5620
 4.2430	 2.6200
 4.2470	 2.5970
 4.2500	 2.4690
 4.2540	 2.4410
 4.2570	 2.5220
 4.2610	 2.4540
 4.2640	 2.4530
 4.2680	 2.4980
 4.2710	 2.5720
 4.2750	 2.4130
 4.2780	 2.4470
 4.2820	 2.4560
 4.2850	 2.5150
 4.2890	 2.5730
 4.2930	 2.6000
 4.2960	 2.4740
 4.3000	 2.4410
 4.3030	 2.3530
 4.3070	 2.4310
 4.3100	 2.5630
 4.3140	 2.5770
 4.3180	 2.5020
 4.3210	 2.5460
 4.3250	 2.5060
 4.3280	 2.4720
 4.3320	 2.4200
 4.3360	 2.4420
 4.3390	 2.4380
 4.3430	 2.4640
 4.3470	 2.4130
 4.3500	 2.3600
 4.3540	 2.3580
 4.3570	 2.3930
 4.3610	 2.3870
 4.3650	 2.4380
 4.3680	 2.4850
 4.3720	 2.4720
 4.3760	 2.3880
 4.3800	 2.3610
 4.3830	 2.3580
 4.3870	 2.3540
 4.3910	 2.3230
 4.3940	 2.3260
 4.3980	 2.3530
 4.4020	 2.3950
 4.4060	 2.4250
 4.4090	 2.4430
 4.4130	 2.3370
 4.4170	 2.3300
 4.4210	 2.3390
 4.4240	 2.3420
 4.4280	 2.3330
 4.4320	 2.3560
 4.4360	 2.3650
 4.4400	 2.3950
 4.4430	 2.3920
 4.4470	 2.4050
 4.4510	 2.3840
 4.4550	 2.3710
 4.4590	 2.2960
 4.4620	 2.3040
 4.4660	 2.3660
 4.4700	 2.3740
 4.4740	 2.3840
 4.4780	 2.3730
 4.4820	 2.3020
 4.4860	 2.3280
 4.4900	 2.3510
 4.4930	 2.2990
 4.4970	 2.2170
 4.5010	 2.2380
 4.5050	 2.2860
 4.5090	 2.3880
 4.5130	 2.3740
 4.5170	 2.3590
 4.5210	 2.3350
 4.5250	 2.3560
 4.5290	 2.3720
 4.5330	 2.3480
 4.5370	 2.2940
 4.5410	 2.3000
 4.5450	 2.2800
 4.5490	 2.2420
 4.5530	 2.2730
 4.5570	 2.3860
 4.5610	 2.3850
 4.5650	 2.3870
 4.5690	 2.3040
 4.5730	 2.2530
 4.5770	 2.2170
 4.5810	 2.2780
 4.5850	 2.2840
 4.5890	 2.2460
 4.5930	 2.2270
 4.5970	 2.2000
 4.6010	 2.2070
 4.6050	 2.3300
 4.6090	 2.3390
 4.6130	 2.3830
 4.6170	 2.3110
 4.6220	 2.1830
 4.6260	 2.2390
 4.6300	 2.3380
 4.6340	 2.3050
 4.6380	 2.2590
 4.6420	 2.2400
 4.6460	 2.2720
 4.6510	 2.2210
 4.6550	 2.2560
 4.6590	 2.2420
 4.6630	 2.2760
 4.6670	 2.3000
 4.6720	 2.2770
 4.6760	 2.2320
 4.6800	 2.2670
 4.6840	 2.3040
 4.6880	 2.2700
 4.6930	 2.1980
 4.6970	 2.1800
 4.7010	 2.1620
 4.7050	 2.1900
 4.7100	 2.2240
 4.7140	 2.2120
 4.7180	 2.2000
 4.7230	 2.2660
 4.7270	 2.2560
 4.7310	 2.2640
 4.7360	 2.2170
 4.7400	 2.2040
 4.7440	 2.2110
 4.7490	 2.2940
 4.7530	 2.2840
 4.7570	 2.2370
 4.7620	 2.2160
 4.7660	 2.2640
 4.7700	 2.2020
 4.7750	 2.1920
 4.7790	 2.2130
 4.7840	 2.2000
 4.7880	 2.1470
 4.7920	 2.2100
 4.7970	 2.3120
 4.8010	 2.4010
 4.8060	 2.2650
 4.8100	 2.2160
 4.8150	 2.2280
 4.8190	 2.2340
 4.8240	 2.1740
 4.8280	 2.1950
 4.8330	 2.2580
 4.8370	 2.2900
 4.8420	 2.2710
 4.8460	 2.3050
 4.8510	 2.2420
 4.8550	 2.2530
 4.8600	 2.2360
 4.8640	 2.2600
 4.8690	 2.2820
 4.8730	 2.3490
 4.8780	 2.3080
 4.8830	 2.3020
 4.8870	 2.2350
 4.8920	 2.2040
 4.8960	 2.2320
 4.9010	 2.2820
 4.9060	 2.2280
 4.9100	 2.2730
 4.9150	 2.2700
 4.9200	 2.2240
 4.9240	 2.1780
 4.9290	 2.2520
 4.9340	 2.2580
 4.9380	 2.3020
 4.9430	 2.2960
 4.9480	 2.2880
 4.9530	 2.2210
 4.9570	 2.2630
 4.9620	 2.2690
 4.9670	 2.3480
 4.9720	 2.3420
 4.9760	 2.2760
 4.9810	 2.1830
 4.9860	 2.2090
 4.9910	 2.2930
 4.9960	 2.3820
 5.0000	 2.3260
 5.0050	 2.3110
 5.0100	 2.3140
 5.0150	 2.3310
 5.0200	 2.2310
 5.0250	 2.2590
 5.0290	 2.2840
 5.0340	 2.2890
 5.0390	 2.2550
 5.0440	 2.2860
 5.0490	 2.2710
 5.0540	 2.3380
 5.0590	 2.3580
 5.0640	 2.3900
 5.0690	 2.3130
 5.0740	 2.2900
 5.0790	 2.2740
 5.0840	 2.3110
 5.0890	 2.2660
 5.0940	 2.2540
 5.0990	 2.2310
 5.1040	 2.3370
 5.1090	 2.3410
 5.1140	 2.3850
 5.1190	 2.3650
 5.1240	 2.3150
 5.1290	 2.2550
 5.1340	 2.2760
 5.1390	 2.2710
 5.1440	 2.3060
 5.1490	 2.3070
 5.1540	 2.3470
 5.1600	 2.2820
 5.1650	 2.3030
 5.1700	 2.3050
 5.1750	 2.3300
 5.1800	 2.2820
 5.1850	 2.3220
 5.1910	 2.2580
 5.1960	 2.2850
 5.2010	 2.3390
 5.2060	 2.3890
 5.2110	 2.2980
 5.2170	 2.3160
 5.2220	 2.3220
 5.2270	 2.3390
 5.2320	 2.2690
 5.2380	 2.2770
 5.2430	 2.3150
 5.2480	 2.3250
 5.2540	 2.2550
 5.2590	 2.3180
 5.2640	 2.3470
 5.2700	 2.3490
 5.2750	 2.3040
 5.2800	 2.2910
 5.2860	 2.2470
 5.2910	 2.2920
 5.2970	 2.2640
 5.3020	 2.2930
 5.3070	 2.3100
 5.3130	 2.3190
 5.3180	 2.2200
 5.3240	 2.2430
 5.3290	 2.2360
 5.3350	 2.2700
 5.3400	 2.2790
 5.3460	 2.3160
 5.3510	 2.2800
 5.3570	 2.2820
 5.3620	 2.2150
 5.3680	 2.2920
 5.3730	 2.3250
 5.3790	 2.3270
 5.3850	 2.2890
 5.3900	 2.2980
 5.3960	 2.2250
 5.4010	 2.2720
 5.4070	 2.2850
 5.4130	 2.3000
 5.4180	 2.2260
 5.4240	 2.2660
 5.4300	 2.2410
 5.4350	 2.2220
 5.4410	 2.1870
