Name: Fagus sylvatica 'atropurpurea'
Type: vegetation
Class: Tree
Genus: Fagus
Species: sylvatica_atropurpurea
Sample No.: JPL113
Owner: JPL
Wavelength Range: VSWIR
Origin: 34.12826; -118.11349;; WGS84
Collection Date: 9/7/2016
Description: Samples were collected at the Huntington Garden in San Marino California as part of a JPL Subcontract studying HyTES imagery. Samples were taken to JPL and processed within 48 hours of collection. The same leaves were processed in the Nicolet and then measured using the ASD.
Measurement: Bidirectional reflectance
First Column: X
Second Column: Y
X Units: Wavelength (micrometer)
Y Units: Reflectance (percentage)
First X Value: 0.35
Last X Value: 2.5
Number of X Values: 2151
Additional Information: vegetation.tree.fagus.sylvatica_atropurpurea.vswir.jpl113.jpl.asd.ancillary.txt

 0.3500	 5.1030
 0.3510	 5.1460
 0.3520	 5.1210
 0.3530	 5.0810
 0.3540	 5.0790
 0.3550	 5.0550
 0.3560	 5.0850
 0.3570	 5.1150
 0.3580	 5.0460
 0.3590	 4.9910
 0.3600	 4.9920
 0.3610	 5.0460
 0.3620	 5.1030
 0.3630	 5.0130
 0.3640	 4.9200
 0.3650	 4.9680
 0.3660	 4.9930
 0.3670	 4.9700
 0.3680	 4.9310
 0.3690	 4.9410
 0.3700	 4.9710
 0.3710	 4.9910
 0.3720	 4.9910
 0.3730	 4.9980
 0.3740	 4.9710
 0.3750	 4.9410
 0.3760	 4.9530
 0.3770	 5.0000
 0.3780	 4.9960
 0.3790	 4.9630
 0.3800	 5.0090
 0.3810	 4.9950
 0.3820	 4.9790
 0.3830	 5.0080
 0.3840	 5.0470
 0.3850	 5.0260
 0.3860	 4.9800
 0.3870	 4.9780
 0.3880	 5.0140
 0.3890	 5.0240
 0.3900	 5.0020
 0.3910	 5.0030
 0.3920	 5.0050
 0.3930	 5.0230
 0.3940	 5.0560
 0.3950	 5.0390
 0.3960	 5.0240
 0.3970	 5.0240
 0.3980	 5.0310
 0.3990	 5.0560
 0.4000	 5.0830
 0.4010	 5.0960
 0.4020	 5.0720
 0.4030	 5.0780
 0.4040	 5.0950
 0.4050	 5.0950
 0.4060	 5.1060
 0.4070	 5.1060
 0.4080	 5.1100
 0.4090	 5.1440
 0.4100	 5.1570
 0.4110	 5.1540
 0.4120	 5.1480
 0.4130	 5.1530
 0.4140	 5.1620
 0.4150	 5.1710
 0.4160	 5.1800
 0.4170	 5.1900
 0.4180	 5.2050
 0.4190	 5.2160
 0.4200	 5.2060
 0.4210	 5.2120
 0.4220	 5.2240
 0.4230	 5.2310
 0.4240	 5.2320
 0.4250	 5.2340
 0.4260	 5.2420
 0.4270	 5.2570
 0.4280	 5.2600
 0.4290	 5.2610
 0.4300	 5.2640
 0.4310	 5.2700
 0.4320	 5.2810
 0.4330	 5.2930
 0.4340	 5.3000
 0.4350	 5.2960
 0.4360	 5.2960
 0.4370	 5.3050
 0.4380	 5.3190
 0.4390	 5.3190
 0.4400	 5.3150
 0.4410	 5.3180
 0.4420	 5.3210
 0.4430	 5.3250
 0.4440	 5.3280
 0.4450	 5.3300
 0.4460	 5.3360
 0.4470	 5.3420
 0.4480	 5.3490
 0.4490	 5.3510
 0.4500	 5.3530
 0.4510	 5.3550
 0.4520	 5.3580
 0.4530	 5.3620
 0.4540	 5.3670
 0.4550	 5.3740
 0.4560	 5.3810
 0.4570	 5.3790
 0.4580	 5.3780
 0.4590	 5.3830
 0.4600	 5.3820
 0.4610	 5.3860
 0.4620	 5.3900
 0.4630	 5.3870
 0.4640	 5.3880
 0.4650	 5.3860
 0.4660	 5.3830
 0.4670	 5.3920
 0.4680	 5.3940
 0.4690	 5.3930
 0.4700	 5.3960
 0.4710	 5.4020
 0.4720	 5.4030
 0.4730	 5.4030
 0.4740	 5.4110
 0.4750	 5.4100
 0.4760	 5.4060
 0.4770	 5.4060
 0.4780	 5.4130
 0.4790	 5.4170
 0.4800	 5.4210
 0.4810	 5.4290
 0.4820	 5.4260
 0.4830	 5.4290
 0.4840	 5.4390
 0.4850	 5.4410
 0.4860	 5.4450
 0.4870	 5.4500
 0.4880	 5.4520
 0.4890	 5.4560
 0.4900	 5.4600
 0.4910	 5.4660
 0.4920	 5.4750
 0.4930	 5.4760
 0.4940	 5.4800
 0.4950	 5.4890
 0.4960	 5.4940
 0.4970	 5.5010
 0.4980	 5.5090
 0.4990	 5.5170
 0.5000	 5.5300
 0.5010	 5.5400
 0.5020	 5.5480
 0.5030	 5.5630
 0.5040	 5.5760
 0.5050	 5.5890
 0.5060	 5.6050
 0.5070	 5.6230
 0.5080	 5.6500
 0.5090	 5.6790
 0.5100	 5.7030
 0.5110	 5.7310
 0.5120	 5.7670
 0.5130	 5.8110
 0.5140	 5.8570
 0.5150	 5.9020
 0.5160	 5.9520
 0.5170	 6.0100
 0.5180	 6.0690
 0.5190	 6.1290
 0.5200	 6.1920
 0.5210	 6.2600
 0.5220	 6.3330
 0.5230	 6.4070
 0.5240	 6.4780
 0.5250	 6.5470
 0.5260	 6.6170
 0.5270	 6.6880
 0.5280	 6.7550
 0.5290	 6.8200
 0.5300	 6.8810
 0.5310	 6.9370
 0.5320	 6.9950
 0.5330	 7.0490
 0.5340	 7.0970
 0.5350	 7.1410
 0.5360	 7.1820
 0.5370	 7.2230
 0.5380	 7.2660
 0.5390	 7.3030
 0.5400	 7.3450
 0.5410	 7.3910
 0.5420	 7.4360
 0.5430	 7.4730
 0.5440	 7.5030
 0.5450	 7.5300
 0.5460	 7.5520
 0.5470	 7.5670
 0.5480	 7.5820
 0.5490	 7.6010
 0.5500	 7.6240
 0.5510	 7.6430
 0.5520	 7.6590
 0.5530	 7.6730
 0.5540	 7.6800
 0.5550	 7.6830
 0.5560	 7.6820
 0.5570	 7.6770
 0.5580	 7.6700
 0.5590	 7.6580
 0.5600	 7.6400
 0.5610	 7.6210
 0.5620	 7.5970
 0.5630	 7.5680
 0.5640	 7.5380
 0.5650	 7.5050
 0.5660	 7.4700
 0.5670	 7.4330
 0.5680	 7.3910
 0.5690	 7.3490
 0.5700	 7.3080
 0.5710	 7.2690
 0.5720	 7.2380
 0.5730	 7.2090
 0.5740	 7.1800
 0.5750	 7.1530
 0.5760	 7.1320
 0.5770	 7.1120
 0.5780	 7.0920
 0.5790	 7.0750
 0.5800	 7.0590
 0.5810	 7.0450
 0.5820	 7.0330
 0.5830	 7.0220
 0.5840	 7.0140
 0.5850	 7.0080
 0.5860	 7.0010
 0.5870	 6.9910
 0.5880	 6.9820
 0.5890	 6.9780
 0.5900	 6.9800
 0.5910	 6.9830
 0.5920	 6.9860
 0.5930	 6.9900
 0.5940	 6.9950
 0.5950	 7.0010
 0.5960	 7.0070
 0.5970	 7.0100
 0.5980	 7.0130
 0.5990	 7.0170
 0.6000	 7.0180
 0.6010	 7.0200
 0.6020	 7.0220
 0.6030	 7.0240
 0.6040	 7.0240
 0.6050	 7.0200
 0.6060	 7.0160
 0.6070	 7.0120
 0.6080	 7.0080
 0.6090	 7.0090
 0.6100	 7.0150
 0.6110	 7.0230
 0.6120	 7.0140
 0.6130	 6.9970
 0.6140	 6.9800
 0.6150	 6.9680
 0.6160	 6.9570
 0.6170	 6.9490
 0.6180	 6.9430
 0.6190	 6.9420
 0.6200	 6.9410
 0.6210	 6.9410
 0.6220	 6.9400
 0.6230	 6.9410
 0.6240	 6.9450
 0.6250	 6.9530
 0.6260	 6.9570
 0.6270	 6.9650
 0.6280	 6.9750
 0.6290	 6.9840
 0.6300	 6.9960
 0.6310	 7.0050
 0.6320	 7.0110
 0.6330	 7.0150
 0.6340	 7.0170
 0.6350	 7.0160
 0.6360	 7.0130
 0.6370	 7.0030
 0.6380	 6.9920
 0.6390	 6.9800
 0.6400	 6.9660
 0.6410	 6.9490
 0.6420	 6.9300
 0.6430	 6.9120
 0.6440	 6.8960
 0.6450	 6.8800
 0.6460	 6.8660
 0.6470	 6.8550
 0.6480	 6.8470
 0.6490	 6.8430
 0.6500	 6.8410
 0.6510	 6.8390
 0.6520	 6.8420
 0.6530	 6.8460
 0.6540	 6.8500
 0.6550	 6.8540
 0.6560	 6.8570
 0.6570	 6.8590
 0.6580	 6.8610
 0.6590	 6.8590
 0.6600	 6.8570
 0.6610	 6.8560
 0.6620	 6.8540
 0.6630	 6.8530
 0.6640	 6.8530
 0.6650	 6.8570
 0.6660	 6.8610
 0.6670	 6.8670
 0.6680	 6.8750
 0.6690	 6.8870
 0.6700	 6.9010
 0.6710	 6.9190
 0.6720	 6.9400
 0.6730	 6.9580
 0.6740	 6.9800
 0.6750	 7.0070
 0.6760	 7.0360
 0.6770	 7.0690
 0.6780	 7.1020
 0.6790	 7.1360
 0.6800	 7.1740
 0.6810	 7.2160
 0.6820	 7.2620
 0.6830	 7.3140
 0.6840	 7.3740
 0.6850	 7.4380
 0.6860	 7.5070
 0.6870	 7.5850
 0.6880	 7.6790
 0.6890	 7.7870
 0.6900	 7.9140
 0.6910	 8.0670
 0.6920	 8.2530
 0.6930	 8.4750
 0.6940	 8.7390
 0.6950	 9.0520
 0.6960	 9.4150
 0.6970	 9.8310
 0.6980	10.2980
 0.6990	10.8100
 0.7000	11.3680
 0.7010	11.9660
 0.7020	12.5960
 0.7030	13.2540
 0.7040	13.9320
 0.7050	14.6240
 0.7060	15.3290
 0.7070	16.0430
 0.7080	16.7590
 0.7090	17.4740
 0.7100	18.1930
 0.7110	18.9150
 0.7120	19.6370
 0.7130	20.3580
 0.7140	21.0730
 0.7150	21.7850
 0.7160	22.4950
 0.7170	23.2010
 0.7180	23.9010
 0.7190	24.5950
 0.7200	25.2830
 0.7210	25.9610
 0.7220	26.6280
 0.7230	27.2830
 0.7240	27.9240
 0.7250	28.5480
 0.7260	29.1560
 0.7270	29.7460
 0.7280	30.3150
 0.7290	30.8650
 0.7300	31.3960
 0.7310	31.9050
 0.7320	32.3940
 0.7330	32.8630
 0.7340	33.3120
 0.7350	33.7440
 0.7360	34.1540
 0.7370	34.5440
 0.7380	34.9160
 0.7390	35.2670
 0.7400	35.6020
 0.7410	35.9190
 0.7420	36.2160
 0.7430	36.4960
 0.7440	36.7600
 0.7450	37.0090
 0.7460	37.2440
 0.7470	37.4620
 0.7480	37.6660
 0.7490	37.8590
 0.7500	38.0370
 0.7510	38.2030
 0.7520	38.3580
 0.7530	38.5050
 0.7540	38.6390
 0.7550	38.7640
 0.7560	38.8810
 0.7570	38.9910
 0.7580	39.0930
 0.7590	39.1910
 0.7600	39.2840
 0.7610	39.3660
 0.7620	39.4450
 0.7630	39.5210
 0.7640	39.5920
 0.7650	39.6590
 0.7660	39.7240
 0.7670	39.7850
 0.7680	39.8420
 0.7690	39.8950
 0.7700	39.9460
 0.7710	39.9950
 0.7720	40.0400
 0.7730	40.0840
 0.7740	40.1280
 0.7750	40.1720
 0.7760	40.2130
 0.7770	40.2530
 0.7780	40.2920
 0.7790	40.3300
 0.7800	40.3660
 0.7810	40.4020
 0.7820	40.4380
 0.7830	40.4700
 0.7840	40.5020
 0.7850	40.5340
 0.7860	40.5630
 0.7870	40.5900
 0.7880	40.6190
 0.7890	40.6470
 0.7900	40.6710
 0.7910	40.6970
 0.7920	40.7250
 0.7930	40.7510
 0.7940	40.7730
 0.7950	40.7930
 0.7960	40.8110
 0.7970	40.8290
 0.7980	40.8500
 0.7990	40.8680
 0.8000	40.8840
 0.8010	40.8990
 0.8020	40.9170
 0.8030	40.9310
 0.8040	40.9450
 0.8050	40.9590
 0.8060	40.9730
 0.8070	40.9850
 0.8080	40.9960
 0.8090	41.0080
 0.8100	41.0180
 0.8110	41.0260
 0.8120	41.0340
 0.8130	41.0420
 0.8140	41.0490
 0.8150	41.0570
 0.8160	41.0640
 0.8170	41.0690
 0.8180	41.0760
 0.8190	41.0860
 0.8200	41.0950
 0.8210	41.1000
 0.8220	41.1040
 0.8230	41.1090
 0.8240	41.1130
 0.8250	41.1170
 0.8260	41.1210
 0.8270	41.1270
 0.8280	41.1310
 0.8290	41.1340
 0.8300	41.1380
 0.8310	41.1440
 0.8320	41.1510
 0.8330	41.1550
 0.8340	41.1580
 0.8350	41.1650
 0.8360	41.1720
 0.8370	41.1770
 0.8380	41.1820
 0.8390	41.1880
 0.8400	41.1950
 0.8410	41.2030
 0.8420	41.2120
 0.8430	41.2220
 0.8440	41.2310
 0.8450	41.2370
 0.8460	41.2410
 0.8470	41.2530
 0.8480	41.2640
 0.8490	41.2730
 0.8500	41.2800
 0.8510	41.2880
 0.8520	41.2990
 0.8530	41.3110
 0.8540	41.3210
 0.8550	41.3320
 0.8560	41.3430
 0.8570	41.3540
 0.8580	41.3690
 0.8590	41.3810
 0.8600	41.3920
 0.8610	41.4050
 0.8620	41.4190
 0.8630	41.4350
 0.8640	41.4480
 0.8650	41.4590
 0.8660	41.4690
 0.8670	41.4830
 0.8680	41.4980
 0.8690	41.5120
 0.8700	41.5260
 0.8710	41.5440
 0.8720	41.5620
 0.8730	41.5750
 0.8740	41.5860
 0.8750	41.6020
 0.8760	41.6230
 0.8770	41.6360
 0.8780	41.6500
 0.8790	41.6700
 0.8800	41.6900
 0.8810	41.6980
 0.8820	41.7120
 0.8830	41.7320
 0.8840	41.7520
 0.8850	41.7670
 0.8860	41.7780
 0.8870	41.7920
 0.8880	41.8110
 0.8890	41.8320
 0.8900	41.8490
 0.8910	41.8620
 0.8920	41.8770
 0.8930	41.8880
 0.8940	41.9060
 0.8950	41.9280
 0.8960	41.9460
 0.8970	41.9600
 0.8980	41.9730
 0.8990	41.9870
 0.9000	42.0020
 0.9010	42.0190
 0.9020	42.0310
 0.9030	42.0410
 0.9040	42.0570
 0.9050	42.0700
 0.9060	42.0840
 0.9070	42.0980
 0.9080	42.1120
 0.9090	42.1280
 0.9100	42.1400
 0.9110	42.1470
 0.9120	42.1560
 0.9130	42.1670
 0.9140	42.1780
 0.9150	42.1860
 0.9160	42.1930
 0.9170	42.2010
 0.9180	42.2100
 0.9190	42.2190
 0.9200	42.2240
 0.9210	42.2280
 0.9220	42.2330
 0.9230	42.2380
 0.9240	42.2390
 0.9250	42.2440
 0.9260	42.2470
 0.9270	42.2430
 0.9280	42.2450
 0.9290	42.2440
 0.9300	42.2390
 0.9310	42.2350
 0.9320	42.2310
 0.9330	42.2260
 0.9340	42.2180
 0.9350	42.2120
 0.9360	42.2050
 0.9370	42.1980
 0.9380	42.1900
 0.9390	42.1780
 0.9400	42.1650
 0.9410	42.1590
 0.9420	42.1560
 0.9430	42.1360
 0.9440	42.1230
 0.9450	42.1090
 0.9460	42.0920
 0.9470	42.0800
 0.9480	42.0610
 0.9490	42.0400
 0.9500	42.0200
 0.9510	41.9870
 0.9520	41.9610
 0.9530	41.9350
 0.9540	41.9020
 0.9550	41.8830
 0.9560	41.8580
 0.9570	41.8310
 0.9580	41.8090
 0.9590	41.7800
 0.9600	41.7580
 0.9610	41.7410
 0.9620	41.7250
 0.9630	41.7130
 0.9640	41.6880
 0.9650	41.6640
 0.9660	41.6590
 0.9670	41.6580
 0.9680	41.6460
 0.9690	41.6340
 0.9700	41.6350
 0.9710	41.6280
 0.9720	41.6190
 0.9730	41.6090
 0.9740	41.5990
 0.9750	41.6080
 0.9760	41.6110
 0.9770	41.6040
 0.9780	41.5920
 0.9790	41.5870
 0.9800	41.5900
 0.9810	41.5930
 0.9820	41.5910
 0.9830	41.5940
 0.9840	41.6050
 0.9850	41.6100
 0.9860	41.5970
 0.9870	41.6060
 0.9880	41.6080
 0.9890	41.6070
 0.9900	41.6170
 0.9910	41.6350
 0.9920	41.6300
 0.9930	41.6200
 0.9940	41.6360
 0.9950	41.6500
 0.9960	41.6510
 0.9970	41.6470
 0.9980	41.6530
 0.9990	41.6640
 1.0000	41.6800
 1.0010	42.0750
 1.0020	42.0840
 1.0030	42.0950
 1.0040	42.1040
 1.0050	42.1130
 1.0060	42.1200
 1.0070	42.1250
 1.0080	42.1330
 1.0090	42.1410
 1.0100	42.1480
 1.0110	42.1540
 1.0120	42.1610
 1.0130	42.1700
 1.0140	42.1780
 1.0150	42.1830
 1.0160	42.1950
 1.0170	42.2050
 1.0180	42.2090
 1.0190	42.2170
 1.0200	42.2240
 1.0210	42.2290
 1.0220	42.2350
 1.0230	42.2420
 1.0240	42.2500
 1.0250	42.2550
 1.0260	42.2580
 1.0270	42.2640
 1.0280	42.2670
 1.0290	42.2740
 1.0300	42.2870
 1.0310	42.2960
 1.0320	42.3050
 1.0330	42.3120
 1.0340	42.3180
 1.0350	42.3240
 1.0360	42.3280
 1.0370	42.3360
 1.0380	42.3430
 1.0390	42.3530
 1.0400	42.3600
 1.0410	42.3680
 1.0420	42.3760
 1.0430	42.3850
 1.0440	42.3910
 1.0450	42.3960
 1.0460	42.4000
 1.0470	42.4020
 1.0480	42.4040
 1.0490	42.4050
 1.0500	42.4090
 1.0510	42.4150
 1.0520	42.4210
 1.0530	42.4260
 1.0540	42.4330
 1.0550	42.4380
 1.0560	42.4390
 1.0570	42.4420
 1.0580	42.4480
 1.0590	42.4530
 1.0600	42.4550
 1.0610	42.4590
 1.0620	42.4650
 1.0630	42.4690
 1.0640	42.4740
 1.0650	42.4770
 1.0660	42.4780
 1.0670	42.4810
 1.0680	42.4830
 1.0690	42.4860
 1.0700	42.4870
 1.0710	42.4880
 1.0720	42.4900
 1.0730	42.4930
 1.0740	42.4940
 1.0750	42.4980
 1.0760	42.4990
 1.0770	42.4960
 1.0780	42.4960
 1.0790	42.4970
 1.0800	42.4980
 1.0810	42.5030
 1.0820	42.5050
 1.0830	42.5050
 1.0840	42.5060
 1.0850	42.5060
 1.0860	42.5040
 1.0870	42.5030
 1.0880	42.5020
 1.0890	42.5010
 1.0900	42.4980
 1.0910	42.4980
 1.0920	42.5000
 1.0930	42.4990
 1.0940	42.5000
 1.0950	42.4990
 1.0960	42.4950
 1.0970	42.4930
 1.0980	42.4930
 1.0990	42.4910
 1.1000	42.4890
 1.1010	42.4870
 1.1020	42.4860
 1.1030	42.4830
 1.1040	42.4800
 1.1050	42.4770
 1.1060	42.4720
 1.1070	42.4640
 1.1080	42.4580
 1.1090	42.4530
 1.1100	42.4480
 1.1110	42.4440
 1.1120	42.4380
 1.1130	42.4330
 1.1140	42.4250
 1.1150	42.4170
 1.1160	42.4090
 1.1170	42.3990
 1.1180	42.3890
 1.1190	42.3790
 1.1200	42.3700
 1.1210	42.3600
 1.1220	42.3480
 1.1230	42.3320
 1.1240	42.3140
 1.1250	42.2930
 1.1260	42.2690
 1.1270	42.2440
 1.1280	42.2200
 1.1290	42.1890
 1.1300	42.1560
 1.1310	42.1200
 1.1320	42.0790
 1.1330	42.0360
 1.1340	41.9900
 1.1350	41.9410
 1.1360	41.8870
 1.1370	41.8330
 1.1380	41.7760
 1.1390	41.7150
 1.1400	41.6510
 1.1410	41.5860
 1.1420	41.5180
 1.1430	41.4490
 1.1440	41.3810
 1.1450	41.3120
 1.1460	41.2460
 1.1470	41.1800
 1.1480	41.1160
 1.1490	41.0540
 1.1500	40.9950
 1.1510	40.9390
 1.1520	40.8860
 1.1530	40.8360
 1.1540	40.7900
 1.1550	40.7480
 1.1560	40.7080
 1.1570	40.6730
 1.1580	40.6410
 1.1590	40.6100
 1.1600	40.5840
 1.1610	40.5620
 1.1620	40.5420
 1.1630	40.5270
 1.1640	40.5130
 1.1650	40.5000
 1.1660	40.4900
 1.1670	40.4790
 1.1680	40.4700
 1.1690	40.4600
 1.1700	40.4510
 1.1710	40.4430
 1.1720	40.4380
 1.1730	40.4300
 1.1740	40.4210
 1.1750	40.4140
 1.1760	40.4050
 1.1770	40.3960
 1.1780	40.3890
 1.1790	40.3800
 1.1800	40.3710
 1.1810	40.3630
 1.1820	40.3530
 1.1830	40.3440
 1.1840	40.3330
 1.1850	40.3230
 1.1860	40.3150
 1.1870	40.3070
 1.1880	40.2990
 1.1890	40.2930
 1.1900	40.2850
 1.1910	40.2770
 1.1920	40.2710
 1.1930	40.2660
 1.1940	40.2620
 1.1950	40.2600
 1.1960	40.2580
 1.1970	40.2560
 1.1980	40.2550
 1.1990	40.2560
 1.2000	40.2550
 1.2010	40.2550
 1.2020	40.2560
 1.2030	40.2570
 1.2040	40.2610
 1.2050	40.2680
 1.2060	40.2740
 1.2070	40.2820
 1.2080	40.2910
 1.2090	40.2980
 1.2100	40.3060
 1.2110	40.3150
 1.2120	40.3260
 1.2130	40.3360
 1.2140	40.3490
 1.2150	40.3610
 1.2160	40.3740
 1.2170	40.3840
 1.2180	40.3960
 1.2190	40.4090
 1.2200	40.4210
 1.2210	40.4330
 1.2220	40.4470
 1.2230	40.4610
 1.2240	40.4740
 1.2250	40.4870
 1.2260	40.5000
 1.2270	40.5130
 1.2280	40.5250
 1.2290	40.5380
 1.2300	40.5500
 1.2310	40.5600
 1.2320	40.5710
 1.2330	40.5810
 1.2340	40.5910
 1.2350	40.5990
 1.2360	40.6090
 1.2370	40.6190
 1.2380	40.6290
 1.2390	40.6390
 1.2400	40.6470
 1.2410	40.6540
 1.2420	40.6610
 1.2430	40.6680
 1.2440	40.6750
 1.2450	40.6830
 1.2460	40.6900
 1.2470	40.6970
 1.2480	40.7040
 1.2490	40.7090
 1.2500	40.7120
 1.2510	40.7150
 1.2520	40.7180
 1.2530	40.7210
 1.2540	40.7260
 1.2550	40.7290
 1.2560	40.7310
 1.2570	40.7340
 1.2580	40.7350
 1.2590	40.7350
 1.2600	40.7350
 1.2610	40.7340
 1.2620	40.7330
 1.2630	40.7310
 1.2640	40.7280
 1.2650	40.7250
 1.2660	40.7220
 1.2670	40.7180
 1.2680	40.7160
 1.2690	40.7140
 1.2700	40.7090
 1.2710	40.7030
 1.2720	40.6960
 1.2730	40.6880
 1.2740	40.6820
 1.2750	40.6780
 1.2760	40.6720
 1.2770	40.6650
 1.2780	40.6560
 1.2790	40.6460
 1.2800	40.6360
 1.2810	40.6260
 1.2820	40.6140
 1.2830	40.6020
 1.2840	40.5880
 1.2850	40.5730
 1.2860	40.5580
 1.2870	40.5430
 1.2880	40.5270
 1.2890	40.5090
 1.2900	40.4910
 1.2910	40.4720
 1.2920	40.4510
 1.2930	40.4290
 1.2940	40.4080
 1.2950	40.3860
 1.2960	40.3620
 1.2970	40.3370
 1.2980	40.3130
 1.2990	40.2880
 1.3000	40.2620
 1.3010	40.2330
 1.3020	40.2020
 1.3030	40.1680
 1.3040	40.1340
 1.3050	40.1010
 1.3060	40.0660
 1.3070	40.0300
 1.3080	39.9940
 1.3090	39.9540
 1.3100	39.9140
 1.3110	39.8720
 1.3120	39.8270
 1.3130	39.7830
 1.3140	39.7360
 1.3150	39.6870
 1.3160	39.6380
 1.3170	39.5870
 1.3180	39.5340
 1.3190	39.4800
 1.3200	39.4250
 1.3210	39.3680
 1.3220	39.3100
 1.3230	39.2510
 1.3240	39.1900
 1.3250	39.1260
 1.3260	39.0610
 1.3270	38.9930
 1.3280	38.9230
 1.3290	38.8550
 1.3300	38.7840
 1.3310	38.7120
 1.3320	38.6390
 1.3330	38.5650
 1.3340	38.4900
 1.3350	38.4150
 1.3360	38.3400
 1.3370	38.2630
 1.3380	38.1860
 1.3390	38.1100
 1.3400	38.0320
 1.3410	37.9520
 1.3420	37.8740
 1.3430	37.7940
 1.3440	37.7150
 1.3450	37.6370
 1.3460	37.5610
 1.3470	37.4850
 1.3480	37.4100
 1.3490	37.3340
 1.3500	37.2600
 1.3510	37.1840
 1.3520	37.1070
 1.3530	37.0300
 1.3540	36.9530
 1.3550	36.8760
 1.3560	36.7990
 1.3570	36.7220
 1.3580	36.6440
 1.3590	36.5630
 1.3600	36.4810
 1.3610	36.3960
 1.3620	36.3070
 1.3630	36.2160
 1.3640	36.1240
 1.3650	36.0250
 1.3660	35.9240
 1.3670	35.8180
 1.3680	35.7050
 1.3690	35.5860
 1.3700	35.4580
 1.3710	35.3210
 1.3720	35.1750
 1.3730	35.0180
 1.3740	34.8500
 1.3750	34.6690
 1.3760	34.4730
 1.3770	34.2620
 1.3780	34.0330
 1.3790	33.7870
 1.3800	33.5260
 1.3810	33.2460
 1.3820	32.9500
 1.3830	32.6390
 1.3840	32.3100
 1.3850	31.9650
 1.3860	31.6070
 1.3870	31.2320
 1.3880	30.8490
 1.3890	30.4530
 1.3900	30.0440
 1.3910	29.6310
 1.3920	29.2090
 1.3930	28.7780
 1.3940	28.3450
 1.3950	27.9060
 1.3960	27.4690
 1.3970	27.0360
 1.3980	26.6070
 1.3990	26.1890
 1.4000	25.7780
 1.4010	25.3730
 1.4020	24.9820
 1.4030	24.6000
 1.4040	24.2320
 1.4050	23.8800
 1.4060	23.5430
 1.4070	23.2240
 1.4080	22.9220
 1.4090	22.6350
 1.4100	22.3650
 1.4110	22.1100
 1.4120	21.8720
 1.4130	21.6490
 1.4140	21.4420
 1.4150	21.2510
 1.4160	21.0740
 1.4170	20.9090
 1.4180	20.7570
 1.4190	20.6170
 1.4200	20.4880
 1.4210	20.3710
 1.4220	20.2630
 1.4230	20.1650
 1.4240	20.0770
 1.4250	19.9960
 1.4260	19.9240
 1.4270	19.8590
 1.4280	19.8020
 1.4290	19.7500
 1.4300	19.7050
 1.4310	19.6660
 1.4320	19.6320
 1.4330	19.6030
 1.4340	19.5810
 1.4350	19.5620
 1.4360	19.5470
 1.4370	19.5370
 1.4380	19.5310
 1.4390	19.5280
 1.4400	19.5290
 1.4410	19.5330
 1.4420	19.5380
 1.4430	19.5460
 1.4440	19.5570
 1.4450	19.5690
 1.4460	19.5830
 1.4470	19.6000
 1.4480	19.6170
 1.4490	19.6360
 1.4500	19.6560
 1.4510	19.6780
 1.4520	19.7010
 1.4530	19.7250
 1.4540	19.7500
 1.4550	19.7770
 1.4560	19.8060
 1.4570	19.8370
 1.4580	19.8710
 1.4590	19.9090
 1.4600	19.9500
 1.4610	19.9930
 1.4620	20.0410
 1.4630	20.0930
 1.4640	20.1490
 1.4650	20.2100
 1.4660	20.2750
 1.4670	20.3430
 1.4680	20.4190
 1.4690	20.4980
 1.4700	20.5810
 1.4710	20.6690
 1.4720	20.7590
 1.4730	20.8520
 1.4740	20.9470
 1.4750	21.0450
