Name: Juniperus chinensis
Type: vegetation
Class: Shrub
Genus: Juniperus
Species: chinensis
Sample No.: JPL098
Owner: JPL
Wavelength Range: VSWIR
Origin: 34.12567; - 118.11202; WGS84
Collection Date: 2/2/2016
Description: Samples were collected at the Huntington Garden in San Marino California as part of a JPL Subcontract studying HyTES imagery. Samples were taken to JPL and processed within 48 hours of collection. The same leaves were processed in the Nicolet and then measured using the ASD.
Measurement: Bidirectional reflectance
First Column: X
Second Column: Y
X Units: Wavelength (micrometer)
Y Units: Reflectance (percentage)
First X Value: 0.35
Last X Value: 2.5
Number of X Values: 2151
Additional Information: 

 0.3500	 5.2180
 0.3510	 3.0350
 0.3520	 3.4760
 0.3530	 5.1170
 0.3540	 5.8150
 0.3550	 5.1980
 0.3560	 4.5670
 0.3570	 4.0100
 0.3580	 3.1340
 0.3590	 3.6850
 0.3600	 3.9330
 0.3610	 3.5670
 0.3620	 4.7120
 0.3630	 4.6470
 0.3640	 4.2130
 0.3650	 4.4610
 0.3660	 3.5780
 0.3670	 3.4900
 0.3680	 4.1950
 0.3690	 4.4110
 0.3700	 4.3010
 0.3710	 4.6350
 0.3720	 5.3760
 0.3730	 4.8350
 0.3740	 4.3850
 0.3750	 4.3850
 0.3760	 4.6850
 0.3770	 4.5070
 0.3780	 4.3950
 0.3790	 4.3210
 0.3800	 3.7860
 0.3810	 3.8960
 0.3820	 4.1120
 0.3830	 4.0200
 0.3840	 4.1330
 0.3850	 3.8940
 0.3860	 3.6100
 0.3870	 3.8040
 0.3880	 4.4160
 0.3890	 4.5150
 0.3900	 3.9550
 0.3910	 3.4520
 0.3920	 3.6240
 0.3930	 3.9270
 0.3940	 3.8910
 0.3950	 3.9310
 0.3960	 3.9810
 0.3970	 4.0440
 0.3980	 4.1140
 0.3990	 3.8860
 0.4000	 3.5830
 0.4010	 3.4690
 0.4020	 3.8050
 0.4030	 3.8100
 0.4040	 3.7080
 0.4050	 3.8410
 0.4060	 4.0720
 0.4070	 3.9300
 0.4080	 3.6090
 0.4090	 3.6810
 0.4100	 3.7750
 0.4110	 3.8210
 0.4120	 3.8310
 0.4130	 3.8790
 0.4140	 4.0820
 0.4150	 4.2660
 0.4160	 4.2110
 0.4170	 3.8800
 0.4180	 3.8740
 0.4190	 4.2050
 0.4200	 4.3360
 0.4210	 4.2970
 0.4220	 4.3080
 0.4230	 4.4700
 0.4240	 4.4950
 0.4250	 4.4000
 0.4260	 4.3120
 0.4270	 4.3750
 0.4280	 4.4400
 0.4290	 4.4190
 0.4300	 4.3490
 0.4310	 4.4230
 0.4320	 4.5340
 0.4330	 4.5940
 0.4340	 4.5760
 0.4350	 4.6510
 0.4360	 4.6090
 0.4370	 4.5420
 0.4380	 4.7410
 0.4390	 4.7520
 0.4400	 4.7420
 0.4410	 4.8350
 0.4420	 4.8230
 0.4430	 4.7790
 0.4440	 4.7720
 0.4450	 4.8490
 0.4460	 4.8920
 0.4470	 4.9480
 0.4480	 4.9810
 0.4490	 4.8490
 0.4500	 4.8770
 0.4510	 4.9890
 0.4520	 5.0410
 0.4530	 5.0110
 0.4540	 4.9970
 0.4550	 5.0240
 0.4560	 5.0640
 0.4570	 5.0260
 0.4580	 5.0050
 0.4590	 5.0510
 0.4600	 5.1060
 0.4610	 5.0710
 0.4620	 5.0400
 0.4630	 5.1230
 0.4640	 5.1760
 0.4650	 5.1320
 0.4660	 5.0610
 0.4670	 5.1570
 0.4680	 5.2550
 0.4690	 5.2430
 0.4700	 5.1220
 0.4710	 5.1500
 0.4720	 5.2310
 0.4730	 5.2580
 0.4740	 5.1540
 0.4750	 5.1130
 0.4760	 5.1260
 0.4770	 5.1610
 0.4780	 5.1880
 0.4790	 5.1910
 0.4800	 5.1920
 0.4810	 5.2060
 0.4820	 5.1550
 0.4830	 5.1220
 0.4840	 5.1420
 0.4850	 5.1980
 0.4860	 5.2970
 0.4870	 5.3570
 0.4880	 5.3330
 0.4890	 5.2890
 0.4900	 5.2460
 0.4910	 5.2360
 0.4920	 5.2790
 0.4930	 5.2980
 0.4940	 5.2860
 0.4950	 5.2930
 0.4960	 5.4340
 0.4970	 5.4730
 0.4980	 5.4410
 0.4990	 5.4320
 0.5000	 5.4350
 0.5010	 5.4980
 0.5020	 5.5850
 0.5030	 5.6000
 0.5040	 5.6630
 0.5050	 5.7400
 0.5060	 5.7950
 0.5070	 5.8270
 0.5080	 5.8820
 0.5090	 5.9750
 0.5100	 6.0940
 0.5110	 6.1540
 0.5120	 6.2450
 0.5130	 6.3920
 0.5140	 6.5290
 0.5150	 6.6180
 0.5160	 6.6950
 0.5170	 6.8070
 0.5180	 6.9590
 0.5190	 7.1170
 0.5200	 7.2610
 0.5210	 7.3870
 0.5220	 7.5090
 0.5230	 7.6420
 0.5240	 7.7870
 0.5250	 7.9340
 0.5260	 8.0710
 0.5270	 8.1980
 0.5280	 8.3170
 0.5290	 8.4280
 0.5300	 8.5030
 0.5310	 8.5460
 0.5320	 8.6070
 0.5330	 8.6970
 0.5340	 8.7960
 0.5350	 8.8770
 0.5360	 8.9170
 0.5370	 8.9500
 0.5380	 8.9860
 0.5390	 9.0220
 0.5400	 9.0830
 0.5410	 9.1570
 0.5420	 9.2280
 0.5430	 9.2960
 0.5440	 9.3200
 0.5450	 9.3230
 0.5460	 9.3400
 0.5470	 9.3080
 0.5480	 9.2750
 0.5490	 9.2680
 0.5500	 9.2750
 0.5510	 9.2880
 0.5520	 9.3020
 0.5530	 9.3090
 0.5540	 9.2670
 0.5550	 9.2160
 0.5560	 9.1740
 0.5570	 9.1420
 0.5580	 9.0840
 0.5590	 9.0240
 0.5600	 8.9750
 0.5610	 8.9080
 0.5620	 8.8520
 0.5630	 8.8010
 0.5640	 8.7320
 0.5650	 8.6470
 0.5660	 8.5610
 0.5670	 8.4770
 0.5680	 8.3840
 0.5690	 8.2950
 0.5700	 8.2080
 0.5710	 8.1150
 0.5720	 8.0100
 0.5730	 7.9160
 0.5740	 7.8350
 0.5750	 7.7620
 0.5760	 7.7140
 0.5770	 7.6760
 0.5780	 7.6280
 0.5790	 7.5530
 0.5800	 7.4780
 0.5810	 7.4190
 0.5820	 7.3830
 0.5830	 7.3630
 0.5840	 7.3260
 0.5850	 7.2690
 0.5860	 7.2220
 0.5870	 7.1880
 0.5880	 7.1620
 0.5890	 7.1340
 0.5900	 7.0940
 0.5910	 7.0470
 0.5920	 7.0110
 0.5930	 7.0060
 0.5940	 7.0010
 0.5950	 6.9700
 0.5960	 6.9210
 0.5970	 6.9110
 0.5980	 6.8940
 0.5990	 6.8720
 0.6000	 6.8610
 0.6010	 6.8390
 0.6020	 6.8140
 0.6030	 6.7920
 0.6040	 6.7740
 0.6050	 6.7300
 0.6060	 6.6850
 0.6070	 6.6560
 0.6080	 6.6120
 0.6090	 6.5630
 0.6100	 6.5340
 0.6110	 6.5450
 0.6120	 6.5190
 0.6130	 6.4570
 0.6140	 6.3730
 0.6150	 6.2930
 0.6160	 6.2510
 0.6170	 6.2220
 0.6180	 6.1720
 0.6190	 6.1480
 0.6200	 6.1020
 0.6210	 6.0490
 0.6220	 6.0420
 0.6230	 6.0300
 0.6240	 6.0110
 0.6250	 5.9870
 0.6260	 5.9480
 0.6270	 5.9310
 0.6280	 5.9270
 0.6290	 5.9130
 0.6300	 5.9100
 0.6310	 5.9210
 0.6320	 5.9320
 0.6330	 5.9030
 0.6340	 5.8720
 0.6350	 5.8550
 0.6360	 5.8500
 0.6370	 5.8220
 0.6380	 5.7840
 0.6390	 5.7460
 0.6400	 5.7110
 0.6410	 5.6460
 0.6420	 5.6000
 0.6430	 5.5820
 0.6440	 5.5300
 0.6450	 5.4970
 0.6460	 5.4630
 0.6470	 5.4000
 0.6480	 5.3440
 0.6490	 5.3170
 0.6500	 5.3060
 0.6510	 5.2720
 0.6520	 5.2430
 0.6530	 5.2160
 0.6540	 5.1850
 0.6550	 5.1450
 0.6560	 5.1250
 0.6570	 5.1020
 0.6580	 5.0480
 0.6590	 5.0360
 0.6600	 5.0110
 0.6610	 4.9510
 0.6620	 4.8880
 0.6630	 4.8640
 0.6640	 4.8440
 0.6650	 4.7940
 0.6660	 4.7360
 0.6670	 4.7260
 0.6680	 4.7390
 0.6690	 4.7120
 0.6700	 4.6820
 0.6710	 4.6600
 0.6720	 4.6460
 0.6730	 4.6350
 0.6740	 4.6490
 0.6750	 4.6670
 0.6760	 4.6700
 0.6770	 4.6700
 0.6780	 4.6770
 0.6790	 4.6970
 0.6800	 4.7290
 0.6810	 4.7400
 0.6820	 4.7770
 0.6830	 4.8510
 0.6840	 4.9000
 0.6850	 4.9600
 0.6860	 5.0420
 0.6870	 5.1420
 0.6880	 5.2550
 0.6890	 5.3840
 0.6900	 5.5370
 0.6910	 5.7200
 0.6920	 5.9380
 0.6930	 6.1900
 0.6940	 6.4780
 0.6950	 6.8150
 0.6960	 7.1740
 0.6970	 7.5550
 0.6980	 7.9680
 0.6990	 8.4410
 0.7000	 8.9150
 0.7010	 9.3890
 0.7020	 9.9110
 0.7030	10.4530
 0.7040	11.0070
 0.7050	11.5750
 0.7060	12.1790
 0.7070	12.7710
 0.7080	13.3660
 0.7090	13.9960
 0.7100	14.6310
 0.7110	15.2810
 0.7120	15.9510
 0.7130	16.6430
 0.7140	17.3430
 0.7150	18.0570
 0.7160	18.7890
 0.7170	19.5360
 0.7180	20.2730
 0.7190	21.0130
 0.7200	21.7820
 0.7210	22.5540
 0.7220	23.3140
 0.7230	24.0630
 0.7240	24.8200
 0.7250	25.5470
 0.7260	26.2670
 0.7270	26.9970
 0.7280	27.6950
 0.7290	28.3840
 0.7300	29.0490
 0.7310	29.6660
 0.7320	30.2780
 0.7330	30.8730
 0.7340	31.4340
 0.7350	31.9490
 0.7360	32.4530
 0.7370	32.9370
 0.7380	33.3910
 0.7390	33.8170
 0.7400	34.2150
 0.7410	34.5860
 0.7420	34.9280
 0.7430	35.2570
 0.7440	35.5680
 0.7450	35.8530
 0.7460	36.1070
 0.7470	36.3310
 0.7480	36.5380
 0.7490	36.7340
 0.7500	36.9100
 0.7510	37.0650
 0.7520	37.2140
 0.7530	37.3670
 0.7540	37.4840
 0.7550	37.5870
 0.7560	37.6840
 0.7570	37.7680
 0.7580	37.8540
 0.7590	37.9300
 0.7600	37.9930
 0.7610	38.0570
 0.7620	38.1160
 0.7630	38.1620
 0.7640	38.1910
 0.7650	38.2340
 0.7660	38.2580
 0.7670	38.2720
 0.7680	38.3050
 0.7690	38.3260
 0.7700	38.3470
 0.7710	38.3740
 0.7720	38.3960
 0.7730	38.3950
 0.7740	38.4110
 0.7750	38.4620
 0.7760	38.4620
 0.7770	38.4750
 0.7780	38.4930
 0.7790	38.4820
 0.7800	38.4810
 0.7810	38.4990
 0.7820	38.5220
 0.7830	38.5160
 0.7840	38.5340
 0.7850	38.5430
 0.7860	38.5260
 0.7870	38.5430
 0.7880	38.5610
 0.7890	38.5750
 0.7900	38.5880
 0.7910	38.6030
 0.7920	38.6050
 0.7930	38.6060
 0.7940	38.6290
 0.7950	38.6140
 0.7960	38.6000
 0.7970	38.6110
 0.7980	38.6370
 0.7990	38.6420
 0.8000	38.6350
 0.8010	38.6340
 0.8020	38.6540
 0.8030	38.6620
 0.8040	38.6540
 0.8050	38.6470
 0.8060	38.6380
 0.8070	38.6310
 0.8080	38.6340
 0.8090	38.6540
 0.8100	38.6530
 0.8110	38.6570
 0.8120	38.6800
 0.8130	38.6970
 0.8140	38.6730
 0.8150	38.6570
 0.8160	38.6870
 0.8170	38.6820
 0.8180	38.6790
 0.8190	38.6800
 0.8200	38.6740
 0.8210	38.6760
 0.8220	38.6920
 0.8230	38.7010
 0.8240	38.6680
 0.8250	38.6690
 0.8260	38.6750
 0.8270	38.6680
 0.8280	38.6740
 0.8290	38.6900
 0.8300	38.7090
 0.8310	38.7190
 0.8320	38.7040
 0.8330	38.6790
 0.8340	38.6650
 0.8350	38.6780
 0.8360	38.6930
 0.8370	38.7030
 0.8380	38.7090
 0.8390	38.7170
 0.8400	38.7260
 0.8410	38.7290
 0.8420	38.7270
 0.8430	38.7250
 0.8440	38.7320
 0.8450	38.7400
 0.8460	38.7440
 0.8470	38.7720
 0.8480	38.7950
 0.8490	38.8070
 0.8500	38.8060
 0.8510	38.7940
 0.8520	38.7910
 0.8530	38.8000
 0.8540	38.8130
 0.8550	38.8370
 0.8560	38.8680
 0.8570	38.8850
 0.8580	38.8620
 0.8590	38.8620
 0.8600	38.8680
 0.8610	38.8630
 0.8620	38.8570
 0.8630	38.8930
 0.8640	38.9150
 0.8650	38.8880
 0.8660	38.8910
 0.8670	38.9230
 0.8680	38.9460
 0.8690	38.9240
 0.8700	38.9010
 0.8710	38.8990
 0.8720	38.9100
 0.8730	38.9120
 0.8740	38.9350
 0.8750	38.9510
 0.8760	38.9410
 0.8770	38.9040
 0.8780	38.8920
 0.8790	38.8910
 0.8800	38.8970
 0.8810	38.9240
 0.8820	38.9200
 0.8830	38.9200
 0.8840	38.9390
 0.8850	38.9190
 0.8860	38.9010
 0.8870	38.9080
 0.8880	38.9380
 0.8890	38.9300
 0.8900	38.9120
 0.8910	38.8910
 0.8920	38.8710
 0.8930	38.8690
 0.8940	38.8770
 0.8950	38.8870
 0.8960	38.8920
 0.8970	38.8820
 0.8980	38.8610
 0.8990	38.8490
 0.9000	38.8660
 0.9010	38.8490
 0.9020	38.8410
 0.9030	38.8540
 0.9040	38.8410
 0.9050	38.8020
 0.9060	38.7780
 0.9070	38.7820
 0.9080	38.7620
 0.9090	38.7580
 0.9100	38.7550
 0.9110	38.7370
 0.9120	38.7120
 0.9130	38.7040
 0.9140	38.6940
 0.9150	38.6660
 0.9160	38.6510
 0.9170	38.6540
 0.9180	38.6530
 0.9190	38.6290
 0.9200	38.6420
 0.9210	38.6130
 0.9220	38.5620
 0.9230	38.5520
 0.9240	38.5180
 0.9250	38.4720
 0.9260	38.4330
 0.9270	38.4160
 0.9280	38.4360
 0.9290	38.4250
 0.9300	38.3860
 0.9310	38.3800
 0.9320	38.3410
 0.9330	38.2760
 0.9340	38.2260
 0.9350	38.2460
 0.9360	38.1830
 0.9370	38.1040
 0.9380	38.0610
 0.9390	38.0260
 0.9400	37.9610
 0.9410	37.8980
 0.9420	37.8600
 0.9430	37.8240
 0.9440	37.8010
 0.9450	37.7750
 0.9460	37.7280
 0.9470	37.6430
 0.9480	37.5430
 0.9490	37.4430
 0.9500	37.3520
 0.9510	37.2800
 0.9520	37.1400
 0.9530	37.0030
 0.9540	36.9210
 0.9550	36.7460
 0.9560	36.6830
 0.9570	36.6610
 0.9580	36.5630
 0.9590	36.4470
 0.9600	36.3860
 0.9610	36.3290
 0.9620	36.2280
 0.9630	36.2030
 0.9640	36.1700
 0.9650	36.0890
 0.9660	35.9840
 0.9670	36.0150
 0.9680	35.9990
 0.9690	35.9170
 0.9700	35.8410
 0.9710	35.8790
 0.9720	35.9080
 0.9730	35.8970
 0.9740	35.8680
 0.9750	35.8330
 0.9760	35.8170
 0.9770	35.8050
 0.9780	35.7720
 0.9790	35.7600
 0.9800	35.7540
 0.9810	35.7650
 0.9820	35.7930
 0.9830	35.7230
 0.9840	35.7850
 0.9850	35.9170
 0.9860	35.9340
 0.9870	35.9170
 0.9880	35.8590
 0.9890	35.8410
 0.9900	35.9250
 0.9910	35.8970
 0.9920	35.9510
 0.9930	36.0120
 0.9940	35.9530
 0.9950	36.0520
 0.9960	36.1440
 0.9970	36.1300
 0.9980	36.0300
 0.9990	36.1720
 1.0000	36.1570
 1.0010	36.0680
 1.0020	36.1170
 1.0030	36.2050
 1.0040	36.2710
 1.0050	36.3050
 1.0060	36.3070
 1.0070	36.3040
 1.0080	36.3380
 1.0090	36.3890
 1.0100	36.4520
 1.0110	36.5640
 1.0120	36.6270
 1.0130	36.6760
 1.0140	36.7190
 1.0150	36.7420
 1.0160	36.7560
 1.0170	36.7840
 1.0180	36.8490
 1.0190	36.8800
 1.0200	36.9150
 1.0210	36.9650
 1.0220	36.9840
 1.0230	37.0270
 1.0240	37.1000
 1.0250	37.1410
 1.0260	37.1790
 1.0270	37.2050
 1.0280	37.2070
 1.0290	37.2290
 1.0300	37.2380
 1.0310	37.2750
 1.0320	37.3410
 1.0330	37.4050
 1.0340	37.4610
 1.0350	37.4990
 1.0360	37.5100
 1.0370	37.5180
 1.0380	37.5540
 1.0390	37.6110
 1.0400	37.6530
 1.0410	37.7120
 1.0420	37.7410
 1.0430	37.7400
 1.0440	37.7600
 1.0450	37.7810
 1.0460	37.8020
 1.0470	37.8320
 1.0480	37.8550
 1.0490	37.8620
 1.0500	37.8870
 1.0510	37.9260
 1.0520	37.9680
 1.0530	37.9940
 1.0540	38.0190
 1.0550	38.0490
 1.0560	38.0680
 1.0570	38.0910
 1.0580	38.1350
 1.0590	38.1530
 1.0600	38.1500
 1.0610	38.1540
 1.0620	38.1520
 1.0630	38.1530
 1.0640	38.1550
 1.0650	38.1570
 1.0660	38.1550
 1.0670	38.1610
 1.0680	38.1710
 1.0690	38.1850
 1.0700	38.2040
 1.0710	38.2420
 1.0720	38.2450
 1.0730	38.2370
 1.0740	38.2290
 1.0750	38.1960
 1.0760	38.1830
 1.0770	38.1740
 1.0780	38.1780
 1.0790	38.1950
 1.0800	38.2070
 1.0810	38.2320
 1.0820	38.2480
 1.0830	38.2600
 1.0840	38.2630
 1.0850	38.2590
 1.0860	38.2530
 1.0870	38.2470
 1.0880	38.2300
 1.0890	38.2210
 1.0900	38.2200
 1.0910	38.2080
 1.0920	38.1900
 1.0930	38.1760
 1.0940	38.1610
 1.0950	38.1440
 1.0960	38.1340
 1.0970	38.1110
 1.0980	38.0720
 1.0990	38.0460
 1.1000	38.0230
 1.1010	37.9970
 1.1020	37.9780
 1.1030	37.9570
 1.1040	37.9370
 1.1050	37.9110
 1.1060	37.8820
 1.1070	37.8540
 1.1080	37.8220
 1.1090	37.7850
 1.1100	37.7470
 1.1110	37.7020
 1.1120	37.6680
 1.1130	37.6300
 1.1140	37.5980
 1.1150	37.5840
 1.1160	37.5540
 1.1170	37.5260
 1.1180	37.4850
 1.1190	37.4310
 1.1200	37.3730
 1.1210	37.3200
 1.1220	37.2520
 1.1230	37.1850
 1.1240	37.1110
 1.1250	37.0260
 1.1260	36.9310
 1.1270	36.8280
 1.1280	36.7170
 1.1290	36.5970
 1.1300	36.4630
 1.1310	36.3220
 1.1320	36.1780
 1.1330	36.0210
 1.1340	35.8620
 1.1350	35.6780
 1.1360	35.4790
 1.1370	35.2570
 1.1380	35.0200
 1.1390	34.7760
 1.1400	34.5390
 1.1410	34.2980
 1.1420	34.0670
 1.1430	33.8400
 1.1440	33.6140
 1.1450	33.3890
 1.1460	33.1700
 1.1470	32.9490
 1.1480	32.7410
 1.1490	32.5320
 1.1500	32.3410
 1.1510	32.1600
 1.1520	31.9950
 1.1530	31.8490
 1.1540	31.7050
 1.1550	31.5740
 1.1560	31.4390
 1.1570	31.3080
 1.1580	31.1860
 1.1590	31.0850
 1.1600	31.0040
 1.1610	30.9360
 1.1620	30.8780
 1.1630	30.8100
 1.1640	30.7390
 1.1650	30.6700
 1.1660	30.5910
 1.1670	30.5270
 1.1680	30.4700
 1.1690	30.4180
 1.1700	30.3820
 1.1710	30.3390
 1.1720	30.2950
 1.1730	30.2480
 1.1740	30.2000
 1.1750	30.1430
 1.1760	30.0940
 1.1770	30.0550
 1.1780	30.0080
 1.1790	29.9560
 1.1800	29.9010
 1.1810	29.8420
 1.1820	29.7910
 1.1830	29.7420
 1.1840	29.6920
 1.1850	29.6470
 1.1860	29.5940
 1.1870	29.5480
 1.1880	29.4990
 1.1890	29.4450
 1.1900	29.4060
 1.1910	29.3700
 1.1920	29.3360
 1.1930	29.3130
 1.1940	29.2830
 1.1950	29.2420
 1.1960	29.2180
 1.1970	29.1960
 1.1980	29.1780
 1.1990	29.1660
 1.2000	29.1530
 1.2010	29.1550
 1.2020	29.1530
 1.2030	29.1540
 1.2040	29.1670
 1.2050	29.1690
 1.2060	29.1830
 1.2070	29.2140
 1.2080	29.2430
 1.2090	29.2720
 1.2100	29.3040
 1.2110	29.3400
 1.2120	29.3740
 1.2130	29.4190
 1.2140	29.4750
 1.2150	29.5280
 1.2160	29.5830
 1.2170	29.6400
 1.2180	29.7030
 1.2190	29.7710
 1.2200	29.8350
 1.2210	29.8990
 1.2220	29.9690
 1.2230	30.0330
 1.2240	30.1020
 1.2250	30.1770
 1.2260	30.2380
 1.2270	30.3010
 1.2280	30.3720
 1.2290	30.4430
 1.2300	30.5160
 1.2310	30.5840
 1.2320	30.6530
 1.2330	30.7200
 1.2340	30.7780
 1.2350	30.8330
 1.2360	30.8820
 1.2370	30.9220
 1.2380	30.9570
 1.2390	30.9930
 1.2400	31.0370
 1.2410	31.0840
 1.2420	31.1300
 1.2430	31.1800
 1.2440	31.2220
 1.2450	31.2580
 1.2460	31.2950
 1.2470	31.3270
 1.2480	31.3570
 1.2490	31.3920
 1.2500	31.4260
 1.2510	31.4550
 1.2520	31.4820
 1.2530	31.4920
 1.2540	31.5020
 1.2550	31.5190
 1.2560	31.5320
 1.2570	31.5540
 1.2580	31.5750
 1.2590	31.5950
 1.2600	31.6140
 1.2610	31.6330
 1.2620	31.6490
 1.2630	31.6670
 1.2640	31.6860
 1.2650	31.6980
 1.2660	31.7090
 1.2670	31.7190
 1.2680	31.7170
 1.2690	31.7180
 1.2700	31.7190
 1.2710	31.7120
 1.2720	31.7110
 1.2730	31.7090
 1.2740	31.7050
 1.2750	31.6950
 1.2760	31.6820
 1.2770	31.6670
 1.2780	31.6470
 1.2790	31.6270
 1.2800	31.5990
 1.2810	31.5660
 1.2820	31.5360
 1.2830	31.5110
 1.2840	31.4870
 1.2850	31.4510
 1.2860	31.4230
 1.2870	31.3940
 1.2880	31.3620
 1.2890	31.3300
 1.2900	31.3120
 1.2910	31.2780
 1.2920	31.2250
 1.2930	31.1790
 1.2940	31.1250
 1.2950	31.0690
 1.2960	31.0210
 1.2970	30.9670
 1.2980	30.9020
 1.2990	30.8310
 1.3000	30.7580
 1.3010	30.6890
 1.3020	30.6190
 1.3030	30.5430
 1.3040	30.4640
 1.3050	30.3760
 1.3060	30.2810
 1.3070	30.1920
 1.3080	30.1020
 1.3090	29.9980
 1.3100	29.8950
 1.3110	29.7920
 1.3120	29.6810
 1.3130	29.5750
 1.3140	29.4660
 1.3150	29.3570
 1.3160	29.2390
 1.3170	29.1180
 1.3180	28.9920
 1.3190	28.8640
 1.3200	28.7270
 1.3210	28.5810
 1.3220	28.4430
 1.3230	28.2960
 1.3240	28.1430
 1.3250	27.9980
 1.3260	27.8460
 1.3270	27.6890
 1.3280	27.5350
 1.3290	27.3840
 1.3300	27.2300
 1.3310	27.0810
 1.3320	26.9370
 1.3330	26.7810
 1.3340	26.6220
 1.3350	26.4570
 1.3360	26.2810
 1.3370	26.1200
 1.3380	25.9630
 1.3390	25.8080
 1.3400	25.6610
 1.3410	25.5170
 1.3420	25.3680
 1.3430	25.2260
 1.3440	25.0880
 1.3450	24.9450
 1.3460	24.7990
 1.3470	24.6620
 1.3480	24.5220
 1.3490	24.3920
 1.3500	24.2700
 1.3510	24.1500
 1.3520	24.0270
 1.3530	23.9050
 1.3540	23.7790
 1.3550	23.6510
 1.3560	23.5330
 1.3570	23.4140
 1.3580	23.2920
 1.3590	23.1690
 1.3600	23.0320
 1.3610	22.8930
 1.3620	22.7530
 1.3630	22.6080
 1.3640	22.4570
 1.3650	22.3000
 1.3660	22.1480
 1.3670	21.9870
 1.3680	21.8220
 1.3690	21.6480
 1.3700	21.4550
 1.3710	21.2580
 1.3720	21.0480
 1.3730	20.8240
 1.3740	20.5910
 1.3750	20.3470
 1.3760	20.0890
 1.3770	19.8200
 1.3780	19.5330
 1.3790	19.2300
 1.3800	18.9180
 1.3810	18.5970
 1.3820	18.2660
 1.3830	17.9270
 1.3840	17.5770
 1.3850	17.2120
 1.3860	16.8440
 1.3870	16.4630
 1.3880	16.0880
 1.3890	15.7070
 1.3900	15.3300
 1.3910	14.9630
 1.3920	14.6000
 1.3930	14.2410
 1.3940	13.8860
 1.3950	13.5320
 1.3960	13.1860
 1.3970	12.8480
 1.3980	12.5230
 1.3990	12.2160
 1.4000	11.9190
 1.4010	11.6320
 1.4020	11.3580
 1.4030	11.0930
 1.4040	10.8380
 1.4050	10.6020
 1.4060	10.3780
 1.4070	10.1750
 1.4080	 9.9850
 1.4090	 9.8050
 1.4100	 9.6360
 1.4110	 9.4710
 1.4120	 9.3180
 1.4130	 9.1740
 1.4140	 9.0420
 1.4150	 8.9210
 1.4160	 8.8030
 1.4170	 8.6950
 1.4180	 8.5930
 1.4190	 8.4960
 1.4200	 8.4060
 1.4210	 8.3220
 1.4220	 8.2460
 1.4230	 8.1750
 1.4240	 8.1080
 1.4250	 8.0470
 1.4260	 7.9890
 1.4270	 7.9360
 1.4280	 7.8900
 1.4290	 7.8460
 1.4300	 7.8040
 1.4310	 7.7680
 1.4320	 7.7340
 1.4330	 7.7040
 1.4340	 7.6820
 1.4350	 7.6550
 1.4360	 7.6290
 1.4370	 7.6020
 1.4380	 7.5720
 1.4390	 7.5490
 1.4400	 7.5280
 1.4410	 7.5090
 1.4420	 7.4960
 1.4430	 7.4800
 1.4440	 7.4720
 1.4450	 7.4660
 1.4460	 7.4600
 1.4470	 7.4590
 1.4480	 7.4570
 1.4490	 7.4570
 1.4500	 7.4580
 1.4510	 7.4580
 1.4520	 7.4630
 1.4530	 7.4640
 1.4540	 7.4650
 1.4550	 7.4690
 1.4560	 7.4730
 1.4570	 7.4820
 1.4580	 7.4970
 1.4590	 7.5090
 1.4600	 7.5230
 1.4610	 7.5390
 1.4620	 7.5540
 1.4630	 7.5760
 1.4640	 7.5980
 1.4650	 7.6200
 1.4660	 7.6480
 1.4670	 7.6790
 1.4680	 7.7100
 1.4690	 7.7430
 1.4700	 7.7770
 1.4710	 7.8100
 1.4720	 7.8470
 1.4730	 7.8870
 1.4740	 7.9320
 1.4750	 7.9770
 1.4760	 8.0220
 1.4770	 8.0670
 1.4780	 8.1100
 1.4790	 8.1630
 1.4800	 8.2150
 1.4810	 8.2700
