Name: Ceanothus megacarpus 1
Type: vegetation
Class: Shrub
Genus: Ceanothus
Species: megacarpus
Sample No.: VH140
Owner: UCSB
Wavelength Range: TIR
Origin: 34.4908; -119.7914; WGS84
Collection Date: 6/3/2013
Description: Samples were collected as part of the HyspIRI Airborne Campaign. 48 individual plants were sampled in three times in 2013 - spring  summer  and fall. The name of the sample includes a 1  2  or 3 which references a different individual of the species. Samples were taken to JPL and processed within 48 hours of collection. The same leaves were processed in the Nicolet and then measured using the ASD.
Measurement: Hemispherical reflectance
First Column: X
Second Column: Y
X Units: Wavelength (micrometers)
Y Units: Reflectance (percentage)
First X Value: 2.501
Last X Value: 15.387
Number of X Values: 1737
Additional Information: vegetation.shrub.ceanothus.megacarpus.tir.vh140.ucsb.nicolet.ancillary.txt

 2.5010	 5.4460
 2.5030	 5.3410
 2.5040	 5.3420
 2.5050	 5.3490
 2.5060	 5.4060
 2.5070	 5.3780
 2.5090	 5.4050
 2.5100	 5.3370
 2.5110	 5.3680
 2.5120	 5.3750
 2.5140	 5.4550
 2.5150	 5.3970
 2.5160	 5.3870
 2.5170	 5.2940
 2.5180	 5.2520
 2.5200	 5.1980
 2.5210	 5.3020
 2.5220	 5.2700
 2.5230	 5.2550
 2.5250	 5.3110
 2.5260	 5.4560
 2.5270	 5.4070
 2.5280	 5.3820
 2.5290	 5.2900
 2.5310	 5.2480
 2.5320	 5.2430
 2.5330	 5.3450
 2.5340	 5.2910
 2.5360	 5.2660
 2.5370	 5.3330
 2.5380	 5.4290
 2.5390	 5.3430
 2.5410	 5.3800
 2.5420	 5.2660
 2.5430	 5.2170
 2.5440	 5.1960
 2.5460	 5.2160
 2.5470	 5.2540
 2.5480	 5.4180
 2.5490	 5.4180
 2.5510	 5.3560
 2.5520	 5.2830
 2.5530	 5.2870
 2.5540	 5.2450
 2.5560	 5.3820
 2.5570	 5.3330
 2.5580	 5.3560
 2.5590	 5.3800
 2.5610	 5.4320
 2.5620	 5.3770
 2.5630	 5.5100
 2.5640	 5.5790
 2.5660	 5.5210
 2.5670	 5.4510
 2.5680	 5.5220
 2.5700	 5.4480
 2.5710	 5.3750
 2.5720	 5.4430
 2.5730	 5.4560
 2.5750	 5.2940
 2.5760	 5.3090
 2.5770	 5.2920
 2.5790	 5.3080
 2.5800	 5.3360
 2.5810	 5.4520
 2.5820	 5.3970
 2.5840	 5.3060
 2.5850	 5.2520
 2.5860	 5.3900
 2.5880	 5.3800
 2.5890	 5.3120
 2.5900	 5.3460
 2.5910	 5.3870
 2.5930	 5.2380
 2.5940	 5.3530
 2.5950	 5.4470
 2.5970	 5.4070
 2.5980	 5.3100
 2.5990	 5.3810
 2.6000	 5.4240
 2.6020	 5.4010
 2.6030	 5.2440
 2.6040	 5.2480
 2.6060	 5.2110
 2.6070	 5.3290
 2.6080	 5.3710
 2.6100	 5.3180
 2.6110	 5.1610
 2.6120	 5.2280
 2.6140	 5.3130
 2.6150	 5.2940
 2.6160	 5.2460
 2.6180	 5.3350
 2.6190	 5.2590
 2.6200	 5.1890
 2.6220	 5.2230
 2.6230	 5.3630
 2.6240	 5.3770
 2.6260	 5.3500
 2.6270	 5.2950
 2.6280	 5.2390
 2.6300	 5.1470
 2.6310	 5.2150
 2.6320	 5.2660
 2.6340	 5.3090
 2.6350	 5.2500
 2.6360	 5.2390
 2.6380	 5.2430
 2.6390	 5.2780
 2.6400	 5.2270
 2.6420	 5.1620
 2.6430	 5.1220
 2.6440	 5.1730
 2.6460	 5.1880
 2.6470	 5.2260
 2.6480	 5.1970
 2.6500	 5.1420
 2.6510	 5.1090
 2.6520	 5.2880
 2.6540	 5.2410
 2.6550	 5.2890
 2.6560	 5.2850
 2.6580	 5.2190
 2.6590	 5.0770
 2.6610	 5.0880
 2.6620	 5.0350
 2.6630	 5.0350
 2.6650	 5.0470
 2.6660	 5.0660
 2.6670	 5.1050
 2.6690	 5.1810
 2.6700	 5.1510
 2.6720	 5.1670
 2.6730	 5.0710
 2.6740	 5.1390
 2.6760	 5.1160
 2.6770	 5.0920
 2.6780	 5.1440
 2.6800	 5.2740
 2.6810	 5.1920
 2.6830	 5.1230
 2.6840	 5.0000
 2.6850	 5.0100
 2.6870	 5.1410
 2.6880	 5.2410
 2.6900	 5.1760
 2.6910	 5.1380
 2.6920	 5.1400
 2.6940	 5.2430
 2.6950	 5.2000
 2.6970	 5.3130
 2.6980	 5.2340
 2.6990	 5.1740
 2.7010	 5.1230
 2.7020	 5.1190
 2.7040	 5.0960
 2.7050	 5.1500
 2.7060	 5.2190
 2.7080	 5.3390
 2.7090	 5.2230
 2.7110	 5.1000
 2.7120	 4.9890
 2.7130	 5.0300
 2.7150	 5.0450
 2.7160	 5.0800
 2.7180	 4.9560
 2.7190	 5.0830
 2.7210	 5.1650
 2.7220	 5.1830
 2.7230	 5.0190
 2.7250	 5.0090
 2.7260	 5.1460
 2.7280	 5.2310
 2.7290	 5.0580
 2.7310	 5.2090
 2.7320	 5.3510
 2.7330	 5.3150
 2.7350	 5.1250
 2.7360	 5.1920
 2.7380	 5.2110
 2.7390	 5.2930
 2.7410	 5.3100
 2.7420	 5.1480
 2.7440	 4.9550
 2.7450	 5.0040
 2.7470	 4.9570
 2.7480	 5.0550
 2.7490	 5.0310
 2.7510	 4.9690
 2.7520	 4.9780
 2.7540	 5.1150
 2.7550	 5.1340
 2.7570	 5.2060
 2.7580	 5.2240
 2.7600	 5.3080
 2.7610	 5.1730
 2.7630	 5.1320
 2.7640	 5.1830
 2.7660	 5.3330
 2.7670	 5.2780
 2.7680	 5.2060
 2.7700	 5.0700
 2.7710	 5.1070
 2.7730	 5.1480
 2.7740	 5.2040
 2.7760	 5.1020
 2.7770	 5.1690
 2.7790	 5.1040
 2.7800	 5.1490
 2.7820	 5.1100
 2.7830	 5.0220
 2.7850	 4.9300
 2.7860	 5.0300
 2.7880	 5.0980
 2.7890	 5.1780
 2.7910	 5.1280
 2.7920	 5.0390
 2.7940	 4.8410
 2.7950	 4.9010
 2.7970	 4.9510
 2.7980	 4.9650
 2.8000	 4.9810
 2.8010	 5.0100
 2.8030	 4.9770
 2.8040	 5.1140
 2.8060	 5.0910
 2.8070	 5.0540
 2.8090	 5.1060
 2.8110	 5.1420
 2.8120	 4.9580
 2.8140	 4.8690
 2.8150	 4.9440
 2.8170	 5.1410
 2.8180	 5.1020
 2.8200	 4.9880
 2.8210	 4.9690
 2.8230	 5.0970
 2.8240	 5.1550
 2.8260	 5.1760
 2.8270	 5.1310
 2.8290	 5.1100
 2.8300	 4.9560
 2.8320	 4.9370
 2.8340	 4.9780
 2.8350	 5.0440
 2.8370	 4.8700
 2.8380	 5.0120
 2.8400	 5.1560
 2.8410	 5.1510
 2.8430	 5.0060
 2.8440	 4.9970
 2.8460	 4.9470
 2.8480	 4.9260
 2.8490	 4.8820
 2.8510	 4.9030
 2.8520	 4.8740
 2.8540	 4.9700
 2.8550	 5.0180
 2.8570	 5.0520
 2.8590	 4.9220
 2.8600	 4.8620
 2.8620	 4.9580
 2.8630	 5.1800
 2.8650	 5.1960
 2.8660	 5.1970
 2.8680	 5.0800
 2.8700	 5.0160
 2.8710	 4.9320
 2.8730	 5.0120
 2.8740	 4.9300
 2.8760	 4.8980
 2.8780	 4.8860
 2.8790	 5.0440
 2.8810	 5.0850
 2.8820	 5.1760
 2.8840	 5.1700
 2.8860	 5.2400
 2.8870	 5.1850
 2.8890	 5.1830
 2.8900	 5.1480
 2.8920	 5.0460
 2.8940	 5.0170
 2.8950	 5.0670
 2.8970	 4.9380
 2.8980	 4.9440
 2.9000	 5.0030
 2.9020	 4.9760
 2.9030	 4.8940
 2.9050	 5.1150
 2.9070	 5.1690
 2.9080	 5.0940
 2.9100	 4.9400
 2.9120	 4.8390
 2.9130	 4.8350
 2.9150	 5.0250
 2.9160	 5.0770
 2.9180	 4.9480
 2.9200	 4.8690
 2.9210	 4.8880
 2.9230	 4.9320
 2.9250	 5.0390
 2.9260	 4.9240
 2.9280	 5.0370
 2.9300	 5.1140
 2.9310	 5.1290
 2.9330	 5.1150
 2.9350	 5.1800
 2.9360	 5.1060
 2.9380	 4.9930
 2.9400	 4.8940
 2.9410	 5.0990
 2.9430	 5.1150
 2.9450	 5.1290
 2.9460	 5.0960
 2.9480	 5.1000
 2.9500	 5.0650
 2.9510	 5.0520
 2.9530	 5.0360
 2.9550	 5.1000
 2.9560	 5.1220
 2.9580	 5.1640
 2.9600	 5.0830
 2.9610	 5.1470
 2.9630	 5.1570
 2.9650	 5.2170
 2.9660	 5.1370
 2.9680	 5.0390
 2.9700	 5.0680
 2.9720	 5.1460
 2.9730	 5.0660
 2.9750	 5.1400
 2.9770	 5.0850
 2.9780	 5.1040
 2.9800	 4.9760
 2.9820	 5.0560
 2.9840	 5.1350
 2.9850	 5.1400
 2.9870	 5.1050
 2.9890	 5.1350
 2.9900	 5.1220
 2.9920	 5.1230
 2.9940	 5.0550
 2.9960	 5.1310
 2.9970	 5.1400
 2.9990	 5.1780
 3.0010	 5.1680
 3.0030	 5.1480
 3.0040	 5.1410
 3.0060	 5.2050
 3.0080	 5.1180
 3.0100	 5.0690
 3.0110	 5.0250
 3.0130	 5.1090
 3.0150	 4.9780
 3.0170	 5.0300
 3.0180	 5.0760
 3.0200	 5.1200
 3.0220	 5.1710
 3.0240	 5.2490
 3.0250	 5.1460
 3.0270	 5.2150
 3.0290	 5.1520
 3.0310	 5.1060
 3.0320	 5.0750
 3.0340	 5.0510
 3.0360	 5.0510
 3.0380	 5.2090
 3.0400	 5.2360
 3.0410	 5.2580
 3.0430	 5.1770
 3.0450	 5.1740
 3.0470	 5.1170
 3.0480	 5.1510
 3.0500	 5.1740
 3.0520	 5.1900
 3.0540	 5.1500
 3.0560	 5.1420
 3.0570	 5.1040
 3.0590	 5.1330
 3.0610	 5.0160
 3.0630	 5.0540
 3.0650	 5.0800
 3.0660	 5.1580
 3.0680	 5.1720
 3.0700	 5.1410
 3.0720	 5.0660
 3.0740	 5.1450
 3.0760	 5.1160
 3.0770	 5.1110
 3.0790	 5.0690
 3.0810	 5.0480
 3.0830	 5.0250
 3.0850	 5.1200
 3.0870	 5.0540
 3.0880	 5.0440
 3.0900	 5.0610
 3.0920	 5.1590
 3.0940	 5.1110
 3.0960	 5.0200
 3.0980	 5.0000
 3.0990	 5.1070
 3.1010	 5.1250
 3.1030	 5.2340
 3.1050	 5.1950
 3.1070	 5.1610
 3.1090	 5.0380
 3.1110	 5.0580
 3.1120	 5.1450
 3.1140	 5.1350
 3.1160	 4.9820
 3.1180	 5.0460
 3.1200	 5.1720
 3.1220	 5.2370
 3.1240	 5.0980
 3.1260	 5.0770
 3.1270	 5.1000
 3.1290	 5.0940
 3.1310	 5.0320
 3.1330	 5.1170
 3.1350	 5.1700
 3.1370	 5.1730
 3.1390	 5.0960
 3.1410	 5.1200
 3.1430	 5.0610
 3.1450	 5.0960
 3.1460	 5.0840
 3.1480	 5.1300
 3.1500	 5.1150
 3.1520	 5.1060
 3.1540	 5.0580
 3.1560	 5.0190
 3.1580	 4.9090
 3.1600	 4.9280
 3.1620	 4.9460
 3.1640	 5.0620
 3.1660	 4.9860
 3.1680	 4.9810
 3.1700	 5.0160
 3.1710	 5.1120
 3.1730	 5.0190
 3.1750	 5.0110
 3.1770	 5.0570
 3.1790	 5.0470
 3.1810	 5.0180
 3.1830	 5.0790
 3.1850	 5.0060
 3.1870	 5.0310
 3.1890	 5.0070
 3.1910	 4.9750
 3.1930	 4.8970
 3.1950	 5.0150
 3.1970	 5.0560
 3.1990	 5.0980
 3.2010	 5.1250
 3.2030	 5.1890
 3.2050	 5.0800
 3.2070	 5.0320
 3.2090	 5.0770
 3.2110	 5.0480
 3.2130	 4.9710
 3.2150	 5.0450
 3.2170	 5.0110
 3.2190	 5.0610
 3.2210	 4.9830
 3.2230	 4.8880
 3.2250	 4.8860
 3.2270	 4.9050
 3.2290	 4.8780
 3.2310	 4.9810
 3.2330	 5.0140
 3.2350	 5.1280
 3.2370	 5.0830
 3.2390	 5.0100
 3.2410	 4.9240
 3.2430	 4.9420
 3.2450	 4.9810
 3.2470	 5.0640
 3.2490	 5.0460
 3.2510	 5.0400
 3.2530	 4.9460
 3.2550	 4.9440
 3.2570	 4.9660
 3.2590	 4.9370
 3.2610	 4.8410
 3.2630	 4.9740
 3.2650	 4.9800
 3.2670	 4.8630
 3.2690	 4.7670
 3.2720	 4.8590
 3.2740	 4.8820
 3.2760	 4.8840
 3.2780	 4.9270
 3.2800	 4.9590
 3.2820	 4.8530
 3.2840	 4.8270
 3.2860	 4.7170
 3.2880	 4.6820
 3.2900	 4.6640
 3.2920	 4.7270
 3.2940	 4.7620
 3.2960	 4.7960
 3.2990	 4.7540
 3.3010	 4.7850
 3.3030	 4.7480
 3.3050	 4.7750
 3.3070	 4.6920
 3.3090	 4.6900
 3.3110	 4.6950
 3.3130	 4.6650
 3.3150	 4.6330
 3.3180	 4.7510
 3.3200	 4.7500
 3.3220	 4.6800
 3.3240	 4.6440
 3.3260	 4.6380
 3.3280	 4.5870
 3.3300	 4.6340
 3.3330	 4.5640
 3.3350	 4.5570
 3.3370	 4.5090
 3.3390	 4.5110
 3.3410	 4.5330
 3.3430	 4.4840
 3.3450	 4.3790
 3.3480	 4.4130
 3.3500	 4.4180
 3.3520	 4.3690
 3.3540	 4.3620
 3.3560	 4.4350
 3.3580	 4.4050
 3.3610	 4.3860
 3.3630	 4.3300
 3.3650	 4.2650
 3.3670	 4.2920
 3.3690	 4.4290
 3.3720	 4.3840
 3.3740	 4.3530
 3.3760	 4.3450
 3.3780	 4.4240
 3.3800	 4.4330
 3.3830	 4.4870
 3.3850	 4.5920
 3.3870	 4.6390
 3.3890	 4.4210
 3.3910	 4.3540
 3.3940	 4.3070
 3.3960	 4.3150
 3.3980	 4.3020
 3.4000	 4.3780
 3.4020	 4.4470
 3.4050	 4.6590
 3.4070	 4.9070
 3.4090	 5.1800
 3.4110	 5.4190
 3.4140	 5.8390
 3.4160	 6.3390
 3.4180	 7.0370
 3.4200	 7.9960
 3.4230	 9.1450
 3.4250	10.5340
 3.4270	11.9160
 3.4290	12.5370
 3.4320	11.9710
 3.4340	10.4590
 3.4360	 9.1300
 3.4390	 8.3020
 3.4410	 7.7760
 3.4430	 7.3170
 3.4450	 7.0760
 3.4480	 6.9450
 3.4500	 6.9420
 3.4520	 6.8350
 3.4550	 6.7890
 3.4570	 6.6430
 3.4590	 6.5270
 3.4620	 6.4680
 3.4640	 6.3840
 3.4660	 6.2460
 3.4680	 6.1930
 3.4710	 6.0940
 3.4730	 5.9420
 3.4750	 5.7760
 3.4780	 5.7340
 3.4800	 5.6830
 3.4820	 5.6460
 3.4850	 5.5660
 3.4870	 5.5120
 3.4890	 5.4520
 3.4920	 5.4780
 3.4940	 5.4870
 3.4970	 5.5700
 3.4990	 5.6640
 3.5010	 5.9300
 3.5040	 6.4620
 3.5060	 7.6860
 3.5080	 9.5420
 3.5110	11.1250
 3.5130	10.8840
 3.5160	 9.5360
 3.5180	 8.4020
 3.5200	 7.7040
 3.5230	 7.1990
 3.5250	 6.9340
 3.5270	 6.6740
 3.5300	 6.5490
 3.5320	 6.4450
 3.5350	 6.3500
 3.5370	 6.2940
 3.5400	 6.2990
 3.5420	 6.2370
 3.5440	 6.1800
 3.5470	 6.0280
 3.5490	 6.0250
 3.5520	 5.9790
 3.5540	 5.9990
 3.5570	 5.9510
 3.5590	 5.9510
 3.5610	 5.9470
 3.5640	 5.9640
 3.5660	 5.8870
 3.5690	 5.8280
 3.5710	 5.7890
 3.5740	 5.8240
 3.5760	 5.7290
 3.5790	 5.7640
 3.5810	 5.7880
 3.5840	 5.7890
 3.5860	 5.7720
 3.5890	 5.7940
 3.5910	 5.7320
 3.5930	 5.6720
 3.5960	 5.6330
 3.5980	 5.7080
 3.6010	 5.7390
 3.6030	 5.7740
 3.6060	 5.7350
 3.6080	 5.6910
 3.6110	 5.5750
 3.6140	 5.5520
 3.6160	 5.5230
 3.6190	 5.5640
 3.6210	 5.5670
 3.6240	 5.5930
 3.6260	 5.5480
 3.6290	 5.5520
 3.6310	 5.5330
 3.6340	 5.5020
 3.6360	 5.4460
 3.6390	 5.5340
 3.6410	 5.5980
 3.6440	 5.6170
 3.6470	 5.5170
 3.6490	 5.4790
 3.6520	 5.4750
 3.6540	 5.5220
 3.6570	 5.5420
 3.6590	 5.5390
 3.6620	 5.5490
 3.6650	 5.5950
 3.6670	 5.5680
 3.6700	 5.4740
 3.6720	 5.4260
 3.6750	 5.4060
 3.6780	 5.3770
 3.6800	 5.3880
 3.6830	 5.3510
 3.6850	 5.4650
 3.6880	 5.5050
 3.6910	 5.4730
 3.6930	 5.4550
 3.6960	 5.4610
 3.6990	 5.4060
 3.7010	 5.4020
 3.7040	 5.4170
 3.7060	 5.4870
 3.7090	 5.4750
 3.7120	 5.4450
 3.7140	 5.4710
 3.7170	 5.4910
 3.7200	 5.4150
 3.7220	 5.4740
 3.7250	 5.4530
 3.7280	 5.3990
 3.7300	 5.3780
 3.7330	 5.4530
 3.7360	 5.4400
 3.7390	 5.4300
 3.7410	 5.4310
 3.7440	 5.4230
 3.7470	 5.3360
 3.7490	 5.3320
 3.7520	 5.3240
 3.7550	 5.3810
 3.7580	 5.3870
 3.7600	 5.4160
 3.7630	 5.3920
 3.7660	 5.3770
 3.7680	 5.3720
 3.7710	 5.3460
 3.7740	 5.3170
 3.7770	 5.3530
 3.7790	 5.3590
 3.7820	 5.3890
 3.7850	 5.3340
 3.7880	 5.2900
 3.7900	 5.2970
 3.7930	 5.2880
 3.7960	 5.2700
 3.7990	 5.3700
 3.8020	 5.3880
 3.8040	 5.3700
 3.8070	 5.2930
 3.8100	 5.2920
 3.8130	 5.3100
 3.8160	 5.4020
 3.8180	 5.4490
 3.8210	 5.4270
 3.8240	 5.4020
 3.8270	 5.3850
 3.8300	 5.3750
 3.8330	 5.4230
 3.8350	 5.3860
 3.8380	 5.3710
 3.8410	 5.3320
 3.8440	 5.3400
 3.8470	 5.3140
 3.8500	 5.3140
 3.8520	 5.2950
 3.8550	 5.3370
 3.8580	 5.3950
 3.8610	 5.4310
 3.8640	 5.4000
 3.8670	 5.3730
 3.8700	 5.3390
 3.8730	 5.3700
 3.8750	 5.3620
 3.8780	 5.3620
 3.8810	 5.3330
 3.8840	 5.3180
 3.8870	 5.2920
 3.8900	 5.2890
 3.8930	 5.2930
 3.8960	 5.2960
 3.8990	 5.2800
 3.9020	 5.3100
 3.9050	 5.3020
 3.9080	 5.2550
 3.9110	 5.2290
 3.9140	 5.3030
 3.9160	 5.2990
 3.9190	 5.3080
 3.9220	 5.3210
 3.9250	 5.3430
 3.9280	 5.3210
 3.9310	 5.3270
 3.9340	 5.2720
 3.9370	 5.2400
 3.9400	 5.2570
 3.9430	 5.2690
 3.9460	 5.2650
 3.9490	 5.2950
 3.9520	 5.2900
 3.9550	 5.2990
 3.9580	 5.3180
 3.9610	 5.3240
 3.9640	 5.3490
 3.9670	 5.3800
 3.9700	 5.3140
 3.9730	 5.2930
 3.9770	 5.2990
 3.9800	 5.3380
 3.9830	 5.2820
 3.9860	 5.2540
 3.9890	 5.2550
 3.9920	 5.2430
 3.9950	 5.2150
 3.9980	 5.2950
 4.0010	 5.3340
 4.0040	 5.3000
 4.0070	 5.2710
 4.0100	 5.3150
 4.0130	 5.3240
 4.0170	 5.3240
 4.0200	 5.3330
 4.0230	 5.3770
 4.0260	 5.3230
 4.0290	 5.2810
 4.0320	 5.3210
 4.0350	 5.3860
 4.0380	 5.2990
 4.0420	 5.2620
 4.0450	 5.2910
 4.0480	 5.2810
 4.0510	 5.2600
 4.0540	 5.2550
 4.0570	 5.3080
 4.0610	 5.3650
 4.0640	 5.3440
 4.0670	 5.2830
 4.0700	 5.2330
 4.0730	 5.2890
 4.0770	 5.3180
 4.0800	 5.2960
 4.0830	 5.2860
 4.0860	 5.2820
 4.0890	 5.2080
 4.0930	 5.2480
 4.0960	 5.2440
 4.0990	 5.2410
 4.1020	 5.1830
 4.1060	 5.2080
 4.1090	 5.2380
 4.1120	 5.2780
 4.1150	 5.3030
 4.1190	 5.2840
 4.1220	 5.2450
 4.1250	 5.2650
 4.1280	 5.3060
 4.1320	 5.2770
 4.1350	 5.2340
 4.1380	 5.2940
 4.1420	 5.2950
 4.1450	 5.3000
 4.1480	 5.2520
 4.1520	 5.3140
 4.1550	 5.3290
 4.1580	 5.3330
 4.1620	 5.3080
 4.1650	 5.3200
 4.1680	 5.2340
 4.1720	 5.1890
 4.1750	 5.2670
 4.1780	 5.2980
 4.1820	 5.2450
 4.1850	 5.2530
 4.1890	 5.3230
 4.1920	 5.3140
 4.1950	 5.2480
 4.1990	 5.3230
 4.2020	 5.3790
 4.2060	 5.4180
 4.2090	 5.4200
 4.2120	 5.4230
 4.2160	 5.4410
 4.2190	 5.4660
 4.2230	 5.4500
 4.2260	 5.4950
 4.2300	 5.5700
 4.2330	 5.4830
 4.2360	 5.3100
 4.2400	 5.4280
 4.2430	 5.4910
 4.2470	 5.3640
 4.2500	 5.3200
 4.2540	 5.4160
 4.2570	 5.4220
 4.2610	 5.4620
 4.2640	 5.5030
 4.2680	 5.4410
 4.2710	 5.3980
 4.2750	 5.4930
 4.2780	 5.4940
 4.2820	 5.4140
 4.2850	 5.3530
 4.2890	 5.4250
 4.2930	 5.4500
 4.2960	 5.4500
 4.3000	 5.3650
 4.3030	 5.3050
 4.3070	 5.3990
 4.3100	 5.4490
 4.3140	 5.4290
 4.3180	 5.3900
 4.3210	 5.2930
 4.3250	 5.2680
 4.3280	 5.2720
 4.3320	 5.2980
 4.3360	 5.2710
 4.3390	 5.3090
 4.3430	 5.2600
 4.3470	 5.2070
 4.3500	 5.1940
 4.3540	 5.2090
 4.3570	 5.1960
 4.3610	 5.2000
 4.3650	 5.1910
 4.3680	 5.2090
 4.3720	 5.2470
 4.3760	 5.2480
 4.3800	 5.2250
 4.3830	 5.2450
 4.3870	 5.2580
 4.3910	 5.2430
 4.3940	 5.2250
 4.3980	 5.2590
 4.4020	 5.2320
 4.4060	 5.2190
 4.4090	 5.2490
 4.4130	 5.2570
 4.4170	 5.2450
 4.4210	 5.2220
 4.4240	 5.1810
 4.4280	 5.1720
 4.4320	 5.1960
 4.4360	 5.2380
 4.4400	 5.2350
 4.4430	 5.1930
 4.4470	 5.1760
 4.4510	 5.2720
 4.4550	 5.3240
 4.4590	 5.2600
 4.4620	 5.1820
 4.4660	 5.2210
 4.4700	 5.2150
 4.4740	 5.2210
 4.4780	 5.2630
 4.4820	 5.2630
 4.4860	 5.2070
 4.4900	 5.1360
 4.4930	 5.1710
 4.4970	 5.2340
 4.5010	 5.1730
 4.5050	 5.1460
 4.5090	 5.1820
 4.5130	 5.1930
 4.5170	 5.1790
 4.5210	 5.1810
 4.5250	 5.1910
 4.5290	 5.2080
 4.5330	 5.1800
 4.5370	 5.1650
 4.5410	 5.2370
 4.5450	 5.2710
 4.5490	 5.2350
 4.5530	 5.2010
 4.5570	 5.1540
 4.5610	 5.1500
 4.5650	 5.1350
 4.5690	 5.1040
 4.5730	 5.1020
 4.5770	 5.1080
 4.5810	 5.1570
 4.5850	 5.1400
 4.5890	 5.1230
 4.5930	 5.1340
 4.5970	 5.2010
 4.6010	 5.1970
 4.6050	 5.1200
 4.6090	 5.1380
 4.6130	 5.1760
 4.6170	 5.2040
 4.6220	 5.2150
 4.6260	 5.1170
 4.6300	 5.0630
 4.6340	 5.1540
 4.6380	 5.2310
 4.6420	 5.1980
 4.6460	 5.1600
 4.6510	 5.1840
 4.6550	 5.1240
 4.6590	 5.0860
 4.6630	 5.1510
 4.6670	 5.1300
 4.6720	 5.1040
 4.6760	 5.1390
 4.6800	 5.1950
 4.6840	 5.2470
 4.6880	 5.1830
 4.6930	 5.1200
 4.6970	 5.1560
 4.7010	 5.1340
 4.7050	 5.1140
 4.7100	 5.1110
 4.7140	 5.1270
 4.7180	 5.2080
 4.7230	 5.2500
 4.7270	 5.1660
 4.7310	 5.1060
 4.7360	 5.1630
 4.7400	 5.2110
 4.7440	 5.1570
 4.7490	 5.1340
 4.7530	 5.1340
 4.7570	 5.0800
 4.7620	 5.0760
 4.7660	 5.1440
 4.7700	 5.1730
 4.7750	 5.2120
 4.7790	 5.1940
 4.7840	 5.1470
 4.7880	 5.1110
 4.7920	 5.1130
 4.7970	 5.0710
 4.8010	 5.0780
 4.8060	 5.0850
 4.8100	 5.0300
 4.8150	 5.0470
 4.8190	 5.1210
 4.8240	 5.1570
 4.8280	 5.1410
 4.8330	 5.1090
 4.8370	 5.1150
 4.8420	 5.1060
 4.8460	 5.0650
 4.8510	 5.0760
 4.8550	 5.1270
 4.8600	 5.1420
 4.8640	 5.1720
 4.8690	 5.1430
 4.8730	 5.1160
 4.8780	 5.0700
 4.8830	 5.0580
 4.8870	 5.0670
 4.8920	 5.1060
 4.8960	 5.1030
 4.9010	 5.0600
 4.9060	 5.0860
 4.9100	 5.0900
 4.9150	 5.0570
 4.9200	 5.0660
 4.9240	 5.0740
 4.9290	 5.0800
 4.9340	 5.1380
 4.9380	 5.2080
 4.9430	 5.1450
 4.9480	 5.1180
 4.9530	 5.1220
 4.9570	 5.1190
 4.9620	 5.0850
 4.9670	 5.0750
 4.9720	 5.0830
 4.9760	 5.1150
 4.9810	 5.1290
 4.9860	 5.1390
 4.9910	 5.1240
 4.9960	 5.1150
 5.0000	 5.0930
 5.0050	 5.0920
 5.0100	 5.0220
 5.0150	 4.9770
 5.0200	 5.0170
 5.0250	 5.0780
 5.0290	 5.0660
 5.0340	 5.0740
 5.0390	 5.0730
 5.0440	 5.1370
 5.0490	 5.0920
 5.0540	 5.0830
 5.0590	 5.0610
 5.0640	 5.1130
 5.0690	 5.1770
 5.0740	 5.1300
 5.0790	 4.9980
 5.0840	 5.0260
 5.0890	 5.0580
 5.0940	 5.1050
 5.0990	 5.1250
 5.1040	 5.1630
 5.1090	 5.1130
 5.1140	 5.0410
 5.1190	 5.0240
 5.1240	 5.0790
 5.1290	 5.0800
 5.1340	 5.0890
 5.1390	 5.0440
 5.1440	 5.0440
 5.1490	 5.0460
 5.1540	 5.0650
 5.1600	 5.0110
 5.1650	 5.0360
 5.1700	 5.0520
 5.1750	 5.0810
 5.1800	 5.1140
 5.1850	 5.0990
 5.1910	 5.0770
 5.1960	 5.1080
 5.2010	 5.0760
 5.2060	 5.0760
 5.2110	 5.0360
 5.2170	 5.0600
 5.2220	 5.0520
 5.2270	 4.9820
 5.2320	 4.8930
 5.2380	 4.9350
 5.2430	 5.0480
 5.2480	 5.0760
 5.2540	 4.9920
 5.2590	 4.9910
 5.2640	 4.9820
 5.2700	 5.0110
 5.2750	 4.9760
 5.2800	 5.0050
 5.2860	 4.9970
 5.2910	 5.0130
 5.2970	 4.9960
 5.3020	 4.9330
 5.3070	 4.8980
 5.3130	 4.9920
 5.3180	 5.0410
 5.3240	 4.9960
 5.3290	 4.8860
 5.3350	 4.8800
 5.3400	 4.9080
 5.3460	 4.9600
 5.3510	 4.9770
 5.3570	 4.9620
 5.3620	 4.9550
 5.3680	 5.0130
 5.3730	 5.0250
 5.3790	 5.0540
 5.3850	 5.0160
 5.3900	 4.9600
 5.3960	 4.8780
 5.4010	 4.8970
 5.4070	 4.9220
 5.4130	 4.9750
 5.4180	 4.9230
 5.4240	 4.8990
 5.4300	 4.9030
 5.4350	 4.9460
