Name: Prunus serotina
Type: Vegetation
Class: Tree
Genus: Prunus
Species: serotina
Sample No.: PRSE-1-63
Owner: UCSB
Wavelength Range: VSWIR
Origin: USA; Massachusetts; Harvard Forest
Collection Date: 7/8/2013
Description: Samples were collected as part of NSF Macrosystem Biology proposal titled: Collaborative Research: Thermal controls on ecosystem metabolism and function: scaling from leaves to canopies to regions. Samples were collected and overnighted to JPL facilities for processing. The same leaves were processed in the Nicolet and then measured using the ASD.
Measurement: Bidirectional reflectance
First Column: X
Second Column: Y
X Units: Wavelength (micrometers)
Y Units: Reflectance (percentage)
First X Value: 0.35
Last X Value: 2.5
Number of X Values: 2151
Additional Information: vegetation.tree.prunus.serotina.vswir.prse-1-63.ucsb.asd.ancillary.txt

 0.3500	 6.0120
 0.3510	 5.4620
 0.3520	 5.1980
 0.3530	 5.0890
 0.3540	 4.9340
 0.3550	 5.2860
 0.3560	 5.5080
 0.3570	 5.3570
 0.3580	 4.9060
 0.3590	 4.8820
 0.3600	 4.9460
 0.3610	 4.9580
 0.3620	 5.2340
 0.3630	 5.2050
 0.3640	 4.9840
 0.3650	 4.8460
 0.3660	 4.9730
 0.3670	 5.0740
 0.3680	 5.0950
 0.3690	 5.1430
 0.3700	 5.0880
 0.3710	 5.0370
 0.3720	 5.0500
 0.3730	 5.0600
 0.3740	 5.0280
 0.3750	 4.9770
 0.3760	 4.9450
 0.3770	 4.9480
 0.3780	 4.8880
 0.3790	 4.8240
 0.3800	 4.9270
 0.3810	 4.9470
 0.3820	 4.9420
 0.3830	 4.9570
 0.3840	 4.8920
 0.3850	 4.8380
 0.3860	 4.8410
 0.3870	 4.9020
 0.3880	 4.9140
 0.3890	 4.9610
 0.3900	 5.0040
 0.3910	 4.8740
 0.3920	 4.8780
 0.3930	 4.9180
 0.3940	 4.8790
 0.3950	 4.8180
 0.3960	 4.8620
 0.3970	 4.9260
 0.3980	 4.8590
 0.3990	 4.8680
 0.4000	 4.8940
 0.4010	 4.9050
 0.4020	 4.9260
 0.4030	 4.8840
 0.4040	 4.8650
 0.4050	 4.9310
 0.4060	 4.9560
 0.4070	 4.9320
 0.4080	 4.8850
 0.4090	 4.8610
 0.4100	 4.9170
 0.4110	 4.9590
 0.4120	 4.9420
 0.4130	 4.9290
 0.4140	 4.9350
 0.4150	 4.9540
 0.4160	 4.9710
 0.4170	 4.9840
 0.4180	 4.9800
 0.4190	 4.9730
 0.4200	 4.9990
 0.4210	 4.9960
 0.4220	 4.9920
 0.4230	 5.0110
 0.4240	 5.0120
 0.4250	 4.9980
 0.4260	 4.9890
 0.4270	 5.0110
 0.4280	 5.0410
 0.4290	 5.0520
 0.4300	 5.0370
 0.4310	 5.0250
 0.4320	 5.0620
 0.4330	 5.0830
 0.4340	 5.0450
 0.4350	 5.0870
 0.4360	 5.1230
 0.4370	 5.1200
 0.4380	 5.0960
 0.4390	 5.0770
 0.4400	 5.0630
 0.4410	 5.0500
 0.4420	 5.0490
 0.4430	 5.0400
 0.4440	 5.0370
 0.4450	 5.0570
 0.4460	 5.0800
 0.4470	 5.0970
 0.4480	 5.1090
 0.4490	 5.1190
 0.4500	 5.1070
 0.4510	 5.1080
 0.4520	 5.1460
 0.4530	 5.1590
 0.4540	 5.1650
 0.4550	 5.1700
 0.4560	 5.1740
 0.4570	 5.1750
 0.4580	 5.1770
 0.4590	 5.1830
 0.4600	 5.1910
 0.4610	 5.1940
 0.4620	 5.1900
 0.4630	 5.1820
 0.4640	 5.1820
 0.4650	 5.1890
 0.4660	 5.1990
 0.4670	 5.2030
 0.4680	 5.2020
 0.4690	 5.2100
 0.4700	 5.2250
 0.4710	 5.2060
 0.4720	 5.1960
 0.4730	 5.2070
 0.4740	 5.2260
 0.4750	 5.2200
 0.4760	 5.2190
 0.4770	 5.2330
 0.4780	 5.2250
 0.4790	 5.2250
 0.4800	 5.2350
 0.4810	 5.2460
 0.4820	 5.2640
 0.4830	 5.2740
 0.4840	 5.2760
 0.4850	 5.2780
 0.4860	 5.2910
 0.4870	 5.3040
 0.4880	 5.3130
 0.4890	 5.3530
 0.4900	 5.3810
 0.4910	 5.4010
 0.4920	 5.4370
 0.4930	 5.4630
 0.4940	 5.4860
 0.4950	 5.5190
 0.4960	 5.5750
 0.4970	 5.6300
 0.4980	 5.6840
 0.4990	 5.7490
 0.5000	 5.8330
 0.5010	 5.9160
 0.5020	 6.0020
 0.5030	 6.1110
 0.5040	 6.2380
 0.5050	 6.3750
 0.5060	 6.5220
 0.5070	 6.6970
 0.5080	 6.8880
 0.5090	 7.0980
 0.5100	 7.3340
 0.5110	 7.5850
 0.5120	 7.8470
 0.5130	 8.1270
 0.5140	 8.4370
 0.5150	 8.7630
 0.5160	 9.1050
 0.5170	 9.4660
 0.5180	 9.8440
 0.5190	10.2300
 0.5200	10.6170
 0.5210	11.0010
 0.5220	11.3850
 0.5230	11.7650
 0.5240	12.1330
 0.5250	12.4750
 0.5260	12.8020
 0.5270	13.1150
 0.5280	13.4070
 0.5290	13.6630
 0.5300	13.8990
 0.5310	14.1180
 0.5320	14.3090
 0.5330	14.4790
 0.5340	14.6340
 0.5350	14.7740
 0.5360	14.8810
 0.5370	14.9800
 0.5380	15.0760
 0.5390	15.1600
 0.5400	15.2340
 0.5410	15.3080
 0.5420	15.3860
 0.5430	15.4640
 0.5440	15.5400
 0.5450	15.6040
 0.5460	15.6470
 0.5470	15.6640
 0.5480	15.6640
 0.5490	15.6610
 0.5500	15.6740
 0.5510	15.6860
 0.5520	15.6870
 0.5530	15.6700
 0.5540	15.6330
 0.5550	15.5800
 0.5560	15.5090
 0.5570	15.4160
 0.5580	15.3170
 0.5590	15.2040
 0.5600	15.0710
 0.5610	14.9270
 0.5620	14.7680
 0.5630	14.5930
 0.5640	14.4020
 0.5650	14.2030
 0.5660	13.9940
 0.5670	13.7780
 0.5680	13.5580
 0.5690	13.3280
 0.5700	13.0940
 0.5710	12.8640
 0.5720	12.6460
 0.5730	12.4380
 0.5740	12.2360
 0.5750	12.0400
 0.5760	11.8580
 0.5770	11.6910
 0.5780	11.5370
 0.5790	11.3900
 0.5800	11.2480
 0.5810	11.1110
 0.5820	10.9820
 0.5830	10.8620
 0.5840	10.7520
 0.5850	10.6520
 0.5860	10.5600
 0.5870	10.4750
 0.5880	10.3950
 0.5890	10.3160
 0.5900	10.2360
 0.5910	10.1640
 0.5920	10.1000
 0.5930	10.0370
 0.5940	 9.9850
 0.5950	 9.9360
 0.5960	 9.8890
 0.5970	 9.8530
 0.5980	 9.8140
 0.5990	 9.7710
 0.6000	 9.7220
 0.6010	 9.6720
 0.6020	 9.6140
 0.6030	 9.5470
 0.6040	 9.4710
 0.6050	 9.3920
 0.6060	 9.3080
 0.6070	 9.2190
 0.6080	 9.1270
 0.6090	 9.0330
 0.6100	 8.9450
 0.6110	 8.8690
 0.6120	 8.7620
 0.6130	 8.6450
 0.6140	 8.5330
 0.6150	 8.4180
 0.6160	 8.3180
 0.6170	 8.2300
 0.6180	 8.1460
 0.6190	 8.0800
 0.6200	 8.0130
 0.6210	 7.9470
 0.6220	 7.8990
 0.6230	 7.8520
 0.6240	 7.8150
 0.6250	 7.7870
 0.6260	 7.7580
 0.6270	 7.7400
 0.6280	 7.7270
 0.6290	 7.7120
 0.6300	 7.6990
 0.6310	 7.6820
 0.6320	 7.6600
 0.6330	 7.6360
 0.6340	 7.6010
 0.6350	 7.5550
 0.6360	 7.4960
 0.6370	 7.4210
 0.6380	 7.3360
 0.6390	 7.2430
 0.6400	 7.1420
 0.6410	 7.0400
 0.6420	 6.9330
 0.6430	 6.8230
 0.6440	 6.7140
 0.6450	 6.6040
 0.6460	 6.5000
 0.6470	 6.4100
 0.6480	 6.3290
 0.6490	 6.2530
 0.6500	 6.1850
 0.6510	 6.1370
 0.6520	 6.0900
 0.6530	 6.0430
 0.6540	 5.9990
 0.6550	 5.9540
 0.6560	 5.9090
 0.6570	 5.8610
 0.6580	 5.8060
 0.6590	 5.7480
 0.6600	 5.6920
 0.6610	 5.6390
 0.6620	 5.5870
 0.6630	 5.5390
 0.6640	 5.4980
 0.6650	 5.4680
 0.6660	 5.4460
 0.6670	 5.4270
 0.6680	 5.4140
 0.6690	 5.4100
 0.6700	 5.4120
 0.6710	 5.4190
 0.6720	 5.4300
 0.6730	 5.4490
 0.6740	 5.4730
 0.6750	 5.5020
 0.6760	 5.5390
 0.6770	 5.5730
 0.6780	 5.6120
 0.6790	 5.6560
 0.6800	 5.7040
 0.6810	 5.7640
 0.6820	 5.8290
 0.6830	 5.8980
 0.6840	 5.9880
 0.6850	 6.0910
 0.6860	 6.2120
 0.6870	 6.3610
 0.6880	 6.5580
 0.6890	 6.8080
 0.6900	 7.1200
 0.6910	 7.5050
 0.6920	 7.9820
 0.6930	 8.5520
 0.6940	 9.2130
 0.6950	 9.9570
 0.6960	10.7800
 0.6970	11.6750
 0.6980	12.6310
 0.6990	13.6300
 0.7000	14.6570
 0.7010	15.6990
 0.7020	16.7480
 0.7030	17.7830
 0.7040	18.7990
 0.7050	19.7940
 0.7060	20.7600
 0.7070	21.6990
 0.7080	22.6060
 0.7090	23.4790
 0.7100	24.3190
 0.7110	25.1380
 0.7120	25.9340
 0.7130	26.6920
 0.7140	27.4320
 0.7150	28.1460
 0.7160	28.8270
 0.7170	29.4860
 0.7180	30.1210
 0.7190	30.7320
 0.7200	31.3110
 0.7210	31.8630
 0.7220	32.3930
 0.7230	32.9040
 0.7240	33.3900
 0.7250	33.8480
 0.7260	34.2790
 0.7270	34.6860
 0.7280	35.0650
 0.7290	35.4340
 0.7300	35.7840
 0.7310	36.0990
 0.7320	36.3920
 0.7330	36.6690
 0.7340	36.9350
 0.7350	37.1910
 0.7360	37.4090
 0.7370	37.6090
 0.7380	37.8060
 0.7390	37.9800
 0.7400	38.1500
 0.7410	38.3120
 0.7420	38.4510
 0.7430	38.5780
 0.7440	38.6930
 0.7450	38.7960
 0.7460	38.8830
 0.7470	38.9700
 0.7480	39.0420
 0.7490	39.0960
 0.7500	39.1610
 0.7510	39.2120
 0.7520	39.2490
 0.7530	39.2850
 0.7540	39.3230
 0.7550	39.3470
 0.7560	39.3650
 0.7570	39.3980
 0.7580	39.3970
 0.7590	39.4020
 0.7600	39.4310
 0.7610	39.4380
 0.7620	39.4460
 0.7630	39.4490
 0.7640	39.4410
 0.7650	39.4500
 0.7660	39.4570
 0.7670	39.4520
 0.7680	39.4390
 0.7690	39.4440
 0.7700	39.4470
 0.7710	39.4350
 0.7720	39.4250
 0.7730	39.4270
 0.7740	39.4290
 0.7750	39.4210
 0.7760	39.4170
 0.7770	39.4120
 0.7780	39.4050
 0.7790	39.4010
 0.7800	39.3980
 0.7810	39.3960
 0.7820	39.3960
 0.7830	39.3950
 0.7840	39.3880
 0.7850	39.3880
 0.7860	39.3960
 0.7870	39.3850
 0.7880	39.3840
 0.7890	39.3900
 0.7900	39.3890
 0.7910	39.3670
 0.7920	39.3620
 0.7930	39.3740
 0.7940	39.3750
 0.7950	39.3840
 0.7960	39.3760
 0.7970	39.3560
 0.7980	39.3630
 0.7990	39.3620
 0.8000	39.3540
 0.8010	39.3490
 0.8020	39.3320
 0.8030	39.3200
 0.8040	39.3180
 0.8050	39.3220
 0.8060	39.3110
 0.8070	39.3050
 0.8080	39.3060
 0.8090	39.3020
 0.8100	39.2920
 0.8110	39.2830
 0.8120	39.2770
 0.8130	39.2620
 0.8140	39.2590
 0.8150	39.2590
 0.8160	39.2500
 0.8170	39.2280
 0.8180	39.2260
 0.8190	39.2300
 0.8200	39.2110
 0.8210	39.1910
 0.8220	39.1820
 0.8230	39.1770
 0.8240	39.1560
 0.8250	39.1560
 0.8260	39.1580
 0.8270	39.1490
 0.8280	39.1360
 0.8290	39.1240
 0.8300	39.1150
 0.8310	39.1100
 0.8320	39.1140
 0.8330	39.1040
 0.8340	39.0860
 0.8350	39.0770
 0.8360	39.0750
 0.8370	39.0660
 0.8380	39.0510
 0.8390	39.0410
 0.8400	39.0320
 0.8410	39.0390
 0.8420	39.0550
 0.8430	39.0410
 0.8440	39.0160
 0.8450	39.0010
 0.8460	39.0080
 0.8470	39.0230
 0.8480	39.0210
 0.8490	39.0050
 0.8500	38.9890
 0.8510	38.9910
 0.8520	38.9930
 0.8530	38.9840
 0.8540	38.9670
 0.8550	38.9850
 0.8560	38.9950
 0.8570	38.9890
 0.8580	38.9910
 0.8590	38.9820
 0.8600	38.9740
 0.8610	38.9730
 0.8620	38.9720
 0.8630	38.9790
 0.8640	38.9780
 0.8650	38.9630
 0.8660	38.9680
 0.8670	38.9610
 0.8680	38.9530
 0.8690	38.9620
 0.8700	38.9690
 0.8710	38.9640
 0.8720	38.9530
 0.8730	38.9530
 0.8740	38.9630
 0.8750	38.9750
 0.8760	38.9830
 0.8770	38.9780
 0.8780	38.9660
 0.8790	38.9650
 0.8800	38.9740
 0.8810	38.9590
 0.8820	38.9490
 0.8830	38.9520
 0.8840	38.9630
 0.8850	38.9650
 0.8860	38.9640
 0.8870	38.9610
 0.8880	38.9600
 0.8890	38.9750
 0.8900	38.9760
 0.8910	38.9670
 0.8920	38.9630
 0.8930	38.9610
 0.8940	38.9720
 0.8950	38.9840
 0.8960	38.9740
 0.8970	38.9720
 0.8980	38.9730
 0.8990	38.9720
 0.9000	38.9720
 0.9010	38.9720
 0.9020	38.9700
 0.9030	38.9680
 0.9040	38.9650
 0.9050	38.9780
 0.9060	38.9840
 0.9070	38.9710
 0.9080	38.9550
 0.9090	38.9790
 0.9100	39.0090
 0.9110	39.0020
 0.9120	38.9620
 0.9130	38.9570
 0.9140	38.9770
 0.9150	38.9870
 0.9160	38.9670
 0.9170	38.9530
 0.9180	38.9560
 0.9190	38.9670
 0.9200	38.9530
 0.9210	38.9530
 0.9220	38.9670
 0.9230	38.9710
 0.9240	38.9600
 0.9250	38.9520
 0.9260	38.9520
 0.9270	38.9440
 0.9280	38.9180
 0.9290	38.9070
 0.9300	38.9150
 0.9310	38.9090
 0.9320	38.8860
 0.9330	38.8790
 0.9340	38.8850
 0.9350	38.8610
 0.9360	38.8420
 0.9370	38.8310
 0.9380	38.8210
 0.9390	38.8000
 0.9400	38.7950
 0.9410	38.7800
 0.9420	38.7550
 0.9430	38.7850
 0.9440	38.7460
 0.9450	38.7010
 0.9460	38.7000
 0.9470	38.6770
 0.9480	38.6650
 0.9490	38.6550
 0.9500	38.6290
 0.9510	38.5800
 0.9520	38.5310
 0.9530	38.4950
 0.9540	38.4810
 0.9550	38.4900
 0.9560	38.4590
 0.9570	38.4110
 0.9580	38.3850
 0.9590	38.3580
 0.9600	38.3340
 0.9610	38.3070
 0.9620	38.2760
 0.9630	38.2810
 0.9640	38.2760
 0.9650	38.2500
 0.9660	38.2190
 0.9670	38.2200
 0.9680	38.2090
 0.9690	38.1990
 0.9700	38.2110
 0.9710	38.2030
 0.9720	38.1880
 0.9730	38.1790
 0.9740	38.1820
 0.9750	38.1520
 0.9760	38.1520
 0.9770	38.1700
 0.9780	38.1660
 0.9790	38.1750
 0.9800	38.1480
 0.9810	38.1280
 0.9820	38.1730
 0.9830	38.1610
 0.9840	38.1490
 0.9850	38.1570
 0.9860	38.1760
 0.9870	38.1750
 0.9880	38.1580
 0.9890	38.1510
 0.9900	38.1790
 0.9910	38.1990
 0.9920	38.2300
 0.9930	38.2600
 0.9940	38.2910
 0.9950	38.3220
 0.9960	38.3520
 0.9970	38.3830
 0.9980	38.4140
 0.9990	38.4440
 1.0000	38.4750
 1.0010	38.5060
 1.0020	38.5360
 1.0030	38.5670
 1.0040	38.5980
 1.0050	38.6280
 1.0060	38.6590
 1.0070	38.6900
 1.0080	38.7200
 1.0090	38.7510
 1.0100	38.7510
 1.0110	38.7440
 1.0120	38.7460
 1.0130	38.7570
 1.0140	38.7640
 1.0150	38.7750
 1.0160	38.7830
 1.0170	38.7960
 1.0180	38.7990
 1.0190	38.7880
 1.0200	38.7920
 1.0210	38.7930
 1.0220	38.7930
 1.0230	38.7970
 1.0240	38.8100
 1.0250	38.8150
 1.0260	38.8180
 1.0270	38.8190
 1.0280	38.8190
 1.0290	38.8230
 1.0300	38.8260
 1.0310	38.8300
 1.0320	38.8420
 1.0330	38.8470
 1.0340	38.8530
 1.0350	38.8540
 1.0360	38.8560
 1.0370	38.8600
 1.0380	38.8640
 1.0390	38.8680
 1.0400	38.8740
 1.0410	38.8840
 1.0420	38.8840
 1.0430	38.8750
 1.0440	38.8730
 1.0450	38.8680
 1.0460	38.8670
 1.0470	38.8760
 1.0480	38.8810
 1.0490	38.8830
 1.0500	38.8850
 1.0510	38.8880
 1.0520	38.8880
 1.0530	38.8890
 1.0540	38.8870
 1.0550	38.8880
 1.0560	38.8900
 1.0570	38.8910
 1.0580	38.8940
 1.0590	38.8940
 1.0600	38.8950
 1.0610	38.8920
 1.0620	38.8830
 1.0630	38.8790
 1.0640	38.8740
 1.0650	38.8700
 1.0660	38.8660
 1.0670	38.8630
 1.0680	38.8610
 1.0690	38.8550
 1.0700	38.8560
 1.0710	38.8630
 1.0720	38.8620
 1.0730	38.8580
 1.0740	38.8570
 1.0750	38.8550
 1.0760	38.8510
 1.0770	38.8520
 1.0780	38.8470
 1.0790	38.8330
 1.0800	38.8250
 1.0810	38.8200
 1.0820	38.8130
 1.0830	38.8030
 1.0840	38.7970
 1.0850	38.7920
 1.0860	38.7840
 1.0870	38.7740
 1.0880	38.7650
 1.0890	38.7590
 1.0900	38.7520
 1.0910	38.7450
 1.0920	38.7450
 1.0930	38.7380
 1.0940	38.7220
 1.0950	38.7130
 1.0960	38.7040
 1.0970	38.6970
 1.0980	38.6970
 1.0990	38.6910
 1.1000	38.6860
 1.1010	38.6780
 1.1020	38.6680
 1.1030	38.6510
 1.1040	38.6360
 1.1050	38.6260
 1.1060	38.6170
 1.1070	38.6090
 1.1080	38.6000
 1.1090	38.5920
 1.1100	38.5820
 1.1110	38.5730
 1.1120	38.5620
 1.1130	38.5530
 1.1140	38.5420
 1.1150	38.5300
 1.1160	38.5150
 1.1170	38.4970
 1.1180	38.4830
 1.1190	38.4690
 1.1200	38.4560
 1.1210	38.4430
 1.1220	38.4320
 1.1230	38.4140
 1.1240	38.3850
 1.1250	38.3580
 1.1260	38.3250
 1.1270	38.2960
 1.1280	38.2700
 1.1290	38.2360
 1.1300	38.2030
 1.1310	38.1640
 1.1320	38.1170
 1.1330	38.0680
 1.1340	38.0140
 1.1350	37.9620
 1.1360	37.9100
 1.1370	37.8550
 1.1380	37.7980
 1.1390	37.7400
 1.1400	37.6720
 1.1410	37.6020
 1.1420	37.5320
 1.1430	37.4640
 1.1440	37.3980
 1.1450	37.3330
 1.1460	37.2690
 1.1470	37.2040
 1.1480	37.1430
 1.1490	37.0840
 1.1500	37.0290
 1.1510	36.9780
 1.1520	36.9290
 1.1530	36.8810
 1.1540	36.8380
 1.1550	36.8000
 1.1560	36.7650
 1.1570	36.7370
 1.1580	36.7150
 1.1590	36.6940
 1.1600	36.6800
 1.1610	36.6650
 1.1620	36.6460
 1.1630	36.6320
 1.1640	36.6190
 1.1650	36.6060
 1.1660	36.5950
 1.1670	36.5880
 1.1680	36.5820
 1.1690	36.5770
 1.1700	36.5780
 1.1710	36.5750
 1.1720	36.5680
 1.1730	36.5640
 1.1740	36.5610
 1.1750	36.5570
 1.1760	36.5520
 1.1770	36.5490
 1.1780	36.5430
 1.1790	36.5340
 1.1800	36.5250
 1.1810	36.5170
 1.1820	36.5100
 1.1830	36.5010
 1.1840	36.4960
 1.1850	36.4910
 1.1860	36.4850
 1.1870	36.4790
 1.1880	36.4730
 1.1890	36.4680
 1.1900	36.4630
 1.1910	36.4590
 1.1920	36.4550
 1.1930	36.4500
 1.1940	36.4470
 1.1950	36.4430
 1.1960	36.4420
 1.1970	36.4410
 1.1980	36.4430
 1.1990	36.4500
 1.2000	36.4510
 1.2010	36.4480
 1.2020	36.4480
 1.2030	36.4440
 1.2040	36.4450
 1.2050	36.4530
 1.2060	36.4600
 1.2070	36.4640
 1.2080	36.4670
 1.2090	36.4700
 1.2100	36.4730
 1.2110	36.4750
 1.2120	36.4780
 1.2130	36.4830
 1.2140	36.4870
 1.2150	36.4930
 1.2160	36.5040
 1.2170	36.5110
 1.2180	36.5150
 1.2190	36.5230
 1.2200	36.5310
 1.2210	36.5360
 1.2220	36.5400
 1.2230	36.5470
 1.2240	36.5540
 1.2250	36.5600
 1.2260	36.5700
 1.2270	36.5800
 1.2280	36.5830
 1.2290	36.5880
 1.2300	36.5950
 1.2310	36.5990
 1.2320	36.6060
 1.2330	36.6110
 1.2340	36.6150
 1.2350	36.6200
 1.2360	36.6240
 1.2370	36.6260
 1.2380	36.6320
 1.2390	36.6420
 1.2400	36.6470
 1.2410	36.6540
 1.2420	36.6620
 1.2430	36.6650
 1.2440	36.6670
 1.2450	36.6690
 1.2460	36.6720
 1.2470	36.6750
 1.2480	36.6780
 1.2490	36.6810
 1.2500	36.6810
 1.2510	36.6830
 1.2520	36.6890
 1.2530	36.6910
 1.2540	36.6920
 1.2550	36.6910
 1.2560	36.6850
 1.2570	36.6830
 1.2580	36.6830
 1.2590	36.6810
 1.2600	36.6770
 1.2610	36.6740
 1.2620	36.6690
 1.2630	36.6620
 1.2640	36.6580
 1.2650	36.6540
 1.2660	36.6430
 1.2670	36.6360
 1.2680	36.6340
 1.2690	36.6300
 1.2700	36.6270
 1.2710	36.6230
 1.2720	36.6130
 1.2730	36.6000
 1.2740	36.5900
 1.2750	36.5830
 1.2760	36.5780
 1.2770	36.5740
 1.2780	36.5670
 1.2790	36.5580
 1.2800	36.5460
 1.2810	36.5330
 1.2820	36.5250
 1.2830	36.5190
 1.2840	36.5110
 1.2850	36.4990
 1.2860	36.4820
 1.2870	36.4650
 1.2880	36.4440
 1.2890	36.4250
 1.2900	36.4120
 1.2910	36.3980
 1.2920	36.3800
 1.2930	36.3590
 1.2940	36.3370
 1.2950	36.3120
 1.2960	36.2910
 1.2970	36.2670
 1.2980	36.2390
 1.2990	36.2130
 1.3000	36.1830
 1.3010	36.1530
 1.3020	36.1230
 1.3030	36.0870
 1.3040	36.0540
 1.3050	36.0210
 1.3060	35.9820
 1.3070	35.9430
 1.3080	35.9040
 1.3090	35.8620
 1.3100	35.8190
 1.3110	35.7790
 1.3120	35.7340
 1.3130	35.6870
 1.3140	35.6410
 1.3150	35.5960
 1.3160	35.5470
 1.3170	35.4960
 1.3180	35.4450
 1.3190	35.3870
 1.3200	35.3270
 1.3210	35.2640
 1.3220	35.1980
 1.3230	35.1350
 1.3240	35.0710
 1.3250	35.0050
 1.3260	34.9410
 1.3270	34.8720
 1.3280	34.8010
 1.3290	34.7320
 1.3300	34.6620
 1.3310	34.5900
 1.3320	34.5160
 1.3330	34.4440
 1.3340	34.3680
 1.3350	34.2890
 1.3360	34.2140
 1.3370	34.1360
 1.3380	34.0580
 1.3390	33.9830
 1.3400	33.9110
 1.3410	33.8360
 1.3420	33.7600
 1.3430	33.6880
 1.3440	33.6130
 1.3450	33.5360
 1.3460	33.4590
 1.3470	33.3840
 1.3480	33.3080
 1.3490	33.2350
 1.3500	33.1660
 1.3510	33.0980
 1.3520	33.0270
 1.3530	32.9520
 1.3540	32.8780
 1.3550	32.8020
 1.3560	32.7240
 1.3570	32.6490
 1.3580	32.5730
 1.3590	32.4920
 1.3600	32.4120
 1.3610	32.3260
 1.3620	32.2340
 1.3630	32.1410
 1.3640	32.0440
 1.3650	31.9450
 1.3660	31.8450
 1.3670	31.7360
 1.3680	31.6190
 1.3690	31.4930
 1.3700	31.3580
 1.3710	31.2170
 1.3720	31.0640
 1.3730	30.8990
 1.3740	30.7230
 1.3750	30.5320
 1.3760	30.3260
 1.3770	30.1070
 1.3780	29.8690
 1.3790	29.6130
 1.3800	29.3420
 1.3810	29.0550
 1.3820	28.7540
 1.3830	28.4390
 1.3840	28.1090
 1.3850	27.7640
 1.3860	27.4050
 1.3870	27.0290
 1.3880	26.6470
 1.3890	26.2540
 1.3900	25.8500
 1.3910	25.4440
 1.3920	25.0300
 1.3930	24.6090
 1.3940	24.1890
 1.3950	23.7630
 1.3960	23.3420
 1.3970	22.9270
 1.3980	22.5170
 1.3990	22.1220
 1.4000	21.7350
 1.4010	21.3560
 1.4020	20.9920
 1.4030	20.6400
 1.4040	20.3030
 1.4050	19.9840
 1.4060	19.6800
 1.4070	19.3950
 1.4080	19.1260
 1.4090	18.8710
 1.4100	18.6360
 1.4110	18.4160
 1.4120	18.2130
 1.4130	18.0260
 1.4140	17.8520
 1.4150	17.6940
 1.4160	17.5470
 1.4170	17.4140
 1.4180	17.2970
 1.4190	17.1890
 1.4200	17.0920
 1.4210	17.0030
 1.4220	16.9240
 1.4230	16.8520
 1.4240	16.7880
 1.4250	16.7310
 1.4260	16.6820
 1.4270	16.6370
 1.4280	16.6010
 1.4290	16.5690
 1.4300	16.5420
 1.4310	16.5200
 1.4320	16.5030
 1.4330	16.4910
 1.4340	16.4840
 1.4350	16.4800
 1.4360	16.4800
 1.4370	16.4850
 1.4380	16.4930
 1.4390	16.5030
 1.4400	16.5130
 1.4410	16.5250
 1.4420	16.5380
 1.4430	16.5540
 1.4440	16.5720
 1.4450	16.5920
 1.4460	16.6140
 1.4470	16.6370
 1.4480	16.6600
 1.4490	16.6870
 1.4500	16.7130
 1.4510	16.7410
 1.4520	16.7710
 1.4530	16.8000
 1.4540	16.8310
 1.4550	16.8610
 1.4560	16.8920
 1.4570	16.9280
 1.4580	16.9670
 1.4590	17.0080
 1.4600	17.0530
 1.4610	17.1010
 1.4620	17.1550
 1.4630	17.2150
 1.4640	17.2780
 1.4650	17.3460
 1.4660	17.4160
 1.4670	17.4880
 1.4680	17.5650
 1.4690	17.6470
 1.4700	17.7340
 1.4710	17.8240
 1.4720	17.9160
