Name: Umbellularia californica 1
Type: vegetation
Class: Shrub
Genus: Umbellularia
Species: californica
Sample No.: VH104
Owner: UCSB
Wavelength Range: VSWIR
Origin: 34.5074; -119.7634; WGS84
Collection Date: 6/3/2013
Description: Samples were collected as part of the HyspIRI Airborne Campaign. 48 individual plants were sampled in three times in 2013 - spring  summer  and fall. The name of the sample includes a 1  2  or 3 which references a different individual of the species. Samples were taken to JPL and processed within 48 hours of collection. The same leaves were processed in the Nicolet and then measured using the ASD.
Measurement: Bidirectional reflectance
First Column: X
Second Column: Y
X Units: Wavelength (micrometers)
Y Units: Reflectance (percentage)
First X Value: 0.35
Last X Value: 2.5
Number of X Values: 2151
Additional Information: vegetation.shrub.umbellularia.californica.vswir.vh104.ucsb.asd.ancillary.txt

 0.3500	 4.4660
 0.3510	 4.3450
 0.3520	 4.5490
 0.3530	 4.6830
 0.3540	 4.5060
 0.3550	 4.5430
 0.3560	 4.5710
 0.3570	 4.5670
 0.3580	 4.6040
 0.3590	 4.5800
 0.3600	 4.5550
 0.3610	 4.5480
 0.3620	 4.5060
 0.3630	 4.4910
 0.3640	 4.4670
 0.3650	 4.4120
 0.3660	 4.4530
 0.3670	 4.4790
 0.3680	 4.4740
 0.3690	 4.4870
 0.3700	 4.5020
 0.3710	 4.4830
 0.3720	 4.4170
 0.3730	 4.3130
 0.3740	 4.3520
 0.3750	 4.4230
 0.3760	 4.3780
 0.3770	 4.3710
 0.3780	 4.3760
 0.3790	 4.3800
 0.3800	 4.3870
 0.3810	 4.4050
 0.3820	 4.4050
 0.3830	 4.3800
 0.3840	 4.3970
 0.3850	 4.3960
 0.3860	 4.3790
 0.3870	 4.3670
 0.3880	 4.3590
 0.3890	 4.3610
 0.3900	 4.3720
 0.3910	 4.3750
 0.3920	 4.3700
 0.3930	 4.3530
 0.3940	 4.3270
 0.3950	 4.3230
 0.3960	 4.3380
 0.3970	 4.3480
 0.3980	 4.3350
 0.3990	 4.3710
 0.4000	 4.4010
 0.4010	 4.3970
 0.4020	 4.3710
 0.4030	 4.3490
 0.4040	 4.3530
 0.4050	 4.3850
 0.4060	 4.3820
 0.4070	 4.3730
 0.4080	 4.3710
 0.4090	 4.3740
 0.4100	 4.3790
 0.4110	 4.3870
 0.4120	 4.3980
 0.4130	 4.4130
 0.4140	 4.4380
 0.4150	 4.4500
 0.4160	 4.4320
 0.4170	 4.4610
 0.4180	 4.4720
 0.4190	 4.4560
 0.4200	 4.4640
 0.4210	 4.4920
 0.4220	 4.5140
 0.4230	 4.5150
 0.4240	 4.5300
 0.4250	 4.5660
 0.4260	 4.5990
 0.4270	 4.6000
 0.4280	 4.6200
 0.4290	 4.6520
 0.4300	 4.6810
 0.4310	 4.6920
 0.4320	 4.7240
 0.4330	 4.7700
 0.4340	 4.8140
 0.4350	 4.8560
 0.4360	 4.8740
 0.4370	 4.8680
 0.4380	 4.8580
 0.4390	 4.8590
 0.4400	 4.8720
 0.4410	 4.8920
 0.4420	 4.9010
 0.4430	 4.9160
 0.4440	 4.9400
 0.4450	 4.9700
 0.4460	 4.9860
 0.4470	 4.9940
 0.4480	 5.0000
 0.4490	 5.0130
 0.4500	 5.0360
 0.4510	 5.0640
 0.4520	 5.0890
 0.4530	 5.1010
 0.4540	 5.1120
 0.4550	 5.1230
 0.4560	 5.1290
 0.4570	 5.1410
 0.4580	 5.1550
 0.4590	 5.1670
 0.4600	 5.1740
 0.4610	 5.1830
 0.4620	 5.1940
 0.4630	 5.2030
 0.4640	 5.2120
 0.4650	 5.2120
 0.4660	 5.2060
 0.4670	 5.2130
 0.4680	 5.2150
 0.4690	 5.2110
 0.4700	 5.2060
 0.4710	 5.2080
 0.4720	 5.2170
 0.4730	 5.2320
 0.4740	 5.2480
 0.4750	 5.2460
 0.4760	 5.2390
 0.4770	 5.2400
 0.4780	 5.2480
 0.4790	 5.2410
 0.4800	 5.2350
 0.4810	 5.2480
 0.4820	 5.2600
 0.4830	 5.2820
 0.4840	 5.3080
 0.4850	 5.3210
 0.4860	 5.3360
 0.4870	 5.3600
 0.4880	 5.3930
 0.4890	 5.4140
 0.4900	 5.4400
 0.4910	 5.4750
 0.4920	 5.5200
 0.4930	 5.5670
 0.4940	 5.6190
 0.4950	 5.6780
 0.4960	 5.7420
 0.4970	 5.8100
 0.4980	 5.8850
 0.4990	 5.9710
 0.5000	 6.0740
 0.5010	 6.1840
 0.5020	 6.3010
 0.5030	 6.4330
 0.5040	 6.5800
 0.5050	 6.7440
 0.5060	 6.9230
 0.5070	 7.1180
 0.5080	 7.3280
 0.5090	 7.5550
 0.5100	 7.8000
 0.5110	 8.0580
 0.5120	 8.3390
 0.5130	 8.6460
 0.5140	 8.9640
 0.5150	 9.2980
 0.5160	 9.6530
 0.5170	10.0280
 0.5180	10.4130
 0.5190	10.8070
 0.5200	11.2090
 0.5210	11.6200
 0.5220	12.0340
 0.5230	12.4520
 0.5240	12.8690
 0.5250	13.2720
 0.5260	13.6660
 0.5270	14.0510
 0.5280	14.4210
 0.5290	14.7820
 0.5300	15.1190
 0.5310	15.4320
 0.5320	15.7330
 0.5330	16.0200
 0.5340	16.2880
 0.5350	16.5340
 0.5360	16.7600
 0.5370	16.9710
 0.5380	17.1710
 0.5390	17.3660
 0.5400	17.5630
 0.5410	17.7620
 0.5420	17.9510
 0.5430	18.1080
 0.5440	18.2540
 0.5450	18.3850
 0.5460	18.4880
 0.5470	18.5580
 0.5480	18.6200
 0.5490	18.6870
 0.5500	18.7550
 0.5510	18.8080
 0.5520	18.8390
 0.5530	18.8470
 0.5540	18.8370
 0.5550	18.8060
 0.5560	18.7500
 0.5570	18.6750
 0.5580	18.5800
 0.5590	18.4640
 0.5600	18.3290
 0.5610	18.1840
 0.5620	18.0310
 0.5630	17.8690
 0.5640	17.6880
 0.5650	17.4910
 0.5660	17.2730
 0.5670	17.0340
 0.5680	16.7790
 0.5690	16.5210
 0.5700	16.2650
 0.5710	16.0110
 0.5720	15.7590
 0.5730	15.5110
 0.5740	15.2830
 0.5750	15.0900
 0.5760	14.9250
 0.5770	14.7650
 0.5780	14.5990
 0.5790	14.4430
 0.5800	14.2890
 0.5810	14.1390
 0.5820	14.0000
 0.5830	13.8640
 0.5840	13.7230
 0.5850	13.5810
 0.5860	13.4490
 0.5870	13.3210
 0.5880	13.1980
 0.5890	13.0840
 0.5900	13.0010
 0.5910	12.9390
 0.5920	12.8840
 0.5930	12.8190
 0.5940	12.7470
 0.5950	12.6740
 0.5960	12.6020
 0.5970	12.5320
 0.5980	12.4670
 0.5990	12.4040
 0.6000	12.3390
 0.6010	12.2670
 0.6020	12.1910
 0.6030	12.1110
 0.6040	12.0290
 0.6050	11.9380
 0.6060	11.8390
 0.6070	11.7320
 0.6080	11.6170
 0.6090	11.5080
 0.6100	11.4110
 0.6110	11.3210
 0.6120	11.1870
 0.6130	11.0230
 0.6140	10.8570
 0.6150	10.7200
 0.6160	10.5850
 0.6170	10.4550
 0.6180	10.3380
 0.6190	10.2360
 0.6200	10.1480
 0.6210	10.0700
 0.6220	 9.9960
 0.6230	 9.9330
 0.6240	 9.8820
 0.6250	 9.8400
 0.6260	 9.8070
 0.6270	 9.7790
 0.6280	 9.7570
 0.6290	 9.7420
 0.6300	 9.7260
 0.6310	 9.7060
 0.6320	 9.6740
 0.6330	 9.6270
 0.6340	 9.5650
 0.6350	 9.4870
 0.6360	 9.3890
 0.6370	 9.2660
 0.6380	 9.1240
 0.6390	 8.9680
 0.6400	 8.8040
 0.6410	 8.6220
 0.6420	 8.4340
 0.6430	 8.2470
 0.6440	 8.0600
 0.6450	 7.8760
 0.6460	 7.6980
 0.6470	 7.5300
 0.6480	 7.3870
 0.6490	 7.2640
 0.6500	 7.1590
 0.6510	 7.0710
 0.6520	 6.9950
 0.6530	 6.9290
 0.6540	 6.8670
 0.6550	 6.7980
 0.6560	 6.7210
 0.6570	 6.6330
 0.6580	 6.5320
 0.6590	 6.4230
 0.6600	 6.3080
 0.6610	 6.1890
 0.6620	 6.0670
 0.6630	 5.9460
 0.6640	 5.8320
 0.6650	 5.7300
 0.6660	 5.6360
 0.6670	 5.5530
 0.6680	 5.4840
 0.6690	 5.4250
 0.6700	 5.3780
 0.6710	 5.3400
 0.6720	 5.3090
 0.6730	 5.2830
 0.6740	 5.2700
 0.6750	 5.2640
 0.6760	 5.2610
 0.6770	 5.2640
 0.6780	 5.2760
 0.6790	 5.2990
 0.6800	 5.3310
 0.6810	 5.3770
 0.6820	 5.4440
 0.6830	 5.5400
 0.6840	 5.6730
 0.6850	 5.8460
 0.6860	 6.0740
 0.6870	 6.3710
 0.6880	 6.7480
 0.6890	 7.2180
 0.6900	 7.7880
 0.6910	 8.4630
 0.6920	 9.2520
 0.6930	10.1510
 0.6940	11.1520
 0.6950	12.2420
 0.6960	13.4130
 0.6970	14.6520
 0.6980	15.9420
 0.6990	17.2700
 0.7000	18.6200
 0.7010	19.9740
 0.7020	21.3210
 0.7030	22.6500
 0.7040	23.9520
 0.7050	25.2190
 0.7060	26.4530
 0.7070	27.6530
 0.7080	28.8190
 0.7090	29.9500
 0.7100	31.0530
 0.7110	32.1380
 0.7120	33.2020
 0.7130	34.2330
 0.7140	35.2430
 0.7150	36.2350
 0.7160	37.2080
 0.7170	38.1600
 0.7180	39.0900
 0.7190	40.0010
 0.7200	40.8940
 0.7210	41.7670
 0.7220	42.6120
 0.7230	43.4300
 0.7240	44.2250
 0.7250	44.9910
 0.7260	45.7270
 0.7270	46.4340
 0.7280	47.1170
 0.7290	47.7700
 0.7300	48.3910
 0.7310	48.9750
 0.7320	49.5310
 0.7330	50.0610
 0.7340	50.5650
 0.7350	51.0410
 0.7360	51.4870
 0.7370	51.9080
 0.7380	52.3050
 0.7390	52.6770
 0.7400	53.0280
 0.7410	53.3560
 0.7420	53.6600
 0.7430	53.9430
 0.7440	54.2100
 0.7450	54.4600
 0.7460	54.6870
 0.7470	54.8990
 0.7480	55.0920
 0.7490	55.2660
 0.7500	55.4390
 0.7510	55.5860
 0.7520	55.7170
 0.7530	55.8470
 0.7540	55.9670
 0.7550	56.0770
 0.7560	56.1750
 0.7570	56.2570
 0.7580	56.3400
 0.7590	56.4130
 0.7600	56.4730
 0.7610	56.5420
 0.7620	56.5970
 0.7630	56.6430
 0.7640	56.6930
 0.7650	56.7350
 0.7660	56.7710
 0.7670	56.8060
 0.7680	56.8470
 0.7690	56.8750
 0.7700	56.8970
 0.7710	56.9190
 0.7720	56.9400
 0.7730	56.9690
 0.7740	56.9940
 0.7750	57.0070
 0.7760	57.0230
 0.7770	57.0400
 0.7780	57.0560
 0.7790	57.0710
 0.7800	57.0800
 0.7810	57.0940
 0.7820	57.1110
 0.7830	57.1180
 0.7840	57.1290
 0.7850	57.1460
 0.7860	57.1640
 0.7870	57.1600
 0.7880	57.1630
 0.7890	57.1720
 0.7900	57.1790
 0.7910	57.1850
 0.7920	57.1890
 0.7930	57.1920
 0.7940	57.1990
 0.7950	57.2030
 0.7960	57.2030
 0.7970	57.2000
 0.7980	57.1930
 0.7990	57.1950
 0.8000	57.1950
 0.8010	57.1830
 0.8020	57.1850
 0.8030	57.1840
 0.8040	57.1790
 0.8050	57.1730
 0.8060	57.1620
 0.8070	57.1530
 0.8080	57.1470
 0.8090	57.1420
 0.8100	57.1290
 0.8110	57.1200
 0.8120	57.1200
 0.8130	57.1120
 0.8140	57.0950
 0.8150	57.0800
 0.8160	57.0740
 0.8170	57.0710
 0.8180	57.0580
 0.8190	57.0390
 0.8200	57.0280
 0.8210	57.0190
 0.8220	57.0110
 0.8230	57.0000
 0.8240	56.9820
 0.8250	56.9650
 0.8260	56.9490
 0.8270	56.9340
 0.8280	56.9160
 0.8290	56.9030
 0.8300	56.8920
 0.8310	56.8790
 0.8320	56.8720
 0.8330	56.8600
 0.8340	56.8450
 0.8350	56.8330
 0.8360	56.8160
 0.8370	56.8040
 0.8380	56.8000
 0.8390	56.7950
 0.8400	56.7990
 0.8410	56.7990
 0.8420	56.7920
 0.8430	56.7920
 0.8440	56.7860
 0.8450	56.7810
 0.8460	56.7830
 0.8470	56.7750
 0.8480	56.7820
 0.8490	56.7920
 0.8500	56.7890
 0.8510	56.7780
 0.8520	56.7700
 0.8530	56.7730
 0.8540	56.7840
 0.8550	56.7780
 0.8560	56.7770
 0.8570	56.7860
 0.8580	56.7900
 0.8590	56.7910
 0.8600	56.7880
 0.8610	56.7820
 0.8620	56.7850
 0.8630	56.7920
 0.8640	56.7970
 0.8650	56.8010
 0.8660	56.8100
 0.8670	56.8100
 0.8680	56.8050
 0.8690	56.8050
 0.8700	56.8140
 0.8710	56.8190
 0.8720	56.8180
 0.8730	56.8210
 0.8740	56.8180
 0.8750	56.8210
 0.8760	56.8300
 0.8770	56.8330
 0.8780	56.8300
 0.8790	56.8320
 0.8800	56.8400
 0.8810	56.8460
 0.8820	56.8460
 0.8830	56.8460
 0.8840	56.8490
 0.8850	56.8490
 0.8860	56.8500
 0.8870	56.8570
 0.8880	56.8680
 0.8890	56.8660
 0.8900	56.8610
 0.8910	56.8580
 0.8920	56.8600
 0.8930	56.8640
 0.8940	56.8670
 0.8950	56.8670
 0.8960	56.8670
 0.8970	56.8750
 0.8980	56.8800
 0.8990	56.8800
 0.9000	56.8770
 0.9010	56.8770
 0.9020	56.8820
 0.9030	56.8880
 0.9040	56.8860
 0.9050	56.8830
 0.9060	56.8810
 0.9070	56.8800
 0.9080	56.8730
 0.9090	56.8710
 0.9100	56.8700
 0.9110	56.8640
 0.9120	56.8610
 0.9130	56.8650
 0.9140	56.8610
 0.9150	56.8400
 0.9160	56.8310
 0.9170	56.8280
 0.9180	56.8200
 0.9190	56.8050
 0.9200	56.8030
 0.9210	56.7970
 0.9220	56.7770
 0.9230	56.7470
 0.9240	56.7410
 0.9250	56.7320
 0.9260	56.7040
 0.9270	56.6640
 0.9280	56.6310
 0.9290	56.5980
 0.9300	56.5620
 0.9310	56.5270
 0.9320	56.4930
 0.9330	56.4560
 0.9340	56.4180
 0.9350	56.3850
 0.9360	56.3340
 0.9370	56.2790
 0.9380	56.2280
 0.9390	56.1690
 0.9400	56.1080
 0.9410	56.0600
 0.9420	56.0220
 0.9430	55.9560
 0.9440	55.8880
 0.9450	55.8150
 0.9460	55.7360
 0.9470	55.6610
 0.9480	55.5630
 0.9490	55.4600
 0.9500	55.3690
 0.9510	55.2750
 0.9520	55.1640
 0.9530	55.0410
 0.9540	54.9220
 0.9550	54.8220
 0.9560	54.7130
 0.9570	54.6080
 0.9580	54.5210
 0.9590	54.4250
 0.9600	54.3480
 0.9610	54.2820
 0.9620	54.2140
 0.9630	54.1560
 0.9640	54.1110
 0.9650	54.0780
 0.9660	54.0530
 0.9670	54.0270
 0.9680	54.0030
 0.9690	53.9770
 0.9700	53.9490
 0.9710	53.9300
 0.9720	53.9250
 0.9730	53.9190
 0.9740	53.8960
 0.9750	53.8820
 0.9760	53.8800
 0.9770	53.8850
 0.9780	53.8890
 0.9790	53.8840
 0.9800	53.8890
 0.9810	53.9020
 0.9820	53.9130
 0.9830	53.9060
 0.9840	53.9340
 0.9850	53.9750
 0.9860	53.9810
 0.9870	53.9890
 0.9880	53.9960
 0.9890	54.0110
 0.9900	54.0430
 0.9910	54.0830
 0.9920	54.1280
 0.9930	54.1730
 0.9940	54.2180
 0.9950	54.2630
 0.9960	54.3080
 0.9970	54.3530
 0.9980	54.3980
 0.9990	54.4430
 1.0000	54.4880
 1.0010	54.5330
 1.0020	54.5770
 1.0030	54.6220
 1.0040	54.6670
 1.0050	54.7120
 1.0060	54.7570
 1.0070	54.8020
 1.0080	54.8470
 1.0090	54.8920
 1.0100	54.8920
 1.0110	54.9250
 1.0120	54.9600
 1.0130	54.9990
 1.0140	55.0330
 1.0150	55.0650
 1.0160	55.1030
 1.0170	55.1350
 1.0180	55.1620
 1.0190	55.1960
 1.0200	55.2310
 1.0210	55.2650
 1.0220	55.3010
 1.0230	55.3370
 1.0240	55.3730
 1.0250	55.4050
 1.0260	55.4370
 1.0270	55.4680
 1.0280	55.4940
 1.0290	55.5230
 1.0300	55.5550
 1.0310	55.5840
 1.0320	55.6090
 1.0330	55.6390
 1.0340	55.6690
 1.0350	55.6950
 1.0360	55.7220
 1.0370	55.7450
 1.0380	55.7640
 1.0390	55.7780
 1.0400	55.7950
 1.0410	55.8100
 1.0420	55.8290
 1.0430	55.8510
 1.0440	55.8710
 1.0450	55.8920
 1.0460	55.9100
 1.0470	55.9260
 1.0480	55.9430
 1.0490	55.9660
 1.0500	55.9810
 1.0510	55.9930
 1.0520	56.0030
 1.0530	56.0120
 1.0540	56.0140
 1.0550	56.0240
 1.0560	56.0380
 1.0570	56.0500
 1.0580	56.0640
 1.0590	56.0740
 1.0600	56.0800
 1.0610	56.0880
 1.0620	56.0930
 1.0630	56.1000
 1.0640	56.1130
 1.0650	56.1170
 1.0660	56.1130
 1.0670	56.1160
 1.0680	56.1190
 1.0690	56.1190
 1.0700	56.1210
 1.0710	56.1320
 1.0720	56.1350
 1.0730	56.1330
 1.0740	56.1310
 1.0750	56.1250
 1.0760	56.1210
 1.0770	56.1180
 1.0780	56.1110
 1.0790	56.1070
 1.0800	56.1000
 1.0810	56.0870
 1.0820	56.0770
 1.0830	56.0700
 1.0840	56.0610
 1.0850	56.0510
 1.0860	56.0410
 1.0870	56.0300
 1.0880	56.0200
 1.0890	56.0040
 1.0900	55.9860
 1.0910	55.9680
 1.0920	55.9460
 1.0930	55.9280
 1.0940	55.9180
 1.0950	55.8990
 1.0960	55.8760
 1.0970	55.8540
 1.0980	55.8270
 1.0990	55.8030
 1.1000	55.7830
 1.1010	55.7610
 1.1020	55.7390
 1.1030	55.7170
 1.1040	55.6920
 1.1050	55.6680
 1.1060	55.6430
 1.1070	55.6180
 1.1080	55.5910
 1.1090	55.5630
 1.1100	55.5340
 1.1110	55.5020
 1.1120	55.4690
 1.1130	55.4390
 1.1140	55.4030
 1.1150	55.3640
 1.1160	55.3230
 1.1170	55.2810
 1.1180	55.2360
 1.1190	55.1930
 1.1200	55.1420
 1.1210	55.0860
 1.1220	55.0260
 1.1230	54.9590
 1.1240	54.8870
 1.1250	54.8050
 1.1260	54.7190
 1.1270	54.6200
 1.1280	54.5120
 1.1290	54.3920
 1.1300	54.2630
 1.1310	54.1210
 1.1320	53.9680
 1.1330	53.8000
 1.1340	53.6200
 1.1350	53.4280
 1.1360	53.2240
 1.1370	53.0080
 1.1380	52.7870
 1.1390	52.5590
 1.1400	52.3250
 1.1410	52.0930
 1.1420	51.8550
 1.1430	51.6110
 1.1440	51.3760
 1.1450	51.1370
 1.1460	50.9120
 1.1470	50.6910
 1.1480	50.4840
 1.1490	50.2820
 1.1500	50.0970
 1.1510	49.9240
 1.1520	49.7640
 1.1530	49.6140
 1.1540	49.4810
 1.1550	49.3620
 1.1560	49.2520
 1.1570	49.1550
 1.1580	49.0720
 1.1590	48.9980
 1.1600	48.9320
 1.1610	48.8770
 1.1620	48.8290
 1.1630	48.7870
 1.1640	48.7510
 1.1650	48.7190
 1.1660	48.6940
 1.1670	48.6690
 1.1680	48.6470
 1.1690	48.6260
 1.1700	48.6090
 1.1710	48.5930
 1.1720	48.5790
 1.1730	48.5640
 1.1740	48.5500
 1.1750	48.5360
 1.1760	48.5200
 1.1770	48.5030
 1.1780	48.4820
 1.1790	48.4620
 1.1800	48.4450
 1.1810	48.4270
 1.1820	48.4090
 1.1830	48.3910
 1.1840	48.3730
 1.1850	48.3520
 1.1860	48.3300
 1.1870	48.3110
 1.1880	48.2930
 1.1890	48.2740
 1.1900	48.2590
 1.1910	48.2490
 1.1920	48.2390
 1.1930	48.2300
 1.1940	48.2240
 1.1950	48.2220
 1.1960	48.2220
 1.1970	48.2230
 1.1980	48.2300
 1.1990	48.2400
 1.2000	48.2490
 1.2010	48.2610
 1.2020	48.2740
 1.2030	48.2860
 1.2040	48.3000
 1.2050	48.3190
 1.2060	48.3390
 1.2070	48.3620
 1.2080	48.3870
 1.2090	48.4130
 1.2100	48.4390
 1.2110	48.4670
 1.2120	48.4960
 1.2130	48.5250
 1.2140	48.5550
 1.2150	48.5870
 1.2160	48.6200
 1.2170	48.6540
 1.2180	48.6890
 1.2190	48.7260
 1.2200	48.7650
 1.2210	48.8000
 1.2220	48.8370
 1.2230	48.8750
 1.2240	48.9110
 1.2250	48.9450
 1.2260	48.9800
 1.2270	49.0130
 1.2280	49.0430
 1.2290	49.0760
 1.2300	49.1080
 1.2310	49.1390
 1.2320	49.1700
 1.2330	49.1990
 1.2340	49.2290
 1.2350	49.2580
 1.2360	49.2860
 1.2370	49.3150
 1.2380	49.3420
 1.2390	49.3660
 1.2400	49.3910
 1.2410	49.4150
 1.2420	49.4380
 1.2430	49.4610
 1.2440	49.4820
 1.2450	49.5000
 1.2460	49.5190
 1.2470	49.5390
 1.2480	49.5550
 1.2490	49.5720
 1.2500	49.5900
 1.2510	49.6050
 1.2520	49.6200
 1.2530	49.6360
 1.2540	49.6500
 1.2550	49.6620
 1.2560	49.6730
 1.2570	49.6800
 1.2580	49.6860
 1.2590	49.6920
 1.2600	49.6970
 1.2610	49.6990
 1.2620	49.7000
 1.2630	49.6990
 1.2640	49.6960
 1.2650	49.6920
 1.2660	49.6870
 1.2670	49.6780
 1.2680	49.6660
 1.2690	49.6540
 1.2700	49.6430
 1.2710	49.6290
 1.2720	49.6130
 1.2730	49.5920
 1.2740	49.5670
 1.2750	49.5420
 1.2760	49.5150
 1.2770	49.4840
 1.2780	49.4520
 1.2790	49.4170
 1.2800	49.3820
 1.2810	49.3470
 1.2820	49.3100
 1.2830	49.2700
 1.2840	49.2260
 1.2850	49.1780
 1.2860	49.1290
 1.2870	49.0780
 1.2880	49.0250
 1.2890	48.9730
 1.2900	48.9180
 1.2910	48.8590
 1.2920	48.8000
 1.2930	48.7380
 1.2940	48.6710
 1.2950	48.6010
 1.2960	48.5270
 1.2970	48.4500
 1.2980	48.3700
 1.2990	48.2840
 1.3000	48.1970
 1.3010	48.1060
 1.3020	48.0120
 1.3030	47.9160
 1.3040	47.8130
 1.3050	47.7070
 1.3060	47.5930
 1.3070	47.4720
 1.3080	47.3540
 1.3090	47.2320
 1.3100	47.1070
 1.3110	46.9800
 1.3120	46.8440
 1.3130	46.7010
 1.3140	46.5530
 1.3150	46.3980
 1.3160	46.2410
 1.3170	46.0800
 1.3180	45.9160
 1.3190	45.7470
 1.3200	45.5740
 1.3210	45.3950
 1.3220	45.2120
 1.3230	45.0230
 1.3240	44.8310
 1.3250	44.6390
 1.3260	44.4430
 1.3270	44.2440
 1.3280	44.0430
 1.3290	43.8360
 1.3300	43.6260
 1.3310	43.4170
 1.3320	43.2050
 1.3330	42.9930
 1.3340	42.7820
 1.3350	42.5700
 1.3360	42.3570
 1.3370	42.1460
 1.3380	41.9370
 1.3390	41.7280
 1.3400	41.5210
 1.3410	41.3190
 1.3420	41.1170
 1.3430	40.9180
 1.3440	40.7230
 1.3450	40.5280
 1.3460	40.3320
 1.3470	40.1430
 1.3480	39.9560
 1.3490	39.7720
 1.3500	39.5930
 1.3510	39.4160
 1.3520	39.2360
 1.3530	39.0570
 1.3540	38.8800
 1.3550	38.7010
 1.3560	38.5230
 1.3570	38.3440
 1.3580	38.1610
 1.3590	37.9750
 1.3600	37.7840
 1.3610	37.5850
 1.3620	37.3790
 1.3630	37.1660
 1.3640	36.9430
 1.3650	36.7110
 1.3660	36.4690
 1.3670	36.2120
 1.3680	35.9400
 1.3690	35.6540
 1.3700	35.3470
 1.3710	35.0250
 1.3720	34.6840
 1.3730	34.3170
 1.3740	33.9330
 1.3750	33.5250
 1.3760	33.0890
 1.3770	32.6270
 1.3780	32.1340
 1.3790	31.6150
 1.3800	31.0720
 1.3810	30.4990
 1.3820	29.9090
 1.3830	29.2980
 1.3840	28.6710
 1.3850	28.0240
 1.3860	27.3710
 1.3870	26.6970
 1.3880	26.0280
 1.3890	25.3520
 1.3900	24.6740
 1.3910	24.0070
 1.3920	23.3430
 1.3930	22.6840
 1.3940	22.0400
 1.3950	21.4040
 1.3960	20.7860
 1.3970	20.1890
 1.3980	19.6130
 1.3990	19.0660
 1.4000	18.5430
 1.4010	18.0420
 1.4020	17.5710
 1.4030	17.1210
 1.4040	16.6970
 1.4050	16.2990
 1.4060	15.9260
 1.4070	15.5810
 1.4080	15.2590
 1.4090	14.9600
 1.4100	14.6830
 1.4110	14.4240
 1.4120	14.1850
 1.4130	13.9660
 1.4140	13.7630
 1.4150	13.5790
 1.4160	13.4090
 1.4170	13.2520
 1.4180	13.1090
 1.4190	12.9760
 1.4200	12.8540
 1.4210	12.7420
 1.4220	12.6390
 1.4230	12.5480
 1.4240	12.4640
 1.4250	12.3870
 1.4260	12.3180
 1.4270	12.2550
 1.4280	12.1970
 1.4290	12.1460
 1.4300	12.1000
 1.4310	12.0590
 1.4320	12.0240
 1.4330	11.9930
 1.4340	11.9650
 1.4350	11.9420
 1.4360	11.9230
 1.4370	11.9070
 1.4380	11.8940
 1.4390	11.8840
 1.4400	11.8750
 1.4410	11.8700
 1.4420	11.8680
 1.4430	11.8690
 1.4440	11.8700
 1.4450	11.8740
 1.4460	11.8790
 1.4470	11.8860
 1.4480	11.8950
 1.4490	11.9060
 1.4500	11.9180
 1.4510	11.9310
 1.4520	11.9480
 1.4530	11.9660
 1.4540	11.9860
 1.4550	12.0090
 1.4560	12.0330
 1.4570	12.0600
 1.4580	12.0900
 1.4590	12.1220
 1.4600	12.1600
 1.4610	12.2020
 1.4620	12.2470
 1.4630	12.2970
 1.4640	12.3510
 1.4650	12.4100
 1.4660	12.4740
 1.4670	12.5420
 1.4680	12.6150
 1.4690	12.6920
