Name: Olea africana
Type: vegetation
Class: Tree
Genus: Olea
Species: africana
Sample No.: JPL121
Owner: JPL
Wavelength Range: VSWIR
Origin: 34.12663; -118.11491;; WGS84
Collection Date: 9/7/2016
Description: Samples were collected at the Huntington Garden in San Marino California as part of a JPL Subcontract studying HyTES imagery. Samples were taken to JPL and processed within 48 hours of collection. The same leaves were processed in the Nicolet and then measured using the ASD.
Measurement: Bidirectional reflectance
First Column: X
Second Column: Y
X Units: Wavelength (micrometer)
Y Units: Reflectance (percentage)
First X Value: 0.35
Last X Value: 2.5
Number of X Values: 2151
Additional Information: vegetation.tree.olea.africana.vswir.jpl121.jpl.asd.ancillary.txt

 0.3500	 6.9830
 0.3510	 6.8490
 0.3520	 6.8060
 0.3530	 6.7870
 0.3540	 6.7340
 0.3550	 6.7540
 0.3560	 6.7970
 0.3570	 6.7750
 0.3580	 6.6260
 0.3590	 6.6330
 0.3600	 6.6640
 0.3610	 6.6290
 0.3620	 6.5460
 0.3630	 6.5470
 0.3640	 6.5660
 0.3650	 6.5290
 0.3660	 6.5300
 0.3670	 6.5690
 0.3680	 6.5800
 0.3690	 6.4720
 0.3700	 6.4590
 0.3710	 6.4710
 0.3720	 6.4650
 0.3730	 6.5240
 0.3740	 6.5170
 0.3750	 6.4780
 0.3760	 6.4760
 0.3770	 6.4620
 0.3780	 6.4680
 0.3790	 6.4830
 0.3800	 6.4600
 0.3810	 6.4300
 0.3820	 6.4190
 0.3830	 6.4370
 0.3840	 6.4520
 0.3850	 6.4670
 0.3860	 6.4710
 0.3870	 6.4570
 0.3880	 6.4540
 0.3890	 6.4330
 0.3900	 6.4040
 0.3910	 6.4190
 0.3920	 6.4100
 0.3930	 6.4190
 0.3940	 6.4620
 0.3950	 6.4330
 0.3960	 6.4200
 0.3970	 6.4290
 0.3980	 6.4320
 0.3990	 6.4370
 0.4000	 6.4410
 0.4010	 6.4370
 0.4020	 6.4220
 0.4030	 6.4230
 0.4040	 6.4310
 0.4050	 6.4330
 0.4060	 6.4330
 0.4070	 6.4390
 0.4080	 6.4480
 0.4090	 6.4590
 0.4100	 6.4810
 0.4110	 6.4930
 0.4120	 6.4900
 0.4130	 6.5010
 0.4140	 6.5070
 0.4150	 6.5050
 0.4160	 6.5010
 0.4170	 6.5150
 0.4180	 6.5320
 0.4190	 6.5460
 0.4200	 6.5580
 0.4210	 6.5620
 0.4220	 6.5630
 0.4230	 6.5660
 0.4240	 6.5560
 0.4250	 6.5610
 0.4260	 6.5740
 0.4270	 6.5740
 0.4280	 6.5750
 0.4290	 6.5770
 0.4300	 6.5750
 0.4310	 6.5640
 0.4320	 6.5560
 0.4330	 6.5440
 0.4340	 6.5270
 0.4350	 6.5240
 0.4360	 6.5290
 0.4370	 6.5400
 0.4380	 6.5540
 0.4390	 6.5720
 0.4400	 6.5950
 0.4410	 6.6170
 0.4420	 6.6160
 0.4430	 6.6200
 0.4440	 6.6300
 0.4450	 6.6360
 0.4460	 6.6380
 0.4470	 6.6450
 0.4480	 6.6580
 0.4490	 6.6690
 0.4500	 6.6750
 0.4510	 6.6830
 0.4520	 6.6990
 0.4530	 6.7070
 0.4540	 6.7100
 0.4550	 6.7100
 0.4560	 6.7080
 0.4570	 6.7250
 0.4580	 6.7370
 0.4590	 6.7350
 0.4600	 6.7390
 0.4610	 6.7430
 0.4620	 6.7430
 0.4630	 6.7410
 0.4640	 6.7410
 0.4650	 6.7450
 0.4660	 6.7520
 0.4670	 6.7550
 0.4680	 6.7580
 0.4690	 6.7620
 0.4700	 6.7680
 0.4710	 6.7700
 0.4720	 6.7710
 0.4730	 6.7710
 0.4740	 6.7730
 0.4750	 6.7740
 0.4760	 6.7790
 0.4770	 6.7890
 0.4780	 6.7940
 0.4790	 6.7910
 0.4800	 6.7910
 0.4810	 6.8040
 0.4820	 6.8040
 0.4830	 6.7990
 0.4840	 6.7960
 0.4850	 6.7960
 0.4860	 6.7980
 0.4870	 6.8060
 0.4880	 6.8180
 0.4890	 6.8260
 0.4900	 6.8340
 0.4910	 6.8450
 0.4920	 6.8580
 0.4930	 6.8800
 0.4940	 6.9010
 0.4950	 6.9180
 0.4960	 6.9440
 0.4970	 6.9710
 0.4980	 7.0000
 0.4990	 7.0360
 0.5000	 7.0700
 0.5010	 7.1130
 0.5020	 7.1630
 0.5030	 7.2120
 0.5040	 7.2710
 0.5050	 7.3380
 0.5060	 7.4110
 0.5070	 7.4960
 0.5080	 7.5920
 0.5090	 7.7020
 0.5100	 7.8240
 0.5110	 7.9550
 0.5120	 8.0960
 0.5130	 8.2520
 0.5140	 8.4320
 0.5150	 8.6250
 0.5160	 8.8290
 0.5170	 9.0440
 0.5180	 9.2730
 0.5190	 9.5150
 0.5200	 9.7660
 0.5210	10.0190
 0.5220	10.2770
 0.5230	10.5390
 0.5240	10.8010
 0.5250	11.0450
 0.5260	11.2850
 0.5270	11.5160
 0.5280	11.7290
 0.5290	11.9310
 0.5300	12.1190
 0.5310	12.2920
 0.5320	12.4490
 0.5330	12.5880
 0.5340	12.7170
 0.5350	12.8370
 0.5360	12.9380
 0.5370	13.0220
 0.5380	13.0960
 0.5390	13.1650
 0.5400	13.2140
 0.5410	13.2540
 0.5420	13.2920
 0.5430	13.3300
 0.5440	13.3760
 0.5450	13.4300
 0.5460	13.4870
 0.5470	13.5460
 0.5480	13.5980
 0.5490	13.6360
 0.5500	13.6650
 0.5510	13.6830
 0.5520	13.6900
 0.5530	13.6830
 0.5540	13.6640
 0.5550	13.6280
 0.5560	13.5710
 0.5570	13.4960
 0.5580	13.4080
 0.5590	13.3070
 0.5600	13.1940
 0.5610	13.0730
 0.5620	12.9440
 0.5630	12.8090
 0.5640	12.6700
 0.5650	12.5240
 0.5660	12.3720
 0.5670	12.2160
 0.5680	12.0520
 0.5690	11.8860
 0.5700	11.7180
 0.5710	11.5510
 0.5720	11.3820
 0.5730	11.2210
 0.5740	11.0740
 0.5750	10.9420
 0.5760	10.8220
 0.5770	10.7050
 0.5780	10.5860
 0.5790	10.4700
 0.5800	10.3680
 0.5810	10.2790
 0.5820	10.1970
 0.5830	10.1190
 0.5840	10.0420
 0.5850	 9.9660
 0.5860	 9.8900
 0.5870	 9.8220
 0.5880	 9.7630
 0.5890	 9.7130
 0.5900	 9.6680
 0.5910	 9.6300
 0.5920	 9.5950
 0.5930	 9.5580
 0.5940	 9.5290
 0.5950	 9.5070
 0.5960	 9.4880
 0.5970	 9.4610
 0.5980	 9.4300
 0.5990	 9.3960
 0.6000	 9.3600
 0.6010	 9.3270
 0.6020	 9.2910
 0.6030	 9.2510
 0.6040	 9.2090
 0.6050	 9.1600
 0.6060	 9.1060
 0.6070	 9.0500
 0.6080	 8.9880
 0.6090	 8.9140
 0.6100	 8.8260
 0.6110	 8.7280
 0.6120	 8.6680
 0.6130	 8.6240
 0.6140	 8.5770
 0.6150	 8.5210
 0.6160	 8.4640
 0.6170	 8.4110
 0.6180	 8.3620
 0.6190	 8.3120
 0.6200	 8.2660
 0.6210	 8.2290
 0.6220	 8.1970
 0.6230	 8.1710
 0.6240	 8.1490
 0.6250	 8.1310
 0.6260	 8.1180
 0.6270	 8.1060
 0.6280	 8.0960
 0.6290	 8.0860
 0.6300	 8.0750
 0.6310	 8.0650
 0.6320	 8.0540
 0.6330	 8.0410
 0.6340	 8.0210
 0.6350	 7.9940
 0.6360	 7.9610
 0.6370	 7.9170
 0.6380	 7.8710
 0.6390	 7.8200
 0.6400	 7.7630
 0.6410	 7.7060
 0.6420	 7.6470
 0.6430	 7.5860
 0.6440	 7.5300
 0.6450	 7.4740
 0.6460	 7.4210
 0.6470	 7.3730
 0.6480	 7.3300
 0.6490	 7.2920
 0.6500	 7.2590
 0.6510	 7.2380
 0.6520	 7.2200
 0.6530	 7.2040
 0.6540	 7.1890
 0.6550	 7.1750
 0.6560	 7.1550
 0.6570	 7.1340
 0.6580	 7.1170
 0.6590	 7.0950
 0.6600	 7.0720
 0.6610	 7.0500
 0.6620	 7.0300
 0.6630	 7.0150
 0.6640	 7.0020
 0.6650	 6.9910
 0.6660	 6.9860
 0.6670	 6.9840
 0.6680	 6.9850
 0.6690	 6.9920
 0.6700	 7.0000
 0.6710	 7.0120
 0.6720	 7.0280
 0.6730	 7.0440
 0.6740	 7.0670
 0.6750	 7.0920
 0.6760	 7.1170
 0.6770	 7.1440
 0.6780	 7.1780
 0.6790	 7.2170
 0.6800	 7.2580
 0.6810	 7.2980
 0.6820	 7.3410
 0.6830	 7.3910
 0.6840	 7.4430
 0.6850	 7.5000
 0.6860	 7.5660
 0.6870	 7.6450
 0.6880	 7.7450
 0.6890	 7.8760
 0.6900	 8.0470
 0.6910	 8.2730
 0.6920	 8.5600
 0.6930	 8.9200
 0.6940	 9.3610
 0.6950	 9.8920
 0.6960	10.5070
 0.6970	11.2040
 0.6980	11.9800
 0.6990	12.8280
 0.7000	13.7350
 0.7010	14.6920
 0.7020	15.6870
 0.7030	16.7080
 0.7040	17.7480
 0.7050	18.7970
 0.7060	19.8490
 0.7070	20.9020
 0.7080	21.9520
 0.7090	23.0000
 0.7100	24.0410
 0.7110	25.0800
 0.7120	26.1140
 0.7130	27.1400
 0.7140	28.1600
 0.7150	29.1730
 0.7160	30.1760
 0.7170	31.1660
 0.7180	32.1430
 0.7190	33.1080
 0.7200	34.0610
 0.7210	34.9950
 0.7220	35.9100
 0.7230	36.8030
 0.7240	37.6730
 0.7250	38.5160
 0.7260	39.3330
 0.7270	40.1250
 0.7280	40.8850
 0.7290	41.6120
 0.7300	42.3080
 0.7310	42.9760
 0.7320	43.6120
 0.7330	44.2160
 0.7340	44.7890
 0.7350	45.3330
 0.7360	45.8480
 0.7370	46.3320
 0.7380	46.7840
 0.7390	47.2110
 0.7400	47.6120
 0.7410	47.9870
 0.7420	48.3340
 0.7430	48.6560
 0.7440	48.9560
 0.7450	49.2330
 0.7460	49.4880
 0.7470	49.7230
 0.7480	49.9380
 0.7490	50.1320
 0.7500	50.3110
 0.7510	50.4790
 0.7520	50.6310
 0.7530	50.7640
 0.7540	50.8860
 0.7550	50.9990
 0.7560	51.1040
 0.7570	51.1960
 0.7580	51.2790
 0.7590	51.3560
 0.7600	51.4270
 0.7610	51.4930
 0.7620	51.5530
 0.7630	51.6040
 0.7640	51.6490
 0.7650	51.6920
 0.7660	51.7310
 0.7670	51.7670
 0.7680	51.8000
 0.7690	51.8310
 0.7700	51.8570
 0.7710	51.8780
 0.7720	51.9050
 0.7730	51.9270
 0.7740	51.9460
 0.7750	51.9660
 0.7760	51.9860
 0.7770	52.0040
 0.7780	52.0190
 0.7790	52.0350
 0.7800	52.0530
 0.7810	52.0690
 0.7820	52.0820
 0.7830	52.0930
 0.7840	52.1060
 0.7850	52.1190
 0.7860	52.1320
 0.7870	52.1410
 0.7880	52.1500
 0.7890	52.1600
 0.7900	52.1710
 0.7910	52.1780
 0.7920	52.1850
 0.7930	52.1910
 0.7940	52.1970
 0.7950	52.2030
 0.7960	52.2070
 0.7970	52.2080
 0.7980	52.2100
 0.7990	52.2110
 0.8000	52.2100
 0.8010	52.2080
 0.8020	52.2090
 0.8030	52.2100
 0.8040	52.2070
 0.8050	52.1990
 0.8060	52.1980
 0.8070	52.1960
 0.8080	52.1900
 0.8090	52.1850
 0.8100	52.1800
 0.8110	52.1730
 0.8120	52.1630
 0.8130	52.1590
 0.8140	52.1490
 0.8150	52.1390
 0.8160	52.1330
 0.8170	52.1310
 0.8180	52.1240
 0.8190	52.1160
 0.8200	52.1110
 0.8210	52.1010
 0.8220	52.0900
 0.8230	52.0810
 0.8240	52.0710
 0.8250	52.0610
 0.8260	52.0510
 0.8270	52.0420
 0.8280	52.0330
 0.8290	52.0260
 0.8300	52.0180
 0.8310	52.0070
 0.8320	52.0010
 0.8330	51.9940
 0.8340	51.9840
 0.8350	51.9740
 0.8360	51.9670
 0.8370	51.9630
 0.8380	51.9600
 0.8390	51.9550
 0.8400	51.9490
 0.8410	51.9460
 0.8420	51.9460
 0.8430	51.9430
 0.8440	51.9430
 0.8450	51.9430
 0.8460	51.9400
 0.8470	51.9410
 0.8480	51.9420
 0.8490	51.9420
 0.8500	51.9440
 0.8510	51.9420
 0.8520	51.9390
 0.8530	51.9380
 0.8540	51.9460
 0.8550	51.9450
 0.8560	51.9460
 0.8570	51.9510
 0.8580	51.9560
 0.8590	51.9630
 0.8600	51.9690
 0.8610	51.9740
 0.8620	51.9800
 0.8630	51.9840
 0.8640	51.9880
 0.8650	51.9910
 0.8660	51.9980
 0.8670	52.0010
 0.8680	52.0070
 0.8690	52.0180
 0.8700	52.0230
 0.8710	52.0280
 0.8720	52.0370
 0.8730	52.0460
 0.8740	52.0540
 0.8750	52.0640
 0.8760	52.0730
 0.8770	52.0810
 0.8780	52.0910
 0.8790	52.1000
 0.8800	52.1080
 0.8810	52.1160
 0.8820	52.1250
 0.8830	52.1340
 0.8840	52.1430
 0.8850	52.1530
 0.8860	52.1610
 0.8870	52.1680
 0.8880	52.1760
 0.8890	52.1850
 0.8900	52.1950
 0.8910	52.2050
 0.8920	52.2110
 0.8930	52.2160
 0.8940	52.2230
 0.8950	52.2330
 0.8960	52.2420
 0.8970	52.2480
 0.8980	52.2590
 0.8990	52.2720
 0.9000	52.2750
 0.9010	52.2830
 0.9020	52.2910
 0.9030	52.2960
 0.9040	52.3060
 0.9050	52.3150
 0.9060	52.3220
 0.9070	52.3250
 0.9080	52.3350
 0.9090	52.3400
 0.9100	52.3440
 0.9110	52.3530
 0.9120	52.3600
 0.9130	52.3620
 0.9140	52.3600
 0.9150	52.3590
 0.9160	52.3620
 0.9170	52.3640
 0.9180	52.3680
 0.9190	52.3750
 0.9200	52.3780
 0.9210	52.3750
 0.9220	52.3690
 0.9230	52.3650
 0.9240	52.3610
 0.9250	52.3500
 0.9260	52.3380
 0.9270	52.3340
 0.9280	52.3230
 0.9290	52.3120
 0.9300	52.3050
 0.9310	52.2910
 0.9320	52.2710
 0.9330	52.2510
 0.9340	52.2340
 0.9350	52.2200
 0.9360	52.2000
 0.9370	52.1810
 0.9380	52.1620
 0.9390	52.1260
 0.9400	52.1120
 0.9410	52.0940
 0.9420	52.0560
 0.9430	52.0220
 0.9440	51.9880
 0.9450	51.9560
 0.9460	51.9240
 0.9470	51.8810
 0.9480	51.8320
 0.9490	51.7870
 0.9500	51.7490
 0.9510	51.6910
 0.9520	51.6350
 0.9530	51.5780
 0.9540	51.5150
 0.9550	51.4610
 0.9560	51.4050
 0.9570	51.3460
 0.9580	51.2890
 0.9590	51.2370
 0.9600	51.1870
 0.9610	51.1370
 0.9620	51.0890
 0.9630	51.0580
 0.9640	51.0420
 0.9650	51.0200
 0.9660	50.9800
 0.9670	50.9590
 0.9680	50.9400
 0.9690	50.9210
 0.9700	50.9050
 0.9710	50.8870
 0.9720	50.8730
 0.9730	50.8630
 0.9740	50.8540
 0.9750	50.8410
 0.9760	50.8250
 0.9770	50.8120
 0.9780	50.8070
 0.9790	50.8170
 0.9800	50.8170
 0.9810	50.8100
 0.9820	50.8120
 0.9830	50.8090
 0.9840	50.8110
 0.9850	50.8170
 0.9860	50.8200
 0.9870	50.8260
 0.9880	50.8350
 0.9890	50.8420
 0.9900	50.8480
 0.9910	50.8550
 0.9920	50.8790
 0.9930	50.9050
 0.9940	50.9100
 0.9950	50.9100
 0.9960	50.9130
 0.9970	50.9210
 0.9980	50.9400
 0.9990	50.9700
 1.0000	50.9880
 1.0010	51.3380
 1.0020	51.3560
 1.0030	51.3750
 1.0040	51.3930
 1.0050	51.4120
 1.0060	51.4340
 1.0070	51.4540
 1.0080	51.4730
 1.0090	51.4910
 1.0100	51.5080
 1.0110	51.5200
 1.0120	51.5380
 1.0130	51.5600
 1.0140	51.5790
 1.0150	51.5980
 1.0160	51.6210
 1.0170	51.6370
 1.0180	51.6510
 1.0190	51.6670
 1.0200	51.6820
 1.0210	51.7010
 1.0220	51.7210
 1.0230	51.7390
 1.0240	51.7600
 1.0250	51.7780
 1.0260	51.7940
 1.0270	51.8100
 1.0280	51.8240
 1.0290	51.8400
 1.0300	51.8550
 1.0310	51.8700
 1.0320	51.8850
 1.0330	51.9000
 1.0340	51.9180
 1.0350	51.9340
 1.0360	51.9470
 1.0370	51.9610
 1.0380	51.9730
 1.0390	51.9820
 1.0400	51.9930
 1.0410	52.0060
 1.0420	52.0180
 1.0430	52.0290
 1.0440	52.0390
 1.0450	52.0470
 1.0460	52.0570
 1.0470	52.0670
 1.0480	52.0750
 1.0490	52.0850
 1.0500	52.0940
 1.0510	52.1020
 1.0520	52.1090
 1.0530	52.1170
 1.0540	52.1260
 1.0550	52.1320
 1.0560	52.1370
 1.0570	52.1430
 1.0580	52.1470
 1.0590	52.1540
 1.0600	52.1650
 1.0610	52.1710
 1.0620	52.1750
 1.0630	52.1810
 1.0640	52.1830
 1.0650	52.1890
 1.0660	52.2030
 1.0670	52.2110
 1.0680	52.2170
 1.0690	52.2220
 1.0700	52.2270
 1.0710	52.2300
 1.0720	52.2340
 1.0730	52.2410
 1.0740	52.2450
 1.0750	52.2460
 1.0760	52.2490
 1.0770	52.2490
 1.0780	52.2510
 1.0790	52.2550
 1.0800	52.2570
 1.0810	52.2580
 1.0820	52.2600
 1.0830	52.2630
 1.0840	52.2640
 1.0850	52.2630
 1.0860	52.2660
 1.0870	52.2670
 1.0880	52.2670
 1.0890	52.2670
 1.0900	52.2710
 1.0910	52.2690
 1.0920	52.2650
 1.0930	52.2620
 1.0940	52.2570
 1.0950	52.2540
 1.0960	52.2520
 1.0970	52.2480
 1.0980	52.2430
 1.0990	52.2380
 1.1000	52.2310
 1.1010	52.2250
 1.1020	52.2190
 1.1030	52.2100
 1.1040	52.2020
 1.1050	52.1940
 1.1060	52.1850
 1.1070	52.1780
 1.1080	52.1690
 1.1090	52.1600
 1.1100	52.1480
 1.1110	52.1330
 1.1120	52.1190
 1.1130	52.1040
 1.1140	52.0880
 1.1150	52.0700
 1.1160	52.0530
 1.1170	52.0360
 1.1180	52.0150
 1.1190	51.9930
 1.1200	51.9690
 1.1210	51.9430
 1.1220	51.9110
 1.1230	51.8780
 1.1240	51.8430
 1.1250	51.8020
 1.1260	51.7590
 1.1270	51.7080
 1.1280	51.6500
 1.1290	51.5880
 1.1300	51.5190
 1.1310	51.4440
 1.1320	51.3660
 1.1330	51.2790
 1.1340	51.1860
 1.1350	51.0850
 1.1360	50.9780
 1.1370	50.8630
 1.1380	50.7420
 1.1390	50.6190
 1.1400	50.4910
 1.1410	50.3600
 1.1420	50.2280
 1.1430	50.0930
 1.1440	49.9590
 1.1450	49.8230
 1.1460	49.6910
 1.1470	49.5570
 1.1480	49.4300
 1.1490	49.3030
 1.1500	49.1870
 1.1510	49.0780
 1.1520	48.9740
 1.1530	48.8790
 1.1540	48.7890
 1.1550	48.7030
 1.1560	48.6250
 1.1570	48.5550
 1.1580	48.4900
 1.1590	48.4330
 1.1600	48.3810
 1.1610	48.3330
 1.1620	48.2910
 1.1630	48.2520
 1.1640	48.2160
 1.1650	48.1840
 1.1660	48.1540
 1.1670	48.1270
 1.1680	48.1040
 1.1690	48.0810
 1.1700	48.0610
 1.1710	48.0410
 1.1720	48.0210
 1.1730	48.0010
 1.1740	47.9820
 1.1750	47.9620
 1.1760	47.9420
 1.1770	47.9220
 1.1780	47.9020
 1.1790	47.8800
 1.1800	47.8570
 1.1810	47.8350
 1.1820	47.8130
 1.1830	47.7920
 1.1840	47.7710
 1.1850	47.7510
 1.1860	47.7330
 1.1870	47.7130
 1.1880	47.6950
 1.1890	47.6770
 1.1900	47.6630
 1.1910	47.6490
 1.1920	47.6370
 1.1930	47.6270
 1.1940	47.6200
 1.1950	47.6130
 1.1960	47.6070
 1.1970	47.6060
 1.1980	47.6070
 1.1990	47.6090
 1.2000	47.6140
 1.2010	47.6210
 1.2020	47.6300
 1.2030	47.6430
 1.2040	47.6570
 1.2050	47.6700
 1.2060	47.6850
 1.2070	47.7030
 1.2080	47.7200
 1.2090	47.7400
 1.2100	47.7630
 1.2110	47.7870
 1.2120	47.8110
 1.2130	47.8360
 1.2140	47.8640
 1.2150	47.8920
 1.2160	47.9210
 1.2170	47.9530
 1.2180	47.9860
 1.2190	48.0190
 1.2200	48.0520
 1.2210	48.0870
 1.2220	48.1210
 1.2230	48.1570
 1.2240	48.1940
 1.2250	48.2270
 1.2260	48.2590
 1.2270	48.2910
 1.2280	48.3190
 1.2290	48.3470
 1.2300	48.3760
 1.2310	48.4040
 1.2320	48.4330
 1.2330	48.4600
 1.2340	48.4860
 1.2350	48.5110
 1.2360	48.5350
 1.2370	48.5580
 1.2380	48.5810
 1.2390	48.6020
 1.2400	48.6230
 1.2410	48.6460
 1.2420	48.6670
 1.2430	48.6880
 1.2440	48.7070
 1.2450	48.7250
 1.2460	48.7410
 1.2470	48.7570
 1.2480	48.7720
 1.2490	48.7850
 1.2500	48.7990
 1.2510	48.8130
 1.2520	48.8250
 1.2530	48.8380
 1.2540	48.8480
 1.2550	48.8590
 1.2560	48.8720
 1.2570	48.8830
 1.2580	48.8920
 1.2590	48.9000
 1.2600	48.9030
 1.2610	48.9080
 1.2620	48.9120
 1.2630	48.9160
 1.2640	48.9190
 1.2650	48.9230
 1.2660	48.9230
 1.2670	48.9220
 1.2680	48.9210
 1.2690	48.9190
 1.2700	48.9190
 1.2710	48.9160
 1.2720	48.9100
 1.2730	48.9030
 1.2740	48.8940
 1.2750	48.8830
 1.2760	48.8740
 1.2770	48.8630
 1.2780	48.8500
 1.2790	48.8370
 1.2800	48.8230
 1.2810	48.8050
 1.2820	48.7850
 1.2830	48.7650
 1.2840	48.7420
 1.2850	48.7190
 1.2860	48.6990
 1.2870	48.6760
 1.2880	48.6500
 1.2890	48.6230
 1.2900	48.5960
 1.2910	48.5640
 1.2920	48.5320
 1.2930	48.4990
 1.2940	48.4620
 1.2950	48.4240
 1.2960	48.3830
 1.2970	48.3420
 1.2980	48.2980
 1.2990	48.2530
 1.3000	48.2060
 1.3010	48.1560
 1.3020	48.1050
 1.3030	48.0520
 1.3040	47.9980
 1.3050	47.9430
 1.3060	47.8840
 1.3070	47.8200
 1.3080	47.7530
 1.3090	47.6840
 1.3100	47.6130
 1.3110	47.5390
 1.3120	47.4620
 1.3130	47.3820
 1.3140	47.2980
 1.3150	47.2110
 1.3160	47.1210
 1.3170	47.0290
 1.3180	46.9340
 1.3190	46.8340
 1.3200	46.7320
 1.3210	46.6240
 1.3220	46.5150
 1.3230	46.4020
 1.3240	46.2860
 1.3250	46.1690
 1.3260	46.0500
 1.3270	45.9270
 1.3280	45.7980
 1.3290	45.6670
 1.3300	45.5330
 1.3310	45.3950
 1.3320	45.2570
 1.3330	45.1180
 1.3340	44.9770
 1.3350	44.8350
 1.3360	44.6910
 1.3370	44.5470
 1.3380	44.4020
 1.3390	44.2580
 1.3400	44.1130
 1.3410	43.9680
 1.3420	43.8240
 1.3430	43.6790
 1.3440	43.5350
 1.3450	43.3940
 1.3460	43.2520
 1.3470	43.1130
 1.3480	42.9760
 1.3490	42.8400
 1.3500	42.7060
 1.3510	42.5730
 1.3520	42.4400
 1.3530	42.3070
 1.3540	42.1750
 1.3550	42.0420
 1.3560	41.9080
 1.3570	41.7740
 1.3580	41.6380
 1.3590	41.5010
 1.3600	41.3620
 1.3610	41.2180
 1.3620	41.0700
 1.3630	40.9170
 1.3640	40.7590
 1.3650	40.5930
 1.3660	40.4220
 1.3670	40.2420
 1.3680	40.0520
 1.3690	39.8530
 1.3700	39.6420
 1.3710	39.4170
 1.3720	39.1770
 1.3730	38.9200
 1.3740	38.6470
 1.3750	38.3570
 1.3760	38.0470
 1.3770	37.7130
 1.3780	37.3500
 1.3790	36.9640
 1.3800	36.5530
 1.3810	36.1160
 1.3820	35.6590
 1.3830	35.1830
 1.3840	34.6840
 1.3850	34.1620
 1.3860	33.6250
 1.3870	33.0630
 1.3880	32.4970
 1.3890	31.9170
 1.3900	31.3250
 1.3910	30.7320
 1.3920	30.1320
 1.3930	29.5250
 1.3940	28.9220
 1.3950	28.3130
 1.3960	27.7120
 1.3970	27.1240
 1.3980	26.5440
 1.3990	25.9850
 1.4000	25.4400
 1.4010	24.9090
 1.4020	24.4000
 1.4030	23.9070
 1.4040	23.4360
 1.4050	22.9890
 1.4060	22.5620
 1.4070	22.1630
 1.4080	21.7850
 1.4090	21.4270
 1.4100	21.0950
 1.4110	20.7820
 1.4120	20.4890
 1.4130	20.2190
 1.4140	19.9660
 1.4150	19.7340
 1.4160	19.5190
 1.4170	19.3200
 1.4180	19.1370
 1.4190	18.9670
 1.4200	18.8100
 1.4210	18.6670
 1.4220	18.5350
 1.4230	18.4160
 1.4240	18.3070
 1.4250	18.2070
 1.4260	18.1180
 1.4270	18.0360
 1.4280	17.9620
 1.4290	17.8960
 1.4300	17.8380
 1.4310	17.7860
 1.4320	17.7420
 1.4330	17.7030
 1.4340	17.6710
 1.4350	17.6430
 1.4360	17.6210
 1.4370	17.6030
 1.4380	17.5890
 1.4390	17.5790
 1.4400	17.5730
 1.4410	17.5710
 1.4420	17.5730
 1.4430	17.5780
 1.4440	17.5860
 1.4450	17.5960
 1.4460	17.6090
 1.4470	17.6230
 1.4480	17.6390
 1.4490	17.6570
 1.4500	17.6750
 1.4510	17.6960
 1.4520	17.7190
 1.4530	17.7440
 1.4540	17.7690
 1.4550	17.7960
 1.4560	17.8250
 1.4570	17.8570
 1.4580	17.8930
 1.4590	17.9330
 1.4600	17.9760
 1.4610	18.0220
 1.4620	18.0730
 1.4630	18.1280
 1.4640	18.1880
 1.4650	18.2520
 1.4660	18.3210
 1.4670	18.3950
 1.4680	18.4740
 1.4690	18.5580
 1.4700	18.6460
 1.4710	18.7400
 1.4720	18.8370
 1.4730	18.9380
 1.4740	19.0430
 1.4750	19.1500
 1.4760	19.2610
 1.4770	19.3750
 1.4780	19.4900
