Name: Ceanothus spinosus 1
Type: vegetation
Class: Shrub
Genus: Ceanothus
Species: spinosus
Sample No.: VH199
Owner: UCSB
Wavelength Range: TIR
Origin: 34.4906; -119.7908; WGS84
Collection Date: 10/13/2013
Description: Samples were collected as part of the HyspIRI Airborne Campaign. 48 individual plants were sampled in three times in 2013 - spring  summer  and fall. The name of the sample includes a 1  2  or 3 which references a different individual of the species. Samples were taken to JPL and processed within 48 hours of collection. The same leaves were processed in the Nicolet and then measured using the ASD.
Measurement: Hemispherical reflectance
First Column: X
Second Column: Y
X Units: Wavelength (micrometers)
Y Units: Reflectance (percentage)
First X Value: 2.501
Last X Value: 15.387
Number of X Values: 1737
Additional Information: vegetation.shrub.ceanothus.spinosus.tir.vh199.ucsb.nicolet.ancillary.txt

 2.5010	 7.7740
 2.5030	 7.7600
 2.5040	 7.6960
 2.5050	 7.5750
 2.5060	 7.7270
 2.5070	 7.6680
 2.5090	 7.6080
 2.5100	 7.6580
 2.5110	 7.4700
 2.5120	 7.2260
 2.5140	 7.3690
 2.5150	 7.5560
 2.5160	 7.4440
 2.5170	 7.1570
 2.5180	 7.2310
 2.5200	 7.2840
 2.5210	 7.1710
 2.5220	 7.1250
 2.5230	 7.3950
 2.5250	 7.4710
 2.5260	 7.4720
 2.5270	 7.4110
 2.5280	 7.2190
 2.5290	 7.1030
 2.5310	 7.3210
 2.5320	 7.6230
 2.5330	 7.7310
 2.5340	 7.4170
 2.5360	 7.2770
 2.5370	 7.1940
 2.5380	 7.2210
 2.5390	 7.2010
 2.5410	 7.2220
 2.5420	 7.1740
 2.5430	 7.2250
 2.5440	 7.2200
 2.5460	 7.1730
 2.5470	 7.1480
 2.5480	 7.2690
 2.5490	 7.1880
 2.5510	 7.1710
 2.5520	 7.3050
 2.5530	 7.3790
 2.5540	 7.3860
 2.5560	 7.3400
 2.5570	 7.2790
 2.5580	 7.3210
 2.5590	 7.3310
 2.5610	 7.4280
 2.5620	 7.4080
 2.5630	 7.4290
 2.5640	 7.2540
 2.5660	 7.2620
 2.5670	 7.3360
 2.5680	 7.3640
 2.5700	 7.3590
 2.5710	 7.3380
 2.5720	 7.1760
 2.5730	 7.2350
 2.5750	 7.3210
 2.5760	 7.2180
 2.5770	 7.0420
 2.5790	 7.2090
 2.5800	 7.4380
 2.5810	 7.5550
 2.5820	 7.3850
 2.5840	 7.4220
 2.5850	 7.3320
 2.5860	 7.2500
 2.5880	 7.3930
 2.5890	 7.4660
 2.5900	 7.2280
 2.5910	 7.2810
 2.5930	 7.3160
 2.5940	 7.1590
 2.5950	 7.0340
 2.5970	 7.2050
 2.5980	 7.2150
 2.5990	 7.1300
 2.6000	 7.0730
 2.6020	 7.1810
 2.6030	 7.1830
 2.6040	 7.0510
 2.6060	 7.0060
 2.6070	 7.0760
 2.6080	 6.8800
 2.6100	 6.9000
 2.6110	 6.9680
 2.6120	 7.0290
 2.6140	 6.9330
 2.6150	 6.7770
 2.6160	 6.8980
 2.6180	 7.0100
 2.6190	 6.9640
 2.6200	 6.8640
 2.6220	 6.6680
 2.6230	 6.7010
 2.6240	 6.8520
 2.6260	 6.7490
 2.6270	 6.4370
 2.6280	 6.4490
 2.6300	 6.3120
 2.6310	 6.1790
 2.6320	 6.2810
 2.6340	 6.3470
 2.6350	 6.3280
 2.6360	 6.2820
 2.6380	 6.0790
 2.6390	 6.1310
 2.6400	 6.1650
 2.6420	 6.2070
 2.6430	 6.2120
 2.6440	 6.2000
 2.6460	 6.0540
 2.6470	 6.1250
 2.6480	 6.0940
 2.6500	 5.8220
 2.6510	 5.7480
 2.6520	 5.8240
 2.6540	 5.6380
 2.6550	 5.5350
 2.6560	 5.5720
 2.6580	 5.7690
 2.6590	 5.7790
 2.6610	 5.9540
 2.6620	 5.9820
 2.6630	 5.7430
 2.6650	 5.4710
 2.6660	 5.4160
 2.6670	 5.2560
 2.6690	 5.1240
 2.6700	 5.1560
 2.6720	 5.3430
 2.6730	 5.3210
 2.6740	 5.1890
 2.6760	 5.0240
 2.6770	 5.1390
 2.6780	 5.2010
 2.6800	 5.2350
 2.6810	 5.1700
 2.6830	 5.2520
 2.6840	 5.2390
 2.6850	 5.0830
 2.6870	 4.9090
 2.6880	 4.9030
 2.6900	 4.8570
 2.6910	 4.9920
 2.6920	 5.0790
 2.6940	 4.9190
 2.6950	 4.8600
 2.6970	 5.1270
 2.6980	 5.1040
 2.6990	 4.8520
 2.7010	 4.5210
 2.7020	 4.6310
 2.7040	 4.6860
 2.7050	 4.5790
 2.7060	 4.4800
 2.7080	 4.7250
 2.7090	 4.7830
 2.7110	 4.7510
 2.7120	 4.5900
 2.7130	 4.6050
 2.7150	 4.6210
 2.7160	 4.6390
 2.7180	 4.6570
 2.7190	 4.7040
 2.7210	 4.7060
 2.7220	 4.9990
 2.7230	 4.9220
 2.7250	 4.6840
 2.7260	 4.4460
 2.7280	 4.4820
 2.7290	 4.5470
 2.7310	 4.5310
 2.7320	 4.5430
 2.7330	 4.8250
 2.7350	 4.8040
 2.7360	 4.6970
 2.7380	 4.6190
 2.7390	 4.6210
 2.7410	 4.5730
 2.7420	 4.4000
 2.7440	 4.1550
 2.7450	 4.4090
 2.7470	 4.4870
 2.7480	 4.4660
 2.7490	 4.4360
 2.7510	 4.9050
 2.7520	 4.8930
 2.7540	 4.5230
 2.7550	 4.5010
 2.7570	 4.9360
 2.7580	 4.7100
 2.7600	 4.4970
 2.7610	 4.4580
 2.7630	 4.0770
 2.7640	 4.3560
 2.7660	 4.5550
 2.7670	 4.6210
 2.7680	 4.8000
 2.7700	 4.8300
 2.7710	 4.9210
 2.7730	 5.0030
 2.7740	 4.9740
 2.7760	 4.4520
 2.7770	 4.4430
 2.7790	 4.5400
 2.7800	 4.5630
 2.7820	 4.5610
 2.7830	 4.4780
 2.7850	 4.4660
 2.7860	 4.6040
 2.7880	 4.6260
 2.7890	 4.7230
 2.7910	 4.7520
 2.7920	 4.6080
 2.7940	 4.5700
 2.7950	 4.6650
 2.7970	 4.4140
 2.7980	 4.5180
 2.8000	 4.5210
 2.8010	 4.7500
 2.8030	 4.8650
 2.8040	 4.8760
 2.8060	 4.7680
 2.8070	 4.7650
 2.8090	 4.6610
 2.8110	 4.6680
 2.8120	 4.4290
 2.8140	 4.4250
 2.8150	 4.7410
 2.8170	 4.8990
 2.8180	 4.8310
 2.8200	 4.9810
 2.8210	 4.5930
 2.8230	 4.5840
 2.8240	 4.9570
 2.8260	 4.8100
 2.8270	 4.5160
 2.8290	 4.6220
 2.8300	 4.6870
 2.8320	 4.6690
 2.8340	 4.5750
 2.8350	 4.5800
 2.8370	 4.4230
 2.8380	 4.5240
 2.8400	 4.7550
 2.8410	 4.7440
 2.8430	 4.6440
 2.8440	 4.6920
 2.8460	 4.6960
 2.8480	 4.8100
 2.8490	 4.6350
 2.8510	 4.6320
 2.8520	 4.7230
 2.8540	 4.8930
 2.8550	 4.8350
 2.8570	 4.8480
 2.8590	 4.8730
 2.8600	 4.8370
 2.8620	 4.7860
 2.8630	 4.8470
 2.8650	 4.8210
 2.8660	 4.9880
 2.8680	 5.1470
 2.8700	 5.2920
 2.8710	 5.2840
 2.8730	 5.0270
 2.8740	 4.5070
 2.8760	 4.6380
 2.8780	 4.7240
 2.8790	 4.8200
 2.8810	 5.0100
 2.8820	 4.9700
 2.8840	 5.0060
 2.8860	 5.1140
 2.8870	 5.3800
 2.8890	 5.0420
 2.8900	 4.7230
 2.8920	 5.0560
 2.8940	 4.7130
 2.8950	 4.6230
 2.8970	 4.5360
 2.8980	 4.2280
 2.9000	 4.4610
 2.9020	 4.8500
 2.9030	 4.7920
 2.9050	 4.8140
 2.9070	 5.2380
 2.9080	 5.4840
 2.9100	 5.2100
 2.9120	 4.9940
 2.9130	 4.9380
 2.9150	 4.8030
 2.9160	 4.6170
 2.9180	 4.7650
 2.9200	 4.9340
 2.9210	 5.2880
 2.9230	 5.2020
 2.9250	 5.1860
 2.9260	 5.0560
 2.9280	 5.0780
 2.9300	 4.9330
 2.9310	 5.0020
 2.9330	 5.0800
 2.9350	 5.0120
 2.9360	 4.7880
 2.9380	 4.9010
 2.9400	 4.8320
 2.9410	 4.7940
 2.9430	 4.6560
 2.9450	 4.5850
 2.9460	 4.5270
 2.9480	 4.6140
 2.9500	 4.6800
 2.9510	 5.1010
 2.9530	 5.0960
 2.9550	 4.0730
 2.9560	 4.3580
 2.9580	 4.9390
 2.9600	 4.1470
 2.9610	 4.7050
 2.9630	 5.3340
 2.9650	 5.8360
 2.9660	 5.8190
 2.9680	 5.6270
 2.9700	 6.3260
 2.9720	 6.4140
 2.9730	 4.0050
 2.9750	 2.7630
 2.9770	 2.1640
 2.9780	 3.4160
 2.9800	 5.4530
 2.9820	 6.3100
 2.9840	 5.5820
 2.9850	 4.7370
 2.9870	 4.1500
 2.9890	 3.6900
 2.9900	 4.2320
 2.9920	 4.7660
 2.9940	 4.5000
 2.9960	 6.0210
 2.9970	 4.9840
 2.9990	 4.6190
 3.0010	 5.4010
 3.0030	 5.7410
 3.0040	 6.0450
 3.0060	 6.4720
 3.0080	 5.8930
 3.0100	 4.1150
 3.0110	 3.6860
 3.0130	 5.4730
 3.0150	 4.7720
 3.0170	 4.5850
 3.0180	 6.1910
 3.0200	 6.4500
 3.0220	 4.9940
 3.0240	 4.4360
 3.0250	 4.9090
 3.0270	 4.7280
 3.0290	 4.2010
 3.0310	 4.8850
 3.0320	 5.3630
 3.0340	 4.7480
 3.0360	 5.9370
 3.0380	 6.3080
 3.0400	 5.0580
 3.0410	 6.4140
 3.0430	 7.2870
 3.0450	 4.5160
 3.0470	 2.3050
 3.0480	 2.7490
 3.0500	 2.9250
 3.0520	 3.8040
 3.0540	 6.3110
 3.0560	 7.7920
 3.0570	 7.1070
 3.0590	 6.5650
 3.0610	 5.2790
 3.0630	 5.2280
 3.0650	 5.8540
 3.0660	 6.0340
 3.0680	 5.5940
 3.0700	 4.6520
 3.0720	 4.6820
 3.0740	 5.6300
 3.0760	 5.4010
 3.0770	 4.9440
 3.0790	 4.6540
 3.0810	 4.3920
 3.0830	 4.4700
 3.0850	 5.0100
 3.0870	 5.0420
 3.0880	 5.0400
 3.0900	 4.5650
 3.0920	 4.3090
 3.0940	 4.8410
 3.0960	 4.7810
 3.0980	 4.5760
 3.0990	 4.8230
 3.1010	 4.9200
 3.1030	 4.9580
 3.1050	 5.0490
 3.1070	 4.9280
 3.1090	 4.6140
 3.1110	 4.9400
 3.1120	 5.0180
 3.1140	 5.0670
 3.1160	 5.3610
 3.1180	 5.6860
 3.1200	 5.6660
 3.1220	 4.9330
 3.1240	 4.4720
 3.1260	 4.5870
 3.1270	 4.7360
 3.1290	 4.7360
 3.1310	 5.0910
 3.1330	 5.8140
 3.1350	 5.2270
 3.1370	 5.0800
 3.1390	 5.7480
 3.1410	 5.8830
 3.1430	 4.1980
 3.1450	 4.4050
 3.1460	 4.4320
 3.1480	 4.0330
 3.1500	 4.4900
 3.1520	 4.5350
 3.1540	 4.1820
 3.1560	 4.9810
 3.1580	 6.6820
 3.1600	 6.7950
 3.1620	 5.4950
 3.1640	 4.7630
 3.1660	 4.8160
 3.1680	 6.2710
 3.1700	 6.5990
 3.1710	 5.9830
 3.1730	 6.2380
 3.1750	 5.4160
 3.1770	 6.8740
 3.1790	 6.4980
 3.1810	 4.6090
 3.1830	 3.8930
 3.1850	 4.4290
 3.1870	 4.2440
 3.1890	 4.3690
 3.1910	 4.8700
 3.1930	 5.1240
 3.1950	 4.9330
 3.1970	 4.6260
 3.1990	 4.4300
 3.2010	 4.4910
 3.2030	 4.4080
 3.2050	 4.8460
 3.2070	 5.0510
 3.2090	 5.0810
 3.2110	 5.1520
 3.2130	 5.0080
 3.2150	 4.7600
 3.2170	 4.6280
 3.2190	 4.5270
 3.2210	 4.5240
 3.2230	 4.5840
 3.2250	 4.7230
 3.2270	 4.7190
 3.2290	 4.8900
 3.2310	 4.9320
 3.2330	 4.6530
 3.2350	 4.4880
 3.2370	 4.5960
 3.2390	 4.6260
 3.2410	 4.6120
 3.2430	 4.8970
 3.2450	 5.0430
 3.2470	 4.7630
 3.2490	 4.8280
 3.2510	 5.1000
 3.2530	 5.0270
 3.2550	 4.8190
 3.2570	 4.3090
 3.2590	 4.1260
 3.2610	 4.1310
 3.2630	 4.2870
 3.2650	 4.8880
 3.2670	 4.7010
 3.2690	 4.4480
 3.2720	 4.6430
 3.2740	 4.5510
 3.2760	 4.6470
 3.2780	 4.7320
 3.2800	 4.4960
 3.2820	 4.2600
 3.2840	 4.3070
 3.2860	 4.4580
 3.2880	 4.4270
 3.2900	 4.0910
 3.2920	 3.9330
 3.2940	 4.0750
 3.2960	 4.3800
 3.2990	 4.4630
 3.3010	 4.1020
 3.3030	 3.9710
 3.3050	 4.4020
 3.3070	 4.6290
 3.3090	 4.7260
 3.3110	 4.7090
 3.3130	 4.5120
 3.3150	 4.4520
 3.3180	 4.3090
 3.3200	 3.8290
 3.3220	 3.7050
 3.3240	 4.0460
 3.3260	 4.3880
 3.3280	 4.3730
 3.3300	 4.1710
 3.3330	 4.0980
 3.3350	 4.1340
 3.3370	 4.1750
 3.3390	 4.3370
 3.3410	 4.2130
 3.3430	 4.0420
 3.3450	 4.2400
 3.3480	 4.3110
 3.3500	 4.1060
 3.3520	 3.9240
 3.3540	 3.8270
 3.3560	 4.0120
 3.3580	 4.0790
 3.3610	 3.9670
 3.3630	 4.1030
 3.3650	 4.2030
 3.3670	 4.1670
 3.3690	 4.0670
 3.3720	 4.0380
 3.3740	 3.9930
 3.3760	 3.8880
 3.3780	 3.8930
 3.3800	 3.8920
 3.3830	 3.9840
 3.3850	 3.9960
 3.3870	 3.7870
 3.3890	 3.7090
 3.3910	 3.9300
 3.3940	 3.9800
 3.3960	 3.9850
 3.3980	 3.7690
 3.4000	 3.8240
 3.4020	 4.0230
 3.4050	 4.0870
 3.4070	 4.0720
 3.4090	 4.2150
 3.4110	 4.4040
 3.4140	 4.6710
 3.4160	 5.0690
 3.4180	 5.4290
 3.4200	 6.0310
 3.4230	 6.7590
 3.4250	 7.5240
 3.4270	 8.5310
 3.4290	 9.0500
 3.4320	 8.6970
 3.4340	 7.6620
 3.4360	 6.9090
 3.4390	 6.7720
 3.4410	 6.4360
 3.4430	 6.2760
 3.4450	 6.0180
 3.4480	 5.3860
 3.4500	 5.5940
 3.4520	 5.6180
 3.4550	 5.4860
 3.4570	 5.5000
 3.4590	 5.6900
 3.4620	 5.8770
 3.4640	 5.7820
 3.4660	 5.4660
 3.4680	 5.2400
 3.4710	 5.2830
 3.4730	 5.4120
 3.4750	 5.3050
 3.4780	 5.1380
 3.4800	 4.9510
 3.4820	 4.8730
 3.4850	 4.9120
 3.4870	 4.8220
 3.4890	 4.7560
 3.4920	 4.8050
 3.4940	 4.7930
 3.4970	 4.7750
 3.4990	 4.8890
 3.5010	 5.1340
 3.5040	 5.4780
 3.5060	 6.1090
 3.5080	 7.2770
 3.5110	 8.2710
 3.5130	 8.1190
 3.5160	 7.3230
 3.5180	 6.8430
 3.5200	 6.5550
 3.5230	 6.2520
 3.5250	 6.0780
 3.5270	 5.8590
 3.5300	 5.6860
 3.5320	 5.6490
 3.5350	 5.7670
 3.5370	 5.5550
 3.5400	 5.2510
 3.5420	 5.3640
 3.5440	 5.5250
 3.5470	 5.6220
 3.5490	 5.4800
 3.5520	 5.3290
 3.5540	 5.3410
 3.5570	 5.3360
 3.5590	 5.3510
 3.5610	 5.3180
 3.5640	 5.3830
 3.5660	 5.4430
 3.5690	 5.4730
 3.5710	 5.5480
 3.5740	 5.5880
 3.5760	 5.4040
 3.5790	 5.3800
 3.5810	 5.2730
 3.5840	 5.2300
 3.5860	 5.2490
 3.5890	 5.4430
 3.5910	 5.3400
 3.5930	 5.3420
 3.5960	 5.2870
 3.5980	 5.1640
 3.6010	 5.1490
 3.6030	 5.3660
 3.6060	 5.3880
 3.6080	 5.4310
 3.6110	 5.2090
 3.6140	 5.0970
 3.6160	 5.1730
 3.6190	 5.1250
 3.6210	 5.1040
 3.6240	 5.2430
 3.6260	 5.2460
 3.6290	 5.1510
 3.6310	 5.1400
 3.6340	 5.1460
 3.6360	 5.0470
 3.6390	 5.1580
 3.6410	 5.2420
 3.6440	 5.2050
 3.6470	 5.0580
 3.6490	 5.0130
 3.6520	 5.0270
 3.6540	 5.0970
 3.6570	 5.0200
 3.6590	 4.9740
 3.6620	 5.0560
 3.6650	 5.1090
 3.6670	 5.0090
 3.6700	 4.9420
 3.6720	 5.0820
 3.6750	 5.0640
 3.6780	 4.8990
 3.6800	 4.9270
 3.6830	 4.9710
 3.6850	 4.9820
 3.6880	 5.0270
 3.6910	 5.1040
 3.6930	 5.0000
 3.6960	 4.8940
 3.6990	 4.9590
 3.7010	 5.0520
 3.7040	 4.9790
 3.7060	 4.9740
 3.7090	 5.0490
 3.7120	 4.9720
 3.7140	 4.8330
 3.7170	 4.9520
 3.7200	 5.0540
 3.7220	 5.0640
 3.7250	 4.9670
 3.7280	 4.9110
 3.7300	 4.9300
 3.7330	 5.0670
 3.7360	 5.1480
 3.7390	 5.0750
 3.7410	 4.8750
 3.7440	 4.9470
 3.7470	 4.9990
 3.7490	 5.0390
 3.7520	 5.0540
 3.7550	 4.9680
 3.7580	 4.7670
 3.7600	 4.8450
 3.7630	 4.8040
 3.7660	 4.6770
 3.7680	 4.6480
 3.7710	 4.7850
 3.7740	 4.8690
 3.7770	 4.9020
 3.7790	 4.9140
 3.7820	 4.9670
 3.7850	 5.0490
 3.7880	 4.9930
 3.7900	 5.0140
 3.7930	 5.0030
 3.7960	 4.9630
 3.7990	 4.9380
 3.8020	 5.0600
 3.8040	 5.1530
 3.8070	 5.0540
 3.8100	 5.0270
 3.8130	 5.1270
 3.8160	 5.1040
 3.8180	 5.1390
 3.8210	 5.0310
 3.8240	 4.8880
 3.8270	 4.8860
 3.8300	 4.9910
 3.8330	 4.9910
 3.8350	 4.9450
 3.8380	 4.9680
 3.8410	 4.9270
 3.8440	 5.0680
 3.8470	 5.1100
 3.8500	 5.1070
 3.8520	 4.9420
 3.8550	 4.8070
 3.8580	 4.8810
 3.8610	 4.9600
 3.8640	 4.8550
 3.8670	 4.8940
 3.8700	 4.8380
 3.8730	 4.8290
 3.8750	 4.9720
 3.8780	 5.1230
 3.8810	 5.1630
 3.8840	 5.1620
 3.8870	 5.0820
 3.8900	 5.0430
 3.8930	 5.0330
 3.8960	 5.0700
 3.8990	 5.1270
 3.9020	 5.0540
 3.9050	 4.9140
 3.9080	 4.8280
 3.9110	 4.9280
 3.9140	 5.0190
 3.9160	 5.0540
 3.9190	 5.0560
 3.9220	 5.0860
 3.9250	 5.0780
 3.9280	 5.0870
 3.9310	 5.1750
 3.9340	 5.0980
 3.9370	 5.0560
 3.9400	 5.0290
 3.9430	 4.9970
 3.9460	 5.0780
 3.9490	 5.0730
 3.9520	 5.0520
 3.9550	 5.0120
 3.9580	 4.9020
 3.9610	 4.9580
 3.9640	 5.0770
 3.9670	 5.1160
 3.9700	 5.0150
 3.9730	 4.9730
 3.9770	 5.0320
 3.9800	 5.0890
 3.9830	 5.0840
 3.9860	 5.0960
 3.9890	 5.0030
 3.9920	 5.0050
 3.9950	 5.0730
 3.9980	 5.0820
 4.0010	 5.0440
 4.0040	 5.0480
 4.0070	 5.0740
 4.0100	 5.1120
 4.0130	 5.0640
 4.0170	 5.0360
 4.0200	 5.0730
 4.0230	 5.1220
 4.0260	 5.1030
 4.0290	 5.0640
 4.0320	 5.1010
 4.0350	 5.1340
 4.0380	 5.0520
 4.0420	 5.1050
 4.0450	 5.1160
 4.0480	 5.1150
 4.0510	 5.2180
 4.0540	 5.2180
 4.0570	 5.2390
 4.0610	 5.3040
 4.0640	 5.3000
 4.0670	 5.1910
 4.0700	 5.0550
 4.0730	 5.0390
 4.0770	 5.0260
 4.0800	 5.0800
 4.0830	 5.1150
 4.0860	 5.0870
 4.0890	 5.2200
 4.0930	 5.3480
 4.0960	 5.2610
 4.0990	 5.0840
 4.1020	 4.9210
 4.1060	 4.9020
 4.1090	 5.1040
 4.1120	 5.2340
 4.1150	 5.0280
 4.1190	 4.8690
 4.1220	 4.9520
 4.1250	 5.0620
 4.1280	 5.1000
 4.1320	 5.1450
 4.1350	 5.1140
 4.1380	 5.1070
 4.1420	 5.0250
 4.1450	 4.9880
 4.1480	 5.0490
 4.1520	 5.0830
 4.1550	 5.0880
 4.1580	 5.0990
 4.1620	 5.1490
 4.1650	 5.1760
 4.1680	 5.1430
 4.1720	 5.0910
 4.1750	 5.0730
 4.1780	 5.0930
 4.1820	 5.1210
 4.1850	 5.1190
 4.1890	 4.9980
 4.1920	 5.0340
 4.1950	 5.1180
 4.1990	 5.1630
 4.2020	 5.1260
 4.2060	 4.9670
 4.2090	 4.9470
 4.2120	 5.0000
 4.2160	 5.1570
 4.2190	 5.1740
 4.2230	 4.9320
 4.2260	 5.2770
 4.2300	 5.7190
 4.2330	 5.2370
 4.2360	 4.7940
 4.2400	 4.5990
 4.2430	 4.9350
 4.2470	 5.3790
 4.2500	 5.1070
 4.2540	 4.9280
 4.2570	 5.1000
 4.2610	 5.1330
 4.2640	 5.0850
 4.2680	 5.3600
 4.2710	 5.2810
 4.2750	 5.1380
 4.2780	 5.2910
 4.2820	 5.2500
 4.2850	 5.0630
 4.2890	 4.9980
 4.2930	 5.1380
 4.2960	 5.0940
 4.3000	 5.0260
 4.3030	 5.0420
 4.3070	 4.9970
 4.3100	 5.1110
 4.3140	 5.2320
 4.3180	 5.1430
 4.3210	 4.9240
 4.3250	 4.9190
 4.3280	 5.0050
 4.3320	 5.0440
 4.3360	 5.0810
 4.3390	 5.0370
 4.3430	 5.0080
 4.3470	 5.0030
 4.3500	 4.9090
 4.3540	 4.8890
 4.3570	 4.9590
 4.3610	 5.0220
 4.3650	 5.0260
 4.3680	 4.9800
 4.3720	 4.9690
 4.3760	 5.0030
 4.3800	 4.9740
 4.3830	 4.9680
 4.3870	 4.9640
 4.3910	 4.9710
 4.3940	 4.9590
 4.3980	 4.9280
 4.4020	 4.8950
 4.4060	 4.8850
 4.4090	 4.9300
 4.4130	 4.9980
 4.4170	 5.0270
 4.4210	 4.9770
 4.4240	 4.9460
 4.4280	 4.9160
 4.4320	 4.9390
 4.4360	 4.9930
 4.4400	 4.8590
 4.4430	 4.7940
 4.4470	 4.9870
 4.4510	 5.0210
 4.4550	 4.9270
 4.4590	 4.8880
 4.4620	 4.9150
 4.4660	 4.9210
 4.4700	 4.8450
 4.4740	 4.8330
 4.4780	 4.9210
 4.4820	 5.0030
 4.4860	 5.0110
 4.4900	 4.8910
 4.4930	 4.8590
 4.4970	 4.8880
 4.5010	 4.8970
 4.5050	 4.8990
 4.5090	 4.9230
 4.5130	 4.8270
 4.5170	 4.8190
 4.5210	 4.8710
 4.5250	 4.8670
 4.5290	 4.7960
 4.5330	 4.8610
 4.5370	 4.9080
 4.5410	 4.8720
 4.5450	 4.8580
 4.5490	 4.8480
 4.5530	 4.8160
 4.5570	 4.8420
 4.5610	 4.9670
 4.5650	 4.9280
 4.5690	 4.8060
 4.5730	 4.8640
 4.5770	 4.8870
 4.5810	 4.7990
 4.5850	 4.7850
 4.5890	 4.8950
 4.5930	 5.0180
 4.5970	 5.0590
 4.6010	 4.9040
 4.6050	 4.7490
 4.6090	 4.7260
 4.6130	 4.5570
 4.6170	 4.5740
 4.6220	 4.7890
 4.6260	 4.8530
 4.6300	 4.8400
 4.6340	 4.7740
 4.6380	 4.8750
 4.6420	 4.9600
 4.6460	 4.8480
 4.6510	 4.8070
 4.6550	 4.8050
 4.6590	 4.7270
 4.6630	 4.7290
 4.6670	 4.8310
 4.6720	 4.7730
 4.6760	 4.7450
 4.6800	 4.8240
 4.6840	 4.8700
 4.6880	 4.8360
 4.6930	 4.7200
 4.6970	 4.7500
 4.7010	 4.7560
 4.7050	 4.6870
 4.7100	 4.6350
 4.7140	 4.6610
 4.7180	 4.7730
 4.7230	 4.8680
 4.7270	 4.8530
 4.7310	 4.8470
 4.7360	 4.8750
 4.7400	 4.8570
 4.7440	 4.8540
 4.7490	 4.8450
 4.7530	 4.8470
 4.7570	 4.8010
 4.7620	 4.7730
 4.7660	 4.8210
 4.7700	 4.8090
 4.7750	 4.7800
 4.7790	 4.7890
 4.7840	 4.7950
 4.7880	 4.8520
 4.7920	 4.9380
 4.7970	 5.0880
 4.8010	 5.0160
 4.8060	 4.7610
 4.8100	 4.6700
 4.8150	 4.6690
 4.8190	 4.7860
 4.8240	 4.8130
 4.8280	 4.8700
 4.8330	 4.9130
 4.8370	 4.9080
 4.8420	 4.8770
 4.8460	 4.7660
 4.8510	 4.7610
 4.8550	 4.9170
 4.8600	 4.8950
 4.8640	 4.8610
 4.8690	 4.8070
 4.8730	 4.7830
 4.8780	 4.8150
 4.8830	 4.8320
 4.8870	 4.7630
 4.8920	 4.7300
 4.8960	 4.7720
 4.9010	 4.7960
 4.9060	 4.7510
 4.9100	 4.8270
 4.9150	 4.8920
 4.9200	 4.9300
 4.9240	 4.8710
 4.9290	 4.8280
 4.9340	 4.8760
 4.9380	 4.9050
 4.9430	 4.8700
 4.9480	 4.8430
 4.9530	 4.8010
 4.9570	 4.8430
 4.9620	 4.9040
 4.9670	 4.8960
 4.9720	 4.8250
 4.9760	 4.8270
 4.9810	 4.8070
 4.9860	 4.8050
 4.9910	 4.8130
 4.9960	 4.8120
 5.0000	 4.7390
 5.0050	 4.6920
 5.0100	 4.7870
 5.0150	 4.8220
 5.0200	 4.8140
 5.0250	 4.9430
 5.0290	 4.9060
 5.0340	 4.8390
 5.0390	 4.9070
 5.0440	 4.8990
 5.0490	 4.7620
 5.0540	 4.7200
 5.0590	 4.7630
 5.0640	 4.8750
 5.0690	 4.9270
 5.0740	 4.9450
 5.0790	 4.9410
 5.0840	 4.9550
 5.0890	 4.9460
 5.0940	 4.9420
 5.0990	 4.8310
 5.1040	 4.8350
 5.1090	 4.8520
 5.1140	 4.8870
 5.1190	 4.9060
 5.1240	 4.8610
 5.1290	 4.8890
 5.1340	 4.9640
 5.1390	 4.9240
 5.1440	 4.9360
 5.1490	 4.8790
 5.1540	 4.8650
 5.1600	 4.8380
 5.1650	 4.8960
 5.1700	 4.9560
 5.1750	 5.0240
 5.1800	 4.9820
 5.1850	 4.9510
 5.1910	 4.9730
 5.1960	 5.0020
 5.2010	 4.8760
 5.2060	 4.8680
 5.2110	 4.9120
 5.2170	 4.9050
 5.2220	 4.8810
 5.2270	 4.9180
 5.2320	 4.8970
 5.2380	 4.9500
 5.2430	 5.0120
 5.2480	 5.0360
 5.2540	 5.0530
 5.2590	 5.0870
 5.2640	 5.0900
 5.2700	 5.0220
 5.2750	 4.8540
 5.2800	 4.7650
 5.2860	 4.7940
 5.2910	 4.9350
 5.2970	 4.8940
 5.3020	 4.8900
 5.3070	 4.8940
 5.3130	 4.9420
 5.3180	 4.9340
 5.3240	 4.9350
 5.3290	 4.8600
 5.3350	 4.9270
 5.3400	 4.9480
 5.3460	 4.8830
 5.3510	 4.8030
 5.3570	 4.8160
 5.3620	 4.8090
 5.3680	 4.8520
 5.3730	 4.8370
 5.3790	 4.9280
 5.3850	 4.9160
 5.3900	 4.7790
 5.3960	 4.7500
 5.4010	 4.9170
 5.4070	 4.9300
 5.4130	 4.8340
 5.4180	 4.7720
 5.4240	 4.8030
 5.4300	 4.8620
 5.4350	 4.8420
