Name: Arctostaphylos glandulosa 1
Type: vegetation
Class: Shrub
Genus: Arctostaphylos
Species: glandulosa
Sample No.: VH117
Owner: UCSB
Wavelength Range: TIR
Origin: 34.5084; -119.7682; WGS84
Collection Date: 6/3/2013
Description: Samples were collected as part of the HyspIRI Airborne Campaign. 48 individual plants were sampled in three times in 2013 - spring  summer  and fall. The name of the sample includes a 1  2  or 3 which references a different individual of the species. Samples were taken to JPL and processed within 48 hours of collection. The same leaves were processed in the Nicolet and then measured using the ASD.
Measurement: Hemispherical reflectance
First Column: X
Second Column: Y
X Units: Wavelength (micrometers)
Y Units: Reflectance (percentage)
First X Value: 2.501
Last X Value: 15.387
Number of X Values: 1737
Additional Information: vegetation.shrub.arctostaphylos.glandulosa.tir.vh117.ucsb.nicolet.ancillary.txt

 2.5010	 2.7020
 2.5030	 2.7330
 2.5040	 2.7010
 2.5050	 2.6750
 2.5060	 2.7050
 2.5070	 2.6910
 2.5090	 2.7090
 2.5100	 2.6700
 2.5110	 2.6740
 2.5120	 2.7200
 2.5140	 2.7990
 2.5150	 2.7600
 2.5160	 2.7000
 2.5170	 2.6750
 2.5180	 2.7020
 2.5200	 2.6360
 2.5210	 2.6410
 2.5220	 2.6330
 2.5230	 2.5830
 2.5250	 2.5690
 2.5260	 2.6610
 2.5270	 2.6710
 2.5280	 2.6980
 2.5290	 2.6600
 2.5310	 2.6730
 2.5320	 2.6560
 2.5330	 2.6690
 2.5340	 2.7190
 2.5360	 2.7780
 2.5370	 2.7280
 2.5380	 2.6980
 2.5390	 2.7020
 2.5410	 2.7190
 2.5420	 2.6890
 2.5430	 2.6470
 2.5440	 2.6130
 2.5460	 2.6800
 2.5470	 2.7780
 2.5480	 2.7800
 2.5490	 2.7190
 2.5510	 2.7630
 2.5520	 2.7180
 2.5530	 2.6930
 2.5540	 2.7090
 2.5560	 2.7160
 2.5570	 2.6720
 2.5580	 2.7290
 2.5590	 2.7950
 2.5610	 2.7990
 2.5620	 2.7610
 2.5630	 2.7600
 2.5640	 2.7530
 2.5660	 2.7720
 2.5670	 2.7760
 2.5680	 2.8080
 2.5700	 2.7670
 2.5710	 2.7260
 2.5720	 2.7100
 2.5730	 2.7620
 2.5750	 2.7260
 2.5760	 2.7070
 2.5770	 2.7430
 2.5790	 2.7760
 2.5800	 2.8330
 2.5810	 2.8720
 2.5820	 2.7690
 2.5840	 2.7600
 2.5850	 2.7320
 2.5860	 2.7430
 2.5880	 2.7650
 2.5890	 2.7440
 2.5900	 2.6680
 2.5910	 2.7190
 2.5930	 2.7090
 2.5940	 2.7260
 2.5950	 2.6900
 2.5970	 2.6730
 2.5980	 2.6340
 2.5990	 2.6800
 2.6000	 2.6920
 2.6020	 2.6790
 2.6030	 2.6290
 2.6040	 2.6640
 2.6060	 2.6910
 2.6070	 2.6990
 2.6080	 2.6760
 2.6100	 2.7070
 2.6110	 2.6590
 2.6120	 2.6330
 2.6140	 2.6300
 2.6150	 2.6420
 2.6160	 2.6170
 2.6180	 2.6100
 2.6190	 2.5790
 2.6200	 2.5610
 2.6220	 2.5300
 2.6230	 2.5060
 2.6240	 2.4780
 2.6260	 2.5030
 2.6270	 2.4490
 2.6280	 2.4680
 2.6300	 2.5160
 2.6310	 2.5380
 2.6320	 2.5030
 2.6340	 2.4600
 2.6350	 2.4200
 2.6360	 2.4330
 2.6380	 2.3970
 2.6390	 2.3860
 2.6400	 2.3480
 2.6420	 2.3710
 2.6430	 2.3930
 2.6440	 2.3920
 2.6460	 2.3630
 2.6470	 2.3380
 2.6480	 2.2790
 2.6500	 2.2830
 2.6510	 2.2800
 2.6520	 2.3020
 2.6540	 2.2820
 2.6550	 2.2660
 2.6560	 2.1910
 2.6580	 2.2000
 2.6590	 2.1900
 2.6610	 2.2100
 2.6620	 2.1920
 2.6630	 2.1970
 2.6650	 2.1730
 2.6660	 2.1390
 2.6670	 2.0580
 2.6690	 2.0420
 2.6700	 2.0230
 2.6720	 2.0530
 2.6730	 2.0400
 2.6740	 2.0220
 2.6760	 1.9530
 2.6770	 1.9800
 2.6780	 1.9850
 2.6800	 2.0020
 2.6810	 1.9630
 2.6830	 1.9380
 2.6840	 1.8900
 2.6850	 1.9250
 2.6870	 1.9270
 2.6880	 1.9350
 2.6900	 1.8780
 2.6910	 1.8180
 2.6920	 1.7720
 2.6940	 1.7490
 2.6950	 1.7690
 2.6970	 1.8510
 2.6980	 1.7700
 2.6990	 1.7130
 2.7010	 1.6980
 2.7020	 1.7170
 2.7040	 1.6360
 2.7050	 1.6340
 2.7060	 1.6090
 2.7080	 1.5980
 2.7090	 1.5600
 2.7110	 1.5500
 2.7120	 1.5080
 2.7130	 1.5190
 2.7150	 1.5120
 2.7160	 1.5590
 2.7180	 1.5760
 2.7190	 1.5710
 2.7210	 1.5360
 2.7220	 1.5370
 2.7230	 1.4990
 2.7250	 1.4460
 2.7260	 1.3830
 2.7280	 1.4460
 2.7290	 1.4340
 2.7310	 1.4160
 2.7320	 1.4050
 2.7330	 1.4260
 2.7350	 1.3610
 2.7360	 1.3570
 2.7380	 1.3550
 2.7390	 1.3860
 2.7410	 1.3150
 2.7420	 1.3120
 2.7440	 1.3060
 2.7450	 1.3310
 2.7470	 1.3570
 2.7480	 1.3900
 2.7490	 1.3730
 2.7510	 1.4070
 2.7520	 1.3890
 2.7540	 1.3470
 2.7550	 1.3340
 2.7570	 1.3600
 2.7580	 1.2850
 2.7600	 1.2710
 2.7610	 1.2420
 2.7630	 1.2670
 2.7640	 1.2380
 2.7660	 1.2870
 2.7670	 1.2560
 2.7680	 1.2490
 2.7700	 1.2310
 2.7710	 1.2270
 2.7730	 1.2020
 2.7740	 1.2430
 2.7760	 1.2420
 2.7770	 1.2460
 2.7790	 1.2090
 2.7800	 1.2460
 2.7820	 1.2530
 2.7830	 1.2920
 2.7850	 1.3070
 2.7860	 1.3210
 2.7880	 1.2640
 2.7890	 1.2370
 2.7910	 1.2200
 2.7920	 1.2640
 2.7940	 1.1920
 2.7950	 1.2160
 2.7970	 1.2570
 2.7980	 1.2900
 2.8000	 1.2880
 2.8010	 1.3390
 2.8030	 1.2730
 2.8040	 1.2910
 2.8060	 1.3190
 2.8070	 1.3200
 2.8090	 1.2740
 2.8110	 1.2510
 2.8120	 1.2390
 2.8140	 1.2860
 2.8150	 1.2140
 2.8170	 1.2060
 2.8180	 1.2370
 2.8200	 1.2850
 2.8210	 1.2630
 2.8230	 1.2400
 2.8240	 1.2240
 2.8260	 1.2690
 2.8270	 1.2500
 2.8290	 1.2540
 2.8300	 1.1990
 2.8320	 1.2230
 2.8340	 1.2720
 2.8350	 1.2860
 2.8370	 1.2010
 2.8380	 1.2200
 2.8400	 1.2260
 2.8410	 1.2320
 2.8430	 1.1990
 2.8440	 1.2280
 2.8460	 1.2470
 2.8480	 1.2740
 2.8490	 1.2100
 2.8510	 1.2010
 2.8520	 1.1940
 2.8540	 1.1980
 2.8550	 1.1690
 2.8570	 1.2210
 2.8590	 1.2560
 2.8600	 1.2830
 2.8620	 1.2180
 2.8630	 1.2560
 2.8650	 1.2710
 2.8660	 1.2770
 2.8680	 1.3150
 2.8700	 1.3350
 2.8710	 1.2800
 2.8730	 1.3040
 2.8740	 1.3160
 2.8760	 1.3120
 2.8780	 1.2720
 2.8790	 1.2770
 2.8810	 1.2430
 2.8820	 1.2420
 2.8840	 1.2100
 2.8860	 1.2800
 2.8870	 1.3090
 2.8890	 1.3080
 2.8900	 1.2700
 2.8920	 1.2870
 2.8940	 1.2690
 2.8950	 1.3290
 2.8970	 1.2900
 2.8980	 1.3320
 2.9000	 1.3130
 2.9020	 1.2850
 2.9030	 1.2890
 2.9050	 1.3210
 2.9070	 1.2850
 2.9080	 1.3230
 2.9100	 1.3030
 2.9120	 1.3010
 2.9130	 1.2880
 2.9150	 1.2770
 2.9160	 1.2420
 2.9180	 1.2820
 2.9200	 1.2830
 2.9210	 1.3110
 2.9230	 1.2890
 2.9250	 1.3010
 2.9260	 1.2670
 2.9280	 1.2840
 2.9300	 1.3130
 2.9310	 1.2940
 2.9330	 1.2050
 2.9350	 1.2360
 2.9360	 1.3160
 2.9380	 1.3520
 2.9400	 1.2700
 2.9410	 1.3010
 2.9430	 1.2990
 2.9450	 1.3090
 2.9460	 1.2980
 2.9480	 1.3210
 2.9500	 1.3030
 2.9510	 1.2800
 2.9530	 1.2540
 2.9550	 1.3480
 2.9560	 1.3550
 2.9580	 1.3140
 2.9600	 1.2680
 2.9610	 1.2490
 2.9630	 1.2260
 2.9650	 1.2450
 2.9660	 1.2600
 2.9680	 1.3200
 2.9700	 1.2740
 2.9720	 1.2980
 2.9730	 1.3740
 2.9750	 1.4280
 2.9770	 1.3790
 2.9780	 1.3430
 2.9800	 1.3120
 2.9820	 1.3150
 2.9840	 1.2860
 2.9850	 1.3320
 2.9870	 1.3780
 2.9890	 1.4140
 2.9900	 1.4030
 2.9920	 1.4720
 2.9940	 1.4630
 2.9960	 1.3940
 2.9970	 1.3100
 2.9990	 1.3220
 3.0010	 1.3630
 3.0030	 1.3900
 3.0040	 1.3090
 3.0060	 1.3230
 3.0080	 1.3570
 3.0100	 1.3700
 3.0110	 1.3350
 3.0130	 1.3520
 3.0150	 1.3830
 3.0170	 1.4220
 3.0180	 1.4010
 3.0200	 1.3560
 3.0220	 1.3520
 3.0240	 1.4320
 3.0250	 1.3660
 3.0270	 1.3360
 3.0290	 1.3440
 3.0310	 1.3660
 3.0320	 1.3640
 3.0340	 1.3980
 3.0360	 1.4120
 3.0380	 1.4500
 3.0400	 1.4130
 3.0410	 1.3970
 3.0430	 1.3730
 3.0450	 1.3910
 3.0470	 1.3900
 3.0480	 1.4200
 3.0500	 1.3850
 3.0520	 1.3700
 3.0540	 1.3660
 3.0560	 1.3840
 3.0570	 1.3600
 3.0590	 1.4180
 3.0610	 1.4320
 3.0630	 1.4000
 3.0650	 1.3870
 3.0660	 1.3980
 3.0680	 1.3790
 3.0700	 1.4140
 3.0720	 1.4320
 3.0740	 1.4060
 3.0760	 1.4010
 3.0770	 1.4260
 3.0790	 1.3900
 3.0810	 1.3880
 3.0830	 1.3730
 3.0850	 1.3570
 3.0870	 1.3440
 3.0880	 1.3330
 3.0900	 1.2970
 3.0920	 1.3030
 3.0940	 1.3130
 3.0960	 1.3630
 3.0980	 1.3780
 3.0990	 1.4170
 3.1010	 1.3920
 3.1030	 1.3600
 3.1050	 1.3550
 3.1070	 1.3910
 3.1090	 1.4000
 3.1110	 1.3850
 3.1120	 1.3510
 3.1140	 1.3680
 3.1160	 1.3640
 3.1180	 1.4100
 3.1200	 1.4070
 3.1220	 1.3580
 3.1240	 1.3520
 3.1260	 1.3780
 3.1270	 1.4140
 3.1290	 1.4240
 3.1310	 1.4040
 3.1330	 1.4040
 3.1350	 1.3610
 3.1370	 1.3630
 3.1390	 1.3420
 3.1410	 1.4100
 3.1430	 1.4310
 3.1450	 1.4040
 3.1460	 1.3570
 3.1480	 1.3680
 3.1500	 1.3980
 3.1520	 1.3810
 3.1540	 1.3430
 3.1560	 1.3760
 3.1580	 1.3720
 3.1600	 1.4100
 3.1620	 1.3770
 3.1640	 1.3710
 3.1660	 1.4030
 3.1680	 1.4170
 3.1700	 1.3480
 3.1710	 1.3450
 3.1730	 1.3150
 3.1750	 1.3380
 3.1770	 1.3760
 3.1790	 1.3510
 3.1810	 1.2770
 3.1830	 1.3080
 3.1850	 1.3640
 3.1870	 1.4140
 3.1890	 1.3960
 3.1910	 1.3870
 3.1930	 1.3510
 3.1950	 1.3510
 3.1970	 1.3380
 3.1990	 1.3630
 3.2010	 1.3500
 3.2030	 1.3380
 3.2050	 1.3350
 3.2070	 1.3980
 3.2090	 1.3700
 3.2110	 1.3580
 3.2130	 1.3390
 3.2150	 1.3840
 3.2170	 1.3960
 3.2190	 1.4150
 3.2210	 1.3870
 3.2230	 1.3680
 3.2250	 1.3400
 3.2270	 1.3130
 3.2290	 1.3080
 3.2310	 1.3920
 3.2330	 1.3870
 3.2350	 1.3490
 3.2370	 1.3510
 3.2390	 1.3750
 3.2410	 1.3380
 3.2430	 1.3680
 3.2450	 1.3670
 3.2470	 1.3470
 3.2490	 1.3250
 3.2510	 1.3390
 3.2530	 1.3660
 3.2550	 1.4250
 3.2570	 1.3810
 3.2590	 1.3500
 3.2610	 1.3060
 3.2630	 1.3610
 3.2650	 1.3990
 3.2670	 1.3720
 3.2690	 1.3280
 3.2720	 1.3620
 3.2740	 1.3350
 3.2760	 1.3350
 3.2780	 1.3170
 3.2800	 1.3080
 3.2820	 1.3180
 3.2840	 1.3520
 3.2860	 1.3380
 3.2880	 1.3550
 3.2900	 1.3210
 3.2920	 1.3140
 3.2940	 1.3030
 3.2960	 1.3380
 3.2990	 1.3340
 3.3010	 1.3340
 3.3030	 1.3030
 3.3050	 1.3370
 3.3070	 1.3430
 3.3090	 1.3440
 3.3110	 1.3120
 3.3130	 1.2970
 3.3150	 1.2850
 3.3180	 1.2840
 3.3200	 1.2460
 3.3220	 1.2800
 3.3240	 1.2740
 3.3260	 1.2580
 3.3280	 1.2420
 3.3300	 1.2810
 3.3330	 1.2930
 3.3350	 1.2870
 3.3370	 1.2370
 3.3390	 1.2500
 3.3410	 1.2610
 3.3430	 1.2590
 3.3450	 1.2130
 3.3480	 1.2420
 3.3500	 1.2340
 3.3520	 1.2330
 3.3540	 1.2340
 3.3560	 1.2340
 3.3580	 1.2120
 3.3610	 1.2020
 3.3630	 1.2190
 3.3650	 1.2590
 3.3670	 1.2230
 3.3690	 1.2130
 3.3720	 1.2110
 3.3740	 1.2140
 3.3760	 1.1760
 3.3780	 1.2250
 3.3800	 1.2730
 3.3830	 1.2820
 3.3850	 1.2270
 3.3870	 1.2440
 3.3890	 1.2090
 3.3910	 1.1950
 3.3940	 1.2150
 3.3960	 1.2450
 3.3980	 1.2010
 3.4000	 1.1760
 3.4020	 1.1850
 3.4050	 1.2330
 3.4070	 1.1940
 3.4090	 1.2190
 3.4110	 1.2600
 3.4140	 1.3180
 3.4160	 1.3510
 3.4180	 1.4380
 3.4200	 1.5310
 3.4230	 1.7390
 3.4250	 1.9690
 3.4270	 2.1460
 3.4290	 2.2210
 3.4320	 2.1930
 3.4340	 2.0710
 3.4360	 1.9540
 3.4390	 1.7970
 3.4410	 1.6980
 3.4430	 1.6640
 3.4450	 1.6520
 3.4480	 1.5860
 3.4500	 1.5700
 3.4520	 1.5750
 3.4550	 1.6010
 3.4570	 1.5730
 3.4590	 1.5690
 3.4620	 1.5740
 3.4640	 1.5550
 3.4660	 1.5100
 3.4680	 1.5120
 3.4710	 1.5200
 3.4730	 1.5220
 3.4750	 1.5050
 3.4780	 1.4750
 3.4800	 1.4200
 3.4820	 1.4230
 3.4850	 1.4300
 3.4870	 1.4140
 3.4890	 1.3610
 3.4920	 1.3880
 3.4940	 1.3910
 3.4970	 1.4010
 3.4990	 1.3990
 3.5010	 1.4340
 3.5040	 1.4360
 3.5060	 1.5730
 3.5080	 1.8530
 3.5110	 2.1350
 3.5130	 2.1280
 3.5160	 1.9670
 3.5180	 1.8510
 3.5200	 1.7780
 3.5230	 1.7080
 3.5250	 1.7000
 3.5270	 1.7090
 3.5300	 1.7070
 3.5320	 1.6540
 3.5350	 1.6520
 3.5370	 1.6380
 3.5400	 1.6220
 3.5420	 1.5690
 3.5440	 1.5560
 3.5470	 1.5860
 3.5490	 1.6060
 3.5520	 1.5930
 3.5540	 1.6160
 3.5570	 1.6070
 3.5590	 1.6050
 3.5610	 1.5990
 3.5640	 1.6070
 3.5660	 1.5690
 3.5690	 1.5720
 3.5710	 1.5970
 3.5740	 1.6160
 3.5760	 1.6060
 3.5790	 1.6120
 3.5810	 1.6190
 3.5840	 1.6290
 3.5860	 1.5950
 3.5890	 1.5820
 3.5910	 1.5770
 3.5930	 1.5710
 3.5960	 1.5660
 3.5980	 1.5840
 3.6010	 1.5910
 3.6030	 1.6170
 3.6060	 1.5980
 3.6080	 1.6020
 3.6110	 1.5910
 3.6140	 1.5880
 3.6160	 1.5490
 3.6190	 1.5730
 3.6210	 1.5660
 3.6240	 1.5540
 3.6260	 1.5640
 3.6290	 1.5510
 3.6310	 1.5220
 3.6340	 1.5550
 3.6360	 1.5970
 3.6390	 1.6190
 3.6410	 1.6100
 3.6440	 1.6090
 3.6470	 1.5980
 3.6490	 1.6180
 3.6520	 1.6000
 3.6540	 1.5550
 3.6570	 1.5770
 3.6590	 1.6040
 3.6620	 1.5730
 3.6650	 1.5610
 3.6670	 1.5810
 3.6700	 1.6290
 3.6720	 1.6280
 3.6750	 1.5890
 3.6780	 1.5830
 3.6800	 1.5930
 3.6830	 1.5550
 3.6850	 1.5970
 3.6880	 1.6020
 3.6910	 1.5670
 3.6930	 1.5680
 3.6960	 1.6040
 3.6990	 1.6030
 3.7010	 1.5900
 3.7040	 1.6030
 3.7060	 1.6080
 3.7090	 1.6190
 3.7120	 1.6410
 3.7140	 1.6280
 3.7170	 1.6200
 3.7200	 1.5960
 3.7220	 1.6030
 3.7250	 1.6170
 3.7280	 1.6290
 3.7300	 1.6240
 3.7330	 1.6190
 3.7360	 1.5810
 3.7390	 1.5780
 3.7410	 1.5840
 3.7440	 1.6210
 3.7470	 1.6230
 3.7490	 1.6440
 3.7520	 1.6320
 3.7550	 1.6200
 3.7580	 1.6260
 3.7600	 1.6080
 3.7630	 1.5790
 3.7660	 1.5950
 3.7680	 1.5930
 3.7710	 1.5960
 3.7740	 1.6050
 3.7770	 1.6390
 3.7790	 1.6360
 3.7820	 1.6460
 3.7850	 1.6410
 3.7880	 1.6270
 3.7900	 1.6450
 3.7930	 1.6740
 3.7960	 1.6800
 3.7990	 1.6910
 3.8020	 1.6990
 3.8040	 1.7010
 3.8070	 1.7010
 3.8100	 1.7030
 3.8130	 1.6580
 3.8160	 1.6650
 3.8180	 1.6700
 3.8210	 1.6670
 3.8240	 1.6800
 3.8270	 1.7100
 3.8300	 1.7360
 3.8330	 1.7240
 3.8350	 1.6720
 3.8380	 1.6530
 3.8410	 1.6710
 3.8440	 1.7240
 3.8470	 1.7010
 3.8500	 1.6720
 3.8520	 1.6640
 3.8550	 1.6550
 3.8580	 1.6590
 3.8610	 1.6760
 3.8640	 1.6720
 3.8670	 1.6900
 3.8700	 1.6860
 3.8730	 1.7010
 3.8750	 1.7200
 3.8780	 1.7430
 3.8810	 1.7080
 3.8840	 1.7010
 3.8870	 1.7170
 3.8900	 1.7370
 3.8930	 1.7210
 3.8960	 1.7120
 3.8990	 1.6550
 3.9020	 1.6790
 3.9050	 1.6990
 3.9080	 1.7200
 3.9110	 1.7270
 3.9140	 1.7340
 3.9160	 1.7480
 3.9190	 1.7680
 3.9220	 1.7460
 3.9250	 1.7290
 3.9280	 1.7240
 3.9310	 1.7400
 3.9340	 1.7280
 3.9370	 1.7550
 3.9400	 1.7610
 3.9430	 1.7670
 3.9460	 1.7440
 3.9490	 1.7420
 3.9520	 1.7120
 3.9550	 1.7190
 3.9580	 1.7390
 3.9610	 1.7590
 3.9640	 1.7650
 3.9670	 1.7830
 3.9700	 1.7980
 3.9730	 1.8000
 3.9770	 1.7980
 3.9800	 1.8110
 3.9830	 1.7920
 3.9860	 1.7820
 3.9890	 1.7830
 3.9920	 1.7790
 3.9950	 1.7720
 3.9980	 1.7810
 4.0010	 1.7850
 4.0040	 1.7730
 4.0070	 1.7630
 4.0100	 1.7940
 4.0130	 1.8140
 4.0170	 1.8390
 4.0200	 1.8110
 4.0230	 1.7970
 4.0260	 1.7900
 4.0290	 1.7810
 4.0320	 1.7950
 4.0350	 1.8200
 4.0380	 1.8210
 4.0420	 1.7830
 4.0450	 1.7690
 4.0480	 1.8240
 4.0510	 1.8380
 4.0540	 1.8270
 4.0570	 1.7910
 4.0610	 1.7970
 4.0640	 1.8420
 4.0670	 1.8400
 4.0700	 1.8140
 4.0730	 1.8250
 4.0770	 1.8400
 4.0800	 1.8580
 4.0830	 1.8400
 4.0860	 1.8420
 4.0890	 1.8250
 4.0930	 1.8240
 4.0960	 1.8140
 4.0990	 1.8300
 4.1020	 1.8310
 4.1060	 1.8360
 4.1090	 1.8420
 4.1120	 1.8340
 4.1150	 1.8280
 4.1190	 1.8560
 4.1220	 1.8670
 4.1250	 1.8760
 4.1280	 1.8590
 4.1320	 1.8220
 4.1350	 1.8280
 4.1380	 1.8640
 4.1420	 1.8500
 4.1450	 1.8160
 4.1480	 1.8000
 4.1520	 1.8260
 4.1550	 1.8520
 4.1580	 1.8850
 4.1620	 1.8640
 4.1650	 1.8420
 4.1680	 1.8410
 4.1720	 1.8330
 4.1750	 1.8350
 4.1780	 1.8540
 4.1820	 1.8540
 4.1850	 1.8410
 4.1890	 1.8400
 4.1920	 1.8500
 4.1950	 1.8520
 4.1990	 1.8530
 4.2020	 1.8230
 4.2060	 1.8330
 4.2090	 1.8500
 4.2120	 1.8740
 4.2160	 1.8780
 4.2190	 1.8890
 4.2230	 1.8790
 4.2260	 1.8720
 4.2300	 1.8650
 4.2330	 1.9060
 4.2360	 1.8640
 4.2400	 1.8870
 4.2430	 1.9350
 4.2470	 1.9070
 4.2500	 1.9000
 4.2540	 1.8800
 4.2570	 1.8170
 4.2610	 1.8500
 4.2640	 1.9310
 4.2680	 1.9270
 4.2710	 1.8460
 4.2750	 1.8430
 4.2780	 1.8350
 4.2820	 1.8310
 4.2850	 1.8330
 4.2890	 1.8200
 4.2930	 1.7910
 4.2960	 1.7750
 4.3000	 1.8000
 4.3030	 1.8440
 4.3070	 1.8240
 4.3100	 1.8170
 4.3140	 1.8120
 4.3180	 1.7970
 4.3210	 1.8330
 4.3250	 1.8570
 4.3280	 1.8430
 4.3320	 1.8010
 4.3360	 1.7830
 4.3390	 1.8350
 4.3430	 1.8420
 4.3470	 1.8230
 4.3500	 1.7810
 4.3540	 1.7560
 4.3570	 1.7640
 4.3610	 1.8010
 4.3650	 1.7940
 4.3680	 1.7630
 4.3720	 1.7200
 4.3760	 1.7340
 4.3800	 1.7720
 4.3830	 1.7830
 4.3870	 1.7730
 4.3910	 1.7650
 4.3940	 1.7810
 4.3980	 1.7820
 4.4020	 1.7450
 4.4060	 1.7420
 4.4090	 1.7450
 4.4130	 1.7480
 4.4170	 1.7920
 4.4210	 1.8040
 4.4240	 1.7760
 4.4280	 1.7730
 4.4320	 1.7680
 4.4360	 1.7590
 4.4400	 1.7610
 4.4430	 1.7670
 4.4470	 1.7790
 4.4510	 1.7820
 4.4550	 1.7510
 4.4590	 1.7540
 4.4620	 1.7630
 4.4660	 1.7440
 4.4700	 1.7100
 4.4740	 1.7180
 4.4780	 1.7450
 4.4820	 1.7670
 4.4860	 1.7420
 4.4900	 1.7090
 4.4930	 1.7010
 4.4970	 1.6940
 4.5010	 1.7040
 4.5050	 1.7330
 4.5090	 1.7200
 4.5130	 1.6950
 4.5170	 1.7040
 4.5210	 1.7200
 4.5250	 1.7080
 4.5290	 1.7000
 4.5330	 1.7040
 4.5370	 1.7200
 4.5410	 1.7220
 4.5450	 1.6930
 4.5490	 1.6850
 4.5530	 1.7020
 4.5570	 1.6950
 4.5610	 1.6760
 4.5650	 1.6770
 4.5690	 1.6890
 4.5730	 1.6780
 4.5770	 1.6990
 4.5810	 1.7150
 4.5850	 1.6950
 4.5890	 1.6970
 4.5930	 1.7030
 4.5970	 1.6850
 4.6010	 1.6730
 4.6050	 1.6770
 4.6090	 1.6680
 4.6130	 1.6550
 4.6170	 1.6510
 4.6220	 1.6580
 4.6260	 1.6760
 4.6300	 1.6920
 4.6340	 1.6990
 4.6380	 1.6970
 4.6420	 1.6930
 4.6460	 1.6650
 4.6510	 1.6470
 4.6550	 1.6570
 4.6590	 1.6760
 4.6630	 1.6690
 4.6670	 1.6450
 4.6720	 1.6610
 4.6760	 1.6620
 4.6800	 1.6590
 4.6840	 1.6490
 4.6880	 1.6120
 4.6930	 1.6040
 4.6970	 1.6380
 4.7010	 1.6790
 4.7050	 1.6740
 4.7100	 1.6600
 4.7140	 1.6410
 4.7180	 1.6300
 4.7230	 1.6630
 4.7270	 1.6790
 4.7310	 1.6470
 4.7360	 1.6320
 4.7400	 1.6410
 4.7440	 1.6470
 4.7490	 1.6620
 4.7530	 1.6680
 4.7570	 1.6650
 4.7620	 1.6520
 4.7660	 1.6580
 4.7700	 1.6640
 4.7750	 1.6670
 4.7790	 1.6590
 4.7840	 1.6840
 4.7880	 1.6780
 4.7920	 1.6560
 4.7970	 1.6560
 4.8010	 1.6770
 4.8060	 1.6600
 4.8100	 1.6580
 4.8150	 1.6630
 4.8190	 1.6440
 4.8240	 1.6530
 4.8280	 1.6900
 4.8330	 1.6990
 4.8370	 1.6870
 4.8420	 1.6670
 4.8460	 1.6820
 4.8510	 1.6570
 4.8550	 1.6520
 4.8600	 1.6820
 4.8640	 1.7070
 4.8690	 1.6950
 4.8730	 1.6870
 4.8780	 1.6580
 4.8830	 1.6500
 4.8870	 1.6700
 4.8920	 1.6970
 4.8960	 1.6810
 4.9010	 1.6600
 4.9060	 1.6770
 4.9100	 1.7100
 4.9150	 1.6930
 4.9200	 1.6890
 4.9240	 1.6820
 4.9290	 1.6840
 4.9340	 1.6730
 4.9380	 1.6660
 4.9430	 1.6320
 4.9480	 1.6390
 4.9530	 1.6910
 4.9570	 1.7310
 4.9620	 1.7350
 4.9670	 1.7270
 4.9720	 1.7060
 4.9760	 1.7040
 4.9810	 1.7080
 4.9860	 1.7090
 4.9910	 1.6910
 4.9960	 1.6980
 5.0000	 1.7110
 5.0050	 1.7260
 5.0100	 1.7540
 5.0150	 1.7690
 5.0200	 1.7240
 5.0250	 1.6900
 5.0290	 1.6750
 5.0340	 1.6830
 5.0390	 1.6910
 5.0440	 1.6990
 5.0490	 1.7160
 5.0540	 1.7110
 5.0590	 1.6920
 5.0640	 1.7180
 5.0690	 1.7290
 5.0740	 1.7280
 5.0790	 1.7040
 5.0840	 1.6930
 5.0890	 1.6940
 5.0940	 1.7410
 5.0990	 1.7350
 5.1040	 1.7370
 5.1090	 1.7360
 5.1140	 1.7550
 5.1190	 1.7480
 5.1240	 1.7310
 5.1290	 1.7550
 5.1340	 1.7750
 5.1390	 1.7690
 5.1440	 1.7800
 5.1490	 1.7680
 5.1540	 1.7380
 5.1600	 1.6830
 5.1650	 1.6850
 5.1700	 1.7160
 5.1750	 1.7550
 5.1800	 1.7340
 5.1850	 1.7290
 5.1910	 1.7490
 5.1960	 1.7670
 5.2010	 1.7430
 5.2060	 1.7470
 5.2110	 1.7350
 5.2170	 1.7580
 5.2220	 1.7640
 5.2270	 1.7390
 5.2320	 1.7520
 5.2380	 1.7900
 5.2430	 1.7900
 5.2480	 1.7740
 5.2540	 1.7520
 5.2590	 1.7620
 5.2640	 1.7760
 5.2700	 1.7620
 5.2750	 1.7410
 5.2800	 1.7590
 5.2860	 1.7600
 5.2910	 1.7520
 5.2970	 1.7340
 5.3020	 1.7390
 5.3070	 1.7390
 5.3130	 1.7530
 5.3180	 1.7420
 5.3240	 1.7200
 5.3290	 1.6760
 5.3350	 1.6830
 5.3400	 1.7020
 5.3460	 1.7280
 5.3510	 1.7070
 5.3570	 1.7120
 5.3620	 1.6840
 5.3680	 1.6680
 5.3730	 1.6920
 5.3790	 1.7190
 5.3850	 1.6730
 5.3900	 1.6640
 5.3960	 1.6970
 5.4010	 1.7450
 5.4070	 1.7180
 5.4130	 1.6880
 5.4180	 1.6600
 5.4240	 1.6850
 5.4300	 1.6950
