Name: Beaucarnea recurvata
Type: vegetation
Class: Tree
Genus: Beaucarnea
Species: recurvata
Sample No.: JPL068
Owner: JPL
Wavelength Range: VSWIR
Origin: 34.12603; - 118.11015; WGS84
Collection Date: 2/2/2016
Description: Samples were collected at the Huntington Garden in San Marino California as part of a JPL Subcontract studying HyTES imagery. Samples were taken to JPL and processed within 48 hours of collection. The same leaves were processed in the Nicolet and then measured using the ASD.
Measurement: Bidirectional reflectance
First Column: X
Second Column: Y
X Units: Wavelength (micrometer)
Y Units: Reflectance (percentage)
First X Value: 0.35
Last X Value: 2.5
Number of X Values: 2151
Additional Information: 

 0.3500	 7.3590
 0.3510	 7.2020
 0.3520	 6.6330
 0.3530	 5.3210
 0.3540	 3.6060
 0.3550	 3.6480
 0.3560	 4.3740
 0.3570	 5.4650
 0.3580	 6.8350
 0.3590	 6.1500
 0.3600	 5.9020
 0.3610	 6.7300
 0.3620	 6.0580
 0.3630	 5.5120
 0.3640	 5.5540
 0.3650	 6.1020
 0.3660	 6.4330
 0.3670	 6.2360
 0.3680	 5.6080
 0.3690	 4.9790
 0.3700	 4.9500
 0.3710	 5.3420
 0.3720	 5.8310
 0.3730	 6.1400
 0.3740	 6.1470
 0.3750	 6.0090
 0.3760	 5.9140
 0.3770	 5.6150
 0.3780	 5.3550
 0.3790	 5.4230
 0.3800	 6.0230
 0.3810	 6.0280
 0.3820	 5.7190
 0.3830	 5.5980
 0.3840	 6.2050
 0.3850	 5.8340
 0.3860	 5.3440
 0.3870	 6.0540
 0.3880	 6.1730
 0.3890	 6.0790
 0.3900	 6.0220
 0.3910	 5.9600
 0.3920	 5.4570
 0.3930	 5.1620
 0.3940	 5.5110
 0.3950	 5.9240
 0.3960	 5.8300
 0.3970	 5.5730
 0.3980	 5.8010
 0.3990	 5.7100
 0.4000	 5.7430
 0.4010	 5.9860
 0.4020	 5.9250
 0.4030	 5.9660
 0.4040	 6.0260
 0.4050	 5.9930
 0.4060	 6.0970
 0.4070	 6.0480
 0.4080	 6.0170
 0.4090	 6.3920
 0.4100	 6.5650
 0.4110	 6.5660
 0.4120	 6.4700
 0.4130	 6.2630
 0.4140	 6.1270
 0.4150	 6.1190
 0.4160	 6.2390
 0.4170	 6.5260
 0.4180	 6.6450
 0.4190	 6.5610
 0.4200	 6.5110
 0.4210	 6.3330
 0.4220	 6.2870
 0.4230	 6.4990
 0.4240	 6.5970
 0.4250	 6.7010
 0.4260	 6.7280
 0.4270	 6.5710
 0.4280	 6.6560
 0.4290	 6.7300
 0.4300	 6.6670
 0.4310	 6.5990
 0.4320	 6.5990
 0.4330	 6.5820
 0.4340	 6.4850
 0.4350	 6.5060
 0.4360	 6.5950
 0.4370	 6.6690
 0.4380	 6.6330
 0.4390	 6.6310
 0.4400	 6.6380
 0.4410	 6.6300
 0.4420	 6.6380
 0.4430	 6.6770
 0.4440	 6.7490
 0.4450	 6.8280
 0.4460	 6.7910
 0.4470	 6.7900
 0.4480	 6.8540
 0.4490	 6.8490
 0.4500	 6.8070
 0.4510	 6.7930
 0.4520	 6.8460
 0.4530	 6.9100
 0.4540	 6.9660
 0.4550	 7.0060
 0.4560	 7.0250
 0.4570	 6.9950
 0.4580	 6.9950
 0.4590	 7.0340
 0.4600	 6.9750
 0.4610	 6.9920
 0.4620	 7.0700
 0.4630	 7.1290
 0.4640	 7.1060
 0.4650	 7.0840
 0.4660	 7.0940
 0.4670	 7.0980
 0.4680	 7.0910
 0.4690	 7.0940
 0.4700	 7.1150
 0.4710	 7.1060
 0.4720	 7.1100
 0.4730	 7.1150
 0.4740	 7.0920
 0.4750	 7.1060
 0.4760	 7.1350
 0.4770	 7.1610
 0.4780	 7.1800
 0.4790	 7.2050
 0.4800	 7.2120
 0.4810	 7.1860
 0.4820	 7.1940
 0.4830	 7.1870
 0.4840	 7.1690
 0.4850	 7.1880
 0.4860	 7.1980
 0.4870	 7.2350
 0.4880	 7.3020
 0.4890	 7.2810
 0.4900	 7.3110
 0.4910	 7.3730
 0.4920	 7.3790
 0.4930	 7.3970
 0.4940	 7.4510
 0.4950	 7.5400
 0.4960	 7.6360
 0.4970	 7.6690
 0.4980	 7.6970
 0.4990	 7.7970
 0.5000	 7.9430
 0.5010	 8.0370
 0.5020	 8.0910
 0.5030	 8.2110
 0.5040	 8.3690
 0.5050	 8.5150
 0.5060	 8.6350
 0.5070	 8.8130
 0.5080	 9.0180
 0.5090	 9.2290
 0.5100	 9.4360
 0.5110	 9.6450
 0.5120	 9.8770
 0.5130	10.1320
 0.5140	10.3860
 0.5150	10.6450
 0.5160	10.9350
 0.5170	11.2630
 0.5180	11.5590
 0.5190	11.8470
 0.5200	12.1410
 0.5210	12.4530
 0.5220	12.8320
 0.5230	13.1630
 0.5240	13.3990
 0.5250	13.6800
 0.5260	13.9920
 0.5270	14.2990
 0.5280	14.5570
 0.5290	14.7490
 0.5300	14.9650
 0.5310	15.2200
 0.5320	15.4230
 0.5330	15.5850
 0.5340	15.7260
 0.5350	15.8650
 0.5360	15.9820
 0.5370	16.0870
 0.5380	16.1840
 0.5390	16.2740
 0.5400	16.3640
 0.5410	16.4710
 0.5420	16.5860
 0.5430	16.6450
 0.5440	16.6870
 0.5450	16.7340
 0.5460	16.7950
 0.5470	16.8200
 0.5480	16.8190
 0.5490	16.8200
 0.5500	16.8690
 0.5510	16.9250
 0.5520	16.9440
 0.5530	16.9050
 0.5540	16.8550
 0.5550	16.8200
 0.5560	16.7860
 0.5570	16.7130
 0.5580	16.6320
 0.5590	16.5390
 0.5600	16.4380
 0.5610	16.3730
 0.5620	16.2520
 0.5630	16.0890
 0.5640	15.9370
 0.5650	15.7870
 0.5660	15.6330
 0.5670	15.4640
 0.5680	15.2760
 0.5690	15.0970
 0.5700	14.9290
 0.5710	14.7620
 0.5720	14.5770
 0.5730	14.4010
 0.5740	14.2330
 0.5750	14.0580
 0.5760	13.9250
 0.5770	13.8170
 0.5780	13.7150
 0.5790	13.6180
 0.5800	13.5190
 0.5810	13.4140
 0.5820	13.3010
 0.5830	13.1760
 0.5840	13.0740
 0.5850	12.9950
 0.5860	12.9030
 0.5870	12.8250
 0.5880	12.7580
 0.5890	12.6920
 0.5900	12.6350
 0.5910	12.5780
 0.5920	12.5310
 0.5930	12.5030
 0.5940	12.4520
 0.5950	12.4030
 0.5960	12.3690
 0.5970	12.3380
 0.5980	12.3130
 0.5990	12.2780
 0.6000	12.2180
 0.6010	12.1630
 0.6020	12.1290
 0.6030	12.0980
 0.6040	12.0230
 0.6050	11.9430
 0.6060	11.8670
 0.6070	11.7980
 0.6080	11.7300
 0.6090	11.6350
 0.6100	11.5290
 0.6110	11.4460
 0.6120	11.3430
 0.6130	11.2320
 0.6140	11.1270
 0.6150	11.0310
 0.6160	10.9320
 0.6170	10.8520
 0.6180	10.8010
 0.6190	10.7150
 0.6200	10.6500
 0.6210	10.6060
 0.6220	10.5490
 0.6230	10.5090
 0.6240	10.4770
 0.6250	10.4430
 0.6260	10.4140
 0.6270	10.3980
 0.6280	10.3880
 0.6290	10.3780
 0.6300	10.3870
 0.6310	10.3790
 0.6320	10.3480
 0.6330	10.3230
 0.6340	10.2900
 0.6350	10.2490
 0.6360	10.1990
 0.6370	10.1290
 0.6380	10.0520
 0.6390	 9.9640
 0.6400	 9.8530
 0.6410	 9.7460
 0.6420	 9.6490
 0.6430	 9.5490
 0.6440	 9.4150
 0.6450	 9.2990
 0.6460	 9.1970
 0.6470	 9.0930
 0.6480	 9.0000
 0.6490	 8.9170
 0.6500	 8.8470
 0.6510	 8.7930
 0.6520	 8.7250
 0.6530	 8.6770
 0.6540	 8.6590
 0.6550	 8.6120
 0.6560	 8.5490
 0.6570	 8.4800
 0.6580	 8.4120
 0.6590	 8.3370
 0.6600	 8.2470
 0.6610	 8.1500
 0.6620	 8.0680
 0.6630	 7.9760
 0.6640	 7.8860
 0.6650	 7.8130
 0.6660	 7.7620
 0.6670	 7.7280
 0.6680	 7.6980
 0.6690	 7.6620
 0.6700	 7.6400
 0.6710	 7.6300
 0.6720	 7.6300
 0.6730	 7.6500
 0.6740	 7.6700
 0.6750	 7.6940
 0.6760	 7.7260
 0.6770	 7.7500
 0.6780	 7.7910
 0.6790	 7.8530
 0.6800	 7.9310
 0.6810	 8.0280
 0.6820	 8.1210
 0.6830	 8.2170
 0.6840	 8.3690
 0.6850	 8.5230
 0.6860	 8.7040
 0.6870	 8.9470
 0.6880	 9.2200
 0.6890	 9.5470
 0.6900	 9.9390
 0.6910	10.3920
 0.6920	10.9170
 0.6930	11.5180
 0.6940	12.1960
 0.6950	12.9400
 0.6960	13.7430
 0.6970	14.5880
 0.6980	15.4610
 0.6990	16.3780
 0.7000	17.3300
 0.7010	18.3020
 0.7020	19.2700
 0.7030	20.2320
 0.7040	21.1920
 0.7050	22.1510
 0.7060	23.1030
 0.7070	24.0370
 0.7080	24.9670
 0.7090	25.9080
 0.7100	26.8240
 0.7110	27.7180
 0.7120	28.6040
 0.7130	29.5050
 0.7140	30.4160
 0.7150	31.3220
 0.7160	32.2090
 0.7170	33.0800
 0.7180	33.9630
 0.7190	34.8360
 0.7200	35.6700
 0.7210	36.5070
 0.7220	37.3210
 0.7230	38.1110
 0.7240	38.8990
 0.7250	39.6540
 0.7260	40.3770
 0.7270	41.0730
 0.7280	41.7410
 0.7290	42.3900
 0.7300	43.0170
 0.7310	43.6060
 0.7320	44.1550
 0.7330	44.6730
 0.7340	45.1700
 0.7350	45.6620
 0.7360	46.0930
 0.7370	46.4920
 0.7380	46.8870
 0.7390	47.2540
 0.7400	47.5850
 0.7410	47.8800
 0.7420	48.1460
 0.7430	48.3970
 0.7440	48.6200
 0.7450	48.8320
 0.7460	49.0760
 0.7470	49.2520
 0.7480	49.3770
 0.7490	49.4890
 0.7500	49.6270
 0.7510	49.7280
 0.7520	49.8160
 0.7530	49.9250
 0.7540	50.0050
 0.7550	50.0660
 0.7560	50.1110
 0.7570	50.1370
 0.7580	50.2180
 0.7590	50.2770
 0.7600	50.2830
 0.7610	50.3130
 0.7620	50.3410
 0.7630	50.3690
 0.7640	50.3940
 0.7650	50.3890
 0.7660	50.3920
 0.7670	50.4000
 0.7680	50.3950
 0.7690	50.4120
 0.7700	50.4200
 0.7710	50.4130
 0.7720	50.4310
 0.7730	50.4330
 0.7740	50.4200
 0.7750	50.4060
 0.7760	50.4000
 0.7770	50.4070
 0.7780	50.4110
 0.7790	50.3970
 0.7800	50.4060
 0.7810	50.4210
 0.7820	50.4240
 0.7830	50.4040
 0.7840	50.4020
 0.7850	50.3940
 0.7860	50.3720
 0.7870	50.3910
 0.7880	50.4010
 0.7890	50.3940
 0.7900	50.3770
 0.7910	50.3770
 0.7920	50.3780
 0.7930	50.3750
 0.7940	50.3700
 0.7950	50.3800
 0.7960	50.3800
 0.7970	50.3650
 0.7980	50.3580
 0.7990	50.3420
 0.8000	50.3360
 0.8010	50.3520
 0.8020	50.3370
 0.8030	50.3100
 0.8040	50.2940
 0.8050	50.3060
 0.8060	50.3100
 0.8070	50.2960
 0.8080	50.2740
 0.8090	50.2580
 0.8100	50.2470
 0.8110	50.2460
 0.8120	50.2500
 0.8130	50.2400
 0.8140	50.2070
 0.8150	50.1970
 0.8160	50.2240
 0.8170	50.1800
 0.8180	50.1580
 0.8190	50.1630
 0.8200	50.1530
 0.8210	50.1100
 0.8220	50.0930
 0.8230	50.1110
 0.8240	50.1230
 0.8250	50.1020
 0.8260	50.0680
 0.8270	50.0390
 0.8280	50.0120
 0.8290	50.0150
 0.8300	50.0300
 0.8310	50.0290
 0.8320	50.0050
 0.8330	49.9900
 0.8340	49.9880
 0.8350	49.9850
 0.8360	49.9810
 0.8370	49.9800
 0.8380	49.9740
 0.8390	49.9440
 0.8400	49.9430
 0.8410	49.9540
 0.8420	49.9640
 0.8430	49.9720
 0.8440	49.9810
 0.8450	49.9940
 0.8460	50.0020
 0.8470	49.9680
 0.8480	49.9580
 0.8490	49.9650
 0.8500	49.9630
 0.8510	49.9640
 0.8520	49.9930
 0.8530	50.0230
 0.8540	50.0100
 0.8550	50.0030
 0.8560	50.0050
 0.8570	50.0140
 0.8580	50.0260
 0.8590	50.0420
 0.8600	50.0620
 0.8610	50.0790
 0.8620	50.0750
 0.8630	50.0690
 0.8640	50.0680
 0.8650	50.0730
 0.8660	50.0780
 0.8670	50.0990
 0.8680	50.1240
 0.8690	50.1320
 0.8700	50.1130
 0.8710	50.1120
 0.8720	50.1250
 0.8730	50.1270
 0.8740	50.1410
 0.8750	50.1560
 0.8760	50.1700
 0.8770	50.1890
 0.8780	50.1960
 0.8790	50.1780
 0.8800	50.1540
 0.8810	50.1780
 0.8820	50.1970
 0.8830	50.1920
 0.8840	50.1740
 0.8850	50.1980
 0.8860	50.2150
 0.8870	50.2220
 0.8880	50.2250
 0.8890	50.2010
 0.8900	50.1960
 0.8910	50.2190
 0.8920	50.2460
 0.8930	50.2160
 0.8940	50.2050
 0.8950	50.2250
 0.8960	50.2380
 0.8970	50.1970
 0.8980	50.1810
 0.8990	50.2170
 0.9000	50.2660
 0.9010	50.2240
 0.9020	50.1930
 0.9030	50.2150
 0.9040	50.2140
 0.9050	50.1820
 0.9060	50.1590
 0.9070	50.1640
 0.9080	50.1570
 0.9090	50.1720
 0.9100	50.1940
 0.9110	50.2000
 0.9120	50.2000
 0.9130	50.1790
 0.9140	50.1440
 0.9150	50.1110
 0.9160	50.0690
 0.9170	50.0770
 0.9180	50.1100
 0.9190	50.1080
 0.9200	50.0370
 0.9210	49.9850
 0.9220	49.9690
 0.9230	49.9580
 0.9240	49.9460
 0.9250	49.9160
 0.9260	49.8740
 0.9270	49.8350
 0.9280	49.7460
 0.9290	49.7210
 0.9300	49.7610
 0.9310	49.7530
 0.9320	49.6770
 0.9330	49.5880
 0.9340	49.5280
 0.9350	49.4970
 0.9360	49.4340
 0.9370	49.3720
 0.9380	49.3250
 0.9390	49.2520
 0.9400	49.2060
 0.9410	49.1810
 0.9420	49.1460
 0.9430	49.0600
 0.9440	48.9550
 0.9450	48.8740
 0.9460	48.8330
 0.9470	48.7840
 0.9480	48.6360
 0.9490	48.4950
 0.9500	48.4400
 0.9510	48.3310
 0.9520	48.2380
 0.9530	48.1420
 0.9540	48.0150
 0.9550	47.8960
 0.9560	47.7250
 0.9570	47.5900
 0.9580	47.5550
 0.9590	47.4450
 0.9600	47.3390
 0.9610	47.2640
 0.9620	47.2170
 0.9630	47.1640
 0.9640	47.1090
 0.9650	47.0300
 0.9660	46.9290
 0.9670	46.9210
 0.9680	46.9250
 0.9690	46.9340
 0.9700	46.9550
 0.9710	46.8850
 0.9720	46.8700
 0.9730	46.8750
 0.9740	46.8120
 0.9750	46.7900
 0.9760	46.7830
 0.9770	46.7700
 0.9780	46.7350
 0.9790	46.6660
 0.9800	46.6820
 0.9810	46.7430
 0.9820	46.7420
 0.9830	46.7060
 0.9840	46.6950
 0.9850	46.7330
 0.9860	46.8040
 0.9870	46.7810
 0.9880	46.8270
 0.9890	46.8860
 0.9900	46.8430
 0.9910	46.8870
 0.9920	46.9110
 0.9930	46.9220
 0.9940	46.9720
 0.9950	46.9950
 0.9960	47.0200
 0.9970	47.0610
 0.9980	47.1090
 0.9990	47.0790
 1.0000	47.1300
 1.0010	46.9860
 1.0020	47.0310
 1.0030	47.0970
 1.0040	47.1580
 1.0050	47.1680
 1.0060	47.1990
 1.0070	47.2290
 1.0080	47.2730
 1.0090	47.3520
 1.0100	47.4100
 1.0110	47.4530
 1.0120	47.5030
 1.0130	47.5610
 1.0140	47.6060
 1.0150	47.6430
 1.0160	47.6790
 1.0170	47.7280
 1.0180	47.7460
 1.0190	47.7950
 1.0200	47.8600
 1.0210	47.8780
 1.0220	47.9340
 1.0230	47.9870
 1.0240	48.0400
 1.0250	48.0790
 1.0260	48.1280
 1.0270	48.1650
 1.0280	48.1740
 1.0290	48.2000
 1.0300	48.2390
 1.0310	48.2770
 1.0320	48.3070
 1.0330	48.3600
 1.0340	48.4070
 1.0350	48.4330
 1.0360	48.4700
 1.0370	48.4910
 1.0380	48.5190
 1.0390	48.5490
 1.0400	48.5890
 1.0410	48.6330
 1.0420	48.6680
 1.0430	48.6990
 1.0440	48.7370
 1.0450	48.7750
 1.0460	48.8110
 1.0470	48.8580
 1.0480	48.8970
 1.0490	48.9330
 1.0500	48.9540
 1.0510	48.9580
 1.0520	48.9770
 1.0530	48.9900
 1.0540	48.9880
 1.0550	48.9980
 1.0560	49.0170
 1.0570	49.0350
 1.0580	49.0560
 1.0590	49.0720
 1.0600	49.0880
 1.0610	49.1090
 1.0620	49.1300
 1.0630	49.1490
 1.0640	49.1790
 1.0650	49.1950
 1.0660	49.1870
 1.0670	49.1980
 1.0680	49.2150
 1.0690	49.2420
 1.0700	49.2460
 1.0710	49.2560
 1.0720	49.2540
 1.0730	49.2280
 1.0740	49.2140
 1.0750	49.1980
 1.0760	49.1960
 1.0770	49.1870
 1.0780	49.2040
 1.0790	49.2740
 1.0800	49.2920
 1.0810	49.3070
 1.0820	49.3050
 1.0830	49.2560
 1.0840	49.2270
 1.0850	49.1950
 1.0860	49.1740
 1.0870	49.1620
 1.0880	49.1640
 1.0890	49.1590
 1.0900	49.1600
 1.0910	49.1590
 1.0920	49.1580
 1.0930	49.1470
 1.0940	49.1450
 1.0950	49.1220
 1.0960	49.0700
 1.0970	49.0380
 1.0980	48.9910
 1.0990	48.9690
 1.1000	48.9770
 1.1010	48.9730
 1.1020	48.9860
 1.1030	48.9870
 1.1040	48.9510
 1.1050	48.9220
 1.1060	48.8930
 1.1070	48.8530
 1.1080	48.8220
 1.1090	48.7960
 1.1100	48.7760
 1.1110	48.7650
 1.1120	48.7410
 1.1130	48.7260
 1.1140	48.6930
 1.1150	48.6300
 1.1160	48.5900
 1.1170	48.5730
 1.1180	48.5310
 1.1190	48.4790
 1.1200	48.4380
 1.1210	48.3670
 1.1220	48.2790
 1.1230	48.2180
 1.1240	48.1390
 1.1250	48.0580
 1.1260	47.9860
 1.1270	47.8810
 1.1280	47.7590
 1.1290	47.6310
 1.1300	47.4850
 1.1310	47.3330
 1.1320	47.1800
 1.1330	47.0100
 1.1340	46.8240
 1.1350	46.6310
 1.1360	46.4360
 1.1370	46.2170
 1.1380	45.9810
 1.1390	45.7500
 1.1400	45.5030
 1.1410	45.2710
 1.1420	45.0390
 1.1430	44.7870
 1.1440	44.5460
 1.1450	44.2930
 1.1460	44.0660
 1.1470	43.8590
 1.1480	43.6440
 1.1490	43.4360
 1.1500	43.2310
 1.1510	43.0090
 1.1520	42.8230
 1.1530	42.6570
 1.1540	42.5040
 1.1550	42.3700
 1.1560	42.2520
 1.1570	42.1420
 1.1580	42.0450
 1.1590	41.9530
 1.1600	41.8570
 1.1610	41.7600
 1.1620	41.6790
 1.1630	41.6130
 1.1640	41.5520
 1.1650	41.4960
 1.1660	41.4490
 1.1670	41.4030
 1.1680	41.3640
 1.1690	41.3200
 1.1700	41.2790
 1.1710	41.2360
 1.1720	41.1850
 1.1730	41.1450
 1.1740	41.1100
 1.1750	41.0770
 1.1760	41.0500
 1.1770	41.0150
 1.1780	40.9740
 1.1790	40.9380
 1.1800	40.9120
 1.1810	40.8890
 1.1820	40.8600
 1.1830	40.8280
 1.1840	40.7840
 1.1850	40.7350
 1.1860	40.6960
 1.1870	40.6670
 1.1880	40.6360
 1.1890	40.6070
 1.1900	40.5820
 1.1910	40.5610
 1.1920	40.5340
 1.1930	40.5030
 1.1940	40.4830
 1.1950	40.4650
 1.1960	40.4460
 1.1970	40.4430
 1.1980	40.4380
 1.1990	40.4250
 1.2000	40.4220
 1.2010	40.4100
 1.2020	40.4020
 1.2030	40.3980
 1.2040	40.3880
 1.2050	40.3960
 1.2060	40.3970
 1.2070	40.3970
 1.2080	40.4120
 1.2090	40.4270
 1.2100	40.4550
 1.2110	40.4830
 1.2120	40.5160
 1.2130	40.5500
 1.2140	40.5820
 1.2150	40.6260
 1.2160	40.6820
 1.2170	40.7330
 1.2180	40.7810
 1.2190	40.8260
 1.2200	40.8600
 1.2210	40.9040
 1.2220	40.9590
 1.2230	41.0170
 1.2240	41.0750
 1.2250	41.1330
 1.2260	41.1780
 1.2270	41.2180
 1.2280	41.2530
 1.2290	41.2820
 1.2300	41.3300
 1.2310	41.3810
 1.2320	41.4370
 1.2330	41.5040
 1.2340	41.5600
 1.2350	41.6150
 1.2360	41.6570
 1.2370	41.6910
 1.2380	41.7160
 1.2390	41.7390
 1.2400	41.7630
 1.2410	41.7980
 1.2420	41.8350
 1.2430	41.8650
 1.2440	41.9020
 1.2450	41.9440
 1.2460	41.9800
 1.2470	42.0150
 1.2480	42.0440
 1.2490	42.0640
 1.2500	42.0860
 1.2510	42.1090
 1.2520	42.1460
 1.2530	42.1780
 1.2540	42.1970
 1.2550	42.2200
 1.2560	42.2350
 1.2570	42.2470
 1.2580	42.2640
 1.2590	42.2790
 1.2600	42.2900
 1.2610	42.3010
 1.2620	42.3070
 1.2630	42.3230
 1.2640	42.3390
 1.2650	42.3580
 1.2660	42.3840
 1.2670	42.3910
 1.2680	42.3810
 1.2690	42.3660
 1.2700	42.3460
 1.2710	42.3230
 1.2720	42.3070
 1.2730	42.3000
 1.2740	42.2850
 1.2750	42.2820
 1.2760	42.2790
 1.2770	42.2660
 1.2780	42.2450
 1.2790	42.2080
 1.2800	42.1860
 1.2810	42.1700
 1.2820	42.1380
 1.2830	42.1040
 1.2840	42.0660
 1.2850	42.0170
 1.2860	41.9650
 1.2870	41.9180
 1.2880	41.8780
 1.2890	41.8320
 1.2900	41.7930
 1.2910	41.7650
 1.2920	41.7310
 1.2930	41.6970
 1.2940	41.6530
 1.2950	41.5980
 1.2960	41.5480
 1.2970	41.4750
 1.2980	41.3840
 1.2990	41.3060
 1.3000	41.2190
 1.3010	41.1300
 1.3020	41.0460
 1.3030	40.9460
 1.3040	40.8490
 1.3050	40.7570
 1.3060	40.6620
 1.3070	40.5670
 1.3080	40.4640
 1.3090	40.3560
 1.3100	40.2370
 1.3110	40.1110
 1.3120	39.9870
 1.3130	39.8480
 1.3140	39.7070
 1.3150	39.5700
 1.3160	39.4250
 1.3170	39.2710
 1.3180	39.1160
 1.3190	38.9590
 1.3200	38.7890
 1.3210	38.6200
 1.3220	38.4420
 1.3230	38.2650
 1.3240	38.0970
 1.3250	37.9200
 1.3260	37.7420
 1.3270	37.5640
 1.3280	37.3720
 1.3290	37.1780
 1.3300	36.9860
 1.3310	36.7920
 1.3320	36.6010
 1.3330	36.4130
 1.3340	36.2220
 1.3350	36.0180
 1.3360	35.8100
 1.3370	35.6060
 1.3380	35.4060
 1.3390	35.2200
 1.3400	35.0450
 1.3410	34.8710
 1.3420	34.6940
 1.3430	34.5190
 1.3440	34.3430
 1.3450	34.1680
 1.3460	33.9870
 1.3470	33.8230
 1.3480	33.6690
 1.3490	33.5110
 1.3500	33.3610
 1.3510	33.2110
 1.3520	33.0510
 1.3530	32.8920
 1.3540	32.7380
 1.3550	32.5830
 1.3560	32.4350
 1.3570	32.2820
 1.3580	32.1180
 1.3590	31.9580
 1.3600	31.7920
 1.3610	31.6200
 1.3620	31.4460
 1.3630	31.2640
 1.3640	31.0760
 1.3650	30.8780
 1.3660	30.6780
 1.3670	30.4740
 1.3680	30.2590
 1.3690	30.0290
 1.3700	29.7810
 1.3710	29.5240
 1.3720	29.2500
 1.3730	28.9630
 1.3740	28.6680
 1.3750	28.3570
 1.3760	28.0240
 1.3770	27.6720
 1.3780	27.2930
 1.3790	26.8930
 1.3800	26.4770
 1.3810	26.0430
 1.3820	25.5960
 1.3830	25.1350
 1.3840	24.6630
 1.3850	24.1770
 1.3860	23.6830
 1.3870	23.1730
 1.3880	22.6700
 1.3890	22.1600
 1.3900	21.6460
 1.3910	21.1490
 1.3920	20.6630
 1.3930	20.1840
 1.3940	19.7190
 1.3950	19.2590
 1.3960	18.8060
 1.3970	18.3710
 1.3980	17.9580
 1.3990	17.5720
 1.4000	17.1990
 1.4010	16.8410
 1.4020	16.4990
 1.4030	16.1670
 1.4040	15.8570
 1.4050	15.5650
 1.4060	15.2860
 1.4070	15.0290
 1.4080	14.7870
 1.4090	14.5610
 1.4100	14.3480
 1.4110	14.1440
 1.4120	13.9570
 1.4130	13.7850
 1.4140	13.6300
 1.4150	13.4950
 1.4160	13.3650
 1.4170	13.2430
 1.4180	13.1300
 1.4190	13.0140
 1.4200	12.9050
 1.4210	12.8030
 1.4220	12.7080
 1.4230	12.6240
 1.4240	12.5480
 1.4250	12.4770
 1.4260	12.4140
 1.4270	12.3510
 1.4280	12.2900
 1.4290	12.2350
 1.4300	12.1840
 1.4310	12.1390
 1.4320	12.1030
 1.4330	12.0680
 1.4340	12.0360
 1.4350	12.0050
 1.4360	11.9780
 1.4370	11.9480
 1.4380	11.9190
 1.4390	11.8980
 1.4400	11.8750
 1.4410	11.8560
 1.4420	11.8460
 1.4430	11.8340
 1.4440	11.8290
 1.4450	11.8250
 1.4460	11.8160
 1.4470	11.8180
 1.4480	11.8160
 1.4490	11.8150
 1.4500	11.8200
 1.4510	11.8180
 1.4520	11.8190
 1.4530	11.8250
 1.4540	11.8300
 1.4550	11.8370
 1.4560	11.8480
 1.4570	11.8600
 1.4580	11.8710
 1.4590	11.8860
 1.4600	11.9030
 1.4610	11.9200
 1.4620	11.9410
 1.4630	11.9670
 1.4640	11.9940
 1.4650	12.0240
 1.4660	12.0550
 1.4670	12.0860
 1.4680	12.1220
 1.4690	12.1610
 1.4700	12.2050
 1.4710	12.2550
 1.4720	12.3030
 1.4730	12.3570
 1.4740	12.4130
 1.4750	12.4660
 1.4760	12.5250
 1.4770	12.5860
 1.4780	12.6460
 1.4790	12.7160
 1.4800	12.7800
 1.4810	12.8460
