Name: Melateuca lanceolata
Type: vegetation
Class: Tree
Genus: Melateuca
Species: lanceolata
Sample No.: JPL223
Owner: JPL
Wavelength Range: VSWIR
Origin: 34.12436; -118.1144; WGS84
Collection Date: 10/3/2016
Description: Samples were collected at the Huntington Garden in San Marino California as part of a JPL Subcontract studying HyTES imagery. Samples were taken to JPL and processed within 48 hours of collection. The same leaves were processed in the Nicolet and then measured using the ASD.
Measurement: Bidirectional reflectance
First Column: X
Second Column: Y
X Units: Wavelength (micrometer)
Y Units: Reflectance (percentage)
First X Value: 0.35
Last X Value: 2.5
Number of X Values: 2151
Additional Information: vegetation.tree.melateuca.lanceolata.vswir.jpl223.jpl.asd.ancillary.txt

 0.3500	 3.0340
 0.3510	 3.1040
 0.3520	 3.2100
 0.3530	 3.2040
 0.3540	 3.0280
 0.3550	 2.9390
 0.3560	 2.9990
 0.3570	 3.0930
 0.3580	 3.0500
 0.3590	 2.9960
 0.3600	 2.9780
 0.3610	 2.9820
 0.3620	 2.9140
 0.3630	 2.9480
 0.3640	 2.9700
 0.3650	 2.8780
 0.3660	 2.9110
 0.3670	 2.9470
 0.3680	 2.9200
 0.3690	 2.8220
 0.3700	 2.8780
 0.3710	 2.9390
 0.3720	 2.9140
 0.3730	 2.9220
 0.3740	 2.8910
 0.3750	 2.8380
 0.3760	 2.8130
 0.3770	 2.8650
 0.3780	 2.8870
 0.3790	 2.8720
 0.3800	 2.9020
 0.3810	 2.9250
 0.3820	 2.9270
 0.3830	 2.9070
 0.3840	 2.8710
 0.3850	 2.8210
 0.3860	 2.8010
 0.3870	 2.8510
 0.3880	 2.8930
 0.3890	 2.9250
 0.3900	 2.9410
 0.3910	 2.9250
 0.3920	 2.8810
 0.3930	 2.8580
 0.3940	 2.8810
 0.3950	 2.9000
 0.3960	 2.9140
 0.3970	 2.9290
 0.3980	 2.9540
 0.3990	 2.9490
 0.4000	 2.9490
 0.4010	 2.9640
 0.4020	 2.9680
 0.4030	 2.9910
 0.4040	 2.9960
 0.4050	 2.9590
 0.4060	 2.9570
 0.4070	 2.9690
 0.4080	 2.9840
 0.4090	 2.9980
 0.4100	 3.0190
 0.4110	 3.0350
 0.4120	 3.0400
 0.4130	 3.0370
 0.4140	 3.0330
 0.4150	 3.0400
 0.4160	 3.0620
 0.4170	 3.0830
 0.4180	 3.1040
 0.4190	 3.1200
 0.4200	 3.1280
 0.4210	 3.1300
 0.4220	 3.1350
 0.4230	 3.1500
 0.4240	 3.1730
 0.4250	 3.1870
 0.4260	 3.1950
 0.4270	 3.2090
 0.4280	 3.2210
 0.4290	 3.2360
 0.4300	 3.2510
 0.4310	 3.2540
 0.4320	 3.2730
 0.4330	 3.2960
 0.4340	 3.3060
 0.4350	 3.3140
 0.4360	 3.3350
 0.4370	 3.3620
 0.4380	 3.3720
 0.4390	 3.3870
 0.4400	 3.4060
 0.4410	 3.4250
 0.4420	 3.4430
 0.4430	 3.4630
 0.4440	 3.4840
 0.4450	 3.5010
 0.4460	 3.5240
 0.4470	 3.5500
 0.4480	 3.5780
 0.4490	 3.6060
 0.4500	 3.6340
 0.4510	 3.6590
 0.4520	 3.6780
 0.4530	 3.6900
 0.4540	 3.7050
 0.4550	 3.7310
 0.4560	 3.7660
 0.4570	 3.7840
 0.4580	 3.7950
 0.4590	 3.8100
 0.4600	 3.8330
 0.4610	 3.8520
 0.4620	 3.8690
 0.4630	 3.8900
 0.4640	 3.9040
 0.4650	 3.9110
 0.4660	 3.9180
 0.4670	 3.9360
 0.4680	 3.9490
 0.4690	 3.9610
 0.4700	 3.9750
 0.4710	 3.9860
 0.4720	 3.9980
 0.4730	 4.0120
 0.4740	 4.0270
 0.4750	 4.0350
 0.4760	 4.0450
 0.4770	 4.0570
 0.4780	 4.0680
 0.4790	 4.0710
 0.4800	 4.0760
 0.4810	 4.0920
 0.4820	 4.1080
 0.4830	 4.1270
 0.4840	 4.1470
 0.4850	 4.1650
 0.4860	 4.1780
 0.4870	 4.1960
 0.4880	 4.2210
 0.4890	 4.2390
 0.4900	 4.2610
 0.4910	 4.2870
 0.4920	 4.3120
 0.4930	 4.3420
 0.4940	 4.3780
 0.4950	 4.4190
 0.4960	 4.4580
 0.4970	 4.5030
 0.4980	 4.5520
 0.4990	 4.6020
 0.5000	 4.6580
 0.5010	 4.7210
 0.5020	 4.7880
 0.5030	 4.8600
 0.5040	 4.9360
 0.5050	 5.0170
 0.5060	 5.1060
 0.5070	 5.2080
 0.5080	 5.3150
 0.5090	 5.4240
 0.5100	 5.5370
 0.5110	 5.6680
 0.5120	 5.8100
 0.5130	 5.9570
 0.5140	 6.1070
 0.5150	 6.2660
 0.5160	 6.4330
 0.5170	 6.6060
 0.5180	 6.7960
 0.5190	 6.9870
 0.5200	 7.1760
 0.5210	 7.3720
 0.5220	 7.5680
 0.5230	 7.7620
 0.5240	 7.9530
 0.5250	 8.1400
 0.5260	 8.3190
 0.5270	 8.4890
 0.5280	 8.6480
 0.5290	 8.7990
 0.5300	 8.9410
 0.5310	 9.0720
 0.5320	 9.1930
 0.5330	 9.3040
 0.5340	 9.4050
 0.5350	 9.4990
 0.5360	 9.5810
 0.5370	 9.6530
 0.5380	 9.7220
 0.5390	 9.7920
 0.5400	 9.8670
 0.5410	 9.9450
 0.5420	10.0190
 0.5430	10.0800
 0.5440	10.1250
 0.5450	10.1550
 0.5460	10.1710
 0.5470	10.1770
 0.5480	10.1820
 0.5490	10.1890
 0.5500	10.1990
 0.5510	10.2070
 0.5520	10.2090
 0.5530	10.2010
 0.5540	10.1770
 0.5550	10.1440
 0.5560	10.1040
 0.5570	10.0560
 0.5580	 9.9970
 0.5590	 9.9320
 0.5600	 9.8620
 0.5610	 9.7870
 0.5620	 9.7070
 0.5630	 9.6230
 0.5640	 9.5350
 0.5650	 9.4450
 0.5660	 9.3500
 0.5670	 9.2490
 0.5680	 9.1440
 0.5690	 9.0370
 0.5700	 8.9290
 0.5710	 8.8180
 0.5720	 8.7070
 0.5730	 8.6020
 0.5740	 8.5040
 0.5750	 8.4150
 0.5760	 8.3300
 0.5770	 8.2500
 0.5780	 8.1760
 0.5790	 8.1050
 0.5800	 8.0360
 0.5810	 7.9690
 0.5820	 7.9090
 0.5830	 7.8560
 0.5840	 7.8050
 0.5850	 7.7520
 0.5860	 7.7070
 0.5870	 7.6620
 0.5880	 7.6170
 0.5890	 7.5730
 0.5900	 7.5330
 0.5910	 7.5020
 0.5920	 7.4780
 0.5930	 7.4530
 0.5940	 7.4300
 0.5950	 7.4070
 0.5960	 7.3850
 0.5970	 7.3660
 0.5980	 7.3470
 0.5990	 7.3270
 0.6000	 7.3030
 0.6010	 7.2810
 0.6020	 7.2540
 0.6030	 7.2210
 0.6040	 7.1850
 0.6050	 7.1460
 0.6060	 7.1020
 0.6070	 7.0550
 0.6080	 7.0070
 0.6090	 6.9620
 0.6100	 6.9240
 0.6110	 6.8910
 0.6120	 6.8360
 0.6130	 6.7680
 0.6140	 6.6960
 0.6150	 6.6340
 0.6160	 6.5750
 0.6170	 6.5220
 0.6180	 6.4790
 0.6190	 6.4380
 0.6200	 6.4030
 0.6210	 6.3720
 0.6220	 6.3420
 0.6230	 6.3160
 0.6240	 6.2930
 0.6250	 6.2710
 0.6260	 6.2570
 0.6270	 6.2460
 0.6280	 6.2380
 0.6290	 6.2330
 0.6300	 6.2290
 0.6310	 6.2240
 0.6320	 6.2150
 0.6330	 6.1980
 0.6340	 6.1780
 0.6350	 6.1520
 0.6360	 6.1210
 0.6370	 6.0880
 0.6380	 6.0450
 0.6390	 5.9950
 0.6400	 5.9430
 0.6410	 5.8900
 0.6420	 5.8350
 0.6430	 5.7770
 0.6440	 5.7190
 0.6450	 5.6600
 0.6460	 5.6030
 0.6470	 5.5490
 0.6480	 5.5020
 0.6490	 5.4590
 0.6500	 5.4220
 0.6510	 5.3930
 0.6520	 5.3650
 0.6530	 5.3390
 0.6540	 5.3140
 0.6550	 5.2890
 0.6560	 5.2600
 0.6570	 5.2270
 0.6580	 5.1910
 0.6590	 5.1460
 0.6600	 5.1020
 0.6610	 5.0600
 0.6620	 5.0150
 0.6630	 4.9710
 0.6640	 4.9330
 0.6650	 4.9000
 0.6660	 4.8720
 0.6670	 4.8480
 0.6680	 4.8290
 0.6690	 4.8180
 0.6700	 4.8130
 0.6710	 4.8150
 0.6720	 4.8220
 0.6730	 4.8360
 0.6740	 4.8540
 0.6750	 4.8770
 0.6760	 4.9050
 0.6770	 4.9380
 0.6780	 4.9750
 0.6790	 5.0180
 0.6800	 5.0670
 0.6810	 5.1260
 0.6820	 5.1930
 0.6830	 5.2670
 0.6840	 5.3510
 0.6850	 5.4470
 0.6860	 5.5580
 0.6870	 5.6850
 0.6880	 5.8300
 0.6890	 6.0020
 0.6900	 6.2070
 0.6910	 6.4500
 0.6920	 6.7340
 0.6930	 7.0660
 0.6940	 7.4480
 0.6950	 7.8760
 0.6960	 8.3510
 0.6970	 8.8730
 0.6980	 9.4360
 0.6990	10.0360
 0.7000	10.6660
 0.7010	11.3240
 0.7020	12.0040
 0.7030	12.7030
 0.7040	13.4180
 0.7050	14.1460
 0.7060	14.8830
 0.7070	15.6320
 0.7080	16.3880
 0.7090	17.1490
 0.7100	17.9180
 0.7110	18.6960
 0.7120	19.4840
 0.7130	20.2780
 0.7140	21.0760
 0.7150	21.8780
 0.7160	22.6840
 0.7170	23.4940
 0.7180	24.3020
 0.7190	25.1070
 0.7200	25.9130
 0.7210	26.7090
 0.7220	27.4960
 0.7230	28.2710
 0.7240	29.0290
 0.7250	29.7730
 0.7260	30.4970
 0.7270	31.1980
 0.7280	31.8780
 0.7290	32.5330
 0.7300	33.1620
 0.7310	33.7640
 0.7320	34.3420
 0.7330	34.8900
 0.7340	35.4080
 0.7350	35.9010
 0.7360	36.3690
 0.7370	36.8100
 0.7380	37.2240
 0.7390	37.6130
 0.7400	37.9760
 0.7410	38.3160
 0.7420	38.6330
 0.7430	38.9290
 0.7440	39.2010
 0.7450	39.4510
 0.7460	39.6830
 0.7470	39.8950
 0.7480	40.0890
 0.7490	40.2670
 0.7500	40.4300
 0.7510	40.5790
 0.7520	40.7150
 0.7530	40.8380
 0.7540	40.9520
 0.7550	41.0590
 0.7560	41.1560
 0.7570	41.2420
 0.7580	41.3250
 0.7590	41.4030
 0.7600	41.4740
 0.7610	41.5360
 0.7620	41.5950
 0.7630	41.6500
 0.7640	41.7000
 0.7650	41.7450
 0.7660	41.7880
 0.7670	41.8290
 0.7680	41.8640
 0.7690	41.9000
 0.7700	41.9340
 0.7710	41.9650
 0.7720	41.9930
 0.7730	42.0210
 0.7740	42.0510
 0.7750	42.0780
 0.7760	42.1030
 0.7770	42.1300
 0.7780	42.1580
 0.7790	42.1820
 0.7800	42.2050
 0.7810	42.2270
 0.7820	42.2490
 0.7830	42.2710
 0.7840	42.2960
 0.7850	42.3190
 0.7860	42.3380
 0.7870	42.3580
 0.7880	42.3760
 0.7890	42.3940
 0.7900	42.4130
 0.7910	42.4300
 0.7920	42.4450
 0.7930	42.4590
 0.7940	42.4720
 0.7950	42.4840
 0.7960	42.4970
 0.7970	42.5100
 0.7980	42.5180
 0.7990	42.5240
 0.8000	42.5300
 0.8010	42.5380
 0.8020	42.5470
 0.8030	42.5530
 0.8040	42.5590
 0.8050	42.5640
 0.8060	42.5670
 0.8070	42.5670
 0.8080	42.5660
 0.8090	42.5700
 0.8100	42.5720
 0.8110	42.5730
 0.8120	42.5730
 0.8130	42.5710
 0.8140	42.5670
 0.8150	42.5630
 0.8160	42.5620
 0.8170	42.5590
 0.8180	42.5560
 0.8190	42.5550
 0.8200	42.5540
 0.8210	42.5490
 0.8220	42.5430
 0.8230	42.5370
 0.8240	42.5320
 0.8250	42.5270
 0.8260	42.5220
 0.8270	42.5150
 0.8280	42.5080
 0.8290	42.5020
 0.8300	42.4950
 0.8310	42.4860
 0.8320	42.4800
 0.8330	42.4760
 0.8340	42.4700
 0.8350	42.4640
 0.8360	42.4640
 0.8370	42.4660
 0.8380	42.4670
 0.8390	42.4680
 0.8400	42.4670
 0.8410	42.4690
 0.8420	42.4730
 0.8430	42.4750
 0.8440	42.4770
 0.8450	42.4810
 0.8460	42.4860
 0.8470	42.4910
 0.8480	42.4950
 0.8490	42.5010
 0.8500	42.5090
 0.8510	42.5160
 0.8520	42.5240
 0.8530	42.5320
 0.8540	42.5400
 0.8550	42.5500
 0.8560	42.5590
 0.8570	42.5670
 0.8580	42.5750
 0.8590	42.5850
 0.8600	42.5950
 0.8610	42.6030
 0.8620	42.6140
 0.8630	42.6290
 0.8640	42.6420
 0.8650	42.6510
 0.8660	42.6640
 0.8670	42.6750
 0.8680	42.6860
 0.8690	42.7020
 0.8700	42.7180
 0.8710	42.7310
 0.8720	42.7420
 0.8730	42.7500
 0.8740	42.7650
 0.8750	42.7830
 0.8760	42.7990
 0.8770	42.8080
 0.8780	42.8220
 0.8790	42.8380
 0.8800	42.8540
 0.8810	42.8650
 0.8820	42.8730
 0.8830	42.8840
 0.8840	42.9000
 0.8850	42.9120
 0.8860	42.9250
 0.8870	42.9390
 0.8880	42.9530
 0.8890	42.9620
 0.8900	42.9700
 0.8910	42.9800
 0.8920	42.9950
 0.8930	43.0050
 0.8940	43.0160
 0.8950	43.0270
 0.8960	43.0360
 0.8970	43.0460
 0.8980	43.0540
 0.8990	43.0610
 0.9000	43.0740
 0.9010	43.0810
 0.9020	43.0850
 0.9030	43.0920
 0.9040	43.1020
 0.9050	43.1080
 0.9060	43.1160
 0.9070	43.1290
 0.9080	43.1330
 0.9090	43.1410
 0.9100	43.1500
 0.9110	43.1560
 0.9120	43.1600
 0.9130	43.1670
 0.9140	43.1770
 0.9150	43.1880
 0.9160	43.1840
 0.9170	43.1850
 0.9180	43.1890
 0.9190	43.1920
 0.9200	43.1960
 0.9210	43.1950
 0.9220	43.1890
 0.9230	43.1840
 0.9240	43.1740
 0.9250	43.1750
 0.9260	43.1760
 0.9270	43.1540
 0.9280	43.1440
 0.9290	43.1350
 0.9300	43.1190
 0.9310	43.0950
 0.9320	43.0780
 0.9330	43.0600
 0.9340	43.0360
 0.9350	43.0060
 0.9360	42.9830
 0.9370	42.9600
 0.9380	42.9330
 0.9390	42.8990
 0.9400	42.8700
 0.9410	42.8350
 0.9420	42.7900
 0.9430	42.7550
 0.9440	42.7120
 0.9450	42.6630
 0.9460	42.6150
 0.9470	42.5580
 0.9480	42.5020
 0.9490	42.4440
 0.9500	42.3770
 0.9510	42.3070
 0.9520	42.2290
 0.9530	42.1490
 0.9540	42.0720
 0.9550	41.9820
 0.9560	41.9060
 0.9570	41.8370
 0.9580	41.7610
 0.9590	41.7000
 0.9600	41.6380
 0.9610	41.5780
 0.9620	41.5250
 0.9630	41.4650
 0.9640	41.4230
 0.9650	41.3840
 0.9660	41.3350
 0.9670	41.3070
 0.9680	41.2870
 0.9690	41.2670
 0.9700	41.2450
 0.9710	41.2180
 0.9720	41.1990
 0.9730	41.1900
 0.9740	41.1820
 0.9750	41.1620
 0.9760	41.1570
 0.9770	41.1580
 0.9780	41.1460
 0.9790	41.1380
 0.9800	41.1330
 0.9810	41.1300
 0.9820	41.1330
 0.9830	41.1390
 0.9840	41.1460
 0.9850	41.1510
 0.9860	41.1550
 0.9870	41.1610
 0.9880	41.1870
 0.9890	41.2140
 0.9900	41.2180
 0.9910	41.2280
 0.9920	41.2470
 0.9930	41.2660
 0.9940	41.2770
 0.9950	41.2950
 0.9960	41.3110
 0.9970	41.3290
 0.9980	41.3590
 0.9990	41.4020
 1.0000	41.4240
 1.0010	42.6390
 1.0020	42.6700
 1.0030	42.7010
 1.0040	42.7320
 1.0050	42.7660
 1.0060	42.7960
 1.0070	42.8260
 1.0080	42.8570
 1.0090	42.8880
 1.0100	42.9180
 1.0110	42.9490
 1.0120	42.9810
 1.0130	43.0090
 1.0140	43.0420
 1.0150	43.0790
 1.0160	43.1130
 1.0170	43.1440
 1.0180	43.1760
 1.0190	43.2040
 1.0200	43.2310
 1.0210	43.2610
 1.0220	43.2910
 1.0230	43.3220
 1.0240	43.3550
 1.0250	43.3870
 1.0260	43.4200
 1.0270	43.4510
 1.0280	43.4790
 1.0290	43.5090
 1.0300	43.5390
 1.0310	43.5690
 1.0320	43.5980
 1.0330	43.6270
 1.0340	43.6600
 1.0350	43.6900
 1.0360	43.7180
 1.0370	43.7490
 1.0380	43.7760
 1.0390	43.7980
 1.0400	43.8230
 1.0410	43.8480
 1.0420	43.8740
 1.0430	43.9010
 1.0440	43.9260
 1.0450	43.9530
 1.0460	43.9770
 1.0470	44.0010
 1.0480	44.0230
 1.0490	44.0430
 1.0500	44.0630
 1.0510	44.0830
 1.0520	44.1020
 1.0530	44.1180
 1.0540	44.1320
 1.0550	44.1480
 1.0560	44.1610
 1.0570	44.1770
 1.0580	44.1980
 1.0590	44.2120
 1.0600	44.2220
 1.0610	44.2350
 1.0620	44.2460
 1.0630	44.2580
 1.0640	44.2730
 1.0650	44.2840
 1.0660	44.2880
 1.0670	44.2950
 1.0680	44.3010
 1.0690	44.3070
 1.0700	44.3120
 1.0710	44.3200
 1.0720	44.3240
 1.0730	44.3260
 1.0740	44.3280
 1.0750	44.3320
 1.0760	44.3320
 1.0770	44.3320
 1.0780	44.3300
 1.0790	44.3220
 1.0800	44.3180
 1.0810	44.3140
 1.0820	44.3110
 1.0830	44.3120
 1.0840	44.3100
 1.0850	44.3080
 1.0860	44.3040
 1.0870	44.2970
 1.0880	44.2880
 1.0890	44.2790
 1.0900	44.2690
 1.0910	44.2590
 1.0920	44.2520
 1.0930	44.2390
 1.0940	44.2240
 1.0950	44.2110
 1.0960	44.1970
 1.0970	44.1840
 1.0980	44.1740
 1.0990	44.1610
 1.1000	44.1440
 1.1010	44.1270
 1.1020	44.1090
 1.1030	44.0900
 1.1040	44.0730
 1.1050	44.0550
 1.1060	44.0360
 1.1070	44.0150
 1.1080	43.9960
 1.1090	43.9760
 1.1100	43.9540
 1.1110	43.9330
 1.1120	43.9080
 1.1130	43.8780
 1.1140	43.8490
 1.1150	43.8200
 1.1160	43.7870
 1.1170	43.7530
 1.1180	43.7150
 1.1190	43.6740
 1.1200	43.6310
 1.1210	43.5860
 1.1220	43.5360
 1.1230	43.4830
 1.1240	43.4230
 1.1250	43.3570
 1.1260	43.2860
 1.1270	43.2050
 1.1280	43.1180
 1.1290	43.0220
 1.1300	42.9190
 1.1310	42.8040
 1.1320	42.6810
 1.1330	42.5470
 1.1340	42.4020
 1.1350	42.2480
 1.1360	42.0850
 1.1370	41.9120
 1.1380	41.7310
 1.1390	41.5440
 1.1400	41.3510
 1.1410	41.1550
 1.1420	40.9560
 1.1430	40.7540
 1.1440	40.5540
 1.1450	40.3500
 1.1460	40.1520
 1.1470	39.9520
 1.1480	39.7620
 1.1490	39.5760
 1.1500	39.4010
 1.1510	39.2330
 1.1520	39.0750
 1.1530	38.9240
 1.1540	38.7850
 1.1550	38.6550
 1.1560	38.5350
 1.1570	38.4240
 1.1580	38.3230
 1.1590	38.2310
 1.1600	38.1470
 1.1610	38.0680
 1.1620	37.9960
 1.1630	37.9280
 1.1640	37.8650
 1.1650	37.8060
 1.1660	37.7530
 1.1670	37.7020
 1.1680	37.6560
 1.1690	37.6100
 1.1700	37.5670
 1.1710	37.5240
 1.1720	37.4830
 1.1730	37.4410
 1.1740	37.3990
 1.1750	37.3580
 1.1760	37.3180
 1.1770	37.2780
 1.1780	37.2370
 1.1790	37.1970
 1.1800	37.1560
 1.1810	37.1180
 1.1820	37.0810
 1.1830	37.0460
 1.1840	37.0130
 1.1850	36.9820
 1.1860	36.9530
 1.1870	36.9280
 1.1880	36.9060
 1.1890	36.8880
 1.1900	36.8720
 1.1910	36.8610
 1.1920	36.8510
 1.1930	36.8450
 1.1940	36.8410
 1.1950	36.8390
 1.1960	36.8410
 1.1970	36.8450
 1.1980	36.8500
 1.1990	36.8590
 1.2000	36.8700
 1.2010	36.8850
 1.2020	36.9020
 1.2030	36.9230
 1.2040	36.9480
 1.2050	36.9760
 1.2060	37.0060
 1.2070	37.0390
 1.2080	37.0740
 1.2090	37.1120
 1.2100	37.1510
 1.2110	37.1920
 1.2120	37.2360
 1.2130	37.2810
 1.2140	37.3280
 1.2150	37.3760
 1.2160	37.4250
 1.2170	37.4760
 1.2180	37.5250
 1.2190	37.5770
 1.2200	37.6290
 1.2210	37.6820
 1.2220	37.7350
 1.2230	37.7870
 1.2240	37.8390
 1.2250	37.8890
 1.2260	37.9370
 1.2270	37.9880
 1.2280	38.0360
 1.2290	38.0830
 1.2300	38.1290
 1.2310	38.1720
 1.2320	38.2140
 1.2330	38.2560
 1.2340	38.2960
 1.2350	38.3360
 1.2360	38.3730
 1.2370	38.4070
 1.2380	38.4380
 1.2390	38.4690
 1.2400	38.5010
 1.2410	38.5350
 1.2420	38.5660
 1.2430	38.5960
 1.2440	38.6250
 1.2450	38.6510
 1.2460	38.6790
 1.2470	38.7050
 1.2480	38.7300
 1.2490	38.7550
 1.2500	38.7790
 1.2510	38.8020
 1.2520	38.8240
 1.2530	38.8440
 1.2540	38.8610
 1.2550	38.8780
 1.2560	38.8960
 1.2570	38.9110
 1.2580	38.9240
 1.2590	38.9350
 1.2600	38.9430
 1.2610	38.9520
 1.2620	38.9590
 1.2630	38.9670
 1.2640	38.9750
 1.2650	38.9790
 1.2660	38.9810
 1.2670	38.9820
 1.2680	38.9830
 1.2690	38.9820
 1.2700	38.9800
 1.2710	38.9780
 1.2720	38.9750
 1.2730	38.9700
 1.2740	38.9650
 1.2750	38.9570
 1.2760	38.9470
 1.2770	38.9370
 1.2780	38.9230
 1.2790	38.9080
 1.2800	38.8910
 1.2810	38.8730
 1.2820	38.8530
 1.2830	38.8310
 1.2840	38.8060
 1.2850	38.7780
 1.2860	38.7480
 1.2870	38.7150
 1.2880	38.6800
 1.2890	38.6420
 1.2900	38.6010
 1.2910	38.5570
 1.2920	38.5090
 1.2930	38.4580
 1.2940	38.4060
 1.2950	38.3500
 1.2960	38.2920
 1.2970	38.2330
 1.2980	38.1680
 1.2990	38.1010
 1.3000	38.0300
 1.3010	37.9560
 1.3020	37.8790
 1.3030	37.8000
 1.3040	37.7160
 1.3050	37.6270
 1.3060	37.5360
 1.3070	37.4410
 1.3080	37.3430
 1.3090	37.2430
 1.3100	37.1420
 1.3110	37.0380
 1.3120	36.9300
 1.3130	36.8170
 1.3140	36.7000
 1.3150	36.5780
 1.3160	36.4520
 1.3170	36.3220
 1.3180	36.1890
 1.3190	36.0520
 1.3200	35.9130
 1.3210	35.7720
 1.3220	35.6280
 1.3230	35.4800
 1.3240	35.3290
 1.3250	35.1750
 1.3260	35.0160
 1.3270	34.8560
 1.3280	34.6930
 1.3290	34.5260
 1.3300	34.3590
 1.3310	34.1900
 1.3320	34.0180
 1.3330	33.8470
 1.3340	33.6750
 1.3350	33.5010
 1.3360	33.3280
 1.3370	33.1520
 1.3380	32.9770
 1.3390	32.8030
 1.3400	32.6310
 1.3410	32.4610
 1.3420	32.2930
 1.3430	32.1260
 1.3440	31.9610
 1.3450	31.7970
 1.3460	31.6340
 1.3470	31.4760
 1.3480	31.3190
 1.3490	31.1660
 1.3500	31.0150
 1.3510	30.8680
 1.3520	30.7190
 1.3530	30.5730
 1.3540	30.4270
 1.3550	30.2810
 1.3560	30.1360
 1.3570	29.9910
 1.3580	29.8450
 1.3590	29.6980
 1.3600	29.5490
 1.3610	29.3990
 1.3620	29.2430
 1.3630	29.0840
 1.3640	28.9200
 1.3650	28.7480
 1.3660	28.5710
 1.3670	28.3860
 1.3680	28.1920
 1.3690	27.9890
 1.3700	27.7740
 1.3710	27.5470
 1.3720	27.3090
 1.3730	27.0560
 1.3740	26.7890
 1.3750	26.5070
 1.3760	26.2070
 1.3770	25.8900
 1.3780	25.5510
 1.3790	25.1940
 1.3800	24.8190
 1.3810	24.4230
 1.3820	24.0140
 1.3830	23.5910
 1.3840	23.1560
 1.3850	22.7060
 1.3860	22.2490
 1.3870	21.7760
 1.3880	21.3070
 1.3890	20.8310
 1.3900	20.3510
 1.3910	19.8770
 1.3920	19.4050
 1.3930	18.9340
 1.3940	18.4710
 1.3950	18.0120
 1.3960	17.5640
 1.3970	17.1290
 1.3980	16.7050
 1.3990	16.3020
 1.4000	15.9130
 1.4010	15.5380
 1.4020	15.1830
 1.4030	14.8410
 1.4040	14.5160
 1.4050	14.2100
 1.4060	13.9200
 1.4070	13.6500
 1.4080	13.3970
 1.4090	13.1580
 1.4100	12.9350
 1.4110	12.7260
 1.4120	12.5300
 1.4130	12.3500
 1.4140	12.1810
 1.4150	12.0270
 1.4160	11.8830
 1.4170	11.7490
 1.4180	11.6260
 1.4190	11.5110
 1.4200	11.4040
 1.4210	11.3050
 1.4220	11.2140
 1.4230	11.1310
 1.4240	11.0540
 1.4250	10.9820
 1.4260	10.9160
 1.4270	10.8550
 1.4280	10.7990
 1.4290	10.7470
 1.4300	10.7000
 1.4310	10.6570
 1.4320	10.6190
 1.4330	10.5840
 1.4340	10.5520
 1.4350	10.5240
 1.4360	10.4980
 1.4370	10.4750
 1.4380	10.4560
 1.4390	10.4390
 1.4400	10.4250
 1.4410	10.4130
 1.4420	10.4020
 1.4430	10.3940
 1.4440	10.3880
 1.4450	10.3840
 1.4460	10.3810
 1.4470	10.3800
 1.4480	10.3800
 1.4490	10.3820
 1.4500	10.3850
 1.4510	10.3890
 1.4520	10.3940
 1.4530	10.4000
 1.4540	10.4070
 1.4550	10.4160
 1.4560	10.4270
 1.4570	10.4390
 1.4580	10.4530
 1.4590	10.4680
 1.4600	10.4860
 1.4610	10.5070
 1.4620	10.5290
 1.4630	10.5540
 1.4640	10.5830
 1.4650	10.6130
 1.4660	10.6470
 1.4670	10.6830
 1.4680	10.7230
 1.4690	10.7660
 1.4700	10.8110
 1.4710	10.8600
 1.4720	10.9100
 1.4730	10.9640
 1.4740	11.0200
 1.4750	11.0770
 1.4760	11.1380
 1.4770	11.1990
