Name: Heteromeles arbutifolia 1
Type: vegetation
Class: Shrub
Genus: Heteromeles
Species: arbutifolia
Sample No.: VH205
Owner: UCSB
Wavelength Range: VSWIR
Origin: 34.4907; -119.791; WGS84
Collection Date: 10/13/2013
Description: Samples were collected as part of the HyspIRI Airborne Campaign. 48 individual plants were sampled in three times in 2013 - spring  summer  and fall. The name of the sample includes a 1  2  or 3 which references a different individual of the species. Samples were taken to JPL and processed within 48 hours of collection. The same leaves were processed in the Nicolet and then measured using the ASD.
Measurement: Bidirectional reflectance
First Column: X
Second Column: Y
X Units: Wavelength (micrometers)
Y Units: Reflectance (percentage)
First X Value: 0.35
Last X Value: 2.5
Number of X Values: 2151
Additional Information: vegetation.shrub.heteromeles.arbutifolia.vswir.vh205.ucsb.asd.ancillary.txt

 0.3500	 9.9680
 0.3510	 9.8890
 0.3520	 9.8520
 0.3530	 9.7940
 0.3540	 9.6750
 0.3550	 9.4930
 0.3560	 9.4940
 0.3570	 9.6250
 0.3580	 9.6830
 0.3590	 9.6230
 0.3600	 9.6000
 0.3610	 9.6180
 0.3620	 9.4370
 0.3630	 9.4210
 0.3640	 9.4750
 0.3650	 9.4390
 0.3660	 9.4240
 0.3670	 9.3230
 0.3680	 9.2270
 0.3690	 9.3330
 0.3700	 9.4040
 0.3710	 9.3670
 0.3720	 9.2710
 0.3730	 9.3450
 0.3740	 9.4070
 0.3750	 9.3610
 0.3760	 9.2110
 0.3770	 9.2340
 0.3780	 9.3580
 0.3790	 9.4530
 0.3800	 9.3760
 0.3810	 9.2980
 0.3820	 9.2730
 0.3830	 9.2890
 0.3840	 9.2220
 0.3850	 9.1590
 0.3860	 9.1780
 0.3870	 9.3070
 0.3880	 9.3620
 0.3890	 9.2850
 0.3900	 9.1660
 0.3910	 9.2160
 0.3920	 9.1580
 0.3930	 9.1150
 0.3940	 9.1860
 0.3950	 9.2130
 0.3960	 9.2150
 0.3970	 9.1750
 0.3980	 9.0830
 0.3990	 9.0690
 0.4000	 9.1270
 0.4010	 9.1880
 0.4020	 9.1260
 0.4030	 9.1240
 0.4040	 9.1500
 0.4050	 9.1420
 0.4060	 9.1430
 0.4070	 9.1120
 0.4080	 9.0890
 0.4090	 9.1500
 0.4100	 9.1940
 0.4110	 9.2120
 0.4120	 9.2120
 0.4130	 9.2030
 0.4140	 9.1990
 0.4150	 9.2300
 0.4160	 9.3050
 0.4170	 9.3040
 0.4180	 9.2930
 0.4190	 9.3090
 0.4200	 9.3580
 0.4210	 9.4000
 0.4220	 9.4010
 0.4230	 9.3710
 0.4240	 9.4260
 0.4250	 9.4650
 0.4260	 9.4790
 0.4270	 9.5000
 0.4280	 9.5250
 0.4290	 9.5320
 0.4300	 9.5260
 0.4310	 9.5450
 0.4320	 9.5560
 0.4330	 9.5580
 0.4340	 9.5560
 0.4350	 9.5350
 0.4360	 9.5470
 0.4370	 9.5790
 0.4380	 9.5790
 0.4390	 9.5900
 0.4400	 9.6200
 0.4410	 9.6620
 0.4420	 9.6840
 0.4430	 9.6940
 0.4440	 9.6970
 0.4450	 9.6990
 0.4460	 9.7140
 0.4470	 9.7340
 0.4480	 9.7460
 0.4490	 9.7330
 0.4500	 9.7350
 0.4510	 9.7470
 0.4520	 9.7550
 0.4530	 9.7740
 0.4540	 9.7970
 0.4550	 9.8140
 0.4560	 9.8110
 0.4570	 9.8130
 0.4580	 9.8070
 0.4590	 9.7940
 0.4600	 9.8030
 0.4610	 9.8240
 0.4620	 9.8290
 0.4630	 9.8010
 0.4640	 9.8150
 0.4650	 9.8310
 0.4660	 9.8270
 0.4670	 9.8160
 0.4680	 9.8220
 0.4690	 9.8260
 0.4700	 9.8150
 0.4710	 9.8200
 0.4720	 9.8370
 0.4730	 9.8480
 0.4740	 9.8300
 0.4750	 9.8210
 0.4760	 9.8200
 0.4770	 9.8270
 0.4780	 9.8420
 0.4790	 9.8440
 0.4800	 9.8340
 0.4810	 9.8260
 0.4820	 9.8350
 0.4830	 9.8420
 0.4840	 9.8400
 0.4850	 9.8360
 0.4860	 9.8300
 0.4870	 9.8310
 0.4880	 9.8410
 0.4890	 9.8340
 0.4900	 9.8500
 0.4910	 9.8710
 0.4920	 9.8690
 0.4930	 9.9080
 0.4940	 9.9360
 0.4950	 9.9390
 0.4960	 9.9640
 0.4970	10.0030
 0.4980	10.0370
 0.4990	10.0540
 0.5000	10.0810
 0.5010	10.1120
 0.5020	10.1460
 0.5030	10.1910
 0.5040	10.2360
 0.5050	10.2870
 0.5060	10.3480
 0.5070	10.4120
 0.5080	10.4780
 0.5090	10.5490
 0.5100	10.6310
 0.5110	10.7170
 0.5120	10.8220
 0.5130	10.9410
 0.5140	11.0510
 0.5150	11.1890
 0.5160	11.3420
 0.5170	11.4890
 0.5180	11.6500
 0.5190	11.8230
 0.5200	12.0080
 0.5210	12.2060
 0.5220	12.3960
 0.5230	12.5970
 0.5240	12.8150
 0.5250	13.0130
 0.5260	13.2090
 0.5270	13.4040
 0.5280	13.5960
 0.5290	13.7810
 0.5300	13.9550
 0.5310	14.1170
 0.5320	14.2660
 0.5330	14.4070
 0.5340	14.5370
 0.5350	14.6530
 0.5360	14.7660
 0.5370	14.8690
 0.5380	14.9560
 0.5390	15.0240
 0.5400	15.0870
 0.5410	15.1430
 0.5420	15.1900
 0.5430	15.2330
 0.5440	15.2880
 0.5450	15.3510
 0.5460	15.4120
 0.5470	15.5010
 0.5480	15.5890
 0.5490	15.6580
 0.5500	15.7040
 0.5510	15.7300
 0.5520	15.7510
 0.5530	15.7740
 0.5540	15.7730
 0.5550	15.7540
 0.5560	15.7220
 0.5570	15.6790
 0.5580	15.6230
 0.5590	15.5510
 0.5600	15.4670
 0.5610	15.3760
 0.5620	15.2700
 0.5630	15.1490
 0.5640	15.0180
 0.5650	14.8800
 0.5660	14.7390
 0.5670	14.5940
 0.5680	14.4450
 0.5690	14.3020
 0.5700	14.1610
 0.5710	14.0170
 0.5720	13.8690
 0.5730	13.7300
 0.5740	13.6090
 0.5750	13.5090
 0.5760	13.4010
 0.5770	13.3040
 0.5780	13.2270
 0.5790	13.1390
 0.5800	13.0610
 0.5810	12.9890
 0.5820	12.9150
 0.5830	12.8450
 0.5840	12.7820
 0.5850	12.7250
 0.5860	12.6720
 0.5870	12.6160
 0.5880	12.5640
 0.5890	12.5190
 0.5900	12.4780
 0.5910	12.4460
 0.5920	12.4180
 0.5930	12.3820
 0.5940	12.3510
 0.5950	12.3310
 0.5960	12.3190
 0.5970	12.2960
 0.5980	12.2760
 0.5990	12.2560
 0.6000	12.2280
 0.6010	12.1990
 0.6020	12.1690
 0.6030	12.1380
 0.6040	12.0990
 0.6050	12.0560
 0.6060	12.0090
 0.6070	11.9590
 0.6080	11.9040
 0.6090	11.8360
 0.6100	11.7520
 0.6110	11.6580
 0.6120	11.6060
 0.6130	11.5800
 0.6140	11.5580
 0.6150	11.5160
 0.6160	11.4760
 0.6170	11.4390
 0.6180	11.4010
 0.6190	11.3670
 0.6200	11.3340
 0.6210	11.3020
 0.6220	11.2780
 0.6230	11.2620
 0.6240	11.2490
 0.6250	11.2360
 0.6260	11.2240
 0.6270	11.2130
 0.6280	11.2060
 0.6290	11.2020
 0.6300	11.1900
 0.6310	11.1820
 0.6320	11.1790
 0.6330	11.1740
 0.6340	11.1620
 0.6350	11.1410
 0.6360	11.1120
 0.6370	11.0810
 0.6380	11.0450
 0.6390	11.0010
 0.6400	10.9510
 0.6410	10.9030
 0.6420	10.8520
 0.6430	10.7980
 0.6440	10.7400
 0.6450	10.6870
 0.6460	10.6400
 0.6470	10.5930
 0.6480	10.5430
 0.6490	10.5060
 0.6500	10.4780
 0.6510	10.4460
 0.6520	10.4240
 0.6530	10.4050
 0.6540	10.3820
 0.6550	10.3630
 0.6560	10.3400
 0.6570	10.3140
 0.6580	10.2890
 0.6590	10.2550
 0.6600	10.2250
 0.6610	10.1990
 0.6620	10.1730
 0.6630	10.1420
 0.6640	10.1160
 0.6650	10.0980
 0.6660	10.0760
 0.6670	10.0640
 0.6680	10.0600
 0.6690	10.0550
 0.6700	10.0530
 0.6710	10.0600
 0.6720	10.0720
 0.6730	10.0760
 0.6740	10.0900
 0.6750	10.1090
 0.6760	10.1290
 0.6770	10.1450
 0.6780	10.1720
 0.6790	10.2070
 0.6800	10.2390
 0.6810	10.2770
 0.6820	10.3230
 0.6830	10.3750
 0.6840	10.4280
 0.6850	10.4980
 0.6860	10.5810
 0.6870	10.6730
 0.6880	10.7830
 0.6890	10.9190
 0.6900	11.0890
 0.6910	11.3030
 0.6920	11.5570
 0.6930	11.8670
 0.6940	12.2480
 0.6950	12.7010
 0.6960	13.2360
 0.6970	13.8510
 0.6980	14.5460
 0.6990	15.3420
 0.7000	16.2190
 0.7010	17.1660
 0.7020	18.1870
 0.7030	19.2840
 0.7040	20.4290
 0.7050	21.6050
 0.7060	22.8280
 0.7070	24.0840
 0.7080	25.3640
 0.7090	26.6660
 0.7100	27.9920
 0.7110	29.3220
 0.7120	30.6520
 0.7130	31.9980
 0.7140	33.3450
 0.7150	34.6870
 0.7160	36.0150
 0.7170	37.3320
 0.7180	38.6340
 0.7190	39.9170
 0.7200	41.1770
 0.7210	42.4200
 0.7220	43.6330
 0.7230	44.8140
 0.7240	45.9740
 0.7250	47.0810
 0.7260	48.1420
 0.7270	49.1660
 0.7280	50.1490
 0.7290	51.0960
 0.7300	51.9940
 0.7310	52.8340
 0.7320	53.6500
 0.7330	54.4170
 0.7340	55.1320
 0.7350	55.8260
 0.7360	56.4790
 0.7370	57.0870
 0.7380	57.6510
 0.7390	58.1610
 0.7400	58.6740
 0.7410	59.1740
 0.7420	59.6170
 0.7430	60.0200
 0.7440	60.3960
 0.7450	60.7500
 0.7460	61.0720
 0.7470	61.3740
 0.7480	61.6590
 0.7490	61.9210
 0.7500	62.1520
 0.7510	62.3610
 0.7520	62.5560
 0.7530	62.7440
 0.7540	62.9210
 0.7550	63.0600
 0.7560	63.1750
 0.7570	63.3020
 0.7580	63.4100
 0.7590	63.5180
 0.7600	63.6290
 0.7610	63.7040
 0.7620	63.7640
 0.7630	63.8190
 0.7640	63.8790
 0.7650	63.9410
 0.7660	63.9880
 0.7670	64.0240
 0.7680	64.0680
 0.7690	64.1010
 0.7700	64.1290
 0.7710	64.1570
 0.7720	64.2000
 0.7730	64.2250
 0.7740	64.2380
 0.7750	64.2540
 0.7760	64.2760
 0.7770	64.2830
 0.7780	64.2950
 0.7790	64.3400
 0.7800	64.3460
 0.7810	64.3450
 0.7820	64.3580
 0.7830	64.3880
 0.7840	64.3950
 0.7850	64.4100
 0.7860	64.4450
 0.7870	64.4530
 0.7880	64.4480
 0.7890	64.4480
 0.7900	64.4640
 0.7910	64.4730
 0.7920	64.4970
 0.7930	64.5230
 0.7940	64.5180
 0.7950	64.5130
 0.7960	64.5240
 0.7970	64.5450
 0.7980	64.5430
 0.7990	64.5640
 0.8000	64.5970
 0.8010	64.6210
 0.8020	64.6250
 0.8030	64.6240
 0.8040	64.6230
 0.8050	64.6240
 0.8060	64.6490
 0.8070	64.6570
 0.8080	64.6510
 0.8090	64.6680
 0.8100	64.6770
 0.8110	64.6810
 0.8120	64.6870
 0.8130	64.6920
 0.8140	64.7090
 0.8150	64.7270
 0.8160	64.7330
 0.8170	64.7270
 0.8180	64.7400
 0.8190	64.7700
 0.8200	64.7950
 0.8210	64.7820
 0.8220	64.7750
 0.8230	64.7870
 0.8240	64.7900
 0.8250	64.8080
 0.8260	64.8210
 0.8270	64.8230
 0.8280	64.8450
 0.8290	64.8550
 0.8300	64.8520
 0.8310	64.8430
 0.8320	64.8380
 0.8330	64.8450
 0.8340	64.8520
 0.8350	64.8450
 0.8360	64.8630
 0.8370	64.8850
 0.8380	64.8950
 0.8390	64.8880
 0.8400	64.8990
 0.8410	64.9190
 0.8420	64.9290
 0.8430	64.9170
 0.8440	64.9180
 0.8450	64.9350
 0.8460	64.9620
 0.8470	64.9920
 0.8480	64.9920
 0.8490	64.9760
 0.8500	64.9720
 0.8510	64.9960
 0.8520	65.0140
 0.8530	65.0150
 0.8540	65.0110
 0.8550	65.0290
 0.8560	65.0510
 0.8570	65.0650
 0.8580	65.0600
 0.8590	65.0270
 0.8600	65.0230
 0.8610	65.0570
 0.8620	65.0520
 0.8630	65.0520
 0.8640	65.0660
 0.8650	65.0840
 0.8660	65.0730
 0.8670	65.0700
 0.8680	65.0800
 0.8690	65.0920
 0.8700	65.0770
 0.8710	65.0790
 0.8720	65.0930
 0.8730	65.0860
 0.8740	65.0730
 0.8750	65.0650
 0.8760	65.0690
 0.8770	65.0850
 0.8780	65.0980
 0.8790	65.0850
 0.8800	65.0590
 0.8810	65.0740
 0.8820	65.0760
 0.8830	65.0670
 0.8840	65.0580
 0.8850	65.0610
 0.8860	65.0490
 0.8870	65.0360
 0.8880	65.0400
 0.8890	65.0390
 0.8900	65.0600
 0.8910	65.0800
 0.8920	65.0640
 0.8930	65.0440
 0.8940	65.0070
 0.8950	64.9740
 0.8960	64.9770
 0.8970	64.9880
 0.8980	64.9850
 0.8990	64.9690
 0.9000	64.9600
 0.9010	64.9370
 0.9020	64.9330
 0.9030	64.9520
 0.9040	64.9540
 0.9050	64.9530
 0.9060	64.9400
 0.9070	64.9120
 0.9080	64.8870
 0.9090	64.8870
 0.9100	64.9030
 0.9110	64.9110
 0.9120	64.8610
 0.9130	64.8500
 0.9140	64.8600
 0.9150	64.8510
 0.9160	64.8560
 0.9170	64.8510
 0.9180	64.8350
 0.9190	64.8180
 0.9200	64.8300
 0.9210	64.8160
 0.9220	64.7710
 0.9230	64.7300
 0.9240	64.7350
 0.9250	64.7430
 0.9260	64.7360
 0.9270	64.7220
 0.9280	64.6600
 0.9290	64.6160
 0.9300	64.6020
 0.9310	64.5780
 0.9320	64.5800
 0.9330	64.5540
 0.9340	64.5090
 0.9350	64.5350
 0.9360	64.5300
 0.9370	64.4710
 0.9380	64.3880
 0.9390	64.3570
 0.9400	64.3180
 0.9410	64.2740
 0.9420	64.2340
 0.9430	64.1950
 0.9440	64.1610
 0.9450	64.1230
 0.9460	64.0710
 0.9470	64.0080
 0.9480	63.9450
 0.9490	63.8790
 0.9500	63.8100
 0.9510	63.7420
 0.9520	63.6520
 0.9530	63.5540
 0.9540	63.4660
 0.9550	63.3520
 0.9560	63.2880
 0.9570	63.2360
 0.9580	63.1490
 0.9590	63.0710
 0.9600	62.9970
 0.9610	62.9260
 0.9620	62.8600
 0.9630	62.7980
 0.9640	62.7410
 0.9650	62.7030
 0.9660	62.6890
 0.9670	62.6430
 0.9680	62.6290
 0.9690	62.6290
 0.9700	62.6040
 0.9710	62.5860
 0.9720	62.5610
 0.9730	62.5290
 0.9740	62.5010
 0.9750	62.5200
 0.9760	62.5000
 0.9770	62.4660
 0.9780	62.4880
 0.9790	62.5360
 0.9800	62.5630
 0.9810	62.5380
 0.9820	62.4770
 0.9830	62.5350
 0.9840	62.5420
 0.9850	62.5250
 0.9860	62.5860
 0.9870	62.6400
 0.9880	62.6770
 0.9890	62.6950
 0.9900	62.7100
 0.9910	62.7620
 0.9920	62.8180
 0.9930	62.8750
 0.9940	62.9320
 0.9950	62.9880
 0.9960	63.0450
 0.9970	63.1010
 0.9980	63.1580
 0.9990	63.2140
 1.0000	63.2710
 1.0010	63.3270
 1.0020	63.3840
 1.0030	63.4410
 1.0040	63.4970
 1.0050	63.5540
 1.0060	63.6100
 1.0070	63.6670
 1.0080	63.7230
 1.0090	63.7800
 1.0100	63.7800
 1.0110	63.8070
 1.0120	63.8350
 1.0130	63.8690
 1.0140	63.8980
 1.0150	63.9200
 1.0160	63.9480
 1.0170	63.9800
 1.0180	64.0180
 1.0190	64.0790
 1.0200	64.1300
 1.0210	64.1630
 1.0220	64.1960
 1.0230	64.2300
 1.0240	64.2540
 1.0250	64.2860
 1.0260	64.3280
 1.0270	64.3590
 1.0280	64.3910
 1.0290	64.4110
 1.0300	64.4100
 1.0310	64.4300
 1.0320	64.4530
 1.0330	64.4700
 1.0340	64.5040
 1.0350	64.5580
 1.0360	64.5900
 1.0370	64.6110
 1.0380	64.6370
 1.0390	64.6590
 1.0400	64.6760
 1.0410	64.6890
 1.0420	64.7070
 1.0430	64.7200
 1.0440	64.7340
 1.0450	64.7560
 1.0460	64.7690
 1.0470	64.7730
 1.0480	64.7820
 1.0490	64.7870
 1.0500	64.7980
 1.0510	64.8080
 1.0520	64.8340
 1.0530	64.8490
 1.0540	64.8680
 1.0550	64.8810
 1.0560	64.8860
 1.0570	64.8940
 1.0580	64.9030
 1.0590	64.9090
 1.0600	64.9120
 1.0610	64.9160
 1.0620	64.9150
 1.0630	64.9200
 1.0640	64.9330
 1.0650	64.9380
 1.0660	64.9400
 1.0670	64.9460
 1.0680	64.9500
 1.0690	64.9540
 1.0700	64.9490
 1.0710	64.9420
 1.0720	64.9350
 1.0730	64.9170
 1.0740	64.9100
 1.0750	64.9090
 1.0760	64.9110
 1.0770	64.9230
 1.0780	64.9220
 1.0790	64.9220
 1.0800	64.9170
 1.0810	64.8960
 1.0820	64.8820
 1.0830	64.8660
 1.0840	64.8580
 1.0850	64.8530
 1.0860	64.8510
 1.0870	64.8500
 1.0880	64.8580
 1.0890	64.8500
 1.0900	64.8290
 1.0910	64.8220
 1.0920	64.8220
 1.0930	64.8090
 1.0940	64.7980
 1.0950	64.7840
 1.0960	64.7560
 1.0970	64.7340
 1.0980	64.7210
 1.0990	64.7000
 1.1000	64.6700
 1.1010	64.6440
 1.1020	64.6180
 1.1030	64.5920
 1.1040	64.5730
 1.1050	64.5600
 1.1060	64.5500
 1.1070	64.5510
 1.1080	64.5370
 1.1090	64.5210
 1.1100	64.5010
 1.1110	64.4690
 1.1120	64.4450
 1.1130	64.4270
 1.1140	64.4020
 1.1150	64.3800
 1.1160	64.3470
 1.1170	64.3120
 1.1180	64.2650
 1.1190	64.2040
 1.1200	64.1470
 1.1210	64.0850
 1.1220	64.0190
 1.1230	63.9610
 1.1240	63.8940
 1.1250	63.8190
 1.1260	63.7400
 1.1270	63.6540
 1.1280	63.5620
 1.1290	63.4570
 1.1300	63.3440
 1.1310	63.2230
 1.1320	63.0890
 1.1330	62.9530
 1.1340	62.8150
 1.1350	62.6640
 1.1360	62.5060
 1.1370	62.3360
 1.1380	62.1570
 1.1390	61.9740
 1.1400	61.7850
 1.1410	61.5950
 1.1420	61.3980
 1.1430	61.2000
 1.1440	61.0020
 1.1450	60.7960
 1.1460	60.5980
 1.1470	60.3980
 1.1480	60.2100
 1.1490	60.0250
 1.1500	59.8510
 1.1510	59.6830
 1.1520	59.5260
 1.1530	59.3730
 1.1540	59.2360
 1.1550	59.1140
 1.1560	59.0020
 1.1570	58.8950
 1.1580	58.8040
 1.1590	58.7180
 1.1600	58.6400
 1.1610	58.5770
 1.1620	58.5160
 1.1630	58.4590
 1.1640	58.4130
 1.1650	58.3710
 1.1660	58.3340
 1.1670	58.3020
 1.1680	58.2770
 1.1690	58.2510
 1.1700	58.2310
 1.1710	58.2050
 1.1720	58.1750
 1.1730	58.1510
 1.1740	58.1270
 1.1750	58.1010
 1.1760	58.0850
 1.1770	58.0720
 1.1780	58.0500
 1.1790	58.0290
 1.1800	58.0050
 1.1810	57.9700
 1.1820	57.9390
 1.1830	57.9090
 1.1840	57.8740
 1.1850	57.8390
 1.1860	57.8130
 1.1870	57.7940
 1.1880	57.7730
 1.1890	57.7570
 1.1900	57.7450
 1.1910	57.7340
 1.1920	57.7220
 1.1930	57.7170
 1.1940	57.7130
 1.1950	57.7080
 1.1960	57.7020
 1.1970	57.7050
 1.1980	57.7070
 1.1990	57.7090
 1.2000	57.7170
 1.2010	57.7310
 1.2020	57.7450
 1.2030	57.7660
 1.2040	57.7950
 1.2050	57.8210
 1.2060	57.8530
 1.2070	57.8810
 1.2080	57.9070
 1.2090	57.9410
 1.2100	57.9760
 1.2110	58.0120
 1.2120	58.0470
 1.2130	58.0890
 1.2140	58.1380
 1.2150	58.1850
 1.2160	58.2360
 1.2170	58.2890
 1.2180	58.3430
 1.2190	58.3870
 1.2200	58.4370
 1.2210	58.4930
 1.2220	58.5450
 1.2230	58.5970
 1.2240	58.6490
 1.2250	58.7010
 1.2260	58.7470
 1.2270	58.7950
 1.2280	58.8470
 1.2290	58.8930
 1.2300	58.9430
 1.2310	58.9960
 1.2320	59.0360
 1.2330	59.0760
 1.2340	59.1200
 1.2350	59.1650
 1.2360	59.2070
 1.2370	59.2500
 1.2380	59.2920
 1.2390	59.3270
 1.2400	59.3520
 1.2410	59.3840
 1.2420	59.4200
 1.2430	59.4470
 1.2440	59.4790
 1.2450	59.5090
 1.2460	59.5310
 1.2470	59.5530
 1.2480	59.5720
 1.2490	59.5950
 1.2500	59.6250
 1.2510	59.6520
 1.2520	59.6860
 1.2530	59.7070
 1.2540	59.7120
 1.2550	59.7220
 1.2560	59.7270
 1.2570	59.7320
 1.2580	59.7500
 1.2590	59.7650
 1.2600	59.7810
 1.2610	59.7940
 1.2620	59.8100
 1.2630	59.8190
 1.2640	59.8160
 1.2650	59.8230
 1.2660	59.8270
 1.2670	59.8150
 1.2680	59.8060
 1.2690	59.7940
 1.2700	59.7840
 1.2710	59.7830
 1.2720	59.7800
 1.2730	59.7750
 1.2740	59.7610
 1.2750	59.7410
 1.2760	59.7280
 1.2770	59.7170
 1.2780	59.6990
 1.2790	59.6790
 1.2800	59.6580
 1.2810	59.6350
 1.2820	59.6120
 1.2830	59.5920
 1.2840	59.5700
 1.2850	59.5390
 1.2860	59.5090
 1.2870	59.4740
 1.2880	59.4320
 1.2890	59.3910
 1.2900	59.3500
 1.2910	59.2980
 1.2920	59.2530
 1.2930	59.2020
 1.2940	59.1460
 1.2950	59.0990
 1.2960	59.0430
 1.2970	58.9870
 1.2980	58.9300
 1.2990	58.8580
 1.3000	58.7800
 1.3010	58.6980
 1.3020	58.6150
 1.3030	58.5340
 1.3040	58.4530
 1.3050	58.3730
 1.3060	58.2870
 1.3070	58.1940
 1.3080	58.0930
 1.3090	57.9890
 1.3100	57.8800
 1.3110	57.7640
 1.3120	57.6490
 1.3130	57.5300
 1.3140	57.4070
 1.3150	57.2800
 1.3160	57.1460
 1.3170	57.0070
 1.3180	56.8620
 1.3190	56.7110
 1.3200	56.5570
 1.3210	56.3970
 1.3220	56.2330
 1.3230	56.0660
 1.3240	55.8930
 1.3250	55.7240
 1.3260	55.5510
 1.3270	55.3660
 1.3280	55.1830
 1.3290	54.9950
 1.3300	54.8050
 1.3310	54.6170
 1.3320	54.4180
 1.3330	54.2140
 1.3340	54.0080
 1.3350	53.8020
 1.3360	53.5970
 1.3370	53.3890
 1.3380	53.1780
 1.3390	52.9630
 1.3400	52.7480
 1.3410	52.5380
 1.3420	52.3310
 1.3430	52.1260
 1.3440	51.9240
 1.3450	51.7240
 1.3460	51.5250
 1.3470	51.3300
 1.3480	51.1360
 1.3490	50.9420
 1.3500	50.7510
 1.3510	50.5600
 1.3520	50.3670
 1.3530	50.1770
 1.3540	49.9900
 1.3550	49.8010
 1.3560	49.6140
 1.3570	49.4320
 1.3580	49.2450
 1.3590	49.0510
 1.3600	48.8530
 1.3610	48.6480
 1.3620	48.4380
 1.3630	48.2280
 1.3640	48.0080
 1.3650	47.7760
 1.3660	47.5360
 1.3670	47.2810
 1.3680	47.0070
 1.3690	46.7250
 1.3700	46.4260
 1.3710	46.1110
 1.3720	45.7840
 1.3730	45.4340
 1.3740	45.0610
 1.3750	44.6710
 1.3760	44.2550
 1.3770	43.8100
 1.3780	43.3380
 1.3790	42.8380
 1.3800	42.3120
 1.3810	41.7600
 1.3820	41.1820
 1.3830	40.5810
 1.3840	39.9520
 1.3850	39.2930
 1.3860	38.6220
 1.3870	37.9210
 1.3880	37.2180
 1.3890	36.5010
 1.3900	35.7730
 1.3910	35.0440
 1.3920	34.3110
 1.3930	33.5760
 1.3940	32.8460
 1.3950	32.1120
 1.3960	31.3920
 1.3970	30.6890
 1.3980	29.9980
 1.3990	29.3330
 1.4000	28.6900
 1.4010	28.0640
 1.4020	27.4680
 1.4030	26.8960
 1.4040	26.3510
 1.4050	25.8370
 1.4060	25.3500
 1.4070	24.8960
 1.4080	24.4690
 1.4090	24.0650
 1.4100	23.6850
 1.4110	23.3280
 1.4120	22.9970
 1.4130	22.6940
 1.4140	22.4140
 1.4150	22.1610
 1.4160	21.9280
 1.4170	21.7110
 1.4180	21.5170
 1.4190	21.3380
 1.4200	21.1720
 1.4210	21.0250
 1.4220	20.8940
 1.4230	20.7760
 1.4240	20.6730
 1.4250	20.5780
 1.4260	20.4920
 1.4270	20.4140
 1.4280	20.3430
 1.4290	20.2820
 1.4300	20.2330
 1.4310	20.1880
 1.4320	20.1520
 1.4330	20.1210
 1.4340	20.0950
 1.4350	20.0750
 1.4360	20.0620
 1.4370	20.0560
 1.4380	20.0540
 1.4390	20.0530
 1.4400	20.0590
 1.4410	20.0700
 1.4420	20.0840
 1.4430	20.0990
 1.4440	20.1180
 1.4450	20.1380
 1.4460	20.1570
 1.4470	20.1840
 1.4480	20.2110
 1.4490	20.2370
 1.4500	20.2660
 1.4510	20.2950
 1.4520	20.3240
 1.4530	20.3540
 1.4540	20.3830
 1.4550	20.4170
 1.4560	20.4490
 1.4570	20.4850
 1.4580	20.5270
 1.4590	20.5730
 1.4600	20.6270
 1.4610	20.6830
 1.4620	20.7440
 1.4630	20.8080
 1.4640	20.8760
 1.4650	20.9520
 1.4660	21.0300
 1.4670	21.1120
 1.4680	21.2010
 1.4690	21.2940
