Name: Calocedrus decrruens 2
Type: vegetation
Class: Tree
Genus: Calocedrus
Species: decurrens
Sample No.: VH151
Owner: UCSB
Wavelength Range: TIR
Origin: 37.0441; -119.3033; WGS84
Collection Date: 6/8/2013
Description: Samples were collected as part of the HyspIRI Airborne Campaign. 48 individual plants were sampled in three times in 2013 - spring  summer  and fall. The name of the sample includes a 1  2  or 3 which references a different individual of the species. Samples were taken to JPL and processed within 48 hours of collection. The same leaves were processed in the Nicolet and then measured using the ASD.
Measurement: Hemispherical reflectance
First Column: X
Second Column: Y
X Units: Wavelength (micrometers)
Y Units: Reflectance (percentage)
First X Value: 2.501
Last X Value: 15.387
Number of X Values: 1737
Additional Information: vegetation.tree.calocedrus.decurrens.tir.vh151.ucsb.nicolet.ancillary.txt

 2.5010	 7.5660
 2.5030	 7.6540
 2.5040	 7.9480
 2.5050	 7.9090
 2.5060	 7.7150
 2.5070	 7.6060
 2.5090	 7.7390
 2.5100	 7.7850
 2.5110	 7.6740
 2.5120	 7.5140
 2.5140	 7.5900
 2.5150	 7.5570
 2.5160	 7.4860
 2.5170	 7.4820
 2.5180	 7.5920
 2.5200	 7.6360
 2.5210	 7.5970
 2.5220	 7.4430
 2.5230	 7.6540
 2.5250	 7.6750
 2.5260	 7.6140
 2.5270	 7.6150
 2.5280	 7.6640
 2.5290	 7.6300
 2.5310	 7.6690
 2.5320	 7.6610
 2.5330	 7.7480
 2.5340	 7.6710
 2.5360	 7.6720
 2.5370	 7.6530
 2.5380	 7.7020
 2.5390	 7.6200
 2.5410	 7.7420
 2.5420	 7.7850
 2.5430	 7.7420
 2.5440	 7.6490
 2.5460	 7.6510
 2.5470	 7.6940
 2.5480	 7.7960
 2.5490	 7.8160
 2.5510	 7.7730
 2.5520	 7.6260
 2.5530	 7.6940
 2.5540	 7.7730
 2.5560	 7.7500
 2.5570	 7.5730
 2.5580	 7.6280
 2.5590	 7.8080
 2.5610	 7.9620
 2.5620	 7.9160
 2.5630	 7.8490
 2.5640	 7.8580
 2.5660	 7.8350
 2.5670	 7.8190
 2.5680	 7.8700
 2.5700	 7.8060
 2.5710	 7.8390
 2.5720	 7.6780
 2.5730	 7.5760
 2.5750	 7.6750
 2.5760	 7.8430
 2.5770	 7.8960
 2.5790	 7.9270
 2.5800	 7.7440
 2.5810	 7.7590
 2.5820	 7.8850
 2.5840	 7.9490
 2.5850	 7.7480
 2.5860	 7.5850
 2.5880	 7.6480
 2.5890	 7.9170
 2.5900	 7.8590
 2.5910	 7.7880
 2.5930	 7.7670
 2.5940	 7.8560
 2.5950	 7.7100
 2.5970	 7.6860
 2.5980	 7.7070
 2.5990	 7.7690
 2.6000	 7.7160
 2.6020	 7.7400
 2.6030	 7.5890
 2.6040	 7.5030
 2.6060	 7.5080
 2.6070	 7.5670
 2.6080	 7.4490
 2.6100	 7.4000
 2.6110	 7.3950
 2.6120	 7.4970
 2.6140	 7.4510
 2.6150	 7.3630
 2.6160	 7.2110
 2.6180	 7.3400
 2.6190	 7.2610
 2.6200	 7.0630
 2.6220	 6.9000
 2.6230	 6.9720
 2.6240	 6.9740
 2.6260	 7.1450
 2.6270	 7.0700
 2.6280	 6.9720
 2.6300	 6.9400
 2.6310	 6.8420
 2.6320	 6.7000
 2.6340	 6.7310
 2.6350	 6.7340
 2.6360	 6.7940
 2.6380	 6.7100
 2.6390	 6.6290
 2.6400	 6.5290
 2.6420	 6.5810
 2.6430	 6.4300
 2.6440	 6.3820
 2.6460	 6.4000
 2.6470	 6.3560
 2.6480	 6.0260
 2.6500	 6.0100
 2.6510	 6.1600
 2.6520	 6.1740
 2.6540	 5.9970
 2.6550	 5.9780
 2.6560	 5.9570
 2.6580	 6.0130
 2.6590	 5.8200
 2.6610	 5.7670
 2.6620	 5.8430
 2.6630	 5.8960
 2.6650	 5.7180
 2.6660	 5.6310
 2.6670	 5.6180
 2.6690	 5.6040
 2.6700	 5.5410
 2.6720	 5.5270
 2.6730	 5.3260
 2.6740	 5.3270
 2.6760	 5.3420
 2.6770	 5.2840
 2.6780	 5.2390
 2.6800	 5.2060
 2.6810	 5.1650
 2.6830	 5.2050
 2.6840	 5.0340
 2.6850	 5.0460
 2.6870	 4.9620
 2.6880	 4.9870
 2.6900	 4.8830
 2.6910	 4.8270
 2.6920	 4.6710
 2.6940	 4.6140
 2.6950	 4.4840
 2.6970	 4.4690
 2.6980	 4.4300
 2.6990	 4.4650
 2.7010	 4.3870
 2.7020	 4.2900
 2.7040	 4.2400
 2.7050	 4.3440
 2.7060	 4.2100
 2.7080	 4.1570
 2.7090	 4.0950
 2.7110	 4.1570
 2.7120	 4.0440
 2.7130	 3.9780
 2.7150	 4.0480
 2.7160	 4.0650
 2.7180	 4.0510
 2.7190	 3.9590
 2.7210	 3.9010
 2.7220	 3.9670
 2.7230	 3.9140
 2.7250	 4.0510
 2.7260	 4.1080
 2.7280	 4.0420
 2.7290	 3.8490
 2.7310	 3.9560
 2.7320	 3.8930
 2.7330	 3.8390
 2.7350	 3.8040
 2.7360	 3.8130
 2.7380	 3.9020
 2.7390	 3.8710
 2.7410	 3.8430
 2.7420	 3.7290
 2.7440	 3.3550
 2.7450	 3.4810
 2.7470	 3.7630
 2.7480	 3.9270
 2.7490	 3.9130
 2.7510	 3.8710
 2.7520	 4.0050
 2.7540	 4.0290
 2.7550	 3.8750
 2.7570	 3.6260
 2.7580	 3.1800
 2.7600	 3.3430
 2.7610	 3.7190
 2.7630	 4.0580
 2.7640	 3.9280
 2.7660	 3.9080
 2.7670	 3.7610
 2.7680	 3.4850
 2.7700	 3.6460
 2.7710	 3.9880
 2.7730	 3.6870
 2.7740	 3.5700
 2.7760	 3.4740
 2.7770	 3.4210
 2.7790	 3.4630
 2.7800	 3.5030
 2.7820	 3.4740
 2.7830	 3.6600
 2.7850	 3.6480
 2.7860	 3.6450
 2.7880	 3.5730
 2.7890	 3.6980
 2.7910	 3.5540
 2.7920	 3.3610
 2.7940	 3.3330
 2.7950	 3.5230
 2.7970	 3.6150
 2.7980	 3.5740
 2.8000	 3.6210
 2.8010	 3.7440
 2.8030	 3.6480
 2.8040	 3.6110
 2.8060	 3.5610
 2.8070	 3.6200
 2.8090	 3.5100
 2.8110	 3.4470
 2.8120	 3.3910
 2.8140	 3.5020
 2.8150	 3.5640
 2.8170	 3.5800
 2.8180	 3.5530
 2.8200	 3.5960
 2.8210	 3.5090
 2.8230	 3.6630
 2.8240	 3.6760
 2.8260	 3.6350
 2.8270	 3.5570
 2.8290	 3.5860
 2.8300	 3.4760
 2.8320	 3.5550
 2.8340	 3.4950
 2.8350	 3.5640
 2.8370	 3.6000
 2.8380	 3.6010
 2.8400	 3.3730
 2.8410	 3.4400
 2.8430	 3.5770
 2.8440	 3.6520
 2.8460	 3.5920
 2.8480	 3.7050
 2.8490	 3.7550
 2.8510	 3.7700
 2.8520	 3.4880
 2.8540	 3.4910
 2.8550	 3.5220
 2.8570	 3.5840
 2.8590	 3.5960
 2.8600	 3.7020
 2.8620	 3.5930
 2.8630	 3.6100
 2.8650	 3.6830
 2.8660	 3.7170
 2.8680	 3.5040
 2.8700	 3.4020
 2.8710	 3.3860
 2.8730	 3.5280
 2.8740	 3.6180
 2.8760	 3.6740
 2.8780	 3.7190
 2.8790	 3.6960
 2.8810	 3.5460
 2.8820	 3.5360
 2.8840	 3.7080
 2.8860	 3.9750
 2.8870	 3.8790
 2.8890	 3.5590
 2.8900	 3.3470
 2.8920	 3.5950
 2.8940	 3.6210
 2.8950	 3.7370
 2.8970	 3.7790
 2.8980	 3.7550
 2.9000	 3.6060
 2.9020	 3.6580
 2.9030	 3.6220
 2.9050	 3.5290
 2.9070	 3.4810
 2.9080	 3.4000
 2.9100	 3.3910
 2.9120	 3.8240
 2.9130	 3.8020
 2.9150	 3.7620
 2.9160	 3.6860
 2.9180	 3.6900
 2.9200	 3.5750
 2.9210	 3.6450
 2.9230	 3.6350
 2.9250	 3.7450
 2.9260	 3.6270
 2.9280	 3.5390
 2.9300	 3.5240
 2.9310	 3.6950
 2.9330	 3.6340
 2.9350	 3.6640
 2.9360	 3.6670
 2.9380	 3.7140
 2.9400	 3.6390
 2.9410	 3.7550
 2.9430	 3.7090
 2.9450	 3.6790
 2.9460	 3.5480
 2.9480	 3.5650
 2.9500	 3.8320
 2.9510	 4.0690
 2.9530	 3.6670
 2.9550	 3.6100
 2.9560	 4.0220
 2.9580	 4.6670
 2.9600	 4.5410
 2.9610	 3.6660
 2.9630	 3.3460
 2.9650	 3.1190
 2.9660	 2.4420
 2.9680	 2.2920
 2.9700	 2.9860
 2.9720	 4.3310
 2.9730	 4.9310
 2.9750	 4.3660
 2.9770	 3.6600
 2.9780	 3.4560
 2.9800	 2.8770
 2.9820	 2.5240
 2.9840	 2.1260
 2.9850	 2.9040
 2.9870	 3.4120
 2.9890	 3.6050
 2.9900	 3.9590
 2.9920	 4.2770
 2.9940	 3.2150
 2.9960	 3.2670
 2.9970	 3.2990
 2.9990	 3.0900
 3.0010	 2.8630
 3.0030	 3.1540
 3.0040	 3.6900
 3.0060	 3.6400
 3.0080	 3.5620
 3.0100	 3.6380
 3.0110	 3.8000
 3.0130	 3.5340
 3.0150	 3.2050
 3.0170	 3.9400
 3.0180	 4.1940
 3.0200	 3.7870
 3.0220	 3.9060
 3.0240	 3.5990
 3.0250	 3.6170
 3.0270	 3.6110
 3.0290	 3.5470
 3.0310	 3.6680
 3.0320	 3.4050
 3.0340	 3.4340
 3.0360	 3.7340
 3.0380	 2.8630
 3.0400	 2.4720
 3.0410	 3.7760
 3.0430	 3.9680
 3.0450	 3.1200
 3.0470	 2.6050
 3.0480	 3.1870
 3.0500	 2.7640
 3.0520	 2.3340
 3.0540	 3.4530
 3.0560	 4.5200
 3.0570	 4.4000
 3.0590	 2.9140
 3.0610	 2.5850
 3.0630	 3.3620
 3.0650	 3.7390
 3.0660	 3.7470
 3.0680	 3.7400
 3.0700	 3.4840
 3.0720	 3.5450
 3.0740	 3.7280
 3.0760	 3.5080
 3.0770	 3.5560
 3.0790	 3.3890
 3.0810	 3.4350
 3.0830	 3.6090
 3.0850	 3.6730
 3.0870	 3.6920
 3.0880	 3.7470
 3.0900	 3.7320
 3.0920	 3.7240
 3.0940	 3.6880
 3.0960	 3.6850
 3.0980	 3.6890
 3.0990	 3.7730
 3.1010	 3.5190
 3.1030	 3.5680
 3.1050	 4.0010
 3.1070	 4.1180
 3.1090	 3.7700
 3.1110	 3.5500
 3.1120	 3.8170
 3.1140	 3.9840
 3.1160	 3.8770
 3.1180	 3.8230
 3.1200	 3.4950
 3.1220	 3.7010
 3.1240	 3.9290
 3.1260	 3.6830
 3.1270	 3.2900
 3.1290	 3.4350
 3.1310	 3.7770
 3.1330	 4.0830
 3.1350	 3.9590
 3.1370	 3.5030
 3.1390	 2.9170
 3.1410	 3.6840
 3.1430	 4.7290
 3.1450	 3.7010
 3.1460	 3.4540
 3.1480	 4.3400
 3.1500	 4.4650
 3.1520	 4.0510
 3.1540	 3.9190
 3.1560	 4.0020
 3.1580	 3.5410
 3.1600	 3.0190
 3.1620	 3.2390
 3.1640	 3.3890
 3.1660	 3.0890
 3.1680	 3.0230
 3.1700	 2.9130
 3.1710	 3.0180
 3.1730	 3.0480
 3.1750	 2.4530
 3.1770	 2.9140
 3.1790	 4.2890
 3.1810	 3.7610
 3.1830	 3.4300
 3.1850	 3.6220
 3.1870	 3.7790
 3.1890	 3.9320
 3.1910	 3.6960
 3.1930	 3.6360
 3.1950	 3.6070
 3.1970	 3.5210
 3.1990	 3.6860
 3.2010	 3.6300
 3.2030	 3.6930
 3.2050	 3.5580
 3.2070	 3.4390
 3.2090	 3.6650
 3.2110	 3.7570
 3.2130	 3.5530
 3.2150	 3.5270
 3.2170	 3.7480
 3.2190	 3.8020
 3.2210	 3.6680
 3.2230	 3.5960
 3.2250	 3.4280
 3.2270	 3.5500
 3.2290	 3.6180
 3.2310	 3.5930
 3.2330	 3.5280
 3.2350	 3.5630
 3.2370	 3.6060
 3.2390	 3.5330
 3.2410	 3.3650
 3.2430	 3.4240
 3.2450	 3.6610
 3.2470	 3.6700
 3.2490	 3.6400
 3.2510	 3.7410
 3.2530	 3.5440
 3.2550	 3.3490
 3.2570	 3.4430
 3.2590	 3.6700
 3.2610	 3.6710
 3.2630	 3.3030
 3.2650	 3.3330
 3.2670	 3.6950
 3.2690	 3.8030
 3.2720	 3.8860
 3.2740	 3.7670
 3.2760	 3.6370
 3.2780	 3.5880
 3.2800	 3.6160
 3.2820	 3.4980
 3.2840	 3.4370
 3.2860	 3.3710
 3.2880	 3.3680
 3.2900	 3.2620
 3.2920	 3.1800
 3.2940	 3.2150
 3.2960	 3.4350
 3.2990	 3.5920
 3.3010	 3.6860
 3.3030	 3.4750
 3.3050	 3.4710
 3.3070	 3.5270
 3.3090	 3.3890
 3.3110	 3.2800
 3.3130	 3.2680
 3.3150	 3.3480
 3.3180	 3.4480
 3.3200	 3.2540
 3.3220	 3.1420
 3.3240	 3.2790
 3.3260	 3.4670
 3.3280	 3.4720
 3.3300	 3.2910
 3.3330	 3.1800
 3.3350	 3.4150
 3.3370	 3.3100
 3.3390	 3.1970
 3.3410	 3.2890
 3.3430	 3.3230
 3.3450	 3.3450
 3.3480	 3.3890
 3.3500	 3.3300
 3.3520	 3.2060
 3.3540	 3.1270
 3.3560	 3.0900
 3.3580	 3.0930
 3.3610	 3.1880
 3.3630	 3.1800
 3.3650	 3.1340
 3.3670	 2.9390
 3.3690	 2.9150
 3.3720	 3.0050
 3.3740	 3.0070
 3.3760	 2.9520
 3.3780	 3.0120
 3.3800	 2.9930
 3.3830	 2.9580
 3.3850	 2.8050
 3.3870	 2.7820
 3.3890	 2.7130
 3.3910	 2.5940
 3.3940	 2.5270
 3.3960	 2.6010
 3.3980	 2.6740
 3.4000	 2.7830
 3.4020	 2.7890
 3.4050	 2.8080
 3.4070	 2.7680
 3.4090	 2.8710
 3.4110	 3.0180
 3.4140	 3.1970
 3.4160	 3.3990
 3.4180	 3.6680
 3.4200	 3.9110
 3.4230	 4.3220
 3.4250	 4.7220
 3.4270	 5.1860
 3.4290	 5.6280
 3.4320	 5.6340
 3.4340	 5.3450
 3.4360	 5.1510
 3.4390	 5.0740
 3.4410	 4.9550
 3.4430	 4.6540
 3.4450	 4.4180
 3.4480	 4.4120
 3.4500	 4.4580
 3.4520	 4.1820
 3.4550	 3.9840
 3.4570	 4.2120
 3.4590	 4.6380
 3.4620	 4.5990
 3.4640	 4.3330
 3.4660	 4.1410
 3.4680	 4.1400
 3.4710	 4.0360
 3.4730	 4.0760
 3.4750	 4.0270
 3.4780	 4.0020
 3.4800	 3.9750
 3.4820	 3.9460
 3.4850	 3.7830
 3.4870	 3.7900
 3.4890	 3.6920
 3.4920	 3.5460
 3.4940	 3.4970
 3.4970	 3.6080
 3.4990	 3.6530
 3.5010	 3.7690
 3.5040	 3.9000
 3.5060	 4.3240
 3.5080	 5.1500
 3.5110	 5.9110
 3.5130	 5.9930
 3.5160	 5.8050
 3.5180	 5.4420
 3.5200	 5.2350
 3.5230	 4.9650
 3.5250	 4.7920
 3.5270	 4.7940
 3.5300	 4.7780
 3.5320	 4.6540
 3.5350	 4.6340
 3.5370	 4.5500
 3.5400	 4.5360
 3.5420	 4.4470
 3.5440	 4.4950
 3.5470	 4.5140
 3.5490	 4.6050
 3.5520	 4.5820
 3.5540	 4.5250
 3.5570	 4.5050
 3.5590	 4.5440
 3.5610	 4.3750
 3.5640	 4.3060
 3.5660	 4.2500
 3.5690	 4.2370
 3.5710	 4.2250
 3.5740	 4.3380
 3.5760	 4.3920
 3.5790	 4.3350
 3.5810	 4.1950
 3.5840	 4.2720
 3.5860	 4.5160
 3.5890	 4.6130
 3.5910	 4.3720
 3.5930	 4.3630
 3.5960	 4.4040
 3.5980	 4.3090
 3.6010	 4.1750
 3.6030	 4.2280
 3.6060	 4.3150
 3.6080	 4.3100
 3.6110	 4.3040
 3.6140	 4.3270
 3.6160	 4.3350
 3.6190	 4.2790
 3.6210	 4.1840
 3.6240	 4.2060
 3.6260	 4.1990
 3.6290	 4.2000
 3.6310	 4.1770
 3.6340	 4.2750
 3.6360	 4.2080
 3.6390	 4.1690
 3.6410	 4.0950
 3.6440	 4.1580
 3.6470	 4.1930
 3.6490	 4.2080
 3.6520	 4.1600
 3.6540	 4.1820
 3.6570	 4.1660
 3.6590	 4.1540
 3.6620	 4.1750
 3.6650	 4.2690
 3.6670	 4.2780
 3.6700	 4.2020
 3.6720	 4.1740
 3.6750	 4.2710
 3.6780	 4.2160
 3.6800	 4.1910
 3.6830	 4.1750
 3.6850	 4.2130
 3.6880	 4.2490
 3.6910	 4.2760
 3.6930	 4.2640
 3.6960	 4.2600
 3.6990	 4.1710
 3.7010	 4.1490
 3.7040	 4.2330
 3.7060	 4.2560
 3.7090	 4.2140
 3.7120	 4.2060
 3.7140	 4.2030
 3.7170	 4.3070
 3.7200	 4.2770
 3.7220	 4.1910
 3.7250	 4.2600
 3.7280	 4.3440
 3.7300	 4.3440
 3.7330	 4.3050
 3.7360	 4.2010
 3.7390	 4.2490
 3.7410	 4.1970
 3.7440	 4.2190
 3.7470	 4.3120
 3.7490	 4.3700
 3.7520	 4.3710
 3.7550	 4.4200
 3.7580	 4.3390
 3.7600	 4.3580
 3.7630	 4.4340
 3.7660	 4.4460
 3.7680	 4.3370
 3.7710	 4.3470
 3.7740	 4.3970
 3.7770	 4.3250
 3.7790	 4.3200
 3.7820	 4.3650
 3.7850	 4.3420
 3.7880	 4.3610
 3.7900	 4.3110
 3.7930	 4.4150
 3.7960	 4.4840
 3.7990	 4.4870
 3.8020	 4.4450
 3.8040	 4.4230
 3.8070	 4.4070
 3.8100	 4.4500
 3.8130	 4.4370
 3.8160	 4.4850
 3.8180	 4.4870
 3.8210	 4.4790
 3.8240	 4.5140
 3.8270	 4.5460
 3.8300	 4.5210
 3.8330	 4.4650
 3.8350	 4.4530
 3.8380	 4.5420
 3.8410	 4.4470
 3.8440	 4.4620
 3.8470	 4.4120
 3.8500	 4.4750
 3.8520	 4.5630
 3.8550	 4.6910
 3.8580	 4.6950
 3.8610	 4.6320
 3.8640	 4.6060
 3.8670	 4.5920
 3.8700	 4.4740
 3.8730	 4.5140
 3.8750	 4.5690
 3.8780	 4.5810
 3.8810	 4.5930
 3.8840	 4.5860
 3.8870	 4.6110
 3.8900	 4.7390
 3.8930	 4.6330
 3.8960	 4.5430
 3.8990	 4.5980
 3.9020	 4.7260
 3.9050	 4.6860
 3.9080	 4.6750
 3.9110	 4.6070
 3.9140	 4.6140
 3.9160	 4.6750
 3.9190	 4.7090
 3.9220	 4.6610
 3.9250	 4.6900
 3.9280	 4.6990
 3.9310	 4.7530
 3.9340	 4.7550
 3.9370	 4.7300
 3.9400	 4.6570
 3.9430	 4.6560
 3.9460	 4.6250
 3.9490	 4.6250
 3.9520	 4.6390
 3.9550	 4.6920
 3.9580	 4.6740
 3.9610	 4.6830
 3.9640	 4.6180
 3.9670	 4.6410
 3.9700	 4.6740
 3.9730	 4.6800
 3.9770	 4.6790
 3.9800	 4.7190
 3.9830	 4.6850
 3.9860	 4.7190
 3.9890	 4.6980
 3.9920	 4.6770
 3.9950	 4.6690
 3.9980	 4.7010
 4.0010	 4.6610
 4.0040	 4.6490
 4.0070	 4.6760
 4.0100	 4.7230
 4.0130	 4.7260
 4.0170	 4.7790
 4.0200	 4.7470
 4.0230	 4.7280
 4.0260	 4.7490
 4.0290	 4.8080
 4.0320	 4.7890
 4.0350	 4.7570
 4.0380	 4.7120
 4.0420	 4.7030
 4.0450	 4.6950
 4.0480	 4.7390
 4.0510	 4.7620
 4.0540	 4.8030
 4.0570	 4.8400
 4.0610	 4.8820
 4.0640	 4.8370
 4.0670	 4.7690
 4.0700	 4.7510
 4.0730	 4.7770
 4.0770	 4.7850
 4.0800	 4.7420
 4.0830	 4.7600
 4.0860	 4.8090
 4.0890	 4.8070
 4.0930	 4.7730
 4.0960	 4.7640
 4.0990	 4.8040
 4.1020	 4.8110
 4.1060	 4.9050
 4.1090	 4.9500
 4.1120	 4.7410
 4.1150	 4.5870
 4.1190	 4.7190
 4.1220	 4.7410
 4.1250	 4.6640
 4.1280	 4.6490
 4.1320	 4.7840
 4.1350	 4.8040
 4.1380	 4.7570
 4.1420	 4.7600
 4.1450	 4.8020
 4.1480	 4.7610
 4.1520	 4.7330
 4.1550	 4.7640
 4.1580	 4.7400
 4.1620	 4.7100
 4.1650	 4.7500
 4.1680	 4.7140
 4.1720	 4.7000
 4.1750	 4.6590
 4.1780	 4.6580
 4.1820	 4.7240
 4.1850	 4.7040
 4.1890	 4.6620
 4.1920	 4.7120
 4.1950	 4.7020
 4.1990	 4.6850
 4.2020	 4.6150
 4.2060	 4.5980
 4.2090	 4.5860
 4.2120	 4.5870
 4.2160	 4.6610
 4.2190	 4.8210
 4.2230	 4.8330
 4.2260	 4.9100
 4.2300	 4.8310
 4.2330	 4.6490
 4.2360	 4.4520
 4.2400	 4.6550
 4.2430	 4.7480
 4.2470	 4.6320
 4.2500	 4.6760
 4.2540	 4.7250
 4.2570	 4.8290
 4.2610	 4.7980
 4.2640	 4.5720
 4.2680	 4.6840
 4.2710	 4.7810
 4.2750	 4.6580
 4.2780	 4.4100
 4.2820	 4.4960
 4.2850	 4.6680
 4.2890	 4.7610
 4.2930	 4.6200
 4.2960	 4.4680
 4.3000	 4.4380
 4.3030	 4.5690
 4.3070	 4.5980
 4.3100	 4.5870
 4.3140	 4.5010
 4.3180	 4.3950
 4.3210	 4.2840
 4.3250	 4.3050
 4.3280	 4.3620
 4.3320	 4.4080
 4.3360	 4.4450
 4.3390	 4.4350
 4.3430	 4.3790
 4.3470	 4.4370
 4.3500	 4.4370
 4.3540	 4.4230
 4.3570	 4.3640
 4.3610	 4.3200
 4.3650	 4.2820
 4.3680	 4.3340
 4.3720	 4.3660
 4.3760	 4.3840
 4.3800	 4.3790
 4.3830	 4.3620
 4.3870	 4.3880
 4.3910	 4.4320
 4.3940	 4.2890
 4.3980	 4.2230
 4.4020	 4.2590
 4.4060	 4.2740
 4.4090	 4.2570
 4.4130	 4.2360
 4.4170	 4.2080
 4.4210	 4.2110
 4.4240	 4.2840
 4.4280	 4.3710
 4.4320	 4.3230
 4.4360	 4.2430
 4.4400	 4.2030
 4.4430	 4.2100
 4.4470	 4.1910
 4.4510	 4.1850
 4.4550	 4.2070
 4.4590	 4.1860
 4.4620	 4.1720
 4.4660	 4.2030
 4.4700	 4.1240
 4.4740	 4.1680
 4.4780	 4.2410
 4.4820	 4.2760
 4.4860	 4.2580
 4.4900	 4.1660
 4.4930	 4.0850
 4.4970	 4.1440
 4.5010	 4.1900
 4.5050	 4.1760
 4.5090	 4.1640
 4.5130	 4.1310
 4.5170	 4.0660
 4.5210	 4.0890
 4.5250	 4.1310
 4.5290	 4.1370
 4.5330	 4.0820
 4.5370	 4.0990
 4.5410	 4.1420
 4.5450	 4.1580
 4.5490	 4.1440
 4.5530	 4.1140
 4.5570	 4.1360
 4.5610	 4.1400
 4.5650	 4.0940
 4.5690	 4.0120
 4.5730	 3.9990
 4.5770	 4.0600
 4.5810	 4.0610
 4.5850	 4.0890
 4.5890	 4.1140
 4.5930	 4.0920
 4.5970	 4.0720
 4.6010	 4.1350
 4.6050	 4.0830
 4.6090	 3.8740
 4.6130	 3.7650
 4.6170	 3.8300
 4.6220	 3.9590
 4.6260	 4.0310
 4.6300	 4.1570
 4.6340	 4.1930
 4.6380	 4.1120
 4.6420	 4.0480
 4.6460	 4.1300
 4.6510	 4.0770
 4.6550	 4.0390
 4.6590	 3.9660
 4.6630	 3.8960
 4.6670	 3.8690
 4.6720	 3.9110
 4.6760	 3.9820
 4.6800	 3.9870
 4.6840	 4.0020
 4.6880	 4.0240
 4.6930	 4.0340
 4.6970	 3.9990
 4.7010	 3.9320
 4.7050	 3.9270
 4.7100	 4.0220
 4.7140	 4.0710
 4.7180	 3.9870
 4.7230	 3.8400
 4.7270	 3.8780
 4.7310	 3.9880
 4.7360	 3.9330
 4.7400	 3.8830
 4.7440	 3.9150
 4.7490	 3.9460
 4.7530	 3.9290
 4.7570	 3.9200
 4.7620	 3.8990
 4.7660	 3.9400
 4.7700	 4.0670
 4.7750	 4.0480
 4.7790	 3.8750
 4.7840	 3.9090
 4.7880	 4.0110
 4.7920	 4.0700
 4.7970	 4.0320
 4.8010	 3.9760
 4.8060	 3.9130
 4.8100	 3.9030
 4.8150	 3.9600
 4.8190	 4.0230
 4.8240	 3.9810
 4.8280	 4.0120
 4.8330	 4.0430
 4.8370	 3.9800
 4.8420	 3.9810
 4.8460	 4.0130
 4.8510	 3.9820
 4.8550	 3.9740
 4.8600	 3.9590
 4.8640	 3.9450
 4.8690	 3.8980
 4.8730	 3.9300
 4.8780	 4.0130
 4.8830	 3.9820
 4.8870	 3.8630
 4.8920	 3.9130
 4.8960	 3.9900
 4.9010	 4.0160
 4.9060	 4.0020
 4.9100	 4.0080
 4.9150	 3.9800
 4.9200	 3.9520
 4.9240	 3.9780
 4.9290	 4.0290
 4.9340	 4.0440
 4.9380	 4.0990
 4.9430	 4.0830
 4.9480	 4.0710
 4.9530	 4.0690
 4.9570	 4.0610
 4.9620	 4.0470
 4.9670	 4.1030
 4.9720	 4.0990
 4.9760	 4.0700
 4.9810	 4.0830
 4.9860	 4.1040
 4.9910	 4.0570
 4.9960	 4.0050
 5.0000	 3.9810
 5.0050	 4.0830
 5.0100	 4.0740
 5.0150	 4.0470
 5.0200	 4.1330
 5.0250	 4.1130
 5.0290	 4.0620
 5.0340	 4.1230
 5.0390	 4.1460
 5.0440	 4.1420
 5.0490	 4.1400
 5.0540	 4.1550
 5.0590	 4.1150
 5.0640	 4.1270
 5.0690	 4.1200
 5.0740	 4.0700
 5.0790	 4.0870
 5.0840	 4.1790
 5.0890	 4.1860
 5.0940	 4.1880
 5.0990	 4.1230
 5.1040	 4.1080
 5.1090	 4.1420
 5.1140	 4.1630
 5.1190	 4.1640
 5.1240	 4.1730
 5.1290	 4.1770
 5.1340	 4.2060
 5.1390	 4.2180
 5.1440	 4.2200
 5.1490	 4.2000
 5.1540	 4.2000
 5.1600	 4.2720
 5.1650	 4.2840
 5.1700	 4.1520
 5.1750	 4.1580
 5.1800	 4.2200
 5.1850	 4.2150
 5.1910	 4.1920
 5.1960	 4.1910
 5.2010	 4.1740
 5.2060	 4.2210
 5.2110	 4.2190
 5.2170	 4.1780
 5.2220	 4.1710
 5.2270	 4.2220
 5.2320	 4.2210
 5.2380	 4.1920
 5.2430	 4.1250
 5.2480	 4.1150
 5.2540	 4.1930
 5.2590	 4.2670
 5.2640	 4.2140
 5.2700	 4.1830
 5.2750	 4.1590
 5.2800	 4.1850
 5.2860	 4.1930
 5.2910	 4.1860
 5.2970	 4.0950
 5.3020	 4.1090
 5.3070	 4.1300
 5.3130	 4.1300
 5.3180	 4.1770
 5.3240	 4.2080
 5.3290	 4.1610
 5.3350	 4.1770
 5.3400	 4.1860
 5.3460	 4.2080
 5.3510	 4.1690
 5.3570	 4.1330
 5.3620	 4.1000
 5.3680	 4.1190
 5.3730	 4.0630
 5.3790	 4.0350
 5.3850	 4.0100
 5.3900	 4.0320
 5.3960	 4.0340
 5.4010	 4.0220
 5.4070	 4.0160
 5.4130	 4.0100
 5.4180	 3.9210
 5.4240	 3.9460
 5.4300	 3.9570
 5.4350	 3.9690
