Name: Ceanothus spinosus 3
Type: vegetation
Class: Shrub
Genus: Ceanothus
Species: spinosus
Sample No.: VH203
Owner: UCSB
Wavelength Range: VSWIR
Origin: 34.4906; -119.7908; WGS84
Collection Date: 10/13/2013
Description: Samples were collected as part of the HyspIRI Airborne Campaign. 48 individual plants were sampled in three times in 2013 - spring  summer  and fall. The name of the sample includes a 1  2  or 3 which references a different individual of the species. Samples were taken to JPL and processed within 48 hours of collection. The same leaves were processed in the Nicolet and then measured using the ASD.
Measurement: Bidirectional reflectance
First Column: X
Second Column: Y
X Units: Wavelength (micrometers)
Y Units: Reflectance (percentage)
First X Value: 0.35
Last X Value: 2.5
Number of X Values: 2151
Additional Information: vegetation.shrub.ceanothus.spinosus.vswir.vh203.ucsb.asd.ancillary.txt

 0.3500	11.7090
 0.3510	11.6080
 0.3520	11.4710
 0.3530	11.3230
 0.3540	11.1980
 0.3550	11.1700
 0.3560	11.2150
 0.3570	11.2710
 0.3580	11.2760
 0.3590	11.2940
 0.3600	11.3030
 0.3610	11.2570
 0.3620	11.0660
 0.3630	11.0300
 0.3640	11.0880
 0.3650	11.0990
 0.3660	11.0180
 0.3670	10.9660
 0.3680	10.9600
 0.3690	10.9500
 0.3700	10.9930
 0.3710	10.9780
 0.3720	10.8940
 0.3730	10.9630
 0.3740	11.0390
 0.3750	11.0250
 0.3760	10.8990
 0.3770	10.8820
 0.3780	10.9610
 0.3790	11.0370
 0.3800	10.9630
 0.3810	10.9190
 0.3820	10.9610
 0.3830	11.0270
 0.3840	10.8410
 0.3850	10.7420
 0.3860	10.7640
 0.3870	10.8240
 0.3880	10.8900
 0.3890	10.8670
 0.3900	10.7920
 0.3910	10.8280
 0.3920	10.7360
 0.3930	10.6860
 0.3940	10.7890
 0.3950	10.8060
 0.3960	10.8080
 0.3970	10.7760
 0.3980	10.6800
 0.3990	10.6860
 0.4000	10.7240
 0.4010	10.7310
 0.4020	10.6760
 0.4030	10.6730
 0.4040	10.6990
 0.4050	10.7070
 0.4060	10.7130
 0.4070	10.6820
 0.4080	10.6630
 0.4090	10.7390
 0.4100	10.7670
 0.4110	10.7780
 0.4120	10.7950
 0.4130	10.7780
 0.4140	10.7770
 0.4150	10.8050
 0.4160	10.8520
 0.4170	10.8530
 0.4180	10.8560
 0.4190	10.8830
 0.4200	10.9210
 0.4210	10.9660
 0.4220	10.9860
 0.4230	10.9730
 0.4240	11.0020
 0.4250	11.0460
 0.4260	11.0870
 0.4270	11.1120
 0.4280	11.1270
 0.4290	11.1360
 0.4300	11.1490
 0.4310	11.1720
 0.4320	11.1770
 0.4330	11.1780
 0.4340	11.1930
 0.4350	11.1990
 0.4360	11.2190
 0.4370	11.2510
 0.4380	11.2760
 0.4390	11.2940
 0.4400	11.3330
 0.4410	11.3950
 0.4420	11.4120
 0.4430	11.4230
 0.4440	11.4370
 0.4450	11.4580
 0.4460	11.4820
 0.4470	11.4980
 0.4480	11.5030
 0.4490	11.5050
 0.4500	11.5100
 0.4510	11.5240
 0.4520	11.5490
 0.4530	11.5770
 0.4540	11.6000
 0.4550	11.6140
 0.4560	11.6230
 0.4570	11.6380
 0.4580	11.6450
 0.4590	11.6390
 0.4600	11.6440
 0.4610	11.6580
 0.4620	11.6690
 0.4630	11.6670
 0.4640	11.6850
 0.4650	11.6950
 0.4660	11.6900
 0.4670	11.6830
 0.4680	11.6860
 0.4690	11.6900
 0.4700	11.6900
 0.4710	11.7090
 0.4720	11.7260
 0.4730	11.7290
 0.4740	11.7140
 0.4750	11.7080
 0.4760	11.7150
 0.4770	11.7310
 0.4780	11.7430
 0.4790	11.7430
 0.4800	11.7380
 0.4810	11.7390
 0.4820	11.7460
 0.4830	11.7490
 0.4840	11.7500
 0.4850	11.7580
 0.4860	11.7620
 0.4870	11.7710
 0.4880	11.7910
 0.4890	11.8090
 0.4900	11.8430
 0.4910	11.8780
 0.4920	11.8940
 0.4930	11.9300
 0.4940	11.9720
 0.4950	12.0150
 0.4960	12.0720
 0.4970	12.1300
 0.4980	12.1860
 0.4990	12.2400
 0.5000	12.2880
 0.5010	12.3510
 0.5020	12.4330
 0.5030	12.5200
 0.5040	12.6040
 0.5050	12.6970
 0.5060	12.8070
 0.5070	12.9230
 0.5080	13.0440
 0.5090	13.1770
 0.5100	13.3250
 0.5110	13.4730
 0.5120	13.6420
 0.5130	13.8310
 0.5140	14.0100
 0.5150	14.2180
 0.5160	14.4460
 0.5170	14.6760
 0.5180	14.9040
 0.5190	15.1440
 0.5200	15.3990
 0.5210	15.6650
 0.5220	15.9290
 0.5230	16.1960
 0.5240	16.4640
 0.5250	16.7190
 0.5260	16.9730
 0.5270	17.2250
 0.5280	17.4700
 0.5290	17.6990
 0.5300	17.9170
 0.5310	18.1250
 0.5320	18.3180
 0.5330	18.5020
 0.5340	18.6740
 0.5350	18.8310
 0.5360	18.9790
 0.5370	19.1150
 0.5380	19.2410
 0.5390	19.3580
 0.5400	19.4460
 0.5410	19.5220
 0.5420	19.5980
 0.5430	19.6580
 0.5440	19.7380
 0.5450	19.8340
 0.5460	19.9280
 0.5470	20.0500
 0.5480	20.1680
 0.5490	20.2590
 0.5500	20.3190
 0.5510	20.3640
 0.5520	20.3990
 0.5530	20.4220
 0.5540	20.4290
 0.5550	20.4190
 0.5560	20.3950
 0.5570	20.3610
 0.5580	20.3080
 0.5590	20.2420
 0.5600	20.1660
 0.5610	20.0770
 0.5620	19.9840
 0.5630	19.8850
 0.5640	19.7760
 0.5650	19.6570
 0.5660	19.5270
 0.5670	19.3820
 0.5680	19.2210
 0.5690	19.0530
 0.5700	18.8860
 0.5710	18.7240
 0.5720	18.5610
 0.5730	18.4090
 0.5740	18.2760
 0.5750	18.1650
 0.5760	18.0410
 0.5770	17.9310
 0.5780	17.8460
 0.5790	17.7570
 0.5800	17.6740
 0.5810	17.5960
 0.5820	17.5140
 0.5830	17.4270
 0.5840	17.3470
 0.5850	17.2740
 0.5860	17.1920
 0.5870	17.1060
 0.5880	17.0220
 0.5890	16.9440
 0.5900	16.8820
 0.5910	16.8430
 0.5920	16.8180
 0.5930	16.7910
 0.5940	16.7700
 0.5950	16.7510
 0.5960	16.7310
 0.5970	16.7010
 0.5980	16.6720
 0.5990	16.6370
 0.6000	16.5910
 0.6010	16.5690
 0.6020	16.5410
 0.6030	16.4980
 0.6040	16.4540
 0.6050	16.3980
 0.6060	16.3330
 0.6070	16.2600
 0.6080	16.1830
 0.6090	16.0860
 0.6100	15.9620
 0.6110	15.8210
 0.6120	15.7460
 0.6130	15.7080
 0.6140	15.6750
 0.6150	15.6190
 0.6160	15.5560
 0.6170	15.4950
 0.6180	15.4420
 0.6190	15.3930
 0.6200	15.3440
 0.6210	15.3000
 0.6220	15.2700
 0.6230	15.2480
 0.6240	15.2320
 0.6250	15.2210
 0.6260	15.2160
 0.6270	15.2110
 0.6280	15.2060
 0.6290	15.2000
 0.6300	15.1940
 0.6310	15.1930
 0.6320	15.1980
 0.6330	15.2000
 0.6340	15.1840
 0.6350	15.1560
 0.6360	15.1200
 0.6370	15.0720
 0.6380	15.0140
 0.6390	14.9430
 0.6400	14.8520
 0.6410	14.7580
 0.6420	14.6600
 0.6430	14.5590
 0.6440	14.4520
 0.6450	14.3520
 0.6460	14.2580
 0.6470	14.1640
 0.6480	14.0730
 0.6490	13.9960
 0.6500	13.9320
 0.6510	13.8730
 0.6520	13.8260
 0.6530	13.7820
 0.6540	13.7370
 0.6550	13.6890
 0.6560	13.6330
 0.6570	13.5740
 0.6580	13.5160
 0.6590	13.4460
 0.6600	13.3720
 0.6610	13.3000
 0.6620	13.2340
 0.6630	13.1660
 0.6640	13.1040
 0.6650	13.0530
 0.6660	12.9980
 0.6670	12.9570
 0.6680	12.9270
 0.6690	12.8970
 0.6700	12.8840
 0.6710	12.8780
 0.6720	12.8740
 0.6730	12.8750
 0.6740	12.8880
 0.6750	12.9050
 0.6760	12.9220
 0.6770	12.9470
 0.6780	12.9830
 0.6790	13.0250
 0.6800	13.0690
 0.6810	13.1280
 0.6820	13.1990
 0.6830	13.2810
 0.6840	13.3870
 0.6850	13.5230
 0.6860	13.6850
 0.6870	13.8710
 0.6880	14.1020
 0.6890	14.3910
 0.6900	14.7410
 0.6910	15.1500
 0.6920	15.6270
 0.6930	16.1830
 0.6940	16.8240
 0.6950	17.5560
 0.6960	18.3690
 0.6970	19.2530
 0.6980	20.2030
 0.6990	21.2180
 0.7000	22.2890
 0.7010	23.3980
 0.7020	24.5230
 0.7030	25.6720
 0.7040	26.8260
 0.7050	27.9670
 0.7060	29.1030
 0.7070	30.2100
 0.7080	31.2930
 0.7090	32.3680
 0.7100	33.4260
 0.7110	34.4410
 0.7120	35.4140
 0.7130	36.3700
 0.7140	37.2990
 0.7150	38.1920
 0.7160	39.0450
 0.7170	39.8650
 0.7180	40.6580
 0.7190	41.4190
 0.7200	42.1400
 0.7210	42.8290
 0.7220	43.4830
 0.7230	44.1070
 0.7240	44.7180
 0.7250	45.2940
 0.7260	45.8180
 0.7270	46.2980
 0.7280	46.8000
 0.7290	47.2470
 0.7300	47.6450
 0.7310	48.0320
 0.7320	48.4160
 0.7330	48.7620
 0.7340	49.0690
 0.7350	49.3750
 0.7360	49.6600
 0.7370	49.9210
 0.7380	50.1590
 0.7390	50.3780
 0.7400	50.6090
 0.7410	50.8260
 0.7420	50.9970
 0.7430	51.1600
 0.7440	51.3130
 0.7450	51.4610
 0.7460	51.6090
 0.7470	51.7310
 0.7480	51.8400
 0.7490	51.9460
 0.7500	52.0410
 0.7510	52.1120
 0.7520	52.1770
 0.7530	52.2600
 0.7540	52.3550
 0.7550	52.4170
 0.7560	52.4480
 0.7570	52.4910
 0.7580	52.5380
 0.7590	52.5860
 0.7600	52.6290
 0.7610	52.6660
 0.7620	52.6990
 0.7630	52.7240
 0.7640	52.7390
 0.7650	52.7530
 0.7660	52.7800
 0.7670	52.8100
 0.7680	52.8240
 0.7690	52.8380
 0.7700	52.8530
 0.7710	52.8650
 0.7720	52.8720
 0.7730	52.8920
 0.7740	52.9050
 0.7750	52.9010
 0.7760	52.9170
 0.7770	52.9230
 0.7780	52.9260
 0.7790	52.9500
 0.7800	52.9720
 0.7810	52.9750
 0.7820	52.9720
 0.7830	53.0030
 0.7840	53.0170
 0.7850	53.0180
 0.7860	53.0180
 0.7870	53.0340
 0.7880	53.0500
 0.7890	53.0580
 0.7900	53.0580
 0.7910	53.0720
 0.7920	53.0850
 0.7930	53.0920
 0.7940	53.0930
 0.7950	53.1050
 0.7960	53.1160
 0.7970	53.1180
 0.7980	53.1180
 0.7990	53.1350
 0.8000	53.1570
 0.8010	53.1690
 0.8020	53.1780
 0.8030	53.1850
 0.8040	53.2010
 0.8050	53.2300
 0.8060	53.2190
 0.8070	53.2090
 0.8080	53.2160
 0.8090	53.2320
 0.8100	53.2530
 0.8110	53.2710
 0.8120	53.2790
 0.8130	53.2750
 0.8140	53.2820
 0.8150	53.2890
 0.8160	53.2840
 0.8170	53.2950
 0.8180	53.3260
 0.8190	53.3570
 0.8200	53.3630
 0.8210	53.3550
 0.8220	53.3470
 0.8230	53.3490
 0.8240	53.3640
 0.8250	53.3950
 0.8260	53.4090
 0.8270	53.4010
 0.8280	53.4140
 0.8290	53.4210
 0.8300	53.4260
 0.8310	53.4360
 0.8320	53.4360
 0.8330	53.4410
 0.8340	53.4570
 0.8350	53.4790
 0.8360	53.4640
 0.8370	53.4620
 0.8380	53.4840
 0.8390	53.5010
 0.8400	53.5110
 0.8410	53.5090
 0.8420	53.5020
 0.8430	53.5090
 0.8440	53.4940
 0.8450	53.5040
 0.8460	53.5580
 0.8470	53.5560
 0.8480	53.5690
 0.8490	53.5810
 0.8500	53.5680
 0.8510	53.5850
 0.8520	53.6160
 0.8530	53.6310
 0.8540	53.6080
 0.8550	53.5990
 0.8560	53.6130
 0.8570	53.6290
 0.8580	53.6130
 0.8590	53.6090
 0.8600	53.6270
 0.8610	53.6530
 0.8620	53.6590
 0.8630	53.6360
 0.8640	53.6300
 0.8650	53.6650
 0.8660	53.6740
 0.8670	53.6740
 0.8680	53.6700
 0.8690	53.6660
 0.8700	53.6590
 0.8710	53.6680
 0.8720	53.6720
 0.8730	53.6470
 0.8740	53.6690
 0.8750	53.7010
 0.8760	53.7080
 0.8770	53.6780
 0.8780	53.6770
 0.8790	53.6810
 0.8800	53.6780
 0.8810	53.6920
 0.8820	53.7030
 0.8830	53.7000
 0.8840	53.6810
 0.8850	53.6600
 0.8860	53.6670
 0.8870	53.6840
 0.8880	53.6870
 0.8890	53.6710
 0.8900	53.6730
 0.8910	53.6890
 0.8920	53.6950
 0.8930	53.6900
 0.8940	53.6790
 0.8950	53.6640
 0.8960	53.6460
 0.8970	53.6460
 0.8980	53.6590
 0.8990	53.6690
 0.9000	53.6560
 0.9010	53.6410
 0.9020	53.6180
 0.9030	53.6050
 0.9040	53.6490
 0.9050	53.6480
 0.9060	53.6230
 0.9070	53.6100
 0.9080	53.6190
 0.9090	53.6280
 0.9100	53.6320
 0.9110	53.6260
 0.9120	53.5850
 0.9130	53.5870
 0.9140	53.6100
 0.9150	53.6120
 0.9160	53.6050
 0.9170	53.5910
 0.9180	53.5920
 0.9190	53.6230
 0.9200	53.6190
 0.9210	53.5990
 0.9220	53.5760
 0.9230	53.5580
 0.9240	53.5420
 0.9250	53.5440
 0.9260	53.5530
 0.9270	53.5350
 0.9280	53.5170
 0.9290	53.5080
 0.9300	53.4970
 0.9310	53.4590
 0.9320	53.4360
 0.9330	53.4370
 0.9340	53.4460
 0.9350	53.4330
 0.9360	53.4070
 0.9370	53.3750
 0.9380	53.3430
 0.9390	53.3200
 0.9400	53.3220
 0.9410	53.3180
 0.9420	53.2900
 0.9430	53.2570
 0.9440	53.2240
 0.9450	53.2000
 0.9460	53.1970
 0.9470	53.2230
 0.9480	53.1960
 0.9490	53.1380
 0.9500	53.0850
 0.9510	53.0320
 0.9520	52.9680
 0.9530	52.9150
 0.9540	52.8860
 0.9550	52.8450
 0.9560	52.8180
 0.9570	52.7960
 0.9580	52.7620
 0.9590	52.7050
 0.9600	52.6590
 0.9610	52.6270
 0.9620	52.6010
 0.9630	52.5830
 0.9640	52.5410
 0.9650	52.5000
 0.9660	52.4950
 0.9670	52.4700
 0.9680	52.4530
 0.9690	52.4600
 0.9700	52.4800
 0.9710	52.4270
 0.9720	52.3900
 0.9730	52.3760
 0.9740	52.3610
 0.9750	52.3780
 0.9760	52.3660
 0.9770	52.3470
 0.9780	52.3730
 0.9790	52.4040
 0.9800	52.4290
 0.9810	52.4200
 0.9820	52.3710
 0.9830	52.4100
 0.9840	52.4310
 0.9850	52.4200
 0.9860	52.4220
 0.9870	52.4670
 0.9880	52.4780
 0.9890	52.4640
 0.9900	52.4710
 0.9910	52.4970
 0.9920	52.5480
 0.9930	52.5980
 0.9940	52.6490
 0.9950	52.7000
 0.9960	52.7510
 0.9970	52.8020
 0.9980	52.8520
 0.9990	52.9030
 1.0000	52.9540
 1.0010	53.0050
 1.0020	53.0560
 1.0030	53.1060
 1.0040	53.1570
 1.0050	53.2080
 1.0060	53.2590
 1.0070	53.3090
 1.0080	53.3600
 1.0090	53.4110
 1.0100	53.4110
 1.0110	53.4230
 1.0120	53.4350
 1.0130	53.4400
 1.0140	53.4510
 1.0150	53.4700
 1.0160	53.4840
 1.0170	53.4900
 1.0180	53.5100
 1.0190	53.5410
 1.0200	53.5670
 1.0210	53.5950
 1.0220	53.6140
 1.0230	53.6320
 1.0240	53.6390
 1.0250	53.6550
 1.0260	53.6760
 1.0270	53.6950
 1.0280	53.7200
 1.0290	53.7330
 1.0300	53.7330
 1.0310	53.7430
 1.0320	53.7510
 1.0330	53.7570
 1.0340	53.7770
 1.0350	53.8040
 1.0360	53.8190
 1.0370	53.8280
 1.0380	53.8370
 1.0390	53.8400
 1.0400	53.8480
 1.0410	53.8590
 1.0420	53.8690
 1.0430	53.8820
 1.0440	53.8890
 1.0450	53.8920
 1.0460	53.8980
 1.0470	53.9000
 1.0480	53.9040
 1.0490	53.9140
 1.0500	53.9200
 1.0510	53.9180
 1.0520	53.9270
 1.0530	53.9320
 1.0540	53.9370
 1.0550	53.9430
 1.0560	53.9550
 1.0570	53.9560
 1.0580	53.9520
 1.0590	53.9510
 1.0600	53.9440
 1.0610	53.9440
 1.0620	53.9550
 1.0630	53.9580
 1.0640	53.9560
 1.0650	53.9590
 1.0660	53.9690
 1.0670	53.9690
 1.0680	53.9670
 1.0690	53.9660
 1.0700	53.9620
 1.0710	53.9460
 1.0720	53.9430
 1.0730	53.9470
 1.0740	53.9450
 1.0750	53.9430
 1.0760	53.9410
 1.0770	53.9340
 1.0780	53.9320
 1.0790	53.9350
 1.0800	53.9330
 1.0810	53.9300
 1.0820	53.9270
 1.0830	53.9170
 1.0840	53.9140
 1.0850	53.9150
 1.0860	53.9190
 1.0870	53.9200
 1.0880	53.9280
 1.0890	53.9240
 1.0900	53.9100
 1.0910	53.9100
 1.0920	53.9180
 1.0930	53.9160
 1.0940	53.9190
 1.0950	53.9160
 1.0960	53.9020
 1.0970	53.8920
 1.0980	53.8880
 1.0990	53.8770
 1.1000	53.8540
 1.1010	53.8400
 1.1020	53.8260
 1.1030	53.8120
 1.1040	53.8080
 1.1050	53.8090
 1.1060	53.8080
 1.1070	53.8120
 1.1080	53.8080
 1.1090	53.8030
 1.1100	53.7950
 1.1110	53.7820
 1.1120	53.7700
 1.1130	53.7560
 1.1140	53.7430
 1.1150	53.7350
 1.1160	53.7190
 1.1170	53.7030
 1.1180	53.6820
 1.1190	53.6530
 1.1200	53.6260
 1.1210	53.5960
 1.1220	53.5670
 1.1230	53.5430
 1.1240	53.5130
 1.1250	53.4800
 1.1260	53.4480
 1.1270	53.4120
 1.1280	53.3710
 1.1290	53.3260
 1.1300	53.2800
 1.1310	53.2280
 1.1320	53.1700
 1.1330	53.1080
 1.1340	53.0410
 1.1350	52.9720
 1.1360	52.9010
 1.1370	52.8230
 1.1380	52.7430
 1.1390	52.6590
 1.1400	52.5710
 1.1410	52.4810
 1.1420	52.3830
 1.1430	52.2870
 1.1440	52.1890
 1.1450	52.0830
 1.1460	51.9830
 1.1470	51.8830
 1.1480	51.7890
 1.1490	51.6940
 1.1500	51.6070
 1.1510	51.5250
 1.1520	51.4480
 1.1530	51.3760
 1.1540	51.3080
 1.1550	51.2470
 1.1560	51.1890
 1.1570	51.1290
 1.1580	51.0790
 1.1590	51.0330
 1.1600	50.9880
 1.1610	50.9520
 1.1620	50.9190
 1.1630	50.8910
 1.1640	50.8700
 1.1650	50.8530
 1.1660	50.8430
 1.1670	50.8350
 1.1680	50.8330
 1.1690	50.8280
 1.1700	50.8260
 1.1710	50.8220
 1.1720	50.8140
 1.1730	50.8130
 1.1740	50.8150
 1.1750	50.8140
 1.1760	50.8160
 1.1770	50.8200
 1.1780	50.8110
 1.1790	50.8070
 1.1800	50.8010
 1.1810	50.7860
 1.1820	50.7780
 1.1830	50.7710
 1.1840	50.7620
 1.1850	50.7560
 1.1860	50.7510
 1.1870	50.7510
 1.1880	50.7480
 1.1890	50.7460
 1.1900	50.7480
 1.1910	50.7510
 1.1920	50.7520
 1.1930	50.7570
 1.1940	50.7600
 1.1950	50.7590
 1.1960	50.7570
 1.1970	50.7580
 1.1980	50.7640
 1.1990	50.7720
 1.2000	50.7820
 1.2010	50.7930
 1.2020	50.8020
 1.2030	50.8110
 1.2040	50.8280
 1.2050	50.8440
 1.2060	50.8600
 1.2070	50.8740
 1.2080	50.8850
 1.2090	50.8990
 1.2100	50.9150
 1.2110	50.9320
 1.2120	50.9500
 1.2130	50.9700
 1.2140	50.9960
 1.2150	51.0170
 1.2160	51.0370
 1.2170	51.0590
 1.2180	51.0830
 1.2190	51.0930
 1.2200	51.1080
 1.2210	51.1300
 1.2220	51.1460
 1.2230	51.1630
 1.2240	51.1850
 1.2250	51.2060
 1.2260	51.2260
 1.2270	51.2470
 1.2280	51.2680
 1.2290	51.2820
 1.2300	51.2990
 1.2310	51.3170
 1.2320	51.3290
 1.2330	51.3410
 1.2340	51.3580
 1.2350	51.3760
 1.2360	51.3930
 1.2370	51.4120
 1.2380	51.4290
 1.2390	51.4420
 1.2400	51.4480
 1.2410	51.4620
 1.2420	51.4780
 1.2430	51.4870
 1.2440	51.5020
 1.2450	51.5100
 1.2460	51.5150
 1.2470	51.5270
 1.2480	51.5300
 1.2490	51.5380
 1.2500	51.5510
 1.2510	51.5590
 1.2520	51.5750
 1.2530	51.5830
 1.2540	51.5780
 1.2550	51.5810
 1.2560	51.5790
 1.2570	51.5760
 1.2580	51.5860
 1.2590	51.5930
 1.2600	51.6010
 1.2610	51.6070
 1.2620	51.6170
 1.2630	51.6200
 1.2640	51.6160
 1.2650	51.6210
 1.2660	51.6260
 1.2670	51.6180
 1.2680	51.6140
 1.2690	51.6090
 1.2700	51.6010
 1.2710	51.6010
 1.2720	51.6000
 1.2730	51.5900
 1.2740	51.5760
 1.2750	51.5630
 1.2760	51.5520
 1.2770	51.5430
 1.2780	51.5320
 1.2790	51.5190
 1.2800	51.5060
 1.2810	51.4910
 1.2820	51.4720
 1.2830	51.4560
 1.2840	51.4390
 1.2850	51.4190
 1.2860	51.4060
 1.2870	51.3880
 1.2880	51.3680
 1.2890	51.3480
 1.2900	51.3260
 1.2910	51.2950
 1.2920	51.2680
 1.2930	51.2390
 1.2940	51.2070
 1.2950	51.1840
 1.2960	51.1580
 1.2970	51.1290
 1.2980	51.1000
 1.2990	51.0640
 1.3000	51.0230
 1.3010	50.9800
 1.3020	50.9390
 1.3030	50.8940
 1.3040	50.8520
 1.3050	50.8090
 1.3060	50.7610
 1.3070	50.7140
 1.3080	50.6620
 1.3090	50.6060
 1.3100	50.5490
 1.3110	50.4880
 1.3120	50.4270
 1.3130	50.3680
 1.3140	50.3070
 1.3150	50.2470
 1.3160	50.1810
 1.3170	50.1130
 1.3180	50.0390
 1.3190	49.9590
 1.3200	49.8770
 1.3210	49.7900
 1.3220	49.7020
 1.3230	49.6140
 1.3240	49.5240
 1.3250	49.4380
 1.3260	49.3470
 1.3270	49.2450
 1.3280	49.1450
 1.3290	49.0440
 1.3300	48.9420
 1.3310	48.8450
 1.3320	48.7390
 1.3330	48.6300
 1.3340	48.5210
 1.3350	48.4100
 1.3360	48.2970
 1.3370	48.1810
 1.3380	48.0630
 1.3390	47.9440
 1.3400	47.8260
 1.3410	47.7080
 1.3420	47.5890
 1.3430	47.4720
 1.3440	47.3560
 1.3450	47.2430
 1.3460	47.1330
 1.3470	47.0250
 1.3480	46.9160
 1.3490	46.8080
 1.3500	46.7030
 1.3510	46.5940
 1.3520	46.4880
 1.3530	46.3800
 1.3540	46.2760
 1.3550	46.1730
 1.3560	46.0670
 1.3570	45.9650
 1.3580	45.8630
 1.3590	45.7580
 1.3600	45.6520
 1.3610	45.5400
 1.3620	45.4250
 1.3630	45.3080
 1.3640	45.1830
 1.3650	45.0500
 1.3660	44.9070
 1.3670	44.7500
 1.3680	44.5810
 1.3690	44.4080
 1.3700	44.2300
 1.3710	44.0460
 1.3720	43.8550
 1.3730	43.6500
 1.3740	43.4270
 1.3750	43.1860
 1.3760	42.9310
 1.3770	42.6570
 1.3780	42.3680
 1.3790	42.0660
 1.3800	41.7440
 1.3810	41.4020
 1.3820	41.0380
 1.3830	40.6520
 1.3840	40.2460
 1.3850	39.8130
 1.3860	39.3710
 1.3870	38.9130
 1.3880	38.4420
 1.3890	37.9560
 1.3900	37.4540
 1.3910	36.9470
 1.3920	36.4260
 1.3930	35.8990
 1.3940	35.3720
 1.3950	34.8310
 1.3960	34.2940
 1.3970	33.7680
 1.3980	33.2430
 1.3990	32.7330
 1.4000	32.2300
 1.4010	31.7310
 1.4020	31.2510
 1.4030	30.7840
 1.4040	30.3360
 1.4050	29.9100
 1.4060	29.4950
 1.4070	29.1060
 1.4080	28.7360
 1.4090	28.3800
 1.4100	28.0450
 1.4110	27.7250
 1.4120	27.4260
 1.4130	27.1500
 1.4140	26.8900
 1.4150	26.6550
 1.4160	26.4360
 1.4170	26.2310
 1.4180	26.0480
 1.4190	25.8770
 1.4200	25.7210
 1.4210	25.5820
 1.4220	25.4550
 1.4230	25.3410
 1.4240	25.2400
 1.4250	25.1480
 1.4260	25.0660
 1.4270	24.9940
 1.4280	24.9320
 1.4290	24.8770
 1.4300	24.8320
 1.4310	24.7910
 1.4320	24.7560
 1.4330	24.7260
 1.4340	24.7020
 1.4350	24.6830
 1.4360	24.6720
 1.4370	24.6650
 1.4380	24.6640
 1.4390	24.6660
 1.4400	24.6740
 1.4410	24.6860
 1.4420	24.7010
 1.4430	24.7180
 1.4440	24.7410
 1.4450	24.7630
 1.4460	24.7840
 1.4470	24.8110
 1.4480	24.8380
 1.4490	24.8650
 1.4500	24.8950
 1.4510	24.9230
 1.4520	24.9510
 1.4530	24.9820
 1.4540	25.0120
 1.4550	25.0440
 1.4560	25.0770
 1.4570	25.1140
 1.4580	25.1570
 1.4590	25.2040
 1.4600	25.2540
 1.4610	25.3060
 1.4620	25.3600
 1.4630	25.4180
 1.4640	25.4800
 1.4650	25.5460
 1.4660	25.6170
 1.4670	25.6910
 1.4680	25.7690
 1.4690	25.8550
 1.4700	25.9460
