Name: Umbellularia californica 2
Type: vegetation
Class: Shrub
Genus: Umbellularia
Species: californica
Sample No.: VH238
Owner: UCSB
Wavelength Range: VSWIR
Origin: 34.5074; -119.7632; WGS84
Collection Date: 10/13/2013
Description: Samples were collected as part of the HyspIRI Airborne Campaign. 48 individual plants were sampled in three times in 2013 - spring  summer  and fall. The name of the sample includes a 1  2  or 3 which references a different individual of the species. Samples were taken to JPL and processed within 48 hours of collection. The same leaves were processed in the Nicolet and then measured using the ASD.
Measurement: Bidirectional reflectance
First Column: X
Second Column: Y
X Units: Wavelength (micrometers)
Y Units: Reflectance (percentage)
First X Value: 0.35
Last X Value: 2.5
Number of X Values: 2151
Additional Information: vegetation.shrub.umbellularia.californica.vswir.vh238.ucsb.asd.ancillary.txt

 0.3500	17.4180
 0.3510	17.4220
 0.3520	17.3720
 0.3530	17.2990
 0.3540	17.2970
 0.3550	17.3660
 0.3560	17.3770
 0.3570	17.3130
 0.3580	17.2260
 0.3590	17.2300
 0.3600	17.2270
 0.3610	17.1910
 0.3620	17.2390
 0.3630	17.1510
 0.3640	17.1170
 0.3650	17.2870
 0.3660	17.2680
 0.3670	17.1500
 0.3680	17.0860
 0.3690	17.2180
 0.3700	17.1680
 0.3710	17.1280
 0.3720	17.1610
 0.3730	16.9340
 0.3740	16.8940
 0.3750	17.0170
 0.3760	17.1290
 0.3770	17.1800
 0.3780	17.0920
 0.3790	16.9360
 0.3800	16.9060
 0.3810	16.9280
 0.3820	16.9510
 0.3830	16.9490
 0.3840	16.9390
 0.3850	16.9880
 0.3860	17.0100
 0.3870	16.9120
 0.3880	16.9200
 0.3890	16.9090
 0.3900	16.8570
 0.3910	16.8670
 0.3920	16.8320
 0.3930	16.8340
 0.3940	16.9090
 0.3950	16.8880
 0.3960	16.8430
 0.3970	16.8080
 0.3980	16.7950
 0.3990	16.8170
 0.4000	16.8560
 0.4010	16.8850
 0.4020	16.8780
 0.4030	16.7890
 0.4040	16.7420
 0.4050	16.8200
 0.4060	16.8330
 0.4070	16.8710
 0.4080	16.9150
 0.4090	16.8930
 0.4100	16.9100
 0.4110	16.9360
 0.4120	16.9510
 0.4130	16.9820
 0.4140	16.9750
 0.4150	16.9670
 0.4160	17.0040
 0.4170	17.0390
 0.4180	17.0700
 0.4190	17.1020
 0.4200	17.1400
 0.4210	17.1570
 0.4220	17.1780
 0.4230	17.2150
 0.4240	17.2290
 0.4250	17.2630
 0.4260	17.3050
 0.4270	17.3260
 0.4280	17.3510
 0.4290	17.3770
 0.4300	17.3980
 0.4310	17.4060
 0.4320	17.3970
 0.4330	17.3890
 0.4340	17.3930
 0.4350	17.3740
 0.4360	17.3870
 0.4370	17.4410
 0.4380	17.5090
 0.4390	17.5780
 0.4400	17.6430
 0.4410	17.6960
 0.4420	17.7160
 0.4430	17.7410
 0.4440	17.7710
 0.4450	17.7900
 0.4460	17.8030
 0.4470	17.8170
 0.4480	17.8340
 0.4490	17.8450
 0.4500	17.8620
 0.4510	17.8740
 0.4520	17.8760
 0.4530	17.9020
 0.4540	17.9270
 0.4550	17.9410
 0.4560	17.9410
 0.4570	17.9510
 0.4580	17.9710
 0.4590	17.9940
 0.4600	18.0090
 0.4610	18.0150
 0.4620	18.0210
 0.4630	18.0360
 0.4640	18.0550
 0.4650	18.0670
 0.4660	18.0680
 0.4670	18.0620
 0.4680	18.0810
 0.4690	18.1010
 0.4700	18.1000
 0.4710	18.1030
 0.4720	18.1120
 0.4730	18.1220
 0.4740	18.1250
 0.4750	18.1470
 0.4760	18.1440
 0.4770	18.1080
 0.4780	18.1000
 0.4790	18.1330
 0.4800	18.1550
 0.4810	18.1200
 0.4820	18.1110
 0.4830	18.1180
 0.4840	18.1290
 0.4850	18.1310
 0.4860	18.1400
 0.4870	18.1520
 0.4880	18.1640
 0.4890	18.1820
 0.4900	18.2150
 0.4910	18.2550
 0.4920	18.2860
 0.4930	18.3190
 0.4940	18.3530
 0.4950	18.3910
 0.4960	18.4500
 0.4970	18.5090
 0.4980	18.5810
 0.4990	18.6720
 0.5000	18.7560
 0.5010	18.8330
 0.5020	18.9130
 0.5030	19.0120
 0.5040	19.1360
 0.5050	19.2680
 0.5060	19.3990
 0.5070	19.5540
 0.5080	19.7190
 0.5090	19.8950
 0.5100	20.0880
 0.5110	20.3020
 0.5120	20.5320
 0.5130	20.7720
 0.5140	21.0180
 0.5150	21.2950
 0.5160	21.5940
 0.5170	21.8970
 0.5180	22.2130
 0.5190	22.5510
 0.5200	22.9020
 0.5210	23.2500
 0.5220	23.6220
 0.5230	23.9980
 0.5240	24.3650
 0.5250	24.7370
 0.5260	25.1090
 0.5270	25.4770
 0.5280	25.8410
 0.5290	26.1870
 0.5300	26.5300
 0.5310	26.8730
 0.5320	27.2060
 0.5330	27.5180
 0.5340	27.8180
 0.5350	28.1140
 0.5360	28.3910
 0.5370	28.6470
 0.5380	28.8850
 0.5390	29.1130
 0.5400	29.3100
 0.5410	29.4770
 0.5420	29.6240
 0.5430	29.7730
 0.5440	29.9280
 0.5450	30.0930
 0.5460	30.2740
 0.5470	30.5080
 0.5480	30.7400
 0.5490	30.9280
 0.5500	31.0660
 0.5510	31.1750
 0.5520	31.2640
 0.5530	31.3360
 0.5540	31.3820
 0.5550	31.4020
 0.5560	31.3960
 0.5570	31.3700
 0.5580	31.3140
 0.5590	31.2360
 0.5600	31.1400
 0.5610	31.0130
 0.5620	30.8800
 0.5630	30.7380
 0.5640	30.5750
 0.5650	30.4020
 0.5660	30.2310
 0.5670	30.0600
 0.5680	29.8740
 0.5690	29.6770
 0.5700	29.4740
 0.5710	29.2680
 0.5720	29.0580
 0.5730	28.8430
 0.5740	28.6350
 0.5750	28.4560
 0.5760	28.2840
 0.5770	28.1440
 0.5780	28.0420
 0.5790	27.9380
 0.5800	27.8340
 0.5810	27.7250
 0.5820	27.6040
 0.5830	27.4700
 0.5840	27.3280
 0.5850	27.1730
 0.5860	26.9920
 0.5870	26.8340
 0.5880	26.7120
 0.5890	26.6240
 0.5900	26.5650
 0.5910	26.5140
 0.5920	26.4560
 0.5930	26.3890
 0.5940	26.3340
 0.5950	26.2900
 0.5960	26.2520
 0.5970	26.2150
 0.5980	26.1690
 0.5990	26.1110
 0.6000	26.0440
 0.6010	25.9870
 0.6020	25.9250
 0.6030	25.8520
 0.6040	25.7660
 0.6050	25.6660
 0.6060	25.5490
 0.6070	25.4160
 0.6080	25.2900
 0.6090	25.1190
 0.6100	24.9000
 0.6110	24.6660
 0.6120	24.5460
 0.6130	24.4840
 0.6140	24.4220
 0.6150	24.3200
 0.6160	24.2170
 0.6170	24.1200
 0.6180	24.0260
 0.6190	23.9200
 0.6200	23.8250
 0.6210	23.7480
 0.6220	23.6850
 0.6230	23.6390
 0.6240	23.5990
 0.6250	23.5570
 0.6260	23.5380
 0.6270	23.5170
 0.6280	23.4950
 0.6290	23.4780
 0.6300	23.4600
 0.6310	23.4410
 0.6320	23.4220
 0.6330	23.3990
 0.6340	23.3620
 0.6350	23.2990
 0.6360	23.2060
 0.6370	23.1050
 0.6380	22.9780
 0.6390	22.8330
 0.6400	22.6820
 0.6410	22.5050
 0.6420	22.3210
 0.6430	22.1420
 0.6440	21.9570
 0.6450	21.7780
 0.6460	21.6050
 0.6470	21.4390
 0.6480	21.2980
 0.6490	21.1710
 0.6500	21.0550
 0.6510	20.9560
 0.6520	20.8690
 0.6530	20.7930
 0.6540	20.7210
 0.6550	20.6410
 0.6560	20.5580
 0.6570	20.4680
 0.6580	20.3620
 0.6590	20.2380
 0.6600	20.1140
 0.6610	19.9950
 0.6620	19.8710
 0.6630	19.7540
 0.6640	19.6400
 0.6650	19.5290
 0.6660	19.4320
 0.6670	19.3580
 0.6680	19.2990
 0.6690	19.2400
 0.6700	19.1960
 0.6710	19.1620
 0.6720	19.1360
 0.6730	19.1240
 0.6740	19.1230
 0.6750	19.1300
 0.6760	19.1400
 0.6770	19.1580
 0.6780	19.1870
 0.6790	19.2280
 0.6800	19.2760
 0.6810	19.3360
 0.6820	19.4180
 0.6830	19.5300
 0.6840	19.6790
 0.6850	19.8610
 0.6860	20.0940
 0.6870	20.3990
 0.6880	20.7660
 0.6890	21.2210
 0.6900	21.7840
 0.6910	22.4650
 0.6920	23.2640
 0.6930	24.1830
 0.6940	25.2280
 0.6950	26.4160
 0.6960	27.7150
 0.6970	29.1290
 0.6980	30.6640
 0.6990	32.2690
 0.7000	33.9320
 0.7010	35.6470
 0.7020	37.4090
 0.7030	39.1490
 0.7040	40.8740
 0.7050	42.5890
 0.7060	44.2630
 0.7070	45.8910
 0.7080	47.4670
 0.7090	48.9960
 0.7100	50.4980
 0.7110	51.9290
 0.7120	53.2890
 0.7130	54.6250
 0.7140	55.8980
 0.7150	57.1100
 0.7160	58.2680
 0.7170	59.3710
 0.7180	60.4350
 0.7190	61.4460
 0.7200	62.3830
 0.7210	63.2810
 0.7220	64.1400
 0.7230	64.9660
 0.7240	65.7670
 0.7250	66.5060
 0.7260	67.1880
 0.7270	67.8290
 0.7280	68.4550
 0.7290	69.0250
 0.7300	69.5480
 0.7310	70.0510
 0.7320	70.5370
 0.7330	70.9900
 0.7340	71.4040
 0.7350	71.7890
 0.7360	72.1700
 0.7370	72.5120
 0.7380	72.8030
 0.7390	73.1170
 0.7400	73.4130
 0.7410	73.6720
 0.7420	73.8950
 0.7430	74.1440
 0.7440	74.3570
 0.7450	74.5250
 0.7460	74.6910
 0.7470	74.8730
 0.7480	75.0380
 0.7490	75.1660
 0.7500	75.2870
 0.7510	75.4130
 0.7520	75.5240
 0.7530	75.5990
 0.7540	75.6780
 0.7550	75.7650
 0.7560	75.8500
 0.7570	75.9090
 0.7580	75.9590
 0.7590	76.0140
 0.7600	76.0710
 0.7610	76.0980
 0.7620	76.1470
 0.7630	76.1930
 0.7640	76.2060
 0.7650	76.2280
 0.7660	76.2500
 0.7670	76.2660
 0.7680	76.2770
 0.7690	76.3290
 0.7700	76.3540
 0.7710	76.3370
 0.7720	76.3500
 0.7730	76.3690
 0.7740	76.3910
 0.7750	76.4090
 0.7760	76.3960
 0.7770	76.3880
 0.7780	76.4030
 0.7790	76.4420
 0.7800	76.4520
 0.7810	76.4570
 0.7820	76.4650
 0.7830	76.4670
 0.7840	76.4550
 0.7850	76.4550
 0.7860	76.4820
 0.7870	76.5270
 0.7880	76.5180
 0.7890	76.4940
 0.7900	76.5090
 0.7910	76.5060
 0.7920	76.5100
 0.7930	76.5350
 0.7940	76.5770
 0.7950	76.5740
 0.7960	76.5660
 0.7970	76.5730
 0.7980	76.5760
 0.7990	76.5820
 0.8000	76.5970
 0.8010	76.6180
 0.8020	76.6340
 0.8030	76.6440
 0.8040	76.6430
 0.8050	76.6300
 0.8060	76.6440
 0.8070	76.6640
 0.8080	76.6770
 0.8090	76.6870
 0.8100	76.6820
 0.8110	76.6910
 0.8120	76.7190
 0.8130	76.7250
 0.8140	76.7200
 0.8150	76.7230
 0.8160	76.7490
 0.8170	76.7910
 0.8180	76.8050
 0.8190	76.7960
 0.8200	76.7910
 0.8210	76.7950
 0.8220	76.8230
 0.8230	76.8600
 0.8240	76.8690
 0.8250	76.8650
 0.8260	76.8650
 0.8270	76.8720
 0.8280	76.8730
 0.8290	76.8770
 0.8300	76.8890
 0.8310	76.9080
 0.8320	76.9090
 0.8330	76.9380
 0.8340	76.9720
 0.8350	76.9680
 0.8360	76.9540
 0.8370	76.9760
 0.8380	77.0190
 0.8390	77.0280
 0.8400	77.0290
 0.8410	77.0390
 0.8420	77.0460
 0.8430	76.9990
 0.8440	77.0450
 0.8450	77.1150
 0.8460	77.1330
 0.8470	77.1300
 0.8480	77.1370
 0.8490	77.1480
 0.8500	77.1480
 0.8510	77.1410
 0.8520	77.1530
 0.8530	77.1810
 0.8540	77.2000
 0.8550	77.2000
 0.8560	77.1840
 0.8570	77.1800
 0.8580	77.2320
 0.8590	77.2610
 0.8600	77.2560
 0.8610	77.2360
 0.8620	77.2440
 0.8630	77.2780
 0.8640	77.3020
 0.8650	77.2960
 0.8660	77.3070
 0.8670	77.2860
 0.8680	77.2580
 0.8690	77.2630
 0.8700	77.2880
 0.8710	77.2700
 0.8720	77.2370
 0.8730	77.2550
 0.8740	77.2700
 0.8750	77.2910
 0.8760	77.3180
 0.8770	77.3290
 0.8780	77.3080
 0.8790	77.2980
 0.8800	77.3080
 0.8810	77.2840
 0.8820	77.2440
 0.8830	77.2540
 0.8840	77.3200
 0.8850	77.3060
 0.8860	77.2800
 0.8870	77.2670
 0.8880	77.2710
 0.8890	77.2710
 0.8900	77.2610
 0.8910	77.2550
 0.8920	77.2610
 0.8930	77.2370
 0.8940	77.2400
 0.8950	77.2670
 0.8960	77.2710
 0.8970	77.2580
 0.8980	77.2250
 0.8990	77.1840
 0.9000	77.1550
 0.9010	77.1430
 0.9020	77.1440
 0.9030	77.1570
 0.9040	77.1820
 0.9050	77.1490
 0.9060	77.1210
 0.9070	77.1290
 0.9080	77.1060
 0.9090	77.1410
 0.9100	77.1610
 0.9110	77.1150
 0.9120	77.1260
 0.9130	77.1170
 0.9140	77.1070
 0.9150	77.1270
 0.9160	77.1310
 0.9170	77.1140
 0.9180	77.0890
 0.9190	77.0690
 0.9200	77.0360
 0.9210	77.0060
 0.9220	76.9830
 0.9230	76.9640
 0.9240	76.9860
 0.9250	76.9730
 0.9260	76.9260
 0.9270	76.9070
 0.9280	76.9210
 0.9290	76.9290
 0.9300	76.9220
 0.9310	76.9220
 0.9320	76.8560
 0.9330	76.8310
 0.9340	76.8500
 0.9350	76.7750
 0.9360	76.7150
 0.9370	76.7170
 0.9380	76.7520
 0.9390	76.7200
 0.9400	76.6580
 0.9410	76.5890
 0.9420	76.5330
 0.9430	76.5030
 0.9440	76.4800
 0.9450	76.4740
 0.9460	76.4700
 0.9470	76.3890
 0.9480	76.3200
 0.9490	76.2700
 0.9500	76.2160
 0.9510	76.1260
 0.9520	76.0410
 0.9530	75.9770
 0.9540	75.9280
 0.9550	75.8570
 0.9560	75.7770
 0.9570	75.7000
 0.9580	75.6330
 0.9590	75.5630
 0.9600	75.5040
 0.9610	75.4760
 0.9620	75.4730
 0.9630	75.4280
 0.9640	75.4180
 0.9650	75.3930
 0.9660	75.2930
 0.9670	75.2330
 0.9680	75.2390
 0.9690	75.2680
 0.9700	75.2620
 0.9710	75.2690
 0.9720	75.2460
 0.9730	75.2060
 0.9740	75.1900
 0.9750	75.2320
 0.9760	75.2300
 0.9770	75.2180
 0.9780	75.2770
 0.9790	75.3260
 0.9800	75.2870
 0.9810	75.2560
 0.9820	75.3480
 0.9830	75.3520
 0.9840	75.3520
 0.9850	75.3670
 0.9860	75.3810
 0.9870	75.4190
 0.9880	75.4290
 0.9890	75.4400
 0.9900	75.4930
 0.9910	75.4900
 0.9920	75.4970
 0.9930	75.5050
 0.9940	75.5120
 0.9950	75.5190
 0.9960	75.5270
 0.9970	75.5340
 0.9980	75.5410
 0.9990	75.5480
 1.0000	75.5560
 1.0010	75.5630
 1.0020	75.5700
 1.0030	75.5780
 1.0040	75.5850
 1.0050	75.5920
 1.0060	75.6000
 1.0070	75.6070
 1.0080	75.6140
 1.0090	75.6220
 1.0100	75.6220
 1.0110	75.6410
 1.0120	75.6720
 1.0130	75.7180
 1.0140	75.7540
 1.0150	75.7880
 1.0160	75.8180
 1.0170	75.8560
 1.0180	75.8870
 1.0190	75.9130
 1.0200	75.9360
 1.0210	75.9550
 1.0220	75.9780
 1.0230	76.0010
 1.0240	76.0310
 1.0250	76.0620
 1.0260	76.0900
 1.0270	76.1210
 1.0280	76.1620
 1.0290	76.1860
 1.0300	76.1930
 1.0310	76.2160
 1.0320	76.2300
 1.0330	76.2700
 1.0340	76.2870
 1.0350	76.2980
 1.0360	76.3110
 1.0370	76.2990
 1.0380	76.3130
 1.0390	76.3480
 1.0400	76.3660
 1.0410	76.3800
 1.0420	76.3970
 1.0430	76.4150
 1.0440	76.4290
 1.0450	76.4430
 1.0460	76.4570
 1.0470	76.4680
 1.0480	76.4750
 1.0490	76.4830
 1.0500	76.4900
 1.0510	76.4830
 1.0520	76.4910
 1.0530	76.5000
 1.0540	76.5110
 1.0550	76.5280
 1.0560	76.5620
 1.0570	76.5730
 1.0580	76.5720
 1.0590	76.5870
 1.0600	76.6010
 1.0610	76.6100
 1.0620	76.6350
 1.0630	76.6470
 1.0640	76.6370
 1.0650	76.6390
 1.0660	76.6430
 1.0670	76.6490
 1.0680	76.6570
 1.0690	76.6680
 1.0700	76.6770
 1.0710	76.6910
 1.0720	76.6930
 1.0730	76.6880
 1.0740	76.6880
 1.0750	76.6820
 1.0760	76.6860
 1.0770	76.7010
 1.0780	76.7100
 1.0790	76.7260
 1.0800	76.7280
 1.0810	76.7140
 1.0820	76.7090
 1.0830	76.7050
 1.0840	76.6960
 1.0850	76.6940
 1.0860	76.6850
 1.0870	76.6770
 1.0880	76.6610
 1.0890	76.6560
 1.0900	76.6590
 1.0910	76.6560
 1.0920	76.6560
 1.0930	76.6460
 1.0940	76.6290
 1.0950	76.6140
 1.0960	76.5900
 1.0970	76.5750
 1.0980	76.5640
 1.0990	76.5530
 1.1000	76.5480
 1.1010	76.5370
 1.1020	76.5240
 1.1030	76.5140
 1.1040	76.4990
 1.1050	76.4820
 1.1060	76.4610
 1.1070	76.4370
 1.1080	76.4090
 1.1090	76.3710
 1.1100	76.3460
 1.1110	76.3270
 1.1120	76.3010
 1.1130	76.2810
 1.1140	76.2520
 1.1150	76.2110
 1.1160	76.1730
 1.1170	76.1280
 1.1180	76.0920
 1.1190	76.0620
 1.1200	76.0260
 1.1210	75.9840
 1.1220	75.9390
 1.1230	75.8820
 1.1240	75.8170
 1.1250	75.7530
 1.1260	75.6940
 1.1270	75.6160
 1.1280	75.5310
 1.1290	75.4340
 1.1300	75.3180
 1.1310	75.2020
 1.1320	75.0820
 1.1330	74.9510
 1.1340	74.8150
 1.1350	74.6710
 1.1360	74.5190
 1.1370	74.3530
 1.1380	74.1850
 1.1390	74.0080
 1.1400	73.8170
 1.1410	73.6200
 1.1420	73.4140
 1.1430	73.2100
 1.1440	73.0130
 1.1450	72.8170
 1.1460	72.6250
 1.1470	72.4380
 1.1480	72.2530
 1.1490	72.0650
 1.1500	71.8940
 1.1510	71.7280
 1.1520	71.5770
 1.1530	71.4410
 1.1540	71.3150
 1.1550	71.1980
 1.1560	71.0960
 1.1570	70.9970
 1.1580	70.8970
 1.1590	70.8060
 1.1600	70.7260
 1.1610	70.6650
 1.1620	70.6110
 1.1630	70.5590
 1.1640	70.5090
 1.1650	70.4640
 1.1660	70.4220
 1.1670	70.3850
 1.1680	70.3560
 1.1690	70.3260
 1.1700	70.3000
 1.1710	70.2710
 1.1720	70.2440
 1.1730	70.2150
 1.1740	70.1860
 1.1750	70.1480
 1.1760	70.1140
 1.1770	70.0790
 1.1780	70.0460
 1.1790	70.0160
 1.1800	69.9780
 1.1810	69.9410
 1.1820	69.8990
 1.1830	69.8580
 1.1840	69.8210
 1.1850	69.7820
 1.1860	69.7490
 1.1870	69.7250
 1.1880	69.6990
 1.1890	69.6780
 1.1900	69.6570
 1.1910	69.6350
 1.1920	69.6160
 1.1930	69.5990
 1.1940	69.5880
 1.1950	69.5810
 1.1960	69.5730
 1.1970	69.5670
 1.1980	69.5710
 1.1990	69.5780
 1.2000	69.5840
 1.2010	69.5990
 1.2020	69.6150
 1.2030	69.6280
 1.2040	69.6500
 1.2050	69.6820
 1.2060	69.7220
 1.2070	69.7740
 1.2080	69.8290
 1.2090	69.8850
 1.2100	69.9370
 1.2110	69.9900
 1.2120	70.0430
 1.2130	70.1000
 1.2140	70.1520
 1.2150	70.2160
 1.2160	70.2900
 1.2170	70.3560
 1.2180	70.4280
 1.2190	70.4990
 1.2200	70.5640
 1.2210	70.6400
 1.2220	70.7110
 1.2230	70.7810
 1.2240	70.8560
 1.2250	70.9180
 1.2260	70.9770
 1.2270	71.0470
 1.2280	71.1100
 1.2290	71.1660
 1.2300	71.2290
 1.2310	71.2850
 1.2320	71.3390
 1.2330	71.3920
 1.2340	71.4430
 1.2350	71.4940
 1.2360	71.5380
 1.2370	71.5760
 1.2380	71.6180
 1.2390	71.6640
 1.2400	71.7040
 1.2410	71.7490
 1.2420	71.7940
 1.2430	71.8260
 1.2440	71.8640
 1.2450	71.9060
 1.2460	71.9400
 1.2470	71.9770
 1.2480	72.0110
 1.2490	72.0360
 1.2500	72.0610
 1.2510	72.0850
 1.2520	72.1070
 1.2530	72.1300
 1.2540	72.1520
 1.2550	72.1690
 1.2560	72.1880
 1.2570	72.2050
 1.2580	72.2160
 1.2590	72.2270
 1.2600	72.2390
 1.2610	72.2460
 1.2620	72.2460
 1.2630	72.2570
 1.2640	72.2720
 1.2650	72.2770
 1.2660	72.2840
 1.2670	72.2880
 1.2680	72.2750
 1.2690	72.2630
 1.2700	72.2600
 1.2710	72.2540
 1.2720	72.2500
 1.2730	72.2430
 1.2740	72.2230
 1.2750	72.2060
 1.2760	72.1880
 1.2770	72.1650
 1.2780	72.1540
 1.2790	72.1430
 1.2800	72.1220
 1.2810	72.1060
 1.2820	72.0870
 1.2830	72.0550
 1.2840	72.0210
 1.2850	71.9860
 1.2860	71.9430
 1.2870	71.9010
 1.2880	71.8570
 1.2890	71.8150
 1.2900	71.7690
 1.2910	71.7290
 1.2920	71.6930
 1.2930	71.6520
 1.2940	71.6160
 1.2950	71.5840
 1.2960	71.5440
 1.2970	71.5080
 1.2980	71.4680
 1.2990	71.4130
 1.3000	71.3540
 1.3010	71.2870
 1.3020	71.2210
 1.3030	71.1600
 1.3040	71.0910
 1.3050	71.0200
 1.3060	70.9490
 1.3070	70.8710
 1.3080	70.7880
 1.3090	70.7060
 1.3100	70.6210
 1.3110	70.5250
 1.3120	70.4310
 1.3130	70.3320
 1.3140	70.2220
 1.3150	70.1000
 1.3160	69.9760
 1.3170	69.8460
 1.3180	69.7090
 1.3190	69.5740
 1.3200	69.4400
 1.3210	69.3050
 1.3220	69.1660
 1.3230	69.0200
 1.3240	68.8570
 1.3250	68.6860
 1.3260	68.5210
 1.3270	68.3570
 1.3280	68.1930
 1.3290	68.0250
 1.3300	67.8460
 1.3310	67.6620
 1.3320	67.4700
 1.3330	67.2810
 1.3340	67.0950
 1.3350	66.8980
 1.3360	66.7020
 1.3370	66.5020
 1.3380	66.2960
 1.3390	66.0930
 1.3400	65.8910
 1.3410	65.6920
 1.3420	65.4970
 1.3430	65.3090
 1.3440	65.1240
 1.3450	64.9360
 1.3460	64.7480
 1.3470	64.5600
 1.3480	64.3630
 1.3490	64.1740
 1.3500	63.9880
 1.3510	63.8030
 1.3520	63.6170
 1.3530	63.4380
 1.3540	63.2540
 1.3550	63.0640
 1.3560	62.8730
 1.3570	62.6800
 1.3580	62.4890
 1.3590	62.2990
 1.3600	62.1060
 1.3610	61.9070
 1.3620	61.6960
 1.3630	61.4810
 1.3640	61.2610
 1.3650	61.0270
 1.3660	60.7890
 1.3670	60.5410
 1.3680	60.2730
 1.3690	59.9940
 1.3700	59.6960
 1.3710	59.3750
 1.3720	59.0390
 1.3730	58.6800
 1.3740	58.3020
 1.3750	57.9090
 1.3760	57.4900
 1.3770	57.0470
 1.3780	56.5700
 1.3790	56.0620
 1.3800	55.5270
 1.3810	54.9590
 1.3820	54.3730
 1.3830	53.7670
 1.3840	53.1320
 1.3850	52.4680
 1.3860	51.7920
 1.3870	51.0880
 1.3880	50.3810
 1.3890	49.6600
 1.3900	48.9340
 1.3910	48.2080
 1.3920	47.4760
 1.3930	46.7440
 1.3940	46.0110
 1.3950	45.2770
 1.3960	44.5540
 1.3970	43.8460
 1.3980	43.1560
 1.3990	42.4900
 1.4000	41.8400
 1.4010	41.2080
 1.4020	40.6030
 1.4030	40.0180
 1.4040	39.4620
 1.4050	38.9370
 1.4060	38.4350
 1.4070	37.9640
 1.4080	37.5200
 1.4090	37.1010
 1.4100	36.7110
 1.4110	36.3460
 1.4120	36.0050
 1.4130	35.6940
 1.4140	35.4080
 1.4150	35.1490
 1.4160	34.9120
 1.4170	34.6940
 1.4180	34.4950
 1.4190	34.3150
 1.4200	34.1530
 1.4210	34.0080
 1.4220	33.8790
 1.4230	33.7640
 1.4240	33.6610
 1.4250	33.5700
 1.4260	33.4950
 1.4270	33.4260
 1.4280	33.3670
 1.4290	33.3170
 1.4300	33.2750
 1.4310	33.2400
 1.4320	33.2140
 1.4330	33.1900
 1.4340	33.1710
 1.4350	33.1580
 1.4360	33.1520
 1.4370	33.1530
 1.4380	33.1610
 1.4390	33.1740
 1.4400	33.1910
 1.4410	33.2150
 1.4420	33.2420
 1.4430	33.2720
 1.4440	33.3070
 1.4450	33.3440
 1.4460	33.3820
 1.4470	33.4240
 1.4480	33.4640
 1.4490	33.5020
 1.4500	33.5390
 1.4510	33.5740
 1.4520	33.6090
 1.4530	33.6430
 1.4540	33.6800
 1.4550	33.7180
 1.4560	33.7590
 1.4570	33.8100
 1.4580	33.8640
 1.4590	33.9200
 1.4600	33.9890
 1.4610	34.0590
 1.4620	34.1340
 1.4630	34.2230
 1.4640	34.3120
 1.4650	34.4030
 1.4660	34.5040
 1.4670	34.6090
 1.4680	34.7220
 1.4690	34.8420
