Name: Ceanothus spinosus 2
Type: vegetation
Class: Shrub
Genus: Ceanothus
Species: spinosus
Sample No.: VH010
Owner: UCSB
Wavelength Range: VSWIR
Origin: 34.4906; -119.7908; WGS84
Collection Date: 4/1/2013
Description: Samples were collected as part of the HyspIRI Airborne Campaign. 48 individual plants were sampled in three times in 2013 - spring  summer  and fall. The name of the sample includes a 1  2  or 3 which references a different individual of the species. Samples were taken to JPL and processed within 48 hours of collection. The same leaves were processed in the Nicolet and then measured using the ASD.
Measurement: Bidirectional reflectance
First Column: X
Second Column: Y
X Units: Wavelength (micrometers)
Y Units: Reflectance (percentage)
First X Value: 0.35
Last X Value: 2.5
Number of X Values: 2151
Additional Information: vegetation.shrub.ceanothus.spinosus.vswir.vh010.ucsb.asd.ancillary.txt

 0.3500	 4.3370
 0.3510	 4.7160
 0.3520	 4.5670
 0.3530	 4.3360
 0.3540	 4.4410
 0.3550	 4.5020
 0.3560	 4.3920
 0.3570	 4.2090
 0.3580	 4.1510
 0.3590	 4.2300
 0.3600	 4.3480
 0.3610	 4.4020
 0.3620	 4.2870
 0.3630	 4.2780
 0.3640	 4.3010
 0.3650	 4.2420
 0.3660	 4.2070
 0.3670	 4.1750
 0.3680	 4.1540
 0.3690	 4.1760
 0.3700	 4.1950
 0.3710	 4.2010
 0.3720	 4.2080
 0.3730	 4.2770
 0.3740	 4.2430
 0.3750	 4.1600
 0.3760	 4.1330
 0.3770	 4.1230
 0.3780	 4.1560
 0.3790	 4.2170
 0.3800	 4.2540
 0.3810	 4.2110
 0.3820	 4.1860
 0.3830	 4.2220
 0.3840	 4.1900
 0.3850	 4.1480
 0.3860	 4.1090
 0.3870	 4.0820
 0.3880	 4.1800
 0.3890	 4.2470
 0.3900	 4.2120
 0.3910	 4.1060
 0.3920	 4.1210
 0.3930	 4.1580
 0.3940	 4.1220
 0.3950	 4.0760
 0.3960	 4.0900
 0.3970	 4.1430
 0.3980	 4.1770
 0.3990	 4.1820
 0.4000	 4.1530
 0.4010	 4.1170
 0.4020	 4.1350
 0.4030	 4.1470
 0.4040	 4.1480
 0.4050	 4.1490
 0.4060	 4.1690
 0.4070	 4.1550
 0.4080	 4.1200
 0.4090	 4.1210
 0.4100	 4.1450
 0.4110	 4.1680
 0.4120	 4.1770
 0.4130	 4.1820
 0.4140	 4.1950
 0.4150	 4.2180
 0.4160	 4.2440
 0.4170	 4.2440
 0.4180	 4.2640
 0.4190	 4.2990
 0.4200	 4.3050
 0.4210	 4.3310
 0.4220	 4.3590
 0.4230	 4.3740
 0.4240	 4.3990
 0.4250	 4.4180
 0.4260	 4.4430
 0.4270	 4.4900
 0.4280	 4.5020
 0.4290	 4.5170
 0.4300	 4.5520
 0.4310	 4.5830
 0.4320	 4.6010
 0.4330	 4.6210
 0.4340	 4.6580
 0.4350	 4.6840
 0.4360	 4.6980
 0.4370	 4.7030
 0.4380	 4.7100
 0.4390	 4.7050
 0.4400	 4.7010
 0.4410	 4.7090
 0.4420	 4.7290
 0.4430	 4.7480
 0.4440	 4.7670
 0.4450	 4.7860
 0.4460	 4.7900
 0.4470	 4.7980
 0.4480	 4.8130
 0.4490	 4.8220
 0.4500	 4.8230
 0.4510	 4.8330
 0.4520	 4.8620
 0.4530	 4.8860
 0.4540	 4.8970
 0.4550	 4.8990
 0.4560	 4.9020
 0.4570	 4.9070
 0.4580	 4.9200
 0.4590	 4.9330
 0.4600	 4.9170
 0.4610	 4.9110
 0.4620	 4.9170
 0.4630	 4.9260
 0.4640	 4.9260
 0.4650	 4.9210
 0.4660	 4.9210
 0.4670	 4.9430
 0.4680	 4.9300
 0.4690	 4.9170
 0.4700	 4.9300
 0.4710	 4.9270
 0.4720	 4.9310
 0.4730	 4.9380
 0.4740	 4.9340
 0.4750	 4.9300
 0.4760	 4.9320
 0.4770	 4.9380
 0.4780	 4.9320
 0.4790	 4.9410
 0.4800	 4.9520
 0.4810	 4.9470
 0.4820	 4.9550
 0.4830	 4.9630
 0.4840	 4.9660
 0.4850	 4.9760
 0.4860	 4.9920
 0.4870	 5.0040
 0.4880	 5.0100
 0.4890	 5.0260
 0.4900	 5.0360
 0.4910	 5.0420
 0.4920	 5.0580
 0.4930	 5.0880
 0.4940	 5.1080
 0.4950	 5.1170
 0.4960	 5.1470
 0.4970	 5.1710
 0.4980	 5.1940
 0.4990	 5.2270
 0.5000	 5.2690
 0.5010	 5.3180
 0.5020	 5.3680
 0.5030	 5.4180
 0.5040	 5.4770
 0.5050	 5.5400
 0.5060	 5.6050
 0.5070	 5.6840
 0.5080	 5.7690
 0.5090	 5.8630
 0.5100	 5.9670
 0.5110	 6.0760
 0.5120	 6.1970
 0.5130	 6.3350
 0.5140	 6.4850
 0.5150	 6.6440
 0.5160	 6.8120
 0.5170	 6.9950
 0.5180	 7.1890
 0.5190	 7.3900
 0.5200	 7.5990
 0.5210	 7.8160
 0.5220	 8.0350
 0.5230	 8.2580
 0.5240	 8.4860
 0.5250	 8.6970
 0.5260	 8.9060
 0.5270	 9.1100
 0.5280	 9.3020
 0.5290	 9.4840
 0.5300	 9.6490
 0.5310	 9.7980
 0.5320	 9.9410
 0.5330	10.0710
 0.5340	10.1870
 0.5350	10.2910
 0.5360	10.3850
 0.5370	10.4680
 0.5380	10.5440
 0.5390	10.6200
 0.5400	10.6920
 0.5410	10.7610
 0.5420	10.8290
 0.5430	10.8980
 0.5440	10.9590
 0.5450	11.0080
 0.5460	11.0480
 0.5470	11.0640
 0.5480	11.0740
 0.5490	11.0860
 0.5500	11.0940
 0.5510	11.1010
 0.5520	11.1000
 0.5530	11.0830
 0.5540	11.0510
 0.5550	11.0080
 0.5560	10.9540
 0.5570	10.8870
 0.5580	10.8090
 0.5590	10.7220
 0.5600	10.6280
 0.5610	10.5310
 0.5620	10.4210
 0.5630	10.3010
 0.5640	10.1770
 0.5650	10.0450
 0.5660	 9.9060
 0.5670	 9.7640
 0.5680	 9.6220
 0.5690	 9.4770
 0.5700	 9.3300
 0.5710	 9.1850
 0.5720	 9.0400
 0.5730	 8.9000
 0.5740	 8.7710
 0.5750	 8.6660
 0.5760	 8.5740
 0.5770	 8.4900
 0.5780	 8.4140
 0.5790	 8.3450
 0.5800	 8.2790
 0.5810	 8.2090
 0.5820	 8.1290
 0.5830	 8.0430
 0.5840	 7.9660
 0.5850	 7.9010
 0.5860	 7.8430
 0.5870	 7.7930
 0.5880	 7.7440
 0.5890	 7.6940
 0.5900	 7.6500
 0.5910	 7.6180
 0.5920	 7.5920
 0.5930	 7.5620
 0.5940	 7.5340
 0.5950	 7.5090
 0.5960	 7.4860
 0.5970	 7.4660
 0.5980	 7.4450
 0.5990	 7.4210
 0.6000	 7.3950
 0.6010	 7.3610
 0.6020	 7.3220
 0.6030	 7.2820
 0.6040	 7.2450
 0.6050	 7.2020
 0.6060	 7.1510
 0.6070	 7.0950
 0.6080	 7.0400
 0.6090	 6.9850
 0.6100	 6.9360
 0.6110	 6.8990
 0.6120	 6.8380
 0.6130	 6.7610
 0.6140	 6.6810
 0.6150	 6.6150
 0.6160	 6.5540
 0.6170	 6.4990
 0.6180	 6.4510
 0.6190	 6.4100
 0.6200	 6.3740
 0.6210	 6.3430
 0.6220	 6.3140
 0.6230	 6.2850
 0.6240	 6.2640
 0.6250	 6.2480
 0.6260	 6.2260
 0.6270	 6.2130
 0.6280	 6.2070
 0.6290	 6.1970
 0.6300	 6.1920
 0.6310	 6.1870
 0.6320	 6.1790
 0.6330	 6.1630
 0.6340	 6.1470
 0.6350	 6.1280
 0.6360	 6.1040
 0.6370	 6.0760
 0.6380	 6.0430
 0.6390	 6.0030
 0.6400	 5.9600
 0.6410	 5.9160
 0.6420	 5.8690
 0.6430	 5.8200
 0.6440	 5.7690
 0.6450	 5.7170
 0.6460	 5.6660
 0.6470	 5.6190
 0.6480	 5.5750
 0.6490	 5.5350
 0.6500	 5.5010
 0.6510	 5.4680
 0.6520	 5.4360
 0.6530	 5.4070
 0.6540	 5.3800
 0.6550	 5.3470
 0.6560	 5.3130
 0.6570	 5.2780
 0.6580	 5.2390
 0.6590	 5.2000
 0.6600	 5.1630
 0.6610	 5.1260
 0.6620	 5.0860
 0.6630	 5.0530
 0.6640	 5.0230
 0.6650	 4.9960
 0.6660	 4.9720
 0.6670	 4.9530
 0.6680	 4.9410
 0.6690	 4.9340
 0.6700	 4.9320
 0.6710	 4.9330
 0.6720	 4.9380
 0.6730	 4.9460
 0.6740	 4.9530
 0.6750	 4.9650
 0.6760	 4.9860
 0.6770	 5.0040
 0.6780	 5.0250
 0.6790	 5.0520
 0.6800	 5.0850
 0.6810	 5.1160
 0.6820	 5.1530
 0.6830	 5.2020
 0.6840	 5.2570
 0.6850	 5.3190
 0.6860	 5.3910
 0.6870	 5.4790
 0.6880	 5.5870
 0.6890	 5.7180
 0.6900	 5.8800
 0.6910	 6.0780
 0.6920	 6.3230
 0.6930	 6.6170
 0.6940	 6.9650
 0.6950	 7.3750
 0.6960	 7.8430
 0.6970	 8.3710
 0.6980	 8.9630
 0.6990	 9.6100
 0.7000	10.3110
 0.7010	11.0630
 0.7020	11.8520
 0.7030	12.6730
 0.7040	13.5200
 0.7050	14.3890
 0.7060	15.2730
 0.7070	16.1730
 0.7080	17.0780
 0.7090	17.9800
 0.7100	18.8870
 0.7110	19.7960
 0.7120	20.7020
 0.7130	21.5980
 0.7140	22.4920
 0.7150	23.3800
 0.7160	24.2590
 0.7170	25.1270
 0.7180	25.9750
 0.7190	26.8050
 0.7200	27.6260
 0.7210	28.4240
 0.7220	29.1970
 0.7230	29.9480
 0.7240	30.6780
 0.7250	31.3770
 0.7260	32.0480
 0.7270	32.6940
 0.7280	33.3080
 0.7290	33.8950
 0.7300	34.4540
 0.7310	34.9810
 0.7320	35.4790
 0.7330	35.9500
 0.7340	36.3970
 0.7350	36.8160
 0.7360	37.2080
 0.7370	37.5770
 0.7380	37.9260
 0.7390	38.2470
 0.7400	38.5400
 0.7410	38.8150
 0.7420	39.0830
 0.7430	39.3270
 0.7440	39.5490
 0.7450	39.7520
 0.7460	39.9420
 0.7470	40.1150
 0.7480	40.2730
 0.7490	40.4170
 0.7500	40.5450
 0.7510	40.6690
 0.7520	40.7830
 0.7530	40.8780
 0.7540	40.9660
 0.7550	41.0500
 0.7560	41.1270
 0.7570	41.1950
 0.7580	41.2560
 0.7590	41.3120
 0.7600	41.3610
 0.7610	41.4120
 0.7620	41.4490
 0.7630	41.4810
 0.7640	41.5160
 0.7650	41.5450
 0.7660	41.5700
 0.7670	41.5950
 0.7680	41.6210
 0.7690	41.6420
 0.7700	41.6600
 0.7710	41.6780
 0.7720	41.6980
 0.7730	41.7110
 0.7740	41.7220
 0.7750	41.7360
 0.7760	41.7530
 0.7770	41.7660
 0.7780	41.7770
 0.7790	41.7900
 0.7800	41.8010
 0.7810	41.8090
 0.7820	41.8180
 0.7830	41.8340
 0.7840	41.8450
 0.7850	41.8500
 0.7860	41.8550
 0.7870	41.8720
 0.7880	41.8830
 0.7890	41.8890
 0.7900	41.8980
 0.7910	41.9060
 0.7920	41.9080
 0.7930	41.9090
 0.7940	41.9180
 0.7950	41.9220
 0.7960	41.9270
 0.7970	41.9320
 0.7980	41.9310
 0.7990	41.9330
 0.8000	41.9370
 0.8010	41.9400
 0.8020	41.9350
 0.8030	41.9320
 0.8040	41.9300
 0.8050	41.9260
 0.8060	41.9290
 0.8070	41.9240
 0.8080	41.9110
 0.8090	41.9080
 0.8100	41.9040
 0.8110	41.8990
 0.8120	41.8940
 0.8130	41.8940
 0.8140	41.8820
 0.8150	41.8660
 0.8160	41.8540
 0.8170	41.8490
 0.8180	41.8430
 0.8190	41.8340
 0.8200	41.8230
 0.8210	41.8160
 0.8220	41.8030
 0.8230	41.7860
 0.8240	41.7720
 0.8250	41.7630
 0.8260	41.7570
 0.8270	41.7470
 0.8280	41.7310
 0.8290	41.7150
 0.8300	41.6990
 0.8310	41.6830
 0.8320	41.6710
 0.8330	41.6650
 0.8340	41.6580
 0.8350	41.6390
 0.8360	41.6230
 0.8370	41.6130
 0.8380	41.6060
 0.8390	41.5950
 0.8400	41.5950
 0.8410	41.5900
 0.8420	41.5760
 0.8430	41.5660
 0.8440	41.5630
 0.8450	41.5610
 0.8460	41.5550
 0.8470	41.5450
 0.8480	41.5380
 0.8490	41.5320
 0.8500	41.5210
 0.8510	41.5170
 0.8520	41.5180
 0.8530	41.5200
 0.8540	41.5210
 0.8550	41.5120
 0.8560	41.5080
 0.8570	41.5120
 0.8580	41.5140
 0.8590	41.5050
 0.8600	41.5000
 0.8610	41.5040
 0.8620	41.5010
 0.8630	41.4990
 0.8640	41.4990
 0.8650	41.5030
 0.8660	41.5030
 0.8670	41.5010
 0.8680	41.5030
 0.8690	41.5110
 0.8700	41.5110
 0.8710	41.5090
 0.8720	41.5080
 0.8730	41.5120
 0.8740	41.5110
 0.8750	41.5160
 0.8760	41.5230
 0.8770	41.5260
 0.8780	41.5320
 0.8790	41.5400
 0.8800	41.5430
 0.8810	41.5350
 0.8820	41.5400
 0.8830	41.5490
 0.8840	41.5510
 0.8850	41.5530
 0.8860	41.5510
 0.8870	41.5540
 0.8880	41.5660
 0.8890	41.5760
 0.8900	41.5790
 0.8910	41.5770
 0.8920	41.5780
 0.8930	41.5910
 0.8940	41.5940
 0.8950	41.5880
 0.8960	41.5890
 0.8970	41.5930
 0.8980	41.6020
 0.8990	41.6100
 0.9000	41.6060
 0.9010	41.6020
 0.9020	41.6080
 0.9030	41.6200
 0.9040	41.6190
 0.9050	41.6280
 0.9060	41.6370
 0.9070	41.6370
 0.9080	41.6360
 0.9090	41.6380
 0.9100	41.6430
 0.9110	41.6470
 0.9120	41.6490
 0.9130	41.6470
 0.9140	41.6440
 0.9150	41.6480
 0.9160	41.6470
 0.9170	41.6450
 0.9180	41.6480
 0.9190	41.6570
 0.9200	41.6540
 0.9210	41.6410
 0.9220	41.6310
 0.9230	41.6350
 0.9240	41.6340
 0.9250	41.6300
 0.9260	41.6220
 0.9270	41.6120
 0.9280	41.6010
 0.9290	41.5860
 0.9300	41.5690
 0.9310	41.5570
 0.9320	41.5380
 0.9330	41.5160
 0.9340	41.4970
 0.9350	41.4870
 0.9360	41.4680
 0.9370	41.4430
 0.9380	41.4170
 0.9390	41.3990
 0.9400	41.3750
 0.9410	41.3440
 0.9420	41.3160
 0.9430	41.2990
 0.9440	41.2770
 0.9450	41.2480
 0.9460	41.2140
 0.9470	41.1670
 0.9480	41.1250
 0.9490	41.0820
 0.9500	41.0330
 0.9510	40.9930
 0.9520	40.9430
 0.9530	40.8850
 0.9540	40.8280
 0.9550	40.7700
 0.9560	40.7190
 0.9570	40.6710
 0.9580	40.6200
 0.9590	40.5620
 0.9600	40.5150
 0.9610	40.4800
 0.9620	40.4490
 0.9630	40.4190
 0.9640	40.3880
 0.9650	40.3560
 0.9660	40.3310
 0.9670	40.3200
 0.9680	40.2990
 0.9690	40.2750
 0.9700	40.2600
 0.9710	40.2580
 0.9720	40.2430
 0.9730	40.2270
 0.9740	40.2270
 0.9750	40.2190
 0.9760	40.2100
 0.9770	40.2000
 0.9780	40.1920
 0.9790	40.1900
 0.9800	40.1950
 0.9810	40.1990
 0.9820	40.1940
 0.9830	40.1920
 0.9840	40.2010
 0.9850	40.2100
 0.9860	40.2070
 0.9870	40.2210
 0.9880	40.2350
 0.9890	40.2430
 0.9900	40.2460
 0.9910	40.2470
 0.9920	40.3130
 0.9930	40.3790
 0.9940	40.4450
 0.9950	40.5120
 0.9960	40.5780
 0.9970	40.6440
 0.9980	40.7100
 0.9990	40.7760
 1.0000	40.8430
 1.0010	40.9090
 1.0020	40.9750
 1.0030	41.0410
 1.0040	41.1070
 1.0050	41.1740
 1.0060	41.2400
 1.0070	41.3060
 1.0080	41.3720
 1.0090	41.4380
 1.0100	41.4380
 1.0110	41.4510
 1.0120	41.4640
 1.0130	41.4770
 1.0140	41.4890
 1.0150	41.4970
 1.0160	41.5100
 1.0170	41.5230
 1.0180	41.5350
 1.0190	41.5520
 1.0200	41.5690
 1.0210	41.5820
 1.0220	41.5940
 1.0230	41.6060
 1.0240	41.6160
 1.0250	41.6280
 1.0260	41.6400
 1.0270	41.6530
 1.0280	41.6690
 1.0290	41.6810
 1.0300	41.6940
 1.0310	41.7050
 1.0320	41.7170
 1.0330	41.7220
 1.0340	41.7280
 1.0350	41.7390
 1.0360	41.7510
 1.0370	41.7610
 1.0380	41.7710
 1.0390	41.7840
 1.0400	41.7930
 1.0410	41.8000
 1.0420	41.8070
 1.0430	41.8120
 1.0440	41.8190
 1.0450	41.8270
 1.0460	41.8330
 1.0470	41.8380
 1.0480	41.8450
 1.0490	41.8520
 1.0500	41.8580
 1.0510	41.8640
 1.0520	41.8710
 1.0530	41.8760
 1.0540	41.8770
 1.0550	41.8820
 1.0560	41.8900
 1.0570	41.8920
 1.0580	41.8910
 1.0590	41.8940
 1.0600	41.8940
 1.0610	41.8970
 1.0620	41.9060
 1.0630	41.9100
 1.0640	41.9120
 1.0650	41.9130
 1.0660	41.9110
 1.0670	41.9100
 1.0680	41.9090
 1.0690	41.9060
 1.0700	41.9050
 1.0710	41.9050
 1.0720	41.9050
 1.0730	41.9040
 1.0740	41.9030
 1.0750	41.9020
 1.0760	41.9000
 1.0770	41.8960
 1.0780	41.8920
 1.0790	41.8870
 1.0800	41.8840
 1.0810	41.8850
 1.0820	41.8810
 1.0830	41.8740
 1.0840	41.8670
 1.0850	41.8550
 1.0860	41.8440
 1.0870	41.8370
 1.0880	41.8330
 1.0890	41.8270
 1.0900	41.8230
 1.0910	41.8150
 1.0920	41.8050
 1.0930	41.7960
 1.0940	41.7880
 1.0950	41.7780
 1.0960	41.7700
 1.0970	41.7600
 1.0980	41.7490
 1.0990	41.7380
 1.1000	41.7280
 1.1010	41.7170
 1.1020	41.7060
 1.1030	41.6960
 1.1040	41.6850
 1.1050	41.6740
 1.1060	41.6620
 1.1070	41.6510
 1.1080	41.6380
 1.1090	41.6230
 1.1100	41.6080
 1.1110	41.5930
 1.1120	41.5770
 1.1130	41.5610
 1.1140	41.5430
 1.1150	41.5230
 1.1160	41.5040
 1.1170	41.4860
 1.1180	41.4640
 1.1190	41.4430
 1.1200	41.4180
 1.1210	41.3910
 1.1220	41.3600
 1.1230	41.3260
 1.1240	41.2930
 1.1250	41.2550
 1.1260	41.2150
 1.1270	41.1690
 1.1280	41.1210
 1.1290	41.0670
 1.1300	41.0080
 1.1310	40.9440
 1.1320	40.8750
 1.1330	40.8000
 1.1340	40.7180
 1.1350	40.6310
 1.1360	40.5380
 1.1370	40.4390
 1.1380	40.3380
 1.1390	40.2340
 1.1400	40.1240
 1.1410	40.0130
 1.1420	39.9010
 1.1430	39.7840
 1.1440	39.6690
 1.1450	39.5530
 1.1460	39.4400
 1.1470	39.3260
 1.1480	39.2180
 1.1490	39.1120
 1.1500	39.0130
 1.1510	38.9180
 1.1520	38.8290
 1.1530	38.7440
 1.1540	38.6690
 1.1550	38.5990
 1.1560	38.5380
 1.1570	38.4830
 1.1580	38.4350
 1.1590	38.3900
 1.1600	38.3520
 1.1610	38.3200
 1.1620	38.2940
 1.1630	38.2710
 1.1640	38.2520
 1.1650	38.2350
 1.1660	38.2210
 1.1670	38.2100
 1.1680	38.2030
 1.1690	38.1950
 1.1700	38.1890
 1.1710	38.1830
 1.1720	38.1770
 1.1730	38.1710
 1.1740	38.1660
 1.1750	38.1620
 1.1760	38.1560
 1.1770	38.1500
 1.1780	38.1460
 1.1790	38.1410
 1.1800	38.1360
 1.1810	38.1300
 1.1820	38.1230
 1.1830	38.1130
 1.1840	38.1040
 1.1850	38.0950
 1.1860	38.0870
 1.1870	38.0800
 1.1880	38.0740
 1.1890	38.0690
 1.1900	38.0650
 1.1910	38.0610
 1.1920	38.0590
 1.1930	38.0570
 1.1940	38.0560
 1.1950	38.0560
 1.1960	38.0580
 1.1970	38.0590
 1.1980	38.0610
 1.1990	38.0620
 1.2000	38.0660
 1.2010	38.0730
 1.2020	38.0820
 1.2030	38.0930
 1.2040	38.1050
 1.2050	38.1150
 1.2060	38.1230
 1.2070	38.1320
 1.2080	38.1440
 1.2090	38.1570
 1.2100	38.1720
 1.2110	38.1860
 1.2120	38.2000
 1.2130	38.2140
 1.2140	38.2270
 1.2150	38.2420
 1.2160	38.2580
 1.2170	38.2740
 1.2180	38.2900
 1.2190	38.3050
 1.2200	38.3210
 1.2210	38.3360
 1.2220	38.3500
 1.2230	38.3630
 1.2240	38.3780
 1.2250	38.3940
 1.2260	38.4110
 1.2270	38.4270
 1.2280	38.4410
 1.2290	38.4540
 1.2300	38.4660
 1.2310	38.4790
 1.2320	38.4920
 1.2330	38.5040
 1.2340	38.5170
 1.2350	38.5300
 1.2360	38.5420
 1.2370	38.5520
 1.2380	38.5630
 1.2390	38.5710
 1.2400	38.5800
 1.2410	38.5890
 1.2420	38.5970
 1.2430	38.6040
 1.2440	38.6130
 1.2450	38.6210
 1.2460	38.6290
 1.2470	38.6380
 1.2480	38.6450
 1.2490	38.6500
 1.2500	38.6560
 1.2510	38.6600
 1.2520	38.6640
 1.2530	38.6690
 1.2540	38.6740
 1.2550	38.6770
 1.2560	38.6770
 1.2570	38.6780
 1.2580	38.6770
 1.2590	38.6750
 1.2600	38.6730
 1.2610	38.6710
 1.2620	38.6670
 1.2630	38.6630
 1.2640	38.6600
 1.2650	38.6570
 1.2660	38.6510
 1.2670	38.6430
 1.2680	38.6370
 1.2690	38.6280
 1.2700	38.6180
 1.2710	38.6100
 1.2720	38.6010
 1.2730	38.5910
 1.2740	38.5810
 1.2750	38.5680
 1.2760	38.5540
 1.2770	38.5410
 1.2780	38.5270
 1.2790	38.5130
 1.2800	38.4990
 1.2810	38.4820
 1.2820	38.4630
 1.2830	38.4430
 1.2840	38.4200
 1.2850	38.3940
 1.2860	38.3660
 1.2870	38.3380
 1.2880	38.3080
 1.2890	38.2790
 1.2900	38.2490
 1.2910	38.2190
 1.2920	38.1890
 1.2930	38.1550
 1.2940	38.1170
 1.2950	38.0770
 1.2960	38.0350
 1.2970	37.9920
 1.2980	37.9480
 1.2990	37.9020
 1.3000	37.8550
 1.3010	37.8050
 1.3020	37.7520
 1.3030	37.6980
 1.3040	37.6420
 1.3050	37.5860
 1.3060	37.5250
 1.3070	37.4630
 1.3080	37.3970
 1.3090	37.3270
 1.3100	37.2560
 1.3110	37.1830
 1.3120	37.1100
 1.3130	37.0340
 1.3140	36.9550
 1.3150	36.8740
 1.3160	36.7910
 1.3170	36.7060
 1.3180	36.6180
 1.3190	36.5270
 1.3200	36.4350
 1.3210	36.3370
 1.3220	36.2360
 1.3230	36.1330
 1.3240	36.0260
 1.3250	35.9200
 1.3260	35.8140
 1.3270	35.7040
 1.3280	35.5930
 1.3290	35.4790
 1.3300	35.3630
 1.3310	35.2450
 1.3320	35.1250
 1.3330	35.0060
 1.3340	34.8870
 1.3350	34.7660
 1.3360	34.6470
 1.3370	34.5250
 1.3380	34.4030
 1.3390	34.2810
 1.3400	34.1580
 1.3410	34.0370
 1.3420	33.9180
 1.3430	33.7990
 1.3440	33.6820
 1.3450	33.5640
 1.3460	33.4450
 1.3470	33.3290
 1.3480	33.2130
 1.3490	33.0980
 1.3500	32.9850
 1.3510	32.8730
 1.3520	32.7590
 1.3530	32.6460
 1.3540	32.5320
 1.3550	32.4170
 1.3560	32.3030
 1.3570	32.1880
 1.3580	32.0730
 1.3590	31.9570
 1.3600	31.8390
 1.3610	31.7190
 1.3620	31.5930
 1.3630	31.4620
 1.3640	31.3240
 1.3650	31.1790
 1.3660	31.0310
 1.3670	30.8740
 1.3680	30.7080
 1.3690	30.5320
 1.3700	30.3420
 1.3710	30.1410
 1.3720	29.9270
 1.3730	29.6960
 1.3740	29.4540
 1.3750	29.1930
 1.3760	28.9140
 1.3770	28.6190
 1.3780	28.3000
 1.3790	27.9630
 1.3800	27.6060
 1.3810	27.2250
 1.3820	26.8310
 1.3830	26.4190
 1.3840	25.9910
 1.3850	25.5460
 1.3860	25.0890
 1.3870	24.6130
 1.3880	24.1330
 1.3890	23.6420
 1.3900	23.1410
 1.3910	22.6410
 1.3920	22.1350
 1.3930	21.6270
 1.3940	21.1230
 1.3950	20.6170
 1.3960	20.1190
 1.3970	19.6310
 1.3980	19.1520
 1.3990	18.6910
 1.4000	18.2430
 1.4010	17.8080
 1.4020	17.3930
 1.4030	16.9920
 1.4040	16.6100
 1.4050	16.2480
 1.4060	15.9060
 1.4070	15.5850
 1.4080	15.2820
 1.4090	14.9970
 1.4100	14.7330
 1.4110	14.4850
 1.4120	14.2560
 1.4130	14.0450
 1.4140	13.8490
 1.4150	13.6700
 1.4160	13.5060
 1.4170	13.3550
 1.4180	13.2180
 1.4190	13.0920
 1.4200	12.9780
 1.4210	12.8750
 1.4220	12.7800
 1.4230	12.6960
 1.4240	12.6210
 1.4250	12.5530
 1.4260	12.4950
 1.4270	12.4410
 1.4280	12.3940
 1.4290	12.3520
 1.4300	12.3160
 1.4310	12.2860
 1.4320	12.2630
 1.4330	12.2420
 1.4340	12.2260
 1.4350	12.2140
 1.4360	12.2060
 1.4370	12.2010
 1.4380	12.2000
 1.4390	12.2030
 1.4400	12.2070
 1.4410	12.2130
 1.4420	12.2220
 1.4430	12.2320
 1.4440	12.2450
 1.4450	12.2600
 1.4460	12.2760
 1.4470	12.2950
 1.4480	12.3130
 1.4490	12.3320
 1.4500	12.3520
 1.4510	12.3730
 1.4520	12.3960
 1.4530	12.4200
 1.4540	12.4450
 1.4550	12.4720
 1.4560	12.5000
 1.4570	12.5310
 1.4580	12.5630
 1.4590	12.5980
 1.4600	12.6360
 1.4610	12.6760
 1.4620	12.7210
 1.4630	12.7710
 1.4640	12.8230
 1.4650	12.8790
 1.4660	12.9390
 1.4670	13.0020
 1.4680	13.0700
 1.4690	13.1420
 1.4700	13.2170
