Name: Salix babylonica
Type: vegetation
Class: Tree
Genus: Salix
Species: babylonica
Sample No.: JPL183
Owner: JPL
Wavelength Range: VSWIR
Origin: 34.12797; -118.11609; WGS84
Collection Date: 10/3/2016
Description: Samples were collected at the Huntington Garden in San Marino California as part of a JPL Subcontract studying HyTES imagery. Samples were taken to JPL and processed within 48 hours of collection. The same leaves were processed in the Nicolet and then measured using the ASD.
Measurement: Bidirectional reflectance
First Column: X
Second Column: Y
X Units: Wavelength (micrometer)
Y Units: Reflectance (percentage)
First X Value: 0.35
Last X Value: 2.5
Number of X Values: 2151
Additional Information: vegetation.tree.salix.babylonica.vswir.jpl183.jpl.asd.ancillary.txt

 0.3500	 6.8390
 0.3510	 6.8550
 0.3520	 6.9070
 0.3530	 6.8880
 0.3540	 6.7670
 0.3550	 6.6990
 0.3560	 6.7290
 0.3570	 6.7600
 0.3580	 6.6550
 0.3590	 6.6030
 0.3600	 6.6330
 0.3610	 6.6770
 0.3620	 6.5590
 0.3630	 6.5500
 0.3640	 6.6170
 0.3650	 6.6570
 0.3660	 6.6420
 0.3670	 6.6040
 0.3680	 6.5520
 0.3690	 6.4850
 0.3700	 6.5340
 0.3710	 6.5960
 0.3720	 6.5940
 0.3730	 6.5470
 0.3740	 6.5030
 0.3750	 6.4690
 0.3760	 6.4460
 0.3770	 6.4840
 0.3780	 6.5140
 0.3790	 6.5110
 0.3800	 6.4980
 0.3810	 6.4840
 0.3820	 6.4840
 0.3830	 6.4900
 0.3840	 6.4380
 0.3850	 6.4560
 0.3860	 6.4990
 0.3870	 6.4820
 0.3880	 6.4880
 0.3890	 6.4800
 0.3900	 6.4540
 0.3910	 6.4400
 0.3920	 6.4610
 0.3930	 6.4940
 0.3940	 6.5040
 0.3950	 6.4530
 0.3960	 6.4360
 0.3970	 6.4340
 0.3980	 6.3870
 0.3990	 6.4180
 0.4000	 6.4540
 0.4010	 6.4540
 0.4020	 6.4520
 0.4030	 6.4440
 0.4040	 6.4330
 0.4050	 6.4250
 0.4060	 6.4330
 0.4070	 6.4380
 0.4080	 6.4430
 0.4090	 6.4660
 0.4100	 6.4690
 0.4110	 6.4630
 0.4120	 6.4600
 0.4130	 6.4520
 0.4140	 6.4490
 0.4150	 6.4500
 0.4160	 6.4560
 0.4170	 6.4750
 0.4180	 6.4800
 0.4190	 6.4730
 0.4200	 6.4730
 0.4210	 6.4810
 0.4220	 6.4850
 0.4230	 6.4780
 0.4240	 6.4720
 0.4250	 6.4770
 0.4260	 6.4830
 0.4270	 6.4750
 0.4280	 6.4810
 0.4290	 6.4870
 0.4300	 6.4830
 0.4310	 6.4770
 0.4320	 6.4770
 0.4330	 6.4790
 0.4340	 6.4730
 0.4350	 6.4680
 0.4360	 6.4680
 0.4370	 6.4740
 0.4380	 6.4860
 0.4390	 6.4820
 0.4400	 6.4800
 0.4410	 6.4900
 0.4420	 6.5020
 0.4430	 6.5040
 0.4440	 6.5040
 0.4450	 6.5120
 0.4460	 6.5160
 0.4470	 6.5190
 0.4480	 6.5240
 0.4490	 6.5330
 0.4500	 6.5340
 0.4510	 6.5340
 0.4520	 6.5390
 0.4530	 6.5400
 0.4540	 6.5390
 0.4550	 6.5410
 0.4560	 6.5470
 0.4570	 6.5520
 0.4580	 6.5480
 0.4590	 6.5380
 0.4600	 6.5430
 0.4610	 6.5460
 0.4620	 6.5490
 0.4630	 6.5550
 0.4640	 6.5530
 0.4650	 6.5490
 0.4660	 6.5490
 0.4670	 6.5520
 0.4680	 6.5540
 0.4690	 6.5510
 0.4700	 6.5420
 0.4710	 6.5470
 0.4720	 6.5480
 0.4730	 6.5470
 0.4740	 6.5470
 0.4750	 6.5530
 0.4760	 6.5580
 0.4770	 6.5590
 0.4780	 6.5590
 0.4790	 6.5610
 0.4800	 6.5630
 0.4810	 6.5590
 0.4820	 6.5560
 0.4830	 6.5560
 0.4840	 6.5580
 0.4850	 6.5630
 0.4860	 6.5610
 0.4870	 6.5570
 0.4880	 6.5590
 0.4890	 6.5680
 0.4900	 6.5740
 0.4910	 6.5780
 0.4920	 6.5820
 0.4930	 6.5880
 0.4940	 6.5940
 0.4950	 6.6010
 0.4960	 6.6110
 0.4970	 6.6240
 0.4980	 6.6360
 0.4990	 6.6460
 0.5000	 6.6540
 0.5010	 6.6640
 0.5020	 6.6810
 0.5030	 6.7080
 0.5040	 6.7300
 0.5050	 6.7510
 0.5060	 6.7740
 0.5070	 6.8050
 0.5080	 6.8410
 0.5090	 6.8800
 0.5100	 6.9180
 0.5110	 6.9590
 0.5120	 7.0100
 0.5130	 7.0710
 0.5140	 7.1410
 0.5150	 7.2190
 0.5160	 7.3020
 0.5170	 7.3860
 0.5180	 7.4810
 0.5190	 7.5840
 0.5200	 7.6940
 0.5210	 7.8090
 0.5220	 7.9290
 0.5230	 8.0520
 0.5240	 8.1780
 0.5250	 8.3050
 0.5260	 8.4230
 0.5270	 8.5340
 0.5280	 8.6460
 0.5290	 8.7540
 0.5300	 8.8530
 0.5310	 8.9440
 0.5320	 9.0300
 0.5330	 9.1020
 0.5340	 9.1660
 0.5350	 9.2250
 0.5360	 9.2760
 0.5370	 9.3210
 0.5380	 9.3590
 0.5390	 9.3920
 0.5400	 9.4180
 0.5410	 9.4420
 0.5420	 9.4630
 0.5430	 9.4850
 0.5440	 9.5070
 0.5450	 9.5300
 0.5460	 9.5520
 0.5470	 9.5700
 0.5480	 9.5860
 0.5490	 9.6020
 0.5500	 9.6170
 0.5510	 9.6260
 0.5520	 9.6290
 0.5530	 9.6250
 0.5540	 9.6120
 0.5550	 9.5880
 0.5560	 9.5560
 0.5570	 9.5150
 0.5580	 9.4670
 0.5590	 9.4100
 0.5600	 9.3450
 0.5610	 9.2790
 0.5620	 9.2070
 0.5630	 9.1320
 0.5640	 9.0600
 0.5650	 8.9780
 0.5660	 8.8870
 0.5670	 8.7920
 0.5680	 8.6990
 0.5690	 8.6070
 0.5700	 8.5180
 0.5710	 8.4330
 0.5720	 8.3550
 0.5730	 8.2820
 0.5740	 8.2190
 0.5750	 8.1680
 0.5760	 8.1210
 0.5770	 8.0760
 0.5780	 8.0290
 0.5790	 7.9850
 0.5800	 7.9450
 0.5810	 7.9070
 0.5820	 7.8690
 0.5830	 7.8350
 0.5840	 7.8000
 0.5850	 7.7640
 0.5860	 7.7360
 0.5870	 7.7070
 0.5880	 7.6770
 0.5890	 7.6460
 0.5900	 7.6270
 0.5910	 7.6190
 0.5920	 7.6160
 0.5930	 7.6100
 0.5940	 7.6010
 0.5950	 7.5890
 0.5960	 7.5760
 0.5970	 7.5610
 0.5980	 7.5470
 0.5990	 7.5340
 0.6000	 7.5210
 0.6010	 7.5090
 0.6020	 7.4950
 0.6030	 7.4800
 0.6040	 7.4640
 0.6050	 7.4430
 0.6060	 7.4210
 0.6070	 7.3990
 0.6080	 7.3720
 0.6090	 7.3430
 0.6100	 7.3080
 0.6110	 7.2670
 0.6120	 7.2410
 0.6130	 7.2220
 0.6140	 7.2040
 0.6150	 7.1840
 0.6160	 7.1630
 0.6170	 7.1420
 0.6180	 7.1240
 0.6190	 7.1060
 0.6200	 7.0900
 0.6210	 7.0760
 0.6220	 7.0650
 0.6230	 7.0530
 0.6240	 7.0430
 0.6250	 7.0380
 0.6260	 7.0330
 0.6270	 7.0280
 0.6280	 7.0210
 0.6290	 7.0160
 0.6300	 7.0130
 0.6310	 7.0110
 0.6320	 7.0090
 0.6330	 7.0050
 0.6340	 6.9980
 0.6350	 6.9880
 0.6360	 6.9730
 0.6370	 6.9560
 0.6380	 6.9390
 0.6390	 6.9220
 0.6400	 6.9020
 0.6410	 6.8810
 0.6420	 6.8620
 0.6430	 6.8450
 0.6440	 6.8280
 0.6450	 6.8090
 0.6460	 6.7910
 0.6470	 6.7780
 0.6480	 6.7690
 0.6490	 6.7610
 0.6500	 6.7560
 0.6510	 6.7530
 0.6520	 6.7480
 0.6530	 6.7450
 0.6540	 6.7450
 0.6550	 6.7460
 0.6560	 6.7460
 0.6570	 6.7450
 0.6580	 6.7410
 0.6590	 6.7400
 0.6600	 6.7370
 0.6610	 6.7330
 0.6620	 6.7330
 0.6630	 6.7340
 0.6640	 6.7350
 0.6650	 6.7380
 0.6660	 6.7440
 0.6670	 6.7510
 0.6680	 6.7600
 0.6690	 6.7730
 0.6700	 6.7910
 0.6710	 6.8110
 0.6720	 6.8340
 0.6730	 6.8560
 0.6740	 6.8800
 0.6750	 6.9090
 0.6760	 6.9440
 0.6770	 6.9780
 0.6780	 7.0160
 0.6790	 7.0560
 0.6800	 7.0940
 0.6810	 7.1380
 0.6820	 7.1840
 0.6830	 7.2280
 0.6840	 7.2680
 0.6850	 7.3070
 0.6860	 7.3480
 0.6870	 7.3880
 0.6880	 7.4270
 0.6890	 7.4730
 0.6900	 7.5350
 0.6910	 7.6150
 0.6920	 7.7200
 0.6930	 7.8550
 0.6940	 8.0280
 0.6950	 8.2430
 0.6960	 8.5100
 0.6970	 8.8280
 0.6980	 9.1940
 0.6990	 9.6140
 0.7000	10.0890
 0.7010	10.6130
 0.7020	11.1770
 0.7030	11.7810
 0.7040	12.4210
 0.7050	13.0940
 0.7060	13.7960
 0.7070	14.5270
 0.7080	15.2850
 0.7090	16.0670
 0.7100	16.8720
 0.7110	17.7020
 0.7120	18.5560
 0.7130	19.4300
 0.7140	20.3230
 0.7150	21.2350
 0.7160	22.1620
 0.7170	23.1040
 0.7180	24.0550
 0.7190	25.0140
 0.7200	25.9780
 0.7210	26.9410
 0.7220	27.9030
 0.7230	28.8580
 0.7240	29.8040
 0.7250	30.7340
 0.7260	31.6450
 0.7270	32.5370
 0.7280	33.4020
 0.7290	34.2400
 0.7300	35.0490
 0.7310	35.8290
 0.7320	36.5760
 0.7330	37.2910
 0.7340	37.9730
 0.7350	38.6200
 0.7360	39.2330
 0.7370	39.8120
 0.7380	40.3570
 0.7390	40.8710
 0.7400	41.3530
 0.7410	41.8020
 0.7420	42.2190
 0.7430	42.6070
 0.7440	42.9640
 0.7450	43.2910
 0.7460	43.5930
 0.7470	43.8690
 0.7480	44.1200
 0.7490	44.3480
 0.7500	44.5580
 0.7510	44.7490
 0.7520	44.9210
 0.7530	45.0760
 0.7540	45.2130
 0.7550	45.3390
 0.7560	45.4540
 0.7570	45.5560
 0.7580	45.6500
 0.7590	45.7350
 0.7600	45.8110
 0.7610	45.8760
 0.7620	45.9360
 0.7630	45.9910
 0.7640	46.0400
 0.7650	46.0810
 0.7660	46.1170
 0.7670	46.1510
 0.7680	46.1810
 0.7690	46.2080
 0.7700	46.2310
 0.7710	46.2500
 0.7720	46.2680
 0.7730	46.2860
 0.7740	46.3030
 0.7750	46.3160
 0.7760	46.3300
 0.7770	46.3430
 0.7780	46.3560
 0.7790	46.3680
 0.7800	46.3770
 0.7810	46.3880
 0.7820	46.4020
 0.7830	46.4140
 0.7840	46.4210
 0.7850	46.4270
 0.7860	46.4350
 0.7870	46.4380
 0.7880	46.4450
 0.7890	46.4500
 0.7900	46.4520
 0.7910	46.4550
 0.7920	46.4590
 0.7930	46.4620
 0.7940	46.4630
 0.7950	46.4640
 0.7960	46.4620
 0.7970	46.4600
 0.7980	46.4550
 0.7990	46.4510
 0.8000	46.4460
 0.8010	46.4390
 0.8020	46.4340
 0.8030	46.4300
 0.8040	46.4250
 0.8050	46.4170
 0.8060	46.4090
 0.8070	46.4010
 0.8080	46.3920
 0.8090	46.3820
 0.8100	46.3700
 0.8110	46.3590
 0.8120	46.3500
 0.8130	46.3350
 0.8140	46.3220
 0.8150	46.3100
 0.8160	46.2990
 0.8170	46.2870
 0.8180	46.2750
 0.8190	46.2640
 0.8200	46.2510
 0.8210	46.2350
 0.8220	46.2220
 0.8230	46.2100
 0.8240	46.1960
 0.8250	46.1850
 0.8260	46.1730
 0.8270	46.1610
 0.8280	46.1490
 0.8290	46.1380
 0.8300	46.1260
 0.8310	46.1120
 0.8320	46.1030
 0.8330	46.0930
 0.8340	46.0820
 0.8350	46.0720
 0.8360	46.0670
 0.8370	46.0600
 0.8380	46.0520
 0.8390	46.0470
 0.8400	46.0440
 0.8410	46.0430
 0.8420	46.0400
 0.8430	46.0330
 0.8440	46.0300
 0.8450	46.0290
 0.8460	46.0290
 0.8470	46.0280
 0.8480	46.0270
 0.8490	46.0270
 0.8500	46.0250
 0.8510	46.0280
 0.8520	46.0310
 0.8530	46.0330
 0.8540	46.0300
 0.8550	46.0320
 0.8560	46.0380
 0.8570	46.0450
 0.8580	46.0490
 0.8590	46.0550
 0.8600	46.0640
 0.8610	46.0730
 0.8620	46.0790
 0.8630	46.0850
 0.8640	46.0940
 0.8650	46.1040
 0.8660	46.1090
 0.8670	46.1170
 0.8680	46.1260
 0.8690	46.1350
 0.8700	46.1460
 0.8710	46.1550
 0.8720	46.1640
 0.8730	46.1770
 0.8740	46.1900
 0.8750	46.2030
 0.8760	46.2150
 0.8770	46.2290
 0.8780	46.2410
 0.8790	46.2530
 0.8800	46.2640
 0.8810	46.2810
 0.8820	46.2880
 0.8830	46.2940
 0.8840	46.3070
 0.8850	46.3260
 0.8860	46.3390
 0.8870	46.3490
 0.8880	46.3600
 0.8890	46.3740
 0.8900	46.3870
 0.8910	46.3960
 0.8920	46.4030
 0.8930	46.4190
 0.8940	46.4340
 0.8950	46.4460
 0.8960	46.4570
 0.8970	46.4690
 0.8980	46.4800
 0.8990	46.4910
 0.9000	46.5050
 0.9010	46.5150
 0.9020	46.5210
 0.9030	46.5300
 0.9040	46.5490
 0.9050	46.5580
 0.9060	46.5640
 0.9070	46.5720
 0.9080	46.5810
 0.9090	46.5890
 0.9100	46.5940
 0.9110	46.5990
 0.9120	46.6060
 0.9130	46.6100
 0.9140	46.6140
 0.9150	46.6210
 0.9160	46.6220
 0.9170	46.6300
 0.9180	46.6380
 0.9190	46.6360
 0.9200	46.6350
 0.9210	46.6360
 0.9220	46.6360
 0.9230	46.6330
 0.9240	46.6330
 0.9250	46.6270
 0.9260	46.6190
 0.9270	46.6170
 0.9280	46.6040
 0.9290	46.5890
 0.9300	46.5780
 0.9310	46.5680
 0.9320	46.5570
 0.9330	46.5440
 0.9340	46.5310
 0.9350	46.5200
 0.9360	46.5020
 0.9370	46.4840
 0.9380	46.4660
 0.9390	46.4430
 0.9400	46.4330
 0.9410	46.4210
 0.9420	46.3950
 0.9430	46.3650
 0.9440	46.3360
 0.9450	46.3090
 0.9460	46.2810
 0.9470	46.2450
 0.9480	46.2070
 0.9490	46.1750
 0.9500	46.1500
 0.9510	46.0980
 0.9520	46.0560
 0.9530	46.0150
 0.9540	45.9650
 0.9550	45.9320
 0.9560	45.8940
 0.9570	45.8510
 0.9580	45.8100
 0.9590	45.7700
 0.9600	45.7390
 0.9610	45.7100
 0.9620	45.6760
 0.9630	45.6540
 0.9640	45.6330
 0.9650	45.6070
 0.9660	45.5770
 0.9670	45.5740
 0.9680	45.5620
 0.9690	45.5430
 0.9700	45.5320
 0.9710	45.5170
 0.9720	45.5080
 0.9730	45.4990
 0.9740	45.4850
 0.9750	45.4890
 0.9760	45.4820
 0.9770	45.4690
 0.9780	45.4660
 0.9790	45.4660
 0.9800	45.4750
 0.9810	45.4810
 0.9820	45.4760
 0.9830	45.4700
 0.9840	45.4750
 0.9850	45.4850
 0.9860	45.4910
 0.9870	45.4990
 0.9880	45.5000
 0.9890	45.4970
 0.9900	45.4920
 0.9910	45.4840
 0.9920	45.4980
 0.9930	45.5250
 0.9940	45.5390
 0.9950	45.5490
 0.9960	45.5510
 0.9970	45.5490
 0.9980	45.5500
 0.9990	45.5460
 1.0000	45.5700
 1.0010	46.4200
 1.0020	46.4250
 1.0030	46.4300
 1.0040	46.4390
 1.0050	46.4530
 1.0060	46.4680
 1.0070	46.4820
 1.0080	46.4930
 1.0090	46.4990
 1.0100	46.5100
 1.0110	46.5210
 1.0120	46.5320
 1.0130	46.5470
 1.0140	46.5590
 1.0150	46.5660
 1.0160	46.5770
 1.0170	46.5870
 1.0180	46.5960
 1.0190	46.6070
 1.0200	46.6180
 1.0210	46.6280
 1.0220	46.6380
 1.0230	46.6460
 1.0240	46.6490
 1.0250	46.6570
 1.0260	46.6680
 1.0270	46.6790
 1.0280	46.6920
 1.0290	46.7030
 1.0300	46.7120
 1.0310	46.7220
 1.0320	46.7340
 1.0330	46.7450
 1.0340	46.7530
 1.0350	46.7620
 1.0360	46.7710
 1.0370	46.7780
 1.0380	46.7860
 1.0390	46.7950
 1.0400	46.8030
 1.0410	46.8080
 1.0420	46.8150
 1.0430	46.8230
 1.0440	46.8290
 1.0450	46.8350
 1.0460	46.8420
 1.0470	46.8480
 1.0480	46.8550
 1.0490	46.8660
 1.0500	46.8730
 1.0510	46.8800
 1.0520	46.8820
 1.0530	46.8870
 1.0540	46.8910
 1.0550	46.8960
 1.0560	46.9030
 1.0570	46.9090
 1.0580	46.9130
 1.0590	46.9180
 1.0600	46.9230
 1.0610	46.9260
 1.0620	46.9300
 1.0630	46.9300
 1.0640	46.9280
 1.0650	46.9270
 1.0660	46.9240
 1.0670	46.9230
 1.0680	46.9230
 1.0690	46.9250
 1.0700	46.9240
 1.0710	46.9210
 1.0720	46.9210
 1.0730	46.9210
 1.0740	46.9210
 1.0750	46.9260
 1.0760	46.9240
 1.0770	46.9160
 1.0780	46.9130
 1.0790	46.9080
 1.0800	46.9050
 1.0810	46.9070
 1.0820	46.9060
 1.0830	46.9050
 1.0840	46.9020
 1.0850	46.8980
 1.0860	46.8910
 1.0870	46.8860
 1.0880	46.8820
 1.0890	46.8760
 1.0900	46.8710
 1.0910	46.8660
 1.0920	46.8610
 1.0930	46.8560
 1.0940	46.8510
 1.0950	46.8470
 1.0960	46.8440
 1.0970	46.8390
 1.0980	46.8320
 1.0990	46.8260
 1.1000	46.8170
 1.1010	46.8100
 1.1020	46.8040
 1.1030	46.8000
 1.1040	46.7930
 1.1050	46.7840
 1.1060	46.7770
 1.1070	46.7700
 1.1080	46.7620
 1.1090	46.7550
 1.1100	46.7460
 1.1110	46.7350
 1.1120	46.7250
 1.1130	46.7150
 1.1140	46.7050
 1.1150	46.6980
 1.1160	46.6860
 1.1170	46.6710
 1.1180	46.6560
 1.1190	46.6400
 1.1200	46.6190
 1.1210	46.5990
 1.1220	46.5780
 1.1230	46.5520
 1.1240	46.5250
 1.1250	46.4960
 1.1260	46.4660
 1.1270	46.4310
 1.1280	46.3960
 1.1290	46.3530
 1.1300	46.3070
 1.1310	46.2550
 1.1320	46.2000
 1.1330	46.1370
 1.1340	46.0650
 1.1350	45.9930
 1.1360	45.9160
 1.1370	45.8340
 1.1380	45.7510
 1.1390	45.6660
 1.1400	45.5740
 1.1410	45.4790
 1.1420	45.3840
 1.1430	45.2880
 1.1440	45.1920
 1.1450	45.0940
 1.1460	45.0000
 1.1470	44.9040
 1.1480	44.8130
 1.1490	44.7250
 1.1500	44.6430
 1.1510	44.5630
 1.1520	44.4900
 1.1530	44.4230
 1.1540	44.3600
 1.1550	44.3010
 1.1560	44.2480
 1.1570	44.1970
 1.1580	44.1530
 1.1590	44.1130
 1.1600	44.0790
 1.1610	44.0510
 1.1620	44.0250
 1.1630	43.9990
 1.1640	43.9770
 1.1650	43.9570
 1.1660	43.9400
 1.1670	43.9230
 1.1680	43.9110
 1.1690	43.8980
 1.1700	43.8830
 1.1710	43.8700
 1.1720	43.8580
 1.1730	43.8480
 1.1740	43.8390
 1.1750	43.8300
 1.1760	43.8200
 1.1770	43.8090
 1.1780	43.7960
 1.1790	43.7820
 1.1800	43.7680
 1.1810	43.7570
 1.1820	43.7450
 1.1830	43.7320
 1.1840	43.7180
 1.1850	43.7040
 1.1860	43.6910
 1.1870	43.6790
 1.1880	43.6670
 1.1890	43.6570
 1.1900	43.6480
 1.1910	43.6400
 1.1920	43.6320
 1.1930	43.6260
 1.1940	43.6200
 1.1950	43.6140
 1.1960	43.6090
 1.1970	43.6060
 1.1980	43.6030
 1.1990	43.6000
 1.2000	43.6010
 1.2010	43.6020
 1.2020	43.6040
 1.2030	43.6070
 1.2040	43.6110
 1.2050	43.6170
 1.2060	43.6240
 1.2070	43.6320
 1.2080	43.6390
 1.2090	43.6460
 1.2100	43.6540
 1.2110	43.6640
 1.2120	43.6730
 1.2130	43.6850
 1.2140	43.6990
 1.2150	43.7120
 1.2160	43.7250
 1.2170	43.7390
 1.2180	43.7540
 1.2190	43.7670
 1.2200	43.7820
 1.2210	43.7960
 1.2220	43.8100
 1.2230	43.8240
 1.2240	43.8390
 1.2250	43.8540
 1.2260	43.8700
 1.2270	43.8860
 1.2280	43.9010
 1.2290	43.9160
 1.2300	43.9300
 1.2310	43.9430
 1.2320	43.9550
 1.2330	43.9660
 1.2340	43.9760
 1.2350	43.9860
 1.2360	43.9960
 1.2370	44.0040
 1.2380	44.0120
 1.2390	44.0200
 1.2400	44.0300
 1.2410	44.0390
 1.2420	44.0480
 1.2430	44.0560
 1.2440	44.0630
 1.2450	44.0700
 1.2460	44.0780
 1.2470	44.0850
 1.2480	44.0900
 1.2490	44.0960
 1.2500	44.1010
 1.2510	44.1060
 1.2520	44.1110
 1.2530	44.1140
 1.2540	44.1170
 1.2550	44.1180
 1.2560	44.1190
 1.2570	44.1210
 1.2580	44.1200
 1.2590	44.1200
 1.2600	44.1220
 1.2610	44.1210
 1.2620	44.1180
 1.2630	44.1160
 1.2640	44.1120
 1.2650	44.1070
 1.2660	44.1020
 1.2670	44.0960
 1.2680	44.0900
 1.2690	44.0830
 1.2700	44.0760
 1.2710	44.0700
 1.2720	44.0610
 1.2730	44.0510
 1.2740	44.0390
 1.2750	44.0250
 1.2760	44.0120
 1.2770	44.0000
 1.2780	43.9880
 1.2790	43.9730
 1.2800	43.9570
 1.2810	43.9400
 1.2820	43.9210
 1.2830	43.9030
 1.2840	43.8830
 1.2850	43.8600
 1.2860	43.8340
 1.2870	43.8080
 1.2880	43.7810
 1.2890	43.7520
 1.2900	43.7230
 1.2910	43.6930
 1.2920	43.6630
 1.2930	43.6300
 1.2940	43.5950
 1.2950	43.5600
 1.2960	43.5240
 1.2970	43.4840
 1.2980	43.4440
 1.2990	43.4030
 1.3000	43.3600
 1.3010	43.3150
 1.3020	43.2670
 1.3030	43.2170
 1.3040	43.1650
 1.3050	43.1120
 1.3060	43.0580
 1.3070	43.0040
 1.3080	42.9470
 1.3090	42.8880
 1.3100	42.8300
 1.3110	42.7670
 1.3120	42.7030
 1.3130	42.6400
 1.3140	42.5720
 1.3150	42.5020
 1.3160	42.4310
 1.3170	42.3580
 1.3180	42.2810
 1.3190	42.2040
 1.3200	42.1260
 1.3210	42.0440
 1.3220	41.9630
 1.3230	41.8780
 1.3240	41.7930
 1.3250	41.7080
 1.3260	41.6210
 1.3270	41.5300
 1.3280	41.4370
 1.3290	41.3420
 1.3300	41.2440
 1.3310	41.1470
 1.3320	41.0490
 1.3330	40.9500
 1.3340	40.8500
 1.3350	40.7500
 1.3360	40.6470
 1.3370	40.5440
 1.3380	40.4420
 1.3390	40.3410
 1.3400	40.2390
 1.3410	40.1390
 1.3420	40.0390
 1.3430	39.9390
 1.3440	39.8400
 1.3450	39.7420
 1.3460	39.6450
 1.3470	39.5470
 1.3480	39.4470
 1.3490	39.3490
 1.3500	39.2520
 1.3510	39.1540
 1.3520	39.0580
 1.3530	38.9630
 1.3540	38.8660
 1.3550	38.7690
 1.3560	38.6710
 1.3570	38.5710
 1.3580	38.4700
 1.3590	38.3680
 1.3600	38.2650
 1.3610	38.1590
 1.3620	38.0490
 1.3630	37.9320
 1.3640	37.8100
 1.3650	37.6820
 1.3660	37.5510
 1.3670	37.4110
 1.3680	37.2630
 1.3690	37.1040
 1.3700	36.9320
 1.3710	36.7480
 1.3720	36.5510
 1.3730	36.3360
 1.3740	36.1080
 1.3750	35.8620
 1.3760	35.5960
 1.3770	35.3120
 1.3780	35.0030
 1.3790	34.6740
 1.3800	34.3220
 1.3810	33.9450
 1.3820	33.5500
 1.3830	33.1360
 1.3840	32.7020
 1.3850	32.2480
 1.3860	31.7790
 1.3870	31.2870
 1.3880	30.7900
 1.3890	30.2790
 1.3900	29.7550
 1.3910	29.2300
 1.3920	28.6980
 1.3930	28.1580
 1.3940	27.6190
 1.3950	27.0770
 1.3960	26.5410
 1.3970	26.0140
 1.3980	25.4960
 1.3990	24.9950
 1.4000	24.5070
 1.4010	24.0310
 1.4020	23.5770
 1.4030	23.1360
 1.4040	22.7140
 1.4050	22.3140
 1.4060	21.9320
 1.4070	21.5740
 1.4080	21.2370
 1.4090	20.9170
 1.4100	20.6190
 1.4110	20.3390
 1.4120	20.0780
 1.4130	19.8350
 1.4140	19.6080
 1.4150	19.3990
 1.4160	19.2060
 1.4170	19.0260
 1.4180	18.8620
 1.4190	18.7080
 1.4200	18.5660
 1.4210	18.4370
 1.4220	18.3170
 1.4230	18.2090
 1.4240	18.1090
 1.4250	18.0170
 1.4260	17.9340
 1.4270	17.8570
 1.4280	17.7880
 1.4290	17.7260
 1.4300	17.6700
 1.4310	17.6200
 1.4320	17.5750
 1.4330	17.5360
 1.4340	17.5020
 1.4350	17.4720
 1.4360	17.4460
 1.4370	17.4260
 1.4380	17.4090
 1.4390	17.3960
 1.4400	17.3870
 1.4410	17.3800
 1.4420	17.3760
 1.4430	17.3740
 1.4440	17.3740
 1.4450	17.3760
 1.4460	17.3820
 1.4470	17.3890
 1.4480	17.3990
 1.4490	17.4110
 1.4500	17.4230
 1.4510	17.4370
 1.4520	17.4530
 1.4530	17.4700
 1.4540	17.4890
 1.4550	17.5110
 1.4560	17.5350
 1.4570	17.5620
 1.4580	17.5920
 1.4590	17.6240
 1.4600	17.6610
 1.4610	17.7020
 1.4620	17.7460
 1.4630	17.7960
 1.4640	17.8500
 1.4650	17.9080
 1.4660	17.9720
 1.4670	18.0400
 1.4680	18.1140
 1.4690	18.1920
 1.4700	18.2740
 1.4710	18.3620
 1.4720	18.4520
 1.4730	18.5450
 1.4740	18.6430
 1.4750	18.7430
 1.4760	18.8470
 1.4770	18.9530
 1.4780	19.0610
