Name: Pinus lambertiana 2
Type: vegetation
Class: Tree
Genus: Pinus
Species: lambertiana
Sample No.: VH065
Owner: UCSB
Wavelength Range: VSWIR
Origin: 37.0422; -119.3028; WGS84
Collection Date: 4/20/2013
Description: Samples were collected as part of the HyspIRI Airborne Campaign. 48 individual plants were sampled in three times in 2013 - spring  summer  and fall. The name of the sample includes a 1  2  or 3 which references a different individual of the species. Samples were taken to JPL and processed within 48 hours of collection. The same leaves were processed in the Nicolet and then measured using the ASD.
Measurement: Bidirectional reflectance
First Column: X
Second Column: Y
X Units: Wavelength (micrometers)
Y Units: Reflectance (percentage)
First X Value: 0.35
Last X Value: 2.5
Number of X Values: 2151
Additional Information: vegetation.tree.pinus.lambertiana.vswir.vh065.ucsb.asd.ancillary.txt

 0.3500	 3.4460
 0.3510	 3.5350
 0.3520	 3.6390
 0.3530	 3.5630
 0.3540	 3.3140
 0.3550	 3.3270
 0.3560	 3.4180
 0.3570	 3.4400
 0.3580	 3.3220
 0.3590	 3.4640
 0.3600	 3.4880
 0.3610	 3.2990
 0.3620	 3.2850
 0.3630	 3.2690
 0.3640	 3.2600
 0.3650	 3.2930
 0.3660	 3.3390
 0.3670	 3.3640
 0.3680	 3.3580
 0.3690	 3.3300
 0.3700	 3.2560
 0.3710	 3.2400
 0.3720	 3.3010
 0.3730	 3.2800
 0.3740	 3.3230
 0.3750	 3.3720
 0.3760	 3.3360
 0.3770	 3.2700
 0.3780	 3.2430
 0.3790	 3.2600
 0.3800	 3.2700
 0.3810	 3.2660
 0.3820	 3.2530
 0.3830	 3.2400
 0.3840	 3.2480
 0.3850	 3.2190
 0.3860	 3.1620
 0.3870	 3.1210
 0.3880	 3.1870
 0.3890	 3.1890
 0.3900	 3.1380
 0.3910	 3.2260
 0.3920	 3.2360
 0.3930	 3.1980
 0.3940	 3.1710
 0.3950	 3.1390
 0.3960	 3.1640
 0.3970	 3.2110
 0.3980	 3.2110
 0.3990	 3.2100
 0.4000	 3.2340
 0.4010	 3.2630
 0.4020	 3.2250
 0.4030	 3.2240
 0.4040	 3.2590
 0.4050	 3.2900
 0.4060	 3.2610
 0.4070	 3.2720
 0.4080	 3.3230
 0.4090	 3.3480
 0.4100	 3.3840
 0.4110	 3.4170
 0.4120	 3.4430
 0.4130	 3.4840
 0.4140	 3.5300
 0.4150	 3.5750
 0.4160	 3.6160
 0.4170	 3.6580
 0.4180	 3.6910
 0.4190	 3.7290
 0.4200	 3.8090
 0.4210	 3.8640
 0.4220	 3.9010
 0.4230	 3.9400
 0.4240	 3.9900
 0.4250	 4.0330
 0.4260	 4.0720
 0.4270	 4.1150
 0.4280	 4.1540
 0.4290	 4.1970
 0.4300	 4.2380
 0.4310	 4.2500
 0.4320	 4.2860
 0.4330	 4.3260
 0.4340	 4.3450
 0.4350	 4.3720
 0.4360	 4.4020
 0.4370	 4.4320
 0.4380	 4.4680
 0.4390	 4.4880
 0.4400	 4.5040
 0.4410	 4.5260
 0.4420	 4.5390
 0.4430	 4.5750
 0.4440	 4.6160
 0.4450	 4.6310
 0.4460	 4.6510
 0.4470	 4.6660
 0.4480	 4.6760
 0.4490	 4.6980
 0.4500	 4.7280
 0.4510	 4.7500
 0.4520	 4.7520
 0.4530	 4.7720
 0.4540	 4.7950
 0.4550	 4.8110
 0.4560	 4.8170
 0.4570	 4.8250
 0.4580	 4.8340
 0.4590	 4.8440
 0.4600	 4.8560
 0.4610	 4.8730
 0.4620	 4.8870
 0.4630	 4.8900
 0.4640	 4.8920
 0.4650	 4.8960
 0.4660	 4.9010
 0.4670	 4.9060
 0.4680	 4.9100
 0.4690	 4.9140
 0.4700	 4.9220
 0.4710	 4.9370
 0.4720	 4.9410
 0.4730	 4.9370
 0.4740	 4.9400
 0.4750	 4.9440
 0.4760	 4.9440
 0.4770	 4.9430
 0.4780	 4.9580
 0.4790	 4.9660
 0.4800	 4.9680
 0.4810	 4.9690
 0.4820	 4.9750
 0.4830	 4.9790
 0.4840	 4.9810
 0.4850	 4.9860
 0.4860	 4.9850
 0.4870	 4.9960
 0.4880	 5.0270
 0.4890	 5.0430
 0.4900	 5.0550
 0.4910	 5.0690
 0.4920	 5.0890
 0.4930	 5.1090
 0.4940	 5.1350
 0.4950	 5.1700
 0.4960	 5.2090
 0.4970	 5.2450
 0.4980	 5.2810
 0.4990	 5.3220
 0.5000	 5.3750
 0.5010	 5.4400
 0.5020	 5.5120
 0.5030	 5.5860
 0.5040	 5.6700
 0.5050	 5.7540
 0.5060	 5.8380
 0.5070	 5.9490
 0.5080	 6.0700
 0.5090	 6.1950
 0.5100	 6.3280
 0.5110	 6.4800
 0.5120	 6.6390
 0.5130	 6.8060
 0.5140	 7.0010
 0.5150	 7.2000
 0.5160	 7.4040
 0.5170	 7.6200
 0.5180	 7.8470
 0.5190	 8.0780
 0.5200	 8.3130
 0.5210	 8.5570
 0.5220	 8.8010
 0.5230	 9.0420
 0.5240	 9.2800
 0.5250	 9.5110
 0.5260	 9.7360
 0.5270	 9.9520
 0.5280	10.1550
 0.5290	10.3420
 0.5300	10.5200
 0.5310	10.6890
 0.5320	10.8440
 0.5330	10.9870
 0.5340	11.1190
 0.5350	11.2390
 0.5360	11.3550
 0.5370	11.4580
 0.5380	11.5490
 0.5390	11.6320
 0.5400	11.7070
 0.5410	11.7790
 0.5420	11.8490
 0.5430	11.9100
 0.5440	11.9760
 0.5450	12.0440
 0.5460	12.1130
 0.5470	12.1820
 0.5480	12.2480
 0.5490	12.3070
 0.5500	12.3610
 0.5510	12.3990
 0.5520	12.4240
 0.5530	12.4420
 0.5540	12.4480
 0.5550	12.4370
 0.5560	12.4100
 0.5570	12.3700
 0.5580	12.3220
 0.5590	12.2620
 0.5600	12.1870
 0.5610	12.1040
 0.5620	12.0120
 0.5630	11.9140
 0.5640	11.8100
 0.5650	11.7000
 0.5660	11.5860
 0.5670	11.4650
 0.5680	11.3280
 0.5690	11.1880
 0.5700	11.0490
 0.5710	10.9110
 0.5720	10.7710
 0.5730	10.6290
 0.5740	10.4890
 0.5750	10.3620
 0.5760	10.2440
 0.5770	10.1330
 0.5780	10.0260
 0.5790	 9.9280
 0.5800	 9.8340
 0.5810	 9.7480
 0.5820	 9.6770
 0.5830	 9.6040
 0.5840	 9.5350
 0.5850	 9.4720
 0.5860	 9.4120
 0.5870	 9.3550
 0.5880	 9.2970
 0.5890	 9.2380
 0.5900	 9.1890
 0.5910	 9.1460
 0.5920	 9.1100
 0.5930	 9.0800
 0.5940	 9.0510
 0.5950	 9.0230
 0.5960	 8.9980
 0.5970	 8.9800
 0.5980	 8.9530
 0.5990	 8.9230
 0.6000	 8.9000
 0.6010	 8.8750
 0.6020	 8.8410
 0.6030	 8.7990
 0.6040	 8.7500
 0.6050	 8.6950
 0.6060	 8.6350
 0.6070	 8.5680
 0.6080	 8.4970
 0.6090	 8.4200
 0.6100	 8.3380
 0.6110	 8.2540
 0.6120	 8.1770
 0.6130	 8.1050
 0.6140	 8.0350
 0.6150	 7.9640
 0.6160	 7.8960
 0.6170	 7.8310
 0.6180	 7.7690
 0.6190	 7.7140
 0.6200	 7.6640
 0.6210	 7.6210
 0.6220	 7.5860
 0.6230	 7.5580
 0.6240	 7.5330
 0.6250	 7.5110
 0.6260	 7.4970
 0.6270	 7.4820
 0.6280	 7.4730
 0.6290	 7.4740
 0.6300	 7.4720
 0.6310	 7.4650
 0.6320	 7.4560
 0.6330	 7.4430
 0.6340	 7.4190
 0.6350	 7.3840
 0.6360	 7.3410
 0.6370	 7.2860
 0.6380	 7.2170
 0.6390	 7.1390
 0.6400	 7.0620
 0.6410	 6.9760
 0.6420	 6.8850
 0.6430	 6.7910
 0.6440	 6.6910
 0.6450	 6.6010
 0.6460	 6.5150
 0.6470	 6.4280
 0.6480	 6.3490
 0.6490	 6.2810
 0.6500	 6.2260
 0.6510	 6.1820
 0.6520	 6.1390
 0.6530	 6.0980
 0.6540	 6.0600
 0.6550	 6.0170
 0.6560	 5.9710
 0.6570	 5.9180
 0.6580	 5.8570
 0.6590	 5.7940
 0.6600	 5.7290
 0.6610	 5.6600
 0.6620	 5.5890
 0.6630	 5.5260
 0.6640	 5.4670
 0.6650	 5.4070
 0.6660	 5.3570
 0.6670	 5.3170
 0.6680	 5.2850
 0.6690	 5.2580
 0.6700	 5.2400
 0.6710	 5.2260
 0.6720	 5.2150
 0.6730	 5.2120
 0.6740	 5.2120
 0.6750	 5.2170
 0.6760	 5.2300
 0.6770	 5.2460
 0.6780	 5.2650
 0.6790	 5.2890
 0.6800	 5.3230
 0.6810	 5.3650
 0.6820	 5.4210
 0.6830	 5.4910
 0.6840	 5.5740
 0.6850	 5.6810
 0.6860	 5.8180
 0.6870	 5.9920
 0.6880	 6.2140
 0.6890	 6.4940
 0.6900	 6.8370
 0.6910	 7.2430
 0.6920	 7.7250
 0.6930	 8.2820
 0.6940	 8.9080
 0.6950	 9.5940
 0.6960	10.3400
 0.6970	11.1390
 0.6980	11.9810
 0.6990	12.8580
 0.7000	13.7660
 0.7010	14.6970
 0.7020	15.6460
 0.7030	16.6060
 0.7040	17.5740
 0.7050	18.5420
 0.7060	19.5060
 0.7070	20.4700
 0.7080	21.4390
 0.7090	22.4160
 0.7100	23.3930
 0.7110	24.3720
 0.7120	25.3580
 0.7130	26.3550
 0.7140	27.3490
 0.7150	28.3440
 0.7160	29.3460
 0.7170	30.3580
 0.7180	31.3690
 0.7190	32.3760
 0.7200	33.3820
 0.7210	34.3850
 0.7220	35.3820
 0.7230	36.3720
 0.7240	37.3510
 0.7250	38.3110
 0.7260	39.2550
 0.7270	40.1810
 0.7280	41.0690
 0.7290	41.9370
 0.7300	42.7870
 0.7310	43.6110
 0.7320	44.3920
 0.7330	45.1430
 0.7340	45.8700
 0.7350	46.5640
 0.7360	47.2230
 0.7370	47.8520
 0.7380	48.4550
 0.7390	49.0280
 0.7400	49.5630
 0.7410	50.0670
 0.7420	50.5490
 0.7430	50.9990
 0.7440	51.4190
 0.7450	51.8110
 0.7460	52.1770
 0.7470	52.5230
 0.7480	52.8410
 0.7490	53.1270
 0.7500	53.3890
 0.7510	53.6370
 0.7520	53.8680
 0.7530	54.0790
 0.7540	54.2800
 0.7550	54.4580
 0.7560	54.6160
 0.7570	54.7730
 0.7580	54.9130
 0.7590	55.0410
 0.7600	55.1600
 0.7610	55.2690
 0.7620	55.3720
 0.7630	55.4680
 0.7640	55.5550
 0.7650	55.6330
 0.7660	55.7070
 0.7670	55.7800
 0.7680	55.8490
 0.7690	55.9140
 0.7700	55.9760
 0.7710	56.0330
 0.7720	56.0730
 0.7730	56.1270
 0.7740	56.1820
 0.7750	56.2250
 0.7760	56.2740
 0.7770	56.3210
 0.7780	56.3640
 0.7790	56.4010
 0.7800	56.4460
 0.7810	56.4920
 0.7820	56.5300
 0.7830	56.5580
 0.7840	56.5950
 0.7850	56.6380
 0.7860	56.6830
 0.7870	56.7240
 0.7880	56.7580
 0.7890	56.7850
 0.7900	56.8090
 0.7910	56.8460
 0.7920	56.8850
 0.7930	56.9240
 0.7940	56.9600
 0.7950	56.9790
 0.7960	57.0040
 0.7970	57.0440
 0.7980	57.0780
 0.7990	57.1090
 0.8000	57.1350
 0.8010	57.1580
 0.8020	57.1770
 0.8030	57.2050
 0.8040	57.2390
 0.8050	57.2680
 0.8060	57.2950
 0.8070	57.3230
 0.8080	57.3500
 0.8090	57.3740
 0.8100	57.4020
 0.8110	57.4310
 0.8120	57.4550
 0.8130	57.4680
 0.8140	57.4920
 0.8150	57.5230
 0.8160	57.5520
 0.8170	57.5780
 0.8180	57.6050
 0.8190	57.6320
 0.8200	57.6560
 0.8210	57.6740
 0.8220	57.6920
 0.8230	57.7160
 0.8240	57.7480
 0.8250	57.7740
 0.8260	57.7930
 0.8270	57.8060
 0.8280	57.8280
 0.8290	57.8430
 0.8300	57.8630
 0.8310	57.8940
 0.8320	57.9120
 0.8330	57.9270
 0.8340	57.9430
 0.8350	57.9640
 0.8360	57.9930
 0.8370	58.0190
 0.8380	58.0440
 0.8390	58.0760
 0.8400	58.1110
 0.8410	58.1430
 0.8420	58.1680
 0.8430	58.1930
 0.8440	58.2150
 0.8450	58.2430
 0.8460	58.2780
 0.8470	58.3000
 0.8480	58.3300
 0.8490	58.3620
 0.8500	58.3860
 0.8510	58.4090
 0.8520	58.4380
 0.8530	58.4700
 0.8540	58.4980
 0.8550	58.5290
 0.8560	58.5530
 0.8570	58.5680
 0.8580	58.5890
 0.8590	58.6120
 0.8600	58.6380
 0.8610	58.6650
 0.8620	58.6860
 0.8630	58.7070
 0.8640	58.7280
 0.8650	58.7460
 0.8660	58.7690
 0.8670	58.7910
 0.8680	58.8150
 0.8690	58.8410
 0.8700	58.8600
 0.8710	58.8740
 0.8720	58.8900
 0.8730	58.9120
 0.8740	58.9200
 0.8750	58.9340
 0.8760	58.9590
 0.8770	58.9760
 0.8780	58.9860
 0.8790	58.9970
 0.8800	59.0120
 0.8810	59.0240
 0.8820	59.0430
 0.8830	59.0560
 0.8840	59.0580
 0.8850	59.0670
 0.8860	59.0790
 0.8870	59.0850
 0.8880	59.0850
 0.8890	59.0910
 0.8900	59.0890
 0.8910	59.0860
 0.8920	59.0920
 0.8930	59.0990
 0.8940	59.0980
 0.8950	59.0950
 0.8960	59.1050
 0.8970	59.1060
 0.8980	59.1060
 0.8990	59.1070
 0.9000	59.1000
 0.9010	59.1030
 0.9020	59.1110
 0.9030	59.1190
 0.9040	59.1230
 0.9050	59.1120
 0.9060	59.1090
 0.9070	59.1170
 0.9080	59.0980
 0.9090	59.0780
 0.9100	59.0720
 0.9110	59.0840
 0.9120	59.0870
 0.9130	59.0830
 0.9140	59.0750
 0.9150	59.0650
 0.9160	59.0700
 0.9170	59.0750
 0.9180	59.0740
 0.9190	59.0730
 0.9200	59.0730
 0.9210	59.0690
 0.9220	59.0520
 0.9230	59.0180
 0.9240	59.0070
 0.9250	58.9950
 0.9260	58.9670
 0.9270	58.9240
 0.9280	58.9110
 0.9290	58.8860
 0.9300	58.8400
 0.9310	58.8030
 0.9320	58.7640
 0.9330	58.7240
 0.9340	58.6820
 0.9350	58.6380
 0.9360	58.5760
 0.9370	58.5260
 0.9380	58.4890
 0.9390	58.4140
 0.9400	58.3470
 0.9410	58.2830
 0.9420	58.2110
 0.9430	58.1330
 0.9440	58.0540
 0.9450	57.9730
 0.9460	57.8820
 0.9470	57.7620
 0.9480	57.6380
 0.9490	57.5270
 0.9500	57.4200
 0.9510	57.2490
 0.9520	57.0860
 0.9530	56.9450
 0.9540	56.8110
 0.9550	56.6380
 0.9560	56.4680
 0.9570	56.3110
 0.9580	56.1680
 0.9590	56.0310
 0.9600	55.9070
 0.9610	55.7930
 0.9620	55.6830
 0.9630	55.5860
 0.9640	55.5030
 0.9650	55.4350
 0.9660	55.3740
 0.9670	55.3180
 0.9680	55.2520
 0.9690	55.1950
 0.9700	55.1650
 0.9710	55.1140
 0.9720	55.0680
 0.9730	55.0340
 0.9740	55.0030
 0.9750	54.9690
 0.9760	54.9530
 0.9770	54.9460
 0.9780	54.9260
 0.9790	54.9210
 0.9800	54.9220
 0.9810	54.9230
 0.9820	54.9260
 0.9830	54.9410
 0.9840	54.9530
 0.9850	54.9730
 0.9860	55.0180
 0.9870	55.0580
 0.9880	55.0900
 0.9890	55.1190
 0.9900	55.1530
 0.9910	55.1970
 0.9920	55.2980
 0.9930	55.3990
 0.9940	55.5010
 0.9950	55.6020
 0.9960	55.7030
 0.9970	55.8050
 0.9980	55.9060
 0.9990	56.0070
 1.0000	56.1090
 1.0010	56.2100
 1.0020	56.3110
 1.0030	56.4120
 1.0040	56.5140
 1.0050	56.6150
 1.0060	56.7160
 1.0070	56.8180
 1.0080	56.9190
 1.0090	57.0200
 1.0100	57.0200
 1.0110	57.0970
 1.0120	57.1780
 1.0130	57.2680
 1.0140	57.3510
 1.0150	57.4330
 1.0160	57.5120
 1.0170	57.5950
 1.0180	57.6720
 1.0190	57.7540
 1.0200	57.8420
 1.0210	57.9220
 1.0220	58.0000
 1.0230	58.0800
 1.0240	58.1580
 1.0250	58.2370
 1.0260	58.3190
 1.0270	58.4010
 1.0280	58.4860
 1.0290	58.5640
 1.0300	58.6380
 1.0310	58.7130
 1.0320	58.7830
 1.0330	58.8530
 1.0340	58.9280
 1.0350	59.0020
 1.0360	59.0760
 1.0370	59.1480
 1.0380	59.2190
 1.0390	59.2880
 1.0400	59.3550
 1.0410	59.4220
 1.0420	59.4850
 1.0430	59.5440
 1.0440	59.6040
 1.0450	59.6640
 1.0460	59.7200
 1.0470	59.7720
 1.0480	59.8250
 1.0490	59.8750
 1.0500	59.9260
 1.0510	59.9800
 1.0520	60.0340
 1.0530	60.0840
 1.0540	60.1300
 1.0550	60.1750
 1.0560	60.2180
 1.0570	60.2600
 1.0580	60.2990
 1.0590	60.3380
 1.0600	60.3760
 1.0610	60.4110
 1.0620	60.4430
 1.0630	60.4760
 1.0640	60.5070
 1.0650	60.5360
 1.0660	60.5620
 1.0670	60.5910
 1.0680	60.6190
 1.0690	60.6450
 1.0700	60.6710
 1.0710	60.7010
 1.0720	60.7240
 1.0730	60.7430
 1.0740	60.7600
 1.0750	60.7740
 1.0760	60.7870
 1.0770	60.7980
 1.0780	60.8070
 1.0790	60.8140
 1.0800	60.8190
 1.0810	60.8210
 1.0820	60.8240
 1.0830	60.8250
 1.0840	60.8250
 1.0850	60.8270
 1.0860	60.8260
 1.0870	60.8210
 1.0880	60.8120
 1.0890	60.8040
 1.0900	60.7950
 1.0910	60.7810
 1.0920	60.7650
 1.0930	60.7490
 1.0940	60.7310
 1.0950	60.7120
 1.0960	60.6910
 1.0970	60.6710
 1.0980	60.6480
 1.0990	60.6240
 1.1000	60.6020
 1.1010	60.5760
 1.1020	60.5470
 1.1030	60.5170
 1.1040	60.4910
 1.1050	60.4650
 1.1060	60.4310
 1.1070	60.3950
 1.1080	60.3530
 1.1090	60.3010
 1.1100	60.2550
 1.1110	60.2110
 1.1120	60.1640
 1.1130	60.1180
 1.1140	60.0650
 1.1150	60.0120
 1.1160	59.9490
 1.1170	59.8830
 1.1180	59.8090
 1.1190	59.7290
 1.1200	59.6380
 1.1210	59.5420
 1.1220	59.4360
 1.1230	59.3180
 1.1240	59.1920
 1.1250	59.0530
 1.1260	58.9070
 1.1270	58.7400
 1.1280	58.5600
 1.1290	58.3620
 1.1300	58.1490
 1.1310	57.9160
 1.1320	57.6650
 1.1330	57.4010
 1.1340	57.1230
 1.1350	56.8250
 1.1360	56.5120
 1.1370	56.1830
 1.1380	55.8410
 1.1390	55.4880
 1.1400	55.1280
 1.1410	54.7670
 1.1420	54.3970
 1.1430	54.0210
 1.1440	53.6530
 1.1450	53.2810
 1.1460	52.9220
 1.1470	52.5680
 1.1480	52.2260
 1.1490	51.8890
 1.1500	51.5730
 1.1510	51.2630
 1.1520	50.9760
 1.1530	50.7070
 1.1540	50.4550
 1.1550	50.2220
 1.1560	50.0030
 1.1570	49.8000
 1.1580	49.6150
 1.1590	49.4430
 1.1600	49.2850
 1.1610	49.1440
 1.1620	49.0150
 1.1630	48.8970
 1.1640	48.7900
 1.1650	48.6890
 1.1660	48.5970
 1.1670	48.5130
 1.1680	48.4370
 1.1690	48.3650
 1.1700	48.3040
 1.1710	48.2380
 1.1720	48.1740
 1.1730	48.1110
 1.1740	48.0490
 1.1750	47.9880
 1.1760	47.9270
 1.1770	47.8680
 1.1780	47.8070
 1.1790	47.7420
 1.1800	47.6770
 1.1810	47.6140
 1.1820	47.5500
 1.1830	47.4840
 1.1840	47.4220
 1.1850	47.3610
 1.1860	47.3000
 1.1870	47.2440
 1.1880	47.1910
 1.1890	47.1380
 1.1900	47.0920
 1.1910	47.0490
 1.1920	47.0120
 1.1930	46.9790
 1.1940	46.9510
 1.1950	46.9280
 1.1960	46.9100
 1.1970	46.8970
 1.1980	46.8870
 1.1990	46.8810
 1.2000	46.8810
 1.2010	46.8880
 1.2020	46.9010
 1.2030	46.9190
 1.2040	46.9430
 1.2050	46.9720
 1.2060	47.0020
 1.2070	47.0380
 1.2080	47.0780
 1.2090	47.1200
 1.2100	47.1670
 1.2110	47.2220
 1.2120	47.2840
 1.2130	47.3480
 1.2140	47.4200
 1.2150	47.4930
 1.2160	47.5680
 1.2170	47.6450
 1.2180	47.7270
 1.2190	47.8130
 1.2200	47.9000
 1.2210	47.9870
 1.2220	48.0780
 1.2230	48.1660
 1.2240	48.2570
 1.2250	48.3460
 1.2260	48.4320
 1.2270	48.5220
 1.2280	48.6120
 1.2290	48.7000
 1.2300	48.7890
 1.2310	48.8730
 1.2320	48.9550
 1.2330	49.0340
 1.2340	49.1120
 1.2350	49.1880
 1.2360	49.2610
 1.2370	49.3320
 1.2380	49.3990
 1.2390	49.4650
 1.2400	49.5300
 1.2410	49.5940
 1.2420	49.6590
 1.2430	49.7220
 1.2440	49.7850
 1.2450	49.8430
 1.2460	49.9010
 1.2470	49.9560
 1.2480	50.0040
 1.2490	50.0540
 1.2500	50.1040
 1.2510	50.1530
 1.2520	50.2030
 1.2530	50.2470
 1.2540	50.2860
 1.2550	50.3230
 1.2560	50.3590
 1.2570	50.3960
 1.2580	50.4280
 1.2590	50.4580
 1.2600	50.4860
 1.2610	50.5120
 1.2620	50.5330
 1.2630	50.5550
 1.2640	50.5790
 1.2650	50.5990
 1.2660	50.6180
 1.2670	50.6320
 1.2680	50.6430
 1.2690	50.6530
 1.2700	50.6600
 1.2710	50.6660
 1.2720	50.6700
 1.2730	50.6700
 1.2740	50.6700
 1.2750	50.6650
 1.2760	50.6570
 1.2770	50.6480
 1.2780	50.6330
 1.2790	50.6160
 1.2800	50.5980
 1.2810	50.5740
 1.2820	50.5480
 1.2830	50.5200
 1.2840	50.4890
 1.2850	50.4530
 1.2860	50.4110
 1.2870	50.3670
 1.2880	50.3180
 1.2890	50.2650
 1.2900	50.2070
 1.2910	50.1450
 1.2920	50.0760
 1.2930	50.0000
 1.2940	49.9220
 1.2950	49.8390
 1.2960	49.7520
 1.2970	49.6590
 1.2980	49.5610
 1.2990	49.4540
 1.3000	49.3410
 1.3010	49.2250
 1.3020	49.1020
 1.3030	48.9750
 1.3040	48.8410
 1.3050	48.6960
 1.3060	48.5480
 1.3070	48.3960
 1.3080	48.2360
 1.3090	48.0760
 1.3100	47.9080
 1.3110	47.7300
 1.3120	47.5460
 1.3130	47.3530
 1.3140	47.1540
 1.3150	46.9520
 1.3160	46.7430
 1.3170	46.5280
 1.3180	46.3100
 1.3190	46.0860
 1.3200	45.8540
 1.3210	45.6190
 1.3220	45.3800
 1.3230	45.1330
 1.3240	44.8810
 1.3250	44.6260
 1.3260	44.3660
 1.3270	44.1010
 1.3280	43.8350
 1.3290	43.5640
 1.3300	43.2930
 1.3310	43.0230
 1.3320	42.7500
 1.3330	42.4800
 1.3340	42.2070
 1.3350	41.9320
 1.3360	41.6600
 1.3370	41.3880
 1.3380	41.1190
 1.3390	40.8530
 1.3400	40.5880
 1.3410	40.3280
 1.3420	40.0720
 1.3430	39.8200
 1.3440	39.5740
 1.3450	39.3310
 1.3460	39.0900
 1.3470	38.8550
 1.3480	38.6230
 1.3490	38.3970
 1.3500	38.1790
 1.3510	37.9640
 1.3520	37.7510
 1.3530	37.5410
 1.3540	37.3310
 1.3550	37.1220
 1.3560	36.9170
 1.3570	36.7100
 1.3580	36.5030
 1.3590	36.2960
 1.3600	36.0840
 1.3610	35.8700
 1.3620	35.6520
 1.3630	35.4280
 1.3640	35.1990
 1.3650	34.9610
 1.3660	34.7170
 1.3670	34.4630
 1.3680	34.1970
 1.3690	33.9200
 1.3700	33.6250
 1.3710	33.3180
 1.3720	32.9960
 1.3730	32.6540
 1.3740	32.3000
 1.3750	31.9240
 1.3760	31.5250
 1.3770	31.1050
 1.3780	30.6600
 1.3790	30.1930
 1.3800	29.7040
 1.3810	29.1910
 1.3820	28.6620
 1.3830	28.1120
 1.3840	27.5490
 1.3850	26.9710
 1.3860	26.3850
 1.3870	25.7790
 1.3880	25.1790
 1.3890	24.5710
 1.3900	23.9600
 1.3910	23.3590
 1.3920	22.7600
 1.3930	22.1630
 1.3940	21.5790
 1.3950	20.9970
 1.3960	20.4320
 1.3970	19.8840
 1.3980	19.3530
 1.3990	18.8480
 1.4000	18.3600
 1.4010	17.8890
 1.4020	17.4410
 1.4030	17.0100
 1.4040	16.6010
 1.4050	16.2160
 1.4060	15.8480
 1.4070	15.5040
 1.4080	15.1780
 1.4090	14.8700
 1.4100	14.5840
 1.4110	14.3130
 1.4120	14.0600
 1.4130	13.8240
 1.4140	13.6020
 1.4150	13.3980
 1.4160	13.2080
 1.4170	13.0300
 1.4180	12.8640
 1.4190	12.7090
 1.4200	12.5640
 1.4210	12.4310
 1.4220	12.3070
 1.4230	12.1920
 1.4240	12.0850
 1.4250	11.9860
 1.4260	11.8950
 1.4270	11.8100
 1.4280	11.7320
 1.4290	11.6590
 1.4300	11.5930
 1.4310	11.5330
 1.4320	11.4810
 1.4330	11.4310
 1.4340	11.3870
 1.4350	11.3460
 1.4360	11.3080
 1.4370	11.2740
 1.4380	11.2450
 1.4390	11.2200
 1.4400	11.1990
 1.4410	11.1820
 1.4420	11.1660
 1.4430	11.1530
 1.4440	11.1410
 1.4450	11.1330
 1.4460	11.1270
 1.4470	11.1240
 1.4480	11.1210
 1.4490	11.1210
 1.4500	11.1220
 1.4510	11.1240
 1.4520	11.1300
 1.4530	11.1360
 1.4540	11.1440
 1.4550	11.1520
 1.4560	11.1620
 1.4570	11.1740
 1.4580	11.1880
 1.4590	11.2050
 1.4600	11.2240
 1.4610	11.2460
 1.4620	11.2720
 1.4630	11.3010
 1.4640	11.3330
 1.4650	11.3680
 1.4660	11.4060
 1.4670	11.4460
 1.4680	11.4910
 1.4690	11.5380
 1.4700	11.5890
