Name: Umbellularia californica 2
Type: vegetation
Class: Shrub
Genus: Umbellularia
Species: californica
Sample No.: VH237
Owner: UCSB
Wavelength Range: TIR
Origin: 34.5074; -119.7632; WGS84
Collection Date: 10/13/2013
Description: Samples were collected as part of the HyspIRI Airborne Campaign. 48 individual plants were sampled in three times in 2013 - spring  summer  and fall. The name of the sample includes a 1  2  or 3 which references a different individual of the species. Samples were taken to JPL and processed within 48 hours of collection. The same leaves were processed in the Nicolet and then measured using the ASD.
Measurement: Hemispherical reflectance
First Column: X
Second Column: Y
X Units: Wavelength (micrometers)
Y Units: Reflectance (percentage)
First X Value: 2.501
Last X Value: 15.387
Number of X Values: 1737
Additional Information: vegetation.shrub.umbellularia.californica.tir.vh237.ucsb.nicolet.ancillary.txt

 2.5010	 8.4730
 2.5030	 8.4380
 2.5040	 8.3430
 2.5050	 8.1670
 2.5060	 8.3510
 2.5070	 8.2520
 2.5090	 8.1460
 2.5100	 8.2720
 2.5110	 8.4550
 2.5120	 8.3920
 2.5140	 8.2540
 2.5150	 8.1010
 2.5160	 8.0010
 2.5170	 8.0260
 2.5180	 8.2100
 2.5200	 8.2770
 2.5210	 8.3590
 2.5220	 8.2790
 2.5230	 8.2340
 2.5250	 8.3200
 2.5260	 8.3470
 2.5270	 8.0740
 2.5280	 7.9940
 2.5290	 8.0200
 2.5310	 8.0730
 2.5320	 8.1770
 2.5330	 8.1870
 2.5340	 8.2350
 2.5360	 8.2420
 2.5370	 8.1670
 2.5380	 8.0360
 2.5390	 8.0050
 2.5410	 8.2930
 2.5420	 8.3390
 2.5430	 8.2310
 2.5440	 8.2470
 2.5460	 8.2220
 2.5470	 8.2300
 2.5480	 8.4250
 2.5490	 8.4010
 2.5510	 8.2880
 2.5520	 8.1820
 2.5530	 8.1280
 2.5540	 8.0850
 2.5560	 8.2760
 2.5570	 8.3070
 2.5580	 8.3560
 2.5590	 8.3190
 2.5610	 8.3560
 2.5620	 8.3970
 2.5630	 8.3960
 2.5640	 8.2630
 2.5660	 8.3320
 2.5670	 8.3510
 2.5680	 8.4040
 2.5700	 8.3880
 2.5710	 8.4910
 2.5720	 8.6100
 2.5730	 8.6780
 2.5750	 8.5300
 2.5760	 8.6180
 2.5770	 8.5310
 2.5790	 8.3380
 2.5800	 8.3000
 2.5810	 8.3970
 2.5820	 8.5800
 2.5840	 8.7290
 2.5850	 8.7030
 2.5860	 8.5700
 2.5880	 8.2090
 2.5890	 8.3270
 2.5900	 8.5860
 2.5910	 8.5200
 2.5930	 8.2800
 2.5940	 8.3820
 2.5950	 8.5300
 2.5970	 8.4850
 2.5980	 8.2790
 2.5990	 8.2290
 2.6000	 8.1940
 2.6020	 8.3120
 2.6030	 8.3570
 2.6040	 8.2800
 2.6060	 8.1350
 2.6070	 8.0990
 2.6080	 8.1530
 2.6100	 8.2400
 2.6110	 8.1660
 2.6120	 8.0970
 2.6140	 7.9620
 2.6150	 7.7630
 2.6160	 7.6530
 2.6180	 7.6810
 2.6190	 7.6210
 2.6200	 7.6240
 2.6220	 7.7860
 2.6230	 7.9150
 2.6240	 7.7820
 2.6260	 7.6120
 2.6270	 7.4560
 2.6280	 7.4840
 2.6300	 7.4260
 2.6310	 7.4730
 2.6320	 7.5310
 2.6340	 7.4470
 2.6350	 7.3580
 2.6360	 7.4100
 2.6380	 7.4280
 2.6390	 7.3790
 2.6400	 7.1800
 2.6420	 7.1440
 2.6430	 7.2290
 2.6440	 7.2450
 2.6460	 7.1550
 2.6470	 7.1410
 2.6480	 7.0060
 2.6500	 7.1190
 2.6510	 7.1450
 2.6520	 6.9220
 2.6540	 6.6870
 2.6550	 6.6750
 2.6560	 6.4390
 2.6580	 6.6650
 2.6590	 6.8070
 2.6610	 6.7280
 2.6620	 6.6230
 2.6630	 6.5940
 2.6650	 6.4200
 2.6660	 6.4210
 2.6670	 6.5190
 2.6690	 6.4230
 2.6700	 6.2960
 2.6720	 6.3800
 2.6730	 6.3660
 2.6740	 6.1840
 2.6760	 5.8850
 2.6770	 5.7880
 2.6780	 5.7590
 2.6800	 5.9810
 2.6810	 6.0070
 2.6830	 6.0120
 2.6840	 6.1610
 2.6850	 6.3160
 2.6870	 5.8830
 2.6880	 5.5850
 2.6900	 5.6520
 2.6910	 5.5910
 2.6920	 5.2480
 2.6940	 5.1650
 2.6950	 5.3940
 2.6970	 5.2710
 2.6980	 5.1200
 2.6990	 5.1520
 2.7010	 5.0640
 2.7020	 5.0110
 2.7040	 5.0300
 2.7050	 5.1670
 2.7060	 5.1610
 2.7080	 4.9840
 2.7090	 4.8890
 2.7110	 4.9810
 2.7120	 4.8900
 2.7130	 4.9200
 2.7150	 5.0480
 2.7160	 5.1330
 2.7180	 4.9930
 2.7190	 4.7210
 2.7210	 4.6570
 2.7220	 4.8780
 2.7230	 5.1770
 2.7250	 5.3260
 2.7260	 5.0120
 2.7280	 4.8060
 2.7290	 4.7880
 2.7310	 4.8360
 2.7320	 4.6890
 2.7330	 4.7600
 2.7350	 4.7830
 2.7360	 4.7070
 2.7380	 4.5850
 2.7390	 4.4150
 2.7410	 4.5820
 2.7420	 5.0550
 2.7440	 4.8830
 2.7450	 4.6970
 2.7470	 5.1500
 2.7480	 5.1700
 2.7490	 4.4470
 2.7510	 3.6570
 2.7520	 4.2180
 2.7540	 5.3530
 2.7550	 4.8980
 2.7570	 4.0440
 2.7580	 4.1280
 2.7600	 4.7740
 2.7610	 4.6310
 2.7630	 4.6160
 2.7640	 4.7560
 2.7660	 4.6960
 2.7670	 5.0440
 2.7680	 4.7580
 2.7700	 4.3820
 2.7710	 4.5160
 2.7730	 4.7100
 2.7740	 4.7840
 2.7760	 4.1170
 2.7770	 4.0110
 2.7790	 4.3070
 2.7800	 4.3100
 2.7820	 4.1860
 2.7830	 4.4320
 2.7850	 4.4560
 2.7860	 4.3330
 2.7880	 4.3170
 2.7890	 4.5000
 2.7910	 4.5660
 2.7920	 4.3130
 2.7940	 4.2700
 2.7950	 4.6090
 2.7970	 4.6020
 2.7980	 4.5510
 2.8000	 4.3270
 2.8010	 4.0280
 2.8030	 3.9080
 2.8040	 4.2430
 2.8060	 4.3370
 2.8070	 4.1800
 2.8090	 4.1560
 2.8110	 4.3270
 2.8120	 4.3720
 2.8140	 4.2870
 2.8150	 4.0700
 2.8170	 4.1680
 2.8180	 4.1340
 2.8200	 4.2540
 2.8210	 4.3850
 2.8230	 4.4230
 2.8240	 4.2380
 2.8260	 3.8580
 2.8270	 3.7530
 2.8290	 4.1260
 2.8300	 4.2480
 2.8320	 4.3060
 2.8340	 4.4030
 2.8350	 4.2800
 2.8370	 3.9750
 2.8380	 3.8420
 2.8400	 4.0510
 2.8410	 4.0440
 2.8430	 4.0340
 2.8440	 4.1200
 2.8460	 4.2210
 2.8480	 4.3530
 2.8490	 4.2530
 2.8510	 4.2120
 2.8520	 4.2100
 2.8540	 4.0430
 2.8550	 3.9930
 2.8570	 4.1570
 2.8590	 4.1660
 2.8600	 4.1050
 2.8620	 4.0030
 2.8630	 4.1910
 2.8650	 4.2650
 2.8660	 4.3830
 2.8680	 4.3640
 2.8700	 4.4430
 2.8710	 4.4590
 2.8730	 4.1030
 2.8740	 3.8520
 2.8760	 3.8740
 2.8780	 4.1580
 2.8790	 3.7860
 2.8810	 3.6270
 2.8820	 4.5340
 2.8840	 4.5430
 2.8860	 4.3410
 2.8870	 4.7020
 2.8890	 4.5640
 2.8900	 4.2450
 2.8920	 4.5400
 2.8940	 4.1910
 2.8950	 3.7410
 2.8970	 3.5500
 2.8980	 3.5500
 2.9000	 3.9500
 2.9020	 4.6880
 2.9030	 4.9350
 2.9050	 4.2830
 2.9070	 3.2200
 2.9080	 3.1730
 2.9100	 3.5490
 2.9120	 3.5530
 2.9130	 3.6580
 2.9150	 3.7870
 2.9160	 4.0080
 2.9180	 4.2600
 2.9200	 4.2490
 2.9210	 4.2440
 2.9230	 4.0130
 2.9250	 4.0660
 2.9260	 4.1140
 2.9280	 4.0820
 2.9300	 4.2450
 2.9310	 4.2640
 2.9330	 4.1600
 2.9350	 4.2120
 2.9360	 4.3220
 2.9380	 4.0810
 2.9400	 3.7890
 2.9410	 3.9780
 2.9430	 4.2080
 2.9450	 4.3070
 2.9460	 4.2710
 2.9480	 4.4670
 2.9500	 4.2880
 2.9510	 4.5550
 2.9530	 4.5720
 2.9550	 4.2700
 2.9560	 4.2980
 2.9580	 3.4930
 2.9600	 4.1960
 2.9610	 6.1200
 2.9630	 5.7560
 2.9650	 4.7500
 2.9660	 4.3080
 2.9680	 3.4950
 2.9700	 3.2710
 2.9720	 2.5140
 2.9730	 0.7700
 2.9750	 1.9080
 2.9770	 3.1990
 2.9780	 2.9430
 2.9800	 2.9250
 2.9820	 4.5190
 2.9840	 7.2640
 2.9850	 7.5380
 2.9870	 6.3660
 2.9890	 5.7130
 2.9900	 6.0640
 2.9920	 5.9190
 2.9940	 5.9110
 2.9960	 6.1780
 2.9970	 4.6090
 2.9990	 4.9650
 3.0010	 3.4510
 3.0030	 1.7560
 3.0040	 3.0450
 3.0060	 4.0990
 3.0080	 4.3650
 3.0100	 5.0100
 3.0110	 5.5640
 3.0130	 5.3450
 3.0150	 4.9830
 3.0170	 3.8050
 3.0180	 3.8710
 3.0200	 4.4520
 3.0220	 3.7430
 3.0240	 3.2720
 3.0250	 4.2560
 3.0270	 4.3680
 3.0290	 4.2170
 3.0310	 5.0530
 3.0320	 5.0930
 3.0340	 4.0300
 3.0360	 4.0420
 3.0380	 2.3940
 3.0400	 1.3690
 3.0410	 1.3060
 3.0430	 0.9950
 3.0450	 4.3970
 3.0470	 3.2050
 3.0480	 0.0110
 3.0500	 -0.263
 3.0520	 1.4580
 3.0540	 2.6980
 3.0560	 4.4290
 3.0570	 5.6260
 3.0590	 6.1130
 3.0610	 4.8840
 3.0630	 4.1510
 3.0650	 1.7290
 3.0660	 1.6310
 3.0680	 3.4800
 3.0700	 3.5860
 3.0720	 3.8880
 3.0740	 3.6130
 3.0760	 3.6180
 3.0770	 4.2720
 3.0790	 4.5790
 3.0810	 3.9340
 3.0830	 3.5830
 3.0850	 3.9440
 3.0870	 4.1860
 3.0880	 4.5660
 3.0900	 4.6070
 3.0920	 4.4310
 3.0940	 4.2620
 3.0960	 4.2180
 3.0980	 4.1980
 3.0990	 4.2880
 3.1010	 4.2380
 3.1030	 4.3590
 3.1050	 4.3890
 3.1070	 4.2860
 3.1090	 3.9980
 3.1110	 4.1650
 3.1120	 4.2890
 3.1140	 4.3430
 3.1160	 4.5470
 3.1180	 4.6150
 3.1200	 4.2610
 3.1220	 4.2250
 3.1240	 4.0890
 3.1260	 3.8110
 3.1270	 4.1800
 3.1290	 4.8450
 3.1310	 4.3240
 3.1330	 4.2440
 3.1350	 3.5870
 3.1370	 3.0290
 3.1390	 3.5360
 3.1410	 4.3280
 3.1430	 5.2430
 3.1450	 5.8090
 3.1460	 5.0250
 3.1480	 4.5500
 3.1500	 4.4710
 3.1520	 3.3350
 3.1540	 2.0530
 3.1560	 2.3440
 3.1580	 1.4970
 3.1600	 1.1150
 3.1620	 3.4850
 3.1640	 5.4470
 3.1660	 6.3110
 3.1680	 8.2330
 3.1700	 7.4480
 3.1710	 4.7430
 3.1730	 5.3620
 3.1750	 5.7850
 3.1770	 5.3500
 3.1790	 5.2320
 3.1810	 5.7340
 3.1830	 5.0950
 3.1850	 3.9500
 3.1870	 3.3050
 3.1890	 3.9940
 3.1910	 4.2590
 3.1930	 3.6350
 3.1950	 3.8450
 3.1970	 3.6560
 3.1990	 4.1060
 3.2010	 4.4500
 3.2030	 4.1430
 3.2050	 3.8620
 3.2070	 4.1340
 3.2090	 4.2390
 3.2110	 3.9970
 3.2130	 3.6840
 3.2150	 4.0390
 3.2170	 4.1340
 3.2190	 3.9860
 3.2210	 4.2070
 3.2230	 4.3510
 3.2250	 4.1840
 3.2270	 4.0530
 3.2290	 3.7760
 3.2310	 3.7340
 3.2330	 3.9790
 3.2350	 4.2580
 3.2370	 4.1690
 3.2390	 4.3540
 3.2410	 4.3750
 3.2430	 4.2460
 3.2450	 4.1150
 3.2470	 3.7590
 3.2490	 3.4310
 3.2510	 3.6380
 3.2530	 4.1520
 3.2550	 4.0430
 3.2570	 3.6090
 3.2590	 4.4580
 3.2610	 5.1680
 3.2630	 4.8130
 3.2650	 3.9210
 3.2670	 3.8640
 3.2690	 4.0840
 3.2720	 3.8960
 3.2740	 4.0090
 3.2760	 4.1090
 3.2780	 3.9130
 3.2800	 4.2990
 3.2820	 4.5070
 3.2840	 4.3300
 3.2860	 4.1300
 3.2880	 4.3860
 3.2900	 4.0650
 3.2920	 3.8460
 3.2940	 4.4760
 3.2960	 4.4550
 3.2990	 4.0630
 3.3010	 4.1340
 3.3030	 4.0570
 3.3050	 3.6810
 3.3070	 3.5130
 3.3090	 3.7740
 3.3110	 3.8980
 3.3130	 3.8110
 3.3150	 3.8410
 3.3180	 3.9500
 3.3200	 4.2970
 3.3220	 4.1530
 3.3240	 3.9390
 3.3260	 4.0670
 3.3280	 4.0030
 3.3300	 3.8570
 3.3330	 3.8800
 3.3350	 4.0610
 3.3370	 3.9890
 3.3390	 3.8800
 3.3410	 3.9890
 3.3430	 3.9990
 3.3450	 3.9420
 3.3480	 3.8680
 3.3500	 3.6470
 3.3520	 3.6570
 3.3540	 3.8160
 3.3560	 3.7580
 3.3580	 3.6570
 3.3610	 3.5140
 3.3630	 3.4270
 3.3650	 3.4550
 3.3670	 3.5670
 3.3690	 3.5850
 3.3720	 3.5390
 3.3740	 3.4980
 3.3760	 3.4520
 3.3780	 3.5660
 3.3800	 3.5820
 3.3830	 3.5270
 3.3850	 3.4680
 3.3870	 3.4870
 3.3890	 3.5700
 3.3910	 3.4920
 3.3940	 3.3060
 3.3960	 3.4340
 3.3980	 3.4310
 3.4000	 3.3870
 3.4020	 3.4810
 3.4050	 3.6770
 3.4070	 3.6640
 3.4090	 3.7200
 3.4110	 3.9290
 3.4140	 4.3030
 3.4160	 4.7960
 3.4180	 5.7080
 3.4200	 6.7600
 3.4230	 8.0880
 3.4250	 9.7080
 3.4270	11.2830
 3.4290	12.1100
 3.4320	11.8850
 3.4340	10.7350
 3.4360	 9.6280
 3.4390	 8.6020
 3.4410	 7.6020
 3.4430	 7.2080
 3.4450	 7.2050
 3.4480	 6.9710
 3.4500	 6.7530
 3.4520	 6.3650
 3.4550	 6.7100
 3.4570	 7.0560
 3.4590	 6.7550
 3.4620	 6.2000
 3.4640	 6.0980
 3.4660	 6.0680
 3.4680	 5.8200
 3.4710	 5.6620
 3.4730	 5.5360
 3.4750	 5.3670
 3.4780	 5.2990
 3.4800	 5.1960
 3.4820	 5.1510
 3.4850	 4.9940
 3.4870	 4.8570
 3.4890	 4.9070
 3.4920	 4.9900
 3.4940	 4.8230
 3.4970	 4.6510
 3.4990	 4.6450
 3.5010	 4.9000
 3.5040	 5.4610
 3.5060	 6.8270
 3.5080	 8.9810
 3.5110	10.9030
 3.5130	11.2180
 3.5160	10.0980
 3.5180	 8.7410
 3.5200	 7.9280
 3.5230	 7.5180
 3.5250	 7.2530
 3.5270	 6.9670
 3.5300	 6.7450
 3.5320	 6.6340
 3.5350	 6.6260
 3.5370	 6.4630
 3.5400	 6.1720
 3.5420	 6.0620
 3.5440	 6.1920
 3.5470	 6.3030
 3.5490	 6.1480
 3.5520	 5.9690
 3.5540	 5.8220
 3.5570	 5.7020
 3.5590	 5.7910
 3.5610	 5.7390
 3.5640	 5.7430
 3.5660	 5.5350
 3.5690	 5.3440
 3.5710	 5.3270
 3.5740	 5.4160
 3.5760	 5.5100
 3.5790	 5.5500
 3.5810	 5.6060
 3.5840	 5.6370
 3.5860	 5.5690
 3.5890	 5.4370
 3.5910	 5.5360
 3.5930	 5.7370
 3.5960	 5.3860
 3.5980	 5.5750
 3.6010	 5.6920
 3.6030	 5.1900
 3.6060	 4.8160
 3.6080	 5.2800
 3.6110	 5.5840
 3.6140	 5.5250
 3.6160	 5.4160
 3.6190	 5.2460
 3.6210	 5.4300
 3.6240	 5.4560
 3.6260	 5.2560
 3.6290	 5.1770
 3.6310	 5.2820
 3.6340	 5.4320
 3.6360	 5.3580
 3.6390	 5.3210
 3.6410	 5.2280
 3.6440	 5.1540
 3.6470	 5.2360
 3.6490	 5.2790
 3.6520	 5.2600
 3.6540	 5.3310
 3.6570	 5.4110
 3.6590	 5.2730
 3.6620	 5.1550
 3.6650	 5.1780
 3.6670	 5.0330
 3.6700	 5.0630
 3.6720	 5.1650
 3.6750	 5.2110
 3.6780	 5.2950
 3.6800	 5.3700
 3.6830	 5.3360
 3.6850	 5.2990
 3.6880	 5.2170
 3.6910	 5.1720
 3.6930	 5.1870
 3.6960	 5.1680
 3.6990	 5.1720
 3.7010	 5.2200
 3.7040	 5.1670
 3.7060	 5.1720
 3.7090	 5.1870
 3.7120	 5.2590
 3.7140	 5.2640
 3.7170	 5.3330
 3.7200	 5.3520
 3.7220	 5.4090
 3.7250	 5.4300
 3.7280	 5.3270
 3.7300	 5.1550
 3.7330	 5.0570
 3.7360	 5.0370
 3.7390	 5.0450
 3.7410	 5.1160
 3.7440	 5.1530
 3.7470	 5.2000
 3.7490	 5.4350
 3.7520	 5.3480
 3.7550	 5.1480
 3.7580	 5.2520
 3.7600	 5.3240
 3.7630	 5.2060
 3.7660	 5.2170
 3.7680	 5.2370
 3.7710	 5.2160
 3.7740	 5.1700
 3.7770	 5.1390
 3.7790	 5.1610
 3.7820	 5.2100
 3.7850	 5.2090
 3.7880	 5.1650
 3.7900	 5.2270
 3.7930	 5.1590
 3.7960	 5.0520
 3.7990	 5.1810
 3.8020	 5.2850
 3.8040	 5.1680
 3.8070	 5.0320
 3.8100	 5.0570
 3.8130	 5.1960
 3.8160	 5.1630
 3.8180	 5.0680
 3.8210	 5.0030
 3.8240	 5.1040
 3.8270	 5.3030
 3.8300	 5.3630
 3.8330	 5.3580
 3.8350	 5.2100
 3.8380	 5.0670
 3.8410	 5.3300
 3.8440	 5.5520
 3.8470	 5.4440
 3.8500	 5.5590
 3.8520	 5.5250
 3.8550	 5.3150
 3.8580	 5.2510
 3.8610	 5.3000
 3.8640	 5.2420
 3.8670	 5.2870
 3.8700	 5.1560
 3.8730	 5.0900
 3.8750	 5.1660
 3.8780	 5.3620
 3.8810	 5.4520
 3.8840	 5.4110
 3.8870	 5.2140
 3.8900	 5.2890
 3.8930	 5.4710
 3.8960	 5.3740
 3.8990	 5.2990
 3.9020	 5.4590
 3.9050	 5.4990
 3.9080	 5.4480
 3.9110	 5.4410
 3.9140	 5.3430
 3.9160	 5.2480
 3.9190	 5.3650
 3.9220	 5.4620
 3.9250	 5.4270
 3.9280	 5.3470
 3.9310	 5.3020
 3.9340	 5.3620
 3.9370	 5.4420
 3.9400	 5.3510
 3.9430	 5.2790
 3.9460	 5.3960
 3.9490	 5.4290
 3.9520	 5.3870
 3.9550	 5.3970
 3.9580	 5.4710
 3.9610	 5.4810
 3.9640	 5.4340
 3.9670	 5.3740
 3.9700	 5.2490
 3.9730	 5.3170
 3.9770	 5.3890
 3.9800	 5.3520
 3.9830	 5.2940
 3.9860	 5.3470
 3.9890	 5.3410
 3.9920	 5.3220
 3.9950	 5.3760
 3.9980	 5.3860
 4.0010	 5.3170
 4.0040	 5.2850
 4.0070	 5.3040
 4.0100	 5.2940
 4.0130	 5.1890
 4.0170	 5.2890
 4.0200	 5.4030
 4.0230	 5.3360
 4.0260	 5.2980
 4.0290	 5.3430
 4.0320	 5.3860
 4.0350	 5.4850
 4.0380	 5.5230
 4.0420	 5.4690
 4.0450	 5.4610
 4.0480	 5.4590
 4.0510	 5.4200
 4.0540	 5.3930
 4.0570	 5.3170
 4.0610	 5.2220
 4.0640	 5.2980
 4.0670	 5.3310
 4.0700	 5.3680
 4.0730	 5.3650
 4.0770	 5.3230
 4.0800	 5.3390
 4.0830	 5.3290
 4.0860	 5.2960
 4.0890	 5.2780
 4.0930	 5.2990
 4.0960	 5.3800
 4.0990	 5.3680
 4.1020	 5.2980
 4.1060	 5.3820
 4.1090	 5.4860
 4.1120	 5.2830
 4.1150	 4.9710
 4.1190	 5.2640
 4.1220	 5.4860
 4.1250	 5.4430
 4.1280	 5.3720
 4.1320	 5.2700
 4.1350	 5.2270
 4.1380	 5.2560
 4.1420	 5.2860
 4.1450	 5.3920
 4.1480	 5.4500
 4.1520	 5.3910
 4.1550	 5.3230
 4.1580	 5.3170
 4.1620	 5.3030
 4.1650	 5.2310
 4.1680	 5.2780
 4.1720	 5.3630
 4.1750	 5.3380
 4.1780	 5.2520
 4.1820	 5.2460
 4.1850	 5.3430
 4.1890	 5.3240
 4.1920	 5.2810
 4.1950	 5.2570
 4.1990	 5.3620
 4.2020	 5.4320
 4.2060	 5.5300
 4.2090	 5.5360
 4.2120	 5.6880
 4.2160	 5.9920
 4.2190	 5.9670
 4.2230	 5.7940
 4.2260	 5.4140
 4.2300	 5.2420
 4.2330	 5.6230
 4.2360	 5.7320
 4.2400	 5.5520
 4.2430	 5.4810
 4.2470	 5.5430
 4.2500	 5.6320
 4.2540	 5.5950
 4.2570	 5.7180
 4.2610	 5.6460
 4.2640	 5.4260
 4.2680	 5.5040
 4.2710	 5.6520
 4.2750	 5.5880
 4.2780	 5.5380
 4.2820	 5.4750
 4.2850	 5.4800
 4.2890	 5.6040
 4.2930	 5.7230
 4.2960	 5.7920
 4.3000	 5.7530
 4.3030	 5.5990
 4.3070	 5.4090
 4.3100	 5.1740
 4.3140	 5.2220
 4.3180	 5.2590
 4.3210	 5.1670
 4.3250	 5.1120
 4.3280	 5.1810
 4.3320	 5.2690
 4.3360	 5.2380
 4.3390	 5.2170
 4.3430	 5.2060
 4.3470	 5.1750
 4.3500	 5.1510
 4.3540	 5.1210
 4.3570	 5.1140
 4.3610	 5.1530
 4.3650	 5.1070
 4.3680	 5.0570
 4.3720	 5.0650
 4.3760	 5.0140
 4.3800	 5.0520
 4.3830	 5.0510
 4.3870	 5.0200
 4.3910	 5.0030
 4.3940	 5.0000
 4.3980	 5.1000
 4.4020	 5.1360
 4.4060	 5.0470
 4.4090	 4.9890
 4.4130	 4.9810
 4.4170	 4.9510
 4.4210	 4.8530
 4.4240	 4.8740
 4.4280	 4.9220
 4.4320	 4.9320
 4.4360	 4.8880
 4.4400	 4.9010
 4.4430	 4.8800
 4.4470	 4.8700
 4.4510	 5.0260
 4.4550	 5.1000
 4.4590	 4.9570
 4.4620	 4.8950
 4.4660	 4.9630
 4.4700	 4.9550
 4.4740	 4.9210
 4.4780	 4.8830
 4.4820	 4.8740
 4.4860	 4.9570
 4.4900	 4.9580
 4.4930	 4.9880
 4.4970	 5.0410
 4.5010	 4.9920
 4.5050	 4.8600
 4.5090	 4.7460
 4.5130	 4.8030
 4.5170	 4.8680
 4.5210	 4.8870
 4.5250	 4.8290
 4.5290	 4.8560
 4.5330	 4.9230
 4.5370	 4.9200
 4.5410	 4.8840
 4.5450	 4.8070
 4.5490	 4.9580
 4.5530	 4.9550
 4.5570	 4.8170
 4.5610	 4.7500
 4.5650	 4.7770
 4.5690	 4.7860
 4.5730	 4.8110
 4.5770	 4.7660
 4.5810	 4.7410
 4.5850	 4.8390
 4.5890	 4.8550
 4.5930	 4.7520
 4.5970	 4.7350
 4.6010	 4.7110
 4.6050	 4.6730
 4.6090	 4.7460
 4.6130	 4.8700
 4.6170	 4.8520
 4.6220	 4.6890
 4.6260	 4.5940
 4.6300	 4.8060
 4.6340	 5.0350
 4.6380	 4.9410
 4.6420	 4.7350
 4.6460	 4.7120
 4.6510	 4.7910
 4.6550	 4.8040
 4.6590	 4.8080
 4.6630	 4.8140
 4.6670	 4.8240
 4.6720	 4.7990
 4.6760	 4.7890
 4.6800	 4.8890
 4.6840	 4.8170
 4.6880	 4.6910
 4.6930	 4.7120
 4.6970	 4.7370
 4.7010	 4.7760
 4.7050	 4.7490
 4.7100	 4.7000
 4.7140	 4.6900
 4.7180	 4.6470
 4.7230	 4.6790
 4.7270	 4.7310
 4.7310	 4.8230
 4.7360	 4.8420
 4.7400	 4.7500
 4.7440	 4.6870
 4.7490	 4.7400
 4.7530	 4.7490
 4.7570	 4.8320
 4.7620	 4.7380
 4.7660	 4.6980
 4.7700	 4.7650
 4.7750	 4.8010
 4.7790	 4.7780
 4.7840	 4.5590
 4.7880	 4.2470
 4.7920	 4.1170
 4.7970	 4.5050
 4.8010	 4.8030
 4.8060	 4.8680
 4.8100	 4.8350
 4.8150	 4.7470
 4.8190	 4.8140
 4.8240	 4.7870
 4.8280	 4.7690
 4.8330	 4.6810
 4.8370	 4.6250
 4.8420	 4.6360
 4.8460	 4.6370
 4.8510	 4.6680
 4.8550	 4.6750
 4.8600	 4.7150
 4.8640	 4.7110
 4.8690	 4.7160
 4.8730	 4.7370
 4.8780	 4.7240
 4.8830	 4.7380
 4.8870	 4.7250
 4.8920	 4.7290
 4.8960	 4.6880
 4.9010	 4.6260
 4.9060	 4.5830
 4.9100	 4.6440
 4.9150	 4.5770
 4.9200	 4.6100
 4.9240	 4.6720
 4.9290	 4.6970
 4.9340	 4.6440
 4.9380	 4.5880
 4.9430	 4.6220
 4.9480	 4.6980
 4.9530	 4.7490
 4.9570	 4.8180
 4.9620	 4.7860
 4.9670	 4.7750
 4.9720	 4.7640
 4.9760	 4.7570
 4.9810	 4.7080
 4.9860	 4.7030
 4.9910	 4.7380
 4.9960	 4.8160
 5.0000	 4.7870
 5.0050	 4.8110
 5.0100	 4.8310
 5.0150	 4.8310
 5.0200	 4.7970
 5.0250	 4.7750
 5.0290	 4.7980
 5.0340	 4.8570
 5.0390	 4.7780
 5.0440	 4.7770
 5.0490	 4.7970
 5.0540	 4.7870
 5.0590	 4.8050
 5.0640	 4.7710
 5.0690	 4.7440
 5.0740	 4.8290
 5.0790	 4.8600
 5.0840	 4.9090
 5.0890	 4.8330
 5.0940	 4.7030
 5.0990	 4.6370
 5.1040	 4.6780
 5.1090	 4.7280
 5.1140	 4.7690
 5.1190	 4.7390
 5.1240	 4.7730
 5.1290	 4.8170
 5.1340	 4.8650
 5.1390	 4.7680
 5.1440	 4.7480
 5.1490	 4.7630
 5.1540	 4.8420
 5.1600	 4.8930
 5.1650	 4.8870
 5.1700	 4.7790
 5.1750	 4.7990
 5.1800	 4.7720
 5.1850	 4.8560
 5.1910	 4.9330
 5.1960	 4.9410
 5.2010	 4.8190
 5.2060	 4.8370
 5.2110	 4.8540
 5.2170	 4.8320
 5.2220	 4.8560
 5.2270	 4.8920
 5.2320	 4.8080
 5.2380	 4.8440
 5.2430	 4.8580
 5.2480	 4.8530
 5.2540	 4.8270
 5.2590	 4.8200
 5.2640	 4.7770
 5.2700	 4.7850
 5.2750	 4.7560
 5.2800	 4.7380
 5.2860	 4.7220
 5.2910	 4.8320
 5.2970	 4.8110
 5.3020	 4.7950
 5.3070	 4.7260
 5.3130	 4.7560
 5.3180	 4.7720
 5.3240	 4.8080
 5.3290	 4.8450
 5.3350	 4.8560
 5.3400	 4.7220
 5.3460	 4.7040
 5.3510	 4.8080
 5.3570	 4.8550
 5.3620	 4.7450
 5.3680	 4.6900
 5.3730	 4.6560
 5.3790	 4.6720
 5.3850	 4.6750
 5.3900	 4.7220
 5.3960	 4.6650
 5.4010	 4.6880
 5.4070	 4.6420
 5.4130	 4.5940
 5.4180	 4.6660
 5.4240	 4.8110
 5.4300	 4.7380
