Name: Ehretia austin-smithii
Type: vegetation
Class: Tree
Genus: Ehretia
Species: austin-smithii
Sample No.: JPL210
Owner: JPL
Wavelength Range: TIR
Origin: 34.12625; -118.11137; WGS84
Collection Date: 10/3/2016
Description: Samples were collected at the Huntington Garden in San Marino California as part of a JPL Subcontract studying HyTES imagery. Samples were taken to JPL and processed within 48 hours of collection. The same leaves were processed in the Nicolet and then measured using the ASD.
Measurement: Hemispherical reflectance
First Column: X
Second Column: Y
X Units: Wavelength (micrometer)
Y Units: Reflectance (percentage)
First X Value: 2.501
Last X Value: 15.387
Number of X Values: 1737
Additional Information: vegetation.tree.ehretia.austin-smithii.tir.jpl210.jpl.nicolet.ancillary.txt

 2.5010	 7.0220
 2.5030	 6.9810
 2.5040	 6.8630
 2.5050	 6.8080
 2.5060	 6.9110
 2.5070	 6.9610
 2.5090	 6.9490
 2.5100	 6.9000
 2.5110	 6.9150
 2.5120	 6.8350
 2.5140	 6.8120
 2.5150	 6.7650
 2.5160	 6.7760
 2.5170	 6.7750
 2.5180	 6.8290
 2.5200	 6.8650
 2.5210	 6.8690
 2.5220	 6.7910
 2.5230	 6.7390
 2.5250	 6.7710
 2.5260	 6.8500
 2.5270	 6.7920
 2.5280	 6.7180
 2.5300	 6.6990
 2.5310	 6.7090
 2.5320	 6.6940
 2.5330	 6.6770
 2.5340	 6.6850
 2.5360	 6.7410
 2.5370	 6.7080
 2.5380	 6.7390
 2.5390	 6.7620
 2.5410	 6.7530
 2.5420	 6.6400
 2.5430	 6.5830
 2.5440	 6.6230
 2.5460	 6.6990
 2.5470	 6.6290
 2.5480	 6.6220
 2.5490	 6.6810
 2.5510	 6.6940
 2.5520	 6.6810
 2.5530	 6.6970
 2.5540	 6.7260
 2.5560	 6.7590
 2.5570	 6.7470
 2.5580	 6.7980
 2.5590	 6.7530
 2.5610	 6.5820
 2.5620	 6.3990
 2.5630	 6.3970
 2.5650	 6.4520
 2.5660	 6.6480
 2.5670	 6.7710
 2.5680	 6.7080
 2.5700	 6.5710
 2.5710	 6.6800
 2.5720	 6.7380
 2.5730	 6.5340
 2.5750	 6.5400
 2.5760	 6.6350
 2.5770	 6.5690
 2.5790	 6.6640
 2.5800	 6.6660
 2.5810	 6.5610
 2.5820	 6.4730
 2.5840	 6.2970
 2.5850	 6.2680
 2.5860	 6.3930
 2.5880	 6.3100
 2.5890	 6.4260
 2.5900	 6.4630
 2.5910	 6.4810
 2.5930	 6.3680
 2.5940	 6.0230
 2.5950	 5.6620
 2.5970	 5.9580
 2.5980	 6.3110
 2.5990	 6.4850
 2.6010	 6.4150
 2.6020	 6.3010
 2.6030	 6.2240
 2.6040	 6.0620
 2.6060	 5.8980
 2.6070	 6.0400
 2.6080	 6.1560
 2.6100	 6.1820
 2.6110	 6.1800
 2.6120	 6.2110
 2.6140	 6.1470
 2.6150	 6.1390
 2.6160	 5.8800
 2.6180	 5.7700
 2.6190	 5.8690
 2.6200	 5.7330
 2.6220	 5.8130
 2.6230	 6.1130
 2.6240	 6.0750
 2.6260	 5.9090
 2.6270	 5.6840
 2.6280	 5.8210
 2.6300	 5.6960
 2.6310	 5.4820
 2.6320	 5.6620
 2.6340	 5.7720
 2.6350	 5.7110
 2.6360	 5.8150
 2.6380	 5.7910
 2.6390	 5.8030
 2.6400	 5.7580
 2.6420	 5.6660
 2.6430	 5.5770
 2.6440	 5.5640
 2.6460	 5.4230
 2.6470	 5.4580
 2.6480	 5.5540
 2.6500	 5.5690
 2.6510	 5.4430
 2.6520	 5.3520
 2.6540	 5.3560
 2.6550	 5.4260
 2.6570	 5.3900
 2.6580	 5.4350
 2.6590	 5.2680
 2.6610	 5.1880
 2.6620	 5.1770
 2.6630	 5.1990
 2.6650	 4.9730
 2.6660	 4.7970
 2.6670	 4.7660
 2.6690	 4.9090
 2.6700	 4.6750
 2.6720	 4.6390
 2.6730	 4.9970
 2.6740	 5.0900
 2.6760	 4.8930
 2.6770	 4.7560
 2.6780	 4.7990
 2.6800	 4.8820
 2.6810	 4.9920
 2.6830	 5.0170
 2.6840	 4.9870
 2.6850	 4.9590
 2.6870	 4.8320
 2.6880	 4.8680
 2.6900	 4.9000
 2.6910	 4.8850
 2.6920	 4.7230
 2.6940	 4.5470
 2.6950	 4.4840
 2.6970	 4.5840
 2.6980	 4.6680
 2.6990	 4.6650
 2.7010	 4.5610
 2.7020	 4.5070
 2.7040	 4.4700
 2.7050	 4.4900
 2.7060	 4.4840
 2.7080	 4.4310
 2.7090	 4.2840
 2.7110	 4.1570
 2.7120	 4.1430
 2.7130	 4.3520
 2.7150	 4.3690
 2.7160	 4.4050
 2.7180	 4.3880
 2.7190	 4.2630
 2.7210	 3.9970
 2.7220	 4.0960
 2.7230	 4.1550
 2.7250	 4.0520
 2.7260	 4.0940
 2.7280	 4.2320
 2.7290	 4.2120
 2.7310	 4.1890
 2.7320	 4.2260
 2.7340	 4.1510
 2.7350	 3.9590
 2.7360	 4.0410
 2.7380	 4.0470
 2.7390	 3.8440
 2.7410	 3.7570
 2.7420	 3.8840
 2.7440	 3.9500
 2.7450	 3.9720
 2.7470	 3.9680
 2.7480	 4.0040
 2.7490	 3.9440
 2.7510	 3.9690
 2.7520	 4.0030
 2.7540	 3.9340
 2.7550	 3.6690
 2.7570	 3.6440
 2.7580	 3.7700
 2.7600	 3.8820
 2.7610	 3.8340
 2.7630	 3.6890
 2.7640	 3.6550
 2.7660	 3.7590
 2.7670	 3.7420
 2.7690	 3.7580
 2.7700	 3.7200
 2.7720	 3.7690
 2.7730	 3.7980
 2.7740	 3.8690
 2.7760	 3.9090
 2.7770	 3.8990
 2.7790	 3.7850
 2.7800	 3.7190
 2.7820	 3.6690
 2.7830	 3.7100
 2.7850	 3.7560
 2.7860	 3.7550
 2.7880	 3.7070
 2.7890	 3.7270
 2.7910	 3.7510
 2.7920	 3.7630
 2.7940	 3.7120
 2.7950	 3.7180
 2.7970	 3.7350
 2.7980	 3.8110
 2.8000	 3.7350
 2.8010	 3.6720
 2.8030	 3.5770
 2.8040	 3.5690
 2.8060	 3.6210
 2.8080	 3.6690
 2.8090	 3.6600
 2.8110	 3.7670
 2.8120	 3.7310
 2.8140	 3.6400
 2.8150	 3.5860
 2.8170	 3.7060
 2.8180	 3.6620
 2.8200	 3.6100
 2.8210	 3.6110
 2.8230	 3.7160
 2.8240	 3.6960
 2.8260	 3.7220
 2.8270	 3.7310
 2.8290	 3.7640
 2.8310	 3.7290
 2.8320	 3.6860
 2.8340	 3.6330
 2.8350	 3.6210
 2.8370	 3.5800
 2.8380	 3.6160
 2.8400	 3.6420
 2.8410	 3.6710
 2.8430	 3.6360
 2.8440	 3.6160
 2.8460	 3.6040
 2.8480	 3.6340
 2.8490	 3.6310
 2.8510	 3.7140
 2.8520	 3.7210
 2.8540	 3.6550
 2.8550	 3.5600
 2.8570	 3.6060
 2.8590	 3.6620
 2.8600	 3.6520
 2.8620	 3.5740
 2.8630	 3.6110
 2.8650	 3.5810
 2.8660	 3.6070
 2.8680	 3.5960
 2.8700	 3.5680
 2.8710	 3.5890
 2.8730	 3.6540
 2.8740	 3.6540
 2.8760	 3.6330
 2.8780	 3.5630
 2.8790	 3.5950
 2.8810	 3.6120
 2.8820	 3.6410
 2.8840	 3.5180
 2.8860	 3.5060
 2.8870	 3.5350
 2.8890	 3.6160
 2.8900	 3.5960
 2.8920	 3.6150
 2.8940	 3.5660
 2.8950	 3.5750
 2.8970	 3.5410
 2.8990	 3.5640
 2.9000	 3.5890
 2.9020	 3.6040
 2.9030	 3.5310
 2.9050	 3.5300
 2.9070	 3.5090
 2.9080	 3.5300
 2.9100	 3.5250
 2.9120	 3.5610
 2.9130	 3.5440
 2.9150	 3.5540
 2.9160	 3.4820
 2.9180	 3.5250
 2.9200	 3.5250
 2.9210	 3.5010
 2.9230	 3.4800
 2.9250	 3.5010
 2.9260	 3.4670
 2.9280	 3.5360
 2.9300	 3.5860
 2.9310	 3.5790
 2.9330	 3.5240
 2.9350	 3.5490
 2.9360	 3.5490
 2.9380	 3.5690
 2.9400	 3.5530
 2.9410	 3.5820
 2.9430	 3.5310
 2.9450	 3.5400
 2.9460	 3.5120
 2.9480	 3.4900
 2.9500	 3.4590
 2.9510	 3.5070
 2.9530	 3.5160
 2.9550	 3.5040
 2.9560	 3.3960
 2.9580	 3.4790
 2.9600	 3.5170
 2.9610	 3.5220
 2.9630	 3.4900
 2.9650	 3.4300
 2.9670	 3.3880
 2.9680	 3.4650
 2.9700	 3.4960
 2.9720	 3.5270
 2.9730	 3.5190
 2.9750	 3.5290
 2.9770	 3.5160
 2.9780	 3.5230
 2.9800	 3.4570
 2.9820	 3.4350
 2.9840	 3.4050
 2.9850	 3.4590
 2.9870	 3.4280
 2.9890	 3.4280
 2.9900	 3.4540
 2.9920	 3.4450
 2.9940	 3.4120
 2.9960	 3.4740
 2.9970	 3.4980
 2.9990	 3.4860
 3.0010	 3.3920
 3.0030	 3.3630
 3.0040	 3.3870
 3.0060	 3.4250
 3.0080	 3.3900
 3.0100	 3.3810
 3.0110	 3.3790
 3.0130	 3.4310
 3.0150	 3.3790
 3.0170	 3.3720
 3.0180	 3.3490
 3.0200	 3.3680
 3.0220	 3.3810
 3.0240	 3.4330
 3.0250	 3.4420
 3.0270	 3.4340
 3.0290	 3.4280
 3.0310	 3.3710
 3.0320	 3.3160
 3.0340	 3.3710
 3.0360	 3.3830
 3.0380	 3.4470
 3.0400	 3.4600
 3.0410	 3.4720
 3.0430	 3.4050
 3.0450	 3.4270
 3.0470	 3.4230
 3.0480	 3.4200
 3.0500	 3.3810
 3.0520	 3.3790
 3.0540	 3.3610
 3.0560	 3.4050
 3.0570	 3.3430
 3.0590	 3.3130
 3.0610	 3.3360
 3.0630	 3.3930
 3.0650	 3.4210
 3.0670	 3.4590
 3.0680	 3.3920
 3.0700	 3.4010
 3.0720	 3.3950
 3.0740	 3.3930
 3.0760	 3.3980
 3.0770	 3.4450
 3.0790	 3.4210
 3.0810	 3.4290
 3.0830	 3.4390
 3.0850	 3.4710
 3.0870	 3.3700
 3.0880	 3.3490
 3.0900	 3.4060
 3.0920	 3.4470
 3.0940	 3.4210
 3.0960	 3.4250
 3.0980	 3.4360
 3.1000	 3.5280
 3.1010	 3.4840
 3.1030	 3.4340
 3.1050	 3.4280
 3.1070	 3.4210
 3.1090	 3.3680
 3.1110	 3.3980
 3.1130	 3.4180
 3.1140	 3.4530
 3.1160	 3.4590
 3.1180	 3.4860
 3.1200	 3.5010
 3.1220	 3.5340
 3.1240	 3.4740
 3.1260	 3.4250
 3.1280	 3.3980
 3.1290	 3.4890
 3.1310	 3.5110
 3.1330	 3.4900
 3.1350	 3.4640
 3.1370	 3.4730
 3.1390	 3.4250
 3.1410	 3.4590
 3.1430	 3.4760
 3.1450	 3.5030
 3.1470	 3.4850
 3.1480	 3.4750
 3.1500	 3.4600
 3.1520	 3.4950
 3.1540	 3.4600
 3.1560	 3.4670
 3.1580	 3.4780
 3.1600	 3.5130
 3.1620	 3.4890
 3.1640	 3.4940
 3.1660	 3.4840
 3.1680	 3.4820
 3.1700	 3.4690
 3.1720	 3.5120
 3.1730	 3.4900
 3.1750	 3.5430
 3.1770	 3.5500
 3.1790	 3.4860
 3.1810	 3.4600
 3.1830	 3.5180
 3.1850	 3.4910
 3.1870	 3.5200
 3.1890	 3.5290
 3.1910	 3.5120
 3.1930	 3.4720
 3.1950	 3.4750
 3.1970	 3.4860
 3.1990	 3.5310
 3.2010	 3.4880
 3.2030	 3.4960
 3.2050	 3.5020
 3.2070	 3.5340
 3.2090	 3.5080
 3.2110	 3.5210
 3.2130	 3.5410
 3.2150	 3.5500
 3.2170	 3.5070
 3.2190	 3.5480
 3.2210	 3.5500
 3.2230	 3.5520
 3.2250	 3.5440
 3.2270	 3.5940
 3.2290	 3.6080
 3.2310	 3.6010
 3.2330	 3.5290
 3.2350	 3.5170
 3.2370	 3.5140
 3.2390	 3.5520
 3.2410	 3.5120
 3.2430	 3.5740
 3.2450	 3.5800
 3.2470	 3.5680
 3.2490	 3.5690
 3.2510	 3.5890
 3.2530	 3.5440
 3.2550	 3.5080
 3.2570	 3.4790
 3.2590	 3.5130
 3.2610	 3.5250
 3.2630	 3.5540
 3.2650	 3.5560
 3.2670	 3.5300
 3.2700	 3.4870
 3.2720	 3.5190
 3.2740	 3.5390
 3.2760	 3.5740
 3.2780	 3.5840
 3.2800	 3.5840
 3.2820	 3.5600
 3.2840	 3.6200
 3.2860	 3.6330
 3.2880	 3.6300
 3.2900	 3.5960
 3.2920	 3.5970
 3.2940	 3.5700
 3.2970	 3.6030
 3.2990	 3.6310
 3.3010	 3.6410
 3.3030	 3.5930
 3.3050	 3.5680
 3.3070	 3.5700
 3.3090	 3.5950
 3.3110	 3.5500
 3.3130	 3.5320
 3.3160	 3.5310
 3.3180	 3.5530
 3.3200	 3.5820
 3.3220	 3.6190
 3.3240	 3.5610
 3.3260	 3.5570
 3.3280	 3.5380
 3.3300	 3.5690
 3.3330	 3.5550
 3.3350	 3.5290
 3.3370	 3.4840
 3.3390	 3.4700
 3.3410	 3.4460
 3.3430	 3.4360
 3.3450	 3.3700
 3.3480	 3.3900
 3.3500	 3.4220
 3.3520	 3.4440
 3.3540	 3.4250
 3.3560	 3.4300
 3.3580	 3.3970
 3.3610	 3.3350
 3.3630	 3.2750
 3.3650	 3.2340
 3.3670	 3.2350
 3.3690	 3.2750
 3.3720	 3.2540
 3.3740	 3.2210
 3.3760	 3.1700
 3.3780	 3.2460
 3.3800	 3.3090
 3.3830	 3.3140
 3.3850	 3.2650
 3.3870	 3.2560
 3.3890	 3.2310
 3.3910	 3.2250
 3.3940	 3.2130
 3.3960	 3.2090
 3.3980	 3.2080
 3.4000	 3.2900
 3.4030	 3.3410
 3.4050	 3.3840
 3.4070	 3.4380
 3.4090	 3.5100
 3.4110	 3.5920
 3.4140	 3.7670
 3.4160	 3.9590
 3.4180	 4.2370
 3.4200	 4.6350
 3.4230	 5.1980
 3.4250	 5.8280
 3.4270	 6.4890
 3.4300	 6.8570
 3.4320	 6.7350
 3.4340	 6.2430
 3.4360	 5.7580
 3.4390	 5.3810
 3.4410	 5.1430
 3.4430	 4.9800
 3.4450	 4.8890
 3.4480	 4.7990
 3.4500	 4.8070
 3.4520	 4.7820
 3.4550	 4.7260
 3.4570	 4.6630
 3.4590	 4.6680
 3.4620	 4.6380
 3.4640	 4.6100
 3.4660	 4.5710
 3.4690	 4.5100
 3.4710	 4.4130
 3.4730	 4.3510
 3.4760	 4.2900
 3.4780	 4.2490
 3.4800	 4.2120
 3.4830	 4.2090
 3.4850	 4.1430
 3.4870	 4.0870
 3.4900	 4.0560
 3.4920	 4.0810
 3.4940	 4.0970
 3.4970	 4.0960
 3.4990	 4.1030
 3.5010	 4.2670
 3.5040	 4.5380
 3.5060	 5.0420
 3.5080	 5.8390
 3.5110	 6.5540
 3.5130	 6.5820
 3.5160	 6.1540
 3.5180	 5.7240
 3.5200	 5.4580
 3.5230	 5.2780
 3.5250	 5.1840
 3.5280	 5.0670
 3.5300	 4.9700
 3.5320	 4.8710
 3.5350	 4.7810
 3.5370	 4.7300
 3.5400	 4.7820
 3.5420	 4.7670
 3.5440	 4.7620
 3.5470	 4.7440
 3.5490	 4.7320
 3.5520	 4.6720
 3.5540	 4.6790
 3.5570	 4.6940
 3.5590	 4.7170
 3.5610	 4.6760
 3.5640	 4.6230
 3.5660	 4.5840
 3.5690	 4.5990
 3.5710	 4.6200
 3.5740	 4.6630
 3.5760	 4.6630
 3.5790	 4.6560
 3.5810	 4.5900
 3.5840	 4.5860
 3.5860	 4.6340
 3.5890	 4.6450
 3.5910	 4.5790
 3.5940	 4.5660
 3.5960	 4.5720
 3.5990	 4.5800
 3.6010	 4.5610
 3.6040	 4.5760
 3.6060	 4.5730
 3.6090	 4.5490
 3.6110	 4.5380
 3.6140	 4.5490
 3.6160	 4.5540
 3.6190	 4.5610
 3.6210	 4.5520
 3.6240	 4.5850
 3.6260	 4.5230
 3.6290	 4.5160
 3.6310	 4.5460
 3.6340	 4.5610
 3.6360	 4.5460
 3.6390	 4.5550
 3.6410	 4.5310
 3.6440	 4.5580
 3.6470	 4.5450
 3.6490	 4.5570
 3.6520	 4.5530
 3.6540	 4.5340
 3.6570	 4.5250
 3.6590	 4.5260
 3.6620	 4.5040
 3.6650	 4.5130
 3.6670	 4.4880
 3.6700	 4.5110
 3.6720	 4.5700
 3.6750	 4.5780
 3.6780	 4.5520
 3.6800	 4.5270
 3.6830	 4.5290
 3.6850	 4.5440
 3.6880	 4.4820
 3.6910	 4.4610
 3.6930	 4.4750
 3.6960	 4.5150
 3.6990	 4.5450
 3.7010	 4.5420
 3.7040	 4.4990
 3.7070	 4.4850
 3.7090	 4.5040
 3.7120	 4.5400
 3.7150	 4.5510
 3.7170	 4.5530
 3.7200	 4.5450
 3.7230	 4.5550
 3.7250	 4.5450
 3.7280	 4.6000
 3.7310	 4.6260
 3.7330	 4.6060
 3.7360	 4.5930
 3.7390	 4.6160
 3.7410	 4.5980
 3.7440	 4.5660
 3.7470	 4.5600
 3.7490	 4.5690
 3.7520	 4.5560
 3.7550	 4.6020
 3.7580	 4.5970
 3.7600	 4.5800
 3.7630	 4.5930
 3.7660	 4.6200
 3.7690	 4.6120
 3.7710	 4.5920
 3.7740	 4.5700
 3.7770	 4.5930
 3.7790	 4.6020
 3.7820	 4.6280
 3.7850	 4.6330
 3.7880	 4.6780
 3.7910	 4.6830
 3.7930	 4.6350
 3.7960	 4.6060
 3.7990	 4.6100
 3.8020	 4.6130
 3.8040	 4.6030
 3.8070	 4.6100
 3.8100	 4.6340
 3.8130	 4.6170
 3.8160	 4.6240
 3.8180	 4.6260
 3.8210	 4.6600
 3.8240	 4.6740
 3.8270	 4.6710
 3.8300	 4.6170
 3.8330	 4.6190
 3.8350	 4.6470
 3.8380	 4.6630
 3.8410	 4.6730
 3.8440	 4.6670
 3.8470	 4.6250
 3.8500	 4.6290
 3.8520	 4.6910
 3.8550	 4.7250
 3.8580	 4.6920
 3.8610	 4.6920
 3.8640	 4.7000
 3.8670	 4.7020
 3.8700	 4.7050
 3.8730	 4.6900
 3.8760	 4.6570
 3.8780	 4.6800
 3.8810	 4.7420
 3.8840	 4.7190
 3.8870	 4.6510
 3.8900	 4.6810
 3.8930	 4.7090
 3.8960	 4.6820
 3.8990	 4.6500
 3.9020	 4.7010
 3.9050	 4.7210
 3.9080	 4.7250
 3.9110	 4.7190
 3.9140	 4.6940
 3.9170	 4.6750
 3.9190	 4.7060
 3.9220	 4.7030
 3.9250	 4.6870
 3.9280	 4.6880
 3.9310	 4.7130
 3.9340	 4.7330
 3.9370	 4.7050
 3.9400	 4.6630
 3.9430	 4.6950
 3.9460	 4.7140
 3.9490	 4.6970
 3.9520	 4.6660
 3.9550	 4.6780
 3.9580	 4.7280
 3.9610	 4.7420
 3.9640	 4.7100
 3.9670	 4.7190
 3.9700	 4.7260
 3.9740	 4.6760
 3.9770	 4.6610
 3.9800	 4.6830
 3.9830	 4.6760
 3.9860	 4.6780
 3.9890	 4.6770
 3.9920	 4.6830
 3.9950	 4.7090
 3.9980	 4.7150
 4.0010	 4.7110
 4.0040	 4.7160
 4.0070	 4.7340
 4.0100	 4.7670
 4.0140	 4.7410
 4.0170	 4.7240
 4.0200	 4.7180
 4.0230	 4.7000
 4.0260	 4.7020
 4.0290	 4.7270
 4.0320	 4.7220
 4.0350	 4.7250
 4.0390	 4.7150
 4.0420	 4.6960
 4.0450	 4.6840
 4.0480	 4.6810
 4.0510	 4.7060
 4.0540	 4.7240
 4.0570	 4.6890
 4.0610	 4.6900
 4.0640	 4.6950
 4.0670	 4.7020
 4.0700	 4.7190
 4.0730	 4.7260
 4.0770	 4.6890
 4.0800	 4.6810
 4.0830	 4.7010
 4.0860	 4.7230
 4.0890	 4.7180
 4.0930	 4.7210
 4.0960	 4.7000
 4.0990	 4.6780
 4.1020	 4.6630
 4.1060	 4.7210
 4.1090	 4.6930
 4.1120	 4.6410
 4.1150	 4.6520
 4.1190	 4.7080
 4.1220	 4.7020
 4.1250	 4.6850
 4.1290	 4.6790
 4.1320	 4.6660
 4.1350	 4.6490
 4.1380	 4.6470
 4.1420	 4.6430
 4.1450	 4.6420
 4.1480	 4.6610
 4.1520	 4.6710
 4.1550	 4.6840
 4.1580	 4.6790
 4.1620	 4.6530
 4.1650	 4.6500
 4.1680	 4.6560
 4.1720	 4.6470
 4.1750	 4.6600
 4.1780	 4.6700
 4.1820	 4.6740
 4.1850	 4.6680
 4.1890	 4.6400
 4.1920	 4.6460
 4.1950	 4.6420
 4.1990	 4.6440
 4.2020	 4.6850
 4.2060	 4.7480
 4.2090	 4.7620
 4.2120	 4.7990
 4.2160	 4.8770
 4.2190	 4.9080
 4.2230	 4.9200
 4.2260	 4.9930
 4.2300	 5.0240
 4.2330	 4.9660
 4.2360	 4.9190
 4.2400	 4.9920
 4.2430	 5.0130
 4.2470	 4.9490
 4.2500	 4.8840
 4.2540	 4.8090
 4.2570	 4.7300
 4.2610	 4.7580
 4.2640	 4.8200
 4.2680	 4.8790
 4.2710	 4.9470
 4.2750	 4.9510
 4.2780	 4.8770
 4.2820	 4.8480
 4.2850	 4.8900
 4.2890	 4.9180
 4.2930	 4.8500
 4.2960	 4.8130
 4.3000	 4.7990
 4.3030	 4.7730
 4.3070	 4.7690
 4.3100	 4.7120
 4.3140	 4.6600
 4.3180	 4.6470
 4.3210	 4.6320
 4.3250	 4.6480
 4.3280	 4.6900
 4.3320	 4.6630
 4.3360	 4.5690
 4.3390	 4.5340
 4.3430	 4.5570
 4.3470	 4.5220
 4.3500	 4.4960
 4.3540	 4.5000
 4.3580	 4.5000
 4.3610	 4.4730
 4.3650	 4.4850
 4.3690	 4.4920
 4.3720	 4.4730
 4.3760	 4.4610
 4.3800	 4.4590
 4.3830	 4.4620
 4.3870	 4.4590
 4.3910	 4.4510
 4.3940	 4.4420
 4.3980	 4.4500
 4.4020	 4.4560
 4.4060	 4.4170
 4.4090	 4.4410
 4.4130	 4.4610
 4.4170	 4.4240
 4.4210	 4.4240
 4.4240	 4.4110
 4.4280	 4.4060
 4.4320	 4.3870
 4.4360	 4.3650
 4.4400	 4.3670
 4.4430	 4.3920
 4.4470	 4.4140
 4.4510	 4.4110
 4.4550	 4.4280
 4.4590	 4.4100
 4.4630	 4.3830
 4.4660	 4.3910
 4.4700	 4.4300
 4.4740	 4.4000
 4.4780	 4.3750
 4.4820	 4.3620
 4.4860	 4.3430
 4.4900	 4.3430
 4.4930	 4.3670
 4.4970	 4.3820
 4.5010	 4.3810
 4.5050	 4.3590
 4.5090	 4.3130
 4.5130	 4.3020
 4.5170	 4.3650
 4.5210	 4.3800
 4.5250	 4.3400
 4.5290	 4.3300
 4.5330	 4.3340
 4.5370	 4.3120
 4.5410	 4.3200
 4.5450	 4.3130
 4.5490	 4.3160
 4.5530	 4.3340
 4.5570	 4.3250
 4.5610	 4.2900
 4.5650	 4.2480
 4.5690	 4.2530
 4.5730	 4.2860
 4.5770	 4.3150
 4.5810	 4.3080
 4.5850	 4.2940
 4.5890	 4.3050
 4.5930	 4.3050
 4.5970	 4.2900
 4.6010	 4.2610
 4.6050	 4.2710
 4.6090	 4.2900
 4.6130	 4.3010
 4.6170	 4.2750
 4.6220	 4.2780
 4.6260	 4.2710
 4.6300	 4.2480
 4.6340	 4.2480
 4.6380	 4.2640
 4.6420	 4.2520
 4.6460	 4.2580
 4.6510	 4.2690
 4.6550	 4.2720
 4.6590	 4.2610
 4.6630	 4.2810
 4.6670	 4.2730
 4.6720	 4.2620
 4.6760	 4.2500
 4.6800	 4.2430
 4.6840	 4.2020
 4.6880	 4.1730
 4.6930	 4.1700
 4.6970	 4.1710
 4.7010	 4.1650
 4.7050	 4.1840
 4.7100	 4.2130
 4.7140	 4.2230
 4.7180	 4.2390
 4.7230	 4.2210
 4.7270	 4.2160
 4.7310	 4.2110
 4.7360	 4.1810
 4.7400	 4.1970
 4.7440	 4.1940
 4.7490	 4.1930
 4.7530	 4.2030
 4.7570	 4.2110
 4.7620	 4.1860
 4.7660	 4.1780
 4.7700	 4.1850
 4.7750	 4.1860
 4.7790	 4.1920
 4.7840	 4.1960
 4.7880	 4.1870
 4.7920	 4.1930
 4.7970	 4.1810
 4.8010	 4.1740
 4.8060	 4.1640
 4.8100	 4.1900
 4.8150	 4.1670
 4.8190	 4.1590
 4.8240	 4.1630
 4.8280	 4.1770
 4.8330	 4.1730
 4.8370	 4.2010
 4.8420	 4.1910
 4.8460	 4.1650
 4.8510	 4.1520
 4.8550	 4.1780
 4.8600	 4.1620
 4.8640	 4.1690
 4.8690	 4.1650
 4.8740	 4.1510
 4.8780	 4.1210
 4.8830	 4.1230
 4.8870	 4.1150
 4.8920	 4.1230
 4.8970	 4.1190
 4.9010	 4.1050
 4.9060	 4.1050
 4.9100	 4.1280
 4.9150	 4.0810
 4.9200	 4.0820
 4.9240	 4.1060
 4.9290	 4.1240
 4.9340	 4.1100
 4.9390	 4.1040
 4.9430	 4.1160
 4.9480	 4.1090
 4.9530	 4.1040
 4.9570	 4.1350
 4.9620	 4.1040
 4.9670	 4.0760
 4.9720	 4.0840
 4.9760	 4.1280
 4.9810	 4.1060
 4.9860	 4.1060
 4.9910	 4.0970
 4.9960	 4.0790
 5.0000	 4.0770
 5.0050	 4.1000
 5.0100	 4.0760
 5.0150	 4.0420
 5.0200	 4.0110
 5.0250	 4.0270
 5.0300	 4.0390
 5.0340	 4.0630
 5.0390	 4.0730
 5.0440	 4.0790
 5.0490	 4.0650
 5.0540	 4.0790
 5.0590	 4.0750
 5.0640	 4.0760
 5.0690	 4.0610
 5.0740	 4.0670
 5.0790	 4.0480
 5.0840	 4.0210
 5.0890	 4.0030
 5.0940	 4.0370
 5.0990	 4.0660
 5.1040	 4.0630
 5.1090	 4.0500
 5.1140	 4.0320
 5.1190	 4.0230
 5.1240	 4.0530
 5.1290	 4.0350
 5.1340	 4.0400
 5.1390	 3.9920
 5.1440	 3.9520
 5.1490	 3.9580
 5.1550	 4.0200
 5.1600	 4.0080
 5.1650	 4.0190
 5.1700	 4.0040
 5.1750	 3.9890
 5.1800	 3.9810
 5.1850	 3.9830
 5.1910	 3.9710
 5.1960	 3.9800
 5.2010	 3.9480
 5.2060	 3.9610
 5.2110	 3.9320
 5.2170	 3.9570
 5.2220	 3.9790
 5.2270	 3.9700
 5.2330	 3.9420
 5.2380	 3.9430
 5.2430	 3.9550
 5.2480	 3.9770
 5.2540	 3.9750
 5.2590	 3.9360
 5.2640	 3.8680
 5.2700	 3.8780
 5.2750	 3.8700
 5.2800	 3.8870
 5.2860	 3.8800
 5.2910	 3.8700
 5.2970	 3.8640
 5.3020	 3.8880
 5.3080	 3.8630
 5.3130	 3.8530
 5.3180	 3.8380
 5.3240	 3.8700
 5.3290	 3.8680
 5.3350	 3.8290
 5.3400	 3.7880
 5.3460	 3.7630
 5.3510	 3.7200
 5.3570	 3.7840
 5.3620	 3.8160
 5.3680	 3.8360
 5.3740	 3.8170
 5.3790	 3.8150
 5.3850	 3.8130
 5.3900	 3.8450
 5.3960	 3.8240
 5.4010	 3.8130
 5.4070	 3.7860
 5.4130	 3.7660
 5.4180	 3.6380
 5.4240	 3.5870
 5.4300	 3.6830
 5.4350	 3.7460
 5.4410	 3.7360
 5.4470	 3.7310
 5.4530	 3.7020
 5.4580	 3.6720
 5.4640	 3.6010
 5.4700	 3.6230
 5.4760	 3.6320
