Name: Quercus agrifolia 1
Type: vegetation
Class: Tree
Genus: Quercus
Species: agrifolia
Sample No.: VH076
Owner: UCSB
Wavelength Range: VSWIR
Origin: 34.7153; -120.0601; WGS84
Collection Date: 4/21/2013
Description: Samples were collected as part of the HyspIRI Airborne Campaign. 48 individual plants were sampled in three times in 2013 - spring  summer  and fall. The name of the sample includes a 1  2  or 3 which references a different individual of the species. Samples were taken to JPL and processed within 48 hours of collection. The same leaves were processed in the Nicolet and then measured using the ASD.
Measurement: Bidirectional reflectance
First Column: X
Second Column: Y
X Units: Wavelength (micrometers)
Y Units: Reflectance (percentage)
First X Value: 0.35
Last X Value: 2.5
Number of X Values: 2151
Additional Information: vegetation.tree.quercus.agrifolia.vswir.vh076.ucsb.asd.ancillary.txt

 0.3500	 3.6760
 0.3510	 3.7070
 0.3520	 3.6040
 0.3530	 3.5560
 0.3540	 3.6740
 0.3550	 3.6190
 0.3560	 3.6320
 0.3570	 3.7170
 0.3580	 3.7400
 0.3590	 3.6120
 0.3600	 3.5620
 0.3610	 3.6240
 0.3620	 3.5130
 0.3630	 3.6290
 0.3640	 3.7380
 0.3650	 3.6110
 0.3660	 3.6850
 0.3670	 3.6530
 0.3680	 3.5560
 0.3690	 3.6520
 0.3700	 3.6640
 0.3710	 3.6400
 0.3720	 3.6430
 0.3730	 3.6920
 0.3740	 3.5340
 0.3750	 3.4350
 0.3760	 3.6630
 0.3770	 3.6310
 0.3780	 3.5700
 0.3790	 3.5810
 0.3800	 3.6160
 0.3810	 3.6460
 0.3820	 3.6280
 0.3830	 3.5790
 0.3840	 3.6580
 0.3850	 3.6140
 0.3860	 3.5600
 0.3870	 3.6690
 0.3880	 3.6270
 0.3890	 3.5810
 0.3900	 3.6040
 0.3910	 3.6560
 0.3920	 3.6340
 0.3930	 3.6000
 0.3940	 3.6140
 0.3950	 3.6310
 0.3960	 3.6070
 0.3970	 3.5870
 0.3980	 3.6380
 0.3990	 3.6500
 0.4000	 3.6530
 0.4010	 3.6560
 0.4020	 3.6180
 0.4030	 3.6280
 0.4040	 3.6450
 0.4050	 3.6310
 0.4060	 3.6820
 0.4070	 3.7110
 0.4080	 3.7020
 0.4090	 3.6900
 0.4100	 3.6960
 0.4110	 3.6990
 0.4120	 3.6910
 0.4130	 3.7100
 0.4140	 3.7200
 0.4150	 3.7260
 0.4160	 3.7460
 0.4170	 3.7930
 0.4180	 3.7940
 0.4190	 3.7560
 0.4200	 3.7590
 0.4210	 3.7770
 0.4220	 3.7850
 0.4230	 3.7770
 0.4240	 3.8050
 0.4250	 3.8080
 0.4260	 3.8000
 0.4270	 3.8240
 0.4280	 3.8360
 0.4290	 3.8450
 0.4300	 3.8550
 0.4310	 3.8490
 0.4320	 3.8470
 0.4330	 3.8620
 0.4340	 3.8960
 0.4350	 3.9030
 0.4360	 3.9100
 0.4370	 3.9130
 0.4380	 3.8880
 0.4390	 3.8930
 0.4400	 3.8960
 0.4410	 3.8810
 0.4420	 3.8860
 0.4430	 3.9010
 0.4440	 3.9090
 0.4450	 3.8970
 0.4460	 3.9100
 0.4470	 3.9240
 0.4480	 3.9320
 0.4490	 3.9520
 0.4500	 3.9490
 0.4510	 3.9450
 0.4520	 3.9590
 0.4530	 3.9630
 0.4540	 3.9670
 0.4550	 3.9760
 0.4560	 3.9850
 0.4570	 3.9880
 0.4580	 3.9950
 0.4590	 4.0080
 0.4600	 4.0050
 0.4610	 3.9940
 0.4620	 3.9930
 0.4630	 4.0120
 0.4640	 4.0120
 0.4650	 4.0050
 0.4660	 4.0010
 0.4670	 4.0070
 0.4680	 4.0080
 0.4690	 4.0090
 0.4700	 4.0120
 0.4710	 4.0040
 0.4720	 4.0040
 0.4730	 4.0100
 0.4740	 4.0140
 0.4750	 4.0140
 0.4760	 4.0130
 0.4770	 4.0160
 0.4780	 4.0300
 0.4790	 4.0270
 0.4800	 4.0160
 0.4810	 4.0160
 0.4820	 4.0330
 0.4830	 4.0480
 0.4840	 4.0520
 0.4850	 4.0460
 0.4860	 4.0560
 0.4870	 4.0760
 0.4880	 4.0920
 0.4890	 4.1040
 0.4900	 4.1020
 0.4910	 4.1060
 0.4920	 4.1400
 0.4930	 4.1610
 0.4940	 4.1720
 0.4950	 4.1850
 0.4960	 4.2210
 0.4970	 4.2560
 0.4980	 4.2870
 0.4990	 4.3210
 0.5000	 4.3670
 0.5010	 4.4160
 0.5020	 4.4640
 0.5030	 4.5160
 0.5040	 4.5870
 0.5050	 4.6640
 0.5060	 4.7400
 0.5070	 4.8270
 0.5080	 4.9310
 0.5090	 5.0420
 0.5100	 5.1520
 0.5110	 5.2950
 0.5120	 5.4480
 0.5130	 5.6020
 0.5140	 5.7730
 0.5150	 5.9660
 0.5160	 6.1720
 0.5170	 6.3830
 0.5180	 6.6090
 0.5190	 6.8490
 0.5200	 7.0940
 0.5210	 7.3310
 0.5220	 7.5850
 0.5230	 7.8440
 0.5240	 8.0940
 0.5250	 8.3220
 0.5260	 8.5530
 0.5270	 8.7780
 0.5280	 8.9830
 0.5290	 9.1840
 0.5300	 9.3660
 0.5310	 9.5250
 0.5320	 9.6750
 0.5330	 9.8210
 0.5340	 9.9550
 0.5350	10.0700
 0.5360	10.1730
 0.5370	10.2680
 0.5380	10.3580
 0.5390	10.4400
 0.5400	10.5230
 0.5410	10.6060
 0.5420	10.6880
 0.5430	10.7610
 0.5440	10.8280
 0.5450	10.8900
 0.5460	10.9440
 0.5470	10.9770
 0.5480	11.0040
 0.5490	11.0360
 0.5500	11.0750
 0.5510	11.1020
 0.5520	11.1130
 0.5530	11.1100
 0.5540	11.0940
 0.5550	11.0670
 0.5560	11.0230
 0.5570	10.9570
 0.5580	10.8820
 0.5590	10.7950
 0.5600	10.6960
 0.5610	10.5910
 0.5620	10.4850
 0.5630	10.3710
 0.5640	10.2380
 0.5650	10.0960
 0.5660	 9.9340
 0.5670	 9.7560
 0.5680	 9.5820
 0.5690	 9.4080
 0.5700	 9.2350
 0.5710	 9.0640
 0.5720	 8.8970
 0.5730	 8.7390
 0.5740	 8.6020
 0.5750	 8.5000
 0.5760	 8.4020
 0.5770	 8.3030
 0.5780	 8.2040
 0.5790	 8.1120
 0.5800	 8.0190
 0.5810	 7.9300
 0.5820	 7.8490
 0.5830	 7.7620
 0.5840	 7.6750
 0.5850	 7.5860
 0.5860	 7.4920
 0.5870	 7.4120
 0.5880	 7.3440
 0.5890	 7.2870
 0.5900	 7.2540
 0.5910	 7.2370
 0.5920	 7.2240
 0.5930	 7.1990
 0.5940	 7.1590
 0.5950	 7.1190
 0.5960	 7.0860
 0.5970	 7.0460
 0.5980	 7.0070
 0.5990	 6.9720
 0.6000	 6.9370
 0.6010	 6.8940
 0.6020	 6.8490
 0.6030	 6.8050
 0.6040	 6.7630
 0.6050	 6.7170
 0.6060	 6.6630
 0.6070	 6.6020
 0.6080	 6.5420
 0.6090	 6.4820
 0.6100	 6.4250
 0.6110	 6.3770
 0.6120	 6.3110
 0.6130	 6.2310
 0.6140	 6.1490
 0.6150	 6.0810
 0.6160	 6.0150
 0.6170	 5.9530
 0.6180	 5.8980
 0.6190	 5.8530
 0.6200	 5.8120
 0.6210	 5.7740
 0.6220	 5.7400
 0.6230	 5.7100
 0.6240	 5.6860
 0.6250	 5.6680
 0.6260	 5.6500
 0.6270	 5.6360
 0.6280	 5.6250
 0.6290	 5.6150
 0.6300	 5.6140
 0.6310	 5.6100
 0.6320	 5.6000
 0.6330	 5.5830
 0.6340	 5.5590
 0.6350	 5.5300
 0.6360	 5.4990
 0.6370	 5.4550
 0.6380	 5.3980
 0.6390	 5.3320
 0.6400	 5.2670
 0.6410	 5.1980
 0.6420	 5.1270
 0.6430	 5.0580
 0.6440	 4.9880
 0.6450	 4.9220
 0.6460	 4.8570
 0.6470	 4.7920
 0.6480	 4.7430
 0.6490	 4.6980
 0.6500	 4.6550
 0.6510	 4.6230
 0.6520	 4.5960
 0.6530	 4.5720
 0.6540	 4.5480
 0.6550	 4.5140
 0.6560	 4.4850
 0.6570	 4.4580
 0.6580	 4.4220
 0.6590	 4.3850
 0.6600	 4.3450
 0.6610	 4.3050
 0.6620	 4.2700
 0.6630	 4.2340
 0.6640	 4.2010
 0.6650	 4.1730
 0.6660	 4.1470
 0.6670	 4.1240
 0.6680	 4.1080
 0.6690	 4.0980
 0.6700	 4.0890
 0.6710	 4.0850
 0.6720	 4.0870
 0.6730	 4.0880
 0.6740	 4.0960
 0.6750	 4.1080
 0.6760	 4.1190
 0.6770	 4.1290
 0.6780	 4.1480
 0.6790	 4.1740
 0.6800	 4.1970
 0.6810	 4.2300
 0.6820	 4.2650
 0.6830	 4.3040
 0.6840	 4.3580
 0.6850	 4.4270
 0.6860	 4.5110
 0.6870	 4.6150
 0.6880	 4.7440
 0.6890	 4.9080
 0.6900	 5.1190
 0.6910	 5.3860
 0.6920	 5.7150
 0.6930	 6.1170
 0.6940	 6.5970
 0.6950	 7.1500
 0.6960	 7.7840
 0.6970	 8.4990
 0.6980	 9.2870
 0.6990	10.1340
 0.7000	11.0350
 0.7010	11.9820
 0.7020	12.9620
 0.7030	13.9590
 0.7040	14.9670
 0.7050	15.9790
 0.7060	16.9870
 0.7070	17.9890
 0.7080	18.9830
 0.7090	19.9690
 0.7100	20.9410
 0.7110	21.9020
 0.7120	22.8480
 0.7130	23.7740
 0.7140	24.6930
 0.7150	25.5990
 0.7160	26.4880
 0.7170	27.3640
 0.7180	28.2190
 0.7190	29.0530
 0.7200	29.8710
 0.7210	30.6680
 0.7220	31.4490
 0.7230	32.2090
 0.7240	32.9380
 0.7250	33.6370
 0.7260	34.3150
 0.7270	34.9710
 0.7280	35.5870
 0.7290	36.1810
 0.7300	36.7490
 0.7310	37.2810
 0.7320	37.7880
 0.7330	38.2710
 0.7340	38.7280
 0.7350	39.1550
 0.7360	39.5650
 0.7370	39.9510
 0.7380	40.3070
 0.7390	40.6420
 0.7400	40.9590
 0.7410	41.2630
 0.7420	41.5540
 0.7430	41.8030
 0.7440	42.0310
 0.7450	42.2520
 0.7460	42.4670
 0.7470	42.6550
 0.7480	42.8240
 0.7490	42.9820
 0.7500	43.1300
 0.7510	43.2650
 0.7520	43.3890
 0.7530	43.5000
 0.7540	43.6010
 0.7550	43.6940
 0.7560	43.7770
 0.7570	43.8530
 0.7580	43.9240
 0.7590	43.9900
 0.7600	44.0500
 0.7610	44.1020
 0.7620	44.1510
 0.7630	44.1950
 0.7640	44.2290
 0.7650	44.2700
 0.7660	44.2990
 0.7670	44.3210
 0.7680	44.3550
 0.7690	44.3780
 0.7700	44.3960
 0.7710	44.4150
 0.7720	44.4320
 0.7730	44.4490
 0.7740	44.4670
 0.7750	44.4840
 0.7760	44.4890
 0.7770	44.5100
 0.7780	44.5360
 0.7790	44.5410
 0.7800	44.5500
 0.7810	44.5650
 0.7820	44.5800
 0.7830	44.5840
 0.7840	44.5930
 0.7850	44.6040
 0.7860	44.6150
 0.7870	44.6320
 0.7880	44.6400
 0.7890	44.6480
 0.7900	44.6660
 0.7910	44.6730
 0.7920	44.6820
 0.7930	44.6960
 0.7940	44.7090
 0.7950	44.7170
 0.7960	44.7170
 0.7970	44.7180
 0.7980	44.7410
 0.7990	44.7490
 0.8000	44.7510
 0.8010	44.7590
 0.8020	44.7660
 0.8030	44.7710
 0.8040	44.7740
 0.8050	44.7730
 0.8060	44.7900
 0.8070	44.8000
 0.8080	44.8020
 0.8090	44.8150
 0.8100	44.8150
 0.8110	44.8170
 0.8120	44.8300
 0.8130	44.8460
 0.8140	44.8460
 0.8150	44.8400
 0.8160	44.8400
 0.8170	44.8490
 0.8180	44.8520
 0.8190	44.8520
 0.8200	44.8570
 0.8210	44.8630
 0.8220	44.8670
 0.8230	44.8700
 0.8240	44.8770
 0.8250	44.8760
 0.8260	44.8710
 0.8270	44.8660
 0.8280	44.8690
 0.8290	44.8740
 0.8300	44.8770
 0.8310	44.8730
 0.8320	44.8620
 0.8330	44.8550
 0.8340	44.8550
 0.8350	44.8580
 0.8360	44.8490
 0.8370	44.8450
 0.8380	44.8480
 0.8390	44.8530
 0.8400	44.8570
 0.8410	44.8660
 0.8420	44.8750
 0.8430	44.8700
 0.8440	44.8600
 0.8450	44.8580
 0.8460	44.8700
 0.8470	44.8740
 0.8480	44.8740
 0.8490	44.8730
 0.8500	44.8770
 0.8510	44.8830
 0.8520	44.8800
 0.8530	44.8720
 0.8540	44.8680
 0.8550	44.8650
 0.8560	44.8680
 0.8570	44.8770
 0.8580	44.8790
 0.8590	44.8820
 0.8600	44.8780
 0.8610	44.8710
 0.8620	44.8750
 0.8630	44.8780
 0.8640	44.8700
 0.8650	44.8550
 0.8660	44.8670
 0.8670	44.8730
 0.8680	44.8710
 0.8690	44.8660
 0.8700	44.8590
 0.8710	44.8570
 0.8720	44.8580
 0.8730	44.8570
 0.8740	44.8580
 0.8750	44.8490
 0.8760	44.8350
 0.8770	44.8370
 0.8780	44.8430
 0.8790	44.8440
 0.8800	44.8400
 0.8810	44.8400
 0.8820	44.8390
 0.8830	44.8320
 0.8840	44.8210
 0.8850	44.8180
 0.8860	44.8180
 0.8870	44.8130
 0.8880	44.8030
 0.8890	44.8050
 0.8900	44.7940
 0.8910	44.7800
 0.8920	44.7850
 0.8930	44.7910
 0.8940	44.7900
 0.8950	44.7850
 0.8960	44.7800
 0.8970	44.7740
 0.8980	44.7620
 0.8990	44.7480
 0.9000	44.7490
 0.9010	44.7540
 0.9020	44.7530
 0.9030	44.7470
 0.9040	44.7470
 0.9050	44.7430
 0.9060	44.7400
 0.9070	44.7390
 0.9080	44.7240
 0.9090	44.7130
 0.9100	44.7090
 0.9110	44.7070
 0.9120	44.6890
 0.9130	44.6890
 0.9140	44.6960
 0.9150	44.6890
 0.9160	44.6800
 0.9170	44.6750
 0.9180	44.6630
 0.9190	44.6380
 0.9200	44.6340
 0.9210	44.6320
 0.9220	44.6190
 0.9230	44.5940
 0.9240	44.5750
 0.9250	44.5670
 0.9260	44.5570
 0.9270	44.5250
 0.9280	44.5170
 0.9290	44.5000
 0.9300	44.4680
 0.9310	44.4440
 0.9320	44.4390
 0.9330	44.4210
 0.9340	44.3850
 0.9350	44.3540
 0.9360	44.3310
 0.9370	44.3020
 0.9380	44.2620
 0.9390	44.2230
 0.9400	44.2000
 0.9410	44.1750
 0.9420	44.1370
 0.9430	44.1050
 0.9440	44.0660
 0.9450	44.0290
 0.9460	43.9980
 0.9470	43.9560
 0.9480	43.8890
 0.9490	43.8110
 0.9500	43.7430
 0.9510	43.6910
 0.9520	43.6360
 0.9530	43.5730
 0.9540	43.5030
 0.9550	43.4260
 0.9560	43.3510
 0.9570	43.2870
 0.9580	43.2320
 0.9590	43.1770
 0.9600	43.1240
 0.9610	43.0740
 0.9620	43.0310
 0.9630	42.9980
 0.9640	42.9790
 0.9650	42.9620
 0.9660	42.9370
 0.9670	42.9120
 0.9680	42.8930
 0.9690	42.8900
 0.9700	42.9010
 0.9710	42.8930
 0.9720	42.8900
 0.9730	42.8910
 0.9740	42.8820
 0.9750	42.8600
 0.9760	42.8670
 0.9770	42.8850
 0.9780	42.8800
 0.9790	42.8820
 0.9800	42.8870
 0.9810	42.8970
 0.9820	42.9140
 0.9830	42.9220
 0.9840	42.9320
 0.9850	42.9480
 0.9860	42.9730
 0.9870	43.0090
 0.9880	43.0180
 0.9890	43.0250
 0.9900	43.0650
 0.9910	43.0820
 0.9920	43.0900
 0.9930	43.0970
 0.9940	43.1040
 0.9950	43.1110
 0.9960	43.1180
 0.9970	43.1250
 0.9980	43.1320
 0.9990	43.1390
 1.0000	43.1460
 1.0010	43.1530
 1.0020	43.1610
 1.0030	43.1680
 1.0040	43.1750
 1.0050	43.1820
 1.0060	43.1890
 1.0070	43.1960
 1.0080	43.2030
 1.0090	43.2100
 1.0100	43.2100
 1.0110	43.2430
 1.0120	43.2700
 1.0130	43.2900
 1.0140	43.3150
 1.0150	43.3440
 1.0160	43.3700
 1.0170	43.3950
 1.0180	43.4220
 1.0190	43.4430
 1.0200	43.4650
 1.0210	43.4900
 1.0220	43.5160
 1.0230	43.5380
 1.0240	43.5560
 1.0250	43.5760
 1.0260	43.5950
 1.0270	43.6140
 1.0280	43.6360
 1.0290	43.6570
 1.0300	43.6790
 1.0310	43.6990
 1.0320	43.7190
 1.0330	43.7370
 1.0340	43.7520
 1.0350	43.7690
 1.0360	43.7840
 1.0370	43.7970
 1.0380	43.8130
 1.0390	43.8310
 1.0400	43.8480
 1.0410	43.8680
 1.0420	43.8840
 1.0430	43.8980
 1.0440	43.9110
 1.0450	43.9250
 1.0460	43.9360
 1.0470	43.9460
 1.0480	43.9540
 1.0490	43.9570
 1.0500	43.9650
 1.0510	43.9770
 1.0520	43.9860
 1.0530	43.9950
 1.0540	44.0070
 1.0550	44.0150
 1.0560	44.0210
 1.0570	44.0280
 1.0580	44.0350
 1.0590	44.0420
 1.0600	44.0490
 1.0610	44.0550
 1.0620	44.0620
 1.0630	44.0680
 1.0640	44.0700
 1.0650	44.0740
 1.0660	44.0790
 1.0670	44.0830
 1.0680	44.0870
 1.0690	44.0930
 1.0700	44.0950
 1.0710	44.0950
 1.0720	44.0960
 1.0730	44.0960
 1.0740	44.0970
 1.0750	44.1000
 1.0760	44.0980
 1.0770	44.0950
 1.0780	44.0900
 1.0790	44.0800
 1.0800	44.0730
 1.0810	44.0650
 1.0820	44.0600
 1.0830	44.0610
 1.0840	44.0560
 1.0850	44.0510
 1.0860	44.0430
 1.0870	44.0340
 1.0880	44.0200
 1.0890	44.0100
 1.0900	44.0030
 1.0910	43.9940
 1.0920	43.9840
 1.0930	43.9730
 1.0940	43.9600
 1.0950	43.9490
 1.0960	43.9380
 1.0970	43.9270
 1.0980	43.9160
 1.0990	43.9050
 1.1000	43.8940
 1.1010	43.8810
 1.1020	43.8620
 1.1030	43.8480
 1.1040	43.8340
 1.1050	43.8160
 1.1060	43.8000
 1.1070	43.7860
 1.1080	43.7700
 1.1090	43.7520
 1.1100	43.7330
 1.1110	43.7160
 1.1120	43.6950
 1.1130	43.6700
 1.1140	43.6470
 1.1150	43.6250
 1.1160	43.5990
 1.1170	43.5730
 1.1180	43.5440
 1.1190	43.5110
 1.1200	43.4780
 1.1210	43.4450
 1.1220	43.4080
 1.1230	43.3680
 1.1240	43.3240
 1.1250	43.2710
 1.1260	43.2100
 1.1270	43.1470
 1.1280	43.0780
 1.1290	43.0010
 1.1300	42.9220
 1.1310	42.8320
 1.1320	42.7310
 1.1330	42.6230
 1.1340	42.5060
 1.1350	42.3830
 1.1360	42.2510
 1.1370	42.1160
 1.1380	41.9730
 1.1390	41.8250
 1.1400	41.6690
 1.1410	41.5090
 1.1420	41.3490
 1.1430	41.1880
 1.1440	41.0290
 1.1450	40.8690
 1.1460	40.7130
 1.1470	40.5540
 1.1480	40.4080
 1.1490	40.2670
 1.1500	40.1350
 1.1510	40.0080
 1.1520	39.8930
 1.1530	39.7850
 1.1540	39.6880
 1.1550	39.6020
 1.1560	39.5250
 1.1570	39.4550
 1.1580	39.3960
 1.1590	39.3450
 1.1600	39.2990
 1.1610	39.2590
 1.1620	39.2250
 1.1630	39.1960
 1.1640	39.1720
 1.1650	39.1520
 1.1660	39.1390
 1.1670	39.1260
 1.1680	39.1160
 1.1690	39.1050
 1.1700	39.0950
 1.1710	39.0860
 1.1720	39.0770
 1.1730	39.0700
 1.1740	39.0630
 1.1750	39.0570
 1.1760	39.0520
 1.1770	39.0480
 1.1780	39.0420
 1.1790	39.0330
 1.1800	39.0240
 1.1810	39.0120
 1.1820	38.9990
 1.1830	38.9880
 1.1840	38.9750
 1.1850	38.9630
 1.1860	38.9540
 1.1870	38.9430
 1.1880	38.9330
 1.1890	38.9230
 1.1900	38.9160
 1.1910	38.9110
 1.1920	38.9070
 1.1930	38.9040
 1.1940	38.9020
 1.1950	38.9000
 1.1960	38.8980
 1.1970	38.8980
 1.1980	38.9000
 1.1990	38.9030
 1.2000	38.9090
 1.2010	38.9170
 1.2020	38.9240
 1.2030	38.9360
 1.2040	38.9480
 1.2050	38.9580
 1.2060	38.9700
 1.2070	38.9840
 1.2080	38.9980
 1.2090	39.0160
 1.2100	39.0350
 1.2110	39.0550
 1.2120	39.0780
 1.2130	39.1000
 1.2140	39.1230
 1.2150	39.1480
 1.2160	39.1730
 1.2170	39.1980
 1.2180	39.2240
 1.2190	39.2540
 1.2200	39.2820
 1.2210	39.3110
 1.2220	39.3440
 1.2230	39.3740
 1.2240	39.4050
 1.2250	39.4340
 1.2260	39.4640
 1.2270	39.4950
 1.2280	39.5260
 1.2290	39.5550
 1.2300	39.5800
 1.2310	39.6050
 1.2320	39.6290
 1.2330	39.6540
 1.2340	39.6770
 1.2350	39.7010
 1.2360	39.7230
 1.2370	39.7420
 1.2380	39.7630
 1.2390	39.7850
 1.2400	39.8060
 1.2410	39.8280
 1.2420	39.8490
 1.2430	39.8680
 1.2440	39.8880
 1.2450	39.9080
 1.2460	39.9250
 1.2470	39.9400
 1.2480	39.9530
 1.2490	39.9660
 1.2500	39.9780
 1.2510	39.9910
 1.2520	40.0050
 1.2530	40.0180
 1.2540	40.0280
 1.2550	40.0380
 1.2560	40.0480
 1.2570	40.0590
 1.2580	40.0670
 1.2590	40.0760
 1.2600	40.0850
 1.2610	40.0900
 1.2620	40.0910
 1.2630	40.0950
 1.2640	40.0960
 1.2650	40.0950
 1.2660	40.0930
 1.2670	40.0880
 1.2680	40.0810
 1.2690	40.0720
 1.2700	40.0640
 1.2710	40.0540
 1.2720	40.0440
 1.2730	40.0310
 1.2740	40.0150
 1.2750	40.0000
 1.2760	39.9830
 1.2770	39.9650
 1.2780	39.9460
 1.2790	39.9260
 1.2800	39.9050
 1.2810	39.8830
 1.2820	39.8600
 1.2830	39.8360
 1.2840	39.8090
 1.2850	39.7800
 1.2860	39.7500
 1.2870	39.7200
 1.2880	39.6870
 1.2890	39.6540
 1.2900	39.6190
 1.2910	39.5820
 1.2920	39.5440
 1.2930	39.5040
 1.2940	39.4630
 1.2950	39.4210
 1.2960	39.3770
 1.2970	39.3300
 1.2980	39.2800
 1.2990	39.2270
 1.3000	39.1720
 1.3010	39.1100
 1.3020	39.0470
 1.3030	38.9820
 1.3040	38.9120
 1.3050	38.8430
 1.3060	38.7720
 1.3070	38.6970
 1.3080	38.6190
 1.3090	38.5390
 1.3100	38.4550
 1.3110	38.3680
 1.3120	38.2750
 1.3130	38.1790
 1.3140	38.0780
 1.3150	37.9700
 1.3160	37.8620
 1.3170	37.7530
 1.3180	37.6380
 1.3190	37.5200
 1.3200	37.3970
 1.3210	37.2680
 1.3220	37.1370
 1.3230	37.0040
 1.3240	36.8690
 1.3250	36.7300
 1.3260	36.5900
 1.3270	36.4470
 1.3280	36.3000
 1.3290	36.1520
 1.3300	36.0000
 1.3310	35.8460
 1.3320	35.6910
 1.3330	35.5350
 1.3340	35.3780
 1.3350	35.2220
 1.3360	35.0630
 1.3370	34.9040
 1.3380	34.7440
 1.3390	34.5840
 1.3400	34.4270
 1.3410	34.2710
 1.3420	34.1170
 1.3430	33.9650
 1.3440	33.8150
 1.3450	33.6660
 1.3460	33.5180
 1.3470	33.3720
 1.3480	33.2270
 1.3490	33.0850
 1.3500	32.9440
 1.3510	32.8050
 1.3520	32.6670
 1.3530	32.5300
 1.3540	32.3930
 1.3550	32.2550
 1.3560	32.1170
 1.3570	31.9770
 1.3580	31.8350
 1.3590	31.6900
 1.3600	31.5390
 1.3610	31.3840
 1.3620	31.2230
 1.3630	31.0560
 1.3640	30.8820
 1.3650	30.6990
 1.3660	30.5080
 1.3670	30.3060
 1.3680	30.0910
 1.3690	29.8660
 1.3700	29.6260
 1.3710	29.3710
 1.3720	29.1010
 1.3730	28.8110
 1.3740	28.5060
 1.3750	28.1810
 1.3760	27.8330
 1.3770	27.4650
 1.3780	27.0700
 1.3790	26.6540
 1.3800	26.2170
 1.3810	25.7530
 1.3820	25.2730
 1.3830	24.7730
 1.3840	24.2580
 1.3850	23.7250
 1.3860	23.1830
 1.3870	22.6210
 1.3880	22.0600
 1.3890	21.4910
 1.3900	20.9150
 1.3910	20.3460
 1.3920	19.7760
 1.3930	19.2080
 1.3940	18.6510
 1.3950	18.0970
 1.3960	17.5570
 1.3970	17.0340
 1.3980	16.5250
 1.3990	16.0410
 1.4000	15.5750
 1.4010	15.1270
 1.4020	14.7050
 1.4030	14.3000
 1.4040	13.9180
 1.4050	13.5620
 1.4060	13.2250
 1.4070	12.9140
 1.4080	12.6250
 1.4090	12.3540
 1.4100	12.1050
 1.4110	11.8740
 1.4120	11.6610
 1.4130	11.4640
 1.4140	11.2840
 1.4150	11.1210
 1.4160	10.9720
 1.4170	10.8360
 1.4180	10.7130
 1.4190	10.6000
 1.4200	10.4970
 1.4210	10.4030
 1.4220	10.3180
 1.4230	10.2440
 1.4240	10.1760
 1.4250	10.1140
 1.4260	10.0600
 1.4270	10.0110
 1.4280	 9.9680
 1.4290	 9.9290
 1.4300	 9.8970
 1.4310	 9.8680
 1.4320	 9.8450
 1.4330	 9.8250
 1.4340	 9.8080
 1.4350	 9.7950
 1.4360	 9.7860
 1.4370	 9.7780
 1.4380	 9.7730
 1.4390	 9.7710
 1.4400	 9.7710
 1.4410	 9.7740
 1.4420	 9.7800
 1.4430	 9.7870
 1.4440	 9.7950
 1.4450	 9.8050
 1.4460	 9.8150
 1.4470	 9.8270
 1.4480	 9.8400
 1.4490	 9.8540
 1.4500	 9.8700
 1.4510	 9.8860
 1.4520	 9.9040
 1.4530	 9.9220
 1.4540	 9.9420
 1.4550	 9.9650
 1.4560	 9.9880
 1.4570	10.0150
 1.4580	10.0440
 1.4590	10.0750
 1.4600	10.1090
 1.4610	10.1470
 1.4620	10.1900
 1.4630	10.2360
 1.4640	10.2870
 1.4650	10.3410
 1.4660	10.3980
 1.4670	10.4590
 1.4680	10.5250
 1.4690	10.5950
 1.4700	10.6680
