Name: Acer rubrum
Type: Vegetation
Class: Tree
Genus: Acer
Species: rubrum
Sample No.: ACRU-2-17
Owner: UCSB
Wavelength Range: TIR
Origin: USA; Massachusetts; Harvard Forest
Collection Date: 7/8/2013
Description: Samples were collected as part of NSF Macrosystem Biology proposal titled: Collaborative Research: Thermal controls on ecosystem metabolism and function: scaling from leaves to canopies to regions. Samples were collected and overnighted to JPL facilities for processing. The same leaves were processed in the Nicolet and then measured using the ASD.
Measurement: Hemispherical reflectance
First Column: X
Second Column: Y
X Units: Wavelength (micrometers)
Y Units: Reflectance (percentage)
First X Value: 2.501
Last X Value: 15.387
Number of X Values: 1737
Additional Information: vegetation.tree.acer.rubrum.tir.acru-2-17.ucsb.nicolet.ancillary.txt

 2.5010	 7.9190
 2.5030	 7.9730
 2.5040	 8.0180
 2.5050	 7.8790
 2.5060	 7.9210
 2.5070	 7.8750
 2.5090	 7.7070
 2.5100	 7.7030
 2.5110	 7.9370
 2.5120	 7.6060
 2.5140	 7.6890
 2.5150	 7.7900
 2.5160	 7.9400
 2.5170	 7.8570
 2.5180	 7.6320
 2.5200	 7.5590
 2.5210	 7.5550
 2.5220	 7.6230
 2.5230	 7.7230
 2.5250	 7.5630
 2.5260	 7.5770
 2.5270	 7.5310
 2.5280	 7.4210
 2.5290	 7.3560
 2.5310	 7.6090
 2.5320	 7.6970
 2.5330	 7.7760
 2.5340	 7.6740
 2.5360	 7.7030
 2.5370	 7.6890
 2.5380	 7.5900
 2.5390	 7.5780
 2.5410	 7.8130
 2.5420	 8.0360
 2.5430	 7.9170
 2.5440	 7.7270
 2.5460	 7.9270
 2.5470	 7.8430
 2.5480	 7.7060
 2.5490	 7.6230
 2.5510	 7.7630
 2.5520	 7.7900
 2.5530	 7.8980
 2.5540	 7.8520
 2.5560	 7.6400
 2.5570	 7.5000
 2.5580	 7.6670
 2.5590	 7.6340
 2.5610	 7.7060
 2.5620	 7.6410
 2.5630	 7.6790
 2.5640	 7.6860
 2.5660	 7.6960
 2.5670	 7.6280
 2.5680	 7.6610
 2.5700	 7.6530
 2.5710	 7.6510
 2.5720	 7.6220
 2.5730	 7.6300
 2.5750	 7.4160
 2.5760	 7.4800
 2.5770	 7.7720
 2.5790	 7.8370
 2.5800	 7.6600
 2.5810	 7.7570
 2.5820	 7.8110
 2.5840	 7.9050
 2.5850	 7.6500
 2.5860	 7.7760
 2.5880	 7.4840
 2.5890	 7.1990
 2.5900	 7.1120
 2.5910	 7.1050
 2.5930	 7.1430
 2.5940	 7.1310
 2.5950	 7.3230
 2.5970	 7.5410
 2.5980	 7.4270
 2.5990	 7.4470
 2.6000	 7.1610
 2.6020	 7.0100
 2.6030	 6.9490
 2.6040	 7.0090
 2.6060	 7.0290
 2.6070	 7.1930
 2.6080	 7.2230
 2.6100	 7.1890
 2.6110	 7.3060
 2.6120	 7.4130
 2.6140	 7.3010
 2.6150	 7.1020
 2.6160	 6.7870
 2.6180	 6.9850
 2.6190	 7.0950
 2.6200	 7.1380
 2.6220	 6.9170
 2.6230	 6.7290
 2.6240	 6.6640
 2.6260	 6.7550
 2.6270	 6.7050
 2.6280	 6.6940
 2.6300	 6.7770
 2.6310	 6.7510
 2.6320	 6.5760
 2.6340	 6.5910
 2.6350	 6.5490
 2.6360	 6.5780
 2.6380	 6.4120
 2.6390	 6.3500
 2.6400	 6.2230
 2.6420	 6.2780
 2.6430	 6.2930
 2.6440	 6.2490
 2.6460	 6.3110
 2.6470	 6.3600
 2.6480	 6.1150
 2.6500	 6.0840
 2.6510	 6.0270
 2.6520	 5.9480
 2.6540	 5.9580
 2.6550	 6.1060
 2.6560	 6.0190
 2.6580	 5.9080
 2.6590	 6.0530
 2.6610	 6.0540
 2.6620	 5.8310
 2.6630	 6.0320
 2.6650	 5.9560
 2.6660	 5.8860
 2.6670	 5.8020
 2.6690	 5.7780
 2.6700	 5.7850
 2.6720	 5.8570
 2.6730	 5.7600
 2.6740	 5.7570
 2.6760	 5.5960
 2.6770	 5.4640
 2.6780	 5.5120
 2.6800	 5.5690
 2.6810	 5.4630
 2.6830	 5.4750
 2.6840	 5.4850
 2.6850	 5.7540
 2.6870	 5.8440
 2.6880	 5.9050
 2.6900	 5.8200
 2.6910	 5.6840
 2.6920	 5.3750
 2.6940	 5.1390
 2.6950	 5.2210
 2.6970	 5.2900
 2.6980	 5.1990
 2.6990	 5.1500
 2.7010	 5.0470
 2.7020	 5.1790
 2.7040	 5.3540
 2.7050	 5.4390
 2.7060	 5.3240
 2.7080	 5.4860
 2.7090	 5.4050
 2.7110	 5.3710
 2.7120	 5.3680
 2.7130	 5.2300
 2.7150	 5.1080
 2.7160	 5.3930
 2.7180	 5.5010
 2.7190	 5.6310
 2.7210	 5.5350
 2.7220	 5.3280
 2.7230	 5.0810
 2.7250	 5.1190
 2.7260	 5.1680
 2.7280	 5.4100
 2.7290	 5.6170
 2.7310	 5.4840
 2.7320	 5.2520
 2.7330	 5.3950
 2.7350	 5.4100
 2.7360	 5.3530
 2.7380	 5.3640
 2.7390	 5.3470
 2.7410	 5.1940
 2.7420	 5.4700
 2.7440	 5.8080
 2.7450	 5.8940
 2.7470	 5.2630
 2.7480	 5.0120
 2.7490	 5.6150
 2.7510	 5.9390
 2.7520	 5.6750
 2.7540	 5.8330
 2.7550	 5.8300
 2.7570	 5.1760
 2.7580	 5.0270
 2.7600	 5.2400
 2.7610	 4.9470
 2.7630	 4.8030
 2.7640	 4.8850
 2.7660	 5.0750
 2.7670	 5.0050
 2.7680	 5.3890
 2.7700	 5.6090
 2.7710	 5.5810
 2.7730	 5.6040
 2.7740	 5.7920
 2.7760	 5.7480
 2.7770	 5.6310
 2.7790	 5.3310
 2.7800	 5.0690
 2.7820	 4.9760
 2.7830	 5.1210
 2.7850	 5.3380
 2.7860	 5.4040
 2.7880	 5.2380
 2.7890	 5.4830
 2.7910	 5.3290
 2.7920	 5.2740
 2.7940	 5.5860
 2.7950	 5.7470
 2.7970	 5.5880
 2.7980	 5.6040
 2.8000	 5.6050
 2.8010	 5.6970
 2.8030	 5.6060
 2.8040	 5.5960
 2.8060	 5.4330
 2.8070	 5.5130
 2.8090	 5.6330
 2.8110	 5.6770
 2.8120	 5.5370
 2.8140	 5.5180
 2.8150	 5.4200
 2.8170	 5.4820
 2.8180	 5.7590
 2.8200	 5.8840
 2.8210	 5.6880
 2.8230	 5.7010
 2.8240	 5.8480
 2.8260	 6.1220
 2.8270	 6.3340
 2.8290	 6.0620
 2.8300	 5.6730
 2.8320	 5.5010
 2.8340	 5.4790
 2.8350	 5.7670
 2.8370	 5.8090
 2.8380	 5.5680
 2.8400	 5.4170
 2.8410	 5.6460
 2.8430	 5.5200
 2.8440	 5.4660
 2.8460	 5.5510
 2.8480	 5.5900
 2.8490	 5.4240
 2.8510	 5.5350
 2.8520	 5.6800
 2.8540	 5.7280
 2.8550	 5.6540
 2.8570	 5.7020
 2.8590	 5.4850
 2.8600	 5.4070
 2.8620	 5.6210
 2.8630	 5.8670
 2.8650	 5.9310
 2.8660	 6.0000
 2.8680	 5.8850
 2.8700	 5.8310
 2.8710	 5.8420
 2.8730	 5.9230
 2.8740	 5.9870
 2.8760	 6.2720
 2.8780	 6.2030
 2.8790	 6.2110
 2.8810	 5.7670
 2.8820	 5.9650
 2.8840	 6.0980
 2.8860	 6.0120
 2.8870	 6.2080
 2.8890	 5.8710
 2.8900	 5.4250
 2.8920	 5.8580
 2.8940	 5.5350
 2.8950	 5.2580
 2.8970	 5.5240
 2.8980	 5.7630
 2.9000	 5.9560
 2.9020	 6.0610
 2.9030	 6.1000
 2.9050	 5.8630
 2.9070	 5.5720
 2.9080	 5.7500
 2.9100	 6.0520
 2.9120	 6.0320
 2.9130	 5.8120
 2.9150	 5.9370
 2.9160	 5.9840
 2.9180	 5.9950
 2.9200	 5.8590
 2.9210	 5.9600
 2.9230	 5.9010
 2.9250	 5.8320
 2.9260	 5.7630
 2.9280	 5.8550
 2.9300	 6.0490
 2.9310	 6.0890
 2.9330	 5.7530
 2.9350	 5.9190
 2.9360	 5.9810
 2.9380	 6.1640
 2.9400	 6.0470
 2.9410	 6.1390
 2.9430	 5.9570
 2.9450	 5.8250
 2.9460	 6.1800
 2.9480	 6.2190
 2.9500	 5.7460
 2.9510	 5.9420
 2.9530	 5.8770
 2.9550	 6.0750
 2.9560	 6.4920
 2.9580	 7.0940
 2.9600	 6.5180
 2.9610	 4.6420
 2.9630	 3.9370
 2.9650	 4.4140
 2.9660	 5.3560
 2.9680	 5.7170
 2.9700	 5.6160
 2.9720	 5.9110
 2.9730	 4.9420
 2.9750	 2.8580
 2.9770	 2.5200
 2.9780	 5.2080
 2.9800	 5.9480
 2.9820	 6.5140
 2.9840	 7.0060
 2.9850	 7.1080
 2.9870	 7.4690
 2.9890	 5.8350
 2.9900	 3.9740
 2.9920	 4.1240
 2.9940	 4.7760
 2.9960	 7.0790
 2.9970	 7.0930
 2.9990	 4.8540
 3.0010	 4.7000
 3.0030	 5.7390
 3.0040	 6.4180
 3.0060	 6.7170
 3.0080	 5.7170
 3.0100	 4.9710
 3.0110	 5.7930
 3.0130	 6.7340
 3.0150	 7.0260
 3.0170	 6.5530
 3.0180	 5.2340
 3.0200	 5.7200
 3.0220	 5.7330
 3.0240	 4.9490
 3.0250	 5.2880
 3.0270	 5.6610
 3.0290	 5.6660
 3.0310	 6.7580
 3.0320	 7.5790
 3.0340	 7.4430
 3.0360	 6.9720
 3.0380	 5.9290
 3.0400	 6.5540
 3.0410	 7.6490
 3.0430	 6.5160
 3.0450	 5.3920
 3.0470	 4.9810
 3.0480	 5.1770
 3.0500	 4.7280
 3.0520	 6.2180
 3.0540	 8.1090
 3.0560	 7.9390
 3.0570	 7.5030
 3.0590	 7.1390
 3.0610	 5.5200
 3.0630	 4.4080
 3.0650	 3.8160
 3.0660	 4.1180
 3.0680	 4.2720
 3.0700	 4.6550
 3.0720	 5.1080
 3.0740	 5.3430
 3.0760	 6.0270
 3.0770	 6.0560
 3.0790	 6.1540
 3.0810	 6.0940
 3.0830	 6.0390
 3.0850	 5.9540
 3.0870	 6.0170
 3.0880	 6.5030
 3.0900	 6.4250
 3.0920	 5.9730
 3.0940	 6.0650
 3.0960	 6.3440
 3.0980	 5.9900
 3.0990	 5.8690
 3.1010	 6.1690
 3.1030	 6.1200
 3.1050	 5.7290
 3.1070	 5.7170
 3.1090	 5.8360
 3.1110	 5.3160
 3.1120	 5.6390
 3.1140	 6.2430
 3.1160	 6.2910
 3.1180	 6.4190
 3.1200	 5.9460
 3.1220	 5.6830
 3.1240	 6.0710
 3.1260	 6.3570
 3.1270	 6.7960
 3.1290	 6.4220
 3.1310	 6.4070
 3.1330	 6.2710
 3.1350	 6.3350
 3.1370	 6.6040
 3.1390	 6.7930
 3.1410	 5.7420
 3.1430	 4.4790
 3.1450	 4.7370
 3.1460	 4.6800
 3.1480	 5.9440
 3.1500	 7.0480
 3.1520	 6.4480
 3.1540	 6.1420
 3.1560	 6.6540
 3.1580	 4.8550
 3.1600	 2.6330
 3.1620	 2.1130
 3.1640	 3.7180
 3.1660	 4.6090
 3.1680	 5.2440
 3.1700	 5.8720
 3.1710	 8.5620
 3.1730	 7.9210
 3.1750	 6.2940
 3.1770	 4.9280
 3.1790	 3.8780
 3.1810	 3.7380
 3.1830	 4.5210
 3.1850	 5.5140
 3.1870	 6.4910
 3.1890	 6.5960
 3.1910	 5.7900
 3.1930	 5.6870
 3.1950	 5.8830
 3.1970	 5.8330
 3.1990	 5.6850
 3.2010	 5.6520
 3.2030	 5.5790
 3.2050	 5.5020
 3.2070	 5.6580
 3.2090	 5.6330
 3.2110	 5.5550
 3.2130	 5.7040
 3.2150	 5.7740
 3.2170	 5.7410
 3.2190	 5.7460
 3.2210	 5.7350
 3.2230	 5.7010
 3.2250	 5.8390
 3.2270	 6.0760
 3.2290	 5.6880
 3.2310	 5.2540
 3.2330	 5.3920
 3.2350	 5.6890
 3.2370	 5.4650
 3.2390	 5.2790
 3.2410	 5.5170
 3.2430	 5.7190
 3.2450	 5.5320
 3.2470	 5.3180
 3.2490	 5.2310
 3.2510	 5.1900
 3.2530	 5.2520
 3.2550	 5.1960
 3.2570	 5.3140
 3.2590	 5.5100
 3.2610	 5.4740
 3.2630	 5.3840
 3.2650	 5.4370
 3.2670	 5.6470
 3.2690	 5.6200
 3.2720	 5.6650
 3.2740	 5.6560
 3.2760	 5.5990
 3.2780	 5.5070
 3.2800	 5.5130
 3.2820	 5.3460
 3.2840	 5.2180
 3.2860	 5.0640
 3.2880	 5.0730
 3.2900	 5.1020
 3.2920	 5.0320
 3.2940	 5.0900
 3.2960	 5.0290
 3.2990	 5.1080
 3.3010	 5.3360
 3.3030	 5.1900
 3.3050	 5.2570
 3.3070	 5.2920
 3.3090	 5.2260
 3.3110	 5.6770
 3.3130	 5.8860
 3.3150	 5.6010
 3.3180	 5.3340
 3.3200	 5.1130
 3.3220	 4.9420
 3.3240	 5.0760
 3.3260	 5.1990
 3.3280	 5.0680
 3.3300	 5.1030
 3.3330	 5.2440
 3.3350	 5.1840
 3.3370	 5.0530
 3.3390	 5.1830
 3.3410	 5.4500
 3.3430	 5.4090
 3.3450	 5.0720
 3.3480	 5.0620
 3.3500	 5.2170
 3.3520	 5.3870
 3.3540	 5.1620
 3.3560	 5.1500
 3.3580	 5.1000
 3.3610	 5.1230
 3.3630	 5.0420
 3.3650	 4.7730
 3.3670	 4.6500
 3.3690	 4.8260
 3.3720	 5.0090
 3.3740	 5.0030
 3.3760	 5.0040
 3.3780	 4.8720
 3.3800	 4.7400
 3.3830	 4.9110
 3.3850	 5.0210
 3.3870	 4.9570
 3.3890	 4.7870
 3.3910	 4.9620
 3.3940	 5.1840
 3.3960	 5.2450
 3.3980	 5.1110
 3.4000	 5.1550
 3.4020	 5.3140
 3.4050	 5.2300
 3.4070	 5.2220
 3.4090	 5.5360
 3.4110	 5.7730
 3.4140	 5.8460
 3.4160	 5.9360
 3.4180	 6.2450
 3.4200	 6.5960
 3.4230	 7.0200
 3.4250	 7.2650
 3.4270	 7.5010
 3.4290	 7.7470
 3.4320	 7.8530
 3.4340	 7.6440
 3.4360	 7.2440
 3.4390	 6.8910
 3.4410	 6.7250
 3.4430	 6.7420
 3.4450	 6.7120
 3.4480	 6.8090
 3.4500	 6.8150
 3.4520	 6.5910
 3.4550	 6.3650
 3.4570	 6.0400
 3.4590	 5.8780
 3.4620	 6.1420
 3.4640	 6.2540
 3.4660	 6.2280
 3.4680	 6.2630
 3.4710	 6.0790
 3.4730	 5.9380
 3.4750	 6.0270
 3.4780	 6.1060
 3.4800	 5.9570
 3.4820	 5.9900
 3.4850	 6.0790
 3.4870	 6.0250
 3.4890	 5.8410
 3.4920	 5.8080
 3.4940	 5.9260
 3.4970	 6.0560
 3.4990	 6.1810
 3.5010	 6.3240
 3.5040	 6.4520
 3.5060	 6.9150
 3.5080	 7.5180
 3.5110	 7.6200
 3.5130	 7.1970
 3.5160	 7.0860
 3.5180	 7.1400
 3.5200	 7.0860
 3.5230	 6.9550
 3.5250	 6.7760
 3.5270	 6.4690
 3.5300	 6.5070
 3.5320	 6.3900
 3.5350	 6.2680
 3.5370	 6.2310
 3.5400	 6.3220
 3.5420	 6.3700
 3.5440	 6.3130
 3.5470	 6.1570
 3.5490	 6.1680
 3.5520	 6.3200
 3.5540	 6.3780
 3.5570	 6.1020
 3.5590	 5.9040
 3.5610	 6.0140
 3.5640	 6.2100
 3.5660	 5.9880
 3.5690	 6.0620
 3.5710	 6.0380
 3.5740	 5.9260
 3.5760	 5.9670
 3.5790	 5.9810
 3.5810	 5.9150
 3.5840	 6.1180
 3.5860	 6.3670
 3.5890	 6.4030
 3.5910	 5.9920
 3.5930	 5.8030
 3.5960	 5.7600
 3.5980	 5.4440
 3.6010	 5.7540
 3.6030	 6.3460
 3.6060	 6.2350
 3.6080	 6.1280
 3.6110	 6.1270
 3.6140	 6.1380
 3.6160	 6.0070
 3.6190	 6.0700
 3.6210	 6.1290
 3.6240	 6.1050
 3.6260	 6.0160
 3.6290	 6.0930
 3.6310	 6.0590
 3.6340	 5.8810
 3.6360	 5.7770
 3.6390	 6.0360
 3.6410	 6.0080
 3.6440	 5.8850
 3.6470	 5.8070
 3.6490	 5.8840
 3.6520	 5.8610
 3.6540	 5.9470
 3.6570	 6.0350
 3.6590	 5.9750
 3.6620	 5.9710
 3.6650	 6.1150
 3.6670	 6.0280
 3.6700	 5.7970
 3.6720	 5.7920
 3.6750	 5.9590
 3.6780	 5.9410
 3.6800	 5.8760
 3.6830	 5.8500
 3.6850	 5.8630
 3.6880	 5.8220
 3.6910	 5.8720
 3.6930	 5.8250
 3.6960	 5.7630
 3.6990	 5.7670
 3.7010	 5.8140
 3.7040	 5.8420
 3.7060	 5.8090
 3.7090	 5.6990
 3.7120	 5.7240
 3.7140	 5.8210
 3.7170	 5.8110
 3.7200	 5.7390
 3.7220	 5.8860
 3.7250	 5.8670
 3.7280	 5.6310
 3.7300	 5.5000
 3.7330	 5.7030
 3.7360	 5.9740
 3.7390	 5.9370
 3.7410	 5.8750
 3.7440	 5.9220
 3.7470	 5.9100
 3.7490	 5.8800
 3.7520	 5.8410
 3.7550	 5.9130
 3.7580	 5.7180
 3.7600	 5.7390
 3.7630	 5.8040
 3.7660	 5.8250
 3.7680	 5.8130
 3.7710	 5.8010
 3.7740	 5.7420
 3.7770	 5.7230
 3.7790	 5.7860
 3.7820	 5.8610
 3.7850	 5.7470
 3.7880	 5.6670
 3.7900	 5.6090
 3.7930	 5.6580
 3.7960	 5.7540
 3.7990	 5.7310
 3.8020	 5.7920
 3.8040	 5.8520
 3.8070	 5.7970
 3.8100	 5.8530
 3.8130	 5.7660
 3.8160	 5.6740
 3.8180	 5.7140
 3.8210	 5.7760
 3.8240	 5.6410
 3.8270	 5.5730
 3.8300	 5.5540
 3.8330	 5.5640
 3.8350	 5.5840
 3.8380	 5.8110
 3.8410	 5.9600
 3.8440	 5.7520
 3.8470	 5.6000
 3.8500	 5.5300
 3.8520	 5.5640
 3.8550	 5.6770
 3.8580	 5.8170
 3.8610	 5.9230
 3.8640	 5.7980
 3.8670	 5.6510
 3.8700	 5.6570
 3.8730	 5.7850
 3.8750	 5.8170
 3.8780	 5.7070
 3.8810	 5.5840
 3.8840	 5.5780
 3.8870	 5.5700
 3.8900	 5.7020
 3.8930	 5.7910
 3.8960	 5.7700
 3.8990	 5.7440
 3.9020	 5.7020
 3.9050	 5.5880
 3.9080	 5.5870
 3.9110	 5.6580
 3.9140	 5.8160
 3.9160	 5.8330
 3.9190	 5.8180
 3.9220	 5.7490
 3.9250	 5.7740
 3.9280	 5.7530
 3.9310	 5.7560
 3.9340	 5.8530
 3.9370	 5.9560
 3.9400	 5.8990
 3.9430	 5.7780
 3.9460	 5.6470
 3.9490	 5.6610
 3.9520	 5.6440
 3.9550	 5.7040
 3.9580	 5.7580
 3.9610	 5.7720
 3.9640	 5.6930
 3.9670	 5.8370
 3.9700	 5.8630
 3.9730	 5.7660
 3.9770	 5.7790
 3.9800	 5.8590
 3.9830	 5.8050
 3.9860	 5.7840
 3.9890	 5.8020
 3.9920	 5.8360
 3.9950	 5.7840
 3.9980	 5.7990
 4.0010	 5.8770
 4.0040	 5.9480
 4.0070	 5.8180
 4.0100	 5.7670
 4.0130	 5.7330
 4.0170	 5.7500
 4.0200	 5.7210
 4.0230	 5.7060
 4.0260	 5.7270
 4.0290	 5.7310
 4.0320	 5.6230
 4.0350	 5.6760
 4.0380	 5.7170
 4.0420	 5.6870
 4.0450	 5.7080
 4.0480	 5.6830
 4.0510	 5.7520
 4.0540	 5.9200
 4.0570	 5.8760
 4.0610	 5.6650
 4.0640	 5.5920
 4.0670	 5.5880
 4.0700	 5.6020
 4.0730	 5.6000
 4.0770	 5.6610
 4.0800	 5.6810
 4.0830	 5.6310
 4.0860	 5.6840
 4.0890	 5.7030
 4.0930	 5.7720
 4.0960	 5.8290
 4.0990	 5.8410
 4.1020	 5.9350
 4.1060	 6.0470
 4.1090	 5.8030
 4.1120	 5.5450
 4.1150	 5.5540
 4.1190	 5.7760
 4.1220	 5.7820
 4.1250	 5.7870
 4.1280	 5.7820
 4.1320	 5.7990
 4.1350	 5.8060
 4.1380	 5.7310
 4.1420	 5.7140
 4.1450	 5.7120
 4.1480	 5.5610
 4.1520	 5.6330
 4.1550	 5.7580
 4.1580	 5.7170
 4.1620	 5.7140
 4.1650	 5.6500
 4.1680	 5.6390
 4.1720	 5.7390
 4.1750	 5.7300
 4.1780	 5.7350
 4.1820	 5.7450
 4.1850	 5.7110
 4.1890	 5.7240
 4.1920	 5.7530
 4.1950	 5.6730
 4.1990	 5.5880
 4.2020	 5.6050
 4.2060	 5.6450
 4.2090	 5.6620
 4.2120	 5.6340
 4.2160	 5.6170
 4.2190	 5.8940
 4.2230	 5.9050
 4.2260	 5.7620
 4.2300	 5.5520
 4.2330	 5.3730
 4.2360	 5.0770
 4.2400	 5.1500
 4.2430	 5.2940
 4.2470	 5.5440
 4.2500	 5.5560
 4.2540	 5.8240
 4.2570	 5.7820
 4.2610	 5.6030
 4.2640	 5.2580
 4.2680	 5.5620
 4.2710	 6.6460
 4.2750	 6.0340
 4.2780	 5.5490
 4.2820	 5.4410
 4.2850	 5.4720
 4.2890	 5.4580
 4.2930	 5.4500
 4.2960	 5.3890
 4.3000	 5.3200
 4.3030	 5.3290
 4.3070	 5.4870
 4.3100	 5.6320
 4.3140	 5.7600
 4.3180	 5.8240
 4.3210	 5.6240
 4.3250	 5.4820
 4.3280	 5.5780
 4.3320	 5.6400
 4.3360	 5.5720
 4.3390	 5.6240
 4.3430	 5.5630
 4.3470	 5.6060
 4.3500	 5.6170
 4.3540	 5.6530
 4.3570	 5.7370
 4.3610	 5.6940
 4.3650	 5.4980
 4.3680	 5.5320
 4.3720	 5.5760
 4.3760	 5.5320
 4.3800	 5.5890
 4.3830	 5.6830
 4.3870	 5.7140
 4.3910	 5.8090
 4.3940	 5.8630
 4.3980	 5.7350
 4.4020	 5.6010
 4.4060	 5.5540
 4.4090	 5.5550
 4.4130	 5.5980
 4.4170	 5.6330
 4.4210	 5.6530
 4.4240	 5.6850
 4.4280	 5.5840
 4.4320	 5.5010
 4.4360	 5.5730
 4.4400	 5.5970
 4.4430	 5.6700
 4.4470	 5.7270
 4.4510	 5.6830
 4.4550	 5.5740
 4.4590	 5.5660
 4.4620	 5.5640
 4.4660	 5.5470
 4.4700	 5.6190
 4.4740	 5.6150
 4.4780	 5.5670
 4.4820	 5.5810
 4.4860	 5.5790
 4.4900	 5.6460
 4.4930	 5.6490
 4.4970	 5.7090
 4.5010	 5.6230
 4.5050	 5.5210
 4.5090	 5.5510
 4.5130	 5.4720
 4.5170	 5.4820
 4.5210	 5.5770
 4.5250	 5.5500
 4.5290	 5.5380
 4.5330	 5.5800
 4.5370	 5.6010
 4.5410	 5.5830
 4.5450	 5.5720
 4.5490	 5.5080
 4.5530	 5.5840
 4.5570	 5.7160
 4.5610	 5.6240
 4.5650	 5.5520
 4.5690	 5.4690
 4.5730	 5.4680
 4.5770	 5.5870
 4.5810	 5.6140
 4.5850	 5.4510
 4.5890	 5.4470
 4.5930	 5.5200
 4.5970	 5.4680
 4.6010	 5.4500
 4.6050	 5.4960
 4.6090	 5.5930
 4.6130	 5.5320
 4.6170	 5.6130
 4.6220	 5.8800
 4.6260	 5.8170
 4.6300	 5.5620
 4.6340	 5.5340
 4.6380	 5.6810
 4.6420	 5.6840
 4.6460	 5.6760
 4.6510	 5.6510
 4.6550	 5.6670
 4.6590	 5.7660
 4.6630	 5.7510
 4.6670	 5.5760
 4.6720	 5.4770
 4.6760	 5.5400
 4.6800	 5.6050
 4.6840	 5.7400
 4.6880	 5.6070
 4.6930	 5.4550
 4.6970	 5.5370
 4.7010	 5.5380
 4.7050	 5.5670
 4.7100	 5.5170
 4.7140	 5.4270
 4.7180	 5.4380
 4.7230	 5.5830
 4.7270	 5.6350
 4.7310	 5.5360
 4.7360	 5.4200
 4.7400	 5.4960
 4.7440	 5.6520
 4.7490	 5.6510
 4.7530	 5.5600
 4.7570	 5.5220
 4.7620	 5.5330
 4.7660	 5.5620
 4.7700	 5.4380
 4.7750	 5.3490
 4.7790	 5.2870
 4.7840	 5.3490
 4.7880	 5.6550
 4.7920	 5.4270
 4.7970	 5.2150
 4.8010	 5.5970
 4.8060	 5.6140
 4.8100	 5.5160
 4.8150	 5.5300
 4.8190	 5.6130
 4.8240	 5.6290
 4.8280	 5.6430
 4.8330	 5.6130
 4.8370	 5.5890
 4.8420	 5.5790
 4.8460	 5.6370
 4.8510	 5.7560
 4.8550	 5.7050
 4.8600	 5.6490
 4.8640	 5.6480
 4.8690	 5.6360
 4.8730	 5.5820
 4.8780	 5.5770
 4.8830	 5.5210
 4.8870	 5.5030
 4.8920	 5.5290
 4.8960	 5.4550
 4.9010	 5.4880
 4.9060	 5.5600
 4.9100	 5.5470
 4.9150	 5.5330
 4.9200	 5.5600
 4.9240	 5.5170
 4.9290	 5.4940
 4.9340	 5.5930
 4.9380	 5.6170
 4.9430	 5.5000
 4.9480	 5.4300
 4.9530	 5.5550
 4.9570	 5.6230
 4.9620	 5.5550
 4.9670	 5.5480
 4.9720	 5.6190
 4.9760	 5.7250
 4.9810	 5.7140
 4.9860	 5.7150
 4.9910	 5.6990
 4.9960	 5.6520
 5.0000	 5.5940
 5.0050	 5.6450
 5.0100	 5.6900
 5.0150	 5.6640
 5.0200	 5.6810
 5.0250	 5.7400
 5.0290	 5.6170
 5.0340	 5.5090
 5.0390	 5.4930
 5.0440	 5.6830
 5.0490	 5.7320
 5.0540	 5.6570
 5.0590	 5.6870
 5.0640	 5.7680
 5.0690	 5.6470
 5.0740	 5.6550
 5.0790	 5.8010
 5.0840	 5.7900
 5.0890	 5.6910
 5.0940	 5.7650
 5.0990	 5.7500
 5.1040	 5.6830
 5.1090	 5.6300
 5.1140	 5.5720
 5.1190	 5.5880
 5.1240	 5.6920
 5.1290	 5.6450
 5.1340	 5.6290
 5.1390	 5.7200
 5.1440	 5.7360
 5.1490	 5.7370
 5.1540	 5.6890
 5.1600	 5.6910
 5.1650	 5.8170
 5.1700	 5.7380
 5.1750	 5.6030
 5.1800	 5.5560
 5.1850	 5.5610
 5.1910	 5.5580
 5.1960	 5.6280
 5.2010	 5.6430
 5.2060	 5.6020
 5.2110	 5.5830
 5.2170	 5.6840
 5.2220	 5.6510
 5.2270	 5.6030
 5.2320	 5.5940
 5.2380	 5.5810
 5.2430	 5.6840
 5.2480	 5.7430
 5.2540	 5.6550
 5.2590	 5.5660
 5.2640	 5.5890
 5.2700	 5.6380
 5.2750	 5.6370
 5.2800	 5.6060
 5.2860	 5.4700
 5.2910	 5.5670
 5.2970	 5.6020
 5.3020	 5.5250
 5.3070	 5.5040
 5.3130	 5.6640
 5.3180	 5.7520
 5.3240	 5.6900
 5.3290	 5.6140
 5.3350	 5.6290
 5.3400	 5.4920
 5.3460	 5.5200
 5.3510	 5.5400
 5.3570	 5.5760
 5.3620	 5.5520
 5.3680	 5.4940
 5.3730	 5.4890
 5.3790	 5.5810
 5.3850	 5.5730
 5.3900	 5.6030
 5.3960	 5.5940
 5.4010	 5.4800
 5.4070	 5.4020
 5.4130	 5.5090
 5.4180	 5.6220
 5.4240	 5.6330
 5.4300	 5.6040
 5.4350	 5.5510
 5.4410	 5.4360
 5.4470	 5.4880
 5.4530	 5.5140
 5.4580	 5.4280
