Name: Heteromeles arbutifolia 2
Type: vegetation
Class: Shrub
Genus: Heteromeles
Species: arbutifolia
Sample No.: VH015
Owner: UCSB
Wavelength Range: VSWIR
Origin: 34.4907; -119.7912; WGS84
Collection Date: 4/1/2013
Description: Samples were collected as part of the HyspIRI Airborne Campaign. 48 individual plants were sampled in three times in 2013 - spring  summer  and fall. The name of the sample includes a 1  2  or 3 which references a different individual of the species. Samples were taken to JPL and processed within 48 hours of collection. The same leaves were processed in the Nicolet and then measured using the ASD.
Measurement: Bidirectional reflectance
First Column: X
Second Column: Y
X Units: Wavelength (micrometers)
Y Units: Reflectance (percentage)
First X Value: 0.35
Last X Value: 2.5
Number of X Values: 2151
Additional Information: vegetation.shrub.heteromeles.arbutifolia.vswir.vh015.ucsb.asd.ancillary.txt

 0.3500	 5.4460
 0.3510	 5.4210
 0.3520	 5.3370
 0.3530	 5.3550
 0.3540	 5.5340
 0.3550	 5.5510
 0.3560	 5.4440
 0.3570	 5.3300
 0.3580	 5.3380
 0.3590	 5.3780
 0.3600	 5.3680
 0.3610	 5.3010
 0.3620	 5.2700
 0.3630	 5.2500
 0.3640	 5.2660
 0.3650	 5.3290
 0.3660	 5.3440
 0.3670	 5.3530
 0.3680	 5.3870
 0.3690	 5.4550
 0.3700	 5.4510
 0.3710	 5.4230
 0.3720	 5.3910
 0.3730	 5.2600
 0.3740	 5.3190
 0.3750	 5.3950
 0.3760	 5.2740
 0.3770	 5.3230
 0.3780	 5.4140
 0.3790	 5.4150
 0.3800	 5.2380
 0.3810	 5.2840
 0.3820	 5.3750
 0.3830	 5.3430
 0.3840	 5.2420
 0.3850	 5.2890
 0.3860	 5.3940
 0.3870	 5.3850
 0.3880	 5.3650
 0.3890	 5.3620
 0.3900	 5.3770
 0.3910	 5.3910
 0.3920	 5.4060
 0.3930	 5.3740
 0.3940	 5.3000
 0.3950	 5.3290
 0.3960	 5.3980
 0.3970	 5.4260
 0.3980	 5.3610
 0.3990	 5.3670
 0.4000	 5.3880
 0.4010	 5.3750
 0.4020	 5.3140
 0.4030	 5.3590
 0.4040	 5.4130
 0.4050	 5.3790
 0.4060	 5.3870
 0.4070	 5.4240
 0.4080	 5.4520
 0.4090	 5.4260
 0.4100	 5.4290
 0.4110	 5.4240
 0.4120	 5.4010
 0.4130	 5.4240
 0.4140	 5.4390
 0.4150	 5.4390
 0.4160	 5.4300
 0.4170	 5.4340
 0.4180	 5.4410
 0.4190	 5.4410
 0.4200	 5.4240
 0.4210	 5.4190
 0.4220	 5.4300
 0.4230	 5.4480
 0.4240	 5.4400
 0.4250	 5.4280
 0.4260	 5.4200
 0.4270	 5.4150
 0.4280	 5.4270
 0.4290	 5.4280
 0.4300	 5.4170
 0.4310	 5.4290
 0.4320	 5.4340
 0.4330	 5.4280
 0.4340	 5.4150
 0.4350	 5.4070
 0.4360	 5.4020
 0.4370	 5.3980
 0.4380	 5.3910
 0.4390	 5.4020
 0.4400	 5.4180
 0.4410	 5.4270
 0.4420	 5.4280
 0.4430	 5.4170
 0.4440	 5.4030
 0.4450	 5.3970
 0.4460	 5.4140
 0.4470	 5.4180
 0.4480	 5.4040
 0.4490	 5.4110
 0.4500	 5.4170
 0.4510	 5.4190
 0.4520	 5.4180
 0.4530	 5.4260
 0.4540	 5.4380
 0.4550	 5.4370
 0.4560	 5.4050
 0.4570	 5.4210
 0.4580	 5.4380
 0.4590	 5.4270
 0.4600	 5.4200
 0.4610	 5.4240
 0.4620	 5.4290
 0.4630	 5.4210
 0.4640	 5.4030
 0.4650	 5.4030
 0.4660	 5.4150
 0.4670	 5.4060
 0.4680	 5.4020
 0.4690	 5.4060
 0.4700	 5.4120
 0.4710	 5.4030
 0.4720	 5.3950
 0.4730	 5.3910
 0.4740	 5.3870
 0.4750	 5.3790
 0.4760	 5.3820
 0.4770	 5.3950
 0.4780	 5.3970
 0.4790	 5.3850
 0.4800	 5.3750
 0.4810	 5.3810
 0.4820	 5.3880
 0.4830	 5.3920
 0.4840	 5.3910
 0.4850	 5.3900
 0.4860	 5.3850
 0.4870	 5.3890
 0.4880	 5.4020
 0.4890	 5.4000
 0.4900	 5.3930
 0.4910	 5.3960
 0.4920	 5.4140
 0.4930	 5.4190
 0.4940	 5.4140
 0.4950	 5.4130
 0.4960	 5.4340
 0.4970	 5.4390
 0.4980	 5.4410
 0.4990	 5.4570
 0.5000	 5.4680
 0.5010	 5.4800
 0.5020	 5.4960
 0.5030	 5.5200
 0.5040	 5.5390
 0.5050	 5.5610
 0.5060	 5.5910
 0.5070	 5.6170
 0.5080	 5.6460
 0.5090	 5.6810
 0.5100	 5.7210
 0.5110	 5.7740
 0.5120	 5.8320
 0.5130	 5.8920
 0.5140	 5.9580
 0.5150	 6.0320
 0.5160	 6.1170
 0.5170	 6.2110
 0.5180	 6.3130
 0.5190	 6.4140
 0.5200	 6.5160
 0.5210	 6.6290
 0.5220	 6.7450
 0.5230	 6.8610
 0.5240	 6.9790
 0.5250	 7.1040
 0.5260	 7.2280
 0.5270	 7.3440
 0.5280	 7.4450
 0.5290	 7.5490
 0.5300	 7.6460
 0.5310	 7.7330
 0.5320	 7.8130
 0.5330	 7.8860
 0.5340	 7.9520
 0.5350	 8.0090
 0.5360	 8.0620
 0.5370	 8.1120
 0.5380	 8.1540
 0.5390	 8.1830
 0.5400	 8.2190
 0.5410	 8.2560
 0.5420	 8.2920
 0.5430	 8.3260
 0.5440	 8.3490
 0.5450	 8.3680
 0.5460	 8.3910
 0.5470	 8.4040
 0.5480	 8.4170
 0.5490	 8.4320
 0.5500	 8.4420
 0.5510	 8.4480
 0.5520	 8.4490
 0.5530	 8.4420
 0.5540	 8.4280
 0.5550	 8.4040
 0.5560	 8.3690
 0.5570	 8.3260
 0.5580	 8.2830
 0.5590	 8.2280
 0.5600	 8.1560
 0.5610	 8.0900
 0.5620	 8.0230
 0.5630	 7.9500
 0.5640	 7.8640
 0.5650	 7.7810
 0.5660	 7.6930
 0.5670	 7.6010
 0.5680	 7.5100
 0.5690	 7.4200
 0.5700	 7.3290
 0.5710	 7.2350
 0.5720	 7.1520
 0.5730	 7.0750
 0.5740	 7.0050
 0.5750	 6.9450
 0.5760	 6.8980
 0.5770	 6.8540
 0.5780	 6.8070
 0.5790	 6.7580
 0.5800	 6.7110
 0.5810	 6.6660
 0.5820	 6.6250
 0.5830	 6.5870
 0.5840	 6.5500
 0.5850	 6.5100
 0.5860	 6.4620
 0.5870	 6.4250
 0.5880	 6.3930
 0.5890	 6.3590
 0.5900	 6.3340
 0.5910	 6.3200
 0.5920	 6.3160
 0.5930	 6.3100
 0.5940	 6.2970
 0.5950	 6.2810
 0.5960	 6.2650
 0.5970	 6.2490
 0.5980	 6.2350
 0.5990	 6.2220
 0.6000	 6.2060
 0.6010	 6.1890
 0.6020	 6.1710
 0.6030	 6.1520
 0.6040	 6.1350
 0.6050	 6.1180
 0.6060	 6.0970
 0.6070	 6.0710
 0.6080	 6.0470
 0.6090	 6.0240
 0.6100	 6.0010
 0.6110	 5.9750
 0.6120	 5.9550
 0.6130	 5.9290
 0.6140	 5.8970
 0.6150	 5.8740
 0.6160	 5.8460
 0.6170	 5.8190
 0.6180	 5.8020
 0.6190	 5.7810
 0.6200	 5.7650
 0.6210	 5.7560
 0.6220	 5.7480
 0.6230	 5.7340
 0.6240	 5.7200
 0.6250	 5.7120
 0.6260	 5.7090
 0.6270	 5.7020
 0.6280	 5.6930
 0.6290	 5.6870
 0.6300	 5.6840
 0.6310	 5.6820
 0.6320	 5.6800
 0.6330	 5.6710
 0.6340	 5.6570
 0.6350	 5.6450
 0.6360	 5.6390
 0.6370	 5.6200
 0.6380	 5.6000
 0.6390	 5.5810
 0.6400	 5.5590
 0.6410	 5.5350
 0.6420	 5.5120
 0.6430	 5.4910
 0.6440	 5.4700
 0.6450	 5.4490
 0.6460	 5.4280
 0.6470	 5.4110
 0.6480	 5.3950
 0.6490	 5.3830
 0.6500	 5.3730
 0.6510	 5.3640
 0.6520	 5.3580
 0.6530	 5.3520
 0.6540	 5.3470
 0.6550	 5.3430
 0.6560	 5.3370
 0.6570	 5.3270
 0.6580	 5.3150
 0.6590	 5.3150
 0.6600	 5.3090
 0.6610	 5.2950
 0.6620	 5.2920
 0.6630	 5.2870
 0.6640	 5.2820
 0.6650	 5.2770
 0.6660	 5.2760
 0.6670	 5.2780
 0.6680	 5.2800
 0.6690	 5.2790
 0.6700	 5.2860
 0.6710	 5.2930
 0.6720	 5.2990
 0.6730	 5.3130
 0.6740	 5.3270
 0.6750	 5.3400
 0.6760	 5.3530
 0.6770	 5.3700
 0.6780	 5.3880
 0.6790	 5.4060
 0.6800	 5.4320
 0.6810	 5.4530
 0.6820	 5.4750
 0.6830	 5.5020
 0.6840	 5.5310
 0.6850	 5.5570
 0.6860	 5.5860
 0.6870	 5.6240
 0.6880	 5.6630
 0.6890	 5.7120
 0.6900	 5.7770
 0.6910	 5.8600
 0.6920	 5.9680
 0.6930	 6.1070
 0.6940	 6.2840
 0.6950	 6.5060
 0.6960	 6.7770
 0.6970	 7.1000
 0.6980	 7.4770
 0.6990	 7.9050
 0.7000	 8.3890
 0.7010	 8.9240
 0.7020	 9.4980
 0.7030	10.1140
 0.7040	10.7640
 0.7050	11.4380
 0.7060	12.1360
 0.7070	12.8600
 0.7080	13.6010
 0.7090	14.3560
 0.7100	15.1290
 0.7110	15.9160
 0.7120	16.7170
 0.7130	17.5300
 0.7140	18.3470
 0.7150	19.1720
 0.7160	20.0060
 0.7170	20.8370
 0.7180	21.6710
 0.7190	22.5030
 0.7200	23.3280
 0.7210	24.1480
 0.7220	24.9580
 0.7230	25.7540
 0.7240	26.5320
 0.7250	27.2880
 0.7260	28.0220
 0.7270	28.7350
 0.7280	29.4260
 0.7290	30.0860
 0.7300	30.7150
 0.7310	31.3170
 0.7320	31.8880
 0.7330	32.4350
 0.7340	32.9540
 0.7350	33.4380
 0.7360	33.8940
 0.7370	34.3240
 0.7380	34.7310
 0.7390	35.1160
 0.7400	35.4690
 0.7410	35.7940
 0.7420	36.1010
 0.7430	36.3840
 0.7440	36.6450
 0.7450	36.8870
 0.7460	37.1090
 0.7470	37.3130
 0.7480	37.4980
 0.7490	37.6660
 0.7500	37.8170
 0.7510	37.9520
 0.7520	38.0750
 0.7530	38.1880
 0.7540	38.2900
 0.7550	38.3830
 0.7560	38.4660
 0.7570	38.5410
 0.7580	38.6040
 0.7590	38.6600
 0.7600	38.7140
 0.7610	38.7650
 0.7620	38.8060
 0.7630	38.8400
 0.7640	38.8720
 0.7650	38.9000
 0.7660	38.9230
 0.7670	38.9430
 0.7680	38.9630
 0.7690	38.9820
 0.7700	38.9990
 0.7710	39.0130
 0.7720	39.0220
 0.7730	39.0330
 0.7740	39.0410
 0.7750	39.0450
 0.7760	39.0560
 0.7770	39.0640
 0.7780	39.0710
 0.7790	39.0800
 0.7800	39.0860
 0.7810	39.0910
 0.7820	39.0960
 0.7830	39.1020
 0.7840	39.1070
 0.7850	39.1120
 0.7860	39.1180
 0.7870	39.1210
 0.7880	39.1260
 0.7890	39.1300
 0.7900	39.1280
 0.7910	39.1360
 0.7920	39.1410
 0.7930	39.1420
 0.7940	39.1450
 0.7950	39.1530
 0.7960	39.1550
 0.7970	39.1510
 0.7980	39.1570
 0.7990	39.1610
 0.8000	39.1610
 0.8010	39.1570
 0.8020	39.1600
 0.8030	39.1600
 0.8040	39.1580
 0.8050	39.1570
 0.8060	39.1580
 0.8070	39.1550
 0.8080	39.1540
 0.8090	39.1630
 0.8100	39.1590
 0.8110	39.1530
 0.8120	39.1540
 0.8130	39.1560
 0.8140	39.1530
 0.8150	39.1470
 0.8160	39.1450
 0.8170	39.1480
 0.8180	39.1450
 0.8190	39.1390
 0.8200	39.1390
 0.8210	39.1340
 0.8220	39.1260
 0.8230	39.1210
 0.8240	39.1260
 0.8250	39.1280
 0.8260	39.1240
 0.8270	39.1170
 0.8280	39.1230
 0.8290	39.1230
 0.8300	39.1170
 0.8310	39.1130
 0.8320	39.1090
 0.8330	39.1050
 0.8340	39.1030
 0.8350	39.1030
 0.8360	39.0970
 0.8370	39.0980
 0.8380	39.1050
 0.8390	39.0990
 0.8400	39.1020
 0.8410	39.1040
 0.8420	39.1020
 0.8430	39.1010
 0.8440	39.1020
 0.8450	39.1030
 0.8460	39.1020
 0.8470	39.1030
 0.8480	39.1030
 0.8490	39.1030
 0.8500	39.1050
 0.8510	39.0980
 0.8520	39.0990
 0.8530	39.1040
 0.8540	39.1020
 0.8550	39.1070
 0.8560	39.1090
 0.8570	39.1080
 0.8580	39.1120
 0.8590	39.1120
 0.8600	39.1130
 0.8610	39.1170
 0.8620	39.1180
 0.8630	39.1180
 0.8640	39.1160
 0.8650	39.1130
 0.8660	39.1150
 0.8670	39.1110
 0.8680	39.1100
 0.8690	39.1220
 0.8700	39.1210
 0.8710	39.1200
 0.8720	39.1230
 0.8730	39.1280
 0.8740	39.1240
 0.8750	39.1220
 0.8760	39.1250
 0.8770	39.1300
 0.8780	39.1320
 0.8790	39.1300
 0.8800	39.1240
 0.8810	39.1150
 0.8820	39.1200
 0.8830	39.1270
 0.8840	39.1270
 0.8850	39.1290
 0.8860	39.1310
 0.8870	39.1270
 0.8880	39.1180
 0.8890	39.1210
 0.8900	39.1280
 0.8910	39.1290
 0.8920	39.1220
 0.8930	39.1290
 0.8940	39.1320
 0.8950	39.1300
 0.8960	39.1300
 0.8970	39.1240
 0.8980	39.1240
 0.8990	39.1260
 0.9000	39.1120
 0.9010	39.1120
 0.9020	39.1180
 0.9030	39.1220
 0.9040	39.1230
 0.9050	39.1230
 0.9060	39.1220
 0.9070	39.1180
 0.9080	39.1090
 0.9090	39.1090
 0.9100	39.1180
 0.9110	39.1270
 0.9120	39.1220
 0.9130	39.1180
 0.9140	39.1120
 0.9150	39.1020
 0.9160	39.1060
 0.9170	39.1060
 0.9180	39.1040
 0.9190	39.1010
 0.9200	39.0890
 0.9210	39.0810
 0.9220	39.0810
 0.9230	39.0840
 0.9240	39.0760
 0.9250	39.0710
 0.9260	39.0690
 0.9270	39.0560
 0.9280	39.0550
 0.9290	39.0490
 0.9300	39.0330
 0.9310	39.0210
 0.9320	39.0160
 0.9330	39.0060
 0.9340	38.9910
 0.9350	38.9920
 0.9360	38.9780
 0.9370	38.9560
 0.9380	38.9340
 0.9390	38.9190
 0.9400	38.9040
 0.9410	38.8960
 0.9420	38.8900
 0.9430	38.8560
 0.9440	38.8340
 0.9450	38.8160
 0.9460	38.7880
 0.9470	38.7560
 0.9480	38.7340
 0.9490	38.7090
 0.9500	38.6760
 0.9510	38.6480
 0.9520	38.6180
 0.9530	38.5810
 0.9540	38.5390
 0.9550	38.5050
 0.9560	38.4720
 0.9570	38.4370
 0.9580	38.3970
 0.9590	38.3490
 0.9600	38.3250
 0.9610	38.3150
 0.9620	38.2980
 0.9630	38.2730
 0.9640	38.2500
 0.9650	38.2350
 0.9660	38.2290
 0.9670	38.2160
 0.9680	38.1940
 0.9690	38.1770
 0.9700	38.1750
 0.9710	38.1690
 0.9720	38.1630
 0.9730	38.1550
 0.9740	38.1430
 0.9750	38.1270
 0.9760	38.1210
 0.9770	38.1250
 0.9780	38.1310
 0.9790	38.1450
 0.9800	38.1430
 0.9810	38.1370
 0.9820	38.1470
 0.9830	38.1510
 0.9840	38.1570
 0.9850	38.1620
 0.9860	38.1580
 0.9870	38.1680
 0.9880	38.1780
 0.9890	38.1930
 0.9900	38.2200
 0.9910	38.2270
 0.9920	38.2220
 0.9930	38.2170
 0.9940	38.2130
 0.9950	38.2080
 0.9960	38.2040
 0.9970	38.1990
 0.9980	38.1950
 0.9990	38.1900
 1.0000	38.1860
 1.0010	38.1810
 1.0020	38.1770
 1.0030	38.1720
 1.0040	38.1670
 1.0050	38.1630
 1.0060	38.1580
 1.0070	38.1540
 1.0080	38.1490
 1.0090	38.1450
 1.0100	38.1450
 1.0110	38.1600
 1.0120	38.1740
 1.0130	38.1840
 1.0140	38.1960
 1.0150	38.2100
 1.0160	38.2240
 1.0170	38.2280
 1.0180	38.2340
 1.0190	38.2460
 1.0200	38.2550
 1.0210	38.2700
 1.0220	38.2880
 1.0230	38.2990
 1.0240	38.3040
 1.0250	38.3130
 1.0260	38.3210
 1.0270	38.3300
 1.0280	38.3400
 1.0290	38.3510
 1.0300	38.3650
 1.0310	38.3750
 1.0320	38.3850
 1.0330	38.3930
 1.0340	38.4010
 1.0350	38.4050
 1.0360	38.4090
 1.0370	38.4160
 1.0380	38.4230
 1.0390	38.4320
 1.0400	38.4400
 1.0410	38.4510
 1.0420	38.4590
 1.0430	38.4640
 1.0440	38.4700
 1.0450	38.4740
 1.0460	38.4790
 1.0470	38.4830
 1.0480	38.4870
 1.0490	38.4910
 1.0500	38.4960
 1.0510	38.5000
 1.0520	38.5040
 1.0530	38.5090
 1.0540	38.5140
 1.0550	38.5190
 1.0560	38.5260
 1.0570	38.5320
 1.0580	38.5400
 1.0590	38.5440
 1.0600	38.5420
 1.0610	38.5440
 1.0620	38.5440
 1.0630	38.5440
 1.0640	38.5470
 1.0650	38.5490
 1.0660	38.5490
 1.0670	38.5510
 1.0680	38.5530
 1.0690	38.5570
 1.0700	38.5580
 1.0710	38.5580
 1.0720	38.5590
 1.0730	38.5590
 1.0740	38.5600
 1.0750	38.5620
 1.0760	38.5630
 1.0770	38.5630
 1.0780	38.5630
 1.0790	38.5610
 1.0800	38.5590
 1.0810	38.5580
 1.0820	38.5560
 1.0830	38.5580
 1.0840	38.5550
 1.0850	38.5490
 1.0860	38.5430
 1.0870	38.5390
 1.0880	38.5350
 1.0890	38.5310
 1.0900	38.5290
 1.0910	38.5240
 1.0920	38.5150
 1.0930	38.5090
 1.0940	38.5040
 1.0950	38.4980
 1.0960	38.4950
 1.0970	38.4890
 1.0980	38.4810
 1.0990	38.4740
 1.1000	38.4650
 1.1010	38.4570
 1.1020	38.4490
 1.1030	38.4400
 1.1040	38.4310
 1.1050	38.4200
 1.1060	38.4090
 1.1070	38.3980
 1.1080	38.3880
 1.1090	38.3780
 1.1100	38.3680
 1.1110	38.3580
 1.1120	38.3460
 1.1130	38.3330
 1.1140	38.3190
 1.1150	38.3010
 1.1160	38.2850
 1.1170	38.2700
 1.1180	38.2520
 1.1190	38.2330
 1.1200	38.2140
 1.1210	38.1930
 1.1220	38.1660
 1.1230	38.1390
 1.1240	38.1120
 1.1250	38.0830
 1.1260	38.0540
 1.1270	38.0180
 1.1280	37.9790
 1.1290	37.9350
 1.1300	37.8830
 1.1310	37.8290
 1.1320	37.7730
 1.1330	37.7130
 1.1340	37.6500
 1.1350	37.5820
 1.1360	37.5100
 1.1370	37.4340
 1.1380	37.3560
 1.1390	37.2750
 1.1400	37.1930
 1.1410	37.1110
 1.1420	37.0260
 1.1430	36.9400
 1.1440	36.8530
 1.1450	36.7630
 1.1460	36.6780
 1.1470	36.5910
 1.1480	36.5090
 1.1490	36.4270
 1.1500	36.3520
 1.1510	36.2780
 1.1520	36.2100
 1.1530	36.1490
 1.1540	36.0910
 1.1550	36.0360
 1.1560	35.9880
 1.1570	35.9430
 1.1580	35.9010
 1.1590	35.8650
 1.1600	35.8320
 1.1610	35.8030
 1.1620	35.7770
 1.1630	35.7520
 1.1640	35.7280
 1.1650	35.7070
 1.1660	35.6890
 1.1670	35.6730
 1.1680	35.6610
 1.1690	35.6480
 1.1700	35.6370
 1.1710	35.6260
 1.1720	35.6140
 1.1730	35.6020
 1.1740	35.5910
 1.1750	35.5770
 1.1760	35.5620
 1.1770	35.5510
 1.1780	35.5370
 1.1790	35.5230
 1.1800	35.5100
 1.1810	35.4940
 1.1820	35.4790
 1.1830	35.4660
 1.1840	35.4530
 1.1850	35.4400
 1.1860	35.4270
 1.1870	35.4160
 1.1880	35.4050
 1.1890	35.3930
 1.1900	35.3850
 1.1910	35.3790
 1.1920	35.3710
 1.1930	35.3650
 1.1940	35.3600
 1.1950	35.3530
 1.1960	35.3490
 1.1970	35.3470
 1.1980	35.3460
 1.1990	35.3460
 1.2000	35.3460
 1.2010	35.3490
 1.2020	35.3530
 1.2030	35.3580
 1.2040	35.3660
 1.2050	35.3740
 1.2060	35.3820
 1.2070	35.3890
 1.2080	35.3980
 1.2090	35.4090
 1.2100	35.4200
 1.2110	35.4320
 1.2120	35.4480
 1.2130	35.4630
 1.2140	35.4790
 1.2150	35.4960
 1.2160	35.5150
 1.2170	35.5320
 1.2180	35.5500
 1.2190	35.5690
 1.2200	35.5870
 1.2210	35.6060
 1.2220	35.6270
 1.2230	35.6470
 1.2240	35.6660
 1.2250	35.6850
 1.2260	35.7030
 1.2270	35.7210
 1.2280	35.7390
 1.2290	35.7560
 1.2300	35.7700
 1.2310	35.7840
 1.2320	35.8010
 1.2330	35.8180
 1.2340	35.8330
 1.2350	35.8480
 1.2360	35.8610
 1.2370	35.8710
 1.2380	35.8810
 1.2390	35.8900
 1.2400	35.9010
 1.2410	35.9130
 1.2420	35.9240
 1.2430	35.9360
 1.2440	35.9480
 1.2450	35.9570
 1.2460	35.9670
 1.2470	35.9770
 1.2480	35.9860
 1.2490	35.9960
 1.2500	36.0060
 1.2510	36.0130
 1.2520	36.0200
 1.2530	36.0260
 1.2540	36.0300
 1.2550	36.0360
 1.2560	36.0430
 1.2570	36.0470
 1.2580	36.0530
 1.2590	36.0570
 1.2600	36.0590
 1.2610	36.0620
 1.2620	36.0640
 1.2630	36.0660
 1.2640	36.0670
 1.2650	36.0680
 1.2660	36.0660
 1.2670	36.0630
 1.2680	36.0600
 1.2690	36.0580
 1.2700	36.0560
 1.2710	36.0530
 1.2720	36.0490
 1.2730	36.0400
 1.2740	36.0330
 1.2750	36.0250
 1.2760	36.0150
 1.2770	36.0060
 1.2780	35.9960
 1.2790	35.9850
 1.2800	35.9760
 1.2810	35.9670
 1.2820	35.9550
 1.2830	35.9440
 1.2840	35.9290
 1.2850	35.9120
 1.2860	35.8960
 1.2870	35.8780
 1.2880	35.8590
 1.2890	35.8400
 1.2900	35.8210
 1.2910	35.8020
 1.2920	35.7810
 1.2930	35.7590
 1.2940	35.7370
 1.2950	35.7120
 1.2960	35.6860
 1.2970	35.6600
 1.2980	35.6330
 1.2990	35.6050
 1.3000	35.5750
 1.3010	35.5450
 1.3020	35.5140
 1.3030	35.4780
 1.3040	35.4420
 1.3050	35.4060
 1.3060	35.3650
 1.3070	35.3250
 1.3080	35.2830
 1.3090	35.2370
 1.3100	35.1900
 1.3110	35.1410
 1.3120	35.0900
 1.3130	35.0380
 1.3140	34.9810
 1.3150	34.9210
 1.3160	34.8590
 1.3170	34.7960
 1.3180	34.7300
 1.3190	34.6640
 1.3200	34.5950
 1.3210	34.5200
 1.3220	34.4420
 1.3230	34.3630
 1.3240	34.2830
 1.3250	34.2040
 1.3260	34.1240
 1.3270	34.0400
 1.3280	33.9530
 1.3290	33.8630
 1.3300	33.7730
 1.3310	33.6820
 1.3320	33.5890
 1.3330	33.4960
 1.3340	33.4000
 1.3350	33.3050
 1.3360	33.2090
 1.3370	33.1100
 1.3380	33.0120
 1.3390	32.9110
 1.3400	32.8110
 1.3410	32.7140
 1.3420	32.6180
 1.3430	32.5240
 1.3440	32.4300
 1.3450	32.3360
 1.3460	32.2410
 1.3470	32.1480
 1.3480	32.0560
 1.3490	31.9650
 1.3500	31.8760
 1.3510	31.7870
 1.3520	31.6990
 1.3530	31.6110
 1.3540	31.5240
 1.3550	31.4370
 1.3560	31.3490
 1.3570	31.2600
 1.3580	31.1700
 1.3590	31.0780
 1.3600	30.9830
 1.3610	30.8860
 1.3620	30.7860
 1.3630	30.6820
 1.3640	30.5740
 1.3650	30.4620
 1.3660	30.3460
 1.3670	30.2220
 1.3680	30.0900
 1.3690	29.9500
 1.3700	29.7990
 1.3710	29.6390
 1.3720	29.4700
 1.3730	29.2880
 1.3740	29.0940
 1.3750	28.8860
 1.3760	28.6620
 1.3770	28.4240
 1.3780	28.1670
 1.3790	27.8950
 1.3800	27.6080
 1.3810	27.3010
 1.3820	26.9790
 1.3830	26.6410
 1.3840	26.2880
 1.3850	25.9180
 1.3860	25.5360
 1.3870	25.1370
 1.3880	24.7340
 1.3890	24.3190
 1.3900	23.8960
 1.3910	23.4720
 1.3920	23.0430
 1.3930	22.6090
 1.3940	22.1760
 1.3950	21.7410
 1.3960	21.3110
 1.3970	20.8880
 1.3980	20.4720
 1.3990	20.0710
 1.4000	19.6800
 1.4010	19.2990
 1.4020	18.9330
 1.4030	18.5790
 1.4040	18.2400
 1.4050	17.9170
 1.4060	17.6090
 1.4070	17.3200
 1.4080	17.0460
 1.4090	16.7860
 1.4100	16.5440
 1.4110	16.3150
 1.4120	16.1010
 1.4130	15.9030
 1.4140	15.7180
 1.4150	15.5490
 1.4160	15.3910
 1.4170	15.2440
 1.4180	15.1100
 1.4190	14.9850
 1.4200	14.8680
 1.4210	14.7630
 1.4220	14.6650
 1.4230	14.5750
 1.4240	14.4940
 1.4250	14.4190
 1.4260	14.3510
 1.4270	14.2880
 1.4280	14.2310
 1.4290	14.1800
 1.4300	14.1340
 1.4310	14.0920
 1.4320	14.0570
 1.4330	14.0240
 1.4340	13.9960
 1.4350	13.9720
 1.4360	13.9520
 1.4370	13.9360
 1.4380	13.9220
 1.4390	13.9120
 1.4400	13.9040
 1.4410	13.8980
 1.4420	13.8960
 1.4430	13.8950
 1.4440	13.8960
 1.4450	13.8990
 1.4460	13.9040
 1.4470	13.9100
 1.4480	13.9170
 1.4490	13.9260
 1.4500	13.9370
 1.4510	13.9490
 1.4520	13.9630
 1.4530	13.9780
 1.4540	13.9940
 1.4550	14.0110
 1.4560	14.0310
 1.4570	14.0520
 1.4580	14.0770
 1.4590	14.1040
 1.4600	14.1340
 1.4610	14.1670
 1.4620	14.2030
 1.4630	14.2430
 1.4640	14.2860
 1.4650	14.3330
 1.4660	14.3840
 1.4670	14.4370
 1.4680	14.4950
 1.4690	14.5560
