Name: Arctostaphylos glandulosa 3
Type: vegetation
Class: Shrub
Genus: Arctostaphylos
Species: glandulosa
Sample No.: VH156
Owner: UCSB
Wavelength Range: TIR
Origin: 37.0443; -119.3026; WGS84
Collection Date: 6/8/2013
Description: Samples were collected as part of the HyspIRI Airborne Campaign. 48 individual plants were sampled in three times in 2013 - spring  summer  and fall. The name of the sample includes a 1  2  or 3 which references a different individual of the species. Samples were taken to JPL and processed within 48 hours of collection. The same leaves were processed in the Nicolet and then measured using the ASD.
Measurement: Hemispherical reflectance
First Column: X
Second Column: Y
X Units: Wavelength (micrometers)
Y Units: Reflectance (percentage)
First X Value: 2.501
Last X Value: 15.387
Number of X Values: 1737
Additional Information: vegetation.shrub.arctostaphylos.glandulosa.tir.vh156.ucsb.nicolet.ancillary.txt

 2.5010	 6.3810
 2.5030	 6.1270
 2.5040	 6.0130
 2.5050	 6.1680
 2.5060	 6.4170
 2.5070	 6.2010
 2.5090	 6.2620
 2.5100	 6.3540
 2.5110	 6.2850
 2.5120	 6.1630
 2.5140	 6.2910
 2.5150	 6.3370
 2.5160	 6.3830
 2.5170	 6.1440
 2.5180	 6.1310
 2.5200	 6.1800
 2.5210	 6.2760
 2.5220	 6.2950
 2.5230	 6.3300
 2.5250	 6.1950
 2.5260	 6.1630
 2.5270	 6.2010
 2.5280	 6.2580
 2.5290	 6.2050
 2.5310	 6.3520
 2.5320	 6.3440
 2.5330	 6.3310
 2.5340	 6.2260
 2.5360	 6.2410
 2.5370	 6.2390
 2.5380	 6.3170
 2.5390	 6.3190
 2.5410	 6.4960
 2.5420	 6.5660
 2.5430	 6.5010
 2.5440	 6.4150
 2.5460	 6.5550
 2.5470	 6.5120
 2.5480	 6.4590
 2.5490	 6.3730
 2.5510	 6.3790
 2.5520	 6.3390
 2.5530	 6.4640
 2.5540	 6.4960
 2.5560	 6.3990
 2.5570	 6.3060
 2.5580	 6.4070
 2.5590	 6.4750
 2.5610	 6.5390
 2.5620	 6.5600
 2.5630	 6.5710
 2.5640	 6.4440
 2.5660	 6.3690
 2.5670	 6.2870
 2.5680	 6.3880
 2.5700	 6.4140
 2.5710	 6.3650
 2.5720	 6.3920
 2.5730	 6.5820
 2.5750	 6.5200
 2.5760	 6.5540
 2.5770	 6.5440
 2.5790	 6.4800
 2.5800	 6.3470
 2.5810	 6.4730
 2.5820	 6.5260
 2.5840	 6.4810
 2.5850	 6.3860
 2.5860	 6.3490
 2.5880	 6.2540
 2.5890	 6.3650
 2.5900	 6.2690
 2.5910	 6.3670
 2.5930	 6.4440
 2.5940	 6.3470
 2.5950	 6.2170
 2.5970	 6.3360
 2.5980	 6.3440
 2.5990	 6.3790
 2.6000	 6.2560
 2.6020	 6.2490
 2.6030	 6.2030
 2.6040	 6.1920
 2.6060	 6.0910
 2.6070	 6.0930
 2.6080	 6.0820
 2.6100	 6.0840
 2.6110	 6.0300
 2.6120	 6.0090
 2.6140	 5.8940
 2.6150	 5.9670
 2.6160	 5.9210
 2.6180	 5.8230
 2.6190	 5.7770
 2.6200	 5.7820
 2.6220	 5.6230
 2.6230	 5.5830
 2.6240	 5.5480
 2.6260	 5.4820
 2.6270	 5.3670
 2.6280	 5.4360
 2.6300	 5.5080
 2.6310	 5.5110
 2.6320	 5.3030
 2.6340	 5.3130
 2.6350	 5.3330
 2.6360	 5.3570
 2.6380	 5.2410
 2.6390	 5.2720
 2.6400	 5.2470
 2.6420	 5.2390
 2.6430	 5.1480
 2.6440	 5.1020
 2.6460	 5.0060
 2.6470	 5.0850
 2.6480	 5.0760
 2.6500	 4.9950
 2.6510	 4.8520
 2.6520	 4.8990
 2.6540	 4.6770
 2.6550	 4.5040
 2.6560	 4.5150
 2.6580	 4.7200
 2.6590	 4.7030
 2.6610	 4.5330
 2.6620	 4.4410
 2.6630	 4.4080
 2.6650	 4.3090
 2.6660	 4.3910
 2.6670	 4.5420
 2.6690	 4.5350
 2.6700	 4.2690
 2.6720	 4.3050
 2.6730	 4.2260
 2.6740	 4.2190
 2.6760	 4.1420
 2.6770	 4.1590
 2.6780	 4.1430
 2.6800	 4.1840
 2.6810	 4.1530
 2.6830	 4.1320
 2.6840	 3.9420
 2.6850	 3.9210
 2.6870	 4.0120
 2.6880	 4.0200
 2.6900	 3.8690
 2.6910	 3.7750
 2.6920	 3.5820
 2.6940	 3.5890
 2.6950	 3.5630
 2.6970	 3.6360
 2.6980	 3.5300
 2.6990	 3.3920
 2.7010	 3.3000
 2.7020	 3.4640
 2.7040	 3.4760
 2.7050	 3.4110
 2.7060	 3.3420
 2.7080	 3.4060
 2.7090	 3.3060
 2.7110	 3.2920
 2.7120	 3.3030
 2.7130	 3.3570
 2.7150	 3.3440
 2.7160	 3.3900
 2.7180	 3.2720
 2.7190	 3.2840
 2.7210	 3.1480
 2.7220	 3.0770
 2.7230	 3.0090
 2.7250	 3.2080
 2.7260	 3.2270
 2.7280	 3.2800
 2.7290	 3.3230
 2.7310	 3.3130
 2.7320	 3.1190
 2.7330	 3.0160
 2.7350	 3.0140
 2.7360	 3.2130
 2.7380	 3.1770
 2.7390	 3.1230
 2.7410	 3.0520
 2.7420	 3.1490
 2.7440	 3.1600
 2.7450	 3.1630
 2.7470	 2.9920
 2.7480	 2.9870
 2.7490	 2.8040
 2.7510	 2.7490
 2.7520	 2.7400
 2.7540	 2.9290
 2.7550	 2.9310
 2.7570	 2.9220
 2.7580	 2.9380
 2.7600	 3.2040
 2.7610	 3.1280
 2.7630	 2.9350
 2.7640	 3.1150
 2.7660	 3.3640
 2.7670	 3.0620
 2.7680	 2.9130
 2.7700	 2.8630
 2.7710	 2.9010
 2.7730	 2.8000
 2.7740	 2.8020
 2.7760	 2.9800
 2.7770	 3.3010
 2.7790	 3.2050
 2.7800	 3.2270
 2.7820	 3.1820
 2.7830	 3.1520
 2.7850	 3.0870
 2.7860	 3.0350
 2.7880	 2.9120
 2.7890	 3.0430
 2.7910	 2.9680
 2.7920	 2.9740
 2.7940	 3.0350
 2.7950	 3.1990
 2.7970	 3.1800
 2.7980	 3.1260
 2.8000	 3.0890
 2.8010	 2.9980
 2.8030	 2.9020
 2.8040	 2.9540
 2.8060	 2.9230
 2.8070	 3.0990
 2.8090	 3.1390
 2.8110	 3.1750
 2.8120	 3.1070
 2.8140	 3.1540
 2.8150	 3.1070
 2.8170	 3.1370
 2.8180	 3.0300
 2.8200	 2.8400
 2.8210	 2.5340
 2.8230	 2.6960
 2.8240	 2.6920
 2.8260	 2.6110
 2.8270	 2.6950
 2.8290	 2.7890
 2.8300	 2.9460
 2.8320	 3.3450
 2.8340	 3.2910
 2.8350	 3.1210
 2.8370	 2.8960
 2.8380	 2.9440
 2.8400	 3.0170
 2.8410	 3.1240
 2.8430	 3.1110
 2.8440	 3.1510
 2.8460	 3.0780
 2.8480	 3.0790
 2.8490	 3.0000
 2.8510	 2.9960
 2.8520	 2.9720
 2.8540	 3.0760
 2.8550	 2.9730
 2.8570	 2.8970
 2.8590	 2.8620
 2.8600	 2.9870
 2.8620	 2.9200
 2.8630	 2.8730
 2.8650	 2.8750
 2.8660	 2.9980
 2.8680	 3.0020
 2.8700	 2.9290
 2.8710	 2.7490
 2.8730	 2.8750
 2.8740	 2.9850
 2.8760	 3.0210
 2.8780	 3.0330
 2.8790	 3.0380
 2.8810	 2.9670
 2.8820	 3.1060
 2.8840	 2.9460
 2.8860	 2.9560
 2.8870	 3.1310
 2.8890	 3.2480
 2.8900	 3.0460
 2.8920	 2.8810
 2.8940	 2.7030
 2.8950	 2.8880
 2.8970	 3.1130
 2.8980	 3.1290
 2.9000	 2.9820
 2.9020	 2.9950
 2.9030	 2.9920
 2.9050	 3.1320
 2.9070	 3.0200
 2.9080	 3.0430
 2.9100	 3.0230
 2.9120	 3.0610
 2.9130	 3.0470
 2.9150	 3.1440
 2.9160	 3.0060
 2.9180	 2.9290
 2.9200	 2.9280
 2.9210	 3.1510
 2.9230	 3.0810
 2.9250	 2.9990
 2.9260	 2.8830
 2.9280	 3.0360
 2.9300	 3.0340
 2.9310	 3.0910
 2.9330	 3.0340
 2.9350	 2.8750
 2.9360	 2.8070
 2.9380	 3.0050
 2.9400	 2.9420
 2.9410	 3.1050
 2.9430	 3.1420
 2.9450	 3.1400
 2.9460	 2.9530
 2.9480	 2.6790
 2.9500	 2.6670
 2.9510	 2.9130
 2.9530	 3.0210
 2.9550	 3.2650
 2.9560	 3.5490
 2.9580	 3.4310
 2.9600	 3.0270
 2.9610	 3.1240
 2.9630	 3.7470
 2.9650	 3.6050
 2.9660	 2.2930
 2.9680	 1.7310
 2.9700	 2.5270
 2.9720	 3.8900
 2.9730	 3.9410
 2.9750	 3.9690
 2.9770	 4.2990
 2.9780	 3.8120
 2.9800	 2.8470
 2.9820	 3.4340
 2.9840	 4.8880
 2.9850	 4.9590
 2.9870	 3.4190
 2.9890	 2.8340
 2.9900	 2.7970
 2.9920	 2.9260
 2.9940	 3.5650
 2.9960	 4.6970
 2.9970	 4.7620
 2.9990	 4.7640
 3.0010	 4.7250
 3.0030	 3.6980
 3.0040	 3.0360
 3.0060	 2.8670
 3.0080	 3.0140
 3.0100	 3.0650
 3.0110	 2.8310
 3.0130	 3.3520
 3.0150	 3.2250
 3.0170	 2.6120
 3.0180	 2.7530
 3.0200	 2.9550
 3.0220	 2.6050
 3.0240	 2.8760
 3.0250	 3.0170
 3.0270	 2.9730
 3.0290	 2.8590
 3.0310	 2.8500
 3.0320	 2.4090
 3.0340	 2.1410
 3.0360	 1.7090
 3.0380	 1.6030
 3.0400	 1.8040
 3.0410	 3.6290
 3.0430	 4.9110
 3.0450	 3.1630
 3.0470	 2.9360
 3.0480	 3.5040
 3.0500	 2.7240
 3.0520	 4.1930
 3.0540	 2.7900
 3.0560	 1.8860
 3.0570	 2.8680
 3.0590	 4.1790
 3.0610	 4.0020
 3.0630	 2.9860
 3.0650	 3.3800
 3.0660	 3.9560
 3.0680	 4.2000
 3.0700	 3.5970
 3.0720	 3.4070
 3.0740	 3.2590
 3.0760	 3.0250
 3.0770	 3.0830
 3.0790	 3.0420
 3.0810	 2.9510
 3.0830	 2.9250
 3.0850	 3.0710
 3.0870	 3.0540
 3.0880	 2.8810
 3.0900	 2.9620
 3.0920	 3.0950
 3.0940	 2.9660
 3.0960	 2.9660
 3.0980	 3.1260
 3.0990	 3.1840
 3.1010	 2.9980
 3.1030	 3.0260
 3.1050	 2.9880
 3.1070	 3.0140
 3.1090	 2.9810
 3.1110	 2.8250
 3.1120	 3.0840
 3.1140	 3.0350
 3.1160	 2.8440
 3.1180	 3.3300
 3.1200	 3.5260
 3.1220	 3.5560
 3.1240	 3.1080
 3.1260	 2.9310
 3.1270	 3.1820
 3.1290	 3.0140
 3.1310	 2.7560
 3.1330	 2.3140
 3.1350	 2.5550
 3.1370	 3.1120
 3.1390	 3.2290
 3.1410	 3.2180
 3.1430	 3.1210
 3.1450	 3.0850
 3.1460	 2.9780
 3.1480	 2.4330
 3.1500	 2.5790
 3.1520	 3.1870
 3.1540	 3.0100
 3.1560	 2.2550
 3.1580	 2.0840
 3.1600	 2.0660
 3.1620	 2.5870
 3.1640	 3.1120
 3.1660	 3.5150
 3.1680	 3.3420
 3.1700	 2.6890
 3.1710	 2.7530
 3.1730	 2.8990
 3.1750	 3.2360
 3.1770	 3.0280
 3.1790	 3.3100
 3.1810	 3.5850
 3.1830	 3.1120
 3.1850	 3.1240
 3.1870	 3.0110
 3.1890	 2.7510
 3.1910	 2.7820
 3.1930	 2.9380
 3.1950	 3.1340
 3.1970	 3.2490
 3.1990	 3.0850
 3.2010	 2.9040
 3.2030	 2.9390
 3.2050	 2.9730
 3.2070	 3.0180
 3.2090	 2.7780
 3.2110	 2.7550
 3.2130	 2.8840
 3.2150	 3.1760
 3.2170	 2.9910
 3.2190	 2.9060
 3.2210	 2.9490
 3.2230	 3.0370
 3.2250	 2.9050
 3.2270	 2.9660
 3.2290	 3.2380
 3.2310	 3.2540
 3.2330	 2.9460
 3.2350	 2.7930
 3.2370	 2.6830
 3.2390	 2.7880
 3.2410	 2.9200
 3.2430	 2.9510
 3.2450	 2.7700
 3.2470	 2.8750
 3.2490	 3.0210
 3.2510	 3.0440
 3.2530	 2.8180
 3.2550	 2.8500
 3.2570	 2.9740
 3.2590	 2.6320
 3.2610	 2.2100
 3.2630	 2.3760
 3.2650	 2.3260
 3.2670	 2.7620
 3.2690	 2.9580
 3.2720	 2.7180
 3.2740	 2.7600
 3.2760	 2.9180
 3.2780	 2.9040
 3.2800	 2.9050
 3.2820	 2.9350
 3.2840	 2.9490
 3.2860	 2.8380
 3.2880	 2.7800
 3.2900	 2.5900
 3.2920	 2.7250
 3.2940	 2.7640
 3.2960	 2.7630
 3.2990	 2.8580
 3.3010	 2.8000
 3.3030	 2.6090
 3.3050	 2.8210
 3.3070	 2.9650
 3.3090	 2.9410
 3.3110	 2.8370
 3.3130	 2.8790
 3.3150	 2.8300
 3.3180	 2.8320
 3.3200	 2.7920
 3.3220	 2.7720
 3.3240	 2.7770
 3.3260	 2.8570
 3.3280	 2.9170
 3.3300	 3.0030
 3.3330	 2.9540
 3.3350	 2.9180
 3.3370	 2.8030
 3.3390	 2.7910
 3.3410	 2.7340
 3.3430	 2.7130
 3.3450	 2.7060
 3.3480	 2.7410
 3.3500	 2.7070
 3.3520	 2.6560
 3.3540	 2.4780
 3.3560	 2.4810
 3.3580	 2.5250
 3.3610	 2.6090
 3.3630	 2.6690
 3.3650	 2.6870
 3.3670	 2.5370
 3.3690	 2.5820
 3.3720	 2.5650
 3.3740	 2.5950
 3.3760	 2.5220
 3.3780	 2.5380
 3.3800	 2.4840
 3.3830	 2.4850
 3.3850	 2.4670
 3.3870	 2.6760
 3.3890	 2.6370
 3.3910	 2.4460
 3.3940	 2.3160
 3.3960	 2.2810
 3.3980	 2.3030
 3.4000	 2.3240
 3.4020	 2.3070
 3.4050	 2.4280
 3.4070	 2.4410
 3.4090	 2.4280
 3.4110	 2.5170
 3.4140	 2.7450
 3.4160	 2.9570
 3.4180	 3.1870
 3.4200	 3.4720
 3.4230	 3.9960
 3.4250	 4.4780
 3.4270	 4.9610
 3.4290	 5.2340
 3.4320	 5.2840
 3.4340	 4.9780
 3.4360	 4.7260
 3.4390	 4.5010
 3.4410	 4.3740
 3.4430	 4.1810
 3.4450	 3.9040
 3.4480	 3.7560
 3.4500	 3.8140
 3.4520	 3.7900
 3.4550	 3.7730
 3.4570	 3.6870
 3.4590	 3.6070
 3.4620	 3.4870
 3.4640	 3.4540
 3.4660	 3.4910
 3.4680	 3.5520
 3.4710	 3.5480
 3.4730	 3.4550
 3.4750	 3.4010
 3.4780	 3.3840
 3.4800	 3.3540
 3.4820	 3.2610
 3.4850	 3.1670
 3.4870	 3.1960
 3.4890	 3.1070
 3.4920	 3.0720
 3.4940	 3.0210
 3.4970	 3.0100
 3.4990	 3.0160
 3.5010	 3.0990
 3.5040	 3.2630
 3.5060	 3.7450
 3.5080	 4.5190
 3.5110	 5.2200
 3.5130	 5.2420
 3.5160	 4.9380
 3.5180	 4.5550
 3.5200	 4.3150
 3.5230	 4.1810
 3.5250	 4.0290
 3.5270	 3.8760
 3.5300	 3.8980
 3.5320	 3.8590
 3.5350	 3.8010
 3.5370	 3.8050
 3.5400	 3.8320
 3.5420	 3.7230
 3.5440	 3.7300
 3.5470	 3.7480
 3.5490	 3.7920
 3.5520	 3.7110
 3.5540	 3.6770
 3.5570	 3.5760
 3.5590	 3.5730
 3.5610	 3.6340
 3.5640	 3.6240
 3.5660	 3.5950
 3.5690	 3.6310
 3.5710	 3.5700
 3.5740	 3.5770
 3.5760	 3.5880
 3.5790	 3.6290
 3.5810	 3.5240
 3.5840	 3.4530
 3.5860	 3.5590
 3.5890	 3.6750
 3.5910	 3.6210
 3.5930	 3.6440
 3.5960	 3.7450
 3.5980	 3.7060
 3.6010	 3.4410
 3.6030	 3.5580
 3.6060	 3.7050
 3.6080	 3.5840
 3.6110	 3.4220
 3.6140	 3.5050
 3.6160	 3.5240
 3.6190	 3.5040
 3.6210	 3.4890
 3.6240	 3.5170
 3.6260	 3.5140
 3.6290	 3.5470
 3.6310	 3.4760
 3.6340	 3.5070
 3.6360	 3.5680
 3.6390	 3.5070
 3.6410	 3.4740
 3.6440	 3.6220
 3.6470	 3.6480
 3.6490	 3.5550
 3.6520	 3.4670
 3.6540	 3.4510
 3.6570	 3.4500
 3.6590	 3.5390
 3.6620	 3.5410
 3.6650	 3.4970
 3.6670	 3.4610
 3.6700	 3.5100
 3.6720	 3.5170
 3.6750	 3.5010
 3.6780	 3.4770
 3.6800	 3.5210
 3.6830	 3.5850
 3.6850	 3.6370
 3.6880	 3.5270
 3.6910	 3.5050
 3.6930	 3.5530
 3.6960	 3.5630
 3.6990	 3.5040
 3.7010	 3.5090
 3.7040	 3.5180
 3.7060	 3.5360
 3.7090	 3.4940
 3.7120	 3.5120
 3.7140	 3.4500
 3.7170	 3.4720
 3.7200	 3.4820
 3.7220	 3.5900
 3.7250	 3.7710
 3.7280	 3.8030
 3.7300	 3.6060
 3.7330	 3.5040
 3.7360	 3.5090
 3.7390	 3.6290
 3.7410	 3.6610
 3.7440	 3.6140
 3.7470	 3.6810
 3.7490	 3.8210
 3.7520	 3.7690
 3.7550	 3.7700
 3.7580	 3.7260
 3.7600	 3.6860
 3.7630	 3.6890
 3.7660	 3.7350
 3.7680	 3.5580
 3.7710	 3.5190
 3.7740	 3.6740
 3.7770	 3.7660
 3.7790	 3.7110
 3.7820	 3.6220
 3.7850	 3.6390
 3.7880	 3.7200
 3.7900	 3.6300
 3.7930	 3.5870
 3.7960	 3.6190
 3.7990	 3.6690
 3.8020	 3.6660
 3.8040	 3.7500
 3.8070	 3.8440
 3.8100	 3.8690
 3.8130	 3.8560
 3.8160	 3.8470
 3.8180	 3.7890
 3.8210	 3.8450
 3.8240	 3.9210
 3.8270	 3.9200
 3.8300	 3.8530
 3.8330	 3.8070
 3.8350	 3.8530
 3.8380	 3.9250
 3.8410	 3.7670
 3.8440	 3.7840
 3.8470	 3.9530
 3.8500	 4.0670
 3.8520	 3.9490
 3.8550	 3.8840
 3.8580	 3.8430
 3.8610	 3.8270
 3.8640	 3.8650
 3.8670	 3.9170
 3.8700	 3.8970
 3.8730	 3.8910
 3.8750	 3.8820
 3.8780	 3.9060
 3.8810	 3.8950
 3.8840	 3.9370
 3.8870	 3.9200
 3.8900	 3.8650
 3.8930	 3.8020
 3.8960	 3.8470
 3.8990	 3.9190
 3.9020	 3.9540
 3.9050	 3.8470
 3.9080	 3.8570
 3.9110	 3.9330
 3.9140	 3.9450
 3.9160	 3.9660
 3.9190	 3.9930
 3.9220	 3.9380
 3.9250	 3.9360
 3.9280	 3.9750
 3.9310	 3.9710
 3.9340	 3.9410
 3.9370	 3.9620
 3.9400	 3.9990
 3.9430	 4.0310
 3.9460	 4.0050
 3.9490	 3.9430
 3.9520	 3.9490
 3.9550	 3.9680
 3.9580	 3.9460
 3.9610	 3.9850
 3.9640	 4.0050
 3.9670	 4.0660
 3.9700	 4.0480
 3.9730	 4.0090
 3.9770	 4.0080
 3.9800	 4.0200
 3.9830	 3.9850
 3.9860	 3.9890
 3.9890	 4.0020
 3.9920	 4.0120
 3.9950	 3.9580
 3.9980	 4.0190
 4.0010	 4.0370
 4.0040	 4.0290
 4.0070	 4.0070
 4.0100	 3.9980
 4.0130	 3.9640
 4.0170	 3.9780
 4.0200	 4.0200
 4.0230	 4.0200
 4.0260	 4.0080
 4.0290	 4.0240
 4.0320	 3.9430
 4.0350	 3.9790
 4.0380	 4.0180
 4.0420	 4.0060
 4.0450	 3.9730
 4.0480	 4.0110
 4.0510	 4.0750
 4.0540	 4.1130
 4.0570	 4.0140
 4.0610	 3.9420
 4.0640	 3.9600
 4.0670	 3.9260
 4.0700	 3.9320
 4.0730	 4.0660
 4.0770	 4.0750
 4.0800	 4.0300
 4.0830	 4.0020
 4.0860	 4.0990
 4.0890	 4.0920
 4.0930	 4.0900
 4.0960	 4.0880
 4.0990	 4.1010
 4.1020	 4.1050
 4.1060	 4.0340
 4.1090	 3.9140
 4.1120	 3.8430
 4.1150	 3.8950
 4.1190	 3.9650
 4.1220	 3.9670
 4.1250	 3.9930
 4.1280	 3.9830
 4.1320	 3.9990
 4.1350	 4.0060
 4.1380	 3.9740
 4.1420	 3.9270
 4.1450	 3.9270
 4.1480	 3.9800
 4.1520	 4.0010
 4.1550	 3.9410
 4.1580	 3.9430
 4.1620	 3.9840
 4.1650	 4.0100
 4.1680	 3.9770
 4.1720	 4.0220
 4.1750	 4.0510
 4.1780	 3.9970
 4.1820	 3.9430
 4.1850	 3.9770
 4.1890	 4.0180
 4.1920	 4.0090
 4.1950	 3.9270
 4.1990	 3.8980
 4.2020	 3.9550
 4.2060	 4.0040
 4.2090	 4.0390
 4.2120	 4.1140
 4.2160	 4.2230
 4.2190	 4.1720
 4.2230	 4.1220
 4.2260	 4.4340
 4.2300	 4.2170
 4.2330	 3.9710
 4.2360	 4.1380
 4.2400	 4.2490
 4.2430	 4.1940
 4.2470	 4.1010
 4.2500	 4.2090
 4.2540	 4.1490
 4.2570	 3.9850
 4.2610	 3.8750
 4.2640	 3.8850
 4.2680	 4.0970
 4.2710	 4.1480
 4.2750	 4.1720
 4.2780	 4.0030
 4.2820	 4.0530
 4.2850	 4.1540
 4.2890	 4.0850
 4.2930	 4.1200
 4.2960	 4.0530
 4.3000	 3.7620
 4.3030	 3.6160
 4.3070	 3.7100
 4.3100	 3.7550
 4.3140	 3.7060
 4.3180	 3.8380
 4.3210	 3.8310
 4.3250	 3.7440
 4.3280	 3.6410
 4.3320	 3.6700
 4.3360	 3.7560
 4.3390	 3.7710
 4.3430	 3.7600
 4.3470	 3.7700
 4.3500	 3.7400
 4.3540	 3.6630
 4.3570	 3.6520
 4.3610	 3.6760
 4.3650	 3.6740
 4.3680	 3.6780
 4.3720	 3.6620
 4.3760	 3.6360
 4.3800	 3.6460
 4.3830	 3.6100
 4.3870	 3.5790
 4.3910	 3.6310
 4.3940	 3.6210
 4.3980	 3.6660
 4.4020	 3.6510
 4.4060	 3.5870
 4.4090	 3.5450
 4.4130	 3.5600
 4.4170	 3.5590
 4.4210	 3.5210
 4.4240	 3.4980
 4.4280	 3.5270
 4.4320	 3.5330
 4.4360	 3.5340
 4.4400	 3.5800
 4.4430	 3.5430
 4.4470	 3.4870
 4.4510	 3.4870
 4.4550	 3.4880
 4.4590	 3.4980
 4.4620	 3.4510
 4.4660	 3.4340
 4.4700	 3.4810
 4.4740	 3.4930
 4.4780	 3.4580
 4.4820	 3.4560
 4.4860	 3.4900
 4.4900	 3.5040
 4.4930	 3.4810
 4.4970	 3.4580
 4.5010	 3.4250
 4.5050	 3.4200
 4.5090	 3.4270
 4.5130	 3.3920
 4.5170	 3.3620
 4.5210	 3.3630
 4.5250	 3.4040
 4.5290	 3.3910
 4.5330	 3.3220
 4.5370	 3.3190
 4.5410	 3.3120
 4.5450	 3.3860
 4.5490	 3.4470
 4.5530	 3.3680
 4.5570	 3.3110
 4.5610	 3.2470
 4.5650	 3.2240
 4.5690	 3.2870
 4.5730	 3.2600
 4.5770	 3.2640
 4.5810	 3.3270
 4.5850	 3.3440
 4.5890	 3.3070
 4.5930	 3.3190
 4.5970	 3.2990
 4.6010	 3.2420
 4.6050	 3.2740
 4.6090	 3.2640
 4.6130	 3.3270
 4.6170	 3.3700
 4.6220	 3.3070
 4.6260	 3.1820
 4.6300	 3.1550
 4.6340	 3.2370
 4.6380	 3.2130
 4.6420	 3.2550
 4.6460	 3.3110
 4.6510	 3.3700
 4.6550	 3.3820
 4.6590	 3.3180
 4.6630	 3.3330
 4.6670	 3.3390
 4.6720	 3.3050
 4.6760	 3.3530
 4.6800	 3.3490
 4.6840	 3.3490
 4.6880	 3.3680
 4.6930	 3.3040
 4.6970	 3.2820
 4.7010	 3.2870
 4.7050	 3.2870
 4.7100	 3.2830
 4.7140	 3.2530
 4.7180	 3.2520
 4.7230	 3.2650
 4.7270	 3.2600
 4.7310	 3.2750
 4.7360	 3.3300
 4.7400	 3.3010
 4.7440	 3.2860
 4.7490	 3.2890
 4.7530	 3.2530
 4.7570	 3.2870
 4.7620	 3.3370
 4.7660	 3.3200
 4.7700	 3.2940
 4.7750	 3.2850
 4.7790	 3.4230
 4.7840	 3.3060
 4.7880	 3.0360
 4.7920	 3.0790
 4.7970	 3.1730
 4.8010	 3.3630
 4.8060	 3.4440
 4.8100	 3.3760
 4.8150	 3.3720
 4.8190	 3.4070
 4.8240	 3.3770
 4.8280	 3.3470
 4.8330	 3.3860
 4.8370	 3.3720
 4.8420	 3.2910
 4.8460	 3.2760
 4.8510	 3.3160
 4.8550	 3.3380
 4.8600	 3.2850
 4.8640	 3.2960
 4.8690	 3.3340
 4.8730	 3.3120
 4.8780	 3.2800
 4.8830	 3.3690
 4.8870	 3.3600
 4.8920	 3.3310
 4.8960	 3.3630
 4.9010	 3.4250
 4.9060	 3.4190
 4.9100	 3.4110
 4.9150	 3.3920
 4.9200	 3.3640
 4.9240	 3.3420
 4.9290	 3.3300
 4.9340	 3.3470
 4.9380	 3.3750
 4.9430	 3.3850
 4.9480	 3.4080
 4.9530	 3.4020
 4.9570	 3.4120
 4.9620	 3.4200
 4.9670	 3.4060
 4.9720	 3.3730
 4.9760	 3.3690
 4.9810	 3.4030
 4.9860	 3.3810
 4.9910	 3.2830
 4.9960	 3.3480
 5.0000	 3.4000
 5.0050	 3.4680
 5.0100	 3.5030
 5.0150	 3.4740
 5.0200	 3.4060
 5.0250	 3.4360
 5.0290	 3.4690
 5.0340	 3.4540
 5.0390	 3.3600
 5.0440	 3.3810
 5.0490	 3.4920
 5.0540	 3.5210
 5.0590	 3.4930
 5.0640	 3.4950
 5.0690	 3.5520
 5.0740	 3.5960
 5.0790	 3.4880
 5.0840	 3.4570
 5.0890	 3.4980
 5.0940	 3.5560
 5.0990	 3.5510
 5.1040	 3.5380
 5.1090	 3.5440
 5.1140	 3.5530
 5.1190	 3.5180
 5.1240	 3.5570
 5.1290	 3.5250
 5.1340	 3.5100
 5.1390	 3.5260
 5.1440	 3.5530
 5.1490	 3.5380
 5.1540	 3.5570
 5.1600	 3.5240
 5.1650	 3.5810
 5.1700	 3.5880
 5.1750	 3.6480
 5.1800	 3.5720
 5.1850	 3.5400
 5.1910	 3.5310
 5.1960	 3.5250
 5.2010	 3.5270
 5.2060	 3.5500
 5.2110	 3.5530
 5.2170	 3.5700
 5.2220	 3.5450
 5.2270	 3.5600
 5.2320	 3.6250
 5.2380	 3.6370
 5.2430	 3.5870
 5.2480	 3.5860
 5.2540	 3.5560
 5.2590	 3.5240
 5.2640	 3.4900
 5.2700	 3.5240
 5.2750	 3.5640
 5.2800	 3.6520
 5.2860	 3.6160
 5.2910	 3.5510
 5.2970	 3.5240
 5.3020	 3.5230
 5.3070	 3.4780
 5.3130	 3.4830
 5.3180	 3.5080
 5.3240	 3.5130
 5.3290	 3.5140
 5.3350	 3.5950
 5.3400	 3.6000
 5.3460	 3.5950
 5.3510	 3.5490
 5.3570	 3.5380
 5.3620	 3.5010
 5.3680	 3.5180
 5.3730	 3.5160
 5.3790	 3.5390
 5.3850	 3.4950
 5.3900	 3.4820
 5.3960	 3.4710
 5.4010	 3.5170
 5.4070	 3.4700
 5.4130	 3.4600
 5.4180	 3.5010
 5.4240	 3.4950
 5.4300	 3.4370
