Name: Pyllostachys vivax
Type: vegetation
Class: Tree
Genus: Pyllostachys
Species: vivax
Sample No.: JPL191
Owner: JPL
Wavelength Range: TIR
Origin: 34.12505; -118.11546; WGS84
Collection Date: 10/3/2016
Description: Samples were collected at the Huntington Garden in San Marino California as part of a JPL Subcontract studying HyTES imagery. Samples were taken to JPL and processed within 48 hours of collection. The same leaves were processed in the Nicolet and then measured using the ASD.
Measurement: Hemispherical reflectance
First Column: X
Second Column: Y
X Units: Wavelength (micrometer)
Y Units: Reflectance (percentage)
First X Value: 2.501
Last X Value: 15.387
Number of X Values: 1737
Additional Information: vegetation.tree.pyllostachys.vivax.tir.jpl191.jpl.nicolet.ancillary.txt

 2.5010	 8.7320
 2.5030	 8.6570
 2.5040	 8.6280
 2.5050	 8.6250
 2.5060	 8.6440
 2.5070	 8.5470
 2.5090	 8.5700
 2.5100	 8.5760
 2.5110	 8.5740
 2.5120	 8.5620
 2.5140	 8.5310
 2.5150	 8.4750
 2.5160	 8.4740
 2.5170	 8.4250
 2.5180	 8.4870
 2.5200	 8.4590
 2.5210	 8.4020
 2.5220	 8.3990
 2.5230	 8.4220
 2.5250	 8.3840
 2.5260	 8.4260
 2.5270	 8.4110
 2.5280	 8.3840
 2.5300	 8.3940
 2.5310	 8.4920
 2.5320	 8.4670
 2.5330	 8.4570
 2.5340	 8.4210
 2.5360	 8.4130
 2.5370	 8.3950
 2.5380	 8.3910
 2.5390	 8.4380
 2.5410	 8.4740
 2.5420	 8.4000
 2.5430	 8.4500
 2.5440	 8.4390
 2.5460	 8.4730
 2.5470	 8.4620
 2.5480	 8.4340
 2.5490	 8.4200
 2.5510	 8.4790
 2.5520	 8.4630
 2.5530	 8.4720
 2.5540	 8.5290
 2.5560	 8.6420
 2.5570	 8.6170
 2.5580	 8.5890
 2.5590	 8.5450
 2.5610	 8.5320
 2.5620	 8.5510
 2.5630	 8.6010
 2.5650	 8.6040
 2.5660	 8.5800
 2.5670	 8.5530
 2.5680	 8.6060
 2.5700	 8.5500
 2.5710	 8.5820
 2.5720	 8.6370
 2.5730	 8.5880
 2.5750	 8.5690
 2.5760	 8.5780
 2.5770	 8.5030
 2.5790	 8.5500
 2.5800	 8.5760
 2.5810	 8.5260
 2.5820	 8.4390
 2.5840	 8.3720
 2.5850	 8.3810
 2.5860	 8.4900
 2.5880	 8.4120
 2.5890	 8.3660
 2.5900	 8.3320
 2.5910	 8.3180
 2.5930	 8.2410
 2.5940	 8.1830
 2.5950	 8.0960
 2.5970	 8.1610
 2.5980	 8.1510
 2.5990	 8.1680
 2.6010	 8.1400
 2.6020	 8.0160
 2.6030	 7.9310
 2.6040	 7.9290
 2.6060	 7.8060
 2.6070	 7.7990
 2.6080	 7.7630
 2.6100	 7.6990
 2.6110	 7.6700
 2.6120	 7.5570
 2.6140	 7.4270
 2.6150	 7.4440
 2.6160	 7.3240
 2.6180	 7.1800
 2.6190	 7.1900
 2.6200	 7.1790
 2.6220	 7.0750
 2.6230	 7.0820
 2.6240	 7.0330
 2.6260	 6.9280
 2.6270	 6.7450
 2.6280	 6.7310
 2.6300	 6.6680
 2.6310	 6.5810
 2.6320	 6.4920
 2.6340	 6.4200
 2.6350	 6.3710
 2.6360	 6.3330
 2.6380	 6.2500
 2.6390	 6.2300
 2.6400	 6.1060
 2.6420	 6.0000
 2.6430	 5.9910
 2.6440	 5.9290
 2.6460	 5.7450
 2.6470	 5.6340
 2.6480	 5.5560
 2.6500	 5.5350
 2.6510	 5.4890
 2.6520	 5.3910
 2.6540	 5.2920
 2.6550	 5.2980
 2.6570	 5.2200
 2.6580	 5.1410
 2.6590	 4.9680
 2.6610	 4.8750
 2.6620	 4.7760
 2.6630	 4.7480
 2.6650	 4.6330
 2.6660	 4.5640
 2.6670	 4.5280
 2.6690	 4.5050
 2.6700	 4.3310
 2.6720	 4.2590
 2.6730	 4.2890
 2.6740	 4.3140
 2.6760	 4.2240
 2.6770	 4.0990
 2.6780	 4.0140
 2.6800	 3.9860
 2.6810	 3.9220
 2.6830	 3.9270
 2.6840	 3.8580
 2.6850	 3.8090
 2.6870	 3.7320
 2.6880	 3.7290
 2.6900	 3.6830
 2.6910	 3.6400
 2.6920	 3.5460
 2.6940	 3.4940
 2.6950	 3.4740
 2.6970	 3.5110
 2.6980	 3.5120
 2.6990	 3.5270
 2.7010	 3.4440
 2.7020	 3.4510
 2.7040	 3.4270
 2.7050	 3.3860
 2.7060	 3.3440
 2.7080	 3.3890
 2.7090	 3.3640
 2.7110	 3.3110
 2.7120	 3.2600
 2.7130	 3.3020
 2.7150	 3.2710
 2.7160	 3.2860
 2.7180	 3.3000
 2.7190	 3.2990
 2.7210	 3.2210
 2.7220	 3.2910
 2.7230	 3.2870
 2.7250	 3.2690
 2.7260	 3.3080
 2.7280	 3.3940
 2.7290	 3.3270
 2.7310	 3.2990
 2.7320	 3.2980
 2.7340	 3.2950
 2.7350	 3.2270
 2.7360	 3.2580
 2.7380	 3.2640
 2.7390	 3.3000
 2.7410	 3.2630
 2.7420	 3.2530
 2.7440	 3.2240
 2.7450	 3.3060
 2.7470	 3.3170
 2.7480	 3.3520
 2.7490	 3.3590
 2.7510	 3.3600
 2.7520	 3.2980
 2.7540	 3.2880
 2.7550	 3.2360
 2.7570	 3.3110
 2.7580	 3.3620
 2.7600	 3.3420
 2.7610	 3.3000
 2.7630	 3.2960
 2.7640	 3.2560
 2.7660	 3.3000
 2.7670	 3.3130
 2.7690	 3.2590
 2.7700	 3.2280
 2.7720	 3.3200
 2.7730	 3.3280
 2.7740	 3.2970
 2.7760	 3.3070
 2.7770	 3.3830
 2.7790	 3.3440
 2.7800	 3.3640
 2.7820	 3.3740
 2.7830	 3.3630
 2.7850	 3.2740
 2.7860	 3.2430
 2.7880	 3.3020
 2.7890	 3.4560
 2.7910	 3.4370
 2.7920	 3.4350
 2.7940	 3.4180
 2.7950	 3.4050
 2.7970	 3.4150
 2.7980	 3.4190
 2.8000	 3.3190
 2.8010	 3.3680
 2.8030	 3.3480
 2.8040	 3.3180
 2.8060	 3.3390
 2.8080	 3.4130
 2.8090	 3.4300
 2.8110	 3.3940
 2.8120	 3.3070
 2.8140	 3.3670
 2.8150	 3.3310
 2.8170	 3.3000
 2.8180	 3.2990
 2.8200	 3.3860
 2.8210	 3.3790
 2.8230	 3.3750
 2.8240	 3.3740
 2.8260	 3.4360
 2.8270	 3.4400
 2.8290	 3.4450
 2.8310	 3.4400
 2.8320	 3.4460
 2.8340	 3.3940
 2.8350	 3.4500
 2.8370	 3.3720
 2.8380	 3.3430
 2.8400	 3.3340
 2.8410	 3.3680
 2.8430	 3.3540
 2.8440	 3.4130
 2.8460	 3.4190
 2.8480	 3.3870
 2.8490	 3.3460
 2.8510	 3.3690
 2.8520	 3.3460
 2.8540	 3.3920
 2.8550	 3.3640
 2.8570	 3.3430
 2.8590	 3.3810
 2.8600	 3.4570
 2.8620	 3.4040
 2.8630	 3.4330
 2.8650	 3.4620
 2.8660	 3.4430
 2.8680	 3.3720
 2.8700	 3.3920
 2.8710	 3.3830
 2.8730	 3.4310
 2.8740	 3.4470
 2.8760	 3.4820
 2.8780	 3.4170
 2.8790	 3.3940
 2.8810	 3.3910
 2.8820	 3.3860
 2.8840	 3.4140
 2.8860	 3.4700
 2.8870	 3.4150
 2.8890	 3.4300
 2.8900	 3.4330
 2.8920	 3.4460
 2.8940	 3.4050
 2.8950	 3.4070
 2.8970	 3.3890
 2.8990	 3.4110
 2.9000	 3.3810
 2.9020	 3.4160
 2.9030	 3.4170
 2.9050	 3.4130
 2.9070	 3.3840
 2.9080	 3.4580
 2.9100	 3.5160
 2.9120	 3.5240
 2.9130	 3.4260
 2.9150	 3.4260
 2.9160	 3.3870
 2.9180	 3.3940
 2.9200	 3.4260
 2.9210	 3.4570
 2.9230	 3.4870
 2.9250	 3.5120
 2.9260	 3.4820
 2.9280	 3.4660
 2.9300	 3.3890
 2.9310	 3.4410
 2.9330	 3.5010
 2.9350	 3.5860
 2.9360	 3.4920
 2.9380	 3.4570
 2.9400	 3.4360
 2.9410	 3.4640
 2.9430	 3.4150
 2.9450	 3.3930
 2.9460	 3.3690
 2.9480	 3.4030
 2.9500	 3.3850
 2.9510	 3.3810
 2.9530	 3.3690
 2.9550	 3.4020
 2.9560	 3.3660
 2.9580	 3.3550
 2.9600	 3.2890
 2.9610	 3.2670
 2.9630	 3.2850
 2.9650	 3.3860
 2.9670	 3.4040
 2.9680	 3.3760
 2.9700	 3.3730
 2.9720	 3.3850
 2.9730	 3.3620
 2.9750	 3.3690
 2.9770	 3.3050
 2.9780	 3.3290
 2.9800	 3.3160
 2.9820	 3.3390
 2.9840	 3.3530
 2.9850	 3.3420
 2.9870	 3.2580
 2.9890	 3.2840
 2.9900	 3.2870
 2.9920	 3.2940
 2.9940	 3.3000
 2.9960	 3.3820
 2.9970	 3.3980
 2.9990	 3.3520
 3.0010	 3.2910
 3.0030	 3.3460
 3.0040	 3.3130
 3.0060	 3.3250
 3.0080	 3.3500
 3.0100	 3.3100
 3.0110	 3.2340
 3.0130	 3.2840
 3.0150	 3.2920
 3.0170	 3.2690
 3.0180	 3.2020
 3.0200	 3.2390
 3.0220	 3.2100
 3.0240	 3.2760
 3.0250	 3.2790
 3.0270	 3.2410
 3.0290	 3.2550
 3.0310	 3.2720
 3.0320	 3.2300
 3.0340	 3.2380
 3.0360	 3.1910
 3.0380	 3.1440
 3.0400	 3.0970
 3.0410	 3.1810
 3.0430	 3.2050
 3.0450	 3.2100
 3.0470	 3.1800
 3.0480	 3.1620
 3.0500	 3.1730
 3.0520	 3.2570
 3.0540	 3.2350
 3.0560	 3.1890
 3.0570	 3.2320
 3.0590	 3.2780
 3.0610	 3.2120
 3.0630	 3.1850
 3.0650	 3.1810
 3.0670	 3.2030
 3.0680	 3.1280
 3.0700	 3.1060
 3.0720	 3.0970
 3.0740	 3.1370
 3.0760	 3.1520
 3.0770	 3.1510
 3.0790	 3.0860
 3.0810	 3.1110
 3.0830	 3.1790
 3.0850	 3.1940
 3.0870	 3.1090
 3.0880	 3.1160
 3.0900	 3.1150
 3.0920	 3.1270
 3.0940	 3.1240
 3.0960	 3.1350
 3.0980	 3.1140
 3.1000	 3.1250
 3.1010	 3.0800
 3.1030	 3.1130
 3.1050	 3.0890
 3.1070	 3.0670
 3.1090	 3.0790
 3.1110	 3.0690
 3.1130	 3.0310
 3.1140	 3.0590
 3.1160	 3.0480
 3.1180	 3.0410
 3.1200	 3.0230
 3.1220	 3.0520
 3.1240	 3.0330
 3.1260	 3.0640
 3.1280	 3.0510
 3.1290	 3.0440
 3.1310	 2.9990
 3.1330	 3.0460
 3.1350	 3.0260
 3.1370	 3.0350
 3.1390	 3.0310
 3.1410	 3.0550
 3.1430	 3.0650
 3.1450	 3.0280
 3.1470	 2.9960
 3.1480	 3.0100
 3.1500	 2.9410
 3.1520	 2.9460
 3.1540	 2.9690
 3.1560	 3.0100
 3.1580	 2.9830
 3.1600	 2.9400
 3.1620	 2.9050
 3.1640	 2.9480
 3.1660	 2.9540
 3.1680	 2.9350
 3.1700	 2.9000
 3.1720	 2.8970
 3.1730	 2.8880
 3.1750	 2.9200
 3.1770	 2.9020
 3.1790	 2.9080
 3.1810	 2.9140
 3.1830	 2.9280
 3.1850	 2.9200
 3.1870	 2.9450
 3.1890	 2.9000
 3.1910	 2.9080
 3.1930	 2.9120
 3.1950	 2.9200
 3.1970	 2.8810
 3.1990	 2.8860
 3.2010	 2.8630
 3.2030	 2.8600
 3.2050	 2.8460
 3.2070	 2.8410
 3.2090	 2.8340
 3.2110	 2.9000
 3.2130	 2.9070
 3.2150	 2.8890
 3.2170	 2.8590
 3.2190	 2.8710
 3.2210	 2.8480
 3.2230	 2.8270
 3.2250	 2.8350
 3.2270	 2.8570
 3.2290	 2.8060
 3.2310	 2.8060
 3.2330	 2.8020
 3.2350	 2.7750
 3.2370	 2.7570
 3.2390	 2.8210
 3.2410	 2.8120
 3.2430	 2.8010
 3.2450	 2.7900
 3.2470	 2.8070
 3.2490	 2.7560
 3.2510	 2.7810
 3.2530	 2.7650
 3.2550	 2.7420
 3.2570	 2.7280
 3.2590	 2.7760
 3.2610	 2.7740
 3.2630	 2.7930
 3.2650	 2.7710
 3.2670	 2.7340
 3.2700	 2.6720
 3.2720	 2.6860
 3.2740	 2.6830
 3.2760	 2.7240
 3.2780	 2.7430
 3.2800	 2.7330
 3.2820	 2.6790
 3.2840	 2.7170
 3.2860	 2.7520
 3.2880	 2.7420
 3.2900	 2.6720
 3.2920	 2.6560
 3.2940	 2.6530
 3.2970	 2.6840
 3.2990	 2.6470
 3.3010	 2.6450
 3.3030	 2.6760
 3.3050	 2.7270
 3.3070	 2.6620
 3.3090	 2.6370
 3.3110	 2.6030
 3.3130	 2.5800
 3.3160	 2.5500
 3.3180	 2.5380
 3.3200	 2.5230
 3.3220	 2.5570
 3.3240	 2.5680
 3.3260	 2.5530
 3.3280	 2.4910
 3.3300	 2.4780
 3.3330	 2.4550
 3.3350	 2.4870
 3.3370	 2.4720
 3.3390	 2.4670
 3.3410	 2.4350
 3.3430	 2.4420
 3.3450	 2.3790
 3.3480	 2.3630
 3.3500	 2.3740
 3.3520	 2.3700
 3.3540	 2.3420
 3.3560	 2.3270
 3.3580	 2.2640
 3.3610	 2.2720
 3.3630	 2.2590
 3.3650	 2.2420
 3.3670	 2.2180
 3.3690	 2.2280
 3.3720	 2.2030
 3.3740	 2.2190
 3.3760	 2.1920
 3.3780	 2.2580
 3.3800	 2.3220
 3.3830	 2.3450
 3.3850	 2.2980
 3.3870	 2.3110
 3.3890	 2.2700
 3.3910	 2.2320
 3.3940	 2.1950
 3.3960	 2.1580
 3.3980	 2.1550
 3.4000	 2.1870
 3.4030	 2.2360
 3.4050	 2.3190
 3.4070	 2.3670
 3.4090	 2.5270
 3.4110	 2.7500
 3.4140	 3.0150
 3.4160	 3.3180
 3.4180	 3.7870
 3.4200	 4.4160
 3.4230	 5.2800
 3.4250	 6.3000
 3.4270	 7.3720
 3.4300	 8.0300
 3.4320	 7.7940
 3.4340	 6.9150
 3.4360	 6.0690
 3.4390	 5.4690
 3.4410	 5.0710
 3.4430	 4.7760
 3.4450	 4.6260
 3.4480	 4.4790
 3.4500	 4.4410
 3.4520	 4.4040
 3.4550	 4.3440
 3.4570	 4.2780
 3.4590	 4.2310
 3.4620	 4.1470
 3.4640	 4.0420
 3.4660	 3.9570
 3.4690	 3.9310
 3.4710	 3.8210
 3.4730	 3.7300
 3.4760	 3.6500
 3.4780	 3.5780
 3.4800	 3.4940
 3.4830	 3.4340
 3.4850	 3.3160
 3.4870	 3.2530
 3.4900	 3.1600
 3.4920	 3.1070
 3.4940	 3.0550
 3.4970	 3.0660
 3.4990	 3.1260
 3.5010	 3.3150
 3.5040	 3.6400
 3.5060	 4.4480
 3.5080	 5.8450
 3.5110	 7.1580
 3.5130	 7.3290
 3.5160	 6.5740
 3.5180	 5.7800
 3.5200	 5.2910
 3.5230	 4.9560
 3.5250	 4.7320
 3.5280	 4.5820
 3.5300	 4.4470
 3.5320	 4.3490
 3.5350	 4.2730
 3.5370	 4.1680
 3.5400	 4.1000
 3.5420	 4.1020
 3.5440	 4.1200
 3.5470	 4.0490
 3.5490	 4.0000
 3.5520	 3.9820
 3.5540	 3.9570
 3.5570	 3.9150
 3.5590	 3.9110
 3.5610	 3.8710
 3.5640	 3.8550
 3.5660	 3.8480
 3.5690	 3.8660
 3.5710	 3.8460
 3.5740	 3.8550
 3.5760	 3.8180
 3.5790	 3.8180
 3.5810	 3.8380
 3.5840	 3.8320
 3.5860	 3.7580
 3.5890	 3.7420
 3.5910	 3.7500
 3.5940	 3.7720
 3.5960	 3.7520
 3.5990	 3.7420
 3.6010	 3.7620
 3.6040	 3.8190
 3.6060	 3.7890
 3.6090	 3.7580
 3.6110	 3.7500
 3.6140	 3.7620
 3.6160	 3.7330
 3.6190	 3.7690
 3.6210	 3.7760
 3.6240	 3.7690
 3.6260	 3.7780
 3.6290	 3.7760
 3.6310	 3.7550
 3.6340	 3.7510
 3.6360	 3.7650
 3.6390	 3.7900
 3.6410	 3.7970
 3.6440	 3.7880
 3.6470	 3.7900
 3.6490	 3.7950
 3.6520	 3.8060
 3.6540	 3.8150
 3.6570	 3.7650
 3.6590	 3.7630
 3.6620	 3.8200
 3.6650	 3.8690
 3.6670	 3.8290
 3.6700	 3.7810
 3.6720	 3.8310
 3.6750	 3.8730
 3.6780	 3.8220
 3.6800	 3.8530
 3.6830	 3.9120
 3.6850	 3.9770
 3.6880	 3.9740
 3.6910	 3.9710
 3.6930	 3.9500
 3.6960	 3.9700
 3.6990	 4.0020
 3.7010	 3.9930
 3.7040	 3.9570
 3.7070	 3.9860
 3.7090	 4.0060
 3.7120	 4.0210
 3.7150	 4.0110
 3.7170	 4.0460
 3.7200	 4.0650
 3.7230	 4.0820
 3.7250	 4.1000
 3.7280	 4.1330
 3.7310	 4.1390
 3.7330	 4.1690
 3.7360	 4.1530
 3.7390	 4.1510
 3.7410	 4.2020
 3.7440	 4.2840
 3.7470	 4.3230
 3.7490	 4.3380
 3.7520	 4.3310
 3.7550	 4.3410
 3.7580	 4.3430
 3.7600	 4.3670
 3.7630	 4.3970
 3.7660	 4.3840
 3.7690	 4.3690
 3.7710	 4.4080
 3.7740	 4.4270
 3.7770	 4.4440
 3.7790	 4.4680
 3.7820	 4.5090
 3.7850	 4.4810
 3.7880	 4.4920
 3.7910	 4.5150
 3.7930	 4.5470
 3.7960	 4.5940
 3.7990	 4.6590
 3.8020	 4.6570
 3.8040	 4.6520
 3.8070	 4.6770
 3.8100	 4.7140
 3.8130	 4.7200
 3.8160	 4.7260
 3.8180	 4.7180
 3.8210	 4.7230
 3.8240	 4.7500
 3.8270	 4.7650
 3.8300	 4.7810
 3.8330	 4.8280
 3.8350	 4.8240
 3.8380	 4.8500
 3.8410	 4.8680
 3.8440	 4.8790
 3.8470	 4.8780
 3.8500	 4.8870
 3.8520	 4.9180
 3.8550	 4.9490
 3.8580	 4.9450
 3.8610	 4.9450
 3.8640	 5.0000
 3.8670	 5.0190
 3.8700	 4.9850
 3.8730	 4.9710
 3.8760	 4.9850
 3.8780	 5.0110
 3.8810	 5.0190
 3.8840	 5.0250
 3.8870	 5.0040
 3.8900	 4.9960
 3.8930	 4.9840
 3.8960	 4.9980
 3.8990	 4.9970
 3.9020	 4.9950
 3.9050	 4.9660
 3.9080	 4.9760
 3.9110	 4.9630
 3.9140	 4.9680
 3.9170	 4.9910
 3.9190	 5.0130
 3.9220	 4.9900
 3.9250	 4.9660
 3.9280	 4.9790
 3.9310	 5.0130
 3.9340	 5.0030
 3.9370	 4.9830
 3.9400	 4.9850
 3.9430	 4.9880
 3.9460	 4.9900
 3.9490	 4.9710
 3.9520	 4.9440
 3.9550	 4.9740
 3.9580	 4.9690
 3.9610	 4.9600
 3.9640	 4.9430
 3.9670	 4.9340
 3.9700	 4.9110
 3.9740	 4.9100
 3.9770	 4.9280
 3.9800	 4.9240
 3.9830	 4.9050
 3.9860	 4.9030
 3.9890	 4.8960
 3.9920	 4.9050
 3.9950	 4.8920
 3.9980	 4.9110
 4.0010	 4.9160
 4.0040	 4.8890
 4.0070	 4.8720
 4.0100	 4.9000
 4.0140	 4.9080
 4.0170	 4.9110
 4.0200	 4.8990
 4.0230	 4.8980
 4.0260	 4.8820
 4.0290	 4.8870
 4.0320	 4.8870
 4.0350	 4.8690
 4.0390	 4.8600
 4.0420	 4.8800
 4.0450	 4.8760
 4.0480	 4.8710
 4.0510	 4.8490
 4.0540	 4.8150
 4.0570	 4.7900
 4.0610	 4.7960
 4.0640	 4.8140
 4.0670	 4.8120
 4.0700	 4.7770
 4.0730	 4.7700
 4.0770	 4.7620
 4.0800	 4.7500
 4.0830	 4.7500
 4.0860	 4.7580
 4.0890	 4.7790
 4.0930	 4.7800
 4.0960	 4.7610
 4.0990	 4.7710
 4.1020	 4.7730
 4.1060	 4.7470
 4.1090	 4.6920
 4.1120	 4.6840
 4.1150	 4.6940
 4.1190	 4.6630
 4.1220	 4.6260
 4.1250	 4.6290
 4.1290	 4.6230
 4.1320	 4.6050
 4.1350	 4.6060
 4.1380	 4.6260
 4.1420	 4.6350
 4.1450	 4.5950
 4.1480	 4.5460
 4.1520	 4.5450
 4.1550	 4.5710
 4.1580	 4.5680
 4.1620	 4.5420
 4.1650	 4.5300
 4.1680	 4.4940
 4.1720	 4.4620
 4.1750	 4.4560
 4.1780	 4.4700
 4.1820	 4.4510
 4.1850	 4.4570
 4.1890	 4.4280
 4.1920	 4.3940
 4.1950	 4.3900
 4.1990	 4.3880
 4.2020	 4.3570
 4.2060	 4.3630
 4.2090	 4.3660
 4.2120	 4.3730
 4.2160	 4.4010
 4.2190	 4.3820
 4.2230	 4.3700
 4.2260	 4.4050
 4.2300	 4.3970
 4.2330	 4.3850
 4.2360	 4.3960
 4.2400	 4.4080
 4.2430	 4.3030
 4.2470	 4.2520
 4.2500	 4.2210
 4.2540	 4.1850
 4.2570	 4.1140
 4.2610	 4.1510
 4.2640	 4.2590
 4.2680	 4.2490
 4.2710	 4.1930
 4.2750	 4.1310
 4.2780	 4.0970
 4.2820	 4.0860
 4.2850	 4.0830
 4.2890	 4.1100
 4.2930	 4.0940
 4.2960	 4.0490
 4.3000	 4.0150
 4.3030	 3.9550
 4.3070	 3.9390
 4.3100	 3.9710
 4.3140	 3.9680
 4.3180	 3.9330
 4.3210	 3.9080
 4.3250	 3.8810
 4.3280	 3.8380
 4.3320	 3.8350
 4.3360	 3.8240
 4.3390	 3.8040
 4.3430	 3.8000
 4.3470	 3.7680
 4.3500	 3.7340
 4.3540	 3.7090
 4.3580	 3.7350
 4.3610	 3.7440
 4.3650	 3.7110
 4.3690	 3.6900
 4.3720	 3.6690
 4.3760	 3.6570
 4.3800	 3.6180
 4.3830	 3.5870
 4.3870	 3.6010
 4.3910	 3.6130
 4.3940	 3.6160
 4.3980	 3.6170
 4.4020	 3.5950
 4.4060	 3.5660
 4.4090	 3.5830
 4.4130	 3.5590
 4.4170	 3.5230
 4.4210	 3.4890
 4.4240	 3.4810
 4.4280	 3.4850
 4.4320	 3.4710
 4.4360	 3.4360
 4.4400	 3.4340
 4.4430	 3.4690
 4.4470	 3.5100
 4.4510	 3.5110
 4.4550	 3.4400
 4.4590	 3.4140
 4.4630	 3.4390
 4.4660	 3.4630
 4.4700	 3.4750
 4.4740	 3.4240
 4.4780	 3.3600
 4.4820	 3.3530
 4.4860	 3.3690
 4.4900	 3.3640
 4.4930	 3.3620
 4.4970	 3.3650
 4.5010	 3.3500
 4.5050	 3.3290
 4.5090	 3.3650
 4.5130	 3.3570
 4.5170	 3.3240
 4.5210	 3.3030
 4.5250	 3.2980
 4.5290	 3.3040
 4.5330	 3.2910
 4.5370	 3.3020
 4.5410	 3.3170
 4.5450	 3.2690
 4.5490	 3.2670
 4.5530	 3.3010
 4.5570	 3.3060
 4.5610	 3.2810
 4.5650	 3.2700
 4.5690	 3.2390
 4.5730	 3.2140
 4.5770	 3.2300
 4.5810	 3.2520
 4.5850	 3.2560
 4.5890	 3.2300
 4.5930	 3.2140
 4.5970	 3.2130
 4.6010	 3.1930
 4.6050	 3.2050
 4.6090	 3.2000
 4.6130	 3.1900
 4.6170	 3.2010
 4.6220	 3.2120
 4.6260	 3.1920
 4.6300	 3.1850
 4.6340	 3.1800
 4.6380	 3.1850
 4.6420	 3.1720
 4.6460	 3.1610
 4.6510	 3.1730
 4.6550	 3.1670
 4.6590	 3.1420
 4.6630	 3.1690
 4.6670	 3.1930
 4.6720	 3.2050
 4.6760	 3.1890
 4.6800	 3.1650
 4.6840	 3.1320
 4.6880	 3.1270
 4.6930	 3.1310
 4.6970	 3.1290
 4.7010	 3.1070
 4.7050	 3.0970
 4.7100	 3.0920
 4.7140	 3.1180
 4.7180	 3.1180
 4.7230	 3.1130
 4.7270	 3.1160
 4.7310	 3.1030
 4.7360	 3.1070
 4.7400	 3.1550
 4.7440	 3.1610
 4.7490	 3.1700
 4.7530	 3.1640
 4.7570	 3.1810
 4.7620	 3.1720
 4.7660	 3.1660
 4.7700	 3.1420
 4.7750	 3.1330
 4.7790	 3.1320
 4.7840	 3.1350
 4.7880	 3.1550
 4.7920	 3.1780
 4.7970	 3.1610
 4.8010	 3.1350
 4.8060	 3.1230
 4.8100	 3.1400
 4.8150	 3.1410
 4.8190	 3.1520
 4.8240	 3.1550
 4.8280	 3.1650
 4.8330	 3.1300
 4.8370	 3.1160
 4.8420	 3.1220
 4.8460	 3.1700
 4.8510	 3.1490
 4.8550	 3.1380
 4.8600	 3.1420
 4.8640	 3.1780
 4.8690	 3.1550
 4.8740	 3.1680
 4.8780	 3.1710
 4.8830	 3.1650
 4.8870	 3.1640
 4.8920	 3.1720
 4.8970	 3.1790
 4.9010	 3.1950
 4.9060	 3.1860
 4.9100	 3.1900
 4.9150	 3.1840
 4.9200	 3.2100
 4.9240	 3.2340
 4.9290	 3.2820
 4.9340	 3.2960
 4.9390	 3.2840
 4.9430	 3.2730
 4.9480	 3.2990
 4.9530	 3.2810
 4.9570	 3.3040
 4.9620	 3.2920
 4.9670	 3.2910
 4.9720	 3.2790
 4.9760	 3.2980
 4.9810	 3.3130
 4.9860	 3.3400
 4.9910	 3.3320
 4.9960	 3.3350
 5.0000	 3.3610
 5.0050	 3.3840
 5.0100	 3.3940
 5.0150	 3.4000
 5.0200	 3.3870
 5.0250	 3.4040
 5.0300	 3.4190
 5.0340	 3.4430
 5.0390	 3.4480
 5.0440	 3.4840
 5.0490	 3.4660
 5.0540	 3.4300
 5.0590	 3.4680
 5.0640	 3.5230
 5.0690	 3.5230
 5.0740	 3.5570
 5.0790	 3.5340
 5.0840	 3.5620
 5.0890	 3.6070
 5.0940	 3.6300
 5.0990	 3.5950
 5.1040	 3.6160
 5.1090	 3.6240
 5.1140	 3.6400
 5.1190	 3.6560
 5.1240	 3.6810
 5.1290	 3.6920
 5.1340	 3.7300
 5.1390	 3.7240
 5.1440	 3.7240
 5.1490	 3.7070
 5.1550	 3.7190
 5.1600	 3.7550
 5.1650	 3.7820
 5.1700	 3.7410
 5.1750	 3.7620
 5.1800	 3.8070
 5.1850	 3.8270
 5.1910	 3.8160
 5.1960	 3.8660
 5.2010	 3.8710
 5.2060	 3.8710
 5.2110	 3.8620
 5.2170	 3.8830
 5.2220	 3.8780
 5.2270	 3.8980
 5.2330	 3.8960
 5.2380	 3.9270
 5.2430	 3.9000
 5.2480	 3.9040
 5.2540	 3.8970
 5.2590	 3.8890
 5.2640	 3.8930
 5.2700	 3.9290
 5.2750	 3.9320
 5.2800	 3.9590
 5.2860	 3.9300
 5.2910	 3.9250
 5.2970	 3.9390
 5.3020	 3.9700
 5.3080	 3.9540
 5.3130	 3.9530
 5.3180	 3.9260
 5.3240	 3.9420
 5.3290	 3.9590
 5.3350	 3.9520
 5.3400	 3.9300
 5.3460	 3.9230
 5.3510	 3.8680
 5.3570	 3.9020
 5.3620	 3.9520
 5.3680	 3.9690
 5.3740	 3.9100
 5.3790	 3.8940
 5.3850	 3.8990
 5.3900	 3.9160
 5.3960	 3.8970
 5.4010	 3.8950
 5.4070	 3.8510
 5.4130	 3.8340
 5.4180	 3.7950
 5.4240	 3.7830
 5.4300	 3.7670
 5.4350	 3.7680
 5.4410	 3.7610
 5.4470	 3.7740
 5.4530	 3.7380
 5.4580	 3.7530
 5.4640	 3.7130
 5.4700	 3.6950
 5.4760	 3.6590
 5.4810	 3.6540
