Name: Baccharis pilularis 2
Type: vegetation
Class: Shrub
Genus: Baccharis
Species: pilularis
Sample No.: VH123
Owner: UCSB
Wavelength Range: VSWIR
Origin: 34.5084; -119.7683; WGS84
Collection Date: 6/3/2013
Description: Samples were collected as part of the HyspIRI Airborne Campaign. 48 individual plants were sampled in three times in 2013 - spring  summer  and fall. The name of the sample includes a 1  2  or 3 which references a different individual of the species. Samples were taken to JPL and processed within 48 hours of collection. The same leaves were processed in the Nicolet and then measured using the ASD.
Measurement: Bidirectional reflectance
First Column: X
Second Column: Y
X Units: Wavelength (micrometers)
Y Units: Reflectance (percentage)
First X Value: 0.35
Last X Value: 2.5
Number of X Values: 2151
Additional Information: vegetation.shrub.baccharis.pilularis.vswir.vh123.ucsb.asd.ancillary.txt

 0.3500	 5.7430
 0.3510	 5.9110
 0.3520	 5.9590
 0.3530	 5.9870
 0.3540	 6.0610
 0.3550	 5.9910
 0.3560	 5.9520
 0.3570	 5.9440
 0.3580	 5.8880
 0.3590	 5.8120
 0.3600	 5.8440
 0.3610	 5.9640
 0.3620	 5.9500
 0.3630	 5.8930
 0.3640	 5.8260
 0.3650	 5.7800
 0.3660	 5.8540
 0.3670	 5.8110
 0.3680	 5.7040
 0.3690	 5.7600
 0.3700	 5.7330
 0.3710	 5.7320
 0.3720	 5.8000
 0.3730	 5.7670
 0.3740	 5.7170
 0.3750	 5.7040
 0.3760	 5.7540
 0.3770	 5.7960
 0.3780	 5.8130
 0.3790	 5.8030
 0.3800	 5.7770
 0.3810	 5.7160
 0.3820	 5.6780
 0.3830	 5.6940
 0.3840	 5.6970
 0.3850	 5.6790
 0.3860	 5.6820
 0.3870	 5.7440
 0.3880	 5.7370
 0.3890	 5.7500
 0.3900	 5.7720
 0.3910	 5.6810
 0.3920	 5.6640
 0.3930	 5.6740
 0.3940	 5.6730
 0.3950	 5.7860
 0.3960	 5.8260
 0.3970	 5.7800
 0.3980	 5.7260
 0.3990	 5.7790
 0.4000	 5.8120
 0.4010	 5.7820
 0.4020	 5.7830
 0.4030	 5.7760
 0.4040	 5.7700
 0.4050	 5.7820
 0.4060	 5.8160
 0.4070	 5.8510
 0.4080	 5.8680
 0.4090	 5.8600
 0.4100	 5.8840
 0.4110	 5.9090
 0.4120	 5.9140
 0.4130	 5.9030
 0.4140	 5.9210
 0.4150	 5.9520
 0.4160	 5.9680
 0.4170	 5.9880
 0.4180	 6.0070
 0.4190	 6.0270
 0.4200	 6.0580
 0.4210	 6.0680
 0.4220	 6.0720
 0.4230	 6.0890
 0.4240	 6.1250
 0.4250	 6.1450
 0.4260	 6.1450
 0.4270	 6.1460
 0.4280	 6.1820
 0.4290	 6.2070
 0.4300	 6.2080
 0.4310	 6.2350
 0.4320	 6.2510
 0.4330	 6.2590
 0.4340	 6.2720
 0.4350	 6.2830
 0.4360	 6.3020
 0.4370	 6.3240
 0.4380	 6.3320
 0.4390	 6.3410
 0.4400	 6.3600
 0.4410	 6.3870
 0.4420	 6.3980
 0.4430	 6.4090
 0.4440	 6.4230
 0.4450	 6.4350
 0.4460	 6.4450
 0.4470	 6.4550
 0.4480	 6.4740
 0.4490	 6.5140
 0.4500	 6.5260
 0.4510	 6.5260
 0.4520	 6.5360
 0.4530	 6.5360
 0.4540	 6.5540
 0.4550	 6.5800
 0.4560	 6.5810
 0.4570	 6.5840
 0.4580	 6.5880
 0.4590	 6.5920
 0.4600	 6.6020
 0.4610	 6.6060
 0.4620	 6.6080
 0.4630	 6.6150
 0.4640	 6.6310
 0.4650	 6.6410
 0.4660	 6.6420
 0.4670	 6.6490
 0.4680	 6.6410
 0.4690	 6.6360
 0.4700	 6.6460
 0.4710	 6.6440
 0.4720	 6.6510
 0.4730	 6.6660
 0.4740	 6.6740
 0.4750	 6.6570
 0.4760	 6.6530
 0.4770	 6.6710
 0.4780	 6.6650
 0.4790	 6.6650
 0.4800	 6.6690
 0.4810	 6.6700
 0.4820	 6.6780
 0.4830	 6.6890
 0.4840	 6.6970
 0.4850	 6.6930
 0.4860	 6.7030
 0.4870	 6.7190
 0.4880	 6.7280
 0.4890	 6.7280
 0.4900	 6.7390
 0.4910	 6.7600
 0.4920	 6.7770
 0.4930	 6.7870
 0.4940	 6.8030
 0.4950	 6.8290
 0.4960	 6.8440
 0.4970	 6.8650
 0.4980	 6.8930
 0.4990	 6.9220
 0.5000	 6.9570
 0.5010	 6.9990
 0.5020	 7.0400
 0.5030	 7.0720
 0.5040	 7.1230
 0.5050	 7.1780
 0.5060	 7.2290
 0.5070	 7.2980
 0.5080	 7.3790
 0.5090	 7.4650
 0.5100	 7.5490
 0.5110	 7.6500
 0.5120	 7.7640
 0.5130	 7.8890
 0.5140	 8.0260
 0.5150	 8.1800
 0.5160	 8.3460
 0.5170	 8.5180
 0.5180	 8.7010
 0.5190	 8.8920
 0.5200	 9.0930
 0.5210	 9.3060
 0.5220	 9.5260
 0.5230	 9.7460
 0.5240	 9.9620
 0.5250	10.1740
 0.5260	10.3840
 0.5270	10.5860
 0.5280	10.7760
 0.5290	10.9600
 0.5300	11.1320
 0.5310	11.2910
 0.5320	11.4360
 0.5330	11.5650
 0.5340	11.6820
 0.5350	11.7920
 0.5360	11.8890
 0.5370	11.9750
 0.5380	12.0510
 0.5390	12.1200
 0.5400	12.1910
 0.5410	12.2600
 0.5420	12.3210
 0.5430	12.3720
 0.5440	12.4270
 0.5450	12.4820
 0.5460	12.5250
 0.5470	12.5670
 0.5480	12.6020
 0.5490	12.6310
 0.5500	12.6540
 0.5510	12.6740
 0.5520	12.6850
 0.5530	12.6810
 0.5540	12.6650
 0.5550	12.6380
 0.5560	12.5970
 0.5570	12.5430
 0.5580	12.4740
 0.5590	12.3950
 0.5600	12.3070
 0.5610	12.2050
 0.5620	12.1020
 0.5630	11.9890
 0.5640	11.8580
 0.5650	11.7300
 0.5660	11.6000
 0.5670	11.4630
 0.5680	11.3180
 0.5690	11.1660
 0.5700	11.0150
 0.5710	10.8720
 0.5720	10.7340
 0.5730	10.5980
 0.5740	10.4700
 0.5750	10.3580
 0.5760	10.2560
 0.5770	10.1610
 0.5780	10.0710
 0.5790	 9.9710
 0.5800	 9.8820
 0.5810	 9.8030
 0.5820	 9.7310
 0.5830	 9.6710
 0.5840	 9.6130
 0.5850	 9.5530
 0.5860	 9.4910
 0.5870	 9.4300
 0.5880	 9.3750
 0.5890	 9.3290
 0.5900	 9.2940
 0.5910	 9.2690
 0.5920	 9.2480
 0.5930	 9.2240
 0.5940	 9.1930
 0.5950	 9.1620
 0.5960	 9.1360
 0.5970	 9.1140
 0.5980	 9.0910
 0.5990	 9.0660
 0.6000	 9.0370
 0.6010	 9.0080
 0.6020	 8.9730
 0.6030	 8.9340
 0.6040	 8.8930
 0.6050	 8.8480
 0.6060	 8.7980
 0.6070	 8.7430
 0.6080	 8.6840
 0.6090	 8.6270
 0.6100	 8.5720
 0.6110	 8.5120
 0.6120	 8.4500
 0.6130	 8.3900
 0.6140	 8.3350
 0.6150	 8.2780
 0.6160	 8.2280
 0.6170	 8.1810
 0.6180	 8.1340
 0.6190	 8.0930
 0.6200	 8.0560
 0.6210	 8.0230
 0.6220	 7.9960
 0.6230	 7.9730
 0.6240	 7.9520
 0.6250	 7.9330
 0.6260	 7.9180
 0.6270	 7.9080
 0.6280	 7.9010
 0.6290	 7.8920
 0.6300	 7.8820
 0.6310	 7.8730
 0.6320	 7.8640
 0.6330	 7.8500
 0.6340	 7.8360
 0.6350	 7.8150
 0.6360	 7.7830
 0.6370	 7.7490
 0.6380	 7.7110
 0.6390	 7.6670
 0.6400	 7.6180
 0.6410	 7.5660
 0.6420	 7.5120
 0.6430	 7.4570
 0.6440	 7.4040
 0.6450	 7.3550
 0.6460	 7.3060
 0.6470	 7.2540
 0.6480	 7.2070
 0.6490	 7.1660
 0.6500	 7.1310
 0.6510	 7.1000
 0.6520	 7.0760
 0.6530	 7.0520
 0.6540	 7.0220
 0.6550	 7.0020
 0.6560	 6.9770
 0.6570	 6.9470
 0.6580	 6.9170
 0.6590	 6.8860
 0.6600	 6.8540
 0.6610	 6.8220
 0.6620	 6.7930
 0.6630	 6.7700
 0.6640	 6.7500
 0.6650	 6.7310
 0.6660	 6.7140
 0.6670	 6.7030
 0.6680	 6.6970
 0.6690	 6.6960
 0.6700	 6.6970
 0.6710	 6.6990
 0.6720	 6.7020
 0.6730	 6.7120
 0.6740	 6.7270
 0.6750	 6.7430
 0.6760	 6.7610
 0.6770	 6.7800
 0.6780	 6.8020
 0.6790	 6.8290
 0.6800	 6.8610
 0.6810	 6.8930
 0.6820	 6.9280
 0.6830	 6.9710
 0.6840	 7.0210
 0.6850	 7.0760
 0.6860	 7.1410
 0.6870	 7.2210
 0.6880	 7.3240
 0.6890	 7.4520
 0.6900	 7.6110
 0.6910	 7.8110
 0.6920	 8.0580
 0.6930	 8.3630
 0.6940	 8.7310
 0.6950	 9.1640
 0.6960	 9.6700
 0.6970	10.2500
 0.6980	10.9020
 0.6990	11.6280
 0.7000	12.4250
 0.7010	13.2830
 0.7020	14.1890
 0.7030	15.1410
 0.7040	16.1300
 0.7050	17.1450
 0.7060	18.1820
 0.7070	19.2350
 0.7080	20.2970
 0.7090	21.3670
 0.7100	22.4440
 0.7110	23.5220
 0.7120	24.5960
 0.7130	25.6640
 0.7140	26.7210
 0.7150	27.7710
 0.7160	28.8110
 0.7170	29.8330
 0.7180	30.8320
 0.7190	31.8100
 0.7200	32.7720
 0.7210	33.7080
 0.7220	34.6160
 0.7230	35.4930
 0.7240	36.3420
 0.7250	37.1570
 0.7260	37.9410
 0.7270	38.6940
 0.7280	39.4080
 0.7290	40.0860
 0.7300	40.7300
 0.7310	41.3430
 0.7320	41.9200
 0.7330	42.4650
 0.7340	42.9780
 0.7350	43.4620
 0.7360	43.9170
 0.7370	44.3440
 0.7380	44.7450
 0.7390	45.1230
 0.7400	45.4770
 0.7410	45.8040
 0.7420	46.1030
 0.7430	46.3830
 0.7440	46.6470
 0.7450	46.8930
 0.7460	47.1150
 0.7470	47.3260
 0.7480	47.5170
 0.7490	47.6860
 0.7500	47.8500
 0.7510	47.9950
 0.7520	48.1270
 0.7530	48.2520
 0.7540	48.3650
 0.7550	48.4670
 0.7560	48.5580
 0.7570	48.6400
 0.7580	48.7150
 0.7590	48.7860
 0.7600	48.8550
 0.7610	48.9120
 0.7620	48.9650
 0.7630	49.0160
 0.7640	49.0620
 0.7650	49.0980
 0.7660	49.1360
 0.7670	49.1760
 0.7680	49.2070
 0.7690	49.2320
 0.7700	49.2570
 0.7710	49.2840
 0.7720	49.3140
 0.7730	49.3350
 0.7740	49.3510
 0.7750	49.3680
 0.7760	49.3860
 0.7770	49.4060
 0.7780	49.4270
 0.7790	49.4490
 0.7800	49.4700
 0.7810	49.4850
 0.7820	49.4970
 0.7830	49.5120
 0.7840	49.5300
 0.7850	49.5470
 0.7860	49.5600
 0.7870	49.5750
 0.7880	49.5850
 0.7890	49.5950
 0.7900	49.6120
 0.7910	49.6260
 0.7920	49.6430
 0.7930	49.6590
 0.7940	49.6650
 0.7950	49.6680
 0.7960	49.6780
 0.7970	49.6920
 0.7980	49.6970
 0.7990	49.7040
 0.8000	49.7100
 0.8010	49.7110
 0.8020	49.7130
 0.8030	49.7160
 0.8040	49.7210
 0.8050	49.7240
 0.8060	49.7260
 0.8070	49.7300
 0.8080	49.7320
 0.8090	49.7270
 0.8100	49.7220
 0.8110	49.7240
 0.8120	49.7330
 0.8130	49.7290
 0.8140	49.7230
 0.8150	49.7200
 0.8160	49.7220
 0.8170	49.7180
 0.8180	49.7110
 0.8190	49.7070
 0.8200	49.7100
 0.8210	49.7000
 0.8220	49.6940
 0.8230	49.6920
 0.8240	49.6860
 0.8250	49.6790
 0.8260	49.6710
 0.8270	49.6650
 0.8280	49.6620
 0.8290	49.6540
 0.8300	49.6470
 0.8310	49.6450
 0.8320	49.6380
 0.8330	49.6300
 0.8340	49.6230
 0.8350	49.6180
 0.8360	49.6190
 0.8370	49.6120
 0.8380	49.6020
 0.8390	49.6070
 0.8400	49.6130
 0.8410	49.6120
 0.8420	49.6080
 0.8430	49.6130
 0.8440	49.6200
 0.8450	49.6240
 0.8460	49.6240
 0.8470	49.6190
 0.8480	49.6210
 0.8490	49.6270
 0.8500	49.6300
 0.8510	49.6380
 0.8520	49.6450
 0.8530	49.6470
 0.8540	49.6460
 0.8550	49.6550
 0.8560	49.6620
 0.8570	49.6620
 0.8580	49.6660
 0.8590	49.6730
 0.8600	49.6770
 0.8610	49.6780
 0.8620	49.6840
 0.8630	49.6880
 0.8640	49.6930
 0.8650	49.7020
 0.8660	49.7030
 0.8670	49.7060
 0.8680	49.7100
 0.8690	49.7170
 0.8700	49.7250
 0.8710	49.7320
 0.8720	49.7380
 0.8730	49.7470
 0.8740	49.7510
 0.8750	49.7590
 0.8760	49.7700
 0.8770	49.7720
 0.8780	49.7730
 0.8790	49.7860
 0.8800	49.8060
 0.8810	49.8110
 0.8820	49.8150
 0.8830	49.8200
 0.8840	49.8270
 0.8850	49.8300
 0.8860	49.8420
 0.8870	49.8520
 0.8880	49.8500
 0.8890	49.8540
 0.8900	49.8630
 0.8910	49.8720
 0.8920	49.8790
 0.8930	49.8860
 0.8940	49.8920
 0.8950	49.8950
 0.8960	49.8980
 0.8970	49.8980
 0.8980	49.8980
 0.8990	49.8990
 0.9000	49.9040
 0.9010	49.9100
 0.9020	49.9180
 0.9030	49.9270
 0.9040	49.9310
 0.9050	49.9280
 0.9060	49.9280
 0.9070	49.9360
 0.9080	49.9390
 0.9090	49.9400
 0.9100	49.9430
 0.9110	49.9490
 0.9120	49.9510
 0.9130	49.9550
 0.9140	49.9570
 0.9150	49.9540
 0.9160	49.9560
 0.9170	49.9530
 0.9180	49.9480
 0.9190	49.9510
 0.9200	49.9550
 0.9210	49.9480
 0.9220	49.9330
 0.9230	49.9220
 0.9240	49.9190
 0.9250	49.9110
 0.9260	49.8980
 0.9270	49.8920
 0.9280	49.8810
 0.9290	49.8630
 0.9300	49.8430
 0.9310	49.8270
 0.9320	49.8030
 0.9330	49.7740
 0.9340	49.7480
 0.9350	49.7300
 0.9360	49.7090
 0.9370	49.6840
 0.9380	49.6570
 0.9390	49.6300
 0.9400	49.6030
 0.9410	49.5740
 0.9420	49.5390
 0.9430	49.4990
 0.9440	49.4590
 0.9450	49.4150
 0.9460	49.3660
 0.9470	49.3200
 0.9480	49.2740
 0.9490	49.2140
 0.9500	49.1370
 0.9510	49.0810
 0.9520	49.0040
 0.9530	48.9190
 0.9540	48.8440
 0.9550	48.7750
 0.9560	48.6960
 0.9570	48.6170
 0.9580	48.5480
 0.9590	48.4730
 0.9600	48.4140
 0.9610	48.3660
 0.9620	48.3160
 0.9630	48.2730
 0.9640	48.2310
 0.9650	48.1920
 0.9660	48.1620
 0.9670	48.1350
 0.9680	48.1170
 0.9690	48.0970
 0.9700	48.0660
 0.9710	48.0430
 0.9720	48.0390
 0.9730	48.0410
 0.9740	48.0270
 0.9750	48.0180
 0.9760	48.0130
 0.9770	48.0130
 0.9780	48.0150
 0.9790	48.0140
 0.9800	48.0130
 0.9810	48.0180
 0.9820	48.0290
 0.9830	48.0430
 0.9840	48.0500
 0.9850	48.0570
 0.9860	48.0740
 0.9870	48.0910
 0.9880	48.1080
 0.9890	48.1260
 0.9900	48.1500
 0.9910	48.1890
 0.9920	48.2250
 0.9930	48.2610
 0.9940	48.2970
 0.9950	48.3330
 0.9960	48.3690
 0.9970	48.4050
 0.9980	48.4410
 0.9990	48.4770
 1.0000	48.5130
 1.0010	48.5490
 1.0020	48.5850
 1.0030	48.6210
 1.0040	48.6570
 1.0050	48.6930
 1.0060	48.7290
 1.0070	48.7650
 1.0080	48.8010
 1.0090	48.8370
 1.0100	48.8370
 1.0110	48.8680
 1.0120	48.8960
 1.0130	48.9230
 1.0140	48.9490
 1.0150	48.9720
 1.0160	48.9950
 1.0170	49.0210
 1.0180	49.0450
 1.0190	49.0690
 1.0200	49.0930
 1.0210	49.1150
 1.0220	49.1400
 1.0230	49.1620
 1.0240	49.1840
 1.0250	49.2070
 1.0260	49.2300
 1.0270	49.2520
 1.0280	49.2780
 1.0290	49.3010
 1.0300	49.3240
 1.0310	49.3430
 1.0320	49.3590
 1.0330	49.3700
 1.0340	49.3870
 1.0350	49.4020
 1.0360	49.4220
 1.0370	49.4440
 1.0380	49.4600
 1.0390	49.4700
 1.0400	49.4860
 1.0410	49.5040
 1.0420	49.5160
 1.0430	49.5260
 1.0440	49.5380
 1.0450	49.5440
 1.0460	49.5550
 1.0470	49.5710
 1.0480	49.5830
 1.0490	49.5940
 1.0500	49.6040
 1.0510	49.6150
 1.0520	49.6260
 1.0530	49.6350
 1.0540	49.6420
 1.0550	49.6510
 1.0560	49.6600
 1.0570	49.6690
 1.0580	49.6820
 1.0590	49.6900
 1.0600	49.6920
 1.0610	49.6990
 1.0620	49.7060
 1.0630	49.7130
 1.0640	49.7260
 1.0650	49.7330
 1.0660	49.7360
 1.0670	49.7400
 1.0680	49.7430
 1.0690	49.7420
 1.0700	49.7480
 1.0710	49.7590
 1.0720	49.7640
 1.0730	49.7710
 1.0740	49.7740
 1.0750	49.7720
 1.0760	49.7730
 1.0770	49.7760
 1.0780	49.7780
 1.0790	49.7780
 1.0800	49.7790
 1.0810	49.7800
 1.0820	49.7800
 1.0830	49.7800
 1.0840	49.7780
 1.0850	49.7730
 1.0860	49.7700
 1.0870	49.7670
 1.0880	49.7640
 1.0890	49.7570
 1.0900	49.7500
 1.0910	49.7440
 1.0920	49.7350
 1.0930	49.7260
 1.0940	49.7190
 1.0950	49.7110
 1.0960	49.6990
 1.0970	49.6890
 1.0980	49.6810
 1.0990	49.6690
 1.1000	49.6550
 1.1010	49.6420
 1.1020	49.6290
 1.1030	49.6130
 1.1040	49.5980
 1.1050	49.5810
 1.1060	49.5640
 1.1070	49.5460
 1.1080	49.5260
 1.1090	49.5080
 1.1100	49.4860
 1.1110	49.4610
 1.1120	49.4360
 1.1130	49.4080
 1.1140	49.3810
 1.1150	49.3550
 1.1160	49.3250
 1.1170	49.2960
 1.1180	49.2610
 1.1190	49.2240
 1.1200	49.1820
 1.1210	49.1390
 1.1220	49.0890
 1.1230	49.0360
 1.1240	48.9800
 1.1250	48.9150
 1.1260	48.8460
 1.1270	48.7700
 1.1280	48.6880
 1.1290	48.5980
 1.1300	48.5020
 1.1310	48.3970
 1.1320	48.2830
 1.1330	48.1630
 1.1340	48.0360
 1.1350	47.9030
 1.1360	47.7640
 1.1370	47.6180
 1.1380	47.4660
 1.1390	47.3090
 1.1400	47.1450
 1.1410	46.9780
 1.1420	46.8100
 1.1430	46.6380
 1.1440	46.4670
 1.1450	46.2940
 1.1460	46.1260
 1.1470	45.9570
 1.1480	45.7980
 1.1490	45.6400
 1.1500	45.4960
 1.1510	45.3590
 1.1520	45.2320
 1.1530	45.1150
 1.1540	45.0060
 1.1550	44.9030
 1.1560	44.8130
 1.1570	44.7350
 1.1580	44.6660
 1.1590	44.6060
 1.1600	44.5520
 1.1610	44.5040
 1.1620	44.4610
 1.1630	44.4260
 1.1640	44.3970
 1.1650	44.3710
 1.1660	44.3510
 1.1670	44.3330
 1.1680	44.3190
 1.1690	44.3080
 1.1700	44.3030
 1.1710	44.2940
 1.1720	44.2840
 1.1730	44.2750
 1.1740	44.2650
 1.1750	44.2530
 1.1760	44.2400
 1.1770	44.2290
 1.1780	44.2140
 1.1790	44.1970
 1.1800	44.1800
 1.1810	44.1630
 1.1820	44.1450
 1.1830	44.1270
 1.1840	44.1120
 1.1850	44.0970
 1.1860	44.0780
 1.1870	44.0620
 1.1880	44.0470
 1.1890	44.0290
 1.1900	44.0150
 1.1910	44.0070
 1.1920	43.9970
 1.1930	43.9860
 1.1940	43.9790
 1.1950	43.9750
 1.1960	43.9720
 1.1970	43.9720
 1.1980	43.9740
 1.1990	43.9760
 1.2000	43.9800
 1.2010	43.9880
 1.2020	43.9980
 1.2030	44.0100
 1.2040	44.0250
 1.2050	44.0430
 1.2060	44.0630
 1.2070	44.0840
 1.2080	44.1070
 1.2090	44.1330
 1.2100	44.1620
 1.2110	44.1920
 1.2120	44.2250
 1.2130	44.2590
 1.2140	44.2950
 1.2150	44.3310
 1.2160	44.3690
 1.2170	44.4080
 1.2180	44.4480
 1.2190	44.4870
 1.2200	44.5280
 1.2210	44.5730
 1.2220	44.6160
 1.2230	44.6560
 1.2240	44.6950
 1.2250	44.7330
 1.2260	44.7680
 1.2270	44.8050
 1.2280	44.8420
 1.2290	44.8770
 1.2300	44.9110
 1.2310	44.9430
 1.2320	44.9730
 1.2330	45.0020
 1.2340	45.0320
 1.2350	45.0620
 1.2360	45.0900
 1.2370	45.1170
 1.2380	45.1440
 1.2390	45.1710
 1.2400	45.1970
 1.2410	45.2210
 1.2420	45.2450
 1.2430	45.2650
 1.2440	45.2860
 1.2450	45.3050
 1.2460	45.3220
 1.2470	45.3380
 1.2480	45.3540
 1.2490	45.3690
 1.2500	45.3850
 1.2510	45.4010
 1.2520	45.4150
 1.2530	45.4260
 1.2540	45.4360
 1.2550	45.4430
 1.2560	45.4510
 1.2570	45.4590
 1.2580	45.4650
 1.2590	45.4710
 1.2600	45.4780
 1.2610	45.4820
 1.2620	45.4850
 1.2630	45.4860
 1.2640	45.4880
 1.2650	45.4860
 1.2660	45.4830
 1.2670	45.4800
 1.2680	45.4730
 1.2690	45.4670
 1.2700	45.4600
 1.2710	45.4530
 1.2720	45.4450
 1.2730	45.4330
 1.2740	45.4190
 1.2750	45.4040
 1.2760	45.3870
 1.2770	45.3700
 1.2780	45.3520
 1.2790	45.3310
 1.2800	45.3080
 1.2810	45.2830
 1.2820	45.2570
 1.2830	45.2320
 1.2840	45.2060
 1.2850	45.1790
 1.2860	45.1510
 1.2870	45.1200
 1.2880	45.0850
 1.2890	45.0500
 1.2900	45.0130
 1.2910	44.9740
 1.2920	44.9350
 1.2930	44.8940
 1.2940	44.8510
 1.2950	44.8060
 1.2960	44.7600
 1.2970	44.7090
 1.2980	44.6570
 1.2990	44.6050
 1.3000	44.5500
 1.3010	44.4920
 1.3020	44.4300
 1.3030	44.3610
 1.3040	44.2910
 1.3050	44.2190
 1.3060	44.1450
 1.3070	44.0690
 1.3080	43.9910
 1.3090	43.9060
 1.3100	43.8180
 1.3110	43.7250
 1.3120	43.6280
 1.3130	43.5280
 1.3140	43.4220
 1.3150	43.3100
 1.3160	43.1950
 1.3170	43.0770
 1.3180	42.9530
 1.3190	42.8260
 1.3200	42.6960
 1.3210	42.5610
 1.3220	42.4200
 1.3230	42.2760
 1.3240	42.1290
 1.3250	41.9810
 1.3260	41.8270
 1.3270	41.6690
 1.3280	41.5080
 1.3290	41.3420
 1.3300	41.1730
 1.3310	41.0030
 1.3320	40.8300
 1.3330	40.6590
 1.3340	40.4850
 1.3350	40.3110
 1.3360	40.1360
 1.3370	39.9570
 1.3380	39.7780
 1.3390	39.5990
 1.3400	39.4190
 1.3410	39.2430
 1.3420	39.0670
 1.3430	38.8910
 1.3440	38.7170
 1.3450	38.5440
 1.3460	38.3690
 1.3470	38.1990
 1.3480	38.0310
 1.3490	37.8640
 1.3500	37.7000
 1.3510	37.5370
 1.3520	37.3730
 1.3530	37.2110
 1.3540	37.0470
 1.3550	36.8850
 1.3560	36.7230
 1.3570	36.5590
 1.3580	36.3950
 1.3590	36.2290
 1.3600	36.0590
 1.3610	35.8870
 1.3620	35.7090
 1.3630	35.5260
 1.3640	35.3370
 1.3650	35.1380
 1.3660	34.9350
 1.3670	34.7210
 1.3680	34.4960
 1.3690	34.2600
 1.3700	34.0080
 1.3710	33.7440
 1.3720	33.4660
 1.3730	33.1690
 1.3740	32.8590
 1.3750	32.5290
 1.3760	32.1760
 1.3770	31.8030
 1.3780	31.4030
 1.3790	30.9810
 1.3800	30.5380
 1.3810	30.0690
 1.3820	29.5850
 1.3830	29.0820
 1.3840	28.5630
 1.3850	28.0260
 1.3860	27.4780
 1.3870	26.9090
 1.3880	26.3410
 1.3890	25.7650
 1.3900	25.1810
 1.3910	24.6020
 1.3920	24.0210
 1.3930	23.4380
 1.3940	22.8630
 1.3950	22.2900
 1.3960	21.7290
 1.3970	21.1830
 1.3980	20.6510
 1.3990	20.1410
 1.4000	19.6480
 1.4010	19.1730
 1.4020	18.7210
 1.4030	18.2860
 1.4040	17.8750
 1.4050	17.4870
 1.4060	17.1210
 1.4070	16.7810
 1.4080	16.4630
 1.4090	16.1650
 1.4100	15.8900
 1.4110	15.6340
 1.4120	15.3980
 1.4130	15.1810
 1.4140	14.9810
 1.4150	14.8000
 1.4160	14.6350
 1.4170	14.4840
 1.4180	14.3480
 1.4190	14.2230
 1.4200	14.1100
 1.4210	14.0090
 1.4220	13.9180
 1.4230	13.8370
 1.4240	13.7660
 1.4250	13.7020
 1.4260	13.6470
 1.4270	13.5980
 1.4280	13.5570
 1.4290	13.5210
 1.4300	13.4910
 1.4310	13.4670
 1.4320	13.4490
 1.4330	13.4340
 1.4340	13.4230
 1.4350	13.4160
 1.4360	13.4140
 1.4370	13.4150
 1.4380	13.4200
 1.4390	13.4290
 1.4400	13.4400
 1.4410	13.4520
 1.4420	13.4660
 1.4430	13.4830
 1.4440	13.5010
 1.4450	13.5210
 1.4460	13.5430
 1.4470	13.5630
 1.4480	13.5860
 1.4490	13.6090
 1.4500	13.6330
 1.4510	13.6600
 1.4520	13.6870
 1.4530	13.7140
 1.4540	13.7430
 1.4550	13.7720
 1.4560	13.8020
 1.4570	13.8340
 1.4580	13.8690
 1.4590	13.9050
 1.4600	13.9450
 1.4610	13.9880
 1.4620	14.0340
 1.4630	14.0830
 1.4640	14.1360
 1.4650	14.1930
 1.4660	14.2550
 1.4670	14.3200
 1.4680	14.3900
 1.4690	14.4650
 1.4700	14.5420
