Name: Melateuca lanceolata
Type: vegetation
Class: Tree
Genus: Melateuca
Species: lanceolata
Sample No.: JPL223
Owner: JPL
Wavelength Range: TIR
Origin: 34.12436; -118.1144; WGS84
Collection Date: 10/3/2016
Description: Samples were collected at the Huntington Garden in San Marino California as part of a JPL Subcontract studying HyTES imagery. Samples were taken to JPL and processed within 48 hours of collection. The same leaves were processed in the Nicolet and then measured using the ASD.
Measurement: Hemispherical reflectance
First Column: X
Second Column: Y
X Units: Wavelength (micrometer)
Y Units: Reflectance (percentage)
First X Value: 2.501
Last X Value: 15.387
Number of X Values: 1737
Additional Information: vegetation.tree.melateuca.lanceolata.tir.jpl223.jpl.nicolet.ancillary.txt

 2.5010	 5.1920
 2.5030	 5.2000
 2.5040	 5.2310
 2.5050	 5.1610
 2.5060	 5.1250
 2.5070	 5.1210
 2.5090	 5.1090
 2.5100	 5.0870
 2.5110	 5.1370
 2.5120	 5.0800
 2.5140	 5.0570
 2.5150	 5.0540
 2.5160	 5.0790
 2.5170	 5.0610
 2.5180	 5.0620
 2.5200	 5.0610
 2.5210	 5.1290
 2.5220	 5.1080
 2.5230	 5.1450
 2.5250	 5.1340
 2.5260	 5.0890
 2.5270	 5.0170
 2.5280	 5.0550
 2.5300	 5.0430
 2.5310	 5.0210
 2.5320	 5.0390
 2.5330	 5.1170
 2.5340	 5.1520
 2.5360	 5.1800
 2.5370	 5.0960
 2.5380	 5.0570
 2.5390	 5.0120
 2.5410	 5.0490
 2.5420	 5.0070
 2.5430	 4.9830
 2.5440	 5.0200
 2.5460	 5.1500
 2.5470	 5.1760
 2.5480	 5.1580
 2.5490	 5.1010
 2.5510	 5.0840
 2.5520	 5.0370
 2.5530	 5.0180
 2.5540	 5.0300
 2.5560	 5.0630
 2.5570	 5.0740
 2.5580	 5.1260
 2.5590	 5.1190
 2.5610	 5.0650
 2.5620	 4.9660
 2.5630	 4.9860
 2.5650	 5.0150
 2.5660	 5.0990
 2.5670	 5.1450
 2.5680	 5.1440
 2.5700	 5.0420
 2.5710	 5.1020
 2.5720	 5.1350
 2.5730	 4.9940
 2.5750	 4.9660
 2.5760	 5.0490
 2.5770	 5.0050
 2.5790	 5.1720
 2.5800	 5.2200
 2.5810	 5.0820
 2.5820	 5.0320
 2.5840	 4.9280
 2.5850	 4.8520
 2.5860	 5.0060
 2.5880	 4.9420
 2.5890	 5.0130
 2.5900	 5.0580
 2.5910	 5.0820
 2.5930	 5.0510
 2.5940	 4.8130
 2.5950	 4.5600
 2.5970	 4.8170
 2.5980	 5.0510
 2.5990	 5.1030
 2.6010	 5.0180
 2.6020	 4.9850
 2.6030	 4.9730
 2.6040	 4.8910
 2.6060	 4.7070
 2.6070	 4.8120
 2.6080	 4.9030
 2.6100	 4.9270
 2.6110	 4.9170
 2.6120	 4.9380
 2.6140	 4.9040
 2.6150	 4.8820
 2.6160	 4.7220
 2.6180	 4.6940
 2.6190	 4.7600
 2.6200	 4.7000
 2.6220	 4.7060
 2.6230	 4.8960
 2.6240	 4.8780
 2.6260	 4.8410
 2.6270	 4.6600
 2.6280	 4.7230
 2.6300	 4.6750
 2.6310	 4.5510
 2.6320	 4.5890
 2.6340	 4.6180
 2.6350	 4.6270
 2.6360	 4.7490
 2.6380	 4.7050
 2.6390	 4.7210
 2.6400	 4.6650
 2.6420	 4.6050
 2.6430	 4.6000
 2.6440	 4.6940
 2.6460	 4.5900
 2.6470	 4.5130
 2.6480	 4.4980
 2.6500	 4.4960
 2.6510	 4.4200
 2.6520	 4.3590
 2.6540	 4.3980
 2.6550	 4.5130
 2.6570	 4.4150
 2.6580	 4.3940
 2.6590	 4.3670
 2.6610	 4.3630
 2.6620	 4.3440
 2.6630	 4.3220
 2.6650	 4.0840
 2.6660	 3.9800
 2.6670	 4.0240
 2.6690	 4.1250
 2.6700	 3.9170
 2.6720	 3.8770
 2.6730	 4.1050
 2.6740	 4.1810
 2.6760	 4.0070
 2.6770	 3.9040
 2.6780	 3.9110
 2.6800	 3.9780
 2.6810	 4.0510
 2.6830	 4.0920
 2.6840	 4.0340
 2.6850	 4.0700
 2.6870	 3.9870
 2.6880	 3.9550
 2.6900	 3.9150
 2.6910	 3.9440
 2.6920	 3.8180
 2.6940	 3.6420
 2.6950	 3.6380
 2.6970	 3.7390
 2.6980	 3.7520
 2.6990	 3.7470
 2.7010	 3.6550
 2.7020	 3.6080
 2.7040	 3.6420
 2.7050	 3.7240
 2.7060	 3.6680
 2.7080	 3.5980
 2.7090	 3.4700
 2.7110	 3.3890
 2.7120	 3.3580
 2.7130	 3.5140
 2.7150	 3.4830
 2.7160	 3.4830
 2.7180	 3.4040
 2.7190	 3.3680
 2.7210	 3.1970
 2.7220	 3.2430
 2.7230	 3.1770
 2.7250	 3.0820
 2.7260	 3.1470
 2.7280	 3.2320
 2.7290	 3.2410
 2.7310	 3.3140
 2.7320	 3.2950
 2.7340	 3.2910
 2.7350	 3.1640
 2.7360	 3.1610
 2.7380	 3.0890
 2.7390	 2.9680
 2.7410	 2.9430
 2.7420	 3.0130
 2.7440	 3.0510
 2.7450	 3.0970
 2.7470	 3.0730
 2.7480	 3.0590
 2.7490	 3.0190
 2.7510	 3.0610
 2.7520	 3.0850
 2.7540	 3.1270
 2.7550	 2.9290
 2.7570	 2.8880
 2.7580	 2.9940
 2.7600	 3.0550
 2.7610	 2.9960
 2.7630	 2.9630
 2.7640	 2.8940
 2.7660	 2.9040
 2.7670	 2.8920
 2.7690	 2.8840
 2.7700	 2.8270
 2.7720	 2.8410
 2.7730	 2.8320
 2.7740	 2.8630
 2.7760	 2.8280
 2.7770	 2.8750
 2.7790	 2.8580
 2.7800	 2.8240
 2.7820	 2.8080
 2.7830	 2.9000
 2.7850	 2.8950
 2.7860	 2.8970
 2.7880	 2.8510
 2.7890	 2.8560
 2.7910	 2.8250
 2.7920	 2.8490
 2.7940	 2.8300
 2.7950	 2.8390
 2.7970	 2.7860
 2.7980	 2.8230
 2.8000	 2.8490
 2.8010	 2.8240
 2.8030	 2.7090
 2.8040	 2.7740
 2.8060	 2.8430
 2.8080	 2.8520
 2.8090	 2.7920
 2.8110	 2.8010
 2.8120	 2.7490
 2.8140	 2.7710
 2.8150	 2.7010
 2.8170	 2.6760
 2.8180	 2.6670
 2.8200	 2.7400
 2.8210	 2.7550
 2.8230	 2.8160
 2.8240	 2.7810
 2.8260	 2.8100
 2.8270	 2.7640
 2.8290	 2.7960
 2.8310	 2.7480
 2.8320	 2.7640
 2.8340	 2.7290
 2.8350	 2.7230
 2.8370	 2.7010
 2.8380	 2.7600
 2.8400	 2.7500
 2.8410	 2.6920
 2.8430	 2.6750
 2.8440	 2.7040
 2.8460	 2.6900
 2.8480	 2.7170
 2.8490	 2.6820
 2.8510	 2.7280
 2.8520	 2.7700
 2.8540	 2.8150
 2.8550	 2.8090
 2.8570	 2.8460
 2.8590	 2.7800
 2.8600	 2.7450
 2.8620	 2.6800
 2.8630	 2.6860
 2.8650	 2.6600
 2.8660	 2.6810
 2.8680	 2.6970
 2.8700	 2.7600
 2.8710	 2.7170
 2.8730	 2.7160
 2.8740	 2.6550
 2.8760	 2.6700
 2.8780	 2.6830
 2.8790	 2.8100
 2.8810	 2.7710
 2.8820	 2.7390
 2.8840	 2.6680
 2.8860	 2.7470
 2.8870	 2.7600
 2.8890	 2.7550
 2.8900	 2.7160
 2.8920	 2.7200
 2.8940	 2.7600
 2.8950	 2.8220
 2.8970	 2.7870
 2.8990	 2.7730
 2.9000	 2.7320
 2.9020	 2.7280
 2.9030	 2.6880
 2.9050	 2.7450
 2.9070	 2.7530
 2.9080	 2.8310
 2.9100	 2.8380
 2.9120	 2.8530
 2.9130	 2.8060
 2.9150	 2.7540
 2.9160	 2.7140
 2.9180	 2.7490
 2.9200	 2.7520
 2.9210	 2.7780
 2.9230	 2.7250
 2.9250	 2.7550
 2.9260	 2.7800
 2.9280	 2.8610
 2.9300	 2.8190
 2.9310	 2.7670
 2.9330	 2.6990
 2.9350	 2.7410
 2.9360	 2.7280
 2.9380	 2.7780
 2.9400	 2.8100
 2.9410	 2.8680
 2.9430	 2.8150
 2.9450	 2.8310
 2.9460	 2.7810
 2.9480	 2.7960
 2.9500	 2.7570
 2.9510	 2.8270
 2.9530	 2.8120
 2.9550	 2.8800
 2.9560	 2.8350
 2.9580	 2.8160
 2.9600	 2.8070
 2.9610	 2.8780
 2.9630	 2.8440
 2.9650	 2.7940
 2.9670	 2.7230
 2.9680	 2.7500
 2.9700	 2.7300
 2.9720	 2.8020
 2.9730	 2.8140
 2.9750	 2.8980
 2.9770	 2.8300
 2.9780	 2.7900
 2.9800	 2.8060
 2.9820	 2.8880
 2.9840	 2.8330
 2.9850	 2.8070
 2.9870	 2.7920
 2.9890	 2.8250
 2.9900	 2.8030
 2.9920	 2.8260
 2.9940	 2.7590
 2.9960	 2.7570
 2.9970	 2.7190
 2.9990	 2.7720
 3.0010	 2.7750
 3.0030	 2.8070
 3.0040	 2.7990
 3.0060	 2.8370
 3.0080	 2.8110
 3.0100	 2.8220
 3.0110	 2.8490
 3.0130	 2.9240
 3.0150	 2.8640
 3.0170	 2.8430
 3.0180	 2.8150
 3.0200	 2.8890
 3.0220	 2.8890
 3.0240	 2.9130
 3.0250	 2.8170
 3.0270	 2.8110
 3.0290	 2.8340
 3.0310	 2.8330
 3.0320	 2.7940
 3.0340	 2.8370
 3.0360	 2.8220
 3.0380	 2.8440
 3.0400	 2.8090
 3.0410	 2.8150
 3.0430	 2.7540
 3.0450	 2.8030
 3.0470	 2.8170
 3.0480	 2.8790
 3.0500	 2.8580
 3.0520	 2.8800
 3.0540	 2.8860
 3.0560	 2.8550
 3.0570	 2.7810
 3.0590	 2.8380
 3.0610	 2.8430
 3.0630	 2.8290
 3.0650	 2.7890
 3.0670	 2.8560
 3.0680	 2.8560
 3.0700	 2.8450
 3.0720	 2.8160
 3.0740	 2.8410
 3.0760	 2.8350
 3.0770	 2.8630
 3.0790	 2.8450
 3.0810	 2.9080
 3.0830	 2.8670
 3.0850	 2.8240
 3.0870	 2.8360
 3.0880	 2.9140
 3.0900	 2.8570
 3.0920	 2.8200
 3.0940	 2.7780
 3.0960	 2.8010
 3.0980	 2.7690
 3.1000	 2.8090
 3.1010	 2.8470
 3.1030	 2.8730
 3.1050	 2.8580
 3.1070	 2.8860
 3.1090	 2.8880
 3.1110	 2.9030
 3.1130	 2.8480
 3.1140	 2.8720
 3.1160	 2.8390
 3.1180	 2.8370
 3.1200	 2.8660
 3.1220	 2.9040
 3.1240	 2.8110
 3.1260	 2.8420
 3.1280	 2.8580
 3.1290	 2.8690
 3.1310	 2.8530
 3.1330	 2.8610
 3.1350	 2.8390
 3.1370	 2.8990
 3.1390	 2.8940
 3.1410	 2.9010
 3.1430	 2.8790
 3.1450	 2.8680
 3.1470	 2.8480
 3.1480	 2.9010
 3.1500	 2.8480
 3.1520	 2.7850
 3.1540	 2.7600
 3.1560	 2.8250
 3.1580	 2.8490
 3.1600	 2.8750
 3.1620	 2.8230
 3.1640	 2.8280
 3.1660	 2.8030
 3.1680	 2.8490
 3.1700	 2.8230
 3.1720	 2.8470
 3.1730	 2.8540
 3.1750	 2.8960
 3.1770	 2.8800
 3.1790	 2.9240
 3.1810	 2.9020
 3.1830	 2.8680
 3.1850	 2.8330
 3.1870	 2.8460
 3.1890	 2.8440
 3.1910	 2.9130
 3.1930	 2.9000
 3.1950	 2.8910
 3.1970	 2.8310
 3.1990	 2.8770
 3.2010	 2.9110
 3.2030	 2.9100
 3.2050	 2.8400
 3.2070	 2.8680
 3.2090	 2.8510
 3.2110	 2.8390
 3.2130	 2.8500
 3.2150	 2.9220
 3.2170	 2.8660
 3.2190	 2.8480
 3.2210	 2.8470
 3.2230	 2.8900
 3.2250	 2.9100
 3.2270	 2.9280
 3.2290	 2.8840
 3.2310	 2.8760
 3.2330	 2.8360
 3.2350	 2.8850
 3.2370	 2.8850
 3.2390	 2.9110
 3.2410	 2.9090
 3.2430	 2.9070
 3.2450	 2.8720
 3.2470	 2.8690
 3.2490	 2.8250
 3.2510	 2.8510
 3.2530	 2.8650
 3.2550	 2.8860
 3.2570	 2.8180
 3.2590	 2.8170
 3.2610	 2.7950
 3.2630	 2.8310
 3.2650	 2.8500
 3.2670	 2.9040
 3.2700	 2.8320
 3.2720	 2.7960
 3.2740	 2.7830
 3.2760	 2.8320
 3.2780	 2.8060
 3.2800	 2.8230
 3.2820	 2.8140
 3.2840	 2.8610
 3.2860	 2.8620
 3.2880	 2.8560
 3.2900	 2.8370
 3.2920	 2.8350
 3.2940	 2.7980
 3.2970	 2.8520
 3.2990	 2.8550
 3.3010	 2.8590
 3.3030	 2.8460
 3.3050	 2.8460
 3.3070	 2.7780
 3.3090	 2.7760
 3.3110	 2.7720
 3.3130	 2.7800
 3.3160	 2.7410
 3.3180	 2.7240
 3.3200	 2.7300
 3.3220	 2.7740
 3.3240	 2.7380
 3.3260	 2.7760
 3.3280	 2.7410
 3.3300	 2.7480
 3.3330	 2.7620
 3.3350	 2.7370
 3.3370	 2.6730
 3.3390	 2.6920
 3.3410	 2.7110
 3.3430	 2.7300
 3.3450	 2.7090
 3.3480	 2.7190
 3.3500	 2.6930
 3.3520	 2.6800
 3.3540	 2.6070
 3.3560	 2.6020
 3.3580	 2.6160
 3.3610	 2.6480
 3.3630	 2.6020
 3.3650	 2.6210
 3.3670	 2.6250
 3.3690	 2.6430
 3.3720	 2.6380
 3.3740	 2.6510
 3.3760	 2.6410
 3.3780	 2.6400
 3.3800	 2.6230
 3.3830	 2.6660
 3.3850	 2.6630
 3.3870	 2.6520
 3.3890	 2.6060
 3.3910	 2.5880
 3.3940	 2.5440
 3.3960	 2.6050
 3.3980	 2.6550
 3.4000	 2.6690
 3.4030	 2.6360
 3.4050	 2.7180
 3.4070	 2.7470
 3.4090	 2.8070
 3.4110	 2.8590
 3.4140	 2.9430
 3.4160	 2.9950
 3.4180	 3.1200
 3.4200	 3.2160
 3.4230	 3.3490
 3.4250	 3.4900
 3.4270	 3.6490
 3.4300	 3.6960
 3.4320	 3.6290
 3.4340	 3.4460
 3.4360	 3.3270
 3.4390	 3.2480
 3.4410	 3.2510
 3.4430	 3.2130
 3.4450	 3.2350
 3.4480	 3.2160
 3.4500	 3.2020
 3.4520	 3.1650
 3.4550	 3.1550
 3.4570	 3.0900
 3.4590	 3.0790
 3.4620	 3.0420
 3.4640	 3.0420
 3.4660	 3.0580
 3.4690	 3.0840
 3.4710	 3.0180
 3.4730	 3.0400
 3.4760	 3.0170
 3.4780	 2.9900
 3.4800	 2.9560
 3.4830	 2.9710
 3.4850	 2.9640
 3.4870	 2.9550
 3.4900	 2.9450
 3.4920	 2.9940
 3.4940	 3.0200
 3.4970	 3.0280
 3.4990	 2.9900
 3.5010	 3.0540
 3.5040	 3.1190
 3.5060	 3.2160
 3.5080	 3.3780
 3.5110	 3.6410
 3.5130	 3.6520
 3.5160	 3.5290
 3.5180	 3.4000
 3.5200	 3.3080
 3.5230	 3.2490
 3.5250	 3.2500
 3.5280	 3.2130
 3.5300	 3.2230
 3.5320	 3.2130
 3.5350	 3.2170
 3.5370	 3.2230
 3.5400	 3.2230
 3.5420	 3.1980
 3.5440	 3.1940
 3.5470	 3.1870
 3.5490	 3.1920
 3.5520	 3.1390
 3.5540	 3.1480
 3.5570	 3.1580
 3.5590	 3.1660
 3.5610	 3.1360
 3.5640	 3.1620
 3.5660	 3.1570
 3.5690	 3.1490
 3.5710	 3.1510
 3.5740	 3.1740
 3.5760	 3.1160
 3.5790	 3.1330
 3.5810	 3.1770
 3.5840	 3.1710
 3.5860	 3.1400
 3.5890	 3.1650
 3.5910	 3.1350
 3.5940	 3.1730
 3.5960	 3.2030
 3.5990	 3.1750
 3.6010	 3.1120
 3.6040	 3.1390
 3.6060	 3.1480
 3.6090	 3.1580
 3.6110	 3.1670
 3.6140	 3.1690
 3.6160	 3.1460
 3.6190	 3.1360
 3.6210	 3.1210
 3.6240	 3.1290
 3.6260	 3.1130
 3.6290	 3.1590
 3.6310	 3.1650
 3.6340	 3.1530
 3.6360	 3.1060
 3.6390	 3.1410
 3.6410	 3.1540
 3.6440	 3.1730
 3.6470	 3.1810
 3.6490	 3.2050
 3.6520	 3.1410
 3.6540	 3.1000
 3.6570	 3.1200
 3.6590	 3.1390
 3.6620	 3.0960
 3.6650	 3.1230
 3.6670	 3.1240
 3.6700	 3.1300
 3.6720	 3.1180
 3.6750	 3.1350
 3.6780	 3.1120
 3.6800	 3.1230
 3.6830	 3.1020
 3.6850	 3.1000
 3.6880	 3.1250
 3.6910	 3.1490
 3.6930	 3.1630
 3.6960	 3.1760
 3.6990	 3.1270
 3.7010	 3.1390
 3.7040	 3.1190
 3.7070	 3.1190
 3.7090	 3.1180
 3.7120	 3.1470
 3.7150	 3.1770
 3.7170	 3.2040
 3.7200	 3.1960
 3.7230	 3.1990
 3.7250	 3.1580
 3.7280	 3.1780
 3.7310	 3.1870
 3.7330	 3.1910
 3.7360	 3.1500
 3.7390	 3.1580
 3.7410	 3.1550
 3.7440	 3.1470
 3.7470	 3.1330
 3.7490	 3.1370
 3.7520	 3.1060
 3.7550	 3.1710
 3.7580	 3.2040
 3.7600	 3.2170
 3.7630	 3.2140
 3.7660	 3.2080
 3.7690	 3.1560
 3.7710	 3.1650
 3.7740	 3.1920
 3.7770	 3.1860
 3.7790	 3.1390
 3.7820	 3.1920
 3.7850	 3.1980
 3.7880	 3.2070
 3.7910	 3.2280
 3.7930	 3.2300
 3.7960	 3.1890
 3.7990	 3.1800
 3.8020	 3.1770
 3.8040	 3.1880
 3.8070	 3.1770
 3.8100	 3.2050
 3.8130	 3.2180
 3.8160	 3.2210
 3.8180	 3.1900
 3.8210	 3.1970
 3.8240	 3.1900
 3.8270	 3.2130
 3.8300	 3.2280
 3.8330	 3.2160
 3.8350	 3.2120
 3.8380	 3.2150
 3.8410	 3.2030
 3.8440	 3.2140
 3.8470	 3.2140
 3.8500	 3.2430
 3.8520	 3.2400
 3.8550	 3.2530
 3.8580	 3.2200
 3.8610	 3.2030
 3.8640	 3.2040
 3.8670	 3.2160
 3.8700	 3.1830
 3.8730	 3.2220
 3.8760	 3.2430
 3.8780	 3.2270
 3.8810	 3.2130
 3.8840	 3.2520
 3.8870	 3.2400
 3.8900	 3.2190
 3.8930	 3.2190
 3.8960	 3.2390
 3.8990	 3.2450
 3.9020	 3.2370
 3.9050	 3.2070
 3.9080	 3.1980
 3.9110	 3.1980
 3.9140	 3.2290
 3.9170	 3.2380
 3.9190	 3.2660
 3.9220	 3.2490
 3.9250	 3.2290
 3.9280	 3.2310
 3.9310	 3.2850
 3.9340	 3.2810
 3.9370	 3.2540
 3.9400	 3.2660
 3.9430	 3.2650
 3.9460	 3.2610
 3.9490	 3.2900
 3.9520	 3.2600
 3.9550	 3.2230
 3.9580	 3.2040
 3.9610	 3.2640
 3.9640	 3.2610
 3.9670	 3.2470
 3.9700	 3.2190
 3.9740	 3.2350
 3.9770	 3.2790
 3.9800	 3.3000
 3.9830	 3.3000
 3.9860	 3.3130
 3.9890	 3.2810
 3.9920	 3.2750
 3.9950	 3.2710
 3.9980	 3.2780
 4.0010	 3.2740
 4.0040	 3.2900
 4.0070	 3.3120
 4.0100	 3.3340
 4.0140	 3.3250
 4.0170	 3.3640
 4.0200	 3.3340
 4.0230	 3.3070
 4.0260	 3.2800
 4.0290	 3.3050
 4.0320	 3.3090
 4.0350	 3.3110
 4.0390	 3.2950
 4.0420	 3.3450
 4.0450	 3.3720
 4.0480	 3.3540
 4.0510	 3.3200
 4.0540	 3.3290
 4.0570	 3.3440
 4.0610	 3.3630
 4.0640	 3.3360
 4.0670	 3.3260
 4.0700	 3.3410
 4.0730	 3.3800
 4.0770	 3.3630
 4.0800	 3.3600
 4.0830	 3.3430
 4.0860	 3.3410
 4.0890	 3.3200
 4.0930	 3.3280
 4.0960	 3.3220
 4.0990	 3.3310
 4.1020	 3.3390
 4.1060	 3.3360
 4.1090	 3.3510
 4.1120	 3.3590
 4.1150	 3.3260
 4.1190	 3.3280
 4.1220	 3.3330
 4.1250	 3.3570
 4.1290	 3.3370
 4.1320	 3.3610
 4.1350	 3.3570
 4.1380	 3.3560
 4.1420	 3.3560
 4.1450	 3.3530
 4.1480	 3.3290
 4.1520	 3.3010
 4.1550	 3.2920
 4.1580	 3.3250
 4.1620	 3.3310
 4.1650	 3.3570
 4.1680	 3.3340
 4.1720	 3.3290
 4.1750	 3.3410
 4.1780	 3.3320
 4.1820	 3.3180
 4.1850	 3.3160
 4.1890	 3.3200
 4.1920	 3.3660
 4.1950	 3.3950
 4.1990	 3.3920
 4.2020	 3.4250
 4.2060	 3.4860
 4.2090	 3.4770
 4.2120	 3.4760
 4.2160	 3.5100
 4.2190	 3.5380
 4.2230	 3.5350
 4.2260	 3.6080
 4.2300	 3.6620
 4.2330	 3.6580
 4.2360	 3.5500
 4.2400	 3.5970
 4.2430	 3.7280
 4.2470	 3.6920
 4.2500	 3.5690
 4.2540	 3.5290
 4.2570	 3.5540
 4.2610	 3.6120
 4.2640	 3.6160
 4.2680	 3.6110
 4.2710	 3.6010
 4.2750	 3.5830
 4.2780	 3.5990
 4.2820	 3.6370
 4.2850	 3.6030
 4.2890	 3.6040
 4.2930	 3.4930
 4.2960	 3.4880
 4.3000	 3.5540
 4.3030	 3.5330
 4.3070	 3.4720
 4.3100	 3.4810
 4.3140	 3.4610
 4.3180	 3.4030
 4.3210	 3.3510
 4.3250	 3.3530
 4.3280	 3.3820
 4.3320	 3.3620
 4.3360	 3.2930
 4.3390	 3.2720
 4.3430	 3.2580
 4.3470	 3.2500
 4.3500	 3.2690
 4.3540	 3.3000
 4.3580	 3.2600
 4.3610	 3.2090
 4.3650	 3.1930
 4.3690	 3.2140
 4.3720	 3.2050
 4.3760	 3.2210
 4.3800	 3.2570
 4.3830	 3.2560
 4.3870	 3.2270
 4.3910	 3.2140
 4.3940	 3.1910
 4.3980	 3.1790
 4.4020	 3.1880
 4.4060	 3.2010
 4.4090	 3.2070
 4.4130	 3.1920
 4.4170	 3.1890
 4.4210	 3.2150
 4.4240	 3.2030
 4.4280	 3.1970
 4.4320	 3.1890
 4.4360	 3.1870
 4.4400	 3.1760
 4.4430	 3.1520
 4.4470	 3.1360
 4.4510	 3.1590
 4.4550	 3.1340
 4.4590	 3.1280
 4.4630	 3.1690
 4.4660	 3.1710
 4.4700	 3.1670
 4.4740	 3.1710
 4.4780	 3.1560
 4.4820	 3.1540
 4.4860	 3.1430
 4.4900	 3.1610
 4.4930	 3.1750
 4.4970	 3.1680
 4.5010	 3.1490
 4.5050	 3.1430
 4.5090	 3.1340
 4.5130	 3.1000
 4.5170	 3.0950
 4.5210	 3.1090
 4.5250	 3.1210
 4.5290	 3.1270
 4.5330	 3.1350
 4.5370	 3.1180
 4.5410	 3.1180
 4.5450	 3.1170
 4.5490	 3.1190
 4.5530	 3.1090
 4.5570	 3.0760
 4.5610	 3.0710
 4.5650	 3.0800
 4.5690	 3.0740
 4.5730	 3.0530
 4.5770	 3.0480
 4.5810	 3.0610
 4.5850	 3.0960
 4.5890	 3.1080
 4.5930	 3.1030
 4.5970	 3.0780
 4.6010	 3.0770
 4.6050	 3.0970
 4.6090	 3.0850
 4.6130	 3.0980
 4.6170	 3.1020
 4.6220	 3.0890
 4.6260	 3.0630
 4.6300	 3.0590
 4.6340	 3.0800
 4.6380	 3.0770
 4.6420	 3.0520
 4.6460	 3.0610
 4.6510	 3.0440
 4.6550	 3.0480
 4.6590	 3.0810
 4.6630	 3.0990
 4.6670	 3.0650
 4.6720	 3.0460
 4.6760	 3.0740
 4.6800	 3.0750
 4.6840	 3.0700
 4.6880	 3.0950
 4.6930	 3.0830
 4.6970	 3.0600
 4.7010	 3.0340
 4.7050	 3.0240
 4.7100	 3.0290
 4.7140	 3.0210
 4.7180	 3.0210
 4.7230	 3.0310
 4.7270	 3.0320
 4.7310	 3.0440
 4.7360	 3.0450
 4.7400	 3.0330
 4.7440	 3.0330
 4.7490	 3.0300
 4.7530	 3.0410
 4.7570	 3.0460
 4.7620	 3.0510
 4.7660	 3.0660
 4.7700	 3.0600
 4.7750	 3.0380
 4.7790	 3.0450
 4.7840	 3.0680
 4.7880	 3.0400
 4.7920	 3.0130
 4.7970	 3.0050
 4.8010	 3.0090
 4.8060	 3.0230
 4.8100	 3.0340
 4.8150	 3.0240
 4.8190	 3.0160
 4.8240	 3.0070
 4.8280	 3.0030
 4.8330	 2.9840
 4.8370	 3.0080
 4.8420	 3.0050
 4.8460	 2.9910
 4.8510	 3.0020
 4.8550	 3.0120
 4.8600	 3.0230
 4.8640	 3.0180
 4.8690	 3.0090
 4.8740	 3.0160
 4.8780	 2.9910
 4.8830	 2.9780
 4.8870	 3.0060
 4.8920	 3.0200
 4.8970	 3.0040
 4.9010	 3.0110
 4.9060	 3.0270
 4.9100	 3.0410
 4.9150	 3.0210
 4.9200	 3.0070
 4.9240	 2.9640
 4.9290	 2.9540
 4.9340	 2.9780
 4.9390	 3.0020
 4.9430	 2.9920
 4.9480	 2.9990
 4.9530	 3.0340
 4.9570	 3.0310
 4.9620	 2.9950
 4.9670	 2.9890
 4.9720	 2.9930
 4.9760	 2.9840
 4.9810	 2.9980
 4.9860	 3.0190
 4.9910	 2.9980
 4.9960	 3.0100
 5.0000	 3.0340
 5.0050	 3.0380
 5.0100	 3.0210
 5.0150	 3.0150
 5.0200	 2.9870
 5.0250	 2.9910
 5.0300	 2.9880
 5.0340	 3.0020
 5.0390	 3.0210
 5.0440	 3.0380
 5.0490	 3.0350
 5.0540	 3.0540
 5.0590	 3.0410
 5.0640	 3.0100
 5.0690	 3.0030
 5.0740	 3.0150
 5.0790	 3.0300
 5.0840	 3.0410
 5.0890	 3.0120
 5.0940	 3.0020
 5.0990	 3.0170
 5.1040	 3.0500
 5.1090	 3.0410
 5.1140	 3.0210
 5.1190	 2.9850
 5.1240	 2.9740
 5.1290	 2.9790
 5.1340	 3.0110
 5.1390	 3.0200
 5.1440	 3.0160
 5.1490	 3.0130
 5.1550	 3.0530
 5.1600	 3.0300
 5.1650	 3.0020
 5.1700	 2.9860
 5.1750	 2.9960
 5.1800	 3.0110
 5.1850	 3.0400
 5.1910	 3.0450
 5.1960	 3.0200
 5.2010	 2.9950
 5.2060	 3.0400
 5.2110	 2.9980
 5.2170	 2.9660
 5.2220	 2.9830
 5.2270	 2.9930
 5.2330	 3.0130
 5.2380	 3.0430
 5.2430	 3.0190
 5.2480	 3.0030
 5.2540	 3.0110
 5.2590	 3.0280
 5.2640	 3.0430
 5.2700	 3.0360
 5.2750	 3.0110
 5.2800	 3.0140
 5.2860	 3.0040
 5.2910	 3.0020
 5.2970	 2.9920
 5.3020	 2.9970
 5.3080	 2.9850
 5.3130	 2.9990
 5.3180	 3.0140
 5.3240	 3.0200
 5.3290	 3.0480
 5.3350	 3.0610
 5.3400	 3.0370
 5.3460	 3.0050
 5.3510	 2.9610
 5.3570	 2.9740
 5.3620	 2.9970
 5.3680	 3.0020
 5.3740	 2.9840
 5.3790	 2.9900
 5.3850	 2.9490
 5.3900	 2.9390
 5.3960	 2.9430
 5.4010	 2.9710
 5.4070	 2.9530
 5.4130	 2.9380
 5.4180	 2.8580
 5.4240	 2.8190
 5.4300	 2.8860
 5.4350	 2.9520
 5.4410	 2.9330
 5.4470	 2.9090
 5.4530	 2.8980
 5.4580	 2.8890
 5.4640	 2.8280
 5.4700	 2.8400
 5.4760	 2.8430
 5.4810	 2.8490
