Name: Magnolia grandiflora
Type: vegetation
Class: Tree
Genus: Magnolia
Species: grandiflora
Sample No.: JPL230
Owner: JPL
Wavelength Range: VSWIR
Origin: 34.12659; -118.11347; WGS84
Collection Date: 10/3/2016
Description: Samples were collected at the Huntington Garden in San Marino California as part of a JPL Subcontract studying HyTES imagery. Samples were taken to JPL and processed within 48 hours of collection. The same leaves were processed in the Nicolet and then measured using the ASD.
Measurement: Bidirectional reflectance
First Column: X
Second Column: Y
X Units: Wavelength (micrometer)
Y Units: Reflectance (percentage)
First X Value: 0.35
Last X Value: 2.5
Number of X Values: 2151
Additional Information: vegetation.tree.magnolia.grandiflora.vswir.jpl230.jpl.asd.ancillary.txt

 0.3500	 5.8290
 0.3510	 5.8820
 0.3520	 5.9230
 0.3530	 5.8800
 0.3540	 5.7630
 0.3550	 5.6860
 0.3560	 5.6420
 0.3570	 5.6380
 0.3580	 5.6720
 0.3590	 5.6630
 0.3600	 5.6690
 0.3610	 5.6970
 0.3620	 5.6550
 0.3630	 5.5340
 0.3640	 5.4490
 0.3650	 5.4890
 0.3660	 5.5130
 0.3670	 5.5420
 0.3680	 5.5380
 0.3690	 5.4400
 0.3700	 5.3980
 0.3710	 5.4020
 0.3720	 5.4210
 0.3730	 5.4460
 0.3740	 5.4590
 0.3750	 5.4640
 0.3760	 5.4730
 0.3770	 5.4760
 0.3780	 5.4930
 0.3790	 5.4990
 0.3800	 5.4380
 0.3810	 5.4440
 0.3820	 5.4490
 0.3830	 5.4040
 0.3840	 5.3850
 0.3850	 5.3490
 0.3860	 5.3350
 0.3870	 5.3850
 0.3880	 5.3710
 0.3890	 5.3720
 0.3900	 5.3810
 0.3910	 5.2920
 0.3920	 5.2730
 0.3930	 5.3060
 0.3940	 5.3350
 0.3950	 5.2930
 0.3960	 5.2830
 0.3970	 5.2950
 0.3980	 5.2750
 0.3990	 5.2610
 0.4000	 5.2620
 0.4010	 5.2740
 0.4020	 5.2800
 0.4030	 5.2800
 0.4040	 5.2720
 0.4050	 5.2630
 0.4060	 5.2780
 0.4070	 5.2830
 0.4080	 5.2770
 0.4090	 5.2740
 0.4100	 5.3010
 0.4110	 5.3180
 0.4120	 5.3130
 0.4130	 5.3290
 0.4140	 5.3420
 0.4150	 5.3550
 0.4160	 5.3770
 0.4170	 5.3900
 0.4180	 5.4170
 0.4190	 5.4530
 0.4200	 5.4690
 0.4210	 5.4950
 0.4220	 5.5220
 0.4230	 5.5390
 0.4240	 5.5560
 0.4250	 5.5820
 0.4260	 5.6150
 0.4270	 5.6470
 0.4280	 5.6630
 0.4290	 5.6930
 0.4300	 5.7370
 0.4310	 5.7490
 0.4320	 5.7650
 0.4330	 5.7840
 0.4340	 5.8040
 0.4350	 5.8440
 0.4360	 5.8710
 0.4370	 5.8820
 0.4380	 5.8950
 0.4390	 5.9220
 0.4400	 5.9530
 0.4410	 5.9780
 0.4420	 5.9860
 0.4430	 6.0040
 0.4440	 6.0260
 0.4450	 6.0370
 0.4460	 6.0500
 0.4470	 6.0690
 0.4480	 6.0890
 0.4490	 6.0950
 0.4500	 6.1020
 0.4510	 6.1130
 0.4520	 6.1250
 0.4530	 6.1440
 0.4540	 6.1590
 0.4550	 6.1660
 0.4560	 6.1700
 0.4570	 6.1810
 0.4580	 6.1910
 0.4590	 6.1960
 0.4600	 6.2020
 0.4610	 6.2040
 0.4620	 6.2050
 0.4630	 6.2080
 0.4640	 6.2130
 0.4650	 6.2180
 0.4660	 6.2220
 0.4670	 6.2260
 0.4680	 6.2350
 0.4690	 6.2420
 0.4700	 6.2430
 0.4710	 6.2460
 0.4720	 6.2460
 0.4730	 6.2450
 0.4740	 6.2490
 0.4750	 6.2480
 0.4760	 6.2490
 0.4770	 6.2540
 0.4780	 6.2510
 0.4790	 6.2480
 0.4800	 6.2520
 0.4810	 6.2630
 0.4820	 6.2590
 0.4830	 6.2610
 0.4840	 6.2710
 0.4850	 6.2740
 0.4860	 6.2790
 0.4870	 6.2890
 0.4880	 6.3030
 0.4890	 6.3150
 0.4900	 6.3250
 0.4910	 6.3420
 0.4920	 6.3710
 0.4930	 6.3930
 0.4940	 6.4110
 0.4950	 6.4350
 0.4960	 6.4690
 0.4970	 6.5080
 0.4980	 6.5470
 0.4990	 6.5870
 0.5000	 6.6350
 0.5010	 6.6860
 0.5020	 6.7410
 0.5030	 6.8010
 0.5040	 6.8690
 0.5050	 6.9410
 0.5060	 7.0180
 0.5070	 7.1100
 0.5080	 7.2040
 0.5090	 7.3040
 0.5100	 7.4190
 0.5110	 7.5490
 0.5120	 7.6910
 0.5130	 7.8400
 0.5140	 7.9950
 0.5150	 8.1670
 0.5160	 8.3500
 0.5170	 8.5400
 0.5180	 8.7480
 0.5190	 8.9650
 0.5200	 9.1870
 0.5210	 9.4210
 0.5220	 9.6600
 0.5230	 9.8990
 0.5240	10.1340
 0.5250	10.3710
 0.5260	10.5980
 0.5270	10.8150
 0.5280	11.0290
 0.5290	11.2350
 0.5300	11.4280
 0.5310	11.6050
 0.5320	11.7670
 0.5330	11.9190
 0.5340	12.0620
 0.5350	12.1900
 0.5360	12.3000
 0.5370	12.4010
 0.5380	12.4950
 0.5390	12.5790
 0.5400	12.6570
 0.5410	12.7270
 0.5420	12.7890
 0.5430	12.8490
 0.5440	12.9030
 0.5450	12.9500
 0.5460	12.9890
 0.5470	13.0280
 0.5480	13.0610
 0.5490	13.0860
 0.5500	13.1100
 0.5510	13.1260
 0.5520	13.1310
 0.5530	13.1210
 0.5540	13.0960
 0.5550	13.0570
 0.5560	13.0030
 0.5570	12.9350
 0.5580	12.8530
 0.5590	12.7620
 0.5600	12.6640
 0.5610	12.5590
 0.5620	12.4480
 0.5630	12.3330
 0.5640	12.2160
 0.5650	12.0960
 0.5660	11.9720
 0.5670	11.8390
 0.5680	11.6970
 0.5690	11.5530
 0.5700	11.4090
 0.5710	11.2640
 0.5720	11.1200
 0.5730	10.9760
 0.5740	10.8350
 0.5750	10.7060
 0.5760	10.5870
 0.5770	10.4760
 0.5780	10.3710
 0.5790	10.2670
 0.5800	10.1690
 0.5810	10.0770
 0.5820	 9.9910
 0.5830	 9.9150
 0.5840	 9.8470
 0.5850	 9.7880
 0.5860	 9.7310
 0.5870	 9.6810
 0.5880	 9.6330
 0.5890	 9.5820
 0.5900	 9.5320
 0.5910	 9.4840
 0.5920	 9.4390
 0.5930	 9.4030
 0.5940	 9.3680
 0.5950	 9.3340
 0.5960	 9.2990
 0.5970	 9.2620
 0.5980	 9.2290
 0.5990	 9.1990
 0.6000	 9.1670
 0.6010	 9.1320
 0.6020	 9.0960
 0.6030	 9.0590
 0.6040	 9.0200
 0.6050	 8.9720
 0.6060	 8.9210
 0.6070	 8.8690
 0.6080	 8.8120
 0.6090	 8.7540
 0.6100	 8.6960
 0.6110	 8.6390
 0.6120	 8.5780
 0.6130	 8.5110
 0.6140	 8.4410
 0.6150	 8.3760
 0.6160	 8.3140
 0.6170	 8.2550
 0.6180	 8.2040
 0.6190	 8.1580
 0.6200	 8.1150
 0.6210	 8.0740
 0.6220	 8.0380
 0.6230	 8.0090
 0.6240	 7.9850
 0.6250	 7.9650
 0.6260	 7.9510
 0.6270	 7.9390
 0.6280	 7.9280
 0.6290	 7.9180
 0.6300	 7.9090
 0.6310	 7.8970
 0.6320	 7.8790
 0.6330	 7.8580
 0.6340	 7.8310
 0.6350	 7.7960
 0.6360	 7.7520
 0.6370	 7.7020
 0.6380	 7.6450
 0.6390	 7.5830
 0.6400	 7.5170
 0.6410	 7.4470
 0.6420	 7.3750
 0.6430	 7.3040
 0.6440	 7.2310
 0.6450	 7.1600
 0.6460	 7.0950
 0.6470	 7.0360
 0.6480	 6.9840
 0.6490	 6.9400
 0.6500	 6.9020
 0.6510	 6.8710
 0.6520	 6.8460
 0.6530	 6.8220
 0.6540	 6.7970
 0.6550	 6.7730
 0.6560	 6.7430
 0.6570	 6.7090
 0.6580	 6.6730
 0.6590	 6.6350
 0.6600	 6.5910
 0.6610	 6.5430
 0.6620	 6.4970
 0.6630	 6.4530
 0.6640	 6.4140
 0.6650	 6.3810
 0.6660	 6.3500
 0.6670	 6.3230
 0.6680	 6.3000
 0.6690	 6.2820
 0.6700	 6.2740
 0.6710	 6.2710
 0.6720	 6.2720
 0.6730	 6.2770
 0.6740	 6.2870
 0.6750	 6.3000
 0.6760	 6.3190
 0.6770	 6.3410
 0.6780	 6.3690
 0.6790	 6.4060
 0.6800	 6.4480
 0.6810	 6.4980
 0.6820	 6.5580
 0.6830	 6.6280
 0.6840	 6.7100
 0.6850	 6.8100
 0.6860	 6.9330
 0.6870	 7.0790
 0.6880	 7.2550
 0.6890	 7.4680
 0.6900	 7.7260
 0.6910	 8.0360
 0.6920	 8.4030
 0.6930	 8.8370
 0.6940	 9.3430
 0.6950	 9.9240
 0.6960	10.5790
 0.6970	11.3050
 0.6980	12.1010
 0.6990	12.9580
 0.7000	13.8690
 0.7010	14.8260
 0.7020	15.8140
 0.7030	16.8230
 0.7040	17.8460
 0.7050	18.8770
 0.7060	19.9140
 0.7070	20.9530
 0.7080	21.9930
 0.7090	23.0340
 0.7100	24.0750
 0.7110	25.1180
 0.7120	26.1620
 0.7130	27.2080
 0.7140	28.2540
 0.7150	29.3030
 0.7160	30.3510
 0.7170	31.3940
 0.7180	32.4350
 0.7190	33.4700
 0.7200	34.4950
 0.7210	35.5090
 0.7220	36.5060
 0.7230	37.4840
 0.7240	38.4460
 0.7250	39.3830
 0.7260	40.2930
 0.7270	41.1750
 0.7280	42.0270
 0.7290	42.8470
 0.7300	43.6350
 0.7310	44.3930
 0.7320	45.1150
 0.7330	45.8020
 0.7340	46.4520
 0.7350	47.0680
 0.7360	47.6520
 0.7370	48.2020
 0.7380	48.7200
 0.7390	49.2070
 0.7400	49.6620
 0.7410	50.0870
 0.7420	50.4820
 0.7430	50.8480
 0.7440	51.1850
 0.7450	51.4960
 0.7460	51.7820
 0.7470	52.0440
 0.7480	52.2830
 0.7490	52.4980
 0.7500	52.6950
 0.7510	52.8770
 0.7520	53.0420
 0.7530	53.1880
 0.7540	53.3240
 0.7550	53.4470
 0.7560	53.5580
 0.7570	53.6580
 0.7580	53.7510
 0.7590	53.8350
 0.7600	53.9100
 0.7610	53.9800
 0.7620	54.0410
 0.7630	54.0950
 0.7640	54.1430
 0.7650	54.1870
 0.7660	54.2270
 0.7670	54.2640
 0.7680	54.2950
 0.7690	54.3240
 0.7700	54.3510
 0.7710	54.3740
 0.7720	54.3970
 0.7730	54.4190
 0.7740	54.4380
 0.7750	54.4550
 0.7760	54.4770
 0.7770	54.4970
 0.7780	54.5130
 0.7790	54.5290
 0.7800	54.5460
 0.7810	54.5610
 0.7820	54.5750
 0.7830	54.5910
 0.7840	54.6050
 0.7850	54.6160
 0.7860	54.6250
 0.7870	54.6420
 0.7880	54.6540
 0.7890	54.6630
 0.7900	54.6730
 0.7910	54.6800
 0.7920	54.6880
 0.7930	54.6980
 0.7940	54.7040
 0.7950	54.7100
 0.7960	54.7150
 0.7970	54.7200
 0.7980	54.7230
 0.7990	54.7250
 0.8000	54.7270
 0.8010	54.7290
 0.8020	54.7290
 0.8030	54.7300
 0.8040	54.7290
 0.8050	54.7260
 0.8060	54.7240
 0.8070	54.7210
 0.8080	54.7180
 0.8090	54.7140
 0.8100	54.7060
 0.8110	54.7010
 0.8120	54.7000
 0.8130	54.6950
 0.8140	54.6880
 0.8150	54.6800
 0.8160	54.6730
 0.8170	54.6670
 0.8180	54.6600
 0.8190	54.6520
 0.8200	54.6450
 0.8210	54.6370
 0.8220	54.6280
 0.8230	54.6200
 0.8240	54.6110
 0.8250	54.6000
 0.8260	54.5880
 0.8270	54.5760
 0.8280	54.5640
 0.8290	54.5500
 0.8300	54.5370
 0.8310	54.5240
 0.8320	54.5110
 0.8330	54.5020
 0.8340	54.4940
 0.8350	54.4830
 0.8360	54.4750
 0.8370	54.4690
 0.8380	54.4640
 0.8390	54.4570
 0.8400	54.4520
 0.8410	54.4490
 0.8420	54.4460
 0.8430	54.4400
 0.8440	54.4370
 0.8450	54.4350
 0.8460	54.4310
 0.8470	54.4240
 0.8480	54.4210
 0.8490	54.4220
 0.8500	54.4220
 0.8510	54.4180
 0.8520	54.4180
 0.8530	54.4200
 0.8540	54.4170
 0.8550	54.4150
 0.8560	54.4120
 0.8570	54.4090
 0.8580	54.4110
 0.8590	54.4110
 0.8600	54.4130
 0.8610	54.4180
 0.8620	54.4100
 0.8630	54.4080
 0.8640	54.4100
 0.8650	54.4130
 0.8660	54.4090
 0.8670	54.4080
 0.8680	54.4120
 0.8690	54.4160
 0.8700	54.4140
 0.8710	54.4150
 0.8720	54.4170
 0.8730	54.4140
 0.8740	54.4110
 0.8750	54.4120
 0.8760	54.4150
 0.8770	54.4130
 0.8780	54.4170
 0.8790	54.4200
 0.8800	54.4180
 0.8810	54.4220
 0.8820	54.4200
 0.8830	54.4150
 0.8840	54.4110
 0.8850	54.4140
 0.8860	54.4180
 0.8870	54.4170
 0.8880	54.4110
 0.8890	54.4100
 0.8900	54.4120
 0.8910	54.4120
 0.8920	54.4120
 0.8930	54.4130
 0.8940	54.4090
 0.8950	54.4040
 0.8960	54.4020
 0.8970	54.4040
 0.8980	54.4000
 0.8990	54.3940
 0.9000	54.3980
 0.9010	54.3980
 0.9020	54.3920
 0.9030	54.3840
 0.9040	54.3850
 0.9050	54.3850
 0.9060	54.3800
 0.9070	54.3720
 0.9080	54.3760
 0.9090	54.3680
 0.9100	54.3560
 0.9110	54.3500
 0.9120	54.3460
 0.9130	54.3340
 0.9140	54.3240
 0.9150	54.3250
 0.9160	54.3210
 0.9170	54.3120
 0.9180	54.3020
 0.9190	54.2900
 0.9200	54.2780
 0.9210	54.2660
 0.9220	54.2530
 0.9230	54.2320
 0.9240	54.2160
 0.9250	54.1950
 0.9260	54.1710
 0.9270	54.1520
 0.9280	54.1300
 0.9290	54.1020
 0.9300	54.0700
 0.9310	54.0390
 0.9320	54.0050
 0.9330	53.9730
 0.9340	53.9410
 0.9350	53.9020
 0.9360	53.8630
 0.9370	53.8210
 0.9380	53.7760
 0.9390	53.7320
 0.9400	53.6840
 0.9410	53.6300
 0.9420	53.5730
 0.9430	53.5230
 0.9440	53.4650
 0.9450	53.4000
 0.9460	53.3300
 0.9470	53.2490
 0.9480	53.1630
 0.9490	53.0800
 0.9500	52.9990
 0.9510	52.9020
 0.9520	52.8050
 0.9530	52.7050
 0.9540	52.6000
 0.9550	52.5090
 0.9560	52.4170
 0.9570	52.3280
 0.9580	52.2480
 0.9590	52.1660
 0.9600	52.0870
 0.9610	52.0170
 0.9620	51.9580
 0.9630	51.8920
 0.9640	51.8460
 0.9650	51.8070
 0.9660	51.7560
 0.9670	51.7230
 0.9680	51.6910
 0.9690	51.6600
 0.9700	51.6350
 0.9710	51.6130
 0.9720	51.5820
 0.9730	51.5540
 0.9740	51.5460
 0.9750	51.5310
 0.9760	51.5090
 0.9770	51.4930
 0.9780	51.4960
 0.9790	51.4760
 0.9800	51.4750
 0.9810	51.4880
 0.9820	51.4870
 0.9830	51.4820
 0.9840	51.4930
 0.9850	51.5020
 0.9860	51.4920
 0.9870	51.5140
 0.9880	51.5230
 0.9890	51.5290
 0.9900	51.5580
 0.9910	51.5750
 0.9920	51.5880
 0.9930	51.6040
 0.9940	51.6250
 0.9950	51.6570
 0.9960	51.6790
 0.9970	51.7010
 0.9980	51.7320
 0.9990	51.7170
 1.0000	51.7400
 1.0010	50.1050
 1.0020	50.1360
 1.0030	50.1690
 1.0040	50.2010
 1.0050	50.2370
 1.0060	50.2740
 1.0070	50.3100
 1.0080	50.3430
 1.0090	50.3750
 1.0100	50.4060
 1.0110	50.4330
 1.0120	50.4650
 1.0130	50.5020
 1.0140	50.5370
 1.0150	50.5700
 1.0160	50.6060
 1.0170	50.6440
 1.0180	50.6820
 1.0190	50.7180
 1.0200	50.7550
 1.0210	50.7890
 1.0220	50.8220
 1.0230	50.8540
 1.0240	50.8880
 1.0250	50.9190
 1.0260	50.9460
 1.0270	50.9750
 1.0280	51.0030
 1.0290	51.0340
 1.0300	51.0680
 1.0310	51.0980
 1.0320	51.1300
 1.0330	51.1590
 1.0340	51.1830
 1.0350	51.2070
 1.0360	51.2290
 1.0370	51.2520
 1.0380	51.2740
 1.0390	51.2970
 1.0400	51.3180
 1.0410	51.3410
 1.0420	51.3610
 1.0430	51.3770
 1.0440	51.3960
 1.0450	51.4190
 1.0460	51.4370
 1.0470	51.4510
 1.0480	51.4690
 1.0490	51.4850
 1.0500	51.5020
 1.0510	51.5220
 1.0520	51.5450
 1.0530	51.5600
 1.0540	51.5710
 1.0550	51.5840
 1.0560	51.5920
 1.0570	51.6060
 1.0580	51.6230
 1.0590	51.6370
 1.0600	51.6530
 1.0610	51.6670
 1.0620	51.6810
 1.0630	51.6920
 1.0640	51.6980
 1.0650	51.7080
 1.0660	51.7180
 1.0670	51.7270
 1.0680	51.7370
 1.0690	51.7490
 1.0700	51.7600
 1.0710	51.7680
 1.0720	51.7770
 1.0730	51.7860
 1.0740	51.7940
 1.0750	51.8020
 1.0760	51.8080
 1.0770	51.8130
 1.0780	51.8160
 1.0790	51.8170
 1.0800	51.8170
 1.0810	51.8160
 1.0820	51.8160
 1.0830	51.8170
 1.0840	51.8170
 1.0850	51.8180
 1.0860	51.8190
 1.0870	51.8180
 1.0880	51.8150
 1.0890	51.8110
 1.0900	51.8070
 1.0910	51.8000
 1.0920	51.7900
 1.0930	51.7800
 1.0940	51.7680
 1.0950	51.7580
 1.0960	51.7500
 1.0970	51.7380
 1.0980	51.7250
 1.0990	51.7120
 1.1000	51.6980
 1.1010	51.6820
 1.1020	51.6660
 1.1030	51.6490
 1.1040	51.6320
 1.1050	51.6120
 1.1060	51.5930
 1.1070	51.5760
 1.1080	51.5580
 1.1090	51.5390
 1.1100	51.5180
 1.1110	51.4950
 1.1120	51.4720
 1.1130	51.4460
 1.1140	51.4200
 1.1150	51.3940
 1.1160	51.3650
 1.1170	51.3360
 1.1180	51.3010
 1.1190	51.2650
 1.1200	51.2230
 1.1210	51.1730
 1.1220	51.1210
 1.1230	51.0650
 1.1240	51.0020
 1.1250	50.9320
 1.1260	50.8610
 1.1270	50.7760
 1.1280	50.6850
 1.1290	50.5810
 1.1300	50.4690
 1.1310	50.3450
 1.1320	50.2100
 1.1330	50.0630
 1.1340	49.9040
 1.1350	49.7360
 1.1360	49.5570
 1.1370	49.3680
 1.1380	49.1720
 1.1390	48.9700
 1.1400	48.7580
 1.1410	48.5440
 1.1420	48.3260
 1.1430	48.1050
 1.1440	47.8860
 1.1450	47.6630
 1.1460	47.4500
 1.1470	47.2390
 1.1480	47.0370
 1.1490	46.8410
 1.1500	46.6560
 1.1510	46.4780
 1.1520	46.3110
 1.1530	46.1530
 1.1540	46.0060
 1.1550	45.8700
 1.1560	45.7440
 1.1570	45.6260
 1.1580	45.5220
 1.1590	45.4270
 1.1600	45.3380
 1.1610	45.2570
 1.1620	45.1840
 1.1630	45.1160
 1.1640	45.0520
 1.1650	44.9930
 1.1660	44.9410
 1.1670	44.8910
 1.1680	44.8450
 1.1690	44.8020
 1.1700	44.7640
 1.1710	44.7250
 1.1720	44.6890
 1.1730	44.6520
 1.1740	44.6150
 1.1750	44.5790
 1.1760	44.5440
 1.1770	44.5080
 1.1780	44.4720
 1.1790	44.4350
 1.1800	44.3990
 1.1810	44.3620
 1.1820	44.3250
 1.1830	44.2910
 1.1840	44.2570
 1.1850	44.2230
 1.1860	44.1890
 1.1870	44.1550
 1.1880	44.1240
 1.1890	44.0950
 1.1900	44.0690
 1.1910	44.0450
 1.1920	44.0240
 1.1930	44.0020
 1.1940	43.9860
 1.1950	43.9730
 1.1960	43.9620
 1.1970	43.9570
 1.1980	43.9550
 1.1990	43.9550
 1.2000	43.9600
 1.2010	43.9650
 1.2020	43.9730
 1.2030	43.9850
 1.2040	43.9970
 1.2050	44.0130
 1.2060	44.0310
 1.2070	44.0520
 1.2080	44.0770
 1.2090	44.1030
 1.2100	44.1320
 1.2110	44.1620
 1.2120	44.1940
 1.2130	44.2270
 1.2140	44.2630
 1.2150	44.2980
 1.2160	44.3340
 1.2170	44.3700
 1.2180	44.4090
 1.2190	44.4480
 1.2200	44.4870
 1.2210	44.5290
 1.2220	44.5720
 1.2230	44.6150
 1.2240	44.6600
 1.2250	44.7030
 1.2260	44.7450
 1.2270	44.7880
 1.2280	44.8280
 1.2290	44.8680
 1.2300	44.9090
 1.2310	44.9480
 1.2320	44.9850
 1.2330	45.0220
 1.2340	45.0570
 1.2350	45.0880
 1.2360	45.1220
 1.2370	45.1560
 1.2380	45.1890
 1.2390	45.2220
 1.2400	45.2550
 1.2410	45.2870
 1.2420	45.3200
 1.2430	45.3500
 1.2440	45.3770
 1.2450	45.4030
 1.2460	45.4270
 1.2470	45.4510
 1.2480	45.4780
 1.2490	45.5040
 1.2500	45.5280
 1.2510	45.5510
 1.2520	45.5740
 1.2530	45.5940
 1.2540	45.6130
 1.2550	45.6350
 1.2560	45.6540
 1.2570	45.6710
 1.2580	45.6870
 1.2590	45.7010
 1.2600	45.7130
 1.2610	45.7230
 1.2620	45.7320
 1.2630	45.7380
 1.2640	45.7420
 1.2650	45.7470
 1.2660	45.7510
 1.2670	45.7540
 1.2680	45.7540
 1.2690	45.7490
 1.2700	45.7420
 1.2710	45.7320
 1.2720	45.7210
 1.2730	45.7090
 1.2740	45.6960
 1.2750	45.6800
 1.2760	45.6620
 1.2770	45.6430
 1.2780	45.6220
 1.2790	45.5980
 1.2800	45.5730
 1.2810	45.5470
 1.2820	45.5190
 1.2830	45.4910
 1.2840	45.4610
 1.2850	45.4270
 1.2860	45.3940
 1.2870	45.3590
 1.2880	45.3230
 1.2890	45.2850
 1.2900	45.2420
 1.2910	45.1970
 1.2920	45.1500
 1.2930	45.0990
 1.2940	45.0490
 1.2950	44.9980
 1.2960	44.9420
 1.2970	44.8840
 1.2980	44.8250
 1.2990	44.7590
 1.3000	44.6900
 1.3010	44.6170
 1.3020	44.5400
 1.3030	44.4610
 1.3040	44.3790
 1.3050	44.2930
 1.3060	44.2010
 1.3070	44.1030
 1.3080	44.0010
 1.3090	43.8960
 1.3100	43.7890
 1.3110	43.6750
 1.3120	43.5550
 1.3130	43.4310
 1.3140	43.3000
 1.3150	43.1640
 1.3160	43.0230
 1.3170	42.8790
 1.3180	42.7280
 1.3190	42.5710
 1.3200	42.4100
 1.3210	42.2440
 1.3220	42.0740
 1.3230	41.9000
 1.3240	41.7220
 1.3250	41.5410
 1.3260	41.3560
 1.3270	41.1650
 1.3280	40.9710
 1.3290	40.7710
 1.3300	40.5690
 1.3310	40.3660
 1.3320	40.1600
 1.3330	39.9560
 1.3340	39.7510
 1.3350	39.5430
 1.3360	39.3350
 1.3370	39.1240
 1.3380	38.9140
 1.3390	38.7060
 1.3400	38.4970
 1.3410	38.2930
 1.3420	38.0900
 1.3430	37.8900
 1.3440	37.6920
 1.3450	37.4960
 1.3460	37.2990
 1.3470	37.1080
 1.3480	36.9180
 1.3490	36.7330
 1.3500	36.5520
 1.3510	36.3720
 1.3520	36.1920
 1.3530	36.0130
 1.3540	35.8350
 1.3550	35.6570
 1.3560	35.4810
 1.3570	35.3030
 1.3580	35.1240
 1.3590	34.9430
 1.3600	34.7570
 1.3610	34.5660
 1.3620	34.3670
 1.3630	34.1610
 1.3640	33.9500
 1.3650	33.7290
 1.3660	33.5010
 1.3670	33.2630
 1.3680	33.0110
 1.3690	32.7450
 1.3700	32.4620
 1.3710	32.1620
 1.3720	31.8430
 1.3730	31.5030
 1.3740	31.1460
 1.3750	30.7670
 1.3760	30.3620
 1.3770	29.9320
 1.3780	29.4700
 1.3790	28.9830
 1.3800	28.4680
 1.3810	27.9210
 1.3820	27.3540
 1.3830	26.7620
 1.3840	26.1500
 1.3850	25.5130
 1.3860	24.8670
 1.3870	24.1970
 1.3880	23.5300
 1.3890	22.8530
 1.3900	22.1710
 1.3910	21.4970
 1.3920	20.8230
 1.3930	20.1530
 1.3940	19.4970
 1.3950	18.8470
 1.3960	18.2140
 1.3970	17.6040
 1.3980	17.0110
 1.3990	16.4480
 1.4000	15.9070
 1.4010	15.3890
 1.4020	14.9000
 1.4030	14.4340
 1.4040	13.9930
 1.4050	13.5810
 1.4060	13.1910
 1.4070	12.8290
 1.4080	12.4920
 1.4090	12.1740
 1.4100	11.8800
 1.4110	11.6040
 1.4120	11.3480
 1.4130	11.1100
 1.4140	10.8890
 1.4150	10.6860
 1.4160	10.4970
 1.4170	10.3210
 1.4180	10.1600
 1.4190	10.0070
 1.4200	 9.8650
 1.4210	 9.7340
 1.4220	 9.6120
 1.4230	 9.4990
 1.4240	 9.3950
 1.4250	 9.2970
 1.4260	 9.2080
 1.4270	 9.1230
 1.4280	 9.0470
 1.4290	 8.9750
 1.4300	 8.9080
 1.4310	 8.8460
 1.4320	 8.7890
 1.4330	 8.7370
 1.4340	 8.6900
 1.4350	 8.6450
 1.4360	 8.6050
 1.4370	 8.5680
 1.4380	 8.5350
 1.4390	 8.5070
 1.4400	 8.4820
 1.4410	 8.4600
 1.4420	 8.4380
 1.4430	 8.4190
 1.4440	 8.4040
 1.4450	 8.3920
 1.4460	 8.3820
 1.4470	 8.3740
 1.4480	 8.3670
 1.4490	 8.3610
 1.4500	 8.3580
 1.4510	 8.3550
 1.4520	 8.3550
 1.4530	 8.3560
 1.4540	 8.3590
 1.4550	 8.3640
 1.4560	 8.3710
 1.4570	 8.3810
 1.4580	 8.3930
 1.4590	 8.4080
 1.4600	 8.4260
 1.4610	 8.4470
 1.4620	 8.4710
 1.4630	 8.4990
 1.4640	 8.5290
 1.4650	 8.5650
 1.4660	 8.6040
 1.4670	 8.6460
 1.4680	 8.6910
 1.4690	 8.7400
 1.4700	 8.7910
 1.4710	 8.8470
 1.4720	 8.9070
 1.4730	 8.9690
 1.4740	 9.0350
 1.4750	 9.1030
 1.4760	 9.1750
 1.4770	 9.2490
