Name: Quercus agrifolia 3
Type: vegetation
Class: Tree
Genus: Quercus
Species: agrifolia
Sample No.: VH083
Owner: UCSB
Wavelength Range: VSWIR
Origin: 34.7165; -120.0603; WGS84
Collection Date: 4/21/2013
Description: Samples were collected as part of the HyspIRI Airborne Campaign. 48 individual plants were sampled in three times in 2013 - spring  summer  and fall. The name of the sample includes a 1  2  or 3 which references a different individual of the species. Samples were taken to JPL and processed within 48 hours of collection. The same leaves were processed in the Nicolet and then measured using the ASD.
Measurement: Bidirectional reflectance
First Column: X
Second Column: Y
X Units: Wavelength (micrometers)
Y Units: Reflectance (percentage)
First X Value: 0.35
Last X Value: 2.5
Number of X Values: 2151
Additional Information: vegetation.tree.quercus.agrifolia.vswir.vh083.ucsb.asd.ancillary.txt

 0.3500	 3.8700
 0.3510	 3.7710
 0.3520	 3.7610
 0.3530	 3.8040
 0.3540	 3.8340
 0.3550	 3.7310
 0.3560	 3.6950
 0.3570	 3.7420
 0.3580	 3.7840
 0.3590	 3.7880
 0.3600	 3.7690
 0.3610	 3.7130
 0.3620	 3.5490
 0.3630	 3.5440
 0.3640	 3.5980
 0.3650	 3.5810
 0.3660	 3.6150
 0.3670	 3.6610
 0.3680	 3.6420
 0.3690	 3.4950
 0.3700	 3.5610
 0.3710	 3.6250
 0.3720	 3.5790
 0.3730	 3.6520
 0.3740	 3.6610
 0.3750	 3.6200
 0.3760	 3.5970
 0.3770	 3.5920
 0.3780	 3.5950
 0.3790	 3.5960
 0.3800	 3.5860
 0.3810	 3.5940
 0.3820	 3.5730
 0.3830	 3.5230
 0.3840	 3.5880
 0.3850	 3.5760
 0.3860	 3.5400
 0.3870	 3.5820
 0.3880	 3.5330
 0.3890	 3.4880
 0.3900	 3.5070
 0.3910	 3.5930
 0.3920	 3.4990
 0.3930	 3.3940
 0.3940	 3.4420
 0.3950	 3.5840
 0.3960	 3.6210
 0.3970	 3.5500
 0.3980	 3.4750
 0.3990	 3.4910
 0.4000	 3.5210
 0.4010	 3.5260
 0.4020	 3.5380
 0.4030	 3.5180
 0.4040	 3.5170
 0.4050	 3.5680
 0.4060	 3.5800
 0.4070	 3.5880
 0.4080	 3.6000
 0.4090	 3.6060
 0.4100	 3.6040
 0.4110	 3.6110
 0.4120	 3.6290
 0.4130	 3.6350
 0.4140	 3.6380
 0.4150	 3.6580
 0.4160	 3.7030
 0.4170	 3.6990
 0.4180	 3.6890
 0.4190	 3.6970
 0.4200	 3.7130
 0.4210	 3.7250
 0.4220	 3.7430
 0.4230	 3.7700
 0.4240	 3.7680
 0.4250	 3.7890
 0.4260	 3.8210
 0.4270	 3.8240
 0.4280	 3.8240
 0.4290	 3.8360
 0.4300	 3.8600
 0.4310	 3.8730
 0.4320	 3.8810
 0.4330	 3.8910
 0.4340	 3.9100
 0.4350	 3.9250
 0.4360	 3.9360
 0.4370	 3.9440
 0.4380	 3.9500
 0.4390	 3.9380
 0.4400	 3.9330
 0.4410	 3.9440
 0.4420	 3.9300
 0.4430	 3.9320
 0.4440	 3.9510
 0.4450	 3.9730
 0.4460	 3.9670
 0.4470	 3.9750
 0.4480	 4.0020
 0.4490	 4.0040
 0.4500	 3.9970
 0.4510	 4.0010
 0.4520	 4.0220
 0.4530	 4.0320
 0.4540	 4.0360
 0.4550	 4.0390
 0.4560	 4.0440
 0.4570	 4.0460
 0.4580	 4.0490
 0.4590	 4.0570
 0.4600	 4.0670
 0.4610	 4.0610
 0.4620	 4.0520
 0.4630	 4.0600
 0.4640	 4.0840
 0.4650	 4.0910
 0.4660	 4.0780
 0.4670	 4.0820
 0.4680	 4.0800
 0.4690	 4.0750
 0.4700	 4.0780
 0.4710	 4.0950
 0.4720	 4.0940
 0.4730	 4.0860
 0.4740	 4.0980
 0.4750	 4.0940
 0.4760	 4.0950
 0.4770	 4.1030
 0.4780	 4.0950
 0.4790	 4.0900
 0.4800	 4.0930
 0.4810	 4.1010
 0.4820	 4.0970
 0.4830	 4.0960
 0.4840	 4.1040
 0.4850	 4.1140
 0.4860	 4.1160
 0.4870	 4.1210
 0.4880	 4.1370
 0.4890	 4.1390
 0.4900	 4.1510
 0.4910	 4.1700
 0.4920	 4.1850
 0.4930	 4.2080
 0.4940	 4.2280
 0.4950	 4.2420
 0.4960	 4.2600
 0.4970	 4.2850
 0.4980	 4.3070
 0.4990	 4.3190
 0.5000	 4.3510
 0.5010	 4.3860
 0.5020	 4.4200
 0.5030	 4.4620
 0.5040	 4.5130
 0.5050	 4.5610
 0.5060	 4.6050
 0.5070	 4.6700
 0.5080	 4.7380
 0.5090	 4.8070
 0.5100	 4.8870
 0.5110	 4.9790
 0.5120	 5.0840
 0.5130	 5.1950
 0.5140	 5.2960
 0.5150	 5.4160
 0.5160	 5.5570
 0.5170	 5.7100
 0.5180	 5.8620
 0.5190	 6.0300
 0.5200	 6.2120
 0.5210	 6.3920
 0.5220	 6.5750
 0.5230	 6.7600
 0.5240	 6.9460
 0.5250	 7.1340
 0.5260	 7.3160
 0.5270	 7.4920
 0.5280	 7.6590
 0.5290	 7.8230
 0.5300	 7.9750
 0.5310	 8.1130
 0.5320	 8.2420
 0.5330	 8.3710
 0.5340	 8.4880
 0.5350	 8.5840
 0.5360	 8.6770
 0.5370	 8.7630
 0.5380	 8.8420
 0.5390	 8.9160
 0.5400	 8.9870
 0.5410	 9.0580
 0.5420	 9.1270
 0.5430	 9.1940
 0.5440	 9.2520
 0.5450	 9.3020
 0.5460	 9.3490
 0.5470	 9.3790
 0.5480	 9.4050
 0.5490	 9.4360
 0.5500	 9.4710
 0.5510	 9.4920
 0.5520	 9.5010
 0.5530	 9.5010
 0.5540	 9.4900
 0.5550	 9.4710
 0.5560	 9.4400
 0.5570	 9.3940
 0.5580	 9.3400
 0.5590	 9.2760
 0.5600	 9.2030
 0.5610	 9.1260
 0.5620	 9.0450
 0.5630	 8.9590
 0.5640	 8.8640
 0.5650	 8.7580
 0.5660	 8.6460
 0.5670	 8.5300
 0.5680	 8.4110
 0.5690	 8.2910
 0.5700	 8.1680
 0.5710	 8.0410
 0.5720	 7.9140
 0.5730	 7.7940
 0.5740	 7.6840
 0.5750	 7.5890
 0.5760	 7.5020
 0.5770	 7.4250
 0.5780	 7.3550
 0.5790	 7.2770
 0.5800	 7.2000
 0.5810	 7.1300
 0.5820	 7.0660
 0.5830	 7.0050
 0.5840	 6.9420
 0.5850	 6.8790
 0.5860	 6.8210
 0.5870	 6.7700
 0.5880	 6.7250
 0.5890	 6.6870
 0.5900	 6.6630
 0.5910	 6.6390
 0.5920	 6.6140
 0.5930	 6.5940
 0.5940	 6.5670
 0.5950	 6.5400
 0.5960	 6.5190
 0.5970	 6.4970
 0.5980	 6.4780
 0.5990	 6.4560
 0.6000	 6.4280
 0.6010	 6.4020
 0.6020	 6.3740
 0.6030	 6.3440
 0.6040	 6.3090
 0.6050	 6.2670
 0.6060	 6.2210
 0.6070	 6.1750
 0.6080	 6.1240
 0.6090	 6.0730
 0.6100	 6.0270
 0.6110	 5.9870
 0.6120	 5.9280
 0.6130	 5.8630
 0.6140	 5.8050
 0.6150	 5.7470
 0.6160	 5.6940
 0.6170	 5.6460
 0.6180	 5.6030
 0.6190	 5.5680
 0.6200	 5.5360
 0.6210	 5.5060
 0.6220	 5.4800
 0.6230	 5.4580
 0.6240	 5.4380
 0.6250	 5.4200
 0.6260	 5.4080
 0.6270	 5.4020
 0.6280	 5.3960
 0.6290	 5.3870
 0.6300	 5.3860
 0.6310	 5.3840
 0.6320	 5.3760
 0.6330	 5.3670
 0.6340	 5.3560
 0.6350	 5.3410
 0.6360	 5.3200
 0.6370	 5.2930
 0.6380	 5.2600
 0.6390	 5.2250
 0.6400	 5.1870
 0.6410	 5.1470
 0.6420	 5.1020
 0.6430	 5.0530
 0.6440	 5.0040
 0.6450	 4.9540
 0.6460	 4.9060
 0.6470	 4.8640
 0.6480	 4.8260
 0.6490	 4.7900
 0.6500	 4.7570
 0.6510	 4.7280
 0.6520	 4.6970
 0.6530	 4.6700
 0.6540	 4.6470
 0.6550	 4.6140
 0.6560	 4.5830
 0.6570	 4.5530
 0.6580	 4.5180
 0.6590	 4.4820
 0.6600	 4.4450
 0.6610	 4.4070
 0.6620	 4.3740
 0.6630	 4.3420
 0.6640	 4.3100
 0.6650	 4.2800
 0.6660	 4.2580
 0.6670	 4.2410
 0.6680	 4.2270
 0.6690	 4.2140
 0.6700	 4.2130
 0.6710	 4.2150
 0.6720	 4.2170
 0.6730	 4.2160
 0.6740	 4.2220
 0.6750	 4.2320
 0.6760	 4.2460
 0.6770	 4.2650
 0.6780	 4.2830
 0.6790	 4.3030
 0.6800	 4.3310
 0.6810	 4.3630
 0.6820	 4.3990
 0.6830	 4.4400
 0.6840	 4.4880
 0.6850	 4.5480
 0.6860	 4.6170
 0.6870	 4.6970
 0.6880	 4.7940
 0.6890	 4.9160
 0.6900	 5.0680
 0.6910	 5.2530
 0.6920	 5.4820
 0.6930	 5.7620
 0.6940	 6.0970
 0.6950	 6.4880
 0.6960	 6.9460
 0.6970	 7.4700
 0.6980	 8.0580
 0.6990	 8.7050
 0.7000	 9.4050
 0.7010	10.1540
 0.7020	10.9470
 0.7030	11.7730
 0.7040	12.6230
 0.7050	13.4870
 0.7060	14.3570
 0.7070	15.2320
 0.7080	16.1090
 0.7090	16.9820
 0.7100	17.8500
 0.7110	18.7110
 0.7120	19.5650
 0.7130	20.4100
 0.7140	21.2380
 0.7150	22.0530
 0.7160	22.8590
 0.7170	23.6470
 0.7180	24.4150
 0.7190	25.1650
 0.7200	25.9000
 0.7210	26.6150
 0.7220	27.3070
 0.7230	27.9760
 0.7240	28.6200
 0.7250	29.2390
 0.7260	29.8330
 0.7270	30.3990
 0.7280	30.9400
 0.7290	31.4580
 0.7300	31.9500
 0.7310	32.4160
 0.7320	32.8600
 0.7330	33.2790
 0.7340	33.6720
 0.7350	34.0390
 0.7360	34.3920
 0.7370	34.7240
 0.7380	35.0310
 0.7390	35.3260
 0.7400	35.5990
 0.7410	35.8510
 0.7420	36.0890
 0.7430	36.3120
 0.7440	36.5180
 0.7450	36.7060
 0.7460	36.8770
 0.7470	37.0380
 0.7480	37.1860
 0.7490	37.3200
 0.7500	37.4460
 0.7510	37.5570
 0.7520	37.6560
 0.7530	37.7480
 0.7540	37.8350
 0.7550	37.9150
 0.7560	37.9880
 0.7570	38.0570
 0.7580	38.1130
 0.7590	38.1640
 0.7600	38.2150
 0.7610	38.2610
 0.7620	38.3010
 0.7630	38.3370
 0.7640	38.3690
 0.7650	38.4000
 0.7660	38.4270
 0.7670	38.4500
 0.7680	38.4720
 0.7690	38.4900
 0.7700	38.5060
 0.7710	38.5230
 0.7720	38.5390
 0.7730	38.5550
 0.7740	38.5680
 0.7750	38.5800
 0.7760	38.5990
 0.7770	38.6120
 0.7780	38.6210
 0.7790	38.6340
 0.7800	38.6460
 0.7810	38.6580
 0.7820	38.6690
 0.7830	38.6760
 0.7840	38.6870
 0.7850	38.6960
 0.7860	38.7010
 0.7870	38.7170
 0.7880	38.7240
 0.7890	38.7290
 0.7900	38.7420
 0.7910	38.7540
 0.7920	38.7620
 0.7930	38.7690
 0.7940	38.7810
 0.7950	38.7920
 0.7960	38.7990
 0.7970	38.8040
 0.7980	38.8120
 0.7990	38.8220
 0.8000	38.8310
 0.8010	38.8380
 0.8020	38.8470
 0.8030	38.8530
 0.8040	38.8560
 0.8050	38.8600
 0.8060	38.8690
 0.8070	38.8760
 0.8080	38.8790
 0.8090	38.8820
 0.8100	38.8910
 0.8110	38.9000
 0.8120	38.9030
 0.8130	38.9060
 0.8140	38.9110
 0.8150	38.9180
 0.8160	38.9240
 0.8170	38.9310
 0.8180	38.9360
 0.8190	38.9390
 0.8200	38.9440
 0.8210	38.9560
 0.8220	38.9700
 0.8230	38.9800
 0.8240	38.9840
 0.8250	38.9840
 0.8260	38.9910
 0.8270	39.0040
 0.8280	39.0040
 0.8290	39.0130
 0.8300	39.0200
 0.8310	39.0160
 0.8320	39.0200
 0.8330	39.0250
 0.8340	39.0330
 0.8350	39.0430
 0.8360	39.0500
 0.8370	39.0570
 0.8380	39.0650
 0.8390	39.0710
 0.8400	39.0850
 0.8410	39.0960
 0.8420	39.1030
 0.8430	39.1120
 0.8440	39.1180
 0.8450	39.1260
 0.8460	39.1380
 0.8470	39.1470
 0.8480	39.1620
 0.8490	39.1780
 0.8500	39.1890
 0.8510	39.1890
 0.8520	39.1930
 0.8530	39.2020
 0.8540	39.2090
 0.8550	39.2220
 0.8560	39.2330
 0.8570	39.2400
 0.8580	39.2410
 0.8590	39.2520
 0.8600	39.2630
 0.8610	39.2680
 0.8620	39.2760
 0.8630	39.2860
 0.8640	39.2950
 0.8650	39.3020
 0.8660	39.3120
 0.8670	39.3220
 0.8680	39.3280
 0.8690	39.3260
 0.8700	39.3390
 0.8710	39.3530
 0.8720	39.3630
 0.8730	39.3690
 0.8740	39.3770
 0.8750	39.3810
 0.8760	39.3810
 0.8770	39.3890
 0.8780	39.4000
 0.8790	39.4080
 0.8800	39.4130
 0.8810	39.4160
 0.8820	39.4240
 0.8830	39.4310
 0.8840	39.4350
 0.8850	39.4420
 0.8860	39.4420
 0.8870	39.4400
 0.8880	39.4400
 0.8890	39.4510
 0.8900	39.4600
 0.8910	39.4620
 0.8920	39.4570
 0.8930	39.4610
 0.8940	39.4660
 0.8950	39.4710
 0.8960	39.4740
 0.8970	39.4720
 0.8980	39.4740
 0.8990	39.4800
 0.9000	39.4760
 0.9010	39.4830
 0.9020	39.4920
 0.9030	39.4990
 0.9040	39.5030
 0.9050	39.5040
 0.9060	39.4970
 0.9070	39.4900
 0.9080	39.5060
 0.9090	39.5130
 0.9100	39.5140
 0.9110	39.5150
 0.9120	39.5140
 0.9130	39.5110
 0.9140	39.5090
 0.9150	39.5090
 0.9160	39.5120
 0.9170	39.5130
 0.9180	39.5140
 0.9190	39.5200
 0.9200	39.5170
 0.9210	39.5160
 0.9220	39.5140
 0.9230	39.5040
 0.9240	39.5030
 0.9250	39.4970
 0.9260	39.4880
 0.9270	39.4900
 0.9280	39.4840
 0.9290	39.4720
 0.9300	39.4610
 0.9310	39.4590
 0.9320	39.4470
 0.9330	39.4380
 0.9340	39.4330
 0.9350	39.4140
 0.9360	39.3990
 0.9370	39.3870
 0.9380	39.3770
 0.9390	39.3760
 0.9400	39.3740
 0.9410	39.3650
 0.9420	39.3460
 0.9430	39.3250
 0.9440	39.3120
 0.9450	39.2950
 0.9460	39.2660
 0.9470	39.2400
 0.9480	39.2030
 0.9490	39.1760
 0.9500	39.1660
 0.9510	39.1290
 0.9520	39.0960
 0.9530	39.0670
 0.9540	39.0330
 0.9550	38.9820
 0.9560	38.9390
 0.9570	38.9030
 0.9580	38.8670
 0.9590	38.8370
 0.9600	38.8090
 0.9610	38.7830
 0.9620	38.7570
 0.9630	38.7300
 0.9640	38.7080
 0.9650	38.6940
 0.9660	38.6860
 0.9670	38.6670
 0.9680	38.6620
 0.9690	38.6610
 0.9700	38.6420
 0.9710	38.6260
 0.9720	38.6340
 0.9730	38.6470
 0.9740	38.6330
 0.9750	38.6160
 0.9760	38.6280
 0.9770	38.6410
 0.9780	38.6170
 0.9790	38.6320
 0.9800	38.6550
 0.9810	38.6610
 0.9820	38.6490
 0.9830	38.6600
 0.9840	38.6720
 0.9850	38.6880
 0.9860	38.7150
 0.9870	38.7210
 0.9880	38.7190
 0.9890	38.7250
 0.9900	38.7420
 0.9910	38.7430
 0.9920	38.7500
 0.9930	38.7570
 0.9940	38.7650
 0.9950	38.7720
 0.9960	38.7790
 0.9970	38.7860
 0.9980	38.7930
 0.9990	38.8000
 1.0000	38.8080
 1.0010	38.8150
 1.0020	38.8220
 1.0030	38.8290
 1.0040	38.8360
 1.0050	38.8440
 1.0060	38.8510
 1.0070	38.8580
 1.0080	38.8650
 1.0090	38.8720
 1.0100	38.8720
 1.0110	38.8880
 1.0120	38.9080
 1.0130	38.9270
 1.0140	38.9460
 1.0150	38.9670
 1.0160	38.9900
 1.0170	39.0060
 1.0180	39.0250
 1.0190	39.0460
 1.0200	39.0620
 1.0210	39.0790
 1.0220	39.0990
 1.0230	39.1180
 1.0240	39.1360
 1.0250	39.1530
 1.0260	39.1720
 1.0270	39.1880
 1.0280	39.2020
 1.0290	39.2160
 1.0300	39.2290
 1.0310	39.2420
 1.0320	39.2520
 1.0330	39.2650
 1.0340	39.2850
 1.0350	39.2980
 1.0360	39.3120
 1.0370	39.3270
 1.0380	39.3380
 1.0390	39.3450
 1.0400	39.3550
 1.0410	39.3670
 1.0420	39.3790
 1.0430	39.3910
 1.0440	39.4020
 1.0450	39.4100
 1.0460	39.4200
 1.0470	39.4270
 1.0480	39.4360
 1.0490	39.4480
 1.0500	39.4580
 1.0510	39.4690
 1.0520	39.4750
 1.0530	39.4830
 1.0540	39.4870
 1.0550	39.4960
 1.0560	39.5060
 1.0570	39.5160
 1.0580	39.5270
 1.0590	39.5370
 1.0600	39.5470
 1.0610	39.5570
 1.0620	39.5680
 1.0630	39.5770
 1.0640	39.5850
 1.0650	39.5950
 1.0660	39.6050
 1.0670	39.6140
 1.0680	39.6230
 1.0690	39.6330
 1.0700	39.6410
 1.0710	39.6480
 1.0720	39.6560
 1.0730	39.6650
 1.0740	39.6740
 1.0750	39.6860
 1.0760	39.6950
 1.0770	39.7040
 1.0780	39.7100
 1.0790	39.7130
 1.0800	39.7180
 1.0810	39.7230
 1.0820	39.7280
 1.0830	39.7330
 1.0840	39.7380
 1.0850	39.7430
 1.0860	39.7490
 1.0870	39.7530
 1.0880	39.7570
 1.0890	39.7590
 1.0900	39.7610
 1.0910	39.7610
 1.0920	39.7610
 1.0930	39.7610
 1.0940	39.7610
 1.0950	39.7600
 1.0960	39.7610
 1.0970	39.7590
 1.0980	39.7550
 1.0990	39.7500
 1.1000	39.7430
 1.1010	39.7360
 1.1020	39.7290
 1.1030	39.7230
 1.1040	39.7190
 1.1050	39.7160
 1.1060	39.7120
 1.1070	39.7090
 1.1080	39.7020
 1.1090	39.6940
 1.1100	39.6840
 1.1110	39.6710
 1.1120	39.6590
 1.1130	39.6440
 1.1140	39.6300
 1.1150	39.6160
 1.1160	39.6000
 1.1170	39.5870
 1.1180	39.5690
 1.1190	39.5500
 1.1200	39.5270
 1.1210	39.5010
 1.1220	39.4720
 1.1230	39.4420
 1.1240	39.4120
 1.1250	39.3790
 1.1260	39.3440
 1.1270	39.3040
 1.1280	39.2610
 1.1290	39.2130
 1.1300	39.1610
 1.1310	39.1050
 1.1320	39.0480
 1.1330	38.9830
 1.1340	38.9150
 1.1350	38.8420
 1.1360	38.7620
 1.1370	38.6780
 1.1380	38.5910
 1.1390	38.5000
 1.1400	38.4030
 1.1410	38.3040
 1.1420	38.2000
 1.1430	38.0950
 1.1440	37.9910
 1.1450	37.8850
 1.1460	37.7820
 1.1470	37.6770
 1.1480	37.5770
 1.1490	37.4790
 1.1500	37.3860
 1.1510	37.2940
 1.1520	37.2100
 1.1530	37.1290
 1.1540	37.0550
 1.1550	36.9870
 1.1560	36.9250
 1.1570	36.8700
 1.1580	36.8220
 1.1590	36.7760
 1.1600	36.7350
 1.1610	36.6970
 1.1620	36.6650
 1.1630	36.6370
 1.1640	36.6140
 1.1650	36.5940
 1.1660	36.5770
 1.1670	36.5620
 1.1680	36.5510
 1.1690	36.5390
 1.1700	36.5300
 1.1710	36.5210
 1.1720	36.5140
 1.1730	36.5060
 1.1740	36.4980
 1.1750	36.4890
 1.1760	36.4780
 1.1770	36.4670
 1.1780	36.4580
 1.1790	36.4470
 1.1800	36.4350
 1.1810	36.4230
 1.1820	36.4090
 1.1830	36.3970
 1.1840	36.3850
 1.1850	36.3740
 1.1860	36.3620
 1.1870	36.3510
 1.1880	36.3410
 1.1890	36.3300
 1.1900	36.3210
 1.1910	36.3150
 1.1920	36.3080
 1.1930	36.3000
 1.1940	36.2940
 1.1950	36.2890
 1.1960	36.2850
 1.1970	36.2830
 1.1980	36.2820
 1.1990	36.2820
 1.2000	36.2820
 1.2010	36.2800
 1.2020	36.2810
 1.2030	36.2830
 1.2040	36.2860
 1.2050	36.2930
 1.2060	36.3030
 1.2070	36.3120
 1.2080	36.3250
 1.2090	36.3400
 1.2100	36.3550
 1.2110	36.3710
 1.2120	36.3880
 1.2130	36.4080
 1.2140	36.4300
 1.2150	36.4560
 1.2160	36.4870
 1.2170	36.5190
 1.2180	36.5510
 1.2190	36.5850
 1.2200	36.6200
 1.2210	36.6560
 1.2220	36.6930
 1.2230	36.7310
 1.2240	36.7700
 1.2250	36.8080
 1.2260	36.8440
 1.2270	36.8810
 1.2280	36.9150
 1.2290	36.9490
 1.2300	36.9820
 1.2310	37.0140
 1.2320	37.0460
 1.2330	37.0770
 1.2340	37.1060
 1.2350	37.1350
 1.2360	37.1630
 1.2370	37.1890
 1.2380	37.2150
 1.2390	37.2390
 1.2400	37.2610
 1.2410	37.2850
 1.2420	37.3070
 1.2430	37.3270
 1.2440	37.3490
 1.2450	37.3700
 1.2460	37.3900
 1.2470	37.4100
 1.2480	37.4290
 1.2490	37.4470
 1.2500	37.4620
 1.2510	37.4790
 1.2520	37.4960
 1.2530	37.5110
 1.2540	37.5260
 1.2550	37.5400
 1.2560	37.5520
 1.2570	37.5630
 1.2580	37.5730
 1.2590	37.5840
 1.2600	37.5950
 1.2610	37.6040
 1.2620	37.6130
 1.2630	37.6190
 1.2640	37.6230
 1.2650	37.6270
 1.2660	37.6290
 1.2670	37.6320
 1.2680	37.6360
 1.2690	37.6350
 1.2700	37.6330
 1.2710	37.6320
 1.2720	37.6280
 1.2730	37.6230
 1.2740	37.6180
 1.2750	37.6120
 1.2760	37.6060
 1.2770	37.6010
 1.2780	37.5960
 1.2790	37.5890
 1.2800	37.5810
 1.2810	37.5720
 1.2820	37.5600
 1.2830	37.5480
 1.2840	37.5350
 1.2850	37.5230
 1.2860	37.5120
 1.2870	37.4980
 1.2880	37.4820
 1.2890	37.4680
 1.2900	37.4500
 1.2910	37.4290
 1.2920	37.4120
 1.2930	37.3930
 1.2940	37.3740
 1.2950	37.3550
 1.2960	37.3340
 1.2970	37.3130
 1.2980	37.2910
 1.2990	37.2660
 1.3000	37.2400
 1.3010	37.2100
 1.3020	37.1760
 1.3030	37.1430
 1.3040	37.1090
 1.3050	37.0730
 1.3060	37.0350
 1.3070	36.9940
 1.3080	36.9500
 1.3090	36.9030
 1.3100	36.8540
 1.3110	36.8000
 1.3120	36.7410
 1.3130	36.6820
 1.3140	36.6190
 1.3150	36.5520
 1.3160	36.4830
 1.3170	36.4140
 1.3180	36.3400
 1.3190	36.2590
 1.3200	36.1780
 1.3210	36.0910
 1.3220	36.0030
 1.3230	35.9130
 1.3240	35.8180
 1.3250	35.7210
 1.3260	35.6200
 1.3270	35.5160
 1.3280	35.4100
 1.3290	35.3010
 1.3300	35.1880
 1.3310	35.0730
 1.3320	34.9560
 1.3330	34.8380
 1.3340	34.7190
 1.3350	34.5970
 1.3360	34.4740
 1.3370	34.3480
 1.3380	34.2210
 1.3390	34.0960
 1.3400	33.9710
 1.3410	33.8470
 1.3420	33.7230
 1.3430	33.5990
 1.3440	33.4750
 1.3450	33.3530
 1.3460	33.2310
 1.3470	33.1120
 1.3480	32.9930
 1.3490	32.8760
 1.3500	32.7620
 1.3510	32.6480
 1.3520	32.5330
 1.3530	32.4200
 1.3540	32.3050
 1.3550	32.1910
 1.3560	32.0780
 1.3570	31.9620
 1.3580	31.8470
 1.3590	31.7290
 1.3600	31.6080
 1.3610	31.4850
 1.3620	31.3590
 1.3630	31.2300
 1.3640	31.0960
 1.3650	30.9540
 1.3660	30.8090
 1.3670	30.6560
 1.3680	30.4950
 1.3690	30.3270
 1.3700	30.1470
 1.3710	29.9570
 1.3720	29.7550
 1.3730	29.5400
 1.3740	29.3130
 1.3750	29.0700
 1.3760	28.8100
 1.3770	28.5320
 1.3780	28.2330
 1.3790	27.9150
 1.3800	27.5770
 1.3810	27.2160
 1.3820	26.8400
 1.3830	26.4460
 1.3840	26.0340
 1.3850	25.6030
 1.3860	25.1600
 1.3870	24.6960
 1.3880	24.2270
 1.3890	23.7460
 1.3900	23.2550
 1.3910	22.7620
 1.3920	22.2640
 1.3930	21.7640
 1.3940	21.2670
 1.3950	20.7650
 1.3960	20.2710
 1.3970	19.7820
 1.3980	19.3020
 1.3990	18.8400
 1.4000	18.3880
 1.4010	17.9490
 1.4020	17.5270
 1.4030	17.1170
 1.4040	16.7260
 1.4050	16.3540
 1.4060	15.9980
 1.4070	15.6640
 1.4080	15.3490
 1.4090	15.0500
 1.4100	14.7740
 1.4110	14.5130
 1.4120	14.2700
 1.4130	14.0450
 1.4140	13.8360
 1.4150	13.6440
 1.4160	13.4680
 1.4170	13.3050
 1.4180	13.1570
 1.4190	13.0200
 1.4200	12.8940
 1.4210	12.7790
 1.4220	12.6750
 1.4230	12.5810
 1.4240	12.4960
 1.4250	12.4170
 1.4260	12.3480
 1.4270	12.2840
 1.4280	12.2270
 1.4290	12.1760
 1.4300	12.1320
 1.4310	12.0930
 1.4320	12.0610
 1.4330	12.0330
 1.4340	12.0100
 1.4350	11.9890
 1.4360	11.9730
 1.4370	11.9600
 1.4380	11.9520
 1.4390	11.9470
 1.4400	11.9450
 1.4410	11.9460
 1.4420	11.9480
 1.4430	11.9520
 1.4440	11.9590
 1.4450	11.9670
 1.4460	11.9760
 1.4470	11.9870
 1.4480	11.9980
 1.4490	12.0110
 1.4500	12.0270
 1.4510	12.0440
 1.4520	12.0610
 1.4530	12.0790
 1.4540	12.0980
 1.4550	12.1180
 1.4560	12.1410
 1.4570	12.1650
 1.4580	12.1920
 1.4590	12.2210
 1.4600	12.2540
 1.4610	12.2900
 1.4620	12.3280
 1.4630	12.3720
 1.4640	12.4180
 1.4650	12.4680
 1.4660	12.5230
 1.4670	12.5830
 1.4680	12.6460
 1.4690	12.7130
 1.4700	12.7840
