Name: Quercus lobata 3
Type: vegetation
Class: Tree
Genus: Quercus
Species: lobata
Sample No.: VH090
Owner: UCSB
Wavelength Range: VSWIR
Origin: 34.7151; -120.0588; WGS84
Collection Date: 4/21/2013
Description: Samples were collected as part of the HyspIRI Airborne Campaign. 48 individual plants were sampled in three times in 2013 - spring  summer  and fall. The name of the sample includes a 1  2  or 3 which references a different individual of the species. Samples were taken to JPL and processed within 48 hours of collection. The same leaves were processed in the Nicolet and then measured using the ASD.
Measurement: Bidirectional reflectance
First Column: X
Second Column: Y
X Units: Wavelength (micrometers)
Y Units: Reflectance (percentage)
First X Value: 0.35
Last X Value: 2.5
Number of X Values: 2151
Additional Information: vegetation.tree.quercus.lobata.vswir.vh090.ucsb.asd.ancillary.txt

 0.3500	 6.6580
 0.3510	 6.5630
 0.3520	 6.6090
 0.3530	 6.6070
 0.3540	 6.4590
 0.3550	 6.4740
 0.3560	 6.6010
 0.3570	 6.6530
 0.3580	 6.4400
 0.3590	 6.3120
 0.3600	 6.3520
 0.3610	 6.4820
 0.3620	 6.4450
 0.3630	 6.3730
 0.3640	 6.3460
 0.3650	 6.4050
 0.3660	 6.5050
 0.3670	 6.5470
 0.3680	 6.5440
 0.3690	 6.5770
 0.3700	 6.5590
 0.3710	 6.5330
 0.3720	 6.5330
 0.3730	 6.5420
 0.3740	 6.5290
 0.3750	 6.5680
 0.3760	 6.6960
 0.3770	 6.6050
 0.3780	 6.5810
 0.3790	 6.6600
 0.3800	 6.6480
 0.3810	 6.5810
 0.3820	 6.5330
 0.3830	 6.5610
 0.3840	 6.6810
 0.3850	 6.7130
 0.3860	 6.7210
 0.3870	 6.8230
 0.3880	 6.8690
 0.3890	 6.8640
 0.3900	 6.8640
 0.3910	 6.9570
 0.3920	 6.9510
 0.3930	 6.9430
 0.3940	 7.0140
 0.3950	 7.0340
 0.3960	 7.0800
 0.3970	 7.1460
 0.3980	 7.1930
 0.3990	 7.2310
 0.4000	 7.2760
 0.4010	 7.3280
 0.4020	 7.3690
 0.4030	 7.4460
 0.4040	 7.5280
 0.4050	 7.5820
 0.4060	 7.6460
 0.4070	 7.7160
 0.4080	 7.7930
 0.4090	 7.8790
 0.4100	 7.9400
 0.4110	 8.0170
 0.4120	 8.1200
 0.4130	 8.1930
 0.4140	 8.2820
 0.4150	 8.3650
 0.4160	 8.4120
 0.4170	 8.4850
 0.4180	 8.5550
 0.4190	 8.6090
 0.4200	 8.6530
 0.4210	 8.7120
 0.4220	 8.7720
 0.4230	 8.8230
 0.4240	 8.8760
 0.4250	 8.9360
 0.4260	 8.9890
 0.4270	 9.0180
 0.4280	 9.0590
 0.4290	 9.1010
 0.4300	 9.1400
 0.4310	 9.1830
 0.4320	 9.1980
 0.4330	 9.2050
 0.4340	 9.2290
 0.4350	 9.2640
 0.4360	 9.2850
 0.4370	 9.2940
 0.4380	 9.3140
 0.4390	 9.3380
 0.4400	 9.3640
 0.4410	 9.3880
 0.4420	 9.4060
 0.4430	 9.4160
 0.4440	 9.4240
 0.4450	 9.4400
 0.4460	 9.4500
 0.4470	 9.4600
 0.4480	 9.4760
 0.4490	 9.4980
 0.4500	 9.5030
 0.4510	 9.5010
 0.4520	 9.5100
 0.4530	 9.5220
 0.4540	 9.5440
 0.4550	 9.5640
 0.4560	 9.5610
 0.4570	 9.5630
 0.4580	 9.5710
 0.4590	 9.5790
 0.4600	 9.5730
 0.4610	 9.5660
 0.4620	 9.5680
 0.4630	 9.5780
 0.4640	 9.5760
 0.4650	 9.5850
 0.4660	 9.6010
 0.4670	 9.5960
 0.4680	 9.5950
 0.4690	 9.5970
 0.4700	 9.5990
 0.4710	 9.5980
 0.4720	 9.5990
 0.4730	 9.6030
 0.4740	 9.6120
 0.4750	 9.6150
 0.4760	 9.6170
 0.4770	 9.6170
 0.4780	 9.6000
 0.4790	 9.5970
 0.4800	 9.6050
 0.4810	 9.6110
 0.4820	 9.6180
 0.4830	 9.6200
 0.4840	 9.6210
 0.4850	 9.6260
 0.4860	 9.6350
 0.4870	 9.6430
 0.4880	 9.6530
 0.4890	 9.6690
 0.4900	 9.6800
 0.4910	 9.6920
 0.4920	 9.7140
 0.4930	 9.7320
 0.4940	 9.7510
 0.4950	 9.7730
 0.4960	 9.7960
 0.4970	 9.8260
 0.4980	 9.8590
 0.4990	 9.8900
 0.5000	 9.9330
 0.5010	 9.9770
 0.5020	10.0220
 0.5030	10.0710
 0.5040	10.1340
 0.5050	10.2130
 0.5060	10.3050
 0.5070	10.3950
 0.5080	10.4970
 0.5090	10.6120
 0.5100	10.7360
 0.5110	10.8700
 0.5120	11.0210
 0.5130	11.1920
 0.5140	11.3750
 0.5150	11.5780
 0.5160	11.7940
 0.5170	12.0160
 0.5180	12.2520
 0.5190	12.4970
 0.5200	12.7500
 0.5210	13.0130
 0.5220	13.2720
 0.5230	13.5250
 0.5240	13.7750
 0.5250	14.0190
 0.5260	14.2580
 0.5270	14.4860
 0.5280	14.6930
 0.5290	14.8830
 0.5300	15.0620
 0.5310	15.2260
 0.5320	15.3710
 0.5330	15.5050
 0.5340	15.6280
 0.5350	15.7370
 0.5360	15.8300
 0.5370	15.9160
 0.5380	15.9930
 0.5390	16.0540
 0.5400	16.1120
 0.5410	16.1690
 0.5420	16.2250
 0.5430	16.2820
 0.5440	16.3330
 0.5450	16.3790
 0.5460	16.4240
 0.5470	16.4660
 0.5480	16.5070
 0.5490	16.5430
 0.5500	16.5650
 0.5510	16.5800
 0.5520	16.5850
 0.5530	16.5770
 0.5540	16.5510
 0.5550	16.5120
 0.5560	16.4570
 0.5570	16.3790
 0.5580	16.2900
 0.5590	16.1900
 0.5600	16.0760
 0.5610	15.9500
 0.5620	15.8190
 0.5630	15.6800
 0.5640	15.5310
 0.5650	15.3690
 0.5660	15.2030
 0.5670	15.0400
 0.5680	14.8740
 0.5690	14.7000
 0.5700	14.5250
 0.5710	14.3570
 0.5720	14.2080
 0.5730	14.0680
 0.5740	13.9350
 0.5750	13.8130
 0.5760	13.6910
 0.5770	13.5730
 0.5780	13.4650
 0.5790	13.3700
 0.5800	13.2800
 0.5810	13.1950
 0.5820	13.1170
 0.5830	13.0420
 0.5840	12.9610
 0.5850	12.8780
 0.5860	12.8090
 0.5870	12.7440
 0.5880	12.6800
 0.5890	12.6190
 0.5900	12.5720
 0.5910	12.5320
 0.5920	12.4990
 0.5930	12.4770
 0.5940	12.4540
 0.5950	12.4310
 0.5960	12.4070
 0.5970	12.3740
 0.5980	12.3400
 0.5990	12.3060
 0.6000	12.2710
 0.6010	12.2290
 0.6020	12.1860
 0.6030	12.1460
 0.6040	12.1080
 0.6050	12.0610
 0.6060	12.0100
 0.6070	11.9560
 0.6080	11.8960
 0.6090	11.8320
 0.6100	11.7670
 0.6110	11.7010
 0.6120	11.6380
 0.6130	11.5780
 0.6140	11.5190
 0.6150	11.4600
 0.6160	11.4030
 0.6170	11.3510
 0.6180	11.3060
 0.6190	11.2560
 0.6200	11.2160
 0.6210	11.1830
 0.6220	11.1470
 0.6230	11.1180
 0.6240	11.0950
 0.6250	11.0760
 0.6260	11.0590
 0.6270	11.0450
 0.6280	11.0340
 0.6290	11.0260
 0.6300	11.0200
 0.6310	11.0120
 0.6320	10.9980
 0.6330	10.9750
 0.6340	10.9550
 0.6350	10.9330
 0.6360	10.8960
 0.6370	10.8420
 0.6380	10.7890
 0.6390	10.7340
 0.6400	10.6700
 0.6410	10.6000
 0.6420	10.5320
 0.6430	10.4690
 0.6440	10.4030
 0.6450	10.3390
 0.6460	10.2820
 0.6470	10.2340
 0.6480	10.1920
 0.6490	10.1540
 0.6500	10.1190
 0.6510	10.0920
 0.6520	10.0720
 0.6530	10.0550
 0.6540	10.0350
 0.6550	10.0160
 0.6560	 9.9940
 0.6570	 9.9710
 0.6580	 9.9460
 0.6590	 9.9210
 0.6600	 9.8940
 0.6610	 9.8650
 0.6620	 9.8340
 0.6630	 9.8110
 0.6640	 9.7920
 0.6650	 9.7690
 0.6660	 9.7480
 0.6670	 9.7360
 0.6680	 9.7320
 0.6690	 9.7290
 0.6700	 9.7320
 0.6710	 9.7370
 0.6720	 9.7440
 0.6730	 9.7500
 0.6740	 9.7640
 0.6750	 9.7810
 0.6760	 9.7990
 0.6770	 9.8230
 0.6780	 9.8440
 0.6790	 9.8660
 0.6800	 9.9000
 0.6810	 9.9360
 0.6820	 9.9750
 0.6830	10.0200
 0.6840	10.0750
 0.6850	10.1380
 0.6860	10.2130
 0.6870	10.3060
 0.6880	10.4220
 0.6890	10.5710
 0.6900	10.7640
 0.6910	11.0150
 0.6920	11.3270
 0.6930	11.7080
 0.6940	12.1640
 0.6950	12.7030
 0.6960	13.3230
 0.6970	14.0230
 0.6980	14.8010
 0.6990	15.6440
 0.7000	16.5450
 0.7010	17.4940
 0.7020	18.4760
 0.7030	19.4830
 0.7040	20.5070
 0.7050	21.5370
 0.7060	22.5660
 0.7070	23.5940
 0.7080	24.6120
 0.7090	25.6160
 0.7100	26.6160
 0.7110	27.6100
 0.7120	28.5900
 0.7130	29.5460
 0.7140	30.4940
 0.7150	31.4320
 0.7160	32.3520
 0.7170	33.2500
 0.7180	34.1300
 0.7190	34.9900
 0.7200	35.8300
 0.7210	36.6500
 0.7220	37.4490
 0.7230	38.2220
 0.7240	38.9650
 0.7250	39.6860
 0.7260	40.3770
 0.7270	41.0340
 0.7280	41.6640
 0.7290	42.2660
 0.7300	42.8400
 0.7310	43.3870
 0.7320	43.9010
 0.7330	44.3860
 0.7340	44.8470
 0.7350	45.2840
 0.7360	45.6950
 0.7370	46.0810
 0.7380	46.4420
 0.7390	46.7770
 0.7400	47.0940
 0.7410	47.3930
 0.7420	47.6720
 0.7430	47.9250
 0.7440	48.1600
 0.7450	48.3820
 0.7460	48.5880
 0.7470	48.7750
 0.7480	48.9440
 0.7490	49.1000
 0.7500	49.2470
 0.7510	49.3790
 0.7520	49.4960
 0.7530	49.6030
 0.7540	49.7020
 0.7550	49.7930
 0.7560	49.8750
 0.7570	49.9480
 0.7580	50.0150
 0.7590	50.0760
 0.7600	50.1300
 0.7610	50.1840
 0.7620	50.2280
 0.7630	50.2670
 0.7640	50.3040
 0.7650	50.3400
 0.7660	50.3720
 0.7670	50.4020
 0.7680	50.4300
 0.7690	50.4530
 0.7700	50.4720
 0.7710	50.4910
 0.7720	50.5130
 0.7730	50.5270
 0.7740	50.5390
 0.7750	50.5530
 0.7760	50.5670
 0.7770	50.5850
 0.7780	50.6030
 0.7790	50.6130
 0.7800	50.6240
 0.7810	50.6380
 0.7820	50.6540
 0.7830	50.6650
 0.7840	50.6740
 0.7850	50.6820
 0.7860	50.6930
 0.7870	50.7040
 0.7880	50.7160
 0.7890	50.7270
 0.7900	50.7340
 0.7910	50.7360
 0.7920	50.7430
 0.7930	50.7540
 0.7940	50.7620
 0.7950	50.7690
 0.7960	50.7710
 0.7970	50.7710
 0.7980	50.7770
 0.7990	50.7780
 0.8000	50.7780
 0.8010	50.7840
 0.8020	50.7840
 0.8030	50.7790
 0.8040	50.7770
 0.8050	50.7840
 0.8060	50.7780
 0.8070	50.7730
 0.8080	50.7700
 0.8090	50.7660
 0.8100	50.7620
 0.8110	50.7610
 0.8120	50.7610
 0.8130	50.7560
 0.8140	50.7440
 0.8150	50.7360
 0.8160	50.7360
 0.8170	50.7310
 0.8180	50.7230
 0.8190	50.7140
 0.8200	50.7070
 0.8210	50.6980
 0.8220	50.6890
 0.8230	50.6810
 0.8240	50.6730
 0.8250	50.6650
 0.8260	50.6590
 0.8270	50.6560
 0.8280	50.6490
 0.8290	50.6380
 0.8300	50.6260
 0.8310	50.6170
 0.8320	50.6090
 0.8330	50.6030
 0.8340	50.5940
 0.8350	50.5830
 0.8360	50.5790
 0.8370	50.5750
 0.8380	50.5710
 0.8390	50.5730
 0.8400	50.5700
 0.8410	50.5670
 0.8420	50.5660
 0.8430	50.5590
 0.8440	50.5570
 0.8450	50.5590
 0.8460	50.5620
 0.8470	50.5670
 0.8480	50.5650
 0.8490	50.5600
 0.8500	50.5610
 0.8510	50.5670
 0.8520	50.5690
 0.8530	50.5670
 0.8540	50.5670
 0.8550	50.5700
 0.8560	50.5670
 0.8570	50.5620
 0.8580	50.5700
 0.8590	50.5790
 0.8600	50.5870
 0.8610	50.5910
 0.8620	50.5940
 0.8630	50.5920
 0.8640	50.5940
 0.8650	50.6050
 0.8660	50.6100
 0.8670	50.6120
 0.8680	50.6140
 0.8690	50.6220
 0.8700	50.6290
 0.8710	50.6370
 0.8720	50.6430
 0.8730	50.6420
 0.8740	50.6500
 0.8750	50.6580
 0.8760	50.6620
 0.8770	50.6660
 0.8780	50.6750
 0.8790	50.6860
 0.8800	50.6960
 0.8810	50.6950
 0.8820	50.6990
 0.8830	50.7080
 0.8840	50.7190
 0.8850	50.7220
 0.8860	50.7240
 0.8870	50.7290
 0.8880	50.7390
 0.8890	50.7490
 0.8900	50.7560
 0.8910	50.7580
 0.8920	50.7590
 0.8930	50.7750
 0.8940	50.7780
 0.8950	50.7730
 0.8960	50.7840
 0.8970	50.8050
 0.8980	50.8090
 0.8990	50.8010
 0.9000	50.8070
 0.9010	50.8140
 0.9020	50.8220
 0.9030	50.8330
 0.9040	50.8410
 0.9050	50.8420
 0.9060	50.8450
 0.9070	50.8520
 0.9080	50.8540
 0.9090	50.8650
 0.9100	50.8790
 0.9110	50.8870
 0.9120	50.8910
 0.9130	50.8910
 0.9140	50.8930
 0.9150	50.8990
 0.9160	50.8990
 0.9170	50.8990
 0.9180	50.8980
 0.9190	50.8930
 0.9200	50.8910
 0.9210	50.8950
 0.9220	50.9000
 0.9230	50.8960
 0.9240	50.8900
 0.9250	50.8890
 0.9260	50.8870
 0.9270	50.8700
 0.9280	50.8520
 0.9290	50.8490
 0.9300	50.8500
 0.9310	50.8220
 0.9320	50.8000
 0.9330	50.7880
 0.9340	50.7830
 0.9350	50.7810
 0.9360	50.7630
 0.9370	50.7420
 0.9380	50.7250
 0.9390	50.6980
 0.9400	50.6780
 0.9410	50.6620
 0.9420	50.6440
 0.9430	50.6150
 0.9440	50.5810
 0.9450	50.5530
 0.9460	50.5280
 0.9470	50.4840
 0.9480	50.4480
 0.9490	50.4150
 0.9500	50.3750
 0.9510	50.3380
 0.9520	50.2740
 0.9530	50.2110
 0.9540	50.1750
 0.9550	50.1410
 0.9560	50.1030
 0.9570	50.0560
 0.9580	49.9980
 0.9590	49.9420
 0.9600	49.9030
 0.9610	49.8700
 0.9620	49.8310
 0.9630	49.8100
 0.9640	49.7970
 0.9650	49.7800
 0.9660	49.7540
 0.9670	49.7430
 0.9680	49.7140
 0.9690	49.6940
 0.9700	49.7110
 0.9710	49.6800
 0.9720	49.6640
 0.9730	49.6610
 0.9740	49.6470
 0.9750	49.6400
 0.9760	49.6470
 0.9770	49.6530
 0.9780	49.6450
 0.9790	49.6580
 0.9800	49.6660
 0.9810	49.6640
 0.9820	49.6560
 0.9830	49.6520
 0.9840	49.6650
 0.9850	49.6860
 0.9860	49.6940
 0.9870	49.6950
 0.9880	49.7150
 0.9890	49.7340
 0.9900	49.7230
 0.9910	49.7340
 0.9920	49.8100
 0.9930	49.8870
 0.9940	49.9630
 0.9950	50.0390
 0.9960	50.1150
 0.9970	50.1920
 0.9980	50.2680
 0.9990	50.3440
 1.0000	50.4200
 1.0010	50.4970
 1.0020	50.5730
 1.0030	50.6490
 1.0040	50.7250
 1.0050	50.8020
 1.0060	50.8780
 1.0070	50.9540
 1.0080	51.0300
 1.0090	51.1060
 1.0100	51.1060
 1.0110	51.1120
 1.0120	51.1260
 1.0130	51.1470
 1.0140	51.1640
 1.0150	51.1800
 1.0160	51.1990
 1.0170	51.2090
 1.0180	51.2160
 1.0190	51.2270
 1.0200	51.2420
 1.0210	51.2600
 1.0220	51.2770
 1.0230	51.2910
 1.0240	51.3000
 1.0250	51.3130
 1.0260	51.3270
 1.0270	51.3390
 1.0280	51.3510
 1.0290	51.3630
 1.0300	51.3740
 1.0310	51.3840
 1.0320	51.3930
 1.0330	51.4040
 1.0340	51.4160
 1.0350	51.4250
 1.0360	51.4350
 1.0370	51.4460
 1.0380	51.4560
 1.0390	51.4630
 1.0400	51.4720
 1.0410	51.4810
 1.0420	51.4920
 1.0430	51.5050
 1.0440	51.5150
 1.0450	51.5280
 1.0460	51.5360
 1.0470	51.5400
 1.0480	51.5460
 1.0490	51.5490
 1.0500	51.5530
 1.0510	51.5590
 1.0520	51.5640
 1.0530	51.5700
 1.0540	51.5770
 1.0550	51.5840
 1.0560	51.5940
 1.0570	51.6000
 1.0580	51.6070
 1.0590	51.6110
 1.0600	51.6100
 1.0610	51.6130
 1.0620	51.6140
 1.0630	51.6170
 1.0640	51.6210
 1.0650	51.6240
 1.0660	51.6280
 1.0670	51.6290
 1.0680	51.6300
 1.0690	51.6290
 1.0700	51.6300
 1.0710	51.6330
 1.0720	51.6300
 1.0730	51.6260
 1.0740	51.6230
 1.0750	51.6170
 1.0760	51.6130
 1.0770	51.6130
 1.0780	51.6100
 1.0790	51.6050
 1.0800	51.6010
 1.0810	51.5980
 1.0820	51.5950
 1.0830	51.5930
 1.0840	51.5890
 1.0850	51.5860
 1.0860	51.5820
 1.0870	51.5750
 1.0880	51.5670
 1.0890	51.5580
 1.0900	51.5480
 1.0910	51.5380
 1.0920	51.5280
 1.0930	51.5190
 1.0940	51.5100
 1.0950	51.5000
 1.0960	51.4890
 1.0970	51.4810
 1.0980	51.4770
 1.0990	51.4690
 1.1000	51.4600
 1.1010	51.4510
 1.1020	51.4410
 1.1030	51.4310
 1.1040	51.4230
 1.1050	51.4150
 1.1060	51.4040
 1.1070	51.3900
 1.1080	51.3770
 1.1090	51.3650
 1.1100	51.3520
 1.1110	51.3420
 1.1120	51.3290
 1.1130	51.3160
 1.1140	51.3010
 1.1150	51.2830
 1.1160	51.2660
 1.1170	51.2490
 1.1180	51.2310
 1.1190	51.2100
 1.1200	51.1910
 1.1210	51.1690
 1.1220	51.1440
 1.1230	51.1160
 1.1240	51.0870
 1.1250	51.0540
 1.1260	51.0170
 1.1270	50.9750
 1.1280	50.9290
 1.1290	50.8770
 1.1300	50.8190
 1.1310	50.7550
 1.1320	50.6860
 1.1330	50.6120
 1.1340	50.5300
 1.1350	50.4460
 1.1360	50.3600
 1.1370	50.2670
 1.1380	50.1710
 1.1390	50.0690
 1.1400	49.9600
 1.1410	49.8490
 1.1420	49.7350
 1.1430	49.6230
 1.1440	49.5100
 1.1450	49.3930
 1.1460	49.2830
 1.1470	49.1700
 1.1480	49.0660
 1.1490	48.9660
 1.1500	48.8710
 1.1510	48.7800
 1.1520	48.6960
 1.1530	48.6170
 1.1540	48.5450
 1.1550	48.4780
 1.1560	48.4200
 1.1570	48.3690
 1.1580	48.3270
 1.1590	48.2900
 1.1600	48.2560
 1.1610	48.2280
 1.1620	48.2050
 1.1630	48.1860
 1.1640	48.1720
 1.1650	48.1590
 1.1660	48.1490
 1.1670	48.1400
 1.1680	48.1320
 1.1690	48.1260
 1.1700	48.1220
 1.1710	48.1180
 1.1720	48.1170
 1.1730	48.1150
 1.1740	48.1120
 1.1750	48.1090
 1.1760	48.1040
 1.1770	48.0980
 1.1780	48.0910
 1.1790	48.0820
 1.1800	48.0720
 1.1810	48.0640
 1.1820	48.0560
 1.1830	48.0500
 1.1840	48.0430
 1.1850	48.0350
 1.1860	48.0290
 1.1870	48.0220
 1.1880	48.0160
 1.1890	48.0110
 1.1900	48.0050
 1.1910	47.9960
 1.1920	47.9910
 1.1930	47.9870
 1.1940	47.9860
 1.1950	47.9870
 1.1960	47.9890
 1.1970	47.9900
 1.1980	47.9910
 1.1990	47.9940
 1.2000	47.9980
 1.2010	48.0020
 1.2020	48.0090
 1.2030	48.0170
 1.2040	48.0270
 1.2050	48.0380
 1.2060	48.0480
 1.2070	48.0590
 1.2080	48.0680
 1.2090	48.0790
 1.2100	48.0900
 1.2110	48.1030
 1.2120	48.1180
 1.2130	48.1330
 1.2140	48.1510
 1.2150	48.1680
 1.2160	48.1860
 1.2170	48.2030
 1.2180	48.2190
 1.2190	48.2380
 1.2200	48.2570
 1.2210	48.2770
 1.2220	48.2990
 1.2230	48.3200
 1.2240	48.3380
 1.2250	48.3550
 1.2260	48.3700
 1.2270	48.3840
 1.2280	48.4000
 1.2290	48.4170
 1.2300	48.4360
 1.2310	48.4520
 1.2320	48.4670
 1.2330	48.4820
 1.2340	48.4970
 1.2350	48.5100
 1.2360	48.5240
 1.2370	48.5370
 1.2380	48.5490
 1.2390	48.5600
 1.2400	48.5730
 1.2410	48.5860
 1.2420	48.5970
 1.2430	48.6070
 1.2440	48.6150
 1.2450	48.6240
 1.2460	48.6340
 1.2470	48.6450
 1.2480	48.6540
 1.2490	48.6620
 1.2500	48.6680
 1.2510	48.6730
 1.2520	48.6790
 1.2530	48.6870
 1.2540	48.6940
 1.2550	48.6960
 1.2560	48.7000
 1.2570	48.7040
 1.2580	48.7050
 1.2590	48.7060
 1.2600	48.7090
 1.2610	48.7090
 1.2620	48.7050
 1.2630	48.7030
 1.2640	48.7040
 1.2650	48.7020
 1.2660	48.7010
 1.2670	48.6990
 1.2680	48.6930
 1.2690	48.6900
 1.2700	48.6840
 1.2710	48.6780
 1.2720	48.6720
 1.2730	48.6620
 1.2740	48.6510
 1.2750	48.6420
 1.2760	48.6300
 1.2770	48.6200
 1.2780	48.6100
 1.2790	48.5950
 1.2800	48.5800
 1.2810	48.5670
 1.2820	48.5510
 1.2830	48.5370
 1.2840	48.5200
 1.2850	48.4990
 1.2860	48.4760
 1.2870	48.4520
 1.2880	48.4260
 1.2890	48.4010
 1.2900	48.3740
 1.2910	48.3460
 1.2920	48.3170
 1.2930	48.2850
 1.2940	48.2510
 1.2950	48.2140
 1.2960	48.1740
 1.2970	48.1330
 1.2980	48.0890
 1.2990	48.0430
 1.3000	47.9940
 1.3010	47.9450
 1.3020	47.8950
 1.3030	47.8430
 1.3040	47.7900
 1.3050	47.7330
 1.3060	47.6730
 1.3070	47.6100
 1.3080	47.5450
 1.3090	47.4780
 1.3100	47.4090
 1.3110	47.3380
 1.3120	47.2660
 1.3130	47.1900
 1.3140	47.1110
 1.3150	47.0300
 1.3160	46.9450
 1.3170	46.8580
 1.3180	46.7680
 1.3190	46.6760
 1.3200	46.5820
 1.3210	46.4840
 1.3220	46.3860
 1.3230	46.2860
 1.3240	46.1820
 1.3250	46.0790
 1.3260	45.9720
 1.3270	45.8640
 1.3280	45.7560
 1.3290	45.6420
 1.3300	45.5260
 1.3310	45.4090
 1.3320	45.2880
 1.3330	45.1700
 1.3340	45.0480
 1.3350	44.9240
 1.3360	44.8020
 1.3370	44.6790
 1.3380	44.5570
 1.3390	44.4380
 1.3400	44.3170
 1.3410	44.1980
 1.3420	44.0790
 1.3430	43.9580
 1.3440	43.8390
 1.3450	43.7200
 1.3460	43.6030
 1.3470	43.4870
 1.3480	43.3720
 1.3490	43.2600
 1.3500	43.1510
 1.3510	43.0390
 1.3520	42.9240
 1.3530	42.8110
 1.3540	42.6960
 1.3550	42.5810
 1.3560	42.4700
 1.3570	42.3560
 1.3580	42.2390
 1.3590	42.1190
 1.3600	41.9940
 1.3610	41.8670
 1.3620	41.7360
 1.3630	41.6000
 1.3640	41.4590
 1.3650	41.3080
 1.3660	41.1520
 1.3670	40.9860
 1.3680	40.8090
 1.3690	40.6230
 1.3700	40.4200
 1.3710	40.2050
 1.3720	39.9750
 1.3730	39.7260
 1.3740	39.4650
 1.3750	39.1850
 1.3760	38.8820
 1.3770	38.5620
 1.3780	38.2160
 1.3790	37.8480
 1.3800	37.4590
 1.3810	37.0440
 1.3820	36.6110
 1.3830	36.1560
 1.3840	35.6840
 1.3850	35.1910
 1.3860	34.6840
 1.3870	34.1560
 1.3880	33.6210
 1.3890	33.0740
 1.3900	32.5150
 1.3910	31.9550
 1.3920	31.3850
 1.3930	30.8130
 1.3940	30.2440
 1.3950	29.6710
 1.3960	29.1080
 1.3970	28.5550
 1.3980	28.0100
 1.3990	27.4850
 1.4000	26.9750
 1.4010	26.4800
 1.4020	26.0060
 1.4030	25.5460
 1.4040	25.1090
 1.4050	24.6970
 1.4060	24.3040
 1.4070	23.9390
 1.4080	23.5950
 1.4090	23.2700
 1.4100	22.9700
 1.4110	22.6880
 1.4120	22.4270
 1.4130	22.1860
 1.4140	21.9640
 1.4150	21.7630
 1.4160	21.5790
 1.4170	21.4090
 1.4180	21.2560
 1.4190	21.1160
 1.4200	20.9890
 1.4210	20.8740
 1.4220	20.7710
 1.4230	20.6790
 1.4240	20.5980
 1.4250	20.5250
 1.4260	20.4640
 1.4270	20.4080
 1.4280	20.3600
 1.4290	20.3180
 1.4300	20.2840
 1.4310	20.2540
 1.4320	20.2310
 1.4330	20.2130
 1.4340	20.1990
 1.4350	20.1900
 1.4360	20.1840
 1.4370	20.1820
 1.4380	20.1840
 1.4390	20.1890
 1.4400	20.1960
 1.4410	20.2060
 1.4420	20.2170
 1.4430	20.2310
 1.4440	20.2480
 1.4450	20.2670
 1.4460	20.2870
 1.4470	20.3080
 1.4480	20.3290
 1.4490	20.3510
 1.4500	20.3760
 1.4510	20.4010
 1.4520	20.4280
 1.4530	20.4580
 1.4540	20.4880
 1.4550	20.5190
 1.4560	20.5530
 1.4570	20.5890
 1.4580	20.6290
 1.4590	20.6710
 1.4600	20.7190
 1.4610	20.7700
 1.4620	20.8260
 1.4630	20.8870
 1.4640	20.9530
 1.4650	21.0230
 1.4660	21.1000
 1.4670	21.1810
 1.4680	21.2680
 1.4690	21.3610
 1.4700	21.4570
