Name: Pinus ponderosa 2
Type: vegetation
Class: Tree
Genus: Pinus
Species: ponderosa
Sample No.: VH254
Owner: UCSB
Wavelength Range: VSWIR
Origin: 37.044; -119.3023; WGS84
Collection Date: 11/2/2013
Description: Samples were collected as part of the HyspIRI Airborne Campaign. 48 individual plants were sampled in three times in 2013 - spring  summer  and fall. The name of the sample includes a 1  2  or 3 which references a different individual of the species. Samples were taken to JPL and processed within 48 hours of collection. The same leaves were processed in the Nicolet and then measured using the ASD.
Measurement: Bidirectional reflectance
First Column: X
Second Column: Y
X Units: Wavelength (micrometers)
Y Units: Reflectance (percentage)
First X Value: 0.35
Last X Value: 2.5
Number of X Values: 2151
Additional Information: vegetation.tree.pinus.ponderosa.vswir.vh254.ucsb.asd.ancillary.txt

 0.3500	 5.3700
 0.3510	 5.1100
 0.3520	 4.9470
 0.3530	 4.9490
 0.3540	 5.0180
 0.3550	 5.0340
 0.3560	 4.9720
 0.3570	 4.8870
 0.3580	 4.8660
 0.3590	 4.8980
 0.3600	 4.9200
 0.3610	 4.8990
 0.3620	 4.8340
 0.3630	 4.7660
 0.3640	 4.7370
 0.3650	 4.7620
 0.3660	 4.7630
 0.3670	 4.7980
 0.3680	 4.8150
 0.3690	 4.7080
 0.3700	 4.7190
 0.3710	 4.7500
 0.3720	 4.7390
 0.3730	 4.7770
 0.3740	 4.7340
 0.3750	 4.6780
 0.3760	 4.7100
 0.3770	 4.7800
 0.3780	 4.8100
 0.3790	 4.7710
 0.3800	 4.6880
 0.3810	 4.6720
 0.3820	 4.6840
 0.3830	 4.6900
 0.3840	 4.7410
 0.3850	 4.7510
 0.3860	 4.7250
 0.3870	 4.7110
 0.3880	 4.7620
 0.3890	 4.7430
 0.3900	 4.6610
 0.3910	 4.6660
 0.3920	 4.7170
 0.3930	 4.7290
 0.3940	 4.6750
 0.3950	 4.6930
 0.3960	 4.7180
 0.3970	 4.7220
 0.3980	 4.7020
 0.3990	 4.7060
 0.4000	 4.7070
 0.4010	 4.6940
 0.4020	 4.6760
 0.4030	 4.6670
 0.4040	 4.6930
 0.4050	 4.7530
 0.4060	 4.7560
 0.4070	 4.7550
 0.4080	 4.7720
 0.4090	 4.8060
 0.4100	 4.8300
 0.4110	 4.8660
 0.4120	 4.9180
 0.4130	 4.9400
 0.4140	 4.9650
 0.4150	 4.9940
 0.4160	 5.0250
 0.4170	 5.0840
 0.4180	 5.1450
 0.4190	 5.2010
 0.4200	 5.2650
 0.4210	 5.3100
 0.4220	 5.3610
 0.4230	 5.4310
 0.4240	 5.4880
 0.4250	 5.5520
 0.4260	 5.6080
 0.4270	 5.6360
 0.4280	 5.7010
 0.4290	 5.7690
 0.4300	 5.8210
 0.4310	 5.8690
 0.4320	 5.9230
 0.4330	 5.9690
 0.4340	 5.9940
 0.4350	 6.0230
 0.4360	 6.0640
 0.4370	 6.1140
 0.4380	 6.1610
 0.4390	 6.1980
 0.4400	 6.2410
 0.4410	 6.2940
 0.4420	 6.3320
 0.4430	 6.3600
 0.4440	 6.3880
 0.4450	 6.4220
 0.4460	 6.4470
 0.4470	 6.4760
 0.4480	 6.5150
 0.4490	 6.5500
 0.4500	 6.5790
 0.4510	 6.5980
 0.4520	 6.6120
 0.4530	 6.6460
 0.4540	 6.6710
 0.4550	 6.6810
 0.4560	 6.6850
 0.4570	 6.7110
 0.4580	 6.7340
 0.4590	 6.7400
 0.4600	 6.7520
 0.4610	 6.7710
 0.4620	 6.7820
 0.4630	 6.7760
 0.4640	 6.8000
 0.4650	 6.8250
 0.4660	 6.8370
 0.4670	 6.8360
 0.4680	 6.8360
 0.4690	 6.8430
 0.4700	 6.8570
 0.4710	 6.8530
 0.4720	 6.8510
 0.4730	 6.8530
 0.4740	 6.8560
 0.4750	 6.8590
 0.4760	 6.8640
 0.4770	 6.8690
 0.4780	 6.8780
 0.4790	 6.8860
 0.4800	 6.8900
 0.4810	 6.8900
 0.4820	 6.8960
 0.4830	 6.9010
 0.4840	 6.9020
 0.4850	 6.9080
 0.4860	 6.9140
 0.4870	 6.9240
 0.4880	 6.9430
 0.4890	 6.9610
 0.4900	 6.9850
 0.4910	 7.0110
 0.4920	 7.0330
 0.4930	 7.0660
 0.4940	 7.0990
 0.4950	 7.1300
 0.4960	 7.1650
 0.4970	 7.2060
 0.4980	 7.2520
 0.4990	 7.3000
 0.5000	 7.3430
 0.5010	 7.3960
 0.5020	 7.4620
 0.5030	 7.5310
 0.5040	 7.6040
 0.5050	 7.6850
 0.5060	 7.7730
 0.5070	 7.8610
 0.5080	 7.9550
 0.5090	 8.0600
 0.5100	 8.1780
 0.5110	 8.2980
 0.5120	 8.4240
 0.5130	 8.5610
 0.5140	 8.7060
 0.5150	 8.8560
 0.5160	 9.0120
 0.5170	 9.1730
 0.5180	 9.3430
 0.5190	 9.5200
 0.5200	 9.7010
 0.5210	 9.8810
 0.5220	10.0630
 0.5230	10.2410
 0.5240	10.4120
 0.5250	10.5840
 0.5260	10.7550
 0.5270	10.9190
 0.5280	11.0660
 0.5290	11.2140
 0.5300	11.3540
 0.5310	11.4810
 0.5320	11.6030
 0.5330	11.7120
 0.5340	11.8140
 0.5350	11.9120
 0.5360	11.9990
 0.5370	12.0820
 0.5380	12.1590
 0.5390	12.2220
 0.5400	12.2800
 0.5410	12.3320
 0.5420	12.3770
 0.5430	12.4260
 0.5440	12.4760
 0.5450	12.5230
 0.5460	12.5690
 0.5470	12.6320
 0.5480	12.6980
 0.5490	12.7530
 0.5500	12.7900
 0.5510	12.8180
 0.5520	12.8400
 0.5530	12.8540
 0.5540	12.8550
 0.5550	12.8470
 0.5560	12.8280
 0.5570	12.7960
 0.5580	12.7500
 0.5590	12.6960
 0.5600	12.6370
 0.5610	12.5720
 0.5620	12.4990
 0.5630	12.4200
 0.5640	12.3350
 0.5650	12.2390
 0.5660	12.1360
 0.5670	12.0320
 0.5680	11.9370
 0.5690	11.8320
 0.5700	11.7180
 0.5710	11.6050
 0.5720	11.5060
 0.5730	11.4170
 0.5740	11.3300
 0.5750	11.2360
 0.5760	11.1360
 0.5770	11.0390
 0.5780	10.9500
 0.5790	10.8680
 0.5800	10.8000
 0.5810	10.7460
 0.5820	10.6990
 0.5830	10.6510
 0.5840	10.6000
 0.5850	10.5460
 0.5860	10.4930
 0.5870	10.4520
 0.5880	10.4180
 0.5890	10.3830
 0.5900	10.3430
 0.5910	10.3020
 0.5920	10.2640
 0.5930	10.2360
 0.5940	10.2210
 0.5950	10.2080
 0.5960	10.1880
 0.5970	10.1620
 0.5980	10.1310
 0.5990	10.0970
 0.6000	10.0640
 0.6010	10.0320
 0.6020	10.0010
 0.6030	 9.9680
 0.6040	 9.9290
 0.6050	 9.8850
 0.6060	 9.8390
 0.6070	 9.7960
 0.6080	 9.7460
 0.6090	 9.6860
 0.6100	 9.6170
 0.6110	 9.5440
 0.6120	 9.4920
 0.6130	 9.4470
 0.6140	 9.3980
 0.6150	 9.3460
 0.6160	 9.2970
 0.6170	 9.2500
 0.6180	 9.2040
 0.6190	 9.1620
 0.6200	 9.1240
 0.6210	 9.0900
 0.6220	 9.0620
 0.6230	 9.0390
 0.6240	 9.0190
 0.6250	 9.0030
 0.6260	 8.9930
 0.6270	 8.9830
 0.6280	 8.9750
 0.6290	 8.9720
 0.6300	 8.9660
 0.6310	 8.9580
 0.6320	 8.9500
 0.6330	 8.9410
 0.6340	 8.9260
 0.6350	 8.9000
 0.6360	 8.8620
 0.6370	 8.8160
 0.6380	 8.7660
 0.6390	 8.7090
 0.6400	 8.6410
 0.6410	 8.5710
 0.6420	 8.4960
 0.6430	 8.4170
 0.6440	 8.3440
 0.6450	 8.2690
 0.6460	 8.1920
 0.6470	 8.1190
 0.6480	 8.0580
 0.6490	 8.0030
 0.6500	 7.9500
 0.6510	 7.9030
 0.6520	 7.8630
 0.6530	 7.8270
 0.6540	 7.7900
 0.6550	 7.7490
 0.6560	 7.7090
 0.6570	 7.6620
 0.6580	 7.6040
 0.6590	 7.5500
 0.6600	 7.4910
 0.6610	 7.4240
 0.6620	 7.3540
 0.6630	 7.2890
 0.6640	 7.2270
 0.6650	 7.1660
 0.6660	 7.1150
 0.6670	 7.0710
 0.6680	 7.0310
 0.6690	 6.9930
 0.6700	 6.9680
 0.6710	 6.9480
 0.6720	 6.9300
 0.6730	 6.9230
 0.6740	 6.9180
 0.6750	 6.9170
 0.6760	 6.9230
 0.6770	 6.9290
 0.6780	 6.9420
 0.6790	 6.9630
 0.6800	 6.9940
 0.6810	 7.0310
 0.6820	 7.0800
 0.6830	 7.1440
 0.6840	 7.2280
 0.6850	 7.3340
 0.6860	 7.4650
 0.6870	 7.6250
 0.6880	 7.8260
 0.6890	 8.0620
 0.6900	 8.3360
 0.6910	 8.6590
 0.6920	 9.0310
 0.6930	 9.4500
 0.6940	 9.9170
 0.6950	10.4390
 0.6960	11.0080
 0.6970	11.6230
 0.6980	12.2820
 0.6990	12.9880
 0.7000	13.7290
 0.7010	14.4990
 0.7020	15.3060
 0.7030	16.1370
 0.7040	16.9880
 0.7050	17.8560
 0.7060	18.7390
 0.7070	19.6420
 0.7080	20.5560
 0.7090	21.4710
 0.7100	22.4050
 0.7110	23.3530
 0.7120	24.3100
 0.7130	25.2750
 0.7140	26.2450
 0.7150	27.2240
 0.7160	28.2110
 0.7170	29.2000
 0.7180	30.1820
 0.7190	31.1620
 0.7200	32.1450
 0.7210	33.1310
 0.7220	34.1100
 0.7230	35.0770
 0.7240	36.0310
 0.7250	36.9630
 0.7260	37.8800
 0.7270	38.7830
 0.7280	39.6460
 0.7290	40.4810
 0.7300	41.2960
 0.7310	42.0930
 0.7320	42.8520
 0.7330	43.5680
 0.7340	44.2490
 0.7350	44.9130
 0.7360	45.5510
 0.7370	46.1530
 0.7380	46.7190
 0.7390	47.2630
 0.7400	47.7750
 0.7410	48.2550
 0.7420	48.7100
 0.7430	49.1470
 0.7440	49.5470
 0.7450	49.9110
 0.7460	50.2690
 0.7470	50.6030
 0.7480	50.9050
 0.7490	51.1770
 0.7500	51.4380
 0.7510	51.6740
 0.7520	51.8820
 0.7530	52.0660
 0.7540	52.2540
 0.7550	52.4320
 0.7560	52.5850
 0.7570	52.7080
 0.7580	52.8450
 0.7590	52.9670
 0.7600	53.0600
 0.7610	53.1540
 0.7620	53.2440
 0.7630	53.3280
 0.7640	53.4000
 0.7650	53.4490
 0.7660	53.4990
 0.7670	53.5510
 0.7680	53.5920
 0.7690	53.6390
 0.7700	53.6900
 0.7710	53.7330
 0.7720	53.7490
 0.7730	53.7820
 0.7740	53.8240
 0.7750	53.8580
 0.7760	53.8730
 0.7770	53.8860
 0.7780	53.9020
 0.7790	53.9260
 0.7800	53.9570
 0.7810	53.9740
 0.7820	53.9790
 0.7830	54.0020
 0.7840	54.0160
 0.7850	54.0290
 0.7860	54.0460
 0.7870	54.0600
 0.7880	54.0810
 0.7890	54.0970
 0.7900	54.1010
 0.7910	54.1380
 0.7920	54.1620
 0.7930	54.1650
 0.7940	54.1660
 0.7950	54.1860
 0.7960	54.2050
 0.7970	54.2120
 0.7980	54.2220
 0.7990	54.2380
 0.8000	54.2510
 0.8010	54.2560
 0.8020	54.2750
 0.8030	54.2950
 0.8040	54.3110
 0.8050	54.3220
 0.8060	54.3450
 0.8070	54.3610
 0.8080	54.3660
 0.8090	54.3660
 0.8100	54.3840
 0.8110	54.3960
 0.8120	54.3990
 0.8130	54.4330
 0.8140	54.4460
 0.8150	54.4490
 0.8160	54.4640
 0.8170	54.4770
 0.8180	54.4940
 0.8190	54.5140
 0.8200	54.5310
 0.8210	54.5400
 0.8220	54.5430
 0.8230	54.5470
 0.8240	54.5640
 0.8250	54.5880
 0.8260	54.5990
 0.8270	54.5940
 0.8280	54.6020
 0.8290	54.6110
 0.8300	54.6170
 0.8310	54.6200
 0.8320	54.6370
 0.8330	54.6420
 0.8340	54.6400
 0.8350	54.6490
 0.8360	54.6570
 0.8370	54.6720
 0.8380	54.6950
 0.8390	54.7190
 0.8400	54.7370
 0.8410	54.7520
 0.8420	54.7670
 0.8430	54.7850
 0.8440	54.8010
 0.8450	54.8160
 0.8460	54.8310
 0.8470	54.8620
 0.8480	54.8820
 0.8490	54.8960
 0.8500	54.9170
 0.8510	54.9290
 0.8520	54.9410
 0.8530	54.9530
 0.8540	54.9630
 0.8550	54.9880
 0.8560	55.0060
 0.8570	55.0070
 0.8580	54.9990
 0.8590	55.0230
 0.8600	55.0530
 0.8610	55.0680
 0.8620	55.0740
 0.8630	55.0750
 0.8640	55.0780
 0.8650	55.0870
 0.8660	55.0930
 0.8670	55.1030
 0.8680	55.1100
 0.8690	55.1090
 0.8700	55.1110
 0.8710	55.1070
 0.8720	55.1090
 0.8730	55.1320
 0.8740	55.1350
 0.8750	55.1380
 0.8760	55.1390
 0.8770	55.1140
 0.8780	55.1230
 0.8790	55.1360
 0.8800	55.1300
 0.8810	55.1130
 0.8820	55.1150
 0.8830	55.1170
 0.8840	55.1050
 0.8850	55.0920
 0.8860	55.0890
 0.8870	55.0920
 0.8880	55.0880
 0.8890	55.0670
 0.8900	55.0510
 0.8910	55.0410
 0.8920	55.0290
 0.8930	55.0030
 0.8940	54.9860
 0.8950	54.9870
 0.8960	54.9980
 0.8970	54.9780
 0.8980	54.9550
 0.8990	54.9390
 0.9000	54.9180
 0.9010	54.8860
 0.9020	54.8630
 0.9030	54.8540
 0.9040	54.8390
 0.9050	54.8250
 0.9060	54.8080
 0.9070	54.7860
 0.9080	54.7630
 0.9090	54.7480
 0.9100	54.7420
 0.9110	54.7340
 0.9120	54.7030
 0.9130	54.6660
 0.9140	54.6400
 0.9150	54.6330
 0.9160	54.6110
 0.9170	54.5900
 0.9180	54.5580
 0.9190	54.5070
 0.9200	54.4890
 0.9210	54.4750
 0.9220	54.4480
 0.9230	54.4060
 0.9240	54.3660
 0.9250	54.3270
 0.9260	54.2820
 0.9270	54.2240
 0.9280	54.1730
 0.9290	54.1260
 0.9300	54.0730
 0.9310	54.0010
 0.9320	53.9420
 0.9330	53.8870
 0.9340	53.8220
 0.9350	53.7480
 0.9360	53.6850
 0.9370	53.6110
 0.9380	53.5230
 0.9390	53.4490
 0.9400	53.3600
 0.9410	53.2680
 0.9420	53.1820
 0.9430	53.0980
 0.9440	52.9940
 0.9450	52.8760
 0.9460	52.7550
 0.9470	52.6260
 0.9480	52.5040
 0.9490	52.3720
 0.9500	52.2170
 0.9510	52.0460
 0.9520	51.8820
 0.9530	51.7110
 0.9540	51.5210
 0.9550	51.3250
 0.9560	51.1460
 0.9570	50.9870
 0.9580	50.8430
 0.9590	50.6980
 0.9600	50.5470
 0.9610	50.4170
 0.9620	50.3340
 0.9630	50.2410
 0.9640	50.1530
 0.9650	50.0850
 0.9660	50.0450
 0.9670	50.0080
 0.9680	49.9430
 0.9690	49.8800
 0.9700	49.8560
 0.9710	49.8250
 0.9720	49.7990
 0.9730	49.7840
 0.9740	49.7740
 0.9750	49.7380
 0.9760	49.7230
 0.9770	49.7270
 0.9780	49.7230
 0.9790	49.7320
 0.9800	49.7330
 0.9810	49.7360
 0.9820	49.7610
 0.9830	49.8040
 0.9840	49.8380
 0.9850	49.8700
 0.9860	49.9190
 0.9870	49.9570
 0.9880	49.9980
 0.9890	50.0410
 0.9900	50.0870
 0.9910	50.1470
 0.9920	50.2120
 0.9930	50.2630
 0.9940	50.2990
 0.9950	50.3940
 0.9960	50.4710
 0.9970	50.5190
 0.9980	50.5690
 0.9990	50.6480
 1.0000	50.7910
 1.0010	50.8930
 1.0020	51.0180
 1.0030	51.1000
 1.0040	51.1810
 1.0050	51.2560
 1.0060	51.3320
 1.0070	51.4090
 1.0080	51.4820
 1.0090	51.5500
 1.0100	51.6200
 1.0110	51.6880
 1.0120	51.7580
 1.0130	51.8280
 1.0140	51.9010
 1.0150	51.9760
 1.0160	52.0510
 1.0170	52.1240
 1.0180	52.2000
 1.0190	52.2750
 1.0200	52.3430
 1.0210	52.4190
 1.0220	52.4970
 1.0230	52.5710
 1.0240	52.6470
 1.0250	52.7170
 1.0260	52.7820
 1.0270	52.8460
 1.0280	52.9030
 1.0290	52.9660
 1.0300	53.0320
 1.0310	53.0940
 1.0320	53.1600
 1.0330	53.2200
 1.0340	53.2770
 1.0350	53.3330
 1.0360	53.3880
 1.0370	53.4490
 1.0380	53.5040
 1.0390	53.5570
 1.0400	53.6060
 1.0410	53.6490
 1.0420	53.6960
 1.0430	53.7430
 1.0440	53.7870
 1.0450	53.8310
 1.0460	53.8740
 1.0470	53.9090
 1.0480	53.9510
 1.0490	54.0030
 1.0500	54.0440
 1.0510	54.0830
 1.0520	54.1180
 1.0530	54.1510
 1.0540	54.1740
 1.0550	54.2020
 1.0560	54.2310
 1.0570	54.2590
 1.0580	54.2890
 1.0590	54.3130
 1.0600	54.3340
 1.0610	54.3560
 1.0620	54.3730
 1.0630	54.3920
 1.0640	54.4150
 1.0650	54.4340
 1.0660	54.4520
 1.0670	54.4670
 1.0680	54.4800
 1.0690	54.4910
 1.0700	54.4970
 1.0710	54.4970
 1.0720	54.5010
 1.0730	54.5040
 1.0740	54.5040
 1.0750	54.5060
 1.0760	54.5060
 1.0770	54.5000
 1.0780	54.4960
 1.0790	54.4940
 1.0800	54.4880
 1.0810	54.4820
 1.0820	54.4730
 1.0830	54.4610
 1.0840	54.4470
 1.0850	54.4280
 1.0860	54.4120
 1.0870	54.3950
 1.0880	54.3820
 1.0890	54.3590
 1.0900	54.3330
 1.0910	54.3060
 1.0920	54.2700
 1.0930	54.2420
 1.0940	54.2230
 1.0950	54.1930
 1.0960	54.1590
 1.0970	54.1250
 1.0980	54.0850
 1.0990	54.0470
 1.1000	54.0120
 1.1010	53.9740
 1.1020	53.9340
 1.1030	53.8950
 1.1040	53.8520
 1.1050	53.8070
 1.1060	53.7630
 1.1070	53.7190
 1.1080	53.6700
 1.1090	53.6200
 1.1100	53.5700
 1.1110	53.5150
 1.1120	53.4610
 1.1130	53.4120
 1.1140	53.3520
 1.1150	53.2880
 1.1160	53.2190
 1.1170	53.1440
 1.1180	53.0630
 1.1190	52.9810
 1.1200	52.8880
 1.1210	52.7840
 1.1220	52.6770
 1.1230	52.5560
 1.1240	52.4260
 1.1250	52.2820
 1.1260	52.1300
 1.1270	51.9600
 1.1280	51.7770
 1.1290	51.5760
 1.1300	51.3660
 1.1310	51.1310
 1.1320	50.8750
 1.1330	50.6040
 1.1340	50.3110
 1.1350	50.0080
 1.1360	49.6900
 1.1370	49.3600
 1.1380	49.0210
 1.1390	48.6710
 1.1400	48.3120
 1.1410	47.9520
 1.1420	47.5860
 1.1430	47.2190
 1.1440	46.8600
 1.1450	46.5000
 1.1460	46.1540
 1.1470	45.8090
 1.1480	45.4860
 1.1490	45.1690
 1.1500	44.8780
 1.1510	44.6030
 1.1520	44.3490
 1.1530	44.1150
 1.1540	43.8980
 1.1550	43.6980
 1.1560	43.5170
 1.1570	43.3540
 1.1580	43.2090
 1.1590	43.0790
 1.1600	42.9620
 1.1610	42.8550
 1.1620	42.7580
 1.1630	42.6710
 1.1640	42.5920
 1.1650	42.5230
 1.1660	42.4650
 1.1670	42.4100
 1.1680	42.3650
 1.1690	42.3210
 1.1700	42.2830
 1.1710	42.2430
 1.1720	42.2080
 1.1730	42.1700
 1.1740	42.1310
 1.1750	42.0920
 1.1760	42.0540
 1.1770	42.0140
 1.1780	41.9720
 1.1790	41.9280
 1.1800	41.8830
 1.1810	41.8360
 1.1820	41.7900
 1.1830	41.7440
 1.1840	41.6950
 1.1850	41.6470
 1.1860	41.6000
 1.1870	41.5550
 1.1880	41.5130
 1.1890	41.4730
 1.1900	41.4370
 1.1910	41.4030
 1.1920	41.3760
 1.1930	41.3530
 1.1940	41.3330
 1.1950	41.3180
 1.1960	41.3050
 1.1970	41.2930
 1.1980	41.2880
 1.1990	41.2890
 1.2000	41.2960
 1.2010	41.3090
 1.2020	41.3250
 1.2030	41.3440
 1.2040	41.3680
 1.2050	41.3960
 1.2060	41.4290
 1.2070	41.4670
 1.2080	41.5080
 1.2090	41.5530
 1.2100	41.6010
 1.2110	41.6520
 1.2120	41.7050
 1.2130	41.7630
 1.2140	41.8230
 1.2150	41.8880
 1.2160	41.9580
 1.2170	42.0310
 1.2180	42.1050
 1.2190	42.1800
 1.2200	42.2540
 1.2210	42.3300
 1.2220	42.4090
 1.2230	42.4880
 1.2240	42.5690
 1.2250	42.6500
 1.2260	42.7280
 1.2270	42.8050
 1.2280	42.8830
 1.2290	42.9590
 1.2300	43.0320
 1.2310	43.1050
 1.2320	43.1770
 1.2330	43.2440
 1.2340	43.3100
 1.2350	43.3760
 1.2360	43.4400
 1.2370	43.5010
 1.2380	43.5630
 1.2390	43.6220
 1.2400	43.6810
 1.2410	43.7380
 1.2420	43.7920
 1.2430	43.8460
 1.2440	43.8970
 1.2450	43.9440
 1.2460	43.9910
 1.2470	44.0360
 1.2480	44.0810
 1.2490	44.1260
 1.2500	44.1690
 1.2510	44.2100
 1.2520	44.2480
 1.2530	44.2820
 1.2540	44.3150
 1.2550	44.3460
 1.2560	44.3750
 1.2570	44.4030
 1.2580	44.4270
 1.2590	44.4490
 1.2600	44.4670
 1.2610	44.4850
 1.2620	44.5000
 1.2630	44.5150
 1.2640	44.5290
 1.2650	44.5390
 1.2660	44.5470
 1.2670	44.5530
 1.2680	44.5560
 1.2690	44.5560
 1.2700	44.5540
 1.2710	44.5480
 1.2720	44.5410
 1.2730	44.5330
 1.2740	44.5210
 1.2750	44.5060
 1.2760	44.4880
 1.2770	44.4690
 1.2780	44.4510
 1.2790	44.4280
 1.2800	44.4020
 1.2810	44.3730
 1.2820	44.3390
 1.2830	44.3020
 1.2840	44.2630
 1.2850	44.2230
 1.2860	44.1770
 1.2870	44.1270
 1.2880	44.0750
 1.2890	44.0200
 1.2900	43.9580
 1.2910	43.8930
 1.2920	43.8270
 1.2930	43.7550
 1.2940	43.6770
 1.2950	43.5940
 1.2960	43.5020
 1.2970	43.4060
 1.2980	43.3070
 1.2990	43.2020
 1.3000	43.0950
 1.3010	42.9840
 1.3020	42.8650
 1.3030	42.7410
 1.3040	42.6110
 1.3050	42.4760
 1.3060	42.3340
 1.3070	42.1900
 1.3080	42.0410
 1.3090	41.8840
 1.3100	41.7230
 1.3110	41.5540
 1.3120	41.3750
 1.3130	41.1950
 1.3140	41.0080
 1.3150	40.8130
 1.3160	40.6150
 1.3170	40.4160
 1.3180	40.2080
 1.3190	39.9960
 1.3200	39.7800
 1.3210	39.5590
 1.3220	39.3340
 1.3230	39.1070
 1.3240	38.8740
 1.3250	38.6390
 1.3260	38.3990
 1.3270	38.1560
 1.3280	37.9140
 1.3290	37.6670
 1.3300	37.4190
 1.3310	37.1700
 1.3320	36.9200
 1.3330	36.6720
 1.3340	36.4240
 1.3350	36.1770
 1.3360	35.9300
 1.3370	35.6820
 1.3380	35.4370
 1.3390	35.1970
 1.3400	34.9590
 1.3410	34.7280
 1.3420	34.5010
 1.3430	34.2760
 1.3440	34.0540
 1.3450	33.8360
 1.3460	33.6210
 1.3470	33.4110
 1.3480	33.2060
 1.3490	33.0060
 1.3500	32.8100
 1.3510	32.6160
 1.3520	32.4250
 1.3530	32.2360
 1.3540	32.0480
 1.3550	31.8620
 1.3560	31.6760
 1.3570	31.4900
 1.3580	31.3020
 1.3590	31.1120
 1.3600	30.9180
 1.3610	30.7190
 1.3620	30.5140
 1.3630	30.3050
 1.3640	30.0890
 1.3650	29.8640
 1.3660	29.6330
 1.3670	29.3940
 1.3680	29.1420
 1.3690	28.8790
 1.3700	28.6020
 1.3710	28.3140
 1.3720	28.0120
 1.3730	27.6950
 1.3740	27.3660
 1.3750	27.0200
 1.3760	26.6570
 1.3770	26.2760
 1.3780	25.8750
 1.3790	25.4580
 1.3800	25.0220
 1.3810	24.5660
 1.3820	24.1000
 1.3830	23.6190
 1.3840	23.1290
 1.3850	22.6260
 1.3860	22.1200
 1.3870	21.6000
 1.3880	21.0880
 1.3890	20.5730
 1.3900	20.0600
 1.3910	19.5580
 1.3920	19.0600
 1.3930	18.5690
 1.3940	18.0900
 1.3950	17.6180
 1.3960	17.1620
 1.3970	16.7220
 1.3980	16.2980
 1.3990	15.8950
 1.4000	15.5100
 1.4010	15.1400
 1.4020	14.7890
 1.4030	14.4570
 1.4040	14.1420
 1.4050	13.8470
 1.4060	13.5690
 1.4070	13.3090
 1.4080	13.0650
 1.4090	12.8360
 1.4100	12.6250
 1.4110	12.4270
 1.4120	12.2440
 1.4130	12.0730
 1.4140	11.9150
 1.4150	11.7690
 1.4160	11.6350
 1.4170	11.5110
 1.4180	11.3970
 1.4190	11.2900
 1.4200	11.1900
 1.4210	11.0980
 1.4220	11.0130
 1.4230	10.9370
 1.4240	10.8690
 1.4250	10.8050
 1.4260	10.7480
 1.4270	10.6950
 1.4280	10.6460
 1.4290	10.6020
 1.4300	10.5640
 1.4310	10.5290
 1.4320	10.4970
 1.4330	10.4700
 1.4340	10.4460
 1.4350	10.4250
 1.4360	10.4070
 1.4370	10.3920
 1.4380	10.3790
 1.4390	10.3680
 1.4400	10.3590
 1.4410	10.3530
 1.4420	10.3480
 1.4430	10.3470
 1.4440	10.3460
 1.4450	10.3470
 1.4460	10.3490
 1.4470	10.3510
 1.4480	10.3540
 1.4490	10.3590
 1.4500	10.3640
 1.4510	10.3700
 1.4520	10.3780
 1.4530	10.3860
 1.4540	10.3960
 1.4550	10.4090
 1.4560	10.4230
 1.4570	10.4380
 1.4580	10.4540
 1.4590	10.4720
 1.4600	10.4940
 1.4610	10.5160
 1.4620	10.5420
 1.4630	10.5710
 1.4640	10.6010
 1.4650	10.6350
 1.4660	10.6720
 1.4670	10.7100
 1.4680	10.7520
 1.4690	10.7950
 1.4700	10.8400
