Name: Ceanothus spinosus 3
Type: vegetation
Class: Shrub
Genus: Ceanothus
Species: spinosus
Sample No.: VH012
Owner: UCSB
Wavelength Range: VSWIR
Origin: 34.4906; -119.7908; WGS84
Collection Date: 4/1/2013
Description: Samples were collected as part of the HyspIRI Airborne Campaign. 48 individual plants were sampled in three times in 2013 - spring  summer  and fall. The name of the sample includes a 1  2  or 3 which references a different individual of the species. Samples were taken to JPL and processed within 48 hours of collection. The same leaves were processed in the Nicolet and then measured using the ASD.
Measurement: Bidirectional reflectance
First Column: X
Second Column: Y
X Units: Wavelength (micrometers)
Y Units: Reflectance (percentage)
First X Value: 0.35
Last X Value: 2.5
Number of X Values: 2151
Additional Information: vegetation.shrub.ceanothus.spinosus.vswir.vh012.ucsb.asd.ancillary.txt

 0.3500	 9.0990
 0.3510	 9.1790
 0.3520	 9.0480
 0.3530	 9.0060
 0.3540	 9.1930
 0.3550	 9.0380
 0.3560	 8.9070
 0.3570	 8.9150
 0.3580	 9.0070
 0.3590	 8.9000
 0.3600	 8.8290
 0.3610	 8.8770
 0.3620	 8.8530
 0.3630	 8.8540
 0.3640	 8.9000
 0.3650	 8.9600
 0.3660	 8.9010
 0.3670	 8.8660
 0.3680	 8.8680
 0.3690	 8.8280
 0.3700	 8.7790
 0.3710	 8.8420
 0.3720	 8.9890
 0.3730	 8.8950
 0.3740	 8.9090
 0.3750	 8.9670
 0.3760	 8.9200
 0.3770	 8.8540
 0.3780	 8.7860
 0.3790	 8.7640
 0.3800	 8.8400
 0.3810	 8.8580
 0.3820	 8.8660
 0.3830	 8.8800
 0.3840	 8.7370
 0.3850	 8.7330
 0.3860	 8.7800
 0.3870	 8.7000
 0.3880	 8.6870
 0.3890	 8.7110
 0.3900	 8.7250
 0.3910	 8.6890
 0.3920	 8.6420
 0.3930	 8.6420
 0.3940	 8.6940
 0.3950	 8.6510
 0.3960	 8.6840
 0.3970	 8.7360
 0.3980	 8.6730
 0.3990	 8.6020
 0.4000	 8.5740
 0.4010	 8.5900
 0.4020	 8.5980
 0.4030	 8.5910
 0.4040	 8.5820
 0.4050	 8.5880
 0.4060	 8.6080
 0.4070	 8.6190
 0.4080	 8.6190
 0.4090	 8.6260
 0.4100	 8.6390
 0.4110	 8.6490
 0.4120	 8.6480
 0.4130	 8.6200
 0.4140	 8.6130
 0.4150	 8.6340
 0.4160	 8.6680
 0.4170	 8.7140
 0.4180	 8.7260
 0.4190	 8.7180
 0.4200	 8.7550
 0.4210	 8.7750
 0.4220	 8.7920
 0.4230	 8.8250
 0.4240	 8.8700
 0.4250	 8.9180
 0.4260	 8.9550
 0.4270	 8.9710
 0.4280	 8.9840
 0.4290	 9.0040
 0.4300	 9.0280
 0.4310	 9.0390
 0.4320	 9.0570
 0.4330	 9.0800
 0.4340	 9.0990
 0.4350	 9.1230
 0.4360	 9.1330
 0.4370	 9.1360
 0.4380	 9.1590
 0.4390	 9.1830
 0.4400	 9.2090
 0.4410	 9.2340
 0.4420	 9.2460
 0.4430	 9.2660
 0.4440	 9.2930
 0.4450	 9.3170
 0.4460	 9.3180
 0.4470	 9.3300
 0.4480	 9.3570
 0.4490	 9.3710
 0.4500	 9.3990
 0.4510	 9.4260
 0.4520	 9.4350
 0.4530	 9.4440
 0.4540	 9.4560
 0.4550	 9.4740
 0.4560	 9.5040
 0.4570	 9.5130
 0.4580	 9.5080
 0.4590	 9.5040
 0.4600	 9.5070
 0.4610	 9.5170
 0.4620	 9.5270
 0.4630	 9.5300
 0.4640	 9.5320
 0.4650	 9.5330
 0.4660	 9.5320
 0.4670	 9.5280
 0.4680	 9.5300
 0.4690	 9.5360
 0.4700	 9.5420
 0.4710	 9.5460
 0.4720	 9.5490
 0.4730	 9.5460
 0.4740	 9.5370
 0.4750	 9.5310
 0.4760	 9.5290
 0.4770	 9.5310
 0.4780	 9.5440
 0.4790	 9.5470
 0.4800	 9.5490
 0.4810	 9.5620
 0.4820	 9.5640
 0.4830	 9.5620
 0.4840	 9.5690
 0.4850	 9.5940
 0.4860	 9.6000
 0.4870	 9.6050
 0.4880	 9.6240
 0.4890	 9.6400
 0.4900	 9.6610
 0.4910	 9.6840
 0.4920	 9.7050
 0.4930	 9.7290
 0.4940	 9.7540
 0.4950	 9.7810
 0.4960	 9.8100
 0.4970	 9.8520
 0.4980	 9.8960
 0.4990	 9.9310
 0.5000	 9.9840
 0.5010	10.0420
 0.5020	10.0970
 0.5030	10.1550
 0.5040	10.2270
 0.5050	10.3100
 0.5060	10.3970
 0.5070	10.4870
 0.5080	10.5900
 0.5090	10.7030
 0.5100	10.8220
 0.5110	10.9540
 0.5120	11.0940
 0.5130	11.2420
 0.5140	11.4090
 0.5150	11.5880
 0.5160	11.7760
 0.5170	11.9730
 0.5180	12.1850
 0.5190	12.4080
 0.5200	12.6380
 0.5210	12.8750
 0.5220	13.1080
 0.5230	13.3410
 0.5240	13.5740
 0.5250	13.8060
 0.5260	14.0310
 0.5270	14.2480
 0.5280	14.4580
 0.5290	14.6470
 0.5300	14.8250
 0.5310	14.9950
 0.5320	15.1520
 0.5330	15.2900
 0.5340	15.4160
 0.5350	15.5330
 0.5360	15.6440
 0.5370	15.7400
 0.5380	15.8210
 0.5390	15.8990
 0.5400	15.9680
 0.5410	16.0320
 0.5420	16.0950
 0.5430	16.1500
 0.5440	16.2020
 0.5450	16.2540
 0.5460	16.3070
 0.5470	16.3550
 0.5480	16.3990
 0.5490	16.4330
 0.5500	16.4540
 0.5510	16.4700
 0.5520	16.4790
 0.5530	16.4760
 0.5540	16.4540
 0.5550	16.4180
 0.5560	16.3690
 0.5570	16.3040
 0.5580	16.2230
 0.5590	16.1330
 0.5600	16.0370
 0.5610	15.9310
 0.5620	15.8180
 0.5630	15.7000
 0.5640	15.5760
 0.5650	15.4390
 0.5660	15.2950
 0.5670	15.1490
 0.5680	15.0030
 0.5690	14.8430
 0.5700	14.6840
 0.5710	14.5370
 0.5720	14.3980
 0.5730	14.2590
 0.5740	14.1220
 0.5750	13.9910
 0.5760	13.8550
 0.5770	13.7180
 0.5780	13.5860
 0.5790	13.4710
 0.5800	13.3750
 0.5810	13.3010
 0.5820	13.2450
 0.5830	13.1920
 0.5840	13.1330
 0.5850	13.0690
 0.5860	13.0080
 0.5870	12.9580
 0.5880	12.9160
 0.5890	12.8780
 0.5900	12.8500
 0.5910	12.8280
 0.5920	12.8030
 0.5930	12.7660
 0.5940	12.7310
 0.5950	12.7040
 0.5960	12.6820
 0.5970	12.6510
 0.5980	12.6210
 0.5990	12.5920
 0.6000	12.5610
 0.6010	12.5220
 0.6020	12.4830
 0.6030	12.4400
 0.6040	12.3860
 0.6050	12.3270
 0.6060	12.2690
 0.6070	12.2120
 0.6080	12.1420
 0.6090	12.0700
 0.6100	11.9950
 0.6110	11.9130
 0.6120	11.8430
 0.6130	11.7760
 0.6140	11.7100
 0.6150	11.6450
 0.6160	11.5830
 0.6170	11.5260
 0.6180	11.4720
 0.6190	11.4190
 0.6200	11.3720
 0.6210	11.3310
 0.6220	11.2960
 0.6230	11.2670
 0.6240	11.2400
 0.6250	11.2150
 0.6260	11.1960
 0.6270	11.1830
 0.6280	11.1720
 0.6290	11.1610
 0.6300	11.1470
 0.6310	11.1370
 0.6320	11.1290
 0.6330	11.1180
 0.6340	11.1010
 0.6350	11.0790
 0.6360	11.0510
 0.6370	11.0120
 0.6380	10.9680
 0.6390	10.9190
 0.6400	10.8650
 0.6410	10.8080
 0.6420	10.7450
 0.6430	10.6790
 0.6440	10.6170
 0.6450	10.5520
 0.6460	10.4840
 0.6470	10.4200
 0.6480	10.3600
 0.6490	10.3040
 0.6500	10.2530
 0.6510	10.2090
 0.6520	10.1710
 0.6530	10.1340
 0.6540	10.0920
 0.6550	10.0480
 0.6560	10.0060
 0.6570	 9.9610
 0.6580	 9.9090
 0.6590	 9.8560
 0.6600	 9.8010
 0.6610	 9.7470
 0.6620	 9.7000
 0.6630	 9.6540
 0.6640	 9.6100
 0.6650	 9.5680
 0.6660	 9.5340
 0.6670	 9.5110
 0.6680	 9.4930
 0.6690	 9.4730
 0.6700	 9.4640
 0.6710	 9.4580
 0.6720	 9.4540
 0.6730	 9.4580
 0.6740	 9.4690
 0.6750	 9.4850
 0.6760	 9.5010
 0.6770	 9.5190
 0.6780	 9.5400
 0.6790	 9.5660
 0.6800	 9.6000
 0.6810	 9.6370
 0.6820	 9.6820
 0.6830	 9.7390
 0.6840	 9.8100
 0.6850	 9.8880
 0.6860	 9.9840
 0.6870	10.1070
 0.6880	10.2460
 0.6890	10.4210
 0.6900	10.6390
 0.6910	10.8910
 0.6920	11.1880
 0.6930	11.5430
 0.6940	11.9580
 0.6950	12.4270
 0.6960	12.9540
 0.6970	13.5430
 0.6980	14.1950
 0.6990	14.9020
 0.7000	15.6540
 0.7010	16.4490
 0.7020	17.2880
 0.7030	18.1580
 0.7040	19.0490
 0.7050	19.9530
 0.7060	20.8710
 0.7070	21.7980
 0.7080	22.7260
 0.7090	23.6520
 0.7100	24.5820
 0.7110	25.5080
 0.7120	26.4260
 0.7130	27.3330
 0.7140	28.2310
 0.7150	29.1230
 0.7160	30.0020
 0.7170	30.8630
 0.7180	31.7010
 0.7190	32.5200
 0.7200	33.3260
 0.7210	34.1090
 0.7220	34.8690
 0.7230	35.6080
 0.7240	36.3230
 0.7250	37.0020
 0.7260	37.6530
 0.7270	38.2830
 0.7280	38.8830
 0.7290	39.4510
 0.7300	39.9890
 0.7310	40.5070
 0.7320	40.9900
 0.7330	41.4500
 0.7340	41.8850
 0.7350	42.2910
 0.7360	42.6780
 0.7370	43.0400
 0.7380	43.3750
 0.7390	43.6980
 0.7400	43.9910
 0.7410	44.2650
 0.7420	44.5320
 0.7430	44.7720
 0.7440	44.9930
 0.7450	45.1990
 0.7460	45.3910
 0.7470	45.5690
 0.7480	45.7340
 0.7490	45.8810
 0.7500	46.0130
 0.7510	46.1460
 0.7520	46.2680
 0.7530	46.3650
 0.7540	46.4600
 0.7550	46.5490
 0.7560	46.6310
 0.7570	46.7060
 0.7580	46.7730
 0.7590	46.8350
 0.7600	46.8920
 0.7610	46.9380
 0.7620	46.9850
 0.7630	47.0300
 0.7640	47.0710
 0.7650	47.1060
 0.7660	47.1400
 0.7670	47.1710
 0.7680	47.1970
 0.7690	47.2220
 0.7700	47.2470
 0.7710	47.2700
 0.7720	47.2880
 0.7730	47.3040
 0.7740	47.3250
 0.7750	47.3530
 0.7760	47.3730
 0.7770	47.3880
 0.7780	47.4020
 0.7790	47.4200
 0.7800	47.4340
 0.7810	47.4520
 0.7820	47.4710
 0.7830	47.4770
 0.7840	47.4920
 0.7850	47.5070
 0.7860	47.5170
 0.7870	47.5250
 0.7880	47.5360
 0.7890	47.5480
 0.7900	47.5600
 0.7910	47.5710
 0.7920	47.5760
 0.7930	47.5800
 0.7940	47.5970
 0.7950	47.6010
 0.7960	47.6020
 0.7970	47.6090
 0.7980	47.6140
 0.7990	47.6160
 0.8000	47.6190
 0.8010	47.6220
 0.8020	47.6190
 0.8030	47.6180
 0.8040	47.6200
 0.8050	47.6190
 0.8060	47.6130
 0.8070	47.6090
 0.8080	47.6050
 0.8090	47.5990
 0.8100	47.5930
 0.8110	47.5820
 0.8120	47.5700
 0.8130	47.5730
 0.8140	47.5700
 0.8150	47.5570
 0.8160	47.5410
 0.8170	47.5370
 0.8180	47.5300
 0.8190	47.5170
 0.8200	47.5060
 0.8210	47.4980
 0.8220	47.4880
 0.8230	47.4710
 0.8240	47.4520
 0.8250	47.4390
 0.8260	47.4310
 0.8270	47.4210
 0.8280	47.4050
 0.8290	47.3900
 0.8300	47.3750
 0.8310	47.3590
 0.8320	47.3420
 0.8330	47.3230
 0.8340	47.3050
 0.8350	47.2970
 0.8360	47.2920
 0.8370	47.2840
 0.8380	47.2700
 0.8390	47.2530
 0.8400	47.2540
 0.8410	47.2530
 0.8420	47.2380
 0.8430	47.2230
 0.8440	47.2240
 0.8450	47.2270
 0.8460	47.2200
 0.8470	47.2190
 0.8480	47.2130
 0.8490	47.2020
 0.8500	47.1920
 0.8510	47.1910
 0.8520	47.1880
 0.8530	47.1860
 0.8540	47.1900
 0.8550	47.1830
 0.8560	47.1780
 0.8570	47.1790
 0.8580	47.1820
 0.8590	47.1710
 0.8600	47.1650
 0.8610	47.1730
 0.8620	47.1800
 0.8630	47.1860
 0.8640	47.1890
 0.8650	47.1880
 0.8660	47.1770
 0.8670	47.1760
 0.8680	47.1870
 0.8690	47.2000
 0.8700	47.2010
 0.8710	47.2030
 0.8720	47.2050
 0.8730	47.2000
 0.8740	47.2000
 0.8750	47.2030
 0.8760	47.2080
 0.8770	47.2200
 0.8780	47.2360
 0.8790	47.2460
 0.8800	47.2470
 0.8810	47.2500
 0.8820	47.2580
 0.8830	47.2680
 0.8840	47.2740
 0.8850	47.2730
 0.8860	47.2770
 0.8870	47.2830
 0.8880	47.2860
 0.8890	47.2840
 0.8900	47.2840
 0.8910	47.2940
 0.8920	47.3150
 0.8930	47.3170
 0.8940	47.3150
 0.8950	47.3190
 0.8960	47.3290
 0.8970	47.3310
 0.8980	47.3360
 0.8990	47.3440
 0.9000	47.3460
 0.9010	47.3490
 0.9020	47.3590
 0.9030	47.3730
 0.9040	47.3700
 0.9050	47.3790
 0.9060	47.3910
 0.9070	47.3950
 0.9080	47.3920
 0.9090	47.3950
 0.9100	47.4030
 0.9110	47.4110
 0.9120	47.4080
 0.9130	47.4120
 0.9140	47.4180
 0.9150	47.4180
 0.9160	47.4180
 0.9170	47.4170
 0.9180	47.4140
 0.9190	47.4100
 0.9200	47.4170
 0.9210	47.4130
 0.9220	47.4020
 0.9230	47.3990
 0.9240	47.3950
 0.9250	47.3870
 0.9260	47.3800
 0.9270	47.3820
 0.9280	47.3600
 0.9290	47.3400
 0.9300	47.3250
 0.9310	47.2950
 0.9320	47.2870
 0.9330	47.2730
 0.9340	47.2460
 0.9350	47.2300
 0.9360	47.1970
 0.9370	47.1650
 0.9380	47.1400
 0.9390	47.1050
 0.9400	47.0710
 0.9410	47.0380
 0.9420	47.0030
 0.9430	46.9730
 0.9440	46.9420
 0.9450	46.9190
 0.9460	46.8960
 0.9470	46.8350
 0.9480	46.7710
 0.9490	46.7110
 0.9500	46.6530
 0.9510	46.5940
 0.9520	46.5320
 0.9530	46.4680
 0.9540	46.4040
 0.9550	46.3300
 0.9560	46.2580
 0.9570	46.1970
 0.9580	46.1420
 0.9590	46.0710
 0.9600	46.0060
 0.9610	45.9640
 0.9620	45.9420
 0.9630	45.9020
 0.9640	45.8540
 0.9650	45.8140
 0.9660	45.7920
 0.9670	45.7740
 0.9680	45.7500
 0.9690	45.7210
 0.9700	45.6950
 0.9710	45.6710
 0.9720	45.6800
 0.9730	45.6980
 0.9740	45.6830
 0.9750	45.6620
 0.9760	45.6450
 0.9770	45.6380
 0.9780	45.6400
 0.9790	45.6400
 0.9800	45.6450
 0.9810	45.6510
 0.9820	45.6540
 0.9830	45.6700
 0.9840	45.6760
 0.9850	45.6770
 0.9860	45.6890
 0.9870	45.7070
 0.9880	45.7210
 0.9890	45.7360
 0.9900	45.7570
 0.9910	45.7800
 0.9920	45.8370
 0.9930	45.8930
 0.9940	45.9500
 0.9950	46.0060
 0.9960	46.0630
 0.9970	46.1190
 0.9980	46.1760
 0.9990	46.2320
 1.0000	46.2890
 1.0010	46.3450
 1.0020	46.4020
 1.0030	46.4580
 1.0040	46.5150
 1.0050	46.5710
 1.0060	46.6280
 1.0070	46.6840
 1.0080	46.7410
 1.0090	46.7970
 1.0100	46.7970
 1.0110	46.8140
 1.0120	46.8340
 1.0130	46.8560
 1.0140	46.8750
 1.0150	46.8920
 1.0160	46.9100
 1.0170	46.9300
 1.0180	46.9480
 1.0190	46.9690
 1.0200	46.9880
 1.0210	47.0060
 1.0220	47.0260
 1.0230	47.0420
 1.0240	47.0580
 1.0250	47.0740
 1.0260	47.0830
 1.0270	47.1000
 1.0280	47.1230
 1.0290	47.1410
 1.0300	47.1610
 1.0310	47.1790
 1.0320	47.1920
 1.0330	47.2060
 1.0340	47.2240
 1.0350	47.2390
 1.0360	47.2540
 1.0370	47.2670
 1.0380	47.2790
 1.0390	47.2870
 1.0400	47.2990
 1.0410	47.3110
 1.0420	47.3220
 1.0430	47.3330
 1.0440	47.3430
 1.0450	47.3520
 1.0460	47.3620
 1.0470	47.3730
 1.0480	47.3820
 1.0490	47.3870
 1.0500	47.3940
 1.0510	47.4010
 1.0520	47.4070
 1.0530	47.4140
 1.0540	47.4220
 1.0550	47.4310
 1.0560	47.4420
 1.0570	47.4480
 1.0580	47.4550
 1.0590	47.4590
 1.0600	47.4570
 1.0610	47.4590
 1.0620	47.4600
 1.0630	47.4620
 1.0640	47.4680
 1.0650	47.4690
 1.0660	47.4640
 1.0670	47.4630
 1.0680	47.4610
 1.0690	47.4560
 1.0700	47.4540
 1.0710	47.4570
 1.0720	47.4560
 1.0730	47.4550
 1.0740	47.4520
 1.0750	47.4480
 1.0760	47.4440
 1.0770	47.4370
 1.0780	47.4320
 1.0790	47.4290
 1.0800	47.4230
 1.0810	47.4150
 1.0820	47.4080
 1.0830	47.3990
 1.0840	47.3910
 1.0850	47.3830
 1.0860	47.3770
 1.0870	47.3700
 1.0880	47.3620
 1.0890	47.3510
 1.0900	47.3380
 1.0910	47.3270
 1.0920	47.3120
 1.0930	47.3000
 1.0940	47.2900
 1.0950	47.2790
 1.0960	47.2690
 1.0970	47.2570
 1.0980	47.2460
 1.0990	47.2340
 1.1000	47.2210
 1.1010	47.2050
 1.1020	47.1880
 1.1030	47.1670
 1.1040	47.1490
 1.1050	47.1340
 1.1060	47.1180
 1.1070	47.1060
 1.1080	47.0900
 1.1090	47.0710
 1.1100	47.0520
 1.1110	47.0320
 1.1120	47.0130
 1.1130	46.9920
 1.1140	46.9700
 1.1150	46.9500
 1.1160	46.9270
 1.1170	46.9020
 1.1180	46.8750
 1.1190	46.8470
 1.1200	46.8160
 1.1210	46.7810
 1.1220	46.7420
 1.1230	46.6970
 1.1240	46.6510
 1.1250	46.6020
 1.1260	46.5530
 1.1270	46.4940
 1.1280	46.4320
 1.1290	46.3610
 1.1300	46.2840
 1.1310	46.2000
 1.1320	46.1100
 1.1330	46.0140
 1.1340	45.9130
 1.1350	45.8040
 1.1360	45.6860
 1.1370	45.5650
 1.1380	45.4360
 1.1390	45.3000
 1.1400	45.1600
 1.1410	45.0170
 1.1420	44.8710
 1.1430	44.7210
 1.1440	44.5720
 1.1450	44.4210
 1.1460	44.2770
 1.1470	44.1320
 1.1480	43.9950
 1.1490	43.8600
 1.1500	43.7350
 1.1510	43.6120
 1.1520	43.5010
 1.1530	43.4000
 1.1540	43.3070
 1.1550	43.2210
 1.1560	43.1450
 1.1570	43.0770
 1.1580	43.0160
 1.1590	42.9660
 1.1600	42.9230
 1.1610	42.8850
 1.1620	42.8530
 1.1630	42.8230
 1.1640	42.8000
 1.1650	42.7820
 1.1660	42.7720
 1.1670	42.7610
 1.1680	42.7550
 1.1690	42.7470
 1.1700	42.7410
 1.1710	42.7360
 1.1720	42.7310
 1.1730	42.7270
 1.1740	42.7250
 1.1750	42.7210
 1.1760	42.7160
 1.1770	42.7140
 1.1780	42.7110
 1.1790	42.7050
 1.1800	42.6980
 1.1810	42.6900
 1.1820	42.6800
 1.1830	42.6730
 1.1840	42.6660
 1.1850	42.6590
 1.1860	42.6520
 1.1870	42.6430
 1.1880	42.6360
 1.1890	42.6290
 1.1900	42.6240
 1.1910	42.6210
 1.1920	42.6200
 1.1930	42.6200
 1.1940	42.6210
 1.1950	42.6220
 1.1960	42.6250
 1.1970	42.6290
 1.1980	42.6360
 1.1990	42.6450
 1.2000	42.6530
 1.2010	42.6600
 1.2020	42.6660
 1.2030	42.6750
 1.2040	42.6870
 1.2050	42.7010
 1.2060	42.7160
 1.2070	42.7310
 1.2080	42.7460
 1.2090	42.7590
 1.2100	42.7740
 1.2110	42.7910
 1.2120	42.8080
 1.2130	42.8260
 1.2140	42.8480
 1.2150	42.8670
 1.2160	42.8850
 1.2170	42.9040
 1.2180	42.9230
 1.2190	42.9400
 1.2200	42.9600
 1.2210	42.9820
 1.2220	43.0020
 1.2230	43.0240
 1.2240	43.0440
 1.2250	43.0620
 1.2260	43.0780
 1.2270	43.0930
 1.2280	43.1080
 1.2290	43.1240
 1.2300	43.1400
 1.2310	43.1570
 1.2320	43.1740
 1.2330	43.1880
 1.2340	43.2020
 1.2350	43.2150
 1.2360	43.2280
 1.2370	43.2390
 1.2380	43.2510
 1.2390	43.2640
 1.2400	43.2770
 1.2410	43.2880
 1.2420	43.2990
 1.2430	43.3110
 1.2440	43.3210
 1.2450	43.3300
 1.2460	43.3400
 1.2470	43.3480
 1.2480	43.3560
 1.2490	43.3650
 1.2500	43.3730
 1.2510	43.3780
 1.2520	43.3840
 1.2530	43.3890
 1.2540	43.3920
 1.2550	43.3960
 1.2560	43.3980
 1.2570	43.3990
 1.2580	43.3980
 1.2590	43.3970
 1.2600	43.3940
 1.2610	43.3910
 1.2620	43.3860
 1.2630	43.3810
 1.2640	43.3760
 1.2650	43.3700
 1.2660	43.3640
 1.2670	43.3570
 1.2680	43.3510
 1.2690	43.3440
 1.2700	43.3330
 1.2710	43.3220
 1.2720	43.3090
 1.2730	43.2960
 1.2740	43.2820
 1.2750	43.2680
 1.2760	43.2520
 1.2770	43.2330
 1.2780	43.2160
 1.2790	43.1970
 1.2800	43.1760
 1.2810	43.1550
 1.2820	43.1310
 1.2830	43.1070
 1.2840	43.0820
 1.2850	43.0540
 1.2860	43.0260
 1.2870	42.9950
 1.2880	42.9600
 1.2890	42.9230
 1.2900	42.8870
 1.2910	42.8470
 1.2920	42.8030
 1.2930	42.7610
 1.2940	42.7150
 1.2950	42.6660
 1.2960	42.6170
 1.2970	42.5650
 1.2980	42.5100
 1.2990	42.4550
 1.3000	42.3960
 1.3010	42.3380
 1.3020	42.2740
 1.3030	42.2090
 1.3040	42.1410
 1.3050	42.0680
 1.3060	41.9930
 1.3070	41.9150
 1.3080	41.8370
 1.3090	41.7590
 1.3100	41.6750
 1.3110	41.5890
 1.3120	41.5000
 1.3130	41.4040
 1.3140	41.3060
 1.3150	41.2040
 1.3160	41.1010
 1.3170	40.9950
 1.3180	40.8880
 1.3190	40.7780
 1.3200	40.6650
 1.3210	40.5450
 1.3220	40.4220
 1.3230	40.2980
 1.3240	40.1680
 1.3250	40.0400
 1.3260	39.9110
 1.3270	39.7780
 1.3280	39.6460
 1.3290	39.5100
 1.3300	39.3710
 1.3310	39.2310
 1.3320	39.0890
 1.3330	38.9460
 1.3340	38.8000
 1.3350	38.6540
 1.3360	38.5060
 1.3370	38.3590
 1.3380	38.2120
 1.3390	38.0670
 1.3400	37.9210
 1.3410	37.7760
 1.3420	37.6320
 1.3430	37.4870
 1.3440	37.3440
 1.3450	37.2020
 1.3460	37.0590
 1.3470	36.9190
 1.3480	36.7800
 1.3490	36.6430
 1.3500	36.5080
 1.3510	36.3750
 1.3520	36.2410
 1.3530	36.1070
 1.3540	35.9720
 1.3550	35.8370
 1.3560	35.7020
 1.3570	35.5650
 1.3580	35.4290
 1.3590	35.2910
 1.3600	35.1490
 1.3610	35.0050
 1.3620	34.8560
 1.3630	34.7020
 1.3640	34.5420
 1.3650	34.3740
 1.3660	34.2000
 1.3670	34.0160
 1.3680	33.8220
 1.3690	33.6190
 1.3700	33.3990
 1.3710	33.1650
 1.3720	32.9190
 1.3730	32.6550
 1.3740	32.3780
 1.3750	32.0830
 1.3760	31.7680
 1.3770	31.4330
 1.3780	31.0770
 1.3790	30.7010
 1.3800	30.3040
 1.3810	29.8830
 1.3820	29.4480
 1.3830	28.9950
 1.3840	28.5270
 1.3850	28.0440
 1.3860	27.5500
 1.3870	27.0360
 1.3880	26.5220
 1.3890	25.9970
 1.3900	25.4650
 1.3910	24.9380
 1.3920	24.4070
 1.3930	23.8770
 1.3940	23.3530
 1.3950	22.8290
 1.3960	22.3160
 1.3970	21.8160
 1.3980	21.3270
 1.3990	20.8590
 1.4000	20.4080
 1.4010	19.9700
 1.4020	19.5550
 1.4030	19.1550
 1.4040	18.7760
 1.4050	18.4190
 1.4060	18.0820
 1.4070	17.7670
 1.4080	17.4740
 1.4090	17.2000
 1.4100	16.9450
 1.4110	16.7070
 1.4120	16.4870
 1.4130	16.2840
 1.4140	16.0980
 1.4150	15.9300
 1.4160	15.7770
 1.4170	15.6360
 1.4180	15.5090
 1.4190	15.3920
 1.4200	15.2850
 1.4210	15.1900
 1.4220	15.1060
 1.4230	15.0310
 1.4240	14.9640
 1.4250	14.9040
 1.4260	14.8510
 1.4270	14.8050
 1.4280	14.7660
 1.4290	14.7310
 1.4300	14.7040
 1.4310	14.6800
 1.4320	14.6630
 1.4330	14.6480
 1.4340	14.6380
 1.4350	14.6310
 1.4360	14.6280
 1.4370	14.6270
 1.4380	14.6290
 1.4390	14.6340
 1.4400	14.6410
 1.4410	14.6510
 1.4420	14.6630
 1.4430	14.6770
 1.4440	14.6920
 1.4450	14.7080
 1.4460	14.7250
 1.4470	14.7430
 1.4480	14.7630
 1.4490	14.7840
 1.4500	14.8070
 1.4510	14.8310
 1.4520	14.8550
 1.4530	14.8790
 1.4540	14.9030
 1.4550	14.9300
 1.4560	14.9590
 1.4570	14.9900
 1.4580	15.0230
 1.4590	15.0570
 1.4600	15.0950
 1.4610	15.1350
 1.4620	15.1790
 1.4630	15.2280
 1.4640	15.2790
 1.4650	15.3340
 1.4660	15.3930
 1.4670	15.4570
 1.4680	15.5240
 1.4690	15.5960
 1.4700	15.6700
