Name: Prosopis articulata
Type: vegetation
Class: Tree
Genus: Prosopis
Species: articulata
Sample No.: JPL142
Owner: JPL
Wavelength Range: VSWIR
Origin: 34.12538; -118.10978; WGS84
Collection Date: 9/14/2016
Description: Samples were collected at the Huntington Garden in San Marino California as part of a JPL Subcontract studying HyTES imagery. Samples were taken to JPL and processed within 48 hours of collection. The same leaves were processed in the Nicolet and then measured using the ASD.
Measurement: Bidirectional reflectance
First Column: X
Second Column: Y
X Units: Wavelength (micrometer)
Y Units: Reflectance (percentage)
First X Value: 0.35
Last X Value: 2.5
Number of X Values: 2151
Additional Information: vegetation.tree.prosopis.articulata.vswir.jpl142.jpl.asd.ancillary.txt

 0.3500	 1.8180
 0.3510	 1.7350
 0.3520	 1.8290
 0.3530	 1.9160
 0.3540	 1.8580
 0.3550	 1.8900
 0.3560	 1.9140
 0.3570	 1.8730
 0.3580	 1.7630
 0.3590	 1.7530
 0.3600	 1.7760
 0.3610	 1.7770
 0.3620	 1.7500
 0.3630	 1.8210
 0.3640	 1.8620
 0.3650	 1.7670
 0.3660	 1.7480
 0.3670	 1.7580
 0.3680	 1.7710
 0.3690	 1.7790
 0.3700	 1.7810
 0.3710	 1.7710
 0.3720	 1.7540
 0.3730	 1.7570
 0.3740	 1.7880
 0.3750	 1.7980
 0.3760	 1.7490
 0.3770	 1.7250
 0.3780	 1.7330
 0.3790	 1.7520
 0.3800	 1.7390
 0.3810	 1.7480
 0.3820	 1.7800
 0.3830	 1.8070
 0.3840	 1.7700
 0.3850	 1.7450
 0.3860	 1.7410
 0.3870	 1.7440
 0.3880	 1.7580
 0.3890	 1.7670
 0.3900	 1.7670
 0.3910	 1.7690
 0.3920	 1.8030
 0.3930	 1.8270
 0.3940	 1.8130
 0.3950	 1.8010
 0.3960	 1.7900
 0.3970	 1.8000
 0.3980	 1.8480
 0.3990	 1.8860
 0.4000	 1.9060
 0.4010	 1.9140
 0.4020	 1.9260
 0.4030	 1.9050
 0.4040	 1.8830
 0.4050	 1.9000
 0.4060	 1.9440
 0.4070	 1.9850
 0.4080	 2.0100
 0.4090	 2.0220
 0.4100	 2.0490
 0.4110	 2.0720
 0.4120	 2.0840
 0.4130	 2.1060
 0.4140	 2.1360
 0.4150	 2.1720
 0.4160	 2.2120
 0.4170	 2.2420
 0.4180	 2.2790
 0.4190	 2.3190
 0.4200	 2.3450
 0.4210	 2.3670
 0.4220	 2.3940
 0.4230	 2.4290
 0.4240	 2.4670
 0.4250	 2.5000
 0.4260	 2.5290
 0.4270	 2.5580
 0.4280	 2.5860
 0.4290	 2.6210
 0.4300	 2.6620
 0.4310	 2.6910
 0.4320	 2.7160
 0.4330	 2.7410
 0.4340	 2.7680
 0.4350	 2.7960
 0.4360	 2.8180
 0.4370	 2.8320
 0.4380	 2.8390
 0.4390	 2.8510
 0.4400	 2.8600
 0.4410	 2.8620
 0.4420	 2.8710
 0.4430	 2.8860
 0.4440	 2.8980
 0.4450	 2.9010
 0.4460	 2.9150
 0.4470	 2.9290
 0.4480	 2.9400
 0.4490	 2.9600
 0.4500	 2.9740
 0.4510	 2.9820
 0.4520	 2.9870
 0.4530	 2.9950
 0.4540	 3.0010
 0.4550	 3.0060
 0.4560	 3.0140
 0.4570	 3.0190
 0.4580	 3.0200
 0.4590	 3.0230
 0.4600	 3.0310
 0.4610	 3.0370
 0.4620	 3.0380
 0.4630	 3.0350
 0.4640	 3.0320
 0.4650	 3.0250
 0.4660	 3.0190
 0.4670	 3.0290
 0.4680	 3.0320
 0.4690	 3.0280
 0.4700	 3.0250
 0.4710	 3.0250
 0.4720	 3.0230
 0.4730	 3.0210
 0.4740	 3.0230
 0.4750	 3.0270
 0.4760	 3.0250
 0.4770	 3.0170
 0.4780	 3.0110
 0.4790	 3.0080
 0.4800	 3.0110
 0.4810	 3.0180
 0.4820	 3.0230
 0.4830	 3.0250
 0.4840	 3.0280
 0.4850	 3.0350
 0.4860	 3.0410
 0.4870	 3.0470
 0.4880	 3.0540
 0.4890	 3.0570
 0.4900	 3.0630
 0.4910	 3.0720
 0.4920	 3.0790
 0.4930	 3.0810
 0.4940	 3.0820
 0.4950	 3.0880
 0.4960	 3.1030
 0.4970	 3.1190
 0.4980	 3.1320
 0.4990	 3.1400
 0.5000	 3.1530
 0.5010	 3.1710
 0.5020	 3.1940
 0.5030	 3.2220
 0.5040	 3.2470
 0.5050	 3.2750
 0.5060	 3.3090
 0.5070	 3.3440
 0.5080	 3.3840
 0.5090	 3.4290
 0.5100	 3.4770
 0.5110	 3.5240
 0.5120	 3.5790
 0.5130	 3.6410
 0.5140	 3.7040
 0.5150	 3.7740
 0.5160	 3.8490
 0.5170	 3.9250
 0.5180	 4.0100
 0.5190	 4.0990
 0.5200	 4.1910
 0.5210	 4.2840
 0.5220	 4.3730
 0.5230	 4.4640
 0.5240	 4.5630
 0.5250	 4.6580
 0.5260	 4.7450
 0.5270	 4.8280
 0.5280	 4.9110
 0.5290	 4.9880
 0.5300	 5.0570
 0.5310	 5.1200
 0.5320	 5.1770
 0.5330	 5.2300
 0.5340	 5.2760
 0.5350	 5.3170
 0.5360	 5.3560
 0.5370	 5.3940
 0.5380	 5.4300
 0.5390	 5.4680
 0.5400	 5.5180
 0.5410	 5.5790
 0.5420	 5.6400
 0.5430	 5.6860
 0.5440	 5.7100
 0.5450	 5.7130
 0.5460	 5.6970
 0.5470	 5.6720
 0.5480	 5.6450
 0.5490	 5.6260
 0.5500	 5.6190
 0.5510	 5.6140
 0.5520	 5.6040
 0.5530	 5.5860
 0.5540	 5.5600
 0.5550	 5.5300
 0.5560	 5.4950
 0.5570	 5.4570
 0.5580	 5.4160
 0.5590	 5.3730
 0.5600	 5.3300
 0.5610	 5.2850
 0.5620	 5.2360
 0.5630	 5.1850
 0.5640	 5.1330
 0.5650	 5.0760
 0.5660	 5.0180
 0.5670	 4.9590
 0.5680	 4.8960
 0.5690	 4.8290
 0.5700	 4.7620
 0.5710	 4.6990
 0.5720	 4.6350
 0.5730	 4.5760
 0.5740	 4.5190
 0.5750	 4.4630
 0.5760	 4.4120
 0.5770	 4.3660
 0.5780	 4.3290
 0.5790	 4.2980
 0.5800	 4.2680
 0.5810	 4.2360
 0.5820	 4.2000
 0.5830	 4.1660
 0.5840	 4.1330
 0.5850	 4.1020
 0.5860	 4.0760
 0.5870	 4.0570
 0.5880	 4.0370
 0.5890	 4.0130
 0.5900	 3.9880
 0.5910	 3.9650
 0.5920	 3.9450
 0.5930	 3.9270
 0.5940	 3.9110
 0.5950	 3.8970
 0.5960	 3.8840
 0.5970	 3.8730
 0.5980	 3.8640
 0.5990	 3.8530
 0.6000	 3.8380
 0.6010	 3.8220
 0.6020	 3.8040
 0.6030	 3.7840
 0.6040	 3.7650
 0.6050	 3.7440
 0.6060	 3.7190
 0.6070	 3.6950
 0.6080	 3.6720
 0.6090	 3.6560
 0.6100	 3.6510
 0.6110	 3.6570
 0.6120	 3.6290
 0.6130	 3.5790
 0.6140	 3.5260
 0.6150	 3.4920
 0.6160	 3.4580
 0.6170	 3.4270
 0.6180	 3.4020
 0.6190	 3.3850
 0.6200	 3.3670
 0.6210	 3.3490
 0.6220	 3.3320
 0.6230	 3.3170
 0.6240	 3.3050
 0.6250	 3.2950
 0.6260	 3.2810
 0.6270	 3.2720
 0.6280	 3.2670
 0.6290	 3.2650
 0.6300	 3.2630
 0.6310	 3.2600
 0.6320	 3.2540
 0.6330	 3.2440
 0.6340	 3.2330
 0.6350	 3.2210
 0.6360	 3.2080
 0.6370	 3.1910
 0.6380	 3.1710
 0.6390	 3.1490
 0.6400	 3.1290
 0.6410	 3.1050
 0.6420	 3.0810
 0.6430	 3.0590
 0.6440	 3.0340
 0.6450	 3.0070
 0.6460	 2.9820
 0.6470	 2.9610
 0.6480	 2.9380
 0.6490	 2.9190
 0.6500	 2.9030
 0.6510	 2.8860
 0.6520	 2.8740
 0.6530	 2.8610
 0.6540	 2.8460
 0.6550	 2.8340
 0.6560	 2.8210
 0.6570	 2.8050
 0.6580	 2.7870
 0.6590	 2.7680
 0.6600	 2.7470
 0.6610	 2.7260
 0.6620	 2.7090
 0.6630	 2.6930
 0.6640	 2.6760
 0.6650	 2.6610
 0.6660	 2.6490
 0.6670	 2.6400
 0.6680	 2.6350
 0.6690	 2.6320
 0.6700	 2.6310
 0.6710	 2.6320
 0.6720	 2.6360
 0.6730	 2.6450
 0.6740	 2.6550
 0.6750	 2.6660
 0.6760	 2.6820
 0.6770	 2.7010
 0.6780	 2.7240
 0.6790	 2.7480
 0.6800	 2.7710
 0.6810	 2.7980
 0.6820	 2.8290
 0.6830	 2.8630
 0.6840	 2.8970
 0.6850	 2.9360
 0.6860	 2.9790
 0.6870	 3.0220
 0.6880	 3.0740
 0.6890	 3.1370
 0.6900	 3.2120
 0.6910	 3.3000
 0.6920	 3.4100
 0.6930	 3.5430
 0.6940	 3.7010
 0.6950	 3.8830
 0.6960	 4.0900
 0.6970	 4.3220
 0.6980	 4.5780
 0.6990	 4.8570
 0.7000	 5.1610
 0.7010	 5.4900
 0.7020	 5.8370
 0.7030	 6.2030
 0.7040	 6.5870
 0.7050	 6.9870
 0.7060	 7.4010
 0.7070	 7.8320
 0.7080	 8.2770
 0.7090	 8.7360
 0.7100	 9.2050
 0.7110	 9.6920
 0.7120	10.1970
 0.7130	10.7120
 0.7140	11.2420
 0.7150	11.7870
 0.7160	12.3470
 0.7170	12.9190
 0.7180	13.5020
 0.7190	14.0940
 0.7200	14.6920
 0.7210	15.2970
 0.7220	15.9050
 0.7230	16.5140
 0.7240	17.1220
 0.7250	17.7260
 0.7260	18.3240
 0.7270	18.9110
 0.7280	19.4870
 0.7290	20.0490
 0.7300	20.5960
 0.7310	21.1230
 0.7320	21.6360
 0.7330	22.1300
 0.7340	22.6040
 0.7350	23.0530
 0.7360	23.4810
 0.7370	23.8870
 0.7380	24.2710
 0.7390	24.6350
 0.7400	24.9730
 0.7410	25.2880
 0.7420	25.5840
 0.7430	25.8570
 0.7440	26.1090
 0.7450	26.3400
 0.7460	26.5540
 0.7470	26.7460
 0.7480	26.9220
 0.7490	27.0860
 0.7500	27.2310
 0.7510	27.3600
 0.7520	27.4770
 0.7530	27.5850
 0.7540	27.6810
 0.7550	27.7660
 0.7560	27.8420
 0.7570	27.9120
 0.7580	27.9770
 0.7590	28.0360
 0.7600	28.0860
 0.7610	28.1290
 0.7620	28.1660
 0.7630	28.1980
 0.7640	28.2260
 0.7650	28.2510
 0.7660	28.2750
 0.7670	28.2980
 0.7680	28.3160
 0.7690	28.3300
 0.7700	28.3430
 0.7710	28.3560
 0.7720	28.3650
 0.7730	28.3720
 0.7740	28.3800
 0.7750	28.3890
 0.7760	28.3950
 0.7770	28.4000
 0.7780	28.4080
 0.7790	28.4170
 0.7800	28.4270
 0.7810	28.4340
 0.7820	28.4380
 0.7830	28.4420
 0.7840	28.4470
 0.7850	28.4530
 0.7860	28.4570
 0.7870	28.4610
 0.7880	28.4660
 0.7890	28.4710
 0.7900	28.4730
 0.7910	28.4760
 0.7920	28.4780
 0.7930	28.4790
 0.7940	28.4820
 0.7950	28.4870
 0.7960	28.4910
 0.7970	28.4920
 0.7980	28.4920
 0.7990	28.4930
 0.8000	28.4950
 0.8010	28.4960
 0.8020	28.4940
 0.8030	28.4940
 0.8040	28.4930
 0.8050	28.4910
 0.8060	28.4900
 0.8070	28.4900
 0.8080	28.4900
 0.8090	28.4870
 0.8100	28.4830
 0.8110	28.4800
 0.8120	28.4790
 0.8130	28.4780
 0.8140	28.4720
 0.8150	28.4660
 0.8160	28.4650
 0.8170	28.4590
 0.8180	28.4570
 0.8190	28.4560
 0.8200	28.4500
 0.8210	28.4470
 0.8220	28.4430
 0.8230	28.4390
 0.8240	28.4380
 0.8250	28.4330
 0.8260	28.4270
 0.8270	28.4210
 0.8280	28.4180
 0.8290	28.4120
 0.8300	28.4070
 0.8310	28.4040
 0.8320	28.3980
 0.8330	28.3920
 0.8340	28.3860
 0.8350	28.3800
 0.8360	28.3800
 0.8370	28.3800
 0.8380	28.3790
 0.8390	28.3780
 0.8400	28.3700
 0.8410	28.3650
 0.8420	28.3660
 0.8430	28.3650
 0.8440	28.3620
 0.8450	28.3630
 0.8460	28.3680
 0.8470	28.3650
 0.8480	28.3660
 0.8490	28.3680
 0.8500	28.3690
 0.8510	28.3680
 0.8520	28.3670
 0.8530	28.3670
 0.8540	28.3670
 0.8550	28.3690
 0.8560	28.3710
 0.8570	28.3710
 0.8580	28.3720
 0.8590	28.3750
 0.8600	28.3770
 0.8610	28.3750
 0.8620	28.3760
 0.8630	28.3820
 0.8640	28.3890
 0.8650	28.3920
 0.8660	28.3940
 0.8670	28.3940
 0.8680	28.3960
 0.8690	28.3990
 0.8700	28.4070
 0.8710	28.4150
 0.8720	28.4200
 0.8730	28.4200
 0.8740	28.4210
 0.8750	28.4240
 0.8760	28.4270
 0.8770	28.4310
 0.8780	28.4370
 0.8790	28.4440
 0.8800	28.4490
 0.8810	28.4480
 0.8820	28.4500
 0.8830	28.4550
 0.8840	28.4590
 0.8850	28.4600
 0.8860	28.4600
 0.8870	28.4620
 0.8880	28.4670
 0.8890	28.4750
 0.8900	28.4810
 0.8910	28.4820
 0.8920	28.4820
 0.8930	28.4890
 0.8940	28.4920
 0.8950	28.4920
 0.8960	28.4990
 0.8970	28.5000
 0.8980	28.5010
 0.8990	28.5040
 0.9000	28.5080
 0.9010	28.5130
 0.9020	28.5150
 0.9030	28.5150
 0.9040	28.5140
 0.9050	28.5170
 0.9060	28.5200
 0.9070	28.5190
 0.9080	28.5150
 0.9090	28.5160
 0.9100	28.5170
 0.9110	28.5160
 0.9120	28.5170
 0.9130	28.5230
 0.9140	28.5250
 0.9150	28.5150
 0.9160	28.5130
 0.9170	28.5130
 0.9180	28.5140
 0.9190	28.5130
 0.9200	28.5070
 0.9210	28.5020
 0.9220	28.4990
 0.9230	28.4950
 0.9240	28.4820
 0.9250	28.4740
 0.9260	28.4720
 0.9270	28.4640
 0.9280	28.4540
 0.9290	28.4440
 0.9300	28.4320
 0.9310	28.4180
 0.9320	28.4030
 0.9330	28.3910
 0.9340	28.3820
 0.9350	28.3640
 0.9360	28.3520
 0.9370	28.3370
 0.9380	28.3140
 0.9390	28.2990
 0.9400	28.2850
 0.9410	28.2670
 0.9420	28.2460
 0.9430	28.2270
 0.9440	28.1980
 0.9450	28.1660
 0.9460	28.1410
 0.9470	28.1220
 0.9480	28.0920
 0.9490	28.0530
 0.9500	28.0150
 0.9510	27.9860
 0.9520	27.9450
 0.9530	27.8980
 0.9540	27.8550
 0.9550	27.8220
 0.9560	27.7860
 0.9570	27.7460
 0.9580	27.7050
 0.9590	27.6680
 0.9600	27.6390
 0.9610	27.6110
 0.9620	27.5780
 0.9630	27.5540
 0.9640	27.5420
 0.9650	27.5320
 0.9660	27.5170
 0.9670	27.5050
 0.9680	27.4880
 0.9690	27.4740
 0.9700	27.4710
 0.9710	27.4560
 0.9720	27.4420
 0.9730	27.4330
 0.9740	27.4290
 0.9750	27.4260
 0.9760	27.4220
 0.9770	27.4150
 0.9780	27.4070
 0.9790	27.4010
 0.9800	27.4030
 0.9810	27.4030
 0.9820	27.3940
 0.9830	27.4080
 0.9840	27.4240
 0.9850	27.4280
 0.9860	27.4180
 0.9870	27.4210
 0.9880	27.4240
 0.9890	27.4280
 0.9900	27.4420
 0.9910	27.4600
 0.9920	27.4690
 0.9930	27.4730
 0.9940	27.4780
 0.9950	27.4840
 0.9960	27.4950
 0.9970	27.5140
 0.9980	27.5390
 0.9990	27.5300
 1.0000	27.5320
 1.0010	27.8040
 1.0020	27.8150
 1.0030	27.8320
 1.0040	27.8480
 1.0050	27.8630
 1.0060	27.8790
 1.0070	27.8900
 1.0080	27.9050
 1.0090	27.9210
 1.0100	27.9370
 1.0110	27.9560
 1.0120	27.9730
 1.0130	27.9860
 1.0140	28.0010
 1.0150	28.0200
 1.0160	28.0340
 1.0170	28.0490
 1.0180	28.0640
 1.0190	28.0770
 1.0200	28.0940
 1.0210	28.1120
 1.0220	28.1290
 1.0230	28.1430
 1.0240	28.1510
 1.0250	28.1650
 1.0260	28.1790
 1.0270	28.1940
 1.0280	28.2130
 1.0290	28.2270
 1.0300	28.2380
 1.0310	28.2510
 1.0320	28.2640
 1.0330	28.2760
 1.0340	28.2890
 1.0350	28.3000
 1.0360	28.3090
 1.0370	28.3200
 1.0380	28.3320
 1.0390	28.3460
 1.0400	28.3580
 1.0410	28.3700
 1.0420	28.3810
 1.0430	28.3910
 1.0440	28.4010
 1.0450	28.4090
 1.0460	28.4190
 1.0470	28.4310
 1.0480	28.4410
 1.0490	28.4490
 1.0500	28.4580
 1.0510	28.4650
 1.0520	28.4720
 1.0530	28.4810
 1.0540	28.4910
 1.0550	28.5000
 1.0560	28.5090
 1.0570	28.5160
 1.0580	28.5210
 1.0590	28.5290
 1.0600	28.5400
 1.0610	28.5470
 1.0620	28.5540
 1.0630	28.5610
 1.0640	28.5650
 1.0650	28.5690
 1.0660	28.5780
 1.0670	28.5830
 1.0680	28.5870
 1.0690	28.5880
 1.0700	28.5890
 1.0710	28.5890
 1.0720	28.5920
 1.0730	28.5980
 1.0740	28.6000
 1.0750	28.6030
 1.0760	28.6050
 1.0770	28.6030
 1.0780	28.6040
 1.0790	28.6050
 1.0800	28.6050
 1.0810	28.6050
 1.0820	28.6040
 1.0830	28.6010
 1.0840	28.5990
 1.0850	28.5970
 1.0860	28.5920
 1.0870	28.5900
 1.0880	28.5890
 1.0890	28.5860
 1.0900	28.5840
 1.0910	28.5780
 1.0920	28.5690
 1.0930	28.5610
 1.0940	28.5520
 1.0950	28.5440
 1.0960	28.5380
 1.0970	28.5320
 1.0980	28.5260
 1.0990	28.5200
 1.1000	28.5140
 1.1010	28.5070
 1.1020	28.4990
 1.1030	28.4920
 1.1040	28.4830
 1.1050	28.4730
 1.1060	28.4640
 1.1070	28.4540
 1.1080	28.4440
 1.1090	28.4360
 1.1100	28.4260
 1.1110	28.4150
 1.1120	28.4030
 1.1130	28.3910
 1.1140	28.3780
 1.1150	28.3630
 1.1160	28.3490
 1.1170	28.3330
 1.1180	28.3170
 1.1190	28.3020
 1.1200	28.2840
 1.1210	28.2640
 1.1220	28.2410
 1.1230	28.2160
 1.1240	28.1890
 1.1250	28.1580
 1.1260	28.1280
 1.1270	28.0900
 1.1280	28.0480
 1.1290	28.0010
 1.1300	27.9510
 1.1310	27.8940
 1.1320	27.8310
 1.1330	27.7660
 1.1340	27.6940
 1.1350	27.6200
 1.1360	27.5440
 1.1370	27.4610
 1.1380	27.3730
 1.1390	27.2800
 1.1400	27.1830
 1.1410	27.0850
 1.1420	26.9870
 1.1430	26.8890
 1.1440	26.7930
 1.1450	26.6960
 1.1460	26.6000
 1.1470	26.5040
 1.1480	26.4130
 1.1490	26.3240
 1.1500	26.2410
 1.1510	26.1620
 1.1520	26.0870
 1.1530	26.0140
 1.1540	25.9460
 1.1550	25.8820
 1.1560	25.8240
 1.1570	25.7710
 1.1580	25.7210
 1.1590	25.6750
 1.1600	25.6350
 1.1610	25.5960
 1.1620	25.5610
 1.1630	25.5310
 1.1640	25.5000
 1.1650	25.4730
 1.1660	25.4500
 1.1670	25.4270
 1.1680	25.4070
 1.1690	25.3870
 1.1700	25.3670
 1.1710	25.3490
 1.1720	25.3340
 1.1730	25.3170
 1.1740	25.3010
 1.1750	25.2850
 1.1760	25.2690
 1.1770	25.2530
 1.1780	25.2360
 1.1790	25.2200
 1.1800	25.2020
 1.1810	25.1830
 1.1820	25.1650
 1.1830	25.1480
 1.1840	25.1290
 1.1850	25.1120
 1.1860	25.0950
 1.1870	25.0770
 1.1880	25.0620
 1.1890	25.0480
 1.1900	25.0340
 1.1910	25.0210
 1.1920	25.0100
 1.1930	24.9990
 1.1940	24.9890
 1.1950	24.9820
 1.1960	24.9750
 1.1970	24.9690
 1.1980	24.9630
 1.1990	24.9580
 1.2000	24.9560
 1.2010	24.9550
 1.2020	24.9560
 1.2030	24.9570
 1.2040	24.9580
 1.2050	24.9600
 1.2060	24.9640
 1.2070	24.9710
 1.2080	24.9790
 1.2090	24.9880
 1.2100	24.9990
 1.2110	25.0110
 1.2120	25.0240
 1.2130	25.0400
 1.2140	25.0570
 1.2150	25.0770
 1.2160	25.0990
 1.2170	25.1200
 1.2180	25.1440
 1.2190	25.1700
 1.2200	25.1960
 1.2210	25.2240
 1.2220	25.2520
 1.2230	25.2810
 1.2240	25.3110
 1.2250	25.3410
 1.2260	25.3700
 1.2270	25.3980
 1.2280	25.4250
 1.2290	25.4510
 1.2300	25.4760
 1.2310	25.5010
 1.2320	25.5240
 1.2330	25.5470
 1.2340	25.5680
 1.2350	25.5890
 1.2360	25.6090
 1.2370	25.6280
 1.2380	25.6470
 1.2390	25.6620
 1.2400	25.6780
 1.2410	25.6940
 1.2420	25.7100
 1.2430	25.7270
 1.2440	25.7440
 1.2450	25.7600
 1.2460	25.7740
 1.2470	25.7880
 1.2480	25.8020
 1.2490	25.8150
 1.2500	25.8280
 1.2510	25.8400
 1.2520	25.8510
 1.2530	25.8610
 1.2540	25.8700
 1.2550	25.8790
 1.2560	25.8890
 1.2570	25.8980
 1.2580	25.9080
 1.2590	25.9150
 1.2600	25.9210
 1.2610	25.9260
 1.2620	25.9290
 1.2630	25.9320
 1.2640	25.9350
 1.2650	25.9370
 1.2660	25.9380
 1.2670	25.9390
 1.2680	25.9380
 1.2690	25.9380
 1.2700	25.9370
 1.2710	25.9340
 1.2720	25.9320
 1.2730	25.9280
 1.2740	25.9230
 1.2750	25.9180
 1.2760	25.9100
 1.2770	25.9040
 1.2780	25.8960
 1.2790	25.8880
 1.2800	25.8790
 1.2810	25.8690
 1.2820	25.8590
 1.2830	25.8470
 1.2840	25.8360
 1.2850	25.8250
 1.2860	25.8100
 1.2870	25.7950
 1.2880	25.7790
 1.2890	25.7600
 1.2900	25.7390
 1.2910	25.7190
 1.2920	25.6970
 1.2930	25.6750
 1.2940	25.6500
 1.2950	25.6240
 1.2960	25.5970
 1.2970	25.5670
 1.2980	25.5350
 1.2990	25.5010
 1.3000	25.4660
 1.3010	25.4300
 1.3020	25.3910
 1.3030	25.3530
 1.3040	25.3100
 1.3050	25.2640
 1.3060	25.2180
 1.3070	25.1680
 1.3080	25.1150
 1.3090	25.0620
 1.3100	25.0070
 1.3110	24.9480
 1.3120	24.8890
 1.3130	24.8280
 1.3140	24.7640
 1.3150	24.7000
 1.3160	24.6330
 1.3170	24.5650
 1.3180	24.4940
 1.3190	24.4200
 1.3200	24.3450
 1.3210	24.2670
 1.3220	24.1870
 1.3230	24.1050
 1.3240	24.0200
 1.3250	23.9360
 1.3260	23.8510
 1.3270	23.7640
 1.3280	23.6760
 1.3290	23.5850
 1.3300	23.4940
 1.3310	23.4010
 1.3320	23.3040
 1.3330	23.2100
 1.3340	23.1150
 1.3350	23.0180
 1.3360	22.9230
 1.3370	22.8270
 1.3380	22.7320
 1.3390	22.6380
 1.3400	22.5440
 1.3410	22.4500
 1.3420	22.3580
 1.3430	22.2660
 1.3440	22.1750
 1.3450	22.0850
 1.3460	21.9970
 1.3470	21.9100
 1.3480	21.8240
 1.3490	21.7390
 1.3500	21.6570
 1.3510	21.5740
 1.3520	21.4910
 1.3530	21.4080
 1.3540	21.3250
 1.3550	21.2410
 1.3560	21.1570
 1.3570	21.0740
 1.3580	20.9900
 1.3590	20.9060
 1.3600	20.8200
 1.3610	20.7310
 1.3620	20.6400
 1.3630	20.5430
 1.3640	20.4430
 1.3650	20.3370
 1.3660	20.2270
 1.3670	20.1110
 1.3680	19.9900
 1.3690	19.8610
 1.3700	19.7230
 1.3710	19.5760
 1.3720	19.4200
 1.3730	19.2520
 1.3740	19.0750
 1.3750	18.8850
 1.3760	18.6820
 1.3770	18.4680
 1.3780	18.2360
 1.3790	17.9900
 1.3800	17.7310
 1.3810	17.4550
 1.3820	17.1680
 1.3830	16.8670
 1.3840	16.5550
 1.3850	16.2300
 1.3860	15.8990
 1.3870	15.5550
 1.3880	15.2100
 1.3890	14.8600
 1.3900	14.5040
 1.3910	14.1500
 1.3920	13.7960
 1.3930	13.4400
 1.3940	13.0900
 1.3950	12.7420
 1.3960	12.4010
 1.3970	12.0700
 1.3980	11.7480
 1.3990	11.4380
 1.4000	11.1400
 1.4010	10.8510
 1.4020	10.5750
 1.4030	10.3100
 1.4040	10.0580
 1.4050	 9.8200
 1.4060	 9.5930
 1.4070	 9.3820
 1.4080	 9.1830
 1.4090	 8.9950
 1.4100	 8.8200
 1.4110	 8.6550
 1.4120	 8.5010
 1.4130	 8.3580
 1.4140	 8.2240
 1.4150	 8.1010
 1.4160	 7.9870
 1.4170	 7.8790
 1.4180	 7.7790
 1.4190	 7.6850
 1.4200	 7.5980
 1.4210	 7.5160
 1.4220	 7.4410
 1.4230	 7.3720
 1.4240	 7.3070
 1.4250	 7.2470
 1.4260	 7.1920
 1.4270	 7.1390
 1.4280	 7.0900
 1.4290	 7.0450
 1.4300	 7.0050
 1.4310	 6.9670
 1.4320	 6.9340
 1.4330	 6.9020
 1.4340	 6.8740
 1.4350	 6.8470
 1.4360	 6.8240
 1.4370	 6.8030
 1.4380	 6.7850
 1.4390	 6.7680
 1.4400	 6.7540
 1.4410	 6.7420
 1.4420	 6.7310
 1.4430	 6.7220
 1.4440	 6.7140
 1.4450	 6.7080
 1.4460	 6.7030
 1.4470	 6.7000
 1.4480	 6.6990
 1.4490	 6.6980
 1.4500	 6.6970
 1.4510	 6.6980
 1.4520	 6.7000
 1.4530	 6.7040
 1.4540	 6.7090
 1.4550	 6.7160
 1.4560	 6.7230
 1.4570	 6.7310
 1.4580	 6.7420
 1.4590	 6.7550
 1.4600	 6.7700
 1.4610	 6.7870
 1.4620	 6.8060
 1.4630	 6.8290
 1.4640	 6.8530
 1.4650	 6.8800
 1.4660	 6.9100
 1.4670	 6.9410
 1.4680	 6.9760
 1.4690	 7.0120
 1.4700	 7.0510
 1.4710	 7.0920
 1.4720	 7.1350
 1.4730	 7.1800
 1.4740	 7.2270
 1.4750	 7.2760
 1.4760	 7.3260
 1.4770	 7.3780
