Name: Podocarpus gracilior
Type: vegetation
Class: Tree
Genus: Podocarpus
Species: gracilior
Sample No.: JPL127
Owner: JPL
Wavelength Range: VSWIR
Origin: 34.12691; -118.116;; WGS84
Collection Date: 9/7/2016
Description: Samples were collected at the Huntington Garden in San Marino California as part of a JPL Subcontract studying HyTES imagery. Samples were taken to JPL and processed within 48 hours of collection. The same leaves were processed in the Nicolet and then measured using the ASD.
Measurement: Bidirectional reflectance
First Column: X
Second Column: Y
X Units: Wavelength (micrometer)
Y Units: Reflectance (percentage)
First X Value: 0.35
Last X Value: 2.5
Number of X Values: 2151
Additional Information: vegetation.tree.podocarpus.gracilior.vswir.jpl127.jpl.asd.ancillary.txt

 0.3500	 9.6300
 0.3510	 9.6390
 0.3520	 9.6210
 0.3530	 9.5420
 0.3540	 9.4110
 0.3550	 9.3690
 0.3560	 9.3360
 0.3570	 9.3390
 0.3580	 9.4310
 0.3590	 9.4500
 0.3600	 9.3660
 0.3610	 9.2540
 0.3620	 9.3000
 0.3630	 9.3280
 0.3640	 9.3080
 0.3650	 9.2620
 0.3660	 9.2380
 0.3670	 9.2090
 0.3680	 9.1770
 0.3690	 9.1660
 0.3700	 9.2140
 0.3710	 9.2510
 0.3720	 9.2390
 0.3730	 9.2070
 0.3740	 9.1830
 0.3750	 9.1790
 0.3760	 9.1900
 0.3770	 9.1580
 0.3780	 9.1600
 0.3790	 9.1860
 0.3800	 9.1640
 0.3810	 9.1820
 0.3820	 9.1900
 0.3830	 9.1610
 0.3840	 9.1640
 0.3850	 9.1800
 0.3860	 9.1930
 0.3870	 9.1970
 0.3880	 9.2320
 0.3890	 9.2740
 0.3900	 9.2860
 0.3910	 9.2300
 0.3920	 9.2550
 0.3930	 9.2920
 0.3940	 9.2810
 0.3950	 9.3180
 0.3960	 9.3270
 0.3970	 9.3160
 0.3980	 9.3240
 0.3990	 9.3070
 0.4000	 9.3070
 0.4010	 9.3280
 0.4020	 9.3240
 0.4030	 9.3320
 0.4040	 9.3570
 0.4050	 9.3900
 0.4060	 9.4020
 0.4070	 9.4000
 0.4080	 9.3980
 0.4090	 9.4100
 0.4100	 9.4500
 0.4110	 9.4700
 0.4120	 9.4560
 0.4130	 9.4690
 0.4140	 9.4800
 0.4150	 9.4920
 0.4160	 9.5110
 0.4170	 9.5050
 0.4180	 9.4990
 0.4190	 9.5020
 0.4200	 9.5050
 0.4210	 9.5110
 0.4220	 9.5090
 0.4230	 9.4960
 0.4240	 9.4960
 0.4250	 9.5010
 0.4260	 9.5050
 0.4270	 9.5080
 0.4280	 9.4940
 0.4290	 9.4740
 0.4300	 9.4580
 0.4310	 9.4480
 0.4320	 9.4280
 0.4330	 9.4000
 0.4340	 9.3750
 0.4350	 9.3520
 0.4360	 9.3480
 0.4370	 9.3610
 0.4380	 9.3780
 0.4390	 9.4010
 0.4400	 9.4340
 0.4410	 9.4690
 0.4420	 9.4800
 0.4430	 9.4860
 0.4440	 9.4920
 0.4450	 9.4940
 0.4460	 9.4960
 0.4470	 9.5010
 0.4480	 9.5070
 0.4490	 9.5100
 0.4500	 9.5130
 0.4510	 9.5210
 0.4520	 9.5330
 0.4530	 9.5350
 0.4540	 9.5400
 0.4550	 9.5420
 0.4560	 9.5320
 0.4570	 9.5310
 0.4580	 9.5410
 0.4590	 9.5500
 0.4600	 9.5430
 0.4610	 9.5440
 0.4620	 9.5470
 0.4630	 9.5430
 0.4640	 9.5440
 0.4650	 9.5470
 0.4660	 9.5470
 0.4670	 9.5410
 0.4680	 9.5500
 0.4690	 9.5570
 0.4700	 9.5480
 0.4710	 9.5500
 0.4720	 9.5560
 0.4730	 9.5630
 0.4740	 9.5680
 0.4750	 9.5630
 0.4760	 9.5650
 0.4770	 9.5760
 0.4780	 9.5700
 0.4790	 9.5680
 0.4800	 9.5730
 0.4810	 9.5760
 0.4820	 9.5690
 0.4830	 9.5600
 0.4840	 9.5510
 0.4850	 9.5410
 0.4860	 9.5330
 0.4870	 9.5290
 0.4880	 9.5320
 0.4890	 9.5480
 0.4900	 9.5640
 0.4910	 9.5800
 0.4920	 9.5990
 0.4930	 9.6200
 0.4940	 9.6440
 0.4950	 9.6720
 0.4960	 9.7030
 0.4970	 9.7360
 0.4980	 9.7720
 0.4990	 9.8140
 0.5000	 9.8570
 0.5010	 9.9060
 0.5020	 9.9650
 0.5030	10.0400
 0.5040	10.1130
 0.5050	10.1880
 0.5060	10.2730
 0.5070	10.3800
 0.5080	10.4950
 0.5090	10.6200
 0.5100	10.7590
 0.5110	10.9090
 0.5120	11.0710
 0.5130	11.2480
 0.5140	11.4350
 0.5150	11.6370
 0.5160	11.8490
 0.5170	12.0660
 0.5180	12.2880
 0.5190	12.5190
 0.5200	12.7530
 0.5210	12.9780
 0.5220	13.2020
 0.5230	13.4180
 0.5240	13.6220
 0.5250	13.8160
 0.5260	13.9960
 0.5270	14.1610
 0.5280	14.3100
 0.5290	14.4420
 0.5300	14.5600
 0.5310	14.6650
 0.5320	14.7510
 0.5330	14.8270
 0.5340	14.8900
 0.5350	14.9410
 0.5360	14.9830
 0.5370	15.0150
 0.5380	15.0320
 0.5390	15.0360
 0.5400	15.0200
 0.5410	14.9840
 0.5420	14.9400
 0.5430	14.9130
 0.5440	14.9120
 0.5450	14.9360
 0.5460	14.9810
 0.5470	15.0400
 0.5480	15.0910
 0.5490	15.1210
 0.5500	15.1290
 0.5510	15.1320
 0.5520	15.1310
 0.5530	15.1230
 0.5540	15.1110
 0.5550	15.0850
 0.5560	15.0440
 0.5570	14.9930
 0.5580	14.9260
 0.5590	14.8430
 0.5600	14.7470
 0.5610	14.6460
 0.5620	14.5350
 0.5630	14.4140
 0.5640	14.2840
 0.5650	14.1500
 0.5660	14.0120
 0.5670	13.8680
 0.5680	13.7170
 0.5690	13.5670
 0.5700	13.4220
 0.5710	13.2860
 0.5720	13.1510
 0.5730	13.0240
 0.5740	12.9080
 0.5750	12.8030
 0.5760	12.7130
 0.5770	12.6250
 0.5780	12.5310
 0.5790	12.4340
 0.5800	12.3450
 0.5810	12.2650
 0.5820	12.1940
 0.5830	12.1270
 0.5840	12.0730
 0.5850	12.0300
 0.5860	11.9820
 0.5870	11.9210
 0.5880	11.8600
 0.5890	11.8080
 0.5900	11.7700
 0.5910	11.7390
 0.5920	11.7110
 0.5930	11.6830
 0.5940	11.6590
 0.5950	11.6370
 0.5960	11.6140
 0.5970	11.5920
 0.5980	11.5650
 0.5990	11.5380
 0.6000	11.5170
 0.6010	11.4970
 0.6020	11.4730
 0.6030	11.4420
 0.6040	11.4070
 0.6050	11.3660
 0.6060	11.3200
 0.6070	11.2730
 0.6080	11.2200
 0.6090	11.1430
 0.6100	11.0350
 0.6110	10.9120
 0.6120	10.8660
 0.6130	10.8610
 0.6140	10.8570
 0.6150	10.8270
 0.6160	10.7960
 0.6170	10.7630
 0.6180	10.7220
 0.6190	10.6810
 0.6200	10.6410
 0.6210	10.6070
 0.6220	10.5830
 0.6230	10.5650
 0.6240	10.5470
 0.6250	10.5320
 0.6260	10.5200
 0.6270	10.5100
 0.6280	10.5000
 0.6290	10.4880
 0.6300	10.4710
 0.6310	10.4570
 0.6320	10.4500
 0.6330	10.4480
 0.6340	10.4330
 0.6350	10.4080
 0.6360	10.3780
 0.6370	10.3410
 0.6380	10.2980
 0.6390	10.2530
 0.6400	10.2050
 0.6410	10.1530
 0.6420	10.1000
 0.6430	10.0510
 0.6440	10.0040
 0.6450	 9.9570
 0.6460	 9.9140
 0.6470	 9.8750
 0.6480	 9.8380
 0.6490	 9.8040
 0.6500	 9.7750
 0.6510	 9.7570
 0.6520	 9.7440
 0.6530	 9.7320
 0.6540	 9.7190
 0.6550	 9.7120
 0.6560	 9.7050
 0.6570	 9.6970
 0.6580	 9.6880
 0.6590	 9.6800
 0.6600	 9.6720
 0.6610	 9.6640
 0.6620	 9.6540
 0.6630	 9.6460
 0.6640	 9.6400
 0.6650	 9.6390
 0.6660	 9.6390
 0.6670	 9.6400
 0.6680	 9.6440
 0.6690	 9.6520
 0.6700	 9.6640
 0.6710	 9.6800
 0.6720	 9.7010
 0.6730	 9.7220
 0.6740	 9.7450
 0.6750	 9.7730
 0.6760	 9.8070
 0.6770	 9.8410
 0.6780	 9.8760
 0.6790	 9.9170
 0.6800	 9.9620
 0.6810	10.0090
 0.6820	10.0570
 0.6830	10.1100
 0.6840	10.1700
 0.6850	10.2330
 0.6860	10.3010
 0.6870	10.3790
 0.6880	10.4780
 0.6890	10.6030
 0.6900	10.7590
 0.6910	10.9570
 0.6920	11.2070
 0.6930	11.5180
 0.6940	11.8970
 0.6950	12.3490
 0.6960	12.8750
 0.6970	13.4760
 0.6980	14.1490
 0.6990	14.8880
 0.7000	15.6900
 0.7010	16.5470
 0.7020	17.4510
 0.7030	18.3930
 0.7040	19.3670
 0.7050	20.3650
 0.7060	21.3800
 0.7070	22.4110
 0.7080	23.4520
 0.7090	24.4990
 0.7100	25.5550
 0.7110	26.6110
 0.7120	27.6640
 0.7130	28.7160
 0.7140	29.7590
 0.7150	30.7940
 0.7160	31.8160
 0.7170	32.8290
 0.7180	33.8250
 0.7190	34.8030
 0.7200	35.7670
 0.7210	36.7080
 0.7220	37.6250
 0.7230	38.5190
 0.7240	39.3880
 0.7250	40.2260
 0.7260	41.0320
 0.7270	41.8060
 0.7280	42.5470
 0.7290	43.2550
 0.7300	43.9300
 0.7310	44.5720
 0.7320	45.1840
 0.7330	45.7640
 0.7340	46.3120
 0.7350	46.8330
 0.7360	47.3240
 0.7370	47.7860
 0.7380	48.2200
 0.7390	48.6290
 0.7400	49.0110
 0.7410	49.3680
 0.7420	49.7010
 0.7430	50.0080
 0.7440	50.2970
 0.7450	50.5660
 0.7460	50.8100
 0.7470	51.0390
 0.7480	51.2500
 0.7490	51.4390
 0.7500	51.6090
 0.7510	51.7670
 0.7520	51.9130
 0.7530	52.0490
 0.7540	52.1730
 0.7550	52.2850
 0.7560	52.3840
 0.7570	52.4730
 0.7580	52.5520
 0.7590	52.6260
 0.7600	52.6960
 0.7610	52.7580
 0.7620	52.8170
 0.7630	52.8690
 0.7640	52.9160
 0.7650	52.9570
 0.7660	52.9940
 0.7670	53.0270
 0.7680	53.0580
 0.7690	53.0860
 0.7700	53.1110
 0.7710	53.1330
 0.7720	53.1520
 0.7730	53.1710
 0.7740	53.1890
 0.7750	53.2060
 0.7760	53.2180
 0.7770	53.2300
 0.7780	53.2430
 0.7790	53.2580
 0.7800	53.2710
 0.7810	53.2830
 0.7820	53.2940
 0.7830	53.3010
 0.7840	53.3120
 0.7850	53.3230
 0.7860	53.3290
 0.7870	53.3310
 0.7880	53.3370
 0.7890	53.3440
 0.7900	53.3460
 0.7910	53.3480
 0.7920	53.3480
 0.7930	53.3480
 0.7940	53.3470
 0.7950	53.3450
 0.7960	53.3420
 0.7970	53.3390
 0.7980	53.3340
 0.7990	53.3260
 0.8000	53.3180
 0.8010	53.3100
 0.8020	53.3040
 0.8030	53.2940
 0.8040	53.2820
 0.8050	53.2710
 0.8060	53.2600
 0.8070	53.2460
 0.8080	53.2300
 0.8090	53.2120
 0.8100	53.2000
 0.8110	53.1880
 0.8120	53.1720
 0.8130	53.1560
 0.8140	53.1400
 0.8150	53.1220
 0.8160	53.1030
 0.8170	53.0920
 0.8180	53.0780
 0.8190	53.0610
 0.8200	53.0450
 0.8210	53.0240
 0.8220	53.0040
 0.8230	52.9870
 0.8240	52.9710
 0.8250	52.9530
 0.8260	52.9320
 0.8270	52.9130
 0.8280	52.9010
 0.8290	52.8810
 0.8300	52.8590
 0.8310	52.8440
 0.8320	52.8280
 0.8330	52.8130
 0.8340	52.7990
 0.8350	52.7840
 0.8360	52.7710
 0.8370	52.7580
 0.8380	52.7460
 0.8390	52.7330
 0.8400	52.7240
 0.8410	52.7170
 0.8420	52.7110
 0.8430	52.7120
 0.8440	52.7060
 0.8450	52.6980
 0.8460	52.6920
 0.8470	52.6840
 0.8480	52.6820
 0.8490	52.6840
 0.8500	52.6800
 0.8510	52.6760
 0.8520	52.6750
 0.8530	52.6760
 0.8540	52.6760
 0.8550	52.6780
 0.8560	52.6810
 0.8570	52.6830
 0.8580	52.6830
 0.8590	52.6930
 0.8600	52.7050
 0.8610	52.7130
 0.8620	52.7190
 0.8630	52.7210
 0.8640	52.7250
 0.8650	52.7330
 0.8660	52.7470
 0.8670	52.7520
 0.8680	52.7560
 0.8690	52.7700
 0.8700	52.7800
 0.8710	52.7910
 0.8720	52.8040
 0.8730	52.8190
 0.8740	52.8330
 0.8750	52.8460
 0.8760	52.8560
 0.8770	52.8660
 0.8780	52.8800
 0.8790	52.8960
 0.8800	52.9140
 0.8810	52.9320
 0.8820	52.9490
 0.8830	52.9630
 0.8840	52.9760
 0.8850	52.9900
 0.8860	53.0030
 0.8870	53.0150
 0.8880	53.0300
 0.8890	53.0470
 0.8900	53.0640
 0.8910	53.0800
 0.8920	53.0950
 0.8930	53.1110
 0.8940	53.1240
 0.8950	53.1370
 0.8960	53.1570
 0.8970	53.1700
 0.8980	53.1820
 0.8990	53.1980
 0.9000	53.2130
 0.9010	53.2260
 0.9020	53.2400
 0.9030	53.2550
 0.9040	53.2710
 0.9050	53.2830
 0.9060	53.2900
 0.9070	53.2930
 0.9080	53.3080
 0.9090	53.3190
 0.9100	53.3270
 0.9110	53.3340
 0.9120	53.3410
 0.9130	53.3480
 0.9140	53.3570
 0.9150	53.3640
 0.9160	53.3630
 0.9170	53.3600
 0.9180	53.3600
 0.9190	53.3660
 0.9200	53.3770
 0.9210	53.3840
 0.9220	53.3800
 0.9230	53.3670
 0.9240	53.3590
 0.9250	53.3530
 0.9260	53.3480
 0.9270	53.3410
 0.9280	53.3230
 0.9290	53.3050
 0.9300	53.2930
 0.9310	53.2820
 0.9320	53.2650
 0.9330	53.2480
 0.9340	53.2330
 0.9350	53.2100
 0.9360	53.1830
 0.9370	53.1620
 0.9380	53.1470
 0.9390	53.1190
 0.9400	53.0960
 0.9410	53.0710
 0.9420	53.0370
 0.9430	53.0030
 0.9440	52.9700
 0.9450	52.9340
 0.9460	52.8910
 0.9470	52.8480
 0.9480	52.8050
 0.9490	52.7590
 0.9500	52.7070
 0.9510	52.6500
 0.9520	52.5960
 0.9530	52.5370
 0.9540	52.4700
 0.9550	52.4200
 0.9560	52.3650
 0.9570	52.3110
 0.9580	52.2670
 0.9590	52.2150
 0.9600	52.1620
 0.9610	52.1190
 0.9620	52.0890
 0.9630	52.0550
 0.9640	52.0300
 0.9650	52.0060
 0.9660	51.9740
 0.9670	51.9630
 0.9680	51.9500
 0.9690	51.9310
 0.9700	51.9150
 0.9710	51.9030
 0.9720	51.8930
 0.9730	51.8800
 0.9740	51.8620
 0.9750	51.8460
 0.9760	51.8460
 0.9770	51.8520
 0.9780	51.8520
 0.9790	51.8530
 0.9800	51.8500
 0.9810	51.8460
 0.9820	51.8480
 0.9830	51.8430
 0.9840	51.8480
 0.9850	51.8650
 0.9860	51.8820
 0.9870	51.8880
 0.9880	51.8920
 0.9890	51.9010
 0.9900	51.9180
 0.9910	51.9260
 0.9920	51.9340
 0.9930	51.9450
 0.9940	51.9570
 0.9950	51.9720
 0.9960	51.9860
 0.9970	51.9990
 0.9980	52.0110
 0.9990	52.0230
 1.0000	52.0360
 1.0010	53.4000
 1.0020	53.4130
 1.0030	53.4310
 1.0040	53.4430
 1.0050	53.4550
 1.0060	53.4720
 1.0070	53.4870
 1.0080	53.5010
 1.0090	53.5150
 1.0100	53.5290
 1.0110	53.5380
 1.0120	53.5520
 1.0130	53.5670
 1.0140	53.5830
 1.0150	53.6000
 1.0160	53.6160
 1.0170	53.6290
 1.0180	53.6440
 1.0190	53.6560
 1.0200	53.6680
 1.0210	53.6860
 1.0220	53.7030
 1.0230	53.7180
 1.0240	53.7320
 1.0250	53.7480
 1.0260	53.7640
 1.0270	53.7780
 1.0280	53.7940
 1.0290	53.8090
 1.0300	53.8210
 1.0310	53.8340
 1.0320	53.8500
 1.0330	53.8660
 1.0340	53.8810
 1.0350	53.8980
 1.0360	53.9170
 1.0370	53.9340
 1.0380	53.9470
 1.0390	53.9580
 1.0400	53.9680
 1.0410	53.9740
 1.0420	53.9850
 1.0430	53.9980
 1.0440	54.0090
 1.0450	54.0230
 1.0460	54.0340
 1.0470	54.0420
 1.0480	54.0510
 1.0490	54.0580
 1.0500	54.0670
 1.0510	54.0780
 1.0520	54.0890
 1.0530	54.0950
 1.0540	54.1000
 1.0550	54.1050
 1.0560	54.1050
 1.0570	54.1110
 1.0580	54.1240
 1.0590	54.1290
 1.0600	54.1320
 1.0610	54.1350
 1.0620	54.1330
 1.0630	54.1330
 1.0640	54.1350
 1.0650	54.1360
 1.0660	54.1360
 1.0670	54.1350
 1.0680	54.1340
 1.0690	54.1330
 1.0700	54.1320
 1.0710	54.1290
 1.0720	54.1270
 1.0730	54.1260
 1.0740	54.1240
 1.0750	54.1220
 1.0760	54.1180
 1.0770	54.1150
 1.0780	54.1110
 1.0790	54.1050
 1.0800	54.0990
 1.0810	54.0910
 1.0820	54.0860
 1.0830	54.0830
 1.0840	54.0790
 1.0850	54.0760
 1.0860	54.0730
 1.0870	54.0680
 1.0880	54.0620
 1.0890	54.0590
 1.0900	54.0570
 1.0910	54.0530
 1.0920	54.0510
 1.0930	54.0470
 1.0940	54.0400
 1.0950	54.0340
 1.0960	54.0280
 1.0970	54.0220
 1.0980	54.0170
 1.0990	54.0110
 1.1000	54.0050
 1.1010	53.9980
 1.1020	53.9900
 1.1030	53.9830
 1.1040	53.9760
 1.1050	53.9710
 1.1060	53.9650
 1.1070	53.9620
 1.1080	53.9560
 1.1090	53.9480
 1.1100	53.9410
 1.1110	53.9350
 1.1120	53.9270
 1.1130	53.9190
 1.1140	53.9110
 1.1150	53.9020
 1.1160	53.8900
 1.1170	53.8780
 1.1180	53.8630
 1.1190	53.8450
 1.1200	53.8240
 1.1210	53.8020
 1.1220	53.7800
 1.1230	53.7520
 1.1240	53.7220
 1.1250	53.6880
 1.1260	53.6540
 1.1270	53.6120
 1.1280	53.5680
 1.1290	53.5150
 1.1300	53.4570
 1.1310	53.3910
 1.1320	53.3180
 1.1330	53.2390
 1.1340	53.1530
 1.1350	53.0620
 1.1360	52.9650
 1.1370	52.8630
 1.1380	52.7560
 1.1390	52.6450
 1.1400	52.5290
 1.1410	52.4110
 1.1420	52.2900
 1.1430	52.1670
 1.1440	52.0440
 1.1450	51.9170
 1.1460	51.7950
 1.1470	51.6710
 1.1480	51.5560
 1.1490	51.4430
 1.1500	51.3400
 1.1510	51.2430
 1.1520	51.1530
 1.1530	51.0710
 1.1540	50.9960
 1.1550	50.9280
 1.1560	50.8670
 1.1570	50.8100
 1.1580	50.7610
 1.1590	50.7210
 1.1600	50.6840
 1.1610	50.6550
 1.1620	50.6300
 1.1630	50.6040
 1.1640	50.5830
 1.1650	50.5640
 1.1660	50.5490
 1.1670	50.5340
 1.1680	50.5230
 1.1690	50.5120
 1.1700	50.5030
 1.1710	50.4940
 1.1720	50.4870
 1.1730	50.4790
 1.1740	50.4700
 1.1750	50.4600
 1.1760	50.4520
 1.1770	50.4400
 1.1780	50.4290
 1.1790	50.4170
 1.1800	50.4030
 1.1810	50.3900
 1.1820	50.3760
 1.1830	50.3620
 1.1840	50.3470
 1.1850	50.3330
 1.1860	50.3190
 1.1870	50.3060
 1.1880	50.2930
 1.1890	50.2790
 1.1900	50.2670
 1.1910	50.2540
 1.1920	50.2440
 1.1930	50.2350
 1.1940	50.2270
 1.1950	50.2210
 1.1960	50.2130
 1.1970	50.2070
 1.1980	50.2050
 1.1990	50.2030
 1.2000	50.2020
 1.2010	50.2040
 1.2020	50.2070
 1.2030	50.2120
 1.2040	50.2200
 1.2050	50.2290
 1.2060	50.2370
 1.2070	50.2480
 1.2080	50.2610
 1.2090	50.2760
 1.2100	50.2920
 1.2110	50.3080
 1.2120	50.3260
 1.2130	50.3450
 1.2140	50.3630
 1.2150	50.3840
 1.2160	50.4070
 1.2170	50.4310
 1.2180	50.4560
 1.2190	50.4820
 1.2200	50.5080
 1.2210	50.5310
 1.2220	50.5570
 1.2230	50.5840
 1.2240	50.6090
 1.2250	50.6340
 1.2260	50.6590
 1.2270	50.6810
 1.2280	50.7040
 1.2290	50.7270
 1.2300	50.7450
 1.2310	50.7640
 1.2320	50.7860
 1.2330	50.8060
 1.2340	50.8250
 1.2350	50.8450
 1.2360	50.8630
 1.2370	50.8790
 1.2380	50.8940
 1.2390	50.9120
 1.2400	50.9250
 1.2410	50.9390
 1.2420	50.9520
 1.2430	50.9630
 1.2440	50.9770
 1.2450	50.9910
 1.2460	51.0040
 1.2470	51.0140
 1.2480	51.0230
 1.2490	51.0290
 1.2500	51.0340
 1.2510	51.0420
 1.2520	51.0520
 1.2530	51.0610
 1.2540	51.0670
 1.2550	51.0710
 1.2560	51.0710
 1.2570	51.0700
 1.2580	51.0710
 1.2590	51.0710
 1.2600	51.0710
 1.2610	51.0700
 1.2620	51.0680
 1.2630	51.0650
 1.2640	51.0610
 1.2650	51.0560
 1.2660	51.0530
 1.2670	51.0490
 1.2680	51.0440
 1.2690	51.0390
 1.2700	51.0350
 1.2710	51.0270
 1.2720	51.0200
 1.2730	51.0150
 1.2740	51.0050
 1.2750	50.9960
 1.2760	50.9860
 1.2770	50.9720
 1.2780	50.9570
 1.2790	50.9410
 1.2800	50.9230
 1.2810	50.9050
 1.2820	50.8860
 1.2830	50.8650
 1.2840	50.8400
 1.2850	50.8120
 1.2860	50.7810
 1.2870	50.7500
 1.2880	50.7160
 1.2890	50.6800
 1.2900	50.6420
 1.2910	50.6010
 1.2920	50.5570
 1.2930	50.5130
 1.2940	50.4660
 1.2950	50.4150
 1.2960	50.3590
 1.2970	50.3020
 1.2980	50.2430
 1.2990	50.1820
 1.3000	50.1210
 1.3010	50.0590
 1.3020	49.9940
 1.3030	49.9290
 1.3040	49.8610
 1.3050	49.7900
 1.3060	49.7160
 1.3070	49.6400
 1.3080	49.5630
 1.3090	49.4850
 1.3100	49.4040
 1.3110	49.3220
 1.3120	49.2360
 1.3130	49.1500
 1.3140	49.0630
 1.3150	48.9730
 1.3160	48.8820
 1.3170	48.7910
 1.3180	48.6960
 1.3190	48.5980
 1.3200	48.5000
 1.3210	48.3980
 1.3220	48.2950
 1.3230	48.1910
 1.3240	48.0840
 1.3250	47.9780
 1.3260	47.8700
 1.3270	47.7600
 1.3280	47.6500
 1.3290	47.5360
 1.3300	47.4230
 1.3310	47.3060
 1.3320	47.1870
 1.3330	47.0670
 1.3340	46.9450
 1.3350	46.8240
 1.3360	46.7040
 1.3370	46.5830
 1.3380	46.4640
 1.3390	46.3450
 1.3400	46.2240
 1.3410	46.1060
 1.3420	45.9870
 1.3430	45.8690
 1.3440	45.7530
 1.3450	45.6370
 1.3460	45.5200
 1.3470	45.4060
 1.3480	45.2910
 1.3490	45.1790
 1.3500	45.0690
 1.3510	44.9590
 1.3520	44.8480
 1.3530	44.7380
 1.3540	44.6270
 1.3550	44.5150
 1.3560	44.4030
 1.3570	44.2880
 1.3580	44.1730
 1.3590	44.0540
 1.3600	43.9320
 1.3610	43.8070
 1.3620	43.6770
 1.3630	43.5440
 1.3640	43.4040
 1.3650	43.2570
 1.3660	43.1030
 1.3670	42.9400
 1.3680	42.7680
 1.3690	42.5850
 1.3700	42.3900
 1.3710	42.1840
 1.3720	41.9630
 1.3730	41.7260
 1.3740	41.4750
 1.3750	41.2080
 1.3760	40.9200
 1.3770	40.6130
 1.3780	40.2820
 1.3790	39.9290
 1.3800	39.5560
 1.3810	39.1600
 1.3820	38.7470
 1.3830	38.3150
 1.3840	37.8680
 1.3850	37.4020
 1.3860	36.9250
 1.3870	36.4290
 1.3880	35.9290
 1.3890	35.4180
 1.3900	34.8980
 1.3910	34.3800
 1.3920	33.8580
 1.3930	33.3330
 1.3940	32.8120
 1.3950	32.2900
 1.3960	31.7750
 1.3970	31.2710
 1.3980	30.7760
 1.3990	30.3010
 1.4000	29.8390
 1.4010	29.3900
 1.4020	28.9620
 1.4030	28.5480
 1.4040	28.1530
 1.4050	27.7800
 1.4060	27.4270
 1.4070	27.0960
 1.4080	26.7850
 1.4090	26.4920
 1.4100	26.2190
 1.4110	25.9640
 1.4120	25.7280
 1.4130	25.5090
 1.4140	25.3060
 1.4150	25.1220
 1.4160	24.9540
 1.4170	24.7990
 1.4180	24.6580
 1.4190	24.5280
 1.4200	24.4090
 1.4210	24.3010
 1.4220	24.2040
 1.4230	24.1180
 1.4240	24.0400
 1.4250	23.9700
 1.4260	23.9080
 1.4270	23.8530
 1.4280	23.8040
 1.4290	23.7620
 1.4300	23.7270
 1.4310	23.6960
 1.4320	23.6730
 1.4330	23.6530
 1.4340	23.6380
 1.4350	23.6280
 1.4360	23.6220
 1.4370	23.6190
 1.4380	23.6200
 1.4390	23.6240
 1.4400	23.6310
 1.4410	23.6400
 1.4420	23.6520
 1.4430	23.6670
 1.4440	23.6830
 1.4450	23.7010
 1.4460	23.7200
 1.4470	23.7410
 1.4480	23.7630
 1.4490	23.7860
 1.4500	23.8110
 1.4510	23.8370
 1.4520	23.8640
 1.4530	23.8920
 1.4540	23.9210
 1.4550	23.9530
 1.4560	23.9850
 1.4570	24.0200
 1.4580	24.0580
 1.4590	24.0990
 1.4600	24.1440
 1.4610	24.1910
 1.4620	24.2430
 1.4630	24.2980
 1.4640	24.3580
 1.4650	24.4220
 1.4660	24.4900
 1.4670	24.5620
 1.4680	24.6400
 1.4690	24.7210
 1.4700	24.8060
 1.4710	24.8950
 1.4720	24.9880
 1.4730	25.0840
 1.4740	25.1850
 1.4750	25.2880
 1.4760	25.3940
 1.4770	25.5010
