Name: Ceanothus megacarpus 1
Type: vegetation
Class: Shrub
Genus: Ceanothus
Species: megacarpus
Sample No.: VH019
Owner: UCSB
Wavelength Range: TIR
Origin: 34.4908; -119.7914; WGS84
Collection Date: 4/1/2013
Description: Samples were collected as part of the HyspIRI Airborne Campaign. 48 individual plants were sampled in three times in 2013 - spring  summer  and fall. The name of the sample includes a 1  2  or 3 which references a different individual of the species. Samples were taken to JPL and processed within 48 hours of collection. The same leaves were processed in the Nicolet and then measured using the ASD.
Measurement: Hemispherical reflectance
First Column: X
Second Column: Y
X Units: Wavelength (micrometers)
Y Units: Reflectance (percentage)
First X Value: 2.501
Last X Value: 15.387
Number of X Values: 1737
Additional Information: vegetation.shrub.ceanothus.megacarpus.tir.vh019.ucsb.nicolet.ancillary.txt

 2.5010	 9.7280
 2.5030	 9.6480
 2.5040	 9.6620
 2.5050	 9.7430
 2.5060	 9.7000
 2.5070	 9.6170
 2.5090	 9.7030
 2.5100	 9.7430
 2.5110	 9.8040
 2.5120	 9.7330
 2.5140	 9.7510
 2.5150	 9.7190
 2.5160	 9.7250
 2.5170	 9.6500
 2.5180	 9.6340
 2.5200	 9.5690
 2.5210	 9.5990
 2.5220	 9.5700
 2.5230	 9.7150
 2.5250	 9.7220
 2.5260	 9.6390
 2.5270	 9.5420
 2.5280	 9.5910
 2.5290	 9.6290
 2.5310	 9.6090
 2.5320	 9.6170
 2.5330	 9.7930
 2.5340	 9.7460
 2.5360	 9.6770
 2.5370	 9.7490
 2.5380	 9.8850
 2.5390	 9.8350
 2.5410	 9.7200
 2.5420	 9.6260
 2.5430	 9.6740
 2.5440	 9.7150
 2.5460	 9.7800
 2.5470	 9.7920
 2.5480	 9.8090
 2.5490	 9.8070
 2.5510	 9.7960
 2.5520	 9.7410
 2.5530	 9.7120
 2.5540	 9.5850
 2.5560	 9.7500
 2.5570	 9.8230
 2.5580	 9.6850
 2.5590	 9.5900
 2.5610	 9.5500
 2.5620	 9.5090
 2.5630	 9.7210
 2.5640	 9.8570
 2.5660	 9.8380
 2.5670	 9.6710
 2.5680	 9.6830
 2.5700	 9.7730
 2.5710	 9.7010
 2.5720	 9.6060
 2.5730	 9.6930
 2.5750	 9.6520
 2.5760	 9.7050
 2.5770	 9.7430
 2.5790	 9.8140
 2.5800	 9.7750
 2.5810	 9.7640
 2.5820	 9.7140
 2.5840	 9.7490
 2.5850	 9.6480
 2.5860	 9.5700
 2.5880	 9.4810
 2.5890	 9.6820
 2.5900	 9.8230
 2.5910	 9.8620
 2.5930	 9.9630
 2.5940	10.0600
 2.5950	 9.9300
 2.5970	 9.6670
 2.5980	 9.5960
 2.5990	 9.7210
 2.6000	 9.7130
 2.6020	 9.7890
 2.6030	 9.7910
 2.6040	 9.7010
 2.6060	 9.6770
 2.6070	 9.7180
 2.6080	 9.5830
 2.6100	 9.6740
 2.6110	 9.8280
 2.6120	 9.7840
 2.6140	 9.5680
 2.6150	 9.5740
 2.6160	 9.7060
 2.6180	 9.7720
 2.6190	 9.6160
 2.6200	 9.5370
 2.6220	 9.5360
 2.6230	 9.6240
 2.6240	 9.7580
 2.6260	 9.8650
 2.6270	 9.7290
 2.6280	 9.5820
 2.6300	 9.6320
 2.6310	 9.6560
 2.6320	 9.5650
 2.6340	 9.5210
 2.6350	 9.4310
 2.6360	 9.4730
 2.6380	 9.4440
 2.6390	 9.5130
 2.6400	 9.5750
 2.6420	 9.5950
 2.6430	 9.4890
 2.6440	 9.5020
 2.6460	 9.6230
 2.6470	 9.5880
 2.6480	 9.4600
 2.6500	 9.4320
 2.6510	 9.3260
 2.6520	 9.4240
 2.6540	 9.6310
 2.6550	 9.7780
 2.6560	 9.5770
 2.6580	 9.5570
 2.6590	 9.6840
 2.6610	 9.6130
 2.6620	 9.4610
 2.6630	 9.5590
 2.6650	 9.5130
 2.6660	 9.4220
 2.6670	 9.4480
 2.6690	 9.5200
 2.6700	 9.5040
 2.6720	 9.4860
 2.6730	 9.5100
 2.6740	 9.6460
 2.6760	 9.6300
 2.6770	 9.6620
 2.6780	 9.6040
 2.6800	 9.5160
 2.6810	 9.4270
 2.6830	 9.4520
 2.6840	 9.5520
 2.6850	 9.6060
 2.6870	 9.5070
 2.6880	 9.5130
 2.6900	 9.5160
 2.6910	 9.4890
 2.6920	 9.5740
 2.6940	 9.7610
 2.6950	 9.7110
 2.6970	 9.6370
 2.6980	 9.5330
 2.6990	 9.4920
 2.7010	 9.3800
 2.7020	 9.4600
 2.7040	 9.4340
 2.7050	 9.3610
 2.7060	 9.3410
 2.7080	 9.4780
 2.7090	 9.4790
 2.7110	 9.4100
 2.7120	 9.2150
 2.7130	 9.4110
 2.7150	 9.4550
 2.7160	 9.4020
 2.7180	 9.4030
 2.7190	 9.5150
 2.7210	 9.3590
 2.7220	 9.1360
 2.7230	 9.2000
 2.7250	 9.5270
 2.7260	 9.5830
 2.7280	 9.4360
 2.7290	 9.3660
 2.7310	 9.4740
 2.7320	 9.3700
 2.7330	 9.2660
 2.7350	 9.2220
 2.7360	 9.2940
 2.7380	 9.3150
 2.7390	 9.4330
 2.7410	 9.3920
 2.7420	 9.5060
 2.7440	 9.6440
 2.7450	 9.4820
 2.7470	 9.2300
 2.7480	 9.2800
 2.7490	 9.4180
 2.7510	 9.5000
 2.7520	 9.4040
 2.7540	 9.4380
 2.7550	 9.5750
 2.7570	 9.5090
 2.7580	 9.2880
 2.7600	 9.2510
 2.7610	 9.2490
 2.7630	 9.0750
 2.7640	 8.9850
 2.7660	 9.1190
 2.7670	 9.2410
 2.7680	 9.3600
 2.7700	 9.3050
 2.7710	 9.3640
 2.7730	 9.3920
 2.7740	 9.3140
 2.7760	 9.1600
 2.7770	 9.2130
 2.7790	 9.3210
 2.7800	 9.4170
 2.7820	 9.3820
 2.7830	 9.3080
 2.7850	 9.1740
 2.7860	 9.1410
 2.7880	 9.2280
 2.7890	 9.3400
 2.7910	 9.3350
 2.7920	 9.2750
 2.7940	 9.2300
 2.7950	 9.2880
 2.7970	 9.1440
 2.7980	 9.0580
 2.8000	 9.2620
 2.8010	 9.3440
 2.8030	 9.2000
 2.8040	 9.3520
 2.8060	 9.4730
 2.8070	 9.4880
 2.8090	 9.3590
 2.8110	 9.3690
 2.8120	 9.3470
 2.8140	 9.3400
 2.8150	 9.3500
 2.8170	 9.2620
 2.8180	 9.2180
 2.8200	 9.2670
 2.8210	 9.1040
 2.8230	 9.1840
 2.8240	 9.2160
 2.8260	 9.1470
 2.8270	 9.1020
 2.8290	 9.2670
 2.8300	 9.2140
 2.8320	 9.1660
 2.8340	 9.1910
 2.8350	 9.2540
 2.8370	 9.2680
 2.8380	 9.2870
 2.8400	 9.2140
 2.8410	 9.3200
 2.8430	 9.3120
 2.8440	 9.3390
 2.8460	 9.3590
 2.8480	 9.3600
 2.8490	 9.2360
 2.8510	 9.2410
 2.8520	 9.2630
 2.8540	 9.2580
 2.8550	 9.2340
 2.8570	 9.2780
 2.8590	 9.2120
 2.8600	 9.2010
 2.8620	 9.1550
 2.8630	 9.0960
 2.8650	 8.9870
 2.8660	 9.1390
 2.8680	 9.3340
 2.8700	 9.2790
 2.8710	 9.1560
 2.8730	 9.1860
 2.8740	 9.2710
 2.8760	 9.2590
 2.8780	 9.1850
 2.8790	 9.2150
 2.8810	 9.2450
 2.8820	 9.2920
 2.8840	 9.2010
 2.8860	 9.2730
 2.8870	 9.1980
 2.8890	 9.3390
 2.8900	 9.4120
 2.8920	 9.3750
 2.8940	 9.3150
 2.8950	 9.4060
 2.8970	 9.3040
 2.8980	 9.2380
 2.9000	 9.1620
 2.9020	 9.2630
 2.9030	 9.2990
 2.9050	 9.3780
 2.9070	 9.2910
 2.9080	 9.2340
 2.9100	 9.1340
 2.9120	 9.1600
 2.9130	 9.1420
 2.9150	 9.1850
 2.9160	 9.2060
 2.9180	 9.2570
 2.9200	 9.4230
 2.9210	 9.6690
 2.9230	 9.4690
 2.9250	 9.4530
 2.9260	 9.4900
 2.9280	 9.3550
 2.9300	 9.1790
 2.9310	 9.2530
 2.9330	 9.2620
 2.9350	 9.2430
 2.9360	 9.3520
 2.9380	 9.4940
 2.9400	 9.4610
 2.9410	 9.3610
 2.9430	 9.3160
 2.9450	 9.5070
 2.9460	 9.7210
 2.9480	 9.5630
 2.9500	 9.3900
 2.9510	 9.2680
 2.9530	 9.2450
 2.9550	 9.1960
 2.9560	 9.2980
 2.9580	 9.2060
 2.9600	 9.1550
 2.9610	 9.2770
 2.9630	 9.2140
 2.9650	 9.4910
 2.9660	 9.5130
 2.9680	 9.4380
 2.9700	 9.2510
 2.9720	 9.2660
 2.9730	 9.2840
 2.9750	 9.2450
 2.9770	 9.4650
 2.9780	 9.0990
 2.9800	 8.8180
 2.9820	 9.3270
 2.9840	 9.1270
 2.9850	 8.7950
 2.9870	 8.7630
 2.9890	 8.9240
 2.9900	 8.8940
 2.9920	 8.7190
 2.9940	 8.9180
 2.9960	 9.6300
 2.9970	 9.3310
 2.9990	 8.8780
 3.0010	 9.0800
 3.0030	 9.3540
 3.0040	 9.3970
 3.0060	 9.3640
 3.0080	 9.1430
 3.0100	 9.2660
 3.0110	 9.7180
 3.0130	 9.8450
 3.0150	 9.3340
 3.0170	 9.4380
 3.0180	 9.5830
 3.0200	 9.7430
 3.0220	 9.8000
 3.0240	 9.5890
 3.0250	 9.8620
 3.0270	10.6650
 3.0290	10.2750
 3.0310	 9.5320
 3.0320	 9.7670
 3.0340	 9.4440
 3.0360	 8.9070
 3.0380	10.0050
 3.0400	10.2560
 3.0410	 9.8390
 3.0430	 9.7840
 3.0450	10.1290
 3.0470	 9.9980
 3.0480	 9.0870
 3.0500	 8.5060
 3.0520	 8.7580
 3.0540	 9.2550
 3.0560	 9.5630
 3.0570	 9.6110
 3.0590	 9.5750
 3.0610	 9.3460
 3.0630	 9.4690
 3.0650	 9.4670
 3.0660	 9.9360
 3.0680	10.1890
 3.0700	 9.8170
 3.0720	 9.3610
 3.0740	 9.2380
 3.0760	 9.0560
 3.0770	 8.9260
 3.0790	 8.9440
 3.0810	 9.0550
 3.0830	 9.1680
 3.0850	 9.4620
 3.0870	 9.6180
 3.0880	 9.5210
 3.0900	 9.4490
 3.0920	 9.5510
 3.0940	 9.3890
 3.0960	 9.3040
 3.0980	 9.5020
 3.0990	 9.3120
 3.1010	 9.3720
 3.1030	 9.7170
 3.1050	 9.4570
 3.1070	 9.4180
 3.1090	 9.5230
 3.1110	 9.5510
 3.1120	 9.3720
 3.1140	 9.2450
 3.1160	 9.1980
 3.1180	 9.3070
 3.1200	 9.4150
 3.1220	 9.3770
 3.1240	 9.2070
 3.1260	 9.3090
 3.1270	 9.2500
 3.1290	 9.2700
 3.1310	 9.1610
 3.1330	 9.1030
 3.1350	 9.4600
 3.1370	 9.5790
 3.1390	 9.4820
 3.1410	 9.8110
 3.1430	 9.6220
 3.1450	 9.5360
 3.1460	 9.9840
 3.1480	 9.9480
 3.1500	 9.7040
 3.1520	 9.4800
 3.1540	 9.2620
 3.1560	 9.1930
 3.1580	 9.1240
 3.1600	 9.2200
 3.1620	 9.6120
 3.1640	10.1850
 3.1660	 9.9460
 3.1680	 9.1910
 3.1700	 8.6480
 3.1710	 8.6630
 3.1730	 9.3630
 3.1750	10.1190
 3.1770	10.2590
 3.1790	 9.7140
 3.1810	 9.4850
 3.1830	 9.3610
 3.1850	 9.4010
 3.1870	 9.2110
 3.1890	 8.8290
 3.1910	 9.1420
 3.1930	 9.3190
 3.1950	 9.3890
 3.1970	 9.2060
 3.1990	 9.1650
 3.2010	 9.2470
 3.2030	 9.5110
 3.2050	 9.5090
 3.2070	 9.3880
 3.2090	 9.4160
 3.2110	 9.4600
 3.2130	 9.3200
 3.2150	 9.2410
 3.2170	 9.3250
 3.2190	 9.4040
 3.2210	 9.2750
 3.2230	 9.2020
 3.2250	 9.2050
 3.2270	 9.2260
 3.2290	 9.3040
 3.2310	 9.3560
 3.2330	 9.2050
 3.2350	 9.2410
 3.2370	 9.2450
 3.2390	 9.1890
 3.2410	 8.9610
 3.2430	 8.8820
 3.2450	 8.9300
 3.2470	 9.1770
 3.2490	 9.3140
 3.2510	 9.2030
 3.2530	 9.1740
 3.2550	 9.1180
 3.2570	 9.1580
 3.2590	 9.1990
 3.2610	 9.1600
 3.2630	 9.2710
 3.2650	 9.2200
 3.2670	 9.2470
 3.2690	 9.3030
 3.2720	 9.3510
 3.2740	 9.2220
 3.2760	 9.1590
 3.2780	 9.1610
 3.2800	 9.2180
 3.2820	 9.2310
 3.2840	 9.1680
 3.2860	 9.2570
 3.2880	 9.3660
 3.2900	 9.2530
 3.2920	 9.0890
 3.2940	 8.9140
 3.2960	 9.0790
 3.2990	 9.2100
 3.3010	 9.2220
 3.3030	 9.2390
 3.3050	 9.2950
 3.3070	 9.2350
 3.3090	 9.2280
 3.3110	 9.2050
 3.3130	 9.2120
 3.3150	 9.1630
 3.3180	 9.0970
 3.3200	 8.9590
 3.3220	 8.9100
 3.3240	 8.8580
 3.3260	 9.0210
 3.3280	 9.0730
 3.3300	 9.0900
 3.3330	 9.0220
 3.3350	 8.9580
 3.3370	 8.8920
 3.3390	 8.8970
 3.3410	 8.9400
 3.3430	 8.9420
 3.3450	 8.8000
 3.3480	 8.7670
 3.3500	 8.8130
 3.3520	 8.8260
 3.3540	 8.8230
 3.3560	 8.8850
 3.3580	 8.8120
 3.3610	 8.7980
 3.3630	 8.6900
 3.3650	 8.6120
 3.3670	 8.5390
 3.3690	 8.6220
 3.3720	 8.7300
 3.3740	 8.7610
 3.3760	 8.7850
 3.3780	 8.9560
 3.3800	 9.0090
 3.3830	 9.0260
 3.3850	 8.8930
 3.3870	 8.8680
 3.3890	 8.7840
 3.3910	 8.6840
 3.3940	 8.6940
 3.3960	 8.7880
 3.3980	 8.6660
 3.4000	 8.5870
 3.4020	 8.6970
 3.4050	 8.9140
 3.4070	 9.0000
 3.4090	 9.2450
 3.4110	 9.5510
 3.4140	 9.8750
 3.4160	10.3060
 3.4180	10.9250
 3.4200	11.7670
 3.4230	12.8120
 3.4250	13.8750
 3.4270	14.8860
 3.4290	15.3890
 3.4320	14.8830
 3.4340	13.6640
 3.4360	12.6390
 3.4390	12.0290
 3.4410	11.6900
 3.4430	11.3330
 3.4450	11.0930
 3.4480	10.9960
 3.4500	10.8400
 3.4520	10.7680
 3.4550	10.7270
 3.4570	10.5700
 3.4590	10.4630
 3.4620	10.4490
 3.4640	10.4570
 3.4660	10.4140
 3.4680	10.3290
 3.4710	10.1820
 3.4730	10.0880
 3.4750	 9.9530
 3.4780	 9.9040
 3.4800	 9.8320
 3.4820	 9.7970
 3.4850	 9.6740
 3.4870	 9.6710
 3.4890	 9.6610
 3.4920	 9.5520
 3.4940	 9.4390
 3.4970	 9.5020
 3.4990	 9.6500
 3.5010	 9.9280
 3.5040	10.3970
 3.5060	11.4400
 3.5080	13.0460
 3.5110	14.4130
 3.5130	14.2490
 3.5160	13.0530
 3.5180	12.0470
 3.5200	11.4900
 3.5230	11.1790
 3.5250	10.9640
 3.5270	10.7480
 3.5300	10.7170
 3.5320	10.6070
 3.5350	10.5210
 3.5370	10.4350
 3.5400	10.2690
 3.5420	10.2000
 3.5440	10.2960
 3.5470	10.1790
 3.5490	10.1360
 3.5520	10.2040
 3.5540	10.1660
 3.5570	10.1460
 3.5590	10.0770
 3.5610	 9.9320
 3.5640	10.0240
 3.5660	10.0290
 3.5690	10.1040
 3.5710	10.1450
 3.5740	10.0270
 3.5760	 9.9090
 3.5790	 9.8120
 3.5810	 9.8680
 3.5840	10.0740
 3.5860	 9.9780
 3.5890	 9.8300
 3.5910	 9.8770
 3.5930	 9.8210
 3.5960	 9.6160
 3.5980	 9.7420
 3.6010	 9.8780
 3.6030	 9.8290
 3.6060	 9.7370
 3.6080	 9.8290
 3.6110	 9.8380
 3.6140	 9.8270
 3.6160	 9.8200
 3.6190	 9.8490
 3.6210	 9.8600
 3.6240	 9.8740
 3.6260	 9.8400
 3.6290	 9.8170
 3.6310	 9.7470
 3.6340	 9.7580
 3.6360	 9.8870
 3.6390	 9.8570
 3.6410	 9.7950
 3.6440	 9.8080
 3.6470	 9.7640
 3.6490	 9.7870
 3.6520	 9.7940
 3.6540	 9.8310
 3.6570	 9.7870
 3.6590	 9.6960
 3.6620	 9.6480
 3.6650	 9.6140
 3.6670	 9.5220
 3.6700	 9.5770
 3.6720	 9.6720
 3.6750	 9.7020
 3.6780	 9.7480
 3.6800	 9.7450
 3.6830	 9.6700
 3.6850	 9.7230
 3.6880	 9.7380
 3.6910	 9.6610
 3.6930	 9.5500
 3.6960	 9.5340
 3.6990	 9.5910
 3.7010	 9.6890
 3.7040	 9.6890
 3.7060	 9.5780
 3.7090	 9.5670
 3.7120	 9.7010
 3.7140	 9.6740
 3.7170	 9.5980
 3.7200	 9.6300
 3.7220	 9.6640
 3.7250	 9.6250
 3.7280	 9.6330
 3.7300	 9.5910
 3.7330	 9.5260
 3.7360	 9.4800
 3.7390	 9.6650
 3.7410	 9.7420
 3.7440	 9.7680
 3.7470	 9.6540
 3.7490	 9.6040
 3.7520	 9.6380
 3.7550	 9.7000
 3.7580	 9.5980
 3.7600	 9.5810
 3.7630	 9.6240
 3.7660	 9.6630
 3.7680	 9.6910
 3.7710	 9.6770
 3.7740	 9.5810
 3.7770	 9.6190
 3.7790	 9.6690
 3.7820	 9.7340
 3.7850	 9.7310
 3.7880	 9.6470
 3.7900	 9.6370
 3.7930	 9.6820
 3.7960	 9.6520
 3.7990	 9.6050
 3.8020	 9.5920
 3.8040	 9.6550
 3.8070	 9.6350
 3.8100	 9.6560
 3.8130	 9.6900
 3.8160	 9.7070
 3.8180	 9.6710
 3.8210	 9.7030
 3.8240	 9.6580
 3.8270	 9.6620
 3.8300	 9.6250
 3.8330	 9.6440
 3.8350	 9.6800
 3.8380	 9.6810
 3.8410	 9.5700
 3.8440	 9.5920
 3.8470	 9.6680
 3.8500	 9.7470
 3.8520	 9.7610
 3.8550	 9.6780
 3.8580	 9.5920
 3.8610	 9.5860
 3.8640	 9.5730
 3.8670	 9.7010
 3.8700	 9.7230
 3.8730	 9.7020
 3.8750	 9.6780
 3.8780	 9.7180
 3.8810	 9.6990
 3.8840	 9.6210
 3.8870	 9.5670
 3.8900	 9.6380
 3.8930	 9.6360
 3.8960	 9.6630
 3.8990	 9.7120
 3.9020	 9.6840
 3.9050	 9.5970
 3.9080	 9.6150
 3.9110	 9.6660
 3.9140	 9.6400
 3.9160	 9.6430
 3.9190	 9.7120
 3.9220	 9.7400
 3.9250	 9.7270
 3.9280	 9.6970
 3.9310	 9.7480
 3.9340	 9.7190
 3.9370	 9.7050
 3.9400	 9.7150
 3.9430	 9.6900
 3.9460	 9.6180
 3.9490	 9.6530
 3.9520	 9.6490
 3.9550	 9.6150
 3.9580	 9.6320
 3.9610	 9.6930
 3.9640	 9.6610
 3.9670	 9.6790
 3.9700	 9.6990
 3.9730	 9.6960
 3.9770	 9.7400
 3.9800	 9.7920
 3.9830	 9.7040
 3.9860	 9.6890
 3.9890	 9.6260
 3.9920	 9.5800
 3.9950	 9.6430
 3.9980	 9.7410
 4.0010	 9.7240
 4.0040	 9.6830
 4.0070	 9.6590
 4.0100	 9.6740
 4.0130	 9.7190
 4.0170	 9.6880
 4.0200	 9.6090
 4.0230	 9.6260
 4.0260	 9.6410
 4.0290	 9.6090
 4.0320	 9.6080
 4.0350	 9.6550
 4.0380	 9.6710
 4.0420	 9.6430
 4.0450	 9.6340
 4.0480	 9.6890
 4.0510	 9.8210
 4.0540	 9.8610
 4.0570	 9.7570
 4.0610	 9.6260
 4.0640	 9.6350
 4.0670	 9.6370
 4.0700	 9.6650
 4.0730	 9.7400
 4.0770	 9.6490
 4.0800	 9.6300
 4.0830	 9.7420
 4.0860	 9.7530
 4.0890	 9.6730
 4.0930	 9.6970
 4.0960	 9.7290
 4.0990	 9.6750
 4.1020	 9.5740
 4.1060	 9.5450
 4.1090	 9.5930
 4.1120	 9.6530
 4.1150	 9.6590
 4.1190	 9.6860
 4.1220	 9.7070
 4.1250	 9.7200
 4.1280	 9.6370
 4.1320	 9.6410
 4.1350	 9.6570
 4.1380	 9.6060
 4.1420	 9.5870
 4.1450	 9.6740
 4.1480	 9.7150
 4.1520	 9.6730
 4.1550	 9.5910
 4.1580	 9.5880
 4.1620	 9.6030
 4.1650	 9.6230
 4.1680	 9.6220
 4.1720	 9.6050
 4.1750	 9.6230
 4.1780	 9.7030
 4.1820	 9.6970
 4.1850	 9.6390
 4.1890	 9.6840
 4.1920	 9.6660
 4.1950	 9.5380
 4.1990	 9.4780
 4.2020	 9.5320
 4.2060	 9.4630
 4.2090	 9.4090
 4.2120	 9.4810
 4.2160	 9.5080
 4.2190	 9.4560
 4.2230	 9.2650
 4.2260	 9.2470
 4.2300	 9.4910
 4.2330	 9.3460
 4.2360	 9.2970
 4.2400	 9.1850
 4.2430	 8.7720
 4.2470	 8.9260
 4.2500	 9.0420
 4.2540	 9.1270
 4.2570	 9.3100
 4.2610	 9.4780
 4.2640	 9.3520
 4.2680	 9.2170
 4.2710	 9.2510
 4.2750	 9.2980
 4.2780	 9.2550
 4.2820	 9.3110
 4.2850	 9.2020
 4.2890	 9.2220
 4.2930	 9.2930
 4.2960	 9.1800
 4.3000	 9.2160
 4.3030	 9.2920
 4.3070	 9.3520
 4.3100	 9.3560
 4.3140	 9.3600
 4.3180	 9.5030
 4.3210	 9.4400
 4.3250	 9.4220
 4.3280	 9.4580
 4.3320	 9.4960
 4.3360	 9.4620
 4.3390	 9.4850
 4.3430	 9.5440
 4.3470	 9.5590
 4.3500	 9.5110
 4.3540	 9.4970
 4.3570	 9.4920
 4.3610	 9.5250
 4.3650	 9.4970
 4.3680	 9.4660
 4.3720	 9.5070
 4.3760	 9.5930
 4.3800	 9.5760
 4.3830	 9.5380
 4.3870	 9.6060
 4.3910	 9.6160
 4.3940	 9.6500
 4.3980	 9.6520
 4.4020	 9.6010
 4.4060	 9.6190
 4.4090	 9.5810
 4.4130	 9.5550
 4.4170	 9.4800
 4.4210	 9.5340
 4.4240	 9.5500
 4.4280	 9.5700
 4.4320	 9.6330
 4.4360	 9.5760
 4.4400	 9.5340
 4.4430	 9.5680
 4.4470	 9.5790
 4.4510	 9.5280
 4.4550	 9.5560
 4.4590	 9.6000
 4.4620	 9.5910
 4.4660	 9.5970
 4.4700	 9.6130
 4.4740	 9.6510
 4.4780	 9.6380
 4.4820	 9.6580
 4.4860	 9.6350
 4.4900	 9.6120
 4.4930	 9.5440
 4.4970	 9.5410
 4.5010	 9.5190
 4.5050	 9.5220
 4.5090	 9.5540
 4.5130	 9.5390
 4.5170	 9.5040
 4.5210	 9.6180
 4.5250	 9.7650
 4.5290	 9.7270
 4.5330	 9.6160
 4.5370	 9.5590
 4.5410	 9.5630
 4.5450	 9.6030
 4.5490	 9.6050
 4.5530	 9.5810
 4.5570	 9.5470
 4.5610	 9.5120
 4.5650	 9.5150
 4.5690	 9.5370
 4.5730	 9.5190
 4.5770	 9.5170
 4.5810	 9.5470
 4.5850	 9.5550
 4.5890	 9.6170
 4.5930	 9.6060
 4.5970	 9.5070
 4.6010	 9.5700
 4.6050	 9.5840
 4.6090	 9.5230
 4.6130	 9.5680
 4.6170	 9.5630
 4.6220	 9.5070
 4.6260	 9.4360
 4.6300	 9.4200
 4.6340	 9.4680
 4.6380	 9.4980
 4.6420	 9.5220
 4.6460	 9.5460
 4.6510	 9.5790
 4.6550	 9.5460
 4.6590	 9.5430
 4.6630	 9.5320
 4.6670	 9.6090
 4.6720	 9.7200
 4.6760	 9.7460
 4.6800	 9.6710
 4.6840	 9.5940
 4.6880	 9.5130
 4.6930	 9.4900
 4.6970	 9.5690
 4.7010	 9.5970
 4.7050	 9.5080
 4.7100	 9.4840
 4.7140	 9.5030
 4.7180	 9.5980
 4.7230	 9.6180
 4.7270	 9.5360
 4.7310	 9.4810
 4.7360	 9.4620
 4.7400	 9.5150
 4.7440	 9.5510
 4.7490	 9.4950
 4.7530	 9.4150
 4.7570	 9.4680
 4.7620	 9.5270
 4.7660	 9.5260
 4.7700	 9.4660
 4.7750	 9.4580
 4.7790	 9.5080
 4.7840	 9.5160
 4.7880	 9.5480
 4.7920	 9.5510
 4.7970	 9.5600
 4.8010	 9.5610
 4.8060	 9.5770
 4.8100	 9.5740
 4.8150	 9.5270
 4.8190	 9.5010
 4.8240	 9.5720
 4.8280	 9.5970
 4.8330	 9.5870
 4.8370	 9.5580
 4.8420	 9.4910
 4.8460	 9.5070
 4.8510	 9.5130
 4.8550	 9.5570
 4.8600	 9.5480
 4.8640	 9.4740
 4.8690	 9.4970
 4.8730	 9.5330
 4.8780	 9.4570
 4.8830	 9.4350
 4.8870	 9.4540
 4.8920	 9.5460
 4.8960	 9.5290
 4.9010	 9.4600
 4.9060	 9.5150
 4.9100	 9.5080
 4.9150	 9.4290
 4.9200	 9.4790
 4.9240	 9.4780
 4.9290	 9.4670
 4.9340	 9.5250
 4.9380	 9.5490
 4.9430	 9.4950
 4.9480	 9.4840
 4.9530	 9.5770
 4.9570	 9.6020
 4.9620	 9.5500
 4.9670	 9.5390
 4.9720	 9.4840
 4.9760	 9.5470
 4.9810	 9.5950
 4.9860	 9.5810
 4.9910	 9.5400
 4.9960	 9.4880
 5.0000	 9.4490
 5.0050	 9.4690
 5.0100	 9.4720
 5.0150	 9.4190
 5.0200	 9.4080
 5.0250	 9.4340
 5.0290	 9.4440
 5.0340	 9.4720
 5.0390	 9.5570
 5.0440	 9.5800
 5.0490	 9.5490
 5.0540	 9.5620
 5.0590	 9.5220
 5.0640	 9.5090
 5.0690	 9.5080
 5.0740	 9.5150
 5.0790	 9.4910
 5.0840	 9.4160
 5.0890	 9.3670
 5.0940	 9.3660
 5.0990	 9.3940
 5.1040	 9.4500
 5.1090	 9.5050
 5.1140	 9.5300
 5.1190	 9.4470
 5.1240	 9.4270
 5.1290	 9.4820
 5.1340	 9.4960
 5.1390	 9.4500
 5.1440	 9.4360
 5.1490	 9.4540
 5.1540	 9.5090
 5.1600	 9.5430
 5.1650	 9.5440
 5.1700	 9.4670
 5.1750	 9.4250
 5.1800	 9.4310
 5.1850	 9.4960
 5.1910	 9.4690
 5.1960	 9.4240
 5.2010	 9.3940
 5.2060	 9.4030
 5.2110	 9.4230
 5.2170	 9.5010
 5.2220	 9.4530
 5.2270	 9.4530
 5.2320	 9.4530
 5.2380	 9.4590
 5.2430	 9.4340
 5.2480	 9.4270
 5.2540	 9.5220
 5.2590	 9.4900
 5.2640	 9.3160
 5.2700	 9.3770
 5.2750	 9.4400
 5.2800	 9.4550
 5.2860	 9.4400
 5.2910	 9.3920
 5.2970	 9.3930
 5.3020	 9.4180
 5.3070	 9.3720
 5.3130	 9.4120
 5.3180	 9.4190
 5.3240	 9.3400
 5.3290	 9.3090
 5.3350	 9.3730
 5.3400	 9.4320
 5.3460	 9.4820
 5.3510	 9.4450
 5.3570	 9.4080
 5.3620	 9.3420
 5.3680	 9.3210
 5.3730	 9.2920
 5.3790	 9.3690
 5.3850	 9.4450
 5.3900	 9.4090
 5.3960	 9.4050
 5.4010	 9.4360
 5.4070	 9.3550
 5.4130	 9.2660
 5.4180	 9.2780
 5.4240	 9.3640
 5.4300	 9.3500
 5.4350	 9.3590
