Name: Baccharis pilularis 3
Type: vegetation
Class: Shrub
Genus: Baccharis
Species: pilularis
Sample No.: VH102
Owner: UCSB
Wavelength Range: VSWIR
Origin: 34.418; -119.8456; WGS84
Collection Date: 6/3/2013
Description: Samples were collected as part of the HyspIRI Airborne Campaign. 48 individual plants were sampled in three times in 2013 - spring  summer  and fall. The name of the sample includes a 1  2  or 3 which references a different individual of the species. Samples were taken to JPL and processed within 48 hours of collection. The same leaves were processed in the Nicolet and then measured using the ASD.
Measurement: Bidirectional reflectance
First Column: X
Second Column: Y
X Units: Wavelength (micrometers)
Y Units: Reflectance (percentage)
First X Value: 0.35
Last X Value: 2.5
Number of X Values: 2151
Additional Information: vegetation.shrub.baccharis.pilularis.vswir.vh102.ucsb.asd.ancillary.txt

 0.3500	 3.3050
 0.3510	 3.0680
 0.3520	 3.1680
 0.3530	 3.3590
 0.3540	 3.3370
 0.3550	 3.0970
 0.3560	 3.0330
 0.3570	 3.1280
 0.3580	 3.1550
 0.3590	 3.0790
 0.3600	 3.0080
 0.3610	 3.0190
 0.3620	 3.1360
 0.3630	 3.0720
 0.3640	 2.9780
 0.3650	 3.0260
 0.3660	 3.0040
 0.3670	 3.0550
 0.3680	 3.1410
 0.3690	 3.1180
 0.3700	 3.1220
 0.3710	 3.1610
 0.3720	 3.1860
 0.3730	 3.0700
 0.3740	 3.0480
 0.3750	 3.1300
 0.3760	 3.2260
 0.3770	 3.1650
 0.3780	 3.1170
 0.3790	 3.1330
 0.3800	 3.1460
 0.3810	 3.1200
 0.3820	 3.1110
 0.3830	 3.1570
 0.3840	 3.2420
 0.3850	 3.2360
 0.3860	 3.1810
 0.3870	 3.1750
 0.3880	 3.2370
 0.3890	 3.2780
 0.3900	 3.2600
 0.3910	 3.2080
 0.3920	 3.2450
 0.3930	 3.3120
 0.3940	 3.3450
 0.3950	 3.3730
 0.3960	 3.3860
 0.3970	 3.3820
 0.3980	 3.3640
 0.3990	 3.3970
 0.4000	 3.4460
 0.4010	 3.4790
 0.4020	 3.4770
 0.4030	 3.5180
 0.4040	 3.5610
 0.4050	 3.5650
 0.4060	 3.6100
 0.4070	 3.6420
 0.4080	 3.6690
 0.4090	 3.7310
 0.4100	 3.7550
 0.4110	 3.7800
 0.4120	 3.8300
 0.4130	 3.8660
 0.4140	 3.9020
 0.4150	 3.9360
 0.4160	 3.9670
 0.4170	 3.9930
 0.4180	 4.0300
 0.4190	 4.0750
 0.4200	 4.1130
 0.4210	 4.1670
 0.4220	 4.2170
 0.4230	 4.2500
 0.4240	 4.2820
 0.4250	 4.3180
 0.4260	 4.3570
 0.4270	 4.3910
 0.4280	 4.4260
 0.4290	 4.4600
 0.4300	 4.4920
 0.4310	 4.5160
 0.4320	 4.5610
 0.4330	 4.6050
 0.4340	 4.6220
 0.4350	 4.6500
 0.4360	 4.6820
 0.4370	 4.7110
 0.4380	 4.7330
 0.4390	 4.7570
 0.4400	 4.7840
 0.4410	 4.8120
 0.4420	 4.8310
 0.4430	 4.8470
 0.4440	 4.8670
 0.4450	 4.8950
 0.4460	 4.9280
 0.4470	 4.9650
 0.4480	 4.9990
 0.4490	 5.0180
 0.4500	 5.0410
 0.4510	 5.0670
 0.4520	 5.0910
 0.4530	 5.1200
 0.4540	 5.1460
 0.4550	 5.1630
 0.4560	 5.1730
 0.4570	 5.1820
 0.4580	 5.2030
 0.4590	 5.2340
 0.4600	 5.2340
 0.4610	 5.2380
 0.4620	 5.2550
 0.4630	 5.2830
 0.4640	 5.2900
 0.4650	 5.2930
 0.4660	 5.2980
 0.4670	 5.3010
 0.4680	 5.3040
 0.4690	 5.3100
 0.4700	 5.3220
 0.4710	 5.3360
 0.4720	 5.3440
 0.4730	 5.3490
 0.4740	 5.3560
 0.4750	 5.3640
 0.4760	 5.3680
 0.4770	 5.3740
 0.4780	 5.3950
 0.4790	 5.4020
 0.4800	 5.3970
 0.4810	 5.3940
 0.4820	 5.4110
 0.4830	 5.4270
 0.4840	 5.4400
 0.4850	 5.4620
 0.4860	 5.4830
 0.4870	 5.5030
 0.4880	 5.5250
 0.4890	 5.5420
 0.4900	 5.5680
 0.4910	 5.5950
 0.4920	 5.6110
 0.4930	 5.6410
 0.4940	 5.6810
 0.4950	 5.7230
 0.4960	 5.7630
 0.4970	 5.8000
 0.4980	 5.8440
 0.4990	 5.9030
 0.5000	 5.9570
 0.5010	 6.0210
 0.5020	 6.0990
 0.5030	 6.1810
 0.5040	 6.2640
 0.5050	 6.3530
 0.5060	 6.4520
 0.5070	 6.5570
 0.5080	 6.6800
 0.5090	 6.8160
 0.5100	 6.9520
 0.5110	 7.1040
 0.5120	 7.2680
 0.5130	 7.4400
 0.5140	 7.6130
 0.5150	 7.8060
 0.5160	 8.0130
 0.5170	 8.2230
 0.5180	 8.4490
 0.5190	 8.6810
 0.5200	 8.9150
 0.5210	 9.1540
 0.5220	 9.3970
 0.5230	 9.6320
 0.5240	 9.8560
 0.5250	10.0850
 0.5260	10.3080
 0.5270	10.5200
 0.5280	10.7180
 0.5290	10.9050
 0.5300	11.0810
 0.5310	11.2460
 0.5320	11.4050
 0.5330	11.5430
 0.5340	11.6680
 0.5350	11.7900
 0.5360	11.8930
 0.5370	11.9890
 0.5380	12.0810
 0.5390	12.1680
 0.5400	12.2530
 0.5410	12.3330
 0.5420	12.4100
 0.5430	12.4840
 0.5440	12.5540
 0.5450	12.6180
 0.5460	12.6710
 0.5470	12.7120
 0.5480	12.7520
 0.5490	12.7930
 0.5500	12.8240
 0.5510	12.8530
 0.5520	12.8720
 0.5530	12.8760
 0.5540	12.8730
 0.5550	12.8490
 0.5560	12.8070
 0.5570	12.7570
 0.5580	12.6930
 0.5590	12.6200
 0.5600	12.5410
 0.5610	12.4560
 0.5620	12.3650
 0.5630	12.2680
 0.5640	12.1610
 0.5650	12.0490
 0.5660	11.9300
 0.5670	11.8040
 0.5680	11.6720
 0.5690	11.5310
 0.5700	11.3880
 0.5710	11.2450
 0.5720	11.1000
 0.5730	10.9610
 0.5740	10.8310
 0.5750	10.7130
 0.5760	10.6020
 0.5770	10.4930
 0.5780	10.3840
 0.5790	10.2820
 0.5800	10.1890
 0.5810	10.1050
 0.5820	10.0270
 0.5830	 9.9560
 0.5840	 9.8840
 0.5850	 9.8100
 0.5860	 9.7440
 0.5870	 9.6860
 0.5880	 9.6340
 0.5890	 9.5850
 0.5900	 9.5420
 0.5910	 9.5050
 0.5920	 9.4730
 0.5930	 9.4450
 0.5940	 9.4190
 0.5950	 9.3960
 0.5960	 9.3720
 0.5970	 9.3450
 0.5980	 9.3170
 0.5990	 9.2870
 0.6000	 9.2540
 0.6010	 9.2210
 0.6020	 9.1850
 0.6030	 9.1450
 0.6040	 9.0970
 0.6050	 9.0440
 0.6060	 8.9850
 0.6070	 8.9210
 0.6080	 8.8500
 0.6090	 8.7810
 0.6100	 8.7170
 0.6110	 8.6550
 0.6120	 8.5810
 0.6130	 8.4940
 0.6140	 8.4040
 0.6150	 8.3250
 0.6160	 8.2550
 0.6170	 8.1910
 0.6180	 8.1300
 0.6190	 8.0740
 0.6200	 8.0260
 0.6210	 7.9830
 0.6220	 7.9460
 0.6230	 7.9130
 0.6240	 7.8870
 0.6250	 7.8650
 0.6260	 7.8440
 0.6270	 7.8290
 0.6280	 7.8190
 0.6290	 7.8130
 0.6300	 7.8040
 0.6310	 7.7930
 0.6320	 7.7780
 0.6330	 7.7570
 0.6340	 7.7320
 0.6350	 7.6990
 0.6360	 7.6570
 0.6370	 7.6130
 0.6380	 7.5560
 0.6390	 7.4910
 0.6400	 7.4290
 0.6410	 7.3560
 0.6420	 7.2800
 0.6430	 7.2040
 0.6440	 7.1240
 0.6450	 7.0470
 0.6460	 6.9710
 0.6470	 6.8960
 0.6480	 6.8290
 0.6490	 6.7680
 0.6500	 6.7130
 0.6510	 6.6670
 0.6520	 6.6220
 0.6530	 6.5770
 0.6540	 6.5320
 0.6550	 6.4840
 0.6560	 6.4330
 0.6570	 6.3770
 0.6580	 6.3170
 0.6590	 6.2520
 0.6600	 6.1860
 0.6610	 6.1180
 0.6620	 6.0500
 0.6630	 5.9900
 0.6640	 5.9340
 0.6650	 5.8800
 0.6660	 5.8380
 0.6670	 5.8000
 0.6680	 5.7670
 0.6690	 5.7410
 0.6700	 5.7220
 0.6710	 5.7100
 0.6720	 5.7050
 0.6730	 5.7050
 0.6740	 5.7090
 0.6750	 5.7160
 0.6760	 5.7260
 0.6770	 5.7440
 0.6780	 5.7700
 0.6790	 5.8020
 0.6800	 5.8370
 0.6810	 5.8810
 0.6820	 5.9360
 0.6830	 6.0040
 0.6840	 6.0860
 0.6850	 6.1870
 0.6860	 6.3110
 0.6870	 6.4620
 0.6880	 6.6500
 0.6890	 6.8760
 0.6900	 7.1490
 0.6910	 7.4770
 0.6920	 7.8610
 0.6930	 8.3050
 0.6940	 8.8080
 0.6950	 9.3700
 0.6960	 9.9880
 0.6970	10.6560
 0.6980	11.3690
 0.6990	12.1290
 0.7000	12.9270
 0.7010	13.7550
 0.7020	14.6040
 0.7030	15.4700
 0.7040	16.3470
 0.7050	17.2320
 0.7060	18.1240
 0.7070	19.0180
 0.7080	19.9110
 0.7090	20.8030
 0.7100	21.6880
 0.7110	22.5740
 0.7120	23.4590
 0.7130	24.3360
 0.7140	25.2040
 0.7150	26.0670
 0.7160	26.9210
 0.7170	27.7640
 0.7180	28.5970
 0.7190	29.4160
 0.7200	30.2180
 0.7210	31.0050
 0.7220	31.7740
 0.7230	32.5220
 0.7240	33.2450
 0.7250	33.9460
 0.7260	34.6220
 0.7270	35.2690
 0.7280	35.8910
 0.7290	36.4850
 0.7300	37.0520
 0.7310	37.5890
 0.7320	38.0990
 0.7330	38.5830
 0.7340	39.0400
 0.7350	39.4700
 0.7360	39.8760
 0.7370	40.2610
 0.7380	40.6240
 0.7390	40.9590
 0.7400	41.2760
 0.7410	41.5740
 0.7420	41.8500
 0.7430	42.1030
 0.7440	42.3430
 0.7450	42.5710
 0.7460	42.7750
 0.7470	42.9660
 0.7480	43.1420
 0.7490	43.3020
 0.7500	43.4530
 0.7510	43.5900
 0.7520	43.7160
 0.7530	43.8340
 0.7540	43.9430
 0.7550	44.0410
 0.7560	44.1300
 0.7570	44.2150
 0.7580	44.2970
 0.7590	44.3710
 0.7600	44.4380
 0.7610	44.5090
 0.7620	44.5670
 0.7630	44.6180
 0.7640	44.6730
 0.7650	44.7190
 0.7660	44.7660
 0.7670	44.8130
 0.7680	44.8510
 0.7690	44.8900
 0.7700	44.9270
 0.7710	44.9610
 0.7720	44.9970
 0.7730	45.0320
 0.7740	45.0640
 0.7750	45.0940
 0.7760	45.1230
 0.7770	45.1550
 0.7780	45.1900
 0.7790	45.2240
 0.7800	45.2510
 0.7810	45.2810
 0.7820	45.3130
 0.7830	45.3420
 0.7840	45.3690
 0.7850	45.3950
 0.7860	45.4230
 0.7870	45.4560
 0.7880	45.4850
 0.7890	45.5120
 0.7900	45.5400
 0.7910	45.5700
 0.7920	45.5930
 0.7930	45.6140
 0.7940	45.6450
 0.7950	45.6700
 0.7960	45.6950
 0.7970	45.7220
 0.7980	45.7450
 0.7990	45.7670
 0.8000	45.7880
 0.8010	45.8080
 0.8020	45.8310
 0.8030	45.8540
 0.8040	45.8750
 0.8050	45.8960
 0.8060	45.9100
 0.8070	45.9260
 0.8080	45.9460
 0.8090	45.9580
 0.8100	45.9770
 0.8110	45.9980
 0.8120	46.0160
 0.8130	46.0370
 0.8140	46.0480
 0.8150	46.0580
 0.8160	46.0740
 0.8170	46.0930
 0.8180	46.1080
 0.8190	46.1180
 0.8200	46.1270
 0.8210	46.1440
 0.8220	46.1600
 0.8230	46.1710
 0.8240	46.1730
 0.8250	46.1840
 0.8260	46.1930
 0.8270	46.1960
 0.8280	46.2000
 0.8290	46.2120
 0.8300	46.2250
 0.8310	46.2290
 0.8320	46.2310
 0.8330	46.2410
 0.8340	46.2520
 0.8350	46.2560
 0.8360	46.2640
 0.8370	46.2760
 0.8380	46.2900
 0.8390	46.3030
 0.8400	46.3150
 0.8410	46.3270
 0.8420	46.3420
 0.8430	46.3620
 0.8440	46.3720
 0.8450	46.3820
 0.8460	46.4010
 0.8470	46.4130
 0.8480	46.4270
 0.8490	46.4430
 0.8500	46.4560
 0.8510	46.4720
 0.8520	46.4860
 0.8530	46.5010
 0.8540	46.5210
 0.8550	46.5360
 0.8560	46.5500
 0.8570	46.5660
 0.8580	46.5840
 0.8590	46.6020
 0.8600	46.6200
 0.8610	46.6360
 0.8620	46.6450
 0.8630	46.6630
 0.8640	46.6860
 0.8650	46.7040
 0.8660	46.7210
 0.8670	46.7370
 0.8680	46.7530
 0.8690	46.7710
 0.8700	46.7840
 0.8710	46.7990
 0.8720	46.8190
 0.8730	46.8410
 0.8740	46.8580
 0.8750	46.8770
 0.8760	46.9000
 0.8770	46.9200
 0.8780	46.9320
 0.8790	46.9510
 0.8800	46.9770
 0.8810	46.9970
 0.8820	47.0140
 0.8830	47.0360
 0.8840	47.0620
 0.8850	47.0730
 0.8860	47.0880
 0.8870	47.1090
 0.8880	47.1310
 0.8890	47.1550
 0.8900	47.1720
 0.8910	47.1890
 0.8920	47.2130
 0.8930	47.2340
 0.8940	47.2480
 0.8950	47.2590
 0.8960	47.2790
 0.8970	47.3020
 0.8980	47.3230
 0.8990	47.3400
 0.9000	47.3590
 0.9010	47.3760
 0.9020	47.3940
 0.9030	47.4160
 0.9040	47.4360
 0.9050	47.4540
 0.9060	47.4700
 0.9070	47.4860
 0.9080	47.5090
 0.9090	47.5210
 0.9100	47.5320
 0.9110	47.5530
 0.9120	47.5640
 0.9130	47.5750
 0.9140	47.5880
 0.9150	47.6010
 0.9160	47.6150
 0.9170	47.6320
 0.9180	47.6460
 0.9190	47.6530
 0.9200	47.6550
 0.9210	47.6600
 0.9220	47.6670
 0.9230	47.6690
 0.9240	47.6730
 0.9250	47.6610
 0.9260	47.6390
 0.9270	47.6280
 0.9280	47.6240
 0.9290	47.6170
 0.9300	47.6030
 0.9310	47.5880
 0.9320	47.5660
 0.9330	47.5450
 0.9340	47.5240
 0.9350	47.4970
 0.9360	47.4730
 0.9370	47.4460
 0.9380	47.4130
 0.9390	47.3810
 0.9400	47.3420
 0.9410	47.3030
 0.9420	47.2630
 0.9430	47.2150
 0.9440	47.1590
 0.9450	47.1040
 0.9460	47.0520
 0.9470	46.9980
 0.9480	46.9280
 0.9490	46.8450
 0.9500	46.7560
 0.9510	46.6730
 0.9520	46.5790
 0.9530	46.4850
 0.9540	46.3970
 0.9550	46.2970
 0.9560	46.2080
 0.9570	46.1240
 0.9580	46.0360
 0.9590	45.9690
 0.9600	45.9170
 0.9610	45.8660
 0.9620	45.8100
 0.9630	45.7770
 0.9640	45.7460
 0.9650	45.7190
 0.9660	45.7010
 0.9670	45.6840
 0.9680	45.6730
 0.9690	45.6690
 0.9700	45.6710
 0.9710	45.6620
 0.9720	45.6630
 0.9730	45.6690
 0.9740	45.6680
 0.9750	45.6680
 0.9760	45.6770
 0.9770	45.7010
 0.9780	45.7340
 0.9790	45.7380
 0.9800	45.7500
 0.9810	45.7750
 0.9820	45.8020
 0.9830	45.8310
 0.9840	45.8500
 0.9850	45.8710
 0.9860	45.9110
 0.9870	45.9370
 0.9880	45.9750
 0.9890	46.0190
 0.9900	46.0510
 0.9910	46.0980
 0.9920	46.1350
 0.9930	46.1720
 0.9940	46.2090
 0.9950	46.2460
 0.9960	46.2830
 0.9970	46.3200
 0.9980	46.3570
 0.9990	46.3940
 1.0000	46.4310
 1.0010	46.4680
 1.0020	46.5050
 1.0030	46.5420
 1.0040	46.5780
 1.0050	46.6150
 1.0060	46.6520
 1.0070	46.6890
 1.0080	46.7260
 1.0090	46.7630
 1.0100	46.7630
 1.0110	46.8090
 1.0120	46.8580
 1.0130	46.9090
 1.0140	46.9560
 1.0150	47.0020
 1.0160	47.0490
 1.0170	47.0930
 1.0180	47.1360
 1.0190	47.1850
 1.0200	47.2340
 1.0210	47.2780
 1.0220	47.3210
 1.0230	47.3660
 1.0240	47.4120
 1.0250	47.4560
 1.0260	47.5000
 1.0270	47.5440
 1.0280	47.5860
 1.0290	47.6270
 1.0300	47.6690
 1.0310	47.7080
 1.0320	47.7440
 1.0330	47.7790
 1.0340	47.8120
 1.0350	47.8500
 1.0360	47.8870
 1.0370	47.9210
 1.0380	47.9530
 1.0390	47.9810
 1.0400	48.0130
 1.0410	48.0450
 1.0420	48.0740
 1.0430	48.1030
 1.0440	48.1310
 1.0450	48.1540
 1.0460	48.1780
 1.0470	48.2030
 1.0480	48.2290
 1.0490	48.2530
 1.0500	48.2790
 1.0510	48.3090
 1.0520	48.3390
 1.0530	48.3640
 1.0540	48.3860
 1.0550	48.4080
 1.0560	48.4260
 1.0570	48.4440
 1.0580	48.4650
 1.0590	48.4820
 1.0600	48.4920
 1.0610	48.5070
 1.0620	48.5240
 1.0630	48.5390
 1.0640	48.5560
 1.0650	48.5720
 1.0660	48.5840
 1.0670	48.5970
 1.0680	48.6100
 1.0690	48.6230
 1.0700	48.6340
 1.0710	48.6430
 1.0720	48.6530
 1.0730	48.6620
 1.0740	48.6680
 1.0750	48.6700
 1.0760	48.6750
 1.0770	48.6770
 1.0780	48.6820
 1.0790	48.6920
 1.0800	48.6950
 1.0810	48.6920
 1.0820	48.6930
 1.0830	48.6950
 1.0840	48.6930
 1.0850	48.6890
 1.0860	48.6890
 1.0870	48.6850
 1.0880	48.6760
 1.0890	48.6680
 1.0900	48.6600
 1.0910	48.6520
 1.0920	48.6400
 1.0930	48.6300
 1.0940	48.6200
 1.0950	48.6080
 1.0960	48.5970
 1.0970	48.5820
 1.0980	48.5660
 1.0990	48.5500
 1.1000	48.5310
 1.1010	48.5120
 1.1020	48.4950
 1.1030	48.4750
 1.1040	48.4580
 1.1050	48.4410
 1.1060	48.4230
 1.1070	48.4060
 1.1080	48.3850
 1.1090	48.3620
 1.1100	48.3380
 1.1110	48.3130
 1.1120	48.2860
 1.1130	48.2580
 1.1140	48.2280
 1.1150	48.1980
 1.1160	48.1650
 1.1170	48.1320
 1.1180	48.0920
 1.1190	48.0520
 1.1200	48.0020
 1.1210	47.9480
 1.1220	47.8880
 1.1230	47.8180
 1.1240	47.7460
 1.1250	47.6660
 1.1260	47.5790
 1.1270	47.4810
 1.1280	47.3780
 1.1290	47.2570
 1.1300	47.1260
 1.1310	46.9800
 1.1320	46.8180
 1.1330	46.6470
 1.1340	46.4640
 1.1350	46.2700
 1.1360	46.0650
 1.1370	45.8500
 1.1380	45.6280
 1.1390	45.3970
 1.1400	45.1610
 1.1410	44.9260
 1.1420	44.6870
 1.1430	44.4490
 1.1440	44.2150
 1.1450	43.9790
 1.1460	43.7550
 1.1470	43.5330
 1.1480	43.3260
 1.1490	43.1270
 1.1500	42.9430
 1.1510	42.7690
 1.1520	42.6100
 1.1530	42.4640
 1.1540	42.3330
 1.1550	42.2150
 1.1560	42.1110
 1.1570	42.0200
 1.1580	41.9430
 1.1590	41.8760
 1.1600	41.8160
 1.1610	41.7640
 1.1620	41.7220
 1.1630	41.6850
 1.1640	41.6540
 1.1650	41.6260
 1.1660	41.6040
 1.1670	41.5840
 1.1680	41.5660
 1.1690	41.5500
 1.1700	41.5390
 1.1710	41.5270
 1.1720	41.5180
 1.1730	41.5080
 1.1740	41.4990
 1.1750	41.4890
 1.1760	41.4790
 1.1770	41.4690
 1.1780	41.4550
 1.1790	41.4400
 1.1800	41.4250
 1.1810	41.4090
 1.1820	41.3950
 1.1830	41.3820
 1.1840	41.3700
 1.1850	41.3590
 1.1860	41.3470
 1.1870	41.3340
 1.1880	41.3240
 1.1890	41.3130
 1.1900	41.3060
 1.1910	41.3010
 1.1920	41.3000
 1.1930	41.3030
 1.1940	41.3080
 1.1950	41.3160
 1.1960	41.3260
 1.1970	41.3400
 1.1980	41.3530
 1.1990	41.3700
 1.2000	41.3880
 1.2010	41.4100
 1.2020	41.4350
 1.2030	41.4620
 1.2040	41.4930
 1.2050	41.5210
 1.2060	41.5510
 1.2070	41.5850
 1.2080	41.6170
 1.2090	41.6540
 1.2100	41.6930
 1.2110	41.7310
 1.2120	41.7680
 1.2130	41.8080
 1.2140	41.8470
 1.2150	41.8900
 1.2160	41.9370
 1.2170	41.9840
 1.2180	42.0300
 1.2190	42.0790
 1.2200	42.1280
 1.2210	42.1750
 1.2220	42.2230
 1.2230	42.2700
 1.2240	42.3180
 1.2250	42.3640
 1.2260	42.4090
 1.2270	42.4550
 1.2280	42.5000
 1.2290	42.5440
 1.2300	42.5870
 1.2310	42.6300
 1.2320	42.6700
 1.2330	42.7090
 1.2340	42.7480
 1.2350	42.7870
 1.2360	42.8240
 1.2370	42.8600
 1.2380	42.8950
 1.2390	42.9300
 1.2400	42.9640
 1.2410	42.9990
 1.2420	43.0330
 1.2430	43.0650
 1.2440	43.0960
 1.2450	43.1260
 1.2460	43.1550
 1.2470	43.1810
 1.2480	43.2100
 1.2490	43.2380
 1.2500	43.2620
 1.2510	43.2900
 1.2520	43.3150
 1.2530	43.3360
 1.2540	43.3570
 1.2550	43.3770
 1.2560	43.3940
 1.2570	43.4090
 1.2580	43.4250
 1.2590	43.4370
 1.2600	43.4460
 1.2610	43.4550
 1.2620	43.4630
 1.2630	43.4690
 1.2640	43.4760
 1.2650	43.4830
 1.2660	43.4870
 1.2670	43.4870
 1.2680	43.4840
 1.2690	43.4790
 1.2700	43.4710
 1.2710	43.4620
 1.2720	43.4510
 1.2730	43.4340
 1.2740	43.4180
 1.2750	43.4010
 1.2760	43.3810
 1.2770	43.3620
 1.2780	43.3380
 1.2790	43.3110
 1.2800	43.2810
 1.2810	43.2510
 1.2820	43.2200
 1.2830	43.1860
 1.2840	43.1500
 1.2850	43.1110
 1.2860	43.0660
 1.2870	43.0200
 1.2880	42.9700
 1.2890	42.9200
 1.2900	42.8670
 1.2910	42.8130
 1.2920	42.7570
 1.2930	42.6980
 1.2940	42.6380
 1.2950	42.5770
 1.2960	42.5110
 1.2970	42.4410
 1.2980	42.3680
 1.2990	42.2910
 1.3000	42.2110
 1.3010	42.1280
 1.3020	42.0410
 1.3030	41.9500
 1.3040	41.8540
 1.3050	41.7560
 1.3060	41.6540
 1.3070	41.5450
 1.3080	41.4330
 1.3090	41.3160
 1.3100	41.1940
 1.3110	41.0690
 1.3120	40.9350
 1.3130	40.7980
 1.3140	40.6560
 1.3150	40.5060
 1.3160	40.3550
 1.3170	40.2030
 1.3180	40.0420
 1.3190	39.8780
 1.3200	39.7090
 1.3210	39.5310
 1.3220	39.3530
 1.3230	39.1730
 1.3240	38.9880
 1.3250	38.8010
 1.3260	38.6090
 1.3270	38.4120
 1.3280	38.2140
 1.3290	38.0130
 1.3300	37.8120
 1.3310	37.6090
 1.3320	37.4020
 1.3330	37.1960
 1.3340	36.9910
 1.3350	36.7860
 1.3360	36.5810
 1.3370	36.3770
 1.3380	36.1740
 1.3390	35.9720
 1.3400	35.7720
 1.3410	35.5760
 1.3420	35.3830
 1.3430	35.1910
 1.3440	35.0020
 1.3450	34.8150
 1.3460	34.6280
 1.3470	34.4480
 1.3480	34.2710
 1.3490	34.0950
 1.3500	33.9240
 1.3510	33.7520
 1.3520	33.5790
 1.3530	33.4080
 1.3540	33.2370
 1.3550	33.0660
 1.3560	32.8950
 1.3570	32.7210
 1.3580	32.5470
 1.3590	32.3710
 1.3600	32.1900
 1.3610	32.0040
 1.3620	31.8100
 1.3630	31.6100
 1.3640	31.4020
 1.3650	31.1830
 1.3660	30.9580
 1.3670	30.7220
 1.3680	30.4720
 1.3690	30.2090
 1.3700	29.9270
 1.3710	29.6310
 1.3720	29.3190
 1.3730	28.9880
 1.3740	28.6420
 1.3750	28.2750
 1.3760	27.8840
 1.3770	27.4720
 1.3780	27.0320
 1.3790	26.5710
 1.3800	26.0920
 1.3810	25.5870
 1.3820	25.0700
 1.3830	24.5360
 1.3840	23.9910
 1.3850	23.4280
 1.3860	22.8630
 1.3870	22.2830
 1.3880	21.7100
 1.3890	21.1340
 1.3900	20.5580
 1.3910	19.9930
 1.3920	19.4320
 1.3930	18.8770
 1.3940	18.3370
 1.3950	17.8050
 1.3960	17.2920
 1.3970	16.7990
 1.3980	16.3240
 1.3990	15.8750
 1.4000	15.4460
 1.4010	15.0370
 1.4020	14.6530
 1.4030	14.2880
 1.4040	13.9470
 1.4050	13.6300
 1.4060	13.3330
 1.4070	13.0590
 1.4080	12.8050
 1.4090	12.5690
 1.4100	12.3520
 1.4110	12.1510
 1.4120	11.9650
 1.4130	11.7950
 1.4140	11.6390
 1.4150	11.4980
 1.4160	11.3700
 1.4170	11.2510
 1.4180	11.1440
 1.4190	11.0460
 1.4200	10.9550
 1.4210	10.8730
 1.4220	10.7990
 1.4230	10.7310
 1.4240	10.6710
 1.4250	10.6160
 1.4260	10.5670
 1.4270	10.5220
 1.4280	10.4830
 1.4290	10.4480
 1.4300	10.4170
 1.4310	10.3890
 1.4320	10.3660
 1.4330	10.3460
 1.4340	10.3310
 1.4350	10.3170
 1.4360	10.3060
 1.4370	10.2970
 1.4380	10.2910
 1.4390	10.2870
 1.4400	10.2840
 1.4410	10.2850
 1.4420	10.2870
 1.4430	10.2910
 1.4440	10.2970
 1.4450	10.3040
 1.4460	10.3120
 1.4470	10.3200
 1.4480	10.3300
 1.4490	10.3400
 1.4500	10.3520
 1.4510	10.3650
 1.4520	10.3790
 1.4530	10.3950
 1.4540	10.4130
 1.4550	10.4320
 1.4560	10.4520
 1.4570	10.4740
 1.4580	10.4990
 1.4590	10.5270
 1.4600	10.5580
 1.4610	10.5930
 1.4620	10.6310
 1.4630	10.6730
 1.4640	10.7190
 1.4650	10.7690
 1.4660	10.8210
 1.4670	10.8780
 1.4680	10.9380
 1.4690	11.0010
 1.4700	11.0690
