Name: Pinus strobus
Type: Vegetation
Class: Tree
Genus: Pinus
Species: strobus
Sample No.: PIST-3-29
Owner: UCSB
Wavelength Range: VSWIR
Origin: USA; Massachusetts; Harvard Forest
Collection Date: 7/8/2013
Description: Samples were collected as part of NSF Macrosystem Biology proposal titled: Collaborative Research: Thermal controls on ecosystem metabolism and function: scaling from leaves to canopies to regions. Samples were collected and overnighted to JPL facilities for processing. The same leaves were processed in the Nicolet and then measured using the ASD.
Measurement: Bidirectional reflectance
First Column: X
Second Column: Y
X Units: Wavelength (micrometers)
Y Units: Reflectance (percentage)
First X Value: 0.35
Last X Value: 2.5
Number of X Values: 2151
Additional Information: vegetation.tree.pinus.strobus.vswir.pist-3-29.ucsb.asd.ancillary.txt

 0.3500	 7.1270
 0.3510	 6.5810
 0.3520	 6.2870
 0.3530	 6.2630
 0.3540	 6.2890
 0.3550	 6.3310
 0.3560	 6.4790
 0.3570	 6.4490
 0.3580	 5.9180
 0.3590	 5.9360
 0.3600	 6.0010
 0.3610	 5.9320
 0.3620	 6.2270
 0.3630	 6.2140
 0.3640	 6.0470
 0.3650	 6.0000
 0.3660	 5.9510
 0.3670	 5.9400
 0.3680	 5.9810
 0.3690	 6.0580
 0.3700	 6.0590
 0.3710	 6.0130
 0.3720	 5.9770
 0.3730	 6.0390
 0.3740	 5.9710
 0.3750	 5.9030
 0.3760	 5.9990
 0.3770	 5.9660
 0.3780	 5.8850
 0.3790	 5.8490
 0.3800	 5.9320
 0.3810	 5.8710
 0.3820	 5.8440
 0.3830	 5.9320
 0.3840	 5.8290
 0.3850	 5.7250
 0.3860	 5.7200
 0.3870	 5.8360
 0.3880	 5.8650
 0.3890	 5.9030
 0.3900	 5.9350
 0.3910	 5.8260
 0.3920	 5.8200
 0.3930	 5.8290
 0.3940	 5.7670
 0.3950	 5.7320
 0.3960	 5.7790
 0.3970	 5.8490
 0.3980	 5.8430
 0.3990	 5.8170
 0.4000	 5.8390
 0.4010	 5.8950
 0.4020	 5.8690
 0.4030	 5.8190
 0.4040	 5.8180
 0.4050	 5.8950
 0.4060	 5.9520
 0.4070	 5.9540
 0.4080	 5.9310
 0.4090	 5.9530
 0.4100	 6.0260
 0.4110	 6.0950
 0.4120	 6.1250
 0.4130	 6.1330
 0.4140	 6.1620
 0.4150	 6.2180
 0.4160	 6.2860
 0.4170	 6.3400
 0.4180	 6.3730
 0.4190	 6.4070
 0.4200	 6.4880
 0.4210	 6.5160
 0.4220	 6.5370
 0.4230	 6.5940
 0.4240	 6.6480
 0.4250	 6.6760
 0.4260	 6.6960
 0.4270	 6.7450
 0.4280	 6.8130
 0.4290	 6.8520
 0.4300	 6.8590
 0.4310	 6.8910
 0.4320	 6.9210
 0.4330	 6.9210
 0.4340	 6.8900
 0.4350	 6.9190
 0.4360	 6.9740
 0.4370	 7.0210
 0.4380	 7.0330
 0.4390	 7.0580
 0.4400	 7.0850
 0.4410	 7.1020
 0.4420	 7.1180
 0.4430	 7.1280
 0.4440	 7.1400
 0.4450	 7.1670
 0.4460	 7.2050
 0.4470	 7.2330
 0.4480	 7.2480
 0.4490	 7.2800
 0.4500	 7.2750
 0.4510	 7.2790
 0.4520	 7.3310
 0.4530	 7.3600
 0.4540	 7.3670
 0.4550	 7.3680
 0.4560	 7.3850
 0.4570	 7.3910
 0.4580	 7.3900
 0.4590	 7.3940
 0.4600	 7.4230
 0.4610	 7.4260
 0.4620	 7.4140
 0.4630	 7.4140
 0.4640	 7.4140
 0.4650	 7.4180
 0.4660	 7.4240
 0.4670	 7.4240
 0.4680	 7.4240
 0.4690	 7.4320
 0.4700	 7.4430
 0.4710	 7.4250
 0.4720	 7.4150
 0.4730	 7.4240
 0.4740	 7.4420
 0.4750	 7.4250
 0.4760	 7.4140
 0.4770	 7.4250
 0.4780	 7.4290
 0.4790	 7.4270
 0.4800	 7.4240
 0.4810	 7.4310
 0.4820	 7.4560
 0.4830	 7.4670
 0.4840	 7.4590
 0.4850	 7.4560
 0.4860	 7.4620
 0.4870	 7.4700
 0.4880	 7.4820
 0.4890	 7.5200
 0.4900	 7.5540
 0.4910	 7.5840
 0.4920	 7.6260
 0.4930	 7.6480
 0.4940	 7.6740
 0.4950	 7.7180
 0.4960	 7.7770
 0.4970	 7.8310
 0.4980	 7.8850
 0.4990	 7.9550
 0.5000	 8.0510
 0.5010	 8.1350
 0.5020	 8.2090
 0.5030	 8.3100
 0.5040	 8.4300
 0.5050	 8.5590
 0.5060	 8.6940
 0.5070	 8.8480
 0.5080	 9.0100
 0.5090	 9.1830
 0.5100	 9.3760
 0.5110	 9.5810
 0.5120	 9.7910
 0.5130	10.0100
 0.5140	10.2570
 0.5150	10.5110
 0.5160	10.7730
 0.5170	11.0480
 0.5180	11.3330
 0.5190	11.6180
 0.5200	11.8990
 0.5210	12.1780
 0.5220	12.4600
 0.5230	12.7370
 0.5240	12.9990
 0.5250	13.2440
 0.5260	13.4790
 0.5270	13.7030
 0.5280	13.9060
 0.5290	14.0860
 0.5300	14.2510
 0.5310	14.4050
 0.5320	14.5420
 0.5330	14.6650
 0.5340	14.7760
 0.5350	14.8730
 0.5360	14.9550
 0.5370	15.0310
 0.5380	15.1010
 0.5390	15.1580
 0.5400	15.1980
 0.5410	15.2290
 0.5420	15.2630
 0.5430	15.3070
 0.5440	15.3510
 0.5450	15.3920
 0.5460	15.4350
 0.5470	15.5050
 0.5480	15.5630
 0.5490	15.5960
 0.5500	15.6280
 0.5510	15.6490
 0.5520	15.6590
 0.5530	15.6610
 0.5540	15.6470
 0.5550	15.6140
 0.5560	15.5620
 0.5570	15.4970
 0.5580	15.4260
 0.5590	15.3420
 0.5600	15.2410
 0.5610	15.1370
 0.5620	15.0190
 0.5630	14.8910
 0.5640	14.7570
 0.5650	14.6170
 0.5660	14.4710
 0.5670	14.3180
 0.5680	14.1560
 0.5690	13.9800
 0.5700	13.8000
 0.5710	13.6260
 0.5720	13.4670
 0.5730	13.3160
 0.5740	13.1680
 0.5750	13.0190
 0.5760	12.8760
 0.5770	12.7520
 0.5780	12.6450
 0.5790	12.5340
 0.5800	12.4390
 0.5810	12.3520
 0.5820	12.2630
 0.5830	12.1820
 0.5840	12.1030
 0.5850	12.0270
 0.5860	11.9540
 0.5870	11.8850
 0.5880	11.8200
 0.5890	11.7610
 0.5900	11.7010
 0.5910	11.6510
 0.5920	11.6090
 0.5930	11.5670
 0.5940	11.5350
 0.5950	11.5080
 0.5960	11.4820
 0.5970	11.4620
 0.5980	11.4380
 0.5990	11.4100
 0.6000	11.3820
 0.6010	11.3530
 0.6020	11.3170
 0.6030	11.2710
 0.6040	11.2150
 0.6050	11.1550
 0.6060	11.0890
 0.6070	11.0160
 0.6080	10.9390
 0.6090	10.8470
 0.6100	10.7420
 0.6110	10.6420
 0.6120	10.5620
 0.6130	10.4980
 0.6140	10.4370
 0.6150	10.3530
 0.6160	10.2810
 0.6170	10.2160
 0.6180	10.1470
 0.6190	10.0960
 0.6200	10.0420
 0.6210	 9.9870
 0.6220	 9.9490
 0.6230	 9.9170
 0.6240	 9.8880
 0.6250	 9.8630
 0.6260	 9.8410
 0.6270	 9.8260
 0.6280	 9.8160
 0.6290	 9.8070
 0.6300	 9.7960
 0.6310	 9.7820
 0.6320	 9.7660
 0.6330	 9.7490
 0.6340	 9.7270
 0.6350	 9.6910
 0.6360	 9.6380
 0.6370	 9.5750
 0.6380	 9.4990
 0.6390	 9.4180
 0.6400	 9.3370
 0.6410	 9.2490
 0.6420	 9.1560
 0.6430	 9.0580
 0.6440	 8.9610
 0.6450	 8.8620
 0.6460	 8.7670
 0.6470	 8.6840
 0.6480	 8.6050
 0.6490	 8.5290
 0.6500	 8.4630
 0.6510	 8.4170
 0.6520	 8.3720
 0.6530	 8.3280
 0.6540	 8.2860
 0.6550	 8.2410
 0.6560	 8.1970
 0.6570	 8.1480
 0.6580	 8.0870
 0.6590	 8.0220
 0.6600	 7.9570
 0.6610	 7.8930
 0.6620	 7.8300
 0.6630	 7.7690
 0.6640	 7.7130
 0.6650	 7.6650
 0.6660	 7.6260
 0.6670	 7.5910
 0.6680	 7.5610
 0.6690	 7.5400
 0.6700	 7.5240
 0.6710	 7.5150
 0.6720	 7.5150
 0.6730	 7.5210
 0.6740	 7.5280
 0.6750	 7.5420
 0.6760	 7.5640
 0.6770	 7.5840
 0.6780	 7.6090
 0.6790	 7.6420
 0.6800	 7.6810
 0.6810	 7.7320
 0.6820	 7.7910
 0.6830	 7.8600
 0.6840	 7.9530
 0.6850	 8.0640
 0.6860	 8.1980
 0.6870	 8.3650
 0.6880	 8.5820
 0.6890	 8.8510
 0.6900	 9.1760
 0.6910	 9.5660
 0.6920	10.0220
 0.6930	10.5460
 0.6940	11.1390
 0.6950	11.7880
 0.6960	12.4920
 0.6970	13.2450
 0.6980	14.0400
 0.6990	14.8780
 0.7000	15.7510
 0.7010	16.6520
 0.7020	17.5730
 0.7030	18.5030
 0.7040	19.4420
 0.7050	20.3860
 0.7060	21.3330
 0.7070	22.2880
 0.7080	23.2440
 0.7090	24.1940
 0.7100	25.1430
 0.7110	26.0970
 0.7120	27.0510
 0.7130	27.9910
 0.7140	28.9350
 0.7150	29.8740
 0.7160	30.7990
 0.7170	31.7160
 0.7180	32.6290
 0.7190	33.5330
 0.7200	34.4180
 0.7210	35.2850
 0.7220	36.1370
 0.7230	36.9750
 0.7240	37.7860
 0.7250	38.5760
 0.7260	39.3420
 0.7270	40.0810
 0.7280	40.7760
 0.7290	41.4610
 0.7300	42.1250
 0.7310	42.7420
 0.7320	43.3200
 0.7330	43.8780
 0.7340	44.4200
 0.7350	44.9340
 0.7360	45.4010
 0.7370	45.8470
 0.7380	46.2840
 0.7390	46.6710
 0.7400	47.0460
 0.7410	47.4060
 0.7420	47.7320
 0.7430	48.0430
 0.7440	48.3240
 0.7450	48.5800
 0.7460	48.8300
 0.7470	49.0600
 0.7480	49.2620
 0.7490	49.4430
 0.7500	49.6340
 0.7510	49.7920
 0.7520	49.9240
 0.7530	50.0530
 0.7540	50.1890
 0.7550	50.2990
 0.7560	50.3910
 0.7570	50.5020
 0.7580	50.5690
 0.7590	50.6420
 0.7600	50.7380
 0.7610	50.7910
 0.7620	50.8420
 0.7630	50.8950
 0.7640	50.9430
 0.7650	50.9960
 0.7660	51.0490
 0.7670	51.0900
 0.7680	51.1080
 0.7690	51.1450
 0.7700	51.1830
 0.7710	51.2130
 0.7720	51.2510
 0.7730	51.2880
 0.7740	51.3140
 0.7750	51.3300
 0.7760	51.3560
 0.7770	51.3780
 0.7780	51.4000
 0.7790	51.4290
 0.7800	51.4510
 0.7810	51.4740
 0.7820	51.4980
 0.7830	51.5120
 0.7840	51.5220
 0.7850	51.5500
 0.7860	51.5940
 0.7870	51.6060
 0.7880	51.6240
 0.7890	51.6460
 0.7900	51.6570
 0.7910	51.6640
 0.7920	51.6790
 0.7930	51.7030
 0.7940	51.7310
 0.7950	51.7590
 0.7960	51.7690
 0.7970	51.7630
 0.7980	51.7730
 0.7990	51.7880
 0.8000	51.8060
 0.8010	51.8200
 0.8020	51.8140
 0.8030	51.8070
 0.8040	51.8140
 0.8050	51.8380
 0.8060	51.8310
 0.8070	51.8390
 0.8080	51.8620
 0.8090	51.8550
 0.8100	51.8470
 0.8110	51.8540
 0.8120	51.8720
 0.8130	51.8720
 0.8140	51.8650
 0.8150	51.8680
 0.8160	51.8800
 0.8170	51.8550
 0.8180	51.8610
 0.8190	51.8740
 0.8200	51.8480
 0.8210	51.8370
 0.8220	51.8410
 0.8230	51.8470
 0.8240	51.8360
 0.8250	51.8350
 0.8260	51.8280
 0.8270	51.8100
 0.8280	51.7950
 0.8290	51.7900
 0.8300	51.7890
 0.8310	51.7860
 0.8320	51.7890
 0.8330	51.7850
 0.8340	51.7720
 0.8350	51.7580
 0.8360	51.7520
 0.8370	51.7510
 0.8380	51.7530
 0.8390	51.7550
 0.8400	51.7390
 0.8410	51.7520
 0.8420	51.7890
 0.8430	51.7690
 0.8440	51.7530
 0.8450	51.7510
 0.8460	51.7620
 0.8470	51.7860
 0.8480	51.7890
 0.8490	51.7810
 0.8500	51.7820
 0.8510	51.7790
 0.8520	51.7820
 0.8530	51.7920
 0.8540	51.8010
 0.8550	51.8230
 0.8560	51.8280
 0.8570	51.8200
 0.8580	51.8400
 0.8590	51.8500
 0.8600	51.8470
 0.8610	51.8450
 0.8620	51.8680
 0.8630	51.8840
 0.8640	51.8840
 0.8650	51.8760
 0.8660	51.8910
 0.8670	51.8980
 0.8680	51.8980
 0.8690	51.9020
 0.8700	51.9180
 0.8710	51.9280
 0.8720	51.9300
 0.8730	51.9280
 0.8740	51.9500
 0.8750	51.9820
 0.8760	52.0010
 0.8770	51.9920
 0.8780	51.9760
 0.8790	51.9810
 0.8800	52.0100
 0.8810	52.0270
 0.8820	52.0240
 0.8830	52.0200
 0.8840	52.0270
 0.8850	52.0250
 0.8860	52.0360
 0.8870	52.0530
 0.8880	52.0670
 0.8890	52.0790
 0.8900	52.0780
 0.8910	52.0770
 0.8920	52.0900
 0.8930	52.0970
 0.8940	52.1140
 0.8950	52.1280
 0.8960	52.1140
 0.8970	52.1050
 0.8980	52.1150
 0.8990	52.1350
 0.9000	52.1380
 0.9010	52.1380
 0.9020	52.1400
 0.9030	52.1450
 0.9040	52.1450
 0.9050	52.1600
 0.9060	52.1770
 0.9070	52.1810
 0.9080	52.1650
 0.9090	52.1880
 0.9100	52.2140
 0.9110	52.2040
 0.9120	52.1790
 0.9130	52.1720
 0.9140	52.1890
 0.9150	52.2130
 0.9160	52.1970
 0.9170	52.1820
 0.9180	52.1840
 0.9190	52.1930
 0.9200	52.1700
 0.9210	52.1830
 0.9220	52.2150
 0.9230	52.2020
 0.9240	52.1780
 0.9250	52.1560
 0.9260	52.1450
 0.9270	52.1410
 0.9280	52.1060
 0.9290	52.0730
 0.9300	52.0560
 0.9310	52.0390
 0.9320	52.0050
 0.9330	51.9780
 0.9340	51.9550
 0.9350	51.8960
 0.9360	51.8620
 0.9370	51.8420
 0.9380	51.8120
 0.9390	51.7520
 0.9400	51.7150
 0.9410	51.6760
 0.9420	51.6290
 0.9430	51.6230
 0.9440	51.5370
 0.9450	51.4440
 0.9460	51.4020
 0.9470	51.3500
 0.9480	51.2910
 0.9490	51.2260
 0.9500	51.1490
 0.9510	51.0300
 0.9520	50.9110
 0.9530	50.8000
 0.9540	50.7020
 0.9550	50.6430
 0.9560	50.5560
 0.9570	50.4580
 0.9580	50.3760
 0.9590	50.2660
 0.9600	50.1940
 0.9610	50.1380
 0.9620	50.0640
 0.9630	50.0230
 0.9640	49.9920
 0.9650	49.9500
 0.9660	49.8920
 0.9670	49.8650
 0.9680	49.8320
 0.9690	49.8100
 0.9700	49.8230
 0.9710	49.8270
 0.9720	49.8230
 0.9730	49.8080
 0.9740	49.7820
 0.9750	49.7630
 0.9760	49.7730
 0.9770	49.7910
 0.9780	49.7890
 0.9790	49.8190
 0.9800	49.7900
 0.9810	49.7610
 0.9820	49.8270
 0.9830	49.8350
 0.9840	49.8450
 0.9850	49.8740
 0.9860	49.9070
 0.9870	49.9380
 0.9880	49.9330
 0.9890	49.9190
 0.9900	49.9450
 0.9910	50.0040
 0.9920	50.0900
 0.9930	50.1750
 0.9940	50.2600
 0.9950	50.3460
 0.9960	50.4310
 0.9970	50.5160
 0.9980	50.6020
 0.9990	50.6870
 1.0000	50.7720
 1.0010	50.8580
 1.0020	50.9430
 1.0030	51.0280
 1.0040	51.1140
 1.0050	51.1990
 1.0060	51.2840
 1.0070	51.3700
 1.0080	51.4550
 1.0090	51.5400
 1.0100	51.5400
 1.0110	51.5640
 1.0120	51.5990
 1.0130	51.6450
 1.0140	51.6890
 1.0150	51.7400
 1.0160	51.7840
 1.0170	51.8320
 1.0180	51.8650
 1.0190	51.8810
 1.0200	51.9130
 1.0210	51.9490
 1.0220	51.9860
 1.0230	52.0240
 1.0240	52.0700
 1.0250	52.1080
 1.0260	52.1430
 1.0270	52.1750
 1.0280	52.2060
 1.0290	52.2400
 1.0300	52.2700
 1.0310	52.3040
 1.0320	52.3470
 1.0330	52.3870
 1.0340	52.4240
 1.0350	52.4520
 1.0360	52.4790
 1.0370	52.5090
 1.0380	52.5400
 1.0390	52.5750
 1.0400	52.6050
 1.0410	52.6370
 1.0420	52.6590
 1.0430	52.6710
 1.0440	52.6880
 1.0450	52.6990
 1.0460	52.7170
 1.0470	52.7430
 1.0480	52.7660
 1.0490	52.7890
 1.0500	52.8130
 1.0510	52.8400
 1.0520	52.8600
 1.0530	52.8840
 1.0540	52.9080
 1.0550	52.9330
 1.0560	52.9630
 1.0570	52.9830
 1.0580	52.9990
 1.0590	53.0150
 1.0600	53.0280
 1.0610	53.0350
 1.0620	53.0340
 1.0630	53.0440
 1.0640	53.0550
 1.0650	53.0630
 1.0660	53.0790
 1.0670	53.0910
 1.0680	53.1010
 1.0690	53.1020
 1.0700	53.1110
 1.0710	53.1280
 1.0720	53.1340
 1.0730	53.1330
 1.0740	53.1390
 1.0750	53.1450
 1.0760	53.1480
 1.0770	53.1560
 1.0780	53.1570
 1.0790	53.1430
 1.0800	53.1400
 1.0810	53.1450
 1.0820	53.1410
 1.0830	53.1340
 1.0840	53.1290
 1.0850	53.1230
 1.0860	53.1100
 1.0870	53.1000
 1.0880	53.0910
 1.0890	53.0850
 1.0900	53.0790
 1.0910	53.0690
 1.0920	53.0620
 1.0930	53.0520
 1.0940	53.0350
 1.0950	53.0220
 1.0960	53.0140
 1.0970	53.0010
 1.0980	52.9800
 1.0990	52.9660
 1.1000	52.9590
 1.1010	52.9420
 1.1020	52.9270
 1.1030	52.9050
 1.1040	52.8780
 1.1050	52.8530
 1.1060	52.8300
 1.1070	52.8120
 1.1080	52.7880
 1.1090	52.7610
 1.1100	52.7340
 1.1110	52.7060
 1.1120	52.6760
 1.1130	52.6470
 1.1140	52.6140
 1.1150	52.5750
 1.1160	52.5390
 1.1170	52.5050
 1.1180	52.4650
 1.1190	52.4250
 1.1200	52.3810
 1.1210	52.3280
 1.1220	52.2750
 1.1230	52.2120
 1.1240	52.1380
 1.1250	52.0560
 1.1260	51.9660
 1.1270	51.8680
 1.1280	51.7650
 1.1290	51.6500
 1.1300	51.5280
 1.1310	51.3920
 1.1320	51.2430
 1.1330	51.0860
 1.1340	50.9180
 1.1350	50.7410
 1.1360	50.5560
 1.1370	50.3610
 1.1380	50.1600
 1.1390	49.9480
 1.1400	49.7270
 1.1410	49.5050
 1.1420	49.2790
 1.1430	49.0560
 1.1440	48.8340
 1.1450	48.6120
 1.1460	48.3970
 1.1470	48.1800
 1.1480	47.9790
 1.1490	47.7830
 1.1500	47.6030
 1.1510	47.4360
 1.1520	47.2800
 1.1530	47.1340
 1.1540	47.0010
 1.1550	46.8800
 1.1560	46.7680
 1.1570	46.6720
 1.1580	46.5900
 1.1590	46.5180
 1.1600	46.4580
 1.1610	46.4040
 1.1620	46.3500
 1.1630	46.3030
 1.1640	46.2610
 1.1650	46.2230
 1.1660	46.1900
 1.1670	46.1650
 1.1680	46.1460
 1.1690	46.1260
 1.1700	46.1150
 1.1710	46.0990
 1.1720	46.0810
 1.1730	46.0630
 1.1740	46.0450
 1.1750	46.0230
 1.1760	46.0010
 1.1770	45.9810
 1.1780	45.9580
 1.1790	45.9380
 1.1800	45.9150
 1.1810	45.8920
 1.1820	45.8700
 1.1830	45.8430
 1.1840	45.8200
 1.1850	45.8010
 1.1860	45.7820
 1.1870	45.7620
 1.1880	45.7450
 1.1890	45.7270
 1.1900	45.7120
 1.1910	45.7000
 1.1920	45.6910
 1.1930	45.6820
 1.1940	45.6770
 1.1950	45.6770
 1.1960	45.6770
 1.1970	45.6780
 1.1980	45.6860
 1.1990	45.6950
 1.2000	45.7070
 1.2010	45.7230
 1.2020	45.7400
 1.2030	45.7580
 1.2040	45.7800
 1.2050	45.8040
 1.2060	45.8310
 1.2070	45.8590
 1.2080	45.8830
 1.2090	45.9100
 1.2100	45.9400
 1.2110	45.9720
 1.2120	46.0040
 1.2130	46.0410
 1.2140	46.0800
 1.2150	46.1230
 1.2160	46.1710
 1.2170	46.2160
 1.2180	46.2650
 1.2190	46.3160
 1.2200	46.3650
 1.2210	46.4130
 1.2220	46.4580
 1.2230	46.5060
 1.2240	46.5580
 1.2250	46.6070
 1.2260	46.6620
 1.2270	46.7160
 1.2280	46.7570
 1.2290	46.8020
 1.2300	46.8490
 1.2310	46.8930
 1.2320	46.9380
 1.2330	46.9790
 1.2340	47.0190
 1.2350	47.0540
 1.2360	47.0900
 1.2370	47.1210
 1.2380	47.1580
 1.2390	47.1990
 1.2400	47.2350
 1.2410	47.2760
 1.2420	47.3160
 1.2430	47.3490
 1.2440	47.3800
 1.2450	47.4060
 1.2460	47.4320
 1.2470	47.4570
 1.2480	47.4820
 1.2490	47.5100
 1.2500	47.5340
 1.2510	47.5620
 1.2520	47.5910
 1.2530	47.6120
 1.2540	47.6300
 1.2550	47.6440
 1.2560	47.6530
 1.2570	47.6650
 1.2580	47.6760
 1.2590	47.6850
 1.2600	47.6950
 1.2610	47.7030
 1.2620	47.7090
 1.2630	47.7130
 1.2640	47.7190
 1.2650	47.7200
 1.2660	47.7140
 1.2670	47.7120
 1.2680	47.7100
 1.2690	47.7070
 1.2700	47.7070
 1.2710	47.7050
 1.2720	47.7010
 1.2730	47.6890
 1.2740	47.6750
 1.2750	47.6640
 1.2760	47.6500
 1.2770	47.6350
 1.2780	47.6240
 1.2790	47.6070
 1.2800	47.5850
 1.2810	47.5640
 1.2820	47.5410
 1.2830	47.5180
 1.2840	47.4960
 1.2850	47.4640
 1.2860	47.4240
 1.2870	47.3850
 1.2880	47.3410
 1.2890	47.2960
 1.2900	47.2570
 1.2910	47.2180
 1.2920	47.1690
 1.2930	47.1130
 1.2940	47.0510
 1.2950	46.9880
 1.2960	46.9250
 1.2970	46.8540
 1.2980	46.7800
 1.2990	46.7040
 1.3000	46.6220
 1.3010	46.5390
 1.3020	46.4510
 1.3030	46.3560
 1.3040	46.2600
 1.3050	46.1640
 1.3060	46.0590
 1.3070	45.9490
 1.3080	45.8370
 1.3090	45.7170
 1.3100	45.5980
 1.3110	45.4780
 1.3120	45.3480
 1.3130	45.2170
 1.3140	45.0820
 1.3150	44.9420
 1.3160	44.7960
 1.3170	44.6480
 1.3180	44.4940
 1.3190	44.3300
 1.3200	44.1630
 1.3210	43.9910
 1.3220	43.8160
 1.3230	43.6400
 1.3240	43.4600
 1.3250	43.2770
 1.3260	43.0940
 1.3270	42.9080
 1.3280	42.7200
 1.3290	42.5280
 1.3300	42.3340
 1.3310	42.1340
 1.3320	41.9300
 1.3330	41.7330
 1.3340	41.5320
 1.3350	41.3290
 1.3360	41.1340
 1.3370	40.9350
 1.3380	40.7330
 1.3390	40.5360
 1.3400	40.3380
 1.3410	40.1390
 1.3420	39.9450
 1.3430	39.7600
 1.3440	39.5760
 1.3450	39.3920
 1.3460	39.2100
 1.3470	39.0300
 1.3480	38.8480
 1.3490	38.6700
 1.3500	38.4970
 1.3510	38.3240
 1.3520	38.1520
 1.3530	37.9780
 1.3540	37.8050
 1.3550	37.6330
 1.3560	37.4580
 1.3570	37.2850
 1.3580	37.1150
 1.3590	36.9390
 1.3600	36.7630
 1.3610	36.5810
 1.3620	36.3880
 1.3630	36.1930
 1.3640	35.9920
 1.3650	35.7850
 1.3660	35.5740
 1.3670	35.3530
 1.3680	35.1180
 1.3690	34.8720
 1.3700	34.6090
 1.3710	34.3350
 1.3720	34.0450
 1.3730	33.7330
 1.3740	33.4070
 1.3750	33.0610
 1.3760	32.6920
 1.3770	32.3030
 1.3780	31.8850
 1.3790	31.4460
 1.3800	30.9900
 1.3810	30.5130
 1.3820	30.0220
 1.3830	29.5160
 1.3840	28.9950
 1.3850	28.4530
 1.3860	27.9070
 1.3870	27.3440
 1.3880	26.7880
 1.3890	26.2270
 1.3900	25.6650
 1.3910	25.1130
 1.3920	24.5600
 1.3930	24.0080
 1.3940	23.4670
 1.3950	22.9290
 1.3960	22.4050
 1.3970	21.9000
 1.3980	21.4100
 1.3990	20.9450
 1.4000	20.4970
 1.4010	20.0640
 1.4020	19.6540
 1.4030	19.2640
 1.4040	18.8960
 1.4050	18.5520
 1.4060	18.2270
 1.4070	17.9230
 1.4080	17.6360
 1.4090	17.3660
 1.4100	17.1180
 1.4110	16.8870
 1.4120	16.6740
 1.4130	16.4790
 1.4140	16.2980
 1.4150	16.1330
 1.4160	15.9810
 1.4170	15.8410
 1.4180	15.7140
 1.4190	15.5960
 1.4200	15.4890
 1.4210	15.3910
 1.4220	15.3020
 1.4230	15.2210
 1.4240	15.1480
 1.4250	15.0820
 1.4260	15.0260
 1.4270	14.9720
 1.4280	14.9230
 1.4290	14.8800
 1.4300	14.8410
 1.4310	14.8080
 1.4320	14.7830
 1.4330	14.7590
 1.4340	14.7380
 1.4350	14.7220
 1.4360	14.7100
 1.4370	14.7020
 1.4380	14.6990
 1.4390	14.6990
 1.4400	14.7010
 1.4410	14.7030
 1.4420	14.7060
 1.4430	14.7110
 1.4440	14.7190
 1.4450	14.7280
 1.4460	14.7390
 1.4470	14.7520
 1.4480	14.7660
 1.4490	14.7820
 1.4500	14.7990
 1.4510	14.8160
 1.4520	14.8350
 1.4530	14.8550
 1.4540	14.8750
 1.4550	14.8980
 1.4560	14.9220
 1.4570	14.9500
 1.4580	14.9780
 1.4590	15.0090
 1.4600	15.0430
 1.4610	15.0800
 1.4620	15.1200
 1.4630	15.1630
 1.4640	15.2110
 1.4650	15.2620
 1.4660	15.3170
 1.4670	15.3760
 1.4680	15.4400
 1.4690	15.5070
 1.4700	15.5770
 1.4710	15.6520
 1.4720	15.7280
 1.4730	15.8070
