Name: Quercus rubra
Type: Vegetation
Class: Tree
Genus: Quercus
Species: rubra
Sample No.: QURU-3-9
Owner: UCSB
Wavelength Range: VSWIR
Origin: USA; Massachusetts; Harvard Forest
Collection Date: 7/8/2013
Description: Samples were collected as part of NSF Macrosystem Biology proposal titled: Collaborative Research: Thermal controls on ecosystem metabolism and function: scaling from leaves to canopies to regions. Samples were collected and overnighted to JPL facilities for processing. The same leaves were processed in the Nicolet and then measured using the ASD.
Measurement: Bidirectional reflectance
First Column: X
Second Column: Y
X Units: Wavelength (micrometers)
Y Units: Reflectance (percentage)
First X Value: 0.35
Last X Value: 2.5
Number of X Values: 2151
Additional Information: vegetation.tree.quercus.rubra.vswir.quru-3-9.ucsb.asd.ancillary.txt

 0.3500	 4.4640
 0.3510	 4.1310
 0.3520	 3.9070
 0.3530	 4.0000
 0.3540	 4.3500
 0.3550	 4.3020
 0.3560	 4.1100
 0.3570	 3.9970
 0.3580	 4.0990
 0.3590	 4.0410
 0.3600	 3.8820
 0.3610	 3.7770
 0.3620	 3.9630
 0.3630	 3.9350
 0.3640	 3.8850
 0.3650	 4.0310
 0.3660	 3.9950
 0.3670	 3.8930
 0.3680	 3.8490
 0.3690	 3.9590
 0.3700	 3.9420
 0.3710	 3.8750
 0.3720	 3.8630
 0.3730	 3.9860
 0.3740	 3.9800
 0.3750	 3.8610
 0.3760	 3.7620
 0.3770	 3.9030
 0.3780	 4.0220
 0.3790	 3.9880
 0.3800	 3.8260
 0.3810	 3.8480
 0.3820	 3.9080
 0.3830	 3.8820
 0.3840	 3.8740
 0.3850	 3.8740
 0.3860	 3.8780
 0.3870	 3.8780
 0.3880	 3.8570
 0.3890	 3.8720
 0.3900	 3.9090
 0.3910	 3.8720
 0.3920	 3.8480
 0.3930	 3.8360
 0.3940	 3.8310
 0.3950	 3.8700
 0.3960	 3.8450
 0.3970	 3.8090
 0.3980	 3.8640
 0.3990	 3.8730
 0.4000	 3.8950
 0.4010	 3.9300
 0.4020	 3.8770
 0.4030	 3.8490
 0.4040	 3.8710
 0.4050	 3.9140
 0.4060	 3.8590
 0.4070	 3.8430
 0.4080	 3.8640
 0.4090	 3.8380
 0.4100	 3.8480
 0.4110	 3.8450
 0.4120	 3.8110
 0.4130	 3.8190
 0.4140	 3.8200
 0.4150	 3.8430
 0.4160	 3.9030
 0.4170	 3.8750
 0.4180	 3.8510
 0.4190	 3.8700
 0.4200	 3.9040
 0.4210	 3.8870
 0.4220	 3.8660
 0.4230	 3.8820
 0.4240	 3.9090
 0.4250	 3.9210
 0.4260	 3.9250
 0.4270	 3.9410
 0.4280	 3.9600
 0.4290	 3.9790
 0.4300	 4.0000
 0.4310	 4.0180
 0.4320	 4.0340
 0.4330	 4.0520
 0.4340	 4.0770
 0.4350	 4.0990
 0.4360	 4.1150
 0.4370	 4.1260
 0.4380	 4.1300
 0.4390	 4.1100
 0.4400	 4.1000
 0.4410	 4.1200
 0.4420	 4.1240
 0.4430	 4.1270
 0.4440	 4.1300
 0.4450	 4.1350
 0.4460	 4.1520
 0.4470	 4.1770
 0.4480	 4.2000
 0.4490	 4.2030
 0.4500	 4.2040
 0.4510	 4.2040
 0.4520	 4.2030
 0.4530	 4.2300
 0.4540	 4.2420
 0.4550	 4.2430
 0.4560	 4.2620
 0.4570	 4.2570
 0.4580	 4.2520
 0.4590	 4.2630
 0.4600	 4.2690
 0.4610	 4.2760
 0.4620	 4.2770
 0.4630	 4.2700
 0.4640	 4.2770
 0.4650	 4.2960
 0.4660	 4.3070
 0.4670	 4.2810
 0.4680	 4.2790
 0.4690	 4.2860
 0.4700	 4.2850
 0.4710	 4.3040
 0.4720	 4.3010
 0.4730	 4.2850
 0.4740	 4.2880
 0.4750	 4.2830
 0.4760	 4.2850
 0.4770	 4.2990
 0.4780	 4.3040
 0.4790	 4.2940
 0.4800	 4.2850
 0.4810	 4.2940
 0.4820	 4.2970
 0.4830	 4.3030
 0.4840	 4.3120
 0.4850	 4.3140
 0.4860	 4.3140
 0.4870	 4.3240
 0.4880	 4.3400
 0.4890	 4.3280
 0.4900	 4.3310
 0.4910	 4.3500
 0.4920	 4.3630
 0.4930	 4.3680
 0.4940	 4.3800
 0.4950	 4.3990
 0.4960	 4.4050
 0.4970	 4.4260
 0.4980	 4.4480
 0.4990	 4.4510
 0.5000	 4.4710
 0.5010	 4.4980
 0.5020	 4.5280
 0.5030	 4.5620
 0.5040	 4.5880
 0.5050	 4.6210
 0.5060	 4.6680
 0.5070	 4.7030
 0.5080	 4.7550
 0.5090	 4.8200
 0.5100	 4.8800
 0.5110	 4.9560
 0.5120	 5.0390
 0.5130	 5.1260
 0.5140	 5.2150
 0.5150	 5.3190
 0.5160	 5.4400
 0.5170	 5.5730
 0.5180	 5.7070
 0.5190	 5.8500
 0.5200	 6.0020
 0.5210	 6.1620
 0.5220	 6.3160
 0.5230	 6.4740
 0.5240	 6.6400
 0.5250	 6.8000
 0.5260	 6.9560
 0.5270	 7.1050
 0.5280	 7.2440
 0.5290	 7.3760
 0.5300	 7.5020
 0.5310	 7.6210
 0.5320	 7.7260
 0.5330	 7.8180
 0.5340	 7.9050
 0.5350	 7.9890
 0.5360	 8.0490
 0.5370	 8.1080
 0.5380	 8.1700
 0.5390	 8.2230
 0.5400	 8.2700
 0.5410	 8.3210
 0.5420	 8.3760
 0.5430	 8.4300
 0.5440	 8.4820
 0.5450	 8.5330
 0.5460	 8.5790
 0.5470	 8.5810
 0.5480	 8.5730
 0.5490	 8.5760
 0.5500	 8.5910
 0.5510	 8.6010
 0.5520	 8.6010
 0.5530	 8.5940
 0.5540	 8.5800
 0.5550	 8.5550
 0.5560	 8.5160
 0.5570	 8.4620
 0.5580	 8.3970
 0.5590	 8.3250
 0.5600	 8.2470
 0.5610	 8.1610
 0.5620	 8.0710
 0.5630	 7.9770
 0.5640	 7.8730
 0.5650	 7.7650
 0.5660	 7.6490
 0.5670	 7.5290
 0.5680	 7.4150
 0.5690	 7.2970
 0.5700	 7.1770
 0.5710	 7.0610
 0.5720	 6.9540
 0.5730	 6.8500
 0.5740	 6.7480
 0.5750	 6.6520
 0.5760	 6.5630
 0.5770	 6.4850
 0.5780	 6.4150
 0.5790	 6.3460
 0.5800	 6.2760
 0.5810	 6.2090
 0.5820	 6.1530
 0.5830	 6.1120
 0.5840	 6.0690
 0.5850	 6.0230
 0.5860	 5.9930
 0.5870	 5.9660
 0.5880	 5.9370
 0.5890	 5.9060
 0.5900	 5.8740
 0.5910	 5.8440
 0.5920	 5.8160
 0.5930	 5.7900
 0.5940	 5.7710
 0.5950	 5.7570
 0.5960	 5.7450
 0.5970	 5.7250
 0.5980	 5.7110
 0.5990	 5.7000
 0.6000	 5.6850
 0.6010	 5.6660
 0.6020	 5.6410
 0.6030	 5.6130
 0.6040	 5.5910
 0.6050	 5.5610
 0.6060	 5.5270
 0.6070	 5.4950
 0.6080	 5.4590
 0.6090	 5.4220
 0.6100	 5.3920
 0.6110	 5.3730
 0.6120	 5.3290
 0.6130	 5.2750
 0.6140	 5.2280
 0.6150	 5.1880
 0.6160	 5.1480
 0.6170	 5.1110
 0.6180	 5.0830
 0.6190	 5.0580
 0.6200	 5.0360
 0.6210	 5.0170
 0.6220	 5.0000
 0.6230	 4.9810
 0.6240	 4.9660
 0.6250	 4.9560
 0.6260	 4.9460
 0.6270	 4.9380
 0.6280	 4.9330
 0.6290	 4.9310
 0.6300	 4.9250
 0.6310	 4.9200
 0.6320	 4.9140
 0.6330	 4.9040
 0.6340	 4.8950
 0.6350	 4.8850
 0.6360	 4.8710
 0.6370	 4.8500
 0.6380	 4.8310
 0.6390	 4.8120
 0.6400	 4.7850
 0.6410	 4.7560
 0.6420	 4.7290
 0.6430	 4.7040
 0.6440	 4.6800
 0.6450	 4.6510
 0.6460	 4.6220
 0.6470	 4.5990
 0.6480	 4.5730
 0.6490	 4.5520
 0.6500	 4.5360
 0.6510	 4.5190
 0.6520	 4.5020
 0.6530	 4.4850
 0.6540	 4.4680
 0.6550	 4.4510
 0.6560	 4.4370
 0.6570	 4.4210
 0.6580	 4.4000
 0.6590	 4.3830
 0.6600	 4.3620
 0.6610	 4.3380
 0.6620	 4.3210
 0.6630	 4.3060
 0.6640	 4.2930
 0.6650	 4.2790
 0.6660	 4.2710
 0.6670	 4.2630
 0.6680	 4.2570
 0.6690	 4.2590
 0.6700	 4.2630
 0.6710	 4.2680
 0.6720	 4.2740
 0.6730	 4.2860
 0.6740	 4.2970
 0.6750	 4.3100
 0.6760	 4.3270
 0.6770	 4.3460
 0.6780	 4.3680
 0.6790	 4.3940
 0.6800	 4.4210
 0.6810	 4.4490
 0.6820	 4.4800
 0.6830	 4.5180
 0.6840	 4.5620
 0.6850	 4.6050
 0.6860	 4.6510
 0.6870	 4.7070
 0.6880	 4.7690
 0.6890	 4.8470
 0.6900	 4.9420
 0.6910	 5.0470
 0.6920	 5.1880
 0.6930	 5.3670
 0.6940	 5.5870
 0.6950	 5.8550
 0.6960	 6.1810
 0.6970	 6.5680
 0.6980	 7.0190
 0.6990	 7.5330
 0.7000	 8.1130
 0.7010	 8.7520
 0.7020	 9.4390
 0.7030	10.1820
 0.7040	10.9680
 0.7050	11.7850
 0.7060	12.6320
 0.7070	13.4960
 0.7080	14.3780
 0.7090	15.2850
 0.7100	16.1970
 0.7110	17.1220
 0.7120	18.0580
 0.7130	18.9890
 0.7140	19.9240
 0.7150	20.8600
 0.7160	21.7930
 0.7170	22.7280
 0.7180	23.6460
 0.7190	24.5530
 0.7200	25.4580
 0.7210	26.3460
 0.7220	27.2150
 0.7230	28.0650
 0.7240	28.8920
 0.7250	29.6980
 0.7260	30.4790
 0.7270	31.2300
 0.7280	31.9500
 0.7290	32.6450
 0.7300	33.3100
 0.7310	33.9430
 0.7320	34.5480
 0.7330	35.1240
 0.7340	35.6680
 0.7350	36.1850
 0.7360	36.6720
 0.7370	37.1360
 0.7380	37.5790
 0.7390	37.9790
 0.7400	38.3560
 0.7410	38.7150
 0.7420	39.0550
 0.7430	39.3580
 0.7440	39.6430
 0.7450	39.9150
 0.7460	40.1570
 0.7470	40.3830
 0.7480	40.5950
 0.7490	40.7890
 0.7500	40.9570
 0.7510	41.1130
 0.7520	41.2580
 0.7530	41.3910
 0.7540	41.5120
 0.7550	41.6240
 0.7560	41.7240
 0.7570	41.8030
 0.7580	41.8840
 0.7590	41.9610
 0.7600	42.0240
 0.7610	42.0630
 0.7620	42.1250
 0.7630	42.1830
 0.7640	42.2060
 0.7650	42.2450
 0.7660	42.2790
 0.7670	42.3030
 0.7680	42.3220
 0.7690	42.3430
 0.7700	42.3690
 0.7710	42.3930
 0.7720	42.3930
 0.7730	42.4110
 0.7740	42.4320
 0.7750	42.4400
 0.7760	42.4490
 0.7770	42.4600
 0.7780	42.4720
 0.7790	42.4800
 0.7800	42.4910
 0.7810	42.4940
 0.7820	42.4910
 0.7830	42.5030
 0.7840	42.5140
 0.7850	42.5230
 0.7860	42.5310
 0.7870	42.5270
 0.7880	42.5350
 0.7890	42.5480
 0.7900	42.5520
 0.7910	42.5490
 0.7920	42.5490
 0.7930	42.5550
 0.7940	42.5600
 0.7950	42.5580
 0.7960	42.5570
 0.7970	42.5600
 0.7980	42.5660
 0.7990	42.5680
 0.8000	42.5650
 0.8010	42.5600
 0.8020	42.5550
 0.8030	42.5550
 0.8040	42.5570
 0.8050	42.5560
 0.8060	42.5450
 0.8070	42.5450
 0.8080	42.5530
 0.8090	42.5430
 0.8100	42.5340
 0.8110	42.5340
 0.8120	42.5380
 0.8130	42.5300
 0.8140	42.5220
 0.8150	42.5130
 0.8160	42.5030
 0.8170	42.4950
 0.8180	42.4940
 0.8190	42.4950
 0.8200	42.4870
 0.8210	42.4800
 0.8220	42.4810
 0.8230	42.4800
 0.8240	42.4640
 0.8250	42.4540
 0.8260	42.4520
 0.8270	42.4520
 0.8280	42.4460
 0.8290	42.4420
 0.8300	42.4380
 0.8310	42.4290
 0.8320	42.4170
 0.8330	42.4150
 0.8340	42.4160
 0.8350	42.4080
 0.8360	42.4030
 0.8370	42.3910
 0.8380	42.3830
 0.8390	42.4010
 0.8400	42.4000
 0.8410	42.3900
 0.8420	42.3860
 0.8430	42.3930
 0.8440	42.3950
 0.8450	42.3890
 0.8460	42.3830
 0.8470	42.3950
 0.8480	42.3980
 0.8490	42.3930
 0.8500	42.3890
 0.8510	42.3860
 0.8520	42.3930
 0.8530	42.3990
 0.8540	42.3900
 0.8550	42.3920
 0.8560	42.3970
 0.8570	42.4000
 0.8580	42.3950
 0.8590	42.3940
 0.8600	42.3950
 0.8610	42.3960
 0.8620	42.4050
 0.8630	42.4060
 0.8640	42.4060
 0.8650	42.4110
 0.8660	42.4140
 0.8670	42.4130
 0.8680	42.4120
 0.8690	42.4130
 0.8700	42.4180
 0.8710	42.4200
 0.8720	42.4180
 0.8730	42.4140
 0.8740	42.4220
 0.8750	42.4230
 0.8760	42.4170
 0.8770	42.4310
 0.8780	42.4400
 0.8790	42.4350
 0.8800	42.4240
 0.8810	42.4310
 0.8820	42.4390
 0.8830	42.4430
 0.8840	42.4440
 0.8850	42.4430
 0.8860	42.4470
 0.8870	42.4540
 0.8880	42.4560
 0.8890	42.4400
 0.8900	42.4340
 0.8910	42.4420
 0.8920	42.4540
 0.8930	42.4470
 0.8940	42.4490
 0.8950	42.4590
 0.8960	42.4540
 0.8970	42.4590
 0.8980	42.4670
 0.8990	42.4710
 0.9000	42.4590
 0.9010	42.4520
 0.9020	42.4520
 0.9030	42.4570
 0.9040	42.4580
 0.9050	42.4660
 0.9060	42.4620
 0.9070	42.4450
 0.9080	42.4510
 0.9090	42.4610
 0.9100	42.4670
 0.9110	42.4630
 0.9120	42.4570
 0.9130	42.4640
 0.9140	42.4680
 0.9150	42.4550
 0.9160	42.4730
 0.9170	42.4680
 0.9180	42.4520
 0.9190	42.4520
 0.9200	42.4590
 0.9210	42.4570
 0.9220	42.4490
 0.9230	42.4450
 0.9240	42.4440
 0.9250	42.4330
 0.9260	42.4160
 0.9270	42.4010
 0.9280	42.3970
 0.9290	42.3840
 0.9300	42.3650
 0.9310	42.3590
 0.9320	42.3640
 0.9330	42.3620
 0.9340	42.3500
 0.9350	42.3380
 0.9360	42.3100
 0.9370	42.2800
 0.9380	42.2610
 0.9390	42.2570
 0.9400	42.2460
 0.9410	42.2290
 0.9420	42.2130
 0.9430	42.2030
 0.9440	42.1780
 0.9450	42.1530
 0.9460	42.1360
 0.9470	42.1040
 0.9480	42.0510
 0.9490	42.0100
 0.9500	41.9910
 0.9510	41.9310
 0.9520	41.8920
 0.9530	41.8680
 0.9540	41.8350
 0.9550	41.7990
 0.9560	41.7480
 0.9570	41.6950
 0.9580	41.6540
 0.9590	41.6270
 0.9600	41.6100
 0.9610	41.5900
 0.9620	41.5590
 0.9630	41.5310
 0.9640	41.4970
 0.9650	41.4780
 0.9660	41.4870
 0.9670	41.4630
 0.9680	41.4340
 0.9690	41.4120
 0.9700	41.3990
 0.9710	41.3880
 0.9720	41.3820
 0.9730	41.3810
 0.9740	41.3810
 0.9750	41.3790
 0.9760	41.3640
 0.9770	41.3520
 0.9780	41.3600
 0.9790	41.3600
 0.9800	41.3480
 0.9810	41.3260
 0.9820	41.3030
 0.9830	41.3270
 0.9840	41.3410
 0.9850	41.3320
 0.9860	41.3180
 0.9870	41.3520
 0.9880	41.3900
 0.9890	41.4100
 0.9900	41.4060
 0.9910	41.3810
 0.9920	41.4120
 0.9930	41.4420
 0.9940	41.4720
 0.9950	41.5020
 0.9960	41.5330
 0.9970	41.5630
 0.9980	41.5930
 0.9990	41.6230
 1.0000	41.6540
 1.0010	41.6840
 1.0020	41.7140
 1.0030	41.7440
 1.0040	41.7750
 1.0050	41.8050
 1.0060	41.8350
 1.0070	41.8650
 1.0080	41.8960
 1.0090	41.9260
 1.0100	41.9260
 1.0110	41.9410
 1.0120	41.9530
 1.0130	41.9730
 1.0140	41.9850
 1.0150	41.9930
 1.0160	41.9940
 1.0170	42.0000
 1.0180	42.0090
 1.0190	42.0230
 1.0200	42.0370
 1.0210	42.0470
 1.0220	42.0530
 1.0230	42.0630
 1.0240	42.0730
 1.0250	42.0800
 1.0260	42.0860
 1.0270	42.0920
 1.0280	42.0920
 1.0290	42.0970
 1.0300	42.1070
 1.0310	42.1170
 1.0320	42.1330
 1.0330	42.1400
 1.0340	42.1540
 1.0350	42.1680
 1.0360	42.1740
 1.0370	42.1830
 1.0380	42.1880
 1.0390	42.1830
 1.0400	42.1870
 1.0410	42.1930
 1.0420	42.1990
 1.0430	42.2090
 1.0440	42.2150
 1.0450	42.2210
 1.0460	42.2260
 1.0470	42.2290
 1.0480	42.2320
 1.0490	42.2350
 1.0500	42.2380
 1.0510	42.2380
 1.0520	42.2490
 1.0530	42.2530
 1.0540	42.2570
 1.0550	42.2570
 1.0560	42.2570
 1.0570	42.2530
 1.0580	42.2410
 1.0590	42.2380
 1.0600	42.2330
 1.0610	42.2340
 1.0620	42.2490
 1.0630	42.2530
 1.0640	42.2520
 1.0650	42.2520
 1.0660	42.2460
 1.0670	42.2420
 1.0680	42.2390
 1.0690	42.2360
 1.0700	42.2350
 1.0710	42.2330
 1.0720	42.2350
 1.0730	42.2440
 1.0740	42.2440
 1.0750	42.2420
 1.0760	42.2400
 1.0770	42.2320
 1.0780	42.2260
 1.0790	42.2240
 1.0800	42.2180
 1.0810	42.2070
 1.0820	42.2000
 1.0830	42.1950
 1.0840	42.1910
 1.0850	42.1880
 1.0860	42.1890
 1.0870	42.1880
 1.0880	42.1870
 1.0890	42.1800
 1.0900	42.1700
 1.0910	42.1610
 1.0920	42.1460
 1.0930	42.1370
 1.0940	42.1350
 1.0950	42.1260
 1.0960	42.1140
 1.0970	42.1060
 1.0980	42.0980
 1.0990	42.0890
 1.1000	42.0820
 1.1010	42.0730
 1.1020	42.0590
 1.1030	42.0440
 1.1040	42.0340
 1.1050	42.0230
 1.1060	42.0150
 1.1070	42.0120
 1.1080	42.0030
 1.1090	41.9950
 1.1100	41.9820
 1.1110	41.9610
 1.1120	41.9460
 1.1130	41.9340
 1.1140	41.9180
 1.1150	41.9050
 1.1160	41.8890
 1.1170	41.8680
 1.1180	41.8470
 1.1190	41.8270
 1.1200	41.8050
 1.1210	41.7830
 1.1220	41.7590
 1.1230	41.7330
 1.1240	41.7050
 1.1250	41.6730
 1.1260	41.6370
 1.1270	41.5990
 1.1280	41.5590
 1.1290	41.5140
 1.1300	41.4670
 1.1310	41.4140
 1.1320	41.3580
 1.1330	41.2960
 1.1340	41.2260
 1.1350	41.1540
 1.1360	41.0760
 1.1370	41.0000
 1.1380	40.9180
 1.1390	40.8290
 1.1400	40.7420
 1.1410	40.6490
 1.1420	40.5540
 1.1430	40.4660
 1.1440	40.3730
 1.1450	40.2750
 1.1460	40.1820
 1.1470	40.0880
 1.1480	39.9990
 1.1490	39.9120
 1.1500	39.8280
 1.1510	39.7450
 1.1520	39.6680
 1.1530	39.5940
 1.1540	39.5270
 1.1550	39.4650
 1.1560	39.4110
 1.1570	39.3650
 1.1580	39.3240
 1.1590	39.2870
 1.1600	39.2560
 1.1610	39.2260
 1.1620	39.1990
 1.1630	39.1760
 1.1640	39.1550
 1.1650	39.1370
 1.1660	39.1240
 1.1670	39.1100
 1.1680	39.0990
 1.1690	39.0860
 1.1700	39.0680
 1.1710	39.0550
 1.1720	39.0460
 1.1730	39.0340
 1.1740	39.0230
 1.1750	39.0140
 1.1760	39.0020
 1.1770	38.9900
 1.1780	38.9790
 1.1790	38.9710
 1.1800	38.9600
 1.1810	38.9480
 1.1820	38.9390
 1.1830	38.9240
 1.1840	38.9090
 1.1850	38.8990
 1.1860	38.8870
 1.1870	38.8740
 1.1880	38.8630
 1.1890	38.8530
 1.1900	38.8430
 1.1910	38.8350
 1.1920	38.8290
 1.1930	38.8280
 1.1940	38.8230
 1.1950	38.8190
 1.1960	38.8150
 1.1970	38.8120
 1.1980	38.8070
 1.1990	38.8050
 1.2000	38.8050
 1.2010	38.8020
 1.2020	38.8080
 1.2030	38.8160
 1.2040	38.8220
 1.2050	38.8320
 1.2060	38.8360
 1.2070	38.8400
 1.2080	38.8470
 1.2090	38.8530
 1.2100	38.8620
 1.2110	38.8730
 1.2120	38.8860
 1.2130	38.8990
 1.2140	38.9140
 1.2150	38.9290
 1.2160	38.9480
 1.2170	38.9660
 1.2180	38.9820
 1.2190	39.0000
 1.2200	39.0150
 1.2210	39.0300
 1.2220	39.0480
 1.2230	39.0660
 1.2240	39.0870
 1.2250	39.1080
 1.2260	39.1270
 1.2270	39.1440
 1.2280	39.1590
 1.2290	39.1750
 1.2300	39.1940
 1.2310	39.2130
 1.2320	39.2310
 1.2330	39.2490
 1.2340	39.2640
 1.2350	39.2770
 1.2360	39.2900
 1.2370	39.3010
 1.2380	39.3080
 1.2390	39.3150
 1.2400	39.3230
 1.2410	39.3310
 1.2420	39.3440
 1.2430	39.3610
 1.2440	39.3730
 1.2450	39.3830
 1.2460	39.3910
 1.2470	39.3950
 1.2480	39.3990
 1.2490	39.4090
 1.2500	39.4180
 1.2510	39.4210
 1.2520	39.4270
 1.2530	39.4310
 1.2540	39.4340
 1.2550	39.4390
 1.2560	39.4390
 1.2570	39.4430
 1.2580	39.4470
 1.2590	39.4490
 1.2600	39.4550
 1.2610	39.4560
 1.2620	39.4530
 1.2630	39.4460
 1.2640	39.4430
 1.2650	39.4360
 1.2660	39.4300
 1.2670	39.4280
 1.2680	39.4220
 1.2690	39.4140
 1.2700	39.4080
 1.2710	39.3980
 1.2720	39.3920
 1.2730	39.3850
 1.2740	39.3750
 1.2750	39.3650
 1.2760	39.3510
 1.2770	39.3340
 1.2780	39.3230
 1.2790	39.3090
 1.2800	39.2910
 1.2810	39.2750
 1.2820	39.2600
 1.2830	39.2470
 1.2840	39.2350
 1.2850	39.2190
 1.2860	39.2030
 1.2870	39.1850
 1.2880	39.1640
 1.2890	39.1430
 1.2900	39.1230
 1.2910	39.0980
 1.2920	39.0700
 1.2930	39.0400
 1.2940	39.0080
 1.2950	38.9780
 1.2960	38.9480
 1.2970	38.9120
 1.2980	38.8770
 1.2990	38.8390
 1.3000	38.7970
 1.3010	38.7560
 1.3020	38.7130
 1.3030	38.6710
 1.3040	38.6300
 1.3050	38.5860
 1.3060	38.5380
 1.3070	38.4840
 1.3080	38.4280
 1.3090	38.3740
 1.3100	38.3180
 1.3110	38.2580
 1.3120	38.1950
 1.3130	38.1320
 1.3140	38.0660
 1.3150	37.9980
 1.3160	37.9290
 1.3170	37.8580
 1.3180	37.7840
 1.3190	37.7090
 1.3200	37.6320
 1.3210	37.5500
 1.3220	37.4630
 1.3230	37.3720
 1.3240	37.2810
 1.3250	37.1900
 1.3260	37.0950
 1.3270	37.0020
 1.3280	36.9090
 1.3290	36.8110
 1.3300	36.7140
 1.3310	36.6120
 1.3320	36.5040
 1.3330	36.4010
 1.3340	36.2980
 1.3350	36.1940
 1.3360	36.0880
 1.3370	35.9810
 1.3380	35.8710
 1.3390	35.7590
 1.3400	35.6500
 1.3410	35.5420
 1.3420	35.4350
 1.3430	35.3290
 1.3440	35.2220
 1.3450	35.1160
 1.3460	35.0090
 1.3470	34.9030
 1.3480	34.7960
 1.3490	34.6910
 1.3500	34.5880
 1.3510	34.4840
 1.3520	34.3820
 1.3530	34.2790
 1.3540	34.1730
 1.3550	34.0700
 1.3560	33.9670
 1.3570	33.8630
 1.3580	33.7590
 1.3590	33.6510
 1.3600	33.5380
 1.3610	33.4220
 1.3620	33.3030
 1.3630	33.1790
 1.3640	33.0490
 1.3650	32.9130
 1.3660	32.7690
 1.3670	32.6170
 1.3680	32.4580
 1.3690	32.2910
 1.3700	32.1100
 1.3710	31.9200
 1.3720	31.7170
 1.3730	31.4980
 1.3740	31.2670
 1.3750	31.0210
 1.3760	30.7570
 1.3770	30.4730
 1.3780	30.1640
 1.3790	29.8370
 1.3800	29.4910
 1.3810	29.1220
 1.3820	28.7340
 1.3830	28.3260
 1.3840	27.8980
 1.3850	27.4480
 1.3860	26.9860
 1.3870	26.5050
 1.3880	26.0160
 1.3890	25.5150
 1.3900	25.0000
 1.3910	24.4810
 1.3920	23.9560
 1.3930	23.4220
 1.3940	22.8860
 1.3950	22.3480
 1.3960	21.8140
 1.3970	21.2880
 1.3980	20.7730
 1.3990	20.2730
 1.4000	19.7850
 1.4010	19.3060
 1.4020	18.8470
 1.4030	18.4020
 1.4040	17.9750
 1.4050	17.5710
 1.4060	17.1860
 1.4070	16.8240
 1.4080	16.4830
 1.4090	16.1630
 1.4100	15.8650
 1.4110	15.5850
 1.4120	15.3250
 1.4130	15.0830
 1.4140	14.8570
 1.4150	14.6530
 1.4160	14.4640
 1.4170	14.2900
 1.4180	14.1340
 1.4190	13.9880
 1.4200	13.8560
 1.4210	13.7390
 1.4220	13.6320
 1.4230	13.5360
 1.4240	13.4490
 1.4250	13.3710
 1.4260	13.3010
 1.4270	13.2390
 1.4280	13.1870
 1.4290	13.1410
 1.4300	13.1020
 1.4310	13.0680
 1.4320	13.0400
 1.4330	13.0160
 1.4340	12.9990
 1.4350	12.9860
 1.4360	12.9780
 1.4370	12.9740
 1.4380	12.9740
 1.4390	12.9750
 1.4400	12.9810
 1.4410	12.9890
 1.4420	13.0000
 1.4430	13.0140
 1.4440	13.0300
 1.4450	13.0510
 1.4460	13.0710
 1.4470	13.0910
 1.4480	13.1130
 1.4490	13.1350
 1.4500	13.1570
 1.4510	13.1810
 1.4520	13.2050
 1.4530	13.2290
 1.4540	13.2540
 1.4550	13.2850
 1.4560	13.3190
 1.4570	13.3550
 1.4580	13.3940
 1.4590	13.4350
 1.4600	13.4770
 1.4610	13.5230
 1.4620	13.5760
 1.4630	13.6310
 1.4640	13.6910
 1.4650	13.7570
 1.4660	13.8270
 1.4670	13.9010
 1.4680	13.9820
 1.4690	14.0690
 1.4700	14.1600
 1.4710	14.2540
 1.4720	14.3520
 1.4730	14.4520
