Name: Quercus douglasii 1
Type: vegetation
Class: Tree
Genus: Quercus
Species: douglasii
Sample No.: VH270
Owner: UCSB
Wavelength Range: VSWIR
Origin: 34.7153; -120.0598; WGS84
Collection Date: 11/2/2013
Description: Samples were collected as part of the HyspIRI Airborne Campaign. 48 individual plants were sampled in three times in 2013 - spring  summer  and fall. The name of the sample includes a 1  2  or 3 which references a different individual of the species. Samples were taken to JPL and processed within 48 hours of collection. The same leaves were processed in the Nicolet and then measured using the ASD.
Measurement: Bidirectional reflectance
First Column: X
Second Column: Y
X Units: Wavelength (micrometers)
Y Units: Reflectance (percentage)
First X Value: 0.35
Last X Value: 2.5
Number of X Values: 2151
Additional Information: vegetation.tree.quercus.douglasii.vswir.vh270.ucsb.asd.ancillary.txt

 0.3500	 5.5640
 0.3510	 5.5860
 0.3520	 5.5100
 0.3530	 5.4820
 0.3540	 5.5460
 0.3550	 5.3410
 0.3560	 5.2010
 0.3570	 5.1670
 0.3580	 5.1380
 0.3590	 5.2000
 0.3600	 5.2580
 0.3610	 5.2530
 0.3620	 5.1930
 0.3630	 5.1750
 0.3640	 5.2060
 0.3650	 5.2460
 0.3660	 5.1840
 0.3670	 5.1690
 0.3680	 5.2020
 0.3690	 5.1870
 0.3700	 5.2760
 0.3710	 5.2620
 0.3720	 5.1150
 0.3730	 5.2010
 0.3740	 5.3250
 0.3750	 5.3420
 0.3760	 5.2060
 0.3770	 5.2440
 0.3780	 5.2630
 0.3790	 5.2410
 0.3800	 5.3050
 0.3810	 5.3110
 0.3820	 5.2880
 0.3830	 5.2730
 0.3840	 5.2500
 0.3850	 5.2590
 0.3860	 5.2920
 0.3870	 5.3210
 0.3880	 5.3090
 0.3890	 5.3280
 0.3900	 5.3920
 0.3910	 5.4520
 0.3920	 5.4370
 0.3930	 5.4110
 0.3940	 5.4230
 0.3950	 5.4070
 0.3960	 5.4260
 0.3970	 5.4690
 0.3980	 5.4970
 0.3990	 5.5250
 0.4000	 5.5700
 0.4010	 5.6310
 0.4020	 5.6800
 0.4030	 5.6640
 0.4040	 5.6600
 0.4050	 5.7350
 0.4060	 5.8010
 0.4070	 5.8360
 0.4080	 5.8630
 0.4090	 5.9320
 0.4100	 5.9770
 0.4110	 6.0180
 0.4120	 6.0680
 0.4130	 6.1060
 0.4140	 6.1810
 0.4150	 6.2680
 0.4160	 6.3350
 0.4170	 6.4220
 0.4180	 6.4970
 0.4190	 6.5490
 0.4200	 6.5940
 0.4210	 6.6540
 0.4220	 6.7180
 0.4230	 6.7790
 0.4240	 6.8510
 0.4250	 6.9170
 0.4260	 6.9700
 0.4270	 7.0120
 0.4280	 7.0720
 0.4290	 7.1290
 0.4300	 7.1810
 0.4310	 7.2590
 0.4320	 7.3060
 0.4330	 7.3500
 0.4340	 7.4210
 0.4350	 7.4750
 0.4360	 7.5190
 0.4370	 7.5590
 0.4380	 7.5960
 0.4390	 7.6070
 0.4400	 7.6330
 0.4410	 7.6830
 0.4420	 7.6950
 0.4430	 7.7040
 0.4440	 7.7250
 0.4450	 7.7610
 0.4460	 7.7930
 0.4470	 7.8120
 0.4480	 7.8240
 0.4490	 7.8400
 0.4500	 7.8540
 0.4510	 7.8680
 0.4520	 7.8840
 0.4530	 7.8990
 0.4540	 7.9180
 0.4550	 7.9380
 0.4560	 7.9510
 0.4570	 7.9820
 0.4580	 8.0120
 0.4590	 8.0290
 0.4600	 8.0430
 0.4610	 8.0690
 0.4620	 8.0990
 0.4630	 8.1220
 0.4640	 8.1480
 0.4650	 8.1860
 0.4660	 8.2280
 0.4670	 8.2530
 0.4680	 8.2850
 0.4690	 8.3230
 0.4700	 8.3590
 0.4710	 8.3830
 0.4720	 8.4020
 0.4730	 8.4250
 0.4740	 8.4590
 0.4750	 8.4730
 0.4760	 8.4900
 0.4770	 8.5170
 0.4780	 8.5250
 0.4790	 8.5520
 0.4800	 8.5820
 0.4810	 8.5890
 0.4820	 8.6070
 0.4830	 8.6320
 0.4840	 8.6570
 0.4850	 8.6730
 0.4860	 8.6970
 0.4870	 8.7300
 0.4880	 8.7680
 0.4890	 8.8050
 0.4900	 8.8520
 0.4910	 8.9020
 0.4920	 8.9450
 0.4930	 8.9970
 0.4940	 9.0710
 0.4950	 9.1600
 0.4960	 9.2290
 0.4970	 9.3110
 0.4980	 9.4080
 0.4990	 9.5120
 0.5000	 9.6160
 0.5010	 9.7370
 0.5020	 9.8750
 0.5030	10.0240
 0.5040	10.1820
 0.5050	10.3530
 0.5060	10.5390
 0.5070	10.7450
 0.5080	10.9610
 0.5090	11.1920
 0.5100	11.4490
 0.5110	11.7120
 0.5120	11.9920
 0.5130	12.2960
 0.5140	12.6220
 0.5150	12.9500
 0.5160	13.2930
 0.5170	13.6630
 0.5180	14.0340
 0.5190	14.4090
 0.5200	14.7920
 0.5210	15.1840
 0.5220	15.5740
 0.5230	15.9700
 0.5240	16.3700
 0.5250	16.7610
 0.5260	17.1430
 0.5270	17.5130
 0.5280	17.8660
 0.5290	18.2220
 0.5300	18.5640
 0.5310	18.8860
 0.5320	19.2010
 0.5330	19.5030
 0.5340	19.7920
 0.5350	20.0660
 0.5360	20.3190
 0.5370	20.5730
 0.5380	20.8260
 0.5390	21.0600
 0.5400	21.2930
 0.5410	21.5300
 0.5420	21.7650
 0.5430	21.9800
 0.5440	22.1900
 0.5450	22.3970
 0.5460	22.5980
 0.5470	22.7520
 0.5480	22.9040
 0.5490	23.0730
 0.5500	23.2420
 0.5510	23.3970
 0.5520	23.5450
 0.5530	23.6960
 0.5540	23.8290
 0.5550	23.9630
 0.5560	24.0970
 0.5570	24.2220
 0.5580	24.3440
 0.5590	24.4590
 0.5600	24.5690
 0.5610	24.6760
 0.5620	24.7760
 0.5630	24.8720
 0.5640	24.9690
 0.5650	25.0480
 0.5660	25.1220
 0.5670	25.1990
 0.5680	25.2740
 0.5690	25.3520
 0.5700	25.4180
 0.5710	25.4640
 0.5720	25.5220
 0.5730	25.5770
 0.5740	25.6290
 0.5750	25.6870
 0.5760	25.7520
 0.5770	25.8120
 0.5780	25.8590
 0.5790	25.9080
 0.5800	25.9540
 0.5810	25.9960
 0.5820	26.0370
 0.5830	26.0980
 0.5840	26.1590
 0.5850	26.2090
 0.5860	26.2490
 0.5870	26.2930
 0.5880	26.3440
 0.5890	26.4040
 0.5900	26.4790
 0.5910	26.5600
 0.5920	26.6320
 0.5930	26.6850
 0.5940	26.7400
 0.5950	26.8010
 0.5960	26.8680
 0.5970	26.9370
 0.5980	26.9990
 0.5990	27.0560
 0.6000	27.1100
 0.6010	27.1510
 0.6020	27.1860
 0.6030	27.2200
 0.6040	27.2540
 0.6050	27.2740
 0.6060	27.2920
 0.6070	27.3150
 0.6080	27.3110
 0.6090	27.3090
 0.6100	27.3270
 0.6110	27.3630
 0.6120	27.3570
 0.6130	27.3290
 0.6140	27.3030
 0.6150	27.2940
 0.6160	27.2960
 0.6170	27.3010
 0.6180	27.3080
 0.6190	27.3260
 0.6200	27.3470
 0.6210	27.3760
 0.6220	27.4210
 0.6230	27.4590
 0.6240	27.5010
 0.6250	27.5570
 0.6260	27.6090
 0.6270	27.6610
 0.6280	27.7180
 0.6290	27.7860
 0.6300	27.8510
 0.6310	27.9220
 0.6320	27.9940
 0.6330	28.0470
 0.6340	28.0960
 0.6350	28.1370
 0.6360	28.1630
 0.6370	28.1740
 0.6380	28.1700
 0.6390	28.1510
 0.6400	28.1160
 0.6410	28.0730
 0.6420	28.0150
 0.6430	27.9400
 0.6440	27.8530
 0.6450	27.7590
 0.6460	27.6610
 0.6470	27.5610
 0.6480	27.4580
 0.6490	27.3520
 0.6500	27.2500
 0.6510	27.1510
 0.6520	27.0500
 0.6530	26.9350
 0.6540	26.8040
 0.6550	26.6820
 0.6560	26.5320
 0.6570	26.3520
 0.6580	26.1590
 0.6590	25.9580
 0.6600	25.7300
 0.6610	25.4820
 0.6620	25.2430
 0.6630	25.0110
 0.6640	24.7850
 0.6650	24.5700
 0.6660	24.3690
 0.6670	24.1950
 0.6680	24.0520
 0.6690	23.9370
 0.6700	23.8640
 0.6710	23.8340
 0.6720	23.8380
 0.6730	23.8580
 0.6740	23.9170
 0.6750	24.0100
 0.6760	24.1280
 0.6770	24.2670
 0.6780	24.4320
 0.6790	24.6230
 0.6800	24.8440
 0.6810	25.1170
 0.6820	25.4370
 0.6830	25.8040
 0.6840	26.2240
 0.6850	26.7200
 0.6860	27.2780
 0.6870	27.8750
 0.6880	28.5200
 0.6890	29.2240
 0.6900	29.9680
 0.6910	30.7160
 0.6920	31.4810
 0.6930	32.2410
 0.6940	32.9820
 0.6950	33.6990
 0.6960	34.4080
 0.6970	35.0940
 0.6980	35.7340
 0.6990	36.3410
 0.7000	36.9120
 0.7010	37.4460
 0.7020	37.9440
 0.7030	38.4200
 0.7040	38.8570
 0.7050	39.2500
 0.7060	39.6370
 0.7070	39.9960
 0.7080	40.3120
 0.7090	40.5860
 0.7100	40.8790
 0.7110	41.1550
 0.7120	41.4050
 0.7130	41.6460
 0.7140	41.8620
 0.7150	42.0630
 0.7160	42.2600
 0.7170	42.4440
 0.7180	42.6430
 0.7190	42.8330
 0.7200	42.9830
 0.7210	43.1520
 0.7220	43.3050
 0.7230	43.4390
 0.7240	43.5870
 0.7250	43.7340
 0.7260	43.8600
 0.7270	43.9650
 0.7280	44.1090
 0.7290	44.2320
 0.7300	44.3290
 0.7310	44.4210
 0.7320	44.5330
 0.7330	44.6350
 0.7340	44.7230
 0.7350	44.8210
 0.7360	44.9230
 0.7370	45.0200
 0.7380	45.1040
 0.7390	45.1710
 0.7400	45.2440
 0.7410	45.3250
 0.7420	45.4050
 0.7430	45.4660
 0.7440	45.5350
 0.7450	45.6130
 0.7460	45.6770
 0.7470	45.7220
 0.7480	45.7730
 0.7490	45.8420
 0.7500	45.9000
 0.7510	45.9530
 0.7520	46.0100
 0.7530	46.0730
 0.7540	46.1120
 0.7550	46.1480
 0.7560	46.1940
 0.7570	46.2520
 0.7580	46.3080
 0.7590	46.3520
 0.7600	46.3810
 0.7610	46.4110
 0.7620	46.4580
 0.7630	46.5090
 0.7640	46.5450
 0.7650	46.5890
 0.7660	46.6220
 0.7670	46.6550
 0.7680	46.7110
 0.7690	46.7420
 0.7700	46.7670
 0.7710	46.8050
 0.7720	46.8620
 0.7730	46.8980
 0.7740	46.9260
 0.7750	46.9650
 0.7760	46.9930
 0.7770	47.0300
 0.7780	47.0640
 0.7790	47.0750
 0.7800	47.1080
 0.7810	47.1540
 0.7820	47.1970
 0.7830	47.2220
 0.7840	47.2580
 0.7850	47.3000
 0.7860	47.3390
 0.7870	47.3590
 0.7880	47.3890
 0.7890	47.4270
 0.7900	47.4660
 0.7910	47.5070
 0.7920	47.5320
 0.7930	47.5540
 0.7940	47.6020
 0.7950	47.6280
 0.7960	47.6590
 0.7970	47.7060
 0.7980	47.7440
 0.7990	47.7650
 0.8000	47.7870
 0.8010	47.8210
 0.8020	47.8500
 0.8030	47.8810
 0.8040	47.9180
 0.8050	47.9610
 0.8060	48.0150
 0.8070	48.0420
 0.8080	48.0530
 0.8090	48.0950
 0.8100	48.1310
 0.8110	48.1700
 0.8120	48.2130
 0.8130	48.2410
 0.8140	48.2780
 0.8150	48.3120
 0.8160	48.3340
 0.8170	48.3640
 0.8180	48.3940
 0.8190	48.4290
 0.8200	48.4740
 0.8210	48.4920
 0.8220	48.5180
 0.8230	48.5600
 0.8240	48.5960
 0.8250	48.6230
 0.8260	48.6610
 0.8270	48.7120
 0.8280	48.7460
 0.8290	48.7680
 0.8300	48.7970
 0.8310	48.8330
 0.8320	48.8270
 0.8330	48.8500
 0.8340	48.8970
 0.8350	48.9310
 0.8360	48.9530
 0.8370	48.9710
 0.8380	48.9960
 0.8390	49.0370
 0.8400	49.0860
 0.8410	49.1260
 0.8420	49.1500
 0.8430	49.1780
 0.8440	49.1990
 0.8450	49.2090
 0.8460	49.2180
 0.8470	49.2600
 0.8480	49.2950
 0.8490	49.3170
 0.8500	49.3360
 0.8510	49.3750
 0.8520	49.4010
 0.8530	49.4170
 0.8540	49.4450
 0.8550	49.4700
 0.8560	49.4900
 0.8570	49.5070
 0.8580	49.5320
 0.8590	49.5680
 0.8600	49.5980
 0.8610	49.6130
 0.8620	49.6250
 0.8630	49.6200
 0.8640	49.6320
 0.8650	49.6810
 0.8660	49.7090
 0.8670	49.6990
 0.8680	49.6940
 0.8690	49.7320
 0.8700	49.7550
 0.8710	49.7840
 0.8720	49.8070
 0.8730	49.8010
 0.8740	49.8120
 0.8750	49.8300
 0.8760	49.8440
 0.8770	49.8510
 0.8780	49.8590
 0.8790	49.8750
 0.8800	49.8960
 0.8810	49.8990
 0.8820	49.9150
 0.8830	49.9380
 0.8840	49.9550
 0.8850	49.9580
 0.8860	49.9530
 0.8870	49.9510
 0.8880	49.9570
 0.8890	49.9630
 0.8900	49.9660
 0.8910	49.9800
 0.8920	50.0140
 0.8930	50.0080
 0.8940	49.9900
 0.8950	49.9850
 0.8960	50.0090
 0.8970	50.0070
 0.8980	50.0010
 0.8990	50.0040
 0.9000	50.0120
 0.9010	50.0160
 0.9020	50.0330
 0.9030	50.0560
 0.9040	50.0460
 0.9050	50.0600
 0.9060	50.0690
 0.9070	50.0600
 0.9080	50.0650
 0.9090	50.0700
 0.9100	50.0690
 0.9110	50.0620
 0.9120	50.0650
 0.9130	50.0590
 0.9140	50.0620
 0.9150	50.0790
 0.9160	50.0490
 0.9170	50.0250
 0.9180	50.0270
 0.9190	50.0520
 0.9200	50.0720
 0.9210	50.0660
 0.9220	50.0500
 0.9230	50.0520
 0.9240	50.0380
 0.9250	50.0230
 0.9260	50.0130
 0.9270	50.0110
 0.9280	50.0400
 0.9290	50.0580
 0.9300	50.0480
 0.9310	50.0260
 0.9320	50.0210
 0.9330	50.0140
 0.9340	50.0000
 0.9350	49.9980
 0.9360	50.0060
 0.9370	49.9940
 0.9380	49.9650
 0.9390	49.9700
 0.9400	49.9640
 0.9410	49.9580
 0.9420	49.9490
 0.9430	49.9030
 0.9440	49.8710
 0.9450	49.8590
 0.9460	49.8510
 0.9470	49.8240
 0.9480	49.8080
 0.9490	49.7890
 0.9500	49.7600
 0.9510	49.7550
 0.9520	49.7340
 0.9530	49.7010
 0.9540	49.6700
 0.9550	49.6320
 0.9560	49.5860
 0.9570	49.5490
 0.9580	49.5320
 0.9590	49.5220
 0.9600	49.5180
 0.9610	49.5100
 0.9620	49.4880
 0.9630	49.4550
 0.9640	49.4350
 0.9650	49.4260
 0.9660	49.4140
 0.9670	49.3910
 0.9680	49.3950
 0.9690	49.4050
 0.9700	49.3840
 0.9710	49.3640
 0.9720	49.3680
 0.9730	49.3810
 0.9740	49.3780
 0.9750	49.3920
 0.9760	49.3860
 0.9770	49.3750
 0.9780	49.3900
 0.9790	49.3860
 0.9800	49.3840
 0.9810	49.3980
 0.9820	49.4260
 0.9830	49.4280
 0.9840	49.4210
 0.9850	49.4260
 0.9860	49.4530
 0.9870	49.4650
 0.9880	49.5100
 0.9890	49.5570
 0.9900	49.5530
 0.9910	49.5390
 0.9920	49.5520
 0.9930	49.5840
 0.9940	49.6060
 0.9950	49.6030
 0.9960	49.6100
 0.9970	49.6360
 0.9980	49.6660
 0.9990	49.6520
 1.0000	49.6590
 1.0010	49.6730
 1.0020	49.6960
 1.0030	49.7130
 1.0040	49.7380
 1.0050	49.7650
 1.0060	49.7840
 1.0070	49.7990
 1.0080	49.8170
 1.0090	49.8310
 1.0100	49.8500
 1.0110	49.8720
 1.0120	49.8930
 1.0130	49.9180
 1.0140	49.9360
 1.0150	49.9500
 1.0160	49.9700
 1.0170	49.9800
 1.0180	49.9870
 1.0190	50.0000
 1.0200	50.0090
 1.0210	50.0240
 1.0220	50.0390
 1.0230	50.0550
 1.0240	50.0740
 1.0250	50.0890
 1.0260	50.1040
 1.0270	50.1170
 1.0280	50.1290
 1.0290	50.1410
 1.0300	50.1530
 1.0310	50.1650
 1.0320	50.1790
 1.0330	50.1880
 1.0340	50.2000
 1.0350	50.2130
 1.0360	50.2270
 1.0370	50.2400
 1.0380	50.2480
 1.0390	50.2520
 1.0400	50.2600
 1.0410	50.2660
 1.0420	50.2740
 1.0430	50.2870
 1.0440	50.2980
 1.0450	50.3060
 1.0460	50.3150
 1.0470	50.3230
 1.0480	50.3320
 1.0490	50.3410
 1.0500	50.3480
 1.0510	50.3530
 1.0520	50.3610
 1.0530	50.3670
 1.0540	50.3690
 1.0550	50.3740
 1.0560	50.3800
 1.0570	50.3850
 1.0580	50.3920
 1.0590	50.3960
 1.0600	50.4000
 1.0610	50.4030
 1.0620	50.4040
 1.0630	50.4060
 1.0640	50.4080
 1.0650	50.4080
 1.0660	50.4070
 1.0670	50.4060
 1.0680	50.4050
 1.0690	50.4030
 1.0700	50.4010
 1.0710	50.4010
 1.0720	50.3970
 1.0730	50.3880
 1.0740	50.3880
 1.0750	50.3940
 1.0760	50.3930
 1.0770	50.3940
 1.0780	50.3920
 1.0790	50.3800
 1.0800	50.3750
 1.0810	50.3800
 1.0820	50.3780
 1.0830	50.3730
 1.0840	50.3680
 1.0850	50.3650
 1.0860	50.3540
 1.0870	50.3450
 1.0880	50.3350
 1.0890	50.3270
 1.0900	50.3170
 1.0910	50.3100
 1.0920	50.3100
 1.0930	50.3040
 1.0940	50.2950
 1.0950	50.2860
 1.0960	50.2760
 1.0970	50.2660
 1.0980	50.2570
 1.0990	50.2470
 1.1000	50.2370
 1.1010	50.2270
 1.1020	50.2180
 1.1030	50.2080
 1.1040	50.1980
 1.1050	50.1850
 1.1060	50.1720
 1.1070	50.1560
 1.1080	50.1450
 1.1090	50.1370
 1.1100	50.1240
 1.1110	50.1130
 1.1120	50.0980
 1.1130	50.0780
 1.1140	50.0600
 1.1150	50.0410
 1.1160	50.0230
 1.1170	50.0060
 1.1180	49.9860
 1.1190	49.9650
 1.1200	49.9440
 1.1210	49.9190
 1.1220	49.8890
 1.1230	49.8660
 1.1240	49.8400
 1.1250	49.8080
 1.1260	49.7770
 1.1270	49.7400
 1.1280	49.6940
 1.1290	49.6510
 1.1300	49.6100
 1.1310	49.5610
 1.1320	49.5080
 1.1330	49.4520
 1.1340	49.3930
 1.1350	49.3260
 1.1360	49.2530
 1.1370	49.1770
 1.1380	49.0960
 1.1390	49.0130
 1.1400	48.9290
 1.1410	48.8430
 1.1420	48.7590
 1.1430	48.6700
 1.1440	48.5810
 1.1450	48.4910
 1.1460	48.4020
 1.1470	48.3070
 1.1480	48.2210
 1.1490	48.1410
 1.1500	48.0600
 1.1510	47.9790
 1.1520	47.9030
 1.1530	47.8300
 1.1540	47.7610
 1.1550	47.6950
 1.1560	47.6370
 1.1570	47.5860
 1.1580	47.5360
 1.1590	47.4960
 1.1600	47.4630
 1.1610	47.4310
 1.1620	47.4030
 1.1630	47.3790
 1.1640	47.3570
 1.1650	47.3400
 1.1660	47.3270
 1.1670	47.3140
 1.1680	47.3020
 1.1690	47.2920
 1.1700	47.2820
 1.1710	47.2740
 1.1720	47.2690
 1.1730	47.2640
 1.1740	47.2600
 1.1750	47.2550
 1.1760	47.2480
 1.1770	47.2420
 1.1780	47.2350
 1.1790	47.2280
 1.1800	47.2210
 1.1810	47.2130
 1.1820	47.2020
 1.1830	47.1920
 1.1840	47.1830
 1.1850	47.1740
 1.1860	47.1670
 1.1870	47.1590
 1.1880	47.1500
 1.1890	47.1400
 1.1900	47.1320
 1.1910	47.1250
 1.1920	47.1180
 1.1930	47.1150
 1.1940	47.1110
 1.1950	47.1060
 1.1960	47.1030
 1.1970	47.1000
 1.1980	47.0960
 1.1990	47.0940
 1.2000	47.0930
 1.2010	47.0930
 1.2020	47.0980
 1.2030	47.1030
 1.2040	47.1070
 1.2050	47.1130
 1.2060	47.1220
 1.2070	47.1330
 1.2080	47.1450
 1.2090	47.1600
 1.2100	47.1740
 1.2110	47.1880
 1.2120	47.2030
 1.2130	47.2180
 1.2140	47.2310
 1.2150	47.2470
 1.2160	47.2650
 1.2170	47.2810
 1.2180	47.3020
 1.2190	47.3220
 1.2200	47.3380
 1.2210	47.3560
 1.2220	47.3730
 1.2230	47.3850
 1.2240	47.4050
 1.2250	47.4270
 1.2260	47.4440
 1.2270	47.4630
 1.2280	47.4810
 1.2290	47.4930
 1.2300	47.5070
 1.2310	47.5230
 1.2320	47.5390
 1.2330	47.5560
 1.2340	47.5730
 1.2350	47.5910
 1.2360	47.6050
 1.2370	47.6180
 1.2380	47.6320
 1.2390	47.6430
 1.2400	47.6560
 1.2410	47.6720
 1.2420	47.6830
 1.2430	47.6950
 1.2440	47.7100
 1.2450	47.7210
 1.2460	47.7320
 1.2470	47.7420
 1.2480	47.7470
 1.2490	47.7540
 1.2500	47.7590
 1.2510	47.7660
 1.2520	47.7750
 1.2530	47.7810
 1.2540	47.7870
 1.2550	47.7900
 1.2560	47.7940
 1.2570	47.8010
 1.2580	47.8070
 1.2590	47.8100
 1.2600	47.8120
 1.2610	47.8150
 1.2620	47.8170
 1.2630	47.8160
 1.2640	47.8190
 1.2650	47.8210
 1.2660	47.8180
 1.2670	47.8200
 1.2680	47.8210
 1.2690	47.8170
 1.2700	47.8140
 1.2710	47.8100
 1.2720	47.8040
 1.2730	47.8000
 1.2740	47.7950
 1.2750	47.7870
 1.2760	47.7830
 1.2770	47.7760
 1.2780	47.7670
 1.2790	47.7600
 1.2800	47.7490
 1.2810	47.7370
 1.2820	47.7270
 1.2830	47.7150
 1.2840	47.7010
 1.2850	47.6870
 1.2860	47.6720
 1.2870	47.6570
 1.2880	47.6430
 1.2890	47.6290
 1.2900	47.6110
 1.2910	47.5930
 1.2920	47.5710
 1.2930	47.5470
 1.2940	47.5200
 1.2950	47.4930
 1.2960	47.4650
 1.2970	47.4380
 1.2980	47.4100
 1.2990	47.3820
 1.3000	47.3520
 1.3010	47.3210
 1.3020	47.2890
 1.3030	47.2550
 1.3040	47.2160
 1.3050	47.1740
 1.3060	47.1310
 1.3070	47.0850
 1.3080	47.0350
 1.3090	46.9880
 1.3100	46.9390
 1.3110	46.8860
 1.3120	46.8340
 1.3130	46.7770
 1.3140	46.7160
 1.3150	46.6500
 1.3160	46.5840
 1.3170	46.5170
 1.3180	46.4480
 1.3190	46.3790
 1.3200	46.3100
 1.3210	46.2350
 1.3220	46.1590
 1.3230	46.0780
 1.3240	45.9940
 1.3250	45.9110
 1.3260	45.8240
 1.3270	45.7370
 1.3280	45.6480
 1.3290	45.5570
 1.3300	45.4650
 1.3310	45.3690
 1.3320	45.2700
 1.3330	45.1700
 1.3340	45.0690
 1.3350	44.9670
 1.3360	44.8630
 1.3370	44.7580
 1.3380	44.6540
 1.3390	44.5480
 1.3400	44.4400
 1.3410	44.3350
 1.3420	44.2310
 1.3430	44.1260
 1.3440	44.0230
 1.3450	43.9190
 1.3460	43.8140
 1.3470	43.7110
 1.3480	43.6080
 1.3490	43.5080
 1.3500	43.4130
 1.3510	43.3150
 1.3520	43.2180
 1.3530	43.1220
 1.3540	43.0200
 1.3550	42.9220
 1.3560	42.8240
 1.3570	42.7220
 1.3580	42.6230
 1.3590	42.5220
 1.3600	42.4170
 1.3610	42.3090
 1.3620	42.1990
 1.3630	42.0830
 1.3640	41.9600
 1.3650	41.8370
 1.3660	41.7070
 1.3670	41.5690
 1.3680	41.4260
 1.3690	41.2710
 1.3700	41.1040
 1.3710	40.9280
 1.3720	40.7420
 1.3730	40.5450
 1.3740	40.3380
 1.3750	40.1170
 1.3760	39.8810
 1.3770	39.6260
 1.3780	39.3510
 1.3790	39.0590
 1.3800	38.7470
 1.3810	38.4100
 1.3820	38.0550
 1.3830	37.6810
 1.3840	37.2890
 1.3850	36.8780
 1.3860	36.4520
 1.3870	36.0060
 1.3880	35.5520
 1.3890	35.0820
 1.3900	34.6010
 1.3910	34.1170
 1.3920	33.6200
 1.3930	33.1150
 1.3940	32.6070
 1.3950	32.0880
 1.3960	31.5730
 1.3970	31.0600
 1.3980	30.5480
 1.3990	30.0510
 1.4000	29.5610
 1.4010	29.0800
 1.4020	28.6150
 1.4030	28.1600
 1.4040	27.7200
 1.4050	27.3010
 1.4060	26.8960
 1.4070	26.5140
 1.4080	26.1480
 1.4090	25.7990
 1.4100	25.4720
 1.4110	25.1620
 1.4120	24.8740
 1.4130	24.6060
 1.4140	24.3570
 1.4150	24.1290
 1.4160	23.9190
 1.4170	23.7240
 1.4180	23.5440
 1.4190	23.3770
 1.4200	23.2250
 1.4210	23.0880
 1.4220	22.9650
 1.4230	22.8550
 1.4240	22.7540
 1.4250	22.6640
 1.4260	22.5850
 1.4270	22.5140
 1.4280	22.4550
 1.4290	22.4010
 1.4300	22.3550
 1.4310	22.3140
 1.4320	22.2800
 1.4330	22.2510
 1.4340	22.2290
 1.4350	22.2100
 1.4360	22.1970
 1.4370	22.1900
 1.4380	22.1860
 1.4390	22.1860
 1.4400	22.1880
 1.4410	22.1930
 1.4420	22.2030
 1.4430	22.2130
 1.4440	22.2260
 1.4450	22.2400
 1.4460	22.2560
 1.4470	22.2740
 1.4480	22.2940
 1.4490	22.3150
 1.4500	22.3370
 1.4510	22.3590
 1.4520	22.3810
 1.4530	22.4040
 1.4540	22.4290
 1.4550	22.4560
 1.4560	22.4870
 1.4570	22.5200
 1.4580	22.5550
 1.4590	22.5910
 1.4600	22.6320
 1.4610	22.6770
 1.4620	22.7260
 1.4630	22.7800
 1.4640	22.8370
 1.4650	22.8980
 1.4660	22.9640
 1.4670	23.0350
 1.4680	23.1120
 1.4690	23.1930
 1.4700	23.2790
