Name: Baccharis pilularis 1
Type: vegetation
Class: Shrub
Genus: Baccharis
Species: pilularis
Sample No.: VH098
Owner: UCSB
Wavelength Range: VSWIR
Origin: 34.418; -119.8455; WGS84
Collection Date: 6/3/2013
Description: Samples were collected as part of the HyspIRI Airborne Campaign. 48 individual plants were sampled in three times in 2013 - spring  summer  and fall. The name of the sample includes a 1  2  or 3 which references a different individual of the species. Samples were taken to JPL and processed within 48 hours of collection. The same leaves were processed in the Nicolet and then measured using the ASD.
Measurement: Bidirectional reflectance
First Column: X
Second Column: Y
X Units: Wavelength (micrometers)
Y Units: Reflectance (percentage)
First X Value: 0.35
Last X Value: 2.5
Number of X Values: 2151
Additional Information: vegetation.shrub.baccharis.pilularis.vswir.vh098.ucsb.asd.ancillary.txt

 0.3500	 3.1230
 0.3510	 3.1010
 0.3520	 2.9620
 0.3530	 2.8750
 0.3540	 2.9790
 0.3550	 3.1890
 0.3560	 3.1860
 0.3570	 3.1020
 0.3580	 3.2330
 0.3590	 3.0700
 0.3600	 2.9090
 0.3610	 2.8990
 0.3620	 2.8790
 0.3630	 2.9170
 0.3640	 3.0010
 0.3650	 3.0730
 0.3660	 2.9600
 0.3670	 2.9010
 0.3680	 2.9270
 0.3690	 2.9220
 0.3700	 2.8540
 0.3710	 2.8600
 0.3720	 2.9860
 0.3730	 3.1010
 0.3740	 3.0460
 0.3750	 2.9470
 0.3760	 2.9760
 0.3770	 3.0160
 0.3780	 3.0550
 0.3790	 3.0700
 0.3800	 3.0360
 0.3810	 3.0410
 0.3820	 3.0630
 0.3830	 3.0680
 0.3840	 3.0390
 0.3850	 3.0150
 0.3860	 3.0470
 0.3870	 3.1500
 0.3880	 3.1660
 0.3890	 3.1080
 0.3900	 3.0590
 0.3910	 3.1400
 0.3920	 3.1680
 0.3930	 3.1580
 0.3940	 3.1600
 0.3950	 3.2020
 0.3960	 3.2250
 0.3970	 3.2450
 0.3980	 3.3010
 0.3990	 3.3520
 0.4000	 3.3780
 0.4010	 3.3780
 0.4020	 3.3670
 0.4030	 3.3930
 0.4040	 3.4550
 0.4050	 3.5250
 0.4060	 3.5260
 0.4070	 3.5440
 0.4080	 3.5810
 0.4090	 3.5900
 0.4100	 3.6290
 0.4110	 3.6600
 0.4120	 3.6740
 0.4130	 3.7270
 0.4140	 3.7810
 0.4150	 3.8110
 0.4160	 3.8140
 0.4170	 3.8620
 0.4180	 3.9200
 0.4190	 3.9650
 0.4200	 3.9900
 0.4210	 4.0220
 0.4220	 4.0550
 0.4230	 4.0820
 0.4240	 4.1170
 0.4250	 4.1610
 0.4260	 4.2000
 0.4270	 4.2190
 0.4280	 4.2480
 0.4290	 4.2770
 0.4300	 4.3050
 0.4310	 4.3580
 0.4320	 4.3970
 0.4330	 4.4250
 0.4340	 4.4530
 0.4350	 4.4720
 0.4360	 4.4980
 0.4370	 4.5260
 0.4380	 4.5340
 0.4390	 4.5430
 0.4400	 4.5500
 0.4410	 4.5570
 0.4420	 4.5980
 0.4430	 4.6170
 0.4440	 4.6220
 0.4450	 4.6430
 0.4460	 4.6810
 0.4470	 4.7160
 0.4480	 4.7360
 0.4490	 4.7410
 0.4500	 4.7620
 0.4510	 4.7920
 0.4520	 4.8170
 0.4530	 4.8270
 0.4540	 4.8400
 0.4550	 4.8600
 0.4560	 4.8790
 0.4570	 4.8860
 0.4580	 4.8900
 0.4590	 4.8990
 0.4600	 4.9160
 0.4610	 4.9250
 0.4620	 4.9340
 0.4630	 4.9530
 0.4640	 4.9470
 0.4650	 4.9510
 0.4660	 4.9680
 0.4670	 4.9680
 0.4680	 4.9610
 0.4690	 4.9560
 0.4700	 4.9610
 0.4710	 4.9760
 0.4720	 4.9860
 0.4730	 4.9930
 0.4740	 5.0030
 0.4750	 5.0090
 0.4760	 5.0140
 0.4770	 5.0200
 0.4780	 5.0240
 0.4790	 5.0320
 0.4800	 5.0390
 0.4810	 5.0390
 0.4820	 5.0480
 0.4830	 5.0650
 0.4840	 5.0810
 0.4850	 5.0800
 0.4860	 5.0970
 0.4870	 5.1180
 0.4880	 5.1270
 0.4890	 5.1390
 0.4900	 5.1600
 0.4910	 5.1840
 0.4920	 5.2030
 0.4930	 5.2290
 0.4940	 5.2570
 0.4950	 5.2860
 0.4960	 5.3250
 0.4970	 5.3630
 0.4980	 5.4030
 0.4990	 5.4490
 0.5000	 5.4960
 0.5010	 5.5440
 0.5020	 5.6010
 0.5030	 5.6730
 0.5040	 5.7420
 0.5050	 5.8140
 0.5060	 5.8990
 0.5070	 5.9980
 0.5080	 6.0980
 0.5090	 6.2070
 0.5100	 6.3320
 0.5110	 6.4600
 0.5120	 6.5950
 0.5130	 6.7420
 0.5140	 6.9080
 0.5150	 7.0700
 0.5160	 7.2370
 0.5170	 7.4200
 0.5180	 7.6120
 0.5190	 7.8130
 0.5200	 8.0190
 0.5210	 8.2190
 0.5220	 8.4240
 0.5230	 8.6320
 0.5240	 8.8390
 0.5250	 9.0290
 0.5260	 9.2160
 0.5270	 9.3990
 0.5280	 9.5710
 0.5290	 9.7360
 0.5300	 9.8890
 0.5310	10.0280
 0.5320	10.1500
 0.5330	10.2690
 0.5340	10.3780
 0.5350	10.4710
 0.5360	10.5630
 0.5370	10.6460
 0.5380	10.7200
 0.5390	10.7890
 0.5400	10.8570
 0.5410	10.9270
 0.5420	10.9980
 0.5430	11.0610
 0.5440	11.1160
 0.5450	11.1640
 0.5460	11.2060
 0.5470	11.2290
 0.5480	11.2490
 0.5490	11.2750
 0.5500	11.2990
 0.5510	11.3170
 0.5520	11.3280
 0.5530	11.3280
 0.5540	11.3130
 0.5550	11.2850
 0.5560	11.2450
 0.5570	11.1970
 0.5580	11.1410
 0.5590	11.0730
 0.5600	10.9950
 0.5610	10.9140
 0.5620	10.8270
 0.5630	10.7360
 0.5640	10.6400
 0.5650	10.5390
 0.5660	10.4330
 0.5670	10.3220
 0.5680	10.2050
 0.5690	10.0820
 0.5700	 9.9560
 0.5710	 9.8300
 0.5720	 9.7110
 0.5730	 9.5960
 0.5740	 9.4830
 0.5750	 9.3770
 0.5760	 9.2770
 0.5770	 9.1850
 0.5780	 9.0980
 0.5790	 9.0140
 0.5800	 8.9400
 0.5810	 8.8710
 0.5820	 8.8050
 0.5830	 8.7450
 0.5840	 8.6850
 0.5850	 8.6240
 0.5860	 8.5720
 0.5870	 8.5270
 0.5880	 8.4850
 0.5890	 8.4410
 0.5900	 8.3980
 0.5910	 8.3600
 0.5920	 8.3280
 0.5930	 8.2980
 0.5940	 8.2720
 0.5950	 8.2500
 0.5960	 8.2300
 0.5970	 8.2100
 0.5980	 8.1880
 0.5990	 8.1660
 0.6000	 8.1420
 0.6010	 8.1130
 0.6020	 8.0810
 0.6030	 8.0470
 0.6040	 8.0070
 0.6050	 7.9650
 0.6060	 7.9190
 0.6070	 7.8650
 0.6080	 7.8100
 0.6090	 7.7570
 0.6100	 7.7100
 0.6110	 7.6710
 0.6120	 7.6080
 0.6130	 7.5350
 0.6140	 7.4630
 0.6150	 7.3980
 0.6160	 7.3370
 0.6170	 7.2790
 0.6180	 7.2280
 0.6190	 7.1860
 0.6200	 7.1500
 0.6210	 7.1180
 0.6220	 7.0870
 0.6230	 7.0590
 0.6240	 7.0370
 0.6250	 7.0210
 0.6260	 7.0050
 0.6270	 6.9930
 0.6280	 6.9840
 0.6290	 6.9780
 0.6300	 6.9700
 0.6310	 6.9600
 0.6320	 6.9480
 0.6330	 6.9300
 0.6340	 6.9050
 0.6350	 6.8750
 0.6360	 6.8400
 0.6370	 6.7980
 0.6380	 6.7470
 0.6390	 6.6870
 0.6400	 6.6240
 0.6410	 6.5610
 0.6420	 6.4970
 0.6430	 6.4320
 0.6440	 6.3700
 0.6450	 6.3030
 0.6460	 6.2360
 0.6470	 6.1750
 0.6480	 6.1180
 0.6490	 6.0700
 0.6500	 6.0310
 0.6510	 5.9940
 0.6520	 5.9610
 0.6530	 5.9300
 0.6540	 5.8990
 0.6550	 5.8650
 0.6560	 5.8300
 0.6570	 5.7920
 0.6580	 5.7480
 0.6590	 5.6990
 0.6600	 5.6500
 0.6610	 5.6040
 0.6620	 5.5550
 0.6630	 5.5110
 0.6640	 5.4700
 0.6650	 5.4300
 0.6660	 5.3960
 0.6670	 5.3720
 0.6680	 5.3530
 0.6690	 5.3350
 0.6700	 5.3250
 0.6710	 5.3220
 0.6720	 5.3250
 0.6730	 5.3300
 0.6740	 5.3360
 0.6750	 5.3480
 0.6760	 5.3660
 0.6770	 5.3850
 0.6780	 5.4100
 0.6790	 5.4400
 0.6800	 5.4760
 0.6810	 5.5180
 0.6820	 5.5700
 0.6830	 5.6340
 0.6840	 5.7040
 0.6850	 5.7890
 0.6860	 5.8940
 0.6870	 6.0190
 0.6880	 6.1740
 0.6890	 6.3650
 0.6900	 6.5990
 0.6910	 6.8770
 0.6920	 7.2060
 0.6930	 7.5880
 0.6940	 8.0240
 0.6950	 8.5150
 0.6960	 9.0500
 0.6970	 9.6320
 0.6980	10.2600
 0.6990	10.9200
 0.7000	11.6100
 0.7010	12.3280
 0.7020	13.0660
 0.7030	13.8200
 0.7040	14.5860
 0.7050	15.3590
 0.7060	16.1340
 0.7070	16.9130
 0.7080	17.6920
 0.7090	18.4710
 0.7100	19.2510
 0.7110	20.0330
 0.7120	20.8160
 0.7130	21.5970
 0.7140	22.3700
 0.7150	23.1390
 0.7160	23.9040
 0.7170	24.6660
 0.7180	25.4160
 0.7190	26.1560
 0.7200	26.8880
 0.7210	27.6040
 0.7220	28.3060
 0.7230	28.9930
 0.7240	29.6570
 0.7250	30.3050
 0.7260	30.9280
 0.7270	31.5210
 0.7280	32.0980
 0.7290	32.6480
 0.7300	33.1710
 0.7310	33.6700
 0.7320	34.1450
 0.7330	34.5930
 0.7340	35.0170
 0.7350	35.4180
 0.7360	35.7970
 0.7370	36.1540
 0.7380	36.4880
 0.7390	36.8000
 0.7400	37.0900
 0.7410	37.3610
 0.7420	37.6150
 0.7430	37.8500
 0.7440	38.0680
 0.7450	38.2690
 0.7460	38.4540
 0.7470	38.6280
 0.7480	38.7840
 0.7490	38.9220
 0.7500	39.0570
 0.7510	39.1780
 0.7520	39.2860
 0.7530	39.3850
 0.7540	39.4810
 0.7550	39.5690
 0.7560	39.6480
 0.7570	39.7150
 0.7580	39.7800
 0.7590	39.8430
 0.7600	39.9020
 0.7610	39.9590
 0.7620	40.0080
 0.7630	40.0520
 0.7640	40.0930
 0.7650	40.1310
 0.7660	40.1690
 0.7670	40.2080
 0.7680	40.2440
 0.7690	40.2730
 0.7700	40.3010
 0.7710	40.3300
 0.7720	40.3570
 0.7730	40.3850
 0.7740	40.4110
 0.7750	40.4340
 0.7760	40.4580
 0.7770	40.4840
 0.7780	40.5100
 0.7790	40.5330
 0.7800	40.5570
 0.7810	40.5830
 0.7820	40.6090
 0.7830	40.6300
 0.7840	40.6530
 0.7850	40.6790
 0.7860	40.7050
 0.7870	40.7270
 0.7880	40.7530
 0.7890	40.7760
 0.7900	40.7940
 0.7910	40.8160
 0.7920	40.8360
 0.7930	40.8530
 0.7940	40.8740
 0.7950	40.8960
 0.7960	40.9120
 0.7970	40.9250
 0.7980	40.9480
 0.7990	40.9640
 0.8000	40.9790
 0.8010	40.9990
 0.8020	41.0120
 0.8030	41.0250
 0.8040	41.0390
 0.8050	41.0540
 0.8060	41.0650
 0.8070	41.0770
 0.8080	41.0900
 0.8090	41.1000
 0.8100	41.1090
 0.8110	41.1210
 0.8120	41.1350
 0.8130	41.1420
 0.8140	41.1480
 0.8150	41.1540
 0.8160	41.1630
 0.8170	41.1750
 0.8180	41.1830
 0.8190	41.1870
 0.8200	41.1950
 0.8210	41.2050
 0.8220	41.2140
 0.8230	41.2200
 0.8240	41.2190
 0.8250	41.2210
 0.8260	41.2260
 0.8270	41.2310
 0.8280	41.2290
 0.8290	41.2270
 0.8300	41.2250
 0.8310	41.2250
 0.8320	41.2340
 0.8330	41.2370
 0.8340	41.2370
 0.8350	41.2410
 0.8360	41.2450
 0.8370	41.2530
 0.8380	41.2630
 0.8390	41.2690
 0.8400	41.2710
 0.8410	41.2770
 0.8420	41.2890
 0.8430	41.2990
 0.8440	41.3080
 0.8450	41.3190
 0.8460	41.3310
 0.8470	41.3400
 0.8480	41.3480
 0.8490	41.3600
 0.8500	41.3750
 0.8510	41.3800
 0.8520	41.3900
 0.8530	41.4040
 0.8540	41.4140
 0.8550	41.4220
 0.8560	41.4340
 0.8570	41.4520
 0.8580	41.4690
 0.8590	41.4790
 0.8600	41.4850
 0.8610	41.4930
 0.8620	41.5170
 0.8630	41.5280
 0.8640	41.5380
 0.8650	41.5590
 0.8660	41.5770
 0.8670	41.5900
 0.8680	41.6000
 0.8690	41.6120
 0.8700	41.6290
 0.8710	41.6460
 0.8720	41.6620
 0.8730	41.6770
 0.8740	41.6940
 0.8750	41.7070
 0.8760	41.7200
 0.8770	41.7390
 0.8780	41.7570
 0.8790	41.7760
 0.8800	41.7950
 0.8810	41.8120
 0.8820	41.8270
 0.8830	41.8450
 0.8840	41.8660
 0.8850	41.8800
 0.8860	41.8960
 0.8870	41.9150
 0.8880	41.9360
 0.8890	41.9570
 0.8900	41.9730
 0.8910	41.9830
 0.8920	41.9920
 0.8930	42.0140
 0.8940	42.0320
 0.8950	42.0450
 0.8960	42.0620
 0.8970	42.0770
 0.8980	42.0970
 0.8990	42.1190
 0.9000	42.1380
 0.9010	42.1500
 0.9020	42.1650
 0.9030	42.1860
 0.9040	42.1960
 0.9050	42.2160
 0.9060	42.2380
 0.9070	42.2520
 0.9080	42.2500
 0.9090	42.2590
 0.9100	42.2790
 0.9110	42.3040
 0.9120	42.3210
 0.9130	42.3310
 0.9140	42.3410
 0.9150	42.3560
 0.9160	42.3600
 0.9170	42.3670
 0.9180	42.3790
 0.9190	42.3900
 0.9200	42.3910
 0.9210	42.3970
 0.9220	42.4070
 0.9230	42.4120
 0.9240	42.4070
 0.9250	42.4030
 0.9260	42.4010
 0.9270	42.3950
 0.9280	42.3790
 0.9290	42.3660
 0.9300	42.3560
 0.9310	42.3410
 0.9320	42.3250
 0.9330	42.3080
 0.9340	42.2900
 0.9350	42.2680
 0.9360	42.2460
 0.9370	42.2160
 0.9380	42.1790
 0.9390	42.1500
 0.9400	42.1250
 0.9410	42.1000
 0.9420	42.0690
 0.9430	42.0210
 0.9440	41.9790
 0.9450	41.9400
 0.9460	41.8930
 0.9470	41.8350
 0.9480	41.7790
 0.9490	41.7170
 0.9500	41.6430
 0.9510	41.5610
 0.9520	41.4800
 0.9530	41.4020
 0.9540	41.3230
 0.9550	41.2450
 0.9560	41.1770
 0.9570	41.1110
 0.9580	41.0410
 0.9590	40.9710
 0.9600	40.9140
 0.9610	40.8710
 0.9620	40.8370
 0.9630	40.7940
 0.9640	40.7580
 0.9650	40.7350
 0.9660	40.7270
 0.9670	40.7170
 0.9680	40.6970
 0.9690	40.6850
 0.9700	40.6940
 0.9710	40.7010
 0.9720	40.6940
 0.9730	40.6840
 0.9740	40.6890
 0.9750	40.6880
 0.9760	40.6930
 0.9770	40.7000
 0.9780	40.7050
 0.9790	40.7260
 0.9800	40.7460
 0.9810	40.7560
 0.9820	40.7650
 0.9830	40.7960
 0.9840	40.8190
 0.9850	40.8310
 0.9860	40.8480
 0.9870	40.8880
 0.9880	40.9230
 0.9890	40.9520
 0.9900	40.9840
 0.9910	41.0020
 0.9920	41.0700
 0.9930	41.1370
 0.9940	41.2040
 0.9950	41.2720
 0.9960	41.3390
 0.9970	41.4070
 0.9980	41.4740
 0.9990	41.5410
 1.0000	41.6090
 1.0010	41.6760
 1.0020	41.7430
 1.0030	41.8110
 1.0040	41.8780
 1.0050	41.9460
 1.0060	42.0130
 1.0070	42.0800
 1.0080	42.1480
 1.0090	42.2150
 1.0100	42.2150
 1.0110	42.2570
 1.0120	42.2970
 1.0130	42.3330
 1.0140	42.3720
 1.0150	42.4130
 1.0160	42.4540
 1.0170	42.4930
 1.0180	42.5320
 1.0190	42.5670
 1.0200	42.6030
 1.0210	42.6410
 1.0220	42.6780
 1.0230	42.7170
 1.0240	42.7570
 1.0250	42.7960
 1.0260	42.8360
 1.0270	42.8730
 1.0280	42.9090
 1.0290	42.9430
 1.0300	42.9750
 1.0310	43.0090
 1.0320	43.0450
 1.0330	43.0760
 1.0340	43.1090
 1.0350	43.1420
 1.0360	43.1720
 1.0370	43.2040
 1.0380	43.2350
 1.0390	43.2650
 1.0400	43.2930
 1.0410	43.3210
 1.0420	43.3490
 1.0430	43.3780
 1.0440	43.4050
 1.0450	43.4320
 1.0460	43.4590
 1.0470	43.4840
 1.0480	43.5090
 1.0490	43.5370
 1.0500	43.5600
 1.0510	43.5810
 1.0520	43.5990
 1.0530	43.6180
 1.0540	43.6330
 1.0550	43.6530
 1.0560	43.6740
 1.0570	43.6940
 1.0580	43.7170
 1.0590	43.7340
 1.0600	43.7460
 1.0610	43.7600
 1.0620	43.7720
 1.0630	43.7850
 1.0640	43.8030
 1.0650	43.8150
 1.0660	43.8230
 1.0670	43.8340
 1.0680	43.8460
 1.0690	43.8580
 1.0700	43.8670
 1.0710	43.8780
 1.0720	43.8850
 1.0730	43.8880
 1.0740	43.8920
 1.0750	43.8970
 1.0760	43.9000
 1.0770	43.8990
 1.0780	43.9000
 1.0790	43.9000
 1.0800	43.9010
 1.0810	43.9040
 1.0820	43.9040
 1.0830	43.9040
 1.0840	43.9030
 1.0850	43.9010
 1.0860	43.8980
 1.0870	43.8940
 1.0880	43.8890
 1.0890	43.8840
 1.0900	43.8770
 1.0910	43.8700
 1.0920	43.8620
 1.0930	43.8530
 1.0940	43.8440
 1.0950	43.8330
 1.0960	43.8220
 1.0970	43.8110
 1.0980	43.8010
 1.0990	43.7880
 1.1000	43.7750
 1.1010	43.7610
 1.1020	43.7450
 1.1030	43.7260
 1.1040	43.7130
 1.1050	43.6980
 1.1060	43.6840
 1.1070	43.6710
 1.1080	43.6570
 1.1090	43.6440
 1.1100	43.6270
 1.1110	43.6100
 1.1120	43.5920
 1.1130	43.5720
 1.1140	43.5500
 1.1150	43.5290
 1.1160	43.5030
 1.1170	43.4760
 1.1180	43.4440
 1.1190	43.4080
 1.1200	43.3700
 1.1210	43.3300
 1.1220	43.2840
 1.1230	43.2320
 1.1240	43.1790
 1.1250	43.1160
 1.1260	43.0480
 1.1270	42.9690
 1.1280	42.8830
 1.1290	42.7850
 1.1300	42.6770
 1.1310	42.5600
 1.1320	42.4330
 1.1330	42.2950
 1.1340	42.1460
 1.1350	41.9890
 1.1360	41.8210
 1.1370	41.6450
 1.1380	41.4600
 1.1390	41.2710
 1.1400	41.0770
 1.1410	40.8800
 1.1420	40.6830
 1.1430	40.4840
 1.1440	40.2870
 1.1450	40.0860
 1.1460	39.8980
 1.1470	39.7150
 1.1480	39.5420
 1.1490	39.3780
 1.1500	39.2250
 1.1510	39.0800
 1.1520	38.9480
 1.1530	38.8270
 1.1540	38.7160
 1.1550	38.6150
 1.1560	38.5260
 1.1570	38.4490
 1.1580	38.3820
 1.1590	38.3230
 1.1600	38.2730
 1.1610	38.2290
 1.1620	38.1900
 1.1630	38.1560
 1.1640	38.1270
 1.1650	38.1010
 1.1660	38.0780
 1.1670	38.0600
 1.1680	38.0490
 1.1690	38.0350
 1.1700	38.0260
 1.1710	38.0150
 1.1720	38.0010
 1.1730	37.9890
 1.1740	37.9780
 1.1750	37.9680
 1.1760	37.9580
 1.1770	37.9470
 1.1780	37.9340
 1.1790	37.9190
 1.1800	37.9040
 1.1810	37.8890
 1.1820	37.8760
 1.1830	37.8620
 1.1840	37.8490
 1.1850	37.8350
 1.1860	37.8230
 1.1870	37.8130
 1.1880	37.8050
 1.1890	37.8020
 1.1900	37.7980
 1.1910	37.7950
 1.1920	37.7940
 1.1930	37.7940
 1.1940	37.7960
 1.1950	37.8000
 1.1960	37.8070
 1.1970	37.8160
 1.1980	37.8290
 1.1990	37.8450
 1.2000	37.8610
 1.2010	37.8800
 1.2020	37.9020
 1.2030	37.9260
 1.2040	37.9500
 1.2050	37.9750
 1.2060	38.0010
 1.2070	38.0270
 1.2080	38.0560
 1.2090	38.0870
 1.2100	38.1190
 1.2110	38.1510
 1.2120	38.1820
 1.2130	38.2170
 1.2140	38.2510
 1.2150	38.2870
 1.2160	38.3260
 1.2170	38.3650
 1.2180	38.4030
 1.2190	38.4440
 1.2200	38.4850
 1.2210	38.5260
 1.2220	38.5660
 1.2230	38.6050
 1.2240	38.6450
 1.2250	38.6820
 1.2260	38.7210
 1.2270	38.7590
 1.2280	38.7980
 1.2290	38.8370
 1.2300	38.8750
 1.2310	38.9140
 1.2320	38.9480
 1.2330	38.9820
 1.2340	39.0150
 1.2350	39.0460
 1.2360	39.0770
 1.2370	39.1070
 1.2380	39.1380
 1.2390	39.1680
 1.2400	39.1980
 1.2410	39.2270
 1.2420	39.2560
 1.2430	39.2840
 1.2440	39.3130
 1.2450	39.3410
 1.2460	39.3680
 1.2470	39.3930
 1.2480	39.4170
 1.2490	39.4390
 1.2500	39.4600
 1.2510	39.4820
 1.2520	39.5060
 1.2530	39.5290
 1.2540	39.5490
 1.2550	39.5700
 1.2560	39.5850
 1.2570	39.5980
 1.2580	39.6110
 1.2590	39.6240
 1.2600	39.6360
 1.2610	39.6460
 1.2620	39.6550
 1.2630	39.6630
 1.2640	39.6690
 1.2650	39.6730
 1.2660	39.6770
 1.2670	39.6790
 1.2680	39.6790
 1.2690	39.6770
 1.2700	39.6750
 1.2710	39.6710
 1.2720	39.6650
 1.2730	39.6580
 1.2740	39.6480
 1.2750	39.6370
 1.2760	39.6230
 1.2770	39.6070
 1.2780	39.5910
 1.2790	39.5720
 1.2800	39.5510
 1.2810	39.5300
 1.2820	39.5060
 1.2830	39.4790
 1.2840	39.4500
 1.2850	39.4170
 1.2860	39.3830
 1.2870	39.3460
 1.2880	39.3080
 1.2890	39.2680
 1.2900	39.2240
 1.2910	39.1750
 1.2920	39.1250
 1.2930	39.0730
 1.2940	39.0180
 1.2950	38.9610
 1.2960	38.9010
 1.2970	38.8370
 1.2980	38.7700
 1.2990	38.6990
 1.3000	38.6270
 1.3010	38.5490
 1.3020	38.4680
 1.3030	38.3840
 1.3040	38.2920
 1.3050	38.1980
 1.3060	38.1020
 1.3070	38.0020
 1.3080	37.9000
 1.3090	37.7950
 1.3100	37.6870
 1.3110	37.5730
 1.3120	37.4540
 1.3130	37.3330
 1.3140	37.2080
 1.3150	37.0790
 1.3160	36.9470
 1.3170	36.8120
 1.3180	36.6720
 1.3190	36.5280
 1.3200	36.3800
 1.3210	36.2280
 1.3220	36.0740
 1.3230	35.9180
 1.3240	35.7580
 1.3250	35.5970
 1.3260	35.4350
 1.3270	35.2680
 1.3280	35.1010
 1.3290	34.9310
 1.3300	34.7590
 1.3310	34.5850
 1.3320	34.4110
 1.3330	34.2390
 1.3340	34.0660
 1.3350	33.8930
 1.3360	33.7210
 1.3370	33.5480
 1.3380	33.3760
 1.3390	33.2060
 1.3400	33.0380
 1.3410	32.8720
 1.3420	32.7070
 1.3430	32.5440
 1.3440	32.3850
 1.3450	32.2280
 1.3460	32.0720
 1.3470	31.9180
 1.3480	31.7660
 1.3490	31.6160
 1.3500	31.4680
 1.3510	31.3240
 1.3520	31.1810
 1.3530	31.0370
 1.3540	30.8940
 1.3550	30.7500
 1.3560	30.6040
 1.3570	30.4590
 1.3580	30.3130
 1.3590	30.1610
 1.3600	30.0040
 1.3610	29.8450
 1.3620	29.6770
 1.3630	29.5040
 1.3640	29.3250
 1.3650	29.1350
 1.3660	28.9390
 1.3670	28.7330
 1.3680	28.5130
 1.3690	28.2810
 1.3700	28.0340
 1.3710	27.7730
 1.3720	27.4960
 1.3730	27.2010
 1.3740	26.8900
 1.3750	26.5590
 1.3760	26.2080
 1.3770	25.8370
 1.3780	25.4400
 1.3790	25.0230
 1.3800	24.5870
 1.3810	24.1260
 1.3820	23.6550
 1.3830	23.1670
 1.3840	22.6670
 1.3850	22.1520
 1.3860	21.6320
 1.3870	21.0960
 1.3880	20.5650
 1.3890	20.0300
 1.3900	19.4950
 1.3910	18.9690
 1.3920	18.4470
 1.3930	17.9310
 1.3940	17.4260
 1.3950	16.9280
 1.3960	16.4470
 1.3970	15.9830
 1.3980	15.5360
 1.3990	15.1140
 1.4000	14.7100
 1.4010	14.3240
 1.4020	13.9630
 1.4030	13.6180
 1.4040	13.2950
 1.4050	12.9950
 1.4060	12.7120
 1.4070	12.4510
 1.4080	12.2080
 1.4090	11.9810
 1.4100	11.7730
 1.4110	11.5800
 1.4120	11.4010
 1.4130	11.2380
 1.4140	11.0860
 1.4150	10.9490
 1.4160	10.8240
 1.4170	10.7080
 1.4180	10.6030
 1.4190	10.5050
 1.4200	10.4150
 1.4210	10.3330
 1.4220	10.2580
 1.4230	10.1910
 1.4240	10.1290
 1.4250	10.0730
 1.4260	10.0220
 1.4270	 9.9760
 1.4280	 9.9330
 1.4290	 9.8960
 1.4300	 9.8620
 1.4310	 9.8320
 1.4320	 9.8070
 1.4330	 9.7830
 1.4340	 9.7630
 1.4350	 9.7450
 1.4360	 9.7300
 1.4370	 9.7170
 1.4380	 9.7070
 1.4390	 9.6990
 1.4400	 9.6940
 1.4410	 9.6900
 1.4420	 9.6900
 1.4430	 9.6900
 1.4440	 9.6920
 1.4450	 9.6950
 1.4460	 9.6990
 1.4470	 9.7050
 1.4480	 9.7110
 1.4490	 9.7190
 1.4500	 9.7270
 1.4510	 9.7380
 1.4520	 9.7490
 1.4530	 9.7620
 1.4540	 9.7760
 1.4550	 9.7910
 1.4560	 9.8080
 1.4570	 9.8270
 1.4580	 9.8490
 1.4590	 9.8740
 1.4600	 9.9030
 1.4610	 9.9340
 1.4620	 9.9680
 1.4630	10.0060
 1.4640	10.0470
 1.4650	10.0910
 1.4660	10.1400
 1.4670	10.1910
 1.4680	10.2470
 1.4690	10.3060
 1.4700	10.3670
