Name: Umbellularia californica 2
Type: vegetation
Class: Shrub
Genus: Umbellularia
Species: californica
Sample No.: VH028
Owner: UCSB
Wavelength Range: VSWIR
Origin: 34.5074; -119.7632; WGS84
Collection Date: 4/1/2013
Description: Samples were collected as part of the HyspIRI Airborne Campaign. 48 individual plants were sampled in three times in 2013 - spring  summer  and fall. The name of the sample includes a 1  2  or 3 which references a different individual of the species. Samples were taken to JPL and processed within 48 hours of collection. The same leaves were processed in the Nicolet and then measured using the ASD.
Measurement: Bidirectional reflectance
First Column: X
Second Column: Y
X Units: Wavelength (micrometers)
Y Units: Reflectance (percentage)
First X Value: 0.35
Last X Value: 2.5
Number of X Values: 2151
Additional Information: vegetation.shrub.umbellularia.californica.vswir.vh028.ucsb.asd.ancillary.txt

 0.3500	 5.1680
 0.3510	 5.0200
 0.3520	 5.0660
 0.3530	 5.1300
 0.3540	 5.0440
 0.3550	 5.0940
 0.3560	 5.1070
 0.3570	 5.0800
 0.3580	 5.0870
 0.3590	 4.9370
 0.3600	 4.9590
 0.3610	 5.1830
 0.3620	 5.1720
 0.3630	 5.1420
 0.3640	 5.1120
 0.3650	 5.0650
 0.3660	 5.0650
 0.3670	 5.0440
 0.3680	 5.0290
 0.3690	 5.1010
 0.3700	 5.1210
 0.3710	 5.0840
 0.3720	 5.0480
 0.3730	 5.1580
 0.3740	 5.1000
 0.3750	 5.0050
 0.3760	 5.0700
 0.3770	 5.0880
 0.3780	 5.0630
 0.3790	 5.0440
 0.3800	 5.1040
 0.3810	 5.1120
 0.3820	 5.0830
 0.3830	 5.0640
 0.3840	 5.1170
 0.3850	 5.0650
 0.3860	 4.9920
 0.3870	 5.0470
 0.3880	 5.1230
 0.3890	 5.1150
 0.3900	 5.0390
 0.3910	 5.0330
 0.3920	 5.0810
 0.3930	 5.0760
 0.3940	 4.9840
 0.3950	 5.0120
 0.3960	 5.0630
 0.3970	 5.0940
 0.3980	 5.0900
 0.3990	 5.0660
 0.4000	 5.0600
 0.4010	 5.0770
 0.4020	 5.0820
 0.4030	 5.0790
 0.4040	 5.0610
 0.4050	 5.0310
 0.4060	 5.0510
 0.4070	 5.0540
 0.4080	 5.0460
 0.4090	 5.0740
 0.4100	 5.0850
 0.4110	 5.0770
 0.4120	 5.0680
 0.4130	 5.1010
 0.4140	 5.1030
 0.4150	 5.0980
 0.4160	 5.1200
 0.4170	 5.1130
 0.4180	 5.1170
 0.4190	 5.1330
 0.4200	 5.1260
 0.4210	 5.1540
 0.4220	 5.1890
 0.4230	 5.2040
 0.4240	 5.2030
 0.4250	 5.2210
 0.4260	 5.2410
 0.4270	 5.2290
 0.4280	 5.2790
 0.4290	 5.3110
 0.4300	 5.3020
 0.4310	 5.3260
 0.4320	 5.3610
 0.4330	 5.3840
 0.4340	 5.3820
 0.4350	 5.3890
 0.4360	 5.4050
 0.4370	 5.4230
 0.4380	 5.4340
 0.4390	 5.4560
 0.4400	 5.4770
 0.4410	 5.4880
 0.4420	 5.5020
 0.4430	 5.5160
 0.4440	 5.5250
 0.4450	 5.5240
 0.4460	 5.5400
 0.4470	 5.5620
 0.4480	 5.5830
 0.4490	 5.5980
 0.4500	 5.6110
 0.4510	 5.6180
 0.4520	 5.6210
 0.4530	 5.6400
 0.4540	 5.6560
 0.4550	 5.6630
 0.4560	 5.6680
 0.4570	 5.6840
 0.4580	 5.6940
 0.4590	 5.6920
 0.4600	 5.7030
 0.4610	 5.7020
 0.4620	 5.7030
 0.4630	 5.7220
 0.4640	 5.7230
 0.4650	 5.7300
 0.4660	 5.7440
 0.4670	 5.7410
 0.4680	 5.7490
 0.4690	 5.7530
 0.4700	 5.7430
 0.4710	 5.7530
 0.4720	 5.7570
 0.4730	 5.7510
 0.4740	 5.7440
 0.4750	 5.7520
 0.4760	 5.7520
 0.4770	 5.7400
 0.4780	 5.7530
 0.4790	 5.7580
 0.4800	 5.7530
 0.4810	 5.7460
 0.4820	 5.7600
 0.4830	 5.7630
 0.4840	 5.7550
 0.4850	 5.7670
 0.4860	 5.7790
 0.4870	 5.7890
 0.4880	 5.8000
 0.4890	 5.8120
 0.4900	 5.8300
 0.4910	 5.8460
 0.4920	 5.8500
 0.4930	 5.8760
 0.4940	 5.9010
 0.4950	 5.9180
 0.4960	 5.9480
 0.4970	 5.9710
 0.4980	 5.9990
 0.4990	 6.0430
 0.5000	 6.0740
 0.5010	 6.1120
 0.5020	 6.1600
 0.5030	 6.2040
 0.5040	 6.2470
 0.5050	 6.3000
 0.5060	 6.3670
 0.5070	 6.4260
 0.5080	 6.4950
 0.5090	 6.5740
 0.5100	 6.6550
 0.5110	 6.7450
 0.5120	 6.8420
 0.5130	 6.9470
 0.5140	 7.0610
 0.5150	 7.1790
 0.5160	 7.3020
 0.5170	 7.4330
 0.5180	 7.5650
 0.5190	 7.7100
 0.5200	 7.8700
 0.5210	 8.0380
 0.5220	 8.2030
 0.5230	 8.3720
 0.5240	 8.5500
 0.5250	 8.7180
 0.5260	 8.8970
 0.5270	 9.0820
 0.5280	 9.2580
 0.5290	 9.4380
 0.5300	 9.6130
 0.5310	 9.7820
 0.5320	 9.9560
 0.5330	10.1330
 0.5340	10.3030
 0.5350	10.4610
 0.5360	10.6260
 0.5370	10.7870
 0.5380	10.9410
 0.5390	11.0940
 0.5400	11.2400
 0.5410	11.3860
 0.5420	11.5340
 0.5430	11.6700
 0.5440	11.8020
 0.5450	11.9320
 0.5460	12.0600
 0.5470	12.1680
 0.5480	12.2700
 0.5490	12.3710
 0.5500	12.4690
 0.5510	12.5530
 0.5520	12.6260
 0.5530	12.6890
 0.5540	12.7280
 0.5550	12.7530
 0.5560	12.7660
 0.5570	12.7620
 0.5580	12.7330
 0.5590	12.6910
 0.5600	12.6460
 0.5610	12.5890
 0.5620	12.5150
 0.5630	12.4290
 0.5640	12.3360
 0.5650	12.2300
 0.5660	12.1180
 0.5670	12.0040
 0.5680	11.8800
 0.5690	11.7470
 0.5700	11.6120
 0.5710	11.4800
 0.5720	11.3390
 0.5730	11.2040
 0.5740	11.0800
 0.5750	10.9620
 0.5760	10.8530
 0.5770	10.7470
 0.5780	10.6410
 0.5790	10.5380
 0.5800	10.4360
 0.5810	10.3390
 0.5820	10.2540
 0.5830	10.1850
 0.5840	10.1240
 0.5850	10.0670
 0.5860	10.0090
 0.5870	 9.9480
 0.5880	 9.8930
 0.5890	 9.8490
 0.5900	 9.8230
 0.5910	 9.8010
 0.5920	 9.7740
 0.5930	 9.7360
 0.5940	 9.6910
 0.5950	 9.6480
 0.5960	 9.6120
 0.5970	 9.5910
 0.5980	 9.5720
 0.5990	 9.5510
 0.6000	 9.5240
 0.6010	 9.4940
 0.6020	 9.4550
 0.6030	 9.4090
 0.6040	 9.3630
 0.6050	 9.3030
 0.6060	 9.2370
 0.6070	 9.1690
 0.6080	 9.0940
 0.6090	 9.0160
 0.6100	 8.9360
 0.6110	 8.8570
 0.6120	 8.7760
 0.6130	 8.6940
 0.6140	 8.6130
 0.6150	 8.5300
 0.6160	 8.4550
 0.6170	 8.3880
 0.6180	 8.3250
 0.6190	 8.2680
 0.6200	 8.2140
 0.6210	 8.1660
 0.6220	 8.1300
 0.6230	 8.0950
 0.6240	 8.0610
 0.6250	 8.0330
 0.6260	 8.0150
 0.6270	 7.9990
 0.6280	 7.9850
 0.6290	 7.9740
 0.6300	 7.9640
 0.6310	 7.9570
 0.6320	 7.9500
 0.6330	 7.9340
 0.6340	 7.9140
 0.6350	 7.8930
 0.6360	 7.8690
 0.6370	 7.8270
 0.6380	 7.7790
 0.6390	 7.7280
 0.6400	 7.6700
 0.6410	 7.6030
 0.6420	 7.5350
 0.6430	 7.4670
 0.6440	 7.3900
 0.6450	 7.3130
 0.6460	 7.2370
 0.6470	 7.1640
 0.6480	 7.0960
 0.6490	 7.0330
 0.6500	 6.9760
 0.6510	 6.9280
 0.6520	 6.8800
 0.6530	 6.8330
 0.6540	 6.7850
 0.6550	 6.7370
 0.6560	 6.6810
 0.6570	 6.6210
 0.6580	 6.5610
 0.6590	 6.4860
 0.6600	 6.4110
 0.6610	 6.3430
 0.6620	 6.2770
 0.6630	 6.2090
 0.6640	 6.1430
 0.6650	 6.0850
 0.6660	 6.0320
 0.6670	 5.9870
 0.6680	 5.9480
 0.6690	 5.9140
 0.6700	 5.8850
 0.6710	 5.8630
 0.6720	 5.8470
 0.6730	 5.8330
 0.6740	 5.8250
 0.6750	 5.8190
 0.6760	 5.8140
 0.6770	 5.8170
 0.6780	 5.8200
 0.6790	 5.8230
 0.6800	 5.8360
 0.6810	 5.8580
 0.6820	 5.8860
 0.6830	 5.9210
 0.6840	 5.9740
 0.6850	 6.0430
 0.6860	 6.1310
 0.6870	 6.2480
 0.6880	 6.3960
 0.6890	 6.5840
 0.6900	 6.8190
 0.6910	 7.1030
 0.6920	 7.4460
 0.6930	 7.8570
 0.6940	 8.3360
 0.6950	 8.8820
 0.6960	 9.4960
 0.6970	10.1780
 0.6980	10.9260
 0.6990	11.7280
 0.7000	12.5740
 0.7010	13.4560
 0.7020	14.3670
 0.7030	15.3040
 0.7040	16.2530
 0.7050	17.2010
 0.7060	18.1410
 0.7070	19.0760
 0.7080	20.0040
 0.7090	20.9240
 0.7100	21.8250
 0.7110	22.7080
 0.7120	23.5760
 0.7130	24.4380
 0.7140	25.2730
 0.7150	26.0900
 0.7160	26.8940
 0.7170	27.6720
 0.7180	28.4380
 0.7190	29.1870
 0.7200	29.9070
 0.7210	30.6040
 0.7220	31.2880
 0.7230	31.9560
 0.7240	32.5960
 0.7250	33.2070
 0.7260	33.7980
 0.7270	34.3700
 0.7280	34.9100
 0.7290	35.4230
 0.7300	35.9130
 0.7310	36.3840
 0.7320	36.8320
 0.7330	37.2530
 0.7340	37.6490
 0.7350	38.0300
 0.7360	38.3870
 0.7370	38.7230
 0.7380	39.0420
 0.7390	39.3410
 0.7400	39.6240
 0.7410	39.8920
 0.7420	40.1460
 0.7430	40.3810
 0.7440	40.5960
 0.7450	40.7950
 0.7460	40.9870
 0.7470	41.1660
 0.7480	41.3380
 0.7490	41.5020
 0.7500	41.6410
 0.7510	41.7750
 0.7520	41.9010
 0.7530	42.0130
 0.7540	42.1130
 0.7550	42.2120
 0.7560	42.3100
 0.7570	42.3970
 0.7580	42.4740
 0.7590	42.5460
 0.7600	42.6160
 0.7610	42.6790
 0.7620	42.7370
 0.7630	42.7900
 0.7640	42.8370
 0.7650	42.8850
 0.7660	42.9240
 0.7670	42.9590
 0.7680	43.0080
 0.7690	43.0550
 0.7700	43.0900
 0.7710	43.1150
 0.7720	43.1460
 0.7730	43.1770
 0.7740	43.2080
 0.7750	43.2400
 0.7760	43.2570
 0.7770	43.2870
 0.7780	43.3200
 0.7790	43.3350
 0.7800	43.3600
 0.7810	43.3810
 0.7820	43.3990
 0.7830	43.4290
 0.7840	43.4540
 0.7850	43.4720
 0.7860	43.4860
 0.7870	43.5090
 0.7880	43.5220
 0.7890	43.5340
 0.7900	43.5610
 0.7910	43.5890
 0.7920	43.6060
 0.7930	43.6120
 0.7940	43.6130
 0.7950	43.6290
 0.7960	43.6450
 0.7970	43.6560
 0.7980	43.6770
 0.7990	43.6860
 0.8000	43.6930
 0.8010	43.7080
 0.8020	43.7120
 0.8030	43.7150
 0.8040	43.7210
 0.8050	43.7300
 0.8060	43.7300
 0.8070	43.7320
 0.8080	43.7380
 0.8090	43.7440
 0.8100	43.7420
 0.8110	43.7430
 0.8120	43.7500
 0.8130	43.7410
 0.8140	43.7260
 0.8150	43.7150
 0.8160	43.7120
 0.8170	43.7150
 0.8180	43.7110
 0.8190	43.7090
 0.8200	43.7130
 0.8210	43.6890
 0.8220	43.6750
 0.8230	43.6730
 0.8240	43.6520
 0.8250	43.6360
 0.8260	43.6260
 0.8270	43.6180
 0.8280	43.6080
 0.8290	43.5950
 0.8300	43.5760
 0.8310	43.5500
 0.8320	43.5470
 0.8330	43.5320
 0.8340	43.5080
 0.8350	43.4900
 0.8360	43.4810
 0.8370	43.4650
 0.8380	43.4440
 0.8390	43.4320
 0.8400	43.4270
 0.8410	43.4160
 0.8420	43.3970
 0.8430	43.3870
 0.8440	43.3730
 0.8450	43.3630
 0.8460	43.3610
 0.8470	43.3400
 0.8480	43.3230
 0.8490	43.3170
 0.8500	43.3120
 0.8510	43.2940
 0.8520	43.2800
 0.8530	43.2700
 0.8540	43.2560
 0.8550	43.2480
 0.8560	43.2360
 0.8570	43.2200
 0.8580	43.2120
 0.8590	43.2050
 0.8600	43.2000
 0.8610	43.1960
 0.8620	43.1940
 0.8630	43.1960
 0.8640	43.1910
 0.8650	43.1710
 0.8660	43.1450
 0.8670	43.1400
 0.8680	43.1460
 0.8690	43.1420
 0.8700	43.1330
 0.8710	43.1300
 0.8720	43.1320
 0.8730	43.1300
 0.8740	43.1230
 0.8750	43.1100
 0.8760	43.0970
 0.8770	43.0910
 0.8780	43.0980
 0.8790	43.0960
 0.8800	43.0860
 0.8810	43.0990
 0.8820	43.1010
 0.8830	43.0970
 0.8840	43.0960
 0.8850	43.0890
 0.8860	43.0980
 0.8870	43.1040
 0.8880	43.0890
 0.8890	43.0860
 0.8900	43.0770
 0.8910	43.0730
 0.8920	43.0890
 0.8930	43.0970
 0.8940	43.0990
 0.8950	43.0950
 0.8960	43.0840
 0.8970	43.0770
 0.8980	43.0770
 0.8990	43.0780
 0.9000	43.0710
 0.9010	43.0800
 0.9020	43.0950
 0.9030	43.1050
 0.9040	43.1030
 0.9050	43.0880
 0.9060	43.0790
 0.9070	43.0870
 0.9080	43.1040
 0.9090	43.1090
 0.9100	43.1120
 0.9110	43.1190
 0.9120	43.1100
 0.9130	43.1030
 0.9140	43.1080
 0.9150	43.1250
 0.9160	43.1290
 0.9170	43.1300
 0.9180	43.1280
 0.9190	43.1170
 0.9200	43.1140
 0.9210	43.1150
 0.9220	43.1180
 0.9230	43.1240
 0.9240	43.1110
 0.9250	43.1020
 0.9260	43.1030
 0.9270	43.1050
 0.9280	43.1120
 0.9290	43.1060
 0.9300	43.0880
 0.9310	43.0790
 0.9320	43.0780
 0.9330	43.0710
 0.9340	43.0570
 0.9350	43.0520
 0.9360	43.0430
 0.9370	43.0310
 0.9380	43.0200
 0.9390	43.0140
 0.9400	42.9930
 0.9410	42.9770
 0.9420	42.9700
 0.9430	42.9390
 0.9440	42.9250
 0.9450	42.9100
 0.9460	42.8790
 0.9470	42.8540
 0.9480	42.8200
 0.9490	42.7830
 0.9500	42.7490
 0.9510	42.7090
 0.9520	42.6640
 0.9530	42.6160
 0.9540	42.5710
 0.9550	42.5380
 0.9560	42.4930
 0.9570	42.4540
 0.9580	42.4300
 0.9590	42.3710
 0.9600	42.3340
 0.9610	42.3110
 0.9620	42.2810
 0.9630	42.2690
 0.9640	42.2520
 0.9650	42.2320
 0.9660	42.2130
 0.9670	42.1740
 0.9680	42.1710
 0.9690	42.1750
 0.9700	42.1410
 0.9710	42.1380
 0.9720	42.1330
 0.9730	42.1260
 0.9740	42.1240
 0.9750	42.0870
 0.9760	42.0660
 0.9770	42.0680
 0.9780	42.0760
 0.9790	42.0800
 0.9800	42.0840
 0.9810	42.0840
 0.9820	42.0760
 0.9830	42.0680
 0.9840	42.0760
 0.9850	42.0850
 0.9860	42.0740
 0.9870	42.0740
 0.9880	42.1020
 0.9890	42.1240
 0.9900	42.1040
 0.9910	42.1150
 0.9920	42.1090
 0.9930	42.1040
 0.9940	42.0980
 0.9950	42.0920
 0.9960	42.0860
 0.9970	42.0810
 0.9980	42.0750
 0.9990	42.0690
 1.0000	42.0640
 1.0010	42.0580
 1.0020	42.0520
 1.0030	42.0460
 1.0040	42.0410
 1.0050	42.0350
 1.0060	42.0290
 1.0070	42.0240
 1.0080	42.0180
 1.0090	42.0120
 1.0100	42.0120
 1.0110	42.0210
 1.0120	42.0290
 1.0130	42.0390
 1.0140	42.0470
 1.0150	42.0510
 1.0160	42.0590
 1.0170	42.0710
 1.0180	42.0790
 1.0190	42.0880
 1.0200	42.0960
 1.0210	42.1010
 1.0220	42.1090
 1.0230	42.1180
 1.0240	42.1300
 1.0250	42.1390
 1.0260	42.1480
 1.0270	42.1560
 1.0280	42.1630
 1.0290	42.1710
 1.0300	42.1800
 1.0310	42.1890
 1.0320	42.2000
 1.0330	42.2070
 1.0340	42.2120
 1.0350	42.2190
 1.0360	42.2220
 1.0370	42.2260
 1.0380	42.2350
 1.0390	42.2480
 1.0400	42.2550
 1.0410	42.2620
 1.0420	42.2690
 1.0430	42.2710
 1.0440	42.2760
 1.0450	42.2840
 1.0460	42.2910
 1.0470	42.3000
 1.0480	42.3060
 1.0490	42.3110
 1.0500	42.3160
 1.0510	42.3190
 1.0520	42.3210
 1.0530	42.3270
 1.0540	42.3360
 1.0550	42.3410
 1.0560	42.3480
 1.0570	42.3500
 1.0580	42.3470
 1.0590	42.3430
 1.0600	42.3340
 1.0610	42.3300
 1.0620	42.3240
 1.0630	42.3230
 1.0640	42.3300
 1.0650	42.3300
 1.0660	42.3290
 1.0670	42.3260
 1.0680	42.3230
 1.0690	42.3140
 1.0700	42.3100
 1.0710	42.3060
 1.0720	42.3020
 1.0730	42.2990
 1.0740	42.2940
 1.0750	42.2880
 1.0760	42.2810
 1.0770	42.2710
 1.0780	42.2630
 1.0790	42.2570
 1.0800	42.2510
 1.0810	42.2490
 1.0820	42.2430
 1.0830	42.2380
 1.0840	42.2320
 1.0850	42.2220
 1.0860	42.2140
 1.0870	42.2080
 1.0880	42.2020
 1.0890	42.1970
 1.0900	42.1940
 1.0910	42.1890
 1.0920	42.1840
 1.0930	42.1780
 1.0940	42.1700
 1.0950	42.1630
 1.0960	42.1580
 1.0970	42.1500
 1.0980	42.1410
 1.0990	42.1330
 1.1000	42.1250
 1.1010	42.1180
 1.1020	42.1150
 1.1030	42.1120
 1.1040	42.1050
 1.1050	42.0990
 1.1060	42.0920
 1.1070	42.0840
 1.1080	42.0760
 1.1090	42.0690
 1.1100	42.0600
 1.1110	42.0500
 1.1120	42.0400
 1.1130	42.0310
 1.1140	42.0190
 1.1150	42.0080
 1.1160	41.9950
 1.1170	41.9820
 1.1180	41.9660
 1.1190	41.9480
 1.1200	41.9270
 1.1210	41.9050
 1.1220	41.8820
 1.1230	41.8590
 1.1240	41.8340
 1.1250	41.8030
 1.1260	41.7690
 1.1270	41.7290
 1.1280	41.6840
 1.1290	41.6350
 1.1300	41.5820
 1.1310	41.5240
 1.1320	41.4630
 1.1330	41.3950
 1.1340	41.3200
 1.1350	41.2410
 1.1360	41.1550
 1.1370	41.0630
 1.1380	40.9680
 1.1390	40.8690
 1.1400	40.7700
 1.1410	40.6680
 1.1420	40.5620
 1.1430	40.4550
 1.1440	40.3460
 1.1450	40.2320
 1.1460	40.1230
 1.1470	40.0120
 1.1480	39.9090
 1.1490	39.8110
 1.1500	39.7170
 1.1510	39.6290
 1.1520	39.5450
 1.1530	39.4620
 1.1540	39.3870
 1.1550	39.3160
 1.1560	39.2530
 1.1570	39.1950
 1.1580	39.1420
 1.1590	39.0920
 1.1600	39.0480
 1.1610	39.0070
 1.1620	38.9690
 1.1630	38.9380
 1.1640	38.9090
 1.1650	38.8800
 1.1660	38.8550
 1.1670	38.8310
 1.1680	38.8090
 1.1690	38.7880
 1.1700	38.7700
 1.1710	38.7500
 1.1720	38.7270
 1.1730	38.7060
 1.1740	38.6870
 1.1750	38.6660
 1.1760	38.6460
 1.1770	38.6270
 1.1780	38.6030
 1.1790	38.5790
 1.1800	38.5540
 1.1810	38.5290
 1.1820	38.5050
 1.1830	38.4810
 1.1840	38.4580
 1.1850	38.4350
 1.1860	38.4110
 1.1870	38.3890
 1.1880	38.3690
 1.1890	38.3500
 1.1900	38.3330
 1.1910	38.3180
 1.1920	38.3040
 1.1930	38.2910
 1.1940	38.2800
 1.1950	38.2690
 1.1960	38.2630
 1.1970	38.2580
 1.1980	38.2550
 1.1990	38.2560
 1.2000	38.2580
 1.2010	38.2590
 1.2020	38.2650
 1.2030	38.2700
 1.2040	38.2780
 1.2050	38.2910
 1.2060	38.3040
 1.2070	38.3180
 1.2080	38.3340
 1.2090	38.3510
 1.2100	38.3690
 1.2110	38.3890
 1.2120	38.4120
 1.2130	38.4350
 1.2140	38.4590
 1.2150	38.4840
 1.2160	38.5100
 1.2170	38.5370
 1.2180	38.5670
 1.2190	38.5960
 1.2200	38.6260
 1.2210	38.6550
 1.2220	38.6820
 1.2230	38.7120
 1.2240	38.7430
 1.2250	38.7720
 1.2260	38.8020
 1.2270	38.8310
 1.2280	38.8560
 1.2290	38.8810
 1.2300	38.9040
 1.2310	38.9260
 1.2320	38.9460
 1.2330	38.9660
 1.2340	38.9860
 1.2350	39.0070
 1.2360	39.0260
 1.2370	39.0450
 1.2380	39.0620
 1.2390	39.0770
 1.2400	39.0920
 1.2410	39.1070
 1.2420	39.1200
 1.2430	39.1340
 1.2440	39.1460
 1.2450	39.1570
 1.2460	39.1670
 1.2470	39.1760
 1.2480	39.1850
 1.2490	39.1920
 1.2500	39.2020
 1.2510	39.2130
 1.2520	39.2200
 1.2530	39.2260
 1.2540	39.2310
 1.2550	39.2340
 1.2560	39.2390
 1.2570	39.2440
 1.2580	39.2450
 1.2590	39.2450
 1.2600	39.2420
 1.2610	39.2400
 1.2620	39.2380
 1.2630	39.2390
 1.2640	39.2400
 1.2650	39.2370
 1.2660	39.2320
 1.2670	39.2280
 1.2680	39.2240
 1.2690	39.2170
 1.2700	39.2080
 1.2710	39.1990
 1.2720	39.1910
 1.2730	39.1830
 1.2740	39.1760
 1.2750	39.1650
 1.2760	39.1510
 1.2770	39.1390
 1.2780	39.1290
 1.2790	39.1160
 1.2800	39.1030
 1.2810	39.0890
 1.2820	39.0720
 1.2830	39.0540
 1.2840	39.0380
 1.2850	39.0210
 1.2860	39.0030
 1.2870	38.9820
 1.2880	38.9600
 1.2890	38.9350
 1.2900	38.9070
 1.2910	38.8790
 1.2920	38.8510
 1.2930	38.8210
 1.2940	38.7860
 1.2950	38.7480
 1.2960	38.7070
 1.2970	38.6630
 1.2980	38.6180
 1.2990	38.5750
 1.3000	38.5290
 1.3010	38.4800
 1.3020	38.4300
 1.3030	38.3760
 1.3040	38.3210
 1.3050	38.2660
 1.3060	38.2080
 1.3070	38.1490
 1.3080	38.0900
 1.3090	38.0260
 1.3100	37.9600
 1.3110	37.8930
 1.3120	37.8240
 1.3130	37.7540
 1.3140	37.6830
 1.3150	37.6110
 1.3160	37.5370
 1.3170	37.4610
 1.3180	37.3830
 1.3190	37.3020
 1.3200	37.2180
 1.3210	37.1310
 1.3220	37.0430
 1.3230	36.9530
 1.3240	36.8590
 1.3250	36.7650
 1.3260	36.6700
 1.3270	36.5730
 1.3280	36.4740
 1.3290	36.3720
 1.3300	36.2670
 1.3310	36.1610
 1.3320	36.0550
 1.3330	35.9500
 1.3340	35.8430
 1.3350	35.7340
 1.3360	35.6230
 1.3370	35.5110
 1.3380	35.3980
 1.3390	35.2870
 1.3400	35.1740
 1.3410	35.0600
 1.3420	34.9480
 1.3430	34.8380
 1.3440	34.7270
 1.3450	34.6170
 1.3460	34.5070
 1.3470	34.3970
 1.3480	34.2850
 1.3490	34.1760
 1.3500	34.0680
 1.3510	33.9600
 1.3520	33.8490
 1.3530	33.7400
 1.3540	33.6280
 1.3550	33.5170
 1.3560	33.4070
 1.3570	33.2940
 1.3580	33.1830
 1.3590	33.0690
 1.3600	32.9520
 1.3610	32.8310
 1.3620	32.7040
 1.3630	32.5740
 1.3640	32.4390
 1.3650	32.2990
 1.3660	32.1560
 1.3670	32.0050
 1.3680	31.8450
 1.3690	31.6760
 1.3700	31.4950
 1.3710	31.3030
 1.3720	31.1000
 1.3730	30.8840
 1.3740	30.6560
 1.3750	30.4130
 1.3760	30.1520
 1.3770	29.8740
 1.3780	29.5740
 1.3790	29.2540
 1.3800	28.9180
 1.3810	28.5600
 1.3820	28.1850
 1.3830	27.7940
 1.3840	27.3880
 1.3850	26.9640
 1.3860	26.5280
 1.3870	26.0740
 1.3880	25.6150
 1.3890	25.1420
 1.3900	24.6620
 1.3910	24.1830
 1.3920	23.6970
 1.3930	23.2070
 1.3940	22.7210
 1.3950	22.2300
 1.3960	21.7460
 1.3970	21.2710
 1.3980	20.8020
 1.3990	20.3510
 1.4000	19.9110
 1.4010	19.4810
 1.4020	19.0690
 1.4030	18.6710
 1.4040	18.2900
 1.4050	17.9290
 1.4060	17.5840
 1.4070	17.2600
 1.4080	16.9540
 1.4090	16.6650
 1.4100	16.3960
 1.4110	16.1420
 1.4120	15.9050
 1.4130	15.6850
 1.4140	15.4810
 1.4150	15.2940
 1.4160	15.1210
 1.4170	14.9630
 1.4180	14.8170
 1.4190	14.6820
 1.4200	14.5590
 1.4210	14.4460
 1.4220	14.3430
 1.4230	14.2500
 1.4240	14.1650
 1.4250	14.0890
 1.4260	14.0210
 1.4270	13.9600
 1.4280	13.9060
 1.4290	13.8570
 1.4300	13.8140
 1.4310	13.7760
 1.4320	13.7460
 1.4330	13.7190
 1.4340	13.6970
 1.4350	13.6790
 1.4360	13.6640
 1.4370	13.6540
 1.4380	13.6470
 1.4390	13.6420
 1.4400	13.6410
 1.4410	13.6420
 1.4420	13.6450
 1.4430	13.6490
 1.4440	13.6570
 1.4450	13.6670
 1.4460	13.6790
 1.4470	13.6940
 1.4480	13.7100
 1.4490	13.7260
 1.4500	13.7440
 1.4510	13.7610
 1.4520	13.7790
 1.4530	13.7990
 1.4540	13.8210
 1.4550	13.8440
 1.4560	13.8690
 1.4570	13.8960
 1.4580	13.9260
 1.4590	13.9580
 1.4600	13.9950
 1.4610	14.0350
 1.4620	14.0790
 1.4630	14.1280
 1.4640	14.1800
 1.4650	14.2360
 1.4660	14.2960
 1.4670	14.3580
 1.4680	14.4250
 1.4690	14.4960
