Name: Ceanothus spinosus 1
Type: vegetation
Class: Shrub
Genus: Ceanothus
Species: spinosus
Sample No.: VH127
Owner: UCSB
Wavelength Range: VSWIR
Origin: 34.4906; -119.7908; WGS84
Collection Date: 6/3/2013
Description: Samples were collected as part of the HyspIRI Airborne Campaign. 48 individual plants were sampled in three times in 2013 - spring  summer  and fall. The name of the sample includes a 1  2  or 3 which references a different individual of the species. Samples were taken to JPL and processed within 48 hours of collection. The same leaves were processed in the Nicolet and then measured using the ASD.
Measurement: Bidirectional reflectance
First Column: X
Second Column: Y
X Units: Wavelength (micrometers)
Y Units: Reflectance (percentage)
First X Value: 0.35
Last X Value: 2.5
Number of X Values: 2151
Additional Information: vegetation.shrub.ceanothus.spinosus.vswir.vh127.ucsb.asd.ancillary.txt

 0.3500	 7.9370
 0.3510	 7.9280
 0.3520	 7.8200
 0.3530	 7.6690
 0.3540	 7.5590
 0.3550	 7.6440
 0.3560	 7.6530
 0.3570	 7.6030
 0.3580	 7.6450
 0.3590	 7.6670
 0.3600	 7.6930
 0.3610	 7.6840
 0.3620	 7.4910
 0.3630	 7.4650
 0.3640	 7.5630
 0.3650	 7.6480
 0.3660	 7.6560
 0.3670	 7.5940
 0.3680	 7.5130
 0.3690	 7.4890
 0.3700	 7.5110
 0.3710	 7.5150
 0.3720	 7.4830
 0.3730	 7.4740
 0.3740	 7.5280
 0.3750	 7.5860
 0.3760	 7.5690
 0.3770	 7.4790
 0.3780	 7.4560
 0.3790	 7.4570
 0.3800	 7.2980
 0.3810	 7.2690
 0.3820	 7.2500
 0.3830	 7.1860
 0.3840	 7.3230
 0.3850	 7.3730
 0.3860	 7.3210
 0.3870	 7.2620
 0.3880	 7.3030
 0.3890	 7.3490
 0.3900	 7.3530
 0.3910	 7.3360
 0.3920	 7.3570
 0.3930	 7.3580
 0.3940	 7.3120
 0.3950	 7.3470
 0.3960	 7.3390
 0.3970	 7.3020
 0.3980	 7.3010
 0.3990	 7.2840
 0.4000	 7.2720
 0.4010	 7.2790
 0.4020	 7.3040
 0.4030	 7.3120
 0.4040	 7.2950
 0.4050	 7.2670
 0.4060	 7.2790
 0.4070	 7.3040
 0.4080	 7.3220
 0.4090	 7.3170
 0.4100	 7.3230
 0.4110	 7.3370
 0.4120	 7.3560
 0.4130	 7.3840
 0.4140	 7.4100
 0.4150	 7.4270
 0.4160	 7.4360
 0.4170	 7.4640
 0.4180	 7.4820
 0.4190	 7.4880
 0.4200	 7.5000
 0.4210	 7.5330
 0.4220	 7.5600
 0.4230	 7.5680
 0.4240	 7.5910
 0.4250	 7.6180
 0.4260	 7.6380
 0.4270	 7.6440
 0.4280	 7.6550
 0.4290	 7.6700
 0.4300	 7.6860
 0.4310	 7.6920
 0.4320	 7.6990
 0.4330	 7.7010
 0.4340	 7.6970
 0.4350	 7.7020
 0.4360	 7.7170
 0.4370	 7.7350
 0.4380	 7.7440
 0.4390	 7.7660
 0.4400	 7.7760
 0.4410	 7.7660
 0.4420	 7.7880
 0.4430	 7.7990
 0.4440	 7.8000
 0.4450	 7.8090
 0.4460	 7.8260
 0.4470	 7.8270
 0.4480	 7.8160
 0.4490	 7.8330
 0.4500	 7.8490
 0.4510	 7.8640
 0.4520	 7.8800
 0.4530	 7.8860
 0.4540	 7.8840
 0.4550	 7.8850
 0.4560	 7.9000
 0.4570	 7.9110
 0.4580	 7.9120
 0.4590	 7.9090
 0.4600	 7.9170
 0.4610	 7.9150
 0.4620	 7.9080
 0.4630	 7.9090
 0.4640	 7.9220
 0.4650	 7.9150
 0.4660	 7.8940
 0.4670	 7.9040
 0.4680	 7.9060
 0.4690	 7.9100
 0.4700	 7.9230
 0.4710	 7.9190
 0.4720	 7.9080
 0.4730	 7.9010
 0.4740	 7.9040
 0.4750	 7.9000
 0.4760	 7.9010
 0.4770	 7.9090
 0.4780	 7.9040
 0.4790	 7.9000
 0.4800	 7.8980
 0.4810	 7.8960
 0.4820	 7.9060
 0.4830	 7.9180
 0.4840	 7.9220
 0.4850	 7.9180
 0.4860	 7.9150
 0.4870	 7.9240
 0.4880	 7.9430
 0.4890	 7.9550
 0.4900	 7.9620
 0.4910	 7.9690
 0.4920	 7.9820
 0.4930	 8.0090
 0.4940	 8.0360
 0.4950	 8.0590
 0.4960	 8.0870
 0.4970	 8.1160
 0.4980	 8.1440
 0.4990	 8.1760
 0.5000	 8.2150
 0.5010	 8.2570
 0.5020	 8.3020
 0.5030	 8.3460
 0.5040	 8.4000
 0.5050	 8.4650
 0.5060	 8.5370
 0.5070	 8.6090
 0.5080	 8.6830
 0.5090	 8.7670
 0.5100	 8.8640
 0.5110	 8.9720
 0.5120	 9.0870
 0.5130	 9.2080
 0.5140	 9.3450
 0.5150	 9.4890
 0.5160	 9.6460
 0.5170	 9.8210
 0.5180	10.0010
 0.5190	10.1850
 0.5200	10.3750
 0.5210	10.5760
 0.5220	10.7740
 0.5230	10.9730
 0.5240	11.1740
 0.5250	11.3690
 0.5260	11.5600
 0.5270	11.7450
 0.5280	11.9230
 0.5290	12.0830
 0.5300	12.2320
 0.5310	12.3740
 0.5320	12.5090
 0.5330	12.6280
 0.5340	12.7350
 0.5350	12.8300
 0.5360	12.9120
 0.5370	12.9870
 0.5380	13.0550
 0.5390	13.1170
 0.5400	13.1720
 0.5410	13.2190
 0.5420	13.2630
 0.5430	13.3110
 0.5440	13.3520
 0.5450	13.3870
 0.5460	13.4240
 0.5470	13.4610
 0.5480	13.4950
 0.5490	13.5230
 0.5500	13.5430
 0.5510	13.5540
 0.5520	13.5550
 0.5530	13.5430
 0.5540	13.5210
 0.5550	13.4850
 0.5560	13.4400
 0.5570	13.3900
 0.5580	13.3210
 0.5590	13.2400
 0.5600	13.1540
 0.5610	13.0580
 0.5620	12.9570
 0.5630	12.8520
 0.5640	12.7390
 0.5650	12.6220
 0.5660	12.4920
 0.5670	12.3510
 0.5680	12.2040
 0.5690	12.0550
 0.5700	11.9060
 0.5710	11.7560
 0.5720	11.6140
 0.5730	11.4830
 0.5740	11.3690
 0.5750	11.2770
 0.5760	11.1920
 0.5770	11.1150
 0.5780	11.0450
 0.5790	10.9770
 0.5800	10.9050
 0.5810	10.8320
 0.5820	10.7650
 0.5830	10.7020
 0.5840	10.6390
 0.5850	10.5710
 0.5860	10.5000
 0.5870	10.4330
 0.5880	10.3750
 0.5890	10.3310
 0.5900	10.3080
 0.5910	10.2920
 0.5920	10.2770
 0.5930	10.2570
 0.5940	10.2350
 0.5950	10.2130
 0.5960	10.1870
 0.5970	10.1560
 0.5980	10.1260
 0.5990	10.1000
 0.6000	10.0740
 0.6010	10.0490
 0.6020	10.0230
 0.6030	 9.9950
 0.6040	 9.9610
 0.6050	 9.9250
 0.6060	 9.8830
 0.6070	 9.8360
 0.6080	 9.7880
 0.6090	 9.7340
 0.6100	 9.6730
 0.6110	 9.6130
 0.6120	 9.5580
 0.6130	 9.5080
 0.6140	 9.4600
 0.6150	 9.4110
 0.6160	 9.3600
 0.6170	 9.3130
 0.6180	 9.2740
 0.6190	 9.2390
 0.6200	 9.2060
 0.6210	 9.1750
 0.6220	 9.1480
 0.6230	 9.1260
 0.6240	 9.1060
 0.6250	 9.0900
 0.6260	 9.0790
 0.6270	 9.0660
 0.6280	 9.0530
 0.6290	 9.0440
 0.6300	 9.0380
 0.6310	 9.0310
 0.6320	 9.0200
 0.6330	 9.0050
 0.6340	 8.9870
 0.6350	 8.9640
 0.6360	 8.9350
 0.6370	 8.8990
 0.6380	 8.8600
 0.6390	 8.8160
 0.6400	 8.7660
 0.6410	 8.7130
 0.6420	 8.6590
 0.6430	 8.6060
 0.6440	 8.5510
 0.6450	 8.4990
 0.6460	 8.4490
 0.6470	 8.4020
 0.6480	 8.3610
 0.6490	 8.3240
 0.6500	 8.2920
 0.6510	 8.2680
 0.6520	 8.2470
 0.6530	 8.2250
 0.6540	 8.2020
 0.6550	 8.1800
 0.6560	 8.1540
 0.6570	 8.1260
 0.6580	 8.0990
 0.6590	 8.0700
 0.6600	 8.0400
 0.6610	 8.0100
 0.6620	 7.9830
 0.6630	 7.9540
 0.6640	 7.9280
 0.6650	 7.9090
 0.6660	 7.8920
 0.6670	 7.8790
 0.6680	 7.8710
 0.6690	 7.8650
 0.6700	 7.8640
 0.6710	 7.8680
 0.6720	 7.8760
 0.6730	 7.8850
 0.6740	 7.9000
 0.6750	 7.9200
 0.6760	 7.9430
 0.6770	 7.9640
 0.6780	 7.9890
 0.6790	 8.0200
 0.6800	 8.0540
 0.6810	 8.0940
 0.6820	 8.1390
 0.6830	 8.1880
 0.6840	 8.2410
 0.6850	 8.3060
 0.6860	 8.3840
 0.6870	 8.4730
 0.6880	 8.5820
 0.6890	 8.7150
 0.6900	 8.8770
 0.6910	 9.0780
 0.6920	 9.3280
 0.6930	 9.6270
 0.6940	 9.9820
 0.6950	10.4050
 0.6960	10.8930
 0.6970	11.4490
 0.6980	12.0750
 0.6990	12.7660
 0.7000	13.5200
 0.7010	14.3320
 0.7020	15.1930
 0.7030	16.0960
 0.7040	17.0390
 0.7050	18.0130
 0.7060	19.0020
 0.7070	20.0150
 0.7080	21.0480
 0.7090	22.0920
 0.7100	23.1450
 0.7110	24.2070
 0.7120	25.2750
 0.7130	26.3460
 0.7140	27.4170
 0.7150	28.4880
 0.7160	29.5570
 0.7170	30.6240
 0.7180	31.6780
 0.7190	32.7230
 0.7200	33.7640
 0.7210	34.7850
 0.7220	35.7890
 0.7230	36.7780
 0.7240	37.7410
 0.7250	38.6760
 0.7260	39.5830
 0.7270	40.4630
 0.7280	41.3160
 0.7290	42.1390
 0.7300	42.9300
 0.7310	43.6900
 0.7320	44.4100
 0.7330	45.1000
 0.7340	45.7600
 0.7350	46.3840
 0.7360	46.9810
 0.7370	47.5440
 0.7380	48.0710
 0.7390	48.5740
 0.7400	49.0500
 0.7410	49.4930
 0.7420	49.9020
 0.7430	50.2910
 0.7440	50.6550
 0.7450	50.9960
 0.7460	51.3180
 0.7470	51.6070
 0.7480	51.8730
 0.7490	52.1220
 0.7500	52.3550
 0.7510	52.5620
 0.7520	52.7510
 0.7530	52.9310
 0.7540	53.0930
 0.7550	53.2400
 0.7560	53.3740
 0.7570	53.4970
 0.7580	53.6080
 0.7590	53.7110
 0.7600	53.8070
 0.7610	53.8870
 0.7620	53.9680
 0.7630	54.0420
 0.7640	54.0990
 0.7650	54.1630
 0.7660	54.2190
 0.7670	54.2650
 0.7680	54.3080
 0.7690	54.3470
 0.7700	54.3830
 0.7710	54.4190
 0.7720	54.4560
 0.7730	54.4830
 0.7740	54.5080
 0.7750	54.5390
 0.7760	54.5650
 0.7770	54.5930
 0.7780	54.6180
 0.7790	54.6360
 0.7800	54.6600
 0.7810	54.6830
 0.7820	54.7040
 0.7830	54.7250
 0.7840	54.7430
 0.7850	54.7640
 0.7860	54.7890
 0.7870	54.7980
 0.7880	54.8160
 0.7890	54.8380
 0.7900	54.8540
 0.7910	54.8660
 0.7920	54.8790
 0.7930	54.8940
 0.7940	54.9090
 0.7950	54.9200
 0.7960	54.9300
 0.7970	54.9420
 0.7980	54.9470
 0.7990	54.9600
 0.8000	54.9680
 0.8010	54.9660
 0.8020	54.9830
 0.8030	54.9930
 0.8040	54.9950
 0.8050	54.9990
 0.8060	55.0070
 0.8070	55.0130
 0.8080	55.0150
 0.8090	55.0090
 0.8100	55.0050
 0.8110	55.0090
 0.8120	55.0180
 0.8130	55.0140
 0.8140	55.0110
 0.8150	55.0120
 0.8160	55.0130
 0.8170	55.0060
 0.8180	54.9980
 0.8190	54.9900
 0.8200	54.9860
 0.8210	54.9850
 0.8220	54.9870
 0.8230	54.9870
 0.8240	54.9850
 0.8250	54.9750
 0.8260	54.9640
 0.8270	54.9550
 0.8280	54.9480
 0.8290	54.9430
 0.8300	54.9390
 0.8310	54.9320
 0.8320	54.9200
 0.8330	54.9100
 0.8340	54.9080
 0.8350	54.9110
 0.8360	54.9020
 0.8370	54.8950
 0.8380	54.8940
 0.8390	54.8950
 0.8400	54.8950
 0.8410	54.8930
 0.8420	54.8900
 0.8430	54.8900
 0.8440	54.8890
 0.8450	54.8900
 0.8460	54.8970
 0.8470	54.8970
 0.8480	54.9000
 0.8490	54.9070
 0.8500	54.9130
 0.8510	54.9040
 0.8520	54.8990
 0.8530	54.9030
 0.8540	54.9130
 0.8550	54.9190
 0.8560	54.9200
 0.8570	54.9210
 0.8580	54.9300
 0.8590	54.9320
 0.8600	54.9330
 0.8610	54.9370
 0.8620	54.9430
 0.8630	54.9510
 0.8640	54.9590
 0.8650	54.9660
 0.8660	54.9760
 0.8670	54.9770
 0.8680	54.9770
 0.8690	54.9870
 0.8700	54.9980
 0.8710	55.0080
 0.8720	55.0140
 0.8730	55.0130
 0.8740	55.0180
 0.8750	55.0270
 0.8760	55.0340
 0.8770	55.0380
 0.8780	55.0510
 0.8790	55.0680
 0.8800	55.0800
 0.8810	55.0740
 0.8820	55.0790
 0.8830	55.0900
 0.8840	55.1000
 0.8850	55.1090
 0.8860	55.1110
 0.8870	55.1150
 0.8880	55.1270
 0.8890	55.1300
 0.8900	55.1380
 0.8910	55.1480
 0.8920	55.1540
 0.8930	55.1580
 0.8940	55.1660
 0.8950	55.1780
 0.8960	55.1880
 0.8970	55.1870
 0.8980	55.1850
 0.8990	55.1870
 0.9000	55.1920
 0.9010	55.2000
 0.9020	55.2120
 0.9030	55.2220
 0.9040	55.2160
 0.9050	55.2220
 0.9060	55.2280
 0.9070	55.2280
 0.9080	55.2400
 0.9090	55.2390
 0.9100	55.2370
 0.9110	55.2450
 0.9120	55.2480
 0.9130	55.2540
 0.9140	55.2610
 0.9150	55.2640
 0.9160	55.2650
 0.9170	55.2680
 0.9180	55.2700
 0.9190	55.2690
 0.9200	55.2720
 0.9210	55.2700
 0.9220	55.2640
 0.9230	55.2600
 0.9240	55.2620
 0.9250	55.2600
 0.9260	55.2510
 0.9270	55.2430
 0.9280	55.2220
 0.9290	55.2090
 0.9300	55.2010
 0.9310	55.1740
 0.9320	55.1550
 0.9330	55.1380
 0.9340	55.1200
 0.9350	55.1040
 0.9360	55.0700
 0.9370	55.0370
 0.9380	55.0120
 0.9390	54.9830
 0.9400	54.9480
 0.9410	54.9190
 0.9420	54.8990
 0.9430	54.8700
 0.9440	54.8240
 0.9450	54.7900
 0.9460	54.7710
 0.9470	54.7090
 0.9480	54.6470
 0.9490	54.5890
 0.9500	54.5310
 0.9510	54.4870
 0.9520	54.4180
 0.9530	54.3360
 0.9540	54.2600
 0.9550	54.1830
 0.9560	54.1120
 0.9570	54.0450
 0.9580	53.9780
 0.9590	53.9080
 0.9600	53.8380
 0.9610	53.7790
 0.9620	53.7340
 0.9630	53.6830
 0.9640	53.6380
 0.9650	53.5970
 0.9660	53.5560
 0.9670	53.5410
 0.9680	53.5170
 0.9690	53.4880
 0.9700	53.4670
 0.9710	53.4430
 0.9720	53.4190
 0.9730	53.3990
 0.9740	53.3800
 0.9750	53.3620
 0.9760	53.3550
 0.9770	53.3550
 0.9780	53.3500
 0.9790	53.3400
 0.9800	53.3350
 0.9810	53.3380
 0.9820	53.3420
 0.9830	53.3350
 0.9840	53.3420
 0.9850	53.3630
 0.9860	53.3820
 0.9870	53.3930
 0.9880	53.3940
 0.9890	53.4000
 0.9900	53.4230
 0.9910	53.4380
 0.9920	53.4870
 0.9930	53.5350
 0.9940	53.5830
 0.9950	53.6310
 0.9960	53.6800
 0.9970	53.7280
 0.9980	53.7760
 0.9990	53.8240
 1.0000	53.8720
 1.0010	53.9210
 1.0020	53.9690
 1.0030	54.0170
 1.0040	54.0650
 1.0050	54.1130
 1.0060	54.1620
 1.0070	54.2100
 1.0080	54.2580
 1.0090	54.3060
 1.0100	54.3060
 1.0110	54.3290
 1.0120	54.3560
 1.0130	54.3870
 1.0140	54.4130
 1.0150	54.4350
 1.0160	54.4580
 1.0170	54.4820
 1.0180	54.5040
 1.0190	54.5260
 1.0200	54.5510
 1.0210	54.5690
 1.0220	54.5900
 1.0230	54.6150
 1.0240	54.6460
 1.0250	54.6710
 1.0260	54.6960
 1.0270	54.7180
 1.0280	54.7360
 1.0290	54.7550
 1.0300	54.7750
 1.0310	54.7940
 1.0320	54.8100
 1.0330	54.8280
 1.0340	54.8510
 1.0350	54.8700
 1.0360	54.8940
 1.0370	54.9180
 1.0380	54.9350
 1.0390	54.9490
 1.0400	54.9640
 1.0410	54.9740
 1.0420	54.9880
 1.0430	55.0070
 1.0440	55.0220
 1.0450	55.0340
 1.0460	55.0480
 1.0470	55.0600
 1.0480	55.0730
 1.0490	55.0880
 1.0500	55.1010
 1.0510	55.1100
 1.0520	55.1210
 1.0530	55.1320
 1.0540	55.1410
 1.0550	55.1520
 1.0560	55.1670
 1.0570	55.1770
 1.0580	55.1840
 1.0590	55.1920
 1.0600	55.1990
 1.0610	55.2070
 1.0620	55.2140
 1.0630	55.2220
 1.0640	55.2300
 1.0650	55.2370
 1.0660	55.2450
 1.0670	55.2520
 1.0680	55.2570
 1.0690	55.2610
 1.0700	55.2650
 1.0710	55.2700
 1.0720	55.2730
 1.0730	55.2760
 1.0740	55.2770
 1.0750	55.2740
 1.0760	55.2750
 1.0770	55.2770
 1.0780	55.2750
 1.0790	55.2730
 1.0800	55.2720
 1.0810	55.2690
 1.0820	55.2670
 1.0830	55.2690
 1.0840	55.2670
 1.0850	55.2640
 1.0860	55.2590
 1.0870	55.2530
 1.0880	55.2460
 1.0890	55.2380
 1.0900	55.2280
 1.0910	55.2180
 1.0920	55.2070
 1.0930	55.1970
 1.0940	55.1860
 1.0950	55.1770
 1.0960	55.1680
 1.0970	55.1590
 1.0980	55.1510
 1.0990	55.1410
 1.1000	55.1320
 1.1010	55.1200
 1.1020	55.1030
 1.1030	55.0870
 1.1040	55.0720
 1.1050	55.0550
 1.1060	55.0380
 1.1070	55.0220
 1.1080	55.0040
 1.1090	54.9840
 1.1100	54.9620
 1.1110	54.9390
 1.1120	54.9160
 1.1130	54.8910
 1.1140	54.8650
 1.1150	54.8390
 1.1160	54.8100
 1.1170	54.7830
 1.1180	54.7490
 1.1190	54.7120
 1.1200	54.6690
 1.1210	54.6280
 1.1220	54.5800
 1.1230	54.5320
 1.1240	54.4830
 1.1250	54.4250
 1.1260	54.3600
 1.1270	54.2910
 1.1280	54.2170
 1.1290	54.1380
 1.1300	54.0560
 1.1310	53.9650
 1.1320	53.8670
 1.1330	53.7640
 1.1340	53.6550
 1.1350	53.5370
 1.1360	53.4130
 1.1370	53.2820
 1.1380	53.1430
 1.1390	52.9980
 1.1400	52.8480
 1.1410	52.6970
 1.1420	52.5430
 1.1430	52.3860
 1.1440	52.2290
 1.1450	52.0720
 1.1460	51.9120
 1.1470	51.7470
 1.1480	51.5920
 1.1490	51.4340
 1.1500	51.2900
 1.1510	51.1560
 1.1520	51.0270
 1.1530	50.9020
 1.1540	50.7880
 1.1550	50.6790
 1.1560	50.5830
 1.1570	50.4950
 1.1580	50.4180
 1.1590	50.3490
 1.1600	50.2850
 1.1610	50.2320
 1.1620	50.1860
 1.1630	50.1460
 1.1640	50.1140
 1.1650	50.0860
 1.1660	50.0650
 1.1670	50.0440
 1.1680	50.0300
 1.1690	50.0150
 1.1700	50.0030
 1.1710	49.9910
 1.1720	49.9820
 1.1730	49.9720
 1.1740	49.9630
 1.1750	49.9540
 1.1760	49.9470
 1.1770	49.9360
 1.1780	49.9250
 1.1790	49.9140
 1.1800	49.9010
 1.1810	49.8880
 1.1820	49.8740
 1.1830	49.8620
 1.1840	49.8530
 1.1850	49.8460
 1.1860	49.8390
 1.1870	49.8320
 1.1880	49.8250
 1.1890	49.8140
 1.1900	49.8070
 1.1910	49.8010
 1.1920	49.7980
 1.1930	49.7960
 1.1940	49.7960
 1.1950	49.7980
 1.1960	49.8020
 1.1970	49.8060
 1.1980	49.8120
 1.1990	49.8190
 1.2000	49.8260
 1.2010	49.8370
 1.2020	49.8510
 1.2030	49.8670
 1.2040	49.8840
 1.2050	49.8990
 1.2060	49.9150
 1.2070	49.9300
 1.2080	49.9480
 1.2090	49.9700
 1.2100	49.9920
 1.2110	50.0160
 1.2120	50.0430
 1.2130	50.0690
 1.2140	50.0950
 1.2150	50.1220
 1.2160	50.1500
 1.2170	50.1780
 1.2180	50.2070
 1.2190	50.2350
 1.2200	50.2620
 1.2210	50.2890
 1.2220	50.3150
 1.2230	50.3430
 1.2240	50.3700
 1.2250	50.3950
 1.2260	50.4220
 1.2270	50.4480
 1.2280	50.4720
 1.2290	50.4960
 1.2300	50.5210
 1.2310	50.5430
 1.2320	50.5660
 1.2330	50.5880
 1.2340	50.6100
 1.2350	50.6320
 1.2360	50.6530
 1.2370	50.6720
 1.2380	50.6910
 1.2390	50.7080
 1.2400	50.7230
 1.2410	50.7400
 1.2420	50.7570
 1.2430	50.7750
 1.2440	50.7920
 1.2450	50.8070
 1.2460	50.8230
 1.2470	50.8360
 1.2480	50.8470
 1.2490	50.8640
 1.2500	50.8760
 1.2510	50.8850
 1.2520	50.8970
 1.2530	50.9040
 1.2540	50.9110
 1.2550	50.9220
 1.2560	50.9320
 1.2570	50.9360
 1.2580	50.9410
 1.2590	50.9440
 1.2600	50.9430
 1.2610	50.9430
 1.2620	50.9430
 1.2630	50.9420
 1.2640	50.9390
 1.2650	50.9390
 1.2660	50.9390
 1.2670	50.9330
 1.2680	50.9280
 1.2690	50.9220
 1.2700	50.9120
 1.2710	50.9020
 1.2720	50.8930
 1.2730	50.8800
 1.2740	50.8680
 1.2750	50.8560
 1.2760	50.8410
 1.2770	50.8250
 1.2780	50.8090
 1.2790	50.7950
 1.2800	50.7770
 1.2810	50.7590
 1.2820	50.7390
 1.2830	50.7160
 1.2840	50.6920
 1.2850	50.6680
 1.2860	50.6420
 1.2870	50.6130
 1.2880	50.5820
 1.2890	50.5480
 1.2900	50.5120
 1.2910	50.4740
 1.2920	50.4350
 1.2930	50.3970
 1.2940	50.3570
 1.2950	50.3140
 1.2960	50.2710
 1.2970	50.2240
 1.2980	50.1730
 1.2990	50.1200
 1.3000	50.0620
 1.3010	50.0020
 1.3020	49.9390
 1.3030	49.8740
 1.3040	49.8090
 1.3050	49.7370
 1.3060	49.6620
 1.3070	49.5840
 1.3080	49.5040
 1.3090	49.4220
 1.3100	49.3370
 1.3110	49.2470
 1.3120	49.1510
 1.3130	49.0540
 1.3140	48.9510
 1.3150	48.8450
 1.3160	48.7360
 1.3170	48.6240
 1.3180	48.5070
 1.3190	48.3860
 1.3200	48.2620
 1.3210	48.1320
 1.3220	48.0000
 1.3230	47.8630
 1.3240	47.7210
 1.3250	47.5790
 1.3260	47.4310
 1.3270	47.2810
 1.3280	47.1300
 1.3290	46.9730
 1.3300	46.8130
 1.3310	46.6540
 1.3320	46.4950
 1.3330	46.3330
 1.3340	46.1700
 1.3350	46.0040
 1.3360	45.8360
 1.3370	45.6660
 1.3380	45.4980
 1.3390	45.3270
 1.3400	45.1550
 1.3410	44.9880
 1.3420	44.8210
 1.3430	44.6540
 1.3440	44.4920
 1.3450	44.3290
 1.3460	44.1650
 1.3470	44.0050
 1.3480	43.8470
 1.3490	43.6910
 1.3500	43.5360
 1.3510	43.3830
 1.3520	43.2300
 1.3530	43.0770
 1.3540	42.9220
 1.3550	42.7700
 1.3560	42.6190
 1.3570	42.4660
 1.3580	42.3160
 1.3590	42.1630
 1.3600	42.0060
 1.3610	41.8470
 1.3620	41.6810
 1.3630	41.5100
 1.3640	41.3370
 1.3650	41.1560
 1.3660	40.9700
 1.3670	40.7760
 1.3680	40.5700
 1.3690	40.3520
 1.3700	40.1210
 1.3710	39.8780
 1.3720	39.6210
 1.3730	39.3460
 1.3740	39.0570
 1.3750	38.7500
 1.3760	38.4210
 1.3770	38.0720
 1.3780	37.6970
 1.3790	37.3010
 1.3800	36.8800
 1.3810	36.4340
 1.3820	35.9690
 1.3830	35.4840
 1.3840	34.9800
 1.3850	34.4580
 1.3860	33.9190
 1.3870	33.3570
 1.3880	32.7910
 1.3890	32.2110
 1.3900	31.6210
 1.3910	31.0310
 1.3920	30.4330
 1.3930	29.8300
 1.3940	29.2290
 1.3950	28.6250
 1.3960	28.0270
 1.3970	27.4390
 1.3980	26.8610
 1.3990	26.3020
 1.4000	25.7560
 1.4010	25.2230
 1.4020	24.7080
 1.4030	24.2080
 1.4040	23.7290
 1.4050	23.2740
 1.4060	22.8380
 1.4070	22.4290
 1.4080	22.0420
 1.4090	21.6740
 1.4100	21.3310
 1.4110	21.0080
 1.4120	20.7070
 1.4130	20.4270
 1.4140	20.1660
 1.4150	19.9270
 1.4160	19.7070
 1.4170	19.5030
 1.4180	19.3180
 1.4190	19.1470
 1.4200	18.9890
 1.4210	18.8460
 1.4220	18.7150
 1.4230	18.5970
 1.4240	18.4910
 1.4250	18.3950
 1.4260	18.3110
 1.4270	18.2340
 1.4280	18.1660
 1.4290	18.1060
 1.4300	18.0560
 1.4310	18.0100
 1.4320	17.9740
 1.4330	17.9420
 1.4340	17.9160
 1.4350	17.8950
 1.4360	17.8800
 1.4370	17.8700
 1.4380	17.8630
 1.4390	17.8610
 1.4400	17.8610
 1.4410	17.8650
 1.4420	17.8720
 1.4430	17.8830
 1.4440	17.8960
 1.4450	17.9120
 1.4460	17.9280
 1.4470	17.9470
 1.4480	17.9660
 1.4490	17.9870
 1.4500	18.0100
 1.4510	18.0340
 1.4520	18.0600
 1.4530	18.0870
 1.4540	18.1140
 1.4550	18.1430
 1.4560	18.1730
 1.4570	18.2060
 1.4580	18.2410
 1.4590	18.2790
 1.4600	18.3210
 1.4610	18.3650
 1.4620	18.4130
 1.4630	18.4650
 1.4640	18.5210
 1.4650	18.5810
 1.4660	18.6460
 1.4670	18.7160
 1.4680	18.7920
 1.4690	18.8710
 1.4700	18.9560
