Name: Baccharis pilularis 3
Type: vegetation
Class: Shrub
Genus: Baccharis
Species: pilularis
Sample No.: VH047
Owner: UCSB
Wavelength Range: TIR
Origin: 34.5088; -119.7683; WGS84
Collection Date: 4/1/2013
Description: Samples were collected as part of the HyspIRI Airborne Campaign. 48 individual plants were sampled in three times in 2013 - spring  summer  and fall. The name of the sample includes a 1  2  or 3 which references a different individual of the species. Samples were taken to JPL and processed within 48 hours of collection. The same leaves were processed in the Nicolet and then measured using the ASD.
Measurement: Hemispherical reflectance
First Column: X
Second Column: Y
X Units: Wavelength (micrometers)
Y Units: Reflectance (percentage)
First X Value: 2.501
Last X Value: 15.387
Number of X Values: 1737
Additional Information: vegetation.shrub.baccharis.pilularis.tir.vh047.ucsb.nicolet.ancillary.txt

 2.5010	 4.5920
 2.5030	 4.5990
 2.5040	 4.7270
 2.5050	 4.6070
 2.5060	 4.5000
 2.5070	 4.5080
 2.5090	 4.6760
 2.5100	 4.5530
 2.5110	 4.5550
 2.5120	 4.6370
 2.5140	 4.5470
 2.5150	 4.4860
 2.5160	 4.5530
 2.5170	 4.6000
 2.5180	 4.6320
 2.5200	 4.5620
 2.5210	 4.6310
 2.5220	 4.5720
 2.5230	 4.5370
 2.5250	 4.4540
 2.5260	 4.4870
 2.5270	 4.4340
 2.5280	 4.4200
 2.5290	 4.4450
 2.5310	 4.5370
 2.5320	 4.5280
 2.5330	 4.6090
 2.5340	 4.5700
 2.5360	 4.5570
 2.5370	 4.4420
 2.5380	 4.4400
 2.5390	 4.4490
 2.5410	 4.5310
 2.5420	 4.4690
 2.5430	 4.4090
 2.5440	 4.3920
 2.5460	 4.5040
 2.5470	 4.5060
 2.5480	 4.4840
 2.5490	 4.4420
 2.5510	 4.5120
 2.5520	 4.4320
 2.5530	 4.4250
 2.5540	 4.4290
 2.5560	 4.4920
 2.5570	 4.4440
 2.5580	 4.5110
 2.5590	 4.5380
 2.5610	 4.5270
 2.5620	 4.5330
 2.5630	 4.5410
 2.5640	 4.6010
 2.5660	 4.7310
 2.5670	 4.6340
 2.5680	 4.6420
 2.5700	 4.6370
 2.5710	 4.6730
 2.5720	 4.5910
 2.5730	 4.5850
 2.5750	 4.5040
 2.5760	 4.5430
 2.5770	 4.5850
 2.5790	 4.6440
 2.5800	 4.6020
 2.5810	 4.5790
 2.5820	 4.5720
 2.5840	 4.6940
 2.5850	 4.6300
 2.5860	 4.6190
 2.5880	 4.5860
 2.5890	 4.6330
 2.5900	 4.6270
 2.5910	 4.6890
 2.5930	 4.6840
 2.5940	 4.6900
 2.5950	 4.6700
 2.5970	 4.6260
 2.5980	 4.4760
 2.5990	 4.5350
 2.6000	 4.5980
 2.6020	 4.5660
 2.6030	 4.4590
 2.6040	 4.4890
 2.6060	 4.4290
 2.6070	 4.4100
 2.6080	 4.4200
 2.6100	 4.5880
 2.6110	 4.5660
 2.6120	 4.5220
 2.6140	 4.5340
 2.6150	 4.6090
 2.6160	 4.5000
 2.6180	 4.5190
 2.6190	 4.4050
 2.6200	 4.5390
 2.6220	 4.6790
 2.6230	 4.7120
 2.6240	 4.6090
 2.6260	 4.5240
 2.6270	 4.4360
 2.6280	 4.4700
 2.6300	 4.4290
 2.6310	 4.4390
 2.6320	 4.4320
 2.6340	 4.5160
 2.6350	 4.4400
 2.6360	 4.4370
 2.6380	 4.4450
 2.6390	 4.4840
 2.6400	 4.4850
 2.6420	 4.4690
 2.6430	 4.4500
 2.6440	 4.4510
 2.6460	 4.4390
 2.6470	 4.4290
 2.6480	 4.4040
 2.6500	 4.5190
 2.6510	 4.5470
 2.6520	 4.4770
 2.6540	 4.3800
 2.6550	 4.4190
 2.6560	 4.4120
 2.6580	 4.4930
 2.6590	 4.4430
 2.6610	 4.4190
 2.6620	 4.4280
 2.6630	 4.5020
 2.6650	 4.5130
 2.6660	 4.5210
 2.6670	 4.5750
 2.6690	 4.5480
 2.6700	 4.4220
 2.6720	 4.3540
 2.6730	 4.3010
 2.6740	 4.3360
 2.6760	 4.2480
 2.6770	 4.4230
 2.6780	 4.4800
 2.6800	 4.3930
 2.6810	 4.3290
 2.6830	 4.4440
 2.6840	 4.4880
 2.6850	 4.4990
 2.6870	 4.4590
 2.6880	 4.4760
 2.6900	 4.3450
 2.6910	 4.4190
 2.6920	 4.4310
 2.6940	 4.4140
 2.6950	 4.3400
 2.6970	 4.3950
 2.6980	 4.3260
 2.6990	 4.3720
 2.7010	 4.4120
 2.7020	 4.4330
 2.7040	 4.4380
 2.7050	 4.4610
 2.7060	 4.3570
 2.7080	 4.3870
 2.7090	 4.3390
 2.7110	 4.3420
 2.7120	 4.3750
 2.7130	 4.3340
 2.7150	 4.2500
 2.7160	 4.2850
 2.7180	 4.2470
 2.7190	 4.2450
 2.7210	 4.2390
 2.7220	 4.2900
 2.7230	 4.3570
 2.7250	 4.5060
 2.7260	 4.3880
 2.7280	 4.2890
 2.7290	 4.2210
 2.7310	 4.3180
 2.7320	 4.2570
 2.7330	 4.2300
 2.7350	 4.2330
 2.7360	 4.2130
 2.7380	 4.2200
 2.7390	 4.4350
 2.7410	 4.2960
 2.7420	 4.1020
 2.7440	 4.0850
 2.7450	 4.1890
 2.7470	 4.1920
 2.7480	 4.3040
 2.7490	 4.2280
 2.7510	 4.1160
 2.7520	 4.1440
 2.7540	 4.2250
 2.7550	 4.2600
 2.7570	 4.1940
 2.7580	 4.1190
 2.7600	 4.2870
 2.7610	 4.3120
 2.7630	 4.3000
 2.7640	 4.2100
 2.7660	 4.2520
 2.7670	 4.2390
 2.7680	 4.2430
 2.7700	 4.2840
 2.7710	 4.3010
 2.7730	 4.2040
 2.7740	 4.2690
 2.7760	 4.3230
 2.7770	 4.3540
 2.7790	 4.1380
 2.7800	 4.0890
 2.7820	 4.2200
 2.7830	 4.2200
 2.7850	 4.1350
 2.7860	 4.2310
 2.7880	 4.2190
 2.7890	 4.1710
 2.7910	 4.1580
 2.7920	 4.2880
 2.7940	 4.2380
 2.7950	 4.2280
 2.7970	 4.2870
 2.7980	 4.2990
 2.8000	 4.1680
 2.8010	 4.1160
 2.8030	 4.1600
 2.8040	 4.1920
 2.8060	 4.1350
 2.8070	 4.1370
 2.8090	 4.1130
 2.8110	 4.1910
 2.8120	 4.2020
 2.8140	 4.2200
 2.8150	 4.1670
 2.8170	 4.1750
 2.8180	 4.1310
 2.8200	 4.2160
 2.8210	 4.1810
 2.8230	 4.1180
 2.8240	 4.0230
 2.8260	 4.0610
 2.8270	 3.9840
 2.8290	 4.1090
 2.8300	 4.1310
 2.8320	 4.1010
 2.8340	 4.0740
 2.8350	 4.1680
 2.8370	 4.1020
 2.8380	 4.1490
 2.8400	 4.1420
 2.8410	 4.2350
 2.8430	 4.2300
 2.8440	 4.2270
 2.8460	 4.1040
 2.8480	 4.0910
 2.8490	 4.0670
 2.8510	 4.1300
 2.8520	 4.1890
 2.8540	 4.2500
 2.8550	 4.2450
 2.8570	 4.2440
 2.8590	 4.1940
 2.8600	 4.2180
 2.8620	 4.2250
 2.8630	 4.3230
 2.8650	 4.2910
 2.8660	 4.2220
 2.8680	 4.0860
 2.8700	 4.1250
 2.8710	 4.1390
 2.8730	 4.1100
 2.8740	 4.1750
 2.8760	 4.3160
 2.8780	 4.1820
 2.8790	 4.2260
 2.8810	 4.2110
 2.8820	 4.1430
 2.8840	 4.1280
 2.8860	 4.2450
 2.8870	 4.3380
 2.8890	 4.3860
 2.8900	 4.2320
 2.8920	 4.1800
 2.8940	 4.2450
 2.8950	 4.3460
 2.8970	 4.1610
 2.8980	 4.1710
 2.9000	 4.1460
 2.9020	 4.2040
 2.9030	 4.2840
 2.9050	 4.2850
 2.9070	 4.2840
 2.9080	 4.3730
 2.9100	 4.2060
 2.9120	 4.1650
 2.9130	 4.2300
 2.9150	 4.2770
 2.9160	 4.1270
 2.9180	 4.1650
 2.9200	 4.1760
 2.9210	 4.3270
 2.9230	 4.3240
 2.9250	 4.2680
 2.9260	 4.3160
 2.9280	 4.3370
 2.9300	 4.2630
 2.9310	 4.3230
 2.9330	 4.3600
 2.9350	 4.3970
 2.9360	 4.3160
 2.9380	 4.3040
 2.9400	 4.3270
 2.9410	 4.2910
 2.9430	 4.1750
 2.9450	 4.1240
 2.9460	 4.2860
 2.9480	 4.2810
 2.9500	 4.1420
 2.9510	 4.1430
 2.9530	 4.1690
 2.9550	 4.1920
 2.9560	 4.1630
 2.9580	 4.3620
 2.9600	 4.2680
 2.9610	 4.2020
 2.9630	 4.2490
 2.9650	 4.3190
 2.9660	 4.3700
 2.9680	 4.4270
 2.9700	 4.3130
 2.9720	 3.9830
 2.9730	 4.0640
 2.9750	 4.4890
 2.9770	 4.6040
 2.9780	 4.7040
 2.9800	 4.6980
 2.9820	 4.6200
 2.9840	 4.3510
 2.9850	 4.2920
 2.9870	 4.2460
 2.9890	 4.3620
 2.9900	 4.3340
 2.9920	 4.1350
 2.9940	 4.3020
 2.9960	 4.3280
 2.9970	 3.8330
 2.9990	 4.0370
 3.0010	 3.7970
 3.0030	 3.6760
 3.0040	 4.0680
 3.0060	 4.2300
 3.0080	 4.1280
 3.0100	 4.1050
 3.0110	 4.1620
 3.0130	 4.5690
 3.0150	 4.6270
 3.0170	 4.0800
 3.0180	 4.2960
 3.0200	 4.4350
 3.0220	 3.6450
 3.0240	 3.7040
 3.0250	 3.8720
 3.0270	 4.1410
 3.0290	 4.4400
 3.0310	 4.5350
 3.0320	 4.3440
 3.0340	 4.6040
 3.0360	 4.5570
 3.0380	 4.0580
 3.0400	 3.7690
 3.0410	 3.6550
 3.0430	 3.8210
 3.0450	 4.0260
 3.0470	 4.0490
 3.0480	 4.0380
 3.0500	 4.6100
 3.0520	 4.4540
 3.0540	 4.1810
 3.0560	 3.9760
 3.0570	 3.9700
 3.0590	 4.2640
 3.0610	 4.6790
 3.0630	 4.6430
 3.0650	 4.4520
 3.0660	 4.4340
 3.0680	 4.3920
 3.0700	 4.5170
 3.0720	 4.3590
 3.0740	 4.3350
 3.0760	 4.4030
 3.0770	 4.4080
 3.0790	 4.2810
 3.0810	 4.2850
 3.0830	 4.4140
 3.0850	 4.5280
 3.0870	 4.3190
 3.0880	 4.2830
 3.0900	 4.4400
 3.0920	 4.5370
 3.0940	 4.3610
 3.0960	 4.2740
 3.0980	 4.2510
 3.0990	 4.2080
 3.1010	 4.2400
 3.1030	 4.1870
 3.1050	 4.0570
 3.1070	 4.1960
 3.1090	 4.3030
 3.1110	 4.4080
 3.1120	 4.3980
 3.1140	 4.4540
 3.1160	 4.2840
 3.1180	 4.2090
 3.1200	 4.1810
 3.1220	 4.1820
 3.1240	 4.1500
 3.1260	 4.1700
 3.1270	 4.3540
 3.1290	 4.4300
 3.1310	 4.3160
 3.1330	 4.2600
 3.1350	 4.1540
 3.1370	 4.1840
 3.1390	 4.3420
 3.1410	 4.6340
 3.1430	 4.4420
 3.1450	 4.5720
 3.1460	 4.6550
 3.1480	 4.4320
 3.1500	 4.2290
 3.1520	 4.3200
 3.1540	 4.3990
 3.1560	 4.5920
 3.1580	 4.5770
 3.1600	 4.4030
 3.1620	 4.4810
 3.1640	 4.4920
 3.1660	 4.6710
 3.1680	 4.7600
 3.1700	 4.1580
 3.1710	 4.2880
 3.1730	 4.8700
 3.1750	 4.3570
 3.1770	 4.0090
 3.1790	 4.1820
 3.1810	 3.8610
 3.1830	 3.8620
 3.1850	 3.9100
 3.1870	 4.4260
 3.1890	 4.2580
 3.1910	 4.1130
 3.1930	 4.3080
 3.1950	 4.4170
 3.1970	 4.3580
 3.1990	 4.2310
 3.2010	 4.1500
 3.2030	 4.2460
 3.2050	 4.2320
 3.2070	 4.2750
 3.2090	 4.2950
 3.2110	 4.3140
 3.2130	 4.2790
 3.2150	 4.2900
 3.2170	 4.2560
 3.2190	 4.2240
 3.2210	 4.2440
 3.2230	 4.2850
 3.2250	 4.1800
 3.2270	 4.1780
 3.2290	 4.1700
 3.2310	 4.1840
 3.2330	 4.2240
 3.2350	 4.3290
 3.2370	 4.2090
 3.2390	 4.2540
 3.2410	 4.1210
 3.2430	 4.0680
 3.2450	 4.1200
 3.2470	 4.2470
 3.2490	 4.2210
 3.2510	 4.2750
 3.2530	 4.2530
 3.2550	 4.1970
 3.2570	 4.1930
 3.2590	 4.1750
 3.2610	 4.0930
 3.2630	 4.1460
 3.2650	 4.1620
 3.2670	 4.2030
 3.2690	 4.1710
 3.2720	 4.1160
 3.2740	 4.0620
 3.2760	 4.0510
 3.2780	 4.0660
 3.2800	 4.0880
 3.2820	 4.0610
 3.2840	 4.0850
 3.2860	 4.0930
 3.2880	 4.0840
 3.2900	 4.0540
 3.2920	 4.1540
 3.2940	 4.1380
 3.2960	 4.1240
 3.2990	 4.0790
 3.3010	 4.0440
 3.3030	 4.0310
 3.3050	 4.0950
 3.3070	 4.0660
 3.3090	 4.0640
 3.3110	 3.9760
 3.3130	 3.9530
 3.3150	 3.9710
 3.3180	 4.0130
 3.3200	 3.9340
 3.3220	 3.9580
 3.3240	 3.9690
 3.3260	 3.9500
 3.3280	 3.8970
 3.3300	 3.9440
 3.3330	 3.9480
 3.3350	 3.9170
 3.3370	 3.8220
 3.3390	 3.7900
 3.3410	 3.7500
 3.3430	 3.7850
 3.3450	 3.8870
 3.3480	 3.8990
 3.3500	 3.7600
 3.3520	 3.7660
 3.3540	 3.7460
 3.3560	 3.6720
 3.3580	 3.5380
 3.3610	 3.5730
 3.3630	 3.6670
 3.3650	 3.7720
 3.3670	 3.6890
 3.3690	 3.7170
 3.3720	 3.7270
 3.3740	 3.6880
 3.3760	 3.6940
 3.3780	 3.8190
 3.3800	 3.7920
 3.3830	 3.9170
 3.3850	 3.9940
 3.3870	 3.9500
 3.3890	 3.7930
 3.3910	 3.6850
 3.3940	 3.6070
 3.3960	 3.6350
 3.3980	 3.6150
 3.4000	 3.7170
 3.4020	 3.8450
 3.4050	 3.9480
 3.4070	 4.0950
 3.4090	 4.2940
 3.4110	 4.5050
 3.4140	 4.9270
 3.4160	 5.3650
 3.4180	 5.9210
 3.4200	 6.5990
 3.4230	 7.5620
 3.4250	 8.5210
 3.4270	 9.5030
 3.4290	10.0470
 3.4320	 9.6100
 3.4340	 8.4060
 3.4360	 7.3770
 3.4390	 6.7780
 3.4410	 6.5030
 3.4430	 6.1360
 3.4450	 5.9340
 3.4480	 5.8330
 3.4500	 5.7870
 3.4520	 5.7290
 3.4550	 5.6800
 3.4570	 5.6240
 3.4590	 5.5510
 3.4620	 5.4100
 3.4640	 5.2870
 3.4660	 5.1390
 3.4680	 5.1520
 3.4710	 5.1010
 3.4730	 5.0220
 3.4750	 4.8860
 3.4780	 4.8080
 3.4800	 4.7900
 3.4820	 4.7740
 3.4850	 4.7080
 3.4870	 4.6830
 3.4890	 4.5930
 3.4920	 4.5250
 3.4940	 4.4720
 3.4970	 4.5600
 3.4990	 4.7360
 3.5010	 5.0100
 3.5040	 5.4210
 3.5060	 6.3270
 3.5080	 7.7590
 3.5110	 8.9610
 3.5130	 8.7670
 3.5160	 7.7140
 3.5180	 6.8430
 3.5200	 6.3500
 3.5230	 6.0260
 3.5250	 5.8380
 3.5270	 5.6820
 3.5300	 5.5740
 3.5320	 5.4520
 3.5350	 5.4040
 3.5370	 5.2470
 3.5400	 5.2010
 3.5420	 5.1920
 3.5440	 5.1620
 3.5470	 5.0970
 3.5490	 5.1130
 3.5520	 5.0850
 3.5540	 5.0740
 3.5570	 4.9790
 3.5590	 4.9560
 3.5610	 4.9480
 3.5640	 4.9670
 3.5660	 4.9550
 3.5690	 5.0610
 3.5710	 5.0820
 3.5740	 4.9660
 3.5760	 4.6990
 3.5790	 4.5940
 3.5810	 4.6430
 3.5840	 4.7590
 3.5860	 4.7330
 3.5890	 4.8700
 3.5910	 4.8060
 3.5930	 4.7400
 3.5960	 4.7660
 3.5980	 4.7340
 3.6010	 4.7090
 3.6030	 4.7740
 3.6060	 4.8070
 3.6080	 4.7490
 3.6110	 4.6760
 3.6140	 4.6870
 3.6160	 4.6120
 3.6190	 4.6750
 3.6210	 4.7030
 3.6240	 4.7050
 3.6260	 4.6710
 3.6290	 4.6610
 3.6310	 4.6300
 3.6340	 4.7110
 3.6360	 4.7380
 3.6390	 4.6990
 3.6410	 4.5590
 3.6440	 4.5880
 3.6470	 4.6730
 3.6490	 4.7460
 3.6520	 4.7070
 3.6540	 4.6660
 3.6570	 4.6090
 3.6590	 4.5720
 3.6620	 4.6040
 3.6650	 4.7070
 3.6670	 4.6760
 3.6700	 4.6080
 3.6720	 4.5070
 3.6750	 4.5190
 3.6780	 4.5270
 3.6800	 4.5940
 3.6830	 4.5940
 3.6850	 4.5960
 3.6880	 4.6230
 3.6910	 4.6860
 3.6930	 4.6780
 3.6960	 4.6480
 3.6990	 4.5940
 3.7010	 4.5380
 3.7040	 4.4850
 3.7060	 4.5470
 3.7090	 4.5370
 3.7120	 4.5380
 3.7140	 4.5320
 3.7170	 4.5500
 3.7200	 4.5510
 3.7220	 4.5520
 3.7250	 4.5990
 3.7280	 4.6610
 3.7300	 4.5420
 3.7330	 4.4920
 3.7360	 4.4670
 3.7390	 4.4850
 3.7410	 4.4910
 3.7440	 4.5280
 3.7470	 4.5010
 3.7490	 4.5270
 3.7520	 4.5420
 3.7550	 4.5810
 3.7580	 4.5480
 3.7600	 4.5190
 3.7630	 4.5240
 3.7660	 4.5930
 3.7680	 4.5870
 3.7710	 4.5650
 3.7740	 4.4860
 3.7770	 4.5030
 3.7790	 4.5210
 3.7820	 4.4990
 3.7850	 4.4830
 3.7880	 4.4560
 3.7900	 4.4460
 3.7930	 4.4890
 3.7960	 4.4670
 3.7990	 4.4750
 3.8020	 4.5230
 3.8040	 4.5750
 3.8070	 4.5850
 3.8100	 4.5830
 3.8130	 4.5450
 3.8160	 4.5780
 3.8180	 4.5880
 3.8210	 4.6070
 3.8240	 4.5890
 3.8270	 4.6110
 3.8300	 4.5870
 3.8330	 4.5270
 3.8350	 4.5180
 3.8380	 4.5280
 3.8410	 4.5040
 3.8440	 4.5190
 3.8470	 4.4800
 3.8500	 4.4680
 3.8520	 4.4590
 3.8550	 4.4750
 3.8580	 4.4400
 3.8610	 4.4920
 3.8640	 4.5240
 3.8670	 4.5410
 3.8700	 4.5070
 3.8730	 4.5340
 3.8750	 4.5220
 3.8780	 4.5180
 3.8810	 4.5040
 3.8840	 4.4670
 3.8870	 4.3920
 3.8900	 4.4200
 3.8930	 4.4410
 3.8960	 4.4740
 3.8990	 4.5040
 3.9020	 4.5450
 3.9050	 4.4830
 3.9080	 4.5000
 3.9110	 4.5620
 3.9140	 4.6070
 3.9160	 4.5690
 3.9190	 4.4950
 3.9220	 4.4520
 3.9250	 4.4120
 3.9280	 4.4210
 3.9310	 4.5370
 3.9340	 4.5480
 3.9370	 4.5310
 3.9400	 4.5080
 3.9430	 4.4710
 3.9460	 4.4340
 3.9490	 4.4600
 3.9520	 4.4670
 3.9550	 4.4920
 3.9580	 4.4890
 3.9610	 4.5160
 3.9640	 4.5370
 3.9670	 4.5260
 3.9700	 4.4750
 3.9730	 4.4830
 3.9770	 4.4470
 3.9800	 4.5110
 3.9830	 4.5760
 3.9860	 4.5870
 3.9890	 4.5180
 3.9920	 4.4450
 3.9950	 4.4400
 3.9980	 4.4930
 4.0010	 4.4730
 4.0040	 4.5240
 4.0070	 4.5240
 4.0100	 4.4780
 4.0130	 4.4610
 4.0170	 4.4750
 4.0200	 4.4830
 4.0230	 4.4310
 4.0260	 4.4170
 4.0290	 4.4870
 4.0320	 4.4590
 4.0350	 4.4970
 4.0380	 4.5370
 4.0420	 4.5130
 4.0450	 4.4620
 4.0480	 4.5110
 4.0510	 4.5490
 4.0540	 4.5620
 4.0570	 4.5530
 4.0610	 4.5890
 4.0640	 4.4880
 4.0670	 4.4380
 4.0700	 4.4550
 4.0730	 4.4660
 4.0770	 4.4560
 4.0800	 4.5010
 4.0830	 4.4650
 4.0860	 4.4440
 4.0890	 4.3880
 4.0930	 4.4070
 4.0960	 4.4140
 4.0990	 4.4080
 4.1020	 4.4160
 4.1060	 4.4910
 4.1090	 4.4830
 4.1120	 4.4410
 4.1150	 4.4020
 4.1190	 4.4230
 4.1220	 4.4380
 4.1250	 4.4710
 4.1280	 4.4980
 4.1320	 4.4950
 4.1350	 4.4570
 4.1380	 4.4030
 4.1420	 4.4270
 4.1450	 4.4900
 4.1480	 4.5130
 4.1520	 4.5180
 4.1550	 4.4620
 4.1580	 4.4480
 4.1620	 4.4060
 4.1650	 4.4300
 4.1680	 4.4350
 4.1720	 4.3930
 4.1750	 4.3720
 4.1780	 4.3790
 4.1820	 4.3950
 4.1850	 4.4380
 4.1890	 4.4070
 4.1920	 4.4450
 4.1950	 4.4460
 4.1990	 4.4460
 4.2020	 4.4470
 4.2060	 4.4950
 4.2090	 4.5440
 4.2120	 4.4800
 4.2160	 4.3780
 4.2190	 4.4570
 4.2230	 4.6060
 4.2260	 4.8110
 4.2300	 4.6850
 4.2330	 4.6050
 4.2360	 4.5910
 4.2400	 4.6720
 4.2430	 4.5400
 4.2470	 4.4970
 4.2500	 4.4630
 4.2540	 4.4250
 4.2570	 4.5440
 4.2610	 4.7140
 4.2640	 4.6050
 4.2680	 4.4230
 4.2710	 4.4910
 4.2750	 4.7520
 4.2780	 4.7530
 4.2820	 4.5870
 4.2850	 4.3700
 4.2890	 4.3510
 4.2930	 4.4920
 4.2960	 4.7480
 4.3000	 4.7640
 4.3030	 4.5580
 4.3070	 4.3980
 4.3100	 4.5010
 4.3140	 4.6040
 4.3180	 4.6130
 4.3210	 4.5360
 4.3250	 4.5470
 4.3280	 4.5390
 4.3320	 4.4510
 4.3360	 4.4170
 4.3390	 4.5020
 4.3430	 4.5120
 4.3470	 4.4590
 4.3500	 4.4270
 4.3540	 4.4080
 4.3570	 4.3810
 4.3610	 4.4060
 4.3650	 4.4670
 4.3680	 4.4750
 4.3720	 4.4470
 4.3760	 4.4300
 4.3800	 4.3970
 4.3830	 4.4440
 4.3870	 4.4240
 4.3910	 4.3650
 4.3940	 4.3370
 4.3980	 4.3700
 4.4020	 4.3810
 4.4060	 4.4360
 4.4090	 4.4840
 4.4130	 4.3950
 4.4170	 4.3370
 4.4210	 4.3480
 4.4240	 4.4100
 4.4280	 4.4060
 4.4320	 4.3510
 4.4360	 4.3530
 4.4400	 4.3500
 4.4430	 4.3660
 4.4470	 4.3880
 4.4510	 4.3770
 4.4550	 4.3470
 4.4590	 4.4030
 4.4620	 4.4010
 4.4660	 4.4120
 4.4700	 4.4450
 4.4740	 4.4240
 4.4780	 4.3670
 4.4820	 4.3420
 4.4860	 4.3570
 4.4900	 4.4080
 4.4930	 4.3800
 4.4970	 4.3390
 4.5010	 4.3490
 4.5050	 4.3970
 4.5090	 4.3640
 4.5130	 4.3120
 4.5170	 4.2730
 4.5210	 4.3220
 4.5250	 4.3820
 4.5290	 4.3880
 4.5330	 4.3770
 4.5370	 4.3490
 4.5410	 4.2990
 4.5450	 4.3100
 4.5490	 4.3450
 4.5530	 4.3730
 4.5570	 4.3320
 4.5610	 4.3230
 4.5650	 4.2830
 4.5690	 4.3000
 4.5730	 4.3420
 4.5770	 4.3530
 4.5810	 4.3510
 4.5850	 4.3720
 4.5890	 4.3070
 4.5930	 4.2340
 4.5970	 4.2800
 4.6010	 4.3960
 4.6050	 4.3950
 4.6090	 4.3410
 4.6130	 4.3180
 4.6170	 4.3140
 4.6220	 4.3000
 4.6260	 4.3330
 4.6300	 4.4190
 4.6340	 4.4340
 4.6380	 4.3990
 4.6420	 4.3730
 4.6460	 4.3650
 4.6510	 4.2770
 4.6550	 4.2780
 4.6590	 4.3160
 4.6630	 4.3250
 4.6670	 4.3590
 4.6720	 4.2990
 4.6760	 4.2540
 4.6800	 4.2990
 4.6840	 4.3520
 4.6880	 4.3770
 4.6930	 4.3210
 4.6970	 4.2660
 4.7010	 4.2970
 4.7050	 4.3590
 4.7100	 4.3760
 4.7140	 4.3590
 4.7180	 4.3720
 4.7230	 4.3240
 4.7270	 4.3100
 4.7310	 4.3380
 4.7360	 4.3220
 4.7400	 4.3140
 4.7440	 4.3550
 4.7490	 4.3620
 4.7530	 4.3180
 4.7570	 4.3070
 4.7620	 4.3020
 4.7660	 4.2890
 4.7700	 4.3070
 4.7750	 4.2730
 4.7790	 4.2730
 4.7840	 4.3310
 4.7880	 4.3160
 4.7920	 4.2370
 4.7970	 4.1600
 4.8010	 4.1930
 4.8060	 4.3060
 4.8100	 4.3220
 4.8150	 4.2680
 4.8190	 4.2920
 4.8240	 4.2900
 4.8280	 4.2810
 4.8330	 4.2840
 4.8370	 4.3040
 4.8420	 4.3140
 4.8460	 4.3100
 4.8510	 4.2850
 4.8550	 4.2970
 4.8600	 4.3110
 4.8640	 4.2610
 4.8690	 4.2630
 4.8730	 4.3050
 4.8780	 4.3350
 4.8830	 4.3130
 4.8870	 4.2160
 4.8920	 4.1920
 4.8960	 4.2120
 4.9010	 4.2770
 4.9060	 4.2930
 4.9100	 4.2780
 4.9150	 4.2350
 4.9200	 4.1900
 4.9240	 4.2150
 4.9290	 4.2590
 4.9340	 4.2330
 4.9380	 4.1870
 4.9430	 4.1970
 4.9480	 4.2650
 4.9530	 4.2710
 4.9570	 4.2540
 4.9620	 4.2220
 4.9670	 4.2540
 4.9720	 4.3070
 4.9760	 4.3270
 4.9810	 4.3190
 4.9860	 4.3300
 4.9910	 4.2990
 4.9960	 4.2490
 5.0000	 4.2030
 5.0050	 4.2100
 5.0100	 4.2540
 5.0150	 4.3200
 5.0200	 4.3220
 5.0250	 4.2820
 5.0290	 4.2170
 5.0340	 4.2070
 5.0390	 4.2480
 5.0440	 4.2410
 5.0490	 4.1880
 5.0540	 4.1770
 5.0590	 4.2140
 5.0640	 4.2440
 5.0690	 4.2620
 5.0740	 4.2690
 5.0790	 4.2560
 5.0840	 4.2560
 5.0890	 4.2540
 5.0940	 4.2500
 5.0990	 4.2310
 5.1040	 4.2630
 5.1090	 4.2750
 5.1140	 4.2730
 5.1190	 4.2150
 5.1240	 4.2340
 5.1290	 4.2630
 5.1340	 4.2820
 5.1390	 4.2180
 5.1440	 4.1680
 5.1490	 4.1590
 5.1540	 4.2180
 5.1600	 4.2560
 5.1650	 4.3200
 5.1700	 4.2900
 5.1750	 4.2340
 5.1800	 4.1650
 5.1850	 4.2610
 5.1910	 4.3190
 5.1960	 4.2760
 5.2010	 4.2360
 5.2060	 4.2560
 5.2110	 4.1900
 5.2170	 4.1820
 5.2220	 4.2000
 5.2270	 4.2250
 5.2320	 4.1860
 5.2380	 4.1590
 5.2430	 4.1470
 5.2480	 4.1870
 5.2540	 4.2250
 5.2590	 4.1950
 5.2640	 4.1180
 5.2700	 4.1270
 5.2750	 4.1480
 5.2800	 4.1760
 5.2860	 4.2130
 5.2910	 4.1710
 5.2970	 4.0880
 5.3020	 4.0960
 5.3070	 4.1270
 5.3130	 4.2050
 5.3180	 4.1910
 5.3240	 4.1640
 5.3290	 4.1480
 5.3350	 4.1240
 5.3400	 4.0860
 5.3460	 4.1710
 5.3510	 4.1890
 5.3570	 4.1800
 5.3620	 4.1640
 5.3680	 4.1750
 5.3730	 4.1580
 5.3790	 4.1980
 5.3850	 4.1940
 5.3900	 4.1890
 5.3960	 4.1740
 5.4010	 4.1360
 5.4070	 4.0810
 5.4130	 4.1110
 5.4180	 4.1350
 5.4240	 4.1750
 5.4300	 4.1530
 5.4350	 4.1340
