Name: Heteromeles arbutifolia 1
Type: vegetation
Class: Shrub
Genus: Heteromeles
Species: arbutifolia
Sample No.: VH133
Owner: UCSB
Wavelength Range: TIR
Origin: 34.4907; -119.791; WGS84
Collection Date: 6/3/2013
Description: Samples were collected as part of the HyspIRI Airborne Campaign. 48 individual plants were sampled in three times in 2013 - spring  summer  and fall. The name of the sample includes a 1  2  or 3 which references a different individual of the species. Samples were taken to JPL and processed within 48 hours of collection. The same leaves were processed in the Nicolet and then measured using the ASD.
Measurement: Hemispherical reflectance
First Column: X
Second Column: Y
X Units: Wavelength (micrometers)
Y Units: Reflectance (percentage)
First X Value: 2.501
Last X Value: 15.387
Number of X Values: 1737
Additional Information: vegetation.shrub.heteromeles.arbutifolia.tir.vh133.ucsb.nicolet.ancillary.txt

 2.5010	 7.5580
 2.5030	 7.4590
 2.5040	 7.5410
 2.5050	 7.5500
 2.5060	 7.6190
 2.5070	 7.5570
 2.5090	 7.4780
 2.5100	 7.4750
 2.5110	 7.5260
 2.5120	 7.4260
 2.5140	 7.2910
 2.5150	 7.1970
 2.5160	 7.3720
 2.5170	 7.4640
 2.5180	 7.5060
 2.5200	 7.4570
 2.5210	 7.4140
 2.5220	 7.3360
 2.5230	 7.3110
 2.5250	 7.2190
 2.5260	 7.3060
 2.5270	 7.3170
 2.5280	 7.2260
 2.5290	 7.2440
 2.5310	 7.2920
 2.5320	 7.2950
 2.5330	 7.4630
 2.5340	 7.3580
 2.5360	 7.2730
 2.5370	 7.1660
 2.5380	 7.2620
 2.5390	 7.3050
 2.5410	 7.3670
 2.5420	 7.3880
 2.5430	 7.4200
 2.5440	 7.3220
 2.5460	 7.2920
 2.5470	 7.3550
 2.5480	 7.5100
 2.5490	 7.3740
 2.5510	 7.2700
 2.5520	 7.1740
 2.5530	 7.1670
 2.5540	 7.1720
 2.5560	 7.2790
 2.5570	 7.3800
 2.5580	 7.5230
 2.5590	 7.5300
 2.5610	 7.5490
 2.5620	 7.4620
 2.5630	 7.3610
 2.5640	 7.2920
 2.5660	 7.3380
 2.5670	 7.3540
 2.5680	 7.4780
 2.5700	 7.4030
 2.5710	 7.4270
 2.5720	 7.3870
 2.5730	 7.3880
 2.5750	 7.3030
 2.5760	 7.3200
 2.5770	 7.3580
 2.5790	 7.4380
 2.5800	 7.3330
 2.5810	 7.2280
 2.5820	 7.2530
 2.5840	 7.4240
 2.5850	 7.4550
 2.5860	 7.2910
 2.5880	 7.1650
 2.5890	 7.2770
 2.5900	 7.2040
 2.5910	 7.2460
 2.5930	 7.3210
 2.5940	 7.4190
 2.5950	 7.2990
 2.5970	 7.1790
 2.5980	 7.1300
 2.5990	 7.1620
 2.6000	 7.1450
 2.6020	 7.1350
 2.6030	 7.0120
 2.6040	 7.0010
 2.6060	 7.0420
 2.6070	 7.0450
 2.6080	 7.0100
 2.6100	 6.9920
 2.6110	 6.9630
 2.6120	 7.0460
 2.6140	 6.8950
 2.6150	 6.7840
 2.6160	 6.7160
 2.6180	 6.7240
 2.6190	 6.6730
 2.6200	 6.7990
 2.6220	 6.7230
 2.6230	 6.7140
 2.6240	 6.7250
 2.6260	 6.8350
 2.6270	 6.7650
 2.6280	 6.6760
 2.6300	 6.6130
 2.6310	 6.7060
 2.6320	 6.5710
 2.6340	 6.5470
 2.6350	 6.4890
 2.6360	 6.4060
 2.6380	 6.4840
 2.6390	 6.5960
 2.6400	 6.5460
 2.6420	 6.5660
 2.6430	 6.4740
 2.6440	 6.3650
 2.6460	 6.2290
 2.6470	 6.3970
 2.6480	 6.3560
 2.6500	 6.3780
 2.6510	 6.3400
 2.6520	 6.3420
 2.6540	 6.2040
 2.6550	 6.0840
 2.6560	 6.0890
 2.6580	 6.1850
 2.6590	 6.1150
 2.6610	 6.1150
 2.6620	 6.0460
 2.6630	 5.9750
 2.6650	 6.0220
 2.6660	 6.0640
 2.6670	 5.9880
 2.6690	 6.0650
 2.6700	 6.1290
 2.6720	 6.2180
 2.6730	 6.0560
 2.6740	 6.0440
 2.6760	 5.9670
 2.6770	 6.0060
 2.6780	 6.0450
 2.6800	 6.0320
 2.6810	 5.8780
 2.6830	 5.8650
 2.6840	 5.8310
 2.6850	 5.8490
 2.6870	 5.8540
 2.6880	 5.9290
 2.6900	 5.9270
 2.6910	 5.8910
 2.6920	 5.7740
 2.6940	 5.7960
 2.6950	 5.8170
 2.6970	 5.8760
 2.6980	 5.8010
 2.6990	 5.8000
 2.7010	 5.7560
 2.7020	 5.7580
 2.7040	 5.7290
 2.7050	 5.8020
 2.7060	 5.8510
 2.7080	 5.8950
 2.7090	 5.7780
 2.7110	 5.7910
 2.7120	 5.7800
 2.7130	 5.7250
 2.7150	 5.6620
 2.7160	 5.7150
 2.7180	 5.7160
 2.7190	 5.8130
 2.7210	 5.9050
 2.7220	 5.8990
 2.7230	 5.7990
 2.7250	 5.8400
 2.7260	 5.7560
 2.7280	 5.7850
 2.7290	 5.8180
 2.7310	 5.9180
 2.7320	 5.9160
 2.7330	 5.9660
 2.7350	 5.8510
 2.7360	 5.7970
 2.7380	 5.7620
 2.7390	 5.8980
 2.7410	 5.8560
 2.7420	 5.8420
 2.7440	 5.8610
 2.7450	 5.8360
 2.7470	 5.8190
 2.7480	 5.9080
 2.7490	 5.9140
 2.7510	 5.9210
 2.7520	 5.8490
 2.7540	 5.8550
 2.7550	 5.7750
 2.7570	 5.8470
 2.7580	 5.9460
 2.7600	 6.0050
 2.7610	 5.9240
 2.7630	 5.9360
 2.7640	 5.8220
 2.7660	 5.8430
 2.7670	 5.8220
 2.7680	 5.9010
 2.7700	 5.8480
 2.7710	 5.8410
 2.7730	 5.7700
 2.7740	 5.7830
 2.7760	 5.8780
 2.7770	 5.9780
 2.7790	 5.9340
 2.7800	 5.9350
 2.7820	 5.8130
 2.7830	 5.9600
 2.7850	 5.9000
 2.7860	 5.7870
 2.7880	 5.7360
 2.7890	 5.8080
 2.7910	 5.7700
 2.7920	 5.8070
 2.7940	 5.8550
 2.7950	 5.9380
 2.7970	 5.7540
 2.7980	 5.7320
 2.8000	 5.7740
 2.8010	 5.8960
 2.8030	 5.8510
 2.8040	 5.8400
 2.8060	 5.6720
 2.8070	 5.6470
 2.8090	 5.8160
 2.8110	 5.9380
 2.8120	 5.8350
 2.8140	 5.8520
 2.8150	 5.8700
 2.8170	 5.8850
 2.8180	 5.7190
 2.8200	 5.7050
 2.8210	 5.7460
 2.8230	 5.8910
 2.8240	 5.9320
 2.8260	 5.9370
 2.8270	 5.8410
 2.8290	 5.8580
 2.8300	 5.8690
 2.8320	 5.9580
 2.8340	 5.9050
 2.8350	 5.9310
 2.8370	 5.8030
 2.8380	 5.8380
 2.8400	 5.9090
 2.8410	 5.9350
 2.8430	 5.8900
 2.8440	 6.0240
 2.8460	 5.9860
 2.8480	 5.8910
 2.8490	 5.7840
 2.8510	 6.0260
 2.8520	 6.1210
 2.8540	 6.0400
 2.8550	 5.9020
 2.8570	 5.8490
 2.8590	 5.6660
 2.8600	 5.7520
 2.8620	 5.8470
 2.8630	 5.9480
 2.8650	 5.8600
 2.8660	 5.9050
 2.8680	 5.9070
 2.8700	 6.0770
 2.8710	 6.0680
 2.8730	 5.8930
 2.8740	 5.8250
 2.8760	 5.9780
 2.8780	 5.9390
 2.8790	 5.9950
 2.8810	 5.8340
 2.8820	 5.6370
 2.8840	 5.6450
 2.8860	 5.8250
 2.8870	 5.7700
 2.8890	 5.7730
 2.8900	 5.7500
 2.8920	 5.8810
 2.8940	 6.0300
 2.8950	 6.0570
 2.8970	 5.8960
 2.8980	 5.8650
 2.9000	 5.8450
 2.9020	 5.8950
 2.9030	 5.8620
 2.9050	 5.9370
 2.9070	 5.9480
 2.9080	 5.9860
 2.9100	 5.8990
 2.9120	 5.8320
 2.9130	 5.8320
 2.9150	 5.8940
 2.9160	 5.8400
 2.9180	 5.9100
 2.9200	 5.8990
 2.9210	 5.8540
 2.9230	 5.8900
 2.9250	 6.0810
 2.9260	 6.0190
 2.9280	 6.0680
 2.9300	 6.0700
 2.9310	 6.0720
 2.9330	 6.0020
 2.9350	 6.0610
 2.9360	 6.0270
 2.9380	 6.0200
 2.9400	 5.9220
 2.9410	 5.8870
 2.9430	 5.9450
 2.9450	 6.0760
 2.9460	 6.0740
 2.9480	 6.1490
 2.9500	 6.1570
 2.9510	 6.0520
 2.9530	 5.7790
 2.9550	 5.8510
 2.9560	 5.9200
 2.9580	 5.9560
 2.9600	 5.8990
 2.9610	 5.9100
 2.9630	 5.8970
 2.9650	 5.9850
 2.9660	 6.0090
 2.9680	 6.0470
 2.9700	 5.9600
 2.9720	 6.0270
 2.9730	 6.0030
 2.9750	 6.0050
 2.9770	 5.8970
 2.9780	 6.0260
 2.9800	 6.1000
 2.9820	 6.0580
 2.9840	 5.9600
 2.9850	 5.9890
 2.9870	 6.0140
 2.9890	 6.1150
 2.9900	 6.0960
 2.9920	 6.1290
 2.9940	 6.0330
 2.9960	 6.0310
 2.9970	 6.0680
 2.9990	 6.1440
 3.0010	 6.1400
 3.0030	 6.1270
 3.0040	 5.9440
 3.0060	 5.9290
 3.0080	 5.9990
 3.0100	 6.0920
 3.0110	 6.1090
 3.0130	 6.1190
 3.0150	 5.9700
 3.0170	 6.0340
 3.0180	 6.0270
 3.0200	 5.9690
 3.0220	 5.9120
 3.0240	 5.9660
 3.0250	 5.9490
 3.0270	 6.0800
 3.0290	 6.1080
 3.0310	 6.0090
 3.0320	 5.8640
 3.0340	 5.9920
 3.0360	 5.9860
 3.0380	 6.0430
 3.0400	 6.0560
 3.0410	 5.9680
 3.0430	 5.9920
 3.0450	 6.1360
 3.0470	 6.0910
 3.0480	 5.9940
 3.0500	 5.9150
 3.0520	 5.9990
 3.0540	 5.9830
 3.0560	 6.0650
 3.0570	 6.0210
 3.0590	 6.0080
 3.0610	 5.9680
 3.0630	 5.9990
 3.0650	 6.0150
 3.0660	 6.0400
 3.0680	 5.9830
 3.0700	 6.0550
 3.0720	 6.0320
 3.0740	 5.9790
 3.0760	 5.9440
 3.0770	 6.0660
 3.0790	 6.0280
 3.0810	 6.0650
 3.0830	 6.0670
 3.0850	 6.0810
 3.0870	 5.9990
 3.0880	 5.9690
 3.0900	 5.9120
 3.0920	 5.9050
 3.0940	 5.9580
 3.0960	 6.0310
 3.0980	 5.9620
 3.0990	 5.8630
 3.1010	 5.7210
 3.1030	 5.8080
 3.1050	 5.8790
 3.1070	 5.9190
 3.1090	 5.8870
 3.1110	 5.9020
 3.1120	 5.8330
 3.1140	 5.9120
 3.1160	 5.8600
 3.1180	 5.9060
 3.1200	 5.9070
 3.1220	 5.9790
 3.1240	 6.0380
 3.1260	 6.1400
 3.1270	 6.1260
 3.1290	 6.1230
 3.1310	 6.0360
 3.1330	 5.9490
 3.1350	 5.8680
 3.1370	 5.8440
 3.1390	 5.8430
 3.1410	 5.8710
 3.1430	 5.8860
 3.1450	 5.9520
 3.1460	 5.8840
 3.1480	 5.8460
 3.1500	 5.8030
 3.1520	 5.8430
 3.1540	 5.8610
 3.1560	 5.8530
 3.1580	 5.8150
 3.1600	 5.9030
 3.1620	 5.8640
 3.1640	 5.8770
 3.1660	 5.8230
 3.1680	 5.7940
 3.1700	 5.7400
 3.1710	 5.7820
 3.1730	 5.7650
 3.1750	 5.7140
 3.1770	 5.7450
 3.1790	 5.8160
 3.1810	 5.8390
 3.1830	 5.8380
 3.1850	 5.6990
 3.1870	 5.7590
 3.1890	 5.7820
 3.1910	 5.7170
 3.1930	 5.7720
 3.1950	 5.8920
 3.1970	 5.7860
 3.1990	 5.7810
 3.2010	 5.7360
 3.2030	 5.7860
 3.2050	 5.7580
 3.2070	 5.7330
 3.2090	 5.6690
 3.2110	 5.6760
 3.2130	 5.6550
 3.2150	 5.7460
 3.2170	 5.7410
 3.2190	 5.7150
 3.2210	 5.6880
 3.2230	 5.7320
 3.2250	 5.6970
 3.2270	 5.7010
 3.2290	 5.6860
 3.2310	 5.6860
 3.2330	 5.5550
 3.2350	 5.5210
 3.2370	 5.5950
 3.2390	 5.7190
 3.2410	 5.7370
 3.2430	 5.7240
 3.2450	 5.6260
 3.2470	 5.6370
 3.2490	 5.5970
 3.2510	 5.5110
 3.2530	 5.4670
 3.2550	 5.5950
 3.2570	 5.6050
 3.2590	 5.5340
 3.2610	 5.5050
 3.2630	 5.6260
 3.2650	 5.7350
 3.2670	 5.6910
 3.2690	 5.4940
 3.2720	 5.5170
 3.2740	 5.5410
 3.2760	 5.5690
 3.2780	 5.4980
 3.2800	 5.5350
 3.2820	 5.5390
 3.2840	 5.5710
 3.2860	 5.5360
 3.2880	 5.5890
 3.2900	 5.5050
 3.2920	 5.5150
 3.2940	 5.4540
 3.2960	 5.4040
 3.2990	 5.3640
 3.3010	 5.3110
 3.3030	 5.3270
 3.3050	 5.4090
 3.3070	 5.3420
 3.3090	 5.3450
 3.3110	 5.2590
 3.3130	 5.3280
 3.3150	 5.3550
 3.3180	 5.3120
 3.3200	 5.2260
 3.3220	 5.2700
 3.3240	 5.2110
 3.3260	 5.0970
 3.3280	 5.0580
 3.3300	 5.1420
 3.3330	 5.1530
 3.3350	 5.2040
 3.3370	 5.1670
 3.3390	 5.1020
 3.3410	 5.0200
 3.3430	 5.1090
 3.3450	 5.0690
 3.3480	 5.0190
 3.3500	 4.9820
 3.3520	 5.0930
 3.3540	 5.0820
 3.3560	 5.0690
 3.3580	 4.9820
 3.3610	 5.0110
 3.3630	 4.9520
 3.3650	 4.9300
 3.3670	 4.9530
 3.3690	 4.9390
 3.3720	 4.9160
 3.3740	 5.0040
 3.3760	 4.9960
 3.3780	 5.0130
 3.3800	 4.9870
 3.3830	 5.0630
 3.3850	 5.0400
 3.3870	 4.9790
 3.3890	 4.8570
 3.3910	 4.8950
 3.3940	 4.9170
 3.3960	 5.0180
 3.3980	 5.0440
 3.4000	 5.1690
 3.4020	 5.2780
 3.4050	 5.4640
 3.4070	 5.6310
 3.4090	 5.9360
 3.4110	 6.2750
 3.4140	 6.5970
 3.4160	 7.0140
 3.4180	 7.6430
 3.4200	 8.3560
 3.4230	 9.3000
 3.4250	10.3600
 3.4270	11.5060
 3.4290	12.1430
 3.4320	11.6330
 3.4340	10.2230
 3.4360	 9.1880
 3.4390	 8.5840
 3.4410	 8.1480
 3.4430	 7.8690
 3.4450	 7.7500
 3.4480	 7.6180
 3.4500	 7.5360
 3.4520	 7.4010
 3.4550	 7.3110
 3.4570	 7.1770
 3.4590	 7.1130
 3.4620	 7.0710
 3.4640	 7.0030
 3.4660	 6.8950
 3.4680	 6.8800
 3.4710	 6.7730
 3.4730	 6.6760
 3.4750	 6.5940
 3.4780	 6.5150
 3.4800	 6.4050
 3.4820	 6.3430
 3.4850	 6.3130
 3.4870	 6.3150
 3.4890	 6.2380
 3.4920	 6.2480
 3.4940	 6.2350
 3.4970	 6.3270
 3.4990	 6.4730
 3.5010	 6.7810
 3.5040	 7.2760
 3.5060	 8.2140
 3.5080	 9.6860
 3.5110	10.9890
 3.5130	10.7390
 3.5160	 9.5250
 3.5180	 8.4940
 3.5200	 7.9400
 3.5230	 7.6180
 3.5250	 7.4270
 3.5270	 7.2680
 3.5300	 7.2110
 3.5320	 7.1130
 3.5350	 7.0970
 3.5370	 7.0080
 3.5400	 6.9090
 3.5420	 6.8550
 3.5440	 6.8200
 3.5470	 6.6720
 3.5490	 6.6220
 3.5520	 6.6570
 3.5540	 6.6840
 3.5570	 6.5770
 3.5590	 6.5200
 3.5610	 6.4610
 3.5640	 6.4420
 3.5660	 6.4050
 3.5690	 6.4590
 3.5710	 6.4710
 3.5740	 6.4520
 3.5760	 6.4770
 3.5790	 6.5110
 3.5810	 6.4230
 3.5840	 6.4170
 3.5860	 6.3670
 3.5890	 6.4030
 3.5910	 6.4040
 3.5930	 6.4770
 3.5960	 6.3670
 3.5980	 6.2650
 3.6010	 6.2340
 3.6030	 6.3020
 3.6060	 6.3380
 3.6080	 6.3850
 3.6110	 6.2630
 3.6140	 6.2250
 3.6160	 6.2420
 3.6190	 6.3100
 3.6210	 6.3000
 3.6240	 6.3160
 3.6260	 6.2900
 3.6290	 6.2080
 3.6310	 6.2000
 3.6340	 6.2920
 3.6360	 6.2690
 3.6390	 6.3130
 3.6410	 6.3330
 3.6440	 6.2910
 3.6470	 6.2270
 3.6490	 6.2300
 3.6520	 6.1610
 3.6540	 6.1650
 3.6570	 6.2900
 3.6590	 6.3620
 3.6620	 6.2600
 3.6650	 6.2410
 3.6670	 6.2100
 3.6700	 6.1760
 3.6720	 6.1290
 3.6750	 6.1840
 3.6780	 6.2130
 3.6800	 6.2210
 3.6830	 6.2010
 3.6850	 6.2020
 3.6880	 6.1530
 3.6910	 6.1140
 3.6930	 6.0600
 3.6960	 6.1460
 3.6990	 6.1810
 3.7010	 6.1770
 3.7040	 6.1680
 3.7060	 6.1720
 3.7090	 6.1290
 3.7120	 6.0940
 3.7140	 6.0550
 3.7170	 6.0670
 3.7200	 6.0790
 3.7220	 6.1270
 3.7250	 6.0910
 3.7280	 6.1100
 3.7300	 6.0960
 3.7330	 6.0520
 3.7360	 6.0590
 3.7390	 6.1500
 3.7410	 6.1980
 3.7440	 6.2030
 3.7470	 6.1990
 3.7490	 6.1940
 3.7520	 6.1740
 3.7550	 6.1560
 3.7580	 6.1280
 3.7600	 6.1660
 3.7630	 6.1200
 3.7660	 6.0900
 3.7680	 6.1150
 3.7710	 6.1740
 3.7740	 6.1130
 3.7770	 6.1130
 3.7790	 6.0800
 3.7820	 6.1270
 3.7850	 6.1320
 3.7880	 6.1330
 3.7900	 6.1040
 3.7930	 6.1040
 3.7960	 6.0980
 3.7990	 6.1160
 3.8020	 6.1030
 3.8040	 6.1460
 3.8070	 6.1800
 3.8100	 6.1650
 3.8130	 6.1290
 3.8160	 6.1470
 3.8180	 6.1010
 3.8210	 6.1240
 3.8240	 6.1020
 3.8270	 6.0670
 3.8300	 6.0640
 3.8330	 6.1320
 3.8350	 6.1740
 3.8380	 6.1570
 3.8410	 6.1250
 3.8440	 6.0940
 3.8470	 6.0090
 3.8500	 6.0630
 3.8520	 6.0800
 3.8550	 6.1050
 3.8580	 6.0790
 3.8610	 6.0730
 3.8640	 6.1090
 3.8670	 6.1030
 3.8700	 6.1110
 3.8730	 6.1870
 3.8750	 6.1660
 3.8780	 6.1780
 3.8810	 6.1600
 3.8840	 6.0940
 3.8870	 6.0280
 3.8900	 6.0670
 3.8930	 6.0550
 3.8960	 6.0940
 3.8990	 6.1920
 3.9020	 6.2130
 3.9050	 6.1350
 3.9080	 6.1380
 3.9110	 6.1410
 3.9140	 6.1160
 3.9160	 6.0790
 3.9190	 6.1130
 3.9220	 6.1520
 3.9250	 6.1500
 3.9280	 6.1160
 3.9310	 6.1320
 3.9340	 6.0580
 3.9370	 6.0470
 3.9400	 6.0940
 3.9430	 6.0980
 3.9460	 6.0870
 3.9490	 6.1460
 3.9520	 6.0950
 3.9550	 6.1110
 3.9580	 6.1220
 3.9610	 6.1180
 3.9640	 6.0960
 3.9670	 6.1120
 3.9700	 6.1290
 3.9730	 6.1100
 3.9770	 6.1000
 3.9800	 6.1170
 3.9830	 6.0900
 3.9860	 6.1020
 3.9890	 6.1010
 3.9920	 6.0820
 3.9950	 6.0470
 3.9980	 6.1200
 4.0010	 6.1140
 4.0040	 6.0590
 4.0070	 6.0550
 4.0100	 6.1180
 4.0130	 6.0980
 4.0170	 6.1360
 4.0200	 6.1710
 4.0230	 6.1390
 4.0260	 6.0710
 4.0290	 6.0910
 4.0320	 6.0840
 4.0350	 6.0560
 4.0380	 6.0360
 4.0420	 6.0820
 4.0450	 6.0550
 4.0480	 6.0030
 4.0510	 6.0150
 4.0540	 6.0410
 4.0570	 6.0220
 4.0610	 6.0410
 4.0640	 6.0250
 4.0670	 6.0790
 4.0700	 6.1050
 4.0730	 6.1750
 4.0770	 6.1600
 4.0800	 6.1250
 4.0830	 6.0720
 4.0860	 6.1210
 4.0890	 6.1570
 4.0930	 6.1180
 4.0960	 6.0510
 4.0990	 6.0760
 4.1020	 6.0480
 4.1060	 6.0440
 4.1090	 6.0560
 4.1120	 6.0690
 4.1150	 6.0330
 4.1190	 6.0490
 4.1220	 6.0920
 4.1250	 6.1050
 4.1280	 6.0510
 4.1320	 6.0080
 4.1350	 6.0610
 4.1380	 6.1130
 4.1420	 6.0740
 4.1450	 6.0320
 4.1480	 6.0030
 4.1520	 6.0160
 4.1550	 6.0180
 4.1580	 5.9650
 4.1620	 5.9520
 4.1650	 5.9660
 4.1680	 5.9950
 4.1720	 6.0490
 4.1750	 5.9720
 4.1780	 5.9770
 4.1820	 5.9790
 4.1850	 5.9470
 4.1890	 5.9500
 4.1920	 5.9740
 4.1950	 5.9510
 4.1990	 5.9800
 4.2020	 6.0770
 4.2060	 6.1300
 4.2090	 6.0620
 4.2120	 6.0500
 4.2160	 6.1160
 4.2190	 6.2150
 4.2230	 6.2860
 4.2260	 6.3440
 4.2300	 6.2820
 4.2330	 6.2440
 4.2360	 6.2640
 4.2400	 6.2380
 4.2430	 6.2150
 4.2470	 6.1530
 4.2500	 6.1340
 4.2540	 6.1620
 4.2570	 6.0800
 4.2610	 6.1190
 4.2640	 6.1950
 4.2680	 6.2030
 4.2710	 6.2020
 4.2750	 6.1880
 4.2780	 6.1600
 4.2820	 6.1440
 4.2850	 6.0320
 4.2890	 6.1150
 4.2930	 6.0680
 4.2960	 5.9380
 4.3000	 5.9450
 4.3030	 5.9720
 4.3070	 5.9420
 4.3100	 5.8790
 4.3140	 5.8810
 4.3180	 5.9550
 4.3210	 5.9740
 4.3250	 5.9680
 4.3280	 5.9130
 4.3320	 5.8870
 4.3360	 5.9060
 4.3390	 5.8880
 4.3430	 5.9240
 4.3470	 5.9380
 4.3500	 5.8830
 4.3540	 5.8370
 4.3570	 5.8030
 4.3610	 5.8270
 4.3650	 5.8310
 4.3680	 5.8120
 4.3720	 5.8300
 4.3760	 5.8230
 4.3800	 5.8180
 4.3830	 5.8290
 4.3870	 5.8530
 4.3910	 5.8810
 4.3940	 5.8570
 4.3980	 5.8780
 4.4020	 5.8560
 4.4060	 5.8360
 4.4090	 5.7990
 4.4130	 5.7880
 4.4170	 5.7810
 4.4210	 5.7390
 4.4240	 5.7710
 4.4280	 5.8870
 4.4320	 5.9390
 4.4360	 5.8910
 4.4400	 5.8740
 4.4430	 5.8790
 4.4470	 5.8430
 4.4510	 5.7800
 4.4550	 5.7290
 4.4590	 5.7230
 4.4620	 5.6990
 4.4660	 5.7090
 4.4700	 5.7420
 4.4740	 5.7430
 4.4780	 5.7570
 4.4820	 5.7450
 4.4860	 5.7330
 4.4900	 5.7810
 4.4930	 5.7900
 4.4970	 5.7260
 4.5010	 5.6770
 4.5050	 5.7060
 4.5090	 5.8260
 4.5130	 5.8390
 4.5170	 5.7850
 4.5210	 5.7820
 4.5250	 5.7860
 4.5290	 5.7510
 4.5330	 5.7330
 4.5370	 5.7030
 4.5410	 5.7360
 4.5450	 5.7810
 4.5490	 5.7350
 4.5530	 5.7390
 4.5570	 5.7280
 4.5610	 5.7180
 4.5650	 5.7020
 4.5690	 5.7040
 4.5730	 5.7200
 4.5770	 5.7350
 4.5810	 5.7010
 4.5850	 5.7190
 4.5890	 5.7460
 4.5930	 5.7450
 4.5970	 5.7760
 4.6010	 5.7660
 4.6050	 5.6870
 4.6090	 5.6790
 4.6130	 5.7070
 4.6170	 5.7340
 4.6220	 5.7710
 4.6260	 5.7480
 4.6300	 5.7190
 4.6340	 5.7290
 4.6380	 5.7340
 4.6420	 5.7500
 4.6460	 5.7380
 4.6510	 5.7120
 4.6550	 5.7290
 4.6590	 5.7650
 4.6630	 5.7410
 4.6670	 5.7050
 4.6720	 5.7030
 4.6760	 5.6970
 4.6800	 5.6790
 4.6840	 5.6270
 4.6880	 5.6400
 4.6930	 5.7130
 4.6970	 5.7520
 4.7010	 5.7620
 4.7050	 5.7570
 4.7100	 5.7520
 4.7140	 5.7310
 4.7180	 5.6220
 4.7230	 5.6170
 4.7270	 5.7080
 4.7310	 5.7540
 4.7360	 5.7090
 4.7400	 5.6760
 4.7440	 5.6480
 4.7490	 5.6700
 4.7530	 5.7160
 4.7570	 5.7130
 4.7620	 5.7360
 4.7660	 5.8020
 4.7700	 5.7750
 4.7750	 5.7550
 4.7790	 5.7710
 4.7840	 5.7370
 4.7880	 5.6700
 4.7920	 5.6540
 4.7970	 5.6880
 4.8010	 5.6850
 4.8060	 5.6240
 4.8100	 5.6610
 4.8150	 5.7480
 4.8190	 5.7410
 4.8240	 5.6490
 4.8280	 5.6330
 4.8330	 5.7060
 4.8370	 5.7510
 4.8420	 5.7060
 4.8460	 5.6660
 4.8510	 5.6770
 4.8550	 5.7320
 4.8600	 5.7440
 4.8640	 5.7120
 4.8690	 5.6620
 4.8730	 5.6990
 4.8780	 5.7740
 4.8830	 5.7470
 4.8870	 5.6690
 4.8920	 5.6330
 4.8960	 5.6390
 4.9010	 5.7210
 4.9060	 5.7660
 4.9100	 5.7430
 4.9150	 5.7330
 4.9200	 5.7520
 4.9240	 5.7360
 4.9290	 5.7030
 4.9340	 5.6680
 4.9380	 5.6580
 4.9430	 5.6240
 4.9480	 5.6590
 4.9530	 5.7220
 4.9570	 5.7690
 4.9620	 5.7370
 4.9670	 5.7590
 4.9720	 5.7640
 4.9760	 5.7570
 4.9810	 5.7290
 4.9860	 5.7780
 4.9910	 5.7420
 4.9960	 5.7080
 5.0000	 5.6870
 5.0050	 5.6530
 5.0100	 5.6430
 5.0150	 5.6680
 5.0200	 5.7020
 5.0250	 5.7360
 5.0290	 5.6560
 5.0340	 5.6150
 5.0390	 5.6810
 5.0440	 5.7130
 5.0490	 5.6510
 5.0540	 5.6860
 5.0590	 5.7630
 5.0640	 5.8390
 5.0690	 5.7810
 5.0740	 5.7110
 5.0790	 5.7540
 5.0840	 5.7680
 5.0890	 5.6810
 5.0940	 5.7170
 5.0990	 5.7660
 5.1040	 5.7700
 5.1090	 5.7830
 5.1140	 5.7720
 5.1190	 5.7180
 5.1240	 5.7960
 5.1290	 5.7600
 5.1340	 5.6570
 5.1390	 5.6670
 5.1440	 5.6930
 5.1490	 5.6670
 5.1540	 5.7580
 5.1600	 5.7980
 5.1650	 5.7420
 5.1700	 5.7110
 5.1750	 5.7420
 5.1800	 5.7280
 5.1850	 5.7910
 5.1910	 5.7600
 5.1960	 5.6790
 5.2010	 5.6520
 5.2060	 5.6510
 5.2110	 5.6330
 5.2170	 5.6880
 5.2220	 5.7250
 5.2270	 5.7520
 5.2320	 5.7080
 5.2380	 5.7000
 5.2430	 5.7280
 5.2480	 5.8370
 5.2540	 5.8320
 5.2590	 5.8130
 5.2640	 5.7920
 5.2700	 5.7780
 5.2750	 5.6950
 5.2800	 5.7100
 5.2860	 5.7840
 5.2910	 5.7980
 5.2970	 5.7280
 5.3020	 5.7550
 5.3070	 5.7200
 5.3130	 5.7200
 5.3180	 5.6320
 5.3240	 5.6800
 5.3290	 5.7790
 5.3350	 5.7500
 5.3400	 5.6670
 5.3460	 5.6960
 5.3510	 5.7420
 5.3570	 5.7250
 5.3620	 5.6540
 5.3680	 5.6350
 5.3730	 5.6520
 5.3790	 5.7490
 5.3850	 5.7600
 5.3900	 5.7300
 5.3960	 5.6710
 5.4010	 5.6910
 5.4070	 5.7010
 5.4130	 5.7750
 5.4180	 5.7550
 5.4240	 5.6680
 5.4300	 5.6110
 5.4350	 5.6950
