Name: Adenostoma fasciculatum 2
Type: vegetation
Class: Shrub
Genus: Adenostoma
Species: fasciculatum
Sample No.: VH042
Owner: UCSB
Wavelength Range: VSWIR
Origin: 34.5084; -119.7687; WGS84
Collection Date: 4/1/2013
Description: Samples were collected as part of the HyspIRI Airborne Campaign. 48 individual plants were sampled in three times in 2013 - spring  summer  and fall. The name of the sample includes a 1  2  or 3 which references a different individual of the species. Samples were taken to JPL and processed within 48 hours of collection. The same leaves were processed in the Nicolet and then measured using the ASD.
Measurement: Bidirectional reflectance
First Column: X
Second Column: Y
X Units: Wavelength (micrometers)
Y Units: Reflectance (percentage)
First X Value: 0.35
Last X Value: 2.5
Number of X Values: 2151
Additional Information: vegetation.shrub.adenostoma.fasciculatum.vswir.vh042.ucsb.asd.ancillary.txt

 0.3500	 1.4960
 0.3510	 1.9080
 0.3520	 1.7890
 0.3530	 1.5360
 0.3540	 1.6090
 0.3550	 1.6740
 0.3560	 1.6510
 0.3570	 1.5890
 0.3580	 1.5900
 0.3590	 1.5860
 0.3600	 1.5590
 0.3610	 1.4970
 0.3620	 1.3830
 0.3630	 1.4320
 0.3640	 1.4890
 0.3650	 1.4010
 0.3660	 1.3800
 0.3670	 1.4180
 0.3680	 1.4850
 0.3690	 1.5350
 0.3700	 1.5120
 0.3710	 1.4920
 0.3720	 1.5140
 0.3730	 1.5330
 0.3740	 1.4730
 0.3750	 1.4200
 0.3760	 1.4620
 0.3770	 1.4190
 0.3780	 1.4610
 0.3790	 1.5610
 0.3800	 1.5390
 0.3810	 1.5650
 0.3820	 1.5860
 0.3830	 1.5630
 0.3840	 1.5770
 0.3850	 1.5390
 0.3860	 1.5070
 0.3870	 1.5630
 0.3880	 1.5540
 0.3890	 1.5550
 0.3900	 1.5730
 0.3910	 1.5360
 0.3920	 1.5590
 0.3930	 1.5890
 0.3940	 1.5720
 0.3950	 1.5460
 0.3960	 1.5290
 0.3970	 1.5410
 0.3980	 1.5950
 0.3990	 1.6160
 0.4000	 1.6170
 0.4010	 1.6240
 0.4020	 1.6550
 0.4030	 1.6860
 0.4040	 1.6990
 0.4050	 1.6960
 0.4060	 1.7320
 0.4070	 1.7800
 0.4080	 1.8140
 0.4090	 1.8200
 0.4100	 1.8250
 0.4110	 1.8300
 0.4120	 1.8430
 0.4130	 1.8980
 0.4140	 1.9640
 0.4150	 2.0060
 0.4160	 2.0120
 0.4170	 2.0610
 0.4180	 2.0980
 0.4190	 2.1120
 0.4200	 2.1440
 0.4210	 2.1990
 0.4220	 2.2320
 0.4230	 2.2290
 0.4240	 2.2810
 0.4250	 2.3110
 0.4260	 2.3350
 0.4270	 2.3980
 0.4280	 2.4240
 0.4290	 2.4430
 0.4300	 2.4710
 0.4310	 2.4900
 0.4320	 2.5170
 0.4330	 2.5530
 0.4340	 2.5870
 0.4350	 2.6120
 0.4360	 2.6360
 0.4370	 2.6640
 0.4380	 2.6920
 0.4390	 2.7070
 0.4400	 2.7290
 0.4410	 2.7640
 0.4420	 2.7760
 0.4430	 2.7860
 0.4440	 2.8050
 0.4450	 2.8380
 0.4460	 2.8640
 0.4470	 2.8870
 0.4480	 2.9080
 0.4490	 2.9280
 0.4500	 2.9640
 0.4510	 3.0000
 0.4520	 3.0220
 0.4530	 3.0590
 0.4540	 3.0890
 0.4550	 3.1090
 0.4560	 3.1250
 0.4570	 3.1410
 0.4580	 3.1620
 0.4590	 3.1900
 0.4600	 3.2060
 0.4610	 3.2280
 0.4620	 3.2470
 0.4630	 3.2540
 0.4640	 3.2680
 0.4650	 3.2730
 0.4660	 3.2750
 0.4670	 3.2990
 0.4680	 3.3180
 0.4690	 3.3240
 0.4700	 3.3190
 0.4710	 3.3200
 0.4720	 3.3320
 0.4730	 3.3490
 0.4740	 3.3600
 0.4750	 3.3600
 0.4760	 3.3640
 0.4770	 3.3750
 0.4780	 3.3740
 0.4790	 3.3820
 0.4800	 3.3920
 0.4810	 3.3950
 0.4820	 3.4010
 0.4830	 3.4190
 0.4840	 3.4410
 0.4850	 3.4500
 0.4860	 3.4670
 0.4870	 3.4900
 0.4880	 3.5160
 0.4890	 3.5510
 0.4900	 3.5770
 0.4910	 3.6020
 0.4920	 3.6470
 0.4930	 3.6970
 0.4940	 3.7450
 0.4950	 3.7920
 0.4960	 3.8610
 0.4970	 3.9290
 0.4980	 4.0000
 0.4990	 4.0830
 0.5000	 4.1740
 0.5010	 4.2640
 0.5020	 4.3570
 0.5030	 4.4700
 0.5040	 4.5890
 0.5050	 4.7170
 0.5060	 4.8570
 0.5070	 5.0100
 0.5080	 5.1760
 0.5090	 5.3550
 0.5100	 5.5410
 0.5110	 5.7350
 0.5120	 5.9430
 0.5130	 6.1640
 0.5140	 6.3890
 0.5150	 6.6290
 0.5160	 6.8810
 0.5170	 7.1390
 0.5180	 7.4050
 0.5190	 7.6750
 0.5200	 7.9480
 0.5210	 8.2190
 0.5220	 8.4910
 0.5230	 8.7600
 0.5240	 9.0210
 0.5250	 9.2780
 0.5260	 9.5260
 0.5270	 9.7590
 0.5280	 9.9730
 0.5290	10.1760
 0.5300	10.3700
 0.5310	10.5510
 0.5320	10.7180
 0.5330	10.8680
 0.5340	11.0080
 0.5350	11.1410
 0.5360	11.2570
 0.5370	11.3580
 0.5380	11.4510
 0.5390	11.5430
 0.5400	11.6300
 0.5410	11.7150
 0.5420	11.8000
 0.5430	11.8720
 0.5440	11.9450
 0.5450	12.0120
 0.5460	12.0650
 0.5470	12.1060
 0.5480	12.1400
 0.5490	12.1720
 0.5500	12.2030
 0.5510	12.2240
 0.5520	12.2340
 0.5530	12.2340
 0.5540	12.2210
 0.5550	12.1980
 0.5560	12.1620
 0.5570	12.1040
 0.5580	12.0390
 0.5590	11.9660
 0.5600	11.8850
 0.5610	11.8040
 0.5620	11.7140
 0.5630	11.6150
 0.5640	11.5110
 0.5650	11.3910
 0.5660	11.2650
 0.5670	11.1380
 0.5680	11.0070
 0.5690	10.8640
 0.5700	10.7160
 0.5710	10.5690
 0.5720	10.4190
 0.5730	10.2800
 0.5740	10.1530
 0.5750	10.0370
 0.5760	 9.9300
 0.5770	 9.8250
 0.5780	 9.7210
 0.5790	 9.6340
 0.5800	 9.5490
 0.5810	 9.4630
 0.5820	 9.3790
 0.5830	 9.3030
 0.5840	 9.2340
 0.5850	 9.1700
 0.5860	 9.1060
 0.5870	 9.0520
 0.5880	 9.0050
 0.5890	 8.9590
 0.5900	 8.9180
 0.5910	 8.8800
 0.5920	 8.8450
 0.5930	 8.8170
 0.5940	 8.7960
 0.5950	 8.7790
 0.5960	 8.7640
 0.5970	 8.7580
 0.5980	 8.7400
 0.5990	 8.7160
 0.6000	 8.6940
 0.6010	 8.6590
 0.6020	 8.6220
 0.6030	 8.5830
 0.6040	 8.5350
 0.6050	 8.4770
 0.6060	 8.4120
 0.6070	 8.3420
 0.6080	 8.2640
 0.6090	 8.1850
 0.6100	 8.1110
 0.6110	 8.0420
 0.6120	 7.9540
 0.6130	 7.8530
 0.6140	 7.7500
 0.6150	 7.6600
 0.6160	 7.5750
 0.6170	 7.4950
 0.6180	 7.4220
 0.6190	 7.3610
 0.6200	 7.3070
 0.6210	 7.2560
 0.6220	 7.2120
 0.6230	 7.1750
 0.6240	 7.1430
 0.6250	 7.1150
 0.6260	 7.0980
 0.6270	 7.0860
 0.6280	 7.0790
 0.6290	 7.0780
 0.6300	 7.0720
 0.6310	 7.0650
 0.6320	 7.0570
 0.6330	 7.0410
 0.6340	 7.0180
 0.6350	 6.9820
 0.6360	 6.9290
 0.6370	 6.8750
 0.6380	 6.8050
 0.6390	 6.7220
 0.6400	 6.6360
 0.6410	 6.5380
 0.6420	 6.4300
 0.6430	 6.3170
 0.6440	 6.1990
 0.6450	 6.0780
 0.6460	 5.9610
 0.6470	 5.8510
 0.6480	 5.7470
 0.6490	 5.6530
 0.6500	 5.5700
 0.6510	 5.4990
 0.6520	 5.4330
 0.6530	 5.3740
 0.6540	 5.3210
 0.6550	 5.2630
 0.6560	 5.1940
 0.6570	 5.1130
 0.6580	 5.0220
 0.6590	 4.9230
 0.6600	 4.8200
 0.6610	 4.7150
 0.6620	 4.6050
 0.6630	 4.5020
 0.6640	 4.4030
 0.6650	 4.3090
 0.6660	 4.2240
 0.6670	 4.1480
 0.6680	 4.0830
 0.6690	 4.0290
 0.6700	 3.9910
 0.6710	 3.9600
 0.6720	 3.9320
 0.6730	 3.9150
 0.6740	 3.9040
 0.6750	 3.9010
 0.6760	 3.9060
 0.6770	 3.9150
 0.6780	 3.9320
 0.6790	 3.9600
 0.6800	 4.0010
 0.6810	 4.0550
 0.6820	 4.1320
 0.6830	 4.2390
 0.6840	 4.3700
 0.6850	 4.5360
 0.6860	 4.7420
 0.6870	 4.9940
 0.6880	 5.3090
 0.6890	 5.6830
 0.6900	 6.1200
 0.6910	 6.6280
 0.6920	 7.2030
 0.6930	 7.8470
 0.6940	 8.5560
 0.6950	 9.3230
 0.6960	10.1470
 0.6970	11.0220
 0.6980	11.9440
 0.6990	12.9090
 0.7000	13.9040
 0.7010	14.9270
 0.7020	15.9730
 0.7030	17.0260
 0.7040	18.0870
 0.7050	19.1550
 0.7060	20.2290
 0.7070	21.3040
 0.7080	22.3780
 0.7090	23.4550
 0.7100	24.5360
 0.7110	25.6220
 0.7120	26.7120
 0.7130	27.8040
 0.7140	28.9020
 0.7150	30.0010
 0.7160	31.0980
 0.7170	32.2000
 0.7180	33.3010
 0.7190	34.3980
 0.7200	35.4890
 0.7210	36.5650
 0.7220	37.6340
 0.7230	38.6910
 0.7240	39.7210
 0.7250	40.7320
 0.7260	41.7150
 0.7270	42.6660
 0.7280	43.5990
 0.7290	44.4930
 0.7300	45.3480
 0.7310	46.1730
 0.7320	46.9540
 0.7330	47.6980
 0.7340	48.4100
 0.7350	49.0920
 0.7360	49.7270
 0.7370	50.3270
 0.7380	50.9040
 0.7390	51.4530
 0.7400	51.9590
 0.7410	52.4320
 0.7420	52.8850
 0.7430	53.3010
 0.7440	53.6910
 0.7450	54.0570
 0.7460	54.3880
 0.7470	54.6930
 0.7480	54.9830
 0.7490	55.2570
 0.7500	55.4880
 0.7510	55.7000
 0.7520	55.9020
 0.7530	56.0980
 0.7540	56.2730
 0.7550	56.4290
 0.7560	56.5730
 0.7570	56.7150
 0.7580	56.8290
 0.7590	56.9380
 0.7600	57.0530
 0.7610	57.1460
 0.7620	57.2320
 0.7630	57.3100
 0.7640	57.3790
 0.7650	57.4510
 0.7660	57.5220
 0.7670	57.5870
 0.7680	57.6400
 0.7690	57.6970
 0.7700	57.7450
 0.7710	57.7880
 0.7720	57.8450
 0.7730	57.8940
 0.7740	57.9330
 0.7750	57.9670
 0.7760	58.0100
 0.7770	58.0540
 0.7780	58.0910
 0.7790	58.1190
 0.7800	58.1590
 0.7810	58.2040
 0.7820	58.2440
 0.7830	58.2730
 0.7840	58.3040
 0.7850	58.3380
 0.7860	58.3750
 0.7870	58.4260
 0.7880	58.4520
 0.7890	58.4720
 0.7900	58.5090
 0.7910	58.5330
 0.7920	58.5580
 0.7930	58.5900
 0.7940	58.6250
 0.7950	58.6480
 0.7960	58.6760
 0.7970	58.7130
 0.7980	58.7390
 0.7990	58.7630
 0.8000	58.7870
 0.8010	58.8080
 0.8020	58.8290
 0.8030	58.8530
 0.8040	58.8770
 0.8050	58.8960
 0.8060	58.9070
 0.8070	58.9240
 0.8080	58.9430
 0.8090	58.9430
 0.8100	58.9640
 0.8110	58.9880
 0.8120	59.0030
 0.8130	59.0230
 0.8140	59.0260
 0.8150	59.0300
 0.8160	59.0500
 0.8170	59.0680
 0.8180	59.0740
 0.8190	59.0760
 0.8200	59.0860
 0.8210	59.0870
 0.8220	59.0820
 0.8230	59.0810
 0.8240	59.0920
 0.8250	59.0970
 0.8260	59.0890
 0.8270	59.0720
 0.8280	59.0590
 0.8290	59.0540
 0.8300	59.0420
 0.8310	59.0160
 0.8320	59.0100
 0.8330	59.0050
 0.8340	58.9980
 0.8350	58.9890
 0.8360	58.9830
 0.8370	58.9780
 0.8380	58.9810
 0.8390	59.0030
 0.8400	59.0050
 0.8410	59.0080
 0.8420	59.0220
 0.8430	59.0310
 0.8440	59.0410
 0.8450	59.0560
 0.8460	59.0720
 0.8470	59.0690
 0.8480	59.0800
 0.8490	59.1000
 0.8500	59.1090
 0.8510	59.1110
 0.8520	59.1130
 0.8530	59.1240
 0.8540	59.1490
 0.8550	59.1690
 0.8560	59.1740
 0.8570	59.1750
 0.8580	59.1940
 0.8590	59.2150
 0.8600	59.2270
 0.8610	59.2250
 0.8620	59.2210
 0.8630	59.2200
 0.8640	59.2210
 0.8650	59.2250
 0.8660	59.2490
 0.8670	59.2660
 0.8680	59.2650
 0.8690	59.2520
 0.8700	59.2710
 0.8710	59.2840
 0.8720	59.2840
 0.8730	59.2880
 0.8740	59.3050
 0.8750	59.3200
 0.8760	59.3290
 0.8770	59.3380
 0.8780	59.3340
 0.8790	59.3320
 0.8800	59.3360
 0.8810	59.3200
 0.8820	59.3230
 0.8830	59.3340
 0.8840	59.3370
 0.8850	59.3210
 0.8860	59.3130
 0.8870	59.3140
 0.8880	59.3170
 0.8890	59.3110
 0.8900	59.3000
 0.8910	59.2950
 0.8920	59.3000
 0.8930	59.2920
 0.8940	59.2770
 0.8950	59.2650
 0.8960	59.2640
 0.8970	59.2580
 0.8980	59.2480
 0.8990	59.2370
 0.9000	59.2220
 0.9010	59.2210
 0.9020	59.2100
 0.9030	59.1890
 0.9040	59.1940
 0.9050	59.1980
 0.9060	59.1820
 0.9070	59.1490
 0.9080	59.1370
 0.9090	59.1320
 0.9100	59.1240
 0.9110	59.1100
 0.9120	59.0930
 0.9130	59.0610
 0.9140	59.0340
 0.9150	59.0270
 0.9160	58.9950
 0.9170	58.9640
 0.9180	58.9440
 0.9190	58.9310
 0.9200	58.9040
 0.9210	58.8550
 0.9220	58.7960
 0.9230	58.7440
 0.9240	58.6770
 0.9250	58.6110
 0.9260	58.5490
 0.9270	58.4810
 0.9280	58.3980
 0.9290	58.3080
 0.9300	58.2160
 0.9310	58.1220
 0.9320	57.9940
 0.9330	57.8810
 0.9340	57.7940
 0.9350	57.6770
 0.9360	57.5440
 0.9370	57.4080
 0.9380	57.2770
 0.9390	57.1530
 0.9400	57.0040
 0.9410	56.8580
 0.9420	56.7260
 0.9430	56.5660
 0.9440	56.3830
 0.9450	56.1900
 0.9460	55.9920
 0.9470	55.7810
 0.9480	55.5550
 0.9490	55.3270
 0.9500	55.0990
 0.9510	54.8390
 0.9520	54.5630
 0.9530	54.2840
 0.9540	54.0130
 0.9550	53.7410
 0.9560	53.4740
 0.9570	53.2260
 0.9580	53.0050
 0.9590	52.8040
 0.9600	52.6200
 0.9610	52.4610
 0.9620	52.3320
 0.9630	52.2180
 0.9640	52.1030
 0.9650	51.9930
 0.9660	51.9040
 0.9670	51.8530
 0.9680	51.7910
 0.9690	51.7330
 0.9700	51.7050
 0.9710	51.6600
 0.9720	51.6230
 0.9730	51.5970
 0.9740	51.5740
 0.9750	51.5730
 0.9760	51.5720
 0.9770	51.5650
 0.9780	51.5590
 0.9790	51.5680
 0.9800	51.5830
 0.9810	51.6050
 0.9820	51.6380
 0.9830	51.6930
 0.9840	51.7300
 0.9850	51.7610
 0.9860	51.8150
 0.9870	51.8780
 0.9880	51.9230
 0.9890	51.9650
 0.9900	52.0260
 0.9910	52.0880
 0.9920	52.2720
 0.9930	52.4550
 0.9940	52.6390
 0.9950	52.8220
 0.9960	53.0060
 0.9970	53.1890
 0.9980	53.3730
 0.9990	53.5570
 1.0000	53.7400
 1.0010	53.9240
 1.0020	54.1070
 1.0030	54.2910
 1.0040	54.4740
 1.0050	54.6580
 1.0060	54.8420
 1.0070	55.0250
 1.0080	55.2090
 1.0090	55.3920
 1.0100	55.3920
 1.0110	55.4950
 1.0120	55.6030
 1.0130	55.7060
 1.0140	55.8150
 1.0150	55.9330
 1.0160	56.0470
 1.0170	56.1600
 1.0180	56.2690
 1.0190	56.3780
 1.0200	56.4900
 1.0210	56.6010
 1.0220	56.7150
 1.0230	56.8270
 1.0240	56.9410
 1.0250	57.0520
 1.0260	57.1630
 1.0270	57.2700
 1.0280	57.3770
 1.0290	57.4820
 1.0300	57.5820
 1.0310	57.6820
 1.0320	57.7830
 1.0330	57.8760
 1.0340	57.9730
 1.0350	58.0700
 1.0360	58.1660
 1.0370	58.2620
 1.0380	58.3540
 1.0390	58.4420
 1.0400	58.5290
 1.0410	58.6120
 1.0420	58.6960
 1.0430	58.7820
 1.0440	58.8590
 1.0450	58.9330
 1.0460	59.0030
 1.0470	59.0660
 1.0480	59.1300
 1.0490	59.1940
 1.0500	59.2590
 1.0510	59.3270
 1.0520	59.3910
 1.0530	59.4480
 1.0540	59.5030
 1.0550	59.5510
 1.0560	59.5880
 1.0570	59.6260
 1.0580	59.6610
 1.0590	59.6980
 1.0600	59.7340
 1.0610	59.7660
 1.0620	59.7990
 1.0630	59.8260
 1.0640	59.8470
 1.0650	59.8680
 1.0660	59.8890
 1.0670	59.9030
 1.0680	59.9130
 1.0690	59.9180
 1.0700	59.9250
 1.0710	59.9270
 1.0720	59.9290
 1.0730	59.9330
 1.0740	59.9300
 1.0750	59.9230
 1.0760	59.9110
 1.0770	59.8950
 1.0780	59.8780
 1.0790	59.8580
 1.0800	59.8340
 1.0810	59.8090
 1.0820	59.7810
 1.0830	59.7490
 1.0840	59.7150
 1.0850	59.6800
 1.0860	59.6420
 1.0870	59.6010
 1.0880	59.5570
 1.0890	59.5120
 1.0900	59.4660
 1.0910	59.4160
 1.0920	59.3660
 1.0930	59.3110
 1.0940	59.2500
 1.0950	59.1910
 1.0960	59.1290
 1.0970	59.0670
 1.0980	59.0050
 1.0990	58.9410
 1.1000	58.8760
 1.1010	58.8090
 1.1020	58.7400
 1.1030	58.6700
 1.1040	58.6020
 1.1050	58.5290
 1.1060	58.4550
 1.1070	58.3780
 1.1080	58.3030
 1.1090	58.2280
 1.1100	58.1480
 1.1110	58.0720
 1.1120	57.9860
 1.1130	57.8920
 1.1140	57.7970
 1.1150	57.7030
 1.1160	57.5970
 1.1170	57.4880
 1.1180	57.3660
 1.1190	57.2340
 1.1200	57.0890
 1.1210	56.9350
 1.1220	56.7670
 1.1230	56.5840
 1.1240	56.3870
 1.1250	56.1680
 1.1260	55.9340
 1.1270	55.6770
 1.1280	55.4010
 1.1290	55.1010
 1.1300	54.7820
 1.1310	54.4360
 1.1320	54.0640
 1.1330	53.6760
 1.1340	53.2640
 1.1350	52.8370
 1.1360	52.3900
 1.1370	51.9280
 1.1380	51.4540
 1.1390	50.9700
 1.1400	50.4810
 1.1410	49.9970
 1.1420	49.5110
 1.1430	49.0300
 1.1440	48.5630
 1.1450	48.0980
 1.1460	47.6590
 1.1470	47.2320
 1.1480	46.8320
 1.1490	46.4520
 1.1500	46.0990
 1.1510	45.7690
 1.1520	45.4650
 1.1530	45.1860
 1.1540	44.9310
 1.1550	44.7000
 1.1560	44.4930
 1.1570	44.3060
 1.1580	44.1380
 1.1590	43.9870
 1.1600	43.8550
 1.1610	43.7390
 1.1620	43.6360
 1.1630	43.5440
 1.1640	43.4630
 1.1650	43.3920
 1.1660	43.3320
 1.1670	43.2760
 1.1680	43.2310
 1.1690	43.1860
 1.1700	43.1470
 1.1710	43.1090
 1.1720	43.0790
 1.1730	43.0450
 1.1740	43.0140
 1.1750	42.9820
 1.1760	42.9480
 1.1770	42.9100
 1.1780	42.8730
 1.1790	42.8380
 1.1800	42.8010
 1.1810	42.7640
 1.1820	42.7260
 1.1830	42.6870
 1.1840	42.6490
 1.1850	42.6140
 1.1860	42.5800
 1.1870	42.5460
 1.1880	42.5160
 1.1890	42.4880
 1.1900	42.4640
 1.1910	42.4450
 1.1920	42.4290
 1.1930	42.4150
 1.1940	42.4060
 1.1950	42.4010
 1.1960	42.4000
 1.1970	42.4020
 1.1980	42.4080
 1.1990	42.4180
 1.2000	42.4280
 1.2010	42.4430
 1.2020	42.4660
 1.2030	42.4890
 1.2040	42.5140
 1.2050	42.5440
 1.2060	42.5760
 1.2070	42.6100
 1.2080	42.6480
 1.2090	42.6890
 1.2100	42.7320
 1.2110	42.7800
 1.2120	42.8320
 1.2130	42.8850
 1.2140	42.9400
 1.2150	42.9980
 1.2160	43.0590
 1.2170	43.1200
 1.2180	43.1850
 1.2190	43.2510
 1.2200	43.3170
 1.2210	43.3840
 1.2220	43.4500
 1.2230	43.5170
 1.2240	43.5820
 1.2250	43.6450
 1.2260	43.7050
 1.2270	43.7650
 1.2280	43.8240
 1.2290	43.8860
 1.2300	43.9470
 1.2310	44.0050
 1.2320	44.0640
 1.2330	44.1190
 1.2340	44.1740
 1.2350	44.2290
 1.2360	44.2810
 1.2370	44.3310
 1.2380	44.3800
 1.2390	44.4280
 1.2400	44.4760
 1.2410	44.5270
 1.2420	44.5750
 1.2430	44.6190
 1.2440	44.6620
 1.2450	44.7050
 1.2460	44.7460
 1.2470	44.7870
 1.2480	44.8290
 1.2490	44.8700
 1.2500	44.9100
 1.2510	44.9490
 1.2520	44.9810
 1.2530	45.0090
 1.2540	45.0380
 1.2550	45.0630
 1.2560	45.0880
 1.2570	45.1120
 1.2580	45.1310
 1.2590	45.1470
 1.2600	45.1600
 1.2610	45.1720
 1.2620	45.1820
 1.2630	45.1890
 1.2640	45.1940
 1.2650	45.1970
 1.2660	45.1960
 1.2670	45.1920
 1.2680	45.1900
 1.2690	45.1860
 1.2700	45.1760
 1.2710	45.1630
 1.2720	45.1440
 1.2730	45.1180
 1.2740	45.0930
 1.2750	45.0640
 1.2760	45.0330
 1.2770	45.0000
 1.2780	44.9600
 1.2790	44.9170
 1.2800	44.8720
 1.2810	44.8220
 1.2820	44.7680
 1.2830	44.7100
 1.2840	44.6470
 1.2850	44.5820
 1.2860	44.5130
 1.2870	44.4380
 1.2880	44.3580
 1.2890	44.2730
 1.2900	44.1830
 1.2910	44.0860
 1.2920	43.9880
 1.2930	43.8830
 1.2940	43.7700
 1.2950	43.6520
 1.2960	43.5290
 1.2970	43.4020
 1.2980	43.2710
 1.2990	43.1350
 1.3000	42.9940
 1.3010	42.8460
 1.3020	42.6910
 1.3030	42.5320
 1.3040	42.3670
 1.3050	42.1970
 1.3060	42.0230
 1.3070	41.8420
 1.3080	41.6550
 1.3090	41.4670
 1.3100	41.2740
 1.3110	41.0750
 1.3120	40.8710
 1.3130	40.6640
 1.3140	40.4520
 1.3150	40.2350
 1.3160	40.0150
 1.3170	39.7910
 1.3180	39.5620
 1.3190	39.3290
 1.3200	39.0940
 1.3210	38.8540
 1.3220	38.6100
 1.3230	38.3630
 1.3240	38.1130
 1.3250	37.8670
 1.3260	37.6170
 1.3270	37.3650
 1.3280	37.1140
 1.3290	36.8580
 1.3300	36.6050
 1.3310	36.3550
 1.3320	36.1000
 1.3330	35.8520
 1.3340	35.6040
 1.3350	35.3580
 1.3360	35.1160
 1.3370	34.8750
 1.3380	34.6370
 1.3390	34.4030
 1.3400	34.1710
 1.3410	33.9480
 1.3420	33.7280
 1.3430	33.5130
 1.3440	33.3040
 1.3450	33.0970
 1.3460	32.8930
 1.3470	32.6950
 1.3480	32.4980
 1.3490	32.3090
 1.3500	32.1260
 1.3510	31.9440
 1.3520	31.7660
 1.3530	31.5900
 1.3540	31.4110
 1.3550	31.2350
 1.3560	31.0590
 1.3570	30.8820
 1.3580	30.7060
 1.3590	30.5280
 1.3600	30.3460
 1.3610	30.1600
 1.3620	29.9660
 1.3630	29.7680
 1.3640	29.5630
 1.3650	29.3490
 1.3660	29.1280
 1.3670	28.8960
 1.3680	28.6500
 1.3690	28.3940
 1.3700	28.1220
 1.3710	27.8370
 1.3720	27.5390
 1.3730	27.2190
 1.3740	26.8870
 1.3750	26.5380
 1.3760	26.1680
 1.3770	25.7800
 1.3780	25.3690
 1.3790	24.9390
 1.3800	24.4910
 1.3810	24.0230
 1.3820	23.5450
 1.3830	23.0530
 1.3840	22.5520
 1.3850	22.0380
 1.3860	21.5210
 1.3870	20.9910
 1.3880	20.4690
 1.3890	19.9430
 1.3900	19.4190
 1.3910	18.9050
 1.3920	18.3960
 1.3930	17.8930
 1.3940	17.4030
 1.3950	16.9200
 1.3960	16.4520
 1.3970	15.9990
 1.3980	15.5630
 1.3990	15.1510
 1.4000	14.7540
 1.4010	14.3730
 1.4020	14.0140
 1.4030	13.6700
 1.4040	13.3450
 1.4050	13.0410
 1.4060	12.7530
 1.4070	12.4850
 1.4080	12.2340
 1.4090	11.9970
 1.4100	11.7780
 1.4110	11.5720
 1.4120	11.3800
 1.4130	11.2030
 1.4140	11.0370
 1.4150	10.8850
 1.4160	10.7430
 1.4170	10.6120
 1.4180	10.4900
 1.4190	10.3760
 1.4200	10.2700
 1.4210	10.1730
 1.4220	10.0830
 1.4230	10.0010
 1.4240	 9.9250
 1.4250	 9.8540
 1.4260	 9.7900
 1.4270	 9.7290
 1.4280	 9.6740
 1.4290	 9.6230
 1.4300	 9.5780
 1.4310	 9.5350
 1.4320	 9.4980
 1.4330	 9.4630
 1.4340	 9.4320
 1.4350	 9.4040
 1.4360	 9.3780
 1.4370	 9.3560
 1.4380	 9.3370
 1.4390	 9.3220
 1.4400	 9.3090
 1.4410	 9.2970
 1.4420	 9.2880
 1.4430	 9.2810
 1.4440	 9.2750
 1.4450	 9.2720
 1.4460	 9.2710
 1.4470	 9.2710
 1.4480	 9.2720
 1.4490	 9.2750
 1.4500	 9.2790
 1.4510	 9.2840
 1.4520	 9.2910
 1.4530	 9.3000
 1.4540	 9.3090
 1.4550	 9.3210
 1.4560	 9.3350
 1.4570	 9.3500
 1.4580	 9.3680
 1.4590	 9.3880
 1.4600	 9.4110
 1.4610	 9.4370
 1.4620	 9.4660
 1.4630	 9.4980
 1.4640	 9.5320
 1.4650	 9.5700
 1.4660	 9.6090
 1.4670	 9.6530
 1.4680	 9.7010
 1.4690	 9.7520
