Name: Arctostaphylos glandulosa 2
Type: vegetation
Class: Shrub
Genus: Arctostaphylos
Species: glandulosa
Sample No.: VH037
Owner: UCSB
Wavelength Range: TIR
Origin: 34.5084; -119.7682; WGS84
Collection Date: 4/1/2013
Description: Samples were collected as part of the HyspIRI Airborne Campaign. 48 individual plants were sampled in three times in 2013 - spring  summer  and fall. The name of the sample includes a 1  2  or 3 which references a different individual of the species. Samples were taken to JPL and processed within 48 hours of collection. The same leaves were processed in the Nicolet and then measured using the ASD.
Measurement: Hemispherical reflectance
First Column: X
Second Column: Y
X Units: Wavelength (micrometers)
Y Units: Reflectance (percentage)
First X Value: 2.501
Last X Value: 15.387
Number of X Values: 1737
Additional Information: vegetation.shrub.arctostaphylos.glandulosa.tir.vh037.ucsb.nicolet.ancillary.txt

 2.5010	11.6590
 2.5030	11.6770
 2.5040	11.7850
 2.5050	11.7820
 2.5060	11.7770
 2.5070	11.6900
 2.5090	11.6500
 2.5100	11.5370
 2.5110	11.5580
 2.5120	11.6480
 2.5140	11.7660
 2.5150	11.5750
 2.5160	11.5440
 2.5170	11.7130
 2.5180	11.7230
 2.5200	11.6330
 2.5210	11.6980
 2.5220	11.7530
 2.5230	11.7550
 2.5250	11.6240
 2.5260	11.6480
 2.5270	11.6080
 2.5280	11.5880
 2.5290	11.6140
 2.5310	11.7700
 2.5320	11.7970
 2.5330	11.7960
 2.5340	11.6480
 2.5360	11.6250
 2.5370	11.6970
 2.5380	11.8320
 2.5390	11.8150
 2.5410	11.7610
 2.5420	11.6720
 2.5430	11.5950
 2.5440	11.6060
 2.5460	11.6970
 2.5470	11.7030
 2.5480	11.7050
 2.5490	11.6670
 2.5510	11.7510
 2.5520	11.7180
 2.5530	11.7060
 2.5540	11.7350
 2.5560	11.8260
 2.5570	11.7020
 2.5580	11.6760
 2.5590	11.7030
 2.5610	11.7980
 2.5620	11.7390
 2.5630	11.7330
 2.5640	11.7300
 2.5660	11.7440
 2.5670	11.7270
 2.5680	11.8230
 2.5700	11.8100
 2.5710	11.7650
 2.5720	11.6600
 2.5730	11.6430
 2.5750	11.5980
 2.5760	11.6700
 2.5770	11.7740
 2.5790	11.8620
 2.5800	11.8650
 2.5810	11.8280
 2.5820	11.8230
 2.5840	11.8700
 2.5850	11.8410
 2.5860	11.8230
 2.5880	11.7670
 2.5890	11.8340
 2.5900	11.8480
 2.5910	11.7360
 2.5930	11.7050
 2.5940	11.8090
 2.5950	11.7820
 2.5970	11.7300
 2.5980	11.6800
 2.5990	11.7780
 2.6000	11.7440
 2.6020	11.7610
 2.6030	11.7540
 2.6040	11.7460
 2.6060	11.7200
 2.6070	11.7250
 2.6080	11.6940
 2.6100	11.7110
 2.6110	11.7250
 2.6120	11.8110
 2.6140	11.6690
 2.6150	11.5470
 2.6160	11.4750
 2.6180	11.5720
 2.6190	11.6380
 2.6200	11.6020
 2.6220	11.5090
 2.6230	11.5580
 2.6240	11.5630
 2.6260	11.6090
 2.6270	11.6090
 2.6280	11.5710
 2.6300	11.5680
 2.6310	11.5700
 2.6320	11.4590
 2.6340	11.4380
 2.6350	11.4070
 2.6360	11.4730
 2.6380	11.5170
 2.6390	11.4910
 2.6400	11.4190
 2.6420	11.5100
 2.6430	11.5140
 2.6440	11.4820
 2.6460	11.4440
 2.6470	11.4420
 2.6480	11.4080
 2.6500	11.3980
 2.6510	11.3260
 2.6520	11.3310
 2.6540	11.3530
 2.6550	11.3790
 2.6560	11.2730
 2.6580	11.2920
 2.6590	11.4400
 2.6610	11.4830
 2.6620	11.3130
 2.6630	11.2240
 2.6650	11.1760
 2.6660	11.2480
 2.6670	11.2110
 2.6690	11.2100
 2.6700	11.2070
 2.6720	11.3200
 2.6730	11.2930
 2.6740	11.2030
 2.6760	11.1650
 2.6770	11.1880
 2.6780	11.0950
 2.6800	11.0650
 2.6810	11.1230
 2.6830	11.2900
 2.6840	11.2700
 2.6850	11.1550
 2.6870	10.9910
 2.6880	10.8760
 2.6900	10.7950
 2.6910	10.9230
 2.6920	11.0060
 2.6940	11.0220
 2.6950	10.9220
 2.6970	10.9440
 2.6980	10.9430
 2.6990	10.9690
 2.7010	10.8840
 2.7020	10.8120
 2.7040	10.6830
 2.7050	10.6370
 2.7060	10.6100
 2.7080	10.6540
 2.7090	10.5930
 2.7110	10.6090
 2.7120	10.6510
 2.7130	10.6480
 2.7150	10.5480
 2.7160	10.5420
 2.7180	10.5210
 2.7190	10.6340
 2.7210	10.5810
 2.7220	10.4620
 2.7230	10.3860
 2.7250	10.4060
 2.7260	10.4310
 2.7280	10.4870
 2.7290	10.4840
 2.7310	10.3940
 2.7320	10.2270
 2.7330	10.2330
 2.7350	10.3160
 2.7360	10.2980
 2.7380	10.1640
 2.7390	10.2440
 2.7410	10.2500
 2.7420	10.2700
 2.7440	10.1380
 2.7450	10.1420
 2.7470	10.1650
 2.7480	10.1600
 2.7490	10.0400
 2.7510	10.1220
 2.7520	10.1790
 2.7540	10.1450
 2.7550	10.0670
 2.7570	10.0810
 2.7580	10.0600
 2.7600	10.1330
 2.7610	10.1710
 2.7630	10.2400
 2.7640	10.1970
 2.7660	10.2010
 2.7670	10.1400
 2.7680	10.1770
 2.7700	10.1440
 2.7710	10.0610
 2.7730	 9.9560
 2.7740	 9.9170
 2.7760	 9.9190
 2.7770	 9.9600
 2.7790	 9.9330
 2.7800	10.0930
 2.7820	10.0530
 2.7830	 9.9200
 2.7850	 9.8940
 2.7860	 9.8410
 2.7880	 9.7480
 2.7890	 9.9140
 2.7910	 9.9200
 2.7920	 9.8720
 2.7940	 9.7730
 2.7950	 9.6720
 2.7970	 9.6780
 2.7980	 9.8660
 2.8000	 9.7990
 2.8010	 9.7240
 2.8030	 9.6570
 2.8040	 9.7920
 2.8060	 9.8130
 2.8070	 9.7000
 2.8090	 9.6460
 2.8110	 9.6410
 2.8120	 9.5460
 2.8140	 9.5930
 2.8150	 9.5680
 2.8170	 9.5670
 2.8180	 9.5590
 2.8200	 9.6170
 2.8210	 9.5170
 2.8230	 9.4940
 2.8240	 9.5690
 2.8260	 9.6170
 2.8270	 9.4720
 2.8290	 9.4820
 2.8300	 9.5390
 2.8320	 9.5850
 2.8340	 9.4280
 2.8350	 9.4040
 2.8370	 9.3450
 2.8380	 9.3470
 2.8400	 9.3720
 2.8410	 9.4380
 2.8430	 9.4350
 2.8440	 9.4510
 2.8460	 9.4350
 2.8480	 9.4920
 2.8490	 9.4270
 2.8510	 9.4120
 2.8520	 9.4620
 2.8540	 9.4940
 2.8550	 9.3220
 2.8570	 9.3200
 2.8590	 9.3220
 2.8600	 9.3590
 2.8620	 9.3400
 2.8630	 9.3620
 2.8650	 9.2730
 2.8660	 9.2520
 2.8680	 9.2190
 2.8700	 9.3210
 2.8710	 9.3470
 2.8730	 9.3480
 2.8740	 9.3180
 2.8760	 9.3930
 2.8780	 9.3600
 2.8790	 9.3000
 2.8810	 9.3030
 2.8820	 9.2920
 2.8840	 9.2390
 2.8860	 9.2940
 2.8870	 9.3040
 2.8890	 9.3900
 2.8900	 9.4030
 2.8920	 9.4380
 2.8940	 9.4330
 2.8950	 9.4320
 2.8970	 9.2680
 2.8980	 9.2170
 2.9000	 9.2290
 2.9020	 9.2500
 2.9030	 9.3630
 2.9050	 9.4580
 2.9070	 9.4460
 2.9080	 9.4410
 2.9100	 9.3910
 2.9120	 9.4270
 2.9130	 9.2620
 2.9150	 9.2220
 2.9160	 9.3310
 2.9180	 9.4580
 2.9200	 9.3400
 2.9210	 9.3350
 2.9230	 9.2300
 2.9250	 9.1240
 2.9260	 9.0590
 2.9280	 9.1640
 2.9300	 9.2510
 2.9310	 9.2910
 2.9330	 9.2050
 2.9350	 9.2510
 2.9360	 9.2220
 2.9380	 9.2250
 2.9400	 9.1360
 2.9410	 9.0180
 2.9430	 9.0230
 2.9450	 9.1480
 2.9460	 9.2130
 2.9480	 9.3610
 2.9500	 9.4440
 2.9510	 9.4130
 2.9530	 9.2510
 2.9550	 9.1410
 2.9560	 9.1170
 2.9580	 9.2910
 2.9600	 9.1880
 2.9610	 9.0560
 2.9630	 9.0310
 2.9650	 9.2250
 2.9660	 9.2870
 2.9680	 9.3220
 2.9700	 8.8180
 2.9720	 8.8280
 2.9730	 9.2740
 2.9750	 9.2450
 2.9770	 8.9430
 2.9780	 8.9210
 2.9800	 9.1560
 2.9820	 9.2070
 2.9840	 9.1980
 2.9850	 9.3440
 2.9870	 9.2360
 2.9890	 9.4800
 2.9900	 9.5240
 2.9920	 9.3010
 2.9940	 8.9540
 2.9960	 8.7060
 2.9970	 8.9400
 2.9990	 9.4020
 3.0010	 9.2420
 3.0030	 9.0970
 3.0040	 9.1130
 3.0060	 9.4090
 3.0080	 9.6230
 3.0100	 9.5470
 3.0110	 9.2360
 3.0130	 9.4360
 3.0150	 9.8550
 3.0170	 9.7460
 3.0180	 9.4570
 3.0200	 9.6110
 3.0220	 9.7210
 3.0240	 9.3980
 3.0250	 9.2980
 3.0270	 9.4430
 3.0290	 8.9580
 3.0310	 9.3400
 3.0320	 9.8220
 3.0340	 9.6670
 3.0360	 9.2240
 3.0380	 9.0730
 3.0400	 9.0970
 3.0410	 9.2770
 3.0430	 9.3970
 3.0450	 9.2580
 3.0470	 9.0590
 3.0480	 9.0720
 3.0500	 9.3180
 3.0520	 9.3930
 3.0540	 8.9690
 3.0560	 8.8770
 3.0570	 9.0580
 3.0590	 9.3110
 3.0610	 9.4600
 3.0630	 9.4420
 3.0650	 9.3240
 3.0660	 9.4470
 3.0680	 9.3660
 3.0700	 9.3900
 3.0720	 9.4420
 3.0740	 9.5090
 3.0760	 9.4150
 3.0770	 9.4470
 3.0790	 9.5050
 3.0810	 9.6330
 3.0830	 9.4710
 3.0850	 9.2220
 3.0870	 9.0780
 3.0880	 9.1320
 3.0900	 9.1580
 3.0920	 9.0870
 3.0940	 9.1800
 3.0960	 9.6850
 3.0980	 9.5470
 3.0990	 9.3800
 3.1010	 9.4840
 3.1030	 9.5810
 3.1050	 9.3880
 3.1070	 9.3960
 3.1090	 9.3850
 3.1110	 9.4410
 3.1120	 9.4940
 3.1140	 9.5220
 3.1160	 9.5470
 3.1180	 9.6200
 3.1200	 9.4650
 3.1220	 9.3690
 3.1240	 9.4150
 3.1260	 9.5590
 3.1270	 9.5540
 3.1290	 9.4900
 3.1310	 9.6580
 3.1330	 9.6260
 3.1350	 9.5330
 3.1370	 9.8060
 3.1390	 9.7890
 3.1410	 9.6690
 3.1430	 9.3820
 3.1450	 9.3430
 3.1460	 9.4140
 3.1480	 9.5170
 3.1500	 9.4580
 3.1520	 9.2070
 3.1540	 9.1410
 3.1560	 9.2250
 3.1580	 9.1940
 3.1600	 9.4300
 3.1620	 9.7150
 3.1640	 9.8210
 3.1660	 9.6430
 3.1680	 9.5340
 3.1700	 9.1580
 3.1710	 8.9440
 3.1730	 8.8210
 3.1750	 8.8770
 3.1770	 9.5500
 3.1790	10.0140
 3.1810	10.1170
 3.1830	 9.7190
 3.1850	 9.6150
 3.1870	 9.9250
 3.1890	 9.8020
 3.1910	 9.7160
 3.1930	 9.6840
 3.1950	 9.7510
 3.1970	 9.5200
 3.1990	 9.4260
 3.2010	 9.6350
 3.2030	 9.8120
 3.2050	 9.7420
 3.2070	 9.6620
 3.2090	 9.6460
 3.2110	 9.7230
 3.2130	 9.7150
 3.2150	 9.6600
 3.2170	 9.6690
 3.2190	 9.7370
 3.2210	 9.6510
 3.2230	 9.6450
 3.2250	 9.6590
 3.2270	 9.6170
 3.2290	 9.5880
 3.2310	 9.7310
 3.2330	 9.7350
 3.2350	 9.7120
 3.2370	 9.6120
 3.2390	 9.6180
 3.2410	 9.7730
 3.2430	 9.8460
 3.2450	 9.8060
 3.2470	 9.7480
 3.2490	 9.6990
 3.2510	 9.6340
 3.2530	 9.6740
 3.2550	 9.7650
 3.2570	 9.7400
 3.2590	 9.8140
 3.2610	 9.7750
 3.2630	 9.7400
 3.2650	 9.6910
 3.2670	 9.7080
 3.2690	 9.7210
 3.2720	 9.7640
 3.2740	 9.7080
 3.2760	 9.7000
 3.2780	 9.7110
 3.2800	 9.6560
 3.2820	 9.5760
 3.2840	 9.6310
 3.2860	 9.7010
 3.2880	 9.6980
 3.2900	 9.5700
 3.2920	 9.5550
 3.2940	 9.6360
 3.2960	 9.7280
 3.2990	 9.7040
 3.3010	 9.6370
 3.3030	 9.4900
 3.3050	 9.4190
 3.3070	 9.5150
 3.3090	 9.6470
 3.3110	 9.5940
 3.3130	 9.5390
 3.3150	 9.5120
 3.3180	 9.5070
 3.3200	 9.4780
 3.3220	 9.4760
 3.3240	 9.3950
 3.3260	 9.3820
 3.3280	 9.3360
 3.3300	 9.3030
 3.3330	 9.2700
 3.3350	 9.3360
 3.3370	 9.3130
 3.3390	 9.3040
 3.3410	 9.2970
 3.3430	 9.3010
 3.3450	 9.2340
 3.3480	 9.2590
 3.3500	 9.2560
 3.3520	 9.2100
 3.3540	 9.1310
 3.3560	 9.1240
 3.3580	 9.0720
 3.3610	 9.0360
 3.3630	 8.9970
 3.3650	 9.0170
 3.3670	 8.9470
 3.3690	 8.8130
 3.3720	 8.6570
 3.3740	 8.7860
 3.3760	 8.8370
 3.3780	 8.7740
 3.3800	 8.7700
 3.3830	 8.8130
 3.3850	 8.8100
 3.3870	 8.8340
 3.3890	 8.6740
 3.3910	 8.5880
 3.3940	 8.5210
 3.3960	 8.4490
 3.3980	 8.4520
 3.4000	 8.4930
 3.4020	 8.4490
 3.4050	 8.4690
 3.4070	 8.4450
 3.4090	 8.5600
 3.4110	 8.7310
 3.4140	 8.9810
 3.4160	 9.3700
 3.4180	10.0290
 3.4200	10.8030
 3.4230	11.7060
 3.4250	12.7430
 3.4270	13.7540
 3.4290	14.1890
 3.4320	13.9040
 3.4340	13.1560
 3.4360	12.4360
 3.4390	11.8540
 3.4410	11.5000
 3.4430	11.1850
 3.4450	11.0450
 3.4480	10.9220
 3.4500	10.7960
 3.4520	10.7130
 3.4550	10.7230
 3.4570	10.6100
 3.4590	10.4870
 3.4620	10.4520
 3.4640	10.4900
 3.4660	10.4170
 3.4680	10.3230
 3.4710	10.2540
 3.4730	10.2460
 3.4750	10.1930
 3.4780	10.1310
 3.4800	 9.9300
 3.4820	 9.9100
 3.4850	 9.8700
 3.4870	 9.7330
 3.4890	 9.5080
 3.4920	 9.4470
 3.4940	 9.3410
 3.4970	 9.3060
 3.4990	 9.3160
 3.5010	 9.3220
 3.5040	 9.5880
 3.5060	10.4850
 3.5080	11.9840
 3.5110	13.3770
 3.5130	13.7110
 3.5160	13.2400
 3.5180	12.5520
 3.5200	12.1110
 3.5230	11.8630
 3.5250	11.7300
 3.5270	11.4850
 3.5300	11.3070
 3.5320	11.1460
 3.5350	11.0980
 3.5370	11.0390
 3.5400	11.0470
 3.5420	11.0570
 3.5440	10.9650
 3.5470	10.8470
 3.5490	10.8700
 3.5520	10.8920
 3.5540	10.8760
 3.5570	10.8330
 3.5590	10.8020
 3.5610	10.7720
 3.5640	10.7450
 3.5660	10.7420
 3.5690	10.8400
 3.5710	10.8810
 3.5740	10.9290
 3.5760	10.8460
 3.5790	10.7630
 3.5810	10.7790
 3.5840	10.8750
 3.5860	10.7640
 3.5890	10.6940
 3.5910	10.7340
 3.5930	10.8810
 3.5960	10.7680
 3.5980	10.7300
 3.6010	10.7370
 3.6030	10.6380
 3.6060	10.5180
 3.6080	10.6620
 3.6110	10.6870
 3.6140	10.6330
 3.6160	10.5930
 3.6190	10.5780
 3.6210	10.5370
 3.6240	10.5790
 3.6260	10.6720
 3.6290	10.6740
 3.6310	10.5850
 3.6340	10.5660
 3.6360	10.5620
 3.6390	10.5090
 3.6410	10.4860
 3.6440	10.5320
 3.6470	10.4960
 3.6490	10.5210
 3.6520	10.5490
 3.6540	10.5160
 3.6570	10.5060
 3.6590	10.5970
 3.6620	10.6140
 3.6650	10.5800
 3.6670	10.4920
 3.6700	10.5140
 3.6720	10.5010
 3.6750	10.5080
 3.6780	10.4800
 3.6800	10.5190
 3.6830	10.5670
 3.6850	10.5750
 3.6880	10.5370
 3.6910	10.5330
 3.6930	10.5150
 3.6960	10.4960
 3.6990	10.4920
 3.7010	10.5450
 3.7040	10.4920
 3.7060	10.5220
 3.7090	10.5480
 3.7120	10.5140
 3.7140	10.5040
 3.7170	10.5280
 3.7200	10.5030
 3.7220	10.4990
 3.7250	10.4750
 3.7280	10.5380
 3.7300	10.5840
 3.7330	10.6330
 3.7360	10.5970
 3.7390	10.5790
 3.7410	10.5230
 3.7440	10.4820
 3.7470	10.5060
 3.7490	10.6120
 3.7520	10.6220
 3.7550	10.6030
 3.7580	10.5570
 3.7600	10.5580
 3.7630	10.5600
 3.7660	10.5550
 3.7680	10.5250
 3.7710	10.5330
 3.7740	10.5100
 3.7770	10.5020
 3.7790	10.5340
 3.7820	10.6510
 3.7850	10.6180
 3.7880	10.5810
 3.7900	10.6210
 3.7930	10.6290
 3.7960	10.6330
 3.7990	10.6080
 3.8020	10.5600
 3.8040	10.5990
 3.8070	10.5650
 3.8100	10.5620
 3.8130	10.5520
 3.8160	10.5600
 3.8180	10.5210
 3.8210	10.5470
 3.8240	10.5580
 3.8270	10.5650
 3.8300	10.5730
 3.8330	10.5680
 3.8350	10.5780
 3.8380	10.6380
 3.8410	10.6340
 3.8440	10.6330
 3.8470	10.6310
 3.8500	10.6810
 3.8520	10.6310
 3.8550	10.6130
 3.8580	10.6320
 3.8610	10.6320
 3.8640	10.6100
 3.8670	10.6660
 3.8700	10.6230
 3.8730	10.5830
 3.8750	10.5800
 3.8780	10.6170
 3.8810	10.6380
 3.8840	10.7020
 3.8870	10.7570
 3.8900	10.7890
 3.8930	10.7170
 3.8960	10.6620
 3.8990	10.6040
 3.9020	10.6740
 3.9050	10.7880
 3.9080	10.7730
 3.9110	10.7040
 3.9140	10.6550
 3.9160	10.6030
 3.9190	10.6410
 3.9220	10.7020
 3.9250	10.7450
 3.9280	10.7360
 3.9310	10.7200
 3.9340	10.6940
 3.9370	10.6870
 3.9400	10.6430
 3.9430	10.6690
 3.9460	10.7130
 3.9490	10.7650
 3.9520	10.7180
 3.9550	10.6880
 3.9580	10.6750
 3.9610	10.6890
 3.9640	10.7140
 3.9670	10.7030
 3.9700	10.6720
 3.9730	10.7160
 3.9770	10.6930
 3.9800	10.6790
 3.9830	10.6770
 3.9860	10.6730
 3.9890	10.6950
 3.9920	10.7290
 3.9950	10.6960
 3.9980	10.7390
 4.0010	10.7910
 4.0040	10.7450
 4.0070	10.6830
 4.0100	10.7230
 4.0130	10.7480
 4.0170	10.7540
 4.0200	10.7730
 4.0230	10.8220
 4.0260	10.8160
 4.0290	10.8170
 4.0320	10.7770
 4.0350	10.7150
 4.0380	10.7060
 4.0420	10.7580
 4.0450	10.7080
 4.0480	10.7370
 4.0510	10.8230
 4.0540	10.8900
 4.0570	10.8290
 4.0610	10.7160
 4.0640	10.7920
 4.0670	10.8220
 4.0700	10.8270
 4.0730	10.8280
 4.0770	10.7720
 4.0800	10.7860
 4.0830	10.7800
 4.0860	10.8050
 4.0890	10.8070
 4.0930	10.7600
 4.0960	10.7850
 4.0990	10.8760
 4.1020	10.9140
 4.1060	10.8780
 4.1090	10.8330
 4.1120	10.8190
 4.1150	10.7840
 4.1190	10.8360
 4.1220	10.8220
 4.1250	10.8240
 4.1280	10.8320
 4.1320	10.8580
 4.1350	10.9130
 4.1380	10.9320
 4.1420	10.8740
 4.1450	10.8570
 4.1480	10.8430
 4.1520	10.8400
 4.1550	10.8300
 4.1580	10.8360
 4.1620	10.8000
 4.1650	10.7760
 4.1680	10.7580
 4.1720	10.8320
 4.1750	10.8530
 4.1780	10.8520
 4.1820	10.8300
 4.1850	10.8160
 4.1890	10.8280
 4.1920	10.8310
 4.1950	10.8330
 4.1990	10.8880
 4.2020	10.9220
 4.2060	10.9330
 4.2090	10.8770
 4.2120	10.9370
 4.2160	10.9480
 4.2190	10.8700
 4.2230	10.7590
 4.2260	10.7460
 4.2300	10.6970
 4.2330	10.8000
 4.2360	10.6130
 4.2400	10.5880
 4.2430	10.6420
 4.2470	10.5310
 4.2500	10.6090
 4.2540	10.7910
 4.2570	10.8550
 4.2610	10.8880
 4.2640	10.8610
 4.2680	10.7570
 4.2710	10.5990
 4.2750	10.6850
 4.2780	10.8300
 4.2820	10.8210
 4.2850	10.6700
 4.2890	10.6760
 4.2930	10.6890
 4.2960	10.6590
 4.3000	10.7000
 4.3030	10.7510
 4.3070	10.7900
 4.3100	10.7090
 4.3140	10.6750
 4.3180	10.8150
 4.3210	10.8080
 4.3250	10.7400
 4.3280	10.8130
 4.3320	10.8730
 4.3360	10.8450
 4.3390	10.8590
 4.3430	10.8250
 4.3470	10.8370
 4.3500	10.8440
 4.3540	10.8130
 4.3570	10.8070
 4.3610	10.8340
 4.3650	10.8580
 4.3680	10.8730
 4.3720	10.8380
 4.3760	10.7920
 4.3800	10.8340
 4.3830	10.8500
 4.3870	10.8320
 4.3910	10.8310
 4.3940	10.8440
 4.3980	10.8070
 4.4020	10.7970
 4.4060	10.8360
 4.4090	10.8480
 4.4130	10.8150
 4.4170	10.7870
 4.4210	10.8090
 4.4240	10.7850
 4.4280	10.8110
 4.4320	10.9130
 4.4360	10.9050
 4.4400	10.8380
 4.4430	10.7510
 4.4470	10.7680
 4.4510	10.8290
 4.4550	10.8120
 4.4590	10.8180
 4.4620	10.7850
 4.4660	10.7820
 4.4700	10.7810
 4.4740	10.7750
 4.4780	10.7620
 4.4820	10.7620
 4.4860	10.7910
 4.4900	10.7920
 4.4930	10.7560
 4.4970	10.7610
 4.5010	10.7860
 4.5050	10.8290
 4.5090	10.8340
 4.5130	10.8110
 4.5170	10.7710
 4.5210	10.7650
 4.5250	10.7750
 4.5290	10.8000
 4.5330	10.7960
 4.5370	10.7700
 4.5410	10.7580
 4.5450	10.7860
 4.5490	10.7630
 4.5530	10.7330
 4.5570	10.7500
 4.5610	10.7740
 4.5650	10.8210
 4.5690	10.8230
 4.5730	10.7680
 4.5770	10.6880
 4.5810	10.6730
 4.5850	10.7310
 4.5890	10.7500
 4.5930	10.7540
 4.5970	10.7760
 4.6010	10.7730
 4.6050	10.8180
 4.6090	10.7980
 4.6130	10.7310
 4.6170	10.6840
 4.6220	10.6850
 4.6260	10.6780
 4.6300	10.6600
 4.6340	10.7100
 4.6380	10.7190
 4.6420	10.7020
 4.6460	10.6810
 4.6510	10.6750
 4.6550	10.6830
 4.6590	10.7070
 4.6630	10.7470
 4.6670	10.7350
 4.6720	10.7380
 4.6760	10.7730
 4.6800	10.7590
 4.6840	10.7190
 4.6880	10.6610
 4.6930	10.6340
 4.6970	10.6520
 4.7010	10.7090
 4.7050	10.7500
 4.7100	10.7600
 4.7140	10.7710
 4.7180	10.7290
 4.7230	10.6890
 4.7270	10.6670
 4.7310	10.6700
 4.7360	10.6650
 4.7400	10.6730
 4.7440	10.7230
 4.7490	10.7330
 4.7530	10.7240
 4.7570	10.7090
 4.7620	10.6910
 4.7660	10.6920
 4.7700	10.7260
 4.7750	10.7440
 4.7790	10.7860
 4.7840	10.8000
 4.7880	10.7820
 4.7920	10.7490
 4.7970	10.7250
 4.8010	10.7400
 4.8060	10.7290
 4.8100	10.7390
 4.8150	10.7680
 4.8190	10.7870
 4.8240	10.7680
 4.8280	10.7300
 4.8330	10.7300
 4.8370	10.7300
 4.8420	10.7280
 4.8460	10.7420
 4.8510	10.7430
 4.8550	10.7630
 4.8600	10.8280
 4.8640	10.8290
 4.8690	10.7880
 4.8730	10.7530
 4.8780	10.7140
 4.8830	10.7510
 4.8870	10.7570
 4.8920	10.7680
 4.8960	10.7830
 4.9010	10.8010
 4.9060	10.7890
 4.9100	10.7530
 4.9150	10.7530
 4.9200	10.7590
 4.9240	10.7760
 4.9290	10.7240
 4.9340	10.7040
 4.9380	10.7160
 4.9430	10.7040
 4.9480	10.7840
 4.9530	10.8040
 4.9570	10.7900
 4.9620	10.8100
 4.9670	10.8400
 4.9720	10.8130
 4.9760	10.7920
 4.9810	10.7830
 4.9860	10.8220
 4.9910	10.8620
 4.9960	10.8900
 5.0000	10.8470
 5.0050	10.7700
 5.0100	10.7660
 5.0150	10.8170
 5.0200	10.7590
 5.0250	10.7570
 5.0290	10.7660
 5.0340	10.7290
 5.0390	10.7380
 5.0440	10.8220
 5.0490	10.8430
 5.0540	10.8360
 5.0590	10.8460
 5.0640	10.8490
 5.0690	10.8310
 5.0740	10.8070
 5.0790	10.7770
 5.0840	10.8340
 5.0890	10.8370
 5.0940	10.7960
 5.0990	10.7870
 5.1040	10.8020
 5.1090	10.8390
 5.1140	10.8540
 5.1190	10.8190
 5.1240	10.8550
 5.1290	10.7950
 5.1340	10.8020
 5.1390	10.7860
 5.1440	10.8050
 5.1490	10.8120
 5.1540	10.8370
 5.1600	10.8450
 5.1650	10.8640
 5.1700	10.8760
 5.1750	10.9040
 5.1800	10.8280
 5.1850	10.7660
 5.1910	10.7340
 5.1960	10.7600
 5.2010	10.8740
 5.2060	10.9740
 5.2110	10.9050
 5.2170	10.8450
 5.2220	10.8620
 5.2270	10.8390
 5.2320	10.8330
 5.2380	10.8720
 5.2430	10.8750
 5.2480	10.8940
 5.2540	10.8650
 5.2590	10.7920
 5.2640	10.7530
 5.2700	10.7980
 5.2750	10.7970
 5.2800	10.8420
 5.2860	10.8450
 5.2910	10.8350
 5.2970	10.7890
 5.3020	10.7860
 5.3070	10.8240
 5.3130	10.8470
 5.3180	10.8180
 5.3240	10.8190
 5.3290	10.8530
 5.3350	10.8230
 5.3400	10.7880
 5.3460	10.7720
 5.3510	10.7560
 5.3570	10.7710
 5.3620	10.7840
 5.3680	10.8360
 5.3730	10.8070
 5.3790	10.7990
 5.3850	10.7710
 5.3900	10.7680
 5.3960	10.7270
 5.4010	10.7230
 5.4070	10.7130
 5.4130	10.7350
 5.4180	10.7440
 5.4240	10.7550
 5.4300	10.7430
