Name: Quercus douglasii 1
Type: vegetation
Class: Tree
Genus: Quercus
Species: douglasii
Sample No.: VH170
Owner: UCSB
Wavelength Range: VSWIR
Origin: 34.7153; -120.0598; WGS84
Collection Date: 6/9/2013
Description: Samples were collected as part of the HyspIRI Airborne Campaign. 48 individual plants were sampled in three times in 2013 - spring  summer  and fall. The name of the sample includes a 1  2  or 3 which references a different individual of the species. Samples were taken to JPL and processed within 48 hours of collection. The same leaves were processed in the Nicolet and then measured using the ASD.
Measurement: Bidirectional reflectance
First Column: X
Second Column: Y
X Units: Wavelength (micrometers)
Y Units: Reflectance (percentage)
First X Value: 0.35
Last X Value: 2.5
Number of X Values: 2151
Additional Information: vegetation.tree.quercus.douglasii.vswir.vh170.ucsb.asd.ancillary.txt

 0.3500	 3.7520
 0.3510	 3.5440
 0.3520	 3.5860
 0.3530	 3.7370
 0.3540	 3.8160
 0.3550	 3.7530
 0.3560	 3.7940
 0.3570	 3.8720
 0.3580	 3.7910
 0.3590	 3.7560
 0.3600	 3.7860
 0.3610	 3.8730
 0.3620	 4.0170
 0.3630	 4.0190
 0.3640	 3.9320
 0.3650	 3.8610
 0.3660	 3.7970
 0.3670	 3.7600
 0.3680	 3.7620
 0.3690	 3.7940
 0.3700	 3.8390
 0.3710	 3.8730
 0.3720	 3.8710
 0.3730	 3.7710
 0.3740	 3.7900
 0.3750	 3.8540
 0.3760	 3.8400
 0.3770	 3.9340
 0.3780	 3.9710
 0.3790	 3.9160
 0.3800	 3.8770
 0.3810	 3.8960
 0.3820	 3.9540
 0.3830	 4.0060
 0.3840	 3.9490
 0.3850	 3.9720
 0.3860	 4.0440
 0.3870	 4.0750
 0.3880	 4.0810
 0.3890	 4.0620
 0.3900	 4.0490
 0.3910	 4.0680
 0.3920	 4.1900
 0.3930	 4.2380
 0.3940	 4.1460
 0.3950	 4.2170
 0.3960	 4.2840
 0.3970	 4.3230
 0.3980	 4.3800
 0.3990	 4.3810
 0.4000	 4.4040
 0.4010	 4.4630
 0.4020	 4.4900
 0.4030	 4.5420
 0.4040	 4.5950
 0.4050	 4.6210
 0.4060	 4.6770
 0.4070	 4.7360
 0.4080	 4.7830
 0.4090	 4.8250
 0.4100	 4.8700
 0.4110	 4.9190
 0.4120	 4.9670
 0.4130	 5.0250
 0.4140	 5.1040
 0.4150	 5.1700
 0.4160	 5.1870
 0.4170	 5.2270
 0.4180	 5.2890
 0.4190	 5.3550
 0.4200	 5.3950
 0.4210	 5.4740
 0.4220	 5.5430
 0.4230	 5.5760
 0.4240	 5.6230
 0.4250	 5.6720
 0.4260	 5.7150
 0.4270	 5.7580
 0.4280	 5.8060
 0.4290	 5.8530
 0.4300	 5.8940
 0.4310	 5.9370
 0.4320	 5.9920
 0.4330	 6.0480
 0.4340	 6.0950
 0.4350	 6.1340
 0.4360	 6.1690
 0.4370	 6.1970
 0.4380	 6.2110
 0.4390	 6.2300
 0.4400	 6.2570
 0.4410	 6.2840
 0.4420	 6.3010
 0.4430	 6.3210
 0.4440	 6.3440
 0.4450	 6.3680
 0.4460	 6.3790
 0.4470	 6.3970
 0.4480	 6.4290
 0.4490	 6.4520
 0.4500	 6.4740
 0.4510	 6.4940
 0.4520	 6.5090
 0.4530	 6.5300
 0.4540	 6.5470
 0.4550	 6.5570
 0.4560	 6.5670
 0.4570	 6.5760
 0.4580	 6.5870
 0.4590	 6.6020
 0.4600	 6.6140
 0.4610	 6.6180
 0.4620	 6.6160
 0.4630	 6.6200
 0.4640	 6.6290
 0.4650	 6.6490
 0.4660	 6.6640
 0.4670	 6.6600
 0.4680	 6.6670
 0.4690	 6.6720
 0.4700	 6.6720
 0.4710	 6.6890
 0.4720	 6.6990
 0.4730	 6.7040
 0.4740	 6.7070
 0.4750	 6.7040
 0.4760	 6.7060
 0.4770	 6.7190
 0.4780	 6.7230
 0.4790	 6.7230
 0.4800	 6.7310
 0.4810	 6.7460
 0.4820	 6.7410
 0.4830	 6.7460
 0.4840	 6.7620
 0.4850	 6.7690
 0.4860	 6.7810
 0.4870	 6.7850
 0.4880	 6.7810
 0.4890	 6.8010
 0.4900	 6.8180
 0.4910	 6.8240
 0.4920	 6.8320
 0.4930	 6.8360
 0.4940	 6.8480
 0.4950	 6.8710
 0.4960	 6.8970
 0.4970	 6.9100
 0.4980	 6.9200
 0.4990	 6.9420
 0.5000	 6.9690
 0.5010	 6.9920
 0.5020	 7.0170
 0.5030	 7.0430
 0.5040	 7.0790
 0.5050	 7.1220
 0.5060	 7.1670
 0.5070	 7.2160
 0.5080	 7.2720
 0.5090	 7.3400
 0.5100	 7.4110
 0.5110	 7.4820
 0.5120	 7.5650
 0.5130	 7.6660
 0.5140	 7.7720
 0.5150	 7.8920
 0.5160	 8.0180
 0.5170	 8.1520
 0.5180	 8.3090
 0.5190	 8.4660
 0.5200	 8.6240
 0.5210	 8.7910
 0.5220	 8.9620
 0.5230	 9.1380
 0.5240	 9.3140
 0.5250	 9.4870
 0.5260	 9.6510
 0.5270	 9.8110
 0.5280	 9.9680
 0.5290	10.1070
 0.5300	10.2400
 0.5310	10.3660
 0.5320	10.4820
 0.5330	10.5840
 0.5340	10.6780
 0.5350	10.7670
 0.5360	10.8450
 0.5370	10.9110
 0.5380	10.9690
 0.5390	11.0290
 0.5400	11.0920
 0.5410	11.1570
 0.5420	11.2210
 0.5430	11.2780
 0.5440	11.3310
 0.5450	11.3780
 0.5460	11.4180
 0.5470	11.4420
 0.5480	11.4630
 0.5490	11.4880
 0.5500	11.5080
 0.5510	11.5210
 0.5520	11.5260
 0.5530	11.5250
 0.5540	11.5080
 0.5550	11.4790
 0.5560	11.4380
 0.5570	11.3840
 0.5580	11.3250
 0.5590	11.2580
 0.5600	11.1820
 0.5610	11.1040
 0.5620	11.0190
 0.5630	10.9250
 0.5640	10.8230
 0.5650	10.7150
 0.5660	10.6040
 0.5670	10.4940
 0.5680	10.3820
 0.5690	10.2680
 0.5700	10.1530
 0.5710	10.0350
 0.5720	 9.9330
 0.5730	 9.8390
 0.5740	 9.7490
 0.5750	 9.6650
 0.5760	 9.5850
 0.5770	 9.5120
 0.5780	 9.4430
 0.5790	 9.3810
 0.5800	 9.3170
 0.5810	 9.2570
 0.5820	 9.2020
 0.5830	 9.1490
 0.5840	 9.0960
 0.5850	 9.0460
 0.5860	 9.0000
 0.5870	 8.9650
 0.5880	 8.9300
 0.5890	 8.8950
 0.5900	 8.8670
 0.5910	 8.8460
 0.5920	 8.8330
 0.5930	 8.8230
 0.5940	 8.8120
 0.5950	 8.8010
 0.5960	 8.7880
 0.5970	 8.7690
 0.5980	 8.7490
 0.5990	 8.7250
 0.6000	 8.6940
 0.6010	 8.6680
 0.6020	 8.6380
 0.6030	 8.5990
 0.6040	 8.5630
 0.6050	 8.5250
 0.6060	 8.4830
 0.6070	 8.4420
 0.6080	 8.3980
 0.6090	 8.3580
 0.6100	 8.3210
 0.6110	 8.2880
 0.6120	 8.2400
 0.6130	 8.1820
 0.6140	 8.1260
 0.6150	 8.0770
 0.6160	 8.0330
 0.6170	 7.9960
 0.6180	 7.9660
 0.6190	 7.9350
 0.6200	 7.9060
 0.6210	 7.8860
 0.6220	 7.8660
 0.6230	 7.8460
 0.6240	 7.8290
 0.6250	 7.8180
 0.6260	 7.8080
 0.6270	 7.8010
 0.6280	 7.7940
 0.6290	 7.7880
 0.6300	 7.7850
 0.6310	 7.7830
 0.6320	 7.7800
 0.6330	 7.7740
 0.6340	 7.7690
 0.6350	 7.7600
 0.6360	 7.7470
 0.6370	 7.7350
 0.6380	 7.7130
 0.6390	 7.6860
 0.6400	 7.6550
 0.6410	 7.6240
 0.6420	 7.5900
 0.6430	 7.5570
 0.6440	 7.5290
 0.6450	 7.4930
 0.6460	 7.4560
 0.6470	 7.4220
 0.6480	 7.3910
 0.6490	 7.3630
 0.6500	 7.3420
 0.6510	 7.3200
 0.6520	 7.2970
 0.6530	 7.2730
 0.6540	 7.2480
 0.6550	 7.2300
 0.6560	 7.2080
 0.6570	 7.1820
 0.6580	 7.1600
 0.6590	 7.1370
 0.6600	 7.1150
 0.6610	 7.0970
 0.6620	 7.0770
 0.6630	 7.0620
 0.6640	 7.0510
 0.6650	 7.0400
 0.6660	 7.0320
 0.6670	 7.0260
 0.6680	 7.0220
 0.6690	 7.0260
 0.6700	 7.0290
 0.6710	 7.0360
 0.6720	 7.0500
 0.6730	 7.0590
 0.6740	 7.0720
 0.6750	 7.0860
 0.6760	 7.1000
 0.6770	 7.1160
 0.6780	 7.1360
 0.6790	 7.1590
 0.6800	 7.1840
 0.6810	 7.2070
 0.6820	 7.2300
 0.6830	 7.2580
 0.6840	 7.2940
 0.6850	 7.3350
 0.6860	 7.3800
 0.6870	 7.4300
 0.6880	 7.4930
 0.6890	 7.5710
 0.6900	 7.6740
 0.6910	 7.8040
 0.6920	 7.9740
 0.6930	 8.1840
 0.6940	 8.4380
 0.6950	 8.7450
 0.6960	 9.1100
 0.6970	 9.5390
 0.6980	10.0240
 0.6990	10.5600
 0.7000	11.1470
 0.7010	11.7830
 0.7020	12.4580
 0.7030	13.1670
 0.7040	13.9000
 0.7050	14.6470
 0.7060	15.4090
 0.7070	16.1820
 0.7080	16.9590
 0.7090	17.7300
 0.7100	18.4990
 0.7110	19.2680
 0.7120	20.0310
 0.7130	20.7830
 0.7140	21.5280
 0.7150	22.2610
 0.7160	22.9780
 0.7170	23.6820
 0.7180	24.3730
 0.7190	25.0480
 0.7200	25.7070
 0.7210	26.3410
 0.7220	26.9580
 0.7230	27.5600
 0.7240	28.1410
 0.7250	28.6970
 0.7260	29.2310
 0.7270	29.7420
 0.7280	30.2370
 0.7290	30.7010
 0.7300	31.1400
 0.7310	31.5670
 0.7320	31.9660
 0.7330	32.3450
 0.7340	32.7070
 0.7350	33.0430
 0.7360	33.3620
 0.7370	33.6650
 0.7380	33.9520
 0.7390	34.2200
 0.7400	34.4710
 0.7410	34.7060
 0.7420	34.9260
 0.7430	35.1340
 0.7440	35.3320
 0.7450	35.5150
 0.7460	35.6730
 0.7470	35.8270
 0.7480	35.9700
 0.7490	36.0970
 0.7500	36.2170
 0.7510	36.3300
 0.7520	36.4360
 0.7530	36.5320
 0.7540	36.6200
 0.7550	36.7020
 0.7560	36.7760
 0.7570	36.8360
 0.7580	36.8990
 0.7590	36.9590
 0.7600	37.0100
 0.7610	37.0620
 0.7620	37.1090
 0.7630	37.1490
 0.7640	37.1830
 0.7650	37.2240
 0.7660	37.2590
 0.7670	37.2870
 0.7680	37.3130
 0.7690	37.3420
 0.7700	37.3700
 0.7710	37.3970
 0.7720	37.4210
 0.7730	37.4380
 0.7740	37.4550
 0.7750	37.4770
 0.7760	37.4950
 0.7770	37.5180
 0.7780	37.5410
 0.7790	37.5550
 0.7800	37.5720
 0.7810	37.5950
 0.7820	37.6190
 0.7830	37.6390
 0.7840	37.6500
 0.7850	37.6610
 0.7860	37.6770
 0.7870	37.6920
 0.7880	37.7080
 0.7890	37.7260
 0.7900	37.7430
 0.7910	37.7530
 0.7920	37.7670
 0.7930	37.7840
 0.7940	37.7980
 0.7950	37.8140
 0.7960	37.8250
 0.7970	37.8320
 0.7980	37.8420
 0.7990	37.8510
 0.8000	37.8580
 0.8010	37.8660
 0.8020	37.8790
 0.8030	37.8840
 0.8040	37.8840
 0.8050	37.8900
 0.8060	37.8950
 0.8070	37.9020
 0.8080	37.9070
 0.8090	37.9020
 0.8100	37.9060
 0.8110	37.9130
 0.8120	37.9180
 0.8130	37.9170
 0.8140	37.9130
 0.8150	37.9100
 0.8160	37.9100
 0.8170	37.9120
 0.8180	37.9080
 0.8190	37.9000
 0.8200	37.8940
 0.8210	37.8910
 0.8220	37.8910
 0.8230	37.8890
 0.8240	37.8810
 0.8250	37.8680
 0.8260	37.8580
 0.8270	37.8510
 0.8280	37.8460
 0.8290	37.8330
 0.8300	37.8190
 0.8310	37.8140
 0.8320	37.8070
 0.8330	37.8010
 0.8340	37.7890
 0.8350	37.7700
 0.8360	37.7610
 0.8370	37.7530
 0.8380	37.7440
 0.8390	37.7370
 0.8400	37.7260
 0.8410	37.7150
 0.8420	37.7060
 0.8430	37.6980
 0.8440	37.6890
 0.8450	37.6840
 0.8460	37.6830
 0.8470	37.6710
 0.8480	37.6600
 0.8490	37.6500
 0.8500	37.6370
 0.8510	37.6230
 0.8520	37.6210
 0.8530	37.6230
 0.8540	37.6130
 0.8550	37.6030
 0.8560	37.5900
 0.8570	37.5800
 0.8580	37.5870
 0.8590	37.5790
 0.8600	37.5670
 0.8610	37.5610
 0.8620	37.5610
 0.8630	37.5520
 0.8640	37.5390
 0.8650	37.5340
 0.8660	37.5280
 0.8670	37.5280
 0.8680	37.5260
 0.8690	37.5180
 0.8700	37.5130
 0.8710	37.5120
 0.8720	37.5110
 0.8730	37.5040
 0.8740	37.4990
 0.8750	37.4930
 0.8760	37.4910
 0.8770	37.5040
 0.8780	37.5010
 0.8790	37.4920
 0.8800	37.4870
 0.8810	37.4900
 0.8820	37.4850
 0.8830	37.4820
 0.8840	37.4860
 0.8850	37.4750
 0.8860	37.4720
 0.8870	37.4710
 0.8880	37.4670
 0.8890	37.4750
 0.8900	37.4720
 0.8910	37.4630
 0.8920	37.4640
 0.8930	37.4710
 0.8940	37.4730
 0.8950	37.4700
 0.8960	37.4700
 0.8970	37.4690
 0.8980	37.4660
 0.8990	37.4620
 0.9000	37.4620
 0.9010	37.4650
 0.9020	37.4660
 0.9030	37.4660
 0.9040	37.4700
 0.9050	37.4730
 0.9060	37.4740
 0.9070	37.4720
 0.9080	37.4680
 0.9090	37.4620
 0.9100	37.4630
 0.9110	37.4710
 0.9120	37.4720
 0.9130	37.4720
 0.9140	37.4730
 0.9150	37.4780
 0.9160	37.4880
 0.9170	37.4840
 0.9180	37.4760
 0.9190	37.4770
 0.9200	37.4780
 0.9210	37.4820
 0.9220	37.4820
 0.9230	37.4700
 0.9240	37.4610
 0.9250	37.4600
 0.9260	37.4610
 0.9270	37.4600
 0.9280	37.4610
 0.9290	37.4590
 0.9300	37.4500
 0.9310	37.4340
 0.9320	37.4250
 0.9330	37.4170
 0.9340	37.4090
 0.9350	37.4120
 0.9360	37.3990
 0.9370	37.3780
 0.9380	37.3590
 0.9390	37.3520
 0.9400	37.3480
 0.9410	37.3420
 0.9420	37.3280
 0.9430	37.2980
 0.9440	37.2790
 0.9450	37.2750
 0.9460	37.2710
 0.9470	37.2360
 0.9480	37.2070
 0.9490	37.1920
 0.9500	37.1840
 0.9510	37.1650
 0.9520	37.1230
 0.9530	37.0800
 0.9540	37.0560
 0.9550	37.0320
 0.9560	37.0030
 0.9570	36.9680
 0.9580	36.9340
 0.9590	36.9000
 0.9600	36.8750
 0.9610	36.8540
 0.9620	36.8300
 0.9630	36.8120
 0.9640	36.7940
 0.9650	36.7770
 0.9660	36.7660
 0.9670	36.7690
 0.9680	36.7620
 0.9690	36.7490
 0.9700	36.7450
 0.9710	36.7390
 0.9720	36.7250
 0.9730	36.7130
 0.9740	36.7160
 0.9750	36.7090
 0.9760	36.7080
 0.9770	36.7090
 0.9780	36.7020
 0.9790	36.6930
 0.9800	36.6790
 0.9810	36.6780
 0.9820	36.7070
 0.9830	36.7120
 0.9840	36.7160
 0.9850	36.7220
 0.9860	36.7200
 0.9870	36.7140
 0.9880	36.7100
 0.9890	36.7140
 0.9900	36.7280
 0.9910	36.7440
 0.9920	36.7420
 0.9930	36.7430
 0.9940	36.7700
 0.9950	36.7550
 0.9960	36.7580
 0.9970	36.7780
 0.9980	36.7920
 0.9990	36.8090
 1.0000	36.9020
 1.0010	37.0920
 1.0020	37.1940
 1.0030	37.1990
 1.0040	37.2090
 1.0050	37.2150
 1.0060	37.2220
 1.0070	37.2280
 1.0080	37.2340
 1.0090	37.2360
 1.0100	37.2440
 1.0110	37.2550
 1.0120	37.2650
 1.0130	37.2770
 1.0140	37.2870
 1.0150	37.2930
 1.0160	37.3050
 1.0170	37.3150
 1.0180	37.3180
 1.0190	37.3220
 1.0200	37.3280
 1.0210	37.3370
 1.0220	37.3420
 1.0230	37.3490
 1.0240	37.3580
 1.0250	37.3650
 1.0260	37.3720
 1.0270	37.3790
 1.0280	37.3840
 1.0290	37.3910
 1.0300	37.3970
 1.0310	37.4040
 1.0320	37.4130
 1.0330	37.4200
 1.0340	37.4280
 1.0350	37.4350
 1.0360	37.4400
 1.0370	37.4450
 1.0380	37.4520
 1.0390	37.4560
 1.0400	37.4650
 1.0410	37.4790
 1.0420	37.4880
 1.0430	37.4960
 1.0440	37.5040
 1.0450	37.5080
 1.0460	37.5140
 1.0470	37.5210
 1.0480	37.5270
 1.0490	37.5310
 1.0500	37.5360
 1.0510	37.5380
 1.0520	37.5410
 1.0530	37.5460
 1.0540	37.5540
 1.0550	37.5570
 1.0560	37.5600
 1.0570	37.5620
 1.0580	37.5610
 1.0590	37.5630
 1.0600	37.5670
 1.0610	37.5670
 1.0620	37.5630
 1.0630	37.5620
 1.0640	37.5620
 1.0650	37.5610
 1.0660	37.5620
 1.0670	37.5610
 1.0680	37.5580
 1.0690	37.5510
 1.0700	37.5490
 1.0710	37.5480
 1.0720	37.5450
 1.0730	37.5440
 1.0740	37.5390
 1.0750	37.5290
 1.0760	37.5250
 1.0770	37.5230
 1.0780	37.5190
 1.0790	37.5190
 1.0800	37.5140
 1.0810	37.5020
 1.0820	37.4950
 1.0830	37.4890
 1.0840	37.4830
 1.0850	37.4800
 1.0860	37.4760
 1.0870	37.4710
 1.0880	37.4630
 1.0890	37.4570
 1.0900	37.4520
 1.0910	37.4460
 1.0920	37.4390
 1.0930	37.4330
 1.0940	37.4250
 1.0950	37.4190
 1.0960	37.4120
 1.0970	37.4070
 1.0980	37.4040
 1.0990	37.3990
 1.1000	37.3950
 1.1010	37.3900
 1.1020	37.3830
 1.1030	37.3760
 1.1040	37.3700
 1.1050	37.3620
 1.1060	37.3560
 1.1070	37.3520
 1.1080	37.3450
 1.1090	37.3390
 1.1100	37.3330
 1.1110	37.3260
 1.1120	37.3190
 1.1130	37.3150
 1.1140	37.3060
 1.1150	37.2950
 1.1160	37.2850
 1.1170	37.2750
 1.1180	37.2650
 1.1190	37.2560
 1.1200	37.2460
 1.1210	37.2340
 1.1220	37.2190
 1.1230	37.2010
 1.1240	37.1840
 1.1250	37.1640
 1.1260	37.1440
 1.1270	37.1190
 1.1280	37.0930
 1.1290	37.0620
 1.1300	37.0280
 1.1310	36.9890
 1.1320	36.9480
 1.1330	36.9040
 1.1340	36.8570
 1.1350	36.8050
 1.1360	36.7480
 1.1370	36.6890
 1.1380	36.6250
 1.1390	36.5590
 1.1400	36.4900
 1.1410	36.4190
 1.1420	36.3460
 1.1430	36.2720
 1.1440	36.1970
 1.1450	36.1210
 1.1460	36.0460
 1.1470	35.9710
 1.1480	35.8990
 1.1490	35.8290
 1.1500	35.7620
 1.1510	35.6960
 1.1520	35.6360
 1.1530	35.5810
 1.1540	35.5300
 1.1550	35.4850
 1.1560	35.4440
 1.1570	35.4050
 1.1580	35.3710
 1.1590	35.3400
 1.1600	35.3140
 1.1610	35.2930
 1.1620	35.2730
 1.1630	35.2550
 1.1640	35.2410
 1.1650	35.2300
 1.1660	35.2220
 1.1670	35.2140
 1.1680	35.2090
 1.1690	35.2030
 1.1700	35.1960
 1.1710	35.1910
 1.1720	35.1860
 1.1730	35.1820
 1.1740	35.1790
 1.1750	35.1750
 1.1760	35.1700
 1.1770	35.1660
 1.1780	35.1570
 1.1790	35.1490
 1.1800	35.1410
 1.1810	35.1340
 1.1820	35.1270
 1.1830	35.1200
 1.1840	35.1140
 1.1850	35.1060
 1.1860	35.0980
 1.1870	35.0910
 1.1880	35.0830
 1.1890	35.0730
 1.1900	35.0670
 1.1910	35.0620
 1.1920	35.0580
 1.1930	35.0580
 1.1940	35.0570
 1.1950	35.0570
 1.1960	35.0590
 1.1970	35.0600
 1.1980	35.0610
 1.1990	35.0640
 1.2000	35.0660
 1.2010	35.0700
 1.2020	35.0760
 1.2030	35.0800
 1.2040	35.0840
 1.2050	35.0900
 1.2060	35.0950
 1.2070	35.1020
 1.2080	35.1120
 1.2090	35.1220
 1.2100	35.1300
 1.2110	35.1400
 1.2120	35.1490
 1.2130	35.1590
 1.2140	35.1700
 1.2150	35.1820
 1.2160	35.1950
 1.2170	35.2060
 1.2180	35.2180
 1.2190	35.2310
 1.2200	35.2440
 1.2210	35.2580
 1.2220	35.2720
 1.2230	35.2850
 1.2240	35.2990
 1.2250	35.3150
 1.2260	35.3290
 1.2270	35.3420
 1.2280	35.3570
 1.2290	35.3690
 1.2300	35.3800
 1.2310	35.3920
 1.2320	35.4040
 1.2330	35.4150
 1.2340	35.4260
 1.2350	35.4340
 1.2360	35.4440
 1.2370	35.4520
 1.2380	35.4610
 1.2390	35.4710
 1.2400	35.4800
 1.2410	35.4890
 1.2420	35.4980
 1.2430	35.5050
 1.2440	35.5160
 1.2450	35.5250
 1.2460	35.5320
 1.2470	35.5390
 1.2480	35.5460
 1.2490	35.5480
 1.2500	35.5520
 1.2510	35.5580
 1.2520	35.5620
 1.2530	35.5690
 1.2540	35.5750
 1.2550	35.5770
 1.2560	35.5780
 1.2570	35.5790
 1.2580	35.5780
 1.2590	35.5790
 1.2600	35.5810
 1.2610	35.5800
 1.2620	35.5790
 1.2630	35.5800
 1.2640	35.5760
 1.2650	35.5730
 1.2660	35.5700
 1.2670	35.5660
 1.2680	35.5630
 1.2690	35.5590
 1.2700	35.5550
 1.2710	35.5510
 1.2720	35.5470
 1.2730	35.5410
 1.2740	35.5350
 1.2750	35.5280
 1.2760	35.5210
 1.2770	35.5140
 1.2780	35.5070
 1.2790	35.5010
 1.2800	35.4950
 1.2810	35.4860
 1.2820	35.4800
 1.2830	35.4720
 1.2840	35.4620
 1.2850	35.4520
 1.2860	35.4420
 1.2870	35.4300
 1.2880	35.4180
 1.2890	35.4050
 1.2900	35.3910
 1.2910	35.3750
 1.2920	35.3550
 1.2930	35.3330
 1.2940	35.3100
 1.2950	35.2850
 1.2960	35.2580
 1.2970	35.2320
 1.2980	35.2040
 1.2990	35.1720
 1.3000	35.1400
 1.3010	35.1060
 1.3020	35.0700
 1.3030	35.0320
 1.3040	34.9910
 1.3050	34.9480
 1.3060	34.9040
 1.3070	34.8600
 1.3080	34.8170
 1.3090	34.7730
 1.3100	34.7270
 1.3110	34.6800
 1.3120	34.6300
 1.3130	34.5780
 1.3140	34.5240
 1.3150	34.4710
 1.3160	34.4160
 1.3170	34.3590
 1.3180	34.3020
 1.3190	34.2450
 1.3200	34.1830
 1.3210	34.1180
 1.3220	34.0540
 1.3230	33.9870
 1.3240	33.9180
 1.3250	33.8510
 1.3260	33.7800
 1.3270	33.7100
 1.3280	33.6400
 1.3290	33.5650
 1.3300	33.4900
 1.3310	33.4140
 1.3320	33.3360
 1.3330	33.2580
 1.3340	33.1790
 1.3350	33.0990
 1.3360	33.0170
 1.3370	32.9350
 1.3380	32.8550
 1.3390	32.7730
 1.3400	32.6920
 1.3410	32.6100
 1.3420	32.5270
 1.3430	32.4460
 1.3440	32.3640
 1.3450	32.2830
 1.3460	32.2030
 1.3470	32.1230
 1.3480	32.0420
 1.3490	31.9620
 1.3500	31.8830
 1.3510	31.8030
 1.3520	31.7230
 1.3530	31.6430
 1.3540	31.5620
 1.3550	31.4810
 1.3560	31.3990
 1.3570	31.3160
 1.3580	31.2330
 1.3590	31.1470
 1.3600	31.0600
 1.3610	30.9710
 1.3620	30.8780
 1.3630	30.7820
 1.3640	30.6810
 1.3650	30.5740
 1.3660	30.4640
 1.3670	30.3470
 1.3680	30.2230
 1.3690	30.0940
 1.3700	29.9560
 1.3710	29.8090
 1.3720	29.6530
 1.3730	29.4850
 1.3740	29.3050
 1.3750	29.1120
 1.3760	28.9040
 1.3770	28.6810
 1.3780	28.4400
 1.3790	28.1840
 1.3800	27.9120
 1.3810	27.6210
 1.3820	27.3160
 1.3830	26.9990
 1.3840	26.6640
 1.3850	26.3130
 1.3860	25.9500
 1.3870	25.5700
 1.3880	25.1840
 1.3890	24.7870
 1.3900	24.3800
 1.3910	23.9700
 1.3920	23.5520
 1.3930	23.1290
 1.3940	22.7050
 1.3950	22.2750
 1.3960	21.8490
 1.3970	21.4290
 1.3980	21.0130
 1.3990	20.6090
 1.4000	20.2140
 1.4010	19.8270
 1.4020	19.4550
 1.4030	19.0950
 1.4040	18.7490
 1.4050	18.4200
 1.4060	18.1050
 1.4070	17.8090
 1.4080	17.5310
 1.4090	17.2670
 1.4100	17.0230
 1.4110	16.7940
 1.4120	16.5810
 1.4130	16.3860
 1.4140	16.2040
 1.4150	16.0390
 1.4160	15.8880
 1.4170	15.7490
 1.4180	15.6240
 1.4190	15.5080
 1.4200	15.4030
 1.4210	15.3110
 1.4220	15.2270
 1.4230	15.1530
 1.4240	15.0880
 1.4250	15.0300
 1.4260	14.9800
 1.4270	14.9360
 1.4280	14.9000
 1.4290	14.8680
 1.4300	14.8420
 1.4310	14.8200
 1.4320	14.8030
 1.4330	14.7900
 1.4340	14.7820
 1.4350	14.7770
 1.4360	14.7770
 1.4370	14.7790
 1.4380	14.7830
 1.4390	14.7910
 1.4400	14.8000
 1.4410	14.8100
 1.4420	14.8240
 1.4430	14.8390
 1.4440	14.8560
 1.4450	14.8740
 1.4460	14.8930
 1.4470	14.9130
 1.4480	14.9330
 1.4490	14.9540
 1.4500	14.9750
 1.4510	14.9960
 1.4520	15.0190
 1.4530	15.0420
 1.4540	15.0670
 1.4550	15.0930
 1.4560	15.1190
 1.4570	15.1480
 1.4580	15.1800
 1.4590	15.2130
 1.4600	15.2500
 1.4610	15.2900
 1.4620	15.3330
 1.4630	15.3800
 1.4640	15.4310
 1.4650	15.4850
 1.4660	15.5440
 1.4670	15.6060
 1.4680	15.6730
 1.4690	15.7430
 1.4700	15.8170
