Name: Quercus agrifolia 3
Type: vegetation
Class: Tree
Genus: Quercus
Species: agrifolia
Sample No.: VH279
Owner: UCSB
Wavelength Range: VSWIR
Origin: 34.7165; -120.0603; WGS84
Collection Date: 11/2/2013
Description: Samples were collected as part of the HyspIRI Airborne Campaign. 48 individual plants were sampled in three times in 2013 - spring  summer  and fall. The name of the sample includes a 1  2  or 3 which references a different individual of the species. Samples were taken to JPL and processed within 48 hours of collection. The same leaves were processed in the Nicolet and then measured using the ASD.
Measurement: Bidirectional reflectance
First Column: X
Second Column: Y
X Units: Wavelength (micrometers)
Y Units: Reflectance (percentage)
First X Value: 0.35
Last X Value: 2.5
Number of X Values: 2151
Additional Information: vegetation.tree.quercus.agrifolia.vswir.vh279.ucsb.asd.ancillary.txt

 0.3500	12.1320
 0.3510	12.0950
 0.3520	12.0140
 0.3530	12.0340
 0.3540	12.1730
 0.3550	12.1590
 0.3560	12.0480
 0.3570	11.9750
 0.3580	12.0540
 0.3590	11.9070
 0.3600	11.8590
 0.3610	11.9880
 0.3620	11.9400
 0.3630	11.9050
 0.3640	11.9120
 0.3650	11.9380
 0.3660	11.9290
 0.3670	11.9090
 0.3680	11.8590
 0.3690	11.7550
 0.3700	11.8510
 0.3710	11.9080
 0.3720	11.8200
 0.3730	11.8310
 0.3740	11.9170
 0.3750	11.9650
 0.3760	11.8800
 0.3770	11.8150
 0.3780	11.7800
 0.3790	11.7580
 0.3800	11.7130
 0.3810	11.7750
 0.3820	11.8280
 0.3830	11.7970
 0.3840	11.7840
 0.3850	11.7210
 0.3860	11.6970
 0.3870	11.7970
 0.3880	11.7430
 0.3890	11.6990
 0.3900	11.7180
 0.3910	11.7120
 0.3920	11.7380
 0.3930	11.7760
 0.3940	11.7950
 0.3950	11.7860
 0.3960	11.7600
 0.3970	11.7330
 0.3980	11.7230
 0.3990	11.7480
 0.4000	11.7670
 0.4010	11.7710
 0.4020	11.8000
 0.4030	11.8240
 0.4040	11.8310
 0.4050	11.8200
 0.4060	11.8090
 0.4070	11.8390
 0.4080	11.8930
 0.4090	11.9220
 0.4100	11.9580
 0.4110	11.9850
 0.4120	11.9960
 0.4130	12.0170
 0.4140	12.0380
 0.4150	12.0580
 0.4160	12.0790
 0.4170	12.1170
 0.4180	12.1600
 0.4190	12.2030
 0.4200	12.2400
 0.4210	12.2550
 0.4220	12.2720
 0.4230	12.3040
 0.4240	12.3220
 0.4250	12.3560
 0.4260	12.3910
 0.4270	12.4050
 0.4280	12.4420
 0.4290	12.4690
 0.4300	12.4780
 0.4310	12.5140
 0.4320	12.5070
 0.4330	12.4830
 0.4340	12.4790
 0.4350	12.4820
 0.4360	12.4980
 0.4370	12.5290
 0.4380	12.5730
 0.4390	12.6040
 0.4400	12.6360
 0.4410	12.6740
 0.4420	12.7030
 0.4430	12.7260
 0.4440	12.7430
 0.4450	12.7560
 0.4460	12.7860
 0.4470	12.8180
 0.4480	12.8460
 0.4490	12.8760
 0.4500	12.8870
 0.4510	12.8970
 0.4520	12.9210
 0.4530	12.9430
 0.4540	12.9600
 0.4550	12.9790
 0.4560	13.0090
 0.4570	13.0190
 0.4580	13.0210
 0.4590	13.0290
 0.4600	13.0500
 0.4610	13.0600
 0.4620	13.0690
 0.4630	13.0900
 0.4640	13.1010
 0.4650	13.1130
 0.4660	13.1250
 0.4670	13.1270
 0.4680	13.1450
 0.4690	13.1570
 0.4700	13.1530
 0.4710	13.1700
 0.4720	13.1910
 0.4730	13.2050
 0.4740	13.2060
 0.4750	13.2110
 0.4760	13.2190
 0.4770	13.2320
 0.4780	13.2480
 0.4790	13.2550
 0.4800	13.2590
 0.4810	13.2670
 0.4820	13.2820
 0.4830	13.2970
 0.4840	13.3100
 0.4850	13.3250
 0.4860	13.3440
 0.4870	13.3710
 0.4880	13.4050
 0.4890	13.4460
 0.4900	13.4920
 0.4910	13.5390
 0.4920	13.5850
 0.4930	13.6360
 0.4940	13.6990
 0.4950	13.7770
 0.4960	13.8610
 0.4970	13.9480
 0.4980	14.0400
 0.4990	14.1410
 0.5000	14.2500
 0.5010	14.3740
 0.5020	14.5110
 0.5030	14.6530
 0.5040	14.8080
 0.5050	14.9780
 0.5060	15.1630
 0.5070	15.3610
 0.5080	15.5690
 0.5090	15.7950
 0.5100	16.0490
 0.5110	16.3130
 0.5120	16.5870
 0.5130	16.8760
 0.5140	17.1810
 0.5150	17.5040
 0.5160	17.8380
 0.5170	18.1770
 0.5180	18.5260
 0.5190	18.8770
 0.5200	19.2260
 0.5210	19.5720
 0.5220	19.9050
 0.5230	20.2270
 0.5240	20.5380
 0.5250	20.8390
 0.5260	21.1180
 0.5270	21.3730
 0.5280	21.6110
 0.5290	21.8320
 0.5300	22.0340
 0.5310	22.2150
 0.5320	22.3770
 0.5330	22.5260
 0.5340	22.6600
 0.5350	22.7770
 0.5360	22.8790
 0.5370	22.9710
 0.5380	23.0540
 0.5390	23.1280
 0.5400	23.1850
 0.5410	23.2280
 0.5420	23.2660
 0.5430	23.3160
 0.5440	23.3740
 0.5450	23.4390
 0.5460	23.5130
 0.5470	23.6220
 0.5480	23.7270
 0.5490	23.8020
 0.5500	23.8470
 0.5510	23.8850
 0.5520	23.9100
 0.5530	23.9140
 0.5540	23.9090
 0.5550	23.8930
 0.5560	23.8610
 0.5570	23.8040
 0.5580	23.7350
 0.5590	23.6480
 0.5600	23.5400
 0.5610	23.4210
 0.5620	23.2890
 0.5630	23.1440
 0.5640	22.9890
 0.5650	22.8190
 0.5660	22.6350
 0.5670	22.4400
 0.5680	22.2360
 0.5690	22.0410
 0.5700	21.8470
 0.5710	21.6480
 0.5720	21.4570
 0.5730	21.2830
 0.5740	21.1300
 0.5750	20.9970
 0.5760	20.8740
 0.5770	20.7490
 0.5780	20.6220
 0.5790	20.5090
 0.5800	20.4030
 0.5810	20.3020
 0.5820	20.2020
 0.5830	20.1090
 0.5840	20.0110
 0.5850	19.9030
 0.5860	19.7990
 0.5870	19.7000
 0.5880	19.6150
 0.5890	19.5540
 0.5900	19.5120
 0.5910	19.4730
 0.5920	19.4370
 0.5930	19.4090
 0.5940	19.3820
 0.5950	19.3510
 0.5960	19.3140
 0.5970	19.2600
 0.5980	19.1970
 0.5990	19.1290
 0.6000	19.0590
 0.6010	18.9960
 0.6020	18.9230
 0.6030	18.8390
 0.6040	18.7510
 0.6050	18.6590
 0.6060	18.5590
 0.6070	18.4500
 0.6080	18.3350
 0.6090	18.2080
 0.6100	18.0560
 0.6110	17.8820
 0.6120	17.7760
 0.6130	17.7120
 0.6140	17.6570
 0.6150	17.5810
 0.6160	17.5060
 0.6170	17.4350
 0.6180	17.3680
 0.6190	17.3050
 0.6200	17.2480
 0.6210	17.2010
 0.6220	17.1690
 0.6230	17.1420
 0.6240	17.1190
 0.6250	17.1040
 0.6260	17.1040
 0.6270	17.1030
 0.6280	17.1000
 0.6290	17.0970
 0.6300	17.1000
 0.6310	17.1020
 0.6320	17.1010
 0.6330	17.1010
 0.6340	17.0780
 0.6350	17.0370
 0.6360	16.9830
 0.6370	16.9120
 0.6380	16.8230
 0.6390	16.7150
 0.6400	16.5890
 0.6410	16.4560
 0.6420	16.3100
 0.6430	16.1560
 0.6440	16.0150
 0.6450	15.8670
 0.6460	15.7200
 0.6470	15.5860
 0.6480	15.4550
 0.6490	15.3410
 0.6500	15.2430
 0.6510	15.1480
 0.6520	15.0600
 0.6530	14.9780
 0.6540	14.8980
 0.6550	14.8180
 0.6560	14.7300
 0.6570	14.6400
 0.6580	14.5540
 0.6590	14.4620
 0.6600	14.3720
 0.6610	14.2870
 0.6620	14.2000
 0.6630	14.1200
 0.6640	14.0520
 0.6650	14.0000
 0.6660	13.9610
 0.6670	13.9280
 0.6680	13.9030
 0.6690	13.8920
 0.6700	13.8950
 0.6710	13.9090
 0.6720	13.9340
 0.6730	13.9680
 0.6740	14.0110
 0.6750	14.0630
 0.6760	14.1210
 0.6770	14.1980
 0.6780	14.2890
 0.6790	14.3890
 0.6800	14.5000
 0.6810	14.6390
 0.6820	14.7980
 0.6830	14.9790
 0.6840	15.2050
 0.6850	15.4690
 0.6860	15.7840
 0.6870	16.1650
 0.6880	16.6080
 0.6890	17.1370
 0.6900	17.7640
 0.6910	18.4910
 0.6920	19.3110
 0.6930	20.2340
 0.6940	21.2640
 0.6950	22.3740
 0.6960	23.5670
 0.6970	24.8310
 0.6980	26.1490
 0.6990	27.4990
 0.7000	28.8720
 0.7010	30.2550
 0.7020	31.6220
 0.7030	32.9560
 0.7040	34.2580
 0.7050	35.5260
 0.7060	36.7450
 0.7070	37.9030
 0.7080	39.0010
 0.7090	40.0540
 0.7100	41.0670
 0.7110	42.0220
 0.7120	42.9200
 0.7130	43.7760
 0.7140	44.5940
 0.7150	45.3670
 0.7160	46.0910
 0.7170	46.7770
 0.7180	47.4180
 0.7190	48.0230
 0.7200	48.6070
 0.7210	49.1480
 0.7220	49.6610
 0.7230	50.1570
 0.7240	50.6300
 0.7250	51.0520
 0.7260	51.4510
 0.7270	51.8420
 0.7280	52.1850
 0.7290	52.5200
 0.7300	52.8480
 0.7310	53.1510
 0.7320	53.4170
 0.7330	53.6730
 0.7340	53.9260
 0.7350	54.1550
 0.7360	54.3670
 0.7370	54.5670
 0.7380	54.7570
 0.7390	54.9200
 0.7400	55.0890
 0.7410	55.2510
 0.7420	55.3800
 0.7430	55.4850
 0.7440	55.5920
 0.7450	55.7010
 0.7460	55.7860
 0.7470	55.8860
 0.7480	55.9730
 0.7490	56.0290
 0.7500	56.0770
 0.7510	56.1290
 0.7520	56.1840
 0.7530	56.2290
 0.7540	56.2550
 0.7550	56.2780
 0.7560	56.3060
 0.7570	56.3380
 0.7580	56.3540
 0.7590	56.3660
 0.7600	56.3770
 0.7610	56.3750
 0.7620	56.3920
 0.7630	56.4110
 0.7640	56.4090
 0.7650	56.4020
 0.7660	56.3960
 0.7670	56.3950
 0.7680	56.3930
 0.7690	56.3730
 0.7700	56.3650
 0.7710	56.3800
 0.7720	56.3930
 0.7730	56.3700
 0.7740	56.3450
 0.7750	56.3470
 0.7760	56.3450
 0.7770	56.3590
 0.7780	56.3660
 0.7790	56.3370
 0.7800	56.3120
 0.7810	56.3050
 0.7820	56.3150
 0.7830	56.3220
 0.7840	56.3280
 0.7850	56.3320
 0.7860	56.3350
 0.7870	56.3320
 0.7880	56.3320
 0.7890	56.3290
 0.7900	56.3210
 0.7910	56.3250
 0.7920	56.3220
 0.7930	56.3180
 0.7940	56.3310
 0.7950	56.3560
 0.7960	56.3640
 0.7970	56.3540
 0.7980	56.3620
 0.7990	56.3720
 0.8000	56.3810
 0.8010	56.3910
 0.8020	56.3950
 0.8030	56.4110
 0.8040	56.4290
 0.8050	56.4370
 0.8060	56.4390
 0.8070	56.4500
 0.8080	56.4680
 0.8090	56.4770
 0.8100	56.4950
 0.8110	56.5050
 0.8120	56.5090
 0.8130	56.5490
 0.8140	56.5540
 0.8150	56.5500
 0.8160	56.5760
 0.8170	56.6090
 0.8180	56.6400
 0.8190	56.6530
 0.8200	56.6420
 0.8210	56.6470
 0.8220	56.6740
 0.8230	56.7070
 0.8240	56.7150
 0.8250	56.7410
 0.8260	56.7660
 0.8270	56.7770
 0.8280	56.7900
 0.8290	56.8110
 0.8300	56.8210
 0.8310	56.8140
 0.8320	56.8390
 0.8330	56.8580
 0.8340	56.8700
 0.8350	56.8900
 0.8360	56.9070
 0.8370	56.9170
 0.8380	56.9290
 0.8390	56.9610
 0.8400	56.9780
 0.8410	56.9880
 0.8420	57.0010
 0.8430	57.0230
 0.8440	57.0430
 0.8450	57.0560
 0.8460	57.0660
 0.8470	57.0890
 0.8480	57.1120
 0.8490	57.1180
 0.8500	57.1050
 0.8510	57.1230
 0.8520	57.1530
 0.8530	57.1760
 0.8540	57.1770
 0.8550	57.1760
 0.8560	57.1850
 0.8570	57.2010
 0.8580	57.2120
 0.8590	57.2100
 0.8600	57.2110
 0.8610	57.2200
 0.8620	57.2190
 0.8630	57.2220
 0.8640	57.2320
 0.8650	57.2490
 0.8660	57.2630
 0.8670	57.2620
 0.8680	57.2590
 0.8690	57.2640
 0.8700	57.2500
 0.8710	57.2400
 0.8720	57.2430
 0.8730	57.2590
 0.8740	57.2660
 0.8750	57.2670
 0.8760	57.2650
 0.8770	57.2600
 0.8780	57.2550
 0.8790	57.2520
 0.8800	57.2570
 0.8810	57.2760
 0.8820	57.2680
 0.8830	57.2540
 0.8840	57.2540
 0.8850	57.2610
 0.8860	57.2410
 0.8870	57.2160
 0.8880	57.2120
 0.8890	57.1940
 0.8900	57.1750
 0.8910	57.1690
 0.8920	57.1830
 0.8930	57.1840
 0.8940	57.1720
 0.8950	57.1550
 0.8960	57.1430
 0.8970	57.1370
 0.8980	57.1340
 0.8990	57.1310
 0.9000	57.1280
 0.9010	57.1210
 0.9020	57.1020
 0.9030	57.0770
 0.9040	57.0700
 0.9050	57.0580
 0.9060	57.0470
 0.9070	57.0440
 0.9080	57.0450
 0.9090	57.0490
 0.9100	57.0360
 0.9110	57.0060
 0.9120	57.0030
 0.9130	56.9870
 0.9140	56.9700
 0.9150	56.9670
 0.9160	56.9540
 0.9170	56.9280
 0.9180	56.9110
 0.9190	56.9200
 0.9200	56.9270
 0.9210	56.9330
 0.9220	56.9220
 0.9230	56.8820
 0.9240	56.8670
 0.9250	56.8560
 0.9260	56.8400
 0.9270	56.8290
 0.9280	56.8070
 0.9290	56.7910
 0.9300	56.7860
 0.9310	56.7840
 0.9320	56.7600
 0.9330	56.7420
 0.9340	56.7330
 0.9350	56.7040
 0.9360	56.6950
 0.9370	56.6790
 0.9380	56.6510
 0.9390	56.6450
 0.9400	56.6300
 0.9410	56.6250
 0.9420	56.6290
 0.9430	56.5960
 0.9440	56.5760
 0.9450	56.5620
 0.9460	56.5410
 0.9470	56.5100
 0.9480	56.4800
 0.9490	56.4550
 0.9500	56.4280
 0.9510	56.3910
 0.9520	56.3480
 0.9530	56.3010
 0.9540	56.2570
 0.9550	56.2450
 0.9560	56.2230
 0.9570	56.1870
 0.9580	56.1440
 0.9590	56.0840
 0.9600	56.0380
 0.9610	56.0060
 0.9620	55.9800
 0.9630	55.9800
 0.9640	55.9650
 0.9650	55.9340
 0.9660	55.9050
 0.9670	55.9090
 0.9680	55.9310
 0.9690	55.9400
 0.9700	55.9210
 0.9710	55.9390
 0.9720	55.9180
 0.9730	55.8810
 0.9740	55.8860
 0.9750	55.8930
 0.9760	55.9030
 0.9770	55.9180
 0.9780	55.9360
 0.9790	55.9470
 0.9800	55.9390
 0.9810	55.9470
 0.9820	55.9990
 0.9830	55.9850
 0.9840	56.0050
 0.9850	56.0300
 0.9860	55.9960
 0.9870	55.9910
 0.9880	56.0250
 0.9890	56.0680
 0.9900	56.0820
 0.9910	56.1070
 0.9920	56.1250
 0.9930	56.1430
 0.9940	56.1760
 0.9950	56.2090
 0.9960	56.2060
 0.9970	56.1970
 0.9980	56.2250
 0.9990	56.2420
 1.0000	56.3770
 1.0010	56.5840
 1.0020	56.7050
 1.0030	56.7270
 1.0040	56.7570
 1.0050	56.7840
 1.0060	56.8090
 1.0070	56.8370
 1.0080	56.8590
 1.0090	56.8760
 1.0100	56.8940
 1.0110	56.9080
 1.0120	56.9290
 1.0130	56.9540
 1.0140	56.9740
 1.0150	56.9960
 1.0160	57.0170
 1.0170	57.0320
 1.0180	57.0490
 1.0190	57.0660
 1.0200	57.0860
 1.0210	57.1080
 1.0220	57.1220
 1.0230	57.1420
 1.0240	57.1690
 1.0250	57.1860
 1.0260	57.2020
 1.0270	57.2170
 1.0280	57.2260
 1.0290	57.2380
 1.0300	57.2500
 1.0310	57.2630
 1.0320	57.2730
 1.0330	57.2870
 1.0340	57.2990
 1.0350	57.3130
 1.0360	57.3290
 1.0370	57.3400
 1.0380	57.3510
 1.0390	57.3610
 1.0400	57.3720
 1.0410	57.3800
 1.0420	57.3890
 1.0430	57.4000
 1.0440	57.4080
 1.0450	57.4090
 1.0460	57.4180
 1.0470	57.4330
 1.0480	57.4430
 1.0490	57.4580
 1.0500	57.4670
 1.0510	57.4690
 1.0520	57.4710
 1.0530	57.4760
 1.0540	57.4800
 1.0550	57.4890
 1.0560	57.5040
 1.0570	57.5130
 1.0580	57.5210
 1.0590	57.5280
 1.0600	57.5290
 1.0610	57.5350
 1.0620	57.5430
 1.0630	57.5510
 1.0640	57.5600
 1.0650	57.5670
 1.0660	57.5730
 1.0670	57.5770
 1.0680	57.5780
 1.0690	57.5740
 1.0700	57.5750
 1.0710	57.5750
 1.0720	57.5780
 1.0730	57.5870
 1.0740	57.5900
 1.0750	57.5930
 1.0760	57.5920
 1.0770	57.5860
 1.0780	57.5840
 1.0790	57.5800
 1.0800	57.5780
 1.0810	57.5810
 1.0820	57.5790
 1.0830	57.5760
 1.0840	57.5710
 1.0850	57.5640
 1.0860	57.5550
 1.0870	57.5490
 1.0880	57.5440
 1.0890	57.5360
 1.0900	57.5290
 1.0910	57.5200
 1.0920	57.5060
 1.0930	57.4960
 1.0940	57.4920
 1.0950	57.4810
 1.0960	57.4710
 1.0970	57.4560
 1.0980	57.4290
 1.0990	57.4110
 1.1000	57.3930
 1.1010	57.3770
 1.1020	57.3650
 1.1030	57.3540
 1.1040	57.3410
 1.1050	57.3250
 1.1060	57.3080
 1.1070	57.2880
 1.1080	57.2700
 1.1090	57.2520
 1.1100	57.2330
 1.1110	57.2160
 1.1120	57.1980
 1.1130	57.1800
 1.1140	57.1590
 1.1150	57.1380
 1.1160	57.1130
 1.1170	57.0850
 1.1180	57.0550
 1.1190	57.0210
 1.1200	56.9880
 1.1210	56.9580
 1.1220	56.9260
 1.1230	56.8890
 1.1240	56.8510
 1.1250	56.8110
 1.1260	56.7650
 1.1270	56.7190
 1.1280	56.6750
 1.1290	56.6230
 1.1300	56.5660
 1.1310	56.5020
 1.1320	56.4320
 1.1330	56.3590
 1.1340	56.2780
 1.1350	56.1950
 1.1360	56.1080
 1.1370	56.0180
 1.1380	55.9240
 1.1390	55.8270
 1.1400	55.7240
 1.1410	55.6160
 1.1420	55.5050
 1.1430	55.3900
 1.1440	55.2770
 1.1450	55.1640
 1.1460	55.0530
 1.1470	54.9420
 1.1480	54.8350
 1.1490	54.7270
 1.1500	54.6270
 1.1510	54.5310
 1.1520	54.4400
 1.1530	54.3510
 1.1540	54.2720
 1.1550	54.1970
 1.1560	54.1300
 1.1570	54.0700
 1.1580	54.0150
 1.1590	53.9660
 1.1600	53.9240
 1.1610	53.8880
 1.1620	53.8610
 1.1630	53.8380
 1.1640	53.8130
 1.1650	53.7930
 1.1660	53.7800
 1.1670	53.7630
 1.1680	53.7480
 1.1690	53.7360
 1.1700	53.7240
 1.1710	53.7110
 1.1720	53.7040
 1.1730	53.6950
 1.1740	53.6840
 1.1750	53.6740
 1.1760	53.6640
 1.1770	53.6490
 1.1780	53.6350
 1.1790	53.6200
 1.1800	53.6040
 1.1810	53.5920
 1.1820	53.5760
 1.1830	53.5580
 1.1840	53.5430
 1.1850	53.5300
 1.1860	53.5150
 1.1870	53.5010
 1.1880	53.4880
 1.1890	53.4730
 1.1900	53.4610
 1.1910	53.4520
 1.1920	53.4450
 1.1930	53.4420
 1.1940	53.4370
 1.1950	53.4320
 1.1960	53.4290
 1.1970	53.4210
 1.1980	53.4140
 1.1990	53.4150
 1.2000	53.4130
 1.2010	53.4110
 1.2020	53.4150
 1.2030	53.4170
 1.2040	53.4190
 1.2050	53.4290
 1.2060	53.4360
 1.2070	53.4450
 1.2080	53.4580
 1.2090	53.4690
 1.2100	53.4850
 1.2110	53.5030
 1.2120	53.5240
 1.2130	53.5440
 1.2140	53.5640
 1.2150	53.5880
 1.2160	53.6150
 1.2170	53.6440
 1.2180	53.6760
 1.2190	53.7100
 1.2200	53.7470
 1.2210	53.7830
 1.2220	53.8190
 1.2230	53.8610
 1.2240	53.9030
 1.2250	53.9440
 1.2260	53.9830
 1.2270	54.0210
 1.2280	54.0590
 1.2290	54.0950
 1.2300	54.1300
 1.2310	54.1620
 1.2320	54.1920
 1.2330	54.2220
 1.2340	54.2520
 1.2350	54.2840
 1.2360	54.3140
 1.2370	54.3420
 1.2380	54.3700
 1.2390	54.4000
 1.2400	54.4280
 1.2410	54.4530
 1.2420	54.4760
 1.2430	54.4950
 1.2440	54.5150
 1.2450	54.5370
 1.2460	54.5590
 1.2470	54.5790
 1.2480	54.5950
 1.2490	54.6100
 1.2500	54.6260
 1.2510	54.6410
 1.2520	54.6520
 1.2530	54.6650
 1.2540	54.6800
 1.2550	54.6890
 1.2560	54.7010
 1.2570	54.7140
 1.2580	54.7220
 1.2590	54.7310
 1.2600	54.7420
 1.2610	54.7510
 1.2620	54.7590
 1.2630	54.7670
 1.2640	54.7760
 1.2650	54.7830
 1.2660	54.7880
 1.2670	54.7940
 1.2680	54.7960
 1.2690	54.7970
 1.2700	54.8000
 1.2710	54.7980
 1.2720	54.7930
 1.2730	54.7910
 1.2740	54.7860
 1.2750	54.7810
 1.2760	54.7760
 1.2770	54.7700
 1.2780	54.7590
 1.2790	54.7510
 1.2800	54.7450
 1.2810	54.7340
 1.2820	54.7270
 1.2830	54.7200
 1.2840	54.7050
 1.2850	54.6970
 1.2860	54.6900
 1.2870	54.6800
 1.2880	54.6660
 1.2890	54.6570
 1.2900	54.6440
 1.2910	54.6270
 1.2920	54.6120
 1.2930	54.5930
 1.2940	54.5730
 1.2950	54.5530
 1.2960	54.5300
 1.2970	54.5070
 1.2980	54.4830
 1.2990	54.4530
 1.3000	54.4230
 1.3010	54.3890
 1.3020	54.3520
 1.3030	54.3160
 1.3040	54.2760
 1.3050	54.2350
 1.3060	54.1910
 1.3070	54.1420
 1.3080	54.0920
 1.3090	54.0370
 1.3100	53.9830
 1.3110	53.9240
 1.3120	53.8570
 1.3130	53.7910
 1.3140	53.7210
 1.3150	53.6460
 1.3160	53.5690
 1.3170	53.4910
 1.3180	53.4080
 1.3190	53.3230
 1.3200	53.2340
 1.3210	53.1400
 1.3220	53.0430
 1.3230	52.9420
 1.3240	52.8370
 1.3250	52.7330
 1.3260	52.6280
 1.3270	52.5190
 1.3280	52.4070
 1.3290	52.2910
 1.3300	52.1760
 1.3310	52.0540
 1.3320	51.9300
 1.3330	51.8080
 1.3340	51.6810
 1.3350	51.5500
 1.3360	51.4200
 1.3370	51.2880
 1.3380	51.1520
 1.3390	51.0170
 1.3400	50.8820
 1.3410	50.7480
 1.3420	50.6140
 1.3430	50.4810
 1.3440	50.3510
 1.3450	50.2200
 1.3460	50.0890
 1.3470	49.9600
 1.3480	49.8310
 1.3490	49.7050
 1.3500	49.5810
 1.3510	49.4610
 1.3520	49.3420
 1.3530	49.2220
 1.3540	49.1000
 1.3550	48.9780
 1.3560	48.8550
 1.3570	48.7330
 1.3580	48.6110
 1.3590	48.4840
 1.3600	48.3560
 1.3610	48.2200
 1.3620	48.0750
 1.3630	47.9300
 1.3640	47.7760
 1.3650	47.6130
 1.3660	47.4480
 1.3670	47.2740
 1.3680	47.0890
 1.3690	46.9000
 1.3700	46.6980
 1.3710	46.4850
 1.3720	46.2630
 1.3730	46.0270
 1.3740	45.7790
 1.3750	45.5170
 1.3760	45.2360
 1.3770	44.9360
 1.3780	44.6100
 1.3790	44.2620
 1.3800	43.8950
 1.3810	43.4990
 1.3820	43.0830
 1.3830	42.6460
 1.3840	42.1860
 1.3850	41.7020
 1.3860	41.2020
 1.3870	40.6770
 1.3880	40.1440
 1.3890	39.5950
 1.3900	39.0330
 1.3910	38.4670
 1.3920	37.8930
 1.3930	37.3120
 1.3940	36.7310
 1.3950	36.1440
 1.3960	35.5600
 1.3970	34.9790
 1.3980	34.4030
 1.3990	33.8430
 1.4000	33.2950
 1.4010	32.7610
 1.4020	32.2450
 1.4030	31.7430
 1.4040	31.2590
 1.4050	30.7990
 1.4060	30.3550
 1.4070	29.9380
 1.4080	29.5450
 1.4090	29.1730
 1.4100	28.8270
 1.4110	28.5040
 1.4120	28.2020
 1.4130	27.9210
 1.4140	27.6590
 1.4150	27.4220
 1.4160	27.2040
 1.4170	27.0060
 1.4180	26.8260
 1.4190	26.6580
 1.4200	26.5040
 1.4210	26.3660
 1.4220	26.2430
 1.4230	26.1350
 1.4240	26.0390
 1.4250	25.9530
 1.4260	25.8790
 1.4270	25.8130
 1.4280	25.7590
 1.4290	25.7120
 1.4300	25.6740
 1.4310	25.6430
 1.4320	25.6190
 1.4330	25.6020
 1.4340	25.5940
 1.4350	25.5890
 1.4360	25.5910
 1.4370	25.5970
 1.4380	25.6060
 1.4390	25.6190
 1.4400	25.6360
 1.4410	25.6550
 1.4420	25.6760
 1.4430	25.7010
 1.4440	25.7290
 1.4450	25.7600
 1.4460	25.7920
 1.4470	25.8250
 1.4480	25.8550
 1.4490	25.8870
 1.4500	25.9210
 1.4510	25.9560
 1.4520	25.9930
 1.4530	26.0300
 1.4540	26.0680
 1.4550	26.1070
 1.4560	26.1470
 1.4570	26.1900
 1.4580	26.2350
 1.4590	26.2830
 1.4600	26.3360
 1.4610	26.3940
 1.4620	26.4560
 1.4630	26.5230
 1.4640	26.5930
 1.4650	26.6690
 1.4660	26.7500
 1.4670	26.8350
 1.4680	26.9300
 1.4690	27.0270
 1.4700	27.1280
