Name: Bambusa beecheyana
Type: vegetation
Class: Tree
Genus: Bambusa
Species: beecheyana
Sample No.: JPL135
Owner: JPL
Wavelength Range: VSWIR
Origin: 34.12719; -118.11127;; WGS84
Collection Date: 9/7/2016
Description: Samples were collected at the Huntington Garden in San Marino California as part of a JPL Subcontract studying HyTES imagery. Samples were taken to JPL and processed within 48 hours of collection. The same leaves were processed in the Nicolet and then measured using the ASD.
Measurement: Bidirectional reflectance
First Column: X
Second Column: Y
X Units: Wavelength (micrometer)
Y Units: Reflectance (percentage)
First X Value: 0.35
Last X Value: 2.5
Number of X Values: 2151
Additional Information: vegetation.tree.bambusa.beecheyana.vswir.jpl135.jpl.asd.ancillary.txt

 0.3500	 5.6090
 0.3510	 5.5790
 0.3520	 5.5450
 0.3530	 5.5080
 0.3540	 5.4880
 0.3550	 5.4910
 0.3560	 5.4940
 0.3570	 5.4780
 0.3580	 5.4350
 0.3590	 5.4390
 0.3600	 5.4600
 0.3610	 5.4600
 0.3620	 5.4070
 0.3630	 5.3640
 0.3640	 5.3520
 0.3650	 5.3680
 0.3660	 5.3910
 0.3670	 5.4000
 0.3680	 5.3810
 0.3690	 5.3300
 0.3700	 5.3050
 0.3710	 5.3170
 0.3720	 5.3480
 0.3730	 5.3420
 0.3740	 5.3340
 0.3750	 5.3360
 0.3760	 5.3470
 0.3770	 5.3630
 0.3780	 5.3640
 0.3790	 5.3540
 0.3800	 5.3600
 0.3810	 5.3270
 0.3820	 5.3130
 0.3830	 5.3360
 0.3840	 5.2730
 0.3850	 5.3100
 0.3860	 5.3840
 0.3870	 5.3700
 0.3880	 5.3450
 0.3890	 5.3340
 0.3900	 5.3370
 0.3910	 5.3400
 0.3920	 5.3510
 0.3930	 5.3610
 0.3940	 5.3680
 0.3950	 5.3970
 0.3960	 5.4060
 0.3970	 5.3950
 0.3980	 5.3870
 0.3990	 5.4050
 0.4000	 5.4250
 0.4010	 5.4400
 0.4020	 5.4620
 0.4030	 5.4750
 0.4040	 5.4730
 0.4050	 5.4670
 0.4060	 5.5040
 0.4070	 5.5370
 0.4080	 5.5530
 0.4090	 5.5640
 0.4100	 5.5720
 0.4110	 5.5910
 0.4120	 5.6180
 0.4130	 5.6180
 0.4140	 5.6290
 0.4150	 5.6490
 0.4160	 5.6640
 0.4170	 5.6750
 0.4180	 5.6880
 0.4190	 5.7070
 0.4200	 5.7330
 0.4210	 5.7250
 0.4220	 5.7280
 0.4230	 5.7670
 0.4240	 5.7830
 0.4250	 5.7880
 0.4260	 5.7890
 0.4270	 5.7900
 0.4280	 5.8020
 0.4290	 5.8090
 0.4300	 5.8080
 0.4310	 5.8140
 0.4320	 5.8170
 0.4330	 5.8180
 0.4340	 5.8190
 0.4350	 5.8150
 0.4360	 5.8200
 0.4370	 5.8320
 0.4380	 5.8410
 0.4390	 5.8500
 0.4400	 5.8580
 0.4410	 5.8660
 0.4420	 5.8820
 0.4430	 5.8950
 0.4440	 5.9000
 0.4450	 5.9020
 0.4460	 5.9050
 0.4470	 5.9120
 0.4480	 5.9220
 0.4490	 5.9340
 0.4500	 5.9370
 0.4510	 5.9380
 0.4520	 5.9480
 0.4530	 5.9570
 0.4540	 5.9650
 0.4550	 5.9710
 0.4560	 5.9800
 0.4570	 5.9840
 0.4580	 5.9840
 0.4590	 5.9820
 0.4600	 5.9820
 0.4610	 5.9830
 0.4620	 5.9850
 0.4630	 5.9880
 0.4640	 5.9890
 0.4650	 5.9840
 0.4660	 5.9780
 0.4670	 5.9800
 0.4680	 5.9910
 0.4690	 5.9940
 0.4700	 5.9810
 0.4710	 5.9810
 0.4720	 5.9890
 0.4730	 5.9950
 0.4740	 5.9910
 0.4750	 5.9910
 0.4760	 5.9970
 0.4770	 6.0030
 0.4780	 6.0000
 0.4790	 6.0020
 0.4800	 6.0090
 0.4810	 6.0140
 0.4820	 6.0090
 0.4830	 6.0080
 0.4840	 6.0110
 0.4850	 6.0140
 0.4860	 6.0190
 0.4870	 6.0240
 0.4880	 6.0290
 0.4890	 6.0340
 0.4900	 6.0440
 0.4910	 6.0570
 0.4920	 6.0690
 0.4930	 6.0850
 0.4940	 6.0980
 0.4950	 6.1110
 0.4960	 6.1350
 0.4970	 6.1570
 0.4980	 6.1770
 0.4990	 6.1990
 0.5000	 6.2280
 0.5010	 6.2620
 0.5020	 6.2990
 0.5030	 6.3340
 0.5040	 6.3770
 0.5050	 6.4280
 0.5060	 6.4860
 0.5070	 6.5490
 0.5080	 6.6180
 0.5090	 6.6920
 0.5100	 6.7740
 0.5110	 6.8660
 0.5120	 6.9690
 0.5130	 7.0800
 0.5140	 7.1960
 0.5150	 7.3250
 0.5160	 7.4690
 0.5170	 7.6250
 0.5180	 7.7810
 0.5190	 7.9450
 0.5200	 8.1200
 0.5210	 8.3000
 0.5220	 8.4810
 0.5230	 8.6620
 0.5240	 8.8440
 0.5250	 9.0220
 0.5260	 9.1950
 0.5270	 9.3600
 0.5280	 9.5170
 0.5290	 9.6630
 0.5300	 9.8000
 0.5310	 9.9260
 0.5320	10.0410
 0.5330	10.1450
 0.5340	10.2380
 0.5350	10.3200
 0.5360	10.3980
 0.5370	10.4650
 0.5380	10.5240
 0.5390	10.5790
 0.5400	10.6270
 0.5410	10.6710
 0.5420	10.7130
 0.5430	10.7560
 0.5440	10.7960
 0.5450	10.8300
 0.5460	10.8560
 0.5470	10.8830
 0.5480	10.9090
 0.5490	10.9290
 0.5500	10.9450
 0.5510	10.9550
 0.5520	10.9570
 0.5530	10.9500
 0.5540	10.9330
 0.5550	10.9040
 0.5560	10.8610
 0.5570	10.8100
 0.5580	10.7440
 0.5590	10.6660
 0.5600	10.5820
 0.5610	10.4900
 0.5620	10.3920
 0.5630	10.2900
 0.5640	10.1820
 0.5650	10.0670
 0.5660	 9.9490
 0.5670	 9.8300
 0.5680	 9.7060
 0.5690	 9.5820
 0.5700	 9.4600
 0.5710	 9.3420
 0.5720	 9.2240
 0.5730	 9.1120
 0.5740	 9.0070
 0.5750	 8.9060
 0.5760	 8.8160
 0.5770	 8.7290
 0.5780	 8.6420
 0.5790	 8.5630
 0.5800	 8.4870
 0.5810	 8.4160
 0.5820	 8.3540
 0.5830	 8.2980
 0.5840	 8.2470
 0.5850	 8.1980
 0.5860	 8.1540
 0.5870	 8.1090
 0.5880	 8.0650
 0.5890	 8.0240
 0.5900	 7.9910
 0.5910	 7.9620
 0.5920	 7.9370
 0.5930	 7.9140
 0.5940	 7.8900
 0.5950	 7.8670
 0.5960	 7.8480
 0.5970	 7.8300
 0.5980	 7.8080
 0.5990	 7.7850
 0.6000	 7.7630
 0.6010	 7.7400
 0.6020	 7.7120
 0.6030	 7.6790
 0.6040	 7.6430
 0.6050	 7.6070
 0.6060	 7.5670
 0.6070	 7.5200
 0.6080	 7.4700
 0.6090	 7.4170
 0.6100	 7.3610
 0.6110	 7.3040
 0.6120	 7.2550
 0.6130	 7.2070
 0.6140	 7.1600
 0.6150	 7.1160
 0.6160	 7.0710
 0.6170	 7.0280
 0.6180	 6.9870
 0.6190	 6.9460
 0.6200	 6.9110
 0.6210	 6.8830
 0.6220	 6.8590
 0.6230	 6.8360
 0.6240	 6.8150
 0.6250	 6.7990
 0.6260	 6.7830
 0.6270	 6.7700
 0.6280	 6.7590
 0.6290	 6.7480
 0.6300	 6.7400
 0.6310	 6.7320
 0.6320	 6.7220
 0.6330	 6.7100
 0.6340	 6.6940
 0.6350	 6.6750
 0.6360	 6.6540
 0.6370	 6.6250
 0.6380	 6.5920
 0.6390	 6.5590
 0.6400	 6.5260
 0.6410	 6.4900
 0.6420	 6.4520
 0.6430	 6.4120
 0.6440	 6.3720
 0.6450	 6.3340
 0.6460	 6.2990
 0.6470	 6.2650
 0.6480	 6.2350
 0.6490	 6.2050
 0.6500	 6.1780
 0.6510	 6.1550
 0.6520	 6.1350
 0.6530	 6.1170
 0.6540	 6.0980
 0.6550	 6.0780
 0.6560	 6.0560
 0.6570	 6.0330
 0.6580	 6.0090
 0.6590	 5.9830
 0.6600	 5.9560
 0.6610	 5.9290
 0.6620	 5.9020
 0.6630	 5.8790
 0.6640	 5.8610
 0.6650	 5.8450
 0.6660	 5.8300
 0.6670	 5.8190
 0.6680	 5.8110
 0.6690	 5.8040
 0.6700	 5.8020
 0.6710	 5.8050
 0.6720	 5.8100
 0.6730	 5.8140
 0.6740	 5.8240
 0.6750	 5.8380
 0.6760	 5.8530
 0.6770	 5.8680
 0.6780	 5.8870
 0.6790	 5.9090
 0.6800	 5.9320
 0.6810	 5.9580
 0.6820	 5.9880
 0.6830	 6.0230
 0.6840	 6.0610
 0.6850	 6.1060
 0.6860	 6.1570
 0.6870	 6.2170
 0.6880	 6.2910
 0.6890	 6.3820
 0.6900	 6.4960
 0.6910	 6.6360
 0.6920	 6.8090
 0.6930	 7.0200
 0.6940	 7.2760
 0.6950	 7.5820
 0.6960	 7.9400
 0.6970	 8.3510
 0.6980	 8.8170
 0.6990	 9.3360
 0.7000	 9.8990
 0.7010	10.5010
 0.7020	11.1410
 0.7030	11.8060
 0.7040	12.4920
 0.7050	13.1960
 0.7060	13.9120
 0.7070	14.6370
 0.7080	15.3680
 0.7090	16.1040
 0.7100	16.8450
 0.7110	17.5960
 0.7120	18.3540
 0.7130	19.1110
 0.7140	19.8750
 0.7150	20.6430
 0.7160	21.4140
 0.7170	22.1870
 0.7180	22.9620
 0.7190	23.7370
 0.7200	24.5120
 0.7210	25.2860
 0.7220	26.0570
 0.7230	26.8200
 0.7240	27.5770
 0.7250	28.3210
 0.7260	29.0510
 0.7270	29.7690
 0.7280	30.4710
 0.7290	31.1540
 0.7300	31.8180
 0.7310	32.4630
 0.7320	33.0880
 0.7330	33.6900
 0.7340	34.2700
 0.7350	34.8280
 0.7360	35.3610
 0.7370	35.8710
 0.7380	36.3560
 0.7390	36.8190
 0.7400	37.2570
 0.7410	37.6720
 0.7420	38.0640
 0.7430	38.4280
 0.7440	38.7720
 0.7450	39.0960
 0.7460	39.3940
 0.7470	39.6750
 0.7480	39.9380
 0.7490	40.1790
 0.7500	40.4010
 0.7510	40.6060
 0.7520	40.7960
 0.7530	40.9720
 0.7540	41.1320
 0.7550	41.2780
 0.7560	41.4120
 0.7570	41.5330
 0.7580	41.6430
 0.7590	41.7460
 0.7600	41.8420
 0.7610	41.9280
 0.7620	42.0050
 0.7630	42.0750
 0.7640	42.1380
 0.7650	42.1970
 0.7660	42.2500
 0.7670	42.2960
 0.7680	42.3370
 0.7690	42.3760
 0.7700	42.4120
 0.7710	42.4450
 0.7720	42.4700
 0.7730	42.4940
 0.7740	42.5180
 0.7750	42.5420
 0.7760	42.5620
 0.7770	42.5800
 0.7780	42.5970
 0.7790	42.6130
 0.7800	42.6250
 0.7810	42.6360
 0.7820	42.6480
 0.7830	42.6600
 0.7840	42.6690
 0.7850	42.6760
 0.7860	42.6800
 0.7870	42.6810
 0.7880	42.6860
 0.7890	42.6920
 0.7900	42.6940
 0.7910	42.6930
 0.7920	42.6940
 0.7930	42.6950
 0.7940	42.6920
 0.7950	42.6890
 0.7960	42.6840
 0.7970	42.6790
 0.7980	42.6760
 0.7990	42.6680
 0.8000	42.6590
 0.8010	42.6520
 0.8020	42.6470
 0.8030	42.6380
 0.8040	42.6280
 0.8050	42.6210
 0.8060	42.6110
 0.8070	42.5990
 0.8080	42.5850
 0.8090	42.5730
 0.8100	42.5630
 0.8110	42.5530
 0.8120	42.5410
 0.8130	42.5240
 0.8140	42.5090
 0.8150	42.4960
 0.8160	42.4820
 0.8170	42.4700
 0.8180	42.4590
 0.8190	42.4480
 0.8200	42.4370
 0.8210	42.4190
 0.8220	42.4040
 0.8230	42.3920
 0.8240	42.3810
 0.8250	42.3660
 0.8260	42.3500
 0.8270	42.3380
 0.8280	42.3280
 0.8290	42.3170
 0.8300	42.3060
 0.8310	42.2960
 0.8320	42.2830
 0.8330	42.2720
 0.8340	42.2630
 0.8350	42.2510
 0.8360	42.2430
 0.8370	42.2340
 0.8380	42.2240
 0.8390	42.2160
 0.8400	42.2110
 0.8410	42.2050
 0.8420	42.2010
 0.8430	42.1950
 0.8440	42.1910
 0.8450	42.1860
 0.8460	42.1810
 0.8470	42.1790
 0.8480	42.1770
 0.8490	42.1730
 0.8500	42.1680
 0.8510	42.1690
 0.8520	42.1660
 0.8530	42.1610
 0.8540	42.1610
 0.8550	42.1630
 0.8560	42.1630
 0.8570	42.1620
 0.8580	42.1650
 0.8590	42.1700
 0.8600	42.1730
 0.8610	42.1740
 0.8620	42.1780
 0.8630	42.1830
 0.8640	42.1860
 0.8650	42.1890
 0.8660	42.1920
 0.8670	42.1960
 0.8680	42.2020
 0.8690	42.2110
 0.8700	42.2150
 0.8710	42.2190
 0.8720	42.2250
 0.8730	42.2300
 0.8740	42.2360
 0.8750	42.2460
 0.8760	42.2550
 0.8770	42.2610
 0.8780	42.2730
 0.8790	42.2830
 0.8800	42.2880
 0.8810	42.2950
 0.8820	42.3020
 0.8830	42.3110
 0.8840	42.3230
 0.8850	42.3320
 0.8860	42.3400
 0.8870	42.3500
 0.8880	42.3620
 0.8890	42.3680
 0.8900	42.3790
 0.8910	42.3920
 0.8920	42.3980
 0.8930	42.4090
 0.8940	42.4170
 0.8950	42.4250
 0.8960	42.4370
 0.8970	42.4470
 0.8980	42.4560
 0.8990	42.4640
 0.9000	42.4660
 0.9010	42.4760
 0.9020	42.4870
 0.9030	42.4950
 0.9040	42.5000
 0.9050	42.5130
 0.9060	42.5250
 0.9070	42.5300
 0.9080	42.5300
 0.9090	42.5380
 0.9100	42.5490
 0.9110	42.5560
 0.9120	42.5590
 0.9130	42.5640
 0.9140	42.5720
 0.9150	42.5790
 0.9160	42.5790
 0.9170	42.5790
 0.9180	42.5790
 0.9190	42.5820
 0.9200	42.5870
 0.9210	42.5890
 0.9220	42.5880
 0.9230	42.5840
 0.9240	42.5830
 0.9250	42.5810
 0.9260	42.5790
 0.9270	42.5790
 0.9280	42.5720
 0.9290	42.5650
 0.9300	42.5600
 0.9310	42.5530
 0.9320	42.5440
 0.9330	42.5340
 0.9340	42.5240
 0.9350	42.5160
 0.9360	42.5070
 0.9370	42.4950
 0.9380	42.4810
 0.9390	42.4720
 0.9400	42.4640
 0.9410	42.4530
 0.9420	42.4340
 0.9430	42.4100
 0.9440	42.3990
 0.9450	42.3900
 0.9460	42.3710
 0.9470	42.3460
 0.9480	42.3300
 0.9490	42.3110
 0.9500	42.2810
 0.9510	42.2480
 0.9520	42.2260
 0.9530	42.2040
 0.9540	42.1740
 0.9550	42.1540
 0.9560	42.1340
 0.9570	42.1060
 0.9580	42.0710
 0.9590	42.0520
 0.9600	42.0340
 0.9610	42.0140
 0.9620	41.9940
 0.9630	41.9740
 0.9640	41.9570
 0.9650	41.9450
 0.9660	41.9380
 0.9670	41.9160
 0.9680	41.9010
 0.9690	41.8930
 0.9700	41.8840
 0.9710	41.8710
 0.9720	41.8530
 0.9730	41.8410
 0.9740	41.8460
 0.9750	41.8420
 0.9760	41.8310
 0.9770	41.8220
 0.9780	41.8220
 0.9790	41.8100
 0.9800	41.8050
 0.9810	41.8060
 0.9820	41.8030
 0.9830	41.8010
 0.9840	41.8000
 0.9850	41.7960
 0.9860	41.7840
 0.9870	41.7830
 0.9880	41.7800
 0.9890	41.7790
 0.9900	41.7840
 0.9910	41.7890
 0.9920	41.7870
 0.9930	41.7860
 0.9940	41.7930
 0.9950	41.7770
 0.9960	41.7800
 0.9970	41.7930
 0.9980	41.7850
 0.9990	41.7620
 1.0000	41.7700
 1.0010	42.1230
 1.0020	42.1260
 1.0030	42.1270
 1.0040	42.1250
 1.0050	42.1270
 1.0060	42.1300
 1.0070	42.1310
 1.0080	42.1320
 1.0090	42.1370
 1.0100	42.1390
 1.0110	42.1370
 1.0120	42.1380
 1.0130	42.1430
 1.0140	42.1450
 1.0150	42.1460
 1.0160	42.1470
 1.0170	42.1480
 1.0180	42.1510
 1.0190	42.1540
 1.0200	42.1560
 1.0210	42.1580
 1.0220	42.1590
 1.0230	42.1610
 1.0240	42.1660
 1.0250	42.1680
 1.0260	42.1710
 1.0270	42.1710
 1.0280	42.1690
 1.0290	42.1700
 1.0300	42.1720
 1.0310	42.1730
 1.0320	42.1740
 1.0330	42.1770
 1.0340	42.1810
 1.0350	42.1820
 1.0360	42.1860
 1.0370	42.1910
 1.0380	42.1930
 1.0390	42.1920
 1.0400	42.1940
 1.0410	42.1950
 1.0420	42.1970
 1.0430	42.2020
 1.0440	42.2030
 1.0450	42.2010
 1.0460	42.2010
 1.0470	42.2030
 1.0480	42.2040
 1.0490	42.2080
 1.0500	42.2110
 1.0510	42.2120
 1.0520	42.2130
 1.0530	42.2140
 1.0540	42.2150
 1.0550	42.2150
 1.0560	42.2150
 1.0570	42.2150
 1.0580	42.2140
 1.0590	42.2140
 1.0600	42.2150
 1.0610	42.2150
 1.0620	42.2140
 1.0630	42.2130
 1.0640	42.2110
 1.0650	42.2100
 1.0660	42.2070
 1.0670	42.2060
 1.0680	42.2050
 1.0690	42.2040
 1.0700	42.2020
 1.0710	42.2000
 1.0720	42.1990
 1.0730	42.1970
 1.0740	42.1960
 1.0750	42.2000
 1.0760	42.2000
 1.0770	42.1970
 1.0780	42.1960
 1.0790	42.1940
 1.0800	42.1940
 1.0810	42.1970
 1.0820	42.1960
 1.0830	42.1910
 1.0840	42.1880
 1.0850	42.1830
 1.0860	42.1780
 1.0870	42.1750
 1.0880	42.1760
 1.0890	42.1740
 1.0900	42.1730
 1.0910	42.1710
 1.0920	42.1660
 1.0930	42.1630
 1.0940	42.1590
 1.0950	42.1570
 1.0960	42.1550
 1.0970	42.1530
 1.0980	42.1510
 1.0990	42.1490
 1.1000	42.1450
 1.1010	42.1420
 1.1020	42.1380
 1.1030	42.1340
 1.1040	42.1310
 1.1050	42.1280
 1.1060	42.1240
 1.1070	42.1210
 1.1080	42.1160
 1.1090	42.1100
 1.1100	42.1050
 1.1110	42.0990
 1.1120	42.0950
 1.1130	42.0920
 1.1140	42.0870
 1.1150	42.0830
 1.1160	42.0770
 1.1170	42.0680
 1.1180	42.0600
 1.1190	42.0510
 1.1200	42.0400
 1.1210	42.0290
 1.1220	42.0190
 1.1230	42.0070
 1.1240	41.9930
 1.1250	41.9770
 1.1260	41.9610
 1.1270	41.9400
 1.1280	41.9150
 1.1290	41.8900
 1.1300	41.8620
 1.1310	41.8320
 1.1320	41.8020
 1.1330	41.7670
 1.1340	41.7260
 1.1350	41.6850
 1.1360	41.6420
 1.1370	41.5960
 1.1380	41.5500
 1.1390	41.5020
 1.1400	41.4490
 1.1410	41.3950
 1.1420	41.3400
 1.1430	41.2840
 1.1440	41.2280
 1.1450	41.1710
 1.1460	41.1150
 1.1470	41.0540
 1.1480	41.0010
 1.1490	40.9510
 1.1500	40.9030
 1.1510	40.8600
 1.1520	40.8170
 1.1530	40.7740
 1.1540	40.7350
 1.1550	40.6990
 1.1560	40.6660
 1.1570	40.6370
 1.1580	40.6110
 1.1590	40.5870
 1.1600	40.5650
 1.1610	40.5440
 1.1620	40.5250
 1.1630	40.5090
 1.1640	40.4960
 1.1650	40.4830
 1.1660	40.4740
 1.1670	40.4640
 1.1680	40.4550
 1.1690	40.4460
 1.1700	40.4380
 1.1710	40.4290
 1.1720	40.4210
 1.1730	40.4130
 1.1740	40.4060
 1.1750	40.3990
 1.1760	40.3930
 1.1770	40.3850
 1.1780	40.3780
 1.1790	40.3700
 1.1800	40.3610
 1.1810	40.3520
 1.1820	40.3440
 1.1830	40.3320
 1.1840	40.3220
 1.1850	40.3140
 1.1860	40.3040
 1.1870	40.2970
 1.1880	40.2890
 1.1890	40.2810
 1.1900	40.2730
 1.1910	40.2660
 1.1920	40.2590
 1.1930	40.2520
 1.1940	40.2470
 1.1950	40.2420
 1.1960	40.2370
 1.1970	40.2340
 1.1980	40.2320
 1.1990	40.2320
 1.2000	40.2300
 1.2010	40.2300
 1.2020	40.2300
 1.2030	40.2300
 1.2040	40.2310
 1.2050	40.2330
 1.2060	40.2350
 1.2070	40.2360
 1.2080	40.2380
 1.2090	40.2410
 1.2100	40.2440
 1.2110	40.2470
 1.2120	40.2500
 1.2130	40.2550
 1.2140	40.2600
 1.2150	40.2650
 1.2160	40.2710
 1.2170	40.2770
 1.2180	40.2810
 1.2190	40.2850
 1.2200	40.2900
 1.2210	40.2960
 1.2220	40.3010
 1.2230	40.3070
 1.2240	40.3140
 1.2250	40.3190
 1.2260	40.3250
 1.2270	40.3310
 1.2280	40.3360
 1.2290	40.3430
 1.2300	40.3510
 1.2310	40.3570
 1.2320	40.3630
 1.2330	40.3670
 1.2340	40.3710
 1.2350	40.3740
 1.2360	40.3780
 1.2370	40.3820
 1.2380	40.3870
 1.2390	40.3910
 1.2400	40.3940
 1.2410	40.3970
 1.2420	40.4010
 1.2430	40.4040
 1.2440	40.4060
 1.2450	40.4080
 1.2460	40.4090
 1.2470	40.4100
 1.2480	40.4130
 1.2490	40.4160
 1.2500	40.4200
 1.2510	40.4220
 1.2520	40.4220
 1.2530	40.4220
 1.2540	40.4220
 1.2550	40.4220
 1.2560	40.4210
 1.2570	40.4200
 1.2580	40.4200
 1.2590	40.4180
 1.2600	40.4150
 1.2610	40.4110
 1.2620	40.4080
 1.2630	40.4040
 1.2640	40.4010
 1.2650	40.3980
 1.2660	40.3940
 1.2670	40.3890
 1.2680	40.3830
 1.2690	40.3780
 1.2700	40.3730
 1.2710	40.3680
 1.2720	40.3610
 1.2730	40.3540
 1.2740	40.3470
 1.2750	40.3390
 1.2760	40.3310
 1.2770	40.3230
 1.2780	40.3140
 1.2790	40.3050
 1.2800	40.2940
 1.2810	40.2830
 1.2820	40.2730
 1.2830	40.2610
 1.2840	40.2500
 1.2850	40.2390
 1.2860	40.2260
 1.2870	40.2120
 1.2880	40.1970
 1.2890	40.1800
 1.2900	40.1620
 1.2910	40.1440
 1.2920	40.1240
 1.2930	40.1070
 1.2940	40.0890
 1.2950	40.0690
 1.2960	40.0480
 1.2970	40.0240
 1.2980	39.9990
 1.2990	39.9730
 1.3000	39.9470
 1.3010	39.9210
 1.3020	39.8940
 1.3030	39.8660
 1.3040	39.8360
 1.3050	39.8070
 1.3060	39.7760
 1.3070	39.7440
 1.3080	39.7120
 1.3090	39.6780
 1.3100	39.6410
 1.3110	39.6040
 1.3120	39.5670
 1.3130	39.5290
 1.3140	39.4900
 1.3150	39.4510
 1.3160	39.4100
 1.3170	39.3670
 1.3180	39.3230
 1.3190	39.2770
 1.3200	39.2300
 1.3210	39.1830
 1.3220	39.1360
 1.3230	39.0870
 1.3240	39.0370
 1.3250	38.9860
 1.3260	38.9330
 1.3270	38.8790
 1.3280	38.8240
 1.3290	38.7670
 1.3300	38.7080
 1.3310	38.6470
 1.3320	38.5860
 1.3330	38.5240
 1.3340	38.4630
 1.3350	38.4010
 1.3360	38.3380
 1.3370	38.2750
 1.3380	38.2100
 1.3390	38.1440
 1.3400	38.0800
 1.3410	38.0160
 1.3420	37.9530
 1.3430	37.8900
 1.3440	37.8270
 1.3450	37.7640
 1.3460	37.7000
 1.3470	37.6370
 1.3480	37.5740
 1.3490	37.5120
 1.3500	37.4490
 1.3510	37.3860
 1.3520	37.3220
 1.3530	37.2590
 1.3540	37.1960
 1.3550	37.1320
 1.3560	37.0680
 1.3570	37.0020
 1.3580	36.9350
 1.3590	36.8660
 1.3600	36.7940
 1.3610	36.7230
 1.3620	36.6490
 1.3630	36.5730
 1.3640	36.4930
 1.3650	36.4090
 1.3660	36.3230
 1.3670	36.2320
 1.3680	36.1380
 1.3690	36.0360
 1.3700	35.9260
 1.3710	35.8080
 1.3720	35.6820
 1.3730	35.5450
 1.3740	35.4000
 1.3750	35.2420
 1.3760	35.0720
 1.3770	34.8880
 1.3780	34.6870
 1.3790	34.4690
 1.3800	34.2360
 1.3810	33.9830
 1.3820	33.7160
 1.3830	33.4360
 1.3840	33.1380
 1.3850	32.8230
 1.3860	32.4940
 1.3870	32.1450
 1.3880	31.7880
 1.3890	31.4170
 1.3900	31.0340
 1.3910	30.6460
 1.3920	30.2460
 1.3930	29.8360
 1.3940	29.4230
 1.3950	29.0010
 1.3960	28.5790
 1.3970	28.1610
 1.3980	27.7420
 1.3990	27.3330
 1.4000	26.9300
 1.4010	26.5320
 1.4020	26.1470
 1.4030	25.7700
 1.4040	25.4060
 1.4050	25.0570
 1.4060	24.7200
 1.4070	24.4040
 1.4080	24.1030
 1.4090	23.8140
 1.4100	23.5440
 1.4110	23.2880
 1.4120	23.0480
 1.4130	22.8260
 1.4140	22.6170
 1.4150	22.4240
 1.4160	22.2460
 1.4170	22.0800
 1.4180	21.9270
 1.4190	21.7860
 1.4200	21.6550
 1.4210	21.5360
 1.4220	21.4270
 1.4230	21.3290
 1.4240	21.2390
 1.4250	21.1560
 1.4260	21.0830
 1.4270	21.0160
 1.4280	20.9580
 1.4290	20.9050
 1.4300	20.8600
 1.4310	20.8200
 1.4320	20.7860
 1.4330	20.7570
 1.4340	20.7330
 1.4350	20.7140
 1.4360	20.6990
 1.4370	20.6880
 1.4380	20.6820
 1.4390	20.6780
 1.4400	20.6780
 1.4410	20.6800
 1.4420	20.6850
 1.4430	20.6910
 1.4440	20.7000
 1.4450	20.7110
 1.4460	20.7240
 1.4470	20.7390
 1.4480	20.7550
 1.4490	20.7720
 1.4500	20.7900
 1.4510	20.8090
 1.4520	20.8300
 1.4530	20.8510
 1.4540	20.8740
 1.4550	20.9000
 1.4560	20.9270
 1.4570	20.9560
 1.4580	20.9890
 1.4590	21.0240
 1.4600	21.0630
 1.4610	21.1060
 1.4620	21.1540
 1.4630	21.2060
 1.4640	21.2620
 1.4650	21.3220
 1.4660	21.3860
 1.4670	21.4550
 1.4680	21.5290
 1.4690	21.6070
 1.4700	21.6880
 1.4710	21.7730
 1.4720	21.8610
 1.4730	21.9520
 1.4740	22.0460
 1.4750	22.1430
 1.4760	22.2420
 1.4770	22.3430
