Name: Ficus craterostoma
Type: vegetation
Class: Tree
Genus: Ficus
Species: craterostoma
Sample No.: JPL195
Owner: JPL
Wavelength Range: VSWIR
Origin: 34.12582; -118.11396; WGS84
Collection Date: 10/3/2016
Description: Samples were collected at the Huntington Garden in San Marino California as part of a JPL Subcontract studying HyTES imagery. Samples were taken to JPL and processed within 48 hours of collection. The same leaves were processed in the Nicolet and then measured using the ASD.
Measurement: Bidirectional reflectance
First Column: X
Second Column: Y
X Units: Wavelength (micrometer)
Y Units: Reflectance (percentage)
First X Value: 0.35
Last X Value: 2.5
Number of X Values: 2151
Additional Information: vegetation.tree.ficus.craterostoma.vswir.jpl195.jpl.asd.ancillary.txt

 0.3500	 8.8460
 0.3510	 8.7680
 0.3520	 8.6520
 0.3530	 8.5910
 0.3540	 8.6150
 0.3550	 8.5820
 0.3560	 8.5600
 0.3570	 8.5320
 0.3580	 8.4540
 0.3590	 8.4080
 0.3600	 8.4730
 0.3610	 8.5890
 0.3620	 8.5180
 0.3630	 8.4190
 0.3640	 8.3900
 0.3650	 8.4550
 0.3660	 8.4440
 0.3670	 8.4480
 0.3680	 8.4680
 0.3690	 8.4490
 0.3700	 8.4290
 0.3710	 8.3720
 0.3720	 8.2860
 0.3730	 8.2840
 0.3740	 8.3120
 0.3750	 8.3480
 0.3760	 8.3750
 0.3770	 8.3670
 0.3780	 8.3590
 0.3790	 8.3630
 0.3800	 8.3650
 0.3810	 8.3840
 0.3820	 8.3860
 0.3830	 8.3620
 0.3840	 8.3740
 0.3850	 8.3770
 0.3860	 8.3960
 0.3870	 8.4570
 0.3880	 8.4760
 0.3890	 8.4460
 0.3900	 8.4170
 0.3910	 8.4790
 0.3920	 8.5160
 0.3930	 8.5190
 0.3940	 8.5150
 0.3950	 8.5560
 0.3960	 8.5910
 0.3970	 8.6020
 0.3980	 8.6010
 0.3990	 8.6270
 0.4000	 8.6760
 0.4010	 8.7280
 0.4020	 8.7550
 0.4030	 8.7850
 0.4040	 8.8360
 0.4050	 8.9050
 0.4060	 8.9580
 0.4070	 9.0150
 0.4080	 9.0730
 0.4090	 9.1170
 0.4100	 9.2000
 0.4110	 9.2750
 0.4120	 9.3210
 0.4130	 9.3870
 0.4140	 9.4530
 0.4150	 9.5100
 0.4160	 9.5630
 0.4170	 9.6390
 0.4180	 9.7070
 0.4190	 9.7600
 0.4200	 9.8170
 0.4210	 9.8640
 0.4220	 9.9070
 0.4230	 9.9530
 0.4240	 9.9970
 0.4250	10.0420
 0.4260	10.0840
 0.4270	10.1160
 0.4280	10.1520
 0.4290	10.1870
 0.4300	10.2130
 0.4310	10.2180
 0.4320	10.2290
 0.4330	10.2420
 0.4340	10.2510
 0.4350	10.2670
 0.4360	10.2870
 0.4370	10.3150
 0.4380	10.3510
 0.4390	10.3850
 0.4400	10.4160
 0.4410	10.4500
 0.4420	10.4920
 0.4430	10.5280
 0.4440	10.5590
 0.4450	10.5880
 0.4460	10.6120
 0.4470	10.6370
 0.4480	10.6670
 0.4490	10.6960
 0.4500	10.7160
 0.4510	10.7370
 0.4520	10.7640
 0.4530	10.7860
 0.4540	10.8050
 0.4550	10.8200
 0.4560	10.8300
 0.4570	10.8440
 0.4580	10.8570
 0.4590	10.8650
 0.4600	10.8640
 0.4610	10.8710
 0.4620	10.8810
 0.4630	10.8830
 0.4640	10.8880
 0.4650	10.8910
 0.4660	10.8900
 0.4670	10.8910
 0.4680	10.8980
 0.4690	10.9020
 0.4700	10.8970
 0.4710	10.9020
 0.4720	10.9070
 0.4730	10.9100
 0.4740	10.9110
 0.4750	10.9140
 0.4760	10.9190
 0.4770	10.9270
 0.4780	10.9380
 0.4790	10.9410
 0.4800	10.9350
 0.4810	10.9260
 0.4820	10.9320
 0.4830	10.9390
 0.4840	10.9400
 0.4850	10.9380
 0.4860	10.9420
 0.4870	10.9490
 0.4880	10.9560
 0.4890	10.9650
 0.4900	10.9820
 0.4910	11.0050
 0.4920	11.0280
 0.4930	11.0520
 0.4940	11.0780
 0.4950	11.1070
 0.4960	11.1370
 0.4970	11.1720
 0.4980	11.2090
 0.4990	11.2440
 0.5000	11.2790
 0.5010	11.3180
 0.5020	11.3610
 0.5030	11.4030
 0.5040	11.4480
 0.5050	11.4970
 0.5060	11.5490
 0.5070	11.6000
 0.5080	11.6620
 0.5090	11.7310
 0.5100	11.8020
 0.5110	11.8780
 0.5120	11.9630
 0.5130	12.0590
 0.5140	12.1600
 0.5150	12.2710
 0.5160	12.3920
 0.5170	12.5200
 0.5180	12.6590
 0.5190	12.8040
 0.5200	12.9580
 0.5210	13.1220
 0.5220	13.2900
 0.5230	13.4550
 0.5240	13.6160
 0.5250	13.7840
 0.5260	13.9480
 0.5270	14.1030
 0.5280	14.2490
 0.5290	14.3870
 0.5300	14.5160
 0.5310	14.6330
 0.5320	14.7360
 0.5330	14.8340
 0.5340	14.9220
 0.5350	14.9950
 0.5360	15.0550
 0.5370	15.1040
 0.5380	15.1430
 0.5390	15.1680
 0.5400	15.1720
 0.5410	15.1630
 0.5420	15.1520
 0.5430	15.1470
 0.5440	15.1570
 0.5450	15.1850
 0.5460	15.2290
 0.5470	15.2830
 0.5480	15.3320
 0.5490	15.3680
 0.5500	15.3890
 0.5510	15.4010
 0.5520	15.4070
 0.5530	15.4060
 0.5540	15.3950
 0.5550	15.3720
 0.5560	15.3330
 0.5570	15.2750
 0.5580	15.2080
 0.5590	15.1300
 0.5600	15.0400
 0.5610	14.9440
 0.5620	14.8420
 0.5630	14.7350
 0.5640	14.6250
 0.5650	14.5150
 0.5660	14.3990
 0.5670	14.2760
 0.5680	14.1510
 0.5690	14.0260
 0.5700	13.9060
 0.5710	13.7970
 0.5720	13.6950
 0.5730	13.6040
 0.5740	13.5210
 0.5750	13.4420
 0.5760	13.3700
 0.5770	13.3020
 0.5780	13.2380
 0.5790	13.1740
 0.5800	13.1150
 0.5810	13.0620
 0.5820	13.0140
 0.5830	12.9710
 0.5840	12.9290
 0.5850	12.8890
 0.5860	12.8530
 0.5870	12.8100
 0.5880	12.7660
 0.5890	12.7260
 0.5900	12.6900
 0.5910	12.6580
 0.5920	12.6310
 0.5930	12.6120
 0.5940	12.6010
 0.5950	12.5970
 0.5960	12.5950
 0.5970	12.5870
 0.5980	12.5740
 0.5990	12.5590
 0.6000	12.5460
 0.6010	12.5360
 0.6020	12.5220
 0.6030	12.5010
 0.6040	12.4770
 0.6050	12.4470
 0.6060	12.4100
 0.6070	12.3680
 0.6080	12.3270
 0.6090	12.2690
 0.6100	12.1870
 0.6110	12.0890
 0.6120	12.0480
 0.6130	12.0460
 0.6140	12.0520
 0.6150	12.0310
 0.6160	12.0080
 0.6170	11.9840
 0.6180	11.9560
 0.6190	11.9270
 0.6200	11.9010
 0.6210	11.8800
 0.6220	11.8630
 0.6230	11.8500
 0.6240	11.8390
 0.6250	11.8290
 0.6260	11.8250
 0.6270	11.8180
 0.6280	11.8110
 0.6290	11.8060
 0.6300	11.7970
 0.6310	11.7890
 0.6320	11.7840
 0.6330	11.7790
 0.6340	11.7690
 0.6350	11.7540
 0.6360	11.7340
 0.6370	11.7070
 0.6380	11.6800
 0.6390	11.6540
 0.6400	11.6260
 0.6410	11.5960
 0.6420	11.5650
 0.6430	11.5350
 0.6440	11.5040
 0.6450	11.4770
 0.6460	11.4520
 0.6470	11.4270
 0.6480	11.4040
 0.6490	11.3850
 0.6500	11.3710
 0.6510	11.3610
 0.6520	11.3550
 0.6530	11.3480
 0.6540	11.3400
 0.6550	11.3360
 0.6560	11.3310
 0.6570	11.3220
 0.6580	11.3080
 0.6590	11.2970
 0.6600	11.2840
 0.6610	11.2690
 0.6620	11.2550
 0.6630	11.2420
 0.6640	11.2300
 0.6650	11.2190
 0.6660	11.2110
 0.6670	11.2070
 0.6680	11.2080
 0.6690	11.2170
 0.6700	11.2280
 0.6710	11.2440
 0.6720	11.2640
 0.6730	11.2900
 0.6740	11.3230
 0.6750	11.3610
 0.6760	11.4010
 0.6770	11.4460
 0.6780	11.4970
 0.6790	11.5570
 0.6800	11.6270
 0.6810	11.7020
 0.6820	11.7830
 0.6830	11.8700
 0.6840	11.9610
 0.6850	12.0540
 0.6860	12.1470
 0.6870	12.2390
 0.6880	12.3360
 0.6890	12.4420
 0.6900	12.5620
 0.6910	12.7050
 0.6920	12.8820
 0.6930	13.1050
 0.6940	13.3830
 0.6950	13.7270
 0.6960	14.1420
 0.6970	14.6330
 0.6980	15.2000
 0.6990	15.8390
 0.7000	16.5440
 0.7010	17.3110
 0.7020	18.1320
 0.7030	18.9960
 0.7040	19.8970
 0.7050	20.8290
 0.7060	21.7870
 0.7070	22.7670
 0.7080	23.7690
 0.7090	24.7940
 0.7100	25.8390
 0.7110	26.9030
 0.7120	27.9830
 0.7130	29.0770
 0.7140	30.1880
 0.7150	31.3100
 0.7160	32.4370
 0.7170	33.5770
 0.7180	34.7200
 0.7190	35.8620
 0.7200	37.0000
 0.7210	38.1320
 0.7220	39.2550
 0.7230	40.3650
 0.7240	41.4550
 0.7250	42.5190
 0.7260	43.5560
 0.7270	44.5660
 0.7280	45.5430
 0.7290	46.4860
 0.7300	47.3920
 0.7310	48.2570
 0.7320	49.0860
 0.7330	49.8780
 0.7340	50.6290
 0.7350	51.3380
 0.7360	52.0110
 0.7370	52.6460
 0.7380	53.2400
 0.7390	53.7970
 0.7400	54.3160
 0.7410	54.7980
 0.7420	55.2450
 0.7430	55.6580
 0.7440	56.0350
 0.7450	56.3780
 0.7460	56.6900
 0.7470	56.9730
 0.7480	57.2290
 0.7490	57.4590
 0.7500	57.6650
 0.7510	57.8530
 0.7520	58.0210
 0.7530	58.1680
 0.7540	58.2990
 0.7550	58.4170
 0.7560	58.5230
 0.7570	58.6140
 0.7580	58.6970
 0.7590	58.7710
 0.7600	58.8350
 0.7610	58.8920
 0.7620	58.9420
 0.7630	58.9840
 0.7640	59.0200
 0.7650	59.0490
 0.7660	59.0720
 0.7670	59.0910
 0.7680	59.1080
 0.7690	59.1230
 0.7700	59.1350
 0.7710	59.1440
 0.7720	59.1500
 0.7730	59.1590
 0.7740	59.1680
 0.7750	59.1770
 0.7760	59.1830
 0.7770	59.1890
 0.7780	59.1950
 0.7790	59.2010
 0.7800	59.2080
 0.7810	59.2140
 0.7820	59.2190
 0.7830	59.2270
 0.7840	59.2310
 0.7850	59.2360
 0.7860	59.2430
 0.7870	59.2430
 0.7880	59.2470
 0.7890	59.2520
 0.7900	59.2510
 0.7910	59.2540
 0.7920	59.2570
 0.7930	59.2580
 0.7940	59.2590
 0.7950	59.2590
 0.7960	59.2580
 0.7970	59.2550
 0.7980	59.2510
 0.7990	59.2430
 0.8000	59.2350
 0.8010	59.2290
 0.8020	59.2240
 0.8030	59.2190
 0.8040	59.2130
 0.8050	59.2070
 0.8060	59.1960
 0.8070	59.1860
 0.8080	59.1780
 0.8090	59.1620
 0.8100	59.1500
 0.8110	59.1380
 0.8120	59.1270
 0.8130	59.1150
 0.8140	59.1020
 0.8150	59.0870
 0.8160	59.0710
 0.8170	59.0580
 0.8180	59.0460
 0.8190	59.0340
 0.8200	59.0220
 0.8210	59.0080
 0.8220	58.9930
 0.8230	58.9760
 0.8240	58.9610
 0.8250	58.9440
 0.8260	58.9290
 0.8270	58.9160
 0.8280	58.9020
 0.8290	58.8850
 0.8300	58.8680
 0.8310	58.8520
 0.8320	58.8310
 0.8330	58.8170
 0.8340	58.8090
 0.8350	58.8010
 0.8360	58.7890
 0.8370	58.7780
 0.8380	58.7710
 0.8390	58.7670
 0.8400	58.7620
 0.8410	58.7580
 0.8420	58.7540
 0.8430	58.7500
 0.8440	58.7470
 0.8450	58.7420
 0.8460	58.7370
 0.8470	58.7380
 0.8480	58.7410
 0.8490	58.7420
 0.8500	58.7390
 0.8510	58.7400
 0.8520	58.7430
 0.8530	58.7460
 0.8540	58.7510
 0.8550	58.7500
 0.8560	58.7520
 0.8570	58.7580
 0.8580	58.7640
 0.8590	58.7690
 0.8600	58.7760
 0.8610	58.7840
 0.8620	58.7920
 0.8630	58.7970
 0.8640	58.8050
 0.8650	58.8170
 0.8660	58.8210
 0.8670	58.8280
 0.8680	58.8380
 0.8690	58.8480
 0.8700	58.8600
 0.8710	58.8700
 0.8720	58.8790
 0.8730	58.8880
 0.8740	58.9000
 0.8750	58.9120
 0.8760	58.9240
 0.8770	58.9380
 0.8780	58.9510
 0.8790	58.9620
 0.8800	58.9730
 0.8810	58.9790
 0.8820	58.9900
 0.8830	59.0020
 0.8840	59.0130
 0.8850	59.0280
 0.8860	59.0390
 0.8870	59.0490
 0.8880	59.0620
 0.8890	59.0710
 0.8900	59.0820
 0.8910	59.0940
 0.8920	59.1040
 0.8930	59.1120
 0.8940	59.1210
 0.8950	59.1320
 0.8960	59.1430
 0.8970	59.1560
 0.8980	59.1670
 0.8990	59.1760
 0.9000	59.1860
 0.9010	59.1960
 0.9020	59.2030
 0.9030	59.2120
 0.9040	59.2260
 0.9050	59.2340
 0.9060	59.2400
 0.9070	59.2490
 0.9080	59.2580
 0.9090	59.2590
 0.9100	59.2600
 0.9110	59.2660
 0.9120	59.2690
 0.9130	59.2670
 0.9140	59.2700
 0.9150	59.2820
 0.9160	59.2720
 0.9170	59.2670
 0.9180	59.2690
 0.9190	59.2680
 0.9200	59.2650
 0.9210	59.2560
 0.9220	59.2450
 0.9230	59.2390
 0.9240	59.2290
 0.9250	59.2130
 0.9260	59.1920
 0.9270	59.1690
 0.9280	59.1430
 0.9290	59.1160
 0.9300	59.0880
 0.9310	59.0580
 0.9320	59.0270
 0.9330	58.9980
 0.9340	58.9680
 0.9350	58.9340
 0.9360	58.8940
 0.9370	58.8550
 0.9380	58.8170
 0.9390	58.7700
 0.9400	58.7240
 0.9410	58.6790
 0.9420	58.6330
 0.9430	58.5860
 0.9440	58.5290
 0.9450	58.4690
 0.9460	58.4080
 0.9470	58.3360
 0.9480	58.2580
 0.9490	58.1780
 0.9500	58.0950
 0.9510	58.0020
 0.9520	57.9150
 0.9530	57.8250
 0.9540	57.7270
 0.9550	57.6420
 0.9560	57.5520
 0.9570	57.4660
 0.9580	57.3940
 0.9590	57.3190
 0.9600	57.2560
 0.9610	57.2010
 0.9620	57.1490
 0.9630	57.0970
 0.9640	57.0490
 0.9650	57.0120
 0.9660	56.9930
 0.9670	56.9680
 0.9680	56.9530
 0.9690	56.9390
 0.9700	56.9150
 0.9710	56.9020
 0.9720	56.8930
 0.9730	56.8860
 0.9740	56.8830
 0.9750	56.8730
 0.9760	56.8690
 0.9770	56.8740
 0.9780	56.8810
 0.9790	56.8770
 0.9800	56.8740
 0.9810	56.8780
 0.9820	56.8900
 0.9830	56.9060
 0.9840	56.9210
 0.9850	56.9360
 0.9860	56.9550
 0.9870	56.9690
 0.9880	56.9780
 0.9890	56.9980
 0.9900	57.0390
 0.9910	57.0430
 0.9920	57.0560
 0.9930	57.0830
 0.9940	57.1130
 0.9950	57.1580
 0.9960	57.1870
 0.9970	57.2040
 0.9980	57.2320
 0.9990	57.2620
 1.0000	57.2910
 1.0010	57.9390
 1.0020	57.9660
 1.0030	57.9930
 1.0040	58.0250
 1.0050	58.0580
 1.0060	58.0860
 1.0070	58.1160
 1.0080	58.1460
 1.0090	58.1760
 1.0100	58.2070
 1.0110	58.2400
 1.0120	58.2720
 1.0130	58.3020
 1.0140	58.3340
 1.0150	58.3640
 1.0160	58.3960
 1.0170	58.4330
 1.0180	58.4700
 1.0190	58.5060
 1.0200	58.5410
 1.0210	58.5710
 1.0220	58.5980
 1.0230	58.6280
 1.0240	58.6550
 1.0250	58.6870
 1.0260	58.7240
 1.0270	58.7540
 1.0280	58.7820
 1.0290	58.8100
 1.0300	58.8320
 1.0310	58.8580
 1.0320	58.8830
 1.0330	58.9130
 1.0340	58.9390
 1.0350	58.9600
 1.0360	58.9850
 1.0370	59.0120
 1.0380	59.0380
 1.0390	59.0710
 1.0400	59.0930
 1.0410	59.1080
 1.0420	59.1280
 1.0430	59.1470
 1.0440	59.1660
 1.0450	59.1910
 1.0460	59.2100
 1.0470	59.2220
 1.0480	59.2370
 1.0490	59.2510
 1.0500	59.2650
 1.0510	59.2800
 1.0520	59.2940
 1.0530	59.3090
 1.0540	59.3250
 1.0550	59.3370
 1.0560	59.3470
 1.0570	59.3570
 1.0580	59.3620
 1.0590	59.3700
 1.0600	59.3800
 1.0610	59.3870
 1.0620	59.3930
 1.0630	59.3990
 1.0640	59.4060
 1.0650	59.4090
 1.0660	59.4110
 1.0670	59.4130
 1.0680	59.4150
 1.0690	59.4140
 1.0700	59.4180
 1.0710	59.4260
 1.0720	59.4290
 1.0730	59.4340
 1.0740	59.4350
 1.0750	59.4310
 1.0760	59.4300
 1.0770	59.4290
 1.0780	59.4260
 1.0790	59.4210
 1.0800	59.4170
 1.0810	59.4130
 1.0820	59.4080
 1.0830	59.4050
 1.0840	59.4010
 1.0850	59.3940
 1.0860	59.3870
 1.0870	59.3800
 1.0880	59.3720
 1.0890	59.3660
 1.0900	59.3600
 1.0910	59.3520
 1.0920	59.3460
 1.0930	59.3360
 1.0940	59.3240
 1.0950	59.3130
 1.0960	59.3010
 1.0970	59.2890
 1.0980	59.2760
 1.0990	59.2630
 1.1000	59.2470
 1.1010	59.2330
 1.1020	59.2170
 1.1030	59.2040
 1.1040	59.1920
 1.1050	59.1790
 1.1060	59.1660
 1.1070	59.1550
 1.1080	59.1400
 1.1090	59.1230
 1.1100	59.1070
 1.1110	59.0910
 1.1120	59.0730
 1.1130	59.0560
 1.1140	59.0350
 1.1150	59.0110
 1.1160	58.9860
 1.1170	58.9610
 1.1180	58.9320
 1.1190	58.9030
 1.1200	58.8710
 1.1210	58.8350
 1.1220	58.7920
 1.1230	58.7460
 1.1240	58.6920
 1.1250	58.6320
 1.1260	58.5690
 1.1270	58.4940
 1.1280	58.4110
 1.1290	58.3180
 1.1300	58.2160
 1.1310	58.1030
 1.1320	57.9800
 1.1330	57.8490
 1.1340	57.7100
 1.1350	57.5590
 1.1360	57.3980
 1.1370	57.2270
 1.1380	57.0440
 1.1390	56.8560
 1.1400	56.6650
 1.1410	56.4730
 1.1420	56.2770
 1.1430	56.0790
 1.1440	55.8830
 1.1450	55.6810
 1.1460	55.4920
 1.1470	55.3060
 1.1480	55.1300
 1.1490	54.9580
 1.1500	54.8000
 1.1510	54.6480
 1.1520	54.5090
 1.1530	54.3820
 1.1540	54.2660
 1.1550	54.1620
 1.1560	54.0670
 1.1570	53.9860
 1.1580	53.9160
 1.1590	53.8530
 1.1600	53.7990
 1.1610	53.7530
 1.1620	53.7110
 1.1630	53.6750
 1.1640	53.6460
 1.1650	53.6190
 1.1660	53.5970
 1.1670	53.5780
 1.1680	53.5640
 1.1690	53.5490
 1.1700	53.5370
 1.1710	53.5250
 1.1720	53.5140
 1.1730	53.5030
 1.1740	53.4920
 1.1750	53.4800
 1.1760	53.4690
 1.1770	53.4570
 1.1780	53.4460
 1.1790	53.4360
 1.1800	53.4220
 1.1810	53.4080
 1.1820	53.3950
 1.1830	53.3810
 1.1840	53.3680
 1.1850	53.3550
 1.1860	53.3420
 1.1870	53.3300
 1.1880	53.3190
 1.1890	53.3080
 1.1900	53.3000
 1.1910	53.2940
 1.1920	53.2890
 1.1930	53.2860
 1.1940	53.2840
 1.1950	53.2810
 1.1960	53.2810
 1.1970	53.2850
 1.1980	53.2910
 1.1990	53.3000
 1.2000	53.3110
 1.2010	53.3220
 1.2020	53.3330
 1.2030	53.3470
 1.2040	53.3630
 1.2050	53.3800
 1.2060	53.4000
 1.2070	53.4200
 1.2080	53.4400
 1.2090	53.4620
 1.2100	53.4830
 1.2110	53.5040
 1.2120	53.5260
 1.2130	53.5500
 1.2140	53.5740
 1.2150	53.6000
 1.2160	53.6270
 1.2170	53.6540
 1.2180	53.6810
 1.2190	53.7070
 1.2200	53.7330
 1.2210	53.7600
 1.2220	53.7890
 1.2230	53.8170
 1.2240	53.8430
 1.2250	53.8700
 1.2260	53.8970
 1.2270	53.9230
 1.2280	53.9510
 1.2290	53.9780
 1.2300	54.0040
 1.2310	54.0290
 1.2320	54.0540
 1.2330	54.0770
 1.2340	54.1010
 1.2350	54.1270
 1.2360	54.1500
 1.2370	54.1730
 1.2380	54.1960
 1.2390	54.2200
 1.2400	54.2410
 1.2410	54.2640
 1.2420	54.2880
 1.2430	54.3070
 1.2440	54.3260
 1.2450	54.3460
 1.2460	54.3630
 1.2470	54.3830
 1.2480	54.4010
 1.2490	54.4180
 1.2500	54.4350
 1.2510	54.4480
 1.2520	54.4600
 1.2530	54.4730
 1.2540	54.4840
 1.2550	54.4940
 1.2560	54.5050
 1.2570	54.5160
 1.2580	54.5230
 1.2590	54.5300
 1.2600	54.5350
 1.2610	54.5400
 1.2620	54.5420
 1.2630	54.5450
 1.2640	54.5470
 1.2650	54.5470
 1.2660	54.5460
 1.2670	54.5430
 1.2680	54.5370
 1.2690	54.5290
 1.2700	54.5190
 1.2710	54.5070
 1.2720	54.4940
 1.2730	54.4810
 1.2740	54.4650
 1.2750	54.4460
 1.2760	54.4250
 1.2770	54.4020
 1.2780	54.3780
 1.2790	54.3550
 1.2800	54.3290
 1.2810	54.3020
 1.2820	54.2710
 1.2830	54.2340
 1.2840	54.1930
 1.2850	54.1510
 1.2860	54.1050
 1.2870	54.0580
 1.2880	54.0100
 1.2890	53.9610
 1.2900	53.9090
 1.2910	53.8530
 1.2920	53.7980
 1.2930	53.7390
 1.2940	53.6740
 1.2950	53.6090
 1.2960	53.5390
 1.2970	53.4650
 1.2980	53.3880
 1.2990	53.3080
 1.3000	53.2260
 1.3010	53.1410
 1.3020	53.0540
 1.3030	52.9630
 1.3040	52.8670
 1.3050	52.7690
 1.3060	52.6670
 1.3070	52.5630
 1.3080	52.4550
 1.3090	52.3450
 1.3100	52.2310
 1.3110	52.1150
 1.3120	51.9940
 1.3130	51.8680
 1.3140	51.7400
 1.3150	51.6090
 1.3160	51.4720
 1.3170	51.3330
 1.3180	51.1900
 1.3190	51.0420
 1.3200	50.8930
 1.3210	50.7410
 1.3220	50.5880
 1.3230	50.4320
 1.3240	50.2700
 1.3250	50.1080
 1.3260	49.9440
 1.3270	49.7740
 1.3280	49.6020
 1.3290	49.4250
 1.3300	49.2470
 1.3310	49.0700
 1.3320	48.8890
 1.3330	48.7100
 1.3340	48.5310
 1.3350	48.3490
 1.3360	48.1690
 1.3370	47.9880
 1.3380	47.8070
 1.3390	47.6300
 1.3400	47.4520
 1.3410	47.2780
 1.3420	47.1060
 1.3430	46.9340
 1.3440	46.7680
 1.3450	46.6020
 1.3460	46.4370
 1.3470	46.2760
 1.3480	46.1160
 1.3490	45.9590
 1.3500	45.8060
 1.3510	45.6540
 1.3520	45.5030
 1.3530	45.3510
 1.3540	45.1980
 1.3550	45.0420
 1.3560	44.8860
 1.3570	44.7280
 1.3580	44.5690
 1.3590	44.4070
 1.3600	44.2400
 1.3610	44.0670
 1.3620	43.8870
 1.3630	43.7000
 1.3640	43.5030
 1.3650	43.2940
 1.3660	43.0730
 1.3670	42.8390
 1.3680	42.5920
 1.3690	42.3290
 1.3700	42.0460
 1.3710	41.7450
 1.3720	41.4250
 1.3730	41.0800
 1.3740	40.7170
 1.3750	40.3280
 1.3760	39.9130
 1.3770	39.4710
 1.3780	38.9960
 1.3790	38.4950
 1.3800	37.9660
 1.3810	37.4030
 1.3820	36.8220
 1.3830	36.2160
 1.3840	35.5910
 1.3850	34.9430
 1.3860	34.2840
 1.3870	33.6010
 1.3880	32.9220
 1.3890	32.2320
 1.3900	31.5370
 1.3910	30.8510
 1.3920	30.1650
 1.3930	29.4840
 1.3940	28.8160
 1.3950	28.1540
 1.3960	27.5100
 1.3970	26.8870
 1.3980	26.2840
 1.3990	25.7110
 1.4000	25.1630
 1.4010	24.6370
 1.4020	24.1410
 1.4030	23.6690
 1.4040	23.2250
 1.4050	22.8100
 1.4060	22.4210
 1.4070	22.0610
 1.4080	21.7250
 1.4090	21.4110
 1.4100	21.1220
 1.4110	20.8520
 1.4120	20.6030
 1.4130	20.3740
 1.4140	20.1620
 1.4150	19.9680
 1.4160	19.7900
 1.4170	19.6250
 1.4180	19.4750
 1.4190	19.3360
 1.4200	19.2080
 1.4210	19.0910
 1.4220	18.9830
 1.4230	18.8840
 1.4240	18.7940
 1.4250	18.7110
 1.4260	18.6370
 1.4270	18.5690
 1.4280	18.5070
 1.4290	18.4500
 1.4300	18.3990
 1.4310	18.3530
 1.4320	18.3120
 1.4330	18.2750
 1.4340	18.2440
 1.4350	18.2160
 1.4360	18.1920
 1.4370	18.1710
 1.4380	18.1540
 1.4390	18.1400
 1.4400	18.1300
 1.4410	18.1220
 1.4420	18.1170
 1.4430	18.1140
 1.4440	18.1130
 1.4450	18.1140
 1.4460	18.1170
 1.4470	18.1230
 1.4480	18.1300
 1.4490	18.1380
 1.4500	18.1500
 1.4510	18.1630
 1.4520	18.1760
 1.4530	18.1920
 1.4540	18.2080
 1.4550	18.2290
 1.4560	18.2530
 1.4570	18.2790
 1.4580	18.3090
 1.4590	18.3430
 1.4600	18.3810
 1.4610	18.4230
 1.4620	18.4690
 1.4630	18.5190
 1.4640	18.5740
 1.4650	18.6330
 1.4660	18.6980
 1.4670	18.7680
 1.4680	18.8430
 1.4690	18.9200
 1.4700	19.0010
 1.4710	19.0870
 1.4720	19.1770
 1.4730	19.2710
 1.4740	19.3700
 1.4750	19.4710
 1.4760	19.5760
 1.4770	19.6820
