Name: Abies concolor 1
Type: vegetation
Class: Tree
Genus: Abies
Species: concolor
Sample No.: VH053
Owner: UCSB
Wavelength Range: VSWIR
Origin: 37.044; -119.3035; WGS84
Collection Date: 4/20/2013
Description: Samples were collected as part of the HyspIRI Airborne Campaign. 48 individual plants were sampled in three times in 2013 - spring  summer  and fall. The name of the sample includes a 1  2  or 3 which references a different individual of the species. Samples were taken to JPL and processed within 48 hours of collection. The same leaves were processed in the Nicolet and then measured using the ASD.
Measurement: Bidirectional reflectance
First Column: X
Second Column: Y
X Units: Wavelength (micrometers)
Y Units: Reflectance (percentage)
First X Value: 0.35
Last X Value: 2.5
Number of X Values: 2151
Additional Information: vegetation.tree.abies.concolor.vswir.vh053.ucsb.asd.ancillary.txt

 0.3500	 3.7420
 0.3510	 3.9740
 0.3520	 4.0280
 0.3530	 3.9210
 0.3540	 3.8030
 0.3550	 3.8630
 0.3560	 3.8960
 0.3570	 3.8370
 0.3580	 3.7140
 0.3590	 3.6060
 0.3600	 3.6820
 0.3610	 3.8720
 0.3620	 3.7770
 0.3630	 3.6760
 0.3640	 3.6520
 0.3650	 3.7010
 0.3660	 3.7090
 0.3670	 3.7300
 0.3680	 3.7620
 0.3690	 3.7690
 0.3700	 3.8120
 0.3710	 3.7880
 0.3720	 3.6800
 0.3730	 3.6610
 0.3740	 3.6790
 0.3750	 3.6920
 0.3760	 3.6770
 0.3770	 3.7060
 0.3780	 3.7840
 0.3790	 3.8390
 0.3800	 3.7530
 0.3810	 3.6570
 0.3820	 3.6030
 0.3830	 3.6080
 0.3840	 3.6540
 0.3850	 3.7410
 0.3860	 3.8260
 0.3870	 3.8580
 0.3880	 3.7770
 0.3890	 3.7300
 0.3900	 3.7700
 0.3910	 3.8400
 0.3920	 3.8200
 0.3930	 3.7950
 0.3940	 3.8320
 0.3950	 3.8390
 0.3960	 3.8600
 0.3970	 3.8980
 0.3980	 3.9350
 0.3990	 3.9710
 0.4000	 3.9800
 0.4010	 3.9770
 0.4020	 4.0290
 0.4030	 4.1050
 0.4040	 4.1690
 0.4050	 4.2060
 0.4060	 4.2690
 0.4070	 4.3120
 0.4080	 4.3460
 0.4090	 4.4140
 0.4100	 4.4920
 0.4110	 4.5410
 0.4120	 4.5710
 0.4130	 4.6770
 0.4140	 4.7570
 0.4150	 4.8180
 0.4160	 4.8940
 0.4170	 4.9650
 0.4180	 5.0510
 0.4190	 5.1450
 0.4200	 5.2220
 0.4210	 5.3070
 0.4220	 5.3890
 0.4230	 5.4580
 0.4240	 5.5160
 0.4250	 5.5940
 0.4260	 5.6850
 0.4270	 5.7670
 0.4280	 5.8360
 0.4290	 5.9020
 0.4300	 5.9710
 0.4310	 6.0390
 0.4320	 6.0980
 0.4330	 6.1560
 0.4340	 6.2240
 0.4350	 6.2950
 0.4360	 6.3470
 0.4370	 6.3920
 0.4380	 6.4620
 0.4390	 6.5090
 0.4400	 6.5530
 0.4410	 6.6100
 0.4420	 6.6510
 0.4430	 6.6870
 0.4440	 6.7230
 0.4450	 6.7630
 0.4460	 6.8050
 0.4470	 6.8500
 0.4480	 6.8940
 0.4490	 6.9260
 0.4500	 6.9470
 0.4510	 6.9750
 0.4520	 7.0210
 0.4530	 7.0540
 0.4540	 7.0850
 0.4550	 7.1120
 0.4560	 7.1260
 0.4570	 7.1370
 0.4580	 7.1580
 0.4590	 7.1900
 0.4600	 7.2180
 0.4610	 7.2240
 0.4620	 7.2250
 0.4630	 7.2470
 0.4640	 7.2660
 0.4650	 7.2690
 0.4660	 7.2630
 0.4670	 7.2770
 0.4680	 7.3020
 0.4690	 7.3160
 0.4700	 7.3100
 0.4710	 7.3270
 0.4720	 7.3340
 0.4730	 7.3340
 0.4740	 7.3450
 0.4750	 7.3590
 0.4760	 7.3740
 0.4770	 7.3880
 0.4780	 7.3980
 0.4790	 7.4020
 0.4800	 7.4080
 0.4810	 7.4210
 0.4820	 7.4380
 0.4830	 7.4540
 0.4840	 7.4630
 0.4850	 7.4640
 0.4860	 7.4760
 0.4870	 7.4910
 0.4880	 7.5020
 0.4890	 7.5300
 0.4900	 7.5600
 0.4910	 7.5830
 0.4920	 7.5980
 0.4930	 7.6360
 0.4940	 7.6710
 0.4950	 7.6940
 0.4960	 7.7360
 0.4970	 7.7760
 0.4980	 7.8180
 0.4990	 7.8690
 0.5000	 7.9240
 0.5010	 7.9850
 0.5020	 8.0520
 0.5030	 8.1250
 0.5040	 8.2070
 0.5050	 8.2910
 0.5060	 8.3760
 0.5070	 8.4740
 0.5080	 8.5810
 0.5090	 8.6890
 0.5100	 8.7940
 0.5110	 8.9160
 0.5120	 9.0490
 0.5130	 9.1860
 0.5140	 9.3280
 0.5150	 9.4760
 0.5160	 9.6290
 0.5170	 9.7900
 0.5180	 9.9580
 0.5190	10.1250
 0.5200	10.2910
 0.5210	10.4600
 0.5220	10.6200
 0.5230	10.7750
 0.5240	10.9260
 0.5250	11.0750
 0.5260	11.2150
 0.5270	11.3440
 0.5280	11.4630
 0.5290	11.5760
 0.5300	11.6780
 0.5310	11.7680
 0.5320	11.8610
 0.5330	11.9410
 0.5340	12.0120
 0.5350	12.0790
 0.5360	12.1410
 0.5370	12.1940
 0.5380	12.2430
 0.5390	12.2960
 0.5400	12.3410
 0.5410	12.3870
 0.5420	12.4370
 0.5430	12.4790
 0.5440	12.5250
 0.5450	12.5690
 0.5460	12.6010
 0.5470	12.6280
 0.5480	12.6540
 0.5490	12.6800
 0.5500	12.7090
 0.5510	12.7330
 0.5520	12.7480
 0.5530	12.7490
 0.5540	12.7440
 0.5550	12.7290
 0.5560	12.7030
 0.5570	12.6680
 0.5580	12.6200
 0.5590	12.5650
 0.5600	12.5050
 0.5610	12.4420
 0.5620	12.3800
 0.5630	12.3160
 0.5640	12.2460
 0.5650	12.1720
 0.5660	12.0930
 0.5670	12.0060
 0.5680	11.9100
 0.5690	11.8120
 0.5700	11.7150
 0.5710	11.6230
 0.5720	11.5350
 0.5730	11.4550
 0.5740	11.3820
 0.5750	11.3120
 0.5760	11.2420
 0.5770	11.1760
 0.5780	11.1170
 0.5790	11.0570
 0.5800	11.0000
 0.5810	10.9490
 0.5820	10.9060
 0.5830	10.8690
 0.5840	10.8260
 0.5850	10.7750
 0.5860	10.7280
 0.5870	10.6790
 0.5880	10.6340
 0.5890	10.5980
 0.5900	10.5660
 0.5910	10.5470
 0.5920	10.5390
 0.5930	10.5310
 0.5940	10.5180
 0.5950	10.5040
 0.5960	10.4890
 0.5970	10.4700
 0.5980	10.4510
 0.5990	10.4320
 0.6000	10.4130
 0.6010	10.3920
 0.6020	10.3690
 0.6030	10.3430
 0.6040	10.3190
 0.6050	10.2900
 0.6060	10.2530
 0.6070	10.2100
 0.6080	10.1650
 0.6090	10.1250
 0.6100	10.0880
 0.6110	10.0450
 0.6120	 9.9950
 0.6130	 9.9410
 0.6140	 9.8870
 0.6150	 9.8350
 0.6160	 9.7910
 0.6170	 9.7500
 0.6180	 9.7100
 0.6190	 9.6710
 0.6200	 9.6400
 0.6210	 9.6140
 0.6220	 9.5840
 0.6230	 9.5660
 0.6240	 9.5510
 0.6250	 9.5350
 0.6260	 9.5220
 0.6270	 9.5180
 0.6280	 9.5170
 0.6290	 9.5120
 0.6300	 9.5060
 0.6310	 9.5010
 0.6320	 9.4960
 0.6330	 9.4820
 0.6340	 9.4620
 0.6350	 9.4390
 0.6360	 9.4120
 0.6370	 9.3710
 0.6380	 9.3230
 0.6390	 9.2710
 0.6400	 9.2140
 0.6410	 9.1550
 0.6420	 9.0930
 0.6430	 9.0290
 0.6440	 8.9620
 0.6450	 8.8940
 0.6460	 8.8290
 0.6470	 8.7710
 0.6480	 8.7180
 0.6490	 8.6710
 0.6500	 8.6300
 0.6510	 8.5960
 0.6520	 8.5660
 0.6530	 8.5370
 0.6540	 8.5090
 0.6550	 8.4780
 0.6560	 8.4470
 0.6570	 8.4100
 0.6580	 8.3660
 0.6590	 8.3190
 0.6600	 8.2660
 0.6610	 8.2100
 0.6620	 8.1560
 0.6630	 8.0980
 0.6640	 8.0400
 0.6650	 7.9890
 0.6660	 7.9490
 0.6670	 7.9100
 0.6680	 7.8750
 0.6690	 7.8480
 0.6700	 7.8250
 0.6710	 7.8090
 0.6720	 7.8020
 0.6730	 7.7940
 0.6740	 7.7920
 0.6750	 7.7960
 0.6760	 7.8070
 0.6770	 7.8220
 0.6780	 7.8360
 0.6790	 7.8540
 0.6800	 7.8850
 0.6810	 7.9260
 0.6820	 7.9780
 0.6830	 8.0450
 0.6840	 8.1270
 0.6850	 8.2290
 0.6860	 8.3520
 0.6870	 8.5020
 0.6880	 8.6860
 0.6890	 8.9060
 0.6900	 9.1630
 0.6910	 9.4630
 0.6920	 9.8100
 0.6930	10.2010
 0.6940	10.6340
 0.6950	11.1090
 0.6960	11.6260
 0.6970	12.1830
 0.6980	12.7700
 0.6990	13.3880
 0.7000	14.0260
 0.7010	14.6820
 0.7020	15.3550
 0.7030	16.0350
 0.7040	16.7210
 0.7050	17.4110
 0.7060	18.1040
 0.7070	18.7950
 0.7080	19.4910
 0.7090	20.2000
 0.7100	20.9070
 0.7110	21.6220
 0.7120	22.3460
 0.7130	23.0700
 0.7140	23.8090
 0.7150	24.5580
 0.7160	25.3120
 0.7170	26.0710
 0.7180	26.8370
 0.7190	27.6070
 0.7200	28.3820
 0.7210	29.1640
 0.7220	29.9450
 0.7230	30.7240
 0.7240	31.5050
 0.7250	32.2790
 0.7260	33.0390
 0.7270	33.7850
 0.7280	34.5170
 0.7290	35.2340
 0.7300	35.9350
 0.7310	36.6200
 0.7320	37.2790
 0.7330	37.9170
 0.7340	38.5360
 0.7350	39.1340
 0.7360	39.7110
 0.7370	40.2610
 0.7380	40.7820
 0.7390	41.2850
 0.7400	41.7610
 0.7410	42.2140
 0.7420	42.6500
 0.7430	43.0560
 0.7440	43.4370
 0.7450	43.7980
 0.7460	44.1390
 0.7470	44.4510
 0.7480	44.7410
 0.7490	45.0150
 0.7500	45.2660
 0.7510	45.5050
 0.7520	45.7240
 0.7530	45.9180
 0.7540	46.1060
 0.7550	46.2830
 0.7560	46.4460
 0.7570	46.5900
 0.7580	46.7200
 0.7590	46.8440
 0.7600	46.9650
 0.7610	47.0770
 0.7620	47.1750
 0.7630	47.2670
 0.7640	47.3550
 0.7650	47.4350
 0.7660	47.5080
 0.7670	47.5790
 0.7680	47.6500
 0.7690	47.7090
 0.7700	47.7650
 0.7710	47.8250
 0.7720	47.8800
 0.7730	47.9310
 0.7740	47.9820
 0.7750	48.0340
 0.7760	48.0790
 0.7770	48.1210
 0.7780	48.1620
 0.7790	48.2030
 0.7800	48.2420
 0.7810	48.2850
 0.7820	48.3290
 0.7830	48.3640
 0.7840	48.4000
 0.7850	48.4330
 0.7860	48.4650
 0.7870	48.5060
 0.7880	48.5400
 0.7890	48.5710
 0.7900	48.6050
 0.7910	48.6370
 0.7920	48.6650
 0.7930	48.6910
 0.7940	48.7220
 0.7950	48.7520
 0.7960	48.7790
 0.7970	48.8050
 0.7980	48.8290
 0.7990	48.8570
 0.8000	48.8840
 0.8010	48.9060
 0.8020	48.9230
 0.8030	48.9430
 0.8040	48.9630
 0.8050	48.9780
 0.8060	48.9980
 0.8070	49.0170
 0.8080	49.0340
 0.8090	49.0490
 0.8100	49.0640
 0.8110	49.0780
 0.8120	49.0940
 0.8130	49.1100
 0.8140	49.1190
 0.8150	49.1270
 0.8160	49.1420
 0.8170	49.1550
 0.8180	49.1690
 0.8190	49.1820
 0.8200	49.1890
 0.8210	49.1960
 0.8220	49.2110
 0.8230	49.2270
 0.8240	49.2280
 0.8250	49.2350
 0.8260	49.2410
 0.8270	49.2430
 0.8280	49.2490
 0.8290	49.2590
 0.8300	49.2640
 0.8310	49.2620
 0.8320	49.2650
 0.8330	49.2660
 0.8340	49.2710
 0.8350	49.2860
 0.8360	49.2930
 0.8370	49.3000
 0.8380	49.3110
 0.8390	49.3220
 0.8400	49.3310
 0.8410	49.3440
 0.8420	49.3590
 0.8430	49.3700
 0.8440	49.3820
 0.8450	49.3970
 0.8460	49.4110
 0.8470	49.4180
 0.8480	49.4320
 0.8490	49.4480
 0.8500	49.4590
 0.8510	49.4720
 0.8520	49.4820
 0.8530	49.4950
 0.8540	49.5180
 0.8550	49.5300
 0.8560	49.5400
 0.8570	49.5540
 0.8580	49.5700
 0.8590	49.5840
 0.8600	49.5940
 0.8610	49.6010
 0.8620	49.6120
 0.8630	49.6210
 0.8640	49.6340
 0.8650	49.6530
 0.8660	49.6600
 0.8670	49.6740
 0.8680	49.6900
 0.8690	49.6990
 0.8700	49.7130
 0.8710	49.7300
 0.8720	49.7450
 0.8730	49.7530
 0.8740	49.7650
 0.8750	49.7720
 0.8760	49.7770
 0.8770	49.7930
 0.8780	49.8060
 0.8790	49.8160
 0.8800	49.8240
 0.8810	49.8310
 0.8820	49.8450
 0.8830	49.8530
 0.8840	49.8510
 0.8850	49.8660
 0.8860	49.8740
 0.8870	49.8770
 0.8880	49.8850
 0.8890	49.8980
 0.8900	49.9020
 0.8910	49.9010
 0.8920	49.9040
 0.8930	49.9100
 0.8940	49.9120
 0.8950	49.9130
 0.8960	49.9130
 0.8970	49.9120
 0.8980	49.9190
 0.8990	49.9290
 0.9000	49.9250
 0.9010	49.9210
 0.9020	49.9220
 0.9030	49.9240
 0.9040	49.9210
 0.9050	49.9260
 0.9060	49.9340
 0.9070	49.9380
 0.9080	49.9340
 0.9090	49.9270
 0.9100	49.9280
 0.9110	49.9390
 0.9120	49.9420
 0.9130	49.9350
 0.9140	49.9320
 0.9150	49.9440
 0.9160	49.9400
 0.9170	49.9320
 0.9180	49.9210
 0.9190	49.9090
 0.9200	49.8980
 0.9210	49.8940
 0.9220	49.8890
 0.9230	49.8690
 0.9240	49.8570
 0.9250	49.8460
 0.9260	49.8300
 0.9270	49.8100
 0.9280	49.7790
 0.9290	49.7560
 0.9300	49.7410
 0.9310	49.7110
 0.9320	49.6690
 0.9330	49.6310
 0.9340	49.6010
 0.9350	49.5650
 0.9360	49.5250
 0.9370	49.4770
 0.9380	49.4260
 0.9390	49.3960
 0.9400	49.3490
 0.9410	49.2890
 0.9420	49.2250
 0.9430	49.1610
 0.9440	49.0800
 0.9450	49.0040
 0.9460	48.9410
 0.9470	48.8660
 0.9480	48.7740
 0.9490	48.6770
 0.9500	48.5830
 0.9510	48.4660
 0.9520	48.3470
 0.9530	48.2190
 0.9540	48.0810
 0.9550	47.9600
 0.9560	47.8410
 0.9570	47.7210
 0.9580	47.6050
 0.9590	47.4910
 0.9600	47.3830
 0.9610	47.2910
 0.9620	47.2160
 0.9630	47.1280
 0.9640	47.0670
 0.9650	47.0190
 0.9660	46.9580
 0.9670	46.9060
 0.9680	46.8700
 0.9690	46.8370
 0.9700	46.7910
 0.9710	46.7570
 0.9720	46.7330
 0.9730	46.7140
 0.9740	46.6920
 0.9750	46.6620
 0.9760	46.6420
 0.9770	46.6390
 0.9780	46.6450
 0.9790	46.6350
 0.9800	46.6210
 0.9810	46.6180
 0.9820	46.6310
 0.9830	46.6420
 0.9840	46.6470
 0.9850	46.6590
 0.9860	46.6900
 0.9870	46.7050
 0.9880	46.7440
 0.9890	46.7840
 0.9900	46.7900
 0.9910	46.8460
 0.9920	46.9270
 0.9930	47.0080
 0.9940	47.0880
 0.9950	47.1690
 0.9960	47.2500
 0.9970	47.3300
 0.9980	47.4110
 0.9990	47.4920
 1.0000	47.5720
 1.0010	47.6530
 1.0020	47.7330
 1.0030	47.8140
 1.0040	47.8950
 1.0050	47.9750
 1.0060	48.0560
 1.0070	48.1370
 1.0080	48.2170
 1.0090	48.2980
 1.0100	48.2980
 1.0110	48.3580
 1.0120	48.4150
 1.0130	48.4750
 1.0140	48.5300
 1.0150	48.5810
 1.0160	48.6330
 1.0170	48.6900
 1.0180	48.7480
 1.0190	48.8130
 1.0200	48.8770
 1.0210	48.9340
 1.0220	48.9950
 1.0230	49.0520
 1.0240	49.1060
 1.0250	49.1600
 1.0260	49.2110
 1.0270	49.2630
 1.0280	49.3130
 1.0290	49.3660
 1.0300	49.4210
 1.0310	49.4760
 1.0320	49.5320
 1.0330	49.5870
 1.0340	49.6310
 1.0350	49.6770
 1.0360	49.7200
 1.0370	49.7630
 1.0380	49.8100
 1.0390	49.8670
 1.0400	49.9130
 1.0410	49.9580
 1.0420	49.9980
 1.0430	50.0290
 1.0440	50.0670
 1.0450	50.1050
 1.0460	50.1410
 1.0470	50.1800
 1.0480	50.2180
 1.0490	50.2530
 1.0500	50.2880
 1.0510	50.3250
 1.0520	50.3590
 1.0530	50.3910
 1.0540	50.4220
 1.0550	50.4520
 1.0560	50.4770
 1.0570	50.5060
 1.0580	50.5370
 1.0590	50.5650
 1.0600	50.5920
 1.0610	50.6200
 1.0620	50.6460
 1.0630	50.6710
 1.0640	50.6950
 1.0650	50.7200
 1.0660	50.7420
 1.0670	50.7630
 1.0680	50.7830
 1.0690	50.8040
 1.0700	50.8220
 1.0710	50.8390
 1.0720	50.8520
 1.0730	50.8640
 1.0740	50.8740
 1.0750	50.8780
 1.0760	50.8850
 1.0770	50.8930
 1.0780	50.9000
 1.0790	50.9080
 1.0800	50.9150
 1.0810	50.9230
 1.0820	50.9290
 1.0830	50.9350
 1.0840	50.9370
 1.0850	50.9360
 1.0860	50.9300
 1.0870	50.9230
 1.0880	50.9120
 1.0890	50.9040
 1.0900	50.8970
 1.0910	50.8860
 1.0920	50.8750
 1.0930	50.8620
 1.0940	50.8440
 1.0950	50.8310
 1.0960	50.8220
 1.0970	50.8060
 1.0980	50.7880
 1.0990	50.7680
 1.1000	50.7420
 1.1010	50.7180
 1.1020	50.6950
 1.1030	50.6690
 1.1040	50.6440
 1.1050	50.6180
 1.1060	50.5900
 1.1070	50.5620
 1.1080	50.5320
 1.1090	50.5020
 1.1100	50.4670
 1.1110	50.4270
 1.1120	50.3880
 1.1130	50.3450
 1.1140	50.3000
 1.1150	50.2550
 1.1160	50.2050
 1.1170	50.1530
 1.1180	50.0950
 1.1190	50.0360
 1.1200	49.9690
 1.1210	49.8980
 1.1220	49.8180
 1.1230	49.7270
 1.1240	49.6300
 1.1250	49.5210
 1.1260	49.4030
 1.1270	49.2710
 1.1280	49.1320
 1.1290	48.9790
 1.1300	48.8150
 1.1310	48.6370
 1.1320	48.4470
 1.1330	48.2450
 1.1340	48.0290
 1.1350	47.8010
 1.1360	47.5610
 1.1370	47.3080
 1.1380	47.0450
 1.1390	46.7730
 1.1400	46.4940
 1.1410	46.2140
 1.1420	45.9290
 1.1430	45.6440
 1.1440	45.3630
 1.1450	45.0800
 1.1460	44.8070
 1.1470	44.5350
 1.1480	44.2750
 1.1490	44.0180
 1.1500	43.7810
 1.1510	43.5540
 1.1520	43.3410
 1.1530	43.1440
 1.1540	42.9600
 1.1550	42.7880
 1.1560	42.6300
 1.1570	42.4850
 1.1580	42.3510
 1.1590	42.2290
 1.1600	42.1170
 1.1610	42.0140
 1.1620	41.9190
 1.1630	41.8310
 1.1640	41.7480
 1.1650	41.6720
 1.1660	41.6040
 1.1670	41.5410
 1.1680	41.4860
 1.1690	41.4300
 1.1700	41.3780
 1.1710	41.3260
 1.1720	41.2770
 1.1730	41.2270
 1.1740	41.1800
 1.1750	41.1330
 1.1760	41.0860
 1.1770	41.0380
 1.1780	40.9880
 1.1790	40.9380
 1.1800	40.8880
 1.1810	40.8380
 1.1820	40.7880
 1.1830	40.7380
 1.1840	40.6870
 1.1850	40.6370
 1.1860	40.5890
 1.1870	40.5430
 1.1880	40.5010
 1.1890	40.4600
 1.1900	40.4230
 1.1910	40.3910
 1.1920	40.3610
 1.1930	40.3340
 1.1940	40.3100
 1.1950	40.2890
 1.1960	40.2700
 1.1970	40.2590
 1.1980	40.2520
 1.1990	40.2480
 1.2000	40.2500
 1.2010	40.2560
 1.2020	40.2640
 1.2030	40.2780
 1.2040	40.2960
 1.2050	40.3200
 1.2060	40.3490
 1.2070	40.3830
 1.2080	40.4220
 1.2090	40.4630
 1.2100	40.5060
 1.2110	40.5530
 1.2120	40.6030
 1.2130	40.6570
 1.2140	40.7180
 1.2150	40.7790
 1.2160	40.8440
 1.2170	40.9100
 1.2180	40.9780
 1.2190	41.0490
 1.2200	41.1230
 1.2210	41.1990
 1.2220	41.2750
 1.2230	41.3510
 1.2240	41.4280
 1.2250	41.5000
 1.2260	41.5730
 1.2270	41.6460
 1.2280	41.7160
 1.2290	41.7850
 1.2300	41.8520
 1.2310	41.9170
 1.2320	41.9800
 1.2330	42.0410
 1.2340	42.0990
 1.2350	42.1530
 1.2360	42.2080
 1.2370	42.2610
 1.2380	42.3150
 1.2390	42.3690
 1.2400	42.4210
 1.2410	42.4700
 1.2420	42.5150
 1.2430	42.5570
 1.2440	42.6000
 1.2450	42.6430
 1.2460	42.6840
 1.2470	42.7260
 1.2480	42.7640
 1.2490	42.8000
 1.2500	42.8350
 1.2510	42.8680
 1.2520	42.9000
 1.2530	42.9310
 1.2540	42.9600
 1.2550	42.9900
 1.2560	43.0170
 1.2570	43.0440
 1.2580	43.0700
 1.2590	43.0930
 1.2600	43.1130
 1.2610	43.1330
 1.2620	43.1500
 1.2630	43.1660
 1.2640	43.1820
 1.2650	43.1940
 1.2660	43.2040
 1.2670	43.2120
 1.2680	43.2180
 1.2690	43.2230
 1.2700	43.2260
 1.2710	43.2260
 1.2720	43.2250
 1.2730	43.2210
 1.2740	43.2140
 1.2750	43.2060
 1.2760	43.1940
 1.2770	43.1800
 1.2780	43.1640
 1.2790	43.1440
 1.2800	43.1220
 1.2810	43.0990
 1.2820	43.0730
 1.2830	43.0460
 1.2840	43.0180
 1.2850	42.9840
 1.2860	42.9490
 1.2870	42.9120
 1.2880	42.8720
 1.2890	42.8280
 1.2900	42.7830
 1.2910	42.7350
 1.2920	42.6830
 1.2930	42.6270
 1.2940	42.5700
 1.2950	42.5100
 1.2960	42.4460
 1.2970	42.3770
 1.2980	42.3040
 1.2990	42.2270
 1.3000	42.1490
 1.3010	42.0680
 1.3020	41.9790
 1.3030	41.8860
 1.3040	41.7900
 1.3050	41.6900
 1.3060	41.5840
 1.3070	41.4730
 1.3080	41.3600
 1.3090	41.2380
 1.3100	41.1120
 1.3110	40.9840
 1.3120	40.8480
 1.3130	40.7100
 1.3140	40.5660
 1.3150	40.4180
 1.3160	40.2650
 1.3170	40.1080
 1.3180	39.9450
 1.3190	39.7780
 1.3200	39.6060
 1.3210	39.4250
 1.3220	39.2420
 1.3230	39.0570
 1.3240	38.8690
 1.3250	38.6780
 1.3260	38.4830
 1.3270	38.2830
 1.3280	38.0800
 1.3290	37.8740
 1.3300	37.6670
 1.3310	37.4580
 1.3320	37.2480
 1.3330	37.0390
 1.3340	36.8310
 1.3350	36.6220
 1.3360	36.4130
 1.3370	36.2070
 1.3380	36.0010
 1.3390	35.7980
 1.3400	35.5970
 1.3410	35.3980
 1.3420	35.2020
 1.3430	35.0100
 1.3440	34.8200
 1.3450	34.6340
 1.3460	34.4510
 1.3470	34.2710
 1.3480	34.0930
 1.3490	33.9190
 1.3500	33.7490
 1.3510	33.5820
 1.3520	33.4160
 1.3530	33.2510
 1.3540	33.0860
 1.3550	32.9230
 1.3560	32.7620
 1.3570	32.6010
 1.3580	32.4420
 1.3590	32.2810
 1.3600	32.1160
 1.3610	31.9500
 1.3620	31.7790
 1.3630	31.6060
 1.3640	31.4280
 1.3650	31.2430
 1.3660	31.0520
 1.3670	30.8530
 1.3680	30.6450
 1.3690	30.4290
 1.3700	30.1990
 1.3710	29.9580
 1.3720	29.7020
 1.3730	29.4300
 1.3740	29.1460
 1.3750	28.8490
 1.3760	28.5320
 1.3770	28.1970
 1.3780	27.8410
 1.3790	27.4660
 1.3800	27.0740
 1.3810	26.6630
 1.3820	26.2410
 1.3830	25.8030
 1.3840	25.3540
 1.3850	24.8910
 1.3860	24.4210
 1.3870	23.9370
 1.3880	23.4550
 1.3890	22.9680
 1.3900	22.4760
 1.3910	21.9900
 1.3920	21.5050
 1.3930	21.0220
 1.3940	20.5480
 1.3950	20.0770
 1.3960	19.6170
 1.3970	19.1680
 1.3980	18.7300
 1.3990	18.3130
 1.4000	17.9080
 1.4010	17.5170
 1.4020	17.1460
 1.4030	16.7870
 1.4040	16.4440
 1.4050	16.1200
 1.4060	15.8110
 1.4070	15.5220
 1.4080	15.2490
 1.4090	14.9900
 1.4100	14.7470
 1.4110	14.5170
 1.4120	14.3020
 1.4130	14.1010
 1.4140	13.9130
 1.4150	13.7400
 1.4160	13.5780
 1.4170	13.4260
 1.4180	13.2850
 1.4190	13.1530
 1.4200	13.0290
 1.4210	12.9150
 1.4220	12.8090
 1.4230	12.7110
 1.4240	12.6210
 1.4250	12.5360
 1.4260	12.4590
 1.4270	12.3860
 1.4280	12.3190
 1.4290	12.2580
 1.4300	12.2000
 1.4310	12.1490
 1.4320	12.1040
 1.4330	12.0620
 1.4340	12.0250
 1.4350	11.9910
 1.4360	11.9610
 1.4370	11.9330
 1.4380	11.9100
 1.4390	11.8890
 1.4400	11.8720
 1.4410	11.8580
 1.4420	11.8450
 1.4430	11.8360
 1.4440	11.8290
 1.4450	11.8230
 1.4460	11.8190
 1.4470	11.8160
 1.4480	11.8150
 1.4490	11.8160
 1.4500	11.8200
 1.4510	11.8240
 1.4520	11.8290
 1.4530	11.8350
 1.4540	11.8430
 1.4550	11.8520
 1.4560	11.8630
 1.4570	11.8750
 1.4580	11.8890
 1.4590	11.9040
 1.4600	11.9230
 1.4610	11.9430
 1.4620	11.9670
 1.4630	11.9940
 1.4640	12.0230
 1.4650	12.0570
 1.4660	12.0920
 1.4670	12.1290
 1.4680	12.1690
 1.4690	12.2120
 1.4700	12.2580
 1.4710	12.3090
