Name: Chorisia insignis
Type: vegetation
Class: Tree
Genus: Chorisia
Species: insignis
Sample No.: JPL243
Owner: JPL
Wavelength Range: VSWIR
Origin: 34.12649; -118.11034; WGS84
Collection Date: 10/6/2016
Description: Samples were collected at the Huntington Garden in San Marino California as part of a JPL Subcontract studying HyTES imagery. Samples were taken to JPL and processed within 48 hours of collection. The same leaves were processed in the Nicolet and then measured using the ASD.
Measurement: Bidirectional reflectance
First Column: X
Second Column: Y
X Units: Wavelength (micrometer)
Y Units: Reflectance (percentage)
First X Value: 0.35
Last X Value: 2.5
Number of X Values: 2151
Additional Information: vegetation.tree.chorisia.insignis.vswir.jpl243.jpl.asd.ancillary.txt

 0.3500	 4.8630
 0.3510	 4.7240
 0.3520	 4.6710
 0.3530	 4.7190
 0.3540	 4.7930
 0.3550	 4.7240
 0.3560	 4.7010
 0.3570	 4.7000
 0.3580	 4.6060
 0.3590	 4.5660
 0.3600	 4.5810
 0.3610	 4.6170
 0.3620	 4.6130
 0.3630	 4.6210
 0.3640	 4.6160
 0.3650	 4.5780
 0.3660	 4.5700
 0.3670	 4.5830
 0.3680	 4.5980
 0.3690	 4.5910
 0.3700	 4.5950
 0.3710	 4.6000
 0.3720	 4.5950
 0.3730	 4.5740
 0.3740	 4.5570
 0.3750	 4.5520
 0.3760	 4.5640
 0.3770	 4.5850
 0.3780	 4.5830
 0.3790	 4.5680
 0.3800	 4.5830
 0.3810	 4.5510
 0.3820	 4.5430
 0.3830	 4.5950
 0.3840	 4.6230
 0.3850	 4.6050
 0.3860	 4.5840
 0.3870	 4.6110
 0.3880	 4.6100
 0.3890	 4.5950
 0.3900	 4.5900
 0.3910	 4.6220
 0.3920	 4.6550
 0.3930	 4.6710
 0.3940	 4.6690
 0.3950	 4.6820
 0.3960	 4.7030
 0.3970	 4.7330
 0.3980	 4.7710
 0.3990	 4.7630
 0.4000	 4.7660
 0.4010	 4.8040
 0.4020	 4.8440
 0.4030	 4.8810
 0.4040	 4.9030
 0.4050	 4.9070
 0.4060	 4.9230
 0.4070	 4.9480
 0.4080	 4.9780
 0.4090	 5.0110
 0.4100	 5.0330
 0.4110	 5.0410
 0.4120	 5.0460
 0.4130	 5.0840
 0.4140	 5.1150
 0.4150	 5.1320
 0.4160	 5.1440
 0.4170	 5.1640
 0.4180	 5.1870
 0.4190	 5.2070
 0.4200	 5.2210
 0.4210	 5.2370
 0.4220	 5.2490
 0.4230	 5.2550
 0.4240	 5.2680
 0.4250	 5.2810
 0.4260	 5.2880
 0.4270	 5.2920
 0.4280	 5.2980
 0.4290	 5.2990
 0.4300	 5.2980
 0.4310	 5.3190
 0.4320	 5.3320
 0.4330	 5.3360
 0.4340	 5.3370
 0.4350	 5.3340
 0.4360	 5.3360
 0.4370	 5.3440
 0.4380	 5.3540
 0.4390	 5.3640
 0.4400	 5.3720
 0.4410	 5.3810
 0.4420	 5.3920
 0.4430	 5.4020
 0.4440	 5.4100
 0.4450	 5.4200
 0.4460	 5.4420
 0.4470	 5.4570
 0.4480	 5.4610
 0.4490	 5.4730
 0.4500	 5.5000
 0.4510	 5.5220
 0.4520	 5.5280
 0.4530	 5.5350
 0.4540	 5.5410
 0.4550	 5.5500
 0.4560	 5.5650
 0.4570	 5.5730
 0.4580	 5.5730
 0.4590	 5.5720
 0.4600	 5.5830
 0.4610	 5.5880
 0.4620	 5.5840
 0.4630	 5.5770
 0.4640	 5.5850
 0.4650	 5.5900
 0.4660	 5.5900
 0.4670	 5.6000
 0.4680	 5.5890
 0.4690	 5.5780
 0.4700	 5.5840
 0.4710	 5.5970
 0.4720	 5.6020
 0.4730	 5.5990
 0.4740	 5.5950
 0.4750	 5.5960
 0.4760	 5.5990
 0.4770	 5.6020
 0.4780	 5.6030
 0.4790	 5.6060
 0.4800	 5.6120
 0.4810	 5.6170
 0.4820	 5.6210
 0.4830	 5.6250
 0.4840	 5.6290
 0.4850	 5.6340
 0.4860	 5.6400
 0.4870	 5.6510
 0.4880	 5.6680
 0.4890	 5.6780
 0.4900	 5.6930
 0.4910	 5.7140
 0.4920	 5.7360
 0.4930	 5.7580
 0.4940	 5.7820
 0.4950	 5.8110
 0.4960	 5.8440
 0.4970	 5.8790
 0.4980	 5.9190
 0.4990	 5.9670
 0.5000	 6.0190
 0.5010	 6.0730
 0.5020	 6.1290
 0.5030	 6.1850
 0.5040	 6.2610
 0.5050	 6.3420
 0.5060	 6.4190
 0.5070	 6.5040
 0.5080	 6.5990
 0.5090	 6.7070
 0.5100	 6.8270
 0.5110	 6.9510
 0.5120	 7.0800
 0.5130	 7.2190
 0.5140	 7.3720
 0.5150	 7.5380
 0.5160	 7.7130
 0.5170	 7.8940
 0.5180	 8.0780
 0.5190	 8.2760
 0.5200	 8.4840
 0.5210	 8.6890
 0.5220	 8.9000
 0.5230	 9.1140
 0.5240	 9.3270
 0.5250	 9.5340
 0.5260	 9.7370
 0.5270	 9.9350
 0.5280	10.1250
 0.5290	10.3080
 0.5300	10.4800
 0.5310	10.6400
 0.5320	10.7920
 0.5330	10.9350
 0.5340	11.0660
 0.5350	11.1850
 0.5360	11.2950
 0.5370	11.3990
 0.5380	11.4970
 0.5390	11.5880
 0.5400	11.6830
 0.5410	11.7800
 0.5420	11.8740
 0.5430	11.9620
 0.5440	12.0310
 0.5450	12.0820
 0.5460	12.1190
 0.5470	12.1460
 0.5480	12.1730
 0.5490	12.2020
 0.5500	12.2310
 0.5510	12.2530
 0.5520	12.2670
 0.5530	12.2700
 0.5540	12.2570
 0.5550	12.2310
 0.5560	12.1920
 0.5570	12.1420
 0.5580	12.0800
 0.5590	12.0070
 0.5600	11.9240
 0.5610	11.8370
 0.5620	11.7400
 0.5630	11.6330
 0.5640	11.5180
 0.5650	11.4040
 0.5660	11.2890
 0.5670	11.1700
 0.5680	11.0450
 0.5690	10.9150
 0.5700	10.7830
 0.5710	10.6510
 0.5720	10.5210
 0.5730	10.3930
 0.5740	10.2710
 0.5750	10.1570
 0.5760	10.0450
 0.5770	 9.9360
 0.5780	 9.8340
 0.5790	 9.7450
 0.5800	 9.6620
 0.5810	 9.5840
 0.5820	 9.5130
 0.5830	 9.4420
 0.5840	 9.3750
 0.5850	 9.3100
 0.5860	 9.2510
 0.5870	 9.1990
 0.5880	 9.1490
 0.5890	 9.0980
 0.5900	 9.0520
 0.5910	 9.0060
 0.5920	 8.9610
 0.5930	 8.9210
 0.5940	 8.8790
 0.5950	 8.8390
 0.5960	 8.8030
 0.5970	 8.7690
 0.5980	 8.7360
 0.5990	 8.7010
 0.6000	 8.6630
 0.6010	 8.6260
 0.6020	 8.5890
 0.6030	 8.5530
 0.6040	 8.5140
 0.6050	 8.4710
 0.6060	 8.4280
 0.6070	 8.3860
 0.6080	 8.3380
 0.6090	 8.2930
 0.6100	 8.2530
 0.6110	 8.2180
 0.6120	 8.1700
 0.6130	 8.1080
 0.6140	 8.0400
 0.6150	 7.9780
 0.6160	 7.9230
 0.6170	 7.8700
 0.6180	 7.8170
 0.6190	 7.7710
 0.6200	 7.7320
 0.6210	 7.6970
 0.6220	 7.6630
 0.6230	 7.6350
 0.6240	 7.6130
 0.6250	 7.5960
 0.6260	 7.5830
 0.6270	 7.5740
 0.6280	 7.5670
 0.6290	 7.5610
 0.6300	 7.5520
 0.6310	 7.5390
 0.6320	 7.5190
 0.6330	 7.4890
 0.6340	 7.4510
 0.6350	 7.4010
 0.6360	 7.3390
 0.6370	 7.2670
 0.6380	 7.1880
 0.6390	 7.1000
 0.6400	 7.0040
 0.6410	 6.9110
 0.6420	 6.8220
 0.6430	 6.7310
 0.6440	 6.6390
 0.6450	 6.5530
 0.6460	 6.4740
 0.6470	 6.4000
 0.6480	 6.3350
 0.6490	 6.2830
 0.6500	 6.2430
 0.6510	 6.2090
 0.6520	 6.1820
 0.6530	 6.1600
 0.6540	 6.1420
 0.6550	 6.1260
 0.6560	 6.1070
 0.6570	 6.0840
 0.6580	 6.0560
 0.6590	 6.0240
 0.6600	 5.9880
 0.6610	 5.9480
 0.6620	 5.9060
 0.6630	 5.8660
 0.6640	 5.8280
 0.6650	 5.7890
 0.6660	 5.7560
 0.6670	 5.7280
 0.6680	 5.7050
 0.6690	 5.6860
 0.6700	 5.6740
 0.6710	 5.6660
 0.6720	 5.6630
 0.6730	 5.6640
 0.6740	 5.6720
 0.6750	 5.6840
 0.6760	 5.6980
 0.6770	 5.7180
 0.6780	 5.7440
 0.6790	 5.7750
 0.6800	 5.8150
 0.6810	 5.8680
 0.6820	 5.9320
 0.6830	 6.0090
 0.6840	 6.1060
 0.6850	 6.2290
 0.6860	 6.3810
 0.6870	 6.5690
 0.6880	 6.7970
 0.6890	 7.0750
 0.6900	 7.4110
 0.6910	 7.8080
 0.6920	 8.2690
 0.6930	 8.7920
 0.6940	 9.3790
 0.6950	10.0210
 0.6960	10.7120
 0.6970	11.4460
 0.6980	12.2130
 0.6990	13.0070
 0.7000	13.8200
 0.7010	14.6430
 0.7020	15.4660
 0.7030	16.2820
 0.7040	17.0910
 0.7050	17.8880
 0.7060	18.6690
 0.7070	19.4350
 0.7080	20.1810
 0.7090	20.9100
 0.7100	21.6260
 0.7110	22.3300
 0.7120	23.0220
 0.7130	23.6990
 0.7140	24.3580
 0.7150	25.0030
 0.7160	25.6370
 0.7170	26.2580
 0.7180	26.8650
 0.7190	27.4560
 0.7200	28.0290
 0.7210	28.5870
 0.7220	29.1270
 0.7230	29.6480
 0.7240	30.1510
 0.7250	30.6300
 0.7260	31.0850
 0.7270	31.5200
 0.7280	31.9370
 0.7290	32.3310
 0.7300	32.7030
 0.7310	33.0540
 0.7320	33.3870
 0.7330	33.7000
 0.7340	33.9910
 0.7350	34.2600
 0.7360	34.5150
 0.7370	34.7530
 0.7380	34.9750
 0.7390	35.1820
 0.7400	35.3730
 0.7410	35.5490
 0.7420	35.7130
 0.7430	35.8630
 0.7440	35.9990
 0.7450	36.1230
 0.7460	36.2350
 0.7470	36.3350
 0.7480	36.4260
 0.7490	36.5090
 0.7500	36.5810
 0.7510	36.6480
 0.7520	36.7090
 0.7530	36.7630
 0.7540	36.8120
 0.7550	36.8540
 0.7560	36.8910
 0.7570	36.9230
 0.7580	36.9530
 0.7590	36.9820
 0.7600	37.0070
 0.7610	37.0280
 0.7620	37.0460
 0.7630	37.0610
 0.7640	37.0750
 0.7650	37.0880
 0.7660	37.0990
 0.7670	37.1070
 0.7680	37.1130
 0.7690	37.1190
 0.7700	37.1250
 0.7710	37.1320
 0.7720	37.1350
 0.7730	37.1380
 0.7740	37.1410
 0.7750	37.1440
 0.7760	37.1450
 0.7770	37.1450
 0.7780	37.1450
 0.7790	37.1470
 0.7800	37.1500
 0.7810	37.1540
 0.7820	37.1570
 0.7830	37.1580
 0.7840	37.1580
 0.7850	37.1580
 0.7860	37.1570
 0.7870	37.1530
 0.7880	37.1510
 0.7890	37.1500
 0.7900	37.1460
 0.7910	37.1430
 0.7920	37.1410
 0.7930	37.1380
 0.7940	37.1370
 0.7950	37.1340
 0.7960	37.1280
 0.7970	37.1190
 0.7980	37.1110
 0.7990	37.1000
 0.8000	37.0900
 0.8010	37.0830
 0.8020	37.0780
 0.8030	37.0700
 0.8040	37.0600
 0.8050	37.0540
 0.8060	37.0440
 0.8070	37.0330
 0.8080	37.0210
 0.8090	37.0100
 0.8100	36.9980
 0.8110	36.9840
 0.8120	36.9700
 0.8130	36.9590
 0.8140	36.9460
 0.8150	36.9320
 0.8160	36.9190
 0.8170	36.9060
 0.8180	36.8930
 0.8190	36.8800
 0.8200	36.8670
 0.8210	36.8540
 0.8220	36.8380
 0.8230	36.8220
 0.8240	36.8110
 0.8250	36.7970
 0.8260	36.7830
 0.8270	36.7700
 0.8280	36.7580
 0.8290	36.7450
 0.8300	36.7290
 0.8310	36.7150
 0.8320	36.7030
 0.8330	36.6900
 0.8340	36.6770
 0.8350	36.6660
 0.8360	36.6550
 0.8370	36.6440
 0.8380	36.6340
 0.8390	36.6270
 0.8400	36.6180
 0.8410	36.6110
 0.8420	36.6050
 0.8430	36.5950
 0.8440	36.5890
 0.8450	36.5840
 0.8460	36.5770
 0.8470	36.5700
 0.8480	36.5650
 0.8490	36.5610
 0.8500	36.5550
 0.8510	36.5530
 0.8520	36.5500
 0.8530	36.5440
 0.8540	36.5380
 0.8550	36.5380
 0.8560	36.5360
 0.8570	36.5310
 0.8580	36.5290
 0.8590	36.5290
 0.8600	36.5290
 0.8610	36.5290
 0.8620	36.5310
 0.8630	36.5330
 0.8640	36.5340
 0.8650	36.5320
 0.8660	36.5320
 0.8670	36.5320
 0.8680	36.5340
 0.8690	36.5360
 0.8700	36.5410
 0.8710	36.5430
 0.8720	36.5440
 0.8730	36.5470
 0.8740	36.5500
 0.8750	36.5520
 0.8760	36.5540
 0.8770	36.5560
 0.8780	36.5600
 0.8790	36.5630
 0.8800	36.5640
 0.8810	36.5680
 0.8820	36.5710
 0.8830	36.5750
 0.8840	36.5810
 0.8850	36.5850
 0.8860	36.5860
 0.8870	36.5860
 0.8880	36.5900
 0.8890	36.5970
 0.8900	36.6010
 0.8910	36.6030
 0.8920	36.6090
 0.8930	36.6150
 0.8940	36.6150
 0.8950	36.6140
 0.8960	36.6200
 0.8970	36.6240
 0.8980	36.6270
 0.8990	36.6300
 0.9000	36.6340
 0.9010	36.6380
 0.9020	36.6430
 0.9030	36.6490
 0.9040	36.6500
 0.9050	36.6540
 0.9060	36.6560
 0.9070	36.6540
 0.9080	36.6560
 0.9090	36.6590
 0.9100	36.6600
 0.9110	36.6580
 0.9120	36.6570
 0.9130	36.6550
 0.9140	36.6530
 0.9150	36.6530
 0.9160	36.6540
 0.9170	36.6540
 0.9180	36.6530
 0.9190	36.6490
 0.9200	36.6370
 0.9210	36.6320
 0.9220	36.6330
 0.9230	36.6290
 0.9240	36.6180
 0.9250	36.6070
 0.9260	36.6010
 0.9270	36.5990
 0.9280	36.5860
 0.9290	36.5700
 0.9300	36.5570
 0.9310	36.5480
 0.9320	36.5360
 0.9330	36.5190
 0.9340	36.4990
 0.9350	36.4830
 0.9360	36.4680
 0.9370	36.4500
 0.9380	36.4320
 0.9390	36.4170
 0.9400	36.3980
 0.9410	36.3790
 0.9420	36.3590
 0.9430	36.3320
 0.9440	36.3060
 0.9450	36.2880
 0.9460	36.2740
 0.9470	36.2290
 0.9480	36.1920
 0.9490	36.1620
 0.9500	36.1290
 0.9510	36.0900
 0.9520	36.0480
 0.9530	36.0080
 0.9540	35.9730
 0.9550	35.9530
 0.9560	35.9180
 0.9570	35.8750
 0.9580	35.8390
 0.9590	35.8050
 0.9600	35.7690
 0.9610	35.7380
 0.9620	35.7150
 0.9630	35.7010
 0.9640	35.6820
 0.9650	35.6590
 0.9660	35.6390
 0.9670	35.6280
 0.9680	35.6180
 0.9690	35.5980
 0.9700	35.5680
 0.9710	35.5770
 0.9720	35.5830
 0.9730	35.5730
 0.9740	35.5550
 0.9750	35.5440
 0.9760	35.5390
 0.9770	35.5360
 0.9780	35.5280
 0.9790	35.5180
 0.9800	35.5210
 0.9810	35.5230
 0.9820	35.5090
 0.9830	35.5080
 0.9840	35.5110
 0.9850	35.5120
 0.9860	35.5120
 0.9870	35.5140
 0.9880	35.5090
 0.9890	35.5040
 0.9900	35.5110
 0.9910	35.5180
 0.9920	35.5240
 0.9930	35.5270
 0.9940	35.5320
 0.9950	35.5410
 0.9960	35.5380
 0.9970	35.5330
 0.9980	35.5450
 0.9990	35.5600
 1.0000	35.5690
 1.0010	35.5980
 1.0020	35.6080
 1.0030	35.6130
 1.0040	35.6190
 1.0050	35.6290
 1.0060	35.6370
 1.0070	35.6420
 1.0080	35.6510
 1.0090	35.6620
 1.0100	35.6700
 1.0110	35.6760
 1.0120	35.6830
 1.0130	35.6880
 1.0140	35.6960
 1.0150	35.7040
 1.0160	35.7160
 1.0170	35.7290
 1.0180	35.7390
 1.0190	35.7460
 1.0200	35.7520
 1.0210	35.7580
 1.0220	35.7630
 1.0230	35.7700
 1.0240	35.7820
 1.0250	35.7900
 1.0260	35.7970
 1.0270	35.8060
 1.0280	35.8160
 1.0290	35.8230
 1.0300	35.8270
 1.0310	35.8340
 1.0320	35.8390
 1.0330	35.8450
 1.0340	35.8550
 1.0350	35.8620
 1.0360	35.8690
 1.0370	35.8770
 1.0380	35.8830
 1.0390	35.8880
 1.0400	35.8920
 1.0410	35.8940
 1.0420	35.8970
 1.0430	35.9000
 1.0440	35.9040
 1.0450	35.9090
 1.0460	35.9140
 1.0470	35.9200
 1.0480	35.9240
 1.0490	35.9250
 1.0500	35.9270
 1.0510	35.9280
 1.0520	35.9310
 1.0530	35.9350
 1.0540	35.9410
 1.0550	35.9450
 1.0560	35.9490
 1.0570	35.9500
 1.0580	35.9490
 1.0590	35.9500
 1.0600	35.9490
 1.0610	35.9510
 1.0620	35.9550
 1.0630	35.9570
 1.0640	35.9580
 1.0650	35.9600
 1.0660	35.9640
 1.0670	35.9660
 1.0680	35.9670
 1.0690	35.9700
 1.0700	35.9700
 1.0710	35.9670
 1.0720	35.9670
 1.0730	35.9670
 1.0740	35.9670
 1.0750	35.9680
 1.0760	35.9680
 1.0770	35.9670
 1.0780	35.9670
 1.0790	35.9680
 1.0800	35.9690
 1.0810	35.9700
 1.0820	35.9690
 1.0830	35.9680
 1.0840	35.9660
 1.0850	35.9620
 1.0860	35.9570
 1.0870	35.9530
 1.0880	35.9480
 1.0890	35.9450
 1.0900	35.9440
 1.0910	35.9420
 1.0920	35.9430
 1.0930	35.9400
 1.0940	35.9340
 1.0950	35.9300
 1.0960	35.9260
 1.0970	35.9210
 1.0980	35.9160
 1.0990	35.9100
 1.1000	35.9030
 1.1010	35.8970
 1.1020	35.8920
 1.1030	35.8880
 1.1040	35.8820
 1.1050	35.8780
 1.1060	35.8720
 1.1070	35.8660
 1.1080	35.8590
 1.1090	35.8520
 1.1100	35.8440
 1.1110	35.8360
 1.1120	35.8270
 1.1130	35.8180
 1.1140	35.8080
 1.1150	35.7980
 1.1160	35.7870
 1.1170	35.7770
 1.1180	35.7650
 1.1190	35.7550
 1.1200	35.7410
 1.1210	35.7280
 1.1220	35.7120
 1.1230	35.6940
 1.1240	35.6730
 1.1250	35.6480
 1.1260	35.6210
 1.1270	35.5910
 1.1280	35.5600
 1.1290	35.5240
 1.1300	35.4860
 1.1310	35.4430
 1.1320	35.3930
 1.1330	35.3410
 1.1340	35.2840
 1.1350	35.2230
 1.1360	35.1600
 1.1370	35.0920
 1.1380	35.0200
 1.1390	34.9460
 1.1400	34.8690
 1.1410	34.7900
 1.1420	34.7120
 1.1430	34.6330
 1.1440	34.5540
 1.1450	34.4760
 1.1460	34.3990
 1.1470	34.3210
 1.1480	34.2480
 1.1490	34.1750
 1.1500	34.1070
 1.1510	34.0390
 1.1520	33.9770
 1.1530	33.9170
 1.1540	33.8640
 1.1550	33.8160
 1.1560	33.7750
 1.1570	33.7360
 1.1580	33.7020
 1.1590	33.6690
 1.1600	33.6370
 1.1610	33.6090
 1.1620	33.5850
 1.1630	33.5640
 1.1640	33.5450
 1.1650	33.5270
 1.1660	33.5110
 1.1670	33.4950
 1.1680	33.4810
 1.1690	33.4670
 1.1700	33.4560
 1.1710	33.4440
 1.1720	33.4320
 1.1730	33.4210
 1.1740	33.4120
 1.1750	33.4030
 1.1760	33.3940
 1.1770	33.3840
 1.1780	33.3740
 1.1790	33.3630
 1.1800	33.3510
 1.1810	33.3400
 1.1820	33.3290
 1.1830	33.3160
 1.1840	33.3050
 1.1850	33.2920
 1.1860	33.2810
 1.1870	33.2700
 1.1880	33.2600
 1.1890	33.2500
 1.1900	33.2410
 1.1910	33.2320
 1.1920	33.2240
 1.1930	33.2180
 1.1940	33.2120
 1.1950	33.2060
 1.1960	33.2010
 1.1970	33.1980
 1.1980	33.1940
 1.1990	33.1940
 1.2000	33.1940
 1.2010	33.1930
 1.2020	33.1930
 1.2030	33.1940
 1.2040	33.1950
 1.2050	33.1970
 1.2060	33.2010
 1.2070	33.2060
 1.2080	33.2100
 1.2090	33.2160
 1.2100	33.2230
 1.2110	33.2310
 1.2120	33.2380
 1.2130	33.2470
 1.2140	33.2580
 1.2150	33.2680
 1.2160	33.2780
 1.2170	33.2890
 1.2180	33.3000
 1.2190	33.3100
 1.2200	33.3220
 1.2210	33.3350
 1.2220	33.3470
 1.2230	33.3590
 1.2240	33.3720
 1.2250	33.3840
 1.2260	33.3970
 1.2270	33.4080
 1.2280	33.4210
 1.2290	33.4330
 1.2300	33.4410
 1.2310	33.4510
 1.2320	33.4600
 1.2330	33.4670
 1.2340	33.4760
 1.2350	33.4880
 1.2360	33.4970
 1.2370	33.5070
 1.2380	33.5160
 1.2390	33.5230
 1.2400	33.5300
 1.2410	33.5360
 1.2420	33.5430
 1.2430	33.5510
 1.2440	33.5570
 1.2450	33.5650
 1.2460	33.5710
 1.2470	33.5780
 1.2480	33.5840
 1.2490	33.5890
 1.2500	33.5930
 1.2510	33.5950
 1.2520	33.5980
 1.2530	33.6020
 1.2540	33.6050
 1.2550	33.6100
 1.2560	33.6140
 1.2570	33.6160
 1.2580	33.6180
 1.2590	33.6180
 1.2600	33.6170
 1.2610	33.6150
 1.2620	33.6130
 1.2630	33.6120
 1.2640	33.6090
 1.2650	33.6100
 1.2660	33.6090
 1.2670	33.6060
 1.2680	33.6020
 1.2690	33.5960
 1.2700	33.5900
 1.2710	33.5840
 1.2720	33.5770
 1.2730	33.5690
 1.2740	33.5600
 1.2750	33.5500
 1.2760	33.5400
 1.2770	33.5290
 1.2780	33.5170
 1.2790	33.5050
 1.2800	33.4890
 1.2810	33.4750
 1.2820	33.4600
 1.2830	33.4430
 1.2840	33.4250
 1.2850	33.4070
 1.2860	33.3890
 1.2870	33.3690
 1.2880	33.3490
 1.2890	33.3280
 1.2900	33.3060
 1.2910	33.2830
 1.2920	33.2580
 1.2930	33.2340
 1.2940	33.2090
 1.2950	33.1830
 1.2960	33.1580
 1.2970	33.1310
 1.2980	33.1010
 1.2990	33.0700
 1.3000	33.0370
 1.3010	33.0010
 1.3020	32.9660
 1.3030	32.9300
 1.3040	32.8940
 1.3050	32.8560
 1.3060	32.8170
 1.3070	32.7780
 1.3080	32.7350
 1.3090	32.6920
 1.3100	32.6490
 1.3110	32.6010
 1.3120	32.5510
 1.3130	32.5000
 1.3140	32.4470
 1.3150	32.3900
 1.3160	32.3340
 1.3170	32.2760
 1.3180	32.2170
 1.3190	32.1560
 1.3200	32.0930
 1.3210	32.0300
 1.3220	31.9640
 1.3230	31.8970
 1.3240	31.8290
 1.3250	31.7590
 1.3260	31.6860
 1.3270	31.6110
 1.3280	31.5350
 1.3290	31.4570
 1.3300	31.3790
 1.3310	31.3000
 1.3320	31.2200
 1.3330	31.1380
 1.3340	31.0530
 1.3350	30.9690
 1.3360	30.8840
 1.3370	30.8000
 1.3380	30.7170
 1.3390	30.6360
 1.3400	30.5530
 1.3410	30.4700
 1.3420	30.3870
 1.3430	30.3040
 1.3440	30.2210
 1.3450	30.1400
 1.3460	30.0600
 1.3470	29.9800
 1.3480	29.9010
 1.3490	29.8230
 1.3500	29.7460
 1.3510	29.6680
 1.3520	29.5900
 1.3530	29.5110
 1.3540	29.4320
 1.3550	29.3540
 1.3560	29.2770
 1.3570	29.1990
 1.3580	29.1190
 1.3590	29.0360
 1.3600	28.9510
 1.3610	28.8630
 1.3620	28.7720
 1.3630	28.6770
 1.3640	28.5780
 1.3650	28.4720
 1.3660	28.3630
 1.3670	28.2480
 1.3680	28.1230
 1.3690	27.9920
 1.3700	27.8490
 1.3710	27.6950
 1.3720	27.5330
 1.3730	27.3550
 1.3740	27.1670
 1.3750	26.9650
 1.3760	26.7470
 1.3770	26.5130
 1.3780	26.2600
 1.3790	25.9910
 1.3800	25.7040
 1.3810	25.3970
 1.3820	25.0750
 1.3830	24.7360
 1.3840	24.3820
 1.3850	24.0100
 1.3860	23.6260
 1.3870	23.2240
 1.3880	22.8160
 1.3890	22.3960
 1.3900	21.9670
 1.3910	21.5360
 1.3920	21.0990
 1.3930	20.6600
 1.3940	20.2220
 1.3950	19.7820
 1.3960	19.3480
 1.3970	18.9220
 1.3980	18.5030
 1.3990	18.0990
 1.4000	17.7060
 1.4010	17.3230
 1.4020	16.9570
 1.4030	16.6040
 1.4040	16.2660
 1.4050	15.9440
 1.4060	15.6370
 1.4070	15.3500
 1.4080	15.0780
 1.4090	14.8210
 1.4100	14.5810
 1.4110	14.3550
 1.4120	14.1420
 1.4130	13.9440
 1.4140	13.7580
 1.4150	13.5870
 1.4160	13.4280
 1.4170	13.2800
 1.4180	13.1420
 1.4190	13.0140
 1.4200	12.8940
 1.4210	12.7830
 1.4220	12.6790
 1.4230	12.5840
 1.4240	12.4960
 1.4250	12.4130
 1.4260	12.3380
 1.4270	12.2680
 1.4280	12.2050
 1.4290	12.1450
 1.4300	12.0900
 1.4310	12.0400
 1.4320	11.9940
 1.4330	11.9520
 1.4340	11.9150
 1.4350	11.8810
 1.4360	11.8520
 1.4370	11.8250
 1.4380	11.8020
 1.4390	11.7830
 1.4400	11.7650
 1.4410	11.7510
 1.4420	11.7390
 1.4430	11.7290
 1.4440	11.7230
 1.4450	11.7180
 1.4460	11.7150
 1.4470	11.7140
 1.4480	11.7140
 1.4490	11.7160
 1.4500	11.7200
 1.4510	11.7260
 1.4520	11.7340
 1.4530	11.7430
 1.4540	11.7540
 1.4550	11.7670
 1.4560	11.7830
 1.4570	11.8000
 1.4580	11.8200
 1.4590	11.8440
 1.4600	11.8690
 1.4610	11.8980
 1.4620	11.9310
 1.4630	11.9680
 1.4640	12.0090
 1.4650	12.0550
 1.4660	12.1040
 1.4670	12.1560
 1.4680	12.2110
 1.4690	12.2710
 1.4700	12.3340
 1.4710	12.4010
 1.4720	12.4700
 1.4730	12.5430
 1.4740	12.6180
 1.4750	12.6960
 1.4760	12.7780
 1.4770	12.8610
