Name: Heteromeles arbutifolia 1
Type: vegetation
Class: Shrub
Genus: Heteromeles
Species: arbutifolia
Sample No.: VH133
Owner: UCSB
Wavelength Range: VSWIR
Origin: 34.4907; -119.791; WGS84
Collection Date: 6/3/2013
Description: Samples were collected as part of the HyspIRI Airborne Campaign. 48 individual plants were sampled in three times in 2013 - spring  summer  and fall. The name of the sample includes a 1  2  or 3 which references a different individual of the species. Samples were taken to JPL and processed within 48 hours of collection. The same leaves were processed in the Nicolet and then measured using the ASD.
Measurement: Bidirectional reflectance
First Column: X
Second Column: Y
X Units: Wavelength (micrometers)
Y Units: Reflectance (percentage)
First X Value: 0.35
Last X Value: 2.5
Number of X Values: 2151
Additional Information: vegetation.shrub.heteromeles.arbutifolia.vswir.vh133.ucsb.asd.ancillary.txt

 0.3500	 5.3700
 0.3510	 5.2880
 0.3520	 5.2880
 0.3530	 5.2240
 0.3540	 5.0720
 0.3550	 5.2350
 0.3560	 5.2520
 0.3570	 5.1460
 0.3580	 5.1630
 0.3590	 5.1760
 0.3600	 5.0870
 0.3610	 4.9450
 0.3620	 4.9830
 0.3630	 4.9770
 0.3640	 4.9290
 0.3650	 4.8960
 0.3660	 4.9110
 0.3670	 4.9800
 0.3680	 5.0440
 0.3690	 5.0120
 0.3700	 5.0040
 0.3710	 4.9810
 0.3720	 4.9200
 0.3730	 4.8660
 0.3740	 4.9160
 0.3750	 4.9710
 0.3760	 4.9290
 0.3770	 5.0140
 0.3780	 5.0190
 0.3790	 4.9330
 0.3800	 4.9180
 0.3810	 4.9190
 0.3820	 4.9260
 0.3830	 4.9290
 0.3840	 4.8950
 0.3850	 4.8910
 0.3860	 4.9170
 0.3870	 4.9350
 0.3880	 4.8480
 0.3890	 4.8190
 0.3900	 4.8720
 0.3910	 4.8770
 0.3920	 4.9150
 0.3930	 4.9340
 0.3940	 4.9010
 0.3950	 4.8920
 0.3960	 4.9110
 0.3970	 4.9410
 0.3980	 4.9520
 0.3990	 4.9160
 0.4000	 4.9370
 0.4010	 5.0050
 0.4020	 4.9490
 0.4030	 4.9600
 0.4040	 5.0080
 0.4050	 5.0250
 0.4060	 4.9850
 0.4070	 4.9820
 0.4080	 5.0150
 0.4090	 5.0230
 0.4100	 5.0550
 0.4110	 5.0570
 0.4120	 5.0250
 0.4130	 5.0640
 0.4140	 5.0660
 0.4150	 5.0530
 0.4160	 5.0720
 0.4170	 5.0720
 0.4180	 5.0910
 0.4190	 5.1230
 0.4200	 5.1240
 0.4210	 5.1160
 0.4220	 5.1150
 0.4230	 5.1250
 0.4240	 5.1320
 0.4250	 5.1430
 0.4260	 5.1530
 0.4270	 5.1490
 0.4280	 5.1290
 0.4290	 5.1190
 0.4300	 5.1290
 0.4310	 5.1600
 0.4320	 5.1630
 0.4330	 5.1570
 0.4340	 5.1680
 0.4350	 5.1680
 0.4360	 5.1710
 0.4370	 5.1780
 0.4380	 5.1810
 0.4390	 5.1620
 0.4400	 5.1420
 0.4410	 5.1380
 0.4420	 5.1390
 0.4430	 5.1390
 0.4440	 5.1420
 0.4450	 5.1500
 0.4460	 5.1470
 0.4470	 5.1460
 0.4480	 5.1510
 0.4490	 5.1510
 0.4500	 5.1640
 0.4510	 5.1720
 0.4520	 5.1650
 0.4530	 5.1700
 0.4540	 5.1810
 0.4550	 5.1860
 0.4560	 5.1800
 0.4570	 5.1810
 0.4580	 5.1790
 0.4590	 5.1710
 0.4600	 5.1780
 0.4610	 5.1780
 0.4620	 5.1720
 0.4630	 5.1660
 0.4640	 5.1710
 0.4650	 5.1750
 0.4660	 5.1710
 0.4670	 5.1640
 0.4680	 5.1600
 0.4690	 5.1580
 0.4700	 5.1560
 0.4710	 5.1580
 0.4720	 5.1550
 0.4730	 5.1490
 0.4740	 5.1500
 0.4750	 5.1440
 0.4760	 5.1400
 0.4770	 5.1400
 0.4780	 5.1370
 0.4790	 5.1440
 0.4800	 5.1470
 0.4810	 5.1310
 0.4820	 5.1330
 0.4830	 5.1450
 0.4840	 5.1590
 0.4850	 5.1650
 0.4860	 5.1630
 0.4870	 5.1640
 0.4880	 5.1720
 0.4890	 5.1790
 0.4900	 5.1900
 0.4910	 5.2000
 0.4920	 5.2030
 0.4930	 5.2100
 0.4940	 5.2220
 0.4950	 5.2370
 0.4960	 5.2510
 0.4970	 5.2740
 0.4980	 5.2980
 0.4990	 5.3160
 0.5000	 5.3310
 0.5010	 5.3580
 0.5020	 5.3960
 0.5030	 5.4360
 0.5040	 5.4780
 0.5050	 5.5230
 0.5060	 5.5720
 0.5070	 5.6330
 0.5080	 5.7000
 0.5090	 5.7740
 0.5100	 5.8550
 0.5110	 5.9440
 0.5120	 6.0450
 0.5130	 6.1580
 0.5140	 6.2750
 0.5150	 6.4020
 0.5160	 6.5430
 0.5170	 6.6970
 0.5180	 6.8620
 0.5190	 7.0320
 0.5200	 7.2070
 0.5210	 7.3910
 0.5220	 7.5850
 0.5230	 7.7770
 0.5240	 7.9600
 0.5250	 8.1480
 0.5260	 8.3260
 0.5270	 8.4950
 0.5280	 8.6610
 0.5290	 8.8110
 0.5300	 8.9490
 0.5310	 9.0800
 0.5320	 9.2010
 0.5330	 9.3060
 0.5340	 9.3980
 0.5350	 9.4830
 0.5360	 9.5610
 0.5370	 9.6290
 0.5380	 9.6860
 0.5390	 9.7400
 0.5400	 9.7900
 0.5410	 9.8420
 0.5420	 9.8980
 0.5430	 9.9460
 0.5440	 9.9900
 0.5450	10.0270
 0.5460	10.0530
 0.5470	10.0640
 0.5480	10.0690
 0.5490	10.0770
 0.5500	10.0910
 0.5510	10.0990
 0.5520	10.0990
 0.5530	10.0890
 0.5540	10.0660
 0.5550	10.0310
 0.5560	 9.9840
 0.5570	 9.9280
 0.5580	 9.8590
 0.5590	 9.7780
 0.5600	 9.6870
 0.5610	 9.5870
 0.5620	 9.4790
 0.5630	 9.3630
 0.5640	 9.2430
 0.5650	 9.1220
 0.5660	 8.9970
 0.5670	 8.8690
 0.5680	 8.7410
 0.5690	 8.6110
 0.5700	 8.4810
 0.5710	 8.3490
 0.5720	 8.2190
 0.5730	 8.0950
 0.5740	 7.9800
 0.5750	 7.8750
 0.5760	 7.7760
 0.5770	 7.6830
 0.5780	 7.5960
 0.5790	 7.5210
 0.5800	 7.4510
 0.5810	 7.3810
 0.5820	 7.3100
 0.5830	 7.2470
 0.5840	 7.1900
 0.5850	 7.1370
 0.5860	 7.0900
 0.5870	 7.0480
 0.5880	 7.0120
 0.5890	 6.9800
 0.5900	 6.9450
 0.5910	 6.9050
 0.5920	 6.8640
 0.5930	 6.8310
 0.5940	 6.8040
 0.5950	 6.7800
 0.5960	 6.7570
 0.5970	 6.7350
 0.5980	 6.7170
 0.5990	 6.6990
 0.6000	 6.6760
 0.6010	 6.6530
 0.6020	 6.6260
 0.6030	 6.5970
 0.6040	 6.5680
 0.6050	 6.5320
 0.6060	 6.4920
 0.6070	 6.4510
 0.6080	 6.4110
 0.6090	 6.3770
 0.6100	 6.3500
 0.6110	 6.3280
 0.6120	 6.2810
 0.6130	 6.2210
 0.6140	 6.1640
 0.6150	 6.1160
 0.6160	 6.0720
 0.6170	 6.0320
 0.6180	 5.9950
 0.6190	 5.9620
 0.6200	 5.9340
 0.6210	 5.9100
 0.6220	 5.8900
 0.6230	 5.8700
 0.6240	 5.8510
 0.6250	 5.8370
 0.6260	 5.8260
 0.6270	 5.8150
 0.6280	 5.8050
 0.6290	 5.8010
 0.6300	 5.7950
 0.6310	 5.7880
 0.6320	 5.7790
 0.6330	 5.7650
 0.6340	 5.7460
 0.6350	 5.7240
 0.6360	 5.6980
 0.6370	 5.6700
 0.6380	 5.6360
 0.6390	 5.5980
 0.6400	 5.5610
 0.6410	 5.5170
 0.6420	 5.4740
 0.6430	 5.4380
 0.6440	 5.4010
 0.6450	 5.3650
 0.6460	 5.3290
 0.6470	 5.2910
 0.6480	 5.2600
 0.6490	 5.2350
 0.6500	 5.2140
 0.6510	 5.1960
 0.6520	 5.1820
 0.6530	 5.1690
 0.6540	 5.1560
 0.6550	 5.1420
 0.6560	 5.1280
 0.6570	 5.1120
 0.6580	 5.0920
 0.6590	 5.0740
 0.6600	 5.0560
 0.6610	 5.0400
 0.6620	 5.0250
 0.6630	 5.0120
 0.6640	 4.9970
 0.6650	 4.9820
 0.6660	 4.9780
 0.6670	 4.9760
 0.6680	 4.9740
 0.6690	 4.9750
 0.6700	 4.9830
 0.6710	 4.9930
 0.6720	 5.0030
 0.6730	 5.0170
 0.6740	 5.0350
 0.6750	 5.0560
 0.6760	 5.0790
 0.6770	 5.1070
 0.6780	 5.1360
 0.6790	 5.1690
 0.6800	 5.2080
 0.6810	 5.2460
 0.6820	 5.2870
 0.6830	 5.3310
 0.6840	 5.3780
 0.6850	 5.4290
 0.6860	 5.4860
 0.6870	 5.5530
 0.6880	 5.6270
 0.6890	 5.7220
 0.6900	 5.8450
 0.6910	 5.9950
 0.6920	 6.1860
 0.6930	 6.4250
 0.6940	 6.7190
 0.6950	 7.0680
 0.6960	 7.4880
 0.6970	 7.9760
 0.6980	 8.5260
 0.6990	 9.1460
 0.7000	 9.8290
 0.7010	10.5690
 0.7020	11.3600
 0.7030	12.1960
 0.7040	13.0710
 0.7050	13.9760
 0.7060	14.9020
 0.7070	15.8530
 0.7080	16.8210
 0.7090	17.8020
 0.7100	18.7970
 0.7110	19.8040
 0.7120	20.8180
 0.7130	21.8380
 0.7140	22.8600
 0.7150	23.8890
 0.7160	24.9220
 0.7170	25.9480
 0.7180	26.9650
 0.7190	27.9720
 0.7200	28.9720
 0.7210	29.9570
 0.7220	30.9220
 0.7230	31.8630
 0.7240	32.7780
 0.7250	33.6720
 0.7260	34.5330
 0.7270	35.3540
 0.7280	36.1490
 0.7290	36.9100
 0.7300	37.6360
 0.7310	38.3300
 0.7320	38.9860
 0.7330	39.6040
 0.7340	40.1870
 0.7350	40.7400
 0.7360	41.2610
 0.7370	41.7470
 0.7380	42.1950
 0.7390	42.6170
 0.7400	43.0090
 0.7410	43.3740
 0.7420	43.7190
 0.7430	44.0290
 0.7440	44.3140
 0.7450	44.5800
 0.7460	44.8230
 0.7470	45.0390
 0.7480	45.2320
 0.7490	45.4050
 0.7500	45.5720
 0.7510	45.7210
 0.7520	45.8530
 0.7530	45.9710
 0.7540	46.0720
 0.7550	46.1640
 0.7560	46.2490
 0.7570	46.3260
 0.7580	46.3910
 0.7590	46.4480
 0.7600	46.5010
 0.7610	46.5470
 0.7620	46.5880
 0.7630	46.6250
 0.7640	46.6570
 0.7650	46.6840
 0.7660	46.7050
 0.7670	46.7210
 0.7680	46.7380
 0.7690	46.7510
 0.7700	46.7620
 0.7710	46.7720
 0.7720	46.7830
 0.7730	46.7890
 0.7740	46.7980
 0.7750	46.8140
 0.7760	46.8140
 0.7770	46.8180
 0.7780	46.8240
 0.7790	46.8220
 0.7800	46.8290
 0.7810	46.8380
 0.7820	46.8450
 0.7830	46.8460
 0.7840	46.8540
 0.7850	46.8620
 0.7860	46.8650
 0.7870	46.8700
 0.7880	46.8700
 0.7890	46.8710
 0.7900	46.8780
 0.7910	46.8840
 0.7920	46.8880
 0.7930	46.8890
 0.7940	46.8880
 0.7950	46.8900
 0.7960	46.8910
 0.7970	46.8900
 0.7980	46.8980
 0.7990	46.9000
 0.8000	46.8980
 0.8010	46.8970
 0.8020	46.8970
 0.8030	46.8930
 0.8040	46.8880
 0.8050	46.8860
 0.8060	46.8840
 0.8070	46.8820
 0.8080	46.8790
 0.8090	46.8690
 0.8100	46.8640
 0.8110	46.8620
 0.8120	46.8590
 0.8130	46.8510
 0.8140	46.8510
 0.8150	46.8530
 0.8160	46.8480
 0.8170	46.8340
 0.8180	46.8250
 0.8190	46.8210
 0.8200	46.8140
 0.8210	46.8040
 0.8220	46.7950
 0.8230	46.7890
 0.8240	46.7800
 0.8250	46.7710
 0.8260	46.7650
 0.8270	46.7600
 0.8280	46.7460
 0.8290	46.7340
 0.8300	46.7240
 0.8310	46.7160
 0.8320	46.7110
 0.8330	46.7010
 0.8340	46.6900
 0.8350	46.6900
 0.8360	46.6830
 0.8370	46.6790
 0.8380	46.6770
 0.8390	46.6670
 0.8400	46.6590
 0.8410	46.6560
 0.8420	46.6540
 0.8430	46.6420
 0.8440	46.6430
 0.8450	46.6480
 0.8460	46.6470
 0.8470	46.6300
 0.8480	46.6230
 0.8490	46.6250
 0.8500	46.6250
 0.8510	46.6210
 0.8520	46.6230
 0.8530	46.6260
 0.8540	46.6180
 0.8550	46.6170
 0.8560	46.6200
 0.8570	46.6200
 0.8580	46.6100
 0.8590	46.6100
 0.8600	46.6110
 0.8610	46.6060
 0.8620	46.6050
 0.8630	46.6060
 0.8640	46.6070
 0.8650	46.6050
 0.8660	46.5950
 0.8670	46.5920
 0.8680	46.5970
 0.8690	46.6050
 0.8700	46.6080
 0.8710	46.6090
 0.8720	46.6100
 0.8730	46.6090
 0.8740	46.6080
 0.8750	46.6090
 0.8760	46.6110
 0.8770	46.6110
 0.8780	46.6040
 0.8790	46.6030
 0.8800	46.6090
 0.8810	46.6060
 0.8820	46.6070
 0.8830	46.6140
 0.8840	46.6210
 0.8850	46.6210
 0.8860	46.6170
 0.8870	46.6150
 0.8880	46.6200
 0.8890	46.6270
 0.8900	46.6250
 0.8910	46.6190
 0.8920	46.6170
 0.8930	46.6160
 0.8940	46.6180
 0.8950	46.6220
 0.8960	46.6230
 0.8970	46.6210
 0.8980	46.6240
 0.8990	46.6290
 0.9000	46.6250
 0.9010	46.6200
 0.9020	46.6170
 0.9030	46.6200
 0.9040	46.6290
 0.9050	46.6270
 0.9060	46.6190
 0.9070	46.6130
 0.9080	46.6190
 0.9090	46.6190
 0.9100	46.6220
 0.9110	46.6320
 0.9120	46.6280
 0.9130	46.6260
 0.9140	46.6230
 0.9150	46.6100
 0.9160	46.5970
 0.9170	46.6060
 0.9180	46.6190
 0.9190	46.6120
 0.9200	46.6110
 0.9210	46.6000
 0.9220	46.5870
 0.9230	46.5860
 0.9240	46.5700
 0.9250	46.5620
 0.9260	46.5630
 0.9270	46.5540
 0.9280	46.5390
 0.9290	46.5250
 0.9300	46.5130
 0.9310	46.4980
 0.9320	46.4810
 0.9330	46.4660
 0.9340	46.4550
 0.9350	46.4470
 0.9360	46.4210
 0.9370	46.3970
 0.9380	46.3800
 0.9390	46.3550
 0.9400	46.3340
 0.9410	46.3130
 0.9420	46.2910
 0.9430	46.2730
 0.9440	46.2430
 0.9450	46.2120
 0.9460	46.1820
 0.9470	46.1390
 0.9480	46.0960
 0.9490	46.0540
 0.9500	46.0110
 0.9510	45.9720
 0.9520	45.9180
 0.9530	45.8660
 0.9540	45.8280
 0.9550	45.7610
 0.9560	45.7090
 0.9570	45.6720
 0.9580	45.6340
 0.9590	45.5850
 0.9600	45.5400
 0.9610	45.5030
 0.9620	45.4710
 0.9630	45.4390
 0.9640	45.4130
 0.9650	45.3880
 0.9660	45.3610
 0.9670	45.3440
 0.9680	45.3270
 0.9690	45.3130
 0.9700	45.3070
 0.9710	45.2940
 0.9720	45.2760
 0.9730	45.2620
 0.9740	45.2590
 0.9750	45.2470
 0.9760	45.2450
 0.9770	45.2470
 0.9780	45.2400
 0.9790	45.2290
 0.9800	45.2350
 0.9810	45.2490
 0.9820	45.2480
 0.9830	45.2280
 0.9840	45.2390
 0.9850	45.2640
 0.9860	45.2600
 0.9870	45.2660
 0.9880	45.2790
 0.9890	45.2900
 0.9900	45.2920
 0.9910	45.3060
 0.9920	45.3380
 0.9930	45.3700
 0.9940	45.4020
 0.9950	45.4340
 0.9960	45.4660
 0.9970	45.4980
 0.9980	45.5300
 0.9990	45.5610
 1.0000	45.5930
 1.0010	45.6250
 1.0020	45.6570
 1.0030	45.6890
 1.0040	45.7210
 1.0050	45.7530
 1.0060	45.7840
 1.0070	45.8160
 1.0080	45.8480
 1.0090	45.8800
 1.0100	45.8800
 1.0110	45.8950
 1.0120	45.9100
 1.0130	45.9250
 1.0140	45.9420
 1.0150	45.9610
 1.0160	45.9790
 1.0170	45.9930
 1.0180	46.0110
 1.0190	46.0270
 1.0200	46.0390
 1.0210	46.0530
 1.0220	46.0640
 1.0230	46.0750
 1.0240	46.0810
 1.0250	46.0920
 1.0260	46.1070
 1.0270	46.1210
 1.0280	46.1380
 1.0290	46.1520
 1.0300	46.1660
 1.0310	46.1800
 1.0320	46.1930
 1.0330	46.2060
 1.0340	46.2200
 1.0350	46.2320
 1.0360	46.2400
 1.0370	46.2520
 1.0380	46.2610
 1.0390	46.2690
 1.0400	46.2760
 1.0410	46.2820
 1.0420	46.2890
 1.0430	46.2980
 1.0440	46.3060
 1.0450	46.3120
 1.0460	46.3200
 1.0470	46.3300
 1.0480	46.3370
 1.0490	46.3450
 1.0500	46.3520
 1.0510	46.3560
 1.0520	46.3580
 1.0530	46.3640
 1.0540	46.3750
 1.0550	46.3800
 1.0560	46.3860
 1.0570	46.3900
 1.0580	46.3880
 1.0590	46.3910
 1.0600	46.3960
 1.0610	46.4010
 1.0620	46.4070
 1.0630	46.4110
 1.0640	46.4160
 1.0650	46.4180
 1.0660	46.4130
 1.0670	46.4130
 1.0680	46.4130
 1.0690	46.4130
 1.0700	46.4130
 1.0710	46.4160
 1.0720	46.4160
 1.0730	46.4120
 1.0740	46.4120
 1.0750	46.4150
 1.0760	46.4150
 1.0770	46.4150
 1.0780	46.4150
 1.0790	46.4150
 1.0800	46.4130
 1.0810	46.4080
 1.0820	46.4050
 1.0830	46.4010
 1.0840	46.3960
 1.0850	46.3930
 1.0860	46.3900
 1.0870	46.3850
 1.0880	46.3780
 1.0890	46.3700
 1.0900	46.3620
 1.0910	46.3550
 1.0920	46.3470
 1.0930	46.3380
 1.0940	46.3310
 1.0950	46.3230
 1.0960	46.3150
 1.0970	46.3060
 1.0980	46.2980
 1.0990	46.2880
 1.1000	46.2760
 1.1010	46.2670
 1.1020	46.2610
 1.1030	46.2520
 1.1040	46.2410
 1.1050	46.2310
 1.1060	46.2200
 1.1070	46.2080
 1.1080	46.1960
 1.1090	46.1850
 1.1100	46.1710
 1.1110	46.1530
 1.1120	46.1370
 1.1130	46.1210
 1.1140	46.1040
 1.1150	46.0910
 1.1160	46.0730
 1.1170	46.0520
 1.1180	46.0310
 1.1190	46.0070
 1.1200	45.9810
 1.1210	45.9550
 1.1220	45.9280
 1.1230	45.8960
 1.1240	45.8600
 1.1250	45.8200
 1.1260	45.7770
 1.1270	45.7280
 1.1280	45.6750
 1.1290	45.6180
 1.1300	45.5560
 1.1310	45.4880
 1.1320	45.4150
 1.1330	45.3360
 1.1340	45.2500
 1.1350	45.1610
 1.1360	45.0670
 1.1370	44.9680
 1.1380	44.8660
 1.1390	44.7580
 1.1400	44.6450
 1.1410	44.5340
 1.1420	44.4210
 1.1430	44.3050
 1.1440	44.1910
 1.1450	44.0750
 1.1460	43.9630
 1.1470	43.8510
 1.1480	43.7450
 1.1490	43.6410
 1.1500	43.5450
 1.1510	43.4520
 1.1520	43.3660
 1.1530	43.2850
 1.1540	43.2100
 1.1550	43.1400
 1.1560	43.0770
 1.1570	43.0200
 1.1580	42.9680
 1.1590	42.9220
 1.1600	42.8810
 1.1610	42.8450
 1.1620	42.8130
 1.1630	42.7850
 1.1640	42.7590
 1.1650	42.7360
 1.1660	42.7160
 1.1670	42.6960
 1.1680	42.6780
 1.1690	42.6610
 1.1700	42.6460
 1.1710	42.6310
 1.1720	42.6200
 1.1730	42.6080
 1.1740	42.5940
 1.1750	42.5810
 1.1760	42.5670
 1.1770	42.5540
 1.1780	42.5380
 1.1790	42.5210
 1.1800	42.5060
 1.1810	42.4880
 1.1820	42.4700
 1.1830	42.4560
 1.1840	42.4400
 1.1850	42.4240
 1.1860	42.4100
 1.1870	42.3950
 1.1880	42.3820
 1.1890	42.3710
 1.1900	42.3610
 1.1910	42.3510
 1.1920	42.3420
 1.1930	42.3350
 1.1940	42.3280
 1.1950	42.3190
 1.1960	42.3150
 1.1970	42.3160
 1.1980	42.3170
 1.1990	42.3200
 1.2000	42.3250
 1.2010	42.3280
 1.2020	42.3330
 1.2030	42.3390
 1.2040	42.3470
 1.2050	42.3580
 1.2060	42.3680
 1.2070	42.3810
 1.2080	42.3960
 1.2090	42.4120
 1.2100	42.4300
 1.2110	42.4500
 1.2120	42.4730
 1.2130	42.4950
 1.2140	42.5180
 1.2150	42.5410
 1.2160	42.5640
 1.2170	42.5880
 1.2180	42.6140
 1.2190	42.6400
 1.2200	42.6640
 1.2210	42.6890
 1.2220	42.7160
 1.2230	42.7420
 1.2240	42.7690
 1.2250	42.7950
 1.2260	42.8180
 1.2270	42.8410
 1.2280	42.8640
 1.2290	42.8860
 1.2300	42.9100
 1.2310	42.9340
 1.2320	42.9550
 1.2330	42.9740
 1.2340	42.9920
 1.2350	43.0060
 1.2360	43.0240
 1.2370	43.0420
 1.2380	43.0590
 1.2390	43.0780
 1.2400	43.0940
 1.2410	43.1090
 1.2420	43.1230
 1.2430	43.1370
 1.2440	43.1520
 1.2450	43.1660
 1.2460	43.1790
 1.2470	43.1930
 1.2480	43.2040
 1.2490	43.2150
 1.2500	43.2250
 1.2510	43.2320
 1.2520	43.2390
 1.2530	43.2460
 1.2540	43.2540
 1.2550	43.2620
 1.2560	43.2690
 1.2570	43.2750
 1.2580	43.2790
 1.2590	43.2830
 1.2600	43.2880
 1.2610	43.2910
 1.2620	43.2930
 1.2630	43.2940
 1.2640	43.2940
 1.2650	43.2920
 1.2660	43.2900
 1.2670	43.2880
 1.2680	43.2840
 1.2690	43.2810
 1.2700	43.2770
 1.2710	43.2720
 1.2720	43.2650
 1.2730	43.2580
 1.2740	43.2510
 1.2750	43.2440
 1.2760	43.2350
 1.2770	43.2240
 1.2780	43.2100
 1.2790	43.1950
 1.2800	43.1810
 1.2810	43.1660
 1.2820	43.1510
 1.2830	43.1360
 1.2840	43.1210
 1.2850	43.1020
 1.2860	43.0800
 1.2870	43.0570
 1.2880	43.0330
 1.2890	43.0070
 1.2900	42.9800
 1.2910	42.9540
 1.2920	42.9240
 1.2930	42.8910
 1.2940	42.8590
 1.2950	42.8250
 1.2960	42.7890
 1.2970	42.7520
 1.2980	42.7110
 1.2990	42.6680
 1.3000	42.6250
 1.3010	42.5790
 1.3020	42.5320
 1.3030	42.4820
 1.3040	42.4290
 1.3050	42.3760
 1.3060	42.3170
 1.3070	42.2570
 1.3080	42.1940
 1.3090	42.1290
 1.3100	42.0630
 1.3110	41.9970
 1.3120	41.9280
 1.3130	41.8540
 1.3140	41.7770
 1.3150	41.6950
 1.3160	41.6120
 1.3170	41.5270
 1.3180	41.4390
 1.3190	41.3460
 1.3200	41.2530
 1.3210	41.1540
 1.3220	41.0530
 1.3230	40.9520
 1.3240	40.8470
 1.3250	40.7410
 1.3260	40.6330
 1.3270	40.5230
 1.3280	40.4110
 1.3290	40.2930
 1.3300	40.1760
 1.3310	40.0570
 1.3320	39.9340
 1.3330	39.8130
 1.3340	39.6910
 1.3350	39.5670
 1.3360	39.4440
 1.3370	39.3190
 1.3380	39.1920
 1.3390	39.0640
 1.3400	38.9360
 1.3410	38.8100
 1.3420	38.6870
 1.3430	38.5640
 1.3440	38.4430
 1.3450	38.3210
 1.3460	38.1980
 1.3470	38.0770
 1.3480	37.9570
 1.3490	37.8390
 1.3500	37.7240
 1.3510	37.6090
 1.3520	37.4940
 1.3530	37.3790
 1.3540	37.2620
 1.3550	37.1460
 1.3560	37.0290
 1.3570	36.9100
 1.3580	36.7900
 1.3590	36.6690
 1.3600	36.5450
 1.3610	36.4170
 1.3620	36.2830
 1.3630	36.1440
 1.3640	35.9990
 1.3650	35.8450
 1.3660	35.6860
 1.3670	35.5190
 1.3680	35.3400
 1.3690	35.1520
 1.3700	34.9530
 1.3710	34.7400
 1.3720	34.5130
 1.3730	34.2690
 1.3740	34.0120
 1.3750	33.7360
 1.3760	33.4400
 1.3770	33.1230
 1.3780	32.7810
 1.3790	32.4170
 1.3800	32.0330
 1.3810	31.6230
 1.3820	31.1950
 1.3830	30.7480
 1.3840	30.2810
 1.3850	29.7930
 1.3860	29.2920
 1.3870	28.7690
 1.3880	28.2420
 1.3890	27.7020
 1.3900	27.1520
 1.3910	26.6010
 1.3920	26.0430
 1.3930	25.4800
 1.3940	24.9190
 1.3950	24.3580
 1.3960	23.8040
 1.3970	23.2580
 1.3980	22.7230
 1.3990	22.2070
 1.4000	21.7050
 1.4010	21.2170
 1.4020	20.7510
 1.4030	20.2990
 1.4040	19.8680
 1.4050	19.4600
 1.4060	19.0720
 1.4070	18.7090
 1.4080	18.3670
 1.4090	18.0440
 1.4100	17.7430
 1.4110	17.4600
 1.4120	17.1970
 1.4130	16.9540
 1.4140	16.7290
 1.4150	16.5220
 1.4160	16.3310
 1.4170	16.1540
 1.4180	15.9920
 1.4190	15.8410
 1.4200	15.7030
 1.4210	15.5770
 1.4220	15.4620
 1.4230	15.3580
 1.4240	15.2650
 1.4250	15.1780
 1.4260	15.1020
 1.4270	15.0320
 1.4280	14.9710
 1.4290	14.9150
 1.4300	14.8680
 1.4310	14.8250
 1.4320	14.7880
 1.4330	14.7560
 1.4340	14.7300
 1.4350	14.7080
 1.4360	14.6900
 1.4370	14.6770
 1.4380	14.6690
 1.4390	14.6640
 1.4400	14.6630
 1.4410	14.6640
 1.4420	14.6680
 1.4430	14.6740
 1.4440	14.6830
 1.4450	14.6940
 1.4460	14.7060
 1.4470	14.7190
 1.4480	14.7340
 1.4490	14.7510
 1.4500	14.7700
 1.4510	14.7900
 1.4520	14.8120
 1.4530	14.8350
 1.4540	14.8600
 1.4550	14.8870
 1.4560	14.9160
 1.4570	14.9490
 1.4580	14.9830
 1.4590	15.0210
 1.4600	15.0620
 1.4610	15.1060
 1.4620	15.1550
 1.4630	15.2090
 1.4640	15.2680
 1.4650	15.3320
 1.4660	15.4000
 1.4670	15.4730
 1.4680	15.5510
 1.4690	15.6330
