Name: Chorisia speciosa
Type: vegetation
Class: Tree
Genus: Chorisia
Species: speciosa
Sample No.: JPL239
Owner: JPL
Wavelength Range: VSWIR
Origin: 34.1274; -118.11023; WGS84
Collection Date: 10/6/2016
Description: Samples were collected at the Huntington Garden in San Marino California as part of a JPL Subcontract studying HyTES imagery. Samples were taken to JPL and processed within 48 hours of collection. The same leaves were processed in the Nicolet and then measured using the ASD.
Measurement: Bidirectional reflectance
First Column: X
Second Column: Y
X Units: Wavelength (micrometer)
Y Units: Reflectance (percentage)
First X Value: 0.35
Last X Value: 2.5
Number of X Values: 2151
Additional Information: vegetation.tree.chorisia.speciosa.vswir.jpl239.jpl.asd.ancillary.txt

 0.3500	 6.5330
 0.3510	 6.4010
 0.3520	 6.4100
 0.3530	 6.4430
 0.3540	 6.4020
 0.3550	 6.4340
 0.3560	 6.4690
 0.3570	 6.4460
 0.3580	 6.3390
 0.3590	 6.3170
 0.3600	 6.3610
 0.3610	 6.4070
 0.3620	 6.3560
 0.3630	 6.3230
 0.3640	 6.3210
 0.3650	 6.3230
 0.3660	 6.2510
 0.3670	 6.2420
 0.3680	 6.2970
 0.3690	 6.3220
 0.3700	 6.3560
 0.3710	 6.3490
 0.3720	 6.2980
 0.3730	 6.3010
 0.3740	 6.3100
 0.3750	 6.3280
 0.3760	 6.3530
 0.3770	 6.3080
 0.3780	 6.2920
 0.3790	 6.3310
 0.3800	 6.3730
 0.3810	 6.3360
 0.3820	 6.2960
 0.3830	 6.3110
 0.3840	 6.3320
 0.3850	 6.3500
 0.3860	 6.3610
 0.3870	 6.3680
 0.3880	 6.3800
 0.3890	 6.3740
 0.3900	 6.3700
 0.3910	 6.4370
 0.3920	 6.4500
 0.3930	 6.4390
 0.3940	 6.4490
 0.3950	 6.4730
 0.3960	 6.4760
 0.3970	 6.4880
 0.3980	 6.5510
 0.3990	 6.5530
 0.4000	 6.5420
 0.4010	 6.5490
 0.4020	 6.5710
 0.4030	 6.5730
 0.4040	 6.5800
 0.4050	 6.6070
 0.4060	 6.6000
 0.4070	 6.6010
 0.4080	 6.6160
 0.4090	 6.6300
 0.4100	 6.6490
 0.4110	 6.6620
 0.4120	 6.6650
 0.4130	 6.6660
 0.4140	 6.6600
 0.4150	 6.6570
 0.4160	 6.6660
 0.4170	 6.6690
 0.4180	 6.6740
 0.4190	 6.6820
 0.4200	 6.6920
 0.4210	 6.6870
 0.4220	 6.6830
 0.4230	 6.6940
 0.4240	 6.7000
 0.4250	 6.7020
 0.4260	 6.6960
 0.4270	 6.6850
 0.4280	 6.6780
 0.4290	 6.6730
 0.4300	 6.6670
 0.4310	 6.6580
 0.4320	 6.6510
 0.4330	 6.6460
 0.4340	 6.6430
 0.4350	 6.6290
 0.4360	 6.6260
 0.4370	 6.6340
 0.4380	 6.6440
 0.4390	 6.6530
 0.4400	 6.6590
 0.4410	 6.6650
 0.4420	 6.6880
 0.4430	 6.6980
 0.4440	 6.6970
 0.4450	 6.7000
 0.4460	 6.7110
 0.4470	 6.7160
 0.4480	 6.7170
 0.4490	 6.7290
 0.4500	 6.7420
 0.4510	 6.7510
 0.4520	 6.7570
 0.4530	 6.7640
 0.4540	 6.7700
 0.4550	 6.7720
 0.4560	 6.7680
 0.4570	 6.7800
 0.4580	 6.7880
 0.4590	 6.7840
 0.4600	 6.7890
 0.4610	 6.7920
 0.4620	 6.7940
 0.4630	 6.7980
 0.4640	 6.7960
 0.4650	 6.7920
 0.4660	 6.7900
 0.4670	 6.7930
 0.4680	 6.7920
 0.4690	 6.7910
 0.4700	 6.7910
 0.4710	 6.7910
 0.4720	 6.7920
 0.4730	 6.7910
 0.4740	 6.7880
 0.4750	 6.7960
 0.4760	 6.7990
 0.4770	 6.7920
 0.4780	 6.7940
 0.4790	 6.8020
 0.4800	 6.8050
 0.4810	 6.7990
 0.4820	 6.7980
 0.4830	 6.7990
 0.4840	 6.7990
 0.4850	 6.8000
 0.4860	 6.7980
 0.4870	 6.8010
 0.4880	 6.8150
 0.4890	 6.8250
 0.4900	 6.8320
 0.4910	 6.8400
 0.4920	 6.8590
 0.4930	 6.8800
 0.4940	 6.8980
 0.4950	 6.9140
 0.4960	 6.9320
 0.4970	 6.9530
 0.4980	 6.9760
 0.4990	 7.0040
 0.5000	 7.0330
 0.5010	 7.0620
 0.5020	 7.0950
 0.5030	 7.1360
 0.5040	 7.1740
 0.5050	 7.2080
 0.5060	 7.2450
 0.5070	 7.2970
 0.5080	 7.3520
 0.5090	 7.4090
 0.5100	 7.4710
 0.5110	 7.5350
 0.5120	 7.6060
 0.5130	 7.6830
 0.5140	 7.7690
 0.5150	 7.8580
 0.5160	 7.9540
 0.5170	 8.0630
 0.5180	 8.1760
 0.5190	 8.2950
 0.5200	 8.4180
 0.5210	 8.5440
 0.5220	 8.6790
 0.5230	 8.8170
 0.5240	 8.9530
 0.5250	 9.0900
 0.5260	 9.2210
 0.5270	 9.3480
 0.5280	 9.4760
 0.5290	 9.5990
 0.5300	 9.7120
 0.5310	 9.8140
 0.5320	 9.9110
 0.5330	10.0000
 0.5340	10.0830
 0.5350	10.1610
 0.5360	10.2250
 0.5370	10.2810
 0.5380	10.3310
 0.5390	10.3740
 0.5400	10.4070
 0.5410	10.4320
 0.5420	10.4530
 0.5430	10.4720
 0.5440	10.4940
 0.5450	10.5230
 0.5460	10.5600
 0.5470	10.5960
 0.5480	10.6280
 0.5490	10.6560
 0.5500	10.6720
 0.5510	10.6860
 0.5520	10.6930
 0.5530	10.6910
 0.5540	10.6830
 0.5550	10.6650
 0.5560	10.6350
 0.5570	10.5980
 0.5580	10.5490
 0.5590	10.4900
 0.5600	10.4220
 0.5610	10.3470
 0.5620	10.2640
 0.5630	10.1740
 0.5640	10.0810
 0.5650	 9.9870
 0.5660	 9.8910
 0.5670	 9.7920
 0.5680	 9.6950
 0.5690	 9.6000
 0.5700	 9.5070
 0.5710	 9.4140
 0.5720	 9.3260
 0.5730	 9.2440
 0.5740	 9.1660
 0.5750	 9.0910
 0.5760	 9.0210
 0.5770	 8.9590
 0.5780	 8.9010
 0.5790	 8.8460
 0.5800	 8.7960
 0.5810	 8.7480
 0.5820	 8.6990
 0.5830	 8.6520
 0.5840	 8.6080
 0.5850	 8.5680
 0.5860	 8.5310
 0.5870	 8.4960
 0.5880	 8.4650
 0.5890	 8.4380
 0.5900	 8.4150
 0.5910	 8.3930
 0.5920	 8.3690
 0.5930	 8.3410
 0.5940	 8.3190
 0.5950	 8.3030
 0.5960	 8.2890
 0.5970	 8.2720
 0.5980	 8.2590
 0.5990	 8.2450
 0.6000	 8.2260
 0.6010	 8.2080
 0.6020	 8.1890
 0.6030	 8.1680
 0.6040	 8.1450
 0.6050	 8.1210
 0.6060	 8.0940
 0.6070	 8.0660
 0.6080	 8.0340
 0.6090	 7.9970
 0.6100	 7.9510
 0.6110	 7.8970
 0.6120	 7.8670
 0.6130	 7.8500
 0.6140	 7.8360
 0.6150	 7.8110
 0.6160	 7.7870
 0.6170	 7.7640
 0.6180	 7.7390
 0.6190	 7.7140
 0.6200	 7.6920
 0.6210	 7.6730
 0.6220	 7.6570
 0.6230	 7.6430
 0.6240	 7.6320
 0.6250	 7.6240
 0.6260	 7.6180
 0.6270	 7.6140
 0.6280	 7.6090
 0.6290	 7.6020
 0.6300	 7.5930
 0.6310	 7.5850
 0.6320	 7.5800
 0.6330	 7.5730
 0.6340	 7.5580
 0.6350	 7.5370
 0.6360	 7.5100
 0.6370	 7.4800
 0.6380	 7.4460
 0.6390	 7.4090
 0.6400	 7.3700
 0.6410	 7.3310
 0.6420	 7.2910
 0.6430	 7.2530
 0.6440	 7.2170
 0.6450	 7.1830
 0.6460	 7.1520
 0.6470	 7.1230
 0.6480	 7.1000
 0.6490	 7.0800
 0.6500	 7.0630
 0.6510	 7.0510
 0.6520	 7.0440
 0.6530	 7.0390
 0.6540	 7.0350
 0.6550	 7.0300
 0.6560	 7.0280
 0.6570	 7.0250
 0.6580	 7.0170
 0.6590	 7.0110
 0.6600	 7.0020
 0.6610	 6.9900
 0.6620	 6.9820
 0.6630	 6.9740
 0.6640	 6.9680
 0.6650	 6.9630
 0.6660	 6.9610
 0.6670	 6.9620
 0.6680	 6.9660
 0.6690	 6.9740
 0.6700	 6.9870
 0.6710	 7.0040
 0.6720	 7.0240
 0.6730	 7.0450
 0.6740	 7.0720
 0.6750	 7.1040
 0.6760	 7.1360
 0.6770	 7.1760
 0.6780	 7.2190
 0.6790	 7.2650
 0.6800	 7.3140
 0.6810	 7.3680
 0.6820	 7.4260
 0.6830	 7.4890
 0.6840	 7.5550
 0.6850	 7.6220
 0.6860	 7.6940
 0.6870	 7.7770
 0.6880	 7.8700
 0.6890	 7.9770
 0.6900	 8.1040
 0.6910	 8.2580
 0.6920	 8.4460
 0.6930	 8.6720
 0.6940	 8.9440
 0.6950	 9.2710
 0.6960	 9.6530
 0.6970	10.0900
 0.6980	10.5820
 0.6990	11.1290
 0.7000	11.7240
 0.7010	12.3630
 0.7020	13.0430
 0.7030	13.7540
 0.7040	14.4890
 0.7050	15.2420
 0.7060	16.0100
 0.7070	16.7920
 0.7080	17.5840
 0.7090	18.3830
 0.7100	19.1940
 0.7110	20.0110
 0.7120	20.8310
 0.7130	21.6580
 0.7140	22.4880
 0.7150	23.3200
 0.7160	24.1510
 0.7170	24.9810
 0.7180	25.8090
 0.7190	26.6320
 0.7200	27.4440
 0.7210	28.2480
 0.7220	29.0390
 0.7230	29.8150
 0.7240	30.5740
 0.7250	31.3120
 0.7260	32.0270
 0.7270	32.7160
 0.7280	33.3850
 0.7290	34.0270
 0.7300	34.6420
 0.7310	35.2270
 0.7320	35.7870
 0.7330	36.3180
 0.7340	36.8200
 0.7350	37.2950
 0.7360	37.7420
 0.7370	38.1630
 0.7380	38.5600
 0.7390	38.9300
 0.7400	39.2750
 0.7410	39.5960
 0.7420	39.8940
 0.7430	40.1710
 0.7440	40.4230
 0.7450	40.6520
 0.7460	40.8630
 0.7470	41.0520
 0.7480	41.2240
 0.7490	41.3800
 0.7500	41.5220
 0.7510	41.6490
 0.7520	41.7620
 0.7530	41.8660
 0.7540	41.9570
 0.7550	42.0400
 0.7560	42.1130
 0.7570	42.1770
 0.7580	42.2340
 0.7590	42.2850
 0.7600	42.3300
 0.7610	42.3740
 0.7620	42.4080
 0.7630	42.4360
 0.7640	42.4620
 0.7650	42.4850
 0.7660	42.5030
 0.7670	42.5180
 0.7680	42.5300
 0.7690	42.5410
 0.7700	42.5520
 0.7710	42.5620
 0.7720	42.5660
 0.7730	42.5720
 0.7740	42.5780
 0.7750	42.5830
 0.7760	42.5870
 0.7770	42.5900
 0.7780	42.5920
 0.7790	42.5970
 0.7800	42.6000
 0.7810	42.6020
 0.7820	42.6050
 0.7830	42.6110
 0.7840	42.6140
 0.7850	42.6150
 0.7860	42.6150
 0.7870	42.6140
 0.7880	42.6140
 0.7890	42.6130
 0.7900	42.6130
 0.7910	42.6080
 0.7920	42.6060
 0.7930	42.6050
 0.7940	42.6030
 0.7950	42.6000
 0.7960	42.5960
 0.7970	42.5920
 0.7980	42.5840
 0.7990	42.5760
 0.8000	42.5690
 0.8010	42.5610
 0.8020	42.5520
 0.8030	42.5460
 0.8040	42.5390
 0.8050	42.5300
 0.8060	42.5210
 0.8070	42.5100
 0.8080	42.4980
 0.8090	42.4850
 0.8100	42.4740
 0.8110	42.4630
 0.8120	42.4510
 0.8130	42.4370
 0.8140	42.4250
 0.8150	42.4110
 0.8160	42.3950
 0.8170	42.3820
 0.8180	42.3700
 0.8190	42.3580
 0.8200	42.3460
 0.8210	42.3330
 0.8220	42.3200
 0.8230	42.3050
 0.8240	42.2930
 0.8250	42.2770
 0.8260	42.2630
 0.8270	42.2520
 0.8280	42.2400
 0.8290	42.2280
 0.8300	42.2150
 0.8310	42.2020
 0.8320	42.1890
 0.8330	42.1800
 0.8340	42.1730
 0.8350	42.1640
 0.8360	42.1550
 0.8370	42.1460
 0.8380	42.1380
 0.8390	42.1320
 0.8400	42.1280
 0.8410	42.1250
 0.8420	42.1210
 0.8430	42.1120
 0.8440	42.1070
 0.8450	42.1050
 0.8460	42.1020
 0.8470	42.0980
 0.8480	42.0960
 0.8490	42.0960
 0.8500	42.0940
 0.8510	42.0900
 0.8520	42.0900
 0.8530	42.0910
 0.8540	42.0890
 0.8550	42.0890
 0.8560	42.0900
 0.8570	42.0910
 0.8580	42.0940
 0.8590	42.0980
 0.8600	42.1010
 0.8610	42.1020
 0.8620	42.1070
 0.8630	42.1110
 0.8640	42.1150
 0.8650	42.1200
 0.8660	42.1250
 0.8670	42.1290
 0.8680	42.1340
 0.8690	42.1430
 0.8700	42.1490
 0.8710	42.1540
 0.8720	42.1600
 0.8730	42.1710
 0.8740	42.1770
 0.8750	42.1820
 0.8760	42.1870
 0.8770	42.1930
 0.8780	42.2010
 0.8790	42.2100
 0.8800	42.2180
 0.8810	42.2260
 0.8820	42.2310
 0.8830	42.2370
 0.8840	42.2480
 0.8850	42.2570
 0.8860	42.2650
 0.8870	42.2720
 0.8880	42.2800
 0.8890	42.2870
 0.8900	42.2950
 0.8910	42.3030
 0.8920	42.3080
 0.8930	42.3140
 0.8940	42.3250
 0.8950	42.3370
 0.8960	42.3410
 0.8970	42.3480
 0.8980	42.3550
 0.8990	42.3640
 0.9000	42.3740
 0.9010	42.3780
 0.9020	42.3840
 0.9030	42.3930
 0.9040	42.4010
 0.9050	42.4110
 0.9060	42.4200
 0.9070	42.4280
 0.9080	42.4300
 0.9090	42.4300
 0.9100	42.4340
 0.9110	42.4430
 0.9120	42.4480
 0.9130	42.4530
 0.9140	42.4580
 0.9150	42.4620
 0.9160	42.4620
 0.9170	42.4630
 0.9180	42.4640
 0.9190	42.4660
 0.9200	42.4720
 0.9210	42.4700
 0.9220	42.4630
 0.9230	42.4560
 0.9240	42.4570
 0.9250	42.4540
 0.9260	42.4450
 0.9270	42.4370
 0.9280	42.4310
 0.9290	42.4200
 0.9300	42.4070
 0.9310	42.3970
 0.9320	42.3860
 0.9330	42.3750
 0.9340	42.3630
 0.9350	42.3500
 0.9360	42.3310
 0.9370	42.3130
 0.9380	42.2990
 0.9390	42.2880
 0.9400	42.2740
 0.9410	42.2570
 0.9420	42.2370
 0.9430	42.2140
 0.9440	42.1880
 0.9450	42.1650
 0.9460	42.1470
 0.9470	42.1220
 0.9480	42.0960
 0.9490	42.0650
 0.9500	42.0280
 0.9510	41.9860
 0.9520	41.9520
 0.9530	41.9160
 0.9540	41.8730
 0.9550	41.8390
 0.9560	41.8050
 0.9570	41.7690
 0.9580	41.7370
 0.9590	41.7130
 0.9600	41.6820
 0.9610	41.6510
 0.9620	41.6280
 0.9630	41.6090
 0.9640	41.5890
 0.9650	41.5690
 0.9660	41.5560
 0.9670	41.5480
 0.9680	41.5320
 0.9690	41.5170
 0.9700	41.5130
 0.9710	41.5060
 0.9720	41.5010
 0.9730	41.4960
 0.9740	41.4880
 0.9750	41.4920
 0.9760	41.4940
 0.9770	41.4880
 0.9780	41.4750
 0.9790	41.4700
 0.9800	41.4760
 0.9810	41.4810
 0.9820	41.4730
 0.9830	41.4760
 0.9840	41.4780
 0.9850	41.4830
 0.9860	41.5000
 0.9870	41.5040
 0.9880	41.4940
 0.9890	41.4860
 0.9900	41.4970
 0.9910	41.5090
 0.9920	41.5150
 0.9930	41.5160
 0.9940	41.5200
 0.9950	41.5330
 0.9960	41.5490
 0.9970	41.5580
 0.9980	41.5590
 0.9990	41.5730
 1.0000	41.5730
 1.0010	42.7020
 1.0020	42.7090
 1.0030	42.7130
 1.0040	42.7190
 1.0050	42.7230
 1.0060	42.7300
 1.0070	42.7410
 1.0080	42.7490
 1.0090	42.7600
 1.0100	42.7670
 1.0110	42.7720
 1.0120	42.7790
 1.0130	42.7850
 1.0140	42.7930
 1.0150	42.8040
 1.0160	42.8130
 1.0170	42.8180
 1.0180	42.8270
 1.0190	42.8340
 1.0200	42.8370
 1.0210	42.8440
 1.0220	42.8540
 1.0230	42.8630
 1.0240	42.8750
 1.0250	42.8840
 1.0260	42.8910
 1.0270	42.8990
 1.0280	42.9040
 1.0290	42.9130
 1.0300	42.9230
 1.0310	42.9330
 1.0320	42.9450
 1.0330	42.9570
 1.0340	42.9650
 1.0350	42.9710
 1.0360	42.9770
 1.0370	42.9830
 1.0380	42.9910
 1.0390	43.0000
 1.0400	43.0090
 1.0410	43.0180
 1.0420	43.0240
 1.0430	43.0280
 1.0440	43.0340
 1.0450	43.0360
 1.0460	43.0420
 1.0470	43.0500
 1.0480	43.0560
 1.0490	43.0640
 1.0500	43.0690
 1.0510	43.0710
 1.0520	43.0730
 1.0530	43.0740
 1.0540	43.0710
 1.0550	43.0720
 1.0560	43.0740
 1.0570	43.0750
 1.0580	43.0770
 1.0590	43.0790
 1.0600	43.0800
 1.0610	43.0820
 1.0620	43.0890
 1.0630	43.0900
 1.0640	43.0850
 1.0650	43.0830
 1.0660	43.0800
 1.0670	43.0750
 1.0680	43.0710
 1.0690	43.0680
 1.0700	43.0630
 1.0710	43.0540
 1.0720	43.0500
 1.0730	43.0480
 1.0740	43.0440
 1.0750	43.0400
 1.0760	43.0360
 1.0770	43.0320
 1.0780	43.0280
 1.0790	43.0270
 1.0800	43.0230
 1.0810	43.0170
 1.0820	43.0120
 1.0830	43.0100
 1.0840	43.0050
 1.0850	42.9980
 1.0860	42.9930
 1.0870	42.9880
 1.0880	42.9810
 1.0890	42.9740
 1.0900	42.9690
 1.0910	42.9620
 1.0920	42.9520
 1.0930	42.9440
 1.0940	42.9380
 1.0950	42.9310
 1.0960	42.9250
 1.0970	42.9190
 1.0980	42.9150
 1.0990	42.9090
 1.1000	42.9020
 1.1010	42.8960
 1.1020	42.8890
 1.1030	42.8810
 1.1040	42.8740
 1.1050	42.8680
 1.1060	42.8600
 1.1070	42.8500
 1.1080	42.8430
 1.1090	42.8380
 1.1100	42.8300
 1.1110	42.8240
 1.1120	42.8160
 1.1130	42.8050
 1.1140	42.7960
 1.1150	42.7900
 1.1160	42.7810
 1.1170	42.7720
 1.1180	42.7600
 1.1190	42.7460
 1.1200	42.7310
 1.1210	42.7180
 1.1220	42.7010
 1.1230	42.6810
 1.1240	42.6610
 1.1250	42.6370
 1.1260	42.6100
 1.1270	42.5800
 1.1280	42.5480
 1.1290	42.5110
 1.1300	42.4710
 1.1310	42.4260
 1.1320	42.3780
 1.1330	42.3250
 1.1340	42.2660
 1.1350	42.2040
 1.1360	42.1380
 1.1370	42.0670
 1.1380	41.9920
 1.1390	41.9130
 1.1400	41.8290
 1.1410	41.7460
 1.1420	41.6630
 1.1430	41.5800
 1.1440	41.4960
 1.1450	41.4110
 1.1460	41.3290
 1.1470	41.2430
 1.1480	41.1650
 1.1490	41.0900
 1.1500	41.0180
 1.1510	40.9480
 1.1520	40.8850
 1.1530	40.8260
 1.1540	40.7720
 1.1550	40.7230
 1.1560	40.6810
 1.1570	40.6410
 1.1580	40.6060
 1.1590	40.5740
 1.1600	40.5440
 1.1610	40.5190
 1.1620	40.4980
 1.1630	40.4810
 1.1640	40.4670
 1.1650	40.4540
 1.1660	40.4430
 1.1670	40.4310
 1.1680	40.4190
 1.1690	40.4090
 1.1700	40.3990
 1.1710	40.3890
 1.1720	40.3810
 1.1730	40.3720
 1.1740	40.3640
 1.1750	40.3550
 1.1760	40.3480
 1.1770	40.3430
 1.1780	40.3350
 1.1790	40.3280
 1.1800	40.3200
 1.1810	40.3090
 1.1820	40.2980
 1.1830	40.2880
 1.1840	40.2780
 1.1850	40.2680
 1.1860	40.2590
 1.1870	40.2510
 1.1880	40.2420
 1.1890	40.2310
 1.1900	40.2230
 1.1910	40.2160
 1.1920	40.2100
 1.1930	40.2060
 1.1940	40.2000
 1.1950	40.1920
 1.1960	40.1870
 1.1970	40.1840
 1.1980	40.1820
 1.1990	40.1810
 1.2000	40.1820
 1.2010	40.1830
 1.2020	40.1860
 1.2030	40.1900
 1.2040	40.1950
 1.2050	40.2010
 1.2060	40.2050
 1.2070	40.2120
 1.2080	40.2190
 1.2090	40.2240
 1.2100	40.2340
 1.2110	40.2420
 1.2120	40.2490
 1.2130	40.2580
 1.2140	40.2690
 1.2150	40.2800
 1.2160	40.2920
 1.2170	40.3050
 1.2180	40.3170
 1.2190	40.3280
 1.2200	40.3390
 1.2210	40.3510
 1.2220	40.3640
 1.2230	40.3770
 1.2240	40.3890
 1.2250	40.4020
 1.2260	40.4140
 1.2270	40.4260
 1.2280	40.4370
 1.2290	40.4460
 1.2300	40.4560
 1.2310	40.4670
 1.2320	40.4790
 1.2330	40.4910
 1.2340	40.5010
 1.2350	40.5100
 1.2360	40.5190
 1.2370	40.5260
 1.2380	40.5340
 1.2390	40.5420
 1.2400	40.5500
 1.2410	40.5570
 1.2420	40.5620
 1.2430	40.5700
 1.2440	40.5770
 1.2450	40.5810
 1.2460	40.5870
 1.2470	40.5920
 1.2480	40.5960
 1.2490	40.6010
 1.2500	40.6070
 1.2510	40.6110
 1.2520	40.6150
 1.2530	40.6170
 1.2540	40.6160
 1.2550	40.6170
 1.2560	40.6170
 1.2570	40.6170
 1.2580	40.6170
 1.2590	40.6170
 1.2600	40.6150
 1.2610	40.6120
 1.2620	40.6090
 1.2630	40.6060
 1.2640	40.6030
 1.2650	40.6010
 1.2660	40.5990
 1.2670	40.5940
 1.2680	40.5880
 1.2690	40.5820
 1.2700	40.5770
 1.2710	40.5730
 1.2720	40.5670
 1.2730	40.5590
 1.2740	40.5510
 1.2750	40.5410
 1.2760	40.5330
 1.2770	40.5220
 1.2780	40.5090
 1.2790	40.4950
 1.2800	40.4790
 1.2810	40.4620
 1.2820	40.4480
 1.2830	40.4310
 1.2840	40.4120
 1.2850	40.3930
 1.2860	40.3710
 1.2870	40.3480
 1.2880	40.3230
 1.2890	40.2960
 1.2900	40.2670
 1.2910	40.2360
 1.2920	40.2040
 1.2930	40.1710
 1.2940	40.1360
 1.2950	40.1000
 1.2960	40.0650
 1.2970	40.0250
 1.2980	39.9840
 1.2990	39.9400
 1.3000	39.8940
 1.3010	39.8480
 1.3020	39.8010
 1.3030	39.7540
 1.3040	39.7070
 1.3050	39.6580
 1.3060	39.6060
 1.3070	39.5510
 1.3080	39.4950
 1.3090	39.4390
 1.3100	39.3820
 1.3110	39.3250
 1.3120	39.2670
 1.3130	39.2060
 1.3140	39.1440
 1.3150	39.0810
 1.3160	39.0170
 1.3170	38.9520
 1.3180	38.8840
 1.3190	38.8150
 1.3200	38.7460
 1.3210	38.6750
 1.3220	38.6030
 1.3230	38.5310
 1.3240	38.4570
 1.3250	38.3800
 1.3260	38.3020
 1.3270	38.2220
 1.3280	38.1400
 1.3290	38.0570
 1.3300	37.9730
 1.3310	37.8890
 1.3320	37.8030
 1.3330	37.7180
 1.3340	37.6330
 1.3350	37.5460
 1.3360	37.4590
 1.3370	37.3730
 1.3380	37.2880
 1.3390	37.2030
 1.3400	37.1160
 1.3410	37.0310
 1.3420	36.9450
 1.3430	36.8600
 1.3440	36.7770
 1.3450	36.6930
 1.3460	36.6090
 1.3470	36.5260
 1.3480	36.4430
 1.3490	36.3620
 1.3500	36.2820
 1.3510	36.2020
 1.3520	36.1200
 1.3530	36.0370
 1.3540	35.9540
 1.3550	35.8700
 1.3560	35.7860
 1.3570	35.7030
 1.3580	35.6180
 1.3590	35.5300
 1.3600	35.4400
 1.3610	35.3470
 1.3620	35.2490
 1.3630	35.1470
 1.3640	35.0390
 1.3650	34.9250
 1.3660	34.8080
 1.3670	34.6820
 1.3680	34.5470
 1.3690	34.4050
 1.3700	34.2500
 1.3710	34.0820
 1.3720	33.9010
 1.3730	33.7050
 1.3740	33.4950
 1.3750	33.2700
 1.3760	33.0260
 1.3770	32.7650
 1.3780	32.4830
 1.3790	32.1830
 1.3800	31.8640
 1.3810	31.5230
 1.3820	31.1650
 1.3830	30.7900
 1.3840	30.3950
 1.3850	29.9810
 1.3860	29.5530
 1.3870	29.1030
 1.3880	28.6470
 1.3890	28.1780
 1.3900	27.6980
 1.3910	27.2170
 1.3920	26.7290
 1.3930	26.2370
 1.3940	25.7470
 1.3950	25.2550
 1.3960	24.7700
 1.3970	24.2940
 1.3980	23.8260
 1.3990	23.3750
 1.4000	22.9350
 1.4010	22.5090
 1.4020	22.1000
 1.4030	21.7040
 1.4040	21.3260
 1.4050	20.9680
 1.4060	20.6270
 1.4070	20.3080
 1.4080	20.0090
 1.4090	19.7260
 1.4100	19.4630
 1.4110	19.2160
 1.4120	18.9860
 1.4130	18.7720
 1.4140	18.5730
 1.4150	18.3910
 1.4160	18.2230
 1.4170	18.0670
 1.4180	17.9240
 1.4190	17.7910
 1.4200	17.6680
 1.4210	17.5560
 1.4220	17.4530
 1.4230	17.3610
 1.4240	17.2760
 1.4250	17.1980
 1.4260	17.1270
 1.4270	17.0620
 1.4280	17.0040
 1.4290	16.9510
 1.4300	16.9050
 1.4310	16.8630
 1.4320	16.8260
 1.4330	16.7940
 1.4340	16.7660
 1.4350	16.7430
 1.4360	16.7240
 1.4370	16.7090
 1.4380	16.6980
 1.4390	16.6890
 1.4400	16.6830
 1.4410	16.6800
 1.4420	16.6790
 1.4430	16.6800
 1.4440	16.6850
 1.4450	16.6910
 1.4460	16.6980
 1.4470	16.7090
 1.4480	16.7200
 1.4490	16.7320
 1.4500	16.7470
 1.4510	16.7630
 1.4520	16.7800
 1.4530	16.8000
 1.4540	16.8220
 1.4550	16.8450
 1.4560	16.8730
 1.4570	16.9020
 1.4580	16.9330
 1.4590	16.9700
 1.4600	17.0090
 1.4610	17.0510
 1.4620	17.0990
 1.4630	17.1500
 1.4640	17.2050
 1.4650	17.2650
 1.4660	17.3300
 1.4670	17.3980
 1.4680	17.4720
 1.4690	17.5510
 1.4700	17.6320
 1.4710	17.7190
 1.4720	17.8080
 1.4730	17.9000
 1.4740	17.9960
 1.4750	18.0950
 1.4760	18.1980
 1.4770	18.3030
