Name: Bambusa beecheyana
Type: vegetation
Class: Tree
Genus: Bambusa
Species: beecheyana
Sample No.: JPL246
Owner: JPL
Wavelength Range: TIR
Origin: 34.12536; -118.11136; WGS84
Collection Date: 10/6/2016
Description: Samples were collected at the Huntington Garden in San Marino California as part of a JPL Subcontract studying HyTES imagery. Samples were taken to JPL and processed within 48 hours of collection. The same leaves were processed in the Nicolet and then measured using the ASD.
Measurement: Hemispherical reflectance
First Column: X
Second Column: Y
X Units: Wavelength (micrometer)
Y Units: Reflectance (percentage)
First X Value: 2.501
Last X Value: 15.387
Number of X Values: 1737
Additional Information: vegetation.tree.bambusa.beecheyana.tir.jpl246.jpl.nicolet.ancillary.txt

 2.5010	10.8880
 2.5030	10.8130
 2.5040	10.8420
 2.5050	10.8170
 2.5060	10.7840
 2.5070	10.7570
 2.5090	10.7050
 2.5100	10.6860
 2.5110	10.7430
 2.5120	10.7270
 2.5140	10.6310
 2.5150	10.5060
 2.5160	10.5140
 2.5170	10.5460
 2.5180	10.5920
 2.5200	10.5940
 2.5210	10.5620
 2.5220	10.4930
 2.5230	10.4730
 2.5250	10.4080
 2.5260	10.4170
 2.5270	10.4340
 2.5280	10.4330
 2.5300	10.4740
 2.5310	10.5240
 2.5320	10.4480
 2.5330	10.4040
 2.5340	10.3640
 2.5360	10.4010
 2.5370	10.4890
 2.5380	10.6120
 2.5390	10.5080
 2.5410	10.4640
 2.5420	10.4500
 2.5430	10.3610
 2.5440	10.3530
 2.5460	10.4480
 2.5470	10.4650
 2.5480	10.4770
 2.5490	10.5690
 2.5510	10.5710
 2.5520	10.4850
 2.5530	10.4230
 2.5540	10.5090
 2.5560	10.6240
 2.5570	10.5860
 2.5580	10.6060
 2.5590	10.6290
 2.5610	10.5210
 2.5620	10.3450
 2.5630	10.3820
 2.5650	10.4780
 2.5660	10.6220
 2.5670	10.7200
 2.5680	10.6720
 2.5700	10.4630
 2.5710	10.5100
 2.5720	10.5880
 2.5730	10.3410
 2.5750	10.3570
 2.5760	10.5680
 2.5770	10.5400
 2.5790	10.6410
 2.5800	10.6680
 2.5810	10.4910
 2.5820	10.4060
 2.5840	10.1980
 2.5850	10.1600
 2.5860	10.3180
 2.5880	10.1370
 2.5890	10.1490
 2.5900	10.3090
 2.5910	10.3570
 2.5930	10.2210
 2.5940	 9.7690
 2.5950	 9.3120
 2.5970	 9.6670
 2.5980	10.0840
 2.5990	10.2080
 2.6010	10.0540
 2.6020	 9.8970
 2.6030	 9.7110
 2.6040	 9.4730
 2.6060	 9.2570
 2.6070	 9.3740
 2.6080	 9.4400
 2.6100	 9.3760
 2.6110	 9.3340
 2.6120	 9.3440
 2.6140	 9.2160
 2.6150	 9.1630
 2.6160	 8.8950
 2.6180	 8.6690
 2.6190	 8.6670
 2.6200	 8.4630
 2.6220	 8.4150
 2.6230	 8.6410
 2.6240	 8.5940
 2.6260	 8.4020
 2.6270	 8.1070
 2.6280	 8.1520
 2.6300	 7.9990
 2.6310	 7.7010
 2.6320	 7.7520
 2.6340	 7.7580
 2.6350	 7.6010
 2.6360	 7.6370
 2.6380	 7.5840
 2.6390	 7.4750
 2.6400	 7.3340
 2.6420	 7.2720
 2.6430	 7.1240
 2.6440	 6.9700
 2.6460	 6.7520
 2.6470	 6.7470
 2.6480	 6.7310
 2.6500	 6.6400
 2.6510	 6.4690
 2.6520	 6.2390
 2.6540	 6.1370
 2.6550	 6.1080
 2.6570	 5.9500
 2.6580	 5.9120
 2.6590	 5.8050
 2.6610	 5.7080
 2.6620	 5.5160
 2.6630	 5.3480
 2.6650	 5.1200
 2.6660	 4.9250
 2.6670	 4.7980
 2.6690	 4.8530
 2.6700	 4.6330
 2.6720	 4.5100
 2.6730	 4.5620
 2.6740	 4.4650
 2.6760	 4.2940
 2.6770	 4.1090
 2.6780	 4.0330
 2.6800	 4.0230
 2.6810	 4.0100
 2.6830	 3.9970
 2.6840	 3.8130
 2.6850	 3.6760
 2.6870	 3.5730
 2.6880	 3.5090
 2.6900	 3.4330
 2.6910	 3.3710
 2.6920	 3.1990
 2.6940	 3.0700
 2.6950	 2.9480
 2.6970	 2.9710
 2.6980	 2.9570
 2.6990	 2.9170
 2.7010	 2.8420
 2.7020	 2.8390
 2.7040	 2.7750
 2.7050	 2.7010
 2.7060	 2.6550
 2.7080	 2.6700
 2.7090	 2.5390
 2.7110	 2.4450
 2.7120	 2.4620
 2.7130	 2.5710
 2.7150	 2.5720
 2.7160	 2.5660
 2.7180	 2.5300
 2.7190	 2.5160
 2.7210	 2.3410
 2.7220	 2.3770
 2.7230	 2.4020
 2.7250	 2.3980
 2.7260	 2.4110
 2.7280	 2.4850
 2.7290	 2.4460
 2.7310	 2.4440
 2.7320	 2.4380
 2.7340	 2.4620
 2.7350	 2.4030
 2.7360	 2.4390
 2.7380	 2.4750
 2.7390	 2.3920
 2.7410	 2.3400
 2.7420	 2.4030
 2.7440	 2.4100
 2.7450	 2.4420
 2.7470	 2.4840
 2.7480	 2.4960
 2.7490	 2.4410
 2.7510	 2.4550
 2.7520	 2.4270
 2.7540	 2.4060
 2.7550	 2.3140
 2.7570	 2.3480
 2.7580	 2.3740
 2.7600	 2.4060
 2.7610	 2.3770
 2.7630	 2.3520
 2.7640	 2.3770
 2.7660	 2.4380
 2.7670	 2.4180
 2.7690	 2.4040
 2.7700	 2.3310
 2.7720	 2.3310
 2.7730	 2.3250
 2.7740	 2.3700
 2.7760	 2.4040
 2.7770	 2.3790
 2.7790	 2.3060
 2.7800	 2.3660
 2.7820	 2.3630
 2.7830	 2.3920
 2.7850	 2.4230
 2.7860	 2.4180
 2.7880	 2.3350
 2.7890	 2.3960
 2.7910	 2.4010
 2.7920	 2.4650
 2.7940	 2.4430
 2.7950	 2.4530
 2.7970	 2.4430
 2.7980	 2.4720
 2.8000	 2.4510
 2.8010	 2.3970
 2.8030	 2.2820
 2.8040	 2.2950
 2.8060	 2.3450
 2.8080	 2.3550
 2.8090	 2.3260
 2.8110	 2.3950
 2.8120	 2.3990
 2.8140	 2.3440
 2.8150	 2.2920
 2.8170	 2.3440
 2.8180	 2.2750
 2.8200	 2.2800
 2.8210	 2.2790
 2.8230	 2.2880
 2.8240	 2.3340
 2.8260	 2.3820
 2.8270	 2.3710
 2.8290	 2.3770
 2.8310	 2.3320
 2.8320	 2.3630
 2.8340	 2.3190
 2.8350	 2.3150
 2.8370	 2.2990
 2.8380	 2.2920
 2.8400	 2.3030
 2.8410	 2.3980
 2.8430	 2.3860
 2.8440	 2.3810
 2.8460	 2.3210
 2.8480	 2.2970
 2.8490	 2.3340
 2.8510	 2.3420
 2.8520	 2.3160
 2.8540	 2.3260
 2.8550	 2.2590
 2.8570	 2.2950
 2.8590	 2.3390
 2.8600	 2.3900
 2.8620	 2.3610
 2.8630	 2.3680
 2.8650	 2.2920
 2.8660	 2.2910
 2.8680	 2.2930
 2.8700	 2.3280
 2.8710	 2.2950
 2.8730	 2.3230
 2.8740	 2.3060
 2.8760	 2.3140
 2.8780	 2.3030
 2.8790	 2.3200
 2.8810	 2.2870
 2.8820	 2.3290
 2.8840	 2.3370
 2.8860	 2.2860
 2.8870	 2.2470
 2.8890	 2.2840
 2.8900	 2.2720
 2.8920	 2.2510
 2.8940	 2.2260
 2.8950	 2.2760
 2.8970	 2.2730
 2.8990	 2.2720
 2.9000	 2.2420
 2.9020	 2.2540
 2.9030	 2.2500
 2.9050	 2.2730
 2.9070	 2.2080
 2.9080	 2.2610
 2.9100	 2.2590
 2.9120	 2.2690
 2.9130	 2.2540
 2.9150	 2.3140
 2.9160	 2.2650
 2.9180	 2.2610
 2.9200	 2.3100
 2.9210	 2.3130
 2.9230	 2.2280
 2.9250	 2.2170
 2.9260	 2.1400
 2.9280	 2.1480
 2.9300	 2.1740
 2.9310	 2.1850
 2.9330	 2.1570
 2.9350	 2.1980
 2.9360	 2.1990
 2.9380	 2.2010
 2.9400	 2.1480
 2.9410	 2.1820
 2.9430	 2.1640
 2.9450	 2.1750
 2.9460	 2.1700
 2.9480	 2.1550
 2.9500	 2.1840
 2.9510	 2.2470
 2.9530	 2.2380
 2.9550	 2.2510
 2.9560	 2.1970
 2.9580	 2.1830
 2.9600	 2.1630
 2.9610	 2.1400
 2.9630	 2.0980
 2.9650	 2.1540
 2.9670	 2.1830
 2.9680	 2.1790
 2.9700	 2.1120
 2.9720	 2.1190
 2.9730	 2.1240
 2.9750	 2.1550
 2.9770	 2.0920
 2.9780	 2.0690
 2.9800	 2.0610
 2.9820	 2.1040
 2.9840	 2.1160
 2.9850	 2.1920
 2.9870	 2.1690
 2.9890	 2.1410
 2.9900	 2.1230
 2.9920	 2.1540
 2.9940	 2.1500
 2.9960	 2.1120
 2.9970	 2.0820
 2.9990	 2.1780
 3.0010	 2.1770
 3.0030	 2.2080
 3.0040	 2.1870
 3.0060	 2.1550
 3.0080	 2.1290
 3.0100	 2.1560
 3.0110	 2.1190
 3.0130	 2.0960
 3.0150	 2.0390
 3.0170	 2.1170
 3.0180	 2.1160
 3.0200	 2.0980
 3.0220	 2.1070
 3.0240	 2.1220
 3.0250	 2.0660
 3.0270	 2.0440
 3.0290	 2.0830
 3.0310	 2.1100
 3.0320	 2.0970
 3.0340	 2.1730
 3.0360	 2.1310
 3.0380	 2.0810
 3.0400	 2.0530
 3.0410	 2.0900
 3.0430	 2.0750
 3.0450	 2.1160
 3.0470	 2.1330
 3.0480	 2.1450
 3.0500	 2.1070
 3.0520	 2.1080
 3.0540	 2.0760
 3.0560	 2.1090
 3.0570	 2.0810
 3.0590	 2.0960
 3.0610	 2.0750
 3.0630	 2.0600
 3.0650	 2.0370
 3.0670	 2.0510
 3.0680	 1.9920
 3.0700	 2.0390
 3.0720	 2.0820
 3.0740	 2.0960
 3.0760	 2.0280
 3.0770	 2.0430
 3.0790	 2.0520
 3.0810	 2.0350
 3.0830	 2.0380
 3.0850	 2.0940
 3.0870	 2.0370
 3.0880	 2.0860
 3.0900	 2.1300
 3.0920	 2.1250
 3.0940	 2.0580
 3.0960	 2.0590
 3.0980	 2.0390
 3.1000	 2.0640
 3.1010	 2.0460
 3.1030	 2.0440
 3.1050	 2.0670
 3.1070	 2.0800
 3.1090	 2.0370
 3.1110	 2.0020
 3.1130	 1.9820
 3.1140	 2.0560
 3.1160	 2.0950
 3.1180	 2.1040
 3.1200	 2.0160
 3.1220	 2.0550
 3.1240	 2.0330
 3.1260	 2.0230
 3.1280	 2.0800
 3.1290	 2.1140
 3.1310	 2.0890
 3.1330	 2.1080
 3.1350	 2.0800
 3.1370	 2.0620
 3.1390	 2.0330
 3.1410	 2.0570
 3.1430	 2.0580
 3.1450	 2.1150
 3.1470	 2.1050
 3.1480	 2.0980
 3.1500	 2.0870
 3.1520	 2.1060
 3.1540	 2.0480
 3.1560	 2.0490
 3.1580	 2.0060
 3.1600	 2.0200
 3.1620	 2.0390
 3.1640	 2.0350
 3.1660	 2.0220
 3.1680	 2.0880
 3.1700	 2.0320
 3.1720	 2.0450
 3.1730	 2.0620
 3.1750	 2.0680
 3.1770	 2.0390
 3.1790	 2.0570
 3.1810	 2.0610
 3.1830	 2.0540
 3.1850	 2.0220
 3.1870	 2.0230
 3.1890	 2.0140
 3.1910	 2.0660
 3.1930	 2.0410
 3.1950	 2.0530
 3.1970	 2.0880
 3.1990	 2.1050
 3.2010	 2.0710
 3.2030	 2.0960
 3.2050	 2.0690
 3.2070	 2.0380
 3.2090	 2.0190
 3.2110	 2.0560
 3.2130	 2.0190
 3.2150	 2.0130
 3.2170	 2.0070
 3.2190	 2.0550
 3.2210	 2.0200
 3.2230	 2.0560
 3.2250	 2.0630
 3.2270	 2.0520
 3.2290	 2.0680
 3.2310	 2.0900
 3.2330	 2.0470
 3.2350	 2.0070
 3.2370	 1.9500
 3.2390	 1.9580
 3.2410	 1.9990
 3.2430	 2.0590
 3.2450	 2.0150
 3.2470	 2.0080
 3.2490	 2.0270
 3.2510	 2.1000
 3.2530	 2.0560
 3.2550	 2.0210
 3.2570	 1.9940
 3.2590	 2.0690
 3.2610	 2.0870
 3.2630	 2.0600
 3.2650	 2.0200
 3.2670	 2.0610
 3.2700	 2.0700
 3.2720	 2.0180
 3.2740	 1.9950
 3.2760	 2.0250
 3.2780	 1.9940
 3.2800	 2.0160
 3.2820	 2.0510
 3.2840	 2.0820
 3.2860	 2.0550
 3.2880	 1.9970
 3.2900	 1.9700
 3.2920	 2.0350
 3.2940	 2.0080
 3.2970	 1.9920
 3.2990	 1.9770
 3.3010	 2.0580
 3.3030	 2.0520
 3.3050	 2.0350
 3.3070	 2.0280
 3.3090	 2.0500
 3.3110	 2.0130
 3.3130	 2.0000
 3.3160	 1.9560
 3.3180	 1.9510
 3.3200	 1.9710
 3.3220	 1.9740
 3.3240	 1.9810
 3.3260	 2.0160
 3.3280	 1.9670
 3.3300	 1.9380
 3.3330	 1.9330
 3.3350	 1.9820
 3.3370	 1.9800
 3.3390	 1.9870
 3.3410	 1.9580
 3.3430	 1.9600
 3.3450	 1.9550
 3.3480	 1.9540
 3.3500	 1.9430
 3.3520	 1.9450
 3.3540	 1.9060
 3.3560	 1.9150
 3.3580	 1.8650
 3.3610	 1.8370
 3.3630	 1.8240
 3.3650	 1.8390
 3.3670	 1.8630
 3.3690	 1.9240
 3.3720	 1.9370
 3.3740	 1.9370
 3.3760	 1.9480
 3.3780	 1.9940
 3.3800	 1.9940
 3.3830	 2.0140
 3.3850	 1.9950
 3.3870	 1.9630
 3.3890	 1.9220
 3.3910	 1.9610
 3.3940	 1.9250
 3.3960	 1.9290
 3.3980	 1.9330
 3.4000	 1.9450
 3.4030	 1.9310
 3.4050	 2.0160
 3.4070	 2.0890
 3.4090	 2.1700
 3.4110	 2.2660
 3.4140	 2.3880
 3.4160	 2.5020
 3.4180	 2.7560
 3.4200	 3.0640
 3.4230	 3.5220
 3.4250	 4.0580
 3.4270	 4.5950
 3.4300	 4.8770
 3.4320	 4.7790
 3.4340	 4.3540
 3.4360	 3.9320
 3.4390	 3.6240
 3.4410	 3.4260
 3.4430	 3.2820
 3.4450	 3.2240
 3.4480	 3.1730
 3.4500	 3.1140
 3.4520	 3.0780
 3.4550	 3.0810
 3.4570	 3.0290
 3.4590	 2.9950
 3.4620	 2.9430
 3.4640	 2.8690
 3.4660	 2.8270
 3.4690	 2.8510
 3.4710	 2.7870
 3.4730	 2.6940
 3.4760	 2.6500
 3.4780	 2.6290
 3.4800	 2.5640
 3.4830	 2.5530
 3.4850	 2.5620
 3.4870	 2.5450
 3.4900	 2.4910
 3.4920	 2.4260
 3.4940	 2.3640
 3.4970	 2.4160
 3.4990	 2.4870
 3.5010	 2.5430
 3.5040	 2.7010
 3.5060	 3.1530
 3.5080	 3.8680
 3.5110	 4.5360
 3.5130	 4.5730
 3.5160	 4.2250
 3.5180	 3.9110
 3.5200	 3.6630
 3.5230	 3.4310
 3.5250	 3.3280
 3.5280	 3.2270
 3.5300	 3.1910
 3.5320	 3.1710
 3.5350	 3.1310
 3.5370	 3.0710
 3.5400	 3.0280
 3.5420	 2.9880
 3.5440	 3.0230
 3.5470	 3.0110
 3.5490	 3.0050
 3.5520	 2.9470
 3.5540	 2.9110
 3.5570	 2.9300
 3.5590	 2.9560
 3.5610	 2.9440
 3.5640	 2.9310
 3.5660	 2.9040
 3.5690	 2.9120
 3.5710	 2.9240
 3.5740	 2.9400
 3.5760	 2.9420
 3.5790	 2.9620
 3.5810	 2.9530
 3.5840	 2.9520
 3.5860	 2.9320
 3.5890	 2.9720
 3.5910	 3.0310
 3.5940	 3.0550
 3.5960	 3.0300
 3.5990	 3.0520
 3.6010	 3.0340
 3.6040	 3.0310
 3.6060	 3.0250
 3.6090	 3.0440
 3.6110	 3.0410
 3.6140	 3.0770
 3.6160	 3.1210
 3.6190	 3.1180
 3.6210	 3.0990
 3.6240	 3.1490
 3.6260	 3.1570
 3.6290	 3.1690
 3.6310	 3.1480
 3.6340	 3.1620
 3.6360	 3.1660
 3.6390	 3.1900
 3.6410	 3.2010
 3.6440	 3.2320
 3.6470	 3.2410
 3.6490	 3.2320
 3.6520	 3.2300
 3.6540	 3.2960
 3.6570	 3.2900
 3.6590	 3.3000
 3.6620	 3.3330
 3.6650	 3.4010
 3.6670	 3.4180
 3.6700	 3.3950
 3.6720	 3.3630
 3.6750	 3.3710
 3.6780	 3.3940
 3.6800	 3.4370
 3.6830	 3.4760
 3.6850	 3.5450
 3.6880	 3.5850
 3.6910	 3.5840
 3.6930	 3.5440
 3.6960	 3.5680
 3.6990	 3.6070
 3.7010	 3.6300
 3.7040	 3.6230
 3.7070	 3.6720
 3.7090	 3.7080
 3.7120	 3.7250
 3.7150	 3.7540
 3.7170	 3.7810
 3.7200	 3.7730
 3.7230	 3.8340
 3.7250	 3.8630
 3.7280	 3.8890
 3.7310	 3.9120
 3.7330	 3.9210
 3.7360	 3.9550
 3.7390	 3.9870
 3.7410	 3.9650
 3.7440	 4.0050
 3.7470	 4.1060
 3.7490	 4.1380
 3.7520	 4.1390
 3.7550	 4.1980
 3.7580	 4.2230
 3.7600	 4.2550
 3.7630	 4.2610
 3.7660	 4.2820
 3.7690	 4.3030
 3.7710	 4.3170
 3.7740	 4.3370
 3.7770	 4.4160
 3.7790	 4.4620
 3.7820	 4.4660
 3.7850	 4.4490
 3.7880	 4.4590
 3.7910	 4.4720
 3.7930	 4.5250
 3.7960	 4.5530
 3.7990	 4.5840
 3.8020	 4.6220
 3.8040	 4.6600
 3.8070	 4.6560
 3.8100	 4.6700
 3.8130	 4.7110
 3.8160	 4.7530
 3.8180	 4.7580
 3.8210	 4.7980
 3.8240	 4.8150
 3.8270	 4.8530
 3.8300	 4.8960
 3.8330	 4.9290
 3.8350	 4.9200
 3.8380	 4.9220
 3.8410	 4.9410
 3.8440	 4.9570
 3.8470	 4.9900
 3.8500	 5.0340
 3.8520	 5.0530
 3.8550	 5.0820
 3.8580	 5.0460
 3.8610	 5.0540
 3.8640	 5.0830
 3.8670	 5.1020
 3.8700	 5.0950
 3.8730	 5.0890
 3.8760	 5.1060
 3.8780	 5.1200
 3.8810	 5.1050
 3.8840	 5.1400
 3.8870	 5.1490
 3.8900	 5.1520
 3.8930	 5.1670
 3.8960	 5.1850
 3.8990	 5.1720
 3.9020	 5.1520
 3.9050	 5.1790
 3.9080	 5.2050
 3.9110	 5.1720
 3.9140	 5.1510
 3.9170	 5.1330
 3.9190	 5.1510
 3.9220	 5.1570
 3.9250	 5.1650
 3.9280	 5.1480
 3.9310	 5.1420
 3.9340	 5.1190
 3.9370	 5.1290
 3.9400	 5.1490
 3.9430	 5.1410
 3.9460	 5.1010
 3.9490	 5.1060
 3.9520	 5.1360
 3.9550	 5.1540
 3.9580	 5.1410
 3.9610	 5.1320
 3.9640	 5.1330
 3.9670	 5.1520
 3.9700	 5.1320
 3.9740	 5.1360
 3.9770	 5.1310
 3.9800	 5.1120
 3.9830	 5.0890
 3.9860	 5.0770
 3.9890	 5.0700
 3.9920	 5.1130
 3.9950	 5.1280
 3.9980	 5.1290
 4.0010	 5.1450
 4.0040	 5.1470
 4.0070	 5.1390
 4.0100	 5.1180
 4.0140	 5.0770
 4.0170	 5.0550
 4.0200	 5.0500
 4.0230	 5.0460
 4.0260	 5.0630
 4.0290	 5.0870
 4.0320	 5.0700
 4.0350	 5.0710
 4.0390	 5.1000
 4.0420	 5.0770
 4.0450	 5.0380
 4.0480	 5.0510
 4.0510	 5.0700
 4.0540	 5.0890
 4.0570	 5.0580
 4.0610	 5.0320
 4.0640	 5.0130
 4.0670	 4.9950
 4.0700	 5.0120
 4.0730	 5.0320
 4.0770	 4.9930
 4.0800	 4.9780
 4.0830	 5.0000
 4.0860	 4.9920
 4.0890	 4.9710
 4.0930	 4.9640
 4.0960	 4.9490
 4.0990	 4.9480
 4.1020	 4.9130
 4.1060	 4.8700
 4.1090	 4.8610
 4.1120	 4.9140
 4.1150	 4.9060
 4.1190	 4.8740
 4.1220	 4.8580
 4.1250	 4.8120
 4.1290	 4.7750
 4.1320	 4.7870
 4.1350	 4.7800
 4.1380	 4.7460
 4.1420	 4.7360
 4.1450	 4.7530
 4.1480	 4.7470
 4.1520	 4.7130
 4.1550	 4.6750
 4.1580	 4.6690
 4.1620	 4.6720
 4.1650	 4.6510
 4.1680	 4.6230
 4.1720	 4.6470
 4.1750	 4.6200
 4.1780	 4.5860
 4.1820	 4.5740
 4.1850	 4.5640
 4.1890	 4.5370
 4.1920	 4.5190
 4.1950	 4.5300
 4.1990	 4.5330
 4.2020	 4.5090
 4.2060	 4.5470
 4.2090	 4.5830
 4.2120	 4.6400
 4.2160	 4.6950
 4.2190	 4.7510
 4.2230	 4.7120
 4.2260	 4.7150
 4.2300	 4.7760
 4.2330	 4.7780
 4.2360	 4.7720
 4.2400	 4.7870
 4.2430	 4.6640
 4.2470	 4.5970
 4.2500	 4.5140
 4.2540	 4.3940
 4.2570	 4.3400
 4.2610	 4.3500
 4.2640	 4.3810
 4.2680	 4.4320
 4.2710	 4.3790
 4.2750	 4.3620
 4.2780	 4.3590
 4.2820	 4.2670
 4.2850	 4.2420
 4.2890	 4.2940
 4.2930	 4.2000
 4.2960	 4.1120
 4.3000	 4.0860
 4.3030	 4.0740
 4.3070	 4.0120
 4.3100	 3.9590
 4.3140	 3.8850
 4.3180	 3.8530
 4.3210	 3.8380
 4.3250	 3.8230
 4.3280	 3.7960
 4.3320	 3.7730
 4.3360	 3.7440
 4.3390	 3.7170
 4.3430	 3.6910
 4.3470	 3.6480
 4.3500	 3.6370
 4.3540	 3.6340
 4.3580	 3.5990
 4.3610	 3.5650
 4.3650	 3.5310
 4.3690	 3.5240
 4.3720	 3.4880
 4.3760	 3.4220
 4.3800	 3.3960
 4.3830	 3.4190
 4.3870	 3.4280
 4.3910	 3.3980
 4.3940	 3.3690
 4.3980	 3.3610
 4.4020	 3.3430
 4.4060	 3.3550
 4.4090	 3.3380
 4.4130	 3.2820
 4.4170	 3.2480
 4.4210	 3.2470
 4.4240	 3.2720
 4.4280	 3.2820
 4.4320	 3.2730
 4.4360	 3.2560
 4.4400	 3.1840
 4.4430	 3.1240
 4.4470	 3.1200
 4.4510	 3.1230
 4.4550	 3.0820
 4.4590	 3.0810
 4.4630	 3.0950
 4.4660	 3.0780
 4.4700	 3.0610
 4.4740	 3.0120
 4.4780	 2.9810
 4.4820	 2.9680
 4.4860	 2.9750
 4.4900	 3.0100
 4.4930	 3.0290
 4.4970	 3.0130
 4.5010	 2.9740
 4.5050	 2.9720
 4.5090	 2.9770
 4.5130	 2.9580
 4.5170	 2.9400
 4.5210	 2.9270
 4.5250	 2.9250
 4.5290	 2.9180
 4.5330	 2.9090
 4.5370	 2.9110
 4.5410	 2.8890
 4.5450	 2.8460
 4.5490	 2.8380
 4.5530	 2.8580
 4.5570	 2.8690
 4.5610	 2.8550
 4.5650	 2.7920
 4.5690	 2.7460
 4.5730	 2.7650
 4.5770	 2.7970
 4.5810	 2.8130
 4.5850	 2.7970
 4.5890	 2.7830
 4.5930	 2.7720
 4.5970	 2.7810
 4.6010	 2.7710
 4.6050	 2.7510
 4.6090	 2.7260
 4.6130	 2.7090
 4.6170	 2.6950
 4.6220	 2.7090
 4.6260	 2.7330
 4.6300	 2.7330
 4.6340	 2.6910
 4.6380	 2.6820
 4.6420	 2.6800
 4.6460	 2.7010
 4.6510	 2.7030
 4.6550	 2.6880
 4.6590	 2.6810
 4.6630	 2.6820
 4.6670	 2.6560
 4.6720	 2.6630
 4.6760	 2.6930
 4.6800	 2.7020
 4.6840	 2.7020
 4.6880	 2.7090
 4.6930	 2.6700
 4.6970	 2.6500
 4.7010	 2.6500
 4.7050	 2.6710
 4.7100	 2.6630
 4.7140	 2.6410
 4.7180	 2.6400
 4.7230	 2.6750
 4.7270	 2.6610
 4.7310	 2.6460
 4.7360	 2.6510
 4.7400	 2.6460
 4.7440	 2.6490
 4.7490	 2.6680
 4.7530	 2.6410
 4.7570	 2.6410
 4.7620	 2.6680
 4.7660	 2.7000
 4.7700	 2.6760
 4.7750	 2.6610
 4.7790	 2.6720
 4.7840	 2.6800
 4.7880	 2.7050
 4.7920	 2.7150
 4.7970	 2.6930
 4.8010	 2.7030
 4.8060	 2.6900
 4.8100	 2.7080
 4.8150	 2.7190
 4.8190	 2.7350
 4.8240	 2.7260
 4.8280	 2.7410
 4.8330	 2.7630
 4.8370	 2.7750
 4.8420	 2.7540
 4.8460	 2.7710
 4.8510	 2.7660
 4.8550	 2.7520
 4.8600	 2.7330
 4.8640	 2.7440
 4.8690	 2.7540
 4.8740	 2.7760
 4.8780	 2.7860
 4.8830	 2.8060
 4.8870	 2.8220
 4.8920	 2.8460
 4.8970	 2.8530
 4.9010	 2.8590
 4.9060	 2.8760
 4.9100	 2.8920
 4.9150	 2.8580
 4.9200	 2.8630
 4.9240	 2.8840
 4.9290	 2.9160
 4.9340	 2.9360
 4.9390	 2.9340
 4.9430	 2.9240
 4.9480	 2.9560
 4.9530	 2.9710
 4.9570	 2.9810
 4.9620	 3.0020
 4.9670	 3.0450
 4.9720	 3.0450
 4.9760	 3.0690
 4.9810	 3.0810
 4.9860	 3.1160
 4.9910	 3.1560
 4.9960	 3.1610
 5.0000	 3.1470
 5.0050	 3.1790
 5.0100	 3.1820
 5.0150	 3.1900
 5.0200	 3.1650
 5.0250	 3.1830
 5.0300	 3.2180
 5.0340	 3.2710
 5.0390	 3.2900
 5.0440	 3.3320
 5.0490	 3.3690
 5.0540	 3.4260
 5.0590	 3.4440
 5.0640	 3.4670
 5.0690	 3.4760
 5.0740	 3.5100
 5.0790	 3.4980
 5.0840	 3.4930
 5.0890	 3.5270
 5.0940	 3.5460
 5.0990	 3.5660
 5.1040	 3.6120
 5.1090	 3.5900
 5.1140	 3.6120
 5.1190	 3.6780
 5.1240	 3.7100
 5.1290	 3.7040
 5.1340	 3.7280
 5.1390	 3.7380
 5.1440	 3.7400
 5.1490	 3.7420
 5.1550	 3.7720
 5.1600	 3.7620
 5.1650	 3.7740
 5.1700	 3.8000
 5.1750	 3.8680
 5.1800	 3.9070
 5.1850	 3.9120
 5.1910	 3.8900
 5.1960	 3.9190
 5.2010	 3.9360
 5.2060	 3.9460
 5.2110	 3.8860
 5.2170	 3.8840
 5.2220	 3.9290
 5.2270	 3.9950
 5.2330	 4.0080
 5.2380	 4.0030
 5.2430	 3.9920
 5.2480	 4.0040
 5.2540	 3.9990
 5.2590	 3.9830
 5.2640	 3.9430
 5.2700	 3.9640
 5.2750	 3.9590
 5.2800	 3.9710
 5.2860	 4.0010
 5.2910	 4.0000
 5.2970	 3.9620
 5.3020	 4.0090
 5.3080	 4.0130
 5.3130	 4.0310
 5.3180	 3.9940
 5.3240	 3.9790
 5.3290	 3.9830
 5.3350	 3.9850
 5.3400	 3.9590
 5.3460	 3.9150
 5.3510	 3.8370
 5.3570	 3.8920
 5.3620	 3.9500
 5.3680	 3.9610
 5.3740	 3.9240
 5.3790	 3.8990
 5.3850	 3.8870
 5.3900	 3.9200
 5.3960	 3.8870
 5.4010	 3.8790
 5.4070	 3.8590
 5.4130	 3.8430
 5.4180	 3.7500
 5.4240	 3.7190
 5.4300	 3.7510
 5.4350	 3.7420
 5.4410	 3.7310
 5.4470	 3.7480
 5.4530	 3.7050
 5.4580	 3.6760
 5.4640	 3.6010
 5.4700	 3.5950
 5.4760	 3.5580
 5.4810	 3.5380
