Name: Baccharis pilularis 2
Type: vegetation
Class: Shrub
Genus: Baccharis
Species: pilularis
Sample No.: VH196
Owner: UCSB
Wavelength Range: VSWIR
Origin: 34.4186; -119.8458; WGS84
Collection Date: 10/13/2013
Description: Samples were collected as part of the HyspIRI Airborne Campaign. 48 individual plants were sampled in three times in 2013 - spring  summer  and fall. The name of the sample includes a 1  2  or 3 which references a different individual of the species. Samples were taken to JPL and processed within 48 hours of collection. The same leaves were processed in the Nicolet and then measured using the ASD.
Measurement: Bidirectional reflectance
First Column: X
Second Column: Y
X Units: Wavelength (micrometers)
Y Units: Reflectance (percentage)
First X Value: 0.35
Last X Value: 2.5
Number of X Values: 2151
Additional Information: vegetation.shrub.baccharis.pilularis.vswir.vh196.ucsb.asd.ancillary.txt

 0.3500	 4.4460
 0.3510	 4.2890
 0.3520	 4.1250
 0.3530	 4.0630
 0.3540	 4.1190
 0.3550	 3.9720
 0.3560	 3.9270
 0.3570	 4.0350
 0.3580	 4.1760
 0.3590	 4.0790
 0.3600	 3.9560
 0.3610	 3.9350
 0.3620	 3.9690
 0.3630	 3.9430
 0.3640	 3.9420
 0.3650	 4.0200
 0.3660	 3.9130
 0.3670	 3.8090
 0.3680	 3.7880
 0.3690	 3.8400
 0.3700	 3.9220
 0.3710	 3.9460
 0.3720	 3.9060
 0.3730	 3.9500
 0.3740	 4.0590
 0.3750	 4.0960
 0.3760	 3.9630
 0.3770	 3.9150
 0.3780	 4.0120
 0.3790	 4.1640
 0.3800	 4.1760
 0.3810	 4.1520
 0.3820	 4.1640
 0.3830	 4.2040
 0.3840	 4.1000
 0.3850	 4.0420
 0.3860	 4.0830
 0.3870	 4.2000
 0.3880	 4.2940
 0.3890	 4.2950
 0.3900	 4.2460
 0.3910	 4.2950
 0.3920	 4.2960
 0.3930	 4.3140
 0.3940	 4.3970
 0.3950	 4.4480
 0.3960	 4.5190
 0.3970	 4.5520
 0.3980	 4.4740
 0.3990	 4.5310
 0.4000	 4.6230
 0.4010	 4.6680
 0.4020	 4.6440
 0.4030	 4.7090
 0.4040	 4.8010
 0.4050	 4.8350
 0.4060	 4.8650
 0.4070	 4.8700
 0.4080	 4.8910
 0.4090	 4.9930
 0.4100	 5.0550
 0.4110	 5.0970
 0.4120	 5.1370
 0.4130	 5.1340
 0.4140	 5.1400
 0.4150	 5.1840
 0.4160	 5.2680
 0.4170	 5.3050
 0.4180	 5.3410
 0.4190	 5.3930
 0.4200	 5.4420
 0.4210	 5.4760
 0.4220	 5.5030
 0.4230	 5.5290
 0.4240	 5.5510
 0.4250	 5.5800
 0.4260	 5.6220
 0.4270	 5.6750
 0.4280	 5.7070
 0.4290	 5.7260
 0.4300	 5.7500
 0.4310	 5.8000
 0.4320	 5.8250
 0.4330	 5.8550
 0.4340	 5.9130
 0.4350	 5.9250
 0.4360	 5.9550
 0.4370	 5.9950
 0.4380	 5.9960
 0.4390	 5.9950
 0.4400	 6.0160
 0.4410	 6.0610
 0.4420	 6.0940
 0.4430	 6.1170
 0.4440	 6.1350
 0.4450	 6.1570
 0.4460	 6.1970
 0.4470	 6.2310
 0.4480	 6.2470
 0.4490	 6.2570
 0.4500	 6.2830
 0.4510	 6.3170
 0.4520	 6.3460
 0.4530	 6.3750
 0.4540	 6.4060
 0.4550	 6.4340
 0.4560	 6.4510
 0.4570	 6.4670
 0.4580	 6.4760
 0.4590	 6.4780
 0.4600	 6.4920
 0.4610	 6.5160
 0.4620	 6.5330
 0.4630	 6.5330
 0.4640	 6.5500
 0.4650	 6.5630
 0.4660	 6.5670
 0.4670	 6.5740
 0.4680	 6.5760
 0.4690	 6.5820
 0.4700	 6.5980
 0.4710	 6.6150
 0.4720	 6.6350
 0.4730	 6.6500
 0.4740	 6.6530
 0.4750	 6.6490
 0.4760	 6.6520
 0.4770	 6.6670
 0.4780	 6.6810
 0.4790	 6.6960
 0.4800	 6.7050
 0.4810	 6.7080
 0.4820	 6.7300
 0.4830	 6.7520
 0.4840	 6.7650
 0.4850	 6.7690
 0.4860	 6.7750
 0.4870	 6.7950
 0.4880	 6.8260
 0.4890	 6.8390
 0.4900	 6.8710
 0.4910	 6.9060
 0.4920	 6.9180
 0.4930	 6.9620
 0.4940	 7.0060
 0.4950	 7.0390
 0.4960	 7.0840
 0.4970	 7.1410
 0.4980	 7.2000
 0.4990	 7.2520
 0.5000	 7.3000
 0.5010	 7.3590
 0.5020	 7.4310
 0.5030	 7.5100
 0.5040	 7.5940
 0.5050	 7.6890
 0.5060	 7.7930
 0.5070	 7.9010
 0.5080	 8.0150
 0.5090	 8.1380
 0.5100	 8.2720
 0.5110	 8.4140
 0.5120	 8.5720
 0.5130	 8.7440
 0.5140	 8.9020
 0.5150	 9.0840
 0.5160	 9.2780
 0.5170	 9.4680
 0.5180	 9.6730
 0.5190	 9.8820
 0.5200	10.0940
 0.5210	10.3120
 0.5220	10.5210
 0.5230	10.7330
 0.5240	10.9500
 0.5250	11.1460
 0.5260	11.3320
 0.5270	11.5150
 0.5280	11.6980
 0.5290	11.8640
 0.5300	12.0140
 0.5310	12.1510
 0.5320	12.2760
 0.5330	12.3900
 0.5340	12.4950
 0.5350	12.5910
 0.5360	12.6760
 0.5370	12.7540
 0.5380	12.8230
 0.5390	12.8830
 0.5400	12.9340
 0.5410	12.9860
 0.5420	13.0380
 0.5430	13.0800
 0.5440	13.1270
 0.5450	13.1790
 0.5460	13.2270
 0.5470	13.2720
 0.5480	13.3090
 0.5490	13.3400
 0.5500	13.3760
 0.5510	13.3990
 0.5520	13.4180
 0.5530	13.4370
 0.5540	13.4380
 0.5550	13.4290
 0.5560	13.4120
 0.5570	13.3800
 0.5580	13.3400
 0.5590	13.2890
 0.5600	13.2250
 0.5610	13.1520
 0.5620	13.0670
 0.5630	12.9730
 0.5640	12.8740
 0.5650	12.7690
 0.5660	12.6580
 0.5670	12.5400
 0.5680	12.4210
 0.5690	12.2970
 0.5700	12.1730
 0.5710	12.0570
 0.5720	11.9330
 0.5730	11.8110
 0.5740	11.6970
 0.5750	11.5930
 0.5760	11.4850
 0.5770	11.3890
 0.5780	11.3070
 0.5790	11.2220
 0.5800	11.1390
 0.5810	11.0590
 0.5820	10.9840
 0.5830	10.9260
 0.5840	10.8840
 0.5850	10.8530
 0.5860	10.8190
 0.5870	10.7730
 0.5880	10.7180
 0.5890	10.6640
 0.5900	10.6120
 0.5910	10.5720
 0.5920	10.5400
 0.5930	10.5060
 0.5940	10.4770
 0.5950	10.4540
 0.5960	10.4350
 0.5970	10.4140
 0.5980	10.4010
 0.5990	10.3850
 0.6000	10.3600
 0.6010	10.3360
 0.6020	10.3100
 0.6030	10.2790
 0.6040	10.2420
 0.6050	10.2020
 0.6060	10.1560
 0.6070	10.1020
 0.6080	10.0440
 0.6090	 9.9800
 0.6100	 9.9150
 0.6110	 9.8540
 0.6120	 9.7930
 0.6130	 9.7350
 0.6140	 9.6800
 0.6150	 9.6200
 0.6160	 9.5600
 0.6170	 9.5050
 0.6180	 9.4610
 0.6190	 9.4230
 0.6200	 9.3840
 0.6210	 9.3440
 0.6220	 9.3160
 0.6230	 9.2960
 0.6240	 9.2800
 0.6250	 9.2630
 0.6260	 9.2480
 0.6270	 9.2380
 0.6280	 9.2320
 0.6290	 9.2260
 0.6300	 9.2170
 0.6310	 9.2090
 0.6320	 9.2020
 0.6330	 9.1880
 0.6340	 9.1670
 0.6350	 9.1370
 0.6360	 9.0990
 0.6370	 9.0570
 0.6380	 9.0070
 0.6390	 8.9460
 0.6400	 8.8750
 0.6410	 8.8060
 0.6420	 8.7370
 0.6430	 8.6650
 0.6440	 8.5860
 0.6450	 8.5140
 0.6460	 8.4470
 0.6470	 8.3800
 0.6480	 8.3150
 0.6490	 8.2610
 0.6500	 8.2170
 0.6510	 8.1700
 0.6520	 8.1360
 0.6530	 8.1050
 0.6540	 8.0710
 0.6550	 8.0350
 0.6560	 7.9940
 0.6570	 7.9500
 0.6580	 7.9040
 0.6590	 7.8560
 0.6600	 7.8020
 0.6610	 7.7470
 0.6620	 7.6970
 0.6630	 7.6450
 0.6640	 7.5970
 0.6650	 7.5580
 0.6660	 7.5190
 0.6670	 7.4900
 0.6680	 7.4690
 0.6690	 7.4530
 0.6700	 7.4410
 0.6710	 7.4370
 0.6720	 7.4410
 0.6730	 7.4470
 0.6740	 7.4610
 0.6750	 7.4820
 0.6760	 7.5060
 0.6770	 7.5290
 0.6780	 7.5640
 0.6790	 7.6100
 0.6800	 7.6590
 0.6810	 7.7150
 0.6820	 7.7810
 0.6830	 7.8570
 0.6840	 7.9410
 0.6850	 8.0510
 0.6860	 8.1830
 0.6870	 8.3280
 0.6880	 8.5060
 0.6890	 8.7220
 0.6900	 8.9800
 0.6910	 9.2850
 0.6920	 9.6350
 0.6930	10.0370
 0.6940	10.4970
 0.6950	11.0170
 0.6960	11.5900
 0.6970	12.2110
 0.6980	12.8740
 0.6990	13.5840
 0.7000	14.3290
 0.7010	15.1000
 0.7020	15.8940
 0.7030	16.7120
 0.7040	17.5370
 0.7050	18.3580
 0.7060	19.1870
 0.7070	20.0170
 0.7080	20.8450
 0.7090	21.6680
 0.7100	22.4930
 0.7110	23.3050
 0.7120	24.1030
 0.7130	24.9020
 0.7140	25.6890
 0.7150	26.4600
 0.7160	27.2180
 0.7170	27.9620
 0.7180	28.6920
 0.7190	29.4030
 0.7200	30.0870
 0.7210	30.7580
 0.7220	31.4060
 0.7230	32.0330
 0.7240	32.6510
 0.7250	33.2350
 0.7260	33.7860
 0.7270	34.3130
 0.7280	34.8250
 0.7290	35.3050
 0.7300	35.7550
 0.7310	36.1840
 0.7320	36.5860
 0.7330	36.9700
 0.7340	37.3350
 0.7350	37.6730
 0.7360	37.9920
 0.7370	38.2900
 0.7380	38.5620
 0.7390	38.8090
 0.7400	39.0570
 0.7410	39.2950
 0.7420	39.5020
 0.7430	39.6950
 0.7440	39.8720
 0.7450	40.0380
 0.7460	40.2020
 0.7470	40.3410
 0.7480	40.4630
 0.7490	40.5750
 0.7500	40.6740
 0.7510	40.7600
 0.7520	40.8430
 0.7530	40.9320
 0.7540	41.0170
 0.7550	41.0850
 0.7560	41.1400
 0.7570	41.1940
 0.7580	41.2510
 0.7590	41.3010
 0.7600	41.3410
 0.7610	41.3760
 0.7620	41.4120
 0.7630	41.4480
 0.7640	41.4810
 0.7650	41.5020
 0.7660	41.5310
 0.7670	41.5600
 0.7680	41.5640
 0.7690	41.5930
 0.7700	41.6250
 0.7710	41.6450
 0.7720	41.6570
 0.7730	41.6730
 0.7740	41.6900
 0.7750	41.7040
 0.7760	41.7270
 0.7770	41.7350
 0.7780	41.7370
 0.7790	41.7590
 0.7800	41.7970
 0.7810	41.8160
 0.7820	41.8200
 0.7830	41.8600
 0.7840	41.8890
 0.7850	41.8990
 0.7860	41.9020
 0.7870	41.9320
 0.7880	41.9640
 0.7890	41.9870
 0.7900	42.0010
 0.7910	42.0110
 0.7920	42.0320
 0.7930	42.0610
 0.7940	42.0850
 0.7950	42.0980
 0.7960	42.1140
 0.7970	42.1370
 0.7980	42.1480
 0.7990	42.1810
 0.8000	42.2150
 0.8010	42.2290
 0.8020	42.2420
 0.8030	42.2730
 0.8040	42.3080
 0.8050	42.3270
 0.8060	42.3440
 0.8070	42.3500
 0.8080	42.3600
 0.8090	42.4020
 0.8100	42.4370
 0.8110	42.4610
 0.8120	42.4780
 0.8130	42.4920
 0.8140	42.5050
 0.8150	42.5230
 0.8160	42.5460
 0.8170	42.5640
 0.8180	42.5960
 0.8190	42.6370
 0.8200	42.6680
 0.8210	42.6690
 0.8220	42.6730
 0.8230	42.6910
 0.8240	42.7110
 0.8250	42.7400
 0.8260	42.7660
 0.8270	42.7790
 0.8280	42.7910
 0.8290	42.8110
 0.8300	42.8270
 0.8310	42.8300
 0.8320	42.8500
 0.8330	42.8670
 0.8340	42.8800
 0.8350	42.8970
 0.8360	42.9220
 0.8370	42.9400
 0.8380	42.9560
 0.8390	42.9870
 0.8400	43.0000
 0.8410	43.0070
 0.8420	43.0190
 0.8430	43.0370
 0.8440	43.0420
 0.8450	43.0510
 0.8460	43.0770
 0.8470	43.1060
 0.8480	43.1290
 0.8490	43.1430
 0.8500	43.1500
 0.8510	43.1830
 0.8520	43.2070
 0.8530	43.2150
 0.8540	43.2200
 0.8550	43.2340
 0.8560	43.2570
 0.8570	43.2770
 0.8580	43.2750
 0.8590	43.2760
 0.8600	43.3000
 0.8610	43.3360
 0.8620	43.3350
 0.8630	43.3310
 0.8640	43.3440
 0.8650	43.3770
 0.8660	43.3880
 0.8670	43.4010
 0.8680	43.4130
 0.8690	43.4200
 0.8700	43.4260
 0.8710	43.4390
 0.8720	43.4510
 0.8730	43.4520
 0.8740	43.4830
 0.8750	43.5090
 0.8760	43.5180
 0.8770	43.5220
 0.8780	43.5270
 0.8790	43.5380
 0.8800	43.5540
 0.8810	43.5640
 0.8820	43.5830
 0.8830	43.5980
 0.8840	43.6020
 0.8850	43.6140
 0.8860	43.6190
 0.8870	43.6240
 0.8880	43.6400
 0.8890	43.6540
 0.8900	43.6800
 0.8910	43.7060
 0.8920	43.7150
 0.8930	43.7270
 0.8940	43.7270
 0.8950	43.7230
 0.8960	43.7400
 0.8970	43.7660
 0.8980	43.7820
 0.8990	43.7840
 0.9000	43.7890
 0.9010	43.8070
 0.9020	43.8170
 0.9030	43.8210
 0.9040	43.8550
 0.9050	43.8680
 0.9060	43.8630
 0.9070	43.8640
 0.9080	43.8940
 0.9090	43.9120
 0.9100	43.9240
 0.9110	43.9400
 0.9120	43.9340
 0.9130	43.9460
 0.9140	43.9720
 0.9150	43.9920
 0.9160	43.9860
 0.9170	43.9850
 0.9180	44.0040
 0.9190	44.0400
 0.9200	44.0510
 0.9210	44.0510
 0.9220	44.0460
 0.9230	44.0430
 0.9240	44.0550
 0.9250	44.0680
 0.9260	44.0750
 0.9270	44.0740
 0.9280	44.0670
 0.9290	44.0630
 0.9300	44.0530
 0.9310	44.0250
 0.9320	44.0360
 0.9330	44.0510
 0.9340	44.0530
 0.9350	44.0630
 0.9360	44.0520
 0.9370	44.0270
 0.9380	44.0040
 0.9390	43.9960
 0.9400	43.9990
 0.9410	43.9970
 0.9420	43.9780
 0.9430	43.9420
 0.9440	43.9180
 0.9450	43.9060
 0.9460	43.9000
 0.9470	43.9000
 0.9480	43.8840
 0.9490	43.8420
 0.9500	43.7810
 0.9510	43.7410
 0.9520	43.7040
 0.9530	43.6600
 0.9540	43.6060
 0.9550	43.5500
 0.9560	43.5220
 0.9570	43.5010
 0.9580	43.4650
 0.9590	43.4580
 0.9600	43.4300
 0.9610	43.3870
 0.9620	43.3570
 0.9630	43.3710
 0.9640	43.3550
 0.9650	43.3350
 0.9660	43.3530
 0.9670	43.3430
 0.9680	43.3350
 0.9690	43.3400
 0.9700	43.3560
 0.9710	43.3530
 0.9720	43.3530
 0.9730	43.3520
 0.9740	43.3450
 0.9750	43.3840
 0.9760	43.4000
 0.9770	43.3960
 0.9780	43.4130
 0.9790	43.4520
 0.9800	43.4920
 0.9810	43.5020
 0.9820	43.4750
 0.9830	43.5060
 0.9840	43.5280
 0.9850	43.5470
 0.9860	43.5950
 0.9870	43.6530
 0.9880	43.6780
 0.9890	43.6760
 0.9900	43.6810
 0.9910	43.7260
 0.9920	43.8190
 0.9930	43.9110
 0.9940	44.0040
 0.9950	44.0960
 0.9960	44.1890
 0.9970	44.2810
 0.9980	44.3740
 0.9990	44.4660
 1.0000	44.5590
 1.0010	44.6510
 1.0020	44.7440
 1.0030	44.8360
 1.0040	44.9290
 1.0050	45.0210
 1.0060	45.1140
 1.0070	45.2060
 1.0080	45.2990
 1.0090	45.3910
 1.0100	45.3910
 1.0110	45.4010
 1.0120	45.4250
 1.0130	45.4530
 1.0140	45.4780
 1.0150	45.5130
 1.0160	45.5350
 1.0170	45.5540
 1.0180	45.5710
 1.0190	45.6010
 1.0200	45.6390
 1.0210	45.6760
 1.0220	45.7150
 1.0230	45.7480
 1.0240	45.7810
 1.0250	45.8070
 1.0260	45.8230
 1.0270	45.8490
 1.0280	45.8830
 1.0290	45.9050
 1.0300	45.9190
 1.0310	45.9420
 1.0320	45.9600
 1.0330	45.9750
 1.0340	46.0020
 1.0350	46.0470
 1.0360	46.0720
 1.0370	46.0890
 1.0380	46.1110
 1.0390	46.1300
 1.0400	46.1480
 1.0410	46.1680
 1.0420	46.1870
 1.0430	46.2020
 1.0440	46.2190
 1.0450	46.2400
 1.0460	46.2540
 1.0470	46.2610
 1.0480	46.2720
 1.0490	46.2800
 1.0500	46.2880
 1.0510	46.2930
 1.0520	46.3070
 1.0530	46.3160
 1.0540	46.3210
 1.0550	46.3300
 1.0560	46.3420
 1.0570	46.3500
 1.0580	46.3550
 1.0590	46.3620
 1.0600	46.3670
 1.0610	46.3720
 1.0620	46.3750
 1.0630	46.3800
 1.0640	46.3800
 1.0650	46.3840
 1.0660	46.3930
 1.0670	46.4010
 1.0680	46.4090
 1.0690	46.4220
 1.0700	46.4230
 1.0710	46.4200
 1.0720	46.4190
 1.0730	46.4110
 1.0740	46.4080
 1.0750	46.4070
 1.0760	46.4050
 1.0770	46.4000
 1.0780	46.3990
 1.0790	46.4010
 1.0800	46.4010
 1.0810	46.4040
 1.0820	46.4030
 1.0830	46.3980
 1.0840	46.3950
 1.0850	46.3910
 1.0860	46.3860
 1.0870	46.3840
 1.0880	46.3850
 1.0890	46.3810
 1.0900	46.3730
 1.0910	46.3730
 1.0920	46.3790
 1.0930	46.3740
 1.0940	46.3660
 1.0950	46.3600
 1.0960	46.3450
 1.0970	46.3360
 1.0980	46.3430
 1.0990	46.3370
 1.1000	46.3220
 1.1010	46.3100
 1.1020	46.2970
 1.1030	46.2770
 1.1040	46.2640
 1.1050	46.2520
 1.1060	46.2440
 1.1070	46.2420
 1.1080	46.2320
 1.1090	46.2220
 1.1100	46.2120
 1.1110	46.1940
 1.1120	46.1830
 1.1130	46.1790
 1.1140	46.1690
 1.1150	46.1620
 1.1160	46.1470
 1.1170	46.1270
 1.1180	46.1040
 1.1190	46.0760
 1.1200	46.0450
 1.1210	46.0120
 1.1220	45.9780
 1.1230	45.9480
 1.1240	45.9120
 1.1250	45.8700
 1.1260	45.8280
 1.1270	45.7780
 1.1280	45.7210
 1.1290	45.6550
 1.1300	45.5880
 1.1310	45.5090
 1.1320	45.4150
 1.1330	45.3230
 1.1340	45.2270
 1.1350	45.1220
 1.1360	45.0110
 1.1370	44.8960
 1.1380	44.7700
 1.1390	44.6350
 1.1400	44.5020
 1.1410	44.3680
 1.1420	44.2300
 1.1430	44.0930
 1.1440	43.9540
 1.1450	43.8100
 1.1460	43.6740
 1.1470	43.5370
 1.1480	43.4110
 1.1490	43.2900
 1.1500	43.1770
 1.1510	43.0690
 1.1520	42.9700
 1.1530	42.8750
 1.1540	42.7930
 1.1550	42.7200
 1.1560	42.6590
 1.1570	42.6000
 1.1580	42.5510
 1.1590	42.5060
 1.1600	42.4590
 1.1610	42.4220
 1.1620	42.3920
 1.1630	42.3640
 1.1640	42.3430
 1.1650	42.3230
 1.1660	42.3050
 1.1670	42.2930
 1.1680	42.2880
 1.1690	42.2810
 1.1700	42.2800
 1.1710	42.2740
 1.1720	42.2620
 1.1730	42.2560
 1.1740	42.2500
 1.1750	42.2460
 1.1760	42.2470
 1.1770	42.2500
 1.1780	42.2460
 1.1790	42.2420
 1.1800	42.2340
 1.1810	42.2180
 1.1820	42.2060
 1.1830	42.1950
 1.1840	42.1850
 1.1850	42.1790
 1.1860	42.1750
 1.1870	42.1730
 1.1880	42.1710
 1.1890	42.1690
 1.1900	42.1690
 1.1910	42.1690
 1.1920	42.1710
 1.1930	42.1760
 1.1940	42.1810
 1.1950	42.1850
 1.1960	42.1890
 1.1970	42.1940
 1.1980	42.2040
 1.1990	42.2170
 1.2000	42.2290
 1.2010	42.2500
 1.2020	42.2660
 1.2030	42.2860
 1.2040	42.3130
 1.2050	42.3380
 1.2060	42.3630
 1.2070	42.3860
 1.2080	42.4100
 1.2090	42.4350
 1.2100	42.4640
 1.2110	42.4950
 1.2120	42.5290
 1.2130	42.5620
 1.2140	42.5990
 1.2150	42.6320
 1.2160	42.6630
 1.2170	42.6960
 1.2180	42.7270
 1.2190	42.7530
 1.2200	42.7830
 1.2210	42.8160
 1.2220	42.8450
 1.2230	42.8730
 1.2240	42.8980
 1.2250	42.9260
 1.2260	42.9540
 1.2270	42.9850
 1.2280	43.0190
 1.2290	43.0470
 1.2300	43.0770
 1.2310	43.1090
 1.2320	43.1350
 1.2330	43.1630
 1.2340	43.1920
 1.2350	43.2220
 1.2360	43.2500
 1.2370	43.2800
 1.2380	43.3090
 1.2390	43.3370
 1.2400	43.3570
 1.2410	43.3780
 1.2420	43.4030
 1.2430	43.4220
 1.2440	43.4420
 1.2450	43.4640
 1.2460	43.4800
 1.2470	43.4930
 1.2480	43.5020
 1.2490	43.5160
 1.2500	43.5360
 1.2510	43.5520
 1.2520	43.5740
 1.2530	43.5900
 1.2540	43.5950
 1.2550	43.6060
 1.2560	43.6140
 1.2570	43.6190
 1.2580	43.6290
 1.2590	43.6390
 1.2600	43.6490
 1.2610	43.6590
 1.2620	43.6710
 1.2630	43.6800
 1.2640	43.6790
 1.2650	43.6890
 1.2660	43.6960
 1.2670	43.6920
 1.2680	43.6980
 1.2690	43.6960
 1.2700	43.6920
 1.2710	43.6960
 1.2720	43.6920
 1.2730	43.6790
 1.2740	43.6650
 1.2750	43.6500
 1.2760	43.6380
 1.2770	43.6270
 1.2780	43.6120
 1.2790	43.5950
 1.2800	43.5760
 1.2810	43.5550
 1.2820	43.5330
 1.2830	43.5100
 1.2840	43.4850
 1.2850	43.4570
 1.2860	43.4330
 1.2870	43.4050
 1.2880	43.3740
 1.2890	43.3420
 1.2900	43.3090
 1.2910	43.2660
 1.2920	43.2250
 1.2930	43.1810
 1.2940	43.1360
 1.2950	43.1010
 1.2960	43.0590
 1.2970	43.0140
 1.2980	42.9680
 1.2990	42.9100
 1.3000	42.8520
 1.3010	42.7950
 1.3020	42.7320
 1.3030	42.6720
 1.3040	42.6120
 1.3050	42.5450
 1.3060	42.4800
 1.3070	42.4080
 1.3080	42.3300
 1.3090	42.2540
 1.3100	42.1750
 1.3110	42.0900
 1.3120	42.0060
 1.3130	41.9170
 1.3140	41.8250
 1.3150	41.7310
 1.3160	41.6320
 1.3170	41.5280
 1.3180	41.4200
 1.3190	41.3110
 1.3200	41.1970
 1.3210	41.0810
 1.3220	40.9630
 1.3230	40.8420
 1.3240	40.7220
 1.3250	40.6050
 1.3260	40.4830
 1.3270	40.3550
 1.3280	40.2250
 1.3290	40.0890
 1.3300	39.9520
 1.3310	39.8170
 1.3320	39.6770
 1.3330	39.5360
 1.3340	39.3920
 1.3350	39.2470
 1.3360	39.1030
 1.3370	38.9560
 1.3380	38.8080
 1.3390	38.6590
 1.3400	38.5110
 1.3410	38.3650
 1.3420	38.2210
 1.3430	38.0770
 1.3440	37.9380
 1.3450	37.8000
 1.3460	37.6650
 1.3470	37.5330
 1.3480	37.4040
 1.3490	37.2720
 1.3500	37.1410
 1.3510	37.0100
 1.3520	36.8800
 1.3530	36.7520
 1.3540	36.6280
 1.3550	36.5040
 1.3560	36.3780
 1.3570	36.2530
 1.3580	36.1220
 1.3590	35.9860
 1.3600	35.8460
 1.3610	35.6970
 1.3620	35.5430
 1.3630	35.3850
 1.3640	35.2170
 1.3650	35.0410
 1.3660	34.8610
 1.3670	34.6670
 1.3680	34.4590
 1.3690	34.2410
 1.3700	34.0050
 1.3710	33.7560
 1.3720	33.4980
 1.3730	33.2210
 1.3740	32.9300
 1.3750	32.6210
 1.3760	32.2880
 1.3770	31.9330
 1.3780	31.5570
 1.3790	31.1630
 1.3800	30.7490
 1.3810	30.3120
 1.3820	29.8550
 1.3830	29.3780
 1.3840	28.8830
 1.3850	28.3630
 1.3860	27.8380
 1.3870	27.2940
 1.3880	26.7490
 1.3890	26.1960
 1.3900	25.6340
 1.3910	25.0770
 1.3920	24.5180
 1.3930	23.9600
 1.3940	23.4110
 1.3950	22.8610
 1.3960	22.3240
 1.3970	21.8050
 1.3980	21.2990
 1.3990	20.8190
 1.4000	20.3570
 1.4010	19.9100
 1.4020	19.4870
 1.4030	19.0800
 1.4040	18.6950
 1.4050	18.3370
 1.4060	17.9980
 1.4070	17.6860
 1.4080	17.3920
 1.4090	17.1130
 1.4100	16.8560
 1.4110	16.6170
 1.4120	16.3980
 1.4130	16.1970
 1.4140	16.0100
 1.4150	15.8410
 1.4160	15.6870
 1.4170	15.5470
 1.4180	15.4200
 1.4190	15.3040
 1.4200	15.1980
 1.4210	15.1010
 1.4220	15.0130
 1.4230	14.9340
 1.4240	14.8640
 1.4250	14.8000
 1.4260	14.7440
 1.4270	14.6920
 1.4280	14.6460
 1.4290	14.6050
 1.4300	14.5700
 1.4310	14.5400
 1.4320	14.5170
 1.4330	14.4970
 1.4340	14.4820
 1.4350	14.4690
 1.4360	14.4590
 1.4370	14.4530
 1.4380	14.4500
 1.4390	14.4500
 1.4400	14.4540
 1.4410	14.4590
 1.4420	14.4660
 1.4430	14.4750
 1.4440	14.4850
 1.4450	14.4950
 1.4460	14.5060
 1.4470	14.5240
 1.4480	14.5430
 1.4490	14.5640
 1.4500	14.5850
 1.4510	14.6020
 1.4520	14.6200
 1.4530	14.6380
 1.4540	14.6580
 1.4550	14.6800
 1.4560	14.7030
 1.4570	14.7320
 1.4580	14.7660
 1.4590	14.8040
 1.4600	14.8470
 1.4610	14.8930
 1.4620	14.9430
 1.4630	14.9960
 1.4640	15.0520
 1.4650	15.1100
 1.4660	15.1720
 1.4670	15.2380
 1.4680	15.3110
 1.4690	15.3890
