Name: Umbellularia californica 1
Type: vegetation
Class: Shrub
Genus: Umbellularia
Species: californica
Sample No.: VH026
Owner: UCSB
Wavelength Range: VSWIR
Origin: 34.5074; -119.7634; WGS84
Collection Date: 4/1/2013
Description: Samples were collected as part of the HyspIRI Airborne Campaign. 48 individual plants were sampled in three times in 2013 - spring  summer  and fall. The name of the sample includes a 1  2  or 3 which references a different individual of the species. Samples were taken to JPL and processed within 48 hours of collection. The same leaves were processed in the Nicolet and then measured using the ASD.
Measurement: Bidirectional reflectance
First Column: X
Second Column: Y
X Units: Wavelength (micrometers)
Y Units: Reflectance (percentage)
First X Value: 0.35
Last X Value: 2.5
Number of X Values: 2151
Additional Information: vegetation.shrub.umbellularia.californica.vswir.vh026.ucsb.asd.ancillary.txt

 0.3500	 6.9180
 0.3510	 6.8350
 0.3520	 6.8190
 0.3530	 6.9170
 0.3540	 7.0800
 0.3550	 6.9230
 0.3560	 6.8050
 0.3570	 6.8500
 0.3580	 7.0020
 0.3590	 6.8950
 0.3600	 6.8300
 0.3610	 6.8920
 0.3620	 6.7690
 0.3630	 6.7220
 0.3640	 6.7470
 0.3650	 6.7770
 0.3660	 6.7750
 0.3670	 6.8110
 0.3680	 6.8240
 0.3690	 6.6940
 0.3700	 6.6910
 0.3710	 6.7120
 0.3720	 6.6920
 0.3730	 6.7400
 0.3740	 6.7630
 0.3750	 6.7520
 0.3760	 6.7300
 0.3770	 6.7390
 0.3780	 6.7580
 0.3790	 6.7350
 0.3800	 6.6090
 0.3810	 6.5910
 0.3820	 6.6540
 0.3830	 6.7280
 0.3840	 6.7390
 0.3850	 6.7130
 0.3860	 6.6790
 0.3870	 6.6660
 0.3880	 6.7010
 0.3890	 6.7040
 0.3900	 6.6610
 0.3910	 6.6360
 0.3920	 6.6240
 0.3930	 6.6210
 0.3940	 6.6180
 0.3950	 6.5920
 0.3960	 6.6000
 0.3970	 6.6230
 0.3980	 6.6130
 0.3990	 6.6060
 0.4000	 6.5910
 0.4010	 6.5730
 0.4020	 6.5790
 0.4030	 6.5760
 0.4040	 6.5660
 0.4050	 6.5670
 0.4060	 6.6170
 0.4070	 6.6310
 0.4080	 6.6160
 0.4090	 6.6300
 0.4100	 6.6230
 0.4110	 6.6180
 0.4120	 6.6310
 0.4130	 6.6370
 0.4140	 6.6490
 0.4150	 6.6730
 0.4160	 6.7050
 0.4170	 6.7180
 0.4180	 6.7330
 0.4190	 6.7500
 0.4200	 6.7580
 0.4210	 6.7790
 0.4220	 6.8030
 0.4230	 6.8210
 0.4240	 6.8450
 0.4250	 6.8550
 0.4260	 6.8730
 0.4270	 6.9270
 0.4280	 6.9540
 0.4290	 6.9780
 0.4300	 7.0110
 0.4310	 7.0340
 0.4320	 7.0560
 0.4330	 7.0810
 0.4340	 7.1080
 0.4350	 7.1230
 0.4360	 7.1440
 0.4370	 7.1720
 0.4380	 7.1930
 0.4390	 7.2130
 0.4400	 7.2350
 0.4410	 7.2580
 0.4420	 7.2830
 0.4430	 7.2910
 0.4440	 7.2970
 0.4450	 7.3240
 0.4460	 7.3430
 0.4470	 7.3570
 0.4480	 7.3700
 0.4490	 7.3930
 0.4500	 7.3960
 0.4510	 7.4040
 0.4520	 7.4330
 0.4530	 7.4430
 0.4540	 7.4590
 0.4550	 7.4800
 0.4560	 7.4860
 0.4570	 7.4870
 0.4580	 7.4930
 0.4590	 7.5080
 0.4600	 7.5360
 0.4610	 7.5440
 0.4620	 7.5410
 0.4630	 7.5460
 0.4640	 7.5540
 0.4650	 7.5650
 0.4660	 7.5760
 0.4670	 7.5830
 0.4680	 7.5880
 0.4690	 7.5880
 0.4700	 7.5850
 0.4710	 7.5920
 0.4720	 7.6020
 0.4730	 7.6120
 0.4740	 7.6190
 0.4750	 7.6170
 0.4760	 7.6140
 0.4770	 7.6150
 0.4780	 7.6150
 0.4790	 7.6130
 0.4800	 7.6130
 0.4810	 7.6200
 0.4820	 7.6300
 0.4830	 7.6350
 0.4840	 7.6390
 0.4850	 7.6490
 0.4860	 7.6570
 0.4870	 7.6640
 0.4880	 7.6730
 0.4890	 7.6870
 0.4900	 7.7010
 0.4910	 7.7190
 0.4920	 7.7420
 0.4930	 7.7670
 0.4940	 7.7930
 0.4950	 7.8200
 0.4960	 7.8470
 0.4970	 7.8760
 0.4980	 7.9050
 0.4990	 7.9340
 0.5000	 7.9830
 0.5010	 8.0310
 0.5020	 8.0730
 0.5030	 8.1220
 0.5040	 8.1780
 0.5050	 8.2400
 0.5060	 8.3070
 0.5070	 8.3800
 0.5080	 8.4660
 0.5090	 8.5570
 0.5100	 8.6480
 0.5110	 8.7470
 0.5120	 8.8610
 0.5130	 8.9880
 0.5140	 9.1180
 0.5150	 9.2610
 0.5160	 9.4110
 0.5170	 9.5630
 0.5180	 9.7300
 0.5190	 9.9130
 0.5200	10.1040
 0.5210	10.2920
 0.5220	10.4870
 0.5230	10.6860
 0.5240	10.8860
 0.5250	11.0870
 0.5260	11.2850
 0.5270	11.4790
 0.5280	11.6700
 0.5290	11.8520
 0.5300	12.0300
 0.5310	12.2020
 0.5320	12.3580
 0.5330	12.5140
 0.5340	12.6670
 0.5350	12.8110
 0.5360	12.9420
 0.5370	13.0690
 0.5380	13.1910
 0.5390	13.3010
 0.5400	13.4090
 0.5410	13.5170
 0.5420	13.6220
 0.5430	13.7230
 0.5440	13.8160
 0.5450	13.9030
 0.5460	13.9840
 0.5470	14.0540
 0.5480	14.1210
 0.5490	14.1840
 0.5500	14.2330
 0.5510	14.2680
 0.5520	14.2900
 0.5530	14.2940
 0.5540	14.2820
 0.5550	14.2600
 0.5560	14.2260
 0.5570	14.1710
 0.5580	14.1070
 0.5590	14.0360
 0.5600	13.9610
 0.5610	13.8830
 0.5620	13.8000
 0.5630	13.7090
 0.5640	13.6040
 0.5650	13.4800
 0.5660	13.3460
 0.5670	13.2090
 0.5680	13.0740
 0.5690	12.9370
 0.5700	12.7930
 0.5710	12.6390
 0.5720	12.4820
 0.5730	12.3350
 0.5740	12.2050
 0.5750	12.0920
 0.5760	12.0020
 0.5770	11.9260
 0.5780	11.8560
 0.5790	11.7930
 0.5800	11.7350
 0.5810	11.6710
 0.5820	11.5920
 0.5830	11.5020
 0.5840	11.4170
 0.5850	11.3450
 0.5860	11.2800
 0.5870	11.2250
 0.5880	11.1810
 0.5890	11.1500
 0.5900	11.1280
 0.5910	11.1080
 0.5920	11.0800
 0.5930	11.0400
 0.5940	11.0040
 0.5950	10.9680
 0.5960	10.9330
 0.5970	10.9030
 0.5980	10.8740
 0.5990	10.8390
 0.6000	10.7950
 0.6010	10.7510
 0.6020	10.7060
 0.6030	10.6620
 0.6040	10.6180
 0.6050	10.5730
 0.6060	10.5210
 0.6070	10.4610
 0.6080	10.4010
 0.6090	10.3360
 0.6100	10.2670
 0.6110	10.1980
 0.6120	10.1290
 0.6130	10.0610
 0.6140	 9.9960
 0.6150	 9.9350
 0.6160	 9.8760
 0.6170	 9.8190
 0.6180	 9.7660
 0.6190	 9.7200
 0.6200	 9.6820
 0.6210	 9.6480
 0.6220	 9.6140
 0.6230	 9.5830
 0.6240	 9.5590
 0.6250	 9.5430
 0.6260	 9.5260
 0.6270	 9.5120
 0.6280	 9.5020
 0.6290	 9.4940
 0.6300	 9.4860
 0.6310	 9.4760
 0.6320	 9.4660
 0.6330	 9.4550
 0.6340	 9.4390
 0.6350	 9.4180
 0.6360	 9.3910
 0.6370	 9.3570
 0.6380	 9.3120
 0.6390	 9.2600
 0.6400	 9.2060
 0.6410	 9.1490
 0.6420	 9.0870
 0.6430	 9.0190
 0.6440	 8.9500
 0.6450	 8.8840
 0.6460	 8.8180
 0.6470	 8.7530
 0.6480	 8.6930
 0.6490	 8.6380
 0.6500	 8.5890
 0.6510	 8.5450
 0.6520	 8.5040
 0.6530	 8.4660
 0.6540	 8.4280
 0.6550	 8.3880
 0.6560	 8.3450
 0.6570	 8.2990
 0.6580	 8.2530
 0.6590	 8.2020
 0.6600	 8.1520
 0.6610	 8.1040
 0.6620	 8.0520
 0.6630	 8.0070
 0.6640	 7.9680
 0.6650	 7.9310
 0.6660	 7.9010
 0.6670	 7.8750
 0.6680	 7.8550
 0.6690	 7.8380
 0.6700	 7.8300
 0.6710	 7.8240
 0.6720	 7.8200
 0.6730	 7.8230
 0.6740	 7.8310
 0.6750	 7.8400
 0.6760	 7.8500
 0.6770	 7.8660
 0.6780	 7.8850
 0.6790	 7.9080
 0.6800	 7.9390
 0.6810	 7.9710
 0.6820	 8.0100
 0.6830	 8.0630
 0.6840	 8.1260
 0.6850	 8.2020
 0.6860	 8.2990
 0.6870	 8.4250
 0.6880	 8.5740
 0.6890	 8.7590
 0.6900	 8.9870
 0.6910	 9.2640
 0.6920	 9.5940
 0.6930	 9.9830
 0.6940	10.4390
 0.6950	10.9660
 0.6960	11.5550
 0.6970	12.2090
 0.6980	12.9270
 0.6990	13.6990
 0.7000	14.5190
 0.7010	15.3790
 0.7020	16.2750
 0.7030	17.1920
 0.7040	18.1240
 0.7050	19.0640
 0.7060	20.0050
 0.7070	20.9420
 0.7080	21.8680
 0.7090	22.7830
 0.7100	23.6840
 0.7110	24.5680
 0.7120	25.4310
 0.7130	26.2730
 0.7140	27.0930
 0.7150	27.8910
 0.7160	28.6670
 0.7170	29.4190
 0.7180	30.1480
 0.7190	30.8530
 0.7200	31.5300
 0.7210	32.1850
 0.7220	32.8160
 0.7230	33.4230
 0.7240	34.0050
 0.7250	34.5610
 0.7260	35.0890
 0.7270	35.5910
 0.7280	36.0700
 0.7290	36.5240
 0.7300	36.9550
 0.7310	37.3650
 0.7320	37.7520
 0.7330	38.1160
 0.7340	38.4600
 0.7350	38.7900
 0.7360	39.0960
 0.7370	39.3800
 0.7380	39.6470
 0.7390	39.9070
 0.7400	40.1480
 0.7410	40.3700
 0.7420	40.5790
 0.7430	40.7770
 0.7440	40.9560
 0.7450	41.1210
 0.7460	41.2790
 0.7470	41.4270
 0.7480	41.5630
 0.7490	41.6850
 0.7500	41.7940
 0.7510	41.8990
 0.7520	41.9940
 0.7530	42.0730
 0.7540	42.1520
 0.7550	42.2260
 0.7560	42.2930
 0.7570	42.3540
 0.7580	42.4050
 0.7590	42.4530
 0.7600	42.5010
 0.7610	42.5430
 0.7620	42.5780
 0.7630	42.6090
 0.7640	42.6380
 0.7650	42.6590
 0.7660	42.6810
 0.7670	42.7070
 0.7680	42.7280
 0.7690	42.7470
 0.7700	42.7650
 0.7710	42.7830
 0.7720	42.7980
 0.7730	42.8120
 0.7740	42.8230
 0.7750	42.8280
 0.7760	42.8410
 0.7770	42.8510
 0.7780	42.8580
 0.7790	42.8650
 0.7800	42.8760
 0.7810	42.8860
 0.7820	42.8940
 0.7830	42.9010
 0.7840	42.9100
 0.7850	42.9210
 0.7860	42.9310
 0.7870	42.9390
 0.7880	42.9430
 0.7890	42.9460
 0.7900	42.9510
 0.7910	42.9540
 0.7920	42.9540
 0.7930	42.9570
 0.7940	42.9670
 0.7950	42.9670
 0.7960	42.9660
 0.7970	42.9690
 0.7980	42.9760
 0.7990	42.9750
 0.8000	42.9730
 0.8010	42.9730
 0.8020	42.9720
 0.8030	42.9710
 0.8040	42.9700
 0.8050	42.9690
 0.8060	42.9610
 0.8070	42.9560
 0.8080	42.9540
 0.8090	42.9520
 0.8100	42.9460
 0.8110	42.9380
 0.8120	42.9320
 0.8130	42.9290
 0.8140	42.9190
 0.8150	42.9070
 0.8160	42.9010
 0.8170	42.8970
 0.8180	42.8890
 0.8190	42.8780
 0.8200	42.8690
 0.8210	42.8590
 0.8220	42.8440
 0.8230	42.8300
 0.8240	42.8320
 0.8250	42.8230
 0.8260	42.8110
 0.8270	42.8000
 0.8280	42.7870
 0.8290	42.7780
 0.8300	42.7690
 0.8310	42.7570
 0.8320	42.7430
 0.8330	42.7320
 0.8340	42.7210
 0.8350	42.7070
 0.8360	42.6980
 0.8370	42.6930
 0.8380	42.6880
 0.8390	42.6760
 0.8400	42.6700
 0.8410	42.6630
 0.8420	42.6540
 0.8430	42.6440
 0.8440	42.6390
 0.8450	42.6370
 0.8460	42.6330
 0.8470	42.6220
 0.8480	42.6130
 0.8490	42.6080
 0.8500	42.6060
 0.8510	42.5970
 0.8520	42.5970
 0.8530	42.5990
 0.8540	42.5910
 0.8550	42.5840
 0.8560	42.5800
 0.8570	42.5780
 0.8580	42.5760
 0.8590	42.5730
 0.8600	42.5700
 0.8610	42.5700
 0.8620	42.5710
 0.8630	42.5720
 0.8640	42.5690
 0.8650	42.5610
 0.8660	42.5520
 0.8670	42.5500
 0.8680	42.5550
 0.8690	42.5610
 0.8700	42.5580
 0.8710	42.5570
 0.8720	42.5580
 0.8730	42.5550
 0.8740	42.5590
 0.8750	42.5620
 0.8760	42.5630
 0.8770	42.5630
 0.8780	42.5640
 0.8790	42.5650
 0.8800	42.5650
 0.8810	42.5580
 0.8820	42.5600
 0.8830	42.5680
 0.8840	42.5750
 0.8850	42.5740
 0.8860	42.5760
 0.8870	42.5790
 0.8880	42.5820
 0.8890	42.5850
 0.8900	42.5900
 0.8910	42.5930
 0.8920	42.5920
 0.8930	42.5930
 0.8940	42.5950
 0.8950	42.5980
 0.8960	42.5990
 0.8970	42.6050
 0.8980	42.6070
 0.8990	42.6070
 0.9000	42.6120
 0.9010	42.6080
 0.9020	42.6090
 0.9030	42.6170
 0.9040	42.6210
 0.9050	42.6160
 0.9060	42.6130
 0.9070	42.6210
 0.9080	42.6330
 0.9090	42.6360
 0.9100	42.6320
 0.9110	42.6300
 0.9120	42.6260
 0.9130	42.6310
 0.9140	42.6350
 0.9150	42.6320
 0.9160	42.6270
 0.9170	42.6350
 0.9180	42.6440
 0.9190	42.6390
 0.9200	42.6420
 0.9210	42.6430
 0.9220	42.6430
 0.9230	42.6430
 0.9240	42.6320
 0.9250	42.6260
 0.9260	42.6240
 0.9270	42.6150
 0.9280	42.6140
 0.9290	42.6110
 0.9300	42.6040
 0.9310	42.5980
 0.9320	42.5910
 0.9330	42.5820
 0.9340	42.5720
 0.9350	42.5580
 0.9360	42.5390
 0.9370	42.5290
 0.9380	42.5280
 0.9390	42.5120
 0.9400	42.5030
 0.9410	42.4920
 0.9420	42.4710
 0.9430	42.4460
 0.9440	42.4300
 0.9450	42.4130
 0.9460	42.3890
 0.9470	42.3640
 0.9480	42.3380
 0.9490	42.3150
 0.9500	42.2920
 0.9510	42.2490
 0.9520	42.2120
 0.9530	42.1830
 0.9540	42.1500
 0.9550	42.0970
 0.9560	42.0460
 0.9570	42.0080
 0.9580	41.9810
 0.9590	41.9530
 0.9600	41.9290
 0.9610	41.9060
 0.9620	41.8800
 0.9630	41.8510
 0.9640	41.8210
 0.9650	41.7980
 0.9660	41.7850
 0.9670	41.7700
 0.9680	41.7620
 0.9690	41.7570
 0.9700	41.7450
 0.9710	41.7250
 0.9720	41.7180
 0.9730	41.7210
 0.9740	41.7170
 0.9750	41.7020
 0.9760	41.6950
 0.9770	41.6950
 0.9780	41.6900
 0.9790	41.6800
 0.9800	41.6750
 0.9810	41.6780
 0.9820	41.6840
 0.9830	41.6760
 0.9840	41.6670
 0.9850	41.6700
 0.9860	41.6900
 0.9870	41.6780
 0.9880	41.6830
 0.9890	41.7030
 0.9900	41.7090
 0.9910	41.6950
 0.9920	41.6980
 0.9930	41.7010
 0.9940	41.7030
 0.9950	41.7060
 0.9960	41.7090
 0.9970	41.7110
 0.9980	41.7140
 0.9990	41.7170
 1.0000	41.7190
 1.0010	41.7220
 1.0020	41.7250
 1.0030	41.7270
 1.0040	41.7300
 1.0050	41.7320
 1.0060	41.7350
 1.0070	41.7380
 1.0080	41.7400
 1.0090	41.7430
 1.0100	41.7430
 1.0110	41.7470
 1.0120	41.7540
 1.0130	41.7580
 1.0140	41.7660
 1.0150	41.7810
 1.0160	41.7880
 1.0170	41.7930
 1.0180	41.8020
 1.0190	41.8080
 1.0200	41.8110
 1.0210	41.8180
 1.0220	41.8260
 1.0230	41.8320
 1.0240	41.8390
 1.0250	41.8450
 1.0260	41.8480
 1.0270	41.8520
 1.0280	41.8530
 1.0290	41.8580
 1.0300	41.8640
 1.0310	41.8710
 1.0320	41.8810
 1.0330	41.8890
 1.0340	41.8980
 1.0350	41.9010
 1.0360	41.9020
 1.0370	41.9040
 1.0380	41.9080
 1.0390	41.9110
 1.0400	41.9150
 1.0410	41.9210
 1.0420	41.9250
 1.0430	41.9280
 1.0440	41.9310
 1.0450	41.9340
 1.0460	41.9350
 1.0470	41.9360
 1.0480	41.9370
 1.0490	41.9380
 1.0500	41.9390
 1.0510	41.9400
 1.0520	41.9400
 1.0530	41.9410
 1.0540	41.9440
 1.0550	41.9440
 1.0560	41.9440
 1.0570	41.9430
 1.0580	41.9400
 1.0590	41.9410
 1.0600	41.9450
 1.0610	41.9450
 1.0620	41.9430
 1.0630	41.9440
 1.0640	41.9450
 1.0650	41.9450
 1.0660	41.9470
 1.0670	41.9470
 1.0680	41.9460
 1.0690	41.9400
 1.0700	41.9400
 1.0710	41.9420
 1.0720	41.9430
 1.0730	41.9440
 1.0740	41.9450
 1.0750	41.9450
 1.0760	41.9440
 1.0770	41.9430
 1.0780	41.9410
 1.0790	41.9350
 1.0800	41.9300
 1.0810	41.9250
 1.0820	41.9210
 1.0830	41.9200
 1.0840	41.9170
 1.0850	41.9120
 1.0860	41.9090
 1.0870	41.9040
 1.0880	41.8970
 1.0890	41.8920
 1.0900	41.8890
 1.0910	41.8840
 1.0920	41.8790
 1.0930	41.8730
 1.0940	41.8640
 1.0950	41.8560
 1.0960	41.8490
 1.0970	41.8430
 1.0980	41.8390
 1.0990	41.8320
 1.1000	41.8240
 1.1010	41.8150
 1.1020	41.8030
 1.1030	41.7940
 1.1040	41.7830
 1.1050	41.7730
 1.1060	41.7630
 1.1070	41.7560
 1.1080	41.7450
 1.1090	41.7350
 1.1100	41.7220
 1.1110	41.7060
 1.1120	41.6920
 1.1130	41.6770
 1.1140	41.6620
 1.1150	41.6470
 1.1160	41.6320
 1.1170	41.6160
 1.1180	41.5990
 1.1190	41.5800
 1.1200	41.5600
 1.1210	41.5390
 1.1220	41.5160
 1.1230	41.4890
 1.1240	41.4610
 1.1250	41.4280
 1.1260	41.3920
 1.1270	41.3520
 1.1280	41.3100
 1.1290	41.2640
 1.1300	41.2130
 1.1310	41.1590
 1.1320	41.1020
 1.1330	41.0390
 1.1340	40.9740
 1.1350	40.9020
 1.1360	40.8240
 1.1370	40.7430
 1.1380	40.6570
 1.1390	40.5670
 1.1400	40.4750
 1.1410	40.3830
 1.1420	40.2910
 1.1430	40.1970
 1.1440	40.1040
 1.1450	40.0100
 1.1460	39.9200
 1.1470	39.8290
 1.1480	39.7430
 1.1490	39.6600
 1.1500	39.5840
 1.1510	39.5130
 1.1520	39.4470
 1.1530	39.3870
 1.1540	39.3300
 1.1550	39.2770
 1.1560	39.2280
 1.1570	39.1850
 1.1580	39.1460
 1.1590	39.1110
 1.1600	39.0810
 1.1610	39.0540
 1.1620	39.0280
 1.1630	39.0050
 1.1640	38.9830
 1.1650	38.9640
 1.1660	38.9470
 1.1670	38.9310
 1.1680	38.9170
 1.1690	38.9020
 1.1700	38.8880
 1.1710	38.8730
 1.1720	38.8580
 1.1730	38.8430
 1.1740	38.8280
 1.1750	38.8100
 1.1760	38.7920
 1.1770	38.7730
 1.1780	38.7530
 1.1790	38.7350
 1.1800	38.7130
 1.1810	38.6920
 1.1820	38.6700
 1.1830	38.6470
 1.1840	38.6260
 1.1850	38.6060
 1.1860	38.5870
 1.1870	38.5670
 1.1880	38.5500
 1.1890	38.5340
 1.1900	38.5200
 1.1910	38.5100
 1.1920	38.5010
 1.1930	38.4940
 1.1940	38.4890
 1.1950	38.4860
 1.1960	38.4850
 1.1970	38.4860
 1.1980	38.4890
 1.1990	38.4920
 1.2000	38.4960
 1.2010	38.5010
 1.2020	38.5100
 1.2030	38.5190
 1.2040	38.5310
 1.2050	38.5450
 1.2060	38.5570
 1.2070	38.5700
 1.2080	38.5840
 1.2090	38.5980
 1.2100	38.6140
 1.2110	38.6310
 1.2120	38.6510
 1.2130	38.6710
 1.2140	38.6930
 1.2150	38.7150
 1.2160	38.7380
 1.2170	38.7610
 1.2180	38.7840
 1.2190	38.8080
 1.2200	38.8340
 1.2210	38.8590
 1.2220	38.8840
 1.2230	38.9090
 1.2240	38.9340
 1.2250	38.9600
 1.2260	38.9850
 1.2270	39.0090
 1.2280	39.0310
 1.2290	39.0530
 1.2300	39.0730
 1.2310	39.0920
 1.2320	39.1110
 1.2330	39.1270
 1.2340	39.1440
 1.2350	39.1590
 1.2360	39.1750
 1.2370	39.1910
 1.2380	39.2070
 1.2390	39.2210
 1.2400	39.2330
 1.2410	39.2440
 1.2420	39.2540
 1.2430	39.2640
 1.2440	39.2740
 1.2450	39.2830
 1.2460	39.2900
 1.2470	39.2980
 1.2480	39.3060
 1.2490	39.3150
 1.2500	39.3210
 1.2510	39.3260
 1.2520	39.3300
 1.2530	39.3340
 1.2540	39.3380
 1.2550	39.3420
 1.2560	39.3460
 1.2570	39.3480
 1.2580	39.3480
 1.2590	39.3480
 1.2600	39.3450
 1.2610	39.3430
 1.2620	39.3410
 1.2630	39.3400
 1.2640	39.3380
 1.2650	39.3360
 1.2660	39.3320
 1.2670	39.3240
 1.2680	39.3170
 1.2690	39.3100
 1.2700	39.3010
 1.2710	39.2930
 1.2720	39.2850
 1.2730	39.2750
 1.2740	39.2650
 1.2750	39.2560
 1.2760	39.2460
 1.2770	39.2340
 1.2780	39.2220
 1.2790	39.2080
 1.2800	39.1940
 1.2810	39.1790
 1.2820	39.1660
 1.2830	39.1530
 1.2840	39.1370
 1.2850	39.1200
 1.2860	39.1030
 1.2870	39.0850
 1.2880	39.0660
 1.2890	39.0440
 1.2900	39.0230
 1.2910	38.9990
 1.2920	38.9750
 1.2930	38.9510
 1.2940	38.9270
 1.2950	38.9010
 1.2960	38.8740
 1.2970	38.8440
 1.2980	38.8120
 1.2990	38.7800
 1.3000	38.7470
 1.3010	38.7110
 1.3020	38.6750
 1.3030	38.6350
 1.3040	38.5930
 1.3050	38.5500
 1.3060	38.5060
 1.3070	38.4610
 1.3080	38.4160
 1.3090	38.3670
 1.3100	38.3150
 1.3110	38.2630
 1.3120	38.2070
 1.3130	38.1500
 1.3140	38.0910
 1.3150	38.0310
 1.3160	37.9680
 1.3170	37.9030
 1.3180	37.8350
 1.3190	37.7650
 1.3200	37.6930
 1.3210	37.6170
 1.3220	37.5390
 1.3230	37.4590
 1.3240	37.3770
 1.3250	37.2940
 1.3260	37.2090
 1.3270	37.1220
 1.3280	37.0330
 1.3290	36.9420
 1.3300	36.8500
 1.3310	36.7560
 1.3320	36.6600
 1.3330	36.5640
 1.3340	36.4660
 1.3350	36.3670
 1.3360	36.2680
 1.3370	36.1650
 1.3380	36.0630
 1.3390	35.9610
 1.3400	35.8590
 1.3410	35.7590
 1.3420	35.6580
 1.3430	35.5560
 1.3440	35.4540
 1.3450	35.3520
 1.3460	35.2490
 1.3470	35.1470
 1.3480	35.0460
 1.3490	34.9440
 1.3500	34.8430
 1.3510	34.7410
 1.3520	34.6390
 1.3530	34.5390
 1.3540	34.4360
 1.3550	34.3320
 1.3560	34.2280
 1.3570	34.1230
 1.3580	34.0180
 1.3590	33.9120
 1.3600	33.8040
 1.3610	33.6920
 1.3620	33.5750
 1.3630	33.4560
 1.3640	33.3310
 1.3650	33.2020
 1.3660	33.0680
 1.3670	32.9250
 1.3680	32.7740
 1.3690	32.6150
 1.3700	32.4450
 1.3710	32.2660
 1.3720	32.0780
 1.3730	31.8760
 1.3740	31.6620
 1.3750	31.4330
 1.3760	31.1880
 1.3770	30.9280
 1.3780	30.6470
 1.3790	30.3500
 1.3800	30.0370
 1.3810	29.7020
 1.3820	29.3530
 1.3830	28.9880
 1.3840	28.6080
 1.3850	28.2110
 1.3860	27.8020
 1.3870	27.3770
 1.3880	26.9460
 1.3890	26.5040
 1.3900	26.0520
 1.3910	25.6010
 1.3920	25.1420
 1.3930	24.6790
 1.3940	24.2180
 1.3950	23.7550
 1.3960	23.2960
 1.3970	22.8450
 1.3980	22.4000
 1.3990	21.9710
 1.4000	21.5510
 1.4010	21.1430
 1.4020	20.7520
 1.4030	20.3720
 1.4040	20.0090
 1.4050	19.6650
 1.4060	19.3360
 1.4070	19.0290
 1.4080	18.7400
 1.4090	18.4690
 1.4100	18.2170
 1.4110	17.9820
 1.4120	17.7640
 1.4130	17.5620
 1.4140	17.3760
 1.4150	17.2070
 1.4160	17.0530
 1.4170	16.9130
 1.4180	16.7870
 1.4190	16.6710
 1.4200	16.5660
 1.4210	16.4730
 1.4220	16.3880
 1.4230	16.3150
 1.4240	16.2500
 1.4250	16.1920
 1.4260	16.1440
 1.4270	16.1000
 1.4280	16.0640
 1.4290	16.0320
 1.4300	16.0070
 1.4310	15.9860
 1.4320	15.9720
 1.4330	15.9610
 1.4340	15.9550
 1.4350	15.9520
 1.4360	15.9530
 1.4370	15.9570
 1.4380	15.9640
 1.4390	15.9740
 1.4400	15.9870
 1.4410	16.0010
 1.4420	16.0180
 1.4430	16.0370
 1.4440	16.0580
 1.4450	16.0800
 1.4460	16.1030
 1.4470	16.1290
 1.4480	16.1540
 1.4490	16.1800
 1.4500	16.2080
 1.4510	16.2350
 1.4520	16.2630
 1.4530	16.2930
 1.4540	16.3230
 1.4550	16.3560
 1.4560	16.3890
 1.4570	16.4250
 1.4580	16.4640
 1.4590	16.5030
 1.4600	16.5470
 1.4610	16.5960
 1.4620	16.6470
 1.4630	16.7030
 1.4640	16.7620
 1.4650	16.8250
 1.4660	16.8930
 1.4670	16.9640
 1.4680	17.0420
 1.4690	17.1210
