Name: Umbellularia californica 3
Type: vegetation
Class: Shrub
Genus: Umbellularia
Species: californica
Sample No.: VH107
Owner: UCSB
Wavelength Range: VSWIR
Origin: 34.5075; -119.763; WGS84
Collection Date: 6/3/2013
Description: Samples were collected as part of the HyspIRI Airborne Campaign. 48 individual plants were sampled in three times in 2013 - spring  summer  and fall. The name of the sample includes a 1  2  or 3 which references a different individual of the species. Samples were taken to JPL and processed within 48 hours of collection. The same leaves were processed in the Nicolet and then measured using the ASD.
Measurement: Bidirectional reflectance
First Column: X
Second Column: Y
X Units: Wavelength (micrometers)
Y Units: Reflectance (percentage)
First X Value: 0.35
Last X Value: 2.5
Number of X Values: 2151
Additional Information: vegetation.shrub.umbellularia.californica.vswir.vh107.ucsb.asd.ancillary.txt

 0.3500	 5.2350
 0.3510	 4.9970
 0.3520	 4.9150
 0.3530	 4.9230
 0.3540	 4.9070
 0.3550	 5.0220
 0.3560	 4.9830
 0.3570	 4.8730
 0.3580	 4.9330
 0.3590	 4.9630
 0.3600	 4.9210
 0.3610	 4.8430
 0.3620	 4.8360
 0.3630	 4.8830
 0.3640	 4.9440
 0.3650	 4.9590
 0.3660	 4.8090
 0.3670	 4.7810
 0.3680	 4.8470
 0.3690	 4.7770
 0.3700	 4.7690
 0.3710	 4.7900
 0.3720	 4.7940
 0.3730	 4.7750
 0.3740	 4.7860
 0.3750	 4.8050
 0.3760	 4.7990
 0.3770	 4.7920
 0.3780	 4.8120
 0.3790	 4.8370
 0.3800	 4.8140
 0.3810	 4.7390
 0.3820	 4.7270
 0.3830	 4.8130
 0.3840	 4.8140
 0.3850	 4.8190
 0.3860	 4.8200
 0.3870	 4.7880
 0.3880	 4.7620
 0.3890	 4.7710
 0.3900	 4.7850
 0.3910	 4.7230
 0.3920	 4.7000
 0.3930	 4.6950
 0.3940	 4.6850
 0.3950	 4.7320
 0.3960	 4.7590
 0.3970	 4.7460
 0.3980	 4.7110
 0.3990	 4.7080
 0.4000	 4.7220
 0.4010	 4.7290
 0.4020	 4.7100
 0.4030	 4.7160
 0.4040	 4.7470
 0.4050	 4.7830
 0.4060	 4.7640
 0.4070	 4.7480
 0.4080	 4.7520
 0.4090	 4.7700
 0.4100	 4.7830
 0.4110	 4.7930
 0.4120	 4.7970
 0.4130	 4.7870
 0.4140	 4.7940
 0.4150	 4.8160
 0.4160	 4.8410
 0.4170	 4.8510
 0.4180	 4.8630
 0.4190	 4.8900
 0.4200	 4.9370
 0.4210	 4.9530
 0.4220	 4.9660
 0.4230	 5.0000
 0.4240	 5.0290
 0.4250	 5.0590
 0.4260	 5.0870
 0.4270	 5.1060
 0.4280	 5.1220
 0.4290	 5.1410
 0.4300	 5.1660
 0.4310	 5.2020
 0.4320	 5.2310
 0.4330	 5.2500
 0.4340	 5.2630
 0.4350	 5.2810
 0.4360	 5.2860
 0.4370	 5.2870
 0.4380	 5.3160
 0.4390	 5.3450
 0.4400	 5.3640
 0.4410	 5.3740
 0.4420	 5.3790
 0.4430	 5.3970
 0.4440	 5.4170
 0.4450	 5.4240
 0.4460	 5.4500
 0.4470	 5.4660
 0.4480	 5.4680
 0.4490	 5.4780
 0.4500	 5.5000
 0.4510	 5.5260
 0.4520	 5.5480
 0.4530	 5.5580
 0.4540	 5.5690
 0.4550	 5.5780
 0.4560	 5.5740
 0.4570	 5.5770
 0.4580	 5.5830
 0.4590	 5.5880
 0.4600	 5.5960
 0.4610	 5.6010
 0.4620	 5.6000
 0.4630	 5.5970
 0.4640	 5.6210
 0.4650	 5.6300
 0.4660	 5.6200
 0.4670	 5.6300
 0.4680	 5.6360
 0.4690	 5.6340
 0.4700	 5.6270
 0.4710	 5.6240
 0.4720	 5.6290
 0.4730	 5.6350
 0.4740	 5.6350
 0.4750	 5.6300
 0.4760	 5.6300
 0.4770	 5.6370
 0.4780	 5.6330
 0.4790	 5.6390
 0.4800	 5.6470
 0.4810	 5.6500
 0.4820	 5.6540
 0.4830	 5.6590
 0.4840	 5.6660
 0.4850	 5.6760
 0.4860	 5.6900
 0.4870	 5.7020
 0.4880	 5.7140
 0.4890	 5.7240
 0.4900	 5.7410
 0.4910	 5.7620
 0.4920	 5.7840
 0.4930	 5.8080
 0.4940	 5.8340
 0.4950	 5.8620
 0.4960	 5.8960
 0.4970	 5.9320
 0.4980	 5.9670
 0.4990	 6.0020
 0.5000	 6.0530
 0.5010	 6.1060
 0.5020	 6.1620
 0.5030	 6.2300
 0.5040	 6.3050
 0.5050	 6.3880
 0.5060	 6.4790
 0.5070	 6.5770
 0.5080	 6.6800
 0.5090	 6.7930
 0.5100	 6.9230
 0.5110	 7.0580
 0.5120	 7.2040
 0.5130	 7.3660
 0.5140	 7.5400
 0.5150	 7.7210
 0.5160	 7.9160
 0.5170	 8.1300
 0.5180	 8.3520
 0.5190	 8.5730
 0.5200	 8.7970
 0.5210	 9.0350
 0.5220	 9.2650
 0.5230	 9.4920
 0.5240	 9.7220
 0.5250	 9.9490
 0.5260	10.1670
 0.5270	10.3720
 0.5280	10.5650
 0.5290	10.7450
 0.5300	10.9150
 0.5310	11.0700
 0.5320	11.2080
 0.5330	11.3340
 0.5340	11.4500
 0.5350	11.5560
 0.5360	11.6530
 0.5370	11.7390
 0.5380	11.8160
 0.5390	11.8880
 0.5400	11.9530
 0.5410	12.0160
 0.5420	12.0760
 0.5430	12.1360
 0.5440	12.1920
 0.5450	12.2420
 0.5460	12.2820
 0.5470	12.3160
 0.5480	12.3470
 0.5490	12.3760
 0.5500	12.4030
 0.5510	12.4180
 0.5520	12.4260
 0.5530	12.4280
 0.5540	12.4080
 0.5550	12.3730
 0.5560	12.3250
 0.5570	12.2600
 0.5580	12.1840
 0.5590	12.0990
 0.5600	12.0040
 0.5610	11.8970
 0.5620	11.7840
 0.5630	11.6650
 0.5640	11.5380
 0.5650	11.3960
 0.5660	11.2480
 0.5670	11.0990
 0.5680	10.9550
 0.5690	10.8050
 0.5700	10.6480
 0.5710	10.4900
 0.5720	10.3450
 0.5730	10.2080
 0.5740	10.0760
 0.5750	 9.9410
 0.5760	 9.8100
 0.5770	 9.6850
 0.5780	 9.5690
 0.5790	 9.4650
 0.5800	 9.3700
 0.5810	 9.2840
 0.5820	 9.2100
 0.5830	 9.1370
 0.5840	 9.0650
 0.5850	 8.9960
 0.5860	 8.9370
 0.5870	 8.8890
 0.5880	 8.8490
 0.5890	 8.8140
 0.5900	 8.7780
 0.5910	 8.7360
 0.5920	 8.6940
 0.5930	 8.6620
 0.5940	 8.6330
 0.5950	 8.6060
 0.5960	 8.5810
 0.5970	 8.5570
 0.5980	 8.5240
 0.5990	 8.4900
 0.6000	 8.4600
 0.6010	 8.4260
 0.6020	 8.3850
 0.6030	 8.3380
 0.6040	 8.2950
 0.6050	 8.2470
 0.6060	 8.1920
 0.6070	 8.1340
 0.6080	 8.0780
 0.6090	 8.0200
 0.6100	 7.9600
 0.6110	 7.8990
 0.6120	 7.8330
 0.6130	 7.7640
 0.6140	 7.6950
 0.6150	 7.6300
 0.6160	 7.5700
 0.6170	 7.5130
 0.6180	 7.4600
 0.6190	 7.4110
 0.6200	 7.3670
 0.6210	 7.3280
 0.6220	 7.3000
 0.6230	 7.2730
 0.6240	 7.2470
 0.6250	 7.2260
 0.6260	 7.2110
 0.6270	 7.1970
 0.6280	 7.1830
 0.6290	 7.1700
 0.6300	 7.1590
 0.6310	 7.1480
 0.6320	 7.1360
 0.6330	 7.1190
 0.6340	 7.0980
 0.6350	 7.0700
 0.6360	 7.0360
 0.6370	 6.9960
 0.6380	 6.9490
 0.6390	 6.8960
 0.6400	 6.8400
 0.6410	 6.7770
 0.6420	 6.7130
 0.6430	 6.6500
 0.6440	 6.5890
 0.6450	 6.5260
 0.6460	 6.4650
 0.6470	 6.4110
 0.6480	 6.3580
 0.6490	 6.3140
 0.6500	 6.2770
 0.6510	 6.2390
 0.6520	 6.2060
 0.6530	 6.1760
 0.6540	 6.1450
 0.6550	 6.1120
 0.6560	 6.0800
 0.6570	 6.0450
 0.6580	 6.0060
 0.6590	 5.9670
 0.6600	 5.9260
 0.6610	 5.8830
 0.6620	 5.8380
 0.6630	 5.8000
 0.6640	 5.7650
 0.6650	 5.7290
 0.6660	 5.7050
 0.6670	 5.6850
 0.6680	 5.6690
 0.6690	 5.6570
 0.6700	 5.6500
 0.6710	 5.6490
 0.6720	 5.6530
 0.6730	 5.6580
 0.6740	 5.6690
 0.6750	 5.6830
 0.6760	 5.6990
 0.6770	 5.7200
 0.6780	 5.7440
 0.6790	 5.7710
 0.6800	 5.8020
 0.6810	 5.8410
 0.6820	 5.8840
 0.6830	 5.9320
 0.6840	 5.9880
 0.6850	 6.0560
 0.6860	 6.1390
 0.6870	 6.2420
 0.6880	 6.3690
 0.6890	 6.5250
 0.6900	 6.7160
 0.6910	 6.9540
 0.6920	 7.2410
 0.6930	 7.5870
 0.6940	 7.9990
 0.6950	 8.4730
 0.6960	 9.0120
 0.6970	 9.6190
 0.6980	10.2920
 0.6990	11.0260
 0.7000	11.8150
 0.7010	12.6530
 0.7020	13.5310
 0.7030	14.4390
 0.7040	15.3720
 0.7050	16.3260
 0.7060	17.2910
 0.7070	18.2680
 0.7080	19.2540
 0.7090	20.2480
 0.7100	21.2460
 0.7110	22.2480
 0.7120	23.2520
 0.7130	24.2640
 0.7140	25.2750
 0.7150	26.2920
 0.7160	27.3100
 0.7170	28.3230
 0.7180	29.3350
 0.7190	30.3460
 0.7200	31.3530
 0.7210	32.3510
 0.7220	33.3390
 0.7230	34.3170
 0.7240	35.2850
 0.7250	36.2400
 0.7260	37.1760
 0.7270	38.0910
 0.7280	38.9800
 0.7290	39.8470
 0.7300	40.6890
 0.7310	41.5000
 0.7320	42.2950
 0.7330	43.0580
 0.7340	43.7860
 0.7350	44.4850
 0.7360	45.1670
 0.7370	45.8190
 0.7380	46.4310
 0.7390	47.0160
 0.7400	47.5730
 0.7410	48.1010
 0.7420	48.5990
 0.7430	49.0840
 0.7440	49.5340
 0.7450	49.9460
 0.7460	50.3340
 0.7470	50.6980
 0.7480	51.0390
 0.7490	51.3530
 0.7500	51.6430
 0.7510	51.9180
 0.7520	52.1720
 0.7530	52.3980
 0.7540	52.6110
 0.7550	52.8040
 0.7560	52.9820
 0.7570	53.1560
 0.7580	53.3050
 0.7590	53.4390
 0.7600	53.5670
 0.7610	53.6820
 0.7620	53.7890
 0.7630	53.8870
 0.7640	53.9720
 0.7650	54.0490
 0.7660	54.1250
 0.7670	54.1940
 0.7680	54.2460
 0.7690	54.3010
 0.7700	54.3580
 0.7710	54.4120
 0.7720	54.4500
 0.7730	54.4870
 0.7740	54.5260
 0.7750	54.5610
 0.7760	54.5840
 0.7770	54.6210
 0.7780	54.6570
 0.7790	54.6650
 0.7800	54.6910
 0.7810	54.7210
 0.7820	54.7520
 0.7830	54.7870
 0.7840	54.8020
 0.7850	54.8070
 0.7860	54.8170
 0.7870	54.8460
 0.7880	54.8660
 0.7890	54.8780
 0.7900	54.8940
 0.7910	54.9120
 0.7920	54.9220
 0.7930	54.9280
 0.7940	54.9370
 0.7950	54.9490
 0.7960	54.9590
 0.7970	54.9670
 0.7980	54.9730
 0.7990	54.9800
 0.8000	54.9890
 0.8010	55.0010
 0.8020	55.0010
 0.8030	54.9980
 0.8040	54.9930
 0.8050	54.9870
 0.8060	54.9820
 0.8070	54.9830
 0.8080	54.9840
 0.8090	54.9680
 0.8100	54.9710
 0.8110	54.9740
 0.8120	54.9670
 0.8130	54.9610
 0.8140	54.9540
 0.8150	54.9440
 0.8160	54.9320
 0.8170	54.9250
 0.8180	54.9200
 0.8190	54.9150
 0.8200	54.9070
 0.8210	54.8990
 0.8220	54.8870
 0.8230	54.8760
 0.8240	54.8700
 0.8250	54.8520
 0.8260	54.8370
 0.8270	54.8280
 0.8280	54.8150
 0.8290	54.8020
 0.8300	54.7930
 0.8310	54.7840
 0.8320	54.7650
 0.8330	54.7550
 0.8340	54.7490
 0.8350	54.7350
 0.8360	54.7330
 0.8370	54.7290
 0.8380	54.7190
 0.8390	54.7140
 0.8400	54.7060
 0.8410	54.7000
 0.8420	54.7010
 0.8430	54.7060
 0.8440	54.7040
 0.8450	54.7000
 0.8460	54.7000
 0.8470	54.6980
 0.8480	54.6870
 0.8490	54.6830
 0.8500	54.6990
 0.8510	54.7090
 0.8520	54.7020
 0.8530	54.6910
 0.8540	54.6960
 0.8550	54.7080
 0.8560	54.7100
 0.8570	54.7010
 0.8580	54.6990
 0.8590	54.6950
 0.8600	54.7010
 0.8610	54.7170
 0.8620	54.7170
 0.8630	54.7230
 0.8640	54.7240
 0.8650	54.7150
 0.8660	54.7310
 0.8670	54.7380
 0.8680	54.7320
 0.8690	54.7240
 0.8700	54.7270
 0.8710	54.7370
 0.8720	54.7500
 0.8730	54.7640
 0.8740	54.7710
 0.8750	54.7640
 0.8760	54.7540
 0.8770	54.7680
 0.8780	54.7820
 0.8790	54.7870
 0.8800	54.7860
 0.8810	54.7920
 0.8820	54.7990
 0.8830	54.8070
 0.8840	54.8140
 0.8850	54.8190
 0.8860	54.8150
 0.8870	54.8130
 0.8880	54.8230
 0.8890	54.8260
 0.8900	54.8260
 0.8910	54.8240
 0.8920	54.8240
 0.8930	54.8350
 0.8940	54.8460
 0.8950	54.8480
 0.8960	54.8390
 0.8970	54.8420
 0.8980	54.8490
 0.8990	54.8550
 0.9000	54.8590
 0.9010	54.8590
 0.9020	54.8620
 0.9030	54.8680
 0.9040	54.8570
 0.9050	54.8530
 0.9060	54.8590
 0.9070	54.8690
 0.9080	54.8680
 0.9090	54.8690
 0.9100	54.8680
 0.9110	54.8640
 0.9120	54.8630
 0.9130	54.8600
 0.9140	54.8580
 0.9150	54.8600
 0.9160	54.8540
 0.9170	54.8530
 0.9180	54.8600
 0.9190	54.8690
 0.9200	54.8550
 0.9210	54.8490
 0.9220	54.8520
 0.9230	54.8470
 0.9240	54.8360
 0.9250	54.8330
 0.9260	54.8250
 0.9270	54.7890
 0.9280	54.7730
 0.9290	54.7490
 0.9300	54.7170
 0.9310	54.7100
 0.9320	54.6950
 0.9330	54.6740
 0.9340	54.6510
 0.9350	54.6260
 0.9360	54.5890
 0.9370	54.5560
 0.9380	54.5320
 0.9390	54.5040
 0.9400	54.4730
 0.9410	54.4410
 0.9420	54.4030
 0.9430	54.3540
 0.9440	54.3070
 0.9450	54.2530
 0.9460	54.1910
 0.9470	54.1490
 0.9480	54.0980
 0.9490	54.0310
 0.9500	53.9540
 0.9510	53.8650
 0.9520	53.7840
 0.9530	53.7000
 0.9540	53.6060
 0.9550	53.5360
 0.9560	53.4490
 0.9570	53.3540
 0.9580	53.2760
 0.9590	53.2170
 0.9600	53.1590
 0.9610	53.1060
 0.9620	53.0610
 0.9630	53.0130
 0.9640	52.9690
 0.9650	52.9280
 0.9660	52.8870
 0.9670	52.8730
 0.9680	52.8460
 0.9690	52.8140
 0.9700	52.8040
 0.9710	52.7940
 0.9720	52.7810
 0.9730	52.7670
 0.9740	52.7570
 0.9750	52.7430
 0.9760	52.7280
 0.9770	52.7300
 0.9780	52.7530
 0.9790	52.7430
 0.9800	52.7400
 0.9810	52.7450
 0.9820	52.7420
 0.9830	52.7540
 0.9840	52.7700
 0.9850	52.7800
 0.9860	52.7810
 0.9870	52.7990
 0.9880	52.8260
 0.9890	52.8480
 0.9900	52.8560
 0.9910	52.8830
 0.9920	52.8960
 0.9930	52.9090
 0.9940	52.9220
 0.9950	52.9340
 0.9960	52.9470
 0.9970	52.9600
 0.9980	52.9730
 0.9990	52.9860
 1.0000	52.9990
 1.0010	53.0120
 1.0020	53.0240
 1.0030	53.0370
 1.0040	53.0500
 1.0050	53.0630
 1.0060	53.0760
 1.0070	53.0890
 1.0080	53.1010
 1.0090	53.1140
 1.0100	53.1140
 1.0110	53.1400
 1.0120	53.1640
 1.0130	53.1890
 1.0140	53.2110
 1.0150	53.2300
 1.0160	53.2490
 1.0170	53.2710
 1.0180	53.2890
 1.0190	53.3140
 1.0200	53.3430
 1.0210	53.3690
 1.0220	53.3960
 1.0230	53.4180
 1.0240	53.4340
 1.0250	53.4550
 1.0260	53.4750
 1.0270	53.4950
 1.0280	53.5160
 1.0290	53.5370
 1.0300	53.5580
 1.0310	53.5780
 1.0320	53.5980
 1.0330	53.6200
 1.0340	53.6390
 1.0350	53.6580
 1.0360	53.6730
 1.0370	53.6880
 1.0380	53.7030
 1.0390	53.7130
 1.0400	53.7280
 1.0410	53.7470
 1.0420	53.7650
 1.0430	53.7860
 1.0440	53.8020
 1.0450	53.8120
 1.0460	53.8260
 1.0470	53.8370
 1.0480	53.8490
 1.0490	53.8650
 1.0500	53.8780
 1.0510	53.8890
 1.0520	53.9030
 1.0530	53.9120
 1.0540	53.9180
 1.0550	53.9250
 1.0560	53.9270
 1.0570	53.9340
 1.0580	53.9450
 1.0590	53.9530
 1.0600	53.9640
 1.0610	53.9690
 1.0620	53.9690
 1.0630	53.9730
 1.0640	53.9780
 1.0650	53.9810
 1.0660	53.9850
 1.0670	53.9880
 1.0680	53.9880
 1.0690	53.9840
 1.0700	53.9830
 1.0710	53.9830
 1.0720	53.9830
 1.0730	53.9860
 1.0740	53.9840
 1.0750	53.9820
 1.0760	53.9760
 1.0770	53.9630
 1.0780	53.9550
 1.0790	53.9470
 1.0800	53.9400
 1.0810	53.9360
 1.0820	53.9320
 1.0830	53.9330
 1.0840	53.9280
 1.0850	53.9200
 1.0860	53.9130
 1.0870	53.9050
 1.0880	53.8930
 1.0890	53.8810
 1.0900	53.8700
 1.0910	53.8610
 1.0920	53.8510
 1.0930	53.8420
 1.0940	53.8370
 1.0950	53.8280
 1.0960	53.8140
 1.0970	53.8020
 1.0980	53.7900
 1.0990	53.7760
 1.1000	53.7620
 1.1010	53.7470
 1.1020	53.7310
 1.1030	53.7140
 1.1040	53.6970
 1.1050	53.6810
 1.1060	53.6640
 1.1070	53.6470
 1.1080	53.6290
 1.1090	53.6100
 1.1100	53.5900
 1.1110	53.5670
 1.1120	53.5460
 1.1130	53.5260
 1.1140	53.5030
 1.1150	53.4820
 1.1160	53.4560
 1.1170	53.4250
 1.1180	53.3930
 1.1190	53.3610
 1.1200	53.3240
 1.1210	53.2830
 1.1220	53.2390
 1.1230	53.1880
 1.1240	53.1320
 1.1250	53.0680
 1.1260	53.0000
 1.1270	52.9220
 1.1280	52.8370
 1.1290	52.7430
 1.1300	52.6430
 1.1310	52.5300
 1.1320	52.4080
 1.1330	52.2770
 1.1340	52.1350
 1.1350	51.9850
 1.1360	51.8270
 1.1370	51.6580
 1.1380	51.4830
 1.1390	51.2990
 1.1400	51.1070
 1.1410	50.9160
 1.1420	50.7210
 1.1430	50.5210
 1.1440	50.3270
 1.1450	50.1310
 1.1460	49.9440
 1.1470	49.7590
 1.1480	49.5850
 1.1490	49.4170
 1.1500	49.2600
 1.1510	49.1100
 1.1520	48.9720
 1.1530	48.8470
 1.1540	48.7310
 1.1550	48.6260
 1.1560	48.5310
 1.1570	48.4460
 1.1580	48.3690
 1.1590	48.2980
 1.1600	48.2360
 1.1610	48.1780
 1.1620	48.1260
 1.1630	48.0800
 1.1640	48.0380
 1.1650	47.9990
 1.1660	47.9670
 1.1670	47.9360
 1.1680	47.9100
 1.1690	47.8830
 1.1700	47.8590
 1.1710	47.8320
 1.1720	47.8050
 1.1730	47.7780
 1.1740	47.7500
 1.1750	47.7220
 1.1760	47.6930
 1.1770	47.6630
 1.1780	47.6300
 1.1790	47.5930
 1.1800	47.5550
 1.1810	47.5180
 1.1820	47.4790
 1.1830	47.4410
 1.1840	47.4040
 1.1850	47.3670
 1.1860	47.3310
 1.1870	47.2980
 1.1880	47.2690
 1.1890	47.2450
 1.1900	47.2230
 1.1910	47.2050
 1.1920	47.1920
 1.1930	47.1820
 1.1940	47.1740
 1.1950	47.1700
 1.1960	47.1670
 1.1970	47.1650
 1.1980	47.1700
 1.1990	47.1800
 1.2000	47.1920
 1.2010	47.2080
 1.2020	47.2250
 1.2030	47.2430
 1.2040	47.2680
 1.2050	47.2950
 1.2060	47.3230
 1.2070	47.3540
 1.2080	47.3870
 1.2090	47.4230
 1.2100	47.4620
 1.2110	47.5030
 1.2120	47.5450
 1.2130	47.5890
 1.2140	47.6360
 1.2150	47.6850
 1.2160	47.7360
 1.2170	47.7900
 1.2180	47.8460
 1.2190	47.9010
 1.2200	47.9560
 1.2210	48.0120
 1.2220	48.0670
 1.2230	48.1200
 1.2240	48.1710
 1.2250	48.2230
 1.2260	48.2720
 1.2270	48.3200
 1.2280	48.3670
 1.2290	48.4140
 1.2300	48.4570
 1.2310	48.5010
 1.2320	48.5440
 1.2330	48.5840
 1.2340	48.6230
 1.2350	48.6600
 1.2360	48.6960
 1.2370	48.7300
 1.2380	48.7640
 1.2390	48.7980
 1.2400	48.8290
 1.2410	48.8610
 1.2420	48.8900
 1.2430	48.9190
 1.2440	48.9500
 1.2450	48.9770
 1.2460	49.0010
 1.2470	49.0210
 1.2480	49.0380
 1.2490	49.0550
 1.2500	49.0720
 1.2510	49.0890
 1.2520	49.1040
 1.2530	49.1200
 1.2540	49.1310
 1.2550	49.1420
 1.2560	49.1510
 1.2570	49.1570
 1.2580	49.1630
 1.2590	49.1680
 1.2600	49.1740
 1.2610	49.1780
 1.2620	49.1820
 1.2630	49.1820
 1.2640	49.1810
 1.2650	49.1780
 1.2660	49.1740
 1.2670	49.1710
 1.2680	49.1670
 1.2690	49.1590
 1.2700	49.1520
 1.2710	49.1420
 1.2720	49.1340
 1.2730	49.1230
 1.2740	49.1080
 1.2750	49.0910
 1.2760	49.0720
 1.2770	49.0510
 1.2780	49.0310
 1.2790	49.0110
 1.2800	48.9890
 1.2810	48.9660
 1.2820	48.9430
 1.2830	48.9180
 1.2840	48.8880
 1.2850	48.8570
 1.2860	48.8230
 1.2870	48.7870
 1.2880	48.7480
 1.2890	48.7110
 1.2900	48.6700
 1.2910	48.6240
 1.2920	48.5750
 1.2930	48.5200
 1.2940	48.4620
 1.2950	48.4030
 1.2960	48.3420
 1.2970	48.2760
 1.2980	48.2070
 1.2990	48.1350
 1.3000	48.0630
 1.3010	47.9910
 1.3020	47.9130
 1.3030	47.8330
 1.3040	47.7490
 1.3050	47.6580
 1.3060	47.5650
 1.3070	47.4690
 1.3080	47.3710
 1.3090	47.2720
 1.3100	47.1670
 1.3110	47.0590
 1.3120	46.9460
 1.3130	46.8280
 1.3140	46.7080
 1.3150	46.5850
 1.3160	46.4590
 1.3170	46.3310
 1.3180	46.2000
 1.3190	46.0630
 1.3200	45.9220
 1.3210	45.7750
 1.3220	45.6240
 1.3230	45.4700
 1.3240	45.3150
 1.3250	45.1570
 1.3260	44.9950
 1.3270	44.8310
 1.3280	44.6640
 1.3290	44.4930
 1.3300	44.3220
 1.3310	44.1490
 1.3320	43.9740
 1.3330	43.7990
 1.3340	43.6220
 1.3350	43.4430
 1.3360	43.2620
 1.3370	43.0780
 1.3380	42.8960
 1.3390	42.7160
 1.3400	42.5350
 1.3410	42.3560
 1.3420	42.1790
 1.3430	42.0010
 1.3440	41.8250
 1.3450	41.6500
 1.3460	41.4750
 1.3470	41.3020
 1.3480	41.1290
 1.3490	40.9580
 1.3500	40.7880
 1.3510	40.6180
 1.3520	40.4480
 1.3530	40.2780
 1.3540	40.1060
 1.3550	39.9330
 1.3560	39.7610
 1.3570	39.5880
 1.3580	39.4140
 1.3590	39.2360
 1.3600	39.0520
 1.3610	38.8650
 1.3620	38.6700
 1.3630	38.4710
 1.3640	38.2640
 1.3650	38.0470
 1.3660	37.8230
 1.3670	37.5880
 1.3680	37.3390
 1.3690	37.0790
 1.3700	36.8030
 1.3710	36.5110
 1.3720	36.2020
 1.3730	35.8730
 1.3740	35.5270
 1.3750	35.1600
 1.3760	34.7680
 1.3770	34.3560
 1.3780	33.9130
 1.3790	33.4460
 1.3800	32.9560
 1.3810	32.4370
 1.3820	31.9020
 1.3830	31.3470
 1.3840	30.7740
 1.3850	30.1800
 1.3860	29.5760
 1.3870	28.9500
 1.3880	28.3270
 1.3890	27.6930
 1.3900	27.0550
 1.3910	26.4240
 1.3920	25.7880
 1.3930	25.1530
 1.3940	24.5260
 1.3950	23.9010
 1.3960	23.2890
 1.3970	22.6960
 1.3980	22.1160
 1.3990	21.5620
 1.4000	21.0280
 1.4010	20.5110
 1.4020	20.0210
 1.4030	19.5510
 1.4040	19.1040
 1.4050	18.6840
 1.4060	18.2840
 1.4070	17.9130
 1.4080	17.5650
 1.4090	17.2390
 1.4100	16.9390
 1.4110	16.6590
 1.4120	16.3990
 1.4130	16.1610
 1.4140	15.9420
 1.4150	15.7420
 1.4160	15.5590
 1.4170	15.3930
 1.4180	15.2410
 1.4190	15.1020
 1.4200	14.9760
 1.4210	14.8630
 1.4220	14.7600
 1.4230	14.6690
 1.4240	14.5880
 1.4250	14.5140
 1.4260	14.4490
 1.4270	14.3900
 1.4280	14.3400
 1.4290	14.2950
 1.4300	14.2560
 1.4310	14.2240
 1.4320	14.1990
 1.4330	14.1770
 1.4340	14.1610
 1.4350	14.1490
 1.4360	14.1410
 1.4370	14.1370
 1.4380	14.1370
 1.4390	14.1410
 1.4400	14.1470
 1.4410	14.1570
 1.4420	14.1690
 1.4430	14.1820
 1.4440	14.1980
 1.4450	14.2160
 1.4460	14.2350
 1.4470	14.2570
 1.4480	14.2800
 1.4490	14.3040
 1.4500	14.3290
 1.4510	14.3550
 1.4520	14.3810
 1.4530	14.4090
 1.4540	14.4390
 1.4550	14.4730
 1.4560	14.5080
 1.4570	14.5460
 1.4580	14.5870
 1.4590	14.6300
 1.4600	14.6780
 1.4610	14.7310
 1.4620	14.7870
 1.4630	14.8470
 1.4640	14.9110
 1.4650	14.9810
 1.4660	15.0550
 1.4670	15.1350
 1.4680	15.2210
 1.4690	15.3110
