Name: Ceanothus spinosus 3
Type: vegetation
Class: Shrub
Genus: Ceanothus
Species: spinosus
Sample No.: VH132
Owner: UCSB
Wavelength Range: VSWIR
Origin: 34.4906; -119.7908; WGS84
Collection Date: 6/3/2013
Description: Samples were collected as part of the HyspIRI Airborne Campaign. 48 individual plants were sampled in three times in 2013 - spring  summer  and fall. The name of the sample includes a 1  2  or 3 which references a different individual of the species. Samples were taken to JPL and processed within 48 hours of collection. The same leaves were processed in the Nicolet and then measured using the ASD.
Measurement: Bidirectional reflectance
First Column: X
Second Column: Y
X Units: Wavelength (micrometers)
Y Units: Reflectance (percentage)
First X Value: 0.35
Last X Value: 2.5
Number of X Values: 2151
Additional Information: vegetation.shrub.ceanothus.spinosus.vswir.vh132.ucsb.asd.ancillary.txt

 0.3500	 7.6040
 0.3510	 7.7150
 0.3520	 7.4960
 0.3530	 7.2240
 0.3540	 7.1650
 0.3550	 7.1910
 0.3560	 7.0720
 0.3570	 6.9450
 0.3580	 7.0820
 0.3590	 7.1500
 0.3600	 7.1540
 0.3610	 7.1350
 0.3620	 7.1250
 0.3630	 7.0920
 0.3640	 7.0390
 0.3650	 6.9830
 0.3660	 6.9590
 0.3670	 6.9690
 0.3680	 7.0310
 0.3690	 7.1520
 0.3700	 7.0650
 0.3710	 6.9780
 0.3720	 7.0000
 0.3730	 6.9460
 0.3740	 6.9110
 0.3750	 6.8820
 0.3760	 6.8390
 0.3770	 6.8850
 0.3780	 6.9280
 0.3790	 6.9120
 0.3800	 6.8320
 0.3810	 6.8460
 0.3820	 6.8300
 0.3830	 6.7440
 0.3840	 6.8520
 0.3850	 6.8800
 0.3860	 6.8500
 0.3870	 6.8740
 0.3880	 6.8910
 0.3890	 6.8670
 0.3900	 6.8280
 0.3910	 6.8560
 0.3920	 6.8540
 0.3930	 6.8110
 0.3940	 6.7570
 0.3950	 6.7780
 0.3960	 6.8280
 0.3970	 6.8740
 0.3980	 6.8920
 0.3990	 6.8580
 0.4000	 6.8230
 0.4010	 6.8170
 0.4020	 6.8230
 0.4030	 6.8480
 0.4040	 6.8670
 0.4050	 6.8640
 0.4060	 6.8760
 0.4070	 6.8700
 0.4080	 6.8680
 0.4090	 6.9120
 0.4100	 6.9270
 0.4110	 6.9310
 0.4120	 6.9410
 0.4130	 6.9460
 0.4140	 6.9610
 0.4150	 6.9840
 0.4160	 7.0100
 0.4170	 7.0330
 0.4180	 7.0500
 0.4190	 7.0680
 0.4200	 7.1070
 0.4210	 7.1280
 0.4220	 7.1410
 0.4230	 7.1570
 0.4240	 7.1740
 0.4250	 7.1820
 0.4260	 7.1920
 0.4270	 7.2150
 0.4280	 7.2150
 0.4290	 7.2290
 0.4300	 7.2640
 0.4310	 7.2710
 0.4320	 7.2810
 0.4330	 7.2960
 0.4340	 7.3100
 0.4350	 7.3220
 0.4360	 7.3280
 0.4370	 7.3310
 0.4380	 7.3390
 0.4390	 7.3370
 0.4400	 7.3480
 0.4410	 7.3790
 0.4420	 7.3810
 0.4430	 7.3840
 0.4440	 7.3910
 0.4450	 7.4030
 0.4460	 7.4180
 0.4470	 7.4280
 0.4480	 7.4310
 0.4490	 7.4390
 0.4500	 7.4440
 0.4510	 7.4550
 0.4520	 7.4750
 0.4530	 7.4850
 0.4540	 7.4850
 0.4550	 7.4890
 0.4560	 7.5120
 0.4570	 7.5160
 0.4580	 7.5150
 0.4590	 7.5200
 0.4600	 7.5230
 0.4610	 7.5250
 0.4620	 7.5260
 0.4630	 7.5280
 0.4640	 7.5370
 0.4650	 7.5400
 0.4660	 7.5330
 0.4670	 7.5220
 0.4680	 7.5280
 0.4690	 7.5330
 0.4700	 7.5260
 0.4710	 7.5370
 0.4720	 7.5410
 0.4730	 7.5340
 0.4740	 7.5280
 0.4750	 7.5310
 0.4760	 7.5410
 0.4770	 7.5490
 0.4780	 7.5360
 0.4790	 7.5360
 0.4800	 7.5450
 0.4810	 7.5480
 0.4820	 7.5540
 0.4830	 7.5600
 0.4840	 7.5660
 0.4850	 7.5750
 0.4860	 7.5930
 0.4870	 7.6090
 0.4880	 7.6140
 0.4890	 7.6260
 0.4900	 7.6430
 0.4910	 7.6630
 0.4920	 7.6830
 0.4930	 7.7030
 0.4940	 7.7240
 0.4950	 7.7500
 0.4960	 7.7790
 0.4970	 7.8100
 0.4980	 7.8440
 0.4990	 7.8810
 0.5000	 7.9260
 0.5010	 7.9690
 0.5020	 8.0150
 0.5030	 8.0760
 0.5040	 8.1420
 0.5050	 8.2110
 0.5060	 8.2800
 0.5070	 8.3590
 0.5080	 8.4480
 0.5090	 8.5470
 0.5100	 8.6530
 0.5110	 8.7720
 0.5120	 8.8980
 0.5130	 9.0290
 0.5140	 9.1830
 0.5150	 9.3400
 0.5160	 9.5060
 0.5170	 9.6880
 0.5180	 9.8800
 0.5190	10.0770
 0.5200	10.2800
 0.5210	10.4920
 0.5220	10.7080
 0.5230	10.9220
 0.5240	11.1330
 0.5250	11.3370
 0.5260	11.5340
 0.5270	11.7270
 0.5280	11.9160
 0.5290	12.0840
 0.5300	12.2390
 0.5310	12.3870
 0.5320	12.5230
 0.5330	12.6430
 0.5340	12.7550
 0.5350	12.8620
 0.5360	12.9550
 0.5370	13.0330
 0.5380	13.1020
 0.5390	13.1710
 0.5400	13.2340
 0.5410	13.2980
 0.5420	13.3650
 0.5430	13.4150
 0.5440	13.4650
 0.5450	13.5120
 0.5460	13.5470
 0.5470	13.5740
 0.5480	13.5990
 0.5490	13.6240
 0.5500	13.6460
 0.5510	13.6610
 0.5520	13.6680
 0.5530	13.6630
 0.5540	13.6470
 0.5550	13.6160
 0.5560	13.5710
 0.5570	13.5100
 0.5580	13.4360
 0.5590	13.3520
 0.5600	13.2620
 0.5610	13.1640
 0.5620	13.0550
 0.5630	12.9370
 0.5640	12.8130
 0.5650	12.6810
 0.5660	12.5430
 0.5670	12.4030
 0.5680	12.2680
 0.5690	12.1260
 0.5700	11.9800
 0.5710	11.8410
 0.5720	11.7150
 0.5730	11.5940
 0.5740	11.4780
 0.5750	11.3680
 0.5760	11.2590
 0.5770	11.1500
 0.5780	11.0450
 0.5790	10.9570
 0.5800	10.8800
 0.5810	10.8090
 0.5820	10.7400
 0.5830	10.6780
 0.5840	10.6160
 0.5850	10.5560
 0.5860	10.5030
 0.5870	10.4590
 0.5880	10.4210
 0.5890	10.3850
 0.5900	10.3520
 0.5910	10.3220
 0.5920	10.2960
 0.5930	10.2710
 0.5940	10.2420
 0.5950	10.2150
 0.5960	10.1940
 0.5970	10.1620
 0.5980	10.1340
 0.5990	10.1070
 0.6000	10.0790
 0.6010	10.0470
 0.6020	10.0090
 0.6030	 9.9660
 0.6040	 9.9240
 0.6050	 9.8770
 0.6060	 9.8300
 0.6070	 9.7830
 0.6080	 9.7290
 0.6090	 9.6760
 0.6100	 9.6280
 0.6110	 9.5820
 0.6120	 9.5260
 0.6130	 9.4590
 0.6140	 9.3890
 0.6150	 9.3300
 0.6160	 9.2770
 0.6170	 9.2250
 0.6180	 9.1760
 0.6190	 9.1360
 0.6200	 9.1030
 0.6210	 9.0720
 0.6220	 9.0410
 0.6230	 9.0140
 0.6240	 8.9940
 0.6250	 8.9780
 0.6260	 8.9590
 0.6270	 8.9450
 0.6280	 8.9360
 0.6290	 8.9270
 0.6300	 8.9220
 0.6310	 8.9170
 0.6320	 8.9060
 0.6330	 8.8900
 0.6340	 8.8700
 0.6350	 8.8460
 0.6360	 8.8150
 0.6370	 8.7820
 0.6380	 8.7400
 0.6390	 8.6930
 0.6400	 8.6440
 0.6410	 8.5890
 0.6420	 8.5310
 0.6430	 8.4740
 0.6440	 8.4170
 0.6450	 8.3630
 0.6460	 8.3100
 0.6470	 8.2590
 0.6480	 8.2130
 0.6490	 8.1710
 0.6500	 8.1340
 0.6510	 8.1030
 0.6520	 8.0720
 0.6530	 8.0420
 0.6540	 8.0140
 0.6550	 7.9890
 0.6560	 7.9600
 0.6570	 7.9260
 0.6580	 7.8910
 0.6590	 7.8530
 0.6600	 7.8140
 0.6610	 7.7760
 0.6620	 7.7390
 0.6630	 7.7020
 0.6640	 7.6700
 0.6650	 7.6450
 0.6660	 7.6180
 0.6670	 7.6000
 0.6680	 7.5860
 0.6690	 7.5740
 0.6700	 7.5700
 0.6710	 7.5700
 0.6720	 7.5730
 0.6730	 7.5770
 0.6740	 7.5890
 0.6750	 7.6030
 0.6760	 7.6150
 0.6770	 7.6360
 0.6780	 7.6590
 0.6790	 7.6840
 0.6800	 7.7170
 0.6810	 7.7510
 0.6820	 7.7910
 0.6830	 7.8400
 0.6840	 7.8970
 0.6850	 7.9630
 0.6860	 8.0410
 0.6870	 8.1360
 0.6880	 8.2530
 0.6890	 8.4000
 0.6900	 8.5800
 0.6910	 8.7960
 0.6920	 9.0580
 0.6930	 9.3740
 0.6940	 9.7480
 0.6950	10.1860
 0.6960	10.6850
 0.6970	11.2490
 0.6980	11.8790
 0.6990	12.5680
 0.7000	13.3120
 0.7010	14.1070
 0.7020	14.9470
 0.7030	15.8180
 0.7040	16.7180
 0.7050	17.6400
 0.7060	18.5820
 0.7070	19.5350
 0.7080	20.4930
 0.7090	21.4530
 0.7100	22.4220
 0.7110	23.3950
 0.7120	24.3680
 0.7130	25.3410
 0.7140	26.3090
 0.7150	27.2740
 0.7160	28.2330
 0.7170	29.1800
 0.7180	30.1180
 0.7190	31.0470
 0.7200	31.9640
 0.7210	32.8640
 0.7220	33.7450
 0.7230	34.6060
 0.7240	35.4470
 0.7250	36.2620
 0.7260	37.0520
 0.7270	37.8150
 0.7280	38.5490
 0.7290	39.2520
 0.7300	39.9270
 0.7310	40.5730
 0.7320	41.1870
 0.7330	41.7710
 0.7340	42.3270
 0.7350	42.8580
 0.7360	43.3620
 0.7370	43.8360
 0.7380	44.2810
 0.7390	44.7030
 0.7400	45.1040
 0.7410	45.4760
 0.7420	45.8160
 0.7430	46.1480
 0.7440	46.4580
 0.7450	46.7400
 0.7460	46.9990
 0.7470	47.2430
 0.7480	47.4680
 0.7490	47.6720
 0.7500	47.8690
 0.7510	48.0450
 0.7520	48.2040
 0.7530	48.3540
 0.7540	48.4910
 0.7550	48.6160
 0.7560	48.7280
 0.7570	48.8270
 0.7580	48.9250
 0.7590	49.0170
 0.7600	49.0980
 0.7610	49.1730
 0.7620	49.2380
 0.7630	49.2980
 0.7640	49.3560
 0.7650	49.4130
 0.7660	49.4590
 0.7670	49.4980
 0.7680	49.5370
 0.7690	49.5820
 0.7700	49.6210
 0.7710	49.6500
 0.7720	49.6760
 0.7730	49.7020
 0.7740	49.7270
 0.7750	49.7490
 0.7760	49.7830
 0.7770	49.8100
 0.7780	49.8290
 0.7790	49.8470
 0.7800	49.8680
 0.7810	49.8900
 0.7820	49.9120
 0.7830	49.9300
 0.7840	49.9430
 0.7850	49.9590
 0.7860	49.9810
 0.7870	49.9910
 0.7880	50.0090
 0.7890	50.0270
 0.7900	50.0370
 0.7910	50.0550
 0.7920	50.0650
 0.7930	50.0690
 0.7940	50.0840
 0.7950	50.0920
 0.7960	50.1030
 0.7970	50.1150
 0.7980	50.1150
 0.7990	50.1180
 0.8000	50.1270
 0.8010	50.1410
 0.8020	50.1470
 0.8030	50.1490
 0.8040	50.1510
 0.8050	50.1530
 0.8060	50.1560
 0.8070	50.1570
 0.8080	50.1550
 0.8090	50.1520
 0.8100	50.1530
 0.8110	50.1540
 0.8120	50.1520
 0.8130	50.1490
 0.8140	50.1440
 0.8150	50.1400
 0.8160	50.1350
 0.8170	50.1390
 0.8180	50.1330
 0.8190	50.1220
 0.8200	50.1200
 0.8210	50.1210
 0.8220	50.1170
 0.8230	50.1100
 0.8240	50.1110
 0.8250	50.1040
 0.8260	50.0940
 0.8270	50.0840
 0.8280	50.0740
 0.8290	50.0720
 0.8300	50.0710
 0.8310	50.0640
 0.8320	50.0450
 0.8330	50.0400
 0.8340	50.0430
 0.8350	50.0350
 0.8360	50.0290
 0.8370	50.0250
 0.8380	50.0230
 0.8390	50.0250
 0.8400	50.0250
 0.8410	50.0240
 0.8420	50.0230
 0.8430	50.0230
 0.8440	50.0250
 0.8450	50.0290
 0.8460	50.0340
 0.8470	50.0290
 0.8480	50.0300
 0.8490	50.0340
 0.8500	50.0310
 0.8510	50.0350
 0.8520	50.0410
 0.8530	50.0450
 0.8540	50.0480
 0.8550	50.0540
 0.8560	50.0600
 0.8570	50.0640
 0.8580	50.0670
 0.8590	50.0650
 0.8600	50.0680
 0.8610	50.0790
 0.8620	50.0860
 0.8630	50.0890
 0.8640	50.0960
 0.8650	50.1140
 0.8660	50.1240
 0.8670	50.1250
 0.8680	50.1250
 0.8690	50.1280
 0.8700	50.1320
 0.8710	50.1410
 0.8720	50.1520
 0.8730	50.1620
 0.8740	50.1660
 0.8750	50.1720
 0.8760	50.1830
 0.8770	50.1950
 0.8780	50.2030
 0.8790	50.2050
 0.8800	50.2070
 0.8810	50.2220
 0.8820	50.2340
 0.8830	50.2480
 0.8840	50.2630
 0.8850	50.2560
 0.8860	50.2570
 0.8870	50.2680
 0.8880	50.2810
 0.8890	50.2860
 0.8900	50.2930
 0.8910	50.2990
 0.8920	50.2960
 0.8930	50.3020
 0.8940	50.3100
 0.8950	50.3180
 0.8960	50.3270
 0.8970	50.3310
 0.8980	50.3350
 0.8990	50.3390
 0.9000	50.3410
 0.9010	50.3540
 0.9020	50.3650
 0.9030	50.3690
 0.9040	50.3760
 0.9050	50.3760
 0.9060	50.3830
 0.9070	50.3990
 0.9080	50.4000
 0.9090	50.3940
 0.9100	50.3890
 0.9110	50.3910
 0.9120	50.4020
 0.9130	50.4080
 0.9140	50.4110
 0.9150	50.4160
 0.9160	50.4240
 0.9170	50.4200
 0.9180	50.4130
 0.9190	50.4190
 0.9200	50.4210
 0.9210	50.4210
 0.9220	50.4150
 0.9230	50.4010
 0.9240	50.3990
 0.9250	50.3970
 0.9260	50.3890
 0.9270	50.3750
 0.9280	50.3630
 0.9290	50.3520
 0.9300	50.3440
 0.9310	50.3370
 0.9320	50.3070
 0.9330	50.2820
 0.9340	50.2700
 0.9350	50.2470
 0.9360	50.2190
 0.9370	50.1880
 0.9380	50.1570
 0.9390	50.1360
 0.9400	50.1220
 0.9410	50.0990
 0.9420	50.0610
 0.9430	50.0280
 0.9440	49.9950
 0.9450	49.9530
 0.9460	49.9060
 0.9470	49.8810
 0.9480	49.8400
 0.9490	49.7880
 0.9500	49.7330
 0.9510	49.6480
 0.9520	49.5880
 0.9530	49.5400
 0.9540	49.4780
 0.9550	49.4150
 0.9560	49.3410
 0.9570	49.2670
 0.9580	49.2050
 0.9590	49.1530
 0.9600	49.0980
 0.9610	49.0460
 0.9620	49.0070
 0.9630	48.9740
 0.9640	48.9330
 0.9650	48.8920
 0.9660	48.8640
 0.9670	48.8400
 0.9680	48.8180
 0.9690	48.7990
 0.9700	48.7840
 0.9710	48.7630
 0.9720	48.7370
 0.9730	48.7220
 0.9740	48.7300
 0.9750	48.7300
 0.9760	48.7100
 0.9770	48.6920
 0.9780	48.7000
 0.9790	48.6850
 0.9800	48.6810
 0.9810	48.6880
 0.9820	48.6930
 0.9830	48.7100
 0.9840	48.7100
 0.9850	48.7040
 0.9860	48.7160
 0.9870	48.7200
 0.9880	48.7310
 0.9890	48.7460
 0.9900	48.7580
 0.9910	48.7920
 0.9920	48.8010
 0.9930	48.8110
 0.9940	48.8210
 0.9950	48.8310
 0.9960	48.8410
 0.9970	48.8510
 0.9980	48.8610
 0.9990	48.8700
 1.0000	48.8800
 1.0010	48.8900
 1.0020	48.9000
 1.0030	48.9100
 1.0040	48.9200
 1.0050	48.9300
 1.0060	48.9390
 1.0070	48.9490
 1.0080	48.9590
 1.0090	48.9690
 1.0100	48.9690
 1.0110	48.9860
 1.0120	49.0050
 1.0130	49.0240
 1.0140	49.0450
 1.0150	49.0700
 1.0160	49.0900
 1.0170	49.1110
 1.0180	49.1350
 1.0190	49.1520
 1.0200	49.1720
 1.0210	49.1910
 1.0220	49.2090
 1.0230	49.2310
 1.0240	49.2600
 1.0250	49.2790
 1.0260	49.2950
 1.0270	49.3120
 1.0280	49.3230
 1.0290	49.3370
 1.0300	49.3530
 1.0310	49.3710
 1.0320	49.3890
 1.0330	49.4070
 1.0340	49.4270
 1.0350	49.4460
 1.0360	49.4590
 1.0370	49.4700
 1.0380	49.4820
 1.0390	49.4920
 1.0400	49.5050
 1.0410	49.5220
 1.0420	49.5340
 1.0430	49.5450
 1.0440	49.5570
 1.0450	49.5690
 1.0460	49.5800
 1.0470	49.5930
 1.0480	49.6050
 1.0490	49.6120
 1.0500	49.6220
 1.0510	49.6330
 1.0520	49.6440
 1.0530	49.6520
 1.0540	49.6590
 1.0550	49.6660
 1.0560	49.6700
 1.0570	49.6770
 1.0580	49.6860
 1.0590	49.6950
 1.0600	49.7060
 1.0610	49.7140
 1.0620	49.7220
 1.0630	49.7300
 1.0640	49.7370
 1.0650	49.7420
 1.0660	49.7440
 1.0670	49.7480
 1.0680	49.7510
 1.0690	49.7510
 1.0700	49.7540
 1.0710	49.7610
 1.0720	49.7640
 1.0730	49.7670
 1.0740	49.7690
 1.0750	49.7690
 1.0760	49.7700
 1.0770	49.7690
 1.0780	49.7710
 1.0790	49.7750
 1.0800	49.7760
 1.0810	49.7800
 1.0820	49.7800
 1.0830	49.7750
 1.0840	49.7710
 1.0850	49.7650
 1.0860	49.7580
 1.0870	49.7510
 1.0880	49.7440
 1.0890	49.7380
 1.0900	49.7320
 1.0910	49.7250
 1.0920	49.7190
 1.0930	49.7140
 1.0940	49.7100
 1.0950	49.7040
 1.0960	49.7020
 1.0970	49.6950
 1.0980	49.6820
 1.0990	49.6730
 1.1000	49.6670
 1.1010	49.6560
 1.1020	49.6430
 1.1030	49.6310
 1.1040	49.6190
 1.1050	49.6030
 1.1060	49.5880
 1.1070	49.5760
 1.1080	49.5600
 1.1090	49.5380
 1.1100	49.5200
 1.1110	49.5030
 1.1120	49.4840
 1.1130	49.4660
 1.1140	49.4450
 1.1150	49.4200
 1.1160	49.3950
 1.1170	49.3730
 1.1180	49.3450
 1.1190	49.3170
 1.1200	49.2850
 1.1210	49.2480
 1.1220	49.2080
 1.1230	49.1660
 1.1240	49.1210
 1.1250	49.0730
 1.1260	49.0240
 1.1270	48.9670
 1.1280	48.9060
 1.1290	48.8390
 1.1300	48.7670
 1.1310	48.6870
 1.1320	48.6010
 1.1330	48.5090
 1.1340	48.4130
 1.1350	48.3090
 1.1360	48.1980
 1.1370	48.0840
 1.1380	47.9610
 1.1390	47.8320
 1.1400	47.7020
 1.1410	47.5670
 1.1420	47.4280
 1.1430	47.2900
 1.1440	47.1490
 1.1450	47.0010
 1.1460	46.8620
 1.1470	46.7230
 1.1480	46.5910
 1.1490	46.4640
 1.1500	46.3430
 1.1510	46.2240
 1.1520	46.1140
 1.1530	46.0090
 1.1540	45.9110
 1.1550	45.8200
 1.1560	45.7380
 1.1570	45.6650
 1.1580	45.6010
 1.1590	45.5450
 1.1600	45.4960
 1.1610	45.4510
 1.1620	45.4110
 1.1630	45.3780
 1.1640	45.3500
 1.1650	45.3280
 1.1660	45.3140
 1.1670	45.2980
 1.1680	45.2850
 1.1690	45.2730
 1.1700	45.2630
 1.1710	45.2540
 1.1720	45.2470
 1.1730	45.2400
 1.1740	45.2330
 1.1750	45.2250
 1.1760	45.2170
 1.1770	45.2100
 1.1780	45.2030
 1.1790	45.1970
 1.1800	45.1890
 1.1810	45.1800
 1.1820	45.1710
 1.1830	45.1600
 1.1840	45.1480
 1.1850	45.1390
 1.1860	45.1290
 1.1870	45.1190
 1.1880	45.1100
 1.1890	45.1020
 1.1900	45.0970
 1.1910	45.0930
 1.1920	45.0910
 1.1930	45.0920
 1.1940	45.0930
 1.1950	45.0930
 1.1960	45.0950
 1.1970	45.0990
 1.1980	45.1020
 1.1990	45.1070
 1.2000	45.1130
 1.2010	45.1180
 1.2020	45.1270
 1.2030	45.1380
 1.2040	45.1500
 1.2050	45.1620
 1.2060	45.1760
 1.2070	45.1920
 1.2080	45.2090
 1.2090	45.2280
 1.2100	45.2500
 1.2110	45.2700
 1.2120	45.2880
 1.2130	45.3060
 1.2140	45.3220
 1.2150	45.3400
 1.2160	45.3590
 1.2170	45.3810
 1.2180	45.4080
 1.2190	45.4330
 1.2200	45.4580
 1.2210	45.4830
 1.2220	45.5060
 1.2230	45.5280
 1.2240	45.5500
 1.2250	45.5690
 1.2260	45.5890
 1.2270	45.6090
 1.2280	45.6280
 1.2290	45.6480
 1.2300	45.6690
 1.2310	45.6890
 1.2320	45.7080
 1.2330	45.7260
 1.2340	45.7430
 1.2350	45.7580
 1.2360	45.7730
 1.2370	45.7890
 1.2380	45.8030
 1.2390	45.8170
 1.2400	45.8310
 1.2410	45.8430
 1.2420	45.8550
 1.2430	45.8680
 1.2440	45.8790
 1.2450	45.8920
 1.2460	45.9060
 1.2470	45.9180
 1.2480	45.9310
 1.2490	45.9410
 1.2500	45.9520
 1.2510	45.9620
 1.2520	45.9720
 1.2530	45.9820
 1.2540	45.9900
 1.2550	45.9950
 1.2560	45.9970
 1.2570	46.0000
 1.2580	46.0050
 1.2590	46.0060
 1.2600	46.0080
 1.2610	46.0090
 1.2620	46.0070
 1.2630	46.0030
 1.2640	46.0000
 1.2650	45.9980
 1.2660	45.9930
 1.2670	45.9860
 1.2680	45.9780
 1.2690	45.9690
 1.2700	45.9600
 1.2710	45.9490
 1.2720	45.9380
 1.2730	45.9270
 1.2740	45.9180
 1.2750	45.9070
 1.2760	45.8960
 1.2770	45.8810
 1.2780	45.8630
 1.2790	45.8450
 1.2800	45.8280
 1.2810	45.8110
 1.2820	45.7910
 1.2830	45.7690
 1.2840	45.7450
 1.2850	45.7210
 1.2860	45.6980
 1.2870	45.6730
 1.2880	45.6480
 1.2890	45.6240
 1.2900	45.5960
 1.2910	45.5650
 1.2920	45.5330
 1.2930	45.4970
 1.2940	45.4610
 1.2950	45.4230
 1.2960	45.3810
 1.2970	45.3410
 1.2980	45.2960
 1.2990	45.2490
 1.3000	45.2030
 1.3010	45.1510
 1.3020	45.0970
 1.3030	45.0410
 1.3040	44.9800
 1.3050	44.9180
 1.3060	44.8550
 1.3070	44.7910
 1.3080	44.7250
 1.3090	44.6550
 1.3100	44.5820
 1.3110	44.5030
 1.3120	44.4210
 1.3130	44.3370
 1.3140	44.2500
 1.3150	44.1590
 1.3160	44.0650
 1.3170	43.9690
 1.3180	43.8680
 1.3190	43.7630
 1.3200	43.6560
 1.3210	43.5440
 1.3220	43.4320
 1.3230	43.3150
 1.3240	43.1920
 1.3250	43.0690
 1.3260	42.9410
 1.3270	42.8120
 1.3280	42.6820
 1.3290	42.5470
 1.3300	42.4100
 1.3310	42.2700
 1.3320	42.1260
 1.3330	41.9830
 1.3340	41.8400
 1.3350	41.6970
 1.3360	41.5540
 1.3370	41.4100
 1.3380	41.2640
 1.3390	41.1180
 1.3400	40.9720
 1.3410	40.8280
 1.3420	40.6860
 1.3430	40.5430
 1.3440	40.4010
 1.3450	40.2600
 1.3460	40.1180
 1.3470	39.9780
 1.3480	39.8390
 1.3490	39.7030
 1.3500	39.5690
 1.3510	39.4360
 1.3520	39.3050
 1.3530	39.1730
 1.3540	39.0390
 1.3550	38.9060
 1.3560	38.7740
 1.3570	38.6400
 1.3580	38.5060
 1.3590	38.3690
 1.3600	38.2280
 1.3610	38.0850
 1.3620	37.9400
 1.3630	37.7920
 1.3640	37.6380
 1.3650	37.4780
 1.3660	37.3100
 1.3670	37.1350
 1.3680	36.9500
 1.3690	36.7570
 1.3700	36.5500
 1.3710	36.3310
 1.3720	36.1000
 1.3730	35.8530
 1.3740	35.5940
 1.3750	35.3160
 1.3760	35.0170
 1.3770	34.7000
 1.3780	34.3580
 1.3790	33.9960
 1.3800	33.6160
 1.3810	33.2100
 1.3820	32.7890
 1.3830	32.3510
 1.3840	31.8950
 1.3850	31.4210
 1.3860	30.9340
 1.3870	30.4290
 1.3880	29.9180
 1.3890	29.3960
 1.3900	28.8640
 1.3910	28.3310
 1.3920	27.7910
 1.3930	27.2480
 1.3940	26.7060
 1.3950	26.1620
 1.3960	25.6250
 1.3970	25.0970
 1.3980	24.5770
 1.3990	24.0760
 1.4000	23.5870
 1.4010	23.1090
 1.4020	22.6530
 1.4030	22.2110
 1.4040	21.7870
 1.4050	21.3850
 1.4060	21.0000
 1.4070	20.6370
 1.4080	20.2950
 1.4090	19.9710
 1.4100	19.6700
 1.4110	19.3860
 1.4120	19.1230
 1.4130	18.8790
 1.4140	18.6520
 1.4150	18.4460
 1.4160	18.2550
 1.4170	18.0770
 1.4180	17.9150
 1.4190	17.7650
 1.4200	17.6260
 1.4210	17.5010
 1.4220	17.3880
 1.4230	17.2860
 1.4240	17.1950
 1.4250	17.1110
 1.4260	17.0380
 1.4270	16.9720
 1.4280	16.9140
 1.4290	16.8620
 1.4300	16.8180
 1.4310	16.7790
 1.4320	16.7470
 1.4330	16.7190
 1.4340	16.6990
 1.4350	16.6820
 1.4360	16.6690
 1.4370	16.6610
 1.4380	16.6560
 1.4390	16.6550
 1.4400	16.6560
 1.4410	16.6590
 1.4420	16.6670
 1.4430	16.6770
 1.4440	16.6900
 1.4450	16.7060
 1.4460	16.7220
 1.4470	16.7390
 1.4480	16.7580
 1.4490	16.7780
 1.4500	16.7990
 1.4510	16.8210
 1.4520	16.8440
 1.4530	16.8690
 1.4540	16.8950
 1.4550	16.9220
 1.4560	16.9500
 1.4570	16.9800
 1.4580	17.0130
 1.4590	17.0500
 1.4600	17.0900
 1.4610	17.1330
 1.4620	17.1790
 1.4630	17.2290
 1.4640	17.2810
 1.4650	17.3390
 1.4660	17.4010
 1.4670	17.4670
 1.4680	17.5390
 1.4690	17.6160
 1.4700	17.6950
