Name: Taxodium mucronatum
Type: vegetation
Class: Tree
Genus: Taxodium
Species: mucronatum
Sample No.: JPL119
Owner: JPL
Wavelength Range: VSWIR
Origin: 34.12642; -118.11439;; WGS84
Collection Date: 9/7/2016
Description: Samples were collected at the Huntington Garden in San Marino California as part of a JPL Subcontract studying HyTES imagery. Samples were taken to JPL and processed within 48 hours of collection. The same leaves were processed in the Nicolet and then measured using the ASD.
Measurement: Bidirectional reflectance
First Column: X
Second Column: Y
X Units: Wavelength (micrometer)
Y Units: Reflectance (percentage)
First X Value: 0.35
Last X Value: 2.5
Number of X Values: 2151
Additional Information: vegetation.tree.taxodium.mucronatum.vswir.jpl119.jpl.asd.ancillary.txt

 0.3500	 2.7730
 0.3510	 2.6580
 0.3520	 2.7180
 0.3530	 2.8010
 0.3540	 2.7710
 0.3550	 2.7160
 0.3560	 2.6680
 0.3570	 2.6240
 0.3580	 2.5660
 0.3590	 2.5640
 0.3600	 2.6020
 0.3610	 2.6440
 0.3620	 2.6490
 0.3630	 2.6310
 0.3640	 2.5720
 0.3650	 2.4890
 0.3660	 2.5470
 0.3670	 2.5960
 0.3680	 2.5690
 0.3690	 2.4800
 0.3700	 2.5020
 0.3710	 2.5450
 0.3720	 2.5410
 0.3730	 2.5220
 0.3740	 2.5230
 0.3750	 2.5290
 0.3760	 2.5200
 0.3770	 2.5720
 0.3780	 2.5800
 0.3790	 2.5380
 0.3800	 2.5280
 0.3810	 2.5100
 0.3820	 2.4990
 0.3830	 2.5050
 0.3840	 2.5110
 0.3850	 2.5130
 0.3860	 2.5290
 0.3870	 2.5710
 0.3880	 2.5600
 0.3890	 2.5350
 0.3900	 2.5310
 0.3910	 2.5670
 0.3920	 2.5630
 0.3930	 2.5540
 0.3940	 2.5720
 0.3950	 2.5840
 0.3960	 2.5920
 0.3970	 2.6010
 0.3980	 2.6120
 0.3990	 2.5990
 0.4000	 2.6030
 0.4010	 2.6350
 0.4020	 2.6650
 0.4030	 2.6700
 0.4040	 2.6780
 0.4050	 2.7110
 0.4060	 2.7290
 0.4070	 2.7390
 0.4080	 2.7540
 0.4090	 2.7910
 0.4100	 2.8150
 0.4110	 2.8220
 0.4120	 2.8240
 0.4130	 2.8510
 0.4140	 2.8630
 0.4150	 2.8830
 0.4160	 2.9310
 0.4170	 2.9410
 0.4180	 2.9460
 0.4190	 2.9630
 0.4200	 2.9850
 0.4210	 3.0060
 0.4220	 3.0270
 0.4230	 3.0470
 0.4240	 3.0510
 0.4250	 3.0570
 0.4260	 3.0700
 0.4270	 3.0810
 0.4280	 3.0890
 0.4290	 3.0940
 0.4300	 3.1000
 0.4310	 3.1100
 0.4320	 3.1230
 0.4330	 3.1370
 0.4340	 3.1480
 0.4350	 3.1560
 0.4360	 3.1600
 0.4370	 3.1600
 0.4380	 3.1610
 0.4390	 3.1700
 0.4400	 3.1740
 0.4410	 3.1720
 0.4420	 3.1960
 0.4430	 3.2090
 0.4440	 3.2140
 0.4450	 3.2290
 0.4460	 3.2440
 0.4470	 3.2560
 0.4480	 3.2670
 0.4490	 3.2800
 0.4500	 3.3010
 0.4510	 3.3170
 0.4520	 3.3160
 0.4530	 3.3290
 0.4540	 3.3450
 0.4550	 3.3570
 0.4560	 3.3640
 0.4570	 3.3700
 0.4580	 3.3790
 0.4590	 3.3910
 0.4600	 3.3930
 0.4610	 3.3980
 0.4620	 3.4020
 0.4630	 3.4000
 0.4640	 3.4040
 0.4650	 3.4110
 0.4660	 3.4190
 0.4670	 3.4240
 0.4680	 3.4200
 0.4690	 3.4190
 0.4700	 3.4280
 0.4710	 3.4330
 0.4720	 3.4350
 0.4730	 3.4370
 0.4740	 3.4420
 0.4750	 3.4380
 0.4760	 3.4380
 0.4770	 3.4430
 0.4780	 3.4410
 0.4790	 3.4470
 0.4800	 3.4560
 0.4810	 3.4610
 0.4820	 3.4690
 0.4830	 3.4740
 0.4840	 3.4780
 0.4850	 3.4920
 0.4860	 3.5040
 0.4870	 3.5150
 0.4880	 3.5310
 0.4890	 3.5550
 0.4900	 3.5800
 0.4910	 3.6060
 0.4920	 3.6340
 0.4930	 3.6660
 0.4940	 3.7050
 0.4950	 3.7490
 0.4960	 3.7900
 0.4970	 3.8310
 0.4980	 3.8820
 0.4990	 3.9480
 0.5000	 4.0190
 0.5010	 4.0920
 0.5020	 4.1690
 0.5030	 4.2610
 0.5040	 4.3590
 0.5050	 4.4630
 0.5060	 4.5750
 0.5070	 4.6900
 0.5080	 4.8170
 0.5090	 4.9520
 0.5100	 5.0920
 0.5110	 5.2490
 0.5120	 5.4130
 0.5130	 5.5790
 0.5140	 5.7460
 0.5150	 5.9250
 0.5160	 6.1110
 0.5170	 6.2980
 0.5180	 6.4860
 0.5190	 6.6770
 0.5200	 6.8710
 0.5210	 7.0580
 0.5220	 7.2460
 0.5230	 7.4290
 0.5240	 7.6050
 0.5250	 7.7780
 0.5260	 7.9410
 0.5270	 8.0920
 0.5280	 8.2350
 0.5290	 8.3710
 0.5300	 8.4960
 0.5310	 8.6120
 0.5320	 8.7230
 0.5330	 8.8240
 0.5340	 8.9160
 0.5350	 9.0020
 0.5360	 9.0830
 0.5370	 9.1550
 0.5380	 9.2230
 0.5390	 9.2940
 0.5400	 9.3670
 0.5410	 9.4430
 0.5420	 9.5170
 0.5430	 9.5810
 0.5440	 9.6310
 0.5450	 9.6670
 0.5460	 9.6910
 0.5470	 9.7090
 0.5480	 9.7300
 0.5490	 9.7550
 0.5500	 9.7790
 0.5510	 9.8010
 0.5520	 9.8170
 0.5530	 9.8240
 0.5540	 9.8230
 0.5550	 9.8180
 0.5560	 9.8060
 0.5570	 9.7840
 0.5580	 9.7560
 0.5590	 9.7190
 0.5600	 9.6720
 0.5610	 9.6220
 0.5620	 9.5650
 0.5630	 9.5010
 0.5640	 9.4300
 0.5650	 9.3530
 0.5660	 9.2730
 0.5670	 9.1900
 0.5680	 9.1010
 0.5690	 9.0080
 0.5700	 8.9130
 0.5710	 8.8190
 0.5720	 8.7250
 0.5730	 8.6370
 0.5740	 8.5570
 0.5750	 8.4820
 0.5760	 8.4140
 0.5770	 8.3480
 0.5780	 8.2800
 0.5790	 8.2130
 0.5800	 8.1490
 0.5810	 8.0870
 0.5820	 8.0290
 0.5830	 7.9800
 0.5840	 7.9350
 0.5850	 7.8910
 0.5860	 7.8460
 0.5870	 7.7980
 0.5880	 7.7490
 0.5890	 7.7040
 0.5900	 7.6640
 0.5910	 7.6340
 0.5920	 7.6110
 0.5930	 7.5880
 0.5940	 7.5630
 0.5950	 7.5390
 0.5960	 7.5160
 0.5970	 7.4930
 0.5980	 7.4730
 0.5990	 7.4520
 0.6000	 7.4300
 0.6010	 7.4050
 0.6020	 7.3760
 0.6030	 7.3450
 0.6040	 7.3100
 0.6050	 7.2740
 0.6060	 7.2340
 0.6070	 7.1880
 0.6080	 7.1400
 0.6090	 7.0930
 0.6100	 7.0530
 0.6110	 7.0190
 0.6120	 6.9630
 0.6130	 6.8920
 0.6140	 6.8170
 0.6150	 6.7520
 0.6160	 6.6910
 0.6170	 6.6350
 0.6180	 6.5850
 0.6190	 6.5370
 0.6200	 6.4970
 0.6210	 6.4630
 0.6220	 6.4310
 0.6230	 6.4010
 0.6240	 6.3780
 0.6250	 6.3620
 0.6260	 6.3480
 0.6270	 6.3380
 0.6280	 6.3300
 0.6290	 6.3250
 0.6300	 6.3230
 0.6310	 6.3170
 0.6320	 6.3040
 0.6330	 6.2850
 0.6340	 6.2590
 0.6350	 6.2220
 0.6360	 6.1750
 0.6370	 6.1180
 0.6380	 6.0500
 0.6390	 5.9710
 0.6400	 5.8830
 0.6410	 5.7920
 0.6420	 5.6950
 0.6430	 5.5930
 0.6440	 5.4930
 0.6450	 5.3930
 0.6460	 5.2930
 0.6470	 5.1990
 0.6480	 5.1120
 0.6490	 5.0350
 0.6500	 4.9690
 0.6510	 4.9120
 0.6520	 4.8650
 0.6530	 4.8240
 0.6540	 4.7830
 0.6550	 4.7410
 0.6560	 4.6960
 0.6570	 4.6490
 0.6580	 4.5990
 0.6590	 4.5420
 0.6600	 4.4820
 0.6610	 4.4200
 0.6620	 4.3560
 0.6630	 4.2920
 0.6640	 4.2300
 0.6650	 4.1720
 0.6660	 4.1150
 0.6670	 4.0650
 0.6680	 4.0240
 0.6690	 3.9890
 0.6700	 3.9630
 0.6710	 3.9410
 0.6720	 3.9250
 0.6730	 3.9210
 0.6740	 3.9210
 0.6750	 3.9230
 0.6760	 3.9290
 0.6770	 3.9440
 0.6780	 3.9650
 0.6790	 3.9940
 0.6800	 4.0310
 0.6810	 4.0810
 0.6820	 4.1470
 0.6830	 4.2320
 0.6840	 4.3390
 0.6850	 4.4770
 0.6860	 4.6500
 0.6870	 4.8620
 0.6880	 5.1210
 0.6890	 5.4310
 0.6900	 5.7940
 0.6910	 6.2110
 0.6920	 6.6790
 0.6930	 7.1940
 0.6940	 7.7470
 0.6950	 8.3370
 0.6960	 8.9530
 0.6970	 9.5880
 0.6980	10.2380
 0.6990	10.8950
 0.7000	11.5580
 0.7010	12.2200
 0.7020	12.8750
 0.7030	13.5210
 0.7040	14.1560
 0.7050	14.7790
 0.7060	15.3870
 0.7070	15.9810
 0.7080	16.5590
 0.7090	17.1220
 0.7100	17.6690
 0.7110	18.2040
 0.7120	18.7280
 0.7130	19.2370
 0.7140	19.7290
 0.7150	20.2050
 0.7160	20.6660
 0.7170	21.1190
 0.7180	21.5540
 0.7190	21.9720
 0.7200	22.3780
 0.7210	22.7650
 0.7220	23.1360
 0.7230	23.4920
 0.7240	23.8310
 0.7250	24.1520
 0.7260	24.4560
 0.7270	24.7430
 0.7280	25.0110
 0.7290	25.2640
 0.7300	25.5030
 0.7310	25.7270
 0.7320	25.9370
 0.7330	26.1340
 0.7340	26.3180
 0.7350	26.4890
 0.7360	26.6490
 0.7370	26.7980
 0.7380	26.9380
 0.7390	27.0680
 0.7400	27.1910
 0.7410	27.3050
 0.7420	27.4110
 0.7430	27.5070
 0.7440	27.5960
 0.7450	27.6790
 0.7460	27.7550
 0.7470	27.8270
 0.7480	27.8930
 0.7490	27.9530
 0.7500	28.0080
 0.7510	28.0590
 0.7520	28.1070
 0.7530	28.1510
 0.7540	28.1930
 0.7550	28.2340
 0.7560	28.2710
 0.7570	28.3010
 0.7580	28.3320
 0.7590	28.3640
 0.7600	28.3940
 0.7610	28.4190
 0.7620	28.4440
 0.7630	28.4680
 0.7640	28.4900
 0.7650	28.5120
 0.7660	28.5340
 0.7670	28.5560
 0.7680	28.5760
 0.7690	28.5950
 0.7700	28.6120
 0.7710	28.6280
 0.7720	28.6430
 0.7730	28.6610
 0.7740	28.6780
 0.7750	28.6920
 0.7760	28.7080
 0.7770	28.7230
 0.7780	28.7390
 0.7790	28.7540
 0.7800	28.7700
 0.7810	28.7830
 0.7820	28.7950
 0.7830	28.8090
 0.7840	28.8240
 0.7850	28.8360
 0.7860	28.8460
 0.7870	28.8560
 0.7880	28.8670
 0.7890	28.8800
 0.7900	28.8920
 0.7910	28.9030
 0.7920	28.9120
 0.7930	28.9210
 0.7940	28.9310
 0.7950	28.9370
 0.7960	28.9430
 0.7970	28.9530
 0.7980	28.9610
 0.7990	28.9660
 0.8000	28.9700
 0.8010	28.9740
 0.8020	28.9780
 0.8030	28.9820
 0.8040	28.9850
 0.8050	28.9880
 0.8060	28.9920
 0.8070	28.9930
 0.8080	28.9920
 0.8090	28.9920
 0.8100	28.9940
 0.8110	28.9980
 0.8120	29.0000
 0.8130	28.9980
 0.8140	28.9930
 0.8150	28.9910
 0.8160	28.9930
 0.8170	28.9920
 0.8180	28.9910
 0.8190	28.9880
 0.8200	28.9860
 0.8210	28.9820
 0.8220	28.9770
 0.8230	28.9710
 0.8240	28.9680
 0.8250	28.9650
 0.8260	28.9600
 0.8270	28.9550
 0.8280	28.9560
 0.8290	28.9500
 0.8300	28.9430
 0.8310	28.9400
 0.8320	28.9340
 0.8330	28.9290
 0.8340	28.9240
 0.8350	28.9200
 0.8360	28.9170
 0.8370	28.9160
 0.8380	28.9130
 0.8390	28.9070
 0.8400	28.9050
 0.8410	28.9060
 0.8420	28.9070
 0.8430	28.9070
 0.8440	28.9080
 0.8450	28.9090
 0.8460	28.9110
 0.8470	28.9100
 0.8480	28.9090
 0.8490	28.9070
 0.8500	28.9060
 0.8510	28.9110
 0.8520	28.9130
 0.8530	28.9120
 0.8540	28.9110
 0.8550	28.9140
 0.8560	28.9160
 0.8570	28.9180
 0.8580	28.9240
 0.8590	28.9290
 0.8600	28.9340
 0.8610	28.9390
 0.8620	28.9370
 0.8630	28.9450
 0.8640	28.9530
 0.8650	28.9550
 0.8660	28.9590
 0.8670	28.9630
 0.8680	28.9690
 0.8690	28.9740
 0.8700	28.9760
 0.8710	28.9800
 0.8720	28.9860
 0.8730	28.9900
 0.8740	28.9960
 0.8750	29.0020
 0.8760	29.0080
 0.8770	29.0160
 0.8780	29.0260
 0.8790	29.0350
 0.8800	29.0400
 0.8810	29.0450
 0.8820	29.0500
 0.8830	29.0560
 0.8840	29.0630
 0.8850	29.0700
 0.8860	29.0770
 0.8870	29.0820
 0.8880	29.0850
 0.8890	29.0970
 0.8900	29.1070
 0.8910	29.1130
 0.8920	29.1190
 0.8930	29.1230
 0.8940	29.1310
 0.8950	29.1400
 0.8960	29.1460
 0.8970	29.1510
 0.8980	29.1550
 0.8990	29.1600
 0.9000	29.1660
 0.9010	29.1740
 0.9020	29.1840
 0.9030	29.1930
 0.9040	29.1960
 0.9050	29.1980
 0.9060	29.2030
 0.9070	29.2120
 0.9080	29.2110
 0.9090	29.2090
 0.9100	29.2100
 0.9110	29.2170
 0.9120	29.2250
 0.9130	29.2320
 0.9140	29.2350
 0.9150	29.2330
 0.9160	29.2320
 0.9170	29.2310
 0.9180	29.2300
 0.9190	29.2310
 0.9200	29.2350
 0.9210	29.2330
 0.9220	29.2260
 0.9230	29.2170
 0.9240	29.2130
 0.9250	29.2110
 0.9260	29.2080
 0.9270	29.2040
 0.9280	29.1990
 0.9290	29.1850
 0.9300	29.1670
 0.9310	29.1560
 0.9320	29.1400
 0.9330	29.1270
 0.9340	29.1170
 0.9350	29.1000
 0.9360	29.0800
 0.9370	29.0610
 0.9380	29.0460
 0.9390	29.0240
 0.9400	29.0020
 0.9410	28.9840
 0.9420	28.9670
 0.9430	28.9410
 0.9440	28.9110
 0.9450	28.8850
 0.9460	28.8610
 0.9470	28.8200
 0.9480	28.7840
 0.9490	28.7480
 0.9500	28.7040
 0.9510	28.6580
 0.9520	28.6160
 0.9530	28.5730
 0.9540	28.5240
 0.9550	28.4810
 0.9560	28.4390
 0.9570	28.3940
 0.9580	28.3480
 0.9590	28.3190
 0.9600	28.2880
 0.9610	28.2540
 0.9620	28.2220
 0.9630	28.1920
 0.9640	28.1720
 0.9650	28.1600
 0.9660	28.1470
 0.9670	28.1290
 0.9680	28.1090
 0.9690	28.0940
 0.9700	28.0910
 0.9710	28.0910
 0.9720	28.0810
 0.9730	28.0650
 0.9740	28.0580
 0.9750	28.0640
 0.9760	28.0730
 0.9770	28.0710
 0.9780	28.0550
 0.9790	28.0640
 0.9800	28.0740
 0.9810	28.0800
 0.9820	28.0870
 0.9830	28.0890
 0.9840	28.0860
 0.9850	28.0910
 0.9860	28.1120
 0.9870	28.1160
 0.9880	28.1330
 0.9890	28.1560
 0.9900	28.1660
 0.9910	28.1730
 0.9920	28.1780
 0.9930	28.1840
 0.9940	28.1920
 0.9950	28.2040
 0.9960	28.2200
 0.9970	28.2390
 0.9980	28.2570
 0.9990	28.2740
 1.0000	28.2930
 1.0010	29.0480
 1.0020	29.0620
 1.0030	29.0760
 1.0040	29.0910
 1.0050	29.1080
 1.0060	29.1230
 1.0070	29.1390
 1.0080	29.1560
 1.0090	29.1730
 1.0100	29.1890
 1.0110	29.2080
 1.0120	29.2230
 1.0130	29.2360
 1.0140	29.2500
 1.0150	29.2630
 1.0160	29.2780
 1.0170	29.2950
 1.0180	29.3080
 1.0190	29.3210
 1.0200	29.3350
 1.0210	29.3490
 1.0220	29.3650
 1.0230	29.3810
 1.0240	29.3980
 1.0250	29.4130
 1.0260	29.4260
 1.0270	29.4400
 1.0280	29.4550
 1.0290	29.4680
 1.0300	29.4810
 1.0310	29.4950
 1.0320	29.5110
 1.0330	29.5240
 1.0340	29.5390
 1.0350	29.5540
 1.0360	29.5650
 1.0370	29.5770
 1.0380	29.5900
 1.0390	29.6020
 1.0400	29.6150
 1.0410	29.6300
 1.0420	29.6410
 1.0430	29.6530
 1.0440	29.6630
 1.0450	29.6700
 1.0460	29.6790
 1.0470	29.6900
 1.0480	29.6990
 1.0490	29.7040
 1.0500	29.7120
 1.0510	29.7200
 1.0520	29.7270
 1.0530	29.7340
 1.0540	29.7450
 1.0550	29.7530
 1.0560	29.7590
 1.0570	29.7630
 1.0580	29.7660
 1.0590	29.7700
 1.0600	29.7730
 1.0610	29.7770
 1.0620	29.7830
 1.0630	29.7860
 1.0640	29.7880
 1.0650	29.7890
 1.0660	29.7880
 1.0670	29.7890
 1.0680	29.7890
 1.0690	29.7900
 1.0700	29.7890
 1.0710	29.7890
 1.0720	29.7880
 1.0730	29.7870
 1.0740	29.7870
 1.0750	29.7870
 1.0760	29.7850
 1.0770	29.7820
 1.0780	29.7790
 1.0790	29.7720
 1.0800	29.7690
 1.0810	29.7680
 1.0820	29.7650
 1.0830	29.7650
 1.0840	29.7620
 1.0850	29.7570
 1.0860	29.7520
 1.0870	29.7470
 1.0880	29.7390
 1.0890	29.7330
 1.0900	29.7280
 1.0910	29.7210
 1.0920	29.7140
 1.0930	29.7080
 1.0940	29.7010
 1.0950	29.6950
 1.0960	29.6900
 1.0970	29.6840
 1.0980	29.6750
 1.0990	29.6680
 1.1000	29.6620
 1.1010	29.6550
 1.1020	29.6480
 1.1030	29.6410
 1.1040	29.6290
 1.1050	29.6190
 1.1060	29.6090
 1.1070	29.6000
 1.1080	29.5900
 1.1090	29.5810
 1.1100	29.5700
 1.1110	29.5590
 1.1120	29.5470
 1.1130	29.5350
 1.1140	29.5220
 1.1150	29.5070
 1.1160	29.4920
 1.1170	29.4770
 1.1180	29.4600
 1.1190	29.4430
 1.1200	29.4230
 1.1210	29.4020
 1.1220	29.3780
 1.1230	29.3510
 1.1240	29.3230
 1.1250	29.2900
 1.1260	29.2550
 1.1270	29.2140
 1.1280	29.1700
 1.1290	29.1190
 1.1300	29.0640
 1.1310	29.0030
 1.1320	28.9380
 1.1330	28.8680
 1.1340	28.7940
 1.1350	28.7140
 1.1360	28.6280
 1.1370	28.5370
 1.1380	28.4420
 1.1390	28.3430
 1.1400	28.2400
 1.1410	28.1370
 1.1420	28.0310
 1.1430	27.9230
 1.1440	27.8170
 1.1450	27.7080
 1.1460	27.6050
 1.1470	27.5010
 1.1480	27.4040
 1.1490	27.3100
 1.1500	27.2230
 1.1510	27.1400
 1.1520	27.0630
 1.1530	26.9900
 1.1540	26.9240
 1.1550	26.8640
 1.1560	26.8090
 1.1570	26.7600
 1.1580	26.7180
 1.1590	26.6800
 1.1600	26.6470
 1.1610	26.6180
 1.1620	26.5930
 1.1630	26.5710
 1.1640	26.5500
 1.1650	26.5310
 1.1660	26.5160
 1.1670	26.5010
 1.1680	26.4880
 1.1690	26.4750
 1.1700	26.4630
 1.1710	26.4520
 1.1720	26.4440
 1.1730	26.4330
 1.1740	26.4220
 1.1750	26.4120
 1.1760	26.4020
 1.1770	26.3900
 1.1780	26.3790
 1.1790	26.3680
 1.1800	26.3550
 1.1810	26.3420
 1.1820	26.3270
 1.1830	26.3130
 1.1840	26.2990
 1.1850	26.2850
 1.1860	26.2720
 1.1870	26.2590
 1.1880	26.2470
 1.1890	26.2350
 1.1900	26.2250
 1.1910	26.2170
 1.1920	26.2100
 1.1930	26.2040
 1.1940	26.2000
 1.1950	26.1970
 1.1960	26.1950
 1.1970	26.1960
 1.1980	26.1990
 1.1990	26.2030
 1.2000	26.2080
 1.2010	26.2140
 1.2020	26.2200
 1.2030	26.2280
 1.2040	26.2370
 1.2050	26.2480
 1.2060	26.2600
 1.2070	26.2740
 1.2080	26.2880
 1.2090	26.3020
 1.2100	26.3170
 1.2110	26.3340
 1.2120	26.3510
 1.2130	26.3680
 1.2140	26.3850
 1.2150	26.4030
 1.2160	26.4220
 1.2170	26.4410
 1.2180	26.4620
 1.2190	26.4840
 1.2200	26.5050
 1.2210	26.5250
 1.2220	26.5460
 1.2230	26.5670
 1.2240	26.5890
 1.2250	26.6110
 1.2260	26.6340
 1.2270	26.6550
 1.2280	26.6730
 1.2290	26.6920
 1.2300	26.7100
 1.2310	26.7280
 1.2320	26.7460
 1.2330	26.7640
 1.2340	26.7800
 1.2350	26.7950
 1.2360	26.8110
 1.2370	26.8260
 1.2380	26.8410
 1.2390	26.8550
 1.2400	26.8690
 1.2410	26.8810
 1.2420	26.8930
 1.2430	26.9040
 1.2440	26.9160
 1.2450	26.9270
 1.2460	26.9390
 1.2470	26.9480
 1.2480	26.9570
 1.2490	26.9660
 1.2500	26.9750
 1.2510	26.9850
 1.2520	26.9940
 1.2530	27.0030
 1.2540	27.0090
 1.2550	27.0130
 1.2560	27.0190
 1.2570	27.0240
 1.2580	27.0280
 1.2590	27.0310
 1.2600	27.0370
 1.2610	27.0390
 1.2620	27.0390
 1.2630	27.0390
 1.2640	27.0390
 1.2650	27.0370
 1.2660	27.0360
 1.2670	27.0350
 1.2680	27.0330
 1.2690	27.0290
 1.2700	27.0260
 1.2710	27.0220
 1.2720	27.0170
 1.2730	27.0120
 1.2740	27.0060
 1.2750	26.9990
 1.2760	26.9910
 1.2770	26.9820
 1.2780	26.9720
 1.2790	26.9590
 1.2800	26.9450
 1.2810	26.9310
 1.2820	26.9170
 1.2830	26.9000
 1.2840	26.8820
 1.2850	26.8620
 1.2860	26.8410
 1.2870	26.8190
 1.2880	26.7950
 1.2890	26.7700
 1.2900	26.7420
 1.2910	26.7130
 1.2920	26.6830
 1.2930	26.6500
 1.2940	26.6150
 1.2950	26.5780
 1.2960	26.5390
 1.2970	26.4990
 1.2980	26.4560
 1.2990	26.4130
 1.3000	26.3670
 1.3010	26.3200
 1.3020	26.2720
 1.3030	26.2220
 1.3040	26.1700
 1.3050	26.1160
 1.3060	26.0590
 1.3070	26.0010
 1.3080	25.9420
 1.3090	25.8810
 1.3100	25.8180
 1.3110	25.7540
 1.3120	25.6860
 1.3130	25.6170
 1.3140	25.5450
 1.3150	25.4710
 1.3160	25.3960
 1.3170	25.3210
 1.3180	25.2430
 1.3190	25.1620
 1.3200	25.0790
 1.3210	24.9930
 1.3220	24.9060
 1.3230	24.8180
 1.3240	24.7280
 1.3250	24.6380
 1.3260	24.5450
 1.3270	24.4500
 1.3280	24.3530
 1.3290	24.2550
 1.3300	24.1570
 1.3310	24.0580
 1.3320	23.9580
 1.3330	23.8570
 1.3340	23.7560
 1.3350	23.6530
 1.3360	23.5510
 1.3370	23.4490
 1.3380	23.3470
 1.3390	23.2470
 1.3400	23.1450
 1.3410	23.0460
 1.3420	22.9450
 1.3430	22.8460
 1.3440	22.7500
 1.3450	22.6540
 1.3460	22.5580
 1.3470	22.4630
 1.3480	22.3680
 1.3490	22.2750
 1.3500	22.1840
 1.3510	22.0920
 1.3520	22.0020
 1.3530	21.9120
 1.3540	21.8200
 1.3550	21.7290
 1.3560	21.6370
 1.3570	21.5440
 1.3580	21.4520
 1.3590	21.3570
 1.3600	21.2600
 1.3610	21.1600
 1.3620	21.0560
 1.3630	20.9480
 1.3640	20.8370
 1.3650	20.7200
 1.3660	20.5990
 1.3670	20.4710
 1.3680	20.3360
 1.3690	20.1940
 1.3700	20.0410
 1.3710	19.8790
 1.3720	19.7080
 1.3730	19.5230
 1.3740	19.3290
 1.3750	19.1230
 1.3760	18.9030
 1.3770	18.6680
 1.3780	18.4180
 1.3790	18.1530
 1.3800	17.8730
 1.3810	17.5770
 1.3820	17.2700
 1.3830	16.9520
 1.3840	16.6230
 1.3850	16.2820
 1.3860	15.9360
 1.3870	15.5770
 1.3880	15.2200
 1.3890	14.8580
 1.3900	14.4920
 1.3910	14.1290
 1.3920	13.7670
 1.3930	13.4060
 1.3940	13.0510
 1.3950	12.6990
 1.3960	12.3550
 1.3970	12.0220
 1.3980	11.6980
 1.3990	11.3910
 1.4000	11.0960
 1.4010	10.8110
 1.4020	10.5420
 1.4030	10.2830
 1.4040	10.0380
 1.4050	 9.8100
 1.4060	 9.5940
 1.4070	 9.3950
 1.4080	 9.2080
 1.4090	 9.0320
 1.4100	 8.8700
 1.4110	 8.7190
 1.4120	 8.5790
 1.4130	 8.4500
 1.4140	 8.3310
 1.4150	 8.2230
 1.4160	 8.1230
 1.4170	 8.0310
 1.4180	 7.9470
 1.4190	 7.8690
 1.4200	 7.7970
 1.4210	 7.7330
 1.4220	 7.6740
 1.4230	 7.6210
 1.4240	 7.5720
 1.4250	 7.5270
 1.4260	 7.4870
 1.4270	 7.4500
 1.4280	 7.4170
 1.4290	 7.3870
 1.4300	 7.3610
 1.4310	 7.3380
 1.4320	 7.3180
 1.4330	 7.3000
 1.4340	 7.2860
 1.4350	 7.2730
 1.4360	 7.2620
 1.4370	 7.2530
 1.4380	 7.2470
 1.4390	 7.2430
 1.4400	 7.2390
 1.4410	 7.2380
 1.4420	 7.2370
 1.4430	 7.2380
 1.4440	 7.2400
 1.4450	 7.2430
 1.4460	 7.2480
 1.4470	 7.2540
 1.4480	 7.2610
 1.4490	 7.2680
 1.4500	 7.2760
 1.4510	 7.2850
 1.4520	 7.2940
 1.4530	 7.3040
 1.4540	 7.3160
 1.4550	 7.3290
 1.4560	 7.3430
 1.4570	 7.3580
 1.4580	 7.3740
 1.4590	 7.3920
 1.4600	 7.4130
 1.4610	 7.4350
 1.4620	 7.4590
 1.4630	 7.4870
 1.4640	 7.5160
 1.4650	 7.5470
 1.4660	 7.5810
 1.4670	 7.6170
 1.4680	 7.6560
 1.4690	 7.6970
 1.4700	 7.7410
 1.4710	 7.7870
 1.4720	 7.8350
 1.4730	 7.8840
 1.4740	 7.9360
 1.4750	 7.9900
 1.4760	 8.0460
 1.4770	 8.1040
