Name: Ceanothus spinosus 2
Type: vegetation
Class: Shrub
Genus: Ceanothus
Species: spinosus
Sample No.: VH202
Owner: UCSB
Wavelength Range: VSWIR
Origin: 34.4906; -119.7908; WGS84
Collection Date: 10/13/2013
Description: Samples were collected as part of the HyspIRI Airborne Campaign. 48 individual plants were sampled in three times in 2013 - spring  summer  and fall. The name of the sample includes a 1  2  or 3 which references a different individual of the species. Samples were taken to JPL and processed within 48 hours of collection. The same leaves were processed in the Nicolet and then measured using the ASD.
Measurement: Bidirectional reflectance
First Column: X
Second Column: Y
X Units: Wavelength (micrometers)
Y Units: Reflectance (percentage)
First X Value: 0.35
Last X Value: 2.5
Number of X Values: 2151
Additional Information: vegetation.shrub.ceanothus.spinosus.vswir.vh202.ucsb.asd.ancillary.txt

 0.3500	10.6190
 0.3510	10.6100
 0.3520	10.5250
 0.3530	10.4200
 0.3540	10.3400
 0.3550	10.1580
 0.3560	10.0840
 0.3570	10.1490
 0.3580	10.2730
 0.3590	10.2820
 0.3600	10.2510
 0.3610	10.1880
 0.3620	 9.9650
 0.3630	 9.9740
 0.3640	10.0840
 0.3650	10.0730
 0.3660	 9.9340
 0.3670	 9.8550
 0.3680	 9.8520
 0.3690	 9.8340
 0.3700	 9.9430
 0.3710	 9.9460
 0.3720	 9.8150
 0.3730	 9.9890
 0.3740	10.0570
 0.3750	 9.9700
 0.3760	 9.8230
 0.3770	 9.7760
 0.3780	 9.8850
 0.3790	10.0300
 0.3800	 9.9730
 0.3810	 9.9010
 0.3820	 9.8950
 0.3830	 9.9250
 0.3840	 9.7520
 0.3850	 9.6680
 0.3860	 9.7130
 0.3870	 9.8140
 0.3880	 9.8680
 0.3890	 9.8380
 0.3900	 9.7760
 0.3910	 9.8060
 0.3920	 9.7560
 0.3930	 9.7170
 0.3940	 9.7600
 0.3950	 9.7650
 0.3960	 9.7700
 0.3970	 9.7470
 0.3980	 9.6670
 0.3990	 9.7010
 0.4000	 9.7420
 0.4010	 9.7180
 0.4020	 9.6310
 0.4030	 9.6240
 0.4040	 9.6550
 0.4050	 9.6600
 0.4060	 9.6710
 0.4070	 9.6430
 0.4080	 9.6210
 0.4090	 9.6870
 0.4100	 9.7210
 0.4110	 9.7220
 0.4120	 9.7010
 0.4130	 9.6520
 0.4140	 9.6260
 0.4150	 9.6530
 0.4160	 9.7250
 0.4170	 9.7170
 0.4180	 9.6890
 0.4190	 9.6870
 0.4200	 9.7370
 0.4210	 9.7770
 0.4220	 9.7960
 0.4230	 9.8000
 0.4240	 9.8210
 0.4250	 9.8430
 0.4260	 9.8670
 0.4270	 9.9030
 0.4280	 9.9440
 0.4290	 9.9650
 0.4300	 9.9620
 0.4310	 9.9670
 0.4320	 9.9780
 0.4330	10.0050
 0.4340	10.0450
 0.4350	10.0310
 0.4360	10.0390
 0.4370	10.0770
 0.4380	10.0960
 0.4390	10.1230
 0.4400	10.1670
 0.4410	10.2200
 0.4420	10.2490
 0.4430	10.2580
 0.4440	10.2600
 0.4450	10.2740
 0.4460	10.3140
 0.4470	10.3370
 0.4480	10.3340
 0.4490	10.3420
 0.4500	10.3580
 0.4510	10.3790
 0.4520	10.4030
 0.4530	10.4290
 0.4540	10.4510
 0.4550	10.4670
 0.4560	10.4790
 0.4570	10.4940
 0.4580	10.4920
 0.4590	10.4770
 0.4600	10.5010
 0.4610	10.5160
 0.4620	10.5190
 0.4630	10.5200
 0.4640	10.5320
 0.4650	10.5440
 0.4660	10.5480
 0.4670	10.5400
 0.4680	10.5470
 0.4690	10.5540
 0.4700	10.5510
 0.4710	10.5700
 0.4720	10.5840
 0.4730	10.5880
 0.4740	10.5890
 0.4750	10.5830
 0.4760	10.5820
 0.4770	10.5920
 0.4780	10.6130
 0.4790	10.6170
 0.4800	10.6100
 0.4810	10.6080
 0.4820	10.6220
 0.4830	10.6340
 0.4840	10.6370
 0.4850	10.6390
 0.4860	10.6420
 0.4870	10.6510
 0.4880	10.6680
 0.4890	10.6720
 0.4900	10.7010
 0.4910	10.7420
 0.4920	10.7620
 0.4930	10.7960
 0.4940	10.8330
 0.4950	10.8670
 0.4960	10.9110
 0.4970	10.9590
 0.4980	11.0070
 0.4990	11.0540
 0.5000	11.1030
 0.5010	11.1550
 0.5020	11.2130
 0.5030	11.2830
 0.5040	11.3590
 0.5050	11.4410
 0.5060	11.5310
 0.5070	11.6390
 0.5080	11.7390
 0.5090	11.8420
 0.5100	11.9660
 0.5110	12.0900
 0.5120	12.2370
 0.5130	12.4020
 0.5140	12.5480
 0.5150	12.7240
 0.5160	12.9150
 0.5170	13.1000
 0.5180	13.2970
 0.5190	13.5040
 0.5200	13.7200
 0.5210	13.9390
 0.5220	14.1560
 0.5230	14.3750
 0.5240	14.5940
 0.5250	14.7970
 0.5260	14.9930
 0.5270	15.1850
 0.5280	15.3720
 0.5290	15.5470
 0.5300	15.7060
 0.5310	15.8500
 0.5320	15.9860
 0.5330	16.1100
 0.5340	16.2200
 0.5350	16.3190
 0.5360	16.4110
 0.5370	16.4970
 0.5380	16.5720
 0.5390	16.6270
 0.5400	16.6690
 0.5410	16.7050
 0.5420	16.7370
 0.5430	16.7600
 0.5440	16.7910
 0.5450	16.8330
 0.5460	16.8860
 0.5470	16.9670
 0.5480	17.0450
 0.5490	17.1040
 0.5500	17.1510
 0.5510	17.1820
 0.5520	17.2060
 0.5530	17.2290
 0.5540	17.2320
 0.5550	17.2270
 0.5560	17.2140
 0.5570	17.1870
 0.5580	17.1470
 0.5590	17.0890
 0.5600	17.0110
 0.5610	16.9180
 0.5620	16.8090
 0.5630	16.6870
 0.5640	16.5570
 0.5650	16.4180
 0.5660	16.2730
 0.5670	16.1240
 0.5680	15.9740
 0.5690	15.8330
 0.5700	15.7030
 0.5710	15.5780
 0.5720	15.4470
 0.5730	15.3130
 0.5740	15.1830
 0.5750	15.0650
 0.5760	14.9320
 0.5770	14.8040
 0.5780	14.6890
 0.5790	14.5740
 0.5800	14.4680
 0.5810	14.3740
 0.5820	14.2930
 0.5830	14.2370
 0.5840	14.2090
 0.5850	14.1980
 0.5860	14.1840
 0.5870	14.1540
 0.5880	14.1150
 0.5890	14.0740
 0.5900	14.0260
 0.5910	13.9750
 0.5920	13.9240
 0.5930	13.8750
 0.5940	13.8420
 0.5950	13.8240
 0.5960	13.8130
 0.5970	13.8000
 0.5980	13.7900
 0.5990	13.7720
 0.6000	13.7370
 0.6010	13.7060
 0.6020	13.6760
 0.6030	13.6400
 0.6040	13.5960
 0.6050	13.5490
 0.6060	13.4970
 0.6070	13.4380
 0.6080	13.3710
 0.6090	13.2960
 0.6100	13.2070
 0.6110	13.1010
 0.6120	13.0420
 0.6130	13.0090
 0.6140	12.9780
 0.6150	12.9340
 0.6160	12.8860
 0.6170	12.8410
 0.6180	12.8060
 0.6190	12.7670
 0.6200	12.7280
 0.6210	12.6940
 0.6220	12.6740
 0.6230	12.6570
 0.6240	12.6440
 0.6250	12.6350
 0.6260	12.6270
 0.6270	12.6210
 0.6280	12.6140
 0.6290	12.6040
 0.6300	12.6000
 0.6310	12.5990
 0.6320	12.5960
 0.6330	12.5950
 0.6340	12.5870
 0.6350	12.5690
 0.6360	12.5390
 0.6370	12.5060
 0.6380	12.4680
 0.6390	12.4200
 0.6400	12.3590
 0.6410	12.2960
 0.6420	12.2310
 0.6430	12.1650
 0.6440	12.0940
 0.6450	12.0230
 0.6460	11.9560
 0.6470	11.8950
 0.6480	11.8360
 0.6490	11.7830
 0.6500	11.7330
 0.6510	11.6810
 0.6520	11.6410
 0.6530	11.6080
 0.6540	11.5730
 0.6550	11.5370
 0.6560	11.4940
 0.6570	11.4490
 0.6580	11.4090
 0.6590	11.3620
 0.6600	11.3120
 0.6610	11.2620
 0.6620	11.2170
 0.6630	11.1740
 0.6640	11.1390
 0.6650	11.1130
 0.6660	11.0800
 0.6670	11.0580
 0.6680	11.0450
 0.6690	11.0320
 0.6700	11.0250
 0.6710	11.0300
 0.6720	11.0440
 0.6730	11.0510
 0.6740	11.0660
 0.6750	11.0860
 0.6760	11.1080
 0.6770	11.1330
 0.6780	11.1680
 0.6790	11.2110
 0.6800	11.2520
 0.6810	11.3060
 0.6820	11.3650
 0.6830	11.4260
 0.6840	11.5010
 0.6850	11.6010
 0.6860	11.7200
 0.6870	11.8510
 0.6880	12.0150
 0.6890	12.2120
 0.6900	12.4490
 0.6910	12.7340
 0.6920	13.0680
 0.6930	13.4630
 0.6940	13.9300
 0.6950	14.4730
 0.6960	15.0910
 0.6970	15.7790
 0.6980	16.5350
 0.6990	17.3650
 0.7000	18.2640
 0.7010	19.2170
 0.7020	20.2030
 0.7030	21.2330
 0.7040	22.2860
 0.7050	23.3430
 0.7060	24.4180
 0.7070	25.4940
 0.7080	26.5650
 0.7090	27.6320
 0.7100	28.6950
 0.7110	29.7310
 0.7120	30.7380
 0.7130	31.7400
 0.7140	32.7140
 0.7150	33.6630
 0.7160	34.5890
 0.7170	35.4890
 0.7180	36.3540
 0.7190	37.1830
 0.7200	37.9810
 0.7210	38.7600
 0.7220	39.5060
 0.7230	40.2170
 0.7240	40.9130
 0.7250	41.5720
 0.7260	42.1850
 0.7270	42.7600
 0.7280	43.3280
 0.7290	43.8520
 0.7300	44.3400
 0.7310	44.8090
 0.7320	45.2590
 0.7330	45.6700
 0.7340	46.0480
 0.7350	46.4240
 0.7360	46.7800
 0.7370	47.1030
 0.7380	47.3940
 0.7390	47.6610
 0.7400	47.9360
 0.7410	48.1980
 0.7420	48.4140
 0.7430	48.6260
 0.7440	48.8300
 0.7450	49.0170
 0.7460	49.1790
 0.7470	49.3410
 0.7480	49.4890
 0.7490	49.6130
 0.7500	49.7290
 0.7510	49.8350
 0.7520	49.9330
 0.7530	50.0280
 0.7540	50.1260
 0.7550	50.2010
 0.7560	50.2560
 0.7570	50.3180
 0.7580	50.3700
 0.7590	50.4230
 0.7600	50.4770
 0.7610	50.5120
 0.7620	50.5510
 0.7630	50.5910
 0.7640	50.6220
 0.7650	50.6410
 0.7660	50.6730
 0.7670	50.7070
 0.7680	50.7110
 0.7690	50.7350
 0.7700	50.7630
 0.7710	50.7810
 0.7720	50.7880
 0.7730	50.7980
 0.7740	50.8140
 0.7750	50.8320
 0.7760	50.8400
 0.7770	50.8410
 0.7780	50.8450
 0.7790	50.8680
 0.7800	50.8920
 0.7810	50.9020
 0.7820	50.9060
 0.7830	50.9320
 0.7840	50.9500
 0.7850	50.9560
 0.7860	50.9550
 0.7870	50.9760
 0.7880	50.9920
 0.7890	50.9960
 0.7900	50.9950
 0.7910	51.0050
 0.7920	51.0280
 0.7930	51.0520
 0.7940	51.0610
 0.7950	51.0730
 0.7960	51.0850
 0.7970	51.0900
 0.7980	51.0790
 0.7990	51.1000
 0.8000	51.1300
 0.8010	51.1450
 0.8020	51.1580
 0.8030	51.1610
 0.8040	51.1690
 0.8050	51.1960
 0.8060	51.2030
 0.8070	51.1890
 0.8080	51.1840
 0.8090	51.2310
 0.8100	51.2460
 0.8110	51.2560
 0.8120	51.2740
 0.8130	51.2670
 0.8140	51.2800
 0.8150	51.2940
 0.8160	51.2890
 0.8170	51.2960
 0.8180	51.3220
 0.8190	51.3520
 0.8200	51.3640
 0.8210	51.3550
 0.8220	51.3530
 0.8230	51.3620
 0.8240	51.3670
 0.8250	51.3920
 0.8260	51.4130
 0.8270	51.4150
 0.8280	51.4210
 0.8290	51.4290
 0.8300	51.4340
 0.8310	51.4350
 0.8320	51.4370
 0.8330	51.4430
 0.8340	51.4500
 0.8350	51.4510
 0.8360	51.4690
 0.8370	51.4730
 0.8380	51.4700
 0.8390	51.4940
 0.8400	51.4960
 0.8410	51.5020
 0.8420	51.5190
 0.8430	51.5180
 0.8440	51.5060
 0.8450	51.5140
 0.8460	51.5480
 0.8470	51.5510
 0.8480	51.5530
 0.8490	51.5530
 0.8500	51.5490
 0.8510	51.5730
 0.8520	51.6010
 0.8530	51.6160
 0.8540	51.6070
 0.8550	51.6040
 0.8560	51.6060
 0.8570	51.6140
 0.8580	51.6260
 0.8590	51.6260
 0.8600	51.6290
 0.8610	51.6400
 0.8620	51.6340
 0.8630	51.6350
 0.8640	51.6360
 0.8650	51.6350
 0.8660	51.6560
 0.8670	51.6700
 0.8680	51.6690
 0.8690	51.6560
 0.8700	51.6440
 0.8710	51.6490
 0.8720	51.6540
 0.8730	51.6350
 0.8740	51.6530
 0.8750	51.6790
 0.8760	51.6910
 0.8770	51.6850
 0.8780	51.6900
 0.8790	51.6810
 0.8800	51.6580
 0.8810	51.6640
 0.8820	51.6740
 0.8830	51.6840
 0.8840	51.6890
 0.8850	51.6700
 0.8860	51.6630
 0.8870	51.6700
 0.8880	51.6790
 0.8890	51.6660
 0.8900	51.6700
 0.8910	51.6850
 0.8920	51.6890
 0.8930	51.6880
 0.8940	51.6750
 0.8950	51.6520
 0.8960	51.6320
 0.8970	51.6350
 0.8980	51.6400
 0.8990	51.6390
 0.9000	51.6430
 0.9010	51.6380
 0.9020	51.6250
 0.9030	51.6240
 0.9040	51.6690
 0.9050	51.6630
 0.9060	51.6310
 0.9070	51.6110
 0.9080	51.6100
 0.9090	51.6170
 0.9100	51.6260
 0.9110	51.6280
 0.9120	51.6050
 0.9130	51.6040
 0.9140	51.6170
 0.9150	51.6190
 0.9160	51.6080
 0.9170	51.5980
 0.9180	51.6060
 0.9190	51.6350
 0.9200	51.6300
 0.9210	51.6050
 0.9220	51.5740
 0.9230	51.5550
 0.9240	51.5660
 0.9250	51.5820
 0.9260	51.5820
 0.9270	51.5570
 0.9280	51.5410
 0.9290	51.5250
 0.9300	51.4960
 0.9310	51.4490
 0.9320	51.4550
 0.9330	51.4530
 0.9340	51.4290
 0.9350	51.4420
 0.9360	51.4160
 0.9370	51.3730
 0.9380	51.3390
 0.9390	51.3190
 0.9400	51.3080
 0.9410	51.3000
 0.9420	51.2820
 0.9430	51.2350
 0.9440	51.1950
 0.9450	51.1690
 0.9460	51.1540
 0.9470	51.1490
 0.9480	51.1190
 0.9490	51.0700
 0.9500	51.0170
 0.9510	50.9590
 0.9520	50.8900
 0.9530	50.8280
 0.9540	50.7860
 0.9550	50.7210
 0.9560	50.6960
 0.9570	50.6700
 0.9580	50.6010
 0.9590	50.5570
 0.9600	50.5200
 0.9610	50.4780
 0.9620	50.4300
 0.9630	50.4000
 0.9640	50.3580
 0.9650	50.3260
 0.9660	50.3250
 0.9670	50.2910
 0.9680	50.2690
 0.9690	50.2740
 0.9700	50.2960
 0.9710	50.2940
 0.9720	50.2460
 0.9730	50.2040
 0.9740	50.2260
 0.9750	50.2360
 0.9760	50.2170
 0.9770	50.2070
 0.9780	50.2440
 0.9790	50.2640
 0.9800	50.2770
 0.9810	50.2590
 0.9820	50.2060
 0.9830	50.2640
 0.9840	50.2950
 0.9850	50.2940
 0.9860	50.3180
 0.9870	50.3710
 0.9880	50.3870
 0.9890	50.3810
 0.9900	50.4010
 0.9910	50.4420
 0.9920	50.4750
 0.9930	50.5070
 0.9940	50.5400
 0.9950	50.5720
 0.9960	50.6050
 0.9970	50.6370
 0.9980	50.6700
 0.9990	50.7020
 1.0000	50.7350
 1.0010	50.7670
 1.0020	50.8000
 1.0030	50.8320
 1.0040	50.8650
 1.0050	50.8970
 1.0060	50.9300
 1.0070	50.9630
 1.0080	50.9950
 1.0090	51.0280
 1.0100	51.0280
 1.0110	51.0370
 1.0120	51.0550
 1.0130	51.0730
 1.0140	51.0890
 1.0150	51.1120
 1.0160	51.1290
 1.0170	51.1330
 1.0180	51.1540
 1.0190	51.1900
 1.0200	51.2170
 1.0210	51.2410
 1.0220	51.2640
 1.0230	51.2850
 1.0240	51.2990
 1.0250	51.3160
 1.0260	51.3310
 1.0270	51.3540
 1.0280	51.3890
 1.0290	51.4050
 1.0300	51.4120
 1.0310	51.4310
 1.0320	51.4480
 1.0330	51.4540
 1.0340	51.4730
 1.0350	51.5100
 1.0360	51.5330
 1.0370	51.5420
 1.0380	51.5530
 1.0390	51.5650
 1.0400	51.5730
 1.0410	51.5700
 1.0420	51.5820
 1.0430	51.6050
 1.0440	51.6160
 1.0450	51.6320
 1.0460	51.6380
 1.0470	51.6260
 1.0480	51.6260
 1.0490	51.6330
 1.0500	51.6360
 1.0510	51.6410
 1.0520	51.6520
 1.0530	51.6570
 1.0540	51.6580
 1.0550	51.6650
 1.0560	51.6770
 1.0570	51.6810
 1.0580	51.6860
 1.0590	51.6860
 1.0600	51.6760
 1.0610	51.6740
 1.0620	51.6760
 1.0630	51.6770
 1.0640	51.6820
 1.0650	51.6850
 1.0660	51.6910
 1.0670	51.6930
 1.0680	51.6940
 1.0690	51.6980
 1.0700	51.6930
 1.0710	51.6800
 1.0720	51.6730
 1.0730	51.6610
 1.0740	51.6560
 1.0750	51.6570
 1.0760	51.6560
 1.0770	51.6590
 1.0780	51.6600
 1.0790	51.6620
 1.0800	51.6620
 1.0810	51.6630
 1.0820	51.6600
 1.0830	51.6530
 1.0840	51.6490
 1.0850	51.6420
 1.0860	51.6380
 1.0870	51.6350
 1.0880	51.6360
 1.0890	51.6330
 1.0900	51.6280
 1.0910	51.6260
 1.0920	51.6300
 1.0930	51.6260
 1.0940	51.6160
 1.0950	51.6120
 1.0960	51.6080
 1.0970	51.6000
 1.0980	51.5970
 1.0990	51.5870
 1.1000	51.5620
 1.1010	51.5460
 1.1020	51.5340
 1.1030	51.5210
 1.1040	51.5110
 1.1050	51.5030
 1.1060	51.5000
 1.1070	51.5010
 1.1080	51.4960
 1.1090	51.4940
 1.1100	51.4860
 1.1110	51.4680
 1.1120	51.4550
 1.1130	51.4410
 1.1140	51.4280
 1.1150	51.4200
 1.1160	51.4030
 1.1170	51.3890
 1.1180	51.3650
 1.1190	51.3290
 1.1200	51.2940
 1.1210	51.2570
 1.1220	51.2170
 1.1230	51.1810
 1.1240	51.1420
 1.1250	51.1000
 1.1260	51.0570
 1.1270	51.0080
 1.1280	50.9580
 1.1290	50.8980
 1.1300	50.8300
 1.1310	50.7590
 1.1320	50.6800
 1.1330	50.5980
 1.1340	50.5170
 1.1350	50.4250
 1.1360	50.3260
 1.1370	50.2200
 1.1380	50.1060
 1.1390	49.9860
 1.1400	49.8670
 1.1410	49.7480
 1.1420	49.6220
 1.1430	49.4960
 1.1440	49.3670
 1.1450	49.2300
 1.1460	49.0970
 1.1470	48.9600
 1.1480	48.8330
 1.1490	48.7060
 1.1500	48.5900
 1.1510	48.4820
 1.1520	48.3810
 1.1530	48.2880
 1.1540	48.2010
 1.1550	48.1220
 1.1560	48.0490
 1.1570	47.9750
 1.1580	47.9160
 1.1590	47.8640
 1.1600	47.8120
 1.1610	47.7750
 1.1620	47.7410
 1.1630	47.7050
 1.1640	47.6820
 1.1650	47.6630
 1.1660	47.6470
 1.1670	47.6340
 1.1680	47.6300
 1.1690	47.6230
 1.1700	47.6210
 1.1710	47.6150
 1.1720	47.6050
 1.1730	47.6030
 1.1740	47.6040
 1.1750	47.6030
 1.1760	47.6090
 1.1770	47.6160
 1.1780	47.6140
 1.1790	47.6100
 1.1800	47.6040
 1.1810	47.5910
 1.1820	47.5840
 1.1830	47.5820
 1.1840	47.5750
 1.1850	47.5690
 1.1860	47.5640
 1.1870	47.5590
 1.1880	47.5570
 1.1890	47.5580
 1.1900	47.5600
 1.1910	47.5640
 1.1920	47.5650
 1.1930	47.5680
 1.1940	47.5710
 1.1950	47.5720
 1.1960	47.5730
 1.1970	47.5760
 1.1980	47.5820
 1.1990	47.5920
 1.2000	47.6000
 1.2010	47.6130
 1.2020	47.6250
 1.2030	47.6390
 1.2040	47.6600
 1.2050	47.6810
 1.2060	47.7030
 1.2070	47.7220
 1.2080	47.7400
 1.2090	47.7570
 1.2100	47.7760
 1.2110	47.7980
 1.2120	47.8220
 1.2130	47.8470
 1.2140	47.8810
 1.2150	47.9090
 1.2160	47.9350
 1.2170	47.9650
 1.2180	47.9930
 1.2190	48.0120
 1.2200	48.0330
 1.2210	48.0560
 1.2220	48.0740
 1.2230	48.0930
 1.2240	48.1170
 1.2250	48.1430
 1.2260	48.1650
 1.2270	48.1870
 1.2280	48.2060
 1.2290	48.2200
 1.2300	48.2420
 1.2310	48.2630
 1.2320	48.2780
 1.2330	48.2960
 1.2340	48.3160
 1.2350	48.3350
 1.2360	48.3560
 1.2370	48.3830
 1.2380	48.4060
 1.2390	48.4250
 1.2400	48.4360
 1.2410	48.4510
 1.2420	48.4690
 1.2430	48.4830
 1.2440	48.5030
 1.2450	48.5210
 1.2460	48.5360
 1.2470	48.5500
 1.2480	48.5570
 1.2490	48.5650
 1.2500	48.5750
 1.2510	48.5840
 1.2520	48.6010
 1.2530	48.6100
 1.2540	48.6100
 1.2550	48.6150
 1.2560	48.6160
 1.2570	48.6160
 1.2580	48.6230
 1.2590	48.6280
 1.2600	48.6320
 1.2610	48.6350
 1.2620	48.6400
 1.2630	48.6440
 1.2640	48.6370
 1.2650	48.6410
 1.2660	48.6450
 1.2670	48.6360
 1.2680	48.6300
 1.2690	48.6190
 1.2700	48.6040
 1.2710	48.5960
 1.2720	48.5880
 1.2730	48.5770
 1.2740	48.5620
 1.2750	48.5480
 1.2760	48.5380
 1.2770	48.5250
 1.2780	48.5110
 1.2790	48.4940
 1.2800	48.4770
 1.2810	48.4600
 1.2820	48.4390
 1.2830	48.4200
 1.2840	48.3960
 1.2850	48.3700
 1.2860	48.3520
 1.2870	48.3270
 1.2880	48.3000
 1.2890	48.2710
 1.2900	48.2400
 1.2910	48.1980
 1.2920	48.1640
 1.2930	48.1270
 1.2940	48.0890
 1.2950	48.0580
 1.2960	48.0200
 1.2970	47.9860
 1.2980	47.9520
 1.2990	47.9080
 1.3000	47.8620
 1.3010	47.8120
 1.3020	47.7600
 1.3030	47.7080
 1.3040	47.6520
 1.3050	47.5940
 1.3060	47.5350
 1.3070	47.4770
 1.3080	47.4140
 1.3090	47.3500
 1.3100	47.2790
 1.3110	47.1980
 1.3120	47.1180
 1.3130	47.0400
 1.3140	46.9590
 1.3150	46.8800
 1.3160	46.7940
 1.3170	46.7040
 1.3180	46.6070
 1.3190	46.5080
 1.3200	46.4070
 1.3210	46.3020
 1.3220	46.1990
 1.3230	46.0910
 1.3240	45.9770
 1.3250	45.8700
 1.3260	45.7570
 1.3270	45.6330
 1.3280	45.5160
 1.3290	45.3910
 1.3300	45.2630
 1.3310	45.1380
 1.3320	45.0030
 1.3330	44.8670
 1.3340	44.7290
 1.3350	44.5910
 1.3360	44.4530
 1.3370	44.3140
 1.3380	44.1730
 1.3390	44.0260
 1.3400	43.8790
 1.3410	43.7330
 1.3420	43.5860
 1.3430	43.4420
 1.3440	43.3000
 1.3450	43.1590
 1.3460	43.0170
 1.3470	42.8790
 1.3480	42.7410
 1.3490	42.6040
 1.3500	42.4690
 1.3510	42.3350
 1.3520	42.1990
 1.3530	42.0620
 1.3540	41.9280
 1.3550	41.7910
 1.3560	41.6560
 1.3570	41.5270
 1.3580	41.3940
 1.3590	41.2580
 1.3600	41.1200
 1.3610	40.9740
 1.3620	40.8240
 1.3630	40.6730
 1.3640	40.5140
 1.3650	40.3490
 1.3660	40.1780
 1.3670	39.9920
 1.3680	39.7910
 1.3690	39.5830
 1.3700	39.3600
 1.3710	39.1280
 1.3720	38.8900
 1.3730	38.6350
 1.3740	38.3640
 1.3750	38.0780
 1.3760	37.7710
 1.3770	37.4430
 1.3780	37.0950
 1.3790	36.7280
 1.3800	36.3400
 1.3810	35.9280
 1.3820	35.4950
 1.3830	35.0380
 1.3840	34.5640
 1.3850	34.0680
 1.3860	33.5580
 1.3870	33.0270
 1.3880	32.4890
 1.3890	31.9360
 1.3900	31.3690
 1.3910	30.8010
 1.3920	30.2270
 1.3930	29.6450
 1.3940	29.0670
 1.3950	28.4830
 1.3960	27.9050
 1.3970	27.3400
 1.3980	26.7800
 1.3990	26.2420
 1.4000	25.7160
 1.4010	25.1980
 1.4020	24.7030
 1.4030	24.2230
 1.4040	23.7630
 1.4050	23.3290
 1.4060	22.9110
 1.4070	22.5190
 1.4080	22.1480
 1.4090	21.7960
 1.4100	21.4690
 1.4110	21.1600
 1.4120	20.8710
 1.4130	20.6060
 1.4140	20.3590
 1.4150	20.1360
 1.4160	19.9300
 1.4170	19.7390
 1.4180	19.5670
 1.4190	19.4110
 1.4200	19.2670
 1.4210	19.1400
 1.4220	19.0260
 1.4230	18.9210
 1.4240	18.8290
 1.4250	18.7450
 1.4260	18.6690
 1.4270	18.6030
 1.4280	18.5460
 1.4290	18.4970
 1.4300	18.4570
 1.4310	18.4240
 1.4320	18.4000
 1.4330	18.3800
 1.4340	18.3690
 1.4350	18.3590
 1.4360	18.3530
 1.4370	18.3480
 1.4380	18.3490
 1.4390	18.3540
 1.4400	18.3620
 1.4410	18.3780
 1.4420	18.3940
 1.4430	18.4120
 1.4440	18.4330
 1.4450	18.4530
 1.4460	18.4750
 1.4470	18.5000
 1.4480	18.5260
 1.4490	18.5550
 1.4500	18.5850
 1.4510	18.6140
 1.4520	18.6440
 1.4530	18.6730
 1.4540	18.7050
 1.4550	18.7390
 1.4560	18.7690
 1.4570	18.8040
 1.4580	18.8430
 1.4590	18.8850
 1.4600	18.9330
 1.4610	18.9850
 1.4620	19.0380
 1.4630	19.0970
 1.4640	19.1570
 1.4650	19.2220
 1.4660	19.2900
 1.4670	19.3620
 1.4680	19.4390
 1.4690	19.5240
 1.4700	19.6130
