Name: Taxodium mucronatum
Type: vegetation
Class: Tree
Genus: Taxodium
Species: mucronatum
Sample No.: JPL228
Owner: JPL
Wavelength Range: VSWIR
Origin: 34.12642; -118.11439; WGS84
Collection Date: 10/3/2016
Description: Samples were collected at the Huntington Garden in San Marino California as part of a JPL Subcontract studying HyTES imagery. Samples were taken to JPL and processed within 48 hours of collection. The same leaves were processed in the Nicolet and then measured using the ASD.
Measurement: Bidirectional reflectance
First Column: X
Second Column: Y
X Units: Wavelength (micrometer)
Y Units: Reflectance (percentage)
First X Value: 0.35
Last X Value: 2.5
Number of X Values: 2151
Additional Information: vegetation.tree.taxodium.mucronatum.vswir.jpl228.jpl.asd.ancillary.txt

 0.3500	 3.1170
 0.3510	 3.2500
 0.3520	 3.2870
 0.3530	 3.1880
 0.3540	 3.0460
 0.3550	 3.1210
 0.3560	 3.1640
 0.3570	 3.1410
 0.3580	 3.1390
 0.3590	 3.1790
 0.3600	 3.1620
 0.3610	 3.0810
 0.3620	 3.0690
 0.3630	 3.0720
 0.3640	 3.0660
 0.3650	 3.0530
 0.3660	 3.1140
 0.3670	 3.1540
 0.3680	 3.1600
 0.3690	 3.1780
 0.3700	 3.1280
 0.3710	 3.0830
 0.3720	 3.0810
 0.3730	 3.0550
 0.3740	 3.0640
 0.3750	 3.0760
 0.3760	 3.0520
 0.3770	 3.0480
 0.3780	 3.0370
 0.3790	 3.0380
 0.3800	 3.1010
 0.3810	 3.1440
 0.3820	 3.1500
 0.3830	 3.1270
 0.3840	 3.1020
 0.3850	 3.1160
 0.3860	 3.1370
 0.3870	 3.1200
 0.3880	 3.1360
 0.3890	 3.1650
 0.3900	 3.1840
 0.3910	 3.1800
 0.3920	 3.2110
 0.3930	 3.2330
 0.3940	 3.2140
 0.3950	 3.2100
 0.3960	 3.2170
 0.3970	 3.2360
 0.3980	 3.2690
 0.3990	 3.3120
 0.4000	 3.3130
 0.4010	 3.2870
 0.4020	 3.3330
 0.4030	 3.3680
 0.4040	 3.3900
 0.4050	 3.4100
 0.4060	 3.4250
 0.4070	 3.4550
 0.4080	 3.4860
 0.4090	 3.4850
 0.4100	 3.5090
 0.4110	 3.5450
 0.4120	 3.5800
 0.4130	 3.6250
 0.4140	 3.6520
 0.4150	 3.6710
 0.4160	 3.6970
 0.4170	 3.7180
 0.4180	 3.7330
 0.4190	 3.7500
 0.4200	 3.7760
 0.4210	 3.7930
 0.4220	 3.8070
 0.4230	 3.8290
 0.4240	 3.8670
 0.4250	 3.8920
 0.4260	 3.9030
 0.4270	 3.9190
 0.4280	 3.9440
 0.4290	 3.9580
 0.4300	 3.9580
 0.4310	 3.9720
 0.4320	 3.9850
 0.4330	 3.9980
 0.4340	 4.0140
 0.4350	 4.0280
 0.4360	 4.0320
 0.4370	 4.0350
 0.4380	 4.0560
 0.4390	 4.0640
 0.4400	 4.0620
 0.4410	 4.0610
 0.4420	 4.0800
 0.4430	 4.0960
 0.4440	 4.1100
 0.4450	 4.1290
 0.4460	 4.1400
 0.4470	 4.1500
 0.4480	 4.1660
 0.4490	 4.1850
 0.4500	 4.2040
 0.4510	 4.2170
 0.4520	 4.2210
 0.4530	 4.2330
 0.4540	 4.2440
 0.4550	 4.2540
 0.4560	 4.2700
 0.4570	 4.2790
 0.4580	 4.2830
 0.4590	 4.2860
 0.4600	 4.2970
 0.4610	 4.3020
 0.4620	 4.3080
 0.4630	 4.3190
 0.4640	 4.3130
 0.4650	 4.3110
 0.4660	 4.3190
 0.4670	 4.3230
 0.4680	 4.3250
 0.4690	 4.3290
 0.4700	 4.3350
 0.4710	 4.3290
 0.4720	 4.3270
 0.4730	 4.3310
 0.4740	 4.3350
 0.4750	 4.3330
 0.4760	 4.3320
 0.4770	 4.3330
 0.4780	 4.3380
 0.4790	 4.3400
 0.4800	 4.3400
 0.4810	 4.3410
 0.4820	 4.3430
 0.4830	 4.3480
 0.4840	 4.3580
 0.4850	 4.3730
 0.4860	 4.3890
 0.4870	 4.4050
 0.4880	 4.4210
 0.4890	 4.4410
 0.4900	 4.4600
 0.4910	 4.4850
 0.4920	 4.5190
 0.4930	 4.5480
 0.4940	 4.5800
 0.4950	 4.6240
 0.4960	 4.6740
 0.4970	 4.7270
 0.4980	 4.7840
 0.4990	 4.8470
 0.5000	 4.9190
 0.5010	 4.9970
 0.5020	 5.0800
 0.5030	 5.1690
 0.5040	 5.2620
 0.5050	 5.3660
 0.5060	 5.4820
 0.5070	 5.6040
 0.5080	 5.7320
 0.5090	 5.8670
 0.5100	 6.0130
 0.5110	 6.1650
 0.5120	 6.3250
 0.5130	 6.4950
 0.5140	 6.6710
 0.5150	 6.8510
 0.5160	 7.0360
 0.5170	 7.2260
 0.5180	 7.4140
 0.5190	 7.6050
 0.5200	 7.7980
 0.5210	 7.9890
 0.5220	 8.1760
 0.5230	 8.3580
 0.5240	 8.5360
 0.5250	 8.7010
 0.5260	 8.8570
 0.5270	 9.0050
 0.5280	 9.1420
 0.5290	 9.2750
 0.5300	 9.3950
 0.5310	 9.5020
 0.5320	 9.6020
 0.5330	 9.6920
 0.5340	 9.7740
 0.5350	 9.8490
 0.5360	 9.9180
 0.5370	 9.9780
 0.5380	10.0330
 0.5390	10.0920
 0.5400	10.1540
 0.5410	10.2240
 0.5420	10.2950
 0.5430	10.3520
 0.5440	10.3930
 0.5450	10.4190
 0.5460	10.4310
 0.5470	10.4330
 0.5480	10.4360
 0.5490	10.4480
 0.5500	10.4660
 0.5510	10.4810
 0.5520	10.4880
 0.5530	10.4860
 0.5540	10.4750
 0.5550	10.4570
 0.5560	10.4310
 0.5570	10.3940
 0.5580	10.3510
 0.5590	10.3030
 0.5600	10.2480
 0.5610	10.1840
 0.5620	10.1210
 0.5630	10.0530
 0.5640	 9.9770
 0.5650	 9.8990
 0.5660	 9.8160
 0.5670	 9.7260
 0.5680	 9.6340
 0.5690	 9.5380
 0.5700	 9.4410
 0.5710	 9.3430
 0.5720	 9.2450
 0.5730	 9.1540
 0.5740	 9.0690
 0.5750	 8.9910
 0.5760	 8.9170
 0.5770	 8.8430
 0.5780	 8.7700
 0.5790	 8.7070
 0.5800	 8.6480
 0.5810	 8.5920
 0.5820	 8.5390
 0.5830	 8.4860
 0.5840	 8.4350
 0.5850	 8.3850
 0.5860	 8.3400
 0.5870	 8.3010
 0.5880	 8.2620
 0.5890	 8.2210
 0.5900	 8.1850
 0.5910	 8.1560
 0.5920	 8.1300
 0.5930	 8.1010
 0.5940	 8.0720
 0.5950	 8.0470
 0.5960	 8.0300
 0.5970	 8.0160
 0.5980	 7.9990
 0.5990	 7.9790
 0.6000	 7.9610
 0.6010	 7.9370
 0.6020	 7.9110
 0.6030	 7.8820
 0.6040	 7.8460
 0.6050	 7.8080
 0.6060	 7.7660
 0.6070	 7.7200
 0.6080	 7.6710
 0.6090	 7.6260
 0.6100	 7.5900
 0.6110	 7.5610
 0.6120	 7.5070
 0.6130	 7.4360
 0.6140	 7.3620
 0.6150	 7.2990
 0.6160	 7.2420
 0.6170	 7.1890
 0.6180	 7.1380
 0.6190	 7.0950
 0.6200	 7.0570
 0.6210	 7.0240
 0.6220	 6.9950
 0.6230	 6.9700
 0.6240	 6.9490
 0.6250	 6.9300
 0.6260	 6.9160
 0.6270	 6.9080
 0.6280	 6.9030
 0.6290	 6.9010
 0.6300	 6.8950
 0.6310	 6.8870
 0.6320	 6.8770
 0.6330	 6.8600
 0.6340	 6.8340
 0.6350	 6.8010
 0.6360	 6.7600
 0.6370	 6.7080
 0.6380	 6.6440
 0.6390	 6.5710
 0.6400	 6.4930
 0.6410	 6.4100
 0.6420	 6.3220
 0.6430	 6.2320
 0.6440	 6.1410
 0.6450	 6.0480
 0.6460	 5.9560
 0.6470	 5.8710
 0.6480	 5.7920
 0.6490	 5.7210
 0.6500	 5.6590
 0.6510	 5.6070
 0.6520	 5.5630
 0.6530	 5.5240
 0.6540	 5.4870
 0.6550	 5.4480
 0.6560	 5.4090
 0.6570	 5.3670
 0.6580	 5.3210
 0.6590	 5.2700
 0.6600	 5.2150
 0.6610	 5.1570
 0.6620	 5.1010
 0.6630	 5.0440
 0.6640	 4.9890
 0.6650	 4.9360
 0.6660	 4.8880
 0.6670	 4.8460
 0.6680	 4.8110
 0.6690	 4.7840
 0.6700	 4.7630
 0.6710	 4.7490
 0.6720	 4.7420
 0.6730	 4.7440
 0.6740	 4.7530
 0.6750	 4.7680
 0.6760	 4.7870
 0.6770	 4.8170
 0.6780	 4.8520
 0.6790	 4.8920
 0.6800	 4.9460
 0.6810	 5.0110
 0.6820	 5.0910
 0.6830	 5.1910
 0.6840	 5.3100
 0.6850	 5.4530
 0.6860	 5.6250
 0.6870	 5.8300
 0.6880	 6.0750
 0.6890	 6.3600
 0.6900	 6.6890
 0.6910	 7.0630
 0.6920	 7.4810
 0.6930	 7.9360
 0.6940	 8.4220
 0.6950	 8.9380
 0.6960	 9.4770
 0.6970	10.0330
 0.6980	10.6030
 0.6990	11.1860
 0.7000	11.7740
 0.7010	12.3630
 0.7020	12.9500
 0.7030	13.5330
 0.7040	14.1120
 0.7050	14.6830
 0.7060	15.2480
 0.7070	15.8070
 0.7080	16.3590
 0.7090	16.9040
 0.7100	17.4390
 0.7110	17.9730
 0.7120	18.5050
 0.7130	19.0260
 0.7140	19.5400
 0.7150	20.0500
 0.7160	20.5540
 0.7170	21.0450
 0.7180	21.5270
 0.7190	22.0020
 0.7200	22.4650
 0.7210	22.9150
 0.7220	23.3510
 0.7230	23.7730
 0.7240	24.1790
 0.7250	24.5670
 0.7260	24.9380
 0.7270	25.2930
 0.7280	25.6290
 0.7290	25.9490
 0.7300	26.2510
 0.7310	26.5350
 0.7320	26.8020
 0.7330	27.0520
 0.7340	27.2870
 0.7350	27.5040
 0.7360	27.7090
 0.7370	27.9010
 0.7380	28.0780
 0.7390	28.2440
 0.7400	28.3980
 0.7410	28.5400
 0.7420	28.6700
 0.7430	28.7900
 0.7440	28.8990
 0.7450	28.9970
 0.7460	29.0850
 0.7470	29.1660
 0.7480	29.2390
 0.7490	29.3040
 0.7500	29.3630
 0.7510	29.4170
 0.7520	29.4650
 0.7530	29.5080
 0.7540	29.5490
 0.7550	29.5870
 0.7560	29.6210
 0.7570	29.6500
 0.7580	29.6780
 0.7590	29.7050
 0.7600	29.7290
 0.7610	29.7510
 0.7620	29.7700
 0.7630	29.7880
 0.7640	29.8050
 0.7650	29.8210
 0.7660	29.8350
 0.7670	29.8460
 0.7680	29.8570
 0.7690	29.8690
 0.7700	29.8800
 0.7710	29.8900
 0.7720	29.9000
 0.7730	29.9100
 0.7740	29.9200
 0.7750	29.9290
 0.7760	29.9410
 0.7770	29.9520
 0.7780	29.9610
 0.7790	29.9670
 0.7800	29.9770
 0.7810	29.9880
 0.7820	29.9980
 0.7830	30.0110
 0.7840	30.0190
 0.7850	30.0270
 0.7860	30.0350
 0.7870	30.0450
 0.7880	30.0510
 0.7890	30.0560
 0.7900	30.0620
 0.7910	30.0700
 0.7920	30.0770
 0.7930	30.0840
 0.7940	30.0900
 0.7950	30.0960
 0.7960	30.0990
 0.7970	30.1010
 0.7980	30.1020
 0.7990	30.1040
 0.8000	30.1060
 0.8010	30.1080
 0.8020	30.1090
 0.8030	30.1100
 0.8040	30.1120
 0.8050	30.1170
 0.8060	30.1160
 0.8070	30.1120
 0.8080	30.1090
 0.8090	30.1090
 0.8100	30.1080
 0.8110	30.1080
 0.8120	30.1070
 0.8130	30.1010
 0.8140	30.0970
 0.8150	30.0960
 0.8160	30.0950
 0.8170	30.0890
 0.8180	30.0840
 0.8190	30.0800
 0.8200	30.0770
 0.8210	30.0700
 0.8220	30.0650
 0.8230	30.0630
 0.8240	30.0590
 0.8250	30.0550
 0.8260	30.0500
 0.8270	30.0450
 0.8280	30.0410
 0.8290	30.0360
 0.8300	30.0310
 0.8310	30.0250
 0.8320	30.0210
 0.8330	30.0160
 0.8340	30.0130
 0.8350	30.0100
 0.8360	30.0060
 0.8370	30.0050
 0.8380	30.0050
 0.8390	30.0030
 0.8400	30.0020
 0.8410	30.0030
 0.8420	30.0040
 0.8430	30.0080
 0.8440	30.0080
 0.8450	30.0090
 0.8460	30.0100
 0.8470	30.0080
 0.8480	30.0090
 0.8490	30.0140
 0.8500	30.0190
 0.8510	30.0250
 0.8520	30.0300
 0.8530	30.0310
 0.8540	30.0300
 0.8550	30.0350
 0.8560	30.0410
 0.8570	30.0430
 0.8580	30.0450
 0.8590	30.0510
 0.8600	30.0580
 0.8610	30.0660
 0.8620	30.0730
 0.8630	30.0760
 0.8640	30.0780
 0.8650	30.0840
 0.8660	30.0960
 0.8670	30.1030
 0.8680	30.1070
 0.8690	30.1120
 0.8700	30.1190
 0.8710	30.1300
 0.8720	30.1410
 0.8730	30.1450
 0.8740	30.1510
 0.8750	30.1580
 0.8760	30.1650
 0.8770	30.1680
 0.8780	30.1780
 0.8790	30.1890
 0.8800	30.1970
 0.8810	30.2050
 0.8820	30.2090
 0.8830	30.2150
 0.8840	30.2240
 0.8850	30.2340
 0.8860	30.2420
 0.8870	30.2480
 0.8880	30.2550
 0.8890	30.2660
 0.8900	30.2730
 0.8910	30.2760
 0.8920	30.2810
 0.8930	30.2930
 0.8940	30.3020
 0.8950	30.3080
 0.8960	30.3110
 0.8970	30.3150
 0.8980	30.3210
 0.8990	30.3300
 0.9000	30.3380
 0.9010	30.3440
 0.9020	30.3470
 0.9030	30.3510
 0.9040	30.3620
 0.9050	30.3660
 0.9060	30.3710
 0.9070	30.3800
 0.9080	30.3840
 0.9090	30.3860
 0.9100	30.3900
 0.9110	30.3940
 0.9120	30.3960
 0.9130	30.3980
 0.9140	30.4000
 0.9150	30.4030
 0.9160	30.4050
 0.9170	30.4120
 0.9180	30.4170
 0.9190	30.4110
 0.9200	30.4090
 0.9210	30.4070
 0.9220	30.4060
 0.9230	30.4080
 0.9240	30.4010
 0.9250	30.3970
 0.9260	30.3950
 0.9270	30.3880
 0.9280	30.3720
 0.9290	30.3610
 0.9300	30.3560
 0.9310	30.3450
 0.9320	30.3320
 0.9330	30.3190
 0.9340	30.3070
 0.9350	30.2910
 0.9360	30.2750
 0.9370	30.2580
 0.9380	30.2400
 0.9390	30.2230
 0.9400	30.2080
 0.9410	30.1870
 0.9420	30.1600
 0.9430	30.1430
 0.9440	30.1180
 0.9450	30.0890
 0.9460	30.0610
 0.9470	30.0240
 0.9480	29.9940
 0.9490	29.9620
 0.9500	29.9200
 0.9510	29.8780
 0.9520	29.8390
 0.9530	29.8010
 0.9540	29.7590
 0.9550	29.7150
 0.9560	29.6660
 0.9570	29.6230
 0.9580	29.5920
 0.9590	29.5570
 0.9600	29.5270
 0.9610	29.4980
 0.9620	29.4680
 0.9630	29.4540
 0.9640	29.4320
 0.9650	29.4030
 0.9660	29.3840
 0.9670	29.3730
 0.9680	29.3650
 0.9690	29.3550
 0.9700	29.3440
 0.9710	29.3350
 0.9720	29.3320
 0.9730	29.3270
 0.9740	29.3130
 0.9750	29.3130
 0.9760	29.3140
 0.9770	29.3070
 0.9780	29.2940
 0.9790	29.2920
 0.9800	29.3010
 0.9810	29.3110
 0.9820	29.3140
 0.9830	29.3200
 0.9840	29.3330
 0.9850	29.3410
 0.9860	29.3330
 0.9870	29.3490
 0.9880	29.3590
 0.9890	29.3610
 0.9900	29.3650
 0.9910	29.3830
 0.9920	29.3960
 0.9930	29.4040
 0.9940	29.4180
 0.9950	29.4290
 0.9960	29.4450
 0.9970	29.4630
 0.9980	29.4780
 0.9990	29.4920
 1.0000	29.4990
 1.0010	30.6930
 1.0020	30.7060
 1.0030	30.7240
 1.0040	30.7400
 1.0050	30.7540
 1.0060	30.7660
 1.0070	30.7790
 1.0080	30.7930
 1.0090	30.8090
 1.0100	30.8250
 1.0110	30.8420
 1.0120	30.8580
 1.0130	30.8700
 1.0140	30.8850
 1.0150	30.8990
 1.0160	30.9150
 1.0170	30.9340
 1.0180	30.9510
 1.0190	30.9660
 1.0200	30.9790
 1.0210	30.9920
 1.0220	31.0070
 1.0230	31.0210
 1.0240	31.0360
 1.0250	31.0510
 1.0260	31.0620
 1.0270	31.0780
 1.0280	31.0980
 1.0290	31.1140
 1.0300	31.1310
 1.0310	31.1480
 1.0320	31.1640
 1.0330	31.1770
 1.0340	31.1900
 1.0350	31.2010
 1.0360	31.2130
 1.0370	31.2250
 1.0380	31.2370
 1.0390	31.2530
 1.0400	31.2640
 1.0410	31.2740
 1.0420	31.2850
 1.0430	31.2940
 1.0440	31.3050
 1.0450	31.3190
 1.0460	31.3300
 1.0470	31.3410
 1.0480	31.3520
 1.0490	31.3620
 1.0500	31.3720
 1.0510	31.3820
 1.0520	31.3920
 1.0530	31.4000
 1.0540	31.4060
 1.0550	31.4130
 1.0560	31.4220
 1.0570	31.4270
 1.0580	31.4330
 1.0590	31.4360
 1.0600	31.4340
 1.0610	31.4350
 1.0620	31.4380
 1.0630	31.4410
 1.0640	31.4470
 1.0650	31.4490
 1.0660	31.4470
 1.0670	31.4470
 1.0680	31.4460
 1.0690	31.4420
 1.0700	31.4410
 1.0710	31.4420
 1.0720	31.4390
 1.0730	31.4340
 1.0740	31.4310
 1.0750	31.4270
 1.0760	31.4240
 1.0770	31.4240
 1.0780	31.4200
 1.0790	31.4140
 1.0800	31.4100
 1.0810	31.4060
 1.0820	31.4010
 1.0830	31.3940
 1.0840	31.3880
 1.0850	31.3790
 1.0860	31.3720
 1.0870	31.3650
 1.0880	31.3580
 1.0890	31.3510
 1.0900	31.3430
 1.0910	31.3370
 1.0920	31.3330
 1.0930	31.3250
 1.0940	31.3170
 1.0950	31.3090
 1.0960	31.2980
 1.0970	31.2890
 1.0980	31.2790
 1.0990	31.2700
 1.1000	31.2610
 1.1010	31.2510
 1.1020	31.2400
 1.1030	31.2300
 1.1040	31.2230
 1.1050	31.2130
 1.1060	31.2040
 1.1070	31.1960
 1.1080	31.1870
 1.1090	31.1750
 1.1100	31.1650
 1.1110	31.1570
 1.1120	31.1460
 1.1130	31.1350
 1.1140	31.1220
 1.1150	31.1080
 1.1160	31.0930
 1.1170	31.0750
 1.1180	31.0590
 1.1190	31.0410
 1.1200	31.0240
 1.1210	31.0060
 1.1220	30.9850
 1.1230	30.9610
 1.1240	30.9340
 1.1250	30.9020
 1.1260	30.8680
 1.1270	30.8290
 1.1280	30.7850
 1.1290	30.7370
 1.1300	30.6850
 1.1310	30.6270
 1.1320	30.5640
 1.1330	30.4950
 1.1340	30.4200
 1.1350	30.3410
 1.1360	30.2550
 1.1370	30.1660
 1.1380	30.0740
 1.1390	29.9770
 1.1400	29.8760
 1.1410	29.7740
 1.1420	29.6670
 1.1430	29.5600
 1.1440	29.4560
 1.1450	29.3490
 1.1460	29.2490
 1.1470	29.1500
 1.1480	29.0550
 1.1490	28.9630
 1.1500	28.8770
 1.1510	28.7950
 1.1520	28.7180
 1.1530	28.6460
 1.1540	28.5800
 1.1550	28.5200
 1.1560	28.4640
 1.1570	28.4150
 1.1580	28.3710
 1.1590	28.3310
 1.1600	28.2950
 1.1610	28.2620
 1.1620	28.2320
 1.1630	28.2040
 1.1640	28.1790
 1.1650	28.1560
 1.1660	28.1350
 1.1670	28.1160
 1.1680	28.1000
 1.1690	28.0830
 1.1700	28.0670
 1.1710	28.0510
 1.1720	28.0360
 1.1730	28.0210
 1.1740	28.0070
 1.1750	27.9940
 1.1760	27.9800
 1.1770	27.9660
 1.1780	27.9500
 1.1790	27.9340
 1.1800	27.9190
 1.1810	27.9010
 1.1820	27.8850
 1.1830	27.8680
 1.1840	27.8500
 1.1850	27.8340
 1.1860	27.8190
 1.1870	27.8040
 1.1880	27.7910
 1.1890	27.7780
 1.1900	27.7680
 1.1910	27.7590
 1.1920	27.7500
 1.1930	27.7420
 1.1940	27.7360
 1.1950	27.7320
 1.1960	27.7280
 1.1970	27.7260
 1.1980	27.7260
 1.1990	27.7270
 1.2000	27.7280
 1.2010	27.7330
 1.2020	27.7380
 1.2030	27.7450
 1.2040	27.7550
 1.2050	27.7650
 1.2060	27.7750
 1.2070	27.7850
 1.2080	27.7960
 1.2090	27.8070
 1.2100	27.8190
 1.2110	27.8330
 1.2120	27.8490
 1.2130	27.8650
 1.2140	27.8820
 1.2150	27.8990
 1.2160	27.9160
 1.2170	27.9330
 1.2180	27.9500
 1.2190	27.9690
 1.2200	27.9870
 1.2210	28.0070
 1.2220	28.0260
 1.2230	28.0430
 1.2240	28.0620
 1.2250	28.0810
 1.2260	28.1000
 1.2270	28.1200
 1.2280	28.1380
 1.2290	28.1550
 1.2300	28.1710
 1.2310	28.1870
 1.2320	28.2020
 1.2330	28.2180
 1.2340	28.2330
 1.2350	28.2470
 1.2360	28.2610
 1.2370	28.2730
 1.2380	28.2850
 1.2390	28.2950
 1.2400	28.3060
 1.2410	28.3190
 1.2420	28.3310
 1.2430	28.3430
 1.2440	28.3540
 1.2450	28.3640
 1.2460	28.3740
 1.2470	28.3860
 1.2480	28.3970
 1.2490	28.4090
 1.2500	28.4190
 1.2510	28.4260
 1.2520	28.4330
 1.2530	28.4400
 1.2540	28.4470
 1.2550	28.4540
 1.2560	28.4590
 1.2570	28.4620
 1.2580	28.4650
 1.2590	28.4670
 1.2600	28.4690
 1.2610	28.4700
 1.2620	28.4720
 1.2630	28.4730
 1.2640	28.4750
 1.2650	28.4750
 1.2660	28.4750
 1.2670	28.4740
 1.2680	28.4710
 1.2690	28.4680
 1.2700	28.4650
 1.2710	28.4600
 1.2720	28.4540
 1.2730	28.4470
 1.2740	28.4390
 1.2750	28.4310
 1.2760	28.4210
 1.2770	28.4110
 1.2780	28.4010
 1.2790	28.3880
 1.2800	28.3750
 1.2810	28.3610
 1.2820	28.3450
 1.2830	28.3290
 1.2840	28.3110
 1.2850	28.2910
 1.2860	28.2690
 1.2870	28.2450
 1.2880	28.2210
 1.2890	28.1930
 1.2900	28.1640
 1.2910	28.1330
 1.2920	28.1000
 1.2930	28.0660
 1.2940	28.0290
 1.2950	27.9910
 1.2960	27.9510
 1.2970	27.9090
 1.2980	27.8660
 1.2990	27.8190
 1.3000	27.7700
 1.3010	27.7220
 1.3020	27.6730
 1.3030	27.6210
 1.3040	27.5670
 1.3050	27.5100
 1.3060	27.4530
 1.3070	27.3920
 1.3080	27.3310
 1.3090	27.2680
 1.3100	27.2020
 1.3110	27.1360
 1.3120	27.0680
 1.3130	26.9980
 1.3140	26.9270
 1.3150	26.8540
 1.3160	26.7790
 1.3170	26.7030
 1.3180	26.6240
 1.3190	26.5430
 1.3200	26.4620
 1.3210	26.3770
 1.3220	26.2920
 1.3230	26.2070
 1.3240	26.1200
 1.3250	26.0320
 1.3260	25.9410
 1.3270	25.8470
 1.3280	25.7540
 1.3290	25.6590
 1.3300	25.5650
 1.3310	25.4710
 1.3320	25.3740
 1.3330	25.2760
 1.3340	25.1780
 1.3350	25.0800
 1.3360	24.9830
 1.3370	24.8850
 1.3380	24.7880
 1.3390	24.6920
 1.3400	24.5950
 1.3410	24.5000
 1.3420	24.4070
 1.3430	24.3130
 1.3440	24.2220
 1.3450	24.1320
 1.3460	24.0400
 1.3470	23.9520
 1.3480	23.8650
 1.3490	23.7780
 1.3500	23.6920
 1.3510	23.6090
 1.3520	23.5230
 1.3530	23.4390
 1.3540	23.3550
 1.3550	23.2700
 1.3560	23.1840
 1.3570	23.0980
 1.3580	23.0110
 1.3590	22.9200
 1.3600	22.8270
 1.3610	22.7310
 1.3620	22.6310
 1.3630	22.5280
 1.3640	22.4230
 1.3650	22.3110
 1.3660	22.1930
 1.3670	22.0690
 1.3680	21.9380
 1.3690	21.7980
 1.3700	21.6490
 1.3710	21.4900
 1.3720	21.3210
 1.3730	21.1390
 1.3740	20.9470
 1.3750	20.7420
 1.3760	20.5210
 1.3770	20.2870
 1.3780	20.0350
 1.3790	19.7690
 1.3800	19.4870
 1.3810	19.1890
 1.3820	18.8790
 1.3830	18.5570
 1.3840	18.2230
 1.3850	17.8760
 1.3860	17.5220
 1.3870	17.1550
 1.3880	16.7900
 1.3890	16.4180
 1.3900	16.0440
 1.3910	15.6730
 1.3920	15.3010
 1.3930	14.9310
 1.3940	14.5660
 1.3950	14.2040
 1.3960	13.8500
 1.3970	13.5070
 1.3980	13.1730
 1.3990	12.8560
 1.4000	12.5500
 1.4010	12.2560
 1.4020	11.9780
 1.4030	11.7120
 1.4040	11.4590
 1.4050	11.2220
 1.4060	10.9980
 1.4070	10.7890
 1.4080	10.5930
 1.4090	10.4080
 1.4100	10.2350
 1.4110	10.0740
 1.4120	 9.9250
 1.4130	 9.7860
 1.4140	 9.6570
 1.4150	 9.5370
 1.4160	 9.4260
 1.4170	 9.3230
 1.4180	 9.2270
 1.4190	 9.1380
 1.4200	 9.0550
 1.4210	 8.9780
 1.4220	 8.9080
 1.4230	 8.8430
 1.4240	 8.7830
 1.4250	 8.7280
 1.4260	 8.6780
 1.4270	 8.6300
 1.4280	 8.5860
 1.4290	 8.5450
 1.4300	 8.5070
 1.4310	 8.4730
 1.4320	 8.4420
 1.4330	 8.4140
 1.4340	 8.3910
 1.4350	 8.3680
 1.4360	 8.3480
 1.4370	 8.3290
 1.4380	 8.3130
 1.4390	 8.2990
 1.4400	 8.2870
 1.4410	 8.2780
 1.4420	 8.2710
 1.4430	 8.2640
 1.4440	 8.2590
 1.4450	 8.2560
 1.4460	 8.2530
 1.4470	 8.2510
 1.4480	 8.2520
 1.4490	 8.2530
 1.4500	 8.2560
 1.4510	 8.2590
 1.4520	 8.2630
 1.4530	 8.2680
 1.4540	 8.2750
 1.4550	 8.2840
 1.4560	 8.2940
 1.4570	 8.3060
 1.4580	 8.3190
 1.4590	 8.3330
 1.4600	 8.3500
 1.4610	 8.3690
 1.4620	 8.3900
 1.4630	 8.4140
 1.4640	 8.4410
 1.4650	 8.4700
 1.4660	 8.5020
 1.4670	 8.5360
 1.4680	 8.5730
 1.4690	 8.6120
 1.4700	 8.6530
 1.4710	 8.6980
 1.4720	 8.7440
 1.4730	 8.7910
 1.4740	 8.8420
 1.4750	 8.8920
 1.4760	 8.9450
 1.4770	 9.0000
