Name: Quercus lobata 3
Type: vegetation
Class: Tree
Genus: Quercus
Species: lobata
Sample No.: VH089
Owner: UCSB
Wavelength Range: VSWIR
Origin: 34.7151; -120.0588; WGS84
Collection Date: 4/21/2013
Description: Samples were collected as part of the HyspIRI Airborne Campaign. 48 individual plants were sampled in three times in 2013 - spring  summer  and fall. The name of the sample includes a 1  2  or 3 which references a different individual of the species. Samples were taken to JPL and processed within 48 hours of collection. The same leaves were processed in the Nicolet and then measured using the ASD.
Measurement: Bidirectional reflectance
First Column: X
Second Column: Y
X Units: Wavelength (micrometers)
Y Units: Reflectance (percentage)
First X Value: 0.35
Last X Value: 2.5
Number of X Values: 2151
Additional Information: vegetation.tree.quercus.lobata.vswir.vh089.ucsb.asd.ancillary.txt

 0.3500	 7.8570
 0.3510	 7.2960
 0.3520	 7.3950
 0.3530	 7.6800
 0.3540	 7.6230
 0.3550	 7.5560
 0.3560	 7.5820
 0.3570	 7.5930
 0.3580	 7.4260
 0.3590	 7.4010
 0.3600	 7.4590
 0.3610	 7.5260
 0.3620	 7.5580
 0.3630	 7.6520
 0.3640	 7.6250
 0.3650	 7.3910
 0.3660	 7.4330
 0.3670	 7.5330
 0.3680	 7.5800
 0.3690	 7.5650
 0.3700	 7.6290
 0.3710	 7.6790
 0.3720	 7.6580
 0.3730	 7.6260
 0.3740	 7.6960
 0.3750	 7.7770
 0.3760	 7.7480
 0.3770	 7.6980
 0.3780	 7.7300
 0.3790	 7.8350
 0.3800	 7.9080
 0.3810	 7.8810
 0.3820	 7.7970
 0.3830	 7.7400
 0.3840	 7.8500
 0.3850	 7.9260
 0.3860	 7.9290
 0.3870	 7.9000
 0.3880	 7.9320
 0.3890	 7.9790
 0.3900	 8.0290
 0.3910	 8.1110
 0.3920	 8.0870
 0.3930	 8.0720
 0.3940	 8.1500
 0.3950	 8.1890
 0.3960	 8.2140
 0.3970	 8.2700
 0.3980	 8.3830
 0.3990	 8.3800
 0.4000	 8.3950
 0.4010	 8.4740
 0.4020	 8.5120
 0.4030	 8.5660
 0.4040	 8.6030
 0.4050	 8.6080
 0.4060	 8.7030
 0.4070	 8.7620
 0.4080	 8.7970
 0.4090	 8.8970
 0.4100	 8.9650
 0.4110	 9.0140
 0.4120	 9.0700
 0.4130	 9.1540
 0.4140	 9.1990
 0.4150	 9.2270
 0.4160	 9.2800
 0.4170	 9.3310
 0.4180	 9.3920
 0.4190	 9.4590
 0.4200	 9.5130
 0.4210	 9.5470
 0.4220	 9.5800
 0.4230	 9.6300
 0.4240	 9.7090
 0.4250	 9.7570
 0.4260	 9.7750
 0.4270	 9.7960
 0.4280	 9.8160
 0.4290	 9.8450
 0.4300	 9.8860
 0.4310	 9.9370
 0.4320	 9.9360
 0.4330	 9.9220
 0.4340	 9.9420
 0.4350	 9.9590
 0.4360	 9.9710
 0.4370	 9.9830
 0.4380	 9.9990
 0.4390	10.0160
 0.4400	10.0390
 0.4410	10.0670
 0.4420	10.0780
 0.4430	10.0870
 0.4440	10.0960
 0.4450	10.1000
 0.4460	10.1210
 0.4470	10.1390
 0.4480	10.1410
 0.4490	10.1330
 0.4500	10.1610
 0.4510	10.1830
 0.4520	10.1650
 0.4530	10.1710
 0.4540	10.1840
 0.4550	10.2000
 0.4560	10.2200
 0.4570	10.2140
 0.4580	10.2050
 0.4590	10.2110
 0.4600	10.2220
 0.4610	10.2320
 0.4620	10.2340
 0.4630	10.2250
 0.4640	10.2310
 0.4650	10.2350
 0.4660	10.2360
 0.4670	10.2480
 0.4680	10.2410
 0.4690	10.2300
 0.4700	10.2300
 0.4710	10.2390
 0.4720	10.2390
 0.4730	10.2330
 0.4740	10.2370
 0.4750	10.2370
 0.4760	10.2360
 0.4770	10.2400
 0.4780	10.2500
 0.4790	10.2540
 0.4800	10.2530
 0.4810	10.2490
 0.4820	10.2450
 0.4830	10.2510
 0.4840	10.2630
 0.4850	10.2610
 0.4860	10.2630
 0.4870	10.2640
 0.4880	10.2630
 0.4890	10.2790
 0.4900	10.3020
 0.4910	10.3170
 0.4920	10.3180
 0.4930	10.3270
 0.4940	10.3490
 0.4950	10.3770
 0.4960	10.3960
 0.4970	10.4130
 0.4980	10.4360
 0.4990	10.4690
 0.5000	10.4970
 0.5010	10.5320
 0.5020	10.5790
 0.5030	10.6340
 0.5040	10.6790
 0.5050	10.7340
 0.5060	10.8120
 0.5070	10.8930
 0.5080	10.9840
 0.5090	11.0830
 0.5100	11.1890
 0.5110	11.3190
 0.5120	11.4590
 0.5130	11.6070
 0.5140	11.7750
 0.5150	11.9590
 0.5160	12.1580
 0.5170	12.3740
 0.5180	12.6090
 0.5190	12.8560
 0.5200	13.1120
 0.5210	13.3720
 0.5220	13.6410
 0.5230	13.9150
 0.5240	14.1910
 0.5250	14.4660
 0.5260	14.7310
 0.5270	14.9880
 0.5280	15.2390
 0.5290	15.4740
 0.5300	15.6900
 0.5310	15.8900
 0.5320	16.0780
 0.5330	16.2550
 0.5340	16.4170
 0.5350	16.5620
 0.5360	16.6930
 0.5370	16.8180
 0.5380	16.9320
 0.5390	17.0250
 0.5400	17.1140
 0.5410	17.1930
 0.5420	17.2630
 0.5430	17.3440
 0.5440	17.4180
 0.5450	17.4850
 0.5460	17.5480
 0.5470	17.6170
 0.5480	17.6830
 0.5490	17.7360
 0.5500	17.7710
 0.5510	17.7960
 0.5520	17.8100
 0.5530	17.8110
 0.5540	17.7890
 0.5550	17.7500
 0.5560	17.6960
 0.5570	17.6220
 0.5580	17.5320
 0.5590	17.4340
 0.5600	17.3270
 0.5610	17.1970
 0.5620	17.0690
 0.5630	16.9370
 0.5640	16.7860
 0.5650	16.6260
 0.5660	16.4570
 0.5670	16.2820
 0.5680	16.1080
 0.5690	15.9320
 0.5700	15.7500
 0.5710	15.5650
 0.5720	15.3910
 0.5730	15.2250
 0.5740	15.0720
 0.5750	14.9380
 0.5760	14.8090
 0.5770	14.6870
 0.5780	14.5750
 0.5790	14.4630
 0.5800	14.3570
 0.5810	14.2580
 0.5820	14.1610
 0.5830	14.0720
 0.5840	13.9830
 0.5850	13.8960
 0.5860	13.8210
 0.5870	13.7460
 0.5880	13.6790
 0.5890	13.6250
 0.5900	13.5860
 0.5910	13.5570
 0.5920	13.5320
 0.5930	13.5020
 0.5940	13.4710
 0.5950	13.4460
 0.5960	13.4250
 0.5970	13.3980
 0.5980	13.3700
 0.5990	13.3350
 0.6000	13.2910
 0.6010	13.2570
 0.6020	13.2170
 0.6030	13.1670
 0.6040	13.1170
 0.6050	13.0640
 0.6060	13.0010
 0.6070	12.9260
 0.6080	12.8500
 0.6090	12.7700
 0.6100	12.6840
 0.6110	12.5920
 0.6120	12.5100
 0.6130	12.4390
 0.6140	12.3730
 0.6150	12.3020
 0.6160	12.2380
 0.6170	12.1780
 0.6180	12.1190
 0.6190	12.0620
 0.6200	12.0140
 0.6210	11.9740
 0.6220	11.9380
 0.6230	11.9110
 0.6240	11.8860
 0.6250	11.8620
 0.6260	11.8420
 0.6270	11.8230
 0.6280	11.8090
 0.6290	11.8030
 0.6300	11.7970
 0.6310	11.7860
 0.6320	11.7740
 0.6330	11.7700
 0.6340	11.7530
 0.6350	11.7280
 0.6360	11.6980
 0.6370	11.6590
 0.6380	11.6140
 0.6390	11.5620
 0.6400	11.5040
 0.6410	11.4420
 0.6420	11.3800
 0.6430	11.3180
 0.6440	11.2550
 0.6450	11.1840
 0.6460	11.1150
 0.6470	11.0590
 0.6480	11.0090
 0.6490	10.9620
 0.6500	10.9180
 0.6510	10.8840
 0.6520	10.8530
 0.6530	10.8250
 0.6540	10.7990
 0.6550	10.7670
 0.6560	10.7340
 0.6570	10.7020
 0.6580	10.6700
 0.6590	10.6310
 0.6600	10.5940
 0.6610	10.5610
 0.6620	10.5280
 0.6630	10.4980
 0.6640	10.4720
 0.6650	10.4500
 0.6660	10.4420
 0.6670	10.4310
 0.6680	10.4180
 0.6690	10.4140
 0.6700	10.4180
 0.6710	10.4270
 0.6720	10.4360
 0.6730	10.4470
 0.6740	10.4640
 0.6750	10.4840
 0.6760	10.5040
 0.6770	10.5270
 0.6780	10.5530
 0.6790	10.5830
 0.6800	10.6140
 0.6810	10.6520
 0.6820	10.6940
 0.6830	10.7420
 0.6840	10.7910
 0.6850	10.8530
 0.6860	10.9280
 0.6870	11.0190
 0.6880	11.1340
 0.6890	11.2820
 0.6900	11.4730
 0.6910	11.7130
 0.6920	12.0210
 0.6930	12.4000
 0.6940	12.8510
 0.6950	13.3900
 0.6960	14.0130
 0.6970	14.7190
 0.6980	15.5040
 0.6990	16.3520
 0.7000	17.2620
 0.7010	18.2270
 0.7020	19.2270
 0.7030	20.2540
 0.7040	21.2970
 0.7050	22.3470
 0.7060	23.4020
 0.7070	24.4500
 0.7080	25.4870
 0.7090	26.5150
 0.7100	27.5300
 0.7110	28.5280
 0.7120	29.5090
 0.7130	30.4800
 0.7140	31.4240
 0.7150	32.3460
 0.7160	33.2510
 0.7170	34.1290
 0.7180	34.9920
 0.7190	35.8300
 0.7200	36.6320
 0.7210	37.4170
 0.7220	38.1750
 0.7230	38.9000
 0.7240	39.6010
 0.7250	40.2720
 0.7260	40.9130
 0.7270	41.5250
 0.7280	42.1020
 0.7290	42.6510
 0.7300	43.1710
 0.7310	43.6630
 0.7320	44.1250
 0.7330	44.5600
 0.7340	44.9720
 0.7350	45.3700
 0.7360	45.7370
 0.7370	46.0780
 0.7380	46.3970
 0.7390	46.6880
 0.7400	46.9700
 0.7410	47.2360
 0.7420	47.4750
 0.7430	47.6870
 0.7440	47.8850
 0.7450	48.0750
 0.7460	48.2560
 0.7470	48.4160
 0.7480	48.5600
 0.7490	48.6940
 0.7500	48.8140
 0.7510	48.9180
 0.7520	49.0130
 0.7530	49.1040
 0.7540	49.1890
 0.7550	49.2640
 0.7560	49.3310
 0.7570	49.3920
 0.7580	49.4350
 0.7590	49.4820
 0.7600	49.5400
 0.7610	49.5840
 0.7620	49.6250
 0.7630	49.6550
 0.7640	49.6690
 0.7650	49.6960
 0.7660	49.7260
 0.7670	49.7500
 0.7680	49.7630
 0.7690	49.7860
 0.7700	49.8050
 0.7710	49.8150
 0.7720	49.8310
 0.7730	49.8440
 0.7740	49.8530
 0.7750	49.8630
 0.7760	49.8770
 0.7770	49.8920
 0.7780	49.9030
 0.7790	49.9110
 0.7800	49.9270
 0.7810	49.9420
 0.7820	49.9510
 0.7830	49.9580
 0.7840	49.9610
 0.7850	49.9660
 0.7860	49.9770
 0.7870	49.9870
 0.7880	50.0030
 0.7890	50.0140
 0.7900	50.0150
 0.7910	50.0240
 0.7920	50.0290
 0.7930	50.0310
 0.7940	50.0420
 0.7950	50.0510
 0.7960	50.0510
 0.7970	50.0460
 0.7980	50.0530
 0.7990	50.0590
 0.8000	50.0610
 0.8010	50.0600
 0.8020	50.0660
 0.8030	50.0560
 0.8040	50.0470
 0.8050	50.0590
 0.8060	50.0480
 0.8070	50.0410
 0.8080	50.0430
 0.8090	50.0360
 0.8100	50.0320
 0.8110	50.0280
 0.8120	50.0220
 0.8130	50.0120
 0.8140	49.9980
 0.8150	49.9880
 0.8160	49.9880
 0.8170	49.9790
 0.8180	49.9580
 0.8190	49.9420
 0.8200	49.9500
 0.8210	49.9500
 0.8220	49.9350
 0.8230	49.9160
 0.8240	49.9100
 0.8250	49.8980
 0.8260	49.8840
 0.8270	49.8740
 0.8280	49.8620
 0.8290	49.8390
 0.8300	49.8200
 0.8310	49.8140
 0.8320	49.7980
 0.8330	49.7790
 0.8340	49.7650
 0.8350	49.7620
 0.8360	49.7520
 0.8370	49.7460
 0.8380	49.7410
 0.8390	49.7260
 0.8400	49.7170
 0.8410	49.7130
 0.8420	49.7090
 0.8430	49.7010
 0.8440	49.6950
 0.8450	49.6880
 0.8460	49.6800
 0.8470	49.6740
 0.8480	49.6690
 0.8490	49.6630
 0.8500	49.6540
 0.8510	49.6400
 0.8520	49.6420
 0.8530	49.6500
 0.8540	49.6430
 0.8550	49.6430
 0.8560	49.6410
 0.8570	49.6370
 0.8580	49.6450
 0.8590	49.6450
 0.8600	49.6380
 0.8610	49.6330
 0.8620	49.6450
 0.8630	49.6410
 0.8640	49.6370
 0.8650	49.6450
 0.8660	49.6340
 0.8670	49.6370
 0.8680	49.6440
 0.8690	49.6400
 0.8700	49.6390
 0.8710	49.6460
 0.8720	49.6520
 0.8730	49.6480
 0.8740	49.6590
 0.8750	49.6610
 0.8760	49.6560
 0.8770	49.6740
 0.8780	49.6720
 0.8790	49.6730
 0.8800	49.6850
 0.8810	49.6910
 0.8820	49.7040
 0.8830	49.7130
 0.8840	49.7130
 0.8850	49.7200
 0.8860	49.7290
 0.8870	49.7360
 0.8880	49.7360
 0.8890	49.7420
 0.8900	49.7430
 0.8910	49.7430
 0.8920	49.7490
 0.8930	49.7610
 0.8940	49.7640
 0.8950	49.7560
 0.8960	49.7520
 0.8970	49.7690
 0.8980	49.7810
 0.8990	49.7830
 0.9000	49.7900
 0.9010	49.8020
 0.9020	49.8070
 0.9030	49.7990
 0.9040	49.7890
 0.9050	49.8060
 0.9060	49.8230
 0.9070	49.8210
 0.9080	49.8260
 0.9090	49.8360
 0.9100	49.8510
 0.9110	49.8650
 0.9120	49.8630
 0.9130	49.8590
 0.9140	49.8600
 0.9150	49.8660
 0.9160	49.8700
 0.9170	49.8700
 0.9180	49.8680
 0.9190	49.8650
 0.9200	49.8750
 0.9210	49.8790
 0.9220	49.8760
 0.9230	49.8780
 0.9240	49.8830
 0.9250	49.8750
 0.9260	49.8570
 0.9270	49.8460
 0.9280	49.8300
 0.9290	49.8180
 0.9300	49.8120
 0.9310	49.7980
 0.9320	49.7730
 0.9330	49.7570
 0.9340	49.7580
 0.9350	49.7560
 0.9360	49.7460
 0.9370	49.7280
 0.9380	49.7090
 0.9390	49.6950
 0.9400	49.6880
 0.9410	49.6610
 0.9420	49.6110
 0.9430	49.5920
 0.9440	49.5700
 0.9450	49.5510
 0.9460	49.5340
 0.9470	49.4830
 0.9480	49.4360
 0.9490	49.3960
 0.9500	49.3560
 0.9510	49.3270
 0.9520	49.2860
 0.9530	49.2300
 0.9540	49.1690
 0.9550	49.1150
 0.9560	49.0710
 0.9570	49.0280
 0.9580	48.9770
 0.9590	48.9310
 0.9600	48.8900
 0.9610	48.8530
 0.9620	48.8230
 0.9630	48.8200
 0.9640	48.7980
 0.9650	48.7700
 0.9660	48.7650
 0.9670	48.7450
 0.9680	48.7250
 0.9690	48.7100
 0.9700	48.7030
 0.9710	48.6930
 0.9720	48.6730
 0.9730	48.6590
 0.9740	48.6650
 0.9750	48.6600
 0.9760	48.6470
 0.9770	48.6420
 0.9780	48.6570
 0.9790	48.6790
 0.9800	48.6630
 0.9810	48.6330
 0.9820	48.6350
 0.9830	48.6590
 0.9840	48.6650
 0.9850	48.6660
 0.9860	48.6920
 0.9870	48.6850
 0.9880	48.6660
 0.9890	48.6730
 0.9900	48.7230
 0.9910	48.7310
 0.9920	48.7780
 0.9930	48.8240
 0.9940	48.8710
 0.9950	48.9170
 0.9960	48.9640
 0.9970	49.0100
 0.9980	49.0570
 0.9990	49.1030
 1.0000	49.1500
 1.0010	49.1960
 1.0020	49.2430
 1.0030	49.2890
 1.0040	49.3360
 1.0050	49.3820
 1.0060	49.4290
 1.0070	49.4750
 1.0080	49.5220
 1.0090	49.5680
 1.0100	49.5680
 1.0110	49.5760
 1.0120	49.5890
 1.0130	49.6100
 1.0140	49.6250
 1.0150	49.6400
 1.0160	49.6520
 1.0170	49.6590
 1.0180	49.6670
 1.0190	49.6750
 1.0200	49.6840
 1.0210	49.6960
 1.0220	49.7070
 1.0230	49.7190
 1.0240	49.7340
 1.0250	49.7460
 1.0260	49.7550
 1.0270	49.7660
 1.0280	49.7760
 1.0290	49.7860
 1.0300	49.7980
 1.0310	49.8090
 1.0320	49.8170
 1.0330	49.8260
 1.0340	49.8360
 1.0350	49.8470
 1.0360	49.8590
 1.0370	49.8690
 1.0380	49.8780
 1.0390	49.8850
 1.0400	49.8950
 1.0410	49.9050
 1.0420	49.9160
 1.0430	49.9300
 1.0440	49.9400
 1.0450	49.9450
 1.0460	49.9530
 1.0470	49.9600
 1.0480	49.9650
 1.0490	49.9700
 1.0500	49.9750
 1.0510	49.9780
 1.0520	49.9810
 1.0530	49.9860
 1.0540	49.9960
 1.0550	50.0010
 1.0560	50.0070
 1.0570	50.0120
 1.0580	50.0170
 1.0590	50.0200
 1.0600	50.0190
 1.0610	50.0210
 1.0620	50.0240
 1.0630	50.0270
 1.0640	50.0330
 1.0650	50.0370
 1.0660	50.0360
 1.0670	50.0380
 1.0680	50.0410
 1.0690	50.0440
 1.0700	50.0460
 1.0710	50.0520
 1.0720	50.0510
 1.0730	50.0450
 1.0740	50.0420
 1.0750	50.0330
 1.0760	50.0310
 1.0770	50.0340
 1.0780	50.0320
 1.0790	50.0290
 1.0800	50.0260
 1.0810	50.0180
 1.0820	50.0130
 1.0830	50.0110
 1.0840	50.0080
 1.0850	50.0090
 1.0860	50.0090
 1.0870	50.0040
 1.0880	49.9970
 1.0890	49.9900
 1.0900	49.9780
 1.0910	49.9690
 1.0920	49.9630
 1.0930	49.9560
 1.0940	49.9520
 1.0950	49.9450
 1.0960	49.9370
 1.0970	49.9290
 1.0980	49.9170
 1.0990	49.9070
 1.1000	49.9030
 1.1010	49.8930
 1.1020	49.8800
 1.1030	49.8670
 1.1040	49.8560
 1.1050	49.8420
 1.1060	49.8320
 1.1070	49.8270
 1.1080	49.8170
 1.1090	49.8050
 1.1100	49.7910
 1.1110	49.7740
 1.1120	49.7590
 1.1130	49.7430
 1.1140	49.7290
 1.1150	49.7190
 1.1160	49.7050
 1.1170	49.6890
 1.1180	49.6720
 1.1190	49.6520
 1.1200	49.6300
 1.1210	49.6100
 1.1220	49.5850
 1.1230	49.5550
 1.1240	49.5260
 1.1250	49.4910
 1.1260	49.4530
 1.1270	49.4100
 1.1280	49.3650
 1.1290	49.3130
 1.1300	49.2570
 1.1310	49.1960
 1.1320	49.1330
 1.1330	49.0620
 1.1340	48.9840
 1.1350	48.9010
 1.1360	48.8100
 1.1370	48.7180
 1.1380	48.6220
 1.1390	48.5230
 1.1400	48.4170
 1.1410	48.3070
 1.1420	48.1960
 1.1430	48.0840
 1.1440	47.9710
 1.1450	47.8570
 1.1460	47.7470
 1.1470	47.6340
 1.1480	47.5310
 1.1490	47.4340
 1.1500	47.3420
 1.1510	47.2550
 1.1520	47.1730
 1.1530	47.0950
 1.1540	47.0250
 1.1550	46.9620
 1.1560	46.9030
 1.1570	46.8530
 1.1580	46.8100
 1.1590	46.7720
 1.1600	46.7400
 1.1610	46.7110
 1.1620	46.6870
 1.1630	46.6680
 1.1640	46.6520
 1.1650	46.6380
 1.1660	46.6270
 1.1670	46.6190
 1.1680	46.6140
 1.1690	46.6080
 1.1700	46.6040
 1.1710	46.5990
 1.1720	46.5930
 1.1730	46.5880
 1.1740	46.5840
 1.1750	46.5800
 1.1760	46.5750
 1.1770	46.5670
 1.1780	46.5600
 1.1790	46.5520
 1.1800	46.5420
 1.1810	46.5330
 1.1820	46.5220
 1.1830	46.5090
 1.1840	46.4980
 1.1850	46.4890
 1.1860	46.4810
 1.1870	46.4740
 1.1880	46.4690
 1.1890	46.4660
 1.1900	46.4620
 1.1910	46.4570
 1.1920	46.4530
 1.1930	46.4490
 1.1940	46.4470
 1.1950	46.4460
 1.1960	46.4460
 1.1970	46.4460
 1.1980	46.4500
 1.1990	46.4530
 1.2000	46.4580
 1.2010	46.4660
 1.2020	46.4720
 1.2030	46.4800
 1.2040	46.4900
 1.2050	46.4990
 1.2060	46.5090
 1.2070	46.5200
 1.2080	46.5320
 1.2090	46.5440
 1.2100	46.5540
 1.2110	46.5670
 1.2120	46.5800
 1.2130	46.5940
 1.2140	46.6070
 1.2150	46.6230
 1.2160	46.6390
 1.2170	46.6550
 1.2180	46.6740
 1.2190	46.6920
 1.2200	46.7100
 1.2210	46.7300
 1.2220	46.7470
 1.2230	46.7630
 1.2240	46.7790
 1.2250	46.7940
 1.2260	46.8090
 1.2270	46.8250
 1.2280	46.8420
 1.2290	46.8580
 1.2300	46.8720
 1.2310	46.8880
 1.2320	46.9040
 1.2330	46.9180
 1.2340	46.9310
 1.2350	46.9430
 1.2360	46.9550
 1.2370	46.9660
 1.2380	46.9780
 1.2390	46.9920
 1.2400	47.0050
 1.2410	47.0170
 1.2420	47.0280
 1.2430	47.0400
 1.2440	47.0510
 1.2450	47.0590
 1.2460	47.0660
 1.2470	47.0720
 1.2480	47.0770
 1.2490	47.0840
 1.2500	47.0940
 1.2510	47.1020
 1.2520	47.1080
 1.2530	47.1110
 1.2540	47.1140
 1.2550	47.1190
 1.2560	47.1240
 1.2570	47.1300
 1.2580	47.1340
 1.2590	47.1350
 1.2600	47.1330
 1.2610	47.1320
 1.2620	47.1300
 1.2630	47.1290
 1.2640	47.1250
 1.2650	47.1230
 1.2660	47.1200
 1.2670	47.1150
 1.2680	47.1120
 1.2690	47.1080
 1.2700	47.0990
 1.2710	47.0900
 1.2720	47.0810
 1.2730	47.0710
 1.2740	47.0640
 1.2750	47.0540
 1.2760	47.0420
 1.2770	47.0310
 1.2780	47.0170
 1.2790	47.0030
 1.2800	46.9910
 1.2810	46.9770
 1.2820	46.9620
 1.2830	46.9460
 1.2840	46.9250
 1.2850	46.9020
 1.2860	46.8790
 1.2870	46.8550
 1.2880	46.8310
 1.2890	46.8070
 1.2900	46.7820
 1.2910	46.7550
 1.2920	46.7250
 1.2930	46.6960
 1.2940	46.6650
 1.2950	46.6320
 1.2960	46.6000
 1.2970	46.5620
 1.2980	46.5210
 1.2990	46.4790
 1.3000	46.4340
 1.3010	46.3860
 1.3020	46.3380
 1.3030	46.2870
 1.3040	46.2320
 1.3050	46.1760
 1.3060	46.1200
 1.3070	46.0600
 1.3080	45.9990
 1.3090	45.9370
 1.3100	45.8690
 1.3110	45.8000
 1.3120	45.7270
 1.3130	45.6520
 1.3140	45.5740
 1.3150	45.4940
 1.3160	45.4110
 1.3170	45.3260
 1.3180	45.2370
 1.3190	45.1480
 1.3200	45.0540
 1.3210	44.9570
 1.3220	44.8590
 1.3230	44.7570
 1.3240	44.6540
 1.3250	44.5500
 1.3260	44.4430
 1.3270	44.3340
 1.3280	44.2240
 1.3290	44.1110
 1.3300	43.9960
 1.3310	43.8800
 1.3320	43.7610
 1.3330	43.6450
 1.3340	43.5300
 1.3350	43.4100
 1.3360	43.2900
 1.3370	43.1680
 1.3380	43.0450
 1.3390	42.9240
 1.3400	42.8030
 1.3410	42.6830
 1.3420	42.5630
 1.3430	42.4420
 1.3440	42.3230
 1.3450	42.2040
 1.3460	42.0860
 1.3470	41.9700
 1.3480	41.8550
 1.3490	41.7400
 1.3500	41.6260
 1.3510	41.5110
 1.3520	41.3940
 1.3530	41.2800
 1.3540	41.1670
 1.3550	41.0540
 1.3560	40.9390
 1.3570	40.8230
 1.3580	40.7040
 1.3590	40.5810
 1.3600	40.4570
 1.3610	40.3310
 1.3620	40.1970
 1.3630	40.0600
 1.3640	39.9160
 1.3650	39.7650
 1.3660	39.6070
 1.3670	39.4410
 1.3680	39.2650
 1.3690	39.0780
 1.3700	38.8780
 1.3710	38.6670
 1.3720	38.4410
 1.3730	38.1980
 1.3740	37.9390
 1.3750	37.6640
 1.3760	37.3670
 1.3770	37.0510
 1.3780	36.7100
 1.3790	36.3480
 1.3800	35.9630
 1.3810	35.5530
 1.3820	35.1260
 1.3830	34.6800
 1.3840	34.2160
 1.3850	33.7340
 1.3860	33.2360
 1.3870	32.7170
 1.3880	32.1920
 1.3890	31.6530
 1.3900	31.1020
 1.3910	30.5520
 1.3920	29.9950
 1.3930	29.4360
 1.3940	28.8800
 1.3950	28.3210
 1.3960	27.7720
 1.3970	27.2330
 1.3980	26.7020
 1.3990	26.1930
 1.4000	25.6970
 1.4010	25.2150
 1.4020	24.7550
 1.4030	24.3110
 1.4040	23.8890
 1.4050	23.4900
 1.4060	23.1100
 1.4070	22.7580
 1.4080	22.4260
 1.4090	22.1150
 1.4100	21.8280
 1.4110	21.5600
 1.4120	21.3110
 1.4130	21.0840
 1.4140	20.8730
 1.4150	20.6830
 1.4160	20.5090
 1.4170	20.3480
 1.4180	20.2030
 1.4190	20.0710
 1.4200	19.9520
 1.4210	19.8460
 1.4220	19.7490
 1.4230	19.6640
 1.4240	19.5880
 1.4250	19.5190
 1.4260	19.4610
 1.4270	19.4090
 1.4280	19.3660
 1.4290	19.3270
 1.4300	19.2950
 1.4310	19.2670
 1.4320	19.2450
 1.4330	19.2270
 1.4340	19.2150
 1.4350	19.2070
 1.4360	19.2030
 1.4370	19.2030
 1.4380	19.2060
 1.4390	19.2110
 1.4400	19.2180
 1.4410	19.2290
 1.4420	19.2410
 1.4430	19.2550
 1.4440	19.2720
 1.4450	19.2890
 1.4460	19.3080
 1.4470	19.3280
 1.4480	19.3480
 1.4490	19.3690
 1.4500	19.3920
 1.4510	19.4160
 1.4520	19.4410
 1.4530	19.4680
 1.4540	19.4960
 1.4550	19.5250
 1.4560	19.5580
 1.4570	19.5920
 1.4580	19.6290
 1.4590	19.6700
 1.4600	19.7140
 1.4610	19.7630
 1.4620	19.8160
 1.4630	19.8730
 1.4640	19.9350
 1.4650	20.0010
 1.4660	20.0730
 1.4670	20.1500
 1.4680	20.2320
 1.4690	20.3190
 1.4700	20.4100
