Name: Salvia leucophylla 2
Type: vegetation
Class: Shrub
Genus: Salvia
Species: leucophylla
Sample No.: VH190
Owner: UCSB
Wavelength Range: VSWIR
Origin: 34.698; -120.0477; WGS84
Collection Date: 6/9/2013
Description: Samples were collected as part of the HyspIRI Airborne Campaign. 48 individual plants were sampled in three times in 2013 - spring  summer  and fall. The name of the sample includes a 1  2  or 3 which references a different individual of the species. Samples were taken to JPL and processed within 48 hours of collection. The same leaves were processed in the Nicolet and then measured using the ASD.
Measurement: Bidirectional reflectance
First Column: X
Second Column: Y
X Units: Wavelength (micrometers)
Y Units: Reflectance (percentage)
First X Value: 0.35
Last X Value: 2.5
Number of X Values: 2151
Additional Information: vegetation.shrub.salvia.leucophylla.vswir.vh190.ucsb.asd.ancillary.txt

 0.3500	 3.8520
 0.3510	 4.0250
 0.3520	 3.8780
 0.3530	 3.7350
 0.3540	 3.8520
 0.3550	 3.9230
 0.3560	 3.8420
 0.3570	 3.7760
 0.3580	 3.9660
 0.3590	 4.0450
 0.3600	 4.0870
 0.3610	 4.1420
 0.3620	 4.1720
 0.3630	 4.1280
 0.3640	 4.1190
 0.3650	 4.2400
 0.3660	 4.3620
 0.3670	 4.3880
 0.3680	 4.4020
 0.3690	 4.5640
 0.3700	 4.6570
 0.3710	 4.7470
 0.3720	 4.8680
 0.3730	 4.9140
 0.3740	 5.0160
 0.3750	 5.1280
 0.3760	 5.1790
 0.3770	 5.2810
 0.3780	 5.3860
 0.3790	 5.4870
 0.3800	 5.6080
 0.3810	 5.6910
 0.3820	 5.8100
 0.3830	 5.9770
 0.3840	 6.0560
 0.3850	 6.1840
 0.3860	 6.3350
 0.3870	 6.4370
 0.3880	 6.5600
 0.3890	 6.6940
 0.3900	 6.8200
 0.3910	 6.9150
 0.3920	 7.0720
 0.3930	 7.1990
 0.3940	 7.2500
 0.3950	 7.3840
 0.3960	 7.5250
 0.3970	 7.6310
 0.3980	 7.6890
 0.3990	 7.7720
 0.4000	 7.8590
 0.4010	 7.9470
 0.4020	 8.0820
 0.4030	 8.1800
 0.4040	 8.2560
 0.4050	 8.3400
 0.4060	 8.4020
 0.4070	 8.4490
 0.4080	 8.4980
 0.4090	 8.5800
 0.4100	 8.6940
 0.4110	 8.7750
 0.4120	 8.8060
 0.4130	 8.8920
 0.4140	 8.9610
 0.4150	 9.0350
 0.4160	 9.1370
 0.4170	 9.1950
 0.4180	 9.2640
 0.4190	 9.3580
 0.4200	 9.4350
 0.4210	 9.5010
 0.4220	 9.5750
 0.4230	 9.6630
 0.4240	 9.7060
 0.4250	 9.7780
 0.4260	 9.8610
 0.4270	 9.9110
 0.4280	 9.9850
 0.4290	10.0550
 0.4300	10.1090
 0.4310	10.1750
 0.4320	10.2520
 0.4330	10.3260
 0.4340	10.3870
 0.4350	10.4570
 0.4360	10.5220
 0.4370	10.5740
 0.4380	10.6150
 0.4390	10.6540
 0.4400	10.7030
 0.4410	10.7650
 0.4420	10.8160
 0.4430	10.8570
 0.4440	10.9010
 0.4450	10.9590
 0.4460	10.9850
 0.4470	11.0200
 0.4480	11.0700
 0.4490	11.1030
 0.4500	11.1370
 0.4510	11.1710
 0.4520	11.2080
 0.4530	11.2480
 0.4540	11.2870
 0.4550	11.3220
 0.4560	11.3500
 0.4570	11.3750
 0.4580	11.4040
 0.4590	11.4370
 0.4600	11.4580
 0.4610	11.4910
 0.4620	11.5230
 0.4630	11.5370
 0.4640	11.5600
 0.4650	11.5840
 0.4660	11.6040
 0.4670	11.6220
 0.4680	11.6450
 0.4690	11.6660
 0.4700	11.6800
 0.4710	11.6960
 0.4720	11.7140
 0.4730	11.7290
 0.4740	11.7360
 0.4750	11.7570
 0.4760	11.7800
 0.4770	11.7970
 0.4780	11.8140
 0.4790	11.8250
 0.4800	11.8400
 0.4810	11.8630
 0.4820	11.8850
 0.4830	11.8990
 0.4840	11.9100
 0.4850	11.9340
 0.4860	11.9570
 0.4870	11.9790
 0.4880	12.0000
 0.4890	12.0210
 0.4900	12.0370
 0.4910	12.0550
 0.4920	12.0800
 0.4930	12.1080
 0.4940	12.1300
 0.4950	12.1490
 0.4960	12.1820
 0.4970	12.2130
 0.4980	12.2450
 0.4990	12.2810
 0.5000	12.3170
 0.5010	12.3560
 0.5020	12.3990
 0.5030	12.4460
 0.5040	12.4920
 0.5050	12.5430
 0.5060	12.6020
 0.5070	12.6640
 0.5080	12.7280
 0.5090	12.7960
 0.5100	12.8730
 0.5110	12.9600
 0.5120	13.0470
 0.5130	13.1340
 0.5140	13.2330
 0.5150	13.3410
 0.5160	13.4520
 0.5170	13.5610
 0.5180	13.6760
 0.5190	13.8000
 0.5200	13.9260
 0.5210	14.0480
 0.5220	14.1790
 0.5230	14.3110
 0.5240	14.4370
 0.5250	14.5690
 0.5260	14.7020
 0.5270	14.8300
 0.5280	14.9470
 0.5290	15.0730
 0.5300	15.1940
 0.5310	15.3090
 0.5320	15.4270
 0.5330	15.5360
 0.5340	15.6400
 0.5350	15.7460
 0.5360	15.8470
 0.5370	15.9450
 0.5380	16.0400
 0.5390	16.1330
 0.5400	16.2360
 0.5410	16.3410
 0.5420	16.4430
 0.5430	16.5400
 0.5440	16.6280
 0.5450	16.7090
 0.5460	16.7880
 0.5470	16.8390
 0.5480	16.8850
 0.5490	16.9400
 0.5500	16.9980
 0.5510	17.0490
 0.5520	17.0920
 0.5530	17.1280
 0.5540	17.1590
 0.5550	17.1840
 0.5560	17.2020
 0.5570	17.2090
 0.5580	17.2120
 0.5590	17.2100
 0.5600	17.2010
 0.5610	17.1920
 0.5620	17.1910
 0.5630	17.1940
 0.5640	17.1940
 0.5650	17.1920
 0.5660	17.1840
 0.5670	17.1670
 0.5680	17.1360
 0.5690	17.1030
 0.5700	17.0660
 0.5710	17.0250
 0.5720	16.9930
 0.5730	16.9740
 0.5740	16.9660
 0.5750	16.9650
 0.5760	16.9630
 0.5770	16.9520
 0.5780	16.9270
 0.5790	16.8950
 0.5800	16.8680
 0.5810	16.8510
 0.5820	16.8460
 0.5830	16.8480
 0.5840	16.8460
 0.5850	16.8310
 0.5860	16.8030
 0.5870	16.7740
 0.5880	16.7440
 0.5890	16.7190
 0.5900	16.7200
 0.5910	16.7400
 0.5920	16.7730
 0.5930	16.8100
 0.5940	16.8300
 0.5950	16.8380
 0.5960	16.8380
 0.5970	16.8360
 0.5980	16.8290
 0.5990	16.8180
 0.6000	16.8080
 0.6010	16.7930
 0.6020	16.7790
 0.6030	16.7690
 0.6040	16.7550
 0.6050	16.7380
 0.6060	16.7190
 0.6070	16.6960
 0.6080	16.6690
 0.6090	16.6470
 0.6100	16.6350
 0.6110	16.6310
 0.6120	16.5870
 0.6130	16.5290
 0.6140	16.4780
 0.6150	16.4350
 0.6160	16.3970
 0.6170	16.3630
 0.6180	16.3320
 0.6190	16.3060
 0.6200	16.2870
 0.6210	16.2710
 0.6220	16.2520
 0.6230	16.2370
 0.6240	16.2280
 0.6250	16.2210
 0.6260	16.2190
 0.6270	16.2180
 0.6280	16.2190
 0.6290	16.2250
 0.6300	16.2300
 0.6310	16.2350
 0.6320	16.2390
 0.6330	16.2320
 0.6340	16.2210
 0.6350	16.2080
 0.6360	16.1920
 0.6370	16.1680
 0.6380	16.1320
 0.6390	16.0890
 0.6400	16.0480
 0.6410	15.9950
 0.6420	15.9360
 0.6430	15.8750
 0.6440	15.8150
 0.6450	15.7460
 0.6460	15.6760
 0.6470	15.6140
 0.6480	15.5530
 0.6490	15.4980
 0.6500	15.4500
 0.6510	15.4030
 0.6520	15.3630
 0.6530	15.3220
 0.6540	15.2750
 0.6550	15.2280
 0.6560	15.1750
 0.6570	15.1190
 0.6580	15.0590
 0.6590	14.9860
 0.6600	14.9120
 0.6610	14.8400
 0.6620	14.7540
 0.6630	14.6760
 0.6640	14.6060
 0.6650	14.5390
 0.6660	14.4800
 0.6670	14.4240
 0.6680	14.3750
 0.6690	14.3410
 0.6700	14.3060
 0.6710	14.2770
 0.6720	14.2600
 0.6730	14.2530
 0.6740	14.2500
 0.6750	14.2530
 0.6760	14.2620
 0.6770	14.2690
 0.6780	14.2870
 0.6790	14.3170
 0.6800	14.3520
 0.6810	14.4010
 0.6820	14.4660
 0.6830	14.5510
 0.6840	14.6600
 0.6850	14.7920
 0.6860	14.9520
 0.6870	15.1490
 0.6880	15.3740
 0.6890	15.6380
 0.6900	15.9440
 0.6910	16.2840
 0.6920	16.6520
 0.6930	17.0520
 0.6940	17.4840
 0.6950	17.9330
 0.6960	18.3980
 0.6970	18.8790
 0.6980	19.3740
 0.6990	19.8740
 0.7000	20.3790
 0.7010	20.8840
 0.7020	21.3800
 0.7030	21.8730
 0.7040	22.3560
 0.7050	22.8230
 0.7060	23.2810
 0.7070	23.7310
 0.7080	24.1640
 0.7090	24.5730
 0.7100	24.9730
 0.7110	25.3650
 0.7120	25.7460
 0.7130	26.1080
 0.7140	26.4590
 0.7150	26.7980
 0.7160	27.1240
 0.7170	27.4380
 0.7180	27.7440
 0.7190	28.0380
 0.7200	28.3110
 0.7210	28.5790
 0.7220	28.8380
 0.7230	29.0850
 0.7240	29.3200
 0.7250	29.5470
 0.7260	29.7630
 0.7270	29.9670
 0.7280	30.1610
 0.7290	30.3510
 0.7300	30.5270
 0.7310	30.6830
 0.7320	30.8450
 0.7330	30.9980
 0.7340	31.1380
 0.7350	31.2780
 0.7360	31.4040
 0.7370	31.5260
 0.7380	31.6490
 0.7390	31.7580
 0.7400	31.8630
 0.7410	31.9670
 0.7420	32.0680
 0.7430	32.1600
 0.7440	32.2470
 0.7450	32.3340
 0.7460	32.4220
 0.7470	32.5010
 0.7480	32.5750
 0.7490	32.6460
 0.7500	32.7100
 0.7510	32.7740
 0.7520	32.8410
 0.7530	32.9090
 0.7540	32.9710
 0.7550	33.0260
 0.7560	33.0760
 0.7570	33.1280
 0.7580	33.1840
 0.7590	33.2370
 0.7600	33.2840
 0.7610	33.3390
 0.7620	33.3850
 0.7630	33.4260
 0.7640	33.4720
 0.7650	33.5260
 0.7660	33.5660
 0.7670	33.6000
 0.7680	33.6520
 0.7690	33.7000
 0.7700	33.7430
 0.7710	33.7810
 0.7720	33.8190
 0.7730	33.8550
 0.7740	33.8940
 0.7750	33.9370
 0.7760	33.9750
 0.7770	34.0170
 0.7780	34.0580
 0.7790	34.0910
 0.7800	34.1270
 0.7810	34.1700
 0.7820	34.2130
 0.7830	34.2460
 0.7840	34.2800
 0.7850	34.3190
 0.7860	34.3590
 0.7870	34.3930
 0.7880	34.4280
 0.7890	34.4660
 0.7900	34.5040
 0.7910	34.5330
 0.7920	34.5590
 0.7930	34.5880
 0.7940	34.6230
 0.7950	34.6570
 0.7960	34.6850
 0.7970	34.7090
 0.7980	34.7390
 0.7990	34.7680
 0.8000	34.7980
 0.8010	34.8290
 0.8020	34.8510
 0.8030	34.8760
 0.8040	34.9040
 0.8050	34.9310
 0.8060	34.9460
 0.8070	34.9650
 0.8080	34.9890
 0.8090	35.0040
 0.8100	35.0200
 0.8110	35.0400
 0.8120	35.0640
 0.8130	35.0930
 0.8140	35.1110
 0.8150	35.1260
 0.8160	35.1440
 0.8170	35.1570
 0.8180	35.1640
 0.8190	35.1770
 0.8200	35.2050
 0.8210	35.2280
 0.8220	35.2470
 0.8230	35.2590
 0.8240	35.2580
 0.8250	35.2690
 0.8260	35.2820
 0.8270	35.2910
 0.8280	35.3020
 0.8290	35.3210
 0.8300	35.3410
 0.8310	35.3520
 0.8320	35.3520
 0.8330	35.3630
 0.8340	35.3800
 0.8350	35.3950
 0.8360	35.4110
 0.8370	35.4220
 0.8380	35.4290
 0.8390	35.4410
 0.8400	35.4510
 0.8410	35.4700
 0.8420	35.4950
 0.8430	35.5050
 0.8440	35.5140
 0.8450	35.5240
 0.8460	35.5370
 0.8470	35.5550
 0.8480	35.5780
 0.8490	35.5990
 0.8500	35.6120
 0.8510	35.6200
 0.8520	35.6340
 0.8530	35.6570
 0.8540	35.6830
 0.8550	35.7050
 0.8560	35.7170
 0.8570	35.7280
 0.8580	35.7550
 0.8590	35.7860
 0.8600	35.8060
 0.8610	35.8180
 0.8620	35.8420
 0.8630	35.8630
 0.8640	35.8810
 0.8650	35.8990
 0.8660	35.9220
 0.8670	35.9480
 0.8680	35.9770
 0.8690	36.0050
 0.8700	36.0230
 0.8710	36.0440
 0.8720	36.0690
 0.8730	36.0940
 0.8740	36.1210
 0.8750	36.1460
 0.8760	36.1730
 0.8770	36.2060
 0.8780	36.2310
 0.8790	36.2590
 0.8800	36.2940
 0.8810	36.3280
 0.8820	36.3570
 0.8830	36.3800
 0.8840	36.4020
 0.8850	36.4360
 0.8860	36.4640
 0.8870	36.4920
 0.8880	36.5250
 0.8890	36.5520
 0.8900	36.5850
 0.8910	36.6190
 0.8920	36.6450
 0.8930	36.6760
 0.8940	36.7040
 0.8950	36.7310
 0.8960	36.7640
 0.8970	36.8040
 0.8980	36.8350
 0.8990	36.8550
 0.9000	36.8790
 0.9010	36.9200
 0.9020	36.9590
 0.9030	36.9870
 0.9040	37.0100
 0.9050	37.0450
 0.9060	37.0760
 0.9070	37.0970
 0.9080	37.1310
 0.9090	37.1520
 0.9100	37.1800
 0.9110	37.2250
 0.9120	37.2490
 0.9130	37.2710
 0.9140	37.2990
 0.9150	37.3320
 0.9160	37.3650
 0.9170	37.3960
 0.9180	37.4270
 0.9190	37.4620
 0.9200	37.4880
 0.9210	37.5160
 0.9220	37.5410
 0.9230	37.5570
 0.9240	37.5860
 0.9250	37.6130
 0.9260	37.6330
 0.9270	37.6540
 0.9280	37.6680
 0.9290	37.6830
 0.9300	37.7020
 0.9310	37.7220
 0.9320	37.7310
 0.9330	37.7450
 0.9340	37.7700
 0.9350	37.7950
 0.9360	37.8140
 0.9370	37.8210
 0.9380	37.8220
 0.9390	37.8400
 0.9400	37.8480
 0.9410	37.8560
 0.9420	37.8700
 0.9430	37.8700
 0.9440	37.8800
 0.9450	37.8900
 0.9460	37.8920
 0.9470	37.9030
 0.9480	37.8850
 0.9490	37.8650
 0.9500	37.8660
 0.9510	37.8590
 0.9520	37.8570
 0.9530	37.8560
 0.9540	37.8440
 0.9550	37.8140
 0.9560	37.7980
 0.9570	37.7890
 0.9580	37.7780
 0.9590	37.7810
 0.9600	37.7660
 0.9610	37.7480
 0.9620	37.7500
 0.9630	37.7380
 0.9640	37.7280
 0.9650	37.7320
 0.9660	37.7520
 0.9670	37.7510
 0.9680	37.7540
 0.9690	37.7510
 0.9700	37.7340
 0.9710	37.7650
 0.9720	37.7750
 0.9730	37.7610
 0.9740	37.7550
 0.9750	37.7700
 0.9760	37.7810
 0.9770	37.7860
 0.9780	37.7960
 0.9790	37.8140
 0.9800	37.8360
 0.9810	37.8530
 0.9820	37.8570
 0.9830	37.8650
 0.9840	37.8780
 0.9850	37.8820
 0.9860	37.8720
 0.9870	37.8970
 0.9880	37.9230
 0.9890	37.9370
 0.9900	37.9460
 0.9910	37.9670
 0.9920	37.9950
 0.9930	38.0080
 0.9940	38.0000
 0.9950	38.0440
 0.9960	38.0730
 0.9970	38.0840
 0.9980	38.1020
 0.9990	38.1300
 1.0000	38.1770
 1.0010	38.2700
 1.0020	38.3320
 1.0030	38.3470
 1.0040	38.3620
 1.0050	38.3820
 1.0060	38.4020
 1.0070	38.4200
 1.0080	38.4380
 1.0090	38.4580
 1.0100	38.4770
 1.0110	38.4960
 1.0120	38.5150
 1.0130	38.5320
 1.0140	38.5500
 1.0150	38.5670
 1.0160	38.5850
 1.0170	38.6020
 1.0180	38.6220
 1.0190	38.6410
 1.0200	38.6590
 1.0210	38.6760
 1.0220	38.6950
 1.0230	38.7140
 1.0240	38.7310
 1.0250	38.7480
 1.0260	38.7660
 1.0270	38.7820
 1.0280	38.7980
 1.0290	38.8120
 1.0300	38.8240
 1.0310	38.8370
 1.0320	38.8490
 1.0330	38.8630
 1.0340	38.8790
 1.0350	38.8910
 1.0360	38.9030
 1.0370	38.9190
 1.0380	38.9300
 1.0390	38.9400
 1.0400	38.9510
 1.0410	38.9590
 1.0420	38.9690
 1.0430	38.9800
 1.0440	38.9900
 1.0450	39.0010
 1.0460	39.0110
 1.0470	39.0210
 1.0480	39.0320
 1.0490	39.0450
 1.0500	39.0570
 1.0510	39.0690
 1.0520	39.0820
 1.0530	39.0920
 1.0540	39.0990
 1.0550	39.1110
 1.0560	39.1210
 1.0570	39.1360
 1.0580	39.1600
 1.0590	39.1740
 1.0600	39.1840
 1.0610	39.1960
 1.0620	39.2020
 1.0630	39.2130
 1.0640	39.2300
 1.0650	39.2440
 1.0660	39.2580
 1.0670	39.2700
 1.0680	39.2810
 1.0690	39.2900
 1.0700	39.3020
 1.0710	39.3150
 1.0720	39.3270
 1.0730	39.3430
 1.0740	39.3540
 1.0750	39.3620
 1.0760	39.3730
 1.0770	39.3830
 1.0780	39.3930
 1.0790	39.4060
 1.0800	39.4170
 1.0810	39.4270
 1.0820	39.4370
 1.0830	39.4460
 1.0840	39.4560
 1.0850	39.4660
 1.0860	39.4760
 1.0870	39.4860
 1.0880	39.4990
 1.0890	39.5050
 1.0900	39.5080
 1.0910	39.5130
 1.0920	39.5160
 1.0930	39.5210
 1.0940	39.5300
 1.0950	39.5350
 1.0960	39.5370
 1.0970	39.5400
 1.0980	39.5420
 1.0990	39.5450
 1.1000	39.5520
 1.1010	39.5550
 1.1020	39.5600
 1.1030	39.5620
 1.1040	39.5620
 1.1050	39.5600
 1.1060	39.5570
 1.1070	39.5520
 1.1080	39.5490
 1.1090	39.5460
 1.1100	39.5410
 1.1110	39.5330
 1.1120	39.5280
 1.1130	39.5240
 1.1140	39.5170
 1.1150	39.5110
 1.1160	39.5030
 1.1170	39.4910
 1.1180	39.4810
 1.1190	39.4720
 1.1200	39.4630
 1.1210	39.4510
 1.1220	39.4370
 1.1230	39.4220
 1.1240	39.4030
 1.1250	39.3820
 1.1260	39.3610
 1.1270	39.3350
 1.1280	39.3070
 1.1290	39.2730
 1.1300	39.2360
 1.1310	39.1960
 1.1320	39.1500
 1.1330	39.1030
 1.1340	39.0540
 1.1350	39.0000
 1.1360	38.9420
 1.1370	38.8800
 1.1380	38.8160
 1.1390	38.7500
 1.1400	38.6800
 1.1410	38.6090
 1.1420	38.5370
 1.1430	38.4670
 1.1440	38.3960
 1.1450	38.3240
 1.1460	38.2540
 1.1470	38.1840
 1.1480	38.1170
 1.1490	38.0520
 1.1500	37.9920
 1.1510	37.9340
 1.1520	37.8800
 1.1530	37.8320
 1.1540	37.7840
 1.1550	37.7380
 1.1560	37.6950
 1.1570	37.6550
 1.1580	37.6180
 1.1590	37.5900
 1.1600	37.5660
 1.1610	37.5410
 1.1620	37.5220
 1.1630	37.5020
 1.1640	37.4810
 1.1650	37.4620
 1.1660	37.4470
 1.1670	37.4310
 1.1680	37.4150
 1.1690	37.4010
 1.1700	37.3880
 1.1710	37.3740
 1.1720	37.3630
 1.1730	37.3500
 1.1740	37.3360
 1.1750	37.3210
 1.1760	37.3060
 1.1770	37.2890
 1.1780	37.2710
 1.1790	37.2540
 1.1800	37.2380
 1.1810	37.2210
 1.1820	37.2060
 1.1830	37.1900
 1.1840	37.1710
 1.1850	37.1550
 1.1860	37.1410
 1.1870	37.1280
 1.1880	37.1190
 1.1890	37.1140
 1.1900	37.1100
 1.1910	37.1080
 1.1920	37.1080
 1.1930	37.1110
 1.1940	37.1150
 1.1950	37.1210
 1.1960	37.1260
 1.1970	37.1320
 1.1980	37.1390
 1.1990	37.1480
 1.2000	37.1590
 1.2010	37.1720
 1.2020	37.1870
 1.2030	37.2000
 1.2040	37.2150
 1.2050	37.2340
 1.2060	37.2520
 1.2070	37.2730
 1.2080	37.2950
 1.2090	37.3150
 1.2100	37.3370
 1.2110	37.3610
 1.2120	37.3840
 1.2130	37.4100
 1.2140	37.4390
 1.2150	37.4670
 1.2160	37.4970
 1.2170	37.5280
 1.2180	37.5570
 1.2190	37.5870
 1.2200	37.6160
 1.2210	37.6470
 1.2220	37.6790
 1.2230	37.7080
 1.2240	37.7380
 1.2250	37.7680
 1.2260	37.7960
 1.2270	37.8250
 1.2280	37.8530
 1.2290	37.8810
 1.2300	37.9070
 1.2310	37.9310
 1.2320	37.9550
 1.2330	37.9780
 1.2340	37.9990
 1.2350	38.0200
 1.2360	38.0410
 1.2370	38.0600
 1.2380	38.0820
 1.2390	38.1030
 1.2400	38.1230
 1.2410	38.1440
 1.2420	38.1620
 1.2430	38.1780
 1.2440	38.1950
 1.2450	38.2110
 1.2460	38.2260
 1.2470	38.2410
 1.2480	38.2550
 1.2490	38.2670
 1.2500	38.2780
 1.2510	38.2890
 1.2520	38.3000
 1.2530	38.3130
 1.2540	38.3250
 1.2550	38.3390
 1.2560	38.3510
 1.2570	38.3610
 1.2580	38.3710
 1.2590	38.3810
 1.2600	38.3890
 1.2610	38.3970
 1.2620	38.4060
 1.2630	38.4140
 1.2640	38.4170
 1.2650	38.4230
 1.2660	38.4270
 1.2670	38.4300
 1.2680	38.4360
 1.2690	38.4380
 1.2700	38.4400
 1.2710	38.4400
 1.2720	38.4360
 1.2730	38.4330
 1.2740	38.4310
 1.2750	38.4280
 1.2760	38.4230
 1.2770	38.4160
 1.2780	38.4080
 1.2790	38.3980
 1.2800	38.3900
 1.2810	38.3810
 1.2820	38.3700
 1.2830	38.3610
 1.2840	38.3490
 1.2850	38.3380
 1.2860	38.3290
 1.2870	38.3190
 1.2880	38.3090
 1.2890	38.2980
 1.2900	38.2870
 1.2910	38.2750
 1.2920	38.2650
 1.2930	38.2570
 1.2940	38.2490
 1.2950	38.2410
 1.2960	38.2310
 1.2970	38.2200
 1.2980	38.2090
 1.2990	38.1970
 1.3000	38.1830
 1.3010	38.1700
 1.3020	38.1570
 1.3030	38.1410
 1.3040	38.1240
 1.3050	38.1030
 1.3060	38.0800
 1.3070	38.0560
 1.3080	38.0290
 1.3090	38.0010
 1.3100	37.9700
 1.3110	37.9380
 1.3120	37.9020
 1.3130	37.8640
 1.3140	37.8230
 1.3150	37.7790
 1.3160	37.7330
 1.3170	37.6840
 1.3180	37.6350
 1.3190	37.5830
 1.3200	37.5290
 1.3210	37.4730
 1.3220	37.4130
 1.3230	37.3490
 1.3240	37.2820
 1.3250	37.2120
 1.3260	37.1410
 1.3270	37.0710
 1.3280	37.0000
 1.3290	36.9260
 1.3300	36.8520
 1.3310	36.7740
 1.3320	36.6920
 1.3330	36.6100
 1.3340	36.5280
 1.3350	36.4430
 1.3360	36.3610
 1.3370	36.2780
 1.3380	36.1920
 1.3390	36.1070
 1.3400	36.0210
 1.3410	35.9370
 1.3420	35.8530
 1.3430	35.7680
 1.3440	35.6840
 1.3450	35.5990
 1.3460	35.5120
 1.3470	35.4280
 1.3480	35.3440
 1.3490	35.2600
 1.3500	35.1770
 1.3510	35.0950
 1.3520	35.0120
 1.3530	34.9270
 1.3540	34.8410
 1.3550	34.7560
 1.3560	34.6730
 1.3570	34.5910
 1.3580	34.5090
 1.3590	34.4280
 1.3600	34.3430
 1.3610	34.2570
 1.3620	34.1720
 1.3630	34.0850
 1.3640	33.9940
 1.3650	33.9010
 1.3660	33.8060
 1.3670	33.7040
 1.3680	33.5980
 1.3690	33.4870
 1.3700	33.3660
 1.3710	33.2390
 1.3720	33.1050
 1.3730	32.9590
 1.3740	32.8050
 1.3750	32.6400
 1.3760	32.4630
 1.3770	32.2750
 1.3780	32.0710
 1.3790	31.8550
 1.3800	31.6260
 1.3810	31.3830
 1.3820	31.1300
 1.3830	30.8680
 1.3840	30.5940
 1.3850	30.3090
 1.3860	30.0140
 1.3870	29.7060
 1.3880	29.3940
 1.3890	29.0730
 1.3900	28.7450
 1.3910	28.4160
 1.3920	28.0840
 1.3930	27.7460
 1.3940	27.4100
 1.3950	27.0700
 1.3960	26.7320
 1.3970	26.3980
 1.3980	26.0710
 1.3990	25.7530
 1.4000	25.4420
 1.4010	25.1380
 1.4020	24.8440
 1.4030	24.5580
 1.4040	24.2830
 1.4050	24.0220
 1.4060	23.7720
 1.4070	23.5350
 1.4080	23.3110
 1.4090	23.0960
 1.4100	22.8950
 1.4110	22.7050
 1.4120	22.5260
 1.4130	22.3610
 1.4140	22.2060
 1.4150	22.0650
 1.4160	21.9340
 1.4170	21.8120
 1.4180	21.7010
 1.4190	21.5980
 1.4200	21.5020
 1.4210	21.4140
 1.4220	21.3330
 1.4230	21.2610
 1.4240	21.1970
 1.4250	21.1370
 1.4260	21.0840
 1.4270	21.0350
 1.4280	20.9910
 1.4290	20.9510
 1.4300	20.9170
 1.4310	20.8860
 1.4320	20.8590
 1.4330	20.8360
 1.4340	20.8180
 1.4350	20.8020
 1.4360	20.7910
 1.4370	20.7830
 1.4380	20.7760
 1.4390	20.7730
 1.4400	20.7710
 1.4410	20.7720
 1.4420	20.7750
 1.4430	20.7790
 1.4440	20.7840
 1.4450	20.7920
 1.4460	20.8000
 1.4470	20.8100
 1.4480	20.8210
 1.4490	20.8330
 1.4500	20.8450
 1.4510	20.8580
 1.4520	20.8710
 1.4530	20.8850
 1.4540	20.9020
 1.4550	20.9200
 1.4560	20.9400
 1.4570	20.9610
 1.4580	20.9840
 1.4590	21.0080
 1.4600	21.0360
 1.4610	21.0660
 1.4620	21.0990
 1.4630	21.1340
 1.4640	21.1720
 1.4650	21.2130
 1.4660	21.2580
 1.4670	21.3080
 1.4680	21.3590
 1.4690	21.4110
 1.4700	21.4670
