Name: Brachychiton rupestris
Type: vegetation
Class: Tree
Genus: Brachychiton
Species: rupestris
Sample No.: JPL084
Owner: JPL
Wavelength Range: VSWIR
Origin: 34.12478; - 118.11418; WGS84
Collection Date: 2/2/2016
Description: Samples were collected at the Huntington Garden in San Marino California as part of a JPL Subcontract studying HyTES imagery. Samples were taken to JPL and processed within 48 hours of collection. The same leaves were processed in the Nicolet and then measured using the ASD.
Measurement: Bidirectional reflectance
First Column: X
Second Column: Y
X Units: Wavelength (micrometer)
Y Units: Reflectance (percentage)
First X Value: 0.35
Last X Value: 2.5
Number of X Values: 2151
Additional Information: 

 0.3500	 8.3190
 0.3510	 7.9380
 0.3520	 8.0590
 0.3530	 7.8070
 0.3540	 6.7650
 0.3550	 6.7660
 0.3560	 6.7380
 0.3570	 6.9290
 0.3580	 8.0310
 0.3590	 8.7130
 0.3600	 8.0470
 0.3610	 6.6610
 0.3620	 7.5000
 0.3630	 7.6500
 0.3640	 7.5450
 0.3650	 7.8760
 0.3660	 7.1020
 0.3670	 6.7270
 0.3680	 7.0840
 0.3690	 7.5600
 0.3700	 7.9430
 0.3710	 7.6420
 0.3720	 6.8410
 0.3730	 7.3080
 0.3740	 7.0370
 0.3750	 6.8780
 0.3760	 7.9100
 0.3770	 7.9000
 0.3780	 7.5370
 0.3790	 7.3710
 0.3800	 7.6260
 0.3810	 7.0120
 0.3820	 6.8170
 0.3830	 7.6730
 0.3840	 7.9130
 0.3850	 7.7080
 0.3860	 7.3670
 0.3870	 7.2410
 0.3880	 7.2580
 0.3890	 7.2990
 0.3900	 7.2800
 0.3910	 7.1710
 0.3920	 7.4220
 0.3930	 7.5170
 0.3940	 7.2010
 0.3950	 7.4730
 0.3960	 7.3100
 0.3970	 7.0150
 0.3980	 7.3560
 0.3990	 7.5140
 0.4000	 7.7180
 0.4010	 7.8810
 0.4020	 7.3770
 0.4030	 7.4670
 0.4040	 7.8050
 0.4050	 7.7960
 0.4060	 7.3820
 0.4070	 7.2110
 0.4080	 7.3740
 0.4090	 7.5780
 0.4100	 7.7440
 0.4110	 7.7920
 0.4120	 7.7170
 0.4130	 7.6080
 0.4140	 7.6860
 0.4150	 7.7990
 0.4160	 7.7470
 0.4170	 7.7890
 0.4180	 7.7100
 0.4190	 7.6170
 0.4200	 7.8980
 0.4210	 7.9100
 0.4220	 7.8350
 0.4230	 7.8620
 0.4240	 7.7820
 0.4250	 7.8200
 0.4260	 7.8820
 0.4270	 7.7750
 0.4280	 7.7460
 0.4290	 7.8120
 0.4300	 7.9450
 0.4310	 8.1000
 0.4320	 8.0480
 0.4330	 7.9240
 0.4340	 7.9070
 0.4350	 7.9760
 0.4360	 7.9500
 0.4370	 7.8920
 0.4380	 8.0250
 0.4390	 8.0780
 0.4400	 8.0780
 0.4410	 8.0640
 0.4420	 7.9650
 0.4430	 8.0940
 0.4440	 8.2500
 0.4450	 8.1240
 0.4460	 8.0800
 0.4470	 8.0650
 0.4480	 8.0670
 0.4490	 8.1540
 0.4500	 8.1510
 0.4510	 8.1500
 0.4520	 8.2240
 0.4530	 8.1630
 0.4540	 8.1110
 0.4550	 8.1210
 0.4560	 8.1770
 0.4570	 8.2450
 0.4580	 8.2900
 0.4590	 8.2960
 0.4600	 8.2590
 0.4610	 8.2550
 0.4620	 8.2600
 0.4630	 8.2330
 0.4640	 8.2330
 0.4650	 8.2250
 0.4660	 8.2010
 0.4670	 8.1930
 0.4680	 8.2710
 0.4690	 8.3190
 0.4700	 8.2620
 0.4710	 8.2430
 0.4720	 8.2110
 0.4730	 8.2070
 0.4740	 8.2920
 0.4750	 8.2420
 0.4760	 8.2170
 0.4770	 8.2770
 0.4780	 8.2650
 0.4790	 8.2350
 0.4800	 8.2410
 0.4810	 8.3030
 0.4820	 8.2810
 0.4830	 8.2340
 0.4840	 8.2070
 0.4850	 8.2260
 0.4860	 8.2790
 0.4870	 8.3230
 0.4880	 8.3360
 0.4890	 8.3580
 0.4900	 8.3610
 0.4910	 8.3190
 0.4920	 8.2320
 0.4930	 8.2920
 0.4940	 8.3430
 0.4950	 8.3260
 0.4960	 8.3740
 0.4970	 8.4070
 0.4980	 8.4050
 0.4990	 8.3790
 0.5000	 8.4040
 0.5010	 8.4460
 0.5020	 8.4820
 0.5030	 8.5020
 0.5040	 8.5050
 0.5050	 8.4800
 0.5060	 8.4640
 0.5070	 8.6350
 0.5080	 8.6550
 0.5090	 8.5790
 0.5100	 8.6190
 0.5110	 8.7150
 0.5120	 8.7700
 0.5130	 8.7940
 0.5140	 8.9380
 0.5150	 8.9870
 0.5160	 9.0010
 0.5170	 9.0790
 0.5180	 9.1620
 0.5190	 9.2640
 0.5200	 9.3680
 0.5210	 9.4390
 0.5220	 9.5380
 0.5230	 9.6300
 0.5240	 9.6960
 0.5250	 9.7840
 0.5260	 9.9040
 0.5270	10.0200
 0.5280	10.0880
 0.5290	10.1920
 0.5300	10.2830
 0.5310	10.3430
 0.5320	10.4040
 0.5330	10.4930
 0.5340	10.5570
 0.5350	10.5650
 0.5360	10.6310
 0.5370	10.6810
 0.5380	10.6920
 0.5390	10.6840
 0.5400	10.7280
 0.5410	10.7710
 0.5420	10.7890
 0.5430	10.8630
 0.5440	10.8660
 0.5450	10.8320
 0.5460	10.8420
 0.5470	10.8790
 0.5480	10.9040
 0.5490	10.9130
 0.5500	10.9480
 0.5510	10.9410
 0.5520	10.9130
 0.5530	10.8990
 0.5540	10.9030
 0.5550	10.9140
 0.5560	10.8930
 0.5570	10.7970
 0.5580	10.7450
 0.5590	10.7290
 0.5600	10.7100
 0.5610	10.6250
 0.5620	10.5500
 0.5630	10.4940
 0.5640	10.4420
 0.5650	10.3840
 0.5660	10.3210
 0.5670	10.2560
 0.5680	10.1920
 0.5690	10.1260
 0.5700	10.0430
 0.5710	 9.9450
 0.5720	 9.8970
 0.5730	 9.8550
 0.5740	 9.8110
 0.5750	 9.7800
 0.5760	 9.7170
 0.5770	 9.6600
 0.5780	 9.6290
 0.5790	 9.6030
 0.5800	 9.5610
 0.5810	 9.5190
 0.5820	 9.4980
 0.5830	 9.4760
 0.5840	 9.4510
 0.5850	 9.4230
 0.5860	 9.4010
 0.5870	 9.3730
 0.5880	 9.3560
 0.5890	 9.3540
 0.5900	 9.3280
 0.5910	 9.2880
 0.5920	 9.2570
 0.5930	 9.2620
 0.5940	 9.2640
 0.5950	 9.2640
 0.5960	 9.2670
 0.5970	 9.2710
 0.5980	 9.2520
 0.5990	 9.2210
 0.6000	 9.2000
 0.6010	 9.2070
 0.6020	 9.2080
 0.6030	 9.1850
 0.6040	 9.1390
 0.6050	 9.1260
 0.6060	 9.1240
 0.6070	 9.1090
 0.6080	 9.0750
 0.6090	 9.0360
 0.6100	 9.0000
 0.6110	 8.9690
 0.6120	 8.9430
 0.6130	 8.9360
 0.6140	 8.9360
 0.6150	 8.8870
 0.6160	 8.8530
 0.6170	 8.8310
 0.6180	 8.8040
 0.6190	 8.7820
 0.6200	 8.7650
 0.6210	 8.7550
 0.6220	 8.7510
 0.6230	 8.7460
 0.6240	 8.7420
 0.6250	 8.7370
 0.6260	 8.7090
 0.6270	 8.6830
 0.6280	 8.6660
 0.6290	 8.6560
 0.6300	 8.6880
 0.6310	 8.6990
 0.6320	 8.6780
 0.6330	 8.6810
 0.6340	 8.6810
 0.6350	 8.6810
 0.6360	 8.6800
 0.6370	 8.6590
 0.6380	 8.6310
 0.6390	 8.6070
 0.6400	 8.5980
 0.6410	 8.6160
 0.6420	 8.6130
 0.6430	 8.5750
 0.6440	 8.5490
 0.6450	 8.5120
 0.6460	 8.4940
 0.6470	 8.5190
 0.6480	 8.5010
 0.6490	 8.5020
 0.6500	 8.5160
 0.6510	 8.4810
 0.6520	 8.4860
 0.6530	 8.4920
 0.6540	 8.4710
 0.6550	 8.4650
 0.6560	 8.4510
 0.6570	 8.4360
 0.6580	 8.4310
 0.6590	 8.4400
 0.6600	 8.4140
 0.6610	 8.3670
 0.6620	 8.3710
 0.6630	 8.3640
 0.6640	 8.3570
 0.6650	 8.3580
 0.6660	 8.3270
 0.6670	 8.3200
 0.6680	 8.3260
 0.6690	 8.3070
 0.6700	 8.3300
 0.6710	 8.3450
 0.6720	 8.3310
 0.6730	 8.3320
 0.6740	 8.3610
 0.6750	 8.3990
 0.6760	 8.4220
 0.6770	 8.4280
 0.6780	 8.4470
 0.6790	 8.4800
 0.6800	 8.5070
 0.6810	 8.5390
 0.6820	 8.5740
 0.6830	 8.6100
 0.6840	 8.6550
 0.6850	 8.7090
 0.6860	 8.7580
 0.6870	 8.7930
 0.6880	 8.8390
 0.6890	 8.9090
 0.6900	 8.9830
 0.6910	 9.0200
 0.6920	 9.1310
 0.6930	 9.2530
 0.6940	 9.3590
 0.6950	 9.5440
 0.6960	 9.7500
 0.6970	 9.9770
 0.6980	10.2440
 0.6990	10.5720
 0.7000	10.9540
 0.7010	11.3800
 0.7020	11.8340
 0.7030	12.3090
 0.7040	12.8320
 0.7050	13.4080
 0.7060	13.9900
 0.7070	14.6380
 0.7080	15.3240
 0.7090	16.0070
 0.7100	16.7040
 0.7110	17.4450
 0.7120	18.2320
 0.7130	19.0430
 0.7140	19.8730
 0.7150	20.7270
 0.7160	21.6080
 0.7170	22.5100
 0.7180	23.4340
 0.7190	24.3780
 0.7200	25.3370
 0.7210	26.2850
 0.7220	27.2420
 0.7230	28.2190
 0.7240	29.2060
 0.7250	30.1750
 0.7260	31.1180
 0.7270	32.0390
 0.7280	32.9720
 0.7290	33.8890
 0.7300	34.7790
 0.7310	35.6360
 0.7320	36.4640
 0.7330	37.2730
 0.7340	38.0500
 0.7350	38.7650
 0.7360	39.4940
 0.7370	40.1750
 0.7380	40.7770
 0.7390	41.4120
 0.7400	41.9920
 0.7410	42.5220
 0.7420	43.0300
 0.7430	43.4890
 0.7440	43.9160
 0.7450	44.3300
 0.7460	44.7420
 0.7470	45.0870
 0.7480	45.3930
 0.7490	45.6900
 0.7500	45.9720
 0.7510	46.2200
 0.7520	46.4360
 0.7530	46.6310
 0.7540	46.8280
 0.7550	47.0060
 0.7560	47.1540
 0.7570	47.2770
 0.7580	47.4130
 0.7590	47.5420
 0.7600	47.6480
 0.7610	47.7280
 0.7620	47.8140
 0.7630	47.8950
 0.7640	47.9560
 0.7650	48.0230
 0.7660	48.0700
 0.7670	48.0990
 0.7680	48.1300
 0.7690	48.1650
 0.7700	48.1970
 0.7710	48.2270
 0.7720	48.2600
 0.7730	48.3000
 0.7740	48.3150
 0.7750	48.2960
 0.7760	48.3380
 0.7770	48.3610
 0.7780	48.3520
 0.7790	48.3370
 0.7800	48.3340
 0.7810	48.3450
 0.7820	48.3640
 0.7830	48.3800
 0.7840	48.3740
 0.7850	48.3710
 0.7860	48.3840
 0.7870	48.3770
 0.7880	48.3790
 0.7890	48.3820
 0.7900	48.3710
 0.7910	48.3570
 0.7920	48.3450
 0.7930	48.3340
 0.7940	48.3210
 0.7950	48.3150
 0.7960	48.2990
 0.7970	48.2800
 0.7980	48.3050
 0.7990	48.3020
 0.8000	48.2790
 0.8010	48.2600
 0.8020	48.2480
 0.8030	48.2440
 0.8040	48.2360
 0.8050	48.2110
 0.8060	48.1880
 0.8070	48.1810
 0.8080	48.1730
 0.8090	48.1290
 0.8100	48.1090
 0.8110	48.1190
 0.8120	48.1360
 0.8130	48.0990
 0.8140	48.0540
 0.8150	48.0380
 0.8160	48.0590
 0.8170	48.0370
 0.8180	48.0030
 0.8190	47.9850
 0.8200	47.9960
 0.8210	47.9800
 0.8220	47.9510
 0.8230	47.9310
 0.8240	47.9380
 0.8250	47.9520
 0.8260	47.9390
 0.8270	47.9060
 0.8280	47.9260
 0.8290	47.9200
 0.8300	47.8910
 0.8310	47.8630
 0.8320	47.8710
 0.8330	47.8820
 0.8340	47.8900
 0.8350	47.8970
 0.8360	47.8860
 0.8370	47.8470
 0.8380	47.8080
 0.8390	47.8240
 0.8400	47.8400
 0.8410	47.8640
 0.8420	47.8850
 0.8430	47.8720
 0.8440	47.8860
 0.8450	47.9040
 0.8460	47.9010
 0.8470	47.8920
 0.8480	47.9020
 0.8490	47.9120
 0.8500	47.9080
 0.8510	47.9400
 0.8520	47.9480
 0.8530	47.9370
 0.8540	47.9480
 0.8550	47.9770
 0.8560	47.9880
 0.8570	47.9800
 0.8580	47.9930
 0.8590	48.0230
 0.8600	48.0420
 0.8610	48.0450
 0.8620	48.0750
 0.8630	48.0760
 0.8640	48.0750
 0.8650	48.1000
 0.8660	48.1210
 0.8670	48.1250
 0.8680	48.1220
 0.8690	48.1350
 0.8700	48.1760
 0.8710	48.1940
 0.8720	48.1720
 0.8730	48.1330
 0.8740	48.2180
 0.8750	48.2660
 0.8760	48.2490
 0.8770	48.2790
 0.8780	48.3100
 0.8790	48.3240
 0.8800	48.3210
 0.8810	48.3200
 0.8820	48.3280
 0.8830	48.3260
 0.8840	48.3260
 0.8850	48.4190
 0.8860	48.4030
 0.8870	48.3660
 0.8880	48.4190
 0.8890	48.4280
 0.8900	48.4300
 0.8910	48.4390
 0.8920	48.4520
 0.8930	48.4370
 0.8940	48.4340
 0.8950	48.4630
 0.8960	48.5170
 0.8970	48.5130
 0.8980	48.4980
 0.8990	48.4910
 0.9000	48.4830
 0.9010	48.5230
 0.9020	48.5250
 0.9030	48.4900
 0.9040	48.5530
 0.9050	48.5660
 0.9060	48.5560
 0.9070	48.5540
 0.9080	48.5340
 0.9090	48.5020
 0.9100	48.4890
 0.9110	48.5060
 0.9120	48.4970
 0.9130	48.5060
 0.9140	48.5300
 0.9150	48.5460
 0.9160	48.5170
 0.9170	48.5040
 0.9180	48.4960
 0.9190	48.4670
 0.9200	48.4910
 0.9210	48.4960
 0.9220	48.4780
 0.9230	48.4660
 0.9240	48.4190
 0.9250	48.4180
 0.9260	48.4440
 0.9270	48.4080
 0.9280	48.4010
 0.9290	48.3850
 0.9300	48.3440
 0.9310	48.2930
 0.9320	48.2760
 0.9330	48.2890
 0.9340	48.2990
 0.9350	48.2590
 0.9360	48.2520
 0.9370	48.2420
 0.9380	48.2160
 0.9390	48.2230
 0.9400	48.1790
 0.9410	48.1140
 0.9420	48.0700
 0.9430	48.0670
 0.9440	47.9780
 0.9450	47.8960
 0.9460	47.9000
 0.9470	47.9230
 0.9480	47.8680
 0.9490	47.8370
 0.9500	47.8800
 0.9510	47.7800
 0.9520	47.7080
 0.9530	47.6230
 0.9540	47.4910
 0.9550	47.4740
 0.9560	47.4490
 0.9570	47.3910
 0.9580	47.3270
 0.9590	47.3320
 0.9600	47.2830
 0.9610	47.2330
 0.9620	47.2470
 0.9630	47.1900
 0.9640	47.1210
 0.9650	47.0790
 0.9660	47.0840
 0.9670	47.1480
 0.9680	47.0920
 0.9690	46.9850
 0.9700	46.9730
 0.9710	47.0150
 0.9720	47.0550
 0.9730	47.0300
 0.9740	46.9350
 0.9750	47.0000
 0.9760	47.0050
 0.9770	46.9210
 0.9780	46.8450
 0.9790	46.9220
 0.9800	46.9600
 0.9810	46.9080
 0.9820	46.8280
 0.9830	46.8690
 0.9840	46.8770
 0.9850	46.8620
 0.9860	46.9030
 0.9870	46.9180
 0.9880	46.9880
 0.9890	47.0490
 0.9900	47.0030
 0.9910	46.9600
 0.9920	46.9530
 0.9930	46.9860
 0.9940	47.0350
 0.9950	47.0370
 0.9960	47.0160
 0.9970	47.0450
 0.9980	47.1310
 0.9990	46.9050
 1.0000	46.9260
 1.0010	47.2170
 1.0020	47.2420
 1.0030	47.2880
 1.0040	47.3190
 1.0050	47.3460
 1.0060	47.3510
 1.0070	47.3710
 1.0080	47.3820
 1.0090	47.3810
 1.0100	47.3890
 1.0110	47.4040
 1.0120	47.4020
 1.0130	47.3790
 1.0140	47.3920
 1.0150	47.4200
 1.0160	47.4360
 1.0170	47.4710
 1.0180	47.4940
 1.0190	47.4880
 1.0200	47.4930
 1.0210	47.5130
 1.0220	47.5440
 1.0230	47.5640
 1.0240	47.5890
 1.0250	47.6050
 1.0260	47.6130
 1.0270	47.6200
 1.0280	47.6230
 1.0290	47.6330
 1.0300	47.6450
 1.0310	47.6550
 1.0320	47.6770
 1.0330	47.6780
 1.0340	47.6830
 1.0350	47.6940
 1.0360	47.7050
 1.0370	47.7300
 1.0380	47.7430
 1.0390	47.7520
 1.0400	47.7640
 1.0410	47.7790
 1.0420	47.7870
 1.0430	47.7890
 1.0440	47.8020
 1.0450	47.8160
 1.0460	47.8230
 1.0470	47.8210
 1.0480	47.8440
 1.0490	47.8830
 1.0500	47.9050
 1.0510	47.9360
 1.0520	47.9710
 1.0530	47.9950
 1.0540	48.0020
 1.0550	48.0060
 1.0560	48.0060
 1.0570	48.0160
 1.0580	48.0220
 1.0590	48.0230
 1.0600	48.0370
 1.0610	48.0370
 1.0620	48.0060
 1.0630	47.9980
 1.0640	47.9990
 1.0650	48.0040
 1.0660	48.0270
 1.0670	48.0350
 1.0680	48.0400
 1.0690	48.0390
 1.0700	48.0500
 1.0710	48.0610
 1.0720	48.0640
 1.0730	48.0780
 1.0740	48.0780
 1.0750	48.0490
 1.0760	48.0550
 1.0770	48.0800
 1.0780	48.0970
 1.0790	48.1380
 1.0800	48.1510
 1.0810	48.1340
 1.0820	48.1360
 1.0830	48.1390
 1.0840	48.1370
 1.0850	48.1540
 1.0860	48.1520
 1.0870	48.1370
 1.0880	48.0960
 1.0890	48.0850
 1.0900	48.0660
 1.0910	48.0700
 1.0920	48.1060
 1.0930	48.1160
 1.0940	48.1310
 1.0950	48.1300
 1.0960	48.1060
 1.0970	48.0940
 1.0980	48.0790
 1.0990	48.0690
 1.1000	48.0700
 1.1010	48.0670
 1.1020	48.0800
 1.1030	48.0630
 1.1040	48.0310
 1.1050	48.0110
 1.1060	47.9960
 1.1070	47.9770
 1.1080	47.9620
 1.1090	47.9650
 1.1100	47.9490
 1.1110	47.9080
 1.1120	47.8950
 1.1130	47.8890
 1.1140	47.8880
 1.1150	47.9180
 1.1160	47.9140
 1.1170	47.8920
 1.1180	47.8730
 1.1190	47.8320
 1.1200	47.8070
 1.1210	47.7790
 1.1220	47.7490
 1.1230	47.7250
 1.1240	47.6760
 1.1250	47.6330
 1.1260	47.5900
 1.1270	47.5470
 1.1280	47.5070
 1.1290	47.4480
 1.1300	47.3840
 1.1310	47.3160
 1.1320	47.2340
 1.1330	47.1540
 1.1340	47.0810
 1.1350	46.9970
 1.1360	46.9020
 1.1370	46.8030
 1.1380	46.7070
 1.1390	46.5920
 1.1400	46.4790
 1.1410	46.3640
 1.1420	46.2430
 1.1430	46.1290
 1.1440	46.0120
 1.1450	45.8890
 1.1460	45.7760
 1.1470	45.6670
 1.1480	45.5590
 1.1490	45.4500
 1.1500	45.3520
 1.1510	45.2560
 1.1520	45.1710
 1.1530	45.0990
 1.1540	45.0250
 1.1550	44.9590
 1.1560	44.8880
 1.1570	44.8070
 1.1580	44.7430
 1.1590	44.6850
 1.1600	44.6290
 1.1610	44.5860
 1.1620	44.5480
 1.1630	44.5160
 1.1640	44.4920
 1.1650	44.4690
 1.1660	44.4560
 1.1670	44.4370
 1.1680	44.4180
 1.1690	44.3970
 1.1700	44.3750
 1.1710	44.3520
 1.1720	44.3150
 1.1730	44.2970
 1.1740	44.2900
 1.1750	44.2810
 1.1760	44.2620
 1.1770	44.2380
 1.1780	44.2000
 1.1790	44.1570
 1.1800	44.1260
 1.1810	44.1080
 1.1820	44.1000
 1.1830	44.1040
 1.1840	44.1040
 1.1850	44.0970
 1.1860	44.0830
 1.1870	44.0470
 1.1880	44.0230
 1.1890	44.0000
 1.1900	43.9900
 1.1910	43.9930
 1.1920	43.9880
 1.1930	43.9880
 1.1940	43.9730
 1.1950	43.9430
 1.1960	43.9230
 1.1970	43.9020
 1.1980	43.9040
 1.1990	43.9060
 1.2000	43.8930
 1.2010	43.8870
 1.2020	43.8790
 1.2030	43.8770
 1.2040	43.8950
 1.2050	43.9070
 1.2060	43.9130
 1.2070	43.9360
 1.2080	43.9500
 1.2090	43.9660
 1.2100	43.9960
 1.2110	44.0150
 1.2120	44.0280
 1.2130	44.0460
 1.2140	44.0530
 1.2150	44.0730
 1.2160	44.1010
 1.2170	44.1310
 1.2180	44.1640
 1.2190	44.2040
 1.2200	44.2370
 1.2210	44.2620
 1.2220	44.2970
 1.2230	44.3390
 1.2240	44.3850
 1.2250	44.4220
 1.2260	44.4420
 1.2270	44.4710
 1.2280	44.4870
 1.2290	44.4960
 1.2300	44.5170
 1.2310	44.5290
 1.2320	44.5430
 1.2330	44.5720
 1.2340	44.5990
 1.2350	44.6330
 1.2360	44.6550
 1.2370	44.6730
 1.2380	44.6950
 1.2390	44.7060
 1.2400	44.7200
 1.2410	44.7420
 1.2420	44.7460
 1.2430	44.7560
 1.2440	44.7750
 1.2450	44.7850
 1.2460	44.7940
 1.2470	44.8090
 1.2480	44.8230
 1.2490	44.8390
 1.2500	44.8630
 1.2510	44.8820
 1.2520	44.8940
 1.2530	44.8910
 1.2540	44.8840
 1.2550	44.8830
 1.2560	44.8790
 1.2570	44.8890
 1.2580	44.9010
 1.2590	44.9070
 1.2600	44.9140
 1.2610	44.9150
 1.2620	44.9060
 1.2630	44.9000
 1.2640	44.9070
 1.2650	44.9030
 1.2660	44.9050
 1.2670	44.9120
 1.2680	44.9110
 1.2690	44.9170
 1.2700	44.9250
 1.2710	44.9220
 1.2720	44.9190
 1.2730	44.9110
 1.2740	44.8940
 1.2750	44.8830
 1.2760	44.8720
 1.2770	44.8610
 1.2780	44.8560
 1.2790	44.8450
 1.2800	44.8290
 1.2810	44.8140
 1.2820	44.7890
 1.2830	44.7650
 1.2840	44.7380
 1.2850	44.7070
 1.2860	44.6900
 1.2870	44.6670
 1.2880	44.6430
 1.2890	44.6180
 1.2900	44.5970
 1.2910	44.5680
 1.2920	44.5420
 1.2930	44.5270
 1.2940	44.5070
 1.2950	44.4660
 1.2960	44.4300
 1.2970	44.3870
 1.2980	44.3320
 1.2990	44.2950
 1.3000	44.2520
 1.3010	44.1950
 1.3020	44.1550
 1.3030	44.1100
 1.3040	44.0620
 1.3050	44.0290
 1.3060	43.9870
 1.3070	43.9290
 1.3080	43.8670
 1.3090	43.8030
 1.3100	43.7280
 1.3110	43.6590
 1.3120	43.5960
 1.3130	43.5290
 1.3140	43.4600
 1.3150	43.3950
 1.3160	43.3190
 1.3170	43.2370
 1.3180	43.1490
 1.3190	43.0630
 1.3200	42.9770
 1.3210	42.8780
 1.3220	42.7820
 1.3230	42.6710
 1.3240	42.5550
 1.3250	42.4500
 1.3260	42.3390
 1.3270	42.2410
 1.3280	42.1370
 1.3290	42.0310
 1.3300	41.9300
 1.3310	41.8150
 1.3320	41.7030
 1.3330	41.5750
 1.3340	41.4400
 1.3350	41.3080
 1.3360	41.1780
 1.3370	41.0650
 1.3380	40.9540
 1.3390	40.8460
 1.3400	40.7240
 1.3410	40.5910
 1.3420	40.4730
 1.3430	40.3530
 1.3440	40.2360
 1.3450	40.1180
 1.3460	40.0060
 1.3470	39.8860
 1.3480	39.7600
 1.3490	39.6450
 1.3500	39.5320
 1.3510	39.4260
 1.3520	39.3300
 1.3530	39.2230
 1.3540	39.1180
 1.3550	39.0100
 1.3560	38.8920
 1.3570	38.7820
 1.3580	38.6710
 1.3590	38.5540
 1.3600	38.4370
 1.3610	38.3130
 1.3620	38.1800
 1.3630	38.0440
 1.3640	37.9110
 1.3650	37.7700
 1.3660	37.6230
 1.3670	37.4640
 1.3680	37.2900
 1.3690	37.1090
 1.3700	36.9150
 1.3710	36.7160
 1.3720	36.5010
 1.3730	36.2640
 1.3740	36.0090
 1.3750	35.7360
 1.3760	35.4520
 1.3770	35.1450
 1.3780	34.8160
 1.3790	34.4670
 1.3800	34.0900
 1.3810	33.6950
 1.3820	33.2780
 1.3830	32.8380
 1.3840	32.3820
 1.3850	31.9040
 1.3860	31.4100
 1.3870	30.8950
 1.3880	30.3760
 1.3890	29.8390
 1.3900	29.3030
 1.3910	28.7680
 1.3920	28.2230
 1.3930	27.6770
 1.3940	27.1290
 1.3950	26.5740
 1.3960	26.0290
 1.3970	25.4960
 1.3980	24.9750
 1.3990	24.4760
 1.4000	23.9950
 1.4010	23.5320
 1.4020	23.0810
 1.4030	22.6420
 1.4040	22.2240
 1.4050	21.8290
 1.4060	21.4540
 1.4070	21.1060
 1.4080	20.7760
 1.4090	20.4610
 1.4100	20.1670
 1.4110	19.8930
 1.4120	19.6320
 1.4130	19.3890
 1.4140	19.1620
 1.4150	18.9530
 1.4160	18.7620
 1.4170	18.5890
 1.4180	18.4260
 1.4190	18.2680
 1.4200	18.1220
 1.4210	17.9860
 1.4220	17.8670
 1.4230	17.7620
 1.4240	17.6630
 1.4250	17.5680
 1.4260	17.4750
 1.4270	17.3900
 1.4280	17.3110
 1.4290	17.2410
 1.4300	17.1810
 1.4310	17.1270
 1.4320	17.0830
 1.4330	17.0370
 1.4340	16.9950
 1.4350	16.9540
 1.4360	16.9110
 1.4370	16.8800
 1.4380	16.8560
 1.4390	16.8360
 1.4400	16.8270
 1.4410	16.8180
 1.4420	16.8080
 1.4430	16.8000
 1.4440	16.7860
 1.4450	16.7710
 1.4460	16.7640
 1.4470	16.7610
 1.4480	16.7710
 1.4490	16.7830
 1.4500	16.7910
 1.4510	16.8010
 1.4520	16.8070
 1.4530	16.8150
 1.4540	16.8320
 1.4550	16.8500
 1.4560	16.8680
 1.4570	16.8920
 1.4580	16.9150
 1.4590	16.9420
 1.4600	16.9760
 1.4610	17.0070
 1.4620	17.0440
 1.4630	17.0890
 1.4640	17.1330
 1.4650	17.1880
 1.4660	17.2480
 1.4670	17.3020
 1.4680	17.3610
 1.4690	17.4240
 1.4700	17.4880
 1.4710	17.5660
 1.4720	17.6510
 1.4730	17.7360
 1.4740	17.8250
 1.4750	17.9140
 1.4760	18.0080
 1.4770	18.1030
 1.4780	18.2040
 1.4790	18.3090
 1.4800	18.4140
 1.4810	18.5190
