Name: Ceanothus spinosus 2
Type: vegetation
Class: Shrub
Genus: Ceanothus
Species: spinosus
Sample No.: VH009
Owner: UCSB
Wavelength Range: VSWIR
Origin: 34.4906; -119.7908; WGS84
Collection Date: 4/1/2013
Description: Samples were collected as part of the HyspIRI Airborne Campaign. 48 individual plants were sampled in three times in 2013 - spring  summer  and fall. The name of the sample includes a 1  2  or 3 which references a different individual of the species. Samples were taken to JPL and processed within 48 hours of collection. The same leaves were processed in the Nicolet and then measured using the ASD.
Measurement: Bidirectional reflectance
First Column: X
Second Column: Y
X Units: Wavelength (micrometers)
Y Units: Reflectance (percentage)
First X Value: 0.35
Last X Value: 2.5
Number of X Values: 2151
Additional Information: vegetation.shrub.ceanothus.spinosus.vswir.vh009.ucsb.asd.ancillary.txt

 0.3500	 7.8230
 0.3510	 7.7710
 0.3520	 7.5620
 0.3530	 7.3740
 0.3540	 7.3130
 0.3550	 7.1800
 0.3560	 7.2100
 0.3570	 7.3590
 0.3580	 7.4440
 0.3590	 7.3930
 0.3600	 7.2970
 0.3610	 7.2470
 0.3620	 7.3140
 0.3630	 7.3050
 0.3640	 7.2950
 0.3650	 7.3590
 0.3660	 7.3060
 0.3670	 7.2680
 0.3680	 7.2590
 0.3690	 7.2180
 0.3700	 7.2430
 0.3710	 7.2450
 0.3720	 7.2060
 0.3730	 7.2960
 0.3740	 7.2660
 0.3750	 7.1780
 0.3760	 7.1670
 0.3770	 7.1660
 0.3780	 7.2230
 0.3790	 7.2750
 0.3800	 7.1850
 0.3810	 7.2710
 0.3820	 7.2990
 0.3830	 7.1530
 0.3840	 7.1690
 0.3850	 7.2220
 0.3860	 7.2340
 0.3870	 7.1710
 0.3880	 7.1480
 0.3890	 7.1450
 0.3900	 7.1450
 0.3910	 7.1410
 0.3920	 7.1510
 0.3930	 7.1550
 0.3940	 7.1390
 0.3950	 7.1140
 0.3960	 7.1430
 0.3970	 7.1810
 0.3980	 7.1450
 0.3990	 7.0750
 0.4000	 7.0480
 0.4010	 7.0610
 0.4020	 7.0070
 0.4030	 6.9940
 0.4040	 7.0040
 0.4050	 7.0020
 0.4060	 7.0060
 0.4070	 7.0180
 0.4080	 7.0350
 0.4090	 7.0480
 0.4100	 7.0560
 0.4110	 7.0590
 0.4120	 7.0620
 0.4130	 7.0800
 0.4140	 7.0840
 0.4150	 7.0860
 0.4160	 7.1060
 0.4170	 7.1130
 0.4180	 7.1140
 0.4190	 7.1280
 0.4200	 7.1780
 0.4210	 7.1920
 0.4220	 7.1900
 0.4230	 7.1980
 0.4240	 7.2300
 0.4250	 7.2490
 0.4260	 7.2590
 0.4270	 7.2850
 0.4280	 7.3140
 0.4290	 7.3360
 0.4300	 7.3450
 0.4310	 7.3470
 0.4320	 7.3500
 0.4330	 7.3550
 0.4340	 7.3640
 0.4350	 7.3790
 0.4360	 7.3990
 0.4370	 7.4160
 0.4380	 7.4170
 0.4390	 7.4220
 0.4400	 7.4320
 0.4410	 7.4450
 0.4420	 7.4540
 0.4430	 7.4660
 0.4440	 7.4780
 0.4450	 7.4870
 0.4460	 7.5210
 0.4470	 7.5370
 0.4480	 7.5290
 0.4490	 7.5380
 0.4500	 7.5440
 0.4510	 7.5470
 0.4520	 7.5510
 0.4530	 7.5560
 0.4540	 7.5700
 0.4550	 7.5850
 0.4560	 7.5870
 0.4570	 7.5900
 0.4580	 7.5860
 0.4590	 7.5780
 0.4600	 7.5870
 0.4610	 7.5990
 0.4620	 7.6060
 0.4630	 7.6060
 0.4640	 7.6090
 0.4650	 7.6100
 0.4660	 7.6050
 0.4670	 7.6000
 0.4680	 7.6020
 0.4690	 7.6030
 0.4700	 7.5980
 0.4710	 7.6050
 0.4720	 7.6030
 0.4730	 7.5970
 0.4740	 7.6030
 0.4750	 7.6070
 0.4760	 7.6060
 0.4770	 7.6040
 0.4780	 7.6060
 0.4790	 7.6080
 0.4800	 7.6090
 0.4810	 7.6090
 0.4820	 7.6120
 0.4830	 7.6180
 0.4840	 7.6220
 0.4850	 7.6210
 0.4860	 7.6210
 0.4870	 7.6240
 0.4880	 7.6310
 0.4890	 7.6410
 0.4900	 7.6550
 0.4910	 7.6720
 0.4920	 7.6900
 0.4930	 7.7030
 0.4940	 7.7110
 0.4950	 7.7210
 0.4960	 7.7520
 0.4970	 7.7730
 0.4980	 7.7900
 0.4990	 7.8140
 0.5000	 7.8490
 0.5010	 7.8740
 0.5020	 7.8930
 0.5030	 7.9310
 0.5040	 7.9700
 0.5050	 8.0060
 0.5060	 8.0440
 0.5070	 8.0940
 0.5080	 8.1510
 0.5090	 8.2110
 0.5100	 8.2700
 0.5110	 8.3370
 0.5120	 8.4190
 0.5130	 8.5110
 0.5140	 8.6010
 0.5150	 8.6970
 0.5160	 8.8020
 0.5170	 8.9180
 0.5180	 9.0400
 0.5190	 9.1680
 0.5200	 9.2990
 0.5210	 9.4310
 0.5220	 9.5690
 0.5230	 9.7080
 0.5240	 9.8440
 0.5250	 9.9890
 0.5260	10.1300
 0.5270	10.2580
 0.5280	10.3710
 0.5290	10.4870
 0.5300	10.5970
 0.5310	10.6960
 0.5320	10.7860
 0.5330	10.8720
 0.5340	10.9480
 0.5350	11.0110
 0.5360	11.0730
 0.5370	11.1280
 0.5380	11.1740
 0.5390	11.2090
 0.5400	11.2450
 0.5410	11.2760
 0.5420	11.2980
 0.5430	11.3250
 0.5440	11.3550
 0.5450	11.3840
 0.5460	11.4090
 0.5470	11.4380
 0.5480	11.4660
 0.5490	11.4890
 0.5500	11.5060
 0.5510	11.5170
 0.5520	11.5200
 0.5530	11.5170
 0.5540	11.5070
 0.5550	11.4910
 0.5560	11.4670
 0.5570	11.4340
 0.5580	11.3890
 0.5590	11.3340
 0.5600	11.2730
 0.5610	11.2050
 0.5620	11.1270
 0.5630	11.0420
 0.5640	10.9560
 0.5650	10.8660
 0.5660	10.7690
 0.5670	10.6700
 0.5680	10.5740
 0.5690	10.4790
 0.5700	10.3840
 0.5710	10.2900
 0.5720	10.2020
 0.5730	10.1130
 0.5740	10.0240
 0.5750	 9.9410
 0.5760	 9.8670
 0.5770	 9.7930
 0.5780	 9.7180
 0.5790	 9.6550
 0.5800	 9.5960
 0.5810	 9.5440
 0.5820	 9.5000
 0.5830	 9.4580
 0.5840	 9.4220
 0.5850	 9.3930
 0.5860	 9.3670
 0.5870	 9.3410
 0.5880	 9.3160
 0.5890	 9.2920
 0.5900	 9.2700
 0.5910	 9.2470
 0.5920	 9.2250
 0.5930	 9.2030
 0.5940	 9.1900
 0.5950	 9.1790
 0.5960	 9.1670
 0.5970	 9.1620
 0.5980	 9.1520
 0.5990	 9.1390
 0.6000	 9.1270
 0.6010	 9.1140
 0.6020	 9.0990
 0.6030	 9.0790
 0.6040	 9.0500
 0.6050	 9.0200
 0.6060	 8.9890
 0.6070	 8.9550
 0.6080	 8.9210
 0.6090	 8.8800
 0.6100	 8.8310
 0.6110	 8.7800
 0.6120	 8.7430
 0.6130	 8.7140
 0.6140	 8.6870
 0.6150	 8.6560
 0.6160	 8.6250
 0.6170	 8.5950
 0.6180	 8.5640
 0.6190	 8.5400
 0.6200	 8.5200
 0.6210	 8.5010
 0.6220	 8.4820
 0.6230	 8.4630
 0.6240	 8.4460
 0.6250	 8.4340
 0.6260	 8.4220
 0.6270	 8.4130
 0.6280	 8.4070
 0.6290	 8.4010
 0.6300	 8.3980
 0.6310	 8.3930
 0.6320	 8.3850
 0.6330	 8.3730
 0.6340	 8.3620
 0.6350	 8.3480
 0.6360	 8.3300
 0.6370	 8.3120
 0.6380	 8.2900
 0.6390	 8.2640
 0.6400	 8.2330
 0.6410	 8.1990
 0.6420	 8.1650
 0.6430	 8.1300
 0.6440	 8.0980
 0.6450	 8.0640
 0.6460	 8.0320
 0.6470	 8.0060
 0.6480	 7.9800
 0.6490	 7.9530
 0.6500	 7.9270
 0.6510	 7.9070
 0.6520	 7.8900
 0.6530	 7.8740
 0.6540	 7.8560
 0.6550	 7.8380
 0.6560	 7.8160
 0.6570	 7.7960
 0.6580	 7.7820
 0.6590	 7.7570
 0.6600	 7.7330
 0.6610	 7.7140
 0.6620	 7.6930
 0.6630	 7.6730
 0.6640	 7.6580
 0.6650	 7.6490
 0.6660	 7.6370
 0.6670	 7.6300
 0.6680	 7.6290
 0.6690	 7.6330
 0.6700	 7.6360
 0.6710	 7.6410
 0.6720	 7.6490
 0.6730	 7.6580
 0.6740	 7.6730
 0.6750	 7.6920
 0.6760	 7.7100
 0.6770	 7.7350
 0.6780	 7.7610
 0.6790	 7.7890
 0.6800	 7.8200
 0.6810	 7.8550
 0.6820	 7.8950
 0.6830	 7.9360
 0.6840	 7.9810
 0.6850	 8.0310
 0.6860	 8.0900
 0.6870	 8.1600
 0.6880	 8.2380
 0.6890	 8.3300
 0.6900	 8.4440
 0.6910	 8.5830
 0.6920	 8.7450
 0.6930	 8.9430
 0.6940	 9.1810
 0.6950	 9.4570
 0.6960	 9.7830
 0.6970	10.1620
 0.6980	10.5900
 0.6990	11.0740
 0.7000	11.6130
 0.7010	12.2010
 0.7020	12.8370
 0.7030	13.5170
 0.7040	14.2330
 0.7050	14.9780
 0.7060	15.7480
 0.7070	16.5430
 0.7080	17.3560
 0.7090	18.1840
 0.7100	19.0220
 0.7110	19.8680
 0.7120	20.7210
 0.7130	21.5820
 0.7140	22.4370
 0.7150	23.2860
 0.7160	24.1340
 0.7170	24.9750
 0.7180	25.8060
 0.7190	26.6240
 0.7200	27.4290
 0.7210	28.2160
 0.7220	28.9860
 0.7230	29.7370
 0.7240	30.4650
 0.7250	31.1650
 0.7260	31.8400
 0.7270	32.4910
 0.7280	33.1170
 0.7290	33.7090
 0.7300	34.2740
 0.7310	34.8190
 0.7320	35.3370
 0.7330	35.8260
 0.7340	36.2860
 0.7350	36.7180
 0.7360	37.1310
 0.7370	37.5180
 0.7380	37.8780
 0.7390	38.2180
 0.7400	38.5430
 0.7410	38.8450
 0.7420	39.1190
 0.7430	39.3770
 0.7440	39.6230
 0.7450	39.8520
 0.7460	40.0530
 0.7470	40.2430
 0.7480	40.4210
 0.7490	40.5830
 0.7500	40.7270
 0.7510	40.8610
 0.7520	40.9850
 0.7530	41.0950
 0.7540	41.1950
 0.7550	41.2850
 0.7560	41.3670
 0.7570	41.4450
 0.7580	41.5140
 0.7590	41.5790
 0.7600	41.6410
 0.7610	41.6950
 0.7620	41.7420
 0.7630	41.7870
 0.7640	41.8310
 0.7650	41.8650
 0.7660	41.8880
 0.7670	41.9110
 0.7680	41.9460
 0.7690	41.9760
 0.7700	41.9970
 0.7710	42.0130
 0.7720	42.0350
 0.7730	42.0560
 0.7740	42.0770
 0.7750	42.0970
 0.7760	42.1120
 0.7770	42.1270
 0.7780	42.1420
 0.7790	42.1510
 0.7800	42.1710
 0.7810	42.1900
 0.7820	42.2040
 0.7830	42.2190
 0.7840	42.2300
 0.7850	42.2410
 0.7860	42.2570
 0.7870	42.2780
 0.7880	42.2910
 0.7890	42.2970
 0.7900	42.3070
 0.7910	42.3130
 0.7920	42.3200
 0.7930	42.3320
 0.7940	42.3460
 0.7950	42.3540
 0.7960	42.3540
 0.7970	42.3520
 0.7980	42.3620
 0.7990	42.3720
 0.8000	42.3740
 0.8010	42.3700
 0.8020	42.3760
 0.8030	42.3780
 0.8040	42.3760
 0.8050	42.3790
 0.8060	42.3740
 0.8070	42.3740
 0.8080	42.3770
 0.8090	42.3670
 0.8100	42.3620
 0.8110	42.3560
 0.8120	42.3480
 0.8130	42.3430
 0.8140	42.3330
 0.8150	42.3220
 0.8160	42.3150
 0.8170	42.3070
 0.8180	42.2940
 0.8190	42.2820
 0.8200	42.2760
 0.8210	42.2620
 0.8220	42.2440
 0.8230	42.2300
 0.8240	42.2270
 0.8250	42.2110
 0.8260	42.1900
 0.8270	42.1730
 0.8280	42.1640
 0.8290	42.1540
 0.8300	42.1420
 0.8310	42.1270
 0.8320	42.1070
 0.8330	42.0880
 0.8340	42.0730
 0.8350	42.0570
 0.8360	42.0490
 0.8370	42.0380
 0.8380	42.0230
 0.8390	42.0100
 0.8400	42.0010
 0.8410	41.9890
 0.8420	41.9760
 0.8430	41.9740
 0.8440	41.9650
 0.8450	41.9540
 0.8460	41.9470
 0.8470	41.9390
 0.8480	41.9350
 0.8490	41.9300
 0.8500	41.9200
 0.8510	41.9210
 0.8520	41.9170
 0.8530	41.9080
 0.8540	41.9040
 0.8550	41.9020
 0.8560	41.9020
 0.8570	41.9010
 0.8580	41.8980
 0.8590	41.8930
 0.8600	41.8870
 0.8610	41.8820
 0.8620	41.8850
 0.8630	41.8830
 0.8640	41.8780
 0.8650	41.8750
 0.8660	41.8840
 0.8670	41.8920
 0.8680	41.8910
 0.8690	41.8830
 0.8700	41.8890
 0.8710	41.8940
 0.8720	41.8970
 0.8730	41.9040
 0.8740	41.9130
 0.8750	41.9180
 0.8760	41.9190
 0.8770	41.9220
 0.8780	41.9260
 0.8790	41.9300
 0.8800	41.9350
 0.8810	41.9440
 0.8820	41.9450
 0.8830	41.9490
 0.8840	41.9590
 0.8850	41.9650
 0.8860	41.9680
 0.8870	41.9730
 0.8880	41.9860
 0.8890	41.9840
 0.8900	41.9860
 0.8910	41.9930
 0.8920	41.9960
 0.8930	42.0100
 0.8940	42.0220
 0.8950	42.0250
 0.8960	42.0170
 0.8970	42.0310
 0.8980	42.0430
 0.8990	42.0460
 0.9000	42.0510
 0.9010	42.0600
 0.9020	42.0630
 0.9030	42.0610
 0.9040	42.0690
 0.9050	42.0790
 0.9060	42.0860
 0.9070	42.0870
 0.9080	42.0930
 0.9090	42.1030
 0.9100	42.1140
 0.9110	42.1200
 0.9120	42.1150
 0.9130	42.1100
 0.9140	42.1140
 0.9150	42.1300
 0.9160	42.1280
 0.9170	42.1320
 0.9180	42.1420
 0.9190	42.1440
 0.9200	42.1450
 0.9210	42.1430
 0.9220	42.1400
 0.9230	42.1380
 0.9240	42.1240
 0.9250	42.1170
 0.9260	42.1170
 0.9270	42.1090
 0.9280	42.0980
 0.9290	42.0840
 0.9300	42.0700
 0.9310	42.0600
 0.9320	42.0430
 0.9330	42.0260
 0.9340	42.0110
 0.9350	41.9870
 0.9360	41.9680
 0.9370	41.9540
 0.9380	41.9390
 0.9390	41.9050
 0.9400	41.8810
 0.9410	41.8640
 0.9420	41.8430
 0.9430	41.8060
 0.9440	41.7780
 0.9450	41.7480
 0.9460	41.7060
 0.9470	41.6650
 0.9480	41.6220
 0.9490	41.5770
 0.9500	41.5270
 0.9510	41.4750
 0.9520	41.4190
 0.9530	41.3550
 0.9540	41.2880
 0.9550	41.2340
 0.9560	41.1810
 0.9570	41.1310
 0.9580	41.0860
 0.9590	41.0190
 0.9600	40.9680
 0.9610	40.9280
 0.9620	40.8870
 0.9630	40.8500
 0.9640	40.8330
 0.9650	40.8150
 0.9660	40.7740
 0.9670	40.7560
 0.9680	40.7360
 0.9690	40.7150
 0.9700	40.7000
 0.9710	40.6870
 0.9720	40.6800
 0.9730	40.6720
 0.9740	40.6570
 0.9750	40.6460
 0.9760	40.6340
 0.9770	40.6230
 0.9780	40.6200
 0.9790	40.6250
 0.9800	40.6350
 0.9810	40.6360
 0.9820	40.6190
 0.9830	40.6200
 0.9840	40.6250
 0.9850	40.6390
 0.9860	40.6670
 0.9870	40.6700
 0.9880	40.6760
 0.9890	40.6890
 0.9900	40.6990
 0.9910	40.7280
 0.9920	40.7880
 0.9930	40.8490
 0.9940	40.9090
 0.9950	40.9690
 0.9960	41.0290
 0.9970	41.0890
 0.9980	41.1490
 0.9990	41.2090
 1.0000	41.2690
 1.0010	41.3290
 1.0020	41.3890
 1.0030	41.4490
 1.0040	41.5100
 1.0050	41.5700
 1.0060	41.6300
 1.0070	41.6900
 1.0080	41.7500
 1.0090	41.8100
 1.0100	41.8100
 1.0110	41.8210
 1.0120	41.8340
 1.0130	41.8440
 1.0140	41.8550
 1.0150	41.8630
 1.0160	41.8770
 1.0170	41.8920
 1.0180	41.9090
 1.0190	41.9300
 1.0200	41.9490
 1.0210	41.9620
 1.0220	41.9760
 1.0230	41.9900
 1.0240	42.0040
 1.0250	42.0180
 1.0260	42.0320
 1.0270	42.0440
 1.0280	42.0520
 1.0290	42.0640
 1.0300	42.0760
 1.0310	42.0900
 1.0320	42.1090
 1.0330	42.1240
 1.0340	42.1360
 1.0350	42.1480
 1.0360	42.1590
 1.0370	42.1700
 1.0380	42.1840
 1.0390	42.2030
 1.0400	42.2170
 1.0410	42.2270
 1.0420	42.2400
 1.0430	42.2520
 1.0440	42.2630
 1.0450	42.2740
 1.0460	42.2830
 1.0470	42.2860
 1.0480	42.2930
 1.0490	42.3010
 1.0500	42.3090
 1.0510	42.3170
 1.0520	42.3260
 1.0530	42.3340
 1.0540	42.3400
 1.0550	42.3470
 1.0560	42.3550
 1.0570	42.3580
 1.0580	42.3560
 1.0590	42.3560
 1.0600	42.3510
 1.0610	42.3510
 1.0620	42.3540
 1.0630	42.3560
 1.0640	42.3610
 1.0650	42.3620
 1.0660	42.3590
 1.0670	42.3580
 1.0680	42.3570
 1.0690	42.3550
 1.0700	42.3530
 1.0710	42.3530
 1.0720	42.3480
 1.0730	42.3380
 1.0740	42.3320
 1.0750	42.3250
 1.0760	42.3200
 1.0770	42.3170
 1.0780	42.3130
 1.0790	42.3090
 1.0800	42.3040
 1.0810	42.2990
 1.0820	42.2930
 1.0830	42.2850
 1.0840	42.2760
 1.0850	42.2670
 1.0860	42.2570
 1.0870	42.2470
 1.0880	42.2360
 1.0890	42.2260
 1.0900	42.2160
 1.0910	42.2060
 1.0920	42.1970
 1.0930	42.1870
 1.0940	42.1740
 1.0950	42.1630
 1.0960	42.1510
 1.0970	42.1410
 1.0980	42.1330
 1.0990	42.1230
 1.1000	42.1140
 1.1010	42.1030
 1.1020	42.0920
 1.1030	42.0800
 1.1040	42.0680
 1.1050	42.0580
 1.1060	42.0470
 1.1070	42.0360
 1.1080	42.0240
 1.1090	42.0120
 1.1100	42.0010
 1.1110	41.9900
 1.1120	41.9770
 1.1130	41.9640
 1.1140	41.9480
 1.1150	41.9290
 1.1160	41.9100
 1.1170	41.8930
 1.1180	41.8710
 1.1190	41.8490
 1.1200	41.8240
 1.1210	41.7960
 1.1220	41.7650
 1.1230	41.7310
 1.1240	41.6950
 1.1250	41.6540
 1.1260	41.6100
 1.1270	41.5620
 1.1280	41.5110
 1.1290	41.4520
 1.1300	41.3900
 1.1310	41.3210
 1.1320	41.2460
 1.1330	41.1650
 1.1340	41.0780
 1.1350	40.9860
 1.1360	40.8880
 1.1370	40.7830
 1.1380	40.6740
 1.1390	40.5590
 1.1400	40.4400
 1.1410	40.3170
 1.1420	40.1920
 1.1430	40.0650
 1.1440	39.9380
 1.1450	39.8070
 1.1460	39.6820
 1.1470	39.5580
 1.1480	39.4400
 1.1490	39.3260
 1.1500	39.2190
 1.1510	39.1130
 1.1520	39.0180
 1.1530	38.9310
 1.1540	38.8500
 1.1550	38.7760
 1.1560	38.7090
 1.1570	38.6500
 1.1580	38.5990
 1.1590	38.5540
 1.1600	38.5160
 1.1610	38.4820
 1.1620	38.4530
 1.1630	38.4300
 1.1640	38.4090
 1.1650	38.3900
 1.1660	38.3750
 1.1670	38.3630
 1.1680	38.3550
 1.1690	38.3470
 1.1700	38.3420
 1.1710	38.3360
 1.1720	38.3300
 1.1730	38.3240
 1.1740	38.3190
 1.1750	38.3130
 1.1760	38.3080
 1.1770	38.3000
 1.1780	38.2920
 1.1790	38.2850
 1.1800	38.2750
 1.1810	38.2660
 1.1820	38.2570
 1.1830	38.2490
 1.1840	38.2430
 1.1850	38.2370
 1.1860	38.2310
 1.1870	38.2240
 1.1880	38.2180
 1.1890	38.2110
 1.1900	38.2060
 1.1910	38.2000
 1.1920	38.1970
 1.1930	38.1940
 1.1940	38.1940
 1.1950	38.1960
 1.1960	38.1990
 1.1970	38.2040
 1.1980	38.2100
 1.1990	38.2170
 1.2000	38.2240
 1.2010	38.2330
 1.2020	38.2420
 1.2030	38.2500
 1.2040	38.2610
 1.2050	38.2740
 1.2060	38.2870
 1.2070	38.3000
 1.2080	38.3170
 1.2090	38.3330
 1.2100	38.3480
 1.2110	38.3640
 1.2120	38.3800
 1.2130	38.3960
 1.2140	38.4120
 1.2150	38.4300
 1.2160	38.4510
 1.2170	38.4700
 1.2180	38.4890
 1.2190	38.5090
 1.2200	38.5260
 1.2210	38.5450
 1.2220	38.5630
 1.2230	38.5790
 1.2240	38.5970
 1.2250	38.6140
 1.2260	38.6310
 1.2270	38.6500
 1.2280	38.6650
 1.2290	38.6800
 1.2300	38.6960
 1.2310	38.7120
 1.2320	38.7280
 1.2330	38.7420
 1.2340	38.7550
 1.2350	38.7670
 1.2360	38.7800
 1.2370	38.7920
 1.2380	38.8060
 1.2390	38.8190
 1.2400	38.8320
 1.2410	38.8440
 1.2420	38.8550
 1.2430	38.8650
 1.2440	38.8740
 1.2450	38.8820
 1.2460	38.8900
 1.2470	38.8990
 1.2480	38.9060
 1.2490	38.9120
 1.2500	38.9200
 1.2510	38.9260
 1.2520	38.9320
 1.2530	38.9380
 1.2540	38.9410
 1.2550	38.9430
 1.2560	38.9450
 1.2570	38.9460
 1.2580	38.9480
 1.2590	38.9480
 1.2600	38.9470
 1.2610	38.9470
 1.2620	38.9460
 1.2630	38.9430
 1.2640	38.9390
 1.2650	38.9340
 1.2660	38.9290
 1.2670	38.9220
 1.2680	38.9180
 1.2690	38.9130
 1.2700	38.9050
 1.2710	38.8970
 1.2720	38.8870
 1.2730	38.8770
 1.2740	38.8690
 1.2750	38.8600
 1.2760	38.8500
 1.2770	38.8380
 1.2780	38.8250
 1.2790	38.8110
 1.2800	38.7960
 1.2810	38.7810
 1.2820	38.7650
 1.2830	38.7450
 1.2840	38.7230
 1.2850	38.7000
 1.2860	38.6750
 1.2870	38.6480
 1.2880	38.6190
 1.2890	38.5900
 1.2900	38.5580
 1.2910	38.5230
 1.2920	38.4880
 1.2930	38.4510
 1.2940	38.4100
 1.2950	38.3690
 1.2960	38.3230
 1.2970	38.2710
 1.2980	38.2170
 1.2990	38.1620
 1.3000	38.1070
 1.3010	38.0510
 1.3020	37.9920
 1.3030	37.9300
 1.3040	37.8640
 1.3050	37.7950
 1.3060	37.7280
 1.3070	37.6570
 1.3080	37.5840
 1.3090	37.5100
 1.3100	37.4330
 1.3110	37.3540
 1.3120	37.2730
 1.3130	37.1900
 1.3140	37.1030
 1.3150	37.0140
 1.3160	36.9220
 1.3170	36.8280
 1.3180	36.7310
 1.3190	36.6320
 1.3200	36.5300
 1.3210	36.4270
 1.3220	36.3220
 1.3230	36.2140
 1.3240	36.1060
 1.3250	35.9980
 1.3260	35.8860
 1.3270	35.7720
 1.3280	35.6540
 1.3290	35.5340
 1.3300	35.4120
 1.3310	35.2900
 1.3320	35.1680
 1.3330	35.0470
 1.3340	34.9250
 1.3350	34.8010
 1.3360	34.6760
 1.3370	34.5490
 1.3380	34.4230
 1.3390	34.2960
 1.3400	34.1690
 1.3410	34.0430
 1.3420	33.9170
 1.3430	33.7930
 1.3440	33.6690
 1.3450	33.5470
 1.3460	33.4250
 1.3470	33.3050
 1.3480	33.1840
 1.3490	33.0660
 1.3500	32.9500
 1.3510	32.8330
 1.3520	32.7160
 1.3530	32.5990
 1.3540	32.4810
 1.3550	32.3610
 1.3560	32.2420
 1.3570	32.1230
 1.3580	32.0010
 1.3590	31.8770
 1.3600	31.7500
 1.3610	31.6190
 1.3620	31.4840
 1.3630	31.3460
 1.3640	31.2030
 1.3650	31.0530
 1.3660	30.8970
 1.3670	30.7320
 1.3680	30.5570
 1.3690	30.3720
 1.3700	30.1750
 1.3710	29.9680
 1.3720	29.7490
 1.3730	29.5160
 1.3740	29.2680
 1.3750	29.0040
 1.3760	28.7200
 1.3770	28.4190
 1.3780	28.0970
 1.3790	27.7580
 1.3800	27.4010
 1.3810	27.0220
 1.3820	26.6290
 1.3830	26.2210
 1.3840	25.7980
 1.3850	25.3610
 1.3860	24.9110
 1.3870	24.4430
 1.3880	23.9730
 1.3890	23.4920
 1.3900	23.0050
 1.3910	22.5200
 1.3920	22.0340
 1.3930	21.5440
 1.3940	21.0610
 1.3950	20.5780
 1.3960	20.1040
 1.3970	19.6410
 1.3980	19.1890
 1.3990	18.7550
 1.4000	18.3370
 1.4010	17.9330
 1.4020	17.5480
 1.4030	17.1770
 1.4040	16.8250
 1.4050	16.4930
 1.4060	16.1800
 1.4070	15.8890
 1.4080	15.6160
 1.4090	15.3600
 1.4100	15.1240
 1.4110	14.9030
 1.4120	14.6990
 1.4130	14.5120
 1.4140	14.3390
 1.4150	14.1830
 1.4160	14.0410
 1.4170	13.9100
 1.4180	13.7910
 1.4190	13.6820
 1.4200	13.5830
 1.4210	13.4950
 1.4220	13.4160
 1.4230	13.3460
 1.4240	13.2850
 1.4250	13.2290
 1.4260	13.1810
 1.4270	13.1380
 1.4280	13.1010
 1.4290	13.0690
 1.4300	13.0430
 1.4310	13.0200
 1.4320	13.0040
 1.4330	12.9910
 1.4340	12.9830
 1.4350	12.9770
 1.4360	12.9760
 1.4370	12.9770
 1.4380	12.9800
 1.4390	12.9870
 1.4400	12.9960
 1.4410	13.0070
 1.4420	13.0210
 1.4430	13.0350
 1.4440	13.0510
 1.4450	13.0690
 1.4460	13.0870
 1.4470	13.1060
 1.4480	13.1260
 1.4490	13.1460
 1.4500	13.1660
 1.4510	13.1880
 1.4520	13.2110
 1.4530	13.2340
 1.4540	13.2600
 1.4550	13.2870
 1.4560	13.3140
 1.4570	13.3430
 1.4580	13.3750
 1.4590	13.4080
 1.4600	13.4460
 1.4610	13.4860
 1.4620	13.5300
 1.4630	13.5770
 1.4640	13.6260
 1.4650	13.6780
 1.4660	13.7340
 1.4670	13.7930
 1.4680	13.8570
 1.4690	13.9250
 1.4700	13.9960
