Name: Brachychiton rupestris
Type: vegetation
Class: Tree
Genus: Brachychiton
Species: rupestris
Sample No.: JPL085
Owner: JPL
Wavelength Range: VSWIR
Origin: 34.12475; - 118.1142; WGS84
Collection Date: 2/2/2016
Description: Samples were collected at the Huntington Garden in San Marino California as part of a JPL Subcontract studying HyTES imagery. Samples were taken to JPL and processed within 48 hours of collection. The same leaves were processed in the Nicolet and then measured using the ASD.
Measurement: Bidirectional reflectance
First Column: X
Second Column: Y
X Units: Wavelength (micrometer)
Y Units: Reflectance (percentage)
First X Value: 0.35
Last X Value: 2.5
Number of X Values: 2151
Additional Information: 

 0.3500	 4.6280
 0.3510	 4.9790
 0.3520	 5.2800
 0.3530	 5.0200
 0.3540	 4.2660
 0.3550	 4.5990
 0.3560	 5.0610
 0.3570	 5.1280
 0.3580	 4.7830
 0.3590	 6.1370
 0.3600	 6.4570
 0.3610	 5.1100
 0.3620	 4.9230
 0.3630	 4.2550
 0.3640	 3.9290
 0.3650	 4.6700
 0.3660	 4.7370
 0.3670	 4.6730
 0.3680	 4.8500
 0.3690	 5.4190
 0.3700	 5.8040
 0.3710	 5.7140
 0.3720	 5.3440
 0.3730	 5.6670
 0.3740	 5.7200
 0.3750	 5.2750
 0.3760	 4.5920
 0.3770	 4.8650
 0.3780	 5.0510
 0.3790	 4.9470
 0.3800	 5.1430
 0.3810	 5.7260
 0.3820	 5.9710
 0.3830	 5.5990
 0.3840	 5.5530
 0.3850	 5.5660
 0.3860	 5.5460
 0.3870	 5.4580
 0.3880	 5.3430
 0.3890	 5.2060
 0.3900	 5.1250
 0.3910	 5.2420
 0.3920	 4.9950
 0.3930	 4.8710
 0.3940	 5.2360
 0.3950	 5.6180
 0.3960	 5.7180
 0.3970	 5.7890
 0.3980	 6.1890
 0.3990	 5.9090
 0.4000	 5.6320
 0.4010	 5.6790
 0.4020	 5.6930
 0.4030	 5.4070
 0.4040	 5.2890
 0.4050	 5.6420
 0.4060	 5.6200
 0.4070	 5.4660
 0.4080	 5.3840
 0.4090	 5.5110
 0.4100	 5.6780
 0.4110	 5.6980
 0.4120	 5.5530
 0.4130	 5.4850
 0.4140	 5.6300
 0.4150	 5.8080
 0.4160	 5.8010
 0.4170	 5.7500
 0.4180	 5.8200
 0.4190	 6.0020
 0.4200	 6.1340
 0.4210	 6.0700
 0.4220	 5.9930
 0.4230	 6.0340
 0.4240	 6.0310
 0.4250	 5.9480
 0.4260	 5.9280
 0.4270	 6.1290
 0.4280	 6.1820
 0.4290	 6.1990
 0.4300	 6.2170
 0.4310	 6.1100
 0.4320	 6.0990
 0.4330	 6.1690
 0.4340	 6.2320
 0.4350	 6.1920
 0.4360	 6.2250
 0.4370	 6.2970
 0.4380	 6.2370
 0.4390	 6.3310
 0.4400	 6.4120
 0.4410	 6.3850
 0.4420	 6.4890
 0.4430	 6.4870
 0.4440	 6.4150
 0.4450	 6.3980
 0.4460	 6.4450
 0.4470	 6.3900
 0.4480	 6.2800
 0.4490	 6.4150
 0.4500	 6.4270
 0.4510	 6.4330
 0.4520	 6.5460
 0.4530	 6.4810
 0.4540	 6.4610
 0.4550	 6.5090
 0.4560	 6.5190
 0.4570	 6.4880
 0.4580	 6.4640
 0.4590	 6.4910
 0.4600	 6.6020
 0.4610	 6.6310
 0.4620	 6.5650
 0.4630	 6.4780
 0.4640	 6.5730
 0.4650	 6.6120
 0.4660	 6.5700
 0.4670	 6.6470
 0.4680	 6.6250
 0.4690	 6.5670
 0.4700	 6.5600
 0.4710	 6.6230
 0.4720	 6.6220
 0.4730	 6.5560
 0.4740	 6.5030
 0.4750	 6.5100
 0.4760	 6.5660
 0.4770	 6.6290
 0.4780	 6.6250
 0.4790	 6.5630
 0.4800	 6.5480
 0.4810	 6.6550
 0.4820	 6.6910
 0.4830	 6.6220
 0.4840	 6.5290
 0.4850	 6.5810
 0.4860	 6.5960
 0.4870	 6.6070
 0.4880	 6.6480
 0.4890	 6.6590
 0.4900	 6.6840
 0.4910	 6.6920
 0.4920	 6.6360
 0.4930	 6.6470
 0.4940	 6.7040
 0.4950	 6.7570
 0.4960	 6.7400
 0.4970	 6.7620
 0.4980	 6.7740
 0.4990	 6.7320
 0.5000	 6.7920
 0.5010	 6.8420
 0.5020	 6.8630
 0.5030	 6.9170
 0.5040	 6.9790
 0.5050	 7.0070
 0.5060	 7.0020
 0.5070	 7.0610
 0.5080	 7.1800
 0.5090	 7.2880
 0.5100	 7.3080
 0.5110	 7.3710
 0.5120	 7.4450
 0.5130	 7.5300
 0.5140	 7.6820
 0.5150	 7.7880
 0.5160	 7.8740
 0.5170	 7.9970
 0.5180	 8.1720
 0.5190	 8.3640
 0.5200	 8.5480
 0.5210	 8.7200
 0.5220	 8.9310
 0.5230	 9.0970
 0.5240	 9.2050
 0.5250	 9.4490
 0.5260	 9.6630
 0.5270	 9.8320
 0.5280	10.0030
 0.5290	10.2140
 0.5300	10.3890
 0.5310	10.5180
 0.5320	10.6690
 0.5330	10.8140
 0.5340	10.9650
 0.5350	11.1290
 0.5360	11.2610
 0.5370	11.3730
 0.5380	11.4750
 0.5390	11.5730
 0.5400	11.6620
 0.5410	11.7720
 0.5420	11.8970
 0.5430	11.9550
 0.5440	12.0260
 0.5450	12.0910
 0.5460	12.1130
 0.5470	12.1530
 0.5480	12.2170
 0.5490	12.2820
 0.5500	12.2950
 0.5510	12.3180
 0.5520	12.3550
 0.5530	12.3860
 0.5540	12.3530
 0.5550	12.3220
 0.5560	12.3100
 0.5570	12.2880
 0.5580	12.2160
 0.5590	12.1370
 0.5600	12.0780
 0.5610	12.0100
 0.5620	11.9150
 0.5630	11.8080
 0.5640	11.7120
 0.5650	11.6210
 0.5660	11.5270
 0.5670	11.4160
 0.5680	11.2660
 0.5690	11.1190
 0.5700	10.9950
 0.5710	10.8900
 0.5720	10.7480
 0.5730	10.6140
 0.5740	10.4930
 0.5750	10.3650
 0.5760	10.2640
 0.5770	10.1720
 0.5780	10.0790
 0.5790	10.0020
 0.5800	 9.9250
 0.5810	 9.8540
 0.5820	 9.8010
 0.5830	 9.7460
 0.5840	 9.6770
 0.5850	 9.5980
 0.5860	 9.5300
 0.5870	 9.4890
 0.5880	 9.4580
 0.5890	 9.4160
 0.5900	 9.3490
 0.5910	 9.3130
 0.5920	 9.3140
 0.5930	 9.3220
 0.5940	 9.2870
 0.5950	 9.2510
 0.5960	 9.2400
 0.5970	 9.2370
 0.5980	 9.2110
 0.5990	 9.1740
 0.6000	 9.1470
 0.6010	 9.1040
 0.6020	 9.0640
 0.6030	 9.0400
 0.6040	 9.0230
 0.6050	 8.9630
 0.6060	 8.9040
 0.6070	 8.8700
 0.6080	 8.7860
 0.6090	 8.7160
 0.6100	 8.6610
 0.6110	 8.5910
 0.6120	 8.5370
 0.6130	 8.4840
 0.6140	 8.4170
 0.6150	 8.3220
 0.6160	 8.2610
 0.6170	 8.2190
 0.6180	 8.1660
 0.6190	 8.1340
 0.6200	 8.1100
 0.6210	 8.0750
 0.6220	 8.0090
 0.6230	 7.9700
 0.6240	 7.9630
 0.6250	 7.9710
 0.6260	 7.9400
 0.6270	 7.9290
 0.6280	 7.9350
 0.6290	 7.9300
 0.6300	 7.9150
 0.6310	 7.8890
 0.6320	 7.8660
 0.6330	 7.8750
 0.6340	 7.8580
 0.6350	 7.8400
 0.6360	 7.8420
 0.6370	 7.8130
 0.6380	 7.7740
 0.6390	 7.7340
 0.6400	 7.6960
 0.6410	 7.6410
 0.6420	 7.5980
 0.6430	 7.5720
 0.6440	 7.5340
 0.6450	 7.4760
 0.6460	 7.4130
 0.6470	 7.3630
 0.6480	 7.3220
 0.6490	 7.2840
 0.6500	 7.2510
 0.6510	 7.2270
 0.6520	 7.2290
 0.6530	 7.2230
 0.6540	 7.1880
 0.6550	 7.1480
 0.6560	 7.1180
 0.6570	 7.1030
 0.6580	 7.0950
 0.6590	 7.0440
 0.6600	 6.9900
 0.6610	 6.9540
 0.6620	 6.9200
 0.6630	 6.8950
 0.6640	 6.8580
 0.6650	 6.8090
 0.6660	 6.8100
 0.6670	 6.7940
 0.6680	 6.7640
 0.6690	 6.7530
 0.6700	 6.7300
 0.6710	 6.7160
 0.6720	 6.7170
 0.6730	 6.7090
 0.6740	 6.7060
 0.6750	 6.7150
 0.6760	 6.7360
 0.6770	 6.7560
 0.6780	 6.7750
 0.6790	 6.7900
 0.6800	 6.8020
 0.6810	 6.7960
 0.6820	 6.8270
 0.6830	 6.9020
 0.6840	 6.9320
 0.6850	 6.9820
 0.6860	 7.0530
 0.6870	 7.1310
 0.6880	 7.2110
 0.6890	 7.3300
 0.6900	 7.5050
 0.6910	 7.7300
 0.6920	 8.0120
 0.6930	 8.3430
 0.6940	 8.7270
 0.6950	 9.1930
 0.6960	 9.7410
 0.6970	10.3590
 0.6980	11.0320
 0.6990	11.7750
 0.7000	12.5690
 0.7010	13.4050
 0.7020	14.2720
 0.7030	15.1710
 0.7040	16.0860
 0.7050	17.0080
 0.7060	17.9360
 0.7070	18.8630
 0.7080	19.7770
 0.7090	20.6750
 0.7100	21.5840
 0.7110	22.4820
 0.7120	23.3570
 0.7130	24.2170
 0.7140	25.0750
 0.7150	25.9300
 0.7160	26.7750
 0.7170	27.6030
 0.7180	28.3920
 0.7190	29.1610
 0.7200	29.9360
 0.7210	30.6920
 0.7220	31.4040
 0.7230	32.0820
 0.7240	32.7640
 0.7250	33.4150
 0.7260	34.0400
 0.7270	34.6450
 0.7280	35.2020
 0.7290	35.7420
 0.7300	36.2540
 0.7310	36.7200
 0.7320	37.1810
 0.7330	37.6050
 0.7340	37.9930
 0.7350	38.3920
 0.7360	38.7510
 0.7370	39.0860
 0.7380	39.4100
 0.7390	39.6870
 0.7400	39.9590
 0.7410	40.2200
 0.7420	40.4510
 0.7430	40.6590
 0.7440	40.8680
 0.7450	41.0760
 0.7460	41.2600
 0.7470	41.4130
 0.7480	41.5480
 0.7490	41.6780
 0.7500	41.8140
 0.7510	41.9340
 0.7520	42.0320
 0.7530	42.1170
 0.7540	42.2230
 0.7550	42.3130
 0.7560	42.3800
 0.7570	42.4460
 0.7580	42.5100
 0.7590	42.5670
 0.7600	42.6180
 0.7610	42.6780
 0.7620	42.7220
 0.7630	42.7640
 0.7640	42.8160
 0.7650	42.8270
 0.7660	42.8420
 0.7670	42.8730
 0.7680	42.9040
 0.7690	42.9340
 0.7700	42.9500
 0.7710	42.9580
 0.7720	42.9840
 0.7730	42.9900
 0.7740	42.9980
 0.7750	43.0260
 0.7760	43.0390
 0.7770	43.0480
 0.7780	43.0480
 0.7790	43.0380
 0.7800	43.0680
 0.7810	43.0950
 0.7820	43.0930
 0.7830	43.0690
 0.7840	43.0880
 0.7850	43.1000
 0.7860	43.0730
 0.7870	43.0560
 0.7880	43.0510
 0.7890	43.0550
 0.7900	43.0590
 0.7910	43.0520
 0.7920	43.0570
 0.7930	43.0570
 0.7940	43.0180
 0.7950	43.0180
 0.7960	43.0370
 0.7970	43.0420
 0.7980	43.0130
 0.7990	43.0010
 0.8000	42.9890
 0.8010	42.9570
 0.8020	42.9480
 0.8030	42.9490
 0.8040	42.9460
 0.8050	42.9260
 0.8060	42.8930
 0.8070	42.8750
 0.8080	42.8780
 0.8090	42.8860
 0.8100	42.8430
 0.8110	42.8110
 0.8120	42.8170
 0.8130	42.7980
 0.8140	42.7830
 0.8150	42.7550
 0.8160	42.7120
 0.8170	42.7350
 0.8180	42.7220
 0.8190	42.6850
 0.8200	42.6820
 0.8210	42.6870
 0.8220	42.6540
 0.8230	42.6060
 0.8240	42.6140
 0.8250	42.6070
 0.8260	42.5860
 0.8270	42.5700
 0.8280	42.5810
 0.8290	42.5640
 0.8300	42.5470
 0.8310	42.5520
 0.8320	42.5220
 0.8330	42.5080
 0.8340	42.5080
 0.8350	42.4990
 0.8360	42.4820
 0.8370	42.4790
 0.8380	42.4860
 0.8390	42.4850
 0.8400	42.4910
 0.8410	42.4950
 0.8420	42.4950
 0.8430	42.5010
 0.8440	42.4770
 0.8450	42.4650
 0.8460	42.4880
 0.8470	42.4770
 0.8480	42.4600
 0.8490	42.4610
 0.8500	42.4930
 0.8510	42.5050
 0.8520	42.5270
 0.8530	42.5400
 0.8540	42.5120
 0.8550	42.5250
 0.8560	42.5540
 0.8570	42.5750
 0.8580	42.5770
 0.8590	42.6050
 0.8600	42.5980
 0.8610	42.5620
 0.8620	42.6350
 0.8630	42.6530
 0.8640	42.6230
 0.8650	42.5970
 0.8660	42.6300
 0.8670	42.6520
 0.8680	42.6640
 0.8690	42.6870
 0.8700	42.7330
 0.8710	42.7360
 0.8720	42.7160
 0.8730	42.7320
 0.8740	42.7690
 0.8750	42.7710
 0.8760	42.7440
 0.8770	42.7480
 0.8780	42.8130
 0.8790	42.8680
 0.8800	42.8610
 0.8810	42.7920
 0.8820	42.7960
 0.8830	42.8430
 0.8840	42.8770
 0.8850	42.8830
 0.8860	42.9080
 0.8870	42.9370
 0.8880	42.9460
 0.8890	42.9500
 0.8900	42.9810
 0.8910	42.9920
 0.8920	42.9400
 0.8930	42.9480
 0.8940	42.9930
 0.8950	43.0300
 0.8960	43.0130
 0.8970	42.9870
 0.8980	42.9950
 0.8990	43.0260
 0.9000	43.0250
 0.9010	43.0700
 0.9020	43.0710
 0.9030	43.0160
 0.9040	43.0160
 0.9050	43.0260
 0.9060	43.0600
 0.9070	43.0970
 0.9080	43.0510
 0.9090	43.0280
 0.9100	43.0690
 0.9110	43.1440
 0.9120	43.0920
 0.9130	43.0750
 0.9140	43.0890
 0.9150	43.0870
 0.9160	43.0550
 0.9170	43.0520
 0.9180	43.0620
 0.9190	43.0550
 0.9200	43.0850
 0.9210	43.0620
 0.9220	43.0100
 0.9230	43.0050
 0.9240	43.0030
 0.9250	43.0060
 0.9260	42.9900
 0.9270	42.9240
 0.9280	42.9210
 0.9290	42.9300
 0.9300	42.9180
 0.9310	42.8890
 0.9320	42.8940
 0.9330	42.9060
 0.9340	42.8700
 0.9350	42.7340
 0.9360	42.8060
 0.9370	42.9020
 0.9380	42.8800
 0.9390	42.7940
 0.9400	42.7100
 0.9410	42.6940
 0.9420	42.7280
 0.9430	42.6590
 0.9440	42.6410
 0.9450	42.6070
 0.9460	42.5230
 0.9470	42.5170
 0.9480	42.4760
 0.9490	42.4480
 0.9500	42.4600
 0.9510	42.3720
 0.9520	42.2320
 0.9530	42.1120
 0.9540	42.0560
 0.9550	42.0050
 0.9560	42.0390
 0.9570	42.0320
 0.9580	41.9040
 0.9590	41.9300
 0.9600	41.9200
 0.9610	41.8600
 0.9620	41.8010
 0.9630	41.7660
 0.9640	41.7850
 0.9650	41.8010
 0.9660	41.7400
 0.9670	41.6200
 0.9680	41.5930
 0.9690	41.6020
 0.9700	41.5410
 0.9710	41.5290
 0.9720	41.5850
 0.9730	41.6580
 0.9740	41.6730
 0.9750	41.5880
 0.9760	41.5950
 0.9770	41.6480
 0.9780	41.6030
 0.9790	41.4820
 0.9800	41.4570
 0.9810	41.4740
 0.9820	41.4170
 0.9830	41.4900
 0.9840	41.5370
 0.9850	41.5090
 0.9860	41.4430
 0.9870	41.4340
 0.9880	41.4700
 0.9890	41.5110
 0.9900	41.5170
 0.9910	41.5080
 0.9920	41.5170
 0.9930	41.4960
 0.9940	41.4090
 0.9950	41.4070
 0.9960	41.4570
 0.9970	41.5550
 0.9980	41.6710
 0.9990	41.6220
 1.0000	41.6290
 1.0010	41.8150
 1.0020	41.8160
 1.0030	41.8560
 1.0040	41.8700
 1.0050	41.8850
 1.0060	41.9300
 1.0070	41.9330
 1.0080	41.9390
 1.0090	41.9500
 1.0100	41.9600
 1.0110	41.9460
 1.0120	41.9560
 1.0130	41.9810
 1.0140	42.0120
 1.0150	42.0540
 1.0160	42.0910
 1.0170	42.1140
 1.0180	42.1220
 1.0190	42.1180
 1.0200	42.0840
 1.0210	42.0730
 1.0220	42.1200
 1.0230	42.1360
 1.0240	42.1610
 1.0250	42.1700
 1.0260	42.1500
 1.0270	42.1550
 1.0280	42.1770
 1.0290	42.1890
 1.0300	42.2130
 1.0310	42.2250
 1.0320	42.2210
 1.0330	42.2190
 1.0340	42.2310
 1.0350	42.2400
 1.0360	42.2370
 1.0370	42.2500
 1.0380	42.2800
 1.0390	42.3230
 1.0400	42.3590
 1.0410	42.4320
 1.0420	42.4500
 1.0430	42.4180
 1.0440	42.4260
 1.0450	42.4330
 1.0460	42.4400
 1.0470	42.4670
 1.0480	42.4840
 1.0490	42.4960
 1.0500	42.4990
 1.0510	42.4870
 1.0520	42.4830
 1.0530	42.5020
 1.0540	42.5210
 1.0550	42.5410
 1.0560	42.5980
 1.0570	42.6200
 1.0580	42.6200
 1.0590	42.6190
 1.0600	42.6030
 1.0610	42.5990
 1.0620	42.5880
 1.0630	42.5840
 1.0640	42.5930
 1.0650	42.6010
 1.0660	42.6140
 1.0670	42.6190
 1.0680	42.6230
 1.0690	42.6280
 1.0700	42.6310
 1.0710	42.6250
 1.0720	42.6310
 1.0730	42.6510
 1.0740	42.6560
 1.0750	42.6580
 1.0760	42.6580
 1.0770	42.6410
 1.0780	42.6460
 1.0790	42.6710
 1.0800	42.6760
 1.0810	42.6890
 1.0820	42.6890
 1.0830	42.6510
 1.0840	42.6440
 1.0850	42.6570
 1.0860	42.6610
 1.0870	42.6690
 1.0880	42.6960
 1.0890	42.7020
 1.0900	42.6980
 1.0910	42.6860
 1.0920	42.6600
 1.0930	42.6470
 1.0940	42.6220
 1.0950	42.6150
 1.0960	42.6330
 1.0970	42.6300
 1.0980	42.6160
 1.0990	42.6110
 1.1000	42.5970
 1.1010	42.5930
 1.1020	42.6100
 1.1030	42.6110
 1.1040	42.6070
 1.1050	42.6010
 1.1060	42.5840
 1.1070	42.5450
 1.1080	42.5340
 1.1090	42.5290
 1.1100	42.5220
 1.1110	42.5410
 1.1120	42.5310
 1.1130	42.4860
 1.1140	42.4740
 1.1150	42.4750
 1.1160	42.4600
 1.1170	42.4670
 1.1180	42.4480
 1.1190	42.4050
 1.1200	42.3480
 1.1210	42.2970
 1.1220	42.2550
 1.1230	42.2280
 1.1240	42.2220
 1.1250	42.2030
 1.1260	42.1990
 1.1270	42.1670
 1.1280	42.1210
 1.1290	42.0680
 1.1300	41.9970
 1.1310	41.9300
 1.1320	41.8640
 1.1330	41.7880
 1.1340	41.7040
 1.1350	41.6240
 1.1360	41.5410
 1.1370	41.4530
 1.1380	41.3620
 1.1390	41.2830
 1.1400	41.1900
 1.1410	41.0790
 1.1420	40.9810
 1.1430	40.8840
 1.1440	40.7810
 1.1450	40.6800
 1.1460	40.5800
 1.1470	40.4740
 1.1480	40.3720
 1.1490	40.2760
 1.1500	40.1830
 1.1510	40.0890
 1.1520	40.0000
 1.1530	39.9080
 1.1540	39.8300
 1.1550	39.7550
 1.1560	39.6960
 1.1570	39.6480
 1.1580	39.6160
 1.1590	39.5760
 1.1600	39.5290
 1.1610	39.4850
 1.1620	39.4350
 1.1630	39.3970
 1.1640	39.3650
 1.1650	39.3350
 1.1660	39.3140
 1.1670	39.2950
 1.1680	39.2830
 1.1690	39.2610
 1.1700	39.2340
 1.1710	39.2020
 1.1720	39.1540
 1.1730	39.1290
 1.1740	39.1070
 1.1750	39.1080
 1.1760	39.1180
 1.1770	39.1100
 1.1780	39.0930
 1.1790	39.0780
 1.1800	39.0560
 1.1810	39.0330
 1.1820	39.0110
 1.1830	38.9850
 1.1840	38.9610
 1.1850	38.9460
 1.1860	38.9290
 1.1870	38.9030
 1.1880	38.8830
 1.1890	38.8630
 1.1900	38.8450
 1.1910	38.8310
 1.1920	38.8170
 1.1930	38.7970
 1.1940	38.7890
 1.1950	38.7890
 1.1960	38.7940
 1.1970	38.7930
 1.1980	38.7870
 1.1990	38.7740
 1.2000	38.7530
 1.2010	38.7420
 1.2020	38.7320
 1.2030	38.7220
 1.2040	38.7340
 1.2050	38.7520
 1.2060	38.7730
 1.2070	38.7930
 1.2080	38.7940
 1.2090	38.8000
 1.2100	38.8070
 1.2110	38.8180
 1.2120	38.8400
 1.2130	38.8610
 1.2140	38.8820
 1.2150	38.9040
 1.2160	38.9270
 1.2170	38.9520
 1.2180	38.9830
 1.2190	39.0090
 1.2200	39.0470
 1.2210	39.0870
 1.2220	39.1160
 1.2230	39.1500
 1.2240	39.1840
 1.2250	39.2150
 1.2260	39.2470
 1.2270	39.2720
 1.2280	39.3030
 1.2290	39.3230
 1.2300	39.3390
 1.2310	39.3650
 1.2320	39.3810
 1.2330	39.3970
 1.2340	39.4120
 1.2350	39.4290
 1.2360	39.4440
 1.2370	39.4540
 1.2380	39.4650
 1.2390	39.4850
 1.2400	39.5030
 1.2410	39.5260
 1.2420	39.5490
 1.2430	39.5670
 1.2440	39.5900
 1.2450	39.6140
 1.2460	39.6300
 1.2470	39.6390
 1.2480	39.6460
 1.2490	39.6490
 1.2500	39.6560
 1.2510	39.6700
 1.2520	39.6780
 1.2530	39.6760
 1.2540	39.6800
 1.2550	39.6900
 1.2560	39.6930
 1.2570	39.7000
 1.2580	39.7070
 1.2590	39.7070
 1.2600	39.6960
 1.2610	39.6970
 1.2620	39.7010
 1.2630	39.6960
 1.2640	39.6960
 1.2650	39.7020
 1.2660	39.7030
 1.2670	39.7080
 1.2680	39.7270
 1.2690	39.7300
 1.2700	39.7200
 1.2710	39.7150
 1.2720	39.6900
 1.2730	39.6690
 1.2740	39.6740
 1.2750	39.6710
 1.2760	39.6610
 1.2770	39.6530
 1.2780	39.6310
 1.2790	39.6170
 1.2800	39.6190
 1.2810	39.6150
 1.2820	39.6110
 1.2830	39.5900
 1.2840	39.5520
 1.2850	39.5270
 1.2860	39.4990
 1.2870	39.4760
 1.2880	39.4600
 1.2890	39.4500
 1.2900	39.4250
 1.2910	39.4060
 1.2920	39.3840
 1.2930	39.3580
 1.2940	39.3420
 1.2950	39.3200
 1.2960	39.2950
 1.2970	39.2640
 1.2980	39.2300
 1.2990	39.2020
 1.3000	39.1650
 1.3010	39.1300
 1.3020	39.0940
 1.3030	39.0350
 1.3040	38.9800
 1.3050	38.9310
 1.3060	38.8670
 1.3070	38.8050
 1.3080	38.7490
 1.3090	38.6820
 1.3100	38.6320
 1.3110	38.5800
 1.3120	38.5200
 1.3130	38.4720
 1.3140	38.4080
 1.3150	38.3350
 1.3160	38.2590
 1.3170	38.1770
 1.3180	38.0850
 1.3190	38.0080
 1.3200	37.9220
 1.3210	37.8340
 1.3220	37.7500
 1.3230	37.6480
 1.3240	37.5490
 1.3250	37.4590
 1.3260	37.3650
 1.3270	37.2760
 1.3280	37.1810
 1.3290	37.0720
 1.3300	36.9600
 1.3310	36.8420
 1.3320	36.7270
 1.3330	36.6230
 1.3340	36.5170
 1.3350	36.4130
 1.3360	36.3060
 1.3370	36.1980
 1.3380	36.0890
 1.3390	35.9740
 1.3400	35.8650
 1.3410	35.7540
 1.3420	35.6470
 1.3430	35.5440
 1.3440	35.4380
 1.3450	35.3300
 1.3460	35.2210
 1.3470	35.1150
 1.3480	35.0070
 1.3490	34.9050
 1.3500	34.8100
 1.3510	34.7130
 1.3520	34.6130
 1.3530	34.5120
 1.3540	34.4020
 1.3550	34.2930
 1.3560	34.1860
 1.3570	34.0810
 1.3580	33.9860
 1.3590	33.8860
 1.3600	33.7790
 1.3610	33.6720
 1.3620	33.5600
 1.3630	33.4410
 1.3640	33.3160
 1.3650	33.1800
 1.3660	33.0470
 1.3670	32.9070
 1.3680	32.7560
 1.3690	32.6020
 1.3700	32.4250
 1.3710	32.2330
 1.3720	32.0400
 1.3730	31.8300
 1.3740	31.6050
 1.3750	31.3610
 1.3760	31.0950
 1.3770	30.8160
 1.3780	30.5210
 1.3790	30.2040
 1.3800	29.8660
 1.3810	29.5090
 1.3820	29.1330
 1.3830	28.7310
 1.3840	28.3230
 1.3850	27.9040
 1.3860	27.4650
 1.3870	27.0110
 1.3880	26.5460
 1.3890	26.0660
 1.3900	25.5710
 1.3910	25.0810
 1.3920	24.5840
 1.3930	24.0830
 1.3940	23.5870
 1.3950	23.0850
 1.3960	22.5920
 1.3970	22.1110
 1.3980	21.6370
 1.3990	21.1860
 1.4000	20.7460
 1.4010	20.3190
 1.4020	19.9050
 1.4030	19.5040
 1.4040	19.1190
 1.4050	18.7540
 1.4060	18.4100
 1.4070	18.0870
 1.4080	17.7830
 1.4090	17.4960
 1.4100	17.2280
 1.4110	16.9750
 1.4120	16.7360
 1.4130	16.5070
 1.4140	16.2940
 1.4150	16.1010
 1.4160	15.9210
 1.4170	15.7600
 1.4180	15.6120
 1.4190	15.4740
 1.4200	15.3470
 1.4210	15.2270
 1.4220	15.1190
 1.4230	15.0180
 1.4240	14.9220
 1.4250	14.8360
 1.4260	14.7590
 1.4270	14.6850
 1.4280	14.6200
 1.4290	14.5600
 1.4300	14.5050
 1.4310	14.4570
 1.4320	14.4190
 1.4330	14.3810
 1.4340	14.3480
 1.4350	14.3180
 1.4360	14.2890
 1.4370	14.2610
 1.4380	14.2440
 1.4390	14.2330
 1.4400	14.2280
 1.4410	14.2280
 1.4420	14.2230
 1.4430	14.2140
 1.4440	14.2050
 1.4450	14.2000
 1.4460	14.1960
 1.4470	14.1960
 1.4480	14.2030
 1.4490	14.2100
 1.4500	14.2200
 1.4510	14.2310
 1.4520	14.2370
 1.4530	14.2440
 1.4540	14.2510
 1.4550	14.2660
 1.4560	14.2850
 1.4570	14.3040
 1.4580	14.3290
 1.4590	14.3560
 1.4600	14.3820
 1.4610	14.4190
 1.4620	14.4620
 1.4630	14.5070
 1.4640	14.5560
 1.4650	14.6050
 1.4660	14.6520
 1.4670	14.6980
 1.4680	14.7510
 1.4690	14.8130
 1.4700	14.8800
 1.4710	14.9590
 1.4720	15.0370
 1.4730	15.1100
 1.4740	15.1920
 1.4750	15.2730
 1.4760	15.3560
 1.4770	15.4460
 1.4780	15.5350
 1.4790	15.6250
 1.4800	15.7170
 1.4810	15.8110
