Name: Quercus douglasii 2
Type: vegetation
Class: Tree
Genus: Quercus
Species: douglasii
Sample No.: VH274
Owner: UCSB
Wavelength Range: VSWIR
Origin: 34.7157; -120.0601; WGS84
Collection Date: 11/2/2013
Description: Samples were collected as part of the HyspIRI Airborne Campaign. 48 individual plants were sampled in three times in 2013 - spring  summer  and fall. The name of the sample includes a 1  2  or 3 which references a different individual of the species. Samples were taken to JPL and processed within 48 hours of collection. The same leaves were processed in the Nicolet and then measured using the ASD.
Measurement: Bidirectional reflectance
First Column: X
Second Column: Y
X Units: Wavelength (micrometers)
Y Units: Reflectance (percentage)
First X Value: 0.35
Last X Value: 2.5
Number of X Values: 2151
Additional Information: vegetation.tree.quercus.douglasii.vswir.vh274.ucsb.asd.ancillary.txt

 0.3500	 6.1800
 0.3510	 6.0510
 0.3520	 6.0690
 0.3530	 6.0660
 0.3540	 5.9250
 0.3550	 5.8500
 0.3560	 5.9060
 0.3570	 6.0050
 0.3580	 6.0030
 0.3590	 5.9990
 0.3600	 5.9540
 0.3610	 5.9210
 0.3620	 6.1190
 0.3630	 6.0760
 0.3640	 5.9740
 0.3650	 6.0390
 0.3660	 6.0250
 0.3670	 5.9810
 0.3680	 5.9620
 0.3690	 6.0120
 0.3700	 6.0330
 0.3710	 6.0250
 0.3720	 6.0100
 0.3730	 6.0230
 0.3740	 6.0610
 0.3750	 6.0780
 0.3760	 6.0450
 0.3770	 6.0620
 0.3780	 6.0820
 0.3790	 6.0900
 0.3800	 6.1080
 0.3810	 6.1260
 0.3820	 6.1560
 0.3830	 6.1860
 0.3840	 6.1560
 0.3850	 6.1640
 0.3860	 6.1820
 0.3870	 6.1610
 0.3880	 6.2070
 0.3890	 6.2470
 0.3900	 6.2670
 0.3910	 6.3240
 0.3920	 6.3050
 0.3930	 6.2550
 0.3940	 6.2330
 0.3950	 6.2670
 0.3960	 6.3190
 0.3970	 6.3650
 0.3980	 6.3860
 0.3990	 6.3900
 0.4000	 6.3980
 0.4010	 6.4180
 0.4020	 6.4360
 0.4030	 6.4470
 0.4040	 6.4650
 0.4050	 6.5000
 0.4060	 6.5180
 0.4070	 6.5460
 0.4080	 6.5880
 0.4090	 6.6280
 0.4100	 6.6440
 0.4110	 6.6620
 0.4120	 6.6950
 0.4130	 6.7220
 0.4140	 6.7590
 0.4150	 6.7850
 0.4160	 6.7870
 0.4170	 6.8350
 0.4180	 6.8850
 0.4190	 6.9210
 0.4200	 6.9540
 0.4210	 6.9820
 0.4220	 7.0100
 0.4230	 7.0430
 0.4240	 7.0830
 0.4250	 7.1250
 0.4260	 7.1680
 0.4270	 7.2140
 0.4280	 7.2560
 0.4290	 7.2830
 0.4300	 7.3010
 0.4310	 7.3410
 0.4320	 7.3930
 0.4330	 7.4340
 0.4340	 7.4520
 0.4350	 7.4880
 0.4360	 7.5280
 0.4370	 7.5600
 0.4380	 7.5730
 0.4390	 7.5990
 0.4400	 7.6270
 0.4410	 7.6460
 0.4420	 7.6500
 0.4430	 7.6690
 0.4440	 7.6940
 0.4450	 7.7110
 0.4460	 7.7360
 0.4470	 7.7580
 0.4480	 7.7730
 0.4490	 7.7860
 0.4500	 7.8040
 0.4510	 7.8220
 0.4520	 7.8370
 0.4530	 7.8470
 0.4540	 7.8540
 0.4550	 7.8650
 0.4560	 7.8870
 0.4570	 7.9070
 0.4580	 7.9140
 0.4590	 7.9130
 0.4600	 7.9380
 0.4610	 7.9510
 0.4620	 7.9550
 0.4630	 7.9690
 0.4640	 7.9870
 0.4650	 8.0040
 0.4660	 8.0180
 0.4670	 8.0290
 0.4680	 8.0340
 0.4690	 8.0420
 0.4700	 8.0590
 0.4710	 8.0680
 0.4720	 8.0750
 0.4730	 8.0890
 0.4740	 8.1140
 0.4750	 8.1160
 0.4760	 8.1140
 0.4770	 8.1200
 0.4780	 8.1280
 0.4790	 8.1430
 0.4800	 8.1560
 0.4810	 8.1580
 0.4820	 8.1640
 0.4830	 8.1750
 0.4840	 8.1900
 0.4850	 8.2020
 0.4860	 8.2110
 0.4870	 8.2290
 0.4880	 8.2550
 0.4890	 8.2560
 0.4900	 8.2660
 0.4910	 8.2870
 0.4920	 8.3110
 0.4930	 8.3310
 0.4940	 8.3540
 0.4950	 8.3850
 0.4960	 8.4190
 0.4970	 8.4600
 0.4980	 8.5000
 0.4990	 8.5340
 0.5000	 8.5830
 0.5010	 8.6400
 0.5020	 8.7010
 0.5030	 8.7660
 0.5040	 8.8320
 0.5050	 8.9080
 0.5060	 8.9980
 0.5070	 9.0990
 0.5080	 9.2160
 0.5090	 9.3470
 0.5100	 9.4840
 0.5110	 9.6400
 0.5120	 9.8180
 0.5130	10.0150
 0.5140	10.2280
 0.5150	10.4670
 0.5160	10.7310
 0.5170	11.0130
 0.5180	11.3180
 0.5190	11.6430
 0.5200	11.9890
 0.5210	12.3580
 0.5220	12.7450
 0.5230	13.1470
 0.5240	13.5620
 0.5250	13.9860
 0.5260	14.4140
 0.5270	14.8440
 0.5280	15.2690
 0.5290	15.6940
 0.5300	16.1170
 0.5310	16.5340
 0.5320	16.9370
 0.5330	17.3300
 0.5340	17.7110
 0.5350	18.0780
 0.5360	18.4200
 0.5370	18.7510
 0.5380	19.0740
 0.5390	19.3900
 0.5400	19.6910
 0.5410	19.9820
 0.5420	20.2610
 0.5430	20.5160
 0.5440	20.7750
 0.5450	21.0320
 0.5460	21.2690
 0.5470	21.4900
 0.5480	21.6960
 0.5490	21.8870
 0.5500	22.0680
 0.5510	22.2480
 0.5520	22.4180
 0.5530	22.5680
 0.5540	22.7080
 0.5550	22.8290
 0.5560	22.9320
 0.5570	23.0250
 0.5580	23.1020
 0.5590	23.1670
 0.5600	23.2220
 0.5610	23.2750
 0.5620	23.3140
 0.5630	23.3390
 0.5640	23.3540
 0.5650	23.3680
 0.5660	23.3890
 0.5670	23.4080
 0.5680	23.4020
 0.5690	23.3860
 0.5700	23.3580
 0.5710	23.3200
 0.5720	23.2920
 0.5730	23.2590
 0.5740	23.2140
 0.5750	23.1550
 0.5760	23.0580
 0.5770	22.9480
 0.5780	22.8460
 0.5790	22.7550
 0.5800	22.6930
 0.5810	22.6580
 0.5820	22.6370
 0.5830	22.6160
 0.5840	22.6050
 0.5850	22.6000
 0.5860	22.5860
 0.5870	22.5880
 0.5880	22.5980
 0.5890	22.6020
 0.5900	22.5820
 0.5910	22.5580
 0.5920	22.5370
 0.5930	22.5230
 0.5940	22.5180
 0.5950	22.5190
 0.5960	22.5160
 0.5970	22.4950
 0.5980	22.4750
 0.5990	22.4610
 0.6000	22.4510
 0.6010	22.4270
 0.6020	22.3900
 0.6030	22.3490
 0.6040	22.3100
 0.6050	22.2680
 0.6060	22.2270
 0.6070	22.1880
 0.6080	22.1320
 0.6090	22.0720
 0.6100	22.0090
 0.6110	21.9420
 0.6120	21.8800
 0.6130	21.8100
 0.6140	21.7310
 0.6150	21.6610
 0.6160	21.5920
 0.6170	21.5190
 0.6180	21.4450
 0.6190	21.3980
 0.6200	21.3540
 0.6210	21.3070
 0.6220	21.2680
 0.6230	21.2510
 0.6240	21.2450
 0.6250	21.2420
 0.6260	21.2400
 0.6270	21.2510
 0.6280	21.2700
 0.6290	21.2880
 0.6300	21.3080
 0.6310	21.3150
 0.6320	21.3070
 0.6330	21.2900
 0.6340	21.2480
 0.6350	21.1810
 0.6360	21.0860
 0.6370	20.9500
 0.6380	20.7780
 0.6390	20.5770
 0.6400	20.3540
 0.6410	20.0960
 0.6420	19.8230
 0.6430	19.5500
 0.6440	19.2670
 0.6450	18.9890
 0.6460	18.7180
 0.6470	18.4570
 0.6480	18.2290
 0.6490	18.0310
 0.6500	17.8620
 0.6510	17.7250
 0.6520	17.6200
 0.6530	17.5270
 0.6540	17.4310
 0.6550	17.3340
 0.6560	17.2360
 0.6570	17.1230
 0.6580	16.9790
 0.6590	16.8190
 0.6600	16.6420
 0.6610	16.4440
 0.6620	16.2300
 0.6630	16.0170
 0.6640	15.8080
 0.6650	15.6060
 0.6660	15.4200
 0.6670	15.2550
 0.6680	15.1110
 0.6690	14.9900
 0.6700	14.8920
 0.6710	14.8270
 0.6720	14.7900
 0.6730	14.7640
 0.6740	14.7670
 0.6750	14.7960
 0.6760	14.8420
 0.6770	14.9000
 0.6780	14.9910
 0.6790	15.1160
 0.6800	15.2650
 0.6810	15.4680
 0.6820	15.7320
 0.6830	16.0610
 0.6840	16.4560
 0.6850	16.9360
 0.6860	17.5070
 0.6870	18.1720
 0.6880	18.9340
 0.6890	19.7940
 0.6900	20.7470
 0.6910	21.7890
 0.6920	22.8980
 0.6930	24.0750
 0.6940	25.3130
 0.6950	26.5730
 0.6960	27.8560
 0.6970	29.1530
 0.6980	30.4530
 0.6990	31.7230
 0.7000	32.9680
 0.7010	34.1730
 0.7020	35.3170
 0.7030	36.4300
 0.7040	37.4810
 0.7050	38.4480
 0.7060	39.3680
 0.7070	40.2420
 0.7080	41.0590
 0.7090	41.8180
 0.7100	42.5500
 0.7110	43.2370
 0.7120	43.8770
 0.7130	44.4850
 0.7140	45.0660
 0.7150	45.6220
 0.7160	46.1500
 0.7170	46.6540
 0.7180	47.1110
 0.7190	47.5450
 0.7200	47.9910
 0.7210	48.4020
 0.7220	48.7760
 0.7230	49.1260
 0.7240	49.4750
 0.7250	49.8100
 0.7260	50.1250
 0.7270	50.4180
 0.7280	50.6880
 0.7290	50.9430
 0.7300	51.1920
 0.7310	51.4390
 0.7320	51.6680
 0.7330	51.8800
 0.7340	52.0750
 0.7350	52.2600
 0.7360	52.4340
 0.7370	52.5980
 0.7380	52.7550
 0.7390	52.9170
 0.7400	53.0710
 0.7410	53.2110
 0.7420	53.3340
 0.7430	53.4540
 0.7440	53.5650
 0.7450	53.6680
 0.7460	53.7770
 0.7470	53.8720
 0.7480	53.9590
 0.7490	54.0440
 0.7500	54.1290
 0.7510	54.2020
 0.7520	54.2760
 0.7530	54.3600
 0.7540	54.4110
 0.7550	54.4740
 0.7560	54.5470
 0.7570	54.5930
 0.7580	54.6330
 0.7590	54.6880
 0.7600	54.7530
 0.7610	54.7910
 0.7620	54.8310
 0.7630	54.8760
 0.7640	54.9230
 0.7650	54.9650
 0.7660	55.0100
 0.7670	55.0520
 0.7680	55.0830
 0.7690	55.1270
 0.7700	55.1670
 0.7710	55.1960
 0.7720	55.2200
 0.7730	55.2580
 0.7740	55.2960
 0.7750	55.3200
 0.7760	55.3510
 0.7770	55.3860
 0.7780	55.4230
 0.7790	55.4570
 0.7800	55.4980
 0.7810	55.5390
 0.7820	55.5730
 0.7830	55.5950
 0.7840	55.6250
 0.7850	55.6650
 0.7860	55.7090
 0.7870	55.7450
 0.7880	55.7740
 0.7890	55.8050
 0.7900	55.8490
 0.7910	55.8860
 0.7920	55.9190
 0.7930	55.9550
 0.7940	55.9990
 0.7950	56.0350
 0.7960	56.0490
 0.7970	56.0560
 0.7980	56.1080
 0.7990	56.1610
 0.8000	56.1970
 0.8010	56.2170
 0.8020	56.2620
 0.8030	56.2870
 0.8040	56.3090
 0.8050	56.3610
 0.8060	56.4160
 0.8070	56.4550
 0.8080	56.4800
 0.8090	56.5090
 0.8100	56.5390
 0.8110	56.5730
 0.8120	56.6110
 0.8130	56.6460
 0.8140	56.6820
 0.8150	56.7160
 0.8160	56.7480
 0.8170	56.7960
 0.8180	56.8230
 0.8190	56.8390
 0.8200	56.8740
 0.8210	56.9170
 0.8220	56.9560
 0.8230	56.9920
 0.8240	57.0380
 0.8250	57.0510
 0.8260	57.0790
 0.8270	57.1370
 0.8280	57.1710
 0.8290	57.1890
 0.8300	57.2120
 0.8310	57.2490
 0.8320	57.2680
 0.8330	57.2910
 0.8340	57.3150
 0.8350	57.3290
 0.8360	57.3490
 0.8370	57.3870
 0.8380	57.4340
 0.8390	57.4710
 0.8400	57.5130
 0.8410	57.5380
 0.8420	57.5520
 0.8430	57.5950
 0.8440	57.6430
 0.8450	57.6780
 0.8460	57.6910
 0.8470	57.7060
 0.8480	57.7240
 0.8490	57.7470
 0.8500	57.7810
 0.8510	57.8230
 0.8520	57.8660
 0.8530	57.8960
 0.8540	57.9040
 0.8550	57.9320
 0.8560	57.9560
 0.8570	57.9740
 0.8580	58.0070
 0.8590	58.0370
 0.8600	58.0490
 0.8610	58.0500
 0.8620	58.0670
 0.8630	58.1010
 0.8640	58.1400
 0.8650	58.1720
 0.8660	58.1870
 0.8670	58.2070
 0.8680	58.2210
 0.8690	58.2160
 0.8700	58.2240
 0.8710	58.2470
 0.8720	58.2800
 0.8730	58.3160
 0.8740	58.3290
 0.8750	58.3390
 0.8760	58.3480
 0.8770	58.3410
 0.8780	58.3610
 0.8790	58.3800
 0.8800	58.3850
 0.8810	58.4010
 0.8820	58.4060
 0.8830	58.4240
 0.8840	58.4570
 0.8850	58.4460
 0.8860	58.4360
 0.8870	58.4440
 0.8880	58.4720
 0.8890	58.4820
 0.8900	58.4900
 0.8910	58.4980
 0.8920	58.5040
 0.8930	58.5110
 0.8940	58.5130
 0.8950	58.5140
 0.8960	58.5260
 0.8970	58.5410
 0.8980	58.5370
 0.8990	58.5150
 0.9000	58.4990
 0.9010	58.5090
 0.9020	58.5300
 0.9030	58.5420
 0.9040	58.5360
 0.9050	58.5520
 0.9060	58.5750
 0.9070	58.5870
 0.9080	58.5820
 0.9090	58.5580
 0.9100	58.5340
 0.9110	58.5320
 0.9120	58.5540
 0.9130	58.5750
 0.9140	58.5890
 0.9150	58.5940
 0.9160	58.5880
 0.9170	58.5720
 0.9180	58.5630
 0.9190	58.5710
 0.9200	58.5730
 0.9210	58.5700
 0.9220	58.5600
 0.9230	58.5410
 0.9240	58.5390
 0.9250	58.5310
 0.9260	58.5200
 0.9270	58.5190
 0.9280	58.5110
 0.9290	58.4950
 0.9300	58.4740
 0.9310	58.4590
 0.9320	58.4500
 0.9330	58.4410
 0.9340	58.4260
 0.9350	58.4090
 0.9360	58.3910
 0.9370	58.3750
 0.9380	58.3570
 0.9390	58.3250
 0.9400	58.2880
 0.9410	58.2600
 0.9420	58.2440
 0.9430	58.2280
 0.9440	58.1940
 0.9450	58.1610
 0.9460	58.1350
 0.9470	58.0700
 0.9480	58.0250
 0.9490	57.9830
 0.9500	57.9250
 0.9510	57.8790
 0.9520	57.8140
 0.9530	57.7380
 0.9540	57.6660
 0.9550	57.6140
 0.9560	57.5510
 0.9570	57.4850
 0.9580	57.4290
 0.9590	57.3540
 0.9600	57.3050
 0.9610	57.2710
 0.9620	57.2290
 0.9630	57.2030
 0.9640	57.1790
 0.9650	57.1550
 0.9660	57.1340
 0.9670	57.1010
 0.9680	57.0710
 0.9690	57.0490
 0.9700	57.0360
 0.9710	57.0420
 0.9720	57.0420
 0.9730	57.0370
 0.9740	57.0380
 0.9750	57.0550
 0.9760	57.0770
 0.9770	57.1070
 0.9780	57.1390
 0.9790	57.1200
 0.9800	57.0980
 0.9810	57.1000
 0.9820	57.1230
 0.9830	57.1280
 0.9840	57.1560
 0.9850	57.1920
 0.9860	57.2060
 0.9870	57.2510
 0.9880	57.2880
 0.9890	57.3090
 0.9900	57.3300
 0.9910	57.3720
 0.9920	57.3990
 0.9930	57.4130
 0.9940	57.4400
 0.9950	57.4740
 0.9960	57.5180
 0.9970	57.5570
 0.9980	57.5830
 0.9990	57.6270
 1.0000	57.5930
 1.0010	57.4230
 1.0020	57.3700
 1.0030	57.4080
 1.0040	57.4530
 1.0050	57.4900
 1.0060	57.5370
 1.0070	57.5870
 1.0080	57.6270
 1.0090	57.6620
 1.0100	57.7000
 1.0110	57.7330
 1.0120	57.7670
 1.0130	57.8030
 1.0140	57.8390
 1.0150	57.8790
 1.0160	57.9040
 1.0170	57.9300
 1.0180	57.9620
 1.0190	57.9930
 1.0200	58.0330
 1.0210	58.0740
 1.0220	58.1170
 1.0230	58.1550
 1.0240	58.1860
 1.0250	58.2200
 1.0260	58.2560
 1.0270	58.2860
 1.0280	58.3110
 1.0290	58.3400
 1.0300	58.3690
 1.0310	58.3960
 1.0320	58.4250
 1.0330	58.4520
 1.0340	58.4760
 1.0350	58.5010
 1.0360	58.5230
 1.0370	58.5480
 1.0380	58.5740
 1.0390	58.5980
 1.0400	58.6230
 1.0410	58.6510
 1.0420	58.6740
 1.0430	58.6920
 1.0440	58.7130
 1.0450	58.7340
 1.0460	58.7540
 1.0470	58.7760
 1.0480	58.7960
 1.0490	58.8170
 1.0500	58.8370
 1.0510	58.8560
 1.0520	58.8760
 1.0530	58.8950
 1.0540	58.9150
 1.0550	58.9310
 1.0560	58.9460
 1.0570	58.9590
 1.0580	58.9690
 1.0590	58.9790
 1.0600	58.9860
 1.0610	58.9960
 1.0620	59.0050
 1.0630	59.0160
 1.0640	59.0340
 1.0650	59.0440
 1.0660	59.0470
 1.0670	59.0540
 1.0680	59.0600
 1.0690	59.0610
 1.0700	59.0660
 1.0710	59.0750
 1.0720	59.0810
 1.0730	59.0860
 1.0740	59.0900
 1.0750	59.0940
 1.0760	59.0980
 1.0770	59.1000
 1.0780	59.1000
 1.0790	59.0970
 1.0800	59.0970
 1.0810	59.0970
 1.0820	59.0950
 1.0830	59.0950
 1.0840	59.0930
 1.0850	59.0910
 1.0860	59.0850
 1.0870	59.0780
 1.0880	59.0720
 1.0890	59.0640
 1.0900	59.0540
 1.0910	59.0430
 1.0920	59.0330
 1.0930	59.0230
 1.0940	59.0140
 1.0950	59.0030
 1.0960	58.9940
 1.0970	58.9820
 1.0980	58.9650
 1.0990	58.9510
 1.1000	58.9420
 1.1010	58.9270
 1.1020	58.9080
 1.1030	58.8930
 1.1040	58.8780
 1.1050	58.8580
 1.1060	58.8430
 1.1070	58.8330
 1.1080	58.8150
 1.1090	58.7930
 1.1100	58.7720
 1.1110	58.7500
 1.1120	58.7250
 1.1130	58.7020
 1.1140	58.6760
 1.1150	58.6460
 1.1160	58.6160
 1.1170	58.5890
 1.1180	58.5570
 1.1190	58.5220
 1.1200	58.4860
 1.1210	58.4510
 1.1220	58.4100
 1.1230	58.3600
 1.1240	58.3090
 1.1250	58.2500
 1.1260	58.1830
 1.1270	58.1110
 1.1280	58.0330
 1.1290	57.9510
 1.1300	57.8650
 1.1310	57.7700
 1.1320	57.6730
 1.1330	57.5630
 1.1340	57.4400
 1.1350	57.3110
 1.1360	57.1750
 1.1370	57.0280
 1.1380	56.8730
 1.1390	56.7130
 1.1400	56.5440
 1.1410	56.3700
 1.1420	56.1960
 1.1430	56.0170
 1.1440	55.8400
 1.1450	55.6600
 1.1460	55.4830
 1.1470	55.3060
 1.1480	55.1350
 1.1490	54.9640
 1.1500	54.8020
 1.1510	54.6420
 1.1520	54.4970
 1.1530	54.3590
 1.1540	54.2360
 1.1550	54.1270
 1.1560	54.0270
 1.1570	53.9390
 1.1580	53.8600
 1.1590	53.7870
 1.1600	53.7230
 1.1610	53.6680
 1.1620	53.6180
 1.1630	53.5750
 1.1640	53.5410
 1.1650	53.5100
 1.1660	53.4850
 1.1670	53.4630
 1.1680	53.4490
 1.1690	53.4330
 1.1700	53.4190
 1.1710	53.4060
 1.1720	53.3970
 1.1730	53.3870
 1.1740	53.3790
 1.1750	53.3720
 1.1760	53.3640
 1.1770	53.3500
 1.1780	53.3370
 1.1790	53.3270
 1.1800	53.3190
 1.1810	53.3110
 1.1820	53.2990
 1.1830	53.2850
 1.1840	53.2710
 1.1850	53.2530
 1.1860	53.2380
 1.1870	53.2270
 1.1880	53.2160
 1.1890	53.2030
 1.1900	53.1960
 1.1910	53.1930
 1.1920	53.1900
 1.1930	53.1900
 1.1940	53.1910
 1.1950	53.1930
 1.1960	53.1940
 1.1970	53.1990
 1.1980	53.2030
 1.1990	53.2120
 1.2000	53.2250
 1.2010	53.2350
 1.2020	53.2500
 1.2030	53.2660
 1.2040	53.2790
 1.2050	53.2980
 1.2060	53.3200
 1.2070	53.3410
 1.2080	53.3660
 1.2090	53.3880
 1.2100	53.4100
 1.2110	53.4360
 1.2120	53.4630
 1.2130	53.4940
 1.2140	53.5290
 1.2150	53.5640
 1.2160	53.6000
 1.2170	53.6400
 1.2180	53.6750
 1.2190	53.7120
 1.2200	53.7490
 1.2210	53.7840
 1.2220	53.8230
 1.2230	53.8620
 1.2240	53.9030
 1.2250	53.9420
 1.2260	53.9790
 1.2270	54.0170
 1.2280	54.0520
 1.2290	54.0880
 1.2300	54.1230
 1.2310	54.1550
 1.2320	54.1880
 1.2330	54.2210
 1.2340	54.2530
 1.2350	54.2880
 1.2360	54.3180
 1.2370	54.3460
 1.2380	54.3720
 1.2390	54.3960
 1.2400	54.4230
 1.2410	54.4530
 1.2420	54.4790
 1.2430	54.5070
 1.2440	54.5330
 1.2450	54.5520
 1.2460	54.5750
 1.2470	54.5960
 1.2480	54.6170
 1.2490	54.6430
 1.2500	54.6690
 1.2510	54.6900
 1.2520	54.7070
 1.2530	54.7210
 1.2540	54.7340
 1.2550	54.7510
 1.2560	54.7670
 1.2570	54.7800
 1.2580	54.7940
 1.2590	54.8050
 1.2600	54.8120
 1.2610	54.8200
 1.2620	54.8280
 1.2630	54.8340
 1.2640	54.8380
 1.2650	54.8410
 1.2660	54.8430
 1.2670	54.8440
 1.2680	54.8430
 1.2690	54.8420
 1.2700	54.8390
 1.2710	54.8330
 1.2720	54.8260
 1.2730	54.8190
 1.2740	54.8120
 1.2750	54.8030
 1.2760	54.7960
 1.2770	54.7850
 1.2780	54.7690
 1.2790	54.7530
 1.2800	54.7360
 1.2810	54.7200
 1.2820	54.7040
 1.2830	54.6840
 1.2840	54.6630
 1.2850	54.6390
 1.2860	54.6110
 1.2870	54.5830
 1.2880	54.5530
 1.2890	54.5210
 1.2900	54.4870
 1.2910	54.4520
 1.2920	54.4140
 1.2930	54.3710
 1.2940	54.3240
 1.2950	54.2760
 1.2960	54.2280
 1.2970	54.1770
 1.2980	54.1220
 1.2990	54.0640
 1.3000	54.0050
 1.3010	53.9440
 1.3020	53.8780
 1.3030	53.8070
 1.3040	53.7310
 1.3050	53.6510
 1.3060	53.5710
 1.3070	53.4850
 1.3080	53.3930
 1.3090	53.3010
 1.3100	53.2030
 1.3110	53.1000
 1.3120	52.9950
 1.3130	52.8860
 1.3140	52.7700
 1.3150	52.6490
 1.3160	52.5270
 1.3170	52.4030
 1.3180	52.2690
 1.3190	52.1350
 1.3200	51.9940
 1.3210	51.8430
 1.3220	51.6910
 1.3230	51.5340
 1.3240	51.3740
 1.3250	51.2130
 1.3260	51.0440
 1.3270	50.8720
 1.3280	50.6960
 1.3290	50.5150
 1.3300	50.3360
 1.3310	50.1520
 1.3320	49.9650
 1.3330	49.7770
 1.3340	49.5860
 1.3350	49.3960
 1.3360	49.2050
 1.3370	49.0130
 1.3380	48.8190
 1.3390	48.6260
 1.3400	48.4310
 1.3410	48.2400
 1.3420	48.0510
 1.3430	47.8620
 1.3440	47.6750
 1.3450	47.4890
 1.3460	47.3030
 1.3470	47.1220
 1.3480	46.9420
 1.3490	46.7640
 1.3500	46.5910
 1.3510	46.4180
 1.3520	46.2460
 1.3530	46.0770
 1.3540	45.9070
 1.3550	45.7350
 1.3560	45.5620
 1.3570	45.3860
 1.3580	45.2090
 1.3590	45.0300
 1.3600	44.8480
 1.3610	44.6630
 1.3620	44.4720
 1.3630	44.2750
 1.3640	44.0680
 1.3650	43.8520
 1.3660	43.6290
 1.3670	43.3930
 1.3680	43.1440
 1.3690	42.8830
 1.3700	42.6010
 1.3710	42.3040
 1.3720	41.9920
 1.3730	41.6570
 1.3740	41.3070
 1.3750	40.9330
 1.3760	40.5310
 1.3770	40.1060
 1.3780	39.6470
 1.3790	39.1610
 1.3800	38.6490
 1.3810	38.1020
 1.3820	37.5330
 1.3830	36.9400
 1.3840	36.3210
 1.3850	35.6760
 1.3860	35.0150
 1.3870	34.3240
 1.3880	33.6300
 1.3890	32.9210
 1.3900	32.2000
 1.3910	31.4820
 1.3920	30.7570
 1.3930	30.0280
 1.3940	29.3060
 1.3950	28.5820
 1.3960	27.8710
 1.3970	27.1750
 1.3980	26.4920
 1.3990	25.8360
 1.4000	25.1980
 1.4010	24.5780
 1.4020	23.9880
 1.4030	23.4170
 1.4040	22.8720
 1.4050	22.3580
 1.4060	21.8700
 1.4070	21.4130
 1.4080	20.9840
 1.4090	20.5780
 1.4100	20.2010
 1.4110	19.8480
 1.4120	19.5200
 1.4130	19.2180
 1.4140	18.9390
 1.4150	18.6830
 1.4160	18.4480
 1.4170	18.2300
 1.4180	18.0330
 1.4190	17.8510
 1.4200	17.6840
 1.4210	17.5330
 1.4220	17.3960
 1.4230	17.2730
 1.4240	17.1630
 1.4250	17.0620
 1.4260	16.9720
 1.4270	16.8910
 1.4280	16.8210
 1.4290	16.7570
 1.4300	16.7020
 1.4310	16.6540
 1.4320	16.6140
 1.4330	16.5780
 1.4340	16.5510
 1.4350	16.5270
 1.4360	16.5070
 1.4370	16.4920
 1.4380	16.4810
 1.4390	16.4740
 1.4400	16.4720
 1.4410	16.4730
 1.4420	16.4760
 1.4430	16.4810
 1.4440	16.4890
 1.4450	16.4980
 1.4460	16.5110
 1.4470	16.5260
 1.4480	16.5420
 1.4490	16.5600
 1.4500	16.5810
 1.4510	16.6020
 1.4520	16.6240
 1.4530	16.6490
 1.4540	16.6730
 1.4550	16.7000
 1.4560	16.7300
 1.4570	16.7620
 1.4580	16.7980
 1.4590	16.8350
 1.4600	16.8760
 1.4610	16.9210
 1.4620	16.9700
 1.4630	17.0260
 1.4640	17.0860
 1.4650	17.1520
 1.4660	17.2240
 1.4670	17.3020
 1.4680	17.3850
 1.4690	17.4720
 1.4700	17.5650
