Name: Pinus ponderosa 3
Type: vegetation
Class: Tree
Genus: Pinus
Species: ponderosa
Sample No.: VH067
Owner: UCSB
Wavelength Range: VSWIR
Origin: 37.043; -119.3048; WGS84
Collection Date: 4/20/2013
Description: Samples were collected as part of the HyspIRI Airborne Campaign. 48 individual plants were sampled in three times in 2013 - spring  summer  and fall. The name of the sample includes a 1  2  or 3 which references a different individual of the species. Samples were taken to JPL and processed within 48 hours of collection. The same leaves were processed in the Nicolet and then measured using the ASD.
Measurement: Bidirectional reflectance
First Column: X
Second Column: Y
X Units: Wavelength (micrometers)
Y Units: Reflectance (percentage)
First X Value: 0.35
Last X Value: 2.5
Number of X Values: 2151
Additional Information: vegetation.tree.pinus.ponderosa.vswir.vh067.ucsb.asd.ancillary.txt

 0.3500	 5.7140
 0.3510	 5.7430
 0.3520	 5.7310
 0.3530	 5.6670
 0.3540	 5.6050
 0.3550	 5.6270
 0.3560	 5.6950
 0.3570	 5.7160
 0.3580	 5.6100
 0.3590	 5.6540
 0.3600	 5.6160
 0.3610	 5.4510
 0.3620	 5.4390
 0.3630	 5.5140
 0.3640	 5.5180
 0.3650	 5.3610
 0.3660	 5.2820
 0.3670	 5.2740
 0.3680	 5.3130
 0.3690	 5.3620
 0.3700	 5.3870
 0.3710	 5.4090
 0.3720	 5.4300
 0.3730	 5.3970
 0.3740	 5.3360
 0.3750	 5.3050
 0.3760	 5.3440
 0.3770	 5.3780
 0.3780	 5.4070
 0.3790	 5.4100
 0.3800	 5.3580
 0.3810	 5.3120
 0.3820	 5.3200
 0.3830	 5.3670
 0.3840	 5.3110
 0.3850	 5.2800
 0.3860	 5.2930
 0.3870	 5.3230
 0.3880	 5.3160
 0.3890	 5.3080
 0.3900	 5.2970
 0.3910	 5.2430
 0.3920	 5.2180
 0.3930	 5.2500
 0.3940	 5.3160
 0.3950	 5.2920
 0.3960	 5.3130
 0.3970	 5.3660
 0.3980	 5.3690
 0.3990	 5.3400
 0.4000	 5.3220
 0.4010	 5.3380
 0.4020	 5.3840
 0.4030	 5.3720
 0.4040	 5.3800
 0.4050	 5.4680
 0.4060	 5.4870
 0.4070	 5.5020
 0.4080	 5.5300
 0.4090	 5.5540
 0.4100	 5.6030
 0.4110	 5.6680
 0.4120	 5.7310
 0.4130	 5.7600
 0.4140	 5.8250
 0.4150	 5.9090
 0.4160	 5.9730
 0.4170	 6.0460
 0.4180	 6.1190
 0.4190	 6.1940
 0.4200	 6.2850
 0.4210	 6.3610
 0.4220	 6.4360
 0.4230	 6.5240
 0.4240	 6.6100
 0.4250	 6.7030
 0.4260	 6.7900
 0.4270	 6.8570
 0.4280	 6.9380
 0.4290	 7.0210
 0.4300	 7.0950
 0.4310	 7.1560
 0.4320	 7.2220
 0.4330	 7.2820
 0.4340	 7.3260
 0.4350	 7.3840
 0.4360	 7.4370
 0.4370	 7.4830
 0.4380	 7.5300
 0.4390	 7.5920
 0.4400	 7.6610
 0.4410	 7.7240
 0.4420	 7.7480
 0.4430	 7.7820
 0.4440	 7.8270
 0.4450	 7.8650
 0.4460	 7.9020
 0.4470	 7.9370
 0.4480	 7.9730
 0.4490	 8.0230
 0.4500	 8.0560
 0.4510	 8.0760
 0.4520	 8.0960
 0.4530	 8.1210
 0.4540	 8.1490
 0.4550	 8.1740
 0.4560	 8.1900
 0.4570	 8.2060
 0.4580	 8.2190
 0.4590	 8.2330
 0.4600	 8.2520
 0.4610	 8.2690
 0.4620	 8.2880
 0.4630	 8.3090
 0.4640	 8.3030
 0.4650	 8.3020
 0.4660	 8.3200
 0.4670	 8.3500
 0.4680	 8.3500
 0.4690	 8.3480
 0.4700	 8.3640
 0.4710	 8.3610
 0.4720	 8.3710
 0.4730	 8.3870
 0.4740	 8.3850
 0.4750	 8.3880
 0.4760	 8.3910
 0.4770	 8.3930
 0.4780	 8.4000
 0.4790	 8.4040
 0.4800	 8.4070
 0.4810	 8.4120
 0.4820	 8.4160
 0.4830	 8.4240
 0.4840	 8.4340
 0.4850	 8.4360
 0.4860	 8.4380
 0.4870	 8.4430
 0.4880	 8.4510
 0.4890	 8.4590
 0.4900	 8.4780
 0.4910	 8.5040
 0.4920	 8.5270
 0.4930	 8.5440
 0.4940	 8.5690
 0.4950	 8.6030
 0.4960	 8.6310
 0.4970	 8.6650
 0.4980	 8.7030
 0.4990	 8.7410
 0.5000	 8.7800
 0.5010	 8.8320
 0.5020	 8.8940
 0.5030	 8.9530
 0.5040	 9.0260
 0.5050	 9.1060
 0.5060	 9.1840
 0.5070	 9.2620
 0.5080	 9.3540
 0.5090	 9.4610
 0.5100	 9.5750
 0.5110	 9.6930
 0.5120	 9.8180
 0.5130	 9.9520
 0.5140	10.0970
 0.5150	10.2510
 0.5160	10.4110
 0.5170	10.5730
 0.5180	10.7480
 0.5190	10.9260
 0.5200	11.1050
 0.5210	11.2920
 0.5220	11.4770
 0.5230	11.6560
 0.5240	11.8280
 0.5250	11.9970
 0.5260	12.1600
 0.5270	12.3140
 0.5280	12.4550
 0.5290	12.5850
 0.5300	12.7060
 0.5310	12.8170
 0.5320	12.9160
 0.5330	13.0080
 0.5340	13.0930
 0.5350	13.1680
 0.5360	13.2340
 0.5370	13.2870
 0.5380	13.3270
 0.5390	13.3580
 0.5400	13.3910
 0.5410	13.4140
 0.5420	13.4240
 0.5430	13.4430
 0.5440	13.4680
 0.5450	13.4970
 0.5460	13.5280
 0.5470	13.5840
 0.5480	13.6390
 0.5490	13.6760
 0.5500	13.6940
 0.5510	13.7100
 0.5520	13.7190
 0.5530	13.7160
 0.5540	13.7040
 0.5550	13.6810
 0.5560	13.6470
 0.5570	13.6030
 0.5580	13.5480
 0.5590	13.4800
 0.5600	13.4040
 0.5610	13.3270
 0.5620	13.2420
 0.5630	13.1480
 0.5640	13.0500
 0.5650	12.9470
 0.5660	12.8470
 0.5670	12.7500
 0.5680	12.6460
 0.5690	12.5390
 0.5700	12.4280
 0.5710	12.3130
 0.5720	12.2000
 0.5730	12.0860
 0.5740	11.9710
 0.5750	11.8620
 0.5760	11.7740
 0.5770	11.6990
 0.5780	11.6300
 0.5790	11.5660
 0.5800	11.5050
 0.5810	11.4440
 0.5820	11.3790
 0.5830	11.3190
 0.5840	11.2650
 0.5850	11.2170
 0.5860	11.1710
 0.5870	11.1240
 0.5880	11.0800
 0.5890	11.0420
 0.5900	11.0100
 0.5910	10.9720
 0.5920	10.9290
 0.5930	10.8950
 0.5940	10.8680
 0.5950	10.8510
 0.5960	10.8430
 0.5970	10.8280
 0.5980	10.8190
 0.5990	10.8100
 0.6000	10.7900
 0.6010	10.7710
 0.6020	10.7490
 0.6030	10.7210
 0.6040	10.6870
 0.6050	10.6470
 0.6060	10.6020
 0.6070	10.5540
 0.6080	10.4980
 0.6090	10.4330
 0.6100	10.3570
 0.6110	10.2760
 0.6120	10.2200
 0.6130	10.1820
 0.6140	10.1480
 0.6150	10.1010
 0.6160	10.0560
 0.6170	10.0140
 0.6180	 9.9750
 0.6190	 9.9400
 0.6200	 9.9050
 0.6210	 9.8730
 0.6220	 9.8520
 0.6230	 9.8360
 0.6240	 9.8200
 0.6250	 9.8040
 0.6260	 9.7890
 0.6270	 9.7800
 0.6280	 9.7750
 0.6290	 9.7700
 0.6300	 9.7680
 0.6310	 9.7660
 0.6320	 9.7610
 0.6330	 9.7560
 0.6340	 9.7440
 0.6350	 9.7250
 0.6360	 9.7000
 0.6370	 9.6690
 0.6380	 9.6330
 0.6390	 9.5910
 0.6400	 9.5470
 0.6410	 9.4990
 0.6420	 9.4460
 0.6430	 9.3920
 0.6440	 9.3420
 0.6450	 9.2890
 0.6460	 9.2350
 0.6470	 9.1830
 0.6480	 9.1400
 0.6490	 9.0970
 0.6500	 9.0570
 0.6510	 9.0280
 0.6520	 8.9970
 0.6530	 8.9670
 0.6540	 8.9390
 0.6550	 8.9120
 0.6560	 8.8750
 0.6570	 8.8330
 0.6580	 8.7930
 0.6590	 8.7480
 0.6600	 8.7020
 0.6610	 8.6580
 0.6620	 8.6190
 0.6630	 8.5770
 0.6640	 8.5390
 0.6650	 8.5090
 0.6660	 8.4790
 0.6670	 8.4530
 0.6680	 8.4350
 0.6690	 8.4260
 0.6700	 8.4170
 0.6710	 8.4150
 0.6720	 8.4210
 0.6730	 8.4270
 0.6740	 8.4360
 0.6750	 8.4500
 0.6760	 8.4710
 0.6770	 8.4910
 0.6780	 8.5190
 0.6790	 8.5520
 0.6800	 8.5850
 0.6810	 8.6310
 0.6820	 8.6820
 0.6830	 8.7370
 0.6840	 8.8070
 0.6850	 8.8880
 0.6860	 8.9840
 0.6870	 9.1040
 0.6880	 9.2430
 0.6890	 9.4170
 0.6900	 9.6300
 0.6910	 9.8840
 0.6920	10.1840
 0.6930	10.5360
 0.6940	10.9400
 0.6950	11.3990
 0.6960	11.9070
 0.6970	12.4610
 0.6980	13.0580
 0.6990	13.7040
 0.7000	14.3890
 0.7010	15.1100
 0.7020	15.8690
 0.7030	16.6540
 0.7040	17.4620
 0.7050	18.2930
 0.7060	19.1460
 0.7070	20.0160
 0.7080	20.9070
 0.7090	21.8250
 0.7100	22.7660
 0.7110	23.7270
 0.7120	24.7080
 0.7130	25.7160
 0.7140	26.7490
 0.7150	27.8030
 0.7160	28.8740
 0.7170	29.9700
 0.7180	31.0800
 0.7190	32.2090
 0.7200	33.3680
 0.7210	34.5380
 0.7220	35.7160
 0.7230	36.9010
 0.7240	38.0970
 0.7250	39.2950
 0.7260	40.4840
 0.7270	41.6620
 0.7280	42.8390
 0.7290	44.0010
 0.7300	45.1420
 0.7310	46.2610
 0.7320	47.3630
 0.7330	48.4420
 0.7340	49.4900
 0.7350	50.5090
 0.7360	51.4990
 0.7370	52.4560
 0.7380	53.3760
 0.7390	54.2580
 0.7400	55.1110
 0.7410	55.9250
 0.7420	56.6920
 0.7430	57.4290
 0.7440	58.1240
 0.7450	58.7790
 0.7460	59.4010
 0.7470	59.9790
 0.7480	60.5150
 0.7490	61.0130
 0.7500	61.4820
 0.7510	61.9250
 0.7520	62.3290
 0.7530	62.6900
 0.7540	63.0340
 0.7550	63.3400
 0.7560	63.6120
 0.7570	63.8810
 0.7580	64.1240
 0.7590	64.3380
 0.7600	64.5300
 0.7610	64.7080
 0.7620	64.8800
 0.7630	65.0380
 0.7640	65.1760
 0.7650	65.3070
 0.7660	65.4220
 0.7670	65.5230
 0.7680	65.6180
 0.7690	65.7010
 0.7700	65.7820
 0.7710	65.8620
 0.7720	65.9300
 0.7730	65.9870
 0.7740	66.0460
 0.7750	66.1140
 0.7760	66.1730
 0.7770	66.2240
 0.7780	66.2690
 0.7790	66.3110
 0.7800	66.3590
 0.7810	66.4070
 0.7820	66.4500
 0.7830	66.4860
 0.7840	66.5310
 0.7850	66.5720
 0.7860	66.6010
 0.7870	66.6380
 0.7880	66.6730
 0.7890	66.7090
 0.7900	66.7470
 0.7910	66.7710
 0.7920	66.8010
 0.7930	66.8360
 0.7940	66.8660
 0.7950	66.8960
 0.7960	66.9240
 0.7970	66.9520
 0.7980	66.9890
 0.7990	67.0150
 0.8000	67.0410
 0.8010	67.0780
 0.8020	67.0940
 0.8030	67.1140
 0.8040	67.1430
 0.8050	67.1760
 0.8060	67.2120
 0.8070	67.2330
 0.8080	67.2500
 0.8090	67.2950
 0.8100	67.3200
 0.8110	67.3360
 0.8120	67.3530
 0.8130	67.3700
 0.8140	67.3970
 0.8150	67.4300
 0.8160	67.4570
 0.8170	67.4690
 0.8180	67.4940
 0.8190	67.5270
 0.8200	67.5490
 0.8210	67.5810
 0.8220	67.6110
 0.8230	67.6370
 0.8240	67.6610
 0.8250	67.6840
 0.8260	67.7000
 0.8270	67.7120
 0.8280	67.7300
 0.8290	67.7460
 0.8300	67.7620
 0.8310	67.7810
 0.8320	67.7900
 0.8330	67.7990
 0.8340	67.8140
 0.8350	67.8370
 0.8360	67.8690
 0.8370	67.8990
 0.8380	67.9250
 0.8390	67.9520
 0.8400	67.9800
 0.8410	68.0150
 0.8420	68.0530
 0.8430	68.0710
 0.8440	68.0940
 0.8450	68.1230
 0.8460	68.1560
 0.8470	68.1970
 0.8480	68.2220
 0.8490	68.2410
 0.8500	68.2700
 0.8510	68.3020
 0.8520	68.3410
 0.8530	68.3770
 0.8540	68.3980
 0.8550	68.4170
 0.8560	68.4380
 0.8570	68.4630
 0.8580	68.4910
 0.8590	68.5020
 0.8600	68.5180
 0.8610	68.5460
 0.8620	68.5660
 0.8630	68.5780
 0.8640	68.5930
 0.8650	68.6190
 0.8660	68.6420
 0.8670	68.6540
 0.8680	68.6630
 0.8690	68.6790
 0.8700	68.6880
 0.8710	68.6960
 0.8720	68.7100
 0.8730	68.7330
 0.8740	68.7430
 0.8750	68.7500
 0.8760	68.7590
 0.8770	68.7720
 0.8780	68.7930
 0.8790	68.8040
 0.8800	68.7980
 0.8810	68.7930
 0.8820	68.7950
 0.8830	68.8030
 0.8840	68.8060
 0.8850	68.7890
 0.8860	68.7930
 0.8870	68.7960
 0.8880	68.7730
 0.8890	68.7540
 0.8900	68.7630
 0.8910	68.7750
 0.8920	68.7570
 0.8930	68.7290
 0.8940	68.7200
 0.8950	68.7230
 0.8960	68.7060
 0.8970	68.6910
 0.8980	68.6860
 0.8990	68.6840
 0.9000	68.6680
 0.9010	68.6520
 0.9020	68.6330
 0.9030	68.6080
 0.9040	68.5800
 0.9050	68.5600
 0.9060	68.5430
 0.9070	68.5250
 0.9080	68.5190
 0.9090	68.5070
 0.9100	68.4820
 0.9110	68.4460
 0.9120	68.4300
 0.9130	68.4210
 0.9140	68.4040
 0.9150	68.3730
 0.9160	68.3550
 0.9170	68.3370
 0.9180	68.3210
 0.9190	68.3030
 0.9200	68.2620
 0.9210	68.2300
 0.9220	68.2050
 0.9230	68.1680
 0.9240	68.1220
 0.9250	68.0840
 0.9260	68.0470
 0.9270	67.9920
 0.9280	67.9300
 0.9290	67.8670
 0.9300	67.7970
 0.9310	67.7160
 0.9320	67.6550
 0.9330	67.5910
 0.9340	67.5130
 0.9350	67.4280
 0.9360	67.3450
 0.9370	67.2560
 0.9380	67.1620
 0.9390	67.0740
 0.9400	66.9750
 0.9410	66.8670
 0.9420	66.7490
 0.9430	66.6110
 0.9440	66.4890
 0.9450	66.3660
 0.9460	66.2250
 0.9470	66.0740
 0.9480	65.8870
 0.9490	65.6950
 0.9500	65.5130
 0.9510	65.2750
 0.9520	65.0470
 0.9530	64.8250
 0.9540	64.5970
 0.9550	64.3770
 0.9560	64.1440
 0.9570	63.9150
 0.9580	63.7120
 0.9590	63.5260
 0.9600	63.3550
 0.9610	63.1990
 0.9620	63.0580
 0.9630	62.9280
 0.9640	62.8320
 0.9650	62.7390
 0.9660	62.6190
 0.9670	62.5420
 0.9680	62.4750
 0.9690	62.4050
 0.9700	62.3370
 0.9710	62.3000
 0.9720	62.2330
 0.9730	62.1610
 0.9740	62.1310
 0.9750	62.1070
 0.9760	62.1010
 0.9770	62.0960
 0.9780	62.0640
 0.9790	62.0230
 0.9800	62.0180
 0.9810	62.0350
 0.9820	62.0380
 0.9830	62.0440
 0.9840	62.0610
 0.9850	62.0970
 0.9860	62.1480
 0.9870	62.1820
 0.9880	62.2280
 0.9890	62.2850
 0.9900	62.3410
 0.9910	62.3920
 0.9920	62.5680
 0.9930	62.7440
 0.9940	62.9200
 0.9950	63.0960
 0.9960	63.2720
 0.9970	63.4480
 0.9980	63.6240
 0.9990	63.8000
 1.0000	63.9760
 1.0010	64.1520
 1.0020	64.3280
 1.0030	64.5040
 1.0040	64.6800
 1.0050	64.8560
 1.0060	65.0320
 1.0070	65.2080
 1.0080	65.3840
 1.0090	65.5600
 1.0100	65.5600
 1.0110	65.6660
 1.0120	65.7680
 1.0130	65.8650
 1.0140	65.9640
 1.0150	66.0630
 1.0160	66.1650
 1.0170	66.2650
 1.0180	66.3700
 1.0190	66.4780
 1.0200	66.5830
 1.0210	66.6840
 1.0220	66.7870
 1.0230	66.8900
 1.0240	66.9890
 1.0250	67.0910
 1.0260	67.2000
 1.0270	67.2990
 1.0280	67.3920
 1.0290	67.4890
 1.0300	67.5830
 1.0310	67.6760
 1.0320	67.7690
 1.0330	67.8630
 1.0340	67.9520
 1.0350	68.0410
 1.0360	68.1350
 1.0370	68.2230
 1.0380	68.3110
 1.0390	68.4010
 1.0400	68.4830
 1.0410	68.5600
 1.0420	68.6400
 1.0430	68.7180
 1.0440	68.7940
 1.0450	68.8750
 1.0460	68.9490
 1.0470	69.0150
 1.0480	69.0830
 1.0490	69.1500
 1.0500	69.2130
 1.0510	69.2730
 1.0520	69.3350
 1.0530	69.3950
 1.0540	69.4550
 1.0550	69.5100
 1.0560	69.5670
 1.0570	69.6140
 1.0580	69.6520
 1.0590	69.6940
 1.0600	69.7310
 1.0610	69.7730
 1.0620	69.8220
 1.0630	69.8620
 1.0640	69.9010
 1.0650	69.9340
 1.0660	69.9550
 1.0670	69.9790
 1.0680	70.0020
 1.0690	70.0230
 1.0700	70.0430
 1.0710	70.0640
 1.0720	70.0820
 1.0730	70.0980
 1.0740	70.1110
 1.0750	70.1250
 1.0760	70.1330
 1.0770	70.1360
 1.0780	70.1380
 1.0790	70.1370
 1.0800	70.1330
 1.0810	70.1280
 1.0820	70.1190
 1.0830	70.1060
 1.0840	70.0930
 1.0850	70.0810
 1.0860	70.0640
 1.0870	70.0430
 1.0880	70.0170
 1.0890	69.9930
 1.0900	69.9670
 1.0910	69.9350
 1.0920	69.9010
 1.0930	69.8660
 1.0940	69.8260
 1.0950	69.7860
 1.0960	69.7510
 1.0970	69.7090
 1.0980	69.6580
 1.0990	69.6110
 1.1000	69.5640
 1.1010	69.5140
 1.1020	69.4630
 1.1030	69.4160
 1.1040	69.3640
 1.1050	69.3050
 1.1060	69.2460
 1.1070	69.1850
 1.1080	69.1190
 1.1090	69.0490
 1.1100	68.9780
 1.1110	68.9070
 1.1120	68.8310
 1.1130	68.7570
 1.1140	68.6690
 1.1150	68.5680
 1.1160	68.4680
 1.1170	68.3650
 1.1180	68.2510
 1.1190	68.1350
 1.1200	68.0080
 1.1210	67.8650
 1.1220	67.7100
 1.1230	67.5390
 1.1240	67.3560
 1.1250	67.1540
 1.1260	66.9410
 1.1270	66.7000
 1.1280	66.4400
 1.1290	66.1620
 1.1300	65.8650
 1.1310	65.5430
 1.1320	65.1990
 1.1330	64.8370
 1.1340	64.4510
 1.1350	64.0490
 1.1360	63.6310
 1.1370	63.1950
 1.1380	62.7440
 1.1390	62.2850
 1.1400	61.8190
 1.1410	61.3540
 1.1420	60.8890
 1.1430	60.4170
 1.1440	59.9540
 1.1450	59.4870
 1.1460	59.0430
 1.1470	58.6020
 1.1480	58.1870
 1.1490	57.7880
 1.1500	57.4110
 1.1510	57.0460
 1.1520	56.7070
 1.1530	56.3920
 1.1540	56.0970
 1.1550	55.8240
 1.1560	55.5740
 1.1570	55.3400
 1.1580	55.1250
 1.1590	54.9290
 1.1600	54.7480
 1.1610	54.5840
 1.1620	54.4350
 1.1630	54.2990
 1.1640	54.1760
 1.1650	54.0610
 1.1660	53.9610
 1.1670	53.8640
 1.1680	53.7770
 1.1690	53.6910
 1.1700	53.6130
 1.1710	53.5350
 1.1720	53.4650
 1.1730	53.3910
 1.1740	53.3200
 1.1750	53.2460
 1.1760	53.1700
 1.1770	53.0960
 1.1780	53.0170
 1.1790	52.9390
 1.1800	52.8600
 1.1810	52.7790
 1.1820	52.7010
 1.1830	52.6250
 1.1840	52.5450
 1.1850	52.4660
 1.1860	52.3890
 1.1870	52.3130
 1.1880	52.2430
 1.1890	52.1770
 1.1900	52.1180
 1.1910	52.0640
 1.1920	52.0150
 1.1930	51.9720
 1.1940	51.9340
 1.1950	51.9000
 1.1960	51.8730
 1.1970	51.8540
 1.1980	51.8380
 1.1990	51.8270
 1.2000	51.8240
 1.2010	51.8250
 1.2020	51.8320
 1.2030	51.8470
 1.2040	51.8670
 1.2050	51.8930
 1.2060	51.9240
 1.2070	51.9620
 1.2080	52.0040
 1.2090	52.0500
 1.2100	52.1040
 1.2110	52.1620
 1.2120	52.2220
 1.2130	52.2910
 1.2140	52.3640
 1.2150	52.4450
 1.2160	52.5340
 1.2170	52.6280
 1.2180	52.7230
 1.2190	52.8230
 1.2200	52.9250
 1.2210	53.0290
 1.2220	53.1350
 1.2230	53.2420
 1.2240	53.3490
 1.2250	53.4530
 1.2260	53.5600
 1.2270	53.6650
 1.2280	53.7650
 1.2290	53.8630
 1.2300	53.9610
 1.2310	54.0560
 1.2320	54.1520
 1.2330	54.2450
 1.2340	54.3340
 1.2350	54.4200
 1.2360	54.5040
 1.2370	54.5830
 1.2380	54.6620
 1.2390	54.7410
 1.2400	54.8170
 1.2410	54.8930
 1.2420	54.9670
 1.2430	55.0390
 1.2440	55.1070
 1.2450	55.1700
 1.2460	55.2310
 1.2470	55.2880
 1.2480	55.3470
 1.2490	55.4060
 1.2500	55.4600
 1.2510	55.5160
 1.2520	55.5680
 1.2530	55.6160
 1.2540	55.6640
 1.2550	55.7070
 1.2560	55.7480
 1.2570	55.7900
 1.2580	55.8280
 1.2590	55.8630
 1.2600	55.8960
 1.2610	55.9250
 1.2620	55.9500
 1.2630	55.9730
 1.2640	55.9930
 1.2650	56.0110
 1.2660	56.0240
 1.2670	56.0350
 1.2680	56.0450
 1.2690	56.0520
 1.2700	56.0560
 1.2710	56.0570
 1.2720	56.0550
 1.2730	56.0520
 1.2740	56.0490
 1.2750	56.0460
 1.2760	56.0380
 1.2770	56.0240
 1.2780	56.0070
 1.2790	55.9840
 1.2800	55.9580
 1.2810	55.9300
 1.2820	55.8970
 1.2830	55.8610
 1.2840	55.8170
 1.2850	55.7710
 1.2860	55.7230
 1.2870	55.6680
 1.2880	55.6090
 1.2890	55.5450
 1.2900	55.4730
 1.2910	55.3910
 1.2920	55.3040
 1.2930	55.2130
 1.2940	55.1170
 1.2950	55.0160
 1.2960	54.9050
 1.2970	54.7900
 1.2980	54.6670
 1.2990	54.5360
 1.3000	54.4020
 1.3010	54.2590
 1.3020	54.1080
 1.3030	53.9520
 1.3040	53.7880
 1.3050	53.6210
 1.3060	53.4450
 1.3070	53.2590
 1.3080	53.0710
 1.3090	52.8750
 1.3100	52.6700
 1.3110	52.4620
 1.3120	52.2430
 1.3130	52.0170
 1.3140	51.7860
 1.3150	51.5480
 1.3160	51.3070
 1.3170	51.0630
 1.3180	50.8120
 1.3190	50.5520
 1.3200	50.2890
 1.3210	50.0190
 1.3220	49.7430
 1.3230	49.4660
 1.3240	49.1840
 1.3250	48.8990
 1.3260	48.6150
 1.3270	48.3280
 1.3280	48.0380
 1.3290	47.7440
 1.3300	47.4490
 1.3310	47.1510
 1.3320	46.8540
 1.3330	46.5600
 1.3340	46.2640
 1.3350	45.9710
 1.3360	45.6810
 1.3370	45.3900
 1.3380	45.1020
 1.3390	44.8180
 1.3400	44.5360
 1.3410	44.2590
 1.3420	43.9880
 1.3430	43.7220
 1.3440	43.4600
 1.3450	43.2040
 1.3460	42.9540
 1.3470	42.7090
 1.3480	42.4700
 1.3490	42.2350
 1.3500	42.0070
 1.3510	41.7830
 1.3520	41.5610
 1.3530	41.3440
 1.3540	41.1280
 1.3550	40.9150
 1.3560	40.7040
 1.3570	40.4930
 1.3580	40.2810
 1.3590	40.0660
 1.3600	39.8460
 1.3610	39.6210
 1.3620	39.3910
 1.3630	39.1560
 1.3640	38.9130
 1.3650	38.6630
 1.3660	38.4070
 1.3670	38.1400
 1.3680	37.8610
 1.3690	37.5690
 1.3700	37.2590
 1.3710	36.9360
 1.3720	36.5970
 1.3730	36.2390
 1.3740	35.8670
 1.3750	35.4770
 1.3760	35.0640
 1.3770	34.6310
 1.3780	34.1720
 1.3790	33.6900
 1.3800	33.1870
 1.3810	32.6580
 1.3820	32.1160
 1.3830	31.5550
 1.3840	30.9810
 1.3850	30.3910
 1.3860	29.7950
 1.3870	29.1820
 1.3880	28.5750
 1.3890	27.9630
 1.3900	27.3500
 1.3910	26.7460
 1.3920	26.1460
 1.3930	25.5510
 1.3940	24.9700
 1.3950	24.3960
 1.3960	23.8380
 1.3970	23.2970
 1.3980	22.7720
 1.3990	22.2720
 1.4000	21.7900
 1.4010	21.3250
 1.4020	20.8850
 1.4030	20.4620
 1.4040	20.0610
 1.4050	19.6810
 1.4060	19.3210
 1.4070	18.9830
 1.4080	18.6650
 1.4090	18.3650
 1.4100	18.0850
 1.4110	17.8200
 1.4120	17.5720
 1.4130	17.3400
 1.4140	17.1230
 1.4150	16.9220
 1.4160	16.7340
 1.4170	16.5570
 1.4180	16.3930
 1.4190	16.2400
 1.4200	16.0970
 1.4210	15.9650
 1.4220	15.8410
 1.4230	15.7280
 1.4240	15.6220
 1.4250	15.5240
 1.4260	15.4340
 1.4270	15.3500
 1.4280	15.2730
 1.4290	15.2010
 1.4300	15.1340
 1.4310	15.0730
 1.4320	15.0180
 1.4330	14.9670
 1.4340	14.9230
 1.4350	14.8820
 1.4360	14.8450
 1.4370	14.8110
 1.4380	14.7810
 1.4390	14.7560
 1.4400	14.7330
 1.4410	14.7120
 1.4420	14.6940
 1.4430	14.6800
 1.4440	14.6680
 1.4450	14.6590
 1.4460	14.6520
 1.4470	14.6460
 1.4480	14.6410
 1.4490	14.6380
 1.4500	14.6370
 1.4510	14.6370
 1.4520	14.6410
 1.4530	14.6460
 1.4540	14.6520
 1.4550	14.6600
 1.4560	14.6690
 1.4570	14.6800
 1.4580	14.6940
 1.4590	14.7120
 1.4600	14.7310
 1.4610	14.7530
 1.4620	14.7770
 1.4630	14.8040
 1.4640	14.8340
 1.4650	14.8680
 1.4660	14.9060
 1.4670	14.9470
 1.4680	14.9920
 1.4690	15.0400
 1.4700	15.0900
