Name: Umbellularia californica 3
Type: vegetation
Class: Shrub
Genus: Umbellularia
Species: californica
Sample No.: VH108
Owner: UCSB
Wavelength Range: VSWIR
Origin: 34.5075; -119.763; WGS84
Collection Date: 6/3/2013
Description: Samples were collected as part of the HyspIRI Airborne Campaign. 48 individual plants were sampled in three times in 2013 - spring  summer  and fall. The name of the sample includes a 1  2  or 3 which references a different individual of the species. Samples were taken to JPL and processed within 48 hours of collection. The same leaves were processed in the Nicolet and then measured using the ASD.
Measurement: Bidirectional reflectance
First Column: X
Second Column: Y
X Units: Wavelength (micrometers)
Y Units: Reflectance (percentage)
First X Value: 0.35
Last X Value: 2.5
Number of X Values: 2151
Additional Information: vegetation.shrub.umbellularia.californica.vswir.vh108.ucsb.asd.ancillary.txt

 0.3500	 8.9760
 0.3510	 9.0780
 0.3520	 9.0820
 0.3530	 9.0420
 0.3540	 9.0410
 0.3550	 8.9460
 0.3560	 8.9820
 0.3570	 9.0300
 0.3580	 8.8610
 0.3590	 8.9120
 0.3600	 8.9600
 0.3610	 8.9100
 0.3620	 8.9430
 0.3630	 8.8800
 0.3640	 8.8140
 0.3650	 8.8580
 0.3660	 8.9740
 0.3670	 8.9390
 0.3680	 8.8140
 0.3690	 8.8430
 0.3700	 8.8970
 0.3710	 8.8980
 0.3720	 8.8440
 0.3730	 8.8550
 0.3740	 8.8250
 0.3750	 8.7730
 0.3760	 8.7570
 0.3770	 8.8310
 0.3780	 8.8570
 0.3790	 8.8090
 0.3800	 8.7670
 0.3810	 8.7400
 0.3820	 8.7560
 0.3830	 8.8000
 0.3840	 8.7560
 0.3850	 8.7480
 0.3860	 8.7710
 0.3870	 8.7780
 0.3880	 8.7930
 0.3890	 8.7950
 0.3900	 8.7780
 0.3910	 8.7520
 0.3920	 8.7270
 0.3930	 8.7110
 0.3940	 8.7120
 0.3950	 8.7450
 0.3960	 8.7620
 0.3970	 8.7430
 0.3980	 8.6920
 0.3990	 8.6940
 0.4000	 8.7170
 0.4010	 8.7320
 0.4020	 8.7230
 0.4030	 8.7080
 0.4040	 8.6990
 0.4050	 8.7040
 0.4060	 8.7210
 0.4070	 8.7140
 0.4080	 8.6970
 0.4090	 8.7100
 0.4100	 8.7420
 0.4110	 8.7690
 0.4120	 8.7800
 0.4130	 8.7910
 0.4140	 8.8140
 0.4150	 8.8480
 0.4160	 8.8890
 0.4170	 8.9160
 0.4180	 8.9340
 0.4190	 8.9590
 0.4200	 9.0140
 0.4210	 9.0350
 0.4220	 9.0560
 0.4230	 9.1040
 0.4240	 9.1340
 0.4250	 9.1560
 0.4260	 9.1840
 0.4270	 9.2240
 0.4280	 9.2650
 0.4290	 9.2980
 0.4300	 9.3230
 0.4310	 9.3610
 0.4320	 9.3720
 0.4330	 9.3780
 0.4340	 9.4060
 0.4350	 9.4350
 0.4360	 9.4500
 0.4370	 9.4620
 0.4380	 9.5010
 0.4390	 9.5240
 0.4400	 9.5510
 0.4410	 9.5890
 0.4420	 9.5970
 0.4430	 9.6170
 0.4440	 9.6420
 0.4450	 9.6520
 0.4460	 9.6730
 0.4470	 9.7000
 0.4480	 9.7220
 0.4490	 9.7260
 0.4500	 9.7520
 0.4510	 9.7830
 0.4520	 9.7950
 0.4530	 9.8080
 0.4540	 9.8250
 0.4550	 9.8420
 0.4560	 9.8520
 0.4570	 9.8710
 0.4580	 9.8810
 0.4590	 9.8770
 0.4600	 9.8970
 0.4610	 9.9030
 0.4620	 9.8980
 0.4630	 9.8970
 0.4640	 9.9100
 0.4650	 9.9230
 0.4660	 9.9290
 0.4670	 9.9350
 0.4680	 9.9410
 0.4690	 9.9420
 0.4700	 9.9410
 0.4710	 9.9430
 0.4720	 9.9440
 0.4730	 9.9450
 0.4740	 9.9490
 0.4750	 9.9530
 0.4760	 9.9560
 0.4770	 9.9560
 0.4780	 9.9470
 0.4790	 9.9550
 0.4800	 9.9670
 0.4810	 9.9660
 0.4820	 9.9810
 0.4830	 9.9980
 0.4840	10.0090
 0.4850	10.0130
 0.4860	10.0220
 0.4870	10.0380
 0.4880	10.0570
 0.4890	10.0770
 0.4900	10.0920
 0.4910	10.1100
 0.4920	10.1430
 0.4930	10.1740
 0.4940	10.2080
 0.4950	10.2470
 0.4960	10.2870
 0.4970	10.3320
 0.4980	10.3800
 0.4990	10.4280
 0.5000	10.4840
 0.5010	10.5460
 0.5020	10.6160
 0.5030	10.6940
 0.5040	10.7790
 0.5050	10.8730
 0.5060	10.9800
 0.5070	11.0940
 0.5080	11.2200
 0.5090	11.3610
 0.5100	11.5170
 0.5110	11.6880
 0.5120	11.8670
 0.5130	12.0570
 0.5140	12.2680
 0.5150	12.4930
 0.5160	12.7360
 0.5170	12.9980
 0.5180	13.2680
 0.5190	13.5540
 0.5200	13.8540
 0.5210	14.1510
 0.5220	14.4480
 0.5230	14.7470
 0.5240	15.0450
 0.5250	15.3440
 0.5260	15.6340
 0.5270	15.9110
 0.5280	16.1700
 0.5290	16.4110
 0.5300	16.6410
 0.5310	16.8600
 0.5320	17.0590
 0.5330	17.2440
 0.5340	17.4120
 0.5350	17.5590
 0.5360	17.6920
 0.5370	17.8160
 0.5380	17.9270
 0.5390	18.0230
 0.5400	18.1110
 0.5410	18.1920
 0.5420	18.2680
 0.5430	18.3390
 0.5440	18.4100
 0.5450	18.4750
 0.5460	18.5290
 0.5470	18.5860
 0.5480	18.6350
 0.5490	18.6730
 0.5500	18.7040
 0.5510	18.7250
 0.5520	18.7360
 0.5530	18.7330
 0.5540	18.7070
 0.5550	18.6660
 0.5560	18.6090
 0.5570	18.5370
 0.5580	18.4550
 0.5590	18.3560
 0.5600	18.2370
 0.5610	18.1090
 0.5620	17.9640
 0.5630	17.8020
 0.5640	17.6260
 0.5650	17.4430
 0.5660	17.2530
 0.5670	17.0580
 0.5680	16.8640
 0.5690	16.6690
 0.5700	16.4760
 0.5710	16.2860
 0.5720	16.1050
 0.5730	15.9290
 0.5740	15.7630
 0.5750	15.6150
 0.5760	15.4750
 0.5770	15.3480
 0.5780	15.2340
 0.5790	15.1270
 0.5800	15.0210
 0.5810	14.9200
 0.5820	14.8260
 0.5830	14.7300
 0.5840	14.6370
 0.5850	14.5500
 0.5860	14.4670
 0.5870	14.3840
 0.5880	14.3040
 0.5890	14.2290
 0.5900	14.1660
 0.5910	14.1100
 0.5920	14.0610
 0.5930	14.0200
 0.5940	13.9850
 0.5950	13.9510
 0.5960	13.9180
 0.5970	13.8810
 0.5980	13.8440
 0.5990	13.8060
 0.6000	13.7650
 0.6010	13.7200
 0.6020	13.6700
 0.6030	13.6170
 0.6040	13.5580
 0.6050	13.4930
 0.6060	13.4240
 0.6070	13.3490
 0.6080	13.2710
 0.6090	13.1840
 0.6100	13.0900
 0.6110	12.9960
 0.6120	12.9170
 0.6130	12.8430
 0.6140	12.7690
 0.6150	12.6960
 0.6160	12.6250
 0.6170	12.5580
 0.6180	12.4940
 0.6190	12.4310
 0.6200	12.3750
 0.6210	12.3280
 0.6220	12.2900
 0.6230	12.2540
 0.6240	12.2210
 0.6250	12.1940
 0.6260	12.1710
 0.6270	12.1540
 0.6280	12.1410
 0.6290	12.1260
 0.6300	12.1090
 0.6310	12.0930
 0.6320	12.0770
 0.6330	12.0540
 0.6340	12.0250
 0.6350	11.9870
 0.6360	11.9370
 0.6370	11.8770
 0.6380	11.8080
 0.6390	11.7300
 0.6400	11.6490
 0.6410	11.5610
 0.6420	11.4720
 0.6430	11.3850
 0.6440	11.2930
 0.6450	11.2020
 0.6460	11.1180
 0.6470	11.0440
 0.6480	10.9760
 0.6490	10.9160
 0.6500	10.8640
 0.6510	10.8190
 0.6520	10.7800
 0.6530	10.7440
 0.6540	10.7070
 0.6550	10.6670
 0.6560	10.6290
 0.6570	10.5900
 0.6580	10.5460
 0.6590	10.4970
 0.6600	10.4450
 0.6610	10.3930
 0.6620	10.3460
 0.6630	10.3000
 0.6640	10.2580
 0.6650	10.2220
 0.6660	10.1900
 0.6670	10.1640
 0.6680	10.1460
 0.6690	10.1330
 0.6700	10.1270
 0.6710	10.1280
 0.6720	10.1330
 0.6730	10.1360
 0.6740	10.1460
 0.6750	10.1620
 0.6760	10.1830
 0.6770	10.2110
 0.6780	10.2420
 0.6790	10.2730
 0.6800	10.3110
 0.6810	10.3560
 0.6820	10.4110
 0.6830	10.4760
 0.6840	10.5500
 0.6850	10.6410
 0.6860	10.7520
 0.6870	10.8870
 0.6880	11.0550
 0.6890	11.2660
 0.6900	11.5260
 0.6910	11.8430
 0.6920	12.2290
 0.6930	12.6870
 0.6940	13.2230
 0.6950	13.8400
 0.6960	14.5440
 0.6970	15.3300
 0.6980	16.1880
 0.6990	17.1190
 0.7000	18.1110
 0.7010	19.1540
 0.7020	20.2360
 0.7030	21.3420
 0.7040	22.4670
 0.7050	23.6040
 0.7060	24.7440
 0.7070	25.8810
 0.7080	27.0120
 0.7090	28.1340
 0.7100	29.2470
 0.7110	30.3500
 0.7120	31.4410
 0.7130	32.5160
 0.7140	33.5750
 0.7150	34.6180
 0.7160	35.6410
 0.7170	36.6470
 0.7180	37.6290
 0.7190	38.5900
 0.7200	39.5360
 0.7210	40.4530
 0.7220	41.3440
 0.7230	42.2110
 0.7240	43.0550
 0.7250	43.8700
 0.7260	44.6550
 0.7270	45.4120
 0.7280	46.1380
 0.7290	46.8290
 0.7300	47.4900
 0.7310	48.1230
 0.7320	48.7270
 0.7330	49.3020
 0.7340	49.8480
 0.7350	50.3670
 0.7360	50.8580
 0.7370	51.3200
 0.7380	51.7560
 0.7390	52.1650
 0.7400	52.5590
 0.7410	52.9310
 0.7420	53.2700
 0.7430	53.5880
 0.7440	53.8860
 0.7450	54.1640
 0.7460	54.4190
 0.7470	54.6530
 0.7480	54.8700
 0.7490	55.0740
 0.7500	55.2610
 0.7510	55.4300
 0.7520	55.5820
 0.7530	55.7200
 0.7540	55.8480
 0.7550	55.9610
 0.7560	56.0640
 0.7570	56.1670
 0.7580	56.2530
 0.7590	56.3300
 0.7600	56.4010
 0.7610	56.4640
 0.7620	56.5240
 0.7630	56.5780
 0.7640	56.6220
 0.7650	56.6650
 0.7660	56.7040
 0.7670	56.7370
 0.7680	56.7630
 0.7690	56.7920
 0.7700	56.8190
 0.7710	56.8420
 0.7720	56.8560
 0.7730	56.8750
 0.7740	56.8940
 0.7750	56.9060
 0.7760	56.9200
 0.7770	56.9360
 0.7780	56.9530
 0.7790	56.9680
 0.7800	56.9810
 0.7810	56.9920
 0.7820	57.0030
 0.7830	57.0130
 0.7840	57.0190
 0.7850	57.0290
 0.7860	57.0450
 0.7870	57.0490
 0.7880	57.0540
 0.7890	57.0620
 0.7900	57.0720
 0.7910	57.0750
 0.7920	57.0820
 0.7930	57.0910
 0.7940	57.0980
 0.7950	57.0990
 0.7960	57.1010
 0.7970	57.1060
 0.7980	57.1050
 0.7990	57.1060
 0.8000	57.1040
 0.8010	57.0970
 0.8020	57.0990
 0.8030	57.0980
 0.8040	57.0940
 0.8050	57.0910
 0.8060	57.0870
 0.8070	57.0800
 0.8080	57.0730
 0.8090	57.0710
 0.8100	57.0630
 0.8110	57.0510
 0.8120	57.0430
 0.8130	57.0390
 0.8140	57.0300
 0.8150	57.0180
 0.8160	57.0070
 0.8170	56.9950
 0.8180	56.9840
 0.8190	56.9730
 0.8200	56.9600
 0.8210	56.9530
 0.8220	56.9450
 0.8230	56.9330
 0.8240	56.9180
 0.8250	56.9010
 0.8260	56.8870
 0.8270	56.8740
 0.8280	56.8560
 0.8290	56.8410
 0.8300	56.8300
 0.8310	56.8210
 0.8320	56.8110
 0.8330	56.7970
 0.8340	56.7790
 0.8350	56.7610
 0.8360	56.7540
 0.8370	56.7500
 0.8380	56.7450
 0.8390	56.7360
 0.8400	56.7290
 0.8410	56.7240
 0.8420	56.7210
 0.8430	56.7230
 0.8440	56.7240
 0.8450	56.7200
 0.8460	56.7120
 0.8470	56.7060
 0.8480	56.7050
 0.8490	56.7030
 0.8500	56.6990
 0.8510	56.7030
 0.8520	56.6980
 0.8530	56.6910
 0.8540	56.6990
 0.8550	56.6970
 0.8560	56.6960
 0.8570	56.6970
 0.8580	56.6930
 0.8590	56.6860
 0.8600	56.6900
 0.8610	56.7040
 0.8620	56.6970
 0.8630	56.6960
 0.8640	56.6990
 0.8650	56.7010
 0.8660	56.7110
 0.8670	56.7110
 0.8680	56.7070
 0.8690	56.7070
 0.8700	56.7030
 0.8710	56.7030
 0.8720	56.7090
 0.8730	56.7140
 0.8740	56.7140
 0.8750	56.7160
 0.8760	56.7200
 0.8770	56.7230
 0.8780	56.7280
 0.8790	56.7320
 0.8800	56.7370
 0.8810	56.7440
 0.8820	56.7500
 0.8830	56.7540
 0.8840	56.7560
 0.8850	56.7500
 0.8860	56.7510
 0.8870	56.7620
 0.8880	56.7750
 0.8890	56.7630
 0.8900	56.7640
 0.8910	56.7760
 0.8920	56.7810
 0.8930	56.7860
 0.8940	56.7880
 0.8950	56.7880
 0.8960	56.7860
 0.8970	56.7930
 0.8980	56.7980
 0.8990	56.7950
 0.9000	56.7920
 0.9010	56.8020
 0.9020	56.8090
 0.9030	56.8080
 0.9040	56.8160
 0.9050	56.8150
 0.9060	56.8080
 0.9070	56.8040
 0.9080	56.8150
 0.9090	56.8150
 0.9100	56.8120
 0.9110	56.8170
 0.9120	56.8170
 0.9130	56.8090
 0.9140	56.8080
 0.9150	56.8240
 0.9160	56.8150
 0.9170	56.8080
 0.9180	56.8070
 0.9190	56.8040
 0.9200	56.7980
 0.9210	56.7910
 0.9220	56.7820
 0.9230	56.7700
 0.9240	56.7630
 0.9250	56.7440
 0.9260	56.7190
 0.9270	56.7090
 0.9280	56.6860
 0.9290	56.6670
 0.9300	56.6530
 0.9310	56.6250
 0.9320	56.6000
 0.9330	56.5770
 0.9340	56.5490
 0.9350	56.5140
 0.9360	56.4870
 0.9370	56.4570
 0.9380	56.4200
 0.9390	56.3870
 0.9400	56.3440
 0.9410	56.3040
 0.9420	56.2710
 0.9430	56.2240
 0.9440	56.1810
 0.9450	56.1320
 0.9460	56.0740
 0.9470	56.0160
 0.9480	55.9500
 0.9490	55.8790
 0.9500	55.8070
 0.9510	55.7380
 0.9520	55.6470
 0.9530	55.5540
 0.9540	55.4780
 0.9550	55.4000
 0.9560	55.3170
 0.9570	55.2310
 0.9580	55.1550
 0.9590	55.1060
 0.9600	55.0600
 0.9610	55.0030
 0.9620	54.9390
 0.9630	54.9070
 0.9640	54.8750
 0.9650	54.8450
 0.9660	54.8250
 0.9670	54.7960
 0.9680	54.7780
 0.9690	54.7750
 0.9700	54.7750
 0.9710	54.7550
 0.9720	54.7490
 0.9730	54.7460
 0.9740	54.7280
 0.9750	54.7390
 0.9760	54.7510
 0.9770	54.7530
 0.9780	54.7450
 0.9790	54.7550
 0.9800	54.7520
 0.9810	54.7550
 0.9820	54.7930
 0.9830	54.8120
 0.9840	54.8260
 0.9850	54.8400
 0.9860	54.8550
 0.9870	54.8700
 0.9880	54.8830
 0.9890	54.9070
 0.9900	54.9500
 0.9910	54.9740
 0.9920	55.0780
 0.9930	55.1820
 0.9940	55.2860
 0.9950	55.3900
 0.9960	55.4940
 0.9970	55.5980
 0.9980	55.7020
 0.9990	55.8060
 1.0000	55.9100
 1.0010	56.0150
 1.0020	56.1190
 1.0030	56.2230
 1.0040	56.3270
 1.0050	56.4310
 1.0060	56.5350
 1.0070	56.6390
 1.0080	56.7430
 1.0090	56.8470
 1.0100	56.8470
 1.0110	56.8620
 1.0120	56.8810
 1.0130	56.9010
 1.0140	56.9240
 1.0150	56.9520
 1.0160	56.9710
 1.0170	56.9970
 1.0180	57.0200
 1.0190	57.0390
 1.0200	57.0620
 1.0210	57.0800
 1.0220	57.1000
 1.0230	57.1210
 1.0240	57.1450
 1.0250	57.1660
 1.0260	57.1880
 1.0270	57.2090
 1.0280	57.2280
 1.0290	57.2460
 1.0300	57.2630
 1.0310	57.2820
 1.0320	57.3010
 1.0330	57.3230
 1.0340	57.3400
 1.0350	57.3550
 1.0360	57.3680
 1.0370	57.3770
 1.0380	57.3950
 1.0390	57.4180
 1.0400	57.4400
 1.0410	57.4670
 1.0420	57.4870
 1.0430	57.5040
 1.0440	57.5190
 1.0450	57.5280
 1.0460	57.5390
 1.0470	57.5490
 1.0480	57.5610
 1.0490	57.5790
 1.0500	57.5920
 1.0510	57.6070
 1.0520	57.6180
 1.0530	57.6250
 1.0540	57.6250
 1.0550	57.6300
 1.0560	57.6340
 1.0570	57.6410
 1.0580	57.6550
 1.0590	57.6610
 1.0600	57.6630
 1.0610	57.6660
 1.0620	57.6640
 1.0630	57.6650
 1.0640	57.6690
 1.0650	57.6690
 1.0660	57.6660
 1.0670	57.6640
 1.0680	57.6620
 1.0690	57.6570
 1.0700	57.6530
 1.0710	57.6500
 1.0720	57.6430
 1.0730	57.6330
 1.0740	57.6260
 1.0750	57.6170
 1.0760	57.6090
 1.0770	57.6000
 1.0780	57.5930
 1.0790	57.5890
 1.0800	57.5810
 1.0810	57.5740
 1.0820	57.5660
 1.0830	57.5570
 1.0840	57.5440
 1.0850	57.5280
 1.0860	57.5130
 1.0870	57.4990
 1.0880	57.4810
 1.0890	57.4660
 1.0900	57.4540
 1.0910	57.4380
 1.0920	57.4190
 1.0930	57.4030
 1.0940	57.3880
 1.0950	57.3710
 1.0960	57.3560
 1.0970	57.3370
 1.0980	57.3130
 1.0990	57.2940
 1.1000	57.2760
 1.1010	57.2570
 1.1020	57.2400
 1.1030	57.2210
 1.1040	57.1970
 1.1050	57.1770
 1.1060	57.1570
 1.1070	57.1390
 1.1080	57.1180
 1.1090	57.0990
 1.1100	57.0760
 1.1110	57.0500
 1.1120	57.0240
 1.1130	56.9940
 1.1140	56.9670
 1.1150	56.9400
 1.1160	56.9110
 1.1170	56.8830
 1.1180	56.8510
 1.1190	56.8160
 1.1200	56.7790
 1.1210	56.7390
 1.1220	56.6960
 1.1230	56.6460
 1.1240	56.5910
 1.1250	56.5300
 1.1260	56.4640
 1.1270	56.3890
 1.1280	56.3100
 1.1290	56.2180
 1.1300	56.1180
 1.1310	56.0070
 1.1320	55.8830
 1.1330	55.7540
 1.1340	55.6190
 1.1350	55.4730
 1.1360	55.3170
 1.1370	55.1530
 1.1380	54.9810
 1.1390	54.8000
 1.1400	54.6140
 1.1410	54.4300
 1.1420	54.2420
 1.1430	54.0520
 1.1440	53.8680
 1.1450	53.6820
 1.1460	53.5070
 1.1470	53.3360
 1.1480	53.1770
 1.1490	53.0250
 1.1500	52.8860
 1.1510	52.7560
 1.1520	52.6380
 1.1530	52.5310
 1.1540	52.4350
 1.1550	52.3500
 1.1560	52.2750
 1.1570	52.2120
 1.1580	52.1590
 1.1590	52.1120
 1.1600	52.0720
 1.1610	52.0390
 1.1620	52.0120
 1.1630	51.9920
 1.1640	51.9750
 1.1650	51.9610
 1.1660	51.9490
 1.1670	51.9400
 1.1680	51.9350
 1.1690	51.9270
 1.1700	51.9190
 1.1710	51.9120
 1.1720	51.9030
 1.1730	51.8960
 1.1740	51.8900
 1.1750	51.8840
 1.1760	51.8770
 1.1770	51.8690
 1.1780	51.8560
 1.1790	51.8400
 1.1800	51.8260
 1.1810	51.8080
 1.1820	51.7900
 1.1830	51.7750
 1.1840	51.7590
 1.1850	51.7430
 1.1860	51.7290
 1.1870	51.7180
 1.1880	51.7070
 1.1890	51.6930
 1.1900	51.6850
 1.1910	51.6800
 1.1920	51.6770
 1.1930	51.6770
 1.1940	51.6790
 1.1950	51.6820
 1.1960	51.6880
 1.1970	51.6950
 1.1980	51.7050
 1.1990	51.7160
 1.2000	51.7280
 1.2010	51.7430
 1.2020	51.7590
 1.2030	51.7760
 1.2040	51.7960
 1.2050	51.8180
 1.2060	51.8420
 1.2070	51.8660
 1.2080	51.8880
 1.2090	51.9120
 1.2100	51.9370
 1.2110	51.9640
 1.2120	51.9960
 1.2130	52.0260
 1.2140	52.0550
 1.2150	52.0880
 1.2160	52.1240
 1.2170	52.1600
 1.2180	52.1970
 1.2190	52.2350
 1.2200	52.2710
 1.2210	52.3080
 1.2220	52.3470
 1.2230	52.3830
 1.2240	52.4160
 1.2250	52.4510
 1.2260	52.4860
 1.2270	52.5220
 1.2280	52.5580
 1.2290	52.5890
 1.2300	52.6190
 1.2310	52.6460
 1.2320	52.6740
 1.2330	52.7030
 1.2340	52.7290
 1.2350	52.7540
 1.2360	52.7780
 1.2370	52.8000
 1.2380	52.8190
 1.2390	52.8380
 1.2400	52.8570
 1.2410	52.8740
 1.2420	52.8910
 1.2430	52.9070
 1.2440	52.9250
 1.2450	52.9400
 1.2460	52.9550
 1.2470	52.9720
 1.2480	52.9870
 1.2490	53.0000
 1.2500	53.0140
 1.2510	53.0240
 1.2520	53.0340
 1.2530	53.0450
 1.2540	53.0530
 1.2550	53.0580
 1.2560	53.0590
 1.2570	53.0600
 1.2580	53.0610
 1.2590	53.0600
 1.2600	53.0620
 1.2610	53.0620
 1.2620	53.0590
 1.2630	53.0570
 1.2640	53.0550
 1.2650	53.0510
 1.2660	53.0460
 1.2670	53.0390
 1.2680	53.0290
 1.2690	53.0170
 1.2700	53.0050
 1.2710	52.9940
 1.2720	52.9830
 1.2730	52.9720
 1.2740	52.9580
 1.2750	52.9410
 1.2760	52.9230
 1.2770	52.9060
 1.2780	52.8870
 1.2790	52.8660
 1.2800	52.8440
 1.2810	52.8210
 1.2820	52.7930
 1.2830	52.7680
 1.2840	52.7390
 1.2850	52.7050
 1.2860	52.6720
 1.2870	52.6350
 1.2880	52.5950
 1.2890	52.5530
 1.2900	52.5100
 1.2910	52.4620
 1.2920	52.4110
 1.2930	52.3570
 1.2940	52.3000
 1.2950	52.2410
 1.2960	52.1770
 1.2970	52.1070
 1.2980	52.0340
 1.2990	51.9580
 1.3000	51.8800
 1.3010	51.7990
 1.3020	51.7160
 1.3030	51.6320
 1.3040	51.5410
 1.3050	51.4460
 1.3060	51.3500
 1.3070	51.2480
 1.3080	51.1410
 1.3090	51.0360
 1.3100	50.9260
 1.3110	50.8100
 1.3120	50.6930
 1.3130	50.5720
 1.3140	50.4480
 1.3150	50.3210
 1.3160	50.1900
 1.3170	50.0570
 1.3180	49.9220
 1.3190	49.7840
 1.3200	49.6390
 1.3210	49.4930
 1.3220	49.3430
 1.3230	49.1870
 1.3240	49.0320
 1.3250	48.8750
 1.3260	48.7130
 1.3270	48.5520
 1.3280	48.3900
 1.3290	48.2210
 1.3300	48.0520
 1.3310	47.8810
 1.3320	47.7070
 1.3330	47.5370
 1.3340	47.3680
 1.3350	47.1970
 1.3360	47.0270
 1.3370	46.8530
 1.3380	46.6790
 1.3390	46.5080
 1.3400	46.3370
 1.3410	46.1680
 1.3420	46.0030
 1.3430	45.8360
 1.3440	45.6690
 1.3450	45.5040
 1.3460	45.3370
 1.3470	45.1750
 1.3480	45.0130
 1.3490	44.8530
 1.3500	44.6950
 1.3510	44.5390
 1.3520	44.3810
 1.3530	44.2220
 1.3540	44.0630
 1.3550	43.9020
 1.3560	43.7390
 1.3570	43.5760
 1.3580	43.4110
 1.3590	43.2410
 1.3600	43.0670
 1.3610	42.8890
 1.3620	42.7010
 1.3630	42.5090
 1.3640	42.3080
 1.3650	42.0950
 1.3660	41.8740
 1.3670	41.6410
 1.3680	41.3940
 1.3690	41.1340
 1.3700	40.8550
 1.3710	40.5600
 1.3720	40.2470
 1.3730	39.9130
 1.3740	39.5640
 1.3750	39.1920
 1.3760	38.7950
 1.3770	38.3750
 1.3780	37.9270
 1.3790	37.4540
 1.3800	36.9590
 1.3810	36.4370
 1.3820	35.8990
 1.3830	35.3410
 1.3840	34.7660
 1.3850	34.1710
 1.3860	33.5690
 1.3870	32.9460
 1.3880	32.3270
 1.3890	31.6990
 1.3900	31.0680
 1.3910	30.4430
 1.3920	29.8180
 1.3930	29.1960
 1.3940	28.5850
 1.3950	27.9760
 1.3960	27.3830
 1.3970	26.8090
 1.3980	26.2510
 1.3990	25.7210
 1.4000	25.2110
 1.4010	24.7210
 1.4020	24.2570
 1.4030	23.8150
 1.4040	23.3990
 1.4050	23.0110
 1.4060	22.6460
 1.4070	22.3090
 1.4080	21.9950
 1.4090	21.7020
 1.4100	21.4350
 1.4110	21.1880
 1.4120	20.9610
 1.4130	20.7560
 1.4140	20.5700
 1.4150	20.4030
 1.4160	20.2530
 1.4170	20.1160
 1.4180	19.9940
 1.4190	19.8850
 1.4200	19.7870
 1.4210	19.7000
 1.4220	19.6230
 1.4230	19.5560
 1.4240	19.4980
 1.4250	19.4480
 1.4260	19.4090
 1.4270	19.3740
 1.4280	19.3470
 1.4290	19.3240
 1.4300	19.3070
 1.4310	19.2950
 1.4320	19.2890
 1.4330	19.2870
 1.4340	19.2900
 1.4350	19.2960
 1.4360	19.3050
 1.4370	19.3170
 1.4380	19.3330
 1.4390	19.3510
 1.4400	19.3720
 1.4410	19.3950
 1.4420	19.4180
 1.4430	19.4450
 1.4440	19.4730
 1.4450	19.5010
 1.4460	19.5310
 1.4470	19.5620
 1.4480	19.5930
 1.4490	19.6260
 1.4500	19.6610
 1.4510	19.6950
 1.4520	19.7300
 1.4530	19.7660
 1.4540	19.8030
 1.4550	19.8440
 1.4560	19.8860
 1.4570	19.9320
 1.4580	19.9810
 1.4590	20.0310
 1.4600	20.0880
 1.4610	20.1490
 1.4620	20.2140
 1.4630	20.2850
 1.4640	20.3600
 1.4650	20.4390
 1.4660	20.5240
 1.4670	20.6140
 1.4680	20.7110
 1.4690	20.8120
