Name: Cedrus atlantica
Type: vegetation
Class: Tree
Genus: Cedrus
Species: atlantica
Sample No.: JPL152
Owner: JPL
Wavelength Range: VSWIR
Origin: 34.12429; -118.11417; WGS84
Collection Date: 9/14/2016
Description: Samples were collected at the Huntington Garden in San Marino California as part of a JPL Subcontract studying HyTES imagery. Samples were taken to JPL and processed within 48 hours of collection. The same leaves were processed in the Nicolet and then measured using the ASD.
Measurement: Bidirectional reflectance
First Column: X
Second Column: Y
X Units: Wavelength (micrometer)
Y Units: Reflectance (percentage)
First X Value: 0.35
Last X Value: 2.5
Number of X Values: 2151
Additional Information: vegetation.tree.cedrus.atlantica.vswir.jpl152.jpl.asd.ancillary.txt

 0.3500	 4.9690
 0.3510	 4.7850
 0.3520	 4.7890
 0.3530	 4.8200
 0.3540	 4.7360
 0.3550	 4.7040
 0.3560	 4.7410
 0.3570	 4.8100
 0.3580	 4.8410
 0.3590	 4.7080
 0.3600	 4.6520
 0.3610	 4.7180
 0.3620	 4.6210
 0.3630	 4.5770
 0.3640	 4.6120
 0.3650	 4.6770
 0.3660	 4.6210
 0.3670	 4.6270
 0.3680	 4.6850
 0.3690	 4.6620
 0.3700	 4.6330
 0.3710	 4.5930
 0.3720	 4.5590
 0.3730	 4.6270
 0.3740	 4.6190
 0.3750	 4.5670
 0.3760	 4.5560
 0.3770	 4.5920
 0.3780	 4.5980
 0.3790	 4.5600
 0.3800	 4.5200
 0.3810	 4.5330
 0.3820	 4.5630
 0.3830	 4.5710
 0.3840	 4.5380
 0.3850	 4.5340
 0.3860	 4.5320
 0.3870	 4.4890
 0.3880	 4.4880
 0.3890	 4.5160
 0.3900	 4.5470
 0.3910	 4.5570
 0.3920	 4.5520
 0.3930	 4.5480
 0.3940	 4.5540
 0.3950	 4.5460
 0.3960	 4.5440
 0.3970	 4.5560
 0.3980	 4.5800
 0.3990	 4.6020
 0.4000	 4.6050
 0.4010	 4.5950
 0.4020	 4.6120
 0.4030	 4.6380
 0.4040	 4.6640
 0.4050	 4.6890
 0.4060	 4.7260
 0.4070	 4.7620
 0.4080	 4.7920
 0.4090	 4.8170
 0.4100	 4.8660
 0.4110	 4.9230
 0.4120	 4.9710
 0.4130	 5.0040
 0.4140	 5.0420
 0.4150	 5.0920
 0.4160	 5.1510
 0.4170	 5.1920
 0.4180	 5.2430
 0.4190	 5.3020
 0.4200	 5.3380
 0.4210	 5.3930
 0.4220	 5.4460
 0.4230	 5.4840
 0.4240	 5.5320
 0.4250	 5.5740
 0.4260	 5.6130
 0.4270	 5.6550
 0.4280	 5.6900
 0.4290	 5.7270
 0.4300	 5.7700
 0.4310	 5.8040
 0.4320	 5.8350
 0.4330	 5.8700
 0.4340	 5.9080
 0.4350	 5.9310
 0.4360	 5.9480
 0.4370	 5.9660
 0.4380	 5.9850
 0.4390	 6.0040
 0.4400	 6.0140
 0.4410	 6.0150
 0.4420	 6.0240
 0.4430	 6.0330
 0.4440	 6.0480
 0.4450	 6.0730
 0.4460	 6.0850
 0.4470	 6.0950
 0.4480	 6.1090
 0.4490	 6.1260
 0.4500	 6.1380
 0.4510	 6.1500
 0.4520	 6.1660
 0.4530	 6.1790
 0.4540	 6.1910
 0.4550	 6.2010
 0.4560	 6.2080
 0.4570	 6.2150
 0.4580	 6.2180
 0.4590	 6.2160
 0.4600	 6.2150
 0.4610	 6.2190
 0.4620	 6.2260
 0.4630	 6.2310
 0.4640	 6.2220
 0.4650	 6.2140
 0.4660	 6.2140
 0.4670	 6.2170
 0.4680	 6.2170
 0.4690	 6.2160
 0.4700	 6.2160
 0.4710	 6.2140
 0.4720	 6.2100
 0.4730	 6.2110
 0.4740	 6.2220
 0.4750	 6.2270
 0.4760	 6.2220
 0.4770	 6.2150
 0.4780	 6.2230
 0.4790	 6.2270
 0.4800	 6.2280
 0.4810	 6.2310
 0.4820	 6.2310
 0.4830	 6.2320
 0.4840	 6.2370
 0.4850	 6.2540
 0.4860	 6.2640
 0.4870	 6.2680
 0.4880	 6.2720
 0.4890	 6.2790
 0.4900	 6.2940
 0.4910	 6.3100
 0.4920	 6.3140
 0.4930	 6.3260
 0.4940	 6.3460
 0.4950	 6.3690
 0.4960	 6.3920
 0.4970	 6.4190
 0.4980	 6.4520
 0.4990	 6.4870
 0.5000	 6.5240
 0.5010	 6.5650
 0.5020	 6.6090
 0.5030	 6.6620
 0.5040	 6.7260
 0.5050	 6.7950
 0.5060	 6.8630
 0.5070	 6.9350
 0.5080	 7.0130
 0.5090	 7.0990
 0.5100	 7.1940
 0.5110	 7.2970
 0.5120	 7.4050
 0.5130	 7.5180
 0.5140	 7.6350
 0.5150	 7.7560
 0.5160	 7.8840
 0.5170	 8.0190
 0.5180	 8.1600
 0.5190	 8.3040
 0.5200	 8.4480
 0.5210	 8.5890
 0.5220	 8.7320
 0.5230	 8.8740
 0.5240	 9.0120
 0.5250	 9.1450
 0.5260	 9.2690
 0.5270	 9.3870
 0.5280	 9.4980
 0.5290	 9.6030
 0.5300	 9.6990
 0.5310	 9.7860
 0.5320	 9.8640
 0.5330	 9.9380
 0.5340	10.0060
 0.5350	10.0650
 0.5360	10.1220
 0.5370	10.1730
 0.5380	10.2190
 0.5390	10.2680
 0.5400	10.3240
 0.5410	10.3880
 0.5420	10.4560
 0.5430	10.5100
 0.5440	10.5460
 0.5450	10.5620
 0.5460	10.5620
 0.5470	10.5500
 0.5480	10.5410
 0.5490	10.5420
 0.5500	10.5500
 0.5510	10.5560
 0.5520	10.5540
 0.5530	10.5430
 0.5540	10.5220
 0.5550	10.4930
 0.5560	10.4570
 0.5570	10.4130
 0.5580	10.3630
 0.5590	10.3070
 0.5600	10.2470
 0.5610	10.1850
 0.5620	10.1180
 0.5630	10.0480
 0.5640	 9.9730
 0.5650	 9.8970
 0.5660	 9.8160
 0.5670	 9.7310
 0.5680	 9.6420
 0.5690	 9.5530
 0.5700	 9.4630
 0.5710	 9.3710
 0.5720	 9.2850
 0.5730	 9.2020
 0.5740	 9.1220
 0.5750	 9.0470
 0.5760	 8.9740
 0.5770	 8.9050
 0.5780	 8.8430
 0.5790	 8.7870
 0.5800	 8.7350
 0.5810	 8.6860
 0.5820	 8.6400
 0.5830	 8.5980
 0.5840	 8.5560
 0.5850	 8.5130
 0.5860	 8.4720
 0.5870	 8.4340
 0.5880	 8.3960
 0.5890	 8.3580
 0.5900	 8.3250
 0.5910	 8.2940
 0.5920	 8.2680
 0.5930	 8.2440
 0.5940	 8.2230
 0.5950	 8.2030
 0.5960	 8.1840
 0.5970	 8.1670
 0.5980	 8.1540
 0.5990	 8.1400
 0.6000	 8.1210
 0.6010	 8.0970
 0.6020	 8.0690
 0.6030	 8.0390
 0.6040	 8.0060
 0.6050	 7.9700
 0.6060	 7.9300
 0.6070	 7.8870
 0.6080	 7.8430
 0.6090	 7.8070
 0.6100	 7.7810
 0.6110	 7.7620
 0.6120	 7.7120
 0.6130	 7.6400
 0.6140	 7.5630
 0.6150	 7.5070
 0.6160	 7.4540
 0.6170	 7.4040
 0.6180	 7.3590
 0.6190	 7.3210
 0.6200	 7.2890
 0.6210	 7.2600
 0.6220	 7.2290
 0.6230	 7.2030
 0.6240	 7.1820
 0.6250	 7.1640
 0.6260	 7.1500
 0.6270	 7.1370
 0.6280	 7.1270
 0.6290	 7.1190
 0.6300	 7.1160
 0.6310	 7.1110
 0.6320	 7.1000
 0.6330	 7.0820
 0.6340	 7.0630
 0.6350	 7.0420
 0.6360	 7.0140
 0.6370	 6.9800
 0.6380	 6.9410
 0.6390	 6.9000
 0.6400	 6.8540
 0.6410	 6.8030
 0.6420	 6.7500
 0.6430	 6.6960
 0.6440	 6.6420
 0.6450	 6.5880
 0.6460	 6.5340
 0.6470	 6.4800
 0.6480	 6.4310
 0.6490	 6.3890
 0.6500	 6.3530
 0.6510	 6.3180
 0.6520	 6.2880
 0.6530	 6.2610
 0.6540	 6.2320
 0.6550	 6.2020
 0.6560	 6.1690
 0.6570	 6.1320
 0.6580	 6.0900
 0.6590	 6.0460
 0.6600	 5.9990
 0.6610	 5.9520
 0.6620	 5.9030
 0.6630	 5.8550
 0.6640	 5.8110
 0.6650	 5.7710
 0.6660	 5.7360
 0.6670	 5.7060
 0.6680	 5.6800
 0.6690	 5.6620
 0.6700	 5.6500
 0.6710	 5.6410
 0.6720	 5.6360
 0.6730	 5.6360
 0.6740	 5.6400
 0.6750	 5.6470
 0.6760	 5.6570
 0.6770	 5.6730
 0.6780	 5.6950
 0.6790	 5.7190
 0.6800	 5.7480
 0.6810	 5.7820
 0.6820	 5.8250
 0.6830	 5.8800
 0.6840	 5.9410
 0.6850	 6.0170
 0.6860	 6.1090
 0.6870	 6.2200
 0.6880	 6.3560
 0.6890	 6.5170
 0.6900	 6.7070
 0.6910	 6.9350
 0.6920	 7.2000
 0.6930	 7.5020
 0.6940	 7.8400
 0.6950	 8.2150
 0.6960	 8.6230
 0.6970	 9.0650
 0.6980	 9.5370
 0.6990	10.0300
 0.7000	10.5420
 0.7010	11.0710
 0.7020	11.6130
 0.7030	12.1670
 0.7040	12.7300
 0.7050	13.3000
 0.7060	13.8760
 0.7070	14.4580
 0.7080	15.0470
 0.7090	15.6420
 0.7100	16.2470
 0.7110	16.8630
 0.7120	17.4870
 0.7130	18.1210
 0.7140	18.7630
 0.7150	19.4150
 0.7160	20.0760
 0.7170	20.7470
 0.7180	21.4230
 0.7190	22.1050
 0.7200	22.7950
 0.7210	23.4840
 0.7220	24.1730
 0.7230	24.8610
 0.7240	25.5430
 0.7250	26.2190
 0.7260	26.8830
 0.7270	27.5320
 0.7280	28.1650
 0.7290	28.7840
 0.7300	29.3850
 0.7310	29.9660
 0.7320	30.5280
 0.7330	31.0670
 0.7340	31.5830
 0.7350	32.0770
 0.7360	32.5480
 0.7370	32.9950
 0.7380	33.4190
 0.7390	33.8190
 0.7400	34.1950
 0.7410	34.5480
 0.7420	34.8830
 0.7430	35.1910
 0.7440	35.4780
 0.7450	35.7460
 0.7460	35.9960
 0.7470	36.2280
 0.7480	36.4390
 0.7490	36.6300
 0.7500	36.8080
 0.7510	36.9690
 0.7520	37.1160
 0.7530	37.2540
 0.7540	37.3820
 0.7550	37.4950
 0.7560	37.5960
 0.7570	37.6920
 0.7580	37.7820
 0.7590	37.8650
 0.7600	37.9400
 0.7610	38.0100
 0.7620	38.0700
 0.7630	38.1250
 0.7640	38.1810
 0.7650	38.2270
 0.7660	38.2700
 0.7670	38.3130
 0.7680	38.3510
 0.7690	38.3850
 0.7700	38.4170
 0.7710	38.4480
 0.7720	38.4760
 0.7730	38.5060
 0.7740	38.5340
 0.7750	38.5590
 0.7760	38.5830
 0.7770	38.6050
 0.7780	38.6270
 0.7790	38.6500
 0.7800	38.6720
 0.7810	38.6910
 0.7820	38.7100
 0.7830	38.7320
 0.7840	38.7490
 0.7850	38.7660
 0.7860	38.7840
 0.7870	38.7980
 0.7880	38.8130
 0.7890	38.8270
 0.7900	38.8400
 0.7910	38.8520
 0.7920	38.8640
 0.7930	38.8760
 0.7940	38.8840
 0.7950	38.8940
 0.7960	38.9050
 0.7970	38.9150
 0.7980	38.9240
 0.7990	38.9290
 0.8000	38.9330
 0.8010	38.9400
 0.8020	38.9450
 0.8030	38.9500
 0.8040	38.9520
 0.8050	38.9520
 0.8060	38.9550
 0.8070	38.9600
 0.8080	38.9640
 0.8090	38.9630
 0.8100	38.9640
 0.8110	38.9650
 0.8120	38.9630
 0.8130	38.9590
 0.8140	38.9600
 0.8150	38.9630
 0.8160	38.9630
 0.8170	38.9620
 0.8180	38.9620
 0.8190	38.9620
 0.8200	38.9650
 0.8210	38.9660
 0.8220	38.9670
 0.8230	38.9690
 0.8240	38.9700
 0.8250	38.9680
 0.8260	38.9670
 0.8270	38.9680
 0.8280	38.9670
 0.8290	38.9670
 0.8300	38.9650
 0.8310	38.9610
 0.8320	38.9620
 0.8330	38.9640
 0.8340	38.9670
 0.8350	38.9730
 0.8360	38.9780
 0.8370	38.9810
 0.8380	38.9850
 0.8390	38.9920
 0.8400	38.9980
 0.8410	39.0070
 0.8420	39.0180
 0.8430	39.0260
 0.8440	39.0350
 0.8450	39.0450
 0.8460	39.0550
 0.8470	39.0640
 0.8480	39.0770
 0.8490	39.0890
 0.8500	39.0990
 0.8510	39.1090
 0.8520	39.1210
 0.8530	39.1340
 0.8540	39.1430
 0.8550	39.1540
 0.8560	39.1660
 0.8570	39.1780
 0.8580	39.1930
 0.8590	39.2050
 0.8600	39.2170
 0.8610	39.2320
 0.8620	39.2440
 0.8630	39.2610
 0.8640	39.2740
 0.8650	39.2810
 0.8660	39.2970
 0.8670	39.3080
 0.8680	39.3180
 0.8690	39.3330
 0.8700	39.3520
 0.8710	39.3650
 0.8720	39.3750
 0.8730	39.3890
 0.8740	39.4030
 0.8750	39.4160
 0.8760	39.4280
 0.8770	39.4370
 0.8780	39.4490
 0.8790	39.4630
 0.8800	39.4780
 0.8810	39.4910
 0.8820	39.5010
 0.8830	39.5080
 0.8840	39.5150
 0.8850	39.5300
 0.8860	39.5420
 0.8870	39.5500
 0.8880	39.5580
 0.8890	39.5670
 0.8900	39.5740
 0.8910	39.5810
 0.8920	39.5910
 0.8930	39.5990
 0.8940	39.6070
 0.8950	39.6150
 0.8960	39.6230
 0.8970	39.6270
 0.8980	39.6360
 0.8990	39.6480
 0.9000	39.6540
 0.9010	39.6540
 0.9020	39.6550
 0.9030	39.6610
 0.9040	39.6700
 0.9050	39.6720
 0.9060	39.6720
 0.9070	39.6770
 0.9080	39.6860
 0.9090	39.6930
 0.9100	39.6950
 0.9110	39.6920
 0.9120	39.6910
 0.9130	39.6960
 0.9140	39.7000
 0.9150	39.6920
 0.9160	39.6890
 0.9170	39.6940
 0.9180	39.6950
 0.9190	39.6800
 0.9200	39.6690
 0.9210	39.6670
 0.9220	39.6670
 0.9230	39.6560
 0.9240	39.6430
 0.9250	39.6270
 0.9260	39.6110
 0.9270	39.6000
 0.9280	39.5860
 0.9290	39.5680
 0.9300	39.5460
 0.9310	39.5230
 0.9320	39.5000
 0.9330	39.4790
 0.9340	39.4590
 0.9350	39.4310
 0.9360	39.4020
 0.9370	39.3700
 0.9380	39.3370
 0.9390	39.3060
 0.9400	39.2780
 0.9410	39.2420
 0.9420	39.1940
 0.9430	39.1560
 0.9440	39.1070
 0.9450	39.0530
 0.9460	39.0010
 0.9470	38.9460
 0.9480	38.8800
 0.9490	38.8070
 0.9500	38.7340
 0.9510	38.6570
 0.9520	38.5700
 0.9530	38.4810
 0.9540	38.3980
 0.9550	38.3150
 0.9560	38.2310
 0.9570	38.1480
 0.9580	38.0690
 0.9590	37.9960
 0.9600	37.9280
 0.9610	37.8680
 0.9620	37.8120
 0.9630	37.7560
 0.9640	37.7100
 0.9650	37.6700
 0.9660	37.6300
 0.9670	37.5910
 0.9680	37.5650
 0.9690	37.5420
 0.9700	37.5150
 0.9710	37.5030
 0.9720	37.4830
 0.9730	37.4560
 0.9740	37.4320
 0.9750	37.4250
 0.9760	37.4160
 0.9770	37.4000
 0.9780	37.3820
 0.9790	37.3840
 0.9800	37.3880
 0.9810	37.3860
 0.9820	37.3790
 0.9830	37.3810
 0.9840	37.3960
 0.9850	37.4110
 0.9860	37.4110
 0.9870	37.4210
 0.9880	37.4370
 0.9890	37.4540
 0.9900	37.4720
 0.9910	37.4900
 0.9920	37.5090
 0.9930	37.5270
 0.9940	37.5460
 0.9950	37.5690
 0.9960	37.6040
 0.9970	37.6400
 0.9980	37.6620
 0.9990	37.6850
 1.0000	37.7120
 1.0010	37.9930
 1.0020	38.0260
 1.0030	38.0620
 1.0040	38.0930
 1.0050	38.1290
 1.0060	38.1670
 1.0070	38.1990
 1.0080	38.2330
 1.0090	38.2690
 1.0100	38.3030
 1.0110	38.3380
 1.0120	38.3730
 1.0130	38.4060
 1.0140	38.4410
 1.0150	38.4780
 1.0160	38.5110
 1.0170	38.5430
 1.0180	38.5790
 1.0190	38.6130
 1.0200	38.6500
 1.0210	38.6900
 1.0220	38.7280
 1.0230	38.7640
 1.0240	38.7980
 1.0250	38.8330
 1.0260	38.8660
 1.0270	38.9010
 1.0280	38.9370
 1.0290	38.9710
 1.0300	39.0020
 1.0310	39.0350
 1.0320	39.0670
 1.0330	39.0990
 1.0340	39.1350
 1.0350	39.1670
 1.0360	39.1950
 1.0370	39.2260
 1.0380	39.2550
 1.0390	39.2810
 1.0400	39.3100
 1.0410	39.3420
 1.0420	39.3710
 1.0430	39.4000
 1.0440	39.4270
 1.0450	39.4490
 1.0460	39.4730
 1.0470	39.4980
 1.0480	39.5210
 1.0490	39.5450
 1.0500	39.5680
 1.0510	39.5890
 1.0520	39.6100
 1.0530	39.6320
 1.0540	39.6560
 1.0550	39.6780
 1.0560	39.7000
 1.0570	39.7210
 1.0580	39.7420
 1.0590	39.7590
 1.0600	39.7750
 1.0610	39.7900
 1.0620	39.8000
 1.0630	39.8150
 1.0640	39.8320
 1.0650	39.8470
 1.0660	39.8660
 1.0670	39.8810
 1.0680	39.8930
 1.0690	39.9030
 1.0700	39.9110
 1.0710	39.9170
 1.0720	39.9260
 1.0730	39.9340
 1.0740	39.9430
 1.0750	39.9550
 1.0760	39.9620
 1.0770	39.9680
 1.0780	39.9720
 1.0790	39.9690
 1.0800	39.9720
 1.0810	39.9780
 1.0820	39.9800
 1.0830	39.9820
 1.0840	39.9830
 1.0850	39.9780
 1.0860	39.9730
 1.0870	39.9690
 1.0880	39.9650
 1.0890	39.9600
 1.0900	39.9560
 1.0910	39.9490
 1.0920	39.9430
 1.0930	39.9350
 1.0940	39.9250
 1.0950	39.9150
 1.0960	39.9050
 1.0970	39.8950
 1.0980	39.8860
 1.0990	39.8750
 1.1000	39.8620
 1.1010	39.8480
 1.1020	39.8320
 1.1030	39.8160
 1.1040	39.8030
 1.1050	39.7880
 1.1060	39.7710
 1.1070	39.7530
 1.1080	39.7340
 1.1090	39.7130
 1.1100	39.6910
 1.1110	39.6710
 1.1120	39.6490
 1.1130	39.6270
 1.1140	39.6010
 1.1150	39.5750
 1.1160	39.5460
 1.1170	39.5150
 1.1180	39.4800
 1.1190	39.4450
 1.1200	39.4050
 1.1210	39.3600
 1.1220	39.3110
 1.1230	39.2550
 1.1240	39.1950
 1.1250	39.1280
 1.1260	39.0560
 1.1270	38.9740
 1.1280	38.8860
 1.1290	38.7870
 1.1300	38.6780
 1.1310	38.5600
 1.1320	38.4340
 1.1330	38.2980
 1.1340	38.1510
 1.1350	37.9970
 1.1360	37.8330
 1.1370	37.6600
 1.1380	37.4800
 1.1390	37.2930
 1.1400	37.0970
 1.1410	36.8970
 1.1420	36.6940
 1.1430	36.4870
 1.1440	36.2840
 1.1450	36.0790
 1.1460	35.8790
 1.1470	35.6790
 1.1480	35.4880
 1.1490	35.2980
 1.1500	35.1200
 1.1510	34.9490
 1.1520	34.7870
 1.1530	34.6310
 1.1540	34.4860
 1.1550	34.3500
 1.1560	34.2220
 1.1570	34.1040
 1.1580	33.9960
 1.1590	33.8970
 1.1600	33.8050
 1.1610	33.7210
 1.1620	33.6430
 1.1630	33.5710
 1.1640	33.5040
 1.1650	33.4410
 1.1660	33.3830
 1.1670	33.3300
 1.1680	33.2810
 1.1690	33.2340
 1.1700	33.1930
 1.1710	33.1510
 1.1720	33.1120
 1.1730	33.0720
 1.1740	33.0350
 1.1750	32.9960
 1.1760	32.9560
 1.1770	32.9150
 1.1780	32.8730
 1.1790	32.8320
 1.1800	32.7920
 1.1810	32.7510
 1.1820	32.7100
 1.1830	32.6700
 1.1840	32.6300
 1.1850	32.5900
 1.1860	32.5510
 1.1870	32.5120
 1.1880	32.4750
 1.1890	32.4380
 1.1900	32.4050
 1.1910	32.3720
 1.1920	32.3410
 1.1930	32.3140
 1.1940	32.2870
 1.1950	32.2600
 1.1960	32.2370
 1.1970	32.2140
 1.1980	32.1950
 1.1990	32.1830
 1.2000	32.1730
 1.2010	32.1690
 1.2020	32.1670
 1.2030	32.1660
 1.2040	32.1700
 1.2050	32.1770
 1.2060	32.1880
 1.2070	32.2050
 1.2080	32.2250
 1.2090	32.2480
 1.2100	32.2760
 1.2110	32.3070
 1.2120	32.3410
 1.2130	32.3780
 1.2140	32.4180
 1.2150	32.4620
 1.2160	32.5090
 1.2170	32.5600
 1.2180	32.6150
 1.2190	32.6710
 1.2200	32.7290
 1.2210	32.7870
 1.2220	32.8470
 1.2230	32.9080
 1.2240	32.9700
 1.2250	33.0320
 1.2260	33.0920
 1.2270	33.1510
 1.2280	33.2080
 1.2290	33.2660
 1.2300	33.3210
 1.2310	33.3740
 1.2320	33.4260
 1.2330	33.4740
 1.2340	33.5210
 1.2350	33.5680
 1.2360	33.6130
 1.2370	33.6560
 1.2380	33.6970
 1.2390	33.7360
 1.2400	33.7730
 1.2410	33.8090
 1.2420	33.8450
 1.2430	33.8800
 1.2440	33.9140
 1.2450	33.9480
 1.2460	33.9790
 1.2470	34.0090
 1.2480	34.0380
 1.2490	34.0660
 1.2500	34.0930
 1.2510	34.1200
 1.2520	34.1450
 1.2530	34.1680
 1.2540	34.1880
 1.2550	34.2090
 1.2560	34.2280
 1.2570	34.2470
 1.2580	34.2650
 1.2590	34.2810
 1.2600	34.2960
 1.2610	34.3090
 1.2620	34.3210
 1.2630	34.3320
 1.2640	34.3420
 1.2650	34.3510
 1.2660	34.3570
 1.2670	34.3620
 1.2680	34.3670
 1.2690	34.3680
 1.2700	34.3690
 1.2710	34.3680
 1.2720	34.3660
 1.2730	34.3620
 1.2740	34.3580
 1.2750	34.3520
 1.2760	34.3450
 1.2770	34.3340
 1.2780	34.3200
 1.2790	34.3040
 1.2800	34.2880
 1.2810	34.2690
 1.2820	34.2500
 1.2830	34.2330
 1.2840	34.2110
 1.2850	34.1860
 1.2860	34.1590
 1.2870	34.1300
 1.2880	34.0960
 1.2890	34.0620
 1.2900	34.0260
 1.2910	33.9870
 1.2920	33.9450
 1.2930	33.9000
 1.2940	33.8520
 1.2950	33.8040
 1.2960	33.7520
 1.2970	33.6970
 1.2980	33.6390
 1.2990	33.5780
 1.3000	33.5140
 1.3010	33.4470
 1.3020	33.3770
 1.3030	33.3010
 1.3040	33.2210
 1.3050	33.1400
 1.3060	33.0550
 1.3070	32.9650
 1.3080	32.8760
 1.3090	32.7810
 1.3100	32.6830
 1.3110	32.5830
 1.3120	32.4760
 1.3130	32.3660
 1.3140	32.2520
 1.3150	32.1330
 1.3160	32.0120
 1.3170	31.8880
 1.3180	31.7600
 1.3190	31.6280
 1.3200	31.4930
 1.3210	31.3540
 1.3220	31.2120
 1.3230	31.0660
 1.3240	30.9180
 1.3250	30.7680
 1.3260	30.6160
 1.3270	30.4610
 1.3280	30.3040
 1.3290	30.1430
 1.3300	29.9820
 1.3310	29.8190
 1.3320	29.6540
 1.3330	29.4910
 1.3340	29.3250
 1.3350	29.1590
 1.3360	28.9930
 1.3370	28.8280
 1.3380	28.6640
 1.3390	28.5010
 1.3400	28.3390
 1.3410	28.1800
 1.3420	28.0230
 1.3430	27.8670
 1.3440	27.7140
 1.3450	27.5640
 1.3460	27.4160
 1.3470	27.2720
 1.3480	27.1300
 1.3490	26.9910
 1.3500	26.8540
 1.3510	26.7200
 1.3520	26.5870
 1.3530	26.4550
 1.3540	26.3240
 1.3550	26.1930
 1.3560	26.0610
 1.3570	25.9280
 1.3580	25.7960
 1.3590	25.6610
 1.3600	25.5230
 1.3610	25.3840
 1.3620	25.2410
 1.3630	25.0930
 1.3640	24.9410
 1.3650	24.7830
 1.3660	24.6200
 1.3670	24.4500
 1.3680	24.2730
 1.3690	24.0860
 1.3700	23.8870
 1.3710	23.6810
 1.3720	23.4630
 1.3730	23.2310
 1.3740	22.9880
 1.3750	22.7300
 1.3760	22.4540
 1.3770	22.1630
 1.3780	21.8520
 1.3790	21.5240
 1.3800	21.1810
 1.3810	20.8180
 1.3820	20.4450
 1.3830	20.0580
 1.3840	19.6590
 1.3850	19.2480
 1.3860	18.8310
 1.3870	18.4000
 1.3880	17.9730
 1.3890	17.5410
 1.3900	17.1050
 1.3910	16.6760
 1.3920	16.2480
 1.3930	15.8220
 1.3940	15.4050
 1.3950	14.9910
 1.3960	14.5880
 1.3970	14.1970
 1.3980	13.8170
 1.3990	13.4550
 1.4000	13.1050
 1.4010	12.7680
 1.4020	12.4490
 1.4030	12.1410
 1.4040	11.8480
 1.4050	11.5720
 1.4060	11.3090
 1.4070	11.0640
 1.4080	10.8330
 1.4090	10.6140
 1.4100	10.4100
 1.4110	10.2160
 1.4120	10.0360
 1.4130	 9.8680
 1.4140	 9.7110
 1.4150	 9.5650
 1.4160	 9.4300
 1.4170	 9.3020
 1.4180	 9.1840
 1.4190	 9.0730
 1.4200	 8.9700
 1.4210	 8.8740
 1.4220	 8.7840
 1.4230	 8.7010
 1.4240	 8.6240
 1.4250	 8.5520
 1.4260	 8.4850
 1.4270	 8.4230
 1.4280	 8.3650
 1.4290	 8.3110
 1.4300	 8.2620
 1.4310	 8.2170
 1.4320	 8.1760
 1.4330	 8.1380
 1.4340	 8.1020
 1.4350	 8.0710
 1.4360	 8.0420
 1.4370	 8.0160
 1.4380	 7.9930
 1.4390	 7.9720
 1.4400	 7.9530
 1.4410	 7.9370
 1.4420	 7.9220
 1.4430	 7.9100
 1.4440	 7.9000
 1.4450	 7.8920
 1.4460	 7.8860
 1.4470	 7.8810
 1.4480	 7.8760
 1.4490	 7.8720
 1.4500	 7.8700
 1.4510	 7.8690
 1.4520	 7.8700
 1.4530	 7.8710
 1.4540	 7.8740
 1.4550	 7.8790
 1.4560	 7.8840
 1.4570	 7.8910
 1.4580	 7.8980
 1.4590	 7.9080
 1.4600	 7.9190
 1.4610	 7.9330
 1.4620	 7.9490
 1.4630	 7.9690
 1.4640	 7.9890
 1.4650	 8.0130
 1.4660	 8.0390
 1.4670	 8.0670
 1.4680	 8.0980
 1.4690	 8.1310
 1.4700	 8.1660
 1.4710	 8.2040
 1.4720	 8.2430
 1.4730	 8.2840
 1.4740	 8.3280
 1.4750	 8.3740
 1.4760	 8.4220
 1.4770	 8.4720
 1.4780	 8.5230
