Name: Ficus thonningii
Type: vegetation
Class: Tree
Genus: Ficus
Species: thonningii
Sample No.: JPL099
Owner: JPL
Wavelength Range: VSWIR
Origin: 34.12627; - 118.11182; WGS84
Collection Date: 2/2/2016
Description: Samples were collected at the Huntington Garden in San Marino California as part of a JPL Subcontract studying HyTES imagery. Samples were taken to JPL and processed within 48 hours of collection. The same leaves were processed in the Nicolet and then measured using the ASD.
Measurement: Bidirectional reflectance
First Column: X
Second Column: Y
X Units: Wavelength (micrometer)
Y Units: Reflectance (percentage)
First X Value: 0.35
Last X Value: 2.5
Number of X Values: 2151
Additional Information: 

 0.3500	12.3130
 0.3510	14.4470
 0.3520	13.5680
 0.3530	11.5480
 0.3540	10.8570
 0.3550	11.3130
 0.3560	11.7760
 0.3570	11.9760
 0.3580	12.0860
 0.3590	11.9500
 0.3600	11.6700
 0.3610	11.3880
 0.3620	11.2160
 0.3630	11.5290
 0.3640	11.9120
 0.3650	11.9400
 0.3660	11.8560
 0.3670	11.5800
 0.3680	11.4160
 0.3690	11.8490
 0.3700	12.1580
 0.3710	11.7820
 0.3720	10.9490
 0.3730	11.3980
 0.3740	11.6680
 0.3750	11.4360
 0.3760	10.9640
 0.3770	11.4100
 0.3780	11.5170
 0.3790	11.3210
 0.3800	11.9400
 0.3810	11.9070
 0.3820	11.9390
 0.3830	12.4090
 0.3840	12.1340
 0.3850	11.9490
 0.3860	11.6510
 0.3870	10.9510
 0.3880	11.2970
 0.3890	11.7620
 0.3900	11.8380
 0.3910	11.6230
 0.3920	11.7300
 0.3930	11.7770
 0.3940	11.5270
 0.3950	11.6890
 0.3960	11.6560
 0.3970	11.4680
 0.3980	11.4440
 0.3990	11.4700
 0.4000	11.6230
 0.4010	11.7660
 0.4020	11.4690
 0.4030	11.4240
 0.4040	11.4710
 0.4050	11.4160
 0.4060	11.7860
 0.4070	11.6130
 0.4080	11.1740
 0.4090	11.4670
 0.4100	11.7810
 0.4110	11.8290
 0.4120	11.5990
 0.4130	11.4250
 0.4140	11.3330
 0.4150	11.3440
 0.4160	11.4250
 0.4170	11.3870
 0.4180	11.3860
 0.4190	11.4560
 0.4200	11.5070
 0.4210	11.5080
 0.4220	11.4750
 0.4230	11.4480
 0.4240	11.4980
 0.4250	11.4750
 0.4260	11.4370
 0.4270	11.4990
 0.4280	11.4390
 0.4290	11.3740
 0.4300	11.3860
 0.4310	11.4700
 0.4320	11.3920
 0.4330	11.2190
 0.4340	11.0950
 0.4350	11.1150
 0.4360	11.1510
 0.4370	11.1600
 0.4380	11.1740
 0.4390	11.2510
 0.4400	11.3650
 0.4410	11.4610
 0.4420	11.4620
 0.4430	11.4240
 0.4440	11.3680
 0.4450	11.3180
 0.4460	11.3650
 0.4470	11.4180
 0.4480	11.4500
 0.4490	11.5190
 0.4500	11.5190
 0.4510	11.4220
 0.4520	11.2810
 0.4530	11.3350
 0.4540	11.3970
 0.4550	11.3970
 0.4560	11.3570
 0.4570	11.4010
 0.4580	11.4570
 0.4590	11.4620
 0.4600	11.4050
 0.4610	11.3700
 0.4620	11.3990
 0.4630	11.4830
 0.4640	11.4890
 0.4650	11.4660
 0.4660	11.4650
 0.4670	11.5170
 0.4680	11.5420
 0.4690	11.5520
 0.4700	11.5560
 0.4710	11.4820
 0.4720	11.4850
 0.4730	11.5310
 0.4740	11.5040
 0.4750	11.5350
 0.4760	11.5650
 0.4770	11.5530
 0.4780	11.5260
 0.4790	11.5030
 0.4800	11.4640
 0.4810	11.4010
 0.4820	11.4360
 0.4830	11.4530
 0.4840	11.4150
 0.4850	11.3700
 0.4860	11.3870
 0.4870	11.4060
 0.4880	11.3860
 0.4890	11.4010
 0.4900	11.3680
 0.4910	11.3340
 0.4920	11.3970
 0.4930	11.4870
 0.4940	11.4990
 0.4950	11.4460
 0.4960	11.4990
 0.4970	11.5200
 0.4980	11.5170
 0.4990	11.5320
 0.5000	11.5780
 0.5010	11.6270
 0.5020	11.6540
 0.5030	11.6400
 0.5040	11.6440
 0.5050	11.6810
 0.5060	11.7300
 0.5070	11.7050
 0.5080	11.7150
 0.5090	11.7660
 0.5100	11.8140
 0.5110	11.8220
 0.5120	11.8400
 0.5130	11.8970
 0.5140	11.9760
 0.5150	12.0540
 0.5160	12.0990
 0.5170	12.1140
 0.5180	12.2270
 0.5190	12.3220
 0.5200	12.3940
 0.5210	12.5290
 0.5220	12.6750
 0.5230	12.7810
 0.5240	12.8380
 0.5250	12.9310
 0.5260	13.0530
 0.5270	13.1780
 0.5280	13.2710
 0.5290	13.3740
 0.5300	13.4710
 0.5310	13.5580
 0.5320	13.6430
 0.5330	13.7080
 0.5340	13.7680
 0.5350	13.8280
 0.5360	13.8510
 0.5370	13.8800
 0.5380	13.9230
 0.5390	13.9590
 0.5400	13.9250
 0.5410	13.8290
 0.5420	13.7140
 0.5430	13.6560
 0.5440	13.6600
 0.5450	13.7120
 0.5460	13.7920
 0.5470	13.9290
 0.5480	14.0320
 0.5490	14.0700
 0.5500	14.1090
 0.5510	14.1350
 0.5520	14.1540
 0.5530	14.1740
 0.5540	14.1890
 0.5550	14.1840
 0.5560	14.1600
 0.5570	14.1330
 0.5580	14.0890
 0.5590	14.0350
 0.5600	13.9770
 0.5610	13.9180
 0.5620	13.8260
 0.5630	13.7320
 0.5640	13.6780
 0.5650	13.6090
 0.5660	13.5250
 0.5670	13.4380
 0.5680	13.3680
 0.5690	13.2840
 0.5700	13.1960
 0.5710	13.1170
 0.5720	13.0350
 0.5730	12.9560
 0.5740	12.8910
 0.5750	12.8460
 0.5760	12.7780
 0.5770	12.7180
 0.5780	12.6750
 0.5790	12.6010
 0.5800	12.5380
 0.5810	12.4970
 0.5820	12.4700
 0.5830	12.4340
 0.5840	12.4200
 0.5850	12.4190
 0.5860	12.3760
 0.5870	12.3410
 0.5880	12.3270
 0.5890	12.3280
 0.5900	12.3240
 0.5910	12.3110
 0.5920	12.2970
 0.5930	12.2920
 0.5940	12.2670
 0.5950	12.2460
 0.5960	12.2490
 0.5970	12.2820
 0.5980	12.2640
 0.5990	12.2270
 0.6000	12.2250
 0.6010	12.2150
 0.6020	12.2050
 0.6030	12.1990
 0.6040	12.1940
 0.6050	12.1910
 0.6060	12.1730
 0.6070	12.1300
 0.6080	12.0790
 0.6090	12.0060
 0.6100	11.8920
 0.6110	11.7410
 0.6120	11.7120
 0.6130	11.7620
 0.6140	11.8320
 0.6150	11.8560
 0.6160	11.8660
 0.6170	11.8640
 0.6180	11.8500
 0.6190	11.8620
 0.6200	11.8550
 0.6210	11.8230
 0.6220	11.7860
 0.6230	11.7910
 0.6240	11.8010
 0.6250	11.7950
 0.6260	11.8180
 0.6270	11.8230
 0.6280	11.8240
 0.6290	11.8490
 0.6300	11.8340
 0.6310	11.8100
 0.6320	11.8020
 0.6330	11.8210
 0.6340	11.8410
 0.6350	11.8480
 0.6360	11.8390
 0.6370	11.8230
 0.6380	11.8200
 0.6390	11.8230
 0.6400	11.8090
 0.6410	11.7970
 0.6420	11.7830
 0.6430	11.7680
 0.6440	11.7700
 0.6450	11.7590
 0.6460	11.7400
 0.6470	11.7320
 0.6480	11.7420
 0.6490	11.7550
 0.6500	11.7580
 0.6510	11.7450
 0.6520	11.7380
 0.6530	11.7360
 0.6540	11.7400
 0.6550	11.7600
 0.6560	11.7820
 0.6570	11.7920
 0.6580	11.7870
 0.6590	11.8030
 0.6600	11.8050
 0.6610	11.7910
 0.6620	11.7930
 0.6630	11.8090
 0.6640	11.8280
 0.6650	11.8400
 0.6660	11.8360
 0.6670	11.8510
 0.6680	11.8810
 0.6690	11.9040
 0.6700	11.9020
 0.6710	11.9080
 0.6720	11.9370
 0.6730	11.9810
 0.6740	11.9900
 0.6750	11.9990
 0.6760	12.0400
 0.6770	12.0650
 0.6780	12.0850
 0.6790	12.1130
 0.6800	12.1590
 0.6810	12.2160
 0.6820	12.2480
 0.6830	12.2570
 0.6840	12.3170
 0.6850	12.3680
 0.6860	12.3970
 0.6870	12.4150
 0.6880	12.4470
 0.6890	12.4860
 0.6900	12.5390
 0.6910	12.6240
 0.6920	12.7150
 0.6930	12.8170
 0.6940	12.9550
 0.6950	13.1920
 0.6960	13.4590
 0.6970	13.7670
 0.6980	14.1510
 0.6990	14.5860
 0.7000	15.0960
 0.7010	15.6830
 0.7020	16.3320
 0.7030	17.0030
 0.7040	17.7150
 0.7050	18.4820
 0.7060	19.2750
 0.7070	20.0930
 0.7080	20.9360
 0.7090	21.8100
 0.7100	22.7260
 0.7110	23.6730
 0.7120	24.6310
 0.7130	25.5860
 0.7140	26.5920
 0.7150	27.6040
 0.7160	28.5920
 0.7170	29.6170
 0.7180	30.6710
 0.7190	31.7230
 0.7200	32.7390
 0.7210	33.7860
 0.7220	34.8320
 0.7230	35.8620
 0.7240	36.8890
 0.7250	37.8690
 0.7260	38.8230
 0.7270	39.7710
 0.7280	40.7100
 0.7290	41.6090
 0.7300	42.4620
 0.7310	43.2740
 0.7320	44.0690
 0.7330	44.8380
 0.7340	45.5710
 0.7350	46.2580
 0.7360	46.9000
 0.7370	47.5060
 0.7380	48.0820
 0.7390	48.6290
 0.7400	49.1370
 0.7410	49.6070
 0.7420	50.0470
 0.7430	50.4670
 0.7440	50.8670
 0.7450	51.2270
 0.7460	51.5180
 0.7470	51.8240
 0.7480	52.1130
 0.7490	52.3560
 0.7500	52.5780
 0.7510	52.7800
 0.7520	52.9590
 0.7530	53.1190
 0.7540	53.2780
 0.7550	53.4180
 0.7560	53.5390
 0.7570	53.6590
 0.7580	53.7640
 0.7590	53.8560
 0.7600	53.9360
 0.7610	54.0000
 0.7620	54.0770
 0.7630	54.1460
 0.7640	54.1820
 0.7650	54.2190
 0.7660	54.2700
 0.7670	54.3200
 0.7680	54.3450
 0.7690	54.3600
 0.7700	54.3780
 0.7710	54.4040
 0.7720	54.4370
 0.7730	54.4500
 0.7740	54.4580
 0.7750	54.4740
 0.7760	54.4700
 0.7770	54.4810
 0.7780	54.5030
 0.7790	54.5170
 0.7800	54.5260
 0.7810	54.5250
 0.7820	54.5200
 0.7830	54.5250
 0.7840	54.5240
 0.7850	54.5250
 0.7860	54.5340
 0.7870	54.5420
 0.7880	54.5440
 0.7890	54.5420
 0.7900	54.5370
 0.7910	54.5230
 0.7920	54.5220
 0.7930	54.5340
 0.7940	54.5360
 0.7950	54.5210
 0.7960	54.5170
 0.7970	54.5230
 0.7980	54.4950
 0.7990	54.4870
 0.8000	54.4910
 0.8010	54.4880
 0.8020	54.4970
 0.8030	54.4710
 0.8040	54.4310
 0.8050	54.4190
 0.8060	54.4080
 0.8070	54.3990
 0.8080	54.3830
 0.8090	54.3550
 0.8100	54.3480
 0.8110	54.3530
 0.8120	54.3500
 0.8130	54.3120
 0.8140	54.3100
 0.8150	54.3260
 0.8160	54.3260
 0.8170	54.2860
 0.8180	54.2710
 0.8190	54.2810
 0.8200	54.2820
 0.8210	54.2480
 0.8220	54.2220
 0.8230	54.2180
 0.8240	54.2210
 0.8250	54.2240
 0.8260	54.2180
 0.8270	54.2000
 0.8280	54.1620
 0.8290	54.1570
 0.8300	54.1570
 0.8310	54.1360
 0.8320	54.1350
 0.8330	54.1360
 0.8340	54.1260
 0.8350	54.1010
 0.8360	54.0820
 0.8370	54.0950
 0.8380	54.1260
 0.8390	54.1270
 0.8400	54.1310
 0.8410	54.1270
 0.8420	54.1150
 0.8430	54.1130
 0.8440	54.1180
 0.8450	54.1230
 0.8460	54.1330
 0.8470	54.1660
 0.8480	54.1720
 0.8490	54.1630
 0.8500	54.1710
 0.8510	54.1660
 0.8520	54.1880
 0.8530	54.2220
 0.8540	54.2260
 0.8550	54.2230
 0.8560	54.2300
 0.8570	54.2410
 0.8580	54.2370
 0.8590	54.2660
 0.8600	54.2950
 0.8610	54.3020
 0.8620	54.2990
 0.8630	54.2990
 0.8640	54.3120
 0.8650	54.3340
 0.8660	54.3210
 0.8670	54.3390
 0.8680	54.3710
 0.8690	54.3820
 0.8700	54.4030
 0.8710	54.4250
 0.8720	54.4460
 0.8730	54.4660
 0.8740	54.4610
 0.8750	54.4830
 0.8760	54.5260
 0.8770	54.5270
 0.8780	54.5420
 0.8790	54.5580
 0.8800	54.5680
 0.8810	54.5890
 0.8820	54.5970
 0.8830	54.6110
 0.8840	54.6380
 0.8850	54.6320
 0.8860	54.6400
 0.8870	54.6570
 0.8880	54.6700
 0.8890	54.6730
 0.8900	54.6860
 0.8910	54.6900
 0.8920	54.6730
 0.8930	54.7440
 0.8940	54.7860
 0.8950	54.7850
 0.8960	54.7910
 0.8970	54.7710
 0.8980	54.7700
 0.8990	54.7980
 0.9000	54.8260
 0.9010	54.8450
 0.9020	54.8450
 0.9030	54.8330
 0.9040	54.8420
 0.9050	54.8630
 0.9060	54.8710
 0.9070	54.8570
 0.9080	54.8480
 0.9090	54.8870
 0.9100	54.9320
 0.9110	54.9430
 0.9120	54.9460
 0.9130	54.9360
 0.9140	54.9150
 0.9150	54.8900
 0.9160	54.8600
 0.9170	54.8740
 0.9180	54.9120
 0.9190	54.9220
 0.9200	54.8990
 0.9210	54.8830
 0.9220	54.8870
 0.9230	54.9060
 0.9240	54.9590
 0.9250	54.9060
 0.9260	54.8050
 0.9270	54.8310
 0.9280	54.8680
 0.9290	54.8440
 0.9300	54.7960
 0.9310	54.8300
 0.9320	54.7550
 0.9330	54.7060
 0.9340	54.7390
 0.9350	54.7620
 0.9360	54.7240
 0.9370	54.6960
 0.9380	54.6880
 0.9390	54.6050
 0.9400	54.5630
 0.9410	54.5710
 0.9420	54.5840
 0.9430	54.5110
 0.9440	54.4780
 0.9450	54.4510
 0.9460	54.3910
 0.9470	54.3360
 0.9480	54.3370
 0.9490	54.3350
 0.9500	54.2680
 0.9510	54.1540
 0.9520	54.1540
 0.9530	54.1690
 0.9540	54.0880
 0.9550	54.0230
 0.9560	53.9700
 0.9570	53.9100
 0.9580	53.8430
 0.9590	53.8570
 0.9600	53.8740
 0.9610	53.8550
 0.9620	53.7950
 0.9630	53.7070
 0.9640	53.7190
 0.9650	53.7410
 0.9660	53.6650
 0.9670	53.6850
 0.9680	53.7210
 0.9690	53.7060
 0.9700	53.6220
 0.9710	53.5860
 0.9720	53.5730
 0.9730	53.5460
 0.9740	53.4850
 0.9750	53.4640
 0.9760	53.4890
 0.9770	53.5590
 0.9780	53.6440
 0.9790	53.5630
 0.9800	53.5000
 0.9810	53.5400
 0.9820	53.6570
 0.9830	53.6020
 0.9840	53.6000
 0.9850	53.6490
 0.9860	53.6410
 0.9870	53.6240
 0.9880	53.6340
 0.9890	53.6890
 0.9900	53.7700
 0.9910	53.7620
 0.9920	53.7070
 0.9930	53.6430
 0.9940	53.5920
 0.9950	53.5450
 0.9960	53.5660
 0.9970	53.6410
 0.9980	53.7020
 0.9990	53.6440
 1.0000	53.6420
 1.0010	54.0430
 1.0020	54.0410
 1.0030	54.0260
 1.0040	53.9810
 1.0050	53.9870
 1.0060	54.0040
 1.0070	54.0220
 1.0080	54.0330
 1.0090	54.0300
 1.0100	54.0350
 1.0110	54.0410
 1.0120	54.0470
 1.0130	54.0720
 1.0140	54.0840
 1.0150	54.0820
 1.0160	54.0910
 1.0170	54.1010
 1.0180	54.0870
 1.0190	54.0830
 1.0200	54.1100
 1.0210	54.1720
 1.0220	54.1930
 1.0230	54.2030
 1.0240	54.2050
 1.0250	54.2110
 1.0260	54.1760
 1.0270	54.1890
 1.0280	54.2420
 1.0290	54.2760
 1.0300	54.3380
 1.0310	54.3620
 1.0320	54.3760
 1.0330	54.3500
 1.0340	54.3360
 1.0350	54.3000
 1.0360	54.3050
 1.0370	54.3720
 1.0380	54.4050
 1.0390	54.4680
 1.0400	54.4860
 1.0410	54.4660
 1.0420	54.4630
 1.0430	54.4430
 1.0440	54.4480
 1.0450	54.4690
 1.0460	54.4890
 1.0470	54.5280
 1.0480	54.5490
 1.0490	54.5690
 1.0500	54.5780
 1.0510	54.5650
 1.0520	54.5570
 1.0530	54.5660
 1.0540	54.5780
 1.0550	54.5920
 1.0560	54.6360
 1.0570	54.6410
 1.0580	54.6200
 1.0590	54.6150
 1.0600	54.5970
 1.0610	54.5950
 1.0620	54.6000
 1.0630	54.6180
 1.0640	54.6640
 1.0650	54.6830
 1.0660	54.7080
 1.0670	54.7190
 1.0680	54.7180
 1.0690	54.6910
 1.0700	54.6760
 1.0710	54.6600
 1.0720	54.6430
 1.0730	54.6100
 1.0740	54.6070
 1.0750	54.6200
 1.0760	54.6260
 1.0770	54.6440
 1.0780	54.6610
 1.0790	54.6800
 1.0800	54.6920
 1.0810	54.7180
 1.0820	54.7220
 1.0830	54.7010
 1.0840	54.6860
 1.0850	54.6540
 1.0860	54.6330
 1.0870	54.6350
 1.0880	54.6540
 1.0890	54.6620
 1.0900	54.6930
 1.0910	54.6920
 1.0920	54.6660
 1.0930	54.6510
 1.0940	54.6300
 1.0950	54.6120
 1.0960	54.5900
 1.0970	54.5810
 1.0980	54.5840
 1.0990	54.5740
 1.1000	54.5710
 1.1010	54.5600
 1.1020	54.5280
 1.1030	54.5040
 1.1040	54.5070
 1.1050	54.5250
 1.1060	54.5350
 1.1070	54.5700
 1.1080	54.5720
 1.1090	54.5540
 1.1100	54.5380
 1.1110	54.5070
 1.1120	54.4920
 1.1130	54.4780
 1.1140	54.4680
 1.1150	54.4720
 1.1160	54.4620
 1.1170	54.4380
 1.1180	54.4260
 1.1190	54.4110
 1.1200	54.4080
 1.1210	54.4020
 1.1220	54.4040
 1.1230	54.3950
 1.1240	54.3720
 1.1250	54.3440
 1.1260	54.3100
 1.1270	54.2690
 1.1280	54.2200
 1.1290	54.1660
 1.1300	54.0960
 1.1310	54.0420
 1.1320	53.9920
 1.1330	53.9370
 1.1340	53.9010
 1.1350	53.8380
 1.1360	53.7590
 1.1370	53.6710
 1.1380	53.5800
 1.1390	53.4770
 1.1400	53.3740
 1.1410	53.2720
 1.1420	53.1450
 1.1430	53.0220
 1.1440	52.9230
 1.1450	52.8290
 1.1460	52.7390
 1.1470	52.6730
 1.1480	52.5950
 1.1490	52.5090
 1.1500	52.4280
 1.1510	52.3460
 1.1520	52.2720
 1.1530	52.2010
 1.1540	52.1340
 1.1550	52.0700
 1.1560	52.0180
 1.1570	51.9690
 1.1580	51.9210
 1.1590	51.8920
 1.1600	51.8660
 1.1610	51.8420
 1.1620	51.8270
 1.1630	51.8200
 1.1640	51.8210
 1.1650	51.8120
 1.1660	51.8060
 1.1670	51.7950
 1.1680	51.7760
 1.1690	51.7560
 1.1700	51.7310
 1.1710	51.7130
 1.1720	51.6930
 1.1730	51.6820
 1.1740	51.6770
 1.1750	51.6790
 1.1760	51.6850
 1.1770	51.6730
 1.1780	51.6550
 1.1790	51.6400
 1.1800	51.6200
 1.1810	51.6100
 1.1820	51.6140
 1.1830	51.6140
 1.1840	51.6140
 1.1850	51.6000
 1.1860	51.5860
 1.1870	51.5790
 1.1880	51.5680
 1.1890	51.5580
 1.1900	51.5500
 1.1910	51.5280
 1.1920	51.5290
 1.1930	51.5520
 1.1940	51.5540
 1.1950	51.5620
 1.1960	51.5610
 1.1970	51.5330
 1.1980	51.5110
 1.1990	51.5020
 1.2000	51.5160
 1.2010	51.5430
 1.2020	51.5690
 1.2030	51.5870
 1.2040	51.5850
 1.2050	51.5950
 1.2060	51.5990
 1.2070	51.5920
 1.2080	51.6030
 1.2090	51.6080
 1.2100	51.6160
 1.2110	51.6290
 1.2120	51.6540
 1.2130	51.6740
 1.2140	51.6960
 1.2150	51.7060
 1.2160	51.7090
 1.2170	51.7130
 1.2180	51.7290
 1.2190	51.7490
 1.2200	51.7710
 1.2210	51.7920
 1.2220	51.7960
 1.2230	51.7920
 1.2240	51.8080
 1.2250	51.8240
 1.2260	51.8210
 1.2270	51.8250
 1.2280	51.8260
 1.2290	51.8290
 1.2300	51.8430
 1.2310	51.8680
 1.2320	51.9050
 1.2330	51.9180
 1.2340	51.9310
 1.2350	51.9420
 1.2360	51.9550
 1.2370	51.9570
 1.2380	51.9770
 1.2390	51.9970
 1.2400	52.0160
 1.2410	52.0240
 1.2420	52.0270
 1.2430	52.0440
 1.2440	52.0530
 1.2450	52.0620
 1.2460	52.0920
 1.2470	52.1180
 1.2480	52.1310
 1.2490	52.1450
 1.2500	52.1450
 1.2510	52.1350
 1.2520	52.1310
 1.2530	52.1320
 1.2540	52.1340
 1.2550	52.1370
 1.2560	52.1400
 1.2570	52.1510
 1.2580	52.1540
 1.2590	52.1530
 1.2600	52.1550
 1.2610	52.1560
 1.2620	52.1480
 1.2630	52.1480
 1.2640	52.1670
 1.2650	52.1660
 1.2660	52.1620
 1.2670	52.1600
 1.2680	52.1340
 1.2690	52.1150
 1.2700	52.1180
 1.2710	52.1130
 1.2720	52.1080
 1.2730	52.1130
 1.2740	52.1010
 1.2750	52.0770
 1.2760	52.0630
 1.2770	52.0550
 1.2780	52.0380
 1.2790	52.0260
 1.2800	52.0210
 1.2810	51.9920
 1.2820	51.9530
 1.2830	51.9330
 1.2840	51.9180
 1.2850	51.9030
 1.2860	51.8930
 1.2870	51.8800
 1.2880	51.8680
 1.2890	51.8370
 1.2900	51.8060
 1.2910	51.7820
 1.2920	51.7520
 1.2930	51.7160
 1.2940	51.6760
 1.2950	51.6360
 1.2960	51.6000
 1.2970	51.5510
 1.2980	51.5100
 1.2990	51.4750
 1.3000	51.4230
 1.3010	51.3850
 1.3020	51.3560
 1.3030	51.3120
 1.3040	51.2640
 1.3050	51.2040
 1.3060	51.1420
 1.3070	51.0930
 1.3080	51.0510
 1.3090	51.0060
 1.3100	50.9540
 1.3110	50.8930
 1.3120	50.8130
 1.3130	50.7340
 1.3140	50.6650
 1.3150	50.6010
 1.3160	50.5320
 1.3170	50.4680
 1.3180	50.4070
 1.3190	50.3360
 1.3200	50.2530
 1.3210	50.1710
 1.3220	50.0900
 1.3230	50.0050
 1.3240	49.9130
 1.3250	49.8270
 1.3260	49.7350
 1.3270	49.6260
 1.3280	49.5280
 1.3290	49.4290
 1.3300	49.3330
 1.3310	49.2390
 1.3320	49.1410
 1.3330	49.0560
 1.3340	48.9650
 1.3350	48.8670
 1.3360	48.7760
 1.3370	48.6740
 1.3380	48.5760
 1.3390	48.4870
 1.3400	48.3890
 1.3410	48.2840
 1.3420	48.1720
 1.3430	48.0650
 1.3440	47.9650
 1.3450	47.8660
 1.3460	47.7770
 1.3470	47.6830
 1.3480	47.5840
 1.3490	47.4920
 1.3500	47.4020
 1.3510	47.3100
 1.3520	47.2240
 1.3530	47.1310
 1.3540	47.0370
 1.3550	46.9510
 1.3560	46.8550
 1.3570	46.7650
 1.3580	46.6810
 1.3590	46.5840
 1.3600	46.4840
 1.3610	46.3780
 1.3620	46.2670
 1.3630	46.1420
 1.3640	46.0070
 1.3650	45.8710
 1.3660	45.7300
 1.3670	45.5930
 1.3680	45.4570
 1.3690	45.2950
 1.3700	45.1200
 1.3710	44.9260
 1.3720	44.7130
 1.3730	44.4980
 1.3740	44.2550
 1.3750	43.9930
 1.3760	43.7210
 1.3770	43.4240
 1.3780	43.1070
 1.3790	42.7700
 1.3800	42.4070
 1.3810	42.0200
 1.3820	41.6140
 1.3830	41.1880
 1.3840	40.7470
 1.3850	40.2870
 1.3860	39.8120
 1.3870	39.3210
 1.3880	38.8180
 1.3890	38.2960
 1.3900	37.7650
 1.3910	37.2320
 1.3920	36.6920
 1.3930	36.1460
 1.3940	35.6100
 1.3950	35.0740
 1.3960	34.5420
 1.3970	34.0190
 1.3980	33.5070
 1.3990	33.0130
 1.4000	32.5340
 1.4010	32.0740
 1.4020	31.6280
 1.4030	31.1940
 1.4040	30.7790
 1.4050	30.3860
 1.4060	30.0090
 1.4070	29.6570
 1.4080	29.3290
 1.4090	29.0200
 1.4100	28.7370
 1.4110	28.4680
 1.4120	28.2170
 1.4130	27.9850
 1.4140	27.7630
 1.4150	27.5610
 1.4160	27.3750
 1.4170	27.1950
 1.4180	27.0320
 1.4190	26.8820
 1.4200	26.7410
 1.4210	26.6110
 1.4220	26.4910
 1.4230	26.3810
 1.4240	26.2740
 1.4250	26.1780
 1.4260	26.0920
 1.4270	26.0150
 1.4280	25.9480
 1.4290	25.8830
 1.4300	25.8270
 1.4310	25.7710
 1.4320	25.7140
 1.4330	25.6690
 1.4340	25.6330
 1.4350	25.5990
 1.4360	25.5720
 1.4370	25.5470
 1.4380	25.5190
 1.4390	25.5030
 1.4400	25.4970
 1.4410	25.4940
 1.4420	25.4980
 1.4430	25.4960
 1.4440	25.4910
 1.4450	25.4890
 1.4460	25.4900
 1.4470	25.5000
 1.4480	25.5130
 1.4490	25.5240
 1.4500	25.5370
 1.4510	25.5430
 1.4520	25.5480
 1.4530	25.5610
 1.4540	25.5770
 1.4550	25.6030
 1.4560	25.6340
 1.4570	25.6640
 1.4580	25.6970
 1.4590	25.7280
 1.4600	25.7660
 1.4610	25.8170
 1.4620	25.8660
 1.4630	25.9250
 1.4640	25.9880
 1.4650	26.0480
 1.4660	26.1180
 1.4670	26.1910
 1.4680	26.2730
 1.4690	26.3620
 1.4700	26.4510
 1.4710	26.5470
 1.4720	26.6430
 1.4730	26.7390
 1.4740	26.8430
 1.4750	26.9480
 1.4760	27.0590
 1.4770	27.1770
 1.4780	27.2970
 1.4790	27.4250
 1.4800	27.5520
 1.4810	27.6760
