Name: Quercus robur
Type: vegetation
Class: Tree
Genus: Quercus
Species: robur
Sample No.: JPL250
Owner: JPL
Wavelength Range: VSWIR
Origin: 34.12896; -118.11382; WGS84
Collection Date: 10/6/2016
Description: Samples were collected at the Huntington Garden in San Marino California as part of a JPL Subcontract studying HyTES imagery. Samples were taken to JPL and processed within 48 hours of collection. The same leaves were processed in the Nicolet and then measured using the ASD.
Measurement: Bidirectional reflectance
First Column: X
Second Column: Y
X Units: Wavelength (micrometer)
Y Units: Reflectance (percentage)
First X Value: 0.35
Last X Value: 2.5
Number of X Values: 2151
Additional Information: vegetation.tree.quercus.robur.vswir.jpl250.jpl.asd.ancillary.txt

 0.3500	 5.6560
 0.3510	 5.4310
 0.3520	 5.2220
 0.3530	 5.1920
 0.3540	 5.3330
 0.3550	 5.2740
 0.3560	 5.2520
 0.3570	 5.2920
 0.3580	 5.3100
 0.3590	 5.3090
 0.3600	 5.2590
 0.3610	 5.1790
 0.3620	 5.1460
 0.3630	 5.1410
 0.3640	 5.1720
 0.3650	 5.2210
 0.3660	 5.1690
 0.3670	 5.1210
 0.3680	 5.1120
 0.3690	 5.1260
 0.3700	 5.1160
 0.3710	 5.1220
 0.3720	 5.1500
 0.3730	 5.1360
 0.3740	 5.1050
 0.3750	 5.0630
 0.3760	 5.0290
 0.3770	 5.1070
 0.3780	 5.1280
 0.3790	 5.0870
 0.3800	 5.1180
 0.3810	 5.1630
 0.3820	 5.1720
 0.3830	 5.1340
 0.3840	 5.1170
 0.3850	 5.0850
 0.3860	 5.0820
 0.3870	 5.1500
 0.3880	 5.1810
 0.3890	 5.1660
 0.3900	 5.1270
 0.3910	 5.1060
 0.3920	 5.1100
 0.3930	 5.1250
 0.3940	 5.1410
 0.3950	 5.1730
 0.3960	 5.1920
 0.3970	 5.2070
 0.3980	 5.2420
 0.3990	 5.2680
 0.4000	 5.2740
 0.4010	 5.2740
 0.4020	 5.3080
 0.4030	 5.3360
 0.4040	 5.3480
 0.4050	 5.3500
 0.4060	 5.3710
 0.4070	 5.3980
 0.4080	 5.4210
 0.4090	 5.4370
 0.4100	 5.4390
 0.4110	 5.4450
 0.4120	 5.4640
 0.4130	 5.4840
 0.4140	 5.5110
 0.4150	 5.5320
 0.4160	 5.5360
 0.4170	 5.5580
 0.4180	 5.5840
 0.4190	 5.6050
 0.4200	 5.6230
 0.4210	 5.6260
 0.4220	 5.6330
 0.4230	 5.6520
 0.4240	 5.6460
 0.4250	 5.6540
 0.4260	 5.6740
 0.4270	 5.6810
 0.4280	 5.6890
 0.4290	 5.6960
 0.4300	 5.7020
 0.4310	 5.7100
 0.4320	 5.7090
 0.4330	 5.7120
 0.4340	 5.7260
 0.4350	 5.7330
 0.4360	 5.7380
 0.4370	 5.7410
 0.4380	 5.7390
 0.4390	 5.7460
 0.4400	 5.7490
 0.4410	 5.7430
 0.4420	 5.7460
 0.4430	 5.7480
 0.4440	 5.7490
 0.4450	 5.7510
 0.4460	 5.7610
 0.4470	 5.7720
 0.4480	 5.7780
 0.4490	 5.7800
 0.4500	 5.7870
 0.4510	 5.7950
 0.4520	 5.7970
 0.4530	 5.8000
 0.4540	 5.8000
 0.4550	 5.8020
 0.4560	 5.8150
 0.4570	 5.8180
 0.4580	 5.8160
 0.4590	 5.8150
 0.4600	 5.8140
 0.4610	 5.8150
 0.4620	 5.8170
 0.4630	 5.8170
 0.4640	 5.8190
 0.4650	 5.8160
 0.4660	 5.8110
 0.4670	 5.8120
 0.4680	 5.8160
 0.4690	 5.8180
 0.4700	 5.8180
 0.4710	 5.8120
 0.4720	 5.8140
 0.4730	 5.8190
 0.4740	 5.8140
 0.4750	 5.8100
 0.4760	 5.8120
 0.4770	 5.8170
 0.4780	 5.8130
 0.4790	 5.8110
 0.4800	 5.8090
 0.4810	 5.8070
 0.4820	 5.8160
 0.4830	 5.8260
 0.4840	 5.8310
 0.4850	 5.8290
 0.4860	 5.8320
 0.4870	 5.8380
 0.4880	 5.8440
 0.4890	 5.8520
 0.4900	 5.8570
 0.4910	 5.8630
 0.4920	 5.8730
 0.4930	 5.8840
 0.4940	 5.8970
 0.4950	 5.9120
 0.4960	 5.9300
 0.4970	 5.9460
 0.4980	 5.9620
 0.4990	 5.9820
 0.5000	 6.0060
 0.5010	 6.0380
 0.5020	 6.0760
 0.5030	 6.1150
 0.5040	 6.1540
 0.5050	 6.2010
 0.5060	 6.2620
 0.5070	 6.3260
 0.5080	 6.3990
 0.5090	 6.4780
 0.5100	 6.5640
 0.5110	 6.6680
 0.5120	 6.7850
 0.5130	 6.9100
 0.5140	 7.0460
 0.5150	 7.1990
 0.5160	 7.3670
 0.5170	 7.5480
 0.5180	 7.7430
 0.5190	 7.9480
 0.5200	 8.1630
 0.5210	 8.3850
 0.5220	 8.6090
 0.5230	 8.8380
 0.5240	 9.0710
 0.5250	 9.2970
 0.5260	 9.5190
 0.5270	 9.7350
 0.5280	 9.9390
 0.5290	10.1290
 0.5300	10.3070
 0.5310	10.4750
 0.5320	10.6300
 0.5330	10.7730
 0.5340	10.9020
 0.5350	11.0200
 0.5360	11.1260
 0.5370	11.2190
 0.5380	11.3030
 0.5390	11.3840
 0.5400	11.4650
 0.5410	11.5500
 0.5420	11.6350
 0.5430	11.7080
 0.5440	11.7650
 0.5450	11.8060
 0.5460	11.8340
 0.5470	11.8520
 0.5480	11.8710
 0.5490	11.8950
 0.5500	11.9210
 0.5510	11.9390
 0.5520	11.9440
 0.5530	11.9370
 0.5540	11.9140
 0.5550	11.8740
 0.5560	11.8180
 0.5570	11.7510
 0.5580	11.6670
 0.5590	11.5720
 0.5600	11.4690
 0.5610	11.3550
 0.5620	11.2340
 0.5630	11.1090
 0.5640	10.9790
 0.5650	10.8480
 0.5660	10.7140
 0.5670	10.5770
 0.5680	10.4340
 0.5690	10.2870
 0.5700	10.1380
 0.5710	 9.9880
 0.5720	 9.8420
 0.5730	 9.7020
 0.5740	 9.5680
 0.5750	 9.4400
 0.5760	 9.3230
 0.5770	 9.2130
 0.5780	 9.1100
 0.5790	 9.0160
 0.5800	 8.9310
 0.5810	 8.8520
 0.5820	 8.7750
 0.5830	 8.7060
 0.5840	 8.6410
 0.5850	 8.5770
 0.5860	 8.5110
 0.5870	 8.4510
 0.5880	 8.3970
 0.5890	 8.3490
 0.5900	 8.3040
 0.5910	 8.2630
 0.5920	 8.2250
 0.5930	 8.1930
 0.5940	 8.1640
 0.5950	 8.1400
 0.5960	 8.1200
 0.5970	 8.0990
 0.5980	 8.0770
 0.5990	 8.0540
 0.6000	 8.0280
 0.6010	 7.9980
 0.6020	 7.9630
 0.6030	 7.9230
 0.6040	 7.8790
 0.6050	 7.8290
 0.6060	 7.7740
 0.6070	 7.7130
 0.6080	 7.6500
 0.6090	 7.5910
 0.6100	 7.5370
 0.6110	 7.4850
 0.6120	 7.4210
 0.6130	 7.3460
 0.6140	 7.2690
 0.6150	 7.2040
 0.6160	 7.1420
 0.6170	 7.0850
 0.6180	 7.0350
 0.6190	 6.9940
 0.6200	 6.9570
 0.6210	 6.9220
 0.6220	 6.8910
 0.6230	 6.8630
 0.6240	 6.8400
 0.6250	 6.8210
 0.6260	 6.8060
 0.6270	 6.7950
 0.6280	 6.7870
 0.6290	 6.7810
 0.6300	 6.7740
 0.6310	 6.7670
 0.6320	 6.7580
 0.6330	 6.7490
 0.6340	 6.7340
 0.6350	 6.7130
 0.6360	 6.6880
 0.6370	 6.6530
 0.6380	 6.6150
 0.6390	 6.5750
 0.6400	 6.5290
 0.6410	 6.4810
 0.6420	 6.4320
 0.6430	 6.3800
 0.6440	 6.3290
 0.6450	 6.2820
 0.6460	 6.2380
 0.6470	 6.1980
 0.6480	 6.1570
 0.6490	 6.1240
 0.6500	 6.0970
 0.6510	 6.0730
 0.6520	 6.0480
 0.6530	 6.0280
 0.6540	 6.0120
 0.6550	 5.9890
 0.6560	 5.9640
 0.6570	 5.9400
 0.6580	 5.9160
 0.6590	 5.8880
 0.6600	 5.8590
 0.6610	 5.8320
 0.6620	 5.8090
 0.6630	 5.7900
 0.6640	 5.7750
 0.6650	 5.7630
 0.6660	 5.7540
 0.6670	 5.7500
 0.6680	 5.7520
 0.6690	 5.7570
 0.6700	 5.7640
 0.6710	 5.7760
 0.6720	 5.7940
 0.6730	 5.8140
 0.6740	 5.8380
 0.6750	 5.8640
 0.6760	 5.8930
 0.6770	 5.9250
 0.6780	 5.9640
 0.6790	 6.0060
 0.6800	 6.0480
 0.6810	 6.0950
 0.6820	 6.1460
 0.6830	 6.2010
 0.6840	 6.2550
 0.6850	 6.3140
 0.6860	 6.3790
 0.6870	 6.4520
 0.6880	 6.5380
 0.6890	 6.6470
 0.6900	 6.7900
 0.6910	 6.9800
 0.6920	 7.2270
 0.6930	 7.5400
 0.6940	 7.9280
 0.6950	 8.3950
 0.6960	 8.9440
 0.6970	 9.5700
 0.6980	10.2690
 0.6990	11.0330
 0.7000	11.8510
 0.7010	12.7130
 0.7020	13.6050
 0.7030	14.5160
 0.7040	15.4390
 0.7050	16.3670
 0.7060	17.2940
 0.7070	18.2160
 0.7080	19.1300
 0.7090	20.0350
 0.7100	20.9300
 0.7110	21.8190
 0.7120	22.6990
 0.7130	23.5680
 0.7140	24.4240
 0.7150	25.2690
 0.7160	26.1030
 0.7170	26.9270
 0.7180	27.7350
 0.7190	28.5230
 0.7200	29.2920
 0.7210	30.0410
 0.7220	30.7690
 0.7230	31.4720
 0.7240	32.1500
 0.7250	32.8050
 0.7260	33.4340
 0.7270	34.0330
 0.7280	34.6030
 0.7290	35.1470
 0.7300	35.6640
 0.7310	36.1530
 0.7320	36.6150
 0.7330	37.0500
 0.7340	37.4590
 0.7350	37.8390
 0.7360	38.1970
 0.7370	38.5330
 0.7380	38.8460
 0.7390	39.1370
 0.7400	39.4060
 0.7410	39.6560
 0.7420	39.8850
 0.7430	40.0930
 0.7440	40.2830
 0.7450	40.4550
 0.7460	40.6120
 0.7470	40.7520
 0.7480	40.8770
 0.7490	40.9880
 0.7500	41.0890
 0.7510	41.1810
 0.7520	41.2620
 0.7530	41.3340
 0.7540	41.3960
 0.7550	41.4510
 0.7560	41.5000
 0.7570	41.5450
 0.7580	41.5820
 0.7590	41.6170
 0.7600	41.6490
 0.7610	41.6740
 0.7620	41.6950
 0.7630	41.7130
 0.7640	41.7280
 0.7650	41.7420
 0.7660	41.7520
 0.7670	41.7590
 0.7680	41.7620
 0.7690	41.7630
 0.7700	41.7650
 0.7710	41.7680
 0.7720	41.7700
 0.7730	41.7710
 0.7740	41.7730
 0.7750	41.7740
 0.7760	41.7720
 0.7770	41.7700
 0.7780	41.7690
 0.7790	41.7680
 0.7800	41.7680
 0.7810	41.7710
 0.7820	41.7740
 0.7830	41.7750
 0.7840	41.7760
 0.7850	41.7760
 0.7860	41.7720
 0.7870	41.7700
 0.7880	41.7690
 0.7890	41.7660
 0.7900	41.7620
 0.7910	41.7590
 0.7920	41.7560
 0.7930	41.7540
 0.7940	41.7520
 0.7950	41.7510
 0.7960	41.7470
 0.7970	41.7410
 0.7980	41.7350
 0.7990	41.7290
 0.8000	41.7230
 0.8010	41.7160
 0.8020	41.7120
 0.8030	41.7050
 0.8040	41.6970
 0.8050	41.6930
 0.8060	41.6850
 0.8070	41.6770
 0.8080	41.6700
 0.8090	41.6640
 0.8100	41.6550
 0.8110	41.6460
 0.8120	41.6380
 0.8130	41.6280
 0.8140	41.6180
 0.8150	41.6090
 0.8160	41.6010
 0.8170	41.5910
 0.8180	41.5830
 0.8190	41.5760
 0.8200	41.5660
 0.8210	41.5570
 0.8220	41.5470
 0.8230	41.5380
 0.8240	41.5300
 0.8250	41.5200
 0.8260	41.5110
 0.8270	41.5040
 0.8280	41.4980
 0.8290	41.4880
 0.8300	41.4770
 0.8310	41.4710
 0.8320	41.4610
 0.8330	41.4540
 0.8340	41.4500
 0.8350	41.4430
 0.8360	41.4350
 0.8370	41.4280
 0.8380	41.4230
 0.8390	41.4190
 0.8400	41.4130
 0.8410	41.4100
 0.8420	41.4080
 0.8430	41.4030
 0.8440	41.3980
 0.8450	41.3940
 0.8460	41.3890
 0.8470	41.3880
 0.8480	41.3880
 0.8490	41.3870
 0.8500	41.3810
 0.8510	41.3760
 0.8520	41.3730
 0.8530	41.3720
 0.8540	41.3720
 0.8550	41.3700
 0.8560	41.3670
 0.8570	41.3640
 0.8580	41.3630
 0.8590	41.3640
 0.8600	41.3660
 0.8610	41.3690
 0.8620	41.3670
 0.8630	41.3690
 0.8640	41.3710
 0.8650	41.3700
 0.8660	41.3690
 0.8670	41.3710
 0.8680	41.3730
 0.8690	41.3720
 0.8700	41.3740
 0.8710	41.3790
 0.8720	41.3840
 0.8730	41.3860
 0.8740	41.3890
 0.8750	41.3930
 0.8760	41.3960
 0.8770	41.3940
 0.8780	41.3910
 0.8790	41.3920
 0.8800	41.3980
 0.8810	41.4030
 0.8820	41.4040
 0.8830	41.4070
 0.8840	41.4140
 0.8850	41.4140
 0.8860	41.4160
 0.8870	41.4190
 0.8880	41.4200
 0.8890	41.4210
 0.8900	41.4260
 0.8910	41.4320
 0.8920	41.4320
 0.8930	41.4360
 0.8940	41.4370
 0.8950	41.4360
 0.8960	41.4380
 0.8970	41.4430
 0.8980	41.4450
 0.8990	41.4440
 0.9000	41.4490
 0.9010	41.4510
 0.9020	41.4520
 0.9030	41.4550
 0.9040	41.4580
 0.9050	41.4610
 0.9060	41.4630
 0.9070	41.4630
 0.9080	41.4660
 0.9090	41.4660
 0.9100	41.4640
 0.9110	41.4630
 0.9120	41.4650
 0.9130	41.4650
 0.9140	41.4650
 0.9150	41.4640
 0.9160	41.4650
 0.9170	41.4640
 0.9180	41.4620
 0.9190	41.4620
 0.9200	41.4640
 0.9210	41.4610
 0.9220	41.4540
 0.9230	41.4480
 0.9240	41.4500
 0.9250	41.4450
 0.9260	41.4330
 0.9270	41.4300
 0.9280	41.4250
 0.9290	41.4150
 0.9300	41.4040
 0.9310	41.4010
 0.9320	41.3940
 0.9330	41.3850
 0.9340	41.3740
 0.9350	41.3580
 0.9360	41.3500
 0.9370	41.3430
 0.9380	41.3310
 0.9390	41.3170
 0.9400	41.3030
 0.9410	41.2910
 0.9420	41.2810
 0.9430	41.2640
 0.9440	41.2460
 0.9450	41.2280
 0.9460	41.2100
 0.9470	41.1910
 0.9480	41.1800
 0.9490	41.1650
 0.9500	41.1400
 0.9510	41.1220
 0.9520	41.0950
 0.9530	41.0660
 0.9540	41.0430
 0.9550	41.0160
 0.9560	40.9960
 0.9570	40.9770
 0.9580	40.9540
 0.9590	40.9280
 0.9600	40.9060
 0.9610	40.8850
 0.9620	40.8620
 0.9630	40.8420
 0.9640	40.8340
 0.9650	40.8260
 0.9660	40.8070
 0.9670	40.7980
 0.9680	40.7820
 0.9690	40.7650
 0.9700	40.7600
 0.9710	40.7520
 0.9720	40.7420
 0.9730	40.7340
 0.9740	40.7310
 0.9750	40.7310
 0.9760	40.7290
 0.9770	40.7250
 0.9780	40.7180
 0.9790	40.7040
 0.9800	40.6930
 0.9810	40.6860
 0.9820	40.6840
 0.9830	40.6840
 0.9840	40.6780
 0.9850	40.6670
 0.9860	40.6610
 0.9870	40.6600
 0.9880	40.6710
 0.9890	40.6820
 0.9900	40.6810
 0.9910	40.6750
 0.9920	40.6690
 0.9930	40.6700
 0.9940	40.6840
 0.9950	40.6880
 0.9960	40.6930
 0.9970	40.6930
 0.9980	40.6820
 0.9990	40.6830
 1.0000	40.6830
 1.0010	41.0460
 1.0020	41.0480
 1.0030	41.0490
 1.0040	41.0520
 1.0050	41.0560
 1.0060	41.0620
 1.0070	41.0690
 1.0080	41.0740
 1.0090	41.0820
 1.0100	41.0850
 1.0110	41.0860
 1.0120	41.0890
 1.0130	41.0910
 1.0140	41.0940
 1.0150	41.1010
 1.0160	41.1030
 1.0170	41.1050
 1.0180	41.1080
 1.0190	41.1100
 1.0200	41.1130
 1.0210	41.1160
 1.0220	41.1170
 1.0230	41.1200
 1.0240	41.1260
 1.0250	41.1280
 1.0260	41.1310
 1.0270	41.1350
 1.0280	41.1360
 1.0290	41.1400
 1.0300	41.1460
 1.0310	41.1500
 1.0320	41.1560
 1.0330	41.1590
 1.0340	41.1620
 1.0350	41.1660
 1.0360	41.1680
 1.0370	41.1690
 1.0380	41.1700
 1.0390	41.1700
 1.0400	41.1710
 1.0410	41.1730
 1.0420	41.1770
 1.0430	41.1840
 1.0440	41.1870
 1.0450	41.1920
 1.0460	41.1930
 1.0470	41.1900
 1.0480	41.1910
 1.0490	41.1910
 1.0500	41.1900
 1.0510	41.1900
 1.0520	41.1920
 1.0530	41.1930
 1.0540	41.1930
 1.0550	41.1920
 1.0560	41.1900
 1.0570	41.1900
 1.0580	41.1900
 1.0590	41.1890
 1.0600	41.1890
 1.0610	41.1890
 1.0620	41.1890
 1.0630	41.1870
 1.0640	41.1870
 1.0650	41.1860
 1.0660	41.1790
 1.0670	41.1760
 1.0680	41.1740
 1.0690	41.1740
 1.0700	41.1720
 1.0710	41.1720
 1.0720	41.1710
 1.0730	41.1680
 1.0740	41.1650
 1.0750	41.1630
 1.0760	41.1600
 1.0770	41.1570
 1.0780	41.1540
 1.0790	41.1510
 1.0800	41.1480
 1.0810	41.1440
 1.0820	41.1410
 1.0830	41.1400
 1.0840	41.1370
 1.0850	41.1330
 1.0860	41.1290
 1.0870	41.1230
 1.0880	41.1130
 1.0890	41.1090
 1.0900	41.1070
 1.0910	41.1030
 1.0920	41.1040
 1.0930	41.1010
 1.0940	41.0940
 1.0950	41.0880
 1.0960	41.0820
 1.0970	41.0770
 1.0980	41.0750
 1.0990	41.0700
 1.1000	41.0620
 1.1010	41.0570
 1.1020	41.0510
 1.1030	41.0480
 1.1040	41.0440
 1.1050	41.0390
 1.1060	41.0330
 1.1070	41.0220
 1.1080	41.0160
 1.1090	41.0130
 1.1100	41.0080
 1.1110	41.0030
 1.1120	40.9970
 1.1130	40.9890
 1.1140	40.9830
 1.1150	40.9800
 1.1160	40.9730
 1.1170	40.9640
 1.1180	40.9560
 1.1190	40.9480
 1.1200	40.9370
 1.1210	40.9270
 1.1220	40.9170
 1.1230	40.9040
 1.1240	40.8910
 1.1250	40.8750
 1.1260	40.8590
 1.1270	40.8380
 1.1280	40.8150
 1.1290	40.7900
 1.1300	40.7650
 1.1310	40.7350
 1.1320	40.7040
 1.1330	40.6700
 1.1340	40.6330
 1.1350	40.5940
 1.1360	40.5520
 1.1370	40.5090
 1.1380	40.4610
 1.1390	40.4110
 1.1400	40.3590
 1.1410	40.3060
 1.1420	40.2520
 1.1430	40.1970
 1.1440	40.1430
 1.1450	40.0880
 1.1460	40.0350
 1.1470	39.9820
 1.1480	39.9310
 1.1490	39.8790
 1.1500	39.8300
 1.1510	39.7840
 1.1520	39.7390
 1.1530	39.6960
 1.1540	39.6570
 1.1550	39.6220
 1.1560	39.5860
 1.1570	39.5550
 1.1580	39.5260
 1.1590	39.4950
 1.1600	39.4670
 1.1610	39.4430
 1.1620	39.4200
 1.1630	39.4030
 1.1640	39.3880
 1.1650	39.3710
 1.1660	39.3550
 1.1670	39.3410
 1.1680	39.3270
 1.1690	39.3140
 1.1700	39.3040
 1.1710	39.2920
 1.1720	39.2790
 1.1730	39.2670
 1.1740	39.2550
 1.1750	39.2440
 1.1760	39.2330
 1.1770	39.2210
 1.1780	39.2060
 1.1790	39.1920
 1.1800	39.1790
 1.1810	39.1670
 1.1820	39.1560
 1.1830	39.1460
 1.1840	39.1330
 1.1850	39.1200
 1.1860	39.1100
 1.1870	39.0970
 1.1880	39.0860
 1.1890	39.0780
 1.1900	39.0700
 1.1910	39.0620
 1.1920	39.0550
 1.1930	39.0490
 1.1940	39.0410
 1.1950	39.0330
 1.1960	39.0260
 1.1970	39.0210
 1.1980	39.0160
 1.1990	39.0150
 1.2000	39.0160
 1.2010	39.0150
 1.2020	39.0150
 1.2030	39.0160
 1.2040	39.0140
 1.2050	39.0140
 1.2060	39.0130
 1.2070	39.0150
 1.2080	39.0160
 1.2090	39.0210
 1.2100	39.0270
 1.2110	39.0310
 1.2120	39.0360
 1.2130	39.0430
 1.2140	39.0480
 1.2150	39.0550
 1.2160	39.0630
 1.2170	39.0710
 1.2180	39.0790
 1.2190	39.0880
 1.2200	39.0960
 1.2210	39.1050
 1.2220	39.1140
 1.2230	39.1240
 1.2240	39.1350
 1.2250	39.1460
 1.2260	39.1560
 1.2270	39.1670
 1.2280	39.1770
 1.2290	39.1860
 1.2300	39.1930
 1.2310	39.1990
 1.2320	39.2060
 1.2330	39.2140
 1.2340	39.2210
 1.2350	39.2280
 1.2360	39.2340
 1.2370	39.2390
 1.2380	39.2450
 1.2390	39.2500
 1.2400	39.2560
 1.2410	39.2620
 1.2420	39.2670
 1.2430	39.2700
 1.2440	39.2740
 1.2450	39.2770
 1.2460	39.2790
 1.2470	39.2810
 1.2480	39.2830
 1.2490	39.2880
 1.2500	39.2920
 1.2510	39.2950
 1.2520	39.2980
 1.2530	39.2980
 1.2540	39.2980
 1.2550	39.3010
 1.2560	39.3010
 1.2570	39.3020
 1.2580	39.3010
 1.2590	39.3010
 1.2600	39.3010
 1.2610	39.2990
 1.2620	39.2970
 1.2630	39.2940
 1.2640	39.2900
 1.2650	39.2850
 1.2660	39.2810
 1.2670	39.2780
 1.2680	39.2740
 1.2690	39.2700
 1.2700	39.2670
 1.2710	39.2630
 1.2720	39.2590
 1.2730	39.2520
 1.2740	39.2450
 1.2750	39.2370
 1.2760	39.2290
 1.2770	39.2220
 1.2780	39.2160
 1.2790	39.2090
 1.2800	39.2000
 1.2810	39.1910
 1.2820	39.1810
 1.2830	39.1710
 1.2840	39.1610
 1.2850	39.1480
 1.2860	39.1340
 1.2870	39.1190
 1.2880	39.1020
 1.2890	39.0860
 1.2900	39.0700
 1.2910	39.0530
 1.2920	39.0350
 1.2930	39.0150
 1.2940	38.9920
 1.2950	38.9700
 1.2960	38.9480
 1.2970	38.9270
 1.2980	38.9050
 1.2990	38.8810
 1.3000	38.8560
 1.3010	38.8290
 1.3020	38.8020
 1.3030	38.7750
 1.3040	38.7450
 1.3050	38.7150
 1.3060	38.6830
 1.3070	38.6490
 1.3080	38.6180
 1.3090	38.5850
 1.3100	38.5520
 1.3110	38.5170
 1.3120	38.4800
 1.3130	38.4440
 1.3140	38.4060
 1.3150	38.3690
 1.3160	38.3290
 1.3170	38.2880
 1.3180	38.2440
 1.3190	38.1990
 1.3200	38.1520
 1.3210	38.1050
 1.3220	38.0600
 1.3230	38.0120
 1.3240	37.9660
 1.3250	37.9180
 1.3260	37.8660
 1.3270	37.8130
 1.3280	37.7590
 1.3290	37.7030
 1.3300	37.6470
 1.3310	37.5900
 1.3320	37.5330
 1.3330	37.4750
 1.3340	37.4170
 1.3350	37.3590
 1.3360	37.3000
 1.3370	37.2390
 1.3380	37.1790
 1.3390	37.1190
 1.3400	37.0580
 1.3410	36.9990
 1.3420	36.9400
 1.3430	36.8790
 1.3440	36.8200
 1.3450	36.7610
 1.3460	36.7020
 1.3470	36.6440
 1.3480	36.5850
 1.3490	36.5280
 1.3500	36.4720
 1.3510	36.4160
 1.3520	36.3590
 1.3530	36.3040
 1.3540	36.2470
 1.3550	36.1890
 1.3560	36.1330
 1.3570	36.0740
 1.3580	36.0160
 1.3590	35.9570
 1.3600	35.8960
 1.3610	35.8340
 1.3620	35.7680
 1.3630	35.7000
 1.3640	35.6280
 1.3650	35.5500
 1.3660	35.4670
 1.3670	35.3800
 1.3680	35.2870
 1.3690	35.1890
 1.3700	35.0830
 1.3710	34.9710
 1.3720	34.8500
 1.3730	34.7180
 1.3740	34.5770
 1.3750	34.4260
 1.3760	34.2600
 1.3770	34.0820
 1.3780	33.8890
 1.3790	33.6810
 1.3800	33.4570
 1.3810	33.2160
 1.3820	32.9600
 1.3830	32.6890
 1.3840	32.4010
 1.3850	32.0980
 1.3860	31.7800
 1.3870	31.4440
 1.3880	31.0980
 1.3890	30.7370
 1.3900	30.3630
 1.3910	29.9830
 1.3920	29.5930
 1.3930	29.1940
 1.3940	28.7900
 1.3950	28.3800
 1.3960	27.9690
 1.3970	27.5600
 1.3980	27.1510
 1.3990	26.7510
 1.4000	26.3550
 1.4010	25.9640
 1.4020	25.5840
 1.4030	25.2110
 1.4040	24.8480
 1.4050	24.5000
 1.4060	24.1620
 1.4070	23.8390
 1.4080	23.5310
 1.4090	23.2350
 1.4100	22.9550
 1.4110	22.6880
 1.4120	22.4340
 1.4130	22.1960
 1.4140	21.9710
 1.4150	21.7610
 1.4160	21.5660
 1.4170	21.3810
 1.4180	21.2090
 1.4190	21.0470
 1.4200	20.8940
 1.4210	20.7520
 1.4220	20.6200
 1.4230	20.4970
 1.4240	20.3850
 1.4250	20.2800
 1.4260	20.1830
 1.4270	20.0930
 1.4280	20.0110
 1.4290	19.9340
 1.4300	19.8650
 1.4310	19.8000
 1.4320	19.7430
 1.4330	19.6900
 1.4340	19.6430
 1.4350	19.6000
 1.4360	19.5610
 1.4370	19.5270
 1.4380	19.4980
 1.4390	19.4730
 1.4400	19.4530
 1.4410	19.4350
 1.4420	19.4200
 1.4430	19.4080
 1.4440	19.3980
 1.4450	19.3920
 1.4460	19.3880
 1.4470	19.3860
 1.4480	19.3870
 1.4490	19.3910
 1.4500	19.3950
 1.4510	19.4020
 1.4520	19.4100
 1.4530	19.4200
 1.4540	19.4310
 1.4550	19.4460
 1.4560	19.4630
 1.4570	19.4840
 1.4580	19.5070
 1.4590	19.5330
 1.4600	19.5630
 1.4610	19.5970
 1.4620	19.6350
 1.4630	19.6770
 1.4640	19.7240
 1.4650	19.7750
 1.4660	19.8300
 1.4670	19.8900
 1.4680	19.9550
 1.4690	20.0240
 1.4700	20.0960
 1.4710	20.1740
 1.4720	20.2550
 1.4730	20.3390
 1.4740	20.4260
 1.4750	20.5140
 1.4760	20.6070
 1.4770	20.7010
 1.4780	20.7980
