Name: Brachychiton discolor
Type: vegetation
Class: Tree
Genus: Brachychiton
Species: discolor
Sample No.: JPL083
Owner: JPL
Wavelength Range: VSWIR
Origin: 34.12428; - 118.11335; WGS84
Collection Date: 2/2/2016
Description: Samples were collected at the Huntington Garden in San Marino California as part of a JPL Subcontract studying HyTES imagery. Samples were taken to JPL and processed within 48 hours of collection. The same leaves were processed in the Nicolet and then measured using the ASD.
Measurement: Bidirectional reflectance
First Column: X
Second Column: Y
X Units: Wavelength (micrometer)
Y Units: Reflectance (percentage)
First X Value: 0.35
Last X Value: 2.5
Number of X Values: 2151
Additional Information: 

 0.3500	 6.1710
 0.3510	 5.1240
 0.3520	 4.8410
 0.3530	 5.5510
 0.3540	 6.6920
 0.3550	 6.5550
 0.3560	 6.3680
 0.3570	 6.1160
 0.3580	 5.2660
 0.3590	 4.9360
 0.3600	 5.1630
 0.3610	 5.5780
 0.3620	 5.4770
 0.3630	 5.7870
 0.3640	 6.0530
 0.3650	 5.8060
 0.3660	 5.8370
 0.3670	 5.4120
 0.3680	 4.7880
 0.3690	 4.8960
 0.3700	 5.4670
 0.3710	 5.9300
 0.3720	 5.9440
 0.3730	 5.4920
 0.3740	 5.3600
 0.3750	 5.5680
 0.3760	 5.8410
 0.3770	 5.9390
 0.3780	 5.9620
 0.3790	 5.9810
 0.3800	 6.0010
 0.3810	 5.6000
 0.3820	 5.0280
 0.3830	 4.6660
 0.3840	 4.9260
 0.3850	 5.0860
 0.3860	 5.1090
 0.3870	 5.1580
 0.3880	 4.8840
 0.3890	 4.9600
 0.3900	 5.3360
 0.3910	 5.1970
 0.3920	 4.8440
 0.3930	 4.7500
 0.3940	 5.1130
 0.3950	 5.3910
 0.3960	 5.4410
 0.3970	 5.2790
 0.3980	 5.0440
 0.3990	 5.0210
 0.4000	 5.0710
 0.4010	 5.1050
 0.4020	 5.1470
 0.4030	 5.4470
 0.4040	 5.6290
 0.4050	 5.3780
 0.4060	 5.0160
 0.4070	 4.9930
 0.4080	 5.1870
 0.4090	 5.1470
 0.4100	 5.2290
 0.4110	 5.2930
 0.4120	 5.2640
 0.4130	 5.2830
 0.4140	 5.3840
 0.4150	 5.3860
 0.4160	 5.1610
 0.4170	 5.1840
 0.4180	 5.2370
 0.4190	 5.2020
 0.4200	 5.0940
 0.4210	 5.0550
 0.4220	 5.1520
 0.4230	 5.3490
 0.4240	 5.4410
 0.4250	 5.3710
 0.4260	 5.2630
 0.4270	 5.2910
 0.4280	 5.2860
 0.4290	 5.2940
 0.4300	 5.3130
 0.4310	 5.2440
 0.4320	 5.2290
 0.4330	 5.3190
 0.4340	 5.4610
 0.4350	 5.3330
 0.4360	 5.2590
 0.4370	 5.3140
 0.4380	 5.3760
 0.4390	 5.3570
 0.4400	 5.3160
 0.4410	 5.2980
 0.4420	 5.2550
 0.4430	 5.2330
 0.4440	 5.2600
 0.4450	 5.3360
 0.4460	 5.3850
 0.4470	 5.3630
 0.4480	 5.3110
 0.4490	 5.3590
 0.4500	 5.3690
 0.4510	 5.3390
 0.4520	 5.3190
 0.4530	 5.4140
 0.4540	 5.4550
 0.4550	 5.4200
 0.4560	 5.3790
 0.4570	 5.3210
 0.4580	 5.3150
 0.4590	 5.3690
 0.4600	 5.3690
 0.4610	 5.4150
 0.4620	 5.4650
 0.4630	 5.4470
 0.4640	 5.3990
 0.4650	 5.3670
 0.4660	 5.3730
 0.4670	 5.4050
 0.4680	 5.3720
 0.4690	 5.3550
 0.4700	 5.3970
 0.4710	 5.3170
 0.4720	 5.3870
 0.4730	 5.4990
 0.4740	 5.3880
 0.4750	 5.3760
 0.4760	 5.4080
 0.4770	 5.4200
 0.4780	 5.4010
 0.4790	 5.4110
 0.4800	 5.4200
 0.4810	 5.3960
 0.4820	 5.4500
 0.4830	 5.4340
 0.4840	 5.3640
 0.4850	 5.3930
 0.4860	 5.4350
 0.4870	 5.4390
 0.4880	 5.4000
 0.4890	 5.4010
 0.4900	 5.4290
 0.4910	 5.4430
 0.4920	 5.4020
 0.4930	 5.3870
 0.4940	 5.4390
 0.4950	 5.5120
 0.4960	 5.4420
 0.4970	 5.4320
 0.4980	 5.4910
 0.4990	 5.5570
 0.5000	 5.5360
 0.5010	 5.5480
 0.5020	 5.5930
 0.5030	 5.5780
 0.5040	 5.5480
 0.5050	 5.5650
 0.5060	 5.6450
 0.5070	 5.6830
 0.5080	 5.7320
 0.5090	 5.7690
 0.5100	 5.7580
 0.5110	 5.8070
 0.5120	 5.8650
 0.5130	 5.9110
 0.5140	 5.9810
 0.5150	 6.0310
 0.5160	 6.1150
 0.5170	 6.2600
 0.5180	 6.3000
 0.5190	 6.3360
 0.5200	 6.4110
 0.5210	 6.5210
 0.5220	 6.6410
 0.5230	 6.7540
 0.5240	 6.8540
 0.5250	 6.9540
 0.5260	 7.0290
 0.5270	 7.0940
 0.5280	 7.1800
 0.5290	 7.3250
 0.5300	 7.4460
 0.5310	 7.5210
 0.5320	 7.6050
 0.5330	 7.6920
 0.5340	 7.7770
 0.5350	 7.8500
 0.5360	 7.8830
 0.5370	 7.9390
 0.5380	 8.0250
 0.5390	 8.1090
 0.5400	 8.1760
 0.5410	 8.2550
 0.5420	 8.3500
 0.5430	 8.4080
 0.5440	 8.4370
 0.5450	 8.4610
 0.5460	 8.4950
 0.5470	 8.4820
 0.5480	 8.4760
 0.5490	 8.4940
 0.5500	 8.4890
 0.5510	 8.4920
 0.5520	 8.4950
 0.5530	 8.4860
 0.5540	 8.4930
 0.5550	 8.4680
 0.5560	 8.4300
 0.5570	 8.4310
 0.5580	 8.3740
 0.5590	 8.3060
 0.5600	 8.2640
 0.5610	 8.2080
 0.5620	 8.1730
 0.5630	 8.1260
 0.5640	 8.0300
 0.5650	 7.9610
 0.5660	 7.9100
 0.5670	 7.8560
 0.5680	 7.7700
 0.5690	 7.6760
 0.5700	 7.5940
 0.5710	 7.5310
 0.5720	 7.4510
 0.5730	 7.3760
 0.5740	 7.3090
 0.5750	 7.2450
 0.5760	 7.1940
 0.5770	 7.1600
 0.5780	 7.1330
 0.5790	 7.0940
 0.5800	 7.0450
 0.5810	 6.9940
 0.5820	 6.9550
 0.5830	 6.9300
 0.5840	 6.9070
 0.5850	 6.8790
 0.5860	 6.8510
 0.5870	 6.8070
 0.5880	 6.7730
 0.5890	 6.7660
 0.5900	 6.7320
 0.5910	 6.7200
 0.5920	 6.7260
 0.5930	 6.7200
 0.5940	 6.7070
 0.5950	 6.6700
 0.5960	 6.6230
 0.5970	 6.6370
 0.5980	 6.6550
 0.5990	 6.6580
 0.6000	 6.6350
 0.6010	 6.5960
 0.6020	 6.5680
 0.6030	 6.5520
 0.6040	 6.5230
 0.6050	 6.5190
 0.6060	 6.5120
 0.6070	 6.4810
 0.6080	 6.4480
 0.6090	 6.4070
 0.6100	 6.3880
 0.6110	 6.4130
 0.6120	 6.3850
 0.6130	 6.3460
 0.6140	 6.3160
 0.6150	 6.2670
 0.6160	 6.2360
 0.6170	 6.2140
 0.6180	 6.1820
 0.6190	 6.1660
 0.6200	 6.1590
 0.6210	 6.1420
 0.6220	 6.0950
 0.6230	 6.0760
 0.6240	 6.0720
 0.6250	 6.0680
 0.6260	 6.0660
 0.6270	 6.0670
 0.6280	 6.0660
 0.6290	 6.0630
 0.6300	 6.0800
 0.6310	 6.0820
 0.6320	 6.0630
 0.6330	 6.0570
 0.6340	 6.0380
 0.6350	 6.0160
 0.6360	 6.0050
 0.6370	 5.9900
 0.6380	 5.9870
 0.6390	 5.9790
 0.6400	 5.9410
 0.6410	 5.9460
 0.6420	 5.9460
 0.6430	 5.9190
 0.6440	 5.8980
 0.6450	 5.8790
 0.6460	 5.8610
 0.6470	 5.8440
 0.6480	 5.8330
 0.6490	 5.8200
 0.6500	 5.8030
 0.6510	 5.7850
 0.6520	 5.7720
 0.6530	 5.7710
 0.6540	 5.7790
 0.6550	 5.7680
 0.6560	 5.7460
 0.6570	 5.7330
 0.6580	 5.7420
 0.6590	 5.7210
 0.6600	 5.6980
 0.6610	 5.6820
 0.6620	 5.6630
 0.6630	 5.6450
 0.6640	 5.6280
 0.6650	 5.6160
 0.6660	 5.6230
 0.6670	 5.6020
 0.6680	 5.5710
 0.6690	 5.5730
 0.6700	 5.5810
 0.6710	 5.5820
 0.6720	 5.5780
 0.6730	 5.5970
 0.6740	 5.6010
 0.6750	 5.6110
 0.6760	 5.6420
 0.6770	 5.6170
 0.6780	 5.6040
 0.6790	 5.6300
 0.6800	 5.6810
 0.6810	 5.7070
 0.6820	 5.7240
 0.6830	 5.7460
 0.6840	 5.7700
 0.6850	 5.7940
 0.6860	 5.8370
 0.6870	 5.9120
 0.6880	 5.9880
 0.6890	 6.0460
 0.6900	 6.1070
 0.6910	 6.2170
 0.6920	 6.3350
 0.6930	 6.4980
 0.6940	 6.7240
 0.6950	 6.9740
 0.6960	 7.2600
 0.6970	 7.5990
 0.6980	 7.9990
 0.6990	 8.4310
 0.7000	 8.9310
 0.7010	 9.5050
 0.7020	10.1320
 0.7030	10.7760
 0.7040	11.4560
 0.7050	12.1860
 0.7060	12.9400
 0.7070	13.7420
 0.7080	14.5740
 0.7090	15.4120
 0.7100	16.2690
 0.7110	17.1470
 0.7120	18.0520
 0.7130	19.0070
 0.7140	19.9520
 0.7150	20.8950
 0.7160	21.8580
 0.7170	22.8520
 0.7180	23.8670
 0.7190	24.8820
 0.7200	25.8860
 0.7210	26.9000
 0.7220	27.9170
 0.7230	28.9290
 0.7240	29.9290
 0.7250	30.9130
 0.7260	31.8780
 0.7270	32.8150
 0.7280	33.7160
 0.7290	34.6010
 0.7300	35.4720
 0.7310	36.3120
 0.7320	37.0980
 0.7330	37.8470
 0.7340	38.5760
 0.7350	39.2910
 0.7360	39.9390
 0.7370	40.5500
 0.7380	41.1480
 0.7390	41.7160
 0.7400	42.2420
 0.7410	42.7280
 0.7420	43.1830
 0.7430	43.5980
 0.7440	43.9930
 0.7450	44.3710
 0.7460	44.7160
 0.7470	45.0290
 0.7480	45.3220
 0.7490	45.6000
 0.7500	45.8440
 0.7510	46.0640
 0.7520	46.2700
 0.7530	46.4710
 0.7540	46.6370
 0.7550	46.7860
 0.7560	46.9250
 0.7570	47.0500
 0.7580	47.1700
 0.7590	47.2910
 0.7600	47.4060
 0.7610	47.4930
 0.7620	47.5580
 0.7630	47.6230
 0.7640	47.6980
 0.7650	47.7490
 0.7660	47.7910
 0.7670	47.8380
 0.7680	47.8940
 0.7690	47.9330
 0.7700	47.9660
 0.7710	47.9980
 0.7720	48.0170
 0.7730	48.0400
 0.7740	48.0640
 0.7750	48.0800
 0.7760	48.0810
 0.7770	48.1010
 0.7780	48.1300
 0.7790	48.1410
 0.7800	48.1400
 0.7810	48.1470
 0.7820	48.1580
 0.7830	48.1470
 0.7840	48.1510
 0.7850	48.1690
 0.7860	48.1920
 0.7870	48.2030
 0.7880	48.2160
 0.7890	48.2100
 0.7900	48.1780
 0.7910	48.1900
 0.7920	48.2020
 0.7930	48.2020
 0.7940	48.2030
 0.7950	48.1850
 0.7960	48.1640
 0.7970	48.1580
 0.7980	48.1780
 0.7990	48.1940
 0.8000	48.1800
 0.8010	48.1410
 0.8020	48.1520
 0.8030	48.1570
 0.8040	48.1460
 0.8050	48.1340
 0.8060	48.1260
 0.8070	48.1230
 0.8080	48.1230
 0.8090	48.1170
 0.8100	48.1060
 0.8110	48.0960
 0.8120	48.0860
 0.8130	48.0750
 0.8140	48.0550
 0.8150	48.0490
 0.8160	48.0660
 0.8170	48.0570
 0.8180	48.0460
 0.8190	48.0460
 0.8200	48.0610
 0.8210	48.0470
 0.8220	48.0400
 0.8230	48.0390
 0.8240	48.0120
 0.8250	48.0080
 0.8260	48.0080
 0.8270	48.0030
 0.8280	48.0040
 0.8290	48.0210
 0.8300	48.0340
 0.8310	48.0310
 0.8320	48.0370
 0.8330	48.0350
 0.8340	48.0200
 0.8350	48.0010
 0.8360	47.9960
 0.8370	48.0130
 0.8380	48.0430
 0.8390	48.0660
 0.8400	48.0640
 0.8410	48.0650
 0.8420	48.0770
 0.8430	48.0740
 0.8440	48.0790
 0.8450	48.0900
 0.8460	48.1010
 0.8470	48.1220
 0.8480	48.1580
 0.8490	48.1780
 0.8500	48.1560
 0.8510	48.1470
 0.8520	48.1720
 0.8530	48.2110
 0.8540	48.2240
 0.8550	48.2310
 0.8560	48.2460
 0.8570	48.2640
 0.8580	48.2680
 0.8590	48.2800
 0.8600	48.2910
 0.8610	48.2940
 0.8620	48.3010
 0.8630	48.3100
 0.8640	48.3310
 0.8650	48.3680
 0.8660	48.3910
 0.8670	48.4040
 0.8680	48.4130
 0.8690	48.4240
 0.8700	48.4340
 0.8710	48.4400
 0.8720	48.4480
 0.8730	48.4640
 0.8740	48.4810
 0.8750	48.5050
 0.8760	48.5250
 0.8770	48.5190
 0.8780	48.5500
 0.8790	48.5730
 0.8800	48.5750
 0.8810	48.6080
 0.8820	48.6100
 0.8830	48.6030
 0.8840	48.6120
 0.8850	48.6110
 0.8860	48.6470
 0.8870	48.6860
 0.8880	48.6880
 0.8890	48.6800
 0.8900	48.6840
 0.8910	48.6910
 0.8920	48.6860
 0.8930	48.6960
 0.8940	48.7180
 0.8950	48.7390
 0.8960	48.7440
 0.8970	48.7510
 0.8980	48.7310
 0.8990	48.7140
 0.9000	48.7700
 0.9010	48.7650
 0.9020	48.7670
 0.9030	48.7910
 0.9040	48.7620
 0.9050	48.7370
 0.9060	48.7450
 0.9070	48.7770
 0.9080	48.7750
 0.9090	48.7590
 0.9100	48.7520
 0.9110	48.7640
 0.9120	48.7570
 0.9130	48.7500
 0.9140	48.7720
 0.9150	48.8240
 0.9160	48.8020
 0.9170	48.7940
 0.9180	48.8090
 0.9190	48.8180
 0.9200	48.7850
 0.9210	48.7960
 0.9220	48.8240
 0.9230	48.7910
 0.9240	48.7670
 0.9250	48.7490
 0.9260	48.7330
 0.9270	48.7160
 0.9280	48.6910
 0.9290	48.6890
 0.9300	48.6990
 0.9310	48.6750
 0.9320	48.6690
 0.9330	48.6290
 0.9340	48.5820
 0.9350	48.6370
 0.9360	48.6420
 0.9370	48.5960
 0.9380	48.5470
 0.9390	48.5560
 0.9400	48.5170
 0.9410	48.4960
 0.9420	48.5140
 0.9430	48.4540
 0.9440	48.4170
 0.9450	48.3810
 0.9460	48.3350
 0.9470	48.3560
 0.9480	48.2770
 0.9490	48.2310
 0.9500	48.2890
 0.9510	48.1720
 0.9520	48.0530
 0.9530	48.0460
 0.9540	48.1350
 0.9550	47.9830
 0.9560	47.9280
 0.9570	47.9380
 0.9580	47.8900
 0.9590	47.8140
 0.9600	47.7230
 0.9610	47.6570
 0.9620	47.6410
 0.9630	47.6250
 0.9640	47.6120
 0.9650	47.6050
 0.9660	47.6000
 0.9670	47.5770
 0.9680	47.5410
 0.9690	47.5060
 0.9700	47.4880
 0.9710	47.4920
 0.9720	47.5410
 0.9730	47.5530
 0.9740	47.4650
 0.9750	47.4860
 0.9760	47.4880
 0.9770	47.4900
 0.9780	47.5460
 0.9790	47.5290
 0.9800	47.4990
 0.9810	47.4780
 0.9820	47.4710
 0.9830	47.5050
 0.9840	47.5180
 0.9850	47.5120
 0.9860	47.5310
 0.9870	47.6420
 0.9880	47.6150
 0.9890	47.5140
 0.9900	47.5110
 0.9910	47.4920
 0.9920	47.5030
 0.9930	47.5520
 0.9940	47.6110
 0.9950	47.6010
 0.9960	47.5930
 0.9970	47.6090
 0.9980	47.6430
 0.9990	47.6700
 1.0000	47.7040
 1.0010	47.6950
 1.0020	47.7160
 1.0030	47.7160
 1.0040	47.7210
 1.0050	47.7320
 1.0060	47.7530
 1.0070	47.7880
 1.0080	47.8050
 1.0090	47.8030
 1.0100	47.8220
 1.0110	47.8520
 1.0120	47.8640
 1.0130	47.8760
 1.0140	47.8950
 1.0150	47.8980
 1.0160	47.9150
 1.0170	47.9560
 1.0180	47.9940
 1.0190	48.0240
 1.0200	48.0370
 1.0210	48.0550
 1.0220	48.0840
 1.0230	48.1040
 1.0240	48.1240
 1.0250	48.1380
 1.0260	48.1440
 1.0270	48.1520
 1.0280	48.1540
 1.0290	48.1630
 1.0300	48.1520
 1.0310	48.1760
 1.0320	48.2410
 1.0330	48.2870
 1.0340	48.2820
 1.0350	48.3040
 1.0360	48.3170
 1.0370	48.3280
 1.0380	48.3420
 1.0390	48.3970
 1.0400	48.4170
 1.0410	48.3980
 1.0420	48.4040
 1.0430	48.4270
 1.0440	48.4450
 1.0450	48.4460
 1.0460	48.4730
 1.0470	48.5480
 1.0480	48.5720
 1.0490	48.5740
 1.0500	48.5880
 1.0510	48.5670
 1.0520	48.5670
 1.0530	48.5760
 1.0540	48.6230
 1.0550	48.6300
 1.0560	48.6060
 1.0570	48.6200
 1.0580	48.6440
 1.0590	48.6600
 1.0600	48.7090
 1.0610	48.7230
 1.0620	48.6970
 1.0630	48.6960
 1.0640	48.6900
 1.0650	48.6950
 1.0660	48.7190
 1.0670	48.7360
 1.0680	48.7520
 1.0690	48.7730
 1.0700	48.7860
 1.0710	48.7900
 1.0720	48.8030
 1.0730	48.8270
 1.0740	48.8220
 1.0750	48.8060
 1.0760	48.7940
 1.0770	48.7500
 1.0780	48.7420
 1.0790	48.7630
 1.0800	48.7730
 1.0810	48.7990
 1.0820	48.8110
 1.0830	48.8150
 1.0840	48.8170
 1.0850	48.8140
 1.0860	48.8110
 1.0870	48.8030
 1.0880	48.7870
 1.0890	48.7880
 1.0900	48.7930
 1.0910	48.7930
 1.0920	48.8110
 1.0930	48.8010
 1.0940	48.7670
 1.0950	48.7490
 1.0960	48.7130
 1.0970	48.7050
 1.0980	48.7280
 1.0990	48.7330
 1.1000	48.7460
 1.1010	48.7540
 1.1020	48.7570
 1.1030	48.7460
 1.1040	48.7390
 1.1050	48.7240
 1.1060	48.7100
 1.1070	48.6890
 1.1080	48.6720
 1.1090	48.6520
 1.1100	48.6390
 1.1110	48.6270
 1.1120	48.6100
 1.1130	48.5940
 1.1140	48.5820
 1.1150	48.5720
 1.1160	48.5600
 1.1170	48.5640
 1.1180	48.5480
 1.1190	48.5200
 1.1200	48.4860
 1.1210	48.4450
 1.1220	48.4200
 1.1230	48.4160
 1.1240	48.3860
 1.1250	48.3470
 1.1260	48.3080
 1.1270	48.2420
 1.1280	48.1400
 1.1290	48.0680
 1.1300	47.9890
 1.1310	47.9180
 1.1320	47.8770
 1.1330	47.7990
 1.1340	47.7010
 1.1350	47.6110
 1.1360	47.5110
 1.1370	47.4000
 1.1380	47.3120
 1.1390	47.2080
 1.1400	47.1040
 1.1410	46.9960
 1.1420	46.8650
 1.1430	46.7300
 1.1440	46.6030
 1.1450	46.4600
 1.1460	46.3430
 1.1470	46.2490
 1.1480	46.1420
 1.1490	46.0430
 1.1500	45.9340
 1.1510	45.8130
 1.1520	45.7060
 1.1530	45.5900
 1.1540	45.4960
 1.1550	45.4130
 1.1560	45.3480
 1.1570	45.3010
 1.1580	45.2460
 1.1590	45.2080
 1.1600	45.1610
 1.1610	45.1030
 1.1620	45.0680
 1.1630	45.0180
 1.1640	44.9730
 1.1650	44.9370
 1.1660	44.9080
 1.1670	44.8750
 1.1680	44.8460
 1.1690	44.8220
 1.1700	44.7970
 1.1710	44.7800
 1.1720	44.7760
 1.1730	44.7650
 1.1740	44.7550
 1.1750	44.7390
 1.1760	44.7250
 1.1770	44.7060
 1.1780	44.6810
 1.1790	44.6550
 1.1800	44.6280
 1.1810	44.5900
 1.1820	44.5600
 1.1830	44.5400
 1.1840	44.5150
 1.1850	44.5000
 1.1860	44.4840
 1.1870	44.4470
 1.1880	44.4270
 1.1890	44.4080
 1.1900	44.4050
 1.1910	44.4240
 1.1920	44.4300
 1.1930	44.4470
 1.1940	44.4440
 1.1950	44.4220
 1.1960	44.4100
 1.1970	44.4060
 1.1980	44.4060
 1.1990	44.4170
 1.2000	44.4320
 1.2010	44.4370
 1.2020	44.4320
 1.2030	44.4340
 1.2040	44.4350
 1.2050	44.4430
 1.2060	44.4720
 1.2070	44.4940
 1.2080	44.5080
 1.2090	44.5230
 1.2100	44.5300
 1.2110	44.5460
 1.2120	44.5700
 1.2130	44.5970
 1.2140	44.6350
 1.2150	44.6680
 1.2160	44.7020
 1.2170	44.7330
 1.2180	44.7600
 1.2190	44.7760
 1.2200	44.7900
 1.2210	44.8060
 1.2220	44.8370
 1.2230	44.8730
 1.2240	44.9150
 1.2250	44.9650
 1.2260	45.0090
 1.2270	45.0420
 1.2280	45.0660
 1.2290	45.0900
 1.2300	45.1110
 1.2310	45.1310
 1.2320	45.1540
 1.2330	45.1750
 1.2340	45.2030
 1.2350	45.2410
 1.2360	45.2680
 1.2370	45.2930
 1.2380	45.3170
 1.2390	45.3400
 1.2400	45.3540
 1.2410	45.3720
 1.2420	45.3920
 1.2430	45.4010
 1.2440	45.4010
 1.2450	45.4180
 1.2460	45.4370
 1.2470	45.4400
 1.2480	45.4560
 1.2490	45.4800
 1.2500	45.5040
 1.2510	45.5360
 1.2520	45.5580
 1.2530	45.5600
 1.2540	45.5650
 1.2550	45.5610
 1.2560	45.5560
 1.2570	45.5810
 1.2580	45.5940
 1.2590	45.6000
 1.2600	45.6160
 1.2610	45.6220
 1.2620	45.6110
 1.2630	45.6010
 1.2640	45.6020
 1.2650	45.6060
 1.2660	45.6110
 1.2670	45.6160
 1.2680	45.6290
 1.2690	45.6390
 1.2700	45.6380
 1.2710	45.6250
 1.2720	45.6110
 1.2730	45.5950
 1.2740	45.5750
 1.2750	45.5780
 1.2760	45.5810
 1.2770	45.5640
 1.2780	45.5490
 1.2790	45.5270
 1.2800	45.4960
 1.2810	45.4730
 1.2820	45.4570
 1.2830	45.4380
 1.2840	45.4300
 1.2850	45.4130
 1.2860	45.3900
 1.2870	45.3670
 1.2880	45.3430
 1.2890	45.3060
 1.2900	45.2760
 1.2910	45.2570
 1.2920	45.2360
 1.2930	45.2150
 1.2940	45.1930
 1.2950	45.1620
 1.2960	45.1220
 1.2970	45.0870
 1.2980	45.0570
 1.2990	45.0310
 1.3000	45.0080
 1.3010	44.9790
 1.3020	44.9430
 1.3030	44.8920
 1.3040	44.8320
 1.3050	44.7750
 1.3060	44.7130
 1.3070	44.6470
 1.3080	44.5890
 1.3090	44.5250
 1.3100	44.4600
 1.3110	44.4020
 1.3120	44.3330
 1.3130	44.2530
 1.3140	44.1790
 1.3150	44.1120
 1.3160	44.0350
 1.3170	43.9560
 1.3180	43.8750
 1.3190	43.7850
 1.3200	43.6640
 1.3210	43.5430
 1.3220	43.4310
 1.3230	43.3120
 1.3240	43.2020
 1.3250	43.1000
 1.3260	43.0000
 1.3270	42.8960
 1.3280	42.7820
 1.3290	42.6700
 1.3300	42.5520
 1.3310	42.4270
 1.3320	42.3060
 1.3330	42.1840
 1.3340	42.0690
 1.3350	41.9500
 1.3360	41.8150
 1.3370	41.6780
 1.3380	41.5380
 1.3390	41.4000
 1.3400	41.2700
 1.3410	41.1480
 1.3420	41.0250
 1.3430	40.8920
 1.3440	40.7780
 1.3450	40.6640
 1.3460	40.5530
 1.3470	40.4350
 1.3480	40.3180
 1.3490	40.2000
 1.3500	40.0750
 1.3510	39.9570
 1.3520	39.8460
 1.3530	39.7290
 1.3540	39.6090
 1.3550	39.4950
 1.3560	39.3760
 1.3570	39.2590
 1.3580	39.1510
 1.3590	39.0320
 1.3600	38.9060
 1.3610	38.7790
 1.3620	38.6450
 1.3630	38.5030
 1.3640	38.3600
 1.3650	38.2130
 1.3660	38.0600
 1.3670	37.8990
 1.3680	37.7220
 1.3690	37.5280
 1.3700	37.3270
 1.3710	37.1130
 1.3720	36.8890
 1.3730	36.6500
 1.3740	36.3880
 1.3750	36.1090
 1.3760	35.8050
 1.3770	35.4810
 1.3780	35.1330
 1.3790	34.7600
 1.3800	34.3640
 1.3810	33.9440
 1.3820	33.5050
 1.3830	33.0470
 1.3840	32.5660
 1.3850	32.0650
 1.3860	31.5430
 1.3870	30.9910
 1.3880	30.4350
 1.3890	29.8620
 1.3900	29.2820
 1.3910	28.7000
 1.3920	28.1100
 1.3930	27.5150
 1.3940	26.9270
 1.3950	26.3370
 1.3960	25.7590
 1.3970	25.1960
 1.3980	24.6330
 1.3990	24.0910
 1.4000	23.5650
 1.4010	23.0500
 1.4020	22.5550
 1.4030	22.0740
 1.4040	21.6090
 1.4050	21.1680
 1.4060	20.7500
 1.4070	20.3630
 1.4080	19.9980
 1.4090	19.6500
 1.4100	19.3250
 1.4110	19.0140
 1.4120	18.7200
 1.4130	18.4450
 1.4140	18.1860
 1.4150	17.9510
 1.4160	17.7340
 1.4170	17.5300
 1.4180	17.3380
 1.4190	17.1530
 1.4200	16.9810
 1.4210	16.8230
 1.4220	16.6810
 1.4230	16.5510
 1.4240	16.4280
 1.4250	16.3160
 1.4260	16.2160
 1.4270	16.1200
 1.4280	16.0330
 1.4290	15.9530
 1.4300	15.8810
 1.4310	15.8140
 1.4320	15.7570
 1.4330	15.7020
 1.4340	15.6490
 1.4350	15.6020
 1.4360	15.5620
 1.4370	15.5260
 1.4380	15.4910
 1.4390	15.4620
 1.4400	15.4340
 1.4410	15.4080
 1.4420	15.3910
 1.4430	15.3770
 1.4440	15.3690
 1.4450	15.3620
 1.4460	15.3510
 1.4470	15.3460
 1.4480	15.3420
 1.4490	15.3440
 1.4500	15.3540
 1.4510	15.3590
 1.4520	15.3640
 1.4530	15.3730
 1.4540	15.3860
 1.4550	15.4090
 1.4560	15.4360
 1.4570	15.4620
 1.4580	15.4840
 1.4590	15.5020
 1.4600	15.5250
 1.4610	15.5570
 1.4620	15.5970
 1.4630	15.6440
 1.4640	15.6970
 1.4650	15.7540
 1.4660	15.8150
 1.4670	15.8830
 1.4680	15.9540
 1.4690	16.0270
 1.4700	16.1100
 1.4710	16.1980
 1.4720	16.2830
 1.4730	16.3740
 1.4740	16.4670
 1.4750	16.5560
 1.4760	16.6550
 1.4770	16.7620
 1.4780	16.8680
 1.4790	16.9790
 1.4800	17.0920
 1.4810	17.2020
