Name: Bambusa beecheyana
Type: vegetation
Class: Tree
Genus: Bambusa
Species: beecheyana
Sample No.: JPL237
Owner: JPL
Wavelength Range: TIR
Origin: 34.12719; -118.11127; WGS84
Collection Date: 10/6/2016
Description: Samples were collected at the Huntington Garden in San Marino California as part of a JPL Subcontract studying HyTES imagery. Samples were taken to JPL and processed within 48 hours of collection. The same leaves were processed in the Nicolet and then measured using the ASD.
Measurement: Hemispherical reflectance
First Column: X
Second Column: Y
X Units: Wavelength (micrometer)
Y Units: Reflectance (percentage)
First X Value: 2.501
Last X Value: 15.387
Number of X Values: 1737
Additional Information: vegetation.tree.bambusa.beecheyana.tir.jpl237.jpl.nicolet.ancillary.txt

 2.5010	 9.6540
 2.5030	 9.6280
 2.5040	 9.6770
 2.5050	 9.6960
 2.5060	 9.6370
 2.5070	 9.5540
 2.5090	 9.6090
 2.5100	 9.5580
 2.5110	 9.5190
 2.5120	 9.4660
 2.5140	 9.5240
 2.5150	 9.5020
 2.5160	 9.4170
 2.5170	 9.3640
 2.5180	 9.3980
 2.5200	 9.3620
 2.5210	 9.3470
 2.5220	 9.3540
 2.5230	 9.3520
 2.5250	 9.3560
 2.5260	 9.3520
 2.5270	 9.2920
 2.5280	 9.3340
 2.5300	 9.3180
 2.5310	 9.3050
 2.5320	 9.2410
 2.5330	 9.2470
 2.5340	 9.2720
 2.5360	 9.2510
 2.5370	 9.2160
 2.5380	 9.3400
 2.5390	 9.3350
 2.5410	 9.3250
 2.5420	 9.3020
 2.5430	 9.2600
 2.5440	 9.2750
 2.5460	 9.3650
 2.5470	 9.3660
 2.5480	 9.3360
 2.5490	 9.3730
 2.5510	 9.3900
 2.5520	 9.2950
 2.5530	 9.2400
 2.5540	 9.3660
 2.5560	 9.4670
 2.5570	 9.4410
 2.5580	 9.5190
 2.5590	 9.4540
 2.5610	 9.1860
 2.5620	 8.9440
 2.5630	 9.0150
 2.5650	 9.1350
 2.5660	 9.4100
 2.5670	 9.6100
 2.5680	 9.5400
 2.5700	 9.3030
 2.5710	 9.3380
 2.5720	 9.3530
 2.5730	 9.0880
 2.5750	 9.2130
 2.5760	 9.3340
 2.5770	 9.1440
 2.5790	 9.3740
 2.5800	 9.5090
 2.5810	 9.2430
 2.5820	 9.1420
 2.5840	 8.9170
 2.5850	 8.8660
 2.5860	 9.0820
 2.5880	 8.9390
 2.5890	 9.0920
 2.5900	 9.1970
 2.5910	 9.2850
 2.5930	 9.0650
 2.5940	 8.3850
 2.5950	 7.7890
 2.5970	 8.4020
 2.5980	 9.0100
 2.5990	 9.1900
 2.6010	 9.0740
 2.6020	 8.8900
 2.6030	 8.7020
 2.6040	 8.4050
 2.6060	 8.0710
 2.6070	 8.1730
 2.6080	 8.3230
 2.6100	 8.3830
 2.6110	 8.4480
 2.6120	 8.4570
 2.6140	 8.2910
 2.6150	 8.2570
 2.6160	 7.8510
 2.6180	 7.5870
 2.6190	 7.7830
 2.6200	 7.5710
 2.6220	 7.5040
 2.6230	 7.8420
 2.6240	 7.8900
 2.6260	 7.6840
 2.6270	 7.2480
 2.6280	 7.2870
 2.6300	 7.1150
 2.6310	 6.8350
 2.6320	 7.0150
 2.6340	 7.0750
 2.6350	 7.0080
 2.6360	 7.0890
 2.6380	 6.9470
 2.6390	 6.8370
 2.6400	 6.7240
 2.6420	 6.6270
 2.6430	 6.5660
 2.6440	 6.5500
 2.6460	 6.3570
 2.6470	 6.3020
 2.6480	 6.2450
 2.6500	 6.1970
 2.6510	 6.1010
 2.6520	 5.8890
 2.6540	 5.6760
 2.6550	 5.6590
 2.6570	 5.6320
 2.6580	 5.6850
 2.6590	 5.4550
 2.6610	 5.3130
 2.6620	 5.1990
 2.6630	 5.1780
 2.6650	 4.8580
 2.6660	 4.6240
 2.6670	 4.5230
 2.6690	 4.6140
 2.6700	 4.3350
 2.6720	 4.2490
 2.6730	 4.5210
 2.6740	 4.5990
 2.6760	 4.3050
 2.6770	 4.0680
 2.6780	 4.0170
 2.6800	 4.0150
 2.6810	 4.0450
 2.6830	 4.0440
 2.6840	 3.9600
 2.6850	 3.9540
 2.6870	 3.8770
 2.6880	 3.8660
 2.6900	 3.7910
 2.6910	 3.7000
 2.6920	 3.5340
 2.6940	 3.3830
 2.6950	 3.3430
 2.6970	 3.4190
 2.6980	 3.4820
 2.6990	 3.5080
 2.7010	 3.3980
 2.7020	 3.3700
 2.7040	 3.3970
 2.7050	 3.4050
 2.7060	 3.3490
 2.7080	 3.3020
 2.7090	 3.1540
 2.7110	 3.0680
 2.7120	 3.1010
 2.7130	 3.2820
 2.7150	 3.2640
 2.7160	 3.2770
 2.7180	 3.2270
 2.7190	 3.1260
 2.7210	 2.8730
 2.7220	 2.9790
 2.7230	 3.0480
 2.7250	 2.9530
 2.7260	 3.0670
 2.7280	 3.2290
 2.7290	 3.1720
 2.7310	 3.1920
 2.7320	 3.1850
 2.7340	 3.1480
 2.7350	 3.0080
 2.7360	 3.1120
 2.7380	 3.1790
 2.7390	 3.0120
 2.7410	 2.8600
 2.7420	 2.9660
 2.7440	 3.0940
 2.7450	 3.1760
 2.7470	 3.1370
 2.7480	 3.1450
 2.7490	 3.1010
 2.7510	 3.1150
 2.7520	 3.0780
 2.7540	 3.0500
 2.7550	 2.8800
 2.7570	 3.0070
 2.7580	 3.1820
 2.7600	 3.1890
 2.7610	 3.0680
 2.7630	 3.0270
 2.7640	 3.0000
 2.7660	 3.0150
 2.7670	 2.9920
 2.7690	 3.0860
 2.7700	 3.0660
 2.7720	 3.0480
 2.7730	 3.0760
 2.7740	 3.1620
 2.7760	 3.1570
 2.7770	 3.1380
 2.7790	 3.1190
 2.7800	 3.1130
 2.7820	 3.0560
 2.7830	 3.0730
 2.7850	 3.0740
 2.7860	 3.1000
 2.7880	 3.0310
 2.7890	 3.0920
 2.7910	 3.1230
 2.7920	 3.1630
 2.7940	 3.1320
 2.7950	 3.1140
 2.7970	 3.0850
 2.7980	 3.1640
 2.8000	 3.1780
 2.8010	 3.1160
 2.8030	 3.0090
 2.8040	 3.0650
 2.8060	 3.0500
 2.8080	 3.0760
 2.8090	 3.0610
 2.8110	 3.0530
 2.8120	 3.0160
 2.8140	 3.0610
 2.8150	 3.0710
 2.8170	 3.1080
 2.8180	 3.0760
 2.8200	 3.1090
 2.8210	 3.1180
 2.8230	 3.1120
 2.8240	 3.0690
 2.8260	 3.0730
 2.8270	 3.0930
 2.8290	 3.1360
 2.8310	 3.0530
 2.8320	 3.0500
 2.8340	 3.0390
 2.8350	 3.0530
 2.8370	 2.9680
 2.8380	 3.0410
 2.8400	 3.0910
 2.8410	 3.1190
 2.8430	 3.1070
 2.8440	 3.1180
 2.8460	 3.0530
 2.8480	 3.0620
 2.8490	 3.0660
 2.8510	 3.0790
 2.8520	 3.0760
 2.8540	 3.0810
 2.8550	 3.0000
 2.8570	 3.0120
 2.8590	 2.9920
 2.8600	 3.0510
 2.8620	 3.0850
 2.8630	 3.0880
 2.8650	 3.0120
 2.8660	 3.0060
 2.8680	 2.9780
 2.8700	 3.0170
 2.8710	 2.9570
 2.8730	 2.9520
 2.8740	 2.9560
 2.8760	 3.0130
 2.8780	 3.0120
 2.8790	 3.0410
 2.8810	 3.0010
 2.8820	 3.0740
 2.8840	 3.0870
 2.8860	 3.0780
 2.8870	 2.9870
 2.8890	 3.0060
 2.8900	 3.0430
 2.8920	 3.1060
 2.8940	 3.0240
 2.8950	 2.9830
 2.8970	 2.9870
 2.8990	 3.0440
 2.9000	 2.9920
 2.9020	 2.9740
 2.9030	 2.9550
 2.9050	 2.9960
 2.9070	 2.9270
 2.9080	 2.9320
 2.9100	 2.9330
 2.9120	 3.0330
 2.9130	 3.0270
 2.9150	 2.9960
 2.9160	 2.9790
 2.9180	 3.0130
 2.9200	 2.9320
 2.9210	 2.9610
 2.9230	 2.9460
 2.9250	 2.9540
 2.9260	 2.9250
 2.9280	 2.9500
 2.9300	 3.0140
 2.9310	 3.0580
 2.9330	 2.9570
 2.9350	 2.9400
 2.9360	 2.8930
 2.9380	 2.9290
 2.9400	 2.9250
 2.9410	 2.9910
 2.9430	 2.9940
 2.9450	 3.0030
 2.9460	 2.9710
 2.9480	 2.9940
 2.9500	 2.9770
 2.9510	 2.9590
 2.9530	 2.9030
 2.9550	 2.9100
 2.9560	 2.9290
 2.9580	 2.9280
 2.9600	 2.8750
 2.9610	 2.9540
 2.9630	 2.9350
 2.9650	 2.9130
 2.9670	 2.8620
 2.9680	 2.8880
 2.9700	 2.8820
 2.9720	 2.8960
 2.9730	 2.8450
 2.9750	 2.9170
 2.9770	 2.9320
 2.9780	 2.9310
 2.9800	 2.8740
 2.9820	 2.9090
 2.9840	 2.8590
 2.9850	 2.8490
 2.9870	 2.8440
 2.9890	 2.9070
 2.9900	 2.9480
 2.9920	 2.9590
 2.9940	 2.8990
 2.9960	 2.8490
 2.9970	 2.7500
 2.9990	 2.8460
 3.0010	 2.8710
 3.0030	 2.9000
 3.0040	 2.9250
 3.0060	 2.9050
 3.0080	 2.8140
 3.0100	 2.8380
 3.0110	 2.8890
 3.0130	 2.9570
 3.0150	 2.9230
 3.0170	 2.8720
 3.0180	 2.8580
 3.0200	 2.8980
 3.0220	 2.8460
 3.0240	 2.8600
 3.0250	 2.8460
 3.0270	 2.8620
 3.0290	 2.8210
 3.0310	 2.8810
 3.0320	 2.8930
 3.0340	 2.8920
 3.0360	 2.8160
 3.0380	 2.8480
 3.0400	 2.8290
 3.0410	 2.8480
 3.0430	 2.8440
 3.0450	 2.8770
 3.0470	 2.8370
 3.0480	 2.8600
 3.0500	 2.8540
 3.0520	 2.8630
 3.0540	 2.8340
 3.0560	 2.8330
 3.0570	 2.7800
 3.0590	 2.8040
 3.0610	 2.8170
 3.0630	 2.8620
 3.0650	 2.8380
 3.0670	 2.8550
 3.0680	 2.8560
 3.0700	 2.8280
 3.0720	 2.7990
 3.0740	 2.8570
 3.0760	 2.8530
 3.0770	 2.8190
 3.0790	 2.7660
 3.0810	 2.8570
 3.0830	 2.8600
 3.0850	 2.8330
 3.0870	 2.7980
 3.0880	 2.8210
 3.0900	 2.7940
 3.0920	 2.8200
 3.0940	 2.8020
 3.0960	 2.8570
 3.0980	 2.8220
 3.1000	 2.7970
 3.1010	 2.7270
 3.1030	 2.7650
 3.1050	 2.8120
 3.1070	 2.8150
 3.1090	 2.7600
 3.1110	 2.7390
 3.1130	 2.7630
 3.1140	 2.8340
 3.1160	 2.8370
 3.1180	 2.8280
 3.1200	 2.7670
 3.1220	 2.8220
 3.1240	 2.8200
 3.1260	 2.8440
 3.1280	 2.8140
 3.1290	 2.8040
 3.1310	 2.7370
 3.1330	 2.6880
 3.1350	 2.7080
 3.1370	 2.8240
 3.1390	 2.8290
 3.1410	 2.8020
 3.1430	 2.7220
 3.1450	 2.7720
 3.1470	 2.7890
 3.1480	 2.7850
 3.1500	 2.7620
 3.1520	 2.7880
 3.1540	 2.7770
 3.1560	 2.7870
 3.1580	 2.7800
 3.1600	 2.8230
 3.1620	 2.8010
 3.1640	 2.8100
 3.1660	 2.7640
 3.1680	 2.7630
 3.1700	 2.7640
 3.1720	 2.7930
 3.1730	 2.8030
 3.1750	 2.8430
 3.1770	 2.7970
 3.1790	 2.7890
 3.1810	 2.7720
 3.1830	 2.7940
 3.1850	 2.8010
 3.1870	 2.8180
 3.1890	 2.7810
 3.1910	 2.7720
 3.1930	 2.7390
 3.1950	 2.7620
 3.1970	 2.7700
 3.1990	 2.7500
 3.2010	 2.7150
 3.2030	 2.7460
 3.2050	 2.7300
 3.2070	 2.7370
 3.2090	 2.7110
 3.2110	 2.7250
 3.2130	 2.7610
 3.2150	 2.8200
 3.2170	 2.7780
 3.2190	 2.7800
 3.2210	 2.7610
 3.2230	 2.7780
 3.2250	 2.7440
 3.2270	 2.7700
 3.2290	 2.7380
 3.2310	 2.7180
 3.2330	 2.6830
 3.2350	 2.7250
 3.2370	 2.7570
 3.2390	 2.7810
 3.2410	 2.7630
 3.2430	 2.7380
 3.2450	 2.6990
 3.2470	 2.7480
 3.2490	 2.7490
 3.2510	 2.7370
 3.2530	 2.7070
 3.2550	 2.7490
 3.2570	 2.7420
 3.2590	 2.7440
 3.2610	 2.7180
 3.2630	 2.7380
 3.2650	 2.7010
 3.2670	 2.6930
 3.2700	 2.7050
 3.2720	 2.7160
 3.2740	 2.6720
 3.2760	 2.6720
 3.2780	 2.6720
 3.2800	 2.7320
 3.2820	 2.7190
 3.2840	 2.7310
 3.2860	 2.7200
 3.2880	 2.7220
 3.2900	 2.6750
 3.2920	 2.6770
 3.2940	 2.6570
 3.2970	 2.6450
 3.2990	 2.6480
 3.3010	 2.6590
 3.3030	 2.6420
 3.3050	 2.6790
 3.3070	 2.6770
 3.3090	 2.6870
 3.3110	 2.6350
 3.3130	 2.6390
 3.3160	 2.6110
 3.3180	 2.6170
 3.3200	 2.5840
 3.3220	 2.6160
 3.3240	 2.6290
 3.3260	 2.6130
 3.3280	 2.5730
 3.3300	 2.6050
 3.3330	 2.5930
 3.3350	 2.5980
 3.3370	 2.5760
 3.3390	 2.5930
 3.3410	 2.5280
 3.3430	 2.5330
 3.3450	 2.5040
 3.3480	 2.5150
 3.3500	 2.5310
 3.3520	 2.5600
 3.3540	 2.5510
 3.3560	 2.5190
 3.3580	 2.4330
 3.3610	 2.4400
 3.3630	 2.4840
 3.3650	 2.5430
 3.3670	 2.5030
 3.3690	 2.4790
 3.3720	 2.4390
 3.3740	 2.4410
 3.3760	 2.4120
 3.3780	 2.4160
 3.3800	 2.4190
 3.3830	 2.5170
 3.3850	 2.5250
 3.3870	 2.5250
 3.3890	 2.5010
 3.3910	 2.5390
 3.3940	 2.4790
 3.3960	 2.4440
 3.3980	 2.4310
 3.4000	 2.4710
 3.4030	 2.4780
 3.4050	 2.4850
 3.4070	 2.5290
 3.4090	 2.6330
 3.4110	 2.7290
 3.4140	 2.8800
 3.4160	 2.9790
 3.4180	 3.1850
 3.4200	 3.5270
 3.4230	 4.0880
 3.4250	 4.6460
 3.4270	 5.2210
 3.4300	 5.6110
 3.4320	 5.5900
 3.4340	 5.1670
 3.4360	 4.7790
 3.4390	 4.5020
 3.4410	 4.2610
 3.4430	 4.0820
 3.4450	 3.9980
 3.4480	 3.8870
 3.4500	 3.8400
 3.4520	 3.8010
 3.4550	 3.7840
 3.4570	 3.7130
 3.4590	 3.7210
 3.4620	 3.7070
 3.4640	 3.6480
 3.4660	 3.6240
 3.4690	 3.6240
 3.4710	 3.5180
 3.4730	 3.4380
 3.4760	 3.3890
 3.4780	 3.3710
 3.4800	 3.2900
 3.4830	 3.2730
 3.4850	 3.2210
 3.4870	 3.1650
 3.4900	 3.1110
 3.4920	 3.0840
 3.4940	 3.0550
 3.4970	 3.0900
 3.4990	 3.0790
 3.5010	 3.1480
 3.5040	 3.2930
 3.5060	 3.7030
 3.5080	 4.4720
 3.5110	 5.2550
 3.5130	 5.4050
 3.5160	 5.0960
 3.5180	 4.6870
 3.5200	 4.3940
 3.5230	 4.1570
 3.5250	 4.0530
 3.5280	 3.9750
 3.5300	 3.9290
 3.5320	 3.8680
 3.5350	 3.8420
 3.5370	 3.7970
 3.5400	 3.7660
 3.5420	 3.7080
 3.5440	 3.6830
 3.5470	 3.6370
 3.5490	 3.6510
 3.5520	 3.6600
 3.5540	 3.6350
 3.5570	 3.5500
 3.5590	 3.5930
 3.5610	 3.5940
 3.5640	 3.5800
 3.5660	 3.5890
 3.5690	 3.6310
 3.5710	 3.5820
 3.5740	 3.5930
 3.5760	 3.5870
 3.5790	 3.5650
 3.5810	 3.5540
 3.5840	 3.5530
 3.5860	 3.5210
 3.5890	 3.5150
 3.5910	 3.5180
 3.5940	 3.5580
 3.5960	 3.5400
 3.5990	 3.5320
 3.6010	 3.5310
 3.6040	 3.5530
 3.6060	 3.5400
 3.6090	 3.5480
 3.6110	 3.5610
 3.6140	 3.5670
 3.6160	 3.5480
 3.6190	 3.5690
 3.6210	 3.5820
 3.6240	 3.5740
 3.6260	 3.5400
 3.6290	 3.5930
 3.6310	 3.5820
 3.6340	 3.5790
 3.6360	 3.5750
 3.6390	 3.5700
 3.6410	 3.5690
 3.6440	 3.6160
 3.6470	 3.6010
 3.6490	 3.5840
 3.6520	 3.5640
 3.6540	 3.5890
 3.6570	 3.6070
 3.6590	 3.6610
 3.6620	 3.6650
 3.6650	 3.6700
 3.6670	 3.6560
 3.6700	 3.6800
 3.6720	 3.6970
 3.6750	 3.6970
 3.6780	 3.6910
 3.6800	 3.7190
 3.6830	 3.7310
 3.6850	 3.7350
 3.6880	 3.7290
 3.6910	 3.7430
 3.6930	 3.7740
 3.6960	 3.8270
 3.6990	 3.8010
 3.7010	 3.8280
 3.7040	 3.8310
 3.7070	 3.8220
 3.7090	 3.7720
 3.7120	 3.8080
 3.7150	 3.8240
 3.7170	 3.8480
 3.7200	 3.8530
 3.7230	 3.8980
 3.7250	 3.9230
 3.7280	 3.9380
 3.7310	 3.9280
 3.7330	 3.9500
 3.7360	 3.9740
 3.7390	 3.9950
 3.7410	 4.0120
 3.7440	 4.0390
 3.7470	 4.0030
 3.7490	 4.0240
 3.7520	 4.0620
 3.7550	 4.0940
 3.7580	 4.0860
 3.7600	 4.1260
 3.7630	 4.1710
 3.7660	 4.2130
 3.7690	 4.2140
 3.7710	 4.2190
 3.7740	 4.2060
 3.7770	 4.1970
 3.7790	 4.2120
 3.7820	 4.2760
 3.7850	 4.3180
 3.7880	 4.3480
 3.7910	 4.3340
 3.7930	 4.3080
 3.7960	 4.3300
 3.7990	 4.3920
 3.8020	 4.3970
 3.8040	 4.4450
 3.8070	 4.4510
 3.8100	 4.4600
 3.8130	 4.4650
 3.8160	 4.4820
 3.8180	 4.4780
 3.8210	 4.5360
 3.8240	 4.5790
 3.8270	 4.6010
 3.8300	 4.5810
 3.8330	 4.6050
 3.8350	 4.6350
 3.8380	 4.6590
 3.8410	 4.6240
 3.8440	 4.6400
 3.8470	 4.6680
 3.8500	 4.7100
 3.8520	 4.7100
 3.8550	 4.7360
 3.8580	 4.7350
 3.8610	 4.7660
 3.8640	 4.7830
 3.8670	 4.7840
 3.8700	 4.7410
 3.8730	 4.7500
 3.8760	 4.7810
 3.8780	 4.8160
 3.8810	 4.7940
 3.8840	 4.8260
 3.8870	 4.8170
 3.8900	 4.8180
 3.8930	 4.8190
 3.8960	 4.8480
 3.8990	 4.8210
 3.9020	 4.8060
 3.9050	 4.8160
 3.9080	 4.8600
 3.9110	 4.8490
 3.9140	 4.8130
 3.9170	 4.7950
 3.9190	 4.7980
 3.9220	 4.7980
 3.9250	 4.8680
 3.9280	 4.8710
 3.9310	 4.8200
 3.9340	 4.7880
 3.9370	 4.8380
 3.9400	 4.8400
 3.9430	 4.8260
 3.9460	 4.8140
 3.9490	 4.8170
 3.9520	 4.8270
 3.9550	 4.8600
 3.9580	 4.8460
 3.9610	 4.8500
 3.9640	 4.8260
 3.9670	 4.8350
 3.9700	 4.8430
 3.9740	 4.8530
 3.9770	 4.8400
 3.9800	 4.8410
 3.9830	 4.8190
 3.9860	 4.8240
 3.9890	 4.7990
 3.9920	 4.8190
 3.9950	 4.8220
 3.9980	 4.7990
 4.0010	 4.8060
 4.0040	 4.8590
 4.0070	 4.8570
 4.0100	 4.8830
 4.0140	 4.8850
 4.0170	 4.8710
 4.0200	 4.8270
 4.0230	 4.8310
 4.0260	 4.8390
 4.0290	 4.8600
 4.0320	 4.8500
 4.0350	 4.8470
 4.0390	 4.8230
 4.0420	 4.8220
 4.0450	 4.7960
 4.0480	 4.8150
 4.0510	 4.8050
 4.0540	 4.8090
 4.0570	 4.8390
 4.0610	 4.8420
 4.0640	 4.7870
 4.0670	 4.7740
 4.0700	 4.7940
 4.0730	 4.7830
 4.0770	 4.7690
 4.0800	 4.7910
 4.0830	 4.7550
 4.0860	 4.7430
 4.0890	 4.7460
 4.0930	 4.7350
 4.0960	 4.7260
 4.0990	 4.7320
 4.1020	 4.7300
 4.1060	 4.7640
 4.1090	 4.7480
 4.1120	 4.7110
 4.1150	 4.6960
 4.1190	 4.6790
 4.1220	 4.6590
 4.1250	 4.6750
 4.1290	 4.6470
 4.1320	 4.6490
 4.1350	 4.6640
 4.1380	 4.6750
 4.1420	 4.6460
 4.1450	 4.6310
 4.1480	 4.6140
 4.1520	 4.5880
 4.1550	 4.5500
 4.1580	 4.5450
 4.1620	 4.5390
 4.1650	 4.5670
 4.1680	 4.5780
 4.1720	 4.5630
 4.1750	 4.5110
 4.1780	 4.4890
 4.1820	 4.4780
 4.1850	 4.4790
 4.1890	 4.4730
 4.1920	 4.4820
 4.1950	 4.4910
 4.1990	 4.4800
 4.2020	 4.4800
 4.2060	 4.5240
 4.2090	 4.4890
 4.2120	 4.4970
 4.2160	 4.5720
 4.2190	 4.6040
 4.2230	 4.5780
 4.2260	 4.5500
 4.2300	 4.5720
 4.2330	 4.6490
 4.2360	 4.5800
 4.2400	 4.5490
 4.2430	 4.4260
 4.2470	 4.3660
 4.2500	 4.3720
 4.2540	 4.3980
 4.2570	 4.3460
 4.2610	 4.3400
 4.2640	 4.3390
 4.2680	 4.3200
 4.2710	 4.2800
 4.2750	 4.3090
 4.2780	 4.2870
 4.2820	 4.2960
 4.2850	 4.2480
 4.2890	 4.2060
 4.2930	 4.1460
 4.2960	 4.1590
 4.3000	 4.1770
 4.3030	 4.1420
 4.3070	 4.0800
 4.3100	 4.0410
 4.3140	 4.0200
 4.3180	 4.0510
 4.3210	 4.0220
 4.3250	 4.0370
 4.3280	 3.9910
 4.3320	 3.9530
 4.3360	 3.9450
 4.3390	 3.9310
 4.3430	 3.9200
 4.3470	 3.9140
 4.3500	 3.8760
 4.3540	 3.8640
 4.3580	 3.8590
 4.3610	 3.8360
 4.3650	 3.8190
 4.3690	 3.8040
 4.3720	 3.7940
 4.3760	 3.7940
 4.3800	 3.7870
 4.3830	 3.7310
 4.3870	 3.7020
 4.3910	 3.7290
 4.3940	 3.7220
 4.3980	 3.7200
 4.4020	 3.6810
 4.4060	 3.6770
 4.4090	 3.6930
 4.4130	 3.6870
 4.4170	 3.6700
 4.4210	 3.6450
 4.4240	 3.6300
 4.4280	 3.6320
 4.4320	 3.5860
 4.4360	 3.5710
 4.4400	 3.5740
 4.4430	 3.5450
 4.4470	 3.5560
 4.4510	 3.5870
 4.4550	 3.5700
 4.4590	 3.5470
 4.4630	 3.4950
 4.4660	 3.4840
 4.4700	 3.4850
 4.4740	 3.4650
 4.4780	 3.4730
 4.4820	 3.4610
 4.4860	 3.4630
 4.4900	 3.4920
 4.4930	 3.4870
 4.4970	 3.4730
 4.5010	 3.4610
 4.5050	 3.4480
 4.5090	 3.4230
 4.5130	 3.4360
 4.5170	 3.4120
 4.5210	 3.3710
 4.5250	 3.3660
 4.5290	 3.3950
 4.5330	 3.4010
 4.5370	 3.4050
 4.5410	 3.3960
 4.5450	 3.3790
 4.5490	 3.3850
 4.5530	 3.4050
 4.5570	 3.3810
 4.5610	 3.3700
 4.5650	 3.3310
 4.5690	 3.2990
 4.5730	 3.3110
 4.5770	 3.3370
 4.5810	 3.3470
 4.5850	 3.3160
 4.5890	 3.3200
 4.5930	 3.3360
 4.5970	 3.3140
 4.6010	 3.3230
 4.6050	 3.3360
 4.6090	 3.3250
 4.6130	 3.3110
 4.6170	 3.3290
 4.6220	 3.3120
 4.6260	 3.2770
 4.6300	 3.2950
 4.6340	 3.2890
 4.6380	 3.2670
 4.6420	 3.2660
 4.6460	 3.2580
 4.6510	 3.2620
 4.6550	 3.2730
 4.6590	 3.2740
 4.6630	 3.2630
 4.6670	 3.2620
 4.6720	 3.2540
 4.6760	 3.2560
 4.6800	 3.2490
 4.6840	 3.2420
 4.6880	 3.2610
 4.6930	 3.2760
 4.6970	 3.2600
 4.7010	 3.2180
 4.7050	 3.1870
 4.7100	 3.2050
 4.7140	 3.2360
 4.7180	 3.2450
 4.7230	 3.2420
 4.7270	 3.2430
 4.7310	 3.2600
 4.7360	 3.2690
 4.7400	 3.2590
 4.7440	 3.2470
 4.7490	 3.2720
 4.7530	 3.2660
 4.7570	 3.2600
 4.7620	 3.2690
 4.7660	 3.2570
 4.7700	 3.2530
 4.7750	 3.2690
 4.7790	 3.3110
 4.7840	 3.3110
 4.7880	 3.2960
 4.7920	 3.2970
 4.7970	 3.2990
 4.8010	 3.2920
 4.8060	 3.2560
 4.8100	 3.2370
 4.8150	 3.2410
 4.8190	 3.2690
 4.8240	 3.2750
 4.8280	 3.2600
 4.8330	 3.2520
 4.8370	 3.3000
 4.8420	 3.3170
 4.8460	 3.3060
 4.8510	 3.3240
 4.8550	 3.3580
 4.8600	 3.3460
 4.8640	 3.3150
 4.8690	 3.2980
 4.8740	 3.3230
 4.8780	 3.3510
 4.8830	 3.3420
 4.8870	 3.3230
 4.8920	 3.3220
 4.8970	 3.3330
 4.9010	 3.3580
 4.9060	 3.3870
 4.9100	 3.3890
 4.9150	 3.3880
 4.9200	 3.4180
 4.9240	 3.4380
 4.9290	 3.4390
 4.9340	 3.4320
 4.9390	 3.4480
 4.9430	 3.4300
 4.9480	 3.4210
 4.9530	 3.4580
 4.9570	 3.4870
 4.9620	 3.4780
 4.9670	 3.4790
 4.9720	 3.5240
 4.9760	 3.5410
 4.9810	 3.5200
 4.9860	 3.5440
 4.9910	 3.5740
 4.9960	 3.5890
 5.0000	 3.5790
 5.0050	 3.6030
 5.0100	 3.6240
 5.0150	 3.6230
 5.0200	 3.6020
 5.0250	 3.6550
 5.0300	 3.6900
 5.0340	 3.6630
 5.0390	 3.6370
 5.0440	 3.6800
 5.0490	 3.7110
 5.0540	 3.7100
 5.0590	 3.7380
 5.0640	 3.7880
 5.0690	 3.8140
 5.0740	 3.8260
 5.0790	 3.8080
 5.0840	 3.8100
 5.0890	 3.8370
 5.0940	 3.8290
 5.0990	 3.8240
 5.1040	 3.8710
 5.1090	 3.9060
 5.1140	 3.9280
 5.1190	 3.9230
 5.1240	 3.9320
 5.1290	 3.9640
 5.1340	 4.0040
 5.1390	 4.0120
 5.1440	 3.9870
 5.1490	 3.9700
 5.1550	 4.0140
 5.1600	 4.0390
 5.1650	 4.0710
 5.1700	 4.1130
 5.1750	 4.1190
 5.1800	 4.1060
 5.1850	 4.1500
 5.1910	 4.1260
 5.1960	 4.1080
 5.2010	 4.0700
 5.2060	 4.0830
 5.2110	 4.0580
 5.2170	 4.0890
 5.2220	 4.1610
 5.2270	 4.1940
 5.2330	 4.1780
 5.2380	 4.1610
 5.2430	 4.1680
 5.2480	 4.1700
 5.2540	 4.1610
 5.2590	 4.1660
 5.2640	 4.1780
 5.2700	 4.1970
 5.2750	 4.1810
 5.2800	 4.1780
 5.2860	 4.1940
 5.2910	 4.2000
 5.2970	 4.2110
 5.3020	 4.2290
 5.3080	 4.2000
 5.3130	 4.2120
 5.3180	 4.1890
 5.3240	 4.1540
 5.3290	 4.1330
 5.3350	 4.1780
 5.3400	 4.1740
 5.3460	 4.0990
 5.3510	 4.0400
 5.3570	 4.1160
 5.3620	 4.1610
 5.3680	 4.1770
 5.3740	 4.1500
 5.3790	 4.1350
 5.3850	 4.1220
 5.3900	 4.1380
 5.3960	 4.1250
 5.4010	 4.1040
 5.4070	 4.0680
 5.4130	 4.0490
 5.4180	 3.9420
 5.4240	 3.8650
 5.4300	 3.9600
 5.4350	 3.9990
 5.4410	 3.9610
 5.4470	 3.9410
 5.4530	 3.9030
 5.4580	 3.8620
 5.4640	 3.7640
 5.4700	 3.7530
 5.4760	 3.7330
 5.4810	 3.7260
