Name: Quercus lobata 3
Type: vegetation
Class: Tree
Genus: Quercus
Species: lobata
Sample No.: VH090
Owner: UCSB
Wavelength Range: TIR
Origin: 34.7151; -120.0588; WGS84
Collection Date: 4/21/2013
Description: Samples were collected as part of the HyspIRI Airborne Campaign. 48 individual plants were sampled in three times in 2013 - spring  summer  and fall. The name of the sample includes a 1  2  or 3 which references a different individual of the species. Samples were taken to JPL and processed within 48 hours of collection. The same leaves were processed in the Nicolet and then measured using the ASD.
Measurement: Hemispherical reflectance
First Column: X
Second Column: Y
X Units: Wavelength (micrometers)
Y Units: Reflectance (percentage)
First X Value: 2.501
Last X Value: 15.387
Number of X Values: 1737
Additional Information: vegetation.tree.quercus.lobata.tir.vh090.ucsb.nicolet.ancillary.txt

 2.5010	10.2870
 2.5030	10.2230
 2.5040	10.2520
 2.5050	10.2620
 2.5060	10.2170
 2.5070	10.2160
 2.5090	10.2610
 2.5100	10.2740
 2.5110	10.3310
 2.5120	10.2370
 2.5140	10.2120
 2.5150	10.1750
 2.5160	10.0370
 2.5170	10.0700
 2.5180	10.1450
 2.5200	10.0640
 2.5210	10.0910
 2.5220	10.0600
 2.5230	10.0050
 2.5250	10.0900
 2.5260	10.1970
 2.5270	10.1600
 2.5280	10.1320
 2.5290	10.0810
 2.5310	10.0310
 2.5320	 9.9910
 2.5330	10.0750
 2.5340	10.1220
 2.5360	10.1440
 2.5370	10.0960
 2.5380	10.0800
 2.5390	10.1510
 2.5410	10.2470
 2.5420	10.2690
 2.5430	10.1660
 2.5440	10.1230
 2.5460	10.0650
 2.5470	10.0230
 2.5480	10.1010
 2.5490	10.1280
 2.5510	10.0530
 2.5520	10.0850
 2.5530	10.1860
 2.5540	10.2710
 2.5560	10.2190
 2.5570	10.1010
 2.5580	10.1330
 2.5590	10.1840
 2.5610	10.1840
 2.5620	10.1200
 2.5630	10.1210
 2.5640	10.1920
 2.5660	10.2430
 2.5670	10.1560
 2.5680	10.1350
 2.5700	10.2770
 2.5710	10.2720
 2.5720	10.1710
 2.5730	10.1250
 2.5750	10.0940
 2.5760	10.1340
 2.5770	10.1920
 2.5790	10.3030
 2.5800	10.3040
 2.5810	10.2180
 2.5820	10.1860
 2.5840	 9.9820
 2.5850	 9.9760
 2.5860	10.1730
 2.5880	10.2930
 2.5890	10.2670
 2.5900	10.1400
 2.5910	10.1320
 2.5930	10.0440
 2.5940	 9.9530
 2.5950	 9.9680
 2.5970	10.0480
 2.5980	10.0080
 2.5990	 9.9690
 2.6000	 9.9360
 2.6020	 9.8800
 2.6030	 9.8580
 2.6040	 9.8730
 2.6060	 9.8290
 2.6070	 9.7430
 2.6080	 9.7770
 2.6100	 9.8570
 2.6110	 9.8050
 2.6120	 9.7870
 2.6140	 9.7620
 2.6150	 9.7330
 2.6160	 9.7340
 2.6180	 9.6470
 2.6190	 9.5710
 2.6200	 9.5970
 2.6220	 9.5570
 2.6230	 9.5590
 2.6240	 9.5830
 2.6260	 9.5430
 2.6270	 9.4020
 2.6280	 9.3520
 2.6300	 9.3760
 2.6310	 9.3070
 2.6320	 9.2680
 2.6340	 9.2840
 2.6350	 9.3150
 2.6360	 9.2510
 2.6380	 9.2390
 2.6390	 9.2840
 2.6400	 9.2040
 2.6420	 9.0830
 2.6430	 9.0850
 2.6440	 9.1160
 2.6460	 9.0110
 2.6470	 8.9810
 2.6480	 8.9970
 2.6500	 8.9070
 2.6510	 8.8110
 2.6520	 8.7750
 2.6540	 8.7770
 2.6550	 8.7630
 2.6560	 8.7050
 2.6580	 8.7000
 2.6590	 8.6720
 2.6610	 8.7090
 2.6620	 8.7180
 2.6630	 8.6830
 2.6650	 8.4990
 2.6660	 8.4770
 2.6670	 8.5320
 2.6690	 8.5590
 2.6700	 8.4790
 2.6720	 8.5210
 2.6730	 8.4720
 2.6740	 8.4570
 2.6760	 8.5200
 2.6770	 8.4590
 2.6780	 8.4040
 2.6800	 8.4850
 2.6810	 8.4420
 2.6830	 8.3720
 2.6840	 8.3320
 2.6850	 8.1910
 2.6870	 8.1000
 2.6880	 8.1410
 2.6900	 8.1390
 2.6910	 8.0280
 2.6920	 7.9620
 2.6940	 7.9320
 2.6950	 7.8230
 2.6970	 7.7870
 2.6980	 7.8400
 2.6990	 7.7930
 2.7010	 7.7070
 2.7020	 7.7160
 2.7040	 7.6450
 2.7050	 7.6120
 2.7060	 7.6110
 2.7080	 7.5260
 2.7090	 7.4220
 2.7110	 7.3550
 2.7120	 7.2440
 2.7130	 7.1460
 2.7150	 7.0780
 2.7160	 7.0310
 2.7180	 6.8800
 2.7190	 6.8760
 2.7210	 6.8710
 2.7220	 6.7810
 2.7230	 6.6700
 2.7250	 6.5840
 2.7260	 6.4880
 2.7280	 6.4310
 2.7290	 6.4220
 2.7310	 6.3350
 2.7320	 6.1530
 2.7330	 5.9590
 2.7350	 5.8470
 2.7360	 5.8460
 2.7380	 5.9060
 2.7390	 5.8710
 2.7410	 5.6960
 2.7420	 5.5480
 2.7440	 5.4780
 2.7450	 5.4180
 2.7470	 5.3250
 2.7480	 5.2580
 2.7490	 5.1660
 2.7510	 5.0910
 2.7520	 5.0720
 2.7540	 4.9560
 2.7550	 4.9510
 2.7570	 5.1500
 2.7580	 5.0010
 2.7600	 4.8260
 2.7610	 4.8210
 2.7630	 4.8820
 2.7640	 4.8840
 2.7660	 4.8550
 2.7670	 4.7380
 2.7680	 4.6670
 2.7700	 4.6180
 2.7710	 4.4970
 2.7730	 4.4310
 2.7740	 4.4930
 2.7760	 4.4530
 2.7770	 4.4190
 2.7790	 4.3690
 2.7800	 4.4340
 2.7820	 4.3600
 2.7830	 4.3050
 2.7850	 4.2730
 2.7860	 4.3430
 2.7880	 4.3230
 2.7890	 4.2520
 2.7910	 4.2100
 2.7920	 4.1940
 2.7940	 4.1560
 2.7950	 4.1400
 2.7970	 4.1730
 2.7980	 4.1720
 2.8000	 4.0510
 2.8010	 3.9230
 2.8030	 3.8720
 2.8040	 3.9310
 2.8060	 4.0500
 2.8070	 4.1040
 2.8090	 4.0190
 2.8110	 3.9420
 2.8120	 3.8850
 2.8140	 3.8260
 2.8150	 3.8810
 2.8170	 3.9580
 2.8180	 3.8830
 2.8200	 3.8780
 2.8210	 3.9030
 2.8230	 3.8610
 2.8240	 3.8330
 2.8260	 3.8290
 2.8270	 3.8270
 2.8290	 3.8500
 2.8300	 3.8970
 2.8320	 3.9200
 2.8340	 3.8460
 2.8350	 3.7730
 2.8370	 3.6500
 2.8380	 3.7050
 2.8400	 3.8880
 2.8410	 3.9560
 2.8430	 3.8320
 2.8440	 3.7090
 2.8460	 3.7620
 2.8480	 3.8250
 2.8490	 3.8140
 2.8510	 3.7770
 2.8520	 3.7130
 2.8540	 3.6990
 2.8550	 3.6730
 2.8570	 3.7460
 2.8590	 3.7350
 2.8600	 3.6960
 2.8620	 3.7100
 2.8630	 3.7500
 2.8650	 3.7280
 2.8660	 3.6150
 2.8680	 3.6070
 2.8700	 3.7160
 2.8710	 3.7230
 2.8730	 3.6430
 2.8740	 3.5920
 2.8760	 3.4440
 2.8780	 3.3630
 2.8790	 3.5240
 2.8810	 3.6600
 2.8820	 3.5660
 2.8840	 3.5060
 2.8860	 3.7140
 2.8870	 3.7260
 2.8890	 3.5910
 2.8900	 3.5650
 2.8920	 3.6490
 2.8940	 3.6350
 2.8950	 3.7390
 2.8970	 3.7910
 2.8980	 3.8140
 2.9000	 3.6910
 2.9020	 3.6070
 2.9030	 3.6140
 2.9050	 3.7090
 2.9070	 3.6690
 2.9080	 3.7050
 2.9100	 3.5710
 2.9120	 3.6170
 2.9130	 3.7690
 2.9150	 3.7470
 2.9160	 3.6330
 2.9180	 3.5590
 2.9200	 3.5670
 2.9210	 3.5840
 2.9230	 3.5650
 2.9250	 3.6410
 2.9260	 3.6550
 2.9280	 3.6890
 2.9300	 3.6980
 2.9310	 3.6770
 2.9330	 3.7400
 2.9350	 3.6900
 2.9360	 3.6340
 2.9380	 3.6760
 2.9400	 3.6640
 2.9410	 3.7340
 2.9430	 3.6740
 2.9450	 3.5380
 2.9460	 3.5130
 2.9480	 3.5440
 2.9500	 3.6530
 2.9510	 3.6990
 2.9530	 3.8520
 2.9550	 3.7760
 2.9560	 3.6800
 2.9580	 3.8310
 2.9600	 3.7300
 2.9610	 3.4900
 2.9630	 3.3720
 2.9650	 3.2450
 2.9660	 3.1850
 2.9680	 3.2070
 2.9700	 3.6170
 2.9720	 3.6930
 2.9730	 3.6350
 2.9750	 3.7900
 2.9770	 3.9880
 2.9780	 4.0370
 2.9800	 4.0280
 2.9820	 4.2670
 2.9840	 4.4460
 2.9850	 4.2440
 2.9870	 4.1310
 2.9890	 3.8950
 2.9900	 3.6920
 2.9920	 4.2320
 2.9940	 4.4190
 2.9960	 4.3600
 2.9970	 3.9370
 2.9990	 3.5320
 3.0010	 3.5850
 3.0030	 3.9260
 3.0040	 4.0960
 3.0060	 4.0020
 3.0080	 3.7280
 3.0100	 3.5360
 3.0110	 3.7300
 3.0130	 4.2770
 3.0150	 4.4120
 3.0170	 4.1860
 3.0180	 4.0690
 3.0200	 3.9430
 3.0220	 3.8360
 3.0240	 3.8170
 3.0250	 3.9170
 3.0270	 3.8380
 3.0290	 3.7820
 3.0310	 3.8980
 3.0320	 4.0800
 3.0340	 4.2070
 3.0360	 4.0910
 3.0380	 3.9520
 3.0400	 4.1970
 3.0410	 4.1540
 3.0430	 4.4100
 3.0450	 4.0150
 3.0470	 3.7540
 3.0480	 4.1800
 3.0500	 4.1590
 3.0520	 3.9950
 3.0540	 3.8050
 3.0560	 3.8960
 3.0570	 4.2490
 3.0590	 4.4780
 3.0610	 4.1210
 3.0630	 4.0470
 3.0650	 4.2230
 3.0660	 4.2980
 3.0680	 4.1080
 3.0700	 4.0660
 3.0720	 4.0100
 3.0740	 4.0280
 3.0760	 4.0870
 3.0770	 4.1340
 3.0790	 4.1100
 3.0810	 4.0920
 3.0830	 4.0980
 3.0850	 4.1420
 3.0870	 4.1340
 3.0880	 4.2520
 3.0900	 4.1510
 3.0920	 4.1350
 3.0940	 4.1540
 3.0960	 4.1780
 3.0980	 4.0930
 3.0990	 4.1050
 3.1010	 4.1220
 3.1030	 4.1640
 3.1050	 4.2210
 3.1070	 4.2310
 3.1090	 4.1880
 3.1110	 4.1980
 3.1120	 4.1710
 3.1140	 4.2940
 3.1160	 4.3820
 3.1180	 4.3850
 3.1200	 4.3320
 3.1220	 4.3930
 3.1240	 4.2860
 3.1260	 4.2540
 3.1270	 4.3630
 3.1290	 4.4710
 3.1310	 4.4470
 3.1330	 4.3630
 3.1350	 4.2910
 3.1370	 4.4160
 3.1390	 4.4040
 3.1410	 4.3460
 3.1430	 4.2470
 3.1450	 4.2910
 3.1460	 4.3430
 3.1480	 4.5270
 3.1500	 4.6240
 3.1520	 4.4250
 3.1540	 4.4190
 3.1560	 4.6350
 3.1580	 4.5990
 3.1600	 4.5510
 3.1620	 4.4770
 3.1640	 4.3580
 3.1660	 4.5800
 3.1680	 4.7830
 3.1700	 4.8300
 3.1710	 4.9740
 3.1730	 4.8100
 3.1750	 4.7250
 3.1770	 5.0900
 3.1790	 5.4080
 3.1810	 5.0540
 3.1830	 4.7540
 3.1850	 4.4630
 3.1870	 4.2940
 3.1890	 4.6680
 3.1910	 4.8490
 3.1930	 4.8290
 3.1950	 4.8670
 3.1970	 4.9060
 3.1990	 4.9420
 3.2010	 4.9110
 3.2030	 4.9440
 3.2050	 4.9660
 3.2070	 4.9190
 3.2090	 4.9100
 3.2110	 4.8720
 3.2130	 4.7880
 3.2150	 4.8330
 3.2170	 4.9460
 3.2190	 5.0230
 3.2210	 4.9430
 3.2230	 4.9410
 3.2250	 5.0560
 3.2270	 4.9850
 3.2290	 4.9660
 3.2310	 5.0470
 3.2330	 4.9800
 3.2350	 5.0370
 3.2370	 5.1740
 3.2390	 5.1390
 3.2410	 5.1500
 3.2430	 5.1970
 3.2450	 5.1530
 3.2470	 5.1610
 3.2490	 5.2320
 3.2510	 5.2650
 3.2530	 5.2820
 3.2550	 5.2930
 3.2570	 5.3160
 3.2590	 5.4060
 3.2610	 5.3920
 3.2630	 5.3330
 3.2650	 5.3740
 3.2670	 5.4860
 3.2690	 5.3840
 3.2720	 5.2710
 3.2740	 5.3380
 3.2760	 5.4810
 3.2780	 5.5560
 3.2800	 5.5690
 3.2820	 5.5550
 3.2840	 5.5340
 3.2860	 5.5270
 3.2880	 5.5750
 3.2900	 5.5620
 3.2920	 5.6820
 3.2940	 5.7440
 3.2960	 5.6240
 3.2990	 5.5620
 3.3010	 5.6180
 3.3030	 5.7010
 3.3050	 5.7720
 3.3070	 5.7050
 3.3090	 5.6770
 3.3110	 5.6470
 3.3130	 5.6460
 3.3150	 5.7050
 3.3180	 5.7010
 3.3200	 5.6560
 3.3220	 5.7100
 3.3240	 5.7080
 3.3260	 5.6950
 3.3280	 5.6710
 3.3300	 5.6580
 3.3330	 5.6080
 3.3350	 5.6730
 3.3370	 5.6980
 3.3390	 5.6730
 3.3410	 5.7150
 3.3430	 5.6890
 3.3450	 5.6490
 3.3480	 5.6140
 3.3500	 5.6010
 3.3520	 5.5630
 3.3540	 5.4910
 3.3560	 5.5500
 3.3580	 5.5990
 3.3610	 5.5750
 3.3630	 5.4820
 3.3650	 5.4310
 3.3670	 5.3700
 3.3690	 5.3360
 3.3720	 5.2810
 3.3740	 5.2070
 3.3760	 5.2160
 3.3780	 5.2230
 3.3800	 5.1510
 3.3830	 5.1000
 3.3850	 4.9960
 3.3870	 4.9170
 3.3890	 4.7250
 3.3910	 4.6370
 3.3940	 4.6170
 3.3960	 4.5540
 3.3980	 4.4080
 3.4000	 4.4360
 3.4020	 4.5860
 3.4050	 4.7160
 3.4070	 4.7560
 3.4090	 4.8250
 3.4110	 4.8760
 3.4140	 4.9700
 3.4160	 5.1190
 3.4180	 5.3050
 3.4200	 5.4460
 3.4230	 5.6670
 3.4250	 5.8980
 3.4270	 6.0900
 3.4290	 6.0820
 3.4320	 6.0370
 3.4340	 5.9190
 3.4360	 5.8120
 3.4390	 5.7410
 3.4410	 5.7350
 3.4430	 5.7500
 3.4450	 5.7080
 3.4480	 5.6530
 3.4500	 5.7630
 3.4520	 5.8140
 3.4550	 5.6730
 3.4570	 5.7170
 3.4590	 5.8820
 3.4620	 5.9010
 3.4640	 5.8560
 3.4660	 5.7950
 3.4680	 5.8270
 3.4710	 5.8750
 3.4730	 5.7860
 3.4750	 5.7020
 3.4780	 5.7560
 3.4800	 5.7640
 3.4820	 5.7110
 3.4850	 5.6660
 3.4870	 5.6110
 3.4890	 5.6130
 3.4920	 5.5960
 3.4940	 5.5080
 3.4970	 5.5190
 3.4990	 5.5800
 3.5010	 5.6830
 3.5040	 5.7790
 3.5060	 5.9860
 3.5080	 6.2590
 3.5110	 6.4940
 3.5130	 6.6550
 3.5160	 6.7070
 3.5180	 6.7110
 3.5200	 6.7760
 3.5230	 6.8300
 3.5250	 6.8680
 3.5270	 6.9250
 3.5300	 6.9590
 3.5320	 6.9850
 3.5350	 6.9540
 3.5370	 7.0180
 3.5400	 7.1220
 3.5420	 7.1580
 3.5440	 7.1250
 3.5470	 7.0570
 3.5490	 7.1220
 3.5520	 7.1900
 3.5540	 7.1820
 3.5570	 7.1850
 3.5590	 7.2350
 3.5610	 7.2500
 3.5640	 7.2680
 3.5660	 7.2840
 3.5690	 7.3640
 3.5710	 7.3580
 3.5740	 7.3070
 3.5760	 7.3640
 3.5790	 7.3920
 3.5810	 7.3450
 3.5840	 7.3880
 3.5860	 7.4990
 3.5890	 7.5090
 3.5910	 7.4630
 3.5930	 7.5380
 3.5960	 7.5420
 3.5980	 7.5210
 3.6010	 7.5090
 3.6030	 7.4610
 3.6060	 7.4690
 3.6080	 7.5460
 3.6110	 7.6010
 3.6140	 7.5700
 3.6160	 7.4800
 3.6190	 7.4720
 3.6210	 7.5140
 3.6240	 7.5180
 3.6260	 7.5070
 3.6290	 7.4980
 3.6310	 7.5170
 3.6340	 7.5460
 3.6360	 7.5760
 3.6390	 7.5770
 3.6410	 7.5760
 3.6440	 7.5890
 3.6470	 7.6020
 3.6490	 7.5760
 3.6520	 7.5590
 3.6540	 7.5960
 3.6570	 7.6080
 3.6590	 7.5770
 3.6620	 7.5760
 3.6650	 7.6220
 3.6670	 7.6020
 3.6700	 7.6280
 3.6720	 7.6720
 3.6750	 7.6990
 3.6780	 7.7370
 3.6800	 7.7090
 3.6830	 7.6800
 3.6850	 7.6470
 3.6880	 7.6110
 3.6910	 7.6190
 3.6930	 7.6570
 3.6960	 7.7010
 3.6990	 7.6350
 3.7010	 7.6360
 3.7040	 7.7510
 3.7060	 7.8130
 3.7090	 7.7940
 3.7120	 7.7620
 3.7140	 7.7500
 3.7170	 7.7550
 3.7200	 7.7240
 3.7220	 7.7020
 3.7250	 7.7480
 3.7280	 7.7790
 3.7300	 7.7390
 3.7330	 7.7780
 3.7360	 7.8640
 3.7390	 7.8680
 3.7410	 7.8760
 3.7440	 7.9180
 3.7470	 7.9330
 3.7490	 7.9230
 3.7520	 7.9590
 3.7550	 8.0080
 3.7580	 8.0350
 3.7600	 8.0250
 3.7630	 8.0950
 3.7660	 8.1510
 3.7680	 8.0960
 3.7710	 8.0680
 3.7740	 8.1130
 3.7770	 8.1050
 3.7790	 8.1330
 3.7820	 8.1210
 3.7850	 8.0840
 3.7880	 8.0620
 3.7900	 8.0530
 3.7930	 8.0080
 3.7960	 7.9640
 3.7990	 8.0060
 3.8020	 8.0960
 3.8040	 8.1160
 3.8070	 8.0430
 3.8100	 8.0480
 3.8130	 8.0560
 3.8160	 8.0950
 3.8180	 8.1390
 3.8210	 8.1250
 3.8240	 8.1280
 3.8270	 8.1450
 3.8300	 8.1820
 3.8330	 8.2020
 3.8350	 8.1480
 3.8380	 8.1500
 3.8410	 8.2220
 3.8440	 8.2250
 3.8470	 8.2080
 3.8500	 8.1970
 3.8520	 8.2320
 3.8550	 8.3090
 3.8580	 8.3440
 3.8610	 8.3310
 3.8640	 8.2810
 3.8670	 8.2790
 3.8700	 8.3320
 3.8730	 8.3300
 3.8750	 8.2780
 3.8780	 8.3140
 3.8810	 8.3710
 3.8840	 8.3430
 3.8870	 8.3350
 3.8900	 8.3620
 3.8930	 8.4080
 3.8960	 8.4340
 3.8990	 8.4200
 3.9020	 8.3970
 3.9050	 8.3630
 3.9080	 8.3950
 3.9110	 8.4320
 3.9140	 8.4320
 3.9160	 8.4610
 3.9190	 8.4570
 3.9220	 8.4630
 3.9250	 8.4460
 3.9280	 8.4500
 3.9310	 8.4660
 3.9340	 8.4460
 3.9370	 8.4360
 3.9400	 8.4660
 3.9430	 8.5000
 3.9460	 8.4970
 3.9490	 8.4560
 3.9520	 8.4570
 3.9550	 8.4290
 3.9580	 8.4210
 3.9610	 8.3730
 3.9640	 8.4190
 3.9670	 8.4970
 3.9700	 8.4760
 3.9730	 8.4640
 3.9770	 8.5020
 3.9800	 8.5370
 3.9830	 8.5390
 3.9860	 8.4670
 3.9890	 8.4860
 3.9920	 8.5670
 3.9950	 8.5890
 3.9980	 8.5590
 4.0010	 8.5490
 4.0040	 8.5690
 4.0070	 8.5740
 4.0100	 8.5660
 4.0130	 8.5290
 4.0170	 8.5590
 4.0200	 8.6080
 4.0230	 8.5970
 4.0260	 8.5600
 4.0290	 8.5960
 4.0320	 8.6270
 4.0350	 8.6200
 4.0380	 8.5790
 4.0420	 8.5540
 4.0450	 8.5620
 4.0480	 8.6100
 4.0510	 8.6050
 4.0540	 8.5900
 4.0570	 8.6210
 4.0610	 8.6190
 4.0640	 8.6070
 4.0670	 8.6200
 4.0700	 8.6920
 4.0730	 8.6790
 4.0770	 8.6710
 4.0800	 8.6900
 4.0830	 8.7010
 4.0860	 8.7340
 4.0890	 8.7780
 4.0930	 8.6950
 4.0960	 8.6820
 4.0990	 8.7140
 4.1020	 8.7580
 4.1060	 8.6910
 4.1090	 8.6300
 4.1120	 8.7030
 4.1150	 8.7800
 4.1190	 8.7490
 4.1220	 8.7010
 4.1250	 8.7100
 4.1280	 8.8080
 4.1320	 8.7890
 4.1350	 8.7640
 4.1380	 8.7920
 4.1420	 8.8490
 4.1450	 8.8540
 4.1480	 8.8630
 4.1520	 8.8070
 4.1550	 8.7970
 4.1580	 8.8130
 4.1620	 8.8180
 4.1650	 8.7930
 4.1680	 8.7870
 4.1720	 8.8210
 4.1750	 8.8060
 4.1780	 8.7800
 4.1820	 8.7540
 4.1850	 8.7610
 4.1890	 8.7950
 4.1920	 8.8160
 4.1950	 8.8440
 4.1990	 8.8420
 4.2020	 8.8540
 4.2060	 8.8950
 4.2090	 8.8750
 4.2120	 8.8250
 4.2160	 8.9260
 4.2190	 9.0250
 4.2230	 9.0560
 4.2260	 8.9580
 4.2300	 9.0970
 4.2330	 9.3740
 4.2360	 9.3630
 4.2400	 9.2410
 4.2430	 9.1500
 4.2470	 8.9070
 4.2500	 9.0410
 4.2540	 9.0590
 4.2570	 8.9810
 4.2610	 9.0550
 4.2640	 9.2840
 4.2680	 9.2570
 4.2710	 8.9980
 4.2750	 8.8490
 4.2780	 8.8170
 4.2820	 8.8360
 4.2850	 8.9540
 4.2890	 8.8630
 4.2930	 8.8640
 4.2960	 8.9210
 4.3000	 8.9450
 4.3030	 8.9820
 4.3070	 8.9480
 4.3100	 8.8640
 4.3140	 8.8580
 4.3180	 8.7600
 4.3210	 8.7470
 4.3250	 8.7770
 4.3280	 8.7450
 4.3320	 8.6370
 4.3360	 8.6560
 4.3390	 8.6780
 4.3430	 8.6880
 4.3470	 8.6810
 4.3500	 8.7140
 4.3540	 8.7170
 4.3570	 8.6640
 4.3610	 8.5560
 4.3650	 8.5240
 4.3680	 8.5710
 4.3720	 8.5820
 4.3760	 8.5940
 4.3800	 8.6240
 4.3830	 8.5330
 4.3870	 8.5190
 4.3910	 8.5490
 4.3940	 8.5610
 4.3980	 8.5740
 4.4020	 8.5740
 4.4060	 8.4890
 4.4090	 8.4900
 4.4130	 8.4850
 4.4170	 8.4930
 4.4210	 8.5240
 4.4240	 8.5450
 4.4280	 8.4650
 4.4320	 8.4620
 4.4360	 8.4840
 4.4400	 8.4660
 4.4430	 8.4100
 4.4470	 8.4220
 4.4510	 8.4090
 4.4550	 8.4280
 4.4590	 8.4600
 4.4620	 8.4330
 4.4660	 8.3570
 4.4700	 8.3880
 4.4740	 8.3800
 4.4780	 8.3950
 4.4820	 8.3710
 4.4860	 8.3690
 4.4900	 8.3760
 4.4930	 8.3510
 4.4970	 8.3020
 4.5010	 8.3340
 4.5050	 8.3470
 4.5090	 8.3730
 4.5130	 8.3420
 4.5170	 8.3390
 4.5210	 8.3390
 4.5250	 8.3310
 4.5290	 8.3060
 4.5330	 8.3440
 4.5370	 8.3220
 4.5410	 8.3040
 4.5450	 8.2390
 4.5490	 8.2200
 4.5530	 8.2360
 4.5570	 8.2750
 4.5610	 8.2270
 4.5650	 8.1950
 4.5690	 8.1920
 4.5730	 8.2030
 4.5770	 8.1050
 4.5810	 8.0770
 4.5850	 8.1160
 4.5890	 8.1710
 4.5930	 8.1410
 4.5970	 8.1750
 4.6010	 8.1540
 4.6050	 8.1160
 4.6090	 8.1040
 4.6130	 8.1130
 4.6170	 8.0890
 4.6220	 8.1040
 4.6260	 8.1200
 4.6300	 8.1540
 4.6340	 8.1200
 4.6380	 8.1100
 4.6420	 8.0710
 4.6460	 8.0500
 4.6510	 8.0130
 4.6550	 7.9670
 4.6590	 7.9290
 4.6630	 7.9890
 4.6670	 7.9880
 4.6720	 7.9910
 4.6760	 8.0450
 4.6800	 8.0570
 4.6840	 7.9450
 4.6880	 7.9150
 4.6930	 7.9410
 4.6970	 7.9840
 4.7010	 7.9430
 4.7050	 7.9940
 4.7100	 8.0110
 4.7140	 7.9650
 4.7180	 7.9880
 4.7230	 8.0560
 4.7270	 8.0530
 4.7310	 8.0450
 4.7360	 7.9970
 4.7400	 7.9840
 4.7440	 7.9690
 4.7490	 8.0070
 4.7530	 7.9870
 4.7570	 7.9430
 4.7620	 7.9100
 4.7660	 8.0140
 4.7700	 8.0130
 4.7750	 8.0250
 4.7790	 7.9750
 4.7840	 7.9120
 4.7880	 7.9620
 4.7920	 8.0430
 4.7970	 8.0500
 4.8010	 8.0890
 4.8060	 8.0350
 4.8100	 8.0570
 4.8150	 7.9990
 4.8190	 7.9610
 4.8240	 7.9720
 4.8280	 8.0130
 4.8330	 7.9240
 4.8370	 7.9550
 4.8420	 7.9750
 4.8460	 7.9940
 4.8510	 8.0460
 4.8550	 8.1200
 4.8600	 8.0800
 4.8640	 8.0210
 4.8690	 7.9760
 4.8730	 8.0310
 4.8780	 8.0060
 4.8830	 8.0220
 4.8870	 8.0320
 4.8920	 8.0390
 4.8960	 7.9810
 4.9010	 8.0100
 4.9060	 8.0600
 4.9100	 8.0790
 4.9150	 8.0300
 4.9200	 8.0820
 4.9240	 8.0680
 4.9290	 8.0660
 4.9340	 8.0470
 4.9380	 8.0960
 4.9430	 8.0900
 4.9480	 8.1110
 4.9530	 8.1260
 4.9570	 8.1120
 4.9620	 8.0510
 4.9670	 8.0680
 4.9720	 8.0790
 4.9760	 8.1240
 4.9810	 8.1490
 4.9860	 8.2320
 4.9910	 8.2290
 4.9960	 8.1790
 5.0000	 8.1460
 5.0050	 8.1760
 5.0100	 8.1970
 5.0150	 8.2800
 5.0200	 8.2040
 5.0250	 8.1830
 5.0290	 8.2280
 5.0340	 8.2730
 5.0390	 8.2150
 5.0440	 8.2090
 5.0490	 8.1480
 5.0540	 8.1940
 5.0590	 8.2530
 5.0640	 8.2450
 5.0690	 8.1750
 5.0740	 8.1890
 5.0790	 8.1860
 5.0840	 8.2090
 5.0890	 8.1710
 5.0940	 8.1700
 5.0990	 8.1550
 5.1040	 8.1780
 5.1090	 8.1770
 5.1140	 8.2030
 5.1190	 8.2160
 5.1240	 8.2500
 5.1290	 8.2170
 5.1340	 8.2120
 5.1390	 8.2250
 5.1440	 8.1970
 5.1490	 8.1320
 5.1540	 8.2120
 5.1600	 8.1910
 5.1650	 8.1990
 5.1700	 8.2000
 5.1750	 8.1770
 5.1800	 8.1860
 5.1850	 8.2700
 5.1910	 8.1910
 5.1960	 8.1750
 5.2010	 8.1190
 5.2060	 8.1500
 5.2110	 8.1600
 5.2170	 8.1980
 5.2220	 8.2070
 5.2270	 8.2590
 5.2320	 8.2230
 5.2380	 8.1730
 5.2430	 8.1190
 5.2480	 8.1120
 5.2540	 8.1020
 5.2590	 8.1210
 5.2640	 8.1130
 5.2700	 8.1480
 5.2750	 8.0620
 5.2800	 8.1010
 5.2860	 8.1340
 5.2910	 8.1040
 5.2970	 8.0700
 5.3020	 8.1480
 5.3070	 8.1650
 5.3130	 8.1920
 5.3180	 8.0940
 5.3240	 8.0470
 5.3290	 7.9960
 5.3350	 8.0450
 5.3400	 8.0390
 5.3460	 8.0540
 5.3510	 8.0020
 5.3570	 8.0020
 5.3620	 7.9570
 5.3680	 7.9880
 5.3730	 7.9050
 5.3790	 7.8790
 5.3850	 7.8590
 5.3900	 7.9090
 5.3960	 7.8550
 5.4010	 7.8840
 5.4070	 7.8640
 5.4130	 7.9310
 5.4180	 7.8640
 5.4240	 7.8190
 5.4300	 7.7600
 5.4350	 7.7680
 5.4410	 7.7700
