Name: Abies concolor 1
Type: vegetation
Class: Tree
Genus: Abies
Species: concolor
Sample No.: VH150
Owner: UCSB
Wavelength Range: VSWIR
Origin: 37.044; -119.3035; WGS84
Collection Date: 6/8/2013
Description: Samples were collected as part of the HyspIRI Airborne Campaign. 48 individual plants were sampled in three times in 2013 - spring  summer  and fall. The name of the sample includes a 1  2  or 3 which references a different individual of the species. Samples were taken to JPL and processed within 48 hours of collection. The same leaves were processed in the Nicolet and then measured using the ASD.
Measurement: Bidirectional reflectance
First Column: X
Second Column: Y
X Units: Wavelength (micrometers)
Y Units: Reflectance (percentage)
First X Value: 0.35
Last X Value: 2.5
Number of X Values: 2151
Additional Information: vegetation.tree.abies.concolor.vswir.vh150.ucsb.asd.ancillary.txt

 0.3500	 4.7480
 0.3510	 4.5660
 0.3520	 4.5560
 0.3530	 4.6150
 0.3540	 4.5460
 0.3550	 4.3660
 0.3560	 4.2610
 0.3570	 4.3010
 0.3580	 4.4580
 0.3590	 4.4920
 0.3600	 4.3790
 0.3610	 4.2010
 0.3620	 4.1610
 0.3630	 4.2270
 0.3640	 4.3390
 0.3650	 4.4140
 0.3660	 4.2530
 0.3670	 4.2100
 0.3680	 4.3110
 0.3690	 4.3370
 0.3700	 4.3370
 0.3710	 4.2820
 0.3720	 4.1990
 0.3730	 4.2290
 0.3740	 4.2170
 0.3750	 4.1560
 0.3760	 4.1000
 0.3770	 4.1490
 0.3780	 4.1870
 0.3790	 4.1940
 0.3800	 4.2250
 0.3810	 4.2210
 0.3820	 4.2090
 0.3830	 4.1970
 0.3840	 4.1360
 0.3850	 4.1120
 0.3860	 4.1620
 0.3870	 4.2690
 0.3880	 4.2290
 0.3890	 4.1640
 0.3900	 4.1520
 0.3910	 4.1800
 0.3920	 4.2080
 0.3930	 4.2400
 0.3940	 4.2750
 0.3950	 4.2710
 0.3960	 4.2460
 0.3970	 4.2200
 0.3980	 4.2150
 0.3990	 4.2590
 0.4000	 4.2900
 0.4010	 4.2860
 0.4020	 4.2870
 0.4030	 4.2840
 0.4040	 4.2780
 0.4050	 4.2810
 0.4060	 4.3140
 0.4070	 4.3420
 0.4080	 4.3580
 0.4090	 4.3720
 0.4100	 4.4240
 0.4110	 4.4590
 0.4120	 4.4560
 0.4130	 4.4740
 0.4140	 4.5180
 0.4150	 4.5730
 0.4160	 4.6150
 0.4170	 4.6490
 0.4180	 4.6860
 0.4190	 4.7290
 0.4200	 4.7720
 0.4210	 4.8300
 0.4220	 4.8840
 0.4230	 4.9190
 0.4240	 4.9440
 0.4250	 4.9810
 0.4260	 5.0260
 0.4270	 5.0600
 0.4280	 5.1060
 0.4290	 5.1450
 0.4300	 5.1770
 0.4310	 5.2180
 0.4320	 5.2490
 0.4330	 5.2750
 0.4340	 5.3180
 0.4350	 5.3600
 0.4360	 5.3950
 0.4370	 5.4180
 0.4380	 5.4390
 0.4390	 5.4630
 0.4400	 5.4880
 0.4410	 5.5130
 0.4420	 5.5570
 0.4430	 5.5840
 0.4440	 5.6020
 0.4450	 5.6430
 0.4460	 5.6690
 0.4470	 5.6850
 0.4480	 5.7060
 0.4490	 5.7510
 0.4500	 5.7870
 0.4510	 5.8120
 0.4520	 5.8350
 0.4530	 5.8440
 0.4540	 5.8560
 0.4550	 5.8780
 0.4560	 5.8970
 0.4570	 5.9160
 0.4580	 5.9340
 0.4590	 5.9490
 0.4600	 5.9580
 0.4610	 5.9570
 0.4620	 5.9540
 0.4630	 5.9570
 0.4640	 5.9700
 0.4650	 5.9790
 0.4660	 5.9810
 0.4670	 5.9840
 0.4680	 5.9810
 0.4690	 5.9770
 0.4700	 5.9740
 0.4710	 5.9740
 0.4720	 5.9820
 0.4730	 5.9940
 0.4740	 5.9910
 0.4750	 5.9980
 0.4760	 6.0010
 0.4770	 6.0020
 0.4780	 6.0070
 0.4790	 6.0110
 0.4800	 6.0110
 0.4810	 6.0180
 0.4820	 6.0200
 0.4830	 6.0270
 0.4840	 6.0400
 0.4850	 6.0520
 0.4860	 6.0550
 0.4870	 6.0630
 0.4880	 6.0780
 0.4890	 6.0870
 0.4900	 6.1100
 0.4910	 6.1410
 0.4920	 6.1680
 0.4930	 6.1940
 0.4940	 6.2240
 0.4950	 6.2600
 0.4960	 6.3130
 0.4970	 6.3640
 0.4980	 6.4170
 0.4990	 6.4790
 0.5000	 6.5340
 0.5010	 6.6040
 0.5020	 6.6850
 0.5030	 6.7750
 0.5040	 6.8730
 0.5050	 6.9790
 0.5060	 7.0910
 0.5070	 7.2110
 0.5080	 7.3390
 0.5090	 7.4780
 0.5100	 7.6290
 0.5110	 7.7900
 0.5120	 7.9660
 0.5130	 8.1520
 0.5140	 8.3410
 0.5150	 8.5420
 0.5160	 8.7530
 0.5170	 8.9720
 0.5180	 9.1990
 0.5190	 9.4320
 0.5200	 9.6680
 0.5210	 9.9000
 0.5220	10.1280
 0.5230	10.3530
 0.5240	10.5790
 0.5250	10.7880
 0.5260	10.9860
 0.5270	11.1730
 0.5280	11.3470
 0.5290	11.5090
 0.5300	11.6550
 0.5310	11.7890
 0.5320	11.9170
 0.5330	12.0310
 0.5340	12.1340
 0.5350	12.2290
 0.5360	12.3070
 0.5370	12.3790
 0.5380	12.4470
 0.5390	12.5060
 0.5400	12.5640
 0.5410	12.6230
 0.5420	12.6830
 0.5430	12.7420
 0.5440	12.7950
 0.5450	12.8410
 0.5460	12.8860
 0.5470	12.9240
 0.5480	12.9600
 0.5490	12.9950
 0.5500	13.0240
 0.5510	13.0460
 0.5520	13.0600
 0.5530	13.0670
 0.5540	13.0520
 0.5550	13.0250
 0.5560	12.9860
 0.5570	12.9310
 0.5580	12.8660
 0.5590	12.7920
 0.5600	12.7080
 0.5610	12.6170
 0.5620	12.5170
 0.5630	12.4090
 0.5640	12.2960
 0.5650	12.1750
 0.5660	12.0490
 0.5670	11.9200
 0.5680	11.7860
 0.5690	11.6470
 0.5700	11.5060
 0.5710	11.3670
 0.5720	11.2300
 0.5730	11.0970
 0.5740	10.9690
 0.5750	10.8430
 0.5760	10.7250
 0.5770	10.6150
 0.5780	10.5140
 0.5790	10.4210
 0.5800	10.3390
 0.5810	10.2630
 0.5820	10.1870
 0.5830	10.1060
 0.5840	10.0320
 0.5850	 9.9660
 0.5860	 9.9120
 0.5870	 9.8570
 0.5880	 9.8060
 0.5890	 9.7570
 0.5900	 9.7130
 0.5910	 9.6680
 0.5920	 9.6280
 0.5930	 9.5920
 0.5940	 9.5640
 0.5950	 9.5410
 0.5960	 9.5150
 0.5970	 9.4940
 0.5980	 9.4690
 0.5990	 9.4430
 0.6000	 9.4180
 0.6010	 9.3870
 0.6020	 9.3500
 0.6030	 9.3100
 0.6040	 9.2660
 0.6050	 9.2130
 0.6060	 9.1530
 0.6070	 9.0890
 0.6080	 9.0220
 0.6090	 8.9540
 0.6100	 8.8830
 0.6110	 8.8160
 0.6120	 8.7380
 0.6130	 8.6570
 0.6140	 8.5810
 0.6150	 8.5040
 0.6160	 8.4300
 0.6170	 8.3610
 0.6180	 8.3020
 0.6190	 8.2480
 0.6200	 8.2010
 0.6210	 8.1590
 0.6220	 8.1190
 0.6230	 8.0870
 0.6240	 8.0630
 0.6250	 8.0410
 0.6260	 8.0210
 0.6270	 8.0030
 0.6280	 7.9910
 0.6290	 7.9830
 0.6300	 7.9790
 0.6310	 7.9720
 0.6320	 7.9550
 0.6330	 7.9370
 0.6340	 7.9110
 0.6350	 7.8770
 0.6360	 7.8380
 0.6370	 7.7920
 0.6380	 7.7330
 0.6390	 7.6670
 0.6400	 7.6010
 0.6410	 7.5280
 0.6420	 7.4500
 0.6430	 7.3660
 0.6440	 7.2860
 0.6450	 7.2000
 0.6460	 7.1160
 0.6470	 7.0330
 0.6480	 6.9630
 0.6490	 6.8990
 0.6500	 6.8400
 0.6510	 6.7900
 0.6520	 6.7450
 0.6530	 6.7050
 0.6540	 6.6600
 0.6550	 6.6140
 0.6560	 6.5660
 0.6570	 6.5090
 0.6580	 6.4470
 0.6590	 6.3750
 0.6600	 6.2990
 0.6610	 6.2230
 0.6620	 6.1460
 0.6630	 6.0690
 0.6640	 6.0000
 0.6650	 5.9360
 0.6660	 5.8750
 0.6670	 5.8280
 0.6680	 5.7890
 0.6690	 5.7520
 0.6700	 5.7260
 0.6710	 5.7060
 0.6720	 5.6890
 0.6730	 5.6840
 0.6740	 5.6820
 0.6750	 5.6870
 0.6760	 5.6930
 0.6770	 5.7040
 0.6780	 5.7190
 0.6790	 5.7430
 0.6800	 5.7760
 0.6810	 5.8170
 0.6820	 5.8740
 0.6830	 5.9470
 0.6840	 6.0290
 0.6850	 6.1410
 0.6860	 6.2850
 0.6870	 6.4600
 0.6880	 6.6710
 0.6890	 6.9340
 0.6900	 7.2470
 0.6910	 7.6090
 0.6920	 8.0300
 0.6930	 8.5040
 0.6940	 9.0360
 0.6950	 9.6180
 0.6960	10.2520
 0.6970	10.9320
 0.6980	11.6550
 0.6990	12.4080
 0.7000	13.1870
 0.7010	13.9880
 0.7020	14.7990
 0.7030	15.6230
 0.7040	16.4500
 0.7050	17.2760
 0.7060	18.1040
 0.7070	18.9310
 0.7080	19.7600
 0.7090	20.5950
 0.7100	21.4280
 0.7110	22.2700
 0.7120	23.1210
 0.7130	23.9710
 0.7140	24.8280
 0.7150	25.6930
 0.7160	26.5630
 0.7170	27.4420
 0.7180	28.3210
 0.7190	29.1990
 0.7200	30.0800
 0.7210	30.9620
 0.7220	31.8390
 0.7230	32.7070
 0.7240	33.5620
 0.7250	34.4080
 0.7260	35.2380
 0.7270	36.0460
 0.7280	36.8290
 0.7290	37.5920
 0.7300	38.3310
 0.7310	39.0390
 0.7320	39.7230
 0.7330	40.3790
 0.7340	41.0080
 0.7350	41.6100
 0.7360	42.1750
 0.7370	42.7120
 0.7380	43.2260
 0.7390	43.7090
 0.7400	44.1650
 0.7410	44.5940
 0.7420	44.9930
 0.7430	45.3680
 0.7440	45.7160
 0.7450	46.0400
 0.7460	46.3420
 0.7470	46.6160
 0.7480	46.8690
 0.7490	47.1040
 0.7500	47.3160
 0.7510	47.5140
 0.7520	47.6970
 0.7530	47.8610
 0.7540	48.0130
 0.7550	48.1490
 0.7560	48.2700
 0.7570	48.3850
 0.7580	48.4880
 0.7590	48.5820
 0.7600	48.6700
 0.7610	48.7520
 0.7620	48.8220
 0.7630	48.8840
 0.7640	48.9420
 0.7650	49.0000
 0.7660	49.0510
 0.7670	49.0940
 0.7680	49.1350
 0.7690	49.1750
 0.7700	49.2130
 0.7710	49.2480
 0.7720	49.2780
 0.7730	49.3070
 0.7740	49.3360
 0.7750	49.3630
 0.7760	49.3950
 0.7770	49.4200
 0.7780	49.4420
 0.7790	49.4690
 0.7800	49.4910
 0.7810	49.5120
 0.7820	49.5320
 0.7830	49.5530
 0.7840	49.5740
 0.7850	49.5950
 0.7860	49.6160
 0.7870	49.6370
 0.7880	49.6540
 0.7890	49.6680
 0.7900	49.6860
 0.7910	49.7100
 0.7920	49.7270
 0.7930	49.7370
 0.7940	49.7480
 0.7950	49.7640
 0.7960	49.7770
 0.7970	49.7850
 0.7980	49.8000
 0.7990	49.8150
 0.8000	49.8250
 0.8010	49.8300
 0.8020	49.8380
 0.8030	49.8480
 0.8040	49.8580
 0.8050	49.8650
 0.8060	49.8750
 0.8070	49.8820
 0.8080	49.8860
 0.8090	49.8850
 0.8100	49.8920
 0.8110	49.9000
 0.8120	49.9030
 0.8130	49.9000
 0.8140	49.9010
 0.8150	49.9050
 0.8160	49.9080
 0.8170	49.9160
 0.8180	49.9200
 0.8190	49.9210
 0.8200	49.9220
 0.8210	49.9230
 0.8220	49.9230
 0.8230	49.9210
 0.8240	49.9190
 0.8250	49.9210
 0.8260	49.9190
 0.8270	49.9110
 0.8280	49.9090
 0.8290	49.9020
 0.8300	49.8960
 0.8310	49.8950
 0.8320	49.8930
 0.8330	49.8880
 0.8340	49.8830
 0.8350	49.8810
 0.8360	49.8850
 0.8370	49.8850
 0.8380	49.8840
 0.8390	49.8930
 0.8400	49.9010
 0.8410	49.9060
 0.8420	49.9100
 0.8430	49.9160
 0.8440	49.9290
 0.8450	49.9370
 0.8460	49.9350
 0.8470	49.9410
 0.8480	49.9540
 0.8490	49.9670
 0.8500	49.9720
 0.8510	49.9730
 0.8520	49.9770
 0.8530	49.9860
 0.8540	49.9950
 0.8550	50.0040
 0.8560	50.0110
 0.8570	50.0170
 0.8580	50.0270
 0.8590	50.0320
 0.8600	50.0380
 0.8610	50.0480
 0.8620	50.0550
 0.8630	50.0600
 0.8640	50.0620
 0.8650	50.0630
 0.8660	50.0740
 0.8670	50.0840
 0.8680	50.0880
 0.8690	50.0880
 0.8700	50.0950
 0.8710	50.1020
 0.8720	50.1090
 0.8730	50.1200
 0.8740	50.1230
 0.8750	50.1230
 0.8760	50.1230
 0.8770	50.1270
 0.8780	50.1310
 0.8790	50.1300
 0.8800	50.1270
 0.8810	50.1310
 0.8820	50.1360
 0.8830	50.1360
 0.8840	50.1320
 0.8850	50.1340
 0.8860	50.1390
 0.8870	50.1400
 0.8880	50.1320
 0.8890	50.1350
 0.8900	50.1410
 0.8910	50.1380
 0.8920	50.1250
 0.8930	50.1270
 0.8940	50.1260
 0.8950	50.1190
 0.8960	50.1120
 0.8970	50.1100
 0.8980	50.1090
 0.8990	50.1030
 0.9000	50.0850
 0.9010	50.0870
 0.9020	50.0870
 0.9030	50.0750
 0.9040	50.0710
 0.9050	50.0630
 0.9060	50.0530
 0.9070	50.0470
 0.9080	50.0420
 0.9090	50.0320
 0.9100	50.0240
 0.9110	50.0210
 0.9120	50.0100
 0.9130	49.9950
 0.9140	49.9870
 0.9150	49.9870
 0.9160	49.9730
 0.9170	49.9580
 0.9180	49.9440
 0.9190	49.9320
 0.9200	49.9210
 0.9210	49.9090
 0.9220	49.8920
 0.9230	49.8640
 0.9240	49.8270
 0.9250	49.8040
 0.9260	49.7870
 0.9270	49.7500
 0.9280	49.7100
 0.9290	49.6750
 0.9300	49.6400
 0.9310	49.5890
 0.9320	49.5450
 0.9330	49.4970
 0.9340	49.4460
 0.9350	49.4030
 0.9360	49.3430
 0.9370	49.2810
 0.9380	49.2290
 0.9390	49.1730
 0.9400	49.1110
 0.9410	49.0420
 0.9420	48.9670
 0.9430	48.8900
 0.9440	48.8090
 0.9450	48.7200
 0.9460	48.6230
 0.9470	48.5320
 0.9480	48.4180
 0.9490	48.2890
 0.9500	48.1550
 0.9510	48.0170
 0.9520	47.8810
 0.9530	47.7390
 0.9540	47.5900
 0.9550	47.4440
 0.9560	47.2970
 0.9570	47.1550
 0.9580	47.0260
 0.9590	46.8980
 0.9600	46.7790
 0.9610	46.6830
 0.9620	46.6100
 0.9630	46.5200
 0.9640	46.4370
 0.9650	46.3710
 0.9660	46.3210
 0.9670	46.2720
 0.9680	46.2270
 0.9690	46.1870
 0.9700	46.1540
 0.9710	46.1240
 0.9720	46.0900
 0.9730	46.0500
 0.9740	46.0130
 0.9750	46.0020
 0.9760	45.9950
 0.9770	45.9830
 0.9780	45.9700
 0.9790	45.9680
 0.9800	45.9650
 0.9810	45.9630
 0.9820	45.9650
 0.9830	45.9790
 0.9840	45.9990
 0.9850	46.0210
 0.9860	46.0400
 0.9870	46.0640
 0.9880	46.0840
 0.9890	46.1150
 0.9900	46.1690
 0.9910	46.1880
 0.9920	46.2150
 0.9930	46.2550
 0.9940	46.2920
 0.9950	46.3380
 0.9960	46.3870
 0.9970	46.4380
 0.9980	46.4880
 0.9990	46.5190
 1.0000	46.7780
 1.0010	47.1810
 1.0020	47.4400
 1.0030	47.4940
 1.0040	47.5510
 1.0050	47.6040
 1.0060	47.6540
 1.0070	47.7130
 1.0080	47.7710
 1.0090	47.8300
 1.0100	47.8900
 1.0110	47.9550
 1.0120	48.0150
 1.0130	48.0710
 1.0140	48.1300
 1.0150	48.1920
 1.0160	48.2460
 1.0170	48.3020
 1.0180	48.3610
 1.0190	48.4170
 1.0200	48.4760
 1.0210	48.5350
 1.0220	48.5910
 1.0230	48.6500
 1.0240	48.7100
 1.0250	48.7700
 1.0260	48.8330
 1.0270	48.8890
 1.0280	48.9410
 1.0290	48.9950
 1.0300	49.0470
 1.0310	49.0990
 1.0320	49.1490
 1.0330	49.2020
 1.0340	49.2560
 1.0350	49.3030
 1.0360	49.3490
 1.0370	49.3950
 1.0380	49.4430
 1.0390	49.4920
 1.0400	49.5370
 1.0410	49.5860
 1.0420	49.6310
 1.0430	49.6710
 1.0440	49.7090
 1.0450	49.7440
 1.0460	49.7820
 1.0470	49.8180
 1.0480	49.8530
 1.0490	49.8930
 1.0500	49.9280
 1.0510	49.9550
 1.0520	49.9830
 1.0530	50.0130
 1.0540	50.0420
 1.0550	50.0700
 1.0560	50.1010
 1.0570	50.1260
 1.0580	50.1470
 1.0590	50.1670
 1.0600	50.1860
 1.0610	50.2030
 1.0620	50.2180
 1.0630	50.2320
 1.0640	50.2450
 1.0650	50.2550
 1.0660	50.2640
 1.0670	50.2730
 1.0680	50.2800
 1.0690	50.2860
 1.0700	50.2930
 1.0710	50.3010
 1.0720	50.3050
 1.0730	50.3060
 1.0740	50.3090
 1.0750	50.3130
 1.0760	50.3120
 1.0770	50.3120
 1.0780	50.3080
 1.0790	50.3000
 1.0800	50.2920
 1.0810	50.2820
 1.0820	50.2710
 1.0830	50.2560
 1.0840	50.2430
 1.0850	50.2320
 1.0860	50.2190
 1.0870	50.2030
 1.0880	50.1880
 1.0890	50.1690
 1.0900	50.1460
 1.0910	50.1240
 1.0920	50.1020
 1.0930	50.0790
 1.0940	50.0570
 1.0950	50.0320
 1.0960	50.0060
 1.0970	49.9780
 1.0980	49.9460
 1.0990	49.9170
 1.1000	49.8880
 1.1010	49.8580
 1.1020	49.8300
 1.1030	49.8000
 1.1040	49.7650
 1.1050	49.7320
 1.1060	49.6990
 1.1070	49.6640
 1.1080	49.6280
 1.1090	49.5930
 1.1100	49.5540
 1.1110	49.5130
 1.1120	49.4700
 1.1130	49.4220
 1.1140	49.3750
 1.1150	49.3270
 1.1160	49.2740
 1.1170	49.2200
 1.1180	49.1590
 1.1190	49.0910
 1.1200	49.0190
 1.1210	48.9440
 1.1220	48.8600
 1.1230	48.7640
 1.1240	48.6630
 1.1250	48.5490
 1.1260	48.4250
 1.1270	48.2870
 1.1280	48.1410
 1.1290	47.9770
 1.1300	47.7970
 1.1310	47.6040
 1.1320	47.3980
 1.1330	47.1760
 1.1340	46.9410
 1.1350	46.6890
 1.1360	46.4210
 1.1370	46.1390
 1.1380	45.8450
 1.1390	45.5450
 1.1400	45.2380
 1.1410	44.9270
 1.1420	44.6150
 1.1430	44.3010
 1.1440	43.9910
 1.1450	43.6770
 1.1460	43.3790
 1.1470	43.0840
 1.1480	42.8030
 1.1490	42.5310
 1.1500	42.2760
 1.1510	42.0310
 1.1520	41.8050
 1.1530	41.5960
 1.1540	41.4010
 1.1550	41.2200
 1.1560	41.0550
 1.1570	40.9050
 1.1580	40.7690
 1.1590	40.6470
 1.1600	40.5330
 1.1610	40.4310
 1.1620	40.3380
 1.1630	40.2520
 1.1640	40.1750
 1.1650	40.1020
 1.1660	40.0360
 1.1670	39.9740
 1.1680	39.9180
 1.1690	39.8640
 1.1700	39.8150
 1.1710	39.7640
 1.1720	39.7160
 1.1730	39.6670
 1.1740	39.6190
 1.1750	39.5690
 1.1760	39.5190
 1.1770	39.4690
 1.1780	39.4170
 1.1790	39.3660
 1.1800	39.3170
 1.1810	39.2650
 1.1820	39.2130
 1.1830	39.1620
 1.1840	39.1100
 1.1850	39.0570
 1.1860	39.0060
 1.1870	38.9560
 1.1880	38.9110
 1.1890	38.8670
 1.1900	38.8290
 1.1910	38.7950
 1.1920	38.7640
 1.1930	38.7330
 1.1940	38.7100
 1.1950	38.6910
 1.1960	38.6760
 1.1970	38.6670
 1.1980	38.6620
 1.1990	38.6590
 1.2000	38.6610
 1.2010	38.6680
 1.2020	38.6790
 1.2030	38.6930
 1.2040	38.7110
 1.2050	38.7330
 1.2060	38.7580
 1.2070	38.7880
 1.2080	38.8190
 1.2090	38.8540
 1.2100	38.8930
 1.2110	38.9360
 1.2120	38.9840
 1.2130	39.0330
 1.2140	39.0870
 1.2150	39.1420
 1.2160	39.2000
 1.2170	39.2610
 1.2180	39.3250
 1.2190	39.3910
 1.2200	39.4580
 1.2210	39.5270
 1.2220	39.5940
 1.2230	39.6630
 1.2240	39.7320
 1.2250	39.8000
 1.2260	39.8660
 1.2270	39.9340
 1.2280	39.9990
 1.2290	40.0610
 1.2300	40.1230
 1.2310	40.1830
 1.2320	40.2420
 1.2330	40.2970
 1.2340	40.3520
 1.2350	40.4050
 1.2360	40.4570
 1.2370	40.5070
 1.2380	40.5570
 1.2390	40.6060
 1.2400	40.6520
 1.2410	40.6960
 1.2420	40.7370
 1.2430	40.7760
 1.2440	40.8150
 1.2450	40.8550
 1.2460	40.8930
 1.2470	40.9310
 1.2480	40.9680
 1.2490	41.0030
 1.2500	41.0350
 1.2510	41.0670
 1.2520	41.0990
 1.2530	41.1290
 1.2540	41.1550
 1.2550	41.1770
 1.2560	41.1970
 1.2570	41.2170
 1.2580	41.2370
 1.2590	41.2550
 1.2600	41.2740
 1.2610	41.2890
 1.2620	41.3030
 1.2630	41.3140
 1.2640	41.3220
 1.2650	41.3290
 1.2660	41.3330
 1.2670	41.3340
 1.2680	41.3350
 1.2690	41.3370
 1.2700	41.3350
 1.2710	41.3330
 1.2720	41.3300
 1.2730	41.3230
 1.2740	41.3120
 1.2750	41.2990
 1.2760	41.2830
 1.2770	41.2660
 1.2780	41.2470
 1.2790	41.2240
 1.2800	41.1980
 1.2810	41.1680
 1.2820	41.1390
 1.2830	41.1090
 1.2840	41.0750
 1.2850	41.0390
 1.2860	40.9960
 1.2870	40.9490
 1.2880	40.8960
 1.2890	40.8410
 1.2900	40.7820
 1.2910	40.7220
 1.2920	40.6580
 1.2930	40.5870
 1.2940	40.5110
 1.2950	40.4280
 1.2960	40.3430
 1.2970	40.2560
 1.2980	40.1630
 1.2990	40.0670
 1.3000	39.9670
 1.3010	39.8590
 1.3020	39.7480
 1.3030	39.6320
 1.3040	39.5110
 1.3050	39.3860
 1.3060	39.2560
 1.3070	39.1200
 1.3080	38.9820
 1.3090	38.8400
 1.3100	38.6910
 1.3110	38.5390
 1.3120	38.3810
 1.3130	38.2180
 1.3140	38.0520
 1.3150	37.8830
 1.3160	37.7070
 1.3170	37.5270
 1.3180	37.3440
 1.3190	37.1550
 1.3200	36.9640
 1.3210	36.7670
 1.3220	36.5680
 1.3230	36.3630
 1.3240	36.1540
 1.3250	35.9460
 1.3260	35.7350
 1.3270	35.5210
 1.3280	35.3080
 1.3290	35.0910
 1.3300	34.8730
 1.3310	34.6540
 1.3320	34.4340
 1.3330	34.2160
 1.3340	33.9970
 1.3350	33.7800
 1.3360	33.5650
 1.3370	33.3490
 1.3380	33.1350
 1.3390	32.9220
 1.3400	32.7110
 1.3410	32.5040
 1.3420	32.3020
 1.3430	32.1030
 1.3440	31.9090
 1.3450	31.7170
 1.3460	31.5260
 1.3470	31.3410
 1.3480	31.1580
 1.3490	30.9780
 1.3500	30.8030
 1.3510	30.6290
 1.3520	30.4570
 1.3530	30.2860
 1.3540	30.1160
 1.3550	29.9480
 1.3560	29.7790
 1.3570	29.6090
 1.3580	29.4390
 1.3590	29.2670
 1.3600	29.0920
 1.3610	28.9150
 1.3620	28.7330
 1.3630	28.5460
 1.3640	28.3510
 1.3650	28.1490
 1.3660	27.9400
 1.3670	27.7220
 1.3680	27.4940
 1.3690	27.2560
 1.3700	27.0030
 1.3710	26.7370
 1.3720	26.4580
 1.3730	26.1620
 1.3740	25.8540
 1.3750	25.5300
 1.3760	25.1840
 1.3770	24.8220
 1.3780	24.4350
 1.3790	24.0300
 1.3800	23.6100
 1.3810	23.1680
 1.3820	22.7160
 1.3830	22.2490
 1.3840	21.7720
 1.3850	21.2770
 1.3860	20.7820
 1.3870	20.2730
 1.3880	19.7700
 1.3890	19.2640
 1.3900	18.7580
 1.3910	18.2610
 1.3920	17.7670
 1.3930	17.2780
 1.3940	16.8000
 1.3950	16.3280
 1.3960	15.8690
 1.3970	15.4250
 1.3980	14.9970
 1.3990	14.5910
 1.4000	14.2010
 1.4010	13.8270
 1.4020	13.4740
 1.4030	13.1350
 1.4040	12.8150
 1.4050	12.5140
 1.4060	12.2300
 1.4070	11.9650
 1.4080	11.7170
 1.4090	11.4840
 1.4100	11.2670
 1.4110	11.0620
 1.4120	10.8710
 1.4130	10.6950
 1.4140	10.5300
 1.4150	10.3810
 1.4160	10.2400
 1.4170	10.1110
 1.4180	 9.9910
 1.4190	 9.8780
 1.4200	 9.7730
 1.4210	 9.6740
 1.4220	 9.5840
 1.4230	 9.5000
 1.4240	 9.4260
 1.4250	 9.3540
 1.4260	 9.2890
 1.4270	 9.2290
 1.4280	 9.1750
 1.4290	 9.1230
 1.4300	 9.0770
 1.4310	 9.0360
 1.4320	 8.9990
 1.4330	 8.9640
 1.4340	 8.9340
 1.4350	 8.9050
 1.4360	 8.8810
 1.4370	 8.8590
 1.4380	 8.8410
 1.4390	 8.8240
 1.4400	 8.8110
 1.4410	 8.7990
 1.4420	 8.7900
 1.4430	 8.7820
 1.4440	 8.7770
 1.4450	 8.7730
 1.4460	 8.7700
 1.4470	 8.7690
 1.4480	 8.7690
 1.4490	 8.7710
 1.4500	 8.7740
 1.4510	 8.7780
 1.4520	 8.7830
 1.4530	 8.7890
 1.4540	 8.7960
 1.4550	 8.8050
 1.4560	 8.8170
 1.4570	 8.8270
 1.4580	 8.8410
 1.4590	 8.8570
 1.4600	 8.8730
 1.4610	 8.8950
 1.4620	 8.9170
 1.4630	 8.9430
 1.4640	 8.9710
 1.4650	 9.0000
 1.4660	 9.0330
 1.4670	 9.0680
 1.4680	 9.1070
 1.4690	 9.1500
 1.4700	 9.1960
 1.4710	 9.2420
