Name: Pinus ponderosa 2
Type: vegetation
Class: Tree
Genus: Pinus
Species: ponderosa
Sample No.: VH062
Owner: UCSB
Wavelength Range: VSWIR
Origin: 37.044; -119.3023; WGS84
Collection Date: 4/20/2013
Description: Samples were collected as part of the HyspIRI Airborne Campaign. 48 individual plants were sampled in three times in 2013 - spring  summer  and fall. The name of the sample includes a 1  2  or 3 which references a different individual of the species. Samples were taken to JPL and processed within 48 hours of collection. The same leaves were processed in the Nicolet and then measured using the ASD.
Measurement: Bidirectional reflectance
First Column: X
Second Column: Y
X Units: Wavelength (micrometers)
Y Units: Reflectance (percentage)
First X Value: 0.35
Last X Value: 2.5
Number of X Values: 2151
Additional Information: vegetation.tree.pinus.ponderosa.vswir.vh062.ucsb.asd.ancillary.txt

 0.3500	 5.7870
 0.3510	 5.8400
 0.3520	 5.9410
 0.3530	 5.9350
 0.3540	 5.7730
 0.3550	 5.8010
 0.3560	 5.7880
 0.3570	 5.7770
 0.3580	 5.9050
 0.3590	 5.8480
 0.3600	 5.7490
 0.3610	 5.7120
 0.3620	 5.7270
 0.3630	 5.6110
 0.3640	 5.5420
 0.3650	 5.6620
 0.3660	 5.6180
 0.3670	 5.5780
 0.3680	 5.5830
 0.3690	 5.5830
 0.3700	 5.5830
 0.3710	 5.5950
 0.3720	 5.6190
 0.3730	 5.6230
 0.3740	 5.6150
 0.3750	 5.5490
 0.3760	 5.4200
 0.3770	 5.4730
 0.3780	 5.5480
 0.3790	 5.5640
 0.3800	 5.5260
 0.3810	 5.5100
 0.3820	 5.4850
 0.3830	 5.4380
 0.3840	 5.4360
 0.3850	 5.4630
 0.3860	 5.4910
 0.3870	 5.4960
 0.3880	 5.5260
 0.3890	 5.4750
 0.3900	 5.3830
 0.3910	 5.4400
 0.3920	 5.4880
 0.3930	 5.5130
 0.3940	 5.5190
 0.3950	 5.4720
 0.3960	 5.4670
 0.3970	 5.4970
 0.3980	 5.5030
 0.3990	 5.4430
 0.4000	 5.4090
 0.4010	 5.4360
 0.4020	 5.4750
 0.4030	 5.4750
 0.4040	 5.4740
 0.4050	 5.5110
 0.4060	 5.5410
 0.4070	 5.5540
 0.4080	 5.5620
 0.4090	 5.5890
 0.4100	 5.6320
 0.4110	 5.6800
 0.4120	 5.7240
 0.4130	 5.7630
 0.4140	 5.8140
 0.4150	 5.8680
 0.4160	 5.9110
 0.4170	 5.9830
 0.4180	 6.0390
 0.4190	 6.0820
 0.4200	 6.1550
 0.4210	 6.2330
 0.4220	 6.3070
 0.4230	 6.3780
 0.4240	 6.4500
 0.4250	 6.5280
 0.4260	 6.6020
 0.4270	 6.6570
 0.4280	 6.7360
 0.4290	 6.8110
 0.4300	 6.8700
 0.4310	 6.9270
 0.4320	 6.9910
 0.4330	 7.0500
 0.4340	 7.0930
 0.4350	 7.1400
 0.4360	 7.1920
 0.4370	 7.2480
 0.4380	 7.3050
 0.4390	 7.3540
 0.4400	 7.4070
 0.4410	 7.4670
 0.4420	 7.5100
 0.4430	 7.5320
 0.4440	 7.5550
 0.4450	 7.6060
 0.4460	 7.6610
 0.4470	 7.7030
 0.4480	 7.7290
 0.4490	 7.7400
 0.4500	 7.7730
 0.4510	 7.8130
 0.4520	 7.8390
 0.4530	 7.8580
 0.4540	 7.8770
 0.4550	 7.9030
 0.4560	 7.9390
 0.4570	 7.9620
 0.4580	 7.9860
 0.4590	 8.0140
 0.4600	 8.0230
 0.4610	 8.0360
 0.4620	 8.0530
 0.4630	 8.0660
 0.4640	 8.0780
 0.4650	 8.0850
 0.4660	 8.0920
 0.4670	 8.1100
 0.4680	 8.1250
 0.4690	 8.1380
 0.4700	 8.1530
 0.4710	 8.1630
 0.4720	 8.1620
 0.4730	 8.1600
 0.4740	 8.1730
 0.4750	 8.1740
 0.4760	 8.1860
 0.4770	 8.2100
 0.4780	 8.2090
 0.4790	 8.1960
 0.4800	 8.1930
 0.4810	 8.2110
 0.4820	 8.2170
 0.4830	 8.2240
 0.4840	 8.2340
 0.4850	 8.2370
 0.4860	 8.2430
 0.4870	 8.2530
 0.4880	 8.2660
 0.4890	 8.2870
 0.4900	 8.3030
 0.4910	 8.3210
 0.4920	 8.3550
 0.4930	 8.3760
 0.4940	 8.4000
 0.4950	 8.4340
 0.4960	 8.4580
 0.4970	 8.4980
 0.4980	 8.5480
 0.4990	 8.5980
 0.5000	 8.6460
 0.5010	 8.7030
 0.5020	 8.7680
 0.5030	 8.8280
 0.5040	 8.9030
 0.5050	 8.9910
 0.5060	 9.0860
 0.5070	 9.1700
 0.5080	 9.2680
 0.5090	 9.3810
 0.5100	 9.5020
 0.5110	 9.6300
 0.5120	 9.7680
 0.5130	 9.9180
 0.5140	10.0770
 0.5150	10.2380
 0.5160	10.4060
 0.5170	10.5890
 0.5180	10.7800
 0.5190	10.9790
 0.5200	11.1850
 0.5210	11.3960
 0.5220	11.6060
 0.5230	11.8150
 0.5240	12.0240
 0.5250	12.2350
 0.5260	12.4380
 0.5270	12.6320
 0.5280	12.8250
 0.5290	13.0060
 0.5300	13.1810
 0.5310	13.3500
 0.5320	13.5100
 0.5330	13.6580
 0.5340	13.7990
 0.5350	13.9360
 0.5360	14.0650
 0.5370	14.1860
 0.5380	14.2960
 0.5390	14.3950
 0.5400	14.4800
 0.5410	14.5640
 0.5420	14.6530
 0.5430	14.7380
 0.5440	14.8220
 0.5450	14.9050
 0.5460	14.9900
 0.5470	15.0830
 0.5480	15.1730
 0.5490	15.2510
 0.5500	15.3160
 0.5510	15.3700
 0.5520	15.4110
 0.5530	15.4400
 0.5540	15.4610
 0.5550	15.4620
 0.5560	15.4450
 0.5570	15.4160
 0.5580	15.3790
 0.5590	15.3320
 0.5600	15.2760
 0.5610	15.2060
 0.5620	15.1260
 0.5630	15.0380
 0.5640	14.9420
 0.5650	14.8470
 0.5660	14.7470
 0.5670	14.6380
 0.5680	14.5120
 0.5690	14.3850
 0.5700	14.2590
 0.5710	14.1300
 0.5720	13.9920
 0.5730	13.8490
 0.5740	13.7110
 0.5750	13.5910
 0.5760	13.4890
 0.5770	13.4010
 0.5780	13.3210
 0.5790	13.2390
 0.5800	13.1630
 0.5810	13.0900
 0.5820	13.0140
 0.5830	12.9390
 0.5840	12.8780
 0.5850	12.8290
 0.5860	12.7780
 0.5870	12.7260
 0.5880	12.6770
 0.5890	12.6350
 0.5900	12.5910
 0.5910	12.5480
 0.5920	12.5100
 0.5930	12.4770
 0.5940	12.4470
 0.5950	12.4220
 0.5960	12.4030
 0.5970	12.3920
 0.5980	12.3880
 0.5990	12.3850
 0.6000	12.3760
 0.6010	12.3580
 0.6020	12.3330
 0.6030	12.3000
 0.6040	12.2570
 0.6050	12.2060
 0.6060	12.1450
 0.6070	12.0780
 0.6080	12.0060
 0.6090	11.9210
 0.6100	11.8270
 0.6110	11.7360
 0.6120	11.6600
 0.6130	11.5930
 0.6140	11.5260
 0.6150	11.4630
 0.6160	11.3980
 0.6170	11.3370
 0.6180	11.2830
 0.6190	11.2340
 0.6200	11.1880
 0.6210	11.1450
 0.6220	11.1120
 0.6230	11.0830
 0.6240	11.0600
 0.6250	11.0440
 0.6260	11.0340
 0.6270	11.0270
 0.6280	11.0190
 0.6290	11.0110
 0.6300	11.0080
 0.6310	11.0060
 0.6320	11.0030
 0.6330	10.9990
 0.6340	10.9890
 0.6350	10.9740
 0.6360	10.9530
 0.6370	10.9180
 0.6380	10.8770
 0.6390	10.8320
 0.6400	10.7820
 0.6410	10.7240
 0.6420	10.6640
 0.6430	10.6020
 0.6440	10.5340
 0.6450	10.4610
 0.6460	10.3870
 0.6470	10.3210
 0.6480	10.2610
 0.6490	10.1980
 0.6500	10.1360
 0.6510	10.0890
 0.6520	10.0430
 0.6530	 9.9950
 0.6540	 9.9460
 0.6550	 9.9000
 0.6560	 9.8390
 0.6570	 9.7660
 0.6580	 9.6930
 0.6590	 9.6150
 0.6600	 9.5320
 0.6610	 9.4470
 0.6620	 9.3600
 0.6630	 9.2820
 0.6640	 9.2090
 0.6650	 9.1390
 0.6660	 9.0780
 0.6670	 9.0260
 0.6680	 8.9820
 0.6690	 8.9460
 0.6700	 8.9140
 0.6710	 8.8900
 0.6720	 8.8730
 0.6730	 8.8600
 0.6740	 8.8560
 0.6750	 8.8560
 0.6760	 8.8550
 0.6770	 8.8610
 0.6780	 8.8740
 0.6790	 8.8940
 0.6800	 8.9150
 0.6810	 8.9500
 0.6820	 9.0000
 0.6830	 9.0650
 0.6840	 9.1430
 0.6850	 9.2480
 0.6860	 9.3840
 0.6870	 9.5520
 0.6880	 9.7590
 0.6890	10.0100
 0.6900	10.3110
 0.6910	10.6630
 0.6920	11.0680
 0.6930	11.5290
 0.6940	12.0450
 0.6950	12.6160
 0.6960	13.2360
 0.6970	13.9010
 0.6980	14.6090
 0.6990	15.3580
 0.7000	16.1430
 0.7010	16.9570
 0.7020	17.7950
 0.7030	18.6500
 0.7040	19.5240
 0.7050	20.4170
 0.7060	21.3170
 0.7070	22.2300
 0.7080	23.1570
 0.7090	24.0970
 0.7100	25.0510
 0.7110	26.0180
 0.7120	27.0000
 0.7130	27.9950
 0.7140	29.0100
 0.7150	30.0420
 0.7160	31.0860
 0.7170	32.1440
 0.7180	33.2170
 0.7190	34.3030
 0.7200	35.3990
 0.7210	36.5060
 0.7220	37.6220
 0.7230	38.7440
 0.7240	39.8680
 0.7250	40.9890
 0.7260	42.1030
 0.7270	43.2090
 0.7280	44.3040
 0.7290	45.3810
 0.7300	46.4400
 0.7310	47.4810
 0.7320	48.5020
 0.7330	49.4930
 0.7340	50.4560
 0.7350	51.3980
 0.7360	52.3080
 0.7370	53.1880
 0.7380	54.0370
 0.7390	54.8500
 0.7400	55.6330
 0.7410	56.3810
 0.7420	57.0890
 0.7430	57.7700
 0.7440	58.4160
 0.7450	59.0260
 0.7460	59.6040
 0.7470	60.1450
 0.7480	60.6510
 0.7490	61.1250
 0.7500	61.5640
 0.7510	61.9730
 0.7520	62.3560
 0.7530	62.7120
 0.7540	63.0420
 0.7550	63.3430
 0.7560	63.6200
 0.7570	63.8770
 0.7580	64.1080
 0.7590	64.3270
 0.7600	64.5380
 0.7610	64.7200
 0.7620	64.8860
 0.7630	65.0440
 0.7640	65.1950
 0.7650	65.3240
 0.7660	65.4460
 0.7670	65.5600
 0.7680	65.6650
 0.7690	65.7730
 0.7700	65.8740
 0.7710	65.9610
 0.7720	66.0370
 0.7730	66.1140
 0.7740	66.1890
 0.7750	66.2580
 0.7760	66.3250
 0.7770	66.3870
 0.7780	66.4440
 0.7790	66.4980
 0.7800	66.5490
 0.7810	66.5990
 0.7820	66.6480
 0.7830	66.6940
 0.7840	66.7480
 0.7850	66.7950
 0.7860	66.8320
 0.7870	66.8800
 0.7880	66.9240
 0.7890	66.9610
 0.7900	66.9950
 0.7910	67.0330
 0.7920	67.0680
 0.7930	67.0990
 0.7940	67.1370
 0.7950	67.1700
 0.7960	67.1970
 0.7970	67.2220
 0.7980	67.2600
 0.7990	67.2920
 0.8000	67.3190
 0.8010	67.3430
 0.8020	67.3670
 0.8030	67.3910
 0.8040	67.4200
 0.8050	67.4520
 0.8060	67.4730
 0.8070	67.4890
 0.8080	67.5050
 0.8090	67.5200
 0.8100	67.5390
 0.8110	67.5610
 0.8120	67.5850
 0.8130	67.6080
 0.8140	67.6270
 0.8150	67.6470
 0.8160	67.6690
 0.8170	67.6870
 0.8180	67.7060
 0.8190	67.7280
 0.8200	67.7490
 0.8210	67.7680
 0.8220	67.7810
 0.8230	67.7910
 0.8240	67.8110
 0.8250	67.8370
 0.8260	67.8500
 0.8270	67.8500
 0.8280	67.8680
 0.8290	67.8790
 0.8300	67.8840
 0.8310	67.8890
 0.8320	67.8900
 0.8330	67.9020
 0.8340	67.9230
 0.8350	67.9420
 0.8360	67.9550
 0.8370	67.9760
 0.8380	68.0000
 0.8390	68.0140
 0.8400	68.0420
 0.8410	68.0730
 0.8420	68.0980
 0.8430	68.1230
 0.8440	68.1520
 0.8450	68.1820
 0.8460	68.2100
 0.8470	68.2440
 0.8480	68.2630
 0.8490	68.2790
 0.8500	68.3060
 0.8510	68.3320
 0.8520	68.3600
 0.8530	68.3880
 0.8540	68.4100
 0.8550	68.4420
 0.8560	68.4710
 0.8570	68.4950
 0.8580	68.5210
 0.8590	68.5340
 0.8600	68.5470
 0.8610	68.5680
 0.8620	68.5900
 0.8630	68.6050
 0.8640	68.6220
 0.8650	68.6450
 0.8660	68.6510
 0.8670	68.6640
 0.8680	68.6820
 0.8690	68.6970
 0.8700	68.7160
 0.8710	68.7180
 0.8720	68.7160
 0.8730	68.7370
 0.8740	68.7520
 0.8750	68.7560
 0.8760	68.7590
 0.8770	68.7710
 0.8780	68.7780
 0.8790	68.7750
 0.8800	68.7700
 0.8810	68.7760
 0.8820	68.7780
 0.8830	68.7730
 0.8840	68.7630
 0.8850	68.7640
 0.8860	68.7630
 0.8870	68.7530
 0.8880	68.7350
 0.8890	68.7280
 0.8900	68.7130
 0.8910	68.6930
 0.8920	68.6790
 0.8930	68.6580
 0.8940	68.6380
 0.8950	68.6210
 0.8960	68.6090
 0.8970	68.5990
 0.8980	68.5820
 0.8990	68.5570
 0.9000	68.5370
 0.9010	68.5170
 0.9020	68.4930
 0.9030	68.4670
 0.9040	68.4460
 0.9050	68.4190
 0.9060	68.3930
 0.9070	68.3690
 0.9080	68.3390
 0.9090	68.3160
 0.9100	68.2930
 0.9110	68.2610
 0.9120	68.2290
 0.9130	68.2010
 0.9140	68.1740
 0.9150	68.1460
 0.9160	68.1270
 0.9170	68.0930
 0.9180	68.0560
 0.9190	68.0310
 0.9200	67.9910
 0.9210	67.9570
 0.9220	67.9280
 0.9230	67.8910
 0.9240	67.8520
 0.9250	67.8070
 0.9260	67.7500
 0.9270	67.6780
 0.9280	67.6150
 0.9290	67.5550
 0.9300	67.4850
 0.9310	67.3910
 0.9320	67.3140
 0.9330	67.2380
 0.9340	67.1520
 0.9350	67.0650
 0.9360	66.9620
 0.9370	66.8670
 0.9380	66.7830
 0.9390	66.6800
 0.9400	66.5620
 0.9410	66.4380
 0.9420	66.3150
 0.9430	66.1920
 0.9440	66.0410
 0.9450	65.8800
 0.9460	65.7170
 0.9470	65.5270
 0.9480	65.3340
 0.9490	65.1370
 0.9500	64.9260
 0.9510	64.6890
 0.9520	64.4350
 0.9530	64.1730
 0.9540	63.9080
 0.9550	63.6440
 0.9560	63.3740
 0.9570	63.1250
 0.9580	62.9150
 0.9590	62.7050
 0.9600	62.5070
 0.9610	62.3270
 0.9620	62.1640
 0.9630	62.0150
 0.9640	61.8520
 0.9650	61.7160
 0.9660	61.6440
 0.9670	61.5370
 0.9680	61.4320
 0.9690	61.3400
 0.9700	61.2600
 0.9710	61.2100
 0.9720	61.1540
 0.9730	61.0920
 0.9740	61.0370
 0.9750	60.9720
 0.9760	60.9360
 0.9770	60.9140
 0.9780	60.8730
 0.9790	60.8410
 0.9800	60.8260
 0.9810	60.8300
 0.9820	60.8420
 0.9830	60.8490
 0.9840	60.8630
 0.9850	60.8800
 0.9860	60.8930
 0.9870	60.9210
 0.9880	60.9820
 0.9890	61.0560
 0.9900	61.1060
 0.9910	61.1520
 0.9920	61.2940
 0.9930	61.4350
 0.9940	61.5770
 0.9950	61.7180
 0.9960	61.8600
 0.9970	62.0010
 0.9980	62.1430
 0.9990	62.2840
 1.0000	62.4260
 1.0010	62.5670
 1.0020	62.7090
 1.0030	62.8500
 1.0040	62.9920
 1.0050	63.1330
 1.0060	63.2750
 1.0070	63.4160
 1.0080	63.5580
 1.0090	63.6990
 1.0100	63.6990
 1.0110	63.8010
 1.0120	63.9030
 1.0130	64.0040
 1.0140	64.1080
 1.0150	64.2130
 1.0160	64.3190
 1.0170	64.4320
 1.0180	64.5440
 1.0190	64.6450
 1.0200	64.7540
 1.0210	64.8620
 1.0220	64.9640
 1.0230	65.0700
 1.0240	65.1780
 1.0250	65.2860
 1.0260	65.3950
 1.0270	65.5020
 1.0280	65.6130
 1.0290	65.7160
 1.0300	65.8090
 1.0310	65.9070
 1.0320	66.0060
 1.0330	66.0990
 1.0340	66.1980
 1.0350	66.2980
 1.0360	66.3860
 1.0370	66.4760
 1.0380	66.5660
 1.0390	66.6540
 1.0400	66.7410
 1.0410	66.8300
 1.0420	66.9150
 1.0430	66.9990
 1.0440	67.0780
 1.0450	67.1550
 1.0460	67.2300
 1.0470	67.3010
 1.0480	67.3720
 1.0490	67.4450
 1.0500	67.5140
 1.0510	67.5840
 1.0520	67.6470
 1.0530	67.7060
 1.0540	67.7610
 1.0550	67.8180
 1.0560	67.8710
 1.0570	67.9230
 1.0580	67.9760
 1.0590	68.0250
 1.0600	68.0730
 1.0610	68.1170
 1.0620	68.1550
 1.0630	68.1960
 1.0640	68.2360
 1.0650	68.2700
 1.0660	68.3020
 1.0670	68.3320
 1.0680	68.3590
 1.0690	68.3770
 1.0700	68.4000
 1.0710	68.4250
 1.0720	68.4430
 1.0730	68.4550
 1.0740	68.4680
 1.0750	68.4790
 1.0760	68.4890
 1.0770	68.5060
 1.0780	68.5100
 1.0790	68.5090
 1.0800	68.5050
 1.0810	68.4930
 1.0820	68.4810
 1.0830	68.4680
 1.0840	68.4530
 1.0850	68.4340
 1.0860	68.4150
 1.0870	68.3940
 1.0880	68.3720
 1.0890	68.3450
 1.0900	68.3160
 1.0910	68.2840
 1.0920	68.2480
 1.0930	68.2100
 1.0940	68.1700
 1.0950	68.1260
 1.0960	68.0820
 1.0970	68.0330
 1.0980	67.9800
 1.0990	67.9260
 1.1000	67.8680
 1.1010	67.8110
 1.1020	67.7550
 1.1030	67.6980
 1.1040	67.6430
 1.1050	67.5810
 1.1060	67.5150
 1.1070	67.4420
 1.1080	67.3710
 1.1090	67.2990
 1.1100	67.2220
 1.1110	67.1460
 1.1120	67.0600
 1.1130	66.9680
 1.1140	66.8720
 1.1150	66.7720
 1.1160	66.6650
 1.1170	66.5530
 1.1180	66.4300
 1.1190	66.2980
 1.1200	66.1600
 1.1210	66.0090
 1.1220	65.8480
 1.1230	65.6700
 1.1240	65.4720
 1.1250	65.2570
 1.1260	65.0270
 1.1270	64.7710
 1.1280	64.4990
 1.1290	64.2010
 1.1300	63.8810
 1.1310	63.5380
 1.1320	63.1730
 1.1330	62.7890
 1.1340	62.3810
 1.1350	61.9560
 1.1360	61.5120
 1.1370	61.0480
 1.1380	60.5680
 1.1390	60.0800
 1.1400	59.5830
 1.1410	59.0840
 1.1420	58.5850
 1.1430	58.0870
 1.1440	57.5980
 1.1450	57.1050
 1.1460	56.6360
 1.1470	56.1740
 1.1480	55.7330
 1.1490	55.3060
 1.1500	54.9040
 1.1510	54.5180
 1.1520	54.1560
 1.1530	53.8120
 1.1540	53.4950
 1.1550	53.1990
 1.1560	52.9260
 1.1570	52.6760
 1.1580	52.4490
 1.1590	52.2350
 1.1600	52.0370
 1.1610	51.8570
 1.1620	51.6880
 1.1630	51.5340
 1.1640	51.3960
 1.1650	51.2650
 1.1660	51.1460
 1.1670	51.0340
 1.1680	50.9310
 1.1690	50.8310
 1.1700	50.7420
 1.1710	50.6530
 1.1720	50.5680
 1.1730	50.4820
 1.1740	50.3970
 1.1750	50.3130
 1.1760	50.2280
 1.1770	50.1410
 1.1780	50.0510
 1.1790	49.9590
 1.1800	49.8630
 1.1810	49.7650
 1.1820	49.6690
 1.1830	49.5750
 1.1840	49.4810
 1.1850	49.3880
 1.1860	49.3000
 1.1870	49.2130
 1.1880	49.1310
 1.1890	49.0530
 1.1900	48.9810
 1.1910	48.9130
 1.1920	48.8520
 1.1930	48.7960
 1.1940	48.7470
 1.1950	48.7050
 1.1960	48.6670
 1.1970	48.6350
 1.1980	48.6110
 1.1990	48.5950
 1.2000	48.5850
 1.2010	48.5830
 1.2020	48.5870
 1.2030	48.5910
 1.2040	48.6030
 1.2050	48.6230
 1.2060	48.6500
 1.2070	48.6840
 1.2080	48.7250
 1.2090	48.7730
 1.2100	48.8270
 1.2110	48.8880
 1.2120	48.9560
 1.2130	49.0320
 1.2140	49.1140
 1.2150	49.2040
 1.2160	49.3010
 1.2170	49.4040
 1.2180	49.5120
 1.2190	49.6210
 1.2200	49.7360
 1.2210	49.8540
 1.2220	49.9730
 1.2230	50.0920
 1.2240	50.2120
 1.2250	50.3280
 1.2260	50.4420
 1.2270	50.5580
 1.2280	50.6720
 1.2290	50.7840
 1.2300	50.8960
 1.2310	51.0030
 1.2320	51.1070
 1.2330	51.2050
 1.2340	51.3020
 1.2350	51.3940
 1.2360	51.4850
 1.2370	51.5730
 1.2380	51.6610
 1.2390	51.7440
 1.2400	51.8230
 1.2410	51.9000
 1.2420	51.9720
 1.2430	52.0450
 1.2440	52.1150
 1.2450	52.1850
 1.2460	52.2550
 1.2470	52.3190
 1.2480	52.3790
 1.2490	52.4370
 1.2500	52.4920
 1.2510	52.5460
 1.2520	52.5970
 1.2530	52.6460
 1.2540	52.6930
 1.2550	52.7370
 1.2560	52.7810
 1.2570	52.8200
 1.2580	52.8560
 1.2590	52.8900
 1.2600	52.9200
 1.2610	52.9480
 1.2620	52.9750
 1.2630	53.0010
 1.2640	53.0230
 1.2650	53.0430
 1.2660	53.0610
 1.2670	53.0730
 1.2680	53.0840
 1.2690	53.0930
 1.2700	53.0990
 1.2710	53.1020
 1.2720	53.1010
 1.2730	53.0980
 1.2740	53.0910
 1.2750	53.0840
 1.2760	53.0760
 1.2770	53.0640
 1.2780	53.0480
 1.2790	53.0290
 1.2800	53.0100
 1.2810	52.9850
 1.2820	52.9540
 1.2830	52.9190
 1.2840	52.8810
 1.2850	52.8390
 1.2860	52.7920
 1.2870	52.7410
 1.2880	52.6860
 1.2890	52.6240
 1.2900	52.5570
 1.2910	52.4850
 1.2920	52.4060
 1.2930	52.3190
 1.2940	52.2260
 1.2950	52.1270
 1.2960	52.0210
 1.2970	51.9100
 1.2980	51.7930
 1.2990	51.6680
 1.3000	51.5380
 1.3010	51.3980
 1.3020	51.2520
 1.3030	51.1010
 1.3040	50.9400
 1.3050	50.7780
 1.3060	50.6110
 1.3070	50.4330
 1.3080	50.2530
 1.3090	50.0650
 1.3100	49.8680
 1.3110	49.6660
 1.3120	49.4530
 1.3130	49.2350
 1.3140	49.0130
 1.3150	48.7840
 1.3160	48.5510
 1.3170	48.3160
 1.3180	48.0750
 1.3190	47.8260
 1.3200	47.5740
 1.3210	47.3150
 1.3220	47.0500
 1.3230	46.7820
 1.3240	46.5070
 1.3250	46.2330
 1.3260	45.9550
 1.3270	45.6740
 1.3280	45.3920
 1.3290	45.1040
 1.3300	44.8160
 1.3310	44.5290
 1.3320	44.2390
 1.3330	43.9520
 1.3340	43.6670
 1.3350	43.3820
 1.3360	43.1000
 1.3370	42.8180
 1.3380	42.5400
 1.3390	42.2650
 1.3400	41.9910
 1.3410	41.7270
 1.3420	41.4670
 1.3430	41.2100
 1.3440	40.9590
 1.3450	40.7110
 1.3460	40.4640
 1.3470	40.2260
 1.3480	39.9930
 1.3490	39.7660
 1.3500	39.5450
 1.3510	39.3270
 1.3520	39.1120
 1.3530	38.9010
 1.3540	38.6910
 1.3550	38.4850
 1.3560	38.2790
 1.3570	38.0710
 1.3580	37.8650
 1.3590	37.6560
 1.3600	37.4440
 1.3610	37.2320
 1.3620	37.0160
 1.3630	36.7930
 1.3640	36.5640
 1.3650	36.3280
 1.3660	36.0860
 1.3670	35.8380
 1.3680	35.5800
 1.3690	35.3100
 1.3700	35.0250
 1.3710	34.7270
 1.3720	34.4150
 1.3730	34.0860
 1.3740	33.7450
 1.3750	33.3880
 1.3760	33.0100
 1.3770	32.6130
 1.3780	32.1920
 1.3790	31.7510
 1.3800	31.2910
 1.3810	30.8090
 1.3820	30.3150
 1.3830	29.8040
 1.3840	29.2820
 1.3850	28.7450
 1.3860	28.2030
 1.3870	27.6450
 1.3880	27.0910
 1.3890	26.5320
 1.3900	25.9730
 1.3910	25.4230
 1.3920	24.8740
 1.3930	24.3310
 1.3940	23.7990
 1.3950	23.2700
 1.3960	22.7560
 1.3970	22.2570
 1.3980	21.7710
 1.3990	21.3090
 1.4000	20.8630
 1.4010	20.4320
 1.4020	20.0210
 1.4030	19.6250
 1.4040	19.2470
 1.4050	18.8890
 1.4060	18.5480
 1.4070	18.2290
 1.4080	17.9250
 1.4090	17.6380
 1.4100	17.3680
 1.4110	17.1140
 1.4120	16.8760
 1.4130	16.6540
 1.4140	16.4440
 1.4150	16.2500
 1.4160	16.0680
 1.4170	15.8970
 1.4180	15.7380
 1.4190	15.5880
 1.4200	15.4470
 1.4210	15.3160
 1.4220	15.1960
 1.4230	15.0840
 1.4240	14.9780
 1.4250	14.8800
 1.4260	14.7900
 1.4270	14.7050
 1.4280	14.6280
 1.4290	14.5560
 1.4300	14.4910
 1.4310	14.4300
 1.4320	14.3770
 1.4330	14.3270
 1.4340	14.2820
 1.4350	14.2410
 1.4360	14.2040
 1.4370	14.1720
 1.4380	14.1440
 1.4390	14.1190
 1.4400	14.0970
 1.4410	14.0770
 1.4420	14.0600
 1.4430	14.0460
 1.4440	14.0340
 1.4450	14.0240
 1.4460	14.0170
 1.4470	14.0110
 1.4480	14.0070
 1.4490	14.0050
 1.4500	14.0040
 1.4510	14.0050
 1.4520	14.0070
 1.4530	14.0110
 1.4540	14.0160
 1.4550	14.0230
 1.4560	14.0310
 1.4570	14.0410
 1.4580	14.0530
 1.4590	14.0660
 1.4600	14.0840
 1.4610	14.1040
 1.4620	14.1260
 1.4630	14.1510
 1.4640	14.1790
 1.4650	14.2080
 1.4660	14.2420
 1.4670	14.2790
 1.4680	14.3190
 1.4690	14.3620
 1.4700	14.4090
