Name: Ceanothus spinosus 2
Type: vegetation
Class: Shrub
Genus: Ceanothus
Species: spinosus
Sample No.: VH009
Owner: UCSB
Wavelength Range: TIR
Origin: 34.4906; -119.7908; WGS84
Collection Date: 4/1/2013
Description: Samples were collected as part of the HyspIRI Airborne Campaign. 48 individual plants were sampled in three times in 2013 - spring  summer  and fall. The name of the sample includes a 1  2  or 3 which references a different individual of the species. Samples were taken to JPL and processed within 48 hours of collection. The same leaves were processed in the Nicolet and then measured using the ASD.
Measurement: Hemispherical reflectance
First Column: X
Second Column: Y
X Units: Wavelength (micrometers)
Y Units: Reflectance (percentage)
First X Value: 2.501
Last X Value: 15.387
Number of X Values: 1737
Additional Information: vegetation.shrub.ceanothus.spinosus.tir.vh009.ucsb.nicolet.ancillary.txt

 2.5010	 5.4050
 2.5030	 5.3030
 2.5040	 5.1010
 2.5050	 5.0830
 2.5060	 5.2050
 2.5070	 5.2620
 2.5090	 5.2650
 2.5100	 5.0540
 2.5110	 5.0150
 2.5120	 5.0900
 2.5140	 5.0910
 2.5150	 5.0620
 2.5160	 5.1320
 2.5170	 5.2240
 2.5180	 5.2960
 2.5200	 5.1460
 2.5210	 5.0710
 2.5220	 5.0470
 2.5230	 5.0490
 2.5250	 5.0870
 2.5260	 5.1140
 2.5270	 5.0840
 2.5280	 5.0950
 2.5290	 5.0690
 2.5310	 5.0860
 2.5320	 5.0600
 2.5330	 5.0440
 2.5340	 5.0650
 2.5360	 5.0690
 2.5370	 4.9730
 2.5380	 4.9390
 2.5390	 4.9380
 2.5410	 5.0260
 2.5420	 5.0470
 2.5430	 5.0490
 2.5440	 5.0580
 2.5460	 5.1250
 2.5470	 5.0360
 2.5480	 4.9900
 2.5490	 4.9900
 2.5510	 5.0930
 2.5520	 5.1450
 2.5530	 5.2440
 2.5540	 5.1450
 2.5560	 5.0920
 2.5570	 5.0320
 2.5580	 5.0570
 2.5590	 5.0500
 2.5610	 5.0290
 2.5620	 5.0330
 2.5630	 5.0380
 2.5640	 5.0410
 2.5660	 5.1750
 2.5670	 5.1350
 2.5680	 5.1790
 2.5700	 5.2040
 2.5710	 5.1450
 2.5720	 5.1530
 2.5730	 5.1670
 2.5750	 4.9960
 2.5760	 4.9920
 2.5770	 5.0680
 2.5790	 5.1230
 2.5800	 5.0000
 2.5810	 5.0570
 2.5820	 5.1110
 2.5840	 5.2150
 2.5850	 5.2080
 2.5860	 5.1110
 2.5880	 5.0350
 2.5890	 5.0920
 2.5900	 5.0770
 2.5910	 5.0700
 2.5930	 4.9900
 2.5940	 4.9280
 2.5950	 4.9060
 2.5970	 4.9500
 2.5980	 4.8960
 2.5990	 4.9890
 2.6000	 4.9920
 2.6020	 4.9700
 2.6030	 4.9760
 2.6040	 4.9120
 2.6060	 4.8340
 2.6070	 4.9730
 2.6080	 5.0020
 2.6100	 5.0820
 2.6110	 4.9760
 2.6120	 4.8800
 2.6140	 4.8030
 2.6150	 4.9730
 2.6160	 4.9330
 2.6180	 4.7390
 2.6190	 4.6940
 2.6200	 4.8240
 2.6220	 4.8500
 2.6230	 4.7540
 2.6240	 4.6540
 2.6260	 4.7080
 2.6270	 4.6360
 2.6280	 4.6370
 2.6300	 4.6200
 2.6310	 4.6650
 2.6320	 4.6720
 2.6340	 4.7380
 2.6350	 4.6770
 2.6360	 4.6730
 2.6380	 4.6100
 2.6390	 4.5800
 2.6400	 4.5360
 2.6420	 4.6240
 2.6430	 4.6370
 2.6440	 4.6280
 2.6460	 4.5700
 2.6470	 4.5280
 2.6480	 4.4900
 2.6500	 4.5150
 2.6510	 4.5860
 2.6520	 4.5590
 2.6540	 4.5360
 2.6550	 4.6020
 2.6560	 4.4930
 2.6580	 4.4190
 2.6590	 4.3660
 2.6610	 4.4020
 2.6620	 4.3990
 2.6630	 4.3610
 2.6650	 4.3150
 2.6660	 4.3230
 2.6670	 4.3540
 2.6690	 4.4700
 2.6700	 4.3840
 2.6720	 4.2830
 2.6730	 4.3460
 2.6740	 4.4020
 2.6760	 4.2740
 2.6770	 4.2970
 2.6780	 4.3600
 2.6800	 4.4210
 2.6810	 4.3410
 2.6830	 4.3220
 2.6840	 4.3640
 2.6850	 4.4400
 2.6870	 4.3340
 2.6880	 4.3550
 2.6900	 4.2820
 2.6910	 4.2730
 2.6920	 4.2710
 2.6940	 4.3210
 2.6950	 4.4760
 2.6970	 4.5030
 2.6980	 4.3250
 2.6990	 4.2750
 2.7010	 4.2320
 2.7020	 4.3120
 2.7040	 4.3030
 2.7050	 4.3350
 2.7060	 4.3310
 2.7080	 4.3850
 2.7090	 4.3970
 2.7110	 4.4780
 2.7120	 4.4650
 2.7130	 4.4200
 2.7150	 4.3610
 2.7160	 4.4120
 2.7180	 4.3760
 2.7190	 4.4020
 2.7210	 4.4160
 2.7220	 4.5600
 2.7230	 4.5280
 2.7250	 4.5320
 2.7260	 4.5140
 2.7280	 4.5230
 2.7290	 4.5160
 2.7310	 4.5710
 2.7320	 4.5580
 2.7330	 4.5750
 2.7350	 4.6010
 2.7360	 4.6110
 2.7380	 4.4940
 2.7390	 4.4990
 2.7410	 4.5650
 2.7420	 4.5920
 2.7440	 4.4250
 2.7450	 4.4450
 2.7470	 4.5630
 2.7480	 4.7050
 2.7490	 4.6920
 2.7510	 4.6320
 2.7520	 4.4660
 2.7540	 4.6210
 2.7550	 4.8780
 2.7570	 4.9670
 2.7580	 4.8710
 2.7600	 4.8040
 2.7610	 4.6960
 2.7630	 4.7210
 2.7640	 4.7630
 2.7660	 4.8200
 2.7670	 4.7570
 2.7680	 4.6890
 2.7700	 4.5420
 2.7710	 4.6420
 2.7730	 4.7100
 2.7740	 4.7700
 2.7760	 4.7510
 2.7770	 4.8400
 2.7790	 4.8200
 2.7800	 4.8850
 2.7820	 4.8660
 2.7830	 4.8340
 2.7850	 4.8230
 2.7860	 4.8090
 2.7880	 4.7330
 2.7890	 4.8490
 2.7910	 4.8570
 2.7920	 4.9900
 2.7940	 4.9610
 2.7950	 4.8580
 2.7970	 4.8960
 2.7980	 4.9810
 2.8000	 4.9720
 2.8010	 5.0600
 2.8030	 5.0850
 2.8040	 5.1750
 2.8060	 5.1340
 2.8070	 5.0780
 2.8090	 4.9420
 2.8110	 5.0440
 2.8120	 4.9870
 2.8140	 4.9580
 2.8150	 4.9920
 2.8170	 5.0160
 2.8180	 4.9200
 2.8200	 4.9920
 2.8210	 5.1180
 2.8230	 5.1760
 2.8240	 5.0920
 2.8260	 5.0090
 2.8270	 5.0030
 2.8290	 5.1580
 2.8300	 5.2170
 2.8320	 5.2210
 2.8340	 5.1150
 2.8350	 5.1580
 2.8370	 5.2190
 2.8380	 5.3140
 2.8400	 5.3130
 2.8410	 5.2570
 2.8430	 5.2140
 2.8440	 5.3060
 2.8460	 5.1740
 2.8480	 5.2470
 2.8490	 5.3260
 2.8510	 5.4100
 2.8520	 5.3620
 2.8540	 5.3480
 2.8550	 5.3050
 2.8570	 5.3150
 2.8590	 5.3390
 2.8600	 5.3940
 2.8620	 5.3560
 2.8630	 5.4180
 2.8650	 5.3990
 2.8660	 5.3650
 2.8680	 5.2760
 2.8700	 5.3490
 2.8710	 5.3250
 2.8730	 5.3080
 2.8740	 5.2970
 2.8760	 5.3830
 2.8780	 5.3360
 2.8790	 5.4120
 2.8810	 5.4560
 2.8820	 5.4620
 2.8840	 5.5010
 2.8860	 5.4600
 2.8870	 5.3580
 2.8890	 5.3790
 2.8900	 5.4300
 2.8920	 5.5890
 2.8940	 5.5070
 2.8950	 5.4770
 2.8970	 5.5750
 2.8980	 5.5620
 2.9000	 5.4060
 2.9020	 5.3440
 2.9030	 5.3060
 2.9050	 5.4620
 2.9070	 5.6710
 2.9080	 5.6030
 2.9100	 5.4150
 2.9120	 5.5880
 2.9130	 5.6530
 2.9150	 5.6720
 2.9160	 5.5870
 2.9180	 5.4760
 2.9200	 5.4660
 2.9210	 5.5900
 2.9230	 5.5380
 2.9250	 5.4220
 2.9260	 5.4300
 2.9280	 5.4640
 2.9300	 5.5240
 2.9310	 5.7160
 2.9330	 5.5980
 2.9350	 5.5250
 2.9360	 5.4670
 2.9380	 5.6540
 2.9400	 5.7420
 2.9410	 5.6740
 2.9430	 5.5160
 2.9450	 5.4440
 2.9460	 5.4620
 2.9480	 5.5200
 2.9500	 5.4940
 2.9510	 5.7340
 2.9530	 5.7290
 2.9550	 5.3880
 2.9560	 5.2200
 2.9580	 5.4360
 2.9600	 5.5220
 2.9610	 5.6340
 2.9630	 5.4290
 2.9650	 5.2250
 2.9660	 5.4220
 2.9680	 5.6040
 2.9700	 5.5230
 2.9720	 5.6490
 2.9730	 5.3900
 2.9750	 5.4260
 2.9770	 5.2210
 2.9780	 4.8640
 2.9800	 5.1890
 2.9820	 5.6230
 2.9840	 5.5360
 2.9850	 4.9670
 2.9870	 4.5790
 2.9890	 4.9870
 2.9900	 5.1590
 2.9920	 5.0880
 2.9940	 5.3720
 2.9960	 5.9300
 2.9970	 5.4240
 2.9990	 5.0690
 3.0010	 5.5910
 3.0030	 5.5700
 3.0040	 5.2980
 3.0060	 5.3490
 3.0080	 5.5420
 3.0100	 5.3360
 3.0110	 5.4210
 3.0130	 6.0470
 3.0150	 6.3170
 3.0170	 5.7700
 3.0180	 5.4720
 3.0200	 5.6450
 3.0220	 5.2910
 3.0240	 5.2970
 3.0250	 5.2100
 3.0270	 5.4380
 3.0290	 5.3650
 3.0310	 4.8940
 3.0320	 4.6580
 3.0340	 5.3380
 3.0360	 6.0630
 3.0380	 5.4690
 3.0400	 4.9030
 3.0410	 5.6450
 3.0430	 5.4190
 3.0450	 5.2050
 3.0470	 5.1370
 3.0480	 5.1550
 3.0500	 5.3100
 3.0520	 5.6100
 3.0540	 5.0810
 3.0560	 4.7720
 3.0570	 5.1700
 3.0590	 4.9700
 3.0610	 4.8470
 3.0630	 4.9660
 3.0650	 5.1140
 3.0660	 5.0610
 3.0680	 4.5820
 3.0700	 4.5280
 3.0720	 4.7810
 3.0740	 5.1310
 3.0760	 4.9360
 3.0770	 4.8650
 3.0790	 4.9500
 3.0810	 5.0500
 3.0830	 5.1970
 3.0850	 5.3490
 3.0870	 5.1900
 3.0880	 4.9980
 3.0900	 5.0210
 3.0920	 5.2460
 3.0940	 5.2190
 3.0960	 5.1870
 3.0980	 4.9500
 3.0990	 4.8140
 3.1010	 4.8090
 3.1030	 4.9740
 3.1050	 4.9180
 3.1070	 4.8220
 3.1090	 4.9450
 3.1110	 4.9240
 3.1120	 4.7430
 3.1140	 4.8770
 3.1160	 4.9830
 3.1180	 4.9280
 3.1200	 4.8650
 3.1220	 4.8650
 3.1240	 4.8810
 3.1260	 4.9270
 3.1270	 4.9390
 3.1290	 4.9800
 3.1310	 4.8910
 3.1330	 4.7900
 3.1350	 4.8690
 3.1370	 4.9500
 3.1390	 4.7760
 3.1410	 4.7520
 3.1430	 5.0170
 3.1450	 5.0870
 3.1460	 4.6400
 3.1480	 4.6650
 3.1500	 4.8300
 3.1520	 4.8660
 3.1540	 4.7710
 3.1560	 4.8860
 3.1580	 5.2950
 3.1600	 5.2980
 3.1620	 4.6640
 3.1640	 4.6730
 3.1660	 5.0660
 3.1680	 5.1390
 3.1700	 4.6880
 3.1710	 4.7430
 3.1730	 5.2780
 3.1750	 4.7960
 3.1770	 4.7620
 3.1790	 5.5190
 3.1810	 5.0190
 3.1830	 4.3810
 3.1850	 4.2660
 3.1870	 4.3570
 3.1890	 4.5900
 3.1910	 4.8210
 3.1930	 4.8400
 3.1950	 4.5790
 3.1970	 4.3150
 3.1990	 4.3970
 3.2010	 4.4220
 3.2030	 4.5470
 3.2050	 4.6020
 3.2070	 4.6470
 3.2090	 4.5680
 3.2110	 4.5320
 3.2130	 4.5220
 3.2150	 4.5270
 3.2170	 4.4200
 3.2190	 4.4330
 3.2210	 4.4640
 3.2230	 4.4810
 3.2250	 4.4650
 3.2270	 4.5400
 3.2290	 4.4870
 3.2310	 4.4500
 3.2330	 4.3150
 3.2350	 4.2910
 3.2370	 4.3670
 3.2390	 4.4720
 3.2410	 4.3600
 3.2430	 4.2090
 3.2450	 4.1660
 3.2470	 4.3200
 3.2490	 4.4200
 3.2510	 4.5080
 3.2530	 4.4270
 3.2550	 4.4090
 3.2570	 4.3790
 3.2590	 4.4140
 3.2610	 4.3010
 3.2630	 4.3230
 3.2650	 4.3580
 3.2670	 4.3970
 3.2690	 4.3280
 3.2720	 4.2790
 3.2740	 4.2420
 3.2760	 4.2490
 3.2780	 4.2380
 3.2800	 4.2170
 3.2820	 4.2190
 3.2840	 4.3230
 3.2860	 4.2670
 3.2880	 4.3400
 3.2900	 4.3500
 3.2920	 4.2700
 3.2940	 4.2040
 3.2960	 4.2860
 3.2990	 4.3060
 3.3010	 4.2920
 3.3030	 4.2280
 3.3050	 4.1220
 3.3070	 4.0560
 3.3090	 4.1630
 3.3110	 4.1390
 3.3130	 4.0920
 3.3150	 4.0750
 3.3180	 4.1170
 3.3200	 4.0760
 3.3220	 4.0040
 3.3240	 3.9860
 3.3260	 4.0040
 3.3280	 3.9780
 3.3300	 4.0650
 3.3330	 4.0210
 3.3350	 3.9010
 3.3370	 3.8430
 3.3390	 3.9500
 3.3410	 3.9750
 3.3430	 3.9560
 3.3450	 3.8760
 3.3480	 3.9290
 3.3500	 3.9630
 3.3520	 3.9270
 3.3540	 3.7760
 3.3560	 3.7460
 3.3580	 3.7310
 3.3610	 3.7540
 3.3630	 3.7590
 3.3650	 3.7400
 3.3670	 3.6250
 3.3690	 3.7100
 3.3720	 3.7350
 3.3740	 3.7350
 3.3760	 3.6920
 3.3780	 3.7120
 3.3800	 3.6560
 3.3830	 3.6820
 3.3850	 3.6560
 3.3870	 3.7040
 3.3890	 3.6350
 3.3910	 3.5910
 3.3940	 3.5230
 3.3960	 3.6620
 3.3980	 3.6730
 3.4000	 3.6190
 3.4020	 3.6580
 3.4050	 3.8030
 3.4070	 3.9670
 3.4090	 4.2180
 3.4110	 4.4650
 3.4140	 4.7510
 3.4160	 5.0510
 3.4180	 5.3870
 3.4200	 5.8010
 3.4230	 6.4630
 3.4250	 7.1430
 3.4270	 7.8050
 3.4290	 7.9990
 3.4320	 7.6780
 3.4340	 6.9870
 3.4360	 6.4730
 3.4390	 6.0420
 3.4410	 5.8180
 3.4430	 5.7940
 3.4450	 5.7730
 3.4480	 5.6890
 3.4500	 5.6980
 3.4520	 5.6390
 3.4550	 5.5550
 3.4570	 5.4800
 3.4590	 5.5070
 3.4620	 5.4840
 3.4640	 5.4030
 3.4660	 5.3050
 3.4680	 5.2340
 3.4710	 5.0540
 3.4730	 4.9820
 3.4750	 4.9100
 3.4780	 4.8990
 3.4800	 4.9310
 3.4820	 4.8620
 3.4850	 4.7320
 3.4870	 4.7320
 3.4890	 4.7110
 3.4920	 4.7010
 3.4940	 4.6770
 3.4970	 4.7520
 3.4990	 4.8000
 3.5010	 5.0010
 3.5040	 5.3040
 3.5060	 5.9830
 3.5080	 6.9500
 3.5110	 7.7120
 3.5130	 7.5320
 3.5160	 6.8690
 3.5180	 6.3460
 3.5200	 6.0590
 3.5230	 5.8470
 3.5250	 5.7580
 3.5270	 5.6190
 3.5300	 5.5880
 3.5320	 5.5420
 3.5350	 5.4510
 3.5370	 5.4280
 3.5400	 5.4040
 3.5420	 5.3390
 3.5440	 5.3620
 3.5470	 5.2970
 3.5490	 5.2570
 3.5520	 5.2320
 3.5540	 5.2000
 3.5570	 5.1710
 3.5590	 5.2580
 3.5610	 5.2380
 3.5640	 5.1550
 3.5660	 5.0030
 3.5690	 4.9430
 3.5710	 4.9850
 3.5740	 5.0910
 3.5760	 5.1280
 3.5790	 5.1470
 3.5810	 5.1840
 3.5840	 5.2080
 3.5860	 5.0980
 3.5890	 5.0650
 3.5910	 5.0630
 3.5930	 4.9700
 3.5960	 5.0180
 3.5980	 5.1360
 3.6010	 5.0990
 3.6030	 4.9780
 3.6060	 4.9170
 3.6080	 4.9730
 3.6110	 4.9980
 3.6140	 4.9810
 3.6160	 4.9270
 3.6190	 4.9780
 3.6210	 4.9990
 3.6240	 4.9510
 3.6260	 4.9880
 3.6290	 5.0580
 3.6310	 4.9980
 3.6340	 4.9430
 3.6360	 4.8010
 3.6390	 4.8080
 3.6410	 4.8670
 3.6440	 4.9010
 3.6470	 4.8890
 3.6490	 4.9270
 3.6520	 4.9200
 3.6540	 4.9030
 3.6570	 4.9000
 3.6590	 4.8830
 3.6620	 4.8540
 3.6650	 4.8540
 3.6670	 4.8480
 3.6700	 4.8390
 3.6720	 4.8460
 3.6750	 4.8860
 3.6780	 4.8700
 3.6800	 4.8710
 3.6830	 4.8540
 3.6850	 4.9160
 3.6880	 4.9200
 3.6910	 4.9170
 3.6930	 4.8060
 3.6960	 4.7720
 3.6990	 4.7790
 3.7010	 4.7790
 3.7040	 4.8210
 3.7060	 4.8960
 3.7090	 4.8820
 3.7120	 4.8750
 3.7140	 4.8140
 3.7170	 4.7710
 3.7200	 4.7950
 3.7220	 4.8590
 3.7250	 4.9020
 3.7280	 4.8780
 3.7300	 4.8130
 3.7330	 4.8170
 3.7360	 4.8280
 3.7390	 4.8150
 3.7410	 4.7650
 3.7440	 4.7670
 3.7470	 4.7650
 3.7490	 4.7880
 3.7520	 4.8240
 3.7550	 4.8920
 3.7580	 4.8390
 3.7600	 4.7660
 3.7630	 4.7550
 3.7660	 4.8800
 3.7680	 4.9260
 3.7710	 4.8710
 3.7740	 4.7750
 3.7770	 4.8580
 3.7790	 4.9210
 3.7820	 4.8940
 3.7850	 4.8170
 3.7880	 4.8030
 3.7900	 4.8260
 3.7930	 4.8630
 3.7960	 4.8280
 3.7990	 4.8150
 3.8020	 4.8070
 3.8040	 4.8100
 3.8070	 4.8370
 3.8100	 4.8200
 3.8130	 4.7970
 3.8160	 4.8040
 3.8180	 4.8240
 3.8210	 4.9010
 3.8240	 4.8270
 3.8270	 4.7700
 3.8300	 4.8200
 3.8330	 4.8890
 3.8350	 4.9220
 3.8380	 4.9080
 3.8410	 4.8410
 3.8440	 4.8100
 3.8470	 4.8080
 3.8500	 4.8660
 3.8520	 4.8980
 3.8550	 4.9050
 3.8580	 4.8940
 3.8610	 4.9490
 3.8640	 4.8880
 3.8670	 4.8500
 3.8700	 4.8700
 3.8730	 4.9630
 3.8750	 4.9500
 3.8780	 4.9060
 3.8810	 4.8530
 3.8840	 4.8610
 3.8870	 4.8360
 3.8900	 4.8360
 3.8930	 4.8170
 3.8960	 4.7850
 3.8990	 4.7690
 3.9020	 4.8200
 3.9050	 4.8130
 3.9080	 4.8240
 3.9110	 4.7980
 3.9140	 4.8230
 3.9160	 4.8950
 3.9190	 4.9220
 3.9220	 4.8860
 3.9250	 4.8250
 3.9280	 4.8160
 3.9310	 4.8960
 3.9340	 4.8860
 3.9370	 4.8620
 3.9400	 4.8550
 3.9430	 4.8380
 3.9460	 4.8700
 3.9490	 4.9660
 3.9520	 4.9420
 3.9550	 4.8850
 3.9580	 4.8920
 3.9610	 4.9340
 3.9640	 4.9260
 3.9670	 4.9310
 3.9700	 4.9260
 3.9730	 4.9520
 3.9770	 4.9620
 3.9800	 4.9440
 3.9830	 4.9210
 3.9860	 4.9670
 3.9890	 4.9410
 3.9920	 4.9420
 3.9950	 4.9360
 3.9980	 4.9180
 4.0010	 4.8780
 4.0040	 4.9030
 4.0070	 4.9200
 4.0100	 4.9000
 4.0130	 4.8730
 4.0170	 4.8720
 4.0200	 4.8340
 4.0230	 4.8170
 4.0260	 4.8560
 4.0290	 4.9370
 4.0320	 4.9590
 4.0350	 4.9190
 4.0380	 4.8850
 4.0420	 4.8720
 4.0450	 4.8770
 4.0480	 4.9150
 4.0510	 4.8980
 4.0540	 4.8670
 4.0570	 4.8940
 4.0610	 4.9730
 4.0640	 4.9450
 4.0670	 4.9480
 4.0700	 4.9320
 4.0730	 4.9450
 4.0770	 4.9730
 4.0800	 4.9610
 4.0830	 4.9360
 4.0860	 4.9340
 4.0890	 4.9310
 4.0930	 4.9600
 4.0960	 4.9300
 4.0990	 4.8730
 4.1020	 4.8430
 4.1060	 4.8550
 4.1090	 4.8600
 4.1120	 4.9660
 4.1150	 4.9570
 4.1190	 4.8970
 4.1220	 4.9030
 4.1250	 4.9230
 4.1280	 4.9140
 4.1320	 4.9510
 4.1350	 4.9290
 4.1380	 4.8850
 4.1420	 4.8530
 4.1450	 4.9000
 4.1480	 4.8890
 4.1520	 4.8900
 4.1550	 4.9260
 4.1580	 4.8960
 4.1620	 4.8500
 4.1650	 4.8890
 4.1680	 4.8860
 4.1720	 4.9120
 4.1750	 4.9280
 4.1780	 4.9500
 4.1820	 4.9680
 4.1850	 4.9630
 4.1890	 4.9300
 4.1920	 4.8820
 4.1950	 4.8340
 4.1990	 4.8710
 4.2020	 4.9280
 4.2060	 4.9520
 4.2090	 4.9200
 4.2120	 4.8610
 4.2160	 4.8320
 4.2190	 4.7750
 4.2230	 4.7750
 4.2260	 4.8740
 4.2300	 4.7280
 4.2330	 4.4740
 4.2360	 4.3880
 4.2400	 4.5240
 4.2430	 4.8360
 4.2470	 4.8830
 4.2500	 4.6600
 4.2540	 4.6580
 4.2570	 4.7130
 4.2610	 4.7220
 4.2640	 4.7350
 4.2680	 4.8460
 4.2710	 4.7510
 4.2750	 4.6820
 4.2780	 4.7400
 4.2820	 4.7280
 4.2850	 4.7060
 4.2890	 4.7260
 4.2930	 4.7200
 4.2960	 4.6330
 4.3000	 4.5900
 4.3030	 4.6430
 4.3070	 4.7460
 4.3100	 4.7740
 4.3140	 4.7740
 4.3180	 4.7550
 4.3210	 4.6640
 4.3250	 4.6400
 4.3280	 4.6480
 4.3320	 4.6860
 4.3360	 4.7720
 4.3390	 4.8660
 4.3430	 4.8400
 4.3470	 4.8230
 4.3500	 4.8520
 4.3540	 4.8510
 4.3570	 4.8160
 4.3610	 4.8420
 4.3650	 4.8740
 4.3680	 4.8380
 4.3720	 4.8610
 4.3760	 4.9140
 4.3800	 4.8990
 4.3830	 4.8400
 4.3870	 4.7950
 4.3910	 4.8240
 4.3940	 4.7950
 4.3980	 4.7780
 4.4020	 4.8330
 4.4060	 4.8540
 4.4090	 4.8130
 4.4130	 4.7520
 4.4170	 4.7220
 4.4210	 4.7910
 4.4240	 4.8230
 4.4280	 4.8190
 4.4320	 4.8010
 4.4360	 4.7900
 4.4400	 4.8140
 4.4430	 4.8240
 4.4470	 4.8140
 4.4510	 4.8440
 4.4550	 4.8370
 4.4590	 4.8070
 4.4620	 4.8260
 4.4660	 4.8570
 4.4700	 4.8450
 4.4740	 4.8500
 4.4780	 4.7950
 4.4820	 4.7260
 4.4860	 4.7640
 4.4900	 4.8010
 4.4930	 4.7850
 4.4970	 4.7630
 4.5010	 4.7860
 4.5050	 4.8320
 4.5090	 4.8410
 4.5130	 4.8690
 4.5170	 4.8410
 4.5210	 4.7860
 4.5250	 4.7880
 4.5290	 4.7990
 4.5330	 4.7920
 4.5370	 4.7630
 4.5410	 4.7690
 4.5450	 4.7940
 4.5490	 4.7960
 4.5530	 4.8120
 4.5570	 4.7880
 4.5610	 4.8370
 4.5650	 4.8540
 4.5690	 4.8300
 4.5730	 4.8120
 4.5770	 4.7630
 4.5810	 4.7750
 4.5850	 4.8470
 4.5890	 4.8400
 4.5930	 4.8450
 4.5970	 4.8850
 4.6010	 4.8280
 4.6050	 4.8220
 4.6090	 4.7750
 4.6130	 4.7770
 4.6170	 4.7830
 4.6220	 4.7550
 4.6260	 4.7560
 4.6300	 4.7210
 4.6340	 4.6870
 4.6380	 4.7190
 4.6420	 4.7590
 4.6460	 4.7010
 4.6510	 4.6980
 4.6550	 4.6940
 4.6590	 4.6800
 4.6630	 4.7640
 4.6670	 4.7700
 4.6720	 4.7220
 4.6760	 4.7560
 4.6800	 4.8030
 4.6840	 4.8170
 4.6880	 4.7680
 4.6930	 4.7570
 4.6970	 4.7820
 4.7010	 4.8300
 4.7050	 4.7700
 4.7100	 4.6970
 4.7140	 4.7650
 4.7180	 4.7840
 4.7230	 4.7530
 4.7270	 4.7900
 4.7310	 4.7520
 4.7360	 4.7330
 4.7400	 4.7550
 4.7440	 4.7270
 4.7490	 4.7430
 4.7530	 4.7900
 4.7570	 4.8080
 4.7620	 4.8010
 4.7660	 4.7840
 4.7700	 4.7150
 4.7750	 4.7070
 4.7790	 4.7070
 4.7840	 4.6730
 4.7880	 4.7120
 4.7920	 4.7440
 4.7970	 4.7210
 4.8010	 4.6790
 4.8060	 4.6940
 4.8100	 4.7260
 4.8150	 4.6970
 4.8190	 4.6880
 4.8240	 4.6900
 4.8280	 4.7240
 4.8330	 4.7420
 4.8370	 4.7530
 4.8420	 4.6840
 4.8460	 4.6530
 4.8510	 4.6950
 4.8550	 4.7130
 4.8600	 4.6970
 4.8640	 4.6720
 4.8690	 4.6610
 4.8730	 4.7040
 4.8780	 4.6910
 4.8830	 4.6970
 4.8870	 4.6720
 4.8920	 4.6760
 4.8960	 4.7050
 4.9010	 4.6930
 4.9060	 4.6790
 4.9100	 4.7030
 4.9150	 4.6800
 4.9200	 4.6420
 4.9240	 4.6830
 4.9290	 4.7350
 4.9340	 4.7220
 4.9380	 4.7040
 4.9430	 4.6820
 4.9480	 4.6870
 4.9530	 4.7030
 4.9570	 4.7260
 4.9620	 4.7000
 4.9670	 4.6560
 4.9720	 4.6140
 4.9760	 4.6040
 4.9810	 4.6310
 4.9860	 4.6490
 4.9910	 4.6560
 4.9960	 4.6840
 5.0000	 4.6580
 5.0050	 4.6970
 5.0100	 4.6320
 5.0150	 4.5880
 5.0200	 4.6200
 5.0250	 4.6690
 5.0290	 4.6810
 5.0340	 4.6670
 5.0390	 4.6280
 5.0440	 4.6590
 5.0490	 4.6820
 5.0540	 4.6850
 5.0590	 4.7070
 5.0640	 4.7280
 5.0690	 4.7270
 5.0740	 4.7360
 5.0790	 4.6940
 5.0840	 4.6920
 5.0890	 4.6700
 5.0940	 4.6400
 5.0990	 4.6440
 5.1040	 4.6330
 5.1090	 4.6460
 5.1140	 4.6980
 5.1190	 4.6470
 5.1240	 4.6620
 5.1290	 4.7410
 5.1340	 4.7840
 5.1390	 4.7680
 5.1440	 4.7440
 5.1490	 4.6600
 5.1540	 4.6390
 5.1600	 4.7020
 5.1650	 4.7130
 5.1700	 4.6660
 5.1750	 4.6720
 5.1800	 4.6700
 5.1850	 4.7120
 5.1910	 4.6990
 5.1960	 4.6730
 5.2010	 4.6640
 5.2060	 4.6310
 5.2110	 4.6310
 5.2170	 4.6820
 5.2220	 4.6610
 5.2270	 4.6660
 5.2320	 4.6610
 5.2380	 4.6840
 5.2430	 4.6910
 5.2480	 4.7550
 5.2540	 4.7080
 5.2590	 4.6560
 5.2640	 4.6700
 5.2700	 4.7290
 5.2750	 4.6960
 5.2800	 4.6790
 5.2860	 4.6700
 5.2910	 4.6890
 5.2970	 4.6050
 5.3020	 4.6250
 5.3070	 4.6430
 5.3130	 4.6330
 5.3180	 4.6220
 5.3240	 4.6270
 5.3290	 4.6230
 5.3350	 4.6230
 5.3400	 4.5890
 5.3460	 4.6080
 5.3510	 4.6480
 5.3570	 4.7020
 5.3620	 4.6700
 5.3680	 4.6200
 5.3730	 4.5810
 5.3790	 4.5800
 5.3850	 4.5480
 5.3900	 4.5830
 5.3960	 4.5870
 5.4010	 4.6570
 5.4070	 4.6920
 5.4130	 4.6630
 5.4180	 4.5670
 5.4240	 4.5800
 5.4300	 4.5630
 5.4350	 4.5870
