Name: Heteromeles arbutifolia 3
Type: vegetation
Class: Shrub
Genus: Heteromeles
Species: arbutifolia
Sample No.: VH018
Owner: UCSB
Wavelength Range: VSWIR
Origin: 34.4908; -119.7912; WGS84
Collection Date: 4/1/2013
Description: Samples were collected as part of the HyspIRI Airborne Campaign. 48 individual plants were sampled in three times in 2013 - spring  summer  and fall. The name of the sample includes a 1  2  or 3 which references a different individual of the species. Samples were taken to JPL and processed within 48 hours of collection. The same leaves were processed in the Nicolet and then measured using the ASD.
Measurement: Bidirectional reflectance
First Column: X
Second Column: Y
X Units: Wavelength (micrometers)
Y Units: Reflectance (percentage)
First X Value: 0.35
Last X Value: 2.5
Number of X Values: 2151
Additional Information: vegetation.shrub.heteromeles.arbutifolia.vswir.vh018.ucsb.asd.ancillary.txt

 0.3500	 6.8220
 0.3510	 7.4140
 0.3520	 7.4990
 0.3530	 7.2430
 0.3540	 7.0350
 0.3550	 7.0320
 0.3560	 7.0480
 0.3570	 7.0470
 0.3580	 7.0690
 0.3590	 7.0920
 0.3600	 7.0750
 0.3610	 7.0400
 0.3620	 7.0990
 0.3630	 7.0500
 0.3640	 7.0050
 0.3650	 7.0760
 0.3660	 7.0470
 0.3670	 7.0660
 0.3680	 7.0990
 0.3690	 7.0040
 0.3700	 6.9750
 0.3710	 7.0530
 0.3720	 7.1580
 0.3730	 7.0310
 0.3740	 6.9940
 0.3750	 7.0470
 0.3760	 7.0790
 0.3770	 6.9940
 0.3780	 6.9430
 0.3790	 6.9440
 0.3800	 6.9010
 0.3810	 6.8780
 0.3820	 6.8680
 0.3830	 6.8710
 0.3840	 6.9230
 0.3850	 6.9420
 0.3860	 6.9210
 0.3870	 6.8900
 0.3880	 6.9120
 0.3890	 6.9480
 0.3900	 6.9550
 0.3910	 6.8950
 0.3920	 6.9320
 0.3930	 6.9530
 0.3940	 6.8890
 0.3950	 6.9220
 0.3960	 6.9820
 0.3970	 7.0120
 0.3980	 6.9790
 0.3990	 6.9080
 0.4000	 6.8930
 0.4010	 6.9410
 0.4020	 6.9470
 0.4030	 6.9150
 0.4040	 6.9150
 0.4050	 6.9830
 0.4060	 6.9870
 0.4070	 6.9830
 0.4080	 6.9780
 0.4090	 6.9560
 0.4100	 6.9790
 0.4110	 6.9980
 0.4120	 6.9890
 0.4130	 6.9970
 0.4140	 7.0370
 0.4150	 7.0640
 0.4160	 7.0440
 0.4170	 7.0870
 0.4180	 7.1240
 0.4190	 7.1290
 0.4200	 7.1220
 0.4210	 7.1450
 0.4220	 7.1760
 0.4230	 7.1910
 0.4240	 7.2100
 0.4250	 7.2260
 0.4260	 7.2380
 0.4270	 7.2490
 0.4280	 7.2510
 0.4290	 7.2580
 0.4300	 7.2750
 0.4310	 7.2920
 0.4320	 7.2970
 0.4330	 7.2990
 0.4340	 7.3090
 0.4350	 7.3130
 0.4360	 7.3110
 0.4370	 7.3120
 0.4380	 7.3310
 0.4390	 7.3430
 0.4400	 7.3480
 0.4410	 7.3490
 0.4420	 7.3450
 0.4430	 7.3500
 0.4440	 7.3590
 0.4450	 7.3620
 0.4460	 7.3710
 0.4470	 7.3770
 0.4480	 7.3780
 0.4490	 7.3820
 0.4500	 7.3830
 0.4510	 7.3850
 0.4520	 7.3930
 0.4530	 7.4050
 0.4540	 7.4100
 0.4550	 7.4120
 0.4560	 7.4250
 0.4570	 7.4240
 0.4580	 7.4240
 0.4590	 7.4290
 0.4600	 7.4200
 0.4610	 7.4200
 0.4620	 7.4220
 0.4630	 7.4140
 0.4640	 7.4060
 0.4650	 7.4110
 0.4660	 7.4200
 0.4670	 7.4130
 0.4680	 7.4170
 0.4690	 7.4140
 0.4700	 7.3950
 0.4710	 7.4070
 0.4720	 7.4140
 0.4730	 7.4060
 0.4740	 7.3970
 0.4750	 7.3980
 0.4760	 7.3990
 0.4770	 7.3960
 0.4780	 7.3940
 0.4790	 7.4050
 0.4800	 7.4160
 0.4810	 7.4100
 0.4820	 7.4040
 0.4830	 7.4050
 0.4840	 7.4070
 0.4850	 7.4030
 0.4860	 7.4090
 0.4870	 7.4190
 0.4880	 7.4280
 0.4890	 7.4380
 0.4900	 7.4430
 0.4910	 7.4480
 0.4920	 7.4620
 0.4930	 7.4730
 0.4940	 7.4890
 0.4950	 7.5120
 0.4960	 7.5300
 0.4970	 7.5480
 0.4980	 7.5710
 0.4990	 7.6010
 0.5000	 7.6380
 0.5010	 7.6750
 0.5020	 7.7110
 0.5030	 7.7530
 0.5040	 7.8070
 0.5050	 7.8740
 0.5060	 7.9500
 0.5070	 8.0180
 0.5080	 8.0960
 0.5090	 8.1890
 0.5100	 8.2970
 0.5110	 8.4220
 0.5120	 8.5550
 0.5130	 8.6970
 0.5140	 8.8540
 0.5150	 9.0330
 0.5160	 9.2280
 0.5170	 9.4330
 0.5180	 9.6570
 0.5190	 9.8910
 0.5200	10.1370
 0.5210	10.4000
 0.5220	10.6660
 0.5230	10.9270
 0.5240	11.1810
 0.5250	11.4460
 0.5260	11.7070
 0.5270	11.9580
 0.5280	12.2010
 0.5290	12.4360
 0.5300	12.6560
 0.5310	12.8590
 0.5320	13.0480
 0.5330	13.2260
 0.5340	13.3930
 0.5350	13.5480
 0.5360	13.6890
 0.5370	13.8170
 0.5380	13.9340
 0.5390	14.0410
 0.5400	14.1480
 0.5410	14.2510
 0.5420	14.3460
 0.5430	14.4320
 0.5440	14.5200
 0.5450	14.6060
 0.5460	14.6820
 0.5470	14.7470
 0.5480	14.8090
 0.5490	14.8700
 0.5500	14.9220
 0.5510	14.9580
 0.5520	14.9790
 0.5530	14.9870
 0.5540	14.9800
 0.5550	14.9560
 0.5560	14.9130
 0.5570	14.8560
 0.5580	14.7800
 0.5590	14.6880
 0.5600	14.5800
 0.5610	14.4540
 0.5620	14.3170
 0.5630	14.1720
 0.5640	14.0180
 0.5650	13.8510
 0.5660	13.6750
 0.5670	13.4930
 0.5680	13.3090
 0.5690	13.1140
 0.5700	12.9200
 0.5710	12.7360
 0.5720	12.5500
 0.5730	12.3730
 0.5740	12.2100
 0.5750	12.0580
 0.5760	11.9240
 0.5770	11.8030
 0.5780	11.6860
 0.5790	11.5750
 0.5800	11.4660
 0.5810	11.3610
 0.5820	11.2620
 0.5830	11.1750
 0.5840	11.0920
 0.5850	11.0120
 0.5860	10.9360
 0.5870	10.8630
 0.5880	10.7930
 0.5890	10.7290
 0.5900	10.6800
 0.5910	10.6400
 0.5920	10.6040
 0.5930	10.5720
 0.5940	10.5340
 0.5950	10.4960
 0.5960	10.4620
 0.5970	10.4290
 0.5980	10.3980
 0.5990	10.3670
 0.6000	10.3340
 0.6010	10.2920
 0.6020	10.2470
 0.6030	10.2010
 0.6040	10.1430
 0.6050	10.0840
 0.6060	10.0190
 0.6070	 9.9460
 0.6080	 9.8680
 0.6090	 9.7900
 0.6100	 9.7100
 0.6110	 9.6220
 0.6120	 9.5410
 0.6130	 9.4610
 0.6140	 9.3800
 0.6150	 9.3040
 0.6160	 9.2320
 0.6170	 9.1640
 0.6180	 9.1010
 0.6190	 9.0450
 0.6200	 8.9960
 0.6210	 8.9540
 0.6220	 8.9180
 0.6230	 8.8830
 0.6240	 8.8500
 0.6250	 8.8220
 0.6260	 8.8060
 0.6270	 8.7920
 0.6280	 8.7790
 0.6290	 8.7660
 0.6300	 8.7560
 0.6310	 8.7450
 0.6320	 8.7330
 0.6330	 8.7170
 0.6340	 8.6980
 0.6350	 8.6720
 0.6360	 8.6370
 0.6370	 8.5910
 0.6380	 8.5390
 0.6390	 8.4830
 0.6400	 8.4210
 0.6410	 8.3570
 0.6420	 8.2930
 0.6430	 8.2260
 0.6440	 8.1540
 0.6450	 8.0840
 0.6460	 8.0190
 0.6470	 7.9610
 0.6480	 7.9000
 0.6490	 7.8490
 0.6500	 7.8090
 0.6510	 7.7750
 0.6520	 7.7420
 0.6530	 7.7070
 0.6540	 7.6730
 0.6550	 7.6430
 0.6560	 7.6100
 0.6570	 7.5720
 0.6580	 7.5330
 0.6590	 7.4870
 0.6600	 7.4430
 0.6610	 7.4040
 0.6620	 7.3660
 0.6630	 7.3290
 0.6640	 7.2950
 0.6650	 7.2650
 0.6660	 7.2390
 0.6670	 7.2200
 0.6680	 7.2060
 0.6690	 7.1950
 0.6700	 7.1860
 0.6710	 7.1790
 0.6720	 7.1770
 0.6730	 7.1790
 0.6740	 7.1850
 0.6750	 7.1930
 0.6760	 7.2050
 0.6770	 7.2190
 0.6780	 7.2340
 0.6790	 7.2500
 0.6800	 7.2700
 0.6810	 7.2980
 0.6820	 7.3310
 0.6830	 7.3690
 0.6840	 7.4170
 0.6850	 7.4780
 0.6860	 7.5550
 0.6870	 7.6520
 0.6880	 7.7720
 0.6890	 7.9260
 0.6900	 8.1240
 0.6910	 8.3780
 0.6920	 8.6930
 0.6930	 9.0790
 0.6940	 9.5420
 0.6950	10.0860
 0.6960	10.7150
 0.6970	11.4270
 0.6980	12.2170
 0.6990	13.0760
 0.7000	14.0000
 0.7010	14.9810
 0.7020	16.0000
 0.7030	17.0520
 0.7040	18.1280
 0.7050	19.2190
 0.7060	20.3070
 0.7070	21.4040
 0.7080	22.5070
 0.7090	23.6070
 0.7100	24.7060
 0.7110	25.8020
 0.7120	26.8910
 0.7130	27.9700
 0.7140	29.0420
 0.7150	30.1050
 0.7160	31.1540
 0.7170	32.1840
 0.7180	33.1990
 0.7190	34.1950
 0.7200	35.1660
 0.7210	36.1260
 0.7220	37.0580
 0.7230	37.9560
 0.7240	38.8250
 0.7250	39.6670
 0.7260	40.4750
 0.7270	41.2450
 0.7280	41.9780
 0.7290	42.6800
 0.7300	43.3460
 0.7310	43.9720
 0.7320	44.5680
 0.7330	45.1320
 0.7340	45.6610
 0.7350	46.1590
 0.7360	46.6270
 0.7370	47.0670
 0.7380	47.4790
 0.7390	47.8560
 0.7400	48.2190
 0.7410	48.5600
 0.7420	48.8600
 0.7430	49.1490
 0.7440	49.4150
 0.7450	49.6570
 0.7460	49.8860
 0.7470	50.0930
 0.7480	50.2850
 0.7490	50.4660
 0.7500	50.6280
 0.7510	50.7750
 0.7520	50.9090
 0.7530	51.0350
 0.7540	51.1500
 0.7550	51.2530
 0.7560	51.3480
 0.7570	51.4350
 0.7580	51.5110
 0.7590	51.5800
 0.7600	51.6460
 0.7610	51.7060
 0.7620	51.7610
 0.7630	51.8140
 0.7640	51.8660
 0.7650	51.9100
 0.7660	51.9480
 0.7670	51.9820
 0.7680	52.0160
 0.7690	52.0440
 0.7700	52.0740
 0.7710	52.1060
 0.7720	52.1240
 0.7730	52.1450
 0.7740	52.1680
 0.7750	52.1900
 0.7760	52.2140
 0.7770	52.2350
 0.7780	52.2550
 0.7790	52.2750
 0.7800	52.2870
 0.7810	52.3020
 0.7820	52.3240
 0.7830	52.3430
 0.7840	52.3540
 0.7850	52.3620
 0.7860	52.3720
 0.7870	52.3820
 0.7880	52.3860
 0.7890	52.3930
 0.7900	52.4110
 0.7910	52.4200
 0.7920	52.4300
 0.7930	52.4400
 0.7940	52.4410
 0.7950	52.4490
 0.7960	52.4550
 0.7970	52.4570
 0.7980	52.4550
 0.7990	52.4570
 0.8000	52.4580
 0.8010	52.4540
 0.8020	52.4610
 0.8030	52.4640
 0.8040	52.4600
 0.8050	52.4530
 0.8060	52.4400
 0.8070	52.4320
 0.8080	52.4290
 0.8090	52.4260
 0.8100	52.4230
 0.8110	52.4160
 0.8120	52.4030
 0.8130	52.3940
 0.8140	52.3870
 0.8150	52.3760
 0.8160	52.3560
 0.8170	52.3430
 0.8180	52.3320
 0.8190	52.3230
 0.8200	52.3150
 0.8210	52.2970
 0.8220	52.2870
 0.8230	52.2840
 0.8240	52.2670
 0.8250	52.2580
 0.8260	52.2460
 0.8270	52.2250
 0.8280	52.2050
 0.8290	52.1960
 0.8300	52.1850
 0.8310	52.1610
 0.8320	52.1440
 0.8330	52.1410
 0.8340	52.1360
 0.8350	52.1160
 0.8360	52.1080
 0.8370	52.1060
 0.8380	52.1000
 0.8390	52.0840
 0.8400	52.0720
 0.8410	52.0630
 0.8420	52.0560
 0.8430	52.0520
 0.8440	52.0520
 0.8450	52.0520
 0.8460	52.0490
 0.8470	52.0400
 0.8480	52.0380
 0.8490	52.0410
 0.8500	52.0430
 0.8510	52.0370
 0.8520	52.0360
 0.8530	52.0390
 0.8540	52.0350
 0.8550	52.0300
 0.8560	52.0320
 0.8570	52.0350
 0.8580	52.0320
 0.8590	52.0310
 0.8600	52.0310
 0.8610	52.0320
 0.8620	52.0420
 0.8630	52.0460
 0.8640	52.0450
 0.8650	52.0450
 0.8660	52.0500
 0.8670	52.0580
 0.8680	52.0660
 0.8690	52.0710
 0.8700	52.0790
 0.8710	52.0790
 0.8720	52.0750
 0.8730	52.0790
 0.8740	52.0880
 0.8750	52.0950
 0.8760	52.1020
 0.8770	52.1130
 0.8780	52.1240
 0.8790	52.1300
 0.8800	52.1300
 0.8810	52.1360
 0.8820	52.1490
 0.8830	52.1610
 0.8840	52.1680
 0.8850	52.1710
 0.8860	52.1790
 0.8870	52.1930
 0.8880	52.2070
 0.8890	52.2090
 0.8900	52.2070
 0.8910	52.2090
 0.8920	52.2220
 0.8930	52.2290
 0.8940	52.2380
 0.8950	52.2480
 0.8960	52.2560
 0.8970	52.2650
 0.8980	52.2720
 0.8990	52.2750
 0.9000	52.2780
 0.9010	52.2860
 0.9020	52.2970
 0.9030	52.3070
 0.9040	52.3070
 0.9050	52.3090
 0.9060	52.3140
 0.9070	52.3180
 0.9080	52.3230
 0.9090	52.3340
 0.9100	52.3420
 0.9110	52.3440
 0.9120	52.3540
 0.9130	52.3560
 0.9140	52.3560
 0.9150	52.3620
 0.9160	52.3670
 0.9170	52.3740
 0.9180	52.3780
 0.9190	52.3720
 0.9200	52.3740
 0.9210	52.3780
 0.9220	52.3810
 0.9230	52.3740
 0.9240	52.3590
 0.9250	52.3430
 0.9260	52.3310
 0.9270	52.3250
 0.9280	52.3210
 0.9290	52.3120
 0.9300	52.2990
 0.9310	52.2890
 0.9320	52.2720
 0.9330	52.2550
 0.9340	52.2350
 0.9350	52.2060
 0.9360	52.1840
 0.9370	52.1600
 0.9380	52.1340
 0.9390	52.1120
 0.9400	52.1030
 0.9410	52.0820
 0.9420	52.0390
 0.9430	52.0060
 0.9440	51.9660
 0.9450	51.9250
 0.9460	51.8880
 0.9470	51.8400
 0.9480	51.7800
 0.9490	51.7210
 0.9500	51.6710
 0.9510	51.6260
 0.9520	51.5640
 0.9530	51.4910
 0.9540	51.4190
 0.9550	51.3560
 0.9560	51.2840
 0.9570	51.2160
 0.9580	51.1660
 0.9590	51.1140
 0.9600	51.0620
 0.9610	51.0100
 0.9620	50.9550
 0.9630	50.9040
 0.9640	50.8820
 0.9650	50.8670
 0.9660	50.8290
 0.9670	50.7960
 0.9680	50.7710
 0.9690	50.7540
 0.9700	50.7390
 0.9710	50.7240
 0.9720	50.7090
 0.9730	50.6950
 0.9740	50.6810
 0.9750	50.6600
 0.9760	50.6480
 0.9770	50.6490
 0.9780	50.6540
 0.9790	50.6240
 0.9800	50.6210
 0.9810	50.6330
 0.9820	50.6230
 0.9830	50.6470
 0.9840	50.6620
 0.9850	50.6590
 0.9860	50.6530
 0.9870	50.6570
 0.9880	50.6670
 0.9890	50.6880
 0.9900	50.7170
 0.9910	50.7150
 0.9920	50.7730
 0.9930	50.8310
 0.9940	50.8890
 0.9950	50.9460
 0.9960	51.0040
 0.9970	51.0620
 0.9980	51.1200
 0.9990	51.1770
 1.0000	51.2350
 1.0010	51.2930
 1.0020	51.3510
 1.0030	51.4080
 1.0040	51.4660
 1.0050	51.5240
 1.0060	51.5820
 1.0070	51.6390
 1.0080	51.6970
 1.0090	51.7550
 1.0100	51.7550
 1.0110	51.7710
 1.0120	51.7910
 1.0130	51.8090
 1.0140	51.8290
 1.0150	51.8510
 1.0160	51.8780
 1.0170	51.8980
 1.0180	51.9150
 1.0190	51.9350
 1.0200	51.9520
 1.0210	51.9680
 1.0220	51.9860
 1.0230	52.0060
 1.0240	52.0270
 1.0250	52.0460
 1.0260	52.0690
 1.0270	52.0870
 1.0280	52.1000
 1.0290	52.1150
 1.0300	52.1290
 1.0310	52.1470
 1.0320	52.1720
 1.0330	52.1910
 1.0340	52.2090
 1.0350	52.2240
 1.0360	52.2350
 1.0370	52.2440
 1.0380	52.2580
 1.0390	52.2750
 1.0400	52.2920
 1.0410	52.3120
 1.0420	52.3270
 1.0430	52.3410
 1.0440	52.3550
 1.0450	52.3650
 1.0460	52.3760
 1.0470	52.3860
 1.0480	52.3960
 1.0490	52.4050
 1.0500	52.4130
 1.0510	52.4190
 1.0520	52.4290
 1.0530	52.4360
 1.0540	52.4430
 1.0550	52.4510
 1.0560	52.4580
 1.0570	52.4660
 1.0580	52.4730
 1.0590	52.4800
 1.0600	52.4890
 1.0610	52.4950
 1.0620	52.5020
 1.0630	52.5050
 1.0640	52.5020
 1.0650	52.5030
 1.0660	52.4990
 1.0670	52.4990
 1.0680	52.5010
 1.0690	52.5080
 1.0700	52.5090
 1.0710	52.5100
 1.0720	52.5110
 1.0730	52.5090
 1.0740	52.5090
 1.0750	52.5130
 1.0760	52.5110
 1.0770	52.5070
 1.0780	52.5050
 1.0790	52.5010
 1.0800	52.4980
 1.0810	52.4970
 1.0820	52.4940
 1.0830	52.4880
 1.0840	52.4830
 1.0850	52.4780
 1.0860	52.4740
 1.0870	52.4710
 1.0880	52.4710
 1.0890	52.4650
 1.0900	52.4550
 1.0910	52.4480
 1.0920	52.4390
 1.0930	52.4310
 1.0940	52.4260
 1.0950	52.4170
 1.0960	52.4050
 1.0970	52.3940
 1.0980	52.3820
 1.0990	52.3720
 1.1000	52.3630
 1.1010	52.3540
 1.1020	52.3440
 1.1030	52.3360
 1.1040	52.3240
 1.1050	52.3120
 1.1060	52.2980
 1.1070	52.2820
 1.1080	52.2670
 1.1090	52.2520
 1.1100	52.2370
 1.1110	52.2240
 1.1120	52.2090
 1.1130	52.1940
 1.1140	52.1780
 1.1150	52.1610
 1.1160	52.1400
 1.1170	52.1190
 1.1180	52.0950
 1.1190	52.0680
 1.1200	52.0370
 1.1210	52.0050
 1.1220	51.9700
 1.1230	51.9290
 1.1240	51.8850
 1.1250	51.8350
 1.1260	51.7790
 1.1270	51.7180
 1.1280	51.6550
 1.1290	51.5840
 1.1300	51.5100
 1.1310	51.4260
 1.1320	51.3350
 1.1330	51.2360
 1.1340	51.1270
 1.1350	51.0150
 1.1360	50.8970
 1.1370	50.7730
 1.1380	50.6440
 1.1390	50.5100
 1.1400	50.3660
 1.1410	50.2200
 1.1420	50.0720
 1.1430	49.9240
 1.1440	49.7780
 1.1450	49.6310
 1.1460	49.4880
 1.1470	49.3450
 1.1480	49.2090
 1.1490	49.0740
 1.1500	48.9490
 1.1510	48.8300
 1.1520	48.7190
 1.1530	48.6160
 1.1540	48.5210
 1.1550	48.4310
 1.1560	48.3500
 1.1570	48.2760
 1.1580	48.2110
 1.1590	48.1540
 1.1600	48.1020
 1.1610	48.0580
 1.1620	48.0210
 1.1630	47.9850
 1.1640	47.9540
 1.1650	47.9250
 1.1660	47.8990
 1.1670	47.8760
 1.1680	47.8580
 1.1690	47.8380
 1.1700	47.8200
 1.1710	47.8020
 1.1720	47.7830
 1.1730	47.7660
 1.1740	47.7520
 1.1750	47.7360
 1.1760	47.7180
 1.1770	47.7010
 1.1780	47.6800
 1.1790	47.6580
 1.1800	47.6380
 1.1810	47.6160
 1.1820	47.5970
 1.1830	47.5790
 1.1840	47.5610
 1.1850	47.5420
 1.1860	47.5220
 1.1870	47.5040
 1.1880	47.4880
 1.1890	47.4740
 1.1900	47.4610
 1.1910	47.4500
 1.1920	47.4400
 1.1930	47.4320
 1.1940	47.4260
 1.1950	47.4200
 1.1960	47.4180
 1.1970	47.4180
 1.1980	47.4190
 1.1990	47.4230
 1.2000	47.4280
 1.2010	47.4360
 1.2020	47.4440
 1.2030	47.4550
 1.2040	47.4660
 1.2050	47.4760
 1.2060	47.4880
 1.2070	47.5030
 1.2080	47.5200
 1.2090	47.5400
 1.2100	47.5620
 1.2110	47.5850
 1.2120	47.6080
 1.2130	47.6330
 1.2140	47.6600
 1.2150	47.6870
 1.2160	47.7150
 1.2170	47.7440
 1.2180	47.7770
 1.2190	47.8100
 1.2200	47.8410
 1.2210	47.8730
 1.2220	47.9030
 1.2230	47.9300
 1.2240	47.9590
 1.2250	47.9880
 1.2260	48.0160
 1.2270	48.0430
 1.2280	48.0680
 1.2290	48.0940
 1.2300	48.1210
 1.2310	48.1460
 1.2320	48.1690
 1.2330	48.1920
 1.2340	48.2150
 1.2350	48.2340
 1.2360	48.2550
 1.2370	48.2750
 1.2380	48.2940
 1.2390	48.3120
 1.2400	48.3300
 1.2410	48.3500
 1.2420	48.3670
 1.2430	48.3840
 1.2440	48.4030
 1.2450	48.4180
 1.2460	48.4320
 1.2470	48.4450
 1.2480	48.4540
 1.2490	48.4640
 1.2500	48.4740
 1.2510	48.4850
 1.2520	48.4960
 1.2530	48.5070
 1.2540	48.5180
 1.2550	48.5270
 1.2560	48.5380
 1.2570	48.5460
 1.2580	48.5510
 1.2590	48.5560
 1.2600	48.5590
 1.2610	48.5610
 1.2620	48.5610
 1.2630	48.5630
 1.2640	48.5630
 1.2650	48.5630
 1.2660	48.5610
 1.2670	48.5570
 1.2680	48.5530
 1.2690	48.5480
 1.2700	48.5420
 1.2710	48.5350
 1.2720	48.5280
 1.2730	48.5200
 1.2740	48.5110
 1.2750	48.5020
 1.2760	48.4900
 1.2770	48.4770
 1.2780	48.4620
 1.2790	48.4440
 1.2800	48.4260
 1.2810	48.4050
 1.2820	48.3840
 1.2830	48.3620
 1.2840	48.3370
 1.2850	48.3120
 1.2860	48.2880
 1.2870	48.2590
 1.2880	48.2280
 1.2890	48.1960
 1.2900	48.1580
 1.2910	48.1160
 1.2920	48.0760
 1.2930	48.0340
 1.2940	47.9890
 1.2950	47.9430
 1.2960	47.8950
 1.2970	47.8430
 1.2980	47.7910
 1.2990	47.7360
 1.3000	47.6760
 1.3010	47.6130
 1.3020	47.5470
 1.3030	47.4790
 1.3040	47.4070
 1.3050	47.3330
 1.3060	47.2590
 1.3070	47.1810
 1.3080	47.0990
 1.3090	47.0160
 1.3100	46.9300
 1.3110	46.8390
 1.3120	46.7450
 1.3130	46.6500
 1.3140	46.5500
 1.3150	46.4470
 1.3160	46.3430
 1.3170	46.2380
 1.3180	46.1270
 1.3190	46.0130
 1.3200	45.8930
 1.3210	45.7680
 1.3220	45.6410
 1.3230	45.5120
 1.3240	45.3800
 1.3250	45.2470
 1.3260	45.1120
 1.3270	44.9750
 1.3280	44.8360
 1.3290	44.6930
 1.3300	44.5490
 1.3310	44.4040
 1.3320	44.2540
 1.3330	44.1050
 1.3340	43.9540
 1.3350	43.8010
 1.3360	43.6500
 1.3370	43.4970
 1.3380	43.3420
 1.3390	43.1890
 1.3400	43.0350
 1.3410	42.8820
 1.3420	42.7330
 1.3430	42.5870
 1.3440	42.4390
 1.3450	42.2940
 1.3460	42.1500
 1.3470	42.0050
 1.3480	41.8600
 1.3490	41.7180
 1.3500	41.5770
 1.3510	41.4370
 1.3520	41.2990
 1.3530	41.1620
 1.3540	41.0230
 1.3550	40.8840
 1.3560	40.7440
 1.3570	40.6030
 1.3580	40.4610
 1.3590	40.3170
 1.3600	40.1700
 1.3610	40.0200
 1.3620	39.8630
 1.3630	39.7030
 1.3640	39.5360
 1.3650	39.3590
 1.3660	39.1750
 1.3670	38.9810
 1.3680	38.7760
 1.3690	38.5590
 1.3700	38.3270
 1.3710	38.0830
 1.3720	37.8220
 1.3730	37.5410
 1.3740	37.2460
 1.3750	36.9280
 1.3760	36.5880
 1.3770	36.2270
 1.3780	35.8360
 1.3790	35.4240
 1.3800	34.9870
 1.3810	34.5230
 1.3820	34.0420
 1.3830	33.5400
 1.3840	33.0190
 1.3850	32.4780
 1.3860	31.9230
 1.3870	31.3460
 1.3880	30.7660
 1.3890	30.1740
 1.3900	29.5720
 1.3910	28.9710
 1.3920	28.3650
 1.3930	27.7570
 1.3940	27.1540
 1.3950	26.5510
 1.3960	25.9580
 1.3970	25.3770
 1.3980	24.8090
 1.3990	24.2650
 1.4000	23.7370
 1.4010	23.2250
 1.4020	22.7360
 1.4030	22.2650
 1.4040	21.8150
 1.4050	21.3910
 1.4060	20.9880
 1.4070	20.6120
 1.4080	20.2570
 1.4090	19.9230
 1.4100	19.6130
 1.4110	19.3210
 1.4120	19.0510
 1.4130	18.8000
 1.4140	18.5670
 1.4150	18.3530
 1.4160	18.1560
 1.4170	17.9740
 1.4180	17.8080
 1.4190	17.6530
 1.4200	17.5100
 1.4210	17.3800
 1.4220	17.2600
 1.4230	17.1530
 1.4240	17.0550
 1.4250	16.9640
 1.4260	16.8830
 1.4270	16.8090
 1.4280	16.7430
 1.4290	16.6830
 1.4300	16.6320
 1.4310	16.5860
 1.4320	16.5480
 1.4330	16.5140
 1.4340	16.4860
 1.4350	16.4610
 1.4360	16.4420
 1.4370	16.4260
 1.4380	16.4150
 1.4390	16.4080
 1.4400	16.4050
 1.4410	16.4050
 1.4420	16.4070
 1.4430	16.4120
 1.4440	16.4200
 1.4450	16.4290
 1.4460	16.4410
 1.4470	16.4560
 1.4480	16.4710
 1.4490	16.4880
 1.4500	16.5060
 1.4510	16.5260
 1.4520	16.5470
 1.4530	16.5700
 1.4540	16.5940
 1.4550	16.6220
 1.4560	16.6510
 1.4570	16.6840
 1.4580	16.7200
 1.4590	16.7580
 1.4600	16.7990
 1.4610	16.8440
 1.4620	16.8930
 1.4630	16.9470
 1.4640	17.0040
 1.4650	17.0690
 1.4660	17.1360
 1.4670	17.2080
 1.4680	17.2860
 1.4690	17.3680
