Name: Baccharis pilularis 3
Type: vegetation
Class: Shrub
Genus: Baccharis
Species: pilularis
Sample No.: VH233
Owner: UCSB
Wavelength Range: VSWIR
Origin: 34.5088; -119.7683; WGS84
Collection Date: 10/13/2013
Description: Samples were collected as part of the HyspIRI Airborne Campaign. 48 individual plants were sampled in three times in 2013 - spring  summer  and fall. The name of the sample includes a 1  2  or 3 which references a different individual of the species. Samples were taken to JPL and processed within 48 hours of collection. The same leaves were processed in the Nicolet and then measured using the ASD.
Measurement: Bidirectional reflectance
First Column: X
Second Column: Y
X Units: Wavelength (micrometers)
Y Units: Reflectance (percentage)
First X Value: 0.35
Last X Value: 2.5
Number of X Values: 2151
Additional Information: vegetation.shrub.baccharis.pilularis.vswir.vh233.ucsb.asd.ancillary.txt

 0.3500	 6.5940
 0.3510	 6.5490
 0.3520	 6.4760
 0.3530	 6.4400
 0.3540	 6.4840
 0.3550	 6.4090
 0.3560	 6.2640
 0.3570	 6.1890
 0.3580	 6.3220
 0.3590	 6.3480
 0.3600	 6.3800
 0.3610	 6.4330
 0.3620	 6.3220
 0.3630	 6.3320
 0.3640	 6.3960
 0.3650	 6.3990
 0.3660	 6.4020
 0.3670	 6.3430
 0.3680	 6.3020
 0.3690	 6.4170
 0.3700	 6.3170
 0.3710	 6.2820
 0.3720	 6.3860
 0.3730	 6.1470
 0.3740	 6.1240
 0.3750	 6.2690
 0.3760	 6.3590
 0.3770	 6.3980
 0.3780	 6.3300
 0.3790	 6.2180
 0.3800	 6.2150
 0.3810	 6.2460
 0.3820	 6.2500
 0.3830	 6.2230
 0.3840	 6.2810
 0.3850	 6.3260
 0.3860	 6.3080
 0.3870	 6.2280
 0.3880	 6.2530
 0.3890	 6.2790
 0.3900	 6.2650
 0.3910	 6.2580
 0.3920	 6.1820
 0.3930	 6.1810
 0.3940	 6.3080
 0.3950	 6.2840
 0.3960	 6.2340
 0.3970	 6.2010
 0.3980	 6.1940
 0.3990	 6.2410
 0.4000	 6.2840
 0.4010	 6.2910
 0.4020	 6.2890
 0.4030	 6.2100
 0.4040	 6.1750
 0.4050	 6.2700
 0.4060	 6.3230
 0.4070	 6.3030
 0.4080	 6.2560
 0.4090	 6.2620
 0.4100	 6.2470
 0.4110	 6.2640
 0.4120	 6.3150
 0.4130	 6.2820
 0.4140	 6.2730
 0.4150	 6.2840
 0.4160	 6.2860
 0.4170	 6.3100
 0.4180	 6.3190
 0.4190	 6.3160
 0.4200	 6.3400
 0.4210	 6.3400
 0.4220	 6.3420
 0.4230	 6.3650
 0.4240	 6.3580
 0.4250	 6.3550
 0.4260	 6.3630
 0.4270	 6.3800
 0.4280	 6.3970
 0.4290	 6.4250
 0.4300	 6.4560
 0.4310	 6.4480
 0.4320	 6.4480
 0.4330	 6.4700
 0.4340	 6.5070
 0.4350	 6.5060
 0.4360	 6.4990
 0.4370	 6.5020
 0.4380	 6.5200
 0.4390	 6.5420
 0.4400	 6.5630
 0.4410	 6.5760
 0.4420	 6.5590
 0.4430	 6.5670
 0.4440	 6.5920
 0.4450	 6.6010
 0.4460	 6.6010
 0.4470	 6.6110
 0.4480	 6.6310
 0.4490	 6.6360
 0.4500	 6.6590
 0.4510	 6.6810
 0.4520	 6.6830
 0.4530	 6.6890
 0.4540	 6.7040
 0.4550	 6.7200
 0.4560	 6.7180
 0.4570	 6.7210
 0.4580	 6.7360
 0.4590	 6.7560
 0.4600	 6.7610
 0.4610	 6.7730
 0.4620	 6.7910
 0.4630	 6.8070
 0.4640	 6.8040
 0.4650	 6.8050
 0.4660	 6.8130
 0.4670	 6.8140
 0.4680	 6.8220
 0.4690	 6.8310
 0.4700	 6.8380
 0.4710	 6.8460
 0.4720	 6.8540
 0.4730	 6.8630
 0.4740	 6.8750
 0.4750	 6.8870
 0.4760	 6.8770
 0.4770	 6.8510
 0.4780	 6.8660
 0.4790	 6.8990
 0.4800	 6.9150
 0.4810	 6.8950
 0.4820	 6.8850
 0.4830	 6.9010
 0.4840	 6.9290
 0.4850	 6.9280
 0.4860	 6.9360
 0.4870	 6.9470
 0.4880	 6.9550
 0.4890	 6.9630
 0.4900	 6.9820
 0.4910	 7.0080
 0.4920	 7.0310
 0.4930	 7.0460
 0.4940	 7.0640
 0.4950	 7.0900
 0.4960	 7.1210
 0.4970	 7.1410
 0.4980	 7.1700
 0.4990	 7.2260
 0.5000	 7.2740
 0.5010	 7.3130
 0.5020	 7.3540
 0.5030	 7.4120
 0.5040	 7.4800
 0.5050	 7.5570
 0.5060	 7.6410
 0.5070	 7.7240
 0.5080	 7.8270
 0.5090	 7.9440
 0.5100	 8.0630
 0.5110	 8.2030
 0.5120	 8.3600
 0.5130	 8.5240
 0.5140	 8.6840
 0.5150	 8.8780
 0.5160	 9.0930
 0.5170	 9.3110
 0.5180	 9.5340
 0.5190	 9.7730
 0.5200	10.0260
 0.5210	10.2860
 0.5220	10.5560
 0.5230	10.8270
 0.5240	11.0920
 0.5250	11.3570
 0.5260	11.6160
 0.5270	11.8700
 0.5280	12.1250
 0.5290	12.3710
 0.5300	12.6070
 0.5310	12.8350
 0.5320	13.0550
 0.5330	13.2580
 0.5340	13.4510
 0.5350	13.6430
 0.5360	13.8210
 0.5370	13.9870
 0.5380	14.1450
 0.5390	14.2990
 0.5400	14.4460
 0.5410	14.5850
 0.5420	14.7170
 0.5430	14.8450
 0.5440	14.9810
 0.5450	15.1170
 0.5460	15.2390
 0.5470	15.3420
 0.5480	15.4440
 0.5490	15.5450
 0.5500	15.6280
 0.5510	15.7010
 0.5520	15.7570
 0.5530	15.7870
 0.5540	15.8100
 0.5550	15.8150
 0.5560	15.8000
 0.5570	15.7670
 0.5580	15.7150
 0.5590	15.6520
 0.5600	15.5820
 0.5610	15.4960
 0.5620	15.3980
 0.5630	15.2920
 0.5640	15.1830
 0.5650	15.0560
 0.5660	14.9140
 0.5670	14.7640
 0.5680	14.6180
 0.5690	14.4600
 0.5700	14.2940
 0.5710	14.1250
 0.5720	13.9570
 0.5730	13.7940
 0.5740	13.6430
 0.5750	13.5090
 0.5760	13.3820
 0.5770	13.2620
 0.5780	13.1530
 0.5790	13.0560
 0.5800	12.9640
 0.5810	12.8710
 0.5820	12.7770
 0.5830	12.6740
 0.5840	12.5720
 0.5850	12.4730
 0.5860	12.3710
 0.5870	12.2870
 0.5880	12.2220
 0.5890	12.1700
 0.5900	12.1310
 0.5910	12.0980
 0.5920	12.0690
 0.5930	12.0420
 0.5940	12.0150
 0.5950	11.9840
 0.5960	11.9490
 0.5970	11.9190
 0.5980	11.8850
 0.5990	11.8420
 0.6000	11.7930
 0.6010	11.7410
 0.6020	11.6870
 0.6030	11.6280
 0.6040	11.5570
 0.6050	11.4770
 0.6060	11.3930
 0.6070	11.3060
 0.6080	11.2130
 0.6090	11.1030
 0.6100	10.9900
 0.6110	10.8940
 0.6120	10.7900
 0.6130	10.6900
 0.6140	10.5970
 0.6150	10.5050
 0.6160	10.4140
 0.6170	10.3310
 0.6180	10.2580
 0.6190	10.1930
 0.6200	10.1330
 0.6210	10.0800
 0.6220	10.0330
 0.6230	 9.9960
 0.6240	 9.9660
 0.6250	 9.9410
 0.6260	 9.9180
 0.6270	 9.9000
 0.6280	 9.8910
 0.6290	 9.8920
 0.6300	 9.8950
 0.6310	 9.8920
 0.6320	 9.8810
 0.6330	 9.8680
 0.6340	 9.8560
 0.6350	 9.8330
 0.6360	 9.7920
 0.6370	 9.7390
 0.6380	 9.6760
 0.6390	 9.6060
 0.6400	 9.5300
 0.6410	 9.4360
 0.6420	 9.3350
 0.6430	 9.2310
 0.6440	 9.1180
 0.6450	 9.0040
 0.6460	 8.8950
 0.6470	 8.7930
 0.6480	 8.6990
 0.6490	 8.6110
 0.6500	 8.5280
 0.6510	 8.4530
 0.6520	 8.3890
 0.6530	 8.3320
 0.6540	 8.2740
 0.6550	 8.2070
 0.6560	 8.1370
 0.6570	 8.0670
 0.6580	 7.9950
 0.6590	 7.9100
 0.6600	 7.8250
 0.6610	 7.7510
 0.6620	 7.6840
 0.6630	 7.6170
 0.6640	 7.5540
 0.6650	 7.4990
 0.6660	 7.4500
 0.6670	 7.4150
 0.6680	 7.3900
 0.6690	 7.3670
 0.6700	 7.3520
 0.6710	 7.3380
 0.6720	 7.3270
 0.6730	 7.3320
 0.6740	 7.3430
 0.6750	 7.3530
 0.6760	 7.3640
 0.6770	 7.3840
 0.6780	 7.4100
 0.6790	 7.4380
 0.6800	 7.4690
 0.6810	 7.5090
 0.6820	 7.5630
 0.6830	 7.6290
 0.6840	 7.7080
 0.6850	 7.8050
 0.6860	 7.9350
 0.6870	 8.1100
 0.6880	 8.3240
 0.6890	 8.5900
 0.6900	 8.9240
 0.6910	 9.3520
 0.6920	 9.8650
 0.6930	10.4710
 0.6940	11.1790
 0.6950	12.0010
 0.6960	12.9250
 0.6970	13.9520
 0.6980	15.0830
 0.6990	16.2860
 0.7000	17.5660
 0.7010	18.9100
 0.7020	20.2910
 0.7030	21.7020
 0.7040	23.1340
 0.7050	24.5740
 0.7060	26.0010
 0.7070	27.4110
 0.7080	28.7980
 0.7090	30.1620
 0.7100	31.5080
 0.7110	32.8160
 0.7120	34.0820
 0.7130	35.3200
 0.7140	36.5170
 0.7150	37.6730
 0.7160	38.7910
 0.7170	39.8740
 0.7180	40.9090
 0.7190	41.8950
 0.7200	42.8410
 0.7210	43.7470
 0.7220	44.6160
 0.7230	45.4470
 0.7240	46.2340
 0.7250	46.9860
 0.7260	47.6920
 0.7270	48.3470
 0.7280	48.9740
 0.7290	49.5590
 0.7300	50.1100
 0.7310	50.6340
 0.7320	51.1150
 0.7330	51.5660
 0.7340	51.9920
 0.7350	52.3900
 0.7360	52.7770
 0.7370	53.1330
 0.7380	53.4500
 0.7390	53.7500
 0.7400	54.0450
 0.7410	54.3180
 0.7420	54.5520
 0.7430	54.7920
 0.7440	55.0030
 0.7450	55.1850
 0.7460	55.3740
 0.7470	55.5570
 0.7480	55.7200
 0.7490	55.8600
 0.7500	55.9860
 0.7510	56.0960
 0.7520	56.2040
 0.7530	56.3160
 0.7540	56.4080
 0.7550	56.4930
 0.7560	56.5710
 0.7570	56.6390
 0.7580	56.7040
 0.7590	56.7700
 0.7600	56.8310
 0.7610	56.8640
 0.7620	56.9130
 0.7630	56.9580
 0.7640	56.9760
 0.7650	57.0180
 0.7660	57.0550
 0.7670	57.0800
 0.7680	57.1010
 0.7690	57.1310
 0.7700	57.1500
 0.7710	57.1590
 0.7720	57.1840
 0.7730	57.2040
 0.7740	57.2200
 0.7750	57.2360
 0.7760	57.2490
 0.7770	57.2490
 0.7780	57.2510
 0.7790	57.2760
 0.7800	57.2970
 0.7810	57.3000
 0.7820	57.2960
 0.7830	57.3190
 0.7840	57.3360
 0.7850	57.3460
 0.7860	57.3550
 0.7870	57.3630
 0.7880	57.3720
 0.7890	57.3810
 0.7900	57.3870
 0.7910	57.3880
 0.7920	57.3970
 0.7930	57.4180
 0.7940	57.4420
 0.7950	57.4410
 0.7960	57.4450
 0.7970	57.4650
 0.7980	57.4730
 0.7990	57.4900
 0.8000	57.5080
 0.8010	57.5200
 0.8020	57.5190
 0.8030	57.5410
 0.8040	57.5620
 0.8050	57.5520
 0.8060	57.5660
 0.8070	57.5930
 0.8080	57.6180
 0.8090	57.6260
 0.8100	57.6330
 0.8110	57.6570
 0.8120	57.6890
 0.8130	57.6870
 0.8140	57.6930
 0.8150	57.7050
 0.8160	57.7180
 0.8170	57.7430
 0.8180	57.7710
 0.8190	57.7890
 0.8200	57.7890
 0.8210	57.8070
 0.8220	57.8350
 0.8230	57.8590
 0.8240	57.8680
 0.8250	57.8830
 0.8260	57.8920
 0.8270	57.8940
 0.8280	57.9150
 0.8290	57.9350
 0.8300	57.9500
 0.8310	57.9580
 0.8320	57.9590
 0.8330	58.0000
 0.8340	58.0400
 0.8350	58.0220
 0.8360	58.0270
 0.8370	58.0490
 0.8380	58.0690
 0.8390	58.0690
 0.8400	58.0950
 0.8410	58.1220
 0.8420	58.1300
 0.8430	58.1230
 0.8440	58.1330
 0.8450	58.1630
 0.8460	58.2020
 0.8470	58.2110
 0.8480	58.2310
 0.8490	58.2520
 0.8500	58.2570
 0.8510	58.2620
 0.8520	58.2740
 0.8530	58.2900
 0.8540	58.3070
 0.8550	58.3190
 0.8560	58.3230
 0.8570	58.3250
 0.8580	58.3450
 0.8590	58.3550
 0.8600	58.3600
 0.8610	58.3650
 0.8620	58.3640
 0.8630	58.3760
 0.8640	58.3830
 0.8650	58.3760
 0.8660	58.3860
 0.8670	58.3770
 0.8680	58.3730
 0.8690	58.4030
 0.8700	58.4050
 0.8710	58.3920
 0.8720	58.3870
 0.8730	58.4090
 0.8740	58.4160
 0.8750	58.4200
 0.8760	58.4260
 0.8770	58.4290
 0.8780	58.4280
 0.8790	58.4330
 0.8800	58.4380
 0.8810	58.4220
 0.8820	58.3950
 0.8830	58.3830
 0.8840	58.3970
 0.8850	58.4000
 0.8860	58.4020
 0.8870	58.4010
 0.8880	58.3970
 0.8890	58.3970
 0.8900	58.3850
 0.8910	58.3750
 0.8920	58.3860
 0.8930	58.3730
 0.8940	58.3600
 0.8950	58.3550
 0.8960	58.3550
 0.8970	58.3230
 0.8980	58.2930
 0.8990	58.2860
 0.9000	58.3000
 0.9010	58.2860
 0.9020	58.2590
 0.9030	58.2360
 0.9040	58.2230
 0.9050	58.2330
 0.9060	58.2420
 0.9070	58.2270
 0.9080	58.1840
 0.9090	58.1890
 0.9100	58.1940
 0.9110	58.1620
 0.9120	58.1520
 0.9130	58.1340
 0.9140	58.1330
 0.9150	58.1630
 0.9160	58.1520
 0.9170	58.1140
 0.9180	58.0850
 0.9190	58.0870
 0.9200	58.0580
 0.9210	58.0330
 0.9220	58.0200
 0.9230	58.0080
 0.9240	58.0060
 0.9250	57.9840
 0.9260	57.9460
 0.9270	57.9200
 0.9280	57.9330
 0.9290	57.9260
 0.9300	57.8840
 0.9310	57.8420
 0.9320	57.8140
 0.9330	57.8010
 0.9340	57.7820
 0.9350	57.7270
 0.9360	57.7050
 0.9370	57.7100
 0.9380	57.7070
 0.9390	57.6490
 0.9400	57.6040
 0.9410	57.5730
 0.9420	57.5440
 0.9430	57.5100
 0.9440	57.4630
 0.9450	57.4290
 0.9460	57.4070
 0.9470	57.3370
 0.9480	57.2750
 0.9490	57.2250
 0.9500	57.1750
 0.9510	57.0910
 0.9520	56.9930
 0.9530	56.9070
 0.9540	56.8450
 0.9550	56.7910
 0.9560	56.7120
 0.9570	56.6350
 0.9580	56.5830
 0.9590	56.5000
 0.9600	56.4290
 0.9610	56.3800
 0.9620	56.3390
 0.9630	56.2910
 0.9640	56.2500
 0.9650	56.2030
 0.9660	56.1360
 0.9670	56.0780
 0.9680	56.0850
 0.9690	56.1010
 0.9700	56.0530
 0.9710	56.0470
 0.9720	56.0330
 0.9730	56.0100
 0.9740	56.0010
 0.9750	56.0400
 0.9760	56.0350
 0.9770	56.0160
 0.9780	56.0460
 0.9790	56.0390
 0.9800	56.0300
 0.9810	56.0380
 0.9820	56.0600
 0.9830	56.0560
 0.9840	56.0590
 0.9850	56.0780
 0.9860	56.1040
 0.9870	56.1300
 0.9880	56.1330
 0.9890	56.1630
 0.9900	56.2610
 0.9910	56.2810
 0.9920	56.3210
 0.9930	56.3610
 0.9940	56.4010
 0.9950	56.4410
 0.9960	56.4810
 0.9970	56.5210
 0.9980	56.5610
 0.9990	56.6010
 1.0000	56.6410
 1.0010	56.6810
 1.0020	56.7210
 1.0030	56.7610
 1.0040	56.8010
 1.0050	56.8410
 1.0060	56.8810
 1.0070	56.9210
 1.0080	56.9610
 1.0090	57.0010
 1.0100	57.0010
 1.0110	57.0330
 1.0120	57.0650
 1.0130	57.1000
 1.0140	57.1360
 1.0150	57.1690
 1.0160	57.1960
 1.0170	57.2410
 1.0180	57.2770
 1.0190	57.3060
 1.0200	57.3340
 1.0210	57.3540
 1.0220	57.3840
 1.0230	57.4130
 1.0240	57.4450
 1.0250	57.4750
 1.0260	57.5080
 1.0270	57.5370
 1.0280	57.5620
 1.0290	57.5910
 1.0300	57.6230
 1.0310	57.6500
 1.0320	57.6720
 1.0330	57.7140
 1.0340	57.7300
 1.0350	57.7360
 1.0360	57.7600
 1.0370	57.7700
 1.0380	57.7850
 1.0390	57.8090
 1.0400	57.8270
 1.0410	57.8370
 1.0420	57.8580
 1.0430	57.8940
 1.0440	57.9150
 1.0450	57.9320
 1.0460	57.9490
 1.0470	57.9590
 1.0480	57.9690
 1.0490	57.9820
 1.0500	57.9920
 1.0510	57.9930
 1.0520	58.0030
 1.0530	58.0170
 1.0540	58.0350
 1.0550	58.0520
 1.0560	58.0780
 1.0570	58.0910
 1.0580	58.0910
 1.0590	58.1060
 1.0600	58.1300
 1.0610	58.1410
 1.0620	58.1540
 1.0630	58.1620
 1.0640	58.1480
 1.0650	58.1460
 1.0660	58.1530
 1.0670	58.1570
 1.0680	58.1610
 1.0690	58.1660
 1.0700	58.1710
 1.0710	58.1780
 1.0720	58.1760
 1.0730	58.1670
 1.0740	58.1660
 1.0750	58.1580
 1.0760	58.1570
 1.0770	58.1680
 1.0780	58.1720
 1.0790	58.1760
 1.0800	58.1740
 1.0810	58.1690
 1.0820	58.1620
 1.0830	58.1510
 1.0840	58.1390
 1.0850	58.1320
 1.0860	58.1140
 1.0870	58.1020
 1.0880	58.0870
 1.0890	58.0790
 1.0900	58.0780
 1.0910	58.0710
 1.0920	58.0680
 1.0930	58.0580
 1.0940	58.0410
 1.0950	58.0260
 1.0960	58.0090
 1.0970	57.9920
 1.0980	57.9750
 1.0990	57.9580
 1.1000	57.9410
 1.1010	57.9220
 1.1020	57.8980
 1.1030	57.8800
 1.1040	57.8630
 1.1050	57.8410
 1.1060	57.8180
 1.1070	57.7980
 1.1080	57.7660
 1.1090	57.7240
 1.1100	57.6910
 1.1110	57.6590
 1.1120	57.6230
 1.1130	57.5910
 1.1140	57.5530
 1.1150	57.5110
 1.1160	57.4680
 1.1170	57.4220
 1.1180	57.3780
 1.1190	57.3350
 1.1200	57.2860
 1.1210	57.2410
 1.1220	57.1940
 1.1230	57.1350
 1.1240	57.0690
 1.1250	56.9950
 1.1260	56.9150
 1.1270	56.8240
 1.1280	56.7250
 1.1290	56.6190
 1.1300	56.5020
 1.1310	56.3830
 1.1320	56.2620
 1.1330	56.1300
 1.1340	55.9890
 1.1350	55.8450
 1.1360	55.6950
 1.1370	55.5390
 1.1380	55.3810
 1.1390	55.2190
 1.1400	55.0470
 1.1410	54.8700
 1.1420	54.6890
 1.1430	54.5060
 1.1440	54.3250
 1.1450	54.1430
 1.1460	53.9620
 1.1470	53.7780
 1.1480	53.6020
 1.1490	53.4250
 1.1500	53.2600
 1.1510	53.0990
 1.1520	52.9500
 1.1530	52.8100
 1.1540	52.6830
 1.1550	52.5690
 1.1560	52.4660
 1.1570	52.3690
 1.1580	52.2760
 1.1590	52.1880
 1.1600	52.1110
 1.1610	52.0510
 1.1620	51.9970
 1.1630	51.9490
 1.1640	51.9050
 1.1650	51.8650
 1.1660	51.8280
 1.1670	51.7990
 1.1680	51.7820
 1.1690	51.7600
 1.1700	51.7420
 1.1710	51.7220
 1.1720	51.6990
 1.1730	51.6780
 1.1740	51.6590
 1.1750	51.6350
 1.1760	51.6100
 1.1770	51.5880
 1.1780	51.5640
 1.1790	51.5420
 1.1800	51.5170
 1.1810	51.4860
 1.1820	51.4560
 1.1830	51.4250
 1.1840	51.3900
 1.1850	51.3610
 1.1860	51.3330
 1.1870	51.3080
 1.1880	51.2830
 1.1890	51.2630
 1.1900	51.2420
 1.1910	51.2170
 1.1920	51.1990
 1.1930	51.1850
 1.1940	51.1740
 1.1950	51.1690
 1.1960	51.1630
 1.1970	51.1590
 1.1980	51.1620
 1.1990	51.1650
 1.2000	51.1700
 1.2010	51.1780
 1.2020	51.1840
 1.2030	51.1890
 1.2040	51.2010
 1.2050	51.2210
 1.2060	51.2490
 1.2070	51.2790
 1.2080	51.3090
 1.2090	51.3450
 1.2100	51.3840
 1.2110	51.4260
 1.2120	51.4750
 1.2130	51.5220
 1.2140	51.5650
 1.2150	51.6180
 1.2160	51.6770
 1.2170	51.7330
 1.2180	51.7950
 1.2190	51.8560
 1.2200	51.9110
 1.2210	51.9740
 1.2220	52.0360
 1.2230	52.0970
 1.2240	52.1610
 1.2250	52.2150
 1.2260	52.2710
 1.2270	52.3350
 1.2280	52.3980
 1.2290	52.4580
 1.2300	52.5130
 1.2310	52.5620
 1.2320	52.6090
 1.2330	52.6530
 1.2340	52.6990
 1.2350	52.7500
 1.2360	52.7900
 1.2370	52.8210
 1.2380	52.8570
 1.2390	52.8910
 1.2400	52.9200
 1.2410	52.9570
 1.2420	52.9940
 1.2430	53.0220
 1.2440	53.0540
 1.2450	53.0860
 1.2460	53.1130
 1.2470	53.1430
 1.2480	53.1710
 1.2490	53.1950
 1.2500	53.2190
 1.2510	53.2410
 1.2520	53.2620
 1.2530	53.2800
 1.2540	53.2950
 1.2550	53.3080
 1.2560	53.3200
 1.2570	53.3320
 1.2580	53.3410
 1.2590	53.3490
 1.2600	53.3560
 1.2610	53.3620
 1.2620	53.3650
 1.2630	53.3720
 1.2640	53.3830
 1.2650	53.3910
 1.2660	53.4010
 1.2670	53.4100
 1.2680	53.4070
 1.2690	53.4040
 1.2700	53.4040
 1.2710	53.3980
 1.2720	53.3990
 1.2730	53.4000
 1.2740	53.3870
 1.2750	53.3810
 1.2760	53.3700
 1.2770	53.3490
 1.2780	53.3400
 1.2790	53.3300
 1.2800	53.3140
 1.2810	53.3030
 1.2820	53.2870
 1.2830	53.2650
 1.2840	53.2420
 1.2850	53.2150
 1.2860	53.1870
 1.2870	53.1570
 1.2880	53.1230
 1.2890	53.0890
 1.2900	53.0550
 1.2910	53.0200
 1.2920	52.9860
 1.2930	52.9500
 1.2940	52.9170
 1.2950	52.8820
 1.2960	52.8390
 1.2970	52.7910
 1.2980	52.7380
 1.2990	52.6780
 1.3000	52.6160
 1.3010	52.5500
 1.3020	52.4810
 1.3030	52.4120
 1.3040	52.3350
 1.3050	52.2570
 1.3060	52.1820
 1.3070	52.0980
 1.3080	52.0090
 1.3090	51.9220
 1.3100	51.8300
 1.3110	51.7330
 1.3120	51.6360
 1.3130	51.5340
 1.3140	51.4230
 1.3150	51.3050
 1.3160	51.1830
 1.3170	51.0550
 1.3180	50.9200
 1.3190	50.7850
 1.3200	50.6510
 1.3210	50.5110
 1.3220	50.3640
 1.3230	50.2130
 1.3240	50.0480
 1.3250	49.8790
 1.3260	49.7160
 1.3270	49.5460
 1.3280	49.3780
 1.3290	49.2070
 1.3300	49.0250
 1.3310	48.8400
 1.3320	48.6490
 1.3330	48.4520
 1.3340	48.2600
 1.3350	48.0640
 1.3360	47.8700
 1.3370	47.6710
 1.3380	47.4640
 1.3390	47.2600
 1.3400	47.0550
 1.3410	46.8520
 1.3420	46.6570
 1.3430	46.4640
 1.3440	46.2710
 1.3450	46.0780
 1.3460	45.8850
 1.3470	45.6950
 1.3480	45.5010
 1.3490	45.3130
 1.3500	45.1320
 1.3510	44.9490
 1.3520	44.7650
 1.3530	44.5870
 1.3540	44.4040
 1.3550	44.2170
 1.3560	44.0320
 1.3570	43.8470
 1.3580	43.6630
 1.3590	43.4780
 1.3600	43.2930
 1.3610	43.0990
 1.3620	42.8980
 1.3630	42.6950
 1.3640	42.4850
 1.3650	42.2650
 1.3660	42.0420
 1.3670	41.8070
 1.3680	41.5590
 1.3690	41.3020
 1.3700	41.0270
 1.3710	40.7360
 1.3720	40.4300
 1.3730	40.1010
 1.3740	39.7590
 1.3750	39.4000
 1.3760	39.0160
 1.3770	38.6110
 1.3780	38.1780
 1.3790	37.7170
 1.3800	37.2320
 1.3810	36.7180
 1.3820	36.1860
 1.3830	35.6340
 1.3840	35.0580
 1.3850	34.4600
 1.3860	33.8470
 1.3870	33.2110
 1.3880	32.5660
 1.3890	31.9060
 1.3900	31.2370
 1.3910	30.5650
 1.3920	29.8870
 1.3930	29.2090
 1.3940	28.5320
 1.3950	27.8520
 1.3960	27.1830
 1.3970	26.5250
 1.3980	25.8800
 1.3990	25.2570
 1.4000	24.6480
 1.4010	24.0550
 1.4020	23.4870
 1.4030	22.9380
 1.4040	22.4120
 1.4050	21.9120
 1.4060	21.4360
 1.4070	20.9910
 1.4080	20.5710
 1.4090	20.1760
 1.4100	19.8080
 1.4110	19.4630
 1.4120	19.1420
 1.4130	18.8450
 1.4140	18.5690
 1.4150	18.3210
 1.4160	18.0930
 1.4170	17.8840
 1.4180	17.6960
 1.4190	17.5200
 1.4200	17.3580
 1.4210	17.2110
 1.4220	17.0810
 1.4230	16.9670
 1.4240	16.8660
 1.4250	16.7730
 1.4260	16.6920
 1.4270	16.6180
 1.4280	16.5520
 1.4290	16.4960
 1.4300	16.4540
 1.4310	16.4160
 1.4320	16.3860
 1.4330	16.3610
 1.4340	16.3390
 1.4350	16.3250
 1.4360	16.3180
 1.4370	16.3150
 1.4380	16.3160
 1.4390	16.3260
 1.4400	16.3370
 1.4410	16.3510
 1.4420	16.3720
 1.4430	16.3900
 1.4440	16.4120
 1.4450	16.4370
 1.4460	16.4610
 1.4470	16.4910
 1.4480	16.5210
 1.4490	16.5520
 1.4500	16.5840
 1.4510	16.6140
 1.4520	16.6430
 1.4530	16.6720
 1.4540	16.7040
 1.4550	16.7380
 1.4560	16.7730
 1.4570	16.8120
 1.4580	16.8540
 1.4590	16.8960
 1.4600	16.9430
 1.4610	16.9940
 1.4620	17.0490
 1.4630	17.1080
 1.4640	17.1720
 1.4650	17.2400
 1.4660	17.3120
 1.4670	17.3900
 1.4680	17.4740
 1.4690	17.5630
