Name: Magnolia grandiflora
Type: vegetation
Class: Tree
Genus: Magnolia
Species: grandiflora
Sample No.: JPL231
Owner: JPL
Wavelength Range: VSWIR
Origin: 34.12721; -118.1134; WGS84
Collection Date: 10/3/2016
Description: Samples were collected at the Huntington Garden in San Marino California as part of a JPL Subcontract studying HyTES imagery. Samples were taken to JPL and processed within 48 hours of collection. The same leaves were processed in the Nicolet and then measured using the ASD.
Measurement: Bidirectional reflectance
First Column: X
Second Column: Y
X Units: Wavelength (micrometer)
Y Units: Reflectance (percentage)
First X Value: 0.35
Last X Value: 2.5
Number of X Values: 2151
Additional Information: vegetation.tree.magnolia.grandiflora.vswir.jpl231.jpl.asd.ancillary.txt

 0.3500	 2.8570
 0.3510	 2.8180
 0.3520	 2.8440
 0.3530	 2.8310
 0.3540	 2.7380
 0.3550	 2.7460
 0.3560	 2.7220
 0.3570	 2.6730
 0.3580	 2.6700
 0.3590	 2.6600
 0.3600	 2.6120
 0.3610	 2.5480
 0.3620	 2.5610
 0.3630	 2.5930
 0.3640	 2.5760
 0.3650	 2.4930
 0.3660	 2.5130
 0.3670	 2.5710
 0.3680	 2.6130
 0.3690	 2.6000
 0.3700	 2.5600
 0.3710	 2.5190
 0.3720	 2.4900
 0.3730	 2.4560
 0.3740	 2.4540
 0.3750	 2.4630
 0.3760	 2.4490
 0.3770	 2.4280
 0.3780	 2.4050
 0.3790	 2.4080
 0.3800	 2.4800
 0.3810	 2.5190
 0.3820	 2.4990
 0.3830	 2.4380
 0.3840	 2.4250
 0.3850	 2.4550
 0.3860	 2.4600
 0.3870	 2.3880
 0.3880	 2.4100
 0.3890	 2.4200
 0.3900	 2.3880
 0.3910	 2.3790
 0.3920	 2.3790
 0.3930	 2.3890
 0.3940	 2.3950
 0.3950	 2.3300
 0.3960	 2.3090
 0.3970	 2.3350
 0.3980	 2.3570
 0.3990	 2.3630
 0.4000	 2.3430
 0.4010	 2.3190
 0.4020	 2.3460
 0.4030	 2.3660
 0.4040	 2.3720
 0.4050	 2.3700
 0.4060	 2.3580
 0.4070	 2.3500
 0.4080	 2.3480
 0.4090	 2.3430
 0.4100	 2.3420
 0.4110	 2.3480
 0.4120	 2.3580
 0.4130	 2.3730
 0.4140	 2.3870
 0.4150	 2.3900
 0.4160	 2.3820
 0.4170	 2.3890
 0.4180	 2.4010
 0.4190	 2.4100
 0.4200	 2.4190
 0.4210	 2.4170
 0.4220	 2.4250
 0.4230	 2.4540
 0.4240	 2.4820
 0.4250	 2.4920
 0.4260	 2.4930
 0.4270	 2.5020
 0.4280	 2.5160
 0.4290	 2.5250
 0.4300	 2.5360
 0.4310	 2.5790
 0.4320	 2.6080
 0.4330	 2.6310
 0.4340	 2.6600
 0.4350	 2.6860
 0.4360	 2.6910
 0.4370	 2.6790
 0.4380	 2.6770
 0.4390	 2.6570
 0.4400	 2.6280
 0.4410	 2.6030
 0.4420	 2.5970
 0.4430	 2.5910
 0.4440	 2.5920
 0.4450	 2.6060
 0.4460	 2.6080
 0.4470	 2.6090
 0.4480	 2.6140
 0.4490	 2.6160
 0.4500	 2.6210
 0.4510	 2.6240
 0.4520	 2.6240
 0.4530	 2.6310
 0.4540	 2.6320
 0.4550	 2.6300
 0.4560	 2.6350
 0.4570	 2.6400
 0.4580	 2.6410
 0.4590	 2.6390
 0.4600	 2.6390
 0.4610	 2.6380
 0.4620	 2.6400
 0.4630	 2.6480
 0.4640	 2.6360
 0.4650	 2.6280
 0.4660	 2.6320
 0.4670	 2.6300
 0.4680	 2.6310
 0.4690	 2.6330
 0.4700	 2.6350
 0.4710	 2.6250
 0.4720	 2.6190
 0.4730	 2.6200
 0.4740	 2.6220
 0.4750	 2.6180
 0.4760	 2.6140
 0.4770	 2.6130
 0.4780	 2.6140
 0.4790	 2.6140
 0.4800	 2.6120
 0.4810	 2.6130
 0.4820	 2.6210
 0.4830	 2.6310
 0.4840	 2.6440
 0.4850	 2.6650
 0.4860	 2.6880
 0.4870	 2.7030
 0.4880	 2.7090
 0.4890	 2.7140
 0.4900	 2.7160
 0.4910	 2.7190
 0.4920	 2.7280
 0.4930	 2.7300
 0.4940	 2.7330
 0.4950	 2.7420
 0.4960	 2.7580
 0.4970	 2.7720
 0.4980	 2.7840
 0.4990	 2.7970
 0.5000	 2.8170
 0.5010	 2.8430
 0.5020	 2.8710
 0.5030	 2.8980
 0.5040	 2.9320
 0.5050	 2.9730
 0.5060	 3.0190
 0.5070	 3.0700
 0.5080	 3.1210
 0.5090	 3.1780
 0.5100	 3.2450
 0.5110	 3.3180
 0.5120	 3.3970
 0.5130	 3.4840
 0.5140	 3.5790
 0.5150	 3.6790
 0.5160	 3.7880
 0.5170	 3.9090
 0.5180	 4.0340
 0.5190	 4.1690
 0.5200	 4.3130
 0.5210	 4.4620
 0.5220	 4.6120
 0.5230	 4.7650
 0.5240	 4.9220
 0.5250	 5.0770
 0.5260	 5.2280
 0.5270	 5.3740
 0.5280	 5.5150
 0.5290	 5.6520
 0.5300	 5.7800
 0.5310	 5.8960
 0.5320	 6.0050
 0.5330	 6.1040
 0.5340	 6.1940
 0.5350	 6.2760
 0.5360	 6.3500
 0.5370	 6.4170
 0.5380	 6.4840
 0.5390	 6.5600
 0.5400	 6.6530
 0.5410	 6.7650
 0.5420	 6.8810
 0.5430	 6.9620
 0.5440	 7.0070
 0.5450	 7.0110
 0.5460	 6.9800
 0.5470	 6.9270
 0.5480	 6.8790
 0.5490	 6.8510
 0.5500	 6.8420
 0.5510	 6.8330
 0.5520	 6.8150
 0.5530	 6.7830
 0.5540	 6.7400
 0.5550	 6.6910
 0.5560	 6.6400
 0.5570	 6.5830
 0.5580	 6.5220
 0.5590	 6.4590
 0.5600	 6.3920
 0.5610	 6.3170
 0.5620	 6.2440
 0.5630	 6.1650
 0.5640	 6.0720
 0.5650	 5.9790
 0.5660	 5.8820
 0.5670	 5.7780
 0.5680	 5.6710
 0.5690	 5.5620
 0.5700	 5.4550
 0.5710	 5.3510
 0.5720	 5.2490
 0.5730	 5.1530
 0.5740	 5.0640
 0.5750	 4.9780
 0.5760	 4.9060
 0.5770	 4.8400
 0.5780	 4.7780
 0.5790	 4.7280
 0.5800	 4.6790
 0.5810	 4.6280
 0.5820	 4.5770
 0.5830	 4.5310
 0.5840	 4.4870
 0.5850	 4.4420
 0.5860	 4.3970
 0.5870	 4.3590
 0.5880	 4.3190
 0.5890	 4.2690
 0.5900	 4.2260
 0.5910	 4.1970
 0.5920	 4.1760
 0.5930	 4.1500
 0.5940	 4.1140
 0.5950	 4.0790
 0.5960	 4.0530
 0.5970	 4.0310
 0.5980	 4.0120
 0.5990	 3.9940
 0.6000	 3.9740
 0.6010	 3.9450
 0.6020	 3.9170
 0.6030	 3.8920
 0.6040	 3.8660
 0.6050	 3.8400
 0.6060	 3.8150
 0.6070	 3.7890
 0.6080	 3.7650
 0.6090	 3.7640
 0.6100	 3.7990
 0.6110	 3.8590
 0.6120	 3.8310
 0.6130	 3.7450
 0.6140	 3.6470
 0.6150	 3.5870
 0.6160	 3.5380
 0.6170	 3.4950
 0.6180	 3.4600
 0.6190	 3.4370
 0.6200	 3.4180
 0.6210	 3.3990
 0.6220	 3.3780
 0.6230	 3.3580
 0.6240	 3.3380
 0.6250	 3.3210
 0.6260	 3.3070
 0.6270	 3.2970
 0.6280	 3.2920
 0.6290	 3.2900
 0.6300	 3.2880
 0.6310	 3.2800
 0.6320	 3.2650
 0.6330	 3.2410
 0.6340	 3.2170
 0.6350	 3.1930
 0.6360	 3.1690
 0.6370	 3.1400
 0.6380	 3.1040
 0.6390	 3.0660
 0.6400	 3.0270
 0.6410	 2.9870
 0.6420	 2.9490
 0.6430	 2.9120
 0.6440	 2.8780
 0.6450	 2.8430
 0.6460	 2.8100
 0.6470	 2.7820
 0.6480	 2.7570
 0.6490	 2.7370
 0.6500	 2.7230
 0.6510	 2.7100
 0.6520	 2.7010
 0.6530	 2.6920
 0.6540	 2.6830
 0.6550	 2.6740
 0.6560	 2.6640
 0.6570	 2.6540
 0.6580	 2.6430
 0.6590	 2.6300
 0.6600	 2.6150
 0.6610	 2.6000
 0.6620	 2.5890
 0.6630	 2.5790
 0.6640	 2.5710
 0.6650	 2.5640
 0.6660	 2.5610
 0.6670	 2.5610
 0.6680	 2.5650
 0.6690	 2.5750
 0.6700	 2.5880
 0.6710	 2.6040
 0.6720	 2.6250
 0.6730	 2.6500
 0.6740	 2.6790
 0.6750	 2.7110
 0.6760	 2.7460
 0.6770	 2.7900
 0.6780	 2.8350
 0.6790	 2.8810
 0.6800	 2.9350
 0.6810	 2.9910
 0.6820	 3.0490
 0.6830	 3.1090
 0.6840	 3.1710
 0.6850	 3.2360
 0.6860	 3.3060
 0.6870	 3.3850
 0.6880	 3.4710
 0.6890	 3.5730
 0.6900	 3.6970
 0.6910	 3.8550
 0.6920	 4.0550
 0.6930	 4.3040
 0.6940	 4.6060
 0.6950	 4.9710
 0.6960	 5.4020
 0.6970	 5.9010
 0.6980	 6.4690
 0.6990	 7.1080
 0.7000	 7.8100
 0.7010	 8.5660
 0.7020	 9.3660
 0.7030	10.2040
 0.7040	11.0720
 0.7050	11.9600
 0.7060	12.8700
 0.7070	13.7940
 0.7080	14.7280
 0.7090	15.6740
 0.7100	16.6300
 0.7110	17.6030
 0.7120	18.5900
 0.7130	19.5830
 0.7140	20.5870
 0.7150	21.6030
 0.7160	22.6290
 0.7170	23.6600
 0.7180	24.6950
 0.7190	25.7320
 0.7200	26.7690
 0.7210	27.8000
 0.7220	28.8230
 0.7230	29.8340
 0.7240	30.8280
 0.7250	31.8020
 0.7260	32.7540
 0.7270	33.6830
 0.7280	34.5850
 0.7290	35.4550
 0.7300	36.2950
 0.7310	37.1030
 0.7320	37.8770
 0.7330	38.6150
 0.7340	39.3170
 0.7350	39.9840
 0.7360	40.6170
 0.7370	41.2150
 0.7380	41.7770
 0.7390	42.3030
 0.7400	42.7940
 0.7410	43.2500
 0.7420	43.6730
 0.7430	44.0620
 0.7440	44.4200
 0.7450	44.7480
 0.7460	45.0470
 0.7470	45.3190
 0.7480	45.5640
 0.7490	45.7830
 0.7500	45.9830
 0.7510	46.1620
 0.7520	46.3200
 0.7530	46.4610
 0.7540	46.5900
 0.7550	46.7050
 0.7560	46.8050
 0.7570	46.8940
 0.7580	46.9740
 0.7590	47.0460
 0.7600	47.1080
 0.7610	47.1640
 0.7620	47.2080
 0.7630	47.2440
 0.7640	47.2760
 0.7650	47.3030
 0.7660	47.3250
 0.7670	47.3420
 0.7680	47.3570
 0.7690	47.3680
 0.7700	47.3750
 0.7710	47.3800
 0.7720	47.3860
 0.7730	47.3900
 0.7740	47.3930
 0.7750	47.3940
 0.7760	47.4000
 0.7770	47.4040
 0.7780	47.4050
 0.7790	47.4070
 0.7800	47.4090
 0.7810	47.4110
 0.7820	47.4130
 0.7830	47.4160
 0.7840	47.4170
 0.7850	47.4180
 0.7860	47.4190
 0.7870	47.4220
 0.7880	47.4230
 0.7890	47.4230
 0.7900	47.4250
 0.7910	47.4240
 0.7920	47.4210
 0.7930	47.4210
 0.7940	47.4210
 0.7950	47.4200
 0.7960	47.4180
 0.7970	47.4150
 0.7980	47.4130
 0.7990	47.4090
 0.8000	47.4050
 0.8010	47.4020
 0.8020	47.3990
 0.8030	47.3950
 0.8040	47.3920
 0.8050	47.3890
 0.8060	47.3840
 0.8070	47.3780
 0.8080	47.3730
 0.8090	47.3700
 0.8100	47.3660
 0.8110	47.3610
 0.8120	47.3540
 0.8130	47.3470
 0.8140	47.3440
 0.8150	47.3420
 0.8160	47.3400
 0.8170	47.3320
 0.8180	47.3260
 0.8190	47.3230
 0.8200	47.3170
 0.8210	47.3120
 0.8220	47.3100
 0.8230	47.3120
 0.8240	47.3110
 0.8250	47.3070
 0.8260	47.2990
 0.8270	47.2930
 0.8280	47.2920
 0.8290	47.2880
 0.8300	47.2830
 0.8310	47.2810
 0.8320	47.2790
 0.8330	47.2760
 0.8340	47.2730
 0.8350	47.2730
 0.8360	47.2740
 0.8370	47.2750
 0.8380	47.2770
 0.8390	47.2790
 0.8400	47.2840
 0.8410	47.2880
 0.8420	47.2920
 0.8430	47.2960
 0.8440	47.3020
 0.8450	47.3080
 0.8460	47.3130
 0.8470	47.3160
 0.8480	47.3210
 0.8490	47.3270
 0.8500	47.3320
 0.8510	47.3380
 0.8520	47.3460
 0.8530	47.3530
 0.8540	47.3530
 0.8550	47.3580
 0.8560	47.3640
 0.8570	47.3690
 0.8580	47.3750
 0.8590	47.3790
 0.8600	47.3840
 0.8610	47.3890
 0.8620	47.3930
 0.8630	47.3930
 0.8640	47.3940
 0.8650	47.4010
 0.8660	47.4080
 0.8670	47.4120
 0.8680	47.4130
 0.8690	47.4130
 0.8700	47.4170
 0.8710	47.4220
 0.8720	47.4250
 0.8730	47.4250
 0.8740	47.4270
 0.8750	47.4280
 0.8760	47.4270
 0.8770	47.4260
 0.8780	47.4280
 0.8790	47.4320
 0.8800	47.4350
 0.8810	47.4350
 0.8820	47.4350
 0.8830	47.4350
 0.8840	47.4370
 0.8850	47.4340
 0.8860	47.4310
 0.8870	47.4310
 0.8880	47.4360
 0.8890	47.4380
 0.8900	47.4340
 0.8910	47.4270
 0.8920	47.4240
 0.8930	47.4230
 0.8940	47.4230
 0.8950	47.4220
 0.8960	47.4160
 0.8970	47.4090
 0.8980	47.4070
 0.8990	47.4100
 0.9000	47.4060
 0.9010	47.4030
 0.9020	47.3980
 0.9030	47.3920
 0.9040	47.3920
 0.9050	47.3880
 0.9060	47.3840
 0.9070	47.3810
 0.9080	47.3750
 0.9090	47.3680
 0.9100	47.3630
 0.9110	47.3600
 0.9120	47.3510
 0.9130	47.3450
 0.9140	47.3390
 0.9150	47.3310
 0.9160	47.3220
 0.9170	47.3150
 0.9180	47.3080
 0.9190	47.2970
 0.9200	47.2840
 0.9210	47.2700
 0.9220	47.2570
 0.9230	47.2460
 0.9240	47.2260
 0.9250	47.2060
 0.9260	47.1870
 0.9270	47.1610
 0.9280	47.1310
 0.9290	47.1040
 0.9300	47.0820
 0.9310	47.0560
 0.9320	47.0260
 0.9330	46.9970
 0.9340	46.9670
 0.9350	46.9300
 0.9360	46.8880
 0.9370	46.8480
 0.9380	46.8130
 0.9390	46.7730
 0.9400	46.7300
 0.9410	46.6810
 0.9420	46.6300
 0.9430	46.5830
 0.9440	46.5250
 0.9450	46.4640
 0.9460	46.4060
 0.9470	46.3380
 0.9480	46.2650
 0.9490	46.1910
 0.9500	46.1140
 0.9510	46.0280
 0.9520	45.9430
 0.9530	45.8610
 0.9540	45.7770
 0.9550	45.6890
 0.9560	45.6030
 0.9570	45.5230
 0.9580	45.4490
 0.9590	45.3730
 0.9600	45.3060
 0.9610	45.2470
 0.9620	45.1940
 0.9630	45.1460
 0.9640	45.0950
 0.9650	45.0480
 0.9660	45.0170
 0.9670	44.9920
 0.9680	44.9710
 0.9690	44.9460
 0.9700	44.9130
 0.9710	44.8970
 0.9720	44.8770
 0.9730	44.8570
 0.9740	44.8440
 0.9750	44.8280
 0.9760	44.8110
 0.9770	44.7960
 0.9780	44.7860
 0.9790	44.7920
 0.9800	44.7970
 0.9810	44.7960
 0.9820	44.7910
 0.9830	44.7920
 0.9840	44.7970
 0.9850	44.8050
 0.9860	44.8170
 0.9870	44.8400
 0.9880	44.8480
 0.9890	44.8490
 0.9900	44.8590
 0.9910	44.8730
 0.9920	44.8920
 0.9930	44.9160
 0.9940	44.9430
 0.9950	44.9580
 0.9960	44.9720
 0.9970	44.9900
 0.9980	45.0140
 0.9990	45.0450
 1.0000	45.0650
 1.0010	44.9540
 1.0020	44.9790
 1.0030	45.0070
 1.0040	45.0360
 1.0050	45.0660
 1.0060	45.0970
 1.0070	45.1270
 1.0080	45.1580
 1.0090	45.1880
 1.0100	45.2200
 1.0110	45.2520
 1.0120	45.2840
 1.0130	45.3160
 1.0140	45.3490
 1.0150	45.3820
 1.0160	45.4170
 1.0170	45.4450
 1.0180	45.4740
 1.0190	45.5030
 1.0200	45.5280
 1.0210	45.5570
 1.0220	45.5920
 1.0230	45.6220
 1.0240	45.6490
 1.0250	45.6790
 1.0260	45.7090
 1.0270	45.7390
 1.0280	45.7740
 1.0290	45.8040
 1.0300	45.8310
 1.0310	45.8600
 1.0320	45.8910
 1.0330	45.9200
 1.0340	45.9450
 1.0350	45.9700
 1.0360	45.9940
 1.0370	46.0160
 1.0380	46.0390
 1.0390	46.0680
 1.0400	46.0910
 1.0410	46.1100
 1.0420	46.1310
 1.0430	46.1520
 1.0440	46.1720
 1.0450	46.1920
 1.0460	46.2110
 1.0470	46.2270
 1.0480	46.2450
 1.0490	46.2650
 1.0500	46.2830
 1.0510	46.3040
 1.0520	46.3220
 1.0530	46.3370
 1.0540	46.3480
 1.0550	46.3620
 1.0560	46.3740
 1.0570	46.3850
 1.0580	46.3980
 1.0590	46.4080
 1.0600	46.4120
 1.0610	46.4200
 1.0620	46.4280
 1.0630	46.4360
 1.0640	46.4470
 1.0650	46.4550
 1.0660	46.4590
 1.0670	46.4630
 1.0680	46.4670
 1.0690	46.4700
 1.0700	46.4720
 1.0710	46.4750
 1.0720	46.4770
 1.0730	46.4750
 1.0740	46.4760
 1.0750	46.4770
 1.0760	46.4760
 1.0770	46.4760
 1.0780	46.4730
 1.0790	46.4670
 1.0800	46.4620
 1.0810	46.4570
 1.0820	46.4510
 1.0830	46.4450
 1.0840	46.4380
 1.0850	46.4290
 1.0860	46.4200
 1.0870	46.4090
 1.0880	46.3960
 1.0890	46.3850
 1.0900	46.3750
 1.0910	46.3640
 1.0920	46.3570
 1.0930	46.3440
 1.0940	46.3280
 1.0950	46.3120
 1.0960	46.2950
 1.0970	46.2770
 1.0980	46.2590
 1.0990	46.2410
 1.1000	46.2220
 1.1010	46.2030
 1.1020	46.1830
 1.1030	46.1640
 1.1040	46.1470
 1.1050	46.1280
 1.1060	46.1090
 1.1070	46.0900
 1.1080	46.0690
 1.1090	46.0450
 1.1100	46.0220
 1.1110	46.0010
 1.1120	45.9760
 1.1130	45.9500
 1.1140	45.9230
 1.1150	45.8970
 1.1160	45.8680
 1.1170	45.8390
 1.1180	45.8060
 1.1190	45.7690
 1.1200	45.7300
 1.1210	45.6870
 1.1220	45.6420
 1.1230	45.5930
 1.1240	45.5370
 1.1250	45.4730
 1.1260	45.4060
 1.1270	45.3270
 1.1280	45.2390
 1.1290	45.1430
 1.1300	45.0390
 1.1310	44.9250
 1.1320	44.8030
 1.1330	44.6690
 1.1340	44.5240
 1.1350	44.3700
 1.1360	44.2060
 1.1370	44.0330
 1.1380	43.8520
 1.1390	43.6650
 1.1400	43.4710
 1.1410	43.2760
 1.1420	43.0770
 1.1430	42.8760
 1.1440	42.6770
 1.1450	42.4760
 1.1460	42.2820
 1.1470	42.0900
 1.1480	41.9060
 1.1490	41.7260
 1.1500	41.5570
 1.1510	41.3940
 1.1520	41.2420
 1.1530	41.1000
 1.1540	40.9680
 1.1550	40.8450
 1.1560	40.7310
 1.1570	40.6280
 1.1580	40.5310
 1.1590	40.4430
 1.1600	40.3640
 1.1610	40.2920
 1.1620	40.2270
 1.1630	40.1660
 1.1640	40.1080
 1.1650	40.0550
 1.1660	40.0040
 1.1670	39.9570
 1.1680	39.9150
 1.1690	39.8750
 1.1700	39.8380
 1.1710	39.8020
 1.1720	39.7700
 1.1730	39.7370
 1.1740	39.7060
 1.1750	39.6770
 1.1760	39.6470
 1.1770	39.6180
 1.1780	39.5880
 1.1790	39.5550
 1.1800	39.5220
 1.1810	39.4890
 1.1820	39.4570
 1.1830	39.4260
 1.1840	39.3950
 1.1850	39.3660
 1.1860	39.3360
 1.1870	39.3080
 1.1880	39.2810
 1.1890	39.2530
 1.1900	39.2300
 1.1910	39.2100
 1.1920	39.1910
 1.1930	39.1740
 1.1940	39.1600
 1.1950	39.1470
 1.1960	39.1370
 1.1970	39.1310
 1.1980	39.1260
 1.1990	39.1250
 1.2000	39.1240
 1.2010	39.1290
 1.2020	39.1350
 1.2030	39.1430
 1.2040	39.1550
 1.2050	39.1690
 1.2060	39.1830
 1.2070	39.1990
 1.2080	39.2160
 1.2090	39.2330
 1.2100	39.2550
 1.2110	39.2780
 1.2120	39.3040
 1.2130	39.3310
 1.2140	39.3580
 1.2150	39.3870
 1.2160	39.4170
 1.2170	39.4490
 1.2180	39.4810
 1.2190	39.5130
 1.2200	39.5470
 1.2210	39.5830
 1.2220	39.6170
 1.2230	39.6510
 1.2240	39.6860
 1.2250	39.7190
 1.2260	39.7530
 1.2270	39.7880
 1.2280	39.8220
 1.2290	39.8540
 1.2300	39.8850
 1.2310	39.9170
 1.2320	39.9490
 1.2330	39.9800
 1.2340	40.0110
 1.2350	40.0420
 1.2360	40.0710
 1.2370	40.0980
 1.2380	40.1250
 1.2390	40.1530
 1.2400	40.1780
 1.2410	40.2030
 1.2420	40.2280
 1.2430	40.2510
 1.2440	40.2750
 1.2450	40.2990
 1.2460	40.3230
 1.2470	40.3480
 1.2480	40.3730
 1.2490	40.3960
 1.2500	40.4180
 1.2510	40.4370
 1.2520	40.4560
 1.2530	40.4750
 1.2540	40.4930
 1.2550	40.5100
 1.2560	40.5250
 1.2570	40.5380
 1.2580	40.5490
 1.2590	40.5600
 1.2600	40.5690
 1.2610	40.5780
 1.2620	40.5860
 1.2630	40.5920
 1.2640	40.5970
 1.2650	40.6010
 1.2660	40.6030
 1.2670	40.6030
 1.2680	40.6010
 1.2690	40.5980
 1.2700	40.5940
 1.2710	40.5890
 1.2720	40.5820
 1.2730	40.5730
 1.2740	40.5630
 1.2750	40.5500
 1.2760	40.5350
 1.2770	40.5200
 1.2780	40.5030
 1.2790	40.4830
 1.2800	40.4630
 1.2810	40.4400
 1.2820	40.4150
 1.2830	40.3910
 1.2840	40.3650
 1.2850	40.3360
 1.2860	40.3040
 1.2870	40.2680
 1.2880	40.2290
 1.2890	40.1860
 1.2900	40.1410
 1.2910	40.0960
 1.2920	40.0490
 1.2930	39.9990
 1.2940	39.9460
 1.2950	39.8900
 1.2960	39.8310
 1.2970	39.7680
 1.2980	39.7020
 1.2990	39.6310
 1.3000	39.5560
 1.3010	39.4800
 1.3020	39.4010
 1.3030	39.3180
 1.3040	39.2310
 1.3050	39.1390
 1.3060	39.0450
 1.3070	38.9450
 1.3080	38.8430
 1.3090	38.7360
 1.3100	38.6220
 1.3110	38.5060
 1.3120	38.3850
 1.3130	38.2600
 1.3140	38.1320
 1.3150	38.0020
 1.3160	37.8660
 1.3170	37.7280
 1.3180	37.5850
 1.3190	37.4350
 1.3200	37.2810
 1.3210	37.1210
 1.3220	36.9590
 1.3230	36.7950
 1.3240	36.6290
 1.3250	36.4600
 1.3260	36.2870
 1.3270	36.1090
 1.3280	35.9270
 1.3290	35.7450
 1.3300	35.5590
 1.3310	35.3740
 1.3320	35.1860
 1.3330	34.9970
 1.3340	34.8070
 1.3350	34.6150
 1.3360	34.4240
 1.3370	34.2320
 1.3380	34.0420
 1.3390	33.8530
 1.3400	33.6630
 1.3410	33.4770
 1.3420	33.2930
 1.3430	33.1100
 1.3440	32.9300
 1.3450	32.7530
 1.3460	32.5760
 1.3470	32.4040
 1.3480	32.2360
 1.3490	32.0690
 1.3500	31.9040
 1.3510	31.7420
 1.3520	31.5790
 1.3530	31.4190
 1.3540	31.2580
 1.3550	31.0970
 1.3560	30.9350
 1.3570	30.7720
 1.3580	30.6090
 1.3590	30.4420
 1.3600	30.2690
 1.3610	30.0930
 1.3620	29.9090
 1.3630	29.7190
 1.3640	29.5250
 1.3650	29.3190
 1.3660	29.1040
 1.3670	28.8810
 1.3680	28.6430
 1.3690	28.3930
 1.3700	28.1270
 1.3710	27.8460
 1.3720	27.5460
 1.3730	27.2250
 1.3740	26.8880
 1.3750	26.5280
 1.3760	26.1410
 1.3770	25.7330
 1.3780	25.2930
 1.3790	24.8270
 1.3800	24.3350
 1.3810	23.8130
 1.3820	23.2720
 1.3830	22.7070
 1.3840	22.1240
 1.3850	21.5180
 1.3860	20.9010
 1.3870	20.2620
 1.3880	19.6260
 1.3890	18.9800
 1.3900	18.3310
 1.3910	17.6890
 1.3920	17.0500
 1.3930	16.4140
 1.3940	15.7910
 1.3950	15.1750
 1.3960	14.5760
 1.3970	13.9970
 1.3980	13.4370
 1.3990	12.9070
 1.4000	12.3990
 1.4010	11.9110
 1.4020	11.4520
 1.4030	11.0150
 1.4040	10.6030
 1.4050	10.2180
 1.4060	 9.8550
 1.4070	 9.5190
 1.4080	 9.2040
 1.4090	 8.9080
 1.4100	 8.6340
 1.4110	 8.3780
 1.4120	 8.1400
 1.4130	 7.9210
 1.4140	 7.7170
 1.4150	 7.5290
 1.4160	 7.3550
 1.4170	 7.1920
 1.4180	 7.0410
 1.4190	 6.9000
 1.4200	 6.7690
 1.4210	 6.6490
 1.4220	 6.5360
 1.4230	 6.4320
 1.4240	 6.3360
 1.4250	 6.2450
 1.4260	 6.1610
 1.4270	 6.0820
 1.4280	 6.0090
 1.4290	 5.9410
 1.4300	 5.8800
 1.4310	 5.8220
 1.4320	 5.7690
 1.4330	 5.7200
 1.4340	 5.6750
 1.4350	 5.6330
 1.4360	 5.5950
 1.4370	 5.5610
 1.4380	 5.5310
 1.4390	 5.5030
 1.4400	 5.4790
 1.4410	 5.4570
 1.4420	 5.4370
 1.4430	 5.4190
 1.4440	 5.4040
 1.4450	 5.3920
 1.4460	 5.3800
 1.4470	 5.3710
 1.4480	 5.3640
 1.4490	 5.3590
 1.4500	 5.3550
 1.4510	 5.3530
 1.4520	 5.3530
 1.4530	 5.3530
 1.4540	 5.3560
 1.4550	 5.3610
 1.4560	 5.3680
 1.4570	 5.3770
 1.4580	 5.3880
 1.4590	 5.4020
 1.4600	 5.4180
 1.4610	 5.4380
 1.4620	 5.4600
 1.4630	 5.4850
 1.4640	 5.5140
 1.4650	 5.5470
 1.4660	 5.5840
 1.4670	 5.6230
 1.4680	 5.6660
 1.4690	 5.7120
 1.4700	 5.7600
 1.4710	 5.8130
 1.4720	 5.8690
 1.4730	 5.9260
 1.4740	 5.9870
 1.4750	 6.0510
 1.4760	 6.1170
 1.4770	 6.1860
