Name: Pinus ponderosa 3
Type: vegetation
Class: Tree
Genus: Pinus
Species: ponderosa
Sample No.: VH260
Owner: UCSB
Wavelength Range: VSWIR
Origin: 37.043; -119.3048; WGS84
Collection Date: 11/2/2013
Description: Samples were collected as part of the HyspIRI Airborne Campaign. 48 individual plants were sampled in three times in 2013 - spring  summer  and fall. The name of the sample includes a 1  2  or 3 which references a different individual of the species. Samples were taken to JPL and processed within 48 hours of collection. The same leaves were processed in the Nicolet and then measured using the ASD.
Measurement: Bidirectional reflectance
First Column: X
Second Column: Y
X Units: Wavelength (micrometers)
Y Units: Reflectance (percentage)
First X Value: 0.35
Last X Value: 2.5
Number of X Values: 2151
Additional Information: vegetation.tree.pinus.ponderosa.vswir.vh260.ucsb.asd.ancillary.txt

 0.3500	 6.2280
 0.3510	 5.9730
 0.3520	 5.7420
 0.3530	 5.7440
 0.3540	 5.9320
 0.3550	 5.8610
 0.3560	 5.7420
 0.3570	 5.6850
 0.3580	 5.7230
 0.3590	 5.7670
 0.3600	 5.7620
 0.3610	 5.7040
 0.3620	 5.6410
 0.3630	 5.5890
 0.3640	 5.5650
 0.3650	 5.5720
 0.3660	 5.5980
 0.3670	 5.6190
 0.3680	 5.6060
 0.3690	 5.5440
 0.3700	 5.5920
 0.3710	 5.5850
 0.3720	 5.4840
 0.3730	 5.5690
 0.3740	 5.5500
 0.3750	 5.4940
 0.3760	 5.5380
 0.3770	 5.5440
 0.3780	 5.5660
 0.3790	 5.5760
 0.3800	 5.4820
 0.3810	 5.4630
 0.3820	 5.4470
 0.3830	 5.4070
 0.3840	 5.5300
 0.3850	 5.5550
 0.3860	 5.4970
 0.3870	 5.4710
 0.3880	 5.5260
 0.3890	 5.5350
 0.3900	 5.4870
 0.3910	 5.5000
 0.3920	 5.5200
 0.3930	 5.5040
 0.3940	 5.4510
 0.3950	 5.4790
 0.3960	 5.4870
 0.3970	 5.4750
 0.3980	 5.4850
 0.3990	 5.5060
 0.4000	 5.5010
 0.4010	 5.4720
 0.4020	 5.4650
 0.4030	 5.4730
 0.4040	 5.4990
 0.4050	 5.5400
 0.4060	 5.5580
 0.4070	 5.5740
 0.4080	 5.5970
 0.4090	 5.6280
 0.4100	 5.6540
 0.4110	 5.6990
 0.4120	 5.7620
 0.4130	 5.7950
 0.4140	 5.8380
 0.4150	 5.8850
 0.4160	 5.9240
 0.4170	 5.9980
 0.4180	 6.0720
 0.4190	 6.1360
 0.4200	 6.2110
 0.4210	 6.2800
 0.4220	 6.3520
 0.4230	 6.4300
 0.4240	 6.4970
 0.4250	 6.5710
 0.4260	 6.6410
 0.4270	 6.6900
 0.4280	 6.7750
 0.4290	 6.8530
 0.4300	 6.9100
 0.4310	 6.9760
 0.4320	 7.0460
 0.4330	 7.1040
 0.4340	 7.1410
 0.4350	 7.1720
 0.4360	 7.2230
 0.4370	 7.2880
 0.4380	 7.3470
 0.4390	 7.3980
 0.4400	 7.4530
 0.4410	 7.5130
 0.4420	 7.5480
 0.4430	 7.5890
 0.4440	 7.6360
 0.4450	 7.6760
 0.4460	 7.7090
 0.4470	 7.7440
 0.4480	 7.7850
 0.4490	 7.8270
 0.4500	 7.8630
 0.4510	 7.8910
 0.4520	 7.9150
 0.4530	 7.9480
 0.4540	 7.9780
 0.4550	 7.9980
 0.4560	 8.0090
 0.4570	 8.0360
 0.4580	 8.0610
 0.4590	 8.0740
 0.4600	 8.0910
 0.4610	 8.1090
 0.4620	 8.1190
 0.4630	 8.1180
 0.4640	 8.1380
 0.4650	 8.1640
 0.4660	 8.1810
 0.4670	 8.1850
 0.4680	 8.1880
 0.4690	 8.1970
 0.4700	 8.2100
 0.4710	 8.2090
 0.4720	 8.2110
 0.4730	 8.2180
 0.4740	 8.2250
 0.4750	 8.2320
 0.4760	 8.2380
 0.4770	 8.2460
 0.4780	 8.2570
 0.4790	 8.2680
 0.4800	 8.2760
 0.4810	 8.2800
 0.4820	 8.2910
 0.4830	 8.2980
 0.4840	 8.3000
 0.4850	 8.3060
 0.4860	 8.3150
 0.4870	 8.3280
 0.4880	 8.3470
 0.4890	 8.3710
 0.4900	 8.3950
 0.4910	 8.4170
 0.4920	 8.4410
 0.4930	 8.4770
 0.4940	 8.5160
 0.4950	 8.5510
 0.4960	 8.5880
 0.4970	 8.6290
 0.4980	 8.6750
 0.4990	 8.7270
 0.5000	 8.7840
 0.5010	 8.8460
 0.5020	 8.9150
 0.5030	 8.9910
 0.5040	 9.0730
 0.5050	 9.1630
 0.5060	 9.2620
 0.5070	 9.3670
 0.5080	 9.4740
 0.5090	 9.5860
 0.5100	 9.7130
 0.5110	 9.8520
 0.5120	 9.9980
 0.5130	10.1500
 0.5140	10.3130
 0.5150	10.4820
 0.5160	10.6580
 0.5170	10.8420
 0.5180	11.0330
 0.5190	11.2310
 0.5200	11.4330
 0.5210	11.6360
 0.5220	11.8380
 0.5230	12.0320
 0.5240	12.2170
 0.5250	12.4050
 0.5260	12.5880
 0.5270	12.7600
 0.5280	12.9160
 0.5290	13.0630
 0.5300	13.2000
 0.5310	13.3270
 0.5320	13.4450
 0.5330	13.5500
 0.5340	13.6460
 0.5350	13.7350
 0.5360	13.8140
 0.5370	13.8830
 0.5380	13.9430
 0.5390	13.9950
 0.5400	14.0410
 0.5410	14.0760
 0.5420	14.1040
 0.5430	14.1410
 0.5440	14.1800
 0.5450	14.2210
 0.5460	14.2630
 0.5470	14.3190
 0.5480	14.3750
 0.5490	14.4210
 0.5500	14.4530
 0.5510	14.4800
 0.5520	14.4990
 0.5530	14.5030
 0.5540	14.4990
 0.5550	14.4880
 0.5560	14.4640
 0.5570	14.4210
 0.5580	14.3680
 0.5590	14.3090
 0.5600	14.2440
 0.5610	14.1670
 0.5620	14.0840
 0.5630	13.9930
 0.5640	13.8910
 0.5650	13.7860
 0.5660	13.6770
 0.5670	13.5650
 0.5680	13.4520
 0.5690	13.3340
 0.5700	13.2160
 0.5710	13.1010
 0.5720	12.9840
 0.5730	12.8740
 0.5740	12.7720
 0.5750	12.6700
 0.5760	12.5690
 0.5770	12.4740
 0.5780	12.3880
 0.5790	12.3030
 0.5800	12.2340
 0.5810	12.1730
 0.5820	12.1100
 0.5830	12.0500
 0.5840	11.9950
 0.5850	11.9440
 0.5860	11.9000
 0.5870	11.8620
 0.5880	11.8270
 0.5890	11.7920
 0.5900	11.7510
 0.5910	11.7110
 0.5920	11.6760
 0.5930	11.6490
 0.5940	11.6250
 0.5950	11.6020
 0.5960	11.5800
 0.5970	11.5550
 0.5980	11.5330
 0.5990	11.5090
 0.6000	11.4810
 0.6010	11.4530
 0.6020	11.4220
 0.6030	11.3890
 0.6040	11.3490
 0.6050	11.3010
 0.6060	11.2500
 0.6070	11.2010
 0.6080	11.1460
 0.6090	11.0830
 0.6100	11.0090
 0.6110	10.9300
 0.6120	10.8750
 0.6130	10.8280
 0.6140	10.7780
 0.6150	10.7260
 0.6160	10.6760
 0.6170	10.6260
 0.6180	10.5780
 0.6190	10.5400
 0.6200	10.5020
 0.6210	10.4660
 0.6220	10.4390
 0.6230	10.4170
 0.6240	10.3980
 0.6250	10.3810
 0.6260	10.3720
 0.6270	10.3660
 0.6280	10.3610
 0.6290	10.3560
 0.6300	10.3520
 0.6310	10.3470
 0.6320	10.3410
 0.6330	10.3320
 0.6340	10.3200
 0.6350	10.3000
 0.6360	10.2680
 0.6370	10.2260
 0.6380	10.1790
 0.6390	10.1270
 0.6400	10.0660
 0.6410	10.0010
 0.6420	 9.9320
 0.6430	 9.8570
 0.6440	 9.7880
 0.6450	 9.7180
 0.6460	 9.6480
 0.6470	 9.5810
 0.6480	 9.5200
 0.6490	 9.4640
 0.6500	 9.4120
 0.6510	 9.3670
 0.6520	 9.3270
 0.6530	 9.2890
 0.6540	 9.2520
 0.6550	 9.2130
 0.6560	 9.1700
 0.6570	 9.1210
 0.6580	 9.0650
 0.6590	 9.0090
 0.6600	 8.9520
 0.6610	 8.8910
 0.6620	 8.8260
 0.6630	 8.7680
 0.6640	 8.7130
 0.6650	 8.6600
 0.6660	 8.6170
 0.6670	 8.5800
 0.6680	 8.5480
 0.6690	 8.5210
 0.6700	 8.5020
 0.6710	 8.4900
 0.6720	 8.4820
 0.6730	 8.4810
 0.6740	 8.4860
 0.6750	 8.4950
 0.6760	 8.5070
 0.6770	 8.5220
 0.6780	 8.5430
 0.6790	 8.5720
 0.6800	 8.6130
 0.6810	 8.6590
 0.6820	 8.7130
 0.6830	 8.7800
 0.6840	 8.8620
 0.6850	 8.9660
 0.6860	 9.0930
 0.6870	 9.2410
 0.6880	 9.4270
 0.6890	 9.6470
 0.6900	 9.9070
 0.6910	10.2180
 0.6920	10.5790
 0.6930	10.9900
 0.6940	11.4540
 0.6950	11.9740
 0.6960	12.5510
 0.6970	13.1780
 0.6980	13.8540
 0.6990	14.5760
 0.7000	15.3410
 0.7010	16.1460
 0.7020	16.9860
 0.7030	17.8510
 0.7040	18.7420
 0.7050	19.6570
 0.7060	20.5810
 0.7070	21.5260
 0.7080	22.4890
 0.7090	23.4620
 0.7100	24.4560
 0.7110	25.4570
 0.7120	26.4670
 0.7130	27.4970
 0.7140	28.5330
 0.7150	29.5710
 0.7160	30.6140
 0.7170	31.6630
 0.7180	32.7130
 0.7190	33.7620
 0.7200	34.8120
 0.7210	35.8640
 0.7220	36.9080
 0.7230	37.9380
 0.7240	38.9590
 0.7250	39.9640
 0.7260	40.9470
 0.7270	41.9060
 0.7280	42.8400
 0.7290	43.7470
 0.7300	44.6220
 0.7310	45.4620
 0.7320	46.2810
 0.7330	47.0600
 0.7340	47.7990
 0.7350	48.5280
 0.7360	49.2170
 0.7370	49.8700
 0.7380	50.4910
 0.7390	51.0750
 0.7400	51.6300
 0.7410	52.1540
 0.7420	52.6490
 0.7430	53.1300
 0.7440	53.5750
 0.7450	53.9800
 0.7460	54.3590
 0.7470	54.7130
 0.7480	55.0380
 0.7490	55.3350
 0.7500	55.6180
 0.7510	55.8800
 0.7520	56.1120
 0.7530	56.3170
 0.7540	56.5260
 0.7550	56.7160
 0.7560	56.8760
 0.7570	57.0130
 0.7580	57.1450
 0.7590	57.2750
 0.7600	57.3940
 0.7610	57.4870
 0.7620	57.5820
 0.7630	57.6760
 0.7640	57.7580
 0.7650	57.8100
 0.7660	57.8610
 0.7670	57.9210
 0.7680	57.9840
 0.7690	58.0300
 0.7700	58.0670
 0.7710	58.1020
 0.7720	58.1380
 0.7730	58.1660
 0.7740	58.1990
 0.7750	58.2430
 0.7760	58.2620
 0.7770	58.2800
 0.7780	58.3040
 0.7790	58.3330
 0.7800	58.3610
 0.7810	58.3780
 0.7820	58.3870
 0.7830	58.4080
 0.7840	58.4300
 0.7850	58.4540
 0.7860	58.4770
 0.7870	58.4920
 0.7880	58.5110
 0.7890	58.5330
 0.7900	58.5530
 0.7910	58.5710
 0.7920	58.5870
 0.7930	58.6040
 0.7940	58.6270
 0.7950	58.6470
 0.7960	58.6600
 0.7970	58.6700
 0.7980	58.6920
 0.7990	58.7100
 0.8000	58.7260
 0.8010	58.7440
 0.8020	58.7640
 0.8030	58.7830
 0.8040	58.7980
 0.8050	58.8080
 0.8060	58.8340
 0.8070	58.8540
 0.8080	58.8620
 0.8090	58.8720
 0.8100	58.8900
 0.8110	58.9060
 0.8120	58.9180
 0.8130	58.9390
 0.8140	58.9470
 0.8150	58.9620
 0.8160	58.9960
 0.8170	59.0180
 0.8180	59.0370
 0.8190	59.0550
 0.8200	59.0690
 0.8210	59.0780
 0.8220	59.0870
 0.8230	59.1060
 0.8240	59.1370
 0.8250	59.1540
 0.8260	59.1520
 0.8270	59.1430
 0.8280	59.1600
 0.8290	59.1860
 0.8300	59.2020
 0.8310	59.1980
 0.8320	59.2130
 0.8330	59.2320
 0.8340	59.2470
 0.8350	59.2530
 0.8360	59.2640
 0.8370	59.2820
 0.8380	59.3040
 0.8390	59.3250
 0.8400	59.3420
 0.8410	59.3610
 0.8420	59.3870
 0.8430	59.4200
 0.8440	59.4410
 0.8450	59.4590
 0.8460	59.4840
 0.8470	59.5100
 0.8480	59.5230
 0.8490	59.5410
 0.8500	59.5780
 0.8510	59.5910
 0.8520	59.5990
 0.8530	59.6140
 0.8540	59.6400
 0.8550	59.6530
 0.8560	59.6710
 0.8570	59.6970
 0.8580	59.7150
 0.8590	59.7270
 0.8600	59.7390
 0.8610	59.7540
 0.8620	59.7720
 0.8630	59.7720
 0.8640	59.7780
 0.8650	59.8030
 0.8660	59.8090
 0.8670	59.8110
 0.8680	59.8160
 0.8690	59.8270
 0.8700	59.8400
 0.8710	59.8390
 0.8720	59.8320
 0.8730	59.8440
 0.8740	59.8620
 0.8750	59.8750
 0.8760	59.8780
 0.8770	59.8760
 0.8780	59.8820
 0.8790	59.8800
 0.8800	59.8680
 0.8810	59.8690
 0.8820	59.8730
 0.8830	59.8730
 0.8840	59.8660
 0.8850	59.8600
 0.8860	59.8490
 0.8870	59.8440
 0.8880	59.8490
 0.8890	59.8410
 0.8900	59.8290
 0.8910	59.8170
 0.8920	59.8070
 0.8930	59.7900
 0.8940	59.7870
 0.8950	59.7860
 0.8960	59.7650
 0.8970	59.7580
 0.8980	59.7470
 0.8990	59.7310
 0.9000	59.7210
 0.9010	59.7020
 0.9020	59.6860
 0.9030	59.6780
 0.9040	59.6610
 0.9050	59.6350
 0.9060	59.6090
 0.9070	59.5940
 0.9080	59.5940
 0.9090	59.5790
 0.9100	59.5540
 0.9110	59.5300
 0.9120	59.5220
 0.9130	59.4950
 0.9140	59.4670
 0.9150	59.4610
 0.9160	59.4340
 0.9170	59.4100
 0.9180	59.3830
 0.9190	59.3440
 0.9200	59.3290
 0.9210	59.3030
 0.9220	59.2660
 0.9230	59.2360
 0.9240	59.1990
 0.9250	59.1590
 0.9260	59.1140
 0.9270	59.0590
 0.9280	59.0100
 0.9290	58.9540
 0.9300	58.8910
 0.9310	58.8250
 0.9320	58.7610
 0.9330	58.7010
 0.9340	58.6360
 0.9350	58.5550
 0.9360	58.4880
 0.9370	58.4160
 0.9380	58.3330
 0.9390	58.2610
 0.9400	58.1730
 0.9410	58.0760
 0.9420	57.9760
 0.9430	57.8740
 0.9440	57.7650
 0.9450	57.6590
 0.9460	57.5530
 0.9470	57.4130
 0.9480	57.2580
 0.9490	57.1030
 0.9500	56.9540
 0.9510	56.7930
 0.9520	56.6250
 0.9530	56.4440
 0.9540	56.2490
 0.9550	56.0560
 0.9560	55.8700
 0.9570	55.7020
 0.9580	55.5520
 0.9590	55.3940
 0.9600	55.2330
 0.9610	55.1050
 0.9620	55.0270
 0.9630	54.9440
 0.9640	54.8490
 0.9650	54.7620
 0.9660	54.7100
 0.9670	54.6830
 0.9680	54.6280
 0.9690	54.5680
 0.9700	54.5420
 0.9710	54.5010
 0.9720	54.4850
 0.9730	54.4820
 0.9740	54.4620
 0.9750	54.4410
 0.9760	54.4230
 0.9770	54.4260
 0.9780	54.4530
 0.9790	54.4480
 0.9800	54.4360
 0.9810	54.4500
 0.9820	54.5070
 0.9830	54.5470
 0.9840	54.5650
 0.9850	54.5870
 0.9860	54.6430
 0.9870	54.6880
 0.9880	54.7350
 0.9890	54.7910
 0.9900	54.8520
 0.9910	54.9200
 0.9920	54.9780
 0.9930	55.0300
 0.9940	55.0880
 0.9950	55.1580
 0.9960	55.2400
 0.9970	55.3090
 0.9980	55.3480
 0.9990	55.4210
 1.0000	55.4460
 1.0010	55.3270
 1.0020	55.3450
 1.0030	55.4310
 1.0040	55.5140
 1.0050	55.5910
 1.0060	55.6730
 1.0070	55.7520
 1.0080	55.8280
 1.0090	55.9000
 1.0100	55.9770
 1.0110	56.0560
 1.0120	56.1340
 1.0130	56.2150
 1.0140	56.2940
 1.0150	56.3730
 1.0160	56.4500
 1.0170	56.5240
 1.0180	56.6030
 1.0190	56.6800
 1.0200	56.7500
 1.0210	56.8290
 1.0220	56.9120
 1.0230	56.9890
 1.0240	57.0700
 1.0250	57.1420
 1.0260	57.2080
 1.0270	57.2730
 1.0280	57.3300
 1.0290	57.3950
 1.0300	57.4610
 1.0310	57.5250
 1.0320	57.5930
 1.0330	57.6560
 1.0340	57.7160
 1.0350	57.7720
 1.0360	57.8250
 1.0370	57.8870
 1.0380	57.9440
 1.0390	58.0000
 1.0400	58.0510
 1.0410	58.0980
 1.0420	58.1450
 1.0430	58.1880
 1.0440	58.2320
 1.0450	58.2770
 1.0460	58.3210
 1.0470	58.3600
 1.0480	58.4040
 1.0490	58.4540
 1.0500	58.4960
 1.0510	58.5370
 1.0520	58.5780
 1.0530	58.6130
 1.0540	58.6400
 1.0550	58.6690
 1.0560	58.6950
 1.0570	58.7250
 1.0580	58.7590
 1.0590	58.7840
 1.0600	58.8070
 1.0610	58.8310
 1.0620	58.8460
 1.0630	58.8670
 1.0640	58.8950
 1.0650	58.9180
 1.0660	58.9410
 1.0670	58.9570
 1.0680	58.9700
 1.0690	58.9780
 1.0700	58.9860
 1.0710	58.9870
 1.0720	58.9920
 1.0730	59.0010
 1.0740	59.0030
 1.0750	59.0010
 1.0760	59.0000
 1.0770	58.9940
 1.0780	58.9900
 1.0790	58.9900
 1.0800	58.9850
 1.0810	58.9790
 1.0820	58.9710
 1.0830	58.9600
 1.0840	58.9480
 1.0850	58.9310
 1.0860	58.9190
 1.0870	58.9020
 1.0880	58.8840
 1.0890	58.8630
 1.0900	58.8400
 1.0910	58.8140
 1.0920	58.7840
 1.0930	58.7560
 1.0940	58.7310
 1.0950	58.6990
 1.0960	58.6640
 1.0970	58.6290
 1.0980	58.5920
 1.0990	58.5530
 1.1000	58.5140
 1.1010	58.4750
 1.1020	58.4330
 1.1030	58.3900
 1.1040	58.3450
 1.1050	58.3000
 1.1060	58.2550
 1.1070	58.2100
 1.1080	58.1600
 1.1090	58.1100
 1.1100	58.0580
 1.1110	57.9990
 1.1120	57.9390
 1.1130	57.8840
 1.1140	57.8190
 1.1150	57.7510
 1.1160	57.6770
 1.1170	57.5990
 1.1180	57.5120
 1.1190	57.4210
 1.1200	57.3180
 1.1210	57.2090
 1.1220	57.0940
 1.1230	56.9680
 1.1240	56.8330
 1.1250	56.6810
 1.1260	56.5190
 1.1270	56.3390
 1.1280	56.1450
 1.1290	55.9340
 1.1300	55.7130
 1.1310	55.4680
 1.1320	55.2030
 1.1330	54.9220
 1.1340	54.6220
 1.1350	54.3080
 1.1360	53.9790
 1.1370	53.6360
 1.1380	53.2860
 1.1390	52.9250
 1.1400	52.5520
 1.1410	52.1810
 1.1420	51.8070
 1.1430	51.4300
 1.1440	51.0610
 1.1450	50.6930
 1.1460	50.3390
 1.1470	49.9850
 1.1480	49.6550
 1.1490	49.3340
 1.1500	49.0370
 1.1510	48.7560
 1.1520	48.4970
 1.1530	48.2560
 1.1540	48.0370
 1.1550	47.8360
 1.1560	47.6560
 1.1570	47.4950
 1.1580	47.3520
 1.1590	47.2240
 1.1600	47.1070
 1.1610	47.0030
 1.1620	46.9120
 1.1630	46.8290
 1.1640	46.7560
 1.1650	46.6920
 1.1660	46.6400
 1.1670	46.5890
 1.1680	46.5490
 1.1690	46.5100
 1.1700	46.4750
 1.1710	46.4410
 1.1720	46.4120
 1.1730	46.3800
 1.1740	46.3460
 1.1750	46.3140
 1.1760	46.2800
 1.1770	46.2450
 1.1780	46.2060
 1.1790	46.1680
 1.1800	46.1270
 1.1810	46.0840
 1.1820	46.0420
 1.1830	46.0000
 1.1840	45.9580
 1.1850	45.9170
 1.1860	45.8740
 1.1870	45.8310
 1.1880	45.7920
 1.1890	45.7530
 1.1900	45.7210
 1.1910	45.6950
 1.1920	45.6710
 1.1930	45.6520
 1.1940	45.6350
 1.1950	45.6200
 1.1960	45.6080
 1.1970	45.6010
 1.1980	45.5990
 1.1990	45.6040
 1.2000	45.6150
 1.2010	45.6320
 1.2020	45.6500
 1.2030	45.6710
 1.2040	45.6970
 1.2050	45.7270
 1.2060	45.7610
 1.2070	45.7990
 1.2080	45.8390
 1.2090	45.8840
 1.2100	45.9320
 1.2110	45.9840
 1.2120	46.0390
 1.2130	46.0970
 1.2140	46.1560
 1.2150	46.2200
 1.2160	46.2880
 1.2170	46.3580
 1.2180	46.4310
 1.2190	46.5050
 1.2200	46.5800
 1.2210	46.6590
 1.2220	46.7390
 1.2230	46.8200
 1.2240	46.9020
 1.2250	46.9810
 1.2260	47.0580
 1.2270	47.1350
 1.2280	47.2110
 1.2290	47.2880
 1.2300	47.3620
 1.2310	47.4350
 1.2320	47.5070
 1.2330	47.5750
 1.2340	47.6410
 1.2350	47.7060
 1.2360	47.7700
 1.2370	47.8310
 1.2380	47.8930
 1.2390	47.9540
 1.2400	48.0130
 1.2410	48.0700
 1.2420	48.1240
 1.2430	48.1800
 1.2440	48.2340
 1.2450	48.2830
 1.2460	48.3300
 1.2470	48.3730
 1.2480	48.4170
 1.2490	48.4610
 1.2500	48.5030
 1.2510	48.5440
 1.2520	48.5820
 1.2530	48.6160
 1.2540	48.6500
 1.2550	48.6820
 1.2560	48.7130
 1.2570	48.7390
 1.2580	48.7630
 1.2590	48.7840
 1.2600	48.8000
 1.2610	48.8170
 1.2620	48.8340
 1.2630	48.8490
 1.2640	48.8620
 1.2650	48.8730
 1.2660	48.8780
 1.2670	48.8830
 1.2680	48.8850
 1.2690	48.8840
 1.2700	48.8820
 1.2710	48.8750
 1.2720	48.8670
 1.2730	48.8550
 1.2740	48.8410
 1.2750	48.8270
 1.2760	48.8060
 1.2770	48.7810
 1.2780	48.7590
 1.2790	48.7300
 1.2800	48.6990
 1.2810	48.6690
 1.2820	48.6320
 1.2830	48.5940
 1.2840	48.5550
 1.2850	48.5110
 1.2860	48.4620
 1.2870	48.4100
 1.2880	48.3540
 1.2890	48.2940
 1.2900	48.2290
 1.2910	48.1610
 1.2920	48.0900
 1.2930	48.0140
 1.2940	47.9340
 1.2950	47.8500
 1.2960	47.7560
 1.2970	47.6590
 1.2980	47.5570
 1.2990	47.4480
 1.3000	47.3370
 1.3010	47.2210
 1.3020	47.0950
 1.3030	46.9660
 1.3040	46.8310
 1.3050	46.6910
 1.3060	46.5470
 1.3070	46.3970
 1.3080	46.2400
 1.3090	46.0760
 1.3100	45.9060
 1.3110	45.7280
 1.3120	45.5430
 1.3130	45.3530
 1.3140	45.1570
 1.3150	44.9540
 1.3160	44.7460
 1.3170	44.5360
 1.3180	44.3180
 1.3190	44.0930
 1.3200	43.8640
 1.3210	43.6300
 1.3220	43.3920
 1.3230	43.1530
 1.3240	42.9080
 1.3250	42.6600
 1.3260	42.4090
 1.3270	42.1540
 1.3280	41.8970
 1.3290	41.6370
 1.3300	41.3740
 1.3310	41.1090
 1.3320	40.8440
 1.3330	40.5830
 1.3340	40.3220
 1.3350	40.0600
 1.3360	39.8000
 1.3370	39.5380
 1.3380	39.2770
 1.3390	39.0210
 1.3400	38.7680
 1.3410	38.5220
 1.3420	38.2800
 1.3430	38.0410
 1.3440	37.8050
 1.3450	37.5720
 1.3460	37.3400
 1.3470	37.1170
 1.3480	36.8990
 1.3490	36.6860
 1.3500	36.4790
 1.3510	36.2750
 1.3520	36.0700
 1.3530	35.8700
 1.3540	35.6720
 1.3550	35.4740
 1.3560	35.2790
 1.3570	35.0820
 1.3580	34.8830
 1.3590	34.6810
 1.3600	34.4760
 1.3610	34.2650
 1.3620	34.0470
 1.3630	33.8240
 1.3640	33.5940
 1.3650	33.3550
 1.3660	33.1100
 1.3670	32.8540
 1.3680	32.5850
 1.3690	32.3040
 1.3700	32.0080
 1.3710	31.7020
 1.3720	31.3830
 1.3730	31.0460
 1.3740	30.6970
 1.3750	30.3290
 1.3760	29.9410
 1.3770	29.5350
 1.3780	29.1040
 1.3790	28.6550
 1.3800	28.1890
 1.3810	27.7010
 1.3820	27.2020
 1.3830	26.6890
 1.3840	26.1630
 1.3850	25.6210
 1.3860	25.0780
 1.3870	24.5190
 1.3880	23.9690
 1.3890	23.4170
 1.3900	22.8670
 1.3910	22.3280
 1.3920	21.7930
 1.3930	21.2640
 1.3940	20.7470
 1.3950	20.2370
 1.3960	19.7440
 1.3970	19.2690
 1.3980	18.8110
 1.3990	18.3780
 1.4000	17.9620
 1.4010	17.5640
 1.4020	17.1870
 1.4030	16.8290
 1.4040	16.4900
 1.4050	16.1730
 1.4060	15.8750
 1.4070	15.5970
 1.4080	15.3370
 1.4090	15.0940
 1.4100	14.8690
 1.4110	14.6580
 1.4120	14.4630
 1.4130	14.2820
 1.4140	14.1150
 1.4150	13.9630
 1.4160	13.8210
 1.4170	13.6910
 1.4180	13.5710
 1.4190	13.4590
 1.4200	13.3560
 1.4210	13.2630
 1.4220	13.1770
 1.4230	13.1000
 1.4240	13.0290
 1.4250	12.9640
 1.4260	12.9050
 1.4270	12.8510
 1.4280	12.8030
 1.4290	12.7590
 1.4300	12.7200
 1.4310	12.6860
 1.4320	12.6560
 1.4330	12.6290
 1.4340	12.6060
 1.4350	12.5860
 1.4360	12.5680
 1.4370	12.5520
 1.4380	12.5400
 1.4390	12.5310
 1.4400	12.5260
 1.4410	12.5220
 1.4420	12.5210
 1.4430	12.5210
 1.4440	12.5230
 1.4450	12.5260
 1.4460	12.5310
 1.4470	12.5370
 1.4480	12.5440
 1.4490	12.5520
 1.4500	12.5600
 1.4510	12.5690
 1.4520	12.5790
 1.4530	12.5900
 1.4540	12.6020
 1.4550	12.6170
 1.4560	12.6320
 1.4570	12.6490
 1.4580	12.6690
 1.4590	12.6890
 1.4600	12.7120
 1.4610	12.7380
 1.4620	12.7650
 1.4630	12.7960
 1.4640	12.8290
 1.4650	12.8640
 1.4660	12.9020
 1.4670	12.9440
 1.4680	12.9890
 1.4690	13.0390
 1.4700	13.0910
