Name: Quercus agrifolia 3
Type: vegetation
Class: Tree
Genus: Quercus
Species: agrifolia
Sample No.: VH180
Owner: UCSB
Wavelength Range: VSWIR
Origin: 34.7165; -120.0603; WGS84
Collection Date: 6/9/2013
Description: Samples were collected as part of the HyspIRI Airborne Campaign. 48 individual plants were sampled in three times in 2013 - spring  summer  and fall. The name of the sample includes a 1  2  or 3 which references a different individual of the species. Samples were taken to JPL and processed within 48 hours of collection. The same leaves were processed in the Nicolet and then measured using the ASD.
Measurement: Bidirectional reflectance
First Column: X
Second Column: Y
X Units: Wavelength (micrometers)
Y Units: Reflectance (percentage)
First X Value: 0.35
Last X Value: 2.5
Number of X Values: 2151
Additional Information: vegetation.tree.quercus.agrifolia.vswir.vh180.ucsb.asd.ancillary.txt

 0.3500	 3.7290
 0.3510	 3.7240
 0.3520	 3.6450
 0.3530	 3.6660
 0.3540	 3.8490
 0.3550	 3.7730
 0.3560	 3.7340
 0.3570	 3.7010
 0.3580	 3.5130
 0.3590	 3.5500
 0.3600	 3.6190
 0.3610	 3.6360
 0.3620	 3.7330
 0.3630	 3.7030
 0.3640	 3.6370
 0.3650	 3.6350
 0.3660	 3.5370
 0.3670	 3.5160
 0.3680	 3.5710
 0.3690	 3.5880
 0.3700	 3.6830
 0.3710	 3.7220
 0.3720	 3.6690
 0.3730	 3.6960
 0.3740	 3.6540
 0.3750	 3.6240
 0.3760	 3.6980
 0.3770	 3.6820
 0.3780	 3.6650
 0.3790	 3.6780
 0.3800	 3.6850
 0.3810	 3.6810
 0.3820	 3.6220
 0.3830	 3.5330
 0.3840	 3.5750
 0.3850	 3.6210
 0.3860	 3.6190
 0.3870	 3.5770
 0.3880	 3.5570
 0.3890	 3.5710
 0.3900	 3.6080
 0.3910	 3.6240
 0.3920	 3.6050
 0.3930	 3.5850
 0.3940	 3.5950
 0.3950	 3.5960
 0.3960	 3.6160
 0.3970	 3.6180
 0.3980	 3.5680
 0.3990	 3.5500
 0.4000	 3.5780
 0.4010	 3.6170
 0.4020	 3.5750
 0.4030	 3.5670
 0.4040	 3.6020
 0.4050	 3.6420
 0.4060	 3.6450
 0.4070	 3.6240
 0.4080	 3.6010
 0.4090	 3.5920
 0.4100	 3.6210
 0.4110	 3.6410
 0.4120	 3.6390
 0.4130	 3.6690
 0.4140	 3.6840
 0.4150	 3.6880
 0.4160	 3.7000
 0.4170	 3.6980
 0.4180	 3.7040
 0.4190	 3.7230
 0.4200	 3.7320
 0.4210	 3.7480
 0.4220	 3.7620
 0.4230	 3.7700
 0.4240	 3.7910
 0.4250	 3.8010
 0.4260	 3.8090
 0.4270	 3.8210
 0.4280	 3.8320
 0.4290	 3.8460
 0.4300	 3.8620
 0.4310	 3.8640
 0.4320	 3.8860
 0.4330	 3.9140
 0.4340	 3.9300
 0.4350	 3.9380
 0.4360	 3.9410
 0.4370	 3.9470
 0.4380	 3.9640
 0.4390	 3.9680
 0.4400	 3.9640
 0.4410	 3.9620
 0.4420	 3.9780
 0.4430	 4.0010
 0.4440	 4.0140
 0.4450	 4.0100
 0.4460	 4.0210
 0.4470	 4.0310
 0.4480	 4.0310
 0.4490	 4.0370
 0.4500	 4.0530
 0.4510	 4.0690
 0.4520	 4.0780
 0.4530	 4.0810
 0.4540	 4.0920
 0.4550	 4.1030
 0.4560	 4.1040
 0.4570	 4.1100
 0.4580	 4.1230
 0.4590	 4.1340
 0.4600	 4.1230
 0.4610	 4.1190
 0.4620	 4.1280
 0.4630	 4.1340
 0.4640	 4.1360
 0.4650	 4.1440
 0.4660	 4.1510
 0.4670	 4.1360
 0.4680	 4.1430
 0.4690	 4.1490
 0.4700	 4.1430
 0.4710	 4.1550
 0.4720	 4.1540
 0.4730	 4.1480
 0.4740	 4.1460
 0.4750	 4.1590
 0.4760	 4.1660
 0.4770	 4.1610
 0.4780	 4.1550
 0.4790	 4.1540
 0.4800	 4.1570
 0.4810	 4.1540
 0.4820	 4.1590
 0.4830	 4.1650
 0.4840	 4.1700
 0.4850	 4.1730
 0.4860	 4.1860
 0.4870	 4.2000
 0.4880	 4.2110
 0.4890	 4.2140
 0.4900	 4.2180
 0.4910	 4.2260
 0.4920	 4.2520
 0.4930	 4.2680
 0.4940	 4.2790
 0.4950	 4.2930
 0.4960	 4.3200
 0.4970	 4.3380
 0.4980	 4.3480
 0.4990	 4.3700
 0.5000	 4.3980
 0.5010	 4.4260
 0.5020	 4.4520
 0.5030	 4.4870
 0.5040	 4.5230
 0.5050	 4.5670
 0.5060	 4.6150
 0.5070	 4.6770
 0.5080	 4.7300
 0.5090	 4.7850
 0.5100	 4.8550
 0.5110	 4.9230
 0.5120	 4.9950
 0.5130	 5.0800
 0.5140	 5.1790
 0.5150	 5.2840
 0.5160	 5.3890
 0.5170	 5.4970
 0.5180	 5.6210
 0.5190	 5.7500
 0.5200	 5.8750
 0.5210	 6.0070
 0.5220	 6.1530
 0.5230	 6.2990
 0.5240	 6.4330
 0.5250	 6.5590
 0.5260	 6.6890
 0.5270	 6.8170
 0.5280	 6.9410
 0.5290	 7.0510
 0.5300	 7.1530
 0.5310	 7.2510
 0.5320	 7.3480
 0.5330	 7.4330
 0.5340	 7.5080
 0.5350	 7.5740
 0.5360	 7.6380
 0.5370	 7.6930
 0.5380	 7.7410
 0.5390	 7.7890
 0.5400	 7.8350
 0.5410	 7.8790
 0.5420	 7.9250
 0.5430	 7.9690
 0.5440	 8.0110
 0.5450	 8.0420
 0.5460	 8.0670
 0.5470	 8.0840
 0.5480	 8.1010
 0.5490	 8.1210
 0.5500	 8.1370
 0.5510	 8.1470
 0.5520	 8.1500
 0.5530	 8.1490
 0.5540	 8.1340
 0.5550	 8.1110
 0.5560	 8.0810
 0.5570	 8.0410
 0.5580	 7.9950
 0.5590	 7.9410
 0.5600	 7.8810
 0.5610	 7.8210
 0.5620	 7.7570
 0.5630	 7.6920
 0.5640	 7.6240
 0.5650	 7.5420
 0.5660	 7.4560
 0.5670	 7.3650
 0.5680	 7.2660
 0.5690	 7.1670
 0.5700	 7.0720
 0.5710	 6.9810
 0.5720	 6.8890
 0.5730	 6.8050
 0.5740	 6.7280
 0.5750	 6.6640
 0.5760	 6.6140
 0.5770	 6.5690
 0.5780	 6.5180
 0.5790	 6.4650
 0.5800	 6.4130
 0.5810	 6.3670
 0.5820	 6.3190
 0.5830	 6.2730
 0.5840	 6.2250
 0.5850	 6.1750
 0.5860	 6.1270
 0.5870	 6.0840
 0.5880	 6.0430
 0.5890	 6.0150
 0.5900	 5.9990
 0.5910	 5.9900
 0.5920	 5.9810
 0.5930	 5.9670
 0.5940	 5.9510
 0.5950	 5.9320
 0.5960	 5.9100
 0.5970	 5.8900
 0.5980	 5.8650
 0.5990	 5.8390
 0.6000	 5.8160
 0.6010	 5.7940
 0.6020	 5.7730
 0.6030	 5.7490
 0.6040	 5.7240
 0.6050	 5.6980
 0.6060	 5.6700
 0.6070	 5.6360
 0.6080	 5.6090
 0.6090	 5.5790
 0.6100	 5.5470
 0.6110	 5.5220
 0.6120	 5.4850
 0.6130	 5.4400
 0.6140	 5.3910
 0.6150	 5.3530
 0.6160	 5.3180
 0.6170	 5.2860
 0.6180	 5.2590
 0.6190	 5.2280
 0.6200	 5.2020
 0.6210	 5.1830
 0.6220	 5.1640
 0.6230	 5.1470
 0.6240	 5.1350
 0.6250	 5.1220
 0.6260	 5.1080
 0.6270	 5.1050
 0.6280	 5.1040
 0.6290	 5.0990
 0.6300	 5.0910
 0.6310	 5.0860
 0.6320	 5.0810
 0.6330	 5.0740
 0.6340	 5.0600
 0.6350	 5.0400
 0.6360	 5.0210
 0.6370	 4.9980
 0.6380	 4.9680
 0.6390	 4.9350
 0.6400	 4.9000
 0.6410	 4.8620
 0.6420	 4.8240
 0.6430	 4.7880
 0.6440	 4.7510
 0.6450	 4.7140
 0.6460	 4.6790
 0.6470	 4.6410
 0.6480	 4.6100
 0.6490	 4.5810
 0.6500	 4.5580
 0.6510	 4.5410
 0.6520	 4.5240
 0.6530	 4.5110
 0.6540	 4.4950
 0.6550	 4.4760
 0.6560	 4.4540
 0.6570	 4.4320
 0.6580	 4.4120
 0.6590	 4.3880
 0.6600	 4.3580
 0.6610	 4.3300
 0.6620	 4.3110
 0.6630	 4.2900
 0.6640	 4.2690
 0.6650	 4.2490
 0.6660	 4.2340
 0.6670	 4.2220
 0.6680	 4.2120
 0.6690	 4.2080
 0.6700	 4.2030
 0.6710	 4.1990
 0.6720	 4.2010
 0.6730	 4.2130
 0.6740	 4.2220
 0.6750	 4.2310
 0.6760	 4.2430
 0.6770	 4.2590
 0.6780	 4.2770
 0.6790	 4.2960
 0.6800	 4.3250
 0.6810	 4.3580
 0.6820	 4.3930
 0.6830	 4.4270
 0.6840	 4.4690
 0.6850	 4.5180
 0.6860	 4.5760
 0.6870	 4.6470
 0.6880	 4.7310
 0.6890	 4.8300
 0.6900	 4.9550
 0.6910	 5.1050
 0.6920	 5.2840
 0.6930	 5.5030
 0.6940	 5.7650
 0.6950	 6.0740
 0.6960	 6.4310
 0.6970	 6.8390
 0.6980	 7.2990
 0.6990	 7.8050
 0.7000	 8.3600
 0.7010	 8.9560
 0.7020	 9.5830
 0.7030	10.2390
 0.7040	10.9190
 0.7050	11.6120
 0.7060	12.3150
 0.7070	13.0230
 0.7080	13.7370
 0.7090	14.4560
 0.7100	15.1710
 0.7110	15.8860
 0.7120	16.5970
 0.7130	17.2980
 0.7140	18.0000
 0.7150	18.6950
 0.7160	19.3780
 0.7170	20.0550
 0.7180	20.7220
 0.7190	21.3790
 0.7200	22.0230
 0.7210	22.6510
 0.7220	23.2640
 0.7230	23.8610
 0.7240	24.4440
 0.7250	25.0040
 0.7260	25.5470
 0.7270	26.0780
 0.7280	26.5740
 0.7290	27.0540
 0.7300	27.5160
 0.7310	27.9510
 0.7320	28.3710
 0.7330	28.7720
 0.7340	29.1500
 0.7350	29.5040
 0.7360	29.8420
 0.7370	30.1640
 0.7380	30.4700
 0.7390	30.7550
 0.7400	31.0230
 0.7410	31.2730
 0.7420	31.5090
 0.7430	31.7280
 0.7440	31.9330
 0.7450	32.1230
 0.7460	32.2970
 0.7470	32.4620
 0.7480	32.6120
 0.7490	32.7480
 0.7500	32.8790
 0.7510	32.9940
 0.7520	33.0980
 0.7530	33.2000
 0.7540	33.2850
 0.7550	33.3680
 0.7560	33.4480
 0.7570	33.5110
 0.7580	33.5770
 0.7590	33.6370
 0.7600	33.6880
 0.7610	33.7410
 0.7620	33.7850
 0.7630	33.8240
 0.7640	33.8600
 0.7650	33.8950
 0.7660	33.9280
 0.7670	33.9580
 0.7680	33.9880
 0.7690	34.0110
 0.7700	34.0300
 0.7710	34.0480
 0.7720	34.0740
 0.7730	34.0940
 0.7740	34.1100
 0.7750	34.1250
 0.7760	34.1430
 0.7770	34.1600
 0.7780	34.1740
 0.7790	34.1870
 0.7800	34.2020
 0.7810	34.2200
 0.7820	34.2390
 0.7830	34.2570
 0.7840	34.2690
 0.7850	34.2810
 0.7860	34.2960
 0.7870	34.3080
 0.7880	34.3170
 0.7890	34.3270
 0.7900	34.3430
 0.7910	34.3510
 0.7920	34.3650
 0.7930	34.3840
 0.7940	34.3950
 0.7950	34.4040
 0.7960	34.4120
 0.7970	34.4230
 0.7980	34.4360
 0.7990	34.4520
 0.8000	34.4640
 0.8010	34.4680
 0.8020	34.4750
 0.8030	34.4810
 0.8040	34.4890
 0.8050	34.5000
 0.8060	34.5080
 0.8070	34.5120
 0.8080	34.5190
 0.8090	34.5330
 0.8100	34.5430
 0.8110	34.5550
 0.8120	34.5670
 0.8130	34.5700
 0.8140	34.5740
 0.8150	34.5790
 0.8160	34.5840
 0.8170	34.5920
 0.8180	34.5970
 0.8190	34.6030
 0.8200	34.6170
 0.8210	34.6230
 0.8220	34.6310
 0.8230	34.6430
 0.8240	34.6500
 0.8250	34.6520
 0.8260	34.6600
 0.8270	34.6720
 0.8280	34.6720
 0.8290	34.6770
 0.8300	34.6850
 0.8310	34.6930
 0.8320	34.6950
 0.8330	34.7030
 0.8340	34.7160
 0.8350	34.7240
 0.8360	34.7290
 0.8370	34.7320
 0.8380	34.7370
 0.8390	34.7550
 0.8400	34.7680
 0.8410	34.7780
 0.8420	34.7880
 0.8430	34.7960
 0.8440	34.8010
 0.8450	34.8080
 0.8460	34.8220
 0.8470	34.8330
 0.8480	34.8460
 0.8490	34.8600
 0.8500	34.8680
 0.8510	34.8790
 0.8520	34.8860
 0.8530	34.8920
 0.8540	34.9050
 0.8550	34.9180
 0.8560	34.9280
 0.8570	34.9350
 0.8580	34.9420
 0.8590	34.9510
 0.8600	34.9600
 0.8610	34.9700
 0.8620	34.9780
 0.8630	34.9860
 0.8640	34.9940
 0.8650	35.0040
 0.8660	35.0140
 0.8670	35.0220
 0.8680	35.0310
 0.8690	35.0440
 0.8700	35.0550
 0.8710	35.0580
 0.8720	35.0580
 0.8730	35.0710
 0.8740	35.0810
 0.8750	35.0930
 0.8760	35.1050
 0.8770	35.1070
 0.8780	35.1100
 0.8790	35.1200
 0.8800	35.1340
 0.8810	35.1400
 0.8820	35.1420
 0.8830	35.1460
 0.8840	35.1550
 0.8850	35.1610
 0.8860	35.1640
 0.8870	35.1690
 0.8880	35.1760
 0.8890	35.1820
 0.8900	35.1830
 0.8910	35.1890
 0.8920	35.2090
 0.8930	35.2100
 0.8940	35.2080
 0.8950	35.2130
 0.8960	35.2210
 0.8970	35.2200
 0.8980	35.2150
 0.8990	35.2150
 0.9000	35.2260
 0.9010	35.2420
 0.9020	35.2520
 0.9030	35.2550
 0.9040	35.2610
 0.9050	35.2600
 0.9060	35.2580
 0.9070	35.2570
 0.9080	35.2560
 0.9090	35.2600
 0.9100	35.2650
 0.9110	35.2670
 0.9120	35.2740
 0.9130	35.2760
 0.9140	35.2740
 0.9150	35.2730
 0.9160	35.2780
 0.9170	35.2820
 0.9180	35.2850
 0.9190	35.2890
 0.9200	35.2870
 0.9210	35.2840
 0.9220	35.2850
 0.9230	35.2910
 0.9240	35.2910
 0.9250	35.2860
 0.9260	35.2790
 0.9270	35.2750
 0.9280	35.2650
 0.9290	35.2570
 0.9300	35.2540
 0.9310	35.2490
 0.9320	35.2480
 0.9330	35.2460
 0.9340	35.2420
 0.9350	35.2330
 0.9360	35.2220
 0.9370	35.2080
 0.9380	35.1940
 0.9390	35.1880
 0.9400	35.1820
 0.9410	35.1690
 0.9420	35.1510
 0.9430	35.1380
 0.9440	35.1220
 0.9450	35.1040
 0.9460	35.0840
 0.9470	35.0670
 0.9480	35.0400
 0.9490	35.0070
 0.9500	34.9780
 0.9510	34.9550
 0.9520	34.9280
 0.9530	34.8960
 0.9540	34.8600
 0.9550	34.8290
 0.9560	34.7920
 0.9570	34.7480
 0.9580	34.7070
 0.9590	34.6820
 0.9600	34.6550
 0.9610	34.6290
 0.9620	34.6060
 0.9630	34.5780
 0.9640	34.5650
 0.9650	34.5550
 0.9660	34.5350
 0.9670	34.5230
 0.9680	34.5200
 0.9690	34.5160
 0.9700	34.4980
 0.9710	34.4850
 0.9720	34.4750
 0.9730	34.4770
 0.9740	34.4900
 0.9750	34.4860
 0.9760	34.4850
 0.9770	34.4880
 0.9780	34.4830
 0.9790	34.4660
 0.9800	34.4760
 0.9810	34.4990
 0.9820	34.5010
 0.9830	34.5030
 0.9840	34.5160
 0.9850	34.5220
 0.9860	34.5080
 0.9870	34.5350
 0.9880	34.5580
 0.9890	34.5650
 0.9900	34.5680
 0.9910	34.5870
 0.9920	34.6150
 0.9930	34.6360
 0.9940	34.6390
 0.9950	34.6470
 0.9960	34.6600
 0.9970	34.6820
 0.9980	34.7140
 0.9990	34.7370
 1.0000	34.8250
 1.0010	34.9840
 1.0020	35.0810
 1.0030	35.1020
 1.0040	35.1200
 1.0050	35.1380
 1.0060	35.1560
 1.0070	35.1770
 1.0080	35.1960
 1.0090	35.2170
 1.0100	35.2370
 1.0110	35.2560
 1.0120	35.2750
 1.0130	35.2930
 1.0140	35.3120
 1.0150	35.3310
 1.0160	35.3500
 1.0170	35.3670
 1.0180	35.3810
 1.0190	35.3970
 1.0200	35.4140
 1.0210	35.4370
 1.0220	35.4580
 1.0230	35.4760
 1.0240	35.4930
 1.0250	35.5100
 1.0260	35.5240
 1.0270	35.5390
 1.0280	35.5580
 1.0290	35.5720
 1.0300	35.5810
 1.0310	35.5940
 1.0320	35.6080
 1.0330	35.6210
 1.0340	35.6360
 1.0350	35.6520
 1.0360	35.6680
 1.0370	35.6830
 1.0380	35.6970
 1.0390	35.7110
 1.0400	35.7240
 1.0410	35.7340
 1.0420	35.7460
 1.0430	35.7580
 1.0440	35.7690
 1.0450	35.7760
 1.0460	35.7860
 1.0470	35.7980
 1.0480	35.8100
 1.0490	35.8250
 1.0500	35.8380
 1.0510	35.8520
 1.0520	35.8620
 1.0530	35.8720
 1.0540	35.8820
 1.0550	35.8910
 1.0560	35.9000
 1.0570	35.9080
 1.0580	35.9160
 1.0590	35.9240
 1.0600	35.9300
 1.0610	35.9400
 1.0620	35.9540
 1.0630	35.9640
 1.0640	35.9730
 1.0650	35.9810
 1.0660	35.9860
 1.0670	35.9920
 1.0680	35.9970
 1.0690	36.0030
 1.0700	36.0090
 1.0710	36.0130
 1.0720	36.0200
 1.0730	36.0310
 1.0740	36.0370
 1.0750	36.0430
 1.0760	36.0470
 1.0770	36.0460
 1.0780	36.0500
 1.0790	36.0530
 1.0800	36.0570
 1.0810	36.0620
 1.0820	36.0670
 1.0830	36.0690
 1.0840	36.0720
 1.0850	36.0740
 1.0860	36.0760
 1.0870	36.0800
 1.0880	36.0840
 1.0890	36.0870
 1.0900	36.0910
 1.0910	36.0930
 1.0920	36.0920
 1.0930	36.0910
 1.0940	36.0880
 1.0950	36.0860
 1.0960	36.0820
 1.0970	36.0800
 1.0980	36.0770
 1.0990	36.0740
 1.1000	36.0740
 1.1010	36.0700
 1.1020	36.0650
 1.1030	36.0600
 1.1040	36.0550
 1.1050	36.0490
 1.1060	36.0420
 1.1070	36.0370
 1.1080	36.0290
 1.1090	36.0180
 1.1100	36.0080
 1.1110	35.9990
 1.1120	35.9890
 1.1130	35.9790
 1.1140	35.9680
 1.1150	35.9570
 1.1160	35.9440
 1.1170	35.9320
 1.1180	35.9160
 1.1190	35.8970
 1.1200	35.8790
 1.1210	35.8600
 1.1220	35.8360
 1.1230	35.8090
 1.1240	35.7800
 1.1250	35.7470
 1.1260	35.7090
 1.1270	35.6700
 1.1280	35.6300
 1.1290	35.5850
 1.1300	35.5360
 1.1310	35.4830
 1.1320	35.4260
 1.1330	35.3630
 1.1340	35.2970
 1.1350	35.2240
 1.1360	35.1460
 1.1370	35.0630
 1.1380	34.9750
 1.1390	34.8850
 1.1400	34.7910
 1.1410	34.6940
 1.1420	34.5940
 1.1430	34.4930
 1.1440	34.3920
 1.1450	34.2880
 1.1460	34.1870
 1.1470	34.0860
 1.1480	33.9890
 1.1490	33.8930
 1.1500	33.8030
 1.1510	33.7170
 1.1520	33.6350
 1.1530	33.5560
 1.1540	33.4840
 1.1550	33.4170
 1.1560	33.3560
 1.1570	33.3000
 1.1580	33.2490
 1.1590	33.2040
 1.1600	33.1650
 1.1610	33.1320
 1.1620	33.1020
 1.1630	33.0740
 1.1640	33.0490
 1.1650	33.0280
 1.1660	33.0120
 1.1670	32.9960
 1.1680	32.9850
 1.1690	32.9740
 1.1700	32.9620
 1.1710	32.9520
 1.1720	32.9450
 1.1730	32.9350
 1.1740	32.9260
 1.1750	32.9160
 1.1760	32.9060
 1.1770	32.8950
 1.1780	32.8840
 1.1790	32.8710
 1.1800	32.8580
 1.1810	32.8440
 1.1820	32.8320
 1.1830	32.8200
 1.1840	32.8050
 1.1850	32.7920
 1.1860	32.7790
 1.1870	32.7650
 1.1880	32.7540
 1.1890	32.7450
 1.1900	32.7360
 1.1910	32.7270
 1.1920	32.7200
 1.1930	32.7120
 1.1940	32.7060
 1.1950	32.7010
 1.1960	32.6970
 1.1970	32.6920
 1.1980	32.6910
 1.1990	32.6900
 1.2000	32.6910
 1.2010	32.6950
 1.2020	32.6970
 1.2030	32.6990
 1.2040	32.7040
 1.2050	32.7110
 1.2060	32.7200
 1.2070	32.7310
 1.2080	32.7430
 1.2090	32.7550
 1.2100	32.7690
 1.2110	32.7860
 1.2120	32.8050
 1.2130	32.8270
 1.2140	32.8510
 1.2150	32.8790
 1.2160	32.9100
 1.2170	32.9410
 1.2180	32.9760
 1.2190	33.0120
 1.2200	33.0480
 1.2210	33.0860
 1.2220	33.1240
 1.2230	33.1600
 1.2240	33.1970
 1.2250	33.2340
 1.2260	33.2720
 1.2270	33.3100
 1.2280	33.3470
 1.2290	33.3840
 1.2300	33.4180
 1.2310	33.4510
 1.2320	33.4820
 1.2330	33.5120
 1.2340	33.5410
 1.2350	33.5690
 1.2360	33.5960
 1.2370	33.6220
 1.2380	33.6470
 1.2390	33.6700
 1.2400	33.6940
 1.2410	33.7170
 1.2420	33.7400
 1.2430	33.7610
 1.2440	33.7840
 1.2450	33.8060
 1.2460	33.8290
 1.2470	33.8510
 1.2480	33.8700
 1.2490	33.8900
 1.2500	33.9070
 1.2510	33.9230
 1.2520	33.9400
 1.2530	33.9540
 1.2540	33.9680
 1.2550	33.9810
 1.2560	33.9940
 1.2570	34.0060
 1.2580	34.0170
 1.2590	34.0270
 1.2600	34.0350
 1.2610	34.0430
 1.2620	34.0500
 1.2630	34.0570
 1.2640	34.0630
 1.2650	34.0690
 1.2660	34.0750
 1.2670	34.0790
 1.2680	34.0810
 1.2690	34.0830
 1.2700	34.0830
 1.2710	34.0800
 1.2720	34.0790
 1.2730	34.0770
 1.2740	34.0750
 1.2750	34.0740
 1.2760	34.0740
 1.2770	34.0720
 1.2780	34.0660
 1.2790	34.0560
 1.2800	34.0470
 1.2810	34.0390
 1.2820	34.0310
 1.2830	34.0240
 1.2840	34.0160
 1.2850	34.0030
 1.2860	33.9890
 1.2870	33.9750
 1.2880	33.9590
 1.2890	33.9440
 1.2900	33.9290
 1.2910	33.9120
 1.2920	33.8930
 1.2930	33.8720
 1.2940	33.8510
 1.2950	33.8290
 1.2960	33.8060
 1.2970	33.7800
 1.2980	33.7530
 1.2990	33.7250
 1.3000	33.6950
 1.3010	33.6660
 1.3020	33.6340
 1.3030	33.5960
 1.3040	33.5570
 1.3050	33.5160
 1.3060	33.4720
 1.3070	33.4290
 1.3080	33.3820
 1.3090	33.3340
 1.3100	33.2830
 1.3110	33.2280
 1.3120	33.1690
 1.3130	33.1090
 1.3140	33.0460
 1.3150	32.9810
 1.3160	32.9130
 1.3170	32.8420
 1.3180	32.7690
 1.3190	32.6940
 1.3200	32.6160
 1.3210	32.5350
 1.3220	32.4520
 1.3230	32.3620
 1.3240	32.2680
 1.3250	32.1750
 1.3260	32.0790
 1.3270	31.9810
 1.3280	31.8810
 1.3290	31.7770
 1.3300	31.6710
 1.3310	31.5620
 1.3320	31.4510
 1.3330	31.3410
 1.3340	31.2280
 1.3350	31.1140
 1.3360	30.9990
 1.3370	30.8800
 1.3380	30.7610
 1.3390	30.6430
 1.3400	30.5230
 1.3410	30.4070
 1.3420	30.2920
 1.3430	30.1760
 1.3440	30.0610
 1.3450	29.9470
 1.3460	29.8320
 1.3470	29.7200
 1.3480	29.6100
 1.3490	29.5000
 1.3500	29.3930
 1.3510	29.2850
 1.3520	29.1770
 1.3530	29.0700
 1.3540	28.9620
 1.3550	28.8550
 1.3560	28.7480
 1.3570	28.6410
 1.3580	28.5340
 1.3590	28.4240
 1.3600	28.3120
 1.3610	28.1970
 1.3620	28.0770
 1.3630	27.9550
 1.3640	27.8290
 1.3650	27.6980
 1.3660	27.5640
 1.3670	27.4230
 1.3680	27.2730
 1.3690	27.1140
 1.3700	26.9450
 1.3710	26.7670
 1.3720	26.5790
 1.3730	26.3780
 1.3740	26.1670
 1.3750	25.9400
 1.3760	25.6980
 1.3770	25.4390
 1.3780	25.1600
 1.3790	24.8640
 1.3800	24.5500
 1.3810	24.2150
 1.3820	23.8670
 1.3830	23.5020
 1.3840	23.1220
 1.3850	22.7260
 1.3860	22.3200
 1.3870	21.8960
 1.3880	21.4680
 1.3890	21.0300
 1.3900	20.5850
 1.3910	20.1380
 1.3920	19.6870
 1.3930	19.2330
 1.3940	18.7820
 1.3950	18.3300
 1.3960	17.8850
 1.3970	17.4470
 1.3980	17.0170
 1.3990	16.6020
 1.4000	16.1990
 1.4010	15.8050
 1.4020	15.4280
 1.4030	15.0620
 1.4040	14.7120
 1.4050	14.3800
 1.4060	14.0640
 1.4070	13.7680
 1.4080	13.4890
 1.4090	13.2250
 1.4100	12.9790
 1.4110	12.7480
 1.4120	12.5320
 1.4130	12.3330
 1.4140	12.1490
 1.4150	11.9790
 1.4160	11.8240
 1.4170	11.6800
 1.4180	11.5500
 1.4190	11.4300
 1.4200	11.3180
 1.4210	11.2170
 1.4220	11.1250
 1.4230	11.0420
 1.4240	10.9680
 1.4250	10.9000
 1.4260	10.8400
 1.4270	10.7850
 1.4280	10.7370
 1.4290	10.6930
 1.4300	10.6560
 1.4310	10.6230
 1.4320	10.5960
 1.4330	10.5720
 1.4340	10.5520
 1.4350	10.5360
 1.4360	10.5240
 1.4370	10.5140
 1.4380	10.5100
 1.4390	10.5080
 1.4400	10.5070
 1.4410	10.5070
 1.4420	10.5110
 1.4430	10.5150
 1.4440	10.5210
 1.4450	10.5290
 1.4460	10.5380
 1.4470	10.5490
 1.4480	10.5610
 1.4490	10.5750
 1.4500	10.5880
 1.4510	10.6040
 1.4520	10.6200
 1.4530	10.6380
 1.4540	10.6550
 1.4550	10.6740
 1.4560	10.6950
 1.4570	10.7170
 1.4580	10.7410
 1.4590	10.7680
 1.4600	10.7970
 1.4610	10.8280
 1.4620	10.8630
 1.4630	10.9010
 1.4640	10.9430
 1.4650	10.9880
 1.4660	11.0370
 1.4670	11.0870
 1.4680	11.1420
 1.4690	11.2020
 1.4700	11.2650
