Name: Quercus douglasii 3
Type: vegetation
Class: Tree
Genus: Quercus
Species: douglasii
Sample No.: VH081
Owner: UCSB
Wavelength Range: TIR
Origin: 34.7165; -120.0605; WGS84
Collection Date: 4/21/2013
Description: Samples were collected as part of the HyspIRI Airborne Campaign. 48 individual plants were sampled in three times in 2013 - spring  summer  and fall. The name of the sample includes a 1  2  or 3 which references a different individual of the species. Samples were taken to JPL and processed within 48 hours of collection. The same leaves were processed in the Nicolet and then measured using the ASD.
Measurement: Hemispherical reflectance
First Column: X
Second Column: Y
X Units: Wavelength (micrometers)
Y Units: Reflectance (percentage)
First X Value: 2.501
Last X Value: 15.387
Number of X Values: 1737
Additional Information: vegetation.tree.quercus.douglasii.tir.vh081.ucsb.nicolet.ancillary.txt

 2.5010	 5.8730
 2.5030	 5.8520
 2.5040	 5.9440
 2.5050	 5.9580
 2.5060	 5.9090
 2.5070	 5.8230
 2.5090	 5.8840
 2.5100	 5.8400
 2.5110	 5.7540
 2.5120	 5.6830
 2.5140	 5.8230
 2.5150	 5.8750
 2.5160	 5.7040
 2.5170	 5.5910
 2.5180	 5.6720
 2.5200	 5.6410
 2.5210	 5.7560
 2.5220	 5.7850
 2.5230	 5.8720
 2.5250	 5.8710
 2.5260	 5.8240
 2.5270	 5.7940
 2.5280	 5.7410
 2.5290	 5.6140
 2.5310	 5.5740
 2.5320	 5.5920
 2.5330	 5.7130
 2.5340	 5.7210
 2.5360	 5.6380
 2.5370	 5.5860
 2.5380	 5.8090
 2.5390	 5.7860
 2.5410	 5.6870
 2.5420	 5.6440
 2.5430	 5.8010
 2.5440	 5.8620
 2.5460	 5.8680
 2.5470	 5.8560
 2.5480	 5.8850
 2.5490	 5.7220
 2.5510	 5.6870
 2.5520	 5.7130
 2.5530	 5.7390
 2.5540	 5.7170
 2.5560	 5.6620
 2.5570	 5.6280
 2.5580	 5.7500
 2.5590	 5.6960
 2.5610	 5.6910
 2.5620	 5.7070
 2.5630	 5.7740
 2.5640	 5.7140
 2.5660	 5.7420
 2.5670	 5.7440
 2.5680	 5.7210
 2.5700	 5.6590
 2.5710	 5.6420
 2.5720	 5.6460
 2.5730	 5.6830
 2.5750	 5.6190
 2.5760	 5.6390
 2.5770	 5.6990
 2.5790	 5.7660
 2.5800	 5.7690
 2.5810	 5.8520
 2.5820	 5.8720
 2.5840	 5.8130
 2.5850	 5.7770
 2.5860	 5.7920
 2.5880	 5.6090
 2.5890	 5.5680
 2.5900	 5.6780
 2.5910	 5.8090
 2.5930	 5.6970
 2.5940	 5.7090
 2.5950	 5.6670
 2.5970	 5.6540
 2.5980	 5.5860
 2.5990	 5.5540
 2.6000	 5.5610
 2.6020	 5.5050
 2.6030	 5.4740
 2.6040	 5.5480
 2.6060	 5.4790
 2.6070	 5.5300
 2.6080	 5.4810
 2.6100	 5.5070
 2.6110	 5.4880
 2.6120	 5.4960
 2.6140	 5.4720
 2.6150	 5.4850
 2.6160	 5.4290
 2.6180	 5.4600
 2.6190	 5.4030
 2.6200	 5.3880
 2.6220	 5.3060
 2.6230	 5.3860
 2.6240	 5.3120
 2.6260	 5.2870
 2.6270	 5.2360
 2.6280	 5.1200
 2.6300	 5.0460
 2.6310	 5.1570
 2.6320	 5.1770
 2.6340	 5.1730
 2.6350	 5.1600
 2.6360	 5.1330
 2.6380	 5.0370
 2.6390	 5.0080
 2.6400	 5.0710
 2.6420	 5.1170
 2.6430	 5.0220
 2.6440	 4.9880
 2.6460	 4.8920
 2.6470	 4.9560
 2.6480	 5.0920
 2.6500	 5.1170
 2.6510	 4.9990
 2.6520	 5.0170
 2.6540	 4.9660
 2.6550	 4.9960
 2.6560	 4.9550
 2.6580	 4.9380
 2.6590	 4.8790
 2.6610	 4.8550
 2.6620	 4.7330
 2.6630	 4.7480
 2.6650	 4.7030
 2.6660	 4.7820
 2.6670	 4.7880
 2.6690	 4.7440
 2.6700	 4.7030
 2.6720	 4.7010
 2.6730	 4.5530
 2.6740	 4.6080
 2.6760	 4.6690
 2.6770	 4.6610
 2.6780	 4.5320
 2.6800	 4.4370
 2.6810	 4.4740
 2.6830	 4.6450
 2.6840	 4.5790
 2.6850	 4.5890
 2.6870	 4.5170
 2.6880	 4.3860
 2.6900	 4.3330
 2.6910	 4.4660
 2.6920	 4.4720
 2.6940	 4.4560
 2.6950	 4.2870
 2.6970	 4.2530
 2.6980	 4.2320
 2.6990	 4.2790
 2.7010	 4.2310
 2.7020	 4.2540
 2.7040	 4.2070
 2.7050	 4.1980
 2.7060	 4.2310
 2.7080	 4.2430
 2.7090	 4.1500
 2.7110	 4.1230
 2.7120	 4.0690
 2.7130	 4.0780
 2.7150	 3.9520
 2.7160	 3.8710
 2.7180	 3.8680
 2.7190	 3.9440
 2.7210	 3.9510
 2.7220	 3.9490
 2.7230	 3.8810
 2.7250	 3.8240
 2.7260	 3.6880
 2.7280	 3.5970
 2.7290	 3.5450
 2.7310	 3.6780
 2.7320	 3.5400
 2.7330	 3.4400
 2.7350	 3.3790
 2.7360	 3.3900
 2.7380	 3.3700
 2.7390	 3.3460
 2.7410	 3.2730
 2.7420	 3.3150
 2.7440	 3.3090
 2.7450	 3.3170
 2.7470	 3.1960
 2.7480	 3.0110
 2.7490	 2.8970
 2.7510	 2.9900
 2.7520	 2.9730
 2.7540	 3.0470
 2.7550	 3.1040
 2.7570	 3.1300
 2.7580	 2.9590
 2.7600	 2.9620
 2.7610	 2.9780
 2.7630	 2.9620
 2.7640	 2.9320
 2.7660	 2.9130
 2.7670	 2.7370
 2.7680	 2.7630
 2.7700	 2.8060
 2.7710	 2.8900
 2.7730	 2.8390
 2.7740	 2.9270
 2.7760	 2.9060
 2.7770	 2.8880
 2.7790	 2.8570
 2.7800	 2.8210
 2.7820	 2.8200
 2.7830	 2.8460
 2.7850	 2.6870
 2.7860	 2.6410
 2.7880	 2.6090
 2.7890	 2.7180
 2.7910	 2.7500
 2.7920	 2.7090
 2.7940	 2.7110
 2.7950	 2.7760
 2.7970	 2.6150
 2.7980	 2.5440
 2.8000	 2.6660
 2.8010	 2.6810
 2.8030	 2.4580
 2.8040	 2.5750
 2.8060	 2.7480
 2.8070	 2.8470
 2.8090	 2.7410
 2.8110	 2.6260
 2.8120	 2.5780
 2.8140	 2.6410
 2.8150	 2.5360
 2.8170	 2.5120
 2.8180	 2.5550
 2.8200	 2.5850
 2.8210	 2.5330
 2.8230	 2.5670
 2.8240	 2.4820
 2.8260	 2.5580
 2.8270	 2.5430
 2.8290	 2.4880
 2.8300	 2.5190
 2.8320	 2.6490
 2.8340	 2.6100
 2.8350	 2.6190
 2.8370	 2.5980
 2.8380	 2.6240
 2.8400	 2.5340
 2.8410	 2.5680
 2.8430	 2.5520
 2.8440	 2.5380
 2.8460	 2.4640
 2.8480	 2.5310
 2.8490	 2.4960
 2.8510	 2.5110
 2.8520	 2.4710
 2.8540	 2.5530
 2.8550	 2.6000
 2.8570	 2.6260
 2.8590	 2.5200
 2.8600	 2.4280
 2.8620	 2.4480
 2.8630	 2.6150
 2.8650	 2.4920
 2.8660	 2.4810
 2.8680	 2.5120
 2.8700	 2.5630
 2.8710	 2.5400
 2.8730	 2.5330
 2.8740	 2.5910
 2.8760	 2.7760
 2.8780	 2.5990
 2.8790	 2.5210
 2.8810	 2.5170
 2.8820	 2.5300
 2.8840	 2.5370
 2.8860	 2.6230
 2.8870	 2.5060
 2.8890	 2.4970
 2.8900	 2.5250
 2.8920	 2.6910
 2.8940	 2.6040
 2.8950	 2.5120
 2.8970	 2.4640
 2.8980	 2.5470
 2.9000	 2.5190
 2.9020	 2.5570
 2.9030	 2.5680
 2.9050	 2.4990
 2.9070	 2.4390
 2.9080	 2.5990
 2.9100	 2.5800
 2.9120	 2.5960
 2.9130	 2.5500
 2.9150	 2.4750
 2.9160	 2.4790
 2.9180	 2.6170
 2.9200	 2.5040
 2.9210	 2.4630
 2.9230	 2.4540
 2.9250	 2.5010
 2.9260	 2.3930
 2.9280	 2.4510
 2.9300	 2.5320
 2.9310	 2.5560
 2.9330	 2.4540
 2.9350	 2.5230
 2.9360	 2.5430
 2.9380	 2.5270
 2.9400	 2.5330
 2.9410	 2.5750
 2.9430	 2.5480
 2.9450	 2.5640
 2.9460	 2.6240
 2.9480	 2.6780
 2.9500	 2.5810
 2.9510	 2.5530
 2.9530	 2.5500
 2.9550	 2.5080
 2.9560	 2.3920
 2.9580	 2.4650
 2.9600	 2.6000
 2.9610	 2.6390
 2.9630	 2.4990
 2.9650	 2.7020
 2.9660	 2.8450
 2.9680	 2.5700
 2.9700	 2.3960
 2.9720	 2.6200
 2.9730	 2.6690
 2.9750	 2.8090
 2.9770	 3.2930
 2.9780	 3.5690
 2.9800	 3.4590
 2.9820	 3.4080
 2.9840	 2.8950
 2.9850	 2.3780
 2.9870	 2.5580
 2.9890	 2.7070
 2.9900	 2.4600
 2.9920	 2.4740
 2.9940	 2.6690
 2.9960	 2.8090
 2.9970	 2.3780
 2.9990	 2.2360
 3.0010	 2.5350
 3.0030	 2.6520
 3.0040	 2.6230
 3.0060	 2.6920
 3.0080	 2.6740
 3.0100	 2.6890
 3.0110	 2.7070
 3.0130	 3.0270
 3.0150	 3.0150
 3.0170	 2.9720
 3.0180	 2.8680
 3.0200	 2.8310
 3.0220	 2.7500
 3.0240	 2.6750
 3.0250	 2.6130
 3.0270	 2.7330
 3.0290	 2.6560
 3.0310	 2.5920
 3.0320	 2.4640
 3.0340	 2.4240
 3.0360	 2.1990
 3.0380	 2.2650
 3.0400	 2.6780
 3.0410	 2.7030
 3.0430	 2.3780
 3.0450	 2.2880
 3.0470	 2.7430
 3.0480	 3.4360
 3.0500	 3.2740
 3.0520	 2.8390
 3.0540	 2.8040
 3.0560	 2.8830
 3.0570	 2.9030
 3.0590	 3.0150
 3.0610	 2.9500
 3.0630	 2.5060
 3.0650	 2.2200
 3.0660	 2.5870
 3.0680	 2.6650
 3.0700	 2.5370
 3.0720	 2.5410
 3.0740	 2.6570
 3.0760	 2.5930
 3.0770	 2.5510
 3.0790	 2.5560
 3.0810	 2.5710
 3.0830	 2.5370
 3.0850	 2.6330
 3.0870	 2.6720
 3.0880	 2.6260
 3.0900	 2.5850
 3.0920	 2.6290
 3.0940	 2.5410
 3.0960	 2.6580
 3.0980	 2.6250
 3.0990	 2.6390
 3.1010	 2.8050
 3.1030	 2.8620
 3.1050	 2.7810
 3.1070	 2.8630
 3.1090	 2.6760
 3.1110	 2.6670
 3.1120	 2.8200
 3.1140	 2.7630
 3.1160	 2.6900
 3.1180	 2.7720
 3.1200	 2.8060
 3.1220	 2.8160
 3.1240	 2.8660
 3.1260	 2.9190
 3.1270	 2.7950
 3.1290	 2.7700
 3.1310	 2.7530
 3.1330	 2.8110
 3.1350	 2.8790
 3.1370	 2.8760
 3.1390	 2.6790
 3.1410	 2.7150
 3.1430	 2.8100
 3.1450	 2.9810
 3.1460	 2.8510
 3.1480	 2.6600
 3.1500	 2.7150
 3.1520	 2.9320
 3.1540	 3.0150
 3.1560	 2.9410
 3.1580	 2.8220
 3.1600	 2.8000
 3.1620	 2.7360
 3.1640	 2.7340
 3.1660	 2.7790
 3.1680	 2.7980
 3.1700	 2.6980
 3.1710	 2.9240
 3.1730	 3.0110
 3.1750	 2.8190
 3.1770	 2.8280
 3.1790	 2.8580
 3.1810	 2.5920
 3.1830	 2.8360
 3.1850	 3.0060
 3.1870	 3.0620
 3.1890	 2.7730
 3.1910	 2.6920
 3.1930	 2.8550
 3.1950	 3.0520
 3.1970	 3.0630
 3.1990	 2.9520
 3.2010	 2.8470
 3.2030	 2.8680
 3.2050	 2.9220
 3.2070	 2.9910
 3.2090	 2.8780
 3.2110	 2.8540
 3.2130	 2.9050
 3.2150	 3.0300
 3.2170	 3.0300
 3.2190	 3.0170
 3.2210	 2.9320
 3.2230	 2.9410
 3.2250	 2.9550
 3.2270	 2.9870
 3.2290	 2.8730
 3.2310	 2.9910
 3.2330	 3.0510
 3.2350	 3.0370
 3.2370	 3.0440
 3.2390	 3.1130
 3.2410	 3.0560
 3.2430	 3.0010
 3.2450	 3.0390
 3.2470	 3.1420
 3.2490	 3.1110
 3.2510	 3.0490
 3.2530	 2.9730
 3.2550	 2.9770
 3.2570	 2.8770
 3.2590	 2.8700
 3.2610	 2.9900
 3.2630	 3.0670
 3.2650	 3.0300
 3.2670	 3.0880
 3.2690	 3.1020
 3.2720	 3.1210
 3.2740	 3.1070
 3.2760	 3.1610
 3.2780	 3.2080
 3.2800	 3.2370
 3.2820	 3.1880
 3.2840	 3.1320
 3.2860	 3.0860
 3.2880	 3.0800
 3.2900	 3.0530
 3.2920	 3.1470
 3.2940	 3.1210
 3.2960	 3.2140
 3.2990	 3.2110
 3.3010	 3.1700
 3.3030	 3.1500
 3.3050	 3.1600
 3.3070	 3.1000
 3.3090	 3.1270
 3.3110	 3.1160
 3.3130	 3.1160
 3.3150	 3.2090
 3.3180	 3.2930
 3.3200	 3.2630
 3.3220	 3.2760
 3.3240	 3.1340
 3.3260	 3.1450
 3.3280	 3.2260
 3.3300	 3.2740
 3.3330	 3.2070
 3.3350	 3.1710
 3.3370	 3.2390
 3.3390	 3.2980
 3.3410	 3.2550
 3.3430	 3.1980
 3.3450	 3.0900
 3.3480	 3.1520
 3.3500	 3.0890
 3.3520	 3.0960
 3.3540	 3.1300
 3.3560	 3.1240
 3.3580	 3.0740
 3.3610	 3.0950
 3.3630	 2.9800
 3.3650	 2.8980
 3.3670	 2.9410
 3.3690	 2.9500
 3.3720	 2.8650
 3.3740	 2.9790
 3.3760	 2.9370
 3.3780	 2.9030
 3.3800	 2.9040
 3.3830	 2.9290
 3.3850	 2.8420
 3.3870	 2.8960
 3.3890	 2.7370
 3.3910	 2.6810
 3.3940	 2.8160
 3.3960	 2.8990
 3.3980	 2.8370
 3.4000	 2.8180
 3.4020	 2.8370
 3.4050	 2.9060
 3.4070	 2.8970
 3.4090	 2.9980
 3.4110	 3.1070
 3.4140	 3.2140
 3.4160	 3.2420
 3.4180	 3.4330
 3.4200	 3.5880
 3.4230	 3.7410
 3.4250	 3.7440
 3.4270	 3.7880
 3.4290	 3.7390
 3.4320	 3.5970
 3.4340	 3.4120
 3.4360	 3.3880
 3.4390	 3.3110
 3.4410	 3.3170
 3.4430	 3.2580
 3.4450	 3.2240
 3.4480	 3.2330
 3.4500	 3.2690
 3.4520	 3.2590
 3.4550	 3.2810
 3.4570	 3.2230
 3.4590	 3.2400
 3.4620	 3.2630
 3.4640	 3.2470
 3.4660	 3.1810
 3.4680	 3.1620
 3.4710	 3.1810
 3.4730	 3.2330
 3.4750	 3.2180
 3.4780	 3.1740
 3.4800	 3.1430
 3.4820	 3.2070
 3.4850	 3.2060
 3.4870	 3.1640
 3.4890	 3.1210
 3.4920	 3.1380
 3.4940	 3.1320
 3.4970	 3.1810
 3.4990	 3.2280
 3.5010	 3.3940
 3.5040	 3.4940
 3.5060	 3.6870
 3.5080	 3.8520
 3.5110	 3.9120
 3.5130	 3.8180
 3.5160	 3.7440
 3.5180	 3.6860
 3.5200	 3.6780
 3.5230	 3.6070
 3.5250	 3.5920
 3.5270	 3.5420
 3.5300	 3.5620
 3.5320	 3.6350
 3.5350	 3.6890
 3.5370	 3.6840
 3.5400	 3.8150
 3.5420	 3.8720
 3.5440	 3.8170
 3.5470	 3.7490
 3.5490	 3.7680
 3.5520	 3.7230
 3.5540	 3.8100
 3.5570	 3.8330
 3.5590	 3.8500
 3.5610	 3.8050
 3.5640	 3.7920
 3.5660	 3.7480
 3.5690	 3.7770
 3.5710	 3.7810
 3.5740	 3.8310
 3.5760	 3.8930
 3.5790	 3.9440
 3.5810	 3.8650
 3.5840	 3.8470
 3.5860	 3.8510
 3.5890	 3.8650
 3.5910	 3.8640
 3.5930	 3.9080
 3.5960	 3.9340
 3.5980	 3.9610
 3.6010	 3.8760
 3.6030	 3.8450
 3.6060	 3.9120
 3.6080	 3.9510
 3.6110	 3.9510
 3.6140	 3.9510
 3.6160	 3.9360
 3.6190	 3.9660
 3.6210	 3.9150
 3.6240	 3.8800
 3.6260	 3.8990
 3.6290	 3.9390
 3.6310	 3.8100
 3.6340	 3.7420
 3.6360	 3.8150
 3.6390	 3.9170
 3.6410	 3.8980
 3.6440	 3.9200
 3.6470	 3.9950
 3.6490	 4.0230
 3.6520	 3.9620
 3.6540	 3.9540
 3.6570	 3.9690
 3.6590	 3.9440
 3.6620	 3.9380
 3.6650	 4.0070
 3.6670	 4.0030
 3.6700	 4.0260
 3.6720	 3.9550
 3.6750	 3.9610
 3.6780	 3.9860
 3.6800	 4.0390
 3.6830	 4.0400
 3.6850	 3.9770
 3.6880	 3.9820
 3.6910	 4.0260
 3.6930	 3.9650
 3.6960	 3.9470
 3.6990	 3.9020
 3.7010	 3.9310
 3.7040	 4.0070
 3.7060	 4.0690
 3.7090	 4.0690
 3.7120	 4.1120
 3.7140	 4.0690
 3.7170	 4.0450
 3.7200	 4.0730
 3.7220	 4.1090
 3.7250	 4.1340
 3.7280	 4.1970
 3.7300	 4.1350
 3.7330	 4.1210
 3.7360	 4.1090
 3.7390	 4.1410
 3.7410	 4.1450
 3.7440	 4.1370
 3.7470	 4.1330
 3.7490	 4.1420
 3.7520	 4.1070
 3.7550	 4.1300
 3.7580	 4.1770
 3.7600	 4.2620
 3.7630	 4.2720
 3.7660	 4.2370
 3.7680	 4.1910
 3.7710	 4.2030
 3.7740	 4.1910
 3.7770	 4.2600
 3.7790	 4.2800
 3.7820	 4.2300
 3.7850	 4.1910
 3.7880	 4.2400
 3.7900	 4.2010
 3.7930	 4.2130
 3.7960	 4.2560
 3.7990	 4.2840
 3.8020	 4.1920
 3.8040	 4.1520
 3.8070	 4.1470
 3.8100	 4.1910
 3.8130	 4.2340
 3.8160	 4.2640
 3.8180	 4.2410
 3.8210	 4.2250
 3.8240	 4.2790
 3.8270	 4.2860
 3.8300	 4.2460
 3.8330	 4.2550
 3.8350	 4.2310
 3.8380	 4.2530
 3.8410	 4.2600
 3.8440	 4.2940
 3.8470	 4.3030
 3.8500	 4.3120
 3.8520	 4.3210
 3.8550	 4.3630
 3.8580	 4.3410
 3.8610	 4.3190
 3.8640	 4.3290
 3.8670	 4.3620
 3.8700	 4.3410
 3.8730	 4.3570
 3.8750	 4.3930
 3.8780	 4.3900
 3.8810	 4.3330
 3.8840	 4.4150
 3.8870	 4.4360
 3.8900	 4.3850
 3.8930	 4.3420
 3.8960	 4.3420
 3.8990	 4.3850
 3.9020	 4.5170
 3.9050	 4.4930
 3.9080	 4.4210
 3.9110	 4.4030
 3.9140	 4.3700
 3.9160	 4.3880
 3.9190	 4.3780
 3.9220	 4.3000
 3.9250	 4.3520
 3.9280	 4.3830
 3.9310	 4.3850
 3.9340	 4.3470
 3.9370	 4.3500
 3.9400	 4.3770
 3.9430	 4.3840
 3.9460	 4.3630
 3.9490	 4.3910
 3.9520	 4.3810
 3.9550	 4.3980
 3.9580	 4.4160
 3.9610	 4.4360
 3.9640	 4.3990
 3.9670	 4.3710
 3.9700	 4.3570
 3.9730	 4.4030
 3.9770	 4.4340
 3.9800	 4.4840
 3.9830	 4.4150
 3.9860	 4.4210
 3.9890	 4.4740
 3.9920	 4.4730
 3.9950	 4.4050
 3.9980	 4.4060
 4.0010	 4.4450
 4.0040	 4.4390
 4.0070	 4.4050
 4.0100	 4.4650
 4.0130	 4.4990
 4.0170	 4.4860
 4.0200	 4.4720
 4.0230	 4.4910
 4.0260	 4.4740
 4.0290	 4.4840
 4.0320	 4.4740
 4.0350	 4.5010
 4.0380	 4.5150
 4.0420	 4.5130
 4.0450	 4.5250
 4.0480	 4.5970
 4.0510	 4.5810
 4.0540	 4.4980
 4.0570	 4.4610
 4.0610	 4.4730
 4.0640	 4.4980
 4.0670	 4.5440
 4.0700	 4.5550
 4.0730	 4.5510
 4.0770	 4.4890
 4.0800	 4.4600
 4.0830	 4.5280
 4.0860	 4.5880
 4.0890	 4.5390
 4.0930	 4.5110
 4.0960	 4.5280
 4.0990	 4.5190
 4.1020	 4.5390
 4.1060	 4.5970
 4.1090	 4.5670
 4.1120	 4.5580
 4.1150	 4.5360
 4.1190	 4.5540
 4.1220	 4.5330
 4.1250	 4.5420
 4.1280	 4.5730
 4.1320	 4.5830
 4.1350	 4.5420
 4.1380	 4.5080
 4.1420	 4.4860
 4.1450	 4.5600
 4.1480	 4.6250
 4.1520	 4.6380
 4.1550	 4.6370
 4.1580	 4.6350
 4.1620	 4.6380
 4.1650	 4.6160
 4.1680	 4.5400
 4.1720	 4.5480
 4.1750	 4.6190
 4.1780	 4.6180
 4.1820	 4.5920
 4.1850	 4.6250
 4.1890	 4.6610
 4.1920	 4.6120
 4.1950	 4.5350
 4.1990	 4.5310
 4.2020	 4.5520
 4.2060	 4.5490
 4.2090	 4.4980
 4.2120	 4.5070
 4.2160	 4.4440
 4.2190	 4.2630
 4.2230	 4.2230
 4.2260	 4.2710
 4.2300	 4.3080
 4.2330	 4.3100
 4.2360	 4.1920
 4.2400	 4.2380
 4.2430	 4.2500
 4.2470	 4.3560
 4.2500	 4.3980
 4.2540	 4.3730
 4.2570	 4.4200
 4.2610	 4.4470
 4.2640	 4.4280
 4.2680	 4.3690
 4.2710	 4.3650
 4.2750	 4.3300
 4.2780	 4.2280
 4.2820	 4.3080
 4.2850	 4.3970
 4.2890	 4.4240
 4.2930	 4.4040
 4.2960	 4.3330
 4.3000	 4.3230
 4.3030	 4.3100
 4.3070	 4.2460
 4.3100	 4.3130
 4.3140	 4.4240
 4.3180	 4.4310
 4.3210	 4.3600
 4.3250	 4.3590
 4.3280	 4.3560
 4.3320	 4.4090
 4.3360	 4.4660
 4.3390	 4.4440
 4.3430	 4.4380
 4.3470	 4.4720
 4.3500	 4.4930
 4.3540	 4.5270
 4.3570	 4.4860
 4.3610	 4.4680
 4.3650	 4.4910
 4.3680	 4.5160
 4.3720	 4.5020
 4.3760	 4.5080
 4.3800	 4.5140
 4.3830	 4.5330
 4.3870	 4.5740
 4.3910	 4.5930
 4.3940	 4.5620
 4.3980	 4.5560
 4.4020	 4.5710
 4.4060	 4.5730
 4.4090	 4.4920
 4.4130	 4.4600
 4.4170	 4.4460
 4.4210	 4.4440
 4.4240	 4.4480
 4.4280	 4.4890
 4.4320	 4.5280
 4.4360	 4.4940
 4.4400	 4.4640
 4.4430	 4.5070
 4.4470	 4.5050
 4.4510	 4.4760
 4.4550	 4.4920
 4.4590	 4.4770
 4.4620	 4.4300
 4.4660	 4.4400
 4.4700	 4.5140
 4.4740	 4.5360
 4.4780	 4.4670
 4.4820	 4.4070
 4.4860	 4.4390
 4.4900	 4.4530
 4.4930	 4.4870
 4.4970	 4.4940
 4.5010	 4.4520
 4.5050	 4.4450
 4.5090	 4.4900
 4.5130	 4.5170
 4.5170	 4.5190
 4.5210	 4.4750
 4.5250	 4.4820
 4.5290	 4.4890
 4.5330	 4.4520
 4.5370	 4.4610
 4.5410	 4.5040
 4.5450	 4.5210
 4.5490	 4.4810
 4.5530	 4.4220
 4.5570	 4.3600
 4.5610	 4.3800
 4.5650	 4.4570
 4.5690	 4.4420
 4.5730	 4.3790
 4.5770	 4.3280
 4.5810	 4.3240
 4.5850	 4.3440
 4.5890	 4.3620
 4.5930	 4.3940
 4.5970	 4.4020
 4.6010	 4.3980
 4.6050	 4.3090
 4.6090	 4.3060
 4.6130	 4.4230
 4.6170	 4.5020
 4.6220	 4.4380
 4.6260	 4.3820
 4.6300	 4.4010
 4.6340	 4.4210
 4.6380	 4.3990
 4.6420	 4.3830
 4.6460	 4.3970
 4.6510	 4.3750
 4.6550	 4.3540
 4.6590	 4.3970
 4.6630	 4.4330
 4.6670	 4.3890
 4.6720	 4.3890
 4.6760	 4.4110
 4.6800	 4.4240
 4.6840	 4.4180
 4.6880	 4.4010
 4.6930	 4.3880
 4.6970	 4.4010
 4.7010	 4.3830
 4.7050	 4.4220
 4.7100	 4.4370
 4.7140	 4.4220
 4.7180	 4.4360
 4.7230	 4.4440
 4.7270	 4.4370
 4.7310	 4.4150
 4.7360	 4.3420
 4.7400	 4.3610
 4.7440	 4.4370
 4.7490	 4.4450
 4.7530	 4.4100
 4.7570	 4.4060
 4.7620	 4.4010
 4.7660	 4.3840
 4.7700	 4.4280
 4.7750	 4.4960
 4.7790	 4.4640
 4.7840	 4.5040
 4.7880	 4.5060
 4.7920	 4.4360
 4.7970	 4.4250
 4.8010	 4.4680
 4.8060	 4.4680
 4.8100	 4.4540
 4.8150	 4.4470
 4.8190	 4.4760
 4.8240	 4.4680
 4.8280	 4.4110
 4.8330	 4.3980
 4.8370	 4.5090
 4.8420	 4.5720
 4.8460	 4.5690
 4.8510	 4.5150
 4.8550	 4.4700
 4.8600	 4.4650
 4.8640	 4.4780
 4.8690	 4.4810
 4.8730	 4.5240
 4.8780	 4.5320
 4.8830	 4.5090
 4.8870	 4.5620
 4.8920	 4.6080
 4.8960	 4.5760
 4.9010	 4.5600
 4.9060	 4.5680
 4.9100	 4.5310
 4.9150	 4.5040
 4.9200	 4.4770
 4.9240	 4.4840
 4.9290	 4.5410
 4.9340	 4.5340
 4.9380	 4.5800
 4.9430	 4.5700
 4.9480	 4.5490
 4.9530	 4.5530
 4.9570	 4.5680
 4.9620	 4.5860
 4.9670	 4.6370
 4.9720	 4.6170
 4.9760	 4.6020
 4.9810	 4.6100
 4.9860	 4.5990
 4.9910	 4.6270
 4.9960	 4.6950
 5.0000	 4.6940
 5.0050	 4.6780
 5.0100	 4.6620
 5.0150	 4.6690
 5.0200	 4.6640
 5.0250	 4.6730
 5.0290	 4.7280
 5.0340	 4.7590
 5.0390	 4.7170
 5.0440	 4.7650
 5.0490	 4.7250
 5.0540	 4.6600
 5.0590	 4.6710
 5.0640	 4.6990
 5.0690	 4.6650
 5.0740	 4.6960
 5.0790	 4.6910
 5.0840	 4.6670
 5.0890	 4.6720
 5.0940	 4.6840
 5.0990	 4.6930
 5.1040	 4.7090
 5.1090	 4.6890
 5.1140	 4.7090
 5.1190	 4.6920
 5.1240	 4.6480
 5.1290	 4.7050
 5.1340	 4.8140
 5.1390	 4.7760
 5.1440	 4.7320
 5.1490	 4.6870
 5.1540	 4.6880
 5.1600	 4.6870
 5.1650	 4.6910
 5.1700	 4.6830
 5.1750	 4.7450
 5.1800	 4.7830
 5.1850	 4.8010
 5.1910	 4.7830
 5.1960	 4.7940
 5.2010	 4.7670
 5.2060	 4.8250
 5.2110	 4.8100
 5.2170	 4.7680
 5.2220	 4.7580
 5.2270	 4.8260
 5.2320	 4.8120
 5.2380	 4.7810
 5.2430	 4.7510
 5.2480	 4.7910
 5.2540	 4.7920
 5.2590	 4.8020
 5.2640	 4.7880
 5.2700	 4.7840
 5.2750	 4.7690
 5.2800	 4.7860
 5.2860	 4.7480
 5.2910	 4.7190
 5.2970	 4.7500
 5.3020	 4.8400
 5.3070	 4.7890
 5.3130	 4.7150
 5.3180	 4.7280
 5.3240	 4.7750
 5.3290	 4.7810
 5.3350	 4.7920
 5.3400	 4.7960
 5.3460	 4.8260
 5.3510	 4.8150
 5.3570	 4.7970
 5.3620	 4.7670
 5.3680	 4.7800
 5.3730	 4.7430
 5.3790	 4.7620
 5.3850	 4.7450
 5.3900	 4.7520
 5.3960	 4.7480
 5.4010	 4.7040
 5.4070	 4.6470
 5.4130	 4.7090
 5.4180	 4.7100
 5.4240	 4.7010
 5.4300	 4.6880
 5.4350	 4.7020
 5.4410	 4.7180
