Name: Heteromeles arbutifolia 2
Type: vegetation
Class: Shrub
Genus: Heteromeles
Species: arbutifolia
Sample No.: VH016
Owner: UCSB
Wavelength Range: VSWIR
Origin: 34.4907; -119.7912; WGS84
Collection Date: 4/1/2013
Description: Samples were collected as part of the HyspIRI Airborne Campaign. 48 individual plants were sampled in three times in 2013 - spring  summer  and fall. The name of the sample includes a 1  2  or 3 which references a different individual of the species. Samples were taken to JPL and processed within 48 hours of collection. The same leaves were processed in the Nicolet and then measured using the ASD.
Measurement: Bidirectional reflectance
First Column: X
Second Column: Y
X Units: Wavelength (micrometers)
Y Units: Reflectance (percentage)
First X Value: 0.35
Last X Value: 2.5
Number of X Values: 2151
Additional Information: vegetation.shrub.heteromeles.arbutifolia.vswir.vh016.ucsb.asd.ancillary.txt

 0.3500	 6.0500
 0.3510	 5.9540
 0.3520	 5.8180
 0.3530	 5.8500
 0.3540	 6.0650
 0.3550	 5.8830
 0.3560	 5.6730
 0.3570	 5.6490
 0.3580	 5.8550
 0.3590	 5.7170
 0.3600	 5.6090
 0.3610	 5.6880
 0.3620	 5.6730
 0.3630	 5.7570
 0.3640	 5.8670
 0.3650	 5.8920
 0.3660	 5.8200
 0.3670	 5.7720
 0.3680	 5.7480
 0.3690	 5.6730
 0.3700	 5.6350
 0.3710	 5.6420
 0.3720	 5.6660
 0.3730	 5.6390
 0.3740	 5.6330
 0.3750	 5.6150
 0.3760	 5.5560
 0.3770	 5.5950
 0.3780	 5.6680
 0.3790	 5.6910
 0.3800	 5.5910
 0.3810	 5.5350
 0.3820	 5.5730
 0.3830	 5.6600
 0.3840	 5.6060
 0.3850	 5.5690
 0.3860	 5.5540
 0.3870	 5.5300
 0.3880	 5.5910
 0.3890	 5.6470
 0.3900	 5.6410
 0.3910	 5.5710
 0.3920	 5.5780
 0.3930	 5.5790
 0.3940	 5.5160
 0.3950	 5.5340
 0.3960	 5.5430
 0.3970	 5.5460
 0.3980	 5.5780
 0.3990	 5.6140
 0.4000	 5.6040
 0.4010	 5.5580
 0.4020	 5.5670
 0.4030	 5.5560
 0.4040	 5.5460
 0.4050	 5.5590
 0.4060	 5.5470
 0.4070	 5.5560
 0.4080	 5.5850
 0.4090	 5.6060
 0.4100	 5.6080
 0.4110	 5.6200
 0.4120	 5.6470
 0.4130	 5.6400
 0.4140	 5.6480
 0.4150	 5.6550
 0.4160	 5.6400
 0.4170	 5.6540
 0.4180	 5.6630
 0.4190	 5.6580
 0.4200	 5.6560
 0.4210	 5.6510
 0.4220	 5.6660
 0.4230	 5.7050
 0.4240	 5.7090
 0.4250	 5.7090
 0.4260	 5.7130
 0.4270	 5.7140
 0.4280	 5.7070
 0.4290	 5.7070
 0.4300	 5.7150
 0.4310	 5.7200
 0.4320	 5.7110
 0.4330	 5.6990
 0.4340	 5.6950
 0.4350	 5.6970
 0.4360	 5.7060
 0.4370	 5.7190
 0.4380	 5.7310
 0.4390	 5.7340
 0.4400	 5.7290
 0.4410	 5.7230
 0.4420	 5.7240
 0.4430	 5.7310
 0.4440	 5.7430
 0.4450	 5.7560
 0.4460	 5.7490
 0.4470	 5.7550
 0.4480	 5.7710
 0.4490	 5.7500
 0.4500	 5.7470
 0.4510	 5.7580
 0.4520	 5.7670
 0.4530	 5.7710
 0.4540	 5.7690
 0.4550	 5.7630
 0.4560	 5.7590
 0.4570	 5.7660
 0.4580	 5.7700
 0.4590	 5.7650
 0.4600	 5.7640
 0.4610	 5.7620
 0.4620	 5.7600
 0.4630	 5.7590
 0.4640	 5.7580
 0.4650	 5.7580
 0.4660	 5.7570
 0.4670	 5.7470
 0.4680	 5.7530
 0.4690	 5.7570
 0.4700	 5.7460
 0.4710	 5.7440
 0.4720	 5.7380
 0.4730	 5.7280
 0.4740	 5.7240
 0.4750	 5.7370
 0.4760	 5.7350
 0.4770	 5.7150
 0.4780	 5.7220
 0.4790	 5.7280
 0.4800	 5.7300
 0.4810	 5.7320
 0.4820	 5.7390
 0.4830	 5.7360
 0.4840	 5.7280
 0.4850	 5.7350
 0.4860	 5.7290
 0.4870	 5.7270
 0.4880	 5.7390
 0.4890	 5.7430
 0.4900	 5.7510
 0.4910	 5.7590
 0.4920	 5.7600
 0.4930	 5.7600
 0.4940	 5.7700
 0.4950	 5.7860
 0.4960	 5.7870
 0.4970	 5.8000
 0.4980	 5.8190
 0.4990	 5.8330
 0.5000	 5.8530
 0.5010	 5.8720
 0.5020	 5.8910
 0.5030	 5.9140
 0.5040	 5.9420
 0.5050	 5.9780
 0.5060	 6.0190
 0.5070	 6.0590
 0.5080	 6.1110
 0.5090	 6.1660
 0.5100	 6.2150
 0.5110	 6.2840
 0.5120	 6.3640
 0.5130	 6.4460
 0.5140	 6.5250
 0.5150	 6.6270
 0.5160	 6.7410
 0.5170	 6.8520
 0.5180	 6.9800
 0.5190	 7.1150
 0.5200	 7.2560
 0.5210	 7.4030
 0.5220	 7.5580
 0.5230	 7.7130
 0.5240	 7.8660
 0.5250	 8.0230
 0.5260	 8.1730
 0.5270	 8.3130
 0.5280	 8.4460
 0.5290	 8.5770
 0.5300	 8.7010
 0.5310	 8.8140
 0.5320	 8.9130
 0.5330	 9.0060
 0.5340	 9.0930
 0.5350	 9.1720
 0.5360	 9.2380
 0.5370	 9.2970
 0.5380	 9.3500
 0.5390	 9.3960
 0.5400	 9.4410
 0.5410	 9.4820
 0.5420	 9.5170
 0.5430	 9.5520
 0.5440	 9.5900
 0.5450	 9.6240
 0.5460	 9.6500
 0.5470	 9.6800
 0.5480	 9.7090
 0.5490	 9.7330
 0.5500	 9.7480
 0.5510	 9.7620
 0.5520	 9.7670
 0.5530	 9.7570
 0.5540	 9.7450
 0.5550	 9.7240
 0.5560	 9.6930
 0.5570	 9.6500
 0.5580	 9.5920
 0.5590	 9.5220
 0.5600	 9.4440
 0.5610	 9.3660
 0.5620	 9.2800
 0.5630	 9.1850
 0.5640	 9.0850
 0.5650	 8.9780
 0.5660	 8.8700
 0.5670	 8.7610
 0.5680	 8.6450
 0.5690	 8.5280
 0.5700	 8.4140
 0.5710	 8.3040
 0.5720	 8.1990
 0.5730	 8.1000
 0.5740	 8.0090
 0.5750	 7.9290
 0.5760	 7.8620
 0.5770	 7.8010
 0.5780	 7.7390
 0.5790	 7.6790
 0.5800	 7.6190
 0.5810	 7.5610
 0.5820	 7.5080
 0.5830	 7.4590
 0.5840	 7.4130
 0.5850	 7.3670
 0.5860	 7.3190
 0.5870	 7.2700
 0.5880	 7.2230
 0.5890	 7.1840
 0.5900	 7.1540
 0.5910	 7.1370
 0.5920	 7.1260
 0.5930	 7.1100
 0.5940	 7.0920
 0.5950	 7.0710
 0.5960	 7.0480
 0.5970	 7.0360
 0.5980	 7.0160
 0.5990	 6.9930
 0.6000	 6.9760
 0.6010	 6.9570
 0.6020	 6.9320
 0.6030	 6.9040
 0.6040	 6.8790
 0.6050	 6.8530
 0.6060	 6.8220
 0.6070	 6.7850
 0.6080	 6.7480
 0.6090	 6.7100
 0.6100	 6.6710
 0.6110	 6.6310
 0.6120	 6.5930
 0.6130	 6.5560
 0.6140	 6.5200
 0.6150	 6.4830
 0.6160	 6.4470
 0.6170	 6.4150
 0.6180	 6.3890
 0.6190	 6.3630
 0.6200	 6.3410
 0.6210	 6.3200
 0.6220	 6.2980
 0.6230	 6.2820
 0.6240	 6.2720
 0.6250	 6.2650
 0.6260	 6.2480
 0.6270	 6.2380
 0.6280	 6.2340
 0.6290	 6.2300
 0.6300	 6.2200
 0.6310	 6.2130
 0.6320	 6.2100
 0.6330	 6.1980
 0.6340	 6.1870
 0.6350	 6.1730
 0.6360	 6.1510
 0.6370	 6.1280
 0.6380	 6.1010
 0.6390	 6.0730
 0.6400	 6.0480
 0.6410	 6.0120
 0.6420	 5.9760
 0.6430	 5.9450
 0.6440	 5.9110
 0.6450	 5.8790
 0.6460	 5.8490
 0.6470	 5.8230
 0.6480	 5.8010
 0.6490	 5.7820
 0.6500	 5.7650
 0.6510	 5.7480
 0.6520	 5.7360
 0.6530	 5.7260
 0.6540	 5.7160
 0.6550	 5.7040
 0.6560	 5.6940
 0.6570	 5.6820
 0.6580	 5.6690
 0.6590	 5.6540
 0.6600	 5.6380
 0.6610	 5.6240
 0.6620	 5.6100
 0.6630	 5.5970
 0.6640	 5.5870
 0.6650	 5.5790
 0.6660	 5.5730
 0.6670	 5.5730
 0.6680	 5.5760
 0.6690	 5.5740
 0.6700	 5.5770
 0.6710	 5.5860
 0.6720	 5.5970
 0.6730	 5.6050
 0.6740	 5.6150
 0.6750	 5.6290
 0.6760	 5.6460
 0.6770	 5.6630
 0.6780	 5.6830
 0.6790	 5.7050
 0.6800	 5.7310
 0.6810	 5.7550
 0.6820	 5.7790
 0.6830	 5.8090
 0.6840	 5.8430
 0.6850	 5.8780
 0.6860	 5.9170
 0.6870	 5.9640
 0.6880	 6.0220
 0.6890	 6.0950
 0.6900	 6.1870
 0.6910	 6.3060
 0.6920	 6.4590
 0.6930	 6.6540
 0.6940	 6.8970
 0.6950	 7.1970
 0.6960	 7.5510
 0.6970	 7.9660
 0.6980	 8.4480
 0.6990	 8.9920
 0.7000	 9.5950
 0.7010	10.2530
 0.7020	10.9600
 0.7030	11.7100
 0.7040	12.4960
 0.7050	13.3120
 0.7060	14.1520
 0.7070	15.0100
 0.7080	15.8850
 0.7090	16.7760
 0.7100	17.6770
 0.7110	18.5880
 0.7120	19.5060
 0.7130	20.4230
 0.7140	21.3440
 0.7150	22.2700
 0.7160	23.1970
 0.7170	24.1100
 0.7180	25.0220
 0.7190	25.9270
 0.7200	26.8130
 0.7210	27.6930
 0.7220	28.5580
 0.7230	29.4020
 0.7240	30.2280
 0.7250	31.0230
 0.7260	31.7930
 0.7270	32.5390
 0.7280	33.2530
 0.7290	33.9420
 0.7300	34.6010
 0.7310	35.2260
 0.7320	35.8240
 0.7330	36.3910
 0.7340	36.9250
 0.7350	37.4300
 0.7360	37.9130
 0.7370	38.3660
 0.7380	38.7850
 0.7390	39.1880
 0.7400	39.5650
 0.7410	39.9150
 0.7420	40.2410
 0.7430	40.5420
 0.7440	40.8250
 0.7450	41.0910
 0.7460	41.3430
 0.7470	41.5600
 0.7480	41.7590
 0.7490	41.9520
 0.7500	42.1200
 0.7510	42.2720
 0.7520	42.4150
 0.7530	42.5520
 0.7540	42.6780
 0.7550	42.7860
 0.7560	42.8800
 0.7570	42.9710
 0.7580	43.0530
 0.7590	43.1240
 0.7600	43.1890
 0.7610	43.2510
 0.7620	43.3060
 0.7630	43.3530
 0.7640	43.3960
 0.7650	43.4380
 0.7660	43.4740
 0.7670	43.5040
 0.7680	43.5350
 0.7690	43.5650
 0.7700	43.5890
 0.7710	43.6070
 0.7720	43.6290
 0.7730	43.6520
 0.7740	43.6690
 0.7750	43.6800
 0.7760	43.6990
 0.7770	43.7150
 0.7780	43.7270
 0.7790	43.7370
 0.7800	43.7490
 0.7810	43.7620
 0.7820	43.7770
 0.7830	43.7890
 0.7840	43.7990
 0.7850	43.8100
 0.7860	43.8240
 0.7870	43.8390
 0.7880	43.8470
 0.7890	43.8520
 0.7900	43.8600
 0.7910	43.8670
 0.7920	43.8730
 0.7930	43.8810
 0.7940	43.8940
 0.7950	43.8950
 0.7960	43.8970
 0.7970	43.9030
 0.7980	43.9070
 0.7990	43.9140
 0.8000	43.9210
 0.8010	43.9230
 0.8020	43.9220
 0.8030	43.9250
 0.8040	43.9300
 0.8050	43.9340
 0.8060	43.9320
 0.8070	43.9310
 0.8080	43.9300
 0.8090	43.9230
 0.8100	43.9240
 0.8110	43.9290
 0.8120	43.9310
 0.8130	43.9250
 0.8140	43.9250
 0.8150	43.9250
 0.8160	43.9210
 0.8170	43.9150
 0.8180	43.9120
 0.8190	43.9120
 0.8200	43.9130
 0.8210	43.9070
 0.8220	43.9010
 0.8230	43.9010
 0.8240	43.9040
 0.8250	43.9020
 0.8260	43.8920
 0.8270	43.8810
 0.8280	43.8860
 0.8290	43.8830
 0.8300	43.8770
 0.8310	43.8740
 0.8320	43.8740
 0.8330	43.8710
 0.8340	43.8630
 0.8350	43.8570
 0.8360	43.8600
 0.8370	43.8630
 0.8380	43.8630
 0.8390	43.8640
 0.8400	43.8550
 0.8410	43.8520
 0.8420	43.8600
 0.8430	43.8700
 0.8440	43.8730
 0.8450	43.8720
 0.8460	43.8750
 0.8470	43.8770
 0.8480	43.8820
 0.8490	43.8880
 0.8500	43.8950
 0.8510	43.8990
 0.8520	43.9020
 0.8530	43.9030
 0.8540	43.9020
 0.8550	43.9080
 0.8560	43.9160
 0.8570	43.9210
 0.8580	43.9230
 0.8590	43.9290
 0.8600	43.9360
 0.8610	43.9430
 0.8620	43.9470
 0.8630	43.9460
 0.8640	43.9460
 0.8650	43.9530
 0.8660	43.9600
 0.8670	43.9630
 0.8680	43.9640
 0.8690	43.9700
 0.8700	43.9690
 0.8710	43.9850
 0.8720	44.0030
 0.8730	43.9970
 0.8740	43.9990
 0.8750	44.0110
 0.8760	44.0230
 0.8770	44.0210
 0.8780	44.0200
 0.8790	44.0210
 0.8800	44.0270
 0.8810	44.0400
 0.8820	44.0470
 0.8830	44.0530
 0.8840	44.0610
 0.8850	44.0600
 0.8860	44.0640
 0.8870	44.0750
 0.8880	44.0870
 0.8890	44.0780
 0.8900	44.0800
 0.8910	44.0880
 0.8920	44.0880
 0.8930	44.1020
 0.8940	44.1010
 0.8950	44.0920
 0.8960	44.1000
 0.8970	44.1090
 0.8980	44.1110
 0.8990	44.1100
 0.9000	44.1190
 0.9010	44.1200
 0.9020	44.1150
 0.9030	44.1120
 0.9040	44.1200
 0.9050	44.1300
 0.9060	44.1360
 0.9070	44.1370
 0.9080	44.1440
 0.9090	44.1470
 0.9100	44.1480
 0.9110	44.1490
 0.9120	44.1440
 0.9130	44.1420
 0.9140	44.1480
 0.9150	44.1580
 0.9160	44.1510
 0.9170	44.1360
 0.9180	44.1310
 0.9190	44.1460
 0.9200	44.1370
 0.9210	44.1330
 0.9220	44.1360
 0.9230	44.1310
 0.9240	44.1310
 0.9250	44.1290
 0.9260	44.1220
 0.9270	44.1120
 0.9280	44.1000
 0.9290	44.0910
 0.9300	44.0810
 0.9310	44.0620
 0.9320	44.0490
 0.9330	44.0350
 0.9340	44.0170
 0.9350	43.9980
 0.9360	43.9870
 0.9370	43.9730
 0.9380	43.9500
 0.9390	43.9300
 0.9400	43.9040
 0.9410	43.8840
 0.9420	43.8700
 0.9430	43.8300
 0.9440	43.7990
 0.9450	43.7700
 0.9460	43.7340
 0.9470	43.6980
 0.9480	43.6580
 0.9490	43.6230
 0.9500	43.5930
 0.9510	43.5330
 0.9520	43.4690
 0.9530	43.4110
 0.9540	43.3640
 0.9550	43.3050
 0.9560	43.2600
 0.9570	43.2140
 0.9580	43.1580
 0.9590	43.1240
 0.9600	43.0850
 0.9610	43.0410
 0.9620	43.0000
 0.9630	42.9620
 0.9640	42.9380
 0.9650	42.9230
 0.9660	42.9030
 0.9670	42.8740
 0.9680	42.8600
 0.9690	42.8500
 0.9700	42.8250
 0.9710	42.8350
 0.9720	42.8200
 0.9730	42.7970
 0.9740	42.8020
 0.9750	42.7910
 0.9760	42.7810
 0.9770	42.7800
 0.9780	42.7850
 0.9790	42.7800
 0.9800	42.7830
 0.9810	42.7980
 0.9820	42.8140
 0.9830	42.8190
 0.9840	42.8150
 0.9850	42.8170
 0.9860	42.8380
 0.9870	42.8470
 0.9880	42.8670
 0.9890	42.8890
 0.9900	42.8940
 0.9910	42.9010
 0.9920	42.9360
 0.9930	42.9720
 0.9940	43.0080
 0.9950	43.0430
 0.9960	43.0790
 0.9970	43.1150
 0.9980	43.1500
 0.9990	43.1860
 1.0000	43.2220
 1.0010	43.2570
 1.0020	43.2930
 1.0030	43.3290
 1.0040	43.3640
 1.0050	43.4000
 1.0060	43.4360
 1.0070	43.4710
 1.0080	43.5070
 1.0090	43.5430
 1.0100	43.5430
 1.0110	43.5570
 1.0120	43.5740
 1.0130	43.5880
 1.0140	43.6060
 1.0150	43.6270
 1.0160	43.6490
 1.0170	43.6700
 1.0180	43.6880
 1.0190	43.7050
 1.0200	43.7200
 1.0210	43.7360
 1.0220	43.7530
 1.0230	43.7690
 1.0240	43.7840
 1.0250	43.7990
 1.0260	43.8120
 1.0270	43.8260
 1.0280	43.8440
 1.0290	43.8560
 1.0300	43.8660
 1.0310	43.8780
 1.0320	43.8900
 1.0330	43.9000
 1.0340	43.9180
 1.0350	43.9370
 1.0360	43.9520
 1.0370	43.9630
 1.0380	43.9740
 1.0390	43.9810
 1.0400	43.9900
 1.0410	44.0010
 1.0420	44.0120
 1.0430	44.0220
 1.0440	44.0310
 1.0450	44.0390
 1.0460	44.0470
 1.0470	44.0530
 1.0480	44.0610
 1.0490	44.0710
 1.0500	44.0790
 1.0510	44.0880
 1.0520	44.0930
 1.0530	44.1020
 1.0540	44.1090
 1.0550	44.1170
 1.0560	44.1270
 1.0570	44.1350
 1.0580	44.1440
 1.0590	44.1490
 1.0600	44.1510
 1.0610	44.1520
 1.0620	44.1460
 1.0630	44.1480
 1.0640	44.1570
 1.0650	44.1610
 1.0660	44.1650
 1.0670	44.1700
 1.0680	44.1740
 1.0690	44.1760
 1.0700	44.1780
 1.0710	44.1850
 1.0720	44.1860
 1.0730	44.1800
 1.0740	44.1790
 1.0750	44.1770
 1.0760	44.1760
 1.0770	44.1780
 1.0780	44.1770
 1.0790	44.1720
 1.0800	44.1720
 1.0810	44.1770
 1.0820	44.1760
 1.0830	44.1750
 1.0840	44.1720
 1.0850	44.1670
 1.0860	44.1580
 1.0870	44.1520
 1.0880	44.1460
 1.0890	44.1410
 1.0900	44.1360
 1.0910	44.1290
 1.0920	44.1220
 1.0930	44.1120
 1.0940	44.0970
 1.0950	44.0860
 1.0960	44.0780
 1.0970	44.0670
 1.0980	44.0580
 1.0990	44.0480
 1.1000	44.0360
 1.1010	44.0260
 1.1020	44.0170
 1.1030	44.0100
 1.1040	43.9990
 1.1050	43.9880
 1.1060	43.9750
 1.1070	43.9600
 1.1080	43.9460
 1.1090	43.9320
 1.1100	43.9180
 1.1110	43.9040
 1.1120	43.8870
 1.1130	43.8710
 1.1140	43.8510
 1.1150	43.8270
 1.1160	43.8040
 1.1170	43.7830
 1.1180	43.7600
 1.1190	43.7370
 1.1200	43.7120
 1.1210	43.6840
 1.1220	43.6510
 1.1230	43.6140
 1.1240	43.5740
 1.1250	43.5300
 1.1260	43.4840
 1.1270	43.4310
 1.1280	43.3760
 1.1290	43.3140
 1.1300	43.2450
 1.1310	43.1710
 1.1320	43.0910
 1.1330	43.0070
 1.1340	42.9180
 1.1350	42.8230
 1.1360	42.7220
 1.1370	42.6170
 1.1380	42.5080
 1.1390	42.3930
 1.1400	42.2770
 1.1410	42.1600
 1.1420	42.0380
 1.1430	41.9150
 1.1440	41.7940
 1.1450	41.6690
 1.1460	41.5500
 1.1470	41.4330
 1.1480	41.3200
 1.1490	41.2080
 1.1500	41.1040
 1.1510	41.0030
 1.1520	40.9100
 1.1530	40.8220
 1.1540	40.7430
 1.1550	40.6710
 1.1560	40.6040
 1.1570	40.5440
 1.1580	40.4910
 1.1590	40.4420
 1.1600	40.3970
 1.1610	40.3600
 1.1620	40.3280
 1.1630	40.2970
 1.1640	40.2730
 1.1650	40.2490
 1.1660	40.2280
 1.1670	40.2090
 1.1680	40.1920
 1.1690	40.1750
 1.1700	40.1600
 1.1710	40.1460
 1.1720	40.1320
 1.1730	40.1180
 1.1740	40.1050
 1.1750	40.0910
 1.1760	40.0760
 1.1770	40.0610
 1.1780	40.0440
 1.1790	40.0290
 1.1800	40.0130
 1.1810	39.9980
 1.1820	39.9830
 1.1830	39.9670
 1.1840	39.9510
 1.1850	39.9360
 1.1860	39.9230
 1.1870	39.9110
 1.1880	39.8990
 1.1890	39.8860
 1.1900	39.8750
 1.1910	39.8630
 1.1920	39.8540
 1.1930	39.8490
 1.1940	39.8440
 1.1950	39.8410
 1.1960	39.8400
 1.1970	39.8370
 1.1980	39.8350
 1.1990	39.8350
 1.2000	39.8360
 1.2010	39.8430
 1.2020	39.8520
 1.2030	39.8600
 1.2040	39.8730
 1.2050	39.8860
 1.2060	39.9010
 1.2070	39.9180
 1.2080	39.9350
 1.2090	39.9520
 1.2100	39.9700
 1.2110	39.9900
 1.2120	40.0110
 1.2130	40.0340
 1.2140	40.0580
 1.2150	40.0830
 1.2160	40.1100
 1.2170	40.1370
 1.2180	40.1670
 1.2190	40.1970
 1.2200	40.2250
 1.2210	40.2540
 1.2220	40.2810
 1.2230	40.3070
 1.2240	40.3370
 1.2250	40.3640
 1.2260	40.3910
 1.2270	40.4170
 1.2280	40.4410
 1.2290	40.4650
 1.2300	40.4890
 1.2310	40.5110
 1.2320	40.5350
 1.2330	40.5560
 1.2340	40.5770
 1.2350	40.5980
 1.2360	40.6180
 1.2370	40.6370
 1.2380	40.6570
 1.2390	40.6770
 1.2400	40.6950
 1.2410	40.7130
 1.2420	40.7290
 1.2430	40.7440
 1.2440	40.7600
 1.2450	40.7760
 1.2460	40.7890
 1.2470	40.8010
 1.2480	40.8110
 1.2490	40.8240
 1.2500	40.8360
 1.2510	40.8480
 1.2520	40.8590
 1.2530	40.8670
 1.2540	40.8750
 1.2550	40.8820
 1.2560	40.8880
 1.2570	40.8960
 1.2580	40.9010
 1.2590	40.9070
 1.2600	40.9160
 1.2610	40.9200
 1.2620	40.9230
 1.2630	40.9240
 1.2640	40.9230
 1.2650	40.9220
 1.2660	40.9210
 1.2670	40.9210
 1.2680	40.9220
 1.2690	40.9220
 1.2700	40.9190
 1.2710	40.9150
 1.2720	40.9100
 1.2730	40.9030
 1.2740	40.8950
 1.2750	40.8860
 1.2760	40.8750
 1.2770	40.8650
 1.2780	40.8520
 1.2790	40.8380
 1.2800	40.8230
 1.2810	40.8070
 1.2820	40.7910
 1.2830	40.7720
 1.2840	40.7550
 1.2850	40.7350
 1.2860	40.7130
 1.2870	40.6920
 1.2880	40.6730
 1.2890	40.6500
 1.2900	40.6240
 1.2910	40.5960
 1.2920	40.5620
 1.2930	40.5280
 1.2940	40.4940
 1.2950	40.4590
 1.2960	40.4230
 1.2970	40.3870
 1.2980	40.3450
 1.2990	40.3040
 1.3000	40.2630
 1.3010	40.2170
 1.3020	40.1720
 1.3030	40.1220
 1.3040	40.0660
 1.3050	40.0090
 1.3060	39.9490
 1.3070	39.8870
 1.3080	39.8250
 1.3090	39.7600
 1.3100	39.6930
 1.3110	39.6230
 1.3120	39.5460
 1.3130	39.4660
 1.3140	39.3850
 1.3150	39.3030
 1.3160	39.2180
 1.3170	39.1320
 1.3180	39.0440
 1.3190	38.9510
 1.3200	38.8530
 1.3210	38.7520
 1.3220	38.6480
 1.3230	38.5390
 1.3240	38.4280
 1.3250	38.3150
 1.3260	38.2010
 1.3270	38.0850
 1.3280	37.9680
 1.3290	37.8490
 1.3300	37.7300
 1.3310	37.6080
 1.3320	37.4820
 1.3330	37.3550
 1.3340	37.2270
 1.3350	37.0970
 1.3360	36.9680
 1.3370	36.8380
 1.3380	36.7080
 1.3390	36.5790
 1.3400	36.4490
 1.3410	36.3200
 1.3420	36.1930
 1.3430	36.0640
 1.3440	35.9370
 1.3450	35.8120
 1.3460	35.6870
 1.3470	35.5630
 1.3480	35.4400
 1.3490	35.3190
 1.3500	35.1990
 1.3510	35.0790
 1.3520	34.9600
 1.3530	34.8430
 1.3540	34.7240
 1.3550	34.6070
 1.3560	34.4900
 1.3570	34.3720
 1.3580	34.2530
 1.3590	34.1300
 1.3600	34.0040
 1.3610	33.8750
 1.3620	33.7400
 1.3630	33.6030
 1.3640	33.4610
 1.3650	33.3090
 1.3660	33.1530
 1.3670	32.9870
 1.3680	32.8090
 1.3690	32.6250
 1.3700	32.4270
 1.3710	32.2180
 1.3720	31.9980
 1.3730	31.7620
 1.3740	31.5120
 1.3750	31.2450
 1.3760	30.9590
 1.3770	30.6560
 1.3780	30.3300
 1.3790	29.9850
 1.3800	29.6200
 1.3810	29.2310
 1.3820	28.8280
 1.3830	28.4080
 1.3840	27.9710
 1.3850	27.5180
 1.3860	27.0530
 1.3870	26.5670
 1.3880	26.0780
 1.3890	25.5780
 1.3900	25.0710
 1.3910	24.5650
 1.3920	24.0540
 1.3930	23.5410
 1.3940	23.0310
 1.3950	22.5200
 1.3960	22.0170
 1.3970	21.5260
 1.3980	21.0440
 1.3990	20.5810
 1.4000	20.1330
 1.4010	19.6980
 1.4020	19.2840
 1.4030	18.8840
 1.4040	18.5020
 1.4050	18.1420
 1.4060	17.8000
 1.4070	17.4810
 1.4080	17.1810
 1.4090	16.8990
 1.4100	16.6380
 1.4110	16.3930
 1.4120	16.1660
 1.4130	15.9570
 1.4140	15.7630
 1.4150	15.5880
 1.4160	15.4270
 1.4170	15.2780
 1.4180	15.1420
 1.4190	15.0180
 1.4200	14.9050
 1.4210	14.8020
 1.4220	14.7090
 1.4230	14.6260
 1.4240	14.5500
 1.4250	14.4820
 1.4260	14.4240
 1.4270	14.3700
 1.4280	14.3240
 1.4290	14.2830
 1.4300	14.2490
 1.4310	14.2180
 1.4320	14.1950
 1.4330	14.1740
 1.4340	14.1590
 1.4350	14.1470
 1.4360	14.1380
 1.4370	14.1340
 1.4380	14.1330
 1.4390	14.1340
 1.4400	14.1390
 1.4410	14.1470
 1.4420	14.1560
 1.4430	14.1670
 1.4440	14.1790
 1.4450	14.1940
 1.4460	14.2100
 1.4470	14.2280
 1.4480	14.2470
 1.4490	14.2670
 1.4500	14.2870
 1.4510	14.3080
 1.4520	14.3310
 1.4530	14.3560
 1.4540	14.3810
 1.4550	14.4080
 1.4560	14.4360
 1.4570	14.4650
 1.4580	14.4980
 1.4590	14.5330
 1.4600	14.5720
 1.4610	14.6140
 1.4620	14.6600
 1.4630	14.7100
 1.4640	14.7620
 1.4650	14.8200
 1.4660	14.8820
 1.4670	14.9470
 1.4680	15.0180
 1.4690	15.0910
