Name: Acer rubrum
Type: Vegetation
Class: Tree
Genus: Acer
Species: rubrum
Sample No.: ACRU-2-19
Owner: UCSB
Wavelength Range: TIR
Origin: USA; Massachusetts; Harvard Forest
Collection Date: 7/8/2013
Description: Samples were collected as part of NSF Macrosystem Biology proposal titled: Collaborative Research: Thermal controls on ecosystem metabolism and function: scaling from leaves to canopies to regions. Samples were collected and overnighted to JPL facilities for processing. The same leaves were processed in the Nicolet and then measured using the ASD.
Measurement: Hemispherical reflectance
First Column: X
Second Column: Y
X Units: Wavelength (micrometers)
Y Units: Reflectance (percentage)
First X Value: 2.501
Last X Value: 15.387
Number of X Values: 1737
Additional Information: vegetation.tree.acer.rubrum.tir.acru-2-19.ucsb.nicolet.ancillary.txt

 2.5010	17.0110
 2.5030	16.9040
 2.5040	16.7600
 2.5050	16.8550
 2.5060	17.0050
 2.5070	16.9310
 2.5090	16.6150
 2.5100	16.5660
 2.5110	16.6040
 2.5120	16.5570
 2.5140	16.4530
 2.5150	16.3880
 2.5160	16.5260
 2.5170	16.6480
 2.5180	16.7790
 2.5200	16.5530
 2.5210	16.4220
 2.5220	16.3810
 2.5230	16.4120
 2.5250	16.2980
 2.5260	16.3150
 2.5270	16.3570
 2.5280	16.3760
 2.5290	16.3670
 2.5310	16.3770
 2.5320	16.4500
 2.5330	16.3600
 2.5340	16.2350
 2.5360	16.2350
 2.5370	16.1640
 2.5380	16.2550
 2.5390	16.2800
 2.5410	16.2110
 2.5420	16.2980
 2.5430	16.5200
 2.5440	16.2910
 2.5460	16.2360
 2.5470	16.3740
 2.5480	16.4810
 2.5490	16.4600
 2.5510	16.5350
 2.5520	16.5500
 2.5530	16.6550
 2.5540	16.7790
 2.5560	16.7600
 2.5570	16.4080
 2.5580	16.1880
 2.5590	16.1830
 2.5610	16.3120
 2.5620	16.3570
 2.5630	16.3740
 2.5640	16.4500
 2.5660	16.4240
 2.5670	16.4390
 2.5680	16.4550
 2.5700	16.2700
 2.5710	16.3320
 2.5720	16.3510
 2.5730	16.3020
 2.5750	16.2090
 2.5760	16.3130
 2.5770	16.4210
 2.5790	16.3890
 2.5800	16.2330
 2.5810	16.2850
 2.5820	16.4380
 2.5840	16.4240
 2.5850	16.2350
 2.5860	16.0190
 2.5880	16.0770
 2.5890	16.3590
 2.5900	16.5360
 2.5910	16.7020
 2.5930	16.3710
 2.5940	16.1940
 2.5950	16.3010
 2.5970	16.2920
 2.5980	16.1200
 2.5990	15.8100
 2.6000	15.6250
 2.6020	15.7860
 2.6030	15.9720
 2.6040	15.9110
 2.6060	15.7500
 2.6070	15.7330
 2.6080	15.8800
 2.6100	15.9310
 2.6110	15.6700
 2.6120	15.5220
 2.6140	15.5800
 2.6150	15.6610
 2.6160	15.5500
 2.6180	15.4210
 2.6190	15.2250
 2.6200	15.3160
 2.6220	15.2100
 2.6230	15.1650
 2.6240	15.0410
 2.6260	15.0370
 2.6270	14.9830
 2.6280	14.9830
 2.6300	14.8000
 2.6310	14.5000
 2.6320	14.3820
 2.6340	14.4490
 2.6350	14.5260
 2.6360	14.5670
 2.6380	14.3550
 2.6390	14.2350
 2.6400	14.2520
 2.6420	14.2600
 2.6430	14.1940
 2.6440	14.3120
 2.6460	14.1110
 2.6470	14.0690
 2.6480	14.1210
 2.6500	14.0500
 2.6510	13.8220
 2.6520	13.7930
 2.6540	13.5780
 2.6550	13.5220
 2.6560	13.6910
 2.6580	13.7810
 2.6590	13.6160
 2.6610	13.5970
 2.6620	13.3920
 2.6630	13.2870
 2.6650	13.2940
 2.6660	13.3300
 2.6670	13.1730
 2.6690	13.0570
 2.6700	13.0980
 2.6720	13.0740
 2.6730	13.0500
 2.6740	13.1700
 2.6760	13.1390
 2.6770	13.0340
 2.6780	12.8900
 2.6800	12.6570
 2.6810	12.5550
 2.6830	12.6720
 2.6840	12.6720
 2.6850	12.6360
 2.6870	12.4920
 2.6880	12.5500
 2.6900	12.6600
 2.6910	12.5380
 2.6920	12.3930
 2.6940	12.6090
 2.6950	12.6910
 2.6970	12.6200
 2.6980	12.5440
 2.6990	12.6990
 2.7010	12.7710
 2.7020	12.5100
 2.7040	12.3180
 2.7050	12.4200
 2.7060	12.5720
 2.7080	12.6980
 2.7090	12.7260
 2.7110	12.6420
 2.7120	12.3950
 2.7130	12.5300
 2.7150	12.7720
 2.7160	12.8540
 2.7180	12.7790
 2.7190	12.7250
 2.7210	12.5730
 2.7220	13.0670
 2.7230	13.4440
 2.7250	13.2900
 2.7260	12.6340
 2.7280	12.3330
 2.7290	12.7050
 2.7310	13.0440
 2.7320	12.7650
 2.7330	12.5730
 2.7350	12.7090
 2.7360	13.0510
 2.7380	13.1320
 2.7390	12.6930
 2.7410	12.4030
 2.7420	12.7260
 2.7440	12.8380
 2.7450	12.8200
 2.7470	12.7040
 2.7480	12.7520
 2.7490	12.9480
 2.7510	13.0740
 2.7520	13.0310
 2.7540	12.9620
 2.7550	13.1390
 2.7570	13.6100
 2.7580	13.5680
 2.7600	12.9220
 2.7610	12.3950
 2.7630	12.6200
 2.7640	12.8620
 2.7660	12.8660
 2.7670	12.8760
 2.7680	12.8450
 2.7700	12.4480
 2.7710	12.6020
 2.7730	12.8500
 2.7740	13.0030
 2.7760	13.0610
 2.7770	13.0230
 2.7790	13.0340
 2.7800	13.0400
 2.7820	12.8830
 2.7830	13.0500
 2.7850	13.1130
 2.7860	12.8950
 2.7880	12.8250
 2.7890	13.0400
 2.7910	13.0130
 2.7920	12.9820
 2.7940	12.5450
 2.7950	12.5320
 2.7970	12.7790
 2.7980	12.8440
 2.8000	12.7310
 2.8010	12.7350
 2.8030	12.8220
 2.8040	12.9160
 2.8060	13.1750
 2.8070	13.1960
 2.8090	12.9040
 2.8110	12.7210
 2.8120	12.8270
 2.8140	13.0990
 2.8150	13.0110
 2.8170	12.9310
 2.8180	13.0700
 2.8200	13.1360
 2.8210	13.2980
 2.8230	13.0690
 2.8240	12.8370
 2.8260	13.0430
 2.8270	12.8700
 2.8290	12.7110
 2.8300	12.8990
 2.8320	12.9510
 2.8340	13.0600
 2.8350	13.2060
 2.8370	13.3610
 2.8380	13.1830
 2.8400	12.9520
 2.8410	13.2560
 2.8430	13.3450
 2.8440	13.3000
 2.8460	12.9460
 2.8480	12.8800
 2.8490	12.9810
 2.8510	12.9070
 2.8520	12.9470
 2.8540	12.9150
 2.8550	12.9570
 2.8570	13.0500
 2.8590	12.8650
 2.8600	12.9300
 2.8620	12.9340
 2.8630	13.0160
 2.8650	13.0320
 2.8660	12.9780
 2.8680	12.9440
 2.8700	13.1300
 2.8710	12.8940
 2.8730	12.9530
 2.8740	13.1130
 2.8760	13.1220
 2.8780	12.9330
 2.8790	12.9800
 2.8810	13.5860
 2.8820	13.8250
 2.8840	13.5780
 2.8860	13.2050
 2.8870	13.0060
 2.8890	13.2000
 2.8900	13.4610
 2.8920	13.1710
 2.8940	12.9610
 2.8950	12.9060
 2.8970	12.7440
 2.8980	12.7830
 2.9000	13.0150
 2.9020	12.9940
 2.9030	12.8150
 2.9050	12.8830
 2.9070	12.6650
 2.9080	12.6090
 2.9100	12.7770
 2.9120	12.9660
 2.9130	12.8660
 2.9150	12.8130
 2.9160	12.6580
 2.9180	12.8480
 2.9200	13.0690
 2.9210	13.1060
 2.9230	12.8060
 2.9250	12.6290
 2.9260	12.7610
 2.9280	12.8890
 2.9300	12.8860
 2.9310	12.8540
 2.9330	12.7190
 2.9350	12.6740
 2.9360	12.8440
 2.9380	12.8530
 2.9400	12.5160
 2.9410	12.6390
 2.9430	13.0410
 2.9450	12.9660
 2.9460	12.8960
 2.9480	13.1640
 2.9500	13.0820
 2.9510	12.7410
 2.9530	12.4500
 2.9550	12.8230
 2.9560	12.7500
 2.9580	12.8590
 2.9600	13.6640
 2.9610	13.5610
 2.9630	12.5810
 2.9650	13.0610
 2.9660	13.6870
 2.9680	13.2510
 2.9700	12.1520
 2.9720	10.6820
 2.9730	12.0960
 2.9750	15.1850
 2.9770	14.5180
 2.9780	10.3690
 2.9800	10.3140
 2.9820	11.0070
 2.9840	11.7360
 2.9850	12.6890
 2.9870	12.5290
 2.9890	13.2010
 2.9900	13.0980
 2.9920	14.4770
 2.9940	14.2110
 2.9960	13.6820
 2.9970	12.0030
 2.9990	10.5400
 3.0010	10.7900
 3.0030	12.0200
 3.0040	12.4690
 3.0060	12.7800
 3.0080	13.2180
 3.0100	12.5260
 3.0110	12.0600
 3.0130	11.5100
 3.0150	11.1590
 3.0170	12.8550
 3.0180	13.2450
 3.0200	13.1300
 3.0220	12.6700
 3.0240	12.4170
 3.0250	13.0170
 3.0270	13.1090
 3.0290	12.6720
 3.0310	12.7670
 3.0320	12.4310
 3.0340	12.2560
 3.0360	11.6780
 3.0380	10.7190
 3.0400	12.2160
 3.0410	14.6390
 3.0430	14.4530
 3.0450	12.8240
 3.0470	11.0460
 3.0480	11.3200
 3.0500	11.6580
 3.0520	11.6800
 3.0540	11.9690
 3.0560	13.1160
 3.0570	14.1530
 3.0590	13.4540
 3.0610	13.4440
 3.0630	13.0130
 3.0650	12.6430
 3.0660	13.2440
 3.0680	13.9080
 3.0700	13.1070
 3.0720	12.8100
 3.0740	13.3870
 3.0760	13.3920
 3.0770	12.3820
 3.0790	12.2700
 3.0810	12.5410
 3.0830	12.6810
 3.0850	12.5150
 3.0870	12.4230
 3.0880	12.3230
 3.0900	11.9120
 3.0920	11.8350
 3.0940	12.2930
 3.0960	12.3460
 3.0980	12.2950
 3.0990	12.3090
 3.1010	12.4340
 3.1030	12.2680
 3.1050	12.5370
 3.1070	12.9270
 3.1090	12.6290
 3.1110	12.5400
 3.1120	12.5820
 3.1140	12.2050
 3.1160	11.9790
 3.1180	12.1900
 3.1200	12.2250
 3.1220	12.2730
 3.1240	12.2440
 3.1260	12.9090
 3.1270	12.7370
 3.1290	12.5340
 3.1310	12.5550
 3.1330	12.3000
 3.1350	12.1090
 3.1370	12.2540
 3.1390	12.1760
 3.1410	12.1540
 3.1430	12.4990
 3.1450	12.7840
 3.1460	13.6000
 3.1480	14.2850
 3.1500	12.4380
 3.1520	10.8130
 3.1540	12.6230
 3.1560	14.0990
 3.1580	12.8910
 3.1600	11.9650
 3.1620	13.4640
 3.1640	15.6950
 3.1660	14.5500
 3.1680	12.4360
 3.1700	12.6490
 3.1710	13.9580
 3.1730	14.8430
 3.1750	15.2040
 3.1770	13.7340
 3.1790	13.5960
 3.1810	14.7230
 3.1830	13.3260
 3.1850	11.8130
 3.1870	11.8550
 3.1890	12.3100
 3.1910	12.9760
 3.1930	12.7140
 3.1950	12.2630
 3.1970	12.2780
 3.1990	12.3530
 3.2010	12.4740
 3.2030	12.3790
 3.2050	12.2210
 3.2070	12.1730
 3.2090	12.2570
 3.2110	12.2090
 3.2130	12.1730
 3.2150	12.3550
 3.2170	12.2800
 3.2190	12.3070
 3.2210	12.3980
 3.2230	12.2960
 3.2250	12.4230
 3.2270	12.4850
 3.2290	12.2660
 3.2310	12.3580
 3.2330	12.1430
 3.2350	11.8710
 3.2370	12.1530
 3.2390	12.4020
 3.2410	12.2270
 3.2430	12.1570
 3.2450	12.2060
 3.2470	12.3580
 3.2490	12.5200
 3.2510	12.5520
 3.2530	12.5610
 3.2550	12.5070
 3.2570	12.2900
 3.2590	12.5100
 3.2610	12.6880
 3.2630	12.6310
 3.2650	12.3640
 3.2670	11.8790
 3.2690	11.8110
 3.2720	11.9840
 3.2740	11.9440
 3.2760	12.1450
 3.2780	11.9850
 3.2800	11.9600
 3.2820	12.1190
 3.2840	12.2680
 3.2860	12.3160
 3.2880	12.4920
 3.2900	12.4060
 3.2920	12.1690
 3.2940	12.1640
 3.2960	12.0900
 3.2990	11.8200
 3.3010	11.9250
 3.3030	12.0520
 3.3050	12.0550
 3.3070	11.8550
 3.3090	11.9350
 3.3110	12.1130
 3.3130	12.3380
 3.3150	12.2030
 3.3180	12.2310
 3.3200	12.4240
 3.3220	12.1720
 3.3240	11.8740
 3.3260	11.7920
 3.3280	12.1060
 3.3300	12.1670
 3.3330	11.9900
 3.3350	12.0520
 3.3370	12.1330
 3.3390	12.0460
 3.3410	12.0970
 3.3430	12.2080
 3.3450	12.2670
 3.3480	12.2220
 3.3500	12.0720
 3.3520	11.9810
 3.3540	11.9860
 3.3560	12.0520
 3.3580	12.2270
 3.3610	12.3560
 3.3630	12.2740
 3.3650	12.2040
 3.3670	12.1870
 3.3690	12.1170
 3.3720	12.1550
 3.3740	12.2600
 3.3760	12.1060
 3.3780	12.1780
 3.3800	12.2900
 3.3830	12.2760
 3.3850	12.2110
 3.3870	12.2600
 3.3890	12.2360
 3.3910	12.2950
 3.3940	12.4160
 3.3960	12.5370
 3.3980	12.4370
 3.4000	12.5890
 3.4020	12.6790
 3.4050	12.6560
 3.4070	12.8130
 3.4090	12.9080
 3.4110	12.9270
 3.4140	13.0140
 3.4160	13.1890
 3.4180	13.3730
 3.4200	13.3900
 3.4230	13.6230
 3.4250	13.8760
 3.4270	14.0020
 3.4290	14.0770
 3.4320	14.0460
 3.4340	13.8960
 3.4360	13.5670
 3.4390	13.3830
 3.4410	13.5290
 3.4430	13.2860
 3.4450	13.0560
 3.4480	12.6570
 3.4500	12.8080
 3.4520	13.2860
 3.4550	13.1320
 3.4570	12.5790
 3.4590	12.3640
 3.4620	12.6260
 3.4640	13.0540
 3.4660	13.0110
 3.4680	12.8800
 3.4710	12.8380
 3.4730	12.9150
 3.4750	12.9350
 3.4780	12.9260
 3.4800	12.8660
 3.4820	12.8310
 3.4850	12.7570
 3.4870	12.7490
 3.4890	12.5880
 3.4920	12.5490
 3.4940	12.7360
 3.4970	12.9900
 3.4990	13.0310
 3.5010	13.1420
 3.5040	13.3620
 3.5060	13.5120
 3.5080	13.6320
 3.5110	13.8930
 3.5130	13.7690
 3.5160	13.5570
 3.5180	13.3700
 3.5200	13.1750
 3.5230	13.2540
 3.5250	13.3220
 3.5270	13.0050
 3.5300	12.7370
 3.5320	12.6610
 3.5350	12.8180
 3.5370	12.8340
 3.5400	12.9050
 3.5420	12.9410
 3.5440	12.9030
 3.5470	12.8040
 3.5490	12.8000
 3.5520	12.5900
 3.5540	12.5150
 3.5570	12.6410
 3.5590	12.7660
 3.5610	12.6790
 3.5640	12.5830
 3.5660	12.4880
 3.5690	12.5050
 3.5710	12.6710
 3.5740	12.8600
 3.5760	12.8210
 3.5790	12.5870
 3.5810	12.4910
 3.5840	12.6250
 3.5860	12.6440
 3.5890	12.5410
 3.5910	12.2360
 3.5930	12.1280
 3.5960	12.2950
 3.5980	12.7000
 3.6010	12.6780
 3.6030	12.4160
 3.6060	12.4080
 3.6080	12.3880
 3.6110	12.5360
 3.6140	12.6260
 3.6160	12.5580
 3.6190	12.6200
 3.6210	12.6460
 3.6240	12.6870
 3.6260	12.7250
 3.6290	12.6370
 3.6310	12.5990
 3.6340	12.7730
 3.6360	12.6840
 3.6390	12.5850
 3.6410	12.6760
 3.6440	12.7350
 3.6470	12.7410
 3.6490	12.7640
 3.6520	12.6930
 3.6540	12.7120
 3.6570	12.6190
 3.6590	12.6670
 3.6620	12.6000
 3.6650	12.4820
 3.6670	12.5820
 3.6700	12.6130
 3.6720	12.4620
 3.6750	12.5390
 3.6780	12.5200
 3.6800	12.4820
 3.6830	12.5190
 3.6850	12.5550
 3.6880	12.6450
 3.6910	12.7230
 3.6930	12.5980
 3.6960	12.5700
 3.6990	12.6590
 3.7010	12.6610
 3.7040	12.6520
 3.7060	12.6800
 3.7090	12.6760
 3.7120	12.5740
 3.7140	12.5140
 3.7170	12.5770
 3.7200	12.6500
 3.7220	12.5570
 3.7250	12.4540
 3.7280	12.5420
 3.7300	12.6890
 3.7330	12.6650
 3.7360	12.6590
 3.7390	12.7130
 3.7410	12.7040
 3.7440	12.7760
 3.7470	12.8580
 3.7490	12.8520
 3.7520	12.8570
 3.7550	12.8020
 3.7580	12.7960
 3.7600	12.7010
 3.7630	12.6330
 3.7660	12.7390
 3.7680	12.6740
 3.7710	12.5950
 3.7740	12.6750
 3.7770	12.7390
 3.7790	12.7400
 3.7820	12.7640
 3.7850	12.6950
 3.7880	12.7340
 3.7900	12.7990
 3.7930	12.7870
 3.7960	12.7620
 3.7990	12.8830
 3.8020	12.9270
 3.8040	12.8690
 3.8070	12.7970
 3.8100	12.7760
 3.8130	12.6550
 3.8160	12.6840
 3.8180	12.6430
 3.8210	12.7210
 3.8240	12.7900
 3.8270	12.6420
 3.8300	12.6320
 3.8330	12.8670
 3.8350	12.8770
 3.8380	12.8140
 3.8410	13.0110
 3.8440	12.7750
 3.8470	12.6430
 3.8500	12.9300
 3.8520	12.9130
 3.8550	12.9500
 3.8580	12.8860
 3.8610	12.8630
 3.8640	12.8530
 3.8670	12.8470
 3.8700	12.8790
 3.8730	12.9250
 3.8750	12.8990
 3.8780	12.9300
 3.8810	12.9110
 3.8840	12.9680
 3.8870	12.9100
 3.8900	12.8430
 3.8930	12.8770
 3.8960	12.9030
 3.8990	12.9260
 3.9020	12.9430
 3.9050	12.9900
 3.9080	13.1360
 3.9110	13.1220
 3.9140	13.0500
 3.9160	13.0270
 3.9190	12.9520
 3.9220	13.0360
 3.9250	13.1570
 3.9280	13.1480
 3.9310	13.0400
 3.9340	12.9800
 3.9370	13.0700
 3.9400	13.1110
 3.9430	13.1230
 3.9460	13.1540
 3.9490	13.2190
 3.9520	13.1540
 3.9550	13.1470
 3.9580	13.1850
 3.9610	13.2550
 3.9640	13.3140
 3.9670	13.2040
 3.9700	13.0550
 3.9730	13.0500
 3.9770	13.1550
 3.9800	13.3110
 3.9830	13.2460
 3.9860	13.2420
 3.9890	13.2580
 3.9920	13.3060
 3.9950	13.2700
 3.9980	13.2520
 4.0010	13.3550
 4.0040	13.3780
 4.0070	13.2090
 4.0100	13.2110
 4.0130	13.3250
 4.0170	13.3670
 4.0200	13.2440
 4.0230	13.1330
 4.0260	13.1800
 4.0290	13.2880
 4.0320	13.3080
 4.0350	13.3130
 4.0380	13.2610
 4.0420	13.2560
 4.0450	13.2530
 4.0480	13.2150
 4.0510	13.2360
 4.0540	13.3430
 4.0570	13.3810
 4.0610	13.3910
 4.0640	13.3630
 4.0670	13.2520
 4.0700	13.2850
 4.0730	13.4110
 4.0770	13.2980
 4.0800	13.2390
 4.0830	13.2950
 4.0860	13.3590
 4.0890	13.2310
 4.0930	13.1550
 4.0960	13.2470
 4.0990	13.3220
 4.1020	13.3680
 4.1060	13.4750
 4.1090	13.3540
 4.1120	13.2300
 4.1150	13.0070
 4.1190	12.8820
 4.1220	13.1830
 4.1250	13.3470
 4.1280	13.3790
 4.1320	13.3990
 4.1350	13.3020
 4.1380	13.3420
 4.1420	13.3720
 4.1450	13.3490
 4.1480	13.3700
 4.1520	13.3600
 4.1550	13.4150
 4.1580	13.4080
 4.1620	13.3400
 4.1650	13.3790
 4.1680	13.4700
 4.1720	13.4970
 4.1750	13.4070
 4.1780	13.3070
 4.1820	13.2380
 4.1850	13.3480
 4.1890	13.4310
 4.1920	13.3550
 4.1950	13.3130
 4.1990	13.2480
 4.2020	12.9910
 4.2060	12.6470
 4.2090	12.5260
 4.2120	12.6440
 4.2160	12.4070
 4.2190	12.0150
 4.2230	12.2870
 4.2260	12.2640
 4.2300	11.4150
 4.2330	11.0310
 4.2360	11.0150
 4.2400	11.0300
 4.2430	11.2550
 4.2470	11.5910
 4.2500	11.5500
 4.2540	11.7320
 4.2570	12.5390
 4.2610	12.9610
 4.2640	12.2370
 4.2680	12.0210
 4.2710	13.5850
 4.2750	13.0460
 4.2780	11.7700
 4.2820	11.6810
 4.2850	11.9270
 4.2890	12.0160
 4.2930	11.9370
 4.2960	11.9000
 4.3000	12.0540
 4.3030	12.1840
 4.3070	12.1200
 4.3100	12.2660
 4.3140	12.4480
 4.3180	12.4570
 4.3210	12.5550
 4.3250	12.5930
 4.3280	12.6420
 4.3320	12.8340
 4.3360	12.9770
 4.3390	13.0790
 4.3430	13.1340
 4.3470	13.1270
 4.3500	13.1410
 4.3540	13.2210
 4.3570	13.1850
 4.3610	13.1530
 4.3650	13.1430
 4.3680	13.2100
 4.3720	13.3160
 4.3760	13.4040
 4.3800	13.3980
 4.3830	13.4140
 4.3870	13.4200
 4.3910	13.4030
 4.3940	13.4470
 4.3980	13.4540
 4.4020	13.3710
 4.4060	13.3200
 4.4090	13.3730
 4.4130	13.3260
 4.4170	13.3560
 4.4210	13.4020
 4.4240	13.4660
 4.4280	13.4710
 4.4320	13.4350
 4.4360	13.4680
 4.4400	13.4890
 4.4430	13.4330
 4.4470	13.4560
 4.4510	13.4430
 4.4550	13.3960
 4.4590	13.3740
 4.4620	13.3410
 4.4660	13.3300
 4.4700	13.3770
 4.4740	13.3860
 4.4780	13.2430
 4.4820	13.1860
 4.4860	13.3520
 4.4900	13.4160
 4.4930	13.3430
 4.4970	13.3020
 4.5010	13.2400
 4.5050	13.2410
 4.5090	13.2930
 4.5130	13.3490
 4.5170	13.2900
 4.5210	13.2620
 4.5250	13.3650
 4.5290	13.3760
 4.5330	13.2830
 4.5370	13.3120
 4.5410	13.3660
 4.5450	13.3760
 4.5490	13.3700
 4.5530	13.2960
 4.5570	13.2670
 4.5610	13.3010
 4.5650	13.3510
 4.5690	13.2650
 4.5730	13.2390
 4.5770	13.3230
 4.5810	13.3520
 4.5850	13.3970
 4.5890	13.3030
 4.5930	13.2220
 4.5970	13.2080
 4.6010	13.2130
 4.6050	13.2130
 4.6090	13.3150
 4.6130	13.6180
 4.6170	13.3990
 4.6220	13.2450
 4.6260	13.3030
 4.6300	13.4360
 4.6340	13.5060
 4.6380	13.4140
 4.6420	13.2810
 4.6460	13.2530
 4.6510	13.3510
 4.6550	13.3960
 4.6590	13.3590
 4.6630	13.4040
 4.6670	13.5190
 4.6720	13.4430
 4.6760	13.3380
 4.6800	13.3790
 4.6840	13.5140
 4.6880	13.4620
 4.6930	13.3940
 4.6970	13.3790
 4.7010	13.2970
 4.7050	13.2570
 4.7100	13.3160
 4.7140	13.3970
 4.7180	13.4290
 4.7230	13.4090
 4.7270	13.3230
 4.7310	13.3620
 4.7360	13.3960
 4.7400	13.3830
 4.7440	13.4590
 4.7490	13.5820
 4.7530	13.6340
 4.7570	13.4460
 4.7620	13.3420
 4.7660	13.3700
 4.7700	13.4570
 4.7750	13.6680
 4.7790	13.6970
 4.7840	13.4150
 4.7880	13.3160
 4.7920	13.5130
 4.7970	13.5560
 4.8010	13.3220
 4.8060	13.1900
 4.8100	13.4750
 4.8150	13.5690
 4.8190	13.5810
 4.8240	13.5580
 4.8280	13.5340
 4.8330	13.5550
 4.8370	13.5810
 4.8420	13.5030
 4.8460	13.4770
 4.8510	13.5350
 4.8550	13.6410
 4.8600	13.6070
 4.8640	13.5580
 4.8690	13.5110
 4.8730	13.5510
 4.8780	13.6050
 4.8830	13.6190
 4.8870	13.6130
 4.8920	13.5800
 4.8960	13.5310
 4.9010	13.6060
 4.9060	13.5590
 4.9100	13.6300
 4.9150	13.7100
 4.9200	13.6170
 4.9240	13.6360
 4.9290	13.7310
 4.9340	13.6180
 4.9380	13.6010
 4.9430	13.6990
 4.9480	13.8000
 4.9530	13.7600
 4.9570	13.7430
 4.9620	13.7800
 4.9670	13.8580
 4.9720	13.8190
 4.9760	13.8290
 4.9810	13.7670
 4.9860	13.6900
 4.9910	13.7130
 4.9960	13.7670
 5.0000	13.7760
 5.0050	13.8540
 5.0100	13.8660
 5.0150	13.8560
 5.0200	13.8500
 5.0250	13.8280
 5.0290	13.8160
 5.0340	13.8490
 5.0390	13.8640
 5.0440	13.8860
 5.0490	13.8940
 5.0540	14.0030
 5.0590	13.9320
 5.0640	13.8760
 5.0690	13.8540
 5.0740	13.9580
 5.0790	14.0260
 5.0840	13.9730
 5.0890	14.0170
 5.0940	14.0800
 5.0990	13.9740
 5.1040	13.9200
 5.1090	13.9620
 5.1140	13.9830
 5.1190	13.9920
 5.1240	13.9850
 5.1290	13.9760
 5.1340	14.0830
 5.1390	14.0920
 5.1440	13.9800
 5.1490	13.9570
 5.1540	14.0310
 5.1600	14.0160
 5.1650	13.8770
 5.1700	13.8130
 5.1750	13.9070
 5.1800	13.9500
 5.1850	14.0040
 5.1910	14.0050
 5.1960	14.0220
 5.2010	13.9850
 5.2060	13.9490
 5.2110	13.9890
 5.2170	14.0610
 5.2220	14.0730
 5.2270	14.0720
 5.2320	14.1810
 5.2380	14.3150
 5.2430	14.2340
 5.2480	14.0920
 5.2540	14.0320
 5.2590	14.0710
 5.2640	14.1620
 5.2700	14.1900
 5.2750	14.1520
 5.2800	14.2500
 5.2860	14.2980
 5.2910	14.3160
 5.2970	14.2130
 5.3020	14.1220
 5.3070	14.1050
 5.3130	14.1310
 5.3180	14.0530
 5.3240	14.0590
 5.3290	14.0890
 5.3350	14.1400
 5.3400	14.1450
 5.3460	14.2230
 5.3510	14.2110
 5.3570	14.1850
 5.3620	14.1890
 5.3680	14.2920
 5.3730	14.2510
 5.3790	14.1670
 5.3850	14.0520
 5.3900	14.0800
 5.3960	14.1400
 5.4010	14.1330
 5.4070	14.0180
 5.4130	14.0220
 5.4180	14.1010
 5.4240	14.0800
 5.4300	13.9830
 5.4350	14.0640
 5.4410	14.1330
 5.4470	14.0800
 5.4530	13.9360
 5.4580	14.0200
