Name: Calocedrus decrruens 1
Type: vegetation
Class: Tree
Genus: Calocedrus
Species: decurrens
Sample No.: VH050
Owner: UCSB
Wavelength Range: VSWIR
Origin: 37.0432; -119.304; WGS84
Collection Date: 4/20/2013
Description: Samples were collected as part of the HyspIRI Airborne Campaign. 48 individual plants were sampled in three times in 2013 - spring  summer  and fall. The name of the sample includes a 1  2  or 3 which references a different individual of the species. Samples were taken to JPL and processed within 48 hours of collection. The same leaves were processed in the Nicolet and then measured using the ASD.
Measurement: Bidirectional reflectance
First Column: X
Second Column: Y
X Units: Wavelength (micrometers)
Y Units: Reflectance (percentage)
First X Value: 0.35
Last X Value: 2.5
Number of X Values: 2151
Additional Information: vegetation.tree.calocedrus.decurrens.vswir.vh050.ucsb.asd.ancillary.txt

 0.3500	 4.9430
 0.3510	 5.0630
 0.3520	 5.0390
 0.3530	 4.8980
 0.3540	 4.7280
 0.3550	 4.5850
 0.3560	 4.5430
 0.3570	 4.5700
 0.3580	 4.5790
 0.3590	 4.5160
 0.3600	 4.5030
 0.3610	 4.5580
 0.3620	 4.5330
 0.3630	 4.5980
 0.3640	 4.6580
 0.3650	 4.6210
 0.3660	 4.6400
 0.3670	 4.6550
 0.3680	 4.6120
 0.3690	 4.4940
 0.3700	 4.5970
 0.3710	 4.6280
 0.3720	 4.4880
 0.3730	 4.5720
 0.3740	 4.5870
 0.3750	 4.5500
 0.3760	 4.5520
 0.3770	 4.5530
 0.3780	 4.5100
 0.3790	 4.4290
 0.3800	 4.3620
 0.3810	 4.4580
 0.3820	 4.5170
 0.3830	 4.4410
 0.3840	 4.4770
 0.3850	 4.5370
 0.3860	 4.5540
 0.3870	 4.4990
 0.3880	 4.5300
 0.3890	 4.5500
 0.3900	 4.5240
 0.3910	 4.5020
 0.3920	 4.5310
 0.3930	 4.5930
 0.3940	 4.6470
 0.3950	 4.6370
 0.3960	 4.6370
 0.3970	 4.6800
 0.3980	 4.7600
 0.3990	 4.7590
 0.4000	 4.7500
 0.4010	 4.7840
 0.4020	 4.8630
 0.4030	 4.8490
 0.4040	 4.8310
 0.4050	 4.9040
 0.4060	 4.9740
 0.4070	 4.9840
 0.4080	 4.9710
 0.4090	 5.0260
 0.4100	 5.0800
 0.4110	 5.1150
 0.4120	 5.1350
 0.4130	 5.1720
 0.4140	 5.2170
 0.4150	 5.2550
 0.4160	 5.2770
 0.4170	 5.3190
 0.4180	 5.3470
 0.4190	 5.3650
 0.4200	 5.4080
 0.4210	 5.4420
 0.4220	 5.4750
 0.4230	 5.5100
 0.4240	 5.5200
 0.4250	 5.5310
 0.4260	 5.5510
 0.4270	 5.5790
 0.4280	 5.5930
 0.4290	 5.6080
 0.4300	 5.6290
 0.4310	 5.6430
 0.4320	 5.6520
 0.4330	 5.6680
 0.4340	 5.6990
 0.4350	 5.7180
 0.4360	 5.7380
 0.4370	 5.7580
 0.4380	 5.7660
 0.4390	 5.7970
 0.4400	 5.8340
 0.4410	 5.8610
 0.4420	 5.8780
 0.4430	 5.9030
 0.4440	 5.9370
 0.4450	 5.9730
 0.4460	 6.0110
 0.4470	 6.0500
 0.4480	 6.0840
 0.4490	 6.1060
 0.4500	 6.1430
 0.4510	 6.1840
 0.4520	 6.2160
 0.4530	 6.2610
 0.4540	 6.3040
 0.4550	 6.3390
 0.4560	 6.3690
 0.4570	 6.3840
 0.4580	 6.4000
 0.4590	 6.4240
 0.4600	 6.4460
 0.4610	 6.4570
 0.4620	 6.4670
 0.4630	 6.4900
 0.4640	 6.5080
 0.4650	 6.5200
 0.4660	 6.5280
 0.4670	 6.5320
 0.4680	 6.5360
 0.4690	 6.5430
 0.4700	 6.5520
 0.4710	 6.5580
 0.4720	 6.5650
 0.4730	 6.5760
 0.4740	 6.5940
 0.4750	 6.6050
 0.4760	 6.6020
 0.4770	 6.5940
 0.4780	 6.6110
 0.4790	 6.6260
 0.4800	 6.6370
 0.4810	 6.6490
 0.4820	 6.6650
 0.4830	 6.6790
 0.4840	 6.6880
 0.4850	 6.6990
 0.4860	 6.7190
 0.4870	 6.7470
 0.4880	 6.7790
 0.4890	 6.8110
 0.4900	 6.8490
 0.4910	 6.8990
 0.4920	 6.9640
 0.4930	 7.0240
 0.4940	 7.0870
 0.4950	 7.1570
 0.4960	 7.2350
 0.4970	 7.3210
 0.4980	 7.4250
 0.4990	 7.5520
 0.5000	 7.6700
 0.5010	 7.8020
 0.5020	 7.9570
 0.5030	 8.1310
 0.5040	 8.3110
 0.5050	 8.5060
 0.5060	 8.7210
 0.5070	 8.9510
 0.5080	 9.1940
 0.5090	 9.4590
 0.5100	 9.7520
 0.5110	10.0470
 0.5120	10.3580
 0.5130	10.6920
 0.5140	11.0360
 0.5150	11.3960
 0.5160	11.7710
 0.5170	12.1560
 0.5180	12.5410
 0.5190	12.9310
 0.5200	13.3270
 0.5210	13.7240
 0.5220	14.1110
 0.5230	14.4860
 0.5240	14.8490
 0.5250	15.2010
 0.5260	15.5380
 0.5270	15.8540
 0.5280	16.1480
 0.5290	16.4240
 0.5300	16.6830
 0.5310	16.9220
 0.5320	17.1350
 0.5330	17.3360
 0.5340	17.5210
 0.5350	17.6860
 0.5360	17.8410
 0.5370	17.9770
 0.5380	18.0980
 0.5390	18.2130
 0.5400	18.3220
 0.5410	18.4230
 0.5420	18.5180
 0.5430	18.6130
 0.5440	18.7040
 0.5450	18.7910
 0.5460	18.8760
 0.5470	18.9490
 0.5480	19.0200
 0.5490	19.0860
 0.5500	19.1360
 0.5510	19.1850
 0.5520	19.2200
 0.5530	19.2280
 0.5540	19.2180
 0.5550	19.1860
 0.5560	19.1330
 0.5570	19.0650
 0.5580	18.9750
 0.5590	18.8670
 0.5600	18.7480
 0.5610	18.6180
 0.5620	18.4730
 0.5630	18.3140
 0.5640	18.1430
 0.5650	17.9610
 0.5660	17.7670
 0.5670	17.5640
 0.5680	17.3530
 0.5690	17.1320
 0.5700	16.9050
 0.5710	16.6770
 0.5720	16.4530
 0.5730	16.2310
 0.5740	16.0150
 0.5750	15.8140
 0.5760	15.6230
 0.5770	15.4430
 0.5780	15.2750
 0.5790	15.1240
 0.5800	14.9820
 0.5810	14.8460
 0.5820	14.7130
 0.5830	14.5880
 0.5840	14.4710
 0.5850	14.3620
 0.5860	14.2580
 0.5870	14.1650
 0.5880	14.0760
 0.5890	13.9880
 0.5900	13.9150
 0.5910	13.8490
 0.5920	13.7880
 0.5930	13.7320
 0.5940	13.6810
 0.5950	13.6330
 0.5960	13.5880
 0.5970	13.5430
 0.5980	13.5050
 0.5990	13.4640
 0.6000	13.4110
 0.6010	13.3570
 0.6020	13.2950
 0.6030	13.2230
 0.6040	13.1400
 0.6050	13.0480
 0.6060	12.9460
 0.6070	12.8320
 0.6080	12.7100
 0.6090	12.5810
 0.6100	12.4500
 0.6110	12.3190
 0.6120	12.1830
 0.6130	12.0450
 0.6140	11.9090
 0.6150	11.7810
 0.6160	11.6560
 0.6170	11.5360
 0.6180	11.4250
 0.6190	11.3310
 0.6200	11.2470
 0.6210	11.1710
 0.6220	11.1060
 0.6230	11.0430
 0.6240	10.9910
 0.6250	10.9520
 0.6260	10.9230
 0.6270	10.9010
 0.6280	10.8820
 0.6290	10.8660
 0.6300	10.8610
 0.6310	10.8500
 0.6320	10.8290
 0.6330	10.8050
 0.6340	10.7660
 0.6350	10.7120
 0.6360	10.6450
 0.6370	10.5630
 0.6380	10.4650
 0.6390	10.3530
 0.6400	10.2290
 0.6410	10.0850
 0.6420	 9.9340
 0.6430	 9.7800
 0.6440	 9.6210
 0.6450	 9.4570
 0.6460	 9.2920
 0.6470	 9.1350
 0.6480	 8.9920
 0.6490	 8.8630
 0.6500	 8.7490
 0.6510	 8.6540
 0.6520	 8.5690
 0.6530	 8.4900
 0.6540	 8.4110
 0.6550	 8.3260
 0.6560	 8.2310
 0.6570	 8.1240
 0.6580	 8.0030
 0.6590	 7.8710
 0.6600	 7.7330
 0.6610	 7.5910
 0.6620	 7.4470
 0.6630	 7.3090
 0.6640	 7.1810
 0.6650	 7.0640
 0.6660	 6.9590
 0.6670	 6.8660
 0.6680	 6.7860
 0.6690	 6.7170
 0.6700	 6.6650
 0.6710	 6.6280
 0.6720	 6.6020
 0.6730	 6.5840
 0.6740	 6.5750
 0.6750	 6.5760
 0.6760	 6.5860
 0.6770	 6.6010
 0.6780	 6.6290
 0.6790	 6.6700
 0.6800	 6.7190
 0.6810	 6.7870
 0.6820	 6.8790
 0.6830	 6.9960
 0.6840	 7.1450
 0.6850	 7.3340
 0.6860	 7.5750
 0.6870	 7.8790
 0.6880	 8.2580
 0.6890	 8.7190
 0.6900	 9.2720
 0.6910	 9.9180
 0.6920	10.6610
 0.6930	11.4940
 0.6940	12.4090
 0.6950	13.3990
 0.6960	14.4560
 0.6970	15.5680
 0.6980	16.7160
 0.6990	17.9020
 0.7000	19.1120
 0.7010	20.3350
 0.7020	21.5650
 0.7030	22.8030
 0.7040	24.0400
 0.7050	25.2680
 0.7060	26.4820
 0.7070	27.6890
 0.7080	28.8850
 0.7090	30.0700
 0.7100	31.2560
 0.7110	32.4330
 0.7120	33.6000
 0.7130	34.7670
 0.7140	35.9300
 0.7150	37.0870
 0.7160	38.2360
 0.7170	39.3740
 0.7180	40.5060
 0.7190	41.6270
 0.7200	42.7310
 0.7210	43.8220
 0.7220	44.9020
 0.7230	45.9680
 0.7240	47.0060
 0.7250	48.0150
 0.7260	48.9990
 0.7270	49.9590
 0.7280	50.8810
 0.7290	51.7680
 0.7300	52.6230
 0.7310	53.4470
 0.7320	54.2320
 0.7330	54.9820
 0.7340	55.6990
 0.7350	56.3770
 0.7360	57.0250
 0.7370	57.6430
 0.7380	58.2290
 0.7390	58.7740
 0.7400	59.2880
 0.7410	59.7730
 0.7420	60.2270
 0.7430	60.6530
 0.7440	61.0450
 0.7450	61.4060
 0.7460	61.7440
 0.7470	62.0640
 0.7480	62.3550
 0.7490	62.6120
 0.7500	62.8590
 0.7510	63.0900
 0.7520	63.3020
 0.7530	63.4930
 0.7540	63.6650
 0.7550	63.8230
 0.7560	63.9670
 0.7570	64.0920
 0.7580	64.2170
 0.7590	64.3300
 0.7600	64.4250
 0.7610	64.5250
 0.7620	64.6110
 0.7630	64.6890
 0.7640	64.7670
 0.7650	64.8270
 0.7660	64.8820
 0.7670	64.9390
 0.7680	65.0000
 0.7690	65.0430
 0.7700	65.0810
 0.7710	65.1250
 0.7720	65.1720
 0.7730	65.2010
 0.7740	65.2250
 0.7750	65.2590
 0.7760	65.2910
 0.7770	65.3260
 0.7780	65.3610
 0.7790	65.3900
 0.7800	65.4200
 0.7810	65.4480
 0.7820	65.4710
 0.7830	65.4910
 0.7840	65.5130
 0.7850	65.5380
 0.7860	65.5620
 0.7870	65.5840
 0.7880	65.5990
 0.7890	65.6180
 0.7900	65.6470
 0.7910	65.6600
 0.7920	65.6770
 0.7930	65.7000
 0.7940	65.7210
 0.7950	65.7300
 0.7960	65.7400
 0.7970	65.7560
 0.7980	65.7740
 0.7990	65.7920
 0.8000	65.8040
 0.8010	65.8110
 0.8020	65.8220
 0.8030	65.8370
 0.8040	65.8490
 0.8050	65.8510
 0.8060	65.8500
 0.8070	65.8560
 0.8080	65.8680
 0.8090	65.8780
 0.8100	65.8770
 0.8110	65.8770
 0.8120	65.8840
 0.8130	65.8860
 0.8140	65.8880
 0.8150	65.8940
 0.8160	65.9060
 0.8170	65.9070
 0.8180	65.9100
 0.8190	65.9120
 0.8200	65.9080
 0.8210	65.9160
 0.8220	65.9260
 0.8230	65.9290
 0.8240	65.9220
 0.8250	65.9080
 0.8260	65.9010
 0.8270	65.9010
 0.8280	65.8890
 0.8290	65.8810
 0.8300	65.8780
 0.8310	65.8760
 0.8320	65.8540
 0.8330	65.8410
 0.8340	65.8410
 0.8350	65.8430
 0.8360	65.8480
 0.8370	65.8510
 0.8380	65.8530
 0.8390	65.8590
 0.8400	65.8630
 0.8410	65.8640
 0.8420	65.8630
 0.8430	65.8680
 0.8440	65.8770
 0.8450	65.8910
 0.8460	65.9080
 0.8470	65.9170
 0.8480	65.9240
 0.8490	65.9310
 0.8500	65.9360
 0.8510	65.9510
 0.8520	65.9540
 0.8530	65.9520
 0.8540	65.9650
 0.8550	65.9760
 0.8560	65.9830
 0.8570	65.9890
 0.8580	65.9970
 0.8590	65.9930
 0.8600	65.9950
 0.8610	66.0070
 0.8620	66.0060
 0.8630	66.0270
 0.8640	66.0440
 0.8650	66.0350
 0.8660	66.0400
 0.8670	66.0470
 0.8680	66.0540
 0.8690	66.0610
 0.8700	66.0640
 0.8710	66.0650
 0.8720	66.0680
 0.8730	66.0770
 0.8740	66.0750
 0.8750	66.0790
 0.8760	66.0880
 0.8770	66.0860
 0.8780	66.0670
 0.8790	66.0650
 0.8800	66.0860
 0.8810	66.0780
 0.8820	66.0760
 0.8830	66.0790
 0.8840	66.0760
 0.8850	66.0610
 0.8860	66.0580
 0.8870	66.0560
 0.8880	66.0420
 0.8890	66.0360
 0.8900	66.0230
 0.8910	66.0120
 0.8920	66.0140
 0.8930	66.0100
 0.8940	65.9960
 0.8950	65.9780
 0.8960	65.9640
 0.8970	65.9480
 0.8980	65.9350
 0.8990	65.9320
 0.9000	65.9400
 0.9010	65.9310
 0.9020	65.9150
 0.9030	65.8990
 0.9040	65.8780
 0.9050	65.8500
 0.9060	65.8340
 0.9070	65.8330
 0.9080	65.8090
 0.9090	65.8010
 0.9100	65.7870
 0.9110	65.7510
 0.9120	65.7340
 0.9130	65.7340
 0.9140	65.7270
 0.9150	65.6990
 0.9160	65.6890
 0.9170	65.6570
 0.9180	65.6210
 0.9190	65.6100
 0.9200	65.5880
 0.9210	65.5600
 0.9220	65.5310
 0.9230	65.5040
 0.9240	65.4610
 0.9250	65.4280
 0.9260	65.4030
 0.9270	65.3640
 0.9280	65.3130
 0.9290	65.2650
 0.9300	65.2220
 0.9310	65.1680
 0.9320	65.1160
 0.9330	65.0610
 0.9340	65.0020
 0.9350	64.9470
 0.9360	64.8910
 0.9370	64.8210
 0.9380	64.7420
 0.9390	64.6770
 0.9400	64.6000
 0.9410	64.5060
 0.9420	64.4090
 0.9430	64.3300
 0.9440	64.2370
 0.9450	64.1220
 0.9460	63.9920
 0.9470	63.8720
 0.9480	63.7490
 0.9490	63.6130
 0.9500	63.4580
 0.9510	63.2820
 0.9520	63.0900
 0.9530	62.9030
 0.9540	62.7330
 0.9550	62.5620
 0.9560	62.3860
 0.9570	62.2140
 0.9580	62.0560
 0.9590	61.8970
 0.9600	61.7620
 0.9610	61.6470
 0.9620	61.5380
 0.9630	61.4370
 0.9640	61.3320
 0.9650	61.2320
 0.9660	61.1540
 0.9670	61.1050
 0.9680	61.0460
 0.9690	60.9840
 0.9700	60.9380
 0.9710	60.8950
 0.9720	60.8550
 0.9730	60.8160
 0.9740	60.7740
 0.9750	60.7370
 0.9760	60.7110
 0.9770	60.6980
 0.9780	60.6930
 0.9790	60.6920
 0.9800	60.6890
 0.9810	60.6970
 0.9820	60.7280
 0.9830	60.7320
 0.9840	60.7510
 0.9850	60.7710
 0.9860	60.7580
 0.9870	60.7760
 0.9880	60.8250
 0.9890	60.8850
 0.9900	60.9310
 0.9910	60.9780
 0.9920	61.0490
 0.9930	61.1200
 0.9940	61.1910
 0.9950	61.2620
 0.9960	61.3330
 0.9970	61.4040
 0.9980	61.4750
 0.9990	61.5460
 1.0000	61.6170
 1.0010	61.6880
 1.0020	61.7590
 1.0030	61.8290
 1.0040	61.9000
 1.0050	61.9710
 1.0060	62.0420
 1.0070	62.1130
 1.0080	62.1840
 1.0090	62.2550
 1.0100	62.2550
 1.0110	62.3200
 1.0120	62.3900
 1.0130	62.4640
 1.0140	62.5370
 1.0150	62.6190
 1.0160	62.6890
 1.0170	62.7540
 1.0180	62.8230
 1.0190	62.8880
 1.0200	62.9570
 1.0210	63.0310
 1.0220	63.1010
 1.0230	63.1720
 1.0240	63.2430
 1.0250	63.3120
 1.0260	63.3830
 1.0270	63.4490
 1.0280	63.5070
 1.0290	63.5700
 1.0300	63.6330
 1.0310	63.6970
 1.0320	63.7620
 1.0330	63.8310
 1.0340	63.8970
 1.0350	63.9560
 1.0360	64.0170
 1.0370	64.0790
 1.0380	64.1360
 1.0390	64.1930
 1.0400	64.2480
 1.0410	64.2980
 1.0420	64.3500
 1.0430	64.4010
 1.0440	64.4520
 1.0450	64.5010
 1.0460	64.5510
 1.0470	64.6050
 1.0480	64.6520
 1.0490	64.6970
 1.0500	64.7400
 1.0510	64.7790
 1.0520	64.8110
 1.0530	64.8480
 1.0540	64.8880
 1.0550	64.9210
 1.0560	64.9540
 1.0570	64.9860
 1.0580	65.0110
 1.0590	65.0400
 1.0600	65.0710
 1.0610	65.0980
 1.0620	65.1230
 1.0630	65.1470
 1.0640	65.1690
 1.0650	65.1890
 1.0660	65.2060
 1.0670	65.2220
 1.0680	65.2370
 1.0690	65.2490
 1.0700	65.2620
 1.0710	65.2780
 1.0720	65.2860
 1.0730	65.2920
 1.0740	65.2970
 1.0750	65.2980
 1.0760	65.3010
 1.0770	65.3090
 1.0780	65.3100
 1.0790	65.3100
 1.0800	65.3050
 1.0810	65.2940
 1.0820	65.2850
 1.0830	65.2800
 1.0840	65.2680
 1.0850	65.2540
 1.0860	65.2410
 1.0870	65.2240
 1.0880	65.2020
 1.0890	65.1830
 1.0900	65.1660
 1.0910	65.1450
 1.0920	65.1260
 1.0930	65.0980
 1.0940	65.0600
 1.0950	65.0290
 1.0960	64.9950
 1.0970	64.9620
 1.0980	64.9330
 1.0990	64.9000
 1.1000	64.8630
 1.1010	64.8250
 1.1020	64.7860
 1.1030	64.7490
 1.1040	64.7090
 1.1050	64.6640
 1.1060	64.6200
 1.1070	64.5740
 1.1080	64.5270
 1.1090	64.4800
 1.1100	64.4300
 1.1110	64.3780
 1.1120	64.3250
 1.1130	64.2710
 1.1140	64.2120
 1.1150	64.1530
 1.1160	64.0870
 1.1170	64.0150
 1.1180	63.9380
 1.1190	63.8580
 1.1200	63.7680
 1.1210	63.6710
 1.1220	63.5660
 1.1230	63.4480
 1.1240	63.3180
 1.1250	63.1750
 1.1260	63.0240
 1.1270	62.8530
 1.1280	62.6720
 1.1290	62.4680
 1.1300	62.2470
 1.1310	62.0060
 1.1320	61.7460
 1.1330	61.4700
 1.1340	61.1740
 1.1350	60.8640
 1.1360	60.5380
 1.1370	60.1960
 1.1380	59.8450
 1.1390	59.4860
 1.1400	59.1170
 1.1410	58.7460
 1.1420	58.3710
 1.1430	57.9950
 1.1440	57.6260
 1.1450	57.2530
 1.1460	56.8990
 1.1470	56.5490
 1.1480	56.2180
 1.1490	55.8990
 1.1500	55.5960
 1.1510	55.3020
 1.1520	55.0310
 1.1530	54.7780
 1.1540	54.5420
 1.1550	54.3250
 1.1560	54.1230
 1.1570	53.9380
 1.1580	53.7700
 1.1590	53.6160
 1.1600	53.4780
 1.1610	53.3500
 1.1620	53.2270
 1.1630	53.1160
 1.1640	53.0170
 1.1650	52.9250
 1.1660	52.8460
 1.1670	52.7690
 1.1680	52.7000
 1.1690	52.6320
 1.1700	52.5690
 1.1710	52.5060
 1.1720	52.4480
 1.1730	52.3870
 1.1740	52.3260
 1.1750	52.2640
 1.1760	52.2000
 1.1770	52.1320
 1.1780	52.0630
 1.1790	51.9910
 1.1800	51.9210
 1.1810	51.8510
 1.1820	51.7780
 1.1830	51.7080
 1.1840	51.6390
 1.1850	51.5670
 1.1860	51.4990
 1.1870	51.4340
 1.1880	51.3720
 1.1890	51.3120
 1.1900	51.2540
 1.1910	51.1990
 1.1920	51.1470
 1.1930	51.0950
 1.1940	51.0490
 1.1950	51.0080
 1.1960	50.9700
 1.1970	50.9380
 1.1980	50.9150
 1.1990	50.8980
 1.2000	50.8870
 1.2010	50.8850
 1.2020	50.8910
 1.2030	50.9060
 1.2040	50.9260
 1.2050	50.9520
 1.2060	50.9830
 1.2070	51.0200
 1.2080	51.0650
 1.2090	51.1180
 1.2100	51.1770
 1.2110	51.2410
 1.2120	51.3120
 1.2130	51.3860
 1.2140	51.4640
 1.2150	51.5490
 1.2160	51.6400
 1.2170	51.7330
 1.2180	51.8290
 1.2190	51.9290
 1.2200	52.0270
 1.2210	52.1280
 1.2220	52.2310
 1.2230	52.3320
 1.2240	52.4350
 1.2250	52.5370
 1.2260	52.6380
 1.2270	52.7380
 1.2280	52.8320
 1.2290	52.9270
 1.2300	53.0170
 1.2310	53.1050
 1.2320	53.1940
 1.2330	53.2780
 1.2340	53.3590
 1.2350	53.4390
 1.2360	53.5140
 1.2370	53.5830
 1.2380	53.6520
 1.2390	53.7190
 1.2400	53.7850
 1.2410	53.8500
 1.2420	53.9130
 1.2430	53.9700
 1.2440	54.0230
 1.2450	54.0750
 1.2460	54.1270
 1.2470	54.1800
 1.2480	54.2310
 1.2490	54.2810
 1.2500	54.3250
 1.2510	54.3660
 1.2520	54.4040
 1.2530	54.4420
 1.2540	54.4780
 1.2550	54.5110
 1.2560	54.5440
 1.2570	54.5760
 1.2580	54.6050
 1.2590	54.6310
 1.2600	54.6550
 1.2610	54.6760
 1.2620	54.6930
 1.2630	54.7100
 1.2640	54.7240
 1.2650	54.7350
 1.2660	54.7440
 1.2670	54.7500
 1.2680	54.7520
 1.2690	54.7560
 1.2700	54.7560
 1.2710	54.7550
 1.2720	54.7520
 1.2730	54.7440
 1.2740	54.7340
 1.2750	54.7230
 1.2760	54.7100
 1.2770	54.6960
 1.2780	54.6800
 1.2790	54.6570
 1.2800	54.6340
 1.2810	54.6090
 1.2820	54.5800
 1.2830	54.5480
 1.2840	54.5100
 1.2850	54.4690
 1.2860	54.4230
 1.2870	54.3750
 1.2880	54.3230
 1.2890	54.2710
 1.2900	54.2100
 1.2910	54.1470
 1.2920	54.0810
 1.2930	54.0070
 1.2940	53.9310
 1.2950	53.8520
 1.2960	53.7670
 1.2970	53.6750
 1.2980	53.5790
 1.2990	53.4760
 1.3000	53.3680
 1.3010	53.2560
 1.3020	53.1380
 1.3030	53.0150
 1.3040	52.8870
 1.3050	52.7510
 1.3060	52.6120
 1.3070	52.4680
 1.3080	52.3180
 1.3090	52.1660
 1.3100	52.0060
 1.3110	51.8380
 1.3120	51.6670
 1.3130	51.4890
 1.3140	51.3060
 1.3150	51.1170
 1.3160	50.9240
 1.3170	50.7260
 1.3180	50.5220
 1.3190	50.3160
 1.3200	50.1040
 1.3210	49.8860
 1.3220	49.6650
 1.3230	49.4420
 1.3240	49.2120
 1.3250	48.9820
 1.3260	48.7480
 1.3270	48.5100
 1.3280	48.2710
 1.3290	48.0300
 1.3300	47.7860
 1.3310	47.5430
 1.3320	47.2960
 1.3330	47.0510
 1.3340	46.8080
 1.3350	46.5630
 1.3360	46.3220
 1.3370	46.0850
 1.3380	45.8460
 1.3390	45.6110
 1.3400	45.3760
 1.3410	45.1450
 1.3420	44.9190
 1.3430	44.6960
 1.3440	44.4780
 1.3450	44.2620
 1.3460	44.0480
 1.3470	43.8400
 1.3480	43.6340
 1.3490	43.4340
 1.3500	43.2390
 1.3510	43.0450
 1.3520	42.8520
 1.3530	42.6610
 1.3540	42.4690
 1.3550	42.2790
 1.3560	42.0900
 1.3570	41.9000
 1.3580	41.7110
 1.3590	41.5190
 1.3600	41.3220
 1.3610	41.1220
 1.3620	40.9160
 1.3630	40.7050
 1.3640	40.4870
 1.3650	40.2620
 1.3660	40.0290
 1.3670	39.7860
 1.3680	39.5320
 1.3690	39.2660
 1.3700	38.9830
 1.3710	38.6890
 1.3720	38.3800
 1.3730	38.0520
 1.3740	37.7090
 1.3750	37.3490
 1.3760	36.9680
 1.3770	36.5660
 1.3780	36.1380
 1.3790	35.6880
 1.3800	35.2170
 1.3810	34.7230
 1.3820	34.2150
 1.3830	33.6910
 1.3840	33.1510
 1.3850	32.5920
 1.3860	32.0260
 1.3870	31.4430
 1.3880	30.8600
 1.3890	30.2700
 1.3900	29.6740
 1.3910	29.0850
 1.3920	28.4940
 1.3930	27.9050
 1.3940	27.3260
 1.3950	26.7460
 1.3960	26.1790
 1.3970	25.6250
 1.3980	25.0840
 1.3990	24.5660
 1.4000	24.0630
 1.4010	23.5730
 1.4020	23.1050
 1.4030	22.6510
 1.4040	22.2180
 1.4050	21.8060
 1.4060	21.4110
 1.4070	21.0400
 1.4080	20.6890
 1.4090	20.3540
 1.4100	20.0400
 1.4110	19.7440
 1.4120	19.4650
 1.4130	19.2050
 1.4140	18.9610
 1.4150	18.7350
 1.4160	18.5240
 1.4170	18.3240
 1.4180	18.1390
 1.4190	17.9650
 1.4200	17.8020
 1.4210	17.6510
 1.4220	17.5110
 1.4230	17.3830
 1.4240	17.2650
 1.4250	17.1530
 1.4260	17.0510
 1.4270	16.9560
 1.4280	16.8700
 1.4290	16.7900
 1.4300	16.7180
 1.4310	16.6520
 1.4320	16.5920
 1.4330	16.5360
 1.4340	16.4860
 1.4350	16.4420
 1.4360	16.4050
 1.4370	16.3710
 1.4380	16.3420
 1.4390	16.3170
 1.4400	16.2960
 1.4410	16.2800
 1.4420	16.2670
 1.4430	16.2580
 1.4440	16.2520
 1.4450	16.2480
 1.4460	16.2460
 1.4470	16.2460
 1.4480	16.2480
 1.4490	16.2510
 1.4500	16.2570
 1.4510	16.2660
 1.4520	16.2760
 1.4530	16.2880
 1.4540	16.3020
 1.4550	16.3170
 1.4560	16.3330
 1.4570	16.3530
 1.4580	16.3770
 1.4590	16.4030
 1.4600	16.4340
 1.4610	16.4700
 1.4620	16.5060
 1.4630	16.5470
 1.4640	16.5920
 1.4650	16.6400
 1.4660	16.6930
 1.4670	16.7500
 1.4680	16.8120
 1.4690	16.8760
