Name: Betula papyrifera
Type: Vegetation
Class: Tree
Genus: Betula
Species: papyrifera
Sample No.: BEPA-2-37
Owner: UCSB
Wavelength Range: VSWIR
Origin: USA; Massachusetts; Harvard Forest
Collection Date: 7/8/2013
Description: Samples were collected as part of NSF Macrosystem Biology proposal titled: Collaborative Research: Thermal controls on ecosystem metabolism and function: scaling from leaves to canopies to regions. Samples were collected and overnighted to JPL facilities for processing. The same leaves were processed in the Nicolet and then measured using the ASD.
Measurement: Bidirectional reflectance
First Column: X
Second Column: Y
X Units: Wavelength (micrometers)
Y Units: Reflectance (percentage)
First X Value: 0.35
Last X Value: 2.5
Number of X Values: 2151
Additional Information: vegetation.tree.betula.papyrifera.vswir.bepa-2-37.ucsb.asd.ancillary.txt

 0.3500	 4.6990
 0.3510	 4.8060
 0.3520	 4.8350
 0.3530	 4.8340
 0.3540	 4.8720
 0.3550	 4.7760
 0.3560	 4.8430
 0.3570	 4.9610
 0.3580	 4.8530
 0.3590	 4.6980
 0.3600	 4.7230
 0.3610	 4.8970
 0.3620	 4.8360
 0.3630	 4.8310
 0.3640	 4.8850
 0.3650	 4.9040
 0.3660	 4.6960
 0.3670	 4.6200
 0.3680	 4.7500
 0.3690	 4.9330
 0.3700	 4.9320
 0.3710	 4.8470
 0.3720	 4.7630
 0.3730	 4.6290
 0.3740	 4.7210
 0.3750	 4.8570
 0.3760	 4.7950
 0.3770	 4.7580
 0.3780	 4.7140
 0.3790	 4.6940
 0.3800	 4.7800
 0.3810	 4.8620
 0.3820	 4.8390
 0.3830	 4.7250
 0.3840	 4.7720
 0.3850	 4.7790
 0.3860	 4.7470
 0.3870	 4.7500
 0.3880	 4.8200
 0.3890	 4.8560
 0.3900	 4.8320
 0.3910	 4.7950
 0.3920	 4.7950
 0.3930	 4.8340
 0.3940	 4.8880
 0.3950	 4.8770
 0.3960	 4.8750
 0.3970	 4.8730
 0.3980	 4.8340
 0.3990	 4.8280
 0.4000	 4.8320
 0.4010	 4.8290
 0.4020	 4.8230
 0.4030	 4.8240
 0.4040	 4.8420
 0.4050	 4.8830
 0.4060	 4.9200
 0.4070	 4.9520
 0.4080	 4.9640
 0.4090	 4.9390
 0.4100	 4.9420
 0.4110	 4.9740
 0.4120	 5.0070
 0.4130	 4.9840
 0.4140	 5.0090
 0.4150	 5.0450
 0.4160	 5.0340
 0.4170	 5.0500
 0.4180	 5.0700
 0.4190	 5.0790
 0.4200	 5.0780
 0.4210	 5.0980
 0.4220	 5.1310
 0.4230	 5.1620
 0.4240	 5.1710
 0.4250	 5.1730
 0.4260	 5.1770
 0.4270	 5.1880
 0.4280	 5.2080
 0.4290	 5.2230
 0.4300	 5.2290
 0.4310	 5.2370
 0.4320	 5.2530
 0.4330	 5.2650
 0.4340	 5.2650
 0.4350	 5.2780
 0.4360	 5.2830
 0.4370	 5.2790
 0.4380	 5.2810
 0.4390	 5.3030
 0.4400	 5.3120
 0.4410	 5.2930
 0.4420	 5.2970
 0.4430	 5.2870
 0.4440	 5.2820
 0.4450	 5.3120
 0.4460	 5.3410
 0.4470	 5.3490
 0.4480	 5.3430
 0.4490	 5.3630
 0.4500	 5.3660
 0.4510	 5.3670
 0.4520	 5.3820
 0.4530	 5.3890
 0.4540	 5.3910
 0.4550	 5.3960
 0.4560	 5.4130
 0.4570	 5.4120
 0.4580	 5.4070
 0.4590	 5.4070
 0.4600	 5.4100
 0.4610	 5.4150
 0.4620	 5.4210
 0.4630	 5.4250
 0.4640	 5.4150
 0.4650	 5.4080
 0.4660	 5.4100
 0.4670	 5.4190
 0.4680	 5.4190
 0.4690	 5.4150
 0.4700	 5.4170
 0.4710	 5.4320
 0.4720	 5.4300
 0.4730	 5.4240
 0.4740	 5.4370
 0.4750	 5.4360
 0.4760	 5.4260
 0.4770	 5.4170
 0.4780	 5.4210
 0.4790	 5.4250
 0.4800	 5.4260
 0.4810	 5.4230
 0.4820	 5.4400
 0.4830	 5.4420
 0.4840	 5.4280
 0.4850	 5.4290
 0.4860	 5.4320
 0.4870	 5.4460
 0.4880	 5.4680
 0.4890	 5.4670
 0.4900	 5.4710
 0.4910	 5.4820
 0.4920	 5.4910
 0.4930	 5.4960
 0.4940	 5.5020
 0.4950	 5.5150
 0.4960	 5.5380
 0.4970	 5.5450
 0.4980	 5.5560
 0.4990	 5.5920
 0.5000	 5.6060
 0.5010	 5.6210
 0.5020	 5.6450
 0.5030	 5.6730
 0.5040	 5.6980
 0.5050	 5.7270
 0.5060	 5.7690
 0.5070	 5.8240
 0.5080	 5.8750
 0.5090	 5.9330
 0.5100	 6.0140
 0.5110	 6.0760
 0.5120	 6.1500
 0.5130	 6.2490
 0.5140	 6.3610
 0.5150	 6.4780
 0.5160	 6.6070
 0.5170	 6.7530
 0.5180	 6.8960
 0.5190	 7.0560
 0.5200	 7.2330
 0.5210	 7.4130
 0.5220	 7.5940
 0.5230	 7.7820
 0.5240	 7.9740
 0.5250	 8.1550
 0.5260	 8.3370
 0.5270	 8.5150
 0.5280	 8.6800
 0.5290	 8.8410
 0.5300	 8.9830
 0.5310	 9.1090
 0.5320	 9.2410
 0.5330	 9.3440
 0.5340	 9.4320
 0.5350	 9.5220
 0.5360	 9.5890
 0.5370	 9.6580
 0.5380	 9.7270
 0.5390	 9.7820
 0.5400	 9.8280
 0.5410	 9.8730
 0.5420	 9.9220
 0.5430	 9.9670
 0.5440	10.0170
 0.5450	10.0680
 0.5460	10.1100
 0.5470	10.1340
 0.5480	10.1480
 0.5490	10.1590
 0.5500	10.1800
 0.5510	10.2000
 0.5520	10.2070
 0.5530	10.1980
 0.5540	10.1870
 0.5550	10.1590
 0.5560	10.1120
 0.5570	10.0540
 0.5580	 9.9870
 0.5590	 9.9100
 0.5600	 9.8230
 0.5610	 9.7320
 0.5620	 9.6290
 0.5630	 9.5160
 0.5640	 9.3970
 0.5650	 9.2730
 0.5660	 9.1380
 0.5670	 8.9970
 0.5680	 8.8610
 0.5690	 8.7210
 0.5700	 8.5820
 0.5710	 8.4480
 0.5720	 8.3210
 0.5730	 8.1980
 0.5740	 8.0810
 0.5750	 7.9760
 0.5760	 7.8870
 0.5770	 7.8040
 0.5780	 7.7230
 0.5790	 7.6500
 0.5800	 7.5750
 0.5810	 7.5000
 0.5820	 7.4340
 0.5830	 7.3740
 0.5840	 7.3200
 0.5850	 7.2680
 0.5860	 7.2200
 0.5870	 7.1740
 0.5880	 7.1300
 0.5890	 7.0870
 0.5900	 7.0530
 0.5910	 7.0240
 0.5920	 7.0010
 0.5930	 6.9830
 0.5940	 6.9630
 0.5950	 6.9390
 0.5960	 6.9150
 0.5970	 6.8970
 0.5980	 6.8760
 0.5990	 6.8520
 0.6000	 6.8300
 0.6010	 6.8100
 0.6020	 6.7890
 0.6030	 6.7640
 0.6040	 6.7370
 0.6050	 6.7080
 0.6060	 6.6730
 0.6070	 6.6340
 0.6080	 6.6000
 0.6090	 6.5680
 0.6100	 6.5320
 0.6110	 6.4870
 0.6120	 6.4430
 0.6130	 6.4000
 0.6140	 6.3570
 0.6150	 6.3150
 0.6160	 6.2810
 0.6170	 6.2500
 0.6180	 6.2180
 0.6190	 6.1860
 0.6200	 6.1610
 0.6210	 6.1420
 0.6220	 6.1210
 0.6230	 6.1030
 0.6240	 6.0890
 0.6250	 6.0810
 0.6260	 6.0710
 0.6270	 6.0640
 0.6280	 6.0560
 0.6290	 6.0450
 0.6300	 6.0380
 0.6310	 6.0320
 0.6320	 6.0240
 0.6330	 6.0150
 0.6340	 5.9930
 0.6350	 5.9720
 0.6360	 5.9570
 0.6370	 5.9310
 0.6380	 5.8990
 0.6390	 5.8670
 0.6400	 5.8370
 0.6410	 5.8090
 0.6420	 5.7750
 0.6430	 5.7390
 0.6440	 5.7120
 0.6450	 5.6850
 0.6460	 5.6590
 0.6470	 5.6370
 0.6480	 5.6130
 0.6490	 5.5940
 0.6500	 5.5790
 0.6510	 5.5700
 0.6520	 5.5570
 0.6530	 5.5440
 0.6540	 5.5350
 0.6550	 5.5260
 0.6560	 5.5180
 0.6570	 5.5090
 0.6580	 5.4950
 0.6590	 5.4850
 0.6600	 5.4730
 0.6610	 5.4570
 0.6620	 5.4440
 0.6630	 5.4330
 0.6640	 5.4240
 0.6650	 5.4200
 0.6660	 5.4160
 0.6670	 5.4120
 0.6680	 5.4100
 0.6690	 5.4110
 0.6700	 5.4220
 0.6710	 5.4310
 0.6720	 5.4360
 0.6730	 5.4460
 0.6740	 5.4590
 0.6750	 5.4780
 0.6760	 5.5020
 0.6770	 5.5220
 0.6780	 5.5430
 0.6790	 5.5680
 0.6800	 5.6010
 0.6810	 5.6320
 0.6820	 5.6620
 0.6830	 5.6940
 0.6840	 5.7310
 0.6850	 5.7730
 0.6860	 5.8200
 0.6870	 5.8700
 0.6880	 5.9290
 0.6890	 6.0000
 0.6900	 6.0910
 0.6910	 6.2130
 0.6920	 6.3690
 0.6930	 6.5690
 0.6940	 6.8260
 0.6950	 7.1430
 0.6960	 7.5330
 0.6970	 8.0010
 0.6980	 8.5490
 0.6990	 9.1610
 0.7000	 9.8470
 0.7010	10.6050
 0.7020	11.4220
 0.7030	12.2830
 0.7040	13.1850
 0.7050	14.1230
 0.7060	15.0770
 0.7070	16.0540
 0.7080	17.0450
 0.7090	18.0410
 0.7100	19.0470
 0.7110	20.0610
 0.7120	21.0770
 0.7130	22.0840
 0.7140	23.0910
 0.7150	24.0910
 0.7160	25.0750
 0.7170	26.0530
 0.7180	27.0080
 0.7190	27.9390
 0.7200	28.8520
 0.7210	29.7430
 0.7220	30.6130
 0.7230	31.4570
 0.7240	32.2620
 0.7250	33.0240
 0.7260	33.7600
 0.7270	34.4790
 0.7280	35.1470
 0.7290	35.7890
 0.7300	36.4010
 0.7310	36.9730
 0.7320	37.5230
 0.7330	38.0260
 0.7340	38.4910
 0.7350	38.9580
 0.7360	39.3690
 0.7370	39.7470
 0.7380	40.1150
 0.7390	40.4450
 0.7400	40.7710
 0.7410	41.0760
 0.7420	41.3340
 0.7430	41.5680
 0.7440	41.7930
 0.7450	42.0150
 0.7460	42.2260
 0.7470	42.4010
 0.7480	42.5450
 0.7490	42.6750
 0.7500	42.8250
 0.7510	42.9440
 0.7520	43.0410
 0.7530	43.1410
 0.7540	43.2270
 0.7550	43.3080
 0.7560	43.3860
 0.7570	43.4570
 0.7580	43.5040
 0.7590	43.5560
 0.7600	43.6210
 0.7610	43.6500
 0.7620	43.6910
 0.7630	43.7350
 0.7640	43.7630
 0.7650	43.7910
 0.7660	43.8050
 0.7670	43.8220
 0.7680	43.8630
 0.7690	43.8700
 0.7700	43.8800
 0.7710	43.9090
 0.7720	43.9280
 0.7730	43.9340
 0.7740	43.9420
 0.7750	43.9660
 0.7760	43.9750
 0.7770	43.9840
 0.7780	43.9910
 0.7790	43.9930
 0.7800	44.0180
 0.7810	44.0410
 0.7820	44.0490
 0.7830	44.0430
 0.7840	44.0470
 0.7850	44.0530
 0.7860	44.0590
 0.7870	44.0860
 0.7880	44.1020
 0.7890	44.1120
 0.7900	44.1270
 0.7910	44.1260
 0.7920	44.1180
 0.7930	44.1190
 0.7940	44.1390
 0.7950	44.1600
 0.7960	44.1620
 0.7970	44.1490
 0.7980	44.1630
 0.7990	44.1780
 0.8000	44.1920
 0.8010	44.1980
 0.8020	44.1800
 0.8030	44.1710
 0.8040	44.1780
 0.8050	44.1880
 0.8060	44.1760
 0.8070	44.1770
 0.8080	44.1920
 0.8090	44.1890
 0.8100	44.1880
 0.8110	44.1890
 0.8120	44.1850
 0.8130	44.1690
 0.8140	44.1660
 0.8150	44.1720
 0.8160	44.1790
 0.8170	44.1810
 0.8180	44.1720
 0.8190	44.1560
 0.8200	44.1470
 0.8210	44.1610
 0.8220	44.1620
 0.8230	44.1480
 0.8240	44.1530
 0.8250	44.1460
 0.8260	44.1410
 0.8270	44.1430
 0.8280	44.1320
 0.8290	44.1320
 0.8300	44.1300
 0.8310	44.1110
 0.8320	44.0960
 0.8330	44.1020
 0.8340	44.1160
 0.8350	44.1150
 0.8360	44.1020
 0.8370	44.0970
 0.8380	44.1040
 0.8390	44.1050
 0.8400	44.0950
 0.8410	44.0920
 0.8420	44.0970
 0.8430	44.0890
 0.8440	44.0840
 0.8450	44.0840
 0.8460	44.0860
 0.8470	44.0890
 0.8480	44.0940
 0.8490	44.0990
 0.8500	44.0980
 0.8510	44.1010
 0.8520	44.0960
 0.8530	44.0910
 0.8540	44.1030
 0.8550	44.1070
 0.8560	44.1080
 0.8570	44.1090
 0.8580	44.1080
 0.8590	44.1120
 0.8600	44.1190
 0.8610	44.1230
 0.8620	44.1180
 0.8630	44.1150
 0.8640	44.1120
 0.8650	44.1090
 0.8660	44.1190
 0.8670	44.1170
 0.8680	44.1210
 0.8690	44.1510
 0.8700	44.1670
 0.8710	44.1640
 0.8720	44.1540
 0.8730	44.1520
 0.8740	44.1650
 0.8750	44.1850
 0.8760	44.1960
 0.8770	44.1870
 0.8780	44.1870
 0.8790	44.1880
 0.8800	44.1900
 0.8810	44.1990
 0.8820	44.1900
 0.8830	44.1900
 0.8840	44.2090
 0.8850	44.1950
 0.8860	44.2120
 0.8870	44.2310
 0.8880	44.2210
 0.8890	44.2350
 0.8900	44.2440
 0.8910	44.2470
 0.8920	44.2520
 0.8930	44.2470
 0.8940	44.2630
 0.8950	44.2890
 0.8960	44.2890
 0.8970	44.2780
 0.8980	44.2730
 0.8990	44.2770
 0.9000	44.2740
 0.9010	44.2710
 0.9020	44.2920
 0.9030	44.3270
 0.9040	44.3190
 0.9050	44.3000
 0.9060	44.3020
 0.9070	44.3270
 0.9080	44.3250
 0.9090	44.3240
 0.9100	44.3300
 0.9110	44.3400
 0.9120	44.3520
 0.9130	44.3550
 0.9140	44.3520
 0.9150	44.3530
 0.9160	44.3780
 0.9170	44.3770
 0.9180	44.3670
 0.9190	44.3830
 0.9200	44.3830
 0.9210	44.3780
 0.9220	44.3810
 0.9230	44.3980
 0.9240	44.3920
 0.9250	44.3770
 0.9260	44.3630
 0.9270	44.3560
 0.9280	44.3690
 0.9290	44.3850
 0.9300	44.3850
 0.9310	44.3530
 0.9320	44.3450
 0.9330	44.3480
 0.9340	44.3430
 0.9350	44.3190
 0.9360	44.3280
 0.9370	44.3270
 0.9380	44.3020
 0.9390	44.3070
 0.9400	44.2960
 0.9410	44.2920
 0.9420	44.3000
 0.9430	44.2670
 0.9440	44.2660
 0.9450	44.2660
 0.9460	44.2440
 0.9470	44.2310
 0.9480	44.2040
 0.9490	44.1680
 0.9500	44.1420
 0.9510	44.1420
 0.9520	44.1270
 0.9530	44.0900
 0.9540	44.0470
 0.9550	44.0240
 0.9560	44.0010
 0.9570	43.9780
 0.9580	43.9550
 0.9590	43.9320
 0.9600	43.9030
 0.9610	43.8820
 0.9620	43.8790
 0.9630	43.8620
 0.9640	43.8410
 0.9650	43.8370
 0.9660	43.8540
 0.9670	43.8300
 0.9680	43.7990
 0.9690	43.7830
 0.9700	43.7890
 0.9710	43.7940
 0.9720	43.7830
 0.9730	43.7680
 0.9740	43.7730
 0.9750	43.7820
 0.9760	43.7990
 0.9770	43.8070
 0.9780	43.7900
 0.9790	43.7870
 0.9800	43.7910
 0.9810	43.7850
 0.9820	43.7590
 0.9830	43.7530
 0.9840	43.7440
 0.9850	43.7510
 0.9860	43.7950
 0.9870	43.7990
 0.9880	43.8140
 0.9890	43.8210
 0.9900	43.7870
 0.9910	43.7730
 0.9920	43.8090
 0.9930	43.8460
 0.9940	43.8820
 0.9950	43.9190
 0.9960	43.9550
 0.9970	43.9920
 0.9980	44.0280
 0.9990	44.0650
 1.0000	44.1010
 1.0010	44.1380
 1.0020	44.1740
 1.0030	44.2110
 1.0040	44.2470
 1.0050	44.2840
 1.0060	44.3200
 1.0070	44.3570
 1.0080	44.3930
 1.0090	44.4300
 1.0100	44.4300
 1.0110	44.4430
 1.0120	44.4510
 1.0130	44.4560
 1.0140	44.4610
 1.0150	44.4670
 1.0160	44.4680
 1.0170	44.4640
 1.0180	44.4720
 1.0190	44.4800
 1.0200	44.4820
 1.0210	44.4930
 1.0220	44.5030
 1.0230	44.5070
 1.0240	44.5050
 1.0250	44.5120
 1.0260	44.5180
 1.0270	44.5250
 1.0280	44.5400
 1.0290	44.5490
 1.0300	44.5570
 1.0310	44.5630
 1.0320	44.5660
 1.0330	44.5710
 1.0340	44.5740
 1.0350	44.5700
 1.0360	44.5720
 1.0370	44.5680
 1.0380	44.5710
 1.0390	44.5740
 1.0400	44.5830
 1.0410	44.6020
 1.0420	44.6110
 1.0430	44.6220
 1.0440	44.6260
 1.0450	44.6200
 1.0460	44.6180
 1.0470	44.6170
 1.0480	44.6160
 1.0490	44.6130
 1.0500	44.6140
 1.0510	44.6150
 1.0520	44.6210
 1.0530	44.6250
 1.0540	44.6310
 1.0550	44.6370
 1.0560	44.6440
 1.0570	44.6480
 1.0580	44.6500
 1.0590	44.6540
 1.0600	44.6540
 1.0610	44.6560
 1.0620	44.6610
 1.0630	44.6640
 1.0640	44.6630
 1.0650	44.6650
 1.0660	44.6730
 1.0670	44.6750
 1.0680	44.6740
 1.0690	44.6730
 1.0700	44.6730
 1.0710	44.6710
 1.0720	44.6710
 1.0730	44.6790
 1.0740	44.6800
 1.0750	44.6780
 1.0760	44.6760
 1.0770	44.6720
 1.0780	44.6700
 1.0790	44.6690
 1.0800	44.6670
 1.0810	44.6650
 1.0820	44.6650
 1.0830	44.6670
 1.0840	44.6680
 1.0850	44.6750
 1.0860	44.6770
 1.0870	44.6750
 1.0880	44.6700
 1.0890	44.6650
 1.0900	44.6560
 1.0910	44.6480
 1.0920	44.6400
 1.0930	44.6340
 1.0940	44.6280
 1.0950	44.6230
 1.0960	44.6220
 1.0970	44.6190
 1.0980	44.6160
 1.0990	44.6130
 1.1000	44.6140
 1.1010	44.6100
 1.1020	44.6030
 1.1030	44.5960
 1.1040	44.5890
 1.1050	44.5810
 1.1060	44.5710
 1.1070	44.5610
 1.1080	44.5520
 1.1090	44.5420
 1.1100	44.5330
 1.1110	44.5300
 1.1120	44.5220
 1.1130	44.5100
 1.1140	44.5010
 1.1150	44.4890
 1.1160	44.4800
 1.1170	44.4760
 1.1180	44.4680
 1.1190	44.4570
 1.1200	44.4490
 1.1210	44.4380
 1.1220	44.4230
 1.1230	44.4080
 1.1240	44.3910
 1.1250	44.3700
 1.1260	44.3450
 1.1270	44.3180
 1.1280	44.2890
 1.1290	44.2590
 1.1300	44.2290
 1.1310	44.1950
 1.1320	44.1590
 1.1330	44.1200
 1.1340	44.0800
 1.1350	44.0330
 1.1360	43.9820
 1.1370	43.9290
 1.1380	43.8670
 1.1390	43.8040
 1.1400	43.7420
 1.1410	43.6770
 1.1420	43.6090
 1.1430	43.5430
 1.1440	43.4800
 1.1450	43.4190
 1.1460	43.3580
 1.1470	43.2980
 1.1480	43.2420
 1.1490	43.1830
 1.1500	43.1310
 1.1510	43.0840
 1.1520	43.0380
 1.1530	42.9930
 1.1540	42.9530
 1.1550	42.9180
 1.1560	42.8850
 1.1570	42.8570
 1.1580	42.8340
 1.1590	42.8100
 1.1600	42.7870
 1.1610	42.7680
 1.1620	42.7530
 1.1630	42.7410
 1.1640	42.7260
 1.1650	42.7140
 1.1660	42.7000
 1.1670	42.6900
 1.1680	42.6850
 1.1690	42.6810
 1.1700	42.6820
 1.1710	42.6770
 1.1720	42.6680
 1.1730	42.6620
 1.1740	42.6530
 1.1750	42.6480
 1.1760	42.6500
 1.1770	42.6460
 1.1780	42.6390
 1.1790	42.6350
 1.1800	42.6260
 1.1810	42.6180
 1.1820	42.6100
 1.1830	42.6010
 1.1840	42.5910
 1.1850	42.5810
 1.1860	42.5720
 1.1870	42.5650
 1.1880	42.5580
 1.1890	42.5520
 1.1900	42.5490
 1.1910	42.5470
 1.1920	42.5450
 1.1930	42.5460
 1.1940	42.5450
 1.1950	42.5400
 1.1960	42.5400
 1.1970	42.5370
 1.1980	42.5350
 1.1990	42.5380
 1.2000	42.5380
 1.2010	42.5410
 1.2020	42.5440
 1.2030	42.5450
 1.2040	42.5480
 1.2050	42.5510
 1.2060	42.5550
 1.2070	42.5580
 1.2080	42.5630
 1.2090	42.5680
 1.2100	42.5740
 1.2110	42.5830
 1.2120	42.5970
 1.2130	42.6050
 1.2140	42.6150
 1.2150	42.6250
 1.2160	42.6310
 1.2170	42.6410
 1.2180	42.6570
 1.2190	42.6710
 1.2200	42.6830
 1.2210	42.6960
 1.2220	42.7060
 1.2230	42.7170
 1.2240	42.7310
 1.2250	42.7420
 1.2260	42.7530
 1.2270	42.7660
 1.2280	42.7780
 1.2290	42.7940
 1.2300	42.8090
 1.2310	42.8230
 1.2320	42.8330
 1.2330	42.8390
 1.2340	42.8480
 1.2350	42.8540
 1.2360	42.8620
 1.2370	42.8740
 1.2380	42.8840
 1.2390	42.8900
 1.2400	42.8960
 1.2410	42.9000
 1.2420	42.9030
 1.2430	42.9070
 1.2440	42.9090
 1.2450	42.9130
 1.2460	42.9180
 1.2470	42.9270
 1.2480	42.9370
 1.2490	42.9430
 1.2500	42.9500
 1.2510	42.9610
 1.2520	42.9670
 1.2530	42.9750
 1.2540	42.9830
 1.2550	42.9810
 1.2560	42.9820
 1.2570	42.9850
 1.2580	42.9810
 1.2590	42.9790
 1.2600	42.9810
 1.2610	42.9800
 1.2620	42.9740
 1.2630	42.9720
 1.2640	42.9710
 1.2650	42.9640
 1.2660	42.9580
 1.2670	42.9520
 1.2680	42.9430
 1.2690	42.9350
 1.2700	42.9290
 1.2710	42.9240
 1.2720	42.9190
 1.2730	42.9140
 1.2740	42.9070
 1.2750	42.9010
 1.2760	42.8950
 1.2770	42.8880
 1.2780	42.8800
 1.2790	42.8670
 1.2800	42.8550
 1.2810	42.8440
 1.2820	42.8290
 1.2830	42.8190
 1.2840	42.8100
 1.2850	42.7970
 1.2860	42.7850
 1.2870	42.7740
 1.2880	42.7630
 1.2890	42.7480
 1.2900	42.7370
 1.2910	42.7250
 1.2920	42.7070
 1.2930	42.6910
 1.2940	42.6720
 1.2950	42.6510
 1.2960	42.6330
 1.2970	42.6120
 1.2980	42.5880
 1.2990	42.5640
 1.3000	42.5400
 1.3010	42.5150
 1.3020	42.4890
 1.3030	42.4600
 1.3040	42.4270
 1.3050	42.3930
 1.3060	42.3570
 1.3070	42.3190
 1.3080	42.2840
 1.3090	42.2470
 1.3100	42.2070
 1.3110	42.1700
 1.3120	42.1290
 1.3130	42.0840
 1.3140	42.0400
 1.3150	41.9980
 1.3160	41.9470
 1.3170	41.8930
 1.3180	41.8380
 1.3190	41.7820
 1.3200	41.7240
 1.3210	41.6660
 1.3220	41.6090
 1.3230	41.5470
 1.3240	41.4830
 1.3250	41.4190
 1.3260	41.3530
 1.3270	41.2870
 1.3280	41.2160
 1.3290	41.1460
 1.3300	41.0750
 1.3310	41.0010
 1.3320	40.9270
 1.3330	40.8550
 1.3340	40.7810
 1.3350	40.7050
 1.3360	40.6250
 1.3370	40.5430
 1.3380	40.4610
 1.3390	40.3820
 1.3400	40.3030
 1.3410	40.2250
 1.3420	40.1450
 1.3430	40.0650
 1.3440	39.9840
 1.3450	39.9040
 1.3460	39.8230
 1.3470	39.7460
 1.3480	39.6710
 1.3490	39.5950
 1.3500	39.5210
 1.3510	39.4450
 1.3520	39.3690
 1.3530	39.2900
 1.3540	39.2120
 1.3550	39.1360
 1.3560	39.0590
 1.3570	38.9820
 1.3580	38.9060
 1.3590	38.8280
 1.3600	38.7450
 1.3610	38.6580
 1.3620	38.5670
 1.3630	38.4750
 1.3640	38.3800
 1.3650	38.2830
 1.3660	38.1810
 1.3670	38.0710
 1.3680	37.9520
 1.3690	37.8240
 1.3700	37.6860
 1.3710	37.5380
 1.3720	37.3790
 1.3730	37.2090
 1.3740	37.0280
 1.3750	36.8330
 1.3760	36.6190
 1.3770	36.3900
 1.3780	36.1400
 1.3790	35.8720
 1.3800	35.5860
 1.3810	35.2790
 1.3820	34.9550
 1.3830	34.6160
 1.3840	34.2560
 1.3850	33.8790
 1.3860	33.4860
 1.3870	33.0720
 1.3880	32.6510
 1.3890	32.2160
 1.3900	31.7690
 1.3910	31.3180
 1.3920	30.8530
 1.3930	30.3790
 1.3940	29.9040
 1.3950	29.4190
 1.3960	28.9380
 1.3970	28.4620
 1.3980	27.9880
 1.3990	27.5270
 1.4000	27.0740
 1.4010	26.6280
 1.4020	26.1980
 1.4030	25.7760
 1.4040	25.3710
 1.4050	24.9870
 1.4060	24.6180
 1.4070	24.2730
 1.4080	23.9460
 1.4090	23.6330
 1.4100	23.3410
 1.4110	23.0640
 1.4120	22.8060
 1.4130	22.5680
 1.4140	22.3470
 1.4150	22.1450
 1.4160	21.9570
 1.4170	21.7830
 1.4180	21.6220
 1.4190	21.4750
 1.4200	21.3390
 1.4210	21.2170
 1.4220	21.1070
 1.4230	21.0080
 1.4240	20.9190
 1.4250	20.8370
 1.4260	20.7650
 1.4270	20.6990
 1.4280	20.6400
 1.4290	20.5890
 1.4300	20.5460
 1.4310	20.5100
 1.4320	20.4850
 1.4330	20.4610
 1.4340	20.4450
 1.4350	20.4310
 1.4360	20.4210
 1.4370	20.4130
 1.4380	20.4120
 1.4390	20.4130
 1.4400	20.4170
 1.4410	20.4250
 1.4420	20.4360
 1.4430	20.4490
 1.4440	20.4660
 1.4450	20.4840
 1.4460	20.5060
 1.4470	20.5300
 1.4480	20.5540
 1.4490	20.5780
 1.4500	20.6010
 1.4510	20.6240
 1.4520	20.6510
 1.4530	20.6800
 1.4540	20.7120
 1.4550	20.7470
 1.4560	20.7840
 1.4570	20.8250
 1.4580	20.8670
 1.4590	20.9110
 1.4600	20.9610
 1.4610	21.0150
 1.4620	21.0750
 1.4630	21.1420
 1.4640	21.2110
 1.4650	21.2860
 1.4660	21.3670
 1.4670	21.4530
 1.4680	21.5450
 1.4690	21.6410
 1.4700	21.7430
 1.4710	21.8510
 1.4720	21.9620
