Name: Chorisia speciosa
Type: vegetation
Class: Tree
Genus: Chorisia
Species: speciosa
Sample No.: JPL137
Owner: JPL
Wavelength Range: VSWIR
Origin: 34.12641; -118.10984; WGS84
Collection Date: 9/14/2016
Description: Samples were collected at the Huntington Garden in San Marino California as part of a JPL Subcontract studying HyTES imagery. Samples were taken to JPL and processed within 48 hours of collection. The same leaves were processed in the Nicolet and then measured using the ASD.
Measurement: Bidirectional reflectance
First Column: X
Second Column: Y
X Units: Wavelength (micrometer)
Y Units: Reflectance (percentage)
First X Value: 0.35
Last X Value: 2.5
Number of X Values: 2151
Additional Information: vegetation.tree.chorisia.speciosa.vswir.jpl137.jpl.asd.ancillary.txt

 0.3500	 5.5270
 0.3510	 5.5180
 0.3520	 5.6270
 0.3530	 5.6730
 0.3540	 5.5620
 0.3550	 5.5550
 0.3560	 5.5420
 0.3570	 5.5050
 0.3580	 5.4700
 0.3590	 5.3920
 0.3600	 5.4030
 0.3610	 5.4890
 0.3620	 5.4130
 0.3630	 5.4570
 0.3640	 5.5010
 0.3650	 5.4040
 0.3660	 5.3450
 0.3670	 5.3480
 0.3680	 5.3770
 0.3690	 5.3690
 0.3700	 5.3900
 0.3710	 5.4190
 0.3720	 5.4230
 0.3730	 5.3660
 0.3740	 5.4010
 0.3750	 5.4380
 0.3760	 5.3590
 0.3770	 5.3120
 0.3780	 5.3280
 0.3790	 5.3650
 0.3800	 5.3360
 0.3810	 5.3470
 0.3820	 5.3780
 0.3830	 5.3890
 0.3840	 5.3540
 0.3850	 5.3260
 0.3860	 5.3130
 0.3870	 5.3080
 0.3880	 5.3180
 0.3890	 5.3450
 0.3900	 5.3720
 0.3910	 5.3680
 0.3920	 5.3860
 0.3930	 5.3990
 0.3940	 5.3870
 0.3950	 5.3700
 0.3960	 5.3660
 0.3970	 5.3870
 0.3980	 5.4340
 0.3990	 5.4750
 0.4000	 5.4870
 0.4010	 5.4750
 0.4020	 5.4730
 0.4030	 5.4630
 0.4040	 5.4560
 0.4050	 5.4670
 0.4060	 5.4990
 0.4070	 5.5300
 0.4080	 5.5460
 0.4090	 5.5420
 0.4100	 5.5560
 0.4110	 5.5730
 0.4120	 5.5830
 0.4130	 5.5980
 0.4140	 5.6070
 0.4150	 5.6150
 0.4160	 5.6310
 0.4170	 5.6470
 0.4180	 5.6650
 0.4190	 5.6800
 0.4200	 5.6810
 0.4210	 5.6840
 0.4220	 5.6910
 0.4230	 5.7010
 0.4240	 5.7090
 0.4250	 5.7150
 0.4260	 5.7220
 0.4270	 5.7340
 0.4280	 5.7350
 0.4290	 5.7420
 0.4300	 5.7550
 0.4310	 5.7500
 0.4320	 5.7550
 0.4330	 5.7620
 0.4340	 5.7610
 0.4350	 5.7710
 0.4360	 5.7790
 0.4370	 5.7830
 0.4380	 5.7960
 0.4390	 5.8070
 0.4400	 5.8140
 0.4410	 5.8180
 0.4420	 5.8310
 0.4430	 5.8470
 0.4440	 5.8620
 0.4450	 5.8720
 0.4460	 5.8920
 0.4470	 5.9070
 0.4480	 5.9170
 0.4490	 5.9380
 0.4500	 5.9590
 0.4510	 5.9740
 0.4520	 5.9820
 0.4530	 5.9960
 0.4540	 6.0110
 0.4550	 6.0250
 0.4560	 6.0360
 0.4570	 6.0470
 0.4580	 6.0540
 0.4590	 6.0600
 0.4600	 6.0750
 0.4610	 6.0900
 0.4620	 6.0980
 0.4630	 6.0960
 0.4640	 6.0940
 0.4650	 6.0930
 0.4660	 6.0970
 0.4670	 6.1100
 0.4680	 6.1150
 0.4690	 6.1150
 0.4700	 6.1150
 0.4710	 6.1210
 0.4720	 6.1260
 0.4730	 6.1310
 0.4740	 6.1410
 0.4750	 6.1460
 0.4760	 6.1470
 0.4770	 6.1450
 0.4780	 6.1420
 0.4790	 6.1470
 0.4800	 6.1580
 0.4810	 6.1720
 0.4820	 6.1770
 0.4830	 6.1810
 0.4840	 6.1870
 0.4850	 6.1980
 0.4860	 6.2130
 0.4870	 6.2300
 0.4880	 6.2490
 0.4890	 6.2730
 0.4900	 6.3030
 0.4910	 6.3350
 0.4920	 6.3650
 0.4930	 6.4010
 0.4940	 6.4380
 0.4950	 6.4790
 0.4960	 6.5390
 0.4970	 6.5960
 0.4980	 6.6530
 0.4990	 6.7190
 0.5000	 6.7850
 0.5010	 6.8610
 0.5020	 6.9490
 0.5030	 7.0450
 0.5040	 7.1480
 0.5050	 7.2620
 0.5060	 7.3870
 0.5070	 7.5190
 0.5080	 7.6620
 0.5090	 7.8190
 0.5100	 7.9870
 0.5110	 8.1600
 0.5120	 8.3470
 0.5130	 8.5520
 0.5140	 8.7660
 0.5150	 8.9920
 0.5160	 9.2290
 0.5170	 9.4790
 0.5180	 9.7410
 0.5190	10.0070
 0.5200	10.2780
 0.5210	10.5570
 0.5220	10.8290
 0.5230	11.0990
 0.5240	11.3720
 0.5250	11.6370
 0.5260	11.8930
 0.5270	12.1370
 0.5280	12.3710
 0.5290	12.5890
 0.5300	12.7940
 0.5310	12.9850
 0.5320	13.1620
 0.5330	13.3230
 0.5340	13.4700
 0.5350	13.6040
 0.5360	13.7270
 0.5370	13.8400
 0.5380	13.9440
 0.5390	14.0470
 0.5400	14.1550
 0.5410	14.2660
 0.5420	14.3700
 0.5430	14.4580
 0.5440	14.5240
 0.5450	14.5710
 0.5460	14.6010
 0.5470	14.6170
 0.5480	14.6320
 0.5490	14.6510
 0.5500	14.6730
 0.5510	14.6900
 0.5520	14.6960
 0.5530	14.6860
 0.5540	14.6620
 0.5550	14.6240
 0.5560	14.5730
 0.5570	14.5110
 0.5580	14.4390
 0.5590	14.3570
 0.5600	14.2690
 0.5610	14.1710
 0.5620	14.0610
 0.5630	13.9420
 0.5640	13.8160
 0.5650	13.6830
 0.5660	13.5490
 0.5670	13.4130
 0.5680	13.2690
 0.5690	13.1180
 0.5700	12.9640
 0.5710	12.8090
 0.5720	12.6570
 0.5730	12.5150
 0.5740	12.3840
 0.5750	12.2630
 0.5760	12.1470
 0.5770	12.0430
 0.5780	11.9520
 0.5790	11.8660
 0.5800	11.7830
 0.5810	11.6980
 0.5820	11.6080
 0.5830	11.5170
 0.5840	11.4290
 0.5850	11.3460
 0.5860	11.2730
 0.5870	11.2110
 0.5880	11.1550
 0.5890	11.0980
 0.5900	11.0490
 0.5910	11.0050
 0.5920	10.9620
 0.5930	10.9200
 0.5940	10.8850
 0.5950	10.8540
 0.5960	10.8240
 0.5970	10.8000
 0.5980	10.7740
 0.5990	10.7450
 0.6000	10.7110
 0.6010	10.6750
 0.6020	10.6320
 0.6030	10.5850
 0.6040	10.5380
 0.6050	10.4850
 0.6060	10.4250
 0.6070	10.3600
 0.6080	10.2940
 0.6090	10.2300
 0.6100	10.1730
 0.6110	10.1250
 0.6120	10.0510
 0.6130	 9.9580
 0.6140	 9.8610
 0.6150	 9.7800
 0.6160	 9.7020
 0.6170	 9.6270
 0.6180	 9.5610
 0.6190	 9.5030
 0.6200	 9.4500
 0.6210	 9.4010
 0.6220	 9.3570
 0.6230	 9.3210
 0.6240	 9.2930
 0.6250	 9.2710
 0.6260	 9.2510
 0.6270	 9.2370
 0.6280	 9.2270
 0.6290	 9.2190
 0.6300	 9.2110
 0.6310	 9.2010
 0.6320	 9.1840
 0.6330	 9.1540
 0.6340	 9.1150
 0.6350	 9.0640
 0.6360	 8.9990
 0.6370	 8.9210
 0.6380	 8.8320
 0.6390	 8.7360
 0.6400	 8.6330
 0.6410	 8.5250
 0.6420	 8.4160
 0.6430	 8.3070
 0.6440	 8.1960
 0.6450	 8.0870
 0.6460	 7.9830
 0.6470	 7.8880
 0.6480	 7.7990
 0.6490	 7.7240
 0.6500	 7.6650
 0.6510	 7.6160
 0.6520	 7.5790
 0.6530	 7.5490
 0.6540	 7.5200
 0.6550	 7.4920
 0.6560	 7.4580
 0.6570	 7.4170
 0.6580	 7.3690
 0.6590	 7.3130
 0.6600	 7.2500
 0.6610	 7.1830
 0.6620	 7.1180
 0.6630	 7.0520
 0.6640	 6.9870
 0.6650	 6.9280
 0.6660	 6.8760
 0.6670	 6.8320
 0.6680	 6.7970
 0.6690	 6.7700
 0.6700	 6.7490
 0.6710	 6.7370
 0.6720	 6.7360
 0.6730	 6.7430
 0.6740	 6.7550
 0.6750	 6.7740
 0.6760	 6.8030
 0.6770	 6.8370
 0.6780	 6.8790
 0.6790	 6.9300
 0.6800	 6.9910
 0.6810	 7.0680
 0.6820	 7.1640
 0.6830	 7.2820
 0.6840	 7.4210
 0.6850	 7.5920
 0.6860	 7.7950
 0.6870	 8.0330
 0.6880	 8.3180
 0.6890	 8.6540
 0.6900	 9.0450
 0.6910	 9.4950
 0.6920	10.0090
 0.6930	10.5860
 0.6940	11.2230
 0.6950	11.9160
 0.6960	12.6610
 0.6970	13.4500
 0.6980	14.2750
 0.6990	15.1310
 0.7000	16.0050
 0.7010	16.8900
 0.7020	17.7800
 0.7030	18.6670
 0.7040	19.5450
 0.7050	20.4100
 0.7060	21.2660
 0.7070	22.1070
 0.7080	22.9330
 0.7090	23.7460
 0.7100	24.5450
 0.7110	25.3360
 0.7120	26.1190
 0.7130	26.8840
 0.7140	27.6380
 0.7150	28.3830
 0.7160	29.1190
 0.7170	29.8430
 0.7180	30.5530
 0.7190	31.2480
 0.7200	31.9260
 0.7210	32.5840
 0.7220	33.2280
 0.7230	33.8550
 0.7240	34.4540
 0.7250	35.0290
 0.7260	35.5830
 0.7270	36.1160
 0.7280	36.6220
 0.7290	37.1070
 0.7300	37.5680
 0.7310	37.9990
 0.7320	38.4090
 0.7330	38.7990
 0.7340	39.1660
 0.7350	39.5080
 0.7360	39.8260
 0.7370	40.1260
 0.7380	40.4080
 0.7390	40.6710
 0.7400	40.9120
 0.7410	41.1340
 0.7420	41.3420
 0.7430	41.5320
 0.7440	41.7050
 0.7450	41.8640
 0.7460	42.0080
 0.7470	42.1360
 0.7480	42.2530
 0.7490	42.3600
 0.7500	42.4550
 0.7510	42.5400
 0.7520	42.6180
 0.7530	42.6880
 0.7540	42.7480
 0.7550	42.8030
 0.7560	42.8550
 0.7570	42.9010
 0.7580	42.9440
 0.7590	42.9840
 0.7600	43.0200
 0.7610	43.0520
 0.7620	43.0800
 0.7630	43.1030
 0.7640	43.1230
 0.7650	43.1410
 0.7660	43.1570
 0.7670	43.1720
 0.7680	43.1860
 0.7690	43.1970
 0.7700	43.2070
 0.7710	43.2190
 0.7720	43.2280
 0.7730	43.2370
 0.7740	43.2450
 0.7750	43.2530
 0.7760	43.2590
 0.7770	43.2640
 0.7780	43.2700
 0.7790	43.2780
 0.7800	43.2850
 0.7810	43.2900
 0.7820	43.2940
 0.7830	43.2990
 0.7840	43.3050
 0.7850	43.3090
 0.7860	43.3110
 0.7870	43.3130
 0.7880	43.3130
 0.7890	43.3130
 0.7900	43.3160
 0.7910	43.3150
 0.7920	43.3150
 0.7930	43.3150
 0.7940	43.3120
 0.7950	43.3100
 0.7960	43.3050
 0.7970	43.2990
 0.7980	43.2950
 0.7990	43.2890
 0.8000	43.2830
 0.8010	43.2770
 0.8020	43.2710
 0.8030	43.2640
 0.8040	43.2570
 0.8050	43.2460
 0.8060	43.2340
 0.8070	43.2220
 0.8080	43.2110
 0.8090	43.2010
 0.8100	43.1880
 0.8110	43.1750
 0.8120	43.1640
 0.8130	43.1500
 0.8140	43.1330
 0.8150	43.1170
 0.8160	43.1040
 0.8170	43.0910
 0.8180	43.0780
 0.8190	43.0640
 0.8200	43.0480
 0.8210	43.0340
 0.8220	43.0210
 0.8230	43.0070
 0.8240	42.9920
 0.8250	42.9760
 0.8260	42.9610
 0.8270	42.9450
 0.8280	42.9280
 0.8290	42.9120
 0.8300	42.8970
 0.8310	42.8840
 0.8320	42.8660
 0.8330	42.8500
 0.8340	42.8360
 0.8350	42.8230
 0.8360	42.8160
 0.8370	42.8070
 0.8380	42.7950
 0.8390	42.7850
 0.8400	42.7750
 0.8410	42.7670
 0.8420	42.7590
 0.8430	42.7500
 0.8440	42.7420
 0.8450	42.7370
 0.8460	42.7330
 0.8470	42.7250
 0.8480	42.7230
 0.8490	42.7220
 0.8500	42.7170
 0.8510	42.7110
 0.8520	42.7090
 0.8530	42.7080
 0.8540	42.7060
 0.8550	42.7070
 0.8560	42.7070
 0.8570	42.7050
 0.8580	42.7030
 0.8590	42.7070
 0.8600	42.7130
 0.8610	42.7160
 0.8620	42.7190
 0.8630	42.7230
 0.8640	42.7280
 0.8650	42.7350
 0.8660	42.7390
 0.8670	42.7420
 0.8680	42.7470
 0.8690	42.7580
 0.8700	42.7670
 0.8710	42.7750
 0.8720	42.7820
 0.8730	42.7910
 0.8740	42.7990
 0.8750	42.8080
 0.8760	42.8190
 0.8770	42.8260
 0.8780	42.8380
 0.8790	42.8520
 0.8800	42.8640
 0.8810	42.8680
 0.8820	42.8780
 0.8830	42.8910
 0.8840	42.9010
 0.8850	42.9110
 0.8860	42.9210
 0.8870	42.9290
 0.8880	42.9360
 0.8890	42.9500
 0.8900	42.9660
 0.8910	42.9780
 0.8920	42.9860
 0.8930	42.9990
 0.8940	43.0100
 0.8950	43.0180
 0.8960	43.0290
 0.8970	43.0360
 0.8980	43.0450
 0.8990	43.0560
 0.9000	43.0680
 0.9010	43.0780
 0.9020	43.0890
 0.9030	43.0990
 0.9040	43.1050
 0.9050	43.1150
 0.9060	43.1280
 0.9070	43.1390
 0.9080	43.1430
 0.9090	43.1490
 0.9100	43.1550
 0.9110	43.1580
 0.9120	43.1610
 0.9130	43.1690
 0.9140	43.1720
 0.9150	43.1650
 0.9160	43.1690
 0.9170	43.1720
 0.9180	43.1710
 0.9190	43.1670
 0.9200	43.1700
 0.9210	43.1690
 0.9220	43.1650
 0.9230	43.1620
 0.9240	43.1540
 0.9250	43.1470
 0.9260	43.1420
 0.9270	43.1350
 0.9280	43.1230
 0.9290	43.1120
 0.9300	43.1010
 0.9310	43.0840
 0.9320	43.0650
 0.9330	43.0480
 0.9340	43.0330
 0.9350	43.0100
 0.9360	42.9960
 0.9370	42.9820
 0.9380	42.9630
 0.9390	42.9420
 0.9400	42.9210
 0.9410	42.8920
 0.9420	42.8600
 0.9430	42.8430
 0.9440	42.8070
 0.9450	42.7720
 0.9460	42.7510
 0.9470	42.7080
 0.9480	42.6680
 0.9490	42.6290
 0.9500	42.5860
 0.9510	42.5520
 0.9520	42.5030
 0.9530	42.4470
 0.9540	42.3960
 0.9550	42.3510
 0.9560	42.3060
 0.9570	42.2630
 0.9580	42.2250
 0.9590	42.1800
 0.9600	42.1370
 0.9610	42.1030
 0.9620	42.0760
 0.9630	42.0470
 0.9640	42.0200
 0.9650	41.9970
 0.9660	41.9740
 0.9670	41.9550
 0.9680	41.9440
 0.9690	41.9310
 0.9700	41.9070
 0.9710	41.9000
 0.9720	41.8840
 0.9730	41.8680
 0.9740	41.8700
 0.9750	41.8660
 0.9760	41.8530
 0.9770	41.8430
 0.9780	41.8490
 0.9790	41.8450
 0.9800	41.8400
 0.9810	41.8360
 0.9820	41.8320
 0.9830	41.8350
 0.9840	41.8400
 0.9850	41.8390
 0.9860	41.8290
 0.9870	41.8290
 0.9880	41.8330
 0.9890	41.8460
 0.9900	41.8700
 0.9910	41.8730
 0.9920	41.8710
 0.9930	41.8750
 0.9940	41.8810
 0.9950	41.8850
 0.9960	41.8860
 0.9970	41.9000
 0.9980	41.9340
 0.9990	41.9370
 1.0000	41.9380
 1.0010	42.9740
 1.0020	42.9860
 1.0030	42.9980
 1.0040	43.0080
 1.0050	43.0200
 1.0060	43.0360
 1.0070	43.0480
 1.0080	43.0610
 1.0090	43.0730
 1.0100	43.0840
 1.0110	43.0950
 1.0120	43.1060
 1.0130	43.1160
 1.0140	43.1290
 1.0150	43.1460
 1.0160	43.1580
 1.0170	43.1700
 1.0180	43.1800
 1.0190	43.1870
 1.0200	43.1970
 1.0210	43.2100
 1.0220	43.2270
 1.0230	43.2390
 1.0240	43.2500
 1.0250	43.2600
 1.0260	43.2660
 1.0270	43.2780
 1.0280	43.2940
 1.0290	43.3080
 1.0300	43.3250
 1.0310	43.3380
 1.0320	43.3490
 1.0330	43.3570
 1.0340	43.3660
 1.0350	43.3760
 1.0360	43.3850
 1.0370	43.3940
 1.0380	43.4050
 1.0390	43.4180
 1.0400	43.4300
 1.0410	43.4450
 1.0420	43.4560
 1.0430	43.4640
 1.0440	43.4730
 1.0450	43.4810
 1.0460	43.4890
 1.0470	43.5000
 1.0480	43.5080
 1.0490	43.5130
 1.0500	43.5190
 1.0510	43.5250
 1.0520	43.5300
 1.0530	43.5360
 1.0540	43.5430
 1.0550	43.5510
 1.0560	43.5610
 1.0570	43.5680
 1.0580	43.5760
 1.0590	43.5830
 1.0600	43.5880
 1.0610	43.5930
 1.0620	43.5980
 1.0630	43.6030
 1.0640	43.6050
 1.0650	43.6080
 1.0660	43.6140
 1.0670	43.6160
 1.0680	43.6150
 1.0690	43.6120
 1.0700	43.6110
 1.0710	43.6090
 1.0720	43.6100
 1.0730	43.6190
 1.0740	43.6200
 1.0750	43.6200
 1.0760	43.6190
 1.0770	43.6130
 1.0780	43.6110
 1.0790	43.6120
 1.0800	43.6100
 1.0810	43.6070
 1.0820	43.6040
 1.0830	43.5990
 1.0840	43.5950
 1.0850	43.5940
 1.0860	43.5890
 1.0870	43.5860
 1.0880	43.5830
 1.0890	43.5780
 1.0900	43.5730
 1.0910	43.5670
 1.0920	43.5600
 1.0930	43.5540
 1.0940	43.5500
 1.0950	43.5440
 1.0960	43.5360
 1.0970	43.5300
 1.0980	43.5230
 1.0990	43.5140
 1.1000	43.5050
 1.1010	43.4970
 1.1020	43.4880
 1.1030	43.4790
 1.1040	43.4710
 1.1050	43.4610
 1.1060	43.4510
 1.1070	43.4410
 1.1080	43.4290
 1.1090	43.4180
 1.1100	43.4060
 1.1110	43.3920
 1.1120	43.3800
 1.1130	43.3710
 1.1140	43.3580
 1.1150	43.3450
 1.1160	43.3300
 1.1170	43.3120
 1.1180	43.2940
 1.1190	43.2780
 1.1200	43.2590
 1.1210	43.2360
 1.1220	43.2100
 1.1230	43.1820
 1.1240	43.1500
 1.1250	43.1170
 1.1260	43.0860
 1.1270	43.0470
 1.1280	43.0050
 1.1290	42.9560
 1.1300	42.9020
 1.1310	42.8420
 1.1320	42.7770
 1.1330	42.7070
 1.1340	42.6320
 1.1350	42.5530
 1.1360	42.4700
 1.1370	42.3810
 1.1380	42.2890
 1.1390	42.1930
 1.1400	42.0920
 1.1410	41.9900
 1.1420	41.8850
 1.1430	41.7790
 1.1440	41.6750
 1.1450	41.5680
 1.1460	41.4650
 1.1470	41.3600
 1.1480	41.2630
 1.1490	41.1670
 1.1500	41.0770
 1.1510	40.9930
 1.1520	40.9120
 1.1530	40.8350
 1.1540	40.7630
 1.1550	40.6950
 1.1560	40.6320
 1.1570	40.5740
 1.1580	40.5220
 1.1590	40.4740
 1.1600	40.4330
 1.1610	40.3980
 1.1620	40.3650
 1.1630	40.3350
 1.1640	40.3050
 1.1650	40.2800
 1.1660	40.2570
 1.1670	40.2360
 1.1680	40.2170
 1.1690	40.2010
 1.1700	40.1860
 1.1710	40.1720
 1.1720	40.1610
 1.1730	40.1480
 1.1740	40.1340
 1.1750	40.1210
 1.1760	40.1090
 1.1770	40.0960
 1.1780	40.0830
 1.1790	40.0710
 1.1800	40.0550
 1.1810	40.0380
 1.1820	40.0240
 1.1830	40.0090
 1.1840	39.9950
 1.1850	39.9830
 1.1860	39.9690
 1.1870	39.9540
 1.1880	39.9420
 1.1890	39.9320
 1.1900	39.9200
 1.1910	39.9090
 1.1920	39.8990
 1.1930	39.8860
 1.1940	39.8770
 1.1950	39.8700
 1.1960	39.8630
 1.1970	39.8590
 1.1980	39.8540
 1.1990	39.8510
 1.2000	39.8500
 1.2010	39.8490
 1.2020	39.8490
 1.2030	39.8530
 1.2040	39.8560
 1.2050	39.8610
 1.2060	39.8670
 1.2070	39.8720
 1.2080	39.8790
 1.2090	39.8880
 1.2100	39.8960
 1.2110	39.9050
 1.2120	39.9160
 1.2130	39.9260
 1.2140	39.9370
 1.2150	39.9490
 1.2160	39.9630
 1.2170	39.9760
 1.2180	39.9890
 1.2190	40.0030
 1.2200	40.0180
 1.2210	40.0350
 1.2220	40.0510
 1.2230	40.0690
 1.2240	40.0860
 1.2250	40.1020
 1.2260	40.1200
 1.2270	40.1350
 1.2280	40.1480
 1.2290	40.1640
 1.2300	40.1790
 1.2310	40.1930
 1.2320	40.2070
 1.2330	40.2200
 1.2340	40.2310
 1.2350	40.2410
 1.2360	40.2530
 1.2370	40.2640
 1.2380	40.2740
 1.2390	40.2860
 1.2400	40.2960
 1.2410	40.3040
 1.2420	40.3120
 1.2430	40.3210
 1.2440	40.3290
 1.2450	40.3360
 1.2460	40.3440
 1.2470	40.3530
 1.2480	40.3610
 1.2490	40.3680
 1.2500	40.3760
 1.2510	40.3820
 1.2520	40.3870
 1.2530	40.3920
 1.2540	40.3960
 1.2550	40.3990
 1.2560	40.3990
 1.2570	40.4000
 1.2580	40.4010
 1.2590	40.4020
 1.2600	40.4030
 1.2610	40.4040
 1.2620	40.4040
 1.2630	40.4040
 1.2640	40.4030
 1.2650	40.3990
 1.2660	40.3950
 1.2670	40.3920
 1.2680	40.3880
 1.2690	40.3840
 1.2700	40.3790
 1.2710	40.3730
 1.2720	40.3650
 1.2730	40.3550
 1.2740	40.3450
 1.2750	40.3340
 1.2760	40.3220
 1.2770	40.3100
 1.2780	40.2980
 1.2790	40.2830
 1.2800	40.2660
 1.2810	40.2490
 1.2820	40.2320
 1.2830	40.2120
 1.2840	40.1950
 1.2850	40.1750
 1.2860	40.1510
 1.2870	40.1260
 1.2880	40.1010
 1.2890	40.0730
 1.2900	40.0430
 1.2910	40.0140
 1.2920	39.9820
 1.2930	39.9480
 1.2940	39.9110
 1.2950	39.8730
 1.2960	39.8340
 1.2970	39.7930
 1.2980	39.7510
 1.2990	39.7050
 1.3000	39.6590
 1.3010	39.6120
 1.3020	39.5640
 1.3030	39.5150
 1.3040	39.4610
 1.3050	39.4050
 1.3060	39.3490
 1.3070	39.2890
 1.3080	39.2260
 1.3090	39.1620
 1.3100	39.0950
 1.3110	39.0270
 1.3120	38.9580
 1.3130	38.8860
 1.3140	38.8120
 1.3150	38.7360
 1.3160	38.6590
 1.3170	38.5830
 1.3180	38.5030
 1.3190	38.4210
 1.3200	38.3370
 1.3210	38.2480
 1.3220	38.1590
 1.3230	38.0680
 1.3240	37.9750
 1.3250	37.8800
 1.3260	37.7840
 1.3270	37.6860
 1.3280	37.5880
 1.3290	37.4850
 1.3300	37.3830
 1.3310	37.2780
 1.3320	37.1700
 1.3330	37.0630
 1.3340	36.9550
 1.3350	36.8470
 1.3360	36.7410
 1.3370	36.6340
 1.3380	36.5270
 1.3390	36.4200
 1.3400	36.3110
 1.3410	36.2060
 1.3420	36.1020
 1.3430	35.9960
 1.3440	35.8930
 1.3450	35.7910
 1.3460	35.6900
 1.3470	35.5900
 1.3480	35.4920
 1.3490	35.3940
 1.3500	35.2960
 1.3510	35.1980
 1.3520	35.1000
 1.3530	35.0030
 1.3540	34.9050
 1.3550	34.8070
 1.3560	34.7090
 1.3570	34.6090
 1.3580	34.5080
 1.3590	34.4060
 1.3600	34.3000
 1.3610	34.1930
 1.3620	34.0830
 1.3630	33.9670
 1.3640	33.8450
 1.3650	33.7170
 1.3660	33.5840
 1.3670	33.4430
 1.3680	33.2940
 1.3690	33.1360
 1.3700	32.9650
 1.3710	32.7830
 1.3720	32.5900
 1.3730	32.3800
 1.3740	32.1560
 1.3750	31.9160
 1.3760	31.6570
 1.3770	31.3790
 1.3780	31.0800
 1.3790	30.7610
 1.3800	30.4220
 1.3810	30.0590
 1.3820	29.6790
 1.3830	29.2800
 1.3840	28.8630
 1.3850	28.4270
 1.3860	27.9770
 1.3870	27.5080
 1.3880	27.0330
 1.3890	26.5460
 1.3900	26.0470
 1.3910	25.5490
 1.3920	25.0450
 1.3930	24.5360
 1.3940	24.0320
 1.3950	23.5250
 1.3960	23.0260
 1.3970	22.5380
 1.3980	22.0580
 1.3990	21.5960
 1.4000	21.1480
 1.4010	20.7110
 1.4020	20.2940
 1.4030	19.8910
 1.4040	19.5060
 1.4050	19.1410
 1.4060	18.7940
 1.4070	18.4680
 1.4080	18.1610
 1.4090	17.8700
 1.4100	17.5990
 1.4110	17.3440
 1.4120	17.1050
 1.4130	16.8830
 1.4140	16.6760
 1.4150	16.4850
 1.4160	16.3070
 1.4170	16.1410
 1.4180	15.9880
 1.4190	15.8460
 1.4200	15.7130
 1.4210	15.5890
 1.4220	15.4750
 1.4230	15.3700
 1.4240	15.2730
 1.4250	15.1830
 1.4260	15.1000
 1.4270	15.0240
 1.4280	14.9540
 1.4290	14.8900
 1.4300	14.8320
 1.4310	14.7780
 1.4320	14.7300
 1.4330	14.6860
 1.4340	14.6470
 1.4350	14.6110
 1.4360	14.5800
 1.4370	14.5530
 1.4380	14.5290
 1.4390	14.5080
 1.4400	14.4900
 1.4410	14.4760
 1.4420	14.4630
 1.4430	14.4540
 1.4440	14.4470
 1.4450	14.4420
 1.4460	14.4390
 1.4470	14.4380
 1.4480	14.4390
 1.4490	14.4410
 1.4500	14.4450
 1.4510	14.4510
 1.4520	14.4580
 1.4530	14.4680
 1.4540	14.4800
 1.4550	14.4930
 1.4560	14.5080
 1.4570	14.5260
 1.4580	14.5470
 1.4590	14.5700
 1.4600	14.5970
 1.4610	14.6280
 1.4620	14.6620
 1.4630	14.7010
 1.4640	14.7430
 1.4650	14.7890
 1.4660	14.8380
 1.4670	14.8930
 1.4680	14.9520
 1.4690	15.0160
 1.4700	15.0830
 1.4710	15.1530
 1.4720	15.2260
 1.4730	15.3020
 1.4740	15.3810
 1.4750	15.4640
 1.4760	15.5500
 1.4770	15.6380
