Name: Quercus lobata 3
Type: vegetation
Class: Tree
Genus: Quercus
Species: lobata
Sample No.: VH186
Owner: UCSB
Wavelength Range: TIR
Origin: 34.7151; -120.0588; WGS84
Collection Date: 6/9/2013
Description: Samples were collected as part of the HyspIRI Airborne Campaign. 48 individual plants were sampled in three times in 2013 - spring  summer  and fall. The name of the sample includes a 1  2  or 3 which references a different individual of the species. Samples were taken to JPL and processed within 48 hours of collection. The same leaves were processed in the Nicolet and then measured using the ASD.
Measurement: Hemispherical reflectance
First Column: X
Second Column: Y
X Units: Wavelength (micrometers)
Y Units: Reflectance (percentage)
First X Value: 2.501
Last X Value: 15.387
Number of X Values: 1737
Additional Information: vegetation.tree.quercus.lobata.tir.vh186.ucsb.nicolet.ancillary.txt

 2.5010	10.0930
 2.5030	10.1360
 2.5040	10.0370
 2.5050	10.0400
 2.5060	10.0980
 2.5070	 9.9570
 2.5090	 9.9640
 2.5100	10.0550
 2.5110	 9.9340
 2.5120	 9.7760
 2.5140	 9.8660
 2.5150	 9.8700
 2.5160	 9.9310
 2.5170	 9.9430
 2.5180	10.0400
 2.5200	10.0340
 2.5210	 9.9270
 2.5220	 9.6840
 2.5230	 9.6930
 2.5250	 9.8220
 2.5260	10.0260
 2.5270	10.0310
 2.5280	10.0150
 2.5290	 9.9770
 2.5310	 9.9830
 2.5320	 9.9570
 2.5330	 9.9350
 2.5340	 9.8290
 2.5360	 9.8560
 2.5370	 9.8540
 2.5380	10.0320
 2.5390	10.1570
 2.5410	 9.9950
 2.5420	 9.8250
 2.5430	 9.9130
 2.5440	 9.9210
 2.5460	 9.9800
 2.5470	10.0060
 2.5480	 9.9370
 2.5490	 9.8530
 2.5510	 9.9720
 2.5520	 9.9690
 2.5530	 9.9880
 2.5540	 9.9850
 2.5560	10.0260
 2.5570	 9.9910
 2.5580	10.0700
 2.5590	 9.9950
 2.5610	 9.9600
 2.5620	 9.9240
 2.5630	10.0060
 2.5640	10.0240
 2.5660	10.0250
 2.5670	 9.9340
 2.5680	10.0140
 2.5700	10.0450
 2.5710	10.0070
 2.5720	10.0800
 2.5730	10.3130
 2.5750	10.2540
 2.5760	10.1830
 2.5770	10.1340
 2.5790	10.1790
 2.5800	10.0020
 2.5810	 9.9730
 2.5820	10.0320
 2.5840	10.0710
 2.5850	10.2180
 2.5860	10.2090
 2.5880	 9.9810
 2.5890	 9.8450
 2.5900	 9.8100
 2.5910	 9.9120
 2.5930	10.0090
 2.5940	 9.9430
 2.5950	 9.8940
 2.5970	 9.8850
 2.5980	 9.8750
 2.5990	10.0500
 2.6000	10.0160
 2.6020	 9.9470
 2.6030	 9.8410
 2.6040	 9.8720
 2.6060	 9.8690
 2.6070	 9.8310
 2.6080	 9.7690
 2.6100	 9.8220
 2.6110	 9.7890
 2.6120	 9.7800
 2.6140	 9.7760
 2.6150	 9.7750
 2.6160	 9.7150
 2.6180	 9.7590
 2.6190	 9.7770
 2.6200	 9.7630
 2.6220	 9.5250
 2.6230	 9.4020
 2.6240	 9.5060
 2.6260	 9.5710
 2.6270	 9.3230
 2.6280	 9.1690
 2.6300	 9.1650
 2.6310	 9.3770
 2.6320	 9.2930
 2.6340	 9.3160
 2.6350	 9.1980
 2.6360	 9.1410
 2.6380	 9.1070
 2.6390	 9.1950
 2.6400	 9.1220
 2.6420	 9.0680
 2.6430	 9.0500
 2.6440	 9.0670
 2.6460	 9.0030
 2.6470	 9.0170
 2.6480	 8.9230
 2.6500	 8.8670
 2.6510	 8.7940
 2.6520	 8.7140
 2.6540	 8.5950
 2.6550	 8.6250
 2.6560	 8.6270
 2.6580	 8.6460
 2.6590	 8.5210
 2.6610	 8.5360
 2.6620	 8.6620
 2.6630	 8.7310
 2.6650	 8.6410
 2.6660	 8.5180
 2.6670	 8.4340
 2.6690	 8.4250
 2.6700	 8.3360
 2.6720	 8.2440
 2.6730	 8.2580
 2.6740	 8.3720
 2.6760	 8.3800
 2.6770	 8.3720
 2.6780	 8.1620
 2.6800	 8.0540
 2.6810	 8.0510
 2.6830	 8.1510
 2.6840	 8.1950
 2.6850	 8.1770
 2.6870	 8.0380
 2.6880	 7.9130
 2.6900	 7.8170
 2.6910	 7.8820
 2.6920	 7.9040
 2.6940	 7.8510
 2.6950	 7.7230
 2.6970	 7.6460
 2.6980	 7.4530
 2.6990	 7.4010
 2.7010	 7.3110
 2.7020	 7.2950
 2.7040	 7.2580
 2.7050	 7.1310
 2.7060	 7.0670
 2.7080	 7.1110
 2.7090	 7.0730
 2.7110	 7.1340
 2.7120	 6.9760
 2.7130	 6.8540
 2.7150	 6.8010
 2.7160	 6.7620
 2.7180	 6.6430
 2.7190	 6.7180
 2.7210	 6.6200
 2.7220	 6.4090
 2.7230	 6.2410
 2.7250	 6.1640
 2.7260	 6.0220
 2.7280	 5.8140
 2.7290	 5.6070
 2.7310	 5.7040
 2.7320	 5.6380
 2.7330	 5.5950
 2.7350	 5.5450
 2.7360	 5.3390
 2.7380	 5.2410
 2.7390	 5.3030
 2.7410	 5.2730
 2.7420	 5.3570
 2.7440	 5.2350
 2.7450	 4.9960
 2.7470	 4.7110
 2.7480	 4.6240
 2.7490	 4.4970
 2.7510	 4.7000
 2.7520	 5.0720
 2.7540	 5.0630
 2.7550	 4.6890
 2.7570	 4.7720
 2.7580	 4.7650
 2.7600	 4.7650
 2.7610	 4.7660
 2.7630	 4.6050
 2.7640	 4.2640
 2.7660	 4.2210
 2.7670	 4.1830
 2.7680	 4.3120
 2.7700	 4.2730
 2.7710	 4.3150
 2.7730	 4.1240
 2.7740	 3.9730
 2.7760	 3.8570
 2.7770	 3.9100
 2.7790	 3.8520
 2.7800	 3.9890
 2.7820	 4.0820
 2.7830	 4.0240
 2.7850	 3.9310
 2.7860	 3.9590
 2.7880	 4.0400
 2.7890	 4.0060
 2.7910	 3.7780
 2.7920	 3.6810
 2.7940	 3.5260
 2.7950	 3.5690
 2.7970	 3.6300
 2.7980	 3.7020
 2.8000	 3.6340
 2.8010	 3.5440
 2.8030	 3.4870
 2.8040	 3.5770
 2.8060	 3.5200
 2.8070	 3.5280
 2.8090	 3.6780
 2.8110	 3.9170
 2.8120	 3.6240
 2.8140	 3.4700
 2.8150	 3.4050
 2.8170	 3.5790
 2.8180	 3.6850
 2.8200	 3.7850
 2.8210	 3.6460
 2.8230	 3.4710
 2.8240	 3.3880
 2.8260	 3.3940
 2.8270	 3.3190
 2.8290	 3.6580
 2.8300	 3.6680
 2.8320	 3.4560
 2.8340	 3.2980
 2.8350	 3.4090
 2.8370	 3.3770
 2.8380	 3.3650
 2.8400	 3.2940
 2.8410	 3.4000
 2.8430	 3.4270
 2.8440	 3.4670
 2.8460	 3.3560
 2.8480	 3.3690
 2.8490	 3.4250
 2.8510	 3.4800
 2.8520	 3.3200
 2.8540	 3.2350
 2.8550	 3.2700
 2.8570	 3.2440
 2.8590	 3.1480
 2.8600	 3.2580
 2.8620	 3.3010
 2.8630	 3.4450
 2.8650	 3.4460
 2.8660	 3.4110
 2.8680	 3.1960
 2.8700	 3.1890
 2.8710	 3.2010
 2.8730	 3.1640
 2.8740	 3.0200
 2.8760	 3.1770
 2.8780	 3.3020
 2.8790	 3.4580
 2.8810	 3.5100
 2.8820	 3.2900
 2.8840	 3.1650
 2.8860	 3.3290
 2.8870	 3.3160
 2.8890	 3.2320
 2.8900	 3.1010
 2.8920	 3.1680
 2.8940	 3.1330
 2.8950	 3.2260
 2.8970	 3.2100
 2.8980	 3.2580
 2.9000	 3.2240
 2.9020	 3.2000
 2.9030	 3.0930
 2.9050	 3.1840
 2.9070	 3.3010
 2.9080	 3.3800
 2.9100	 3.3260
 2.9120	 3.2030
 2.9130	 3.2310
 2.9150	 3.3200
 2.9160	 3.2740
 2.9180	 3.3080
 2.9200	 3.1360
 2.9210	 3.2140
 2.9230	 3.2600
 2.9250	 3.2880
 2.9260	 3.1830
 2.9280	 3.0280
 2.9300	 3.0540
 2.9310	 3.2970
 2.9330	 3.2630
 2.9350	 3.1870
 2.9360	 3.1210
 2.9380	 3.3130
 2.9400	 3.4070
 2.9410	 3.4040
 2.9430	 3.3250
 2.9450	 3.4200
 2.9460	 3.0640
 2.9480	 2.9570
 2.9500	 3.0140
 2.9510	 3.1330
 2.9530	 3.1360
 2.9550	 3.5740
 2.9560	 3.6480
 2.9580	 3.7920
 2.9600	 3.4990
 2.9610	 2.8890
 2.9630	 2.5140
 2.9650	 2.8600
 2.9660	 3.0720
 2.9680	 3.8880
 2.9700	 4.6990
 2.9720	 5.1920
 2.9730	 4.2290
 2.9750	 2.9740
 2.9770	 3.9650
 2.9780	 4.1250
 2.9800	 3.9770
 2.9820	 3.4560
 2.9840	 3.3710
 2.9850	 3.5200
 2.9870	 2.4290
 2.9890	 2.7690
 2.9900	 3.6350
 2.9920	 4.4430
 2.9940	 4.0100
 2.9960	 2.4890
 2.9970	 2.3330
 2.9990	 3.1820
 3.0010	 3.4410
 3.0030	 3.3380
 3.0040	 3.3350
 3.0060	 3.2500
 3.0080	 3.1440
 3.0100	 3.1370
 3.0110	 3.4230
 3.0130	 3.2510
 3.0150	 2.9590
 3.0170	 3.5080
 3.0180	 3.5930
 3.0200	 3.3420
 3.0220	 3.5020
 3.0240	 3.4800
 3.0250	 3.2600
 3.0270	 3.3260
 3.0290	 3.4030
 3.0310	 3.3440
 3.0320	 3.6760
 3.0340	 3.5740
 3.0360	 3.0240
 3.0380	 3.0120
 3.0400	 3.1010
 3.0410	 3.5240
 3.0430	 3.6430
 3.0450	 3.6780
 3.0470	 3.8090
 3.0480	 3.0580
 3.0500	 2.1630
 3.0520	 1.9110
 3.0540	 1.6780
 3.0560	 3.2150
 3.0570	 5.1190
 3.0590	 4.3500
 3.0610	 2.4910
 3.0630	 2.1370
 3.0650	 2.7410
 3.0660	 3.2450
 3.0680	 3.7880
 3.0700	 4.2890
 3.0720	 3.2540
 3.0740	 2.8840
 3.0760	 3.0450
 3.0770	 3.4660
 3.0790	 3.5920
 3.0810	 3.7300
 3.0830	 3.6700
 3.0850	 3.6240
 3.0870	 3.5620
 3.0880	 3.5520
 3.0900	 3.4500
 3.0920	 3.7390
 3.0940	 3.7200
 3.0960	 3.5190
 3.0980	 3.4880
 3.0990	 3.6150
 3.1010	 3.6080
 3.1030	 3.6420
 3.1050	 3.5420
 3.1070	 3.5400
 3.1090	 3.6510
 3.1110	 3.6970
 3.1120	 3.5120
 3.1140	 3.6530
 3.1160	 3.7630
 3.1180	 3.7910
 3.1200	 3.7610
 3.1220	 3.5190
 3.1240	 3.6320
 3.1260	 3.7370
 3.1270	 3.4110
 3.1290	 3.3710
 3.1310	 3.6280
 3.1330	 3.9880
 3.1350	 4.4020
 3.1370	 3.5360
 3.1390	 3.1940
 3.1410	 4.1940
 3.1430	 4.7980
 3.1450	 4.3310
 3.1460	 3.3820
 3.1480	 3.4500
 3.1500	 4.3190
 3.1520	 4.5390
 3.1540	 4.0320
 3.1560	 4.1190
 3.1580	 4.3740
 3.1600	 4.7220
 3.1620	 4.4870
 3.1640	 4.3970
 3.1660	 3.8560
 3.1680	 2.7830
 3.1700	 2.3690
 3.1710	 2.8860
 3.1730	 3.5540
 3.1750	 4.6300
 3.1770	 5.0720
 3.1790	 4.6170
 3.1810	 4.3330
 3.1830	 4.3660
 3.1850	 4.4100
 3.1870	 4.3720
 3.1890	 4.3790
 3.1910	 4.4590
 3.1930	 4.2680
 3.1950	 4.2960
 3.1970	 4.3240
 3.1990	 4.3280
 3.2010	 4.3010
 3.2030	 4.3420
 3.2050	 4.3470
 3.2070	 4.4400
 3.2090	 4.3580
 3.2110	 4.2730
 3.2130	 4.3080
 3.2150	 4.4750
 3.2170	 4.5620
 3.2190	 4.6470
 3.2210	 4.6130
 3.2230	 4.6900
 3.2250	 4.5960
 3.2270	 4.5080
 3.2290	 4.3900
 3.2310	 4.3620
 3.2330	 4.2980
 3.2350	 4.4870
 3.2370	 4.6130
 3.2390	 4.7830
 3.2410	 4.8730
 3.2430	 5.0450
 3.2450	 4.9320
 3.2470	 4.5820
 3.2490	 4.5130
 3.2510	 4.5560
 3.2530	 4.5030
 3.2550	 4.5100
 3.2570	 4.6710
 3.2590	 4.9980
 3.2610	 4.8540
 3.2630	 4.6220
 3.2650	 4.7060
 3.2670	 5.2160
 3.2690	 5.5830
 3.2720	 5.4160
 3.2740	 4.9520
 3.2760	 4.9340
 3.2780	 5.0500
 3.2800	 5.0610
 3.2820	 5.1230
 3.2840	 5.1510
 3.2860	 5.1480
 3.2880	 5.0910
 3.2900	 5.1710
 3.2920	 5.3150
 3.2940	 5.2400
 3.2960	 5.1560
 3.2990	 5.2660
 3.3010	 5.4290
 3.3030	 5.3900
 3.3050	 5.3500
 3.3070	 5.4260
 3.3090	 5.4920
 3.3110	 5.1750
 3.3130	 5.1510
 3.3150	 5.4210
 3.3180	 5.4600
 3.3200	 5.1890
 3.3220	 5.2310
 3.3240	 5.4360
 3.3260	 5.4410
 3.3280	 5.3310
 3.3300	 5.4530
 3.3330	 5.5130
 3.3350	 5.4570
 3.3370	 5.2230
 3.3390	 5.1440
 3.3410	 5.1710
 3.3430	 5.3140
 3.3450	 5.2890
 3.3480	 5.4010
 3.3500	 5.3090
 3.3520	 5.1860
 3.3540	 5.1750
 3.3560	 5.1630
 3.3580	 4.9660
 3.3610	 4.9350
 3.3630	 4.9550
 3.3650	 5.0360
 3.3670	 5.0130
 3.3690	 4.9910
 3.3720	 4.9500
 3.3740	 4.9170
 3.3760	 4.8030
 3.3780	 4.8310
 3.3800	 4.8200
 3.3830	 4.8260
 3.3850	 4.7670
 3.3870	 4.8080
 3.3890	 4.6260
 3.3910	 4.4150
 3.3940	 4.3570
 3.3960	 4.5670
 3.3980	 4.6030
 3.4000	 4.4950
 3.4020	 4.4020
 3.4050	 4.5390
 3.4070	 4.6440
 3.4090	 4.6570
 3.4110	 4.6340
 3.4140	 4.7430
 3.4160	 4.7770
 3.4180	 4.9280
 3.4200	 5.0830
 3.4230	 5.2720
 3.4250	 5.4280
 3.4270	 5.7500
 3.4290	 5.8520
 3.4320	 5.8360
 3.4340	 5.6980
 3.4360	 5.6060
 3.4390	 5.5910
 3.4410	 5.5530
 3.4430	 5.4200
 3.4450	 5.5220
 3.4480	 5.3920
 3.4500	 5.2920
 3.4520	 5.4500
 3.4550	 5.4960
 3.4570	 5.4570
 3.4590	 5.3880
 3.4620	 5.4610
 3.4640	 5.5470
 3.4660	 5.4310
 3.4680	 5.4190
 3.4710	 5.5110
 3.4730	 5.6440
 3.4750	 5.5680
 3.4780	 5.4930
 3.4800	 5.4510
 3.4820	 5.5530
 3.4850	 5.5910
 3.4870	 5.5100
 3.4890	 5.3940
 3.4920	 5.4030
 3.4940	 5.3640
 3.4970	 5.3130
 3.4990	 5.2750
 3.5010	 5.3090
 3.5040	 5.3910
 3.5060	 5.7020
 3.5080	 6.0070
 3.5110	 6.1850
 3.5130	 6.2680
 3.5160	 6.4310
 3.5180	 6.4840
 3.5200	 6.4390
 3.5230	 6.4180
 3.5250	 6.5460
 3.5270	 6.6370
 3.5300	 6.6800
 3.5320	 6.6740
 3.5350	 6.7510
 3.5370	 6.7650
 3.5400	 6.7530
 3.5420	 6.7190
 3.5440	 6.8030
 3.5470	 6.8150
 3.5490	 6.9030
 3.5520	 6.7880
 3.5540	 6.7680
 3.5570	 6.8420
 3.5590	 6.9230
 3.5610	 6.8970
 3.5640	 6.9520
 3.5660	 7.0450
 3.5690	 7.1740
 3.5710	 7.1510
 3.5740	 7.1090
 3.5760	 7.1350
 3.5790	 7.1170
 3.5810	 7.0760
 3.5840	 7.1720
 3.5860	 7.1140
 3.5890	 7.0630
 3.5910	 7.0380
 3.5930	 7.0970
 3.5960	 7.3380
 3.5980	 7.4790
 3.6010	 7.3630
 3.6030	 7.1350
 3.6060	 7.0210
 3.6080	 7.2180
 3.6110	 7.3090
 3.6140	 7.4040
 3.6160	 7.3400
 3.6190	 7.2790
 3.6210	 7.2070
 3.6240	 7.2460
 3.6260	 7.3050
 3.6290	 7.3050
 3.6310	 7.3230
 3.6340	 7.3840
 3.6360	 7.2600
 3.6390	 7.2940
 3.6410	 7.3710
 3.6440	 7.4050
 3.6470	 7.3160
 3.6490	 7.2330
 3.6520	 7.2110
 3.6540	 7.2480
 3.6570	 7.3160
 3.6590	 7.3470
 3.6620	 7.2770
 3.6650	 7.3040
 3.6670	 7.3140
 3.6700	 7.3610
 3.6720	 7.3180
 3.6750	 7.3540
 3.6780	 7.3860
 3.6800	 7.3680
 3.6830	 7.2830
 3.6850	 7.3220
 3.6880	 7.3340
 3.6910	 7.3730
 3.6930	 7.3820
 3.6960	 7.3760
 3.6990	 7.3430
 3.7010	 7.3830
 3.7040	 7.3950
 3.7060	 7.4250
 3.7090	 7.4580
 3.7120	 7.5010
 3.7140	 7.4680
 3.7170	 7.4740
 3.7200	 7.5460
 3.7220	 7.5820
 3.7250	 7.4880
 3.7280	 7.3940
 3.7300	 7.4240
 3.7330	 7.4410
 3.7360	 7.3800
 3.7390	 7.5600
 3.7410	 7.5610
 3.7440	 7.5410
 3.7470	 7.5690
 3.7490	 7.5500
 3.7520	 7.5470
 3.7550	 7.7440
 3.7580	 7.7470
 3.7600	 7.6970
 3.7630	 7.6700
 3.7660	 7.6460
 3.7680	 7.6250
 3.7710	 7.6950
 3.7740	 7.6990
 3.7770	 7.6640
 3.7790	 7.7400
 3.7820	 7.7970
 3.7850	 7.7370
 3.7880	 7.7100
 3.7900	 7.6660
 3.7930	 7.6930
 3.7960	 7.6210
 3.7990	 7.6170
 3.8020	 7.6640
 3.8040	 7.7550
 3.8070	 7.8160
 3.8100	 7.8160
 3.8130	 7.7010
 3.8160	 7.7500
 3.8180	 7.8630
 3.8210	 7.9160
 3.8240	 7.7710
 3.8270	 7.7660
 3.8300	 7.7640
 3.8330	 7.7380
 3.8350	 7.8070
 3.8380	 8.0560
 3.8410	 8.0870
 3.8440	 7.9390
 3.8470	 7.8540
 3.8500	 7.8120
 3.8520	 7.8680
 3.8550	 7.8620
 3.8580	 7.9070
 3.8610	 7.9830
 3.8640	 7.9470
 3.8670	 7.9570
 3.8700	 7.9770
 3.8730	 7.9760
 3.8750	 7.9650
 3.8780	 7.9810
 3.8810	 7.9900
 3.8840	 8.0610
 3.8870	 8.0340
 3.8900	 7.9990
 3.8930	 7.9950
 3.8960	 8.0620
 3.8990	 8.1260
 3.9020	 8.1660
 3.9050	 8.0980
 3.9080	 8.0670
 3.9110	 7.9960
 3.9140	 7.9540
 3.9160	 8.0280
 3.9190	 8.1090
 3.9220	 8.0610
 3.9250	 8.0400
 3.9280	 7.9650
 3.9310	 7.9810
 3.9340	 8.0350
 3.9370	 8.0900
 3.9400	 8.0580
 3.9430	 8.0440
 3.9460	 8.0860
 3.9490	 8.1490
 3.9520	 8.1320
 3.9550	 8.1720
 3.9580	 8.1510
 3.9610	 8.1320
 3.9640	 8.0710
 3.9670	 8.0770
 3.9700	 8.1010
 3.9730	 8.1250
 3.9770	 8.1400
 3.9800	 8.1260
 3.9830	 8.0710
 3.9860	 8.0320
 3.9890	 7.9940
 3.9920	 8.0430
 3.9950	 8.1330
 3.9980	 8.1490
 4.0010	 8.1340
 4.0040	 8.1420
 4.0070	 8.1220
 4.0100	 8.1590
 4.0130	 8.1110
 4.0170	 8.0710
 4.0200	 8.0870
 4.0230	 8.1260
 4.0260	 8.0830
 4.0290	 8.1450
 4.0320	 8.2370
 4.0350	 8.2540
 4.0380	 8.2160
 4.0420	 8.1850
 4.0450	 8.1470
 4.0480	 8.1330
 4.0510	 8.0870
 4.0540	 8.1460
 4.0570	 8.2380
 4.0610	 8.2400
 4.0640	 8.2300
 4.0670	 8.2560
 4.0700	 8.2130
 4.0730	 8.2270
 4.0770	 8.3320
 4.0800	 8.3920
 4.0830	 8.2850
 4.0860	 8.1750
 4.0890	 8.1510
 4.0930	 8.2850
 4.0960	 8.3340
 4.0990	 8.3360
 4.1020	 8.2890
 4.1060	 8.2110
 4.1090	 8.1740
 4.1120	 8.2220
 4.1150	 8.2640
 4.1190	 8.3340
 4.1220	 8.3260
 4.1250	 8.3000
 4.1280	 8.2850
 4.1320	 8.2560
 4.1350	 8.2440
 4.1380	 8.2520
 4.1420	 8.2140
 4.1450	 8.3340
 4.1480	 8.3980
 4.1520	 8.3140
 4.1550	 8.3010
 4.1580	 8.3540
 4.1620	 8.3420
 4.1650	 8.3600
 4.1680	 8.3410
 4.1720	 8.3280
 4.1750	 8.3000
 4.1780	 8.3340
 4.1820	 8.3170
 4.1850	 8.2590
 4.1890	 8.2540
 4.1920	 8.2840
 4.1950	 8.2490
 4.1990	 8.2790
 4.2020	 8.1300
 4.2060	 8.1660
 4.2090	 8.2470
 4.2120	 8.0900
 4.2160	 7.9690
 4.2190	 7.8770
 4.2230	 7.5340
 4.2260	 7.8040
 4.2300	 8.2520
 4.2330	 8.1070
 4.2360	 8.2240
 4.2400	 8.1530
 4.2430	 7.9510
 4.2470	 7.9230
 4.2500	 7.9270
 4.2540	 8.0550
 4.2570	 7.9590
 4.2610	 7.9910
 4.2640	 8.1290
 4.2680	 7.9570
 4.2710	 7.7570
 4.2750	 7.7040
 4.2780	 7.7580
 4.2820	 7.9130
 4.2850	 7.9290
 4.2890	 7.9310
 4.2930	 7.9400
 4.2960	 8.0050
 4.3000	 8.0010
 4.3030	 7.9710
 4.3070	 8.0380
 4.3100	 8.0360
 4.3140	 7.9210
 4.3180	 7.9770
 4.3210	 8.0240
 4.3250	 8.0170
 4.3280	 8.0560
 4.3320	 8.1270
 4.3360	 8.0140
 4.3390	 8.0340
 4.3430	 8.1350
 4.3470	 8.1380
 4.3500	 8.0650
 4.3540	 8.0420
 4.3570	 8.0760
 4.3610	 8.0990
 4.3650	 8.0250
 4.3680	 8.0070
 4.3720	 8.0550
 4.3760	 8.0750
 4.3800	 8.0880
 4.3830	 8.0630
 4.3870	 8.0340
 4.3910	 8.0840
 4.3940	 8.0360
 4.3980	 7.9700
 4.4020	 7.9460
 4.4060	 7.9640
 4.4090	 7.9380
 4.4130	 7.9670
 4.4170	 7.9560
 4.4210	 7.9400
 4.4240	 7.9770
 4.4280	 8.0250
 4.4320	 8.0170
 4.4360	 7.9500
 4.4400	 7.9170
 4.4430	 7.9200
 4.4470	 7.9600
 4.4510	 7.9250
 4.4550	 7.8380
 4.4590	 7.8220
 4.4620	 7.8180
 4.4660	 7.8570
 4.4700	 7.8860
 4.4740	 7.8900
 4.4780	 7.8730
 4.4820	 7.8630
 4.4860	 7.8480
 4.4900	 7.8800
 4.4930	 7.8570
 4.4970	 7.8620
 4.5010	 7.8830
 4.5050	 7.7480
 4.5090	 7.7110
 4.5130	 7.7640
 4.5170	 7.7760
 4.5210	 7.8020
 4.5250	 7.7790
 4.5290	 7.7460
 4.5330	 7.6760
 4.5370	 7.6410
 4.5410	 7.6220
 4.5450	 7.6260
 4.5490	 7.6470
 4.5530	 7.6790
 4.5570	 7.7350
 4.5610	 7.7780
 4.5650	 7.7310
 4.5690	 7.7470
 4.5730	 7.7410
 4.5770	 7.6370
 4.5810	 7.6370
 4.5850	 7.6900
 4.5890	 7.6980
 4.5930	 7.6170
 4.5970	 7.5130
 4.6010	 7.4970
 4.6050	 7.6080
 4.6090	 7.5850
 4.6130	 7.4630
 4.6170	 7.6000
 4.6220	 7.5780
 4.6260	 7.4040
 4.6300	 7.4230
 4.6340	 7.4760
 4.6380	 7.4650
 4.6420	 7.4500
 4.6460	 7.3990
 4.6510	 7.3840
 4.6550	 7.4500
 4.6590	 7.4820
 4.6630	 7.4290
 4.6670	 7.4470
 4.6720	 7.5090
 4.6760	 7.5350
 4.6800	 7.5490
 4.6840	 7.4370
 4.6880	 7.2350
 4.6930	 7.3300
 4.6970	 7.4480
 4.7010	 7.4450
 4.7050	 7.4530
 4.7100	 7.4190
 4.7140	 7.3840
 4.7180	 7.4030
 4.7230	 7.3890
 4.7270	 7.3980
 4.7310	 7.4340
 4.7360	 7.4260
 4.7400	 7.3430
 4.7440	 7.3840
 4.7490	 7.4410
 4.7530	 7.4280
 4.7570	 7.3990
 4.7620	 7.4190
 4.7660	 7.4170
 4.7700	 7.4660
 4.7750	 7.5190
 4.7790	 7.4000
 4.7840	 7.3860
 4.7880	 7.6230
 4.7920	 7.6020
 4.7970	 7.3950
 4.8010	 7.3950
 4.8060	 7.4320
 4.8100	 7.4910
 4.8150	 7.4620
 4.8190	 7.4180
 4.8240	 7.4260
 4.8280	 7.4500
 4.8330	 7.4360
 4.8370	 7.4590
 4.8420	 7.4340
 4.8460	 7.4230
 4.8510	 7.4510
 4.8550	 7.4670
 4.8600	 7.4380
 4.8640	 7.4560
 4.8690	 7.4660
 4.8730	 7.4410
 4.8780	 7.4140
 4.8830	 7.4090
 4.8870	 7.4520
 4.8920	 7.4600
 4.8960	 7.4810
 4.9010	 7.5260
 4.9060	 7.4730
 4.9100	 7.4500
 4.9150	 7.4220
 4.9200	 7.3950
 4.9240	 7.4210
 4.9290	 7.4830
 4.9340	 7.5060
 4.9380	 7.4840
 4.9430	 7.4420
 4.9480	 7.4180
 4.9530	 7.5020
 4.9570	 7.5690
 4.9620	 7.5030
 4.9670	 7.4710
 4.9720	 7.5060
 4.9760	 7.5470
 4.9810	 7.5080
 4.9860	 7.5280
 4.9910	 7.5590
 4.9960	 7.5750
 5.0000	 7.5950
 5.0050	 7.5680
 5.0100	 7.5440
 5.0150	 7.5460
 5.0200	 7.5210
 5.0250	 7.5380
 5.0290	 7.5970
 5.0340	 7.5990
 5.0390	 7.5710
 5.0440	 7.5990
 5.0490	 7.5710
 5.0540	 7.5850
 5.0590	 7.6390
 5.0640	 7.6390
 5.0690	 7.5970
 5.0740	 7.5650
 5.0790	 7.5380
 5.0840	 7.5450
 5.0890	 7.5780
 5.0940	 7.5810
 5.0990	 7.5590
 5.1040	 7.5250
 5.1090	 7.5180
 5.1140	 7.5480
 5.1190	 7.5210
 5.1240	 7.5420
 5.1290	 7.5780
 5.1340	 7.6200
 5.1390	 7.6300
 5.1440	 7.6610
 5.1490	 7.6590
 5.1540	 7.6220
 5.1600	 7.5600
 5.1650	 7.5360
 5.1700	 7.5260
 5.1750	 7.5410
 5.1800	 7.5700
 5.1850	 7.5480
 5.1910	 7.5350
 5.1960	 7.5280
 5.2010	 7.5000
 5.2060	 7.5200
 5.2110	 7.4960
 5.2170	 7.4730
 5.2220	 7.4650
 5.2270	 7.4820
 5.2320	 7.5060
 5.2380	 7.5610
 5.2430	 7.5590
 5.2480	 7.4920
 5.2540	 7.4600
 5.2590	 7.4660
 5.2640	 7.4140
 5.2700	 7.3960
 5.2750	 7.3780
 5.2800	 7.4060
 5.2860	 7.4070
 5.2910	 7.4110
 5.2970	 7.3440
 5.3020	 7.3070
 5.3070	 7.3770
 5.3130	 7.4090
 5.3180	 7.3840
 5.3240	 7.4490
 5.3290	 7.4350
 5.3350	 7.4580
 5.3400	 7.4290
 5.3460	 7.3460
 5.3510	 7.3020
 5.3570	 7.3370
 5.3620	 7.3110
 5.3680	 7.2770
 5.3730	 7.2270
 5.3790	 7.2230
 5.3850	 7.2300
 5.3900	 7.2250
 5.3960	 7.2010
 5.4010	 7.2050
 5.4070	 7.1660
 5.4130	 7.1440
 5.4180	 7.1290
 5.4240	 7.1540
 5.4300	 7.0760
 5.4350	 7.0630
 5.4410	 7.0610
