Name: Quercus ilex
Type: vegetation
Class: Tree
Genus: Quercus
Species: ilex
Sample No.: JPL255
Owner: JPL
Wavelength Range: TIR
Origin: 34.13179; -118.11182; WGS84
Collection Date: 10/6/2016
Description: Samples were collected at the Huntington Garden in San Marino California as part of a JPL Subcontract studying HyTES imagery. Samples were taken to JPL and processed within 48 hours of collection. The same leaves were processed in the Nicolet and then measured using the ASD.
Measurement: Hemispherical reflectance
First Column: X
Second Column: Y
X Units: Wavelength (micrometer)
Y Units: Reflectance (percentage)
First X Value: 2.501
Last X Value: 15.387
Number of X Values: 1737
Additional Information: vegetation.tree.quercus.ilex.tir.jpl255.jpl.nicolet.ancillary.txt

 2.5010	 6.4120
 2.5030	 6.3460
 2.5040	 6.3150
 2.5050	 6.3070
 2.5060	 6.3300
 2.5070	 6.3470
 2.5090	 6.2960
 2.5100	 6.1840
 2.5110	 6.2200
 2.5120	 6.2670
 2.5140	 6.3340
 2.5150	 6.3370
 2.5160	 6.3580
 2.5170	 6.3300
 2.5180	 6.3060
 2.5200	 6.3050
 2.5210	 6.3330
 2.5220	 6.3190
 2.5230	 6.3950
 2.5250	 6.3680
 2.5260	 6.3040
 2.5270	 6.2090
 2.5280	 6.1760
 2.5300	 6.1900
 2.5310	 6.2700
 2.5320	 6.2920
 2.5330	 6.3290
 2.5340	 6.3200
 2.5360	 6.3280
 2.5370	 6.3060
 2.5380	 6.3090
 2.5390	 6.3340
 2.5410	 6.4040
 2.5420	 6.3840
 2.5430	 6.3410
 2.5440	 6.3010
 2.5460	 6.3040
 2.5470	 6.3580
 2.5480	 6.4350
 2.5490	 6.3870
 2.5510	 6.3540
 2.5520	 6.3890
 2.5530	 6.4000
 2.5540	 6.3960
 2.5560	 6.4350
 2.5570	 6.3680
 2.5580	 6.3620
 2.5590	 6.3890
 2.5610	 6.4370
 2.5620	 6.3840
 2.5630	 6.3890
 2.5650	 6.3650
 2.5660	 6.4460
 2.5670	 6.4920
 2.5680	 6.4920
 2.5700	 6.3960
 2.5710	 6.4010
 2.5720	 6.4470
 2.5730	 6.3980
 2.5750	 6.4070
 2.5760	 6.4480
 2.5770	 6.4190
 2.5790	 6.4170
 2.5800	 6.4470
 2.5810	 6.4150
 2.5820	 6.4250
 2.5840	 6.4670
 2.5850	 6.3940
 2.5860	 6.3680
 2.5880	 6.3350
 2.5890	 6.3490
 2.5900	 6.3110
 2.5910	 6.3940
 2.5930	 6.3590
 2.5940	 6.1950
 2.5950	 6.0450
 2.5970	 6.1890
 2.5980	 6.3250
 2.5990	 6.3730
 2.6010	 6.3010
 2.6020	 6.2500
 2.6030	 6.2120
 2.6040	 6.2110
 2.6060	 6.0990
 2.6070	 6.1070
 2.6080	 6.1600
 2.6100	 6.2400
 2.6110	 6.2780
 2.6120	 6.2220
 2.6140	 6.1490
 2.6150	 6.1860
 2.6160	 6.1110
 2.6180	 6.0360
 2.6190	 6.0210
 2.6200	 5.9560
 2.6220	 5.9920
 2.6230	 6.1120
 2.6240	 6.0410
 2.6260	 5.9660
 2.6270	 5.9650
 2.6280	 6.0390
 2.6300	 5.9270
 2.6310	 5.7930
 2.6320	 5.8710
 2.6340	 5.8900
 2.6350	 5.8850
 2.6360	 5.9440
 2.6380	 5.8940
 2.6390	 5.8730
 2.6400	 5.8430
 2.6420	 5.8310
 2.6430	 5.7270
 2.6440	 5.7650
 2.6460	 5.7330
 2.6470	 5.6820
 2.6480	 5.6880
 2.6500	 5.6810
 2.6510	 5.6290
 2.6520	 5.6280
 2.6540	 5.5600
 2.6550	 5.4990
 2.6570	 5.4620
 2.6580	 5.5490
 2.6590	 5.5480
 2.6610	 5.5350
 2.6620	 5.4190
 2.6630	 5.3750
 2.6650	 5.2940
 2.6660	 5.2790
 2.6670	 5.2880
 2.6690	 5.2870
 2.6700	 5.1240
 2.6720	 5.0850
 2.6730	 5.1790
 2.6740	 5.2820
 2.6760	 5.2550
 2.6770	 5.1350
 2.6780	 5.1170
 2.6800	 5.2090
 2.6810	 5.2380
 2.6830	 5.1540
 2.6840	 5.0630
 2.6850	 5.0710
 2.6870	 5.0490
 2.6880	 5.0690
 2.6900	 5.0500
 2.6910	 5.0190
 2.6920	 4.9520
 2.6940	 4.8360
 2.6950	 4.7940
 2.6970	 4.8440
 2.6980	 4.8470
 2.6990	 4.8500
 2.7010	 4.7560
 2.7020	 4.7830
 2.7040	 4.8360
 2.7050	 4.7620
 2.7060	 4.7450
 2.7080	 4.7310
 2.7090	 4.5070
 2.7110	 4.3610
 2.7120	 4.3900
 2.7130	 4.5670
 2.7150	 4.5280
 2.7160	 4.3960
 2.7180	 4.2740
 2.7190	 4.1210
 2.7210	 4.0100
 2.7220	 4.0430
 2.7230	 4.1160
 2.7250	 4.0660
 2.7260	 3.9720
 2.7280	 3.9620
 2.7290	 3.9100
 2.7310	 3.8640
 2.7320	 3.8690
 2.7340	 3.8140
 2.7350	 3.6770
 2.7360	 3.6900
 2.7380	 3.6940
 2.7390	 3.6000
 2.7410	 3.5120
 2.7420	 3.5710
 2.7440	 3.5250
 2.7450	 3.4690
 2.7470	 3.4990
 2.7480	 3.5440
 2.7490	 3.4880
 2.7510	 3.3800
 2.7520	 3.2880
 2.7540	 3.2520
 2.7550	 3.1740
 2.7570	 3.1640
 2.7580	 3.1440
 2.7600	 3.1250
 2.7610	 3.1420
 2.7630	 3.1000
 2.7640	 3.0060
 2.7660	 3.0620
 2.7670	 3.0760
 2.7690	 3.0550
 2.7700	 3.0260
 2.7720	 3.0210
 2.7730	 2.9390
 2.7740	 2.9570
 2.7760	 2.9530
 2.7770	 2.9880
 2.7790	 2.9250
 2.7800	 2.9100
 2.7820	 2.9250
 2.7830	 2.9210
 2.7850	 2.8600
 2.7860	 2.8090
 2.7880	 2.7290
 2.7890	 2.7310
 2.7910	 2.7900
 2.7920	 2.8020
 2.7940	 2.7260
 2.7950	 2.7420
 2.7970	 2.8310
 2.7980	 2.8850
 2.8000	 2.8380
 2.8010	 2.7610
 2.8030	 2.6980
 2.8040	 2.7560
 2.8060	 2.7600
 2.8080	 2.7480
 2.8090	 2.7630
 2.8110	 2.7830
 2.8120	 2.7410
 2.8140	 2.7510
 2.8150	 2.6970
 2.8170	 2.7040
 2.8180	 2.7200
 2.8200	 2.7280
 2.8210	 2.6550
 2.8230	 2.6510
 2.8240	 2.6500
 2.8260	 2.7150
 2.8270	 2.6950
 2.8290	 2.6840
 2.8310	 2.6620
 2.8320	 2.6400
 2.8340	 2.5950
 2.8350	 2.6230
 2.8370	 2.6490
 2.8380	 2.7400
 2.8400	 2.7780
 2.8410	 2.7180
 2.8430	 2.6070
 2.8440	 2.5730
 2.8460	 2.4930
 2.8480	 2.4840
 2.8490	 2.5000
 2.8510	 2.5860
 2.8520	 2.6680
 2.8540	 2.6310
 2.8550	 2.4780
 2.8570	 2.5190
 2.8590	 2.5290
 2.8600	 2.5340
 2.8620	 2.5630
 2.8630	 2.6580
 2.8650	 2.6190
 2.8660	 2.6720
 2.8680	 2.6310
 2.8700	 2.5870
 2.8710	 2.5210
 2.8730	 2.5600
 2.8740	 2.5110
 2.8760	 2.5330
 2.8780	 2.5900
 2.8790	 2.6800
 2.8810	 2.6610
 2.8820	 2.6530
 2.8840	 2.6010
 2.8860	 2.5220
 2.8870	 2.4940
 2.8890	 2.5470
 2.8900	 2.5420
 2.8920	 2.5680
 2.8940	 2.5690
 2.8950	 2.6380
 2.8970	 2.6010
 2.8990	 2.6030
 2.9000	 2.6000
 2.9020	 2.5640
 2.9030	 2.5840
 2.9050	 2.6440
 2.9070	 2.6240
 2.9080	 2.6510
 2.9100	 2.5850
 2.9120	 2.5550
 2.9130	 2.5890
 2.9150	 2.6370
 2.9160	 2.6110
 2.9180	 2.6130
 2.9200	 2.5750
 2.9210	 2.5490
 2.9230	 2.5670
 2.9250	 2.6360
 2.9260	 2.6050
 2.9280	 2.6310
 2.9300	 2.5950
 2.9310	 2.6070
 2.9330	 2.6670
 2.9350	 2.6730
 2.9360	 2.6370
 2.9380	 2.6870
 2.9400	 2.6850
 2.9410	 2.6560
 2.9430	 2.6690
 2.9450	 2.7350
 2.9460	 2.7310
 2.9480	 2.7270
 2.9500	 2.6760
 2.9510	 2.7130
 2.9530	 2.7060
 2.9550	 2.7130
 2.9560	 2.6800
 2.9580	 2.6450
 2.9600	 2.6470
 2.9610	 2.7040
 2.9630	 2.6620
 2.9650	 2.5930
 2.9670	 2.5620
 2.9680	 2.6760
 2.9700	 2.6580
 2.9720	 2.5980
 2.9730	 2.6140
 2.9750	 2.6470
 2.9770	 2.6300
 2.9780	 2.6320
 2.9800	 2.5660
 2.9820	 2.5620
 2.9840	 2.6120
 2.9850	 2.6610
 2.9870	 2.6240
 2.9890	 2.6280
 2.9900	 2.6180
 2.9920	 2.7070
 2.9940	 2.7830
 2.9960	 2.8100
 2.9970	 2.7340
 2.9990	 2.7530
 3.0010	 2.7470
 3.0030	 2.6880
 3.0040	 2.6600
 3.0060	 2.7790
 3.0080	 2.8030
 3.0100	 2.7180
 3.0110	 2.6520
 3.0130	 2.7270
 3.0150	 2.7720
 3.0170	 2.7770
 3.0180	 2.7590
 3.0200	 2.7490
 3.0220	 2.7030
 3.0240	 2.7630
 3.0250	 2.7870
 3.0270	 2.7630
 3.0290	 2.7400
 3.0310	 2.7780
 3.0320	 2.7770
 3.0340	 2.7510
 3.0360	 2.6770
 3.0380	 2.7280
 3.0400	 2.7950
 3.0410	 2.7860
 3.0430	 2.7610
 3.0450	 2.8290
 3.0470	 2.8270
 3.0480	 2.8310
 3.0500	 2.8280
 3.0520	 2.9020
 3.0540	 2.9050
 3.0560	 2.8160
 3.0570	 2.7430
 3.0590	 2.7760
 3.0610	 2.7400
 3.0630	 2.8180
 3.0650	 2.8720
 3.0670	 2.8480
 3.0680	 2.7960
 3.0700	 2.8210
 3.0720	 2.8590
 3.0740	 2.8820
 3.0760	 2.8590
 3.0770	 2.8600
 3.0790	 2.8280
 3.0810	 2.8090
 3.0830	 2.8340
 3.0850	 2.8500
 3.0870	 2.8200
 3.0880	 2.8170
 3.0900	 2.8020
 3.0920	 2.8430
 3.0940	 2.8990
 3.0960	 2.9050
 3.0980	 2.8470
 3.1000	 2.9510
 3.1010	 2.9300
 3.1030	 2.8870
 3.1050	 2.8650
 3.1070	 2.8440
 3.1090	 2.8610
 3.1110	 2.9190
 3.1130	 2.8950
 3.1140	 2.8800
 3.1160	 2.9230
 3.1180	 3.0060
 3.1200	 2.9880
 3.1220	 2.9290
 3.1240	 2.9130
 3.1260	 2.9290
 3.1280	 2.9330
 3.1290	 2.9740
 3.1310	 2.9320
 3.1330	 2.9070
 3.1350	 2.9480
 3.1370	 2.9660
 3.1390	 2.9090
 3.1410	 2.9220
 3.1430	 2.9440
 3.1450	 2.9960
 3.1470	 2.9570
 3.1480	 2.9870
 3.1500	 2.9920
 3.1520	 3.0580
 3.1540	 3.0800
 3.1560	 3.0640
 3.1580	 3.0430
 3.1600	 3.0870
 3.1620	 3.0980
 3.1640	 3.1210
 3.1660	 3.1060
 3.1680	 3.1520
 3.1700	 3.0760
 3.1720	 3.0210
 3.1730	 3.0460
 3.1750	 3.0890
 3.1770	 3.1040
 3.1790	 3.1300
 3.1810	 3.0890
 3.1830	 3.0650
 3.1850	 3.0480
 3.1870	 3.0830
 3.1890	 3.0830
 3.1910	 3.0960
 3.1930	 3.0890
 3.1950	 3.1530
 3.1970	 3.1670
 3.1990	 3.1880
 3.2010	 3.1270
 3.2030	 3.0860
 3.2050	 3.0790
 3.2070	 3.1150
 3.2090	 3.1120
 3.2110	 3.1200
 3.2130	 3.1550
 3.2150	 3.2170
 3.2170	 3.1840
 3.2190	 3.1830
 3.2210	 3.2240
 3.2230	 3.2030
 3.2250	 3.1360
 3.2270	 3.2170
 3.2290	 3.2690
 3.2310	 3.2930
 3.2330	 3.2580
 3.2350	 3.3080
 3.2370	 3.2600
 3.2390	 3.2130
 3.2410	 3.2350
 3.2430	 3.2550
 3.2450	 3.2310
 3.2470	 3.3060
 3.2490	 3.2820
 3.2510	 3.2790
 3.2530	 3.2880
 3.2550	 3.3030
 3.2570	 3.3660
 3.2590	 3.3880
 3.2610	 3.3380
 3.2630	 3.3620
 3.2650	 3.3950
 3.2670	 3.4000
 3.2700	 3.3360
 3.2720	 3.2960
 3.2740	 3.3050
 3.2760	 3.3400
 3.2780	 3.3550
 3.2800	 3.4000
 3.2820	 3.4130
 3.2840	 3.4150
 3.2860	 3.3800
 3.2880	 3.3670
 3.2900	 3.3730
 3.2920	 3.4270
 3.2940	 3.4510
 3.2970	 3.4400
 3.2990	 3.4080
 3.3010	 3.4250
 3.3030	 3.4280
 3.3050	 3.4270
 3.3070	 3.4200
 3.3090	 3.4370
 3.3110	 3.4070
 3.3130	 3.4180
 3.3160	 3.4310
 3.3180	 3.4240
 3.3200	 3.3620
 3.3220	 3.3500
 3.3240	 3.3600
 3.3260	 3.3820
 3.3280	 3.4000
 3.3300	 3.3940
 3.3330	 3.3750
 3.3350	 3.4340
 3.3370	 3.4130
 3.3390	 3.3810
 3.3410	 3.3450
 3.3430	 3.3130
 3.3450	 3.2960
 3.3480	 3.2710
 3.3500	 3.2330
 3.3520	 3.2520
 3.3540	 3.2310
 3.3560	 3.2210
 3.3580	 3.1290
 3.3610	 3.1070
 3.3630	 3.0780
 3.3650	 3.1340
 3.3670	 3.0950
 3.3690	 3.0170
 3.3720	 2.9710
 3.3740	 2.9910
 3.3760	 3.0240
 3.3780	 2.9930
 3.3800	 2.9590
 3.3830	 2.9710
 3.3850	 2.9510
 3.3870	 2.9260
 3.3890	 2.8620
 3.3910	 2.8160
 3.3940	 2.7620
 3.3960	 2.7270
 3.3980	 2.7060
 3.4000	 2.6630
 3.4030	 2.6530
 3.4050	 2.7210
 3.4070	 2.7470
 3.4090	 2.7720
 3.4110	 2.8350
 3.4140	 3.0010
 3.4160	 3.2540
 3.4180	 3.6410
 3.4200	 4.0890
 3.4230	 4.7100
 3.4250	 5.4800
 3.4270	 6.3200
 3.4300	 6.9320
 3.4320	 6.8950
 3.4340	 6.3470
 3.4360	 5.7480
 3.4390	 5.2480
 3.4410	 4.8760
 3.4430	 4.6230
 3.4450	 4.5710
 3.4480	 4.4790
 3.4500	 4.4190
 3.4520	 4.3340
 3.4550	 4.2410
 3.4570	 4.2190
 3.4590	 4.2280
 3.4620	 4.2080
 3.4640	 4.2280
 3.4660	 4.1240
 3.4690	 4.0420
 3.4710	 4.0350
 3.4730	 4.0070
 3.4760	 3.9270
 3.4780	 3.8820
 3.4800	 3.8150
 3.4830	 3.7340
 3.4850	 3.6670
 3.4870	 3.6510
 3.4900	 3.5610
 3.4920	 3.5080
 3.4940	 3.4610
 3.4970	 3.3990
 3.4990	 3.4020
 3.5010	 3.5060
 3.5040	 3.7060
 3.5060	 4.3140
 3.5080	 5.4450
 3.5110	 6.6220
 3.5130	 6.9870
 3.5160	 6.5740
 3.5180	 6.0560
 3.5200	 5.6680
 3.5230	 5.4320
 3.5250	 5.3100
 3.5280	 5.1620
 3.5300	 5.0770
 3.5320	 5.0040
 3.5350	 4.9470
 3.5370	 4.9040
 3.5400	 4.8810
 3.5420	 4.8110
 3.5440	 4.7550
 3.5470	 4.7320
 3.5490	 4.7600
 3.5520	 4.7370
 3.5540	 4.7600
 3.5570	 4.7900
 3.5590	 4.7860
 3.5610	 4.7760
 3.5640	 4.7800
 3.5660	 4.7910
 3.5690	 4.7720
 3.5710	 4.7490
 3.5740	 4.7620
 3.5760	 4.7210
 3.5790	 4.7430
 3.5810	 4.7700
 3.5840	 4.7600
 3.5860	 4.7380
 3.5890	 4.7020
 3.5910	 4.6880
 3.5940	 4.7280
 3.5960	 4.7140
 3.5990	 4.6580
 3.6010	 4.5940
 3.6040	 4.6460
 3.6060	 4.6870
 3.6090	 4.7120
 3.6110	 4.6990
 3.6140	 4.7140
 3.6160	 4.6780
 3.6190	 4.6720
 3.6210	 4.7110
 3.6240	 4.7420
 3.6260	 4.7490
 3.6290	 4.7050
 3.6310	 4.6780
 3.6340	 4.7180
 3.6360	 4.7050
 3.6390	 4.7120
 3.6410	 4.7060
 3.6440	 4.7280
 3.6470	 4.6990
 3.6490	 4.6660
 3.6520	 4.6470
 3.6540	 4.6650
 3.6570	 4.6830
 3.6590	 4.6700
 3.6620	 4.6830
 3.6650	 4.6840
 3.6670	 4.6330
 3.6700	 4.6590
 3.6720	 4.6780
 3.6750	 4.6580
 3.6780	 4.7080
 3.6800	 4.7980
 3.6830	 4.7560
 3.6850	 4.7160
 3.6880	 4.7020
 3.6910	 4.6810
 3.6930	 4.7050
 3.6960	 4.7360
 3.6990	 4.7410
 3.7010	 4.6990
 3.7040	 4.7110
 3.7070	 4.7510
 3.7090	 4.7680
 3.7120	 4.7500
 3.7150	 4.7330
 3.7170	 4.7430
 3.7200	 4.7660
 3.7230	 4.7590
 3.7250	 4.7500
 3.7280	 4.8060
 3.7310	 4.8080
 3.7330	 4.7860
 3.7360	 4.7980
 3.7390	 4.8460
 3.7410	 4.8330
 3.7440	 4.8150
 3.7470	 4.8520
 3.7490	 4.8440
 3.7520	 4.8090
 3.7550	 4.8220
 3.7580	 4.8220
 3.7600	 4.8520
 3.7630	 4.8750
 3.7660	 4.8990
 3.7690	 4.8980
 3.7710	 4.9050
 3.7740	 4.9330
 3.7770	 4.9350
 3.7790	 4.8740
 3.7820	 4.8650
 3.7850	 4.9010
 3.7880	 4.9200
 3.7910	 4.9030
 3.7930	 4.9220
 3.7960	 4.9180
 3.7990	 4.9240
 3.8020	 4.9360
 3.8040	 4.9710
 3.8070	 4.9610
 3.8100	 4.9440
 3.8130	 4.9490
 3.8160	 4.9410
 3.8180	 4.9290
 3.8210	 4.9710
 3.8240	 4.9340
 3.8270	 4.9320
 3.8300	 4.9780
 3.8330	 4.9910
 3.8350	 4.9730
 3.8380	 4.9460
 3.8410	 4.9720
 3.8440	 5.0710
 3.8470	 5.0740
 3.8500	 5.0390
 3.8520	 5.0210
 3.8550	 5.0570
 3.8580	 5.0320
 3.8610	 5.0330
 3.8640	 5.0580
 3.8670	 5.0680
 3.8700	 5.0700
 3.8730	 5.0590
 3.8760	 5.0460
 3.8780	 5.0630
 3.8810	 5.0650
 3.8840	 5.0450
 3.8870	 5.0570
 3.8900	 5.0730
 3.8930	 5.1070
 3.8960	 5.1350
 3.8990	 5.0770
 3.9020	 5.0810
 3.9050	 5.1200
 3.9080	 5.0910
 3.9110	 5.0640
 3.9140	 5.0540
 3.9170	 5.0550
 3.9190	 5.0850
 3.9220	 5.0460
 3.9250	 5.0490
 3.9280	 5.0700
 3.9310	 5.0960
 3.9340	 5.1130
 3.9370	 5.1420
 3.9400	 5.1030
 3.9430	 5.0920
 3.9460	 5.1180
 3.9490	 5.1180
 3.9520	 5.0820
 3.9550	 5.0530
 3.9580	 5.0420
 3.9610	 5.0410
 3.9640	 5.0300
 3.9670	 5.0700
 3.9700	 5.1010
 3.9740	 5.0660
 3.9770	 5.0770
 3.9800	 5.1280
 3.9830	 5.1450
 3.9860	 5.1220
 3.9890	 5.0770
 3.9920	 5.1200
 3.9950	 5.1530
 3.9980	 5.0890
 4.0010	 5.0840
 4.0040	 5.1090
 4.0070	 5.1040
 4.0100	 5.1270
 4.0140	 5.1430
 4.0170	 5.1520
 4.0200	 5.1400
 4.0230	 5.1750
 4.0260	 5.1380
 4.0290	 5.0920
 4.0320	 5.0920
 4.0350	 5.0930
 4.0390	 5.1000
 4.0420	 5.1170
 4.0450	 5.1540
 4.0480	 5.1660
 4.0510	 5.1530
 4.0540	 5.1670
 4.0570	 5.1900
 4.0610	 5.1960
 4.0640	 5.2250
 4.0670	 5.2650
 4.0700	 5.2100
 4.0730	 5.1710
 4.0770	 5.1650
 4.0800	 5.1740
 4.0830	 5.1920
 4.0860	 5.2270
 4.0890	 5.2530
 4.0930	 5.2480
 4.0960	 5.2520
 4.0990	 5.2610
 4.1020	 5.2300
 4.1060	 5.2090
 4.1090	 5.2360
 4.1120	 5.2290
 4.1150	 5.1760
 4.1190	 5.2250
 4.1220	 5.2830
 4.1250	 5.2770
 4.1290	 5.2460
 4.1320	 5.2400
 4.1350	 5.2450
 4.1380	 5.2480
 4.1420	 5.2740
 4.1450	 5.2790
 4.1480	 5.2330
 4.1520	 5.2280
 4.1550	 5.2650
 4.1580	 5.2630
 4.1620	 5.2520
 4.1650	 5.2450
 4.1680	 5.2580
 4.1720	 5.2700
 4.1750	 5.2680
 4.1780	 5.2380
 4.1820	 5.2050
 4.1850	 5.2210
 4.1890	 5.2470
 4.1920	 5.2620
 4.1950	 5.2380
 4.1990	 5.2390
 4.2020	 5.2520
 4.2060	 5.2490
 4.2090	 5.2460
 4.2120	 5.2200
 4.2160	 5.2470
 4.2190	 5.2860
 4.2230	 5.2330
 4.2260	 5.1060
 4.2300	 5.1640
 4.2330	 5.2730
 4.2360	 5.2990
 4.2400	 5.3430
 4.2430	 5.3220
 4.2470	 5.2150
 4.2500	 5.2550
 4.2540	 5.2890
 4.2570	 5.2350
 4.2610	 5.1550
 4.2640	 5.1230
 4.2680	 5.1850
 4.2710	 5.2270
 4.2750	 5.2560
 4.2780	 5.3000
 4.2820	 5.3040
 4.2850	 5.2560
 4.2890	 5.2420
 4.2930	 5.2740
 4.2960	 5.2790
 4.3000	 5.1540
 4.3030	 5.1310
 4.3070	 5.2460
 4.3100	 5.2680
 4.3140	 5.2460
 4.3180	 5.2550
 4.3210	 5.2750
 4.3250	 5.2750
 4.3280	 5.2710
 4.3320	 5.2600
 4.3360	 5.2480
 4.3390	 5.2360
 4.3430	 5.1850
 4.3470	 5.1870
 4.3500	 5.1940
 4.3540	 5.1860
 4.3580	 5.1800
 4.3610	 5.1960
 4.3650	 5.1770
 4.3690	 5.1560
 4.3720	 5.1620
 4.3760	 5.1420
 4.3800	 5.1290
 4.3830	 5.1320
 4.3870	 5.1070
 4.3910	 5.1280
 4.3940	 5.1540
 4.3980	 5.1660
 4.4020	 5.1250
 4.4060	 5.0910
 4.4090	 5.1260
 4.4130	 5.0820
 4.4170	 5.0410
 4.4210	 5.0580
 4.4240	 5.0870
 4.4280	 5.0880
 4.4320	 5.0930
 4.4360	 5.0790
 4.4400	 5.0470
 4.4430	 5.0650
 4.4470	 5.1180
 4.4510	 5.1550
 4.4550	 5.1250
 4.4590	 5.0640
 4.4630	 5.0660
 4.4660	 5.0840
 4.4700	 5.0730
 4.4740	 5.0330
 4.4780	 5.0260
 4.4820	 5.0220
 4.4860	 5.0190
 4.4900	 5.0400
 4.4930	 5.0860
 4.4970	 5.0680
 4.5010	 5.0300
 4.5050	 4.9980
 4.5090	 4.9580
 4.5130	 4.9560
 4.5170	 5.0340
 4.5210	 5.0670
 4.5250	 5.0590
 4.5290	 5.0350
 4.5330	 5.0240
 4.5370	 5.0190
 4.5410	 5.0190
 4.5450	 4.9780
 4.5490	 4.9380
 4.5530	 4.9060
 4.5570	 4.9470
 4.5610	 4.9770
 4.5650	 4.9850
 4.5690	 4.9700
 4.5730	 4.9450
 4.5770	 4.9370
 4.5810	 4.9780
 4.5850	 4.9540
 4.5890	 4.9020
 4.5930	 4.8880
 4.5970	 4.8930
 4.6010	 4.9050
 4.6050	 4.9180
 4.6090	 4.9050
 4.6130	 4.8840
 4.6170	 4.8580
 4.6220	 4.8540
 4.6260	 4.8330
 4.6300	 4.8260
 4.6340	 4.8530
 4.6380	 4.8640
 4.6420	 4.8540
 4.6460	 4.8640
 4.6510	 4.8480
 4.6550	 4.8640
 4.6590	 4.8600
 4.6630	 4.8690
 4.6670	 4.8750
 4.6720	 4.8350
 4.6760	 4.8270
 4.6800	 4.8420
 4.6840	 4.7950
 4.6880	 4.8030
 4.6930	 4.8480
 4.6970	 4.8550
 4.7010	 4.8440
 4.7050	 4.8350
 4.7100	 4.8400
 4.7140	 4.8520
 4.7180	 4.8380
 4.7230	 4.8380
 4.7270	 4.8290
 4.7310	 4.8600
 4.7360	 4.8420
 4.7400	 4.8110
 4.7440	 4.8060
 4.7490	 4.8280
 4.7530	 4.8290
 4.7570	 4.8230
 4.7620	 4.8010
 4.7660	 4.8130
 4.7700	 4.8370
 4.7750	 4.8240
 4.7790	 4.8220
 4.7840	 4.8820
 4.7880	 4.8500
 4.7920	 4.8100
 4.7970	 4.8420
 4.8010	 4.8500
 4.8060	 4.8520
 4.8100	 4.8650
 4.8150	 4.8480
 4.8190	 4.8650
 4.8240	 4.8250
 4.8280	 4.8040
 4.8330	 4.8220
 4.8370	 4.8430
 4.8420	 4.8770
 4.8460	 4.8850
 4.8510	 4.8080
 4.8550	 4.7820
 4.8600	 4.8310
 4.8640	 4.8880
 4.8690	 4.9030
 4.8740	 4.8940
 4.8780	 4.8610
 4.8830	 4.8810
 4.8870	 4.8760
 4.8920	 4.8510
 4.8970	 4.8520
 4.9010	 4.8550
 4.9060	 4.8590
 4.9100	 4.8670
 4.9150	 4.8650
 4.9200	 4.8840
 4.9240	 4.8990
 4.9290	 4.9240
 4.9340	 4.9090
 4.9390	 4.9390
 4.9430	 4.9230
 4.9480	 4.9290
 4.9530	 4.9290
 4.9570	 4.9260
 4.9620	 4.9260
 4.9670	 4.9380
 4.9720	 4.9370
 4.9760	 4.9690
 4.9810	 4.9300
 4.9860	 4.8990
 4.9910	 4.9480
 4.9960	 4.9850
 5.0000	 4.9670
 5.0050	 4.9690
 5.0100	 4.9670
 5.0150	 4.9580
 5.0200	 4.9360
 5.0250	 4.9300
 5.0300	 4.9120
 5.0340	 4.9760
 5.0390	 5.0240
 5.0440	 5.0220
 5.0490	 5.0220
 5.0540	 4.9960
 5.0590	 4.9450
 5.0640	 4.9660
 5.0690	 4.9670
 5.0740	 4.9540
 5.0790	 4.9410
 5.0840	 4.9600
 5.0890	 4.9510
 5.0940	 4.9620
 5.0990	 4.9750
 5.1040	 5.0140
 5.1090	 4.9950
 5.1140	 4.9950
 5.1190	 4.9900
 5.1240	 4.9660
 5.1290	 4.9280
 5.1340	 4.9470
 5.1390	 4.9650
 5.1440	 4.9890
 5.1490	 4.9640
 5.1550	 4.9640
 5.1600	 4.9780
 5.1650	 5.0120
 5.1700	 4.9920
 5.1750	 4.9800
 5.1800	 4.9890
 5.1850	 5.0510
 5.1910	 4.9910
 5.1960	 4.9460
 5.2010	 4.9630
 5.2060	 5.0200
 5.2110	 4.9870
 5.2170	 4.9220
 5.2220	 4.9430
 5.2270	 4.9930
 5.2330	 4.9790
 5.2380	 4.9690
 5.2430	 4.9390
 5.2480	 4.9490
 5.2540	 4.9680
 5.2590	 4.9940
 5.2640	 4.9700
 5.2700	 4.9510
 5.2750	 4.9670
 5.2800	 4.9850
 5.2860	 4.9470
 5.2910	 4.9160
 5.2970	 4.9270
 5.3020	 4.9240
 5.3080	 4.9030
 5.3130	 4.8950
 5.3180	 4.8880
 5.3240	 4.8840
 5.3290	 4.8430
 5.3350	 4.8790
 5.3400	 4.9050
 5.3460	 4.9070
 5.3510	 4.8810
 5.3570	 4.8740
 5.3620	 4.8320
 5.3680	 4.8980
 5.3740	 4.9010
 5.3790	 4.8870
 5.3850	 4.8300
 5.3900	 4.8030
 5.3960	 4.8050
 5.4010	 4.8280
 5.4070	 4.8010
 5.4130	 4.8050
 5.4180	 4.7270
 5.4240	 4.7160
 5.4300	 4.7300
 5.4350	 4.7080
 5.4410	 4.6940
 5.4470	 4.7490
 5.4530	 4.7210
 5.4580	 4.6950
 5.4640	 4.6630
 5.4700	 4.6680
 5.4760	 4.6310
 5.4810	 4.6070
 5.4870	 4.6100
