Name: Baccharis pilularis 3
Type: vegetation
Class: Shrub
Genus: Baccharis
Species: pilularis
Sample No.: VH198
Owner: UCSB
Wavelength Range: VSWIR
Origin: 34.4185; -119.8457; WGS84
Collection Date: 10/13/2013
Description: Samples were collected as part of the HyspIRI Airborne Campaign. 48 individual plants were sampled in three times in 2013 - spring  summer  and fall. The name of the sample includes a 1  2  or 3 which references a different individual of the species. Samples were taken to JPL and processed within 48 hours of collection. The same leaves were processed in the Nicolet and then measured using the ASD.
Measurement: Bidirectional reflectance
First Column: X
Second Column: Y
X Units: Wavelength (micrometers)
Y Units: Reflectance (percentage)
First X Value: 0.35
Last X Value: 2.5
Number of X Values: 2151
Additional Information: vegetation.shrub.baccharis.pilularis.vswir.vh198.ucsb.asd.ancillary.txt

 0.3500	 6.1730
 0.3510	 6.4590
 0.3520	 6.4400
 0.3530	 6.4020
 0.3540	 6.4810
 0.3550	 6.0270
 0.3560	 6.0900
 0.3570	 6.5010
 0.3580	 6.5230
 0.3590	 6.4310
 0.3600	 6.3180
 0.3610	 6.2680
 0.3620	 6.3810
 0.3630	 6.3950
 0.3640	 6.3480
 0.3650	 6.3460
 0.3660	 6.4280
 0.3670	 6.4080
 0.3680	 6.3340
 0.3690	 6.4010
 0.3700	 6.5020
 0.3710	 6.5530
 0.3720	 6.5260
 0.3730	 6.4800
 0.3740	 6.3710
 0.3750	 6.3160
 0.3760	 6.4080
 0.3770	 6.3960
 0.3780	 6.3530
 0.3790	 6.3540
 0.3800	 6.4440
 0.3810	 6.4220
 0.3820	 6.3810
 0.3830	 6.3830
 0.3840	 6.2770
 0.3850	 6.3800
 0.3860	 6.5750
 0.3870	 6.6240
 0.3880	 6.6420
 0.3890	 6.6590
 0.3900	 6.6730
 0.3910	 6.6550
 0.3920	 6.6390
 0.3930	 6.7190
 0.3940	 6.8860
 0.3950	 6.8360
 0.3960	 6.8720
 0.3970	 6.9760
 0.3980	 6.9980
 0.3990	 6.9860
 0.4000	 7.0180
 0.4010	 7.1090
 0.4020	 7.1910
 0.4030	 7.1830
 0.4040	 7.1830
 0.4050	 7.2810
 0.4060	 7.3740
 0.4070	 7.4060
 0.4080	 7.4130
 0.4090	 7.4790
 0.4100	 7.5290
 0.4110	 7.5830
 0.4120	 7.6570
 0.4130	 7.7350
 0.4140	 7.7830
 0.4150	 7.8360
 0.4160	 7.9310
 0.4170	 7.9970
 0.4180	 8.0480
 0.4190	 8.0990
 0.4200	 8.1600
 0.4210	 8.2570
 0.4220	 8.3370
 0.4230	 8.3770
 0.4240	 8.4730
 0.4250	 8.5240
 0.4260	 8.5410
 0.4270	 8.5830
 0.4280	 8.6430
 0.4290	 8.7110
 0.4300	 8.7710
 0.4310	 8.8060
 0.4320	 8.8740
 0.4330	 8.9320
 0.4340	 8.9410
 0.4350	 8.9980
 0.4360	 9.0420
 0.4370	 9.0620
 0.4380	 9.0910
 0.4390	 9.1510
 0.4400	 9.2080
 0.4410	 9.2390
 0.4420	 9.2630
 0.4430	 9.3190
 0.4440	 9.3850
 0.4450	 9.4220
 0.4460	 9.4570
 0.4470	 9.5020
 0.4480	 9.5510
 0.4490	 9.5780
 0.4500	 9.6130
 0.4510	 9.6490
 0.4520	 9.6810
 0.4530	 9.7150
 0.4540	 9.7630
 0.4550	 9.8080
 0.4560	 9.8160
 0.4570	 9.8480
 0.4580	 9.8800
 0.4590	 9.8990
 0.4600	 9.9240
 0.4610	 9.9400
 0.4620	 9.9650
 0.4630	10.0170
 0.4640	10.0310
 0.4650	10.0250
 0.4660	10.0300
 0.4670	10.0800
 0.4680	10.1010
 0.4690	10.1060
 0.4700	10.1150
 0.4710	10.1330
 0.4720	10.1440
 0.4730	10.1550
 0.4740	10.1750
 0.4750	10.1860
 0.4760	10.2080
 0.4770	10.2350
 0.4780	10.2100
 0.4790	10.2110
 0.4800	10.2450
 0.4810	10.2880
 0.4820	10.3090
 0.4830	10.3140
 0.4840	10.3180
 0.4850	10.3410
 0.4860	10.3870
 0.4870	10.4260
 0.4880	10.4430
 0.4890	10.4800
 0.4900	10.5280
 0.4910	10.5730
 0.4920	10.6070
 0.4930	10.6370
 0.4940	10.6970
 0.4950	10.7840
 0.4960	10.8420
 0.4970	10.9190
 0.4980	10.9990
 0.4990	11.0630
 0.5000	11.1340
 0.5010	11.2240
 0.5020	11.3330
 0.5030	11.4530
 0.5040	11.5820
 0.5050	11.7140
 0.5060	11.8490
 0.5070	11.9960
 0.5080	12.1520
 0.5090	12.3190
 0.5100	12.5080
 0.5110	12.7040
 0.5120	12.9060
 0.5130	13.1180
 0.5140	13.3540
 0.5150	13.5900
 0.5160	13.8310
 0.5170	14.0860
 0.5180	14.3610
 0.5190	14.6360
 0.5200	14.9090
 0.5210	15.1910
 0.5220	15.4720
 0.5230	15.7410
 0.5240	15.9940
 0.5250	16.2460
 0.5260	16.4930
 0.5270	16.7300
 0.5280	16.9550
 0.5290	17.1590
 0.5300	17.3580
 0.5310	17.5500
 0.5320	17.7110
 0.5330	17.8580
 0.5340	17.9990
 0.5350	18.1350
 0.5360	18.2580
 0.5370	18.3690
 0.5380	18.4680
 0.5390	18.5530
 0.5400	18.6350
 0.5410	18.7110
 0.5420	18.7810
 0.5430	18.8430
 0.5440	18.9140
 0.5450	18.9930
 0.5460	19.0770
 0.5470	19.1510
 0.5480	19.2200
 0.5490	19.2850
 0.5500	19.3390
 0.5510	19.3790
 0.5520	19.4120
 0.5530	19.4420
 0.5540	19.4570
 0.5550	19.4610
 0.5560	19.4520
 0.5570	19.4220
 0.5580	19.3790
 0.5590	19.3300
 0.5600	19.2750
 0.5610	19.1960
 0.5620	19.1050
 0.5630	19.0030
 0.5640	18.8860
 0.5650	18.7700
 0.5660	18.6500
 0.5670	18.5190
 0.5680	18.3710
 0.5690	18.2270
 0.5700	18.0820
 0.5710	17.9300
 0.5720	17.7870
 0.5730	17.6590
 0.5740	17.5380
 0.5750	17.4110
 0.5760	17.3050
 0.5770	17.2110
 0.5780	17.1180
 0.5790	17.0270
 0.5800	16.9340
 0.5810	16.8400
 0.5820	16.7510
 0.5830	16.6690
 0.5840	16.5980
 0.5850	16.5430
 0.5860	16.5050
 0.5870	16.4480
 0.5880	16.3780
 0.5890	16.3110
 0.5900	16.2530
 0.5910	16.2060
 0.5920	16.1670
 0.5930	16.1300
 0.5940	16.1010
 0.5950	16.0820
 0.5960	16.0670
 0.5970	16.0460
 0.5980	16.0240
 0.5990	16.0030
 0.6000	15.9810
 0.6010	15.9410
 0.6020	15.8900
 0.6030	15.8330
 0.6040	15.7740
 0.6050	15.7100
 0.6060	15.6350
 0.6070	15.5470
 0.6080	15.4520
 0.6090	15.3490
 0.6100	15.2400
 0.6110	15.1300
 0.6120	15.0370
 0.6130	14.9490
 0.6140	14.8610
 0.6150	14.7790
 0.6160	14.6970
 0.6170	14.6190
 0.6180	14.5530
 0.6190	14.4890
 0.6200	14.4290
 0.6210	14.3760
 0.6220	14.3330
 0.6230	14.2900
 0.6240	14.2600
 0.6250	14.2450
 0.6260	14.2290
 0.6270	14.2160
 0.6280	14.2070
 0.6290	14.1990
 0.6300	14.1850
 0.6310	14.1790
 0.6320	14.1820
 0.6330	14.1750
 0.6340	14.1550
 0.6350	14.1230
 0.6360	14.0850
 0.6370	14.0460
 0.6380	13.9830
 0.6390	13.9000
 0.6400	13.8150
 0.6410	13.7280
 0.6420	13.6280
 0.6430	13.5140
 0.6440	13.4150
 0.6450	13.3040
 0.6460	13.1880
 0.6470	13.0800
 0.6480	12.9730
 0.6490	12.8740
 0.6500	12.7840
 0.6510	12.7040
 0.6520	12.6250
 0.6530	12.5470
 0.6540	12.4660
 0.6550	12.3790
 0.6560	12.2900
 0.6570	12.1960
 0.6580	12.0950
 0.6590	11.9940
 0.6600	11.8900
 0.6610	11.7830
 0.6620	11.6780
 0.6630	11.5790
 0.6640	11.4870
 0.6650	11.4060
 0.6660	11.3360
 0.6670	11.2830
 0.6680	11.2390
 0.6690	11.1940
 0.6700	11.1690
 0.6710	11.1540
 0.6720	11.1430
 0.6730	11.1460
 0.6740	11.1520
 0.6750	11.1680
 0.6760	11.2000
 0.6770	11.2310
 0.6780	11.2680
 0.6790	11.3160
 0.6800	11.3770
 0.6810	11.4550
 0.6820	11.5460
 0.6830	11.6530
 0.6840	11.7800
 0.6850	11.9420
 0.6860	12.1350
 0.6870	12.3570
 0.6880	12.6360
 0.6890	12.9630
 0.6900	13.3440
 0.6910	13.7980
 0.6920	14.3060
 0.6930	14.8800
 0.6940	15.5280
 0.6950	16.2350
 0.6960	17.0070
 0.6970	17.8410
 0.6980	18.7310
 0.6990	19.6570
 0.7000	20.6140
 0.7010	21.6000
 0.7020	22.6080
 0.7030	23.6120
 0.7040	24.6100
 0.7050	25.6010
 0.7060	26.5860
 0.7070	27.5440
 0.7080	28.4800
 0.7090	29.4070
 0.7100	30.2890
 0.7110	31.1500
 0.7120	31.9930
 0.7130	32.7940
 0.7140	33.5690
 0.7150	34.3180
 0.7160	35.0410
 0.7170	35.7310
 0.7180	36.3920
 0.7190	37.0210
 0.7200	37.6170
 0.7210	38.2020
 0.7220	38.7530
 0.7230	39.2680
 0.7240	39.7660
 0.7250	40.2400
 0.7260	40.6860
 0.7270	41.1040
 0.7280	41.4980
 0.7290	41.8760
 0.7300	42.2300
 0.7310	42.5520
 0.7320	42.8600
 0.7330	43.1540
 0.7340	43.4310
 0.7350	43.6860
 0.7360	43.9260
 0.7370	44.1500
 0.7380	44.3600
 0.7390	44.5680
 0.7400	44.7520
 0.7410	44.9170
 0.7420	45.0770
 0.7430	45.2390
 0.7440	45.3840
 0.7450	45.5110
 0.7460	45.6330
 0.7470	45.7350
 0.7480	45.8370
 0.7490	45.9440
 0.7500	46.0150
 0.7510	46.1020
 0.7520	46.1940
 0.7530	46.2620
 0.7540	46.3270
 0.7550	46.3850
 0.7560	46.4370
 0.7570	46.4910
 0.7580	46.5400
 0.7590	46.5900
 0.7600	46.6380
 0.7610	46.6700
 0.7620	46.7060
 0.7630	46.7480
 0.7640	46.7860
 0.7650	46.8130
 0.7660	46.8430
 0.7670	46.8750
 0.7680	46.8970
 0.7690	46.9100
 0.7700	46.9290
 0.7710	46.9630
 0.7720	47.0110
 0.7730	47.0350
 0.7740	47.0480
 0.7750	47.0700
 0.7760	47.1040
 0.7770	47.1360
 0.7780	47.1610
 0.7790	47.1830
 0.7800	47.2000
 0.7810	47.2240
 0.7820	47.2560
 0.7830	47.2850
 0.7840	47.3030
 0.7850	47.3390
 0.7860	47.3950
 0.7870	47.4030
 0.7880	47.4240
 0.7890	47.4570
 0.7900	47.4880
 0.7910	47.5190
 0.7920	47.5470
 0.7930	47.5770
 0.7940	47.6130
 0.7950	47.6300
 0.7960	47.6530
 0.7970	47.6900
 0.7980	47.7190
 0.7990	47.7490
 0.8000	47.7800
 0.8010	47.8100
 0.8020	47.8350
 0.8030	47.8650
 0.8040	47.8920
 0.8050	47.9090
 0.8060	47.9650
 0.8070	48.0090
 0.8080	48.0260
 0.8090	48.0370
 0.8100	48.0630
 0.8110	48.1040
 0.8120	48.1450
 0.8130	48.1730
 0.8140	48.1980
 0.8150	48.2250
 0.8160	48.2580
 0.8170	48.3020
 0.8180	48.3100
 0.8190	48.3100
 0.8200	48.3560
 0.8210	48.3990
 0.8220	48.4290
 0.8230	48.4500
 0.8240	48.4760
 0.8250	48.4960
 0.8260	48.5140
 0.8270	48.5370
 0.8280	48.5690
 0.8290	48.5870
 0.8300	48.5910
 0.8310	48.6000
 0.8320	48.6550
 0.8330	48.6950
 0.8340	48.7150
 0.8350	48.7360
 0.8360	48.7570
 0.8370	48.7860
 0.8380	48.8140
 0.8390	48.8180
 0.8400	48.8410
 0.8410	48.8690
 0.8420	48.8940
 0.8430	48.9370
 0.8440	48.9550
 0.8450	48.9670
 0.8460	48.9940
 0.8470	49.0310
 0.8480	49.0420
 0.8490	49.0460
 0.8500	49.0700
 0.8510	49.0990
 0.8520	49.1320
 0.8530	49.1660
 0.8540	49.1960
 0.8550	49.2300
 0.8560	49.2430
 0.8570	49.2480
 0.8580	49.2950
 0.8590	49.3220
 0.8600	49.3310
 0.8610	49.3370
 0.8620	49.3650
 0.8630	49.4060
 0.8640	49.4390
 0.8650	49.4580
 0.8660	49.5000
 0.8670	49.5170
 0.8680	49.5180
 0.8690	49.5310
 0.8700	49.5820
 0.8710	49.6190
 0.8720	49.6410
 0.8730	49.6720
 0.8740	49.6990
 0.8750	49.7320
 0.8760	49.7730
 0.8770	49.8110
 0.8780	49.8150
 0.8790	49.8370
 0.8800	49.8920
 0.8810	49.9230
 0.8820	49.9490
 0.8830	49.9720
 0.8840	49.9990
 0.8850	50.0630
 0.8860	50.0850
 0.8870	50.0960
 0.8880	50.1390
 0.8890	50.1840
 0.8900	50.2170
 0.8910	50.2430
 0.8920	50.2730
 0.8930	50.3100
 0.8940	50.3440
 0.8950	50.3810
 0.8960	50.4320
 0.8970	50.4710
 0.8980	50.5010
 0.8990	50.5290
 0.9000	50.5600
 0.9010	50.5880
 0.9020	50.6310
 0.9030	50.6880
 0.9040	50.7330
 0.9050	50.7400
 0.9060	50.7390
 0.9070	50.7630
 0.9080	50.8380
 0.9090	50.8900
 0.9100	50.9190
 0.9110	50.9390
 0.9120	50.9500
 0.9130	50.9860
 0.9140	51.0320
 0.9150	51.0640
 0.9160	51.0810
 0.9170	51.1180
 0.9180	51.1560
 0.9190	51.1710
 0.9200	51.1990
 0.9210	51.2340
 0.9220	51.2640
 0.9230	51.2830
 0.9240	51.2950
 0.9250	51.3270
 0.9260	51.3690
 0.9270	51.3900
 0.9280	51.4150
 0.9290	51.4340
 0.9300	51.4420
 0.9310	51.4440
 0.9320	51.4610
 0.9330	51.4570
 0.9340	51.4410
 0.9350	51.4730
 0.9360	51.5020
 0.9370	51.5220
 0.9380	51.5280
 0.9390	51.5050
 0.9400	51.4700
 0.9410	51.4680
 0.9420	51.5020
 0.9430	51.4950
 0.9440	51.5200
 0.9450	51.5210
 0.9460	51.4700
 0.9470	51.4470
 0.9480	51.4390
 0.9490	51.4380
 0.9500	51.4320
 0.9510	51.4050
 0.9520	51.3680
 0.9530	51.3430
 0.9540	51.3380
 0.9550	51.3330
 0.9560	51.2690
 0.9570	51.2010
 0.9580	51.1870
 0.9590	51.1660
 0.9600	51.1430
 0.9610	51.1300
 0.9620	51.1320
 0.9630	51.1310
 0.9640	51.1060
 0.9650	51.0740
 0.9660	51.0670
 0.9670	51.0860
 0.9680	51.1050
 0.9690	51.1080
 0.9700	51.0990
 0.9710	51.1380
 0.9720	51.1490
 0.9730	51.1530
 0.9740	51.1950
 0.9750	51.2100
 0.9760	51.2340
 0.9770	51.2640
 0.9780	51.2860
 0.9790	51.3470
 0.9800	51.3200
 0.9810	51.2690
 0.9820	51.3230
 0.9830	51.3970
 0.9840	51.4180
 0.9850	51.4320
 0.9860	51.5050
 0.9870	51.4910
 0.9880	51.5100
 0.9890	51.5490
 0.9900	51.5520
 0.9910	51.5800
 0.9920	51.7290
 0.9930	51.8780
 0.9940	52.0260
 0.9950	52.1750
 0.9960	52.3240
 0.9970	52.4730
 0.9980	52.6220
 0.9990	52.7700
 1.0000	52.9190
 1.0010	53.0680
 1.0020	53.2170
 1.0030	53.3650
 1.0040	53.5140
 1.0050	53.6630
 1.0060	53.8120
 1.0070	53.9600
 1.0080	54.1090
 1.0090	54.2580
 1.0100	54.2580
 1.0110	54.2760
 1.0120	54.2990
 1.0130	54.3370
 1.0140	54.3600
 1.0150	54.3660
 1.0160	54.3880
 1.0170	54.4240
 1.0180	54.4410
 1.0190	54.4750
 1.0200	54.5090
 1.0210	54.5230
 1.0220	54.5530
 1.0230	54.5790
 1.0240	54.6060
 1.0250	54.6310
 1.0260	54.6490
 1.0270	54.6790
 1.0280	54.7200
 1.0290	54.7520
 1.0300	54.7980
 1.0310	54.8220
 1.0320	54.8350
 1.0330	54.8300
 1.0340	54.8370
 1.0350	54.8510
 1.0360	54.8680
 1.0370	54.8980
 1.0380	54.9190
 1.0390	54.9360
 1.0400	54.9580
 1.0410	54.9860
 1.0420	55.0070
 1.0430	55.0290
 1.0440	55.0450
 1.0450	55.0570
 1.0460	55.0660
 1.0470	55.0650
 1.0480	55.0740
 1.0490	55.0880
 1.0500	55.0990
 1.0510	55.1160
 1.0520	55.1330
 1.0530	55.1420
 1.0540	55.1410
 1.0550	55.1520
 1.0560	55.1650
 1.0570	55.1720
 1.0580	55.1810
 1.0590	55.1900
 1.0600	55.1960
 1.0610	55.1970
 1.0620	55.1980
 1.0630	55.2010
 1.0640	55.1930
 1.0650	55.1940
 1.0660	55.2070
 1.0670	55.2150
 1.0680	55.2210
 1.0690	55.2280
 1.0700	55.2290
 1.0710	55.2280
 1.0720	55.2210
 1.0730	55.2000
 1.0740	55.1980
 1.0750	55.2030
 1.0760	55.2030
 1.0770	55.2160
 1.0780	55.2170
 1.0790	55.2020
 1.0800	55.1970
 1.0810	55.1950
 1.0820	55.1940
 1.0830	55.2050
 1.0840	55.2030
 1.0850	55.1900
 1.0860	55.1790
 1.0870	55.1720
 1.0880	55.1580
 1.0890	55.1520
 1.0900	55.1600
 1.0910	55.1550
 1.0920	55.1430
 1.0930	55.1370
 1.0940	55.1350
 1.0950	55.1280
 1.0960	55.1230
 1.0970	55.1140
 1.0980	55.0950
 1.0990	55.0800
 1.1000	55.0600
 1.1010	55.0470
 1.1020	55.0340
 1.1030	55.0290
 1.1040	55.0230
 1.1050	55.0130
 1.1060	55.0060
 1.1070	55.0000
 1.1080	54.9890
 1.1090	54.9770
 1.1100	54.9650
 1.1110	54.9490
 1.1120	54.9340
 1.1130	54.9220
 1.1140	54.9070
 1.1150	54.8890
 1.1160	54.8720
 1.1170	54.8570
 1.1180	54.8400
 1.1190	54.8270
 1.1200	54.8080
 1.1210	54.7820
 1.1220	54.7600
 1.1230	54.7330
 1.1240	54.6950
 1.1250	54.6540
 1.1260	54.6090
 1.1270	54.5560
 1.1280	54.4940
 1.1290	54.4290
 1.1300	54.3590
 1.1310	54.2820
 1.1320	54.2050
 1.1330	54.1140
 1.1340	54.0070
 1.1350	53.9020
 1.1360	53.7900
 1.1370	53.6770
 1.1380	53.5610
 1.1390	53.4390
 1.1400	53.3130
 1.1410	53.1860
 1.1420	53.0590
 1.1430	52.9290
 1.1440	52.7940
 1.1450	52.6470
 1.1460	52.5150
 1.1470	52.3810
 1.1480	52.2590
 1.1490	52.1450
 1.1500	52.0360
 1.1510	51.9310
 1.1520	51.8340
 1.1530	51.7440
 1.1540	51.6640
 1.1550	51.5930
 1.1560	51.5270
 1.1570	51.4710
 1.1580	51.4150
 1.1590	51.3680
 1.1600	51.3370
 1.1610	51.3100
 1.1620	51.2970
 1.1630	51.2900
 1.1640	51.2710
 1.1650	51.2540
 1.1660	51.2340
 1.1670	51.2230
 1.1680	51.2120
 1.1690	51.2070
 1.1700	51.2160
 1.1710	51.2120
 1.1720	51.2010
 1.1730	51.1950
 1.1740	51.1900
 1.1750	51.1790
 1.1760	51.1740
 1.1770	51.1710
 1.1780	51.1600
 1.1790	51.1550
 1.1800	51.1540
 1.1810	51.1470
 1.1820	51.1370
 1.1830	51.1230
 1.1840	51.1060
 1.1850	51.0950
 1.1860	51.0820
 1.1870	51.0740
 1.1880	51.0670
 1.1890	51.0560
 1.1900	51.0520
 1.1910	51.0560
 1.1920	51.0550
 1.1930	51.0550
 1.1940	51.0550
 1.1950	51.0510
 1.1960	51.0530
 1.1970	51.0620
 1.1980	51.0790
 1.1990	51.1020
 1.2000	51.1220
 1.2010	51.1450
 1.2020	51.1680
 1.2030	51.1830
 1.2040	51.2070
 1.2050	51.2350
 1.2060	51.2570
 1.2070	51.2860
 1.2080	51.3160
 1.2090	51.3440
 1.2100	51.3770
 1.2110	51.4060
 1.2120	51.4310
 1.2130	51.4630
 1.2140	51.4960
 1.2150	51.5270
 1.2160	51.5620
 1.2170	51.5980
 1.2180	51.6280
 1.2190	51.6600
 1.2200	51.6970
 1.2210	51.7310
 1.2220	51.7660
 1.2230	51.8030
 1.2240	51.8390
 1.2250	51.8720
 1.2260	51.9030
 1.2270	51.9390
 1.2280	51.9730
 1.2290	52.0060
 1.2300	52.0380
 1.2310	52.0650
 1.2320	52.0910
 1.2330	52.1190
 1.2340	52.1470
 1.2350	52.1800
 1.2360	52.2060
 1.2370	52.2280
 1.2380	52.2510
 1.2390	52.2670
 1.2400	52.2860
 1.2410	52.3180
 1.2420	52.3440
 1.2430	52.3670
 1.2440	52.3890
 1.2450	52.4000
 1.2460	52.4150
 1.2470	52.4350
 1.2480	52.4530
 1.2490	52.4740
 1.2500	52.4890
 1.2510	52.5020
 1.2520	52.5140
 1.2530	52.5240
 1.2540	52.5340
 1.2550	52.5420
 1.2560	52.5540
 1.2570	52.5620
 1.2580	52.5680
 1.2590	52.5750
 1.2600	52.5770
 1.2610	52.5810
 1.2620	52.5870
 1.2630	52.5950
 1.2640	52.5980
 1.2650	52.6040
 1.2660	52.6070
 1.2670	52.6080
 1.2680	52.6100
 1.2690	52.6120
 1.2700	52.6110
 1.2710	52.6070
 1.2720	52.6020
 1.2730	52.5980
 1.2740	52.5950
 1.2750	52.5900
 1.2760	52.5820
 1.2770	52.5710
 1.2780	52.5530
 1.2790	52.5350
 1.2800	52.5190
 1.2810	52.4970
 1.2820	52.4800
 1.2830	52.4630
 1.2840	52.4390
 1.2850	52.4160
 1.2860	52.3860
 1.2870	52.3550
 1.2880	52.3180
 1.2890	52.2820
 1.2900	52.2450
 1.2910	52.2070
 1.2920	52.1660
 1.2930	52.1270
 1.2940	52.0860
 1.2950	52.0410
 1.2960	51.9970
 1.2970	51.9520
 1.2980	51.9010
 1.2990	51.8500
 1.3000	51.7990
 1.3010	51.7370
 1.3020	51.6690
 1.3030	51.6030
 1.3040	51.5320
 1.3050	51.4600
 1.3060	51.3890
 1.3070	51.3130
 1.3080	51.2360
 1.3090	51.1570
 1.3100	51.0730
 1.3110	50.9880
 1.3120	50.8990
 1.3130	50.8100
 1.3140	50.7170
 1.3150	50.6170
 1.3160	50.5200
 1.3170	50.4240
 1.3180	50.3210
 1.3190	50.2160
 1.3200	50.1140
 1.3210	50.0050
 1.3220	49.8940
 1.3230	49.7830
 1.3240	49.6650
 1.3250	49.5410
 1.3260	49.4180
 1.3270	49.2940
 1.3280	49.1640
 1.3290	49.0350
 1.3300	48.9000
 1.3310	48.7570
 1.3320	48.6160
 1.3330	48.4750
 1.3340	48.3340
 1.3350	48.1930
 1.3360	48.0550
 1.3370	47.9170
 1.3380	47.7760
 1.3390	47.6340
 1.3400	47.4890
 1.3410	47.3460
 1.3420	47.2030
 1.3430	47.0660
 1.3440	46.9300
 1.3450	46.7930
 1.3460	46.6600
 1.3470	46.5260
 1.3480	46.3870
 1.3490	46.2540
 1.3500	46.1240
 1.3510	45.9880
 1.3520	45.8530
 1.3530	45.7220
 1.3540	45.5850
 1.3550	45.4500
 1.3560	45.3180
 1.3570	45.1830
 1.3580	45.0470
 1.3590	44.9020
 1.3600	44.7530
 1.3610	44.6010
 1.3620	44.4400
 1.3630	44.2790
 1.3640	44.1150
 1.3650	43.9390
 1.3660	43.7580
 1.3670	43.5680
 1.3680	43.3630
 1.3690	43.1410
 1.3700	42.9080
 1.3710	42.6590
 1.3720	42.3930
 1.3730	42.1110
 1.3740	41.8100
 1.3750	41.4890
 1.3760	41.1460
 1.3770	40.7810
 1.3780	40.3920
 1.3790	39.9790
 1.3800	39.5460
 1.3810	39.0880
 1.3820	38.6110
 1.3830	38.1160
 1.3840	37.5990
 1.3850	37.0580
 1.3860	36.5020
 1.3870	35.9220
 1.3880	35.3390
 1.3890	34.7410
 1.3900	34.1360
 1.3910	33.5370
 1.3920	32.9330
 1.3930	32.3220
 1.3940	31.7170
 1.3950	31.1140
 1.3960	30.5160
 1.3970	29.9320
 1.3980	29.3680
 1.3990	28.8260
 1.4000	28.3000
 1.4010	27.7930
 1.4020	27.3090
 1.4030	26.8390
 1.4040	26.3910
 1.4050	25.9720
 1.4060	25.5810
 1.4070	25.2160
 1.4080	24.8750
 1.4090	24.5530
 1.4100	24.2550
 1.4110	23.9760
 1.4120	23.7200
 1.4130	23.4890
 1.4140	23.2760
 1.4150	23.0850
 1.4160	22.9080
 1.4170	22.7470
 1.4180	22.6020
 1.4190	22.4710
 1.4200	22.3580
 1.4210	22.2580
 1.4220	22.1670
 1.4230	22.0870
 1.4240	22.0120
 1.4250	21.9490
 1.4260	21.8960
 1.4270	21.8500
 1.4280	21.8170
 1.4290	21.7870
 1.4300	21.7640
 1.4310	21.7440
 1.4320	21.7270
 1.4330	21.7160
 1.4340	21.7130
 1.4350	21.7130
 1.4360	21.7180
 1.4370	21.7280
 1.4380	21.7430
 1.4390	21.7600
 1.4400	21.7820
 1.4410	21.8060
 1.4420	21.8260
 1.4430	21.8470
 1.4440	21.8730
 1.4450	21.9010
 1.4460	21.9300
 1.4470	21.9620
 1.4480	21.9940
 1.4490	22.0250
 1.4500	22.0590
 1.4510	22.0950
 1.4520	22.1340
 1.4530	22.1750
 1.4540	22.2150
 1.4550	22.2570
 1.4560	22.3040
 1.4570	22.3570
 1.4580	22.4130
 1.4590	22.4720
 1.4600	22.5300
 1.4610	22.5870
 1.4620	22.6530
 1.4630	22.7240
 1.4640	22.7990
 1.4650	22.8810
 1.4660	22.9690
 1.4670	23.0620
 1.4680	23.1570
 1.4690	23.2560
