Name: Ceanothus megacarpus 1
Type: vegetation
Class: Shrub
Genus: Ceanothus
Species: megacarpus
Sample No.: VH020
Owner: UCSB
Wavelength Range: TIR
Origin: 34.4908; -119.7914; WGS84
Collection Date: 4/1/2013
Description: Samples were collected as part of the HyspIRI Airborne Campaign. 48 individual plants were sampled in three times in 2013 - spring  summer  and fall. The name of the sample includes a 1  2  or 3 which references a different individual of the species. Samples were taken to JPL and processed within 48 hours of collection. The same leaves were processed in the Nicolet and then measured using the ASD.
Measurement: Hemispherical reflectance
First Column: X
Second Column: Y
X Units: Wavelength (micrometers)
Y Units: Reflectance (percentage)
First X Value: 2.501
Last X Value: 15.387
Number of X Values: 1737
Additional Information: vegetation.shrub.ceanothus.megacarpus.tir.vh020.ucsb.nicolet.ancillary.txt

 2.5010	 6.1950
 2.5030	 6.1280
 2.5040	 6.1090
 2.5050	 6.1310
 2.5060	 6.1670
 2.5070	 6.1600
 2.5090	 6.1850
 2.5100	 6.1930
 2.5110	 6.1880
 2.5120	 6.2220
 2.5140	 6.3160
 2.5150	 6.1770
 2.5160	 6.1310
 2.5170	 6.0960
 2.5180	 6.1960
 2.5200	 6.2570
 2.5210	 6.3400
 2.5220	 6.3440
 2.5230	 6.2990
 2.5250	 6.1590
 2.5260	 6.2060
 2.5270	 6.2240
 2.5280	 6.3310
 2.5290	 6.3130
 2.5310	 6.2380
 2.5320	 6.2210
 2.5330	 6.3600
 2.5340	 6.3140
 2.5360	 6.3220
 2.5370	 6.3120
 2.5380	 6.3550
 2.5390	 6.2340
 2.5410	 6.2130
 2.5420	 6.1680
 2.5430	 6.1880
 2.5440	 6.1900
 2.5460	 6.2570
 2.5470	 6.2380
 2.5480	 6.2870
 2.5490	 6.2770
 2.5510	 6.2540
 2.5520	 6.2230
 2.5530	 6.3720
 2.5540	 6.3380
 2.5560	 6.2310
 2.5570	 6.1270
 2.5580	 6.2280
 2.5590	 6.2400
 2.5610	 6.1950
 2.5620	 6.1580
 2.5630	 6.2420
 2.5640	 6.2820
 2.5660	 6.3450
 2.5670	 6.3130
 2.5680	 6.4210
 2.5700	 6.4660
 2.5710	 6.3740
 2.5720	 6.1880
 2.5730	 6.2230
 2.5750	 6.1790
 2.5760	 6.2750
 2.5770	 6.3050
 2.5790	 6.3300
 2.5800	 6.3540
 2.5810	 6.3110
 2.5820	 6.2050
 2.5840	 6.2240
 2.5850	 6.2170
 2.5860	 6.2630
 2.5880	 6.3190
 2.5890	 6.3680
 2.5900	 6.3410
 2.5910	 6.3030
 2.5930	 6.2510
 2.5940	 6.3080
 2.5950	 6.3260
 2.5970	 6.2560
 2.5980	 6.2130
 2.5990	 6.3400
 2.6000	 6.3980
 2.6020	 6.3500
 2.6030	 6.1480
 2.6040	 6.1250
 2.6060	 6.1650
 2.6070	 6.2960
 2.6080	 6.2960
 2.6100	 6.2990
 2.6110	 6.1840
 2.6120	 6.2080
 2.6140	 6.2050
 2.6150	 6.1550
 2.6160	 6.1820
 2.6180	 6.2110
 2.6190	 6.1610
 2.6200	 6.1920
 2.6220	 6.2020
 2.6230	 6.2350
 2.6240	 6.2480
 2.6260	 6.1880
 2.6270	 6.0850
 2.6280	 6.1770
 2.6300	 6.1370
 2.6310	 6.1480
 2.6320	 6.0360
 2.6340	 6.0440
 2.6350	 6.0420
 2.6360	 6.2180
 2.6380	 6.2990
 2.6390	 6.2210
 2.6400	 6.1270
 2.6420	 6.2230
 2.6430	 6.1700
 2.6440	 6.0840
 2.6460	 6.0670
 2.6470	 6.1420
 2.6480	 6.0270
 2.6500	 6.0400
 2.6510	 6.0570
 2.6520	 6.1230
 2.6540	 6.0480
 2.6550	 6.0450
 2.6560	 6.0420
 2.6580	 6.0020
 2.6590	 5.9700
 2.6610	 6.0330
 2.6620	 5.9590
 2.6630	 5.9690
 2.6650	 6.0410
 2.6660	 6.0820
 2.6670	 6.0640
 2.6690	 6.1180
 2.6700	 6.0910
 2.6720	 6.0310
 2.6730	 6.0000
 2.6740	 6.0760
 2.6760	 6.0460
 2.6770	 6.0490
 2.6780	 6.1400
 2.6800	 6.2660
 2.6810	 6.1360
 2.6830	 6.0350
 2.6840	 6.0260
 2.6850	 6.0440
 2.6870	 6.0130
 2.6880	 5.9480
 2.6900	 5.9050
 2.6910	 5.9450
 2.6920	 5.9810
 2.6940	 6.0560
 2.6950	 5.9210
 2.6970	 5.8970
 2.6980	 5.9070
 2.6990	 5.9230
 2.7010	 5.9190
 2.7020	 5.9010
 2.7040	 5.8130
 2.7050	 5.8550
 2.7060	 5.8490
 2.7080	 5.9260
 2.7090	 5.8700
 2.7110	 5.7970
 2.7120	 5.8380
 2.7130	 5.9190
 2.7150	 5.8750
 2.7160	 5.8890
 2.7180	 5.7940
 2.7190	 5.8040
 2.7210	 5.8090
 2.7220	 5.8260
 2.7230	 5.7120
 2.7250	 5.6770
 2.7260	 5.7460
 2.7280	 5.8330
 2.7290	 5.7560
 2.7310	 5.7950
 2.7320	 5.7660
 2.7330	 5.7790
 2.7350	 5.7630
 2.7360	 5.7900
 2.7380	 5.8130
 2.7390	 5.7340
 2.7410	 5.7200
 2.7420	 5.8190
 2.7440	 5.7090
 2.7450	 5.6980
 2.7470	 5.7510
 2.7480	 5.8290
 2.7490	 5.6090
 2.7510	 5.5820
 2.7520	 5.6850
 2.7540	 5.6780
 2.7550	 5.5890
 2.7570	 5.6560
 2.7580	 5.6010
 2.7600	 5.7100
 2.7610	 5.8070
 2.7630	 5.8270
 2.7640	 5.6300
 2.7660	 5.6340
 2.7670	 5.7020
 2.7680	 5.8150
 2.7700	 5.6630
 2.7710	 5.6480
 2.7730	 5.7640
 2.7740	 5.8450
 2.7760	 5.7770
 2.7770	 5.6690
 2.7790	 5.6180
 2.7800	 5.7120
 2.7820	 5.6090
 2.7830	 5.5670
 2.7850	 5.5410
 2.7860	 5.6870
 2.7880	 5.8060
 2.7890	 5.8060
 2.7910	 5.7060
 2.7920	 5.7160
 2.7940	 5.5190
 2.7950	 5.5050
 2.7970	 5.6140
 2.7980	 5.6000
 2.8000	 5.4990
 2.8010	 5.5770
 2.8030	 5.5380
 2.8040	 5.5600
 2.8060	 5.5180
 2.8070	 5.5640
 2.8090	 5.5900
 2.8110	 5.6530
 2.8120	 5.5450
 2.8140	 5.5580
 2.8150	 5.5780
 2.8170	 5.7040
 2.8180	 5.7100
 2.8200	 5.6740
 2.8210	 5.6600
 2.8230	 5.7680
 2.8240	 5.6060
 2.8260	 5.5810
 2.8270	 5.6060
 2.8290	 5.6490
 2.8300	 5.6270
 2.8320	 5.6380
 2.8340	 5.5920
 2.8350	 5.5640
 2.8370	 5.5220
 2.8380	 5.6040
 2.8400	 5.6150
 2.8410	 5.6780
 2.8430	 5.6520
 2.8440	 5.7770
 2.8460	 5.7570
 2.8480	 5.6800
 2.8490	 5.5350
 2.8510	 5.5110
 2.8520	 5.5550
 2.8540	 5.7220
 2.8550	 5.6130
 2.8570	 5.5330
 2.8590	 5.5930
 2.8600	 5.5890
 2.8620	 5.5160
 2.8630	 5.6630
 2.8650	 5.6620
 2.8660	 5.7770
 2.8680	 5.7240
 2.8700	 5.6620
 2.8710	 5.6430
 2.8730	 5.6470
 2.8740	 5.5820
 2.8760	 5.7230
 2.8780	 5.6560
 2.8790	 5.6910
 2.8810	 5.6200
 2.8820	 5.6610
 2.8840	 5.6000
 2.8860	 5.6530
 2.8870	 5.6870
 2.8890	 5.7480
 2.8900	 5.7310
 2.8920	 5.7850
 2.8940	 5.7580
 2.8950	 5.7490
 2.8970	 5.6350
 2.8980	 5.6130
 2.9000	 5.6220
 2.9020	 5.8380
 2.9030	 5.8220
 2.9050	 5.8220
 2.9070	 5.7520
 2.9080	 5.6230
 2.9100	 5.5930
 2.9120	 5.6640
 2.9130	 5.5560
 2.9150	 5.5970
 2.9160	 5.6590
 2.9180	 5.7230
 2.9200	 5.6480
 2.9210	 5.5930
 2.9230	 5.5350
 2.9250	 5.6010
 2.9260	 5.6210
 2.9280	 5.7970
 2.9300	 5.8180
 2.9310	 5.8120
 2.9330	 5.7550
 2.9350	 5.7300
 2.9360	 5.7250
 2.9380	 5.7520
 2.9400	 5.7230
 2.9410	 5.7290
 2.9430	 5.6650
 2.9450	 5.6420
 2.9460	 5.5890
 2.9480	 5.5560
 2.9500	 5.5770
 2.9510	 5.8840
 2.9530	 5.9660
 2.9550	 5.9940
 2.9560	 5.7770
 2.9580	 5.5540
 2.9600	 5.5900
 2.9610	 5.6010
 2.9630	 5.3360
 2.9650	 5.2370
 2.9660	 5.4620
 2.9680	 5.4600
 2.9700	 5.3490
 2.9720	 5.3770
 2.9730	 5.5480
 2.9750	 5.9580
 2.9770	 5.7020
 2.9780	 5.5470
 2.9800	 5.7030
 2.9820	 5.7150
 2.9840	 5.6530
 2.9850	 5.7000
 2.9870	 5.4200
 2.9890	 5.3700
 2.9900	 5.4740
 2.9920	 5.7010
 2.9940	 5.5110
 2.9960	 5.4020
 2.9970	 5.6150
 2.9990	 5.7330
 3.0010	 5.8640
 3.0030	 5.6990
 3.0040	 5.4640
 3.0060	 5.5240
 3.0080	 5.6010
 3.0100	 5.8490
 3.0110	 6.1120
 3.0130	 6.1040
 3.0150	 5.8660
 3.0170	 6.0030
 3.0180	 6.1950
 3.0200	 5.9670
 3.0220	 5.6860
 3.0240	 5.5130
 3.0250	 5.3860
 3.0270	 5.7550
 3.0290	 6.2340
 3.0310	 6.0610
 3.0320	 5.7530
 3.0340	 6.1740
 3.0360	 6.0410
 3.0380	 5.9370
 3.0400	 5.5070
 3.0410	 5.4420
 3.0430	 5.5250
 3.0450	 5.6040
 3.0470	 5.5010
 3.0480	 5.3680
 3.0500	 5.8210
 3.0520	 5.7510
 3.0540	 5.4560
 3.0560	 5.7820
 3.0570	 5.5570
 3.0590	 5.5250
 3.0610	 5.6640
 3.0630	 5.3960
 3.0650	 5.3930
 3.0660	 5.6050
 3.0680	 5.5550
 3.0700	 5.4620
 3.0720	 5.2660
 3.0740	 5.3810
 3.0760	 5.6290
 3.0770	 5.8460
 3.0790	 5.8660
 3.0810	 5.7700
 3.0830	 5.6190
 3.0850	 5.6440
 3.0870	 5.5680
 3.0880	 5.5830
 3.0900	 5.7150
 3.0920	 5.4220
 3.0940	 5.0550
 3.0960	 5.2450
 3.0980	 5.3360
 3.0990	 5.3220
 3.1010	 5.3550
 3.1030	 5.6870
 3.1050	 5.7250
 3.1070	 5.6390
 3.1090	 5.4080
 3.1110	 5.3460
 3.1120	 5.3720
 3.1140	 5.5120
 3.1160	 5.5230
 3.1180	 5.6300
 3.1200	 5.7150
 3.1220	 5.7750
 3.1240	 5.6720
 3.1260	 5.7540
 3.1270	 5.5840
 3.1290	 5.5400
 3.1310	 5.5610
 3.1330	 5.5000
 3.1350	 5.7030
 3.1370	 5.8960
 3.1390	 5.7060
 3.1410	 5.6120
 3.1430	 5.5310
 3.1450	 5.4710
 3.1460	 5.3780
 3.1480	 5.5040
 3.1500	 5.6790
 3.1520	 5.8330
 3.1540	 5.6600
 3.1560	 5.5070
 3.1580	 5.3340
 3.1600	 5.3890
 3.1620	 5.3770
 3.1640	 5.1770
 3.1660	 5.1090
 3.1680	 5.4680
 3.1700	 5.7190
 3.1710	 5.9250
 3.1730	 5.8940
 3.1750	 5.4820
 3.1770	 5.6900
 3.1790	 5.7440
 3.1810	 5.6220
 3.1830	 5.8160
 3.1850	 6.0770
 3.1870	 6.0050
 3.1890	 5.5390
 3.1910	 5.4940
 3.1930	 5.4760
 3.1950	 5.4450
 3.1970	 5.3270
 3.1990	 5.2810
 3.2010	 5.3020
 3.2030	 5.4410
 3.2050	 5.5630
 3.2070	 5.6920
 3.2090	 5.6010
 3.2110	 5.5000
 3.2130	 5.5240
 3.2150	 5.5910
 3.2170	 5.5740
 3.2190	 5.5390
 3.2210	 5.4400
 3.2230	 5.4720
 3.2250	 5.4740
 3.2270	 5.4400
 3.2290	 5.5420
 3.2310	 5.7030
 3.2330	 5.6650
 3.2350	 5.6200
 3.2370	 5.5150
 3.2390	 5.5120
 3.2410	 5.6190
 3.2430	 5.6230
 3.2450	 5.5030
 3.2470	 5.5680
 3.2490	 5.5650
 3.2510	 5.6040
 3.2530	 5.5300
 3.2550	 5.5320
 3.2570	 5.6170
 3.2590	 5.7060
 3.2610	 5.6960
 3.2630	 5.7010
 3.2650	 5.5680
 3.2670	 5.5100
 3.2690	 5.5120
 3.2720	 5.5570
 3.2740	 5.5750
 3.2760	 5.5280
 3.2780	 5.4840
 3.2800	 5.5870
 3.2820	 5.6090
 3.2840	 5.5420
 3.2860	 5.4750
 3.2880	 5.4910
 3.2900	 5.5070
 3.2920	 5.5810
 3.2940	 5.5460
 3.2960	 5.5310
 3.2990	 5.4280
 3.3010	 5.4270
 3.3030	 5.4390
 3.3050	 5.4120
 3.3070	 5.3780
 3.3090	 5.4920
 3.3110	 5.4190
 3.3130	 5.3490
 3.3150	 5.4260
 3.3180	 5.5510
 3.3200	 5.5080
 3.3220	 5.4530
 3.3240	 5.3640
 3.3260	 5.4050
 3.3280	 5.4320
 3.3300	 5.4470
 3.3330	 5.3960
 3.3350	 5.3700
 3.3370	 5.4370
 3.3390	 5.4640
 3.3410	 5.4220
 3.3430	 5.4060
 3.3450	 5.3680
 3.3480	 5.3360
 3.3500	 5.3050
 3.3520	 5.3260
 3.3540	 5.2560
 3.3560	 5.2720
 3.3580	 5.3090
 3.3610	 5.3550
 3.3630	 5.3210
 3.3650	 5.3100
 3.3670	 5.2540
 3.3690	 5.3120
 3.3720	 5.2870
 3.3740	 5.3040
 3.3760	 5.3370
 3.3780	 5.4120
 3.3800	 5.4530
 3.3830	 5.4320
 3.3850	 5.3920
 3.3870	 5.4100
 3.3890	 5.2840
 3.3910	 5.1880
 3.3940	 5.1200
 3.3960	 5.1320
 3.3980	 5.1910
 3.4000	 5.4160
 3.4020	 5.4220
 3.4050	 5.4540
 3.4070	 5.5400
 3.4090	 5.6540
 3.4110	 5.7570
 3.4140	 5.9380
 3.4160	 6.0570
 3.4180	 6.3410
 3.4200	 6.6390
 3.4230	 6.9970
 3.4250	 7.3920
 3.4270	 7.8210
 3.4290	 8.0080
 3.4320	 7.7730
 3.4340	 7.1360
 3.4360	 6.6580
 3.4390	 6.3550
 3.4410	 6.2590
 3.4430	 6.1690
 3.4450	 6.1180
 3.4480	 6.0390
 3.4500	 6.0580
 3.4520	 6.0380
 3.4550	 6.0080
 3.4570	 5.8990
 3.4590	 5.9470
 3.4620	 6.0580
 3.4640	 6.0050
 3.4660	 5.9100
 3.4680	 5.9180
 3.4710	 5.9180
 3.4730	 5.9500
 3.4750	 5.8310
 3.4780	 5.7580
 3.4800	 5.7300
 3.4820	 5.7130
 3.4850	 5.6780
 3.4870	 5.6920
 3.4890	 5.6760
 3.4920	 5.6900
 3.4940	 5.7110
 3.4970	 5.7950
 3.4990	 5.8700
 3.5010	 6.0370
 3.5040	 6.1750
 3.5060	 6.5690
 3.5080	 7.1300
 3.5110	 7.5020
 3.5130	 7.3290
 3.5160	 6.8650
 3.5180	 6.4760
 3.5200	 6.3420
 3.5230	 6.2370
 3.5250	 6.1650
 3.5270	 6.0530
 3.5300	 6.0400
 3.5320	 5.9520
 3.5350	 5.8990
 3.5370	 5.9380
 3.5400	 5.9890
 3.5420	 5.9700
 3.5440	 6.0100
 3.5470	 5.9920
 3.5490	 6.0180
 3.5520	 6.0200
 3.5540	 5.9740
 3.5570	 5.8850
 3.5590	 5.8050
 3.5610	 5.7780
 3.5640	 5.8720
 3.5660	 5.9290
 3.5690	 6.0660
 3.5710	 6.0950
 3.5740	 5.9940
 3.5760	 5.9040
 3.5790	 5.9460
 3.5810	 5.8830
 3.5840	 5.7710
 3.5860	 5.7580
 3.5890	 5.8040
 3.5910	 5.6670
 3.5930	 5.7380
 3.5960	 5.7860
 3.5980	 5.7800
 3.6010	 5.7950
 3.6030	 5.8420
 3.6060	 5.8540
 3.6080	 5.8150
 3.6110	 5.7700
 3.6140	 5.8140
 3.6160	 5.8640
 3.6190	 5.9520
 3.6210	 5.9250
 3.6240	 5.8910
 3.6260	 5.8440
 3.6290	 5.8140
 3.6310	 5.7860
 3.6340	 5.7980
 3.6360	 5.7900
 3.6390	 5.8330
 3.6410	 5.8540
 3.6440	 5.8770
 3.6470	 5.8290
 3.6490	 5.8990
 3.6520	 5.9050
 3.6540	 5.8970
 3.6570	 5.8860
 3.6590	 5.8250
 3.6620	 5.8420
 3.6650	 5.9110
 3.6670	 5.9060
 3.6700	 5.9200
 3.6720	 5.8460
 3.6750	 5.8150
 3.6780	 5.7900
 3.6800	 5.7730
 3.6830	 5.7750
 3.6850	 5.7920
 3.6880	 5.7930
 3.6910	 5.7950
 3.6930	 5.7940
 3.6960	 5.8660
 3.6990	 5.8250
 3.7010	 5.7870
 3.7040	 5.7760
 3.7060	 5.8060
 3.7090	 5.8220
 3.7120	 5.8190
 3.7140	 5.7940
 3.7170	 5.8550
 3.7200	 5.8150
 3.7220	 5.8140
 3.7250	 5.8580
 3.7280	 5.9100
 3.7300	 5.8960
 3.7330	 5.9120
 3.7360	 5.9030
 3.7390	 5.8830
 3.7410	 5.8190
 3.7440	 5.8810
 3.7470	 5.8680
 3.7490	 5.8440
 3.7520	 5.9270
 3.7550	 5.9640
 3.7580	 5.8270
 3.7600	 5.8030
 3.7630	 5.8780
 3.7660	 5.9200
 3.7680	 5.8860
 3.7710	 5.8500
 3.7740	 5.8300
 3.7770	 5.8880
 3.7790	 5.9040
 3.7820	 5.9050
 3.7850	 5.8650
 3.7880	 5.8750
 3.7900	 5.8950
 3.7930	 5.8760
 3.7960	 5.8780
 3.7990	 5.9220
 3.8020	 5.9000
 3.8040	 5.8660
 3.8070	 5.8360
 3.8100	 5.8950
 3.8130	 5.9130
 3.8160	 5.8990
 3.8180	 5.8480
 3.8210	 5.8940
 3.8240	 5.9060
 3.8270	 5.8880
 3.8300	 5.8870
 3.8330	 5.9060
 3.8350	 5.8790
 3.8380	 5.8920
 3.8410	 5.8970
 3.8440	 5.8610
 3.8470	 5.8370
 3.8500	 5.9230
 3.8520	 5.9500
 3.8550	 5.9840
 3.8580	 5.9450
 3.8610	 5.8520
 3.8640	 5.8100
 3.8670	 5.8060
 3.8700	 5.8050
 3.8730	 5.8800
 3.8750	 5.9150
 3.8780	 5.9310
 3.8810	 5.8840
 3.8840	 5.8690
 3.8870	 5.8900
 3.8900	 5.9340
 3.8930	 5.9110
 3.8960	 5.9160
 3.8990	 5.9030
 3.9020	 5.8910
 3.9050	 5.9290
 3.9080	 5.9780
 3.9110	 5.9170
 3.9140	 5.8780
 3.9160	 5.9010
 3.9190	 5.9600
 3.9220	 5.8820
 3.9250	 5.8670
 3.9280	 5.8850
 3.9310	 5.9310
 3.9340	 5.9280
 3.9370	 5.8620
 3.9400	 5.8250
 3.9430	 5.9010
 3.9460	 5.9690
 3.9490	 5.9390
 3.9520	 5.9140
 3.9550	 5.9610
 3.9580	 5.9420
 3.9610	 5.9970
 3.9640	 5.9590
 3.9670	 5.9140
 3.9700	 5.9030
 3.9730	 5.9240
 3.9770	 5.9340
 3.9800	 5.9590
 3.9830	 5.9240
 3.9860	 5.9040
 3.9890	 5.8540
 3.9920	 5.8970
 3.9950	 5.8620
 3.9980	 5.8480
 4.0010	 5.9130
 4.0040	 5.9770
 4.0070	 5.9210
 4.0100	 5.8700
 4.0130	 5.8670
 4.0170	 5.9370
 4.0200	 5.9360
 4.0230	 5.9260
 4.0260	 5.9420
 4.0290	 6.0010
 4.0320	 5.9450
 4.0350	 5.8710
 4.0380	 5.8140
 4.0420	 5.8090
 4.0450	 5.8990
 4.0480	 5.9920
 4.0510	 5.9250
 4.0540	 5.9460
 4.0570	 5.8960
 4.0610	 5.9100
 4.0640	 5.9970
 4.0670	 5.9850
 4.0700	 5.9500
 4.0730	 5.9220
 4.0770	 5.8970
 4.0800	 5.9390
 4.0830	 5.9210
 4.0860	 5.8810
 4.0890	 5.8890
 4.0930	 5.9180
 4.0960	 5.9240
 4.0990	 5.9950
 4.1020	 6.0260
 4.1060	 5.9610
 4.1090	 5.9320
 4.1120	 5.9340
 4.1150	 5.8870
 4.1190	 5.8970
 4.1220	 5.9000
 4.1250	 5.8700
 4.1280	 5.8590
 4.1320	 5.9030
 4.1350	 5.9210
 4.1380	 5.9460
 4.1420	 5.9050
 4.1450	 5.9560
 4.1480	 5.9690
 4.1520	 5.9350
 4.1550	 5.8740
 4.1580	 5.8820
 4.1620	 5.8810
 4.1650	 5.8610
 4.1680	 5.8940
 4.1720	 5.9800
 4.1750	 5.9910
 4.1780	 5.9480
 4.1820	 5.9200
 4.1850	 5.9420
 4.1890	 5.9480
 4.1920	 5.9620
 4.1950	 5.9690
 4.1990	 5.9900
 4.2020	 6.0330
 4.2060	 6.0470
 4.2090	 6.0720
 4.2120	 6.1000
 4.2160	 6.0160
 4.2190	 6.0250
 4.2230	 6.1480
 4.2260	 6.1880
 4.2300	 6.1770
 4.2330	 6.2170
 4.2360	 6.1680
 4.2400	 6.0440
 4.2430	 5.9600
 4.2470	 6.0830
 4.2500	 6.0020
 4.2540	 5.9540
 4.2570	 6.0920
 4.2610	 6.1380
 4.2640	 6.0870
 4.2680	 6.1070
 4.2710	 6.1330
 4.2750	 6.0650
 4.2780	 6.0570
 4.2820	 6.1410
 4.2850	 6.0820
 4.2890	 6.0440
 4.2930	 6.0030
 4.2960	 5.9850
 4.3000	 6.0950
 4.3030	 6.2200
 4.3070	 6.1630
 4.3100	 6.2660
 4.3140	 6.1980
 4.3180	 6.0130
 4.3210	 5.9500
 4.3250	 5.9890
 4.3280	 5.9930
 4.3320	 5.9810
 4.3360	 5.9510
 4.3390	 5.9530
 4.3430	 5.9610
 4.3470	 5.9750
 4.3500	 5.9470
 4.3540	 5.9240
 4.3570	 5.9000
 4.3610	 5.9250
 4.3650	 5.9130
 4.3680	 5.9330
 4.3720	 5.9420
 4.3760	 5.9610
 4.3800	 5.9770
 4.3830	 5.9580
 4.3870	 5.9520
 4.3910	 5.9870
 4.3940	 5.9250
 4.3980	 5.8750
 4.4020	 5.8780
 4.4060	 5.8910
 4.4090	 5.9110
 4.4130	 5.9390
 4.4170	 5.9040
 4.4210	 5.8680
 4.4240	 5.9020
 4.4280	 5.9170
 4.4320	 5.8890
 4.4360	 5.8800
 4.4400	 5.8670
 4.4430	 5.8820
 4.4470	 5.8850
 4.4510	 5.8960
 4.4550	 5.8780
 4.4590	 5.8920
 4.4620	 5.8900
 4.4660	 5.8860
 4.4700	 5.9580
 4.4740	 5.9870
 4.4780	 5.9540
 4.4820	 5.9430
 4.4860	 5.9130
 4.4900	 5.8720
 4.4930	 5.8950
 4.4970	 5.9060
 4.5010	 5.9070
 4.5050	 5.9430
 4.5090	 5.9320
 4.5130	 5.8620
 4.5170	 5.8340
 4.5210	 5.8390
 4.5250	 5.8920
 4.5290	 5.8870
 4.5330	 5.8680
 4.5370	 5.9140
 4.5410	 5.9490
 4.5450	 5.9390
 4.5490	 5.8740
 4.5530	 5.8530
 4.5570	 5.8760
 4.5610	 5.8600
 4.5650	 5.8220
 4.5690	 5.8370
 4.5730	 5.8650
 4.5770	 5.8770
 4.5810	 5.8800
 4.5850	 5.8580
 4.5890	 5.8240
 4.5930	 5.8350
 4.5970	 5.8860
 4.6010	 5.8900
 4.6050	 5.8630
 4.6090	 5.8380
 4.6130	 5.8190
 4.6170	 5.8350
 4.6220	 5.8180
 4.6260	 5.8350
 4.6300	 5.8710
 4.6340	 5.8850
 4.6380	 5.9030
 4.6420	 5.8710
 4.6460	 5.8580
 4.6510	 5.8720
 4.6550	 5.8670
 4.6590	 5.8450
 4.6630	 5.8200
 4.6670	 5.7970
 4.6720	 5.7910
 4.6760	 5.8780
 4.6800	 5.9540
 4.6840	 5.8890
 4.6880	 5.8320
 4.6930	 5.8390
 4.6970	 5.9040
 4.7010	 5.9020
 4.7050	 5.8550
 4.7100	 5.8060
 4.7140	 5.8050
 4.7180	 5.8230
 4.7230	 5.8210
 4.7270	 5.7960
 4.7310	 5.8060
 4.7360	 5.8520
 4.7400	 5.8580
 4.7440	 5.8710
 4.7490	 5.8980
 4.7530	 5.9020
 4.7570	 5.9170
 4.7620	 5.8980
 4.7660	 5.8890
 4.7700	 5.8820
 4.7750	 5.9210
 4.7790	 5.9400
 4.7840	 5.8990
 4.7880	 5.8550
 4.7920	 5.9150
 4.7970	 5.9100
 4.8010	 5.8430
 4.8060	 5.8170
 4.8100	 5.8200
 4.8150	 5.8400
 4.8190	 5.8710
 4.8240	 5.8230
 4.8280	 5.8500
 4.8330	 5.8850
 4.8370	 5.9300
 4.8420	 5.9020
 4.8460	 5.8650
 4.8510	 5.8450
 4.8550	 5.9010
 4.8600	 5.8970
 4.8640	 5.8900
 4.8690	 5.9420
 4.8730	 5.9400
 4.8780	 5.8670
 4.8830	 5.8140
 4.8870	 5.7980
 4.8920	 5.8450
 4.8960	 5.8720
 4.9010	 5.8840
 4.9060	 5.9190
 4.9100	 5.9240
 4.9150	 5.8820
 4.9200	 5.8950
 4.9240	 5.8470
 4.9290	 5.8200
 4.9340	 5.8690
 4.9380	 5.9660
 4.9430	 5.9690
 4.9480	 5.9530
 4.9530	 5.9260
 4.9570	 5.9510
 4.9620	 5.9330
 4.9670	 5.8930
 4.9720	 5.8810
 4.9760	 5.8870
 4.9810	 5.8760
 4.9860	 5.8910
 4.9910	 5.9210
 4.9960	 5.9390
 5.0000	 5.9210
 5.0050	 5.9300
 5.0100	 5.9290
 5.0150	 5.9580
 5.0200	 5.9050
 5.0250	 5.9010
 5.0290	 6.0050
 5.0340	 5.9420
 5.0390	 5.8830
 5.0440	 5.9080
 5.0490	 5.9040
 5.0540	 5.9240
 5.0590	 5.9160
 5.0640	 5.9020
 5.0690	 5.9400
 5.0740	 6.0020
 5.0790	 6.0000
 5.0840	 5.9830
 5.0890	 5.9470
 5.0940	 5.9840
 5.0990	 6.0190
 5.1040	 5.9920
 5.1090	 5.8860
 5.1140	 5.8470
 5.1190	 5.9060
 5.1240	 5.9580
 5.1290	 5.9780
 5.1340	 5.9760
 5.1390	 5.9700
 5.1440	 5.9770
 5.1490	 5.9340
 5.1540	 5.9040
 5.1600	 5.8740
 5.1650	 5.9480
 5.1700	 5.9960
 5.1750	 6.0050
 5.1800	 5.9860
 5.1850	 5.9730
 5.1910	 5.8920
 5.1960	 5.9060
 5.2010	 5.9330
 5.2060	 5.9920
 5.2110	 5.9700
 5.2170	 5.9320
 5.2220	 5.9240
 5.2270	 5.9540
 5.2320	 5.9120
 5.2380	 5.9260
 5.2430	 5.9930
 5.2480	 6.0210
 5.2540	 5.9900
 5.2590	 5.9950
 5.2640	 5.9350
 5.2700	 5.9070
 5.2750	 5.8920
 5.2800	 5.9000
 5.2860	 5.9530
 5.2910	 6.0280
 5.2970	 6.0360
 5.3020	 5.9720
 5.3070	 5.8920
 5.3130	 5.9140
 5.3180	 5.9670
 5.3240	 5.9670
 5.3290	 5.9430
 5.3350	 5.9150
 5.3400	 5.9050
 5.3460	 5.9770
 5.3510	 5.9800
 5.3570	 5.9660
 5.3620	 5.9340
 5.3680	 5.9520
 5.3730	 5.9160
 5.3790	 5.9110
 5.3850	 5.8790
 5.3900	 5.9210
 5.3960	 5.9130
 5.4010	 5.9150
 5.4070	 5.9430
 5.4130	 5.9120
 5.4180	 5.8730
 5.4240	 5.9170
 5.4300	 5.9110
 5.4350	 5.9190
