Name: Jacaranda mimosifolia
Type: vegetation
Class: Tree
Genus: Jacaranda
Species: mimosifolia
Sample No.: JPL161
Owner: JPL
Wavelength Range: VSWIR
Origin: 34.12557; -118.11327; WGS84
Collection Date: 9/14/2016
Description: Samples were collected at the Huntington Garden in San Marino California as part of a JPL Subcontract studying HyTES imagery. Samples were taken to JPL and processed within 48 hours of collection. The same leaves were processed in the Nicolet and then measured using the ASD.
Measurement: Bidirectional reflectance
First Column: X
Second Column: Y
X Units: Wavelength (micrometer)
Y Units: Reflectance (percentage)
First X Value: 0.35
Last X Value: 2.5
Number of X Values: 2151
Additional Information: vegetation.tree.jacaranda.mimosifolia.vswir.jpl161.jpl.asd.ancillary.txt

 0.3500	 1.8810
 0.3510	 1.9160
 0.3520	 2.0560
 0.3530	 2.0960
 0.3540	 1.9500
 0.3550	 1.9050
 0.3560	 1.8720
 0.3570	 1.8510
 0.3580	 1.8780
 0.3590	 1.8720
 0.3600	 1.8780
 0.3610	 1.9010
 0.3620	 1.8820
 0.3630	 1.8900
 0.3640	 1.9000
 0.3650	 1.8770
 0.3660	 1.8470
 0.3670	 1.8120
 0.3680	 1.8030
 0.3690	 1.8530
 0.3700	 1.8320
 0.3710	 1.8070
 0.3720	 1.8250
 0.3730	 1.8430
 0.3740	 1.8440
 0.3750	 1.8140
 0.3760	 1.7620
 0.3770	 1.7800
 0.3780	 1.7930
 0.3790	 1.7810
 0.3800	 1.7780
 0.3810	 1.7630
 0.3820	 1.7590
 0.3830	 1.7750
 0.3840	 1.7890
 0.3850	 1.8050
 0.3860	 1.8130
 0.3870	 1.8020
 0.3880	 1.7670
 0.3890	 1.7510
 0.3900	 1.7700
 0.3910	 1.8080
 0.3920	 1.8160
 0.3930	 1.8090
 0.3940	 1.8080
 0.3950	 1.8120
 0.3960	 1.8040
 0.3970	 1.7940
 0.3980	 1.8020
 0.3990	 1.8210
 0.4000	 1.8250
 0.4010	 1.8150
 0.4020	 1.8230
 0.4030	 1.8410
 0.4040	 1.8470
 0.4050	 1.8370
 0.4060	 1.8610
 0.4070	 1.8850
 0.4080	 1.8990
 0.4090	 1.9130
 0.4100	 1.9210
 0.4110	 1.9320
 0.4120	 1.9470
 0.4130	 1.9620
 0.4140	 1.9640
 0.4150	 1.9720
 0.4160	 2.0010
 0.4170	 2.0050
 0.4180	 2.0050
 0.4190	 2.0210
 0.4200	 2.0620
 0.4210	 2.0750
 0.4220	 2.0780
 0.4230	 2.0930
 0.4240	 2.1180
 0.4250	 2.1320
 0.4260	 2.1370
 0.4270	 2.1460
 0.4280	 2.1630
 0.4290	 2.1820
 0.4300	 2.1960
 0.4310	 2.2000
 0.4320	 2.2190
 0.4330	 2.2390
 0.4340	 2.2440
 0.4350	 2.2530
 0.4360	 2.2630
 0.4370	 2.2720
 0.4380	 2.2770
 0.4390	 2.2780
 0.4400	 2.2840
 0.4410	 2.2960
 0.4420	 2.2900
 0.4430	 2.3000
 0.4440	 2.3170
 0.4450	 2.3190
 0.4460	 2.3240
 0.4470	 2.3360
 0.4480	 2.3530
 0.4490	 2.3580
 0.4500	 2.3630
 0.4510	 2.3730
 0.4520	 2.3890
 0.4530	 2.3920
 0.4540	 2.3970
 0.4550	 2.4050
 0.4560	 2.4130
 0.4570	 2.4250
 0.4580	 2.4300
 0.4590	 2.4260
 0.4600	 2.4270
 0.4610	 2.4290
 0.4620	 2.4300
 0.4630	 2.4320
 0.4640	 2.4400
 0.4650	 2.4460
 0.4660	 2.4480
 0.4670	 2.4540
 0.4680	 2.4560
 0.4690	 2.4520
 0.4700	 2.4480
 0.4710	 2.4490
 0.4720	 2.4590
 0.4730	 2.4670
 0.4740	 2.4640
 0.4750	 2.4710
 0.4760	 2.4760
 0.4770	 2.4740
 0.4780	 2.4820
 0.4790	 2.4890
 0.4800	 2.4920
 0.4810	 2.4930
 0.4820	 2.4980
 0.4830	 2.5010
 0.4840	 2.5050
 0.4850	 2.5180
 0.4860	 2.5200
 0.4870	 2.5260
 0.4880	 2.5470
 0.4890	 2.5550
 0.4900	 2.5600
 0.4910	 2.5680
 0.4920	 2.5800
 0.4930	 2.5940
 0.4940	 2.6110
 0.4950	 2.6280
 0.4960	 2.6460
 0.4970	 2.6700
 0.4980	 2.6960
 0.4990	 2.7200
 0.5000	 2.7440
 0.5010	 2.7750
 0.5020	 2.8140
 0.5030	 2.8530
 0.5040	 2.8970
 0.5050	 2.9480
 0.5060	 3.0050
 0.5070	 3.0610
 0.5080	 3.1230
 0.5090	 3.1940
 0.5100	 3.2720
 0.5110	 3.3580
 0.5120	 3.4500
 0.5130	 3.5460
 0.5140	 3.6520
 0.5150	 3.7690
 0.5160	 3.8930
 0.5170	 4.0210
 0.5180	 4.1570
 0.5190	 4.3000
 0.5200	 4.4480
 0.5210	 4.5990
 0.5220	 4.7550
 0.5230	 4.9130
 0.5240	 5.0690
 0.5250	 5.2220
 0.5260	 5.3740
 0.5270	 5.5190
 0.5280	 5.6520
 0.5290	 5.7810
 0.5300	 5.9000
 0.5310	 6.0100
 0.5320	 6.1130
 0.5330	 6.2080
 0.5340	 6.2940
 0.5350	 6.3690
 0.5360	 6.4350
 0.5370	 6.4990
 0.5380	 6.5590
 0.5390	 6.6140
 0.5400	 6.6800
 0.5410	 6.7560
 0.5420	 6.8320
 0.5430	 6.8880
 0.5440	 6.9250
 0.5450	 6.9440
 0.5460	 6.9470
 0.5470	 6.9330
 0.5480	 6.9210
 0.5490	 6.9210
 0.5500	 6.9290
 0.5510	 6.9350
 0.5520	 6.9330
 0.5530	 6.9190
 0.5540	 6.8990
 0.5550	 6.8690
 0.5560	 6.8290
 0.5570	 6.7810
 0.5580	 6.7280
 0.5590	 6.6700
 0.5600	 6.6070
 0.5610	 6.5370
 0.5620	 6.4620
 0.5630	 6.3820
 0.5640	 6.2950
 0.5650	 6.2080
 0.5660	 6.1190
 0.5670	 6.0260
 0.5680	 5.9300
 0.5690	 5.8330
 0.5700	 5.7350
 0.5710	 5.6360
 0.5720	 5.5450
 0.5730	 5.4570
 0.5740	 5.3720
 0.5750	 5.2920
 0.5760	 5.2200
 0.5770	 5.1520
 0.5780	 5.0870
 0.5790	 5.0280
 0.5800	 4.9720
 0.5810	 4.9210
 0.5820	 4.8760
 0.5830	 4.8350
 0.5840	 4.7940
 0.5850	 4.7540
 0.5860	 4.7160
 0.5870	 4.6820
 0.5880	 4.6500
 0.5890	 4.6140
 0.5900	 4.5810
 0.5910	 4.5550
 0.5920	 4.5340
 0.5930	 4.5140
 0.5940	 4.4930
 0.5950	 4.4730
 0.5960	 4.4550
 0.5970	 4.4420
 0.5980	 4.4290
 0.5990	 4.4160
 0.6000	 4.4020
 0.6010	 4.3850
 0.6020	 4.3650
 0.6030	 4.3440
 0.6040	 4.3210
 0.6050	 4.2930
 0.6060	 4.2610
 0.6070	 4.2280
 0.6080	 4.1940
 0.6090	 4.1660
 0.6100	 4.1500
 0.6110	 4.1410
 0.6120	 4.1050
 0.6130	 4.0480
 0.6140	 3.9880
 0.6150	 3.9440
 0.6160	 3.9030
 0.6170	 3.8630
 0.6180	 3.8290
 0.6190	 3.8010
 0.6200	 3.7780
 0.6210	 3.7570
 0.6220	 3.7330
 0.6230	 3.7180
 0.6240	 3.7050
 0.6250	 3.6920
 0.6260	 3.6830
 0.6270	 3.6750
 0.6280	 3.6690
 0.6290	 3.6680
 0.6300	 3.6650
 0.6310	 3.6590
 0.6320	 3.6490
 0.6330	 3.6380
 0.6340	 3.6230
 0.6350	 3.6030
 0.6360	 3.5800
 0.6370	 3.5550
 0.6380	 3.5240
 0.6390	 3.4890
 0.6400	 3.4560
 0.6410	 3.4200
 0.6420	 3.3810
 0.6430	 3.3410
 0.6440	 3.3040
 0.6450	 3.2660
 0.6460	 3.2290
 0.6470	 3.1970
 0.6480	 3.1700
 0.6490	 3.1470
 0.6500	 3.1280
 0.6510	 3.1090
 0.6520	 3.0960
 0.6530	 3.0860
 0.6540	 3.0740
 0.6550	 3.0610
 0.6560	 3.0480
 0.6570	 3.0310
 0.6580	 3.0100
 0.6590	 2.9900
 0.6600	 2.9690
 0.6610	 2.9470
 0.6620	 2.9260
 0.6630	 2.9050
 0.6640	 2.8860
 0.6650	 2.8700
 0.6660	 2.8580
 0.6670	 2.8510
 0.6680	 2.8470
 0.6690	 2.8420
 0.6700	 2.8460
 0.6710	 2.8530
 0.6720	 2.8610
 0.6730	 2.8720
 0.6740	 2.8910
 0.6750	 2.9130
 0.6760	 2.9350
 0.6770	 2.9610
 0.6780	 2.9910
 0.6790	 3.0240
 0.6800	 3.0620
 0.6810	 3.1030
 0.6820	 3.1480
 0.6830	 3.1950
 0.6840	 3.2470
 0.6850	 3.3050
 0.6860	 3.3710
 0.6870	 3.4460
 0.6880	 3.5350
 0.6890	 3.6400
 0.6900	 3.7690
 0.6910	 3.9280
 0.6920	 4.1210
 0.6930	 4.3490
 0.6940	 4.6150
 0.6950	 4.9240
 0.6960	 5.2770
 0.6970	 5.6700
 0.6980	 6.1000
 0.6990	 6.5660
 0.7000	 7.0640
 0.7010	 7.5890
 0.7020	 8.1370
 0.7030	 8.7030
 0.7040	 9.2850
 0.7050	 9.8790
 0.7060	10.4830
 0.7070	11.0990
 0.7080	11.7230
 0.7090	12.3550
 0.7100	12.9960
 0.7110	13.6490
 0.7120	14.3130
 0.7130	14.9810
 0.7140	15.6570
 0.7150	16.3400
 0.7160	17.0280
 0.7170	17.7230
 0.7180	18.4200
 0.7190	19.1170
 0.7200	19.8120
 0.7210	20.5020
 0.7220	21.1850
 0.7230	21.8560
 0.7240	22.5170
 0.7250	23.1630
 0.7260	23.7940
 0.7270	24.4080
 0.7280	24.9980
 0.7290	25.5680
 0.7300	26.1170
 0.7310	26.6410
 0.7320	27.1420
 0.7330	27.6210
 0.7340	28.0730
 0.7350	28.4970
 0.7360	28.9010
 0.7370	29.2820
 0.7380	29.6380
 0.7390	29.9680
 0.7400	30.2760
 0.7410	30.5630
 0.7420	30.8290
 0.7430	31.0730
 0.7440	31.2960
 0.7450	31.5010
 0.7460	31.6860
 0.7470	31.8550
 0.7480	32.0090
 0.7490	32.1470
 0.7500	32.2680
 0.7510	32.3800
 0.7520	32.4820
 0.7530	32.5730
 0.7540	32.6550
 0.7550	32.7310
 0.7560	32.8000
 0.7570	32.8600
 0.7580	32.9120
 0.7590	32.9600
 0.7600	33.0050
 0.7610	33.0460
 0.7620	33.0800
 0.7630	33.1080
 0.7640	33.1360
 0.7650	33.1610
 0.7660	33.1830
 0.7670	33.1990
 0.7680	33.2150
 0.7690	33.2300
 0.7700	33.2410
 0.7710	33.2500
 0.7720	33.2610
 0.7730	33.2720
 0.7740	33.2820
 0.7750	33.2920
 0.7760	33.3020
 0.7770	33.3100
 0.7780	33.3160
 0.7790	33.3240
 0.7800	33.3310
 0.7810	33.3390
 0.7820	33.3470
 0.7830	33.3520
 0.7840	33.3600
 0.7850	33.3660
 0.7860	33.3710
 0.7870	33.3790
 0.7880	33.3860
 0.7890	33.3900
 0.7900	33.3930
 0.7910	33.3970
 0.7920	33.3980
 0.7930	33.3990
 0.7940	33.4030
 0.7950	33.4030
 0.7960	33.4030
 0.7970	33.4040
 0.7980	33.4030
 0.7990	33.4040
 0.8000	33.4030
 0.8010	33.4000
 0.8020	33.3990
 0.8030	33.3970
 0.8040	33.3940
 0.8050	33.3890
 0.8060	33.3880
 0.8070	33.3840
 0.8080	33.3780
 0.8090	33.3750
 0.8100	33.3720
 0.8110	33.3670
 0.8120	33.3620
 0.8130	33.3530
 0.8140	33.3430
 0.8150	33.3340
 0.8160	33.3290
 0.8170	33.3230
 0.8180	33.3170
 0.8190	33.3080
 0.8200	33.2990
 0.8210	33.2920
 0.8220	33.2860
 0.8230	33.2800
 0.8240	33.2700
 0.8250	33.2620
 0.8260	33.2540
 0.8270	33.2450
 0.8280	33.2340
 0.8290	33.2270
 0.8300	33.2190
 0.8310	33.2090
 0.8320	33.2010
 0.8330	33.1940
 0.8340	33.1880
 0.8350	33.1810
 0.8360	33.1750
 0.8370	33.1670
 0.8380	33.1600
 0.8390	33.1530
 0.8400	33.1460
 0.8410	33.1420
 0.8420	33.1400
 0.8430	33.1350
 0.8440	33.1300
 0.8450	33.1250
 0.8460	33.1200
 0.8470	33.1230
 0.8480	33.1200
 0.8490	33.1140
 0.8500	33.1130
 0.8510	33.1100
 0.8520	33.1100
 0.8530	33.1110
 0.8540	33.1090
 0.8550	33.1070
 0.8560	33.1070
 0.8570	33.1080
 0.8580	33.1100
 0.8590	33.1110
 0.8600	33.1110
 0.8610	33.1120
 0.8620	33.1190
 0.8630	33.1200
 0.8640	33.1200
 0.8650	33.1270
 0.8660	33.1270
 0.8670	33.1310
 0.8680	33.1380
 0.8690	33.1420
 0.8700	33.1460
 0.8710	33.1510
 0.8720	33.1590
 0.8730	33.1650
 0.8740	33.1710
 0.8750	33.1770
 0.8760	33.1850
 0.8770	33.1950
 0.8780	33.2010
 0.8790	33.2070
 0.8800	33.2150
 0.8810	33.2220
 0.8820	33.2250
 0.8830	33.2300
 0.8840	33.2390
 0.8850	33.2480
 0.8860	33.2570
 0.8870	33.2640
 0.8880	33.2670
 0.8890	33.2760
 0.8900	33.2860
 0.8910	33.2930
 0.8920	33.3010
 0.8930	33.3080
 0.8940	33.3150
 0.8950	33.3230
 0.8960	33.3300
 0.8970	33.3330
 0.8980	33.3380
 0.8990	33.3440
 0.9000	33.3470
 0.9010	33.3550
 0.9020	33.3650
 0.9030	33.3730
 0.9040	33.3810
 0.9050	33.3890
 0.9060	33.3960
 0.9070	33.3990
 0.9080	33.3990
 0.9090	33.4050
 0.9100	33.4140
 0.9110	33.4210
 0.9120	33.4220
 0.9130	33.4220
 0.9140	33.4250
 0.9150	33.4300
 0.9160	33.4320
 0.9170	33.4330
 0.9180	33.4350
 0.9190	33.4390
 0.9200	33.4390
 0.9210	33.4410
 0.9220	33.4470
 0.9230	33.4530
 0.9240	33.4460
 0.9250	33.4450
 0.9260	33.4490
 0.9270	33.4410
 0.9280	33.4350
 0.9290	33.4310
 0.9300	33.4260
 0.9310	33.4210
 0.9320	33.4190
 0.9330	33.4140
 0.9340	33.4060
 0.9350	33.3960
 0.9360	33.3930
 0.9370	33.3890
 0.9380	33.3790
 0.9390	33.3680
 0.9400	33.3540
 0.9410	33.3440
 0.9420	33.3380
 0.9430	33.3330
 0.9440	33.3190
 0.9450	33.3010
 0.9460	33.2870
 0.9470	33.2750
 0.9480	33.2580
 0.9490	33.2390
 0.9500	33.2190
 0.9510	33.1960
 0.9520	33.1760
 0.9530	33.1540
 0.9540	33.1280
 0.9550	33.1110
 0.9560	33.0920
 0.9570	33.0670
 0.9580	33.0400
 0.9590	33.0290
 0.9600	33.0150
 0.9610	32.9950
 0.9620	32.9720
 0.9630	32.9590
 0.9640	32.9410
 0.9650	32.9270
 0.9660	32.9230
 0.9670	32.9030
 0.9680	32.8910
 0.9690	32.8850
 0.9700	32.8720
 0.9710	32.8600
 0.9720	32.8570
 0.9730	32.8570
 0.9740	32.8450
 0.9750	32.8280
 0.9760	32.8150
 0.9770	32.8120
 0.9780	32.8140
 0.9790	32.8110
 0.9800	32.8050
 0.9810	32.7990
 0.9820	32.7950
 0.9830	32.7980
 0.9840	32.8030
 0.9850	32.8020
 0.9860	32.7940
 0.9870	32.7870
 0.9880	32.7820
 0.9890	32.7820
 0.9900	32.7880
 0.9910	32.7900
 0.9920	32.7910
 0.9930	32.7920
 0.9940	32.7950
 0.9950	32.7930
 0.9960	32.8010
 0.9970	32.8110
 0.9980	32.8060
 0.9990	32.8060
 1.0000	32.8150
 1.0010	33.1960
 1.0020	33.2030
 1.0030	33.2100
 1.0040	33.2150
 1.0050	33.2180
 1.0060	33.2190
 1.0070	33.2230
 1.0080	33.2270
 1.0090	33.2340
 1.0100	33.2400
 1.0110	33.2440
 1.0120	33.2490
 1.0130	33.2560
 1.0140	33.2600
 1.0150	33.2630
 1.0160	33.2680
 1.0170	33.2720
 1.0180	33.2730
 1.0190	33.2780
 1.0200	33.2800
 1.0210	33.2820
 1.0220	33.2860
 1.0230	33.2900
 1.0240	33.2940
 1.0250	33.3010
 1.0260	33.3120
 1.0270	33.3190
 1.0280	33.3230
 1.0290	33.3290
 1.0300	33.3320
 1.0310	33.3350
 1.0320	33.3410
 1.0330	33.3460
 1.0340	33.3480
 1.0350	33.3530
 1.0360	33.3590
 1.0370	33.3650
 1.0380	33.3710
 1.0390	33.3800
 1.0400	33.3850
 1.0410	33.3890
 1.0420	33.3940
 1.0430	33.3970
 1.0440	33.4010
 1.0450	33.4070
 1.0460	33.4120
 1.0470	33.4160
 1.0480	33.4210
 1.0490	33.4270
 1.0500	33.4310
 1.0510	33.4350
 1.0520	33.4370
 1.0530	33.4400
 1.0540	33.4400
 1.0550	33.4430
 1.0560	33.4480
 1.0570	33.4500
 1.0580	33.4480
 1.0590	33.4500
 1.0600	33.4540
 1.0610	33.4560
 1.0620	33.4570
 1.0630	33.4590
 1.0640	33.4580
 1.0650	33.4590
 1.0660	33.4640
 1.0670	33.4660
 1.0680	33.4680
 1.0690	33.4680
 1.0700	33.4690
 1.0710	33.4710
 1.0720	33.4710
 1.0730	33.4710
 1.0740	33.4720
 1.0750	33.4710
 1.0760	33.4720
 1.0770	33.4750
 1.0780	33.4740
 1.0790	33.4710
 1.0800	33.4700
 1.0810	33.4680
 1.0820	33.4650
 1.0830	33.4620
 1.0840	33.4610
 1.0850	33.4590
 1.0860	33.4560
 1.0870	33.4560
 1.0880	33.4590
 1.0890	33.4590
 1.0900	33.4600
 1.0910	33.4570
 1.0920	33.4520
 1.0930	33.4490
 1.0940	33.4450
 1.0950	33.4430
 1.0960	33.4430
 1.0970	33.4410
 1.0980	33.4370
 1.0990	33.4340
 1.1000	33.4300
 1.1010	33.4260
 1.1020	33.4220
 1.1030	33.4190
 1.1040	33.4130
 1.1050	33.4090
 1.1060	33.4070
 1.1070	33.4060
 1.1080	33.4030
 1.1090	33.4020
 1.1100	33.3970
 1.1110	33.3900
 1.1120	33.3840
 1.1130	33.3790
 1.1140	33.3730
 1.1150	33.3650
 1.1160	33.3590
 1.1170	33.3530
 1.1180	33.3460
 1.1190	33.3380
 1.1200	33.3300
 1.1210	33.3180
 1.1220	33.3020
 1.1230	33.2880
 1.1240	33.2720
 1.1250	33.2550
 1.1260	33.2360
 1.1270	33.2150
 1.1280	33.1900
 1.1290	33.1640
 1.1300	33.1360
 1.1310	33.1030
 1.1320	33.0660
 1.1330	33.0290
 1.1340	32.9880
 1.1350	32.9470
 1.1360	32.9050
 1.1370	32.8600
 1.1380	32.8130
 1.1390	32.7640
 1.1400	32.7130
 1.1410	32.6620
 1.1420	32.6090
 1.1430	32.5570
 1.1440	32.5040
 1.1450	32.4500
 1.1460	32.3980
 1.1470	32.3460
 1.1480	32.2960
 1.1490	32.2460
 1.1500	32.1990
 1.1510	32.1520
 1.1520	32.1080
 1.1530	32.0670
 1.1540	32.0270
 1.1550	31.9870
 1.1560	31.9500
 1.1570	31.9140
 1.1580	31.8810
 1.1590	31.8490
 1.1600	31.8190
 1.1610	31.7900
 1.1620	31.7640
 1.1630	31.7400
 1.1640	31.7190
 1.1650	31.6980
 1.1660	31.6790
 1.1670	31.6600
 1.1680	31.6410
 1.1690	31.6240
 1.1700	31.6070
 1.1710	31.5910
 1.1720	31.5780
 1.1730	31.5640
 1.1740	31.5500
 1.1750	31.5380
 1.1760	31.5240
 1.1770	31.5110
 1.1780	31.4970
 1.1790	31.4810
 1.1800	31.4670
 1.1810	31.4550
 1.1820	31.4420
 1.1830	31.4290
 1.1840	31.4150
 1.1850	31.4010
 1.1860	31.3860
 1.1870	31.3720
 1.1880	31.3610
 1.1890	31.3520
 1.1900	31.3430
 1.1910	31.3370
 1.1920	31.3290
 1.1930	31.3200
 1.1940	31.3140
 1.1950	31.3080
 1.1960	31.3030
 1.1970	31.3000
 1.1980	31.2970
 1.1990	31.2940
 1.2000	31.2920
 1.2010	31.2920
 1.2020	31.2920
 1.2030	31.2920
 1.2040	31.2950
 1.2050	31.2980
 1.2060	31.3020
 1.2070	31.3070
 1.2080	31.3120
 1.2090	31.3200
 1.2100	31.3300
 1.2110	31.3380
 1.2120	31.3500
 1.2130	31.3600
 1.2140	31.3690
 1.2150	31.3790
 1.2160	31.3900
 1.2170	31.4010
 1.2180	31.4120
 1.2190	31.4250
 1.2200	31.4390
 1.2210	31.4530
 1.2220	31.4660
 1.2230	31.4800
 1.2240	31.4940
 1.2250	31.5070
 1.2260	31.5200
 1.2270	31.5330
 1.2280	31.5470
 1.2290	31.5600
 1.2300	31.5700
 1.2310	31.5800
 1.2320	31.5880
 1.2330	31.5960
 1.2340	31.6040
 1.2350	31.6140
 1.2360	31.6230
 1.2370	31.6310
 1.2380	31.6390
 1.2390	31.6480
 1.2400	31.6570
 1.2410	31.6660
 1.2420	31.6720
 1.2430	31.6780
 1.2440	31.6850
 1.2450	31.6910
 1.2460	31.6960
 1.2470	31.7020
 1.2480	31.7050
 1.2490	31.7100
 1.2500	31.7150
 1.2510	31.7190
 1.2520	31.7230
 1.2530	31.7250
 1.2540	31.7270
 1.2550	31.7290
 1.2560	31.7290
 1.2570	31.7310
 1.2580	31.7350
 1.2590	31.7370
 1.2600	31.7390
 1.2610	31.7400
 1.2620	31.7410
 1.2630	31.7410
 1.2640	31.7400
 1.2650	31.7390
 1.2660	31.7360
 1.2670	31.7340
 1.2680	31.7320
 1.2690	31.7300
 1.2700	31.7290
 1.2710	31.7250
 1.2720	31.7200
 1.2730	31.7140
 1.2740	31.7090
 1.2750	31.7040
 1.2760	31.7000
 1.2770	31.6960
 1.2780	31.6910
 1.2790	31.6830
 1.2800	31.6750
 1.2810	31.6680
 1.2820	31.6620
 1.2830	31.6560
 1.2840	31.6490
 1.2850	31.6400
 1.2860	31.6280
 1.2870	31.6170
 1.2880	31.6050
 1.2890	31.5930
 1.2900	31.5810
 1.2910	31.5660
 1.2920	31.5520
 1.2930	31.5350
 1.2940	31.5170
 1.2950	31.4990
 1.2960	31.4780
 1.2970	31.4570
 1.2980	31.4370
 1.2990	31.4140
 1.3000	31.3910
 1.3010	31.3660
 1.3020	31.3420
 1.3030	31.3170
 1.3040	31.2900
 1.3050	31.2620
 1.3060	31.2320
 1.3070	31.2000
 1.3080	31.1690
 1.3090	31.1380
 1.3100	31.1050
 1.3110	31.0720
 1.3120	31.0370
 1.3130	30.9990
 1.3140	30.9610
 1.3150	30.9200
 1.3160	30.8800
 1.3170	30.8410
 1.3180	30.8010
 1.3190	30.7590
 1.3200	30.7160
 1.3210	30.6690
 1.3220	30.6210
 1.3230	30.5730
 1.3240	30.5230
 1.3250	30.4730
 1.3260	30.4220
 1.3270	30.3690
 1.3280	30.3160
 1.3290	30.2610
 1.3300	30.2030
 1.3310	30.1460
 1.3320	30.0870
 1.3330	30.0270
 1.3340	29.9680
 1.3350	29.9080
 1.3360	29.8480
 1.3370	29.7890
 1.3380	29.7290
 1.3390	29.6680
 1.3400	29.6070
 1.3410	29.5470
 1.3420	29.4860
 1.3430	29.4260
 1.3440	29.3670
 1.3450	29.3080
 1.3460	29.2480
 1.3470	29.1900
 1.3480	29.1310
 1.3490	29.0730
 1.3500	29.0150
 1.3510	28.9580
 1.3520	28.8990
 1.3530	28.8410
 1.3540	28.7840
 1.3550	28.7250
 1.3560	28.6670
 1.3570	28.6090
 1.3580	28.5490
 1.3590	28.4890
 1.3600	28.4270
 1.3610	28.3630
 1.3620	28.3000
 1.3630	28.2340
 1.3640	28.1670
 1.3650	28.0970
 1.3660	28.0240
 1.3670	27.9480
 1.3680	27.8660
 1.3690	27.7790
 1.3700	27.6840
 1.3710	27.5820
 1.3720	27.4730
 1.3730	27.3550
 1.3740	27.2310
 1.3750	27.0980
 1.3760	26.9520
 1.3770	26.7950
 1.3780	26.6240
 1.3790	26.4390
 1.3800	26.2420
 1.3810	26.0310
 1.3820	25.8060
 1.3830	25.5680
 1.3840	25.3180
 1.3850	25.0550
 1.3860	24.7790
 1.3870	24.4890
 1.3880	24.1900
 1.3890	23.8790
 1.3900	23.5570
 1.3910	23.2310
 1.3920	22.8970
 1.3930	22.5530
 1.3940	22.2070
 1.3950	21.8550
 1.3960	21.5010
 1.3970	21.1510
 1.3980	20.8020
 1.3990	20.4580
 1.4000	20.1190
 1.4010	19.7830
 1.4020	19.4550
 1.4030	19.1330
 1.4040	18.8210
 1.4050	18.5210
 1.4060	18.2290
 1.4070	17.9510
 1.4080	17.6840
 1.4090	17.4260
 1.4100	17.1820
 1.4110	16.9480
 1.4120	16.7250
 1.4130	16.5150
 1.4140	16.3160
 1.4150	16.1310
 1.4160	15.9560
 1.4170	15.7890
 1.4180	15.6320
 1.4190	15.4840
 1.4200	15.3440
 1.4210	15.2150
 1.4220	15.0920
 1.4230	14.9780
 1.4240	14.8730
 1.4250	14.7730
 1.4260	14.6800
 1.4270	14.5930
 1.4280	14.5120
 1.4290	14.4370
 1.4300	14.3680
 1.4310	14.3050
 1.4320	14.2480
 1.4330	14.1940
 1.4340	14.1440
 1.4350	14.1000
 1.4360	14.0620
 1.4370	14.0270
 1.4380	13.9960
 1.4390	13.9690
 1.4400	13.9440
 1.4410	13.9220
 1.4420	13.9040
 1.4430	13.8900
 1.4440	13.8770
 1.4450	13.8670
 1.4460	13.8600
 1.4470	13.8550
 1.4480	13.8520
 1.4490	13.8510
 1.4500	13.8520
 1.4510	13.8530
 1.4520	13.8560
 1.4530	13.8610
 1.4540	13.8670
 1.4550	13.8760
 1.4560	13.8850
 1.4570	13.8960
 1.4580	13.9100
 1.4590	13.9270
 1.4600	13.9480
 1.4610	13.9720
 1.4620	13.9980
 1.4630	14.0270
 1.4640	14.0590
 1.4650	14.0940
 1.4660	14.1330
 1.4670	14.1750
 1.4680	14.2220
 1.4690	14.2730
 1.4700	14.3260
 1.4710	14.3830
 1.4720	14.4430
 1.4730	14.5040
 1.4740	14.5690
 1.4750	14.6360
 1.4760	14.7050
 1.4770	14.7760
