Name: Ceanothus megacarpus 1
Type: vegetation
Class: Shrub
Genus: Ceanothus
Species: megacarpus
Sample No.: VH211
Owner: UCSB
Wavelength Range: VSWIR
Origin: 34.4908; -119.7914; WGS84
Collection Date: 10/13/2013
Description: Samples were collected as part of the HyspIRI Airborne Campaign. 48 individual plants were sampled in three times in 2013 - spring  summer  and fall. The name of the sample includes a 1  2  or 3 which references a different individual of the species. Samples were taken to JPL and processed within 48 hours of collection. The same leaves were processed in the Nicolet and then measured using the ASD.
Measurement: Bidirectional reflectance
First Column: X
Second Column: Y
X Units: Wavelength (micrometers)
Y Units: Reflectance (percentage)
First X Value: 0.35
Last X Value: 2.5
Number of X Values: 2151
Additional Information: vegetation.shrub.ceanothus.megacarpus.vswir.vh211.ucsb.asd.ancillary.txt

 0.3500	 6.5200
 0.3510	 6.3430
 0.3520	 6.2670
 0.3530	 6.1790
 0.3540	 6.0240
 0.3550	 6.0260
 0.3560	 5.9950
 0.3570	 5.9630
 0.3580	 6.0500
 0.3590	 6.0660
 0.3600	 5.9850
 0.3610	 5.8690
 0.3620	 5.8680
 0.3630	 5.8730
 0.3640	 5.8910
 0.3650	 5.9340
 0.3660	 5.9160
 0.3670	 5.8560
 0.3680	 5.7760
 0.3690	 5.7120
 0.3700	 5.7770
 0.3710	 5.7860
 0.3720	 5.7110
 0.3730	 5.8880
 0.3740	 5.9350
 0.3750	 5.8220
 0.3760	 5.6730
 0.3770	 5.7540
 0.3780	 5.8820
 0.3790	 5.9480
 0.3800	 5.9390
 0.3810	 5.8740
 0.3820	 5.8290
 0.3830	 5.8170
 0.3840	 5.6910
 0.3850	 5.6360
 0.3860	 5.6740
 0.3870	 5.7490
 0.3880	 5.7900
 0.3890	 5.7560
 0.3900	 5.6970
 0.3910	 5.7380
 0.3920	 5.6910
 0.3930	 5.6800
 0.3940	 5.7720
 0.3950	 5.7220
 0.3960	 5.6980
 0.3970	 5.6810
 0.3980	 5.5970
 0.3990	 5.6410
 0.4000	 5.7090
 0.4010	 5.7210
 0.4020	 5.6660
 0.4030	 5.6530
 0.4040	 5.6730
 0.4050	 5.6880
 0.4060	 5.6930
 0.4070	 5.6590
 0.4080	 5.6330
 0.4090	 5.6900
 0.4100	 5.6990
 0.4110	 5.6890
 0.4120	 5.6840
 0.4130	 5.6550
 0.4140	 5.6270
 0.4150	 5.6380
 0.4160	 5.7000
 0.4170	 5.6890
 0.4180	 5.6820
 0.4190	 5.7030
 0.4200	 5.7130
 0.4210	 5.7300
 0.4220	 5.7370
 0.4230	 5.7290
 0.4240	 5.7420
 0.4250	 5.7660
 0.4260	 5.7900
 0.4270	 5.8030
 0.4280	 5.8410
 0.4290	 5.8600
 0.4300	 5.8580
 0.4310	 5.9030
 0.4320	 5.9310
 0.4330	 5.9560
 0.4340	 5.9980
 0.4350	 6.0110
 0.4360	 6.0310
 0.4370	 6.0580
 0.4380	 6.0700
 0.4390	 6.0620
 0.4400	 6.0670
 0.4410	 6.1010
 0.4420	 6.1310
 0.4430	 6.1460
 0.4440	 6.1540
 0.4450	 6.1690
 0.4460	 6.1980
 0.4470	 6.2190
 0.4480	 6.2240
 0.4490	 6.2260
 0.4500	 6.2270
 0.4510	 6.2340
 0.4520	 6.2510
 0.4530	 6.2750
 0.4540	 6.2950
 0.4550	 6.3060
 0.4560	 6.3160
 0.4570	 6.3290
 0.4580	 6.3260
 0.4590	 6.3090
 0.4600	 6.3250
 0.4610	 6.3510
 0.4620	 6.3640
 0.4630	 6.3530
 0.4640	 6.3670
 0.4650	 6.3810
 0.4660	 6.3830
 0.4670	 6.3780
 0.4680	 6.3840
 0.4690	 6.3910
 0.4700	 6.3950
 0.4710	 6.4160
 0.4720	 6.4340
 0.4730	 6.4400
 0.4740	 6.4340
 0.4750	 6.4240
 0.4760	 6.4240
 0.4770	 6.4350
 0.4780	 6.4450
 0.4790	 6.4420
 0.4800	 6.4350
 0.4810	 6.4380
 0.4820	 6.4510
 0.4830	 6.4630
 0.4840	 6.4650
 0.4850	 6.4550
 0.4860	 6.4480
 0.4870	 6.4550
 0.4880	 6.4730
 0.4890	 6.4690
 0.4900	 6.4830
 0.4910	 6.5050
 0.4920	 6.5090
 0.4930	 6.5360
 0.4940	 6.5570
 0.4950	 6.5630
 0.4960	 6.5890
 0.4970	 6.6180
 0.4980	 6.6450
 0.4990	 6.6690
 0.5000	 6.6870
 0.5010	 6.7130
 0.5020	 6.7490
 0.5030	 6.7880
 0.5040	 6.8290
 0.5050	 6.8750
 0.5060	 6.9260
 0.5070	 6.9840
 0.5080	 7.0420
 0.5090	 7.1040
 0.5100	 7.1770
 0.5110	 7.2510
 0.5120	 7.3390
 0.5130	 7.4410
 0.5140	 7.5360
 0.5150	 7.6510
 0.5160	 7.7760
 0.5170	 7.8980
 0.5180	 8.0340
 0.5190	 8.1790
 0.5200	 8.3330
 0.5210	 8.4940
 0.5220	 8.6540
 0.5230	 8.8280
 0.5240	 9.0190
 0.5250	 9.1960
 0.5260	 9.3710
 0.5270	 9.5490
 0.5280	 9.7300
 0.5290	 9.9120
 0.5300	10.0900
 0.5310	10.2600
 0.5320	10.4190
 0.5330	10.5720
 0.5340	10.7230
 0.5350	10.8720
 0.5360	11.0120
 0.5370	11.1470
 0.5380	11.2760
 0.5390	11.3950
 0.5400	11.5060
 0.5410	11.6140
 0.5420	11.7190
 0.5430	11.8090
 0.5440	11.9100
 0.5450	12.0150
 0.5460	12.1080
 0.5470	12.1990
 0.5480	12.2830
 0.5490	12.3580
 0.5500	12.4300
 0.5510	12.4860
 0.5520	12.5350
 0.5530	12.5840
 0.5540	12.6110
 0.5550	12.6230
 0.5560	12.6270
 0.5570	12.6230
 0.5580	12.6080
 0.5590	12.5830
 0.5600	12.5440
 0.5610	12.4910
 0.5620	12.4270
 0.5630	12.3540
 0.5640	12.2740
 0.5650	12.1870
 0.5660	12.0990
 0.5670	12.0120
 0.5680	11.9180
 0.5690	11.8280
 0.5700	11.7370
 0.5710	11.6360
 0.5720	11.5280
 0.5730	11.4290
 0.5740	11.3390
 0.5750	11.2530
 0.5760	11.1650
 0.5770	11.0860
 0.5780	11.0180
 0.5790	10.9430
 0.5800	10.8780
 0.5810	10.8200
 0.5820	10.7570
 0.5830	10.7010
 0.5840	10.6500
 0.5850	10.5990
 0.5860	10.5480
 0.5870	10.5030
 0.5880	10.4640
 0.5890	10.4260
 0.5900	10.3850
 0.5910	10.3460
 0.5920	10.3120
 0.5930	10.2800
 0.5940	10.2520
 0.5950	10.2290
 0.5960	10.2090
 0.5970	10.1820
 0.5980	10.1590
 0.5990	10.1330
 0.6000	10.0990
 0.6010	10.0670
 0.6020	10.0380
 0.6030	10.0070
 0.6040	 9.9670
 0.6050	 9.9250
 0.6060	 9.8840
 0.6070	 9.8410
 0.6080	 9.7920
 0.6090	 9.7360
 0.6100	 9.6740
 0.6110	 9.6120
 0.6120	 9.5620
 0.6130	 9.5190
 0.6140	 9.4750
 0.6150	 9.4200
 0.6160	 9.3700
 0.6170	 9.3240
 0.6180	 9.2800
 0.6190	 9.2440
 0.6200	 9.2050
 0.6210	 9.1670
 0.6220	 9.1450
 0.6230	 9.1280
 0.6240	 9.1140
 0.6250	 9.1020
 0.6260	 9.0900
 0.6270	 9.0820
 0.6280	 9.0790
 0.6290	 9.0770
 0.6300	 9.0700
 0.6310	 9.0650
 0.6320	 9.0600
 0.6330	 9.0470
 0.6340	 9.0200
 0.6350	 8.9800
 0.6360	 8.9290
 0.6370	 8.8690
 0.6380	 8.8000
 0.6390	 8.7200
 0.6400	 8.6230
 0.6410	 8.5260
 0.6420	 8.4270
 0.6430	 8.3280
 0.6440	 8.2300
 0.6450	 8.1360
 0.6460	 8.0500
 0.6470	 7.9710
 0.6480	 7.8970
 0.6490	 7.8400
 0.6500	 7.7950
 0.6510	 7.7490
 0.6520	 7.7200
 0.6530	 7.6980
 0.6540	 7.6720
 0.6550	 7.6410
 0.6560	 7.6070
 0.6570	 7.5720
 0.6580	 7.5380
 0.6590	 7.4940
 0.6600	 7.4460
 0.6610	 7.3970
 0.6620	 7.3430
 0.6630	 7.2890
 0.6640	 7.2420
 0.6650	 7.2030
 0.6660	 7.1560
 0.6670	 7.1180
 0.6680	 7.0930
 0.6690	 7.0710
 0.6700	 7.0510
 0.6710	 7.0400
 0.6720	 7.0380
 0.6730	 7.0310
 0.6740	 7.0310
 0.6750	 7.0390
 0.6760	 7.0510
 0.6770	 7.0590
 0.6780	 7.0800
 0.6790	 7.1130
 0.6800	 7.1440
 0.6810	 7.1840
 0.6820	 7.2360
 0.6830	 7.3040
 0.6840	 7.3900
 0.6850	 7.5040
 0.6860	 7.6470
 0.6870	 7.8230
 0.6880	 8.0440
 0.6890	 8.3210
 0.6900	 8.6610
 0.6910	 9.0730
 0.6920	 9.5590
 0.6930	10.1280
 0.6940	10.7890
 0.6950	11.5390
 0.6960	12.3760
 0.6970	13.2910
 0.6980	14.2790
 0.6990	15.3450
 0.7000	16.4710
 0.7010	17.6400
 0.7020	18.8410
 0.7030	20.0840
 0.7040	21.3390
 0.7050	22.5840
 0.7060	23.8330
 0.7070	25.0780
 0.7080	26.3080
 0.7090	27.5180
 0.7100	28.7150
 0.7110	29.8830
 0.7120	31.0180
 0.7130	32.1280
 0.7140	33.2230
 0.7150	34.2870
 0.7160	35.3090
 0.7170	36.2920
 0.7180	37.2550
 0.7190	38.1900
 0.7200	39.0840
 0.7210	39.9460
 0.7220	40.7800
 0.7230	41.5830
 0.7240	42.3520
 0.7250	43.0800
 0.7260	43.7640
 0.7270	44.4130
 0.7280	45.0460
 0.7290	45.6380
 0.7300	46.1880
 0.7310	46.7080
 0.7320	47.2070
 0.7330	47.6670
 0.7340	48.0990
 0.7350	48.5370
 0.7360	48.9180
 0.7370	49.2680
 0.7380	49.6100
 0.7390	49.9240
 0.7400	50.2310
 0.7410	50.5220
 0.7420	50.7810
 0.7430	51.0220
 0.7440	51.2420
 0.7450	51.4510
 0.7460	51.6660
 0.7470	51.8420
 0.7480	52.0030
 0.7490	52.1640
 0.7500	52.3010
 0.7510	52.4310
 0.7520	52.5530
 0.7530	52.6660
 0.7540	52.7750
 0.7550	52.8560
 0.7560	52.9260
 0.7570	53.0240
 0.7580	53.0860
 0.7590	53.1450
 0.7600	53.2160
 0.7610	53.2680
 0.7620	53.3050
 0.7630	53.3420
 0.7640	53.3920
 0.7650	53.4350
 0.7660	53.4740
 0.7670	53.5080
 0.7680	53.5380
 0.7690	53.5570
 0.7700	53.5760
 0.7710	53.6020
 0.7720	53.6360
 0.7730	53.6640
 0.7740	53.6820
 0.7750	53.6920
 0.7760	53.7030
 0.7770	53.7140
 0.7780	53.7350
 0.7790	53.7750
 0.7800	53.7890
 0.7810	53.8000
 0.7820	53.8170
 0.7830	53.8300
 0.7840	53.8370
 0.7850	53.8580
 0.7860	53.8950
 0.7870	53.9150
 0.7880	53.9250
 0.7890	53.9270
 0.7900	53.9270
 0.7910	53.9490
 0.7920	53.9870
 0.7930	54.0210
 0.7940	54.0230
 0.7950	54.0170
 0.7960	54.0290
 0.7970	54.0560
 0.7980	54.0570
 0.7990	54.0810
 0.8000	54.1160
 0.8010	54.1380
 0.8020	54.1430
 0.8030	54.1510
 0.8040	54.1620
 0.8050	54.1720
 0.8060	54.2030
 0.8070	54.2170
 0.8080	54.2180
 0.8090	54.2420
 0.8100	54.2620
 0.8110	54.2750
 0.8120	54.2820
 0.8130	54.2930
 0.8140	54.3150
 0.8150	54.3340
 0.8160	54.3350
 0.8170	54.3360
 0.8180	54.3660
 0.8190	54.4100
 0.8200	54.4320
 0.8210	54.4260
 0.8220	54.4330
 0.8230	54.4560
 0.8240	54.4600
 0.8250	54.4850
 0.8260	54.5010
 0.8270	54.5000
 0.8280	54.5280
 0.8290	54.5390
 0.8300	54.5420
 0.8310	54.5490
 0.8320	54.5430
 0.8330	54.5450
 0.8340	54.5590
 0.8350	54.5780
 0.8360	54.5930
 0.8370	54.6030
 0.8380	54.6110
 0.8390	54.6280
 0.8400	54.6540
 0.8410	54.6660
 0.8420	54.6600
 0.8430	54.6560
 0.8440	54.6620
 0.8450	54.6830
 0.8460	54.7150
 0.8470	54.7350
 0.8480	54.7530
 0.8490	54.7600
 0.8500	54.7520
 0.8510	54.7760
 0.8520	54.8020
 0.8530	54.8120
 0.8540	54.8070
 0.8550	54.8170
 0.8560	54.8380
 0.8570	54.8550
 0.8580	54.8520
 0.8590	54.8400
 0.8600	54.8490
 0.8610	54.8800
 0.8620	54.8830
 0.8630	54.8760
 0.8640	54.8750
 0.8650	54.8890
 0.8660	54.9150
 0.8670	54.9160
 0.8680	54.9110
 0.8690	54.9280
 0.8700	54.9150
 0.8710	54.9180
 0.8720	54.9360
 0.8730	54.9410
 0.8740	54.9460
 0.8750	54.9470
 0.8760	54.9440
 0.8770	54.9440
 0.8780	54.9790
 0.8790	54.9980
 0.8800	54.9820
 0.8810	54.9710
 0.8820	54.9650
 0.8830	54.9650
 0.8840	54.9690
 0.8850	54.9690
 0.8860	54.9660
 0.8870	54.9630
 0.8880	54.9630
 0.8890	54.9790
 0.8900	54.9880
 0.8910	54.9800
 0.8920	54.9540
 0.8930	54.9390
 0.8940	54.9350
 0.8950	54.9300
 0.8960	54.9100
 0.8970	54.9090
 0.8980	54.9120
 0.8990	54.9090
 0.9000	54.9020
 0.9010	54.8890
 0.9020	54.8730
 0.9030	54.8660
 0.9040	54.8800
 0.9050	54.8670
 0.9060	54.8500
 0.9070	54.8430
 0.9080	54.8280
 0.9090	54.8330
 0.9100	54.8400
 0.9110	54.8270
 0.9120	54.8030
 0.9130	54.7930
 0.9140	54.7870
 0.9150	54.7740
 0.9160	54.7730
 0.9170	54.7580
 0.9180	54.7430
 0.9190	54.7490
 0.9200	54.7500
 0.9210	54.7360
 0.9220	54.7110
 0.9230	54.6860
 0.9240	54.6720
 0.9250	54.6650
 0.9260	54.6610
 0.9270	54.6560
 0.9280	54.6040
 0.9290	54.5490
 0.9300	54.5110
 0.9310	54.4760
 0.9320	54.4530
 0.9330	54.4330
 0.9340	54.4140
 0.9350	54.4000
 0.9360	54.3610
 0.9370	54.3120
 0.9380	54.2660
 0.9390	54.2220
 0.9400	54.1710
 0.9410	54.1370
 0.9420	54.1160
 0.9430	54.0510
 0.9440	53.9870
 0.9450	53.9240
 0.9460	53.8620
 0.9470	53.8420
 0.9480	53.7870
 0.9490	53.6930
 0.9500	53.5850
 0.9510	53.5070
 0.9520	53.4060
 0.9530	53.3010
 0.9540	53.2150
 0.9550	53.1220
 0.9560	53.0160
 0.9570	52.9080
 0.9580	52.8140
 0.9590	52.7440
 0.9600	52.6610
 0.9610	52.5660
 0.9620	52.4760
 0.9630	52.4110
 0.9640	52.3430
 0.9650	52.2820
 0.9660	52.2430
 0.9670	52.1770
 0.9680	52.1310
 0.9690	52.1120
 0.9700	52.1020
 0.9710	52.0710
 0.9720	52.0480
 0.9730	52.0150
 0.9740	51.9560
 0.9750	51.9630
 0.9760	51.9450
 0.9770	51.9180
 0.9780	51.9350
 0.9790	51.9560
 0.9800	51.9570
 0.9810	51.9380
 0.9820	51.9220
 0.9830	51.9610
 0.9840	51.9660
 0.9850	51.9650
 0.9860	52.0220
 0.9870	52.0630
 0.9880	52.0900
 0.9890	52.1020
 0.9900	52.1080
 0.9910	52.1760
 0.9920	52.2360
 0.9930	52.2960
 0.9940	52.3550
 0.9950	52.4150
 0.9960	52.4750
 0.9970	52.5340
 0.9980	52.5940
 0.9990	52.6540
 1.0000	52.7130
 1.0010	52.7730
 1.0020	52.8330
 1.0030	52.8930
 1.0040	52.9520
 1.0050	53.0120
 1.0060	53.0720
 1.0070	53.1310
 1.0080	53.1910
 1.0090	53.2510
 1.0100	53.2510
 1.0110	53.2900
 1.0120	53.3340
 1.0130	53.3820
 1.0140	53.4270
 1.0150	53.4740
 1.0160	53.5200
 1.0170	53.5610
 1.0180	53.6030
 1.0190	53.6600
 1.0200	53.7160
 1.0210	53.7670
 1.0220	53.8120
 1.0230	53.8570
 1.0240	53.8960
 1.0250	53.9390
 1.0260	53.9850
 1.0270	54.0270
 1.0280	54.0710
 1.0290	54.1030
 1.0300	54.1190
 1.0310	54.1490
 1.0320	54.1820
 1.0330	54.2070
 1.0340	54.2500
 1.0350	54.3010
 1.0360	54.3370
 1.0370	54.3730
 1.0380	54.4080
 1.0390	54.4420
 1.0400	54.4720
 1.0410	54.4990
 1.0420	54.5300
 1.0430	54.5590
 1.0440	54.5840
 1.0450	54.6110
 1.0460	54.6340
 1.0470	54.6450
 1.0480	54.6630
 1.0490	54.6810
 1.0500	54.7010
 1.0510	54.7150
 1.0520	54.7470
 1.0530	54.7680
 1.0540	54.7900
 1.0550	54.8110
 1.0560	54.8340
 1.0570	54.8490
 1.0580	54.8630
 1.0590	54.8760
 1.0600	54.8820
 1.0610	54.8910
 1.0620	54.9010
 1.0630	54.9110
 1.0640	54.9200
 1.0650	54.9260
 1.0660	54.9310
 1.0670	54.9370
 1.0680	54.9420
 1.0690	54.9460
 1.0700	54.9500
 1.0710	54.9570
 1.0720	54.9550
 1.0730	54.9450
 1.0740	54.9410
 1.0750	54.9340
 1.0760	54.9320
 1.0770	54.9360
 1.0780	54.9360
 1.0790	54.9400
 1.0800	54.9370
 1.0810	54.9320
 1.0820	54.9240
 1.0830	54.9030
 1.0840	54.8940
 1.0850	54.8880
 1.0860	54.8840
 1.0870	54.8800
 1.0880	54.8850
 1.0890	54.8770
 1.0900	54.8580
 1.0910	54.8520
 1.0920	54.8560
 1.0930	54.8420
 1.0940	54.8240
 1.0950	54.8070
 1.0960	54.7730
 1.0970	54.7510
 1.0980	54.7480
 1.0990	54.7280
 1.1000	54.6960
 1.1010	54.6700
 1.1020	54.6390
 1.1030	54.6070
 1.1040	54.5840
 1.1050	54.5600
 1.1060	54.5370
 1.1070	54.5160
 1.1080	54.4900
 1.1090	54.4620
 1.1100	54.4330
 1.1110	54.4000
 1.1120	54.3640
 1.1130	54.3310
 1.1140	54.2910
 1.1150	54.2480
 1.1160	54.1980
 1.1170	54.1430
 1.1180	54.0820
 1.1190	54.0130
 1.1200	53.9420
 1.1210	53.8660
 1.1220	53.7900
 1.1230	53.7070
 1.1240	53.6150
 1.1250	53.5200
 1.1260	53.4180
 1.1270	53.3140
 1.1280	53.2110
 1.1290	53.0930
 1.1300	52.9690
 1.1310	52.8350
 1.1320	52.6890
 1.1330	52.5380
 1.1340	52.3810
 1.1350	52.2170
 1.1360	52.0450
 1.1370	51.8650
 1.1380	51.6740
 1.1390	51.4800
 1.1400	51.2780
 1.1410	51.0680
 1.1420	50.8520
 1.1430	50.6330
 1.1440	50.4100
 1.1450	50.1760
 1.1460	49.9480
 1.1470	49.7170
 1.1480	49.4930
 1.1490	49.2670
 1.1500	49.0540
 1.1510	48.8440
 1.1520	48.6500
 1.1530	48.4640
 1.1540	48.2920
 1.1550	48.1320
 1.1560	47.9830
 1.1570	47.8370
 1.1580	47.7100
 1.1590	47.5990
 1.1600	47.4960
 1.1610	47.4110
 1.1620	47.3360
 1.1630	47.2610
 1.1640	47.2000
 1.1650	47.1480
 1.1660	47.1050
 1.1670	47.0660
 1.1680	47.0400
 1.1690	47.0110
 1.1700	46.9860
 1.1710	46.9610
 1.1720	46.9330
 1.1730	46.9130
 1.1740	46.8960
 1.1750	46.8790
 1.1760	46.8700
 1.1770	46.8600
 1.1780	46.8390
 1.1790	46.8200
 1.1800	46.7950
 1.1810	46.7620
 1.1820	46.7340
 1.1830	46.7060
 1.1840	46.6780
 1.1850	46.6510
 1.1860	46.6270
 1.1870	46.6060
 1.1880	46.5850
 1.1890	46.5640
 1.1900	46.5490
 1.1910	46.5370
 1.1920	46.5260
 1.1930	46.5210
 1.1940	46.5140
 1.1950	46.5060
 1.1960	46.4990
 1.1970	46.4940
 1.1980	46.4910
 1.1990	46.4950
 1.2000	46.5010
 1.2010	46.5120
 1.2020	46.5250
 1.2030	46.5410
 1.2040	46.5650
 1.2050	46.5880
 1.2060	46.6170
 1.2070	46.6460
 1.2080	46.6720
 1.2090	46.7050
 1.2100	46.7390
 1.2110	46.7770
 1.2120	46.8200
 1.2130	46.8660
 1.2140	46.9190
 1.2150	46.9700
 1.2160	47.0210
 1.2170	47.0730
 1.2180	47.1280
 1.2190	47.1770
 1.2200	47.2290
 1.2210	47.2890
 1.2220	47.3450
 1.2230	47.3990
 1.2240	47.4560
 1.2250	47.5150
 1.2260	47.5680
 1.2270	47.6210
 1.2280	47.6770
 1.2290	47.7250
 1.2300	47.7750
 1.2310	47.8280
 1.2320	47.8690
 1.2330	47.9110
 1.2340	47.9570
 1.2350	48.0060
 1.2360	48.0490
 1.2370	48.0930
 1.2380	48.1370
 1.2390	48.1740
 1.2400	48.2020
 1.2410	48.2390
 1.2420	48.2760
 1.2430	48.3050
 1.2440	48.3420
 1.2450	48.3770
 1.2460	48.4070
 1.2470	48.4370
 1.2480	48.4580
 1.2490	48.4820
 1.2500	48.5120
 1.2510	48.5410
 1.2520	48.5770
 1.2530	48.6040
 1.2540	48.6210
 1.2550	48.6360
 1.2560	48.6470
 1.2570	48.6560
 1.2580	48.6690
 1.2590	48.6840
 1.2600	48.7010
 1.2610	48.7150
 1.2620	48.7320
 1.2630	48.7450
 1.2640	48.7460
 1.2650	48.7550
 1.2660	48.7630
 1.2670	48.7570
 1.2680	48.7570
 1.2690	48.7510
 1.2700	48.7430
 1.2710	48.7460
 1.2720	48.7430
 1.2730	48.7340
 1.2740	48.7190
 1.2750	48.7010
 1.2760	48.6880
 1.2770	48.6790
 1.2780	48.6690
 1.2790	48.6520
 1.2800	48.6370
 1.2810	48.6170
 1.2820	48.5910
 1.2830	48.5690
 1.2840	48.5410
 1.2850	48.5090
 1.2860	48.4810
 1.2870	48.4460
 1.2880	48.4050
 1.2890	48.3640
 1.2900	48.3200
 1.2910	48.2650
 1.2920	48.2180
 1.2930	48.1640
 1.2940	48.1040
 1.2950	48.0540
 1.2960	47.9960
 1.2970	47.9350
 1.2980	47.8760
 1.2990	47.8020
 1.3000	47.7150
 1.3010	47.6260
 1.3020	47.5350
 1.3030	47.4440
 1.3040	47.3520
 1.3050	47.2570
 1.3060	47.1570
 1.3070	47.0470
 1.3080	46.9290
 1.3090	46.8110
 1.3100	46.6880
 1.3110	46.5610
 1.3120	46.4340
 1.3130	46.3040
 1.3140	46.1660
 1.3150	46.0220
 1.3160	45.8730
 1.3170	45.7200
 1.3180	45.5560
 1.3190	45.3880
 1.3200	45.2150
 1.3210	45.0330
 1.3220	44.8500
 1.3230	44.6650
 1.3240	44.4780
 1.3250	44.2900
 1.3260	44.0950
 1.3270	43.8880
 1.3280	43.6780
 1.3290	43.4670
 1.3300	43.2540
 1.3310	43.0410
 1.3320	42.8210
 1.3330	42.5950
 1.3340	42.3650
 1.3350	42.1350
 1.3360	41.9050
 1.3370	41.6730
 1.3380	41.4430
 1.3390	41.2130
 1.3400	40.9800
 1.3410	40.7520
 1.3420	40.5240
 1.3430	40.2970
 1.3440	40.0750
 1.3450	39.8530
 1.3460	39.6340
 1.3470	39.4190
 1.3480	39.2040
 1.3490	38.9930
 1.3500	38.7890
 1.3510	38.5800
 1.3520	38.3730
 1.3530	38.1700
 1.3540	37.9670
 1.3550	37.7670
 1.3560	37.5690
 1.3570	37.3730
 1.3580	37.1760
 1.3590	36.9770
 1.3600	36.7730
 1.3610	36.5660
 1.3620	36.3550
 1.3630	36.1420
 1.3640	35.9210
 1.3650	35.6920
 1.3660	35.4550
 1.3670	35.2040
 1.3680	34.9360
 1.3690	34.6610
 1.3700	34.3720
 1.3710	34.0710
 1.3720	33.7630
 1.3730	33.4310
 1.3740	33.0780
 1.3750	32.7070
 1.3760	32.3110
 1.3770	31.8940
 1.3780	31.4530
 1.3790	30.9910
 1.3800	30.5060
 1.3810	29.9950
 1.3820	29.4650
 1.3830	28.9130
 1.3840	28.3420
 1.3850	27.7500
 1.3860	27.1450
 1.3870	26.5190
 1.3880	25.8910
 1.3890	25.2510
 1.3900	24.6040
 1.3910	23.9640
 1.3920	23.3230
 1.3930	22.6840
 1.3940	22.0500
 1.3950	21.4130
 1.3960	20.7900
 1.3970	20.1840
 1.3980	19.5910
 1.3990	19.0260
 1.4000	18.4770
 1.4010	17.9430
 1.4020	17.4360
 1.4030	16.9500
 1.4040	16.4890
 1.4050	16.0540
 1.4060	15.6390
 1.4070	15.2510
 1.4080	14.8880
 1.4090	14.5450
 1.4100	14.2270
 1.4110	13.9300
 1.4120	13.6550
 1.4130	13.4000
 1.4140	13.1630
 1.4150	12.9480
 1.4160	12.7500
 1.4170	12.5670
 1.4180	12.4030
 1.4190	12.2520
 1.4200	12.1100
 1.4210	11.9840
 1.4220	11.8700
 1.4230	11.7670
 1.4240	11.6760
 1.4250	11.5920
 1.4260	11.5170
 1.4270	11.4480
 1.4280	11.3870
 1.4290	11.3320
 1.4300	11.2850
 1.4310	11.2420
 1.4320	11.2060
 1.4330	11.1750
 1.4340	11.1500
 1.4350	11.1270
 1.4360	11.1100
 1.4370	11.0950
 1.4380	11.0820
 1.4390	11.0730
 1.4400	11.0680
 1.4410	11.0670
 1.4420	11.0700
 1.4430	11.0740
 1.4440	11.0820
 1.4450	11.0900
 1.4460	11.1000
 1.4470	11.1160
 1.4480	11.1300
 1.4490	11.1450
 1.4500	11.1610
 1.4510	11.1740
 1.4520	11.1900
 1.4530	11.2060
 1.4540	11.2200
 1.4550	11.2400
 1.4560	11.2600
 1.4570	11.2820
 1.4580	11.3090
 1.4590	11.3350
 1.4600	11.3620
 1.4610	11.3930
 1.4620	11.4240
 1.4630	11.4580
 1.4640	11.4970
 1.4650	11.5380
 1.4660	11.5840
 1.4670	11.6340
 1.4680	11.6870
 1.4690	11.7450
