Name: Pinus lambertiana 3
Type: vegetation
Class: Tree
Genus: Pinus
Species: lambertiana
Sample No.: VH069
Owner: UCSB
Wavelength Range: VSWIR
Origin: 37.0433; -119.3048; WGS84
Collection Date: 4/20/2013
Description: Samples were collected as part of the HyspIRI Airborne Campaign. 48 individual plants were sampled in three times in 2013 - spring  summer  and fall. The name of the sample includes a 1  2  or 3 which references a different individual of the species. Samples were taken to JPL and processed within 48 hours of collection. The same leaves were processed in the Nicolet and then measured using the ASD.
Measurement: Bidirectional reflectance
First Column: X
Second Column: Y
X Units: Wavelength (micrometers)
Y Units: Reflectance (percentage)
First X Value: 0.35
Last X Value: 2.5
Number of X Values: 2151
Additional Information: vegetation.tree.pinus.lambertiana.vswir.vh069.ucsb.asd.ancillary.txt

 0.3500	 5.1910
 0.3510	 5.1690
 0.3520	 5.1490
 0.3530	 5.0760
 0.3540	 4.9870
 0.3550	 5.0390
 0.3560	 5.0420
 0.3570	 4.9620
 0.3580	 4.8570
 0.3590	 4.7910
 0.3600	 4.8520
 0.3610	 4.9770
 0.3620	 4.9040
 0.3630	 4.9290
 0.3640	 4.9930
 0.3650	 4.9730
 0.3660	 4.8590
 0.3670	 4.8540
 0.3680	 4.9350
 0.3690	 4.9360
 0.3700	 4.9890
 0.3710	 4.9620
 0.3720	 4.8360
 0.3730	 4.8410
 0.3740	 4.8660
 0.3750	 4.8860
 0.3760	 4.8970
 0.3770	 4.8630
 0.3780	 4.8360
 0.3790	 4.8010
 0.3800	 4.6990
 0.3810	 4.8030
 0.3820	 4.8700
 0.3830	 4.7640
 0.3840	 4.7410
 0.3850	 4.7960
 0.3860	 4.8480
 0.3870	 4.8050
 0.3880	 4.7520
 0.3890	 4.7530
 0.3900	 4.8110
 0.3910	 4.8680
 0.3920	 4.8150
 0.3930	 4.7470
 0.3940	 4.7530
 0.3950	 4.8060
 0.3960	 4.8080
 0.3970	 4.7880
 0.3980	 4.8270
 0.3990	 4.8760
 0.4000	 4.8850
 0.4010	 4.8510
 0.4020	 4.8350
 0.4030	 4.8380
 0.4040	 4.8700
 0.4050	 4.9230
 0.4060	 4.9420
 0.4070	 4.9590
 0.4080	 4.9940
 0.4090	 5.0520
 0.4100	 5.1210
 0.4110	 5.1900
 0.4120	 5.2510
 0.4130	 5.3040
 0.4140	 5.3560
 0.4150	 5.4000
 0.4160	 5.4320
 0.4170	 5.5040
 0.4180	 5.5740
 0.4190	 5.6370
 0.4200	 5.7170
 0.4210	 5.7630
 0.4220	 5.8100
 0.4230	 5.8830
 0.4240	 5.9580
 0.4250	 6.0220
 0.4260	 6.0750
 0.4270	 6.1290
 0.4280	 6.1850
 0.4290	 6.2430
 0.4300	 6.2910
 0.4310	 6.3030
 0.4320	 6.3280
 0.4330	 6.3580
 0.4340	 6.3800
 0.4350	 6.4270
 0.4360	 6.4570
 0.4370	 6.4750
 0.4380	 6.5160
 0.4390	 6.5570
 0.4400	 6.5890
 0.4410	 6.6100
 0.4420	 6.6360
 0.4430	 6.6630
 0.4440	 6.6870
 0.4450	 6.7020
 0.4460	 6.7200
 0.4470	 6.7440
 0.4480	 6.7720
 0.4490	 6.7950
 0.4500	 6.8130
 0.4510	 6.8350
 0.4520	 6.8630
 0.4530	 6.8820
 0.4540	 6.8870
 0.4550	 6.8890
 0.4560	 6.9100
 0.4570	 6.9220
 0.4580	 6.9320
 0.4590	 6.9470
 0.4600	 6.9490
 0.4610	 6.9590
 0.4620	 6.9700
 0.4630	 6.9710
 0.4640	 6.9850
 0.4650	 6.9930
 0.4660	 6.9940
 0.4670	 7.0030
 0.4680	 7.0130
 0.4690	 7.0150
 0.4700	 7.0080
 0.4710	 7.0100
 0.4720	 7.0230
 0.4730	 7.0310
 0.4740	 7.0230
 0.4750	 7.0330
 0.4760	 7.0390
 0.4770	 7.0320
 0.4780	 7.0420
 0.4790	 7.0470
 0.4800	 7.0480
 0.4810	 7.0520
 0.4820	 7.0690
 0.4830	 7.0820
 0.4840	 7.0840
 0.4850	 7.0850
 0.4860	 7.0910
 0.4870	 7.1050
 0.4880	 7.1260
 0.4890	 7.1370
 0.4900	 7.1540
 0.4910	 7.1750
 0.4920	 7.1960
 0.4930	 7.2180
 0.4940	 7.2410
 0.4950	 7.2690
 0.4960	 7.3040
 0.4970	 7.3430
 0.4980	 7.3910
 0.4990	 7.4500
 0.5000	 7.4970
 0.5010	 7.5520
 0.5020	 7.6200
 0.5030	 7.6940
 0.5040	 7.7760
 0.5050	 7.8650
 0.5060	 7.9570
 0.5070	 8.0620
 0.5080	 8.1800
 0.5090	 8.3080
 0.5100	 8.4420
 0.5110	 8.5910
 0.5120	 8.7530
 0.5130	 8.9260
 0.5140	 9.1160
 0.5150	 9.3150
 0.5160	 9.5190
 0.5170	 9.7300
 0.5180	 9.9600
 0.5190	10.2000
 0.5200	10.4400
 0.5210	10.6780
 0.5220	10.9200
 0.5230	11.1610
 0.5240	11.3930
 0.5250	11.6160
 0.5260	11.8320
 0.5270	12.0410
 0.5280	12.2400
 0.5290	12.4190
 0.5300	12.5850
 0.5310	12.7390
 0.5320	12.8820
 0.5330	13.0140
 0.5340	13.1380
 0.5350	13.2510
 0.5360	13.3500
 0.5370	13.4320
 0.5380	13.5040
 0.5390	13.5760
 0.5400	13.6330
 0.5410	13.6750
 0.5420	13.7100
 0.5430	13.7570
 0.5440	13.8100
 0.5450	13.8660
 0.5460	13.9240
 0.5470	14.0010
 0.5480	14.0730
 0.5490	14.1270
 0.5500	14.1720
 0.5510	14.2080
 0.5520	14.2320
 0.5530	14.2450
 0.5540	14.2410
 0.5550	14.2250
 0.5560	14.1960
 0.5570	14.1470
 0.5580	14.0900
 0.5590	14.0210
 0.5600	13.9360
 0.5610	13.8430
 0.5620	13.7410
 0.5630	13.6340
 0.5640	13.5250
 0.5650	13.4040
 0.5660	13.2760
 0.5670	13.1430
 0.5680	13.0060
 0.5690	12.8590
 0.5700	12.7100
 0.5710	12.5680
 0.5720	12.4280
 0.5730	12.2940
 0.5740	12.1680
 0.5750	12.0510
 0.5760	11.9380
 0.5770	11.8300
 0.5780	11.7280
 0.5790	11.6320
 0.5800	11.5460
 0.5810	11.4700
 0.5820	11.3980
 0.5830	11.3260
 0.5840	11.2590
 0.5850	11.1970
 0.5860	11.1350
 0.5870	11.0700
 0.5880	11.0050
 0.5890	10.9460
 0.5900	10.8940
 0.5910	10.8550
 0.5920	10.8240
 0.5930	10.7910
 0.5940	10.7700
 0.5950	10.7500
 0.5960	10.7250
 0.5970	10.7020
 0.5980	10.6780
 0.5990	10.6510
 0.6000	10.6210
 0.6010	10.5920
 0.6020	10.5610
 0.6030	10.5260
 0.6040	10.4840
 0.6050	10.4380
 0.6060	10.3880
 0.6070	10.3330
 0.6080	10.2700
 0.6090	10.1970
 0.6100	10.1120
 0.6110	10.0180
 0.6120	 9.9490
 0.6130	 9.8970
 0.6140	 9.8490
 0.6150	 9.7920
 0.6160	 9.7320
 0.6170	 9.6760
 0.6180	 9.6250
 0.6190	 9.5730
 0.6200	 9.5270
 0.6210	 9.4910
 0.6220	 9.4600
 0.6230	 9.4310
 0.6240	 9.4090
 0.6250	 9.3950
 0.6260	 9.3780
 0.6270	 9.3660
 0.6280	 9.3600
 0.6290	 9.3560
 0.6300	 9.3530
 0.6310	 9.3470
 0.6320	 9.3350
 0.6330	 9.3180
 0.6340	 9.2890
 0.6350	 9.2510
 0.6360	 9.2020
 0.6370	 9.1380
 0.6380	 9.0660
 0.6390	 8.9890
 0.6400	 8.9010
 0.6410	 8.8060
 0.6420	 8.7090
 0.6430	 8.6150
 0.6440	 8.5250
 0.6450	 8.4340
 0.6460	 8.3470
 0.6470	 8.2690
 0.6480	 8.2030
 0.6490	 8.1450
 0.6500	 8.0950
 0.6510	 8.0570
 0.6520	 8.0280
 0.6530	 8.0020
 0.6540	 7.9750
 0.6550	 7.9480
 0.6560	 7.9200
 0.6570	 7.8880
 0.6580	 7.8490
 0.6590	 7.8020
 0.6600	 7.7540
 0.6610	 7.7060
 0.6620	 7.6580
 0.6630	 7.6150
 0.6640	 7.5740
 0.6650	 7.5350
 0.6660	 7.5020
 0.6670	 7.4770
 0.6680	 7.4590
 0.6690	 7.4450
 0.6700	 7.4380
 0.6710	 7.4370
 0.6720	 7.4410
 0.6730	 7.4480
 0.6740	 7.4620
 0.6750	 7.4810
 0.6760	 7.5030
 0.6770	 7.5310
 0.6780	 7.5620
 0.6790	 7.5960
 0.6800	 7.6390
 0.6810	 7.6910
 0.6820	 7.7510
 0.6830	 7.8220
 0.6840	 7.9090
 0.6850	 8.0140
 0.6860	 8.1440
 0.6870	 8.3100
 0.6880	 8.5180
 0.6890	 8.7850
 0.6900	 9.1190
 0.6910	 9.5250
 0.6920	10.0100
 0.6930	10.5740
 0.6940	11.2120
 0.6950	11.9210
 0.6960	12.6920
 0.6970	13.5190
 0.6980	14.3940
 0.6990	15.3060
 0.7000	16.2460
 0.7010	17.2080
 0.7020	18.1890
 0.7030	19.1780
 0.7040	20.1690
 0.7050	21.1580
 0.7060	22.1470
 0.7070	23.1350
 0.7080	24.1180
 0.7090	25.1020
 0.7100	26.0910
 0.7110	27.0840
 0.7120	28.0790
 0.7130	29.0790
 0.7140	30.0830
 0.7150	31.0890
 0.7160	32.0960
 0.7170	33.1010
 0.7180	34.1080
 0.7190	35.1140
 0.7200	36.1140
 0.7210	37.1100
 0.7220	38.0960
 0.7230	39.0690
 0.7240	40.0300
 0.7250	40.9780
 0.7260	41.9050
 0.7270	42.8050
 0.7280	43.6790
 0.7290	44.5280
 0.7300	45.3530
 0.7310	46.1490
 0.7320	46.9120
 0.7330	47.6410
 0.7340	48.3400
 0.7350	49.0180
 0.7360	49.6570
 0.7370	50.2610
 0.7380	50.8350
 0.7390	51.3790
 0.7400	51.8970
 0.7410	52.3840
 0.7420	52.8370
 0.7430	53.2600
 0.7440	53.6590
 0.7450	54.0320
 0.7460	54.3670
 0.7470	54.6820
 0.7480	54.9770
 0.7490	55.2510
 0.7500	55.5030
 0.7510	55.7330
 0.7520	55.9420
 0.7530	56.1340
 0.7540	56.3090
 0.7550	56.4750
 0.7560	56.6300
 0.7570	56.7650
 0.7580	56.8920
 0.7590	57.0140
 0.7600	57.1260
 0.7610	57.2260
 0.7620	57.3200
 0.7630	57.4080
 0.7640	57.4870
 0.7650	57.5650
 0.7660	57.6380
 0.7670	57.7020
 0.7680	57.7590
 0.7690	57.8140
 0.7700	57.8680
 0.7710	57.9210
 0.7720	57.9730
 0.7730	58.0200
 0.7740	58.0650
 0.7750	58.1110
 0.7760	58.1600
 0.7770	58.2050
 0.7780	58.2480
 0.7790	58.2920
 0.7800	58.3290
 0.7810	58.3670
 0.7820	58.4080
 0.7830	58.4460
 0.7840	58.4860
 0.7850	58.5270
 0.7860	58.5680
 0.7870	58.6010
 0.7880	58.6390
 0.7890	58.6810
 0.7900	58.7200
 0.7910	58.7570
 0.7920	58.7880
 0.7930	58.8180
 0.7940	58.8540
 0.7950	58.8860
 0.7960	58.9120
 0.7970	58.9360
 0.7980	58.9660
 0.7990	59.0020
 0.8000	59.0340
 0.8010	59.0580
 0.8020	59.0880
 0.8030	59.1150
 0.8040	59.1400
 0.8050	59.1650
 0.8060	59.1870
 0.8070	59.2110
 0.8080	59.2380
 0.8090	59.2640
 0.8100	59.2790
 0.8110	59.2980
 0.8120	59.3260
 0.8130	59.3480
 0.8140	59.3710
 0.8150	59.3910
 0.8160	59.4060
 0.8170	59.4290
 0.8180	59.4470
 0.8190	59.4620
 0.8200	59.4830
 0.8210	59.5070
 0.8220	59.5310
 0.8230	59.5520
 0.8240	59.5700
 0.8250	59.5800
 0.8260	59.5910
 0.8270	59.6040
 0.8280	59.6130
 0.8290	59.6280
 0.8300	59.6460
 0.8310	59.6610
 0.8320	59.6770
 0.8330	59.6870
 0.8340	59.6980
 0.8350	59.7210
 0.8360	59.7330
 0.8370	59.7450
 0.8380	59.7620
 0.8390	59.7820
 0.8400	59.8050
 0.8410	59.8330
 0.8420	59.8600
 0.8430	59.8740
 0.8440	59.8950
 0.8450	59.9170
 0.8460	59.9370
 0.8470	59.9620
 0.8480	59.9930
 0.8490	60.0210
 0.8500	60.0400
 0.8510	60.0610
 0.8520	60.0770
 0.8530	60.0930
 0.8540	60.1160
 0.8550	60.1450
 0.8560	60.1700
 0.8570	60.1900
 0.8580	60.2110
 0.8590	60.2200
 0.8600	60.2320
 0.8610	60.2520
 0.8620	60.2700
 0.8630	60.2910
 0.8640	60.3120
 0.8650	60.3300
 0.8660	60.3450
 0.8670	60.3630
 0.8680	60.3840
 0.8690	60.4040
 0.8700	60.4250
 0.8710	60.4410
 0.8720	60.4500
 0.8730	60.4600
 0.8740	60.4830
 0.8750	60.5040
 0.8760	60.5200
 0.8770	60.5400
 0.8780	60.5500
 0.8790	60.5590
 0.8800	60.5720
 0.8810	60.5910
 0.8820	60.5970
 0.8830	60.6080
 0.8840	60.6310
 0.8850	60.6320
 0.8860	60.6400
 0.8870	60.6520
 0.8880	60.6580
 0.8890	60.6650
 0.8900	60.6620
 0.8910	60.6580
 0.8920	60.6660
 0.8930	60.6740
 0.8940	60.6850
 0.8950	60.6910
 0.8960	60.6880
 0.8970	60.6960
 0.8980	60.7030
 0.8990	60.7050
 0.9000	60.7100
 0.9010	60.7110
 0.9020	60.7130
 0.9030	60.7150
 0.9040	60.7070
 0.9050	60.7090
 0.9060	60.7150
 0.9070	60.7170
 0.9080	60.7170
 0.9090	60.7160
 0.9100	60.7170
 0.9110	60.7170
 0.9120	60.7140
 0.9130	60.7100
 0.9140	60.7090
 0.9150	60.7130
 0.9160	60.7100
 0.9170	60.7070
 0.9180	60.7060
 0.9190	60.7050
 0.9200	60.6830
 0.9210	60.6750
 0.9220	60.6760
 0.9230	60.6640
 0.9240	60.6390
 0.9250	60.6110
 0.9260	60.5810
 0.9270	60.5490
 0.9280	60.5380
 0.9290	60.5220
 0.9300	60.4870
 0.9310	60.4320
 0.9320	60.3940
 0.9330	60.3520
 0.9340	60.3020
 0.9350	60.2610
 0.9360	60.1990
 0.9370	60.1410
 0.9380	60.1000
 0.9390	60.0490
 0.9400	59.9870
 0.9410	59.9110
 0.9420	59.8270
 0.9430	59.7540
 0.9440	59.6840
 0.9450	59.5990
 0.9460	59.4910
 0.9470	59.3740
 0.9480	59.2620
 0.9490	59.1360
 0.9500	58.9870
 0.9510	58.8560
 0.9520	58.7130
 0.9530	58.5650
 0.9540	58.4190
 0.9550	58.2530
 0.9560	58.1010
 0.9570	57.9540
 0.9580	57.8000
 0.9590	57.6600
 0.9600	57.5270
 0.9610	57.4140
 0.9620	57.3270
 0.9630	57.2300
 0.9640	57.1360
 0.9650	57.0520
 0.9660	56.9800
 0.9670	56.9110
 0.9680	56.8630
 0.9690	56.8250
 0.9700	56.7810
 0.9710	56.7430
 0.9720	56.6960
 0.9730	56.6520
 0.9740	56.6260
 0.9750	56.5970
 0.9760	56.5880
 0.9770	56.5780
 0.9780	56.5390
 0.9790	56.5390
 0.9800	56.5410
 0.9810	56.5390
 0.9820	56.5430
 0.9830	56.5670
 0.9840	56.5980
 0.9850	56.6190
 0.9860	56.6210
 0.9870	56.6420
 0.9880	56.6960
 0.9890	56.7530
 0.9900	56.7790
 0.9910	56.8090
 0.9920	56.9010
 0.9930	56.9940
 0.9940	57.0860
 0.9950	57.1780
 0.9960	57.2710
 0.9970	57.3630
 0.9980	57.4550
 0.9990	57.5480
 1.0000	57.6400
 1.0010	57.7320
 1.0020	57.8250
 1.0030	57.9170
 1.0040	58.0090
 1.0050	58.1020
 1.0060	58.1940
 1.0070	58.2860
 1.0080	58.3780
 1.0090	58.4710
 1.0100	58.4710
 1.0110	58.5410
 1.0120	58.6150
 1.0130	58.6920
 1.0140	58.7670
 1.0150	58.8450
 1.0160	58.9170
 1.0170	58.9920
 1.0180	59.0710
 1.0190	59.1510
 1.0200	59.2260
 1.0210	59.2990
 1.0220	59.3800
 1.0230	59.4560
 1.0240	59.5320
 1.0250	59.6070
 1.0260	59.6800
 1.0270	59.7500
 1.0280	59.8200
 1.0290	59.8890
 1.0300	59.9500
 1.0310	60.0170
 1.0320	60.0890
 1.0330	60.1580
 1.0340	60.2280
 1.0350	60.2970
 1.0360	60.3630
 1.0370	60.4210
 1.0380	60.4820
 1.0390	60.5390
 1.0400	60.5990
 1.0410	60.6600
 1.0420	60.7180
 1.0430	60.7780
 1.0440	60.8320
 1.0450	60.8800
 1.0460	60.9310
 1.0470	60.9800
 1.0480	61.0300
 1.0490	61.0820
 1.0500	61.1320
 1.0510	61.1820
 1.0520	61.2330
 1.0530	61.2750
 1.0540	61.3130
 1.0550	61.3530
 1.0560	61.3900
 1.0570	61.4240
 1.0580	61.4610
 1.0590	61.4940
 1.0600	61.5150
 1.0610	61.5470
 1.0620	61.5920
 1.0630	61.6260
 1.0640	61.6610
 1.0650	61.6920
 1.0660	61.7120
 1.0670	61.7350
 1.0680	61.7590
 1.0690	61.7850
 1.0700	61.8070
 1.0710	61.8270
 1.0720	61.8450
 1.0730	61.8590
 1.0740	61.8720
 1.0750	61.8830
 1.0760	61.8920
 1.0770	61.9000
 1.0780	61.9070
 1.0790	61.9150
 1.0800	61.9200
 1.0810	61.9220
 1.0820	61.9240
 1.0830	61.9260
 1.0840	61.9240
 1.0850	61.9200
 1.0860	61.9140
 1.0870	61.9070
 1.0880	61.8970
 1.0890	61.8870
 1.0900	61.8810
 1.0910	61.8660
 1.0920	61.8440
 1.0930	61.8260
 1.0940	61.8050
 1.0950	61.7820
 1.0960	61.7610
 1.0970	61.7370
 1.0980	61.7080
 1.0990	61.6800
 1.1000	61.6540
 1.1010	61.6250
 1.1020	61.5940
 1.1030	61.5630
 1.1040	61.5280
 1.1050	61.4930
 1.1060	61.4570
 1.1070	61.4180
 1.1080	61.3800
 1.1090	61.3460
 1.1100	61.3050
 1.1110	61.2630
 1.1120	61.2150
 1.1130	61.1600
 1.1140	61.1050
 1.1150	61.0520
 1.1160	60.9900
 1.1170	60.9260
 1.1180	60.8530
 1.1190	60.7730
 1.1200	60.6860
 1.1210	60.5900
 1.1220	60.4880
 1.1230	60.3730
 1.1240	60.2470
 1.1250	60.1090
 1.1260	59.9610
 1.1270	59.8000
 1.1280	59.6310
 1.1290	59.4420
 1.1300	59.2410
 1.1310	59.0180
 1.1320	58.7720
 1.1330	58.5170
 1.1340	58.2470
 1.1350	57.9640
 1.1360	57.6690
 1.1370	57.3600
 1.1380	57.0380
 1.1390	56.7040
 1.1400	56.3600
 1.1410	56.0150
 1.1420	55.6660
 1.1430	55.3110
 1.1440	54.9600
 1.1450	54.6040
 1.1460	54.2640
 1.1470	53.9250
 1.1480	53.6040
 1.1490	53.2960
 1.1500	53.0030
 1.1510	52.7190
 1.1520	52.4530
 1.1530	52.2010
 1.1540	51.9650
 1.1550	51.7430
 1.1560	51.5400
 1.1570	51.3530
 1.1580	51.1840
 1.1590	51.0300
 1.1600	50.8850
 1.1610	50.7550
 1.1620	50.6370
 1.1630	50.5290
 1.1640	50.4320
 1.1650	50.3410
 1.1660	50.2600
 1.1670	50.1830
 1.1680	50.1150
 1.1690	50.0470
 1.1700	49.9840
 1.1710	49.9240
 1.1720	49.8700
 1.1730	49.8140
 1.1740	49.7610
 1.1750	49.7090
 1.1760	49.6520
 1.1770	49.5960
 1.1780	49.5410
 1.1790	49.4830
 1.1800	49.4260
 1.1810	49.3680
 1.1820	49.3100
 1.1830	49.2530
 1.1840	49.1950
 1.1850	49.1360
 1.1860	49.0780
 1.1870	49.0230
 1.1880	48.9730
 1.1890	48.9270
 1.1900	48.8840
 1.1910	48.8450
 1.1920	48.8120
 1.1930	48.7820
 1.1940	48.7560
 1.1950	48.7340
 1.1960	48.7150
 1.1970	48.6980
 1.1980	48.6880
 1.1990	48.6840
 1.2000	48.6850
 1.2010	48.6910
 1.2020	48.7000
 1.2030	48.7130
 1.2040	48.7310
 1.2050	48.7510
 1.2060	48.7750
 1.2070	48.8050
 1.2080	48.8390
 1.2090	48.8790
 1.2100	48.9220
 1.2110	48.9680
 1.2120	49.0160
 1.2130	49.0690
 1.2140	49.1270
 1.2150	49.1880
 1.2160	49.2560
 1.2170	49.3240
 1.2180	49.3930
 1.2190	49.4650
 1.2200	49.5400
 1.2210	49.6170
 1.2220	49.6960
 1.2230	49.7750
 1.2240	49.8540
 1.2250	49.9330
 1.2260	50.0130
 1.2270	50.0890
 1.2280	50.1620
 1.2290	50.2370
 1.2300	50.3090
 1.2310	50.3800
 1.2320	50.4540
 1.2330	50.5240
 1.2340	50.5920
 1.2350	50.6590
 1.2360	50.7250
 1.2370	50.7880
 1.2380	50.8480
 1.2390	50.9070
 1.2400	50.9660
 1.2410	51.0230
 1.2420	51.0780
 1.2430	51.1350
 1.2440	51.1870
 1.2450	51.2330
 1.2460	51.2800
 1.2470	51.3250
 1.2480	51.3680
 1.2490	51.4120
 1.2500	51.4550
 1.2510	51.4970
 1.2520	51.5370
 1.2530	51.5740
 1.2540	51.6130
 1.2550	51.6480
 1.2560	51.6820
 1.2570	51.7150
 1.2580	51.7440
 1.2590	51.7710
 1.2600	51.7940
 1.2610	51.8160
 1.2620	51.8360
 1.2630	51.8550
 1.2640	51.8740
 1.2650	51.8930
 1.2660	51.9070
 1.2670	51.9180
 1.2680	51.9270
 1.2690	51.9310
 1.2700	51.9340
 1.2710	51.9380
 1.2720	51.9400
 1.2730	51.9370
 1.2740	51.9340
 1.2750	51.9250
 1.2760	51.9110
 1.2770	51.8990
 1.2780	51.8820
 1.2790	51.8620
 1.2800	51.8410
 1.2810	51.8160
 1.2820	51.7860
 1.2830	51.7560
 1.2840	51.7210
 1.2850	51.6850
 1.2860	51.6450
 1.2870	51.6000
 1.2880	51.5510
 1.2890	51.4980
 1.2900	51.4390
 1.2910	51.3760
 1.2920	51.3110
 1.2930	51.2430
 1.2940	51.1700
 1.2950	51.0920
 1.2960	51.0060
 1.2970	50.9150
 1.2980	50.8210
 1.2990	50.7230
 1.3000	50.6210
 1.3010	50.5140
 1.3020	50.3990
 1.3030	50.2790
 1.3040	50.1510
 1.3050	50.0190
 1.3060	49.8810
 1.3070	49.7340
 1.3080	49.5830
 1.3090	49.4280
 1.3100	49.2650
 1.3110	49.0980
 1.3120	48.9240
 1.3130	48.7430
 1.3140	48.5580
 1.3150	48.3670
 1.3160	48.1700
 1.3170	47.9690
 1.3180	47.7620
 1.3190	47.5450
 1.3200	47.3230
 1.3210	47.0950
 1.3220	46.8640
 1.3230	46.6290
 1.3240	46.3890
 1.3250	46.1480
 1.3260	45.9000
 1.3270	45.6500
 1.3280	45.3990
 1.3290	45.1450
 1.3300	44.8890
 1.3310	44.6310
 1.3320	44.3710
 1.3330	44.1100
 1.3340	43.8500
 1.3350	43.5910
 1.3360	43.3330
 1.3370	43.0750
 1.3380	42.8200
 1.3390	42.5670
 1.3400	42.3160
 1.3410	42.0710
 1.3420	41.8300
 1.3430	41.5900
 1.3440	41.3560
 1.3450	41.1250
 1.3460	40.8960
 1.3470	40.6730
 1.3480	40.4540
 1.3490	40.2400
 1.3500	40.0310
 1.3510	39.8270
 1.3520	39.6250
 1.3530	39.4270
 1.3540	39.2290
 1.3550	39.0320
 1.3560	38.8350
 1.3570	38.6380
 1.3580	38.4420
 1.3590	38.2440
 1.3600	38.0440
 1.3610	37.8420
 1.3620	37.6330
 1.3630	37.4180
 1.3640	37.1960
 1.3650	36.9650
 1.3660	36.7300
 1.3670	36.4860
 1.3680	36.2300
 1.3690	35.9620
 1.3700	35.6780
 1.3710	35.3810
 1.3720	35.0670
 1.3730	34.7360
 1.3740	34.3910
 1.3750	34.0260
 1.3760	33.6390
 1.3770	33.2310
 1.3780	32.7950
 1.3790	32.3370
 1.3800	31.8580
 1.3810	31.3520
 1.3820	30.8330
 1.3830	30.2940
 1.3840	29.7410
 1.3850	29.1690
 1.3860	28.5900
 1.3870	27.9920
 1.3880	27.3970
 1.3890	26.7940
 1.3900	26.1890
 1.3910	25.5910
 1.3920	24.9960
 1.3930	24.4040
 1.3940	23.8230
 1.3950	23.2460
 1.3960	22.6830
 1.3970	22.1370
 1.3980	21.6050
 1.3990	21.0980
 1.4000	20.6100
 1.4010	20.1390
 1.4020	19.6910
 1.4030	19.2600
 1.4040	18.8510
 1.4050	18.4640
 1.4060	18.0960
 1.4070	17.7530
 1.4080	17.4290
 1.4090	17.1220
 1.4100	16.8350
 1.4110	16.5630
 1.4120	16.3100
 1.4130	16.0730
 1.4140	15.8510
 1.4150	15.6470
 1.4160	15.4550
 1.4170	15.2760
 1.4180	15.1100
 1.4190	14.9540
 1.4200	14.8080
 1.4210	14.6730
 1.4220	14.5470
 1.4230	14.4320
 1.4240	14.3260
 1.4250	14.2270
 1.4260	14.1350
 1.4270	14.0500
 1.4280	13.9710
 1.4290	13.8980
 1.4300	13.8310
 1.4310	13.7700
 1.4320	13.7150
 1.4330	13.6640
 1.4340	13.6200
 1.4350	13.5780
 1.4360	13.5400
 1.4370	13.5070
 1.4380	13.4770
 1.4390	13.4500
 1.4400	13.4280
 1.4410	13.4090
 1.4420	13.3930
 1.4430	13.3800
 1.4440	13.3690
 1.4450	13.3590
 1.4460	13.3520
 1.4470	13.3470
 1.4480	13.3440
 1.4490	13.3440
 1.4500	13.3450
 1.4510	13.3470
 1.4520	13.3500
 1.4530	13.3560
 1.4540	13.3640
 1.4550	13.3720
 1.4560	13.3830
 1.4570	13.3950
 1.4580	13.4100
 1.4590	13.4270
 1.4600	13.4470
 1.4610	13.4710
 1.4620	13.4960
 1.4630	13.5250
 1.4640	13.5570
 1.4650	13.5920
 1.4660	13.6300
 1.4670	13.6720
 1.4680	13.7180
 1.4690	13.7660
 1.4700	13.8160
