Name: Olea africana
Type: vegetation
Class: Tree
Genus: Olea
Species: africana
Sample No.: JPL226
Owner: JPL
Wavelength Range: TIR
Origin: 34.12663; -118.11491; WGS84
Collection Date: 10/3/2016
Description: Samples were collected at the Huntington Garden in San Marino California as part of a JPL Subcontract studying HyTES imagery. Samples were taken to JPL and processed within 48 hours of collection. The same leaves were processed in the Nicolet and then measured using the ASD.
Measurement: Hemispherical reflectance
First Column: X
Second Column: Y
X Units: Wavelength (micrometer)
Y Units: Reflectance (percentage)
First X Value: 2.501
Last X Value: 15.387
Number of X Values: 1737
Additional Information: vegetation.tree.olea.africana.tir.jpl226.jpl.nicolet.ancillary.txt

 2.5010	 6.4240
 2.5030	 6.3920
 2.5040	 6.4240
 2.5050	 6.4010
 2.5060	 6.4590
 2.5070	 6.4520
 2.5090	 6.4800
 2.5100	 6.4650
 2.5110	 6.4370
 2.5120	 6.4000
 2.5140	 6.4580
 2.5150	 6.4180
 2.5160	 6.3880
 2.5170	 6.3640
 2.5180	 6.4170
 2.5200	 6.4150
 2.5210	 6.4100
 2.5220	 6.3820
 2.5230	 6.4060
 2.5250	 6.3840
 2.5260	 6.3780
 2.5270	 6.3060
 2.5280	 6.3360
 2.5300	 6.3800
 2.5310	 6.4430
 2.5320	 6.4620
 2.5330	 6.4410
 2.5340	 6.3680
 2.5360	 6.3910
 2.5370	 6.3990
 2.5380	 6.4320
 2.5390	 6.3800
 2.5410	 6.3890
 2.5420	 6.3820
 2.5430	 6.4010
 2.5440	 6.3220
 2.5460	 6.3920
 2.5470	 6.4430
 2.5480	 6.4310
 2.5490	 6.3580
 2.5510	 6.3730
 2.5520	 6.3770
 2.5530	 6.4200
 2.5540	 6.4290
 2.5560	 6.4490
 2.5570	 6.4040
 2.5580	 6.4420
 2.5590	 6.4330
 2.5610	 6.4840
 2.5620	 6.4730
 2.5630	 6.4550
 2.5650	 6.4210
 2.5660	 6.4390
 2.5670	 6.4130
 2.5680	 6.4300
 2.5700	 6.3910
 2.5710	 6.4230
 2.5720	 6.4740
 2.5730	 6.4430
 2.5750	 6.4060
 2.5760	 6.4290
 2.5770	 6.4100
 2.5790	 6.4120
 2.5800	 6.3410
 2.5810	 6.3550
 2.5820	 6.3960
 2.5840	 6.4050
 2.5850	 6.3360
 2.5860	 6.3850
 2.5880	 6.4000
 2.5890	 6.4360
 2.5900	 6.3930
 2.5910	 6.4210
 2.5930	 6.3390
 2.5940	 6.2270
 2.5950	 6.2250
 2.5970	 6.3730
 2.5980	 6.3820
 2.5990	 6.3600
 2.6010	 6.3030
 2.6020	 6.3430
 2.6030	 6.3600
 2.6040	 6.3260
 2.6060	 6.2400
 2.6070	 6.2780
 2.6080	 6.2510
 2.6100	 6.2600
 2.6110	 6.2530
 2.6120	 6.2360
 2.6140	 6.2050
 2.6150	 6.2630
 2.6160	 6.2400
 2.6180	 6.2540
 2.6190	 6.2150
 2.6200	 6.1830
 2.6220	 6.1700
 2.6230	 6.2120
 2.6240	 6.1860
 2.6260	 6.1650
 2.6270	 6.0840
 2.6280	 6.0970
 2.6300	 5.9930
 2.6310	 5.9770
 2.6320	 6.0550
 2.6340	 6.0820
 2.6350	 6.0680
 2.6360	 6.1060
 2.6380	 6.0340
 2.6390	 6.0290
 2.6400	 6.0590
 2.6420	 6.0720
 2.6430	 6.0520
 2.6440	 6.0500
 2.6460	 5.9590
 2.6470	 6.0160
 2.6480	 6.0370
 2.6500	 5.9490
 2.6510	 5.8690
 2.6520	 5.9060
 2.6540	 5.9230
 2.6550	 5.9880
 2.6570	 5.9700
 2.6580	 5.9390
 2.6590	 5.8790
 2.6610	 5.8860
 2.6620	 5.8470
 2.6630	 5.8580
 2.6650	 5.7880
 2.6660	 5.8100
 2.6670	 5.8290
 2.6690	 5.8780
 2.6700	 5.8470
 2.6720	 5.8460
 2.6730	 5.8910
 2.6740	 5.9270
 2.6760	 5.8400
 2.6770	 5.8530
 2.6780	 5.8290
 2.6800	 5.8620
 2.6810	 5.8720
 2.6830	 5.8620
 2.6840	 5.8070
 2.6850	 5.8250
 2.6870	 5.8050
 2.6880	 5.8230
 2.6900	 5.8100
 2.6910	 5.8460
 2.6920	 5.8000
 2.6940	 5.7690
 2.6950	 5.7160
 2.6970	 5.7100
 2.6980	 5.6950
 2.6990	 5.7560
 2.7010	 5.7500
 2.7020	 5.8110
 2.7040	 5.7870
 2.7050	 5.7700
 2.7060	 5.7340
 2.7080	 5.7300
 2.7090	 5.7090
 2.7110	 5.6920
 2.7120	 5.6330
 2.7130	 5.6780
 2.7150	 5.6660
 2.7160	 5.6770
 2.7180	 5.6620
 2.7190	 5.6860
 2.7210	 5.6340
 2.7220	 5.6320
 2.7230	 5.5740
 2.7250	 5.6330
 2.7260	 5.6350
 2.7280	 5.6060
 2.7290	 5.5710
 2.7310	 5.5730
 2.7320	 5.5460
 2.7340	 5.5380
 2.7350	 5.5360
 2.7360	 5.5550
 2.7380	 5.4960
 2.7390	 5.4850
 2.7410	 5.4950
 2.7420	 5.5750
 2.7440	 5.5150
 2.7450	 5.4600
 2.7470	 5.4120
 2.7480	 5.4290
 2.7490	 5.4610
 2.7510	 5.4420
 2.7520	 5.4300
 2.7540	 5.4990
 2.7550	 5.4200
 2.7570	 5.3820
 2.7580	 5.3260
 2.7600	 5.4080
 2.7610	 5.3630
 2.7630	 5.3420
 2.7640	 5.3360
 2.7660	 5.4070
 2.7670	 5.3880
 2.7690	 5.3330
 2.7700	 5.2800
 2.7720	 5.3340
 2.7730	 5.2620
 2.7740	 5.2590
 2.7760	 5.3280
 2.7770	 5.3930
 2.7790	 5.3870
 2.7800	 5.3890
 2.7820	 5.3210
 2.7830	 5.3270
 2.7850	 5.3340
 2.7860	 5.3340
 2.7880	 5.2520
 2.7890	 5.2700
 2.7910	 5.2180
 2.7920	 5.2340
 2.7940	 5.2080
 2.7950	 5.2060
 2.7970	 5.1660
 2.7980	 5.1580
 2.8000	 5.1500
 2.8010	 5.1350
 2.8030	 5.0860
 2.8040	 5.1830
 2.8060	 5.1890
 2.8080	 5.1760
 2.8090	 5.1160
 2.8110	 5.1770
 2.8120	 5.1760
 2.8140	 5.1730
 2.8150	 5.0990
 2.8170	 5.0850
 2.8180	 5.0150
 2.8200	 5.0660
 2.8210	 5.0970
 2.8230	 5.1270
 2.8240	 5.1270
 2.8260	 5.1170
 2.8270	 5.0530
 2.8290	 5.1490
 2.8310	 5.1280
 2.8320	 5.0760
 2.8340	 5.0300
 2.8350	 5.0530
 2.8370	 5.0290
 2.8380	 5.0460
 2.8400	 4.9960
 2.8410	 5.0420
 2.8430	 5.0940
 2.8440	 5.1480
 2.8460	 5.1080
 2.8480	 5.1250
 2.8490	 5.1030
 2.8510	 5.0940
 2.8520	 5.0210
 2.8540	 5.0190
 2.8550	 5.0220
 2.8570	 4.9970
 2.8590	 4.9720
 2.8600	 4.9920
 2.8620	 4.9850
 2.8630	 5.0500
 2.8650	 5.0590
 2.8660	 5.0300
 2.8680	 5.0130
 2.8700	 5.0800
 2.8710	 5.0040
 2.8730	 4.9800
 2.8740	 4.9880
 2.8760	 5.0040
 2.8780	 4.9540
 2.8790	 4.9550
 2.8810	 4.9170
 2.8820	 4.9530
 2.8840	 4.9250
 2.8860	 4.9230
 2.8870	 4.9580
 2.8890	 4.9360
 2.8900	 4.8410
 2.8920	 4.8690
 2.8940	 4.9570
 2.8950	 5.1030
 2.8970	 5.0850
 2.8990	 5.0770
 2.9000	 5.0190
 2.9020	 5.0070
 2.9030	 4.9270
 2.9050	 4.9170
 2.9070	 4.9330
 2.9080	 4.9930
 2.9100	 5.0200
 2.9120	 5.0570
 2.9130	 5.0010
 2.9150	 5.0720
 2.9160	 5.0840
 2.9180	 5.0240
 2.9200	 4.9600
 2.9210	 4.9750
 2.9230	 4.9380
 2.9250	 5.0290
 2.9260	 4.9950
 2.9280	 5.0010
 2.9300	 5.0430
 2.9310	 5.0770
 2.9330	 4.9750
 2.9350	 4.9450
 2.9360	 4.9400
 2.9380	 4.9510
 2.9400	 4.9600
 2.9410	 4.9960
 2.9430	 4.9620
 2.9450	 5.0970
 2.9460	 5.1040
 2.9480	 5.0120
 2.9500	 4.9790
 2.9510	 5.1340
 2.9530	 5.0830
 2.9550	 4.9590
 2.9560	 4.9090
 2.9580	 5.0260
 2.9600	 5.0250
 2.9610	 5.0810
 2.9630	 5.0980
 2.9650	 5.0640
 2.9670	 5.0170
 2.9680	 5.0600
 2.9700	 5.0660
 2.9720	 5.0680
 2.9730	 5.0430
 2.9750	 5.1140
 2.9770	 5.0930
 2.9780	 5.0800
 2.9800	 5.0300
 2.9820	 5.0340
 2.9840	 5.0270
 2.9850	 5.0380
 2.9870	 5.0160
 2.9890	 5.0760
 2.9900	 5.0940
 2.9920	 5.1180
 2.9940	 5.0420
 2.9960	 5.1050
 2.9970	 5.1340
 2.9990	 5.1280
 3.0010	 5.0680
 3.0030	 5.1030
 3.0040	 5.0810
 3.0060	 5.1020
 3.0080	 5.0600
 3.0100	 5.1040
 3.0110	 5.0630
 3.0130	 5.1080
 3.0150	 5.0920
 3.0170	 5.1070
 3.0180	 5.0940
 3.0200	 5.1510
 3.0220	 5.1380
 3.0240	 5.1270
 3.0250	 5.0830
 3.0270	 5.0830
 3.0290	 5.0660
 3.0310	 5.0970
 3.0320	 5.0910
 3.0340	 5.1350
 3.0360	 5.0690
 3.0380	 5.1490
 3.0400	 5.2020
 3.0410	 5.2280
 3.0430	 5.1350
 3.0450	 5.0940
 3.0470	 5.1170
 3.0480	 5.1470
 3.0500	 5.1480
 3.0520	 5.1810
 3.0540	 5.1330
 3.0560	 5.2000
 3.0570	 5.1910
 3.0590	 5.1660
 3.0610	 5.1180
 3.0630	 5.1580
 3.0650	 5.1370
 3.0670	 5.1140
 3.0680	 5.0560
 3.0700	 5.1000
 3.0720	 5.0870
 3.0740	 5.1180
 3.0760	 5.1610
 3.0770	 5.1790
 3.0790	 5.1260
 3.0810	 5.1860
 3.0830	 5.1220
 3.0850	 5.1470
 3.0870	 5.1540
 3.0880	 5.1810
 3.0900	 5.1460
 3.0920	 5.1390
 3.0940	 5.1350
 3.0960	 5.1950
 3.0980	 5.1940
 3.1000	 5.1940
 3.1010	 5.1930
 3.1030	 5.1890
 3.1050	 5.1690
 3.1070	 5.1980
 3.1090	 5.1320
 3.1110	 5.1500
 3.1130	 5.1670
 3.1140	 5.1960
 3.1160	 5.1590
 3.1180	 5.1780
 3.1200	 5.1890
 3.1220	 5.2110
 3.1240	 5.1400
 3.1260	 5.1300
 3.1280	 5.1620
 3.1290	 5.2020
 3.1310	 5.1620
 3.1330	 5.2030
 3.1350	 5.1880
 3.1370	 5.1930
 3.1390	 5.1720
 3.1410	 5.1880
 3.1430	 5.2050
 3.1450	 5.2100
 3.1470	 5.1730
 3.1480	 5.2150
 3.1500	 5.1940
 3.1520	 5.1990
 3.1540	 5.1460
 3.1560	 5.1720
 3.1580	 5.1840
 3.1600	 5.2440
 3.1620	 5.2350
 3.1640	 5.2430
 3.1660	 5.2180
 3.1680	 5.2380
 3.1700	 5.2100
 3.1720	 5.1950
 3.1730	 5.1780
 3.1750	 5.2560
 3.1770	 5.2570
 3.1790	 5.2330
 3.1810	 5.2230
 3.1830	 5.2490
 3.1850	 5.2150
 3.1870	 5.2170
 3.1890	 5.1780
 3.1910	 5.2300
 3.1930	 5.2250
 3.1950	 5.1830
 3.1970	 5.1630
 3.1990	 5.1970
 3.2010	 5.2310
 3.2030	 5.2210
 3.2050	 5.1950
 3.2070	 5.2280
 3.2090	 5.2690
 3.2110	 5.3240
 3.2130	 5.2440
 3.2150	 5.2110
 3.2170	 5.2030
 3.2190	 5.1960
 3.2210	 5.1300
 3.2230	 5.1510
 3.2250	 5.1420
 3.2270	 5.1870
 3.2290	 5.2050
 3.2310	 5.2250
 3.2330	 5.1920
 3.2350	 5.2170
 3.2370	 5.1790
 3.2390	 5.1920
 3.2410	 5.2290
 3.2430	 5.2100
 3.2450	 5.1590
 3.2470	 5.1730
 3.2490	 5.1700
 3.2510	 5.2210
 3.2530	 5.2030
 3.2550	 5.1800
 3.2570	 5.1580
 3.2590	 5.1910
 3.2610	 5.1550
 3.2630	 5.1530
 3.2650	 5.1720
 3.2670	 5.2010
 3.2700	 5.1880
 3.2720	 5.2070
 3.2740	 5.1830
 3.2760	 5.2270
 3.2780	 5.2220
 3.2800	 5.1690
 3.2820	 5.0850
 3.2840	 5.1330
 3.2860	 5.1920
 3.2880	 5.2570
 3.2900	 5.2450
 3.2920	 5.1940
 3.2940	 5.1130
 3.2970	 5.1180
 3.2990	 5.1110
 3.3010	 5.1600
 3.3030	 5.1270
 3.3050	 5.1180
 3.3070	 5.1240
 3.3090	 5.0800
 3.3110	 5.0400
 3.3130	 5.0920
 3.3160	 5.0680
 3.3180	 5.0790
 3.3200	 5.0380
 3.3220	 5.0140
 3.3240	 5.0060
 3.3260	 5.0440
 3.3280	 5.0030
 3.3300	 4.9950
 3.3330	 4.9710
 3.3350	 4.9480
 3.3370	 4.9250
 3.3390	 4.9740
 3.3410	 5.0050
 3.3430	 4.9620
 3.3450	 4.8710
 3.3480	 4.9020
 3.3500	 4.9030
 3.3520	 4.8620
 3.3540	 4.8290
 3.3560	 4.8660
 3.3580	 4.8730
 3.3610	 4.8830
 3.3630	 4.8350
 3.3650	 4.8220
 3.3670	 4.7730
 3.3690	 4.7560
 3.3720	 4.7400
 3.3740	 4.7840
 3.3760	 4.7790
 3.3780	 4.7930
 3.3800	 4.8020
 3.3830	 4.8060
 3.3850	 4.7530
 3.3870	 4.7240
 3.3890	 4.6990
 3.3910	 4.7050
 3.3940	 4.6620
 3.3960	 4.7140
 3.3980	 4.7290
 3.4000	 4.7910
 3.4030	 4.8350
 3.4050	 4.8790
 3.4070	 4.9380
 3.4090	 5.0450
 3.4110	 5.1390
 3.4140	 5.3000
 3.4160	 5.4840
 3.4180	 5.7320
 3.4200	 5.9860
 3.4230	 6.3640
 3.4250	 6.7750
 3.4270	 7.1710
 3.4300	 7.3860
 3.4320	 7.1830
 3.4340	 6.6880
 3.4360	 6.2970
 3.4390	 5.9900
 3.4410	 5.8430
 3.4430	 5.7920
 3.4450	 5.7680
 3.4480	 5.7100
 3.4500	 5.7260
 3.4520	 5.7070
 3.4550	 5.6640
 3.4570	 5.6450
 3.4590	 5.6640
 3.4620	 5.6330
 3.4640	 5.5870
 3.4660	 5.5300
 3.4690	 5.5470
 3.4710	 5.5200
 3.4730	 5.4850
 3.4760	 5.4240
 3.4780	 5.4320
 3.4800	 5.4160
 3.4830	 5.4220
 3.4850	 5.4040
 3.4870	 5.4010
 3.4900	 5.3470
 3.4920	 5.2980
 3.4940	 5.2270
 3.4970	 5.2630
 3.4990	 5.3100
 3.5010	 5.4570
 3.5040	 5.6680
 3.5060	 6.0500
 3.5080	 6.6020
 3.5110	 7.0830
 3.5130	 6.9980
 3.5160	 6.5790
 3.5180	 6.2640
 3.5200	 6.1230
 3.5230	 6.0260
 3.5250	 5.9670
 3.5280	 5.9170
 3.5300	 5.8930
 3.5320	 5.8380
 3.5350	 5.8350
 3.5370	 5.8160
 3.5400	 5.8460
 3.5420	 5.8760
 3.5440	 5.8570
 3.5470	 5.7840
 3.5490	 5.7910
 3.5520	 5.7800
 3.5540	 5.7890
 3.5570	 5.7290
 3.5590	 5.6940
 3.5610	 5.6790
 3.5640	 5.7050
 3.5660	 5.6870
 3.5690	 5.6730
 3.5710	 5.6320
 3.5740	 5.6560
 3.5760	 5.6980
 3.5790	 5.7030
 3.5810	 5.6610
 3.5840	 5.6560
 3.5860	 5.6280
 3.5890	 5.6570
 3.5910	 5.6640
 3.5940	 5.6530
 3.5960	 5.6330
 3.5990	 5.6580
 3.6010	 5.6450
 3.6040	 5.6630
 3.6060	 5.6660
 3.6090	 5.6680
 3.6110	 5.6250
 3.6140	 5.6170
 3.6160	 5.5930
 3.6190	 5.5970
 3.6210	 5.6140
 3.6240	 5.6040
 3.6260	 5.5780
 3.6290	 5.6090
 3.6310	 5.6030
 3.6340	 5.5970
 3.6360	 5.5980
 3.6390	 5.6270
 3.6410	 5.6210
 3.6440	 5.6030
 3.6470	 5.5820
 3.6490	 5.5760
 3.6520	 5.5690
 3.6540	 5.5880
 3.6570	 5.5830
 3.6590	 5.6020
 3.6620	 5.6340
 3.6650	 5.6460
 3.6670	 5.6320
 3.6700	 5.6160
 3.6720	 5.5650
 3.6750	 5.5750
 3.6780	 5.5760
 3.6800	 5.6110
 3.6830	 5.5910
 3.6850	 5.5890
 3.6880	 5.6070
 3.6910	 5.6180
 3.6930	 5.5770
 3.6960	 5.5490
 3.6990	 5.5530
 3.7010	 5.5890
 3.7040	 5.6130
 3.7070	 5.6010
 3.7090	 5.5470
 3.7120	 5.5460
 3.7150	 5.5620
 3.7170	 5.5740
 3.7200	 5.5710
 3.7230	 5.5640
 3.7250	 5.5350
 3.7280	 5.5790
 3.7310	 5.5420
 3.7330	 5.5270
 3.7360	 5.5300
 3.7390	 5.5490
 3.7410	 5.5480
 3.7440	 5.5790
 3.7470	 5.5590
 3.7490	 5.5520
 3.7520	 5.5750
 3.7550	 5.5920
 3.7580	 5.5930
 3.7600	 5.5970
 3.7630	 5.5920
 3.7660	 5.5980
 3.7690	 5.5690
 3.7710	 5.5950
 3.7740	 5.5860
 3.7770	 5.5740
 3.7790	 5.5530
 3.7820	 5.5580
 3.7850	 5.5740
 3.7880	 5.5850
 3.7910	 5.5540
 3.7930	 5.5680
 3.7960	 5.5790
 3.7990	 5.5940
 3.8020	 5.5990
 3.8040	 5.5930
 3.8070	 5.5850
 3.8100	 5.5930
 3.8130	 5.5920
 3.8160	 5.6200
 3.8180	 5.6230
 3.8210	 5.6260
 3.8240	 5.5580
 3.8270	 5.5460
 3.8300	 5.5810
 3.8330	 5.6050
 3.8350	 5.5820
 3.8380	 5.5910
 3.8410	 5.5930
 3.8440	 5.5940
 3.8470	 5.5790
 3.8500	 5.5810
 3.8520	 5.5670
 3.8550	 5.5720
 3.8580	 5.5910
 3.8610	 5.5810
 3.8640	 5.5500
 3.8670	 5.6010
 3.8700	 5.5950
 3.8730	 5.5730
 3.8760	 5.5710
 3.8780	 5.6050
 3.8810	 5.6020
 3.8840	 5.6280
 3.8870	 5.6100
 3.8900	 5.6010
 3.8930	 5.5850
 3.8960	 5.5630
 3.8990	 5.5430
 3.9020	 5.5530
 3.9050	 5.5430
 3.9080	 5.5380
 3.9110	 5.5360
 3.9140	 5.5670
 3.9170	 5.5820
 3.9190	 5.5980
 3.9220	 5.5960
 3.9250	 5.5750
 3.9280	 5.5520
 3.9310	 5.5610
 3.9340	 5.5420
 3.9370	 5.5460
 3.9400	 5.5440
 3.9430	 5.5730
 3.9460	 5.5840
 3.9490	 5.5960
 3.9520	 5.5750
 3.9550	 5.5890
 3.9580	 5.5660
 3.9610	 5.5670
 3.9640	 5.5870
 3.9670	 5.5960
 3.9700	 5.5830
 3.9740	 5.5770
 3.9770	 5.5610
 3.9800	 5.5930
 3.9830	 5.5920
 3.9860	 5.6100
 3.9890	 5.5990
 3.9920	 5.5790
 3.9950	 5.5960
 3.9980	 5.6550
 4.0010	 5.6240
 4.0040	 5.5990
 4.0070	 5.5610
 4.0100	 5.5690
 4.0140	 5.5960
 4.0170	 5.6130
 4.0200	 5.6100
 4.0230	 5.6160
 4.0260	 5.6050
 4.0290	 5.5990
 4.0320	 5.5720
 4.0350	 5.5710
 4.0390	 5.5960
 4.0420	 5.6190
 4.0450	 5.5800
 4.0480	 5.6090
 4.0510	 5.6170
 4.0540	 5.6050
 4.0570	 5.5840
 4.0610	 5.5780
 4.0640	 5.5870
 4.0670	 5.5810
 4.0700	 5.5790
 4.0730	 5.5860
 4.0770	 5.5870
 4.0800	 5.5980
 4.0830	 5.5740
 4.0860	 5.5570
 4.0890	 5.5450
 4.0930	 5.5730
 4.0960	 5.5680
 4.0990	 5.5620
 4.1020	 5.5540
 4.1060	 5.5580
 4.1090	 5.5610
 4.1120	 5.5680
 4.1150	 5.5750
 4.1190	 5.6200
 4.1220	 5.6030
 4.1250	 5.5650
 4.1290	 5.5580
 4.1320	 5.5870
 4.1350	 5.5940
 4.1380	 5.5760
 4.1420	 5.5200
 4.1450	 5.5240
 4.1480	 5.5730
 4.1520	 5.5960
 4.1550	 5.5690
 4.1580	 5.5760
 4.1620	 5.5630
 4.1650	 5.5580
 4.1680	 5.5590
 4.1720	 5.5840
 4.1750	 5.5690
 4.1780	 5.5480
 4.1820	 5.5440
 4.1850	 5.5540
 4.1890	 5.5440
 4.1920	 5.5570
 4.1950	 5.5470
 4.1990	 5.5470
 4.2020	 5.5700
 4.2060	 5.5520
 4.2090	 5.5650
 4.2120	 5.6220
 4.2160	 5.6040
 4.2190	 5.5820
 4.2230	 5.5950
 4.2260	 5.6610
 4.2300	 5.6820
 4.2330	 5.7230
 4.2360	 5.7230
 4.2400	 5.7590
 4.2430	 5.7970
 4.2470	 5.7720
 4.2500	 5.7190
 4.2540	 5.6890
 4.2570	 5.6190
 4.2610	 5.5900
 4.2640	 5.6390
 4.2680	 5.6760
 4.2710	 5.6480
 4.2750	 5.6270
 4.2780	 5.6300
 4.2820	 5.6690
 4.2850	 5.6370
 4.2890	 5.6070
 4.2930	 5.5840
 4.2960	 5.5450
 4.3000	 5.5230
 4.3030	 5.5980
 4.3070	 5.5950
 4.3100	 5.5350
 4.3140	 5.5040
 4.3180	 5.5170
 4.3210	 5.5510
 4.3250	 5.6280
 4.3280	 5.6260
 4.3320	 5.5830
 4.3360	 5.5840
 4.3390	 5.6020
 4.3430	 5.5810
 4.3470	 5.5610
 4.3500	 5.5490
 4.3540	 5.5400
 4.3580	 5.5080
 4.3610	 5.5320
 4.3650	 5.5260
 4.3690	 5.4910
 4.3720	 5.4770
 4.3760	 5.4650
 4.3800	 5.4620
 4.3830	 5.4710
 4.3870	 5.4610
 4.3910	 5.4720
 4.3940	 5.4760
 4.3980	 5.4690
 4.4020	 5.4600
 4.4060	 5.4760
 4.4090	 5.4710
 4.4130	 5.4670
 4.4170	 5.4990
 4.4210	 5.5190
 4.4240	 5.4860
 4.4280	 5.4720
 4.4320	 5.4700
 4.4360	 5.4770
 4.4400	 5.4730
 4.4430	 5.4690
 4.4470	 5.4600
 4.4510	 5.4660
 4.4550	 5.4790
 4.4590	 5.4750
 4.4630	 5.4770
 4.4660	 5.4790
 4.4700	 5.4690
 4.4740	 5.4790
 4.4780	 5.4690
 4.4820	 5.4640
 4.4860	 5.4620
 4.4900	 5.4550
 4.4930	 5.4450
 4.4970	 5.4260
 4.5010	 5.4370
 4.5050	 5.4510
 4.5090	 5.4390
 4.5130	 5.4250
 4.5170	 5.4100
 4.5210	 5.4500
 4.5250	 5.4840
 4.5290	 5.4520
 4.5330	 5.4110
 4.5370	 5.3840
 4.5410	 5.4100
 4.5450	 5.4340
 4.5490	 5.4310
 4.5530	 5.4070
 4.5570	 5.3890
 4.5610	 5.3930
 4.5650	 5.4130
 4.5690	 5.4100
 4.5730	 5.4310
 4.5770	 5.4280
 4.5810	 5.4010
 4.5850	 5.3960
 4.5890	 5.4300
 4.5930	 5.4390
 4.5970	 5.4490
 4.6010	 5.4510
 4.6050	 5.4210
 4.6090	 5.3880
 4.6130	 5.3920
 4.6170	 5.3730
 4.6220	 5.3730
 4.6260	 5.3770
 4.6300	 5.3820
 4.6340	 5.3720
 4.6380	 5.3750
 4.6420	 5.3850
 4.6460	 5.3900
 4.6510	 5.3910
 4.6550	 5.3910
 4.6590	 5.4080
 4.6630	 5.3940
 4.6670	 5.4040
 4.6720	 5.3830
 4.6760	 5.3420
 4.6800	 5.3510
 4.6840	 5.3590
 4.6880	 5.3670
 4.6930	 5.3780
 4.6970	 5.3870
 4.7010	 5.3520
 4.7050	 5.3640
 4.7100	 5.4010
 4.7140	 5.3780
 4.7180	 5.3550
 4.7230	 5.3800
 4.7270	 5.3780
 4.7310	 5.3840
 4.7360	 5.3820
 4.7400	 5.3760
 4.7440	 5.3550
 4.7490	 5.3300
 4.7530	 5.3310
 4.7570	 5.3540
 4.7620	 5.3850
 4.7660	 5.3860
 4.7700	 5.3590
 4.7750	 5.3760
 4.7790	 5.3930
 4.7840	 5.3800
 4.7880	 5.3630
 4.7920	 5.3600
 4.7970	 5.3610
 4.8010	 5.3520
 4.8060	 5.3380
 4.8100	 5.3680
 4.8150	 5.3840
 4.8190	 5.3780
 4.8240	 5.3630
 4.8280	 5.3490
 4.8330	 5.3340
 4.8370	 5.3260
 4.8420	 5.3390
 4.8460	 5.3430
 4.8510	 5.3310
 4.8550	 5.3490
 4.8600	 5.3630
 4.8640	 5.3690
 4.8690	 5.3470
 4.8740	 5.3070
 4.8780	 5.3250
 4.8830	 5.3720
 4.8870	 5.3610
 4.8920	 5.3680
 4.8970	 5.3520
 4.9010	 5.3360
 4.9060	 5.3320
 4.9100	 5.3300
 4.9150	 5.3330
 4.9200	 5.3520
 4.9240	 5.3630
 4.9290	 5.3780
 4.9340	 5.3330
 4.9390	 5.3100
 4.9430	 5.3080
 4.9480	 5.3320
 4.9530	 5.3290
 4.9570	 5.2850
 4.9620	 5.2850
 4.9670	 5.3440
 4.9720	 5.3540
 4.9760	 5.3060
 4.9810	 5.3090
 4.9860	 5.3490
 4.9910	 5.3290
 4.9960	 5.3150
 5.0000	 5.3160
 5.0050	 5.3340
 5.0100	 5.3460
 5.0150	 5.3290
 5.0200	 5.3000
 5.0250	 5.3150
 5.0300	 5.3130
 5.0340	 5.3050
 5.0390	 5.2900
 5.0440	 5.3000
 5.0490	 5.3280
 5.0540	 5.3550
 5.0590	 5.3230
 5.0640	 5.3020
 5.0690	 5.2960
 5.0740	 5.3300
 5.0790	 5.3350
 5.0840	 5.3150
 5.0890	 5.2680
 5.0940	 5.2900
 5.0990	 5.3320
 5.1040	 5.3450
 5.1090	 5.3060
 5.1140	 5.2820
 5.1190	 5.2780
 5.1240	 5.2820
 5.1290	 5.2660
 5.1340	 5.2770
 5.1390	 5.2690
 5.1440	 5.3040
 5.1490	 5.3170
 5.1550	 5.2890
 5.1600	 5.2600
 5.1650	 5.2820
 5.1700	 5.2690
 5.1750	 5.2620
 5.1800	 5.2590
 5.1850	 5.2790
 5.1910	 5.2750
 5.1960	 5.2760
 5.2010	 5.2560
 5.2060	 5.2670
 5.2110	 5.2770
 5.2170	 5.2770
 5.2220	 5.2830
 5.2270	 5.3010
 5.2330	 5.2830
 5.2380	 5.2760
 5.2430	 5.2600
 5.2480	 5.2860
 5.2540	 5.2770
 5.2590	 5.2670
 5.2640	 5.2660
 5.2700	 5.2800
 5.2750	 5.2670
 5.2800	 5.2730
 5.2860	 5.2370
 5.2910	 5.2350
 5.2970	 5.2600
 5.3020	 5.2340
 5.3080	 5.2000
 5.3130	 5.2050
 5.3180	 5.2030
 5.3240	 5.2280
 5.3290	 5.1970
 5.3350	 5.1900
 5.3400	 5.1850
 5.3460	 5.2120
 5.3510	 5.2190
 5.3570	 5.2180
 5.3620	 5.1860
 5.3680	 5.1970
 5.3740	 5.1530
 5.3790	 5.1520
 5.3850	 5.1690
 5.3900	 5.1770
 5.3960	 5.1510
 5.4010	 5.1620
 5.4070	 5.1540
 5.4130	 5.1750
 5.4180	 5.1710
 5.4240	 5.1690
 5.4300	 5.1820
 5.4350	 5.1860
 5.4410	 5.1460
 5.4470	 5.1440
 5.4530	 5.1450
 5.4580	 5.1510
 5.4640	 5.1050
 5.4700	 5.1070
 5.4760	 5.0940
 5.4810	 5.1100
 5.4870	 5.1060
