Name: Hetrosideros excelsa
Type: vegetation
Class: Tree
Genus: Hetrosideros
Species: excelsa
Sample No.: JPL171
Owner: JPL
Wavelength Range: VSWIR
Origin: 34.12617; -118.11143; WGS84
Collection Date: 9/14/2016
Description: Samples were collected at the Huntington Garden in San Marino California as part of a JPL Subcontract studying HyTES imagery. Samples were taken to JPL and processed within 48 hours of collection. The same leaves were processed in the Nicolet and then measured using the ASD.
Measurement: Bidirectional reflectance
First Column: X
Second Column: Y
X Units: Wavelength (micrometer)
Y Units: Reflectance (percentage)
First X Value: 0.35
Last X Value: 2.5
Number of X Values: 2151
Additional Information: vegetation.tree.hetrosideros.excelsa.vswir.jpl171.jpl.asd.ancillary.txt

 0.3500	 7.9050
 0.3510	 7.8860
 0.3520	 7.8720
 0.3530	 7.8490
 0.3540	 7.8250
 0.3550	 7.7990
 0.3560	 7.7790
 0.3570	 7.8100
 0.3580	 7.9180
 0.3590	 7.8430
 0.3600	 7.7570
 0.3610	 7.7410
 0.3620	 7.6820
 0.3630	 7.6610
 0.3640	 7.7050
 0.3650	 7.7830
 0.3660	 7.7030
 0.3670	 7.7090
 0.3680	 7.7860
 0.3690	 7.7500
 0.3700	 7.7100
 0.3710	 7.6800
 0.3720	 7.6820
 0.3730	 7.7900
 0.3740	 7.7700
 0.3750	 7.6870
 0.3760	 7.6810
 0.3770	 7.7310
 0.3780	 7.7440
 0.3790	 7.7150
 0.3800	 7.7130
 0.3810	 7.7330
 0.3820	 7.7530
 0.3830	 7.7510
 0.3840	 7.7110
 0.3850	 7.7140
 0.3860	 7.7300
 0.3870	 7.7090
 0.3880	 7.7320
 0.3890	 7.7440
 0.3900	 7.7470
 0.3910	 7.8010
 0.3920	 7.8000
 0.3930	 7.7910
 0.3940	 7.8130
 0.3950	 7.7870
 0.3960	 7.7790
 0.3970	 7.7840
 0.3980	 7.7710
 0.3990	 7.7810
 0.4000	 7.7910
 0.4010	 7.7890
 0.4020	 7.7800
 0.4030	 7.7740
 0.4040	 7.7770
 0.4050	 7.7900
 0.4060	 7.8070
 0.4070	 7.8240
 0.4080	 7.8330
 0.4090	 7.8270
 0.4100	 7.8470
 0.4110	 7.8730
 0.4120	 7.8850
 0.4130	 7.8720
 0.4140	 7.8820
 0.4150	 7.9080
 0.4160	 7.9290
 0.4170	 7.9500
 0.4180	 7.9600
 0.4190	 7.9600
 0.4200	 7.9580
 0.4210	 7.9750
 0.4220	 7.9900
 0.4230	 7.9890
 0.4240	 7.9950
 0.4250	 8.0040
 0.4260	 8.0150
 0.4270	 8.0230
 0.4280	 8.0360
 0.4290	 8.0370
 0.4300	 8.0280
 0.4310	 8.0310
 0.4320	 8.0270
 0.4330	 8.0220
 0.4340	 8.0240
 0.4350	 8.0240
 0.4360	 8.0200
 0.4370	 8.0200
 0.4380	 8.0430
 0.4390	 8.0690
 0.4400	 8.0850
 0.4410	 8.0910
 0.4420	 8.1030
 0.4430	 8.1100
 0.4440	 8.1150
 0.4450	 8.1230
 0.4460	 8.1370
 0.4470	 8.1450
 0.4480	 8.1460
 0.4490	 8.1530
 0.4500	 8.1580
 0.4510	 8.1640
 0.4520	 8.1760
 0.4530	 8.1860
 0.4540	 8.1960
 0.4550	 8.2030
 0.4560	 8.2050
 0.4570	 8.2090
 0.4580	 8.2120
 0.4590	 8.2110
 0.4600	 8.2130
 0.4610	 8.2150
 0.4620	 8.2200
 0.4630	 8.2300
 0.4640	 8.2300
 0.4650	 8.2280
 0.4660	 8.2300
 0.4670	 8.2350
 0.4680	 8.2370
 0.4690	 8.2370
 0.4700	 8.2400
 0.4710	 8.2430
 0.4720	 8.2440
 0.4730	 8.2470
 0.4740	 8.2570
 0.4750	 8.2640
 0.4760	 8.2640
 0.4770	 8.2620
 0.4780	 8.2690
 0.4790	 8.2710
 0.4800	 8.2670
 0.4810	 8.2620
 0.4820	 8.2630
 0.4830	 8.2640
 0.4840	 8.2610
 0.4850	 8.2580
 0.4860	 8.2570
 0.4870	 8.2570
 0.4880	 8.2590
 0.4890	 8.2640
 0.4900	 8.2740
 0.4910	 8.2840
 0.4920	 8.2860
 0.4930	 8.2930
 0.4940	 8.3060
 0.4950	 8.3210
 0.4960	 8.3330
 0.4970	 8.3440
 0.4980	 8.3560
 0.4990	 8.3750
 0.5000	 8.3930
 0.5010	 8.4060
 0.5020	 8.4170
 0.5030	 8.4350
 0.5040	 8.4590
 0.5050	 8.4870
 0.5060	 8.5170
 0.5070	 8.5430
 0.5080	 8.5720
 0.5090	 8.6080
 0.5100	 8.6490
 0.5110	 8.6950
 0.5120	 8.7470
 0.5130	 8.8060
 0.5140	 8.8660
 0.5150	 8.9330
 0.5160	 9.0090
 0.5170	 9.0950
 0.5180	 9.1860
 0.5190	 9.2810
 0.5200	 9.3840
 0.5210	 9.4960
 0.5220	 9.6090
 0.5230	 9.7240
 0.5240	 9.8420
 0.5250	 9.9590
 0.5260	10.0730
 0.5270	10.1830
 0.5280	10.2890
 0.5290	10.3920
 0.5300	10.4880
 0.5310	10.5770
 0.5320	10.6580
 0.5330	10.7340
 0.5340	10.8020
 0.5350	10.8580
 0.5360	10.9130
 0.5370	10.9580
 0.5380	10.9910
 0.5390	11.0150
 0.5400	11.0280
 0.5410	11.0330
 0.5420	11.0370
 0.5430	11.0460
 0.5440	11.0620
 0.5450	11.0890
 0.5460	11.1260
 0.5470	11.1650
 0.5480	11.2010
 0.5490	11.2290
 0.5500	11.2490
 0.5510	11.2620
 0.5520	11.2690
 0.5530	11.2690
 0.5540	11.2630
 0.5550	11.2470
 0.5560	11.2190
 0.5570	11.1790
 0.5580	11.1310
 0.5590	11.0760
 0.5600	11.0130
 0.5610	10.9510
 0.5620	10.8820
 0.5630	10.8080
 0.5640	10.7320
 0.5650	10.6530
 0.5660	10.5690
 0.5670	10.4830
 0.5680	10.3970
 0.5690	10.3110
 0.5700	10.2260
 0.5710	10.1440
 0.5720	10.0690
 0.5730	10.0030
 0.5740	 9.9420
 0.5750	 9.8830
 0.5760	 9.8240
 0.5770	 9.7680
 0.5780	 9.7160
 0.5790	 9.6700
 0.5800	 9.6290
 0.5810	 9.5910
 0.5820	 9.5580
 0.5830	 9.5230
 0.5840	 9.4890
 0.5850	 9.4570
 0.5860	 9.4270
 0.5870	 9.4040
 0.5880	 9.3860
 0.5890	 9.3720
 0.5900	 9.3640
 0.5910	 9.3550
 0.5920	 9.3420
 0.5930	 9.3300
 0.5940	 9.3240
 0.5950	 9.3190
 0.5960	 9.3120
 0.5970	 9.3040
 0.5980	 9.2970
 0.5990	 9.2890
 0.6000	 9.2800
 0.6010	 9.2700
 0.6020	 9.2570
 0.6030	 9.2410
 0.6040	 9.2220
 0.6050	 9.2030
 0.6060	 9.1830
 0.6070	 9.1580
 0.6080	 9.1310
 0.6090	 9.0930
 0.6100	 9.0410
 0.6110	 8.9830
 0.6120	 8.9580
 0.6130	 8.9510
 0.6140	 8.9470
 0.6150	 8.9340
 0.6160	 8.9190
 0.6170	 8.9020
 0.6180	 8.8840
 0.6190	 8.8640
 0.6200	 8.8480
 0.6210	 8.8360
 0.6220	 8.8230
 0.6230	 8.8140
 0.6240	 8.8080
 0.6250	 8.8030
 0.6260	 8.7990
 0.6270	 8.7940
 0.6280	 8.7910
 0.6290	 8.7880
 0.6300	 8.7830
 0.6310	 8.7800
 0.6320	 8.7790
 0.6330	 8.7750
 0.6340	 8.7710
 0.6350	 8.7650
 0.6360	 8.7560
 0.6370	 8.7430
 0.6380	 8.7280
 0.6390	 8.7140
 0.6400	 8.7000
 0.6410	 8.6810
 0.6420	 8.6630
 0.6430	 8.6480
 0.6440	 8.6330
 0.6450	 8.6190
 0.6460	 8.6060
 0.6470	 8.5940
 0.6480	 8.5840
 0.6490	 8.5770
 0.6500	 8.5730
 0.6510	 8.5700
 0.6520	 8.5700
 0.6530	 8.5710
 0.6540	 8.5710
 0.6550	 8.5700
 0.6560	 8.5700
 0.6570	 8.5700
 0.6580	 8.5680
 0.6590	 8.5670
 0.6600	 8.5650
 0.6610	 8.5630
 0.6620	 8.5640
 0.6630	 8.5650
 0.6640	 8.5680
 0.6650	 8.5740
 0.6660	 8.5800
 0.6670	 8.5890
 0.6680	 8.6010
 0.6690	 8.6150
 0.6700	 8.6340
 0.6710	 8.6540
 0.6720	 8.6740
 0.6730	 8.6990
 0.6740	 8.7260
 0.6750	 8.7540
 0.6760	 8.7850
 0.6770	 8.8190
 0.6780	 8.8550
 0.6790	 8.8940
 0.6800	 8.9310
 0.6810	 8.9690
 0.6820	 9.0090
 0.6830	 9.0520
 0.6840	 9.0920
 0.6850	 9.1310
 0.6860	 9.1680
 0.6870	 9.2050
 0.6880	 9.2460
 0.6890	 9.2940
 0.6900	 9.3520
 0.6910	 9.4320
 0.6920	 9.5360
 0.6930	 9.6730
 0.6940	 9.8490
 0.6950	10.0760
 0.6960	10.3540
 0.6970	10.6870
 0.6980	11.0810
 0.6990	11.5370
 0.7000	12.0520
 0.7010	12.6240
 0.7020	13.2500
 0.7030	13.9260
 0.7040	14.6490
 0.7050	15.4110
 0.7060	16.2070
 0.7070	17.0390
 0.7080	17.9030
 0.7090	18.7980
 0.7100	19.7240
 0.7110	20.6790
 0.7120	21.6590
 0.7130	22.6630
 0.7140	23.6900
 0.7150	24.7380
 0.7160	25.8020
 0.7170	26.8820
 0.7180	27.9710
 0.7190	29.0680
 0.7200	30.1720
 0.7210	31.2760
 0.7220	32.3770
 0.7230	33.4690
 0.7240	34.5470
 0.7250	35.6060
 0.7260	36.6420
 0.7270	37.6540
 0.7280	38.6330
 0.7290	39.5810
 0.7300	40.4940
 0.7310	41.3730
 0.7320	42.2160
 0.7330	43.0200
 0.7340	43.7840
 0.7350	44.5100
 0.7360	45.1980
 0.7370	45.8480
 0.7380	46.4590
 0.7390	47.0300
 0.7400	47.5660
 0.7410	48.0680
 0.7420	48.5360
 0.7430	48.9690
 0.7440	49.3690
 0.7450	49.7390
 0.7460	50.0790
 0.7470	50.3920
 0.7480	50.6770
 0.7490	50.9350
 0.7500	51.1700
 0.7510	51.3840
 0.7520	51.5780
 0.7530	51.7560
 0.7540	51.9160
 0.7550	52.0590
 0.7560	52.1880
 0.7570	52.3070
 0.7580	52.4130
 0.7590	52.5120
 0.7600	52.6030
 0.7610	52.6850
 0.7620	52.7560
 0.7630	52.8200
 0.7640	52.8810
 0.7650	52.9330
 0.7660	52.9790
 0.7670	53.0200
 0.7680	53.0550
 0.7690	53.0910
 0.7700	53.1250
 0.7710	53.1560
 0.7720	53.1800
 0.7730	53.2050
 0.7740	53.2290
 0.7750	53.2520
 0.7760	53.2760
 0.7770	53.2960
 0.7780	53.3160
 0.7790	53.3360
 0.7800	53.3550
 0.7810	53.3730
 0.7820	53.3910
 0.7830	53.4120
 0.7840	53.4270
 0.7850	53.4420
 0.7860	53.4570
 0.7870	53.4660
 0.7880	53.4790
 0.7890	53.4940
 0.7900	53.5030
 0.7910	53.5120
 0.7920	53.5230
 0.7930	53.5340
 0.7940	53.5400
 0.7950	53.5470
 0.7960	53.5530
 0.7970	53.5580
 0.7980	53.5620
 0.7990	53.5630
 0.8000	53.5630
 0.8010	53.5640
 0.8020	53.5650
 0.8030	53.5640
 0.8040	53.5640
 0.8050	53.5620
 0.8060	53.5590
 0.8070	53.5550
 0.8080	53.5510
 0.8090	53.5470
 0.8100	53.5420
 0.8110	53.5350
 0.8120	53.5280
 0.8130	53.5220
 0.8140	53.5150
 0.8150	53.5070
 0.8160	53.4980
 0.8170	53.4910
 0.8180	53.4830
 0.8190	53.4760
 0.8200	53.4700
 0.8210	53.4630
 0.8220	53.4540
 0.8230	53.4460
 0.8240	53.4380
 0.8250	53.4280
 0.8260	53.4180
 0.8270	53.4070
 0.8280	53.3990
 0.8290	53.3880
 0.8300	53.3770
 0.8310	53.3680
 0.8320	53.3570
 0.8330	53.3490
 0.8340	53.3440
 0.8350	53.3410
 0.8360	53.3390
 0.8370	53.3360
 0.8380	53.3310
 0.8390	53.3280
 0.8400	53.3270
 0.8410	53.3310
 0.8420	53.3360
 0.8430	53.3360
 0.8440	53.3380
 0.8450	53.3440
 0.8460	53.3490
 0.8470	53.3500
 0.8480	53.3540
 0.8490	53.3610
 0.8500	53.3690
 0.8510	53.3710
 0.8520	53.3780
 0.8530	53.3890
 0.8540	53.3960
 0.8550	53.4040
 0.8560	53.4110
 0.8570	53.4190
 0.8580	53.4340
 0.8590	53.4470
 0.8600	53.4590
 0.8610	53.4720
 0.8620	53.4800
 0.8630	53.4940
 0.8640	53.5070
 0.8650	53.5150
 0.8660	53.5330
 0.8670	53.5470
 0.8680	53.5580
 0.8690	53.5720
 0.8700	53.5930
 0.8710	53.6070
 0.8720	53.6160
 0.8730	53.6310
 0.8740	53.6480
 0.8750	53.6660
 0.8760	53.6820
 0.8770	53.6910
 0.8780	53.7060
 0.8790	53.7210
 0.8800	53.7350
 0.8810	53.7510
 0.8820	53.7670
 0.8830	53.7800
 0.8840	53.7900
 0.8850	53.8090
 0.8860	53.8240
 0.8870	53.8360
 0.8880	53.8500
 0.8890	53.8590
 0.8900	53.8670
 0.8910	53.8800
 0.8920	53.8990
 0.8930	53.9100
 0.8940	53.9230
 0.8950	53.9380
 0.8960	53.9510
 0.8970	53.9620
 0.8980	53.9760
 0.8990	53.9910
 0.9000	54.0000
 0.9010	54.0070
 0.9020	54.0170
 0.9030	54.0290
 0.9040	54.0430
 0.9050	54.0500
 0.9060	54.0540
 0.9070	54.0610
 0.9080	54.0740
 0.9090	54.0820
 0.9100	54.0890
 0.9110	54.0970
 0.9120	54.0960
 0.9130	54.1020
 0.9140	54.1070
 0.9150	54.1040
 0.9160	54.1020
 0.9170	54.1120
 0.9180	54.1220
 0.9190	54.1140
 0.9200	54.1020
 0.9210	54.1010
 0.9220	54.1010
 0.9230	54.0850
 0.9240	54.0710
 0.9250	54.0640
 0.9260	54.0550
 0.9270	54.0350
 0.9280	54.0180
 0.9290	54.0010
 0.9300	53.9810
 0.9310	53.9530
 0.9320	53.9280
 0.9330	53.9080
 0.9340	53.8860
 0.9350	53.8550
 0.9360	53.8260
 0.9370	53.7950
 0.9380	53.7600
 0.9390	53.7240
 0.9400	53.6950
 0.9410	53.6630
 0.9420	53.6210
 0.9430	53.5790
 0.9440	53.5280
 0.9450	53.4750
 0.9460	53.4230
 0.9470	53.3600
 0.9480	53.2840
 0.9490	53.2100
 0.9500	53.1440
 0.9510	53.0640
 0.9520	52.9810
 0.9530	52.8930
 0.9540	52.8020
 0.9550	52.7180
 0.9560	52.6320
 0.9570	52.5450
 0.9580	52.4650
 0.9590	52.3980
 0.9600	52.3280
 0.9610	52.2660
 0.9620	52.2230
 0.9630	52.1680
 0.9640	52.1140
 0.9650	52.0660
 0.9660	52.0290
 0.9670	52.0040
 0.9680	51.9830
 0.9690	51.9620
 0.9700	51.9420
 0.9710	51.9360
 0.9720	51.9210
 0.9730	51.8970
 0.9740	51.8760
 0.9750	51.8750
 0.9760	51.8660
 0.9770	51.8560
 0.9780	51.8600
 0.9790	51.8600
 0.9800	51.8610
 0.9810	51.8620
 0.9820	51.8610
 0.9830	51.8770
 0.9840	51.8970
 0.9850	51.9130
 0.9860	51.9260
 0.9870	51.9360
 0.9880	51.9480
 0.9890	51.9650
 0.9900	51.9890
 0.9910	52.0200
 0.9920	52.0410
 0.9930	52.0550
 0.9940	52.0730
 0.9950	52.0930
 0.9960	52.1340
 0.9970	52.1730
 0.9980	52.1890
 0.9990	52.2280
 1.0000	52.2540
 1.0010	52.9090
 1.0020	52.9410
 1.0030	52.9740
 1.0040	53.0080
 1.0050	53.0420
 1.0060	53.0810
 1.0070	53.1180
 1.0080	53.1500
 1.0090	53.1730
 1.0100	53.2060
 1.0110	53.2390
 1.0120	53.2730
 1.0130	53.3110
 1.0140	53.3470
 1.0150	53.3810
 1.0160	53.4140
 1.0170	53.4500
 1.0180	53.4840
 1.0190	53.5160
 1.0200	53.5510
 1.0210	53.5880
 1.0220	53.6210
 1.0230	53.6540
 1.0240	53.6830
 1.0250	53.7160
 1.0260	53.7520
 1.0270	53.7840
 1.0280	53.8160
 1.0290	53.8480
 1.0300	53.8740
 1.0310	53.9030
 1.0320	53.9330
 1.0330	53.9660
 1.0340	54.0000
 1.0350	54.0260
 1.0360	54.0540
 1.0370	54.0820
 1.0380	54.1090
 1.0390	54.1340
 1.0400	54.1610
 1.0410	54.1860
 1.0420	54.2120
 1.0430	54.2400
 1.0440	54.2640
 1.0450	54.2860
 1.0460	54.3080
 1.0470	54.3260
 1.0480	54.3450
 1.0490	54.3650
 1.0500	54.3840
 1.0510	54.4040
 1.0520	54.4220
 1.0530	54.4420
 1.0540	54.4640
 1.0550	54.4830
 1.0560	54.5030
 1.0570	54.5210
 1.0580	54.5370
 1.0590	54.5520
 1.0600	54.5650
 1.0610	54.5780
 1.0620	54.5870
 1.0630	54.5970
 1.0640	54.6090
 1.0650	54.6190
 1.0660	54.6300
 1.0670	54.6400
 1.0680	54.6490
 1.0690	54.6570
 1.0700	54.6640
 1.0710	54.6700
 1.0720	54.6750
 1.0730	54.6770
 1.0740	54.6830
 1.0750	54.6920
 1.0760	54.6970
 1.0770	54.7020
 1.0780	54.7040
 1.0790	54.7010
 1.0800	54.7010
 1.0810	54.7060
 1.0820	54.7070
 1.0830	54.7070
 1.0840	54.7060
 1.0850	54.7020
 1.0860	54.6960
 1.0870	54.6910
 1.0880	54.6870
 1.0890	54.6830
 1.0900	54.6790
 1.0910	54.6730
 1.0920	54.6670
 1.0930	54.6600
 1.0940	54.6500
 1.0950	54.6410
 1.0960	54.6310
 1.0970	54.6210
 1.0980	54.6100
 1.0990	54.5980
 1.1000	54.5850
 1.1010	54.5720
 1.1020	54.5600
 1.1030	54.5450
 1.1040	54.5340
 1.1050	54.5200
 1.1060	54.5030
 1.1070	54.4820
 1.1080	54.4640
 1.1090	54.4450
 1.1100	54.4260
 1.1110	54.4100
 1.1120	54.3900
 1.1130	54.3680
 1.1140	54.3430
 1.1150	54.3170
 1.1160	54.2890
 1.1170	54.2610
 1.1180	54.2290
 1.1190	54.1980
 1.1200	54.1630
 1.1210	54.1220
 1.1220	54.0770
 1.1230	54.0230
 1.1240	53.9640
 1.1250	53.9000
 1.1260	53.8310
 1.1270	53.7530
 1.1280	53.6720
 1.1290	53.5780
 1.1300	53.4730
 1.1310	53.3590
 1.1320	53.2370
 1.1330	53.1030
 1.1340	52.9610
 1.1350	52.8080
 1.1360	52.6440
 1.1370	52.4710
 1.1380	52.2880
 1.1390	52.0970
 1.1400	51.8960
 1.1410	51.6910
 1.1420	51.4810
 1.1430	51.2660
 1.1440	51.0530
 1.1450	50.8340
 1.1460	50.6260
 1.1470	50.4190
 1.1480	50.2200
 1.1490	50.0230
 1.1500	49.8390
 1.1510	49.6590
 1.1520	49.4920
 1.1530	49.3360
 1.1540	49.1920
 1.1550	49.0570
 1.1560	48.9330
 1.1570	48.8190
 1.1580	48.7180
 1.1590	48.6270
 1.1600	48.5440
 1.1610	48.4710
 1.1620	48.4040
 1.1630	48.3440
 1.1640	48.2900
 1.1650	48.2400
 1.1660	48.1970
 1.1670	48.1570
 1.1680	48.1220
 1.1690	48.0890
 1.1700	48.0600
 1.1710	48.0310
 1.1720	48.0050
 1.1730	47.9770
 1.1740	47.9520
 1.1750	47.9250
 1.1760	47.8960
 1.1770	47.8670
 1.1780	47.8360
 1.1790	47.8040
 1.1800	47.7710
 1.1810	47.7380
 1.1820	47.7040
 1.1830	47.6720
 1.1840	47.6410
 1.1850	47.6100
 1.1860	47.5790
 1.1870	47.5470
 1.1880	47.5180
 1.1890	47.4890
 1.1900	47.4640
 1.1910	47.4410
 1.1920	47.4200
 1.1930	47.4020
 1.1940	47.3840
 1.1950	47.3660
 1.1960	47.3510
 1.1970	47.3390
 1.1980	47.3300
 1.1990	47.3260
 1.2000	47.3250
 1.2010	47.3250
 1.2020	47.3270
 1.2030	47.3320
 1.2040	47.3380
 1.2050	47.3480
 1.2060	47.3630
 1.2070	47.3800
 1.2080	47.4000
 1.2090	47.4230
 1.2100	47.4490
 1.2110	47.4770
 1.2120	47.5080
 1.2130	47.5430
 1.2140	47.5810
 1.2150	47.6220
 1.2160	47.6670
 1.2170	47.7160
 1.2180	47.7670
 1.2190	47.8210
 1.2200	47.8770
 1.2210	47.9320
 1.2220	47.9910
 1.2230	48.0520
 1.2240	48.1140
 1.2250	48.1760
 1.2260	48.2340
 1.2270	48.2920
 1.2280	48.3480
 1.2290	48.4020
 1.2300	48.4540
 1.2310	48.5030
 1.2320	48.5500
 1.2330	48.5950
 1.2340	48.6390
 1.2350	48.6820
 1.2360	48.7240
 1.2370	48.7650
 1.2380	48.8040
 1.2390	48.8420
 1.2400	48.8780
 1.2410	48.9110
 1.2420	48.9450
 1.2430	48.9760
 1.2440	49.0070
 1.2450	49.0360
 1.2460	49.0630
 1.2470	49.0910
 1.2480	49.1180
 1.2490	49.1430
 1.2500	49.1690
 1.2510	49.1940
 1.2520	49.2170
 1.2530	49.2370
 1.2540	49.2560
 1.2550	49.2730
 1.2560	49.2900
 1.2570	49.3060
 1.2580	49.3190
 1.2590	49.3310
 1.2600	49.3440
 1.2610	49.3530
 1.2620	49.3610
 1.2630	49.3690
 1.2640	49.3740
 1.2650	49.3770
 1.2660	49.3800
 1.2670	49.3800
 1.2680	49.3800
 1.2690	49.3780
 1.2700	49.3740
 1.2710	49.3690
 1.2720	49.3610
 1.2730	49.3530
 1.2740	49.3430
 1.2750	49.3300
 1.2760	49.3160
 1.2770	49.3000
 1.2780	49.2780
 1.2790	49.2560
 1.2800	49.2350
 1.2810	49.2110
 1.2820	49.1850
 1.2830	49.1580
 1.2840	49.1280
 1.2850	49.0940
 1.2860	49.0600
 1.2870	49.0220
 1.2880	48.9830
 1.2890	48.9410
 1.2900	48.8960
 1.2910	48.8460
 1.2920	48.7940
 1.2930	48.7380
 1.2940	48.6810
 1.2950	48.6230
 1.2960	48.5590
 1.2970	48.4930
 1.2980	48.4240
 1.2990	48.3500
 1.3000	48.2760
 1.3010	48.1990
 1.3020	48.1170
 1.3030	48.0290
 1.3040	47.9390
 1.3050	47.8450
 1.3060	47.7470
 1.3070	47.6460
 1.3080	47.5430
 1.3090	47.4340
 1.3100	47.3230
 1.3110	47.2110
 1.3120	47.0910
 1.3130	46.9660
 1.3140	46.8370
 1.3150	46.7020
 1.3160	46.5630
 1.3170	46.4220
 1.3180	46.2770
 1.3190	46.1280
 1.3200	45.9760
 1.3210	45.8200
 1.3220	45.6610
 1.3230	45.4980
 1.3240	45.3310
 1.3250	45.1610
 1.3260	44.9880
 1.3270	44.8110
 1.3280	44.6310
 1.3290	44.4470
 1.3300	44.2600
 1.3310	44.0700
 1.3320	43.8790
 1.3330	43.6890
 1.3340	43.4980
 1.3350	43.3050
 1.3360	43.1130
 1.3370	42.9190
 1.3380	42.7250
 1.3390	42.5340
 1.3400	42.3430
 1.3410	42.1550
 1.3420	41.9680
 1.3430	41.7840
 1.3440	41.6020
 1.3450	41.4210
 1.3460	41.2410
 1.3470	41.0640
 1.3480	40.8880
 1.3490	40.7160
 1.3500	40.5480
 1.3510	40.3800
 1.3520	40.2140
 1.3530	40.0500
 1.3540	39.8840
 1.3550	39.7180
 1.3560	39.5510
 1.3570	39.3810
 1.3580	39.2110
 1.3590	39.0380
 1.3600	38.8600
 1.3610	38.6800
 1.3620	38.4920
 1.3630	38.2970
 1.3640	38.0950
 1.3650	37.8830
 1.3660	37.6640
 1.3670	37.4340
 1.3680	37.1920
 1.3690	36.9350
 1.3700	36.6600
 1.3710	36.3720
 1.3720	36.0670
 1.3730	35.7390
 1.3740	35.3950
 1.3750	35.0280
 1.3760	34.6350
 1.3770	34.2180
 1.3780	33.7720
 1.3790	33.3000
 1.3800	32.8030
 1.3810	32.2770
 1.3820	31.7320
 1.3830	31.1640
 1.3840	30.5780
 1.3850	29.9720
 1.3860	29.3560
 1.3870	28.7200
 1.3880	28.0850
 1.3890	27.4410
 1.3900	26.7900
 1.3910	26.1470
 1.3920	25.5040
 1.3930	24.8660
 1.3940	24.2390
 1.3950	23.6160
 1.3960	23.0100
 1.3970	22.4230
 1.3980	21.8530
 1.3990	21.3130
 1.4000	20.7920
 1.4010	20.2920
 1.4020	19.8200
 1.4030	19.3700
 1.4040	18.9440
 1.4050	18.5450
 1.4060	18.1670
 1.4070	17.8180
 1.4080	17.4910
 1.4090	17.1850
 1.4100	16.9040
 1.4110	16.6410
 1.4120	16.3970
 1.4130	16.1730
 1.4140	15.9670
 1.4150	15.7790
 1.4160	15.6070
 1.4170	15.4470
 1.4180	15.3000
 1.4190	15.1630
 1.4200	15.0390
 1.4210	14.9250
 1.4220	14.8200
 1.4230	14.7250
 1.4240	14.6380
 1.4250	14.5580
 1.4260	14.4850
 1.4270	14.4190
 1.4280	14.3600
 1.4290	14.3050
 1.4300	14.2540
 1.4310	14.2090
 1.4320	14.1690
 1.4330	14.1320
 1.4340	14.1010
 1.4350	14.0730
 1.4360	14.0490
 1.4370	14.0280
 1.4380	14.0100
 1.4390	13.9950
 1.4400	13.9830
 1.4410	13.9740
 1.4420	13.9670
 1.4430	13.9620
 1.4440	13.9590
 1.4450	13.9580
 1.4460	13.9580
 1.4470	13.9600
 1.4480	13.9640
 1.4490	13.9680
 1.4500	13.9750
 1.4510	13.9820
 1.4520	13.9900
 1.4530	14.0010
 1.4540	14.0130
 1.4550	14.0270
 1.4560	14.0430
 1.4570	14.0600
 1.4580	14.0800
 1.4590	14.1030
 1.4600	14.1280
 1.4610	14.1560
 1.4620	14.1880
 1.4630	14.2240
 1.4640	14.2630
 1.4650	14.3070
 1.4660	14.3540
 1.4670	14.4030
 1.4680	14.4570
 1.4690	14.5150
 1.4700	14.5760
 1.4710	14.6410
 1.4720	14.7090
 1.4730	14.7800
 1.4740	14.8560
 1.4750	14.9330
 1.4760	15.0140
 1.4770	15.0980
