Name: Salvia leucophylla 2
Type: vegetation
Class: Shrub
Genus: Salvia
Species: leucophylla
Sample No.: VH189
Owner: UCSB
Wavelength Range: VSWIR
Origin: 34.698; -120.0477; WGS84
Collection Date: 6/9/2013
Description: Samples were collected as part of the HyspIRI Airborne Campaign. 48 individual plants were sampled in three times in 2013 - spring  summer  and fall. The name of the sample includes a 1  2  or 3 which references a different individual of the species. Samples were taken to JPL and processed within 48 hours of collection. The same leaves were processed in the Nicolet and then measured using the ASD.
Measurement: Bidirectional reflectance
First Column: X
Second Column: Y
X Units: Wavelength (micrometers)
Y Units: Reflectance (percentage)
First X Value: 0.35
Last X Value: 2.5
Number of X Values: 2151
Additional Information: vegetation.shrub.salvia.leucophylla.vswir.vh189.ucsb.asd.ancillary.txt

 0.3500	 5.0970
 0.3510	 5.1590
 0.3520	 5.0780
 0.3530	 5.0930
 0.3540	 5.3220
 0.3550	 5.2350
 0.3560	 5.2040
 0.3570	 5.2360
 0.3580	 5.1540
 0.3590	 5.1860
 0.3600	 5.2450
 0.3610	 5.2940
 0.3620	 5.3920
 0.3630	 5.3950
 0.3640	 5.3720
 0.3650	 5.3960
 0.3660	 5.3620
 0.3670	 5.3610
 0.3680	 5.4240
 0.3690	 5.5320
 0.3700	 5.6530
 0.3710	 5.7330
 0.3720	 5.7570
 0.3730	 5.7790
 0.3740	 5.7660
 0.3750	 5.7920
 0.3760	 5.9130
 0.3770	 5.9140
 0.3780	 5.9530
 0.3790	 6.0380
 0.3800	 6.0490
 0.3810	 6.0970
 0.3820	 6.1040
 0.3830	 6.0540
 0.3840	 6.1410
 0.3850	 6.2380
 0.3860	 6.2880
 0.3870	 6.2800
 0.3880	 6.3170
 0.3890	 6.3890
 0.3900	 6.4640
 0.3910	 6.4920
 0.3920	 6.5060
 0.3930	 6.5380
 0.3940	 6.5990
 0.3950	 6.5930
 0.3960	 6.6470
 0.3970	 6.7180
 0.3980	 6.7090
 0.3990	 6.7080
 0.4000	 6.7620
 0.4010	 6.8370
 0.4020	 6.8060
 0.4030	 6.8330
 0.4040	 6.9050
 0.4050	 6.9700
 0.4060	 6.9990
 0.4070	 7.0110
 0.4080	 7.0230
 0.4090	 7.0380
 0.4100	 7.0960
 0.4110	 7.1450
 0.4120	 7.1640
 0.4130	 7.2350
 0.4140	 7.2850
 0.4150	 7.3270
 0.4160	 7.3810
 0.4170	 7.4190
 0.4180	 7.4610
 0.4190	 7.5170
 0.4200	 7.5670
 0.4210	 7.6310
 0.4220	 7.6880
 0.4230	 7.7350
 0.4240	 7.7930
 0.4250	 7.8410
 0.4260	 7.8830
 0.4270	 7.9340
 0.4280	 7.9940
 0.4290	 8.0490
 0.4300	 8.1020
 0.4310	 8.1480
 0.4320	 8.2070
 0.4330	 8.2670
 0.4340	 8.3230
 0.4350	 8.3730
 0.4360	 8.4150
 0.4370	 8.4540
 0.4380	 8.4990
 0.4390	 8.5370
 0.4400	 8.5660
 0.4410	 8.5910
 0.4420	 8.6340
 0.4430	 8.6790
 0.4440	 8.7150
 0.4450	 8.7400
 0.4460	 8.7770
 0.4470	 8.8160
 0.4480	 8.8460
 0.4490	 8.8750
 0.4500	 8.9100
 0.4510	 8.9470
 0.4520	 8.9720
 0.4530	 9.0050
 0.4540	 9.0360
 0.4550	 9.0640
 0.4560	 9.0900
 0.4570	 9.1210
 0.4580	 9.1570
 0.4590	 9.1960
 0.4600	 9.2080
 0.4610	 9.2290
 0.4620	 9.2590
 0.4630	 9.2910
 0.4640	 9.3190
 0.4650	 9.3470
 0.4660	 9.3700
 0.4670	 9.3820
 0.4680	 9.4090
 0.4690	 9.4370
 0.4700	 9.4530
 0.4710	 9.4860
 0.4720	 9.5070
 0.4730	 9.5180
 0.4740	 9.5360
 0.4750	 9.5660
 0.4760	 9.5830
 0.4770	 9.5800
 0.4780	 9.5850
 0.4790	 9.6060
 0.4800	 9.6260
 0.4810	 9.6340
 0.4820	 9.6550
 0.4830	 9.6780
 0.4840	 9.7000
 0.4850	 9.7220
 0.4860	 9.7490
 0.4870	 9.7790
 0.4880	 9.8090
 0.4890	 9.8330
 0.4900	 9.8580
 0.4910	 9.8920
 0.4920	 9.9390
 0.4930	 9.9820
 0.4940	10.0210
 0.4950	10.0610
 0.4960	10.1170
 0.4970	10.1710
 0.4980	10.2200
 0.4990	10.2790
 0.5000	10.3510
 0.5010	10.4270
 0.5020	10.5060
 0.5030	10.5890
 0.5040	10.6830
 0.5050	10.7810
 0.5060	10.8880
 0.5070	11.0080
 0.5080	11.1250
 0.5090	11.2440
 0.5100	11.3810
 0.5110	11.5220
 0.5120	11.6680
 0.5130	11.8240
 0.5140	11.9900
 0.5150	12.1610
 0.5160	12.3350
 0.5170	12.5110
 0.5180	12.7000
 0.5190	12.8870
 0.5200	13.0730
 0.5210	13.2690
 0.5220	13.4660
 0.5230	13.6620
 0.5240	13.8550
 0.5250	14.0420
 0.5260	14.2320
 0.5270	14.4230
 0.5280	14.6080
 0.5290	14.7840
 0.5300	14.9580
 0.5310	15.1340
 0.5320	15.3060
 0.5330	15.4680
 0.5340	15.6240
 0.5350	15.7790
 0.5360	15.9340
 0.5370	16.0850
 0.5380	16.2310
 0.5390	16.3790
 0.5400	16.5260
 0.5410	16.6750
 0.5420	16.8260
 0.5430	16.9730
 0.5440	17.1090
 0.5450	17.2320
 0.5460	17.3380
 0.5470	17.4180
 0.5480	17.4950
 0.5490	17.5800
 0.5500	17.6680
 0.5510	17.7530
 0.5520	17.8340
 0.5530	17.9080
 0.5540	17.9700
 0.5550	18.0270
 0.5560	18.0810
 0.5570	18.1300
 0.5580	18.1750
 0.5590	18.2150
 0.5600	18.2490
 0.5610	18.2840
 0.5620	18.3140
 0.5630	18.3430
 0.5640	18.3720
 0.5650	18.3930
 0.5660	18.4050
 0.5670	18.4080
 0.5680	18.3970
 0.5690	18.3780
 0.5700	18.3590
 0.5710	18.3480
 0.5720	18.3380
 0.5730	18.3250
 0.5740	18.3120
 0.5750	18.3020
 0.5760	18.2990
 0.5770	18.2950
 0.5780	18.2860
 0.5790	18.2730
 0.5800	18.2680
 0.5810	18.2720
 0.5820	18.2830
 0.5830	18.2960
 0.5840	18.2980
 0.5850	18.2870
 0.5860	18.2770
 0.5870	18.2760
 0.5880	18.2770
 0.5890	18.2760
 0.5900	18.2830
 0.5910	18.3020
 0.5920	18.3270
 0.5930	18.3520
 0.5940	18.3760
 0.5950	18.3960
 0.5960	18.4140
 0.5970	18.4290
 0.5980	18.4430
 0.5990	18.4580
 0.6000	18.4750
 0.6010	18.4900
 0.6020	18.4990
 0.6030	18.5010
 0.6040	18.4970
 0.6050	18.4890
 0.6060	18.4740
 0.6070	18.4550
 0.6080	18.4360
 0.6090	18.4230
 0.6100	18.4220
 0.6110	18.4300
 0.6120	18.3990
 0.6130	18.3410
 0.6140	18.2790
 0.6150	18.2390
 0.6160	18.2030
 0.6170	18.1690
 0.6180	18.1420
 0.6190	18.1150
 0.6200	18.0970
 0.6210	18.0860
 0.6220	18.0750
 0.6230	18.0690
 0.6240	18.0690
 0.6250	18.0740
 0.6260	18.0800
 0.6270	18.0960
 0.6280	18.1160
 0.6290	18.1320
 0.6300	18.1520
 0.6310	18.1690
 0.6320	18.1800
 0.6330	18.1820
 0.6340	18.1760
 0.6350	18.1600
 0.6360	18.1300
 0.6370	18.0890
 0.6380	18.0330
 0.6390	17.9630
 0.6400	17.8790
 0.6410	17.7810
 0.6420	17.6770
 0.6430	17.5700
 0.6440	17.4570
 0.6450	17.3430
 0.6460	17.2280
 0.6470	17.1130
 0.6480	17.0120
 0.6490	16.9240
 0.6500	16.8470
 0.6510	16.7780
 0.6520	16.7190
 0.6530	16.6630
 0.6540	16.6060
 0.6550	16.5410
 0.6560	16.4680
 0.6570	16.3860
 0.6580	16.2920
 0.6590	16.1830
 0.6600	16.0610
 0.6610	15.9290
 0.6620	15.7960
 0.6630	15.6600
 0.6640	15.5240
 0.6650	15.3930
 0.6660	15.2720
 0.6670	15.1620
 0.6680	15.0650
 0.6690	14.9830
 0.6700	14.9160
 0.6710	14.8640
 0.6720	14.8290
 0.6730	14.8130
 0.6740	14.8070
 0.6750	14.8090
 0.6760	14.8230
 0.6770	14.8520
 0.6780	14.8920
 0.6790	14.9450
 0.6800	15.0240
 0.6810	15.1320
 0.6820	15.2720
 0.6830	15.4490
 0.6840	15.6770
 0.6850	15.9520
 0.6860	16.2800
 0.6870	16.6650
 0.6880	17.1020
 0.6890	17.5900
 0.6900	18.1250
 0.6910	18.6990
 0.6920	19.3110
 0.6930	19.9510
 0.6940	20.6100
 0.6950	21.2840
 0.6960	21.9650
 0.6970	22.6490
 0.6980	23.3310
 0.6990	24.0010
 0.7000	24.6600
 0.7010	25.3040
 0.7020	25.9220
 0.7030	26.5150
 0.7040	27.0830
 0.7050	27.6250
 0.7060	28.1390
 0.7070	28.6180
 0.7080	29.0700
 0.7090	29.5070
 0.7100	29.9120
 0.7110	30.2940
 0.7120	30.6550
 0.7130	30.9900
 0.7140	31.3070
 0.7150	31.6090
 0.7160	31.8930
 0.7170	32.1580
 0.7180	32.4090
 0.7190	32.6480
 0.7200	32.8770
 0.7210	33.0910
 0.7220	33.2900
 0.7230	33.4780
 0.7240	33.6600
 0.7250	33.8260
 0.7260	33.9890
 0.7270	34.1490
 0.7280	34.2850
 0.7290	34.4180
 0.7300	34.5500
 0.7310	34.6710
 0.7320	34.7880
 0.7330	34.8980
 0.7340	35.0010
 0.7350	35.0980
 0.7360	35.1950
 0.7370	35.2890
 0.7380	35.3790
 0.7390	35.4640
 0.7400	35.5470
 0.7410	35.6270
 0.7420	35.7010
 0.7430	35.7740
 0.7440	35.8470
 0.7450	35.9190
 0.7460	35.9860
 0.7470	36.0500
 0.7480	36.1110
 0.7490	36.1710
 0.7500	36.2330
 0.7510	36.2880
 0.7520	36.3420
 0.7530	36.4030
 0.7540	36.4540
 0.7550	36.5070
 0.7560	36.5630
 0.7570	36.6140
 0.7580	36.6660
 0.7590	36.7160
 0.7600	36.7630
 0.7610	36.8130
 0.7620	36.8630
 0.7630	36.9110
 0.7640	36.9560
 0.7650	37.0050
 0.7660	37.0520
 0.7670	37.0980
 0.7680	37.1450
 0.7690	37.1910
 0.7700	37.2340
 0.7710	37.2770
 0.7720	37.3250
 0.7730	37.3700
 0.7740	37.4120
 0.7750	37.4540
 0.7760	37.4990
 0.7770	37.5420
 0.7780	37.5840
 0.7790	37.6270
 0.7800	37.6700
 0.7810	37.7130
 0.7820	37.7550
 0.7830	37.7960
 0.7840	37.8380
 0.7850	37.8790
 0.7860	37.9160
 0.7870	37.9530
 0.7880	37.9910
 0.7890	38.0290
 0.7900	38.0680
 0.7910	38.1080
 0.7920	38.1450
 0.7930	38.1800
 0.7940	38.2140
 0.7950	38.2450
 0.7960	38.2780
 0.7970	38.3120
 0.7980	38.3410
 0.7990	38.3750
 0.8000	38.4090
 0.8010	38.4380
 0.8020	38.4670
 0.8030	38.4900
 0.8040	38.5120
 0.8050	38.5370
 0.8060	38.5660
 0.8070	38.5920
 0.8080	38.6130
 0.8090	38.6340
 0.8100	38.6570
 0.8110	38.6850
 0.8120	38.7130
 0.8130	38.7280
 0.8140	38.7440
 0.8150	38.7580
 0.8160	38.7700
 0.8170	38.7930
 0.8180	38.8110
 0.8190	38.8250
 0.8200	38.8420
 0.8210	38.8540
 0.8220	38.8680
 0.8230	38.8850
 0.8240	38.8990
 0.8250	38.9120
 0.8260	38.9240
 0.8270	38.9370
 0.8280	38.9490
 0.8290	38.9600
 0.8300	38.9730
 0.8310	38.9880
 0.8320	38.9940
 0.8330	39.0020
 0.8340	39.0130
 0.8350	39.0270
 0.8360	39.0380
 0.8370	39.0500
 0.8380	39.0640
 0.8390	39.0800
 0.8400	39.0920
 0.8410	39.1050
 0.8420	39.1220
 0.8430	39.1400
 0.8440	39.1480
 0.8450	39.1580
 0.8460	39.1810
 0.8470	39.1950
 0.8480	39.2100
 0.8490	39.2280
 0.8500	39.2470
 0.8510	39.2620
 0.8520	39.2770
 0.8530	39.2910
 0.8540	39.3040
 0.8550	39.3260
 0.8560	39.3510
 0.8570	39.3700
 0.8580	39.3780
 0.8590	39.3940
 0.8600	39.4150
 0.8610	39.4380
 0.8620	39.4590
 0.8630	39.4810
 0.8640	39.5010
 0.8650	39.5150
 0.8660	39.5330
 0.8670	39.5550
 0.8680	39.5820
 0.8690	39.6110
 0.8700	39.6300
 0.8710	39.6480
 0.8720	39.6690
 0.8730	39.6970
 0.8740	39.7190
 0.8750	39.7430
 0.8760	39.7680
 0.8770	39.7880
 0.8780	39.8160
 0.8790	39.8440
 0.8800	39.8680
 0.8810	39.8910
 0.8820	39.9170
 0.8830	39.9440
 0.8840	39.9700
 0.8850	39.9900
 0.8860	40.0120
 0.8870	40.0390
 0.8880	40.0720
 0.8890	40.0960
 0.8900	40.1150
 0.8910	40.1390
 0.8920	40.1770
 0.8930	40.2030
 0.8940	40.2240
 0.8950	40.2460
 0.8960	40.2730
 0.8970	40.2910
 0.8980	40.3140
 0.8990	40.3440
 0.9000	40.3710
 0.9010	40.4010
 0.9020	40.4260
 0.9030	40.4470
 0.9040	40.4750
 0.9050	40.4980
 0.9060	40.5160
 0.9070	40.5330
 0.9080	40.5540
 0.9090	40.5770
 0.9100	40.6010
 0.9110	40.6260
 0.9120	40.6560
 0.9130	40.6780
 0.9140	40.6920
 0.9150	40.7030
 0.9160	40.7260
 0.9170	40.7510
 0.9180	40.7770
 0.9190	40.8020
 0.9200	40.8180
 0.9210	40.8360
 0.9220	40.8600
 0.9230	40.8840
 0.9240	40.9050
 0.9250	40.9210
 0.9260	40.9330
 0.9270	40.9420
 0.9280	40.9480
 0.9290	40.9610
 0.9300	40.9780
 0.9310	40.9890
 0.9320	40.9980
 0.9330	41.0090
 0.9340	41.0200
 0.9350	41.0270
 0.9360	41.0340
 0.9370	41.0440
 0.9380	41.0580
 0.9390	41.0730
 0.9400	41.0850
 0.9410	41.0870
 0.9420	41.0790
 0.9430	41.0790
 0.9440	41.0760
 0.9450	41.0720
 0.9460	41.0680
 0.9470	41.0620
 0.9480	41.0500
 0.9490	41.0370
 0.9500	41.0280
 0.9510	41.0310
 0.9520	41.0260
 0.9530	41.0120
 0.9540	40.9940
 0.9550	40.9790
 0.9560	40.9610
 0.9570	40.9440
 0.9580	40.9340
 0.9590	40.9200
 0.9600	40.9080
 0.9610	40.9010
 0.9620	40.8940
 0.9630	40.8780
 0.9640	40.8730
 0.9650	40.8720
 0.9660	40.8660
 0.9670	40.8690
 0.9680	40.8700
 0.9690	40.8690
 0.9700	40.8670
 0.9710	40.8730
 0.9720	40.8720
 0.9730	40.8720
 0.9740	40.8820
 0.9750	40.8800
 0.9760	40.8850
 0.9770	40.8910
 0.9780	40.8850
 0.9790	40.8800
 0.9800	40.8850
 0.9810	40.8950
 0.9820	40.9030
 0.9830	40.9130
 0.9840	40.9270
 0.9850	40.9330
 0.9860	40.9300
 0.9870	40.9550
 0.9880	40.9710
 0.9890	40.9700
 0.9900	40.9660
 0.9910	40.9840
 0.9920	41.0050
 0.9930	41.0220
 0.9940	41.0350
 0.9950	41.0420
 0.9960	41.0380
 0.9970	41.0410
 0.9980	41.0710
 0.9990	41.0880
 1.0000	41.2140
 1.0010	41.4430
 1.0020	41.5690
 1.0030	41.5800
 1.0040	41.5900
 1.0050	41.5980
 1.0060	41.6090
 1.0070	41.6250
 1.0080	41.6370
 1.0090	41.6500
 1.0100	41.6640
 1.0110	41.6770
 1.0120	41.6900
 1.0130	41.7080
 1.0140	41.7220
 1.0150	41.7330
 1.0160	41.7410
 1.0170	41.7470
 1.0180	41.7560
 1.0190	41.7680
 1.0200	41.7800
 1.0210	41.7960
 1.0220	41.8110
 1.0230	41.8240
 1.0240	41.8350
 1.0250	41.8470
 1.0260	41.8580
 1.0270	41.8670
 1.0280	41.8770
 1.0290	41.8870
 1.0300	41.8930
 1.0310	41.9030
 1.0320	41.9150
 1.0330	41.9260
 1.0340	41.9400
 1.0350	41.9510
 1.0360	41.9630
 1.0370	41.9730
 1.0380	41.9820
 1.0390	41.9880
 1.0400	41.9960
 1.0410	42.0020
 1.0420	42.0110
 1.0430	42.0230
 1.0440	42.0310
 1.0450	42.0360
 1.0460	42.0450
 1.0470	42.0530
 1.0480	42.0620
 1.0490	42.0750
 1.0500	42.0860
 1.0510	42.0960
 1.0520	42.1020
 1.0530	42.1100
 1.0540	42.1170
 1.0550	42.1260
 1.0560	42.1350
 1.0570	42.1440
 1.0580	42.1530
 1.0590	42.1610
 1.0600	42.1660
 1.0610	42.1750
 1.0620	42.1890
 1.0630	42.1980
 1.0640	42.2070
 1.0650	42.2160
 1.0660	42.2240
 1.0670	42.2310
 1.0680	42.2370
 1.0690	42.2440
 1.0700	42.2520
 1.0710	42.2570
 1.0720	42.2660
 1.0730	42.2790
 1.0740	42.2890
 1.0750	42.3020
 1.0760	42.3100
 1.0770	42.3130
 1.0780	42.3190
 1.0790	42.3230
 1.0800	42.3270
 1.0810	42.3330
 1.0820	42.3390
 1.0830	42.3460
 1.0840	42.3510
 1.0850	42.3580
 1.0860	42.3650
 1.0870	42.3710
 1.0880	42.3760
 1.0890	42.3810
 1.0900	42.3840
 1.0910	42.3880
 1.0920	42.3940
 1.0930	42.3960
 1.0940	42.3950
 1.0950	42.3960
 1.0960	42.3950
 1.0970	42.3950
 1.0980	42.3980
 1.0990	42.4000
 1.1000	42.4030
 1.1010	42.4040
 1.1020	42.4040
 1.1030	42.4040
 1.1040	42.4040
 1.1050	42.4010
 1.1060	42.4000
 1.1070	42.3990
 1.1080	42.3970
 1.1090	42.3940
 1.1100	42.3900
 1.1110	42.3840
 1.1120	42.3790
 1.1130	42.3730
 1.1140	42.3680
 1.1150	42.3660
 1.1160	42.3620
 1.1170	42.3580
 1.1180	42.3510
 1.1190	42.3420
 1.1200	42.3340
 1.1210	42.3250
 1.1220	42.3120
 1.1230	42.2960
 1.1240	42.2790
 1.1250	42.2600
 1.1260	42.2380
 1.1270	42.2160
 1.1280	42.1930
 1.1290	42.1670
 1.1300	42.1400
 1.1310	42.1080
 1.1320	42.0740
 1.1330	42.0360
 1.1340	41.9930
 1.1350	41.9480
 1.1360	41.9000
 1.1370	41.8480
 1.1380	41.7940
 1.1390	41.7370
 1.1400	41.6800
 1.1410	41.6220
 1.1420	41.5620
 1.1430	41.5030
 1.1440	41.4430
 1.1450	41.3800
 1.1460	41.3200
 1.1470	41.2590
 1.1480	41.2030
 1.1490	41.1490
 1.1500	41.0980
 1.1510	41.0510
 1.1520	41.0050
 1.1530	40.9620
 1.1540	40.9220
 1.1550	40.8850
 1.1560	40.8510
 1.1570	40.8190
 1.1580	40.7890
 1.1590	40.7640
 1.1600	40.7410
 1.1610	40.7220
 1.1620	40.7040
 1.1630	40.6860
 1.1640	40.6690
 1.1650	40.6540
 1.1660	40.6410
 1.1670	40.6270
 1.1680	40.6140
 1.1690	40.6000
 1.1700	40.5850
 1.1710	40.5710
 1.1720	40.5590
 1.1730	40.5460
 1.1740	40.5330
 1.1750	40.5200
 1.1760	40.5070
 1.1770	40.4950
 1.1780	40.4820
 1.1790	40.4680
 1.1800	40.4550
 1.1810	40.4400
 1.1820	40.4260
 1.1830	40.4130
 1.1840	40.4000
 1.1850	40.3870
 1.1860	40.3770
 1.1870	40.3680
 1.1880	40.3610
 1.1890	40.3570
 1.1900	40.3550
 1.1910	40.3540
 1.1920	40.3550
 1.1930	40.3570
 1.1940	40.3600
 1.1950	40.3650
 1.1960	40.3700
 1.1970	40.3770
 1.1980	40.3840
 1.1990	40.3940
 1.2000	40.4060
 1.2010	40.4200
 1.2020	40.4330
 1.2030	40.4430
 1.2040	40.4560
 1.2050	40.4710
 1.2060	40.4850
 1.2070	40.5020
 1.2080	40.5190
 1.2090	40.5340
 1.2100	40.5510
 1.2110	40.5690
 1.2120	40.5880
 1.2130	40.6070
 1.2140	40.6300
 1.2150	40.6510
 1.2160	40.6730
 1.2170	40.6940
 1.2180	40.7170
 1.2190	40.7390
 1.2200	40.7620
 1.2210	40.7880
 1.2220	40.8120
 1.2230	40.8340
 1.2240	40.8560
 1.2250	40.8770
 1.2260	40.8970
 1.2270	40.9180
 1.2280	40.9400
 1.2290	40.9610
 1.2300	40.9790
 1.2310	40.9970
 1.2320	41.0150
 1.2330	41.0310
 1.2340	41.0460
 1.2350	41.0630
 1.2360	41.0780
 1.2370	41.0910
 1.2380	41.1030
 1.2390	41.1160
 1.2400	41.1290
 1.2410	41.1420
 1.2420	41.1540
 1.2430	41.1650
 1.2440	41.1760
 1.2450	41.1870
 1.2460	41.2000
 1.2470	41.2120
 1.2480	41.2240
 1.2490	41.2370
 1.2500	41.2460
 1.2510	41.2530
 1.2520	41.2620
 1.2530	41.2690
 1.2540	41.2770
 1.2550	41.2830
 1.2560	41.2890
 1.2570	41.2950
 1.2580	41.3000
 1.2590	41.3060
 1.2600	41.3120
 1.2610	41.3170
 1.2620	41.3200
 1.2630	41.3230
 1.2640	41.3270
 1.2650	41.3310
 1.2660	41.3360
 1.2670	41.3370
 1.2680	41.3370
 1.2690	41.3370
 1.2700	41.3350
 1.2710	41.3320
 1.2720	41.3290
 1.2730	41.3240
 1.2740	41.3210
 1.2750	41.3170
 1.2760	41.3130
 1.2770	41.3090
 1.2780	41.3000
 1.2790	41.2900
 1.2800	41.2830
 1.2810	41.2750
 1.2820	41.2690
 1.2830	41.2650
 1.2840	41.2590
 1.2850	41.2480
 1.2860	41.2370
 1.2870	41.2260
 1.2880	41.2140
 1.2890	41.2030
 1.2900	41.1940
 1.2910	41.1850
 1.2920	41.1740
 1.2930	41.1630
 1.2940	41.1510
 1.2950	41.1390
 1.2960	41.1260
 1.2970	41.1120
 1.2980	41.0970
 1.2990	41.0820
 1.3000	41.0660
 1.3010	41.0510
 1.3020	41.0340
 1.3030	41.0120
 1.3040	40.9880
 1.3050	40.9630
 1.3060	40.9350
 1.3070	40.9060
 1.3080	40.8770
 1.3090	40.8470
 1.3100	40.8140
 1.3110	40.7780
 1.3120	40.7400
 1.3130	40.7010
 1.3140	40.6600
 1.3150	40.6200
 1.3160	40.5760
 1.3170	40.5320
 1.3180	40.4840
 1.3190	40.4370
 1.3200	40.3870
 1.3210	40.3360
 1.3220	40.2830
 1.3230	40.2240
 1.3240	40.1640
 1.3250	40.1060
 1.3260	40.0450
 1.3270	39.9830
 1.3280	39.9220
 1.3290	39.8580
 1.3300	39.7910
 1.3310	39.7240
 1.3320	39.6530
 1.3330	39.5810
 1.3340	39.5090
 1.3350	39.4360
 1.3360	39.3640
 1.3370	39.2890
 1.3380	39.2120
 1.3390	39.1350
 1.3400	39.0560
 1.3410	38.9790
 1.3420	38.9030
 1.3430	38.8260
 1.3440	38.7500
 1.3450	38.6740
 1.3460	38.5950
 1.3470	38.5180
 1.3480	38.4410
 1.3490	38.3650
 1.3500	38.2900
 1.3510	38.2140
 1.3520	38.1390
 1.3530	38.0620
 1.3540	37.9840
 1.3550	37.9080
 1.3560	37.8320
 1.3570	37.7540
 1.3580	37.6780
 1.3590	37.6000
 1.3600	37.5200
 1.3610	37.4390
 1.3620	37.3560
 1.3630	37.2700
 1.3640	37.1840
 1.3650	37.0960
 1.3660	37.0050
 1.3670	36.9090
 1.3680	36.8050
 1.3690	36.6950
 1.3700	36.5780
 1.3710	36.4530
 1.3720	36.3190
 1.3730	36.1760
 1.3740	36.0240
 1.3750	35.8610
 1.3760	35.6860
 1.3770	35.4970
 1.3780	35.2920
 1.3790	35.0750
 1.3800	34.8450
 1.3810	34.5980
 1.3820	34.3400
 1.3830	34.0700
 1.3840	33.7860
 1.3850	33.4900
 1.3860	33.1820
 1.3870	32.8580
 1.3880	32.5280
 1.3890	32.1860
 1.3900	31.8350
 1.3910	31.4800
 1.3920	31.1190
 1.3930	30.7510
 1.3940	30.3800
 1.3950	30.0040
 1.3960	29.6300
 1.3970	29.2590
 1.3980	28.8910
 1.3990	28.5330
 1.4000	28.1790
 1.4010	27.8310
 1.4020	27.4950
 1.4030	27.1660
 1.4040	26.8490
 1.4050	26.5470
 1.4060	26.2550
 1.4070	25.9780
 1.4080	25.7140
 1.4090	25.4630
 1.4100	25.2280
 1.4110	25.0060
 1.4120	24.7960
 1.4130	24.6010
 1.4140	24.4180
 1.4150	24.2500
 1.4160	24.0970
 1.4170	23.9530
 1.4180	23.8210
 1.4190	23.7000
 1.4200	23.5890
 1.4210	23.4870
 1.4220	23.3940
 1.4230	23.3110
 1.4240	23.2340
 1.4250	23.1650
 1.4260	23.1060
 1.4270	23.0500
 1.4280	23.0000
 1.4290	22.9560
 1.4300	22.9160
 1.4310	22.8830
 1.4320	22.8580
 1.4330	22.8350
 1.4340	22.8190
 1.4350	22.8040
 1.4360	22.7930
 1.4370	22.7860
 1.4380	22.7820
 1.4390	22.7820
 1.4400	22.7850
 1.4410	22.7900
 1.4420	22.7970
 1.4430	22.8060
 1.4440	22.8160
 1.4450	22.8280
 1.4460	22.8420
 1.4470	22.8560
 1.4480	22.8720
 1.4490	22.8890
 1.4500	22.9070
 1.4510	22.9270
 1.4520	22.9470
 1.4530	22.9670
 1.4540	22.9890
 1.4550	23.0130
 1.4560	23.0380
 1.4570	23.0670
 1.4580	23.0980
 1.4590	23.1310
 1.4600	23.1680
 1.4610	23.2060
 1.4620	23.2470
 1.4630	23.2930
 1.4640	23.3430
 1.4650	23.3950
 1.4660	23.4530
 1.4670	23.5130
 1.4680	23.5770
 1.4690	23.6460
 1.4700	23.7170
