Name: Pinus lambertiana 3
Type: vegetation
Class: Tree
Genus: Pinus
Species: lambertiana
Sample No.: VH166
Owner: UCSB
Wavelength Range: TIR
Origin: 37.0433; -119.3048; WGS84
Collection Date: 6/8/2013
Description: Samples were collected as part of the HyspIRI Airborne Campaign. 48 individual plants were sampled in three times in 2013 - spring  summer  and fall. The name of the sample includes a 1  2  or 3 which references a different individual of the species. Samples were taken to JPL and processed within 48 hours of collection. The same leaves were processed in the Nicolet and then measured using the ASD.
Measurement: Hemispherical reflectance
First Column: X
Second Column: Y
X Units: Wavelength (micrometers)
Y Units: Reflectance (percentage)
First X Value: 2.501
Last X Value: 15.387
Number of X Values: 1737
Additional Information: vegetation.tree.pinus.lambertiana.tir.vh166.ucsb.nicolet.ancillary.txt

 2.5010	 3.6010
 2.5030	 3.4340
 2.5040	 3.3770
 2.5050	 3.4290
 2.5060	 3.7130
 2.5070	 3.7750
 2.5090	 3.8470
 2.5100	 3.7210
 2.5110	 3.5970
 2.5120	 3.6060
 2.5140	 3.6730
 2.5150	 3.5570
 2.5160	 3.6100
 2.5170	 3.6450
 2.5180	 3.5330
 2.5200	 3.3740
 2.5210	 3.5390
 2.5220	 3.5610
 2.5230	 3.5110
 2.5250	 3.5080
 2.5260	 3.5830
 2.5270	 3.6060
 2.5280	 3.6900
 2.5290	 3.5610
 2.5310	 3.6040
 2.5320	 3.6130
 2.5330	 3.6190
 2.5340	 3.6530
 2.5360	 3.7260
 2.5370	 3.6630
 2.5380	 3.6210
 2.5390	 3.6630
 2.5410	 3.8130
 2.5420	 3.6940
 2.5430	 3.6610
 2.5440	 3.6710
 2.5460	 3.7210
 2.5470	 3.6810
 2.5480	 3.5840
 2.5490	 3.3980
 2.5510	 3.5190
 2.5520	 3.6020
 2.5530	 3.6380
 2.5540	 3.6480
 2.5560	 3.6910
 2.5570	 3.7170
 2.5580	 3.7640
 2.5590	 3.6090
 2.5610	 3.5690
 2.5620	 3.6380
 2.5630	 3.7150
 2.5640	 3.7190
 2.5660	 3.7480
 2.5670	 3.6350
 2.5680	 3.6380
 2.5700	 3.6060
 2.5710	 3.5840
 2.5720	 3.5940
 2.5730	 3.7560
 2.5750	 3.6980
 2.5760	 3.6290
 2.5770	 3.5870
 2.5790	 3.5420
 2.5800	 3.4860
 2.5810	 3.6390
 2.5820	 3.7040
 2.5840	 3.6290
 2.5850	 3.5040
 2.5860	 3.4900
 2.5880	 3.5200
 2.5890	 3.6370
 2.5900	 3.6180
 2.5910	 3.6760
 2.5930	 3.5620
 2.5940	 3.5810
 2.5950	 3.6430
 2.5970	 3.6360
 2.5980	 3.5260
 2.5990	 3.5250
 2.6000	 3.5500
 2.6020	 3.5680
 2.6030	 3.5090
 2.6040	 3.5110
 2.6060	 3.4750
 2.6070	 3.5610
 2.6080	 3.4760
 2.6100	 3.4950
 2.6110	 3.5210
 2.6120	 3.5470
 2.6140	 3.4320
 2.6150	 3.4130
 2.6160	 3.4100
 2.6180	 3.4980
 2.6190	 3.5080
 2.6200	 3.4390
 2.6220	 3.4030
 2.6230	 3.5120
 2.6240	 3.4280
 2.6260	 3.2820
 2.6270	 3.2050
 2.6280	 3.2470
 2.6300	 3.2260
 2.6310	 3.4040
 2.6320	 3.3940
 2.6340	 3.3230
 2.6350	 3.2300
 2.6360	 3.1990
 2.6380	 3.1780
 2.6390	 3.2370
 2.6400	 3.3420
 2.6420	 3.4120
 2.6430	 3.3390
 2.6440	 3.2050
 2.6460	 3.1550
 2.6470	 3.1580
 2.6480	 3.1200
 2.6500	 3.1910
 2.6510	 3.1860
 2.6520	 3.2390
 2.6540	 3.2030
 2.6550	 3.1390
 2.6560	 2.9160
 2.6580	 2.9260
 2.6590	 2.9820
 2.6610	 2.9200
 2.6620	 2.8810
 2.6630	 2.9690
 2.6650	 2.9490
 2.6660	 2.9960
 2.6670	 2.9530
 2.6690	 3.0510
 2.6700	 2.9370
 2.6720	 2.9030
 2.6730	 2.8200
 2.6740	 2.7940
 2.6760	 2.7610
 2.6770	 2.7790
 2.6780	 2.7550
 2.6800	 2.7570
 2.6810	 2.5930
 2.6830	 2.5240
 2.6840	 2.6100
 2.6850	 2.8610
 2.6870	 2.8280
 2.6880	 2.6960
 2.6900	 2.5530
 2.6910	 2.6400
 2.6920	 2.7320
 2.6940	 2.7430
 2.6950	 2.6800
 2.6970	 2.6400
 2.6980	 2.6100
 2.6990	 2.5930
 2.7010	 2.4900
 2.7020	 2.5960
 2.7040	 2.6010
 2.7050	 2.6040
 2.7060	 2.5260
 2.7080	 2.5160
 2.7090	 2.5160
 2.7110	 2.5440
 2.7120	 2.5050
 2.7130	 2.5420
 2.7150	 2.5290
 2.7160	 2.5190
 2.7180	 2.4740
 2.7190	 2.4610
 2.7210	 2.4010
 2.7220	 2.4650
 2.7230	 2.4150
 2.7250	 2.3350
 2.7260	 2.2670
 2.7280	 2.4380
 2.7290	 2.4200
 2.7310	 2.3290
 2.7320	 2.3380
 2.7330	 2.3960
 2.7350	 2.3470
 2.7360	 2.2070
 2.7380	 2.1680
 2.7390	 2.3030
 2.7410	 2.2570
 2.7420	 2.4010
 2.7440	 2.4790
 2.7450	 2.5590
 2.7470	 2.6110
 2.7480	 2.3830
 2.7490	 1.9520
 2.7510	 2.0360
 2.7520	 2.2280
 2.7540	 2.2900
 2.7550	 2.2300
 2.7570	 2.3940
 2.7580	 2.3900
 2.7600	 2.4240
 2.7610	 2.4880
 2.7630	 2.5170
 2.7640	 2.2790
 2.7660	 2.0410
 2.7670	 1.9680
 2.7680	 2.1500
 2.7700	 2.1390
 2.7710	 2.1750
 2.7730	 2.2450
 2.7740	 2.4910
 2.7760	 2.6770
 2.7770	 2.7120
 2.7790	 2.3840
 2.7800	 2.3840
 2.7820	 2.4350
 2.7830	 2.4160
 2.7850	 2.3910
 2.7860	 2.4310
 2.7880	 2.1020
 2.7890	 2.1000
 2.7910	 2.2950
 2.7920	 2.2390
 2.7940	 2.0690
 2.7950	 2.1310
 2.7970	 2.2180
 2.7980	 2.3210
 2.8000	 2.1420
 2.8010	 2.1740
 2.8030	 2.2840
 2.8040	 2.4230
 2.8060	 2.3300
 2.8070	 2.3240
 2.8090	 2.2290
 2.8110	 2.2000
 2.8120	 2.2940
 2.8140	 2.3210
 2.8150	 2.2160
 2.8170	 2.3320
 2.8180	 2.2810
 2.8200	 2.3250
 2.8210	 2.2280
 2.8230	 2.3240
 2.8240	 2.5070
 2.8260	 2.5410
 2.8270	 2.2960
 2.8290	 2.3630
 2.8300	 2.2440
 2.8320	 2.0360
 2.8340	 2.0820
 2.8350	 2.1520
 2.8370	 2.0580
 2.8380	 2.1230
 2.8400	 2.2600
 2.8410	 2.4240
 2.8430	 2.3800
 2.8440	 2.3420
 2.8460	 2.1980
 2.8480	 2.2160
 2.8490	 2.2870
 2.8510	 2.2800
 2.8520	 2.1950
 2.8540	 2.3100
 2.8550	 2.3270
 2.8570	 2.3090
 2.8590	 2.2510
 2.8600	 2.3210
 2.8620	 2.2630
 2.8630	 2.3610
 2.8650	 2.2710
 2.8660	 2.1540
 2.8680	 2.1300
 2.8700	 2.4090
 2.8710	 2.4010
 2.8730	 2.0850
 2.8740	 2.0240
 2.8760	 2.2700
 2.8780	 2.3830
 2.8790	 2.3820
 2.8810	 2.2210
 2.8820	 2.3540
 2.8840	 2.4680
 2.8860	 2.3770
 2.8870	 2.3560
 2.8890	 2.5950
 2.8900	 2.5480
 2.8920	 2.4030
 2.8940	 2.2770
 2.8950	 2.4290
 2.8970	 2.3640
 2.8980	 2.1810
 2.9000	 2.1980
 2.9020	 2.3000
 2.9030	 2.3420
 2.9050	 2.5230
 2.9070	 2.6500
 2.9080	 2.5210
 2.9100	 2.3280
 2.9120	 2.4240
 2.9130	 2.3530
 2.9150	 2.2880
 2.9160	 2.1660
 2.9180	 2.2470
 2.9200	 2.2650
 2.9210	 2.3680
 2.9230	 2.2770
 2.9250	 2.2710
 2.9260	 2.2660
 2.9280	 2.4230
 2.9300	 2.3770
 2.9310	 2.3910
 2.9330	 2.3520
 2.9350	 2.3740
 2.9360	 2.4210
 2.9380	 2.6080
 2.9400	 2.5500
 2.9410	 2.5130
 2.9430	 2.4800
 2.9450	 2.5500
 2.9460	 2.3980
 2.9480	 2.4310
 2.9500	 2.5770
 2.9510	 2.1110
 2.9530	 1.9690
 2.9550	 2.6560
 2.9560	 2.7590
 2.9580	 2.3440
 2.9600	 2.6900
 2.9610	 2.8970
 2.9630	 2.1560
 2.9650	 1.6930
 2.9660	 1.7900
 2.9680	 1.6120
 2.9700	 1.7410
 2.9720	 1.3670
 2.9730	 0.7880
 2.9750	 1.5000
 2.9770	 2.8120
 2.9780	 2.8960
 2.9800	 1.9480
 2.9820	 2.1790
 2.9840	 2.5220
 2.9850	 2.2830
 2.9870	 1.4580
 2.9890	 1.4340
 2.9900	 1.8150
 2.9920	 2.7380
 2.9940	 1.9190
 2.9960	 1.2020
 2.9970	 1.0510
 2.9990	 1.9160
 3.0010	 2.7860
 3.0030	 3.1350
 3.0040	 2.6980
 3.0060	 2.4150
 3.0080	 2.1770
 3.0100	 2.0950
 3.0110	 1.8810
 3.0130	 1.7820
 3.0150	 1.7770
 3.0170	 2.0800
 3.0180	 2.1910
 3.0200	 2.1130
 3.0220	 2.2360
 3.0240	 2.5250
 3.0250	 2.4110
 3.0270	 2.3550
 3.0290	 2.1160
 3.0310	 1.9830
 3.0320	 1.6460
 3.0340	 2.2590
 3.0360	 2.3770
 3.0380	 2.6680
 3.0400	 2.5970
 3.0410	 2.4950
 3.0430	 2.2020
 3.0450	 1.4090
 3.0470	 1.3630
 3.0480	 1.7320
 3.0500	 1.0980
 3.0520	 -0.011
 3.0540	 -1.223
 3.0560	 -0.016
 3.0570	 1.7120
 3.0590	 1.4020
 3.0610	 2.4460
 3.0630	 2.5220
 3.0650	 2.3010
 3.0660	 2.3180
 3.0680	 2.4110
 3.0700	 2.4420
 3.0720	 2.3700
 3.0740	 2.3700
 3.0760	 2.4460
 3.0770	 2.2100
 3.0790	 2.0660
 3.0810	 2.2600
 3.0830	 2.2960
 3.0850	 2.2060
 3.0870	 2.2980
 3.0880	 2.3570
 3.0900	 2.1410
 3.0920	 2.0180
 3.0940	 2.0620
 3.0960	 2.1080
 3.0980	 2.2360
 3.0990	 2.2420
 3.1010	 1.9950
 3.1030	 1.7780
 3.1050	 2.1260
 3.1070	 2.6940
 3.1090	 2.7490
 3.1110	 2.6710
 3.1120	 2.2740
 3.1140	 2.1050
 3.1160	 2.0760
 3.1180	 2.2070
 3.1200	 2.2120
 3.1220	 1.9920
 3.1240	 2.0730
 3.1260	 2.5830
 3.1270	 2.6990
 3.1290	 2.4700
 3.1310	 2.3800
 3.1330	 2.4410
 3.1350	 2.2620
 3.1370	 2.3410
 3.1390	 1.9360
 3.1410	 1.8580
 3.1430	 2.6250
 3.1450	 2.6450
 3.1460	 2.2400
 3.1480	 2.3080
 3.1500	 2.0760
 3.1520	 2.1490
 3.1540	 2.3600
 3.1560	 2.4600
 3.1580	 2.6120
 3.1600	 2.5660
 3.1620	 2.1680
 3.1640	 2.2140
 3.1660	 3.1250
 3.1680	 2.7770
 3.1700	 1.9770
 3.1710	 2.4120
 3.1730	 2.2690
 3.1750	 3.0220
 3.1770	 2.8130
 3.1790	 1.9540
 3.1810	 1.6690
 3.1830	 2.4350
 3.1850	 2.6740
 3.1870	 2.3640
 3.1890	 2.1960
 3.1910	 2.1260
 3.1930	 2.2280
 3.1950	 2.3780
 3.1970	 2.2270
 3.1990	 2.2230
 3.2010	 2.2590
 3.2030	 2.2450
 3.2050	 2.1040
 3.2070	 2.1120
 3.2090	 2.0490
 3.2110	 2.1170
 3.2130	 2.0410
 3.2150	 1.9200
 3.2170	 1.9220
 3.2190	 2.1560
 3.2210	 2.3850
 3.2230	 2.2820
 3.2250	 2.2100
 3.2270	 2.3400
 3.2290	 2.4170
 3.2310	 2.4820
 3.2330	 2.3980
 3.2350	 2.4160
 3.2370	 2.3140
 3.2390	 2.1120
 3.2410	 2.1580
 3.2430	 2.2300
 3.2450	 2.0210
 3.2470	 2.0060
 3.2490	 2.0390
 3.2510	 1.9860
 3.2530	 1.9920
 3.2550	 2.0360
 3.2570	 1.8850
 3.2590	 2.0930
 3.2610	 2.0720
 3.2630	 2.2410
 3.2650	 2.4230
 3.2670	 2.2340
 3.2690	 2.1070
 3.2720	 1.9900
 3.2740	 1.9140
 3.2760	 2.0540
 3.2780	 2.0290
 3.2800	 2.2260
 3.2820	 2.2900
 3.2840	 2.1310
 3.2860	 2.0820
 3.2880	 2.1350
 3.2900	 2.0500
 3.2920	 2.0980
 3.2940	 2.2060
 3.2960	 2.1750
 3.2990	 2.0930
 3.3010	 2.1650
 3.3030	 2.2030
 3.3050	 2.2010
 3.3070	 2.1180
 3.3090	 2.2380
 3.3110	 2.3240
 3.3130	 2.3430
 3.3150	 2.1780
 3.3180	 1.9190
 3.3200	 1.9520
 3.3220	 2.0440
 3.3240	 2.0360
 3.3260	 2.0570
 3.3280	 1.9790
 3.3300	 2.0150
 3.3330	 1.9860
 3.3350	 1.9840
 3.3370	 2.0580
 3.3390	 2.0770
 3.3410	 2.0340
 3.3430	 2.0520
 3.3450	 1.9080
 3.3480	 1.9770
 3.3500	 1.9990
 3.3520	 1.8650
 3.3540	 1.8480
 3.3560	 2.0160
 3.3580	 2.0450
 3.3610	 2.0670
 3.3630	 1.9080
 3.3650	 1.7960
 3.3670	 1.7390
 3.3690	 1.7910
 3.3720	 1.8410
 3.3740	 1.7390
 3.3760	 1.7710
 3.3780	 1.8720
 3.3800	 1.7320
 3.3830	 1.6170
 3.3850	 1.6430
 3.3870	 1.7780
 3.3890	 2.0060
 3.3910	 2.0690
 3.3940	 1.8500
 3.3960	 1.6300
 3.3980	 1.5300
 3.4000	 1.8360
 3.4020	 1.9670
 3.4050	 1.8460
 3.4070	 1.7080
 3.4090	 1.9110
 3.4110	 2.0270
 3.4140	 2.0330
 3.4160	 2.0680
 3.4180	 2.3130
 3.4200	 2.5390
 3.4230	 2.9060
 3.4250	 3.4310
 3.4270	 3.9330
 3.4290	 4.0490
 3.4320	 4.1190
 3.4340	 3.9140
 3.4360	 3.6070
 3.4390	 3.4260
 3.4410	 3.2990
 3.4430	 3.0940
 3.4450	 3.2150
 3.4480	 3.2840
 3.4500	 3.1510
 3.4520	 3.0620
 3.4550	 3.0470
 3.4570	 2.7010
 3.4590	 2.6990
 3.4620	 2.7770
 3.4640	 2.6880
 3.4660	 2.7090
 3.4680	 2.8280
 3.4710	 2.6910
 3.4730	 2.5180
 3.4750	 2.4920
 3.4780	 2.5600
 3.4800	 2.5680
 3.4820	 2.5650
 3.4850	 2.4010
 3.4870	 2.2850
 3.4890	 2.2130
 3.4920	 2.1800
 3.4940	 2.1630
 3.4970	 2.1660
 3.4990	 2.1170
 3.5010	 2.1800
 3.5040	 2.3710
 3.5060	 2.8350
 3.5080	 3.4650
 3.5110	 3.9840
 3.5130	 4.0370
 3.5160	 3.7460
 3.5180	 3.4620
 3.5200	 3.3180
 3.5230	 3.1950
 3.5250	 3.1790
 3.5270	 3.1000
 3.5300	 3.1470
 3.5320	 3.0550
 3.5350	 2.9400
 3.5370	 2.8480
 3.5400	 2.8270
 3.5420	 2.8490
 3.5440	 2.9210
 3.5470	 2.8810
 3.5490	 2.7890
 3.5520	 2.7370
 3.5540	 2.7220
 3.5570	 2.7530
 3.5590	 2.8120
 3.5610	 2.8000
 3.5640	 2.8300
 3.5660	 2.7690
 3.5690	 2.7230
 3.5710	 2.6770
 3.5740	 2.6770
 3.5760	 2.7040
 3.5790	 2.7580
 3.5810	 2.6850
 3.5840	 2.6470
 3.5860	 2.6210
 3.5890	 2.6720
 3.5910	 2.6710
 3.5930	 2.5410
 3.5960	 2.3300
 3.5980	 2.4330
 3.6010	 2.6320
 3.6030	 2.6130
 3.6060	 2.3510
 3.6080	 2.2440
 3.6110	 2.4290
 3.6140	 2.6300
 3.6160	 2.6130
 3.6190	 2.6900
 3.6210	 2.7270
 3.6240	 2.6220
 3.6260	 2.5260
 3.6290	 2.5260
 3.6310	 2.4250
 3.6340	 2.5530
 3.6360	 2.6060
 3.6390	 2.5260
 3.6410	 2.5180
 3.6440	 2.6070
 3.6470	 2.5590
 3.6490	 2.5380
 3.6520	 2.6140
 3.6540	 2.7110
 3.6570	 2.6500
 3.6590	 2.5750
 3.6620	 2.5130
 3.6650	 2.5480
 3.6670	 2.5870
 3.6700	 2.6250
 3.6720	 2.5600
 3.6750	 2.5670
 3.6780	 2.5160
 3.6800	 2.5290
 3.6830	 2.5410
 3.6850	 2.5440
 3.6880	 2.5120
 3.6910	 2.5990
 3.6930	 2.6060
 3.6960	 2.5260
 3.6990	 2.4620
 3.7010	 2.5110
 3.7040	 2.5220
 3.7060	 2.5550
 3.7090	 2.5920
 3.7120	 2.6260
 3.7140	 2.6360
 3.7170	 2.5840
 3.7200	 2.4350
 3.7220	 2.4280
 3.7250	 2.5940
 3.7280	 2.6390
 3.7300	 2.4350
 3.7330	 2.2740
 3.7360	 2.3490
 3.7390	 2.5660
 3.7410	 2.5300
 3.7440	 2.3810
 3.7470	 2.3290
 3.7490	 2.4710
 3.7520	 2.4610
 3.7550	 2.5180
 3.7580	 2.5050
 3.7600	 2.5380
 3.7630	 2.5910
 3.7660	 2.5040
 3.7680	 2.4550
 3.7710	 2.5140
 3.7740	 2.4970
 3.7770	 2.5510
 3.7790	 2.5640
 3.7820	 2.5230
 3.7850	 2.5490
 3.7880	 2.6000
 3.7900	 2.5880
 3.7930	 2.5560
 3.7960	 2.5400
 3.7990	 2.5910
 3.8020	 2.5220
 3.8040	 2.5150
 3.8070	 2.5180
 3.8100	 2.5070
 3.8130	 2.5460
 3.8160	 2.5700
 3.8180	 2.5230
 3.8210	 2.5670
 3.8240	 2.5590
 3.8270	 2.6120
 3.8300	 2.5810
 3.8330	 2.5090
 3.8350	 2.5500
 3.8380	 2.5030
 3.8410	 2.5470
 3.8440	 2.5790
 3.8470	 2.4620
 3.8500	 2.4030
 3.8520	 2.4690
 3.8550	 2.6090
 3.8580	 2.5680
 3.8610	 2.5510
 3.8640	 2.5600
 3.8670	 2.5730
 3.8700	 2.5010
 3.8730	 2.5060
 3.8750	 2.5400
 3.8780	 2.5060
 3.8810	 2.5010
 3.8840	 2.5880
 3.8870	 2.5760
 3.8900	 2.5430
 3.8930	 2.5890
 3.8960	 2.6810
 3.8990	 2.6490
 3.9020	 2.5750
 3.9050	 2.5340
 3.9080	 2.5550
 3.9110	 2.5170
 3.9140	 2.5510
 3.9160	 2.5650
 3.9190	 2.5670
 3.9220	 2.6250
 3.9250	 2.5850
 3.9280	 2.4580
 3.9310	 2.4540
 3.9340	 2.5650
 3.9370	 2.6430
 3.9400	 2.6310
 3.9430	 2.6460
 3.9460	 2.6300
 3.9490	 2.6130
 3.9520	 2.5720
 3.9550	 2.5090
 3.9580	 2.4980
 3.9610	 2.5540
 3.9640	 2.5120
 3.9670	 2.5670
 3.9700	 2.6320
 3.9730	 2.6490
 3.9770	 2.6130
 3.9800	 2.5950
 3.9830	 2.5730
 3.9860	 2.6040
 3.9890	 2.6600
 3.9920	 2.6870
 3.9950	 2.6390
 3.9980	 2.6230
 4.0010	 2.6070
 4.0040	 2.6030
 4.0070	 2.5840
 4.0100	 2.5480
 4.0130	 2.5530
 4.0170	 2.6140
 4.0200	 2.6500
 4.0230	 2.6790
 4.0260	 2.6280
 4.0290	 2.6410
 4.0320	 2.6570
 4.0350	 2.5740
 4.0380	 2.5320
 4.0420	 2.5500
 4.0450	 2.5430
 4.0480	 2.6310
 4.0510	 2.6370
 4.0540	 2.6260
 4.0570	 2.6250
 4.0610	 2.6130
 4.0640	 2.5580
 4.0670	 2.5490
 4.0700	 2.5920
 4.0730	 2.5640
 4.0770	 2.5310
 4.0800	 2.5390
 4.0830	 2.4840
 4.0860	 2.4890
 4.0890	 2.5270
 4.0930	 2.5660
 4.0960	 2.6250
 4.0990	 2.5410
 4.1020	 2.4050
 4.1060	 2.5070
 4.1090	 2.6600
 4.1120	 2.6350
 4.1150	 2.5150
 4.1190	 2.5150
 4.1220	 2.5420
 4.1250	 2.5930
 4.1280	 2.6060
 4.1320	 2.5850
 4.1350	 2.6250
 4.1380	 2.6770
 4.1420	 2.7100
 4.1450	 2.6750
 4.1480	 2.5210
 4.1520	 2.4730
 4.1550	 2.4790
 4.1580	 2.5210
 4.1620	 2.6500
 4.1650	 2.6720
 4.1680	 2.5980
 4.1720	 2.5860
 4.1750	 2.5450
 4.1780	 2.5500
 4.1820	 2.5920
 4.1850	 2.5780
 4.1890	 2.5020
 4.1920	 2.4990
 4.1950	 2.5860
 4.1990	 2.6130
 4.2020	 2.5770
 4.2060	 2.5930
 4.2090	 2.5400
 4.2120	 2.5410
 4.2160	 2.5380
 4.2190	 2.5030
 4.2230	 2.4770
 4.2260	 2.5090
 4.2300	 2.4240
 4.2330	 2.2560
 4.2360	 2.2570
 4.2400	 2.2490
 4.2430	 2.2290
 4.2470	 2.2360
 4.2500	 2.3760
 4.2540	 2.4880
 4.2570	 2.5250
 4.2610	 2.5480
 4.2640	 2.4190
 4.2680	 2.2190
 4.2710	 2.3560
 4.2750	 2.4080
 4.2780	 2.3930
 4.2820	 2.4910
 4.2850	 2.4370
 4.2890	 2.3990
 4.2930	 2.3370
 4.2960	 2.3750
 4.3000	 2.4310
 4.3030	 2.4120
 4.3070	 2.4110
 4.3100	 2.5540
 4.3140	 2.5620
 4.3180	 2.5860
 4.3210	 2.5710
 4.3250	 2.4970
 4.3280	 2.5340
 4.3320	 2.6010
 4.3360	 2.6270
 4.3390	 2.5750
 4.3430	 2.5330
 4.3470	 2.5230
 4.3500	 2.5010
 4.3540	 2.4860
 4.3570	 2.4950
 4.3610	 2.4680
 4.3650	 2.4720
 4.3680	 2.5360
 4.3720	 2.5310
 4.3760	 2.5330
 4.3800	 2.5540
 4.3830	 2.4710
 4.3870	 2.4110
 4.3910	 2.4240
 4.3940	 2.4520
 4.3980	 2.4540
 4.4020	 2.4670
 4.4060	 2.4540
 4.4090	 2.4750
 4.4130	 2.5120
 4.4170	 2.4510
 4.4210	 2.4030
 4.4240	 2.3970
 4.4280	 2.3970
 4.4320	 2.4470
 4.4360	 2.4580
 4.4400	 2.4370
 4.4430	 2.4550
 4.4470	 2.4180
 4.4510	 2.4080
 4.4550	 2.4930
 4.4590	 2.5280
 4.4620	 2.5400
 4.4660	 2.5160
 4.4700	 2.4970
 4.4740	 2.4950
 4.4780	 2.5110
 4.4820	 2.5090
 4.4860	 2.4740
 4.4900	 2.4850
 4.4930	 2.4990
 4.4970	 2.4390
 4.5010	 2.3470
 4.5050	 2.3390
 4.5090	 2.3490
 4.5130	 2.3580
 4.5170	 2.4240
 4.5210	 2.4530
 4.5250	 2.4820
 4.5290	 2.4460
 4.5330	 2.4420
 4.5370	 2.4510
 4.5410	 2.4200
 4.5450	 2.4170
 4.5490	 2.4370
 4.5530	 2.3500
 4.5570	 2.2490
 4.5610	 2.3320
 4.5650	 2.4610
 4.5690	 2.4450
 4.5730	 2.3620
 4.5770	 2.3460
 4.5810	 2.3250
 4.5850	 2.2960
 4.5890	 2.3430
 4.5930	 2.4070
 4.5970	 2.4100
 4.6010	 2.3670
 4.6050	 2.4280
 4.6090	 2.4530
 4.6130	 2.2790
 4.6170	 2.2860
 4.6220	 2.4670
 4.6260	 2.3480
 4.6300	 2.2140
 4.6340	 2.2590
 4.6380	 2.2990
 4.6420	 2.3490
 4.6460	 2.3460
 4.6510	 2.3850
 4.6550	 2.3630
 4.6590	 2.3000
 4.6630	 2.3270
 4.6670	 2.3670
 4.6720	 2.3610
 4.6760	 2.3610
 4.6800	 2.4690
 4.6840	 2.4330
 4.6880	 2.4380
 4.6930	 2.4820
 4.6970	 2.4300
 4.7010	 2.3920
 4.7050	 2.3090
 4.7100	 2.2970
 4.7140	 2.3850
 4.7180	 2.3850
 4.7230	 2.3100
 4.7270	 2.3120
 4.7310	 2.3800
 4.7360	 2.4150
 4.7400	 2.4100
 4.7440	 2.4260
 4.7490	 2.4380
 4.7530	 2.3490
 4.7570	 2.2900
 4.7620	 2.2740
 4.7660	 2.3190
 4.7700	 2.3970
 4.7750	 2.3950
 4.7790	 2.3120
 4.7840	 2.3120
 4.7880	 2.3720
 4.7920	 2.3950
 4.7970	 2.3940
 4.8010	 2.3620
 4.8060	 2.2680
 4.8100	 2.2770
 4.8150	 2.2960
 4.8190	 2.2910
 4.8240	 2.3260
 4.8280	 2.3620
 4.8330	 2.3310
 4.8370	 2.3510
 4.8420	 2.4200
 4.8460	 2.4210
 4.8510	 2.3630
 4.8550	 2.3700
 4.8600	 2.4200
 4.8640	 2.3970
 4.8690	 2.3560
 4.8730	 2.3820
 4.8780	 2.3630
 4.8830	 2.3480
 4.8870	 2.3070
 4.8920	 2.2860
 4.8960	 2.3250
 4.9010	 2.3760
 4.9060	 2.3420
 4.9100	 2.3060
 4.9150	 2.3240
 4.9200	 2.3420
 4.9240	 2.3570
 4.9290	 2.3450
 4.9340	 2.2590
 4.9380	 2.2550
 4.9430	 2.2590
 4.9480	 2.2740
 4.9530	 2.2710
 4.9570	 2.3580
 4.9620	 2.4050
 4.9670	 2.3830
 4.9720	 2.3490
 4.9760	 2.3460
 4.9810	 2.3160
 4.9860	 2.3840
 4.9910	 2.4130
 4.9960	 2.4120
 5.0000	 2.4060
 5.0050	 2.3880
 5.0100	 2.3700
 5.0150	 2.3840
 5.0200	 2.4000
 5.0250	 2.3630
 5.0290	 2.2570
 5.0340	 2.2920
 5.0390	 2.3500
 5.0440	 2.3400
 5.0490	 2.3310
 5.0540	 2.3870
 5.0590	 2.3740
 5.0640	 2.3910
 5.0690	 2.4230
 5.0740	 2.4150
 5.0790	 2.3780
 5.0840	 2.3760
 5.0890	 2.3720
 5.0940	 2.3890
 5.0990	 2.3430
 5.1040	 2.3700
 5.1090	 2.4170
 5.1140	 2.4030
 5.1190	 2.3670
 5.1240	 2.3200
 5.1290	 2.3010
 5.1340	 2.3280
 5.1390	 2.3110
 5.1440	 2.3430
 5.1490	 2.3740
 5.1540	 2.3900
 5.1600	 2.3660
 5.1650	 2.3810
 5.1700	 2.3610
 5.1750	 2.4050
 5.1800	 2.3670
 5.1850	 2.3810
 5.1910	 2.3910
 5.1960	 2.3770
 5.2010	 2.3520
 5.2060	 2.3470
 5.2110	 2.3270
 5.2170	 2.3930
 5.2220	 2.3810
 5.2270	 2.3570
 5.2320	 2.3410
 5.2380	 2.3830
 5.2430	 2.3460
 5.2480	 2.3780
 5.2540	 2.3940
 5.2590	 2.4060
 5.2640	 2.3440
 5.2700	 2.2940
 5.2750	 2.3100
 5.2800	 2.4040
 5.2860	 2.3750
 5.2910	 2.3870
 5.2970	 2.4180
 5.3020	 2.4250
 5.3070	 2.3990
 5.3130	 2.4350
 5.3180	 2.4030
 5.3240	 2.3910
 5.3290	 2.4050
 5.3350	 2.4040
 5.3400	 2.3400
 5.3460	 2.3320
 5.3510	 2.2740
 5.3570	 2.3070
 5.3620	 2.3780
 5.3680	 2.3870
 5.3730	 2.3060
 5.3790	 2.3290
 5.3850	 2.3410
 5.3900	 2.3770
 5.3960	 2.3870
 5.4010	 2.3720
 5.4070	 2.2750
 5.4130	 2.2720
 5.4180	 2.2950
 5.4240	 2.2970
 5.4300	 2.2850
 5.4350	 2.3230
 5.4410	 2.2530
