Name: Cedrus deodara
Type: vegetation
Class: Tree
Genus: Cedrus
Species: deodara
Sample No.: JPL105
Owner: JPL
Wavelength Range: TIR
Origin: 34.12843; - 118.11538; WGS84
Collection Date: 2/2/2016
Description: Samples were collected at the Huntington Garden in San Marino California as part of a JPL Subcontract studying HyTES imagery. Samples were taken to JPL and processed within 48 hours of collection. The same leaves were processed in the Nicolet and then measured using the ASD.
Measurement: Hemispherical reflectance
First Column: X
Second Column: Y
X Units: Wavelength (micrometer)
Y Units: Reflectance (percentage)
First X Value: 2.501
Last X Value: 15.387
Number of X Values: 1737
Additional Information: 

 2.5010	 5.5850
 2.5030	 5.5150
 2.5040	 5.5040
 2.5050	 5.5470
 2.5060	 5.6120
 2.5070	 5.6120
 2.5090	 5.5870
 2.5100	 5.5430
 2.5110	 5.5420
 2.5120	 5.4880
 2.5140	 5.4210
 2.5150	 5.4520
 2.5160	 5.4850
 2.5170	 5.3910
 2.5180	 5.4430
 2.5200	 5.5510
 2.5210	 5.5930
 2.5220	 5.4910
 2.5230	 5.4940
 2.5250	 5.5150
 2.5260	 5.5060
 2.5270	 5.4800
 2.5280	 5.5040
 2.5300	 5.4140
 2.5310	 5.3630
 2.5320	 5.3580
 2.5330	 5.4110
 2.5340	 5.4870
 2.5360	 5.5630
 2.5370	 5.4450
 2.5380	 5.3670
 2.5390	 5.4160
 2.5410	 5.5230
 2.5420	 5.5330
 2.5430	 5.5770
 2.5440	 5.5400
 2.5460	 5.5210
 2.5470	 5.5300
 2.5480	 5.5250
 2.5490	 5.4610
 2.5510	 5.4670
 2.5520	 5.4310
 2.5530	 5.4730
 2.5540	 5.5110
 2.5560	 5.5900
 2.5570	 5.5990
 2.5580	 5.5770
 2.5590	 5.5440
 2.5610	 5.5530
 2.5620	 5.5770
 2.5630	 5.6460
 2.5650	 5.5810
 2.5660	 5.5030
 2.5670	 5.5520
 2.5680	 5.5680
 2.5700	 5.5220
 2.5710	 5.6020
 2.5720	 5.6130
 2.5730	 5.5230
 2.5750	 5.4400
 2.5760	 5.4770
 2.5770	 5.4620
 2.5790	 5.4630
 2.5800	 5.4800
 2.5810	 5.5060
 2.5820	 5.5340
 2.5840	 5.5830
 2.5850	 5.5670
 2.5860	 5.6000
 2.5880	 5.5510
 2.5890	 5.5630
 2.5900	 5.6040
 2.5910	 5.5740
 2.5930	 5.4770
 2.5940	 5.4530
 2.5950	 5.4560
 2.5970	 5.4940
 2.5980	 5.4290
 2.5990	 5.4010
 2.6010	 5.4630
 2.6020	 5.4910
 2.6030	 5.4860
 2.6040	 5.5400
 2.6060	 5.5090
 2.6070	 5.4690
 2.6080	 5.3680
 2.6100	 5.3310
 2.6110	 5.3460
 2.6120	 5.3920
 2.6140	 5.4630
 2.6150	 5.5220
 2.6160	 5.4900
 2.6180	 5.4110
 2.6190	 5.3250
 2.6200	 5.3430
 2.6220	 5.3730
 2.6230	 5.4200
 2.6240	 5.3940
 2.6260	 5.3560
 2.6270	 5.3000
 2.6280	 5.3000
 2.6300	 5.2850
 2.6310	 5.3180
 2.6320	 5.2990
 2.6340	 5.2910
 2.6350	 5.2710
 2.6360	 5.2200
 2.6380	 5.2290
 2.6390	 5.3470
 2.6400	 5.2800
 2.6420	 5.1840
 2.6430	 5.1550
 2.6440	 5.1550
 2.6460	 5.1730
 2.6470	 5.2840
 2.6480	 5.2670
 2.6500	 5.1890
 2.6510	 5.1330
 2.6520	 5.1170
 2.6540	 5.1140
 2.6550	 5.1260
 2.6570	 5.1440
 2.6580	 5.1680
 2.6590	 5.1580
 2.6610	 5.1190
 2.6620	 5.1120
 2.6630	 5.0750
 2.6650	 4.9500
 2.6660	 4.9570
 2.6670	 5.0590
 2.6690	 5.1160
 2.6700	 5.0160
 2.6720	 4.9620
 2.6730	 5.0020
 2.6740	 5.0360
 2.6760	 5.0450
 2.6770	 5.0360
 2.6780	 4.9500
 2.6800	 4.9320
 2.6810	 4.9190
 2.6830	 5.0230
 2.6840	 5.0190
 2.6850	 4.9610
 2.6870	 4.9680
 2.6880	 5.0460
 2.6900	 4.9260
 2.6910	 4.8560
 2.6920	 4.9420
 2.6940	 5.0170
 2.6950	 4.8810
 2.6970	 4.8360
 2.6980	 4.8620
 2.6990	 4.8530
 2.7010	 4.8280
 2.7020	 4.8740
 2.7040	 4.8440
 2.7050	 4.8240
 2.7060	 4.8070
 2.7080	 4.8520
 2.7090	 4.9010
 2.7110	 4.9350
 2.7120	 4.8590
 2.7130	 4.8730
 2.7150	 4.8730
 2.7160	 4.8420
 2.7180	 4.8160
 2.7190	 4.8640
 2.7210	 4.8590
 2.7220	 4.8140
 2.7230	 4.7750
 2.7250	 4.8280
 2.7260	 4.8740
 2.7280	 4.8690
 2.7290	 4.7870
 2.7310	 4.7560
 2.7320	 4.7170
 2.7340	 4.7670
 2.7350	 4.7800
 2.7360	 4.7630
 2.7380	 4.7310
 2.7390	 4.7400
 2.7410	 4.7390
 2.7420	 4.7840
 2.7440	 4.7520
 2.7450	 4.7490
 2.7470	 4.7510
 2.7480	 4.8120
 2.7490	 4.8320
 2.7510	 4.8120
 2.7520	 4.7900
 2.7540	 4.7890
 2.7550	 4.7580
 2.7570	 4.7850
 2.7580	 4.7950
 2.7600	 4.8390
 2.7610	 4.8060
 2.7630	 4.8300
 2.7640	 4.7840
 2.7660	 4.8100
 2.7670	 4.7690
 2.7690	 4.7750
 2.7700	 4.8290
 2.7720	 4.8860
 2.7730	 4.9050
 2.7740	 4.8940
 2.7760	 4.8200
 2.7770	 4.8830
 2.7790	 4.9000
 2.7800	 4.9130
 2.7820	 4.8880
 2.7830	 4.8420
 2.7850	 4.8170
 2.7860	 4.9100
 2.7880	 4.8530
 2.7890	 4.7830
 2.7910	 4.7890
 2.7920	 4.8240
 2.7940	 4.7810
 2.7950	 4.8230
 2.7970	 4.8470
 2.7980	 4.8130
 2.8000	 4.8080
 2.8010	 4.9200
 2.8030	 4.9410
 2.8040	 4.9020
 2.8060	 4.8340
 2.8080	 4.8730
 2.8090	 4.8750
 2.8110	 4.8820
 2.8120	 4.8830
 2.8140	 4.8410
 2.8150	 4.8050
 2.8170	 4.8780
 2.8180	 4.9080
 2.8200	 4.9240
 2.8210	 4.9300
 2.8230	 4.9000
 2.8240	 4.8580
 2.8260	 4.8910
 2.8270	 4.9150
 2.8290	 4.9290
 2.8310	 4.8970
 2.8320	 4.9170
 2.8340	 4.8900
 2.8350	 4.9360
 2.8370	 4.9460
 2.8380	 4.9790
 2.8400	 4.9460
 2.8410	 4.9070
 2.8430	 4.8540
 2.8440	 4.8440
 2.8460	 4.8270
 2.8480	 4.8570
 2.8490	 4.8350
 2.8510	 4.8910
 2.8520	 4.9580
 2.8540	 4.9680
 2.8550	 4.9310
 2.8570	 4.9040
 2.8590	 4.8660
 2.8600	 4.9290
 2.8620	 4.9880
 2.8630	 4.9910
 2.8650	 4.9080
 2.8660	 4.9380
 2.8680	 4.9810
 2.8700	 5.0240
 2.8710	 4.9350
 2.8730	 4.8770
 2.8740	 4.8620
 2.8760	 4.9360
 2.8780	 4.9850
 2.8790	 4.9340
 2.8810	 4.8700
 2.8820	 4.9340
 2.8840	 5.0010
 2.8860	 5.0010
 2.8870	 4.9670
 2.8890	 5.0370
 2.8900	 5.0110
 2.8920	 5.0270
 2.8940	 4.9710
 2.8950	 4.9550
 2.8970	 4.9850
 2.8990	 5.0090
 2.9000	 4.9960
 2.9020	 4.9730
 2.9030	 4.9220
 2.9050	 4.9740
 2.9070	 4.9490
 2.9080	 5.0200
 2.9100	 5.0430
 2.9120	 5.0290
 2.9130	 4.9810
 2.9150	 4.9990
 2.9160	 5.0080
 2.9180	 4.9870
 2.9200	 4.9440
 2.9210	 5.0260
 2.9230	 5.1010
 2.9250	 5.1020
 2.9260	 5.0040
 2.9280	 4.9700
 2.9300	 4.9590
 2.9310	 5.0130
 2.9330	 5.0170
 2.9350	 5.0060
 2.9360	 5.0580
 2.9380	 5.0950
 2.9400	 5.0470
 2.9410	 5.1080
 2.9430	 5.0770
 2.9450	 5.0460
 2.9460	 4.9830
 2.9480	 4.9910
 2.9500	 5.0390
 2.9510	 5.0810
 2.9530	 5.0370
 2.9550	 5.0090
 2.9560	 4.9910
 2.9580	 4.9800
 2.9600	 4.9660
 2.9610	 5.0440
 2.9630	 5.0490
 2.9650	 5.0210
 2.9670	 4.9670
 2.9680	 4.9570
 2.9700	 4.9820
 2.9720	 5.0130
 2.9730	 4.9770
 2.9750	 4.9850
 2.9770	 4.9510
 2.9780	 4.9290
 2.9800	 4.9370
 2.9820	 5.0170
 2.9840	 5.0270
 2.9850	 4.9970
 2.9870	 4.9110
 2.9890	 4.9090
 2.9900	 5.0200
 2.9920	 5.0660
 2.9940	 5.0160
 2.9960	 5.0450
 2.9970	 5.0600
 2.9990	 5.0640
 3.0010	 5.0570
 3.0030	 5.0000
 3.0040	 4.9560
 3.0060	 5.0310
 3.0080	 5.0380
 3.0100	 5.0290
 3.0110	 5.0190
 3.0130	 5.0890
 3.0150	 5.1020
 3.0170	 5.0820
 3.0180	 5.0530
 3.0200	 5.0830
 3.0220	 5.0180
 3.0240	 5.0390
 3.0250	 5.0540
 3.0270	 5.0710
 3.0290	 5.0850
 3.0310	 5.1160
 3.0320	 5.0820
 3.0340	 5.0560
 3.0360	 4.9740
 3.0380	 4.9520
 3.0400	 4.9690
 3.0410	 4.9750
 3.0430	 5.0290
 3.0450	 5.1110
 3.0470	 5.0420
 3.0480	 5.0370
 3.0500	 5.0450
 3.0520	 5.0890
 3.0540	 5.0360
 3.0560	 5.0110
 3.0570	 4.9720
 3.0590	 4.9710
 3.0610	 4.9520
 3.0630	 4.9870
 3.0650	 5.0250
 3.0670	 5.0100
 3.0680	 4.9490
 3.0700	 4.9880
 3.0720	 5.0320
 3.0740	 5.0330
 3.0760	 5.0180
 3.0770	 5.0310
 3.0790	 4.9700
 3.0810	 4.9630
 3.0830	 4.9680
 3.0850	 5.0140
 3.0870	 5.0020
 3.0880	 5.0130
 3.0900	 5.0220
 3.0920	 5.0790
 3.0940	 5.0440
 3.0960	 4.9820
 3.0980	 4.9790
 3.1000	 5.0300
 3.1010	 4.9750
 3.1030	 5.0070
 3.1050	 5.0480
 3.1070	 5.0500
 3.1090	 5.0030
 3.1110	 5.0270
 3.1130	 5.0170
 3.1140	 4.9790
 3.1160	 4.9510
 3.1180	 5.0040
 3.1200	 5.0280
 3.1220	 5.0000
 3.1240	 4.9460
 3.1260	 4.9990
 3.1280	 4.9910
 3.1290	 4.9920
 3.1310	 5.0140
 3.1330	 4.9710
 3.1350	 4.9100
 3.1370	 4.9650
 3.1390	 4.9990
 3.1410	 5.0410
 3.1430	 5.0460
 3.1450	 5.0260
 3.1470	 4.9630
 3.1480	 4.9850
 3.1500	 4.9810
 3.1520	 4.9460
 3.1540	 4.9420
 3.1560	 4.9530
 3.1580	 4.9060
 3.1600	 4.9130
 3.1620	 4.8830
 3.1640	 4.8970
 3.1660	 4.9550
 3.1680	 4.9310
 3.1700	 4.9180
 3.1720	 4.9730
 3.1730	 4.9700
 3.1750	 4.9830
 3.1770	 4.9270
 3.1790	 4.9240
 3.1810	 4.8990
 3.1830	 4.8550
 3.1850	 4.8660
 3.1870	 4.8940
 3.1890	 4.9330
 3.1910	 4.9730
 3.1930	 4.9350
 3.1950	 4.9540
 3.1970	 4.9410
 3.1990	 4.9340
 3.2010	 4.9520
 3.2030	 4.9560
 3.2050	 4.8970
 3.2070	 4.8910
 3.2090	 4.9530
 3.2110	 5.0100
 3.2130	 4.9690
 3.2150	 4.9370
 3.2170	 4.9180
 3.2190	 4.9200
 3.2210	 4.9190
 3.2230	 4.9400
 3.2250	 4.9340
 3.2270	 4.9550
 3.2290	 4.9610
 3.2310	 4.9410
 3.2330	 4.8880
 3.2350	 4.8830
 3.2370	 4.8730
 3.2390	 4.8930
 3.2410	 4.9180
 3.2430	 4.9240
 3.2450	 4.8610
 3.2470	 4.8410
 3.2490	 4.8310
 3.2510	 4.8800
 3.2530	 4.9680
 3.2550	 4.9840
 3.2570	 4.9480
 3.2590	 4.9760
 3.2610	 4.9210
 3.2630	 4.8780
 3.2650	 4.8670
 3.2670	 4.8850
 3.2700	 4.8920
 3.2720	 4.9050
 3.2740	 4.8890
 3.2760	 4.9000
 3.2780	 4.9050
 3.2800	 4.8840
 3.2820	 4.8850
 3.2840	 4.9150
 3.2860	 4.9000
 3.2880	 4.8920
 3.2900	 4.8720
 3.2920	 4.8680
 3.2940	 4.8760
 3.2970	 4.8990
 3.2990	 4.8720
 3.3010	 4.8650
 3.3030	 4.8550
 3.3050	 4.8570
 3.3070	 4.8300
 3.3090	 4.8050
 3.3110	 4.8170
 3.3130	 4.8820
 3.3160	 4.8690
 3.3180	 4.8270
 3.3200	 4.7740
 3.3220	 4.8160
 3.3240	 4.8490
 3.3260	 4.8470
 3.3280	 4.7940
 3.3300	 4.7640
 3.3330	 4.7690
 3.3350	 4.7860
 3.3370	 4.7540
 3.3390	 4.7840
 3.3410	 4.7740
 3.3430	 4.7890
 3.3450	 4.7970
 3.3480	 4.7660
 3.3500	 4.7320
 3.3520	 4.7320
 3.3540	 4.7240
 3.3560	 4.7540
 3.3580	 4.7390
 3.3610	 4.7370
 3.3630	 4.7280
 3.3650	 4.7030
 3.3670	 4.6890
 3.3690	 4.6900
 3.3720	 4.6550
 3.3740	 4.6500
 3.3760	 4.6850
 3.3780	 4.6770
 3.3800	 4.6480
 3.3830	 4.6610
 3.3850	 4.6070
 3.3870	 4.5410
 3.3890	 4.5200
 3.3910	 4.5710
 3.3940	 4.5500
 3.3960	 4.5260
 3.3980	 4.5510
 3.4000	 4.5740
 3.4030	 4.5690
 3.4050	 4.5790
 3.4070	 4.5300
 3.4090	 4.5240
 3.4110	 4.5760
 3.4140	 4.6210
 3.4160	 4.6410
 3.4180	 4.6890
 3.4200	 4.7680
 3.4230	 4.8620
 3.4250	 5.0050
 3.4270	 5.2500
 3.4300	 5.4150
 3.4320	 5.4220
 3.4340	 5.3290
 3.4360	 5.2840
 3.4390	 5.2630
 3.4410	 5.2520
 3.4430	 5.1950
 3.4450	 5.1750
 3.4480	 5.1830
 3.4500	 5.1930
 3.4520	 5.1490
 3.4550	 5.1300
 3.4570	 5.0870
 3.4590	 5.0820
 3.4620	 5.0880
 3.4640	 5.0680
 3.4660	 5.0290
 3.4690	 5.0060
 3.4710	 5.0160
 3.4730	 5.0600
 3.4760	 5.0460
 3.4780	 5.0260
 3.4800	 4.9940
 3.4830	 4.9620
 3.4850	 4.8810
 3.4870	 4.8740
 3.4900	 4.8720
 3.4920	 4.8590
 3.4940	 4.8410
 3.4970	 4.8220
 3.4990	 4.7600
 3.5010	 4.7750
 3.5040	 4.8440
 3.5060	 5.0290
 3.5080	 5.2730
 3.5110	 5.4680
 3.5130	 5.4910
 3.5160	 5.4530
 3.5180	 5.3910
 3.5200	 5.3380
 3.5230	 5.3290
 3.5250	 5.3580
 3.5280	 5.2770
 3.5300	 5.1990
 3.5320	 5.1910
 3.5350	 5.2100
 3.5370	 5.1900
 3.5400	 5.1890
 3.5420	 5.1470
 3.5440	 5.0860
 3.5470	 5.0680
 3.5490	 5.1060
 3.5520	 5.1140
 3.5540	 5.1140
 3.5570	 5.1110
 3.5590	 5.1530
 3.5610	 5.1530
 3.5640	 5.1260
 3.5660	 5.1000
 3.5690	 5.0890
 3.5710	 5.0740
 3.5740	 5.0610
 3.5760	 5.0610
 3.5790	 5.1160
 3.5810	 5.0970
 3.5840	 5.0550
 3.5860	 5.0330
 3.5890	 5.0550
 3.5910	 5.0650
 3.5940	 5.0780
 3.5960	 5.0620
 3.5990	 5.0580
 3.6010	 5.0510
 3.6040	 5.0350
 3.6060	 5.0170
 3.6090	 5.0310
 3.6110	 5.0190
 3.6140	 5.0330
 3.6160	 5.0420
 3.6190	 5.0780
 3.6210	 5.0820
 3.6240	 5.0510
 3.6260	 5.0400
 3.6290	 5.0250
 3.6310	 5.0120
 3.6340	 5.0270
 3.6360	 4.9860
 3.6390	 4.9590
 3.6410	 4.9730
 3.6440	 4.9880
 3.6470	 5.0110
 3.6490	 5.0440
 3.6520	 5.0340
 3.6540	 5.0140
 3.6570	 4.9900
 3.6590	 4.9860
 3.6620	 4.9560
 3.6650	 5.0140
 3.6670	 5.0630
 3.6700	 5.0440
 3.6720	 5.0080
 3.6750	 5.0000
 3.6780	 4.9980
 3.6800	 5.0390
 3.6830	 5.0800
 3.6850	 5.0580
 3.6880	 5.0350
 3.6910	 5.0070
 3.6930	 4.9820
 3.6960	 5.0160
 3.6990	 5.0310
 3.7010	 5.0190
 3.7040	 5.0170
 3.7070	 5.0330
 3.7090	 5.0210
 3.7120	 5.0170
 3.7150	 5.0200
 3.7170	 5.0060
 3.7200	 5.0140
 3.7230	 5.0340
 3.7250	 5.0310
 3.7280	 5.0070
 3.7310	 5.0000
 3.7330	 5.0090
 3.7360	 4.9940
 3.7390	 5.0110
 3.7410	 5.0090
 3.7440	 5.0110
 3.7470	 4.9980
 3.7490	 4.9820
 3.7520	 4.9920
 3.7550	 4.9940
 3.7580	 4.9820
 3.7600	 4.9910
 3.7630	 4.9760
 3.7660	 5.0240
 3.7690	 5.0100
 3.7710	 4.9880
 3.7740	 5.0190
 3.7770	 5.0300
 3.7790	 5.0000
 3.7820	 4.9940
 3.7850	 5.0020
 3.7880	 5.0390
 3.7910	 5.0500
 3.7930	 5.0400
 3.7960	 5.0340
 3.7990	 5.0140
 3.8020	 4.9930
 3.8040	 5.0080
 3.8070	 5.0140
 3.8100	 5.0310
 3.8130	 5.0030
 3.8160	 4.9910
 3.8180	 5.0360
 3.8210	 5.0500
 3.8240	 5.0120
 3.8270	 4.9960
 3.8300	 4.9960
 3.8330	 5.0120
 3.8350	 5.0130
 3.8380	 4.9890
 3.8410	 5.0230
 3.8440	 5.0600
 3.8470	 5.0170
 3.8500	 5.0110
 3.8520	 5.0320
 3.8550	 5.0480
 3.8580	 5.0550
 3.8610	 5.0510
 3.8640	 5.0180
 3.8670	 4.9970
 3.8700	 5.0200
 3.8730	 5.0410
 3.8760	 5.0340
 3.8780	 5.0240
 3.8810	 5.0220
 3.8840	 5.0220
 3.8870	 5.0280
 3.8900	 5.0290
 3.8930	 5.0540
 3.8960	 5.0530
 3.8990	 4.9980
 3.9020	 4.9860
 3.9050	 4.9950
 3.9080	 5.0220
 3.9110	 5.0520
 3.9140	 5.0520
 3.9170	 5.0260
 3.9190	 5.0380
 3.9220	 5.0520
 3.9250	 5.0560
 3.9280	 5.0360
 3.9310	 5.0420
 3.9340	 5.0650
 3.9370	 5.0840
 3.9400	 5.0650
 3.9430	 5.0440
 3.9460	 5.0270
 3.9490	 5.0380
 3.9520	 5.0620
 3.9550	 5.0500
 3.9580	 5.0660
 3.9610	 5.0840
 3.9640	 5.0660
 3.9670	 5.0630
 3.9700	 5.0810
 3.9740	 5.0800
 3.9770	 5.0480
 3.9800	 5.0410
 3.9830	 5.0740
 3.9860	 5.0800
 3.9890	 5.0780
 3.9920	 5.0740
 3.9950	 5.0740
 3.9980	 5.0570
 4.0010	 5.0490
 4.0040	 5.0420
 4.0070	 5.0450
 4.0100	 5.0430
 4.0140	 5.0380
 4.0170	 5.0430
 4.0200	 5.0410
 4.0230	 4.9960
 4.0260	 5.0030
 4.0290	 5.0550
 4.0320	 5.0660
 4.0350	 5.0750
 4.0390	 5.0870
 4.0420	 5.0880
 4.0450	 5.0780
 4.0480	 5.0600
 4.0510	 5.0220
 4.0540	 5.0090
 4.0570	 5.0440
 4.0610	 5.0770
 4.0640	 5.0730
 4.0670	 5.0620
 4.0700	 5.0710
 4.0730	 5.0890
 4.0770	 5.1130
 4.0800	 5.0920
 4.0830	 5.0550
 4.0860	 5.0330
 4.0890	 5.0220
 4.0930	 5.0270
 4.0960	 5.0380
 4.0990	 5.0440
 4.1020	 5.0770
 4.1060	 5.0960
 4.1090	 5.0510
 4.1120	 5.0440
 4.1150	 5.0690
 4.1190	 5.0720
 4.1220	 5.0880
 4.1250	 5.0790
 4.1290	 5.0590
 4.1320	 5.0720
 4.1350	 5.0980
 4.1380	 5.0810
 4.1420	 5.0120
 4.1450	 5.0080
 4.1480	 5.0220
 4.1520	 5.0530
 4.1550	 5.0770
 4.1580	 5.0870
 4.1620	 5.0750
 4.1650	 5.0500
 4.1680	 5.0350
 4.1720	 5.0390
 4.1750	 5.0820
 4.1780	 5.1040
 4.1820	 5.1200
 4.1850	 5.0830
 4.1890	 5.0750
 4.1920	 5.1010
 4.1950	 5.0830
 4.1990	 5.0550
 4.2020	 5.0680
 4.2060	 5.0640
 4.2090	 5.1060
 4.2120	 5.1620
 4.2160	 5.1560
 4.2190	 5.0850
 4.2230	 5.1020
 4.2260	 5.1150
 4.2300	 5.1160
 4.2330	 5.1200
 4.2360	 5.1400
 4.2400	 5.1630
 4.2430	 5.1570
 4.2470	 5.1320
 4.2500	 5.0550
 4.2540	 5.0100
 4.2570	 5.0520
 4.2610	 5.1020
 4.2640	 5.1310
 4.2680	 5.1520
 4.2710	 5.0640
 4.2750	 5.0150
 4.2780	 5.1110
 4.2820	 5.1870
 4.2850	 5.2050
 4.2890	 5.1350
 4.2930	 5.1250
 4.2960	 5.1660
 4.3000	 5.1420
 4.3030	 5.1190
 4.3070	 5.1580
 4.3100	 5.1410
 4.3140	 5.1570
 4.3180	 5.1320
 4.3210	 5.0740
 4.3250	 5.0560
 4.3280	 5.0430
 4.3320	 5.1060
 4.3360	 5.1340
 4.3390	 5.0810
 4.3430	 5.0650
 4.3470	 5.0490
 4.3500	 5.0550
 4.3540	 5.0830
 4.3580	 5.0740
 4.3610	 5.0550
 4.3650	 5.0790
 4.3690	 5.0870
 4.3720	 5.0810
 4.3760	 5.0900
 4.3800	 5.0850
 4.3830	 5.0870
 4.3870	 5.1000
 4.3910	 5.1270
 4.3940	 5.1290
 4.3980	 5.0880
 4.4020	 5.0890
 4.4060	 5.1000
 4.4090	 5.1240
 4.4130	 5.1390
 4.4170	 5.1050
 4.4210	 5.0610
 4.4240	 5.0730
 4.4280	 5.0860
 4.4320	 5.1100
 4.4360	 5.0950
 4.4400	 5.0760
 4.4430	 5.0620
 4.4470	 5.0730
 4.4510	 5.0690
 4.4550	 5.0780
 4.4590	 5.1080
 4.4630	 5.1400
 4.4660	 5.1260
 4.4700	 5.1000
 4.4740	 5.0760
 4.4780	 5.0810
 4.4820	 5.0830
 4.4860	 5.0740
 4.4900	 5.0670
 4.4930	 5.0990
 4.4970	 5.0910
 4.5010	 5.0790
 4.5050	 5.0660
 4.5090	 5.0880
 4.5130	 5.0870
 4.5170	 5.0950
 4.5210	 5.0860
 4.5250	 5.0830
 4.5290	 5.0470
 4.5330	 5.0470
 4.5370	 5.0600
 4.5410	 5.0380
 4.5450	 5.0110
 4.5490	 5.0420
 4.5530	 5.0610
 4.5570	 5.0700
 4.5610	 5.0790
 4.5650	 5.0940
 4.5690	 5.0810
 4.5730	 5.0300
 4.5770	 5.0100
 4.5810	 5.0390
 4.5850	 5.0550
 4.5890	 5.0980
 4.5930	 5.0710
 4.5970	 5.0400
 4.6010	 5.0460
 4.6050	 5.0550
 4.6090	 5.0510
 4.6130	 5.0630
 4.6170	 5.0630
 4.6220	 5.0630
 4.6260	 5.0460
 4.6300	 5.0320
 4.6340	 5.0460
 4.6380	 5.0760
 4.6420	 5.0720
 4.6460	 5.0950
 4.6510	 5.0930
 4.6550	 5.0700
 4.6590	 5.0450
 4.6630	 5.0580
 4.6670	 5.0660
 4.6720	 5.0820
 4.6760	 5.0640
 4.6800	 5.0670
 4.6840	 5.0840
 4.6880	 5.1080
 4.6930	 5.0870
 4.6970	 5.0560
 4.7010	 5.0470
 4.7050	 5.0640
 4.7100	 5.0420
 4.7140	 5.0690
 4.7180	 5.0900
 4.7230	 5.0860
 4.7270	 5.0700
 4.7310	 5.0760
 4.7360	 5.0610
 4.7400	 5.0390
 4.7440	 5.0430
 4.7490	 5.0680
 4.7530	 5.0590
 4.7570	 5.0790
 4.7620	 5.0930
 4.7660	 5.0870
 4.7700	 5.0660
 4.7750	 5.0760
 4.7790	 5.0830
 4.7840	 5.0970
 4.7880	 5.0530
 4.7920	 5.0870
 4.7970	 5.1030
 4.8010	 5.0990
 4.8060	 5.0970
 4.8100	 5.0820
 4.8150	 5.0560
 4.8190	 5.0700
 4.8240	 5.0380
 4.8280	 5.0710
 4.8330	 5.1120
 4.8370	 5.1180
 4.8420	 5.0830
 4.8460	 5.0780
 4.8510	 5.0550
 4.8550	 5.1040
 4.8600	 5.1320
 4.8640	 5.1260
 4.8690	 5.0910
 4.8740	 5.1040
 4.8780	 5.1020
 4.8830	 5.1190
 4.8870	 5.0820
 4.8920	 5.0690
 4.8970	 5.0850
 4.9010	 5.0930
 4.9060	 5.0470
 4.9100	 5.0560
 4.9150	 5.0670
 4.9200	 5.1070
 4.9240	 5.1120
 4.9290	 5.1080
 4.9340	 5.0800
 4.9390	 5.0720
 4.9430	 5.0570
 4.9480	 5.0790
 4.9530	 5.0970
 4.9570	 5.1250
 4.9620	 5.1120
 4.9670	 5.1290
 4.9720	 5.1410
 4.9760	 5.1660
 4.9810	 5.1640
 4.9860	 5.1540
 4.9910	 5.1370
 4.9960	 5.1620
 5.0000	 5.1720
 5.0050	 5.1660
 5.0100	 5.1150
 5.0150	 5.0970
 5.0200	 5.0820
 5.0250	 5.1110
 5.0300	 5.1170
 5.0340	 5.1360
 5.0390	 5.1140
 5.0440	 5.1220
 5.0490	 5.0940
 5.0540	 5.1350
 5.0590	 5.1700
 5.0640	 5.1680
 5.0690	 5.1310
 5.0740	 5.1540
 5.0790	 5.1350
 5.0840	 5.1360
 5.0890	 5.1430
 5.0940	 5.1570
 5.0990	 5.1620
 5.1040	 5.1920
 5.1090	 5.1690
 5.1140	 5.1620
 5.1190	 5.1500
 5.1240	 5.1540
 5.1290	 5.1140
 5.1340	 5.0840
 5.1390	 5.0830
 5.1440	 5.1500
 5.1490	 5.1820
 5.1550	 5.1770
 5.1600	 5.1370
 5.1650	 5.1550
 5.1700	 5.1600
 5.1750	 5.1810
 5.1800	 5.1500
 5.1850	 5.1420
 5.1910	 5.1100
 5.1960	 5.1080
 5.2010	 5.1380
 5.2060	 5.1940
 5.2110	 5.1840
 5.2170	 5.1940
 5.2220	 5.1880
 5.2270	 5.1650
 5.2330	 5.1130
 5.2380	 5.1350
 5.2430	 5.1690
 5.2480	 5.1740
 5.2540	 5.1600
 5.2590	 5.1870
 5.2640	 5.1550
 5.2700	 5.1800
 5.2750	 5.1610
 5.2800	 5.1310
 5.2860	 5.1430
 5.2910	 5.1820
 5.2970	 5.1340
 5.3020	 5.1350
 5.3080	 5.1520
 5.3130	 5.1640
 5.3180	 5.1530
 5.3240	 5.1860
 5.3290	 5.1490
 5.3350	 5.1450
 5.3400	 5.1400
 5.3460	 5.1380
 5.3510	 5.1210
 5.3570	 5.1600
 5.3620	 5.1550
 5.3680	 5.1660
 5.3740	 5.1560
 5.3790	 5.1630
 5.3850	 5.1370
 5.3900	 5.1550
 5.3960	 5.1500
 5.4010	 5.1540
 5.4070	 5.1210
 5.4130	 5.1460
 5.4180	 5.1290
 5.4240	 5.1310
 5.4300	 5.1020
 5.4350	 5.1040
 5.4410	 5.1150
 5.4470	 5.1450
 5.4530	 5.0970
 5.4580	 5.0830
 5.4640	 5.0890
 5.4700	 5.1220
 5.4760	 5.0910
 5.4810	 5.0950
 5.4870	 5.1060
 5.4930	 5.1150
 5.4990	 5.0830
 5.5050	 5.0910
 5.5110	 5.0540
