Name: Quercus ilex
Type: vegetation
Class: Tree
Genus: Quercus
Species: ilex
Sample No.: JPL256
Owner: JPL
Wavelength Range: VSWIR
Origin: 34.13163; -118.1186; WGS84
Collection Date: 10/6/2016
Description: Samples were collected at the Huntington Garden in San Marino California as part of a JPL Subcontract studying HyTES imagery. Samples were taken to JPL and processed within 48 hours of collection. The same leaves were processed in the Nicolet and then measured using the ASD.
Measurement: Bidirectional reflectance
First Column: X
Second Column: Y
X Units: Wavelength (micrometer)
Y Units: Reflectance (percentage)
First X Value: 0.35
Last X Value: 2.5
Number of X Values: 2151
Additional Information: vegetation.tree.quercus.ilex.vswir.jpl256.jpl.asd.ancillary.txt

 0.3500	 6.5680
 0.3510	 6.4430
 0.3520	 6.3140
 0.3530	 6.2800
 0.3540	 6.3460
 0.3550	 6.2860
 0.3560	 6.2590
 0.3570	 6.2830
 0.3580	 6.2950
 0.3590	 6.2860
 0.3600	 6.2710
 0.3610	 6.2480
 0.3620	 6.1770
 0.3630	 6.1700
 0.3640	 6.2070
 0.3650	 6.2320
 0.3660	 6.2140
 0.3670	 6.1390
 0.3680	 6.0840
 0.3690	 6.1620
 0.3700	 6.1320
 0.3710	 6.1070
 0.3720	 6.1450
 0.3730	 6.1260
 0.3740	 6.1040
 0.3750	 6.0760
 0.3760	 6.0340
 0.3770	 6.0650
 0.3780	 6.0820
 0.3790	 6.0810
 0.3800	 6.1350
 0.3810	 6.1510
 0.3820	 6.1200
 0.3830	 6.0690
 0.3840	 6.0780
 0.3850	 6.0330
 0.3860	 6.0000
 0.3870	 6.0720
 0.3880	 6.0900
 0.3890	 6.0770
 0.3900	 6.0520
 0.3910	 6.0180
 0.3920	 5.9880
 0.3930	 5.9850
 0.3940	 6.0180
 0.3950	 6.0520
 0.3960	 6.0520
 0.3970	 6.0320
 0.3980	 6.0330
 0.3990	 6.0380
 0.4000	 6.0340
 0.4010	 6.0240
 0.4020	 6.0350
 0.4030	 6.0400
 0.4040	 6.0360
 0.4050	 6.0300
 0.4060	 6.0390
 0.4070	 6.0510
 0.4080	 6.0600
 0.4090	 6.0620
 0.4100	 6.0590
 0.4110	 6.0590
 0.4120	 6.0660
 0.4130	 6.0820
 0.4140	 6.0860
 0.4150	 6.0870
 0.4160	 6.0960
 0.4170	 6.1080
 0.4180	 6.1260
 0.4190	 6.1450
 0.4200	 6.1490
 0.4210	 6.1530
 0.4220	 6.1600
 0.4230	 6.1690
 0.4240	 6.1790
 0.4250	 6.1960
 0.4260	 6.2120
 0.4270	 6.2140
 0.4280	 6.2240
 0.4290	 6.2360
 0.4300	 6.2420
 0.4310	 6.2370
 0.4320	 6.2280
 0.4330	 6.2270
 0.4340	 6.2400
 0.4350	 6.2440
 0.4360	 6.2530
 0.4370	 6.2680
 0.4380	 6.2770
 0.4390	 6.2970
 0.4400	 6.3160
 0.4410	 6.3250
 0.4420	 6.3450
 0.4430	 6.3560
 0.4440	 6.3600
 0.4450	 6.3700
 0.4460	 6.3810
 0.4470	 6.3950
 0.4480	 6.4070
 0.4490	 6.4110
 0.4500	 6.4150
 0.4510	 6.4220
 0.4520	 6.4330
 0.4530	 6.4430
 0.4540	 6.4460
 0.4550	 6.4510
 0.4560	 6.4680
 0.4570	 6.4790
 0.4580	 6.4830
 0.4590	 6.4840
 0.4600	 6.4910
 0.4610	 6.4930
 0.4620	 6.4930
 0.4630	 6.5020
 0.4640	 6.5100
 0.4650	 6.5130
 0.4660	 6.5110
 0.4670	 6.5120
 0.4680	 6.5150
 0.4690	 6.5210
 0.4700	 6.5290
 0.4710	 6.5300
 0.4720	 6.5380
 0.4730	 6.5470
 0.4740	 6.5430
 0.4750	 6.5450
 0.4760	 6.5520
 0.4770	 6.5580
 0.4780	 6.5530
 0.4790	 6.5540
 0.4800	 6.5570
 0.4810	 6.5540
 0.4820	 6.5550
 0.4830	 6.5610
 0.4840	 6.5670
 0.4850	 6.5650
 0.4860	 6.5640
 0.4870	 6.5640
 0.4880	 6.5690
 0.4890	 6.5820
 0.4900	 6.5930
 0.4910	 6.6030
 0.4920	 6.6140
 0.4930	 6.6220
 0.4940	 6.6310
 0.4950	 6.6440
 0.4960	 6.6640
 0.4970	 6.6780
 0.4980	 6.6890
 0.4990	 6.7060
 0.5000	 6.7230
 0.5010	 6.7410
 0.5020	 6.7620
 0.5030	 6.7830
 0.5040	 6.8060
 0.5050	 6.8310
 0.5060	 6.8600
 0.5070	 6.8920
 0.5080	 6.9270
 0.5090	 6.9630
 0.5100	 6.9990
 0.5110	 7.0450
 0.5120	 7.0960
 0.5130	 7.1470
 0.5140	 7.2020
 0.5150	 7.2660
 0.5160	 7.3390
 0.5170	 7.4160
 0.5180	 7.4970
 0.5190	 7.5830
 0.5200	 7.6720
 0.5210	 7.7660
 0.5220	 7.8620
 0.5230	 7.9630
 0.5240	 8.0670
 0.5250	 8.1670
 0.5260	 8.2680
 0.5270	 8.3680
 0.5280	 8.4610
 0.5290	 8.5520
 0.5300	 8.6390
 0.5310	 8.7180
 0.5320	 8.7890
 0.5330	 8.8560
 0.5340	 8.9190
 0.5350	 8.9770
 0.5360	 9.0260
 0.5370	 9.0680
 0.5380	 9.1050
 0.5390	 9.1340
 0.5400	 9.1550
 0.5410	 9.1690
 0.5420	 9.1810
 0.5430	 9.1960
 0.5440	 9.2150
 0.5450	 9.2400
 0.5460	 9.2690
 0.5470	 9.3010
 0.5480	 9.3310
 0.5490	 9.3560
 0.5500	 9.3750
 0.5510	 9.3860
 0.5520	 9.3910
 0.5530	 9.3930
 0.5540	 9.3910
 0.5550	 9.3790
 0.5560	 9.3590
 0.5570	 9.3340
 0.5580	 9.3020
 0.5590	 9.2630
 0.5600	 9.2190
 0.5610	 9.1700
 0.5620	 9.1190
 0.5630	 9.0650
 0.5640	 9.0070
 0.5650	 8.9460
 0.5660	 8.8840
 0.5670	 8.8210
 0.5680	 8.7520
 0.5690	 8.6810
 0.5700	 8.6110
 0.5710	 8.5450
 0.5720	 8.4810
 0.5730	 8.4210
 0.5740	 8.3660
 0.5750	 8.3150
 0.5760	 8.2720
 0.5770	 8.2320
 0.5780	 8.1910
 0.5790	 8.1560
 0.5800	 8.1240
 0.5810	 8.0940
 0.5820	 8.0630
 0.5830	 8.0340
 0.5840	 8.0060
 0.5850	 7.9790
 0.5860	 7.9490
 0.5870	 7.9200
 0.5880	 7.8980
 0.5890	 7.8840
 0.5900	 7.8740
 0.5910	 7.8630
 0.5920	 7.8490
 0.5930	 7.8370
 0.5940	 7.8310
 0.5950	 7.8310
 0.5960	 7.8330
 0.5970	 7.8320
 0.5980	 7.8290
 0.5990	 7.8250
 0.6000	 7.8190
 0.6010	 7.8130
 0.6020	 7.8030
 0.6030	 7.7890
 0.6040	 7.7750
 0.6050	 7.7580
 0.6060	 7.7380
 0.6070	 7.7130
 0.6080	 7.6860
 0.6090	 7.6550
 0.6100	 7.6140
 0.6110	 7.5640
 0.6120	 7.5380
 0.6130	 7.5250
 0.6140	 7.5130
 0.6150	 7.4980
 0.6160	 7.4800
 0.6170	 7.4610
 0.6180	 7.4420
 0.6190	 7.4270
 0.6200	 7.4130
 0.6210	 7.4000
 0.6220	 7.3900
 0.6230	 7.3830
 0.6240	 7.3760
 0.6250	 7.3680
 0.6260	 7.3650
 0.6270	 7.3640
 0.6280	 7.3620
 0.6290	 7.3600
 0.6300	 7.3550
 0.6310	 7.3510
 0.6320	 7.3500
 0.6330	 7.3540
 0.6340	 7.3510
 0.6350	 7.3450
 0.6360	 7.3390
 0.6370	 7.3260
 0.6380	 7.3120
 0.6390	 7.2990
 0.6400	 7.2830
 0.6410	 7.2690
 0.6420	 7.2540
 0.6430	 7.2350
 0.6440	 7.2190
 0.6450	 7.2040
 0.6460	 7.1910
 0.6470	 7.1790
 0.6480	 7.1660
 0.6490	 7.1560
 0.6500	 7.1490
 0.6510	 7.1430
 0.6520	 7.1380
 0.6530	 7.1340
 0.6540	 7.1320
 0.6550	 7.1280
 0.6560	 7.1220
 0.6570	 7.1170
 0.6580	 7.1110
 0.6590	 7.1050
 0.6600	 7.0970
 0.6610	 7.0900
 0.6620	 7.0820
 0.6630	 7.0780
 0.6640	 7.0770
 0.6650	 7.0770
 0.6660	 7.0790
 0.6670	 7.0830
 0.6680	 7.0890
 0.6690	 7.0970
 0.6700	 7.1080
 0.6710	 7.1210
 0.6720	 7.1390
 0.6730	 7.1590
 0.6740	 7.1800
 0.6750	 7.2040
 0.6760	 7.2320
 0.6770	 7.2600
 0.6780	 7.2920
 0.6790	 7.3270
 0.6800	 7.3600
 0.6810	 7.3980
 0.6820	 7.4400
 0.6830	 7.4810
 0.6840	 7.5210
 0.6850	 7.5610
 0.6860	 7.6010
 0.6870	 7.6400
 0.6880	 7.6830
 0.6890	 7.7330
 0.6900	 7.7930
 0.6910	 7.8700
 0.6920	 7.9670
 0.6930	 8.0880
 0.6940	 8.2360
 0.6950	 8.4210
 0.6960	 8.6420
 0.6970	 8.9030
 0.6980	 9.2060
 0.6990	 9.5520
 0.7000	 9.9400
 0.7010	10.3680
 0.7020	10.8350
 0.7030	11.3370
 0.7040	11.8720
 0.7050	12.4370
 0.7060	13.0300
 0.7070	13.6520
 0.7080	14.3000
 0.7090	14.9740
 0.7100	15.6740
 0.7110	16.4010
 0.7120	17.1530
 0.7130	17.9330
 0.7140	18.7390
 0.7150	19.5700
 0.7160	20.4220
 0.7170	21.2980
 0.7180	22.1930
 0.7190	23.1040
 0.7200	24.0290
 0.7210	24.9660
 0.7220	25.9130
 0.7230	26.8650
 0.7240	27.8160
 0.7250	28.7660
 0.7260	29.7080
 0.7270	30.6380
 0.7280	31.5530
 0.7290	32.4530
 0.7300	33.3340
 0.7310	34.1920
 0.7320	35.0260
 0.7330	35.8330
 0.7340	36.6090
 0.7350	37.3550
 0.7360	38.0710
 0.7370	38.7560
 0.7380	39.4080
 0.7390	40.0270
 0.7400	40.6120
 0.7410	41.1640
 0.7420	41.6840
 0.7430	42.1690
 0.7440	42.6220
 0.7450	43.0430
 0.7460	43.4350
 0.7470	43.7970
 0.7480	44.1300
 0.7490	44.4340
 0.7500	44.7190
 0.7510	44.9800
 0.7520	45.2160
 0.7530	45.4310
 0.7540	45.6300
 0.7550	45.8110
 0.7560	45.9760
 0.7570	46.1280
 0.7580	46.2650
 0.7590	46.3930
 0.7600	46.5100
 0.7610	46.6140
 0.7620	46.7110
 0.7630	46.7980
 0.7640	46.8750
 0.7650	46.9470
 0.7660	47.0150
 0.7670	47.0760
 0.7680	47.1280
 0.7690	47.1760
 0.7700	47.2200
 0.7710	47.2630
 0.7720	47.3050
 0.7730	47.3420
 0.7740	47.3770
 0.7750	47.4140
 0.7760	47.4440
 0.7770	47.4740
 0.7780	47.5050
 0.7790	47.5350
 0.7800	47.5640
 0.7810	47.5920
 0.7820	47.6180
 0.7830	47.6430
 0.7840	47.6670
 0.7850	47.6910
 0.7860	47.7140
 0.7870	47.7360
 0.7880	47.7570
 0.7890	47.7760
 0.7900	47.7920
 0.7910	47.8110
 0.7920	47.8310
 0.7930	47.8480
 0.7940	47.8630
 0.7950	47.8760
 0.7960	47.8900
 0.7970	47.9020
 0.7980	47.9140
 0.7990	47.9260
 0.8000	47.9370
 0.8010	47.9460
 0.8020	47.9550
 0.8030	47.9640
 0.8040	47.9720
 0.8050	47.9810
 0.8060	47.9880
 0.8070	47.9930
 0.8080	47.9970
 0.8090	48.0030
 0.8100	48.0080
 0.8110	48.0130
 0.8120	48.0160
 0.8130	48.0140
 0.8140	48.0160
 0.8150	48.0200
 0.8160	48.0240
 0.8170	48.0250
 0.8180	48.0280
 0.8190	48.0310
 0.8200	48.0320
 0.8210	48.0340
 0.8220	48.0340
 0.8230	48.0330
 0.8240	48.0340
 0.8250	48.0350
 0.8260	48.0350
 0.8270	48.0360
 0.8280	48.0370
 0.8290	48.0370
 0.8300	48.0370
 0.8310	48.0390
 0.8320	48.0390
 0.8330	48.0440
 0.8340	48.0490
 0.8350	48.0500
 0.8360	48.0520
 0.8370	48.0570
 0.8380	48.0630
 0.8390	48.0680
 0.8400	48.0750
 0.8410	48.0820
 0.8420	48.0890
 0.8430	48.0940
 0.8440	48.1040
 0.8450	48.1130
 0.8460	48.1190
 0.8470	48.1300
 0.8480	48.1410
 0.8490	48.1510
 0.8500	48.1600
 0.8510	48.1690
 0.8520	48.1790
 0.8530	48.1890
 0.8540	48.1990
 0.8550	48.2100
 0.8560	48.2210
 0.8570	48.2320
 0.8580	48.2440
 0.8590	48.2580
 0.8600	48.2720
 0.8610	48.2870
 0.8620	48.2990
 0.8630	48.3120
 0.8640	48.3260
 0.8650	48.3390
 0.8660	48.3540
 0.8670	48.3700
 0.8680	48.3870
 0.8690	48.4020
 0.8700	48.4180
 0.8710	48.4350
 0.8720	48.4520
 0.8730	48.4630
 0.8740	48.4830
 0.8750	48.5030
 0.8760	48.5180
 0.8770	48.5290
 0.8780	48.5400
 0.8790	48.5560
 0.8800	48.5750
 0.8810	48.5920
 0.8820	48.6100
 0.8830	48.6280
 0.8840	48.6450
 0.8850	48.6550
 0.8860	48.6680
 0.8870	48.6840
 0.8880	48.6970
 0.8890	48.7080
 0.8900	48.7260
 0.8910	48.7440
 0.8920	48.7530
 0.8930	48.7650
 0.8940	48.7780
 0.8950	48.7910
 0.8960	48.8040
 0.8970	48.8180
 0.8980	48.8330
 0.8990	48.8470
 0.9000	48.8620
 0.9010	48.8740
 0.9020	48.8840
 0.9030	48.8960
 0.9040	48.9130
 0.9050	48.9220
 0.9060	48.9320
 0.9070	48.9480
 0.9080	48.9590
 0.9090	48.9670
 0.9100	48.9760
 0.9110	48.9870
 0.9120	48.9990
 0.9130	49.0080
 0.9140	49.0140
 0.9150	49.0220
 0.9160	49.0330
 0.9170	49.0390
 0.9180	49.0440
 0.9190	49.0560
 0.9200	49.0600
 0.9210	49.0600
 0.9220	49.0620
 0.9230	49.0710
 0.9240	49.0750
 0.9250	49.0700
 0.9260	49.0650
 0.9270	49.0720
 0.9280	49.0680
 0.9290	49.0560
 0.9300	49.0470
 0.9310	49.0520
 0.9320	49.0500
 0.9330	49.0420
 0.9340	49.0320
 0.9350	49.0180
 0.9360	49.0110
 0.9370	49.0020
 0.9380	48.9870
 0.9390	48.9770
 0.9400	48.9590
 0.9410	48.9420
 0.9420	48.9280
 0.9430	48.9120
 0.9440	48.8910
 0.9450	48.8610
 0.9460	48.8290
 0.9470	48.8050
 0.9480	48.7830
 0.9490	48.7540
 0.9500	48.7120
 0.9510	48.6650
 0.9520	48.6180
 0.9530	48.5720
 0.9540	48.5270
 0.9550	48.4750
 0.9560	48.4340
 0.9570	48.3940
 0.9580	48.3430
 0.9590	48.2960
 0.9600	48.2560
 0.9610	48.2240
 0.9620	48.1940
 0.9630	48.1610
 0.9640	48.1310
 0.9650	48.1070
 0.9660	48.0840
 0.9670	48.0600
 0.9680	48.0380
 0.9690	48.0220
 0.9700	48.0110
 0.9710	47.9880
 0.9720	47.9750
 0.9730	47.9730
 0.9740	47.9710
 0.9750	47.9550
 0.9760	47.9490
 0.9770	47.9530
 0.9780	47.9550
 0.9790	47.9530
 0.9800	47.9410
 0.9810	47.9310
 0.9820	47.9370
 0.9830	47.9450
 0.9840	47.9420
 0.9850	47.9370
 0.9860	47.9490
 0.9870	47.9590
 0.9880	47.9790
 0.9890	48.0000
 0.9900	48.0080
 0.9910	48.0170
 0.9920	48.0310
 0.9930	48.0500
 0.9940	48.0710
 0.9950	48.0990
 0.9960	48.1230
 0.9970	48.1350
 0.9980	48.1370
 0.9990	48.1580
 1.0000	48.1860
 1.0010	48.6540
 1.0020	48.6710
 1.0030	48.6890
 1.0040	48.7080
 1.0050	48.7260
 1.0060	48.7490
 1.0070	48.7740
 1.0080	48.7980
 1.0090	48.8250
 1.0100	48.8480
 1.0110	48.8710
 1.0120	48.8940
 1.0130	48.9180
 1.0140	48.9400
 1.0150	48.9630
 1.0160	48.9820
 1.0170	49.0030
 1.0180	49.0270
 1.0190	49.0500
 1.0200	49.0720
 1.0210	49.0920
 1.0220	49.1130
 1.0230	49.1360
 1.0240	49.1620
 1.0250	49.1840
 1.0260	49.2040
 1.0270	49.2260
 1.0280	49.2480
 1.0290	49.2690
 1.0300	49.2900
 1.0310	49.3110
 1.0320	49.3330
 1.0330	49.3500
 1.0340	49.3730
 1.0350	49.3950
 1.0360	49.4120
 1.0370	49.4280
 1.0380	49.4440
 1.0390	49.4570
 1.0400	49.4730
 1.0410	49.4890
 1.0420	49.5070
 1.0430	49.5260
 1.0440	49.5450
 1.0450	49.5690
 1.0460	49.5850
 1.0470	49.5960
 1.0480	49.6100
 1.0490	49.6200
 1.0500	49.6330
 1.0510	49.6510
 1.0520	49.6690
 1.0530	49.6830
 1.0540	49.6970
 1.0550	49.7090
 1.0560	49.7180
 1.0570	49.7290
 1.0580	49.7410
 1.0590	49.7540
 1.0600	49.7690
 1.0610	49.7830
 1.0620	49.8000
 1.0630	49.8140
 1.0640	49.8270
 1.0650	49.8390
 1.0660	49.8470
 1.0670	49.8580
 1.0680	49.8690
 1.0690	49.8830
 1.0700	49.8930
 1.0710	49.9020
 1.0720	49.9120
 1.0730	49.9200
 1.0740	49.9280
 1.0750	49.9380
 1.0760	49.9460
 1.0770	49.9510
 1.0780	49.9590
 1.0790	49.9700
 1.0800	49.9770
 1.0810	49.9840
 1.0820	49.9900
 1.0830	49.9940
 1.0840	49.9970
 1.0850	49.9980
 1.0860	50.0020
 1.0870	50.0040
 1.0880	50.0020
 1.0890	50.0050
 1.0900	50.0090
 1.0910	50.0110
 1.0920	50.0160
 1.0930	50.0170
 1.0940	50.0150
 1.0950	50.0130
 1.0960	50.0090
 1.0970	50.0080
 1.0980	50.0090
 1.0990	50.0060
 1.1000	50.0010
 1.1010	49.9970
 1.1020	49.9900
 1.1030	49.9840
 1.1040	49.9810
 1.1050	49.9790
 1.1060	49.9720
 1.1070	49.9620
 1.1080	49.9540
 1.1090	49.9440
 1.1100	49.9340
 1.1110	49.9270
 1.1120	49.9160
 1.1130	49.9040
 1.1140	49.8910
 1.1150	49.8780
 1.1160	49.8620
 1.1170	49.8450
 1.1180	49.8260
 1.1190	49.8070
 1.1200	49.7830
 1.1210	49.7570
 1.1220	49.7300
 1.1230	49.6960
 1.1240	49.6600
 1.1250	49.6190
 1.1260	49.5770
 1.1270	49.5270
 1.1280	49.4720
 1.1290	49.4120
 1.1300	49.3460
 1.1310	49.2740
 1.1320	49.1970
 1.1330	49.1140
 1.1340	49.0250
 1.1350	48.9300
 1.1360	48.8280
 1.1370	48.7210
 1.1380	48.6060
 1.1390	48.4860
 1.1400	48.3610
 1.1410	48.2340
 1.1420	48.1050
 1.1430	47.9740
 1.1440	47.8430
 1.1450	47.7110
 1.1460	47.5800
 1.1470	47.4480
 1.1480	47.3200
 1.1490	47.1920
 1.1500	47.0710
 1.1510	46.9530
 1.1520	46.8390
 1.1530	46.7280
 1.1540	46.6250
 1.1550	46.5290
 1.1560	46.4360
 1.1570	46.3520
 1.1580	46.2750
 1.1590	46.1990
 1.1600	46.1300
 1.1610	46.0660
 1.1620	46.0050
 1.1630	45.9500
 1.1640	45.9010
 1.1650	45.8530
 1.1660	45.8110
 1.1670	45.7700
 1.1680	45.7340
 1.1690	45.6970
 1.1700	45.6640
 1.1710	45.6310
 1.1720	45.5980
 1.1730	45.5650
 1.1740	45.5320
 1.1750	45.5010
 1.1760	45.4680
 1.1770	45.4370
 1.1780	45.4040
 1.1790	45.3710
 1.1800	45.3380
 1.1810	45.3050
 1.1820	45.2730
 1.1830	45.2430
 1.1840	45.2100
 1.1850	45.1790
 1.1860	45.1500
 1.1870	45.1210
 1.1880	45.0950
 1.1890	45.0720
 1.1900	45.0490
 1.1910	45.0260
 1.1920	45.0070
 1.1930	44.9890
 1.1940	44.9730
 1.1950	44.9580
 1.1960	44.9440
 1.1970	44.9330
 1.1980	44.9260
 1.1990	44.9200
 1.2000	44.9190
 1.2010	44.9170
 1.2020	44.9140
 1.2030	44.9150
 1.2040	44.9190
 1.2050	44.9250
 1.2060	44.9350
 1.2070	44.9480
 1.2080	44.9620
 1.2090	44.9790
 1.2100	45.0000
 1.2110	45.0230
 1.2120	45.0490
 1.2130	45.0800
 1.2140	45.1140
 1.2150	45.1510
 1.2160	45.1910
 1.2170	45.2320
 1.2180	45.2760
 1.2190	45.3230
 1.2200	45.3700
 1.2210	45.4200
 1.2220	45.4700
 1.2230	45.5210
 1.2240	45.5750
 1.2250	45.6260
 1.2260	45.6750
 1.2270	45.7250
 1.2280	45.7720
 1.2290	45.8180
 1.2300	45.8630
 1.2310	45.9060
 1.2320	45.9470
 1.2330	45.9870
 1.2340	46.0260
 1.2350	46.0640
 1.2360	46.1000
 1.2370	46.1340
 1.2380	46.1690
 1.2390	46.2010
 1.2400	46.2320
 1.2410	46.2630
 1.2420	46.2920
 1.2430	46.3190
 1.2440	46.3480
 1.2450	46.3740
 1.2460	46.3970
 1.2470	46.4210
 1.2480	46.4430
 1.2490	46.4670
 1.2500	46.4910
 1.2510	46.5140
 1.2520	46.5360
 1.2530	46.5550
 1.2540	46.5720
 1.2550	46.5900
 1.2560	46.6040
 1.2570	46.6210
 1.2580	46.6360
 1.2590	46.6500
 1.2600	46.6650
 1.2610	46.6770
 1.2620	46.6860
 1.2630	46.6940
 1.2640	46.7000
 1.2650	46.7030
 1.2660	46.7070
 1.2670	46.7110
 1.2680	46.7160
 1.2690	46.7200
 1.2700	46.7230
 1.2710	46.7240
 1.2720	46.7220
 1.2730	46.7190
 1.2740	46.7160
 1.2750	46.7100
 1.2760	46.7050
 1.2770	46.6980
 1.2780	46.6900
 1.2790	46.6830
 1.2800	46.6740
 1.2810	46.6640
 1.2820	46.6530
 1.2830	46.6400
 1.2840	46.6250
 1.2850	46.6110
 1.2860	46.5940
 1.2870	46.5740
 1.2880	46.5520
 1.2890	46.5320
 1.2900	46.5070
 1.2910	46.4820
 1.2920	46.4580
 1.2930	46.4280
 1.2940	46.3960
 1.2950	46.3640
 1.2960	46.3290
 1.2970	46.2930
 1.2980	46.2580
 1.2990	46.2190
 1.3000	46.1770
 1.3010	46.1310
 1.3020	46.0820
 1.3030	46.0310
 1.3040	45.9760
 1.3050	45.9200
 1.3060	45.8610
 1.3070	45.7990
 1.3080	45.7360
 1.3090	45.6710
 1.3100	45.6020
 1.3110	45.5310
 1.3120	45.4560
 1.3130	45.3790
 1.3140	45.2970
 1.3150	45.2130
 1.3160	45.1240
 1.3170	45.0310
 1.3180	44.9340
 1.3190	44.8350
 1.3200	44.7330
 1.3210	44.6290
 1.3220	44.5220
 1.3230	44.4130
 1.3240	44.3020
 1.3250	44.1870
 1.3260	44.0690
 1.3270	43.9460
 1.3280	43.8190
 1.3290	43.6880
 1.3300	43.5570
 1.3310	43.4230
 1.3320	43.2860
 1.3330	43.1480
 1.3340	43.0080
 1.3350	42.8680
 1.3360	42.7270
 1.3370	42.5840
 1.3380	42.4400
 1.3390	42.2960
 1.3400	42.1530
 1.3410	42.0100
 1.3420	41.8680
 1.3430	41.7270
 1.3440	41.5860
 1.3450	41.4480
 1.3460	41.3120
 1.3470	41.1770
 1.3480	41.0420
 1.3490	40.9110
 1.3500	40.7830
 1.3510	40.6540
 1.3520	40.5260
 1.3530	40.4020
 1.3540	40.2740
 1.3550	40.1480
 1.3560	40.0230
 1.3570	39.8970
 1.3580	39.7700
 1.3590	39.6410
 1.3600	39.5100
 1.3610	39.3770
 1.3620	39.2380
 1.3630	39.0960
 1.3640	38.9490
 1.3650	38.7940
 1.3660	38.6330
 1.3670	38.4650
 1.3680	38.2870
 1.3690	38.1010
 1.3700	37.9030
 1.3710	37.6940
 1.3720	37.4730
 1.3730	37.2340
 1.3740	36.9820
 1.3750	36.7120
 1.3760	36.4200
 1.3770	36.1090
 1.3780	35.7740
 1.3790	35.4170
 1.3800	35.0380
 1.3810	34.6330
 1.3820	34.2080
 1.3830	33.7600
 1.3840	33.2930
 1.3850	32.8040
 1.3860	32.2980
 1.3870	31.7670
 1.3880	31.2290
 1.3890	30.6750
 1.3900	30.1090
 1.3910	29.5420
 1.3920	28.9680
 1.3930	28.3880
 1.3940	27.8110
 1.3950	27.2300
 1.3960	26.6560
 1.3970	26.0920
 1.3980	25.5360
 1.3990	24.9970
 1.4000	24.4720
 1.4010	23.9580
 1.4020	23.4640
 1.4030	22.9840
 1.4040	22.5220
 1.4050	22.0800
 1.4060	21.6570
 1.4070	21.2590
 1.4080	20.8790
 1.4090	20.5180
 1.4100	20.1790
 1.4110	19.8570
 1.4120	19.5530
 1.4130	19.2700
 1.4140	19.0040
 1.4150	18.7580
 1.4160	18.5280
 1.4170	18.3130
 1.4180	18.1130
 1.4190	17.9250
 1.4200	17.7500
 1.4210	17.5860
 1.4220	17.4330
 1.4230	17.2930
 1.4240	17.1620
 1.4250	17.0410
 1.4260	16.9300
 1.4270	16.8250
 1.4280	16.7300
 1.4290	16.6410
 1.4300	16.5590
 1.4310	16.4830
 1.4320	16.4150
 1.4330	16.3530
 1.4340	16.2990
 1.4350	16.2490
 1.4360	16.2040
 1.4370	16.1630
 1.4380	16.1280
 1.4390	16.0950
 1.4400	16.0680
 1.4410	16.0440
 1.4420	16.0240
 1.4430	16.0080
 1.4440	15.9950
 1.4450	15.9830
 1.4460	15.9740
 1.4470	15.9680
 1.4480	15.9640
 1.4490	15.9620
 1.4500	15.9630
 1.4510	15.9650
 1.4520	15.9690
 1.4530	15.9750
 1.4540	15.9820
 1.4550	15.9910
 1.4560	16.0040
 1.4570	16.0180
 1.4580	16.0350
 1.4590	16.0560
 1.4600	16.0790
 1.4610	16.1060
 1.4620	16.1360
 1.4630	16.1700
 1.4640	16.2070
 1.4650	16.2490
 1.4660	16.2950
 1.4670	16.3450
 1.4680	16.4000
 1.4690	16.4600
 1.4700	16.5220
 1.4710	16.5890
 1.4720	16.6590
 1.4730	16.7320
 1.4740	16.8100
 1.4750	16.8900
 1.4760	16.9750
 1.4770	17.0600
 1.4780	17.1480
