Name: Heteromeles arbutifolia 3
Type: vegetation
Class: Shrub
Genus: Heteromeles
Species: arbutifolia
Sample No.: VH210
Owner: UCSB
Wavelength Range: TIR
Origin: 34.4908; -119.7912; WGS84
Collection Date: 10/13/2013
Description: Samples were collected as part of the HyspIRI Airborne Campaign. 48 individual plants were sampled in three times in 2013 - spring  summer  and fall. The name of the sample includes a 1  2  or 3 which references a different individual of the species. Samples were taken to JPL and processed within 48 hours of collection. The same leaves were processed in the Nicolet and then measured using the ASD.
Measurement: Hemispherical reflectance
First Column: X
Second Column: Y
X Units: Wavelength (micrometers)
Y Units: Reflectance (percentage)
First X Value: 2.501
Last X Value: 15.387
Number of X Values: 1737
Additional Information: vegetation.shrub.heteromeles.arbutifolia.tir.vh210.ucsb.nicolet.ancillary.txt

 2.5010	 6.8840
 2.5030	 7.0740
 2.5040	 7.0510
 2.5050	 7.0630
 2.5060	 6.9140
 2.5070	 6.6450
 2.5090	 6.7690
 2.5100	 7.0260
 2.5110	 6.9860
 2.5120	 6.8380
 2.5140	 6.7280
 2.5150	 6.8060
 2.5160	 6.8590
 2.5170	 6.7220
 2.5180	 6.8310
 2.5200	 6.8760
 2.5210	 6.7850
 2.5220	 6.7050
 2.5230	 6.7420
 2.5250	 6.7610
 2.5260	 6.7510
 2.5270	 6.5940
 2.5280	 6.5740
 2.5290	 6.7590
 2.5310	 6.6620
 2.5320	 6.3370
 2.5330	 6.5190
 2.5340	 6.6440
 2.5360	 6.6740
 2.5370	 6.6960
 2.5380	 6.7920
 2.5390	 6.6860
 2.5410	 6.5450
 2.5420	 6.6190
 2.5430	 6.7720
 2.5440	 6.7980
 2.5460	 6.6080
 2.5470	 6.3720
 2.5480	 6.4990
 2.5490	 6.7650
 2.5510	 6.8970
 2.5520	 6.8950
 2.5530	 6.8590
 2.5540	 6.7780
 2.5560	 6.7650
 2.5570	 6.7620
 2.5580	 6.7660
 2.5590	 6.6440
 2.5610	 6.5700
 2.5620	 6.5760
 2.5630	 6.7170
 2.5640	 6.9470
 2.5660	 7.0750
 2.5670	 6.9130
 2.5680	 6.8800
 2.5700	 6.7590
 2.5710	 6.7160
 2.5720	 6.7560
 2.5730	 6.9310
 2.5750	 6.6560
 2.5760	 6.3700
 2.5770	 6.4920
 2.5790	 6.5850
 2.5800	 6.7000
 2.5810	 6.8030
 2.5820	 6.6120
 2.5840	 6.5040
 2.5850	 6.6680
 2.5860	 6.9920
 2.5880	 7.0440
 2.5890	 6.8910
 2.5900	 6.6530
 2.5910	 6.6220
 2.5930	 6.6500
 2.5940	 6.6780
 2.5950	 6.8440
 2.5970	 7.0230
 2.5980	 6.7260
 2.5990	 6.6740
 2.6000	 6.6090
 2.6020	 6.5400
 2.6030	 6.4080
 2.6040	 6.4500
 2.6060	 6.5180
 2.6070	 6.6540
 2.6080	 6.5570
 2.6100	 6.6370
 2.6110	 6.6180
 2.6120	 6.4630
 2.6140	 6.5270
 2.6150	 6.5410
 2.6160	 6.3460
 2.6180	 6.3300
 2.6190	 6.2840
 2.6200	 6.2910
 2.6220	 6.3370
 2.6230	 6.6010
 2.6240	 6.6320
 2.6260	 6.3970
 2.6270	 6.3600
 2.6280	 6.3990
 2.6300	 6.1920
 2.6310	 6.1620
 2.6320	 6.0310
 2.6340	 6.0180
 2.6350	 6.0920
 2.6360	 5.9960
 2.6380	 5.9210
 2.6390	 5.9650
 2.6400	 5.9360
 2.6420	 6.0040
 2.6430	 5.9590
 2.6440	 5.8570
 2.6460	 5.8410
 2.6470	 5.8240
 2.6480	 5.8840
 2.6500	 6.0700
 2.6510	 5.9260
 2.6520	 5.6190
 2.6540	 5.5150
 2.6550	 5.7650
 2.6560	 5.9120
 2.6580	 5.7570
 2.6590	 5.7940
 2.6610	 5.9270
 2.6620	 5.7580
 2.6630	 5.5180
 2.6650	 5.5420
 2.6660	 5.8800
 2.6670	 5.7720
 2.6690	 5.7140
 2.6700	 5.6320
 2.6720	 5.5930
 2.6730	 5.5250
 2.6740	 5.5070
 2.6760	 5.3810
 2.6770	 5.3990
 2.6780	 5.3490
 2.6800	 5.3260
 2.6810	 5.3620
 2.6830	 5.3980
 2.6840	 5.3030
 2.6850	 5.1500
 2.6870	 4.9670
 2.6880	 5.0960
 2.6900	 5.1140
 2.6910	 5.1830
 2.6920	 5.1330
 2.6940	 5.1210
 2.6950	 5.0070
 2.6970	 5.0390
 2.6980	 4.9630
 2.6990	 5.0820
 2.7010	 5.1000
 2.7020	 5.1480
 2.7040	 4.8970
 2.7050	 4.8400
 2.7060	 4.9360
 2.7080	 4.9100
 2.7090	 4.8430
 2.7110	 4.9330
 2.7120	 4.7880
 2.7130	 4.6130
 2.7150	 4.7440
 2.7160	 4.7900
 2.7180	 4.4310
 2.7190	 4.3660
 2.7210	 4.4720
 2.7220	 4.6310
 2.7230	 4.6630
 2.7250	 4.6680
 2.7260	 4.7540
 2.7280	 4.5390
 2.7290	 4.4590
 2.7310	 4.3910
 2.7320	 4.3380
 2.7330	 4.4380
 2.7350	 4.5670
 2.7360	 4.6880
 2.7380	 4.8730
 2.7390	 4.9670
 2.7410	 4.7520
 2.7420	 4.5780
 2.7440	 4.3450
 2.7450	 4.2560
 2.7470	 4.7090
 2.7480	 4.9790
 2.7490	 5.0310
 2.7510	 4.7340
 2.7520	 4.4390
 2.7540	 4.9540
 2.7550	 5.5620
 2.7570	 5.0830
 2.7580	 4.7920
 2.7600	 4.9450
 2.7610	 4.5410
 2.7630	 4.2950
 2.7640	 3.9720
 2.7660	 4.0590
 2.7670	 4.3320
 2.7680	 4.5740
 2.7700	 4.1320
 2.7710	 4.1680
 2.7730	 4.4100
 2.7740	 4.4620
 2.7760	 4.7690
 2.7770	 5.2880
 2.7790	 4.9110
 2.7800	 4.6020
 2.7820	 4.4610
 2.7830	 4.5490
 2.7850	 4.7450
 2.7860	 4.6050
 2.7880	 4.3860
 2.7890	 4.6090
 2.7910	 4.4990
 2.7920	 4.4900
 2.7940	 4.5310
 2.7950	 4.3760
 2.7970	 4.5970
 2.7980	 4.7220
 2.8000	 4.5730
 2.8010	 4.4080
 2.8030	 4.3640
 2.8040	 4.4410
 2.8060	 4.4080
 2.8070	 4.4970
 2.8090	 4.6360
 2.8110	 4.5820
 2.8120	 4.2990
 2.8140	 4.0660
 2.8150	 4.2170
 2.8170	 4.3840
 2.8180	 4.4410
 2.8200	 4.6940
 2.8210	 4.7760
 2.8230	 4.2030
 2.8240	 3.7030
 2.8260	 3.8090
 2.8270	 4.0880
 2.8290	 4.1610
 2.8300	 4.2890
 2.8320	 4.4330
 2.8340	 4.4340
 2.8350	 4.2920
 2.8370	 4.2170
 2.8380	 4.4020
 2.8400	 4.4440
 2.8410	 4.2810
 2.8430	 4.1390
 2.8440	 4.4580
 2.8460	 4.7160
 2.8480	 4.5020
 2.8490	 4.2460
 2.8510	 4.0860
 2.8520	 4.0650
 2.8540	 4.1820
 2.8550	 4.2660
 2.8570	 4.3420
 2.8590	 4.4270
 2.8600	 4.4480
 2.8620	 4.5340
 2.8630	 4.6570
 2.8650	 4.5730
 2.8660	 4.4160
 2.8680	 4.2790
 2.8700	 4.4840
 2.8710	 4.6150
 2.8730	 4.6280
 2.8740	 4.8000
 2.8760	 4.8350
 2.8780	 4.7280
 2.8790	 4.2430
 2.8810	 3.8550
 2.8820	 4.3160
 2.8840	 4.3190
 2.8860	 4.4470
 2.8870	 4.5440
 2.8890	 4.6180
 2.8900	 4.5230
 2.8920	 4.4090
 2.8940	 4.0790
 2.8950	 3.9170
 2.8970	 4.6360
 2.8980	 4.9070
 2.9000	 4.4400
 2.9020	 4.1700
 2.9030	 4.1240
 2.9050	 4.5640
 2.9070	 4.8080
 2.9080	 4.4240
 2.9100	 4.3990
 2.9120	 4.3130
 2.9130	 4.2740
 2.9150	 4.4240
 2.9160	 4.4610
 2.9180	 4.5530
 2.9200	 4.3820
 2.9210	 4.2730
 2.9230	 4.2820
 2.9250	 4.4210
 2.9260	 4.4800
 2.9280	 4.5200
 2.9300	 4.5150
 2.9310	 4.5160
 2.9330	 4.4260
 2.9350	 4.6170
 2.9360	 4.5060
 2.9380	 4.3460
 2.9400	 4.4880
 2.9410	 4.5600
 2.9430	 4.3430
 2.9450	 4.5210
 2.9460	 4.8560
 2.9480	 4.9600
 2.9500	 4.9440
 2.9510	 4.7310
 2.9530	 4.1390
 2.9550	 4.2130
 2.9560	 4.0460
 2.9580	 3.7570
 2.9600	 3.4350
 2.9610	 3.9940
 2.9630	 4.8510
 2.9650	 4.7730
 2.9660	 5.0360
 2.9680	 6.6550
 2.9700	 6.9890
 2.9720	 9.2140
 2.9730	 8.2780
 2.9750	 4.7630
 2.9770	 4.4980
 2.9780	 5.0760
 2.9800	 4.4620
 2.9820	 4.4870
 2.9840	 4.5930
 2.9850	 3.7840
 2.9870	 4.3430
 2.9890	 5.7530
 2.9900	 7.6950
 2.9920	 6.8800
 2.9940	 5.5970
 2.9960	 3.4190
 2.9970	 1.7230
 2.9990	 1.9590
 3.0010	 3.5370
 3.0030	 3.6390
 3.0040	 4.9890
 3.0060	 6.5420
 3.0080	 6.4810
 3.0100	 5.2680
 3.0110	 3.3600
 3.0130	 5.5870
 3.0150	 7.2230
 3.0170	 6.1600
 3.0180	 6.5430
 3.0200	 5.9320
 3.0220	 4.9000
 3.0240	 5.5680
 3.0250	 5.1330
 3.0270	 3.3430
 3.0290	 3.6700
 3.0310	 5.4580
 3.0320	 6.2240
 3.0340	 6.8600
 3.0360	 6.3660
 3.0380	 4.2960
 3.0400	 4.9400
 3.0410	 5.7560
 3.0430	 4.9490
 3.0450	 4.8750
 3.0470	 1.4620
 3.0480	 -3.049
 3.0500	 -0.894
 3.0520	 3.3170
 3.0540	 5.9170
 3.0560	 5.8750
 3.0570	 4.5580
 3.0590	 5.2730
 3.0610	 6.7620
 3.0630	 6.8160
 3.0650	 6.6640
 3.0660	 5.6390
 3.0680	 5.1270
 3.0700	 6.0180
 3.0720	 4.7990
 3.0740	 3.8130
 3.0760	 4.7370
 3.0770	 5.3840
 3.0790	 4.9250
 3.0810	 4.9350
 3.0830	 4.7630
 3.0850	 4.6770
 3.0870	 4.4210
 3.0880	 4.4690
 3.0900	 4.4920
 3.0920	 4.7300
 3.0940	 4.9820
 3.0960	 4.9140
 3.0980	 4.5230
 3.0990	 4.5240
 3.1010	 4.4270
 3.1030	 4.3890
 3.1050	 4.2960
 3.1070	 3.9420
 3.1090	 3.6700
 3.1110	 4.3360
 3.1120	 4.4720
 3.1140	 4.4660
 3.1160	 4.2930
 3.1180	 4.5720
 3.1200	 4.7310
 3.1220	 4.8370
 3.1240	 4.8830
 3.1260	 4.7310
 3.1270	 4.5740
 3.1290	 4.7050
 3.1310	 4.6510
 3.1330	 4.4860
 3.1350	 4.2210
 3.1370	 5.0370
 3.1390	 4.4770
 3.1410	 3.2650
 3.1430	 4.0580
 3.1450	 5.5590
 3.1460	 4.9530
 3.1480	 5.3380
 3.1500	 5.6850
 3.1520	 4.7130
 3.1540	 3.5780
 3.1560	 2.9170
 3.1580	 3.5320
 3.1600	 4.9850
 3.1620	 4.8380
 3.1640	 7.6870
 3.1660	 6.4660
 3.1680	 3.3070
 3.1700	 4.3710
 3.1710	 4.9020
 3.1730	 4.0930
 3.1750	 1.4420
 3.1770	 3.6690
 3.1790	 4.8510
 3.1810	 4.2530
 3.1830	 4.6180
 3.1850	 4.7580
 3.1870	 5.2750
 3.1890	 5.3950
 3.1910	 4.8570
 3.1930	 4.6670
 3.1950	 4.5650
 3.1970	 4.9160
 3.1990	 5.1890
 3.2010	 4.7980
 3.2030	 4.6140
 3.2050	 4.3960
 3.2070	 4.3450
 3.2090	 4.9740
 3.2110	 4.8950
 3.2130	 4.3160
 3.2150	 4.2470
 3.2170	 4.0750
 3.2190	 4.0530
 3.2210	 4.5680
 3.2230	 4.9590
 3.2250	 4.7620
 3.2270	 4.8060
 3.2290	 4.9200
 3.2310	 4.8020
 3.2330	 4.6020
 3.2350	 4.5690
 3.2370	 4.4790
 3.2390	 4.3470
 3.2410	 4.2120
 3.2430	 3.9310
 3.2450	 4.2340
 3.2470	 5.0920
 3.2490	 5.1090
 3.2510	 4.1980
 3.2530	 4.2560
 3.2550	 4.7280
 3.2570	 4.9060
 3.2590	 5.2840
 3.2610	 5.3600
 3.2630	 5.0900
 3.2650	 4.7030
 3.2670	 4.4750
 3.2690	 4.7260
 3.2720	 4.6370
 3.2740	 4.2420
 3.2760	 4.3550
 3.2780	 4.6330
 3.2800	 4.6500
 3.2820	 4.5250
 3.2840	 4.7540
 3.2860	 4.6200
 3.2880	 4.1880
 3.2900	 4.1480
 3.2920	 4.8520
 3.2940	 4.6520
 3.2960	 4.1000
 3.2990	 4.2150
 3.3010	 4.1180
 3.3030	 3.9770
 3.3050	 3.9770
 3.3070	 4.2710
 3.3090	 3.9310
 3.3110	 3.4450
 3.3130	 3.8060
 3.3150	 4.1810
 3.3180	 4.3780
 3.3200	 4.1520
 3.3220	 4.1820
 3.3240	 3.8350
 3.3260	 3.5970
 3.3280	 3.8990
 3.3300	 4.1670
 3.3330	 4.3020
 3.3350	 4.2490
 3.3370	 3.9540
 3.3390	 3.7990
 3.3410	 3.9820
 3.3430	 4.2420
 3.3450	 4.3380
 3.3480	 4.5460
 3.3500	 4.4280
 3.3520	 4.1210
 3.3540	 4.0160
 3.3560	 4.0810
 3.3580	 4.1410
 3.3610	 4.2450
 3.3630	 4.1400
 3.3650	 3.9550
 3.3670	 3.9990
 3.3690	 4.1840
 3.3720	 4.1910
 3.3740	 4.1320
 3.3760	 4.0810
 3.3780	 4.1450
 3.3800	 4.2640
 3.3830	 4.4660
 3.3850	 4.4570
 3.3870	 4.4340
 3.3890	 4.1330
 3.3910	 4.0700
 3.3940	 4.1440
 3.3960	 3.9240
 3.3980	 4.1020
 3.4000	 4.3950
 3.4020	 4.4360
 3.4050	 4.6620
 3.4070	 4.7930
 3.4090	 4.8220
 3.4110	 4.8620
 3.4140	 5.0480
 3.4160	 5.3010
 3.4180	 5.4960
 3.4200	 5.7860
 3.4230	 6.3690
 3.4250	 6.8550
 3.4270	 7.3450
 3.4290	 7.7020
 3.4320	 7.5230
 3.4340	 6.7620
 3.4360	 6.2320
 3.4390	 6.1190
 3.4410	 5.9460
 3.4430	 5.6530
 3.4450	 5.3410
 3.4480	 5.1630
 3.4500	 5.3270
 3.4520	 5.6800
 3.4550	 5.3170
 3.4570	 5.2530
 3.4590	 5.6760
 3.4620	 5.4390
 3.4640	 5.2470
 3.4660	 5.2520
 3.4680	 5.3210
 3.4710	 5.1530
 3.4730	 5.0820
 3.4750	 5.0670
 3.4780	 5.0830
 3.4800	 4.9740
 3.4820	 4.8740
 3.4850	 4.8510
 3.4870	 4.8140
 3.4890	 4.8520
 3.4920	 4.9380
 3.4940	 5.0130
 3.4970	 5.0530
 3.4990	 5.0330
 3.5010	 5.0830
 3.5040	 5.2870
 3.5060	 6.0330
 3.5080	 6.8060
 3.5110	 7.2220
 3.5130	 7.0490
 3.5160	 6.3850
 3.5180	 5.7960
 3.5200	 5.5570
 3.5230	 5.4510
 3.5250	 5.4480
 3.5270	 5.3430
 3.5300	 5.2880
 3.5320	 5.2300
 3.5350	 5.2020
 3.5370	 5.1810
 3.5400	 5.2180
 3.5420	 5.4250
 3.5440	 5.2000
 3.5470	 4.9950
 3.5490	 5.1280
 3.5520	 5.0730
 3.5540	 4.9170
 3.5570	 4.8350
 3.5590	 4.9590
 3.5610	 5.0750
 3.5640	 5.2130
 3.5660	 5.1940
 3.5690	 5.1320
 3.5710	 4.8920
 3.5740	 4.7360
 3.5760	 4.8770
 3.5790	 4.9810
 3.5810	 4.9970
 3.5840	 5.1480
 3.5860	 5.2710
 3.5890	 4.7770
 3.5910	 4.8290
 3.5930	 5.0700
 3.5960	 4.6880
 3.5980	 4.5300
 3.6010	 4.7040
 3.6030	 5.0390
 3.6060	 5.1310
 3.6080	 5.0040
 3.6110	 4.8380
 3.6140	 4.8970
 3.6160	 4.8800
 3.6190	 4.9760
 3.6210	 4.9600
 3.6240	 4.9620
 3.6260	 5.0540
 3.6290	 4.9820
 3.6310	 4.9310
 3.6340	 4.9540
 3.6360	 4.8190
 3.6390	 4.8960
 3.6410	 5.0330
 3.6440	 5.0200
 3.6470	 4.9270
 3.6490	 4.8410
 3.6520	 4.8850
 3.6540	 4.9390
 3.6570	 4.9060
 3.6590	 4.9550
 3.6620	 4.8330
 3.6650	 4.7360
 3.6670	 4.8940
 3.6700	 4.9750
 3.6720	 4.8690
 3.6750	 4.9850
 3.6780	 4.9980
 3.6800	 4.8780
 3.6830	 4.8630
 3.6850	 4.9340
 3.6880	 4.9530
 3.6910	 5.0120
 3.6930	 4.9150
 3.6960	 4.9530
 3.6990	 4.9910
 3.7010	 4.8550
 3.7040	 4.7970
 3.7060	 4.8290
 3.7090	 4.8620
 3.7120	 4.8990
 3.7140	 4.8080
 3.7170	 4.8660
 3.7200	 4.9140
 3.7220	 4.7210
 3.7250	 4.5750
 3.7280	 4.7030
 3.7300	 4.8760
 3.7330	 4.9550
 3.7360	 4.8040
 3.7390	 4.8150
 3.7410	 4.7820
 3.7440	 4.7160
 3.7470	 4.7970
 3.7490	 4.8740
 3.7520	 4.8890
 3.7550	 4.9790
 3.7580	 4.9530
 3.7600	 4.9080
 3.7630	 4.9880
 3.7660	 4.9820
 3.7680	 4.9390
 3.7710	 4.7950
 3.7740	 4.6520
 3.7770	 4.7290
 3.7790	 4.7040
 3.7820	 4.6920
 3.7850	 4.7130
 3.7880	 4.8750
 3.7900	 4.9320
 3.7930	 4.9140
 3.7960	 4.9780
 3.7990	 4.9740
 3.8020	 5.0070
 3.8040	 5.0120
 3.8070	 4.8460
 3.8100	 4.8150
 3.8130	 4.9450
 3.8160	 5.0850
 3.8180	 5.0230
 3.8210	 4.9190
 3.8240	 4.9530
 3.8270	 4.9780
 3.8300	 4.7890
 3.8330	 4.7760
 3.8350	 4.8230
 3.8380	 4.8850
 3.8410	 4.9450
 3.8440	 4.9450
 3.8470	 4.7910
 3.8500	 4.7730
 3.8520	 4.8310
 3.8550	 4.9650
 3.8580	 4.8680
 3.8610	 4.8050
 3.8640	 4.7870
 3.8670	 4.8640
 3.8700	 4.8860
 3.8730	 4.8330
 3.8750	 4.8890
 3.8780	 4.9750
 3.8810	 4.9790
 3.8840	 5.0490
 3.8870	 4.9880
 3.8900	 4.9660
 3.8930	 5.0320
 3.8960	 5.0950
 3.8990	 5.0270
 3.9020	 5.0690
 3.9050	 5.1590
 3.9080	 5.1610
 3.9110	 5.0770
 3.9140	 4.9770
 3.9160	 4.9310
 3.9190	 5.0090
 3.9220	 5.0490
 3.9250	 4.9430
 3.9280	 4.9200
 3.9310	 5.0520
 3.9340	 5.0000
 3.9370	 4.9290
 3.9400	 5.0400
 3.9430	 5.0370
 3.9460	 4.9610
 3.9490	 5.0380
 3.9520	 5.0110
 3.9550	 4.9390
 3.9580	 4.8750
 3.9610	 4.9020
 3.9640	 4.8760
 3.9670	 4.8630
 3.9700	 4.9190
 3.9730	 4.9230
 3.9770	 4.9340
 3.9800	 5.0220
 3.9830	 4.9810
 3.9860	 4.9260
 3.9890	 4.9690
 3.9920	 4.9680
 3.9950	 4.9380
 3.9980	 4.9260
 4.0010	 4.9360
 4.0040	 5.0740
 4.0070	 5.0910
 4.0100	 4.9850
 4.0130	 4.9490
 4.0170	 4.9440
 4.0200	 4.9250
 4.0230	 4.9010
 4.0260	 4.8660
 4.0290	 4.9060
 4.0320	 4.9020
 4.0350	 4.8330
 4.0380	 4.8930
 4.0420	 5.0190
 4.0450	 5.0830
 4.0480	 5.0560
 4.0510	 4.9150
 4.0540	 4.8480
 4.0570	 4.9980
 4.0610	 5.2090
 4.0640	 5.0750
 4.0670	 4.9230
 4.0700	 5.0220
 4.0730	 5.1260
 4.0770	 4.9780
 4.0800	 4.8190
 4.0830	 4.9850
 4.0860	 5.0340
 4.0890	 4.9730
 4.0930	 4.8760
 4.0960	 4.9670
 4.0990	 5.0030
 4.1020	 4.7970
 4.1060	 4.8890
 4.1090	 5.2660
 4.1120	 5.0800
 4.1150	 4.7800
 4.1190	 5.0190
 4.1220	 5.0800
 4.1250	 5.0220
 4.1280	 5.1230
 4.1320	 5.0690
 4.1350	 4.9360
 4.1380	 4.9820
 4.1420	 5.0220
 4.1450	 5.0200
 4.1480	 5.0240
 4.1520	 4.9460
 4.1550	 4.8120
 4.1580	 4.8390
 4.1620	 4.9190
 4.1650	 4.9350
 4.1680	 4.9560
 4.1720	 4.9680
 4.1750	 4.9730
 4.1780	 4.9780
 4.1820	 4.9890
 4.1850	 4.9220
 4.1890	 4.8470
 4.1920	 4.9630
 4.1950	 5.1390
 4.1990	 5.1630
 4.2020	 5.1590
 4.2060	 5.2420
 4.2090	 5.2950
 4.2120	 5.2480
 4.2160	 5.4220
 4.2190	 5.9160
 4.2230	 6.1430
 4.2260	 5.6050
 4.2300	 5.4960
 4.2330	 5.9900
 4.2360	 5.8910
 4.2400	 6.1700
 4.2430	 6.2990
 4.2470	 6.0000
 4.2500	 5.6560
 4.2540	 5.4760
 4.2570	 5.6130
 4.2610	 5.8410
 4.2640	 5.6920
 4.2680	 5.3290
 4.2710	 5.4050
 4.2750	 5.4190
 4.2780	 5.4000
 4.2820	 5.3950
 4.2850	 5.3130
 4.2890	 5.4310
 4.2930	 5.4810
 4.2960	 5.5470
 4.3000	 5.5670
 4.3030	 5.3800
 4.3070	 5.2950
 4.3100	 5.2560
 4.3140	 5.2550
 4.3180	 5.3390
 4.3210	 5.2130
 4.3250	 5.0700
 4.3280	 5.0470
 4.3320	 5.1190
 4.3360	 5.1370
 4.3390	 5.0460
 4.3430	 4.9200
 4.3470	 4.9350
 4.3500	 4.8620
 4.3540	 4.7850
 4.3570	 4.8580
 4.3610	 4.7770
 4.3650	 4.7330
 4.3680	 4.8560
 4.3720	 4.9610
 4.3760	 4.9290
 4.3800	 4.8170
 4.3830	 4.7600
 4.3870	 4.8340
 4.3910	 4.8390
 4.3940	 4.7660
 4.3980	 4.7960
 4.4020	 4.8570
 4.4060	 4.8240
 4.4090	 4.7500
 4.4130	 4.8230
 4.4170	 4.8380
 4.4210	 4.7550
 4.4240	 4.7010
 4.4280	 4.7340
 4.4320	 4.7820
 4.4360	 4.7500
 4.4400	 4.7440
 4.4430	 4.7930
 4.4470	 4.8350
 4.4510	 4.8570
 4.4550	 4.8260
 4.4590	 4.7870
 4.4620	 4.7390
 4.4660	 4.7730
 4.4700	 4.7750
 4.4740	 4.7290
 4.4780	 4.7070
 4.4820	 4.6850
 4.4860	 4.7420
 4.4900	 4.8210
 4.4930	 4.7710
 4.4970	 4.8120
 4.5010	 4.8870
 4.5050	 4.8010
 4.5090	 4.7280
 4.5130	 4.6610
 4.5170	 4.6440
 4.5210	 4.6870
 4.5250	 4.6470
 4.5290	 4.6430
 4.5330	 4.7120
 4.5370	 4.7600
 4.5410	 4.8480
 4.5450	 4.7780
 4.5490	 4.7030
 4.5530	 4.7390
 4.5570	 4.6140
 4.5610	 4.4650
 4.5650	 4.4790
 4.5690	 4.5720
 4.5730	 4.7060
 4.5770	 4.7730
 4.5810	 4.7130
 4.5850	 4.6480
 4.5890	 4.6430
 4.5930	 4.6710
 4.5970	 4.6500
 4.6010	 4.6210
 4.6050	 4.7330
 4.6090	 4.7920
 4.6130	 4.6590
 4.6170	 4.8440
 4.6220	 4.9160
 4.6260	 4.9250
 4.6300	 4.9110
 4.6340	 4.6940
 4.6380	 4.5630
 4.6420	 4.5580
 4.6460	 4.6380
 4.6510	 4.7040
 4.6550	 4.6880
 4.6590	 4.6560
 4.6630	 4.7620
 4.6670	 4.8230
 4.6720	 4.7340
 4.6760	 4.7050
 4.6800	 4.7250
 4.6840	 4.6550
 4.6880	 4.5950
 4.6930	 4.5830
 4.6970	 4.6000
 4.7010	 4.6300
 4.7050	 4.7220
 4.7100	 4.7690
 4.7140	 4.7600
 4.7180	 4.6730
 4.7230	 4.5650
 4.7270	 4.5760
 4.7310	 4.7170
 4.7360	 4.6950
 4.7400	 4.6070
 4.7440	 4.6210
 4.7490	 4.6580
 4.7530	 4.5990
 4.7570	 4.5330
 4.7620	 4.5460
 4.7660	 4.6320
 4.7700	 4.6530
 4.7750	 4.6480
 4.7790	 4.6180
 4.7840	 4.5070
 4.7880	 4.3390
 4.7920	 4.4310
 4.7970	 4.7820
 4.8010	 4.7650
 4.8060	 4.4300
 4.8100	 4.6020
 4.8150	 4.7010
 4.8190	 4.6720
 4.8240	 4.6740
 4.8280	 4.6190
 4.8330	 4.5420
 4.8370	 4.6290
 4.8420	 4.6790
 4.8460	 4.6290
 4.8510	 4.6040
 4.8550	 4.6040
 4.8600	 4.6130
 4.8640	 4.6300
 4.8690	 4.5850
 4.8730	 4.6460
 4.8780	 4.7000
 4.8830	 4.6590
 4.8870	 4.5750
 4.8920	 4.6130
 4.8960	 4.6390
 4.9010	 4.5910
 4.9060	 4.6260
 4.9100	 4.7110
 4.9150	 4.6590
 4.9200	 4.6300
 4.9240	 4.6120
 4.9290	 4.5970
 4.9340	 4.5910
 4.9380	 4.6170
 4.9430	 4.5620
 4.9480	 4.5700
 4.9530	 4.5830
 4.9570	 4.5250
 4.9620	 4.4960
 4.9670	 4.6070
 4.9720	 4.6460
 4.9760	 4.6630
 4.9810	 4.6120
 4.9860	 4.6800
 4.9910	 4.6690
 4.9960	 4.6340
 5.0000	 4.5630
 5.0050	 4.5530
 5.0100	 4.5930
 5.0150	 4.5900
 5.0200	 4.5120
 5.0250	 4.5580
 5.0290	 4.6000
 5.0340	 4.6130
 5.0390	 4.6600
 5.0440	 4.6530
 5.0490	 4.5530
 5.0540	 4.5790
 5.0590	 4.6560
 5.0640	 4.6910
 5.0690	 4.6060
 5.0740	 4.6040
 5.0790	 4.5960
 5.0840	 4.5640
 5.0890	 4.4920
 5.0940	 4.5380
 5.0990	 4.6040
 5.1040	 4.6590
 5.1090	 4.6400
 5.1140	 4.6030
 5.1190	 4.5540
 5.1240	 4.6320
 5.1290	 4.5850
 5.1340	 4.5030
 5.1390	 4.5170
 5.1440	 4.5640
 5.1490	 4.5690
 5.1540	 4.6620
 5.1600	 4.6500
 5.1650	 4.5880
 5.1700	 4.5470
 5.1750	 4.5330
 5.1800	 4.5930
 5.1850	 4.6060
 5.1910	 4.5050
 5.1960	 4.5290
 5.2010	 4.5640
 5.2060	 4.5970
 5.2110	 4.5820
 5.2170	 4.5500
 5.2220	 4.5860
 5.2270	 4.6900
 5.2320	 4.7150
 5.2380	 4.7290
 5.2430	 4.6800
 5.2480	 4.6990
 5.2540	 4.6650
 5.2590	 4.6870
 5.2640	 4.6270
 5.2700	 4.5200
 5.2750	 4.4780
 5.2800	 4.6100
 5.2860	 4.6990
 5.2910	 4.7460
 5.2970	 4.6530
 5.3020	 4.5620
 5.3070	 4.5150
 5.3130	 4.5210
 5.3180	 4.4450
 5.3240	 4.5630
 5.3290	 4.6690
 5.3350	 4.6910
 5.3400	 4.6600
 5.3460	 4.6360
 5.3510	 4.5720
 5.3570	 4.5480
 5.3620	 4.5890
 5.3680	 4.5560
 5.3730	 4.5010
 5.3790	 4.5280
 5.3850	 4.4640
 5.3900	 4.4680
 5.3960	 4.4680
 5.4010	 4.5430
 5.4070	 4.5010
 5.4130	 4.4830
 5.4180	 4.4460
 5.4240	 4.4170
 5.4300	 4.4100
