Name: Quercus douglasii 2
Type: vegetation
Class: Tree
Genus: Quercus
Species: douglasii
Sample No.: VH273
Owner: UCSB
Wavelength Range: VSWIR
Origin: 34.7157; -120.0601; WGS84
Collection Date: 11/2/2013
Description: Samples were collected as part of the HyspIRI Airborne Campaign. 48 individual plants were sampled in three times in 2013 - spring  summer  and fall. The name of the sample includes a 1  2  or 3 which references a different individual of the species. Samples were taken to JPL and processed within 48 hours of collection. The same leaves were processed in the Nicolet and then measured using the ASD.
Measurement: Bidirectional reflectance
First Column: X
Second Column: Y
X Units: Wavelength (micrometers)
Y Units: Reflectance (percentage)
First X Value: 0.35
Last X Value: 2.5
Number of X Values: 2151
Additional Information: vegetation.tree.quercus.douglasii.vswir.vh273.ucsb.asd.ancillary.txt

 0.3500	 7.9900
 0.3510	 8.0780
 0.3520	 8.0770
 0.3530	 8.0440
 0.3540	 8.0290
 0.3550	 7.8460
 0.3560	 7.7950
 0.3570	 7.8890
 0.3580	 7.9760
 0.3590	 7.9250
 0.3600	 7.8520
 0.3610	 7.8160
 0.3620	 7.7490
 0.3630	 7.7880
 0.3640	 7.8880
 0.3650	 7.9610
 0.3660	 7.9550
 0.3670	 7.9270
 0.3680	 7.9050
 0.3690	 7.8920
 0.3700	 7.8960
 0.3710	 7.8890
 0.3720	 7.8670
 0.3730	 7.8830
 0.3740	 7.8990
 0.3750	 7.9240
 0.3760	 7.9560
 0.3770	 7.8740
 0.3780	 7.8750
 0.3790	 7.9520
 0.3800	 7.9290
 0.3810	 7.9820
 0.3820	 8.0130
 0.3830	 7.9700
 0.3840	 7.9960
 0.3850	 8.0190
 0.3860	 8.0210
 0.3870	 8.0130
 0.3880	 8.0850
 0.3890	 8.0790
 0.3900	 7.9970
 0.3910	 8.0150
 0.3920	 8.0330
 0.3930	 8.0610
 0.3940	 8.1100
 0.3950	 8.1280
 0.3960	 8.1330
 0.3970	 8.1390
 0.3980	 8.1570
 0.3990	 8.1380
 0.4000	 8.1480
 0.4010	 8.2030
 0.4020	 8.2360
 0.4030	 8.2340
 0.4040	 8.2480
 0.4050	 8.3090
 0.4060	 8.3280
 0.4070	 8.3240
 0.4080	 8.3340
 0.4090	 8.3930
 0.4100	 8.3910
 0.4110	 8.3990
 0.4120	 8.4520
 0.4130	 8.4660
 0.4140	 8.5130
 0.4150	 8.5580
 0.4160	 8.5570
 0.4170	 8.5770
 0.4180	 8.6200
 0.4190	 8.6650
 0.4200	 8.6730
 0.4210	 8.7060
 0.4220	 8.7500
 0.4230	 8.7860
 0.4240	 8.8160
 0.4250	 8.8470
 0.4260	 8.8820
 0.4270	 8.9230
 0.4280	 8.9530
 0.4290	 8.9850
 0.4300	 9.0210
 0.4310	 9.0350
 0.4320	 9.0480
 0.4330	 9.0730
 0.4340	 9.1110
 0.4350	 9.1450
 0.4360	 9.1660
 0.4370	 9.1790
 0.4380	 9.1990
 0.4390	 9.2160
 0.4400	 9.2360
 0.4410	 9.2640
 0.4420	 9.2930
 0.4430	 9.3080
 0.4440	 9.3190
 0.4450	 9.3440
 0.4460	 9.3590
 0.4470	 9.3660
 0.4480	 9.3730
 0.4490	 9.3940
 0.4500	 9.4150
 0.4510	 9.4300
 0.4520	 9.4380
 0.4530	 9.4550
 0.4540	 9.4670
 0.4550	 9.4770
 0.4560	 9.4920
 0.4570	 9.5070
 0.4580	 9.5160
 0.4590	 9.5210
 0.4600	 9.5260
 0.4610	 9.5360
 0.4620	 9.5540
 0.4630	 9.5760
 0.4640	 9.5950
 0.4650	 9.6010
 0.4660	 9.6000
 0.4670	 9.6080
 0.4680	 9.6130
 0.4690	 9.6180
 0.4700	 9.6260
 0.4710	 9.6250
 0.4720	 9.6390
 0.4730	 9.6570
 0.4740	 9.6500
 0.4750	 9.6570
 0.4760	 9.6630
 0.4770	 9.6630
 0.4780	 9.6720
 0.4790	 9.6800
 0.4800	 9.6870
 0.4810	 9.6960
 0.4820	 9.7010
 0.4830	 9.7060
 0.4840	 9.7110
 0.4850	 9.7200
 0.4860	 9.7320
 0.4870	 9.7460
 0.4880	 9.7600
 0.4890	 9.7740
 0.4900	 9.7990
 0.4910	 9.8290
 0.4920	 9.8520
 0.4930	 9.8720
 0.4940	 9.8950
 0.4950	 9.9240
 0.4960	 9.9630
 0.4970	 9.9940
 0.4980	10.0260
 0.4990	10.0730
 0.5000	10.1230
 0.5010	10.1790
 0.5020	10.2410
 0.5030	10.3090
 0.5040	10.3790
 0.5050	10.4530
 0.5060	10.5340
 0.5070	10.6310
 0.5080	10.7370
 0.5090	10.8530
 0.5100	10.9810
 0.5110	11.1190
 0.5120	11.2670
 0.5130	11.4270
 0.5140	11.6040
 0.5150	11.7960
 0.5160	11.9980
 0.5170	12.2040
 0.5180	12.4250
 0.5190	12.6590
 0.5200	12.9010
 0.5210	13.1450
 0.5220	13.3960
 0.5230	13.6530
 0.5240	13.9120
 0.5250	14.1660
 0.5260	14.4140
 0.5270	14.6530
 0.5280	14.8800
 0.5290	15.1050
 0.5300	15.3200
 0.5310	15.5240
 0.5320	15.7190
 0.5330	15.9030
 0.5340	16.0750
 0.5350	16.2370
 0.5360	16.3880
 0.5370	16.5290
 0.5380	16.6610
 0.5390	16.7820
 0.5400	16.8920
 0.5410	16.9960
 0.5420	17.0970
 0.5430	17.1950
 0.5440	17.2980
 0.5450	17.4020
 0.5460	17.5010
 0.5470	17.5960
 0.5480	17.6870
 0.5490	17.7670
 0.5500	17.8320
 0.5510	17.8840
 0.5520	17.9240
 0.5530	17.9500
 0.5540	17.9590
 0.5550	17.9510
 0.5560	17.9270
 0.5570	17.8840
 0.5580	17.8220
 0.5590	17.7480
 0.5600	17.6670
 0.5610	17.5790
 0.5620	17.4910
 0.5630	17.4010
 0.5640	17.3030
 0.5650	17.1870
 0.5660	17.0540
 0.5670	16.9090
 0.5680	16.7600
 0.5690	16.6030
 0.5700	16.4400
 0.5710	16.2780
 0.5720	16.1290
 0.5730	15.9910
 0.5740	15.8710
 0.5750	15.7720
 0.5760	15.6810
 0.5770	15.5860
 0.5780	15.4820
 0.5790	15.3740
 0.5800	15.2750
 0.5810	15.1890
 0.5820	15.1120
 0.5830	15.0450
 0.5840	14.9700
 0.5850	14.8820
 0.5860	14.7950
 0.5870	14.7170
 0.5880	14.6550
 0.5890	14.6160
 0.5900	14.6140
 0.5910	14.6190
 0.5920	14.6190
 0.5930	14.6140
 0.5940	14.5990
 0.5950	14.5790
 0.5960	14.5510
 0.5970	14.5050
 0.5980	14.4530
 0.5990	14.3980
 0.6000	14.3390
 0.6010	14.2890
 0.6020	14.2400
 0.6030	14.1860
 0.6040	14.1300
 0.6050	14.0670
 0.6060	13.9980
 0.6070	13.9260
 0.6080	13.8450
 0.6090	13.7590
 0.6100	13.6650
 0.6110	13.5590
 0.6120	13.4730
 0.6130	13.3990
 0.6140	13.3280
 0.6150	13.2540
 0.6160	13.1880
 0.6170	13.1260
 0.6180	13.0640
 0.6190	13.0120
 0.6200	12.9650
 0.6210	12.9230
 0.6220	12.8890
 0.6230	12.8620
 0.6240	12.8400
 0.6250	12.8220
 0.6260	12.8100
 0.6270	12.8060
 0.6280	12.8060
 0.6290	12.8060
 0.6300	12.8110
 0.6310	12.8170
 0.6320	12.8200
 0.6330	12.8180
 0.6340	12.8170
 0.6350	12.8100
 0.6360	12.7890
 0.6370	12.7640
 0.6380	12.7270
 0.6390	12.6780
 0.6400	12.6230
 0.6410	12.5540
 0.6420	12.4810
 0.6430	12.4100
 0.6440	12.3350
 0.6450	12.2540
 0.6460	12.1700
 0.6470	12.0840
 0.6480	12.0070
 0.6490	11.9340
 0.6500	11.8670
 0.6510	11.8040
 0.6520	11.7450
 0.6530	11.6850
 0.6540	11.6220
 0.6550	11.5560
 0.6560	11.4900
 0.6570	11.4210
 0.6580	11.3460
 0.6590	11.2710
 0.6600	11.1950
 0.6610	11.1200
 0.6620	11.0540
 0.6630	10.9920
 0.6640	10.9330
 0.6650	10.8810
 0.6660	10.8460
 0.6670	10.8120
 0.6680	10.7820
 0.6690	10.7700
 0.6700	10.7590
 0.6710	10.7510
 0.6720	10.7480
 0.6730	10.7550
 0.6740	10.7650
 0.6750	10.7810
 0.6760	10.8000
 0.6770	10.8200
 0.6780	10.8490
 0.6790	10.8880
 0.6800	10.9320
 0.6810	10.9780
 0.6820	11.0350
 0.6830	11.1110
 0.6840	11.1980
 0.6850	11.3080
 0.6860	11.4440
 0.6870	11.6100
 0.6880	11.8100
 0.6890	12.0640
 0.6900	12.3770
 0.6910	12.7430
 0.6920	13.1800
 0.6930	13.6940
 0.6940	14.2890
 0.6950	14.9700
 0.6960	15.7360
 0.6970	16.5820
 0.6980	17.5010
 0.6990	18.4870
 0.7000	19.5350
 0.7010	20.6350
 0.7020	21.7660
 0.7030	22.9240
 0.7040	24.0990
 0.7050	25.2810
 0.7060	26.4590
 0.7070	27.6290
 0.7080	28.7880
 0.7090	29.9390
 0.7100	31.0620
 0.7110	32.1740
 0.7120	33.2750
 0.7130	34.3450
 0.7140	35.3840
 0.7150	36.3910
 0.7160	37.3710
 0.7170	38.3360
 0.7180	39.2670
 0.7190	40.1700
 0.7200	41.0500
 0.7210	41.8920
 0.7220	42.7080
 0.7230	43.4980
 0.7240	44.2440
 0.7250	44.9690
 0.7260	45.6620
 0.7270	46.3130
 0.7280	46.9410
 0.7290	47.5370
 0.7300	48.1050
 0.7310	48.6510
 0.7320	49.1550
 0.7330	49.6270
 0.7340	50.0780
 0.7350	50.5170
 0.7360	50.9280
 0.7370	51.3090
 0.7380	51.6650
 0.7390	52.0040
 0.7400	52.3220
 0.7410	52.6250
 0.7420	52.9130
 0.7430	53.1620
 0.7440	53.4010
 0.7450	53.6350
 0.7460	53.8490
 0.7470	54.0560
 0.7480	54.2440
 0.7490	54.4100
 0.7500	54.5670
 0.7510	54.7070
 0.7520	54.8340
 0.7530	54.9560
 0.7540	55.0750
 0.7550	55.1710
 0.7560	55.2550
 0.7570	55.3550
 0.7580	55.4360
 0.7590	55.5080
 0.7600	55.5770
 0.7610	55.6370
 0.7620	55.7060
 0.7630	55.7660
 0.7640	55.8010
 0.7650	55.8460
 0.7660	55.8900
 0.7670	55.9270
 0.7680	55.9620
 0.7690	55.9830
 0.7700	56.0060
 0.7710	56.0400
 0.7720	56.0720
 0.7730	56.1010
 0.7740	56.1240
 0.7750	56.1420
 0.7760	56.1670
 0.7770	56.1940
 0.7780	56.2150
 0.7790	56.2270
 0.7800	56.2470
 0.7810	56.2720
 0.7820	56.2960
 0.7830	56.3100
 0.7840	56.3320
 0.7850	56.3480
 0.7860	56.3560
 0.7870	56.3750
 0.7880	56.3990
 0.7890	56.4220
 0.7900	56.4410
 0.7910	56.4640
 0.7920	56.4750
 0.7930	56.4800
 0.7940	56.4960
 0.7950	56.5220
 0.7960	56.5500
 0.7970	56.5710
 0.7980	56.5810
 0.7990	56.5910
 0.8000	56.6040
 0.8010	56.6220
 0.8020	56.6380
 0.8030	56.6610
 0.8040	56.6830
 0.8050	56.6970
 0.8060	56.7240
 0.8070	56.7370
 0.8080	56.7440
 0.8090	56.7790
 0.8100	56.7940
 0.8110	56.8120
 0.8120	56.8400
 0.8130	56.8460
 0.8140	56.8510
 0.8150	56.8710
 0.8160	56.9080
 0.8170	56.9350
 0.8180	56.9490
 0.8190	56.9590
 0.8200	56.9790
 0.8210	57.0120
 0.8220	57.0380
 0.8230	57.0520
 0.8240	57.0650
 0.8250	57.0890
 0.8260	57.1090
 0.8270	57.1170
 0.8280	57.1360
 0.8290	57.1660
 0.8300	57.1900
 0.8310	57.1970
 0.8320	57.2110
 0.8330	57.2380
 0.8340	57.2690
 0.8350	57.2900
 0.8360	57.3120
 0.8370	57.3270
 0.8380	57.3370
 0.8390	57.3550
 0.8400	57.3710
 0.8410	57.3920
 0.8420	57.4200
 0.8430	57.4470
 0.8440	57.4740
 0.8450	57.4980
 0.8460	57.5160
 0.8470	57.5270
 0.8480	57.5620
 0.8490	57.5990
 0.8500	57.6090
 0.8510	57.6210
 0.8520	57.6380
 0.8530	57.6610
 0.8540	57.6860
 0.8550	57.6910
 0.8560	57.7040
 0.8570	57.7280
 0.8580	57.7430
 0.8590	57.7680
 0.8600	57.7960
 0.8610	57.8150
 0.8620	57.8140
 0.8630	57.8210
 0.8640	57.8400
 0.8650	57.8640
 0.8660	57.8840
 0.8670	57.8920
 0.8680	57.9010
 0.8690	57.9180
 0.8700	57.9140
 0.8710	57.9340
 0.8720	57.9710
 0.8730	57.9890
 0.8740	57.9820
 0.8750	57.9770
 0.8760	57.9910
 0.8770	58.0250
 0.8780	58.0370
 0.8790	58.0290
 0.8800	58.0160
 0.8810	58.0330
 0.8820	58.0470
 0.8830	58.0520
 0.8840	58.0500
 0.8850	58.0630
 0.8860	58.0840
 0.8870	58.1000
 0.8880	58.1060
 0.8890	58.1140
 0.8900	58.1100
 0.8910	58.1010
 0.8920	58.0990
 0.8930	58.1020
 0.8940	58.1110
 0.8950	58.1230
 0.8960	58.1290
 0.8970	58.1230
 0.8980	58.1230
 0.8990	58.1330
 0.9000	58.1420
 0.9010	58.1390
 0.9020	58.1340
 0.9030	58.1370
 0.9040	58.1470
 0.9050	58.1460
 0.9060	58.1330
 0.9070	58.1150
 0.9080	58.1050
 0.9090	58.1060
 0.9100	58.1220
 0.9110	58.1460
 0.9120	58.1390
 0.9130	58.1500
 0.9140	58.1530
 0.9150	58.1210
 0.9160	58.1150
 0.9170	58.1170
 0.9180	58.1300
 0.9190	58.1590
 0.9200	58.1480
 0.9210	58.1380
 0.9220	58.1310
 0.9230	58.1100
 0.9240	58.1100
 0.9250	58.1060
 0.9260	58.0940
 0.9270	58.0840
 0.9280	58.0620
 0.9290	58.0490
 0.9300	58.0430
 0.9310	58.0220
 0.9320	58.0020
 0.9330	57.9870
 0.9340	57.9780
 0.9350	57.9710
 0.9360	57.9450
 0.9370	57.9230
 0.9380	57.9130
 0.9390	57.8930
 0.9400	57.8670
 0.9410	57.8430
 0.9420	57.8230
 0.9430	57.7910
 0.9440	57.7790
 0.9450	57.7530
 0.9460	57.7020
 0.9470	57.6800
 0.9480	57.6300
 0.9490	57.5710
 0.9500	57.5280
 0.9510	57.4870
 0.9520	57.4440
 0.9530	57.3970
 0.9540	57.3450
 0.9550	57.2920
 0.9560	57.2150
 0.9570	57.1540
 0.9580	57.1380
 0.9590	57.0770
 0.9600	57.0160
 0.9610	56.9640
 0.9620	56.9180
 0.9630	56.8970
 0.9640	56.8870
 0.9650	56.8700
 0.9660	56.8400
 0.9670	56.8320
 0.9680	56.8260
 0.9690	56.8150
 0.9700	56.8010
 0.9710	56.7950
 0.9720	56.7900
 0.9730	56.7820
 0.9740	56.7680
 0.9750	56.7550
 0.9760	56.7550
 0.9770	56.7660
 0.9780	56.7740
 0.9790	56.7540
 0.9800	56.7670
 0.9810	56.8080
 0.9820	56.8360
 0.9830	56.8350
 0.9840	56.8500
 0.9850	56.8830
 0.9860	56.9120
 0.9870	56.9290
 0.9880	56.9510
 0.9890	56.9720
 0.9900	56.9810
 0.9910	56.9860
 0.9920	57.0410
 0.9930	57.1040
 0.9940	57.1100
 0.9950	57.1040
 0.9960	57.1270
 0.9970	57.1680
 0.9980	57.1950
 0.9990	57.2150
 1.0000	57.1950
 1.0010	57.0770
 1.0020	57.0500
 1.0030	57.0830
 1.0040	57.1130
 1.0050	57.1440
 1.0060	57.1730
 1.0070	57.1990
 1.0080	57.2250
 1.0090	57.2470
 1.0100	57.2770
 1.0110	57.3100
 1.0120	57.3410
 1.0130	57.3800
 1.0140	57.4110
 1.0150	57.4330
 1.0160	57.4610
 1.0170	57.4930
 1.0180	57.5160
 1.0190	57.5430
 1.0200	57.5740
 1.0210	57.5990
 1.0220	57.6230
 1.0230	57.6480
 1.0240	57.6720
 1.0250	57.6940
 1.0260	57.7170
 1.0270	57.7390
 1.0280	57.7590
 1.0290	57.7810
 1.0300	57.8050
 1.0310	57.8260
 1.0320	57.8460
 1.0330	57.8650
 1.0340	57.8880
 1.0350	57.9080
 1.0360	57.9300
 1.0370	57.9550
 1.0380	57.9720
 1.0390	57.9810
 1.0400	57.9940
 1.0410	58.0050
 1.0420	58.0160
 1.0430	58.0270
 1.0440	58.0400
 1.0450	58.0540
 1.0460	58.0680
 1.0470	58.0870
 1.0480	58.1020
 1.0490	58.1130
 1.0500	58.1260
 1.0510	58.1360
 1.0520	58.1470
 1.0530	58.1580
 1.0540	58.1690
 1.0550	58.1790
 1.0560	58.1860
 1.0570	58.1990
 1.0580	58.2160
 1.0590	58.2270
 1.0600	58.2400
 1.0610	58.2500
 1.0620	58.2550
 1.0630	58.2630
 1.0640	58.2730
 1.0650	58.2810
 1.0660	58.2880
 1.0670	58.2940
 1.0680	58.2980
 1.0690	58.3000
 1.0700	58.3050
 1.0710	58.3100
 1.0720	58.3150
 1.0730	58.3220
 1.0740	58.3270
 1.0750	58.3300
 1.0760	58.3360
 1.0770	58.3450
 1.0780	58.3480
 1.0790	58.3490
 1.0800	58.3490
 1.0810	58.3450
 1.0820	58.3420
 1.0830	58.3410
 1.0840	58.3370
 1.0850	58.3290
 1.0860	58.3200
 1.0870	58.3170
 1.0880	58.3150
 1.0890	58.3110
 1.0900	58.3080
 1.0910	58.3050
 1.0920	58.3000
 1.0930	58.2940
 1.0940	58.2910
 1.0950	58.2820
 1.0960	58.2680
 1.0970	58.2560
 1.0980	58.2420
 1.0990	58.2290
 1.1000	58.2180
 1.1010	58.2040
 1.1020	58.1890
 1.1030	58.1760
 1.1040	58.1570
 1.1050	58.1380
 1.1060	58.1210
 1.1070	58.1040
 1.1080	58.0840
 1.1090	58.0610
 1.1100	58.0420
 1.1110	58.0240
 1.1120	58.0030
 1.1130	57.9860
 1.1140	57.9660
 1.1150	57.9410
 1.1160	57.9160
 1.1170	57.8970
 1.1180	57.8690
 1.1190	57.8350
 1.1200	57.8000
 1.1210	57.7640
 1.1220	57.7240
 1.1230	57.6810
 1.1240	57.6330
 1.1250	57.5810
 1.1260	57.5230
 1.1270	57.4580
 1.1280	57.3900
 1.1290	57.3190
 1.1300	57.2410
 1.1310	57.1570
 1.1320	57.0710
 1.1330	56.9740
 1.1340	56.8690
 1.1350	56.7580
 1.1360	56.6410
 1.1370	56.5150
 1.1380	56.3820
 1.1390	56.2470
 1.1400	56.1050
 1.1410	55.9600
 1.1420	55.8140
 1.1430	55.6620
 1.1440	55.5110
 1.1450	55.3570
 1.1460	55.2070
 1.1470	55.0510
 1.1480	54.9070
 1.1490	54.7680
 1.1500	54.6360
 1.1510	54.5100
 1.1520	54.3930
 1.1530	54.2800
 1.1540	54.1800
 1.1550	54.0900
 1.1560	54.0090
 1.1570	53.9380
 1.1580	53.8710
 1.1590	53.8120
 1.1600	53.7610
 1.1610	53.7150
 1.1620	53.6770
 1.1630	53.6450
 1.1640	53.6170
 1.1650	53.5960
 1.1660	53.5850
 1.1670	53.5710
 1.1680	53.5600
 1.1690	53.5490
 1.1700	53.5370
 1.1710	53.5280
 1.1720	53.5220
 1.1730	53.5170
 1.1740	53.5140
 1.1750	53.5090
 1.1760	53.5040
 1.1770	53.4990
 1.1780	53.4890
 1.1790	53.4800
 1.1800	53.4710
 1.1810	53.4580
 1.1820	53.4460
 1.1830	53.4360
 1.1840	53.4240
 1.1850	53.4160
 1.1860	53.4070
 1.1870	53.3970
 1.1880	53.3890
 1.1890	53.3840
 1.1900	53.3770
 1.1910	53.3710
 1.1920	53.3670
 1.1930	53.3620
 1.1940	53.3610
 1.1950	53.3620
 1.1960	53.3660
 1.1970	53.3710
 1.1980	53.3770
 1.1990	53.3850
 1.2000	53.3970
 1.2010	53.4120
 1.2020	53.4300
 1.2030	53.4500
 1.2040	53.4690
 1.2050	53.4850
 1.2060	53.5040
 1.2070	53.5250
 1.2080	53.5490
 1.2090	53.5770
 1.2100	53.6050
 1.2110	53.6340
 1.2120	53.6650
 1.2130	53.6950
 1.2140	53.7230
 1.2150	53.7530
 1.2160	53.7830
 1.2170	53.8130
 1.2180	53.8450
 1.2190	53.8780
 1.2200	53.9110
 1.2210	53.9460
 1.2220	53.9780
 1.2230	54.0080
 1.2240	54.0430
 1.2250	54.0750
 1.2260	54.1070
 1.2270	54.1430
 1.2280	54.1760
 1.2290	54.2090
 1.2300	54.2420
 1.2310	54.2720
 1.2320	54.3050
 1.2330	54.3340
 1.2340	54.3630
 1.2350	54.3910
 1.2360	54.4210
 1.2370	54.4500
 1.2380	54.4770
 1.2390	54.5070
 1.2400	54.5320
 1.2410	54.5530
 1.2420	54.5750
 1.2430	54.5940
 1.2440	54.6110
 1.2450	54.6280
 1.2460	54.6480
 1.2470	54.6690
 1.2480	54.6910
 1.2490	54.7130
 1.2500	54.7310
 1.2510	54.7440
 1.2520	54.7570
 1.2530	54.7710
 1.2540	54.7860
 1.2550	54.8000
 1.2560	54.8130
 1.2570	54.8240
 1.2580	54.8330
 1.2590	54.8440
 1.2600	54.8560
 1.2610	54.8640
 1.2620	54.8710
 1.2630	54.8740
 1.2640	54.8740
 1.2650	54.8760
 1.2660	54.8780
 1.2670	54.8810
 1.2680	54.8820
 1.2690	54.8830
 1.2700	54.8810
 1.2710	54.8750
 1.2720	54.8710
 1.2730	54.8590
 1.2740	54.8450
 1.2750	54.8360
 1.2760	54.8230
 1.2770	54.8120
 1.2780	54.8000
 1.2790	54.7850
 1.2800	54.7670
 1.2810	54.7470
 1.2820	54.7270
 1.2830	54.7090
 1.2840	54.6930
 1.2850	54.6760
 1.2860	54.6590
 1.2870	54.6400
 1.2880	54.6190
 1.2890	54.5960
 1.2900	54.5740
 1.2910	54.5480
 1.2920	54.5210
 1.2930	54.4940
 1.2940	54.4630
 1.2950	54.4340
 1.2960	54.4030
 1.2970	54.3690
 1.2980	54.3360
 1.2990	54.2990
 1.3000	54.2590
 1.3010	54.2160
 1.3020	54.1690
 1.3030	54.1170
 1.3040	54.0610
 1.3050	54.0030
 1.3060	53.9400
 1.3070	53.8710
 1.3080	53.7990
 1.3090	53.7250
 1.3100	53.6460
 1.3110	53.5660
 1.3120	53.4840
 1.3130	53.3980
 1.3140	53.3050
 1.3150	53.2090
 1.3160	53.1090
 1.3170	53.0040
 1.3180	52.8960
 1.3190	52.7860
 1.3200	52.6720
 1.3210	52.5490
 1.3220	52.4240
 1.3230	52.2940
 1.3240	52.1580
 1.3250	52.0210
 1.3260	51.8800
 1.3270	51.7350
 1.3280	51.5880
 1.3290	51.4370
 1.3300	51.2830
 1.3310	51.1280
 1.3320	50.9690
 1.3330	50.8100
 1.3340	50.6480
 1.3350	50.4800
 1.3360	50.3090
 1.3370	50.1370
 1.3380	49.9630
 1.3390	49.7890
 1.3400	49.6160
 1.3410	49.4470
 1.3420	49.2790
 1.3430	49.1120
 1.3440	48.9490
 1.3450	48.7840
 1.3460	48.6170
 1.3470	48.4520
 1.3480	48.2860
 1.3490	48.1260
 1.3500	47.9680
 1.3510	47.8150
 1.3520	47.6620
 1.3530	47.5110
 1.3540	47.3580
 1.3550	47.2040
 1.3560	47.0470
 1.3570	46.8910
 1.3580	46.7340
 1.3590	46.5710
 1.3600	46.4070
 1.3610	46.2410
 1.3620	46.0640
 1.3630	45.8850
 1.3640	45.7000
 1.3650	45.5050
 1.3660	45.3040
 1.3670	45.0940
 1.3680	44.8720
 1.3690	44.6390
 1.3700	44.3890
 1.3710	44.1280
 1.3720	43.8520
 1.3730	43.5570
 1.3740	43.2470
 1.3750	42.9170
 1.3760	42.5620
 1.3770	42.1840
 1.3780	41.7760
 1.3790	41.3420
 1.3800	40.8830
 1.3810	40.3940
 1.3820	39.8860
 1.3830	39.3550
 1.3840	38.8010
 1.3850	38.2240
 1.3860	37.6300
 1.3870	37.0090
 1.3880	36.3810
 1.3890	35.7390
 1.3900	35.0800
 1.3910	34.4220
 1.3920	33.7580
 1.3930	33.0870
 1.3940	32.4200
 1.3950	31.7500
 1.3960	31.0860
 1.3970	30.4320
 1.3980	29.7900
 1.3990	29.1700
 1.4000	28.5670
 1.4010	27.9790
 1.4020	27.4170
 1.4030	26.8730
 1.4040	26.3540
 1.4050	25.8630
 1.4060	25.3950
 1.4070	24.9580
 1.4080	24.5450
 1.4090	24.1570
 1.4100	23.7970
 1.4110	23.4580
 1.4120	23.1440
 1.4130	22.8540
 1.4140	22.5850
 1.4150	22.3410
 1.4160	22.1190
 1.4170	21.9140
 1.4180	21.7280
 1.4190	21.5570
 1.4200	21.4020
 1.4210	21.2630
 1.4220	21.1380
 1.4230	21.0280
 1.4240	20.9300
 1.4250	20.8420
 1.4260	20.7660
 1.4270	20.6980
 1.4280	20.6430
 1.4290	20.5940
 1.4300	20.5530
 1.4310	20.5190
 1.4320	20.4920
 1.4330	20.4710
 1.4340	20.4570
 1.4350	20.4470
 1.4360	20.4430
 1.4370	20.4430
 1.4380	20.4470
 1.4390	20.4530
 1.4400	20.4630
 1.4410	20.4770
 1.4420	20.4930
 1.4430	20.5130
 1.4440	20.5330
 1.4450	20.5530
 1.4460	20.5780
 1.4470	20.6040
 1.4480	20.6310
 1.4490	20.6610
 1.4500	20.6910
 1.4510	20.7210
 1.4520	20.7530
 1.4530	20.7850
 1.4540	20.8190
 1.4550	20.8550
 1.4560	20.8930
 1.4570	20.9330
 1.4580	20.9770
 1.4590	21.0230
 1.4600	21.0740
 1.4610	21.1300
 1.4620	21.1890
 1.4630	21.2530
 1.4640	21.3220
 1.4650	21.3970
 1.4660	21.4770
 1.4670	21.5630
 1.4680	21.6550
 1.4690	21.7520
 1.4700	21.8530
