Name: Baccharis pilularis 2
Type: vegetation
Class: Shrub
Genus: Baccharis
Species: pilularis
Sample No.: VH046
Owner: UCSB
Wavelength Range: TIR
Origin: 34.5084; -119.7683; WGS84
Collection Date: 4/1/2013
Description: Samples were collected as part of the HyspIRI Airborne Campaign. 48 individual plants were sampled in three times in 2013 - spring  summer  and fall. The name of the sample includes a 1  2  or 3 which references a different individual of the species. Samples were taken to JPL and processed within 48 hours of collection. The same leaves were processed in the Nicolet and then measured using the ASD.
Measurement: Hemispherical reflectance
First Column: X
Second Column: Y
X Units: Wavelength (micrometers)
Y Units: Reflectance (percentage)
First X Value: 2.501
Last X Value: 15.387
Number of X Values: 1737
Additional Information: vegetation.shrub.baccharis.pilularis.tir.vh046.ucsb.nicolet.ancillary.txt

 2.5010	 8.5150
 2.5030	 8.5250
 2.5040	 8.6150
 2.5050	 8.5710
 2.5060	 8.6270
 2.5070	 8.5580
 2.5090	 8.6550
 2.5100	 8.5890
 2.5110	 8.5460
 2.5120	 8.4480
 2.5140	 8.5970
 2.5150	 8.5980
 2.5160	 8.6950
 2.5170	 8.6830
 2.5180	 8.7460
 2.5200	 8.9350
 2.5210	 8.9150
 2.5220	 8.6600
 2.5230	 8.6700
 2.5250	 8.7110
 2.5260	 8.8270
 2.5270	 8.7360
 2.5280	 8.6530
 2.5290	 8.5760
 2.5310	 8.6500
 2.5320	 8.5900
 2.5330	 8.7200
 2.5340	 8.8210
 2.5360	 8.8030
 2.5370	 8.7370
 2.5380	 8.6600
 2.5390	 8.5620
 2.5410	 8.5540
 2.5420	 8.6700
 2.5430	 8.7440
 2.5440	 8.5790
 2.5460	 8.6160
 2.5470	 8.5690
 2.5480	 8.5970
 2.5490	 8.7420
 2.5510	 8.9210
 2.5520	 8.9060
 2.5530	 8.8360
 2.5540	 8.7640
 2.5560	 8.8880
 2.5570	 8.8120
 2.5580	 8.8770
 2.5590	 8.7790
 2.5610	 8.6560
 2.5620	 8.6970
 2.5630	 8.7830
 2.5640	 8.7070
 2.5660	 8.8480
 2.5670	 8.8350
 2.5680	 8.7950
 2.5700	 8.8750
 2.5710	 8.8460
 2.5720	 8.7390
 2.5730	 8.8320
 2.5750	 8.7500
 2.5760	 8.8250
 2.5770	 8.8380
 2.5790	 8.8600
 2.5800	 8.8180
 2.5810	 8.8910
 2.5820	 8.8780
 2.5840	 8.7930
 2.5850	 8.8190
 2.5860	 8.8170
 2.5880	 8.7140
 2.5890	 8.7850
 2.5900	 8.8970
 2.5910	 8.9040
 2.5930	 8.8240
 2.5940	 8.8920
 2.5950	 8.7980
 2.5970	 8.6400
 2.5980	 8.6420
 2.5990	 8.7460
 2.6000	 8.7810
 2.6020	 8.7910
 2.6030	 8.7790
 2.6040	 8.9180
 2.6060	 9.0030
 2.6070	 9.0030
 2.6080	 8.8730
 2.6100	 8.7970
 2.6110	 8.7740
 2.6120	 8.6240
 2.6140	 8.6940
 2.6150	 8.8570
 2.6160	 8.6950
 2.6180	 8.6390
 2.6190	 8.6930
 2.6200	 8.7650
 2.6220	 8.5760
 2.6230	 8.4950
 2.6240	 8.6420
 2.6260	 8.8380
 2.6270	 8.9190
 2.6280	 8.8820
 2.6300	 8.6840
 2.6310	 8.6360
 2.6320	 8.6110
 2.6340	 8.6300
 2.6350	 8.6720
 2.6360	 8.7340
 2.6380	 8.6110
 2.6390	 8.6240
 2.6400	 8.6440
 2.6420	 8.5280
 2.6430	 8.3260
 2.6440	 8.4300
 2.6460	 8.5310
 2.6470	 8.5530
 2.6480	 8.4780
 2.6500	 8.5050
 2.6510	 8.5580
 2.6520	 8.5720
 2.6540	 8.5870
 2.6550	 8.6670
 2.6560	 8.4790
 2.6580	 8.3990
 2.6590	 8.4280
 2.6610	 8.5890
 2.6620	 8.5230
 2.6630	 8.4660
 2.6650	 8.5440
 2.6660	 8.5110
 2.6670	 8.4370
 2.6690	 8.4940
 2.6700	 8.4930
 2.6720	 8.4980
 2.6730	 8.4670
 2.6740	 8.5160
 2.6760	 8.4890
 2.6770	 8.4470
 2.6780	 8.4140
 2.6800	 8.4260
 2.6810	 8.3520
 2.6830	 8.3550
 2.6840	 8.2890
 2.6850	 8.3830
 2.6870	 8.3540
 2.6880	 8.3170
 2.6900	 8.2800
 2.6910	 8.3430
 2.6920	 8.3080
 2.6940	 8.2770
 2.6950	 8.2390
 2.6970	 8.3470
 2.6980	 8.3250
 2.6990	 8.2960
 2.7010	 8.2150
 2.7020	 8.2040
 2.7040	 8.2610
 2.7050	 8.2070
 2.7060	 8.0420
 2.7080	 8.0100
 2.7090	 8.1060
 2.7110	 8.0900
 2.7120	 7.8390
 2.7130	 7.9000
 2.7150	 7.9270
 2.7160	 7.8710
 2.7180	 7.8630
 2.7190	 7.8910
 2.7210	 7.8520
 2.7220	 7.7190
 2.7230	 7.6370
 2.7250	 7.5580
 2.7260	 7.4660
 2.7280	 7.4920
 2.7290	 7.5950
 2.7310	 7.6850
 2.7320	 7.5580
 2.7330	 7.3890
 2.7350	 7.3290
 2.7360	 7.3490
 2.7380	 7.1900
 2.7390	 7.1150
 2.7410	 7.0320
 2.7420	 6.9890
 2.7440	 6.9560
 2.7450	 6.9100
 2.7470	 6.8380
 2.7480	 6.8260
 2.7490	 6.8700
 2.7510	 6.9230
 2.7520	 6.8440
 2.7540	 6.7340
 2.7550	 6.3700
 2.7570	 6.5030
 2.7580	 6.5760
 2.7600	 6.7010
 2.7610	 6.7100
 2.7630	 6.7200
 2.7640	 6.5780
 2.7660	 6.4960
 2.7670	 6.4780
 2.7680	 6.5030
 2.7700	 6.3840
 2.7710	 6.2370
 2.7730	 6.2970
 2.7740	 6.5100
 2.7760	 6.5670
 2.7770	 6.5430
 2.7790	 6.2970
 2.7800	 6.2680
 2.7820	 6.4580
 2.7830	 6.4500
 2.7850	 6.3910
 2.7860	 6.4440
 2.7880	 6.1770
 2.7890	 6.0330
 2.7910	 6.1470
 2.7920	 6.2690
 2.7940	 6.1260
 2.7950	 6.1430
 2.7970	 6.2850
 2.7980	 6.3780
 2.8000	 6.3470
 2.8010	 6.2720
 2.8030	 6.0920
 2.8040	 6.0720
 2.8060	 6.1280
 2.8070	 6.2150
 2.8090	 6.2110
 2.8110	 6.2260
 2.8120	 6.1980
 2.8140	 6.2500
 2.8150	 6.1720
 2.8170	 6.1850
 2.8180	 6.0820
 2.8200	 6.0980
 2.8210	 6.1340
 2.8230	 6.1320
 2.8240	 6.0420
 2.8260	 6.0840
 2.8270	 6.0290
 2.8290	 5.9780
 2.8300	 5.8720
 2.8320	 6.0290
 2.8340	 6.0920
 2.8350	 6.1640
 2.8370	 6.1670
 2.8380	 6.1960
 2.8400	 5.9660
 2.8410	 5.8830
 2.8430	 5.8930
 2.8440	 6.0070
 2.8460	 5.8940
 2.8480	 5.8200
 2.8490	 5.7360
 2.8510	 5.7950
 2.8520	 5.8610
 2.8540	 5.9420
 2.8550	 5.8560
 2.8570	 5.8510
 2.8590	 5.8560
 2.8600	 5.9050
 2.8620	 5.8500
 2.8630	 6.0080
 2.8650	 5.9730
 2.8660	 5.9680
 2.8680	 5.9120
 2.8700	 5.8290
 2.8710	 5.7750
 2.8730	 5.8970
 2.8740	 5.9390
 2.8760	 6.0780
 2.8780	 6.0880
 2.8790	 6.0290
 2.8810	 5.9440
 2.8820	 5.8670
 2.8840	 5.7930
 2.8860	 5.8960
 2.8870	 5.7910
 2.8890	 5.7490
 2.8900	 5.7460
 2.8920	 5.8160
 2.8940	 5.8470
 2.8950	 5.8960
 2.8970	 5.9010
 2.8980	 5.9720
 2.9000	 5.8720
 2.9020	 5.8590
 2.9030	 5.6390
 2.9050	 5.5140
 2.9070	 5.6350
 2.9080	 5.7750
 2.9100	 5.8750
 2.9120	 6.0020
 2.9130	 5.7750
 2.9150	 5.7390
 2.9160	 5.8690
 2.9180	 5.9900
 2.9200	 5.8430
 2.9210	 5.8460
 2.9230	 6.0040
 2.9250	 6.0230
 2.9260	 5.8940
 2.9280	 5.9240
 2.9300	 5.9020
 2.9310	 5.8790
 2.9330	 5.8370
 2.9350	 5.9680
 2.9360	 6.0600
 2.9380	 6.1640
 2.9400	 6.0750
 2.9410	 6.0440
 2.9430	 5.8500
 2.9450	 5.8760
 2.9460	 6.0280
 2.9480	 6.0200
 2.9500	 5.7080
 2.9510	 5.8130
 2.9530	 5.8080
 2.9550	 5.5390
 2.9560	 5.4780
 2.9580	 5.6370
 2.9600	 5.5300
 2.9610	 5.8060
 2.9630	 5.9980
 2.9650	 5.8440
 2.9660	 5.4850
 2.9680	 5.4850
 2.9700	 4.9690
 2.9720	 5.3760
 2.9730	 6.0740
 2.9750	 6.2980
 2.9770	 6.1420
 2.9780	 6.4310
 2.9800	 5.8110
 2.9820	 6.1210
 2.9840	 6.9210
 2.9850	 6.3460
 2.9870	 5.3280
 2.9890	 5.4890
 2.9900	 6.0600
 2.9920	 5.9410
 2.9940	 5.8120
 2.9960	 5.4120
 2.9970	 5.4710
 2.9990	 5.6260
 3.0010	 6.5010
 3.0030	 6.6900
 3.0040	 6.1250
 3.0060	 6.0170
 3.0080	 6.1060
 3.0100	 5.8020
 3.0110	 5.3940
 3.0130	 5.2870
 3.0150	 4.8210
 3.0170	 5.2970
 3.0180	 6.0060
 3.0200	 5.6970
 3.0220	 5.7400
 3.0240	 6.1460
 3.0250	 6.0170
 3.0270	 5.7770
 3.0290	 5.2820
 3.0310	 5.8670
 3.0320	 5.6820
 3.0340	 5.3860
 3.0360	 5.8330
 3.0380	 5.3380
 3.0400	 5.3300
 3.0410	 5.7080
 3.0430	 5.7660
 3.0450	 6.0770
 3.0470	 6.5680
 3.0480	 6.3180
 3.0500	 6.2120
 3.0520	 6.6810
 3.0540	 7.1630
 3.0560	 7.0510
 3.0570	 7.3140
 3.0590	 7.5180
 3.0610	 7.0090
 3.0630	 5.8930
 3.0650	 5.5090
 3.0660	 6.0790
 3.0680	 6.0210
 3.0700	 5.5990
 3.0720	 5.6470
 3.0740	 6.0730
 3.0760	 6.3730
 3.0770	 6.0840
 3.0790	 5.8770
 3.0810	 6.0440
 3.0830	 6.2090
 3.0850	 5.9910
 3.0870	 5.8360
 3.0880	 5.9990
 3.0900	 5.8730
 3.0920	 6.0740
 3.0940	 6.4530
 3.0960	 6.2840
 3.0980	 5.9890
 3.0990	 6.0410
 3.1010	 5.9170
 3.1030	 5.9120
 3.1050	 6.0790
 3.1070	 6.2910
 3.1090	 6.1140
 3.1110	 6.1980
 3.1120	 6.1560
 3.1140	 6.2890
 3.1160	 6.4150
 3.1180	 6.2310
 3.1200	 6.0230
 3.1220	 6.0940
 3.1240	 6.1920
 3.1260	 6.1520
 3.1270	 5.9870
 3.1290	 6.1560
 3.1310	 6.5420
 3.1330	 6.6260
 3.1350	 6.5690
 3.1370	 6.7200
 3.1390	 6.7930
 3.1410	 6.3840
 3.1430	 5.9730
 3.1450	 6.1140
 3.1460	 6.0880
 3.1480	 6.0540
 3.1500	 6.3160
 3.1520	 6.7820
 3.1540	 6.5610
 3.1560	 6.5270
 3.1580	 6.9310
 3.1600	 6.9730
 3.1620	 6.5960
 3.1640	 7.0090
 3.1660	 7.1520
 3.1680	 6.0540
 3.1700	 5.7490
 3.1710	 6.4250
 3.1730	 6.1130
 3.1750	 6.1750
 3.1770	 5.5860
 3.1790	 6.2860
 3.1810	 6.8820
 3.1830	 6.7130
 3.1850	 6.8060
 3.1870	 6.2470
 3.1890	 5.9100
 3.1910	 6.1930
 3.1930	 6.5530
 3.1950	 6.4650
 3.1970	 6.2400
 3.1990	 6.2200
 3.2010	 6.4500
 3.2030	 6.6720
 3.2050	 6.4660
 3.2070	 6.2570
 3.2090	 6.2420
 3.2110	 6.2750
 3.2130	 6.2970
 3.2150	 6.4560
 3.2170	 6.3870
 3.2190	 6.3860
 3.2210	 6.4810
 3.2230	 6.4510
 3.2250	 6.4630
 3.2270	 6.5010
 3.2290	 6.4570
 3.2310	 6.3770
 3.2330	 6.4850
 3.2350	 6.5920
 3.2370	 6.4270
 3.2390	 6.1930
 3.2410	 6.3360
 3.2430	 6.5800
 3.2450	 6.5320
 3.2470	 6.4530
 3.2490	 6.3100
 3.2510	 6.3230
 3.2530	 6.5290
 3.2550	 6.6310
 3.2570	 6.5770
 3.2590	 6.5600
 3.2610	 6.4600
 3.2630	 6.5430
 3.2650	 6.7290
 3.2670	 6.7800
 3.2690	 6.6140
 3.2720	 6.5430
 3.2740	 6.6300
 3.2760	 6.7060
 3.2780	 6.6040
 3.2800	 6.6230
 3.2820	 6.6150
 3.2840	 6.6670
 3.2860	 6.7330
 3.2880	 6.7070
 3.2900	 6.7110
 3.2920	 6.7780
 3.2940	 6.7200
 3.2960	 6.7310
 3.2990	 6.7760
 3.3010	 6.7310
 3.3030	 6.5880
 3.3050	 6.5850
 3.3070	 6.6150
 3.3090	 6.7410
 3.3110	 6.6410
 3.3130	 6.5310
 3.3150	 6.4960
 3.3180	 6.6190
 3.3200	 6.7160
 3.3220	 6.7110
 3.3240	 6.5360
 3.3260	 6.5330
 3.3280	 6.5910
 3.3300	 6.6090
 3.3330	 6.5160
 3.3350	 6.5990
 3.3370	 6.4540
 3.3390	 6.3770
 3.3410	 6.5520
 3.3430	 6.5730
 3.3450	 6.4420
 3.3480	 6.5460
 3.3500	 6.5030
 3.3520	 6.4800
 3.3540	 6.4790
 3.3560	 6.4420
 3.3580	 6.3730
 3.3610	 6.3140
 3.3630	 6.2480
 3.3650	 6.3500
 3.3670	 6.4160
 3.3690	 6.2970
 3.3720	 6.1830
 3.3740	 6.1780
 3.3760	 6.1380
 3.3780	 6.2720
 3.3800	 6.2860
 3.3830	 6.2260
 3.3850	 6.2040
 3.3870	 6.1220
 3.3890	 6.0490
 3.3910	 6.1130
 3.3940	 6.1000
 3.3960	 6.1300
 3.3980	 6.1730
 3.4000	 6.1550
 3.4020	 6.1590
 3.4050	 6.2940
 3.4070	 6.3540
 3.4090	 6.3740
 3.4110	 6.4390
 3.4140	 6.5450
 3.4160	 6.6010
 3.4180	 6.8500
 3.4200	 7.1220
 3.4230	 7.3630
 3.4250	 7.5640
 3.4270	 7.8760
 3.4290	 7.9960
 3.4320	 7.7960
 3.4340	 7.3620
 3.4360	 7.0810
 3.4390	 6.9140
 3.4410	 6.7960
 3.4430	 6.7220
 3.4450	 6.7530
 3.4480	 6.7230
 3.4500	 6.7200
 3.4520	 6.7560
 3.4550	 6.7980
 3.4570	 6.6470
 3.4590	 6.5770
 3.4620	 6.6130
 3.4640	 6.5860
 3.4660	 6.5460
 3.4680	 6.5870
 3.4710	 6.5330
 3.4730	 6.5310
 3.4750	 6.4380
 3.4780	 6.4720
 3.4800	 6.5460
 3.4820	 6.6180
 3.4850	 6.6210
 3.4870	 6.5740
 3.4890	 6.4810
 3.4920	 6.5150
 3.4940	 6.5530
 3.4970	 6.6520
 3.4990	 6.6910
 3.5010	 6.8020
 3.5040	 6.8930
 3.5060	 7.2310
 3.5080	 7.6700
 3.5110	 8.0020
 3.5130	 7.8790
 3.5160	 7.6370
 3.5180	 7.5410
 3.5200	 7.3160
 3.5230	 7.0870
 3.5250	 7.1000
 3.5270	 7.2480
 3.5300	 7.3260
 3.5320	 7.3450
 3.5350	 7.4230
 3.5370	 7.4090
 3.5400	 7.2420
 3.5420	 7.1790
 3.5440	 7.2110
 3.5470	 7.1830
 3.5490	 7.2090
 3.5520	 7.1860
 3.5540	 7.1390
 3.5570	 7.1500
 3.5590	 7.1300
 3.5610	 7.2800
 3.5640	 7.5800
 3.5660	 7.5740
 3.5690	 7.4210
 3.5710	 7.4940
 3.5740	 7.4910
 3.5760	 7.2520
 3.5790	 7.3930
 3.5810	 7.4590
 3.5840	 7.4980
 3.5860	 7.4920
 3.5890	 7.4690
 3.5910	 7.2930
 3.5930	 7.2340
 3.5960	 7.4750
 3.5980	 7.6890
 3.6010	 7.6400
 3.6030	 7.5210
 3.6060	 7.4560
 3.6080	 7.5170
 3.6110	 7.4730
 3.6140	 7.4980
 3.6160	 7.4380
 3.6190	 7.4280
 3.6210	 7.5170
 3.6240	 7.5580
 3.6260	 7.5220
 3.6290	 7.5140
 3.6310	 7.4550
 3.6340	 7.4560
 3.6360	 7.3920
 3.6390	 7.4540
 3.6410	 7.5130
 3.6440	 7.5940
 3.6470	 7.5520
 3.6490	 7.5000
 3.6520	 7.4850
 3.6540	 7.4690
 3.6570	 7.4590
 3.6590	 7.5130
 3.6620	 7.4750
 3.6650	 7.4830
 3.6670	 7.5690
 3.6700	 7.6310
 3.6720	 7.6150
 3.6750	 7.6300
 3.6780	 7.5560
 3.6800	 7.4750
 3.6830	 7.5030
 3.6850	 7.5710
 3.6880	 7.5800
 3.6910	 7.5750
 3.6930	 7.5760
 3.6960	 7.5990
 3.6990	 7.6270
 3.7010	 7.6470
 3.7040	 7.5840
 3.7060	 7.6200
 3.7090	 7.6450
 3.7120	 7.6560
 3.7140	 7.6250
 3.7170	 7.7140
 3.7200	 7.7610
 3.7220	 7.7170
 3.7250	 7.5760
 3.7280	 7.6240
 3.7300	 7.6830
 3.7330	 7.7090
 3.7360	 7.7260
 3.7390	 7.6430
 3.7410	 7.6010
 3.7440	 7.5820
 3.7470	 7.5280
 3.7490	 7.6790
 3.7520	 7.7660
 3.7550	 7.7170
 3.7580	 7.7320
 3.7600	 7.8180
 3.7630	 7.8530
 3.7660	 7.9050
 3.7680	 7.8170
 3.7710	 7.7320
 3.7740	 7.6730
 3.7770	 7.6730
 3.7790	 7.7190
 3.7820	 7.7480
 3.7850	 7.8030
 3.7880	 7.8700
 3.7900	 7.8850
 3.7930	 7.8840
 3.7960	 7.8570
 3.7990	 7.8680
 3.8020	 7.8370
 3.8040	 7.8980
 3.8070	 7.8600
 3.8100	 7.8580
 3.8130	 7.8650
 3.8160	 7.8530
 3.8180	 7.8960
 3.8210	 7.9290
 3.8240	 7.9190
 3.8270	 7.8940
 3.8300	 7.8520
 3.8330	 7.9000
 3.8350	 7.9810
 3.8380	 7.9810
 3.8410	 7.9010
 3.8440	 7.8530
 3.8470	 7.8730
 3.8500	 7.9470
 3.8520	 7.8960
 3.8550	 7.9090
 3.8580	 8.0120
 3.8610	 8.0430
 3.8640	 8.0030
 3.8670	 7.9900
 3.8700	 7.9680
 3.8730	 7.9760
 3.8750	 7.9950
 3.8780	 8.0520
 3.8810	 7.9930
 3.8840	 8.0180
 3.8870	 8.0450
 3.8900	 7.9850
 3.8930	 8.0230
 3.8960	 8.0810
 3.8990	 8.0430
 3.9020	 8.0150
 3.9050	 7.9990
 3.9080	 7.9980
 3.9110	 7.9420
 3.9140	 7.8920
 3.9160	 7.9560
 3.9190	 8.0160
 3.9220	 8.0090
 3.9250	 8.0690
 3.9280	 8.0960
 3.9310	 8.0910
 3.9340	 8.0520
 3.9370	 8.0530
 3.9400	 8.1020
 3.9430	 8.1180
 3.9460	 8.0710
 3.9490	 8.0300
 3.9520	 8.0460
 3.9550	 8.1590
 3.9580	 8.1190
 3.9610	 8.0610
 3.9640	 8.0180
 3.9670	 8.0290
 3.9700	 8.0330
 3.9730	 8.0630
 3.9770	 8.0260
 3.9800	 8.0580
 3.9830	 8.1110
 3.9860	 8.1540
 3.9890	 8.1990
 3.9920	 8.1910
 3.9950	 8.1540
 3.9980	 8.1740
 4.0010	 8.1720
 4.0040	 8.2360
 4.0070	 8.2520
 4.0100	 8.0920
 4.0130	 8.0480
 4.0170	 8.1640
 4.0200	 8.1580
 4.0230	 8.1390
 4.0260	 8.1750
 4.0290	 8.2850
 4.0320	 8.2340
 4.0350	 8.1630
 4.0380	 8.1890
 4.0420	 8.2020
 4.0450	 8.1550
 4.0480	 8.1940
 4.0510	 8.2030
 4.0540	 8.2120
 4.0570	 8.1410
 4.0610	 8.1400
 4.0640	 8.1340
 4.0670	 8.1780
 4.0700	 8.1920
 4.0730	 8.1930
 4.0770	 8.2090
 4.0800	 8.2110
 4.0830	 8.2080
 4.0860	 8.2950
 4.0890	 8.3660
 4.0930	 8.2920
 4.0960	 8.2340
 4.0990	 8.3090
 4.1020	 8.3660
 4.1060	 8.2930
 4.1090	 8.1940
 4.1120	 8.1920
 4.1150	 8.2050
 4.1190	 8.2130
 4.1220	 8.1980
 4.1250	 8.2470
 4.1280	 8.2970
 4.1320	 8.2860
 4.1350	 8.2690
 4.1380	 8.3240
 4.1420	 8.2650
 4.1450	 8.2750
 4.1480	 8.2850
 4.1520	 8.3120
 4.1550	 8.3460
 4.1580	 8.3360
 4.1620	 8.2920
 4.1650	 8.3210
 4.1680	 8.3340
 4.1720	 8.2790
 4.1750	 8.2270
 4.1780	 8.2770
 4.1820	 8.3290
 4.1850	 8.3080
 4.1890	 8.2300
 4.1920	 8.2570
 4.1950	 8.2890
 4.1990	 8.2570
 4.2020	 8.2840
 4.2060	 8.3300
 4.2090	 8.2260
 4.2120	 8.1040
 4.2160	 8.2050
 4.2190	 8.2140
 4.2230	 8.1290
 4.2260	 8.2350
 4.2300	 8.0940
 4.2330	 7.9660
 4.2360	 7.7650
 4.2400	 7.8740
 4.2430	 8.0660
 4.2470	 8.1850
 4.2500	 8.2400
 4.2540	 8.0670
 4.2570	 8.0190
 4.2610	 8.0960
 4.2640	 7.9450
 4.2680	 7.9820
 4.2710	 8.2820
 4.2750	 8.2800
 4.2780	 8.3170
 4.2820	 8.4210
 4.2850	 8.4160
 4.2890	 8.4330
 4.2930	 8.1560
 4.2960	 8.0450
 4.3000	 8.1440
 4.3030	 8.2240
 4.3070	 8.2740
 4.3100	 8.2950
 4.3140	 8.2780
 4.3180	 8.2430
 4.3210	 8.2630
 4.3250	 8.3180
 4.3280	 8.2390
 4.3320	 8.2430
 4.3360	 8.3160
 4.3390	 8.3600
 4.3430	 8.3480
 4.3470	 8.3050
 4.3500	 8.2550
 4.3540	 8.2340
 4.3570	 8.2430
 4.3610	 8.2310
 4.3650	 8.2210
 4.3680	 8.2620
 4.3720	 8.2910
 4.3760	 8.3950
 4.3800	 8.4090
 4.3830	 8.3260
 4.3870	 8.3710
 4.3910	 8.3830
 4.3940	 8.2990
 4.3980	 8.2850
 4.4020	 8.2590
 4.4060	 8.2010
 4.4090	 8.2310
 4.4130	 8.2940
 4.4170	 8.2860
 4.4210	 8.1860
 4.4240	 8.0790
 4.4280	 8.0800
 4.4320	 8.1050
 4.4360	 8.2130
 4.4400	 8.2770
 4.4430	 8.2880
 4.4470	 8.2010
 4.4510	 8.1680
 4.4550	 8.1790
 4.4590	 8.2130
 4.4620	 8.1830
 4.4660	 8.1560
 4.4700	 8.1770
 4.4740	 8.1250
 4.4780	 8.1450
 4.4820	 8.1750
 4.4860	 8.1370
 4.4900	 8.1550
 4.4930	 8.2110
 4.4970	 8.1560
 4.5010	 8.0870
 4.5050	 8.0810
 4.5090	 8.1340
 4.5130	 8.1480
 4.5170	 8.1500
 4.5210	 8.1190
 4.5250	 8.1410
 4.5290	 8.1480
 4.5330	 8.0770
 4.5370	 8.1300
 4.5410	 8.0790
 4.5450	 8.0400
 4.5490	 8.0410
 4.5530	 8.0120
 4.5570	 8.0830
 4.5610	 8.1340
 4.5650	 8.1140
 4.5690	 8.0730
 4.5730	 8.0610
 4.5770	 8.0890
 4.5810	 8.0490
 4.5850	 8.0170
 4.5890	 8.0640
 4.5930	 8.0640
 4.5970	 8.0130
 4.6010	 8.0380
 4.6050	 8.0710
 4.6090	 8.0430
 4.6130	 7.9590
 4.6170	 7.9510
 4.6220	 7.9700
 4.6260	 7.9720
 4.6300	 7.9210
 4.6340	 7.8290
 4.6380	 7.8510
 4.6420	 7.8870
 4.6460	 7.8620
 4.6510	 7.9060
 4.6550	 7.9660
 4.6590	 8.0030
 4.6630	 7.9490
 4.6670	 7.9650
 4.6720	 8.0050
 4.6760	 7.9680
 4.6800	 7.9090
 4.6840	 7.8680
 4.6880	 7.8770
 4.6930	 7.8610
 4.6970	 7.9070
 4.7010	 7.9520
 4.7050	 7.9790
 4.7100	 7.9560
 4.7140	 7.9170
 4.7180	 7.9010
 4.7230	 8.0080
 4.7270	 8.0470
 4.7310	 7.9270
 4.7360	 7.9070
 4.7400	 7.9510
 4.7440	 7.9720
 4.7490	 8.0190
 4.7530	 7.9940
 4.7570	 7.9370
 4.7620	 7.9700
 4.7660	 7.9980
 4.7700	 7.9760
 4.7750	 7.9820
 4.7790	 8.0040
 4.7840	 7.9810
 4.7880	 8.0300
 4.7920	 8.0570
 4.7970	 8.0200
 4.8010	 8.0050
 4.8060	 7.9680
 4.8100	 7.9530
 4.8150	 8.0050
 4.8190	 8.0300
 4.8240	 8.0340
 4.8280	 8.0290
 4.8330	 8.0250
 4.8370	 8.0280
 4.8420	 7.9960
 4.8460	 8.0410
 4.8510	 8.0820
 4.8550	 8.0640
 4.8600	 8.0060
 4.8640	 7.9860
 4.8690	 7.9710
 4.8730	 8.0060
 4.8780	 8.0380
 4.8830	 8.0100
 4.8870	 7.9980
 4.8920	 8.0640
 4.8960	 8.0150
 4.9010	 7.9740
 4.9060	 8.0180
 4.9100	 8.0840
 4.9150	 8.1160
 4.9200	 8.0920
 4.9240	 8.0340
 4.9290	 8.1040
 4.9340	 8.1240
 4.9380	 8.0460
 4.9430	 8.0080
 4.9480	 8.0990
 4.9530	 8.1910
 4.9570	 8.1870
 4.9620	 8.1230
 4.9670	 8.1220
 4.9720	 8.1580
 4.9760	 8.2390
 4.9810	 8.2230
 4.9860	 8.2110
 4.9910	 8.2220
 4.9960	 8.2290
 5.0000	 8.1690
 5.0050	 8.1500
 5.0100	 8.1940
 5.0150	 8.2120
 5.0200	 8.1490
 5.0250	 8.1850
 5.0290	 8.1980
 5.0340	 8.2960
 5.0390	 8.2810
 5.0440	 8.2280
 5.0490	 8.1680
 5.0540	 8.1680
 5.0590	 8.2200
 5.0640	 8.2440
 5.0690	 8.2010
 5.0740	 8.2230
 5.0790	 8.2630
 5.0840	 8.3200
 5.0890	 8.3360
 5.0940	 8.3220
 5.0990	 8.3180
 5.1040	 8.3550
 5.1090	 8.3280
 5.1140	 8.2840
 5.1190	 8.2770
 5.1240	 8.3180
 5.1290	 8.2810
 5.1340	 8.2310
 5.1390	 8.2150
 5.1440	 8.2370
 5.1490	 8.2680
 5.1540	 8.2930
 5.1600	 8.2950
 5.1650	 8.3080
 5.1700	 8.2140
 5.1750	 8.1990
 5.1800	 8.2610
 5.1850	 8.2720
 5.1910	 8.2960
 5.1960	 8.4180
 5.2010	 8.3990
 5.2060	 8.3910
 5.2110	 8.3190
 5.2170	 8.2620
 5.2220	 8.3010
 5.2270	 8.2960
 5.2320	 8.2340
 5.2380	 8.2720
 5.2430	 8.2660
 5.2480	 8.2830
 5.2540	 8.2530
 5.2590	 8.2470
 5.2640	 8.2330
 5.2700	 8.2700
 5.2750	 8.2460
 5.2800	 8.2460
 5.2860	 8.2640
 5.2910	 8.3500
 5.2970	 8.3210
 5.3020	 8.2740
 5.3070	 8.2450
 5.3130	 8.2430
 5.3180	 8.2670
 5.3240	 8.3090
 5.3290	 8.2410
 5.3350	 8.2660
 5.3400	 8.2710
 5.3460	 8.2760
 5.3510	 8.2740
 5.3570	 8.2540
 5.3620	 8.1850
 5.3680	 8.1060
 5.3730	 8.0900
 5.3790	 8.1020
 5.3850	 8.0850
 5.3900	 8.1050
 5.3960	 8.1260
 5.4010	 8.1840
 5.4070	 8.1350
 5.4130	 8.1440
 5.4180	 8.1690
 5.4240	 8.1520
 5.4300	 8.0680
 5.4350	 8.0040
