Name: Adenostoma fasciculatum 1
Type: vegetation
Class: Shrub
Genus: Adenostoma
Species: fasciculatum
Sample No.: VH034
Owner: UCSB
Wavelength Range: VSWIR
Origin: 34.5084; -119.7687; WGS84
Collection Date: 4/1/2013
Description: Samples were collected as part of the HyspIRI Airborne Campaign. 48 individual plants were sampled in three times in 2013 - spring  summer  and fall. The name of the sample includes a 1  2  or 3 which references a different individual of the species. Samples were taken to JPL and processed within 48 hours of collection. The same leaves were processed in the Nicolet and then measured using the ASD.
Measurement: Bidirectional reflectance
First Column: X
Second Column: Y
X Units: Wavelength (micrometers)
Y Units: Reflectance (percentage)
First X Value: 0.35
Last X Value: 2.5
Number of X Values: 2151
Additional Information: vegetation.shrub.adenostoma.fasciculatum.vswir.vh034.ucsb.asd.ancillary.txt

 0.3500	 1.5160
 0.3510	 2.0060
 0.3520	 2.1290
 0.3530	 1.9690
 0.3540	 1.8020
 0.3550	 1.7630
 0.3560	 1.8010
 0.3570	 1.8260
 0.3580	 1.7580
 0.3590	 1.7820
 0.3600	 1.7900
 0.3610	 1.7560
 0.3620	 1.8070
 0.3630	 1.7820
 0.3640	 1.7680
 0.3650	 1.8410
 0.3660	 1.7760
 0.3670	 1.8270
 0.3680	 1.9110
 0.3690	 1.7580
 0.3700	 1.7600
 0.3710	 1.8730
 0.3720	 1.9630
 0.3730	 1.8220
 0.3740	 1.8250
 0.3750	 1.9230
 0.3760	 1.9390
 0.3770	 1.8070
 0.3780	 1.7390
 0.3790	 1.7660
 0.3800	 1.7560
 0.3810	 1.8010
 0.3820	 1.8260
 0.3830	 1.8000
 0.3840	 1.8550
 0.3850	 1.8680
 0.3860	 1.8430
 0.3870	 1.8280
 0.3880	 1.8150
 0.3890	 1.8590
 0.3900	 1.9160
 0.3910	 1.8470
 0.3920	 1.8840
 0.3930	 1.9310
 0.3940	 1.9070
 0.3950	 1.9400
 0.3960	 2.0010
 0.3970	 2.0460
 0.3980	 2.0310
 0.3990	 1.9770
 0.4000	 1.9850
 0.4010	 2.0590
 0.4020	 2.0670
 0.4030	 2.0510
 0.4040	 2.0740
 0.4050	 2.1580
 0.4060	 2.1940
 0.4070	 2.1890
 0.4080	 2.1780
 0.4090	 2.2040
 0.4100	 2.2490
 0.4110	 2.2730
 0.4120	 2.2700
 0.4130	 2.2980
 0.4140	 2.3470
 0.4150	 2.3810
 0.4160	 2.3770
 0.4170	 2.4210
 0.4180	 2.4590
 0.4190	 2.4710
 0.4200	 2.4740
 0.4210	 2.5010
 0.4220	 2.5310
 0.4230	 2.5480
 0.4240	 2.5660
 0.4250	 2.5910
 0.4260	 2.6150
 0.4270	 2.6260
 0.4280	 2.6370
 0.4290	 2.6520
 0.4300	 2.6740
 0.4310	 2.7030
 0.4320	 2.7200
 0.4330	 2.7310
 0.4340	 2.7470
 0.4350	 2.7670
 0.4360	 2.7790
 0.4370	 2.7890
 0.4380	 2.8150
 0.4390	 2.8280
 0.4400	 2.8350
 0.4410	 2.8430
 0.4420	 2.8520
 0.4430	 2.8680
 0.4440	 2.8910
 0.4450	 2.9140
 0.4460	 2.9380
 0.4470	 2.9580
 0.4480	 2.9730
 0.4490	 2.9900
 0.4500	 3.0120
 0.4510	 3.0340
 0.4520	 3.0540
 0.4530	 3.0820
 0.4540	 3.1050
 0.4550	 3.1240
 0.4560	 3.1460
 0.4570	 3.1600
 0.4580	 3.1770
 0.4590	 3.1970
 0.4600	 3.1970
 0.4610	 3.2110
 0.4620	 3.2310
 0.4630	 3.2400
 0.4640	 3.2440
 0.4650	 3.2620
 0.4660	 3.2860
 0.4670	 3.2840
 0.4680	 3.2920
 0.4690	 3.2990
 0.4700	 3.2960
 0.4710	 3.3140
 0.4720	 3.3220
 0.4730	 3.3200
 0.4740	 3.3190
 0.4750	 3.3280
 0.4760	 3.3350
 0.4770	 3.3360
 0.4780	 3.3370
 0.4790	 3.3510
 0.4800	 3.3640
 0.4810	 3.3650
 0.4820	 3.3710
 0.4830	 3.3750
 0.4840	 3.3780
 0.4850	 3.3860
 0.4860	 3.3990
 0.4870	 3.4170
 0.4880	 3.4390
 0.4890	 3.4640
 0.4900	 3.4840
 0.4910	 3.5020
 0.4920	 3.5240
 0.4930	 3.5490
 0.4940	 3.5830
 0.4950	 3.6250
 0.4960	 3.6600
 0.4970	 3.7010
 0.4980	 3.7490
 0.4990	 3.8000
 0.5000	 3.8570
 0.5010	 3.9150
 0.5020	 3.9750
 0.5030	 4.0400
 0.5040	 4.1200
 0.5050	 4.2090
 0.5060	 4.3000
 0.5070	 4.3860
 0.5080	 4.4780
 0.5090	 4.5820
 0.5100	 4.6970
 0.5110	 4.8270
 0.5120	 4.9580
 0.5130	 5.0850
 0.5140	 5.2220
 0.5150	 5.3730
 0.5160	 5.5280
 0.5170	 5.6800
 0.5180	 5.8440
 0.5190	 6.0100
 0.5200	 6.1760
 0.5210	 6.3490
 0.5220	 6.5210
 0.5230	 6.6830
 0.5240	 6.8330
 0.5250	 6.9860
 0.5260	 7.1340
 0.5270	 7.2750
 0.5280	 7.4090
 0.5290	 7.5410
 0.5300	 7.6610
 0.5310	 7.7660
 0.5320	 7.8660
 0.5330	 7.9560
 0.5340	 8.0420
 0.5350	 8.1280
 0.5360	 8.1980
 0.5370	 8.2630
 0.5380	 8.3250
 0.5390	 8.3810
 0.5400	 8.4410
 0.5410	 8.5020
 0.5420	 8.5580
 0.5430	 8.6110
 0.5440	 8.6640
 0.5450	 8.7120
 0.5460	 8.7490
 0.5470	 8.7720
 0.5480	 8.7940
 0.5490	 8.8230
 0.5500	 8.8540
 0.5510	 8.8730
 0.5520	 8.8860
 0.5530	 8.8980
 0.5540	 8.9010
 0.5550	 8.8960
 0.5560	 8.8820
 0.5570	 8.8640
 0.5580	 8.8410
 0.5590	 8.8140
 0.5600	 8.7820
 0.5610	 8.7420
 0.5620	 8.7030
 0.5630	 8.6660
 0.5640	 8.6280
 0.5650	 8.5790
 0.5660	 8.5230
 0.5670	 8.4650
 0.5680	 8.4070
 0.5690	 8.3380
 0.5700	 8.2670
 0.5710	 8.2010
 0.5720	 8.1370
 0.5730	 8.0800
 0.5740	 8.0280
 0.5750	 7.9760
 0.5760	 7.9280
 0.5770	 7.8810
 0.5780	 7.8350
 0.5790	 7.7970
 0.5800	 7.7620
 0.5810	 7.7320
 0.5820	 7.7070
 0.5830	 7.6920
 0.5840	 7.6760
 0.5850	 7.6590
 0.5860	 7.6480
 0.5870	 7.6450
 0.5880	 7.6440
 0.5890	 7.6430
 0.5900	 7.6490
 0.5910	 7.6560
 0.5920	 7.6630
 0.5930	 7.6770
 0.5940	 7.6950
 0.5950	 7.7140
 0.5960	 7.7330
 0.5970	 7.7450
 0.5980	 7.7570
 0.5990	 7.7680
 0.6000	 7.7780
 0.6010	 7.7770
 0.6020	 7.7760
 0.6030	 7.7730
 0.6040	 7.7570
 0.6050	 7.7400
 0.6060	 7.7180
 0.6070	 7.6860
 0.6080	 7.6500
 0.6090	 7.6180
 0.6100	 7.5880
 0.6110	 7.5490
 0.6120	 7.4990
 0.6130	 7.4390
 0.6140	 7.3750
 0.6150	 7.3200
 0.6160	 7.2660
 0.6170	 7.2150
 0.6180	 7.1710
 0.6190	 7.1340
 0.6200	 7.1010
 0.6210	 7.0730
 0.6220	 7.0520
 0.6230	 7.0300
 0.6240	 7.0100
 0.6250	 6.9950
 0.6260	 6.9910
 0.6270	 6.9930
 0.6280	 6.9950
 0.6290	 6.9950
 0.6300	 6.9980
 0.6310	 7.0010
 0.6320	 7.0000
 0.6330	 6.9930
 0.6340	 6.9820
 0.6350	 6.9620
 0.6360	 6.9300
 0.6370	 6.8880
 0.6380	 6.8360
 0.6390	 6.7760
 0.6400	 6.7060
 0.6410	 6.6280
 0.6420	 6.5460
 0.6430	 6.4590
 0.6440	 6.3640
 0.6450	 6.2670
 0.6460	 6.1710
 0.6470	 6.0780
 0.6480	 5.9830
 0.6490	 5.9000
 0.6500	 5.8320
 0.6510	 5.7730
 0.6520	 5.7150
 0.6530	 5.6590
 0.6540	 5.6040
 0.6550	 5.5490
 0.6560	 5.4860
 0.6570	 5.4120
 0.6580	 5.3280
 0.6590	 5.2340
 0.6600	 5.1340
 0.6610	 5.0300
 0.6620	 4.9250
 0.6630	 4.8180
 0.6640	 4.7140
 0.6650	 4.6190
 0.6660	 4.5300
 0.6670	 4.4510
 0.6680	 4.3800
 0.6690	 4.3180
 0.6700	 4.2680
 0.6710	 4.2270
 0.6720	 4.1920
 0.6730	 4.1660
 0.6740	 4.1490
 0.6750	 4.1400
 0.6760	 4.1350
 0.6770	 4.1380
 0.6780	 4.1480
 0.6790	 4.1670
 0.6800	 4.2010
 0.6810	 4.2530
 0.6820	 4.3260
 0.6830	 4.4250
 0.6840	 4.5530
 0.6850	 4.7170
 0.6860	 4.9190
 0.6870	 5.1630
 0.6880	 5.4510
 0.6890	 5.7850
 0.6900	 6.1670
 0.6910	 6.6010
 0.6920	 7.0820
 0.6930	 7.6130
 0.6940	 8.1880
 0.6950	 8.8020
 0.6960	 9.4600
 0.6970	10.1580
 0.6980	10.8880
 0.6990	11.6470
 0.7000	12.4330
 0.7010	13.2390
 0.7020	14.0580
 0.7030	14.8880
 0.7040	15.7240
 0.7050	16.5620
 0.7060	17.3960
 0.7070	18.2360
 0.7080	19.0730
 0.7090	19.9040
 0.7100	20.7420
 0.7110	21.5810
 0.7120	22.4190
 0.7130	23.2590
 0.7140	24.0920
 0.7150	24.9240
 0.7160	25.7590
 0.7170	26.5840
 0.7180	27.3980
 0.7190	28.2070
 0.7200	29.0140
 0.7210	29.8090
 0.7220	30.5880
 0.7230	31.3480
 0.7240	32.0880
 0.7250	32.8110
 0.7260	33.5130
 0.7270	34.1900
 0.7280	34.8390
 0.7290	35.4580
 0.7300	36.0500
 0.7310	36.6150
 0.7320	37.1550
 0.7330	37.6660
 0.7340	38.1470
 0.7350	38.6020
 0.7360	39.0360
 0.7370	39.4440
 0.7380	39.8250
 0.7390	40.1860
 0.7400	40.5260
 0.7410	40.8430
 0.7420	41.1350
 0.7430	41.4200
 0.7440	41.6810
 0.7450	41.9160
 0.7460	42.1320
 0.7470	42.3420
 0.7480	42.5370
 0.7490	42.7150
 0.7500	42.8750
 0.7510	43.0250
 0.7520	43.1630
 0.7530	43.2900
 0.7540	43.4120
 0.7550	43.5200
 0.7560	43.6130
 0.7570	43.7000
 0.7580	43.7820
 0.7590	43.8600
 0.7600	43.9360
 0.7610	44.0070
 0.7620	44.0680
 0.7630	44.1230
 0.7640	44.1740
 0.7650	44.2240
 0.7660	44.2730
 0.7670	44.3200
 0.7680	44.3600
 0.7690	44.3940
 0.7700	44.4300
 0.7710	44.4670
 0.7720	44.4990
 0.7730	44.5330
 0.7740	44.5650
 0.7750	44.5920
 0.7760	44.6220
 0.7770	44.6490
 0.7780	44.6750
 0.7790	44.7020
 0.7800	44.7270
 0.7810	44.7520
 0.7820	44.7770
 0.7830	44.8020
 0.7840	44.8270
 0.7850	44.8500
 0.7860	44.8710
 0.7870	44.8900
 0.7880	44.9070
 0.7890	44.9260
 0.7900	44.9520
 0.7910	44.9730
 0.7920	44.9910
 0.7930	45.0100
 0.7940	45.0300
 0.7950	45.0460
 0.7960	45.0610
 0.7970	45.0760
 0.7980	45.0880
 0.7990	45.1070
 0.8000	45.1230
 0.8010	45.1300
 0.8020	45.1410
 0.8030	45.1530
 0.8040	45.1640
 0.8050	45.1720
 0.8060	45.1780
 0.8070	45.1820
 0.8080	45.1880
 0.8090	45.2040
 0.8100	45.2100
 0.8110	45.2140
 0.8120	45.2210
 0.8130	45.2150
 0.8140	45.2180
 0.8150	45.2240
 0.8160	45.2260
 0.8170	45.2240
 0.8180	45.2240
 0.8190	45.2250
 0.8200	45.2200
 0.8210	45.2220
 0.8220	45.2260
 0.8230	45.2240
 0.8240	45.2120
 0.8250	45.2010
 0.8260	45.1960
 0.8270	45.1940
 0.8280	45.1810
 0.8290	45.1660
 0.8300	45.1500
 0.8310	45.1320
 0.8320	45.1170
 0.8330	45.1130
 0.8340	45.1120
 0.8350	45.1040
 0.8360	45.0990
 0.8370	45.0990
 0.8380	45.1000
 0.8390	45.0930
 0.8400	45.0940
 0.8410	45.0940
 0.8420	45.0920
 0.8430	45.0970
 0.8440	45.1070
 0.8450	45.1140
 0.8460	45.1140
 0.8470	45.1120
 0.8480	45.1210
 0.8490	45.1330
 0.8500	45.1360
 0.8510	45.1340
 0.8520	45.1380
 0.8530	45.1460
 0.8540	45.1490
 0.8550	45.1540
 0.8560	45.1610
 0.8570	45.1660
 0.8580	45.1660
 0.8590	45.1690
 0.8600	45.1710
 0.8610	45.1740
 0.8620	45.1900
 0.8630	45.1990
 0.8640	45.2000
 0.8650	45.1990
 0.8660	45.2060
 0.8670	45.2100
 0.8680	45.2150
 0.8690	45.2260
 0.8700	45.2290
 0.8710	45.2270
 0.8720	45.2270
 0.8730	45.2350
 0.8740	45.2420
 0.8750	45.2460
 0.8760	45.2500
 0.8770	45.2590
 0.8780	45.2670
 0.8790	45.2680
 0.8800	45.2660
 0.8810	45.2710
 0.8820	45.2730
 0.8830	45.2720
 0.8840	45.2720
 0.8850	45.2750
 0.8860	45.2750
 0.8870	45.2750
 0.8880	45.2780
 0.8890	45.2820
 0.8900	45.2760
 0.8910	45.2690
 0.8920	45.2730
 0.8930	45.2680
 0.8940	45.2700
 0.8950	45.2750
 0.8960	45.2660
 0.8970	45.2630
 0.8980	45.2650
 0.8990	45.2660
 0.9000	45.2570
 0.9010	45.2530
 0.9020	45.2530
 0.9030	45.2550
 0.9040	45.2510
 0.9050	45.2490
 0.9060	45.2470
 0.9070	45.2410
 0.9080	45.2310
 0.9090	45.2240
 0.9100	45.2170
 0.9110	45.2070
 0.9120	45.2080
 0.9130	45.1950
 0.9140	45.1790
 0.9150	45.1720
 0.9160	45.1650
 0.9170	45.1590
 0.9180	45.1430
 0.9190	45.1130
 0.9200	45.0840
 0.9210	45.0620
 0.9220	45.0440
 0.9230	45.0210
 0.9240	44.9820
 0.9250	44.9400
 0.9260	44.9000
 0.9270	44.8600
 0.9280	44.8070
 0.9290	44.7480
 0.9300	44.6910
 0.9310	44.6400
 0.9320	44.5790
 0.9330	44.5200
 0.9340	44.4600
 0.9350	44.3770
 0.9360	44.2980
 0.9370	44.2190
 0.9380	44.1350
 0.9390	44.0530
 0.9400	43.9850
 0.9410	43.9020
 0.9420	43.7940
 0.9430	43.7010
 0.9440	43.5950
 0.9450	43.4840
 0.9460	43.3720
 0.9470	43.2480
 0.9480	43.0990
 0.9490	42.9380
 0.9500	42.7790
 0.9510	42.6340
 0.9520	42.4770
 0.9530	42.3010
 0.9540	42.1140
 0.9550	41.9370
 0.9560	41.7700
 0.9570	41.6160
 0.9580	41.4760
 0.9590	41.3420
 0.9600	41.2130
 0.9610	41.1010
 0.9620	41.0120
 0.9630	40.9250
 0.9640	40.8710
 0.9650	40.8260
 0.9660	40.7610
 0.9670	40.7260
 0.9680	40.6930
 0.9690	40.6600
 0.9700	40.6350
 0.9710	40.6150
 0.9720	40.5890
 0.9730	40.5710
 0.9740	40.5760
 0.9750	40.5660
 0.9760	40.5490
 0.9770	40.5430
 0.9780	40.5580
 0.9790	40.5510
 0.9800	40.5700
 0.9810	40.6040
 0.9820	40.6220
 0.9830	40.6570
 0.9840	40.6780
 0.9850	40.6960
 0.9860	40.7360
 0.9870	40.7750
 0.9880	40.8180
 0.9890	40.8660
 0.9900	40.9170
 0.9910	40.9490
 0.9920	41.0370
 0.9930	41.1260
 0.9940	41.2140
 0.9950	41.3020
 0.9960	41.3910
 0.9970	41.4790
 0.9980	41.5680
 0.9990	41.6560
 1.0000	41.7450
 1.0010	41.8330
 1.0020	41.9220
 1.0030	42.0100
 1.0040	42.0990
 1.0050	42.1870
 1.0060	42.2760
 1.0070	42.3640
 1.0080	42.4520
 1.0090	42.5410
 1.0100	42.5410
 1.0110	42.6040
 1.0120	42.6710
 1.0130	42.7400
 1.0140	42.8070
 1.0150	42.8760
 1.0160	42.9480
 1.0170	43.0140
 1.0180	43.0770
 1.0190	43.1420
 1.0200	43.2050
 1.0210	43.2660
 1.0220	43.3300
 1.0230	43.3940
 1.0240	43.4600
 1.0250	43.5240
 1.0260	43.5910
 1.0270	43.6520
 1.0280	43.7110
 1.0290	43.7690
 1.0300	43.8230
 1.0310	43.8810
 1.0320	43.9440
 1.0330	44.0000
 1.0340	44.0580
 1.0350	44.1120
 1.0360	44.1630
 1.0370	44.2110
 1.0380	44.2600
 1.0390	44.3080
 1.0400	44.3570
 1.0410	44.4050
 1.0420	44.4530
 1.0430	44.5020
 1.0440	44.5450
 1.0450	44.5870
 1.0460	44.6250
 1.0470	44.6580
 1.0480	44.6930
 1.0490	44.7250
 1.0500	44.7570
 1.0510	44.7870
 1.0520	44.8180
 1.0530	44.8470
 1.0540	44.8720
 1.0550	44.8990
 1.0560	44.9290
 1.0570	44.9530
 1.0580	44.9760
 1.0590	44.9970
 1.0600	45.0170
 1.0610	45.0340
 1.0620	45.0530
 1.0630	45.0680
 1.0640	45.0760
 1.0650	45.0850
 1.0660	45.0890
 1.0670	45.0960
 1.0680	45.1030
 1.0690	45.1130
 1.0700	45.1180
 1.0710	45.1220
 1.0720	45.1230
 1.0730	45.1190
 1.0740	45.1170
 1.0750	45.1180
 1.0760	45.1140
 1.0770	45.1080
 1.0780	45.1000
 1.0790	45.0890
 1.0800	45.0770
 1.0810	45.0660
 1.0820	45.0510
 1.0830	45.0320
 1.0840	45.0140
 1.0850	44.9950
 1.0860	44.9760
 1.0870	44.9550
 1.0880	44.9360
 1.0890	44.9120
 1.0900	44.8830
 1.0910	44.8560
 1.0920	44.8270
 1.0930	44.7980
 1.0940	44.7700
 1.0950	44.7370
 1.0960	44.7010
 1.0970	44.6660
 1.0980	44.6290
 1.0990	44.5920
 1.1000	44.5570
 1.1010	44.5200
 1.1020	44.4810
 1.1030	44.4430
 1.1040	44.4040
 1.1050	44.3630
 1.1060	44.3220
 1.1070	44.2800
 1.1080	44.2350
 1.1090	44.1900
 1.1100	44.1430
 1.1110	44.0920
 1.1120	44.0420
 1.1130	43.9930
 1.1140	43.9380
 1.1150	43.8840
 1.1160	43.8210
 1.1170	43.7520
 1.1180	43.6770
 1.1190	43.5970
 1.1200	43.5070
 1.1210	43.4140
 1.1220	43.3120
 1.1230	43.1970
 1.1240	43.0750
 1.1250	42.9380
 1.1260	42.7900
 1.1270	42.6280
 1.1280	42.4590
 1.1290	42.2690
 1.1300	42.0660
 1.1310	41.8450
 1.1320	41.6080
 1.1330	41.3570
 1.1340	41.0890
 1.1350	40.8100
 1.1360	40.5170
 1.1370	40.2140
 1.1380	39.9020
 1.1390	39.5820
 1.1400	39.2530
 1.1410	38.9250
 1.1420	38.5950
 1.1430	38.2670
 1.1440	37.9490
 1.1450	37.6320
 1.1460	37.3310
 1.1470	37.0340
 1.1480	36.7580
 1.1490	36.4940
 1.1500	36.2500
 1.1510	36.0210
 1.1520	35.8100
 1.1530	35.6180
 1.1540	35.4410
 1.1550	35.2810
 1.1560	35.1390
 1.1570	35.0130
 1.1580	34.9010
 1.1590	34.8050
 1.1600	34.7190
 1.1610	34.6450
 1.1620	34.5820
 1.1630	34.5270
 1.1640	34.4800
 1.1650	34.4370
 1.1660	34.4030
 1.1670	34.3710
 1.1680	34.3440
 1.1690	34.3180
 1.1700	34.2970
 1.1710	34.2760
 1.1720	34.2570
 1.1730	34.2390
 1.1740	34.2240
 1.1750	34.2050
 1.1760	34.1860
 1.1770	34.1660
 1.1780	34.1420
 1.1790	34.1180
 1.1800	34.0940
 1.1810	34.0680
 1.1820	34.0440
 1.1830	34.0220
 1.1840	34.0000
 1.1850	33.9770
 1.1860	33.9540
 1.1870	33.9320
 1.1880	33.9140
 1.1890	33.8960
 1.1900	33.8820
 1.1910	33.8710
 1.1920	33.8620
 1.1930	33.8570
 1.1940	33.8540
 1.1950	33.8520
 1.1960	33.8530
 1.1970	33.8580
 1.1980	33.8650
 1.1990	33.8760
 1.2000	33.8900
 1.2010	33.9060
 1.2020	33.9230
 1.2030	33.9430
 1.2040	33.9650
 1.2050	33.9880
 1.2060	34.0150
 1.2070	34.0450
 1.2080	34.0770
 1.2090	34.1110
 1.2100	34.1470
 1.2110	34.1840
 1.2120	34.2250
 1.2130	34.2660
 1.2140	34.3100
 1.2150	34.3550
 1.2160	34.4020
 1.2170	34.4490
 1.2180	34.5000
 1.2190	34.5510
 1.2200	34.6020
 1.2210	34.6550
 1.2220	34.7060
 1.2230	34.7550
 1.2240	34.8060
 1.2250	34.8540
 1.2260	34.9010
 1.2270	34.9470
 1.2280	34.9910
 1.2290	35.0370
 1.2300	35.0820
 1.2310	35.1250
 1.2320	35.1670
 1.2330	35.2080
 1.2340	35.2480
 1.2350	35.2870
 1.2360	35.3250
 1.2370	35.3620
 1.2380	35.3980
 1.2390	35.4320
 1.2400	35.4670
 1.2410	35.5040
 1.2420	35.5390
 1.2430	35.5730
 1.2440	35.6080
 1.2450	35.6390
 1.2460	35.6680
 1.2470	35.6970
 1.2480	35.7230
 1.2490	35.7500
 1.2500	35.7730
 1.2510	35.7960
 1.2520	35.8180
 1.2530	35.8390
 1.2540	35.8600
 1.2550	35.8800
 1.2560	35.9000
 1.2570	35.9160
 1.2580	35.9290
 1.2590	35.9410
 1.2600	35.9500
 1.2610	35.9570
 1.2620	35.9610
 1.2630	35.9650
 1.2640	35.9670
 1.2650	35.9670
 1.2660	35.9660
 1.2670	35.9620
 1.2680	35.9560
 1.2690	35.9460
 1.2700	35.9340
 1.2710	35.9190
 1.2720	35.9020
 1.2730	35.8850
 1.2740	35.8650
 1.2750	35.8440
 1.2760	35.8210
 1.2770	35.7930
 1.2780	35.7610
 1.2790	35.7260
 1.2800	35.6890
 1.2810	35.6490
 1.2820	35.6070
 1.2830	35.5620
 1.2840	35.5140
 1.2850	35.4660
 1.2860	35.4160
 1.2870	35.3610
 1.2880	35.3020
 1.2890	35.2400
 1.2900	35.1710
 1.2910	35.0980
 1.2920	35.0250
 1.2930	34.9490
 1.2940	34.8690
 1.2950	34.7860
 1.2960	34.6990
 1.2970	34.6070
 1.2980	34.5110
 1.2990	34.4110
 1.3000	34.3070
 1.3010	34.1980
 1.3020	34.0850
 1.3030	33.9690
 1.3040	33.8460
 1.3050	33.7200
 1.3060	33.5930
 1.3070	33.4590
 1.3080	33.3210
 1.3090	33.1800
 1.3100	33.0350
 1.3110	32.8850
 1.3120	32.7310
 1.3130	32.5750
 1.3140	32.4140
 1.3150	32.2470
 1.3160	32.0790
 1.3170	31.9090
 1.3180	31.7330
 1.3190	31.5550
 1.3200	31.3710
 1.3210	31.1820
 1.3220	30.9910
 1.3230	30.7970
 1.3240	30.6010
 1.3250	30.4070
 1.3260	30.2110
 1.3270	30.0140
 1.3280	29.8160
 1.3290	29.6160
 1.3300	29.4160
 1.3310	29.2160
 1.3320	29.0140
 1.3330	28.8150
 1.3340	28.6170
 1.3350	28.4170
 1.3360	28.2210
 1.3370	28.0250
 1.3380	27.8300
 1.3390	27.6370
 1.3400	27.4460
 1.3410	27.2590
 1.3420	27.0790
 1.3430	26.9020
 1.3440	26.7290
 1.3450	26.5580
 1.3460	26.3890
 1.3470	26.2230
 1.3480	26.0600
 1.3490	25.9000
 1.3500	25.7460
 1.3510	25.5930
 1.3520	25.4410
 1.3530	25.2920
 1.3540	25.1410
 1.3550	24.9930
 1.3560	24.8440
 1.3570	24.6940
 1.3580	24.5450
 1.3590	24.3940
 1.3600	24.2400
 1.3610	24.0830
 1.3620	23.9200
 1.3630	23.7530
 1.3640	23.5790
 1.3650	23.3980
 1.3660	23.2110
 1.3670	23.0160
 1.3680	22.8090
 1.3690	22.5920
 1.3700	22.3640
 1.3710	22.1240
 1.3720	21.8720
 1.3730	21.6050
 1.3740	21.3260
 1.3750	21.0320
 1.3760	20.7210
 1.3770	20.3950
 1.3780	20.0500
 1.3790	19.6910
 1.3800	19.3180
 1.3810	18.9290
 1.3820	18.5320
 1.3830	18.1240
 1.3840	17.7110
 1.3850	17.2860
 1.3860	16.8620
 1.3870	16.4270
 1.3880	16.0000
 1.3890	15.5720
 1.3900	15.1450
 1.3910	14.7270
 1.3920	14.3140
 1.3930	13.9050
 1.3940	13.5080
 1.3950	13.1180
 1.3960	12.7400
 1.3970	12.3770
 1.3980	12.0270
 1.3990	11.6970
 1.4000	11.3820
 1.4010	11.0810
 1.4020	10.7980
 1.4030	10.5270
 1.4040	10.2730
 1.4050	10.0340
 1.4060	 9.8100
 1.4070	 9.6030
 1.4080	 9.4100
 1.4090	 9.2300
 1.4100	 9.0640
 1.4110	 8.9070
 1.4120	 8.7630
 1.4130	 8.6300
 1.4140	 8.5050
 1.4150	 8.3930
 1.4160	 8.2900
 1.4170	 8.1940
 1.4180	 8.1060
 1.4190	 8.0240
 1.4200	 7.9480
 1.4210	 7.8780
 1.4220	 7.8140
 1.4230	 7.7560
 1.4240	 7.7040
 1.4250	 7.6550
 1.4260	 7.6120
 1.4270	 7.5720
 1.4280	 7.5350
 1.4290	 7.5020
 1.4300	 7.4730
 1.4310	 7.4460
 1.4320	 7.4230
 1.4330	 7.4030
 1.4340	 7.3850
 1.4350	 7.3690
 1.4360	 7.3560
 1.4370	 7.3450
 1.4380	 7.3350
 1.4390	 7.3280
 1.4400	 7.3240
 1.4410	 7.3210
 1.4420	 7.3190
 1.4430	 7.3180
 1.4440	 7.3180
 1.4450	 7.3190
 1.4460	 7.3210
 1.4470	 7.3240
 1.4480	 7.3280
 1.4490	 7.3340
 1.4500	 7.3410
 1.4510	 7.3490
 1.4520	 7.3570
 1.4530	 7.3660
 1.4540	 7.3760
 1.4550	 7.3880
 1.4560	 7.4000
 1.4570	 7.4160
 1.4580	 7.4320
 1.4590	 7.4500
 1.4600	 7.4710
 1.4610	 7.4930
 1.4620	 7.5170
 1.4630	 7.5450
 1.4640	 7.5740
 1.4650	 7.6060
 1.4660	 7.6410
 1.4670	 7.6780
 1.4680	 7.7180
 1.4690	 7.7620
