Name: Baccharis pilularis 2
Type: vegetation
Class: Shrub
Genus: Baccharis
Species: pilularis
Sample No.: VH196
Owner: UCSB
Wavelength Range: TIR
Origin: 34.4186; -119.8458; WGS84
Collection Date: 10/13/2013
Description: Samples were collected as part of the HyspIRI Airborne Campaign. 48 individual plants were sampled in three times in 2013 - spring  summer  and fall. The name of the sample includes a 1  2  or 3 which references a different individual of the species. Samples were taken to JPL and processed within 48 hours of collection. The same leaves were processed in the Nicolet and then measured using the ASD.
Measurement: Hemispherical reflectance
First Column: X
Second Column: Y
X Units: Wavelength (micrometers)
Y Units: Reflectance (percentage)
First X Value: 2.501
Last X Value: 15.387
Number of X Values: 1737
Additional Information: vegetation.shrub.baccharis.pilularis.tir.vh196.ucsb.nicolet.ancillary.txt

 2.5010	 8.1490
 2.5030	 7.9560
 2.5040	 7.6590
 2.5050	 7.8740
 2.5060	 8.1530
 2.5070	 8.1670
 2.5090	 8.2570
 2.5100	 8.0670
 2.5110	 7.8630
 2.5120	 7.6720
 2.5140	 7.6790
 2.5150	 7.7100
 2.5160	 8.0080
 2.5170	 7.8610
 2.5180	 7.7200
 2.5200	 8.0320
 2.5210	 8.1440
 2.5220	 8.0130
 2.5230	 7.9170
 2.5250	 7.8750
 2.5260	 8.0510
 2.5270	 8.1290
 2.5280	 8.0320
 2.5290	 7.6700
 2.5310	 7.6950
 2.5320	 7.8420
 2.5330	 7.9060
 2.5340	 7.9520
 2.5360	 7.9090
 2.5370	 7.7300
 2.5380	 7.8460
 2.5390	 7.9870
 2.5410	 8.0560
 2.5420	 7.8180
 2.5430	 7.8520
 2.5440	 8.1060
 2.5460	 8.0970
 2.5470	 7.9360
 2.5480	 8.0140
 2.5490	 8.0770
 2.5510	 8.0400
 2.5520	 7.9290
 2.5530	 8.0350
 2.5540	 7.8690
 2.5560	 7.7630
 2.5570	 7.8720
 2.5580	 7.9490
 2.5590	 7.9360
 2.5610	 7.9750
 2.5620	 7.9630
 2.5630	 7.9840
 2.5640	 7.9780
 2.5660	 8.0220
 2.5670	 7.8130
 2.5680	 7.7480
 2.5700	 7.9520
 2.5710	 7.9070
 2.5720	 7.8400
 2.5730	 7.9600
 2.5750	 7.9860
 2.5760	 7.8880
 2.5770	 8.0500
 2.5790	 8.2180
 2.5800	 7.9480
 2.5810	 7.9520
 2.5820	 7.9700
 2.5840	 8.0680
 2.5850	 8.0540
 2.5860	 8.0680
 2.5880	 8.1280
 2.5890	 8.0840
 2.5900	 8.0100
 2.5910	 8.0100
 2.5930	 7.8260
 2.5940	 7.8240
 2.5950	 8.0540
 2.5970	 8.0790
 2.5980	 7.8530
 2.5990	 7.7780
 2.6000	 7.8100
 2.6020	 7.6240
 2.6030	 7.3600
 2.6040	 7.5120
 2.6060	 7.7450
 2.6070	 7.7920
 2.6080	 7.8040
 2.6100	 7.9090
 2.6110	 7.7840
 2.6120	 7.6900
 2.6140	 7.6380
 2.6150	 7.5960
 2.6160	 7.6180
 2.6180	 7.6930
 2.6190	 7.6410
 2.6200	 7.6120
 2.6220	 7.6070
 2.6230	 7.6740
 2.6240	 7.4530
 2.6260	 7.2580
 2.6270	 7.1610
 2.6280	 7.2420
 2.6300	 7.2320
 2.6310	 7.3180
 2.6320	 7.1400
 2.6340	 7.1540
 2.6350	 7.2280
 2.6360	 7.1690
 2.6380	 7.1820
 2.6390	 7.2470
 2.6400	 7.1190
 2.6420	 7.0000
 2.6430	 7.0030
 2.6440	 7.0750
 2.6460	 7.0930
 2.6470	 7.0090
 2.6480	 6.9760
 2.6500	 7.1040
 2.6510	 7.1210
 2.6520	 7.0060
 2.6540	 6.9590
 2.6550	 7.0460
 2.6560	 6.8490
 2.6580	 6.7100
 2.6590	 6.6200
 2.6610	 6.7050
 2.6620	 6.6630
 2.6630	 6.4540
 2.6650	 6.4250
 2.6660	 6.5350
 2.6670	 6.5990
 2.6690	 6.6460
 2.6700	 6.5530
 2.6720	 6.5560
 2.6730	 6.6270
 2.6740	 6.6120
 2.6760	 6.5590
 2.6770	 6.4630
 2.6780	 6.4650
 2.6800	 6.4950
 2.6810	 6.3090
 2.6830	 6.2530
 2.6840	 6.1580
 2.6850	 6.0920
 2.6870	 6.0660
 2.6880	 6.0450
 2.6900	 5.9410
 2.6910	 6.1050
 2.6920	 5.9650
 2.6940	 6.0570
 2.6950	 6.1830
 2.6970	 5.9830
 2.6980	 5.9100
 2.6990	 5.8240
 2.7010	 5.8240
 2.7020	 6.0260
 2.7040	 5.8290
 2.7050	 5.7340
 2.7060	 5.6180
 2.7080	 5.7630
 2.7090	 5.8000
 2.7110	 5.7230
 2.7120	 5.7010
 2.7130	 5.7540
 2.7150	 5.6370
 2.7160	 5.5760
 2.7180	 5.4900
 2.7190	 5.4570
 2.7210	 5.4390
 2.7220	 5.5430
 2.7230	 5.4890
 2.7250	 5.4660
 2.7260	 5.1720
 2.7280	 4.9150
 2.7290	 5.3610
 2.7310	 5.3590
 2.7320	 5.1140
 2.7330	 5.3170
 2.7350	 5.2510
 2.7360	 5.1240
 2.7380	 5.2380
 2.7390	 5.3270
 2.7410	 4.8610
 2.7420	 4.6500
 2.7440	 5.2580
 2.7450	 5.6620
 2.7470	 5.3670
 2.7480	 4.8590
 2.7490	 5.0100
 2.7510	 4.8960
 2.7520	 4.8370
 2.7540	 4.8660
 2.7550	 4.7520
 2.7570	 4.8170
 2.7580	 4.7110
 2.7600	 5.1780
 2.7610	 5.0180
 2.7630	 4.6670
 2.7640	 4.6440
 2.7660	 4.9790
 2.7670	 5.1120
 2.7680	 4.9050
 2.7700	 4.5740
 2.7710	 4.6750
 2.7730	 4.6010
 2.7740	 4.6240
 2.7760	 4.5470
 2.7770	 4.5530
 2.7790	 4.2900
 2.7800	 4.4800
 2.7820	 4.6690
 2.7830	 4.8190
 2.7850	 4.6420
 2.7860	 4.4800
 2.7880	 4.4340
 2.7890	 4.6890
 2.7910	 4.6030
 2.7920	 4.4760
 2.7940	 4.5780
 2.7950	 4.7740
 2.7970	 4.4670
 2.7980	 4.2470
 2.8000	 4.1150
 2.8010	 4.3600
 2.8030	 4.5960
 2.8040	 4.7410
 2.8060	 4.6430
 2.8070	 4.5390
 2.8090	 4.3750
 2.8110	 4.3740
 2.8120	 4.2880
 2.8140	 4.1350
 2.8150	 4.3200
 2.8170	 4.7330
 2.8180	 4.8950
 2.8200	 4.5950
 2.8210	 4.3320
 2.8230	 4.1980
 2.8240	 4.2680
 2.8260	 4.3970
 2.8270	 4.4490
 2.8290	 4.6820
 2.8300	 4.5670
 2.8320	 4.3240
 2.8340	 4.4430
 2.8350	 4.7240
 2.8370	 4.7000
 2.8380	 4.3860
 2.8400	 4.1140
 2.8410	 4.3140
 2.8430	 4.4210
 2.8440	 4.2980
 2.8460	 3.9980
 2.8480	 4.3900
 2.8490	 4.6880
 2.8510	 4.5100
 2.8520	 4.2930
 2.8540	 4.3120
 2.8550	 4.3220
 2.8570	 4.3980
 2.8590	 4.4170
 2.8600	 4.4450
 2.8620	 4.3210
 2.8630	 4.2180
 2.8650	 4.1560
 2.8660	 4.2790
 2.8680	 4.2700
 2.8700	 4.4360
 2.8710	 4.6490
 2.8730	 4.6920
 2.8740	 4.6270
 2.8760	 4.3240
 2.8780	 4.0740
 2.8790	 3.9900
 2.8810	 3.6580
 2.8820	 3.9890
 2.8840	 3.9390
 2.8860	 4.3120
 2.8870	 4.5660
 2.8890	 4.4540
 2.8900	 4.4450
 2.8920	 4.3160
 2.8940	 4.4540
 2.8950	 4.3130
 2.8970	 4.0700
 2.8980	 4.4420
 2.9000	 4.6810
 2.9020	 4.5350
 2.9030	 4.2080
 2.9050	 3.9630
 2.9070	 3.7430
 2.9080	 3.8640
 2.9100	 4.4190
 2.9120	 4.5980
 2.9130	 4.4870
 2.9150	 4.4540
 2.9160	 4.3220
 2.9180	 4.3840
 2.9200	 4.3450
 2.9210	 4.3170
 2.9230	 4.2250
 2.9250	 4.2970
 2.9260	 4.4770
 2.9280	 4.5280
 2.9300	 4.3380
 2.9310	 4.4460
 2.9330	 4.4250
 2.9350	 4.1090
 2.9360	 3.8640
 2.9380	 4.1750
 2.9400	 4.3810
 2.9410	 4.2100
 2.9430	 4.1540
 2.9450	 4.2090
 2.9460	 4.4240
 2.9480	 4.3560
 2.9500	 4.3500
 2.9510	 4.3240
 2.9530	 4.2240
 2.9550	 3.4620
 2.9560	 2.8760
 2.9580	 3.1710
 2.9600	 4.8580
 2.9610	 5.7500
 2.9630	 4.2140
 2.9650	 3.7810
 2.9660	 3.6290
 2.9680	 3.5870
 2.9700	 4.8420
 2.9720	 4.9650
 2.9730	 2.1240
 2.9750	 1.1700
 2.9770	 2.6070
 2.9780	 4.1100
 2.9800	 5.1810
 2.9820	 4.0390
 2.9840	 4.4730
 2.9850	 5.1910
 2.9870	 5.2310
 2.9890	 4.7330
 2.9900	 4.9410
 2.9920	 4.6610
 2.9940	 5.5330
 2.9960	 5.2010
 2.9970	 6.8890
 2.9990	 7.1330
 3.0010	 5.3000
 3.0030	 4.0530
 3.0040	 2.3040
 3.0060	 3.1710
 3.0080	 4.5600
 3.0100	 4.4780
 3.0110	 4.3130
 3.0130	 4.9330
 3.0150	 3.8220
 3.0170	 3.3410
 3.0180	 2.6380
 3.0200	 2.6650
 3.0220	 3.3770
 3.0240	 4.0310
 3.0250	 4.2910
 3.0270	 4.9270
 3.0290	 4.0510
 3.0310	 3.0820
 3.0320	 3.7140
 3.0340	 3.6020
 3.0360	 4.8240
 3.0380	 5.3330
 3.0400	 4.4340
 3.0410	 5.5780
 3.0430	 6.1960
 3.0450	 5.3280
 3.0470	 4.0920
 3.0480	 5.5250
 3.0500	 6.3410
 3.0520	 4.8110
 3.0540	 7.0070
 3.0560	 9.0600
 3.0570	 7.5000
 3.0590	 5.0960
 3.0610	 4.4430
 3.0630	 4.5970
 3.0650	 5.1110
 3.0660	 4.5510
 3.0680	 3.9120
 3.0700	 4.3250
 3.0720	 4.8310
 3.0740	 4.8570
 3.0760	 4.3990
 3.0770	 4.1800
 3.0790	 3.9320
 3.0810	 4.3130
 3.0830	 4.6990
 3.0850	 4.5760
 3.0870	 4.5230
 3.0880	 4.8040
 3.0900	 4.3500
 3.0920	 4.0090
 3.0940	 4.2160
 3.0960	 4.7040
 3.0980	 4.6920
 3.0990	 4.2650
 3.1010	 4.1550
 3.1030	 4.1330
 3.1050	 4.0040
 3.1070	 4.4300
 3.1090	 4.7900
 3.1110	 4.7380
 3.1120	 4.4950
 3.1140	 4.4890
 3.1160	 4.4620
 3.1180	 4.7370
 3.1200	 5.0870
 3.1220	 4.5980
 3.1240	 4.0690
 3.1260	 4.5650
 3.1270	 4.6600
 3.1290	 4.7870
 3.1310	 4.5250
 3.1330	 4.6990
 3.1350	 5.0590
 3.1370	 4.6980
 3.1390	 4.2540
 3.1410	 5.2430
 3.1430	 5.9150
 3.1450	 4.3680
 3.1460	 3.3510
 3.1480	 2.9280
 3.1500	 2.5040
 3.1520	 4.4010
 3.1540	 5.4570
 3.1560	 4.9930
 3.1580	 5.5860
 3.1600	 6.0530
 3.1620	 4.7700
 3.1640	 4.2450
 3.1660	 5.2470
 3.1680	 5.7590
 3.1700	 6.5200
 3.1710	 6.0260
 3.1730	 6.0960
 3.1750	 4.9870
 3.1770	 5.4140
 3.1790	 6.9420
 3.1810	 6.5470
 3.1830	 4.7110
 3.1850	 4.0980
 3.1870	 4.4080
 3.1890	 4.7760
 3.1910	 4.7580
 3.1930	 4.2050
 3.1950	 4.0630
 3.1970	 4.4930
 3.1990	 4.6370
 3.2010	 4.2340
 3.2030	 3.9390
 3.2050	 4.0330
 3.2070	 4.0610
 3.2090	 4.4120
 3.2110	 4.6210
 3.2130	 4.4390
 3.2150	 4.5390
 3.2170	 4.3870
 3.2190	 4.4610
 3.2210	 4.3930
 3.2230	 4.4910
 3.2250	 4.5900
 3.2270	 4.4160
 3.2290	 4.4260
 3.2310	 4.5510
 3.2330	 4.5030
 3.2350	 4.5870
 3.2370	 4.5700
 3.2390	 4.6000
 3.2410	 4.5120
 3.2430	 4.5330
 3.2450	 4.3050
 3.2470	 4.1160
 3.2490	 4.0240
 3.2510	 4.2620
 3.2530	 4.2820
 3.2550	 4.1890
 3.2570	 4.3280
 3.2590	 4.3350
 3.2610	 4.5790
 3.2630	 4.5050
 3.2650	 4.2930
 3.2670	 4.4580
 3.2690	 4.4710
 3.2720	 4.6110
 3.2740	 4.3990
 3.2760	 4.3740
 3.2780	 4.3170
 3.2800	 4.1260
 3.2820	 4.3750
 3.2840	 4.5940
 3.2860	 4.7230
 3.2880	 4.8040
 3.2900	 4.8970
 3.2920	 5.2830
 3.2940	 5.3090
 3.2960	 4.8190
 3.2990	 4.6750
 3.3010	 4.6210
 3.3030	 4.4830
 3.3050	 4.7440
 3.3070	 4.6920
 3.3090	 4.5650
 3.3110	 4.4170
 3.3130	 4.3280
 3.3150	 4.2650
 3.3180	 4.3090
 3.3200	 4.5870
 3.3220	 4.6980
 3.3240	 4.5250
 3.3260	 4.4450
 3.3280	 4.4570
 3.3300	 4.3010
 3.3330	 4.2840
 3.3350	 4.4740
 3.3370	 4.4270
 3.3390	 4.4710
 3.3410	 4.4790
 3.3430	 4.3630
 3.3450	 4.1790
 3.3480	 4.4150
 3.3500	 4.5150
 3.3520	 4.3420
 3.3540	 4.1080
 3.3560	 4.1200
 3.3580	 4.2030
 3.3610	 4.3610
 3.3630	 4.2230
 3.3650	 4.2210
 3.3670	 4.2110
 3.3690	 4.1270
 3.3720	 4.0490
 3.3740	 4.0720
 3.3760	 3.9940
 3.3780	 4.1040
 3.3800	 4.1070
 3.3830	 4.1710
 3.3850	 4.1620
 3.3870	 4.1500
 3.3890	 4.1960
 3.3910	 4.0510
 3.3940	 4.0290
 3.3960	 4.2860
 3.3980	 4.2540
 3.4000	 4.2130
 3.4020	 4.1310
 3.4050	 4.1400
 3.4070	 4.1910
 3.4090	 4.2110
 3.4110	 4.3130
 3.4140	 4.3700
 3.4160	 4.2830
 3.4180	 4.3440
 3.4200	 4.3980
 3.4230	 4.5320
 3.4250	 4.8060
 3.4270	 5.1580
 3.4290	 5.0730
 3.4320	 4.8260
 3.4340	 4.6960
 3.4360	 4.9090
 3.4390	 4.8800
 3.4410	 4.8410
 3.4430	 5.0370
 3.4450	 5.0490
 3.4480	 4.8750
 3.4500	 4.8710
 3.4520	 4.4730
 3.4550	 4.4220
 3.4570	 4.5430
 3.4590	 4.4860
 3.4620	 4.4650
 3.4640	 4.5700
 3.4660	 4.6780
 3.4680	 4.7940
 3.4710	 4.8350
 3.4730	 4.7660
 3.4750	 4.6310
 3.4780	 4.5630
 3.4800	 4.5370
 3.4820	 4.5330
 3.4850	 4.5430
 3.4870	 4.6150
 3.4890	 4.5940
 3.4920	 4.5950
 3.4940	 4.6180
 3.4970	 4.6450
 3.4990	 4.7780
 3.5010	 4.9410
 3.5040	 4.8700
 3.5060	 4.9010
 3.5080	 4.9890
 3.5110	 5.0800
 3.5130	 5.2030
 3.5160	 5.1510
 3.5180	 4.9590
 3.5200	 5.0240
 3.5230	 5.0450
 3.5250	 5.1160
 3.5270	 5.1320
 3.5300	 5.0330
 3.5320	 4.8890
 3.5350	 4.8770
 3.5370	 4.8500
 3.5400	 4.9580
 3.5420	 5.0900
 3.5440	 5.0580
 3.5470	 5.1960
 3.5490	 5.3330
 3.5520	 5.1540
 3.5540	 5.0710
 3.5570	 5.0310
 3.5590	 5.0210
 3.5610	 4.9830
 3.5640	 5.0110
 3.5660	 5.1300
 3.5690	 5.1680
 3.5710	 5.2080
 3.5740	 5.2450
 3.5760	 5.2140
 3.5790	 5.2300
 3.5810	 5.2900
 3.5840	 5.3990
 3.5860	 5.1690
 3.5890	 4.6990
 3.5910	 4.7800
 3.5930	 5.6670
 3.5960	 5.6310
 3.5980	 5.1980
 3.6010	 5.2480
 3.6030	 5.4730
 3.6060	 5.2920
 3.6080	 4.7830
 3.6110	 4.7100
 3.6140	 4.7760
 3.6160	 4.8100
 3.6190	 5.0030
 3.6210	 5.0750
 3.6240	 5.1130
 3.6260	 5.1620
 3.6290	 5.3150
 3.6310	 5.3120
 3.6340	 5.2750
 3.6360	 5.1070
 3.6390	 5.0590
 3.6410	 5.0860
 3.6440	 5.0530
 3.6470	 5.0710
 3.6490	 5.1670
 3.6520	 5.2290
 3.6540	 5.1590
 3.6570	 5.1210
 3.6590	 5.1110
 3.6620	 5.0690
 3.6650	 5.0940
 3.6670	 5.0910
 3.6700	 5.2560
 3.6720	 5.3110
 3.6750	 5.1610
 3.6780	 5.0480
 3.6800	 5.1450
 3.6830	 5.1630
 3.6850	 5.2080
 3.6880	 5.3020
 3.6910	 5.3230
 3.6930	 5.1470
 3.6960	 5.1230
 3.6990	 5.1860
 3.7010	 5.1850
 3.7040	 5.1590
 3.7060	 5.1510
 3.7090	 5.2510
 3.7120	 5.2230
 3.7140	 5.1720
 3.7170	 5.2870
 3.7200	 5.3410
 3.7220	 5.4020
 3.7250	 5.1740
 3.7280	 5.0010
 3.7300	 5.1430
 3.7330	 5.1730
 3.7360	 5.1150
 3.7390	 5.1480
 3.7410	 5.0860
 3.7440	 5.1030
 3.7470	 5.2330
 3.7490	 5.3020
 3.7520	 5.3830
 3.7550	 5.3770
 3.7580	 5.4220
 3.7600	 5.3650
 3.7630	 5.2680
 3.7660	 5.2770
 3.7680	 5.3380
 3.7710	 5.3750
 3.7740	 5.2180
 3.7770	 5.2650
 3.7790	 5.2690
 3.7820	 5.2810
 3.7850	 5.3550
 3.7880	 5.4140
 3.7900	 5.4030
 3.7930	 5.3640
 3.7960	 5.3540
 3.7990	 5.2570
 3.8020	 5.1340
 3.8040	 5.1080
 3.8070	 5.1390
 3.8100	 5.2340
 3.8130	 5.3360
 3.8160	 5.2960
 3.8180	 5.2710
 3.8210	 5.3610
 3.8240	 5.5240
 3.8270	 5.5700
 3.8300	 5.4740
 3.8330	 5.3690
 3.8350	 5.3840
 3.8380	 5.5470
 3.8410	 5.5160
 3.8440	 5.5640
 3.8470	 5.4750
 3.8500	 5.3430
 3.8520	 5.2970
 3.8550	 5.3380
 3.8580	 5.4540
 3.8610	 5.4560
 3.8640	 5.3590
 3.8670	 5.4020
 3.8700	 5.4410
 3.8730	 5.4160
 3.8750	 5.4520
 3.8780	 5.4490
 3.8810	 5.3650
 3.8840	 5.3460
 3.8870	 5.3660
 3.8900	 5.4960
 3.8930	 5.5250
 3.8960	 5.5380
 3.8990	 5.4790
 3.9020	 5.4260
 3.9050	 5.4290
 3.9080	 5.4800
 3.9110	 5.6320
 3.9140	 5.6100
 3.9160	 5.4130
 3.9190	 5.3220
 3.9220	 5.3240
 3.9250	 5.4390
 3.9280	 5.4650
 3.9310	 5.4040
 3.9340	 5.4550
 3.9370	 5.4850
 3.9400	 5.4380
 3.9430	 5.4260
 3.9460	 5.4360
 3.9490	 5.4970
 3.9520	 5.5250
 3.9550	 5.4730
 3.9580	 5.4040
 3.9610	 5.3930
 3.9640	 5.3860
 3.9670	 5.4130
 3.9700	 5.4830
 3.9730	 5.5400
 3.9770	 5.5370
 3.9800	 5.5920
 3.9830	 5.5310
 3.9860	 5.4360
 3.9890	 5.4840
 3.9920	 5.5620
 3.9950	 5.4940
 3.9980	 5.4940
 4.0010	 5.4820
 4.0040	 5.4500
 4.0070	 5.4920
 4.0100	 5.4760
 4.0130	 5.3940
 4.0170	 5.4020
 4.0200	 5.4610
 4.0230	 5.4440
 4.0260	 5.4590
 4.0290	 5.4890
 4.0320	 5.5030
 4.0350	 5.4590
 4.0380	 5.4190
 4.0420	 5.5430
 4.0450	 5.6530
 4.0480	 5.5740
 4.0510	 5.5080
 4.0540	 5.3860
 4.0570	 5.2610
 4.0610	 5.3120
 4.0640	 5.3800
 4.0670	 5.4690
 4.0700	 5.4620
 4.0730	 5.5040
 4.0770	 5.6010
 4.0800	 5.6260
 4.0830	 5.5270
 4.0860	 5.4820
 4.0890	 5.5350
 4.0930	 5.4790
 4.0960	 5.4820
 4.0990	 5.4580
 4.1020	 5.4670
 4.1060	 5.3990
 4.1090	 5.3390
 4.1120	 5.4550
 4.1150	 5.4780
 4.1190	 5.4550
 4.1220	 5.4100
 4.1250	 5.5140
 4.1280	 5.5160
 4.1320	 5.4990
 4.1350	 5.4300
 4.1380	 5.3750
 4.1420	 5.3470
 4.1450	 5.4270
 4.1480	 5.4970
 4.1520	 5.5200
 4.1550	 5.4950
 4.1580	 5.5060
 4.1620	 5.5250
 4.1650	 5.5210
 4.1680	 5.5320
 4.1720	 5.5620
 4.1750	 5.4400
 4.1780	 5.3370
 4.1820	 5.3390
 4.1850	 5.4570
 4.1890	 5.4990
 4.1920	 5.5130
 4.1950	 5.5560
 4.1990	 5.5010
 4.2020	 5.5000
 4.2060	 5.5570
 4.2090	 5.4820
 4.2120	 5.5590
 4.2160	 5.7740
 4.2190	 5.7920
 4.2230	 5.4310
 4.2260	 5.3930
 4.2300	 5.5350
 4.2330	 5.8230
 4.2360	 5.8090
 4.2400	 5.6690
 4.2430	 5.6840
 4.2470	 5.4970
 4.2500	 5.2710
 4.2540	 5.1720
 4.2570	 5.2860
 4.2610	 5.2770
 4.2640	 5.2280
 4.2680	 5.3620
 4.2710	 5.2000
 4.2750	 5.4010
 4.2780	 5.5260
 4.2820	 5.2600
 4.2850	 5.1800
 4.2890	 5.1770
 4.2930	 5.2010
 4.2960	 5.4370
 4.3000	 5.3300
 4.3030	 5.1260
 4.3070	 5.2090
 4.3100	 5.3490
 4.3140	 5.3920
 4.3180	 5.3430
 4.3210	 5.2120
 4.3250	 5.0730
 4.3280	 5.0920
 4.3320	 5.1000
 4.3360	 5.1730
 4.3390	 5.3000
 4.3430	 5.3320
 4.3470	 5.3050
 4.3500	 5.2150
 4.3540	 5.1900
 4.3570	 5.3110
 4.3610	 5.3760
 4.3650	 5.2370
 4.3680	 5.1980
 4.3720	 5.1730
 4.3760	 5.0450
 4.3800	 5.0640
 4.3830	 5.2710
 4.3870	 5.2990
 4.3910	 5.1870
 4.3940	 5.2140
 4.3980	 5.1960
 4.4020	 5.1650
 4.4060	 5.1810
 4.4090	 5.0950
 4.4130	 5.1120
 4.4170	 5.2500
 4.4210	 5.2240
 4.4240	 5.1400
 4.4280	 5.1210
 4.4320	 5.1080
 4.4360	 5.2070
 4.4400	 5.1500
 4.4430	 5.0110
 4.4470	 5.0520
 4.4510	 5.0310
 4.4550	 5.0080
 4.4590	 5.0980
 4.4620	 5.0730
 4.4660	 5.0130
 4.4700	 5.1480
 4.4740	 5.2420
 4.4780	 5.1290
 4.4820	 5.0550
 4.4860	 5.0730
 4.4900	 5.1390
 4.4930	 5.1300
 4.4970	 5.0730
 4.5010	 5.0290
 4.5050	 5.0780
 4.5090	 5.1980
 4.5130	 5.1850
 4.5170	 5.1040
 4.5210	 5.0420
 4.5250	 4.9860
 4.5290	 4.9660
 4.5330	 5.0390
 4.5370	 5.0700
 4.5410	 5.0560
 4.5450	 5.1000
 4.5490	 5.1640
 4.5530	 5.1570
 4.5570	 5.0140
 4.5610	 4.9650
 4.5650	 4.9660
 4.5690	 4.9460
 4.5730	 5.0180
 4.5770	 5.0100
 4.5810	 5.0160
 4.5850	 4.9770
 4.5890	 4.9340
 4.5930	 5.0490
 4.5970	 5.0800
 4.6010	 5.0190
 4.6050	 4.9470
 4.6090	 4.8250
 4.6130	 4.7720
 4.6170	 4.7800
 4.6220	 4.9150
 4.6260	 4.9220
 4.6300	 5.0020
 4.6340	 5.0820
 4.6380	 5.0140
 4.6420	 4.9120
 4.6460	 4.9370
 4.6510	 4.9800
 4.6550	 4.9520
 4.6590	 4.8880
 4.6630	 4.9200
 4.6670	 4.8860
 4.6720	 4.9580
 4.6760	 4.9260
 4.6800	 4.8630
 4.6840	 4.8860
 4.6880	 5.0020
 4.6930	 4.9920
 4.6970	 4.8400
 4.7010	 4.8220
 4.7050	 4.9380
 4.7100	 5.0010
 4.7140	 5.0020
 4.7180	 4.9290
 4.7230	 4.9590
 4.7270	 4.9220
 4.7310	 4.8630
 4.7360	 4.9500
 4.7400	 5.0060
 4.7440	 4.9050
 4.7490	 4.8610
 4.7530	 4.8820
 4.7570	 4.9000
 4.7620	 4.8280
 4.7660	 4.8400
 4.7700	 4.9000
 4.7750	 4.9770
 4.7790	 5.0340
 4.7840	 5.0920
 4.7880	 5.0880
 4.7920	 5.0970
 4.7970	 5.0560
 4.8010	 4.9470
 4.8060	 4.8920
 4.8100	 4.9350
 4.8150	 4.9920
 4.8190	 4.9340
 4.8240	 4.8050
 4.8280	 4.8050
 4.8330	 4.9420
 4.8370	 4.9390
 4.8420	 4.7940
 4.8460	 4.8090
 4.8510	 4.8740
 4.8550	 4.9600
 4.8600	 4.9060
 4.8640	 4.8480
 4.8690	 4.8250
 4.8730	 4.8250
 4.8780	 4.8280
 4.8830	 4.9200
 4.8870	 4.9170
 4.8920	 4.8840
 4.8960	 4.8770
 4.9010	 4.8810
 4.9060	 4.8630
 4.9100	 4.8600
 4.9150	 4.8210
 4.9200	 4.8810
 4.9240	 4.8170
 4.9290	 4.7690
 4.9340	 4.7690
 4.9380	 4.7720
 4.9430	 4.8530
 4.9480	 4.9190
 4.9530	 4.9420
 4.9570	 4.9130
 4.9620	 4.8670
 4.9670	 4.8620
 4.9720	 4.8570
 4.9760	 4.9490
 4.9810	 4.9330
 4.9860	 4.7760
 4.9910	 4.6670
 4.9960	 4.7350
 5.0000	 4.7220
 5.0050	 4.7610
 5.0100	 4.8320
 5.0150	 4.8920
 5.0200	 4.8760
 5.0250	 4.8530
 5.0290	 4.8450
 5.0340	 4.8660
 5.0390	 4.8650
 5.0440	 4.8800
 5.0490	 4.8150
 5.0540	 4.8800
 5.0590	 4.9170
 5.0640	 4.8880
 5.0690	 4.8710
 5.0740	 4.9000
 5.0790	 4.8810
 5.0840	 4.8910
 5.0890	 4.9030
 5.0940	 4.8800
 5.0990	 4.9230
 5.1040	 4.9840
 5.1090	 4.8630
 5.1140	 4.7850
 5.1190	 4.7770
 5.1240	 4.8410
 5.1290	 4.8600
 5.1340	 4.8750
 5.1390	 4.8690
 5.1440	 4.8170
 5.1490	 4.7330
 5.1540	 4.7830
 5.1600	 4.7910
 5.1650	 4.8410
 5.1700	 4.7650
 5.1750	 4.7830
 5.1800	 4.8350
 5.1850	 4.8270
 5.1910	 4.8340
 5.1960	 4.8650
 5.2010	 4.8160
 5.2060	 4.8310
 5.2110	 4.8580
 5.2170	 4.8860
 5.2220	 4.8500
 5.2270	 4.9370
 5.2320	 4.8890
 5.2380	 4.8210
 5.2430	 4.7750
 5.2480	 4.7360
 5.2540	 4.7420
 5.2590	 4.8590
 5.2640	 4.8670
 5.2700	 4.8640
 5.2750	 4.7930
 5.2800	 4.8820
 5.2860	 4.7790
 5.2910	 4.6250
 5.2970	 4.5930
 5.3020	 4.6250
 5.3070	 4.6650
 5.3130	 4.7580
 5.3180	 4.7360
 5.3240	 4.7320
 5.3290	 4.7290
 5.3350	 4.7450
 5.3400	 4.6940
 5.3460	 4.6490
 5.3510	 4.6500
 5.3570	 4.6910
 5.3620	 4.6620
 5.3680	 4.6280
 5.3730	 4.6240
 5.3790	 4.6900
 5.3850	 4.6340
 5.3900	 4.6020
 5.3960	 4.6060
 5.4010	 4.6430
 5.4070	 4.6740
 5.4130	 4.6600
 5.4180	 4.5470
 5.4240	 4.5430
 5.4300	 4.5300
 5.4350	 4.4590
