Name: Cassia leptophylla
Type: vegetation
Class: Tree
Genus: Cassia
Species: leptophylla
Sample No.: JPL254
Owner: JPL
Wavelength Range: VSWIR
Origin: 34.13105; -118.11109; WGS84
Collection Date: 10/6/2016
Description: Samples were collected at the Huntington Garden in San Marino California as part of a JPL Subcontract studying HyTES imagery. Samples were taken to JPL and processed within 48 hours of collection. The same leaves were processed in the Nicolet and then measured using the ASD.
Measurement: Bidirectional reflectance
First Column: X
Second Column: Y
X Units: Wavelength (micrometer)
Y Units: Reflectance (percentage)
First X Value: 0.35
Last X Value: 2.5
Number of X Values: 2151
Additional Information: vegetation.tree.cassia.leptophylla.vswir.jpl254.jpl.asd.ancillary.txt

 0.3500	 6.3630
 0.3510	 6.2070
 0.3520	 6.0030
 0.3530	 5.9730
 0.3540	 6.1710
 0.3550	 6.1270
 0.3560	 6.0690
 0.3570	 6.0570
 0.3580	 6.0500
 0.3590	 6.0520
 0.3600	 6.0150
 0.3610	 5.9560
 0.3620	 5.9900
 0.3630	 5.9620
 0.3640	 5.9330
 0.3650	 5.9670
 0.3660	 5.9390
 0.3670	 5.8960
 0.3680	 5.8850
 0.3690	 5.9320
 0.3700	 5.9100
 0.3710	 5.8940
 0.3720	 5.9230
 0.3730	 5.9220
 0.3740	 5.8620
 0.3750	 5.8030
 0.3760	 5.8180
 0.3770	 5.8690
 0.3780	 5.8900
 0.3790	 5.8850
 0.3800	 5.9130
 0.3810	 5.8810
 0.3820	 5.8510
 0.3830	 5.8610
 0.3840	 5.8430
 0.3850	 5.7940
 0.3860	 5.7820
 0.3870	 5.8630
 0.3880	 5.8580
 0.3890	 5.8220
 0.3900	 5.7950
 0.3910	 5.7850
 0.3920	 5.7750
 0.3930	 5.7670
 0.3940	 5.7680
 0.3950	 5.7920
 0.3960	 5.8110
 0.3970	 5.8100
 0.3980	 5.7890
 0.3990	 5.7960
 0.4000	 5.7980
 0.4010	 5.7890
 0.4020	 5.8030
 0.4030	 5.8100
 0.4040	 5.8080
 0.4050	 5.8020
 0.4060	 5.8020
 0.4070	 5.8170
 0.4080	 5.8350
 0.4090	 5.8320
 0.4100	 5.8270
 0.4110	 5.8320
 0.4120	 5.8480
 0.4130	 5.8520
 0.4140	 5.8780
 0.4150	 5.9040
 0.4160	 5.9060
 0.4170	 5.9310
 0.4180	 5.9620
 0.4190	 5.9880
 0.4200	 6.0020
 0.4210	 6.0180
 0.4220	 6.0380
 0.4230	 6.0600
 0.4240	 6.0710
 0.4250	 6.0960
 0.4260	 6.1290
 0.4270	 6.1470
 0.4280	 6.1700
 0.4290	 6.1920
 0.4300	 6.2110
 0.4310	 6.2300
 0.4320	 6.2390
 0.4330	 6.2510
 0.4340	 6.2760
 0.4350	 6.2920
 0.4360	 6.3080
 0.4370	 6.3250
 0.4380	 6.3400
 0.4390	 6.3640
 0.4400	 6.3860
 0.4410	 6.4030
 0.4420	 6.4200
 0.4430	 6.4340
 0.4440	 6.4470
 0.4450	 6.4620
 0.4460	 6.4830
 0.4470	 6.5040
 0.4480	 6.5200
 0.4490	 6.5280
 0.4500	 6.5460
 0.4510	 6.5680
 0.4520	 6.5840
 0.4530	 6.5920
 0.4540	 6.6010
 0.4550	 6.6160
 0.4560	 6.6390
 0.4570	 6.6510
 0.4580	 6.6560
 0.4590	 6.6620
 0.4600	 6.6710
 0.4610	 6.6800
 0.4620	 6.6860
 0.4630	 6.6920
 0.4640	 6.7010
 0.4650	 6.7050
 0.4660	 6.7060
 0.4670	 6.7080
 0.4680	 6.7120
 0.4690	 6.7180
 0.4700	 6.7240
 0.4710	 6.7240
 0.4720	 6.7280
 0.4730	 6.7340
 0.4740	 6.7350
 0.4750	 6.7390
 0.4760	 6.7440
 0.4770	 6.7470
 0.4780	 6.7470
 0.4790	 6.7510
 0.4800	 6.7530
 0.4810	 6.7500
 0.4820	 6.7580
 0.4830	 6.7690
 0.4840	 6.7780
 0.4850	 6.7840
 0.4860	 6.7890
 0.4870	 6.7950
 0.4880	 6.8040
 0.4890	 6.8230
 0.4900	 6.8410
 0.4910	 6.8580
 0.4920	 6.8800
 0.4930	 6.8970
 0.4940	 6.9190
 0.4950	 6.9500
 0.4960	 6.9830
 0.4970	 7.0130
 0.4980	 7.0450
 0.4990	 7.0820
 0.5000	 7.1270
 0.5010	 7.1750
 0.5020	 7.2260
 0.5030	 7.2840
 0.5040	 7.3450
 0.5050	 7.4110
 0.5060	 7.4840
 0.5070	 7.5690
 0.5080	 7.6610
 0.5090	 7.7590
 0.5100	 7.8640
 0.5110	 7.9800
 0.5120	 8.1080
 0.5130	 8.2440
 0.5140	 8.3900
 0.5150	 8.5480
 0.5160	 8.7180
 0.5170	 8.8970
 0.5180	 9.0800
 0.5190	 9.2740
 0.5200	 9.4770
 0.5210	 9.6890
 0.5220	 9.8950
 0.5230	10.1020
 0.5240	10.3100
 0.5250	10.5160
 0.5260	10.7180
 0.5270	10.9120
 0.5280	11.0960
 0.5290	11.2700
 0.5300	11.4340
 0.5310	11.5880
 0.5320	11.7350
 0.5330	11.8720
 0.5340	11.9980
 0.5350	12.1110
 0.5360	12.2150
 0.5370	12.3100
 0.5380	12.3960
 0.5390	12.4760
 0.5400	12.5530
 0.5410	12.6290
 0.5420	12.7030
 0.5430	12.7670
 0.5440	12.8210
 0.5450	12.8670
 0.5460	12.9070
 0.5470	12.9390
 0.5480	12.9680
 0.5490	12.9990
 0.5500	13.0270
 0.5510	13.0460
 0.5520	13.0540
 0.5530	13.0490
 0.5540	13.0320
 0.5550	12.9970
 0.5560	12.9470
 0.5570	12.8880
 0.5580	12.8160
 0.5590	12.7380
 0.5600	12.6550
 0.5610	12.5610
 0.5620	12.4620
 0.5630	12.3590
 0.5640	12.2520
 0.5650	12.1460
 0.5660	12.0410
 0.5670	11.9350
 0.5680	11.8210
 0.5690	11.6960
 0.5700	11.5650
 0.5710	11.4350
 0.5720	11.3070
 0.5730	11.1840
 0.5740	11.0650
 0.5750	10.9520
 0.5760	10.8480
 0.5770	10.7510
 0.5780	10.6610
 0.5790	10.5810
 0.5800	10.5060
 0.5810	10.4330
 0.5820	10.3580
 0.5830	10.2890
 0.5840	10.2240
 0.5850	10.1610
 0.5860	10.1000
 0.5870	10.0470
 0.5880	10.0030
 0.5890	 9.9640
 0.5900	 9.9270
 0.5910	 9.8890
 0.5920	 9.8530
 0.5930	 9.8200
 0.5940	 9.7910
 0.5950	 9.7700
 0.5960	 9.7540
 0.5970	 9.7410
 0.5980	 9.7250
 0.5990	 9.7050
 0.6000	 9.6820
 0.6010	 9.6530
 0.6020	 9.6180
 0.6030	 9.5760
 0.6040	 9.5290
 0.6050	 9.4770
 0.6060	 9.4210
 0.6070	 9.3590
 0.6080	 9.2940
 0.6090	 9.2290
 0.6100	 9.1660
 0.6110	 9.1010
 0.6120	 9.0360
 0.6130	 8.9680
 0.6140	 8.8990
 0.6150	 8.8380
 0.6160	 8.7790
 0.6170	 8.7230
 0.6180	 8.6710
 0.6190	 8.6280
 0.6200	 8.5880
 0.6210	 8.5520
 0.6220	 8.5190
 0.6230	 8.4930
 0.6240	 8.4700
 0.6250	 8.4480
 0.6260	 8.4350
 0.6270	 8.4240
 0.6280	 8.4150
 0.6290	 8.4070
 0.6300	 8.4000
 0.6310	 8.3920
 0.6320	 8.3840
 0.6330	 8.3750
 0.6340	 8.3580
 0.6350	 8.3340
 0.6360	 8.3040
 0.6370	 8.2640
 0.6380	 8.2180
 0.6390	 8.1670
 0.6400	 8.1120
 0.6410	 8.0560
 0.6420	 7.9970
 0.6430	 7.9350
 0.6440	 7.8740
 0.6450	 7.8160
 0.6460	 7.7620
 0.6470	 7.7110
 0.6480	 7.6620
 0.6490	 7.6200
 0.6500	 7.5850
 0.6510	 7.5530
 0.6520	 7.5240
 0.6530	 7.5000
 0.6540	 7.4780
 0.6550	 7.4520
 0.6560	 7.4240
 0.6570	 7.3920
 0.6580	 7.3580
 0.6590	 7.3230
 0.6600	 7.2850
 0.6610	 7.2460
 0.6620	 7.2110
 0.6630	 7.1780
 0.6640	 7.1500
 0.6650	 7.1260
 0.6660	 7.1060
 0.6670	 7.0910
 0.6680	 7.0830
 0.6690	 7.0810
 0.6700	 7.0840
 0.6710	 7.0920
 0.6720	 7.1060
 0.6730	 7.1230
 0.6740	 7.1450
 0.6750	 7.1710
 0.6760	 7.2010
 0.6770	 7.2350
 0.6780	 7.2750
 0.6790	 7.3210
 0.6800	 7.3670
 0.6810	 7.4210
 0.6820	 7.4820
 0.6830	 7.5500
 0.6840	 7.6230
 0.6850	 7.7040
 0.6860	 7.7980
 0.6870	 7.9080
 0.6880	 8.0380
 0.6890	 8.2000
 0.6900	 8.4030
 0.6910	 8.6540
 0.6920	 8.9680
 0.6930	 9.3500
 0.6940	 9.8040
 0.6950	10.3350
 0.6960	10.9440
 0.6970	11.6280
 0.6980	12.3840
 0.6990	13.2050
 0.7000	14.0820
 0.7010	15.0050
 0.7020	15.9650
 0.7030	16.9520
 0.7040	17.9610
 0.7050	18.9820
 0.7060	20.0110
 0.7070	21.0410
 0.7080	22.0680
 0.7090	23.0920
 0.7100	24.1150
 0.7110	25.1350
 0.7120	26.1470
 0.7130	27.1510
 0.7140	28.1490
 0.7150	29.1390
 0.7160	30.1170
 0.7170	31.0860
 0.7180	32.0420
 0.7190	32.9810
 0.7200	33.9000
 0.7210	34.8040
 0.7220	35.6890
 0.7230	36.5520
 0.7240	37.3900
 0.7250	38.2010
 0.7260	38.9850
 0.7270	39.7400
 0.7280	40.4620
 0.7290	41.1570
 0.7300	41.8220
 0.7310	42.4540
 0.7320	43.0580
 0.7330	43.6330
 0.7340	44.1740
 0.7350	44.6830
 0.7360	45.1680
 0.7370	45.6280
 0.7380	46.0580
 0.7390	46.4610
 0.7400	46.8390
 0.7410	47.1940
 0.7420	47.5260
 0.7430	47.8310
 0.7440	48.1150
 0.7450	48.3790
 0.7460	48.6210
 0.7470	48.8450
 0.7480	49.0490
 0.7490	49.2330
 0.7500	49.4070
 0.7510	49.5650
 0.7520	49.7060
 0.7530	49.8350
 0.7540	49.9540
 0.7550	50.0610
 0.7560	50.1580
 0.7570	50.2480
 0.7580	50.3300
 0.7590	50.4050
 0.7600	50.4750
 0.7610	50.5370
 0.7620	50.5930
 0.7630	50.6450
 0.7640	50.6930
 0.7650	50.7350
 0.7660	50.7740
 0.7670	50.8090
 0.7680	50.8400
 0.7690	50.8670
 0.7700	50.8930
 0.7710	50.9180
 0.7720	50.9430
 0.7730	50.9640
 0.7740	50.9850
 0.7750	51.0080
 0.7760	51.0240
 0.7770	51.0390
 0.7780	51.0550
 0.7790	51.0710
 0.7800	51.0890
 0.7810	51.1060
 0.7820	51.1220
 0.7830	51.1350
 0.7840	51.1480
 0.7850	51.1610
 0.7860	51.1720
 0.7870	51.1820
 0.7880	51.1910
 0.7890	51.2000
 0.7900	51.2050
 0.7910	51.2140
 0.7920	51.2210
 0.7930	51.2270
 0.7940	51.2330
 0.7950	51.2380
 0.7960	51.2410
 0.7970	51.2420
 0.7980	51.2420
 0.7990	51.2430
 0.8000	51.2430
 0.8010	51.2410
 0.8020	51.2420
 0.8030	51.2410
 0.8040	51.2380
 0.8050	51.2350
 0.8060	51.2300
 0.8070	51.2250
 0.8080	51.2200
 0.8090	51.2150
 0.8100	51.2090
 0.8110	51.2010
 0.8120	51.1910
 0.8130	51.1820
 0.8140	51.1720
 0.8150	51.1640
 0.8160	51.1560
 0.8170	51.1460
 0.8180	51.1390
 0.8190	51.1310
 0.8200	51.1190
 0.8210	51.1090
 0.8220	51.1010
 0.8230	51.0920
 0.8240	51.0770
 0.8250	51.0650
 0.8260	51.0550
 0.8270	51.0450
 0.8280	51.0390
 0.8290	51.0280
 0.8300	51.0170
 0.8310	51.0110
 0.8320	51.0020
 0.8330	50.9970
 0.8340	50.9910
 0.8350	50.9810
 0.8360	50.9760
 0.8370	50.9720
 0.8380	50.9690
 0.8390	50.9670
 0.8400	50.9630
 0.8410	50.9610
 0.8420	50.9600
 0.8430	50.9540
 0.8440	50.9530
 0.8450	50.9540
 0.8460	50.9540
 0.8470	50.9580
 0.8480	50.9590
 0.8490	50.9580
 0.8500	50.9590
 0.8510	50.9600
 0.8520	50.9640
 0.8530	50.9680
 0.8540	50.9700
 0.8550	50.9760
 0.8560	50.9800
 0.8570	50.9820
 0.8580	50.9900
 0.8590	50.9980
 0.8600	51.0070
 0.8610	51.0160
 0.8620	51.0260
 0.8630	51.0350
 0.8640	51.0450
 0.8650	51.0560
 0.8660	51.0650
 0.8670	51.0750
 0.8680	51.0850
 0.8690	51.0960
 0.8700	51.1090
 0.8710	51.1240
 0.8720	51.1370
 0.8730	51.1450
 0.8740	51.1610
 0.8750	51.1780
 0.8760	51.1920
 0.8770	51.1990
 0.8780	51.2090
 0.8790	51.2220
 0.8800	51.2360
 0.8810	51.2520
 0.8820	51.2660
 0.8830	51.2800
 0.8840	51.2970
 0.8850	51.3040
 0.8860	51.3170
 0.8870	51.3320
 0.8880	51.3450
 0.8890	51.3570
 0.8900	51.3710
 0.8910	51.3860
 0.8920	51.3990
 0.8930	51.4110
 0.8940	51.4210
 0.8950	51.4330
 0.8960	51.4470
 0.8970	51.4630
 0.8980	51.4750
 0.8990	51.4850
 0.9000	51.5030
 0.9010	51.5150
 0.9020	51.5270
 0.9030	51.5410
 0.9040	51.5540
 0.9050	51.5630
 0.9060	51.5740
 0.9070	51.5870
 0.9080	51.5930
 0.9090	51.6010
 0.9100	51.6110
 0.9110	51.6240
 0.9120	51.6340
 0.9130	51.6440
 0.9140	51.6510
 0.9150	51.6520
 0.9160	51.6600
 0.9170	51.6660
 0.9180	51.6710
 0.9190	51.6780
 0.9200	51.6810
 0.9210	51.6790
 0.9220	51.6780
 0.9230	51.6840
 0.9240	51.6860
 0.9250	51.6830
 0.9260	51.6790
 0.9270	51.6820
 0.9280	51.6770
 0.9290	51.6660
 0.9300	51.6570
 0.9310	51.6560
 0.9320	51.6530
 0.9330	51.6440
 0.9340	51.6300
 0.9350	51.6150
 0.9360	51.6050
 0.9370	51.5940
 0.9380	51.5780
 0.9390	51.5640
 0.9400	51.5480
 0.9410	51.5350
 0.9420	51.5230
 0.9430	51.5030
 0.9440	51.4810
 0.9450	51.4590
 0.9460	51.4350
 0.9470	51.4070
 0.9480	51.3850
 0.9490	51.3600
 0.9500	51.3250
 0.9510	51.2900
 0.9520	51.2510
 0.9530	51.2110
 0.9540	51.1760
 0.9550	51.1350
 0.9560	51.0960
 0.9570	51.0590
 0.9580	51.0210
 0.9590	50.9940
 0.9600	50.9630
 0.9610	50.9310
 0.9620	50.9080
 0.9630	50.8870
 0.9640	50.8730
 0.9650	50.8580
 0.9660	50.8340
 0.9670	50.8290
 0.9680	50.8220
 0.9690	50.8130
 0.9700	50.8040
 0.9710	50.7920
 0.9720	50.7800
 0.9730	50.7740
 0.9740	50.7760
 0.9750	50.7670
 0.9760	50.7640
 0.9770	50.7670
 0.9780	50.7720
 0.9790	50.7720
 0.9800	50.7620
 0.9810	50.7520
 0.9820	50.7530
 0.9830	50.7570
 0.9840	50.7580
 0.9850	50.7600
 0.9860	50.7700
 0.9870	50.7830
 0.9880	50.7900
 0.9890	50.7990
 0.9900	50.8200
 0.9910	50.8240
 0.9920	50.8260
 0.9930	50.8400
 0.9940	50.8680
 0.9950	50.8790
 0.9960	50.8910
 0.9970	50.9010
 0.9980	50.8990
 0.9990	50.9080
 1.0000	50.9190
 1.0010	53.1280
 1.0020	53.1360
 1.0030	53.1420
 1.0040	53.1500
 1.0050	53.1580
 1.0060	53.1650
 1.0070	53.1770
 1.0080	53.1880
 1.0090	53.2020
 1.0100	53.2110
 1.0110	53.2190
 1.0120	53.2280
 1.0130	53.2360
 1.0140	53.2450
 1.0150	53.2550
 1.0160	53.2630
 1.0170	53.2720
 1.0180	53.2800
 1.0190	53.2900
 1.0200	53.2990
 1.0210	53.3050
 1.0220	53.3110
 1.0230	53.3190
 1.0240	53.3280
 1.0250	53.3370
 1.0260	53.3500
 1.0270	53.3610
 1.0280	53.3720
 1.0290	53.3820
 1.0300	53.3900
 1.0310	53.4000
 1.0320	53.4120
 1.0330	53.4240
 1.0340	53.4360
 1.0350	53.4490
 1.0360	53.4570
 1.0370	53.4620
 1.0380	53.4690
 1.0390	53.4740
 1.0400	53.4820
 1.0410	53.4930
 1.0420	53.5010
 1.0430	53.5080
 1.0440	53.5150
 1.0450	53.5210
 1.0460	53.5260
 1.0470	53.5300
 1.0480	53.5360
 1.0490	53.5410
 1.0500	53.5450
 1.0510	53.5510
 1.0520	53.5550
 1.0530	53.5590
 1.0540	53.5600
 1.0550	53.5610
 1.0560	53.5610
 1.0570	53.5630
 1.0580	53.5650
 1.0590	53.5660
 1.0600	53.5700
 1.0610	53.5710
 1.0620	53.5690
 1.0630	53.5680
 1.0640	53.5650
 1.0650	53.5620
 1.0660	53.5570
 1.0670	53.5540
 1.0680	53.5530
 1.0690	53.5530
 1.0700	53.5520
 1.0710	53.5520
 1.0720	53.5500
 1.0730	53.5500
 1.0740	53.5450
 1.0750	53.5370
 1.0760	53.5310
 1.0770	53.5210
 1.0780	53.5160
 1.0790	53.5170
 1.0800	53.5130
 1.0810	53.5100
 1.0820	53.5050
 1.0830	53.4960
 1.0840	53.4880
 1.0850	53.4790
 1.0860	53.4710
 1.0870	53.4630
 1.0880	53.4550
 1.0890	53.4480
 1.0900	53.4430
 1.0910	53.4370
 1.0920	53.4330
 1.0930	53.4260
 1.0940	53.4160
 1.0950	53.4060
 1.0960	53.3940
 1.0970	53.3860
 1.0980	53.3840
 1.0990	53.3760
 1.1000	53.3650
 1.1010	53.3560
 1.1020	53.3440
 1.1030	53.3340
 1.1040	53.3260
 1.1050	53.3190
 1.1060	53.3090
 1.1070	53.2950
 1.1080	53.2840
 1.1090	53.2740
 1.1100	53.2630
 1.1110	53.2540
 1.1120	53.2440
 1.1130	53.2320
 1.1140	53.2200
 1.1150	53.2070
 1.1160	53.1930
 1.1170	53.1760
 1.1180	53.1600
 1.1190	53.1430
 1.1200	53.1240
 1.1210	53.1030
 1.1220	53.0820
 1.1230	53.0570
 1.1240	53.0290
 1.1250	52.9980
 1.1260	52.9660
 1.1270	52.9280
 1.1280	52.8860
 1.1290	52.8410
 1.1300	52.7910
 1.1310	52.7370
 1.1320	52.6780
 1.1330	52.6150
 1.1340	52.5490
 1.1350	52.4760
 1.1360	52.3990
 1.1370	52.3170
 1.1380	52.2290
 1.1390	52.1370
 1.1400	52.0420
 1.1410	51.9460
 1.1420	51.8480
 1.1430	51.7470
 1.1440	51.6480
 1.1450	51.5480
 1.1460	51.4530
 1.1470	51.3590
 1.1480	51.2680
 1.1490	51.1780
 1.1500	51.0930
 1.1510	51.0080
 1.1520	50.9310
 1.1530	50.8580
 1.1540	50.7920
 1.1550	50.7320
 1.1560	50.6770
 1.1570	50.6260
 1.1580	50.5800
 1.1590	50.5360
 1.1600	50.4960
 1.1610	50.4620
 1.1620	50.4300
 1.1630	50.4030
 1.1640	50.3770
 1.1650	50.3530
 1.1660	50.3290
 1.1670	50.3090
 1.1680	50.2920
 1.1690	50.2750
 1.1700	50.2610
 1.1710	50.2460
 1.1720	50.2310
 1.1730	50.2150
 1.1740	50.1990
 1.1750	50.1840
 1.1760	50.1680
 1.1770	50.1510
 1.1780	50.1330
 1.1790	50.1140
 1.1800	50.0990
 1.1810	50.0820
 1.1820	50.0640
 1.1830	50.0500
 1.1840	50.0320
 1.1850	50.0120
 1.1860	49.9960
 1.1870	49.9790
 1.1880	49.9630
 1.1890	49.9500
 1.1900	49.9370
 1.1910	49.9250
 1.1920	49.9140
 1.1930	49.9020
 1.1940	49.8920
 1.1950	49.8840
 1.1960	49.8740
 1.1970	49.8660
 1.1980	49.8600
 1.1990	49.8550
 1.2000	49.8530
 1.2010	49.8520
 1.2020	49.8520
 1.2030	49.8550
 1.2040	49.8610
 1.2050	49.8670
 1.2060	49.8740
 1.2070	49.8850
 1.2080	49.8930
 1.2090	49.9040
 1.2100	49.9170
 1.2110	49.9300
 1.2120	49.9430
 1.2130	49.9590
 1.2140	49.9770
 1.2150	49.9940
 1.2160	50.0120
 1.2170	50.0290
 1.2180	50.0470
 1.2190	50.0650
 1.2200	50.0810
 1.2210	50.0990
 1.2220	50.1180
 1.2230	50.1380
 1.2240	50.1610
 1.2250	50.1820
 1.2260	50.2010
 1.2270	50.2190
 1.2280	50.2350
 1.2290	50.2500
 1.2300	50.2640
 1.2310	50.2780
 1.2320	50.2920
 1.2330	50.3070
 1.2340	50.3210
 1.2350	50.3360
 1.2360	50.3500
 1.2370	50.3630
 1.2380	50.3760
 1.2390	50.3870
 1.2400	50.3970
 1.2410	50.4080
 1.2420	50.4160
 1.2430	50.4230
 1.2440	50.4310
 1.2450	50.4380
 1.2460	50.4420
 1.2470	50.4480
 1.2480	50.4550
 1.2490	50.4620
 1.2500	50.4700
 1.2510	50.4770
 1.2520	50.4820
 1.2530	50.4830
 1.2540	50.4840
 1.2550	50.4860
 1.2560	50.4860
 1.2570	50.4890
 1.2580	50.4890
 1.2590	50.4890
 1.2600	50.4910
 1.2610	50.4890
 1.2620	50.4840
 1.2630	50.4800
 1.2640	50.4740
 1.2650	50.4670
 1.2660	50.4600
 1.2670	50.4530
 1.2680	50.4480
 1.2690	50.4430
 1.2700	50.4390
 1.2710	50.4330
 1.2720	50.4240
 1.2730	50.4130
 1.2740	50.4020
 1.2750	50.3910
 1.2760	50.3800
 1.2770	50.3670
 1.2780	50.3530
 1.2790	50.3380
 1.2800	50.3210
 1.2810	50.3030
 1.2820	50.2830
 1.2830	50.2620
 1.2840	50.2380
 1.2850	50.2140
 1.2860	50.1880
 1.2870	50.1610
 1.2880	50.1310
 1.2890	50.1020
 1.2900	50.0690
 1.2910	50.0350
 1.2920	50.0000
 1.2930	49.9610
 1.2940	49.9190
 1.2950	49.8770
 1.2960	49.8310
 1.2970	49.7850
 1.2980	49.7380
 1.2990	49.6890
 1.3000	49.6400
 1.3010	49.5860
 1.3020	49.5320
 1.3030	49.4770
 1.3040	49.4190
 1.3050	49.3590
 1.3060	49.2980
 1.3070	49.2360
 1.3080	49.1730
 1.3090	49.1100
 1.3100	49.0450
 1.3110	48.9790
 1.3120	48.9100
 1.3130	48.8410
 1.3140	48.7700
 1.3150	48.6980
 1.3160	48.6230
 1.3170	48.5470
 1.3180	48.4680
 1.3190	48.3880
 1.3200	48.3060
 1.3210	48.2220
 1.3220	48.1380
 1.3230	48.0530
 1.3240	47.9670
 1.3250	47.8790
 1.3260	47.7890
 1.3270	47.6950
 1.3280	47.6000
 1.3290	47.5030
 1.3300	47.4050
 1.3310	47.3070
 1.3320	47.2060
 1.3330	47.1030
 1.3340	47.0020
 1.3350	46.9010
 1.3360	46.7990
 1.3370	46.6970
 1.3380	46.5940
 1.3390	46.4900
 1.3400	46.3850
 1.3410	46.2810
 1.3420	46.1770
 1.3430	46.0740
 1.3440	45.9710
 1.3450	45.8710
 1.3460	45.7720
 1.3470	45.6730
 1.3480	45.5730
 1.3490	45.4740
 1.3500	45.3770
 1.3510	45.2780
 1.3520	45.1810
 1.3530	45.0860
 1.3540	44.9890
 1.3550	44.8910
 1.3560	44.7920
 1.3570	44.6920
 1.3580	44.5920
 1.3590	44.4880
 1.3600	44.3820
 1.3610	44.2730
 1.3620	44.1590
 1.3630	44.0400
 1.3640	43.9150
 1.3650	43.7810
 1.3660	43.6420
 1.3670	43.4950
 1.3680	43.3360
 1.3690	43.1700
 1.3700	42.9900
 1.3710	42.7960
 1.3720	42.5910
 1.3730	42.3680
 1.3740	42.1310
 1.3750	41.8760
 1.3760	41.6000
 1.3770	41.3050
 1.3780	40.9850
 1.3790	40.6440
 1.3800	40.2800
 1.3810	39.8900
 1.3820	39.4810
 1.3830	39.0490
 1.3840	38.5970
 1.3850	38.1230
 1.3860	37.6300
 1.3870	37.1130
 1.3880	36.5860
 1.3890	36.0410
 1.3900	35.4810
 1.3910	34.9180
 1.3920	34.3460
 1.3930	33.7660
 1.3940	33.1880
 1.3950	32.6040
 1.3960	32.0260
 1.3970	31.4570
 1.3980	30.8940
 1.3990	30.3490
 1.4000	29.8160
 1.4010	29.2940
 1.4020	28.7920
 1.4030	28.3040
 1.4040	27.8360
 1.4050	27.3900
 1.4060	26.9640
 1.4070	26.5640
 1.4080	26.1840
 1.4090	25.8240
 1.4100	25.4880
 1.4110	25.1710
 1.4120	24.8750
 1.4130	24.6020
 1.4140	24.3460
 1.4150	24.1110
 1.4160	23.8940
 1.4170	23.6930
 1.4180	23.5090
 1.4190	23.3370
 1.4200	23.1790
 1.4210	23.0360
 1.4220	22.9030
 1.4230	22.7830
 1.4240	22.6730
 1.4250	22.5730
 1.4260	22.4820
 1.4270	22.3990
 1.4280	22.3270
 1.4290	22.2610
 1.4300	22.2030
 1.4310	22.1510
 1.4320	22.1070
 1.4330	22.0670
 1.4340	22.0350
 1.4350	22.0060
 1.4360	21.9830
 1.4370	21.9640
 1.4380	21.9500
 1.4390	21.9410
 1.4400	21.9380
 1.4410	21.9380
 1.4420	21.9410
 1.4430	21.9470
 1.4440	21.9550
 1.4450	21.9630
 1.4460	21.9750
 1.4470	21.9890
 1.4480	22.0060
 1.4490	22.0250
 1.4500	22.0460
 1.4510	22.0680
 1.4520	22.0910
 1.4530	22.1170
 1.4540	22.1430
 1.4550	22.1730
 1.4560	22.2050
 1.4570	22.2410
 1.4580	22.2800
 1.4590	22.3220
 1.4600	22.3690
 1.4610	22.4220
 1.4620	22.4790
 1.4630	22.5420
 1.4640	22.6110
 1.4650	22.6830
 1.4660	22.7610
 1.4670	22.8450
 1.4680	22.9350
 1.4690	23.0300
 1.4700	23.1290
 1.4710	23.2340
 1.4720	23.3410
 1.4730	23.4530
 1.4740	23.5690
 1.4750	23.6870
 1.4760	23.8110
 1.4770	23.9360
