Name: Ceanothus spinosus 1
Type: vegetation
Class: Shrub
Genus: Ceanothus
Species: spinosus
Sample No.: VH008
Owner: UCSB
Wavelength Range: VSWIR
Origin: 34.4906; -119.7908; WGS84
Collection Date: 4/1/2013
Description: Samples were collected as part of the HyspIRI Airborne Campaign. 48 individual plants were sampled in three times in 2013 - spring  summer  and fall. The name of the sample includes a 1  2  or 3 which references a different individual of the species. Samples were taken to JPL and processed within 48 hours of collection. The same leaves were processed in the Nicolet and then measured using the ASD.
Measurement: Bidirectional reflectance
First Column: X
Second Column: Y
X Units: Wavelength (micrometers)
Y Units: Reflectance (percentage)
First X Value: 0.35
Last X Value: 2.5
Number of X Values: 2151
Additional Information: vegetation.shrub.ceanothus.spinosus.vswir.vh008.ucsb.asd.ancillary.txt

 0.3500	 5.1200
 0.3510	 5.1020
 0.3520	 4.9070
 0.3530	 4.7020
 0.3540	 4.6390
 0.3550	 4.6540
 0.3560	 4.6630
 0.3570	 4.6980
 0.3580	 4.8210
 0.3590	 4.8210
 0.3600	 4.7600
 0.3610	 4.7290
 0.3620	 4.8230
 0.3630	 4.8110
 0.3640	 4.7970
 0.3650	 4.8820
 0.3660	 4.8160
 0.3670	 4.7850
 0.3680	 4.7990
 0.3690	 4.7560
 0.3700	 4.7380
 0.3710	 4.7110
 0.3720	 4.6740
 0.3730	 4.7330
 0.3740	 4.7180
 0.3750	 4.6900
 0.3760	 4.7380
 0.3770	 4.7290
 0.3780	 4.7550
 0.3790	 4.7950
 0.3800	 4.7380
 0.3810	 4.8120
 0.3820	 4.8490
 0.3830	 4.7620
 0.3840	 4.7720
 0.3850	 4.7830
 0.3860	 4.7780
 0.3870	 4.7590
 0.3880	 4.7140
 0.3890	 4.6870
 0.3900	 4.6880
 0.3910	 4.6890
 0.3920	 4.7110
 0.3930	 4.7310
 0.3940	 4.7260
 0.3950	 4.6940
 0.3960	 4.7090
 0.3970	 4.7390
 0.3980	 4.7090
 0.3990	 4.6570
 0.4000	 4.6450
 0.4010	 4.6620
 0.4020	 4.5940
 0.4030	 4.6010
 0.4040	 4.6370
 0.4050	 4.6320
 0.4060	 4.6220
 0.4070	 4.6430
 0.4080	 4.6740
 0.4090	 4.6690
 0.4100	 4.6790
 0.4110	 4.6910
 0.4120	 4.6940
 0.4130	 4.6940
 0.4140	 4.7140
 0.4150	 4.7370
 0.4160	 4.7410
 0.4170	 4.7510
 0.4180	 4.7460
 0.4190	 4.7440
 0.4200	 4.7950
 0.4210	 4.8160
 0.4220	 4.8140
 0.4230	 4.8150
 0.4240	 4.8480
 0.4250	 4.8610
 0.4260	 4.8650
 0.4270	 4.8960
 0.4280	 4.9280
 0.4290	 4.9500
 0.4300	 4.9610
 0.4310	 4.9670
 0.4320	 4.9820
 0.4330	 5.0010
 0.4340	 5.0210
 0.4350	 5.0430
 0.4360	 5.0650
 0.4370	 5.0790
 0.4380	 5.0680
 0.4390	 5.0660
 0.4400	 5.0710
 0.4410	 5.0800
 0.4420	 5.0860
 0.4430	 5.1000
 0.4440	 5.1130
 0.4450	 5.1160
 0.4460	 5.1450
 0.4470	 5.1630
 0.4480	 5.1600
 0.4490	 5.1620
 0.4500	 5.1730
 0.4510	 5.1830
 0.4520	 5.1820
 0.4530	 5.1880
 0.4540	 5.2060
 0.4550	 5.2230
 0.4560	 5.2230
 0.4570	 5.2230
 0.4580	 5.2230
 0.4590	 5.2230
 0.4600	 5.2280
 0.4610	 5.2350
 0.4620	 5.2420
 0.4630	 5.2490
 0.4640	 5.2560
 0.4650	 5.2580
 0.4660	 5.2540
 0.4670	 5.2470
 0.4680	 5.2470
 0.4690	 5.2490
 0.4700	 5.2490
 0.4710	 5.2610
 0.4720	 5.2570
 0.4730	 5.2470
 0.4740	 5.2580
 0.4750	 5.2630
 0.4760	 5.2620
 0.4770	 5.2610
 0.4780	 5.2720
 0.4790	 5.2720
 0.4800	 5.2670
 0.4810	 5.2670
 0.4820	 5.2730
 0.4830	 5.2820
 0.4840	 5.2900
 0.4850	 5.2890
 0.4860	 5.2900
 0.4870	 5.2960
 0.4880	 5.3100
 0.4890	 5.3220
 0.4900	 5.3350
 0.4910	 5.3480
 0.4920	 5.3600
 0.4930	 5.3770
 0.4940	 5.3880
 0.4950	 5.3980
 0.4960	 5.4260
 0.4970	 5.4460
 0.4980	 5.4650
 0.4990	 5.4950
 0.5000	 5.5330
 0.5010	 5.5620
 0.5020	 5.5860
 0.5030	 5.6270
 0.5040	 5.6680
 0.5050	 5.7090
 0.5060	 5.7550
 0.5070	 5.8120
 0.5080	 5.8750
 0.5090	 5.9390
 0.5100	 6.0040
 0.5110	 6.0820
 0.5120	 6.1720
 0.5130	 6.2710
 0.5140	 6.3680
 0.5150	 6.4740
 0.5160	 6.5900
 0.5170	 6.7120
 0.5180	 6.8370
 0.5190	 6.9690
 0.5200	 7.1060
 0.5210	 7.2420
 0.5220	 7.3870
 0.5230	 7.5310
 0.5240	 7.6710
 0.5250	 7.8120
 0.5260	 7.9570
 0.5270	 8.0930
 0.5280	 8.2110
 0.5290	 8.3270
 0.5300	 8.4360
 0.5310	 8.5350
 0.5320	 8.6290
 0.5330	 8.7180
 0.5340	 8.7980
 0.5350	 8.8650
 0.5360	 8.9300
 0.5370	 8.9860
 0.5380	 9.0330
 0.5390	 9.0770
 0.5400	 9.1260
 0.5410	 9.1740
 0.5420	 9.2170
 0.5430	 9.2570
 0.5440	 9.2950
 0.5450	 9.3270
 0.5460	 9.3530
 0.5470	 9.3690
 0.5480	 9.3820
 0.5490	 9.3950
 0.5500	 9.4100
 0.5510	 9.4190
 0.5520	 9.4210
 0.5530	 9.4140
 0.5540	 9.4020
 0.5550	 9.3850
 0.5560	 9.3580
 0.5570	 9.3210
 0.5580	 9.2730
 0.5590	 9.2180
 0.5600	 9.1590
 0.5610	 9.0950
 0.5620	 9.0230
 0.5630	 8.9460
 0.5640	 8.8660
 0.5650	 8.7760
 0.5660	 8.6800
 0.5670	 8.5810
 0.5680	 8.4850
 0.5690	 8.3890
 0.5700	 8.2940
 0.5710	 8.2000
 0.5720	 8.1130
 0.5730	 8.0300
 0.5740	 7.9520
 0.5750	 7.8850
 0.5760	 7.8250
 0.5770	 7.7650
 0.5780	 7.7070
 0.5790	 7.6590
 0.5800	 7.6080
 0.5810	 7.5560
 0.5820	 7.5100
 0.5830	 7.4650
 0.5840	 7.4210
 0.5850	 7.3800
 0.5860	 7.3440
 0.5870	 7.3110
 0.5880	 7.2770
 0.5890	 7.2430
 0.5900	 7.2170
 0.5910	 7.1980
 0.5920	 7.1830
 0.5930	 7.1680
 0.5940	 7.1570
 0.5950	 7.1440
 0.5960	 7.1260
 0.5970	 7.1130
 0.5980	 7.0970
 0.5990	 7.0810
 0.6000	 7.0670
 0.6010	 7.0460
 0.6020	 7.0240
 0.6030	 6.9990
 0.6040	 6.9680
 0.6050	 6.9350
 0.6060	 6.9010
 0.6070	 6.8660
 0.6080	 6.8270
 0.6090	 6.7870
 0.6100	 6.7480
 0.6110	 6.7130
 0.6120	 6.6690
 0.6130	 6.6210
 0.6140	 6.5740
 0.6150	 6.5320
 0.6160	 6.4930
 0.6170	 6.4560
 0.6180	 6.4220
 0.6190	 6.3980
 0.6200	 6.3760
 0.6210	 6.3530
 0.6220	 6.3310
 0.6230	 6.3110
 0.6240	 6.2940
 0.6250	 6.2810
 0.6260	 6.2680
 0.6270	 6.2590
 0.6280	 6.2540
 0.6290	 6.2510
 0.6300	 6.2520
 0.6310	 6.2510
 0.6320	 6.2440
 0.6330	 6.2330
 0.6340	 6.2220
 0.6350	 6.2080
 0.6360	 6.1910
 0.6370	 6.1730
 0.6380	 6.1510
 0.6390	 6.1240
 0.6400	 6.0930
 0.6410	 6.0590
 0.6420	 6.0250
 0.6430	 5.9920
 0.6440	 5.9530
 0.6450	 5.9160
 0.6460	 5.8820
 0.6470	 5.8520
 0.6480	 5.8210
 0.6490	 5.7900
 0.6500	 5.7610
 0.6510	 5.7360
 0.6520	 5.7160
 0.6530	 5.6970
 0.6540	 5.6730
 0.6550	 5.6490
 0.6560	 5.6230
 0.6570	 5.5970
 0.6580	 5.5760
 0.6590	 5.5440
 0.6600	 5.5110
 0.6610	 5.4830
 0.6620	 5.4550
 0.6630	 5.4260
 0.6640	 5.4010
 0.6650	 5.3830
 0.6660	 5.3620
 0.6670	 5.3480
 0.6680	 5.3420
 0.6690	 5.3380
 0.6700	 5.3330
 0.6710	 5.3300
 0.6720	 5.3290
 0.6730	 5.3290
 0.6740	 5.3350
 0.6750	 5.3460
 0.6760	 5.3590
 0.6770	 5.3750
 0.6780	 5.3920
 0.6790	 5.4100
 0.6800	 5.4310
 0.6810	 5.4590
 0.6820	 5.4900
 0.6830	 5.5250
 0.6840	 5.5660
 0.6850	 5.6170
 0.6860	 5.6780
 0.6870	 5.7480
 0.6880	 5.8270
 0.6890	 5.9260
 0.6900	 6.0510
 0.6910	 6.2000
 0.6920	 6.3760
 0.6930	 6.5860
 0.6940	 6.8370
 0.6950	 7.1220
 0.6960	 7.4520
 0.6970	 7.8260
 0.6980	 8.2410
 0.6990	 8.6980
 0.7000	 9.1910
 0.7010	 9.7160
 0.7020	10.2740
 0.7030	10.8570
 0.7040	11.4600
 0.7050	12.0780
 0.7060	12.7070
 0.7070	13.3500
 0.7080	14.0010
 0.7090	14.6570
 0.7100	15.3140
 0.7110	15.9750
 0.7120	16.6400
 0.7130	17.3040
 0.7140	17.9630
 0.7150	18.6190
 0.7160	19.2710
 0.7170	19.9190
 0.7180	20.5560
 0.7190	21.1830
 0.7200	21.8000
 0.7210	22.4070
 0.7220	22.9990
 0.7230	23.5750
 0.7240	24.1390
 0.7250	24.6810
 0.7260	25.2030
 0.7270	25.7070
 0.7280	26.1900
 0.7290	26.6520
 0.7300	27.0940
 0.7310	27.5150
 0.7320	27.9160
 0.7330	28.2960
 0.7340	28.6540
 0.7350	28.9920
 0.7360	29.3150
 0.7370	29.6210
 0.7380	29.9070
 0.7390	30.1690
 0.7400	30.4200
 0.7410	30.6570
 0.7420	30.8770
 0.7430	31.0810
 0.7440	31.2740
 0.7450	31.4530
 0.7460	31.6140
 0.7470	31.7670
 0.7480	31.9070
 0.7490	32.0300
 0.7500	32.1430
 0.7510	32.2550
 0.7520	32.3580
 0.7530	32.4450
 0.7540	32.5250
 0.7550	32.5990
 0.7560	32.6680
 0.7570	32.7300
 0.7580	32.7870
 0.7590	32.8410
 0.7600	32.8910
 0.7610	32.9350
 0.7620	32.9730
 0.7630	33.0100
 0.7640	33.0470
 0.7650	33.0770
 0.7660	33.1000
 0.7670	33.1200
 0.7680	33.1450
 0.7690	33.1700
 0.7700	33.1880
 0.7710	33.2020
 0.7720	33.2230
 0.7730	33.2400
 0.7740	33.2560
 0.7750	33.2750
 0.7760	33.2880
 0.7770	33.3020
 0.7780	33.3150
 0.7790	33.3220
 0.7800	33.3340
 0.7810	33.3470
 0.7820	33.3590
 0.7830	33.3740
 0.7840	33.3850
 0.7850	33.3920
 0.7860	33.3980
 0.7870	33.4120
 0.7880	33.4210
 0.7890	33.4280
 0.7900	33.4390
 0.7910	33.4460
 0.7920	33.4530
 0.7930	33.4620
 0.7940	33.4680
 0.7950	33.4730
 0.7960	33.4760
 0.7970	33.4770
 0.7980	33.4840
 0.7990	33.4900
 0.8000	33.4920
 0.8010	33.4910
 0.8020	33.4940
 0.8030	33.4960
 0.8040	33.4950
 0.8050	33.4960
 0.8060	33.4960
 0.8070	33.4950
 0.8080	33.4930
 0.8090	33.4890
 0.8100	33.4850
 0.8110	33.4810
 0.8120	33.4790
 0.8130	33.4750
 0.8140	33.4690
 0.8150	33.4630
 0.8160	33.4580
 0.8170	33.4560
 0.8180	33.4480
 0.8190	33.4380
 0.8200	33.4340
 0.8210	33.4270
 0.8220	33.4180
 0.8230	33.4090
 0.8240	33.4040
 0.8250	33.3930
 0.8260	33.3820
 0.8270	33.3740
 0.8280	33.3660
 0.8290	33.3610
 0.8300	33.3540
 0.8310	33.3420
 0.8320	33.3310
 0.8330	33.3240
 0.8340	33.3180
 0.8350	33.3020
 0.8360	33.2990
 0.8370	33.2960
 0.8380	33.2880
 0.8390	33.2780
 0.8400	33.2760
 0.8410	33.2690
 0.8420	33.2570
 0.8430	33.2590
 0.8440	33.2550
 0.8450	33.2510
 0.8460	33.2510
 0.8470	33.2520
 0.8480	33.2460
 0.8490	33.2400
 0.8500	33.2400
 0.8510	33.2420
 0.8520	33.2440
 0.8530	33.2430
 0.8540	33.2380
 0.8550	33.2330
 0.8560	33.2350
 0.8570	33.2400
 0.8580	33.2390
 0.8590	33.2370
 0.8600	33.2320
 0.8610	33.2270
 0.8620	33.2360
 0.8630	33.2400
 0.8640	33.2400
 0.8650	33.2400
 0.8660	33.2450
 0.8670	33.2460
 0.8680	33.2460
 0.8690	33.2520
 0.8700	33.2550
 0.8710	33.2570
 0.8720	33.2590
 0.8730	33.2620
 0.8740	33.2720
 0.8750	33.2750
 0.8760	33.2740
 0.8770	33.2790
 0.8780	33.2880
 0.8790	33.2930
 0.8800	33.2950
 0.8810	33.3000
 0.8820	33.3040
 0.8830	33.3100
 0.8840	33.3170
 0.8850	33.3180
 0.8860	33.3220
 0.8870	33.3290
 0.8880	33.3340
 0.8890	33.3370
 0.8900	33.3420
 0.8910	33.3480
 0.8920	33.3510
 0.8930	33.3560
 0.8940	33.3660
 0.8950	33.3710
 0.8960	33.3600
 0.8970	33.3650
 0.8980	33.3690
 0.8990	33.3670
 0.9000	33.3740
 0.9010	33.3800
 0.9020	33.3870
 0.9030	33.3940
 0.9040	33.3960
 0.9050	33.3970
 0.9060	33.4010
 0.9070	33.4070
 0.9080	33.4060
 0.9090	33.4070
 0.9100	33.4150
 0.9110	33.4250
 0.9120	33.4160
 0.9130	33.4100
 0.9140	33.4150
 0.9150	33.4260
 0.9160	33.4220
 0.9170	33.4220
 0.9180	33.4270
 0.9190	33.4290
 0.9200	33.4280
 0.9210	33.4220
 0.9220	33.4160
 0.9230	33.4170
 0.9240	33.4060
 0.9250	33.3960
 0.9260	33.3900
 0.9270	33.3840
 0.9280	33.3790
 0.9290	33.3690
 0.9300	33.3550
 0.9310	33.3420
 0.9320	33.3390
 0.9330	33.3300
 0.9340	33.3060
 0.9350	33.2770
 0.9360	33.2590
 0.9370	33.2460
 0.9380	33.2300
 0.9390	33.2040
 0.9400	33.1830
 0.9410	33.1660
 0.9420	33.1450
 0.9430	33.1160
 0.9440	33.0800
 0.9450	33.0500
 0.9460	33.0280
 0.9470	33.0000
 0.9480	32.9600
 0.9490	32.9190
 0.9500	32.8840
 0.9510	32.8320
 0.9520	32.7800
 0.9530	32.7280
 0.9540	32.6740
 0.9550	32.6220
 0.9560	32.5750
 0.9570	32.5320
 0.9580	32.4880
 0.9590	32.4380
 0.9600	32.4000
 0.9610	32.3710
 0.9620	32.3410
 0.9630	32.2910
 0.9640	32.2710
 0.9650	32.2640
 0.9660	32.2360
 0.9670	32.2160
 0.9680	32.1980
 0.9690	32.1830
 0.9700	32.1680
 0.9710	32.1420
 0.9720	32.1290
 0.9730	32.1250
 0.9740	32.1170
 0.9750	32.1170
 0.9760	32.1180
 0.9770	32.1120
 0.9780	32.0960
 0.9790	32.0930
 0.9800	32.1020
 0.9810	32.1070
 0.9820	32.0930
 0.9830	32.0920
 0.9840	32.0980
 0.9850	32.1150
 0.9860	32.1410
 0.9870	32.1440
 0.9880	32.1480
 0.9890	32.1550
 0.9900	32.1600
 0.9910	32.1900
 0.9920	32.2290
 0.9930	32.2680
 0.9940	32.3070
 0.9950	32.3460
 0.9960	32.3850
 0.9970	32.4240
 0.9980	32.4620
 0.9990	32.5010
 1.0000	32.5400
 1.0010	32.5790
 1.0020	32.6180
 1.0030	32.6570
 1.0040	32.6960
 1.0050	32.7340
 1.0060	32.7730
 1.0070	32.8120
 1.0080	32.8510
 1.0090	32.8900
 1.0100	32.8900
 1.0110	32.9010
 1.0120	32.9150
 1.0130	32.9300
 1.0140	32.9420
 1.0150	32.9530
 1.0160	32.9660
 1.0170	32.9780
 1.0180	32.9930
 1.0190	33.0100
 1.0200	33.0280
 1.0210	33.0440
 1.0220	33.0590
 1.0230	33.0730
 1.0240	33.0860
 1.0250	33.0990
 1.0260	33.1120
 1.0270	33.1240
 1.0280	33.1350
 1.0290	33.1470
 1.0300	33.1590
 1.0310	33.1720
 1.0320	33.1900
 1.0330	33.2050
 1.0340	33.2140
 1.0350	33.2230
 1.0360	33.2330
 1.0370	33.2430
 1.0380	33.2550
 1.0390	33.2750
 1.0400	33.2870
 1.0410	33.2970
 1.0420	33.3080
 1.0430	33.3190
 1.0440	33.3280
 1.0450	33.3360
 1.0460	33.3440
 1.0470	33.3500
 1.0480	33.3570
 1.0490	33.3670
 1.0500	33.3750
 1.0510	33.3830
 1.0520	33.3920
 1.0530	33.3990
 1.0540	33.4050
 1.0550	33.4110
 1.0560	33.4180
 1.0570	33.4200
 1.0580	33.4190
 1.0590	33.4200
 1.0600	33.4160
 1.0610	33.4170
 1.0620	33.4220
 1.0630	33.4240
 1.0640	33.4250
 1.0650	33.4260
 1.0660	33.4250
 1.0670	33.4250
 1.0680	33.4260
 1.0690	33.4280
 1.0700	33.4270
 1.0710	33.4260
 1.0720	33.4220
 1.0730	33.4140
 1.0740	33.4080
 1.0750	33.4010
 1.0760	33.3970
 1.0770	33.3940
 1.0780	33.3910
 1.0790	33.3880
 1.0800	33.3850
 1.0810	33.3820
 1.0820	33.3770
 1.0830	33.3710
 1.0840	33.3650
 1.0850	33.3580
 1.0860	33.3490
 1.0870	33.3420
 1.0880	33.3350
 1.0890	33.3280
 1.0900	33.3210
 1.0910	33.3130
 1.0920	33.3070
 1.0930	33.2980
 1.0940	33.2880
 1.0950	33.2780
 1.0960	33.2660
 1.0970	33.2570
 1.0980	33.2480
 1.0990	33.2390
 1.1000	33.2300
 1.1010	33.2210
 1.1020	33.2110
 1.1030	33.2010
 1.1040	33.1930
 1.1050	33.1840
 1.1060	33.1750
 1.1070	33.1660
 1.1080	33.1550
 1.1090	33.1430
 1.1100	33.1320
 1.1110	33.1200
 1.1120	33.1070
 1.1130	33.0930
 1.1140	33.0780
 1.1150	33.0600
 1.1160	33.0430
 1.1170	33.0260
 1.1180	33.0070
 1.1190	32.9880
 1.1200	32.9660
 1.1210	32.9410
 1.1220	32.9150
 1.1230	32.8850
 1.1240	32.8520
 1.1250	32.8150
 1.1260	32.7730
 1.1270	32.7300
 1.1280	32.6840
 1.1290	32.6340
 1.1300	32.5820
 1.1310	32.5230
 1.1320	32.4560
 1.1330	32.3870
 1.1340	32.3140
 1.1350	32.2350
 1.1360	32.1510
 1.1370	32.0620
 1.1380	31.9670
 1.1390	31.8690
 1.1400	31.7670
 1.1410	31.6640
 1.1420	31.5590
 1.1430	31.4510
 1.1440	31.3430
 1.1450	31.2310
 1.1460	31.1250
 1.1470	31.0160
 1.1480	30.9150
 1.1490	30.8170
 1.1500	30.7250
 1.1510	30.6350
 1.1520	30.5530
 1.1530	30.4790
 1.1540	30.4080
 1.1550	30.3430
 1.1560	30.2840
 1.1570	30.2300
 1.1580	30.1820
 1.1590	30.1410
 1.1600	30.1050
 1.1610	30.0720
 1.1620	30.0450
 1.1630	30.0220
 1.1640	30.0010
 1.1650	29.9830
 1.1660	29.9690
 1.1670	29.9560
 1.1680	29.9460
 1.1690	29.9370
 1.1700	29.9300
 1.1710	29.9230
 1.1720	29.9160
 1.1730	29.9110
 1.1740	29.9070
 1.1750	29.9010
 1.1760	29.8960
 1.1770	29.8890
 1.1780	29.8820
 1.1790	29.8750
 1.1800	29.8680
 1.1810	29.8590
 1.1820	29.8510
 1.1830	29.8420
 1.1840	29.8340
 1.1850	29.8260
 1.1860	29.8190
 1.1870	29.8110
 1.1880	29.8050
 1.1890	29.7990
 1.1900	29.7940
 1.1910	29.7880
 1.1920	29.7840
 1.1930	29.7820
 1.1940	29.7800
 1.1950	29.7780
 1.1960	29.7780
 1.1970	29.7780
 1.1980	29.7810
 1.1990	29.7860
 1.2000	29.7910
 1.2010	29.7980
 1.2020	29.8040
 1.2030	29.8110
 1.2040	29.8180
 1.2050	29.8280
 1.2060	29.8380
 1.2070	29.8480
 1.2080	29.8600
 1.2090	29.8720
 1.2100	29.8840
 1.2110	29.8970
 1.2120	29.9100
 1.2130	29.9240
 1.2140	29.9370
 1.2150	29.9520
 1.2160	29.9690
 1.2170	29.9830
 1.2180	29.9980
 1.2190	30.0150
 1.2200	30.0310
 1.2210	30.0480
 1.2220	30.0650
 1.2230	30.0810
 1.2240	30.0970
 1.2250	30.1120
 1.2260	30.1250
 1.2270	30.1390
 1.2280	30.1510
 1.2290	30.1650
 1.2300	30.1790
 1.2310	30.1930
 1.2320	30.2050
 1.2330	30.2150
 1.2340	30.2260
 1.2350	30.2360
 1.2360	30.2470
 1.2370	30.2570
 1.2380	30.2690
 1.2390	30.2800
 1.2400	30.2900
 1.2410	30.3000
 1.2420	30.3090
 1.2430	30.3180
 1.2440	30.3250
 1.2450	30.3320
 1.2460	30.3400
 1.2470	30.3470
 1.2480	30.3540
 1.2490	30.3610
 1.2500	30.3650
 1.2510	30.3700
 1.2520	30.3740
 1.2530	30.3770
 1.2540	30.3810
 1.2550	30.3850
 1.2560	30.3880
 1.2570	30.3890
 1.2580	30.3910
 1.2590	30.3900
 1.2600	30.3890
 1.2610	30.3880
 1.2620	30.3850
 1.2630	30.3820
 1.2640	30.3790
 1.2650	30.3730
 1.2660	30.3680
 1.2670	30.3640
 1.2680	30.3590
 1.2690	30.3540
 1.2700	30.3480
 1.2710	30.3410
 1.2720	30.3340
 1.2730	30.3260
 1.2740	30.3190
 1.2750	30.3100
 1.2760	30.3000
 1.2770	30.2890
 1.2780	30.2780
 1.2790	30.2670
 1.2800	30.2550
 1.2810	30.2430
 1.2820	30.2290
 1.2830	30.2120
 1.2840	30.1950
 1.2850	30.1760
 1.2860	30.1550
 1.2870	30.1320
 1.2880	30.1080
 1.2890	30.0830
 1.2900	30.0570
 1.2910	30.0310
 1.2920	30.0020
 1.2930	29.9710
 1.2940	29.9380
 1.2950	29.9030
 1.2960	29.8650
 1.2970	29.8240
 1.2980	29.7800
 1.2990	29.7350
 1.3000	29.6910
 1.3010	29.6450
 1.3020	29.5980
 1.3030	29.5470
 1.3040	29.4930
 1.3050	29.4380
 1.3060	29.3820
 1.3070	29.3240
 1.3080	29.2640
 1.3090	29.2020
 1.3100	29.1380
 1.3110	29.0710
 1.3120	29.0010
 1.3130	28.9310
 1.3140	28.8590
 1.3150	28.7840
 1.3160	28.7090
 1.3170	28.6320
 1.3180	28.5530
 1.3190	28.4710
 1.3200	28.3880
 1.3210	28.3010
 1.3220	28.2120
 1.3230	28.1230
 1.3240	28.0330
 1.3250	27.9420
 1.3260	27.8500
 1.3270	27.7550
 1.3280	27.6580
 1.3290	27.5580
 1.3300	27.4560
 1.3310	27.3560
 1.3320	27.2540
 1.3330	27.1520
 1.3340	27.0510
 1.3350	26.9470
 1.3360	26.8440
 1.3370	26.7410
 1.3380	26.6370
 1.3390	26.5340
 1.3400	26.4300
 1.3410	26.3270
 1.3420	26.2250
 1.3430	26.1250
 1.3440	26.0250
 1.3450	25.9260
 1.3460	25.8270
 1.3470	25.7300
 1.3480	25.6330
 1.3490	25.5370
 1.3500	25.4440
 1.3510	25.3500
 1.3520	25.2550
 1.3530	25.1620
 1.3540	25.0680
 1.3550	24.9730
 1.3560	24.8770
 1.3570	24.7820
 1.3580	24.6860
 1.3590	24.5880
 1.3600	24.4870
 1.3610	24.3840
 1.3620	24.2760
 1.3630	24.1660
 1.3640	24.0530
 1.3650	23.9350
 1.3660	23.8110
 1.3670	23.6790
 1.3680	23.5410
 1.3690	23.3950
 1.3700	23.2410
 1.3710	23.0780
 1.3720	22.9070
 1.3730	22.7220
 1.3740	22.5270
 1.3750	22.3200
 1.3760	22.0970
 1.3770	21.8590
 1.3780	21.6060
 1.3790	21.3390
 1.3800	21.0580
 1.3810	20.7620
 1.3820	20.4550
 1.3830	20.1350
 1.3840	19.8040
 1.3850	19.4600
 1.3860	19.1080
 1.3870	18.7430
 1.3880	18.3760
 1.3890	18.0020
 1.3900	17.6230
 1.3910	17.2460
 1.3920	16.8670
 1.3930	16.4860
 1.3940	16.1080
 1.3950	15.7320
 1.3960	15.3630
 1.3970	15.0040
 1.3980	14.6530
 1.3990	14.3170
 1.4000	13.9920
 1.4010	13.6760
 1.4020	13.3760
 1.4030	13.0860
 1.4040	12.8110
 1.4050	12.5520
 1.4060	12.3050
 1.4070	12.0770
 1.4080	11.8620
 1.4090	11.6610
 1.4100	11.4750
 1.4110	11.3000
 1.4120	11.1390
 1.4130	10.9900
 1.4140	10.8530
 1.4150	10.7270
 1.4160	10.6130
 1.4170	10.5080
 1.4180	10.4120
 1.4190	10.3250
 1.4200	10.2450
 1.4210	10.1720
 1.4220	10.1060
 1.4230	10.0480
 1.4240	 9.9950
 1.4250	 9.9480
 1.4260	 9.9080
 1.4270	 9.8700
 1.4280	 9.8380
 1.4290	 9.8100
 1.4300	 9.7850
 1.4310	 9.7640
 1.4320	 9.7470
 1.4330	 9.7330
 1.4340	 9.7230
 1.4350	 9.7140
 1.4360	 9.7080
 1.4370	 9.7050
 1.4380	 9.7030
 1.4390	 9.7040
 1.4400	 9.7060
 1.4410	 9.7110
 1.4420	 9.7170
 1.4430	 9.7240
 1.4440	 9.7320
 1.4450	 9.7420
 1.4460	 9.7530
 1.4470	 9.7640
 1.4480	 9.7760
 1.4490	 9.7890
 1.4500	 9.8020
 1.4510	 9.8160
 1.4520	 9.8320
 1.4530	 9.8470
 1.4540	 9.8630
 1.4550	 9.8800
 1.4560	 9.8980
 1.4570	 9.9180
 1.4580	 9.9390
 1.4590	 9.9630
 1.4600	 9.9890
 1.4610	10.0160
 1.4620	10.0460
 1.4630	10.0770
 1.4640	10.1110
 1.4650	10.1480
 1.4660	10.1880
 1.4670	10.2300
 1.4680	10.2760
 1.4690	10.3240
 1.4700	10.3750
