Name: Bromus diandrus
Type: vegetation
Class: grass
Genus: Bromus
Species: diandrus
Sample No.: VH351
Owner: UCSB
Wavelength Range: TIR
Origin: 34.51457; -119.79877; WGS84
Collection Date: 3/18/2015
Description: Samples were collected as part of the HyspIRI Airborne Campaign proposal titled: HyspIRI discrimination of plant species and functional types along a strong environmental temperature gradient. The same materials were processed in the Nicolet and then measured using the ASD.
Measurement: Hemispherical reflectance
First Column: X
Second Column: Y
X Units: Wavelength (micrometer)
Y Units: Reflectance (percentage)
First X Value: 2.501
Last X Value: 15.341
Number of X Values: 1736
Additional Information: 

 2.5010	 6.4740
 2.5030	 6.5150
 2.5040	 6.4730
 2.5050	 6.3830
 2.5060	 6.3390
 2.5070	 6.3520
 2.5090	 6.3730
 2.5100	 6.3990
 2.5110	 6.3280
 2.5120	 6.2870
 2.5140	 6.3310
 2.5150	 6.3360
 2.5160	 6.3650
 2.5170	 6.3470
 2.5180	 6.3110
 2.5200	 6.2200
 2.5210	 6.1590
 2.5220	 6.2800
 2.5230	 6.3520
 2.5250	 6.2620
 2.5260	 6.2350
 2.5270	 6.1700
 2.5280	 6.1770
 2.5300	 6.1780
 2.5310	 6.1560
 2.5320	 6.1450
 2.5330	 6.1380
 2.5340	 6.1430
 2.5360	 6.1540
 2.5370	 6.1560
 2.5380	 6.1520
 2.5390	 6.0740
 2.5410	 6.0770
 2.5420	 6.1340
 2.5430	 6.1790
 2.5440	 6.1490
 2.5460	 6.1730
 2.5470	 6.1510
 2.5480	 6.1240
 2.5490	 6.1360
 2.5510	 6.1500
 2.5520	 6.1670
 2.5530	 6.2260
 2.5540	 6.2620
 2.5560	 6.2290
 2.5570	 6.1750
 2.5580	 6.1880
 2.5590	 6.2370
 2.5610	 6.2140
 2.5620	 6.2210
 2.5630	 6.3340
 2.5650	 6.2900
 2.5660	 6.1520
 2.5670	 6.0660
 2.5680	 6.0990
 2.5700	 6.1700
 2.5710	 6.1640
 2.5720	 6.0820
 2.5730	 6.1510
 2.5750	 6.1700
 2.5760	 6.0440
 2.5770	 6.0480
 2.5790	 6.1040
 2.5800	 6.1080
 2.5810	 6.0780
 2.5820	 6.0240
 2.5840	 6.0310
 2.5850	 5.9550
 2.5860	 5.8780
 2.5880	 5.9530
 2.5890	 5.9670
 2.5900	 5.8930
 2.5910	 5.9490
 2.5930	 5.9740
 2.5940	 5.9420
 2.5950	 5.9170
 2.5970	 5.8570
 2.5980	 5.8160
 2.5990	 5.8170
 2.6010	 5.6920
 2.6020	 5.6880
 2.6030	 5.6760
 2.6040	 5.6160
 2.6060	 5.5520
 2.6070	 5.4860
 2.6080	 5.4620
 2.6100	 5.4110
 2.6110	 5.3290
 2.6120	 5.3310
 2.6140	 5.2530
 2.6150	 5.2070
 2.6160	 5.1410
 2.6180	 5.1550
 2.6190	 5.1590
 2.6200	 5.0730
 2.6220	 5.0340
 2.6230	 4.9960
 2.6240	 4.8770
 2.6260	 4.8840
 2.6270	 4.8920
 2.6280	 4.8140
 2.6300	 4.7260
 2.6310	 4.6870
 2.6320	 4.6810
 2.6340	 4.6440
 2.6350	 4.5760
 2.6360	 4.4900
 2.6380	 4.4260
 2.6390	 4.4450
 2.6400	 4.4120
 2.6420	 4.3270
 2.6430	 4.2420
 2.6440	 4.2800
 2.6460	 4.2310
 2.6470	 4.1840
 2.6480	 4.0910
 2.6500	 3.9780
 2.6510	 3.9160
 2.6520	 3.8670
 2.6540	 3.8590
 2.6550	 3.8730
 2.6570	 3.7650
 2.6580	 3.7210
 2.6590	 3.7050
 2.6610	 3.5940
 2.6620	 3.5020
 2.6630	 3.5220
 2.6650	 3.5320
 2.6660	 3.4360
 2.6670	 3.3470
 2.6690	 3.3550
 2.6700	 3.3270
 2.6720	 3.3480
 2.6730	 3.2750
 2.6740	 3.1180
 2.6760	 2.9670
 2.6770	 2.9730
 2.6780	 3.0230
 2.6800	 2.9600
 2.6810	 2.9230
 2.6830	 2.9760
 2.6840	 2.9020
 2.6850	 2.8500
 2.6870	 2.7200
 2.6880	 2.6290
 2.6900	 2.5370
 2.6910	 2.4840
 2.6920	 2.4690
 2.6940	 2.4560
 2.6950	 2.4110
 2.6970	 2.4380
 2.6980	 2.3950
 2.6990	 2.3470
 2.7010	 2.2950
 2.7020	 2.2680
 2.7040	 2.2100
 2.7050	 2.2260
 2.7060	 2.2340
 2.7080	 2.1650
 2.7090	 2.1080
 2.7110	 2.1080
 2.7120	 2.0480
 2.7130	 1.9710
 2.7150	 1.9520
 2.7160	 1.9970
 2.7180	 1.9270
 2.7190	 1.8790
 2.7210	 1.8970
 2.7220	 1.8860
 2.7230	 1.8270
 2.7250	 1.8130
 2.7260	 1.7090
 2.7280	 1.7460
 2.7290	 1.7690
 2.7310	 1.7610
 2.7320	 1.7680
 2.7340	 1.7030
 2.7350	 1.6670
 2.7360	 1.6870
 2.7380	 1.7230
 2.7390	 1.7530
 2.7410	 1.7120
 2.7420	 1.5990
 2.7440	 1.5800
 2.7450	 1.6320
 2.7470	 1.6250
 2.7480	 1.6020
 2.7490	 1.5520
 2.7510	 1.5370
 2.7520	 1.5280
 2.7540	 1.4950
 2.7550	 1.4010
 2.7570	 1.3660
 2.7580	 1.4640
 2.7600	 1.5780
 2.7610	 1.5490
 2.7630	 1.4800
 2.7640	 1.4870
 2.7660	 1.5300
 2.7670	 1.4780
 2.7690	 1.4740
 2.7700	 1.5060
 2.7720	 1.4800
 2.7730	 1.3950
 2.7740	 1.3910
 2.7760	 1.4450
 2.7770	 1.4420
 2.7790	 1.3240
 2.7800	 1.2920
 2.7820	 1.2950
 2.7830	 1.3740
 2.7850	 1.4370
 2.7860	 1.4300
 2.7880	 1.3060
 2.7890	 1.2060
 2.7910	 1.1640
 2.7920	 1.1700
 2.7940	 1.2070
 2.7950	 1.3300
 2.7970	 1.3600
 2.7980	 1.3290
 2.8000	 1.2840
 2.8010	 1.2830
 2.8030	 1.2980
 2.8040	 1.3370
 2.8060	 1.3390
 2.8080	 1.2480
 2.8090	 1.1710
 2.8110	 1.1720
 2.8120	 1.1570
 2.8140	 1.3070
 2.8150	 1.3040
 2.8170	 1.1920
 2.8180	 1.2090
 2.8200	 1.2280
 2.8210	 1.1740
 2.8230	 1.2220
 2.8240	 1.2120
 2.8260	 1.1720
 2.8270	 1.1590
 2.8290	 1.2000
 2.8310	 1.2130
 2.8320	 1.1920
 2.8340	 1.1660
 2.8350	 1.1600
 2.8370	 1.1160
 2.8380	 1.0760
 2.8400	 1.1380
 2.8410	 1.1750
 2.8430	 1.0490
 2.8440	 0.9840
 2.8460	 1.0360
 2.8480	 1.1250
 2.8490	 1.1170
 2.8510	 1.1090
 2.8520	 1.0610
 2.8540	 1.0650
 2.8550	 1.0410
 2.8570	 0.9960
 2.8590	 1.0030
 2.8600	 1.0260
 2.8620	 1.0420
 2.8630	 1.0470
 2.8650	 1.0330
 2.8660	 1.0430
 2.8680	 1.0520
 2.8700	 1.0650
 2.8710	 1.0750
 2.8730	 1.0550
 2.8740	 1.0380
 2.8760	 1.1140
 2.8780	 1.1200
 2.8790	 1.0850
 2.8810	 0.9770
 2.8820	 0.9560
 2.8840	 1.0070
 2.8860	 1.0590
 2.8870	 0.9940
 2.8890	 0.9730
 2.8900	 1.0290
 2.8920	 1.0830
 2.8940	 1.0210
 2.8950	 0.9430
 2.8970	 0.9100
 2.8990	 0.9370
 2.9000	 0.9690
 2.9020	 0.9940
 2.9030	 0.9270
 2.9050	 1.0090
 2.9070	 1.0010
 2.9080	 0.9700
 2.9100	 0.9400
 2.9120	 0.9510
 2.9130	 0.9390
 2.9150	 0.9180
 2.9160	 0.9290
 2.9180	 0.9390
 2.9200	 1.0030
 2.9210	 1.0750
 2.9230	 1.0310
 2.9250	 0.9820
 2.9260	 0.8800
 2.9280	 0.9110
 2.9300	 0.9180
 2.9310	 0.9090
 2.9330	 0.9840
 2.9350	 1.0530
 2.9360	 0.9710
 2.9380	 0.8870
 2.9400	 0.8720
 2.9410	 0.9080
 2.9430	 0.9060
 2.9450	 0.8670
 2.9460	 0.9030
 2.9480	 0.9450
 2.9500	 0.8960
 2.9510	 0.9570
 2.9530	 0.9900
 2.9550	 1.0410
 2.9560	 1.0290
 2.9580	 0.9550
 2.9600	 0.8870
 2.9610	 0.9050
 2.9630	 0.9680
 2.9650	 0.9440
 2.9670	 0.8960
 2.9680	 1.0180
 2.9700	 1.0740
 2.9720	 1.0030
 2.9730	 0.9490
 2.9750	 0.9620
 2.9770	 0.9360
 2.9780	 0.9590
 2.9800	 1.0150
 2.9820	 0.9660
 2.9840	 0.9030
 2.9850	 0.9260
 2.9870	 0.9180
 2.9890	 0.9440
 2.9900	 0.9800
 2.9920	 1.0300
 2.9940	 1.0500
 2.9960	 1.0550
 2.9970	 1.0890
 2.9990	 1.1310
 3.0010	 1.0950
 3.0030	 1.0610
 3.0040	 1.0320
 3.0060	 1.0940
 3.0080	 1.0840
 3.0100	 1.0570
 3.0110	 1.0500
 3.0130	 1.0480
 3.0150	 1.0520
 3.0170	 1.1440
 3.0180	 1.1620
 3.0200	 1.1410
 3.0220	 1.0500
 3.0240	 1.0240
 3.0250	 1.0300
 3.0270	 1.1000
 3.0290	 1.0940
 3.0310	 1.0650
 3.0320	 1.0620
 3.0340	 1.0870
 3.0360	 1.0720
 3.0380	 1.0480
 3.0400	 0.9820
 3.0410	 1.0020
 3.0430	 0.9840
 3.0450	 0.9960
 3.0470	 1.0350
 3.0480	 1.0840
 3.0500	 1.1340
 3.0520	 1.1740
 3.0540	 1.1200
 3.0560	 1.0990
 3.0570	 1.1080
 3.0590	 1.1910
 3.0610	 1.2740
 3.0630	 1.2670
 3.0650	 1.1400
 3.0670	 1.1380
 3.0680	 1.1600
 3.0700	 1.1420
 3.0720	 1.1280
 3.0740	 1.2120
 3.0760	 1.2420
 3.0770	 1.2550
 3.0790	 1.2630
 3.0810	 1.2520
 3.0830	 1.2020
 3.0850	 1.2050
 3.0870	 1.2190
 3.0880	 1.1990
 3.0900	 1.1180
 3.0920	 1.0810
 3.0940	 1.0950
 3.0960	 1.1420
 3.0980	 1.1990
 3.1000	 1.1540
 3.1010	 1.1050
 3.1030	 1.1720
 3.1050	 1.1970
 3.1070	 1.2010
 3.1090	 1.1950
 3.1110	 1.2070
 3.1130	 1.2430
 3.1140	 1.2510
 3.1160	 1.2180
 3.1180	 1.2350
 3.1200	 1.2850
 3.1220	 1.2810
 3.1240	 1.2200
 3.1260	 1.2180
 3.1280	 1.2170
 3.1290	 1.2300
 3.1310	 1.2320
 3.1330	 1.2510
 3.1350	 1.2520
 3.1370	 1.2820
 3.1390	 1.3190
 3.1410	 1.3540
 3.1430	 1.3240
 3.1450	 1.2730
 3.1470	 1.2590
 3.1480	 1.3230
 3.1500	 1.3220
 3.1520	 1.3280
 3.1540	 1.3480
 3.1560	 1.3380
 3.1580	 1.3350
 3.1600	 1.3430
 3.1620	 1.2990
 3.1640	 1.2980
 3.1660	 1.3210
 3.1680	 1.3320
 3.1700	 1.3310
 3.1720	 1.3810
 3.1730	 1.4240
 3.1750	 1.4120
 3.1770	 1.3600
 3.1790	 1.3850
 3.1810	 1.4110
 3.1830	 1.4180
 3.1850	 1.4350
 3.1870	 1.4020
 3.1890	 1.3350
 3.1910	 1.3850
 3.1930	 1.4470
 3.1950	 1.4100
 3.1970	 1.3580
 3.1990	 1.3550
 3.2010	 1.3580
 3.2030	 1.3120
 3.2050	 1.3200
 3.2070	 1.4310
 3.2090	 1.4580
 3.2110	 1.4580
 3.2130	 1.4220
 3.2150	 1.4470
 3.2170	 1.4660
 3.2190	 1.4810
 3.2210	 1.5100
 3.2230	 1.5220
 3.2250	 1.4800
 3.2270	 1.5230
 3.2290	 1.5080
 3.2310	 1.4660
 3.2330	 1.4540
 3.2350	 1.4780
 3.2370	 1.4580
 3.2390	 1.4470
 3.2410	 1.5260
 3.2430	 1.5520
 3.2450	 1.5210
 3.2470	 1.5230
 3.2490	 1.5000
 3.2510	 1.4810
 3.2530	 1.4640
 3.2550	 1.5000
 3.2570	 1.4610
 3.2590	 1.4510
 3.2610	 1.4820
 3.2630	 1.5320
 3.2650	 1.5310
 3.2670	 1.5050
 3.2700	 1.4960
 3.2720	 1.5220
 3.2740	 1.5400
 3.2760	 1.5640
 3.2780	 1.5360
 3.2800	 1.5410
 3.2820	 1.5830
 3.2840	 1.5700
 3.2860	 1.5160
 3.2880	 1.5190
 3.2900	 1.5320
 3.2920	 1.5590
 3.2940	 1.5510
 3.2970	 1.5410
 3.2990	 1.5700
 3.3010	 1.5220
 3.3030	 1.4620
 3.3050	 1.5160
 3.3070	 1.4680
 3.3090	 1.4670
 3.3110	 1.5280
 3.3130	 1.5730
 3.3160	 1.5350
 3.3180	 1.5380
 3.3200	 1.5280
 3.3220	 1.5350
 3.3240	 1.5470
 3.3260	 1.5510
 3.3280	 1.5740
 3.3300	 1.5870
 3.3330	 1.6150
 3.3350	 1.6820
 3.3370	 1.6930
 3.3390	 1.6630
 3.3410	 1.5900
 3.3430	 1.5690
 3.3450	 1.5900
 3.3480	 1.6070
 3.3500	 1.6060
 3.3520	 1.6010
 3.3540	 1.5790
 3.3560	 1.5880
 3.3580	 1.5750
 3.3610	 1.5830
 3.3630	 1.6010
 3.3650	 1.6430
 3.3670	 1.6610
 3.3690	 1.6660
 3.3720	 1.6760
 3.3740	 1.7230
 3.3760	 1.7310
 3.3780	 1.7530
 3.3800	 1.7760
 3.3830	 1.7900
 3.3850	 1.7490
 3.3870	 1.6990
 3.3890	 1.6630
 3.3910	 1.6700
 3.3940	 1.7440
 3.3960	 1.8150
 3.3980	 1.8260
 3.4000	 1.9050
 3.4030	 1.9300
 3.4050	 1.9090
 3.4070	 1.9700
 3.4090	 2.1180
 3.4110	 2.2550
 3.4140	 2.3310
 3.4160	 2.4260
 3.4180	 2.5290
 3.4200	 2.6330
 3.4230	 2.8180
 3.4250	 2.9140
 3.4270	 2.8930
 3.4300	 2.7400
 3.4320	 2.4740
 3.4340	 2.2210
 3.4360	 2.1950
 3.4390	 2.1110
 3.4410	 2.0390
 3.4430	 2.0360
 3.4450	 2.0020
 3.4480	 1.9780
 3.4500	 1.9720
 3.4520	 1.9610
 3.4550	 1.9430
 3.4570	 1.9370
 3.4590	 1.9740
 3.4620	 1.9640
 3.4640	 1.9220
 3.4660	 1.9190
 3.4690	 1.9610
 3.4710	 1.9400
 3.4730	 1.9050
 3.4760	 1.8990
 3.4780	 1.9060
 3.4800	 1.9230
 3.4830	 1.9070
 3.4850	 1.9000
 3.4870	 1.9090
 3.4900	 1.9300
 3.4920	 1.9890
 3.4940	 2.0900
 3.4970	 2.1390
 3.4990	 2.1310
 3.5010	 2.1670
 3.5040	 2.3400
 3.5060	 2.5780
 3.5080	 2.7310
 3.5110	 2.6930
 3.5130	 2.5280
 3.5160	 2.4400
 3.5180	 2.4320
 3.5200	 2.3680
 3.5230	 2.2790
 3.5250	 2.2740
 3.5280	 2.3350
 3.5300	 2.4110
 3.5320	 2.4180
 3.5350	 2.3910
 3.5370	 2.3780
 3.5400	 2.3720
 3.5420	 2.3550
 3.5440	 2.3580
 3.5470	 2.3900
 3.5490	 2.4350
 3.5520	 2.4720
 3.5540	 2.4930
 3.5570	 2.5260
 3.5590	 2.5920
 3.5610	 2.5870
 3.5640	 2.5440
 3.5660	 2.5450
 3.5690	 2.5760
 3.5710	 2.6180
 3.5740	 2.6150
 3.5760	 2.5830
 3.5790	 2.5700
 3.5810	 2.6150
 3.5840	 2.6800
 3.5860	 2.7070
 3.5890	 2.7120
 3.5910	 2.7030
 3.5940	 2.7450
 3.5960	 2.8300
 3.5990	 2.8400
 3.6010	 2.8350
 3.6040	 2.8510
 3.6060	 2.8560
 3.6090	 2.8630
 3.6110	 2.8260
 3.6140	 2.8340
 3.6160	 2.9020
 3.6190	 2.9160
 3.6210	 2.9240
 3.6240	 2.9630
 3.6260	 2.9880
 3.6290	 2.9860
 3.6310	 2.9340
 3.6340	 2.9510
 3.6360	 2.9850
 3.6390	 3.0020
 3.6410	 3.0740
 3.6440	 3.0720
 3.6470	 3.0870
 3.6490	 3.1140
 3.6520	 3.1240
 3.6540	 3.0950
 3.6570	 3.0880
 3.6590	 3.1600
 3.6620	 3.1800
 3.6650	 3.1790
 3.6670	 3.1890
 3.6700	 3.2170
 3.6720	 3.2600
 3.6750	 3.3350
 3.6780	 3.3880
 3.6800	 3.3500
 3.6830	 3.3180
 3.6850	 3.3470
 3.6880	 3.3640
 3.6910	 3.3590
 3.6930	 3.3790
 3.6960	 3.4780
 3.6990	 3.5190
 3.7010	 3.5300
 3.7040	 3.5520
 3.7070	 3.5380
 3.7090	 3.5200
 3.7120	 3.5410
 3.7150	 3.5910
 3.7170	 3.5990
 3.7200	 3.6250
 3.7230	 3.6560
 3.7250	 3.6780
 3.7280	 3.6740
 3.7310	 3.6580
 3.7330	 3.7110
 3.7360	 3.7550
 3.7390	 3.7580
 3.7410	 3.8000
 3.7440	 3.8380
 3.7470	 3.8650
 3.7490	 3.9060
 3.7520	 3.9090
 3.7550	 3.9530
 3.7580	 3.9800
 3.7600	 3.9220
 3.7630	 3.9090
 3.7660	 3.9030
 3.7690	 3.9110
 3.7710	 3.9710
 3.7740	 4.0120
 3.7770	 3.9920
 3.7790	 4.0070
 3.7820	 4.0680
 3.7850	 4.1030
 3.7880	 4.1340
 3.7910	 4.1830
 3.7930	 4.1660
 3.7960	 4.1580
 3.7990	 4.1800
 3.8020	 4.2320
 3.8040	 4.2610
 3.8070	 4.2210
 3.8100	 4.1360
 3.8130	 4.1340
 3.8160	 4.1870
 3.8180	 4.2290
 3.8210	 4.3120
 3.8240	 4.3300
 3.8270	 4.2810
 3.8300	 4.2920
 3.8330	 4.2970
 3.8350	 4.2630
 3.8380	 4.2730
 3.8410	 4.2890
 3.8440	 4.2880
 3.8470	 4.3080
 3.8500	 4.2970
 3.8520	 4.3140
 3.8550	 4.3560
 3.8580	 4.3430
 3.8610	 4.3460
 3.8640	 4.3330
 3.8670	 4.3060
 3.8700	 4.3460
 3.8730	 4.3630
 3.8760	 4.3290
 3.8780	 4.3010
 3.8810	 4.3060
 3.8840	 4.3010
 3.8870	 4.3220
 3.8900	 4.3300
 3.8930	 4.3270
 3.8960	 4.3610
 3.8990	 4.3740
 3.9020	 4.3320
 3.9050	 4.3260
 3.9080	 4.3410
 3.9110	 4.3280
 3.9140	 4.3250
 3.9170	 4.3410
 3.9190	 4.3410
 3.9220	 4.3300
 3.9250	 4.2840
 3.9280	 4.3070
 3.9310	 4.2950
 3.9340	 4.2770
 3.9370	 4.2520
 3.9400	 4.2300
 3.9430	 4.2200
 3.9460	 4.1740
 3.9490	 4.1560
 3.9520	 4.1690
 3.9550	 4.2000
 3.9580	 4.2140
 3.9610	 4.1960
 3.9640	 4.1640
 3.9670	 4.1560
 3.9700	 4.1300
 3.9740	 4.0920
 3.9770	 4.1050
 3.9800	 4.1140
 3.9830	 4.1230
 3.9860	 4.1040
 3.9890	 4.0930
 3.9920	 4.1150
 3.9950	 4.1210
 3.9980	 4.1180
 4.0010	 4.1090
 4.0040	 4.0810
 4.0070	 4.0970
 4.0100	 4.1060
 4.0140	 4.0380
 4.0170	 4.0210
 4.0200	 4.0420
 4.0230	 4.0360
 4.0260	 4.0490
 4.0290	 4.0710
 4.0320	 4.0460
 4.0350	 3.9780
 4.0390	 3.9550
 4.0420	 3.9650
 4.0450	 4.0050
 4.0480	 3.9720
 4.0510	 3.9230
 4.0540	 3.9000
 4.0570	 3.9390
 4.0610	 3.9660
 4.0640	 3.9180
 4.0670	 3.9040
 4.0700	 3.8940
 4.0730	 3.8590
 4.0770	 3.8750
 4.0800	 3.8750
 4.0830	 3.8590
 4.0860	 3.8720
 4.0890	 3.8890
 4.0930	 3.8520
 4.0960	 3.8390
 4.0990	 3.8550
 4.1020	 3.8300
 4.1060	 3.7980
 4.1090	 3.7930
 4.1120	 3.8230
 4.1150	 3.8350
 4.1190	 3.7700
 4.1220	 3.7330
 4.1250	 3.7290
 4.1290	 3.7320
 4.1320	 3.7060
 4.1350	 3.6700
 4.1380	 3.6750
 4.1420	 3.6900
 4.1450	 3.6660
 4.1480	 3.6610
 4.1520	 3.6420
 4.1550	 3.6620
 4.1580	 3.6360
 4.1620	 3.5940
 4.1650	 3.5640
 4.1680	 3.6000
 4.1720	 3.6120
 4.1750	 3.5880
 4.1780	 3.5660
 4.1820	 3.5460
 4.1850	 3.5560
 4.1890	 3.5760
 4.1920	 3.5590
 4.1950	 3.5280
 4.1990	 3.4850
 4.2020	 3.5040
 4.2060	 3.5750
 4.2090	 3.6430
 4.2120	 3.6310
 4.2160	 3.5940
 4.2190	 3.5910
 4.2230	 3.6070
 4.2260	 3.5820
 4.2300	 3.5970
 4.2330	 3.5800
 4.2360	 3.5400
 4.2400	 3.5400
 4.2430	 3.5800
 4.2470	 3.6160
 4.2500	 3.6040
 4.2540	 3.5150
 4.2570	 3.4640
 4.2610	 3.4390
 4.2640	 3.4020
 4.2680	 3.3710
 4.2710	 3.3990
 4.2750	 3.4540
 4.2780	 3.4940
 4.2820	 3.4980
 4.2850	 3.4950
 4.2890	 3.4840
 4.2930	 3.4670
 4.2960	 3.3810
 4.3000	 3.3550
 4.3030	 3.3840
 4.3070	 3.4380
 4.3100	 3.3390
 4.3140	 3.2300
 4.3180	 3.1640
 4.3210	 3.2350
 4.3250	 3.2050
 4.3280	 3.1190
 4.3320	 3.1300
 4.3360	 3.1260
 4.3390	 3.0660
 4.3430	 3.0620
 4.3470	 3.0860
 4.3500	 3.0650
 4.3540	 3.0070
 4.3580	 2.9940
 4.3610	 2.9580
 4.3650	 2.9410
 4.3690	 2.9350
 4.3720	 2.9910
 4.3760	 2.9830
 4.3800	 2.9490
 4.3830	 2.9350
 4.3870	 2.9430
 4.3910	 2.9090
 4.3940	 2.9190
 4.3980	 2.9190
 4.4020	 2.9060
 4.4060	 2.8330
 4.4090	 2.8200
 4.4130	 2.8470
 4.4170	 2.8580
 4.4210	 2.7860
 4.4240	 2.7620
 4.4280	 2.7860
 4.4320	 2.8140
 4.4360	 2.8070
 4.4400	 2.8110
 4.4430	 2.7770
 4.4470	 2.7860
 4.4510	 2.7600
 4.4550	 2.7390
 4.4590	 2.7090
 4.4630	 2.7450
 4.4660	 2.7490
 4.4700	 2.7350
 4.4740	 2.7100
 4.4780	 2.7330
 4.4820	 2.7580
 4.4860	 2.7330
 4.4900	 2.6600
 4.4930	 2.6590
 4.4970	 2.6630
 4.5010	 2.6760
 4.5050	 2.6450
 4.5090	 2.6660
 4.5130	 2.6830
 4.5170	 2.6780
 4.5210	 2.6780
 4.5250	 2.6890
 4.5290	 2.6490
 4.5330	 2.5900
 4.5370	 2.5370
 4.5410	 2.5460
 4.5450	 2.5820
 4.5490	 2.5870
 4.5530	 2.5520
 4.5570	 2.5860
 4.5610	 2.6060
 4.5650	 2.5920
 4.5690	 2.5760
 4.5730	 2.6040
 4.5770	 2.5790
 4.5810	 2.5730
 4.5850	 2.5650
 4.5890	 2.6000
 4.5930	 2.5770
 4.5970	 2.5440
 4.6010	 2.5280
 4.6050	 2.5170
 4.6090	 2.5060
 4.6130	 2.5710
 4.6170	 2.5330
 4.6220	 2.5210
 4.6260	 2.5280
 4.6300	 2.5120
 4.6340	 2.5060
 4.6380	 2.5280
 4.6420	 2.5290
 4.6460	 2.5120
 4.6510	 2.4560
 4.6550	 2.4420
 4.6590	 2.4120
 4.6630	 2.4420
 4.6670	 2.4900
 4.6720	 2.5410
 4.6760	 2.5260
 4.6800	 2.4870
 4.6840	 2.4870
 4.6880	 2.5370
 4.6930	 2.5250
 4.6970	 2.4880
 4.7010	 2.4760
 4.7050	 2.5130
 4.7100	 2.5130
 4.7140	 2.5130
 4.7180	 2.4800
 4.7230	 2.5010
 4.7270	 2.5180
 4.7310	 2.5460
 4.7360	 2.5120
 4.7400	 2.5050
 4.7440	 2.5120
 4.7490	 2.5360
 4.7530	 2.5080
 4.7570	 2.5210
 4.7620	 2.5470
 4.7660	 2.5620
 4.7700	 2.5110
 4.7750	 2.5530
 4.7790	 2.5680
 4.7840	 2.5520
 4.7880	 2.5180
 4.7920	 2.5590
 4.7970	 2.5780
 4.8010	 2.6170
 4.8060	 2.6230
 4.8100	 2.6220
 4.8150	 2.5700
 4.8190	 2.5490
 4.8240	 2.5730
 4.8280	 2.6280
 4.8330	 2.6050
 4.8370	 2.6330
 4.8420	 2.6550
 4.8460	 2.6870
 4.8510	 2.6580
 4.8550	 2.6630
 4.8600	 2.6310
 4.8640	 2.6430
 4.8690	 2.6210
 4.8740	 2.6280
 4.8780	 2.6580
 4.8830	 2.6870
 4.8870	 2.6610
 4.8920	 2.6520
 4.8970	 2.6540
 4.9010	 2.6860
 4.9060	 2.6860
 4.9100	 2.7370
 4.9150	 2.7360
 4.9200	 2.7630
 4.9240	 2.7510
 4.9290	 2.7510
 4.9340	 2.7210
 4.9390	 2.7660
 4.9430	 2.7610
 4.9480	 2.7870
 4.9530	 2.8010
 4.9570	 2.8180
 4.9620	 2.8010
 4.9670	 2.7950
 4.9720	 2.7700
 4.9760	 2.8140
 4.9810	 2.8260
 4.9860	 2.8390
 4.9910	 2.8180
 4.9960	 2.8210
 5.0000	 2.8420
 5.0050	 2.8730
 5.0100	 2.8770
 5.0150	 2.9370
 5.0200	 2.9420
 5.0250	 2.9560
 5.0300	 2.9710
 5.0340	 2.9720
 5.0390	 2.9360
 5.0440	 2.9970
 5.0490	 2.9720
 5.0540	 2.9910
 5.0590	 3.0190
 5.0640	 3.0900
 5.0690	 3.0500
 5.0740	 3.0630
 5.0790	 3.0750
 5.0840	 3.0930
 5.0890	 3.0740
 5.0940	 3.1180
 5.0990	 3.1160
 5.1040	 3.1250
 5.1090	 3.1260
 5.1140	 3.1510
 5.1190	 3.1520
 5.1240	 3.1910
 5.1290	 3.1160
 5.1340	 3.0970
 5.1390	 3.1440
 5.1440	 3.2160
 5.1490	 3.2310
 5.1550	 3.2560
 5.1600	 3.1910
 5.1650	 3.2210
 5.1700	 3.2140
 5.1750	 3.2430
 5.1800	 3.2320
 5.1850	 3.2370
 5.1910	 3.2590
 5.1960	 3.2940
 5.2010	 3.2630
 5.2060	 3.2600
 5.2110	 3.2530
 5.2170	 3.3090
 5.2220	 3.3020
 5.2270	 3.3080
 5.2330	 3.2780
 5.2380	 3.2850
 5.2430	 3.2470
 5.2480	 3.3070
 5.2540	 3.3230
 5.2590	 3.3600
 5.2640	 3.3190
 5.2700	 3.3380
 5.2750	 3.3410
 5.2800	 3.3440
 5.2860	 3.3170
 5.2910	 3.3380
 5.2970	 3.3250
 5.3020	 3.3360
 5.3080	 3.2870
 5.3130	 3.3060
 5.3180	 3.3120
 5.3240	 3.3290
 5.3290	 3.2670
 5.3350	 3.3140
 5.3400	 3.3030
 5.3460	 3.2860
 5.3510	 3.2490
 5.3570	 3.3010
 5.3620	 3.2850
 5.3680	 3.2470
 5.3740	 3.1570
 5.3790	 3.1770
 5.3850	 3.2060
 5.3900	 3.2280
 5.3960	 3.1930
 5.4010	 3.2310
 5.4070	 3.1940
 5.4130	 3.1440
 5.4180	 3.1370
 5.4240	 3.1530
 5.4300	 3.0940
 5.4350	 3.1240
 5.4410	 3.1030
 5.4470	 3.1140
 5.4530	 3.0590
 5.4580	 3.0600
 5.4640	 3.0510
 5.4700	 3.0470
 5.4760	 3.0030
 5.4810	 3.0200
 5.4870	 3.0090
 5.4930	 2.9980
 5.4990	 2.9120
 5.5050	 2.9120
