Name: Ceanothus megacarpus 2
Type: vegetation
Class: Shrub
Genus: Ceanothus
Species: megacarpus
Sample No.: VH213
Owner: UCSB
Wavelength Range: TIR
Origin: 34.4909; -119.7914; WGS84
Collection Date: 10/13/2013
Description: Samples were collected as part of the HyspIRI Airborne Campaign. 48 individual plants were sampled in three times in 2013 - spring  summer  and fall. The name of the sample includes a 1  2  or 3 which references a different individual of the species. Samples were taken to JPL and processed within 48 hours of collection. The same leaves were processed in the Nicolet and then measured using the ASD.
Measurement: Hemispherical reflectance
First Column: X
Second Column: Y
X Units: Wavelength (micrometers)
Y Units: Reflectance (percentage)
First X Value: 2.501
Last X Value: 15.387
Number of X Values: 1737
Additional Information: vegetation.shrub.ceanothus.megacarpus.tir.vh213.ucsb.nicolet.ancillary.txt

 2.5010	 9.0040
 2.5030	 9.1020
 2.5040	 9.0940
 2.5050	 9.1050
 2.5060	 9.3230
 2.5070	 9.4130
 2.5090	 9.4150
 2.5100	 9.1900
 2.5110	 9.2240
 2.5120	 9.4300
 2.5140	 9.4830
 2.5150	 9.3950
 2.5160	 9.4990
 2.5170	 9.3800
 2.5180	 9.2230
 2.5200	 9.1070
 2.5210	 9.0860
 2.5220	 8.9600
 2.5230	 9.0560
 2.5250	 9.3000
 2.5260	 9.3690
 2.5270	 9.3130
 2.5280	 9.5050
 2.5290	 9.3970
 2.5310	 9.1990
 2.5320	 9.2100
 2.5330	 9.2710
 2.5340	 9.1120
 2.5360	 9.2420
 2.5370	 9.3980
 2.5380	 9.4210
 2.5390	 9.4000
 2.5410	 9.3770
 2.5420	 9.5900
 2.5430	 9.6260
 2.5440	 9.3470
 2.5460	 9.2720
 2.5470	 9.0570
 2.5480	 8.9870
 2.5490	 9.1750
 2.5510	 9.3990
 2.5520	 9.2850
 2.5530	 9.3800
 2.5540	 9.4010
 2.5560	 9.1980
 2.5570	 9.1850
 2.5580	 9.2760
 2.5590	 9.3500
 2.5610	 9.4000
 2.5620	 9.4260
 2.5630	 9.5700
 2.5640	 9.5130
 2.5660	 9.4740
 2.5670	 9.5170
 2.5680	 9.4530
 2.5700	 9.3930
 2.5710	 9.3390
 2.5720	 9.3990
 2.5730	 9.5050
 2.5750	 9.4050
 2.5760	 9.5280
 2.5770	 9.5320
 2.5790	 9.2580
 2.5800	 9.2870
 2.5810	 9.4220
 2.5820	 9.2210
 2.5840	 9.3220
 2.5850	 9.3090
 2.5860	 9.4890
 2.5880	 9.6750
 2.5890	 9.3380
 2.5900	 9.2510
 2.5910	 9.6110
 2.5930	 9.5540
 2.5940	 9.2890
 2.5950	 9.1890
 2.5970	 9.3490
 2.5980	 9.3660
 2.5990	 9.3320
 2.6000	 9.4320
 2.6020	 9.5190
 2.6030	 9.3560
 2.6040	 9.2580
 2.6060	 9.2940
 2.6070	 9.3860
 2.6080	 9.4550
 2.6100	 9.5100
 2.6110	 9.5050
 2.6120	 9.4650
 2.6140	 9.2090
 2.6150	 9.1050
 2.6160	 9.1500
 2.6180	 9.1450
 2.6190	 9.1790
 2.6200	 9.2860
 2.6220	 9.3250
 2.6230	 9.2980
 2.6240	 9.1920
 2.6260	 9.0800
 2.6270	 9.1820
 2.6280	 9.2900
 2.6300	 9.1750
 2.6310	 9.1150
 2.6320	 9.2060
 2.6340	 9.3560
 2.6350	 9.2250
 2.6360	 9.0930
 2.6380	 9.0000
 2.6390	 8.9060
 2.6400	 8.9460
 2.6420	 9.2120
 2.6430	 9.2410
 2.6440	 9.1450
 2.6460	 9.1540
 2.6470	 9.0560
 2.6480	 8.9410
 2.6500	 9.1780
 2.6510	 9.3710
 2.6520	 9.3820
 2.6540	 9.1800
 2.6550	 8.9550
 2.6560	 8.8160
 2.6580	 8.9420
 2.6590	 8.9180
 2.6610	 8.9570
 2.6620	 9.0340
 2.6630	 9.0680
 2.6650	 9.0980
 2.6660	 9.1270
 2.6670	 8.8960
 2.6690	 8.7920
 2.6700	 8.9740
 2.6720	 9.0890
 2.6730	 8.9790
 2.6740	 8.9800
 2.6760	 8.9500
 2.6770	 9.0250
 2.6780	 9.0700
 2.6800	 9.0530
 2.6810	 9.0760
 2.6830	 9.1310
 2.6840	 8.9220
 2.6850	 8.8460
 2.6870	 8.9060
 2.6880	 8.8990
 2.6900	 8.9670
 2.6910	 9.1260
 2.6920	 8.9740
 2.6940	 8.8570
 2.6950	 8.8110
 2.6970	 8.9040
 2.6980	 9.0350
 2.6990	 9.0820
 2.7010	 8.8590
 2.7020	 8.7250
 2.7040	 8.8230
 2.7050	 8.8950
 2.7060	 8.8300
 2.7080	 8.7660
 2.7090	 8.6980
 2.7110	 8.8550
 2.7120	 8.9460
 2.7130	 8.8560
 2.7150	 8.7120
 2.7160	 8.7570
 2.7180	 8.7740
 2.7190	 8.6070
 2.7210	 8.3270
 2.7220	 8.3110
 2.7230	 8.5120
 2.7250	 8.6110
 2.7260	 8.6710
 2.7280	 8.7250
 2.7290	 8.6270
 2.7310	 8.5710
 2.7320	 8.3510
 2.7330	 8.3710
 2.7350	 8.5880
 2.7360	 8.8030
 2.7380	 8.6960
 2.7390	 8.5030
 2.7410	 8.3300
 2.7420	 8.6300
 2.7440	 8.8900
 2.7450	 8.9790
 2.7470	 8.3900
 2.7480	 8.0940
 2.7490	 8.3180
 2.7510	 8.5730
 2.7520	 8.6320
 2.7540	 8.8370
 2.7550	 8.7530
 2.7570	 8.7780
 2.7580	 8.6080
 2.7600	 8.1840
 2.7610	 8.0080
 2.7630	 7.9970
 2.7640	 8.2610
 2.7660	 8.5820
 2.7670	 8.4370
 2.7680	 8.2260
 2.7700	 8.3980
 2.7710	 8.5360
 2.7730	 8.4510
 2.7740	 8.4110
 2.7760	 8.5320
 2.7770	 8.5380
 2.7790	 8.5580
 2.7800	 8.5880
 2.7820	 8.5640
 2.7830	 8.6210
 2.7850	 8.8910
 2.7860	 8.8620
 2.7880	 8.5140
 2.7890	 8.4980
 2.7910	 8.4370
 2.7920	 8.1280
 2.7940	 7.9980
 2.7950	 7.9980
 2.7970	 7.9480
 2.7980	 7.9040
 2.8000	 8.2560
 2.8010	 8.4180
 2.8030	 8.0990
 2.8040	 8.1130
 2.8060	 8.1660
 2.8070	 8.1630
 2.8090	 8.2190
 2.8110	 8.3460
 2.8120	 8.3020
 2.8140	 8.4840
 2.8150	 8.7300
 2.8170	 8.5050
 2.8180	 8.2840
 2.8200	 8.5650
 2.8210	 8.3740
 2.8230	 7.9930
 2.8240	 8.0780
 2.8260	 8.1590
 2.8270	 8.0470
 2.8290	 8.4020
 2.8300	 8.3720
 2.8320	 8.2330
 2.8340	 8.2190
 2.8350	 8.2020
 2.8370	 8.4310
 2.8380	 8.5590
 2.8400	 8.2440
 2.8410	 8.0600
 2.8430	 8.1710
 2.8440	 8.2700
 2.8460	 8.2750
 2.8480	 8.4320
 2.8490	 8.2200
 2.8510	 7.9220
 2.8520	 8.0770
 2.8540	 8.3050
 2.8550	 8.2260
 2.8570	 8.4040
 2.8590	 8.5110
 2.8600	 8.4160
 2.8620	 8.2110
 2.8630	 8.2590
 2.8650	 8.3970
 2.8660	 8.2620
 2.8680	 8.1490
 2.8700	 8.0740
 2.8710	 8.2340
 2.8730	 8.4800
 2.8740	 8.4500
 2.8760	 8.4260
 2.8780	 8.6140
 2.8790	 8.9980
 2.8810	 8.8740
 2.8820	 8.2660
 2.8840	 7.6050
 2.8860	 7.3220
 2.8870	 7.2080
 2.8890	 7.5650
 2.8900	 8.1050
 2.8920	 8.0220
 2.8940	 7.9220
 2.8950	 8.2230
 2.8970	 8.3220
 2.8980	 8.3020
 2.9000	 8.5300
 2.9020	 8.5450
 2.9030	 8.1290
 2.9050	 8.2550
 2.9070	 8.5150
 2.9080	 8.1990
 2.9100	 7.8090
 2.9120	 7.9770
 2.9130	 7.9650
 2.9150	 7.9350
 2.9160	 7.8880
 2.9180	 8.1190
 2.9200	 8.2700
 2.9210	 8.0900
 2.9230	 7.9450
 2.9250	 8.0070
 2.9260	 8.1160
 2.9280	 8.2460
 2.9300	 8.3040
 2.9310	 8.3220
 2.9330	 8.1750
 2.9350	 8.1710
 2.9360	 8.0460
 2.9380	 8.0870
 2.9400	 8.3200
 2.9410	 8.2700
 2.9430	 8.3730
 2.9450	 8.6170
 2.9460	 8.6210
 2.9480	 8.6540
 2.9500	 8.2740
 2.9510	 8.3820
 2.9530	 8.0380
 2.9550	 7.6150
 2.9560	 8.0290
 2.9580	 8.5800
 2.9600	 8.4830
 2.9610	 8.3860
 2.9630	 8.8580
 2.9650	 8.9020
 2.9660	 8.7100
 2.9680	 7.3890
 2.9700	 6.0750
 2.9720	 6.0220
 2.9730	 7.3650
 2.9750	 7.9170
 2.9770	 8.1110
 2.9780	 9.3260
 2.9800	 9.0740
 2.9820	 7.1650
 2.9840	 6.6070
 2.9850	 7.4910
 2.9870	 7.7660
 2.9890	 7.8530
 2.9900	 9.2990
 2.9920	 8.7130
 2.9940	 8.8330
 2.9960	 8.6950
 2.9970	 7.6530
 2.9990	 8.7840
 3.0010	10.1700
 3.0030	 9.4160
 3.0040	 7.0000
 3.0060	 6.6330
 3.0080	 7.5800
 3.0100	 8.8530
 3.0110	 7.5360
 3.0130	 6.9530
 3.0150	 8.4380
 3.0170	 8.6700
 3.0180	 8.3790
 3.0200	 8.1610
 3.0220	 8.4340
 3.0240	 8.0770
 3.0250	 8.3300
 3.0270	 9.0590
 3.0290	 9.3800
 3.0310	 8.1760
 3.0320	 7.5680
 3.0340	 8.5520
 3.0360	 8.9360
 3.0380	 8.6800
 3.0400	 8.5060
 3.0410	 9.3250
 3.0430	 8.2620
 3.0450	 8.5450
 3.0470	11.2930
 3.0480	10.4540
 3.0500	 7.3390
 3.0520	 9.7250
 3.0540	11.0210
 3.0560	 7.1710
 3.0570	 5.8230
 3.0590	 5.9880
 3.0610	 5.7170
 3.0630	 6.5670
 3.0650	 7.5230
 3.0660	 8.3710
 3.0680	 8.0100
 3.0700	 8.2710
 3.0720	 8.8320
 3.0740	 8.6710
 3.0760	 7.8280
 3.0770	 7.3420
 3.0790	 7.7010
 3.0810	 8.0780
 3.0830	 8.0070
 3.0850	 8.0250
 3.0870	 8.3890
 3.0880	 8.9410
 3.0900	 8.8310
 3.0920	 8.4180
 3.0940	 8.5700
 3.0960	 8.4510
 3.0980	 8.0630
 3.0990	 7.9630
 3.1010	 7.9680
 3.1030	 8.1760
 3.1050	 8.5010
 3.1070	 8.6190
 3.1090	 8.4690
 3.1110	 8.2330
 3.1120	 7.9340
 3.1140	 7.8670
 3.1160	 8.0390
 3.1180	 8.2830
 3.1200	 8.4370
 3.1220	 8.2990
 3.1240	 8.3150
 3.1260	 8.4940
 3.1270	 8.4680
 3.1290	 8.0200
 3.1310	 7.7090
 3.1330	 7.3770
 3.1350	 7.7530
 3.1370	 8.8730
 3.1390	 9.5720
 3.1410	 8.1280
 3.1430	 6.7640
 3.1450	 6.3100
 3.1460	 6.9970
 3.1480	 8.8650
 3.1500	 9.5830
 3.1520	 7.4340
 3.1540	 6.2580
 3.1560	 7.6870
 3.1580	 9.8060
 3.1600	 9.8630
 3.1620	 9.9400
 3.1640	 8.0770
 3.1660	 7.7830
 3.1680	10.9390
 3.1700	10.1740
 3.1710	 7.2960
 3.1730	 8.6040
 3.1750	10.5980
 3.1770	 9.2410
 3.1790	 8.1790
 3.1810	 7.1700
 3.1830	 6.4260
 3.1850	 7.4510
 3.1870	 8.5990
 3.1890	 8.4930
 3.1910	 8.3370
 3.1930	 8.0560
 3.1950	 7.6310
 3.1970	 7.5350
 3.1990	 8.0380
 3.2010	 8.4590
 3.2030	 8.4770
 3.2050	 8.0200
 3.2070	 8.3550
 3.2090	 8.6130
 3.2110	 8.5850
 3.2130	 8.4810
 3.2150	 8.4410
 3.2170	 8.2240
 3.2190	 7.9980
 3.2210	 8.1990
 3.2230	 8.4000
 3.2250	 8.3070
 3.2270	 8.2780
 3.2290	 7.9720
 3.2310	 8.1900
 3.2330	 8.2750
 3.2350	 8.2680
 3.2370	 8.2380
 3.2390	 8.1160
 3.2410	 8.1460
 3.2430	 7.8540
 3.2450	 7.5110
 3.2470	 7.5260
 3.2490	 8.0540
 3.2510	 7.7850
 3.2530	 6.8300
 3.2550	 7.5530
 3.2570	 7.8440
 3.2590	 7.4620
 3.2610	 7.8240
 3.2630	 8.3530
 3.2650	 8.0860
 3.2670	 7.9850
 3.2690	 7.8660
 3.2720	 7.6850
 3.2740	 7.9240
 3.2760	 8.3710
 3.2780	 8.6200
 3.2800	 8.6920
 3.2820	 8.2980
 3.2840	 8.2910
 3.2860	 8.3640
 3.2880	 8.0950
 3.2900	 7.6170
 3.2920	 7.8120
 3.2940	 8.1810
 3.2960	 8.2740
 3.2990	 8.2120
 3.3010	 8.3950
 3.3030	 8.5150
 3.3050	 8.5350
 3.3070	 8.3160
 3.3090	 8.0610
 3.3110	 8.0080
 3.3130	 8.0800
 3.3150	 7.9290
 3.3180	 7.8930
 3.3200	 8.0370
 3.3220	 7.9310
 3.3240	 7.7520
 3.3260	 7.7860
 3.3280	 7.7040
 3.3300	 7.5780
 3.3330	 7.8430
 3.3350	 8.0110
 3.3370	 7.9530
 3.3390	 7.9300
 3.3410	 7.7950
 3.3430	 7.8300
 3.3450	 7.7950
 3.3480	 7.8220
 3.3500	 7.7910
 3.3520	 7.6410
 3.3540	 7.5410
 3.3560	 7.5430
 3.3580	 7.6720
 3.3610	 7.7400
 3.3630	 7.6340
 3.3650	 7.5060
 3.3670	 7.4380
 3.3690	 7.4670
 3.3720	 7.4120
 3.3740	 7.4530
 3.3760	 7.5070
 3.3780	 7.6230
 3.3800	 7.6430
 3.3830	 7.7540
 3.3850	 7.9080
 3.3870	 7.8170
 3.3890	 7.5940
 3.3910	 7.5670
 3.3940	 7.3860
 3.3960	 7.1740
 3.3980	 7.3400
 3.4000	 7.5790
 3.4020	 7.5100
 3.4050	 7.4100
 3.4070	 7.5260
 3.4090	 7.7140
 3.4110	 7.8880
 3.4140	 8.2860
 3.4160	 8.7810
 3.4180	 9.3500
 3.4200	10.2880
 3.4230	11.5460
 3.4250	12.6500
 3.4270	13.7260
 3.4290	14.2480
 3.4320	13.8830
 3.4340	12.7530
 3.4360	11.7300
 3.4390	11.0880
 3.4410	10.6660
 3.4430	10.2200
 3.4450	 9.9300
 3.4480	 9.7590
 3.4500	10.1120
 3.4520	10.4280
 3.4550	 9.8960
 3.4570	 9.5740
 3.4590	 9.4990
 3.4620	 9.4380
 3.4640	 9.3770
 3.4660	 9.3210
 3.4680	 9.2690
 3.4710	 9.1370
 3.4730	 9.0960
 3.4750	 8.8810
 3.4780	 8.7690
 3.4800	 8.7620
 3.4820	 8.5990
 3.4850	 8.3850
 3.4870	 8.3430
 3.4890	 8.3160
 3.4920	 8.2560
 3.4940	 8.1450
 3.4970	 8.2880
 3.4990	 8.4750
 3.5010	 8.6360
 3.5040	 8.8490
 3.5060	 9.8180
 3.5080	11.3940
 3.5110	12.9220
 3.5130	13.2110
 3.5160	12.4190
 3.5180	11.5040
 3.5200	10.9050
 3.5230	10.5780
 3.5250	10.3820
 3.5270	10.1510
 3.5300	 9.8770
 3.5320	 9.7150
 3.5350	 9.6690
 3.5370	 9.5230
 3.5400	 9.3850
 3.5420	 9.1540
 3.5440	 9.3660
 3.5470	 9.6090
 3.5490	 9.5430
 3.5520	 9.4390
 3.5540	 9.4270
 3.5570	 9.2940
 3.5590	 9.1220
 3.5610	 9.1260
 3.5640	 9.1630
 3.5660	 9.2310
 3.5690	 9.4010
 3.5710	 9.4000
 3.5740	 9.3200
 3.5760	 9.2900
 3.5790	 9.2310
 3.5810	 9.2160
 3.5840	 9.2290
 3.5860	 9.1730
 3.5890	 8.8950
 3.5910	 8.9240
 3.5930	 8.9780
 3.5960	 8.9430
 3.5980	 9.1330
 3.6010	 9.3210
 3.6030	 9.2140
 3.6060	 8.9280
 3.6080	 8.8230
 3.6110	 8.7850
 3.6140	 8.8080
 3.6160	 8.8490
 3.6190	 9.0010
 3.6210	 9.0840
 3.6240	 9.0050
 3.6260	 8.8350
 3.6290	 8.8070
 3.6310	 8.8710
 3.6340	 8.8400
 3.6360	 8.6720
 3.6390	 8.6840
 3.6410	 8.8040
 3.6440	 8.7980
 3.6470	 8.8500
 3.6490	 8.9080
 3.6520	 8.8710
 3.6540	 8.8410
 3.6570	 8.8460
 3.6590	 8.7980
 3.6620	 8.7370
 3.6650	 8.9590
 3.6670	 9.0030
 3.6700	 8.8860
 3.6720	 9.0730
 3.6750	 9.1430
 3.6780	 8.8640
 3.6800	 8.7630
 3.6830	 8.6830
 3.6850	 8.7650
 3.6880	 8.8840
 3.6910	 8.8870
 3.6930	 8.8750
 3.6960	 8.8420
 3.6990	 8.8820
 3.7010	 8.9470
 3.7040	 8.8860
 3.7060	 8.8480
 3.7090	 8.7570
 3.7120	 8.8000
 3.7140	 8.8500
 3.7170	 8.7700
 3.7200	 8.7960
 3.7220	 8.9650
 3.7250	 9.0080
 3.7280	 8.9180
 3.7300	 8.9140
 3.7330	 8.9200
 3.7360	 8.7920
 3.7390	 8.7480
 3.7410	 8.8630
 3.7440	 8.7450
 3.7470	 8.7030
 3.7490	 8.7950
 3.7520	 8.8530
 3.7550	 8.8180
 3.7580	 8.8210
 3.7600	 8.7250
 3.7630	 8.6390
 3.7660	 8.8160
 3.7680	 8.9120
 3.7710	 8.8470
 3.7740	 8.7910
 3.7770	 8.6870
 3.7790	 8.6170
 3.7820	 8.7280
 3.7850	 8.7800
 3.7880	 8.8470
 3.7900	 8.7870
 3.7930	 8.6800
 3.7960	 8.6360
 3.7990	 8.6460
 3.8020	 8.7000
 3.8040	 8.7250
 3.8070	 8.7680
 3.8100	 8.7690
 3.8130	 8.7330
 3.8160	 8.6570
 3.8180	 8.7760
 3.8210	 8.8990
 3.8240	 8.8730
 3.8270	 8.8980
 3.8300	 8.8840
 3.8330	 8.7070
 3.8350	 8.7220
 3.8380	 8.8450
 3.8410	 8.7890
 3.8440	 8.8020
 3.8470	 8.7880
 3.8500	 8.8370
 3.8520	 8.9390
 3.8550	 8.9200
 3.8580	 8.8470
 3.8610	 8.8830
 3.8640	 8.8660
 3.8670	 8.8120
 3.8700	 8.8750
 3.8730	 8.8960
 3.8750	 8.8560
 3.8780	 8.8050
 3.8810	 8.7940
 3.8840	 8.8890
 3.8870	 8.9220
 3.8900	 8.8360
 3.8930	 8.8400
 3.8960	 8.8010
 3.8990	 8.8350
 3.9020	 8.9180
 3.9050	 8.9360
 3.9080	 8.9200
 3.9110	 8.8400
 3.9140	 8.8750
 3.9160	 8.8650
 3.9190	 8.7830
 3.9220	 8.7590
 3.9250	 8.8520
 3.9280	 8.8290
 3.9310	 8.8880
 3.9340	 8.9350
 3.9370	 8.8970
 3.9400	 8.8750
 3.9430	 8.8630
 3.9460	 8.8840
 3.9490	 8.8930
 3.9520	 8.8340
 3.9550	 8.8450
 3.9580	 8.9010
 3.9610	 8.8930
 3.9640	 8.9120
 3.9670	 8.9940
 3.9700	 8.9780
 3.9730	 8.9350
 3.9770	 8.9150
 3.9800	 8.9120
 3.9830	 8.9610
 3.9860	 9.0200
 3.9890	 9.0400
 3.9920	 8.9960
 3.9950	 8.9390
 3.9980	 8.9310
 4.0010	 8.9600
 4.0040	 9.0580
 4.0070	 9.0410
 4.0100	 8.9120
 4.0130	 8.8640
 4.0170	 8.8670
 4.0200	 8.8350
 4.0230	 8.8040
 4.0260	 8.7960
 4.0290	 8.8870
 4.0320	 8.9990
 4.0350	 8.9800
 4.0380	 8.9680
 4.0420	 8.9390
 4.0450	 8.9380
 4.0480	 8.9170
 4.0510	 8.8920
 4.0540	 8.9390
 4.0570	 8.9930
 4.0610	 8.9990
 4.0640	 9.0390
 4.0670	 8.9940
 4.0700	 8.9250
 4.0730	 8.9390
 4.0770	 8.8320
 4.0800	 8.7940
 4.0830	 8.8160
 4.0860	 8.9440
 4.0890	 8.9650
 4.0930	 8.9640
 4.0960	 8.8180
 4.0990	 8.7330
 4.1020	 8.9060
 4.1060	 8.8450
 4.1090	 8.9040
 4.1120	 9.1410
 4.1150	 9.2080
 4.1190	 9.1040
 4.1220	 9.1000
 4.1250	 9.1670
 4.1280	 9.1230
 4.1320	 9.0020
 4.1350	 9.0390
 4.1380	 9.0270
 4.1420	 8.9150
 4.1450	 8.9400
 4.1480	 9.0190
 4.1520	 9.0120
 4.1550	 8.9650
 4.1580	 8.9590
 4.1620	 8.9940
 4.1650	 9.0340
 4.1680	 8.9540
 4.1720	 8.8950
 4.1750	 8.9860
 4.1780	 8.9830
 4.1820	 8.9590
 4.1850	 9.0080
 4.1890	 9.0260
 4.1920	 8.9750
 4.1950	 9.0450
 4.1990	 9.1270
 4.2020	 9.2400
 4.2060	 9.3470
 4.2090	 9.3780
 4.2120	 9.4670
 4.2160	 9.6550
 4.2190	 9.8800
 4.2230	10.0120
 4.2260	10.1200
 4.2300	 9.9400
 4.2330	 9.8190
 4.2360	10.0410
 4.2400	10.2080
 4.2430	10.1220
 4.2470	 9.9270
 4.2500	 9.2640
 4.2540	 9.0500
 4.2570	 9.1300
 4.2610	 9.2400
 4.2640	 9.9040
 4.2680	10.1470
 4.2710	 9.5760
 4.2750	 9.3400
 4.2780	 9.5550
 4.2820	 9.5050
 4.2850	 9.7480
 4.2890	 9.7560
 4.2930	 9.6160
 4.2960	 9.6640
 4.3000	 9.6570
 4.3030	 9.5940
 4.3070	 9.4650
 4.3100	 9.3790
 4.3140	 9.1940
 4.3180	 9.2850
 4.3210	 9.3900
 4.3250	 9.2910
 4.3280	 9.1640
 4.3320	 9.0960
 4.3360	 9.1290
 4.3390	 9.1480
 4.3430	 9.1740
 4.3470	 9.1090
 4.3500	 9.1120
 4.3540	 9.1970
 4.3570	 9.2320
 4.3610	 9.2490
 4.3650	 9.2690
 4.3680	 9.1830
 4.3720	 9.1020
 4.3760	 9.0740
 4.3800	 9.1070
 4.3830	 9.1820
 4.3870	 9.1590
 4.3910	 9.2120
 4.3940	 9.1950
 4.3980	 9.1120
 4.4020	 9.1540
 4.4060	 9.1680
 4.4090	 9.1690
 4.4130	 9.1900
 4.4170	 9.1450
 4.4210	 9.1410
 4.4240	 9.2020
 4.4280	 9.2840
 4.4320	 9.2380
 4.4360	 9.1610
 4.4400	 9.1770
 4.4430	 9.1800
 4.4470	 9.1700
 4.4510	 9.0930
 4.4550	 9.0560
 4.4590	 9.0740
 4.4620	 9.0970
 4.4660	 9.0050
 4.4700	 8.9920
 4.4740	 9.1040
 4.4780	 9.1260
 4.4820	 9.1300
 4.4860	 9.1130
 4.4900	 8.9380
 4.4930	 8.9080
 4.4970	 9.1010
 4.5010	 9.1360
 4.5050	 9.1200
 4.5090	 9.0590
 4.5130	 8.9990
 4.5170	 9.0200
 4.5210	 9.0570
 4.5250	 9.1020
 4.5290	 9.1560
 4.5330	 9.1420
 4.5370	 9.0710
 4.5410	 9.0640
 4.5450	 9.1160
 4.5490	 9.1330
 4.5530	 9.1290
 4.5570	 9.1420
 4.5610	 9.0560
 4.5650	 9.0320
 4.5690	 9.0540
 4.5730	 9.0680
 4.5770	 9.0310
 4.5810	 9.0010
 4.5850	 9.0300
 4.5890	 9.1010
 4.5930	 9.0510
 4.5970	 9.0260
 4.6010	 9.0510
 4.6050	 9.1130
 4.6090	 9.1130
 4.6130	 9.1760
 4.6170	 9.0700
 4.6220	 8.9960
 4.6260	 9.1510
 4.6300	 9.0160
 4.6340	 8.8090
 4.6380	 8.8470
 4.6420	 8.8940
 4.6460	 8.9330
 4.6510	 9.0110
 4.6550	 9.0630
 4.6590	 9.1260
 4.6630	 9.1610
 4.6670	 9.0880
 4.6720	 9.0610
 4.6760	 9.0280
 4.6800	 9.0310
 4.6840	 9.0650
 4.6880	 9.0220
 4.6930	 8.8610
 4.6970	 8.8520
 4.7010	 9.0230
 4.7050	 9.0830
 4.7100	 8.9870
 4.7140	 8.9620
 4.7180	 8.9890
 4.7230	 9.0180
 4.7270	 9.0450
 4.7310	 9.0170
 4.7360	 9.0200
 4.7400	 9.0970
 4.7440	 9.0630
 4.7490	 9.1000
 4.7530	 9.1380
 4.7570	 9.0710
 4.7620	 8.9540
 4.7660	 8.9300
 4.7700	 8.9590
 4.7750	 9.1670
 4.7790	 9.2340
 4.7840	 9.0010
 4.7880	 8.6930
 4.7920	 8.7920
 4.7970	 9.1040
 4.8010	 9.0890
 4.8060	 9.1080
 4.8100	 9.1230
 4.8150	 8.9090
 4.8190	 8.8660
 4.8240	 9.0330
 4.8280	 9.0980
 4.8330	 9.0430
 4.8370	 9.0510
 4.8420	 9.0910
 4.8460	 9.0890
 4.8510	 9.0680
 4.8550	 9.1070
 4.8600	 9.0750
 4.8640	 9.0520
 4.8690	 9.0330
 4.8730	 9.0890
 4.8780	 9.1290
 4.8830	 9.0100
 4.8870	 8.9610
 4.8920	 9.0410
 4.8960	 8.9730
 4.9010	 8.9700
 4.9060	 9.0770
 4.9100	 9.1330
 4.9150	 9.0850
 4.9200	 9.0470
 4.9240	 9.0550
 4.9290	 9.0810
 4.9340	 9.0420
 4.9380	 9.0070
 4.9430	 8.9440
 4.9480	 9.0270
 4.9530	 9.0970
 4.9570	 9.0980
 4.9620	 9.0690
 4.9670	 9.0760
 4.9720	 9.0890
 4.9760	 9.1100
 4.9810	 9.1330
 4.9860	 9.1680
 4.9910	 9.1200
 4.9960	 9.0870
 5.0000	 9.0710
 5.0050	 9.1320
 5.0100	 9.0940
 5.0150	 9.1090
 5.0200	 9.1280
 5.0250	 9.1650
 5.0290	 9.1440
 5.0340	 9.1760
 5.0390	 9.2130
 5.0440	 9.1580
 5.0490	 9.0790
 5.0540	 9.1770
 5.0590	 9.1810
 5.0640	 9.1060
 5.0690	 9.1680
 5.0740	 9.2050
 5.0790	 9.1290
 5.0840	 9.1120
 5.0890	 9.1240
 5.0940	 9.1010
 5.0990	 9.0350
 5.1040	 9.1020
 5.1090	 9.1150
 5.1140	 9.1220
 5.1190	 9.1120
 5.1240	 9.1000
 5.1290	 9.0530
 5.1340	 9.0860
 5.1390	 9.0680
 5.1440	 9.0460
 5.1490	 9.0230
 5.1540	 9.1140
 5.1600	 9.0750
 5.1650	 9.0360
 5.1700	 8.9730
 5.1750	 9.0490
 5.1800	 9.1280
 5.1850	 9.1910
 5.1910	 9.1460
 5.1960	 9.0810
 5.2010	 9.0430
 5.2060	 9.0910
 5.2110	 9.1190
 5.2170	 9.1210
 5.2220	 9.0610
 5.2270	 9.1290
 5.2320	 9.1170
 5.2380	 9.1250
 5.2430	 9.1220
 5.2480	 9.1750
 5.2540	 9.2220
 5.2590	 9.1890
 5.2640	 9.0500
 5.2700	 9.1350
 5.2750	 9.1110
 5.2800	 8.9900
 5.2860	 9.0230
 5.2910	 9.2000
 5.2970	 9.2040
 5.3020	 9.1930
 5.3070	 9.0570
 5.3130	 9.0110
 5.3180	 9.0750
 5.3240	 9.1110
 5.3290	 9.0630
 5.3350	 9.1470
 5.3400	 9.1720
 5.3460	 9.1020
 5.3510	 9.0100
 5.3570	 9.0660
 5.3620	 9.0610
 5.3680	 9.0610
 5.3730	 9.0860
 5.3790	 9.1110
 5.3850	 9.0880
 5.3900	 9.0290
 5.3960	 8.9130
 5.4010	 9.0250
 5.4070	 9.0480
 5.4130	 9.0880
 5.4180	 9.1150
 5.4240	 9.1250
 5.4300	 9.0570
 5.4350	 9.0250
