Name: Calocedrus decrruens 3
Type: vegetation
Class: Tree
Genus: Calocedrus
Species: decurrens
Sample No.: VH155
Owner: UCSB
Wavelength Range: VSWIR
Origin: 37.0443; -119.3026; WGS84
Collection Date: 6/8/2013
Description: Samples were collected as part of the HyspIRI Airborne Campaign. 48 individual plants were sampled in three times in 2013 - spring  summer  and fall. The name of the sample includes a 1  2  or 3 which references a different individual of the species. Samples were taken to JPL and processed within 48 hours of collection. The same leaves were processed in the Nicolet and then measured using the ASD.
Measurement: Bidirectional reflectance
First Column: X
Second Column: Y
X Units: Wavelength (micrometers)
Y Units: Reflectance (percentage)
First X Value: 0.35
Last X Value: 2.5
Number of X Values: 2151
Additional Information: vegetation.tree.calocedrus.decurrens.vswir.vh155.ucsb.asd.ancillary.txt

 0.3500	 4.6220
 0.3510	 4.8020
 0.3520	 4.8780
 0.3530	 4.8590
 0.3540	 4.8150
 0.3550	 4.7350
 0.3560	 4.6340
 0.3570	 4.5290
 0.3580	 4.4550
 0.3590	 4.6350
 0.3600	 4.7020
 0.3610	 4.5490
 0.3620	 4.5210
 0.3630	 4.5510
 0.3640	 4.5800
 0.3650	 4.5550
 0.3660	 4.4740
 0.3670	 4.4990
 0.3680	 4.6120
 0.3690	 4.6540
 0.3700	 4.5840
 0.3710	 4.5160
 0.3720	 4.5130
 0.3730	 4.5140
 0.3740	 4.5500
 0.3750	 4.5630
 0.3760	 4.4980
 0.3770	 4.4410
 0.3780	 4.3950
 0.3790	 4.4040
 0.3800	 4.5260
 0.3810	 4.5550
 0.3820	 4.5110
 0.3830	 4.4630
 0.3840	 4.4540
 0.3850	 4.4520
 0.3860	 4.4560
 0.3870	 4.4670
 0.3880	 4.5170
 0.3890	 4.5600
 0.3900	 4.5610
 0.3910	 4.5070
 0.3920	 4.5340
 0.3930	 4.5890
 0.3940	 4.6050
 0.3950	 4.5740
 0.3960	 4.5480
 0.3970	 4.5660
 0.3980	 4.6440
 0.3990	 4.6780
 0.4000	 4.6620
 0.4010	 4.6430
 0.4020	 4.7110
 0.4030	 4.7730
 0.4040	 4.8090
 0.4050	 4.8270
 0.4060	 4.8920
 0.4070	 4.9370
 0.4080	 4.9590
 0.4090	 5.0000
 0.4100	 5.0650
 0.4110	 5.1290
 0.4120	 5.1810
 0.4130	 5.2110
 0.4140	 5.2540
 0.4150	 5.3100
 0.4160	 5.3710
 0.4170	 5.4200
 0.4180	 5.4610
 0.4190	 5.5060
 0.4200	 5.5690
 0.4210	 5.6090
 0.4220	 5.6420
 0.4230	 5.6920
 0.4240	 5.7490
 0.4250	 5.7980
 0.4260	 5.8370
 0.4270	 5.8780
 0.4280	 5.9250
 0.4290	 5.9650
 0.4300	 5.9920
 0.4310	 6.0060
 0.4320	 6.0440
 0.4330	 6.0810
 0.4340	 6.0920
 0.4350	 6.1330
 0.4360	 6.1650
 0.4370	 6.1830
 0.4380	 6.2120
 0.4390	 6.2430
 0.4400	 6.2720
 0.4410	 6.2990
 0.4420	 6.3210
 0.4430	 6.3490
 0.4440	 6.3820
 0.4450	 6.4180
 0.4460	 6.4460
 0.4470	 6.4820
 0.4480	 6.5260
 0.4490	 6.5560
 0.4500	 6.5880
 0.4510	 6.6190
 0.4520	 6.6410
 0.4530	 6.6480
 0.4540	 6.6810
 0.4550	 6.7240
 0.4560	 6.7280
 0.4570	 6.7490
 0.4580	 6.7680
 0.4590	 6.7800
 0.4600	 6.8010
 0.4610	 6.8110
 0.4620	 6.8160
 0.4630	 6.8290
 0.4640	 6.8400
 0.4650	 6.8470
 0.4660	 6.8520
 0.4670	 6.8620
 0.4680	 6.8700
 0.4690	 6.8780
 0.4700	 6.8850
 0.4710	 6.8850
 0.4720	 6.8990
 0.4730	 6.9150
 0.4740	 6.9120
 0.4750	 6.9180
 0.4760	 6.9290
 0.4770	 6.9440
 0.4780	 6.9400
 0.4790	 6.9460
 0.4800	 6.9580
 0.4810	 6.9710
 0.4820	 6.9850
 0.4830	 6.9990
 0.4840	 7.0100
 0.4850	 7.0100
 0.4860	 7.0180
 0.4870	 7.0330
 0.4880	 7.0560
 0.4890	 7.0790
 0.4900	 7.1060
 0.4910	 7.1330
 0.4920	 7.1570
 0.4930	 7.1970
 0.4940	 7.2360
 0.4950	 7.2740
 0.4960	 7.3100
 0.4970	 7.3610
 0.4980	 7.4240
 0.4990	 7.4950
 0.5000	 7.5620
 0.5010	 7.6340
 0.5020	 7.7230
 0.5030	 7.8200
 0.5040	 7.9200
 0.5050	 8.0310
 0.5060	 8.1560
 0.5070	 8.2880
 0.5080	 8.4360
 0.5090	 8.5930
 0.5100	 8.7530
 0.5110	 8.9250
 0.5120	 9.1150
 0.5130	 9.3170
 0.5140	 9.5230
 0.5150	 9.7390
 0.5160	 9.9650
 0.5170	10.2030
 0.5180	10.4390
 0.5190	10.6810
 0.5200	10.9260
 0.5210	11.1670
 0.5220	11.3930
 0.5230	11.6150
 0.5240	11.8420
 0.5250	12.0520
 0.5260	12.2530
 0.5270	12.4410
 0.5280	12.6070
 0.5290	12.7570
 0.5300	12.8980
 0.5310	13.0280
 0.5320	13.1400
 0.5330	13.2400
 0.5340	13.3290
 0.5350	13.4060
 0.5360	13.4790
 0.5370	13.5410
 0.5380	13.5910
 0.5390	13.6330
 0.5400	13.6750
 0.5410	13.7120
 0.5420	13.7430
 0.5430	13.7790
 0.5440	13.8160
 0.5450	13.8520
 0.5460	13.8870
 0.5470	13.9210
 0.5480	13.9540
 0.5490	13.9840
 0.5500	14.0080
 0.5510	14.0270
 0.5520	14.0350
 0.5530	14.0310
 0.5540	14.0160
 0.5550	13.9860
 0.5560	13.9400
 0.5570	13.8830
 0.5580	13.8130
 0.5590	13.7310
 0.5600	13.6390
 0.5610	13.5450
 0.5620	13.4440
 0.5630	13.3350
 0.5640	13.2180
 0.5650	13.0910
 0.5660	12.9580
 0.5670	12.8210
 0.5680	12.6820
 0.5690	12.5390
 0.5700	12.3910
 0.5710	12.2430
 0.5720	12.1010
 0.5730	11.9610
 0.5740	11.8260
 0.5750	11.7020
 0.5760	11.5870
 0.5770	11.4800
 0.5780	11.3780
 0.5790	11.2810
 0.5800	11.1900
 0.5810	11.1060
 0.5820	11.0270
 0.5830	10.9530
 0.5840	10.8840
 0.5850	10.8170
 0.5860	10.7490
 0.5870	10.6880
 0.5880	10.6350
 0.5890	10.5840
 0.5900	10.5370
 0.5910	10.4950
 0.5920	10.4590
 0.5930	10.4270
 0.5940	10.3990
 0.5950	10.3700
 0.5960	10.3410
 0.5970	10.3180
 0.5980	10.2930
 0.5990	10.2670
 0.6000	10.2430
 0.6010	10.2110
 0.6020	10.1800
 0.6030	10.1440
 0.6040	10.0990
 0.6050	10.0480
 0.6060	 9.9920
 0.6070	 9.9340
 0.6080	 9.8710
 0.6090	 9.8040
 0.6100	 9.7330
 0.6110	 9.6610
 0.6120	 9.5880
 0.6130	 9.5180
 0.6140	 9.4490
 0.6150	 9.3870
 0.6160	 9.3210
 0.6170	 9.2550
 0.6180	 9.1990
 0.6190	 9.1490
 0.6200	 9.1030
 0.6210	 9.0620
 0.6220	 9.0270
 0.6230	 8.9960
 0.6240	 8.9730
 0.6250	 8.9540
 0.6260	 8.9370
 0.6270	 8.9250
 0.6280	 8.9170
 0.6290	 8.9090
 0.6300	 8.8960
 0.6310	 8.8850
 0.6320	 8.8750
 0.6330	 8.8620
 0.6340	 8.8370
 0.6350	 8.8030
 0.6360	 8.7580
 0.6370	 8.7110
 0.6380	 8.6530
 0.6390	 8.5920
 0.6400	 8.5250
 0.6410	 8.4500
 0.6420	 8.3720
 0.6430	 8.2880
 0.6440	 8.2120
 0.6450	 8.1330
 0.6460	 8.0580
 0.6470	 7.9890
 0.6480	 7.9190
 0.6490	 7.8600
 0.6500	 7.8090
 0.6510	 7.7700
 0.6520	 7.7340
 0.6530	 7.6990
 0.6540	 7.6630
 0.6550	 7.6280
 0.6560	 7.5870
 0.6570	 7.5420
 0.6580	 7.4930
 0.6590	 7.4350
 0.6600	 7.3760
 0.6610	 7.3150
 0.6620	 7.2560
 0.6630	 7.2000
 0.6640	 7.1480
 0.6650	 7.1030
 0.6660	 7.0630
 0.6670	 7.0260
 0.6680	 6.9990
 0.6690	 6.9840
 0.6700	 6.9720
 0.6710	 6.9650
 0.6720	 6.9660
 0.6730	 6.9780
 0.6740	 6.9960
 0.6750	 7.0180
 0.6760	 7.0400
 0.6770	 7.0690
 0.6780	 7.1090
 0.6790	 7.1530
 0.6800	 7.2090
 0.6810	 7.2770
 0.6820	 7.3500
 0.6830	 7.4310
 0.6840	 7.5290
 0.6850	 7.6440
 0.6860	 7.7800
 0.6870	 7.9410
 0.6880	 8.1330
 0.6890	 8.3670
 0.6900	 8.6490
 0.6910	 8.9860
 0.6920	 9.3780
 0.6930	 9.8360
 0.6940	10.3610
 0.6950	10.9500
 0.6960	11.6000
 0.6970	12.3010
 0.6980	13.0480
 0.6990	13.8460
 0.7000	14.6870
 0.7010	15.5600
 0.7020	16.4550
 0.7030	17.3750
 0.7040	18.3150
 0.7050	19.2650
 0.7060	20.2260
 0.7070	21.2010
 0.7080	22.1860
 0.7090	23.1820
 0.7100	24.1910
 0.7110	25.2150
 0.7120	26.2490
 0.7130	27.2880
 0.7140	28.3410
 0.7150	29.4080
 0.7160	30.4820
 0.7170	31.5630
 0.7180	32.6490
 0.7190	33.7400
 0.7200	34.8310
 0.7210	35.9190
 0.7220	37.0040
 0.7230	38.0830
 0.7240	39.1480
 0.7250	40.1950
 0.7260	41.2250
 0.7270	42.2380
 0.7280	43.2230
 0.7290	44.1800
 0.7300	45.1100
 0.7310	46.0150
 0.7320	46.8840
 0.7330	47.7210
 0.7340	48.5280
 0.7350	49.3020
 0.7360	50.0420
 0.7370	50.7450
 0.7380	51.4120
 0.7390	52.0490
 0.7400	52.6460
 0.7410	53.2090
 0.7420	53.7440
 0.7430	54.2400
 0.7440	54.7020
 0.7450	55.1330
 0.7460	55.5360
 0.7470	55.9040
 0.7480	56.2390
 0.7490	56.5470
 0.7500	56.8400
 0.7510	57.1000
 0.7520	57.3340
 0.7530	57.5540
 0.7540	57.7550
 0.7550	57.9390
 0.7560	58.1040
 0.7570	58.2480
 0.7580	58.3890
 0.7590	58.5180
 0.7600	58.6290
 0.7610	58.7320
 0.7620	58.8270
 0.7630	58.9130
 0.7640	58.9910
 0.7650	59.0570
 0.7660	59.1200
 0.7670	59.1770
 0.7680	59.2250
 0.7690	59.2730
 0.7700	59.3170
 0.7710	59.3570
 0.7720	59.4030
 0.7730	59.4370
 0.7740	59.4660
 0.7750	59.5010
 0.7760	59.5310
 0.7770	59.5640
 0.7780	59.5980
 0.7790	59.6290
 0.7800	59.6600
 0.7810	59.6870
 0.7820	59.7110
 0.7830	59.7410
 0.7840	59.7690
 0.7850	59.7960
 0.7860	59.8260
 0.7870	59.8520
 0.7880	59.8790
 0.7890	59.9010
 0.7900	59.9190
 0.7910	59.9440
 0.7920	59.9730
 0.7930	60.0020
 0.7940	60.0250
 0.7950	60.0460
 0.7960	60.0680
 0.7970	60.0900
 0.7980	60.1050
 0.7990	60.1260
 0.8000	60.1470
 0.8010	60.1640
 0.8020	60.1850
 0.8030	60.2040
 0.8040	60.2200
 0.8050	60.2350
 0.8060	60.2530
 0.8070	60.2700
 0.8080	60.2840
 0.8090	60.2940
 0.8100	60.3070
 0.8110	60.3240
 0.8120	60.3390
 0.8130	60.3500
 0.8140	60.3650
 0.8150	60.3830
 0.8160	60.3960
 0.8170	60.4100
 0.8180	60.4230
 0.8190	60.4380
 0.8200	60.4540
 0.8210	60.4670
 0.8220	60.4780
 0.8230	60.4890
 0.8240	60.5040
 0.8250	60.5210
 0.8260	60.5310
 0.8270	60.5350
 0.8280	60.5460
 0.8290	60.5580
 0.8300	60.5680
 0.8310	60.5750
 0.8320	60.5880
 0.8330	60.5970
 0.8340	60.6060
 0.8350	60.6210
 0.8360	60.6350
 0.8370	60.6450
 0.8380	60.6550
 0.8390	60.6740
 0.8400	60.7000
 0.8410	60.7220
 0.8420	60.7380
 0.8430	60.7520
 0.8440	60.7700
 0.8450	60.7870
 0.8460	60.8000
 0.8470	60.8240
 0.8480	60.8470
 0.8490	60.8670
 0.8500	60.8850
 0.8510	60.9080
 0.8520	60.9300
 0.8530	60.9490
 0.8540	60.9650
 0.8550	60.9810
 0.8560	60.9960
 0.8570	61.0130
 0.8580	61.0380
 0.8590	61.0440
 0.8600	61.0550
 0.8610	61.0820
 0.8620	61.0970
 0.8630	61.1080
 0.8640	61.1220
 0.8650	61.1390
 0.8660	61.1530
 0.8670	61.1640
 0.8680	61.1760
 0.8690	61.1920
 0.8700	61.2040
 0.8710	61.2140
 0.8720	61.2260
 0.8730	61.2390
 0.8740	61.2550
 0.8750	61.2640
 0.8760	61.2690
 0.8770	61.2830
 0.8780	61.2980
 0.8790	61.3080
 0.8800	61.3140
 0.8810	61.3290
 0.8820	61.3370
 0.8830	61.3410
 0.8840	61.3470
 0.8850	61.3460
 0.8860	61.3490
 0.8870	61.3510
 0.8880	61.3460
 0.8890	61.3500
 0.8900	61.3600
 0.8910	61.3650
 0.8920	61.3610
 0.8930	61.3590
 0.8940	61.3580
 0.8950	61.3570
 0.8960	61.3580
 0.8970	61.3530
 0.8980	61.3540
 0.8990	61.3600
 0.9000	61.3570
 0.9010	61.3530
 0.9020	61.3470
 0.9030	61.3430
 0.9040	61.3470
 0.9050	61.3490
 0.9060	61.3480
 0.9070	61.3420
 0.9080	61.3360
 0.9090	61.3270
 0.9100	61.3180
 0.9110	61.3110
 0.9120	61.3100
 0.9130	61.3050
 0.9140	61.2990
 0.9150	61.2970
 0.9160	61.2900
 0.9170	61.2800
 0.9180	61.2670
 0.9190	61.2560
 0.9200	61.2470
 0.9210	61.2300
 0.9220	61.2160
 0.9230	61.2200
 0.9240	61.2010
 0.9250	61.1850
 0.9260	61.1710
 0.9270	61.1390
 0.9280	61.1160
 0.9290	61.0940
 0.9300	61.0720
 0.9310	61.0510
 0.9320	61.0240
 0.9330	60.9930
 0.9340	60.9590
 0.9350	60.9200
 0.9360	60.8850
 0.9370	60.8450
 0.9380	60.7990
 0.9390	60.7570
 0.9400	60.7130
 0.9410	60.6560
 0.9420	60.5900
 0.9430	60.5390
 0.9440	60.4830
 0.9450	60.4120
 0.9460	60.3240
 0.9470	60.2360
 0.9480	60.1400
 0.9490	60.0420
 0.9500	59.9410
 0.9510	59.8080
 0.9520	59.6810
 0.9530	59.5530
 0.9540	59.4120
 0.9550	59.2780
 0.9560	59.1540
 0.9570	59.0350
 0.9580	58.9130
 0.9590	58.7930
 0.9600	58.6930
 0.9610	58.6060
 0.9620	58.5210
 0.9630	58.4320
 0.9640	58.3530
 0.9650	58.2930
 0.9660	58.2490
 0.9670	58.1950
 0.9680	58.1530
 0.9690	58.1170
 0.9700	58.0760
 0.9710	58.0430
 0.9720	58.0210
 0.9730	58.0000
 0.9740	57.9700
 0.9750	57.9350
 0.9760	57.9220
 0.9770	57.9260
 0.9780	57.9290
 0.9790	57.9230
 0.9800	57.9120
 0.9810	57.9050
 0.9820	57.9100
 0.9830	57.9270
 0.9840	57.9500
 0.9850	57.9700
 0.9860	57.9800
 0.9870	57.9990
 0.9880	58.0200
 0.9890	58.0530
 0.9900	58.1080
 0.9910	58.1610
 0.9920	58.2000
 0.9930	58.2310
 0.9940	58.2730
 0.9950	58.3500
 0.9960	58.3960
 0.9970	58.4270
 0.9980	58.4890
 0.9990	58.5590
 1.0000	58.6130
 1.0010	58.6670
 1.0020	58.7460
 1.0030	58.8040
 1.0040	58.8660
 1.0050	58.9290
 1.0060	58.9880
 1.0070	59.0470
 1.0080	59.1100
 1.0090	59.1700
 1.0100	59.2340
 1.0110	59.3080
 1.0120	59.3760
 1.0130	59.4410
 1.0140	59.5060
 1.0150	59.5690
 1.0160	59.6340
 1.0170	59.6950
 1.0180	59.7540
 1.0190	59.8170
 1.0200	59.8790
 1.0210	59.9440
 1.0220	60.0120
 1.0230	60.0770
 1.0240	60.1420
 1.0250	60.2040
 1.0260	60.2630
 1.0270	60.3230
 1.0280	60.3810
 1.0290	60.4400
 1.0300	60.4990
 1.0310	60.5590
 1.0320	60.6210
 1.0330	60.6790
 1.0340	60.7350
 1.0350	60.7890
 1.0360	60.8400
 1.0370	60.8930
 1.0380	60.9470
 1.0390	61.0070
 1.0400	61.0590
 1.0410	61.1050
 1.0420	61.1540
 1.0430	61.2010
 1.0440	61.2490
 1.0450	61.3030
 1.0460	61.3500
 1.0470	61.3920
 1.0480	61.4350
 1.0490	61.4740
 1.0500	61.5160
 1.0510	61.5600
 1.0520	61.6020
 1.0530	61.6460
 1.0540	61.6940
 1.0550	61.7350
 1.0560	61.7770
 1.0570	61.8120
 1.0580	61.8410
 1.0590	61.8730
 1.0600	61.9030
 1.0610	61.9340
 1.0620	61.9690
 1.0630	61.9970
 1.0640	62.0200
 1.0650	62.0440
 1.0660	62.0610
 1.0670	62.0830
 1.0680	62.1060
 1.0690	62.1340
 1.0700	62.1530
 1.0710	62.1740
 1.0720	62.1880
 1.0730	62.1930
 1.0740	62.2050
 1.0750	62.2190
 1.0760	62.2290
 1.0770	62.2380
 1.0780	62.2480
 1.0790	62.2560
 1.0800	62.2650
 1.0810	62.2800
 1.0820	62.2870
 1.0830	62.2920
 1.0840	62.2930
 1.0850	62.2890
 1.0860	62.2840
 1.0870	62.2790
 1.0880	62.2730
 1.0890	62.2650
 1.0900	62.2540
 1.0910	62.2460
 1.0920	62.2360
 1.0930	62.2260
 1.0940	62.2200
 1.0950	62.2070
 1.0960	62.1890
 1.0970	62.1720
 1.0980	62.1520
 1.0990	62.1320
 1.1000	62.1100
 1.1010	62.0880
 1.1020	62.0670
 1.1030	62.0410
 1.1040	62.0150
 1.1050	61.9890
 1.1060	61.9620
 1.1070	61.9320
 1.1080	61.9020
 1.1090	61.8710
 1.1100	61.8370
 1.1110	61.8030
 1.1120	61.7660
 1.1130	61.7290
 1.1140	61.6870
 1.1150	61.6440
 1.1160	61.5940
 1.1170	61.5410
 1.1180	61.4800
 1.1190	61.4120
 1.1200	61.3430
 1.1210	61.2650
 1.1220	61.1770
 1.1230	61.0840
 1.1240	60.9780
 1.1250	60.8620
 1.1260	60.7400
 1.1270	60.6000
 1.1280	60.4520
 1.1290	60.2840
 1.1300	60.1010
 1.1310	59.9010
 1.1320	59.6830
 1.1330	59.4550
 1.1340	59.2130
 1.1350	58.9560
 1.1360	58.6850
 1.1370	58.4010
 1.1380	58.1030
 1.1390	57.7960
 1.1400	57.4840
 1.1410	57.1690
 1.1420	56.8520
 1.1430	56.5330
 1.1440	56.2170
 1.1450	55.8990
 1.1460	55.5900
 1.1470	55.2800
 1.1480	54.9860
 1.1490	54.6960
 1.1500	54.4250
 1.1510	54.1670
 1.1520	53.9220
 1.1530	53.6890
 1.1540	53.4720
 1.1550	53.2690
 1.1560	53.0800
 1.1570	52.9050
 1.1580	52.7460
 1.1590	52.5970
 1.1600	52.4580
 1.1610	52.3300
 1.1620	52.2100
 1.1630	52.1010
 1.1640	52.0010
 1.1650	51.9060
 1.1660	51.8230
 1.1670	51.7420
 1.1680	51.6680
 1.1690	51.5940
 1.1700	51.5240
 1.1710	51.4560
 1.1720	51.3920
 1.1730	51.3270
 1.1740	51.2650
 1.1750	51.2040
 1.1760	51.1370
 1.1770	51.0690
 1.1780	51.0020
 1.1790	50.9310
 1.1800	50.8640
 1.1810	50.7980
 1.1820	50.7280
 1.1830	50.6580
 1.1840	50.5890
 1.1850	50.5190
 1.1860	50.4530
 1.1870	50.3910
 1.1880	50.3300
 1.1890	50.2710
 1.1900	50.2130
 1.1910	50.1560
 1.1920	50.1040
 1.1930	50.0540
 1.1940	50.0090
 1.1950	49.9670
 1.1960	49.9280
 1.1970	49.8980
 1.1980	49.8730
 1.1990	49.8530
 1.2000	49.8410
 1.2010	49.8330
 1.2020	49.8310
 1.2030	49.8410
 1.2040	49.8610
 1.2050	49.8900
 1.2060	49.9280
 1.2070	49.9710
 1.2080	50.0190
 1.2090	50.0730
 1.2100	50.1320
 1.2110	50.2000
 1.2120	50.2760
 1.2130	50.3560
 1.2140	50.4420
 1.2150	50.5310
 1.2160	50.6260
 1.2170	50.7230
 1.2180	50.8250
 1.2190	50.9330
 1.2200	51.0420
 1.2210	51.1540
 1.2220	51.2670
 1.2230	51.3760
 1.2240	51.4850
 1.2250	51.5920
 1.2260	51.6960
 1.2270	51.7980
 1.2280	51.8990
 1.2290	52.0000
 1.2300	52.0970
 1.2310	52.1900
 1.2320	52.2810
 1.2330	52.3680
 1.2340	52.4520
 1.2350	52.5360
 1.2360	52.6160
 1.2370	52.6920
 1.2380	52.7650
 1.2390	52.8370
 1.2400	52.9080
 1.2410	52.9780
 1.2420	53.0440
 1.2430	53.1090
 1.2440	53.1710
 1.2450	53.2300
 1.2460	53.2870
 1.2470	53.3420
 1.2480	53.3940
 1.2490	53.4430
 1.2500	53.4930
 1.2510	53.5410
 1.2520	53.5890
 1.2530	53.6330
 1.2540	53.6730
 1.2550	53.7100
 1.2560	53.7440
 1.2570	53.7790
 1.2580	53.8110
 1.2590	53.8420
 1.2600	53.8730
 1.2610	53.9000
 1.2620	53.9250
 1.2630	53.9470
 1.2640	53.9690
 1.2650	53.9880
 1.2660	54.0040
 1.2670	54.0200
 1.2680	54.0330
 1.2690	54.0410
 1.2700	54.0460
 1.2710	54.0510
 1.2720	54.0550
 1.2730	54.0570
 1.2740	54.0600
 1.2750	54.0600
 1.2760	54.0560
 1.2770	54.0490
 1.2780	54.0400
 1.2790	54.0260
 1.2800	54.0090
 1.2810	53.9910
 1.2820	53.9710
 1.2830	53.9480
 1.2840	53.9230
 1.2850	53.8950
 1.2860	53.8650
 1.2870	53.8290
 1.2880	53.7890
 1.2890	53.7460
 1.2900	53.6980
 1.2910	53.6470
 1.2920	53.5930
 1.2930	53.5350
 1.2940	53.4740
 1.2950	53.4040
 1.2960	53.3290
 1.2970	53.2520
 1.2980	53.1690
 1.2990	53.0840
 1.3000	52.9960
 1.3010	52.9000
 1.3020	52.7990
 1.3030	52.6940
 1.3040	52.5810
 1.3050	52.4660
 1.3060	52.3450
 1.3070	52.2160
 1.3080	52.0850
 1.3090	51.9480
 1.3100	51.8060
 1.3110	51.6590
 1.3120	51.5020
 1.3130	51.3410
 1.3140	51.1760
 1.3150	51.0050
 1.3160	50.8310
 1.3170	50.6540
 1.3180	50.4690
 1.3190	50.2750
 1.3200	50.0790
 1.3210	49.8760
 1.3220	49.6700
 1.3230	49.4620
 1.3240	49.2460
 1.3250	49.0280
 1.3260	48.8050
 1.3270	48.5790
 1.3280	48.3530
 1.3290	48.1240
 1.3300	47.8950
 1.3310	47.6650
 1.3320	47.4320
 1.3330	47.1990
 1.3340	46.9620
 1.3350	46.7250
 1.3360	46.4900
 1.3370	46.2550
 1.3380	46.0240
 1.3390	45.7940
 1.3400	45.5640
 1.3410	45.3430
 1.3420	45.1220
 1.3430	44.9040
 1.3440	44.6900
 1.3450	44.4780
 1.3460	44.2640
 1.3470	44.0580
 1.3480	43.8580
 1.3490	43.6600
 1.3500	43.4670
 1.3510	43.2760
 1.3520	43.0860
 1.3530	42.8970
 1.3540	42.7090
 1.3550	42.5220
 1.3560	42.3340
 1.3570	42.1460
 1.3580	41.9600
 1.3590	41.7700
 1.3600	41.5760
 1.3610	41.3790
 1.3620	41.1740
 1.3630	40.9640
 1.3640	40.7510
 1.3650	40.5300
 1.3660	40.3040
 1.3670	40.0690
 1.3680	39.8220
 1.3690	39.5660
 1.3700	39.2930
 1.3710	39.0090
 1.3720	38.7110
 1.3730	38.3940
 1.3740	38.0640
 1.3750	37.7130
 1.3760	37.3400
 1.3770	36.9470
 1.3780	36.5290
 1.3790	36.0890
 1.3800	35.6290
 1.3810	35.1440
 1.3820	34.6440
 1.3830	34.1260
 1.3840	33.5930
 1.3850	33.0410
 1.3860	32.4800
 1.3870	31.8980
 1.3880	31.3190
 1.3890	30.7310
 1.3900	30.1380
 1.3910	29.5500
 1.3920	28.9600
 1.3930	28.3690
 1.3940	27.7850
 1.3950	27.2020
 1.3960	26.6300
 1.3970	26.0700
 1.3980	25.5230
 1.3990	24.9980
 1.4000	24.4870
 1.4010	23.9890
 1.4020	23.5120
 1.4030	23.0500
 1.4040	22.6060
 1.4050	22.1830
 1.4060	21.7780
 1.4070	21.3980
 1.4080	21.0370
 1.4090	20.6920
 1.4100	20.3680
 1.4110	20.0600
 1.4120	19.7690
 1.4130	19.4980
 1.4140	19.2420
 1.4150	19.0060
 1.4160	18.7840
 1.4170	18.5740
 1.4180	18.3790
 1.4190	18.1950
 1.4200	18.0230
 1.4210	17.8640
 1.4220	17.7150
 1.4230	17.5770
 1.4240	17.4490
 1.4250	17.3280
 1.4260	17.2170
 1.4270	17.1140
 1.4280	17.0200
 1.4290	16.9320
 1.4300	16.8530
 1.4310	16.7790
 1.4320	16.7120
 1.4330	16.6510
 1.4340	16.5960
 1.4350	16.5450
 1.4360	16.5010
 1.4370	16.4620
 1.4380	16.4270
 1.4390	16.3970
 1.4400	16.3720
 1.4410	16.3500
 1.4420	16.3320
 1.4430	16.3170
 1.4440	16.3060
 1.4450	16.2970
 1.4460	16.2900
 1.4470	16.2880
 1.4480	16.2870
 1.4490	16.2890
 1.4500	16.2930
 1.4510	16.2980
 1.4520	16.3050
 1.4530	16.3130
 1.4540	16.3250
 1.4550	16.3390
 1.4560	16.3560
 1.4570	16.3750
 1.4580	16.3970
 1.4590	16.4220
 1.4600	16.4490
 1.4610	16.4790
 1.4620	16.5130
 1.4630	16.5520
 1.4640	16.5960
 1.4650	16.6430
 1.4660	16.6950
 1.4670	16.7500
 1.4680	16.8090
 1.4690	16.8750
