Name: Fagus grandifolia
Type: Vegetation
Class: Tree
Genus: Fagus
Species: grandifolia
Sample No.: FAGR-1-41
Owner: UCSB
Wavelength Range: TIR
Origin: USA; Massachusetts; Harvard Forest
Collection Date: 7/8/2013
Description: Samples were collected as part of NSF Macrosystem Biology proposal titled: Collaborative Research: Thermal controls on ecosystem metabolism and function: scaling from leaves to canopies to regions. Samples were collected and overnighted to JPL facilities for processing. The same leaves were processed in the Nicolet and then measured using the ASD.
Measurement: Hemispherical reflectance
First Column: X
Second Column: Y
X Units: Wavelength (micrometers)
Y Units: Reflectance (percentage)
First X Value: 2.501
Last X Value: 15.387
Number of X Values: 1737
Additional Information: vegetation.tree.fagus.grandifolia.tir.fagr-1-41.ucsb.nicolet.ancillary.txt

 2.5010	20.9300
 2.5030	20.7100
 2.5040	21.1460
 2.5050	20.8590
 2.5060	20.4690
 2.5070	20.4900
 2.5090	20.7530
 2.5100	20.8850
 2.5110	20.9060
 2.5120	20.6080
 2.5140	20.3800
 2.5150	20.3610
 2.5160	20.4190
 2.5170	20.5120
 2.5180	20.5840
 2.5200	20.3270
 2.5210	20.2190
 2.5220	20.1010
 2.5230	20.3530
 2.5250	20.4330
 2.5260	20.1290
 2.5270	20.0820
 2.5280	20.2850
 2.5290	20.4530
 2.5310	20.2510
 2.5320	19.9120
 2.5330	19.8680
 2.5340	20.0610
 2.5360	20.1400
 2.5370	20.1270
 2.5380	20.2040
 2.5390	20.1190
 2.5410	20.2000
 2.5420	20.3880
 2.5430	20.5570
 2.5440	20.3440
 2.5460	20.0490
 2.5470	20.1160
 2.5480	20.3920
 2.5490	20.5720
 2.5510	20.5480
 2.5520	20.3430
 2.5530	20.2380
 2.5540	20.2950
 2.5560	20.5460
 2.5570	20.7250
 2.5580	20.7050
 2.5590	20.6100
 2.5610	20.4490
 2.5620	20.3110
 2.5630	20.5320
 2.5640	20.5600
 2.5660	20.5270
 2.5670	20.5620
 2.5680	20.6310
 2.5700	20.4390
 2.5710	20.3160
 2.5720	20.5690
 2.5730	20.4970
 2.5750	20.3350
 2.5760	20.4600
 2.5770	20.3490
 2.5790	20.4340
 2.5800	20.4950
 2.5810	20.4660
 2.5820	20.5160
 2.5840	20.4000
 2.5850	20.1000
 2.5860	20.1660
 2.5880	20.3450
 2.5890	20.2650
 2.5900	20.0900
 2.5910	20.0910
 2.5930	20.0030
 2.5940	19.8380
 2.5950	19.5410
 2.5970	19.4840
 2.5980	19.4810
 2.5990	19.5570
 2.6000	19.4240
 2.6020	19.3030
 2.6030	19.1780
 2.6040	19.2450
 2.6060	18.9660
 2.6070	18.8530
 2.6080	18.8620
 2.6100	18.6370
 2.6110	18.4730
 2.6120	18.5270
 2.6140	18.3500
 2.6150	18.0890
 2.6160	17.8450
 2.6180	17.8670
 2.6190	17.7970
 2.6200	17.5610
 2.6220	17.3420
 2.6230	17.2210
 2.6240	17.0550
 2.6260	17.0990
 2.6270	17.0590
 2.6280	16.8850
 2.6300	16.3400
 2.6310	15.9070
 2.6320	15.8840
 2.6340	15.8390
 2.6350	15.7260
 2.6360	15.6280
 2.6380	15.2820
 2.6390	15.1290
 2.6400	15.0360
 2.6420	14.7460
 2.6430	14.6190
 2.6440	14.8490
 2.6460	14.6500
 2.6470	14.1430
 2.6480	13.8440
 2.6500	13.8470
 2.6510	13.7710
 2.6520	13.6000
 2.6540	13.4020
 2.6550	13.2260
 2.6560	12.9960
 2.6580	12.8770
 2.6590	12.5690
 2.6610	12.1960
 2.6620	11.8970
 2.6630	11.8420
 2.6650	11.6610
 2.6660	11.4080
 2.6670	11.0610
 2.6690	10.7890
 2.6700	10.5810
 2.6720	10.2970
 2.6730	10.2000
 2.6740	10.2220
 2.6760	 9.8580
 2.6770	 9.6620
 2.6780	 9.4810
 2.6800	 9.1760
 2.6810	 8.9910
 2.6830	 8.9240
 2.6840	 8.6590
 2.6850	 8.7180
 2.6870	 8.6780
 2.6880	 8.3840
 2.6900	 7.9480
 2.6910	 7.6690
 2.6920	 7.4650
 2.6940	 7.3430
 2.6950	 7.0800
 2.6970	 6.8200
 2.6980	 6.8090
 2.6990	 7.0320
 2.7010	 6.8580
 2.7020	 6.7450
 2.7040	 6.4900
 2.7050	 6.1880
 2.7060	 6.0390
 2.7080	 5.9030
 2.7090	 5.8970
 2.7110	 5.9120
 2.7120	 5.8540
 2.7130	 5.8690
 2.7150	 5.7180
 2.7160	 5.6790
 2.7180	 5.5350
 2.7190	 5.6240
 2.7210	 5.9180
 2.7220	 6.2630
 2.7230	 5.9660
 2.7250	 5.5540
 2.7260	 5.6400
 2.7280	 5.6320
 2.7290	 5.4620
 2.7310	 5.4860
 2.7320	 5.4910
 2.7330	 5.5750
 2.7350	 5.4330
 2.7360	 5.3920
 2.7380	 5.6050
 2.7390	 5.8130
 2.7410	 5.7220
 2.7420	 5.4050
 2.7440	 5.1130
 2.7450	 5.2380
 2.7470	 5.4360
 2.7480	 5.3870
 2.7490	 4.8380
 2.7510	 5.1120
 2.7520	 5.5050
 2.7540	 5.8870
 2.7550	 5.2090
 2.7570	 5.0200
 2.7580	 5.1250
 2.7600	 5.3530
 2.7610	 5.6190
 2.7630	 5.7930
 2.7640	 5.6310
 2.7660	 5.5100
 2.7670	 5.1070
 2.7680	 4.9280
 2.7700	 5.1260
 2.7710	 5.2980
 2.7730	 4.9570
 2.7740	 5.0640
 2.7760	 5.4180
 2.7770	 5.5340
 2.7790	 5.4740
 2.7800	 5.3220
 2.7820	 5.2850
 2.7830	 5.2340
 2.7850	 5.0890
 2.7860	 5.0230
 2.7880	 5.0950
 2.7890	 5.0620
 2.7910	 5.0900
 2.7920	 5.3100
 2.7940	 5.2500
 2.7950	 5.3520
 2.7970	 5.4140
 2.7980	 5.2890
 2.8000	 5.0960
 2.8010	 5.1370
 2.8030	 4.7930
 2.8040	 4.6330
 2.8060	 4.8000
 2.8070	 4.8930
 2.8090	 4.9140
 2.8110	 4.9700
 2.8120	 4.7040
 2.8140	 4.7880
 2.8150	 5.0850
 2.8170	 5.2570
 2.8180	 5.1380
 2.8200	 4.8710
 2.8210	 4.5120
 2.8230	 4.6080
 2.8240	 4.5400
 2.8260	 4.5600
 2.8270	 4.4610
 2.8290	 4.4870
 2.8300	 4.7170
 2.8320	 4.5060
 2.8340	 4.3320
 2.8350	 4.7540
 2.8370	 4.6230
 2.8380	 4.6150
 2.8400	 4.6250
 2.8410	 4.5670
 2.8430	 4.6540
 2.8440	 4.9210
 2.8460	 4.7240
 2.8480	 4.4610
 2.8490	 4.2700
 2.8510	 4.5010
 2.8520	 4.6530
 2.8540	 4.5210
 2.8550	 4.2960
 2.8570	 4.3980
 2.8590	 4.6860
 2.8600	 4.7660
 2.8620	 4.4100
 2.8630	 3.9960
 2.8650	 3.9770
 2.8660	 4.6860
 2.8680	 5.0020
 2.8700	 4.7170
 2.8710	 4.6470
 2.8730	 4.8760
 2.8740	 4.7520
 2.8760	 4.7080
 2.8780	 4.6470
 2.8790	 4.8000
 2.8810	 4.6880
 2.8820	 3.7450
 2.8840	 3.5850
 2.8860	 3.9900
 2.8870	 4.1180
 2.8890	 4.3180
 2.8900	 4.2220
 2.8920	 4.1900
 2.8940	 4.3760
 2.8950	 4.6350
 2.8970	 4.2860
 2.8980	 4.2330
 2.9000	 4.1220
 2.9020	 4.0030
 2.9030	 3.9440
 2.9050	 4.2700
 2.9070	 4.4510
 2.9080	 3.9740
 2.9100	 4.1010
 2.9120	 4.6010
 2.9130	 4.3360
 2.9150	 4.0860
 2.9160	 3.9890
 2.9180	 4.1390
 2.9200	 4.2200
 2.9210	 4.1310
 2.9230	 4.0830
 2.9250	 4.1440
 2.9260	 4.0820
 2.9280	 3.9990
 2.9300	 3.9220
 2.9310	 3.7740
 2.9330	 3.8270
 2.9350	 4.0660
 2.9360	 4.2290
 2.9380	 4.1560
 2.9400	 3.6600
 2.9410	 3.7190
 2.9430	 4.1390
 2.9450	 4.3740
 2.9460	 4.0500
 2.9480	 4.0120
 2.9500	 4.0070
 2.9510	 3.8870
 2.9530	 3.8090
 2.9550	 3.5200
 2.9560	 2.9160
 2.9580	 3.7110
 2.9600	 4.5880
 2.9610	 4.2580
 2.9630	 3.8250
 2.9650	 3.0870
 2.9660	 2.5340
 2.9680	 4.5650
 2.9700	 6.4490
 2.9720	 4.0370
 2.9730	 1.4130
 2.9750	 2.3380
 2.9770	 3.1330
 2.9780	 3.8090
 2.9800	 3.7550
 2.9820	 3.3750
 2.9840	 3.4600
 2.9850	 3.9540
 2.9870	 4.7980
 2.9890	 5.2730
 2.9900	 4.9150
 2.9920	 3.7860
 2.9940	 1.9760
 2.9960	 2.9950
 2.9970	 4.0540
 2.9990	 3.3660
 3.0010	 4.5860
 3.0030	 4.8940
 3.0040	 3.6910
 3.0060	 3.7900
 3.0080	 4.6380
 3.0100	 5.1240
 3.0110	 6.0460
 3.0130	 6.4430
 3.0150	 4.5050
 3.0170	 4.1090
 3.0180	 4.4830
 3.0200	 3.3810
 3.0220	 2.9480
 3.0240	 3.5820
 3.0250	 3.5770
 3.0270	 3.7860
 3.0290	 4.0220
 3.0310	 4.2640
 3.0320	 4.7510
 3.0340	 4.7880
 3.0360	 3.6910
 3.0380	 3.3540
 3.0400	 3.8060
 3.0410	 3.2800
 3.0430	 2.6500
 3.0450	 3.6560
 3.0470	 5.8980
 3.0480	 7.1040
 3.0500	 3.9370
 3.0520	 3.0240
 3.0540	 3.6360
 3.0560	 4.2580
 3.0570	 4.8750
 3.0590	 3.8470
 3.0610	 4.0050
 3.0630	 5.4410
 3.0650	 6.9370
 3.0660	 6.2100
 3.0680	 4.7110
 3.0700	 3.8430
 3.0720	 3.0930
 3.0740	 4.0300
 3.0760	 4.3700
 3.0770	 4.1280
 3.0790	 4.0450
 3.0810	 4.0960
 3.0830	 4.1000
 3.0850	 4.2750
 3.0870	 4.5440
 3.0880	 4.7880
 3.0900	 4.4600
 3.0920	 4.0570
 3.0940	 4.0300
 3.0960	 3.9930
 3.0980	 3.9140
 3.0990	 3.8920
 3.1010	 3.6490
 3.1030	 3.4710
 3.1050	 3.8190
 3.1070	 4.0010
 3.1090	 3.5360
 3.1110	 3.2540
 3.1120	 3.5940
 3.1140	 4.1550
 3.1160	 4.5660
 3.1180	 5.5340
 3.1200	 5.5600
 3.1220	 5.2490
 3.1240	 4.9820
 3.1260	 4.7390
 3.1270	 4.8560
 3.1290	 4.4350
 3.1310	 4.2390
 3.1330	 3.9170
 3.1350	 3.5840
 3.1370	 4.0410
 3.1390	 4.0170
 3.1410	 4.7630
 3.1430	 5.2060
 3.1450	 6.7480
 3.1460	 7.5450
 3.1480	 6.2340
 3.1500	 5.7110
 3.1520	 5.4220
 3.1540	 4.7320
 3.1560	 3.9180
 3.1580	 4.2810
 3.1600	 4.7600
 3.1620	 4.3350
 3.1640	 4.4380
 3.1660	 4.7390
 3.1680	 4.5950
 3.1700	 2.7560
 3.1710	 2.7990
 3.1730	 4.0330
 3.1750	 4.5340
 3.1770	 2.8480
 3.1790	 2.5180
 3.1810	 1.7300
 3.1830	 2.0930
 3.1850	 5.0410
 3.1870	 5.9090
 3.1890	 4.8770
 3.1910	 4.3440
 3.1930	 4.1830
 3.1950	 4.3130
 3.1970	 4.3200
 3.1990	 4.5420
 3.2010	 4.5830
 3.2030	 4.6290
 3.2050	 4.8400
 3.2070	 4.8020
 3.2090	 4.7130
 3.2110	 4.6310
 3.2130	 4.3370
 3.2150	 4.0030
 3.2170	 4.1140
 3.2190	 4.4850
 3.2210	 4.5250
 3.2230	 4.3150
 3.2250	 4.3820
 3.2270	 4.5430
 3.2290	 4.7200
 3.2310	 4.8000
 3.2330	 4.6100
 3.2350	 4.5760
 3.2370	 4.7680
 3.2390	 4.7510
 3.2410	 4.5890
 3.2430	 4.7290
 3.2450	 4.6570
 3.2470	 4.8160
 3.2490	 4.6550
 3.2510	 4.4180
 3.2530	 4.3710
 3.2550	 4.7650
 3.2570	 5.0240
 3.2590	 4.6530
 3.2610	 4.5580
 3.2630	 4.9850
 3.2650	 5.1720
 3.2670	 5.2520
 3.2690	 4.9740
 3.2720	 4.8110
 3.2740	 4.8820
 3.2760	 5.1010
 3.2780	 4.9840
 3.2800	 4.7350
 3.2820	 4.6220
 3.2840	 4.6910
 3.2860	 4.6980
 3.2880	 4.8010
 3.2900	 4.7930
 3.2920	 4.8180
 3.2940	 4.8810
 3.2960	 4.7970
 3.2990	 4.4790
 3.3010	 4.4950
 3.3030	 4.8290
 3.3050	 5.2960
 3.3070	 5.3230
 3.3090	 5.0270
 3.3110	 4.8590
 3.3130	 4.7110
 3.3150	 4.7320
 3.3180	 5.1420
 3.3200	 5.1120
 3.3220	 4.9560
 3.3240	 4.8620
 3.3260	 4.7410
 3.3280	 4.7340
 3.3300	 4.7940
 3.3330	 4.7930
 3.3350	 5.1060
 3.3370	 5.2950
 3.3390	 4.9440
 3.3410	 4.7790
 3.3430	 5.0310
 3.3450	 4.9300
 3.3480	 4.6390
 3.3500	 4.7590
 3.3520	 4.8700
 3.3540	 4.7990
 3.3560	 4.7540
 3.3580	 4.7360
 3.3610	 4.8470
 3.3630	 4.8490
 3.3650	 4.9450
 3.3670	 4.8650
 3.3690	 4.8070
 3.3720	 4.8470
 3.3740	 4.8610
 3.3760	 4.7880
 3.3780	 4.7220
 3.3800	 4.8290
 3.3830	 5.0250
 3.3850	 5.1830
 3.3870	 5.2140
 3.3890	 5.1400
 3.3910	 5.1610
 3.3940	 5.2140
 3.3960	 5.0450
 3.3980	 5.1040
 3.4000	 5.4760
 3.4020	 5.5530
 3.4050	 5.5080
 3.4070	 5.6320
 3.4090	 5.8310
 3.4110	 5.9020
 3.4140	 6.1430
 3.4160	 6.5240
 3.4180	 6.9060
 3.4200	 7.2010
 3.4230	 7.6980
 3.4250	 8.5260
 3.4270	 9.4130
 3.4290	 9.6920
 3.4320	 9.2720
 3.4340	 8.4200
 3.4360	 7.6500
 3.4390	 7.2170
 3.4410	 7.1590
 3.4430	 6.9170
 3.4450	 6.6800
 3.4480	 6.6690
 3.4500	 6.6850
 3.4520	 6.3900
 3.4550	 6.0700
 3.4570	 6.2230
 3.4590	 6.6480
 3.4620	 6.4070
 3.4640	 6.3390
 3.4660	 6.4000
 3.4680	 6.1320
 3.4710	 5.8060
 3.4730	 5.7430
 3.4750	 5.8320
 3.4780	 5.9350
 3.4800	 5.9190
 3.4820	 5.8110
 3.4850	 5.8640
 3.4870	 6.1000
 3.4890	 6.0330
 3.4920	 5.8740
 3.4940	 5.8860
 3.4970	 6.0140
 3.4990	 6.0230
 3.5010	 6.2250
 3.5040	 6.6990
 3.5060	 7.3610
 3.5080	 8.1140
 3.5110	 8.8460
 3.5130	 8.7650
 3.5160	 8.0890
 3.5180	 7.4970
 3.5200	 7.2080
 3.5230	 6.9700
 3.5250	 6.6130
 3.5270	 6.2830
 3.5300	 6.3200
 3.5320	 6.5460
 3.5350	 6.6590
 3.5370	 6.5890
 3.5400	 6.4510
 3.5420	 6.4780
 3.5440	 6.5800
 3.5470	 6.4470
 3.5490	 6.3770
 3.5520	 6.6620
 3.5540	 6.8310
 3.5570	 6.6870
 3.5590	 6.6290
 3.5610	 6.5180
 3.5640	 6.5460
 3.5660	 6.6340
 3.5690	 6.6530
 3.5710	 6.5760
 3.5740	 6.5570
 3.5760	 6.5230
 3.5790	 6.6470
 3.5810	 6.6750
 3.5840	 6.6750
 3.5860	 6.7920
 3.5890	 6.9010
 3.5910	 6.9770
 3.5930	 6.7870
 3.5960	 6.6220
 3.5980	 6.5620
 3.6010	 6.4390
 3.6030	 6.6910
 3.6060	 6.9220
 3.6080	 7.0680
 3.6110	 7.0930
 3.6140	 6.9580
 3.6160	 6.8980
 3.6190	 6.9730
 3.6210	 7.1110
 3.6240	 7.2580
 3.6260	 7.3450
 3.6290	 7.3540
 3.6310	 7.4730
 3.6340	 7.5360
 3.6360	 7.2970
 3.6390	 7.2450
 3.6410	 7.3280
 3.6440	 7.5970
 3.6470	 7.6640
 3.6490	 7.6110
 3.6520	 7.5620
 3.6540	 7.6050
 3.6570	 7.6910
 3.6590	 7.7020
 3.6620	 7.6300
 3.6650	 7.6770
 3.6670	 7.6920
 3.6700	 7.7280
 3.6720	 7.8770
 3.6750	 7.9920
 3.6780	 7.9480
 3.6800	 7.9840
 3.6830	 8.0320
 3.6850	 8.1970
 3.6880	 8.3070
 3.6910	 8.3600
 3.6930	 8.3280
 3.6960	 8.2890
 3.6990	 8.2130
 3.7010	 8.3720
 3.7040	 8.3770
 3.7060	 8.3530
 3.7090	 8.4280
 3.7120	 8.6400
 3.7140	 8.6050
 3.7170	 8.4970
 3.7200	 8.5980
 3.7220	 8.8790
 3.7250	 9.0550
 3.7280	 8.9330
 3.7300	 8.6080
 3.7330	 8.8560
 3.7360	 9.2050
 3.7390	 9.2690
 3.7410	 8.9820
 3.7440	 8.8580
 3.7470	 8.9890
 3.7490	 9.2990
 3.7520	 9.3550
 3.7550	 9.3710
 3.7580	 9.4640
 3.7600	 9.4060
 3.7630	 9.4260
 3.7660	 9.6030
 3.7680	 9.7270
 3.7710	 9.6710
 3.7740	 9.4700
 3.7770	 9.5180
 3.7790	 9.8180
 3.7820	 9.8970
 3.7850	 9.8040
 3.7880	 9.8690
 3.7900	 9.9720
 3.7930	10.1170
 3.7960	10.1340
 3.7990	 9.9950
 3.8020	10.1080
 3.8040	10.3490
 3.8070	10.3750
 3.8100	10.3220
 3.8130	10.3550
 3.8160	10.5940
 3.8180	10.5040
 3.8210	10.5410
 3.8240	10.7740
 3.8270	10.7020
 3.8300	10.4770
 3.8330	10.3520
 3.8350	10.4340
 3.8380	10.6410
 3.8410	10.5900
 3.8440	10.6270
 3.8470	10.8200
 3.8500	10.9770
 3.8520	11.1900
 3.8550	11.1550
 3.8580	10.9620
 3.8610	10.9960
 3.8640	11.0240
 3.8670	11.0840
 3.8700	11.0770
 3.8730	10.9730
 3.8750	10.9670
 3.8780	11.0920
 3.8810	11.1520
 3.8840	11.1410
 3.8870	11.1710
 3.8900	11.2880
 3.8930	11.2680
 3.8960	11.2230
 3.8990	11.1170
 3.9020	11.1400
 3.9050	11.0310
 3.9080	11.0240
 3.9110	11.2770
 3.9140	11.4610
 3.9160	11.3010
 3.9190	11.1260
 3.9220	11.1570
 3.9250	11.3060
 3.9280	11.4190
 3.9310	11.3780
 3.9340	11.2740
 3.9370	11.2320
 3.9400	11.2320
 3.9430	11.2320
 3.9460	11.1640
 3.9490	11.2330
 3.9520	11.3000
 3.9550	11.3180
 3.9580	11.3730
 3.9610	11.3270
 3.9640	11.1730
 3.9670	11.1750
 3.9700	11.1780
 3.9730	11.1770
 3.9770	11.2160
 3.9800	11.2210
 3.9830	11.1010
 3.9860	11.1130
 3.9890	11.1470
 3.9920	11.1160
 3.9950	11.1480
 3.9980	11.1290
 4.0010	11.0840
 4.0040	11.1660
 4.0070	11.1720
 4.0100	11.1500
 4.0130	11.1150
 4.0170	11.0690
 4.0200	11.1330
 4.0230	11.1600
 4.0260	11.0890
 4.0290	10.9690
 4.0320	10.9010
 4.0350	10.9480
 4.0380	10.9950
 4.0420	11.0890
 4.0450	11.0880
 4.0480	11.1290
 4.0510	11.1790
 4.0540	11.0390
 4.0570	10.8580
 4.0610	10.8880
 4.0640	10.8900
 4.0670	10.8500
 4.0700	10.9380
 4.0730	10.9930
 4.0770	11.0700
 4.0800	11.0330
 4.0830	11.0480
 4.0860	11.0280
 4.0890	10.9140
 4.0930	10.8170
 4.0960	10.7410
 4.0990	10.7640
 4.1020	10.6880
 4.1060	10.6190
 4.1090	10.5990
 4.1120	10.6100
 4.1150	10.8000
 4.1190	10.6870
 4.1220	10.6070
 4.1250	10.7150
 4.1280	10.5390
 4.1320	10.3420
 4.1350	10.2660
 4.1380	10.3230
 4.1420	10.3210
 4.1450	10.3740
 4.1480	10.4450
 4.1520	10.3590
 4.1550	10.2720
 4.1580	10.1980
 4.1620	10.1260
 4.1650	10.1210
 4.1680	10.1440
 4.1720	10.1470
 4.1750	10.0550
 4.1780	 9.9620
 4.1820	 9.9760
 4.1850	10.0340
 4.1890	10.0220
 4.1920	 9.9220
 4.1950	 9.7690
 4.1990	 9.7870
 4.2020	 9.7690
 4.2060	 9.6250
 4.2090	 9.5210
 4.2120	 9.6200
 4.2160	 9.7560
 4.2190	 9.8910
 4.2230	 9.5390
 4.2260	 9.4670
 4.2300	 9.7720
 4.2330	 9.6010
 4.2360	 9.1910
 4.2400	 9.0940
 4.2430	 8.9080
 4.2470	 8.8940
 4.2500	 9.1640
 4.2540	 9.2650
 4.2570	 9.1470
 4.2610	 9.2560
 4.2640	 9.0990
 4.2680	 8.7890
 4.2710	 8.8120
 4.2750	 8.7810
 4.2780	 8.6590
 4.2820	 8.7390
 4.2850	 8.8230
 4.2890	 8.6810
 4.2930	 8.4710
 4.2960	 8.4240
 4.3000	 8.5440
 4.3030	 8.3240
 4.3070	 8.2100
 4.3100	 8.2510
 4.3140	 8.1470
 4.3180	 8.1690
 4.3210	 8.2490
 4.3250	 8.2770
 4.3280	 8.1900
 4.3320	 8.2000
 4.3360	 8.1110
 4.3390	 8.0660
 4.3430	 7.9880
 4.3470	 7.8810
 4.3500	 7.8580
 4.3540	 7.8440
 4.3570	 7.8670
 4.3610	 7.8480
 4.3650	 7.7440
 4.3680	 7.7200
 4.3720	 7.6790
 4.3760	 7.5660
 4.3800	 7.4620
 4.3830	 7.5640
 4.3870	 7.5470
 4.3910	 7.4640
 4.3940	 7.5120
 4.3980	 7.4830
 4.4020	 7.3790
 4.4060	 7.3870
 4.4090	 7.3480
 4.4130	 7.2650
 4.4170	 7.1640
 4.4210	 7.1080
 4.4240	 7.1060
 4.4280	 7.1240
 4.4320	 7.2120
 4.4360	 7.2100
 4.4400	 7.1030
 4.4430	 7.0420
 4.4470	 6.9410
 4.4510	 6.8680
 4.4550	 6.8860
 4.4590	 6.8900
 4.4620	 6.8880
 4.4660	 6.9790
 4.4700	 6.9470
 4.4740	 6.9480
 4.4780	 6.8680
 4.4820	 6.7800
 4.4860	 6.6830
 4.4900	 6.5070
 4.4930	 6.4680
 4.4970	 6.5410
 4.5010	 6.5490
 4.5050	 6.5100
 4.5090	 6.5280
 4.5130	 6.4170
 4.5170	 6.3430
 4.5210	 6.3610
 4.5250	 6.2940
 4.5290	 6.2930
 4.5330	 6.3200
 4.5370	 6.3700
 4.5410	 6.3000
 4.5450	 6.1810
 4.5490	 6.1610
 4.5530	 6.2670
 4.5570	 6.2520
 4.5610	 6.1470
 4.5650	 6.1130
 4.5690	 6.1780
 4.5730	 6.2190
 4.5770	 6.2130
 4.5810	 6.0770
 4.5850	 5.9830
 4.5890	 6.0490
 4.5930	 6.0610
 4.5970	 6.0400
 4.6010	 6.0490
 4.6050	 5.7710
 4.6090	 5.6420
 4.6130	 5.7370
 4.6170	 5.7550
 4.6220	 5.9600
 4.6260	 6.2410
 4.6300	 6.1410
 4.6340	 5.9290
 4.6380	 5.8990
 4.6420	 5.8920
 4.6460	 5.8450
 4.6510	 5.7230
 4.6550	 5.7810
 4.6590	 5.8410
 4.6630	 5.8420
 4.6670	 5.8290
 4.6720	 5.8630
 4.6760	 5.9370
 4.6800	 5.9090
 4.6840	 5.7670
 4.6880	 5.6910
 4.6930	 5.7830
 4.6970	 5.8490
 4.7010	 5.8400
 4.7050	 5.6850
 4.7100	 5.6060
 4.7140	 5.7130
 4.7180	 5.7490
 4.7230	 5.6440
 4.7270	 5.6000
 4.7310	 5.6100
 4.7360	 5.6710
 4.7400	 5.6040
 4.7440	 5.5540
 4.7490	 5.6890
 4.7530	 5.7630
 4.7570	 5.6390
 4.7620	 5.5360
 4.7660	 5.6330
 4.7700	 5.7310
 4.7750	 5.7140
 4.7790	 5.9360
 4.7840	 6.1060
 4.7880	 5.8470
 4.7920	 5.5210
 4.7970	 5.6500
 4.8010	 5.8720
 4.8060	 5.8460
 4.8100	 5.7550
 4.8150	 5.6620
 4.8190	 5.7780
 4.8240	 5.7650
 4.8280	 5.7200
 4.8330	 5.7170
 4.8370	 5.7850
 4.8420	 5.8060
 4.8460	 5.8270
 4.8510	 5.8500
 4.8550	 5.8350
 4.8600	 5.8280
 4.8640	 5.8300
 4.8690	 5.8420
 4.8730	 5.8890
 4.8780	 5.8970
 4.8830	 5.8970
 4.8870	 5.9410
 4.8920	 6.0530
 4.8960	 6.0550
 4.9010	 5.9980
 4.9060	 5.9510
 4.9100	 5.9430
 4.9150	 5.9560
 4.9200	 6.0160
 4.9240	 6.0360
 4.9290	 6.0950
 4.9340	 6.1680
 4.9380	 6.1940
 4.9430	 6.2590
 4.9480	 6.2500
 4.9530	 6.2470
 4.9570	 6.2950
 4.9620	 6.3640
 4.9670	 6.3720
 4.9720	 6.3640
 4.9760	 6.3770
 4.9810	 6.4670
 4.9860	 6.5320
 4.9910	 6.4800
 4.9960	 6.4270
 5.0000	 6.4540
 5.0050	 6.6210
 5.0100	 6.6950
 5.0150	 6.7490
 5.0200	 6.7840
 5.0250	 6.8360
 5.0290	 6.8120
 5.0340	 6.8240
 5.0390	 6.9100
 5.0440	 6.9870
 5.0490	 7.0370
 5.0540	 7.0590
 5.0590	 7.0240
 5.0640	 7.0240
 5.0690	 7.1110
 5.0740	 7.2750
 5.0790	 7.3160
 5.0840	 7.2410
 5.0890	 7.1610
 5.0940	 7.2210
 5.0990	 7.2520
 5.1040	 7.3440
 5.1090	 7.3810
 5.1140	 7.3970
 5.1190	 7.4560
 5.1240	 7.5140
 5.1290	 7.5200
 5.1340	 7.5090
 5.1390	 7.5510
 5.1440	 7.7960
 5.1490	 7.8200
 5.1540	 7.7180
 5.1600	 7.5960
 5.1650	 7.8280
 5.1700	 7.8940
 5.1750	 7.7630
 5.1800	 7.6660
 5.1850	 7.7900
 5.1910	 7.9520
 5.1960	 7.9510
 5.2010	 7.9600
 5.2060	 8.0860
 5.2110	 8.0350
 5.2170	 7.9890
 5.2220	 8.0620
 5.2270	 8.0200
 5.2320	 7.8830
 5.2380	 7.9280
 5.2430	 8.0230
 5.2480	 8.0280
 5.2540	 8.0400
 5.2590	 7.9430
 5.2640	 7.9220
 5.2700	 8.1860
 5.2750	 8.1930
 5.2800	 8.1380
 5.2860	 8.1220
 5.2910	 8.1150
 5.2970	 8.0720
 5.3020	 8.0300
 5.3070	 8.1130
 5.3130	 8.2380
 5.3180	 8.2010
 5.3240	 8.1570
 5.3290	 8.0620
 5.3350	 7.9580
 5.3400	 7.8920
 5.3460	 8.0550
 5.3510	 8.0640
 5.3570	 8.0170
 5.3620	 8.0300
 5.3680	 7.9950
 5.3730	 7.8710
 5.3790	 7.8960
 5.3850	 7.8810
 5.3900	 7.8840
 5.3960	 7.7860
 5.4010	 7.8210
 5.4070	 7.8230
 5.4130	 7.8070
 5.4180	 7.7510
 5.4240	 7.6580
 5.4300	 7.6450
 5.4350	 7.5850
 5.4410	 7.5020
 5.4470	 7.4650
 5.4530	 7.4010
