Name: Pinus lambertiana 1
Type: vegetation
Class: Tree
Genus: Pinus
Species: lambertiana
Sample No.: VH051
Owner: UCSB
Wavelength Range: VSWIR
Origin: 37.043; -119.3043; WGS84
Collection Date: 4/20/2013
Description: Samples were collected as part of the HyspIRI Airborne Campaign. 48 individual plants were sampled in three times in 2013 - spring  summer  and fall. The name of the sample includes a 1  2  or 3 which references a different individual of the species. Samples were taken to JPL and processed within 48 hours of collection. The same leaves were processed in the Nicolet and then measured using the ASD.
Measurement: Bidirectional reflectance
First Column: X
Second Column: Y
X Units: Wavelength (micrometers)
Y Units: Reflectance (percentage)
First X Value: 0.35
Last X Value: 2.5
Number of X Values: 2151
Additional Information: vegetation.tree.pinus.lambertiana.vswir.vh051.ucsb.asd.ancillary.txt

 0.3500	 4.4530
 0.3510	 4.4230
 0.3520	 4.4220
 0.3530	 4.3910
 0.3540	 4.3030
 0.3550	 4.2200
 0.3560	 4.2440
 0.3570	 4.2910
 0.3580	 4.2120
 0.3590	 4.1910
 0.3600	 4.1990
 0.3610	 4.1820
 0.3620	 4.0720
 0.3630	 4.1240
 0.3640	 4.2200
 0.3650	 4.1860
 0.3660	 4.0220
 0.3670	 3.9900
 0.3680	 4.1090
 0.3690	 4.2110
 0.3700	 4.1560
 0.3710	 4.1140
 0.3720	 4.1710
 0.3730	 4.1790
 0.3740	 4.1530
 0.3750	 4.1170
 0.3760	 4.0870
 0.3770	 3.9980
 0.3780	 3.9740
 0.3790	 4.0160
 0.3800	 4.0140
 0.3810	 4.0200
 0.3820	 4.0530
 0.3830	 4.1100
 0.3840	 4.1480
 0.3850	 4.1520
 0.3860	 4.1220
 0.3870	 4.0710
 0.3880	 4.0370
 0.3890	 4.0350
 0.3900	 4.0450
 0.3910	 4.0150
 0.3920	 4.0120
 0.3930	 3.9820
 0.3940	 3.9090
 0.3950	 3.9480
 0.3960	 3.9700
 0.3970	 3.9740
 0.3980	 4.0050
 0.3990	 3.9670
 0.4000	 3.9420
 0.4010	 3.9720
 0.4020	 4.0170
 0.4030	 4.0460
 0.4040	 4.0500
 0.4050	 4.0350
 0.4060	 4.0380
 0.4070	 4.0660
 0.4080	 4.0970
 0.4090	 4.0930
 0.4100	 4.0990
 0.4110	 4.1390
 0.4120	 4.2010
 0.4130	 4.2120
 0.4140	 4.2330
 0.4150	 4.2560
 0.4160	 4.2660
 0.4170	 4.3110
 0.4180	 4.3620
 0.4190	 4.4030
 0.4200	 4.4370
 0.4210	 4.4740
 0.4220	 4.5190
 0.4230	 4.5710
 0.4240	 4.6080
 0.4250	 4.6470
 0.4260	 4.6830
 0.4270	 4.7050
 0.4280	 4.7370
 0.4290	 4.7670
 0.4300	 4.7930
 0.4310	 4.8250
 0.4320	 4.8500
 0.4330	 4.8670
 0.4340	 4.8830
 0.4350	 4.9240
 0.4360	 4.9600
 0.4370	 4.9810
 0.4380	 4.9960
 0.4390	 5.0190
 0.4400	 5.0380
 0.4410	 5.0510
 0.4420	 5.0800
 0.4430	 5.0990
 0.4440	 5.1060
 0.4450	 5.1120
 0.4460	 5.1360
 0.4470	 5.1570
 0.4480	 5.1670
 0.4490	 5.1820
 0.4500	 5.2000
 0.4510	 5.2160
 0.4520	 5.2310
 0.4530	 5.2500
 0.4540	 5.2610
 0.4550	 5.2670
 0.4560	 5.2770
 0.4570	 5.2920
 0.4580	 5.3090
 0.4590	 5.3220
 0.4600	 5.3310
 0.4610	 5.3390
 0.4620	 5.3450
 0.4630	 5.3460
 0.4640	 5.3510
 0.4650	 5.3490
 0.4660	 5.3430
 0.4670	 5.3550
 0.4680	 5.3650
 0.4690	 5.3720
 0.4700	 5.3760
 0.4710	 5.3830
 0.4720	 5.3860
 0.4730	 5.3860
 0.4740	 5.3900
 0.4750	 5.3980
 0.4760	 5.4050
 0.4770	 5.4100
 0.4780	 5.4090
 0.4790	 5.4110
 0.4800	 5.4180
 0.4810	 5.4300
 0.4820	 5.4270
 0.4830	 5.4260
 0.4840	 5.4330
 0.4850	 5.4420
 0.4860	 5.4520
 0.4870	 5.4600
 0.4880	 5.4670
 0.4890	 5.4880
 0.4900	 5.5040
 0.4910	 5.5140
 0.4920	 5.5290
 0.4930	 5.5480
 0.4940	 5.5760
 0.4950	 5.6080
 0.4960	 5.6240
 0.4970	 5.6610
 0.4980	 5.7110
 0.4990	 5.7560
 0.5000	 5.8040
 0.5010	 5.8490
 0.5020	 5.8970
 0.5030	 5.9550
 0.5040	 6.0200
 0.5050	 6.0950
 0.5060	 6.1830
 0.5070	 6.2880
 0.5080	 6.3950
 0.5090	 6.5040
 0.5100	 6.6250
 0.5110	 6.7550
 0.5120	 6.8940
 0.5130	 7.0470
 0.5140	 7.2170
 0.5150	 7.3900
 0.5160	 7.5730
 0.5170	 7.7720
 0.5180	 7.9650
 0.5190	 8.1640
 0.5200	 8.3750
 0.5210	 8.6030
 0.5220	 8.8240
 0.5230	 9.0340
 0.5240	 9.2370
 0.5250	 9.4450
 0.5260	 9.6470
 0.5270	 9.8400
 0.5280	10.0260
 0.5290	10.1970
 0.5300	10.3620
 0.5310	10.5210
 0.5320	10.6620
 0.5330	10.7960
 0.5340	10.9270
 0.5350	11.0500
 0.5360	11.1640
 0.5370	11.2690
 0.5380	11.3670
 0.5390	11.4620
 0.5400	11.5530
 0.5410	11.6380
 0.5420	11.7170
 0.5430	11.7930
 0.5440	11.8730
 0.5450	11.9530
 0.5460	12.0290
 0.5470	12.1080
 0.5480	12.1830
 0.5490	12.2490
 0.5500	12.3080
 0.5510	12.3610
 0.5520	12.4050
 0.5530	12.4360
 0.5540	12.4580
 0.5550	12.4630
 0.5560	12.4500
 0.5570	12.4260
 0.5580	12.3920
 0.5590	12.3510
 0.5600	12.3010
 0.5610	12.2410
 0.5620	12.1740
 0.5630	12.1020
 0.5640	12.0240
 0.5650	11.9380
 0.5660	11.8420
 0.5670	11.7360
 0.5680	11.6220
 0.5690	11.5050
 0.5700	11.3860
 0.5710	11.2660
 0.5720	11.1390
 0.5730	11.0180
 0.5740	10.9070
 0.5750	10.8050
 0.5760	10.7120
 0.5770	10.6230
 0.5780	10.5350
 0.5790	10.4500
 0.5800	10.3750
 0.5810	10.3070
 0.5820	10.2390
 0.5830	10.1700
 0.5840	10.1020
 0.5850	10.0400
 0.5860	 9.9830
 0.5870	 9.9290
 0.5880	 9.8830
 0.5890	 9.8460
 0.5900	 9.8150
 0.5910	 9.7890
 0.5920	 9.7650
 0.5930	 9.7350
 0.5940	 9.7110
 0.5950	 9.6900
 0.5960	 9.6670
 0.5970	 9.6440
 0.5980	 9.6230
 0.5990	 9.6020
 0.6000	 9.5790
 0.6010	 9.5450
 0.6020	 9.5090
 0.6030	 9.4710
 0.6040	 9.4260
 0.6050	 9.3730
 0.6060	 9.3150
 0.6070	 9.2520
 0.6080	 9.1840
 0.6090	 9.1140
 0.6100	 9.0390
 0.6110	 8.9540
 0.6120	 8.8770
 0.6130	 8.8040
 0.6140	 8.7310
 0.6150	 8.6570
 0.6160	 8.5880
 0.6170	 8.5250
 0.6180	 8.4640
 0.6190	 8.4090
 0.6200	 8.3620
 0.6210	 8.3230
 0.6220	 8.2870
 0.6230	 8.2550
 0.6240	 8.2310
 0.6250	 8.2130
 0.6260	 8.1990
 0.6270	 8.1860
 0.6280	 8.1790
 0.6290	 8.1770
 0.6300	 8.1750
 0.6310	 8.1690
 0.6320	 8.1600
 0.6330	 8.1500
 0.6340	 8.1310
 0.6350	 8.1040
 0.6360	 8.0710
 0.6370	 8.0220
 0.6380	 7.9650
 0.6390	 7.9000
 0.6400	 7.8200
 0.6410	 7.7350
 0.6420	 7.6490
 0.6430	 7.5600
 0.6440	 7.4630
 0.6450	 7.3680
 0.6460	 7.2760
 0.6470	 7.1870
 0.6480	 7.1030
 0.6490	 7.0300
 0.6500	 6.9680
 0.6510	 6.9080
 0.6520	 6.8600
 0.6530	 6.8140
 0.6540	 6.7630
 0.6550	 6.7090
 0.6560	 6.6540
 0.6570	 6.5940
 0.6580	 6.5250
 0.6590	 6.4490
 0.6600	 6.3690
 0.6610	 6.2900
 0.6620	 6.2100
 0.6630	 6.1380
 0.6640	 6.0710
 0.6650	 6.0060
 0.6660	 5.9480
 0.6670	 5.8990
 0.6680	 5.8590
 0.6690	 5.8260
 0.6700	 5.7980
 0.6710	 5.7790
 0.6720	 5.7680
 0.6730	 5.7590
 0.6740	 5.7560
 0.6750	 5.7580
 0.6760	 5.7650
 0.6770	 5.7760
 0.6780	 5.7910
 0.6790	 5.8120
 0.6800	 5.8420
 0.6810	 5.8810
 0.6820	 5.9320
 0.6830	 5.9970
 0.6840	 6.0860
 0.6850	 6.1980
 0.6860	 6.3380
 0.6870	 6.5140
 0.6880	 6.7430
 0.6890	 7.0290
 0.6900	 7.3780
 0.6910	 7.7930
 0.6920	 8.2790
 0.6930	 8.8370
 0.6940	 9.4630
 0.6950	10.1490
 0.6960	10.8910
 0.6970	11.6840
 0.6980	12.5220
 0.6990	13.3900
 0.7000	14.2870
 0.7010	15.2090
 0.7020	16.1430
 0.7030	17.0870
 0.7040	18.0360
 0.7050	18.9830
 0.7060	19.9220
 0.7070	20.8600
 0.7080	21.7940
 0.7090	22.7220
 0.7100	23.6420
 0.7110	24.5570
 0.7120	25.4670
 0.7130	26.3710
 0.7140	27.2640
 0.7150	28.1490
 0.7160	29.0300
 0.7170	29.9080
 0.7180	30.7690
 0.7190	31.6160
 0.7200	32.4610
 0.7210	33.2920
 0.7220	34.1060
 0.7230	34.9000
 0.7240	35.6790
 0.7250	36.4420
 0.7260	37.1820
 0.7270	37.8940
 0.7280	38.5870
 0.7290	39.2580
 0.7300	39.9000
 0.7310	40.5100
 0.7320	41.0980
 0.7330	41.6610
 0.7340	42.1990
 0.7350	42.7130
 0.7360	43.2030
 0.7370	43.6660
 0.7380	44.1000
 0.7390	44.5230
 0.7400	44.9200
 0.7410	45.2930
 0.7420	45.6490
 0.7430	45.9790
 0.7440	46.2910
 0.7450	46.5870
 0.7460	46.8630
 0.7470	47.1230
 0.7480	47.3660
 0.7490	47.5910
 0.7500	47.8040
 0.7510	47.9990
 0.7520	48.1790
 0.7530	48.3480
 0.7540	48.5070
 0.7550	48.6530
 0.7560	48.7890
 0.7570	48.9180
 0.7580	49.0360
 0.7590	49.1460
 0.7600	49.2520
 0.7610	49.3490
 0.7620	49.4380
 0.7630	49.5240
 0.7640	49.6100
 0.7650	49.6850
 0.7660	49.7590
 0.7670	49.8320
 0.7680	49.8960
 0.7690	49.9530
 0.7700	50.0100
 0.7710	50.0690
 0.7720	50.1230
 0.7730	50.1770
 0.7740	50.2280
 0.7750	50.2740
 0.7760	50.3240
 0.7770	50.3730
 0.7780	50.4180
 0.7790	50.4600
 0.7800	50.4940
 0.7810	50.5350
 0.7820	50.5860
 0.7830	50.6340
 0.7840	50.6700
 0.7850	50.7060
 0.7860	50.7500
 0.7870	50.7910
 0.7880	50.8250
 0.7890	50.8600
 0.7900	50.9070
 0.7910	50.9410
 0.7920	50.9680
 0.7930	50.9980
 0.7940	51.0370
 0.7950	51.0740
 0.7960	51.1050
 0.7970	51.1330
 0.7980	51.1640
 0.7990	51.2010
 0.8000	51.2360
 0.8010	51.2620
 0.8020	51.2890
 0.8030	51.3190
 0.8040	51.3460
 0.8050	51.3680
 0.8060	51.4000
 0.8070	51.4300
 0.8080	51.4560
 0.8090	51.4850
 0.8100	51.5090
 0.8110	51.5290
 0.8120	51.5500
 0.8130	51.5810
 0.8140	51.6100
 0.8150	51.6370
 0.8160	51.6610
 0.8170	51.6810
 0.8180	51.7020
 0.8190	51.7220
 0.8200	51.7410
 0.8210	51.7620
 0.8220	51.7860
 0.8230	51.8100
 0.8240	51.8240
 0.8250	51.8420
 0.8260	51.8580
 0.8270	51.8710
 0.8280	51.8880
 0.8290	51.9030
 0.8300	51.9190
 0.8310	51.9370
 0.8320	51.9420
 0.8330	51.9530
 0.8340	51.9700
 0.8350	51.9870
 0.8360	52.0060
 0.8370	52.0270
 0.8380	52.0490
 0.8390	52.0720
 0.8400	52.0910
 0.8410	52.1110
 0.8420	52.1340
 0.8430	52.1570
 0.8440	52.1830
 0.8450	52.2050
 0.8460	52.2230
 0.8470	52.2460
 0.8480	52.2710
 0.8490	52.2960
 0.8500	52.3200
 0.8510	52.3430
 0.8520	52.3650
 0.8530	52.3850
 0.8540	52.4020
 0.8550	52.4250
 0.8560	52.4500
 0.8570	52.4730
 0.8580	52.4940
 0.8590	52.5170
 0.8600	52.5390
 0.8610	52.5570
 0.8620	52.5770
 0.8630	52.5930
 0.8640	52.6100
 0.8650	52.6310
 0.8660	52.6470
 0.8670	52.6640
 0.8680	52.6820
 0.8690	52.7000
 0.8700	52.7150
 0.8710	52.7320
 0.8720	52.7490
 0.8730	52.7640
 0.8740	52.7870
 0.8750	52.8050
 0.8760	52.8170
 0.8770	52.8310
 0.8780	52.8440
 0.8790	52.8560
 0.8800	52.8670
 0.8810	52.8790
 0.8820	52.8960
 0.8830	52.9130
 0.8840	52.9220
 0.8850	52.9180
 0.8860	52.9250
 0.8870	52.9370
 0.8880	52.9450
 0.8890	52.9600
 0.8900	52.9620
 0.8910	52.9580
 0.8920	52.9600
 0.8930	52.9600
 0.8940	52.9590
 0.8950	52.9620
 0.8960	52.9710
 0.8970	52.9760
 0.8980	52.9730
 0.8990	52.9680
 0.9000	52.9680
 0.9010	52.9640
 0.9020	52.9600
 0.9030	52.9610
 0.9040	52.9720
 0.9050	52.9790
 0.9060	52.9780
 0.9070	52.9710
 0.9080	52.9690
 0.9090	52.9580
 0.9100	52.9480
 0.9110	52.9480
 0.9120	52.9490
 0.9130	52.9460
 0.9140	52.9430
 0.9150	52.9430
 0.9160	52.9330
 0.9170	52.9210
 0.9180	52.9150
 0.9190	52.9210
 0.9200	52.9180
 0.9210	52.8990
 0.9220	52.8730
 0.9230	52.8520
 0.9240	52.8370
 0.9250	52.8210
 0.9260	52.8000
 0.9270	52.7700
 0.9280	52.7420
 0.9290	52.7150
 0.9300	52.6820
 0.9310	52.6310
 0.9320	52.5880
 0.9330	52.5450
 0.9340	52.4960
 0.9350	52.4410
 0.9360	52.3960
 0.9370	52.3470
 0.9380	52.2850
 0.9390	52.2220
 0.9400	52.1570
 0.9410	52.1000
 0.9420	52.0490
 0.9430	51.9750
 0.9440	51.8960
 0.9450	51.8020
 0.9460	51.6940
 0.9470	51.6150
 0.9480	51.5030
 0.9490	51.3760
 0.9500	51.2530
 0.9510	51.0970
 0.9520	50.9510
 0.9530	50.8110
 0.9540	50.6640
 0.9550	50.5000
 0.9560	50.3490
 0.9570	50.2100
 0.9580	50.0740
 0.9590	49.9570
 0.9600	49.8510
 0.9610	49.7430
 0.9620	49.6280
 0.9630	49.5210
 0.9640	49.4460
 0.9650	49.3900
 0.9660	49.3300
 0.9670	49.2680
 0.9680	49.2150
 0.9690	49.1770
 0.9700	49.1550
 0.9710	49.1360
 0.9720	49.0890
 0.9730	49.0380
 0.9740	49.0200
 0.9750	49.0040
 0.9760	48.9790
 0.9770	48.9550
 0.9780	48.9500
 0.9790	48.9600
 0.9800	48.9760
 0.9810	48.9940
 0.9820	49.0120
 0.9830	49.0190
 0.9840	49.0550
 0.9850	49.0960
 0.9860	49.1000
 0.9870	49.1210
 0.9880	49.1630
 0.9890	49.2120
 0.9900	49.2540
 0.9910	49.3460
 0.9920	49.3850
 0.9930	49.4230
 0.9940	49.4610
 0.9950	49.5000
 0.9960	49.5380
 0.9970	49.5760
 0.9980	49.6140
 0.9990	49.6530
 1.0000	49.6910
 1.0010	49.7290
 1.0020	49.7680
 1.0030	49.8060
 1.0040	49.8440
 1.0050	49.8830
 1.0060	49.9210
 1.0070	49.9590
 1.0080	49.9970
 1.0090	50.0360
 1.0100	50.0360
 1.0110	50.1050
 1.0120	50.1800
 1.0130	50.2540
 1.0140	50.3280
 1.0150	50.4030
 1.0160	50.4830
 1.0170	50.5540
 1.0180	50.6210
 1.0190	50.6960
 1.0200	50.7710
 1.0210	50.8410
 1.0220	50.9150
 1.0230	50.9870
 1.0240	51.0540
 1.0250	51.1250
 1.0260	51.2020
 1.0270	51.2710
 1.0280	51.3360
 1.0290	51.3990
 1.0300	51.4560
 1.0310	51.5180
 1.0320	51.5790
 1.0330	51.6440
 1.0340	51.7130
 1.0350	51.7730
 1.0360	51.8280
 1.0370	51.8860
 1.0380	51.9430
 1.0390	51.9990
 1.0400	52.0550
 1.0410	52.1140
 1.0420	52.1660
 1.0430	52.2130
 1.0440	52.2620
 1.0450	52.3080
 1.0460	52.3560
 1.0470	52.4060
 1.0480	52.4530
 1.0490	52.5000
 1.0500	52.5440
 1.0510	52.5840
 1.0520	52.6250
 1.0530	52.6640
 1.0540	52.7000
 1.0550	52.7390
 1.0560	52.7820
 1.0570	52.8180
 1.0580	52.8500
 1.0590	52.8840
 1.0600	52.9140
 1.0610	52.9460
 1.0620	52.9810
 1.0630	53.0140
 1.0640	53.0480
 1.0650	53.0780
 1.0660	53.1060
 1.0670	53.1310
 1.0680	53.1550
 1.0690	53.1720
 1.0700	53.1920
 1.0710	53.2120
 1.0720	53.2320
 1.0730	53.2520
 1.0740	53.2690
 1.0750	53.2870
 1.0760	53.3010
 1.0770	53.3090
 1.0780	53.3180
 1.0790	53.3260
 1.0800	53.3320
 1.0810	53.3410
 1.0820	53.3450
 1.0830	53.3460
 1.0840	53.3450
 1.0850	53.3410
 1.0860	53.3340
 1.0870	53.3290
 1.0880	53.3240
 1.0890	53.3170
 1.0900	53.3100
 1.0910	53.3010
 1.0920	53.2910
 1.0930	53.2760
 1.0940	53.2580
 1.0950	53.2410
 1.0960	53.2210
 1.0970	53.2000
 1.0980	53.1800
 1.0990	53.1570
 1.1000	53.1310
 1.1010	53.1040
 1.1020	53.0800
 1.1030	53.0520
 1.1040	53.0160
 1.1050	52.9810
 1.1060	52.9480
 1.1070	52.9140
 1.1080	52.8770
 1.1090	52.8420
 1.1100	52.8020
 1.1110	52.7560
 1.1120	52.7100
 1.1130	52.6680
 1.1140	52.6160
 1.1150	52.5590
 1.1160	52.4980
 1.1170	52.4320
 1.1180	52.3580
 1.1190	52.2800
 1.1200	52.1940
 1.1210	52.1000
 1.1220	51.9980
 1.1230	51.8880
 1.1240	51.7670
 1.1250	51.6330
 1.1260	51.4870
 1.1270	51.3270
 1.1280	51.1560
 1.1290	50.9690
 1.1300	50.7670
 1.1310	50.5510
 1.1320	50.3210
 1.1330	50.0760
 1.1340	49.8160
 1.1350	49.5430
 1.1360	49.2540
 1.1370	48.9500
 1.1380	48.6380
 1.1390	48.3150
 1.1400	47.9830
 1.1410	47.6530
 1.1420	47.3180
 1.1430	46.9820
 1.1440	46.6500
 1.1450	46.3150
 1.1460	45.9930
 1.1470	45.6720
 1.1480	45.3680
 1.1490	45.0690
 1.1500	44.7920
 1.1510	44.5250
 1.1520	44.2770
 1.1530	44.0470
 1.1540	43.8330
 1.1550	43.6330
 1.1560	43.4510
 1.1570	43.2870
 1.1580	43.1360
 1.1590	43.0010
 1.1600	42.8800
 1.1610	42.7690
 1.1620	42.6700
 1.1630	42.5810
 1.1640	42.5020
 1.1650	42.4310
 1.1660	42.3710
 1.1670	42.3130
 1.1680	42.2640
 1.1690	42.2150
 1.1700	42.1680
 1.1710	42.1250
 1.1720	42.0860
 1.1730	42.0460
 1.1740	42.0080
 1.1750	41.9700
 1.1760	41.9320
 1.1770	41.8890
 1.1780	41.8470
 1.1790	41.8050
 1.1800	41.7590
 1.1810	41.7140
 1.1820	41.6680
 1.1830	41.6210
 1.1840	41.5750
 1.1850	41.5270
 1.1860	41.4810
 1.1870	41.4390
 1.1880	41.4000
 1.1890	41.3630
 1.1900	41.3310
 1.1910	41.3010
 1.1920	41.2750
 1.1930	41.2510
 1.1940	41.2320
 1.1950	41.2150
 1.1960	41.2030
 1.1970	41.1970
 1.1980	41.1950
 1.1990	41.1980
 1.2000	41.2050
 1.2010	41.2160
 1.2020	41.2300
 1.2030	41.2490
 1.2040	41.2730
 1.2050	41.2980
 1.2060	41.3290
 1.2070	41.3650
 1.2080	41.4020
 1.2090	41.4470
 1.2100	41.4960
 1.2110	41.5470
 1.2120	41.6020
 1.2130	41.6600
 1.2140	41.7220
 1.2150	41.7870
 1.2160	41.8560
 1.2170	41.9290
 1.2180	42.0040
 1.2190	42.0810
 1.2200	42.1590
 1.2210	42.2400
 1.2220	42.3190
 1.2230	42.3990
 1.2240	42.4790
 1.2250	42.5590
 1.2260	42.6390
 1.2270	42.7170
 1.2280	42.7940
 1.2290	42.8680
 1.2300	42.9400
 1.2310	43.0100
 1.2320	43.0800
 1.2330	43.1480
 1.2340	43.2150
 1.2350	43.2820
 1.2360	43.3470
 1.2370	43.4110
 1.2380	43.4730
 1.2390	43.5340
 1.2400	43.5900
 1.2410	43.6440
 1.2420	43.6990
 1.2430	43.7530
 1.2440	43.8060
 1.2450	43.8570
 1.2460	43.9040
 1.2470	43.9490
 1.2480	43.9930
 1.2490	44.0360
 1.2500	44.0770
 1.2510	44.1150
 1.2520	44.1540
 1.2530	44.1900
 1.2540	44.2250
 1.2550	44.2600
 1.2560	44.2910
 1.2570	44.3210
 1.2580	44.3490
 1.2590	44.3740
 1.2600	44.3970
 1.2610	44.4180
 1.2620	44.4380
 1.2630	44.4570
 1.2640	44.4730
 1.2650	44.4840
 1.2660	44.4920
 1.2670	44.4970
 1.2680	44.5010
 1.2690	44.5070
 1.2700	44.5070
 1.2710	44.5030
 1.2720	44.5000
 1.2730	44.4920
 1.2740	44.4820
 1.2750	44.4700
 1.2760	44.4550
 1.2770	44.4410
 1.2780	44.4240
 1.2790	44.4050
 1.2800	44.3820
 1.2810	44.3540
 1.2820	44.3260
 1.2830	44.2970
 1.2840	44.2630
 1.2850	44.2280
 1.2860	44.1890
 1.2870	44.1460
 1.2880	44.1010
 1.2890	44.0540
 1.2900	44.0030
 1.2910	43.9460
 1.2920	43.8870
 1.2930	43.8230
 1.2940	43.7550
 1.2950	43.6840
 1.2960	43.6090
 1.2970	43.5330
 1.2980	43.4510
 1.2990	43.3610
 1.3000	43.2680
 1.3010	43.1690
 1.3020	43.0650
 1.3030	42.9560
 1.3040	42.8390
 1.3050	42.7170
 1.3060	42.5900
 1.3070	42.4580
 1.3080	42.3230
 1.3090	42.1830
 1.3100	42.0360
 1.3110	41.8820
 1.3120	41.7220
 1.3130	41.5570
 1.3140	41.3850
 1.3150	41.2090
 1.3160	41.0270
 1.3170	40.8420
 1.3180	40.6500
 1.3190	40.4530
 1.3200	40.2490
 1.3210	40.0380
 1.3220	39.8230
 1.3230	39.6050
 1.3240	39.3830
 1.3250	39.1580
 1.3260	38.9280
 1.3270	38.6930
 1.3280	38.4570
 1.3290	38.2190
 1.3300	37.9800
 1.3310	37.7390
 1.3320	37.4940
 1.3330	37.2490
 1.3340	37.0050
 1.3350	36.7620
 1.3360	36.5210
 1.3370	36.2800
 1.3380	36.0400
 1.3390	35.8010
 1.3400	35.5640
 1.3410	35.3320
 1.3420	35.1030
 1.3430	34.8770
 1.3440	34.6570
 1.3450	34.4400
 1.3460	34.2250
 1.3470	34.0150
 1.3480	33.8090
 1.3490	33.6070
 1.3500	33.4100
 1.3510	33.2160
 1.3520	33.0250
 1.3530	32.8350
 1.3540	32.6470
 1.3550	32.4610
 1.3560	32.2750
 1.3570	32.0890
 1.3580	31.9050
 1.3590	31.7170
 1.3600	31.5280
 1.3610	31.3370
 1.3620	31.1400
 1.3630	30.9390
 1.3640	30.7320
 1.3650	30.5180
 1.3660	30.2990
 1.3670	30.0710
 1.3680	29.8340
 1.3690	29.5870
 1.3700	29.3260
 1.3710	29.0550
 1.3720	28.7700
 1.3730	28.4680
 1.3740	28.1560
 1.3750	27.8280
 1.3760	27.4810
 1.3770	27.1170
 1.3780	26.7300
 1.3790	26.3240
 1.3800	25.9020
 1.3810	25.4600
 1.3820	25.0060
 1.3830	24.5380
 1.3840	24.0590
 1.3850	23.5650
 1.3860	23.0670
 1.3870	22.5560
 1.3880	22.0480
 1.3890	21.5350
 1.3900	21.0210
 1.3910	20.5150
 1.3920	20.0110
 1.3930	19.5120
 1.3940	19.0240
 1.3950	18.5400
 1.3960	18.0690
 1.3970	17.6150
 1.3980	17.1730
 1.3990	16.7520
 1.4000	16.3470
 1.4010	15.9570
 1.4020	15.5870
 1.4030	15.2310
 1.4040	14.8930
 1.4050	14.5740
 1.4060	14.2720
 1.4070	13.9890
 1.4080	13.7250
 1.4090	13.4760
 1.4100	13.2440
 1.4110	13.0260
 1.4120	12.8230
 1.4130	12.6350
 1.4140	12.4590
 1.4150	12.2980
 1.4160	12.1490
 1.4170	12.0110
 1.4180	11.8830
 1.4190	11.7650
 1.4200	11.6560
 1.4210	11.5550
 1.4220	11.4620
 1.4230	11.3780
 1.4240	11.3020
 1.4250	11.2300
 1.4260	11.1660
 1.4270	11.1060
 1.4280	11.0510
 1.4290	11.0010
 1.4300	10.9580
 1.4310	10.9180
 1.4320	10.8830
 1.4330	10.8520
 1.4340	10.8250
 1.4350	10.8010
 1.4360	10.7800
 1.4370	10.7640
 1.4380	10.7490
 1.4390	10.7370
 1.4400	10.7280
 1.4410	10.7210
 1.4420	10.7170
 1.4430	10.7150
 1.4440	10.7140
 1.4450	10.7150
 1.4460	10.7180
 1.4470	10.7220
 1.4480	10.7270
 1.4490	10.7330
 1.4500	10.7390
 1.4510	10.7470
 1.4520	10.7570
 1.4530	10.7680
 1.4540	10.7790
 1.4550	10.7910
 1.4560	10.8050
 1.4570	10.8210
 1.4580	10.8380
 1.4590	10.8570
 1.4600	10.8770
 1.4610	10.9000
 1.4620	10.9260
 1.4630	10.9530
 1.4640	10.9840
 1.4650	11.0170
 1.4660	11.0540
 1.4670	11.0940
 1.4680	11.1370
 1.4690	11.1810
 1.4700	11.2280
