Name: Podocarpus gracilior
Type: vegetation
Class: Tree
Genus: Podocarpus
Species: gracilior
Sample No.: JPL188
Owner: JPL
Wavelength Range: TIR
Origin: 34.12605; -118.11517; WGS84
Collection Date: 10/3/2016
Description: Samples were collected at the Huntington Garden in San Marino California as part of a JPL Subcontract studying HyTES imagery. Samples were taken to JPL and processed within 48 hours of collection. The same leaves were processed in the Nicolet and then measured using the ASD.
Measurement: Hemispherical reflectance
First Column: X
Second Column: Y
X Units: Wavelength (micrometer)
Y Units: Reflectance (percentage)
First X Value: 2.501
Last X Value: 15.387
Number of X Values: 1737
Additional Information: vegetation.tree.podocarpus.gracilior.tir.jpl188.jpl.nicolet.ancillary.txt

 2.5010	11.5540
 2.5030	11.4160
 2.5040	11.4000
 2.5050	11.4990
 2.5060	11.4260
 2.5070	11.3300
 2.5090	11.3750
 2.5100	11.3890
 2.5110	11.3640
 2.5120	11.3180
 2.5140	11.3210
 2.5150	11.3220
 2.5160	11.3120
 2.5170	11.2320
 2.5180	11.1800
 2.5200	11.1360
 2.5210	11.1860
 2.5220	11.2390
 2.5230	11.3120
 2.5250	11.3250
 2.5260	11.3070
 2.5270	11.2000
 2.5280	11.1580
 2.5300	11.2310
 2.5310	11.2630
 2.5320	11.2090
 2.5330	11.1910
 2.5340	11.1550
 2.5360	11.1650
 2.5370	11.1080
 2.5380	11.1080
 2.5390	11.1320
 2.5410	11.1900
 2.5420	11.1560
 2.5430	11.1140
 2.5440	11.1520
 2.5460	11.2490
 2.5470	11.1990
 2.5480	11.2130
 2.5490	11.2470
 2.5510	11.2430
 2.5520	11.2280
 2.5530	11.2050
 2.5540	11.1610
 2.5560	11.2300
 2.5570	11.2320
 2.5580	11.2490
 2.5590	11.2510
 2.5610	11.2160
 2.5620	11.1730
 2.5630	11.1750
 2.5650	11.1880
 2.5660	11.2760
 2.5670	11.2400
 2.5680	11.1900
 2.5700	11.2080
 2.5710	11.2450
 2.5720	11.1680
 2.5730	11.1780
 2.5750	11.2460
 2.5760	11.2430
 2.5770	11.1750
 2.5790	11.2360
 2.5800	11.2000
 2.5810	11.1570
 2.5820	11.1070
 2.5840	11.0930
 2.5850	11.0310
 2.5860	11.0170
 2.5880	11.0450
 2.5890	11.1110
 2.5900	11.0220
 2.5910	10.9660
 2.5930	10.9430
 2.5940	10.8860
 2.5950	10.7610
 2.5970	10.8300
 2.5980	10.8980
 2.5990	10.9670
 2.6010	10.9480
 2.6020	10.9100
 2.6030	10.8170
 2.6040	10.7100
 2.6060	10.6320
 2.6070	10.6900
 2.6080	10.6990
 2.6100	10.7020
 2.6110	10.6720
 2.6120	10.6100
 2.6140	10.5490
 2.6150	10.6160
 2.6160	10.4760
 2.6180	10.3650
 2.6190	10.3630
 2.6200	10.3080
 2.6220	10.2850
 2.6230	10.3920
 2.6240	10.3970
 2.6260	10.3270
 2.6270	10.2090
 2.6280	10.1980
 2.6300	10.0780
 2.6310	10.0000
 2.6320	10.0280
 2.6340	10.0150
 2.6350	 9.9970
 2.6360	10.0070
 2.6380	 9.9010
 2.6390	 9.8280
 2.6400	 9.8040
 2.6420	 9.7990
 2.6430	 9.6960
 2.6440	 9.6710
 2.6460	 9.6170
 2.6470	 9.5740
 2.6480	 9.4800
 2.6500	 9.4610
 2.6510	 9.4550
 2.6520	 9.4170
 2.6540	 9.3340
 2.6550	 9.3310
 2.6570	 9.2630
 2.6580	 9.2500
 2.6590	 9.2090
 2.6610	 9.1280
 2.6620	 9.0310
 2.6630	 9.0260
 2.6650	 8.9150
 2.6660	 8.8910
 2.6670	 8.8460
 2.6690	 8.7790
 2.6700	 8.6740
 2.6720	 8.6660
 2.6730	 8.6570
 2.6740	 8.6470
 2.6760	 8.5560
 2.6770	 8.5130
 2.6780	 8.4700
 2.6800	 8.4870
 2.6810	 8.4270
 2.6830	 8.3080
 2.6840	 8.1730
 2.6850	 8.2130
 2.6870	 8.2520
 2.6880	 8.2550
 2.6900	 8.1890
 2.6910	 8.1700
 2.6920	 8.0880
 2.6940	 7.9900
 2.6950	 7.9440
 2.6970	 7.9540
 2.6980	 7.9640
 2.6990	 7.9380
 2.7010	 7.8310
 2.7020	 7.7960
 2.7040	 7.7310
 2.7050	 7.7360
 2.7060	 7.7080
 2.7080	 7.7160
 2.7090	 7.7050
 2.7110	 7.6870
 2.7120	 7.6330
 2.7130	 7.6550
 2.7150	 7.6890
 2.7160	 7.7430
 2.7180	 7.6420
 2.7190	 7.5600
 2.7210	 7.4550
 2.7220	 7.4720
 2.7230	 7.4380
 2.7250	 7.4520
 2.7260	 7.4700
 2.7280	 7.4850
 2.7290	 7.5370
 2.7310	 7.6080
 2.7320	 7.5830
 2.7340	 7.5230
 2.7350	 7.4620
 2.7360	 7.5280
 2.7380	 7.5570
 2.7390	 7.4970
 2.7410	 7.4180
 2.7420	 7.4850
 2.7440	 7.5260
 2.7450	 7.5190
 2.7470	 7.4940
 2.7480	 7.5400
 2.7490	 7.5100
 2.7510	 7.5260
 2.7520	 7.5500
 2.7540	 7.5730
 2.7550	 7.5110
 2.7570	 7.5410
 2.7580	 7.5330
 2.7600	 7.5410
 2.7610	 7.4360
 2.7630	 7.4240
 2.7640	 7.4860
 2.7660	 7.5260
 2.7670	 7.5010
 2.7690	 7.5330
 2.7700	 7.4830
 2.7720	 7.4870
 2.7730	 7.5070
 2.7740	 7.4960
 2.7760	 7.5400
 2.7770	 7.6230
 2.7790	 7.5590
 2.7800	 7.5180
 2.7820	 7.5130
 2.7830	 7.5670
 2.7850	 7.5150
 2.7860	 7.5090
 2.7880	 7.4690
 2.7890	 7.5260
 2.7910	 7.5460
 2.7920	 7.6380
 2.7940	 7.5980
 2.7950	 7.5620
 2.7970	 7.5230
 2.7980	 7.5190
 2.8000	 7.5220
 2.8010	 7.5370
 2.8030	 7.5030
 2.8040	 7.5040
 2.8060	 7.5230
 2.8080	 7.5360
 2.8090	 7.5370
 2.8110	 7.5980
 2.8120	 7.5830
 2.8140	 7.5310
 2.8150	 7.4170
 2.8170	 7.4610
 2.8180	 7.4940
 2.8200	 7.5320
 2.8210	 7.5490
 2.8230	 7.5820
 2.8240	 7.5630
 2.8260	 7.6090
 2.8270	 7.5870
 2.8290	 7.5550
 2.8310	 7.5490
 2.8320	 7.5970
 2.8340	 7.5940
 2.8350	 7.5940
 2.8370	 7.5330
 2.8380	 7.5220
 2.8400	 7.5110
 2.8410	 7.5840
 2.8430	 7.5870
 2.8440	 7.5540
 2.8460	 7.4890
 2.8480	 7.5000
 2.8490	 7.4970
 2.8510	 7.5580
 2.8520	 7.5280
 2.8540	 7.5170
 2.8550	 7.5040
 2.8570	 7.6150
 2.8590	 7.5730
 2.8600	 7.5390
 2.8620	 7.4770
 2.8630	 7.5150
 2.8650	 7.6080
 2.8660	 7.6490
 2.8680	 7.5730
 2.8700	 7.6140
 2.8710	 7.5850
 2.8730	 7.5990
 2.8740	 7.5390
 2.8760	 7.5230
 2.8780	 7.5030
 2.8790	 7.5410
 2.8810	 7.5790
 2.8820	 7.6010
 2.8840	 7.5680
 2.8860	 7.5940
 2.8870	 7.6000
 2.8890	 7.6400
 2.8900	 7.5890
 2.8920	 7.5740
 2.8940	 7.5480
 2.8950	 7.5210
 2.8970	 7.5220
 2.8990	 7.6020
 2.9000	 7.6310
 2.9020	 7.6280
 2.9030	 7.5420
 2.9050	 7.5820
 2.9070	 7.6900
 2.9080	 7.6510
 2.9100	 7.5620
 2.9120	 7.6020
 2.9130	 7.5800
 2.9150	 7.6120
 2.9160	 7.6440
 2.9180	 7.5990
 2.9200	 7.4610
 2.9210	 7.5060
 2.9230	 7.5190
 2.9250	 7.5140
 2.9260	 7.5140
 2.9280	 7.5860
 2.9300	 7.6250
 2.9310	 7.5870
 2.9330	 7.5180
 2.9350	 7.5250
 2.9360	 7.5430
 2.9380	 7.5580
 2.9400	 7.5730
 2.9410	 7.6260
 2.9430	 7.5900
 2.9450	 7.5940
 2.9460	 7.5690
 2.9480	 7.5790
 2.9500	 7.5740
 2.9510	 7.5900
 2.9530	 7.6010
 2.9550	 7.6260
 2.9560	 7.5950
 2.9580	 7.6420
 2.9600	 7.6570
 2.9610	 7.6630
 2.9630	 7.6460
 2.9650	 7.6410
 2.9670	 7.6470
 2.9680	 7.6400
 2.9700	 7.5860
 2.9720	 7.5980
 2.9730	 7.5950
 2.9750	 7.6740
 2.9770	 7.6340
 2.9780	 7.5620
 2.9800	 7.5080
 2.9820	 7.5510
 2.9840	 7.5600
 2.9850	 7.5530
 2.9870	 7.5220
 2.9890	 7.5440
 2.9900	 7.5720
 2.9920	 7.5870
 2.9940	 7.5510
 2.9960	 7.5660
 2.9970	 7.5700
 2.9990	 7.6000
 3.0010	 7.5780
 3.0030	 7.6220
 3.0040	 7.6610
 3.0060	 7.6650
 3.0080	 7.5800
 3.0100	 7.5960
 3.0110	 7.6140
 3.0130	 7.6000
 3.0150	 7.5680
 3.0170	 7.5580
 3.0180	 7.5270
 3.0200	 7.5550
 3.0220	 7.5590
 3.0240	 7.5520
 3.0250	 7.5190
 3.0270	 7.5400
 3.0290	 7.5440
 3.0310	 7.6080
 3.0320	 7.5750
 3.0340	 7.5860
 3.0360	 7.6170
 3.0380	 7.6330
 3.0400	 7.5710
 3.0410	 7.5600
 3.0430	 7.5600
 3.0450	 7.5490
 3.0470	 7.5190
 3.0480	 7.5900
 3.0500	 7.6130
 3.0520	 7.5880
 3.0540	 7.5530
 3.0560	 7.5720
 3.0570	 7.5410
 3.0590	 7.5530
 3.0610	 7.5220
 3.0630	 7.5680
 3.0650	 7.5750
 3.0670	 7.5580
 3.0680	 7.5410
 3.0700	 7.5090
 3.0720	 7.4940
 3.0740	 7.5530
 3.0760	 7.5200
 3.0770	 7.5030
 3.0790	 7.4540
 3.0810	 7.4970
 3.0830	 7.5380
 3.0850	 7.5620
 3.0870	 7.5240
 3.0880	 7.5260
 3.0900	 7.4780
 3.0920	 7.4800
 3.0940	 7.4760
 3.0960	 7.4560
 3.0980	 7.4720
 3.1000	 7.5360
 3.1010	 7.5160
 3.1030	 7.4960
 3.1050	 7.4580
 3.1070	 7.5240
 3.1090	 7.5230
 3.1110	 7.5150
 3.1130	 7.5220
 3.1140	 7.5140
 3.1160	 7.5110
 3.1180	 7.5070
 3.1200	 7.4630
 3.1220	 7.4780
 3.1240	 7.4700
 3.1260	 7.4740
 3.1280	 7.4410
 3.1290	 7.4470
 3.1310	 7.4160
 3.1330	 7.5040
 3.1350	 7.5120
 3.1370	 7.4700
 3.1390	 7.4850
 3.1410	 7.5250
 3.1430	 7.4510
 3.1450	 7.4350
 3.1470	 7.4350
 3.1480	 7.4410
 3.1500	 7.4120
 3.1520	 7.4210
 3.1540	 7.4150
 3.1560	 7.4360
 3.1580	 7.4480
 3.1600	 7.5020
 3.1620	 7.5130
 3.1640	 7.4810
 3.1660	 7.3820
 3.1680	 7.3950
 3.1700	 7.3900
 3.1720	 7.4040
 3.1730	 7.4090
 3.1750	 7.4040
 3.1770	 7.3770
 3.1790	 7.4020
 3.1810	 7.4100
 3.1830	 7.4610
 3.1850	 7.4520
 3.1870	 7.4420
 3.1890	 7.4010
 3.1910	 7.3760
 3.1930	 7.4080
 3.1950	 7.4620
 3.1970	 7.4440
 3.1990	 7.4260
 3.2010	 7.3760
 3.2030	 7.3880
 3.2050	 7.3870
 3.2070	 7.3980
 3.2090	 7.3700
 3.2110	 7.3790
 3.2130	 7.3800
 3.2150	 7.4330
 3.2170	 7.4310
 3.2190	 7.4250
 3.2210	 7.3930
 3.2230	 7.3940
 3.2250	 7.3590
 3.2270	 7.3520
 3.2290	 7.3700
 3.2310	 7.3710
 3.2330	 7.3250
 3.2350	 7.3310
 3.2370	 7.3130
 3.2390	 7.3380
 3.2410	 7.3600
 3.2430	 7.3580
 3.2450	 7.3060
 3.2470	 7.3070
 3.2490	 7.3200
 3.2510	 7.3480
 3.2530	 7.3570
 3.2550	 7.3630
 3.2570	 7.3440
 3.2590	 7.3440
 3.2610	 7.3220
 3.2630	 7.3690
 3.2650	 7.3510
 3.2670	 7.3320
 3.2700	 7.3180
 3.2720	 7.3070
 3.2740	 7.2990
 3.2760	 7.3410
 3.2780	 7.3300
 3.2800	 7.3230
 3.2820	 7.3310
 3.2840	 7.3640
 3.2860	 7.3160
 3.2880	 7.2890
 3.2900	 7.2750
 3.2920	 7.2950
 3.2940	 7.2900
 3.2970	 7.2900
 3.2990	 7.2320
 3.3010	 7.2480
 3.3030	 7.2830
 3.3050	 7.3100
 3.3070	 7.2830
 3.3090	 7.2510
 3.3110	 7.2260
 3.3130	 7.2470
 3.3160	 7.2190
 3.3180	 7.2270
 3.3200	 7.2180
 3.3220	 7.2210
 3.3240	 7.1900
 3.3260	 7.1800
 3.3280	 7.2150
 3.3300	 7.2770
 3.3330	 7.2400
 3.3350	 7.1750
 3.3370	 7.1400
 3.3390	 7.1710
 3.3410	 7.1640
 3.3430	 7.1310
 3.3450	 7.0670
 3.3480	 7.1380
 3.3500	 7.1460
 3.3520	 7.1180
 3.3540	 7.0760
 3.3560	 7.0950
 3.3580	 7.0640
 3.3610	 7.0460
 3.3630	 7.0180
 3.3650	 7.0300
 3.3670	 7.0120
 3.3690	 6.9770
 3.3720	 6.9380
 3.3740	 6.9520
 3.3760	 6.9220
 3.3780	 6.9330
 3.3800	 6.9380
 3.3830	 6.9800
 3.3850	 6.9970
 3.3870	 6.9880
 3.3890	 6.9370
 3.3910	 6.9040
 3.3940	 6.8570
 3.3960	 6.8480
 3.3980	 6.8090
 3.4000	 6.8090
 3.4030	 6.8370
 3.4050	 6.9140
 3.4070	 6.9730
 3.4090	 7.0410
 3.4110	 7.0900
 3.4140	 7.2170
 3.4160	 7.3840
 3.4180	 7.6730
 3.4200	 8.0720
 3.4230	 8.5490
 3.4250	 9.0570
 3.4270	 9.5540
 3.4300	 9.8120
 3.4320	 9.7250
 3.4340	 9.2930
 3.4360	 8.8990
 3.4390	 8.6440
 3.4410	 8.4440
 3.4430	 8.2710
 3.4450	 8.1850
 3.4480	 8.1140
 3.4500	 8.0710
 3.4520	 7.9960
 3.4550	 7.9150
 3.4570	 7.9210
 3.4590	 7.9690
 3.4620	 7.9630
 3.4640	 7.9420
 3.4660	 7.8500
 3.4690	 7.8020
 3.4710	 7.7570
 3.4730	 7.7150
 3.4760	 7.6480
 3.4780	 7.5950
 3.4800	 7.5510
 3.4830	 7.5360
 3.4850	 7.4900
 3.4870	 7.4720
 3.4900	 7.4180
 3.4920	 7.3830
 3.4940	 7.3100
 3.4970	 7.3130
 3.4990	 7.3590
 3.5010	 7.4670
 3.5040	 7.6180
 3.5060	 8.0250
 3.5080	 8.7100
 3.5110	 9.3180
 3.5130	 9.4270
 3.5160	 9.1620
 3.5180	 8.7820
 3.5200	 8.5220
 3.5230	 8.3670
 3.5250	 8.2580
 3.5280	 8.1730
 3.5300	 8.1460
 3.5320	 8.1160
 3.5350	 8.0580
 3.5370	 7.9970
 3.5400	 7.9900
 3.5420	 7.9760
 3.5440	 7.9550
 3.5470	 7.9090
 3.5490	 7.8870
 3.5520	 7.8550
 3.5540	 7.8590
 3.5570	 7.8710
 3.5590	 7.9160
 3.5610	 7.9170
 3.5640	 7.9000
 3.5660	 7.8560
 3.5690	 7.8270
 3.5710	 7.8400
 3.5740	 7.8610
 3.5760	 7.8330
 3.5790	 7.8410
 3.5810	 7.8460
 3.5840	 7.8380
 3.5860	 7.8100
 3.5890	 7.7580
 3.5910	 7.7550
 3.5940	 7.7890
 3.5960	 7.8000
 3.5990	 7.8250
 3.6010	 7.8510
 3.6040	 7.8480
 3.6060	 7.8310
 3.6090	 7.8020
 3.6110	 7.8050
 3.6140	 7.8240
 3.6160	 7.7800
 3.6190	 7.7860
 3.6210	 7.7760
 3.6240	 7.7760
 3.6260	 7.8130
 3.6290	 7.8320
 3.6310	 7.8210
 3.6340	 7.7980
 3.6360	 7.7730
 3.6390	 7.7850
 3.6410	 7.7840
 3.6440	 7.8120
 3.6470	 7.8080
 3.6490	 7.8210
 3.6520	 7.8310
 3.6540	 7.8050
 3.6570	 7.7980
 3.6590	 7.8050
 3.6620	 7.7710
 3.6650	 7.8070
 3.6670	 7.8390
 3.6700	 7.8530
 3.6720	 7.8370
 3.6750	 7.8270
 3.6780	 7.8150
 3.6800	 7.8330
 3.6830	 7.8360
 3.6850	 7.8400
 3.6880	 7.8320
 3.6910	 7.8520
 3.6930	 7.8520
 3.6960	 7.8600
 3.6990	 7.8520
 3.7010	 7.8710
 3.7040	 7.8940
 3.7070	 7.8950
 3.7090	 7.8910
 3.7120	 7.9340
 3.7150	 7.9450
 3.7170	 7.9290
 3.7200	 7.9050
 3.7230	 7.9230
 3.7250	 7.9430
 3.7280	 7.9330
 3.7310	 7.9130
 3.7330	 7.9240
 3.7360	 7.9480
 3.7390	 8.0090
 3.7410	 8.0120
 3.7440	 7.9970
 3.7470	 8.0000
 3.7490	 8.0330
 3.7520	 8.0130
 3.7550	 7.9970
 3.7580	 8.0410
 3.7600	 8.0950
 3.7630	 8.0730
 3.7660	 8.0800
 3.7690	 8.1140
 3.7710	 8.1200
 3.7740	 8.0800
 3.7770	 8.0930
 3.7790	 8.1000
 3.7820	 8.1300
 3.7850	 8.1280
 3.7880	 8.1070
 3.7910	 8.1010
 3.7930	 8.1230
 3.7960	 8.1220
 3.7990	 8.1280
 3.8020	 8.1430
 3.8040	 8.1840
 3.8070	 8.2100
 3.8100	 8.1860
 3.8130	 8.1680
 3.8160	 8.1680
 3.8180	 8.1340
 3.8210	 8.1340
 3.8240	 8.1470
 3.8270	 8.2000
 3.8300	 8.2140
 3.8330	 8.2250
 3.8350	 8.2370
 3.8380	 8.2470
 3.8410	 8.2270
 3.8440	 8.2390
 3.8470	 8.2580
 3.8500	 8.2470
 3.8520	 8.2330
 3.8550	 8.2470
 3.8580	 8.2490
 3.8610	 8.2540
 3.8640	 8.2500
 3.8670	 8.2400
 3.8700	 8.2360
 3.8730	 8.2850
 3.8760	 8.2960
 3.8780	 8.2890
 3.8810	 8.2830
 3.8840	 8.2810
 3.8870	 8.2460
 3.8900	 8.2570
 3.8930	 8.2940
 3.8960	 8.2990
 3.8990	 8.2820
 3.9020	 8.2730
 3.9050	 8.2840
 3.9080	 8.2900
 3.9110	 8.2620
 3.9140	 8.2700
 3.9170	 8.2750
 3.9190	 8.2770
 3.9220	 8.2400
 3.9250	 8.2670
 3.9280	 8.3260
 3.9310	 8.3240
 3.9340	 8.2920
 3.9370	 8.2860
 3.9400	 8.2930
 3.9430	 8.3040
 3.9460	 8.2870
 3.9490	 8.2860
 3.9520	 8.2750
 3.9550	 8.2640
 3.9580	 8.2340
 3.9610	 8.2110
 3.9640	 8.2020
 3.9670	 8.1950
 3.9700	 8.2260
 3.9740	 8.2740
 3.9770	 8.2740
 3.9800	 8.2690
 3.9830	 8.2610
 3.9860	 8.2610
 3.9890	 8.2210
 3.9920	 8.2180
 3.9950	 8.2540
 3.9980	 8.2930
 4.0010	 8.2730
 4.0040	 8.2640
 4.0070	 8.2670
 4.0100	 8.2700
 4.0140	 8.2640
 4.0170	 8.2610
 4.0200	 8.2870
 4.0230	 8.3030
 4.0260	 8.2790
 4.0290	 8.3010
 4.0320	 8.3150
 4.0350	 8.3280
 4.0390	 8.3330
 4.0420	 8.3430
 4.0450	 8.3310
 4.0480	 8.3110
 4.0510	 8.2770
 4.0540	 8.2660
 4.0570	 8.2920
 4.0610	 8.3120
 4.0640	 8.3120
 4.0670	 8.3150
 4.0700	 8.2930
 4.0730	 8.2910
 4.0770	 8.2840
 4.0800	 8.2890
 4.0830	 8.2960
 4.0860	 8.3140
 4.0890	 8.3070
 4.0930	 8.2750
 4.0960	 8.2410
 4.0990	 8.2430
 4.1020	 8.2450
 4.1060	 8.2280
 4.1090	 8.2090
 4.1120	 8.2480
 4.1150	 8.2760
 4.1190	 8.2650
 4.1220	 8.2240
 4.1250	 8.2140
 4.1290	 8.2270
 4.1320	 8.2290
 4.1350	 8.2070
 4.1380	 8.1980
 4.1420	 8.1730
 4.1450	 8.1620
 4.1480	 8.1760
 4.1520	 8.1860
 4.1550	 8.1750
 4.1580	 8.1980
 4.1620	 8.1590
 4.1650	 8.1370
 4.1680	 8.1450
 4.1720	 8.1320
 4.1750	 8.1330
 4.1780	 8.1240
 4.1820	 8.1270
 4.1850	 8.1410
 4.1890	 8.1210
 4.1920	 8.1000
 4.1950	 8.1000
 4.1990	 8.0640
 4.2020	 8.0920
 4.2060	 8.1540
 4.2090	 8.1350
 4.2120	 8.2090
 4.2160	 8.2720
 4.2190	 8.2360
 4.2230	 8.2400
 4.2260	 8.2210
 4.2300	 8.2100
 4.2330	 8.2950
 4.2360	 8.2470
 4.2400	 8.1930
 4.2430	 8.2170
 4.2470	 8.2250
 4.2500	 8.2060
 4.2540	 8.1440
 4.2570	 8.0980
 4.2610	 8.1120
 4.2640	 8.1530
 4.2680	 8.1510
 4.2710	 8.1250
 4.2750	 8.1520
 4.2780	 8.1810
 4.2820	 8.1590
 4.2850	 8.1080
 4.2890	 8.0460
 4.2930	 8.0100
 4.2960	 7.9720
 4.3000	 7.9300
 4.3030	 7.9380
 4.3070	 7.9550
 4.3100	 7.9280
 4.3140	 7.8970
 4.3180	 7.8970
 4.3210	 7.8860
 4.3250	 7.8560
 4.3280	 7.8850
 4.3320	 7.8840
 4.3360	 7.8520
 4.3390	 7.8170
 4.3430	 7.7840
 4.3470	 7.7590
 4.3500	 7.7140
 4.3540	 7.7010
 4.3580	 7.6980
 4.3610	 7.7170
 4.3650	 7.7130
 4.3690	 7.6990
 4.3720	 7.6960
 4.3760	 7.6500
 4.3800	 7.6500
 4.3830	 7.6870
 4.3870	 7.6860
 4.3910	 7.6750
 4.3940	 7.6790
 4.3980	 7.6810
 4.4020	 7.6720
 4.4060	 7.6720
 4.4090	 7.6680
 4.4130	 7.6430
 4.4170	 7.6430
 4.4210	 7.6400
 4.4240	 7.6430
 4.4280	 7.6330
 4.4320	 7.6210
 4.4360	 7.6130
 4.4400	 7.6090
 4.4430	 7.5730
 4.4470	 7.5560
 4.4510	 7.5850
 4.4550	 7.5590
 4.4590	 7.5310
 4.4630	 7.5430
 4.4660	 7.5520
 4.4700	 7.5260
 4.4740	 7.5110
 4.4780	 7.5290
 4.4820	 7.5480
 4.4860	 7.5570
 4.4900	 7.5260
 4.4930	 7.4990
 4.4970	 7.4830
 4.5010	 7.4980
 4.5050	 7.5180
 4.5090	 7.5050
 4.5130	 7.4830
 4.5170	 7.4740
 4.5210	 7.4780
 4.5250	 7.4580
 4.5290	 7.4350
 4.5330	 7.4560
 4.5370	 7.4800
 4.5410	 7.4550
 4.5450	 7.4070
 4.5490	 7.3940
 4.5530	 7.3830
 4.5570	 7.4130
 4.5610	 7.4260
 4.5650	 7.4220
 4.5690	 7.4200
 4.5730	 7.4090
 4.5770	 7.4050
 4.5810	 7.3920
 4.5850	 7.3730
 4.5890	 7.4040
 4.5930	 7.4020
 4.5970	 7.3910
 4.6010	 7.3840
 4.6050	 7.3800
 4.6090	 7.3710
 4.6130	 7.3700
 4.6170	 7.3530
 4.6220	 7.3670
 4.6260	 7.4090
 4.6300	 7.3700
 4.6340	 7.3200
 4.6380	 7.3250
 4.6420	 7.3440
 4.6460	 7.3570
 4.6510	 7.3420
 4.6550	 7.3300
 4.6590	 7.3340
 4.6630	 7.3490
 4.6670	 7.3410
 4.6720	 7.3350
 4.6760	 7.3050
 4.6800	 7.3160
 4.6840	 7.2980
 4.6880	 7.3060
 4.6930	 7.3070
 4.6970	 7.2960
 4.7010	 7.2770
 4.7050	 7.3000
 4.7100	 7.3450
 4.7140	 7.3480
 4.7180	 7.3280
 4.7230	 7.3260
 4.7270	 7.3160
 4.7310	 7.3110
 4.7360	 7.2980
 4.7400	 7.3100
 4.7440	 7.3160
 4.7490	 7.3250
 4.7530	 7.3380
 4.7570	 7.3480
 4.7620	 7.3250
 4.7660	 7.3160
 4.7700	 7.3010
 4.7750	 7.2860
 4.7790	 7.3160
 4.7840	 7.3410
 4.7880	 7.3190
 4.7920	 7.3220
 4.7970	 7.3330
 4.8010	 7.3550
 4.8060	 7.3420
 4.8100	 7.3410
 4.8150	 7.3490
 4.8190	 7.3520
 4.8240	 7.3510
 4.8280	 7.3660
 4.8330	 7.3600
 4.8370	 7.3190
 4.8420	 7.3060
 4.8460	 7.3540
 4.8510	 7.3460
 4.8550	 7.3450
 4.8600	 7.3190
 4.8640	 7.3110
 4.8690	 7.3440
 4.8740	 7.3670
 4.8780	 7.3250
 4.8830	 7.3420
 4.8870	 7.3630
 4.8920	 7.3530
 4.8970	 7.3200
 4.9010	 7.3310
 4.9060	 7.3380
 4.9100	 7.3830
 4.9150	 7.3860
 4.9200	 7.3980
 4.9240	 7.3980
 4.9290	 7.3940
 4.9340	 7.3510
 4.9390	 7.3950
 4.9430	 7.4190
 4.9480	 7.4120
 4.9530	 7.4220
 4.9570	 7.4480
 4.9620	 7.4340
 4.9670	 7.4480
 4.9720	 7.4480
 4.9760	 7.4150
 4.9810	 7.3980
 4.9860	 7.4220
 4.9910	 7.4150
 4.9960	 7.4500
 5.0000	 7.4710
 5.0050	 7.4700
 5.0100	 7.4430
 5.0150	 7.4600
 5.0200	 7.4850
 5.0250	 7.4880
 5.0300	 7.4660
 5.0340	 7.4770
 5.0390	 7.4960
 5.0440	 7.5320
 5.0490	 7.5280
 5.0540	 7.5310
 5.0590	 7.5210
 5.0640	 7.4980
 5.0690	 7.4950
 5.0740	 7.5260
 5.0790	 7.5430
 5.0840	 7.5260
 5.0890	 7.4920
 5.0940	 7.5170
 5.0990	 7.5400
 5.1040	 7.5760
 5.1090	 7.5830
 5.1140	 7.5900
 5.1190	 7.5780
 5.1240	 7.5500
 5.1290	 7.5130
 5.1340	 7.5520
 5.1390	 7.5580
 5.1440	 7.5610
 5.1490	 7.5750
 5.1550	 7.6070
 5.1600	 7.5840
 5.1650	 7.5770
 5.1700	 7.5670
 5.1750	 7.5890
 5.1800	 7.5750
 5.1850	 7.5680
 5.1910	 7.5690
 5.1960	 7.5670
 5.2010	 7.5530
 5.2060	 7.5600
 5.2110	 7.5820
 5.2170	 7.5880
 5.2220	 7.5570
 5.2270	 7.5710
 5.2330	 7.5830
 5.2380	 7.6090
 5.2430	 7.5860
 5.2480	 7.5850
 5.2540	 7.5780
 5.2590	 7.5780
 5.2640	 7.5340
 5.2700	 7.5110
 5.2750	 7.5010
 5.2800	 7.5340
 5.2860	 7.5560
 5.2910	 7.5710
 5.2970	 7.5580
 5.3020	 7.5540
 5.3080	 7.5330
 5.3130	 7.5520
 5.3180	 7.5630
 5.3240	 7.5740
 5.3290	 7.5690
 5.3350	 7.5760
 5.3400	 7.5260
 5.3460	 7.5050
 5.3510	 7.4780
 5.3570	 7.4890
 5.3620	 7.5000
 5.3680	 7.5240
 5.3740	 7.4940
 5.3790	 7.5130
 5.3850	 7.4950
 5.3900	 7.4940
 5.3960	 7.4900
 5.4010	 7.4990
 5.4070	 7.4580
 5.4130	 7.4280
 5.4180	 7.4040
 5.4240	 7.4160
 5.4300	 7.4050
 5.4350	 7.3980
 5.4410	 7.3820
 5.4470	 7.4290
 5.4530	 7.4290
 5.4580	 7.3830
 5.4640	 7.3350
 5.4700	 7.3580
 5.4760	 7.3520
 5.4810	 7.3600
