Name: Quercus agrifolia 3
Type: vegetation
Class: Tree
Genus: Quercus
Species: agrifolia
Sample No.: VH180
Owner: UCSB
Wavelength Range: TIR
Origin: 34.7165; -120.0603; WGS84
Collection Date: 6/9/2013
Description: Samples were collected as part of the HyspIRI Airborne Campaign. 48 individual plants were sampled in three times in 2013 - spring  summer  and fall. The name of the sample includes a 1  2  or 3 which references a different individual of the species. Samples were taken to JPL and processed within 48 hours of collection. The same leaves were processed in the Nicolet and then measured using the ASD.
Measurement: Hemispherical reflectance
First Column: X
Second Column: Y
X Units: Wavelength (micrometers)
Y Units: Reflectance (percentage)
First X Value: 2.501
Last X Value: 15.387
Number of X Values: 1737
Additional Information: vegetation.tree.quercus.agrifolia.tir.vh180.ucsb.nicolet.ancillary.txt

 2.5010	 6.2300
 2.5030	 5.9930
 2.5040	 5.9980
 2.5050	 6.0040
 2.5060	 5.9450
 2.5070	 6.0800
 2.5090	 6.0610
 2.5100	 6.0450
 2.5110	 6.1470
 2.5120	 6.1180
 2.5140	 6.1180
 2.5150	 6.0850
 2.5160	 6.0890
 2.5170	 6.1220
 2.5180	 6.1650
 2.5200	 6.1290
 2.5210	 6.1580
 2.5220	 6.1140
 2.5230	 6.0950
 2.5250	 6.1430
 2.5260	 6.1870
 2.5270	 6.1350
 2.5280	 6.1210
 2.5290	 6.0580
 2.5310	 6.0460
 2.5320	 5.9790
 2.5330	 6.0110
 2.5340	 6.0350
 2.5360	 6.1080
 2.5370	 6.0800
 2.5380	 5.9910
 2.5390	 5.9960
 2.5410	 6.1170
 2.5420	 6.0630
 2.5430	 6.1100
 2.5440	 6.0210
 2.5460	 6.0030
 2.5470	 6.0330
 2.5480	 6.1440
 2.5490	 6.2090
 2.5510	 6.1800
 2.5520	 6.0850
 2.5530	 6.1690
 2.5540	 6.2140
 2.5560	 6.3080
 2.5570	 6.2620
 2.5580	 6.2500
 2.5590	 6.2700
 2.5610	 6.2330
 2.5620	 6.1430
 2.5630	 6.2080
 2.5640	 6.2240
 2.5660	 6.2580
 2.5670	 6.2480
 2.5680	 6.2240
 2.5700	 6.1470
 2.5710	 6.1370
 2.5720	 6.1890
 2.5730	 6.2480
 2.5750	 6.1960
 2.5760	 6.3210
 2.5770	 6.3120
 2.5790	 6.2490
 2.5800	 6.2930
 2.5810	 6.2280
 2.5820	 6.1870
 2.5840	 6.1860
 2.5850	 6.1490
 2.5860	 6.1960
 2.5880	 6.3110
 2.5890	 6.3900
 2.5900	 6.2100
 2.5910	 6.2390
 2.5930	 6.4150
 2.5940	 6.3500
 2.5950	 6.2160
 2.5970	 6.1560
 2.5980	 6.2180
 2.5990	 6.2410
 2.6000	 6.2030
 2.6020	 6.1470
 2.6030	 6.1520
 2.6040	 6.1950
 2.6060	 6.1810
 2.6070	 6.1990
 2.6080	 6.0700
 2.6100	 5.9440
 2.6110	 6.0040
 2.6120	 6.0870
 2.6140	 6.0400
 2.6150	 6.0070
 2.6160	 5.9240
 2.6180	 5.9350
 2.6190	 5.9700
 2.6200	 6.0300
 2.6220	 5.9800
 2.6230	 5.9590
 2.6240	 5.9500
 2.6260	 5.9060
 2.6270	 5.8020
 2.6280	 5.7500
 2.6300	 5.8760
 2.6310	 5.8670
 2.6320	 5.8010
 2.6340	 5.8850
 2.6350	 5.8700
 2.6360	 5.8960
 2.6380	 5.7530
 2.6390	 5.6610
 2.6400	 5.6310
 2.6420	 5.6590
 2.6430	 5.5850
 2.6440	 5.5770
 2.6460	 5.6060
 2.6470	 5.5690
 2.6480	 5.6030
 2.6500	 5.5920
 2.6510	 5.5240
 2.6520	 5.4050
 2.6540	 5.1820
 2.6550	 5.1600
 2.6560	 5.2670
 2.6580	 5.3040
 2.6590	 5.3180
 2.6610	 5.3200
 2.6620	 5.4050
 2.6630	 5.4940
 2.6650	 5.4720
 2.6660	 5.3400
 2.6670	 5.2290
 2.6690	 5.2480
 2.6700	 5.1550
 2.6720	 5.2070
 2.6730	 5.2390
 2.6740	 5.2140
 2.6760	 5.1560
 2.6770	 5.0980
 2.6780	 5.0390
 2.6800	 5.0440
 2.6810	 4.9670
 2.6830	 4.9520
 2.6840	 4.9770
 2.6850	 4.9950
 2.6870	 4.9520
 2.6880	 5.0760
 2.6900	 5.1160
 2.6910	 5.0770
 2.6920	 5.0510
 2.6940	 4.9770
 2.6950	 4.8870
 2.6970	 4.7810
 2.6980	 4.6390
 2.6990	 4.6510
 2.7010	 4.8230
 2.7020	 4.9180
 2.7040	 4.8320
 2.7050	 4.7430
 2.7060	 4.5390
 2.7080	 4.4890
 2.7090	 4.6700
 2.7110	 4.8660
 2.7120	 4.7980
 2.7130	 4.7080
 2.7150	 4.5530
 2.7160	 4.5100
 2.7180	 4.6840
 2.7190	 4.7990
 2.7210	 4.6230
 2.7220	 4.6090
 2.7230	 4.5680
 2.7250	 4.5450
 2.7260	 4.6030
 2.7280	 4.4850
 2.7290	 4.4630
 2.7310	 4.6810
 2.7320	 4.4620
 2.7330	 4.3580
 2.7350	 4.4500
 2.7360	 4.4790
 2.7380	 4.4490
 2.7390	 4.3760
 2.7410	 4.4500
 2.7420	 4.5630
 2.7440	 4.6540
 2.7450	 4.5890
 2.7470	 4.5140
 2.7480	 4.2450
 2.7490	 4.1520
 2.7510	 4.5670
 2.7520	 4.8130
 2.7540	 4.3800
 2.7550	 4.2600
 2.7570	 4.4790
 2.7580	 4.2830
 2.7600	 4.2430
 2.7610	 4.4650
 2.7630	 4.6030
 2.7640	 4.4890
 2.7660	 4.3340
 2.7670	 4.1730
 2.7680	 4.2500
 2.7700	 4.4200
 2.7710	 4.4680
 2.7730	 4.4410
 2.7740	 4.4680
 2.7760	 4.3670
 2.7770	 4.2600
 2.7790	 4.4080
 2.7800	 4.5820
 2.7820	 4.5750
 2.7830	 4.4990
 2.7850	 4.3540
 2.7860	 4.4410
 2.7880	 4.5530
 2.7890	 4.5730
 2.7910	 4.4780
 2.7920	 4.2460
 2.7940	 4.1770
 2.7950	 4.2790
 2.7970	 4.2290
 2.7980	 4.2620
 2.8000	 4.4190
 2.8010	 4.5030
 2.8030	 4.5180
 2.8040	 4.5080
 2.8060	 4.4170
 2.8070	 4.3370
 2.8090	 4.2690
 2.8110	 4.3920
 2.8120	 4.3340
 2.8140	 4.2660
 2.8150	 4.2990
 2.8170	 4.4160
 2.8180	 4.3010
 2.8200	 4.1980
 2.8210	 4.3060
 2.8230	 4.5090
 2.8240	 4.4470
 2.8260	 4.5060
 2.8270	 4.3060
 2.8290	 4.1920
 2.8300	 4.2770
 2.8320	 4.3100
 2.8340	 4.2410
 2.8350	 4.1770
 2.8370	 4.2640
 2.8380	 4.3640
 2.8400	 4.3390
 2.8410	 4.2830
 2.8430	 4.3290
 2.8440	 4.3670
 2.8460	 4.3360
 2.8480	 4.4390
 2.8490	 4.3350
 2.8510	 4.1990
 2.8520	 4.2760
 2.8540	 4.2370
 2.8550	 4.2220
 2.8570	 4.3440
 2.8590	 4.3840
 2.8600	 4.3910
 2.8620	 4.4150
 2.8630	 4.4350
 2.8650	 4.4330
 2.8660	 4.4300
 2.8680	 4.3090
 2.8700	 4.2340
 2.8710	 4.2930
 2.8730	 4.3340
 2.8740	 4.3420
 2.8760	 4.3840
 2.8780	 4.3840
 2.8790	 4.2020
 2.8810	 4.1180
 2.8820	 4.2840
 2.8840	 4.5660
 2.8860	 4.6600
 2.8870	 4.6130
 2.8890	 4.4620
 2.8900	 4.2340
 2.8920	 4.2200
 2.8940	 4.3980
 2.8950	 4.5510
 2.8970	 4.5360
 2.8980	 4.4480
 2.9000	 4.4530
 2.9020	 4.4580
 2.9030	 4.3580
 2.9050	 4.1050
 2.9070	 4.0680
 2.9080	 4.2640
 2.9100	 4.3610
 2.9120	 4.4200
 2.9130	 4.2210
 2.9150	 4.3160
 2.9160	 4.4870
 2.9180	 4.5780
 2.9200	 4.4400
 2.9210	 4.4690
 2.9230	 4.5180
 2.9250	 4.3700
 2.9260	 4.3880
 2.9280	 4.4560
 2.9300	 4.3640
 2.9310	 4.3890
 2.9330	 4.4180
 2.9350	 4.4160
 2.9360	 4.4610
 2.9380	 4.6640
 2.9400	 4.5530
 2.9410	 4.4220
 2.9430	 4.4490
 2.9450	 4.5440
 2.9460	 4.6670
 2.9480	 4.6160
 2.9500	 4.2180
 2.9510	 4.2960
 2.9530	 4.3390
 2.9550	 4.0310
 2.9560	 3.8120
 2.9580	 4.0710
 2.9600	 4.6430
 2.9610	 5.0700
 2.9630	 5.2150
 2.9650	 5.0400
 2.9660	 4.2630
 2.9680	 3.6520
 2.9700	 3.4490
 2.9720	 3.0690
 2.9730	 3.6550
 2.9750	 3.5450
 2.9770	 3.5540
 2.9780	 4.1260
 2.9800	 4.9460
 2.9820	 5.1480
 2.9840	 4.1320
 2.9850	 4.1410
 2.9870	 4.1700
 2.9890	 4.0410
 2.9900	 4.2590
 2.9920	 5.1690
 2.9940	 4.6570
 2.9960	 3.3800
 2.9970	 2.7400
 2.9990	 2.7810
 3.0010	 4.4840
 3.0030	 5.3210
 3.0040	 4.8300
 3.0060	 4.4870
 3.0080	 3.9840
 3.0100	 4.2000
 3.0110	 4.3560
 3.0130	 4.1320
 3.0150	 3.7730
 3.0170	 4.1670
 3.0180	 4.4840
 3.0200	 4.3700
 3.0220	 4.4740
 3.0240	 4.2060
 3.0250	 4.1570
 3.0270	 4.2260
 3.0290	 4.2080
 3.0310	 3.9280
 3.0320	 3.9510
 3.0340	 4.5330
 3.0360	 4.9550
 3.0380	 5.0890
 3.0400	 6.1330
 3.0410	 5.8020
 3.0430	 5.3020
 3.0450	 3.7140
 3.0470	 0.9690
 3.0480	 2.1870
 3.0500	 4.1380
 3.0520	 5.0650
 3.0540	 5.1620
 3.0560	 3.3120
 3.0570	 2.1670
 3.0590	 2.5570
 3.0610	 5.0030
 3.0630	 5.9850
 3.0650	 4.8930
 3.0660	 4.5980
 3.0680	 5.3200
 3.0700	 4.7480
 3.0720	 4.1550
 3.0740	 4.5140
 3.0760	 4.3440
 3.0770	 4.3710
 3.0790	 4.3230
 3.0810	 4.4440
 3.0830	 4.4460
 3.0850	 4.5170
 3.0870	 4.4500
 3.0880	 4.5920
 3.0900	 4.5520
 3.0920	 4.3610
 3.0940	 4.3080
 3.0960	 4.3720
 3.0980	 4.3820
 3.0990	 4.5000
 3.1010	 4.5670
 3.1030	 4.4700
 3.1050	 4.1070
 3.1070	 4.2130
 3.1090	 4.5750
 3.1110	 4.7340
 3.1120	 4.7630
 3.1140	 4.7380
 3.1160	 4.6230
 3.1180	 4.2140
 3.1200	 4.1900
 3.1220	 4.4670
 3.1240	 4.5990
 3.1260	 4.3630
 3.1270	 4.2970
 3.1290	 4.3120
 3.1310	 3.7910
 3.1330	 3.7820
 3.1350	 4.4860
 3.1370	 4.7580
 3.1390	 3.1120
 3.1410	 2.1930
 3.1430	 3.1320
 3.1450	 4.7150
 3.1460	 5.5040
 3.1480	 5.0930
 3.1500	 4.8800
 3.1520	 4.8440
 3.1540	 4.3190
 3.1560	 4.1150
 3.1580	 4.3160
 3.1600	 4.5070
 3.1620	 4.2780
 3.1640	 4.0640
 3.1660	 4.1550
 3.1680	 4.5110
 3.1700	 4.3010
 3.1710	 4.3740
 3.1730	 5.5720
 3.1750	 5.5850
 3.1770	 4.2080
 3.1790	 3.8010
 3.1810	 4.1950
 3.1830	 4.2940
 3.1850	 4.0510
 3.1870	 4.1870
 3.1890	 4.3050
 3.1910	 4.3420
 3.1930	 4.4080
 3.1950	 4.4210
 3.1970	 4.3020
 3.1990	 4.2420
 3.2010	 4.2980
 3.2030	 4.4670
 3.2050	 4.4750
 3.2070	 4.4200
 3.2090	 4.2060
 3.2110	 4.2770
 3.2130	 4.2800
 3.2150	 4.2110
 3.2170	 4.3690
 3.2190	 4.4800
 3.2210	 4.3810
 3.2230	 4.2900
 3.2250	 4.2710
 3.2270	 4.2720
 3.2290	 4.2750
 3.2310	 4.5030
 3.2330	 4.6130
 3.2350	 4.4410
 3.2370	 4.3200
 3.2390	 4.4920
 3.2410	 4.5300
 3.2430	 4.4100
 3.2450	 4.3450
 3.2470	 4.3190
 3.2490	 4.2790
 3.2510	 4.5990
 3.2530	 4.5560
 3.2550	 4.3560
 3.2570	 4.3460
 3.2590	 4.3070
 3.2610	 4.3070
 3.2630	 4.5420
 3.2650	 4.5240
 3.2670	 4.3110
 3.2690	 4.1650
 3.2720	 4.1560
 3.2740	 4.3490
 3.2760	 4.4450
 3.2780	 4.4940
 3.2800	 4.6260
 3.2820	 4.4650
 3.2840	 4.3480
 3.2860	 4.3320
 3.2880	 4.4620
 3.2900	 4.4320
 3.2920	 4.3010
 3.2940	 4.0890
 3.2960	 4.0130
 3.2990	 4.0820
 3.3010	 4.2380
 3.3030	 4.2650
 3.3050	 4.3000
 3.3070	 4.3350
 3.3090	 4.3920
 3.3110	 4.2530
 3.3130	 4.0120
 3.3150	 3.9350
 3.3180	 4.2060
 3.3200	 4.2270
 3.3220	 4.1590
 3.3240	 4.1250
 3.3260	 4.2210
 3.3280	 4.1810
 3.3300	 4.1460
 3.3330	 4.1840
 3.3350	 4.2460
 3.3370	 4.0650
 3.3390	 4.0600
 3.3410	 4.1860
 3.3430	 4.1760
 3.3450	 4.0960
 3.3480	 4.1500
 3.3500	 4.2070
 3.3520	 4.1560
 3.3540	 4.0860
 3.3560	 4.1140
 3.3580	 4.0720
 3.3610	 3.9690
 3.3630	 3.8890
 3.3650	 3.9390
 3.3670	 4.0550
 3.3690	 4.1440
 3.3720	 4.0960
 3.3740	 4.1150
 3.3760	 4.0860
 3.3780	 3.9760
 3.3800	 3.8420
 3.3830	 3.7820
 3.3850	 3.8300
 3.3870	 4.0230
 3.3890	 4.1370
 3.3910	 4.1280
 3.3940	 3.8080
 3.3960	 3.7980
 3.3980	 3.9000
 3.4000	 3.8710
 3.4020	 3.7210
 3.4050	 3.5830
 3.4070	 3.5420
 3.4090	 3.6660
 3.4110	 3.6550
 3.4140	 3.6690
 3.4160	 3.5900
 3.4180	 3.6460
 3.4200	 3.8410
 3.4230	 4.2200
 3.4250	 4.7400
 3.4270	 5.4640
 3.4290	 5.9960
 3.4320	 6.2600
 3.4340	 6.1190
 3.4360	 5.7620
 3.4390	 5.4190
 3.4410	 5.2480
 3.4430	 5.0960
 3.4450	 5.0500
 3.4480	 5.1550
 3.4500	 5.0470
 3.4520	 4.8440
 3.4550	 4.9520
 3.4570	 5.0860
 3.4590	 5.0140
 3.4620	 4.8710
 3.4640	 4.8290
 3.4660	 4.7770
 3.4680	 4.8260
 3.4710	 4.8880
 3.4730	 4.7900
 3.4750	 4.6880
 3.4780	 4.6040
 3.4800	 4.4940
 3.4820	 4.4880
 3.4850	 4.4630
 3.4870	 4.3840
 3.4890	 4.3750
 3.4920	 4.4710
 3.4940	 4.4190
 3.4970	 4.3700
 3.4990	 4.2600
 3.5010	 4.1170
 3.5040	 4.0780
 3.5060	 4.2370
 3.5080	 4.7660
 3.5110	 5.6350
 3.5130	 5.9990
 3.5160	 5.8900
 3.5180	 5.6130
 3.5200	 5.4430
 3.5230	 5.3330
 3.5250	 5.4420
 3.5270	 5.3680
 3.5300	 5.2910
 3.5320	 5.2320
 3.5350	 5.1730
 3.5370	 5.0630
 3.5400	 5.0410
 3.5420	 5.0370
 3.5440	 5.0320
 3.5470	 5.0160
 3.5490	 5.0440
 3.5520	 5.0880
 3.5540	 5.1670
 3.5570	 5.0610
 3.5590	 4.9890
 3.5610	 4.9330
 3.5640	 4.9350
 3.5660	 4.9120
 3.5690	 4.8690
 3.5710	 4.7810
 3.5740	 4.8460
 3.5760	 4.8760
 3.5790	 4.8720
 3.5810	 4.8270
 3.5840	 4.8480
 3.5860	 4.8350
 3.5890	 4.9540
 3.5910	 4.8610
 3.5930	 4.6560
 3.5960	 4.7770
 3.5980	 4.8180
 3.6010	 4.9540
 3.6030	 5.0790
 3.6060	 4.8580
 3.6080	 4.7820
 3.6110	 4.9370
 3.6140	 4.9070
 3.6160	 4.8050
 3.6190	 4.7980
 3.6210	 4.7800
 3.6240	 4.8070
 3.6260	 4.8370
 3.6290	 4.8790
 3.6310	 4.9540
 3.6340	 5.0140
 3.6360	 4.9300
 3.6390	 4.7850
 3.6410	 4.6970
 3.6440	 4.7310
 3.6470	 4.7820
 3.6490	 4.8530
 3.6520	 4.8260
 3.6540	 4.8380
 3.6570	 4.8020
 3.6590	 4.7480
 3.6620	 4.7650
 3.6650	 4.7350
 3.6670	 4.6510
 3.6700	 4.6920
 3.6720	 4.7630
 3.6750	 4.7250
 3.6780	 4.6510
 3.6800	 4.6840
 3.6830	 4.6650
 3.6850	 4.6320
 3.6880	 4.6260
 3.6910	 4.6840
 3.6930	 4.7730
 3.6960	 4.8050
 3.6990	 4.7220
 3.7010	 4.7160
 3.7040	 4.7600
 3.7060	 4.8330
 3.7090	 4.8040
 3.7120	 4.7640
 3.7140	 4.7460
 3.7170	 4.7700
 3.7200	 4.6680
 3.7220	 4.6470
 3.7250	 4.6950
 3.7280	 4.6900
 3.7300	 4.6920
 3.7330	 4.7000
 3.7360	 4.7600
 3.7390	 4.7160
 3.7410	 4.6290
 3.7440	 4.6840
 3.7470	 4.6870
 3.7490	 4.7600
 3.7520	 4.6680
 3.7550	 4.5360
 3.7580	 4.6300
 3.7600	 4.7190
 3.7630	 4.7050
 3.7660	 4.7230
 3.7680	 4.6970
 3.7710	 4.6820
 3.7740	 4.7820
 3.7770	 4.8570
 3.7790	 4.7890
 3.7820	 4.7720
 3.7850	 4.7620
 3.7880	 4.7990
 3.7900	 4.7500
 3.7930	 4.7500
 3.7960	 4.7620
 3.7990	 4.6790
 3.8020	 4.6580
 3.8040	 4.7860
 3.8070	 4.8340
 3.8100	 4.8410
 3.8130	 4.8180
 3.8160	 4.7790
 3.8180	 4.7050
 3.8210	 4.7580
 3.8240	 4.8460
 3.8270	 4.8300
 3.8300	 4.7740
 3.8330	 4.8070
 3.8350	 4.6260
 3.8380	 4.5310
 3.8410	 4.6100
 3.8440	 4.6370
 3.8470	 4.7490
 3.8500	 4.8190
 3.8520	 4.7530
 3.8550	 4.7680
 3.8580	 4.7530
 3.8610	 4.7830
 3.8640	 4.7520
 3.8670	 4.7900
 3.8700	 4.8230
 3.8730	 4.8260
 3.8750	 4.7970
 3.8780	 4.8190
 3.8810	 4.7970
 3.8840	 4.7790
 3.8870	 4.7580
 3.8900	 4.8170
 3.8930	 4.8540
 3.8960	 4.8670
 3.8990	 4.8490
 3.9020	 4.7820
 3.9050	 4.7240
 3.9080	 4.7220
 3.9110	 4.7170
 3.9140	 4.7720
 3.9160	 4.8190
 3.9190	 4.8260
 3.9220	 4.8120
 3.9250	 4.8030
 3.9280	 4.7620
 3.9310	 4.7770
 3.9340	 4.7480
 3.9370	 4.7740
 3.9400	 4.8490
 3.9430	 4.7860
 3.9460	 4.7220
 3.9490	 4.7290
 3.9520	 4.7200
 3.9550	 4.7660
 3.9580	 4.7800
 3.9610	 4.7560
 3.9640	 4.7430
 3.9670	 4.7130
 3.9700	 4.7290
 3.9730	 4.8120
 3.9770	 4.8050
 3.9800	 4.7440
 3.9830	 4.7260
 3.9860	 4.7810
 3.9890	 4.7880
 3.9920	 4.7840
 3.9950	 4.7510
 3.9980	 4.7940
 4.0010	 4.8470
 4.0040	 4.8370
 4.0070	 4.7510
 4.0100	 4.7520
 4.0130	 4.7810
 4.0170	 4.7270
 4.0200	 4.7240
 4.0230	 4.7750
 4.0260	 4.7610
 4.0290	 4.7700
 4.0320	 4.8230
 4.0350	 4.8360
 4.0380	 4.7660
 4.0420	 4.7870
 4.0450	 4.7920
 4.0480	 4.8320
 4.0510	 4.8400
 4.0540	 4.8380
 4.0570	 4.8480
 4.0610	 4.8360
 4.0640	 4.7730
 4.0670	 4.7850
 4.0700	 4.7810
 4.0730	 4.7640
 4.0770	 4.7410
 4.0800	 4.7570
 4.0830	 4.7850
 4.0860	 4.8220
 4.0890	 4.8590
 4.0930	 4.8000
 4.0960	 4.7420
 4.0990	 4.8260
 4.1020	 4.8850
 4.1060	 4.8000
 4.1090	 4.7400
 4.1120	 4.8250
 4.1150	 4.9570
 4.1190	 4.8690
 4.1220	 4.7860
 4.1250	 4.8610
 4.1280	 4.8910
 4.1320	 4.8670
 4.1350	 4.8380
 4.1380	 4.8410
 4.1420	 4.8040
 4.1450	 4.8750
 4.1480	 4.8530
 4.1520	 4.7540
 4.1550	 4.7820
 4.1580	 4.8430
 4.1620	 4.8450
 4.1650	 4.8080
 4.1680	 4.8180
 4.1720	 4.8660
 4.1750	 4.8600
 4.1780	 4.8000
 4.1820	 4.7750
 4.1850	 4.8140
 4.1890	 4.8170
 4.1920	 4.7560
 4.1950	 4.7620
 4.1990	 4.8100
 4.2020	 4.8570
 4.2060	 4.8700
 4.2090	 4.8550
 4.2120	 4.9010
 4.2160	 4.8320
 4.2190	 4.8000
 4.2230	 5.0150
 4.2260	 4.9510
 4.2300	 4.5040
 4.2330	 4.5500
 4.2360	 4.9380
 4.2400	 5.1660
 4.2430	 5.0960
 4.2470	 4.9070
 4.2500	 4.8440
 4.2540	 4.8090
 4.2570	 4.7240
 4.2610	 4.7640
 4.2640	 4.7280
 4.2680	 4.7510
 4.2710	 4.7900
 4.2750	 4.8390
 4.2780	 4.9060
 4.2820	 4.8850
 4.2850	 4.8000
 4.2890	 4.7850
 4.2930	 4.8040
 4.2960	 4.8810
 4.3000	 4.9140
 4.3030	 4.9140
 4.3070	 4.8910
 4.3100	 4.8100
 4.3140	 4.8440
 4.3180	 4.7930
 4.3210	 4.7360
 4.3250	 4.7360
 4.3280	 4.7470
 4.3320	 4.6820
 4.3360	 4.6940
 4.3390	 4.7210
 4.3430	 4.7120
 4.3470	 4.7090
 4.3500	 4.7510
 4.3540	 4.6890
 4.3570	 4.6870
 4.3610	 4.7840
 4.3650	 4.7710
 4.3680	 4.6840
 4.3720	 4.7270
 4.3760	 4.6540
 4.3800	 4.6270
 4.3830	 4.6900
 4.3870	 4.7140
 4.3910	 4.7170
 4.3940	 4.7180
 4.3980	 4.6550
 4.4020	 4.6170
 4.4060	 4.7230
 4.4090	 4.7730
 4.4130	 4.7240
 4.4170	 4.7430
 4.4210	 4.7800
 4.4240	 4.7670
 4.4280	 4.6560
 4.4320	 4.5990
 4.4360	 4.6240
 4.4400	 4.6590
 4.4430	 4.6890
 4.4470	 4.6960
 4.4510	 4.6520
 4.4550	 4.6530
 4.4590	 4.6890
 4.4620	 4.6890
 4.4660	 4.6310
 4.4700	 4.6260
 4.4740	 4.5970
 4.4780	 4.6740
 4.4820	 4.6750
 4.4860	 4.6830
 4.4900	 4.7300
 4.4930	 4.6740
 4.4970	 4.6290
 4.5010	 4.6190
 4.5050	 4.6400
 4.5090	 4.6410
 4.5130	 4.6440
 4.5170	 4.6390
 4.5210	 4.6240
 4.5250	 4.5890
 4.5290	 4.6270
 4.5330	 4.6950
 4.5370	 4.6940
 4.5410	 4.6630
 4.5450	 4.6030
 4.5490	 4.5830
 4.5530	 4.5750
 4.5570	 4.6230
 4.5610	 4.5820
 4.5650	 4.6540
 4.5690	 4.6830
 4.5730	 4.6380
 4.5770	 4.6070
 4.5810	 4.6440
 4.5850	 4.6120
 4.5890	 4.6040
 4.5930	 4.6120
 4.5970	 4.6180
 4.6010	 4.7430
 4.6050	 4.8200
 4.6090	 4.5460
 4.6130	 4.2580
 4.6170	 4.3060
 4.6220	 4.4500
 4.6260	 4.6640
 4.6300	 4.6950
 4.6340	 4.5730
 4.6380	 4.5130
 4.6420	 4.5790
 4.6460	 4.5730
 4.6510	 4.5090
 4.6550	 4.5660
 4.6590	 4.5980
 4.6630	 4.5950
 4.6670	 4.5440
 4.6720	 4.5390
 4.6760	 4.5310
 4.6800	 4.5170
 4.6840	 4.5620
 4.6880	 4.5820
 4.6930	 4.5490
 4.6970	 4.5530
 4.7010	 4.4840
 4.7050	 4.4260
 4.7100	 4.4330
 4.7140	 4.4770
 4.7180	 4.5670
 4.7230	 4.6050
 4.7270	 4.5700
 4.7310	 4.5920
 4.7360	 4.6310
 4.7400	 4.6390
 4.7440	 4.5530
 4.7490	 4.5280
 4.7530	 4.5930
 4.7570	 4.6060
 4.7620	 4.5760
 4.7660	 4.5400
 4.7700	 4.5010
 4.7750	 4.5150
 4.7790	 4.4700
 4.7840	 4.4300
 4.7880	 4.3990
 4.7920	 4.4190
 4.7970	 4.5850
 4.8010	 4.6200
 4.8060	 4.5080
 4.8100	 4.4640
 4.8150	 4.4860
 4.8190	 4.5240
 4.8240	 4.5570
 4.8280	 4.6050
 4.8330	 4.5900
 4.8370	 4.6090
 4.8420	 4.5910
 4.8460	 4.6050
 4.8510	 4.5860
 4.8550	 4.5670
 4.8600	 4.5710
 4.8640	 4.5720
 4.8690	 4.5310
 4.8730	 4.5470
 4.8780	 4.5950
 4.8830	 4.6250
 4.8870	 4.5820
 4.8920	 4.5020
 4.8960	 4.5070
 4.9010	 4.5680
 4.9060	 4.5490
 4.9100	 4.5320
 4.9150	 4.5310
 4.9200	 4.5780
 4.9240	 4.5790
 4.9290	 4.5820
 4.9340	 4.5720
 4.9380	 4.5090
 4.9430	 4.4740
 4.9480	 4.5450
 4.9530	 4.5250
 4.9570	 4.5350
 4.9620	 4.5710
 4.9670	 4.5860
 4.9720	 4.6020
 4.9760	 4.6040
 4.9810	 4.4970
 4.9860	 4.4860
 4.9910	 4.5470
 4.9960	 4.6090
 5.0000	 4.6100
 5.0050	 4.5820
 5.0100	 4.5490
 5.0150	 4.5890
 5.0200	 4.5740
 5.0250	 4.5850
 5.0290	 4.5790
 5.0340	 4.6030
 5.0390	 4.5880
 5.0440	 4.6080
 5.0490	 4.5760
 5.0540	 4.5450
 5.0590	 4.5180
 5.0640	 4.5650
 5.0690	 4.5150
 5.0740	 4.5110
 5.0790	 4.5260
 5.0840	 4.5050
 5.0890	 4.4640
 5.0940	 4.4760
 5.0990	 4.4980
 5.1040	 4.5070
 5.1090	 4.5070
 5.1140	 4.5860
 5.1190	 4.6430
 5.1240	 4.6480
 5.1290	 4.5630
 5.1340	 4.5610
 5.1390	 4.5550
 5.1440	 4.5950
 5.1490	 4.5780
 5.1540	 4.5630
 5.1600	 4.6000
 5.1650	 4.6100
 5.1700	 4.5760
 5.1750	 4.5360
 5.1800	 4.4840
 5.1850	 4.5130
 5.1910	 4.5170
 5.1960	 4.5500
 5.2010	 4.5930
 5.2060	 4.6240
 5.2110	 4.5500
 5.2170	 4.5630
 5.2220	 4.5740
 5.2270	 4.5730
 5.2320	 4.5630
 5.2380	 4.5840
 5.2430	 4.5840
 5.2480	 4.6500
 5.2540	 4.6420
 5.2590	 4.6030
 5.2640	 4.5140
 5.2700	 4.4990
 5.2750	 4.5090
 5.2800	 4.5630
 5.2860	 4.5450
 5.2910	 4.5240
 5.2970	 4.5310
 5.3020	 4.5660
 5.3070	 4.5050
 5.3130	 4.5070
 5.3180	 4.5280
 5.3240	 4.5670
 5.3290	 4.5500
 5.3350	 4.5590
 5.3400	 4.5300
 5.3460	 4.5520
 5.3510	 4.5140
 5.3570	 4.5200
 5.3620	 4.5120
 5.3680	 4.5650
 5.3730	 4.5400
 5.3790	 4.5190
 5.3850	 4.5110
 5.3900	 4.5430
 5.3960	 4.5550
 5.4010	 4.5500
 5.4070	 4.4780
 5.4130	 4.4890
 5.4180	 4.4860
 5.4240	 4.5190
 5.4300	 4.4490
 5.4350	 4.4540
 5.4410	 4.4480
