Name: Adenostoma fasciculatum 3
Type: vegetation
Class: Shrub
Genus: Adenostoma
Species: fasciculatum
Sample No.: VH222
Owner: UCSB
Wavelength Range: VSWIR
Origin: 34.5084; -119.7686; WGS84
Collection Date: 10/13/2013
Description: Samples were collected as part of the HyspIRI Airborne Campaign. 48 individual plants were sampled in three times in 2013 - spring  summer  and fall. The name of the sample includes a 1  2  or 3 which references a different individual of the species. Samples were taken to JPL and processed within 48 hours of collection. The same leaves were processed in the Nicolet and then measured using the ASD.
Measurement: Bidirectional reflectance
First Column: X
Second Column: Y
X Units: Wavelength (micrometers)
Y Units: Reflectance (percentage)
First X Value: 0.35
Last X Value: 2.5
Number of X Values: 2151
Additional Information: vegetation.shrub.adenostoma.fasciculatum.vswir.vh222.ucsb.asd.ancillary.txt

 0.3500	 2.4640
 0.3510	 2.4110
 0.3520	 2.2430
 0.3530	 2.1430
 0.3540	 2.1890
 0.3550	 1.9920
 0.3560	 1.9220
 0.3570	 2.0090
 0.3580	 2.1020
 0.3590	 2.1890
 0.3600	 2.1610
 0.3610	 2.0200
 0.3620	 1.9250
 0.3630	 1.9290
 0.3640	 2.0160
 0.3650	 2.1040
 0.3660	 1.9880
 0.3670	 1.8910
 0.3680	 1.8820
 0.3690	 1.9130
 0.3700	 1.9730
 0.3710	 1.9610
 0.3720	 1.8980
 0.3730	 2.0580
 0.3740	 2.0940
 0.3750	 1.9900
 0.3760	 1.8660
 0.3770	 1.9120
 0.3780	 2.0120
 0.3790	 2.0860
 0.3800	 2.1000
 0.3810	 2.0810
 0.3820	 2.0780
 0.3830	 2.0810
 0.3840	 1.9380
 0.3850	 1.8580
 0.3860	 1.8920
 0.3870	 2.0030
 0.3880	 2.0930
 0.3890	 2.0490
 0.3900	 1.9350
 0.3910	 1.9750
 0.3920	 1.9450
 0.3930	 1.9350
 0.3940	 2.0150
 0.3950	 2.0600
 0.3960	 2.0540
 0.3970	 2.0080
 0.3980	 1.9650
 0.3990	 2.0320
 0.4000	 2.1110
 0.4010	 2.1300
 0.4020	 2.0710
 0.4030	 2.0500
 0.4040	 2.0860
 0.4050	 2.1500
 0.4060	 2.1610
 0.4070	 2.1270
 0.4080	 2.1160
 0.4090	 2.2100
 0.4100	 2.2350
 0.4110	 2.2550
 0.4120	 2.2930
 0.4130	 2.2500
 0.4140	 2.2330
 0.4150	 2.2570
 0.4160	 2.2970
 0.4170	 2.3170
 0.4180	 2.3330
 0.4190	 2.3560
 0.4200	 2.3830
 0.4210	 2.4090
 0.4220	 2.4220
 0.4230	 2.4260
 0.4240	 2.4620
 0.4250	 2.4880
 0.4260	 2.5010
 0.4270	 2.5220
 0.4280	 2.5660
 0.4290	 2.5840
 0.4300	 2.5730
 0.4310	 2.6020
 0.4320	 2.6410
 0.4330	 2.6790
 0.4340	 2.7090
 0.4350	 2.7220
 0.4360	 2.7440
 0.4370	 2.7660
 0.4380	 2.7580
 0.4390	 2.7560
 0.4400	 2.7730
 0.4410	 2.8060
 0.4420	 2.8300
 0.4430	 2.8410
 0.4440	 2.8470
 0.4450	 2.8650
 0.4460	 2.8900
 0.4470	 2.9090
 0.4480	 2.9180
 0.4490	 2.9250
 0.4500	 2.9350
 0.4510	 2.9510
 0.4520	 2.9710
 0.4530	 2.9950
 0.4540	 3.0210
 0.4550	 3.0420
 0.4560	 3.0540
 0.4570	 3.0730
 0.4580	 3.0830
 0.4590	 3.0780
 0.4600	 3.0940
 0.4610	 3.1270
 0.4620	 3.1450
 0.4630	 3.1250
 0.4640	 3.1540
 0.4650	 3.1710
 0.4660	 3.1650
 0.4670	 3.1760
 0.4680	 3.1870
 0.4690	 3.1930
 0.4700	 3.1980
 0.4710	 3.2140
 0.4720	 3.2410
 0.4730	 3.2620
 0.4740	 3.2560
 0.4750	 3.2550
 0.4760	 3.2610
 0.4770	 3.2740
 0.4780	 3.2850
 0.4790	 3.2990
 0.4800	 3.3070
 0.4810	 3.3070
 0.4820	 3.3350
 0.4830	 3.3490
 0.4840	 3.3450
 0.4850	 3.3520
 0.4860	 3.3630
 0.4870	 3.3780
 0.4880	 3.3920
 0.4890	 3.3950
 0.4900	 3.4200
 0.4910	 3.4520
 0.4920	 3.4590
 0.4930	 3.4860
 0.4940	 3.5190
 0.4950	 3.5510
 0.4960	 3.5880
 0.4970	 3.6250
 0.4980	 3.6610
 0.4990	 3.7000
 0.5000	 3.7360
 0.5010	 3.7760
 0.5020	 3.8220
 0.5030	 3.8780
 0.5040	 3.9390
 0.5050	 4.0050
 0.5060	 4.0750
 0.5070	 4.1500
 0.5080	 4.2270
 0.5090	 4.3080
 0.5100	 4.4000
 0.5110	 4.4940
 0.5120	 4.5970
 0.5130	 4.7070
 0.5140	 4.8060
 0.5150	 4.9290
 0.5160	 5.0630
 0.5170	 5.1880
 0.5180	 5.3200
 0.5190	 5.4590
 0.5200	 5.6010
 0.5210	 5.7410
 0.5220	 5.8810
 0.5230	 6.0270
 0.5240	 6.1770
 0.5250	 6.3020
 0.5260	 6.4290
 0.5270	 6.5630
 0.5280	 6.6970
 0.5290	 6.8210
 0.5300	 6.9360
 0.5310	 7.0430
 0.5320	 7.1430
 0.5330	 7.2340
 0.5340	 7.3220
 0.5350	 7.4080
 0.5360	 7.4900
 0.5370	 7.5680
 0.5380	 7.6410
 0.5390	 7.7060
 0.5400	 7.7660
 0.5410	 7.8320
 0.5420	 7.9070
 0.5430	 7.9620
 0.5440	 8.0220
 0.5450	 8.0820
 0.5460	 8.1300
 0.5470	 8.1740
 0.5480	 8.2160
 0.5490	 8.2550
 0.5500	 8.2940
 0.5510	 8.3270
 0.5520	 8.3570
 0.5530	 8.3860
 0.5540	 8.4040
 0.5550	 8.4090
 0.5560	 8.4070
 0.5570	 8.4060
 0.5580	 8.3920
 0.5590	 8.3700
 0.5600	 8.3450
 0.5610	 8.3140
 0.5620	 8.2730
 0.5630	 8.2240
 0.5640	 8.1730
 0.5650	 8.1200
 0.5660	 8.0600
 0.5670	 7.9910
 0.5680	 7.9160
 0.5690	 7.8440
 0.5700	 7.7710
 0.5710	 7.6930
 0.5720	 7.6080
 0.5730	 7.5300
 0.5740	 7.4620
 0.5750	 7.4010
 0.5760	 7.3340
 0.5770	 7.2730
 0.5780	 7.2220
 0.5790	 7.1610
 0.5800	 7.1100
 0.5810	 7.0630
 0.5820	 7.0100
 0.5830	 6.9690
 0.5840	 6.9340
 0.5850	 6.9040
 0.5860	 6.8890
 0.5870	 6.8680
 0.5880	 6.8400
 0.5890	 6.8090
 0.5900	 6.7740
 0.5910	 6.7410
 0.5920	 6.7160
 0.5930	 6.7010
 0.5940	 6.6840
 0.5950	 6.6710
 0.5960	 6.6630
 0.5970	 6.6550
 0.5980	 6.6490
 0.5990	 6.6410
 0.6000	 6.6240
 0.6010	 6.6070
 0.6020	 6.5880
 0.6030	 6.5660
 0.6040	 6.5430
 0.6050	 6.5160
 0.6060	 6.4850
 0.6070	 6.4510
 0.6080	 6.4120
 0.6090	 6.3710
 0.6100	 6.3340
 0.6110	 6.3040
 0.6120	 6.2600
 0.6130	 6.2130
 0.6140	 6.1660
 0.6150	 6.1180
 0.6160	 6.0720
 0.6170	 6.0320
 0.6180	 6.0010
 0.6190	 5.9740
 0.6200	 5.9440
 0.6210	 5.9170
 0.6220	 5.9030
 0.6230	 5.8900
 0.6240	 5.8780
 0.6250	 5.8700
 0.6260	 5.8650
 0.6270	 5.8620
 0.6280	 5.8600
 0.6290	 5.8620
 0.6300	 5.8650
 0.6310	 5.8660
 0.6320	 5.8640
 0.6330	 5.8570
 0.6340	 5.8460
 0.6350	 5.8270
 0.6360	 5.7990
 0.6370	 5.7700
 0.6380	 5.7330
 0.6390	 5.6850
 0.6400	 5.6290
 0.6410	 5.5710
 0.6420	 5.5150
 0.6430	 5.4560
 0.6440	 5.3890
 0.6450	 5.3240
 0.6460	 5.2650
 0.6470	 5.2070
 0.6480	 5.1480
 0.6490	 5.0990
 0.6500	 5.0600
 0.6510	 5.0210
 0.6520	 4.9930
 0.6530	 4.9690
 0.6540	 4.9390
 0.6550	 4.9120
 0.6560	 4.8770
 0.6570	 4.8360
 0.6580	 4.7930
 0.6590	 4.7460
 0.6600	 4.6930
 0.6610	 4.6380
 0.6620	 4.5860
 0.6630	 4.5310
 0.6640	 4.4800
 0.6650	 4.4370
 0.6660	 4.3930
 0.6670	 4.3540
 0.6680	 4.3230
 0.6690	 4.2970
 0.6700	 4.2750
 0.6710	 4.2610
 0.6720	 4.2540
 0.6730	 4.2510
 0.6740	 4.2510
 0.6750	 4.2550
 0.6760	 4.2630
 0.6770	 4.2700
 0.6780	 4.2860
 0.6790	 4.3130
 0.6800	 4.3460
 0.6810	 4.3820
 0.6820	 4.4270
 0.6830	 4.4830
 0.6840	 4.5560
 0.6850	 4.6570
 0.6860	 4.7810
 0.6870	 4.9230
 0.6880	 5.0970
 0.6890	 5.3070
 0.6900	 5.5560
 0.6910	 5.8440
 0.6920	 6.1740
 0.6930	 6.5490
 0.6940	 6.9720
 0.6950	 7.4500
 0.6960	 7.9700
 0.6970	 8.5270
 0.6980	 9.1170
 0.6990	 9.7460
 0.7000	10.4080
 0.7010	11.0920
 0.7020	11.7880
 0.7030	12.5060
 0.7040	13.2350
 0.7050	13.9620
 0.7060	14.6960
 0.7070	15.4350
 0.7080	16.1740
 0.7090	16.9130
 0.7100	17.6530
 0.7110	18.3890
 0.7120	19.1250
 0.7130	19.8700
 0.7140	20.6060
 0.7150	21.3370
 0.7160	22.0640
 0.7170	22.7870
 0.7180	23.5010
 0.7190	24.2040
 0.7200	24.8990
 0.7210	25.5870
 0.7220	26.2580
 0.7230	26.9110
 0.7240	27.5600
 0.7250	28.1940
 0.7260	28.7980
 0.7270	29.3690
 0.7280	29.9330
 0.7290	30.4780
 0.7300	30.9950
 0.7310	31.4790
 0.7320	31.9390
 0.7330	32.3850
 0.7340	32.8150
 0.7350	33.2180
 0.7360	33.6000
 0.7370	33.9550
 0.7380	34.2840
 0.7390	34.6020
 0.7400	34.9080
 0.7410	35.1960
 0.7420	35.4570
 0.7430	35.7060
 0.7440	35.9390
 0.7450	36.1590
 0.7460	36.3760
 0.7470	36.5630
 0.7480	36.7300
 0.7490	36.8890
 0.7500	37.0440
 0.7510	37.1800
 0.7520	37.3050
 0.7530	37.4310
 0.7540	37.5500
 0.7550	37.6590
 0.7560	37.7580
 0.7570	37.8500
 0.7580	37.9380
 0.7590	38.0180
 0.7600	38.0890
 0.7610	38.1460
 0.7620	38.2130
 0.7630	38.2810
 0.7640	38.3380
 0.7650	38.3890
 0.7660	38.4460
 0.7670	38.4980
 0.7680	38.5310
 0.7690	38.5790
 0.7700	38.6300
 0.7710	38.6720
 0.7720	38.7050
 0.7730	38.7450
 0.7740	38.7790
 0.7750	38.8030
 0.7760	38.8400
 0.7770	38.8700
 0.7780	38.8980
 0.7790	38.9390
 0.7800	38.9780
 0.7810	39.0000
 0.7820	39.0210
 0.7830	39.0750
 0.7840	39.1170
 0.7850	39.1410
 0.7860	39.1580
 0.7870	39.1960
 0.7880	39.2350
 0.7890	39.2670
 0.7900	39.2870
 0.7910	39.3090
 0.7920	39.3410
 0.7930	39.3800
 0.7940	39.4150
 0.7950	39.4320
 0.7960	39.4550
 0.7970	39.4900
 0.7980	39.5140
 0.7990	39.5540
 0.8000	39.5940
 0.8010	39.6190
 0.8020	39.6390
 0.8030	39.6760
 0.8040	39.7180
 0.8050	39.7410
 0.8060	39.7740
 0.8070	39.7960
 0.8080	39.8140
 0.8090	39.8570
 0.8100	39.9030
 0.8110	39.9400
 0.8120	39.9670
 0.8130	39.9900
 0.8140	40.0180
 0.8150	40.0460
 0.8160	40.0710
 0.8170	40.0930
 0.8180	40.1400
 0.8190	40.1950
 0.8200	40.2270
 0.8210	40.2430
 0.8220	40.2640
 0.8230	40.2940
 0.8240	40.3220
 0.8250	40.3670
 0.8260	40.4000
 0.8270	40.4140
 0.8280	40.4490
 0.8290	40.4890
 0.8300	40.5140
 0.8310	40.5200
 0.8320	40.5470
 0.8330	40.5780
 0.8340	40.6070
 0.8350	40.6340
 0.8360	40.6520
 0.8370	40.6810
 0.8380	40.7220
 0.8390	40.7580
 0.8400	40.7780
 0.8410	40.7960
 0.8420	40.8230
 0.8430	40.8580
 0.8440	40.8750
 0.8450	40.8920
 0.8460	40.9270
 0.8470	40.9590
 0.8480	40.9940
 0.8490	41.0190
 0.8500	41.0300
 0.8510	41.0670
 0.8520	41.1020
 0.8530	41.1250
 0.8540	41.1360
 0.8550	41.1600
 0.8560	41.1930
 0.8570	41.2190
 0.8580	41.2250
 0.8590	41.2290
 0.8600	41.2510
 0.8610	41.2890
 0.8620	41.3010
 0.8630	41.3000
 0.8640	41.3200
 0.8650	41.3710
 0.8660	41.3850
 0.8670	41.3890
 0.8680	41.3970
 0.8690	41.4120
 0.8700	41.4180
 0.8710	41.4330
 0.8720	41.4490
 0.8730	41.4510
 0.8740	41.4730
 0.8750	41.5010
 0.8760	41.5200
 0.8770	41.5230
 0.8780	41.5250
 0.8790	41.5360
 0.8800	41.5550
 0.8810	41.5650
 0.8820	41.5740
 0.8830	41.5760
 0.8840	41.5740
 0.8850	41.5930
 0.8860	41.5980
 0.8870	41.5950
 0.8880	41.5970
 0.8890	41.6050
 0.8900	41.6190
 0.8910	41.6320
 0.8920	41.6390
 0.8930	41.6390
 0.8940	41.6300
 0.8950	41.6180
 0.8960	41.6120
 0.8970	41.6250
 0.8980	41.6320
 0.8990	41.6270
 0.9000	41.6260
 0.9010	41.6240
 0.9020	41.6200
 0.9030	41.6220
 0.9040	41.6450
 0.9050	41.6410
 0.9060	41.6280
 0.9070	41.6250
 0.9080	41.6280
 0.9090	41.6250
 0.9100	41.6290
 0.9110	41.6420
 0.9120	41.6220
 0.9130	41.6290
 0.9140	41.6510
 0.9150	41.6560
 0.9160	41.6420
 0.9170	41.6230
 0.9180	41.6190
 0.9190	41.6400
 0.9200	41.6550
 0.9210	41.6500
 0.9220	41.6290
 0.9230	41.6070
 0.9240	41.6040
 0.9250	41.6150
 0.9260	41.6270
 0.9270	41.6250
 0.9280	41.6090
 0.9290	41.5910
 0.9300	41.5680
 0.9310	41.5260
 0.9320	41.5290
 0.9330	41.5380
 0.9340	41.5270
 0.9350	41.5090
 0.9360	41.4910
 0.9370	41.4700
 0.9380	41.4460
 0.9390	41.4240
 0.9400	41.4090
 0.9410	41.3940
 0.9420	41.3690
 0.9430	41.3190
 0.9440	41.2810
 0.9450	41.2520
 0.9460	41.2260
 0.9470	41.2120
 0.9480	41.1800
 0.9490	41.1190
 0.9500	41.0390
 0.9510	40.9830
 0.9520	40.9150
 0.9530	40.8460
 0.9540	40.7810
 0.9550	40.6750
 0.9560	40.6270
 0.9570	40.5890
 0.9580	40.5020
 0.9590	40.4600
 0.9600	40.4040
 0.9610	40.3380
 0.9620	40.2880
 0.9630	40.2640
 0.9640	40.2170
 0.9650	40.1730
 0.9660	40.1670
 0.9670	40.1290
 0.9680	40.0840
 0.9690	40.0590
 0.9700	40.0670
 0.9710	40.0560
 0.9720	40.0510
 0.9730	40.0410
 0.9740	40.0130
 0.9750	40.0470
 0.9760	40.0330
 0.9770	39.9970
 0.9780	40.0110
 0.9790	40.0330
 0.9800	40.0730
 0.9810	40.0900
 0.9820	40.0540
 0.9830	40.1060
 0.9840	40.1240
 0.9850	40.1210
 0.9860	40.1650
 0.9870	40.2180
 0.9880	40.2410
 0.9890	40.2500
 0.9900	40.2880
 0.9910	40.3520
 0.9920	40.4240
 0.9930	40.4960
 0.9940	40.5680
 0.9950	40.6400
 0.9960	40.7120
 0.9970	40.7850
 0.9980	40.8570
 0.9990	40.9290
 1.0000	41.0010
 1.0010	41.0730
 1.0020	41.1460
 1.0030	41.2180
 1.0040	41.2900
 1.0050	41.3620
 1.0060	41.4340
 1.0070	41.5070
 1.0080	41.5790
 1.0090	41.6510
 1.0100	41.6510
 1.0110	41.6950
 1.0120	41.7390
 1.0130	41.7870
 1.0140	41.8340
 1.0150	41.8880
 1.0160	41.9310
 1.0170	41.9700
 1.0180	42.0190
 1.0190	42.0660
 1.0200	42.1110
 1.0210	42.1540
 1.0220	42.1950
 1.0230	42.2390
 1.0240	42.2840
 1.0250	42.3270
 1.0260	42.3710
 1.0270	42.4150
 1.0280	42.4640
 1.0290	42.5010
 1.0300	42.5310
 1.0310	42.5660
 1.0320	42.5960
 1.0330	42.6280
 1.0340	42.6770
 1.0350	42.7280
 1.0360	42.7630
 1.0370	42.7970
 1.0380	42.8320
 1.0390	42.8610
 1.0400	42.8880
 1.0410	42.9160
 1.0420	42.9450
 1.0430	42.9690
 1.0440	42.9940
 1.0450	43.0290
 1.0460	43.0530
 1.0470	43.0620
 1.0480	43.0830
 1.0490	43.1040
 1.0500	43.1270
 1.0510	43.1510
 1.0520	43.1860
 1.0530	43.2080
 1.0540	43.2250
 1.0550	43.2460
 1.0560	43.2650
 1.0570	43.2840
 1.0580	43.3070
 1.0590	43.3240
 1.0600	43.3320
 1.0610	43.3470
 1.0620	43.3630
 1.0630	43.3790
 1.0640	43.3970
 1.0650	43.4150
 1.0660	43.4310
 1.0670	43.4470
 1.0680	43.4630
 1.0690	43.4820
 1.0700	43.4920
 1.0710	43.4980
 1.0720	43.5040
 1.0730	43.5050
 1.0740	43.5100
 1.0750	43.5170
 1.0760	43.5240
 1.0770	43.5320
 1.0780	43.5400
 1.0790	43.5490
 1.0800	43.5570
 1.0810	43.5670
 1.0820	43.5740
 1.0830	43.5810
 1.0840	43.5860
 1.0850	43.5850
 1.0860	43.5870
 1.0870	43.5880
 1.0880	43.5880
 1.0890	43.5850
 1.0900	43.5770
 1.0910	43.5750
 1.0920	43.5750
 1.0930	43.5700
 1.0940	43.5650
 1.0950	43.5590
 1.0960	43.5460
 1.0970	43.5350
 1.0980	43.5320
 1.0990	43.5190
 1.1000	43.4950
 1.1010	43.4770
 1.1020	43.4560
 1.1030	43.4360
 1.1040	43.4270
 1.1050	43.4170
 1.1060	43.4040
 1.1070	43.3930
 1.1080	43.3750
 1.1090	43.3510
 1.1100	43.3290
 1.1110	43.3030
 1.1120	43.2780
 1.1130	43.2550
 1.1140	43.2270
 1.1150	43.2010
 1.1160	43.1680
 1.1170	43.1320
 1.1180	43.0890
 1.1190	43.0400
 1.1200	42.9870
 1.1210	42.9240
 1.1220	42.8600
 1.1230	42.7950
 1.1240	42.7220
 1.1250	42.6450
 1.1260	42.5680
 1.1270	42.4810
 1.1280	42.3880
 1.1290	42.2860
 1.1300	42.1800
 1.1310	42.0620
 1.1320	41.9340
 1.1330	41.7990
 1.1340	41.6570
 1.1350	41.5080
 1.1360	41.3530
 1.1370	41.1870
 1.1380	41.0130
 1.1390	40.8370
 1.1400	40.6570
 1.1410	40.4720
 1.1420	40.2820
 1.1430	40.0900
 1.1440	39.8940
 1.1450	39.6850
 1.1460	39.4890
 1.1470	39.2910
 1.1480	39.1020
 1.1490	38.9160
 1.1500	38.7400
 1.1510	38.5690
 1.1520	38.4080
 1.1530	38.2530
 1.1540	38.1080
 1.1550	37.9730
 1.1560	37.8450
 1.1570	37.7240
 1.1580	37.6160
 1.1590	37.5130
 1.1600	37.4170
 1.1610	37.3340
 1.1620	37.2560
 1.1630	37.1850
 1.1640	37.1230
 1.1650	37.0640
 1.1660	37.0100
 1.1670	36.9620
 1.1680	36.9230
 1.1690	36.8820
 1.1700	36.8470
 1.1710	36.8100
 1.1720	36.7700
 1.1730	36.7340
 1.1740	36.7020
 1.1750	36.6710
 1.1760	36.6410
 1.1770	36.6130
 1.1780	36.5790
 1.1790	36.5440
 1.1800	36.5090
 1.1810	36.4700
 1.1820	36.4330
 1.1830	36.3980
 1.1840	36.3630
 1.1850	36.3250
 1.1860	36.2920
 1.1870	36.2630
 1.1880	36.2340
 1.1890	36.2070
 1.1900	36.1820
 1.1910	36.1600
 1.1920	36.1380
 1.1930	36.1200
 1.1940	36.1020
 1.1950	36.0850
 1.1960	36.0660
 1.1970	36.0520
 1.1980	36.0450
 1.1990	36.0480
 1.2000	36.0530
 1.2010	36.0610
 1.2020	36.0730
 1.2030	36.0880
 1.2040	36.1110
 1.2050	36.1410
 1.2060	36.1770
 1.2070	36.2130
 1.2080	36.2520
 1.2090	36.2950
 1.2100	36.3400
 1.2110	36.3900
 1.2120	36.4420
 1.2130	36.5010
 1.2140	36.5700
 1.2150	36.6350
 1.2160	36.7010
 1.2170	36.7700
 1.2180	36.8410
 1.2190	36.9060
 1.2200	36.9770
 1.2210	37.0510
 1.2220	37.1230
 1.2230	37.1960
 1.2240	37.2680
 1.2250	37.3410
 1.2260	37.4080
 1.2270	37.4730
 1.2280	37.5390
 1.2290	37.5990
 1.2300	37.6630
 1.2310	37.7290
 1.2320	37.7840
 1.2330	37.8410
 1.2340	37.8990
 1.2350	37.9540
 1.2360	38.0080
 1.2370	38.0650
 1.2380	38.1180
 1.2390	38.1630
 1.2400	38.2070
 1.2410	38.2500
 1.2420	38.2960
 1.2430	38.3420
 1.2440	38.3860
 1.2450	38.4280
 1.2460	38.4640
 1.2470	38.4970
 1.2480	38.5280
 1.2490	38.5630
 1.2500	38.5970
 1.2510	38.6310
 1.2520	38.6680
 1.2530	38.6940
 1.2540	38.7140
 1.2550	38.7390
 1.2560	38.7590
 1.2570	38.7790
 1.2580	38.8060
 1.2590	38.8310
 1.2600	38.8580
 1.2610	38.8810
 1.2620	38.9040
 1.2630	38.9240
 1.2640	38.9390
 1.2650	38.9560
 1.2660	38.9750
 1.2670	38.9820
 1.2680	38.9880
 1.2690	38.9940
 1.2700	38.9960
 1.2710	39.0050
 1.2720	39.0100
 1.2730	39.0090
 1.2740	39.0060
 1.2750	39.0010
 1.2760	38.9970
 1.2770	38.9940
 1.2780	38.9880
 1.2790	38.9770
 1.2800	38.9650
 1.2810	38.9540
 1.2820	38.9380
 1.2830	38.9230
 1.2840	38.9040
 1.2850	38.8760
 1.2860	38.8530
 1.2870	38.8270
 1.2880	38.7990
 1.2890	38.7690
 1.2900	38.7420
 1.2910	38.7040
 1.2920	38.6670
 1.2930	38.6310
 1.2940	38.5900
 1.2950	38.5510
 1.2960	38.5090
 1.2970	38.4640
 1.2980	38.4150
 1.2990	38.3600
 1.3000	38.3010
 1.3010	38.2370
 1.3020	38.1710
 1.3030	38.1050
 1.3040	38.0360
 1.3050	37.9600
 1.3060	37.8800
 1.3070	37.7950
 1.3080	37.7030
 1.3090	37.6110
 1.3100	37.5150
 1.3110	37.4120
 1.3120	37.3100
 1.3130	37.2030
 1.3140	37.0900
 1.3150	36.9730
 1.3160	36.8520
 1.3170	36.7260
 1.3180	36.5930
 1.3190	36.4550
 1.3200	36.3140
 1.3210	36.1660
 1.3220	36.0170
 1.3230	35.8690
 1.3240	35.7160
 1.3250	35.5640
 1.3260	35.4110
 1.3270	35.2480
 1.3280	35.0860
 1.3290	34.9180
 1.3300	34.7420
 1.3310	34.5680
 1.3320	34.3870
 1.3330	34.2050
 1.3340	34.0230
 1.3350	33.8410
 1.3360	33.6580
 1.3370	33.4720
 1.3380	33.2870
 1.3390	33.1010
 1.3400	32.9160
 1.3410	32.7380
 1.3420	32.5610
 1.3430	32.3860
 1.3440	32.2140
 1.3450	32.0420
 1.3460	31.8680
 1.3470	31.6990
 1.3480	31.5300
 1.3490	31.3660
 1.3500	31.2070
 1.3510	31.0490
 1.3520	30.8890
 1.3530	30.7330
 1.3540	30.5810
 1.3550	30.4280
 1.3560	30.2780
 1.3570	30.1290
 1.3580	29.9750
 1.3590	29.8170
 1.3600	29.6590
 1.3610	29.4980
 1.3620	29.3360
 1.3630	29.1740
 1.3640	29.0050
 1.3650	28.8310
 1.3660	28.6520
 1.3670	28.4640
 1.3680	28.2650
 1.3690	28.0570
 1.3700	27.8390
 1.3710	27.6110
 1.3720	27.3790
 1.3730	27.1320
 1.3740	26.8700
 1.3750	26.5940
 1.3760	26.3000
 1.3770	25.9870
 1.3780	25.6580
 1.3790	25.3150
 1.3800	24.9550
 1.3810	24.5780
 1.3820	24.1880
 1.3830	23.7820
 1.3840	23.3640
 1.3850	22.9280
 1.3860	22.4880
 1.3870	22.0340
 1.3880	21.5810
 1.3890	21.1210
 1.3900	20.6540
 1.3910	20.1900
 1.3920	19.7250
 1.3930	19.2600
 1.3940	18.8030
 1.3950	18.3480
 1.3960	17.8980
 1.3970	17.4620
 1.3980	17.0340
 1.3990	16.6230
 1.4000	16.2260
 1.4010	15.8390
 1.4020	15.4700
 1.4030	15.1110
 1.4040	14.7690
 1.4050	14.4470
 1.4060	14.1380
 1.4070	13.8510
 1.4080	13.5810
 1.4090	13.3220
 1.4100	13.0790
 1.4110	12.8490
 1.4120	12.6320
 1.4130	12.4310
 1.4140	12.2450
 1.4150	12.0750
 1.4160	11.9180
 1.4170	11.7710
 1.4180	11.6340
 1.4190	11.5080
 1.4200	11.3920
 1.4210	11.2860
 1.4220	11.1910
 1.4230	11.1030
 1.4240	11.0230
 1.4250	10.9470
 1.4260	10.8750
 1.4270	10.8100
 1.4280	10.7520
 1.4290	10.6990
 1.4300	10.6530
 1.4310	10.6110
 1.4320	10.5730
 1.4330	10.5400
 1.4340	10.5120
 1.4350	10.4860
 1.4360	10.4630
 1.4370	10.4460
 1.4380	10.4310
 1.4390	10.4180
 1.4400	10.4080
 1.4410	10.4020
 1.4420	10.3960
 1.4430	10.3940
 1.4440	10.3970
 1.4450	10.3990
 1.4460	10.4050
 1.4470	10.4110
 1.4480	10.4170
 1.4490	10.4280
 1.4500	10.4360
 1.4510	10.4430
 1.4520	10.4540
 1.4530	10.4640
 1.4540	10.4750
 1.4550	10.4890
 1.4560	10.5020
 1.4570	10.5180
 1.4580	10.5370
 1.4590	10.5590
 1.4600	10.5820
 1.4610	10.6080
 1.4620	10.6360
 1.4630	10.6670
 1.4640	10.7010
 1.4650	10.7380
 1.4660	10.7760
 1.4670	10.8190
 1.4680	10.8640
 1.4690	10.9100
