Name: Puya venusta
Type: vegetation
Class: Shrub
Genus: Puya
Species: venusta
Sample No.: JPL080
Owner: JPL
Wavelength Range: TIR
Origin: 34.12562; - 118.1098; WGS84
Collection Date: 2/2/2016
Description: Samples were collected at the Huntington Garden in San Marino California as part of a JPL Subcontract studying HyTES imagery. Samples were taken to JPL and processed within 48 hours of collection. The same leaves were processed in the Nicolet and then measured using the ASD.
Measurement: Hemispherical reflectance
First Column: X
Second Column: Y
X Units: Wavelength (micrometer)
Y Units: Reflectance (percentage)
First X Value: 2.501
Last X Value: 15.387
Number of X Values: 1737
Additional Information: 

 2.5010	 6.8680
 2.5030	 6.8620
 2.5040	 6.9260
 2.5050	 6.8960
 2.5060	 6.9330
 2.5070	 6.8920
 2.5090	 6.8850
 2.5100	 6.8850
 2.5110	 6.8900
 2.5120	 6.8390
 2.5140	 6.9110
 2.5150	 6.9280
 2.5160	 6.9620
 2.5170	 6.8960
 2.5180	 6.8930
 2.5200	 6.9090
 2.5210	 6.9660
 2.5220	 6.8910
 2.5230	 6.9100
 2.5250	 6.9960
 2.5260	 6.9840
 2.5270	 7.0100
 2.5280	 7.0210
 2.5300	 6.9280
 2.5310	 6.9200
 2.5320	 6.9100
 2.5330	 6.9300
 2.5340	 6.8850
 2.5360	 6.9470
 2.5370	 6.9440
 2.5380	 6.9570
 2.5390	 6.9860
 2.5410	 7.0070
 2.5420	 6.9230
 2.5430	 6.9680
 2.5440	 6.9640
 2.5460	 7.0420
 2.5470	 7.1040
 2.5480	 7.0440
 2.5490	 6.9640
 2.5510	 7.0290
 2.5520	 7.0540
 2.5530	 7.0540
 2.5540	 7.0500
 2.5560	 7.0910
 2.5570	 7.0700
 2.5580	 7.0700
 2.5590	 7.0490
 2.5610	 7.0420
 2.5620	 7.0160
 2.5630	 7.0400
 2.5650	 7.0710
 2.5660	 7.0870
 2.5670	 7.0460
 2.5680	 7.0880
 2.5700	 7.1450
 2.5710	 7.1740
 2.5720	 7.1470
 2.5730	 7.1740
 2.5750	 7.1720
 2.5760	 7.1490
 2.5770	 7.1260
 2.5790	 7.1380
 2.5800	 7.1070
 2.5810	 7.1710
 2.5820	 7.1590
 2.5840	 7.1900
 2.5850	 7.1830
 2.5860	 7.2000
 2.5880	 7.1120
 2.5890	 7.1570
 2.5900	 7.1180
 2.5910	 7.1170
 2.5930	 7.1120
 2.5940	 7.1700
 2.5950	 7.2080
 2.5970	 7.1930
 2.5980	 7.1040
 2.5990	 7.0920
 2.6010	 7.1270
 2.6020	 7.1910
 2.6030	 7.2370
 2.6040	 7.2830
 2.6060	 7.2430
 2.6070	 7.1880
 2.6080	 7.1520
 2.6100	 7.1810
 2.6110	 7.1660
 2.6120	 7.1490
 2.6140	 7.1290
 2.6150	 7.1940
 2.6160	 7.1640
 2.6180	 7.1850
 2.6190	 7.1980
 2.6200	 7.2040
 2.6220	 7.1480
 2.6230	 7.1390
 2.6240	 7.1180
 2.6260	 7.1280
 2.6270	 7.0530
 2.6280	 7.0510
 2.6300	 7.0770
 2.6310	 7.1570
 2.6320	 7.1160
 2.6340	 7.0620
 2.6350	 7.0660
 2.6360	 7.0940
 2.6380	 7.0980
 2.6390	 7.1610
 2.6400	 7.1010
 2.6420	 7.1020
 2.6430	 7.0960
 2.6440	 7.0790
 2.6460	 7.0510
 2.6470	 7.0680
 2.6480	 7.0510
 2.6500	 6.9870
 2.6510	 6.9320
 2.6520	 7.0310
 2.6540	 6.9890
 2.6550	 7.0170
 2.6570	 7.0710
 2.6580	 7.0380
 2.6590	 6.9530
 2.6610	 6.9650
 2.6620	 6.9250
 2.6630	 6.8980
 2.6650	 6.9140
 2.6660	 6.9880
 2.6670	 6.9850
 2.6690	 6.9460
 2.6700	 6.9680
 2.6720	 6.9570
 2.6730	 6.8350
 2.6740	 6.8590
 2.6760	 6.8590
 2.6770	 6.8550
 2.6780	 6.8530
 2.6800	 6.8790
 2.6810	 6.8120
 2.6830	 6.8070
 2.6840	 6.7230
 2.6850	 6.7280
 2.6870	 6.7710
 2.6880	 6.7980
 2.6900	 6.7510
 2.6910	 6.7270
 2.6920	 6.6720
 2.6940	 6.6830
 2.6950	 6.6640
 2.6970	 6.6970
 2.6980	 6.6990
 2.6990	 6.6650
 2.7010	 6.6160
 2.7020	 6.6040
 2.7040	 6.5260
 2.7050	 6.4990
 2.7060	 6.4370
 2.7080	 6.4000
 2.7090	 6.3470
 2.7110	 6.3860
 2.7120	 6.3340
 2.7130	 6.2310
 2.7150	 6.1380
 2.7160	 6.1600
 2.7180	 6.1160
 2.7190	 6.1090
 2.7210	 6.1520
 2.7220	 6.1710
 2.7230	 6.0890
 2.7250	 6.0650
 2.7260	 5.9730
 2.7280	 5.9010
 2.7290	 5.9000
 2.7310	 5.9090
 2.7320	 5.7670
 2.7340	 5.7090
 2.7350	 5.6540
 2.7360	 5.6230
 2.7380	 5.5860
 2.7390	 5.6190
 2.7410	 5.6280
 2.7420	 5.5250
 2.7440	 5.4050
 2.7450	 5.4410
 2.7470	 5.4110
 2.7480	 5.4050
 2.7490	 5.3550
 2.7510	 5.3880
 2.7520	 5.3700
 2.7540	 5.3330
 2.7550	 5.3350
 2.7570	 5.3400
 2.7580	 5.2360
 2.7600	 5.2180
 2.7610	 5.1980
 2.7630	 5.2240
 2.7640	 5.1240
 2.7660	 5.0290
 2.7670	 5.0300
 2.7690	 5.0960
 2.7700	 5.0660
 2.7720	 5.0620
 2.7730	 4.9940
 2.7740	 4.9470
 2.7760	 4.9250
 2.7770	 4.9860
 2.7790	 4.9550
 2.7800	 4.9230
 2.7820	 4.8810
 2.7830	 4.8540
 2.7850	 4.8140
 2.7860	 4.8330
 2.7880	 4.7940
 2.7890	 4.7900
 2.7910	 4.7190
 2.7920	 4.7050
 2.7940	 4.6440
 2.7950	 4.6770
 2.7970	 4.6720
 2.7980	 4.6600
 2.8000	 4.5640
 2.8010	 4.5740
 2.8030	 4.5960
 2.8040	 4.6170
 2.8060	 4.6280
 2.8080	 4.5570
 2.8090	 4.4260
 2.8110	 4.4480
 2.8120	 4.5220
 2.8140	 4.5860
 2.8150	 4.4920
 2.8170	 4.4280
 2.8180	 4.3330
 2.8200	 4.3600
 2.8210	 4.4000
 2.8230	 4.3780
 2.8240	 4.3400
 2.8260	 4.3990
 2.8270	 4.3510
 2.8290	 4.3160
 2.8310	 4.2800
 2.8320	 4.2500
 2.8340	 4.2360
 2.8350	 4.2940
 2.8370	 4.3030
 2.8380	 4.3480
 2.8400	 4.2920
 2.8410	 4.2570
 2.8430	 4.2640
 2.8440	 4.2720
 2.8460	 4.2390
 2.8480	 4.2170
 2.8490	 4.1900
 2.8510	 4.2950
 2.8520	 4.2750
 2.8540	 4.2810
 2.8550	 4.2100
 2.8570	 4.1810
 2.8590	 4.1680
 2.8600	 4.2160
 2.8620	 4.1620
 2.8630	 4.1510
 2.8650	 4.0680
 2.8660	 4.0780
 2.8680	 4.0580
 2.8700	 4.1100
 2.8710	 4.1290
 2.8730	 4.0810
 2.8740	 4.0180
 2.8760	 4.0840
 2.8780	 4.0780
 2.8790	 4.0740
 2.8810	 4.0370
 2.8820	 4.0490
 2.8840	 3.9670
 2.8860	 4.0440
 2.8870	 4.1250
 2.8890	 4.0990
 2.8900	 3.9820
 2.8920	 3.9850
 2.8940	 4.0070
 2.8950	 4.0160
 2.8970	 3.9220
 2.8990	 3.9700
 2.9000	 4.0020
 2.9020	 3.9670
 2.9030	 4.0240
 2.9050	 4.0040
 2.9070	 3.9280
 2.9080	 3.9860
 2.9100	 4.0050
 2.9120	 4.0440
 2.9130	 3.9940
 2.9150	 4.0190
 2.9160	 3.9980
 2.9180	 3.9710
 2.9200	 3.8820
 2.9210	 3.8720
 2.9230	 3.8640
 2.9250	 3.9320
 2.9260	 3.9690
 2.9280	 4.0260
 2.9300	 3.9930
 2.9310	 3.9760
 2.9330	 3.9060
 2.9350	 3.9910
 2.9360	 4.0630
 2.9380	 4.0720
 2.9400	 4.0160
 2.9410	 4.0310
 2.9430	 3.9830
 2.9450	 4.0180
 2.9460	 4.0580
 2.9480	 4.1400
 2.9500	 4.0910
 2.9510	 4.0030
 2.9530	 3.8810
 2.9550	 3.9170
 2.9560	 3.9850
 2.9580	 4.0410
 2.9600	 4.0140
 2.9610	 4.0420
 2.9630	 3.9830
 2.9650	 4.0350
 2.9670	 4.0450
 2.9680	 4.0550
 2.9700	 4.0350
 2.9720	 4.0100
 2.9730	 3.9390
 2.9750	 4.0160
 2.9770	 4.0800
 2.9780	 4.1300
 2.9800	 4.0540
 2.9820	 4.0330
 2.9840	 4.0450
 2.9850	 4.1100
 2.9870	 4.0930
 2.9890	 4.1050
 2.9900	 4.1190
 2.9920	 4.1170
 2.9940	 4.0360
 2.9960	 4.0640
 2.9970	 4.0920
 2.9990	 4.0750
 3.0010	 4.0540
 3.0030	 4.1420
 3.0040	 4.1540
 3.0060	 4.1820
 3.0080	 4.1810
 3.0100	 4.2320
 3.0110	 4.2020
 3.0130	 4.2200
 3.0150	 4.2470
 3.0170	 4.3080
 3.0180	 4.2650
 3.0200	 4.2350
 3.0220	 4.2370
 3.0240	 4.2970
 3.0250	 4.3140
 3.0270	 4.3470
 3.0290	 4.3490
 3.0310	 4.3300
 3.0320	 4.2610
 3.0340	 4.2930
 3.0360	 4.2940
 3.0380	 4.3040
 3.0400	 4.3270
 3.0410	 4.4100
 3.0430	 4.3910
 3.0450	 4.4020
 3.0470	 4.3460
 3.0480	 4.3650
 3.0500	 4.3580
 3.0520	 4.4130
 3.0540	 4.4230
 3.0560	 4.4510
 3.0570	 4.4690
 3.0590	 4.5040
 3.0610	 4.4550
 3.0630	 4.4420
 3.0650	 4.4430
 3.0670	 4.5440
 3.0680	 4.5360
 3.0700	 4.5090
 3.0720	 4.4880
 3.0740	 4.5550
 3.0760	 4.5560
 3.0770	 4.5500
 3.0790	 4.5470
 3.0810	 4.5740
 3.0830	 4.5630
 3.0850	 4.6360
 3.0870	 4.6560
 3.0880	 4.6770
 3.0900	 4.6300
 3.0920	 4.6790
 3.0940	 4.6650
 3.0960	 4.6440
 3.0980	 4.6710
 3.1000	 4.7320
 3.1010	 4.6750
 3.1030	 4.6640
 3.1050	 4.6260
 3.1070	 4.6190
 3.1090	 4.6650
 3.1110	 4.6970
 3.1130	 4.6770
 3.1140	 4.7140
 3.1160	 4.6980
 3.1180	 4.7020
 3.1200	 4.7240
 3.1220	 4.7420
 3.1240	 4.7280
 3.1260	 4.7950
 3.1280	 4.7640
 3.1290	 4.7610
 3.1310	 4.7760
 3.1330	 4.8060
 3.1350	 4.8570
 3.1370	 4.8970
 3.1390	 4.9040
 3.1410	 4.9350
 3.1430	 4.8690
 3.1450	 4.8510
 3.1470	 4.8420
 3.1480	 4.9440
 3.1500	 4.9670
 3.1520	 4.9430
 3.1540	 4.9090
 3.1560	 4.9030
 3.1580	 4.8890
 3.1600	 4.9460
 3.1620	 4.9180
 3.1640	 4.9220
 3.1660	 4.9240
 3.1680	 4.9400
 3.1700	 4.9020
 3.1720	 4.8860
 3.1730	 4.8480
 3.1750	 4.9250
 3.1770	 5.0000
 3.1790	 5.0180
 3.1810	 5.0020
 3.1830	 5.0140
 3.1850	 5.0090
 3.1870	 5.0480
 3.1890	 5.0420
 3.1910	 5.0340
 3.1930	 4.9770
 3.1950	 4.9880
 3.1970	 4.9930
 3.1990	 5.0210
 3.2010	 5.0130
 3.2030	 5.0400
 3.2050	 5.0370
 3.2070	 5.0490
 3.2090	 5.0150
 3.2110	 5.0870
 3.2130	 5.1060
 3.2150	 5.0830
 3.2170	 5.0330
 3.2190	 5.0450
 3.2210	 5.0780
 3.2230	 5.1320
 3.2250	 5.0760
 3.2270	 5.0420
 3.2290	 5.0230
 3.2310	 5.0420
 3.2330	 5.0460
 3.2350	 5.1500
 3.2370	 5.1160
 3.2390	 5.0970
 3.2410	 5.1350
 3.2430	 5.2060
 3.2450	 5.2010
 3.2470	 5.1510
 3.2490	 5.0880
 3.2510	 5.1450
 3.2530	 5.1610
 3.2550	 5.1690
 3.2570	 5.1070
 3.2590	 5.1560
 3.2610	 5.2200
 3.2630	 5.1990
 3.2650	 5.1580
 3.2670	 5.1870
 3.2700	 5.1750
 3.2720	 5.2090
 3.2740	 5.1860
 3.2760	 5.1270
 3.2780	 5.1280
 3.2800	 5.2160
 3.2820	 5.2450
 3.2840	 5.2390
 3.2860	 5.1830
 3.2880	 5.1840
 3.2900	 5.1220
 3.2920	 5.1330
 3.2940	 5.1410
 3.2970	 5.1910
 3.2990	 5.2020
 3.3010	 5.1920
 3.3030	 5.1670
 3.3050	 5.1560
 3.3070	 5.1130
 3.3090	 5.0790
 3.3110	 5.0960
 3.3130	 5.1930
 3.3160	 5.1900
 3.3180	 5.1940
 3.3200	 5.1600
 3.3220	 5.1420
 3.3240	 5.1000
 3.3260	 5.1010
 3.3280	 5.0940
 3.3300	 5.0800
 3.3330	 5.0420
 3.3350	 5.0890
 3.3370	 5.0890
 3.3390	 5.0590
 3.3410	 4.9450
 3.3430	 4.9330
 3.3450	 4.9410
 3.3480	 4.9340
 3.3500	 4.8900
 3.3520	 4.8680
 3.3540	 4.7900
 3.3560	 4.8030
 3.3580	 4.7970
 3.3610	 4.7600
 3.3630	 4.6850
 3.3650	 4.6680
 3.3670	 4.5870
 3.3690	 4.5400
 3.3720	 4.5520
 3.3740	 4.5270
 3.3760	 4.4470
 3.3780	 4.4430
 3.3800	 4.4450
 3.3830	 4.4420
 3.3850	 4.3800
 3.3870	 4.3620
 3.3890	 4.3050
 3.3910	 4.2550
 3.3940	 4.1990
 3.3960	 4.1780
 3.3980	 4.1410
 3.4000	 4.1500
 3.4030	 4.1430
 3.4050	 4.1480
 3.4070	 4.1220
 3.4090	 4.1610
 3.4110	 4.2050
 3.4140	 4.2630
 3.4160	 4.3290
 3.4180	 4.5030
 3.4200	 4.7280
 3.4230	 5.0290
 3.4250	 5.3500
 3.4270	 5.7540
 3.4300	 6.0340
 3.4320	 6.0570
 3.4340	 5.8160
 3.4360	 5.5980
 3.4390	 5.5050
 3.4410	 5.4290
 3.4430	 5.3180
 3.4450	 5.3070
 3.4480	 5.2890
 3.4500	 5.2670
 3.4520	 5.2350
 3.4550	 5.2440
 3.4570	 5.2360
 3.4590	 5.2230
 3.4620	 5.2250
 3.4640	 5.2550
 3.4660	 5.2550
 3.4690	 5.2860
 3.4710	 5.2060
 3.4730	 5.1630
 3.4760	 5.1810
 3.4780	 5.2190
 3.4800	 5.1790
 3.4830	 5.1200
 3.4850	 5.0360
 3.4870	 4.9780
 3.4900	 4.8940
 3.4920	 4.8060
 3.4940	 4.7320
 3.4970	 4.6970
 3.4990	 4.6080
 3.5010	 4.5960
 3.5040	 4.6470
 3.5060	 4.8490
 3.5080	 5.3310
 3.5110	 5.9360
 3.5130	 6.2560
 3.5160	 6.3430
 3.5180	 6.3070
 3.5200	 6.2690
 3.5230	 6.2620
 3.5250	 6.2690
 3.5280	 6.2060
 3.5300	 6.2260
 3.5320	 6.2000
 3.5350	 6.1160
 3.5370	 6.0680
 3.5400	 6.0630
 3.5420	 6.0400
 3.5440	 6.0510
 3.5470	 6.0210
 3.5490	 6.0360
 3.5520	 6.0540
 3.5540	 6.0420
 3.5570	 6.0420
 3.5590	 6.0450
 3.5610	 6.0170
 3.5640	 6.0530
 3.5660	 6.0470
 3.5690	 6.0140
 3.5710	 6.0010
 3.5740	 6.0360
 3.5760	 6.0600
 3.5790	 6.0400
 3.5810	 6.0320
 3.5840	 6.0070
 3.5860	 5.9690
 3.5890	 5.9990
 3.5910	 6.0250
 3.5940	 6.0220
 3.5960	 5.9820
 3.5990	 5.9760
 3.6010	 5.9820
 3.6040	 6.0280
 3.6060	 6.0340
 3.6090	 6.0200
 3.6110	 5.9720
 3.6140	 5.9430
 3.6160	 5.9340
 3.6190	 5.9880
 3.6210	 5.9980
 3.6240	 6.0080
 3.6260	 5.9890
 3.6290	 5.9770
 3.6310	 5.9510
 3.6340	 5.9840
 3.6360	 5.9940
 3.6390	 6.0070
 3.6410	 6.0020
 3.6440	 6.0270
 3.6470	 6.0250
 3.6490	 5.9680
 3.6520	 5.9150
 3.6540	 5.9190
 3.6570	 5.9290
 3.6590	 5.9730
 3.6620	 5.9800
 3.6650	 5.9630
 3.6670	 5.9720
 3.6700	 5.9860
 3.6720	 5.9310
 3.6750	 5.9380
 3.6780	 5.9950
 3.6800	 6.0090
 3.6830	 5.9840
 3.6850	 5.9890
 3.6880	 5.9730
 3.6910	 5.9560
 3.6930	 5.9630
 3.6960	 5.9750
 3.6990	 5.9630
 3.7010	 5.9730
 3.7040	 5.9510
 3.7070	 5.9430
 3.7090	 5.9400
 3.7120	 5.9490
 3.7150	 5.9830
 3.7170	 5.9770
 3.7200	 5.9470
 3.7230	 5.9880
 3.7250	 5.9700
 3.7280	 5.9600
 3.7310	 5.9660
 3.7330	 5.9830
 3.7360	 5.9840
 3.7390	 6.0000
 3.7410	 5.9960
 3.7440	 6.0010
 3.7470	 6.0110
 3.7490	 6.0110
 3.7520	 5.9920
 3.7550	 6.0210
 3.7580	 6.0400
 3.7600	 6.0300
 3.7630	 5.9780
 3.7660	 5.9870
 3.7690	 5.9970
 3.7710	 5.9910
 3.7740	 6.0250
 3.7770	 6.0550
 3.7790	 6.0360
 3.7820	 6.0580
 3.7850	 6.0390
 3.7880	 6.0330
 3.7910	 6.0300
 3.7930	 6.0680
 3.7960	 6.0640
 3.7990	 6.0420
 3.8020	 6.0600
 3.8040	 6.0870
 3.8070	 6.0640
 3.8100	 6.0500
 3.8130	 6.0420
 3.8160	 6.0690
 3.8180	 6.0640
 3.8210	 6.0240
 3.8240	 5.9910
 3.8270	 6.0060
 3.8300	 6.0150
 3.8330	 6.0610
 3.8350	 6.0940
 3.8380	 6.1220
 3.8410	 6.0800
 3.8440	 6.0860
 3.8470	 6.0640
 3.8500	 6.0650
 3.8520	 6.0660
 3.8550	 6.0940
 3.8580	 6.1150
 3.8610	 6.1140
 3.8640	 6.1180
 3.8670	 6.1240
 3.8700	 6.1020
 3.8730	 6.0930
 3.8760	 6.0760
 3.8780	 6.1040
 3.8810	 6.1220
 3.8840	 6.1240
 3.8870	 6.1090
 3.8900	 6.0720
 3.8930	 6.0320
 3.8960	 6.1140
 3.8990	 6.1570
 3.9020	 6.1170
 3.9050	 6.0950
 3.9080	 6.0940
 3.9110	 6.0850
 3.9140	 6.1290
 3.9170	 6.1610
 3.9190	 6.1470
 3.9220	 6.1050
 3.9250	 6.0720
 3.9280	 6.0770
 3.9310	 6.0710
 3.9340	 6.0850
 3.9370	 6.1370
 3.9400	 6.1670
 3.9430	 6.1660
 3.9460	 6.1380
 3.9490	 6.1600
 3.9520	 6.1450
 3.9550	 6.1390
 3.9580	 6.1560
 3.9610	 6.1580
 3.9640	 6.1030
 3.9670	 6.1060
 3.9700	 6.1410
 3.9740	 6.1610
 3.9770	 6.1390
 3.9800	 6.1430
 3.9830	 6.1230
 3.9860	 6.1390
 3.9890	 6.1530
 3.9920	 6.1730
 3.9950	 6.1520
 3.9980	 6.1180
 4.0010	 6.1250
 4.0040	 6.1820
 4.0070	 6.1530
 4.0100	 6.1150
 4.0140	 6.0980
 4.0170	 6.1210
 4.0200	 6.1230
 4.0230	 6.1250
 4.0260	 6.1410
 4.0290	 6.1730
 4.0320	 6.1980
 4.0350	 6.2130
 4.0390	 6.1720
 4.0420	 6.1500
 4.0450	 6.1380
 4.0480	 6.1560
 4.0510	 6.1770
 4.0540	 6.1760
 4.0570	 6.1570
 4.0610	 6.1960
 4.0640	 6.1990
 4.0670	 6.1430
 4.0700	 6.1350
 4.0730	 6.1530
 4.0770	 6.1410
 4.0800	 6.1510
 4.0830	 6.1490
 4.0860	 6.1310
 4.0890	 6.1270
 4.0930	 6.1710
 4.0960	 6.2010
 4.0990	 6.1920
 4.1020	 6.1700
 4.1060	 6.2040
 4.1090	 6.1850
 4.1120	 6.1850
 4.1150	 6.1760
 4.1190	 6.1690
 4.1220	 6.1530
 4.1250	 6.1650
 4.1290	 6.1630
 4.1320	 6.1890
 4.1350	 6.1920
 4.1380	 6.1630
 4.1420	 6.1550
 4.1450	 6.1620
 4.1480	 6.1750
 4.1520	 6.1870
 4.1550	 6.1820
 4.1580	 6.1710
 4.1620	 6.1670
 4.1650	 6.1740
 4.1680	 6.1840
 4.1720	 6.1690
 4.1750	 6.1570
 4.1780	 6.1710
 4.1820	 6.1850
 4.1850	 6.2060
 4.1890	 6.2150
 4.1920	 6.2180
 4.1950	 6.2230
 4.1990	 6.2460
 4.2020	 6.2930
 4.2060	 6.3980
 4.2090	 6.5040
 4.2120	 6.5620
 4.2160	 6.5940
 4.2190	 6.6650
 4.2230	 6.8230
 4.2260	 6.9800
 4.2300	 7.0700
 4.2330	 7.0730
 4.2360	 7.0120
 4.2400	 6.9310
 4.2430	 6.8640
 4.2470	 6.7870
 4.2500	 6.7070
 4.2540	 6.5680
 4.2570	 6.4620
 4.2610	 6.5660
 4.2640	 6.7190
 4.2680	 6.7650
 4.2710	 6.7370
 4.2750	 6.6980
 4.2780	 6.6890
 4.2820	 6.6990
 4.2850	 6.6370
 4.2890	 6.7180
 4.2930	 6.7510
 4.2960	 6.6700
 4.3000	 6.6210
 4.3030	 6.5820
 4.3070	 6.5590
 4.3100	 6.5370
 4.3140	 6.4770
 4.3180	 6.4200
 4.3210	 6.3850
 4.3250	 6.3360
 4.3280	 6.3160
 4.3320	 6.2870
 4.3360	 6.2810
 4.3390	 6.2180
 4.3430	 6.1770
 4.3470	 6.1560
 4.3500	 6.1570
 4.3540	 6.1450
 4.3580	 6.1120
 4.3610	 6.0850
 4.3650	 6.0820
 4.3690	 6.0880
 4.3720	 6.0750
 4.3760	 6.0620
 4.3800	 6.0720
 4.3830	 6.0680
 4.3870	 6.0730
 4.3910	 6.0860
 4.3940	 6.0750
 4.3980	 6.0620
 4.4020	 6.0580
 4.4060	 6.0640
 4.4090	 6.1120
 4.4130	 6.0960
 4.4170	 6.0230
 4.4210	 6.0340
 4.4240	 6.0760
 4.4280	 6.0640
 4.4320	 6.0360
 4.4360	 6.0230
 4.4400	 6.0320
 4.4430	 6.0380
 4.4470	 6.0380
 4.4510	 6.0100
 4.4550	 5.9960
 4.4590	 6.0050
 4.4630	 6.0000
 4.4660	 5.9980
 4.4700	 5.9820
 4.4740	 5.9520
 4.4780	 5.9650
 4.4820	 5.9720
 4.4860	 5.9260
 4.4900	 5.9080
 4.4930	 5.9270
 4.4970	 5.9500
 4.5010	 5.9650
 4.5050	 5.9520
 4.5090	 5.9540
 4.5130	 5.9610
 4.5170	 5.9330
 4.5210	 5.9090
 4.5250	 5.9260
 4.5290	 5.9550
 4.5330	 5.9470
 4.5370	 5.9190
 4.5410	 5.9390
 4.5450	 5.9440
 4.5490	 5.9280
 4.5530	 5.9150
 4.5570	 5.9000
 4.5610	 5.8700
 4.5650	 5.8510
 4.5690	 5.8880
 4.5730	 5.9290
 4.5770	 5.8990
 4.5810	 5.8770
 4.5850	 5.8680
 4.5890	 5.8820
 4.5930	 5.8810
 4.5970	 5.8860
 4.6010	 5.8620
 4.6050	 5.8510
 4.6090	 5.8760
 4.6130	 5.8790
 4.6170	 5.8540
 4.6220	 5.8670
 4.6260	 5.8940
 4.6300	 5.8800
 4.6340	 5.8640
 4.6380	 5.8660
 4.6420	 5.8430
 4.6460	 5.8400
 4.6510	 5.8440
 4.6550	 5.8480
 4.6590	 5.8480
 4.6630	 5.8460
 4.6670	 5.8280
 4.6720	 5.7950
 4.6760	 5.7810
 4.6800	 5.7980
 4.6840	 5.8040
 4.6880	 5.8150
 4.6930	 5.8190
 4.6970	 5.7980
 4.7010	 5.7980
 4.7050	 5.8120
 4.7100	 5.8130
 4.7140	 5.8250
 4.7180	 5.8270
 4.7230	 5.8350
 4.7270	 5.8030
 4.7310	 5.7710
 4.7360	 5.7640
 4.7400	 5.7790
 4.7440	 5.7990
 4.7490	 5.8480
 4.7530	 5.8540
 4.7570	 5.8230
 4.7620	 5.7910
 4.7660	 5.7810
 4.7700	 5.7620
 4.7750	 5.7680
 4.7790	 5.7870
 4.7840	 5.8140
 4.7880	 5.8160
 4.7920	 5.8330
 4.7970	 5.8020
 4.8010	 5.7900
 4.8060	 5.8040
 4.8100	 5.7750
 4.8150	 5.7580
 4.8190	 5.7560
 4.8240	 5.7250
 4.8280	 5.7540
 4.8330	 5.7810
 4.8370	 5.7670
 4.8420	 5.7510
 4.8460	 5.7450
 4.8510	 5.7620
 4.8550	 5.7810
 4.8600	 5.7300
 4.8640	 5.7140
 4.8690	 5.7460
 4.8740	 5.7690
 4.8780	 5.7600
 4.8830	 5.7510
 4.8870	 5.7440
 4.8920	 5.7510
 4.8970	 5.7430
 4.9010	 5.7490
 4.9060	 5.7300
 4.9100	 5.7570
 4.9150	 5.7540
 4.9200	 5.7360
 4.9240	 5.7240
 4.9290	 5.7220
 4.9340	 5.7350
 4.9390	 5.7580
 4.9430	 5.7170
 4.9480	 5.7060
 4.9530	 5.7170
 4.9570	 5.7660
 4.9620	 5.7990
 4.9670	 5.8120
 4.9720	 5.7660
 4.9760	 5.7860
 4.9810	 5.7810
 4.9860	 5.7790
 4.9910	 5.7920
 4.9960	 5.7990
 5.0000	 5.8000
 5.0050	 5.8000
 5.0100	 5.7470
 5.0150	 5.7490
 5.0200	 5.7500
 5.0250	 5.7600
 5.0300	 5.7540
 5.0340	 5.7660
 5.0390	 5.7380
 5.0440	 5.7290
 5.0490	 5.7270
 5.0540	 5.7540
 5.0590	 5.7780
 5.0640	 5.7940
 5.0690	 5.7720
 5.0740	 5.7650
 5.0790	 5.7460
 5.0840	 5.7740
 5.0890	 5.7560
 5.0940	 5.7440
 5.0990	 5.7460
 5.1040	 5.7580
 5.1090	 5.7410
 5.1140	 5.7410
 5.1190	 5.7190
 5.1240	 5.7290
 5.1290	 5.7290
 5.1340	 5.7350
 5.1390	 5.7270
 5.1440	 5.7480
 5.1490	 5.7250
 5.1550	 5.7120
 5.1600	 5.7190
 5.1650	 5.7490
 5.1700	 5.7630
 5.1750	 5.7560
 5.1800	 5.7050
 5.1850	 5.6870
 5.1910	 5.6690
 5.1960	 5.6970
 5.2010	 5.7450
 5.2060	 5.7780
 5.2110	 5.7560
 5.2170	 5.7760
 5.2220	 5.7560
 5.2270	 5.7860
 5.2330	 5.7550
 5.2380	 5.7190
 5.2430	 5.6990
 5.2480	 5.7080
 5.2540	 5.7040
 5.2590	 5.7210
 5.2640	 5.7300
 5.2700	 5.7560
 5.2750	 5.6890
 5.2800	 5.6430
 5.2860	 5.6430
 5.2910	 5.6590
 5.2970	 5.6540
 5.3020	 5.6930
 5.3080	 5.7020
 5.3130	 5.7090
 5.3180	 5.6870
 5.3240	 5.6920
 5.3290	 5.6720
 5.3350	 5.6960
 5.3400	 5.6870
 5.3460	 5.7000
 5.3510	 5.7100
 5.3570	 5.6720
 5.3620	 5.6310
 5.3680	 5.6380
 5.3740	 5.6050
 5.3790	 5.6080
 5.3850	 5.5730
 5.3900	 5.5830
 5.3960	 5.5790
 5.4010	 5.6080
 5.4070	 5.5930
 5.4130	 5.5940
 5.4180	 5.5620
 5.4240	 5.5770
 5.4300	 5.5650
 5.4350	 5.5710
 5.4410	 5.5390
 5.4470	 5.5310
 5.4530	 5.5300
 5.4580	 5.5670
 5.4640	 5.5720
 5.4700	 5.5610
 5.4760	 5.5020
 5.4810	 5.4930
 5.4870	 5.4710
 5.4930	 5.4710
 5.4990	 5.4130
 5.5050	 5.4060
 5.5110	 5.4190
