Name: Pinus ponderosa 2
Type: vegetation
Class: Tree
Genus: Pinus
Species: ponderosa
Sample No.: VH255
Owner: UCSB
Wavelength Range: VSWIR
Origin: 37.044; -119.3023; WGS84
Collection Date: 11/2/2013
Description: Samples were collected as part of the HyspIRI Airborne Campaign. 48 individual plants were sampled in three times in 2013 - spring  summer  and fall. The name of the sample includes a 1  2  or 3 which references a different individual of the species. Samples were taken to JPL and processed within 48 hours of collection. The same leaves were processed in the Nicolet and then measured using the ASD.
Measurement: Bidirectional reflectance
First Column: X
Second Column: Y
X Units: Wavelength (micrometers)
Y Units: Reflectance (percentage)
First X Value: 0.35
Last X Value: 2.5
Number of X Values: 2151
Additional Information: vegetation.tree.pinus.ponderosa.vswir.vh255.ucsb.asd.ancillary.txt

 0.3500	 5.9490
 0.3510	 5.8170
 0.3520	 5.6180
 0.3530	 5.5650
 0.3540	 5.6820
 0.3550	 5.6610
 0.3560	 5.5800
 0.3570	 5.5100
 0.3580	 5.5120
 0.3590	 5.5790
 0.3600	 5.6240
 0.3610	 5.5940
 0.3620	 5.4800
 0.3630	 5.3970
 0.3640	 5.3690
 0.3650	 5.3880
 0.3660	 5.4510
 0.3670	 5.4760
 0.3680	 5.4360
 0.3690	 5.3600
 0.3700	 5.4050
 0.3710	 5.4100
 0.3720	 5.3310
 0.3730	 5.4210
 0.3740	 5.4320
 0.3750	 5.4010
 0.3760	 5.4290
 0.3770	 5.4340
 0.3780	 5.4300
 0.3790	 5.4070
 0.3800	 5.3380
 0.3810	 5.3170
 0.3820	 5.2980
 0.3830	 5.2760
 0.3840	 5.4160
 0.3850	 5.4300
 0.3860	 5.3530
 0.3870	 5.3320
 0.3880	 5.4040
 0.3890	 5.4020
 0.3900	 5.3270
 0.3910	 5.3490
 0.3920	 5.3550
 0.3930	 5.3310
 0.3940	 5.3040
 0.3950	 5.3350
 0.3960	 5.3660
 0.3970	 5.3670
 0.3980	 5.3340
 0.3990	 5.3320
 0.4000	 5.3370
 0.4010	 5.3330
 0.4020	 5.3220
 0.4030	 5.3080
 0.4040	 5.3200
 0.4050	 5.3700
 0.4060	 5.3850
 0.4070	 5.4070
 0.4080	 5.4380
 0.4090	 5.4540
 0.4100	 5.4640
 0.4110	 5.5080
 0.4120	 5.5820
 0.4130	 5.5950
 0.4140	 5.6210
 0.4150	 5.6530
 0.4160	 5.6780
 0.4170	 5.7490
 0.4180	 5.8110
 0.4190	 5.8510
 0.4200	 5.8990
 0.4210	 5.9480
 0.4220	 6.0030
 0.4230	 6.0600
 0.4240	 6.0970
 0.4250	 6.1470
 0.4260	 6.1930
 0.4270	 6.2070
 0.4280	 6.2730
 0.4290	 6.3340
 0.4300	 6.3630
 0.4310	 6.3970
 0.4320	 6.4320
 0.4330	 6.4560
 0.4340	 6.4650
 0.4350	 6.4850
 0.4360	 6.5120
 0.4370	 6.5480
 0.4380	 6.5950
 0.4390	 6.6240
 0.4400	 6.6570
 0.4410	 6.7020
 0.4420	 6.7260
 0.4430	 6.7420
 0.4440	 6.7650
 0.4450	 6.8070
 0.4460	 6.8220
 0.4470	 6.8400
 0.4480	 6.8730
 0.4490	 6.9000
 0.4500	 6.9250
 0.4510	 6.9410
 0.4520	 6.9490
 0.4530	 6.9790
 0.4540	 7.0040
 0.4550	 7.0160
 0.4560	 7.0210
 0.4570	 7.0450
 0.4580	 7.0650
 0.4590	 7.0730
 0.4600	 7.0900
 0.4610	 7.1010
 0.4620	 7.1020
 0.4630	 7.0960
 0.4640	 7.1150
 0.4650	 7.1380
 0.4660	 7.1510
 0.4670	 7.1470
 0.4680	 7.1450
 0.4690	 7.1490
 0.4700	 7.1580
 0.4710	 7.1550
 0.4720	 7.1570
 0.4730	 7.1610
 0.4740	 7.1590
 0.4750	 7.1640
 0.4760	 7.1690
 0.4770	 7.1710
 0.4780	 7.1770
 0.4790	 7.1870
 0.4800	 7.1960
 0.4810	 7.2000
 0.4820	 7.2070
 0.4830	 7.2070
 0.4840	 7.2050
 0.4850	 7.2170
 0.4860	 7.2240
 0.4870	 7.2330
 0.4880	 7.2500
 0.4890	 7.2740
 0.4900	 7.3000
 0.4910	 7.3270
 0.4920	 7.3570
 0.4930	 7.3900
 0.4940	 7.4280
 0.4950	 7.4700
 0.4960	 7.5160
 0.4970	 7.5630
 0.4980	 7.6160
 0.4990	 7.6760
 0.5000	 7.7350
 0.5010	 7.8080
 0.5020	 7.8940
 0.5030	 7.9830
 0.5040	 8.0810
 0.5050	 8.1880
 0.5060	 8.3040
 0.5070	 8.4280
 0.5080	 8.5590
 0.5090	 8.7030
 0.5100	 8.8670
 0.5110	 9.0410
 0.5120	 9.2250
 0.5130	 9.4210
 0.5140	 9.6340
 0.5150	 9.8550
 0.5160	10.0870
 0.5170	10.3340
 0.5180	10.5940
 0.5190	10.8600
 0.5200	11.1330
 0.5210	11.4130
 0.5220	11.6910
 0.5230	11.9650
 0.5240	12.2340
 0.5250	12.5020
 0.5260	12.7660
 0.5270	13.0200
 0.5280	13.2540
 0.5290	13.4790
 0.5300	13.6890
 0.5310	13.8840
 0.5320	14.0710
 0.5330	14.2390
 0.5340	14.3940
 0.5350	14.5420
 0.5360	14.6700
 0.5370	14.7860
 0.5380	14.8940
 0.5390	14.9900
 0.5400	15.0730
 0.5410	15.1440
 0.5420	15.2080
 0.5430	15.2770
 0.5440	15.3470
 0.5450	15.4150
 0.5460	15.4840
 0.5470	15.5700
 0.5480	15.6530
 0.5490	15.7210
 0.5500	15.7730
 0.5510	15.8130
 0.5520	15.8430
 0.5530	15.8600
 0.5540	15.8570
 0.5550	15.8390
 0.5560	15.8030
 0.5570	15.7440
 0.5580	15.6720
 0.5590	15.5880
 0.5600	15.4940
 0.5610	15.3900
 0.5620	15.2750
 0.5630	15.1510
 0.5640	15.0180
 0.5650	14.8810
 0.5660	14.7400
 0.5670	14.5920
 0.5680	14.4310
 0.5690	14.2630
 0.5700	14.0950
 0.5710	13.9350
 0.5720	13.7770
 0.5730	13.6250
 0.5740	13.4790
 0.5750	13.3370
 0.5760	13.1960
 0.5770	13.0640
 0.5780	12.9420
 0.5790	12.8170
 0.5800	12.7120
 0.5810	12.6230
 0.5820	12.5380
 0.5830	12.4580
 0.5840	12.3790
 0.5850	12.2990
 0.5860	12.2260
 0.5870	12.1590
 0.5880	12.0970
 0.5890	12.0360
 0.5900	11.9760
 0.5910	11.9230
 0.5920	11.8760
 0.5930	11.8350
 0.5940	11.8010
 0.5950	11.7690
 0.5960	11.7360
 0.5970	11.7040
 0.5980	11.6710
 0.5990	11.6360
 0.6000	11.5990
 0.6010	11.5590
 0.6020	11.5150
 0.6030	11.4670
 0.6040	11.4120
 0.6050	11.3470
 0.6060	11.2770
 0.6070	11.2070
 0.6080	11.1300
 0.6090	11.0410
 0.6100	10.9400
 0.6110	10.8340
 0.6120	10.7560
 0.6130	10.6830
 0.6140	10.6040
 0.6150	10.5270
 0.6160	10.4520
 0.6170	10.3790
 0.6180	10.3110
 0.6190	10.2500
 0.6200	10.1930
 0.6210	10.1430
 0.6220	10.1050
 0.6230	10.0690
 0.6240	10.0390
 0.6250	10.0160
 0.6260	10.0000
 0.6270	 9.9870
 0.6280	 9.9770
 0.6290	 9.9680
 0.6300	 9.9610
 0.6310	 9.9520
 0.6320	 9.9400
 0.6330	 9.9270
 0.6340	 9.9030
 0.6350	 9.8650
 0.6360	 9.8150
 0.6370	 9.7530
 0.6380	 9.6790
 0.6390	 9.5940
 0.6400	 9.5010
 0.6410	 9.4040
 0.6420	 9.3000
 0.6430	 9.1910
 0.6440	 9.0890
 0.6450	 8.9870
 0.6460	 8.8840
 0.6470	 8.7850
 0.6480	 8.6980
 0.6490	 8.6210
 0.6500	 8.5520
 0.6510	 8.4930
 0.6520	 8.4430
 0.6530	 8.3950
 0.6540	 8.3470
 0.6550	 8.2970
 0.6560	 8.2440
 0.6570	 8.1820
 0.6580	 8.1090
 0.6590	 8.0350
 0.6600	 7.9570
 0.6610	 7.8750
 0.6620	 7.7890
 0.6630	 7.7080
 0.6640	 7.6320
 0.6650	 7.5600
 0.6660	 7.4990
 0.6670	 7.4470
 0.6680	 7.4020
 0.6690	 7.3620
 0.6700	 7.3340
 0.6710	 7.3120
 0.6720	 7.2950
 0.6730	 7.2890
 0.6740	 7.2890
 0.6750	 7.2910
 0.6760	 7.2990
 0.6770	 7.3120
 0.6780	 7.3320
 0.6790	 7.3590
 0.6800	 7.3960
 0.6810	 7.4450
 0.6820	 7.5070
 0.6830	 7.5870
 0.6840	 7.6910
 0.6850	 7.8240
 0.6860	 7.9900
 0.6870	 8.1950
 0.6880	 8.4550
 0.6890	 8.7700
 0.6900	 9.1430
 0.6910	 9.5850
 0.6920	10.1000
 0.6930	10.6850
 0.6940	11.3370
 0.6950	12.0600
 0.6960	12.8430
 0.6970	13.6810
 0.6980	14.5670
 0.6990	15.4960
 0.7000	16.4630
 0.7010	17.4610
 0.7020	18.4800
 0.7030	19.5100
 0.7040	20.5570
 0.7050	21.6200
 0.7060	22.6720
 0.7070	23.7330
 0.7080	24.8020
 0.7090	25.8700
 0.7100	26.9500
 0.7110	28.0280
 0.7120	29.1040
 0.7130	30.1900
 0.7140	31.2660
 0.7150	32.3420
 0.7160	33.4200
 0.7170	34.4820
 0.7180	35.5400
 0.7190	36.5930
 0.7200	37.6310
 0.7210	38.6540
 0.7220	39.6590
 0.7230	40.6450
 0.7240	41.6150
 0.7250	42.5480
 0.7260	43.4560
 0.7270	44.3410
 0.7280	45.1780
 0.7290	45.9830
 0.7300	46.7510
 0.7310	47.4740
 0.7320	48.1740
 0.7330	48.8330
 0.7340	49.4510
 0.7350	50.0470
 0.7360	50.6060
 0.7370	51.1330
 0.7380	51.6300
 0.7390	52.0860
 0.7400	52.5110
 0.7410	52.9100
 0.7420	53.2880
 0.7430	53.6340
 0.7440	53.9560
 0.7450	54.2530
 0.7460	54.5230
 0.7470	54.7800
 0.7480	55.0120
 0.7490	55.2140
 0.7500	55.4020
 0.7510	55.5720
 0.7520	55.7210
 0.7530	55.8520
 0.7540	55.9940
 0.7550	56.1210
 0.7560	56.2210
 0.7570	56.3000
 0.7580	56.3790
 0.7590	56.4610
 0.7600	56.5380
 0.7610	56.5900
 0.7620	56.6460
 0.7630	56.7040
 0.7640	56.7500
 0.7650	56.7770
 0.7660	56.7980
 0.7670	56.8210
 0.7680	56.8490
 0.7690	56.8780
 0.7700	56.9070
 0.7710	56.9300
 0.7720	56.9410
 0.7730	56.9490
 0.7740	56.9670
 0.7750	56.9950
 0.7760	56.9980
 0.7770	57.0030
 0.7780	57.0150
 0.7790	57.0290
 0.7800	57.0420
 0.7810	57.0430
 0.7820	57.0390
 0.7830	57.0550
 0.7840	57.0710
 0.7850	57.0800
 0.7860	57.0820
 0.7870	57.0840
 0.7880	57.0990
 0.7890	57.1180
 0.7900	57.1300
 0.7910	57.1390
 0.7920	57.1410
 0.7930	57.1440
 0.7940	57.1560
 0.7950	57.1700
 0.7960	57.1740
 0.7970	57.1700
 0.7980	57.1800
 0.7990	57.1940
 0.8000	57.2040
 0.8010	57.2060
 0.8020	57.2210
 0.8030	57.2300
 0.8040	57.2350
 0.8050	57.2450
 0.8060	57.2630
 0.8070	57.2690
 0.8080	57.2630
 0.8090	57.2680
 0.8100	57.2810
 0.8110	57.2880
 0.8120	57.2870
 0.8130	57.3080
 0.8140	57.3090
 0.8150	57.3100
 0.8160	57.3320
 0.8170	57.3500
 0.8180	57.3670
 0.8190	57.3790
 0.8200	57.3810
 0.8210	57.3810
 0.8220	57.3780
 0.8230	57.3780
 0.8240	57.3920
 0.8250	57.4040
 0.8260	57.4010
 0.8270	57.3860
 0.8280	57.3970
 0.8290	57.4150
 0.8300	57.4220
 0.8310	57.4130
 0.8320	57.4120
 0.8330	57.4250
 0.8340	57.4350
 0.8350	57.4260
 0.8360	57.4280
 0.8370	57.4380
 0.8380	57.4540
 0.8390	57.4710
 0.8400	57.4770
 0.8410	57.4810
 0.8420	57.4930
 0.8430	57.5190
 0.8440	57.5340
 0.8450	57.5470
 0.8460	57.5660
 0.8470	57.5800
 0.8480	57.5780
 0.8490	57.5820
 0.8500	57.6110
 0.8510	57.6300
 0.8520	57.6350
 0.8530	57.6360
 0.8540	57.6510
 0.8550	57.6480
 0.8560	57.6600
 0.8570	57.6840
 0.8580	57.6820
 0.8590	57.6940
 0.8600	57.7060
 0.8610	57.7090
 0.8620	57.7170
 0.8630	57.7170
 0.8640	57.7200
 0.8650	57.7300
 0.8660	57.7300
 0.8670	57.7320
 0.8680	57.7330
 0.8690	57.7280
 0.8700	57.7340
 0.8710	57.7370
 0.8720	57.7300
 0.8730	57.7200
 0.8740	57.7270
 0.8750	57.7400
 0.8760	57.7450
 0.8770	57.7320
 0.8780	57.7270
 0.8790	57.7220
 0.8800	57.7120
 0.8810	57.6950
 0.8820	57.6900
 0.8830	57.6880
 0.8840	57.6790
 0.8850	57.6610
 0.8860	57.6570
 0.8870	57.6560
 0.8880	57.6400
 0.8890	57.6290
 0.8900	57.6090
 0.8910	57.5890
 0.8920	57.5780
 0.8930	57.5580
 0.8940	57.5530
 0.8950	57.5540
 0.8960	57.5310
 0.8970	57.5110
 0.8980	57.4970
 0.8990	57.4810
 0.9000	57.4520
 0.9010	57.4380
 0.9020	57.4230
 0.9030	57.4050
 0.9040	57.4020
 0.9050	57.3750
 0.9060	57.3390
 0.9070	57.3130
 0.9080	57.3060
 0.9090	57.2870
 0.9100	57.2580
 0.9110	57.2300
 0.9120	57.2140
 0.9130	57.1830
 0.9140	57.1540
 0.9150	57.1420
 0.9160	57.1090
 0.9170	57.0810
 0.9180	57.0520
 0.9190	57.0110
 0.9200	56.9940
 0.9210	56.9730
 0.9220	56.9380
 0.9230	56.8970
 0.9240	56.8600
 0.9250	56.8150
 0.9260	56.7650
 0.9270	56.7200
 0.9280	56.6580
 0.9290	56.5970
 0.9300	56.5400
 0.9310	56.4720
 0.9320	56.4210
 0.9330	56.3670
 0.9340	56.2930
 0.9350	56.2040
 0.9360	56.1320
 0.9370	56.0560
 0.9380	55.9690
 0.9390	55.8940
 0.9400	55.8100
 0.9410	55.7140
 0.9420	55.6090
 0.9430	55.5050
 0.9440	55.4070
 0.9450	55.3040
 0.9460	55.1830
 0.9470	55.0280
 0.9480	54.8800
 0.9490	54.7380
 0.9500	54.5880
 0.9510	54.4190
 0.9520	54.2560
 0.9530	54.0810
 0.9540	53.8810
 0.9550	53.6950
 0.9560	53.5170
 0.9570	53.3480
 0.9580	53.1900
 0.9590	53.0340
 0.9600	52.8840
 0.9610	52.7620
 0.9620	52.6820
 0.9630	52.5920
 0.9640	52.4890
 0.9650	52.3980
 0.9660	52.3420
 0.9670	52.2990
 0.9680	52.2340
 0.9690	52.1680
 0.9700	52.1330
 0.9710	52.1010
 0.9720	52.0650
 0.9730	52.0400
 0.9740	52.0350
 0.9750	52.0120
 0.9760	51.9830
 0.9770	51.9670
 0.9780	51.9730
 0.9790	51.9710
 0.9800	51.9680
 0.9810	51.9780
 0.9820	52.0060
 0.9830	52.0280
 0.9840	52.0470
 0.9850	52.0740
 0.9860	52.1160
 0.9870	52.1540
 0.9880	52.1940
 0.9890	52.2360
 0.9900	52.2800
 0.9910	52.3440
 0.9920	52.3930
 0.9930	52.4270
 0.9940	52.4680
 0.9950	52.5360
 0.9960	52.6070
 0.9970	52.6650
 0.9980	52.7070
 0.9990	52.7780
 1.0000	52.6480
 1.0010	52.2430
 1.0020	52.1130
 1.0030	52.1890
 1.0040	52.2600
 1.0050	52.3310
 1.0060	52.4060
 1.0070	52.4750
 1.0080	52.5450
 1.0090	52.6140
 1.0100	52.6830
 1.0110	52.7520
 1.0120	52.8210
 1.0130	52.8880
 1.0140	52.9590
 1.0150	53.0330
 1.0160	53.1050
 1.0170	53.1760
 1.0180	53.2490
 1.0190	53.3180
 1.0200	53.3860
 1.0210	53.4620
 1.0220	53.5400
 1.0230	53.6150
 1.0240	53.6950
 1.0250	53.7630
 1.0260	53.8250
 1.0270	53.8860
 1.0280	53.9370
 1.0290	53.9960
 1.0300	54.0600
 1.0310	54.1180
 1.0320	54.1760
 1.0330	54.2370
 1.0340	54.2920
 1.0350	54.3420
 1.0360	54.3910
 1.0370	54.4440
 1.0380	54.4940
 1.0390	54.5410
 1.0400	54.5890
 1.0410	54.6380
 1.0420	54.6820
 1.0430	54.7210
 1.0440	54.7610
 1.0450	54.7980
 1.0460	54.8350
 1.0470	54.8710
 1.0480	54.9100
 1.0490	54.9550
 1.0500	54.9930
 1.0510	55.0290
 1.0520	55.0640
 1.0530	55.0950
 1.0540	55.1170
 1.0550	55.1440
 1.0560	55.1690
 1.0570	55.1960
 1.0580	55.2230
 1.0590	55.2470
 1.0600	55.2680
 1.0610	55.2910
 1.0620	55.3100
 1.0630	55.3310
 1.0640	55.3530
 1.0650	55.3740
 1.0660	55.3960
 1.0670	55.4130
 1.0680	55.4270
 1.0690	55.4390
 1.0700	55.4500
 1.0710	55.4570
 1.0720	55.4660
 1.0730	55.4800
 1.0740	55.4850
 1.0750	55.4820
 1.0760	55.4850
 1.0770	55.4860
 1.0780	55.4860
 1.0790	55.4930
 1.0800	55.4920
 1.0810	55.4870
 1.0820	55.4800
 1.0830	55.4690
 1.0840	55.4570
 1.0850	55.4400
 1.0860	55.4290
 1.0870	55.4150
 1.0880	55.4040
 1.0890	55.3860
 1.0900	55.3640
 1.0910	55.3410
 1.0920	55.3120
 1.0930	55.2860
 1.0940	55.2640
 1.0950	55.2360
 1.0960	55.2100
 1.0970	55.1790
 1.0980	55.1430
 1.0990	55.1060
 1.1000	55.0650
 1.1010	55.0260
 1.1020	54.9890
 1.1030	54.9520
 1.1040	54.9090
 1.1050	54.8660
 1.1060	54.8220
 1.1070	54.7740
 1.1080	54.7260
 1.1090	54.6790
 1.1100	54.6290
 1.1110	54.5770
 1.1120	54.5220
 1.1130	54.4690
 1.1140	54.4080
 1.1150	54.3430
 1.1160	54.2730
 1.1170	54.1990
 1.1180	54.1180
 1.1190	54.0330
 1.1200	53.9380
 1.1210	53.8350
 1.1220	53.7290
 1.1230	53.6100
 1.1240	53.4810
 1.1250	53.3390
 1.1260	53.1880
 1.1270	53.0190
 1.1280	52.8380
 1.1290	52.6380
 1.1300	52.4250
 1.1310	52.1910
 1.1320	51.9390
 1.1330	51.6700
 1.1340	51.3830
 1.1350	51.0830
 1.1360	50.7660
 1.1370	50.4380
 1.1380	50.1010
 1.1390	49.7550
 1.1400	49.3980
 1.1410	49.0410
 1.1420	48.6800
 1.1430	48.3170
 1.1440	47.9620
 1.1450	47.6070
 1.1460	47.2640
 1.1470	46.9220
 1.1480	46.6020
 1.1490	46.2900
 1.1500	46.0000
 1.1510	45.7250
 1.1520	45.4690
 1.1530	45.2300
 1.1540	45.0090
 1.1550	44.8060
 1.1560	44.6230
 1.1570	44.4590
 1.1580	44.3120
 1.1590	44.1780
 1.1600	44.0560
 1.1610	43.9430
 1.1620	43.8410
 1.1630	43.7510
 1.1640	43.6680
 1.1650	43.5940
 1.1660	43.5290
 1.1670	43.4690
 1.1680	43.4170
 1.1690	43.3660
 1.1700	43.3210
 1.1710	43.2740
 1.1720	43.2320
 1.1730	43.1880
 1.1740	43.1430
 1.1750	43.1000
 1.1760	43.0560
 1.1770	43.0090
 1.1780	42.9610
 1.1790	42.9120
 1.1800	42.8630
 1.1810	42.8130
 1.1820	42.7630
 1.1830	42.7100
 1.1840	42.6580
 1.1850	42.6060
 1.1860	42.5560
 1.1870	42.5070
 1.1880	42.4610
 1.1890	42.4180
 1.1900	42.3780
 1.1910	42.3420
 1.1920	42.3110
 1.1930	42.2860
 1.1940	42.2630
 1.1950	42.2420
 1.1960	42.2260
 1.1970	42.2130
 1.1980	42.2030
 1.1990	42.2010
 1.2000	42.2050
 1.2010	42.2120
 1.2020	42.2230
 1.2030	42.2350
 1.2040	42.2520
 1.2050	42.2750
 1.2060	42.3010
 1.2070	42.3310
 1.2080	42.3660
 1.2090	42.4020
 1.2100	42.4430
 1.2110	42.4860
 1.2120	42.5320
 1.2130	42.5830
 1.2140	42.6370
 1.2150	42.6950
 1.2160	42.7600
 1.2170	42.8260
 1.2180	42.8930
 1.2190	42.9630
 1.2200	43.0310
 1.2210	43.1020
 1.2220	43.1770
 1.2230	43.2500
 1.2240	43.3240
 1.2250	43.3970
 1.2260	43.4690
 1.2270	43.5410
 1.2280	43.6120
 1.2290	43.6840
 1.2300	43.7550
 1.2310	43.8240
 1.2320	43.8920
 1.2330	43.9570
 1.2340	44.0200
 1.2350	44.0790
 1.2360	44.1400
 1.2370	44.1990
 1.2380	44.2570
 1.2390	44.3140
 1.2400	44.3710
 1.2410	44.4270
 1.2420	44.4800
 1.2430	44.5330
 1.2440	44.5830
 1.2450	44.6290
 1.2460	44.6740
 1.2470	44.7160
 1.2480	44.7570
 1.2490	44.7980
 1.2500	44.8380
 1.2510	44.8780
 1.2520	44.9170
 1.2530	44.9520
 1.2540	44.9840
 1.2550	45.0150
 1.2560	45.0430
 1.2570	45.0680
 1.2580	45.0910
 1.2590	45.1130
 1.2600	45.1300
 1.2610	45.1480
 1.2620	45.1660
 1.2630	45.1820
 1.2640	45.1950
 1.2650	45.2040
 1.2660	45.2110
 1.2670	45.2170
 1.2680	45.2220
 1.2690	45.2250
 1.2700	45.2230
 1.2710	45.2160
 1.2720	45.2050
 1.2730	45.1940
 1.2740	45.1810
 1.2750	45.1670
 1.2760	45.1490
 1.2770	45.1270
 1.2780	45.1050
 1.2790	45.0800
 1.2800	45.0510
 1.2810	45.0200
 1.2820	44.9830
 1.2830	44.9430
 1.2840	44.9040
 1.2850	44.8630
 1.2860	44.8170
 1.2870	44.7680
 1.2880	44.7180
 1.2890	44.6620
 1.2900	44.6020
 1.2910	44.5410
 1.2920	44.4760
 1.2930	44.4060
 1.2940	44.3330
 1.2950	44.2560
 1.2960	44.1730
 1.2970	44.0880
 1.2980	43.9950
 1.2990	43.8980
 1.3000	43.7990
 1.3010	43.6940
 1.3020	43.5820
 1.3030	43.4630
 1.3040	43.3380
 1.3050	43.2100
 1.3060	43.0790
 1.3070	42.9440
 1.3080	42.8030
 1.3090	42.6530
 1.3100	42.4940
 1.3110	42.3280
 1.3120	42.1550
 1.3130	41.9780
 1.3140	41.7940
 1.3150	41.6040
 1.3160	41.4080
 1.3170	41.2090
 1.3180	41.0020
 1.3190	40.7910
 1.3200	40.5740
 1.3210	40.3500
 1.3220	40.1230
 1.3230	39.8930
 1.3240	39.6580
 1.3250	39.4230
 1.3260	39.1840
 1.3270	38.9400
 1.3280	38.6950
 1.3290	38.4460
 1.3300	38.1940
 1.3310	37.9410
 1.3320	37.6860
 1.3330	37.4330
 1.3340	37.1800
 1.3350	36.9270
 1.3360	36.6760
 1.3370	36.4240
 1.3380	36.1720
 1.3390	35.9260
 1.3400	35.6820
 1.3410	35.4440
 1.3420	35.2130
 1.3430	34.9830
 1.3440	34.7570
 1.3450	34.5350
 1.3460	34.3150
 1.3470	34.1010
 1.3480	33.8930
 1.3490	33.6890
 1.3500	33.4890
 1.3510	33.2920
 1.3520	33.0970
 1.3530	32.9050
 1.3540	32.7150
 1.3550	32.5280
 1.3560	32.3420
 1.3570	32.1550
 1.3580	31.9660
 1.3590	31.7750
 1.3600	31.5820
 1.3610	31.3840
 1.3620	31.1770
 1.3630	30.9670
 1.3640	30.7520
 1.3650	30.5260
 1.3660	30.2960
 1.3670	30.0550
 1.3680	29.8010
 1.3690	29.5370
 1.3700	29.2590
 1.3710	28.9690
 1.3720	28.6650
 1.3730	28.3460
 1.3740	28.0140
 1.3750	27.6660
 1.3760	27.2980
 1.3770	26.9130
 1.3780	26.5050
 1.3790	26.0800
 1.3800	25.6380
 1.3810	25.1740
 1.3820	24.6990
 1.3830	24.2090
 1.3840	23.7100
 1.3850	23.1970
 1.3860	22.6820
 1.3870	22.1550
 1.3880	21.6340
 1.3890	21.1110
 1.3900	20.5880
 1.3910	20.0770
 1.3920	19.5720
 1.3930	19.0730
 1.3940	18.5890
 1.3950	18.1110
 1.3960	17.6490
 1.3970	17.2040
 1.3980	16.7760
 1.3990	16.3700
 1.4000	15.9820
 1.4010	15.6100
 1.4020	15.2590
 1.4030	14.9250
 1.4040	14.6110
 1.4050	14.3170
 1.4060	14.0400
 1.4070	13.7820
 1.4080	13.5410
 1.4090	13.3140
 1.4100	13.1040
 1.4110	12.9080
 1.4120	12.7260
 1.4130	12.5570
 1.4140	12.4000
 1.4150	12.2560
 1.4160	12.1220
 1.4170	11.9970
 1.4180	11.8820
 1.4190	11.7740
 1.4200	11.6750
 1.4210	11.5840
 1.4220	11.5000
 1.4230	11.4230
 1.4240	11.3520
 1.4250	11.2850
 1.4260	11.2250
 1.4270	11.1690
 1.4280	11.1180
 1.4290	11.0720
 1.4300	11.0310
 1.4310	10.9930
 1.4320	10.9590
 1.4330	10.9290
 1.4340	10.9020
 1.4350	10.8780
 1.4360	10.8570
 1.4370	10.8380
 1.4380	10.8220
 1.4390	10.8070
 1.4400	10.7960
 1.4410	10.7870
 1.4420	10.7810
 1.4430	10.7760
 1.4440	10.7730
 1.4450	10.7700
 1.4460	10.7690
 1.4470	10.7700
 1.4480	10.7720
 1.4490	10.7740
 1.4500	10.7770
 1.4510	10.7810
 1.4520	10.7870
 1.4530	10.7930
 1.4540	10.8020
 1.4550	10.8130
 1.4560	10.8230
 1.4570	10.8350
 1.4580	10.8480
 1.4590	10.8630
 1.4600	10.8810
 1.4610	10.9010
 1.4620	10.9240
 1.4630	10.9480
 1.4640	10.9760
 1.4650	11.0060
 1.4660	11.0390
 1.4670	11.0740
 1.4680	11.1120
 1.4690	11.1520
 1.4700	11.1950
