Name: Pinus ponderosa 1
Type: vegetation
Class: Tree
Genus: Pinus
Species: ponderosa
Sample No.: VH250
Owner: UCSB
Wavelength Range: TIR
Origin: 37.0443; -119.3026; WGS84
Collection Date: 11/2/2013
Description: Samples were collected as part of the HyspIRI Airborne Campaign. 48 individual plants were sampled in three times in 2013 - spring  summer  and fall. The name of the sample includes a 1  2  or 3 which references a different individual of the species. Samples were taken to JPL and processed within 48 hours of collection. The same leaves were processed in the Nicolet and then measured using the ASD.
Measurement: Hemispherical reflectance
First Column: X
Second Column: Y
X Units: Wavelength (micrometers)
Y Units: Reflectance (percentage)
First X Value: 2.501
Last X Value: 15.387
Number of X Values: 1737
Additional Information: vegetation.tree.pinus.ponderosa.tir.vh250.ucsb.nicolet.ancillary.txt

 2.5010	 4.2150
 2.5030	 4.2570
 2.5040	 4.2480
 2.5050	 4.1940
 2.5060	 4.2060
 2.5070	 4.1990
 2.5090	 4.0740
 2.5100	 4.2090
 2.5110	 4.2550
 2.5120	 4.2410
 2.5140	 4.1720
 2.5150	 4.1660
 2.5160	 4.3010
 2.5170	 4.4460
 2.5180	 4.2610
 2.5200	 4.2410
 2.5210	 4.1390
 2.5220	 4.1530
 2.5230	 4.1470
 2.5250	 4.0990
 2.5260	 4.1110
 2.5270	 4.2170
 2.5280	 4.2740
 2.5290	 4.2260
 2.5310	 4.1220
 2.5320	 4.1970
 2.5330	 4.1940
 2.5340	 4.3200
 2.5360	 4.2950
 2.5370	 4.3040
 2.5380	 4.3700
 2.5390	 4.4160
 2.5410	 4.2760
 2.5420	 4.1850
 2.5430	 4.1770
 2.5440	 4.1600
 2.5460	 4.0330
 2.5470	 4.1380
 2.5480	 4.3180
 2.5490	 4.4340
 2.5510	 4.4980
 2.5520	 4.5600
 2.5530	 4.4270
 2.5540	 4.3630
 2.5560	 4.3940
 2.5570	 4.4740
 2.5580	 4.4720
 2.5590	 4.4890
 2.5610	 4.3260
 2.5620	 4.2870
 2.5630	 4.2910
 2.5640	 4.2610
 2.5660	 4.1690
 2.5670	 4.2900
 2.5680	 4.2890
 2.5700	 4.2390
 2.5710	 4.3230
 2.5720	 4.5550
 2.5730	 4.5000
 2.5750	 4.5200
 2.5760	 4.3020
 2.5770	 4.2630
 2.5790	 4.3510
 2.5800	 4.4940
 2.5810	 4.5040
 2.5820	 4.4380
 2.5840	 4.3020
 2.5850	 4.4280
 2.5860	 4.4860
 2.5880	 4.3170
 2.5890	 4.3820
 2.5900	 4.5090
 2.5910	 4.2630
 2.5930	 4.2980
 2.5940	 4.3590
 2.5950	 4.2460
 2.5970	 4.0180
 2.5980	 4.1240
 2.5990	 4.1710
 2.6000	 4.2280
 2.6020	 4.1860
 2.6030	 4.3040
 2.6040	 4.2070
 2.6060	 4.0470
 2.6070	 4.0850
 2.6080	 4.1440
 2.6100	 4.1600
 2.6110	 4.2440
 2.6120	 4.1480
 2.6140	 4.1670
 2.6150	 4.1570
 2.6160	 4.2230
 2.6180	 4.1410
 2.6190	 4.0310
 2.6200	 4.0440
 2.6220	 4.1240
 2.6230	 4.0010
 2.6240	 4.0180
 2.6260	 4.0170
 2.6270	 4.0130
 2.6280	 4.1010
 2.6300	 4.0650
 2.6310	 3.9300
 2.6320	 3.9370
 2.6340	 3.8980
 2.6350	 4.0530
 2.6360	 3.9530
 2.6380	 3.8380
 2.6390	 3.7830
 2.6400	 3.9110
 2.6420	 3.8870
 2.6430	 3.7500
 2.6440	 3.7310
 2.6460	 3.8370
 2.6470	 3.7580
 2.6480	 3.7040
 2.6500	 3.6760
 2.6510	 3.7930
 2.6520	 3.7260
 2.6540	 3.6610
 2.6550	 3.4820
 2.6560	 3.4990
 2.6580	 3.5800
 2.6590	 3.6040
 2.6610	 3.4850
 2.6620	 3.4910
 2.6630	 3.4730
 2.6650	 3.5560
 2.6660	 3.4690
 2.6670	 3.4480
 2.6690	 3.4800
 2.6700	 3.4480
 2.6720	 3.2540
 2.6730	 3.3320
 2.6740	 3.2800
 2.6760	 3.2670
 2.6770	 3.2740
 2.6780	 3.2850
 2.6800	 3.3330
 2.6810	 3.1530
 2.6830	 2.9880
 2.6840	 3.0860
 2.6850	 3.1340
 2.6870	 3.2130
 2.6880	 3.0260
 2.6900	 2.9840
 2.6910	 2.8680
 2.6920	 2.9770
 2.6940	 3.0100
 2.6950	 2.9410
 2.6970	 2.8810
 2.6980	 2.9450
 2.6990	 2.8320
 2.7010	 2.9790
 2.7020	 2.9360
 2.7040	 2.9090
 2.7050	 2.8810
 2.7060	 2.9200
 2.7080	 2.8350
 2.7090	 2.8380
 2.7110	 2.9220
 2.7120	 3.0190
 2.7130	 2.9610
 2.7150	 2.8300
 2.7160	 2.7680
 2.7180	 2.7700
 2.7190	 2.5260
 2.7210	 2.5810
 2.7220	 2.7110
 2.7230	 2.7640
 2.7250	 2.8260
 2.7260	 2.8480
 2.7280	 2.7400
 2.7290	 2.8790
 2.7310	 2.6760
 2.7320	 2.5800
 2.7330	 2.5570
 2.7350	 2.6560
 2.7360	 2.6400
 2.7380	 2.4460
 2.7390	 2.3040
 2.7410	 2.5090
 2.7420	 2.6080
 2.7440	 2.7000
 2.7450	 2.6310
 2.7470	 2.6450
 2.7480	 2.6430
 2.7490	 2.5720
 2.7510	 2.7060
 2.7520	 2.8180
 2.7540	 2.8500
 2.7550	 2.6210
 2.7570	 2.6570
 2.7580	 2.9210
 2.7600	 2.9870
 2.7610	 3.0470
 2.7630	 2.8740
 2.7640	 2.8570
 2.7660	 2.7810
 2.7670	 2.5460
 2.7680	 2.4190
 2.7700	 2.5670
 2.7710	 2.6030
 2.7730	 2.6360
 2.7740	 2.7860
 2.7760	 2.8560
 2.7770	 2.5460
 2.7790	 2.4060
 2.7800	 2.3640
 2.7820	 2.4530
 2.7830	 2.5520
 2.7850	 2.7130
 2.7860	 2.7660
 2.7880	 2.7530
 2.7890	 2.5780
 2.7910	 2.5550
 2.7920	 2.4560
 2.7940	 2.4880
 2.7950	 2.5910
 2.7970	 2.8930
 2.7980	 2.7440
 2.8000	 2.6910
 2.8010	 2.5400
 2.8030	 2.4920
 2.8040	 2.4810
 2.8060	 2.5400
 2.8070	 2.5410
 2.8090	 2.5340
 2.8110	 2.5080
 2.8120	 2.4910
 2.8140	 2.5050
 2.8150	 2.7800
 2.8170	 2.8940
 2.8180	 2.8220
 2.8200	 2.6340
 2.8210	 2.5320
 2.8230	 2.5970
 2.8240	 2.8870
 2.8260	 2.8960
 2.8270	 2.9620
 2.8290	 2.8420
 2.8300	 2.7370
 2.8320	 2.4800
 2.8340	 2.4270
 2.8350	 2.5170
 2.8370	 2.7080
 2.8380	 2.6580
 2.8400	 2.5110
 2.8410	 2.4210
 2.8430	 2.6320
 2.8440	 2.6720
 2.8460	 2.6310
 2.8480	 2.5880
 2.8490	 2.5700
 2.8510	 2.4780
 2.8520	 2.6720
 2.8540	 2.7500
 2.8550	 2.7620
 2.8570	 2.6720
 2.8590	 2.6970
 2.8600	 2.6780
 2.8620	 2.7130
 2.8630	 2.6700
 2.8650	 2.7060
 2.8660	 2.7270
 2.8680	 2.7220
 2.8700	 2.5410
 2.8710	 2.6900
 2.8730	 2.7860
 2.8740	 2.7900
 2.8760	 2.5760
 2.8780	 2.5680
 2.8790	 2.4210
 2.8810	 2.3240
 2.8820	 2.4200
 2.8840	 2.9360
 2.8860	 2.9150
 2.8870	 2.5480
 2.8890	 2.3410
 2.8900	 2.3570
 2.8920	 2.5520
 2.8940	 2.6650
 2.8950	 2.5550
 2.8970	 2.6290
 2.8980	 2.8470
 2.9000	 2.9550
 2.9020	 2.8290
 2.9030	 2.6360
 2.9050	 2.3560
 2.9070	 2.4170
 2.9080	 2.4050
 2.9100	 2.6240
 2.9120	 2.7750
 2.9130	 2.7450
 2.9150	 2.6720
 2.9160	 2.6580
 2.9180	 2.4490
 2.9200	 2.4930
 2.9210	 2.5350
 2.9230	 2.6030
 2.9250	 2.7400
 2.9260	 2.8110
 2.9280	 2.8120
 2.9300	 2.9800
 2.9310	 2.8630
 2.9330	 2.5310
 2.9350	 2.4170
 2.9360	 2.5400
 2.9380	 2.6790
 2.9400	 2.6860
 2.9410	 2.5890
 2.9430	 2.6300
 2.9450	 2.4670
 2.9460	 2.5160
 2.9480	 2.5730
 2.9500	 2.6220
 2.9510	 2.6200
 2.9530	 2.4670
 2.9550	 2.2940
 2.9560	 1.9010
 2.9580	 1.9350
 2.9600	 2.2900
 2.9610	 2.1450
 2.9630	 2.4450
 2.9650	 2.7640
 2.9660	 2.5700
 2.9680	 2.7290
 2.9700	 2.3820
 2.9720	 2.0940
 2.9730	 1.9420
 2.9750	 2.9780
 2.9770	 2.9370
 2.9780	 2.2520
 2.9800	 3.2830
 2.9820	 3.7570
 2.9840	 3.3020
 2.9850	 3.2260
 2.9870	 2.9880
 2.9890	 2.7250
 2.9900	 3.2480
 2.9920	 2.8150
 2.9940	 1.9850
 2.9960	 2.6710
 2.9970	 4.8910
 2.9990	 6.1420
 3.0010	 5.6550
 3.0030	 4.1390
 3.0040	 3.4140
 3.0060	 2.5570
 3.0080	 1.8900
 3.0100	 2.0720
 3.0110	 3.0810
 3.0130	 2.3730
 3.0150	 2.2490
 3.0170	 3.2830
 3.0180	 3.2320
 3.0200	 2.8590
 3.0220	 2.8330
 3.0240	 2.7940
 3.0250	 2.6500
 3.0270	 2.5230
 3.0290	 2.6220
 3.0310	 2.4270
 3.0320	 2.6090
 3.0340	 2.5540
 3.0360	 2.1550
 3.0380	 2.1800
 3.0400	 2.3490
 3.0410	 2.5040
 3.0430	 3.7500
 3.0450	 4.4150
 3.0470	 5.3180
 3.0480	 3.8800
 3.0500	 1.4700
 3.0520	 1.8830
 3.0540	 3.5250
 3.0560	 4.2040
 3.0570	 4.1680
 3.0590	 2.3840
 3.0610	 1.5990
 3.0630	 1.9380
 3.0650	 2.3540
 3.0660	 2.6190
 3.0680	 2.9860
 3.0700	 2.9490
 3.0720	 3.0310
 3.0740	 2.8610
 3.0760	 2.6130
 3.0770	 2.4170
 3.0790	 2.3840
 3.0810	 2.6250
 3.0830	 2.8320
 3.0850	 2.7510
 3.0870	 2.7430
 3.0880	 2.5940
 3.0900	 2.7170
 3.0920	 2.6280
 3.0940	 2.4730
 3.0960	 2.4980
 3.0980	 2.5780
 3.0990	 2.4150
 3.1010	 2.4190
 3.1030	 2.4700
 3.1050	 2.7380
 3.1070	 2.6670
 3.1090	 2.7150
 3.1110	 2.5850
 3.1120	 2.4490
 3.1140	 2.3260
 3.1160	 2.3610
 3.1180	 2.5160
 3.1200	 2.6440
 3.1220	 2.6600
 3.1240	 2.7810
 3.1260	 2.5400
 3.1270	 2.5220
 3.1290	 2.4980
 3.1310	 2.6690
 3.1330	 2.7460
 3.1350	 3.1800
 3.1370	 2.9250
 3.1390	 2.4770
 3.1410	 2.6000
 3.1430	 2.3360
 3.1450	 2.0390
 3.1460	 2.6730
 3.1480	 3.5510
 3.1500	 2.7930
 3.1520	 2.0580
 3.1540	 1.9950
 3.1560	 2.6300
 3.1580	 3.1220
 3.1600	 2.7950
 3.1620	 2.9260
 3.1640	 2.8560
 3.1660	 2.6700
 3.1680	 2.3280
 3.1700	 1.9440
 3.1710	 1.0810
 3.1730	 0.6400
 3.1750	 0.2260
 3.1770	 0.8060
 3.1790	 1.9670
 3.1810	 3.3540
 3.1830	 2.7360
 3.1850	 2.0420
 3.1870	 2.3070
 3.1890	 2.2430
 3.1910	 2.2480
 3.1930	 2.4090
 3.1950	 2.5570
 3.1970	 2.6640
 3.1990	 2.3580
 3.2010	 2.4760
 3.2030	 2.5200
 3.2050	 2.4390
 3.2070	 2.4090
 3.2090	 2.5960
 3.2110	 2.6850
 3.2130	 2.5850
 3.2150	 2.4140
 3.2170	 2.3540
 3.2190	 2.3580
 3.2210	 2.4320
 3.2230	 2.4240
 3.2250	 2.6380
 3.2270	 2.5550
 3.2290	 2.3640
 3.2310	 2.4220
 3.2330	 2.6600
 3.2350	 2.6980
 3.2370	 2.5620
 3.2390	 2.5870
 3.2410	 2.7030
 3.2430	 2.4130
 3.2450	 2.2380
 3.2470	 2.1550
 3.2490	 2.3570
 3.2510	 2.5470
 3.2530	 2.6020
 3.2550	 2.5890
 3.2570	 2.6210
 3.2590	 2.6060
 3.2610	 2.6000
 3.2630	 2.4210
 3.2650	 2.4290
 3.2670	 2.3770
 3.2690	 2.3240
 3.2720	 2.4340
 3.2740	 2.6100
 3.2760	 2.5580
 3.2780	 2.5570
 3.2800	 2.4370
 3.2820	 2.3550
 3.2840	 2.3280
 3.2860	 2.4340
 3.2880	 2.4880
 3.2900	 2.5980
 3.2920	 2.5340
 3.2940	 2.5030
 3.2960	 2.4680
 3.2990	 2.5750
 3.3010	 2.5030
 3.3030	 2.5280
 3.3050	 2.2330
 3.3070	 2.0850
 3.3090	 2.4490
 3.3110	 2.6830
 3.3130	 2.3580
 3.3150	 2.1670
 3.3180	 1.9800
 3.3200	 2.0020
 3.3220	 2.1450
 3.3240	 2.3260
 3.3260	 2.2450
 3.3280	 2.1640
 3.3300	 2.1160
 3.3330	 2.1980
 3.3350	 2.1130
 3.3370	 2.2020
 3.3390	 2.2270
 3.3410	 2.2900
 3.3430	 2.3020
 3.3450	 2.3460
 3.3480	 2.2730
 3.3500	 2.2240
 3.3520	 2.2140
 3.3540	 2.3410
 3.3560	 2.2440
 3.3580	 2.2250
 3.3610	 2.1790
 3.3630	 2.1550
 3.3650	 1.9800
 3.3670	 2.1310
 3.3690	 2.2070
 3.3720	 2.3040
 3.3740	 2.2400
 3.3760	 2.2780
 3.3780	 2.3010
 3.3800	 2.2500
 3.3830	 2.1410
 3.3850	 2.3130
 3.3870	 2.3100
 3.3890	 2.1680
 3.3910	 2.0110
 3.3940	 2.0600
 3.3960	 1.9430
 3.3980	 1.9760
 3.4000	 2.0550
 3.4020	 2.0900
 3.4050	 1.9850
 3.4070	 2.0740
 3.4090	 2.2250
 3.4110	 2.4060
 3.4140	 2.5550
 3.4160	 2.5680
 3.4180	 2.5690
 3.4200	 3.0240
 3.4230	 3.3400
 3.4250	 3.7450
 3.4270	 4.0630
 3.4290	 4.4000
 3.4320	 4.3690
 3.4340	 4.0260
 3.4360	 3.6650
 3.4390	 3.5230
 3.4410	 3.3110
 3.4430	 3.2920
 3.4450	 3.2150
 3.4480	 3.3340
 3.4500	 3.2940
 3.4520	 3.1650
 3.4550	 3.0480
 3.4570	 3.1190
 3.4590	 3.2240
 3.4620	 3.2750
 3.4640	 3.1310
 3.4660	 3.1780
 3.4680	 3.1110
 3.4710	 3.0190
 3.4730	 2.8140
 3.4750	 2.7190
 3.4780	 2.6280
 3.4800	 2.7540
 3.4820	 2.8130
 3.4850	 2.8440
 3.4870	 2.7670
 3.4890	 2.7260
 3.4920	 2.6610
 3.4940	 2.6270
 3.4970	 2.5380
 3.4990	 2.5130
 3.5010	 2.5540
 3.5040	 2.9870
 3.5060	 3.3750
 3.5080	 3.9110
 3.5110	 4.2200
 3.5130	 4.3100
 3.5160	 4.2540
 3.5180	 4.0570
 3.5200	 3.7160
 3.5230	 3.5410
 3.5250	 3.4070
 3.5270	 3.3080
 3.5300	 3.2790
 3.5320	 3.4050
 3.5350	 3.4310
 3.5370	 3.4890
 3.5400	 3.4200
 3.5420	 3.4070
 3.5440	 3.1580
 3.5470	 3.1060
 3.5490	 3.0490
 3.5520	 2.9480
 3.5540	 2.9390
 3.5570	 3.0330
 3.5590	 2.9080
 3.5610	 2.9500
 3.5640	 2.9530
 3.5660	 3.0340
 3.5690	 3.0080
 3.5710	 3.0320
 3.5740	 3.0160
 3.5760	 3.0440
 3.5790	 2.9400
 3.5810	 2.9040
 3.5840	 2.7310
 3.5860	 2.7980
 3.5890	 2.9500
 3.5910	 3.0300
 3.5930	 2.9310
 3.5960	 2.9660
 3.5980	 3.0020
 3.6010	 2.9360
 3.6030	 2.9000
 3.6060	 2.9420
 3.6080	 2.7830
 3.6110	 2.9450
 3.6140	 2.9750
 3.6160	 2.8360
 3.6190	 2.7500
 3.6210	 2.9000
 3.6240	 2.8550
 3.6260	 2.8350
 3.6290	 2.7470
 3.6310	 2.8830
 3.6340	 2.9310
 3.6360	 2.9940
 3.6390	 2.8730
 3.6410	 2.8010
 3.6440	 2.7710
 3.6470	 2.7110
 3.6490	 2.6740
 3.6520	 2.7740
 3.6540	 2.7900
 3.6570	 2.9340
 3.6590	 2.9310
 3.6620	 3.0010
 3.6650	 2.9480
 3.6670	 2.8700
 3.6700	 2.8020
 3.6720	 2.8020
 3.6750	 2.8100
 3.6780	 2.9440
 3.6800	 2.8580
 3.6830	 2.8170
 3.6850	 2.8000
 3.6880	 2.9240
 3.6910	 2.8710
 3.6930	 2.8190
 3.6960	 2.7210
 3.6990	 2.7090
 3.7010	 2.6880
 3.7040	 2.7460
 3.7060	 2.8770
 3.7090	 3.0020
 3.7120	 2.9310
 3.7140	 2.9040
 3.7170	 2.9160
 3.7200	 2.9320
 3.7220	 2.7930
 3.7250	 2.7250
 3.7280	 2.8970
 3.7300	 3.0150
 3.7330	 2.8650
 3.7360	 2.9100
 3.7390	 2.9310
 3.7410	 2.8840
 3.7440	 2.7500
 3.7470	 2.7190
 3.7490	 2.7020
 3.7520	 2.8710
 3.7550	 2.9170
 3.7580	 2.8420
 3.7600	 2.8410
 3.7630	 2.9570
 3.7660	 2.8720
 3.7680	 2.9250
 3.7710	 2.9090
 3.7740	 2.9260
 3.7770	 2.8890
 3.7790	 3.0050
 3.7820	 2.9550
 3.7850	 2.8750
 3.7880	 2.8100
 3.7900	 2.8640
 3.7930	 2.7390
 3.7960	 2.7860
 3.7990	 2.8590
 3.8020	 2.9100
 3.8040	 2.8430
 3.8070	 2.8740
 3.8100	 2.8690
 3.8130	 2.9370
 3.8160	 2.9480
 3.8180	 2.9460
 3.8210	 2.8340
 3.8240	 2.8790
 3.8270	 2.7850
 3.8300	 2.7450
 3.8330	 2.8370
 3.8350	 2.9000
 3.8380	 2.7920
 3.8410	 2.9060
 3.8440	 2.9860
 3.8470	 3.0240
 3.8500	 2.9010
 3.8520	 2.8030
 3.8550	 2.8090
 3.8580	 2.9630
 3.8610	 3.0040
 3.8640	 3.0070
 3.8670	 2.9170
 3.8700	 2.8350
 3.8730	 2.7930
 3.8750	 2.8770
 3.8780	 2.8430
 3.8810	 2.9690
 3.8840	 3.0320
 3.8870	 3.0670
 3.8900	 2.9300
 3.8930	 2.8940
 3.8960	 2.8850
 3.8990	 2.7930
 3.9020	 2.8080
 3.9050	 2.9370
 3.9080	 2.9040
 3.9110	 2.9650
 3.9140	 3.0080
 3.9160	 3.0450
 3.9190	 2.8750
 3.9220	 2.9090
 3.9250	 2.9070
 3.9280	 2.8860
 3.9310	 2.8220
 3.9340	 2.9180
 3.9370	 2.9560
 3.9400	 3.0590
 3.9430	 3.0080
 3.9460	 3.0240
 3.9490	 2.9250
 3.9520	 2.9260
 3.9550	 2.8910
 3.9580	 2.8810
 3.9610	 2.8290
 3.9640	 2.9100
 3.9670	 2.8690
 3.9700	 2.8890
 3.9730	 2.9540
 3.9770	 3.0940
 3.9800	 2.9810
 3.9830	 2.8830
 3.9860	 2.8880
 3.9890	 2.9790
 3.9920	 2.9740
 3.9950	 2.9940
 3.9980	 3.0260
 4.0010	 3.0440
 4.0040	 2.9060
 4.0070	 2.9500
 4.0100	 2.9940
 4.0130	 3.0180
 4.0170	 2.8780
 4.0200	 2.8710
 4.0230	 2.9300
 4.0260	 2.9540
 4.0290	 2.8920
 4.0320	 2.9670
 4.0350	 2.9370
 4.0380	 2.9390
 4.0420	 2.9350
 4.0450	 2.9930
 4.0480	 2.9570
 4.0510	 2.9600
 4.0540	 2.9830
 4.0570	 3.1250
 4.0610	 3.1080
 4.0640	 3.0520
 4.0670	 2.9800
 4.0700	 3.0430
 4.0730	 3.0190
 4.0770	 3.0540
 4.0800	 2.9590
 4.0830	 3.0700
 4.0860	 3.0120
 4.0890	 2.9270
 4.0930	 2.8230
 4.0960	 2.8510
 4.0990	 2.8030
 4.1020	 2.7870
 4.1060	 2.9120
 4.1090	 3.0510
 4.1120	 2.9510
 4.1150	 2.9470
 4.1190	 2.9890
 4.1220	 2.9980
 4.1250	 2.8830
 4.1280	 2.8600
 4.1320	 2.8700
 4.1350	 2.9770
 4.1380	 3.0160
 4.1420	 3.0490
 4.1450	 2.9490
 4.1480	 2.9620
 4.1520	 2.9490
 4.1550	 2.9630
 4.1580	 2.9390
 4.1620	 3.0650
 4.1650	 3.0370
 4.1680	 3.0100
 4.1720	 2.9880
 4.1750	 3.0590
 4.1780	 2.9700
 4.1820	 3.0370
 4.1850	 2.9660
 4.1890	 2.9610
 4.1920	 2.8780
 4.1950	 2.9200
 4.1990	 3.0180
 4.2020	 3.1140
 4.2060	 3.0330
 4.2090	 2.9620
 4.2120	 2.8920
 4.2160	 3.2050
 4.2190	 3.2930
 4.2230	 3.5690
 4.2260	 3.4480
 4.2300	 3.3200
 4.2330	 3.0150
 4.2360	 3.0560
 4.2400	 3.0510
 4.2430	 3.2960
 4.2470	 3.1780
 4.2500	 3.1130
 4.2540	 2.9600
 4.2570	 3.2120
 4.2610	 3.1630
 4.2640	 2.8240
 4.2680	 2.8570
 4.2710	 3.4350
 4.2750	 3.2690
 4.2780	 3.1960
 4.2820	 3.2190
 4.2850	 3.3420
 4.2890	 3.0700
 4.2930	 2.9240
 4.2960	 2.7370
 4.3000	 2.8460
 4.3030	 2.8030
 4.3070	 2.8850
 4.3100	 2.8530
 4.3140	 2.9690
 4.3180	 2.8770
 4.3210	 2.9460
 4.3250	 2.8980
 4.3280	 2.8790
 4.3320	 2.9040
 4.3360	 2.9480
 4.3390	 2.8640
 4.3430	 2.9340
 4.3470	 2.8280
 4.3500	 2.8830
 4.3540	 2.8900
 4.3570	 2.9160
 4.3610	 2.8540
 4.3650	 2.8580
 4.3680	 2.8050
 4.3720	 2.8160
 4.3760	 2.8080
 4.3800	 2.8140
 4.3830	 2.7810
 4.3870	 2.8080
 4.3910	 2.8040
 4.3940	 2.8680
 4.3980	 2.7070
 4.4020	 2.6970
 4.4060	 2.6760
 4.4090	 2.6680
 4.4130	 2.6990
 4.4170	 2.7990
 4.4210	 2.7500
 4.4240	 2.9410
 4.4280	 2.8850
 4.4320	 2.8600
 4.4360	 2.7990
 4.4400	 2.8020
 4.4430	 2.7210
 4.4470	 2.7410
 4.4510	 2.6970
 4.4550	 2.6900
 4.4590	 2.6560
 4.4620	 2.7420
 4.4660	 2.7470
 4.4700	 2.8460
 4.4740	 2.7990
 4.4780	 2.8040
 4.4820	 2.7860
 4.4860	 2.8500
 4.4900	 2.6890
 4.4930	 2.6220
 4.4970	 2.6940
 4.5010	 2.8260
 4.5050	 2.7560
 4.5090	 2.6710
 4.5130	 2.5640
 4.5170	 2.6200
 4.5210	 2.5720
 4.5250	 2.6580
 4.5290	 2.7080
 4.5330	 2.7180
 4.5370	 2.6010
 4.5410	 2.6660
 4.5450	 2.6610
 4.5490	 2.6870
 4.5530	 2.7020
 4.5570	 2.7860
 4.5610	 2.6870
 4.5650	 2.6560
 4.5690	 2.5950
 4.5730	 2.5580
 4.5770	 2.5670
 4.5810	 2.6930
 4.5850	 2.6650
 4.5890	 2.6440
 4.5930	 2.6670
 4.5970	 2.7980
 4.6010	 2.7320
 4.6050	 2.7310
 4.6090	 2.6090
 4.6130	 2.4840
 4.6170	 2.4050
 4.6220	 2.5800
 4.6260	 2.6600
 4.6300	 2.6140
 4.6340	 2.5520
 4.6380	 2.6630
 4.6420	 2.6370
 4.6460	 2.5600
 4.6510	 2.4860
 4.6550	 2.5370
 4.6590	 2.5950
 4.6630	 2.6920
 4.6670	 2.5820
 4.6720	 2.5450
 4.6760	 2.5420
 4.6800	 2.5910
 4.6840	 2.5170
 4.6880	 2.5750
 4.6930	 2.5400
 4.6970	 2.6220
 4.7010	 2.6530
 4.7050	 2.6550
 4.7100	 2.5710
 4.7140	 2.6360
 4.7180	 2.5950
 4.7230	 2.5500
 4.7270	 2.5020
 4.7310	 2.5680
 4.7360	 2.5400
 4.7400	 2.5800
 4.7440	 2.5170
 4.7490	 2.5900
 4.7530	 2.6300
 4.7570	 2.7310
 4.7620	 2.6180
 4.7660	 2.6250
 4.7700	 2.6150
 4.7750	 2.5980
 4.7790	 2.4410
 4.7840	 2.4960
 4.7880	 2.4280
 4.7920	 2.4500
 4.7970	 2.5260
 4.8010	 2.5810
 4.8060	 2.5210
 4.8100	 2.5830
 4.8150	 2.6140
 4.8190	 2.6110
 4.8240	 2.5160
 4.8280	 2.6060
 4.8330	 2.6120
 4.8370	 2.6430
 4.8420	 2.5350
 4.8460	 2.5550
 4.8510	 2.5410
 4.8550	 2.5820
 4.8600	 2.5740
 4.8640	 2.6450
 4.8690	 2.6110
 4.8730	 2.5770
 4.8780	 2.4230
 4.8830	 2.4820
 4.8870	 2.5240
 4.8920	 2.5450
 4.8960	 2.5410
 4.9010	 2.6650
 4.9060	 2.6000
 4.9100	 2.6340
 4.9150	 2.6670
 4.9200	 2.7070
 4.9240	 2.6130
 4.9290	 2.6360
 4.9340	 2.6260
 4.9380	 2.6570
 4.9430	 2.6240
 4.9480	 2.7140
 4.9530	 2.5970
 4.9570	 2.5820
 4.9620	 2.6370
 4.9670	 2.7800
 4.9720	 2.6920
 4.9760	 2.6300
 4.9810	 2.5860
 4.9860	 2.6290
 4.9910	 2.6030
 4.9960	 2.6020
 5.0000	 2.6110
 5.0050	 2.7040
 5.0100	 2.6920
 5.0150	 2.7210
 5.0200	 2.6170
 5.0250	 2.7200
 5.0290	 2.7360
 5.0340	 2.7860
 5.0390	 2.6830
 5.0440	 2.6820
 5.0490	 2.6440
 5.0540	 2.6990
 5.0590	 2.6580
 5.0640	 2.7460
 5.0690	 2.7130
 5.0740	 2.7280
 5.0790	 2.6900
 5.0840	 2.7010
 5.0890	 2.6990
 5.0940	 2.7550
 5.0990	 2.6950
 5.1040	 2.6390
 5.1090	 2.5790
 5.1140	 2.7440
 5.1190	 2.7690
 5.1240	 2.8310
 5.1290	 2.8230
 5.1340	 2.7730
 5.1390	 2.6770
 5.1440	 2.8240
 5.1490	 2.7550
 5.1540	 2.7580
 5.1600	 2.7110
 5.1650	 2.6780
 5.1700	 2.5850
 5.1750	 2.6650
 5.1800	 2.6790
 5.1850	 2.7470
 5.1910	 2.7300
 5.1960	 2.7730
 5.2010	 2.6710
 5.2060	 2.6800
 5.2110	 2.7010
 5.2170	 2.8130
 5.2220	 2.7160
 5.2270	 2.7070
 5.2320	 2.6880
 5.2380	 2.7950
 5.2430	 2.7140
 5.2480	 2.6760
 5.2540	 2.6860
 5.2590	 2.7280
 5.2640	 2.6050
 5.2700	 2.6390
 5.2750	 2.6190
 5.2800	 2.6890
 5.2860	 2.6730
 5.2910	 2.7910
 5.2970	 2.7470
 5.3020	 2.7400
 5.3070	 2.6180
 5.3130	 2.6680
 5.3180	 2.7230
 5.3240	 2.7330
 5.3290	 2.6550
 5.3350	 2.7070
 5.3400	 2.7080
 5.3460	 2.7830
 5.3510	 2.6980
 5.3570	 2.7240
 5.3620	 2.7120
 5.3680	 2.7620
 5.3730	 2.6590
 5.3790	 2.7490
 5.3850	 2.7900
 5.3900	 2.8460
 5.3960	 2.7140
 5.4010	 2.6940
 5.4070	 2.7000
 5.4130	 2.7280
 5.4180	 2.6450
 5.4240	 2.6610
 5.4300	 2.5630
 5.4350	 2.5050
 5.4410	 2.4660
