Name: Eucalyptus saligna
Type: vegetation
Class: Tree
Genus: Eucalyptus
Species: saligna
Sample No.: JPL224
Owner: JPL
Wavelength Range: VSWIR
Origin: 34.12476; -118.11474; WGS84
Collection Date: 10/3/2016
Description: Samples were collected at the Huntington Garden in San Marino California as part of a JPL Subcontract studying HyTES imagery. Samples were taken to JPL and processed within 48 hours of collection. The same leaves were processed in the Nicolet and then measured using the ASD.
Measurement: Bidirectional reflectance
First Column: X
Second Column: Y
X Units: Wavelength (micrometer)
Y Units: Reflectance (percentage)
First X Value: 0.35
Last X Value: 2.5
Number of X Values: 2151
Additional Information: vegetation.tree.eucalyptus.saligna.vswir.jpl224.jpl.asd.ancillary.txt

 0.3500	 6.0060
 0.3510	 6.1190
 0.3520	 6.1510
 0.3530	 6.1420
 0.3540	 6.1520
 0.3550	 6.0570
 0.3560	 6.0350
 0.3570	 6.0500
 0.3580	 5.9830
 0.3590	 6.0210
 0.3600	 6.0400
 0.3610	 6.0010
 0.3620	 6.0210
 0.3630	 5.9870
 0.3640	 5.9780
 0.3650	 6.0540
 0.3660	 6.0300
 0.3670	 6.0340
 0.3680	 6.0700
 0.3690	 6.0630
 0.3700	 6.0020
 0.3710	 5.9640
 0.3720	 5.9950
 0.3730	 6.0780
 0.3740	 6.0950
 0.3750	 6.0750
 0.3760	 6.0800
 0.3770	 6.0600
 0.3780	 6.0410
 0.3790	 6.0410
 0.3800	 6.0600
 0.3810	 6.0440
 0.3820	 6.0270
 0.3830	 6.0330
 0.3840	 6.0310
 0.3850	 6.0490
 0.3860	 6.0690
 0.3870	 6.0630
 0.3880	 6.0580
 0.3890	 6.0740
 0.3900	 6.1050
 0.3910	 6.1160
 0.3920	 6.1280
 0.3930	 6.1230
 0.3940	 6.1020
 0.3950	 6.1350
 0.3960	 6.1760
 0.3970	 6.1900
 0.3980	 6.1630
 0.3990	 6.1570
 0.4000	 6.1600
 0.4010	 6.1730
 0.4020	 6.2180
 0.4030	 6.2040
 0.4040	 6.1810
 0.4050	 6.2070
 0.4060	 6.2240
 0.4070	 6.2440
 0.4080	 6.2590
 0.4090	 6.2500
 0.4100	 6.2560
 0.4110	 6.2850
 0.4120	 6.3190
 0.4130	 6.3070
 0.4140	 6.3170
 0.4150	 6.3400
 0.4160	 6.3510
 0.4170	 6.3880
 0.4180	 6.4070
 0.4190	 6.4030
 0.4200	 6.4070
 0.4210	 6.4260
 0.4220	 6.4510
 0.4230	 6.4710
 0.4240	 6.4760
 0.4250	 6.4820
 0.4260	 6.4960
 0.4270	 6.5190
 0.4280	 6.5400
 0.4290	 6.5550
 0.4300	 6.5660
 0.4310	 6.5760
 0.4320	 6.5820
 0.4330	 6.5880
 0.4340	 6.5950
 0.4350	 6.6020
 0.4360	 6.6130
 0.4370	 6.6240
 0.4380	 6.6280
 0.4390	 6.6340
 0.4400	 6.6450
 0.4410	 6.6610
 0.4420	 6.6680
 0.4430	 6.6750
 0.4440	 6.6860
 0.4450	 6.7010
 0.4460	 6.7110
 0.4470	 6.7200
 0.4480	 6.7290
 0.4490	 6.7400
 0.4500	 6.7400
 0.4510	 6.7440
 0.4520	 6.7630
 0.4530	 6.7730
 0.4540	 6.7810
 0.4550	 6.7890
 0.4560	 6.7940
 0.4570	 6.7960
 0.4580	 6.7990
 0.4590	 6.8040
 0.4600	 6.8110
 0.4610	 6.8200
 0.4620	 6.8250
 0.4630	 6.8260
 0.4640	 6.8190
 0.4650	 6.8110
 0.4660	 6.8080
 0.4670	 6.8110
 0.4680	 6.8170
 0.4690	 6.8190
 0.4700	 6.8140
 0.4710	 6.8220
 0.4720	 6.8230
 0.4730	 6.8170
 0.4740	 6.8160
 0.4750	 6.8150
 0.4760	 6.8140
 0.4770	 6.8110
 0.4780	 6.8100
 0.4790	 6.8090
 0.4800	 6.8110
 0.4810	 6.8190
 0.4820	 6.8210
 0.4830	 6.8220
 0.4840	 6.8230
 0.4850	 6.8220
 0.4860	 6.8200
 0.4870	 6.8250
 0.4880	 6.8380
 0.4890	 6.8390
 0.4900	 6.8480
 0.4910	 6.8610
 0.4920	 6.8670
 0.4930	 6.8770
 0.4940	 6.8880
 0.4950	 6.8980
 0.4960	 6.9130
 0.4970	 6.9320
 0.4980	 6.9500
 0.4990	 6.9630
 0.5000	 6.9850
 0.5010	 7.0070
 0.5020	 7.0270
 0.5030	 7.0550
 0.5040	 7.0900
 0.5050	 7.1220
 0.5060	 7.1490
 0.5070	 7.1900
 0.5080	 7.2360
 0.5090	 7.2830
 0.5100	 7.3280
 0.5110	 7.3830
 0.5120	 7.4460
 0.5130	 7.5170
 0.5140	 7.5920
 0.5150	 7.6720
 0.5160	 7.7560
 0.5170	 7.8450
 0.5180	 7.9510
 0.5190	 8.0600
 0.5200	 8.1690
 0.5210	 8.2900
 0.5220	 8.4100
 0.5230	 8.5310
 0.5240	 8.6550
 0.5250	 8.7740
 0.5260	 8.8940
 0.5270	 9.0110
 0.5280	 9.1220
 0.5290	 9.2270
 0.5300	 9.3280
 0.5310	 9.4210
 0.5320	 9.5040
 0.5330	 9.5820
 0.5340	 9.6530
 0.5350	 9.7170
 0.5360	 9.7740
 0.5370	 9.8230
 0.5380	 9.8670
 0.5390	 9.9090
 0.5400	 9.9470
 0.5410	 9.9820
 0.5420	10.0160
 0.5430	10.0490
 0.5440	10.0750
 0.5450	10.0950
 0.5460	10.1160
 0.5470	10.1350
 0.5480	10.1500
 0.5490	10.1610
 0.5500	10.1720
 0.5510	10.1770
 0.5520	10.1750
 0.5530	10.1660
 0.5540	10.1520
 0.5550	10.1290
 0.5560	10.0960
 0.5570	10.0560
 0.5580	10.0060
 0.5590	 9.9530
 0.5600	 9.8970
 0.5610	 9.8370
 0.5620	 9.7740
 0.5630	 9.7050
 0.5640	 9.6270
 0.5650	 9.5500
 0.5660	 9.4710
 0.5670	 9.3860
 0.5680	 9.3010
 0.5690	 9.2140
 0.5700	 9.1270
 0.5710	 9.0410
 0.5720	 8.9580
 0.5730	 8.8780
 0.5740	 8.8040
 0.5750	 8.7400
 0.5760	 8.6810
 0.5770	 8.6260
 0.5780	 8.5750
 0.5790	 8.5280
 0.5800	 8.4840
 0.5810	 8.4410
 0.5820	 8.3990
 0.5830	 8.3560
 0.5840	 8.3170
 0.5850	 8.2830
 0.5860	 8.2500
 0.5870	 8.2180
 0.5880	 8.1890
 0.5890	 8.1640
 0.5900	 8.1450
 0.5910	 8.1290
 0.5920	 8.1120
 0.5930	 8.0960
 0.5940	 8.0790
 0.5950	 8.0650
 0.5960	 8.0560
 0.5970	 8.0460
 0.5980	 8.0350
 0.5990	 8.0230
 0.6000	 8.0100
 0.6010	 7.9920
 0.6020	 7.9720
 0.6030	 7.9500
 0.6040	 7.9220
 0.6050	 7.8970
 0.6060	 7.8710
 0.6070	 7.8390
 0.6080	 7.8080
 0.6090	 7.7720
 0.6100	 7.7350
 0.6110	 7.7010
 0.6120	 7.6680
 0.6130	 7.6330
 0.6140	 7.5970
 0.6150	 7.5640
 0.6160	 7.5340
 0.6170	 7.5040
 0.6180	 7.4710
 0.6190	 7.4470
 0.6200	 7.4260
 0.6210	 7.4050
 0.6220	 7.3840
 0.6230	 7.3670
 0.6240	 7.3540
 0.6250	 7.3420
 0.6260	 7.3310
 0.6270	 7.3220
 0.6280	 7.3170
 0.6290	 7.3130
 0.6300	 7.3070
 0.6310	 7.2990
 0.6320	 7.2930
 0.6330	 7.2870
 0.6340	 7.2740
 0.6350	 7.2570
 0.6360	 7.2400
 0.6370	 7.2190
 0.6380	 7.1960
 0.6390	 7.1700
 0.6400	 7.1400
 0.6410	 7.1100
 0.6420	 7.0800
 0.6430	 7.0490
 0.6440	 7.0160
 0.6450	 6.9860
 0.6460	 6.9580
 0.6470	 6.9300
 0.6480	 6.9020
 0.6490	 6.8810
 0.6500	 6.8660
 0.6510	 6.8520
 0.6520	 6.8430
 0.6530	 6.8350
 0.6540	 6.8240
 0.6550	 6.8130
 0.6560	 6.8020
 0.6570	 6.7900
 0.6580	 6.7760
 0.6590	 6.7600
 0.6600	 6.7440
 0.6610	 6.7280
 0.6620	 6.7120
 0.6630	 6.6980
 0.6640	 6.6860
 0.6650	 6.6760
 0.6660	 6.6740
 0.6670	 6.6730
 0.6680	 6.6740
 0.6690	 6.6790
 0.6700	 6.6900
 0.6710	 6.7070
 0.6720	 6.7290
 0.6730	 6.7530
 0.6740	 6.7790
 0.6750	 6.8090
 0.6760	 6.8440
 0.6770	 6.8820
 0.6780	 6.9270
 0.6790	 6.9770
 0.6800	 7.0280
 0.6810	 7.0840
 0.6820	 7.1440
 0.6830	 7.2080
 0.6840	 7.2700
 0.6850	 7.3330
 0.6860	 7.3970
 0.6870	 7.4670
 0.6880	 7.5430
 0.6890	 7.6310
 0.6900	 7.7350
 0.6910	 7.8620
 0.6920	 8.0220
 0.6930	 8.2170
 0.6940	 8.4510
 0.6950	 8.7340
 0.6960	 9.0670
 0.6970	 9.4520
 0.6980	 9.8930
 0.6990	10.3850
 0.7000	10.9240
 0.7010	11.5080
 0.7020	12.1340
 0.7030	12.8010
 0.7040	13.5000
 0.7050	14.2260
 0.7060	14.9780
 0.7070	15.7530
 0.7080	16.5490
 0.7090	17.3630
 0.7100	18.1920
 0.7110	19.0390
 0.7120	19.9010
 0.7130	20.7770
 0.7140	21.6620
 0.7150	22.5560
 0.7160	23.4530
 0.7170	24.3560
 0.7180	25.2590
 0.7190	26.1610
 0.7200	27.0580
 0.7210	27.9420
 0.7220	28.8140
 0.7230	29.6700
 0.7240	30.5100
 0.7250	31.3290
 0.7260	32.1220
 0.7270	32.8870
 0.7280	33.6260
 0.7290	34.3350
 0.7300	35.0130
 0.7310	35.6620
 0.7320	36.2780
 0.7330	36.8620
 0.7340	37.4130
 0.7350	37.9320
 0.7360	38.4180
 0.7370	38.8740
 0.7380	39.3020
 0.7390	39.7010
 0.7400	40.0700
 0.7410	40.4090
 0.7420	40.7240
 0.7430	41.0150
 0.7440	41.2780
 0.7450	41.5160
 0.7460	41.7280
 0.7470	41.9210
 0.7480	42.0930
 0.7490	42.2450
 0.7500	42.3810
 0.7510	42.5050
 0.7520	42.6160
 0.7530	42.7120
 0.7540	42.7970
 0.7550	42.8740
 0.7560	42.9420
 0.7570	43.0020
 0.7580	43.0560
 0.7590	43.1030
 0.7600	43.1420
 0.7610	43.1770
 0.7620	43.2060
 0.7630	43.2320
 0.7640	43.2550
 0.7650	43.2700
 0.7660	43.2830
 0.7670	43.2930
 0.7680	43.2990
 0.7690	43.3080
 0.7700	43.3160
 0.7710	43.3190
 0.7720	43.3200
 0.7730	43.3220
 0.7740	43.3250
 0.7750	43.3270
 0.7760	43.3280
 0.7770	43.3290
 0.7780	43.3320
 0.7790	43.3340
 0.7800	43.3370
 0.7810	43.3400
 0.7820	43.3440
 0.7830	43.3470
 0.7840	43.3490
 0.7850	43.3510
 0.7860	43.3530
 0.7870	43.3540
 0.7880	43.3530
 0.7890	43.3520
 0.7900	43.3520
 0.7910	43.3520
 0.7920	43.3490
 0.7930	43.3450
 0.7940	43.3460
 0.7950	43.3450
 0.7960	43.3400
 0.7970	43.3320
 0.7980	43.3260
 0.7990	43.3200
 0.8000	43.3130
 0.8010	43.3050
 0.8020	43.2950
 0.8030	43.2870
 0.8040	43.2800
 0.8050	43.2710
 0.8060	43.2630
 0.8070	43.2500
 0.8080	43.2340
 0.8090	43.2220
 0.8100	43.2130
 0.8110	43.2030
 0.8120	43.1930
 0.8130	43.1780
 0.8140	43.1580
 0.8150	43.1390
 0.8160	43.1270
 0.8170	43.1160
 0.8180	43.1010
 0.8190	43.0850
 0.8200	43.0680
 0.8210	43.0520
 0.8220	43.0370
 0.8230	43.0230
 0.8240	43.0080
 0.8250	42.9940
 0.8260	42.9780
 0.8270	42.9610
 0.8280	42.9470
 0.8290	42.9310
 0.8300	42.9140
 0.8310	42.8960
 0.8320	42.8800
 0.8330	42.8650
 0.8340	42.8530
 0.8350	42.8410
 0.8360	42.8270
 0.8370	42.8130
 0.8380	42.8020
 0.8390	42.7940
 0.8400	42.7830
 0.8410	42.7730
 0.8420	42.7660
 0.8430	42.7640
 0.8440	42.7540
 0.8450	42.7420
 0.8460	42.7340
 0.8470	42.7300
 0.8480	42.7260
 0.8490	42.7200
 0.8500	42.7150
 0.8510	42.7090
 0.8520	42.7050
 0.8530	42.7040
 0.8540	42.7030
 0.8550	42.7000
 0.8560	42.6960
 0.8570	42.6940
 0.8580	42.6930
 0.8590	42.6930
 0.8600	42.6920
 0.8610	42.6900
 0.8620	42.6910
 0.8630	42.6930
 0.8640	42.6940
 0.8650	42.6950
 0.8660	42.6960
 0.8670	42.6990
 0.8680	42.7030
 0.8690	42.7050
 0.8700	42.7090
 0.8710	42.7150
 0.8720	42.7200
 0.8730	42.7220
 0.8740	42.7260
 0.8750	42.7300
 0.8760	42.7350
 0.8770	42.7430
 0.8780	42.7510
 0.8790	42.7560
 0.8800	42.7590
 0.8810	42.7640
 0.8820	42.7650
 0.8830	42.7690
 0.8840	42.7790
 0.8850	42.7870
 0.8860	42.7890
 0.8870	42.7890
 0.8880	42.7940
 0.8890	42.7980
 0.8900	42.8010
 0.8910	42.8050
 0.8920	42.8100
 0.8930	42.8180
 0.8940	42.8230
 0.8950	42.8250
 0.8960	42.8300
 0.8970	42.8320
 0.8980	42.8340
 0.8990	42.8390
 0.9000	42.8490
 0.9010	42.8550
 0.9020	42.8540
 0.9030	42.8500
 0.9040	42.8600
 0.9050	42.8640
 0.9060	42.8640
 0.9070	42.8650
 0.9080	42.8690
 0.9090	42.8710
 0.9100	42.8710
 0.9110	42.8690
 0.9120	42.8630
 0.9130	42.8650
 0.9140	42.8710
 0.9150	42.8710
 0.9160	42.8640
 0.9170	42.8710
 0.9180	42.8780
 0.9190	42.8670
 0.9200	42.8610
 0.9210	42.8560
 0.9220	42.8510
 0.9230	42.8490
 0.9240	42.8430
 0.9250	42.8330
 0.9260	42.8240
 0.9270	42.8180
 0.9280	42.8060
 0.9290	42.7900
 0.9300	42.7710
 0.9310	42.7520
 0.9320	42.7370
 0.9330	42.7250
 0.9340	42.7130
 0.9350	42.6930
 0.9360	42.6700
 0.9370	42.6480
 0.9380	42.6290
 0.9390	42.6130
 0.9400	42.5910
 0.9410	42.5660
 0.9420	42.5390
 0.9430	42.5070
 0.9440	42.4820
 0.9450	42.4530
 0.9460	42.4140
 0.9470	42.3780
 0.9480	42.3430
 0.9490	42.3060
 0.9500	42.2640
 0.9510	42.2200
 0.9520	42.1760
 0.9530	42.1290
 0.9540	42.0770
 0.9550	42.0230
 0.9560	41.9760
 0.9570	41.9320
 0.9580	41.8850
 0.9590	41.8450
 0.9600	41.8050
 0.9610	41.7700
 0.9620	41.7430
 0.9630	41.7100
 0.9640	41.6770
 0.9650	41.6470
 0.9660	41.6220
 0.9670	41.6010
 0.9680	41.5880
 0.9690	41.5740
 0.9700	41.5480
 0.9710	41.5210
 0.9720	41.5110
 0.9730	41.5070
 0.9740	41.4900
 0.9750	41.4760
 0.9760	41.4720
 0.9770	41.4660
 0.9780	41.4430
 0.9790	41.4290
 0.9800	41.4250
 0.9810	41.4270
 0.9820	41.4300
 0.9830	41.4310
 0.9840	41.4160
 0.9850	41.3950
 0.9860	41.3860
 0.9870	41.4010
 0.9880	41.4110
 0.9890	41.4150
 0.9900	41.4190
 0.9910	41.4000
 0.9920	41.4000
 0.9930	41.4100
 0.9940	41.4040
 0.9950	41.4100
 0.9960	41.4250
 0.9970	41.4400
 0.9980	41.4470
 0.9990	41.4460
 1.0000	41.4490
 1.0010	41.8640
 1.0020	41.8750
 1.0030	41.8840
 1.0040	41.8910
 1.0050	41.9020
 1.0060	41.9120
 1.0070	41.9180
 1.0080	41.9260
 1.0090	41.9340
 1.0100	41.9430
 1.0110	41.9540
 1.0120	41.9630
 1.0130	41.9680
 1.0140	41.9770
 1.0150	41.9890
 1.0160	41.9990
 1.0170	42.0070
 1.0180	42.0180
 1.0190	42.0280
 1.0200	42.0340
 1.0210	42.0450
 1.0220	42.0610
 1.0230	42.0720
 1.0240	42.0790
 1.0250	42.0900
 1.0260	42.1000
 1.0270	42.1100
 1.0280	42.1230
 1.0290	42.1330
 1.0300	42.1410
 1.0310	42.1500
 1.0320	42.1610
 1.0330	42.1680
 1.0340	42.1740
 1.0350	42.1800
 1.0360	42.1850
 1.0370	42.1930
 1.0380	42.2010
 1.0390	42.2120
 1.0400	42.2190
 1.0410	42.2250
 1.0420	42.2300
 1.0430	42.2320
 1.0440	42.2370
 1.0450	42.2450
 1.0460	42.2510
 1.0470	42.2560
 1.0480	42.2630
 1.0490	42.2710
 1.0500	42.2770
 1.0510	42.2830
 1.0520	42.2880
 1.0530	42.2930
 1.0540	42.2940
 1.0550	42.2970
 1.0560	42.2990
 1.0570	42.3010
 1.0580	42.3020
 1.0590	42.3040
 1.0600	42.3070
 1.0610	42.3080
 1.0620	42.3060
 1.0630	42.3060
 1.0640	42.3080
 1.0650	42.3090
 1.0660	42.3120
 1.0670	42.3130
 1.0680	42.3130
 1.0690	42.3110
 1.0700	42.3110
 1.0710	42.3120
 1.0720	42.3100
 1.0730	42.3080
 1.0740	42.3050
 1.0750	42.3010
 1.0760	42.2970
 1.0770	42.2950
 1.0780	42.2910
 1.0790	42.2850
 1.0800	42.2820
 1.0810	42.2770
 1.0820	42.2750
 1.0830	42.2770
 1.0840	42.2750
 1.0850	42.2750
 1.0860	42.2730
 1.0870	42.2680
 1.0880	42.2600
 1.0890	42.2540
 1.0900	42.2470
 1.0910	42.2410
 1.0920	42.2370
 1.0930	42.2310
 1.0940	42.2270
 1.0950	42.2200
 1.0960	42.2120
 1.0970	42.2040
 1.0980	42.1950
 1.0990	42.1870
 1.1000	42.1810
 1.1010	42.1730
 1.1020	42.1640
 1.1030	42.1550
 1.1040	42.1480
 1.1050	42.1380
 1.1060	42.1280
 1.1070	42.1180
 1.1080	42.1080
 1.1090	42.0960
 1.1100	42.0860
 1.1110	42.0800
 1.1120	42.0690
 1.1130	42.0580
 1.1140	42.0450
 1.1150	42.0310
 1.1160	42.0150
 1.1170	41.9970
 1.1180	41.9790
 1.1190	41.9600
 1.1200	41.9400
 1.1210	41.9190
 1.1220	41.8970
 1.1230	41.8710
 1.1240	41.8420
 1.1250	41.8100
 1.1260	41.7760
 1.1270	41.7360
 1.1280	41.6940
 1.1290	41.6470
 1.1300	41.5950
 1.1310	41.5390
 1.1320	41.4800
 1.1330	41.4150
 1.1340	41.3430
 1.1350	41.2690
 1.1360	41.1900
 1.1370	41.1070
 1.1380	41.0200
 1.1390	40.9290
 1.1400	40.8330
 1.1410	40.7370
 1.1420	40.6380
 1.1430	40.5360
 1.1440	40.4350
 1.1450	40.3330
 1.1460	40.2320
 1.1470	40.1290
 1.1480	40.0320
 1.1490	39.9350
 1.1500	39.8450
 1.1510	39.7590
 1.1520	39.6780
 1.1530	39.6010
 1.1540	39.5290
 1.1550	39.4640
 1.1560	39.4030
 1.1570	39.3460
 1.1580	39.2920
 1.1590	39.2440
 1.1600	39.2000
 1.1610	39.1590
 1.1620	39.1220
 1.1630	39.0870
 1.1640	39.0540
 1.1650	39.0240
 1.1660	38.9980
 1.1670	38.9730
 1.1680	38.9510
 1.1690	38.9280
 1.1700	38.9060
 1.1710	38.8850
 1.1720	38.8640
 1.1730	38.8430
 1.1740	38.8240
 1.1750	38.8050
 1.1760	38.7860
 1.1770	38.7630
 1.1780	38.7410
 1.1790	38.7210
 1.1800	38.7010
 1.1810	38.6800
 1.1820	38.6590
 1.1830	38.6360
 1.1840	38.6140
 1.1850	38.5930
 1.1860	38.5730
 1.1870	38.5540
 1.1880	38.5370
 1.1890	38.5220
 1.1900	38.5090
 1.1910	38.4990
 1.1920	38.4890
 1.1930	38.4800
 1.1940	38.4720
 1.1950	38.4650
 1.1960	38.4610
 1.1970	38.4560
 1.1980	38.4540
 1.1990	38.4540
 1.2000	38.4550
 1.2010	38.4590
 1.2020	38.4640
 1.2030	38.4700
 1.2040	38.4770
 1.2050	38.4830
 1.2060	38.4890
 1.2070	38.4970
 1.2080	38.5080
 1.2090	38.5210
 1.2100	38.5360
 1.2110	38.5500
 1.2120	38.5630
 1.2130	38.5790
 1.2140	38.5960
 1.2150	38.6130
 1.2160	38.6320
 1.2170	38.6520
 1.2180	38.6710
 1.2190	38.6890
 1.2200	38.7080
 1.2210	38.7300
 1.2220	38.7530
 1.2230	38.7730
 1.2240	38.7940
 1.2250	38.8160
 1.2260	38.8360
 1.2270	38.8580
 1.2280	38.8790
 1.2290	38.8970
 1.2300	38.9140
 1.2310	38.9300
 1.2320	38.9460
 1.2330	38.9610
 1.2340	38.9750
 1.2350	38.9880
 1.2360	39.0010
 1.2370	39.0130
 1.2380	39.0260
 1.2390	39.0400
 1.2400	39.0510
 1.2410	39.0630
 1.2420	39.0740
 1.2430	39.0820
 1.2440	39.0910
 1.2450	39.1010
 1.2460	39.1090
 1.2470	39.1170
 1.2480	39.1230
 1.2490	39.1300
 1.2500	39.1370
 1.2510	39.1420
 1.2520	39.1490
 1.2530	39.1550
 1.2540	39.1590
 1.2550	39.1650
 1.2560	39.1690
 1.2570	39.1720
 1.2580	39.1750
 1.2590	39.1760
 1.2600	39.1760
 1.2610	39.1760
 1.2620	39.1760
 1.2630	39.1740
 1.2640	39.1710
 1.2650	39.1670
 1.2660	39.1630
 1.2670	39.1580
 1.2680	39.1530
 1.2690	39.1470
 1.2700	39.1400
 1.2710	39.1340
 1.2720	39.1270
 1.2730	39.1190
 1.2740	39.1110
 1.2750	39.1020
 1.2760	39.0900
 1.2770	39.0780
 1.2780	39.0640
 1.2790	39.0500
 1.2800	39.0360
 1.2810	39.0180
 1.2820	39.0010
 1.2830	38.9840
 1.2840	38.9620
 1.2850	38.9420
 1.2860	38.9210
 1.2870	38.8980
 1.2880	38.8710
 1.2890	38.8460
 1.2900	38.8190
 1.2910	38.7880
 1.2920	38.7580
 1.2930	38.7260
 1.2940	38.6920
 1.2950	38.6570
 1.2960	38.6200
 1.2970	38.5810
 1.2980	38.5390
 1.2990	38.4970
 1.3000	38.4550
 1.3010	38.4100
 1.3020	38.3640
 1.3030	38.3150
 1.3040	38.2620
 1.3050	38.2110
 1.3060	38.1610
 1.3070	38.1080
 1.3080	38.0540
 1.3090	37.9970
 1.3100	37.9350
 1.3110	37.8720
 1.3120	37.8080
 1.3130	37.7410
 1.3140	37.6720
 1.3150	37.6010
 1.3160	37.5280
 1.3170	37.4530
 1.3180	37.3760
 1.3190	37.2960
 1.3200	37.2180
 1.3210	37.1370
 1.3220	37.0520
 1.3230	36.9680
 1.3240	36.8800
 1.3250	36.7910
 1.3260	36.7020
 1.3270	36.6080
 1.3280	36.5130
 1.3290	36.4170
 1.3300	36.3160
 1.3310	36.2140
 1.3320	36.1110
 1.3330	36.0080
 1.3340	35.9040
 1.3350	35.7990
 1.3360	35.6940
 1.3370	35.5880
 1.3380	35.4820
 1.3390	35.3770
 1.3400	35.2720
 1.3410	35.1670
 1.3420	35.0620
 1.3430	34.9580
 1.3440	34.8550
 1.3450	34.7520
 1.3460	34.6510
 1.3470	34.5500
 1.3480	34.4490
 1.3490	34.3490
 1.3500	34.2510
 1.3510	34.1530
 1.3520	34.0550
 1.3530	33.9580
 1.3540	33.8610
 1.3550	33.7620
 1.3560	33.6620
 1.3570	33.5620
 1.3580	33.4600
 1.3590	33.3570
 1.3600	33.2510
 1.3610	33.1430
 1.3620	33.0300
 1.3630	32.9150
 1.3640	32.7950
 1.3650	32.6680
 1.3660	32.5350
 1.3670	32.3940
 1.3680	32.2440
 1.3690	32.0870
 1.3700	31.9170
 1.3710	31.7380
 1.3720	31.5480
 1.3730	31.3410
 1.3740	31.1200
 1.3750	30.8840
 1.3760	30.6280
 1.3770	30.3530
 1.3780	30.0560
 1.3790	29.7400
 1.3800	29.4030
 1.3810	29.0430
 1.3820	28.6670
 1.3830	28.2720
 1.3840	27.8590
 1.3850	27.4270
 1.3860	26.9800
 1.3870	26.5130
 1.3880	26.0390
 1.3890	25.5520
 1.3900	25.0550
 1.3910	24.5570
 1.3920	24.0510
 1.3930	23.5430
 1.3940	23.0350
 1.3950	22.5220
 1.3960	22.0180
 1.3970	21.5220
 1.3980	21.0340
 1.3990	20.5640
 1.4000	20.1060
 1.4010	19.6610
 1.4020	19.2340
 1.4030	18.8200
 1.4040	18.4240
 1.4050	18.0470
 1.4060	17.6880
 1.4070	17.3520
 1.4080	17.0330
 1.4090	16.7320
 1.4100	16.4500
 1.4110	16.1840
 1.4120	15.9360
 1.4130	15.7060
 1.4140	15.4900
 1.4150	15.2910
 1.4160	15.1050
 1.4170	14.9320
 1.4180	14.7720
 1.4190	14.6220
 1.4200	14.4830
 1.4210	14.3550
 1.4220	14.2360
 1.4230	14.1280
 1.4240	14.0270
 1.4250	13.9330
 1.4260	13.8480
 1.4270	13.7680
 1.4280	13.6950
 1.4290	13.6270
 1.4300	13.5660
 1.4310	13.5100
 1.4320	13.4600
 1.4330	13.4140
 1.4340	13.3730
 1.4350	13.3360
 1.4360	13.3020
 1.4370	13.2730
 1.4380	13.2470
 1.4390	13.2250
 1.4400	13.2060
 1.4410	13.1900
 1.4420	13.1760
 1.4430	13.1660
 1.4440	13.1570
 1.4450	13.1510
 1.4460	13.1470
 1.4470	13.1450
 1.4480	13.1450
 1.4490	13.1470
 1.4500	13.1510
 1.4510	13.1560
 1.4520	13.1630
 1.4530	13.1710
 1.4540	13.1820
 1.4550	13.1950
 1.4560	13.2100
 1.4570	13.2270
 1.4580	13.2470
 1.4590	13.2700
 1.4600	13.2970
 1.4610	13.3260
 1.4620	13.3600
 1.4630	13.3970
 1.4640	13.4390
 1.4650	13.4840
 1.4660	13.5330
 1.4670	13.5870
 1.4680	13.6450
 1.4690	13.7070
 1.4700	13.7730
 1.4710	13.8430
 1.4720	13.9170
 1.4730	13.9930
 1.4740	14.0740
 1.4750	14.1560
 1.4760	14.2420
 1.4770	14.3300
