Name: Heteromeles arbutifolia 2
Type: vegetation
Class: Shrub
Genus: Heteromeles
Species: arbutifolia
Sample No.: VH208
Owner: UCSB
Wavelength Range: TIR
Origin: 34.4907; -119.7912; WGS84
Collection Date: 10/13/2013
Description: Samples were collected as part of the HyspIRI Airborne Campaign. 48 individual plants were sampled in three times in 2013 - spring  summer  and fall. The name of the sample includes a 1  2  or 3 which references a different individual of the species. Samples were taken to JPL and processed within 48 hours of collection. The same leaves were processed in the Nicolet and then measured using the ASD.
Measurement: Hemispherical reflectance
First Column: X
Second Column: Y
X Units: Wavelength (micrometers)
Y Units: Reflectance (percentage)
First X Value: 2.501
Last X Value: 15.387
Number of X Values: 1737
Additional Information: vegetation.shrub.heteromeles.arbutifolia.tir.vh208.ucsb.nicolet.ancillary.txt

 2.5010	 7.1460
 2.5030	 7.2360
 2.5040	 7.5040
 2.5050	 7.4440
 2.5060	 7.4690
 2.5070	 7.6620
 2.5090	 7.7670
 2.5100	 7.3530
 2.5110	 7.1100
 2.5120	 7.1960
 2.5140	 7.2270
 2.5150	 7.2020
 2.5160	 7.3390
 2.5170	 7.2460
 2.5180	 7.1560
 2.5200	 7.1050
 2.5210	 7.2210
 2.5220	 7.2610
 2.5230	 7.3160
 2.5250	 7.1060
 2.5260	 7.0030
 2.5270	 6.9760
 2.5280	 7.1510
 2.5290	 7.2560
 2.5310	 7.3000
 2.5320	 7.1030
 2.5330	 7.0270
 2.5340	 7.2550
 2.5360	 7.4340
 2.5370	 7.1460
 2.5380	 6.9440
 2.5390	 6.9530
 2.5410	 7.1460
 2.5420	 7.1830
 2.5430	 7.2710
 2.5440	 7.2370
 2.5460	 7.0550
 2.5470	 6.9430
 2.5480	 7.1930
 2.5490	 7.2960
 2.5510	 7.1930
 2.5520	 7.1840
 2.5530	 7.2310
 2.5540	 7.1310
 2.5560	 7.1310
 2.5570	 7.0960
 2.5580	 7.2750
 2.5590	 7.2540
 2.5610	 7.2210
 2.5620	 7.2260
 2.5630	 7.2410
 2.5640	 7.1070
 2.5660	 7.1080
 2.5670	 7.1530
 2.5680	 7.1390
 2.5700	 7.0250
 2.5710	 7.0250
 2.5720	 7.2240
 2.5730	 7.3970
 2.5750	 7.2020
 2.5760	 6.9980
 2.5770	 6.9020
 2.5790	 7.0260
 2.5800	 7.0330
 2.5810	 7.1490
 2.5820	 7.2210
 2.5840	 7.4220
 2.5850	 7.3540
 2.5860	 7.0390
 2.5880	 7.0190
 2.5890	 7.2150
 2.5900	 7.1570
 2.5910	 6.9950
 2.5930	 6.9360
 2.5940	 6.9940
 2.5950	 6.9530
 2.5970	 7.1380
 2.5980	 7.1290
 2.5990	 7.1320
 2.6000	 7.1390
 2.6020	 7.0720
 2.6030	 6.9290
 2.6040	 6.8710
 2.6060	 6.7680
 2.6070	 6.7940
 2.6080	 6.8660
 2.6100	 6.8110
 2.6110	 6.6800
 2.6120	 6.7020
 2.6140	 6.6410
 2.6150	 6.6160
 2.6160	 6.5360
 2.6180	 6.5400
 2.6190	 6.4870
 2.6200	 6.7090
 2.6220	 6.5400
 2.6230	 6.1920
 2.6240	 6.0690
 2.6260	 6.1700
 2.6270	 6.0350
 2.6280	 6.0980
 2.6300	 6.3770
 2.6310	 6.2500
 2.6320	 6.1420
 2.6340	 6.1560
 2.6350	 5.9680
 2.6360	 6.0280
 2.6380	 6.0240
 2.6390	 5.9280
 2.6400	 5.9010
 2.6420	 6.0360
 2.6430	 6.0270
 2.6440	 5.9590
 2.6460	 5.7530
 2.6470	 5.6480
 2.6480	 5.6890
 2.6500	 5.7140
 2.6510	 5.5580
 2.6520	 5.5410
 2.6540	 5.5070
 2.6550	 5.4230
 2.6560	 5.5510
 2.6580	 5.5700
 2.6590	 5.3410
 2.6610	 5.1660
 2.6620	 5.2760
 2.6630	 5.5140
 2.6650	 5.5060
 2.6660	 5.4870
 2.6670	 5.4170
 2.6690	 5.5290
 2.6700	 5.6900
 2.6720	 5.7120
 2.6730	 5.5200
 2.6740	 5.3070
 2.6760	 5.2100
 2.6770	 5.3400
 2.6780	 5.4100
 2.6800	 5.2500
 2.6810	 5.1150
 2.6830	 5.1630
 2.6840	 5.2700
 2.6850	 5.2780
 2.6870	 4.9990
 2.6880	 4.9200
 2.6900	 4.9420
 2.6910	 5.0440
 2.6920	 5.0520
 2.6940	 4.9620
 2.6950	 4.9220
 2.6970	 5.0480
 2.6980	 4.9830
 2.6990	 5.2600
 2.7010	 5.3890
 2.7020	 5.3270
 2.7040	 5.3140
 2.7050	 5.1340
 2.7060	 4.9860
 2.7080	 5.0130
 2.7090	 4.9690
 2.7110	 4.8940
 2.7120	 5.0090
 2.7130	 5.1290
 2.7150	 5.0350
 2.7160	 4.9630
 2.7180	 4.8790
 2.7190	 5.0020
 2.7210	 4.8010
 2.7220	 4.4860
 2.7230	 4.7380
 2.7250	 5.0300
 2.7260	 5.0010
 2.7280	 5.0270
 2.7290	 5.1270
 2.7310	 5.0820
 2.7320	 5.0360
 2.7330	 5.0160
 2.7350	 4.8690
 2.7360	 4.4820
 2.7380	 4.7620
 2.7390	 5.0400
 2.7410	 4.8290
 2.7420	 5.1820
 2.7440	 5.4530
 2.7450	 5.0860
 2.7470	 4.6410
 2.7480	 4.7510
 2.7490	 5.0150
 2.7510	 3.8550
 2.7520	 3.3610
 2.7540	 4.2300
 2.7550	 4.9830
 2.7570	 4.9330
 2.7580	 4.6050
 2.7600	 5.1780
 2.7610	 5.4590
 2.7630	 4.9980
 2.7640	 4.9240
 2.7660	 5.1900
 2.7670	 5.0510
 2.7680	 4.8260
 2.7700	 4.9900
 2.7710	 5.1990
 2.7730	 4.9330
 2.7740	 5.1210
 2.7760	 5.2690
 2.7770	 5.1690
 2.7790	 5.0390
 2.7800	 4.8230
 2.7820	 4.7840
 2.7830	 4.8240
 2.7850	 4.8450
 2.7860	 5.0260
 2.7880	 4.8730
 2.7890	 4.9070
 2.7910	 4.8850
 2.7920	 4.8610
 2.7940	 4.9250
 2.7950	 4.6440
 2.7970	 4.4660
 2.7980	 4.8680
 2.8000	 4.9340
 2.8010	 5.0190
 2.8030	 5.0120
 2.8040	 5.1890
 2.8060	 5.0790
 2.8070	 4.8450
 2.8090	 4.8040
 2.8110	 4.8330
 2.8120	 4.8070
 2.8140	 5.0750
 2.8150	 5.0720
 2.8170	 4.9180
 2.8180	 4.8900
 2.8200	 4.9940
 2.8210	 5.0480
 2.8230	 5.3380
 2.8240	 5.3460
 2.8260	 5.1380
 2.8270	 5.1100
 2.8290	 5.0630
 2.8300	 5.0750
 2.8320	 5.1530
 2.8340	 5.2740
 2.8350	 5.3020
 2.8370	 4.8990
 2.8380	 4.5210
 2.8400	 4.4680
 2.8410	 4.7800
 2.8430	 4.9390
 2.8440	 4.9730
 2.8460	 5.0480
 2.8480	 5.3270
 2.8490	 5.1610
 2.8510	 4.9530
 2.8520	 4.8020
 2.8540	 4.9840
 2.8550	 5.0200
 2.8570	 5.0240
 2.8590	 4.8680
 2.8600	 4.8090
 2.8620	 4.8280
 2.8630	 4.8950
 2.8650	 4.8980
 2.8660	 5.0110
 2.8680	 4.9110
 2.8700	 4.5890
 2.8710	 4.5320
 2.8730	 4.8830
 2.8740	 5.2730
 2.8760	 4.9330
 2.8780	 4.7240
 2.8790	 5.1490
 2.8810	 4.9990
 2.8820	 5.2600
 2.8840	 5.6610
 2.8860	 5.4180
 2.8870	 5.1590
 2.8890	 5.2090
 2.8900	 5.1630
 2.8920	 4.9440
 2.8940	 4.6270
 2.8950	 4.4700
 2.8970	 4.5910
 2.8980	 4.3640
 2.9000	 4.7560
 2.9020	 5.1340
 2.9030	 5.1640
 2.9050	 5.4070
 2.9070	 5.6560
 2.9080	 5.4290
 2.9100	 5.2200
 2.9120	 4.8940
 2.9130	 4.8570
 2.9150	 5.1590
 2.9160	 5.3810
 2.9180	 5.2840
 2.9200	 5.0550
 2.9210	 5.0670
 2.9230	 5.1240
 2.9250	 5.1830
 2.9260	 5.0320
 2.9280	 4.9410
 2.9300	 4.8800
 2.9310	 5.0100
 2.9330	 4.9770
 2.9350	 4.9290
 2.9360	 4.8670
 2.9380	 4.8830
 2.9400	 4.9440
 2.9410	 4.8660
 2.9430	 4.9100
 2.9450	 5.2950
 2.9460	 5.4050
 2.9480	 4.8070
 2.9500	 4.3370
 2.9510	 4.7830
 2.9530	 5.9580
 2.9550	 6.2510
 2.9560	 5.5740
 2.9580	 4.5880
 2.9600	 4.4250
 2.9610	 4.5390
 2.9630	 4.7340
 2.9650	 5.8470
 2.9660	 6.2820
 2.9680	 5.9790
 2.9700	 4.7920
 2.9720	 3.9700
 2.9730	 5.5450
 2.9750	 7.2100
 2.9770	 6.9540
 2.9780	 5.6170
 2.9800	 5.4410
 2.9820	 5.8160
 2.9840	 5.5870
 2.9850	 5.1700
 2.9870	 4.3200
 2.9890	 5.0260
 2.9900	 7.1870
 2.9920	 8.4410
 2.9940	 8.3540
 2.9960	 7.6170
 2.9970	 5.7290
 2.9990	 5.1270
 3.0010	 4.8510
 3.0030	 4.2730
 3.0040	 5.4550
 3.0060	 4.2600
 3.0080	 4.6660
 3.0100	 5.9490
 3.0110	 6.1200
 3.0130	 6.3570
 3.0150	 5.5230
 3.0170	 5.9920
 3.0180	 6.3040
 3.0200	 5.1440
 3.0220	 3.9820
 3.0240	 4.5150
 3.0250	 4.3700
 3.0270	 4.3080
 3.0290	 5.6750
 3.0310	 4.9640
 3.0320	 3.0160
 3.0340	 3.1920
 3.0360	 4.7400
 3.0380	 6.2490
 3.0400	 5.7870
 3.0410	 4.0750
 3.0430	 3.1880
 3.0450	 1.5100
 3.0470	 2.6420
 3.0480	 5.5230
 3.0500	 7.1410
 3.0520	 7.4270
 3.0540	 6.6860
 3.0560	 4.4030
 3.0570	 3.5520
 3.0590	 4.0370
 3.0610	 4.6900
 3.0630	 5.2720
 3.0650	 5.2000
 3.0660	 5.5620
 3.0680	 5.4910
 3.0700	 4.4310
 3.0720	 5.3350
 3.0740	 6.1930
 3.0760	 5.0170
 3.0770	 4.0270
 3.0790	 4.3280
 3.0810	 4.7370
 3.0830	 4.9570
 3.0850	 5.1730
 3.0870	 5.4030
 3.0880	 5.5700
 3.0900	 5.5290
 3.0920	 5.0760
 3.0940	 4.9020
 3.0960	 5.3170
 3.0980	 5.3440
 3.0990	 5.2810
 3.1010	 5.2600
 3.1030	 5.3070
 3.1050	 5.1990
 3.1070	 5.5110
 3.1090	 5.3680
 3.1110	 5.1450
 3.1120	 5.2620
 3.1140	 4.9540
 3.1160	 4.6570
 3.1180	 4.7690
 3.1200	 4.9030
 3.1220	 5.0510
 3.1240	 5.2690
 3.1260	 5.5370
 3.1270	 5.4950
 3.1290	 5.1820
 3.1310	 4.5920
 3.1330	 4.0130
 3.1350	 4.5990
 3.1370	 5.4200
 3.1390	 4.9470
 3.1410	 4.7560
 3.1430	 4.6120
 3.1450	 3.4940
 3.1460	 4.3280
 3.1480	 5.1100
 3.1500	 3.7490
 3.1520	 3.6780
 3.1540	 4.4740
 3.1560	 4.7260
 3.1580	 7.0380
 3.1600	 8.9340
 3.1620	 8.3720
 3.1640	 7.8900
 3.1660	 4.8580
 3.1680	 3.4900
 3.1700	 4.2550
 3.1710	 5.0990
 3.1730	 5.3080
 3.1750	 4.2260
 3.1770	 5.8150
 3.1790	 6.1850
 3.1810	 5.3150
 3.1830	 5.0190
 3.1850	 4.9470
 3.1870	 5.8850
 3.1890	 6.1330
 3.1910	 5.3610
 3.1930	 4.7250
 3.1950	 5.0690
 3.1970	 5.2930
 3.1990	 4.9860
 3.2010	 4.7740
 3.2030	 4.9680
 3.2050	 4.9010
 3.2070	 4.9550
 3.2090	 5.1450
 3.2110	 5.0460
 3.2130	 5.1050
 3.2150	 5.3600
 3.2170	 5.2890
 3.2190	 5.0390
 3.2210	 5.0680
 3.2230	 5.1770
 3.2250	 5.0170
 3.2270	 4.9660
 3.2290	 5.1750
 3.2310	 5.1600
 3.2330	 4.8870
 3.2350	 4.6240
 3.2370	 4.6320
 3.2390	 5.2310
 3.2410	 4.9420
 3.2430	 4.2350
 3.2450	 4.5650
 3.2470	 5.3250
 3.2490	 5.6090
 3.2510	 5.1490
 3.2530	 5.1510
 3.2550	 5.2680
 3.2570	 4.9040
 3.2590	 4.4740
 3.2610	 4.2720
 3.2630	 4.7890
 3.2650	 4.7960
 3.2670	 4.7260
 3.2690	 4.9430
 3.2720	 4.9160
 3.2740	 4.7230
 3.2760	 4.9560
 3.2780	 5.1170
 3.2800	 4.9050
 3.2820	 4.6630
 3.2840	 4.6100
 3.2860	 4.6510
 3.2880	 4.7830
 3.2900	 4.5410
 3.2920	 4.2340
 3.2940	 4.6260
 3.2960	 5.1500
 3.2990	 5.1710
 3.3010	 5.1630
 3.3030	 4.9980
 3.3050	 4.7650
 3.3070	 4.6230
 3.3090	 4.5290
 3.3110	 4.5790
 3.3130	 4.8270
 3.3150	 4.6590
 3.3180	 4.2670
 3.3200	 4.4300
 3.3220	 4.8650
 3.3240	 4.9810
 3.3260	 4.9080
 3.3280	 4.5630
 3.3300	 4.3550
 3.3330	 4.3560
 3.3350	 4.2330
 3.3370	 4.3500
 3.3390	 4.6120
 3.3410	 4.6280
 3.3430	 4.5810
 3.3450	 4.4870
 3.3480	 4.4280
 3.3500	 4.3860
 3.3520	 4.4500
 3.3540	 4.5390
 3.3560	 4.6930
 3.3580	 4.7070
 3.3610	 4.5630
 3.3630	 4.5710
 3.3650	 4.5660
 3.3670	 4.5660
 3.3690	 4.4980
 3.3720	 4.4010
 3.3740	 4.4580
 3.3760	 4.5540
 3.3780	 4.6520
 3.3800	 4.6080
 3.3830	 4.5790
 3.3850	 4.5570
 3.3870	 4.6350
 3.3890	 4.7770
 3.3910	 4.7960
 3.3940	 4.6600
 3.3960	 4.5820
 3.3980	 4.5060
 3.4000	 4.5620
 3.4020	 4.8300
 3.4050	 4.9480
 3.4070	 4.9790
 3.4090	 5.1030
 3.4110	 5.2210
 3.4140	 5.3810
 3.4160	 5.6750
 3.4180	 6.1350
 3.4200	 6.7330
 3.4230	 7.3080
 3.4250	 7.9470
 3.4270	 8.6370
 3.4290	 9.0080
 3.4320	 8.6210
 3.4340	 7.8060
 3.4360	 7.2620
 3.4390	 6.9070
 3.4410	 6.5700
 3.4430	 6.3180
 3.4450	 6.1720
 3.4480	 5.6720
 3.4500	 5.7100
 3.4520	 5.9070
 3.4550	 6.0740
 3.4570	 6.2660
 3.4590	 6.3550
 3.4620	 6.2250
 3.4640	 5.8960
 3.4660	 5.8030
 3.4680	 5.8850
 3.4710	 5.7050
 3.4730	 5.6840
 3.4750	 5.5760
 3.4780	 5.6920
 3.4800	 5.8580
 3.4820	 5.7540
 3.4850	 5.6060
 3.4870	 5.6610
 3.4890	 5.6020
 3.4920	 5.5430
 3.4940	 5.4570
 3.4970	 5.5230
 3.4990	 5.5580
 3.5010	 5.9010
 3.5040	 6.2730
 3.5060	 6.7100
 3.5080	 7.7020
 3.5110	 8.5150
 3.5130	 8.1860
 3.5160	 7.5120
 3.5180	 6.8760
 3.5200	 6.3830
 3.5230	 6.1790
 3.5250	 6.0910
 3.5270	 6.0150
 3.5300	 6.0210
 3.5320	 6.0170
 3.5350	 6.0200
 3.5370	 6.0320
 3.5400	 6.1300
 3.5420	 6.0040
 3.5440	 5.9590
 3.5470	 6.0430
 3.5490	 5.9000
 3.5520	 5.5550
 3.5540	 5.6220
 3.5570	 5.7860
 3.5590	 5.7150
 3.5610	 5.7370
 3.5640	 5.8300
 3.5660	 5.7610
 3.5690	 5.7000
 3.5710	 5.7600
 3.5740	 5.7020
 3.5760	 5.5270
 3.5790	 5.4820
 3.5810	 5.6660
 3.5840	 5.9570
 3.5860	 5.8500
 3.5890	 5.8960
 3.5910	 6.0560
 3.5930	 5.9990
 3.5960	 5.6370
 3.5980	 5.4370
 3.6010	 5.3570
 3.6030	 5.1100
 3.6060	 5.3770
 3.6080	 5.6220
 3.6110	 5.6090
 3.6140	 5.5860
 3.6160	 5.6350
 3.6190	 5.7110
 3.6210	 5.4990
 3.6240	 5.4830
 3.6260	 5.5040
 3.6290	 5.4740
 3.6310	 5.5680
 3.6340	 5.5400
 3.6360	 5.5730
 3.6390	 5.5370
 3.6410	 5.5250
 3.6440	 5.6440
 3.6470	 5.6550
 3.6490	 5.6120
 3.6520	 5.5460
 3.6540	 5.5250
 3.6570	 5.4120
 3.6590	 5.2980
 3.6620	 5.3980
 3.6650	 5.6030
 3.6670	 5.6170
 3.6700	 5.5270
 3.6720	 5.3940
 3.6750	 5.2790
 3.6780	 5.3460
 3.6800	 5.5870
 3.6830	 5.7770
 3.6850	 5.6780
 3.6880	 5.5110
 3.6910	 5.4980
 3.6930	 5.5320
 3.6960	 5.5410
 3.6990	 5.4880
 3.7010	 5.5320
 3.7040	 5.4710
 3.7060	 5.3660
 3.7090	 5.5040
 3.7120	 5.5460
 3.7140	 5.4070
 3.7170	 5.4270
 3.7200	 5.6010
 3.7220	 5.6930
 3.7250	 5.6170
 3.7280	 5.4910
 3.7300	 5.5480
 3.7330	 5.6710
 3.7360	 5.5760
 3.7390	 5.5870
 3.7410	 5.6490
 3.7440	 5.5410
 3.7470	 5.5330
 3.7490	 5.8390
 3.7520	 5.8730
 3.7550	 5.7920
 3.7580	 5.6090
 3.7600	 5.3920
 3.7630	 5.5390
 3.7660	 5.7650
 3.7680	 5.8590
 3.7710	 5.7550
 3.7740	 5.5740
 3.7770	 5.5670
 3.7790	 5.4700
 3.7820	 5.3960
 3.7850	 5.5010
 3.7880	 5.6290
 3.7900	 5.6850
 3.7930	 5.8070
 3.7960	 5.7900
 3.7990	 5.6980
 3.8020	 5.6670
 3.8040	 5.6790
 3.8070	 5.6930
 3.8100	 5.7100
 3.8130	 5.5800
 3.8160	 5.3310
 3.8180	 5.3400
 3.8210	 5.5020
 3.8240	 5.6360
 3.8270	 5.6640
 3.8300	 5.5950
 3.8330	 5.6050
 3.8350	 5.6540
 3.8380	 5.5910
 3.8410	 5.5330
 3.8440	 5.6060
 3.8470	 5.8050
 3.8500	 5.8320
 3.8520	 5.7770
 3.8550	 5.7180
 3.8580	 5.6880
 3.8610	 5.6950
 3.8640	 5.6710
 3.8670	 5.6260
 3.8700	 5.6630
 3.8730	 5.7760
 3.8750	 5.7100
 3.8780	 5.6760
 3.8810	 5.7640
 3.8840	 5.7610
 3.8870	 5.6580
 3.8900	 5.6660
 3.8930	 5.6030
 3.8960	 5.5320
 3.8990	 5.5740
 3.9020	 5.6250
 3.9050	 5.6490
 3.9080	 5.6590
 3.9110	 5.7170
 3.9140	 5.7680
 3.9160	 5.7000
 3.9190	 5.6630
 3.9220	 5.6780
 3.9250	 5.6560
 3.9280	 5.6370
 3.9310	 5.6750
 3.9340	 5.7300
 3.9370	 5.7120
 3.9400	 5.6600
 3.9430	 5.6600
 3.9460	 5.6020
 3.9490	 5.6520
 3.9520	 5.7220
 3.9550	 5.6770
 3.9580	 5.5850
 3.9610	 5.5900
 3.9640	 5.6840
 3.9670	 5.6840
 3.9700	 5.5960
 3.9730	 5.6280
 3.9770	 5.6640
 3.9800	 5.6880
 3.9830	 5.6920
 3.9860	 5.7320
 3.9890	 5.7140
 3.9920	 5.6940
 3.9950	 5.6800
 3.9980	 5.7440
 4.0010	 5.7320
 4.0040	 5.6560
 4.0070	 5.6570
 4.0100	 5.6600
 4.0130	 5.5840
 4.0170	 5.6020
 4.0200	 5.6040
 4.0230	 5.5680
 4.0260	 5.6000
 4.0290	 5.6690
 4.0320	 5.5850
 4.0350	 5.6070
 4.0380	 5.6350
 4.0420	 5.5650
 4.0450	 5.5200
 4.0480	 5.5590
 4.0510	 5.5740
 4.0540	 5.5860
 4.0570	 5.6910
 4.0610	 5.6830
 4.0640	 5.5420
 4.0670	 5.3780
 4.0700	 5.3930
 4.0730	 5.5630
 4.0770	 5.5950
 4.0800	 5.5020
 4.0830	 5.4630
 4.0860	 5.4680
 4.0890	 5.4800
 4.0930	 5.5340
 4.0960	 5.5970
 4.0990	 5.6520
 4.1020	 5.5510
 4.1060	 5.6450
 4.1090	 5.8300
 4.1120	 5.8460
 4.1150	 5.5780
 4.1190	 5.3930
 4.1220	 5.4750
 4.1250	 5.5180
 4.1280	 5.5470
 4.1320	 5.5060
 4.1350	 5.4480
 4.1380	 5.3610
 4.1420	 5.3610
 4.1450	 5.5410
 4.1480	 5.5390
 4.1520	 5.4430
 4.1550	 5.4360
 4.1580	 5.4850
 4.1620	 5.4780
 4.1650	 5.4970
 4.1680	 5.4710
 4.1720	 5.4380
 4.1750	 5.3440
 4.1780	 5.3520
 4.1820	 5.4010
 4.1850	 5.4970
 4.1890	 5.4540
 4.1920	 5.3490
 4.1950	 5.3470
 4.1990	 5.4400
 4.2020	 5.4610
 4.2060	 5.5620
 4.2090	 5.6620
 4.2120	 5.6590
 4.2160	 5.7040
 4.2190	 5.7490
 4.2230	 6.0960
 4.2260	 6.0400
 4.2300	 6.1110
 4.2330	 6.3750
 4.2360	 6.2040
 4.2400	 5.8750
 4.2430	 6.0220
 4.2470	 6.1260
 4.2500	 6.2550
 4.2540	 6.0520
 4.2570	 5.7640
 4.2610	 5.8100
 4.2640	 5.9290
 4.2680	 5.9080
 4.2710	 5.9360
 4.2750	 5.8800
 4.2780	 5.9230
 4.2820	 5.8950
 4.2850	 5.8760
 4.2890	 5.8480
 4.2930	 5.6270
 4.2960	 5.5820
 4.3000	 5.7370
 4.3030	 5.8870
 4.3070	 5.8790
 4.3100	 5.8110
 4.3140	 5.7390
 4.3180	 5.6310
 4.3210	 5.5060
 4.3250	 5.3880
 4.3280	 5.3530
 4.3320	 5.3690
 4.3360	 5.3730
 4.3390	 5.3440
 4.3430	 5.2900
 4.3470	 5.3340
 4.3500	 5.3610
 4.3540	 5.3410
 4.3570	 5.3090
 4.3610	 5.2280
 4.3650	 5.1430
 4.3680	 5.1240
 4.3720	 5.1700
 4.3760	 5.2140
 4.3800	 5.2150
 4.3830	 5.1440
 4.3870	 5.1290
 4.3910	 5.1830
 4.3940	 5.1870
 4.3980	 5.0830
 4.4020	 5.0910
 4.4060	 5.1540
 4.4090	 5.1330
 4.4130	 5.1490
 4.4170	 5.2520
 4.4210	 5.2720
 4.4240	 5.2290
 4.4280	 5.1850
 4.4320	 5.0750
 4.4360	 5.1440
 4.4400	 5.2150
 4.4430	 5.2310
 4.4470	 5.1560
 4.4510	 4.9620
 4.4550	 4.9550
 4.4590	 4.9990
 4.4620	 4.9760
 4.4660	 4.9760
 4.4700	 4.9780
 4.4740	 4.9910
 4.4780	 5.0930
 4.4820	 5.0580
 4.4860	 4.9990
 4.4900	 4.9570
 4.4930	 4.9090
 4.4970	 4.8700
 4.5010	 4.9460
 4.5050	 5.0160
 4.5090	 4.9840
 4.5130	 4.9940
 4.5170	 5.0180
 4.5210	 5.0530
 4.5250	 5.0770
 4.5290	 5.0120
 4.5330	 4.9960
 4.5370	 4.9510
 4.5410	 4.9510
 4.5450	 5.0290
 4.5490	 5.0780
 4.5530	 4.9980
 4.5570	 4.9510
 4.5610	 4.9860
 4.5650	 4.9480
 4.5690	 4.8730
 4.5730	 4.8030
 4.5770	 4.8570
 4.5810	 4.9830
 4.5850	 5.0170
 4.5890	 5.0790
 4.5930	 5.0440
 4.5970	 4.9140
 4.6010	 4.9270
 4.6050	 5.0600
 4.6090	 5.0420
 4.6130	 5.0540
 4.6170	 5.1430
 4.6220	 5.1550
 4.6260	 5.0180
 4.6300	 4.9430
 4.6340	 4.8970
 4.6380	 4.9750
 4.6420	 5.0200
 4.6460	 5.0000
 4.6510	 4.9470
 4.6550	 4.9460
 4.6590	 4.9080
 4.6630	 4.9060
 4.6670	 4.9200
 4.6720	 4.9500
 4.6760	 4.9640
 4.6800	 4.9400
 4.6840	 4.8090
 4.6880	 4.7380
 4.6930	 4.8010
 4.6970	 4.9170
 4.7010	 4.9390
 4.7050	 4.9490
 4.7100	 4.9130
 4.7140	 4.8950
 4.7180	 4.9850
 4.7230	 5.0310
 4.7270	 4.9590
 4.7310	 4.9350
 4.7360	 4.9110
 4.7400	 4.9340
 4.7440	 4.9610
 4.7490	 4.8700
 4.7530	 4.8430
 4.7570	 4.8550
 4.7620	 4.8630
 4.7660	 4.8580
 4.7700	 4.8040
 4.7750	 4.8900
 4.7790	 4.7540
 4.7840	 4.7240
 4.7880	 4.9580
 4.7920	 4.8940
 4.7970	 4.9110
 4.8010	 4.8780
 4.8060	 4.8270
 4.8100	 4.8870
 4.8150	 4.8600
 4.8190	 4.8540
 4.8240	 4.8000
 4.8280	 4.8080
 4.8330	 4.7590
 4.8370	 4.7800
 4.8420	 4.7600
 4.8460	 4.8130
 4.8510	 4.8060
 4.8550	 4.8390
 4.8600	 4.8540
 4.8640	 4.8610
 4.8690	 4.9280
 4.8730	 4.8070
 4.8780	 4.7410
 4.8830	 4.8610
 4.8870	 4.7600
 4.8920	 4.7770
 4.8960	 4.8470
 4.9010	 4.8780
 4.9060	 4.8330
 4.9100	 4.8650
 4.9150	 4.8990
 4.9200	 4.8570
 4.9240	 4.8170
 4.9290	 4.8770
 4.9340	 4.9320
 4.9380	 4.9210
 4.9430	 4.7910
 4.9480	 4.7770
 4.9530	 4.8270
 4.9570	 4.9220
 4.9620	 4.8460
 4.9670	 4.7420
 4.9720	 4.7610
 4.9760	 4.7650
 4.9810	 4.7400
 4.9860	 4.7640
 4.9910	 4.7810
 4.9960	 4.7920
 5.0000	 4.7670
 5.0050	 4.8400
 5.0100	 4.7770
 5.0150	 4.6860
 5.0200	 4.8040
 5.0250	 4.8990
 5.0290	 4.8690
 5.0340	 4.8860
 5.0390	 4.7700
 5.0440	 4.7370
 5.0490	 4.8140
 5.0540	 4.8450
 5.0590	 4.8760
 5.0640	 4.8820
 5.0690	 4.7860
 5.0740	 4.8470
 5.0790	 4.8520
 5.0840	 4.8660
 5.0890	 4.8180
 5.0940	 4.7720
 5.0990	 4.8490
 5.1040	 4.9400
 5.1090	 4.9380
 5.1140	 4.9210
 5.1190	 4.7850
 5.1240	 4.7330
 5.1290	 4.9220
 5.1340	 4.9790
 5.1390	 4.8590
 5.1440	 4.8360
 5.1490	 4.8030
 5.1540	 4.8380
 5.1600	 4.8630
 5.1650	 4.8770
 5.1700	 4.8250
 5.1750	 4.7590
 5.1800	 4.6850
 5.1850	 4.7280
 5.1910	 4.7830
 5.1960	 4.7890
 5.2010	 4.7140
 5.2060	 4.6110
 5.2110	 4.6140
 5.2170	 4.8280
 5.2220	 4.9350
 5.2270	 4.9170
 5.2320	 4.8860
 5.2380	 4.8560
 5.2430	 4.7250
 5.2480	 4.7930
 5.2540	 4.8670
 5.2590	 4.9270
 5.2640	 4.8490
 5.2700	 4.7970
 5.2750	 4.8010
 5.2800	 4.8210
 5.2860	 4.7880
 5.2910	 4.7440
 5.2970	 4.7140
 5.3020	 4.7630
 5.3070	 4.7810
 5.3130	 4.8140
 5.3180	 4.7730
 5.3240	 4.7430
 5.3290	 4.7510
 5.3350	 4.7790
 5.3400	 4.7300
 5.3460	 4.8320
 5.3510	 4.8500
 5.3570	 4.8050
 5.3620	 4.7560
 5.3680	 4.7690
 5.3730	 4.6760
 5.3790	 4.6670
 5.3850	 4.7040
 5.3900	 4.7560
 5.3960	 4.7660
 5.4010	 4.7650
 5.4070	 4.7710
 5.4130	 4.7840
 5.4180	 4.7660
 5.4240	 4.7380
 5.4300	 4.5710
