Name: Baccharis pilularis 2
Type: vegetation
Class: Shrub
Genus: Baccharis
Species: pilularis
Sample No.: VH232
Owner: UCSB
Wavelength Range: VSWIR
Origin: 34.5084; -119.7683; WGS84
Collection Date: 10/13/2013
Description: Samples were collected as part of the HyspIRI Airborne Campaign. 48 individual plants were sampled in three times in 2013 - spring  summer  and fall. The name of the sample includes a 1  2  or 3 which references a different individual of the species. Samples were taken to JPL and processed within 48 hours of collection. The same leaves were processed in the Nicolet and then measured using the ASD.
Measurement: Bidirectional reflectance
First Column: X
Second Column: Y
X Units: Wavelength (micrometers)
Y Units: Reflectance (percentage)
First X Value: 0.35
Last X Value: 2.5
Number of X Values: 2151
Additional Information: vegetation.shrub.baccharis.pilularis.vswir.vh232.ucsb.asd.ancillary.txt

 0.3500	 7.2140
 0.3510	 7.2170
 0.3520	 7.1120
 0.3530	 7.0700
 0.3540	 7.2570
 0.3550	 7.5030
 0.3560	 7.5200
 0.3570	 7.3630
 0.3580	 7.2590
 0.3590	 7.1990
 0.3600	 7.1800
 0.3610	 7.1840
 0.3620	 7.1750
 0.3630	 7.2230
 0.3640	 7.1970
 0.3650	 7.0310
 0.3660	 7.0560
 0.3670	 7.1080
 0.3680	 7.1020
 0.3690	 7.0350
 0.3700	 7.0880
 0.3710	 7.1480
 0.3720	 7.1480
 0.3730	 7.1930
 0.3740	 7.1710
 0.3750	 7.2180
 0.3760	 7.4040
 0.3770	 7.1170
 0.3780	 7.0340
 0.3790	 7.2170
 0.3800	 7.1840
 0.3810	 7.1010
 0.3820	 7.0790
 0.3830	 7.1440
 0.3840	 7.1640
 0.3850	 7.1400
 0.3860	 7.0870
 0.3870	 7.0460
 0.3880	 7.1520
 0.3890	 7.2110
 0.3900	 7.1770
 0.3910	 7.1750
 0.3920	 7.1590
 0.3930	 7.1650
 0.3940	 7.1950
 0.3950	 7.1030
 0.3960	 7.0770
 0.3970	 7.1030
 0.3980	 7.0820
 0.3990	 7.1150
 0.4000	 7.1330
 0.4010	 7.1070
 0.4020	 7.0710
 0.4030	 7.0390
 0.4040	 7.0550
 0.4050	 7.1280
 0.4060	 7.1270
 0.4070	 7.0850
 0.4080	 7.0440
 0.4090	 7.0450
 0.4100	 7.0750
 0.4110	 7.0950
 0.4120	 7.0850
 0.4130	 7.0570
 0.4140	 7.1040
 0.4150	 7.1590
 0.4160	 7.1330
 0.4170	 7.1080
 0.4180	 7.1070
 0.4190	 7.1280
 0.4200	 7.1440
 0.4210	 7.1430
 0.4220	 7.1630
 0.4230	 7.2100
 0.4240	 7.1760
 0.4250	 7.1920
 0.4260	 7.2380
 0.4270	 7.2360
 0.4280	 7.2530
 0.4290	 7.2790
 0.4300	 7.3030
 0.4310	 7.3270
 0.4320	 7.3020
 0.4330	 7.2730
 0.4340	 7.2870
 0.4350	 7.3050
 0.4360	 7.3220
 0.4370	 7.3420
 0.4380	 7.3740
 0.4390	 7.4070
 0.4400	 7.4320
 0.4410	 7.4470
 0.4420	 7.4450
 0.4430	 7.4440
 0.4440	 7.4630
 0.4450	 7.5060
 0.4460	 7.5070
 0.4470	 7.5030
 0.4480	 7.5150
 0.4490	 7.5390
 0.4500	 7.5620
 0.4510	 7.5780
 0.4520	 7.5850
 0.4530	 7.5960
 0.4540	 7.6190
 0.4550	 7.6390
 0.4560	 7.6330
 0.4570	 7.6500
 0.4580	 7.6790
 0.4590	 7.6970
 0.4600	 7.6600
 0.4610	 7.6740
 0.4620	 7.7090
 0.4630	 7.7000
 0.4640	 7.6970
 0.4650	 7.7130
 0.4660	 7.7360
 0.4670	 7.7280
 0.4680	 7.7220
 0.4690	 7.7260
 0.4700	 7.7370
 0.4710	 7.7360
 0.4720	 7.7420
 0.4730	 7.7510
 0.4740	 7.7530
 0.4750	 7.7500
 0.4760	 7.7620
 0.4770	 7.7850
 0.4780	 7.7740
 0.4790	 7.7640
 0.4800	 7.7660
 0.4810	 7.7790
 0.4820	 7.7840
 0.4830	 7.7890
 0.4840	 7.7950
 0.4850	 7.7970
 0.4860	 7.7900
 0.4870	 7.7900
 0.4880	 7.8050
 0.4890	 7.8030
 0.4900	 7.8150
 0.4910	 7.8380
 0.4920	 7.8510
 0.4930	 7.8570
 0.4940	 7.8710
 0.4950	 7.8890
 0.4960	 7.8900
 0.4970	 7.9090
 0.4980	 7.9400
 0.4990	 7.9660
 0.5000	 7.9720
 0.5010	 7.9960
 0.5020	 8.0340
 0.5030	 8.0490
 0.5040	 8.0710
 0.5050	 8.1100
 0.5060	 8.1630
 0.5070	 8.1990
 0.5080	 8.2390
 0.5090	 8.2920
 0.5100	 8.3540
 0.5110	 8.4210
 0.5120	 8.4880
 0.5130	 8.5560
 0.5140	 8.6320
 0.5150	 8.7180
 0.5160	 8.8190
 0.5170	 8.9360
 0.5180	 9.0450
 0.5190	 9.1570
 0.5200	 9.2790
 0.5210	 9.4140
 0.5220	 9.5410
 0.5230	 9.6740
 0.5240	 9.8210
 0.5250	 9.9570
 0.5260	10.0860
 0.5270	10.2150
 0.5280	10.3490
 0.5290	10.4700
 0.5300	10.5840
 0.5310	10.6980
 0.5320	10.8080
 0.5330	10.9070
 0.5340	10.9990
 0.5350	11.0900
 0.5360	11.1670
 0.5370	11.2380
 0.5380	11.3080
 0.5390	11.3720
 0.5400	11.4230
 0.5410	11.4650
 0.5420	11.5060
 0.5430	11.5590
 0.5440	11.6030
 0.5450	11.6450
 0.5460	11.6970
 0.5470	11.7660
 0.5480	11.8260
 0.5490	11.8670
 0.5500	11.8980
 0.5510	11.9170
 0.5520	11.9280
 0.5530	11.9330
 0.5540	11.9220
 0.5550	11.9060
 0.5560	11.8840
 0.5570	11.8500
 0.5580	11.8060
 0.5590	11.7550
 0.5600	11.6990
 0.5610	11.6370
 0.5620	11.5720
 0.5630	11.5020
 0.5640	11.4260
 0.5650	11.3520
 0.5660	11.2710
 0.5670	11.1820
 0.5680	11.0930
 0.5690	10.9980
 0.5700	10.8960
 0.5710	10.7880
 0.5720	10.6880
 0.5730	10.5910
 0.5740	10.4960
 0.5750	10.4080
 0.5760	10.3270
 0.5770	10.2560
 0.5780	10.1930
 0.5790	10.1320
 0.5800	10.0790
 0.5810	10.0320
 0.5820	 9.9840
 0.5830	 9.9420
 0.5840	 9.9040
 0.5850	 9.8680
 0.5860	 9.8290
 0.5870	 9.7830
 0.5880	 9.7370
 0.5890	 9.6970
 0.5900	 9.6570
 0.5910	 9.6260
 0.5920	 9.6050
 0.5930	 9.5920
 0.5940	 9.5750
 0.5950	 9.5620
 0.5960	 9.5560
 0.5970	 9.5390
 0.5980	 9.5300
 0.5990	 9.5200
 0.6000	 9.4970
 0.6010	 9.4790
 0.6020	 9.4630
 0.6030	 9.4400
 0.6040	 9.4020
 0.6050	 9.3700
 0.6060	 9.3350
 0.6070	 9.2930
 0.6080	 9.2500
 0.6090	 9.1990
 0.6100	 9.1390
 0.6110	 9.0720
 0.6120	 9.0330
 0.6130	 9.0070
 0.6140	 8.9810
 0.6150	 8.9500
 0.6160	 8.9220
 0.6170	 8.8950
 0.6180	 8.8630
 0.6190	 8.8350
 0.6200	 8.8130
 0.6210	 8.7940
 0.6220	 8.7790
 0.6230	 8.7610
 0.6240	 8.7450
 0.6250	 8.7350
 0.6260	 8.7260
 0.6270	 8.7200
 0.6280	 8.7180
 0.6290	 8.7200
 0.6300	 8.7170
 0.6310	 8.7100
 0.6320	 8.7050
 0.6330	 8.7060
 0.6340	 8.7010
 0.6350	 8.6880
 0.6360	 8.6700
 0.6370	 8.6520
 0.6380	 8.6310
 0.6390	 8.6050
 0.6400	 8.5710
 0.6410	 8.5360
 0.6420	 8.5030
 0.6430	 8.4680
 0.6440	 8.4270
 0.6450	 8.3930
 0.6460	 8.3600
 0.6470	 8.3230
 0.6480	 8.2980
 0.6490	 8.2680
 0.6500	 8.2360
 0.6510	 8.2130
 0.6520	 8.1950
 0.6530	 8.1800
 0.6540	 8.1620
 0.6550	 8.1380
 0.6560	 8.1180
 0.6570	 8.1010
 0.6580	 8.0790
 0.6590	 8.0530
 0.6600	 8.0260
 0.6610	 8.0010
 0.6620	 7.9840
 0.6630	 7.9690
 0.6640	 7.9520
 0.6650	 7.9330
 0.6660	 7.9230
 0.6670	 7.9180
 0.6680	 7.9110
 0.6690	 7.9000
 0.6700	 7.8990
 0.6710	 7.9040
 0.6720	 7.9100
 0.6730	 7.9110
 0.6740	 7.9140
 0.6750	 7.9240
 0.6760	 7.9410
 0.6770	 7.9530
 0.6780	 7.9660
 0.6790	 7.9840
 0.6800	 8.0050
 0.6810	 8.0240
 0.6820	 8.0470
 0.6830	 8.0810
 0.6840	 8.1230
 0.6850	 8.1660
 0.6860	 8.2140
 0.6870	 8.2750
 0.6880	 8.3520
 0.6890	 8.4450
 0.6900	 8.5590
 0.6910	 8.7020
 0.6920	 8.8790
 0.6930	 9.0940
 0.6940	 9.3540
 0.6950	 9.6640
 0.6960	10.0340
 0.6970	10.4640
 0.6980	10.9530
 0.6990	11.5120
 0.7000	12.1370
 0.7010	12.8260
 0.7020	13.5740
 0.7030	14.3700
 0.7040	15.2170
 0.7050	16.1120
 0.7060	17.0430
 0.7070	18.0100
 0.7080	19.0060
 0.7090	20.0290
 0.7100	21.0700
 0.7110	22.1400
 0.7120	23.2320
 0.7130	24.3210
 0.7140	25.4250
 0.7150	26.5450
 0.7160	27.6710
 0.7170	28.7800
 0.7180	29.8890
 0.7190	30.9980
 0.7200	32.0980
 0.7210	33.1910
 0.7220	34.2690
 0.7230	35.3210
 0.7240	36.3350
 0.7250	37.3410
 0.7260	38.3230
 0.7270	39.2660
 0.7280	40.1790
 0.7290	41.0670
 0.7300	41.9140
 0.7310	42.7020
 0.7320	43.4800
 0.7330	44.2260
 0.7340	44.9320
 0.7350	45.6130
 0.7360	46.2450
 0.7370	46.8320
 0.7380	47.3900
 0.7390	47.9550
 0.7400	48.4670
 0.7410	48.9350
 0.7420	49.3900
 0.7430	49.8040
 0.7440	50.1980
 0.7450	50.5810
 0.7460	50.9500
 0.7470	51.2550
 0.7480	51.5380
 0.7490	51.8240
 0.7500	52.0890
 0.7510	52.3160
 0.7520	52.5220
 0.7530	52.7330
 0.7540	52.9280
 0.7550	53.0910
 0.7560	53.2320
 0.7570	53.3810
 0.7580	53.5130
 0.7590	53.6290
 0.7600	53.7340
 0.7610	53.8410
 0.7620	53.9220
 0.7630	53.9950
 0.7640	54.0780
 0.7650	54.1340
 0.7660	54.1890
 0.7670	54.2510
 0.7680	54.3160
 0.7690	54.3790
 0.7700	54.4150
 0.7710	54.4280
 0.7720	54.4640
 0.7730	54.5050
 0.7740	54.5380
 0.7750	54.5610
 0.7760	54.5880
 0.7770	54.6060
 0.7780	54.6230
 0.7790	54.6560
 0.7800	54.6900
 0.7810	54.7080
 0.7820	54.7180
 0.7830	54.7540
 0.7840	54.7660
 0.7850	54.7780
 0.7860	54.8060
 0.7870	54.8070
 0.7880	54.8270
 0.7890	54.8520
 0.7900	54.8590
 0.7910	54.8790
 0.7920	54.8990
 0.7930	54.9090
 0.7940	54.9050
 0.7950	54.9410
 0.7960	54.9600
 0.7970	54.9520
 0.7980	54.9850
 0.7990	54.9940
 0.8000	54.9990
 0.8010	55.0250
 0.8020	55.0550
 0.8030	55.0660
 0.8040	55.0710
 0.8050	55.0920
 0.8060	55.0890
 0.8070	55.0940
 0.8080	55.1140
 0.8090	55.1270
 0.8100	55.1500
 0.8110	55.1760
 0.8120	55.1940
 0.8130	55.1920
 0.8140	55.2030
 0.8150	55.2250
 0.8160	55.2510
 0.8170	55.2680
 0.8180	55.2850
 0.8190	55.3060
 0.8200	55.3300
 0.8210	55.3410
 0.8220	55.3600
 0.8230	55.3760
 0.8240	55.3650
 0.8250	55.3960
 0.8260	55.4240
 0.8270	55.4240
 0.8280	55.4290
 0.8290	55.4500
 0.8300	55.4680
 0.8310	55.4690
 0.8320	55.4900
 0.8330	55.5070
 0.8340	55.5120
 0.8350	55.5120
 0.8360	55.5340
 0.8370	55.5500
 0.8380	55.5570
 0.8390	55.5750
 0.8400	55.6070
 0.8410	55.6320
 0.8420	55.6400
 0.8430	55.6460
 0.8440	55.6680
 0.8450	55.6840
 0.8460	55.6820
 0.8470	55.6970
 0.8480	55.7150
 0.8490	55.7310
 0.8500	55.7460
 0.8510	55.7640
 0.8520	55.7740
 0.8530	55.7890
 0.8540	55.8240
 0.8550	55.8180
 0.8560	55.8260
 0.8570	55.8590
 0.8580	55.8700
 0.8590	55.8680
 0.8600	55.8740
 0.8610	55.8920
 0.8620	55.8980
 0.8630	55.9080
 0.8640	55.9070
 0.8650	55.8950
 0.8660	55.9250
 0.8670	55.9330
 0.8680	55.9290
 0.8690	55.9420
 0.8700	55.9590
 0.8710	55.9530
 0.8720	55.9390
 0.8730	55.9460
 0.8740	55.9790
 0.8750	55.9880
 0.8760	55.9690
 0.8770	55.9710
 0.8780	55.9910
 0.8790	55.9950
 0.8800	55.9790
 0.8810	55.9930
 0.8820	56.0200
 0.8830	56.0370
 0.8840	56.0300
 0.8850	56.0100
 0.8860	56.0000
 0.8870	55.9930
 0.8880	55.9830
 0.8890	56.0030
 0.8900	56.0140
 0.8910	56.0120
 0.8920	56.0110
 0.8930	56.0300
 0.8940	56.0170
 0.8950	55.9900
 0.8960	55.9980
 0.8970	55.9710
 0.8980	55.9520
 0.8990	55.9560
 0.9000	55.9610
 0.9010	55.9650
 0.9020	55.9600
 0.9030	55.9470
 0.9040	55.9340
 0.9050	55.9290
 0.9060	55.9290
 0.9070	55.9270
 0.9080	55.9070
 0.9090	55.8940
 0.9100	55.9020
 0.9110	55.9200
 0.9120	55.8910
 0.9130	55.8830
 0.9140	55.8890
 0.9150	55.8860
 0.9160	55.8780
 0.9170	55.8710
 0.9180	55.8670
 0.9190	55.8600
 0.9200	55.8290
 0.9210	55.8100
 0.9220	55.8090
 0.9230	55.8060
 0.9240	55.7810
 0.9250	55.7670
 0.9260	55.7650
 0.9270	55.7490
 0.9280	55.7400
 0.9290	55.7330
 0.9300	55.7160
 0.9310	55.6720
 0.9320	55.6410
 0.9330	55.6070
 0.9340	55.5740
 0.9350	55.5650
 0.9360	55.5430
 0.9370	55.5090
 0.9380	55.4730
 0.9390	55.4510
 0.9400	55.4050
 0.9410	55.3750
 0.9420	55.3700
 0.9430	55.3220
 0.9440	55.2760
 0.9450	55.2180
 0.9460	55.1420
 0.9470	55.0820
 0.9480	55.0420
 0.9490	54.9850
 0.9500	54.8930
 0.9510	54.8310
 0.9520	54.7820
 0.9530	54.7270
 0.9540	54.6480
 0.9550	54.5340
 0.9560	54.4510
 0.9570	54.3800
 0.9580	54.2900
 0.9590	54.1970
 0.9600	54.1460
 0.9610	54.0960
 0.9620	54.0060
 0.9630	53.9610
 0.9640	53.9430
 0.9650	53.9130
 0.9660	53.8510
 0.9670	53.8520
 0.9680	53.8230
 0.9690	53.7720
 0.9700	53.7470
 0.9710	53.7570
 0.9720	53.7630
 0.9730	53.7490
 0.9740	53.7190
 0.9750	53.7130
 0.9760	53.6920
 0.9770	53.6940
 0.9780	53.7520
 0.9790	53.7320
 0.9800	53.7150
 0.9810	53.7190
 0.9820	53.7320
 0.9830	53.7770
 0.9840	53.7960
 0.9850	53.8080
 0.9860	53.8590
 0.9870	53.8970
 0.9880	53.9110
 0.9890	53.9310
 0.9900	53.9860
 0.9910	54.0220
 0.9920	54.1260
 0.9930	54.2290
 0.9940	54.3320
 0.9950	54.4350
 0.9960	54.5380
 0.9970	54.6420
 0.9980	54.7450
 0.9990	54.8480
 1.0000	54.9510
 1.0010	55.0540
 1.0020	55.1570
 1.0030	55.2610
 1.0040	55.3640
 1.0050	55.4670
 1.0060	55.5700
 1.0070	55.6730
 1.0080	55.7770
 1.0090	55.8800
 1.0100	55.8800
 1.0110	55.9170
 1.0120	55.9560
 1.0130	56.0050
 1.0140	56.0480
 1.0150	56.0840
 1.0160	56.1180
 1.0170	56.1600
 1.0180	56.1910
 1.0190	56.2080
 1.0200	56.2390
 1.0210	56.2850
 1.0220	56.3250
 1.0230	56.3630
 1.0240	56.4160
 1.0250	56.4520
 1.0260	56.4710
 1.0270	56.4970
 1.0280	56.5260
 1.0290	56.5520
 1.0300	56.5720
 1.0310	56.6000
 1.0320	56.6340
 1.0330	56.6650
 1.0340	56.6850
 1.0350	56.7130
 1.0360	56.7500
 1.0370	56.7690
 1.0380	56.7940
 1.0390	56.8260
 1.0400	56.8550
 1.0410	56.8820
 1.0420	56.9060
 1.0430	56.9300
 1.0440	56.9540
 1.0450	56.9690
 1.0460	56.9890
 1.0470	57.0230
 1.0480	57.0410
 1.0490	57.0420
 1.0500	57.0560
 1.0510	57.0700
 1.0520	57.0780
 1.0530	57.0970
 1.0540	57.1360
 1.0550	57.1480
 1.0560	57.1490
 1.0570	57.1570
 1.0580	57.1540
 1.0590	57.1580
 1.0600	57.1700
 1.0610	57.1780
 1.0620	57.1880
 1.0630	57.1920
 1.0640	57.1910
 1.0650	57.1970
 1.0660	57.2010
 1.0670	57.2090
 1.0680	57.2210
 1.0690	57.2450
 1.0700	57.2550
 1.0710	57.2610
 1.0720	57.2640
 1.0730	57.2620
 1.0740	57.2620
 1.0750	57.2580
 1.0760	57.2590
 1.0770	57.2640
 1.0780	57.2650
 1.0790	57.2700
 1.0800	57.2680
 1.0810	57.2590
 1.0820	57.2520
 1.0830	57.2380
 1.0840	57.2300
 1.0850	57.2300
 1.0860	57.2260
 1.0870	57.2130
 1.0880	57.1930
 1.0890	57.1820
 1.0900	57.1650
 1.0910	57.1510
 1.0920	57.1490
 1.0930	57.1370
 1.0940	57.1180
 1.0950	57.1000
 1.0960	57.0810
 1.0970	57.0640
 1.0980	57.0520
 1.0990	57.0320
 1.1000	57.0080
 1.1010	56.9880
 1.1020	56.9660
 1.1030	56.9460
 1.1040	56.9260
 1.1050	56.9060
 1.1060	56.8840
 1.1070	56.8550
 1.1080	56.8300
 1.1090	56.8080
 1.1100	56.7830
 1.1110	56.7580
 1.1120	56.7290
 1.1130	56.6990
 1.1140	56.6670
 1.1150	56.6340
 1.1160	56.5930
 1.1170	56.5470
 1.1180	56.4980
 1.1190	56.4450
 1.1200	56.3880
 1.1210	56.3290
 1.1220	56.2630
 1.1230	56.1910
 1.1240	56.1160
 1.1250	56.0320
 1.1260	55.9440
 1.1270	55.8450
 1.1280	55.7360
 1.1290	55.6240
 1.1300	55.5070
 1.1310	55.3800
 1.1320	55.2490
 1.1330	55.1050
 1.1340	54.9510
 1.1350	54.7880
 1.1360	54.6160
 1.1370	54.4330
 1.1380	54.2470
 1.1390	54.0530
 1.1400	53.8520
 1.1410	53.6550
 1.1420	53.4600
 1.1430	53.2570
 1.1440	53.0530
 1.1450	52.8450
 1.1460	52.6400
 1.1470	52.4230
 1.1480	52.2260
 1.1490	52.0330
 1.1500	51.8520
 1.1510	51.6780
 1.1520	51.5170
 1.1530	51.3650
 1.1540	51.2240
 1.1550	51.0980
 1.1560	50.9790
 1.1570	50.8650
 1.1580	50.7680
 1.1590	50.6790
 1.1600	50.6000
 1.1610	50.5360
 1.1620	50.4780
 1.1630	50.4240
 1.1640	50.3820
 1.1650	50.3440
 1.1660	50.3120
 1.1670	50.2810
 1.1680	50.2560
 1.1690	50.2330
 1.1700	50.2120
 1.1710	50.1910
 1.1720	50.1740
 1.1730	50.1550
 1.1740	50.1360
 1.1750	50.1150
 1.1760	50.0960
 1.1770	50.0740
 1.1780	50.0460
 1.1790	50.0190
 1.1800	49.9900
 1.1810	49.9590
 1.1820	49.9280
 1.1830	49.8920
 1.1840	49.8610
 1.1850	49.8360
 1.1860	49.8120
 1.1870	49.7930
 1.1880	49.7720
 1.1890	49.7500
 1.1900	49.7310
 1.1910	49.7120
 1.1920	49.6940
 1.1930	49.6740
 1.1940	49.6610
 1.1950	49.6480
 1.1960	49.6440
 1.1970	49.6450
 1.1980	49.6520
 1.1990	49.6650
 1.2000	49.6740
 1.2010	49.6830
 1.2020	49.7000
 1.2030	49.7220
 1.2040	49.7500
 1.2050	49.7850
 1.2060	49.8200
 1.2070	49.8520
 1.2080	49.8870
 1.2090	49.9280
 1.2100	49.9690
 1.2110	50.0120
 1.2120	50.0570
 1.2130	50.1090
 1.2140	50.1650
 1.2150	50.2220
 1.2160	50.2860
 1.2170	50.3490
 1.2180	50.4060
 1.2190	50.4680
 1.2200	50.5350
 1.2210	50.5990
 1.2220	50.6650
 1.2230	50.7340
 1.2240	50.8030
 1.2250	50.8630
 1.2260	50.9200
 1.2270	50.9780
 1.2280	51.0260
 1.2290	51.0790
 1.2300	51.1360
 1.2310	51.1840
 1.2320	51.2270
 1.2330	51.2690
 1.2340	51.3130
 1.2350	51.3540
 1.2360	51.3970
 1.2370	51.4450
 1.2380	51.4920
 1.2390	51.5320
 1.2400	51.5710
 1.2410	51.6120
 1.2420	51.6490
 1.2430	51.6830
 1.2440	51.7120
 1.2450	51.7360
 1.2460	51.7650
 1.2470	51.7910
 1.2480	51.8220
 1.2490	51.8530
 1.2500	51.8720
 1.2510	51.8890
 1.2520	51.9070
 1.2530	51.9200
 1.2540	51.9380
 1.2550	51.9560
 1.2560	51.9630
 1.2570	51.9740
 1.2580	51.9870
 1.2590	51.9970
 1.2600	52.0060
 1.2610	52.0170
 1.2620	52.0290
 1.2630	52.0350
 1.2640	52.0420
 1.2650	52.0460
 1.2660	52.0490
 1.2670	52.0520
 1.2680	52.0540
 1.2690	52.0570
 1.2700	52.0580
 1.2710	52.0550
 1.2720	52.0480
 1.2730	52.0360
 1.2740	52.0240
 1.2750	52.0150
 1.2760	52.0070
 1.2770	51.9970
 1.2780	51.9850
 1.2790	51.9680
 1.2800	51.9450
 1.2810	51.9280
 1.2820	51.9040
 1.2830	51.8720
 1.2840	51.8470
 1.2850	51.8150
 1.2860	51.7790
 1.2870	51.7440
 1.2880	51.7090
 1.2890	51.6650
 1.2900	51.6200
 1.2910	51.5810
 1.2920	51.5420
 1.2930	51.5000
 1.2940	51.4520
 1.2950	51.3940
 1.2960	51.3250
 1.2970	51.2550
 1.2980	51.1830
 1.2990	51.1090
 1.3000	51.0380
 1.3010	50.9570
 1.3020	50.8790
 1.3030	50.8070
 1.3040	50.7250
 1.3050	50.6450
 1.3060	50.5570
 1.3070	50.4570
 1.3080	50.3580
 1.3090	50.2550
 1.3100	50.1430
 1.3110	50.0320
 1.3120	49.9100
 1.3130	49.7820
 1.3140	49.6510
 1.3150	49.5160
 1.3160	49.3770
 1.3170	49.2360
 1.3180	49.0930
 1.3190	48.9480
 1.3200	48.7990
 1.3210	48.6430
 1.3220	48.4800
 1.3230	48.3100
 1.3240	48.1410
 1.3250	47.9680
 1.3260	47.7910
 1.3270	47.6160
 1.3280	47.4260
 1.3290	47.2330
 1.3300	47.0420
 1.3310	46.8410
 1.3320	46.6410
 1.3330	46.4400
 1.3340	46.2360
 1.3350	46.0330
 1.3360	45.8320
 1.3370	45.6310
 1.3380	45.4260
 1.3390	45.2210
 1.3400	45.0110
 1.3410	44.8060
 1.3420	44.6070
 1.3430	44.4030
 1.3440	44.2010
 1.3450	43.9990
 1.3460	43.7910
 1.3470	43.5870
 1.3480	43.3850
 1.3490	43.1900
 1.3500	42.9970
 1.3510	42.8100
 1.3520	42.6240
 1.3530	42.4350
 1.3540	42.2430
 1.3550	42.0530
 1.3560	41.8680
 1.3570	41.6820
 1.3580	41.4950
 1.3590	41.3060
 1.3600	41.1100
 1.3610	40.9070
 1.3620	40.7000
 1.3630	40.4920
 1.3640	40.2790
 1.3650	40.0610
 1.3660	39.8400
 1.3670	39.6100
 1.3680	39.3670
 1.3690	39.1120
 1.3700	38.8400
 1.3710	38.5510
 1.3720	38.2440
 1.3730	37.9190
 1.3740	37.5780
 1.3750	37.2170
 1.3760	36.8340
 1.3770	36.4310
 1.3780	36.0000
 1.3790	35.5480
 1.3800	35.0740
 1.3810	34.5720
 1.3820	34.0530
 1.3830	33.5130
 1.3840	32.9560
 1.3850	32.3770
 1.3860	31.7870
 1.3870	31.1760
 1.3880	30.5620
 1.3890	29.9350
 1.3900	29.3010
 1.3910	28.6700
 1.3920	28.0350
 1.3930	27.3990
 1.3940	26.7720
 1.3950	26.1500
 1.3960	25.5400
 1.3970	24.9440
 1.3980	24.3600
 1.3990	23.8000
 1.4000	23.2570
 1.4010	22.7300
 1.4020	22.2290
 1.4030	21.7470
 1.4040	21.2890
 1.4050	20.8560
 1.4060	20.4450
 1.4070	20.0610
 1.4080	19.7010
 1.4090	19.3660
 1.4100	19.0560
 1.4110	18.7670
 1.4120	18.4980
 1.4130	18.2510
 1.4140	18.0220
 1.4150	17.8150
 1.4160	17.6240
 1.4170	17.4490
 1.4180	17.2910
 1.4190	17.1440
 1.4200	17.0130
 1.4210	16.8940
 1.4220	16.7860
 1.4230	16.6910
 1.4240	16.6070
 1.4250	16.5310
 1.4260	16.4670
 1.4270	16.4080
 1.4280	16.3600
 1.4290	16.3160
 1.4300	16.2800
 1.4310	16.2490
 1.4320	16.2280
 1.4330	16.2090
 1.4340	16.1940
 1.4350	16.1830
 1.4360	16.1760
 1.4370	16.1720
 1.4380	16.1730
 1.4390	16.1800
 1.4400	16.1910
 1.4410	16.2050
 1.4420	16.2190
 1.4430	16.2370
 1.4440	16.2570
 1.4450	16.2770
 1.4460	16.3020
 1.4470	16.3260
 1.4480	16.3500
 1.4490	16.3760
 1.4500	16.4010
 1.4510	16.4290
 1.4520	16.4580
 1.4530	16.4870
 1.4540	16.5170
 1.4550	16.5470
 1.4560	16.5760
 1.4570	16.6090
 1.4580	16.6450
 1.4590	16.6830
 1.4600	16.7230
 1.4610	16.7670
 1.4620	16.8130
 1.4630	16.8640
 1.4640	16.9190
 1.4650	16.9770
 1.4660	17.0390
 1.4670	17.1040
 1.4680	17.1760
 1.4690	17.2510
