Name: Podocarpus gracilior
Type: vegetation
Class: Tree
Genus: Podocarpus
Species: gracilior
Sample No.: JPL187
Owner: JPL
Wavelength Range: VSWIR
Origin: 34.12691; -118.116; WGS84
Collection Date: 10/3/2016
Description: Samples were collected at the Huntington Garden in San Marino California as part of a JPL Subcontract studying HyTES imagery. Samples were taken to JPL and processed within 48 hours of collection. The same leaves were processed in the Nicolet and then measured using the ASD.
Measurement: Bidirectional reflectance
First Column: X
Second Column: Y
X Units: Wavelength (micrometer)
Y Units: Reflectance (percentage)
First X Value: 0.35
Last X Value: 2.5
Number of X Values: 2151
Additional Information: vegetation.tree.podocarpus.gracilior.vswir.jpl187.jpl.asd.ancillary.txt

 0.3500	10.3470
 0.3510	10.2580
 0.3520	10.2110
 0.3530	10.1450
 0.3540	10.0340
 0.3550	10.1090
 0.3560	10.1020
 0.3570	10.0270
 0.3580	10.0330
 0.3590	10.0150
 0.3600	10.0110
 0.3610	10.0220
 0.3620	 9.9930
 0.3630	 9.9970
 0.3640	10.0110
 0.3650	 9.9970
 0.3660	 9.9540
 0.3670	 9.9290
 0.3680	 9.9390
 0.3690	 9.9770
 0.3700	 9.9810
 0.3710	 9.9590
 0.3720	 9.9320
 0.3730	 9.9280
 0.3740	 9.8900
 0.3750	 9.8670
 0.3760	 9.9090
 0.3770	 9.9260
 0.3780	 9.9100
 0.3790	 9.8930
 0.3800	 9.9280
 0.3810	 9.9320
 0.3820	 9.9170
 0.3830	 9.9070
 0.3840	 9.9270
 0.3850	 9.9100
 0.3860	 9.8830
 0.3870	 9.8980
 0.3880	 9.9350
 0.3890	 9.9520
 0.3900	 9.9490
 0.3910	 9.9580
 0.3920	 9.9550
 0.3930	 9.9680
 0.3940	10.0070
 0.3950	10.0010
 0.3960	10.0090
 0.3970	10.0340
 0.3980	10.0500
 0.3990	10.0410
 0.4000	10.0280
 0.4010	10.0300
 0.4020	10.0600
 0.4030	10.0940
 0.4040	10.1160
 0.4050	10.1200
 0.4060	10.1260
 0.4070	10.1400
 0.4080	10.1630
 0.4090	10.1930
 0.4100	10.2190
 0.4110	10.2270
 0.4120	10.2250
 0.4130	10.2620
 0.4140	10.2730
 0.4150	10.2710
 0.4160	10.2860
 0.4170	10.2980
 0.4180	10.3030
 0.4190	10.3010
 0.4200	10.2980
 0.4210	10.2890
 0.4220	10.2800
 0.4230	10.2790
 0.4240	10.3030
 0.4250	10.3120
 0.4260	10.3060
 0.4270	10.3020
 0.4280	10.2910
 0.4290	10.2800
 0.4300	10.2710
 0.4310	10.2580
 0.4320	10.2350
 0.4330	10.2020
 0.4340	10.1690
 0.4350	10.1590
 0.4360	10.1600
 0.4370	10.1660
 0.4380	10.1740
 0.4390	10.1950
 0.4400	10.2220
 0.4410	10.2450
 0.4420	10.2630
 0.4430	10.2730
 0.4440	10.2820
 0.4450	10.2970
 0.4460	10.2890
 0.4470	10.2810
 0.4480	10.2880
 0.4490	10.3110
 0.4500	10.3120
 0.4510	10.3090
 0.4520	10.3230
 0.4530	10.3370
 0.4540	10.3430
 0.4550	10.3420
 0.4560	10.3450
 0.4570	10.3530
 0.4580	10.3550
 0.4590	10.3490
 0.4600	10.3500
 0.4610	10.3520
 0.4620	10.3510
 0.4630	10.3470
 0.4640	10.3520
 0.4650	10.3540
 0.4660	10.3520
 0.4670	10.3480
 0.4680	10.3450
 0.4690	10.3440
 0.4700	10.3450
 0.4710	10.3520
 0.4720	10.3490
 0.4730	10.3410
 0.4740	10.3430
 0.4750	10.3460
 0.4760	10.3460
 0.4770	10.3420
 0.4780	10.3340
 0.4790	10.3330
 0.4800	10.3340
 0.4810	10.3280
 0.4820	10.3200
 0.4830	10.3080
 0.4840	10.2960
 0.4850	10.2930
 0.4860	10.2870
 0.4870	10.2850
 0.4880	10.2930
 0.4890	10.3010
 0.4900	10.3180
 0.4910	10.3410
 0.4920	10.3650
 0.4930	10.3940
 0.4940	10.4260
 0.4950	10.4630
 0.4960	10.5070
 0.4970	10.5510
 0.4980	10.6000
 0.4990	10.6610
 0.5000	10.7200
 0.5010	10.7900
 0.5020	10.8700
 0.5030	10.9590
 0.5040	11.0530
 0.5050	11.1610
 0.5060	11.2880
 0.5070	11.4190
 0.5080	11.5580
 0.5090	11.7130
 0.5100	11.8910
 0.5110	12.0790
 0.5120	12.2820
 0.5130	12.5010
 0.5140	12.7290
 0.5150	12.9650
 0.5160	13.2140
 0.5170	13.4780
 0.5180	13.7450
 0.5190	14.0190
 0.5200	14.2970
 0.5210	14.5690
 0.5220	14.8330
 0.5230	15.0900
 0.5240	15.3400
 0.5250	15.5640
 0.5260	15.7800
 0.5270	15.9840
 0.5280	16.1660
 0.5290	16.3300
 0.5300	16.4790
 0.5310	16.6120
 0.5320	16.7230
 0.5330	16.8230
 0.5340	16.9100
 0.5350	16.9800
 0.5360	17.0390
 0.5370	17.0820
 0.5380	17.1110
 0.5390	17.1270
 0.5400	17.1190
 0.5410	17.0930
 0.5420	17.0630
 0.5430	17.0470
 0.5440	17.0530
 0.5450	17.0860
 0.5460	17.1410
 0.5470	17.2070
 0.5480	17.2660
 0.5490	17.3080
 0.5500	17.3330
 0.5510	17.3500
 0.5520	17.3600
 0.5530	17.3580
 0.5540	17.3370
 0.5550	17.3040
 0.5560	17.2550
 0.5570	17.1840
 0.5580	17.0970
 0.5590	16.9960
 0.5600	16.8840
 0.5610	16.7610
 0.5620	16.6280
 0.5630	16.4890
 0.5640	16.3450
 0.5650	16.1960
 0.5660	16.0430
 0.5670	15.8840
 0.5680	15.7230
 0.5690	15.5560
 0.5700	15.3870
 0.5710	15.2220
 0.5720	15.0630
 0.5730	14.9150
 0.5740	14.7770
 0.5750	14.6460
 0.5760	14.5180
 0.5770	14.3950
 0.5780	14.2770
 0.5790	14.1650
 0.5800	14.0610
 0.5810	13.9650
 0.5820	13.8770
 0.5830	13.7920
 0.5840	13.7130
 0.5850	13.6390
 0.5860	13.5700
 0.5870	13.5030
 0.5880	13.4420
 0.5890	13.3900
 0.5900	13.3400
 0.5910	13.2930
 0.5920	13.2480
 0.5930	13.2090
 0.5940	13.1820
 0.5950	13.1610
 0.5960	13.1400
 0.5970	13.1160
 0.5980	13.0910
 0.5990	13.0640
 0.6000	13.0370
 0.6010	13.0120
 0.6020	12.9790
 0.6030	12.9360
 0.6040	12.8880
 0.6050	12.8330
 0.6060	12.7710
 0.6070	12.7030
 0.6080	12.6270
 0.6090	12.5280
 0.6100	12.3990
 0.6110	12.2550
 0.6120	12.1830
 0.6130	12.1530
 0.6140	12.1310
 0.6150	12.0820
 0.6160	12.0290
 0.6170	11.9760
 0.6180	11.9220
 0.6190	11.8650
 0.6200	11.8110
 0.6210	11.7650
 0.6220	11.7290
 0.6230	11.6970
 0.6240	11.6700
 0.6250	11.6480
 0.6260	11.6300
 0.6270	11.6160
 0.6280	11.6040
 0.6290	11.5880
 0.6300	11.5680
 0.6310	11.5500
 0.6320	11.5390
 0.6330	11.5300
 0.6340	11.5100
 0.6350	11.4770
 0.6360	11.4350
 0.6370	11.3850
 0.6380	11.3290
 0.6390	11.2660
 0.6400	11.1970
 0.6410	11.1300
 0.6420	11.0610
 0.6430	10.9890
 0.6440	10.9210
 0.6450	10.8520
 0.6460	10.7830
 0.6470	10.7160
 0.6480	10.6570
 0.6490	10.6020
 0.6500	10.5530
 0.6510	10.5140
 0.6520	10.4850
 0.6530	10.4610
 0.6540	10.4400
 0.6550	10.4160
 0.6560	10.3910
 0.6570	10.3660
 0.6580	10.3400
 0.6590	10.3150
 0.6600	10.2900
 0.6610	10.2650
 0.6620	10.2390
 0.6630	10.2130
 0.6640	10.1920
 0.6650	10.1760
 0.6660	10.1620
 0.6670	10.1550
 0.6680	10.1520
 0.6690	10.1530
 0.6700	10.1610
 0.6710	10.1720
 0.6720	10.1870
 0.6730	10.2090
 0.6740	10.2340
 0.6750	10.2630
 0.6760	10.3000
 0.6770	10.3380
 0.6780	10.3820
 0.6790	10.4330
 0.6800	10.4890
 0.6810	10.5480
 0.6820	10.6130
 0.6830	10.6870
 0.6840	10.7680
 0.6850	10.8580
 0.6860	10.9610
 0.6870	11.0810
 0.6880	11.2300
 0.6890	11.4180
 0.6900	11.6530
 0.6910	11.9450
 0.6920	12.3050
 0.6930	12.7380
 0.6940	13.2450
 0.6950	13.8270
 0.6960	14.4840
 0.6970	15.2100
 0.6980	15.9970
 0.6990	16.8360
 0.7000	17.7200
 0.7010	18.6410
 0.7020	19.5900
 0.7030	20.5560
 0.7040	21.5340
 0.7050	22.5170
 0.7060	23.5030
 0.7070	24.4910
 0.7080	25.4780
 0.7090	26.4650
 0.7100	27.4560
 0.7110	28.4450
 0.7120	29.4300
 0.7130	30.4110
 0.7140	31.3910
 0.7150	32.3680
 0.7160	33.3340
 0.7170	34.2910
 0.7180	35.2390
 0.7190	36.1750
 0.7200	37.0970
 0.7210	38.0010
 0.7220	38.8880
 0.7230	39.7540
 0.7240	40.5950
 0.7250	41.4110
 0.7260	42.1980
 0.7270	42.9560
 0.7280	43.6860
 0.7290	44.3840
 0.7300	45.0510
 0.7310	45.6840
 0.7320	46.2850
 0.7330	46.8560
 0.7340	47.3980
 0.7350	47.9080
 0.7360	48.3880
 0.7370	48.8380
 0.7380	49.2590
 0.7390	49.6560
 0.7400	50.0260
 0.7410	50.3690
 0.7420	50.6890
 0.7430	50.9850
 0.7440	51.2540
 0.7450	51.5000
 0.7460	51.7270
 0.7470	51.9340
 0.7480	52.1210
 0.7490	52.2920
 0.7500	52.4460
 0.7510	52.5850
 0.7520	52.7120
 0.7530	52.8250
 0.7540	52.9260
 0.7550	53.0180
 0.7560	53.1040
 0.7570	53.1800
 0.7580	53.2450
 0.7590	53.3040
 0.7600	53.3600
 0.7610	53.4110
 0.7620	53.4550
 0.7630	53.4950
 0.7640	53.5310
 0.7650	53.5600
 0.7660	53.5850
 0.7670	53.6070
 0.7680	53.6290
 0.7690	53.6510
 0.7700	53.6680
 0.7710	53.6800
 0.7720	53.6910
 0.7730	53.7090
 0.7740	53.7250
 0.7750	53.7330
 0.7760	53.7430
 0.7770	53.7530
 0.7780	53.7630
 0.7790	53.7720
 0.7800	53.7850
 0.7810	53.7950
 0.7820	53.8020
 0.7830	53.8090
 0.7840	53.8160
 0.7850	53.8220
 0.7860	53.8280
 0.7870	53.8330
 0.7880	53.8360
 0.7890	53.8360
 0.7900	53.8350
 0.7910	53.8380
 0.7920	53.8410
 0.7930	53.8420
 0.7940	53.8410
 0.7950	53.8400
 0.7960	53.8370
 0.7970	53.8290
 0.7980	53.8230
 0.7990	53.8150
 0.8000	53.8080
 0.8010	53.8010
 0.8020	53.7900
 0.8030	53.7810
 0.8040	53.7730
 0.8050	53.7620
 0.8060	53.7500
 0.8070	53.7380
 0.8080	53.7260
 0.8090	53.7080
 0.8100	53.6900
 0.8110	53.6750
 0.8120	53.6610
 0.8130	53.6440
 0.8140	53.6260
 0.8150	53.6100
 0.8160	53.5960
 0.8170	53.5790
 0.8180	53.5620
 0.8190	53.5450
 0.8200	53.5260
 0.8210	53.5120
 0.8220	53.4960
 0.8230	53.4760
 0.8240	53.4580
 0.8250	53.4430
 0.8260	53.4270
 0.8270	53.4090
 0.8280	53.3910
 0.8290	53.3760
 0.8300	53.3620
 0.8310	53.3490
 0.8320	53.3300
 0.8330	53.3120
 0.8340	53.2970
 0.8350	53.2860
 0.8360	53.2780
 0.8370	53.2690
 0.8380	53.2610
 0.8390	53.2550
 0.8400	53.2470
 0.8410	53.2400
 0.8420	53.2320
 0.8430	53.2250
 0.8440	53.2230
 0.8450	53.2230
 0.8460	53.2210
 0.8470	53.2180
 0.8480	53.2160
 0.8490	53.2150
 0.8500	53.2160
 0.8510	53.2190
 0.8520	53.2190
 0.8530	53.2180
 0.8540	53.2230
 0.8550	53.2260
 0.8560	53.2310
 0.8570	53.2360
 0.8580	53.2350
 0.8590	53.2430
 0.8600	53.2540
 0.8610	53.2650
 0.8620	53.2670
 0.8630	53.2750
 0.8640	53.2870
 0.8650	53.2990
 0.8660	53.3040
 0.8670	53.3110
 0.8680	53.3200
 0.8690	53.3330
 0.8700	53.3400
 0.8710	53.3470
 0.8720	53.3580
 0.8730	53.3750
 0.8740	53.3920
 0.8750	53.4050
 0.8760	53.4130
 0.8770	53.4240
 0.8780	53.4380
 0.8790	53.4520
 0.8800	53.4640
 0.8810	53.4830
 0.8820	53.4940
 0.8830	53.5020
 0.8840	53.5130
 0.8850	53.5270
 0.8860	53.5420
 0.8870	53.5540
 0.8880	53.5610
 0.8890	53.5670
 0.8900	53.5840
 0.8910	53.6030
 0.8920	53.6100
 0.8930	53.6270
 0.8940	53.6420
 0.8950	53.6520
 0.8960	53.6600
 0.8970	53.6700
 0.8980	53.6820
 0.8990	53.6960
 0.9000	53.7070
 0.9010	53.7180
 0.9020	53.7290
 0.9030	53.7410
 0.9040	53.7500
 0.9050	53.7610
 0.9060	53.7760
 0.9070	53.7870
 0.9080	53.7870
 0.9090	53.7930
 0.9100	53.8020
 0.9110	53.8090
 0.9120	53.8130
 0.9130	53.8140
 0.9140	53.8160
 0.9150	53.8220
 0.9160	53.8210
 0.9170	53.8230
 0.9180	53.8250
 0.9190	53.8200
 0.9200	53.8210
 0.9210	53.8230
 0.9220	53.8200
 0.9230	53.8110
 0.9240	53.8010
 0.9250	53.7950
 0.9260	53.7870
 0.9270	53.7630
 0.9280	53.7470
 0.9290	53.7350
 0.9300	53.7210
 0.9310	53.7040
 0.9320	53.6850
 0.9330	53.6630
 0.9340	53.6370
 0.9350	53.6040
 0.9360	53.5790
 0.9370	53.5570
 0.9380	53.5310
 0.9390	53.4960
 0.9400	53.4680
 0.9410	53.4410
 0.9420	53.4070
 0.9430	53.3670
 0.9440	53.3280
 0.9450	53.2860
 0.9460	53.2360
 0.9470	53.1880
 0.9480	53.1380
 0.9490	53.0800
 0.9500	53.0170
 0.9510	52.9550
 0.9520	52.8900
 0.9530	52.8200
 0.9540	52.7460
 0.9550	52.6780
 0.9560	52.6190
 0.9570	52.5590
 0.9580	52.4930
 0.9590	52.4470
 0.9600	52.3900
 0.9610	52.3340
 0.9620	52.2980
 0.9630	52.2620
 0.9640	52.2360
 0.9650	52.2140
 0.9660	52.1870
 0.9670	52.1630
 0.9680	52.1440
 0.9690	52.1260
 0.9700	52.1080
 0.9710	52.0920
 0.9720	52.0770
 0.9730	52.0600
 0.9740	52.0430
 0.9750	52.0410
 0.9760	52.0420
 0.9770	52.0410
 0.9780	52.0370
 0.9790	52.0230
 0.9800	52.0160
 0.9810	52.0220
 0.9820	52.0310
 0.9830	52.0360
 0.9840	52.0310
 0.9850	52.0250
 0.9860	52.0290
 0.9870	52.0550
 0.9880	52.0840
 0.9890	52.1030
 0.9900	52.1100
 0.9910	52.1050
 0.9920	52.1130
 0.9930	52.1350
 0.9940	52.1560
 0.9950	52.1660
 0.9960	52.1800
 0.9970	52.1980
 0.9980	52.2160
 0.9990	52.2230
 1.0000	52.2470
 1.0010	53.0540
 1.0020	53.0730
 1.0030	53.0940
 1.0040	53.1150
 1.0050	53.1360
 1.0060	53.1560
 1.0070	53.1730
 1.0080	53.1910
 1.0090	53.2120
 1.0100	53.2310
 1.0110	53.2500
 1.0120	53.2700
 1.0130	53.2900
 1.0140	53.3100
 1.0150	53.3310
 1.0160	53.3500
 1.0170	53.3700
 1.0180	53.3860
 1.0190	53.4010
 1.0200	53.4190
 1.0210	53.4400
 1.0220	53.4610
 1.0230	53.4790
 1.0240	53.4980
 1.0250	53.5160
 1.0260	53.5290
 1.0270	53.5460
 1.0280	53.5650
 1.0290	53.5830
 1.0300	53.6070
 1.0310	53.6250
 1.0320	53.6380
 1.0330	53.6550
 1.0340	53.6670
 1.0350	53.6750
 1.0360	53.6900
 1.0370	53.7050
 1.0380	53.7200
 1.0390	53.7370
 1.0400	53.7510
 1.0410	53.7630
 1.0420	53.7760
 1.0430	53.7880
 1.0440	53.7990
 1.0450	53.8070
 1.0460	53.8170
 1.0470	53.8280
 1.0480	53.8370
 1.0490	53.8490
 1.0500	53.8590
 1.0510	53.8690
 1.0520	53.8760
 1.0530	53.8850
 1.0540	53.8970
 1.0550	53.9030
 1.0560	53.9050
 1.0570	53.9110
 1.0580	53.9160
 1.0590	53.9220
 1.0600	53.9330
 1.0610	53.9400
 1.0620	53.9470
 1.0630	53.9520
 1.0640	53.9540
 1.0650	53.9570
 1.0660	53.9570
 1.0670	53.9590
 1.0680	53.9620
 1.0690	53.9690
 1.0700	53.9710
 1.0710	53.9720
 1.0720	53.9730
 1.0730	53.9700
 1.0740	53.9710
 1.0750	53.9750
 1.0760	53.9770
 1.0770	53.9810
 1.0780	53.9830
 1.0790	53.9850
 1.0800	53.9850
 1.0810	53.9810
 1.0820	53.9800
 1.0830	53.9810
 1.0840	53.9800
 1.0850	53.9780
 1.0860	53.9780
 1.0870	53.9770
 1.0880	53.9740
 1.0890	53.9720
 1.0900	53.9720
 1.0910	53.9680
 1.0920	53.9620
 1.0930	53.9580
 1.0940	53.9530
 1.0950	53.9480
 1.0960	53.9440
 1.0970	53.9370
 1.0980	53.9280
 1.0990	53.9210
 1.1000	53.9120
 1.1010	53.9050
 1.1020	53.8990
 1.1030	53.8930
 1.1040	53.8880
 1.1050	53.8820
 1.1060	53.8740
 1.1070	53.8670
 1.1080	53.8570
 1.1090	53.8450
 1.1100	53.8330
 1.1110	53.8220
 1.1120	53.8090
 1.1130	53.7960
 1.1140	53.7810
 1.1150	53.7650
 1.1160	53.7480
 1.1170	53.7300
 1.1180	53.7100
 1.1190	53.6870
 1.1200	53.6620
 1.1210	53.6380
 1.1220	53.6080
 1.1230	53.5750
 1.1240	53.5380
 1.1250	53.4950
 1.1260	53.4470
 1.1270	53.3940
 1.1280	53.3390
 1.1290	53.2750
 1.1300	53.2070
 1.1310	53.1290
 1.1320	53.0440
 1.1330	52.9510
 1.1340	52.8480
 1.1350	52.7410
 1.1360	52.6270
 1.1370	52.5070
 1.1380	52.3820
 1.1390	52.2520
 1.1400	52.1170
 1.1410	51.9820
 1.1420	51.8440
 1.1430	51.7030
 1.1440	51.5630
 1.1450	51.4180
 1.1460	51.2810
 1.1470	51.1430
 1.1480	51.0140
 1.1490	50.8900
 1.1500	50.7740
 1.1510	50.6610
 1.1520	50.5580
 1.1530	50.4640
 1.1540	50.3760
 1.1550	50.2960
 1.1560	50.2240
 1.1570	50.1570
 1.1580	50.0960
 1.1590	50.0440
 1.1600	49.9980
 1.1610	49.9570
 1.1620	49.9200
 1.1630	49.8880
 1.1640	49.8590
 1.1650	49.8330
 1.1660	49.8120
 1.1670	49.7920
 1.1680	49.7730
 1.1690	49.7560
 1.1700	49.7420
 1.1710	49.7260
 1.1720	49.7120
 1.1730	49.6970
 1.1740	49.6830
 1.1750	49.6670
 1.1760	49.6510
 1.1770	49.6340
 1.1780	49.6160
 1.1790	49.5980
 1.1800	49.5830
 1.1810	49.5680
 1.1820	49.5510
 1.1830	49.5320
 1.1840	49.5110
 1.1850	49.4920
 1.1860	49.4740
 1.1870	49.4550
 1.1880	49.4380
 1.1890	49.4210
 1.1900	49.4060
 1.1910	49.3920
 1.1920	49.3810
 1.1930	49.3730
 1.1940	49.3640
 1.1950	49.3550
 1.1960	49.3470
 1.1970	49.3400
 1.1980	49.3350
 1.1990	49.3350
 1.2000	49.3380
 1.2010	49.3400
 1.2020	49.3430
 1.2030	49.3480
 1.2040	49.3540
 1.2050	49.3620
 1.2060	49.3740
 1.2070	49.3860
 1.2080	49.3980
 1.2090	49.4100
 1.2100	49.4240
 1.2110	49.4400
 1.2120	49.4590
 1.2130	49.4800
 1.2140	49.5050
 1.2150	49.5290
 1.2160	49.5540
 1.2170	49.5790
 1.2180	49.6030
 1.2190	49.6270
 1.2200	49.6500
 1.2210	49.6760
 1.2220	49.7010
 1.2230	49.7280
 1.2240	49.7530
 1.2250	49.7780
 1.2260	49.8050
 1.2270	49.8310
 1.2280	49.8570
 1.2290	49.8800
 1.2300	49.9000
 1.2310	49.9190
 1.2320	49.9410
 1.2330	49.9630
 1.2340	49.9840
 1.2350	50.0050
 1.2360	50.0240
 1.2370	50.0410
 1.2380	50.0570
 1.2390	50.0730
 1.2400	50.0880
 1.2410	50.1040
 1.2420	50.1170
 1.2430	50.1310
 1.2440	50.1480
 1.2450	50.1610
 1.2460	50.1740
 1.2470	50.1870
 1.2480	50.1960
 1.2490	50.2060
 1.2500	50.2170
 1.2510	50.2270
 1.2520	50.2350
 1.2530	50.2420
 1.2540	50.2480
 1.2550	50.2530
 1.2560	50.2580
 1.2570	50.2620
 1.2580	50.2670
 1.2590	50.2690
 1.2600	50.2710
 1.2610	50.2720
 1.2620	50.2710
 1.2630	50.2680
 1.2640	50.2660
 1.2650	50.2620
 1.2660	50.2560
 1.2670	50.2500
 1.2680	50.2430
 1.2690	50.2350
 1.2700	50.2280
 1.2710	50.2210
 1.2720	50.2110
 1.2730	50.1980
 1.2740	50.1840
 1.2750	50.1670
 1.2760	50.1510
 1.2770	50.1340
 1.2780	50.1150
 1.2790	50.0950
 1.2800	50.0730
 1.2810	50.0480
 1.2820	50.0210
 1.2830	49.9940
 1.2840	49.9650
 1.2850	49.9340
 1.2860	49.9020
 1.2870	49.8690
 1.2880	49.8350
 1.2890	49.7990
 1.2900	49.7590
 1.2910	49.7160
 1.2920	49.6720
 1.2930	49.6260
 1.2940	49.5800
 1.2950	49.5330
 1.2960	49.4830
 1.2970	49.4290
 1.2980	49.3740
 1.2990	49.3180
 1.3000	49.2600
 1.3010	49.1990
 1.3020	49.1380
 1.3030	49.0740
 1.3040	49.0050
 1.3050	48.9360
 1.3060	48.8620
 1.3070	48.7860
 1.3080	48.7090
 1.3090	48.6310
 1.3100	48.5510
 1.3110	48.4710
 1.3120	48.3860
 1.3130	48.2950
 1.3140	48.2040
 1.3150	48.1090
 1.3160	48.0130
 1.3170	47.9150
 1.3180	47.8160
 1.3190	47.7150
 1.3200	47.6100
 1.3210	47.5010
 1.3220	47.3920
 1.3230	47.2810
 1.3240	47.1660
 1.3250	47.0520
 1.3260	46.9350
 1.3270	46.8140
 1.3280	46.6940
 1.3290	46.5720
 1.3300	46.4490
 1.3310	46.3240
 1.3320	46.1960
 1.3330	46.0680
 1.3340	45.9390
 1.3350	45.8090
 1.3360	45.6780
 1.3370	45.5470
 1.3380	45.4150
 1.3390	45.2860
 1.3400	45.1590
 1.3410	45.0330
 1.3420	44.9090
 1.3430	44.7850
 1.3440	44.6600
 1.3450	44.5370
 1.3460	44.4150
 1.3470	44.2960
 1.3480	44.1780
 1.3490	44.0630
 1.3500	43.9510
 1.3510	43.8370
 1.3520	43.7240
 1.3530	43.6130
 1.3540	43.5000
 1.3550	43.3860
 1.3560	43.2720
 1.3570	43.1570
 1.3580	43.0400
 1.3590	42.9230
 1.3600	42.8030
 1.3610	42.6780
 1.3620	42.5500
 1.3630	42.4170
 1.3640	42.2780
 1.3650	42.1320
 1.3660	41.9780
 1.3670	41.8160
 1.3680	41.6420
 1.3690	41.4570
 1.3700	41.2600
 1.3710	41.0500
 1.3720	40.8280
 1.3730	40.5870
 1.3740	40.3320
 1.3750	40.0610
 1.3760	39.7690
 1.3770	39.4590
 1.3780	39.1260
 1.3790	38.7720
 1.3800	38.3970
 1.3810	37.9980
 1.3820	37.5850
 1.3830	37.1540
 1.3840	36.7060
 1.3850	36.2400
 1.3860	35.7640
 1.3870	35.2670
 1.3880	34.7700
 1.3890	34.2640
 1.3900	33.7510
 1.3910	33.2410
 1.3920	32.7280
 1.3930	32.2140
 1.3940	31.7060
 1.3950	31.1970
 1.3960	30.6970
 1.3970	30.2090
 1.3980	29.7320
 1.3990	29.2740
 1.4000	28.8310
 1.4010	28.4010
 1.4020	27.9900
 1.4030	27.5950
 1.4040	27.2200
 1.4050	26.8650
 1.4060	26.5270
 1.4070	26.2100
 1.4080	25.9120
 1.4090	25.6290
 1.4100	25.3670
 1.4110	25.1200
 1.4120	24.8880
 1.4130	24.6740
 1.4140	24.4730
 1.4150	24.2890
 1.4160	24.1190
 1.4170	23.9600
 1.4180	23.8130
 1.4190	23.6770
 1.4200	23.5510
 1.4210	23.4360
 1.4220	23.3300
 1.4230	23.2320
 1.4240	23.1410
 1.4250	23.0570
 1.4260	22.9810
 1.4270	22.9110
 1.4280	22.8480
 1.4290	22.7900
 1.4300	22.7390
 1.4310	22.6920
 1.4320	22.6510
 1.4330	22.6140
 1.4340	22.5820
 1.4350	22.5540
 1.4360	22.5300
 1.4370	22.5110
 1.4380	22.4940
 1.4390	22.4790
 1.4400	22.4690
 1.4410	22.4620
 1.4420	22.4570
 1.4430	22.4540
 1.4440	22.4540
 1.4450	22.4550
 1.4460	22.4580
 1.4470	22.4640
 1.4480	22.4700
 1.4490	22.4780
 1.4500	22.4890
 1.4510	22.5010
 1.4520	22.5160
 1.4530	22.5320
 1.4540	22.5490
 1.4550	22.5680
 1.4560	22.5900
 1.4570	22.6130
 1.4580	22.6410
 1.4590	22.6700
 1.4600	22.7030
 1.4610	22.7380
 1.4620	22.7780
 1.4630	22.8220
 1.4640	22.8710
 1.4650	22.9230
 1.4660	22.9800
 1.4670	23.0390
 1.4680	23.1030
 1.4690	23.1700
 1.4700	23.2430
 1.4710	23.3210
 1.4720	23.4000
 1.4730	23.4820
 1.4740	23.5670
 1.4750	23.6540
 1.4760	23.7450
 1.4770	23.8400
