Name: Bambusa tuldoides
Type: vegetation
Class: Tree
Genus: Bambusa
Species: tuldoides
Sample No.: JPL145
Owner: JPL
Wavelength Range: VSWIR
Origin: 34.12526; -118.11174; WGS84
Collection Date: 9/14/2016
Description: Samples were collected at the Huntington Garden in San Marino California as part of a JPL Subcontract studying HyTES imagery. Samples were taken to JPL and processed within 48 hours of collection. The same leaves were processed in the Nicolet and then measured using the ASD.
Measurement: Bidirectional reflectance
First Column: X
Second Column: Y
X Units: Wavelength (micrometer)
Y Units: Reflectance (percentage)
First X Value: 0.35
Last X Value: 2.5
Number of X Values: 2151
Additional Information: vegetation.tree.bambusa.tuldoides.vswir.jpl145.jpl.asd.ancillary.txt

 0.3500	 6.5790
 0.3510	 6.4820
 0.3520	 6.4680
 0.3530	 6.5040
 0.3540	 6.5530
 0.3550	 6.6170
 0.3560	 6.5410
 0.3570	 6.4200
 0.3580	 6.4460
 0.3590	 6.5140
 0.3600	 6.5250
 0.3610	 6.4600
 0.3620	 6.4050
 0.3630	 6.3650
 0.3640	 6.3690
 0.3650	 6.4120
 0.3660	 6.3580
 0.3670	 6.3350
 0.3680	 6.3360
 0.3690	 6.2730
 0.3700	 6.3040
 0.3710	 6.3600
 0.3720	 6.3820
 0.3730	 6.3790
 0.3740	 6.3450
 0.3750	 6.3010
 0.3760	 6.2750
 0.3770	 6.2770
 0.3780	 6.2750
 0.3790	 6.2750
 0.3800	 6.3100
 0.3810	 6.3120
 0.3820	 6.2980
 0.3830	 6.2850
 0.3840	 6.2510
 0.3850	 6.2080
 0.3860	 6.1900
 0.3870	 6.2180
 0.3880	 6.1990
 0.3890	 6.1850
 0.3900	 6.2010
 0.3910	 6.2310
 0.3920	 6.2510
 0.3930	 6.2440
 0.3940	 6.2140
 0.3950	 6.2060
 0.3960	 6.1780
 0.3970	 6.1600
 0.3980	 6.1990
 0.3990	 6.2170
 0.4000	 6.2040
 0.4010	 6.1770
 0.4020	 6.1710
 0.4030	 6.1800
 0.4040	 6.1900
 0.4050	 6.1900
 0.4060	 6.1850
 0.4070	 6.1980
 0.4080	 6.2180
 0.4090	 6.2100
 0.4100	 6.1990
 0.4110	 6.2140
 0.4120	 6.2480
 0.4130	 6.2330
 0.4140	 6.2250
 0.4150	 6.2330
 0.4160	 6.2470
 0.4170	 6.2510
 0.4180	 6.2610
 0.4190	 6.2800
 0.4200	 6.2950
 0.4210	 6.2920
 0.4220	 6.2900
 0.4230	 6.3020
 0.4240	 6.3130
 0.4250	 6.3200
 0.4260	 6.3220
 0.4270	 6.3220
 0.4280	 6.3240
 0.4290	 6.3260
 0.4300	 6.3280
 0.4310	 6.3370
 0.4320	 6.3290
 0.4330	 6.3160
 0.4340	 6.3140
 0.4350	 6.3110
 0.4360	 6.3080
 0.4370	 6.3090
 0.4380	 6.3180
 0.4390	 6.3310
 0.4400	 6.3480
 0.4410	 6.3660
 0.4420	 6.3820
 0.4430	 6.3910
 0.4440	 6.3970
 0.4450	 6.4050
 0.4460	 6.4120
 0.4470	 6.4160
 0.4480	 6.4190
 0.4490	 6.4290
 0.4500	 6.4390
 0.4510	 6.4470
 0.4520	 6.4540
 0.4530	 6.4490
 0.4540	 6.4550
 0.4550	 6.4700
 0.4560	 6.4730
 0.4570	 6.4790
 0.4580	 6.4830
 0.4590	 6.4840
 0.4600	 6.4910
 0.4610	 6.4940
 0.4620	 6.4980
 0.4630	 6.5090
 0.4640	 6.5120
 0.4650	 6.5180
 0.4660	 6.5250
 0.4670	 6.5130
 0.4680	 6.5110
 0.4690	 6.5160
 0.4700	 6.5200
 0.4710	 6.5250
 0.4720	 6.5250
 0.4730	 6.5250
 0.4740	 6.5280
 0.4750	 6.5340
 0.4760	 6.5370
 0.4770	 6.5370
 0.4780	 6.5410
 0.4790	 6.5450
 0.4800	 6.5490
 0.4810	 6.5520
 0.4820	 6.5460
 0.4830	 6.5440
 0.4840	 6.5470
 0.4850	 6.5450
 0.4860	 6.5500
 0.4870	 6.5610
 0.4880	 6.5720
 0.4890	 6.5770
 0.4900	 6.5940
 0.4910	 6.6200
 0.4920	 6.6430
 0.4930	 6.6620
 0.4940	 6.6830
 0.4950	 6.7090
 0.4960	 6.7480
 0.4970	 6.7850
 0.4980	 6.8220
 0.4990	 6.8640
 0.5000	 6.9130
 0.5010	 6.9660
 0.5020	 7.0240
 0.5030	 7.0860
 0.5040	 7.1600
 0.5050	 7.2390
 0.5060	 7.3220
 0.5070	 7.4200
 0.5080	 7.5290
 0.5090	 7.6460
 0.5100	 7.7690
 0.5110	 7.9030
 0.5120	 8.0510
 0.5130	 8.2140
 0.5140	 8.3860
 0.5150	 8.5750
 0.5160	 8.7790
 0.5170	 8.9950
 0.5180	 9.2150
 0.5190	 9.4440
 0.5200	 9.6820
 0.5210	 9.9300
 0.5220	10.1770
 0.5230	10.4230
 0.5240	10.6680
 0.5250	10.9100
 0.5260	11.1460
 0.5270	11.3730
 0.5280	11.5860
 0.5290	11.7900
 0.5300	11.9830
 0.5310	12.1630
 0.5320	12.3250
 0.5330	12.4730
 0.5340	12.6100
 0.5350	12.7390
 0.5360	12.8510
 0.5370	12.9500
 0.5380	13.0390
 0.5390	13.1180
 0.5400	13.1900
 0.5410	13.2550
 0.5420	13.3110
 0.5430	13.3640
 0.5440	13.4170
 0.5450	13.4720
 0.5460	13.5300
 0.5470	13.5870
 0.5480	13.6390
 0.5490	13.6830
 0.5500	13.7180
 0.5510	13.7420
 0.5520	13.7560
 0.5530	13.7600
 0.5540	13.7490
 0.5550	13.7240
 0.5560	13.6850
 0.5570	13.6320
 0.5580	13.5630
 0.5590	13.4780
 0.5600	13.3810
 0.5610	13.2760
 0.5620	13.1600
 0.5630	13.0360
 0.5640	12.9070
 0.5650	12.7730
 0.5660	12.6320
 0.5670	12.4860
 0.5680	12.3400
 0.5690	12.1910
 0.5700	12.0390
 0.5710	11.8850
 0.5720	11.7370
 0.5730	11.5990
 0.5740	11.4690
 0.5750	11.3420
 0.5760	11.2260
 0.5770	11.1190
 0.5780	11.0170
 0.5790	10.9180
 0.5800	10.8280
 0.5810	10.7430
 0.5820	10.6600
 0.5830	10.5860
 0.5840	10.5150
 0.5850	10.4450
 0.5860	10.3790
 0.5870	10.3180
 0.5880	10.2620
 0.5890	10.2110
 0.5900	10.1630
 0.5910	10.1180
 0.5920	10.0770
 0.5930	10.0400
 0.5940	10.0100
 0.5950	 9.9850
 0.5960	 9.9640
 0.5970	 9.9410
 0.5980	 9.9180
 0.5990	 9.8920
 0.6000	 9.8650
 0.6010	 9.8330
 0.6020	 9.7970
 0.6030	 9.7560
 0.6040	 9.7060
 0.6050	 9.6540
 0.6060	 9.5980
 0.6070	 9.5370
 0.6080	 9.4700
 0.6090	 9.3930
 0.6100	 9.3050
 0.6110	 9.2110
 0.6120	 9.1410
 0.6130	 9.0860
 0.6140	 9.0340
 0.6150	 8.9750
 0.6160	 8.9140
 0.6170	 8.8560
 0.6180	 8.8050
 0.6190	 8.7540
 0.6200	 8.7050
 0.6210	 8.6620
 0.6220	 8.6270
 0.6230	 8.5970
 0.6240	 8.5710
 0.6250	 8.5520
 0.6260	 8.5360
 0.6270	 8.5230
 0.6280	 8.5130
 0.6290	 8.5020
 0.6300	 8.4900
 0.6310	 8.4790
 0.6320	 8.4660
 0.6330	 8.4470
 0.6340	 8.4210
 0.6350	 8.3860
 0.6360	 8.3390
 0.6370	 8.2870
 0.6380	 8.2280
 0.6390	 8.1620
 0.6400	 8.0910
 0.6410	 8.0170
 0.6420	 7.9400
 0.6430	 7.8630
 0.6440	 7.7880
 0.6450	 7.7150
 0.6460	 7.6450
 0.6470	 7.5800
 0.6480	 7.5200
 0.6490	 7.4660
 0.6500	 7.4220
 0.6510	 7.3870
 0.6520	 7.3590
 0.6530	 7.3360
 0.6540	 7.3130
 0.6550	 7.2890
 0.6560	 7.2620
 0.6570	 7.2310
 0.6580	 7.1990
 0.6590	 7.1640
 0.6600	 7.1250
 0.6610	 7.0840
 0.6620	 7.0420
 0.6630	 7.0070
 0.6640	 6.9760
 0.6650	 6.9470
 0.6660	 6.9220
 0.6670	 6.9020
 0.6680	 6.8870
 0.6690	 6.8790
 0.6700	 6.8770
 0.6710	 6.8780
 0.6720	 6.8830
 0.6730	 6.8920
 0.6740	 6.9080
 0.6750	 6.9290
 0.6760	 6.9510
 0.6770	 6.9770
 0.6780	 7.0080
 0.6790	 7.0440
 0.6800	 7.0860
 0.6810	 7.1330
 0.6820	 7.1880
 0.6830	 7.2530
 0.6840	 7.3320
 0.6850	 7.4240
 0.6860	 7.5350
 0.6870	 7.6700
 0.6880	 7.8330
 0.6890	 8.0340
 0.6900	 8.2810
 0.6910	 8.5800
 0.6920	 8.9350
 0.6930	 9.3510
 0.6940	 9.8320
 0.6950	10.3780
 0.6960	10.9900
 0.6970	11.6630
 0.6980	12.3880
 0.6990	13.1620
 0.7000	13.9750
 0.7010	14.8170
 0.7020	15.6770
 0.7030	16.5440
 0.7040	17.4120
 0.7050	18.2740
 0.7060	19.1280
 0.7070	19.9700
 0.7080	20.7990
 0.7090	21.6150
 0.7100	22.4150
 0.7110	23.2070
 0.7120	23.9910
 0.7130	24.7600
 0.7140	25.5170
 0.7150	26.2640
 0.7160	27.0000
 0.7170	27.7240
 0.7180	28.4350
 0.7190	29.1350
 0.7200	29.8230
 0.7210	30.4990
 0.7220	31.1580
 0.7230	31.8000
 0.7240	32.4280
 0.7250	33.0380
 0.7260	33.6280
 0.7270	34.1960
 0.7280	34.7470
 0.7290	35.2750
 0.7300	35.7830
 0.7310	36.2710
 0.7320	36.7370
 0.7330	37.1810
 0.7340	37.6040
 0.7350	38.0050
 0.7360	38.3860
 0.7370	38.7480
 0.7380	39.0910
 0.7390	39.4110
 0.7400	39.7130
 0.7410	39.9970
 0.7420	40.2620
 0.7430	40.5080
 0.7440	40.7370
 0.7450	40.9480
 0.7460	41.1450
 0.7470	41.3260
 0.7480	41.4930
 0.7490	41.6460
 0.7500	41.7850
 0.7510	41.9120
 0.7520	42.0280
 0.7530	42.1340
 0.7540	42.2300
 0.7550	42.3180
 0.7560	42.4000
 0.7570	42.4730
 0.7580	42.5390
 0.7590	42.6010
 0.7600	42.6570
 0.7610	42.7060
 0.7620	42.7500
 0.7630	42.7900
 0.7640	42.8270
 0.7650	42.8580
 0.7660	42.8840
 0.7670	42.9080
 0.7680	42.9320
 0.7690	42.9550
 0.7700	42.9750
 0.7710	42.9910
 0.7720	43.0070
 0.7730	43.0210
 0.7740	43.0340
 0.7750	43.0460
 0.7760	43.0550
 0.7770	43.0630
 0.7780	43.0700
 0.7790	43.0780
 0.7800	43.0850
 0.7810	43.0930
 0.7820	43.1010
 0.7830	43.1050
 0.7840	43.1080
 0.7850	43.1100
 0.7860	43.1120
 0.7870	43.1140
 0.7880	43.1160
 0.7890	43.1150
 0.7900	43.1120
 0.7910	43.1100
 0.7920	43.1060
 0.7930	43.1010
 0.7940	43.0970
 0.7950	43.0940
 0.7960	43.0880
 0.7970	43.0780
 0.7980	43.0700
 0.7990	43.0600
 0.8000	43.0510
 0.8010	43.0420
 0.8020	43.0330
 0.8030	43.0220
 0.8040	43.0100
 0.8050	42.9970
 0.8060	42.9830
 0.8070	42.9680
 0.8080	42.9520
 0.8090	42.9370
 0.8100	42.9210
 0.8110	42.9060
 0.8120	42.8900
 0.8130	42.8710
 0.8140	42.8540
 0.8150	42.8360
 0.8160	42.8160
 0.8170	42.7980
 0.8180	42.7800
 0.8190	42.7620
 0.8200	42.7440
 0.8210	42.7300
 0.8220	42.7140
 0.8230	42.6940
 0.8240	42.6730
 0.8250	42.6570
 0.8260	42.6420
 0.8270	42.6260
 0.8280	42.6070
 0.8290	42.5900
 0.8300	42.5730
 0.8310	42.5550
 0.8320	42.5430
 0.8330	42.5270
 0.8340	42.5100
 0.8350	42.4980
 0.8360	42.4870
 0.8370	42.4750
 0.8380	42.4610
 0.8390	42.4490
 0.8400	42.4390
 0.8410	42.4300
 0.8420	42.4190
 0.8430	42.4100
 0.8440	42.4020
 0.8450	42.3960
 0.8460	42.3910
 0.8470	42.3800
 0.8480	42.3710
 0.8490	42.3670
 0.8500	42.3650
 0.8510	42.3630
 0.8520	42.3590
 0.8530	42.3540
 0.8540	42.3490
 0.8550	42.3490
 0.8560	42.3490
 0.8570	42.3480
 0.8580	42.3450
 0.8590	42.3470
 0.8600	42.3500
 0.8610	42.3500
 0.8620	42.3500
 0.8630	42.3530
 0.8640	42.3560
 0.8650	42.3590
 0.8660	42.3650
 0.8670	42.3690
 0.8680	42.3730
 0.8690	42.3780
 0.8700	42.3810
 0.8710	42.3880
 0.8720	42.3970
 0.8730	42.4040
 0.8740	42.4090
 0.8750	42.4150
 0.8760	42.4220
 0.8770	42.4280
 0.8780	42.4370
 0.8790	42.4460
 0.8800	42.4520
 0.8810	42.4610
 0.8820	42.4720
 0.8830	42.4820
 0.8840	42.4890
 0.8850	42.4940
 0.8860	42.5040
 0.8870	42.5140
 0.8880	42.5210
 0.8890	42.5280
 0.8900	42.5350
 0.8910	42.5440
 0.8920	42.5570
 0.8930	42.5640
 0.8940	42.5690
 0.8950	42.5750
 0.8960	42.5850
 0.8970	42.5900
 0.8980	42.5960
 0.8990	42.6040
 0.9000	42.6150
 0.9010	42.6250
 0.9020	42.6350
 0.9030	42.6440
 0.9040	42.6490
 0.9050	42.6520
 0.9060	42.6560
 0.9070	42.6640
 0.9080	42.6670
 0.9090	42.6700
 0.9100	42.6750
 0.9110	42.6830
 0.9120	42.6890
 0.9130	42.6930
 0.9140	42.6970
 0.9150	42.7040
 0.9160	42.6980
 0.9170	42.6980
 0.9180	42.7050
 0.9190	42.7080
 0.9200	42.7040
 0.9210	42.7030
 0.9220	42.7050
 0.9230	42.7020
 0.9240	42.6970
 0.9250	42.6940
 0.9260	42.6920
 0.9270	42.6880
 0.9280	42.6830
 0.9290	42.6780
 0.9300	42.6710
 0.9310	42.6580
 0.9320	42.6470
 0.9330	42.6390
 0.9340	42.6310
 0.9350	42.6240
 0.9360	42.6120
 0.9370	42.5960
 0.9380	42.5810
 0.9390	42.5750
 0.9400	42.5640
 0.9410	42.5480
 0.9420	42.5310
 0.9430	42.5160
 0.9440	42.5080
 0.9450	42.4960
 0.9460	42.4740
 0.9470	42.4560
 0.9480	42.4270
 0.9490	42.3970
 0.9500	42.3770
 0.9510	42.3550
 0.9520	42.3370
 0.9530	42.3210
 0.9540	42.3010
 0.9550	42.2680
 0.9560	42.2350
 0.9570	42.2100
 0.9580	42.1960
 0.9590	42.1800
 0.9600	42.1540
 0.9610	42.1230
 0.9620	42.0960
 0.9630	42.0870
 0.9640	42.0730
 0.9650	42.0560
 0.9660	42.0420
 0.9670	42.0200
 0.9680	42.0000
 0.9690	41.9870
 0.9700	41.9800
 0.9710	41.9730
 0.9720	41.9620
 0.9730	41.9490
 0.9740	41.9400
 0.9750	41.9410
 0.9760	41.9280
 0.9770	41.9110
 0.9780	41.9120
 0.9790	41.9090
 0.9800	41.8960
 0.9810	41.8780
 0.9820	41.8660
 0.9830	41.8720
 0.9840	41.8760
 0.9850	41.8700
 0.9860	41.8610
 0.9870	41.8580
 0.9880	41.8490
 0.9890	41.8400
 0.9900	41.8410
 0.9910	41.8350
 0.9920	41.8350
 0.9930	41.8390
 0.9940	41.8400
 0.9950	41.8430
 0.9960	41.8400
 0.9970	41.8310
 0.9980	41.8220
 0.9990	41.8200
 1.0000	41.8090
 1.0010	42.4960
 1.0020	42.4900
 1.0030	42.4840
 1.0040	42.4830
 1.0050	42.4800
 1.0060	42.4800
 1.0070	42.4860
 1.0080	42.4870
 1.0090	42.4900
 1.0100	42.4890
 1.0110	42.4840
 1.0120	42.4840
 1.0130	42.4870
 1.0140	42.4880
 1.0150	42.4900
 1.0160	42.4940
 1.0170	42.4940
 1.0180	42.4920
 1.0190	42.4930
 1.0200	42.4930
 1.0210	42.4900
 1.0220	42.4900
 1.0230	42.4920
 1.0240	42.4940
 1.0250	42.4970
 1.0260	42.5030
 1.0270	42.5050
 1.0280	42.5030
 1.0290	42.5040
 1.0300	42.5020
 1.0310	42.5020
 1.0320	42.5040
 1.0330	42.5060
 1.0340	42.5070
 1.0350	42.5080
 1.0360	42.5100
 1.0370	42.5130
 1.0380	42.5150
 1.0390	42.5180
 1.0400	42.5200
 1.0410	42.5190
 1.0420	42.5190
 1.0430	42.5190
 1.0440	42.5200
 1.0450	42.5190
 1.0460	42.5200
 1.0470	42.5260
 1.0480	42.5290
 1.0490	42.5330
 1.0500	42.5330
 1.0510	42.5280
 1.0520	42.5240
 1.0530	42.5240
 1.0540	42.5230
 1.0550	42.5250
 1.0560	42.5320
 1.0570	42.5340
 1.0580	42.5310
 1.0590	42.5310
 1.0600	42.5300
 1.0610	42.5290
 1.0620	42.5280
 1.0630	42.5280
 1.0640	42.5260
 1.0650	42.5250
 1.0660	42.5260
 1.0670	42.5240
 1.0680	42.5210
 1.0690	42.5160
 1.0700	42.5140
 1.0710	42.5120
 1.0720	42.5100
 1.0730	42.5110
 1.0740	42.5100
 1.0750	42.5070
 1.0760	42.5060
 1.0770	42.5060
 1.0780	42.5040
 1.0790	42.5020
 1.0800	42.5000
 1.0810	42.4980
 1.0820	42.4960
 1.0830	42.4940
 1.0840	42.4910
 1.0850	42.4900
 1.0860	42.4850
 1.0870	42.4820
 1.0880	42.4800
 1.0890	42.4770
 1.0900	42.4750
 1.0910	42.4730
 1.0920	42.4730
 1.0930	42.4710
 1.0940	42.4670
 1.0950	42.4640
 1.0960	42.4600
 1.0970	42.4570
 1.0980	42.4560
 1.0990	42.4550
 1.1000	42.4520
 1.1010	42.4500
 1.1020	42.4470
 1.1030	42.4430
 1.1040	42.4400
 1.1050	42.4370
 1.1060	42.4320
 1.1070	42.4260
 1.1080	42.4210
 1.1090	42.4150
 1.1100	42.4110
 1.1110	42.4090
 1.1120	42.4050
 1.1130	42.4000
 1.1140	42.3950
 1.1150	42.3910
 1.1160	42.3840
 1.1170	42.3750
 1.1180	42.3670
 1.1190	42.3580
 1.1200	42.3490
 1.1210	42.3420
 1.1220	42.3340
 1.1230	42.3220
 1.1240	42.3080
 1.1250	42.2940
 1.1260	42.2760
 1.1270	42.2580
 1.1280	42.2390
 1.1290	42.2170
 1.1300	42.1940
 1.1310	42.1680
 1.1320	42.1410
 1.1330	42.1110
 1.1340	42.0800
 1.1350	42.0450
 1.1360	42.0070
 1.1370	41.9680
 1.1380	41.9260
 1.1390	41.8820
 1.1400	41.8380
 1.1410	41.7910
 1.1420	41.7430
 1.1430	41.6950
 1.1440	41.6470
 1.1450	41.5990
 1.1460	41.5510
 1.1470	41.5030
 1.1480	41.4570
 1.1490	41.4090
 1.1500	41.3650
 1.1510	41.3240
 1.1520	41.2850
 1.1530	41.2500
 1.1540	41.2170
 1.1550	41.1850
 1.1560	41.1540
 1.1570	41.1260
 1.1580	41.1010
 1.1590	41.0780
 1.1600	41.0600
 1.1610	41.0420
 1.1620	41.0240
 1.1630	41.0070
 1.1640	40.9930
 1.1650	40.9790
 1.1660	40.9680
 1.1670	40.9570
 1.1680	40.9480
 1.1690	40.9390
 1.1700	40.9310
 1.1710	40.9220
 1.1720	40.9140
 1.1730	40.9050
 1.1740	40.8960
 1.1750	40.8870
 1.1760	40.8780
 1.1770	40.8700
 1.1780	40.8630
 1.1790	40.8540
 1.1800	40.8440
 1.1810	40.8340
 1.1820	40.8240
 1.1830	40.8140
 1.1840	40.8040
 1.1850	40.7930
 1.1860	40.7820
 1.1870	40.7710
 1.1880	40.7620
 1.1890	40.7550
 1.1900	40.7470
 1.1910	40.7410
 1.1920	40.7340
 1.1930	40.7250
 1.1940	40.7180
 1.1950	40.7110
 1.1960	40.7050
 1.1970	40.7000
 1.1980	40.6970
 1.1990	40.6950
 1.2000	40.6930
 1.2010	40.6910
 1.2020	40.6880
 1.2030	40.6830
 1.2040	40.6810
 1.2050	40.6820
 1.2060	40.6820
 1.2070	40.6820
 1.2080	40.6850
 1.2090	40.6850
 1.2100	40.6860
 1.2110	40.6880
 1.2120	40.6920
 1.2130	40.6950
 1.2140	40.6980
 1.2150	40.7020
 1.2160	40.7070
 1.2170	40.7120
 1.2180	40.7160
 1.2190	40.7220
 1.2200	40.7270
 1.2210	40.7300
 1.2220	40.7350
 1.2230	40.7430
 1.2240	40.7500
 1.2250	40.7570
 1.2260	40.7630
 1.2270	40.7690
 1.2280	40.7740
 1.2290	40.7800
 1.2300	40.7860
 1.2310	40.7920
 1.2320	40.7970
 1.2330	40.8010
 1.2340	40.8050
 1.2350	40.8070
 1.2360	40.8100
 1.2370	40.8140
 1.2380	40.8180
 1.2390	40.8230
 1.2400	40.8270
 1.2410	40.8270
 1.2420	40.8280
 1.2430	40.8290
 1.2440	40.8300
 1.2450	40.8320
 1.2460	40.8330
 1.2470	40.8340
 1.2480	40.8350
 1.2490	40.8370
 1.2500	40.8390
 1.2510	40.8400
 1.2520	40.8400
 1.2530	40.8380
 1.2540	40.8360
 1.2550	40.8330
 1.2560	40.8320
 1.2570	40.8300
 1.2580	40.8280
 1.2590	40.8260
 1.2600	40.8250
 1.2610	40.8210
 1.2620	40.8170
 1.2630	40.8140
 1.2640	40.8090
 1.2650	40.8030
 1.2660	40.7980
 1.2670	40.7920
 1.2680	40.7860
 1.2690	40.7820
 1.2700	40.7760
 1.2710	40.7710
 1.2720	40.7660
 1.2730	40.7590
 1.2740	40.7510
 1.2750	40.7440
 1.2760	40.7340
 1.2770	40.7260
 1.2780	40.7200
 1.2790	40.7120
 1.2800	40.7020
 1.2810	40.6890
 1.2820	40.6770
 1.2830	40.6650
 1.2840	40.6530
 1.2850	40.6410
 1.2860	40.6280
 1.2870	40.6140
 1.2880	40.5980
 1.2890	40.5840
 1.2900	40.5680
 1.2910	40.5500
 1.2920	40.5330
 1.2930	40.5140
 1.2940	40.4940
 1.2950	40.4730
 1.2960	40.4510
 1.2970	40.4290
 1.2980	40.4050
 1.2990	40.3820
 1.3000	40.3570
 1.3010	40.3320
 1.3020	40.3060
 1.3030	40.2780
 1.3040	40.2480
 1.3050	40.2170
 1.3060	40.1850
 1.3070	40.1550
 1.3080	40.1240
 1.3090	40.0940
 1.3100	40.0620
 1.3110	40.0280
 1.3120	39.9940
 1.3130	39.9590
 1.3140	39.9230
 1.3150	39.8880
 1.3160	39.8510
 1.3170	39.8140
 1.3180	39.7750
 1.3190	39.7350
 1.3200	39.6940
 1.3210	39.6510
 1.3220	39.6100
 1.3230	39.5660
 1.3240	39.5220
 1.3250	39.4760
 1.3260	39.4290
 1.3270	39.3820
 1.3280	39.3350
 1.3290	39.2860
 1.3300	39.2350
 1.3310	39.1840
 1.3320	39.1330
 1.3330	39.0820
 1.3340	39.0300
 1.3350	38.9750
 1.3360	38.9210
 1.3370	38.8660
 1.3380	38.8120
 1.3390	38.7590
 1.3400	38.7050
 1.3410	38.6500
 1.3420	38.5960
 1.3430	38.5410
 1.3440	38.4870
 1.3450	38.4320
 1.3460	38.3770
 1.3470	38.3220
 1.3480	38.2680
 1.3490	38.2140
 1.3500	38.1610
 1.3510	38.1070
 1.3520	38.0530
 1.3530	37.9970
 1.3540	37.9410
 1.3550	37.8850
 1.3560	37.8280
 1.3570	37.7720
 1.3580	37.7150
 1.3590	37.6570
 1.3600	37.5990
 1.3610	37.5400
 1.3620	37.4760
 1.3630	37.4120
 1.3640	37.3440
 1.3650	37.2720
 1.3660	37.1970
 1.3670	37.1160
 1.3680	37.0310
 1.3690	36.9410
 1.3700	36.8440
 1.3710	36.7410
 1.3720	36.6310
 1.3730	36.5080
 1.3740	36.3800
 1.3750	36.2400
 1.3760	36.0890
 1.3770	35.9260
 1.3780	35.7470
 1.3790	35.5530
 1.3800	35.3450
 1.3810	35.1220
 1.3820	34.8850
 1.3830	34.6340
 1.3840	34.3680
 1.3850	34.0880
 1.3860	33.7930
 1.3870	33.4830
 1.3880	33.1630
 1.3890	32.8300
 1.3900	32.4850
 1.3910	32.1330
 1.3920	31.7700
 1.3930	31.3990
 1.3940	31.0230
 1.3950	30.6390
 1.3960	30.2550
 1.3970	29.8730
 1.3980	29.4900
 1.3990	29.1160
 1.4000	28.7460
 1.4010	28.3810
 1.4020	28.0260
 1.4030	27.6780
 1.4040	27.3420
 1.4050	27.0170
 1.4060	26.7040
 1.4070	26.4080
 1.4080	26.1280
 1.4090	25.8590
 1.4100	25.6070
 1.4110	25.3670
 1.4120	25.1400
 1.4130	24.9280
 1.4140	24.7310
 1.4150	24.5500
 1.4160	24.3800
 1.4170	24.2220
 1.4180	24.0770
 1.4190	23.9400
 1.4200	23.8150
 1.4210	23.7010
 1.4220	23.5950
 1.4230	23.4990
 1.4240	23.4120
 1.4250	23.3310
 1.4260	23.2600
 1.4270	23.1950
 1.4280	23.1380
 1.4290	23.0860
 1.4300	23.0410
 1.4310	23.0000
 1.4320	22.9650
 1.4330	22.9350
 1.4340	22.9110
 1.4350	22.8910
 1.4360	22.8750
 1.4370	22.8620
 1.4380	22.8530
 1.4390	22.8490
 1.4400	22.8470
 1.4410	22.8480
 1.4420	22.8520
 1.4430	22.8570
 1.4440	22.8640
 1.4450	22.8730
 1.4460	22.8840
 1.4470	22.8970
 1.4480	22.9110
 1.4490	22.9270
 1.4500	22.9440
 1.4510	22.9610
 1.4520	22.9800
 1.4530	22.9980
 1.4540	23.0180
 1.4550	23.0420
 1.4560	23.0660
 1.4570	23.0950
 1.4580	23.1250
 1.4590	23.1570
 1.4600	23.1920
 1.4610	23.2300
 1.4620	23.2720
 1.4630	23.3200
 1.4640	23.3710
 1.4650	23.4280
 1.4660	23.4880
 1.4670	23.5510
 1.4680	23.6190
 1.4690	23.6920
 1.4700	23.7670
 1.4710	23.8470
 1.4720	23.9310
 1.4730	24.0170
 1.4740	24.1070
 1.4750	24.1990
 1.4760	24.2920
 1.4770	24.3870
