Name: Ceanothus megacarpus 3
Type: vegetation
Class: Shrub
Genus: Ceanothus
Species: megacarpus
Sample No.: VH143
Owner: UCSB
Wavelength Range: VSWIR
Origin: 34.4909; -119.7914; WGS84
Collection Date: 6/3/2013
Description: Samples were collected as part of the HyspIRI Airborne Campaign. 48 individual plants were sampled in three times in 2013 - spring  summer  and fall. The name of the sample includes a 1  2  or 3 which references a different individual of the species. Samples were taken to JPL and processed within 48 hours of collection. The same leaves were processed in the Nicolet and then measured using the ASD.
Measurement: Bidirectional reflectance
First Column: X
Second Column: Y
X Units: Wavelength (micrometers)
Y Units: Reflectance (percentage)
First X Value: 0.35
Last X Value: 2.5
Number of X Values: 2151
Additional Information: vegetation.shrub.ceanothus.megacarpus.vswir.vh143.ucsb.asd.ancillary.txt

 0.3500	 3.7710
 0.3510	 3.6640
 0.3520	 3.8770
 0.3530	 3.9830
 0.3540	 3.7450
 0.3550	 3.8120
 0.3560	 3.7790
 0.3570	 3.6900
 0.3580	 3.7900
 0.3590	 3.8140
 0.3600	 3.8030
 0.3610	 3.8130
 0.3620	 3.8810
 0.3630	 3.8840
 0.3640	 3.8230
 0.3650	 3.7520
 0.3660	 3.7510
 0.3670	 3.8290
 0.3680	 3.9170
 0.3690	 3.9020
 0.3700	 3.8740
 0.3710	 3.8880
 0.3720	 3.9370
 0.3730	 3.9150
 0.3740	 3.8760
 0.3750	 3.8450
 0.3760	 3.8290
 0.3770	 3.7850
 0.3780	 3.7980
 0.3790	 3.8440
 0.3800	 3.8080
 0.3810	 3.7890
 0.3820	 3.8490
 0.3830	 3.9560
 0.3840	 3.8970
 0.3850	 3.8190
 0.3860	 3.7650
 0.3870	 3.7380
 0.3880	 3.7580
 0.3890	 3.7800
 0.3900	 3.7740
 0.3910	 3.7340
 0.3920	 3.7180
 0.3930	 3.7410
 0.3940	 3.7890
 0.3950	 3.8020
 0.3960	 3.8230
 0.3970	 3.8320
 0.3980	 3.7960
 0.3990	 3.7760
 0.4000	 3.7560
 0.4010	 3.7430
 0.4020	 3.7790
 0.4030	 3.8040
 0.4040	 3.7950
 0.4050	 3.7570
 0.4060	 3.7630
 0.4070	 3.7540
 0.4080	 3.7420
 0.4090	 3.7760
 0.4100	 3.7820
 0.4110	 3.7760
 0.4120	 3.7790
 0.4130	 3.7950
 0.4140	 3.8190
 0.4150	 3.8340
 0.4160	 3.8260
 0.4170	 3.8320
 0.4180	 3.8560
 0.4190	 3.8830
 0.4200	 3.8850
 0.4210	 3.8960
 0.4220	 3.9160
 0.4230	 3.9390
 0.4240	 3.9540
 0.4250	 3.9710
 0.4260	 3.9950
 0.4270	 4.0240
 0.4280	 4.0420
 0.4290	 4.0720
 0.4300	 4.1190
 0.4310	 4.1550
 0.4320	 4.1780
 0.4330	 4.1960
 0.4340	 4.2150
 0.4350	 4.2240
 0.4360	 4.2500
 0.4370	 4.2880
 0.4380	 4.3050
 0.4390	 4.3180
 0.4400	 4.3330
 0.4410	 4.3490
 0.4420	 4.3560
 0.4430	 4.3780
 0.4440	 4.4110
 0.4450	 4.4380
 0.4460	 4.4420
 0.4470	 4.4520
 0.4480	 4.4760
 0.4490	 4.4910
 0.4500	 4.5040
 0.4510	 4.5170
 0.4520	 4.5300
 0.4530	 4.5420
 0.4540	 4.5550
 0.4550	 4.5650
 0.4560	 4.5700
 0.4570	 4.5840
 0.4580	 4.5980
 0.4590	 4.6090
 0.4600	 4.6260
 0.4610	 4.6290
 0.4620	 4.6300
 0.4630	 4.6420
 0.4640	 4.6540
 0.4650	 4.6560
 0.4660	 4.6510
 0.4670	 4.6540
 0.4680	 4.6590
 0.4690	 4.6690
 0.4700	 4.6830
 0.4710	 4.6860
 0.4720	 4.6860
 0.4730	 4.6840
 0.4740	 4.6830
 0.4750	 4.6740
 0.4760	 4.6720
 0.4770	 4.6830
 0.4780	 4.6820
 0.4790	 4.6870
 0.4800	 4.6940
 0.4810	 4.6930
 0.4820	 4.6910
 0.4830	 4.6960
 0.4840	 4.7090
 0.4850	 4.7220
 0.4860	 4.7380
 0.4870	 4.7500
 0.4880	 4.7560
 0.4890	 4.7580
 0.4900	 4.7780
 0.4910	 4.8060
 0.4920	 4.8230
 0.4930	 4.8360
 0.4940	 4.8560
 0.4950	 4.8850
 0.4960	 4.9110
 0.4970	 4.9290
 0.4980	 4.9540
 0.4990	 4.9950
 0.5000	 5.0300
 0.5010	 5.0620
 0.5020	 5.1010
 0.5030	 5.1550
 0.5040	 5.2050
 0.5050	 5.2560
 0.5060	 5.3110
 0.5070	 5.3710
 0.5080	 5.4340
 0.5090	 5.5040
 0.5100	 5.5850
 0.5110	 5.6720
 0.5120	 5.7630
 0.5130	 5.8610
 0.5140	 5.9710
 0.5150	 6.0780
 0.5160	 6.1920
 0.5170	 6.3220
 0.5180	 6.4570
 0.5190	 6.5910
 0.5200	 6.7280
 0.5210	 6.8770
 0.5220	 7.0180
 0.5230	 7.1600
 0.5240	 7.3090
 0.5250	 7.4510
 0.5260	 7.5890
 0.5270	 7.7210
 0.5280	 7.8510
 0.5290	 7.9750
 0.5300	 8.0900
 0.5310	 8.1940
 0.5320	 8.2990
 0.5330	 8.3950
 0.5340	 8.4840
 0.5350	 8.5690
 0.5360	 8.6440
 0.5370	 8.7110
 0.5380	 8.7740
 0.5390	 8.8360
 0.5400	 8.8970
 0.5410	 8.9600
 0.5420	 9.0240
 0.5430	 9.0790
 0.5440	 9.1240
 0.5450	 9.1660
 0.5460	 9.2090
 0.5470	 9.2380
 0.5480	 9.2580
 0.5490	 9.2780
 0.5500	 9.3000
 0.5510	 9.3220
 0.5520	 9.3370
 0.5530	 9.3360
 0.5540	 9.3260
 0.5550	 9.3090
 0.5560	 9.2850
 0.5570	 9.2510
 0.5580	 9.2110
 0.5590	 9.1630
 0.5600	 9.1050
 0.5610	 9.0390
 0.5620	 8.9710
 0.5630	 8.8990
 0.5640	 8.8210
 0.5650	 8.7440
 0.5660	 8.6700
 0.5670	 8.5970
 0.5680	 8.5130
 0.5690	 8.4240
 0.5700	 8.3340
 0.5710	 8.2450
 0.5720	 8.1650
 0.5730	 8.0830
 0.5740	 8.0010
 0.5750	 7.9240
 0.5760	 7.8540
 0.5770	 7.7950
 0.5780	 7.7440
 0.5790	 7.6910
 0.5800	 7.6370
 0.5810	 7.5820
 0.5820	 7.5290
 0.5830	 7.4800
 0.5840	 7.4330
 0.5850	 7.3890
 0.5860	 7.3510
 0.5870	 7.3160
 0.5880	 7.2810
 0.5890	 7.2480
 0.5900	 7.2150
 0.5910	 7.1880
 0.5920	 7.1680
 0.5930	 7.1550
 0.5940	 7.1420
 0.5950	 7.1270
 0.5960	 7.1100
 0.5970	 7.0910
 0.5980	 7.0740
 0.5990	 7.0590
 0.6000	 7.0430
 0.6010	 7.0240
 0.6020	 7.0010
 0.6030	 6.9750
 0.6040	 6.9470
 0.6050	 6.9150
 0.6060	 6.8800
 0.6070	 6.8440
 0.6080	 6.8080
 0.6090	 6.7700
 0.6100	 6.7350
 0.6110	 6.7020
 0.6120	 6.6590
 0.6130	 6.6060
 0.6140	 6.5530
 0.6150	 6.5120
 0.6160	 6.4690
 0.6170	 6.4280
 0.6180	 6.3940
 0.6190	 6.3630
 0.6200	 6.3330
 0.6210	 6.3070
 0.6220	 6.2870
 0.6230	 6.2690
 0.6240	 6.2510
 0.6250	 6.2370
 0.6260	 6.2300
 0.6270	 6.2230
 0.6280	 6.2160
 0.6290	 6.2140
 0.6300	 6.2090
 0.6310	 6.2000
 0.6320	 6.1920
 0.6330	 6.1880
 0.6340	 6.1750
 0.6350	 6.1530
 0.6360	 6.1250
 0.6370	 6.0970
 0.6380	 6.0610
 0.6390	 6.0170
 0.6400	 5.9720
 0.6410	 5.9250
 0.6420	 5.8750
 0.6430	 5.8210
 0.6440	 5.7720
 0.6450	 5.7190
 0.6460	 5.6670
 0.6470	 5.6190
 0.6480	 5.5760
 0.6490	 5.5400
 0.6500	 5.5070
 0.6510	 5.4730
 0.6520	 5.4470
 0.6530	 5.4230
 0.6540	 5.3960
 0.6550	 5.3700
 0.6560	 5.3410
 0.6570	 5.3090
 0.6580	 5.2740
 0.6590	 5.2330
 0.6600	 5.1940
 0.6610	 5.1560
 0.6620	 5.1120
 0.6630	 5.0730
 0.6640	 5.0360
 0.6650	 5.0010
 0.6660	 4.9710
 0.6670	 4.9450
 0.6680	 4.9230
 0.6690	 4.9010
 0.6700	 4.8860
 0.6710	 4.8740
 0.6720	 4.8620
 0.6730	 4.8560
 0.6740	 4.8590
 0.6750	 4.8630
 0.6760	 4.8640
 0.6770	 4.8710
 0.6780	 4.8790
 0.6790	 4.8890
 0.6800	 4.9090
 0.6810	 4.9320
 0.6820	 4.9630
 0.6830	 5.0030
 0.6840	 5.0540
 0.6850	 5.1170
 0.6860	 5.1950
 0.6870	 5.2920
 0.6880	 5.4110
 0.6890	 5.5560
 0.6900	 5.7300
 0.6910	 5.9410
 0.6920	 6.1910
 0.6930	 6.4830
 0.6940	 6.8190
 0.6950	 7.1990
 0.6960	 7.6210
 0.6970	 8.0890
 0.6980	 8.6070
 0.6990	 9.1600
 0.7000	 9.7500
 0.7010	10.3710
 0.7020	11.0210
 0.7030	11.6950
 0.7040	12.3880
 0.7050	13.0940
 0.7060	13.8140
 0.7070	14.5480
 0.7080	15.2900
 0.7090	16.0360
 0.7100	16.7880
 0.7110	17.5480
 0.7120	18.3160
 0.7130	19.0900
 0.7140	19.8650
 0.7150	20.6420
 0.7160	21.4190
 0.7170	22.2000
 0.7180	22.9770
 0.7190	23.7490
 0.7200	24.5180
 0.7210	25.2760
 0.7220	26.0270
 0.7230	26.7680
 0.7240	27.4870
 0.7250	28.1920
 0.7260	28.8810
 0.7270	29.5510
 0.7280	30.1940
 0.7290	30.8140
 0.7300	31.4120
 0.7310	31.9880
 0.7320	32.5380
 0.7330	33.0600
 0.7340	33.5560
 0.7350	34.0330
 0.7360	34.4790
 0.7370	34.9010
 0.7380	35.3050
 0.7390	35.6870
 0.7400	36.0430
 0.7410	36.3780
 0.7420	36.6980
 0.7430	36.9970
 0.7440	37.2750
 0.7450	37.5340
 0.7460	37.7750
 0.7470	38.0040
 0.7480	38.2160
 0.7490	38.4080
 0.7500	38.5920
 0.7510	38.7600
 0.7520	38.9130
 0.7530	39.0550
 0.7540	39.1830
 0.7550	39.3040
 0.7560	39.4190
 0.7570	39.5270
 0.7580	39.6270
 0.7590	39.7150
 0.7600	39.7950
 0.7610	39.8770
 0.7620	39.9540
 0.7630	40.0230
 0.7640	40.0840
 0.7650	40.1490
 0.7660	40.1990
 0.7670	40.2420
 0.7680	40.2980
 0.7690	40.3420
 0.7700	40.3850
 0.7710	40.4330
 0.7720	40.4800
 0.7730	40.5190
 0.7740	40.5510
 0.7750	40.5820
 0.7760	40.6210
 0.7770	40.6570
 0.7780	40.6890
 0.7790	40.7250
 0.7800	40.7570
 0.7810	40.7870
 0.7820	40.8170
 0.7830	40.8480
 0.7840	40.8810
 0.7850	40.9110
 0.7860	40.9390
 0.7870	40.9690
 0.7880	40.9960
 0.7890	41.0210
 0.7900	41.0500
 0.7910	41.0750
 0.7920	41.1000
 0.7930	41.1280
 0.7940	41.1580
 0.7950	41.1780
 0.7960	41.1970
 0.7970	41.2210
 0.7980	41.2450
 0.7990	41.2670
 0.8000	41.2870
 0.8010	41.3060
 0.8020	41.3210
 0.8030	41.3360
 0.8040	41.3510
 0.8050	41.3670
 0.8060	41.3800
 0.8070	41.3940
 0.8080	41.4100
 0.8090	41.4300
 0.8100	41.4450
 0.8110	41.4510
 0.8120	41.4540
 0.8130	41.4650
 0.8140	41.4720
 0.8150	41.4780
 0.8160	41.4870
 0.8170	41.4930
 0.8180	41.4960
 0.8190	41.4990
 0.8200	41.5040
 0.8210	41.5050
 0.8220	41.5030
 0.8230	41.4980
 0.8240	41.4980
 0.8250	41.4980
 0.8260	41.4960
 0.8270	41.4900
 0.8280	41.4840
 0.8290	41.4790
 0.8300	41.4700
 0.8310	41.4560
 0.8320	41.4450
 0.8330	41.4360
 0.8340	41.4300
 0.8350	41.4280
 0.8360	41.4160
 0.8370	41.4060
 0.8380	41.4020
 0.8390	41.3990
 0.8400	41.3970
 0.8410	41.3940
 0.8420	41.3890
 0.8430	41.3800
 0.8440	41.3710
 0.8450	41.3650
 0.8460	41.3650
 0.8470	41.3640
 0.8480	41.3570
 0.8490	41.3490
 0.8500	41.3500
 0.8510	41.3440
 0.8520	41.3420
 0.8530	41.3390
 0.8540	41.3310
 0.8550	41.3270
 0.8560	41.3250
 0.8570	41.3220
 0.8580	41.3200
 0.8590	41.3150
 0.8600	41.3070
 0.8610	41.3010
 0.8620	41.3020
 0.8630	41.2990
 0.8640	41.2930
 0.8650	41.2850
 0.8660	41.2860
 0.8670	41.2830
 0.8680	41.2810
 0.8690	41.2880
 0.8700	41.2740
 0.8710	41.2740
 0.8720	41.2850
 0.8730	41.2850
 0.8740	41.2830
 0.8750	41.2820
 0.8760	41.2820
 0.8770	41.2860
 0.8780	41.2870
 0.8790	41.2880
 0.8800	41.2880
 0.8810	41.2870
 0.8820	41.2820
 0.8830	41.2760
 0.8840	41.2740
 0.8850	41.2850
 0.8860	41.2890
 0.8870	41.2840
 0.8880	41.2760
 0.8890	41.2730
 0.8900	41.2670
 0.8910	41.2650
 0.8920	41.2740
 0.8930	41.2690
 0.8940	41.2590
 0.8950	41.2530
 0.8960	41.2550
 0.8970	41.2540
 0.8980	41.2490
 0.8990	41.2450
 0.9000	41.2440
 0.9010	41.2460
 0.9020	41.2430
 0.9030	41.2340
 0.9040	41.2320
 0.9050	41.2270
 0.9060	41.2210
 0.9070	41.2170
 0.9080	41.2180
 0.9090	41.2210
 0.9100	41.2220
 0.9110	41.2160
 0.9120	41.2120
 0.9130	41.2080
 0.9140	41.2060
 0.9150	41.2060
 0.9160	41.2050
 0.9170	41.1980
 0.9180	41.1920
 0.9190	41.1930
 0.9200	41.1860
 0.9210	41.1770
 0.9220	41.1670
 0.9230	41.1510
 0.9240	41.1370
 0.9250	41.1200
 0.9260	41.1020
 0.9270	41.0880
 0.9280	41.0680
 0.9290	41.0460
 0.9300	41.0210
 0.9310	40.9940
 0.9320	40.9630
 0.9330	40.9300
 0.9340	40.8980
 0.9350	40.8690
 0.9360	40.8340
 0.9370	40.8000
 0.9380	40.7670
 0.9390	40.7290
 0.9400	40.6910
 0.9410	40.6460
 0.9420	40.5960
 0.9430	40.5530
 0.9440	40.5060
 0.9450	40.4470
 0.9460	40.3790
 0.9470	40.3270
 0.9480	40.2620
 0.9490	40.1810
 0.9500	40.0880
 0.9510	40.0000
 0.9520	39.9180
 0.9530	39.8270
 0.9540	39.7190
 0.9550	39.6120
 0.9560	39.5110
 0.9570	39.4130
 0.9580	39.3130
 0.9590	39.2120
 0.9600	39.1210
 0.9610	39.0430
 0.9620	38.9800
 0.9630	38.9250
 0.9640	38.8730
 0.9650	38.8200
 0.9660	38.7640
 0.9670	38.7270
 0.9680	38.6950
 0.9690	38.6630
 0.9700	38.6290
 0.9710	38.5970
 0.9720	38.5800
 0.9730	38.5680
 0.9740	38.5450
 0.9750	38.5240
 0.9760	38.5150
 0.9770	38.5100
 0.9780	38.4990
 0.9790	38.4920
 0.9800	38.4830
 0.9810	38.4820
 0.9820	38.4970
 0.9830	38.5230
 0.9840	38.5330
 0.9850	38.5430
 0.9860	38.5740
 0.9870	38.5880
 0.9880	38.5980
 0.9890	38.6300
 0.9900	38.6910
 0.9910	38.7120
 0.9920	38.8120
 0.9930	38.9120
 0.9940	39.0110
 0.9950	39.1110
 0.9960	39.2110
 0.9970	39.3100
 0.9980	39.4100
 0.9990	39.5100
 1.0000	39.6100
 1.0010	39.7090
 1.0020	39.8090
 1.0030	39.9090
 1.0040	40.0080
 1.0050	40.1080
 1.0060	40.2080
 1.0070	40.3070
 1.0080	40.4070
 1.0090	40.5070
 1.0100	40.5070
 1.0110	40.5550
 1.0120	40.6020
 1.0130	40.6470
 1.0140	40.6890
 1.0150	40.7270
 1.0160	40.7720
 1.0170	40.8170
 1.0180	40.8560
 1.0190	40.9000
 1.0200	40.9420
 1.0210	40.9710
 1.0220	41.0070
 1.0230	41.0460
 1.0240	41.0850
 1.0250	41.1260
 1.0260	41.1760
 1.0270	41.2190
 1.0280	41.2600
 1.0290	41.2970
 1.0300	41.3310
 1.0310	41.3650
 1.0320	41.3980
 1.0330	41.4290
 1.0340	41.4620
 1.0350	41.4970
 1.0360	41.5330
 1.0370	41.5680
 1.0380	41.6000
 1.0390	41.6330
 1.0400	41.6630
 1.0410	41.6890
 1.0420	41.7180
 1.0430	41.7510
 1.0440	41.7770
 1.0450	41.8010
 1.0460	41.8260
 1.0470	41.8440
 1.0480	41.8660
 1.0490	41.8930
 1.0500	41.9150
 1.0510	41.9330
 1.0520	41.9510
 1.0530	41.9700
 1.0540	41.9870
 1.0550	42.0050
 1.0560	42.0250
 1.0570	42.0410
 1.0580	42.0540
 1.0590	42.0680
 1.0600	42.0830
 1.0610	42.0950
 1.0620	42.1050
 1.0630	42.1160
 1.0640	42.1280
 1.0650	42.1370
 1.0660	42.1440
 1.0670	42.1520
 1.0680	42.1590
 1.0690	42.1640
 1.0700	42.1700
 1.0710	42.1770
 1.0720	42.1820
 1.0730	42.1840
 1.0740	42.1850
 1.0750	42.1840
 1.0760	42.1850
 1.0770	42.1850
 1.0780	42.1820
 1.0790	42.1800
 1.0800	42.1760
 1.0810	42.1680
 1.0820	42.1610
 1.0830	42.1570
 1.0840	42.1510
 1.0850	42.1420
 1.0860	42.1340
 1.0870	42.1250
 1.0880	42.1150
 1.0890	42.1040
 1.0900	42.0950
 1.0910	42.0840
 1.0920	42.0720
 1.0930	42.0580
 1.0940	42.0440
 1.0950	42.0270
 1.0960	42.0080
 1.0970	41.9890
 1.0980	41.9690
 1.0990	41.9500
 1.1000	41.9350
 1.1010	41.9140
 1.1020	41.8920
 1.1030	41.8680
 1.1040	41.8430
 1.1050	41.8160
 1.1060	41.7900
 1.1070	41.7650
 1.1080	41.7370
 1.1090	41.7070
 1.1100	41.6740
 1.1110	41.6380
 1.1120	41.6030
 1.1130	41.5700
 1.1140	41.5310
 1.1150	41.4930
 1.1160	41.4480
 1.1170	41.3970
 1.1180	41.3440
 1.1190	41.2900
 1.1200	41.2290
 1.1210	41.1640
 1.1220	41.0930
 1.1230	41.0150
 1.1240	40.9330
 1.1250	40.8460
 1.1260	40.7550
 1.1270	40.6550
 1.1280	40.5500
 1.1290	40.4360
 1.1300	40.3130
 1.1310	40.1820
 1.1320	40.0460
 1.1330	39.8990
 1.1340	39.7450
 1.1350	39.5810
 1.1360	39.4080
 1.1370	39.2250
 1.1380	39.0350
 1.1390	38.8360
 1.1400	38.6290
 1.1410	38.4190
 1.1420	38.2050
 1.1430	37.9860
 1.1440	37.7660
 1.1450	37.5410
 1.1460	37.3200
 1.1470	37.0950
 1.1480	36.8810
 1.1490	36.6690
 1.1500	36.4710
 1.1510	36.2770
 1.1520	36.0970
 1.1530	35.9260
 1.1540	35.7690
 1.1550	35.6220
 1.1560	35.4890
 1.1570	35.3660
 1.1580	35.2570
 1.1590	35.1600
 1.1600	35.0730
 1.1610	34.9980
 1.1620	34.9310
 1.1630	34.8740
 1.1640	34.8240
 1.1650	34.7800
 1.1660	34.7450
 1.1670	34.7130
 1.1680	34.6870
 1.1690	34.6620
 1.1700	34.6420
 1.1710	34.6220
 1.1720	34.6030
 1.1730	34.5860
 1.1740	34.5720
 1.1750	34.5570
 1.1760	34.5400
 1.1770	34.5240
 1.1780	34.5060
 1.1790	34.4870
 1.1800	34.4670
 1.1810	34.4450
 1.1820	34.4230
 1.1830	34.4000
 1.1840	34.3800
 1.1850	34.3620
 1.1860	34.3450
 1.1870	34.3270
 1.1880	34.3090
 1.1890	34.2920
 1.1900	34.2760
 1.1910	34.2600
 1.1920	34.2490
 1.1930	34.2410
 1.1940	34.2340
 1.1950	34.2310
 1.1960	34.2300
 1.1970	34.2280
 1.1980	34.2300
 1.1990	34.2340
 1.2000	34.2400
 1.2010	34.2510
 1.2020	34.2650
 1.2030	34.2790
 1.2040	34.2960
 1.2050	34.3160
 1.2060	34.3380
 1.2070	34.3640
 1.2080	34.3930
 1.2090	34.4230
 1.2100	34.4550
 1.2110	34.4890
 1.2120	34.5250
 1.2130	34.5630
 1.2140	34.6030
 1.2150	34.6450
 1.2160	34.6890
 1.2170	34.7340
 1.2180	34.7800
 1.2190	34.8270
 1.2200	34.8750
 1.2210	34.9230
 1.2220	34.9690
 1.2230	35.0160
 1.2240	35.0640
 1.2250	35.1090
 1.2260	35.1550
 1.2270	35.2000
 1.2280	35.2430
 1.2290	35.2850
 1.2300	35.3260
 1.2310	35.3660
 1.2320	35.4070
 1.2330	35.4460
 1.2340	35.4840
 1.2350	35.5200
 1.2360	35.5560
 1.2370	35.5900
 1.2380	35.6240
 1.2390	35.6600
 1.2400	35.6930
 1.2410	35.7250
 1.2420	35.7550
 1.2430	35.7820
 1.2440	35.8090
 1.2450	35.8360
 1.2460	35.8600
 1.2470	35.8860
 1.2480	35.9120
 1.2490	35.9380
 1.2500	35.9610
 1.2510	35.9820
 1.2520	36.0020
 1.2530	36.0200
 1.2540	36.0370
 1.2550	36.0540
 1.2560	36.0670
 1.2570	36.0810
 1.2580	36.0920
 1.2590	36.1000
 1.2600	36.1060
 1.2610	36.1120
 1.2620	36.1170
 1.2630	36.1220
 1.2640	36.1280
 1.2650	36.1310
 1.2660	36.1350
 1.2670	36.1350
 1.2680	36.1340
 1.2690	36.1330
 1.2700	36.1300
 1.2710	36.1240
 1.2720	36.1170
 1.2730	36.1080
 1.2740	36.1000
 1.2750	36.0890
 1.2760	36.0770
 1.2770	36.0630
 1.2780	36.0460
 1.2790	36.0290
 1.2800	36.0110
 1.2810	35.9890
 1.2820	35.9650
 1.2830	35.9380
 1.2840	35.9070
 1.2850	35.8750
 1.2860	35.8400
 1.2870	35.8030
 1.2880	35.7620
 1.2890	35.7180
 1.2900	35.6710
 1.2910	35.6220
 1.2920	35.5700
 1.2930	35.5150
 1.2940	35.4560
 1.2950	35.3900
 1.2960	35.3220
 1.2970	35.2500
 1.2980	35.1730
 1.2990	35.0960
 1.3000	35.0170
 1.3010	34.9330
 1.3020	34.8460
 1.3030	34.7550
 1.3040	34.6590
 1.3050	34.5580
 1.3060	34.4550
 1.3070	34.3460
 1.3080	34.2360
 1.3090	34.1240
 1.3100	34.0050
 1.3110	33.8830
 1.3120	33.7550
 1.3130	33.6220
 1.3140	33.4850
 1.3150	33.3440
 1.3160	33.1980
 1.3170	33.0480
 1.3180	32.8940
 1.3190	32.7360
 1.3200	32.5740
 1.3210	32.4060
 1.3220	32.2360
 1.3230	32.0640
 1.3240	31.8860
 1.3250	31.7060
 1.3260	31.5220
 1.3270	31.3320
 1.3280	31.1410
 1.3290	30.9480
 1.3300	30.7540
 1.3310	30.5590
 1.3320	30.3600
 1.3330	30.1620
 1.3340	29.9610
 1.3350	29.7580
 1.3360	29.5570
 1.3370	29.3550
 1.3380	29.1550
 1.3390	28.9560
 1.3400	28.7570
 1.3410	28.5610
 1.3420	28.3670
 1.3430	28.1750
 1.3440	27.9870
 1.3450	27.8010
 1.3460	27.6170
 1.3470	27.4370
 1.3480	27.2570
 1.3490	27.0820
 1.3500	26.9090
 1.3510	26.7400
 1.3520	26.5730
 1.3530	26.4090
 1.3540	26.2430
 1.3550	26.0810
 1.3560	25.9190
 1.3570	25.7550
 1.3580	25.5940
 1.3590	25.4320
 1.3600	25.2650
 1.3610	25.0970
 1.3620	24.9230
 1.3630	24.7440
 1.3640	24.5610
 1.3650	24.3710
 1.3660	24.1750
 1.3670	23.9720
 1.3680	23.7570
 1.3690	23.5330
 1.3700	23.2980
 1.3710	23.0510
 1.3720	22.7920
 1.3730	22.5180
 1.3740	22.2310
 1.3750	21.9270
 1.3760	21.6060
 1.3770	21.2680
 1.3780	20.9070
 1.3790	20.5300
 1.3800	20.1350
 1.3810	19.7200
 1.3820	19.2950
 1.3830	18.8560
 1.3840	18.4060
 1.3850	17.9430
 1.3860	17.4760
 1.3870	16.9950
 1.3880	16.5190
 1.3890	16.0390
 1.3900	15.5580
 1.3910	15.0850
 1.3920	14.6140
 1.3930	14.1460
 1.3940	13.6880
 1.3950	13.2370
 1.3960	12.7970
 1.3970	12.3750
 1.3980	11.9650
 1.3990	11.5780
 1.4000	11.2080
 1.4010	10.8520
 1.4020	10.5170
 1.4030	10.1970
 1.4040	 9.8950
 1.4050	 9.6130
 1.4060	 9.3480
 1.4070	 9.1040
 1.4080	 8.8760
 1.4090	 8.6620
 1.4100	 8.4670
 1.4110	 8.2850
 1.4120	 8.1170
 1.4130	 7.9640
 1.4140	 7.8230
 1.4150	 7.6940
 1.4160	 7.5770
 1.4170	 7.4700
 1.4180	 7.3720
 1.4190	 7.2830
 1.4200	 7.2010
 1.4210	 7.1280
 1.4220	 7.0610
 1.4230	 7.0010
 1.4240	 6.9470
 1.4250	 6.8960
 1.4260	 6.8510
 1.4270	 6.8110
 1.4280	 6.7770
 1.4290	 6.7450
 1.4300	 6.7190
 1.4310	 6.6950
 1.4320	 6.6740
 1.4330	 6.6550
 1.4340	 6.6410
 1.4350	 6.6270
 1.4360	 6.6170
 1.4370	 6.6090
 1.4380	 6.6030
 1.4390	 6.5990
 1.4400	 6.5970
 1.4410	 6.5970
 1.4420	 6.5980
 1.4430	 6.6000
 1.4440	 6.6030
 1.4450	 6.6080
 1.4460	 6.6140
 1.4470	 6.6200
 1.4480	 6.6280
 1.4490	 6.6360
 1.4500	 6.6440
 1.4510	 6.6520
 1.4520	 6.6620
 1.4530	 6.6720
 1.4540	 6.6830
 1.4550	 6.6960
 1.4560	 6.7090
 1.4570	 6.7230
 1.4580	 6.7370
 1.4590	 6.7530
 1.4600	 6.7700
 1.4610	 6.7890
 1.4620	 6.8100
 1.4630	 6.8340
 1.4640	 6.8590
 1.4650	 6.8860
 1.4660	 6.9150
 1.4670	 6.9450
 1.4680	 6.9780
 1.4690	 7.0140
