Name: Tipuana tipu
Type: vegetation
Class: Tree
Genus: Tipuana
Species: tipu
Sample No.: JPL252
Owner: JPL
Wavelength Range: VSWIR
Origin: 34.12974; -118.11245; WGS84
Collection Date: 10/6/2016
Description: Samples were collected at the Huntington Garden in San Marino California as part of a JPL Subcontract studying HyTES imagery. Samples were taken to JPL and processed within 48 hours of collection. The same leaves were processed in the Nicolet and then measured using the ASD.
Measurement: Bidirectional reflectance
First Column: X
Second Column: Y
X Units: Wavelength (micrometer)
Y Units: Reflectance (percentage)
First X Value: 0.35
Last X Value: 2.5
Number of X Values: 2151
Additional Information: vegetation.tree.tipuana.tipu.vswir.jpl252.jpl.asd.ancillary.txt

 0.3500	 4.9270
 0.3510	 4.8140
 0.3520	 4.6340
 0.3530	 4.5520
 0.3540	 4.6320
 0.3550	 4.6050
 0.3560	 4.5800
 0.3570	 4.5570
 0.3580	 4.4910
 0.3590	 4.5280
 0.3600	 4.5470
 0.3610	 4.4990
 0.3620	 4.4610
 0.3630	 4.4320
 0.3640	 4.4280
 0.3650	 4.4480
 0.3660	 4.4280
 0.3670	 4.3810
 0.3680	 4.3440
 0.3690	 4.3630
 0.3700	 4.3600
 0.3710	 4.3640
 0.3720	 4.3880
 0.3730	 4.3790
 0.3740	 4.3420
 0.3750	 4.2970
 0.3760	 4.2690
 0.3770	 4.2900
 0.3780	 4.2900
 0.3790	 4.2840
 0.3800	 4.3510
 0.3810	 4.3520
 0.3820	 4.3100
 0.3830	 4.2720
 0.3840	 4.2940
 0.3850	 4.2440
 0.3860	 4.2010
 0.3870	 4.2740
 0.3880	 4.2870
 0.3890	 4.2530
 0.3900	 4.2120
 0.3910	 4.2110
 0.3920	 4.1930
 0.3930	 4.1620
 0.3940	 4.1440
 0.3950	 4.1920
 0.3960	 4.2110
 0.3970	 4.1980
 0.3980	 4.1920
 0.3990	 4.2200
 0.4000	 4.2240
 0.4010	 4.1970
 0.4020	 4.2090
 0.4030	 4.2290
 0.4040	 4.2390
 0.4050	 4.2330
 0.4060	 4.2270
 0.4070	 4.2430
 0.4080	 4.2710
 0.4090	 4.2820
 0.4100	 4.2820
 0.4110	 4.2830
 0.4120	 4.2950
 0.4130	 4.3240
 0.4140	 4.3500
 0.4150	 4.3670
 0.4160	 4.3800
 0.4170	 4.4160
 0.4180	 4.4500
 0.4190	 4.4710
 0.4200	 4.4890
 0.4210	 4.5090
 0.4220	 4.5370
 0.4230	 4.5700
 0.4240	 4.5950
 0.4250	 4.6220
 0.4260	 4.6500
 0.4270	 4.6750
 0.4280	 4.7070
 0.4290	 4.7340
 0.4300	 4.7540
 0.4310	 4.7790
 0.4320	 4.8020
 0.4330	 4.8250
 0.4340	 4.8520
 0.4350	 4.8670
 0.4360	 4.8830
 0.4370	 4.9010
 0.4380	 4.9100
 0.4390	 4.9220
 0.4400	 4.9320
 0.4410	 4.9350
 0.4420	 4.9450
 0.4430	 4.9520
 0.4440	 4.9580
 0.4450	 4.9710
 0.4460	 4.9840
 0.4470	 4.9980
 0.4480	 5.0120
 0.4490	 5.0190
 0.4500	 5.0310
 0.4510	 5.0440
 0.4520	 5.0560
 0.4530	 5.0690
 0.4540	 5.0750
 0.4550	 5.0820
 0.4560	 5.1020
 0.4570	 5.1080
 0.4580	 5.1090
 0.4590	 5.1100
 0.4600	 5.1130
 0.4610	 5.1170
 0.4620	 5.1210
 0.4630	 5.1240
 0.4640	 5.1280
 0.4650	 5.1270
 0.4660	 5.1220
 0.4670	 5.1220
 0.4680	 5.1240
 0.4690	 5.1240
 0.4700	 5.1220
 0.4710	 5.1160
 0.4720	 5.1150
 0.4730	 5.1140
 0.4740	 5.1040
 0.4750	 5.0980
 0.4760	 5.0970
 0.4770	 5.0990
 0.4780	 5.0910
 0.4790	 5.0870
 0.4800	 5.0860
 0.4810	 5.0810
 0.4820	 5.0830
 0.4830	 5.0930
 0.4840	 5.1060
 0.4850	 5.1090
 0.4860	 5.1150
 0.4870	 5.1210
 0.4880	 5.1260
 0.4890	 5.1430
 0.4900	 5.1560
 0.4910	 5.1680
 0.4920	 5.1840
 0.4930	 5.1980
 0.4940	 5.2160
 0.4950	 5.2400
 0.4960	 5.2630
 0.4970	 5.2860
 0.4980	 5.3110
 0.4990	 5.3410
 0.5000	 5.3750
 0.5010	 5.4130
 0.5020	 5.4540
 0.5030	 5.4990
 0.5040	 5.5430
 0.5050	 5.5940
 0.5060	 5.6530
 0.5070	 5.7130
 0.5080	 5.7830
 0.5090	 5.8610
 0.5100	 5.9400
 0.5110	 6.0270
 0.5120	 6.1200
 0.5130	 6.2170
 0.5140	 6.3260
 0.5150	 6.4420
 0.5160	 6.5680
 0.5170	 6.7010
 0.5180	 6.8420
 0.5190	 6.9900
 0.5200	 7.1450
 0.5210	 7.3070
 0.5220	 7.4700
 0.5230	 7.6350
 0.5240	 7.8020
 0.5250	 7.9680
 0.5260	 8.1310
 0.5270	 8.2890
 0.5280	 8.4410
 0.5290	 8.5860
 0.5300	 8.7230
 0.5310	 8.8500
 0.5320	 8.9710
 0.5330	 9.0840
 0.5340	 9.1870
 0.5350	 9.2820
 0.5360	 9.3640
 0.5370	 9.4400
 0.5380	 9.5120
 0.5390	 9.5810
 0.5400	 9.6540
 0.5410	 9.7310
 0.5420	 9.8080
 0.5430	 9.8750
 0.5440	 9.9210
 0.5450	 9.9470
 0.5460	 9.9600
 0.5470	 9.9620
 0.5480	 9.9640
 0.5490	 9.9720
 0.5500	 9.9860
 0.5510	 9.9940
 0.5520	 9.9910
 0.5530	 9.9760
 0.5540	 9.9510
 0.5550	 9.9110
 0.5560	 9.8590
 0.5570	 9.8000
 0.5580	 9.7290
 0.5590	 9.6500
 0.5600	 9.5660
 0.5610	 9.4730
 0.5620	 9.3790
 0.5630	 9.2840
 0.5640	 9.1820
 0.5650	 9.0790
 0.5660	 8.9740
 0.5670	 8.8670
 0.5680	 8.7530
 0.5690	 8.6370
 0.5700	 8.5200
 0.5710	 8.4030
 0.5720	 8.2910
 0.5730	 8.1820
 0.5740	 8.0770
 0.5750	 7.9750
 0.5760	 7.8820
 0.5770	 7.7960
 0.5780	 7.7170
 0.5790	 7.6440
 0.5800	 7.5800
 0.5810	 7.5200
 0.5820	 7.4600
 0.5830	 7.4050
 0.5840	 7.3550
 0.5850	 7.3060
 0.5860	 7.2580
 0.5870	 7.2140
 0.5880	 7.1730
 0.5890	 7.1360
 0.5900	 7.0980
 0.5910	 7.0640
 0.5920	 7.0340
 0.5930	 7.0070
 0.5940	 6.9820
 0.5950	 6.9600
 0.5960	 6.9390
 0.5970	 6.9200
 0.5980	 6.9010
 0.5990	 6.8800
 0.6000	 6.8580
 0.6010	 6.8320
 0.6020	 6.8010
 0.6030	 6.7650
 0.6040	 6.7270
 0.6050	 6.6850
 0.6060	 6.6380
 0.6070	 6.5900
 0.6080	 6.5390
 0.6090	 6.4930
 0.6100	 6.4570
 0.6110	 6.4270
 0.6120	 6.3740
 0.6130	 6.3020
 0.6140	 6.2250
 0.6150	 6.1640
 0.6160	 6.1070
 0.6170	 6.0550
 0.6180	 6.0110
 0.6190	 5.9720
 0.6200	 5.9370
 0.6210	 5.9050
 0.6220	 5.8760
 0.6230	 5.8490
 0.6240	 5.8240
 0.6250	 5.8020
 0.6260	 5.7870
 0.6270	 5.7720
 0.6280	 5.7600
 0.6290	 5.7510
 0.6300	 5.7430
 0.6310	 5.7350
 0.6320	 5.7240
 0.6330	 5.7120
 0.6340	 5.6980
 0.6350	 5.6820
 0.6360	 5.6630
 0.6370	 5.6390
 0.6380	 5.6110
 0.6390	 5.5800
 0.6400	 5.5470
 0.6410	 5.5150
 0.6420	 5.4790
 0.6430	 5.4410
 0.6440	 5.4030
 0.6450	 5.3640
 0.6460	 5.3260
 0.6470	 5.2890
 0.6480	 5.2490
 0.6490	 5.2130
 0.6500	 5.1810
 0.6510	 5.1490
 0.6520	 5.1170
 0.6530	 5.0870
 0.6540	 5.0600
 0.6550	 5.0300
 0.6560	 4.9960
 0.6570	 4.9600
 0.6580	 4.9210
 0.6590	 4.8800
 0.6600	 4.8380
 0.6610	 4.7960
 0.6620	 4.7560
 0.6630	 4.7190
 0.6640	 4.6860
 0.6650	 4.6560
 0.6660	 4.6310
 0.6670	 4.6100
 0.6680	 4.5950
 0.6690	 4.5860
 0.6700	 4.5790
 0.6710	 4.5790
 0.6720	 4.5850
 0.6730	 4.5930
 0.6740	 4.6060
 0.6750	 4.6230
 0.6760	 4.6430
 0.6770	 4.6660
 0.6780	 4.6950
 0.6790	 4.7280
 0.6800	 4.7630
 0.6810	 4.8040
 0.6820	 4.8510
 0.6830	 4.9030
 0.6840	 4.9600
 0.6850	 5.0240
 0.6860	 5.0950
 0.6870	 5.1750
 0.6880	 5.2660
 0.6890	 5.3750
 0.6900	 5.5060
 0.6910	 5.6620
 0.6920	 5.8480
 0.6930	 6.0670
 0.6940	 6.3240
 0.6950	 6.6250
 0.6960	 6.9730
 0.6970	 7.3690
 0.6980	 7.8120
 0.6990	 8.3040
 0.7000	 8.8460
 0.7010	 9.4330
 0.7020	10.0600
 0.7030	10.7260
 0.7040	11.4280
 0.7050	12.1610
 0.7060	12.9220
 0.7070	13.7080
 0.7080	14.5160
 0.7090	15.3450
 0.7100	16.1940
 0.7110	17.0650
 0.7120	17.9570
 0.7130	18.8640
 0.7140	19.7850
 0.7150	20.7210
 0.7160	21.6710
 0.7170	22.6320
 0.7180	23.6010
 0.7190	24.5730
 0.7200	25.5450
 0.7210	26.5170
 0.7220	27.4840
 0.7230	28.4410
 0.7240	29.3880
 0.7250	30.3230
 0.7260	31.2370
 0.7270	32.1280
 0.7280	32.9940
 0.7290	33.8340
 0.7300	34.6470
 0.7310	35.4300
 0.7320	36.1820
 0.7330	36.9020
 0.7340	37.5890
 0.7350	38.2430
 0.7360	38.8640
 0.7370	39.4520
 0.7380	40.0080
 0.7390	40.5320
 0.7400	41.0260
 0.7410	41.4880
 0.7420	41.9200
 0.7430	42.3210
 0.7440	42.6930
 0.7450	43.0390
 0.7460	43.3580
 0.7470	43.6530
 0.7480	43.9220
 0.7490	44.1660
 0.7500	44.3930
 0.7510	44.6020
 0.7520	44.7900
 0.7530	44.9600
 0.7540	45.1160
 0.7550	45.2570
 0.7560	45.3840
 0.7570	45.5020
 0.7580	45.6050
 0.7590	45.7000
 0.7600	45.7880
 0.7610	45.8670
 0.7620	45.9370
 0.7630	46.0000
 0.7640	46.0570
 0.7650	46.1090
 0.7660	46.1540
 0.7670	46.1930
 0.7680	46.2280
 0.7690	46.2580
 0.7700	46.2860
 0.7710	46.3130
 0.7720	46.3370
 0.7730	46.3570
 0.7740	46.3760
 0.7750	46.3960
 0.7760	46.4110
 0.7770	46.4240
 0.7780	46.4360
 0.7790	46.4480
 0.7800	46.4600
 0.7810	46.4730
 0.7820	46.4860
 0.7830	46.4940
 0.7840	46.5030
 0.7850	46.5100
 0.7860	46.5140
 0.7870	46.5180
 0.7880	46.5230
 0.7890	46.5250
 0.7900	46.5240
 0.7910	46.5270
 0.7920	46.5280
 0.7930	46.5260
 0.7940	46.5240
 0.7950	46.5240
 0.7960	46.5220
 0.7970	46.5180
 0.7980	46.5110
 0.7990	46.5030
 0.8000	46.4950
 0.8010	46.4870
 0.8020	46.4830
 0.8030	46.4750
 0.8040	46.4640
 0.8050	46.4540
 0.8060	46.4430
 0.8070	46.4310
 0.8080	46.4200
 0.8090	46.4090
 0.8100	46.3960
 0.8110	46.3830
 0.8120	46.3700
 0.8130	46.3530
 0.8140	46.3370
 0.8150	46.3230
 0.8160	46.3090
 0.8170	46.2950
 0.8180	46.2810
 0.8190	46.2650
 0.8200	46.2480
 0.8210	46.2340
 0.8220	46.2200
 0.8230	46.2050
 0.8240	46.1890
 0.8250	46.1730
 0.8260	46.1570
 0.8270	46.1420
 0.8280	46.1290
 0.8290	46.1120
 0.8300	46.0960
 0.8310	46.0850
 0.8320	46.0700
 0.8330	46.0580
 0.8340	46.0480
 0.8350	46.0330
 0.8360	46.0250
 0.8370	46.0160
 0.8380	46.0070
 0.8390	46.0000
 0.8400	45.9930
 0.8410	45.9870
 0.8420	45.9830
 0.8430	45.9770
 0.8440	45.9730
 0.8450	45.9680
 0.8460	45.9630
 0.8470	45.9600
 0.8480	45.9600
 0.8490	45.9600
 0.8500	45.9570
 0.8510	45.9530
 0.8520	45.9510
 0.8530	45.9530
 0.8540	45.9570
 0.8550	45.9550
 0.8560	45.9530
 0.8570	45.9550
 0.8580	45.9580
 0.8590	45.9610
 0.8600	45.9670
 0.8610	45.9740
 0.8620	45.9750
 0.8630	45.9810
 0.8640	45.9890
 0.8650	45.9950
 0.8660	45.9990
 0.8670	46.0040
 0.8680	46.0100
 0.8690	46.0180
 0.8700	46.0270
 0.8710	46.0340
 0.8720	46.0400
 0.8730	46.0490
 0.8740	46.0570
 0.8750	46.0670
 0.8760	46.0770
 0.8770	46.0810
 0.8780	46.0880
 0.8790	46.0950
 0.8800	46.1030
 0.8810	46.1120
 0.8820	46.1260
 0.8830	46.1380
 0.8840	46.1440
 0.8850	46.1480
 0.8860	46.1560
 0.8870	46.1660
 0.8880	46.1730
 0.8890	46.1810
 0.8900	46.1910
 0.8910	46.2000
 0.8920	46.2050
 0.8930	46.2130
 0.8940	46.2230
 0.8950	46.2320
 0.8960	46.2360
 0.8970	46.2470
 0.8980	46.2550
 0.8990	46.2600
 0.9000	46.2720
 0.9010	46.2780
 0.9020	46.2830
 0.9030	46.2910
 0.9040	46.2980
 0.9050	46.3040
 0.9060	46.3090
 0.9070	46.3150
 0.9080	46.3220
 0.9090	46.3220
 0.9100	46.3240
 0.9110	46.3330
 0.9120	46.3380
 0.9130	46.3410
 0.9140	46.3430
 0.9150	46.3450
 0.9160	46.3520
 0.9170	46.3540
 0.9180	46.3530
 0.9190	46.3550
 0.9200	46.3580
 0.9210	46.3520
 0.9220	46.3430
 0.9230	46.3410
 0.9240	46.3370
 0.9250	46.3270
 0.9260	46.3140
 0.9270	46.3090
 0.9280	46.2980
 0.9290	46.2820
 0.9300	46.2660
 0.9310	46.2550
 0.9320	46.2410
 0.9330	46.2250
 0.9340	46.2060
 0.9350	46.1810
 0.9360	46.1590
 0.9370	46.1400
 0.9380	46.1230
 0.9390	46.1010
 0.9400	46.0700
 0.9410	46.0410
 0.9420	46.0180
 0.9430	45.9890
 0.9440	45.9600
 0.9450	45.9230
 0.9460	45.8780
 0.9470	45.8440
 0.9480	45.8120
 0.9490	45.7740
 0.9500	45.7270
 0.9510	45.6800
 0.9520	45.6290
 0.9530	45.5790
 0.9540	45.5300
 0.9550	45.4770
 0.9560	45.4280
 0.9570	45.3820
 0.9580	45.3330
 0.9590	45.2900
 0.9600	45.2480
 0.9610	45.2090
 0.9620	45.1760
 0.9630	45.1400
 0.9640	45.1140
 0.9650	45.0940
 0.9660	45.0710
 0.9670	45.0490
 0.9680	45.0260
 0.9690	45.0080
 0.9700	44.9970
 0.9710	44.9710
 0.9720	44.9550
 0.9730	44.9500
 0.9740	44.9430
 0.9750	44.9260
 0.9760	44.9210
 0.9770	44.9270
 0.9780	44.9280
 0.9790	44.9140
 0.9800	44.9020
 0.9810	44.8960
 0.9820	44.8890
 0.9830	44.8850
 0.9840	44.8860
 0.9850	44.8860
 0.9860	44.8810
 0.9870	44.8880
 0.9880	44.8990
 0.9890	44.9070
 0.9900	44.9070
 0.9910	44.9120
 0.9920	44.9180
 0.9930	44.9320
 0.9940	44.9560
 0.9950	44.9680
 0.9960	44.9730
 0.9970	44.9750
 0.9980	44.9750
 0.9990	44.9870
 1.0000	45.0030
 1.0010	45.7290
 1.0020	45.7380
 1.0030	45.7480
 1.0040	45.7590
 1.0050	45.7700
 1.0060	45.7800
 1.0070	45.7890
 1.0080	45.8020
 1.0090	45.8170
 1.0100	45.8290
 1.0110	45.8440
 1.0120	45.8550
 1.0130	45.8600
 1.0140	45.8690
 1.0150	45.8800
 1.0160	45.8890
 1.0170	45.9020
 1.0180	45.9150
 1.0190	45.9290
 1.0200	45.9400
 1.0210	45.9490
 1.0220	45.9560
 1.0230	45.9670
 1.0240	45.9790
 1.0250	45.9890
 1.0260	46.0010
 1.0270	46.0130
 1.0280	46.0230
 1.0290	46.0340
 1.0300	46.0480
 1.0310	46.0610
 1.0320	46.0730
 1.0330	46.0840
 1.0340	46.0970
 1.0350	46.1090
 1.0360	46.1190
 1.0370	46.1290
 1.0380	46.1390
 1.0390	46.1470
 1.0400	46.1570
 1.0410	46.1680
 1.0420	46.1770
 1.0430	46.1830
 1.0440	46.1910
 1.0450	46.2000
 1.0460	46.2070
 1.0470	46.2130
 1.0480	46.2210
 1.0490	46.2290
 1.0500	46.2360
 1.0510	46.2430
 1.0520	46.2500
 1.0530	46.2550
 1.0540	46.2560
 1.0550	46.2590
 1.0560	46.2610
 1.0570	46.2650
 1.0580	46.2720
 1.0590	46.2750
 1.0600	46.2780
 1.0610	46.2820
 1.0620	46.2840
 1.0630	46.2860
 1.0640	46.2890
 1.0650	46.2910
 1.0660	46.2910
 1.0670	46.2910
 1.0680	46.2910
 1.0690	46.2910
 1.0700	46.2920
 1.0710	46.2930
 1.0720	46.2930
 1.0730	46.2970
 1.0740	46.2940
 1.0750	46.2860
 1.0760	46.2830
 1.0770	46.2760
 1.0780	46.2720
 1.0790	46.2740
 1.0800	46.2720
 1.0810	46.2690
 1.0820	46.2650
 1.0830	46.2590
 1.0840	46.2530
 1.0850	46.2450
 1.0860	46.2390
 1.0870	46.2330
 1.0880	46.2250
 1.0890	46.2190
 1.0900	46.2150
 1.0910	46.2080
 1.0920	46.2030
 1.0930	46.1940
 1.0940	46.1810
 1.0950	46.1700
 1.0960	46.1570
 1.0970	46.1470
 1.0980	46.1420
 1.0990	46.1320
 1.1000	46.1200
 1.1010	46.1090
 1.1020	46.0950
 1.1030	46.0830
 1.1040	46.0740
 1.1050	46.0640
 1.1060	46.0520
 1.1070	46.0370
 1.1080	46.0230
 1.1090	46.0080
 1.1100	45.9940
 1.1110	45.9810
 1.1120	45.9670
 1.1130	45.9520
 1.1140	45.9370
 1.1150	45.9220
 1.1160	45.9050
 1.1170	45.8860
 1.1180	45.8670
 1.1190	45.8480
 1.1200	45.8260
 1.1210	45.8030
 1.1220	45.7760
 1.1230	45.7450
 1.1240	45.7120
 1.1250	45.6760
 1.1260	45.6390
 1.1270	45.5940
 1.1280	45.5470
 1.1290	45.4910
 1.1300	45.4300
 1.1310	45.3630
 1.1320	45.2900
 1.1330	45.2140
 1.1340	45.1330
 1.1350	45.0450
 1.1360	44.9530
 1.1370	44.8560
 1.1380	44.7500
 1.1390	44.6400
 1.1400	44.5260
 1.1410	44.4090
 1.1420	44.2900
 1.1430	44.1700
 1.1440	44.0500
 1.1450	43.9290
 1.1460	43.8130
 1.1470	43.6970
 1.1480	43.5860
 1.1490	43.4760
 1.1500	43.3730
 1.1510	43.2720
 1.1520	43.1780
 1.1530	43.0870
 1.1540	43.0060
 1.1550	42.9320
 1.1560	42.8610
 1.1570	42.7980
 1.1580	42.7400
 1.1590	42.6830
 1.1600	42.6340
 1.1610	42.5900
 1.1620	42.5510
 1.1630	42.5170
 1.1640	42.4840
 1.1650	42.4530
 1.1660	42.4230
 1.1670	42.3970
 1.1680	42.3740
 1.1690	42.3530
 1.1700	42.3350
 1.1710	42.3160
 1.1720	42.2970
 1.1730	42.2780
 1.1740	42.2600
 1.1750	42.2410
 1.1760	42.2230
 1.1770	42.2050
 1.1780	42.1850
 1.1790	42.1650
 1.1800	42.1490
 1.1810	42.1300
 1.1820	42.1110
 1.1830	42.0950
 1.1840	42.0750
 1.1850	42.0580
 1.1860	42.0430
 1.1870	42.0270
 1.1880	42.0130
 1.1890	42.0010
 1.1900	41.9910
 1.1910	41.9810
 1.1920	41.9730
 1.1930	41.9660
 1.1940	41.9590
 1.1950	41.9530
 1.1960	41.9470
 1.1970	41.9420
 1.1980	41.9410
 1.1990	41.9420
 1.2000	41.9460
 1.2010	41.9500
 1.2020	41.9550
 1.2030	41.9600
 1.2040	41.9650
 1.2050	41.9710
 1.2060	41.9770
 1.2070	41.9840
 1.2080	41.9910
 1.2090	42.0010
 1.2100	42.0130
 1.2110	42.0250
 1.2120	42.0380
 1.2130	42.0520
 1.2140	42.0660
 1.2150	42.0800
 1.2160	42.0970
 1.2170	42.1120
 1.2180	42.1280
 1.2190	42.1450
 1.2200	42.1610
 1.2210	42.1800
 1.2220	42.1970
 1.2230	42.2150
 1.2240	42.2350
 1.2250	42.2540
 1.2260	42.2720
 1.2270	42.2900
 1.2280	42.3070
 1.2290	42.3240
 1.2300	42.3400
 1.2310	42.3540
 1.2320	42.3680
 1.2330	42.3820
 1.2340	42.3960
 1.2350	42.4110
 1.2360	42.4250
 1.2370	42.4380
 1.2380	42.4510
 1.2390	42.4620
 1.2400	42.4730
 1.2410	42.4840
 1.2420	42.4940
 1.2430	42.5020
 1.2440	42.5100
 1.2450	42.5180
 1.2460	42.5250
 1.2470	42.5320
 1.2480	42.5400
 1.2490	42.5470
 1.2500	42.5540
 1.2510	42.5620
 1.2520	42.5680
 1.2530	42.5720
 1.2540	42.5770
 1.2550	42.5800
 1.2560	42.5830
 1.2570	42.5860
 1.2580	42.5870
 1.2590	42.5880
 1.2600	42.5900
 1.2610	42.5890
 1.2620	42.5860
 1.2630	42.5820
 1.2640	42.5780
 1.2650	42.5720
 1.2660	42.5660
 1.2670	42.5600
 1.2680	42.5540
 1.2690	42.5460
 1.2700	42.5390
 1.2710	42.5320
 1.2720	42.5220
 1.2730	42.5110
 1.2740	42.4990
 1.2750	42.4860
 1.2760	42.4740
 1.2770	42.4620
 1.2780	42.4490
 1.2790	42.4330
 1.2800	42.4160
 1.2810	42.3970
 1.2820	42.3790
 1.2830	42.3590
 1.2840	42.3380
 1.2850	42.3160
 1.2860	42.2910
 1.2870	42.2640
 1.2880	42.2360
 1.2890	42.2070
 1.2900	42.1730
 1.2910	42.1400
 1.2920	42.1070
 1.2930	42.0680
 1.2940	42.0290
 1.2950	41.9900
 1.2960	41.9460
 1.2970	41.9010
 1.2980	41.8570
 1.2990	41.8100
 1.3000	41.7610
 1.3010	41.7100
 1.3020	41.6560
 1.3030	41.5980
 1.3040	41.5380
 1.3050	41.4770
 1.3060	41.4120
 1.3070	41.3460
 1.3080	41.2800
 1.3090	41.2120
 1.3100	41.1420
 1.3110	41.0710
 1.3120	40.9950
 1.3130	40.9160
 1.3140	40.8350
 1.3150	40.7520
 1.3160	40.6660
 1.3170	40.5780
 1.3180	40.4860
 1.3190	40.3930
 1.3200	40.2970
 1.3210	40.1990
 1.3220	40.1000
 1.3230	39.9970
 1.3240	39.8930
 1.3250	39.7860
 1.3260	39.6770
 1.3270	39.5650
 1.3280	39.4510
 1.3290	39.3360
 1.3300	39.2180
 1.3310	39.0990
 1.3320	38.9780
 1.3330	38.8560
 1.3340	38.7340
 1.3350	38.6130
 1.3360	38.4900
 1.3370	38.3660
 1.3380	38.2430
 1.3390	38.1190
 1.3400	37.9950
 1.3410	37.8720
 1.3420	37.7490
 1.3430	37.6260
 1.3440	37.5060
 1.3450	37.3870
 1.3460	37.2700
 1.3470	37.1530
 1.3480	37.0360
 1.3490	36.9210
 1.3500	36.8070
 1.3510	36.6940
 1.3520	36.5810
 1.3530	36.4710
 1.3540	36.3590
 1.3550	36.2460
 1.3560	36.1340
 1.3570	36.0200
 1.3580	35.9060
 1.3590	35.7900
 1.3600	35.6720
 1.3610	35.5500
 1.3620	35.4210
 1.3630	35.2900
 1.3640	35.1510
 1.3650	35.0050
 1.3660	34.8530
 1.3670	34.6920
 1.3680	34.5210
 1.3690	34.3420
 1.3700	34.1490
 1.3710	33.9440
 1.3720	33.7240
 1.3730	33.4870
 1.3740	33.2340
 1.3750	32.9630
 1.3760	32.6710
 1.3770	32.3610
 1.3780	32.0250
 1.3790	31.6690
 1.3800	31.2900
 1.3810	30.8840
 1.3820	30.4590
 1.3830	30.0130
 1.3840	29.5460
 1.3850	29.0580
 1.3860	28.5530
 1.3870	28.0250
 1.3880	27.4900
 1.3890	26.9400
 1.3900	26.3780
 1.3910	25.8140
 1.3920	25.2450
 1.3930	24.6700
 1.3940	24.1000
 1.3950	23.5270
 1.3960	22.9620
 1.3970	22.4090
 1.3980	21.8650
 1.3990	21.3410
 1.4000	20.8310
 1.4010	20.3340
 1.4020	19.8590
 1.4030	19.4000
 1.4040	18.9610
 1.4050	18.5450
 1.4060	18.1490
 1.4070	17.7770
 1.4080	17.4250
 1.4090	17.0910
 1.4100	16.7800
 1.4110	16.4870
 1.4120	16.2120
 1.4130	15.9570
 1.4140	15.7180
 1.4150	15.4990
 1.4160	15.2960
 1.4170	15.1070
 1.4180	14.9310
 1.4190	14.7670
 1.4200	14.6150
 1.4210	14.4750
 1.4220	14.3440
 1.4230	14.2250
 1.4240	14.1140
 1.4250	14.0120
 1.4260	13.9180
 1.4270	13.8320
 1.4280	13.7540
 1.4290	13.6820
 1.4300	13.6160
 1.4310	13.5560
 1.4320	13.5030
 1.4330	13.4540
 1.4340	13.4110
 1.4350	13.3720
 1.4360	13.3380
 1.4370	13.3080
 1.4380	13.2820
 1.4390	13.2600
 1.4400	13.2410
 1.4410	13.2270
 1.4420	13.2150
 1.4430	13.2060
 1.4440	13.2000
 1.4450	13.1960
 1.4460	13.1940
 1.4470	13.1940
 1.4480	13.1960
 1.4490	13.2010
 1.4500	13.2070
 1.4510	13.2140
 1.4520	13.2240
 1.4530	13.2330
 1.4540	13.2450
 1.4550	13.2610
 1.4560	13.2780
 1.4570	13.2980
 1.4580	13.3220
 1.4590	13.3490
 1.4600	13.3800
 1.4610	13.4140
 1.4620	13.4510
 1.4630	13.4930
 1.4640	13.5400
 1.4650	13.5920
 1.4660	13.6490
 1.4670	13.7110
 1.4680	13.7770
 1.4690	13.8460
 1.4700	13.9200
 1.4710	13.9990
 1.4720	14.0810
 1.4730	14.1660
 1.4740	14.2560
 1.4750	14.3470
 1.4760	14.4430
 1.4770	14.5420
 1.4780	14.6420
