Name: Baccharis pilularis 3
Type: vegetation
Class: Shrub
Genus: Baccharis
Species: pilularis
Sample No.: VH126
Owner: UCSB
Wavelength Range: VSWIR
Origin: 34.5088; -119.7683; WGS84
Collection Date: 6/3/2013
Description: Samples were collected as part of the HyspIRI Airborne Campaign. 48 individual plants were sampled in three times in 2013 - spring  summer  and fall. The name of the sample includes a 1  2  or 3 which references a different individual of the species. Samples were taken to JPL and processed within 48 hours of collection. The same leaves were processed in the Nicolet and then measured using the ASD.
Measurement: Bidirectional reflectance
First Column: X
Second Column: Y
X Units: Wavelength (micrometers)
Y Units: Reflectance (percentage)
First X Value: 0.35
Last X Value: 2.5
Number of X Values: 2151
Additional Information: vegetation.shrub.baccharis.pilularis.vswir.vh126.ucsb.asd.ancillary.txt

 0.3500	 3.6630
 0.3510	 3.7090
 0.3520	 3.5880
 0.3530	 3.5700
 0.3540	 3.7560
 0.3550	 3.5970
 0.3560	 3.4940
 0.3570	 3.5170
 0.3580	 3.5460
 0.3590	 3.4180
 0.3600	 3.3890
 0.3610	 3.5090
 0.3620	 3.4990
 0.3630	 3.4940
 0.3640	 3.4670
 0.3650	 3.4010
 0.3660	 3.4680
 0.3670	 3.5430
 0.3680	 3.5490
 0.3690	 3.4620
 0.3700	 3.4940
 0.3710	 3.5330
 0.3720	 3.5270
 0.3730	 3.6150
 0.3740	 3.6370
 0.3750	 3.6310
 0.3760	 3.6620
 0.3770	 3.5960
 0.3780	 3.5980
 0.3790	 3.6560
 0.3800	 3.6190
 0.3810	 3.6640
 0.3820	 3.7160
 0.3830	 3.7130
 0.3840	 3.7040
 0.3850	 3.6840
 0.3860	 3.6580
 0.3870	 3.6440
 0.3880	 3.6810
 0.3890	 3.7250
 0.3900	 3.7450
 0.3910	 3.7320
 0.3920	 3.7960
 0.3930	 3.8930
 0.3940	 3.9410
 0.3950	 3.8260
 0.3960	 3.8610
 0.3970	 3.9710
 0.3980	 3.9330
 0.3990	 3.9370
 0.4000	 3.9810
 0.4010	 4.0400
 0.4020	 4.0860
 0.4030	 4.0990
 0.4040	 4.0950
 0.4050	 4.1060
 0.4060	 4.1580
 0.4070	 4.1900
 0.4080	 4.1990
 0.4090	 4.2220
 0.4100	 4.2610
 0.4110	 4.2740
 0.4120	 4.2610
 0.4130	 4.2980
 0.4140	 4.3460
 0.4150	 4.3810
 0.4160	 4.3930
 0.4170	 4.4190
 0.4180	 4.4500
 0.4190	 4.4750
 0.4200	 4.4900
 0.4210	 4.5180
 0.4220	 4.5430
 0.4230	 4.5550
 0.4240	 4.5850
 0.4250	 4.6080
 0.4260	 4.6200
 0.4270	 4.6330
 0.4280	 4.6580
 0.4290	 4.6870
 0.4300	 4.7110
 0.4310	 4.7170
 0.4320	 4.7200
 0.4330	 4.7350
 0.4340	 4.7690
 0.4350	 4.7880
 0.4360	 4.8040
 0.4370	 4.8180
 0.4380	 4.8240
 0.4390	 4.8230
 0.4400	 4.8370
 0.4410	 4.8660
 0.4420	 4.8610
 0.4430	 4.8630
 0.4440	 4.8750
 0.4450	 4.8870
 0.4460	 4.9080
 0.4470	 4.9190
 0.4480	 4.9190
 0.4490	 4.9320
 0.4500	 4.9420
 0.4510	 4.9560
 0.4520	 4.9780
 0.4530	 4.9850
 0.4540	 4.9900
 0.4550	 5.0000
 0.4560	 5.0090
 0.4570	 5.0160
 0.4580	 5.0260
 0.4590	 5.0390
 0.4600	 5.0480
 0.4610	 5.0520
 0.4620	 5.0520
 0.4630	 5.0520
 0.4640	 5.0740
 0.4650	 5.0760
 0.4660	 5.0580
 0.4670	 5.0670
 0.4680	 5.0910
 0.4690	 5.1020
 0.4700	 5.0890
 0.4710	 5.0980
 0.4720	 5.1000
 0.4730	 5.0910
 0.4740	 5.0830
 0.4750	 5.1000
 0.4760	 5.1100
 0.4770	 5.1030
 0.4780	 5.1050
 0.4790	 5.1080
 0.4800	 5.1120
 0.4810	 5.1160
 0.4820	 5.1240
 0.4830	 5.1230
 0.4840	 5.1200
 0.4850	 5.1390
 0.4860	 5.1460
 0.4870	 5.1440
 0.4880	 5.1480
 0.4890	 5.1630
 0.4900	 5.1720
 0.4910	 5.1750
 0.4920	 5.1800
 0.4930	 5.1990
 0.4940	 5.2140
 0.4950	 5.2210
 0.4960	 5.2350
 0.4970	 5.2540
 0.4980	 5.2690
 0.4990	 5.2770
 0.5000	 5.2990
 0.5010	 5.3250
 0.5020	 5.3530
 0.5030	 5.3850
 0.5040	 5.4170
 0.5050	 5.4500
 0.5060	 5.4900
 0.5070	 5.5400
 0.5080	 5.5910
 0.5090	 5.6470
 0.5100	 5.7160
 0.5110	 5.7890
 0.5120	 5.8630
 0.5130	 5.9420
 0.5140	 6.0380
 0.5150	 6.1410
 0.5160	 6.2510
 0.5170	 6.3710
 0.5180	 6.4930
 0.5190	 6.6290
 0.5200	 6.7760
 0.5210	 6.9210
 0.5220	 7.0770
 0.5230	 7.2380
 0.5240	 7.3960
 0.5250	 7.5500
 0.5260	 7.6980
 0.5270	 7.8440
 0.5280	 7.9870
 0.5290	 8.1260
 0.5300	 8.2550
 0.5310	 8.3710
 0.5320	 8.4820
 0.5330	 8.5820
 0.5340	 8.6740
 0.5350	 8.7580
 0.5360	 8.8370
 0.5370	 8.9120
 0.5380	 8.9770
 0.5390	 9.0250
 0.5400	 9.0880
 0.5410	 9.1550
 0.5420	 9.2120
 0.5430	 9.2650
 0.5440	 9.3120
 0.5450	 9.3560
 0.5460	 9.3970
 0.5470	 9.4230
 0.5480	 9.4450
 0.5490	 9.4680
 0.5500	 9.4920
 0.5510	 9.5080
 0.5520	 9.5170
 0.5530	 9.5190
 0.5540	 9.5060
 0.5550	 9.4830
 0.5560	 9.4500
 0.5570	 9.4020
 0.5580	 9.3470
 0.5590	 9.2860
 0.5600	 9.2170
 0.5610	 9.1410
 0.5620	 9.0600
 0.5630	 8.9710
 0.5640	 8.8760
 0.5650	 8.7780
 0.5660	 8.6810
 0.5670	 8.5840
 0.5680	 8.4790
 0.5690	 8.3730
 0.5700	 8.2660
 0.5710	 8.1590
 0.5720	 8.0580
 0.5730	 7.9620
 0.5740	 7.8700
 0.5750	 7.7790
 0.5760	 7.6890
 0.5770	 7.6080
 0.5780	 7.5370
 0.5790	 7.4730
 0.5800	 7.4130
 0.5810	 7.3550
 0.5820	 7.2960
 0.5830	 7.2460
 0.5840	 7.1980
 0.5850	 7.1560
 0.5860	 7.1210
 0.5870	 7.0890
 0.5880	 7.0600
 0.5890	 7.0330
 0.5900	 7.0010
 0.5910	 6.9700
 0.5920	 6.9430
 0.5930	 6.9220
 0.5940	 6.9100
 0.5950	 6.9010
 0.5960	 6.8910
 0.5970	 6.8810
 0.5980	 6.8700
 0.5990	 6.8560
 0.6000	 6.8380
 0.6010	 6.8190
 0.6020	 6.7980
 0.6030	 6.7730
 0.6040	 6.7420
 0.6050	 6.7130
 0.6060	 6.6800
 0.6070	 6.6420
 0.6080	 6.6030
 0.6090	 6.5640
 0.6100	 6.5300
 0.6110	 6.5010
 0.6120	 6.4620
 0.6130	 6.4120
 0.6140	 6.3580
 0.6150	 6.3120
 0.6160	 6.2710
 0.6170	 6.2330
 0.6180	 6.1990
 0.6190	 6.1740
 0.6200	 6.1500
 0.6210	 6.1270
 0.6220	 6.1100
 0.6230	 6.0900
 0.6240	 6.0750
 0.6250	 6.0680
 0.6260	 6.0530
 0.6270	 6.0440
 0.6280	 6.0400
 0.6290	 6.0350
 0.6300	 6.0300
 0.6310	 6.0270
 0.6320	 6.0230
 0.6330	 6.0120
 0.6340	 6.0020
 0.6350	 5.9880
 0.6360	 5.9680
 0.6370	 5.9470
 0.6380	 5.9200
 0.6390	 5.8900
 0.6400	 5.8620
 0.6410	 5.8290
 0.6420	 5.7980
 0.6430	 5.7690
 0.6440	 5.7290
 0.6450	 5.6930
 0.6460	 5.6610
 0.6470	 5.6280
 0.6480	 5.5950
 0.6490	 5.5680
 0.6500	 5.5460
 0.6510	 5.5270
 0.6520	 5.5090
 0.6530	 5.4920
 0.6540	 5.4770
 0.6550	 5.4550
 0.6560	 5.4360
 0.6570	 5.4160
 0.6580	 5.3910
 0.6590	 5.3670
 0.6600	 5.3430
 0.6610	 5.3190
 0.6620	 5.2940
 0.6630	 5.2710
 0.6640	 5.2520
 0.6650	 5.2350
 0.6660	 5.2250
 0.6670	 5.2140
 0.6680	 5.2030
 0.6690	 5.1990
 0.6700	 5.1940
 0.6710	 5.1920
 0.6720	 5.1950
 0.6730	 5.1960
 0.6740	 5.2020
 0.6750	 5.2100
 0.6760	 5.2170
 0.6770	 5.2330
 0.6780	 5.2470
 0.6790	 5.2610
 0.6800	 5.2810
 0.6810	 5.3000
 0.6820	 5.3250
 0.6830	 5.3570
 0.6840	 5.3900
 0.6850	 5.4300
 0.6860	 5.4810
 0.6870	 5.5430
 0.6880	 5.6110
 0.6890	 5.6990
 0.6900	 5.8140
 0.6910	 5.9580
 0.6920	 6.1330
 0.6930	 6.3430
 0.6940	 6.5980
 0.6950	 6.9060
 0.6960	 7.2620
 0.6970	 7.6690
 0.6980	 8.1290
 0.6990	 8.6440
 0.7000	 9.2110
 0.7010	 9.8260
 0.7020	10.4850
 0.7030	11.1750
 0.7040	11.9020
 0.7050	12.6660
 0.7060	13.4520
 0.7070	14.2590
 0.7080	15.0880
 0.7090	15.9440
 0.7100	16.8170
 0.7110	17.7120
 0.7120	18.6280
 0.7130	19.5560
 0.7140	20.5050
 0.7150	21.4710
 0.7160	22.4460
 0.7170	23.4280
 0.7180	24.4180
 0.7190	25.4130
 0.7200	26.4120
 0.7210	27.4060
 0.7220	28.3980
 0.7230	29.3830
 0.7240	30.3500
 0.7250	31.3050
 0.7260	32.2430
 0.7270	33.1580
 0.7280	34.0440
 0.7290	34.9020
 0.7300	35.7310
 0.7310	36.5300
 0.7320	37.3000
 0.7330	38.0350
 0.7340	38.7350
 0.7350	39.4030
 0.7360	40.0400
 0.7370	40.6420
 0.7380	41.2100
 0.7390	41.7550
 0.7400	42.2610
 0.7410	42.7340
 0.7420	43.1880
 0.7430	43.6080
 0.7440	43.9970
 0.7450	44.3580
 0.7460	44.6940
 0.7470	45.0130
 0.7480	45.3090
 0.7490	45.5770
 0.7500	45.8240
 0.7510	46.0520
 0.7520	46.2620
 0.7530	46.4570
 0.7540	46.6360
 0.7550	46.7990
 0.7560	46.9470
 0.7570	47.0780
 0.7580	47.2000
 0.7590	47.3180
 0.7600	47.4290
 0.7610	47.5290
 0.7620	47.6180
 0.7630	47.6980
 0.7640	47.7740
 0.7650	47.8400
 0.7660	47.9030
 0.7670	47.9650
 0.7680	48.0220
 0.7690	48.0730
 0.7700	48.1210
 0.7710	48.1690
 0.7720	48.2120
 0.7730	48.2490
 0.7740	48.2880
 0.7750	48.3280
 0.7760	48.3570
 0.7770	48.3890
 0.7780	48.4260
 0.7790	48.4600
 0.7800	48.4920
 0.7810	48.5200
 0.7820	48.5440
 0.7830	48.5680
 0.7840	48.5970
 0.7850	48.6250
 0.7860	48.6500
 0.7870	48.6780
 0.7880	48.7040
 0.7890	48.7280
 0.7900	48.7510
 0.7910	48.7680
 0.7920	48.7860
 0.7930	48.8080
 0.7940	48.8280
 0.7950	48.8460
 0.7960	48.8630
 0.7970	48.8800
 0.7980	48.8990
 0.7990	48.9140
 0.8000	48.9260
 0.8010	48.9380
 0.8020	48.9520
 0.8030	48.9670
 0.8040	48.9790
 0.8050	48.9850
 0.8060	49.0030
 0.8070	49.0110
 0.8080	49.0100
 0.8090	49.0230
 0.8100	49.0340
 0.8110	49.0410
 0.8120	49.0470
 0.8130	49.0550
 0.8140	49.0600
 0.8150	49.0650
 0.8160	49.0690
 0.8170	49.0700
 0.8180	49.0740
 0.8190	49.0760
 0.8200	49.0740
 0.8210	49.0770
 0.8220	49.0780
 0.8230	49.0760
 0.8240	49.0760
 0.8250	49.0760
 0.8260	49.0750
 0.8270	49.0720
 0.8280	49.0670
 0.8290	49.0640
 0.8300	49.0580
 0.8310	49.0500
 0.8320	49.0460
 0.8330	49.0470
 0.8340	49.0450
 0.8350	49.0370
 0.8360	49.0360
 0.8370	49.0410
 0.8380	49.0450
 0.8390	49.0400
 0.8400	49.0360
 0.8410	49.0440
 0.8420	49.0600
 0.8430	49.0620
 0.8440	49.0630
 0.8450	49.0660
 0.8460	49.0700
 0.8470	49.0700
 0.8480	49.0770
 0.8490	49.0850
 0.8500	49.0860
 0.8510	49.0870
 0.8520	49.0960
 0.8530	49.1070
 0.8540	49.1130
 0.8550	49.1220
 0.8560	49.1270
 0.8570	49.1290
 0.8580	49.1340
 0.8590	49.1430
 0.8600	49.1500
 0.8610	49.1540
 0.8620	49.1610
 0.8630	49.1650
 0.8640	49.1690
 0.8650	49.1760
 0.8660	49.1860
 0.8670	49.1930
 0.8680	49.1950
 0.8690	49.1950
 0.8700	49.2060
 0.8710	49.2130
 0.8720	49.2190
 0.8730	49.2380
 0.8740	49.2430
 0.8750	49.2440
 0.8760	49.2540
 0.8770	49.2720
 0.8780	49.2820
 0.8790	49.2830
 0.8800	49.2840
 0.8810	49.2960
 0.8820	49.3020
 0.8830	49.3020
 0.8840	49.3050
 0.8850	49.3190
 0.8860	49.3240
 0.8870	49.3240
 0.8880	49.3270
 0.8890	49.3380
 0.8900	49.3360
 0.8910	49.3310
 0.8920	49.3400
 0.8930	49.3490
 0.8940	49.3490
 0.8950	49.3490
 0.8960	49.3620
 0.8970	49.3670
 0.8980	49.3710
 0.8990	49.3760
 0.9000	49.3750
 0.9010	49.3800
 0.9020	49.3830
 0.9030	49.3780
 0.9040	49.3740
 0.9050	49.3810
 0.9060	49.3850
 0.9070	49.3820
 0.9080	49.3880
 0.9090	49.3890
 0.9100	49.3860
 0.9110	49.3840
 0.9120	49.3800
 0.9130	49.3850
 0.9140	49.3900
 0.9150	49.3840
 0.9160	49.3790
 0.9170	49.3740
 0.9180	49.3720
 0.9190	49.3720
 0.9200	49.3640
 0.9210	49.3480
 0.9220	49.3330
 0.9230	49.3260
 0.9240	49.3110
 0.9250	49.2900
 0.9260	49.2690
 0.9270	49.2500
 0.9280	49.2350
 0.9290	49.2110
 0.9300	49.1790
 0.9310	49.1520
 0.9320	49.1190
 0.9330	49.0860
 0.9340	49.0550
 0.9350	49.0210
 0.9360	48.9740
 0.9370	48.9270
 0.9380	48.8920
 0.9390	48.8730
 0.9400	48.8240
 0.9410	48.7710
 0.9420	48.7250
 0.9430	48.6560
 0.9440	48.5980
 0.9450	48.5370
 0.9460	48.4620
 0.9470	48.3820
 0.9480	48.3020
 0.9490	48.2190
 0.9500	48.1260
 0.9510	48.0190
 0.9520	47.9260
 0.9530	47.8280
 0.9540	47.7080
 0.9550	47.5890
 0.9560	47.4850
 0.9570	47.3840
 0.9580	47.2760
 0.9590	47.1880
 0.9600	47.1080
 0.9610	47.0420
 0.9620	46.9890
 0.9630	46.9210
 0.9640	46.8570
 0.9650	46.8170
 0.9660	46.8030
 0.9670	46.7590
 0.9680	46.7250
 0.9690	46.7030
 0.9700	46.6820
 0.9710	46.6570
 0.9720	46.6370
 0.9730	46.6310
 0.9740	46.6380
 0.9750	46.6220
 0.9760	46.6070
 0.9770	46.5990
 0.9780	46.5970
 0.9790	46.6190
 0.9800	46.6290
 0.9810	46.6310
 0.9820	46.6480
 0.9830	46.6710
 0.9840	46.6890
 0.9850	46.7040
 0.9860	46.7250
 0.9870	46.7640
 0.9880	46.7980
 0.9890	46.8230
 0.9900	46.8510
 0.9910	46.8990
 0.9920	46.9490
 0.9930	46.9980
 0.9940	47.0470
 0.9950	47.0970
 0.9960	47.1460
 0.9970	47.1950
 0.9980	47.2450
 0.9990	47.2940
 1.0000	47.3430
 1.0010	47.3930
 1.0020	47.4420
 1.0030	47.4910
 1.0040	47.5410
 1.0050	47.5900
 1.0060	47.6390
 1.0070	47.6890
 1.0080	47.7380
 1.0090	47.7880
 1.0100	47.7880
 1.0110	47.8380
 1.0120	47.8800
 1.0130	47.9160
 1.0140	47.9580
 1.0150	48.0050
 1.0160	48.0440
 1.0170	48.0810
 1.0180	48.1210
 1.0190	48.1540
 1.0200	48.1860
 1.0210	48.2250
 1.0220	48.2660
 1.0230	48.3050
 1.0240	48.3500
 1.0250	48.3870
 1.0260	48.4180
 1.0270	48.4530
 1.0280	48.4850
 1.0290	48.5190
 1.0300	48.5550
 1.0310	48.5910
 1.0320	48.6290
 1.0330	48.6650
 1.0340	48.7050
 1.0350	48.7410
 1.0360	48.7720
 1.0370	48.8040
 1.0380	48.8320
 1.0390	48.8540
 1.0400	48.8810
 1.0410	48.9080
 1.0420	48.9340
 1.0430	48.9630
 1.0440	48.9890
 1.0450	49.0110
 1.0460	49.0340
 1.0470	49.0580
 1.0480	49.0810
 1.0490	49.1020
 1.0500	49.1220
 1.0510	49.1400
 1.0520	49.1580
 1.0530	49.1750
 1.0540	49.1900
 1.0550	49.2070
 1.0560	49.2240
 1.0570	49.2390
 1.0580	49.2540
 1.0590	49.2690
 1.0600	49.2840
 1.0610	49.2970
 1.0620	49.3110
 1.0630	49.3200
 1.0640	49.3190
 1.0650	49.3250
 1.0660	49.3300
 1.0670	49.3360
 1.0680	49.3430
 1.0690	49.3560
 1.0700	49.3610
 1.0710	49.3600
 1.0720	49.3640
 1.0730	49.3670
 1.0740	49.3680
 1.0750	49.3740
 1.0760	49.3730
 1.0770	49.3690
 1.0780	49.3650
 1.0790	49.3550
 1.0800	49.3500
 1.0810	49.3460
 1.0820	49.3410
 1.0830	49.3390
 1.0840	49.3340
 1.0850	49.3280
 1.0860	49.3200
 1.0870	49.3080
 1.0880	49.2940
 1.0890	49.2800
 1.0900	49.2620
 1.0910	49.2480
 1.0920	49.2370
 1.0930	49.2230
 1.0940	49.2080
 1.0950	49.1920
 1.0960	49.1720
 1.0970	49.1520
 1.0980	49.1320
 1.0990	49.1120
 1.1000	49.0920
 1.1010	49.0720
 1.1020	49.0530
 1.1030	49.0310
 1.1040	49.0080
 1.1050	48.9850
 1.1060	48.9600
 1.1070	48.9330
 1.1080	48.9070
 1.1090	48.8820
 1.1100	48.8550
 1.1110	48.8300
 1.1120	48.8000
 1.1130	48.7680
 1.1140	48.7350
 1.1150	48.7010
 1.1160	48.6630
 1.1170	48.6230
 1.1180	48.5770
 1.1190	48.5270
 1.1200	48.4730
 1.1210	48.4140
 1.1220	48.3490
 1.1230	48.2770
 1.1240	48.2000
 1.1250	48.1140
 1.1260	48.0240
 1.1270	47.9190
 1.1280	47.8060
 1.1290	47.6810
 1.1300	47.5480
 1.1310	47.4020
 1.1320	47.2450
 1.1330	47.0770
 1.1340	46.8970
 1.1350	46.7060
 1.1360	46.5070
 1.1370	46.2940
 1.1380	46.0710
 1.1390	45.8430
 1.1400	45.6070
 1.1410	45.3730
 1.1420	45.1360
 1.1430	44.8950
 1.1440	44.6570
 1.1450	44.4150
 1.1460	44.1830
 1.1470	43.9510
 1.1480	43.7330
 1.1490	43.5220
 1.1500	43.3260
 1.1510	43.1400
 1.1520	42.9670
 1.1530	42.8060
 1.1540	42.6580
 1.1550	42.5220
 1.1560	42.3990
 1.1570	42.2880
 1.1580	42.1890
 1.1590	42.1000
 1.1600	42.0220
 1.1610	41.9550
 1.1620	41.8950
 1.1630	41.8430
 1.1640	41.7960
 1.1650	41.7540
 1.1660	41.7200
 1.1670	41.6860
 1.1680	41.6560
 1.1690	41.6280
 1.1700	41.6040
 1.1710	41.5800
 1.1720	41.5600
 1.1730	41.5380
 1.1740	41.5170
 1.1750	41.4950
 1.1760	41.4740
 1.1770	41.4520
 1.1780	41.4280
 1.1790	41.4040
 1.1800	41.3790
 1.1810	41.3490
 1.1820	41.3210
 1.1830	41.2940
 1.1840	41.2630
 1.1850	41.2350
 1.1860	41.2100
 1.1870	41.1860
 1.1880	41.1630
 1.1890	41.1430
 1.1900	41.1250
 1.1910	41.1070
 1.1920	41.0930
 1.1930	41.0800
 1.1940	41.0710
 1.1950	41.0660
 1.1960	41.0620
 1.1970	41.0610
 1.1980	41.0640
 1.1990	41.0680
 1.2000	41.0720
 1.2010	41.0810
 1.2020	41.0930
 1.2030	41.1080
 1.2040	41.1270
 1.2050	41.1470
 1.2060	41.1690
 1.2070	41.1950
 1.2080	41.2220
 1.2090	41.2530
 1.2100	41.2870
 1.2110	41.3230
 1.2120	41.3610
 1.2130	41.4030
 1.2140	41.4470
 1.2150	41.4940
 1.2160	41.5440
 1.2170	41.5930
 1.2180	41.6440
 1.2190	41.6950
 1.2200	41.7460
 1.2210	41.8020
 1.2220	41.8580
 1.2230	41.9130
 1.2240	41.9700
 1.2250	42.0220
 1.2260	42.0740
 1.2270	42.1270
 1.2280	42.1740
 1.2290	42.2220
 1.2300	42.2690
 1.2310	42.3110
 1.2320	42.3540
 1.2330	42.3960
 1.2340	42.4360
 1.2350	42.4740
 1.2360	42.5120
 1.2370	42.5500
 1.2380	42.5860
 1.2390	42.6210
 1.2400	42.6530
 1.2410	42.6860
 1.2420	42.7170
 1.2430	42.7460
 1.2440	42.7780
 1.2450	42.8090
 1.2460	42.8370
 1.2470	42.8630
 1.2480	42.8890
 1.2490	42.9110
 1.2500	42.9310
 1.2510	42.9540
 1.2520	42.9730
 1.2530	42.9900
 1.2540	43.0070
 1.2550	43.0210
 1.2560	43.0340
 1.2570	43.0480
 1.2580	43.0610
 1.2590	43.0710
 1.2600	43.0800
 1.2610	43.0870
 1.2620	43.0910
 1.2630	43.0930
 1.2640	43.0950
 1.2650	43.0950
 1.2660	43.0940
 1.2670	43.0900
 1.2680	43.0850
 1.2690	43.0770
 1.2700	43.0680
 1.2710	43.0590
 1.2720	43.0480
 1.2730	43.0350
 1.2740	43.0200
 1.2750	43.0040
 1.2760	42.9870
 1.2770	42.9690
 1.2780	42.9490
 1.2790	42.9270
 1.2800	42.9020
 1.2810	42.8740
 1.2820	42.8430
 1.2830	42.8090
 1.2840	42.7730
 1.2850	42.7360
 1.2860	42.6970
 1.2870	42.6550
 1.2880	42.6100
 1.2890	42.5620
 1.2900	42.5120
 1.2910	42.4580
 1.2920	42.4010
 1.2930	42.3400
 1.2940	42.2750
 1.2950	42.2050
 1.2960	42.1340
 1.2970	42.0620
 1.2980	41.9850
 1.2990	41.9030
 1.3000	41.8190
 1.3010	41.7290
 1.3020	41.6370
 1.3030	41.5410
 1.3040	41.4370
 1.3050	41.3300
 1.3060	41.2180
 1.3070	41.1030
 1.3080	40.9880
 1.3090	40.8670
 1.3100	40.7430
 1.3110	40.6140
 1.3120	40.4790
 1.3130	40.3410
 1.3140	40.1990
 1.3150	40.0520
 1.3160	39.9000
 1.3170	39.7450
 1.3180	39.5840
 1.3190	39.4180
 1.3200	39.2510
 1.3210	39.0770
 1.3220	38.9010
 1.3230	38.7210
 1.3240	38.5340
 1.3250	38.3460
 1.3260	38.1550
 1.3270	37.9610
 1.3280	37.7670
 1.3290	37.5670
 1.3300	37.3680
 1.3310	37.1660
 1.3320	36.9620
 1.3330	36.7570
 1.3340	36.5530
 1.3350	36.3470
 1.3360	36.1450
 1.3370	35.9410
 1.3380	35.7380
 1.3390	35.5350
 1.3400	35.3320
 1.3410	35.1330
 1.3420	34.9370
 1.3430	34.7430
 1.3440	34.5510
 1.3450	34.3610
 1.3460	34.1720
 1.3470	33.9860
 1.3480	33.8020
 1.3490	33.6220
 1.3500	33.4450
 1.3510	33.2700
 1.3520	33.0950
 1.3530	32.9230
 1.3540	32.7500
 1.3550	32.5780
 1.3560	32.4060
 1.3570	32.2310
 1.3580	32.0570
 1.3590	31.8790
 1.3600	31.6970
 1.3610	31.5130
 1.3620	31.3220
 1.3630	31.1250
 1.3640	30.9210
 1.3650	30.7070
 1.3660	30.4860
 1.3670	30.2540
 1.3680	30.0110
 1.3690	29.7560
 1.3700	29.4840
 1.3710	29.1990
 1.3720	28.8980
 1.3730	28.5770
 1.3740	28.2410
 1.3750	27.8860
 1.3760	27.5070
 1.3770	27.1090
 1.3780	26.6850
 1.3790	26.2380
 1.3800	25.7700
 1.3810	25.2770
 1.3820	24.7720
 1.3830	24.2490
 1.3840	23.7130
 1.3850	23.1610
 1.3860	22.6030
 1.3870	22.0270
 1.3880	21.4580
 1.3890	20.8850
 1.3900	20.3090
 1.3910	19.7440
 1.3920	19.1810
 1.3930	18.6230
 1.3940	18.0780
 1.3950	17.5390
 1.3960	17.0160
 1.3970	16.5110
 1.3980	16.0220
 1.3990	15.5590
 1.4000	15.1160
 1.4010	14.6920
 1.4020	14.2930
 1.4030	13.9110
 1.4040	13.5510
 1.4050	13.2160
 1.4060	12.9000
 1.4070	12.6090
 1.4080	12.3390
 1.4090	12.0860
 1.4100	11.8540
 1.4110	11.6370
 1.4120	11.4360
 1.4130	11.2520
 1.4140	11.0820
 1.4150	10.9270
 1.4160	10.7850
 1.4170	10.6550
 1.4180	10.5360
 1.4190	10.4270
 1.4200	10.3270
 1.4210	10.2370
 1.4220	10.1540
 1.4230	10.0790
 1.4240	10.0100
 1.4250	 9.9470
 1.4260	 9.8910
 1.4270	 9.8400
 1.4280	 9.7950
 1.4290	 9.7540
 1.4300	 9.7190
 1.4310	 9.6870
 1.4320	 9.6590
 1.4330	 9.6360
 1.4340	 9.6170
 1.4350	 9.6000
 1.4360	 9.5860
 1.4370	 9.5740
 1.4380	 9.5650
 1.4390	 9.5590
 1.4400	 9.5550
 1.4410	 9.5540
 1.4420	 9.5550
 1.4430	 9.5580
 1.4440	 9.5620
 1.4450	 9.5680
 1.4460	 9.5740
 1.4470	 9.5820
 1.4480	 9.5910
 1.4490	 9.6010
 1.4500	 9.6120
 1.4510	 9.6240
 1.4520	 9.6370
 1.4530	 9.6500
 1.4540	 9.6650
 1.4550	 9.6820
 1.4560	 9.7000
 1.4570	 9.7200
 1.4580	 9.7430
 1.4590	 9.7660
 1.4600	 9.7930
 1.4610	 9.8220
 1.4620	 9.8540
 1.4630	 9.8900
 1.4640	 9.9290
 1.4650	 9.9720
 1.4660	10.0180
 1.4670	10.0680
 1.4680	10.1200
 1.4690	10.1750
 1.4700	10.2330
