Name: Puya venusta
Type: vegetation
Class: Shrub
Genus: Puya
Species: venusta
Sample No.: JPL081
Owner: JPL
Wavelength Range: VSWIR
Origin: 34.12562; - 118.1098; WGS84
Collection Date: 2/2/2016
Description: Samples were collected at the Huntington Garden in San Marino California as part of a JPL Subcontract studying HyTES imagery. Samples were taken to JPL and processed within 48 hours of collection. The same leaves were processed in the Nicolet and then measured using the ASD.
Measurement: Bidirectional reflectance
First Column: X
Second Column: Y
X Units: Wavelength (micrometer)
Y Units: Reflectance (percentage)
First X Value: 0.35
Last X Value: 2.5
Number of X Values: 2151
Additional Information: 

 0.3500	 9.2540
 0.3510	 6.6460
 0.3520	 6.4950
 0.3530	 7.4910
 0.3540	 7.7230
 0.3550	 6.9570
 0.3560	 6.8810
 0.3570	 7.4160
 0.3580	 7.6270
 0.3590	 8.0260
 0.3600	 8.2690
 0.3610	 8.3980
 0.3620	 9.1560
 0.3630	 7.9130
 0.3640	 6.8440
 0.3650	 8.0830
 0.3660	 8.2570
 0.3670	 7.6960
 0.3680	 7.2760
 0.3690	 7.9990
 0.3700	 8.1710
 0.3710	 8.1610
 0.3720	 8.2850
 0.3730	 8.2840
 0.3740	 8.0060
 0.3750	 7.7500
 0.3760	 7.8490
 0.3770	 7.9380
 0.3780	 8.3920
 0.3790	 8.9020
 0.3800	 8.6460
 0.3810	 8.6670
 0.3820	 8.7150
 0.3830	 8.5670
 0.3840	 8.5390
 0.3850	 8.4550
 0.3860	 8.3710
 0.3870	 8.3950
 0.3880	 8.4350
 0.3890	 8.5820
 0.3900	 8.7950
 0.3910	 8.9010
 0.3920	 9.1890
 0.3930	 9.3510
 0.3940	 9.2150
 0.3950	 9.2010
 0.3960	 9.6000
 0.3970	 9.8760
 0.3980	 9.3520
 0.3990	 9.3070
 0.4000	 9.2660
 0.4010	 9.1180
 0.4020	 9.4320
 0.4030	 9.7170
 0.4040	10.0100
 0.4050	10.3230
 0.4060	10.1100
 0.4070	10.1020
 0.4080	10.3780
 0.4090	10.5760
 0.4100	10.7670
 0.4110	10.8860
 0.4120	10.8970
 0.4130	10.7940
 0.4140	11.0470
 0.4150	11.3230
 0.4160	11.2280
 0.4170	11.4030
 0.4180	11.6780
 0.4190	11.9010
 0.4200	11.9940
 0.4210	12.0880
 0.4220	12.2680
 0.4230	12.5260
 0.4240	12.6700
 0.4250	12.7370
 0.4260	12.8280
 0.4270	13.0310
 0.4280	13.0960
 0.4290	13.2690
 0.4300	13.5570
 0.4310	13.5950
 0.4320	13.6330
 0.4330	13.7720
 0.4340	14.0000
 0.4350	14.0730
 0.4360	14.1930
 0.4370	14.3500
 0.4380	14.3790
 0.4390	14.3250
 0.4400	14.3430
 0.4410	14.4920
 0.4420	14.5720
 0.4430	14.6700
 0.4440	14.7570
 0.4450	14.7770
 0.4460	14.7350
 0.4470	14.8470
 0.4480	15.0750
 0.4490	15.0780
 0.4500	15.0180
 0.4510	15.0120
 0.4520	15.1050
 0.4530	15.1520
 0.4540	15.1710
 0.4550	15.1770
 0.4560	15.1870
 0.4570	15.2310
 0.4580	15.2880
 0.4590	15.3390
 0.4600	15.3740
 0.4610	15.4010
 0.4620	15.3950
 0.4630	15.3440
 0.4640	15.3380
 0.4650	15.3900
 0.4660	15.4660
 0.4670	15.4940
 0.4680	15.4420
 0.4690	15.4220
 0.4700	15.4970
 0.4710	15.5020
 0.4720	15.4900
 0.4730	15.4910
 0.4740	15.5170
 0.4750	15.5440
 0.4760	15.5940
 0.4770	15.6480
 0.4780	15.6060
 0.4790	15.5990
 0.4800	15.6070
 0.4810	15.5900
 0.4820	15.6340
 0.4830	15.6530
 0.4840	15.6590
 0.4850	15.7530
 0.4860	15.7760
 0.4870	15.7580
 0.4880	15.7570
 0.4890	15.8370
 0.4900	15.8830
 0.4910	15.8900
 0.4920	15.9080
 0.4930	15.9440
 0.4940	15.9690
 0.4950	15.9480
 0.4960	15.8400
 0.4970	15.9060
 0.4980	16.0300
 0.4990	16.0460
 0.5000	16.0640
 0.5010	16.1240
 0.5020	16.2090
 0.5030	16.2660
 0.5040	16.3090
 0.5050	16.3860
 0.5060	16.5020
 0.5070	16.5370
 0.5080	16.5770
 0.5090	16.6690
 0.5100	16.8220
 0.5110	16.9070
 0.5120	17.0100
 0.5130	17.1570
 0.5140	17.2710
 0.5150	17.3730
 0.5160	17.4990
 0.5170	17.6750
 0.5180	17.8610
 0.5190	17.9920
 0.5200	18.0910
 0.5210	18.2530
 0.5220	18.4420
 0.5230	18.5990
 0.5240	18.7170
 0.5250	18.9070
 0.5260	19.0590
 0.5270	19.1770
 0.5280	19.3020
 0.5290	19.3960
 0.5300	19.5070
 0.5310	19.6400
 0.5320	19.7350
 0.5330	19.8190
 0.5340	19.9040
 0.5350	19.9920
 0.5360	20.0540
 0.5370	20.1310
 0.5380	20.2230
 0.5390	20.3030
 0.5400	20.4150
 0.5410	20.5800
 0.5420	20.7790
 0.5430	20.9420
 0.5440	21.0180
 0.5450	21.0000
 0.5460	20.9150
 0.5470	20.8470
 0.5480	20.7710
 0.5490	20.6980
 0.5500	20.6980
 0.5510	20.6840
 0.5520	20.6590
 0.5530	20.6370
 0.5540	20.5830
 0.5550	20.5310
 0.5560	20.4910
 0.5570	20.4510
 0.5580	20.4210
 0.5590	20.3700
 0.5600	20.2970
 0.5610	20.2690
 0.5620	20.2450
 0.5630	20.1930
 0.5640	20.0930
 0.5650	20.0120
 0.5660	19.9460
 0.5670	19.8860
 0.5680	19.8270
 0.5690	19.7420
 0.5700	19.6410
 0.5710	19.5400
 0.5720	19.4580
 0.5730	19.3660
 0.5740	19.2660
 0.5750	19.1840
 0.5760	19.1540
 0.5770	19.1160
 0.5780	19.0440
 0.5790	19.0090
 0.5800	18.9990
 0.5810	18.9730
 0.5820	18.8950
 0.5830	18.8510
 0.5840	18.8060
 0.5850	18.7520
 0.5860	18.7240
 0.5870	18.6960
 0.5880	18.6510
 0.5890	18.5920
 0.5900	18.5670
 0.5910	18.5410
 0.5920	18.5120
 0.5930	18.4930
 0.5940	18.4690
 0.5950	18.4520
 0.5960	18.4420
 0.5970	18.4090
 0.5980	18.3980
 0.5990	18.3930
 0.6000	18.3650
 0.6010	18.3020
 0.6020	18.2640
 0.6030	18.2580
 0.6040	18.2370
 0.6050	18.1900
 0.6060	18.1370
 0.6070	18.0910
 0.6080	18.0360
 0.6090	18.0220
 0.6100	18.0760
 0.6110	18.1810
 0.6120	18.1320
 0.6130	17.9890
 0.6140	17.8290
 0.6150	17.7340
 0.6160	17.6500
 0.6170	17.5710
 0.6180	17.5060
 0.6190	17.4820
 0.6200	17.4630
 0.6210	17.4380
 0.6220	17.4160
 0.6230	17.3810
 0.6240	17.3430
 0.6250	17.3110
 0.6260	17.2880
 0.6270	17.2760
 0.6280	17.2700
 0.6290	17.2630
 0.6300	17.2480
 0.6310	17.2410
 0.6320	17.2360
 0.6330	17.2090
 0.6340	17.1750
 0.6350	17.1550
 0.6360	17.1570
 0.6370	17.1440
 0.6380	17.1160
 0.6390	17.0720
 0.6400	17.0130
 0.6410	16.9830
 0.6420	16.9350
 0.6430	16.8670
 0.6440	16.8540
 0.6450	16.8180
 0.6460	16.7560
 0.6470	16.6920
 0.6480	16.6580
 0.6490	16.6260
 0.6500	16.5850
 0.6510	16.5430
 0.6520	16.5190
 0.6530	16.4960
 0.6540	16.4610
 0.6550	16.4150
 0.6560	16.3670
 0.6570	16.3260
 0.6580	16.2900
 0.6590	16.2140
 0.6600	16.1530
 0.6610	16.1100
 0.6620	16.0350
 0.6630	15.9750
 0.6640	15.9320
 0.6650	15.8960
 0.6660	15.8390
 0.6670	15.8060
 0.6680	15.7750
 0.6690	15.7050
 0.6700	15.6640
 0.6710	15.6460
 0.6720	15.6350
 0.6730	15.6210
 0.6740	15.6090
 0.6750	15.6050
 0.6760	15.6150
 0.6770	15.6350
 0.6780	15.6500
 0.6790	15.6590
 0.6800	15.6710
 0.6810	15.6880
 0.6820	15.7150
 0.6830	15.7610
 0.6840	15.8450
 0.6850	15.9300
 0.6860	16.0240
 0.6870	16.1450
 0.6880	16.2840
 0.6890	16.4380
 0.6900	16.6180
 0.6910	16.8430
 0.6920	17.1010
 0.6930	17.3890
 0.6940	17.7070
 0.6950	18.0450
 0.6960	18.4140
 0.6970	18.8070
 0.6980	19.2170
 0.6990	19.6570
 0.7000	20.1090
 0.7010	20.5720
 0.7020	21.0680
 0.7030	21.5620
 0.7040	22.0580
 0.7050	22.5640
 0.7060	23.0980
 0.7070	23.6180
 0.7080	24.1290
 0.7090	24.6480
 0.7100	25.1700
 0.7110	25.6940
 0.7120	26.2270
 0.7130	26.7820
 0.7140	27.3160
 0.7150	27.8570
 0.7160	28.4240
 0.7170	28.9820
 0.7180	29.5400
 0.7190	30.0960
 0.7200	30.6450
 0.7210	31.1920
 0.7220	31.7440
 0.7230	32.2930
 0.7240	32.8180
 0.7250	33.3290
 0.7260	33.8190
 0.7270	34.2880
 0.7280	34.7700
 0.7290	35.2380
 0.7300	35.6670
 0.7310	36.0410
 0.7320	36.4230
 0.7330	36.7890
 0.7340	37.1280
 0.7350	37.4580
 0.7360	37.7700
 0.7370	38.0650
 0.7380	38.3430
 0.7390	38.5970
 0.7400	38.8240
 0.7410	39.0340
 0.7420	39.2430
 0.7430	39.4620
 0.7440	39.6440
 0.7450	39.7900
 0.7460	39.9390
 0.7470	40.0780
 0.7480	40.2120
 0.7490	40.3390
 0.7500	40.4420
 0.7510	40.5340
 0.7520	40.6210
 0.7530	40.7020
 0.7540	40.7690
 0.7550	40.8360
 0.7560	40.8980
 0.7570	40.9430
 0.7580	41.0040
 0.7590	41.0570
 0.7600	41.0860
 0.7610	41.1050
 0.7620	41.1480
 0.7630	41.1960
 0.7640	41.2210
 0.7650	41.2390
 0.7660	41.2480
 0.7670	41.2600
 0.7680	41.2870
 0.7690	41.3010
 0.7700	41.3140
 0.7710	41.3330
 0.7720	41.3620
 0.7730	41.3590
 0.7740	41.3550
 0.7750	41.3730
 0.7760	41.3660
 0.7770	41.3730
 0.7780	41.3890
 0.7790	41.3930
 0.7800	41.4160
 0.7810	41.4260
 0.7820	41.4190
 0.7830	41.4230
 0.7840	41.4260
 0.7850	41.4370
 0.7860	41.4520
 0.7870	41.4450
 0.7880	41.4470
 0.7890	41.4500
 0.7900	41.4410
 0.7910	41.4440
 0.7920	41.4490
 0.7930	41.4530
 0.7940	41.4560
 0.7950	41.4400
 0.7960	41.4290
 0.7970	41.4360
 0.7980	41.4480
 0.7990	41.4400
 0.8000	41.4280
 0.8010	41.4270
 0.8020	41.4190
 0.8030	41.4090
 0.8040	41.4040
 0.8050	41.4120
 0.8060	41.4270
 0.8070	41.4180
 0.8080	41.3950
 0.8090	41.3980
 0.8100	41.3950
 0.8110	41.3880
 0.8120	41.3780
 0.8130	41.3600
 0.8140	41.3530
 0.8150	41.3460
 0.8160	41.3310
 0.8170	41.3240
 0.8180	41.3070
 0.8190	41.2830
 0.8200	41.2710
 0.8210	41.2820
 0.8220	41.2750
 0.8230	41.2480
 0.8240	41.2290
 0.8250	41.2050
 0.8260	41.1860
 0.8270	41.1720
 0.8280	41.1320
 0.8290	41.1290
 0.8300	41.1230
 0.8310	41.0780
 0.8320	41.0530
 0.8330	41.0310
 0.8340	41.0080
 0.8350	40.9860
 0.8360	40.9830
 0.8370	40.9780
 0.8380	40.9650
 0.8390	40.9530
 0.8400	40.9630
 0.8410	40.9660
 0.8420	40.9510
 0.8430	40.9450
 0.8440	40.9510
 0.8450	40.9700
 0.8460	40.9870
 0.8470	40.9410
 0.8480	40.9490
 0.8490	40.9760
 0.8500	40.9580
 0.8510	40.9430
 0.8520	40.9440
 0.8530	40.9540
 0.8540	40.9540
 0.8550	40.9560
 0.8560	40.9550
 0.8570	40.9540
 0.8580	40.9640
 0.8590	40.9720
 0.8600	40.9700
 0.8610	40.9670
 0.8620	40.9940
 0.8630	40.9970
 0.8640	40.9980
 0.8650	41.0160
 0.8660	41.0100
 0.8670	41.0050
 0.8680	41.0020
 0.8690	40.9970
 0.8700	41.0030
 0.8710	40.9920
 0.8720	40.9680
 0.8730	40.9580
 0.8740	40.9920
 0.8750	41.0200
 0.8760	41.0190
 0.8770	40.9980
 0.8780	40.9940
 0.8790	40.9940
 0.8800	40.9890
 0.8810	40.9870
 0.8820	40.9940
 0.8830	40.9720
 0.8840	40.9200
 0.8850	40.9350
 0.8860	40.9860
 0.8870	40.9950
 0.8880	40.9270
 0.8890	40.9210
 0.8900	40.9280
 0.8910	40.9370
 0.8920	40.9480
 0.8930	40.9020
 0.8940	40.9090
 0.8950	40.9380
 0.8960	40.8810
 0.8970	40.8580
 0.8980	40.8520
 0.8990	40.8590
 0.9000	40.8860
 0.9010	40.8380
 0.9020	40.7990
 0.9030	40.8070
 0.9040	40.8150
 0.9050	40.7940
 0.9060	40.7590
 0.9070	40.7330
 0.9080	40.7270
 0.9090	40.7220
 0.9100	40.7260
 0.9110	40.7310
 0.9120	40.6590
 0.9130	40.6300
 0.9140	40.6310
 0.9150	40.6180
 0.9160	40.5980
 0.9170	40.5620
 0.9180	40.5060
 0.9190	40.4370
 0.9200	40.4090
 0.9210	40.3880
 0.9220	40.3360
 0.9230	40.2390
 0.9240	40.1960
 0.9250	40.1480
 0.9260	40.0750
 0.9270	39.9940
 0.9280	39.8970
 0.9290	39.8280
 0.9300	39.7690
 0.9310	39.6560
 0.9320	39.5500
 0.9330	39.4360
 0.9340	39.3270
 0.9350	39.2670
 0.9360	39.1340
 0.9370	38.9920
 0.9380	38.8830
 0.9390	38.7730
 0.9400	38.6900
 0.9410	38.5850
 0.9420	38.4350
 0.9430	38.2760
 0.9440	38.1180
 0.9450	37.9310
 0.9460	37.7220
 0.9470	37.5830
 0.9480	37.4680
 0.9490	37.2850
 0.9500	37.0010
 0.9510	36.7620
 0.9520	36.5770
 0.9530	36.3740
 0.9540	36.1190
 0.9550	35.9490
 0.9560	35.7570
 0.9570	35.5510
 0.9580	35.3720
 0.9590	35.2230
 0.9600	35.1080
 0.9610	35.0100
 0.9620	34.9130
 0.9630	34.8390
 0.9640	34.7320
 0.9650	34.6200
 0.9660	34.5610
 0.9670	34.5740
 0.9680	34.4910
 0.9690	34.3830
 0.9700	34.3800
 0.9710	34.3740
 0.9720	34.3990
 0.9730	34.4060
 0.9740	34.3450
 0.9750	34.3810
 0.9760	34.3230
 0.9770	34.2560
 0.9780	34.3360
 0.9790	34.3470
 0.9800	34.3880
 0.9810	34.4260
 0.9820	34.3870
 0.9830	34.3680
 0.9840	34.4340
 0.9850	34.5170
 0.9860	34.5210
 0.9870	34.5710
 0.9880	34.5840
 0.9890	34.5690
 0.9900	34.5930
 0.9910	34.7310
 0.9920	34.8490
 0.9930	34.8630
 0.9940	34.7760
 0.9950	34.7840
 0.9960	34.9340
 0.9970	35.0880
 0.9980	35.1050
 0.9990	35.2170
 1.0000	35.2550
 1.0010	35.3200
 1.0020	35.4030
 1.0030	35.5050
 1.0040	35.6030
 1.0050	35.6920
 1.0060	35.7610
 1.0070	35.8130
 1.0080	35.8740
 1.0090	35.9150
 1.0100	35.9960
 1.0110	36.1160
 1.0120	36.2050
 1.0130	36.2990
 1.0140	36.3820
 1.0150	36.4420
 1.0160	36.5090
 1.0170	36.5800
 1.0180	36.6580
 1.0190	36.7250
 1.0200	36.7810
 1.0210	36.8630
 1.0220	36.9660
 1.0230	37.0610
 1.0240	37.1720
 1.0250	37.2670
 1.0260	37.3630
 1.0270	37.4380
 1.0280	37.4950
 1.0290	37.5610
 1.0300	37.6070
 1.0310	37.6730
 1.0320	37.7570
 1.0330	37.8400
 1.0340	37.9150
 1.0350	37.9780
 1.0360	38.0020
 1.0370	38.0400
 1.0380	38.1100
 1.0390	38.2090
 1.0400	38.2650
 1.0410	38.3300
 1.0420	38.3950
 1.0430	38.4250
 1.0440	38.4710
 1.0450	38.5560
 1.0460	38.6110
 1.0470	38.6290
 1.0480	38.6680
 1.0490	38.7160
 1.0500	38.7610
 1.0510	38.8070
 1.0520	38.8610
 1.0530	38.9080
 1.0540	38.9560
 1.0550	38.9920
 1.0560	39.0360
 1.0570	39.0490
 1.0580	39.0210
 1.0590	39.0330
 1.0600	39.0430
 1.0610	39.0600
 1.0620	39.1070
 1.0630	39.1390
 1.0640	39.1660
 1.0650	39.1840
 1.0660	39.1960
 1.0670	39.2130
 1.0680	39.2280
 1.0690	39.2320
 1.0700	39.2430
 1.0710	39.2690
 1.0720	39.2730
 1.0730	39.2620
 1.0740	39.2560
 1.0750	39.2460
 1.0760	39.2310
 1.0770	39.2110
 1.0780	39.1920
 1.0790	39.1600
 1.0800	39.1440
 1.0810	39.1480
 1.0820	39.1340
 1.0830	39.1230
 1.0840	39.1030
 1.0850	39.0760
 1.0860	39.0340
 1.0870	38.9910
 1.0880	38.9440
 1.0890	38.8940
 1.0900	38.8210
 1.0910	38.7890
 1.0920	38.7780
 1.0930	38.7530
 1.0940	38.7530
 1.0950	38.7240
 1.0960	38.6720
 1.0970	38.6220
 1.0980	38.5560
 1.0990	38.5030
 1.1000	38.4500
 1.1010	38.4000
 1.1020	38.3510
 1.1030	38.3200
 1.1040	38.2790
 1.1050	38.2310
 1.1060	38.1850
 1.1070	38.1450
 1.1080	38.0850
 1.1090	38.0110
 1.1100	37.9480
 1.1110	37.8720
 1.1120	37.8150
 1.1130	37.7900
 1.1140	37.7320
 1.1150	37.6640
 1.1160	37.5970
 1.1170	37.5150
 1.1180	37.4310
 1.1190	37.3610
 1.1200	37.2660
 1.1210	37.1440
 1.1220	37.0210
 1.1230	36.9010
 1.1240	36.7720
 1.1250	36.6230
 1.1260	36.4840
 1.1270	36.2990
 1.1280	36.0800
 1.1290	35.8530
 1.1300	35.6060
 1.1310	35.3490
 1.1320	35.0820
 1.1330	34.7950
 1.1340	34.4980
 1.1350	34.1790
 1.1360	33.8350
 1.1370	33.4810
 1.1380	33.1240
 1.1390	32.7510
 1.1400	32.3790
 1.1410	32.0100
 1.1420	31.6380
 1.1430	31.2750
 1.1440	30.9180
 1.1450	30.5600
 1.1460	30.2260
 1.1470	29.8940
 1.1480	29.5950
 1.1490	29.3170
 1.1500	29.0650
 1.1510	28.8380
 1.1520	28.6310
 1.1530	28.4510
 1.1540	28.2830
 1.1550	28.1440
 1.1560	27.9970
 1.1570	27.8630
 1.1580	27.7420
 1.1590	27.6280
 1.1600	27.5350
 1.1610	27.4600
 1.1620	27.3920
 1.1630	27.3350
 1.1640	27.2880
 1.1650	27.2450
 1.1660	27.2100
 1.1670	27.1790
 1.1680	27.1550
 1.1690	27.1280
 1.1700	27.1060
 1.1710	27.0820
 1.1720	27.0540
 1.1730	27.0310
 1.1740	27.0150
 1.1750	26.9900
 1.1760	26.9680
 1.1770	26.9530
 1.1780	26.9340
 1.1790	26.9130
 1.1800	26.8930
 1.1810	26.8680
 1.1820	26.8420
 1.1830	26.8240
 1.1840	26.8110
 1.1850	26.7900
 1.1860	26.7620
 1.1870	26.7380
 1.1880	26.7190
 1.1890	26.6960
 1.1900	26.6820
 1.1910	26.6790
 1.1920	26.6720
 1.1930	26.6650
 1.1940	26.6560
 1.1950	26.6460
 1.1960	26.6390
 1.1970	26.6330
 1.1980	26.6380
 1.1990	26.6460
 1.2000	26.6480
 1.2010	26.6550
 1.2020	26.6670
 1.2030	26.6790
 1.2040	26.6930
 1.2050	26.7140
 1.2060	26.7320
 1.2070	26.7480
 1.2080	26.7730
 1.2090	26.7880
 1.2100	26.8030
 1.2110	26.8240
 1.2120	26.8500
 1.2130	26.8720
 1.2140	26.8940
 1.2150	26.9190
 1.2160	26.9440
 1.2170	26.9700
 1.2180	26.9990
 1.2190	27.0270
 1.2200	27.0540
 1.2210	27.0890
 1.2220	27.1360
 1.2230	27.1860
 1.2240	27.2330
 1.2250	27.2870
 1.2260	27.3400
 1.2270	27.3880
 1.2280	27.4310
 1.2290	27.4690
 1.2300	27.5000
 1.2310	27.5330
 1.2320	27.5710
 1.2330	27.6060
 1.2340	27.6390
 1.2350	27.6730
 1.2360	27.7030
 1.2370	27.7250
 1.2380	27.7630
 1.2390	27.7990
 1.2400	27.8360
 1.2410	27.8900
 1.2420	27.9330
 1.2430	27.9680
 1.2440	28.0070
 1.2450	28.0340
 1.2460	28.0570
 1.2470	28.0850
 1.2480	28.1200
 1.2490	28.1540
 1.2500	28.1820
 1.2510	28.2030
 1.2520	28.2210
 1.2530	28.2440
 1.2540	28.2670
 1.2550	28.2970
 1.2560	28.3230
 1.2570	28.3380
 1.2580	28.3510
 1.2590	28.3620
 1.2600	28.3700
 1.2610	28.3740
 1.2620	28.3760
 1.2630	28.3780
 1.2640	28.3800
 1.2650	28.3900
 1.2660	28.3970
 1.2670	28.3950
 1.2680	28.3810
 1.2690	28.3570
 1.2700	28.3350
 1.2710	28.3180
 1.2720	28.3090
 1.2730	28.2950
 1.2740	28.2780
 1.2750	28.2660
 1.2760	28.2480
 1.2770	28.2240
 1.2780	28.1930
 1.2790	28.1500
 1.2800	28.1090
 1.2810	28.0780
 1.2820	28.0380
 1.2830	27.9930
 1.2840	27.9440
 1.2850	27.8800
 1.2860	27.8130
 1.2870	27.7490
 1.2880	27.6880
 1.2890	27.6240
 1.2900	27.5600
 1.2910	27.4960
 1.2920	27.4260
 1.2930	27.3420
 1.2940	27.2490
 1.2950	27.1530
 1.2960	27.0530
 1.2970	26.9520
 1.2980	26.8560
 1.2990	26.7620
 1.3000	26.6610
 1.3010	26.5610
 1.3020	26.4520
 1.3030	26.3260
 1.3040	26.2010
 1.3050	26.0750
 1.3060	25.9450
 1.3070	25.8150
 1.3080	25.6720
 1.3090	25.5270
 1.3100	25.3730
 1.3110	25.2150
 1.3120	25.0660
 1.3130	24.9130
 1.3140	24.7550
 1.3150	24.6010
 1.3160	24.4370
 1.3170	24.2660
 1.3180	24.0890
 1.3190	23.9130
 1.3200	23.7320
 1.3210	23.5500
 1.3220	23.3740
 1.3230	23.1940
 1.3240	23.0170
 1.3250	22.8470
 1.3260	22.6710
 1.3270	22.4880
 1.3280	22.3020
 1.3290	22.1070
 1.3300	21.9190
 1.3310	21.7360
 1.3320	21.5520
 1.3330	21.3760
 1.3340	21.2020
 1.3350	21.0300
 1.3360	20.8660
 1.3370	20.7050
 1.3380	20.5420
 1.3390	20.3750
 1.3400	20.2100
 1.3410	20.0500
 1.3420	19.8900
 1.3430	19.7430
 1.3440	19.6010
 1.3450	19.4600
 1.3460	19.3260
 1.3470	19.1920
 1.3480	19.0560
 1.3490	18.9310
 1.3500	18.8130
 1.3510	18.6920
 1.3520	18.5780
 1.3530	18.4640
 1.3540	18.3430
 1.3550	18.2280
 1.3560	18.1180
 1.3570	18.0030
 1.3580	17.8910
 1.3590	17.7800
 1.3600	17.6610
 1.3610	17.5400
 1.3620	17.4150
 1.3630	17.2850
 1.3640	17.1570
 1.3650	17.0220
 1.3660	16.8800
 1.3670	16.7340
 1.3680	16.5820
 1.3690	16.4250
 1.3700	16.2590
 1.3710	16.0850
 1.3720	15.9040
 1.3730	15.7150
 1.3740	15.5200
 1.3750	15.3190
 1.3760	15.1090
 1.3770	14.8910
 1.3780	14.6650
 1.3790	14.4340
 1.3800	14.2000
 1.3810	13.9590
 1.3820	13.7210
 1.3830	13.4830
 1.3840	13.2490
 1.3850	13.0170
 1.3860	12.7880
 1.3870	12.5580
 1.3880	12.3350
 1.3890	12.1140
 1.3900	11.9040
 1.3910	11.7060
 1.3920	11.5150
 1.3930	11.3360
 1.3940	11.1660
 1.3950	11.0030
 1.3960	10.8570
 1.3970	10.7200
 1.3980	10.5880
 1.3990	10.4720
 1.4000	10.3590
 1.4010	10.2550
 1.4020	10.1600
 1.4030	10.0680
 1.4040	 9.9830
 1.4050	 9.9010
 1.4060	 9.8320
 1.4070	 9.7720
 1.4080	 9.7140
 1.4090	 9.6670
 1.4100	 9.6230
 1.4110	 9.5750
 1.4120	 9.5350
 1.4130	 9.4940
 1.4140	 9.4560
 1.4150	 9.4240
 1.4160	 9.3940
 1.4170	 9.3670
 1.4180	 9.3390
 1.4190	 9.3130
 1.4200	 9.2880
 1.4210	 9.2620
 1.4220	 9.2380
 1.4230	 9.2160
 1.4240	 9.1950
 1.4250	 9.1770
 1.4260	 9.1630
 1.4270	 9.1480
 1.4280	 9.1310
 1.4290	 9.1180
 1.4300	 9.1080
 1.4310	 9.1000
 1.4320	 9.0980
 1.4330	 9.0910
 1.4340	 9.0820
 1.4350	 9.0750
 1.4360	 9.0660
 1.4370	 9.0580
 1.4380	 9.0510
 1.4390	 9.0460
 1.4400	 9.0410
 1.4410	 9.0370
 1.4420	 9.0350
 1.4430	 9.0290
 1.4440	 9.0240
 1.4450	 9.0200
 1.4460	 9.0170
 1.4470	 9.0200
 1.4480	 9.0220
 1.4490	 9.0250
 1.4500	 9.0280
 1.4510	 9.0270
 1.4520	 9.0260
 1.4530	 9.0220
 1.4540	 9.0180
 1.4550	 9.0180
 1.4560	 9.0160
 1.4570	 9.0170
 1.4580	 9.0190
 1.4590	 9.0160
 1.4600	 9.0170
 1.4610	 9.0210
 1.4620	 9.0220
 1.4630	 9.0280
 1.4640	 9.0310
 1.4650	 9.0330
 1.4660	 9.0410
 1.4670	 9.0450
 1.4680	 9.0540
 1.4690	 9.0610
 1.4700	 9.0690
 1.4710	 9.0840
 1.4720	 9.1000
 1.4730	 9.1150
 1.4740	 9.1280
 1.4750	 9.1390
 1.4760	 9.1490
 1.4770	 9.1600
 1.4780	 9.1750
 1.4790	 9.1910
 1.4800	 9.2040
 1.4810	 9.2190
 1.4820	 9.2320
