Name: Jacaranda mimosifolia
Type: vegetation
Class: Tree
Genus: Jacaranda
Species: mimosifolia
Sample No.: JPL201
Owner: JPL
Wavelength Range: VSWIR
Origin: 34.12558; -118.11333; WGS84
Collection Date: 10/3/2016
Description: Samples were collected at the Huntington Garden in San Marino California as part of a JPL Subcontract studying HyTES imagery. Samples were taken to JPL and processed within 48 hours of collection. The same leaves were processed in the Nicolet and then measured using the ASD.
Measurement: Bidirectional reflectance
First Column: X
Second Column: Y
X Units: Wavelength (micrometer)
Y Units: Reflectance (percentage)
First X Value: 0.35
Last X Value: 2.5
Number of X Values: 2151
Additional Information: vegetation.tree.jacaranda.mimosifolia.vswir.jpl201.jpl.asd.ancillary.txt

 0.3500	 2.6290
 0.3510	 2.6980
 0.3520	 2.7250
 0.3530	 2.6860
 0.3540	 2.6310
 0.3550	 2.6830
 0.3560	 2.6690
 0.3570	 2.6430
 0.3580	 2.7350
 0.3590	 2.6720
 0.3600	 2.6710
 0.3610	 2.7700
 0.3620	 2.6990
 0.3630	 2.6480
 0.3640	 2.6440
 0.3650	 2.6590
 0.3660	 2.6390
 0.3670	 2.6340
 0.3680	 2.6270
 0.3690	 2.5670
 0.3700	 2.5780
 0.3710	 2.6070
 0.3720	 2.6120
 0.3730	 2.6200
 0.3740	 2.5880
 0.3750	 2.5500
 0.3760	 2.5540
 0.3770	 2.6050
 0.3780	 2.6150
 0.3790	 2.5850
 0.3800	 2.5910
 0.3810	 2.5900
 0.3820	 2.5930
 0.3830	 2.5990
 0.3840	 2.5580
 0.3850	 2.5360
 0.3860	 2.5170
 0.3870	 2.4810
 0.3880	 2.5690
 0.3890	 2.6380
 0.3900	 2.6220
 0.3910	 2.5570
 0.3920	 2.5760
 0.3930	 2.6020
 0.3940	 2.5730
 0.3950	 2.5790
 0.3960	 2.5850
 0.3970	 2.5860
 0.3980	 2.5880
 0.3990	 2.5970
 0.4000	 2.6060
 0.4010	 2.6100
 0.4020	 2.6070
 0.4030	 2.5870
 0.4040	 2.5880
 0.4050	 2.6270
 0.4060	 2.6240
 0.4070	 2.6260
 0.4080	 2.6420
 0.4090	 2.6520
 0.4100	 2.6420
 0.4110	 2.6420
 0.4120	 2.6660
 0.4130	 2.6870
 0.4140	 2.6970
 0.4150	 2.7040
 0.4160	 2.7150
 0.4170	 2.7080
 0.4180	 2.7190
 0.4190	 2.7440
 0.4200	 2.7470
 0.4210	 2.7530
 0.4220	 2.7630
 0.4230	 2.7740
 0.4240	 2.7730
 0.4250	 2.7780
 0.4260	 2.7890
 0.4270	 2.7970
 0.4280	 2.8010
 0.4290	 2.8140
 0.4300	 2.8320
 0.4310	 2.8360
 0.4320	 2.8330
 0.4330	 2.8370
 0.4340	 2.8540
 0.4350	 2.8540
 0.4360	 2.8530
 0.4370	 2.8580
 0.4380	 2.8730
 0.4390	 2.8690
 0.4400	 2.8660
 0.4410	 2.8780
 0.4420	 2.8730
 0.4430	 2.8810
 0.4440	 2.8970
 0.4450	 2.9060
 0.4460	 2.9120
 0.4470	 2.9130
 0.4480	 2.9130
 0.4490	 2.9220
 0.4500	 2.9310
 0.4510	 2.9430
 0.4520	 2.9570
 0.4530	 2.9570
 0.4540	 2.9630
 0.4550	 2.9730
 0.4560	 2.9740
 0.4570	 2.9820
 0.4580	 2.9920
 0.4590	 2.9970
 0.4600	 3.0020
 0.4610	 3.0020
 0.4620	 2.9980
 0.4630	 2.9920
 0.4640	 2.9960
 0.4650	 3.0060
 0.4660	 3.0160
 0.4670	 3.0200
 0.4680	 3.0140
 0.4690	 3.0070
 0.4700	 3.0050
 0.4710	 3.0110
 0.4720	 3.0160
 0.4730	 3.0180
 0.4740	 3.0180
 0.4750	 3.0240
 0.4760	 3.0270
 0.4770	 3.0250
 0.4780	 3.0350
 0.4790	 3.0360
 0.4800	 3.0360
 0.4810	 3.0410
 0.4820	 3.0470
 0.4830	 3.0510
 0.4840	 3.0540
 0.4850	 3.0610
 0.4860	 3.0680
 0.4870	 3.0790
 0.4880	 3.0950
 0.4890	 3.0970
 0.4900	 3.1060
 0.4910	 3.1260
 0.4920	 3.1480
 0.4930	 3.1630
 0.4940	 3.1790
 0.4950	 3.2020
 0.4960	 3.2210
 0.4970	 3.2460
 0.4980	 3.2760
 0.4990	 3.3100
 0.5000	 3.3460
 0.5010	 3.3840
 0.5020	 3.4310
 0.5030	 3.4910
 0.5040	 3.5470
 0.5050	 3.6010
 0.5060	 3.6600
 0.5070	 3.7370
 0.5080	 3.8170
 0.5090	 3.9020
 0.5100	 3.9980
 0.5110	 4.1120
 0.5120	 4.2300
 0.5130	 4.3480
 0.5140	 4.4800
 0.5150	 4.6190
 0.5160	 4.7670
 0.5170	 4.9250
 0.5180	 5.0890
 0.5190	 5.2550
 0.5200	 5.4240
 0.5210	 5.6030
 0.5220	 5.7840
 0.5230	 5.9620
 0.5240	 6.1360
 0.5250	 6.3100
 0.5260	 6.4750
 0.5270	 6.6320
 0.5280	 6.7830
 0.5290	 6.9240
 0.5300	 7.0550
 0.5310	 7.1770
 0.5320	 7.2900
 0.5330	 7.3920
 0.5340	 7.4860
 0.5350	 7.5710
 0.5360	 7.6420
 0.5370	 7.7060
 0.5380	 7.7680
 0.5390	 7.8290
 0.5400	 7.8900
 0.5410	 7.9500
 0.5420	 8.0100
 0.5430	 8.0620
 0.5440	 8.1020
 0.5450	 8.1280
 0.5460	 8.1410
 0.5470	 8.1440
 0.5480	 8.1500
 0.5490	 8.1600
 0.5500	 8.1690
 0.5510	 8.1730
 0.5520	 8.1740
 0.5530	 8.1700
 0.5540	 8.1540
 0.5550	 8.1240
 0.5560	 8.0860
 0.5570	 8.0450
 0.5580	 7.9920
 0.5590	 7.9300
 0.5600	 7.8600
 0.5610	 7.7820
 0.5620	 7.7010
 0.5630	 7.6140
 0.5640	 7.5220
 0.5650	 7.4240
 0.5660	 7.3230
 0.5670	 7.2200
 0.5680	 7.1150
 0.5690	 7.0080
 0.5700	 6.9000
 0.5710	 6.7930
 0.5720	 6.6900
 0.5730	 6.5880
 0.5740	 6.4900
 0.5750	 6.4010
 0.5760	 6.3160
 0.5770	 6.2350
 0.5780	 6.1600
 0.5790	 6.0940
 0.5800	 6.0280
 0.5810	 5.9620
 0.5820	 5.9040
 0.5830	 5.8540
 0.5840	 5.8070
 0.5850	 5.7590
 0.5860	 5.7110
 0.5870	 5.6690
 0.5880	 5.6310
 0.5890	 5.5930
 0.5900	 5.5560
 0.5910	 5.5250
 0.5920	 5.4960
 0.5930	 5.4670
 0.5940	 5.4410
 0.5950	 5.4210
 0.5960	 5.4040
 0.5970	 5.3830
 0.5980	 5.3650
 0.5990	 5.3480
 0.6000	 5.3280
 0.6010	 5.3040
 0.6020	 5.2790
 0.6030	 5.2520
 0.6040	 5.2220
 0.6050	 5.1880
 0.6060	 5.1500
 0.6070	 5.1130
 0.6080	 5.0720
 0.6090	 5.0300
 0.6100	 4.9930
 0.6110	 4.9610
 0.6120	 4.9160
 0.6130	 4.8600
 0.6140	 4.8020
 0.6150	 4.7560
 0.6160	 4.7090
 0.6170	 4.6630
 0.6180	 4.6200
 0.6190	 4.5850
 0.6200	 4.5540
 0.6210	 4.5240
 0.6220	 4.5010
 0.6230	 4.4790
 0.6240	 4.4590
 0.6250	 4.4440
 0.6260	 4.4310
 0.6270	 4.4220
 0.6280	 4.4160
 0.6290	 4.4090
 0.6300	 4.4040
 0.6310	 4.3970
 0.6320	 4.3850
 0.6330	 4.3680
 0.6340	 4.3490
 0.6350	 4.3270
 0.6360	 4.2970
 0.6370	 4.2630
 0.6380	 4.2190
 0.6390	 4.1690
 0.6400	 4.1210
 0.6410	 4.0690
 0.6420	 4.0170
 0.6430	 3.9650
 0.6440	 3.9100
 0.6450	 3.8580
 0.6460	 3.8110
 0.6470	 3.7660
 0.6480	 3.7260
 0.6490	 3.6920
 0.6500	 3.6640
 0.6510	 3.6400
 0.6520	 3.6200
 0.6530	 3.6030
 0.6540	 3.5860
 0.6550	 3.5680
 0.6560	 3.5500
 0.6570	 3.5300
 0.6580	 3.5050
 0.6590	 3.4750
 0.6600	 3.4470
 0.6610	 3.4200
 0.6620	 3.3920
 0.6630	 3.3650
 0.6640	 3.3390
 0.6650	 3.3170
 0.6660	 3.2990
 0.6670	 3.2850
 0.6680	 3.2740
 0.6690	 3.2650
 0.6700	 3.2630
 0.6710	 3.2630
 0.6720	 3.2630
 0.6730	 3.2690
 0.6740	 3.2780
 0.6750	 3.2910
 0.6760	 3.3080
 0.6770	 3.3240
 0.6780	 3.3440
 0.6790	 3.3670
 0.6800	 3.3930
 0.6810	 3.4250
 0.6820	 3.4610
 0.6830	 3.5010
 0.6840	 3.5480
 0.6850	 3.6070
 0.6860	 3.6790
 0.6870	 3.7640
 0.6880	 3.8700
 0.6890	 4.0030
 0.6900	 4.1670
 0.6910	 4.3670
 0.6920	 4.6090
 0.6930	 4.8930
 0.6940	 5.2210
 0.6950	 5.5960
 0.6960	 6.0150
 0.6970	 6.4770
 0.6980	 6.9750
 0.6990	 7.5010
 0.7000	 8.0550
 0.7010	 8.6300
 0.7020	 9.2180
 0.7030	 9.8170
 0.7040	10.4220
 0.7050	11.0270
 0.7060	11.6340
 0.7070	12.2370
 0.7080	12.8350
 0.7090	13.4320
 0.7100	14.0230
 0.7110	14.6130
 0.7120	15.2010
 0.7130	15.7840
 0.7140	16.3580
 0.7150	16.9290
 0.7160	17.4960
 0.7170	18.0560
 0.7180	18.6070
 0.7190	19.1500
 0.7200	19.6840
 0.7210	20.2040
 0.7220	20.7100
 0.7230	21.2040
 0.7240	21.6820
 0.7250	22.1460
 0.7260	22.5910
 0.7270	23.0170
 0.7280	23.4250
 0.7290	23.8140
 0.7300	24.1860
 0.7310	24.5380
 0.7320	24.8740
 0.7330	25.1900
 0.7340	25.4850
 0.7350	25.7630
 0.7360	26.0260
 0.7370	26.2710
 0.7380	26.4990
 0.7390	26.7170
 0.7400	26.9180
 0.7410	27.1030
 0.7420	27.2760
 0.7430	27.4350
 0.7440	27.5790
 0.7450	27.7110
 0.7460	27.8310
 0.7470	27.9400
 0.7480	28.0410
 0.7490	28.1350
 0.7500	28.2190
 0.7510	28.2940
 0.7520	28.3620
 0.7530	28.4230
 0.7540	28.4780
 0.7550	28.5280
 0.7560	28.5750
 0.7570	28.6180
 0.7580	28.6570
 0.7590	28.6910
 0.7600	28.7210
 0.7610	28.7500
 0.7620	28.7730
 0.7630	28.7940
 0.7640	28.8160
 0.7650	28.8300
 0.7660	28.8450
 0.7670	28.8620
 0.7680	28.8750
 0.7690	28.8850
 0.7700	28.8950
 0.7710	28.9060
 0.7720	28.9160
 0.7730	28.9220
 0.7740	28.9290
 0.7750	28.9400
 0.7760	28.9480
 0.7770	28.9530
 0.7780	28.9580
 0.7790	28.9640
 0.7800	28.9690
 0.7810	28.9750
 0.7820	28.9790
 0.7830	28.9820
 0.7840	28.9880
 0.7850	28.9930
 0.7860	28.9960
 0.7870	28.9990
 0.7880	29.0020
 0.7890	29.0040
 0.7900	29.0040
 0.7910	29.0070
 0.7920	29.0080
 0.7930	29.0070
 0.7940	29.0110
 0.7950	29.0100
 0.7960	29.0070
 0.7970	29.0050
 0.7980	29.0030
 0.7990	29.0010
 0.8000	28.9990
 0.8010	28.9930
 0.8020	28.9880
 0.8030	28.9830
 0.8040	28.9790
 0.8050	28.9760
 0.8060	28.9710
 0.8070	28.9640
 0.8080	28.9570
 0.8090	28.9510
 0.8100	28.9460
 0.8110	28.9390
 0.8120	28.9290
 0.8130	28.9230
 0.8140	28.9140
 0.8150	28.9040
 0.8160	28.8960
 0.8170	28.8900
 0.8180	28.8820
 0.8190	28.8720
 0.8200	28.8630
 0.8210	28.8540
 0.8220	28.8480
 0.8230	28.8420
 0.8240	28.8340
 0.8250	28.8240
 0.8260	28.8160
 0.8270	28.8080
 0.8280	28.7980
 0.8290	28.7900
 0.8300	28.7850
 0.8310	28.7790
 0.8320	28.7690
 0.8330	28.7600
 0.8340	28.7530
 0.8350	28.7480
 0.8360	28.7440
 0.8370	28.7390
 0.8380	28.7330
 0.8390	28.7290
 0.8400	28.7240
 0.8410	28.7220
 0.8420	28.7220
 0.8430	28.7180
 0.8440	28.7120
 0.8450	28.7070
 0.8460	28.7040
 0.8470	28.7040
 0.8480	28.7040
 0.8490	28.7030
 0.8500	28.7000
 0.8510	28.6980
 0.8520	28.6970
 0.8530	28.7000
 0.8540	28.7070
 0.8550	28.7060
 0.8560	28.7030
 0.8570	28.7020
 0.8580	28.7050
 0.8590	28.7080
 0.8600	28.7120
 0.8610	28.7160
 0.8620	28.7180
 0.8630	28.7170
 0.8640	28.7180
 0.8650	28.7240
 0.8660	28.7280
 0.8670	28.7320
 0.8680	28.7370
 0.8690	28.7410
 0.8700	28.7420
 0.8710	28.7430
 0.8720	28.7480
 0.8730	28.7550
 0.8740	28.7590
 0.8750	28.7650
 0.8760	28.7710
 0.8770	28.7740
 0.8780	28.7800
 0.8790	28.7870
 0.8800	28.7940
 0.8810	28.8020
 0.8820	28.8080
 0.8830	28.8120
 0.8840	28.8160
 0.8850	28.8210
 0.8860	28.8270
 0.8870	28.8320
 0.8880	28.8350
 0.8890	28.8430
 0.8900	28.8510
 0.8910	28.8570
 0.8920	28.8590
 0.8930	28.8610
 0.8940	28.8660
 0.8950	28.8730
 0.8960	28.8820
 0.8970	28.8850
 0.8980	28.8910
 0.8990	28.8980
 0.9000	28.9010
 0.9010	28.9050
 0.9020	28.9100
 0.9030	28.9160
 0.9040	28.9220
 0.9050	28.9240
 0.9060	28.9290
 0.9070	28.9370
 0.9080	28.9390
 0.9090	28.9430
 0.9100	28.9510
 0.9110	28.9570
 0.9120	28.9510
 0.9130	28.9510
 0.9140	28.9560
 0.9150	28.9630
 0.9160	28.9650
 0.9170	28.9640
 0.9180	28.9630
 0.9190	28.9630
 0.9200	28.9660
 0.9210	28.9690
 0.9220	28.9710
 0.9230	28.9710
 0.9240	28.9680
 0.9250	28.9670
 0.9260	28.9650
 0.9270	28.9570
 0.9280	28.9520
 0.9290	28.9450
 0.9300	28.9400
 0.9310	28.9440
 0.9320	28.9350
 0.9330	28.9250
 0.9340	28.9190
 0.9350	28.9120
 0.9360	28.9030
 0.9370	28.8990
 0.9380	28.8990
 0.9390	28.8840
 0.9400	28.8760
 0.9410	28.8680
 0.9420	28.8540
 0.9430	28.8430
 0.9440	28.8310
 0.9450	28.8180
 0.9460	28.8090
 0.9470	28.8000
 0.9480	28.7860
 0.9490	28.7650
 0.9500	28.7390
 0.9510	28.7150
 0.9520	28.6940
 0.9530	28.6770
 0.9540	28.6610
 0.9550	28.6410
 0.9560	28.6180
 0.9570	28.5970
 0.9580	28.5820
 0.9590	28.5680
 0.9600	28.5510
 0.9610	28.5290
 0.9620	28.5040
 0.9630	28.4960
 0.9640	28.4860
 0.9650	28.4760
 0.9660	28.4710
 0.9670	28.4560
 0.9680	28.4450
 0.9690	28.4390
 0.9700	28.4330
 0.9710	28.4150
 0.9720	28.4010
 0.9730	28.4000
 0.9740	28.4060
 0.9750	28.3960
 0.9760	28.3880
 0.9770	28.3880
 0.9780	28.3910
 0.9790	28.3810
 0.9800	28.3690
 0.9810	28.3580
 0.9820	28.3480
 0.9830	28.3630
 0.9840	28.3730
 0.9850	28.3640
 0.9860	28.3410
 0.9870	28.3490
 0.9880	28.3610
 0.9890	28.3660
 0.9900	28.3610
 0.9910	28.3580
 0.9920	28.3640
 0.9930	28.3710
 0.9940	28.3660
 0.9950	28.3690
 0.9960	28.3640
 0.9970	28.3510
 0.9980	28.3440
 0.9990	28.3630
 1.0000	28.3830
 1.0010	28.4160
 1.0020	28.4180
 1.0030	28.4220
 1.0040	28.4260
 1.0050	28.4310
 1.0060	28.4350
 1.0070	28.4380
 1.0080	28.4410
 1.0090	28.4440
 1.0100	28.4470
 1.0110	28.4520
 1.0120	28.4570
 1.0130	28.4640
 1.0140	28.4700
 1.0150	28.4760
 1.0160	28.4790
 1.0170	28.4820
 1.0180	28.4810
 1.0190	28.4800
 1.0200	28.4860
 1.0210	28.4890
 1.0220	28.4940
 1.0230	28.4990
 1.0240	28.5040
 1.0250	28.5090
 1.0260	28.5180
 1.0270	28.5210
 1.0280	28.5190
 1.0290	28.5220
 1.0300	28.5230
 1.0310	28.5270
 1.0320	28.5360
 1.0330	28.5450
 1.0340	28.5500
 1.0350	28.5530
 1.0360	28.5560
 1.0370	28.5550
 1.0380	28.5560
 1.0390	28.5580
 1.0400	28.5600
 1.0410	28.5590
 1.0420	28.5610
 1.0430	28.5630
 1.0440	28.5650
 1.0450	28.5700
 1.0460	28.5730
 1.0470	28.5750
 1.0480	28.5780
 1.0490	28.5810
 1.0500	28.5830
 1.0510	28.5860
 1.0520	28.5880
 1.0530	28.5900
 1.0540	28.5900
 1.0550	28.5930
 1.0560	28.5980
 1.0570	28.6010
 1.0580	28.6050
 1.0590	28.6080
 1.0600	28.6100
 1.0610	28.6120
 1.0620	28.6130
 1.0630	28.6150
 1.0640	28.6180
 1.0650	28.6210
 1.0660	28.6240
 1.0670	28.6270
 1.0680	28.6290
 1.0690	28.6320
 1.0700	28.6330
 1.0710	28.6340
 1.0720	28.6370
 1.0730	28.6410
 1.0740	28.6440
 1.0750	28.6480
 1.0760	28.6520
 1.0770	28.6550
 1.0780	28.6570
 1.0790	28.6570
 1.0800	28.6590
 1.0810	28.6590
 1.0820	28.6600
 1.0830	28.6640
 1.0840	28.6660
 1.0850	28.6640
 1.0860	28.6650
 1.0870	28.6640
 1.0880	28.6620
 1.0890	28.6620
 1.0900	28.6620
 1.0910	28.6630
 1.0920	28.6680
 1.0930	28.6680
 1.0940	28.6670
 1.0950	28.6660
 1.0960	28.6610
 1.0970	28.6580
 1.0980	28.6560
 1.0990	28.6550
 1.1000	28.6560
 1.1010	28.6550
 1.1020	28.6530
 1.1030	28.6530
 1.1040	28.6510
 1.1050	28.6470
 1.1060	28.6440
 1.1070	28.6410
 1.1080	28.6380
 1.1090	28.6350
 1.1100	28.6310
 1.1110	28.6250
 1.1120	28.6200
 1.1130	28.6130
 1.1140	28.6060
 1.1150	28.6010
 1.1160	28.5940
 1.1170	28.5860
 1.1180	28.5780
 1.1190	28.5700
 1.1200	28.5600
 1.1210	28.5500
 1.1220	28.5390
 1.1230	28.5260
 1.1240	28.5110
 1.1250	28.4950
 1.1260	28.4780
 1.1270	28.4580
 1.1280	28.4360
 1.1290	28.4140
 1.1300	28.3910
 1.1310	28.3650
 1.1320	28.3360
 1.1330	28.3050
 1.1340	28.2700
 1.1350	28.2340
 1.1360	28.1960
 1.1370	28.1570
 1.1380	28.1180
 1.1390	28.0770
 1.1400	28.0340
 1.1410	27.9910
 1.1420	27.9480
 1.1430	27.9030
 1.1440	27.8600
 1.1450	27.8170
 1.1460	27.7740
 1.1470	27.7290
 1.1480	27.6870
 1.1490	27.6460
 1.1500	27.6090
 1.1510	27.5750
 1.1520	27.5420
 1.1530	27.5120
 1.1540	27.4830
 1.1550	27.4550
 1.1560	27.4280
 1.1570	27.4040
 1.1580	27.3800
 1.1590	27.3580
 1.1600	27.3410
 1.1610	27.3240
 1.1620	27.3100
 1.1630	27.2980
 1.1640	27.2860
 1.1650	27.2750
 1.1660	27.2640
 1.1670	27.2540
 1.1680	27.2450
 1.1690	27.2370
 1.1700	27.2300
 1.1710	27.2220
 1.1720	27.2150
 1.1730	27.2080
 1.1740	27.2000
 1.1750	27.1940
 1.1760	27.1890
 1.1770	27.1840
 1.1780	27.1790
 1.1790	27.1730
 1.1800	27.1680
 1.1810	27.1600
 1.1820	27.1540
 1.1830	27.1470
 1.1840	27.1390
 1.1850	27.1320
 1.1860	27.1240
 1.1870	27.1180
 1.1880	27.1120
 1.1890	27.1070
 1.1900	27.1020
 1.1910	27.0970
 1.1920	27.0930
 1.1930	27.0890
 1.1940	27.0870
 1.1950	27.0850
 1.1960	27.0840
 1.1970	27.0820
 1.1980	27.0800
 1.1990	27.0800
 1.2000	27.0790
 1.2010	27.0800
 1.2020	27.0830
 1.2030	27.0860
 1.2040	27.0890
 1.2050	27.0920
 1.2060	27.0960
 1.2070	27.1020
 1.2080	27.1080
 1.2090	27.1140
 1.2100	27.1200
 1.2110	27.1270
 1.2120	27.1340
 1.2130	27.1420
 1.2140	27.1510
 1.2150	27.1610
 1.2160	27.1710
 1.2170	27.1810
 1.2180	27.1890
 1.2190	27.1990
 1.2200	27.2090
 1.2210	27.2180
 1.2220	27.2290
 1.2230	27.2420
 1.2240	27.2530
 1.2250	27.2640
 1.2260	27.2740
 1.2270	27.2830
 1.2280	27.2920
 1.2290	27.3000
 1.2300	27.3070
 1.2310	27.3140
 1.2320	27.3210
 1.2330	27.3270
 1.2340	27.3340
 1.2350	27.3430
 1.2360	27.3490
 1.2370	27.3560
 1.2380	27.3620
 1.2390	27.3680
 1.2400	27.3730
 1.2410	27.3780
 1.2420	27.3830
 1.2430	27.3860
 1.2440	27.3910
 1.2450	27.3950
 1.2460	27.3980
 1.2470	27.4030
 1.2480	27.4060
 1.2490	27.4100
 1.2500	27.4150
 1.2510	27.4190
 1.2520	27.4230
 1.2530	27.4240
 1.2540	27.4250
 1.2550	27.4270
 1.2560	27.4290
 1.2570	27.4300
 1.2580	27.4330
 1.2590	27.4340
 1.2600	27.4340
 1.2610	27.4340
 1.2620	27.4330
 1.2630	27.4310
 1.2640	27.4280
 1.2650	27.4260
 1.2660	27.4250
 1.2670	27.4230
 1.2680	27.4210
 1.2690	27.4200
 1.2700	27.4180
 1.2710	27.4140
 1.2720	27.4090
 1.2730	27.4040
 1.2740	27.3970
 1.2750	27.3910
 1.2760	27.3850
 1.2770	27.3790
 1.2780	27.3720
 1.2790	27.3660
 1.2800	27.3580
 1.2810	27.3500
 1.2820	27.3420
 1.2830	27.3330
 1.2840	27.3240
 1.2850	27.3160
 1.2860	27.3050
 1.2870	27.2940
 1.2880	27.2830
 1.2890	27.2720
 1.2900	27.2610
 1.2910	27.2500
 1.2920	27.2390
 1.2930	27.2280
 1.2940	27.2150
 1.2950	27.2020
 1.2960	27.1900
 1.2970	27.1780
 1.2980	27.1630
 1.2990	27.1470
 1.3000	27.1310
 1.3010	27.1150
 1.3020	27.1010
 1.3030	27.0850
 1.3040	27.0670
 1.3050	27.0470
 1.3060	27.0270
 1.3070	27.0070
 1.3080	26.9850
 1.3090	26.9640
 1.3100	26.9400
 1.3110	26.9130
 1.3120	26.8870
 1.3130	26.8580
 1.3140	26.8290
 1.3150	26.7990
 1.3160	26.7680
 1.3170	26.7360
 1.3180	26.7040
 1.3190	26.6680
 1.3200	26.6320
 1.3210	26.5930
 1.3220	26.5520
 1.3230	26.5120
 1.3240	26.4700
 1.3250	26.4270
 1.3260	26.3840
 1.3270	26.3400
 1.3280	26.2940
 1.3290	26.2470
 1.3300	26.1980
 1.3310	26.1480
 1.3320	26.0970
 1.3330	26.0460
 1.3340	25.9950
 1.3350	25.9440
 1.3360	25.8910
 1.3370	25.8390
 1.3380	25.7860
 1.3390	25.7310
 1.3400	25.6770
 1.3410	25.6230
 1.3420	25.5700
 1.3430	25.5170
 1.3440	25.4660
 1.3450	25.4140
 1.3460	25.3610
 1.3470	25.3080
 1.3480	25.2540
 1.3490	25.2010
 1.3500	25.1490
 1.3510	25.0980
 1.3520	25.0470
 1.3530	24.9950
 1.3540	24.9420
 1.3550	24.8880
 1.3560	24.8340
 1.3570	24.7800
 1.3580	24.7270
 1.3590	24.6730
 1.3600	24.6190
 1.3610	24.5630
 1.3620	24.5040
 1.3630	24.4450
 1.3640	24.3850
 1.3650	24.3230
 1.3660	24.2580
 1.3670	24.1890
 1.3680	24.1150
 1.3690	24.0360
 1.3700	23.9520
 1.3710	23.8630
 1.3720	23.7680
 1.3730	23.6650
 1.3740	23.5530
 1.3750	23.4320
 1.3760	23.2990
 1.3770	23.1560
 1.3780	23.0020
 1.3790	22.8350
 1.3800	22.6590
 1.3810	22.4700
 1.3820	22.2690
 1.3830	22.0580
 1.3840	21.8360
 1.3850	21.6010
 1.3860	21.3570
 1.3870	21.1000
 1.3880	20.8360
 1.3890	20.5630
 1.3900	20.2800
 1.3910	19.9930
 1.3920	19.6990
 1.3930	19.3980
 1.3940	19.0960
 1.3950	18.7890
 1.3960	18.4820
 1.3970	18.1770
 1.3980	17.8740
 1.3990	17.5780
 1.4000	17.2860
 1.4010	16.9990
 1.4020	16.7210
 1.4030	16.4470
 1.4040	16.1840
 1.4050	15.9300
 1.4060	15.6860
 1.4070	15.4560
 1.4080	15.2370
 1.4090	15.0270
 1.4100	14.8300
 1.4110	14.6410
 1.4120	14.4650
 1.4130	14.3000
 1.4140	14.1450
 1.4150	14.0020
 1.4160	13.8680
 1.4170	13.7420
 1.4180	13.6260
 1.4190	13.5180
 1.4200	13.4180
 1.4210	13.3260
 1.4220	13.2410
 1.4230	13.1630
 1.4240	13.0920
 1.4250	13.0270
 1.4260	12.9680
 1.4270	12.9130
 1.4280	12.8630
 1.4290	12.8180
 1.4300	12.7780
 1.4310	12.7420
 1.4320	12.7120
 1.4330	12.6840
 1.4340	12.6600
 1.4350	12.6390
 1.4360	12.6210
 1.4370	12.6070
 1.4380	12.5960
 1.4390	12.5900
 1.4400	12.5870
 1.4410	12.5840
 1.4420	12.5840
 1.4430	12.5850
 1.4440	12.5870
 1.4450	12.5910
 1.4460	12.5970
 1.4470	12.6050
 1.4480	12.6140
 1.4490	12.6250
 1.4500	12.6370
 1.4510	12.6490
 1.4520	12.6620
 1.4530	12.6770
 1.4540	12.6920
 1.4550	12.7090
 1.4560	12.7270
 1.4570	12.7450
 1.4580	12.7670
 1.4590	12.7900
 1.4600	12.8150
 1.4610	12.8440
 1.4620	12.8750
 1.4630	12.9090
 1.4640	12.9450
 1.4650	12.9850
 1.4660	13.0290
 1.4670	13.0750
 1.4680	13.1240
 1.4690	13.1770
 1.4700	13.2330
 1.4710	13.2920
 1.4720	13.3520
 1.4730	13.4150
 1.4740	13.4790
 1.4750	13.5450
 1.4760	13.6150
 1.4770	13.6850
