Name: Arctostaphylos glandulosa 2
Type: vegetation
Class: Shrub
Genus: Arctostaphylos
Species: glandulosa
Sample No.: VH038
Owner: UCSB
Wavelength Range: VSWIR
Origin: 34.5084; -119.7682; WGS84
Collection Date: 4/1/2013
Description: Samples were collected as part of the HyspIRI Airborne Campaign. 48 individual plants were sampled in three times in 2013 - spring  summer  and fall. The name of the sample includes a 1  2  or 3 which references a different individual of the species. Samples were taken to JPL and processed within 48 hours of collection. The same leaves were processed in the Nicolet and then measured using the ASD.
Measurement: Bidirectional reflectance
First Column: X
Second Column: Y
X Units: Wavelength (micrometers)
Y Units: Reflectance (percentage)
First X Value: 0.35
Last X Value: 2.5
Number of X Values: 2151
Additional Information: vegetation.shrub.arctostaphylos.glandulosa.vswir.vh038.ucsb.asd.ancillary.txt

 0.3500	10.7970
 0.3510	10.9550
 0.3520	10.7080
 0.3530	10.4680
 0.3540	10.5700
 0.3550	10.5890
 0.3560	10.5480
 0.3570	10.4590
 0.3580	10.3520
 0.3590	10.4260
 0.3600	10.4450
 0.3610	10.3630
 0.3620	10.4520
 0.3630	10.5440
 0.3640	10.5100
 0.3650	10.3320
 0.3660	10.3490
 0.3670	10.3780
 0.3680	10.3870
 0.3690	10.4390
 0.3700	10.4390
 0.3710	10.4250
 0.3720	10.4380
 0.3730	10.4970
 0.3740	10.4540
 0.3750	10.3890
 0.3760	10.4050
 0.3770	10.3470
 0.3780	10.3270
 0.3790	10.3570
 0.3800	10.3580
 0.3810	10.4040
 0.3820	10.4320
 0.3830	10.4000
 0.3840	10.3330
 0.3850	10.4190
 0.3860	10.5070
 0.3870	10.3960
 0.3880	10.3810
 0.3890	10.3630
 0.3900	10.3150
 0.3910	10.3120
 0.3920	10.3560
 0.3930	10.3790
 0.3940	10.3460
 0.3950	10.3620
 0.3960	10.4020
 0.3970	10.4220
 0.3980	10.3890
 0.3990	10.3920
 0.4000	10.3810
 0.4010	10.3430
 0.4020	10.3250
 0.4030	10.3350
 0.4040	10.3440
 0.4050	10.3300
 0.4060	10.3530
 0.4070	10.3680
 0.4080	10.3510
 0.4090	10.3010
 0.4100	10.3020
 0.4110	10.3210
 0.4120	10.3310
 0.4130	10.3430
 0.4140	10.3440
 0.4150	10.3320
 0.4160	10.3140
 0.4170	10.3180
 0.4180	10.3480
 0.4190	10.3780
 0.4200	10.3570
 0.4210	10.3530
 0.4220	10.3660
 0.4230	10.3850
 0.4240	10.4010
 0.4250	10.4220
 0.4260	10.4420
 0.4270	10.4570
 0.4280	10.4900
 0.4290	10.5310
 0.4300	10.5680
 0.4310	10.5900
 0.4320	10.6360
 0.4330	10.6890
 0.4340	10.7290
 0.4350	10.7820
 0.4360	10.8450
 0.4370	10.9030
 0.4380	10.9320
 0.4390	10.9750
 0.4400	11.0350
 0.4410	11.1060
 0.4420	11.1640
 0.4430	11.2280
 0.4440	11.2890
 0.4450	11.3350
 0.4460	11.4110
 0.4470	11.4860
 0.4480	11.5440
 0.4490	11.5990
 0.4500	11.6610
 0.4510	11.7160
 0.4520	11.7580
 0.4530	11.8150
 0.4540	11.8620
 0.4550	11.8980
 0.4560	11.9410
 0.4570	11.9680
 0.4580	11.9950
 0.4590	12.0320
 0.4600	12.0640
 0.4610	12.0950
 0.4620	12.1210
 0.4630	12.1390
 0.4640	12.1600
 0.4650	12.1790
 0.4660	12.1970
 0.4670	12.2120
 0.4680	12.2240
 0.4690	12.2370
 0.4700	12.2490
 0.4710	12.2490
 0.4720	12.2630
 0.4730	12.2860
 0.4740	12.3010
 0.4750	12.3100
 0.4760	12.3220
 0.4770	12.3380
 0.4780	12.3400
 0.4790	12.3460
 0.4800	12.3580
 0.4810	12.3740
 0.4820	12.3830
 0.4830	12.4000
 0.4840	12.4190
 0.4850	12.4170
 0.4860	12.4410
 0.4870	12.4680
 0.4880	12.4780
 0.4890	12.4920
 0.4900	12.5180
 0.4910	12.5520
 0.4920	12.5860
 0.4930	12.6170
 0.4940	12.6570
 0.4950	12.7080
 0.4960	12.7590
 0.4970	12.8080
 0.4980	12.8580
 0.4990	12.9170
 0.5000	12.9870
 0.5010	13.0630
 0.5020	13.1410
 0.5030	13.2180
 0.5040	13.3120
 0.5050	13.4160
 0.5060	13.5250
 0.5070	13.6440
 0.5080	13.7730
 0.5090	13.9050
 0.5100	14.0410
 0.5110	14.1990
 0.5120	14.3700
 0.5130	14.5460
 0.5140	14.7290
 0.5150	14.9240
 0.5160	15.1330
 0.5170	15.3520
 0.5180	15.5730
 0.5190	15.8000
 0.5200	16.0350
 0.5210	16.2780
 0.5220	16.5210
 0.5230	16.7670
 0.5240	17.0180
 0.5250	17.2560
 0.5260	17.4950
 0.5270	17.7360
 0.5280	17.9740
 0.5290	18.2000
 0.5300	18.4170
 0.5310	18.6300
 0.5320	18.8410
 0.5330	19.0460
 0.5340	19.2430
 0.5350	19.4320
 0.5360	19.6140
 0.5370	19.7940
 0.5380	19.9700
 0.5390	20.1390
 0.5400	20.3080
 0.5410	20.4790
 0.5420	20.6470
 0.5430	20.8090
 0.5440	20.9600
 0.5450	21.0980
 0.5460	21.2200
 0.5470	21.3170
 0.5480	21.4030
 0.5490	21.4910
 0.5500	21.5760
 0.5510	21.6470
 0.5520	21.7020
 0.5530	21.7410
 0.5540	21.7660
 0.5550	21.7730
 0.5560	21.7630
 0.5570	21.7360
 0.5580	21.6990
 0.5590	21.6480
 0.5600	21.5850
 0.5610	21.5180
 0.5620	21.4450
 0.5630	21.3610
 0.5640	21.2630
 0.5650	21.1600
 0.5660	21.0420
 0.5670	20.9120
 0.5680	20.7800
 0.5690	20.6380
 0.5700	20.4870
 0.5710	20.3310
 0.5720	20.1860
 0.5730	20.0460
 0.5740	19.9130
 0.5750	19.7880
 0.5760	19.6730
 0.5770	19.5670
 0.5780	19.4650
 0.5790	19.3600
 0.5800	19.2590
 0.5810	19.1630
 0.5820	19.0700
 0.5830	18.9810
 0.5840	18.8960
 0.5850	18.8150
 0.5860	18.7340
 0.5870	18.6580
 0.5880	18.5910
 0.5890	18.5350
 0.5900	18.4820
 0.5910	18.4370
 0.5920	18.4050
 0.5930	18.3840
 0.5940	18.3600
 0.5950	18.3280
 0.5960	18.2900
 0.5970	18.2560
 0.5980	18.2180
 0.5990	18.1790
 0.6000	18.1400
 0.6010	18.0920
 0.6020	18.0370
 0.6030	17.9760
 0.6040	17.9060
 0.6050	17.8310
 0.6060	17.7480
 0.6070	17.6570
 0.6080	17.5560
 0.6090	17.4610
 0.6100	17.3730
 0.6110	17.2850
 0.6120	17.1740
 0.6130	17.0490
 0.6140	16.9260
 0.6150	16.8210
 0.6160	16.7170
 0.6170	16.6180
 0.6180	16.5300
 0.6190	16.4510
 0.6200	16.3830
 0.6210	16.3240
 0.6220	16.2680
 0.6230	16.2160
 0.6240	16.1730
 0.6250	16.1420
 0.6260	16.1130
 0.6270	16.0910
 0.6280	16.0730
 0.6290	16.0560
 0.6300	16.0470
 0.6310	16.0380
 0.6320	16.0260
 0.6330	16.0140
 0.6340	15.9850
 0.6350	15.9480
 0.6360	15.9090
 0.6370	15.8630
 0.6380	15.8040
 0.6390	15.7320
 0.6400	15.6520
 0.6410	15.5600
 0.6420	15.4610
 0.6430	15.3580
 0.6440	15.2450
 0.6450	15.1330
 0.6460	15.0190
 0.6470	14.9000
 0.6480	14.7890
 0.6490	14.6820
 0.6500	14.5800
 0.6510	14.4920
 0.6520	14.4080
 0.6530	14.3220
 0.6540	14.2310
 0.6550	14.1390
 0.6560	14.0380
 0.6570	13.9280
 0.6580	13.8090
 0.6590	13.6870
 0.6600	13.5630
 0.6610	13.4380
 0.6620	13.3100
 0.6630	13.1880
 0.6640	13.0740
 0.6650	12.9710
 0.6660	12.8820
 0.6670	12.7990
 0.6680	12.7260
 0.6690	12.6690
 0.6700	12.6250
 0.6710	12.5880
 0.6720	12.5580
 0.6730	12.5340
 0.6740	12.5190
 0.6750	12.5110
 0.6760	12.5060
 0.6770	12.5140
 0.6780	12.5250
 0.6790	12.5410
 0.6800	12.5730
 0.6810	12.6190
 0.6820	12.6820
 0.6830	12.7650
 0.6840	12.8770
 0.6850	13.0170
 0.6860	13.1940
 0.6870	13.4140
 0.6880	13.6830
 0.6890	14.0070
 0.6900	14.3920
 0.6910	14.8410
 0.6920	15.3540
 0.6930	15.9310
 0.6940	16.5720
 0.6950	17.2750
 0.6960	18.0360
 0.6970	18.8510
 0.6980	19.7150
 0.6990	20.6190
 0.7000	21.5520
 0.7010	22.5050
 0.7020	23.4720
 0.7030	24.4410
 0.7040	25.4060
 0.7050	26.3580
 0.7060	27.2910
 0.7070	28.2030
 0.7080	29.0840
 0.7090	29.9350
 0.7100	30.7580
 0.7110	31.5520
 0.7120	32.3140
 0.7130	33.0390
 0.7140	33.7300
 0.7150	34.3900
 0.7160	35.0200
 0.7170	35.6180
 0.7180	36.1810
 0.7190	36.7150
 0.7200	37.2220
 0.7210	37.6990
 0.7220	38.1500
 0.7230	38.5740
 0.7240	38.9670
 0.7250	39.3370
 0.7260	39.6820
 0.7270	40.0030
 0.7280	40.3100
 0.7290	40.5920
 0.7300	40.8530
 0.7310	41.0980
 0.7320	41.3160
 0.7330	41.5180
 0.7340	41.7130
 0.7350	41.8980
 0.7360	42.0720
 0.7370	42.2270
 0.7380	42.3620
 0.7390	42.4990
 0.7400	42.6320
 0.7410	42.7520
 0.7420	42.8530
 0.7430	42.9560
 0.7440	43.0540
 0.7450	43.1430
 0.7460	43.2290
 0.7470	43.3060
 0.7480	43.3760
 0.7490	43.4420
 0.7500	43.5020
 0.7510	43.5560
 0.7520	43.6060
 0.7530	43.6520
 0.7540	43.6910
 0.7550	43.7340
 0.7560	43.7800
 0.7570	43.8210
 0.7580	43.8450
 0.7590	43.8720
 0.7600	43.9100
 0.7610	43.9370
 0.7620	43.9620
 0.7630	43.9870
 0.7640	44.0140
 0.7650	44.0270
 0.7660	44.0460
 0.7670	44.0740
 0.7680	44.0990
 0.7690	44.1040
 0.7700	44.1170
 0.7710	44.1450
 0.7720	44.1600
 0.7730	44.1730
 0.7740	44.1870
 0.7750	44.2050
 0.7760	44.2170
 0.7770	44.2290
 0.7780	44.2400
 0.7790	44.2460
 0.7800	44.2610
 0.7810	44.2780
 0.7820	44.2930
 0.7830	44.3070
 0.7840	44.3180
 0.7850	44.3270
 0.7860	44.3370
 0.7870	44.3460
 0.7880	44.3520
 0.7890	44.3610
 0.7900	44.3770
 0.7910	44.3760
 0.7920	44.3800
 0.7930	44.3920
 0.7940	44.3970
 0.7950	44.4050
 0.7960	44.4140
 0.7970	44.4210
 0.7980	44.4230
 0.7990	44.4250
 0.8000	44.4260
 0.8010	44.4260
 0.8020	44.4250
 0.8030	44.4290
 0.8040	44.4340
 0.8050	44.4320
 0.8060	44.4340
 0.8070	44.4320
 0.8080	44.4280
 0.8090	44.4290
 0.8100	44.4250
 0.8110	44.4220
 0.8120	44.4230
 0.8130	44.4160
 0.8140	44.4070
 0.8150	44.4030
 0.8160	44.4040
 0.8170	44.3970
 0.8180	44.3860
 0.8190	44.3780
 0.8200	44.3790
 0.8210	44.3690
 0.8220	44.3600
 0.8230	44.3580
 0.8240	44.3590
 0.8250	44.3480
 0.8260	44.3320
 0.8270	44.3200
 0.8280	44.3160
 0.8290	44.3080
 0.8300	44.2990
 0.8310	44.2920
 0.8320	44.2860
 0.8330	44.2730
 0.8340	44.2570
 0.8350	44.2410
 0.8360	44.2340
 0.8370	44.2290
 0.8380	44.2250
 0.8390	44.2220
 0.8400	44.2140
 0.8410	44.2130
 0.8420	44.2180
 0.8430	44.2120
 0.8440	44.2110
 0.8450	44.2120
 0.8460	44.2080
 0.8470	44.1990
 0.8480	44.1900
 0.8490	44.1890
 0.8500	44.2000
 0.8510	44.1950
 0.8520	44.1920
 0.8530	44.1940
 0.8540	44.1990
 0.8550	44.1930
 0.8560	44.1910
 0.8570	44.1960
 0.8580	44.2010
 0.8590	44.2030
 0.8600	44.2060
 0.8610	44.2060
 0.8620	44.1970
 0.8630	44.1920
 0.8640	44.1940
 0.8650	44.2040
 0.8660	44.2160
 0.8670	44.2190
 0.8680	44.2130
 0.8690	44.2080
 0.8700	44.2260
 0.8710	44.2370
 0.8720	44.2420
 0.8730	44.2590
 0.8740	44.2670
 0.8750	44.2690
 0.8760	44.2700
 0.8770	44.2710
 0.8780	44.2680
 0.8790	44.2690
 0.8800	44.2780
 0.8810	44.2870
 0.8820	44.2830
 0.8830	44.2840
 0.8840	44.2970
 0.8850	44.3010
 0.8860	44.2990
 0.8870	44.3050
 0.8880	44.3220
 0.8890	44.3190
 0.8900	44.3130
 0.8910	44.3150
 0.8920	44.3260
 0.8930	44.3190
 0.8940	44.3170
 0.8950	44.3200
 0.8960	44.3190
 0.8970	44.3190
 0.8980	44.3270
 0.8990	44.3390
 0.9000	44.3400
 0.9010	44.3310
 0.9020	44.3240
 0.9030	44.3270
 0.9040	44.3330
 0.9050	44.3440
 0.9060	44.3490
 0.9070	44.3460
 0.9080	44.3600
 0.9090	44.3540
 0.9100	44.3410
 0.9110	44.3400
 0.9120	44.3530
 0.9130	44.3460
 0.9140	44.3280
 0.9150	44.3230
 0.9160	44.3350
 0.9170	44.3410
 0.9180	44.3370
 0.9190	44.3280
 0.9200	44.3310
 0.9210	44.3210
 0.9220	44.3110
 0.9230	44.3240
 0.9240	44.2990
 0.9250	44.2810
 0.9260	44.2740
 0.9270	44.2530
 0.9280	44.2570
 0.9290	44.2510
 0.9300	44.2260
 0.9310	44.2090
 0.9320	44.1870
 0.9330	44.1670
 0.9340	44.1560
 0.9350	44.1560
 0.9360	44.1340
 0.9370	44.0960
 0.9380	44.0590
 0.9390	44.0360
 0.9400	44.0180
 0.9410	43.9990
 0.9420	43.9780
 0.9430	43.9520
 0.9440	43.9270
 0.9450	43.8950
 0.9460	43.8520
 0.9470	43.7960
 0.9480	43.7630
 0.9490	43.7290
 0.9500	43.6720
 0.9510	43.6230
 0.9520	43.5540
 0.9530	43.4760
 0.9540	43.4080
 0.9550	43.3550
 0.9560	43.2830
 0.9570	43.2010
 0.9580	43.1320
 0.9590	43.0980
 0.9600	43.0460
 0.9610	42.9920
 0.9620	42.9590
 0.9630	42.9140
 0.9640	42.8580
 0.9650	42.8150
 0.9660	42.8030
 0.9670	42.7760
 0.9680	42.7520
 0.9690	42.7350
 0.9700	42.7170
 0.9710	42.6850
 0.9720	42.6700
 0.9730	42.6630
 0.9740	42.6440
 0.9750	42.6360
 0.9760	42.6530
 0.9770	42.6680
 0.9780	42.6510
 0.9790	42.6380
 0.9800	42.6330
 0.9810	42.6430
 0.9820	42.6680
 0.9830	42.6730
 0.9840	42.6860
 0.9850	42.6970
 0.9860	42.6880
 0.9870	42.6980
 0.9880	42.7200
 0.9890	42.7490
 0.9900	42.7770
 0.9910	42.7910
 0.9920	42.8080
 0.9930	42.8250
 0.9940	42.8430
 0.9950	42.8600
 0.9960	42.8770
 0.9970	42.8940
 0.9980	42.9120
 0.9990	42.9290
 1.0000	42.9460
 1.0010	42.9630
 1.0020	42.9800
 1.0030	42.9980
 1.0040	43.0150
 1.0050	43.0320
 1.0060	43.0490
 1.0070	43.0670
 1.0080	43.0840
 1.0090	43.1010
 1.0100	43.1010
 1.0110	43.1280
 1.0120	43.1530
 1.0130	43.1710
 1.0140	43.1930
 1.0150	43.2170
 1.0160	43.2410
 1.0170	43.2640
 1.0180	43.2860
 1.0190	43.3040
 1.0200	43.3210
 1.0210	43.3430
 1.0220	43.3650
 1.0230	43.3880
 1.0240	43.4150
 1.0250	43.4360
 1.0260	43.4530
 1.0270	43.4700
 1.0280	43.4850
 1.0290	43.5010
 1.0300	43.5180
 1.0310	43.5350
 1.0320	43.5520
 1.0330	43.5690
 1.0340	43.5860
 1.0350	43.6020
 1.0360	43.6170
 1.0370	43.6340
 1.0380	43.6500
 1.0390	43.6680
 1.0400	43.6830
 1.0410	43.6980
 1.0420	43.7100
 1.0430	43.7170
 1.0440	43.7270
 1.0450	43.7370
 1.0460	43.7480
 1.0470	43.7620
 1.0480	43.7750
 1.0490	43.7890
 1.0500	43.8000
 1.0510	43.8110
 1.0520	43.8210
 1.0530	43.8310
 1.0540	43.8400
 1.0550	43.8520
 1.0560	43.8660
 1.0570	43.8780
 1.0580	43.8900
 1.0590	43.9010
 1.0600	43.9110
 1.0610	43.9200
 1.0620	43.9280
 1.0630	43.9370
 1.0640	43.9450
 1.0650	43.9520
 1.0660	43.9580
 1.0670	43.9630
 1.0680	43.9660
 1.0690	43.9650
 1.0700	43.9690
 1.0710	43.9730
 1.0720	43.9770
 1.0730	43.9830
 1.0740	43.9870
 1.0750	43.9910
 1.0760	43.9940
 1.0770	43.9970
 1.0780	43.9980
 1.0790	43.9950
 1.0800	43.9960
 1.0810	44.0000
 1.0820	44.0000
 1.0830	43.9980
 1.0840	43.9980
 1.0850	43.9960
 1.0860	43.9920
 1.0870	43.9900
 1.0880	43.9910
 1.0890	43.9880
 1.0900	43.9820
 1.0910	43.9770
 1.0920	43.9730
 1.0930	43.9670
 1.0940	43.9620
 1.0950	43.9540
 1.0960	43.9410
 1.0970	43.9310
 1.0980	43.9210
 1.0990	43.9110
 1.1000	43.9040
 1.1010	43.8930
 1.1020	43.8820
 1.1030	43.8690
 1.1040	43.8560
 1.1050	43.8430
 1.1060	43.8280
 1.1070	43.8110
 1.1080	43.7950
 1.1090	43.7780
 1.1100	43.7580
 1.1110	43.7370
 1.1120	43.7140
 1.1130	43.6860
 1.1140	43.6600
 1.1150	43.6390
 1.1160	43.6120
 1.1170	43.5840
 1.1180	43.5530
 1.1190	43.5160
 1.1200	43.4760
 1.1210	43.4350
 1.1220	43.3940
 1.1230	43.3480
 1.1240	43.2950
 1.1250	43.2400
 1.1260	43.1800
 1.1270	43.1180
 1.1280	43.0570
 1.1290	42.9870
 1.1300	42.9110
 1.1310	42.8310
 1.1320	42.7430
 1.1330	42.6510
 1.1340	42.5570
 1.1350	42.4550
 1.1360	42.3480
 1.1370	42.2350
 1.1380	42.1160
 1.1390	41.9910
 1.1400	41.8590
 1.1410	41.7260
 1.1420	41.5880
 1.1430	41.4480
 1.1440	41.3050
 1.1450	41.1560
 1.1460	41.0130
 1.1470	40.8650
 1.1480	40.7260
 1.1490	40.5890
 1.1500	40.4600
 1.1510	40.3350
 1.1520	40.2170
 1.1530	40.1020
 1.1540	40.0000
 1.1550	39.9050
 1.1560	39.8200
 1.1570	39.7460
 1.1580	39.6810
 1.1590	39.6200
 1.1600	39.5660
 1.1610	39.5200
 1.1620	39.4790
 1.1630	39.4460
 1.1640	39.4190
 1.1650	39.3940
 1.1660	39.3740
 1.1670	39.3560
 1.1680	39.3390
 1.1690	39.3240
 1.1700	39.3130
 1.1710	39.3000
 1.1720	39.2900
 1.1730	39.2780
 1.1740	39.2650
 1.1750	39.2530
 1.1760	39.2380
 1.1770	39.2220
 1.1780	39.2070
 1.1790	39.1890
 1.1800	39.1700
 1.1810	39.1500
 1.1820	39.1290
 1.1830	39.1090
 1.1840	39.0880
 1.1850	39.0670
 1.1860	39.0460
 1.1870	39.0250
 1.1880	39.0050
 1.1890	38.9830
 1.1900	38.9650
 1.1910	38.9490
 1.1920	38.9340
 1.1930	38.9220
 1.1940	38.9100
 1.1950	38.8990
 1.1960	38.8890
 1.1970	38.8800
 1.1980	38.8740
 1.1990	38.8710
 1.2000	38.8680
 1.2010	38.8680
 1.2020	38.8690
 1.2030	38.8720
 1.2040	38.8790
 1.2050	38.8900
 1.2060	38.9030
 1.2070	38.9200
 1.2080	38.9390
 1.2090	38.9590
 1.2100	38.9840
 1.2110	39.0120
 1.2120	39.0430
 1.2130	39.0770
 1.2140	39.1150
 1.2150	39.1540
 1.2160	39.1970
 1.2170	39.2390
 1.2180	39.2840
 1.2190	39.3330
 1.2200	39.3820
 1.2210	39.4330
 1.2220	39.4850
 1.2230	39.5370
 1.2240	39.5870
 1.2250	39.6370
 1.2260	39.6840
 1.2270	39.7300
 1.2280	39.7760
 1.2290	39.8210
 1.2300	39.8650
 1.2310	39.9060
 1.2320	39.9430
 1.2330	39.9770
 1.2340	40.0110
 1.2350	40.0420
 1.2360	40.0750
 1.2370	40.1080
 1.2380	40.1410
 1.2390	40.1700
 1.2400	40.1970
 1.2410	40.2230
 1.2420	40.2470
 1.2430	40.2720
 1.2440	40.2980
 1.2450	40.3240
 1.2460	40.3470
 1.2470	40.3680
 1.2480	40.3880
 1.2490	40.4060
 1.2500	40.4240
 1.2510	40.4420
 1.2520	40.4580
 1.2530	40.4740
 1.2540	40.4870
 1.2550	40.5000
 1.2560	40.5120
 1.2570	40.5230
 1.2580	40.5340
 1.2590	40.5430
 1.2600	40.5520
 1.2610	40.5600
 1.2620	40.5660
 1.2630	40.5700
 1.2640	40.5760
 1.2650	40.5800
 1.2660	40.5830
 1.2670	40.5860
 1.2680	40.5860
 1.2690	40.5870
 1.2700	40.5880
 1.2710	40.5880
 1.2720	40.5860
 1.2730	40.5800
 1.2740	40.5710
 1.2750	40.5620
 1.2760	40.5500
 1.2770	40.5370
 1.2780	40.5260
 1.2790	40.5110
 1.2800	40.4950
 1.2810	40.4820
 1.2820	40.4650
 1.2830	40.4470
 1.2840	40.4300
 1.2850	40.4110
 1.2860	40.3920
 1.2870	40.3700
 1.2880	40.3480
 1.2890	40.3230
 1.2900	40.2960
 1.2910	40.2680
 1.2920	40.2400
 1.2930	40.2090
 1.2940	40.1780
 1.2950	40.1440
 1.2960	40.1080
 1.2970	40.0710
 1.2980	40.0300
 1.2990	39.9850
 1.3000	39.9400
 1.3010	39.8900
 1.3020	39.8380
 1.3030	39.7860
 1.3040	39.7290
 1.3050	39.6680
 1.3060	39.6050
 1.3070	39.5380
 1.3080	39.4700
 1.3090	39.4010
 1.3100	39.3260
 1.3110	39.2480
 1.3120	39.1670
 1.3130	39.0810
 1.3140	38.9930
 1.3150	38.9040
 1.3160	38.8100
 1.3170	38.7140
 1.3180	38.6130
 1.3190	38.5090
 1.3200	38.4010
 1.3210	38.2870
 1.3220	38.1690
 1.3230	38.0490
 1.3240	37.9250
 1.3250	37.8010
 1.3260	37.6760
 1.3270	37.5470
 1.3280	37.4150
 1.3290	37.2790
 1.3300	37.1390
 1.3310	36.9980
 1.3320	36.8550
 1.3330	36.7100
 1.3340	36.5660
 1.3350	36.4200
 1.3360	36.2710
 1.3370	36.1210
 1.3380	35.9710
 1.3390	35.8230
 1.3400	35.6750
 1.3410	35.5290
 1.3420	35.3820
 1.3430	35.2360
 1.3440	35.0920
 1.3450	34.9480
 1.3460	34.8050
 1.3470	34.6640
 1.3480	34.5240
 1.3490	34.3870
 1.3500	34.2520
 1.3510	34.1150
 1.3520	33.9790
 1.3530	33.8430
 1.3540	33.7080
 1.3550	33.5740
 1.3560	33.4410
 1.3570	33.3080
 1.3580	33.1740
 1.3590	33.0400
 1.3600	32.9010
 1.3610	32.7610
 1.3620	32.6160
 1.3630	32.4650
 1.3640	32.3120
 1.3650	32.1520
 1.3660	31.9890
 1.3670	31.8190
 1.3680	31.6400
 1.3690	31.4510
 1.3700	31.2490
 1.3710	31.0370
 1.3720	30.8140
 1.3730	30.5780
 1.3740	30.3310
 1.3750	30.0680
 1.3760	29.7870
 1.3770	29.4910
 1.3780	29.1750
 1.3790	28.8440
 1.3800	28.4980
 1.3810	28.1310
 1.3820	27.7530
 1.3830	27.3640
 1.3840	26.9600
 1.3850	26.5420
 1.3860	26.1170
 1.3870	25.6770
 1.3880	25.2370
 1.3890	24.7910
 1.3900	24.3400
 1.3910	23.8920
 1.3920	23.4430
 1.3930	22.9940
 1.3940	22.5520
 1.3950	22.1130
 1.3960	21.6830
 1.3970	21.2640
 1.3980	20.8540
 1.3990	20.4630
 1.4000	20.0840
 1.4010	19.7180
 1.4020	19.3700
 1.4030	19.0350
 1.4040	18.7180
 1.4050	18.4190
 1.4060	18.1360
 1.4070	17.8740
 1.4080	17.6290
 1.4090	17.4000
 1.4100	17.1900
 1.4110	16.9940
 1.4120	16.8130
 1.4130	16.6490
 1.4140	16.4970
 1.4150	16.3610
 1.4160	16.2370
 1.4170	16.1250
 1.4180	16.0240
 1.4190	15.9320
 1.4200	15.8490
 1.4210	15.7750
 1.4220	15.7090
 1.4230	15.6500
 1.4240	15.5990
 1.4250	15.5530
 1.4260	15.5140
 1.4270	15.4800
 1.4280	15.4520
 1.4290	15.4270
 1.4300	15.4060
 1.4310	15.3880
 1.4320	15.3750
 1.4330	15.3640
 1.4340	15.3580
 1.4350	15.3530
 1.4360	15.3510
 1.4370	15.3520
 1.4380	15.3550
 1.4390	15.3600
 1.4400	15.3660
 1.4410	15.3750
 1.4420	15.3860
 1.4430	15.3980
 1.4440	15.4110
 1.4450	15.4240
 1.4460	15.4380
 1.4470	15.4530
 1.4480	15.4680
 1.4490	15.4840
 1.4500	15.5020
 1.4510	15.5190
 1.4520	15.5360
 1.4530	15.5540
 1.4540	15.5730
 1.4550	15.5940
 1.4560	15.6150
 1.4570	15.6380
 1.4580	15.6610
 1.4590	15.6850
 1.4600	15.7120
 1.4610	15.7410
 1.4620	15.7720
 1.4630	15.8050
 1.4640	15.8410
 1.4650	15.8810
 1.4660	15.9240
 1.4670	15.9680
 1.4680	16.0150
