Name: Quercus rubra
Type: Vegetation
Class: Tree
Genus: Quercus
Species: rubra
Sample No.: QURU-2-7
Owner: UCSB
Wavelength Range: TIR
Origin: USA; Massachusetts; Harvard Forest
Collection Date: 7/8/2013
Description: Samples were collected as part of NSF Macrosystem Biology proposal titled: Collaborative Research: Thermal controls on ecosystem metabolism and function: scaling from leaves to canopies to regions. Samples were collected and overnighted to JPL facilities for processing. The same leaves were processed in the Nicolet and then measured using the ASD.
Measurement: Hemispherical reflectance
First Column: X
Second Column: Y
X Units: Wavelength (micrometers)
Y Units: Reflectance (percentage)
First X Value: 2.501
Last X Value: 15.387
Number of X Values: 1737
Additional Information: vegetation.tree.quercus.rubra.tir.quru-2-7.ucsb.nicolet.ancillary.txt

 2.5010	11.5070
 2.5030	11.6260
 2.5040	11.7360
 2.5050	11.9310
 2.5060	12.0780
 2.5070	11.6770
 2.5090	11.5710
 2.5100	11.5980
 2.5110	11.2200
 2.5120	11.0410
 2.5140	11.1880
 2.5150	11.2710
 2.5160	11.3360
 2.5170	11.2230
 2.5180	11.2640
 2.5200	11.3500
 2.5210	11.3380
 2.5220	11.2540
 2.5230	11.2810
 2.5250	11.2480
 2.5260	11.1600
 2.5270	11.1270
 2.5280	11.3880
 2.5290	11.2590
 2.5310	11.1800
 2.5320	11.3620
 2.5330	11.4180
 2.5340	11.1750
 2.5360	11.1320
 2.5370	11.1930
 2.5380	11.4670
 2.5390	11.4170
 2.5410	11.1970
 2.5420	11.1300
 2.5430	11.2880
 2.5440	11.1820
 2.5460	11.2310
 2.5470	11.3040
 2.5480	11.4790
 2.5490	11.6420
 2.5510	11.6980
 2.5520	11.5450
 2.5530	11.4620
 2.5540	11.2600
 2.5560	11.3490
 2.5570	11.3770
 2.5580	11.3470
 2.5590	11.4440
 2.5610	11.4120
 2.5620	11.3200
 2.5630	11.3780
 2.5640	11.3390
 2.5660	11.3390
 2.5670	11.2050
 2.5680	11.2240
 2.5700	11.3130
 2.5710	11.2890
 2.5720	11.0600
 2.5730	11.1250
 2.5750	11.4200
 2.5760	11.5550
 2.5770	11.4310
 2.5790	11.3890
 2.5800	11.2720
 2.5810	11.0580
 2.5820	10.9950
 2.5840	11.1350
 2.5850	11.0100
 2.5860	10.9350
 2.5880	10.9610
 2.5890	11.1730
 2.5900	10.8940
 2.5910	10.6340
 2.5930	10.7890
 2.5940	10.8430
 2.5950	10.7590
 2.5970	10.7880
 2.5980	10.8140
 2.5990	10.9440
 2.6000	10.7070
 2.6020	10.5240
 2.6030	10.4380
 2.6040	10.3390
 2.6060	10.3410
 2.6070	10.3690
 2.6080	10.3860
 2.6100	10.4930
 2.6110	10.2550
 2.6120	 9.8750
 2.6140	 9.6930
 2.6150	 9.9270
 2.6160	 9.8750
 2.6180	 9.7260
 2.6190	 9.6240
 2.6200	 9.5600
 2.6220	 9.4230
 2.6230	 9.2860
 2.6240	 9.0370
 2.6260	 8.9390
 2.6270	 8.7820
 2.6280	 8.9510
 2.6300	 8.9430
 2.6310	 8.6400
 2.6320	 8.5520
 2.6340	 8.5770
 2.6350	 8.4700
 2.6360	 8.4030
 2.6380	 8.3140
 2.6390	 8.2540
 2.6400	 8.0400
 2.6420	 7.9840
 2.6430	 7.7810
 2.6440	 7.8080
 2.6460	 7.6690
 2.6470	 7.5550
 2.6480	 7.3150
 2.6500	 7.2700
 2.6510	 7.3450
 2.6520	 7.3660
 2.6540	 7.1760
 2.6550	 7.0550
 2.6560	 7.0440
 2.6580	 7.1750
 2.6590	 7.0910
 2.6610	 6.8350
 2.6620	 6.6370
 2.6630	 6.5800
 2.6650	 6.4640
 2.6660	 6.3940
 2.6670	 6.1950
 2.6690	 6.2850
 2.6700	 6.0280
 2.6720	 5.8360
 2.6730	 5.6610
 2.6740	 5.4710
 2.6760	 5.4670
 2.6770	 5.6010
 2.6780	 5.6180
 2.6800	 5.4500
 2.6810	 5.1230
 2.6830	 5.1290
 2.6840	 5.1730
 2.6850	 5.1870
 2.6870	 4.9820
 2.6880	 4.7210
 2.6900	 4.6010
 2.6910	 4.8890
 2.6920	 4.9400
 2.6940	 4.7790
 2.6950	 4.5120
 2.6970	 4.4940
 2.6980	 4.5940
 2.6990	 4.6690
 2.7010	 4.6960
 2.7020	 4.5010
 2.7040	 4.1600
 2.7050	 4.3410
 2.7060	 4.3960
 2.7080	 4.3520
 2.7090	 4.2080
 2.7110	 4.1880
 2.7120	 4.2930
 2.7130	 4.3300
 2.7150	 4.1300
 2.7160	 4.3200
 2.7180	 4.3630
 2.7190	 4.4400
 2.7210	 4.2960
 2.7220	 4.0160
 2.7230	 3.9590
 2.7250	 4.1260
 2.7260	 4.0190
 2.7280	 3.8940
 2.7290	 4.0000
 2.7310	 3.9860
 2.7320	 3.7220
 2.7330	 3.7460
 2.7350	 3.8780
 2.7360	 3.8260
 2.7380	 4.1290
 2.7390	 4.7610
 2.7410	 4.7650
 2.7420	 4.2310
 2.7440	 3.9000
 2.7450	 4.1290
 2.7470	 4.3030
 2.7480	 4.3770
 2.7490	 4.4130
 2.7510	 4.4160
 2.7520	 4.6460
 2.7540	 4.3710
 2.7550	 3.9190
 2.7570	 4.5910
 2.7580	 4.9710
 2.7600	 4.6850
 2.7610	 4.3260
 2.7630	 4.6000
 2.7640	 4.6750
 2.7660	 4.3880
 2.7670	 3.7650
 2.7680	 3.6870
 2.7700	 4.2000
 2.7710	 4.2500
 2.7730	 3.8740
 2.7740	 3.9030
 2.7760	 4.2080
 2.7770	 4.2320
 2.7790	 4.2790
 2.7800	 4.5760
 2.7820	 4.5850
 2.7830	 4.4910
 2.7850	 4.1290
 2.7860	 4.1760
 2.7880	 4.1630
 2.7890	 4.0960
 2.7910	 4.2310
 2.7920	 4.2530
 2.7940	 3.8530
 2.7950	 3.8070
 2.7970	 4.3760
 2.7980	 4.4660
 2.8000	 4.1400
 2.8010	 3.9910
 2.8030	 3.9390
 2.8040	 3.9350
 2.8060	 4.0050
 2.8070	 4.1420
 2.8090	 4.2190
 2.8110	 4.4100
 2.8120	 4.2970
 2.8140	 4.0410
 2.8150	 3.8950
 2.8170	 4.0690
 2.8180	 4.0380
 2.8200	 3.8820
 2.8210	 3.6600
 2.8230	 3.9700
 2.8240	 4.1200
 2.8260	 4.2550
 2.8270	 4.4610
 2.8290	 3.9450
 2.8300	 3.5260
 2.8320	 3.9930
 2.8340	 4.3720
 2.8350	 4.4040
 2.8370	 4.0600
 2.8380	 3.9170
 2.8400	 4.1380
 2.8410	 4.4510
 2.8430	 4.2090
 2.8440	 4.0370
 2.8460	 3.9220
 2.8480	 4.1760
 2.8490	 4.3350
 2.8510	 4.3040
 2.8520	 4.1980
 2.8540	 4.3020
 2.8550	 4.3810
 2.8570	 4.4630
 2.8590	 4.4500
 2.8600	 4.2120
 2.8620	 4.1340
 2.8630	 4.3230
 2.8650	 4.3610
 2.8660	 4.2480
 2.8680	 3.9970
 2.8700	 3.8530
 2.8710	 3.6700
 2.8730	 3.8610
 2.8740	 3.9260
 2.8760	 3.8050
 2.8780	 3.7190
 2.8790	 3.7880
 2.8810	 3.7730
 2.8820	 3.7840
 2.8840	 3.7470
 2.8860	 3.9490
 2.8870	 4.0450
 2.8890	 4.2730
 2.8900	 4.2190
 2.8920	 4.4120
 2.8940	 4.2620
 2.8950	 3.9960
 2.8970	 4.2040
 2.8980	 4.2630
 2.9000	 4.0820
 2.9020	 3.9920
 2.9030	 3.8020
 2.9050	 3.9500
 2.9070	 4.0930
 2.9080	 4.3660
 2.9100	 4.3690
 2.9120	 4.0980
 2.9130	 3.9450
 2.9150	 3.9570
 2.9160	 3.8990
 2.9180	 4.0240
 2.9200	 4.1590
 2.9210	 4.1730
 2.9230	 3.9990
 2.9250	 4.1040
 2.9260	 4.0630
 2.9280	 4.1650
 2.9300	 4.2270
 2.9310	 4.1520
 2.9330	 4.2020
 2.9350	 4.5840
 2.9360	 4.4720
 2.9380	 3.9060
 2.9400	 3.6490
 2.9410	 3.7780
 2.9430	 3.7600
 2.9450	 3.5260
 2.9460	 3.5510
 2.9480	 4.1290
 2.9500	 4.4320
 2.9510	 4.4440
 2.9530	 4.0800
 2.9550	 3.6240
 2.9560	 3.7850
 2.9580	 4.3330
 2.9600	 4.4390
 2.9610	 4.3860
 2.9630	 4.3870
 2.9650	 3.8880
 2.9660	 3.5260
 2.9680	 3.1880
 2.9700	 3.3600
 2.9720	 4.4960
 2.9730	 4.6720
 2.9750	 4.3500
 2.9770	 4.5820
 2.9780	 6.3780
 2.9800	 3.7650
 2.9820	 0.7350
 2.9840	 2.3400
 2.9850	 4.9320
 2.9870	 5.4260
 2.9890	 4.6360
 2.9900	 3.0020
 2.9920	 4.0930
 2.9940	 3.6450
 2.9960	 3.2840
 2.9970	 6.7690
 2.9990	 6.8370
 3.0010	 4.4340
 3.0030	 3.9570
 3.0040	 5.2290
 3.0060	 5.1960
 3.0080	 4.6430
 3.0100	 4.0540
 3.0110	 2.5970
 3.0130	 3.3650
 3.0150	 4.2690
 3.0170	 4.8630
 3.0180	 5.9760
 3.0200	 6.6580
 3.0220	 6.4590
 3.0240	 4.9010
 3.0250	 4.1150
 3.0270	 4.3600
 3.0290	 4.1620
 3.0310	 3.4080
 3.0320	 2.9410
 3.0340	 3.6820
 3.0360	 5.1960
 3.0380	 5.4040
 3.0400	 5.2170
 3.0410	 4.3690
 3.0430	 3.5670
 3.0450	 3.1990
 3.0470	 4.0360
 3.0480	 4.7630
 3.0500	 5.8810
 3.0520	 7.5260
 3.0540	 7.9520
 3.0560	 7.2760
 3.0570	 6.2290
 3.0590	 4.6110
 3.0610	 5.0420
 3.0630	 4.6700
 3.0650	 2.4810
 3.0660	 4.0380
 3.0680	 4.8820
 3.0700	 3.8560
 3.0720	 3.7400
 3.0740	 4.7440
 3.0760	 4.8160
 3.0770	 4.5050
 3.0790	 4.4300
 3.0810	 4.3870
 3.0830	 4.1690
 3.0850	 4.1260
 3.0870	 3.9230
 3.0880	 3.9600
 3.0900	 4.1410
 3.0920	 4.1130
 3.0940	 4.3060
 3.0960	 4.6830
 3.0980	 4.6330
 3.0990	 4.2690
 3.1010	 3.9570
 3.1030	 3.8400
 3.1050	 3.8860
 3.1070	 3.7750
 3.1090	 4.0020
 3.1110	 3.9290
 3.1120	 4.1670
 3.1140	 4.4330
 3.1160	 3.5320
 3.1180	 3.7610
 3.1200	 4.6750
 3.1220	 5.2130
 3.1240	 4.7060
 3.1260	 4.3520
 3.1270	 4.3530
 3.1290	 4.2080
 3.1310	 3.7390
 3.1330	 3.9320
 3.1350	 3.8740
 3.1370	 4.1470
 3.1390	 5.3140
 3.1410	 5.1320
 3.1430	 4.3070
 3.1450	 3.6950
 3.1460	 4.1970
 3.1480	 3.6540
 3.1500	 3.7560
 3.1520	 4.4590
 3.1540	 4.2810
 3.1560	 3.8480
 3.1580	 2.8040
 3.1600	 4.4000
 3.1620	 5.8080
 3.1640	 4.8540
 3.1660	 2.6370
 3.1680	 1.8250
 3.1700	 3.8180
 3.1710	 6.6660
 3.1730	 8.5240
 3.1750	 8.4690
 3.1770	 3.7160
 3.1790	 1.7780
 3.1810	 3.3880
 3.1830	 5.0110
 3.1850	 4.9700
 3.1870	 4.6360
 3.1890	 4.5520
 3.1910	 3.8740
 3.1930	 3.7650
 3.1950	 4.1040
 3.1970	 4.2170
 3.1990	 4.1610
 3.2010	 3.9950
 3.2030	 4.0240
 3.2050	 4.1200
 3.2070	 4.1650
 3.2090	 3.9880
 3.2110	 3.9530
 3.2130	 4.1500
 3.2150	 4.1390
 3.2170	 4.0510
 3.2190	 4.1100
 3.2210	 3.9750
 3.2230	 3.9640
 3.2250	 3.9900
 3.2270	 4.0240
 3.2290	 4.2170
 3.2310	 4.2980
 3.2330	 4.1850
 3.2350	 4.2530
 3.2370	 4.1500
 3.2390	 4.2270
 3.2410	 4.2820
 3.2430	 4.2080
 3.2450	 3.8270
 3.2470	 3.6140
 3.2490	 3.8770
 3.2510	 4.2930
 3.2530	 4.3280
 3.2550	 4.1720
 3.2570	 4.0580
 3.2590	 3.9540
 3.2610	 3.5950
 3.2630	 3.6100
 3.2650	 3.6160
 3.2670	 3.7860
 3.2690	 3.7610
 3.2720	 3.7890
 3.2740	 3.8860
 3.2760	 4.0190
 3.2780	 3.9240
 3.2800	 3.8420
 3.2820	 3.7510
 3.2840	 3.7970
 3.2860	 3.8350
 3.2880	 4.0110
 3.2900	 3.8070
 3.2920	 3.8750
 3.2940	 3.8040
 3.2960	 3.7500
 3.2990	 3.8770
 3.3010	 3.9790
 3.3030	 4.1520
 3.3050	 4.3740
 3.3070	 4.2250
 3.3090	 3.6950
 3.3110	 3.1700
 3.3130	 3.3710
 3.3150	 3.5140
 3.3180	 3.6870
 3.3200	 3.9270
 3.3220	 3.8580
 3.3240	 3.5630
 3.3260	 3.5270
 3.3280	 3.7530
 3.3300	 3.7970
 3.3330	 3.8330
 3.3350	 3.7800
 3.3370	 3.7280
 3.3390	 3.7750
 3.3410	 3.6640
 3.3430	 3.6020
 3.3450	 3.4720
 3.3480	 3.4410
 3.3500	 3.5510
 3.3520	 3.6570
 3.3540	 3.5880
 3.3560	 3.4670
 3.3580	 3.4850
 3.3610	 3.6210
 3.3630	 3.5010
 3.3650	 3.2930
 3.3670	 2.9090
 3.3690	 2.9480
 3.3720	 3.2120
 3.3740	 3.3270
 3.3760	 3.2470
 3.3780	 3.1880
 3.3800	 3.0520
 3.3830	 3.1610
 3.3850	 3.3090
 3.3870	 3.3900
 3.3890	 3.2950
 3.3910	 3.1280
 3.3940	 2.8910
 3.3960	 2.7900
 3.3980	 2.7260
 3.4000	 2.8750
 3.4020	 2.8450
 3.4050	 2.8120
 3.4070	 2.8470
 3.4090	 2.9190
 3.4110	 2.9680
 3.4140	 3.2670
 3.4160	 3.7180
 3.4180	 4.3890
 3.4200	 5.0630
 3.4230	 6.0260
 3.4250	 7.1810
 3.4270	 8.4090
 3.4290	 8.9340
 3.4320	 8.8610
 3.4340	 8.1030
 3.4360	 7.3240
 3.4390	 6.6460
 3.4410	 6.2780
 3.4430	 6.0440
 3.4450	 5.9860
 3.4480	 5.8200
 3.4500	 5.6760
 3.4520	 5.5960
 3.4550	 5.7720
 3.4570	 5.7460
 3.4590	 5.4730
 3.4620	 5.2310
 3.4640	 5.0170
 3.4660	 4.9680
 3.4680	 5.0400
 3.4710	 4.9730
 3.4730	 4.9850
 3.4750	 4.8970
 3.4780	 4.8210
 3.4800	 4.6470
 3.4820	 4.4860
 3.4850	 4.2670
 3.4870	 4.2490
 3.4890	 4.2310
 3.4920	 4.1170
 3.4940	 3.8720
 3.4970	 3.9270
 3.4990	 3.8980
 3.5010	 3.9660
 3.5040	 4.2570
 3.5060	 5.2450
 3.5080	 6.8640
 3.5110	 8.5310
 3.5130	 8.8060
 3.5160	 8.0450
 3.5180	 7.3820
 3.5200	 6.9980
 3.5230	 6.6360
 3.5250	 6.4540
 3.5270	 6.1860
 3.5300	 5.9390
 3.5320	 5.7120
 3.5350	 5.7540
 3.5370	 5.7220
 3.5400	 5.6380
 3.5420	 5.6550
 3.5440	 5.6170
 3.5470	 5.4060
 3.5490	 5.3170
 3.5520	 5.2240
 3.5540	 5.3000
 3.5570	 5.3530
 3.5590	 5.4100
 3.5610	 5.3450
 3.5640	 5.2090
 3.5660	 5.1360
 3.5690	 5.0790
 3.5710	 5.0190
 3.5740	 5.0880
 3.5760	 5.1060
 3.5790	 5.2140
 3.5810	 5.1260
 3.5840	 5.1970
 3.5860	 5.3190
 3.5890	 5.1510
 3.5910	 5.0800
 3.5930	 5.3520
 3.5960	 5.6300
 3.5980	 5.5490
 3.6010	 5.2330
 3.6030	 5.2840
 3.6060	 5.2360
 3.6080	 5.0230
 3.6110	 4.8910
 3.6140	 5.1010
 3.6160	 4.9950
 3.6190	 4.9440
 3.6210	 4.9570
 3.6240	 4.9690
 3.6260	 4.9480
 3.6290	 4.9100
 3.6310	 4.9440
 3.6340	 5.0510
 3.6360	 4.9820
 3.6390	 5.0370
 3.6410	 5.0100
 3.6440	 4.9420
 3.6470	 4.8450
 3.6490	 4.8440
 3.6520	 4.8670
 3.6540	 5.0700
 3.6570	 5.1560
 3.6590	 5.0220
 3.6620	 4.9060
 3.6650	 4.9810
 3.6670	 4.9080
 3.6700	 4.9060
 3.6720	 4.9610
 3.6750	 5.0310
 3.6780	 5.1350
 3.6800	 5.1420
 3.6830	 5.0310
 3.6850	 5.0220
 3.6880	 4.9190
 3.6910	 4.9460
 3.6930	 5.0830
 3.6960	 5.0860
 3.6990	 4.9730
 3.7010	 4.8580
 3.7040	 4.8340
 3.7060	 5.0510
 3.7090	 5.1580
 3.7120	 5.0840
 3.7140	 4.9360
 3.7170	 4.9760
 3.7200	 4.9540
 3.7220	 5.0340
 3.7250	 5.1470
 3.7280	 5.0640
 3.7300	 4.9890
 3.7330	 5.0220
 3.7360	 4.9530
 3.7390	 5.0210
 3.7410	 5.2410
 3.7440	 5.2110
 3.7470	 5.2210
 3.7490	 5.4450
 3.7520	 5.4140
 3.7550	 5.2810
 3.7580	 5.1180
 3.7600	 5.1000
 3.7630	 5.0670
 3.7660	 5.0750
 3.7680	 5.1560
 3.7710	 5.1320
 3.7740	 4.8670
 3.7770	 4.9790
 3.7790	 5.1550
 3.7820	 5.2280
 3.7850	 5.2270
 3.7880	 5.3060
 3.7900	 5.2990
 3.7930	 5.1890
 3.7960	 5.0790
 3.7990	 5.0850
 3.8020	 5.1490
 3.8040	 5.2090
 3.8070	 5.2060
 3.8100	 5.2910
 3.8130	 5.1950
 3.8160	 5.0950
 3.8180	 5.0530
 3.8210	 5.2260
 3.8240	 5.3440
 3.8270	 5.3920
 3.8300	 5.3110
 3.8330	 5.2780
 3.8350	 5.2280
 3.8380	 5.3640
 3.8410	 5.2450
 3.8440	 5.1860
 3.8470	 5.2920
 3.8500	 5.2150
 3.8520	 5.2190
 3.8550	 5.4410
 3.8580	 5.5110
 3.8610	 5.3370
 3.8640	 5.3370
 3.8670	 5.4290
 3.8700	 5.3970
 3.8730	 5.3840
 3.8750	 5.5350
 3.8780	 5.6650
 3.8810	 5.6880
 3.8840	 5.6050
 3.8870	 5.5570
 3.8900	 5.5690
 3.8930	 5.5870
 3.8960	 5.5560
 3.8990	 5.5060
 3.9020	 5.6040
 3.9050	 5.5440
 3.9080	 5.5360
 3.9110	 5.5040
 3.9140	 5.5850
 3.9160	 5.5760
 3.9190	 5.5830
 3.9220	 5.6270
 3.9250	 5.6460
 3.9280	 5.6180
 3.9310	 5.6390
 3.9340	 5.5960
 3.9370	 5.6550
 3.9400	 5.6570
 3.9430	 5.6290
 3.9460	 5.5420
 3.9490	 5.6020
 3.9520	 5.6570
 3.9550	 5.6420
 3.9580	 5.5910
 3.9610	 5.6190
 3.9640	 5.7310
 3.9670	 5.7060
 3.9700	 5.5360
 3.9730	 5.6070
 3.9770	 5.6410
 3.9800	 5.5980
 3.9830	 5.6130
 3.9860	 5.6970
 3.9890	 5.6840
 3.9920	 5.7230
 3.9950	 5.7330
 3.9980	 5.7320
 4.0010	 5.8020
 4.0040	 5.7930
 4.0070	 5.6240
 4.0100	 5.6070
 4.0130	 5.6990
 4.0170	 5.7360
 4.0200	 5.7300
 4.0230	 5.6740
 4.0260	 5.6500
 4.0290	 5.7260
 4.0320	 5.7410
 4.0350	 5.7140
 4.0380	 5.6320
 4.0420	 5.5570
 4.0450	 5.6110
 4.0480	 5.7100
 4.0510	 5.7100
 4.0540	 5.6940
 4.0570	 5.6680
 4.0610	 5.7500
 4.0640	 5.7470
 4.0670	 5.6720
 4.0700	 5.7630
 4.0730	 5.8550
 4.0770	 5.6930
 4.0800	 5.5450
 4.0830	 5.6030
 4.0860	 5.6580
 4.0890	 5.6620
 4.0930	 5.7120
 4.0960	 5.6760
 4.0990	 5.6030
 4.1020	 5.6420
 4.1060	 5.6520
 4.1090	 5.5460
 4.1120	 5.6470
 4.1150	 5.8430
 4.1190	 5.8180
 4.1220	 5.7350
 4.1250	 5.7140
 4.1280	 5.7380
 4.1320	 5.8620
 4.1350	 5.7820
 4.1380	 5.6360
 4.1420	 5.5890
 4.1450	 5.6000
 4.1480	 5.5810
 4.1520	 5.6770
 4.1550	 5.7420
 4.1580	 5.7640
 4.1620	 5.6480
 4.1650	 5.5670
 4.1680	 5.5300
 4.1720	 5.5270
 4.1750	 5.5960
 4.1780	 5.6660
 4.1820	 5.6840
 4.1850	 5.6670
 4.1890	 5.6370
 4.1920	 5.5700
 4.1950	 5.5140
 4.1990	 5.5600
 4.2020	 5.5790
 4.2060	 5.4450
 4.2090	 5.2390
 4.2120	 5.1980
 4.2160	 5.1710
 4.2190	 5.1800
 4.2230	 5.1260
 4.2260	 5.2610
 4.2300	 5.1740
 4.2330	 5.0160
 4.2360	 5.1140
 4.2400	 5.3650
 4.2430	 5.3270
 4.2470	 5.1630
 4.2500	 4.9710
 4.2540	 5.1700
 4.2570	 5.4030
 4.2610	 5.2560
 4.2640	 4.8290
 4.2680	 4.9900
 4.2710	 5.3680
 4.2750	 5.4830
 4.2780	 5.1050
 4.2820	 5.1620
 4.2850	 5.2970
 4.2890	 5.1910
 4.2930	 5.2820
 4.2960	 5.2140
 4.3000	 5.0240
 4.3030	 4.9860
 4.3070	 5.0910
 4.3100	 5.1310
 4.3140	 5.0020
 4.3180	 5.0180
 4.3210	 5.0420
 4.3250	 5.0420
 4.3280	 5.0640
 4.3320	 5.1410
 4.3360	 5.0560
 4.3390	 5.0190
 4.3430	 5.0650
 4.3470	 5.0840
 4.3500	 5.1080
 4.3540	 5.1560
 4.3570	 5.1440
 4.3610	 5.1530
 4.3650	 5.1690
 4.3680	 5.1330
 4.3720	 5.0090
 4.3760	 5.0610
 4.3800	 5.0710
 4.3830	 5.0240
 4.3870	 4.9880
 4.3910	 5.0120
 4.3940	 5.0520
 4.3980	 5.0050
 4.4020	 4.9780
 4.4060	 4.9980
 4.4090	 5.0300
 4.4130	 5.1560
 4.4170	 5.0810
 4.4210	 5.0740
 4.4240	 5.1260
 4.4280	 5.0440
 4.4320	 4.9220
 4.4360	 4.8850
 4.4400	 4.8650
 4.4430	 4.9310
 4.4470	 4.9880
 4.4510	 4.9260
 4.4550	 4.9080
 4.4590	 4.9250
 4.4620	 4.8480
 4.4660	 4.8650
 4.4700	 4.8960
 4.4740	 4.8470
 4.4780	 4.7920
 4.4820	 4.8940
 4.4860	 5.0260
 4.4900	 5.0000
 4.4930	 4.8300
 4.4970	 4.7550
 4.5010	 4.7940
 4.5050	 4.8340
 4.5090	 4.8960
 4.5130	 4.9270
 4.5170	 4.9050
 4.5210	 4.7760
 4.5250	 4.6200
 4.5290	 4.7410
 4.5330	 4.8120
 4.5370	 4.8040
 4.5410	 4.7660
 4.5450	 4.7430
 4.5490	 4.8480
 4.5530	 4.8570
 4.5570	 4.8060
 4.5610	 4.8220
 4.5650	 4.7420
 4.5690	 4.6550
 4.5730	 4.6380
 4.5770	 4.8210
 4.5810	 4.8570
 4.5850	 4.7560
 4.5890	 4.7350
 4.5930	 4.8130
 4.5970	 4.8440
 4.6010	 4.7110
 4.6050	 4.7240
 4.6090	 4.7600
 4.6130	 4.9060
 4.6170	 5.1310
 4.6220	 4.9310
 4.6260	 4.7590
 4.6300	 4.7800
 4.6340	 4.8040
 4.6380	 4.8920
 4.6420	 4.7230
 4.6460	 4.6660
 4.6510	 4.7980
 4.6550	 4.8100
 4.6590	 4.7930
 4.6630	 4.8390
 4.6670	 4.7690
 4.6720	 4.6950
 4.6760	 4.8050
 4.6800	 4.8080
 4.6840	 4.6660
 4.6880	 4.6820
 4.6930	 4.7090
 4.6970	 4.7310
 4.7010	 4.7520
 4.7050	 4.7390
 4.7100	 4.8340
 4.7140	 4.9020
 4.7180	 4.7160
 4.7230	 4.5890
 4.7270	 4.6600
 4.7310	 4.7000
 4.7360	 4.7900
 4.7400	 4.8790
 4.7440	 4.7910
 4.7490	 4.7310
 4.7530	 4.8210
 4.7570	 4.8530
 4.7620	 4.8130
 4.7660	 4.8990
 4.7700	 4.9530
 4.7750	 4.8120
 4.7790	 4.7910
 4.7840	 4.8660
 4.7880	 4.6680
 4.7920	 4.5920
 4.7970	 4.6330
 4.8010	 4.5540
 4.8060	 4.5790
 4.8100	 4.7350
 4.8150	 4.8290
 4.8190	 4.7820
 4.8240	 4.7080
 4.8280	 4.7940
 4.8330	 4.6910
 4.8370	 4.6240
 4.8420	 4.7540
 4.8460	 4.8990
 4.8510	 4.8900
 4.8550	 4.7940
 4.8600	 4.8090
 4.8640	 4.9160
 4.8690	 4.9550
 4.8730	 4.8190
 4.8780	 4.8330
 4.8830	 4.9050
 4.8870	 4.9190
 4.8920	 4.9200
 4.8960	 4.8610
 4.9010	 4.8940
 4.9060	 4.9640
 4.9100	 4.9610
 4.9150	 4.9870
 4.9200	 4.9640
 4.9240	 4.8260
 4.9290	 4.7870
 4.9340	 4.8350
 4.9380	 4.9200
 4.9430	 5.0070
 4.9480	 5.0780
 4.9530	 5.1140
 4.9570	 5.1870
 4.9620	 5.0840
 4.9670	 5.0560
 4.9720	 5.1140
 4.9760	 5.0440
 4.9810	 4.9430
 4.9860	 4.9810
 4.9910	 5.0890
 4.9960	 5.1750
 5.0000	 5.1650
 5.0050	 5.1980
 5.0100	 5.1920
 5.0150	 5.2020
 5.0200	 5.1600
 5.0250	 5.0900
 5.0290	 5.1510
 5.0340	 5.1900
 5.0390	 5.1380
 5.0440	 5.1540
 5.0490	 5.1610
 5.0540	 5.2680
 5.0590	 5.2360
 5.0640	 5.1410
 5.0690	 5.1970
 5.0740	 5.2170
 5.0790	 5.2330
 5.0840	 5.2860
 5.0890	 5.2520
 5.0940	 5.2210
 5.0990	 5.2500
 5.1040	 5.2840
 5.1090	 5.3380
 5.1140	 5.3930
 5.1190	 5.3860
 5.1240	 5.3380
 5.1290	 5.2510
 5.1340	 5.2370
 5.1390	 5.2240
 5.1440	 5.2890
 5.1490	 5.4280
 5.1540	 5.4520
 5.1600	 5.3290
 5.1650	 5.2710
 5.1700	 5.3890
 5.1750	 5.4480
 5.1800	 5.3780
 5.1850	 5.4120
 5.1910	 5.4270
 5.1960	 5.5120
 5.2010	 5.5750
 5.2060	 5.6350
 5.2110	 5.5960
 5.2170	 5.5590
 5.2220	 5.5050
 5.2270	 5.4450
 5.2320	 5.4510
 5.2380	 5.5380
 5.2430	 5.5760
 5.2480	 5.5140
 5.2540	 5.4800
 5.2590	 5.5940
 5.2640	 5.5840
 5.2700	 5.6160
 5.2750	 5.6420
 5.2800	 5.5450
 5.2860	 5.4970
 5.2910	 5.5250
 5.2970	 5.4640
 5.3020	 5.4170
 5.3070	 5.4670
 5.3130	 5.5790
 5.3180	 5.5320
 5.3240	 5.4630
 5.3290	 5.5790
 5.3350	 5.5410
 5.3400	 5.3960
 5.3460	 5.3780
 5.3510	 5.4980
 5.3570	 5.6270
 5.3620	 5.5340
 5.3680	 5.4230
 5.3730	 5.4470
 5.3790	 5.5550
 5.3850	 5.5660
 5.3900	 5.5380
 5.3960	 5.4740
 5.4010	 5.4610
 5.4070	 5.4080
 5.4130	 5.3700
 5.4180	 5.3570
 5.4240	 5.2950
 5.4300	 5.3110
 5.4350	 5.3030
 5.4410	 5.2640
 5.4470	 5.3200
 5.4530	 5.2370
 5.4580	 5.1800
