Name: Quercus douglasii 3
Type: vegetation
Class: Tree
Genus: Quercus
Species: douglasii
Sample No.: VH278
Owner: UCSB
Wavelength Range: VSWIR
Origin: 34.7165; -120.0605; WGS84
Collection Date: 11/2/2013
Description: Samples were collected as part of the HyspIRI Airborne Campaign. 48 individual plants were sampled in three times in 2013 - spring  summer  and fall. The name of the sample includes a 1  2  or 3 which references a different individual of the species. Samples were taken to JPL and processed within 48 hours of collection. The same leaves were processed in the Nicolet and then measured using the ASD.
Measurement: Bidirectional reflectance
First Column: X
Second Column: Y
X Units: Wavelength (micrometers)
Y Units: Reflectance (percentage)
First X Value: 0.35
Last X Value: 2.5
Number of X Values: 2151
Additional Information: vegetation.tree.quercus.douglasii.vswir.vh278.ucsb.asd.ancillary.txt

 0.3500	 7.0180
 0.3510	 6.8410
 0.3520	 6.7780
 0.3530	 6.7490
 0.3540	 6.6740
 0.3550	 6.6420
 0.3560	 6.7290
 0.3570	 6.8360
 0.3580	 6.8020
 0.3590	 6.7490
 0.3600	 6.6880
 0.3610	 6.6730
 0.3620	 6.8410
 0.3630	 6.8190
 0.3640	 6.7440
 0.3650	 6.7910
 0.3660	 6.7770
 0.3670	 6.7190
 0.3680	 6.6970
 0.3690	 6.8040
 0.3700	 6.7680
 0.3710	 6.7030
 0.3720	 6.7080
 0.3730	 6.7660
 0.3740	 6.7970
 0.3750	 6.7870
 0.3760	 6.7580
 0.3770	 6.7660
 0.3780	 6.7850
 0.3790	 6.7900
 0.3800	 6.7650
 0.3810	 6.7740
 0.3820	 6.7990
 0.3830	 6.8210
 0.3840	 6.8580
 0.3850	 6.8630
 0.3860	 6.8520
 0.3870	 6.8650
 0.3880	 6.9220
 0.3890	 6.9510
 0.3900	 6.9540
 0.3910	 7.0050
 0.3920	 7.0140
 0.3930	 6.9850
 0.3940	 6.9510
 0.3950	 6.9790
 0.3960	 7.0470
 0.3970	 7.1110
 0.3980	 7.1220
 0.3990	 7.1270
 0.4000	 7.1430
 0.4010	 7.1710
 0.4020	 7.2000
 0.4030	 7.2110
 0.4040	 7.2240
 0.4050	 7.2600
 0.4060	 7.3070
 0.4070	 7.3670
 0.4080	 7.4320
 0.4090	 7.4900
 0.4100	 7.5310
 0.4110	 7.5710
 0.4120	 7.6190
 0.4130	 7.6700
 0.4140	 7.7250
 0.4150	 7.7760
 0.4160	 7.8180
 0.4170	 7.8780
 0.4180	 7.9400
 0.4190	 7.9930
 0.4200	 8.0410
 0.4210	 8.0820
 0.4220	 8.1370
 0.4230	 8.2110
 0.4240	 8.2730
 0.4250	 8.3320
 0.4260	 8.3940
 0.4270	 8.4570
 0.4280	 8.5200
 0.4290	 8.5620
 0.4300	 8.5890
 0.4310	 8.6450
 0.4320	 8.7090
 0.4330	 8.7550
 0.4340	 8.7750
 0.4350	 8.8200
 0.4360	 8.8670
 0.4370	 8.9080
 0.4380	 8.9450
 0.4390	 8.9940
 0.4400	 9.0440
 0.4410	 9.0810
 0.4420	 9.0870
 0.4430	 9.1130
 0.4440	 9.1500
 0.4450	 9.1690
 0.4460	 9.1970
 0.4470	 9.2230
 0.4480	 9.2420
 0.4490	 9.2620
 0.4500	 9.2840
 0.4510	 9.3050
 0.4520	 9.3240
 0.4530	 9.3460
 0.4540	 9.3640
 0.4550	 9.3800
 0.4560	 9.4070
 0.4570	 9.4350
 0.4580	 9.4500
 0.4590	 9.4570
 0.4600	 9.4900
 0.4610	 9.5130
 0.4620	 9.5300
 0.4630	 9.5580
 0.4640	 9.5930
 0.4650	 9.6200
 0.4660	 9.6400
 0.4670	 9.6610
 0.4680	 9.6770
 0.4690	 9.6960
 0.4700	 9.7220
 0.4710	 9.7410
 0.4720	 9.7590
 0.4730	 9.7830
 0.4740	 9.8120
 0.4750	 9.8270
 0.4760	 9.8390
 0.4770	 9.8550
 0.4780	 9.8700
 0.4790	 9.8880
 0.4800	 9.9080
 0.4810	 9.9240
 0.4820	 9.9350
 0.4830	 9.9510
 0.4840	 9.9750
 0.4850	10.0010
 0.4860	10.0250
 0.4870	10.0560
 0.4880	10.0960
 0.4890	10.1250
 0.4900	10.1640
 0.4910	10.2140
 0.4920	10.2660
 0.4930	10.3140
 0.4940	10.3770
 0.4950	10.4540
 0.4960	10.5160
 0.4970	10.5990
 0.4980	10.6910
 0.4990	10.7770
 0.5000	10.8830
 0.5010	11.0080
 0.5020	11.1430
 0.5030	11.2820
 0.5040	11.4320
 0.5050	11.5980
 0.5060	11.7840
 0.5070	11.9910
 0.5080	12.2190
 0.5090	12.4650
 0.5100	12.7260
 0.5110	13.0090
 0.5120	13.3210
 0.5130	13.6590
 0.5140	14.0140
 0.5150	14.3930
 0.5160	14.7970
 0.5170	15.2210
 0.5180	15.6540
 0.5190	16.1040
 0.5200	16.5720
 0.5210	17.0510
 0.5220	17.5340
 0.5230	18.0190
 0.5240	18.5060
 0.5250	18.9980
 0.5260	19.4840
 0.5270	19.9580
 0.5280	20.4140
 0.5290	20.8640
 0.5300	21.3040
 0.5310	21.7300
 0.5320	22.1430
 0.5330	22.5400
 0.5340	22.9230
 0.5350	23.2930
 0.5360	23.6370
 0.5370	23.9730
 0.5380	24.3040
 0.5390	24.6230
 0.5400	24.9370
 0.5410	25.2450
 0.5420	25.5410
 0.5430	25.8190
 0.5440	26.1070
 0.5450	26.3930
 0.5460	26.6580
 0.5470	26.9170
 0.5480	27.1690
 0.5490	27.4040
 0.5500	27.6220
 0.5510	27.8250
 0.5520	28.0110
 0.5530	28.1790
 0.5540	28.3350
 0.5550	28.4780
 0.5560	28.6080
 0.5570	28.7220
 0.5580	28.8160
 0.5590	28.8990
 0.5600	28.9770
 0.5610	29.0460
 0.5620	29.1080
 0.5630	29.1620
 0.5640	29.2080
 0.5650	29.2390
 0.5660	29.2600
 0.5670	29.2700
 0.5680	29.2590
 0.5690	29.2500
 0.5700	29.2400
 0.5710	29.2200
 0.5720	29.2080
 0.5730	29.2040
 0.5740	29.2150
 0.5750	29.2450
 0.5760	29.2650
 0.5770	29.2810
 0.5780	29.2950
 0.5790	29.2940
 0.5800	29.3200
 0.5810	29.3600
 0.5820	29.3830
 0.5830	29.3950
 0.5840	29.3990
 0.5850	29.3960
 0.5860	29.3910
 0.5870	29.4080
 0.5880	29.4400
 0.5890	29.4770
 0.5900	29.5370
 0.5910	29.6110
 0.5920	29.6890
 0.5930	29.7610
 0.5940	29.8380
 0.5950	29.9090
 0.5960	29.9580
 0.5970	29.9620
 0.5980	29.9560
 0.5990	29.9500
 0.6000	29.9400
 0.6010	29.9170
 0.6020	29.8800
 0.6030	29.8370
 0.6040	29.8020
 0.6050	29.7530
 0.6060	29.6950
 0.6070	29.6350
 0.6080	29.5610
 0.6090	29.4770
 0.6100	29.3860
 0.6110	29.2930
 0.6120	29.2210
 0.6130	29.1600
 0.6140	29.1000
 0.6150	29.0400
 0.6160	28.9940
 0.6170	28.9510
 0.6180	28.9050
 0.6190	28.8860
 0.6200	28.8740
 0.6210	28.8660
 0.6220	28.8720
 0.6230	28.8950
 0.6240	28.9270
 0.6250	28.9600
 0.6260	28.9950
 0.6270	29.0440
 0.6280	29.1020
 0.6290	29.1620
 0.6300	29.2230
 0.6310	29.2850
 0.6320	29.3440
 0.6330	29.3900
 0.6340	29.4200
 0.6350	29.4340
 0.6360	29.4290
 0.6370	29.3980
 0.6380	29.3370
 0.6390	29.2530
 0.6400	29.1550
 0.6410	29.0180
 0.6420	28.8600
 0.6430	28.6930
 0.6440	28.5080
 0.6450	28.3210
 0.6460	28.1210
 0.6470	27.9020
 0.6480	27.7120
 0.6490	27.5240
 0.6500	27.3360
 0.6510	27.1590
 0.6520	26.9860
 0.6530	26.8070
 0.6540	26.6160
 0.6550	26.4160
 0.6560	26.2110
 0.6570	25.9940
 0.6580	25.7610
 0.6590	25.5210
 0.6600	25.2810
 0.6610	25.0460
 0.6620	24.8130
 0.6630	24.6030
 0.6640	24.4090
 0.6650	24.2270
 0.6660	24.0830
 0.6670	23.9720
 0.6680	23.8900
 0.6690	23.8360
 0.6700	23.8130
 0.6710	23.8280
 0.6720	23.8790
 0.6730	23.9440
 0.6740	24.0480
 0.6750	24.1900
 0.6760	24.3590
 0.6770	24.5480
 0.6780	24.7840
 0.6790	25.0660
 0.6800	25.3730
 0.6810	25.7410
 0.6820	26.1730
 0.6830	26.6740
 0.6840	27.2560
 0.6850	27.9210
 0.6860	28.6690
 0.6870	29.5000
 0.6880	30.4150
 0.6890	31.4090
 0.6900	32.4700
 0.6910	33.5760
 0.6920	34.7030
 0.6930	35.8370
 0.6940	36.9680
 0.6950	38.0850
 0.6960	39.1740
 0.6970	40.2230
 0.6980	41.2220
 0.6990	42.1610
 0.7000	43.0500
 0.7010	43.8860
 0.7020	44.6580
 0.7030	45.3780
 0.7040	46.0350
 0.7050	46.6260
 0.7060	47.1930
 0.7070	47.7050
 0.7080	48.1700
 0.7090	48.6090
 0.7100	49.0140
 0.7110	49.3860
 0.7120	49.7240
 0.7130	50.0330
 0.7140	50.3240
 0.7150	50.5970
 0.7160	50.8520
 0.7170	51.0990
 0.7180	51.3190
 0.7190	51.5210
 0.7200	51.7250
 0.7210	51.9160
 0.7220	52.0840
 0.7230	52.2350
 0.7240	52.3940
 0.7250	52.5450
 0.7260	52.6820
 0.7270	52.8040
 0.7280	52.9320
 0.7290	53.0470
 0.7300	53.1530
 0.7310	53.2620
 0.7320	53.3670
 0.7330	53.4590
 0.7340	53.5400
 0.7350	53.6230
 0.7360	53.7020
 0.7370	53.7670
 0.7380	53.8190
 0.7390	53.9000
 0.7400	53.9760
 0.7410	54.0360
 0.7420	54.0800
 0.7430	54.1340
 0.7440	54.1870
 0.7450	54.2320
 0.7460	54.2640
 0.7470	54.3050
 0.7480	54.3510
 0.7490	54.3910
 0.7500	54.4130
 0.7510	54.4390
 0.7520	54.4710
 0.7530	54.5080
 0.7540	54.5350
 0.7550	54.5700
 0.7560	54.6040
 0.7570	54.6180
 0.7580	54.6170
 0.7590	54.6350
 0.7600	54.6800
 0.7610	54.6990
 0.7620	54.7240
 0.7630	54.7490
 0.7640	54.7580
 0.7650	54.7680
 0.7660	54.7970
 0.7670	54.8300
 0.7680	54.8400
 0.7690	54.8620
 0.7700	54.8810
 0.7710	54.8880
 0.7720	54.8970
 0.7730	54.9270
 0.7740	54.9560
 0.7750	54.9640
 0.7760	54.9770
 0.7770	54.9950
 0.7780	55.0170
 0.7790	55.0390
 0.7800	55.0560
 0.7810	55.0810
 0.7820	55.1090
 0.7830	55.1140
 0.7840	55.1410
 0.7850	55.1650
 0.7860	55.1750
 0.7870	55.2040
 0.7880	55.2210
 0.7890	55.2360
 0.7900	55.2670
 0.7910	55.2920
 0.7920	55.3030
 0.7930	55.3140
 0.7940	55.3440
 0.7950	55.3700
 0.7960	55.3720
 0.7970	55.3640
 0.7980	55.4070
 0.7990	55.4390
 0.8000	55.4570
 0.8010	55.4720
 0.8020	55.4910
 0.8030	55.4970
 0.8040	55.5060
 0.8050	55.5380
 0.8060	55.5600
 0.8070	55.5800
 0.8080	55.5980
 0.8090	55.6120
 0.8100	55.6250
 0.8110	55.6420
 0.8120	55.6650
 0.8130	55.6830
 0.8140	55.6970
 0.8150	55.7080
 0.8160	55.7200
 0.8170	55.7570
 0.8180	55.7740
 0.8190	55.7730
 0.8200	55.7740
 0.8210	55.8060
 0.8220	55.8300
 0.8230	55.8400
 0.8240	55.8540
 0.8250	55.8520
 0.8260	55.8700
 0.8270	55.9130
 0.8280	55.9360
 0.8290	55.9350
 0.8300	55.9340
 0.8310	55.9500
 0.8320	55.9470
 0.8330	55.9620
 0.8340	55.9810
 0.8350	55.9760
 0.8360	55.9830
 0.8370	56.0070
 0.8380	56.0320
 0.8390	56.0360
 0.8400	56.0470
 0.8410	56.0600
 0.8420	56.0740
 0.8430	56.0990
 0.8440	56.1170
 0.8450	56.1240
 0.8460	56.1240
 0.8470	56.1320
 0.8480	56.1390
 0.8490	56.1470
 0.8500	56.1640
 0.8510	56.1910
 0.8520	56.2100
 0.8530	56.2210
 0.8540	56.2300
 0.8550	56.2360
 0.8560	56.2440
 0.8570	56.2560
 0.8580	56.2660
 0.8590	56.2990
 0.8600	56.3110
 0.8610	56.2910
 0.8620	56.2960
 0.8630	56.3120
 0.8640	56.3370
 0.8650	56.3620
 0.8660	56.3680
 0.8670	56.3640
 0.8680	56.3610
 0.8690	56.3640
 0.8700	56.3560
 0.8710	56.3640
 0.8720	56.3930
 0.8730	56.4310
 0.8740	56.4420
 0.8750	56.4430
 0.8760	56.4400
 0.8770	56.4260
 0.8780	56.4410
 0.8790	56.4510
 0.8800	56.4440
 0.8810	56.4530
 0.8820	56.4560
 0.8830	56.4760
 0.8840	56.5100
 0.8850	56.4930
 0.8860	56.4760
 0.8870	56.4830
 0.8880	56.5130
 0.8890	56.5290
 0.8900	56.5280
 0.8910	56.5160
 0.8920	56.5000
 0.8930	56.5020
 0.8940	56.5090
 0.8950	56.5200
 0.8960	56.5370
 0.8970	56.5450
 0.8980	56.5320
 0.8990	56.5140
 0.9000	56.5250
 0.9010	56.5240
 0.9020	56.5200
 0.9030	56.5190
 0.9040	56.5200
 0.9050	56.5360
 0.9060	56.5640
 0.9070	56.5910
 0.9080	56.5870
 0.9090	56.5450
 0.9100	56.5110
 0.9110	56.5170
 0.9120	56.5280
 0.9130	56.5410
 0.9140	56.5550
 0.9150	56.5630
 0.9160	56.5460
 0.9170	56.5290
 0.9180	56.5270
 0.9190	56.5440
 0.9200	56.5460
 0.9210	56.5440
 0.9220	56.5350
 0.9230	56.5170
 0.9240	56.5140
 0.9250	56.4980
 0.9260	56.4780
 0.9270	56.4910
 0.9280	56.4830
 0.9290	56.4650
 0.9300	56.4530
 0.9310	56.4580
 0.9320	56.4520
 0.9330	56.4320
 0.9340	56.4060
 0.9350	56.3870
 0.9360	56.3820
 0.9370	56.3850
 0.9380	56.3790
 0.9390	56.3300
 0.9400	56.3030
 0.9410	56.2950
 0.9420	56.2880
 0.9430	56.2650
 0.9440	56.2310
 0.9450	56.2120
 0.9460	56.2040
 0.9470	56.1420
 0.9480	56.0960
 0.9490	56.0710
 0.9500	56.0510
 0.9510	56.0250
 0.9520	55.9790
 0.9530	55.9230
 0.9540	55.8720
 0.9550	55.8300
 0.9560	55.7790
 0.9570	55.7360
 0.9580	55.7080
 0.9590	55.6460
 0.9600	55.6010
 0.9610	55.5740
 0.9620	55.5500
 0.9630	55.5480
 0.9640	55.5380
 0.9650	55.5150
 0.9660	55.4900
 0.9670	55.4550
 0.9680	55.4250
 0.9690	55.4030
 0.9700	55.3910
 0.9710	55.3990
 0.9720	55.3950
 0.9730	55.3780
 0.9740	55.3680
 0.9750	55.3850
 0.9760	55.4050
 0.9770	55.4220
 0.9780	55.4350
 0.9790	55.4060
 0.9800	55.3860
 0.9810	55.3900
 0.9820	55.4050
 0.9830	55.3940
 0.9840	55.4160
 0.9850	55.4430
 0.9860	55.4300
 0.9870	55.4630
 0.9880	55.4830
 0.9890	55.4870
 0.9900	55.4990
 0.9910	55.5120
 0.9920	55.5290
 0.9930	55.5520
 0.9940	55.5780
 0.9950	55.5880
 0.9960	55.6020
 0.9970	55.6190
 0.9980	55.6310
 0.9990	55.6490
 1.0000	55.6430
 1.0010	55.5640
 1.0020	55.5380
 1.0030	55.5550
 1.0040	55.5790
 1.0050	55.5980
 1.0060	55.6260
 1.0070	55.6550
 1.0080	55.6790
 1.0090	55.7030
 1.0100	55.7250
 1.0110	55.7450
 1.0120	55.7630
 1.0130	55.7810
 1.0140	55.8000
 1.0150	55.8190
 1.0160	55.8310
 1.0170	55.8430
 1.0180	55.8580
 1.0190	55.8790
 1.0200	55.9050
 1.0210	55.9330
 1.0220	55.9640
 1.0230	55.9860
 1.0240	55.9980
 1.0250	56.0160
 1.0260	56.0350
 1.0270	56.0510
 1.0280	56.0670
 1.0290	56.0840
 1.0300	56.1010
 1.0310	56.1160
 1.0320	56.1320
 1.0330	56.1460
 1.0340	56.1540
 1.0350	56.1620
 1.0360	56.1730
 1.0370	56.1830
 1.0380	56.1960
 1.0390	56.2140
 1.0400	56.2270
 1.0410	56.2440
 1.0420	56.2540
 1.0430	56.2600
 1.0440	56.2680
 1.0450	56.2750
 1.0460	56.2830
 1.0470	56.2940
 1.0480	56.3030
 1.0490	56.3120
 1.0500	56.3230
 1.0510	56.3350
 1.0520	56.3480
 1.0530	56.3600
 1.0540	56.3730
 1.0550	56.3830
 1.0560	56.3890
 1.0570	56.3970
 1.0580	56.4020
 1.0590	56.4080
 1.0600	56.4130
 1.0610	56.4190
 1.0620	56.4240
 1.0630	56.4330
 1.0640	56.4500
 1.0650	56.4580
 1.0660	56.4580
 1.0670	56.4630
 1.0680	56.4670
 1.0690	56.4640
 1.0700	56.4680
 1.0710	56.4790
 1.0720	56.4860
 1.0730	56.4920
 1.0740	56.4970
 1.0750	56.5030
 1.0760	56.5070
 1.0770	56.5090
 1.0780	56.5110
 1.0790	56.5120
 1.0800	56.5130
 1.0810	56.5150
 1.0820	56.5160
 1.0830	56.5200
 1.0840	56.5200
 1.0850	56.5170
 1.0860	56.5120
 1.0870	56.5070
 1.0880	56.5000
 1.0890	56.4940
 1.0900	56.4880
 1.0910	56.4810
 1.0920	56.4730
 1.0930	56.4660
 1.0940	56.4600
 1.0950	56.4510
 1.0960	56.4410
 1.0970	56.4320
 1.0980	56.4190
 1.0990	56.4090
 1.1000	56.4030
 1.1010	56.3930
 1.1020	56.3810
 1.1030	56.3690
 1.1040	56.3550
 1.1050	56.3400
 1.1060	56.3270
 1.1070	56.3170
 1.1080	56.3030
 1.1090	56.2890
 1.1100	56.2730
 1.1110	56.2560
 1.1120	56.2380
 1.1130	56.2200
 1.1140	56.2000
 1.1150	56.1780
 1.1160	56.1560
 1.1170	56.1360
 1.1180	56.1110
 1.1190	56.0830
 1.1200	56.0560
 1.1210	56.0290
 1.1220	55.9970
 1.1230	55.9640
 1.1240	55.9300
 1.1250	55.8890
 1.1260	55.8420
 1.1270	55.7920
 1.1280	55.7370
 1.1290	55.6820
 1.1300	55.6270
 1.1310	55.5640
 1.1320	55.5010
 1.1330	55.4290
 1.1340	55.3450
 1.1350	55.2600
 1.1360	55.1720
 1.1370	55.0770
 1.1380	54.9760
 1.1390	54.8730
 1.1400	54.7610
 1.1410	54.6460
 1.1420	54.5320
 1.1430	54.4160
 1.1440	54.3010
 1.1450	54.1860
 1.1460	54.0720
 1.1470	53.9560
 1.1480	53.8440
 1.1490	53.7310
 1.1500	53.6240
 1.1510	53.5160
 1.1520	53.4200
 1.1530	53.3300
 1.1540	53.2490
 1.1550	53.1770
 1.1560	53.1120
 1.1570	53.0550
 1.1580	53.0020
 1.1590	52.9550
 1.1600	52.9140
 1.1610	52.8780
 1.1620	52.8470
 1.1630	52.8200
 1.1640	52.7970
 1.1650	52.7780
 1.1660	52.7620
 1.1670	52.7500
 1.1680	52.7450
 1.1690	52.7370
 1.1700	52.7310
 1.1710	52.7240
 1.1720	52.7180
 1.1730	52.7130
 1.1740	52.7080
 1.1750	52.7040
 1.1760	52.7030
 1.1770	52.6970
 1.1780	52.6900
 1.1790	52.6860
 1.1800	52.6810
 1.1810	52.6770
 1.1820	52.6680
 1.1830	52.6590
 1.1840	52.6480
 1.1850	52.6330
 1.1860	52.6230
 1.1870	52.6150
 1.1880	52.6070
 1.1890	52.5990
 1.1900	52.5940
 1.1910	52.5930
 1.1920	52.5900
 1.1930	52.5890
 1.1940	52.5890
 1.1950	52.5900
 1.1960	52.5900
 1.1970	52.5930
 1.1980	52.5970
 1.1990	52.6020
 1.2000	52.6110
 1.2010	52.6180
 1.2020	52.6280
 1.2030	52.6380
 1.2040	52.6460
 1.2050	52.6580
 1.2060	52.6730
 1.2070	52.6860
 1.2080	52.7030
 1.2090	52.7180
 1.2100	52.7320
 1.2110	52.7490
 1.2120	52.7670
 1.2130	52.7870
 1.2140	52.8080
 1.2150	52.8300
 1.2160	52.8520
 1.2170	52.8770
 1.2180	52.9010
 1.2190	52.9260
 1.2200	52.9510
 1.2210	52.9730
 1.2220	52.9980
 1.2230	53.0210
 1.2240	53.0470
 1.2250	53.0730
 1.2260	53.0960
 1.2270	53.1210
 1.2280	53.1460
 1.2290	53.1720
 1.2300	53.1950
 1.2310	53.2160
 1.2320	53.2370
 1.2330	53.2560
 1.2340	53.2770
 1.2350	53.3020
 1.2360	53.3210
 1.2370	53.3370
 1.2380	53.3520
 1.2390	53.3660
 1.2400	53.3820
 1.2410	53.4010
 1.2420	53.4180
 1.2430	53.4360
 1.2440	53.4520
 1.2450	53.4640
 1.2460	53.4770
 1.2470	53.4890
 1.2480	53.5010
 1.2490	53.5180
 1.2500	53.5370
 1.2510	53.5510
 1.2520	53.5610
 1.2530	53.5690
 1.2540	53.5750
 1.2550	53.5830
 1.2560	53.5930
 1.2570	53.6030
 1.2580	53.6120
 1.2590	53.6190
 1.2600	53.6220
 1.2610	53.6270
 1.2620	53.6310
 1.2630	53.6330
 1.2640	53.6360
 1.2650	53.6390
 1.2660	53.6390
 1.2670	53.6390
 1.2680	53.6380
 1.2690	53.6370
 1.2700	53.6340
 1.2710	53.6300
 1.2720	53.6250
 1.2730	53.6190
 1.2740	53.6140
 1.2750	53.6070
 1.2760	53.6000
 1.2770	53.5900
 1.2780	53.5770
 1.2790	53.5640
 1.2800	53.5500
 1.2810	53.5370
 1.2820	53.5260
 1.2830	53.5120
 1.2840	53.5000
 1.2850	53.4870
 1.2860	53.4700
 1.2870	53.4520
 1.2880	53.4340
 1.2890	53.4150
 1.2900	53.3940
 1.2910	53.3740
 1.2920	53.3540
 1.2930	53.3290
 1.2940	53.3020
 1.2950	53.2760
 1.2960	53.2510
 1.2970	53.2250
 1.2980	53.1960
 1.2990	53.1660
 1.3000	53.1330
 1.3010	53.0980
 1.3020	53.0640
 1.3030	53.0240
 1.3040	52.9770
 1.3050	52.9300
 1.3060	52.8830
 1.3070	52.8330
 1.3080	52.7800
 1.3090	52.7250
 1.3100	52.6640
 1.3110	52.5980
 1.3120	52.5290
 1.3130	52.4580
 1.3140	52.3830
 1.3150	52.3050
 1.3160	52.2250
 1.3170	52.1450
 1.3180	52.0570
 1.3190	51.9680
 1.3200	51.8760
 1.3210	51.7750
 1.3220	51.6730
 1.3230	51.5670
 1.3240	51.4570
 1.3250	51.3470
 1.3260	51.2320
 1.3270	51.1160
 1.3280	50.9940
 1.3290	50.8680
 1.3300	50.7440
 1.3310	50.6150
 1.3320	50.4830
 1.3330	50.3510
 1.3340	50.2160
 1.3350	50.0810
 1.3360	49.9430
 1.3370	49.8030
 1.3380	49.6620
 1.3390	49.5210
 1.3400	49.3810
 1.3410	49.2430
 1.3420	49.1070
 1.3430	48.9730
 1.3440	48.8380
 1.3450	48.7030
 1.3460	48.5670
 1.3470	48.4330
 1.3480	48.2970
 1.3490	48.1640
 1.3500	48.0330
 1.3510	47.9040
 1.3520	47.7750
 1.3530	47.6490
 1.3540	47.5220
 1.3550	47.3920
 1.3560	47.2620
 1.3570	47.1320
 1.3580	47.0010
 1.3590	46.8700
 1.3600	46.7370
 1.3610	46.6010
 1.3620	46.4600
 1.3630	46.3150
 1.3640	46.1630
 1.3650	46.0030
 1.3660	45.8380
 1.3670	45.6620
 1.3680	45.4770
 1.3690	45.2840
 1.3700	45.0740
 1.3710	44.8540
 1.3720	44.6210
 1.3730	44.3710
 1.3740	44.1090
 1.3750	43.8290
 1.3760	43.5270
 1.3770	43.2060
 1.3780	42.8590
 1.3790	42.4900
 1.3800	42.0980
 1.3810	41.6780
 1.3820	41.2380
 1.3830	40.7760
 1.3840	40.2910
 1.3850	39.7850
 1.3860	39.2590
 1.3870	38.7080
 1.3880	38.1490
 1.3890	37.5730
 1.3900	36.9810
 1.3910	36.3860
 1.3920	35.7800
 1.3930	35.1640
 1.3940	34.5460
 1.3950	33.9210
 1.3960	33.3010
 1.3970	32.6860
 1.3980	32.0780
 1.3990	31.4890
 1.4000	30.9070
 1.4010	30.3380
 1.4020	29.7910
 1.4030	29.2540
 1.4040	28.7390
 1.4050	28.2480
 1.4060	27.7760
 1.4070	27.3340
 1.4080	26.9160
 1.4090	26.5170
 1.4100	26.1470
 1.4110	25.7970
 1.4120	25.4710
 1.4130	25.1700
 1.4140	24.8880
 1.4150	24.6300
 1.4160	24.3920
 1.4170	24.1720
 1.4180	23.9730
 1.4190	23.7900
 1.4200	23.6230
 1.4210	23.4720
 1.4220	23.3360
 1.4230	23.2140
 1.4240	23.1060
 1.4250	23.0090
 1.4260	22.9250
 1.4270	22.8500
 1.4280	22.7860
 1.4290	22.7300
 1.4300	22.6830
 1.4310	22.6420
 1.4320	22.6100
 1.4330	22.5820
 1.4340	22.5620
 1.4350	22.5460
 1.4360	22.5370
 1.4370	22.5320
 1.4380	22.5320
 1.4390	22.5360
 1.4400	22.5440
 1.4410	22.5560
 1.4420	22.5690
 1.4430	22.5850
 1.4440	22.6040
 1.4450	22.6230
 1.4460	22.6460
 1.4470	22.6720
 1.4480	22.6990
 1.4490	22.7290
 1.4500	22.7600
 1.4510	22.7910
 1.4520	22.8220
 1.4530	22.8540
 1.4540	22.8870
 1.4550	22.9240
 1.4560	22.9620
 1.4570	23.0010
 1.4580	23.0450
 1.4590	23.0890
 1.4600	23.1400
 1.4610	23.1940
 1.4620	23.2520
 1.4630	23.3150
 1.4640	23.3820
 1.4650	23.4550
 1.4660	23.5350
 1.4670	23.6210
 1.4680	23.7130
 1.4690	23.8110
 1.4700	23.9140
