Name: Umbellularia californica 1
Type: vegetation
Class: Shrub
Genus: Umbellularia
Species: californica
Sample No.: VH236
Owner: UCSB
Wavelength Range: TIR
Origin: 34.5074; -119.7634; WGS84
Collection Date: 10/13/2013
Description: Samples were collected as part of the HyspIRI Airborne Campaign. 48 individual plants were sampled in three times in 2013 - spring  summer  and fall. The name of the sample includes a 1  2  or 3 which references a different individual of the species. Samples were taken to JPL and processed within 48 hours of collection. The same leaves were processed in the Nicolet and then measured using the ASD.
Measurement: Hemispherical reflectance
First Column: X
Second Column: Y
X Units: Wavelength (micrometers)
Y Units: Reflectance (percentage)
First X Value: 2.501
Last X Value: 15.387
Number of X Values: 1737
Additional Information: vegetation.shrub.umbellularia.californica.tir.vh236.ucsb.nicolet.ancillary.txt

 2.5010	 7.3880
 2.5030	 7.4430
 2.5040	 7.3170
 2.5050	 7.0130
 2.5060	 6.9910
 2.5070	 6.8580
 2.5090	 6.8100
 2.5100	 6.9140
 2.5110	 7.2050
 2.5120	 7.2560
 2.5140	 7.0650
 2.5150	 7.1300
 2.5160	 7.1190
 2.5170	 7.1260
 2.5180	 7.0120
 2.5200	 6.9670
 2.5210	 7.0660
 2.5220	 6.9400
 2.5230	 6.8450
 2.5250	 6.8590
 2.5260	 6.9230
 2.5270	 6.9340
 2.5280	 6.9980
 2.5290	 6.9150
 2.5310	 6.9970
 2.5320	 7.0840
 2.5330	 6.9940
 2.5340	 6.8740
 2.5360	 6.9490
 2.5370	 7.0030
 2.5380	 7.0300
 2.5390	 6.9050
 2.5410	 6.8170
 2.5420	 6.6370
 2.5430	 6.8170
 2.5440	 6.9630
 2.5460	 7.0470
 2.5470	 6.9180
 2.5480	 7.0650
 2.5490	 7.1930
 2.5510	 7.1710
 2.5520	 7.1550
 2.5530	 7.2110
 2.5540	 7.0990
 2.5560	 7.0470
 2.5570	 7.2030
 2.5580	 7.2710
 2.5590	 7.2700
 2.5610	 7.2800
 2.5620	 7.1310
 2.5630	 7.1670
 2.5640	 7.1770
 2.5660	 7.1830
 2.5670	 7.1750
 2.5680	 7.2050
 2.5700	 7.1050
 2.5710	 7.2120
 2.5720	 7.2200
 2.5730	 7.2310
 2.5750	 7.1540
 2.5760	 7.1730
 2.5770	 7.1650
 2.5790	 7.0230
 2.5800	 7.0380
 2.5810	 7.2470
 2.5820	 6.9100
 2.5840	 6.8060
 2.5850	 7.0110
 2.5860	 7.2150
 2.5880	 7.2620
 2.5890	 7.2380
 2.5900	 7.1470
 2.5910	 7.0160
 2.5930	 7.0660
 2.5940	 7.1930
 2.5950	 7.1990
 2.5970	 7.1560
 2.5980	 6.9390
 2.5990	 6.9370
 2.6000	 7.0300
 2.6020	 7.0460
 2.6030	 6.8870
 2.6040	 6.8440
 2.6060	 6.7720
 2.6070	 6.8800
 2.6080	 6.8860
 2.6100	 6.9110
 2.6110	 6.8640
 2.6120	 6.8790
 2.6140	 6.7250
 2.6150	 6.6870
 2.6160	 6.7490
 2.6180	 6.7110
 2.6190	 6.4720
 2.6200	 6.3570
 2.6220	 6.5050
 2.6230	 6.5680
 2.6240	 6.5840
 2.6260	 6.4830
 2.6270	 6.3090
 2.6280	 6.5770
 2.6300	 6.5170
 2.6310	 6.4180
 2.6320	 6.5170
 2.6340	 6.5540
 2.6350	 6.3920
 2.6360	 6.2270
 2.6380	 6.1380
 2.6390	 6.1380
 2.6400	 6.1930
 2.6420	 6.2410
 2.6430	 6.2590
 2.6440	 6.1890
 2.6460	 6.0110
 2.6470	 6.0130
 2.6480	 6.0520
 2.6500	 6.1050
 2.6510	 6.0370
 2.6520	 5.9080
 2.6540	 5.8080
 2.6550	 5.7900
 2.6560	 5.6070
 2.6580	 5.7030
 2.6590	 5.7200
 2.6610	 5.7640
 2.6620	 5.7290
 2.6630	 5.5690
 2.6650	 5.4740
 2.6660	 5.4990
 2.6670	 5.4850
 2.6690	 5.6780
 2.6700	 5.6440
 2.6720	 5.5210
 2.6730	 5.4640
 2.6740	 5.3750
 2.6760	 5.2880
 2.6770	 5.2990
 2.6780	 5.1900
 2.6800	 5.1810
 2.6810	 5.1470
 2.6830	 5.2470
 2.6840	 5.2730
 2.6850	 5.1320
 2.6870	 5.0730
 2.6880	 5.0040
 2.6900	 4.8910
 2.6910	 4.9720
 2.6920	 4.9340
 2.6940	 5.0390
 2.6950	 4.9100
 2.6970	 4.5270
 2.6980	 4.4160
 2.6990	 4.5070
 2.7010	 4.3170
 2.7020	 4.2440
 2.7040	 4.4430
 2.7050	 4.4400
 2.7060	 4.2500
 2.7080	 4.3490
 2.7090	 4.4710
 2.7110	 4.4140
 2.7120	 4.2770
 2.7130	 4.2690
 2.7150	 4.3180
 2.7160	 4.5310
 2.7180	 4.6590
 2.7190	 4.5380
 2.7210	 4.3770
 2.7220	 4.5970
 2.7230	 4.1570
 2.7250	 3.7330
 2.7260	 3.7300
 2.7280	 4.0120
 2.7290	 3.8740
 2.7310	 4.0010
 2.7320	 4.1360
 2.7330	 4.1100
 2.7350	 4.1670
 2.7360	 4.2190
 2.7380	 4.0960
 2.7390	 3.9170
 2.7410	 3.6930
 2.7420	 4.0100
 2.7440	 4.2220
 2.7450	 4.0040
 2.7470	 3.2810
 2.7480	 2.9810
 2.7490	 3.2870
 2.7510	 4.0610
 2.7520	 4.2800
 2.7540	 3.8200
 2.7550	 4.2600
 2.7570	 4.2160
 2.7580	 3.9210
 2.7600	 4.0020
 2.7610	 4.1940
 2.7630	 4.5230
 2.7640	 4.3610
 2.7660	 4.0490
 2.7670	 3.6930
 2.7680	 3.2660
 2.7700	 3.0280
 2.7710	 3.0440
 2.7730	 3.4150
 2.7740	 3.9470
 2.7760	 4.0340
 2.7770	 4.0150
 2.7790	 4.0320
 2.7800	 3.8300
 2.7820	 3.7680
 2.7830	 3.7020
 2.7850	 3.7540
 2.7860	 3.7950
 2.7880	 3.8170
 2.7890	 3.7760
 2.7910	 3.7250
 2.7920	 3.7190
 2.7940	 3.7750
 2.7950	 3.5410
 2.7970	 3.2890
 2.7980	 3.5850
 2.8000	 3.7920
 2.8010	 3.8680
 2.8030	 3.7720
 2.8040	 3.6780
 2.8060	 3.6100
 2.8070	 3.6400
 2.8090	 3.7120
 2.8110	 3.7050
 2.8120	 3.5300
 2.8140	 3.5670
 2.8150	 3.6100
 2.8170	 3.5920
 2.8180	 3.3730
 2.8200	 3.2790
 2.8210	 3.6090
 2.8230	 3.5030
 2.8240	 3.5630
 2.8260	 4.0840
 2.8270	 3.7250
 2.8290	 3.3590
 2.8300	 3.4530
 2.8320	 3.5310
 2.8340	 3.5650
 2.8350	 3.6470
 2.8370	 3.5490
 2.8380	 3.6350
 2.8400	 3.7030
 2.8410	 3.6660
 2.8430	 3.6860
 2.8440	 3.6600
 2.8460	 3.4740
 2.8480	 3.2420
 2.8490	 3.5310
 2.8510	 3.8430
 2.8520	 3.7050
 2.8540	 3.6540
 2.8550	 3.6010
 2.8570	 3.7310
 2.8590	 3.7150
 2.8600	 3.6200
 2.8620	 3.6050
 2.8630	 3.5500
 2.8650	 3.4670
 2.8660	 3.4990
 2.8680	 3.5020
 2.8700	 3.6540
 2.8710	 3.7790
 2.8730	 3.7300
 2.8740	 3.4940
 2.8760	 3.2990
 2.8780	 3.5820
 2.8790	 3.9180
 2.8810	 3.6570
 2.8820	 2.7590
 2.8840	 2.6770
 2.8860	 3.0420
 2.8870	 3.6420
 2.8890	 3.9520
 2.8900	 3.5980
 2.8920	 3.6490
 2.8940	 3.7530
 2.8950	 3.7910
 2.8970	 3.9710
 2.8980	 3.8180
 2.9000	 3.4240
 2.9020	 3.5540
 2.9030	 3.7590
 2.9050	 3.4600
 2.9070	 3.3780
 2.9080	 3.4620
 2.9100	 3.4880
 2.9120	 3.8310
 2.9130	 3.7810
 2.9150	 3.5620
 2.9160	 3.7560
 2.9180	 3.8670
 2.9200	 3.6290
 2.9210	 3.8040
 2.9230	 3.7840
 2.9250	 3.7320
 2.9260	 3.5880
 2.9280	 3.7490
 2.9300	 3.7160
 2.9310	 3.5460
 2.9330	 3.5720
 2.9350	 3.7020
 2.9360	 3.5750
 2.9380	 3.6750
 2.9400	 3.8080
 2.9410	 3.8650
 2.9430	 3.7200
 2.9450	 3.7520
 2.9460	 3.5330
 2.9480	 2.6160
 2.9500	 2.6380
 2.9510	 3.6890
 2.9530	 3.4630
 2.9550	 3.3670
 2.9560	 3.6820
 2.9580	 3.9350
 2.9600	 3.6570
 2.9610	 2.7530
 2.9630	 3.4410
 2.9650	 5.1080
 2.9660	 5.0270
 2.9680	 3.9720
 2.9700	 3.0870
 2.9720	 3.1830
 2.9730	 4.1890
 2.9750	 1.3480
 2.9770	 -0.308
 2.9780	 1.0580
 2.9800	 3.4410
 2.9820	 4.9470
 2.9840	 4.6840
 2.9850	 4.1390
 2.9870	 4.4210
 2.9890	 4.3290
 2.9900	 5.2360
 2.9920	 5.8860
 2.9940	 7.7390
 2.9960	 9.8240
 2.9970	 6.5460
 2.9990	 3.4860
 3.0010	 4.6230
 3.0030	 5.3180
 3.0040	 4.7940
 3.0060	 3.4030
 3.0080	 3.4400
 3.0100	 3.7030
 3.0110	 2.6650
 3.0130	 1.7900
 3.0150	 2.1430
 3.0170	 3.9690
 3.0180	 4.6110
 3.0200	 4.0260
 3.0220	 3.5300
 3.0240	 3.8030
 3.0250	 3.6880
 3.0270	 3.8080
 3.0290	 4.0630
 3.0310	 3.3200
 3.0320	 3.2210
 3.0340	 3.7850
 3.0360	 5.0750
 3.0380	 5.5660
 3.0400	 3.9580
 3.0410	 3.5410
 3.0430	 5.4790
 3.0450	 4.3750
 3.0470	 1.2020
 3.0480	 1.8990
 3.0500	 4.5800
 3.0520	 6.1320
 3.0540	 5.5840
 3.0560	 5.0760
 3.0570	 6.2860
 3.0590	 5.6840
 3.0610	 4.1300
 3.0630	 4.0130
 3.0650	 3.7520
 3.0660	 2.9850
 3.0680	 2.2030
 3.0700	 2.7440
 3.0720	 4.8980
 3.0740	 6.2660
 3.0760	 4.3950
 3.0770	 3.9340
 3.0790	 4.3570
 3.0810	 4.3100
 3.0830	 3.9220
 3.0850	 3.8570
 3.0870	 3.8540
 3.0880	 4.1630
 3.0900	 4.2930
 3.0920	 4.5270
 3.0940	 4.4780
 3.0960	 4.2270
 3.0980	 4.0160
 3.0990	 3.8320
 3.1010	 3.2770
 3.1030	 3.4860
 3.1050	 3.6540
 3.1070	 3.3690
 3.1090	 3.3550
 3.1110	 3.6280
 3.1120	 3.5880
 3.1140	 3.9090
 3.1160	 3.7530
 3.1180	 3.6160
 3.1200	 3.7840
 3.1220	 3.8290
 3.1240	 3.5960
 3.1260	 3.4790
 3.1270	 3.9070
 3.1290	 4.6900
 3.1310	 4.5500
 3.1330	 3.9070
 3.1350	 3.9600
 3.1370	 4.6020
 3.1390	 4.9930
 3.1410	 4.6310
 3.1430	 3.7900
 3.1450	 4.0860
 3.1460	 3.8800
 3.1480	 4.2510
 3.1500	 4.3200
 3.1520	 3.8330
 3.1540	 4.4070
 3.1560	 4.8390
 3.1580	 4.9530
 3.1600	 4.3330
 3.1620	 5.5260
 3.1640	 6.7790
 3.1660	 5.8170
 3.1680	 6.7540
 3.1700	 7.9550
 3.1710	 6.7690
 3.1730	 3.8530
 3.1750	 5.3100
 3.1770	 5.3700
 3.1790	 3.9410
 3.1810	 4.1600
 3.1830	 4.9300
 3.1850	 4.7100
 3.1870	 4.1080
 3.1890	 4.4770
 3.1910	 4.5340
 3.1930	 4.4030
 3.1950	 4.3070
 3.1970	 4.2690
 3.1990	 4.2600
 3.2010	 4.2040
 3.2030	 4.0610
 3.2050	 3.7740
 3.2070	 3.7890
 3.2090	 4.0930
 3.2110	 3.8790
 3.2130	 3.6820
 3.2150	 3.6930
 3.2170	 4.0450
 3.2190	 4.3840
 3.2210	 4.1710
 3.2230	 3.8330
 3.2250	 3.8750
 3.2270	 4.1020
 3.2290	 4.1450
 3.2310	 3.9710
 3.2330	 3.6790
 3.2350	 3.8920
 3.2370	 4.1140
 3.2390	 4.0380
 3.2410	 4.0270
 3.2430	 4.3160
 3.2450	 4.2950
 3.2470	 3.8790
 3.2490	 3.8790
 3.2510	 4.2180
 3.2530	 3.9250
 3.2550	 3.7740
 3.2570	 4.1240
 3.2590	 4.1860
 3.2610	 3.9070
 3.2630	 3.8910
 3.2650	 3.8400
 3.2670	 3.8850
 3.2690	 3.8480
 3.2720	 4.1770
 3.2740	 4.3400
 3.2760	 4.1460
 3.2780	 3.8240
 3.2800	 3.7110
 3.2820	 3.8250
 3.2840	 3.8510
 3.2860	 3.8890
 3.2880	 3.9350
 3.2900	 3.8540
 3.2920	 4.1050
 3.2940	 4.0870
 3.2960	 4.0670
 3.2990	 3.7310
 3.3010	 3.4030
 3.3030	 3.6720
 3.3050	 3.7290
 3.3070	 3.6660
 3.3090	 3.4300
 3.3110	 3.6200
 3.3130	 4.0920
 3.3150	 4.2840
 3.3180	 4.4770
 3.3200	 4.6000
 3.3220	 4.5890
 3.3240	 4.3420
 3.3260	 4.1890
 3.3280	 4.2650
 3.3300	 4.3820
 3.3330	 4.2720
 3.3350	 4.1310
 3.3370	 3.8810
 3.3390	 3.7450
 3.3410	 3.6950
 3.3430	 3.6110
 3.3450	 3.5590
 3.3480	 3.6300
 3.3500	 3.8590
 3.3520	 3.9650
 3.3540	 3.8890
 3.3560	 3.8780
 3.3580	 3.6890
 3.3610	 3.6960
 3.3630	 3.7190
 3.3650	 3.8530
 3.3670	 3.8610
 3.3690	 3.8440
 3.3720	 3.7110
 3.3740	 3.7860
 3.3760	 3.8260
 3.3780	 3.8190
 3.3800	 3.7990
 3.3830	 3.8710
 3.3850	 3.8120
 3.3870	 3.6710
 3.3890	 3.6400
 3.3910	 3.5460
 3.3940	 3.3500
 3.3960	 3.4440
 3.3980	 3.5240
 3.4000	 3.7350
 3.4020	 3.9290
 3.4050	 4.0480
 3.4070	 4.0440
 3.4090	 4.1530
 3.4110	 4.3080
 3.4140	 4.4790
 3.4160	 4.6690
 3.4180	 4.9650
 3.4200	 5.4460
 3.4230	 6.1590
 3.4250	 7.0930
 3.4270	 8.2120
 3.4290	 8.9300
 3.4320	 8.6270
 3.4340	 7.6300
 3.4360	 6.6690
 3.4390	 6.1050
 3.4410	 6.0620
 3.4430	 5.7210
 3.4450	 5.4250
 3.4480	 5.6670
 3.4500	 5.6360
 3.4520	 5.4420
 3.4550	 5.6200
 3.4570	 5.5100
 3.4590	 5.3420
 3.4620	 5.1230
 3.4640	 5.0290
 3.4660	 4.9940
 3.4680	 4.9980
 3.4710	 4.8800
 3.4730	 4.7730
 3.4750	 4.6680
 3.4780	 4.6260
 3.4800	 4.5130
 3.4820	 4.5300
 3.4850	 4.5500
 3.4870	 4.5990
 3.4890	 4.5000
 3.4920	 4.3480
 3.4940	 4.2930
 3.4970	 4.4080
 3.4990	 4.5220
 3.5010	 4.5510
 3.5040	 4.7970
 3.5060	 5.4350
 3.5080	 6.4570
 3.5110	 7.4590
 3.5130	 7.3890
 3.5160	 6.8780
 3.5180	 6.3140
 3.5200	 5.8760
 3.5230	 5.5960
 3.5250	 5.4190
 3.5270	 5.1940
 3.5300	 5.0830
 3.5320	 5.1490
 3.5350	 5.0880
 3.5370	 4.8730
 3.5400	 4.8570
 3.5420	 4.7340
 3.5440	 4.6840
 3.5470	 4.6680
 3.5490	 4.7830
 3.5520	 4.6280
 3.5540	 4.5660
 3.5570	 4.6100
 3.5590	 4.6980
 3.5610	 4.7150
 3.5640	 4.7120
 3.5660	 4.6310
 3.5690	 4.5400
 3.5710	 4.5640
 3.5740	 4.5830
 3.5760	 4.5220
 3.5790	 4.6770
 3.5810	 4.7140
 3.5840	 4.6040
 3.5860	 4.5540
 3.5890	 4.6080
 3.5910	 4.7670
 3.5930	 5.0980
 3.5960	 4.9280
 3.5980	 4.5070
 3.6010	 4.4580
 3.6030	 4.3050
 3.6060	 4.3440
 3.6080	 4.6190
 3.6110	 4.6110
 3.6140	 4.5750
 3.6160	 4.6560
 3.6190	 4.4230
 3.6210	 4.2610
 3.6240	 4.4380
 3.6260	 4.4490
 3.6290	 4.4750
 3.6310	 4.5470
 3.6340	 4.5260
 3.6360	 4.4520
 3.6390	 4.6330
 3.6410	 4.6100
 3.6440	 4.5080
 3.6470	 4.4660
 3.6490	 4.5050
 3.6520	 4.5400
 3.6540	 4.5550
 3.6570	 4.4430
 3.6590	 4.4390
 3.6620	 4.4260
 3.6650	 4.5270
 3.6670	 4.6300
 3.6700	 4.5590
 3.6720	 4.4040
 3.6750	 4.3290
 3.6780	 4.3930
 3.6800	 4.4280
 3.6830	 4.5060
 3.6850	 4.5630
 3.6880	 4.4720
 3.6910	 4.4950
 3.6930	 4.3520
 3.6960	 4.3210
 3.6990	 4.3980
 3.7010	 4.4480
 3.7040	 4.5580
 3.7060	 4.5830
 3.7090	 4.5210
 3.7120	 4.5430
 3.7140	 4.6090
 3.7170	 4.4640
 3.7200	 4.2550
 3.7220	 4.3690
 3.7250	 4.4760
 3.7280	 4.4170
 3.7300	 4.4220
 3.7330	 4.4460
 3.7360	 4.4890
 3.7390	 4.4850
 3.7410	 4.4530
 3.7440	 4.6080
 3.7470	 4.4390
 3.7490	 4.3790
 3.7520	 4.4900
 3.7550	 4.4330
 3.7580	 4.3880
 3.7600	 4.4520
 3.7630	 4.4250
 3.7660	 4.2410
 3.7680	 4.1570
 3.7710	 4.2790
 3.7740	 4.4030
 3.7770	 4.4070
 3.7790	 4.4370
 3.7820	 4.6140
 3.7850	 4.6120
 3.7880	 4.6260
 3.7900	 4.6290
 3.7930	 4.5660
 3.7960	 4.5060
 3.7990	 4.4690
 3.8020	 4.4660
 3.8040	 4.5130
 3.8070	 4.5300
 3.8100	 4.5600
 3.8130	 4.4380
 3.8160	 4.4490
 3.8180	 4.5960
 3.8210	 4.5430
 3.8240	 4.4870
 3.8270	 4.5520
 3.8300	 4.6230
 3.8330	 4.6750
 3.8350	 4.6620
 3.8380	 4.5680
 3.8410	 4.5380
 3.8440	 4.6480
 3.8470	 4.7210
 3.8500	 4.7370
 3.8520	 4.7000
 3.8550	 4.5520
 3.8580	 4.4770
 3.8610	 4.6040
 3.8640	 4.6370
 3.8670	 4.5360
 3.8700	 4.6200
 3.8730	 4.6450
 3.8750	 4.5040
 3.8780	 4.4830
 3.8810	 4.4630
 3.8840	 4.3820
 3.8870	 4.4360
 3.8900	 4.6100
 3.8930	 4.5570
 3.8960	 4.4090
 3.8990	 4.3790
 3.9020	 4.3470
 3.9050	 4.4970
 3.9080	 4.5460
 3.9110	 4.4600
 3.9140	 4.5420
 3.9160	 4.6070
 3.9190	 4.5880
 3.9220	 4.5290
 3.9250	 4.4660
 3.9280	 4.4570
 3.9310	 4.4630
 3.9340	 4.4680
 3.9370	 4.5840
 3.9400	 4.6060
 3.9430	 4.5850
 3.9460	 4.4980
 3.9490	 4.4510
 3.9520	 4.4930
 3.9550	 4.5680
 3.9580	 4.5240
 3.9610	 4.4930
 3.9640	 4.5870
 3.9670	 4.6440
 3.9700	 4.6600
 3.9730	 4.6370
 3.9770	 4.5010
 3.9800	 4.5160
 3.9830	 4.5240
 3.9860	 4.4520
 3.9890	 4.4340
 3.9920	 4.5210
 3.9950	 4.5030
 3.9980	 4.4730
 4.0010	 4.5020
 4.0040	 4.4870
 4.0070	 4.4470
 4.0100	 4.4350
 4.0130	 4.3930
 4.0170	 4.4440
 4.0200	 4.4730
 4.0230	 4.4480
 4.0260	 4.4370
 4.0290	 4.4160
 4.0320	 4.4040
 4.0350	 4.4720
 4.0380	 4.5270
 4.0420	 4.5320
 4.0450	 4.4970
 4.0480	 4.5510
 4.0510	 4.6130
 4.0540	 4.6210
 4.0570	 4.6200
 4.0610	 4.5600
 4.0640	 4.5120
 4.0670	 4.4860
 4.0700	 4.5270
 4.0730	 4.4580
 4.0770	 4.4330
 4.0800	 4.5430
 4.0830	 4.4740
 4.0860	 4.3910
 4.0890	 4.4630
 4.0930	 4.5990
 4.0960	 4.6240
 4.0990	 4.5430
 4.1020	 4.4570
 4.1060	 4.3490
 4.1090	 4.1900
 4.1120	 4.0870
 4.1150	 4.2600
 4.1190	 4.5570
 4.1220	 4.5540
 4.1250	 4.4790
 4.1280	 4.5330
 4.1320	 4.4690
 4.1350	 4.4330
 4.1380	 4.5200
 4.1420	 4.5210
 4.1450	 4.4490
 4.1480	 4.4170
 4.1520	 4.4520
 4.1550	 4.4390
 4.1580	 4.3990
 4.1620	 4.3920
 4.1650	 4.4100
 4.1680	 4.4160
 4.1720	 4.4010
 4.1750	 4.4130
 4.1780	 4.3810
 4.1820	 4.3300
 4.1850	 4.3580
 4.1890	 4.3940
 4.1920	 4.4090
 4.1950	 4.4310
 4.1990	 4.3810
 4.2020	 4.3440
 4.2060	 4.2880
 4.2090	 4.2780
 4.2120	 4.3470
 4.2160	 4.5630
 4.2190	 4.7110
 4.2230	 4.4090
 4.2260	 4.4340
 4.2300	 4.2900
 4.2330	 4.3940
 4.2360	 4.3920
 4.2400	 4.1140
 4.2430	 4.1910
 4.2470	 4.1620
 4.2500	 4.0080
 4.2540	 3.9560
 4.2570	 4.0130
 4.2610	 3.9380
 4.2640	 3.9930
 4.2680	 4.1630
 4.2710	 4.2430
 4.2750	 4.3500
 4.2780	 4.3240
 4.2820	 4.3480
 4.2850	 4.3060
 4.2890	 4.4070
 4.2930	 4.5590
 4.2960	 4.6590
 4.3000	 4.5570
 4.3030	 4.6040
 4.3070	 4.5610
 4.3100	 4.4320
 4.3140	 4.3880
 4.3180	 4.4020
 4.3210	 4.3100
 4.3250	 4.0990
 4.3280	 4.1350
 4.3320	 4.1830
 4.3360	 4.1970
 4.3390	 4.2250
 4.3430	 4.1440
 4.3470	 4.0990
 4.3500	 4.1110
 4.3540	 4.0690
 4.3570	 4.1530
 4.3610	 4.2150
 4.3650	 4.1190
 4.3680	 4.1310
 4.3720	 4.1930
 4.3760	 4.2070
 4.3800	 4.2230
 4.3830	 4.2600
 4.3870	 4.3350
 4.3910	 4.2600
 4.3940	 4.1440
 4.3980	 4.1500
 4.4020	 4.1480
 4.4060	 4.1970
 4.4090	 4.2780
 4.4130	 4.2840
 4.4170	 4.3130
 4.4210	 4.3420
 4.4240	 4.3390
 4.4280	 4.2240
 4.4320	 4.0630
 4.4360	 4.0510
 4.4400	 4.1960
 4.4430	 4.1990
 4.4470	 4.2020
 4.4510	 4.2960
 4.4550	 4.2850
 4.4590	 4.2180
 4.4620	 4.1440
 4.4660	 4.0400
 4.4700	 4.1270
 4.4740	 4.2230
 4.4780	 4.1650
 4.4820	 4.1230
 4.4860	 4.1460
 4.4900	 4.2640
 4.4930	 4.2730
 4.4970	 4.1220
 4.5010	 4.0210
 4.5050	 3.9730
 4.5090	 4.0350
 4.5130	 4.0720
 4.5170	 4.1530
 4.5210	 4.2600
 4.5250	 4.2440
 4.5290	 4.1130
 4.5330	 4.0870
 4.5370	 4.0890
 4.5410	 4.1230
 4.5450	 4.1730
 4.5490	 4.1790
 4.5530	 4.1000
 4.5570	 4.0920
 4.5610	 4.1380
 4.5650	 4.1100
 4.5690	 4.0120
 4.5730	 3.9880
 4.5770	 4.0160
 4.5810	 4.0720
 4.5850	 4.0630
 4.5890	 4.1190
 4.5930	 4.1180
 4.5970	 3.9400
 4.6010	 3.9240
 4.6050	 4.0320
 4.6090	 3.9980
 4.6130	 3.9900
 4.6170	 4.0390
 4.6220	 3.9180
 4.6260	 3.8710
 4.6300	 4.0890
 4.6340	 4.2140
 4.6380	 4.0790
 4.6420	 4.0370
 4.6460	 4.0460
 4.6510	 4.0730
 4.6550	 4.0600
 4.6590	 4.0160
 4.6630	 3.9810
 4.6670	 4.0670
 4.6720	 4.0850
 4.6760	 4.0330
 4.6800	 4.0140
 4.6840	 4.0820
 4.6880	 4.1090
 4.6930	 4.0230
 4.6970	 3.9920
 4.7010	 3.9580
 4.7050	 3.9720
 4.7100	 4.0040
 4.7140	 3.9840
 4.7180	 4.0360
 4.7230	 4.0790
 4.7270	 3.9500
 4.7310	 3.9210
 4.7360	 4.0010
 4.7400	 4.0470
 4.7440	 4.0080
 4.7490	 3.9650
 4.7530	 3.9840
 4.7570	 3.9520
 4.7620	 3.9350
 4.7660	 3.9990
 4.7700	 3.9820
 4.7750	 3.9950
 4.7790	 3.9460
 4.7840	 3.9970
 4.7880	 4.2620
 4.7920	 4.3150
 4.7970	 4.2020
 4.8010	 4.1090
 4.8060	 3.9090
 4.8100	 3.9570
 4.8150	 3.9090
 4.8190	 3.8810
 4.8240	 3.9110
 4.8280	 3.9740
 4.8330	 3.8810
 4.8370	 3.7870
 4.8420	 3.8190
 4.8460	 3.9290
 4.8510	 3.8690
 4.8550	 3.8850
 4.8600	 3.9000
 4.8640	 3.9160
 4.8690	 3.9780
 4.8730	 4.0330
 4.8780	 3.9640
 4.8830	 3.9240
 4.8870	 3.9060
 4.8920	 3.8590
 4.8960	 3.7970
 4.9010	 3.8440
 4.9060	 3.9390
 4.9100	 4.0410
 4.9150	 4.0440
 4.9200	 4.0610
 4.9240	 4.0420
 4.9290	 4.0070
 4.9340	 3.9190
 4.9380	 3.8730
 4.9430	 3.9230
 4.9480	 3.9110
 4.9530	 3.9610
 4.9570	 4.0280
 4.9620	 3.9780
 4.9670	 4.0130
 4.9720	 3.9740
 4.9760	 3.9460
 4.9810	 3.9150
 4.9860	 3.8980
 4.9910	 3.8450
 4.9960	 3.8950
 5.0000	 3.9830
 5.0050	 3.9660
 5.0100	 4.0090
 5.0150	 4.0250
 5.0200	 3.9030
 5.0250	 3.8350
 5.0290	 3.8520
 5.0340	 3.9320
 5.0390	 4.0080
 5.0440	 4.0420
 5.0490	 3.9140
 5.0540	 3.9830
 5.0590	 4.0270
 5.0640	 3.9950
 5.0690	 3.9830
 5.0740	 3.9490
 5.0790	 3.9080
 5.0840	 3.9030
 5.0890	 3.8690
 5.0940	 3.9560
 5.0990	 3.9630
 5.1040	 3.9300
 5.1090	 3.9260
 5.1140	 3.9700
 5.1190	 3.9200
 5.1240	 3.9510
 5.1290	 3.9880
 5.1340	 3.9720
 5.1390	 3.9140
 5.1440	 3.9740
 5.1490	 3.8880
 5.1540	 3.8170
 5.1600	 3.8660
 5.1650	 3.8960
 5.1700	 3.9320
 5.1750	 4.0040
 5.1800	 3.9420
 5.1850	 3.8840
 5.1910	 3.9070
 5.1960	 3.9440
 5.2010	 3.8640
 5.2060	 3.8670
 5.2110	 3.8560
 5.2170	 3.8490
 5.2220	 3.8530
 5.2270	 3.9200
 5.2320	 3.8820
 5.2380	 3.9050
 5.2430	 3.9360
 5.2480	 3.9150
 5.2540	 3.8280
 5.2590	 3.8230
 5.2640	 3.8120
 5.2700	 3.8700
 5.2750	 3.8120
 5.2800	 3.8790
 5.2860	 3.9450
 5.2910	 3.9180
 5.2970	 3.8520
 5.3020	 3.8880
 5.3070	 3.8790
 5.3130	 3.8880
 5.3180	 3.8650
 5.3240	 3.7730
 5.3290	 3.6860
 5.3350	 3.7780
 5.3400	 3.8710
 5.3460	 3.9440
 5.3510	 3.9290
 5.3570	 3.9430
 5.3620	 3.8330
 5.3680	 3.7570
 5.3730	 3.6860
 5.3790	 3.7570
 5.3850	 3.8480
 5.3900	 3.7890
 5.3960	 3.6750
 5.4010	 3.7670
 5.4070	 3.7860
 5.4130	 3.7490
 5.4180	 3.6400
 5.4240	 3.6440
 5.4300	 3.6690
