Name: Quercus suber
Type: vegetation
Class: Tree
Genus: Quercus
Species: suber
Sample No.: JPL175
Owner: JPL
Wavelength Range: VSWIR
Origin: 34.12913; -118.11246; WGS84
Collection Date: 10/3/2016
Description: Samples were collected at the Huntington Garden in San Marino California as part of a JPL Subcontract studying HyTES imagery. Samples were taken to JPL and processed within 48 hours of collection. The same leaves were processed in the Nicolet and then measured using the ASD.
Measurement: Bidirectional reflectance
First Column: X
Second Column: Y
X Units: Wavelength (micrometer)
Y Units: Reflectance (percentage)
First X Value: 0.35
Last X Value: 2.5
Number of X Values: 2151
Additional Information: vegetation.tree.quercus.suber.vswir.jpl175.jpl.asd.ancillary.txt

 0.3500	 7.4180
 0.3510	 7.3510
 0.3520	 7.2990
 0.3530	 7.2860
 0.3540	 7.2950
 0.3550	 7.2330
 0.3560	 7.1930
 0.3570	 7.2130
 0.3580	 7.2740
 0.3590	 7.1460
 0.3600	 7.1000
 0.3610	 7.2140
 0.3620	 7.2300
 0.3630	 7.1770
 0.3640	 7.1500
 0.3650	 7.2010
 0.3660	 7.1570
 0.3670	 7.1330
 0.3680	 7.1230
 0.3690	 7.0530
 0.3700	 7.0700
 0.3710	 7.0970
 0.3720	 7.0840
 0.3730	 7.0910
 0.3740	 7.0490
 0.3750	 7.0180
 0.3760	 7.0630
 0.3770	 7.1060
 0.3780	 7.0890
 0.3790	 7.0440
 0.3800	 7.0750
 0.3810	 7.1040
 0.3820	 7.0720
 0.3830	 6.9930
 0.3840	 7.0190
 0.3850	 7.0610
 0.3860	 7.0820
 0.3870	 7.0700
 0.3880	 7.0010
 0.3890	 6.9880
 0.3900	 7.0380
 0.3910	 7.0460
 0.3920	 7.0450
 0.3930	 7.0380
 0.3940	 7.0250
 0.3950	 7.0100
 0.3960	 7.0280
 0.3970	 7.0700
 0.3980	 7.0970
 0.3990	 7.0750
 0.4000	 7.0630
 0.4010	 7.0780
 0.4020	 7.0690
 0.4030	 7.0920
 0.4040	 7.1180
 0.4050	 7.1170
 0.4060	 7.1420
 0.4070	 7.1530
 0.4080	 7.1600
 0.4090	 7.1990
 0.4100	 7.2180
 0.4110	 7.2310
 0.4120	 7.2480
 0.4130	 7.2660
 0.4140	 7.2860
 0.4150	 7.3040
 0.4160	 7.3210
 0.4170	 7.3540
 0.4180	 7.3770
 0.4190	 7.3840
 0.4200	 7.3930
 0.4210	 7.4220
 0.4220	 7.4490
 0.4230	 7.4600
 0.4240	 7.4890
 0.4250	 7.5040
 0.4260	 7.5070
 0.4270	 7.5190
 0.4280	 7.5360
 0.4290	 7.5480
 0.4300	 7.5500
 0.4310	 7.5450
 0.4320	 7.5510
 0.4330	 7.5620
 0.4340	 7.5660
 0.4350	 7.5610
 0.4360	 7.5690
 0.4370	 7.5890
 0.4380	 7.5990
 0.4390	 7.6240
 0.4400	 7.6490
 0.4410	 7.6630
 0.4420	 7.6830
 0.4430	 7.6920
 0.4440	 7.6950
 0.4450	 7.7050
 0.4460	 7.7170
 0.4470	 7.7300
 0.4480	 7.7410
 0.4490	 7.7530
 0.4500	 7.7600
 0.4510	 7.7670
 0.4520	 7.7750
 0.4530	 7.7950
 0.4540	 7.8030
 0.4550	 7.8010
 0.4560	 7.8080
 0.4570	 7.8150
 0.4580	 7.8220
 0.4590	 7.8280
 0.4600	 7.8360
 0.4610	 7.8440
 0.4620	 7.8490
 0.4630	 7.8490
 0.4640	 7.8500
 0.4650	 7.8550
 0.4660	 7.8620
 0.4670	 7.8670
 0.4680	 7.8690
 0.4690	 7.8710
 0.4700	 7.8760
 0.4710	 7.8850
 0.4720	 7.8890
 0.4730	 7.8900
 0.4740	 7.8940
 0.4750	 7.8950
 0.4760	 7.8990
 0.4770	 7.9070
 0.4780	 7.9110
 0.4790	 7.9080
 0.4800	 7.9080
 0.4810	 7.9170
 0.4820	 7.9200
 0.4830	 7.9160
 0.4840	 7.9110
 0.4850	 7.9150
 0.4860	 7.9140
 0.4870	 7.9160
 0.4880	 7.9250
 0.4890	 7.9370
 0.4900	 7.9470
 0.4910	 7.9570
 0.4920	 7.9720
 0.4930	 7.9820
 0.4940	 7.9960
 0.4950	 8.0160
 0.4960	 8.0330
 0.4970	 8.0520
 0.4980	 8.0720
 0.4990	 8.0900
 0.5000	 8.1170
 0.5010	 8.1470
 0.5020	 8.1780
 0.5030	 8.2030
 0.5040	 8.2330
 0.5050	 8.2700
 0.5060	 8.3120
 0.5070	 8.3560
 0.5080	 8.4040
 0.5090	 8.4590
 0.5100	 8.5220
 0.5110	 8.5890
 0.5120	 8.6630
 0.5130	 8.7460
 0.5140	 8.8330
 0.5150	 8.9300
 0.5160	 9.0390
 0.5170	 9.1570
 0.5180	 9.2790
 0.5190	 9.4080
 0.5200	 9.5470
 0.5210	 9.6960
 0.5220	 9.8490
 0.5230	10.0040
 0.5240	10.1600
 0.5250	10.3150
 0.5260	10.4620
 0.5270	10.6040
 0.5280	10.7470
 0.5290	10.8820
 0.5300	11.0080
 0.5310	11.1250
 0.5320	11.2310
 0.5330	11.3300
 0.5340	11.4210
 0.5350	11.5010
 0.5360	11.5690
 0.5370	11.6280
 0.5380	11.6780
 0.5390	11.7200
 0.5400	11.7460
 0.5410	11.7630
 0.5420	11.7780
 0.5430	11.7940
 0.5440	11.8200
 0.5450	11.8560
 0.5460	11.8990
 0.5470	11.9450
 0.5480	11.9900
 0.5490	12.0270
 0.5500	12.0520
 0.5510	12.0710
 0.5520	12.0850
 0.5530	12.0910
 0.5540	12.0850
 0.5550	12.0660
 0.5560	12.0350
 0.5570	11.9920
 0.5580	11.9370
 0.5590	11.8720
 0.5600	11.7980
 0.5610	11.7190
 0.5620	11.6300
 0.5630	11.5330
 0.5640	11.4330
 0.5650	11.3340
 0.5660	11.2360
 0.5670	11.1400
 0.5680	11.0440
 0.5690	10.9450
 0.5700	10.8440
 0.5710	10.7420
 0.5720	10.6450
 0.5730	10.5520
 0.5740	10.4640
 0.5750	10.3800
 0.5760	10.3050
 0.5770	10.2340
 0.5780	10.1680
 0.5790	10.1070
 0.5800	10.0520
 0.5810	10.0010
 0.5820	 9.9520
 0.5830	 9.9070
 0.5840	 9.8650
 0.5850	 9.8270
 0.5860	 9.7950
 0.5870	 9.7610
 0.5880	 9.7300
 0.5890	 9.7090
 0.5900	 9.6830
 0.5910	 9.6570
 0.5920	 9.6320
 0.5930	 9.6090
 0.5940	 9.5950
 0.5950	 9.5910
 0.5960	 9.5950
 0.5970	 9.6010
 0.5980	 9.6000
 0.5990	 9.5930
 0.6000	 9.5830
 0.6010	 9.5720
 0.6020	 9.5590
 0.6030	 9.5430
 0.6040	 9.5170
 0.6050	 9.4890
 0.6060	 9.4560
 0.6070	 9.4190
 0.6080	 9.3770
 0.6090	 9.3250
 0.6100	 9.2600
 0.6110	 9.1860
 0.6120	 9.1460
 0.6130	 9.1270
 0.6140	 9.1160
 0.6150	 9.0910
 0.6160	 9.0670
 0.6170	 9.0430
 0.6180	 9.0180
 0.6190	 8.9960
 0.6200	 8.9730
 0.6210	 8.9520
 0.6220	 8.9390
 0.6230	 8.9280
 0.6240	 8.9200
 0.6250	 8.9140
 0.6260	 8.9070
 0.6270	 8.9020
 0.6280	 8.9000
 0.6290	 8.8990
 0.6300	 8.8950
 0.6310	 8.8900
 0.6320	 8.8870
 0.6330	 8.8900
 0.6340	 8.8870
 0.6350	 8.8790
 0.6360	 8.8670
 0.6370	 8.8510
 0.6380	 8.8320
 0.6390	 8.8110
 0.6400	 8.7900
 0.6410	 8.7660
 0.6420	 8.7420
 0.6430	 8.7170
 0.6440	 8.6920
 0.6450	 8.6680
 0.6460	 8.6450
 0.6470	 8.6230
 0.6480	 8.6070
 0.6490	 8.5920
 0.6500	 8.5770
 0.6510	 8.5680
 0.6520	 8.5630
 0.6530	 8.5580
 0.6540	 8.5500
 0.6550	 8.5410
 0.6560	 8.5320
 0.6570	 8.5230
 0.6580	 8.5130
 0.6590	 8.5030
 0.6600	 8.4930
 0.6610	 8.4830
 0.6620	 8.4740
 0.6630	 8.4650
 0.6640	 8.4590
 0.6650	 8.4580
 0.6660	 8.4590
 0.6670	 8.4610
 0.6680	 8.4660
 0.6690	 8.4770
 0.6700	 8.4860
 0.6710	 8.4990
 0.6720	 8.5180
 0.6730	 8.5380
 0.6740	 8.5590
 0.6750	 8.5830
 0.6760	 8.6110
 0.6770	 8.6410
 0.6780	 8.6740
 0.6790	 8.7090
 0.6800	 8.7470
 0.6810	 8.7870
 0.6820	 8.8280
 0.6830	 8.8710
 0.6840	 8.9200
 0.6850	 8.9700
 0.6860	 9.0190
 0.6870	 9.0700
 0.6880	 9.1330
 0.6890	 9.2070
 0.6900	 9.2960
 0.6910	 9.4110
 0.6920	 9.5590
 0.6930	 9.7470
 0.6940	 9.9810
 0.6950	10.2710
 0.6960	10.6190
 0.6970	11.0270
 0.6980	11.4940
 0.6990	12.0210
 0.7000	12.6060
 0.7010	13.2430
 0.7020	13.9230
 0.7030	14.6420
 0.7040	15.3930
 0.7050	16.1680
 0.7060	16.9650
 0.7070	17.7830
 0.7080	18.6190
 0.7090	19.4730
 0.7100	20.3410
 0.7110	21.2280
 0.7120	22.1330
 0.7130	23.0500
 0.7140	23.9810
 0.7150	24.9250
 0.7160	25.8790
 0.7170	26.8420
 0.7180	27.8110
 0.7190	28.7840
 0.7200	29.7580
 0.7210	30.7320
 0.7220	31.7020
 0.7230	32.6630
 0.7240	33.6140
 0.7250	34.5480
 0.7260	35.4630
 0.7270	36.3590
 0.7280	37.2320
 0.7290	38.0780
 0.7300	38.8950
 0.7310	39.6820
 0.7320	40.4430
 0.7330	41.1720
 0.7340	41.8660
 0.7350	42.5280
 0.7360	43.1600
 0.7370	43.7590
 0.7380	44.3240
 0.7390	44.8570
 0.7400	45.3560
 0.7410	45.8240
 0.7420	46.2630
 0.7430	46.6750
 0.7440	47.0570
 0.7450	47.4090
 0.7460	47.7360
 0.7470	48.0360
 0.7480	48.3110
 0.7490	48.5630
 0.7500	48.7900
 0.7510	48.9990
 0.7520	49.1900
 0.7530	49.3650
 0.7540	49.5240
 0.7550	49.6700
 0.7560	49.8010
 0.7570	49.9200
 0.7580	50.0250
 0.7590	50.1220
 0.7600	50.2120
 0.7610	50.2940
 0.7620	50.3650
 0.7630	50.4290
 0.7640	50.4890
 0.7650	50.5420
 0.7660	50.5870
 0.7670	50.6270
 0.7680	50.6700
 0.7690	50.7030
 0.7700	50.7350
 0.7710	50.7660
 0.7720	50.7930
 0.7730	50.8170
 0.7740	50.8390
 0.7750	50.8600
 0.7760	50.8800
 0.7770	50.8980
 0.7780	50.9160
 0.7790	50.9360
 0.7800	50.9530
 0.7810	50.9680
 0.7820	50.9830
 0.7830	50.9990
 0.7840	51.0150
 0.7850	51.0290
 0.7860	51.0400
 0.7870	51.0530
 0.7880	51.0630
 0.7890	51.0730
 0.7900	51.0820
 0.7910	51.0930
 0.7920	51.1030
 0.7930	51.1120
 0.7940	51.1180
 0.7950	51.1250
 0.7960	51.1300
 0.7970	51.1360
 0.7980	51.1400
 0.7990	51.1440
 0.8000	51.1470
 0.8010	51.1500
 0.8020	51.1550
 0.8030	51.1610
 0.8040	51.1650
 0.8050	51.1630
 0.8060	51.1640
 0.8070	51.1640
 0.8080	51.1650
 0.8090	51.1690
 0.8100	51.1700
 0.8110	51.1680
 0.8120	51.1670
 0.8130	51.1690
 0.8140	51.1670
 0.8150	51.1670
 0.8160	51.1690
 0.8170	51.1670
 0.8180	51.1630
 0.8190	51.1610
 0.8200	51.1600
 0.8210	51.1610
 0.8220	51.1650
 0.8230	51.1670
 0.8240	51.1650
 0.8250	51.1650
 0.8260	51.1650
 0.8270	51.1650
 0.8280	51.1630
 0.8290	51.1630
 0.8300	51.1640
 0.8310	51.1630
 0.8320	51.1660
 0.8330	51.1680
 0.8340	51.1720
 0.8350	51.1770
 0.8360	51.1790
 0.8370	51.1820
 0.8380	51.1860
 0.8390	51.1920
 0.8400	51.1970
 0.8410	51.2030
 0.8420	51.2070
 0.8430	51.2110
 0.8440	51.2180
 0.8450	51.2260
 0.8460	51.2350
 0.8470	51.2460
 0.8480	51.2530
 0.8490	51.2580
 0.8500	51.2670
 0.8510	51.2780
 0.8520	51.2880
 0.8530	51.2980
 0.8540	51.3080
 0.8550	51.3160
 0.8560	51.3250
 0.8570	51.3330
 0.8580	51.3430
 0.8590	51.3580
 0.8600	51.3710
 0.8610	51.3790
 0.8620	51.3890
 0.8630	51.4040
 0.8640	51.4190
 0.8650	51.4300
 0.8660	51.4450
 0.8670	51.4580
 0.8680	51.4690
 0.8690	51.4800
 0.8700	51.4910
 0.8710	51.5020
 0.8720	51.5160
 0.8730	51.5320
 0.8740	51.5450
 0.8750	51.5550
 0.8760	51.5650
 0.8770	51.5820
 0.8780	51.6000
 0.8790	51.6120
 0.8800	51.6230
 0.8810	51.6420
 0.8820	51.6580
 0.8830	51.6700
 0.8840	51.6800
 0.8850	51.6930
 0.8860	51.7010
 0.8870	51.7110
 0.8880	51.7280
 0.8890	51.7390
 0.8900	51.7490
 0.8910	51.7620
 0.8920	51.7780
 0.8930	51.7930
 0.8940	51.8030
 0.8950	51.8120
 0.8960	51.8260
 0.8970	51.8370
 0.8980	51.8460
 0.8990	51.8580
 0.9000	51.8750
 0.9010	51.8850
 0.9020	51.8920
 0.9030	51.9000
 0.9040	51.9080
 0.9050	51.9170
 0.9060	51.9260
 0.9070	51.9360
 0.9080	51.9520
 0.9090	51.9660
 0.9100	51.9730
 0.9110	51.9770
 0.9120	51.9870
 0.9130	51.9970
 0.9140	52.0050
 0.9150	52.0090
 0.9160	52.0150
 0.9170	52.0250
 0.9180	52.0340
 0.9190	52.0340
 0.9200	52.0390
 0.9210	52.0450
 0.9220	52.0460
 0.9230	52.0380
 0.9240	52.0420
 0.9250	52.0490
 0.9260	52.0480
 0.9270	52.0380
 0.9280	52.0320
 0.9290	52.0280
 0.9300	52.0240
 0.9310	52.0180
 0.9320	52.0140
 0.9330	52.0050
 0.9340	51.9900
 0.9350	51.9790
 0.9360	51.9710
 0.9370	51.9630
 0.9380	51.9520
 0.9390	51.9370
 0.9400	51.9240
 0.9410	51.9080
 0.9420	51.8890
 0.9430	51.8760
 0.9440	51.8570
 0.9450	51.8330
 0.9460	51.8070
 0.9470	51.7850
 0.9480	51.7590
 0.9490	51.7240
 0.9500	51.6820
 0.9510	51.6500
 0.9520	51.6160
 0.9530	51.5770
 0.9540	51.5320
 0.9550	51.4880
 0.9560	51.4440
 0.9570	51.4050
 0.9580	51.3710
 0.9590	51.3310
 0.9600	51.3010
 0.9610	51.2830
 0.9620	51.2680
 0.9630	51.2370
 0.9640	51.2090
 0.9650	51.1870
 0.9660	51.1690
 0.9670	51.1630
 0.9680	51.1570
 0.9690	51.1470
 0.9700	51.1370
 0.9710	51.1380
 0.9720	51.1330
 0.9730	51.1230
 0.9740	51.1170
 0.9750	51.1140
 0.9760	51.1110
 0.9770	51.1070
 0.9780	51.1060
 0.9790	51.1070
 0.9800	51.1060
 0.9810	51.1070
 0.9820	51.1190
 0.9830	51.1360
 0.9840	51.1430
 0.9850	51.1480
 0.9860	51.1620
 0.9870	51.1640
 0.9880	51.1740
 0.9890	51.1860
 0.9900	51.1870
 0.9910	51.2030
 0.9920	51.2250
 0.9930	51.2430
 0.9940	51.2530
 0.9950	51.2750
 0.9960	51.2900
 0.9970	51.3070
 0.9980	51.3430
 0.9990	51.3520
 1.0000	51.3530
 1.0010	52.5400
 1.0020	52.5550
 1.0030	52.5700
 1.0040	52.5860
 1.0050	52.6020
 1.0060	52.6230
 1.0070	52.6430
 1.0080	52.6600
 1.0090	52.6740
 1.0100	52.6920
 1.0110	52.7070
 1.0120	52.7250
 1.0130	52.7500
 1.0140	52.7700
 1.0150	52.7880
 1.0160	52.8070
 1.0170	52.8240
 1.0180	52.8390
 1.0190	52.8570
 1.0200	52.8750
 1.0210	52.8900
 1.0220	52.9050
 1.0230	52.9230
 1.0240	52.9390
 1.0250	52.9570
 1.0260	52.9770
 1.0270	52.9950
 1.0280	53.0140
 1.0290	53.0290
 1.0300	53.0430
 1.0310	53.0570
 1.0320	53.0700
 1.0330	53.0800
 1.0340	53.0940
 1.0350	53.1120
 1.0360	53.1330
 1.0370	53.1500
 1.0380	53.1660
 1.0390	53.1820
 1.0400	53.1960
 1.0410	53.2060
 1.0420	53.2170
 1.0430	53.2290
 1.0440	53.2410
 1.0450	53.2540
 1.0460	53.2660
 1.0470	53.2780
 1.0480	53.2890
 1.0490	53.2970
 1.0500	53.3060
 1.0510	53.3120
 1.0520	53.3220
 1.0530	53.3300
 1.0540	53.3380
 1.0550	53.3440
 1.0560	53.3480
 1.0570	53.3540
 1.0580	53.3580
 1.0590	53.3650
 1.0600	53.3760
 1.0610	53.3840
 1.0620	53.3950
 1.0630	53.4000
 1.0640	53.3990
 1.0650	53.4010
 1.0660	53.4020
 1.0670	53.4030
 1.0680	53.4060
 1.0690	53.4110
 1.0700	53.4130
 1.0710	53.4130
 1.0720	53.4130
 1.0730	53.4120
 1.0740	53.4120
 1.0750	53.4120
 1.0760	53.4130
 1.0770	53.4140
 1.0780	53.4140
 1.0790	53.4160
 1.0800	53.4160
 1.0810	53.4130
 1.0820	53.4130
 1.0830	53.4130
 1.0840	53.4130
 1.0850	53.4130
 1.0860	53.4150
 1.0870	53.4140
 1.0880	53.4110
 1.0890	53.4070
 1.0900	53.4010
 1.0910	53.3990
 1.0920	53.3970
 1.0930	53.3960
 1.0940	53.3980
 1.0950	53.3960
 1.0960	53.3940
 1.0970	53.3920
 1.0980	53.3900
 1.0990	53.3870
 1.1000	53.3820
 1.1010	53.3780
 1.1020	53.3730
 1.1030	53.3700
 1.1040	53.3660
 1.1050	53.3620
 1.1060	53.3570
 1.1070	53.3510
 1.1080	53.3450
 1.1090	53.3400
 1.1100	53.3350
 1.1110	53.3290
 1.1120	53.3230
 1.1130	53.3170
 1.1140	53.3110
 1.1150	53.3060
 1.1160	53.2970
 1.1170	53.2880
 1.1180	53.2760
 1.1190	53.2620
 1.1200	53.2430
 1.1210	53.2250
 1.1220	53.2050
 1.1230	53.1830
 1.1240	53.1620
 1.1250	53.1340
 1.1260	53.1050
 1.1270	53.0690
 1.1280	53.0280
 1.1290	52.9830
 1.1300	52.9370
 1.1310	52.8830
 1.1320	52.8230
 1.1330	52.7570
 1.1340	52.6850
 1.1350	52.6090
 1.1360	52.5300
 1.1370	52.4450
 1.1380	52.3570
 1.1390	52.2630
 1.1400	52.1650
 1.1410	52.0640
 1.1420	51.9600
 1.1430	51.8530
 1.1440	51.7460
 1.1450	51.6360
 1.1460	51.5300
 1.1470	51.4230
 1.1480	51.3210
 1.1490	51.2200
 1.1500	51.1240
 1.1510	51.0270
 1.1520	50.9400
 1.1530	50.8600
 1.1540	50.7840
 1.1550	50.7140
 1.1560	50.6490
 1.1570	50.5880
 1.1580	50.5310
 1.1590	50.4820
 1.1600	50.4400
 1.1610	50.4020
 1.1620	50.3670
 1.1630	50.3340
 1.1640	50.3020
 1.1650	50.2750
 1.1660	50.2500
 1.1670	50.2290
 1.1680	50.2140
 1.1690	50.1980
 1.1700	50.1840
 1.1710	50.1690
 1.1720	50.1540
 1.1730	50.1390
 1.1740	50.1240
 1.1750	50.1110
 1.1760	50.0970
 1.1770	50.0830
 1.1780	50.0690
 1.1790	50.0540
 1.1800	50.0370
 1.1810	50.0220
 1.1820	50.0080
 1.1830	49.9920
 1.1840	49.9770
 1.1850	49.9610
 1.1860	49.9440
 1.1870	49.9300
 1.1880	49.9170
 1.1890	49.9050
 1.1900	49.8930
 1.1910	49.8800
 1.1920	49.8700
 1.1930	49.8620
 1.1940	49.8560
 1.1950	49.8520
 1.1960	49.8500
 1.1970	49.8470
 1.1980	49.8450
 1.1990	49.8440
 1.2000	49.8440
 1.2010	49.8470
 1.2020	49.8510
 1.2030	49.8570
 1.2040	49.8650
 1.2050	49.8730
 1.2060	49.8800
 1.2070	49.8930
 1.2080	49.9040
 1.2090	49.9150
 1.2100	49.9320
 1.2110	49.9490
 1.2120	49.9660
 1.2130	49.9850
 1.2140	50.0060
 1.2150	50.0280
 1.2160	50.0510
 1.2170	50.0760
 1.2180	50.1050
 1.2190	50.1350
 1.2200	50.1640
 1.2210	50.1920
 1.2220	50.2180
 1.2230	50.2460
 1.2240	50.2750
 1.2250	50.3050
 1.2260	50.3340
 1.2270	50.3610
 1.2280	50.3880
 1.2290	50.4150
 1.2300	50.4400
 1.2310	50.4640
 1.2320	50.4880
 1.2330	50.5100
 1.2340	50.5320
 1.2350	50.5550
 1.2360	50.5770
 1.2370	50.5980
 1.2380	50.6180
 1.2390	50.6370
 1.2400	50.6540
 1.2410	50.6690
 1.2420	50.6830
 1.2430	50.6980
 1.2440	50.7150
 1.2450	50.7300
 1.2460	50.7470
 1.2470	50.7620
 1.2480	50.7770
 1.2490	50.7910
 1.2500	50.8040
 1.2510	50.8140
 1.2520	50.8240
 1.2530	50.8350
 1.2540	50.8450
 1.2550	50.8550
 1.2560	50.8630
 1.2570	50.8680
 1.2580	50.8750
 1.2590	50.8820
 1.2600	50.8890
 1.2610	50.8940
 1.2620	50.9000
 1.2630	50.9020
 1.2640	50.9040
 1.2650	50.9050
 1.2660	50.9050
 1.2670	50.9040
 1.2680	50.9030
 1.2690	50.9010
 1.2700	50.8970
 1.2710	50.8940
 1.2720	50.8900
 1.2730	50.8850
 1.2740	50.8800
 1.2750	50.8750
 1.2760	50.8690
 1.2770	50.8590
 1.2780	50.8510
 1.2790	50.8410
 1.2800	50.8280
 1.2810	50.8140
 1.2820	50.7970
 1.2830	50.7790
 1.2840	50.7620
 1.2850	50.7420
 1.2860	50.7210
 1.2870	50.6970
 1.2880	50.6690
 1.2890	50.6400
 1.2900	50.6100
 1.2910	50.5790
 1.2920	50.5470
 1.2930	50.5130
 1.2940	50.4740
 1.2950	50.4350
 1.2960	50.3960
 1.2970	50.3520
 1.2980	50.3070
 1.2990	50.2600
 1.3000	50.2100
 1.3010	50.1600
 1.3020	50.1100
 1.3030	50.0560
 1.3040	50.0000
 1.3050	49.9410
 1.3060	49.8800
 1.3070	49.8190
 1.3080	49.7570
 1.3090	49.6920
 1.3100	49.6250
 1.3110	49.5560
 1.3120	49.4860
 1.3130	49.4150
 1.3140	49.3420
 1.3150	49.2670
 1.3160	49.1890
 1.3170	49.1070
 1.3180	49.0230
 1.3190	48.9380
 1.3200	48.8510
 1.3210	48.7640
 1.3220	48.6750
 1.3230	48.5830
 1.3240	48.4870
 1.3250	48.3890
 1.3260	48.2880
 1.3270	48.1840
 1.3280	48.0790
 1.3290	47.9740
 1.3300	47.8680
 1.3310	47.7620
 1.3320	47.6530
 1.3330	47.5420
 1.3340	47.4280
 1.3350	47.3140
 1.3360	47.2000
 1.3370	47.0850
 1.3380	46.9720
 1.3390	46.8570
 1.3400	46.7420
 1.3410	46.6280
 1.3420	46.5130
 1.3430	46.4000
 1.3440	46.2880
 1.3450	46.1770
 1.3460	46.0690
 1.3470	45.9610
 1.3480	45.8550
 1.3490	45.7500
 1.3500	45.6460
 1.3510	45.5430
 1.3520	45.4400
 1.3530	45.3390
 1.3540	45.2370
 1.3550	45.1350
 1.3560	45.0340
 1.3570	44.9280
 1.3580	44.8210
 1.3590	44.7130
 1.3600	44.5990
 1.3610	44.4820
 1.3620	44.3620
 1.3630	44.2350
 1.3640	44.1050
 1.3650	43.9690
 1.3660	43.8260
 1.3670	43.6750
 1.3680	43.5140
 1.3690	43.3410
 1.3700	43.1570
 1.3710	42.9610
 1.3720	42.7510
 1.3730	42.5260
 1.3740	42.2850
 1.3750	42.0250
 1.3760	41.7440
 1.3770	41.4420
 1.3780	41.1140
 1.3790	40.7640
 1.3800	40.3900
 1.3810	39.9880
 1.3820	39.5670
 1.3830	39.1240
 1.3840	38.6580
 1.3850	38.1690
 1.3860	37.6620
 1.3870	37.1310
 1.3880	36.5910
 1.3890	36.0340
 1.3900	35.4620
 1.3910	34.8860
 1.3920	34.3000
 1.3930	33.7060
 1.3940	33.1130
 1.3950	32.5160
 1.3960	31.9230
 1.3970	31.3400
 1.3980	30.7630
 1.3990	30.2030
 1.4000	29.6570
 1.4010	29.1230
 1.4020	28.6090
 1.4030	28.1090
 1.4040	27.6300
 1.4050	27.1730
 1.4060	26.7360
 1.4070	26.3230
 1.4080	25.9300
 1.4090	25.5560
 1.4100	25.2070
 1.4110	24.8770
 1.4120	24.5690
 1.4130	24.2820
 1.4140	24.0130
 1.4150	23.7640
 1.4160	23.5330
 1.4170	23.3170
 1.4180	23.1190
 1.4190	22.9340
 1.4200	22.7640
 1.4210	22.6070
 1.4220	22.4610
 1.4230	22.3270
 1.4240	22.2040
 1.4250	22.0900
 1.4260	21.9860
 1.4270	21.8910
 1.4280	21.8070
 1.4290	21.7280
 1.4300	21.6590
 1.4310	21.5950
 1.4320	21.5390
 1.4330	21.4880
 1.4340	21.4420
 1.4350	21.4020
 1.4360	21.3690
 1.4370	21.3390
 1.4380	21.3130
 1.4390	21.2920
 1.4400	21.2750
 1.4410	21.2620
 1.4420	21.2530
 1.4430	21.2460
 1.4440	21.2420
 1.4450	21.2410
 1.4460	21.2410
 1.4470	21.2450
 1.4480	21.2510
 1.4490	21.2590
 1.4500	21.2690
 1.4510	21.2800
 1.4520	21.2930
 1.4530	21.3080
 1.4540	21.3250
 1.4550	21.3440
 1.4560	21.3660
 1.4570	21.3920
 1.4580	21.4210
 1.4590	21.4530
 1.4600	21.4880
 1.4610	21.5290
 1.4620	21.5730
 1.4630	21.6220
 1.4640	21.6750
 1.4650	21.7330
 1.4660	21.7970
 1.4670	21.8670
 1.4680	21.9420
 1.4690	22.0220
 1.4700	22.1070
 1.4710	22.1980
 1.4720	22.2930
 1.4730	22.3910
 1.4740	22.4930
 1.4750	22.5970
 1.4760	22.7060
 1.4770	22.8170
 1.4780	22.9300
