Name: Baccharis pilularis 1
Type: vegetation
Class: Shrub
Genus: Baccharis
Species: pilularis
Sample No.: VH194
Owner: UCSB
Wavelength Range: VSWIR
Origin: 34.4186; -119.8458; WGS84
Collection Date: 10/13/2013
Description: Samples were collected as part of the HyspIRI Airborne Campaign. 48 individual plants were sampled in three times in 2013 - spring  summer  and fall. The name of the sample includes a 1  2  or 3 which references a different individual of the species. Samples were taken to JPL and processed within 48 hours of collection. The same leaves were processed in the Nicolet and then measured using the ASD.
Measurement: Bidirectional reflectance
First Column: X
Second Column: Y
X Units: Wavelength (micrometers)
Y Units: Reflectance (percentage)
First X Value: 0.35
Last X Value: 2.5
Number of X Values: 2151
Additional Information: vegetation.shrub.baccharis.pilularis.vswir.vh194.ucsb.asd.ancillary.txt

 0.3500	 5.5000
 0.3510	 5.8100
 0.3520	 5.8980
 0.3530	 5.9470
 0.3540	 6.1100
 0.3550	 5.9890
 0.3560	 5.9000
 0.3570	 5.9310
 0.3580	 6.0170
 0.3590	 5.9140
 0.3600	 5.7840
 0.3610	 5.7690
 0.3620	 5.9260
 0.3630	 6.1430
 0.3640	 6.1690
 0.3650	 5.9120
 0.3660	 5.9170
 0.3670	 5.9660
 0.3680	 5.9770
 0.3690	 5.9790
 0.3700	 6.0750
 0.3710	 6.1540
 0.3720	 6.1430
 0.3730	 6.0790
 0.3740	 6.0000
 0.3750	 5.9760
 0.3760	 6.0450
 0.3770	 6.0760
 0.3780	 6.0690
 0.3790	 6.0480
 0.3800	 6.0530
 0.3810	 6.0990
 0.3820	 6.1340
 0.3830	 6.1010
 0.3840	 5.9190
 0.3850	 6.0100
 0.3860	 6.2580
 0.3870	 6.3640
 0.3880	 6.2750
 0.3890	 6.1940
 0.3900	 6.1950
 0.3910	 6.2080
 0.3920	 6.2660
 0.3930	 6.3580
 0.3940	 6.4470
 0.3950	 6.4440
 0.3960	 6.4960
 0.3970	 6.5860
 0.3980	 6.6250
 0.3990	 6.5810
 0.4000	 6.5490
 0.4010	 6.5870
 0.4020	 6.6910
 0.4030	 6.7080
 0.4040	 6.7000
 0.4050	 6.7500
 0.4060	 6.8280
 0.4070	 6.8760
 0.4080	 6.8930
 0.4090	 6.9150
 0.4100	 6.9390
 0.4110	 6.9900
 0.4120	 7.0590
 0.4130	 7.0670
 0.4140	 7.1080
 0.4150	 7.1640
 0.4160	 7.1940
 0.4170	 7.2170
 0.4180	 7.2470
 0.4190	 7.2830
 0.4200	 7.3150
 0.4210	 7.3650
 0.4220	 7.4220
 0.4230	 7.4720
 0.4240	 7.5080
 0.4250	 7.5360
 0.4260	 7.5590
 0.4270	 7.5780
 0.4280	 7.5940
 0.4290	 7.6290
 0.4300	 7.6790
 0.4310	 7.6940
 0.4320	 7.7170
 0.4330	 7.7410
 0.4340	 7.7600
 0.4350	 7.7930
 0.4360	 7.8290
 0.4370	 7.8550
 0.4380	 7.8640
 0.4390	 7.8910
 0.4400	 7.9160
 0.4410	 7.9280
 0.4420	 7.9400
 0.4430	 7.9830
 0.4440	 8.0360
 0.4450	 8.0610
 0.4460	 8.0820
 0.4470	 8.0970
 0.4480	 8.1130
 0.4490	 8.1460
 0.4500	 8.1690
 0.4510	 8.1790
 0.4520	 8.1870
 0.4530	 8.2100
 0.4540	 8.2440
 0.4550	 8.2690
 0.4560	 8.2680
 0.4570	 8.2860
 0.4580	 8.3050
 0.4590	 8.3170
 0.4600	 8.3560
 0.4610	 8.3600
 0.4620	 8.3580
 0.4630	 8.3930
 0.4640	 8.3960
 0.4650	 8.3970
 0.4660	 8.4160
 0.4670	 8.4530
 0.4680	 8.4520
 0.4690	 8.4420
 0.4700	 8.4530
 0.4710	 8.4730
 0.4720	 8.4830
 0.4730	 8.4910
 0.4740	 8.5120
 0.4750	 8.5260
 0.4760	 8.5440
 0.4770	 8.5630
 0.4780	 8.5460
 0.4790	 8.5530
 0.4800	 8.5760
 0.4810	 8.5920
 0.4820	 8.6020
 0.4830	 8.6140
 0.4840	 8.6280
 0.4850	 8.6330
 0.4860	 8.6600
 0.4870	 8.6830
 0.4880	 8.6880
 0.4890	 8.6980
 0.4900	 8.7300
 0.4910	 8.7680
 0.4920	 8.7850
 0.4930	 8.7840
 0.4940	 8.8110
 0.4950	 8.8700
 0.4960	 8.9140
 0.4970	 8.9650
 0.4980	 9.0110
 0.4990	 9.0410
 0.5000	 9.0860
 0.5010	 9.1350
 0.5020	 9.1900
 0.5030	 9.2650
 0.5040	 9.3370
 0.5050	 9.4130
 0.5060	 9.5000
 0.5070	 9.5950
 0.5080	 9.6860
 0.5090	 9.7800
 0.5100	 9.8910
 0.5110	10.0230
 0.5120	10.1620
 0.5130	10.3050
 0.5140	10.4640
 0.5150	10.6180
 0.5160	10.7780
 0.5170	10.9580
 0.5180	11.1470
 0.5190	11.3420
 0.5200	11.5420
 0.5210	11.7430
 0.5220	11.9520
 0.5230	12.1560
 0.5240	12.3480
 0.5250	12.5370
 0.5260	12.7240
 0.5270	12.9050
 0.5280	13.0720
 0.5290	13.2260
 0.5300	13.3780
 0.5310	13.5250
 0.5320	13.6460
 0.5330	13.7530
 0.5340	13.8560
 0.5350	13.9610
 0.5360	14.0470
 0.5370	14.1280
 0.5380	14.2040
 0.5390	14.2660
 0.5400	14.3190
 0.5410	14.3660
 0.5420	14.4110
 0.5430	14.4600
 0.5440	14.5110
 0.5450	14.5650
 0.5460	14.6210
 0.5470	14.6730
 0.5480	14.7240
 0.5490	14.7710
 0.5500	14.8080
 0.5510	14.8380
 0.5520	14.8640
 0.5530	14.8860
 0.5540	14.8900
 0.5550	14.8850
 0.5560	14.8670
 0.5570	14.8280
 0.5580	14.7860
 0.5590	14.7390
 0.5600	14.6830
 0.5610	14.6070
 0.5620	14.5260
 0.5630	14.4400
 0.5640	14.3420
 0.5650	14.2380
 0.5660	14.1320
 0.5670	14.0220
 0.5680	13.9040
 0.5690	13.7860
 0.5700	13.6630
 0.5710	13.5390
 0.5720	13.4280
 0.5730	13.3240
 0.5740	13.2230
 0.5750	13.1240
 0.5760	13.0380
 0.5770	12.9590
 0.5780	12.8810
 0.5790	12.8110
 0.5800	12.7380
 0.5810	12.6670
 0.5820	12.6060
 0.5830	12.5410
 0.5840	12.4810
 0.5850	12.4330
 0.5860	12.3940
 0.5870	12.3470
 0.5880	12.3020
 0.5890	12.2640
 0.5900	12.2270
 0.5910	12.1960
 0.5920	12.1680
 0.5930	12.1380
 0.5940	12.1210
 0.5950	12.1110
 0.5960	12.1020
 0.5970	12.0860
 0.5980	12.0680
 0.5990	12.0500
 0.6000	12.0320
 0.6010	12.0110
 0.6020	11.9830
 0.6030	11.9500
 0.6040	11.9150
 0.6050	11.8760
 0.6060	11.8320
 0.6070	11.7820
 0.6080	11.7280
 0.6090	11.6680
 0.6100	11.6010
 0.6110	11.5330
 0.6120	11.4730
 0.6130	11.4200
 0.6140	11.3710
 0.6150	11.3230
 0.6160	11.2710
 0.6170	11.2240
 0.6180	11.1870
 0.6190	11.1510
 0.6200	11.1160
 0.6210	11.0870
 0.6220	11.0660
 0.6230	11.0420
 0.6240	11.0240
 0.6250	11.0180
 0.6260	11.0100
 0.6270	11.0030
 0.6280	10.9990
 0.6290	10.9950
 0.6300	10.9860
 0.6310	10.9840
 0.6320	10.9890
 0.6330	10.9810
 0.6340	10.9660
 0.6350	10.9450
 0.6360	10.9200
 0.6370	10.8910
 0.6380	10.8480
 0.6390	10.7990
 0.6400	10.7570
 0.6410	10.7050
 0.6420	10.6480
 0.6430	10.5910
 0.6440	10.5400
 0.6450	10.4850
 0.6460	10.4300
 0.6470	10.3770
 0.6480	10.3210
 0.6490	10.2740
 0.6500	10.2380
 0.6510	10.2090
 0.6520	10.1800
 0.6530	10.1480
 0.6540	10.1150
 0.6550	10.0900
 0.6560	10.0570
 0.6570	10.0170
 0.6580	 9.9760
 0.6590	 9.9350
 0.6600	 9.8930
 0.6610	 9.8520
 0.6620	 9.8130
 0.6630	 9.7740
 0.6640	 9.7390
 0.6650	 9.7090
 0.6660	 9.6780
 0.6670	 9.6580
 0.6680	 9.6470
 0.6690	 9.6350
 0.6700	 9.6290
 0.6710	 9.6270
 0.6720	 9.6290
 0.6730	 9.6400
 0.6740	 9.6470
 0.6750	 9.6590
 0.6760	 9.6830
 0.6770	 9.7100
 0.6780	 9.7360
 0.6790	 9.7660
 0.6800	 9.8060
 0.6810	 9.8510
 0.6820	 9.9010
 0.6830	 9.9580
 0.6840	10.0270
 0.6850	10.1080
 0.6860	10.2010
 0.6870	10.3090
 0.6880	10.4590
 0.6890	10.6310
 0.6900	10.8300
 0.6910	11.0800
 0.6920	11.3820
 0.6930	11.7360
 0.6940	12.1400
 0.6950	12.5990
 0.6960	13.1170
 0.6970	13.6880
 0.6980	14.3090
 0.6990	14.9770
 0.7000	15.6870
 0.7010	16.4350
 0.7020	17.2150
 0.7030	18.0090
 0.7040	18.8200
 0.7050	19.6470
 0.7060	20.4820
 0.7070	21.3150
 0.7080	22.1530
 0.7090	23.0090
 0.7100	23.8500
 0.7110	24.6820
 0.7120	25.5080
 0.7130	26.3280
 0.7140	27.1460
 0.7150	27.9540
 0.7160	28.7460
 0.7170	29.5240
 0.7180	30.2920
 0.7190	31.0420
 0.7200	31.7710
 0.7210	32.4860
 0.7220	33.1780
 0.7230	33.8470
 0.7240	34.4970
 0.7250	35.1180
 0.7260	35.7150
 0.7270	36.2930
 0.7280	36.8300
 0.7290	37.3510
 0.7300	37.8490
 0.7310	38.3110
 0.7320	38.7650
 0.7330	39.1900
 0.7340	39.5810
 0.7350	39.9500
 0.7360	40.2960
 0.7370	40.6250
 0.7380	40.9390
 0.7390	41.2340
 0.7400	41.5050
 0.7410	41.7570
 0.7420	41.9930
 0.7430	42.2190
 0.7440	42.4270
 0.7450	42.6170
 0.7460	42.7940
 0.7470	42.9520
 0.7480	43.1070
 0.7490	43.2610
 0.7500	43.3790
 0.7510	43.5020
 0.7520	43.6160
 0.7530	43.7000
 0.7540	43.8100
 0.7550	43.9020
 0.7560	43.9720
 0.7570	44.0430
 0.7580	44.1200
 0.7590	44.1880
 0.7600	44.2440
 0.7610	44.3030
 0.7620	44.3490
 0.7630	44.3940
 0.7640	44.4520
 0.7650	44.4910
 0.7660	44.5330
 0.7670	44.5780
 0.7680	44.6130
 0.7690	44.6270
 0.7700	44.6490
 0.7710	44.6910
 0.7720	44.7300
 0.7730	44.7550
 0.7740	44.7810
 0.7750	44.8170
 0.7760	44.8420
 0.7770	44.8760
 0.7780	44.9090
 0.7790	44.9230
 0.7800	44.9500
 0.7810	44.9710
 0.7820	44.9880
 0.7830	45.0290
 0.7840	45.0500
 0.7850	45.0840
 0.7860	45.1370
 0.7870	45.1420
 0.7880	45.1520
 0.7890	45.1780
 0.7900	45.2180
 0.7910	45.2460
 0.7920	45.2780
 0.7930	45.3120
 0.7940	45.3310
 0.7950	45.3520
 0.7960	45.3740
 0.7970	45.3990
 0.7980	45.4310
 0.7990	45.4620
 0.8000	45.4840
 0.8010	45.5010
 0.8020	45.5300
 0.8030	45.5620
 0.8040	45.5850
 0.8050	45.5970
 0.8060	45.6470
 0.8070	45.6820
 0.8080	45.6910
 0.8090	45.7110
 0.8100	45.7430
 0.8110	45.7810
 0.8120	45.8160
 0.8130	45.8280
 0.8140	45.8500
 0.8150	45.8780
 0.8160	45.9050
 0.8170	45.9370
 0.8180	45.9640
 0.8190	45.9840
 0.8200	46.0040
 0.8210	46.0350
 0.8220	46.0650
 0.8230	46.0940
 0.8240	46.1300
 0.8250	46.1580
 0.8260	46.1770
 0.8270	46.1910
 0.8280	46.2080
 0.8290	46.2290
 0.8300	46.2490
 0.8310	46.2630
 0.8320	46.2890
 0.8330	46.3220
 0.8340	46.3590
 0.8350	46.3970
 0.8360	46.4180
 0.8370	46.4340
 0.8380	46.4500
 0.8390	46.4650
 0.8400	46.4900
 0.8410	46.5190
 0.8420	46.5500
 0.8430	46.5910
 0.8440	46.5940
 0.8450	46.6020
 0.8460	46.6460
 0.8470	46.6780
 0.8480	46.6950
 0.8490	46.7110
 0.8500	46.7410
 0.8510	46.7830
 0.8520	46.7980
 0.8530	46.8030
 0.8540	46.8370
 0.8550	46.8710
 0.8560	46.8820
 0.8570	46.8880
 0.8580	46.9350
 0.8590	46.9560
 0.8600	46.9630
 0.8610	46.9740
 0.8620	47.0010
 0.8630	47.0340
 0.8640	47.0570
 0.8650	47.0660
 0.8660	47.0920
 0.8670	47.1230
 0.8680	47.1410
 0.8690	47.1400
 0.8700	47.1660
 0.8710	47.1910
 0.8720	47.2170
 0.8730	47.2550
 0.8740	47.2620
 0.8750	47.2690
 0.8760	47.2860
 0.8770	47.3010
 0.8780	47.3180
 0.8790	47.3420
 0.8800	47.3710
 0.8810	47.3940
 0.8820	47.4000
 0.8830	47.4030
 0.8840	47.4190
 0.8850	47.4580
 0.8860	47.4760
 0.8870	47.4860
 0.8880	47.5060
 0.8890	47.5210
 0.8900	47.5350
 0.8910	47.5530
 0.8920	47.5800
 0.8930	47.5900
 0.8940	47.5990
 0.8950	47.6170
 0.8960	47.6490
 0.8970	47.6690
 0.8980	47.6680
 0.8990	47.6700
 0.9000	47.7110
 0.9010	47.7090
 0.9020	47.7240
 0.9030	47.7720
 0.9040	47.7870
 0.9050	47.7860
 0.9060	47.7910
 0.9070	47.8110
 0.9080	47.8330
 0.9090	47.8370
 0.9100	47.8430
 0.9110	47.8650
 0.9120	47.8840
 0.9130	47.9050
 0.9140	47.9260
 0.9150	47.9400
 0.9160	47.9410
 0.9170	47.9510
 0.9180	47.9590
 0.9190	47.9500
 0.9200	47.9670
 0.9210	47.9930
 0.9220	48.0070
 0.9230	47.9970
 0.9240	47.9980
 0.9250	48.0110
 0.9260	48.0310
 0.9270	48.0510
 0.9280	48.0300
 0.9290	48.0270
 0.9300	48.0410
 0.9310	48.0130
 0.9320	48.0160
 0.9330	48.0150
 0.9340	47.9970
 0.9350	47.9950
 0.9360	48.0000
 0.9370	48.0050
 0.9380	47.9980
 0.9390	47.9710
 0.9400	47.9470
 0.9410	47.9400
 0.9420	47.9400
 0.9430	47.9130
 0.9440	47.9190
 0.9450	47.9090
 0.9460	47.8570
 0.9470	47.8300
 0.9480	47.8140
 0.9490	47.7930
 0.9500	47.7530
 0.9510	47.7080
 0.9520	47.6730
 0.9530	47.6390
 0.9540	47.5950
 0.9550	47.5450
 0.9560	47.4880
 0.9570	47.4480
 0.9580	47.4320
 0.9590	47.3730
 0.9600	47.3390
 0.9610	47.3300
 0.9620	47.3240
 0.9630	47.3140
 0.9640	47.2880
 0.9650	47.2720
 0.9660	47.2880
 0.9670	47.2760
 0.9680	47.2840
 0.9690	47.3070
 0.9700	47.3180
 0.9710	47.3420
 0.9720	47.3310
 0.9730	47.3170
 0.9740	47.3470
 0.9750	47.3540
 0.9760	47.3730
 0.9770	47.4070
 0.9780	47.4380
 0.9790	47.4670
 0.9800	47.4560
 0.9810	47.4390
 0.9820	47.4700
 0.9830	47.5350
 0.9840	47.5430
 0.9850	47.5480
 0.9860	47.6370
 0.9870	47.6480
 0.9880	47.6680
 0.9890	47.7150
 0.9900	47.7580
 0.9910	47.7520
 0.9920	47.7940
 0.9930	47.8350
 0.9940	47.8770
 0.9950	47.9180
 0.9960	47.9600
 0.9970	48.0020
 0.9980	48.0430
 0.9990	48.0850
 1.0000	48.1260
 1.0010	48.1680
 1.0020	48.2100
 1.0030	48.2510
 1.0040	48.2930
 1.0050	48.3340
 1.0060	48.3760
 1.0070	48.4180
 1.0080	48.4590
 1.0090	48.5010
 1.0100	48.5010
 1.0110	48.5430
 1.0120	48.5750
 1.0130	48.5990
 1.0140	48.6360
 1.0150	48.6730
 1.0160	48.7200
 1.0170	48.7760
 1.0180	48.8080
 1.0190	48.8480
 1.0200	48.8840
 1.0210	48.8960
 1.0220	48.9240
 1.0230	48.9570
 1.0240	48.9890
 1.0250	49.0190
 1.0260	49.0580
 1.0270	49.0950
 1.0280	49.1240
 1.0290	49.1540
 1.0300	49.1940
 1.0310	49.2270
 1.0320	49.2550
 1.0330	49.2670
 1.0340	49.3020
 1.0350	49.3410
 1.0360	49.3710
 1.0370	49.4070
 1.0380	49.4330
 1.0390	49.4430
 1.0400	49.4680
 1.0410	49.4990
 1.0420	49.5240
 1.0430	49.5490
 1.0440	49.5720
 1.0450	49.5960
 1.0460	49.6140
 1.0470	49.6240
 1.0480	49.6410
 1.0490	49.6580
 1.0500	49.6720
 1.0510	49.6870
 1.0520	49.7100
 1.0530	49.7270
 1.0540	49.7370
 1.0550	49.7570
 1.0560	49.7910
 1.0570	49.8040
 1.0580	49.8040
 1.0590	49.8170
 1.0600	49.8240
 1.0610	49.8350
 1.0620	49.8580
 1.0630	49.8790
 1.0640	49.8930
 1.0650	49.9110
 1.0660	49.9440
 1.0670	49.9610
 1.0680	49.9720
 1.0690	49.9720
 1.0700	49.9810
 1.0710	49.9850
 1.0720	49.9910
 1.0730	50.0040
 1.0740	50.0140
 1.0750	50.0180
 1.0760	50.0260
 1.0770	50.0390
 1.0780	50.0480
 1.0790	50.0550
 1.0800	50.0610
 1.0810	50.0670
 1.0820	50.0720
 1.0830	50.0800
 1.0840	50.0840
 1.0850	50.0870
 1.0860	50.0830
 1.0870	50.0830
 1.0880	50.0780
 1.0890	50.0820
 1.0900	50.0950
 1.0910	50.0980
 1.0920	50.0980
 1.0930	50.0990
 1.0940	50.0960
 1.0950	50.0930
 1.0960	50.0910
 1.0970	50.0890
 1.0980	50.0820
 1.0990	50.0780
 1.1000	50.0770
 1.1010	50.0750
 1.1020	50.0670
 1.1030	50.0700
 1.1040	50.0650
 1.1050	50.0560
 1.1060	50.0520
 1.1070	50.0470
 1.1080	50.0410
 1.1090	50.0390
 1.1100	50.0300
 1.1110	50.0160
 1.1120	50.0040
 1.1130	49.9940
 1.1140	49.9790
 1.1150	49.9570
 1.1160	49.9400
 1.1170	49.9220
 1.1180	49.9040
 1.1190	49.8900
 1.1200	49.8800
 1.1210	49.8610
 1.1220	49.8380
 1.1230	49.8090
 1.1240	49.7740
 1.1250	49.7350
 1.1260	49.6940
 1.1270	49.6450
 1.1280	49.5910
 1.1290	49.5310
 1.1300	49.4640
 1.1310	49.3890
 1.1320	49.3120
 1.1330	49.2190
 1.1340	49.1080
 1.1350	48.9980
 1.1360	48.8790
 1.1370	48.7590
 1.1380	48.6390
 1.1390	48.5110
 1.1400	48.3800
 1.1410	48.2470
 1.1420	48.1090
 1.1430	47.9690
 1.1440	47.8300
 1.1450	47.6840
 1.1460	47.5490
 1.1470	47.4170
 1.1480	47.2900
 1.1490	47.1660
 1.1500	47.0510
 1.1510	46.9390
 1.1520	46.8390
 1.1530	46.7470
 1.1540	46.6670
 1.1550	46.6010
 1.1560	46.5380
 1.1570	46.4810
 1.1580	46.4280
 1.1590	46.3830
 1.1600	46.3530
 1.1610	46.3330
 1.1620	46.3190
 1.1630	46.3070
 1.1640	46.2960
 1.1650	46.2840
 1.1660	46.2740
 1.1670	46.2680
 1.1680	46.2630
 1.1690	46.2580
 1.1700	46.2590
 1.1710	46.2540
 1.1720	46.2430
 1.1730	46.2410
 1.1740	46.2420
 1.1750	46.2410
 1.1760	46.2450
 1.1770	46.2460
 1.1780	46.2420
 1.1790	46.2450
 1.1800	46.2470
 1.1810	46.2480
 1.1820	46.2500
 1.1830	46.2450
 1.1840	46.2410
 1.1850	46.2430
 1.1860	46.2440
 1.1870	46.2490
 1.1880	46.2530
 1.1890	46.2560
 1.1900	46.2600
 1.1910	46.2660
 1.1920	46.2720
 1.1930	46.2790
 1.1940	46.2870
 1.1950	46.2940
 1.1960	46.3040
 1.1970	46.3130
 1.1980	46.3260
 1.1990	46.3510
 1.2000	46.3740
 1.2010	46.4010
 1.2020	46.4340
 1.2030	46.4590
 1.2040	46.4810
 1.2050	46.5150
 1.2060	46.5430
 1.2070	46.5750
 1.2080	46.6140
 1.2090	46.6470
 1.2100	46.6830
 1.2110	46.7170
 1.2120	46.7460
 1.2130	46.7820
 1.2140	46.8200
 1.2150	46.8550
 1.2160	46.8920
 1.2170	46.9280
 1.2180	46.9600
 1.2190	46.9960
 1.2200	47.0370
 1.2210	47.0800
 1.2220	47.1240
 1.2230	47.1630
 1.2240	47.2000
 1.2250	47.2350
 1.2260	47.2660
 1.2270	47.3030
 1.2280	47.3400
 1.2290	47.3730
 1.2300	47.4110
 1.2310	47.4490
 1.2320	47.4820
 1.2330	47.5160
 1.2340	47.5510
 1.2350	47.5850
 1.2360	47.6160
 1.2370	47.6460
 1.2380	47.6820
 1.2390	47.7080
 1.2400	47.7280
 1.2410	47.7590
 1.2420	47.7870
 1.2430	47.8130
 1.2440	47.8390
 1.2450	47.8570
 1.2460	47.8800
 1.2470	47.9030
 1.2480	47.9310
 1.2490	47.9640
 1.2500	47.9880
 1.2510	48.0100
 1.2520	48.0280
 1.2530	48.0420
 1.2540	48.0610
 1.2550	48.0780
 1.2560	48.0960
 1.2570	48.1190
 1.2580	48.1380
 1.2590	48.1530
 1.2600	48.1620
 1.2610	48.1710
 1.2620	48.1780
 1.2630	48.1830
 1.2640	48.1890
 1.2650	48.2000
 1.2660	48.2040
 1.2670	48.2050
 1.2680	48.2090
 1.2690	48.2130
 1.2700	48.2150
 1.2710	48.2180
 1.2720	48.2230
 1.2730	48.2250
 1.2740	48.2290
 1.2750	48.2290
 1.2760	48.2210
 1.2770	48.2070
 1.2780	48.1880
 1.2790	48.1680
 1.2800	48.1510
 1.2810	48.1350
 1.2820	48.1200
 1.2830	48.1040
 1.2840	48.0830
 1.2850	48.0620
 1.2860	48.0330
 1.2870	48.0060
 1.2880	47.9800
 1.2890	47.9540
 1.2900	47.9200
 1.2910	47.8900
 1.2920	47.8560
 1.2930	47.8150
 1.2940	47.7810
 1.2950	47.7500
 1.2960	47.7160
 1.2970	47.6800
 1.2980	47.6380
 1.2990	47.5870
 1.3000	47.5290
 1.3010	47.4690
 1.3020	47.4100
 1.3030	47.3530
 1.3040	47.2940
 1.3050	47.2290
 1.3060	47.1590
 1.3070	47.0860
 1.3080	47.0100
 1.3090	46.9360
 1.3100	46.8580
 1.3110	46.7680
 1.3120	46.6770
 1.3130	46.5870
 1.3140	46.4940
 1.3150	46.4000
 1.3160	46.3040
 1.3170	46.2070
 1.3180	46.1040
 1.3190	45.9970
 1.3200	45.8860
 1.3210	45.7700
 1.3220	45.6520
 1.3230	45.5280
 1.3240	45.4040
 1.3250	45.2790
 1.3260	45.1480
 1.3270	45.0170
 1.3280	44.8780
 1.3290	44.7340
 1.3300	44.5870
 1.3310	44.4360
 1.3320	44.2900
 1.3330	44.1440
 1.3340	43.9940
 1.3350	43.8510
 1.3360	43.7070
 1.3370	43.5570
 1.3380	43.4100
 1.3390	43.2600
 1.3400	43.1090
 1.3410	42.9640
 1.3420	42.8170
 1.3430	42.6710
 1.3440	42.5260
 1.3450	42.3830
 1.3460	42.2440
 1.3470	42.1080
 1.3480	41.9720
 1.3490	41.8380
 1.3500	41.7080
 1.3510	41.5740
 1.3520	41.4400
 1.3530	41.3110
 1.3540	41.1780
 1.3550	41.0420
 1.3560	40.9080
 1.3570	40.7700
 1.3580	40.6320
 1.3590	40.4910
 1.3600	40.3480
 1.3610	40.2050
 1.3620	40.0510
 1.3630	39.8920
 1.3640	39.7250
 1.3650	39.5440
 1.3660	39.3580
 1.3670	39.1630
 1.3680	38.9570
 1.3690	38.7390
 1.3700	38.5050
 1.3710	38.2580
 1.3720	37.9960
 1.3730	37.7110
 1.3740	37.4090
 1.3750	37.0930
 1.3760	36.7510
 1.3770	36.3880
 1.3780	36.0040
 1.3790	35.5930
 1.3800	35.1610
 1.3810	34.7050
 1.3820	34.2320
 1.3830	33.7400
 1.3840	33.2310
 1.3850	32.7020
 1.3860	32.1630
 1.3870	31.6020
 1.3880	31.0430
 1.3890	30.4750
 1.3900	29.9030
 1.3910	29.3340
 1.3920	28.7670
 1.3930	28.1980
 1.3940	27.6380
 1.3950	27.0850
 1.3960	26.5420
 1.3970	26.0170
 1.3980	25.5100
 1.3990	25.0270
 1.4000	24.5670
 1.4010	24.1240
 1.4020	23.6990
 1.4030	23.2920
 1.4040	22.9050
 1.4050	22.5440
 1.4060	22.2040
 1.4070	21.8910
 1.4080	21.5990
 1.4090	21.3240
 1.4100	21.0710
 1.4110	20.8370
 1.4120	20.6230
 1.4130	20.4260
 1.4140	20.2470
 1.4150	20.0840
 1.4160	19.9320
 1.4170	19.7910
 1.4180	19.6600
 1.4190	19.5420
 1.4200	19.4380
 1.4210	19.3440
 1.4220	19.2610
 1.4230	19.1840
 1.4240	19.1110
 1.4250	19.0460
 1.4260	18.9880
 1.4270	18.9380
 1.4280	18.8970
 1.4290	18.8610
 1.4300	18.8330
 1.4310	18.8080
 1.4320	18.7870
 1.4330	18.7680
 1.4340	18.7520
 1.4350	18.7410
 1.4360	18.7340
 1.4370	18.7290
 1.4380	18.7310
 1.4390	18.7370
 1.4400	18.7420
 1.4410	18.7510
 1.4420	18.7590
 1.4430	18.7680
 1.4440	18.7790
 1.4450	18.7960
 1.4460	18.8110
 1.4470	18.8270
 1.4480	18.8480
 1.4490	18.8670
 1.4500	18.8890
 1.4510	18.9140
 1.4520	18.9340
 1.4530	18.9570
 1.4540	18.9810
 1.4550	19.0060
 1.4560	19.0360
 1.4570	19.0700
 1.4580	19.1070
 1.4590	19.1460
 1.4600	19.1880
 1.4610	19.2320
 1.4620	19.2790
 1.4630	19.3290
 1.4640	19.3850
 1.4650	19.4470
 1.4660	19.5140
 1.4670	19.5860
 1.4680	19.6620
 1.4690	19.7450
