Name: Quercus robur
Type: vegetation
Class: Tree
Genus: Quercus
Species: robur
Sample No.: JPL247
Owner: JPL
Wavelength Range: VSWIR
Origin: 34.12809; -118.11387; WGS84
Collection Date: 10/6/2016
Description: Samples were collected at the Huntington Garden in San Marino California as part of a JPL Subcontract studying HyTES imagery. Samples were taken to JPL and processed within 48 hours of collection. The same leaves were processed in the Nicolet and then measured using the ASD.
Measurement: Bidirectional reflectance
First Column: X
Second Column: Y
X Units: Wavelength (micrometer)
Y Units: Reflectance (percentage)
First X Value: 0.35
Last X Value: 2.5
Number of X Values: 2151
Additional Information: vegetation.tree.quercus.robur.vswir.jpl247.jpl.asd.ancillary.txt

 0.3500	 6.4450
 0.3510	 6.3190
 0.3520	 6.1770
 0.3530	 6.1150
 0.3540	 6.1550
 0.3550	 6.1310
 0.3560	 6.1320
 0.3570	 6.1490
 0.3580	 6.1320
 0.3590	 6.1300
 0.3600	 6.1320
 0.3610	 6.1140
 0.3620	 6.0430
 0.3630	 5.9930
 0.3640	 5.9850
 0.3650	 6.0120
 0.3660	 6.0140
 0.3670	 5.9760
 0.3680	 5.9460
 0.3690	 6.0000
 0.3700	 5.9800
 0.3710	 5.9680
 0.3720	 5.9970
 0.3730	 5.9510
 0.3740	 5.9030
 0.3750	 5.8750
 0.3760	 5.8750
 0.3770	 5.9350
 0.3780	 5.9530
 0.3790	 5.9270
 0.3800	 5.9360
 0.3810	 5.9720
 0.3820	 5.9720
 0.3830	 5.9190
 0.3840	 5.9170
 0.3850	 5.8650
 0.3860	 5.8230
 0.3870	 5.8810
 0.3880	 5.9360
 0.3890	 5.9370
 0.3900	 5.9000
 0.3910	 5.9030
 0.3920	 5.8940
 0.3930	 5.8840
 0.3940	 5.8940
 0.3950	 5.9330
 0.3960	 5.9530
 0.3970	 5.9610
 0.3980	 5.9870
 0.3990	 6.0140
 0.4000	 6.0240
 0.4010	 6.0220
 0.4020	 6.0480
 0.4030	 6.0710
 0.4040	 6.0850
 0.4050	 6.0910
 0.4060	 6.0990
 0.4070	 6.1180
 0.4080	 6.1460
 0.4090	 6.1730
 0.4100	 6.1870
 0.4110	 6.1990
 0.4120	 6.2160
 0.4130	 6.2430
 0.4140	 6.2740
 0.4150	 6.2960
 0.4160	 6.3000
 0.4170	 6.3300
 0.4180	 6.3660
 0.4190	 6.3950
 0.4200	 6.4140
 0.4210	 6.4180
 0.4220	 6.4250
 0.4230	 6.4420
 0.4240	 6.4510
 0.4250	 6.4690
 0.4260	 6.4890
 0.4270	 6.4970
 0.4280	 6.5040
 0.4290	 6.5120
 0.4300	 6.5210
 0.4310	 6.5330
 0.4320	 6.5340
 0.4330	 6.5350
 0.4340	 6.5450
 0.4350	 6.5480
 0.4360	 6.5520
 0.4370	 6.5570
 0.4380	 6.5570
 0.4390	 6.5700
 0.4400	 6.5810
 0.4410	 6.5800
 0.4420	 6.5850
 0.4430	 6.5870
 0.4440	 6.5880
 0.4450	 6.5890
 0.4460	 6.6010
 0.4470	 6.6140
 0.4480	 6.6200
 0.4490	 6.6130
 0.4500	 6.6130
 0.4510	 6.6180
 0.4520	 6.6220
 0.4530	 6.6230
 0.4540	 6.6230
 0.4550	 6.6260
 0.4560	 6.6390
 0.4570	 6.6420
 0.4580	 6.6360
 0.4590	 6.6280
 0.4600	 6.6310
 0.4610	 6.6330
 0.4620	 6.6330
 0.4630	 6.6320
 0.4640	 6.6310
 0.4650	 6.6270
 0.4660	 6.6200
 0.4670	 6.6190
 0.4680	 6.6210
 0.4690	 6.6240
 0.4700	 6.6250
 0.4710	 6.6190
 0.4720	 6.6180
 0.4730	 6.6190
 0.4740	 6.6120
 0.4750	 6.6090
 0.4760	 6.6110
 0.4770	 6.6140
 0.4780	 6.6100
 0.4790	 6.6060
 0.4800	 6.6010
 0.4810	 6.5960
 0.4820	 6.5960
 0.4830	 6.6010
 0.4840	 6.6040
 0.4850	 6.6030
 0.4860	 6.6010
 0.4870	 6.5980
 0.4880	 6.5950
 0.4890	 6.6040
 0.4900	 6.6080
 0.4910	 6.6090
 0.4920	 6.6140
 0.4930	 6.6160
 0.4940	 6.6190
 0.4950	 6.6260
 0.4960	 6.6370
 0.4970	 6.6420
 0.4980	 6.6440
 0.4990	 6.6500
 0.5000	 6.6620
 0.5010	 6.6740
 0.5020	 6.6860
 0.5030	 6.6970
 0.5040	 6.7070
 0.5050	 6.7220
 0.5060	 6.7430
 0.5070	 6.7640
 0.5080	 6.7860
 0.5090	 6.8100
 0.5100	 6.8360
 0.5110	 6.8700
 0.5120	 6.9070
 0.5130	 6.9440
 0.5140	 6.9840
 0.5150	 7.0330
 0.5160	 7.0890
 0.5170	 7.1500
 0.5180	 7.2180
 0.5190	 7.2900
 0.5200	 7.3670
 0.5210	 7.4480
 0.5220	 7.5270
 0.5230	 7.6110
 0.5240	 7.7020
 0.5250	 7.7900
 0.5260	 7.8780
 0.5270	 7.9640
 0.5280	 8.0460
 0.5290	 8.1240
 0.5300	 8.1940
 0.5310	 8.2570
 0.5320	 8.3190
 0.5330	 8.3770
 0.5340	 8.4280
 0.5350	 8.4720
 0.5360	 8.5090
 0.5370	 8.5430
 0.5380	 8.5730
 0.5390	 8.5980
 0.5400	 8.6180
 0.5410	 8.6370
 0.5420	 8.6580
 0.5430	 8.6760
 0.5440	 8.6910
 0.5450	 8.7020
 0.5460	 8.7120
 0.5470	 8.7200
 0.5480	 8.7290
 0.5490	 8.7390
 0.5500	 8.7490
 0.5510	 8.7550
 0.5520	 8.7550
 0.5530	 8.7470
 0.5540	 8.7360
 0.5550	 8.7150
 0.5560	 8.6870
 0.5570	 8.6560
 0.5580	 8.6150
 0.5590	 8.5690
 0.5600	 8.5170
 0.5610	 8.4590
 0.5620	 8.3970
 0.5630	 8.3330
 0.5640	 8.2640
 0.5650	 8.1950
 0.5660	 8.1270
 0.5670	 8.0590
 0.5680	 7.9880
 0.5690	 7.9170
 0.5700	 7.8500
 0.5710	 7.7890
 0.5720	 7.7310
 0.5730	 7.6760
 0.5740	 7.6240
 0.5750	 7.5740
 0.5760	 7.5310
 0.5770	 7.4920
 0.5780	 7.4560
 0.5790	 7.4280
 0.5800	 7.4030
 0.5810	 7.3780
 0.5820	 7.3510
 0.5830	 7.3240
 0.5840	 7.3010
 0.5850	 7.2800
 0.5860	 7.2620
 0.5870	 7.2400
 0.5880	 7.2190
 0.5890	 7.1990
 0.5900	 7.1770
 0.5910	 7.1550
 0.5920	 7.1360
 0.5930	 7.1220
 0.5940	 7.1130
 0.5950	 7.1090
 0.5960	 7.1070
 0.5970	 7.1050
 0.5980	 7.0990
 0.5990	 7.0920
 0.6000	 7.0890
 0.6010	 7.0830
 0.6020	 7.0730
 0.6030	 7.0590
 0.6040	 7.0430
 0.6050	 7.0250
 0.6060	 7.0050
 0.6070	 6.9840
 0.6080	 6.9600
 0.6090	 6.9380
 0.6100	 6.9150
 0.6110	 6.8880
 0.6120	 6.8670
 0.6130	 6.8480
 0.6140	 6.8300
 0.6150	 6.8150
 0.6160	 6.7980
 0.6170	 6.7800
 0.6180	 6.7630
 0.6190	 6.7530
 0.6200	 6.7430
 0.6210	 6.7310
 0.6220	 6.7200
 0.6230	 6.7130
 0.6240	 6.7070
 0.6250	 6.6990
 0.6260	 6.6940
 0.6270	 6.6890
 0.6280	 6.6850
 0.6290	 6.6830
 0.6300	 6.6780
 0.6310	 6.6740
 0.6320	 6.6710
 0.6330	 6.6700
 0.6340	 6.6650
 0.6350	 6.6590
 0.6360	 6.6520
 0.6370	 6.6400
 0.6380	 6.6290
 0.6390	 6.6180
 0.6400	 6.6060
 0.6410	 6.5950
 0.6420	 6.5830
 0.6430	 6.5690
 0.6440	 6.5570
 0.6450	 6.5470
 0.6460	 6.5380
 0.6470	 6.5300
 0.6480	 6.5210
 0.6490	 6.5150
 0.6500	 6.5120
 0.6510	 6.5080
 0.6520	 6.5020
 0.6530	 6.4990
 0.6540	 6.5010
 0.6550	 6.4990
 0.6560	 6.4960
 0.6570	 6.4930
 0.6580	 6.4910
 0.6590	 6.4880
 0.6600	 6.4850
 0.6610	 6.4830
 0.6620	 6.4810
 0.6630	 6.4820
 0.6640	 6.4840
 0.6650	 6.4890
 0.6660	 6.4960
 0.6670	 6.5020
 0.6680	 6.5110
 0.6690	 6.5250
 0.6700	 6.5410
 0.6710	 6.5600
 0.6720	 6.5820
 0.6730	 6.6050
 0.6740	 6.6310
 0.6750	 6.6600
 0.6760	 6.6910
 0.6770	 6.7260
 0.6780	 6.7640
 0.6790	 6.8040
 0.6800	 6.8430
 0.6810	 6.8860
 0.6820	 6.9320
 0.6830	 6.9770
 0.6840	 7.0180
 0.6850	 7.0560
 0.6860	 7.0900
 0.6870	 7.1240
 0.6880	 7.1540
 0.6890	 7.1840
 0.6900	 7.2200
 0.6910	 7.2640
 0.6920	 7.3240
 0.6930	 7.4050
 0.6940	 7.5120
 0.6950	 7.6540
 0.6960	 7.8370
 0.6970	 8.0650
 0.6980	 8.3430
 0.6990	 8.6740
 0.7000	 9.0570
 0.7010	 9.4930
 0.7020	 9.9770
 0.7030	10.5070
 0.7040	11.0800
 0.7050	11.6930
 0.7060	12.3400
 0.7070	13.0200
 0.7080	13.7280
 0.7090	14.4640
 0.7100	15.2260
 0.7110	16.0140
 0.7120	16.8270
 0.7130	17.6610
 0.7140	18.5170
 0.7150	19.3940
 0.7160	20.2880
 0.7170	21.2020
 0.7180	22.1290
 0.7190	23.0640
 0.7200	24.0090
 0.7210	24.9590
 0.7220	25.9120
 0.7230	26.8620
 0.7240	27.8050
 0.7250	28.7430
 0.7260	29.6670
 0.7270	30.5720
 0.7280	31.4580
 0.7290	32.3230
 0.7300	33.1660
 0.7310	33.9810
 0.7320	34.7680
 0.7330	35.5260
 0.7340	36.2530
 0.7350	36.9480
 0.7360	37.6120
 0.7370	38.2440
 0.7380	38.8430
 0.7390	39.4120
 0.7400	39.9470
 0.7410	40.4480
 0.7420	40.9200
 0.7430	41.3590
 0.7440	41.7670
 0.7450	42.1450
 0.7460	42.4940
 0.7470	42.8160
 0.7480	43.1090
 0.7490	43.3760
 0.7500	43.6240
 0.7510	43.8500
 0.7520	44.0540
 0.7530	44.2370
 0.7540	44.4050
 0.7550	44.5560
 0.7560	44.6910
 0.7570	44.8150
 0.7580	44.9260
 0.7590	45.0250
 0.7600	45.1140
 0.7610	45.1950
 0.7620	45.2690
 0.7630	45.3330
 0.7640	45.3880
 0.7650	45.4370
 0.7660	45.4810
 0.7670	45.5200
 0.7680	45.5520
 0.7690	45.5780
 0.7700	45.6030
 0.7710	45.6260
 0.7720	45.6470
 0.7730	45.6640
 0.7740	45.6800
 0.7750	45.6970
 0.7760	45.7110
 0.7770	45.7230
 0.7780	45.7330
 0.7790	45.7420
 0.7800	45.7520
 0.7810	45.7630
 0.7820	45.7760
 0.7830	45.7850
 0.7840	45.7950
 0.7850	45.8020
 0.7860	45.8060
 0.7870	45.8120
 0.7880	45.8170
 0.7890	45.8200
 0.7900	45.8230
 0.7910	45.8260
 0.7920	45.8280
 0.7930	45.8300
 0.7940	45.8310
 0.7950	45.8320
 0.7960	45.8330
 0.7970	45.8330
 0.7980	45.8310
 0.7990	45.8280
 0.8000	45.8230
 0.8010	45.8180
 0.8020	45.8180
 0.8030	45.8160
 0.8040	45.8130
 0.8050	45.8100
 0.8060	45.8040
 0.8070	45.7970
 0.8080	45.7900
 0.8090	45.7840
 0.8100	45.7780
 0.8110	45.7720
 0.8120	45.7640
 0.8130	45.7530
 0.8140	45.7420
 0.8150	45.7330
 0.8160	45.7260
 0.8170	45.7180
 0.8180	45.7110
 0.8190	45.7040
 0.8200	45.6940
 0.8210	45.6820
 0.8220	45.6730
 0.8230	45.6650
 0.8240	45.6560
 0.8250	45.6440
 0.8260	45.6350
 0.8270	45.6290
 0.8280	45.6200
 0.8290	45.6090
 0.8300	45.5990
 0.8310	45.5930
 0.8320	45.5830
 0.8330	45.5780
 0.8340	45.5740
 0.8350	45.5660
 0.8360	45.5590
 0.8370	45.5510
 0.8380	45.5440
 0.8390	45.5410
 0.8400	45.5360
 0.8410	45.5320
 0.8420	45.5290
 0.8430	45.5250
 0.8440	45.5230
 0.8450	45.5190
 0.8460	45.5160
 0.8470	45.5170
 0.8480	45.5180
 0.8490	45.5190
 0.8500	45.5170
 0.8510	45.5130
 0.8520	45.5100
 0.8530	45.5110
 0.8540	45.5130
 0.8550	45.5120
 0.8560	45.5120
 0.8570	45.5130
 0.8580	45.5160
 0.8590	45.5170
 0.8600	45.5200
 0.8610	45.5250
 0.8620	45.5290
 0.8630	45.5320
 0.8640	45.5360
 0.8650	45.5430
 0.8660	45.5430
 0.8670	45.5440
 0.8680	45.5480
 0.8690	45.5530
 0.8700	45.5590
 0.8710	45.5650
 0.8720	45.5710
 0.8730	45.5780
 0.8740	45.5830
 0.8750	45.5890
 0.8760	45.5960
 0.8770	45.6020
 0.8780	45.6060
 0.8790	45.6080
 0.8800	45.6120
 0.8810	45.6210
 0.8820	45.6290
 0.8830	45.6340
 0.8840	45.6370
 0.8850	45.6420
 0.8860	45.6490
 0.8870	45.6560
 0.8880	45.6600
 0.8890	45.6660
 0.8900	45.6740
 0.8910	45.6800
 0.8920	45.6810
 0.8930	45.6870
 0.8940	45.6930
 0.8950	45.6990
 0.8960	45.7020
 0.8970	45.7100
 0.8980	45.7150
 0.8990	45.7170
 0.9000	45.7260
 0.9010	45.7300
 0.9020	45.7340
 0.9030	45.7410
 0.9040	45.7430
 0.9050	45.7470
 0.9060	45.7520
 0.9070	45.7540
 0.9080	45.7550
 0.9090	45.7540
 0.9100	45.7570
 0.9110	45.7660
 0.9120	45.7660
 0.9130	45.7650
 0.9140	45.7650
 0.9150	45.7660
 0.9160	45.7680
 0.9170	45.7680
 0.9180	45.7670
 0.9190	45.7710
 0.9200	45.7750
 0.9210	45.7720
 0.9220	45.7660
 0.9230	45.7640
 0.9240	45.7670
 0.9250	45.7610
 0.9260	45.7490
 0.9270	45.7440
 0.9280	45.7340
 0.9290	45.7230
 0.9300	45.7140
 0.9310	45.7120
 0.9320	45.7020
 0.9330	45.6910
 0.9340	45.6820
 0.9350	45.6640
 0.9360	45.6520
 0.9370	45.6420
 0.9380	45.6300
 0.9390	45.6180
 0.9400	45.5950
 0.9410	45.5760
 0.9420	45.5660
 0.9430	45.5460
 0.9440	45.5290
 0.9450	45.5080
 0.9460	45.4810
 0.9470	45.4560
 0.9480	45.4360
 0.9490	45.4150
 0.9500	45.3880
 0.9510	45.3550
 0.9520	45.3210
 0.9530	45.2880
 0.9540	45.2550
 0.9550	45.2230
 0.9560	45.1920
 0.9570	45.1630
 0.9580	45.1340
 0.9590	45.1080
 0.9600	45.0780
 0.9610	45.0510
 0.9620	45.0310
 0.9630	45.0040
 0.9640	44.9860
 0.9650	44.9710
 0.9660	44.9470
 0.9670	44.9410
 0.9680	44.9260
 0.9690	44.9060
 0.9700	44.8940
 0.9710	44.8790
 0.9720	44.8710
 0.9730	44.8660
 0.9740	44.8570
 0.9750	44.8530
 0.9760	44.8520
 0.9770	44.8500
 0.9780	44.8450
 0.9790	44.8310
 0.9800	44.8170
 0.9810	44.8080
 0.9820	44.8090
 0.9830	44.8160
 0.9840	44.8190
 0.9850	44.8120
 0.9860	44.7960
 0.9870	44.7940
 0.9880	44.8040
 0.9890	44.8140
 0.9900	44.8140
 0.9910	44.8150
 0.9920	44.8100
 0.9930	44.8100
 0.9940	44.8260
 0.9950	44.8340
 0.9960	44.8510
 0.9970	44.8610
 0.9980	44.8430
 0.9990	44.8390
 1.0000	44.8510
 1.0010	45.6280
 1.0020	45.6320
 1.0030	45.6320
 1.0040	45.6390
 1.0050	45.6470
 1.0060	45.6520
 1.0070	45.6620
 1.0080	45.6700
 1.0090	45.6780
 1.0100	45.6840
 1.0110	45.6880
 1.0120	45.6940
 1.0130	45.6980
 1.0140	45.7030
 1.0150	45.7100
 1.0160	45.7180
 1.0170	45.7260
 1.0180	45.7310
 1.0190	45.7390
 1.0200	45.7460
 1.0210	45.7480
 1.0220	45.7520
 1.0230	45.7570
 1.0240	45.7640
 1.0250	45.7700
 1.0260	45.7780
 1.0270	45.7870
 1.0280	45.7970
 1.0290	45.8040
 1.0300	45.8070
 1.0310	45.8140
 1.0320	45.8220
 1.0330	45.8260
 1.0340	45.8370
 1.0350	45.8480
 1.0360	45.8510
 1.0370	45.8560
 1.0380	45.8610
 1.0390	45.8630
 1.0400	45.8670
 1.0410	45.8730
 1.0420	45.8780
 1.0430	45.8810
 1.0440	45.8860
 1.0450	45.8920
 1.0460	45.8960
 1.0470	45.8990
 1.0480	45.9030
 1.0490	45.9080
 1.0500	45.9120
 1.0510	45.9150
 1.0520	45.9190
 1.0530	45.9210
 1.0540	45.9190
 1.0550	45.9180
 1.0560	45.9150
 1.0570	45.9140
 1.0580	45.9140
 1.0590	45.9140
 1.0600	45.9160
 1.0610	45.9170
 1.0620	45.9200
 1.0630	45.9200
 1.0640	45.9190
 1.0650	45.9170
 1.0660	45.9120
 1.0670	45.9080
 1.0680	45.9050
 1.0690	45.9010
 1.0700	45.8990
 1.0710	45.8960
 1.0720	45.8950
 1.0730	45.8980
 1.0740	45.8950
 1.0750	45.8900
 1.0760	45.8860
 1.0770	45.8770
 1.0780	45.8720
 1.0790	45.8700
 1.0800	45.8660
 1.0810	45.8620
 1.0820	45.8580
 1.0830	45.8550
 1.0840	45.8490
 1.0850	45.8420
 1.0860	45.8380
 1.0870	45.8330
 1.0880	45.8250
 1.0890	45.8210
 1.0900	45.8180
 1.0910	45.8140
 1.0920	45.8100
 1.0930	45.8050
 1.0940	45.7980
 1.0950	45.7910
 1.0960	45.7820
 1.0970	45.7760
 1.0980	45.7730
 1.0990	45.7670
 1.1000	45.7590
 1.1010	45.7520
 1.1020	45.7420
 1.1030	45.7320
 1.1040	45.7270
 1.1050	45.7230
 1.1060	45.7150
 1.1070	45.7060
 1.1080	45.6990
 1.1090	45.6900
 1.1100	45.6820
 1.1110	45.6770
 1.1120	45.6690
 1.1130	45.6600
 1.1140	45.6510
 1.1150	45.6410
 1.1160	45.6300
 1.1170	45.6190
 1.1180	45.6080
 1.1190	45.5970
 1.1200	45.5830
 1.1210	45.5690
 1.1220	45.5550
 1.1230	45.5360
 1.1240	45.5170
 1.1250	45.4950
 1.1260	45.4700
 1.1270	45.4420
 1.1280	45.4110
 1.1290	45.3770
 1.1300	45.3400
 1.1310	45.2980
 1.1320	45.2520
 1.1330	45.2040
 1.1340	45.1540
 1.1350	45.0980
 1.1360	45.0410
 1.1370	44.9780
 1.1380	44.9100
 1.1390	44.8380
 1.1400	44.7630
 1.1410	44.6900
 1.1420	44.6140
 1.1430	44.5350
 1.1440	44.4570
 1.1450	44.3780
 1.1460	44.3010
 1.1470	44.2250
 1.1480	44.1510
 1.1490	44.0780
 1.1500	44.0090
 1.1510	43.9430
 1.1520	43.8800
 1.1530	43.8200
 1.1540	43.7640
 1.1550	43.7130
 1.1560	43.6630
 1.1570	43.6180
 1.1580	43.5750
 1.1590	43.5340
 1.1600	43.4970
 1.1610	43.4650
 1.1620	43.4350
 1.1630	43.4100
 1.1640	43.3840
 1.1650	43.3590
 1.1660	43.3350
 1.1670	43.3130
 1.1680	43.2920
 1.1690	43.2730
 1.1700	43.2560
 1.1710	43.2400
 1.1720	43.2240
 1.1730	43.2080
 1.1740	43.1920
 1.1750	43.1770
 1.1760	43.1600
 1.1770	43.1430
 1.1780	43.1240
 1.1790	43.1050
 1.1800	43.0890
 1.1810	43.0710
 1.1820	43.0550
 1.1830	43.0400
 1.1840	43.0220
 1.1850	43.0050
 1.1860	42.9880
 1.1870	42.9710
 1.1880	42.9560
 1.1890	42.9430
 1.1900	42.9310
 1.1910	42.9200
 1.1920	42.9100
 1.1930	42.9010
 1.1940	42.8930
 1.1950	42.8850
 1.1960	42.8770
 1.1970	42.8700
 1.1980	42.8650
 1.1990	42.8630
 1.2000	42.8620
 1.2010	42.8620
 1.2020	42.8610
 1.2030	42.8620
 1.2040	42.8650
 1.2050	42.8680
 1.2060	42.8700
 1.2070	42.8750
 1.2080	42.8780
 1.2090	42.8840
 1.2100	42.8930
 1.2110	42.9010
 1.2120	42.9090
 1.2130	42.9190
 1.2140	42.9300
 1.2150	42.9410
 1.2160	42.9550
 1.2170	42.9680
 1.2180	42.9840
 1.2190	42.9990
 1.2200	43.0130
 1.2210	43.0300
 1.2220	43.0450
 1.2230	43.0600
 1.2240	43.0800
 1.2250	43.0970
 1.2260	43.1130
 1.2270	43.1290
 1.2280	43.1420
 1.2290	43.1550
 1.2300	43.1680
 1.2310	43.1790
 1.2320	43.1910
 1.2330	43.2020
 1.2340	43.2140
 1.2350	43.2250
 1.2360	43.2350
 1.2370	43.2450
 1.2380	43.2540
 1.2390	43.2620
 1.2400	43.2710
 1.2410	43.2790
 1.2420	43.2870
 1.2430	43.2940
 1.2440	43.3000
 1.2450	43.3060
 1.2460	43.3090
 1.2470	43.3120
 1.2480	43.3170
 1.2490	43.3230
 1.2500	43.3300
 1.2510	43.3370
 1.2520	43.3420
 1.2530	43.3430
 1.2540	43.3450
 1.2550	43.3470
 1.2560	43.3490
 1.2570	43.3520
 1.2580	43.3500
 1.2590	43.3500
 1.2600	43.3490
 1.2610	43.3470
 1.2620	43.3440
 1.2630	43.3430
 1.2640	43.3400
 1.2650	43.3350
 1.2660	43.3310
 1.2670	43.3260
 1.2680	43.3210
 1.2690	43.3150
 1.2700	43.3110
 1.2710	43.3060
 1.2720	43.2980
 1.2730	43.2900
 1.2740	43.2800
 1.2750	43.2700
 1.2760	43.2620
 1.2770	43.2530
 1.2780	43.2440
 1.2790	43.2350
 1.2800	43.2230
 1.2810	43.2110
 1.2820	43.1990
 1.2830	43.1850
 1.2840	43.1690
 1.2850	43.1510
 1.2860	43.1330
 1.2870	43.1130
 1.2880	43.0930
 1.2890	43.0740
 1.2900	43.0510
 1.2910	43.0260
 1.2920	43.0020
 1.2930	42.9720
 1.2940	42.9410
 1.2950	42.9110
 1.2960	42.8780
 1.2970	42.8460
 1.2980	42.8150
 1.2990	42.7800
 1.3000	42.7440
 1.3010	42.7050
 1.3020	42.6640
 1.3030	42.6240
 1.3040	42.5810
 1.3050	42.5390
 1.3060	42.4970
 1.3070	42.4520
 1.3080	42.4060
 1.3090	42.3600
 1.3100	42.3110
 1.3110	42.2620
 1.3120	42.2110
 1.3130	42.1600
 1.3140	42.1060
 1.3150	42.0490
 1.3160	41.9920
 1.3170	41.9340
 1.3180	41.8730
 1.3190	41.8120
 1.3200	41.7480
 1.3210	41.6830
 1.3220	41.6170
 1.3230	41.5500
 1.3240	41.4830
 1.3250	41.4140
 1.3260	41.3430
 1.3270	41.2700
 1.3280	41.1960
 1.3290	41.1210
 1.3300	41.0450
 1.3310	40.9660
 1.3320	40.8850
 1.3330	40.8040
 1.3340	40.7230
 1.3350	40.6430
 1.3360	40.5620
 1.3370	40.4780
 1.3380	40.3960
 1.3390	40.3130
 1.3400	40.2290
 1.3410	40.1480
 1.3420	40.0660
 1.3430	39.9830
 1.3440	39.9020
 1.3450	39.8220
 1.3460	39.7420
 1.3470	39.6630
 1.3480	39.5830
 1.3490	39.5060
 1.3500	39.4280
 1.3510	39.3510
 1.3520	39.2750
 1.3530	39.2000
 1.3540	39.1220
 1.3550	39.0440
 1.3560	38.9660
 1.3570	38.8860
 1.3580	38.8070
 1.3590	38.7260
 1.3600	38.6430
 1.3610	38.5580
 1.3620	38.4680
 1.3630	38.3770
 1.3640	38.2810
 1.3650	38.1780
 1.3660	38.0710
 1.3670	37.9580
 1.3680	37.8370
 1.3690	37.7090
 1.3700	37.5740
 1.3710	37.4280
 1.3720	37.2700
 1.3730	37.1010
 1.3740	36.9180
 1.3750	36.7220
 1.3760	36.5110
 1.3770	36.2840
 1.3780	36.0390
 1.3790	35.7750
 1.3800	35.4930
 1.3810	35.1900
 1.3820	34.8710
 1.3830	34.5330
 1.3840	34.1780
 1.3850	33.8050
 1.3860	33.4160
 1.3870	33.0050
 1.3880	32.5850
 1.3890	32.1500
 1.3900	31.6990
 1.3910	31.2440
 1.3920	30.7780
 1.3930	30.3040
 1.3940	29.8280
 1.3950	29.3460
 1.3960	28.8650
 1.3970	28.3900
 1.3980	27.9170
 1.3990	27.4560
 1.4000	27.0010
 1.4010	26.5530
 1.4020	26.1200
 1.4030	25.6960
 1.4040	25.2860
 1.4050	24.8940
 1.4060	24.5170
 1.4070	24.1610
 1.4080	23.8200
 1.4090	23.4930
 1.4100	23.1860
 1.4110	22.8920
 1.4120	22.6160
 1.4130	22.3590
 1.4140	22.1150
 1.4150	21.8910
 1.4160	21.6810
 1.4170	21.4840
 1.4180	21.3020
 1.4190	21.1300
 1.4200	20.9680
 1.4210	20.8200
 1.4220	20.6810
 1.4230	20.5550
 1.4240	20.4380
 1.4250	20.3290
 1.4260	20.2300
 1.4270	20.1380
 1.4280	20.0550
 1.4290	19.9770
 1.4300	19.9060
 1.4310	19.8420
 1.4320	19.7840
 1.4330	19.7320
 1.4340	19.6870
 1.4350	19.6450
 1.4360	19.6080
 1.4370	19.5750
 1.4380	19.5480
 1.4390	19.5250
 1.4400	19.5060
 1.4410	19.4910
 1.4420	19.4790
 1.4430	19.4700
 1.4440	19.4630
 1.4450	19.4600
 1.4460	19.4590
 1.4470	19.4600
 1.4480	19.4630
 1.4490	19.4690
 1.4500	19.4770
 1.4510	19.4860
 1.4520	19.4970
 1.4530	19.5080
 1.4540	19.5200
 1.4550	19.5360
 1.4560	19.5540
 1.4570	19.5750
 1.4580	19.6010
 1.4590	19.6290
 1.4600	19.6620
 1.4610	19.6980
 1.4620	19.7370
 1.4630	19.7810
 1.4640	19.8290
 1.4650	19.8810
 1.4660	19.9400
 1.4670	20.0040
 1.4680	20.0730
 1.4690	20.1460
 1.4700	20.2210
 1.4710	20.3020
 1.4720	20.3860
 1.4730	20.4740
 1.4740	20.5650
 1.4750	20.6580
 1.4760	20.7550
 1.4770	20.8540
 1.4780	20.9550
