Name: Heteromeles arbutifolia 3
Type: vegetation
Class: Shrub
Genus: Heteromeles
Species: arbutifolia
Sample No.: VH210
Owner: UCSB
Wavelength Range: VSWIR
Origin: 34.4908; -119.7912; WGS84
Collection Date: 10/13/2013
Description: Samples were collected as part of the HyspIRI Airborne Campaign. 48 individual plants were sampled in three times in 2013 - spring  summer  and fall. The name of the sample includes a 1  2  or 3 which references a different individual of the species. Samples were taken to JPL and processed within 48 hours of collection. The same leaves were processed in the Nicolet and then measured using the ASD.
Measurement: Bidirectional reflectance
First Column: X
Second Column: Y
X Units: Wavelength (micrometers)
Y Units: Reflectance (percentage)
First X Value: 0.35
Last X Value: 2.5
Number of X Values: 2151
Additional Information: vegetation.shrub.heteromeles.arbutifolia.vswir.vh210.ucsb.asd.ancillary.txt

 0.3500	 9.5520
 0.3510	 9.2290
 0.3520	 9.2820
 0.3530	 9.3640
 0.3540	 9.1990
 0.3550	 9.3310
 0.3560	 9.2990
 0.3570	 9.1880
 0.3580	 9.3110
 0.3590	 9.3350
 0.3600	 9.2560
 0.3610	 9.1460
 0.3620	 9.1320
 0.3630	 9.1350
 0.3640	 9.1050
 0.3650	 9.0390
 0.3660	 9.0750
 0.3670	 9.1230
 0.3680	 9.1120
 0.3690	 9.0150
 0.3700	 9.0280
 0.3710	 8.9860
 0.3720	 8.8660
 0.3730	 8.9850
 0.3740	 9.0150
 0.3750	 8.9910
 0.3760	 9.0150
 0.3770	 8.9220
 0.3780	 8.8890
 0.3790	 8.9470
 0.3800	 8.9830
 0.3810	 8.8010
 0.3820	 8.7060
 0.3830	 8.8660
 0.3840	 9.0020
 0.3850	 8.9040
 0.3860	 8.7710
 0.3870	 8.8740
 0.3880	 8.9420
 0.3890	 8.9010
 0.3900	 8.8190
 0.3910	 8.8770
 0.3920	 8.9150
 0.3930	 8.9040
 0.3940	 8.8610
 0.3950	 8.8420
 0.3960	 8.7800
 0.3970	 8.7360
 0.3980	 8.8030
 0.3990	 8.8510
 0.4000	 8.8420
 0.4010	 8.8150
 0.4020	 8.8960
 0.4030	 8.8550
 0.4040	 8.7850
 0.4050	 8.8050
 0.4060	 8.8520
 0.4070	 8.8730
 0.4080	 8.8670
 0.4090	 8.8680
 0.4100	 8.9140
 0.4110	 8.9480
 0.4120	 8.9340
 0.4130	 8.8830
 0.4140	 8.9260
 0.4150	 9.0020
 0.4160	 9.0120
 0.4170	 8.9800
 0.4180	 8.9910
 0.4190	 9.0370
 0.4200	 9.0260
 0.4210	 9.0420
 0.4220	 9.0670
 0.4230	 9.0770
 0.4240	 9.0900
 0.4250	 9.0880
 0.4260	 9.0940
 0.4270	 9.1390
 0.4280	 9.1620
 0.4290	 9.1670
 0.4300	 9.1630
 0.4310	 9.1570
 0.4320	 9.1500
 0.4330	 9.1440
 0.4340	 9.1420
 0.4350	 9.1320
 0.4360	 9.1510
 0.4370	 9.1780
 0.4380	 9.1580
 0.4390	 9.1660
 0.4400	 9.1900
 0.4410	 9.2100
 0.4420	 9.2340
 0.4430	 9.2390
 0.4440	 9.2410
 0.4450	 9.2620
 0.4460	 9.2680
 0.4470	 9.2650
 0.4480	 9.2660
 0.4490	 9.2900
 0.4500	 9.2810
 0.4510	 9.2680
 0.4520	 9.2830
 0.4530	 9.3030
 0.4540	 9.3080
 0.4550	 9.3030
 0.4560	 9.3090
 0.4570	 9.3240
 0.4580	 9.3260
 0.4590	 9.3070
 0.4600	 9.2890
 0.4610	 9.3000
 0.4620	 9.3200
 0.4630	 9.3190
 0.4640	 9.3290
 0.4650	 9.3260
 0.4660	 9.3130
 0.4670	 9.3200
 0.4680	 9.3100
 0.4690	 9.3070
 0.4700	 9.3210
 0.4710	 9.2920
 0.4720	 9.2870
 0.4730	 9.3070
 0.4740	 9.3130
 0.4750	 9.3050
 0.4760	 9.3000
 0.4770	 9.3050
 0.4780	 9.3050
 0.4790	 9.2910
 0.4800	 9.2810
 0.4810	 9.2900
 0.4820	 9.3060
 0.4830	 9.3000
 0.4840	 9.2820
 0.4850	 9.2910
 0.4860	 9.2990
 0.4870	 9.2980
 0.4880	 9.2920
 0.4890	 9.3130
 0.4900	 9.3250
 0.4910	 9.3280
 0.4920	 9.3380
 0.4930	 9.3520
 0.4940	 9.3670
 0.4950	 9.3850
 0.4960	 9.4060
 0.4970	 9.4280
 0.4980	 9.4500
 0.4990	 9.4730
 0.5000	 9.4940
 0.5010	 9.5290
 0.5020	 9.5690
 0.5030	 9.5900
 0.5040	 9.6400
 0.5050	 9.6970
 0.5060	 9.7440
 0.5070	 9.7980
 0.5080	 9.8580
 0.5090	 9.9280
 0.5100	10.0090
 0.5110	10.0910
 0.5120	10.1840
 0.5130	10.2910
 0.5140	10.3950
 0.5150	10.5190
 0.5160	10.6560
 0.5170	10.7920
 0.5180	10.9500
 0.5190	11.1140
 0.5200	11.2780
 0.5210	11.4480
 0.5220	11.6230
 0.5230	11.8060
 0.5240	11.9920
 0.5250	12.1610
 0.5260	12.3340
 0.5270	12.5070
 0.5280	12.6650
 0.5290	12.8100
 0.5300	12.9500
 0.5310	13.0850
 0.5320	13.2060
 0.5330	13.3100
 0.5340	13.4040
 0.5350	13.4920
 0.5360	13.5690
 0.5370	13.6320
 0.5380	13.6850
 0.5390	13.7420
 0.5400	13.7850
 0.5410	13.8150
 0.5420	13.8390
 0.5430	13.8650
 0.5440	13.8990
 0.5450	13.9360
 0.5460	13.9730
 0.5470	14.0310
 0.5480	14.0910
 0.5490	14.1380
 0.5500	14.1700
 0.5510	14.1960
 0.5520	14.2120
 0.5530	14.2150
 0.5540	14.2110
 0.5550	14.1930
 0.5560	14.1560
 0.5570	14.1020
 0.5580	14.0350
 0.5590	13.9610
 0.5600	13.8760
 0.5610	13.7750
 0.5620	13.6720
 0.5630	13.5650
 0.5640	13.4450
 0.5650	13.3140
 0.5660	13.1850
 0.5670	13.0620
 0.5680	12.9400
 0.5690	12.8150
 0.5700	12.6900
 0.5710	12.5680
 0.5720	12.4410
 0.5730	12.3300
 0.5740	12.2370
 0.5750	12.1480
 0.5760	12.0560
 0.5770	11.9700
 0.5780	11.8920
 0.5790	11.8120
 0.5800	11.7470
 0.5810	11.6910
 0.5820	11.6300
 0.5830	11.5630
 0.5840	11.4950
 0.5850	11.4300
 0.5860	11.3700
 0.5870	11.3240
 0.5880	11.2920
 0.5890	11.2680
 0.5900	11.2500
 0.5910	11.2280
 0.5920	11.2010
 0.5930	11.1720
 0.5940	11.1430
 0.5950	11.1300
 0.5960	11.1270
 0.5970	11.1030
 0.5980	11.0790
 0.5990	11.0580
 0.6000	11.0380
 0.6010	11.0110
 0.6020	10.9810
 0.6030	10.9490
 0.6040	10.9140
 0.6050	10.8800
 0.6060	10.8460
 0.6070	10.8080
 0.6080	10.7590
 0.6090	10.7040
 0.6100	10.6420
 0.6110	10.5690
 0.6120	10.5230
 0.6130	10.4980
 0.6140	10.4780
 0.6150	10.4360
 0.6160	10.3970
 0.6170	10.3670
 0.6180	10.3420
 0.6190	10.3080
 0.6200	10.2740
 0.6210	10.2470
 0.6220	10.2310
 0.6230	10.2180
 0.6240	10.2040
 0.6250	10.1900
 0.6260	10.1830
 0.6270	10.1740
 0.6280	10.1650
 0.6290	10.1650
 0.6300	10.1550
 0.6310	10.1460
 0.6320	10.1430
 0.6330	10.1410
 0.6340	10.1280
 0.6350	10.1090
 0.6360	10.0880
 0.6370	10.0670
 0.6380	10.0340
 0.6390	 9.9950
 0.6400	 9.9620
 0.6410	 9.9280
 0.6420	 9.8920
 0.6430	 9.8550
 0.6440	 9.8150
 0.6450	 9.7760
 0.6460	 9.7410
 0.6470	 9.7080
 0.6480	 9.6790
 0.6490	 9.6510
 0.6500	 9.6260
 0.6510	 9.6080
 0.6520	 9.5940
 0.6530	 9.5810
 0.6540	 9.5670
 0.6550	 9.5500
 0.6560	 9.5330
 0.6570	 9.5170
 0.6580	 9.4980
 0.6590	 9.4780
 0.6600	 9.4570
 0.6610	 9.4360
 0.6620	 9.4190
 0.6630	 9.4080
 0.6640	 9.4000
 0.6650	 9.3910
 0.6660	 9.3790
 0.6670	 9.3730
 0.6680	 9.3720
 0.6690	 9.3690
 0.6700	 9.3830
 0.6710	 9.3960
 0.6720	 9.4030
 0.6730	 9.4220
 0.6740	 9.4410
 0.6750	 9.4610
 0.6760	 9.4860
 0.6770	 9.5130
 0.6780	 9.5430
 0.6790	 9.5760
 0.6800	 9.6130
 0.6810	 9.6550
 0.6820	 9.6980
 0.6830	 9.7420
 0.6840	 9.7930
 0.6850	 9.8470
 0.6860	 9.9040
 0.6870	 9.9710
 0.6880	10.0540
 0.6890	10.1470
 0.6900	10.2600
 0.6910	10.4100
 0.6920	10.5940
 0.6930	10.8190
 0.6940	11.0960
 0.6950	11.4390
 0.6960	11.8480
 0.6970	12.3220
 0.6980	12.8640
 0.6990	13.4860
 0.7000	14.1790
 0.7010	14.9380
 0.7020	15.7590
 0.7030	16.6350
 0.7040	17.5550
 0.7050	18.5120
 0.7060	19.5150
 0.7070	20.5520
 0.7080	21.6160
 0.7090	22.7070
 0.7100	23.8290
 0.7110	24.9720
 0.7120	26.1310
 0.7130	27.3080
 0.7140	28.5020
 0.7150	29.7100
 0.7160	30.9270
 0.7170	32.1360
 0.7180	33.3620
 0.7190	34.5930
 0.7200	35.8030
 0.7210	37.0040
 0.7220	38.1950
 0.7230	39.3750
 0.7240	40.5400
 0.7250	41.6650
 0.7260	42.7640
 0.7270	43.8460
 0.7280	44.8730
 0.7290	45.8760
 0.7300	46.8470
 0.7310	47.7650
 0.7320	48.6490
 0.7330	49.4930
 0.7340	50.2990
 0.7350	51.0740
 0.7360	51.7930
 0.7370	52.4760
 0.7380	53.1390
 0.7390	53.7430
 0.7400	54.3160
 0.7410	54.8610
 0.7420	55.3680
 0.7430	55.8300
 0.7440	56.2650
 0.7450	56.6790
 0.7460	57.0620
 0.7470	57.4050
 0.7480	57.7140
 0.7490	57.9990
 0.7500	58.2770
 0.7510	58.5330
 0.7520	58.7560
 0.7530	58.9450
 0.7540	59.1390
 0.7550	59.3140
 0.7560	59.4650
 0.7570	59.6050
 0.7580	59.7290
 0.7590	59.8390
 0.7600	59.9410
 0.7610	60.0440
 0.7620	60.1330
 0.7630	60.2080
 0.7640	60.2740
 0.7650	60.3270
 0.7660	60.3780
 0.7670	60.4310
 0.7680	60.4830
 0.7690	60.5210
 0.7700	60.5510
 0.7710	60.5830
 0.7720	60.6180
 0.7730	60.6430
 0.7740	60.6600
 0.7750	60.6760
 0.7760	60.6980
 0.7770	60.7250
 0.7780	60.7580
 0.7790	60.7900
 0.7800	60.8040
 0.7810	60.8100
 0.7820	60.8220
 0.7830	60.8490
 0.7840	60.8630
 0.7850	60.8820
 0.7860	60.9140
 0.7870	60.9340
 0.7880	60.9330
 0.7890	60.9340
 0.7900	60.9600
 0.7910	60.9720
 0.7920	60.9990
 0.7930	61.0280
 0.7940	61.0300
 0.7950	61.0430
 0.7960	61.0580
 0.7970	61.0720
 0.7980	61.0930
 0.7990	61.1050
 0.8000	61.1180
 0.8010	61.1380
 0.8020	61.1470
 0.8030	61.1750
 0.8040	61.2080
 0.8050	61.2220
 0.8060	61.2220
 0.8070	61.2310
 0.8080	61.2520
 0.8090	61.2680
 0.8100	61.2840
 0.8110	61.2980
 0.8120	61.3160
 0.8130	61.3510
 0.8140	61.3710
 0.8150	61.3770
 0.8160	61.3860
 0.8170	61.4150
 0.8180	61.4380
 0.8190	61.4440
 0.8200	61.4430
 0.8210	61.4800
 0.8220	61.5080
 0.8230	61.5230
 0.8240	61.5630
 0.8250	61.5800
 0.8260	61.5870
 0.8270	61.6000
 0.8280	61.6090
 0.8290	61.6360
 0.8300	61.6710
 0.8310	61.6980
 0.8320	61.6990
 0.8330	61.7070
 0.8340	61.7250
 0.8350	61.7420
 0.8360	61.7570
 0.8370	61.7810
 0.8380	61.8120
 0.8390	61.8410
 0.8400	61.8510
 0.8410	61.8640
 0.8420	61.8910
 0.8430	61.9250
 0.8440	61.9430
 0.8450	61.9550
 0.8460	61.9730
 0.8470	61.9980
 0.8480	62.0390
 0.8490	62.0700
 0.8500	62.0690
 0.8510	62.0730
 0.8520	62.0910
 0.8530	62.1130
 0.8540	62.1240
 0.8550	62.1490
 0.8560	62.1720
 0.8570	62.1820
 0.8580	62.1820
 0.8590	62.2020
 0.8600	62.2230
 0.8610	62.2350
 0.8620	62.2620
 0.8630	62.2880
 0.8640	62.3000
 0.8650	62.2980
 0.8660	62.3140
 0.8670	62.3220
 0.8680	62.3270
 0.8690	62.3380
 0.8700	62.3650
 0.8710	62.3710
 0.8720	62.3680
 0.8730	62.3880
 0.8740	62.3920
 0.8750	62.3940
 0.8760	62.4040
 0.8770	62.4210
 0.8780	62.4300
 0.8790	62.4300
 0.8800	62.4360
 0.8810	62.4770
 0.8820	62.4850
 0.8830	62.4800
 0.8840	62.4860
 0.8850	62.4920
 0.8860	62.4770
 0.8870	62.4640
 0.8880	62.4770
 0.8890	62.4850
 0.8900	62.4870
 0.8910	62.4900
 0.8920	62.4990
 0.8930	62.5070
 0.8940	62.5060
 0.8950	62.5040
 0.8960	62.5210
 0.8970	62.5190
 0.8980	62.5080
 0.8990	62.5060
 0.9000	62.5230
 0.9010	62.5200
 0.9020	62.5100
 0.9030	62.5090
 0.9040	62.5160
 0.9050	62.5200
 0.9060	62.5180
 0.9070	62.5150
 0.9080	62.5120
 0.9090	62.5160
 0.9100	62.5240
 0.9110	62.5250
 0.9120	62.4890
 0.9130	62.4940
 0.9140	62.5190
 0.9150	62.5230
 0.9160	62.5440
 0.9170	62.5510
 0.9180	62.5340
 0.9190	62.5020
 0.9200	62.4990
 0.9210	62.4800
 0.9220	62.4540
 0.9230	62.4610
 0.9240	62.4820
 0.9250	62.4910
 0.9260	62.4790
 0.9270	62.4570
 0.9280	62.4700
 0.9290	62.4860
 0.9300	62.4750
 0.9310	62.4260
 0.9320	62.4080
 0.9330	62.4050
 0.9340	62.3950
 0.9350	62.3580
 0.9360	62.3530
 0.9370	62.3370
 0.9380	62.2950
 0.9390	62.2670
 0.9400	62.2770
 0.9410	62.2720
 0.9420	62.2260
 0.9430	62.1970
 0.9440	62.1790
 0.9450	62.1590
 0.9460	62.1230
 0.9470	62.0770
 0.9480	62.0330
 0.9490	61.9890
 0.9500	61.9430
 0.9510	61.9050
 0.9520	61.8530
 0.9530	61.7950
 0.9540	61.7450
 0.9550	61.7030
 0.9560	61.6350
 0.9570	61.5620
 0.9580	61.5090
 0.9590	61.4440
 0.9600	61.4170
 0.9610	61.3830
 0.9620	61.3070
 0.9630	61.3230
 0.9640	61.3000
 0.9650	61.2550
 0.9660	61.2460
 0.9670	61.2240
 0.9680	61.1790
 0.9690	61.1530
 0.9700	61.1790
 0.9710	61.1610
 0.9720	61.1720
 0.9730	61.1740
 0.9740	61.1130
 0.9750	61.1230
 0.9760	61.1440
 0.9770	61.1630
 0.9780	61.1880
 0.9790	61.1970
 0.9800	61.1890
 0.9810	61.1720
 0.9820	61.1660
 0.9830	61.2080
 0.9840	61.2160
 0.9850	61.2150
 0.9860	61.2590
 0.9870	61.2590
 0.9880	61.2730
 0.9890	61.2980
 0.9900	61.3130
 0.9910	61.3430
 0.9920	61.3400
 0.9930	61.3380
 0.9940	61.3360
 0.9950	61.3330
 0.9960	61.3310
 0.9970	61.3280
 0.9980	61.3260
 0.9990	61.3240
 1.0000	61.3210
 1.0010	61.3190
 1.0020	61.3160
 1.0030	61.3140
 1.0040	61.3120
 1.0050	61.3090
 1.0060	61.3070
 1.0070	61.3050
 1.0080	61.3020
 1.0090	61.3000
 1.0100	61.3000
 1.0110	61.3300
 1.0120	61.3620
 1.0130	61.3830
 1.0140	61.4130
 1.0150	61.4410
 1.0160	61.4910
 1.0170	61.5340
 1.0180	61.5720
 1.0190	61.6220
 1.0200	61.6520
 1.0210	61.6620
 1.0220	61.6800
 1.0230	61.6980
 1.0240	61.7070
 1.0250	61.7210
 1.0260	61.7420
 1.0270	61.7580
 1.0280	61.7590
 1.0290	61.7780
 1.0300	61.8100
 1.0310	61.8390
 1.0320	61.8740
 1.0330	61.9160
 1.0340	61.9540
 1.0350	61.9790
 1.0360	61.9980
 1.0370	62.0070
 1.0380	62.0220
 1.0390	62.0290
 1.0400	62.0410
 1.0410	62.0660
 1.0420	62.0750
 1.0430	62.0680
 1.0440	62.0760
 1.0450	62.0830
 1.0460	62.0930
 1.0470	62.1210
 1.0480	62.1320
 1.0490	62.1240
 1.0500	62.1280
 1.0510	62.1300
 1.0520	62.1360
 1.0530	62.1460
 1.0540	62.1670
 1.0550	62.1810
 1.0560	62.1900
 1.0570	62.2070
 1.0580	62.2370
 1.0590	62.2510
 1.0600	62.2600
 1.0610	62.2700
 1.0620	62.2690
 1.0630	62.2730
 1.0640	62.2760
 1.0650	62.2860
 1.0660	62.2980
 1.0670	62.3100
 1.0680	62.3250
 1.0690	62.3510
 1.0700	62.3640
 1.0710	62.3750
 1.0720	62.3760
 1.0730	62.3670
 1.0740	62.3680
 1.0750	62.3660
 1.0760	62.3680
 1.0770	62.3820
 1.0780	62.3850
 1.0790	62.3810
 1.0800	62.3800
 1.0810	62.3720
 1.0820	62.3710
 1.0830	62.3760
 1.0840	62.3780
 1.0850	62.3810
 1.0860	62.3860
 1.0870	62.3850
 1.0880	62.3810
 1.0890	62.3780
 1.0900	62.3720
 1.0910	62.3720
 1.0920	62.3750
 1.0930	62.3770
 1.0940	62.3860
 1.0950	62.3850
 1.0960	62.3780
 1.0970	62.3730
 1.0980	62.3720
 1.0990	62.3610
 1.1000	62.3410
 1.1010	62.3260
 1.1020	62.3110
 1.1030	62.2840
 1.1040	62.2580
 1.1050	62.2490
 1.1060	62.2360
 1.1070	62.2210
 1.1080	62.2110
 1.1090	62.2140
 1.1100	62.2030
 1.1110	62.1900
 1.1120	62.1670
 1.1130	62.1330
 1.1140	62.1070
 1.1150	62.0790
 1.1160	62.0500
 1.1170	62.0250
 1.1180	61.9960
 1.1190	61.9590
 1.1200	61.9280
 1.1210	61.8900
 1.1220	61.8490
 1.1230	61.8090
 1.1240	61.7530
 1.1250	61.6940
 1.1260	61.6310
 1.1270	61.5580
 1.1280	61.4700
 1.1290	61.3890
 1.1300	61.3080
 1.1310	61.2200
 1.1320	61.1320
 1.1330	61.0340
 1.1340	60.9300
 1.1350	60.8140
 1.1360	60.6880
 1.1370	60.5570
 1.1380	60.4150
 1.1390	60.2690
 1.1400	60.1300
 1.1410	59.9870
 1.1420	59.8380
 1.1430	59.6900
 1.1440	59.5370
 1.1450	59.3700
 1.1460	59.2210
 1.1470	59.0790
 1.1480	58.9320
 1.1490	58.7860
 1.1500	58.6490
 1.1510	58.5040
 1.1520	58.3770
 1.1530	58.2670
 1.1540	58.1610
 1.1550	58.0620
 1.1560	57.9730
 1.1570	57.8950
 1.1580	57.8230
 1.1590	57.7610
 1.1600	57.7030
 1.1610	57.6410
 1.1620	57.5860
 1.1630	57.5370
 1.1640	57.4940
 1.1650	57.4530
 1.1660	57.4170
 1.1670	57.3880
 1.1680	57.3660
 1.1690	57.3440
 1.1700	57.3340
 1.1710	57.3150
 1.1720	57.2940
 1.1730	57.2710
 1.1740	57.2450
 1.1750	57.2200
 1.1760	57.2010
 1.1770	57.1770
 1.1780	57.1550
 1.1790	57.1320
 1.1800	57.1050
 1.1810	57.0860
 1.1820	57.0660
 1.1830	57.0420
 1.1840	57.0190
 1.1850	56.9940
 1.1860	56.9650
 1.1870	56.9430
 1.1880	56.9240
 1.1890	56.9060
 1.1900	56.8880
 1.1910	56.8740
 1.1920	56.8620
 1.1930	56.8460
 1.1940	56.8390
 1.1950	56.8390
 1.1960	56.8380
 1.1970	56.8420
 1.1980	56.8460
 1.1990	56.8530
 1.2000	56.8630
 1.2010	56.8680
 1.2020	56.8780
 1.2030	56.8920
 1.2040	56.9060
 1.2050	56.9260
 1.2060	56.9510
 1.2070	56.9790
 1.2080	57.0090
 1.2090	57.0400
 1.2100	57.0710
 1.2110	57.1060
 1.2120	57.1420
 1.2130	57.1810
 1.2140	57.2240
 1.2150	57.2670
 1.2160	57.3110
 1.2170	57.3570
 1.2180	57.4060
 1.2190	57.4590
 1.2200	57.5120
 1.2210	57.5620
 1.2220	57.6100
 1.2230	57.6580
 1.2240	57.7060
 1.2250	57.7510
 1.2260	57.7960
 1.2270	57.8420
 1.2280	57.8920
 1.2290	57.9380
 1.2300	57.9770
 1.2310	58.0150
 1.2320	58.0460
 1.2330	58.0820
 1.2340	58.1200
 1.2350	58.1640
 1.2360	58.2020
 1.2370	58.2420
 1.2380	58.2730
 1.2390	58.3010
 1.2400	58.3320
 1.2410	58.3590
 1.2420	58.3910
 1.2430	58.4230
 1.2440	58.4530
 1.2450	58.4830
 1.2460	58.5120
 1.2470	58.5380
 1.2480	58.5570
 1.2490	58.5760
 1.2500	58.5930
 1.2510	58.6040
 1.2520	58.6150
 1.2530	58.6260
 1.2540	58.6390
 1.2550	58.6550
 1.2560	58.6750
 1.2570	58.6930
 1.2580	58.7070
 1.2590	58.7210
 1.2600	58.7310
 1.2610	58.7420
 1.2620	58.7520
 1.2630	58.7660
 1.2640	58.7750
 1.2650	58.7830
 1.2660	58.7900
 1.2670	58.7930
 1.2680	58.7900
 1.2690	58.7870
 1.2700	58.7830
 1.2710	58.7730
 1.2720	58.7660
 1.2730	58.7600
 1.2740	58.7500
 1.2750	58.7420
 1.2760	58.7350
 1.2770	58.7210
 1.2780	58.7080
 1.2790	58.6920
 1.2800	58.6640
 1.2810	58.6370
 1.2820	58.6130
 1.2830	58.5910
 1.2840	58.5730
 1.2850	58.5600
 1.2860	58.5480
 1.2870	58.5300
 1.2880	58.5100
 1.2890	58.4860
 1.2900	58.4570
 1.2910	58.4230
 1.2920	58.3880
 1.2930	58.3550
 1.2940	58.3230
 1.2950	58.2910
 1.2960	58.2530
 1.2970	58.2130
 1.2980	58.1740
 1.2990	58.1330
 1.3000	58.0930
 1.3010	58.0480
 1.3020	57.9980
 1.3030	57.9480
 1.3040	57.8920
 1.3050	57.8390
 1.3060	57.7880
 1.3070	57.7260
 1.3080	57.6580
 1.3090	57.5870
 1.3100	57.5140
 1.3110	57.4370
 1.3120	57.3560
 1.3130	57.2720
 1.3140	57.1780
 1.3150	57.0690
 1.3160	56.9650
 1.3170	56.8580
 1.3180	56.7470
 1.3190	56.6350
 1.3200	56.5190
 1.3210	56.3980
 1.3220	56.2710
 1.3230	56.1440
 1.3240	56.0150
 1.3250	55.8790
 1.3260	55.7410
 1.3270	55.5960
 1.3280	55.4450
 1.3290	55.2920
 1.3300	55.1330
 1.3310	54.9710
 1.3320	54.8110
 1.3330	54.6510
 1.3340	54.4880
 1.3350	54.3240
 1.3360	54.1470
 1.3370	53.9670
 1.3380	53.7960
 1.3390	53.6220
 1.3400	53.4490
 1.3410	53.2800
 1.3420	53.1080
 1.3430	52.9370
 1.3440	52.7690
 1.3450	52.6020
 1.3460	52.4360
 1.3470	52.2720
 1.3480	52.1100
 1.3490	51.9480
 1.3500	51.7890
 1.3510	51.6270
 1.3520	51.4640
 1.3530	51.3090
 1.3540	51.1560
 1.3550	51.0010
 1.3560	50.8450
 1.3570	50.6850
 1.3580	50.5240
 1.3590	50.3570
 1.3600	50.1850
 1.3610	50.0120
 1.3620	49.8320
 1.3630	49.6450
 1.3640	49.4540
 1.3650	49.2530
 1.3660	49.0450
 1.3670	48.8310
 1.3680	48.6060
 1.3690	48.3680
 1.3700	48.1160
 1.3710	47.8480
 1.3720	47.5670
 1.3730	47.2690
 1.3740	46.9530
 1.3750	46.6190
 1.3760	46.2620
 1.3770	45.8780
 1.3780	45.4670
 1.3790	45.0290
 1.3800	44.5640
 1.3810	44.0690
 1.3820	43.5530
 1.3830	43.0140
 1.3840	42.4500
 1.3850	41.8600
 1.3860	41.2540
 1.3870	40.6200
 1.3880	39.9820
 1.3890	39.3310
 1.3900	38.6660
 1.3910	37.9960
 1.3920	37.3170
 1.3930	36.6330
 1.3940	35.9510
 1.3950	35.2660
 1.3960	34.5900
 1.3970	33.9200
 1.3980	33.2580
 1.3990	32.6210
 1.4000	31.9960
 1.4010	31.3860
 1.4020	30.8020
 1.4030	30.2310
 1.4040	29.6840
 1.4050	29.1660
 1.4060	28.6690
 1.4070	28.2030
 1.4080	27.7620
 1.4090	27.3440
 1.4100	26.9540
 1.4110	26.5850
 1.4120	26.2420
 1.4130	25.9230
 1.4140	25.6250
 1.4150	25.3540
 1.4160	25.1030
 1.4170	24.8670
 1.4180	24.6510
 1.4190	24.4480
 1.4200	24.2630
 1.4210	24.0990
 1.4220	23.9480
 1.4230	23.8140
 1.4240	23.6910
 1.4250	23.5770
 1.4260	23.4740
 1.4270	23.3800
 1.4280	23.2960
 1.4290	23.2220
 1.4300	23.1590
 1.4310	23.1020
 1.4320	23.0540
 1.4330	23.0140
 1.4340	22.9800
 1.4350	22.9530
 1.4360	22.9340
 1.4370	22.9200
 1.4380	22.9100
 1.4390	22.9040
 1.4400	22.9020
 1.4410	22.9040
 1.4420	22.9120
 1.4430	22.9240
 1.4440	22.9390
 1.4450	22.9550
 1.4460	22.9750
 1.4470	22.9980
 1.4480	23.0230
 1.4490	23.0490
 1.4500	23.0760
 1.4510	23.1020
 1.4520	23.1290
 1.4530	23.1590
 1.4540	23.1890
 1.4550	23.2230
 1.4560	23.2580
 1.4570	23.2960
 1.4580	23.3400
 1.4590	23.3880
 1.4600	23.4390
 1.4610	23.4970
 1.4620	23.5570
 1.4630	23.6210
 1.4640	23.6910
 1.4650	23.7650
 1.4660	23.8450
 1.4670	23.9280
 1.4680	24.0180
 1.4690	24.1130
