Name: Abies concolor 1
Type: vegetation
Class: Tree
Genus: Abies
Species: concolor
Sample No.: VH054
Owner: UCSB
Wavelength Range: VSWIR
Origin: 37.044; -119.3035; WGS84
Collection Date: 4/20/2013
Description: Samples were collected as part of the HyspIRI Airborne Campaign. 48 individual plants were sampled in three times in 2013 - spring  summer  and fall. The name of the sample includes a 1  2  or 3 which references a different individual of the species. Samples were taken to JPL and processed within 48 hours of collection. The same leaves were processed in the Nicolet and then measured using the ASD.
Measurement: Bidirectional reflectance
First Column: X
Second Column: Y
X Units: Wavelength (micrometers)
Y Units: Reflectance (percentage)
First X Value: 0.35
Last X Value: 2.5
Number of X Values: 2151
Additional Information: vegetation.tree.abies.concolor.vswir.vh054.ucsb.asd.ancillary.txt

 0.3500	 4.5600
 0.3510	 4.2390
 0.3520	 4.3070
 0.3530	 4.4240
 0.3540	 4.2750
 0.3550	 4.1650
 0.3560	 4.1800
 0.3570	 4.2260
 0.3580	 4.1580
 0.3590	 4.3060
 0.3600	 4.3890
 0.3610	 4.2850
 0.3620	 4.1620
 0.3630	 4.1690
 0.3640	 4.1680
 0.3650	 4.0470
 0.3660	 4.1000
 0.3670	 4.0830
 0.3680	 4.0010
 0.3690	 4.0220
 0.3700	 4.0130
 0.3710	 4.0640
 0.3720	 4.1670
 0.3730	 4.0810
 0.3740	 3.9940
 0.3750	 3.9830
 0.3760	 4.0450
 0.3770	 3.9700
 0.3780	 3.9330
 0.3790	 3.9840
 0.3800	 4.0520
 0.3810	 4.0110
 0.3820	 3.9890
 0.3830	 4.0560
 0.3840	 4.0670
 0.3850	 4.0340
 0.3860	 3.9910
 0.3870	 3.9840
 0.3880	 4.0540
 0.3890	 4.0770
 0.3900	 4.0460
 0.3910	 4.0800
 0.3920	 4.0490
 0.3930	 3.9950
 0.3940	 3.9750
 0.3950	 3.9910
 0.3960	 4.0130
 0.3970	 4.0440
 0.3980	 4.0950
 0.3990	 4.1090
 0.4000	 4.1200
 0.4010	 4.1410
 0.4020	 4.1490
 0.4030	 4.2160
 0.4040	 4.2870
 0.4050	 4.3100
 0.4060	 4.3370
 0.4070	 4.3600
 0.4080	 4.3900
 0.4090	 4.4540
 0.4100	 4.5390
 0.4110	 4.6080
 0.4120	 4.6490
 0.4130	 4.7130
 0.4140	 4.7860
 0.4150	 4.8520
 0.4160	 4.9070
 0.4170	 4.9780
 0.4180	 5.0390
 0.4190	 5.1020
 0.4200	 5.2110
 0.4210	 5.2880
 0.4220	 5.3400
 0.4230	 5.3950
 0.4240	 5.4840
 0.4250	 5.5810
 0.4260	 5.6650
 0.4270	 5.7240
 0.4280	 5.7790
 0.4290	 5.8460
 0.4300	 5.9200
 0.4310	 5.9690
 0.4320	 6.0350
 0.4330	 6.1070
 0.4340	 6.1660
 0.4350	 6.2120
 0.4360	 6.2590
 0.4370	 6.3030
 0.4380	 6.3310
 0.4390	 6.3630
 0.4400	 6.4040
 0.4410	 6.4500
 0.4420	 6.4910
 0.4430	 6.5350
 0.4440	 6.5750
 0.4450	 6.6010
 0.4460	 6.6460
 0.4470	 6.6790
 0.4480	 6.6960
 0.4490	 6.7300
 0.4500	 6.7700
 0.4510	 6.8030
 0.4520	 6.8200
 0.4530	 6.8390
 0.4540	 6.8610
 0.4550	 6.8880
 0.4560	 6.9200
 0.4570	 6.9240
 0.4580	 6.9280
 0.4590	 6.9470
 0.4600	 6.9570
 0.4610	 6.9690
 0.4620	 6.9800
 0.4630	 6.9840
 0.4640	 6.9870
 0.4650	 6.9890
 0.4660	 6.9910
 0.4670	 6.9930
 0.4680	 6.9980
 0.4690	 7.0010
 0.4700	 6.9990
 0.4710	 7.0010
 0.4720	 7.0070
 0.4730	 7.0110
 0.4740	 7.0090
 0.4750	 7.0130
 0.4760	 7.0220
 0.4770	 7.0330
 0.4780	 7.0360
 0.4790	 7.0330
 0.4800	 7.0270
 0.4810	 7.0260
 0.4820	 7.0320
 0.4830	 7.0420
 0.4840	 7.0540
 0.4850	 7.0670
 0.4860	 7.0760
 0.4870	 7.0850
 0.4880	 7.0980
 0.4890	 7.1120
 0.4900	 7.1280
 0.4910	 7.1470
 0.4920	 7.1720
 0.4930	 7.1950
 0.4940	 7.2270
 0.4950	 7.2680
 0.4960	 7.3030
 0.4970	 7.3540
 0.4980	 7.4090
 0.4990	 7.4570
 0.5000	 7.5270
 0.5010	 7.5990
 0.5020	 7.6690
 0.5030	 7.7490
 0.5040	 7.8470
 0.5050	 7.9560
 0.5060	 8.0700
 0.5070	 8.1850
 0.5080	 8.3180
 0.5090	 8.4640
 0.5100	 8.6170
 0.5110	 8.7880
 0.5120	 8.9640
 0.5130	 9.1450
 0.5140	 9.3490
 0.5150	 9.5660
 0.5160	 9.7910
 0.5170	10.0200
 0.5180	10.2500
 0.5190	10.4870
 0.5200	10.7330
 0.5210	10.9860
 0.5220	11.2320
 0.5230	11.4720
 0.5240	11.7060
 0.5250	11.9240
 0.5260	12.1360
 0.5270	12.3390
 0.5280	12.5250
 0.5290	12.6990
 0.5300	12.8600
 0.5310	13.0080
 0.5320	13.1430
 0.5330	13.2670
 0.5340	13.3780
 0.5350	13.4750
 0.5360	13.5670
 0.5370	13.6440
 0.5380	13.7120
 0.5390	13.7860
 0.5400	13.8580
 0.5410	13.9250
 0.5420	13.9850
 0.5430	14.0450
 0.5440	14.1020
 0.5450	14.1560
 0.5460	14.2060
 0.5470	14.2410
 0.5480	14.2710
 0.5490	14.3020
 0.5500	14.3390
 0.5510	14.3670
 0.5520	14.3830
 0.5530	14.3850
 0.5540	14.3690
 0.5550	14.3340
 0.5560	14.2820
 0.5570	14.2180
 0.5580	14.1400
 0.5590	14.0500
 0.5600	13.9540
 0.5610	13.8510
 0.5620	13.7450
 0.5630	13.6310
 0.5640	13.5050
 0.5650	13.3760
 0.5660	13.2450
 0.5670	13.1110
 0.5680	12.9790
 0.5690	12.8390
 0.5700	12.6880
 0.5710	12.5330
 0.5720	12.3850
 0.5730	12.2420
 0.5740	12.1040
 0.5750	11.9720
 0.5760	11.8420
 0.5770	11.7220
 0.5780	11.6160
 0.5790	11.5120
 0.5800	11.4160
 0.5810	11.3300
 0.5820	11.2520
 0.5830	11.1670
 0.5840	11.0890
 0.5850	11.0210
 0.5860	10.9570
 0.5870	10.9000
 0.5880	10.8500
 0.5890	10.8010
 0.5900	10.7500
 0.5910	10.7050
 0.5920	10.6660
 0.5930	10.6330
 0.5940	10.6020
 0.5950	10.5720
 0.5960	10.5430
 0.5970	10.5210
 0.5980	10.4970
 0.5990	10.4680
 0.6000	10.4360
 0.6010	10.4040
 0.6020	10.3660
 0.6030	10.3190
 0.6040	10.2640
 0.6050	10.2080
 0.6060	10.1490
 0.6070	10.0820
 0.6080	10.0070
 0.6090	 9.9350
 0.6100	 9.8670
 0.6110	 9.8020
 0.6120	 9.7230
 0.6130	 9.6320
 0.6140	 9.5400
 0.6150	 9.4620
 0.6160	 9.3880
 0.6170	 9.3180
 0.6180	 9.2560
 0.6190	 9.1940
 0.6200	 9.1410
 0.6210	 9.0980
 0.6220	 9.0570
 0.6230	 9.0250
 0.6240	 8.9970
 0.6250	 8.9730
 0.6260	 8.9550
 0.6270	 8.9410
 0.6280	 8.9300
 0.6290	 8.9220
 0.6300	 8.9140
 0.6310	 8.9050
 0.6320	 8.8940
 0.6330	 8.8790
 0.6340	 8.8550
 0.6350	 8.8220
 0.6360	 8.7800
 0.6370	 8.7290
 0.6380	 8.6690
 0.6390	 8.6030
 0.6400	 8.5340
 0.6410	 8.4580
 0.6420	 8.3770
 0.6430	 8.2920
 0.6440	 8.2070
 0.6450	 8.1200
 0.6460	 8.0360
 0.6470	 7.9590
 0.6480	 7.8780
 0.6490	 7.8080
 0.6500	 7.7520
 0.6510	 7.7030
 0.6520	 7.6580
 0.6530	 7.6140
 0.6540	 7.5690
 0.6550	 7.5240
 0.6560	 7.4770
 0.6570	 7.4210
 0.6580	 7.3500
 0.6590	 7.2830
 0.6600	 7.2110
 0.6610	 7.1330
 0.6620	 7.0550
 0.6630	 6.9790
 0.6640	 6.9060
 0.6650	 6.8390
 0.6660	 6.7840
 0.6670	 6.7370
 0.6680	 6.6960
 0.6690	 6.6610
 0.6700	 6.6310
 0.6710	 6.6100
 0.6720	 6.5990
 0.6730	 6.5920
 0.6740	 6.5870
 0.6750	 6.5880
 0.6760	 6.5940
 0.6770	 6.6020
 0.6780	 6.6160
 0.6790	 6.6380
 0.6800	 6.6690
 0.6810	 6.7100
 0.6820	 6.7640
 0.6830	 6.8330
 0.6840	 6.9230
 0.6850	 7.0330
 0.6860	 7.1700
 0.6870	 7.3400
 0.6880	 7.5580
 0.6890	 7.8200
 0.6900	 8.1350
 0.6910	 8.5150
 0.6920	 8.9510
 0.6930	 9.4480
 0.6940	10.0080
 0.6950	10.6290
 0.6960	11.3020
 0.6970	12.0220
 0.6980	12.7850
 0.6990	13.5850
 0.7000	14.4130
 0.7010	15.2600
 0.7020	16.1220
 0.7030	16.9910
 0.7040	17.8630
 0.7050	18.7330
 0.7060	19.6040
 0.7070	20.4790
 0.7080	21.3550
 0.7090	22.2300
 0.7100	23.1110
 0.7110	24.0000
 0.7120	24.8980
 0.7130	25.8090
 0.7140	26.7240
 0.7150	27.6490
 0.7160	28.5860
 0.7170	29.5300
 0.7180	30.4790
 0.7190	31.4350
 0.7200	32.3990
 0.7210	33.3670
 0.7220	34.3380
 0.7230	35.3080
 0.7240	36.2640
 0.7250	37.2180
 0.7260	38.1590
 0.7270	39.0780
 0.7280	39.9860
 0.7290	40.8730
 0.7300	41.7370
 0.7310	42.5790
 0.7320	43.3960
 0.7330	44.1870
 0.7340	44.9510
 0.7350	45.6820
 0.7360	46.3840
 0.7370	47.0590
 0.7380	47.7060
 0.7390	48.3180
 0.7400	48.9000
 0.7410	49.4530
 0.7420	49.9770
 0.7430	50.4660
 0.7440	50.9290
 0.7450	51.3650
 0.7460	51.7640
 0.7470	52.1390
 0.7480	52.4900
 0.7490	52.8120
 0.7500	53.1030
 0.7510	53.3810
 0.7520	53.6380
 0.7530	53.8630
 0.7540	54.0730
 0.7550	54.2670
 0.7560	54.4430
 0.7570	54.6030
 0.7580	54.7520
 0.7590	54.8870
 0.7600	55.0090
 0.7610	55.1240
 0.7620	55.2290
 0.7630	55.3230
 0.7640	55.4070
 0.7650	55.4840
 0.7660	55.5550
 0.7670	55.6220
 0.7680	55.6870
 0.7690	55.7420
 0.7700	55.7900
 0.7710	55.8350
 0.7720	55.8790
 0.7730	55.9220
 0.7740	55.9640
 0.7750	56.0050
 0.7760	56.0360
 0.7770	56.0720
 0.7780	56.1060
 0.7790	56.1260
 0.7800	56.1590
 0.7810	56.1930
 0.7820	56.2220
 0.7830	56.2470
 0.7840	56.2670
 0.7850	56.2900
 0.7860	56.3170
 0.7870	56.3420
 0.7880	56.3630
 0.7890	56.3830
 0.7900	56.4050
 0.7910	56.4270
 0.7920	56.4480
 0.7930	56.4640
 0.7940	56.4740
 0.7950	56.4920
 0.7960	56.5110
 0.7970	56.5250
 0.7980	56.5390
 0.7990	56.5580
 0.8000	56.5780
 0.8010	56.5910
 0.8020	56.5990
 0.8030	56.6070
 0.8040	56.6190
 0.8050	56.6350
 0.8060	56.6440
 0.8070	56.6500
 0.8080	56.6550
 0.8090	56.6640
 0.8100	56.6690
 0.8110	56.6760
 0.8120	56.6850
 0.8130	56.6870
 0.8140	56.6960
 0.8150	56.7040
 0.8160	56.7030
 0.8170	56.7170
 0.8180	56.7300
 0.8190	56.7360
 0.8200	56.7360
 0.8210	56.7470
 0.8220	56.7600
 0.8230	56.7670
 0.8240	56.7630
 0.8250	56.7650
 0.8260	56.7700
 0.8270	56.7710
 0.8280	56.7640
 0.8290	56.7610
 0.8300	56.7590
 0.8310	56.7530
 0.8320	56.7540
 0.8330	56.7520
 0.8340	56.7480
 0.8350	56.7480
 0.8360	56.7550
 0.8370	56.7690
 0.8380	56.7850
 0.8390	56.8020
 0.8400	56.8000
 0.8410	56.8090
 0.8420	56.8340
 0.8430	56.8450
 0.8440	56.8570
 0.8450	56.8730
 0.8460	56.8890
 0.8470	56.8980
 0.8480	56.9120
 0.8490	56.9290
 0.8500	56.9440
 0.8510	56.9590
 0.8520	56.9690
 0.8530	56.9810
 0.8540	57.0000
 0.8550	57.0070
 0.8560	57.0150
 0.8570	57.0290
 0.8580	57.0430
 0.8590	57.0610
 0.8600	57.0710
 0.8610	57.0720
 0.8620	57.0790
 0.8630	57.0830
 0.8640	57.0920
 0.8650	57.1120
 0.8660	57.1240
 0.8670	57.1390
 0.8680	57.1490
 0.8690	57.1450
 0.8700	57.1530
 0.8710	57.1600
 0.8720	57.1670
 0.8730	57.1790
 0.8740	57.1810
 0.8750	57.1820
 0.8760	57.1860
 0.8770	57.1890
 0.8780	57.1950
 0.8790	57.1980
 0.8800	57.1970
 0.8810	57.2020
 0.8820	57.1990
 0.8830	57.1950
 0.8840	57.1940
 0.8850	57.1970
 0.8860	57.1980
 0.8870	57.1900
 0.8880	57.1730
 0.8890	57.1720
 0.8900	57.1730
 0.8910	57.1670
 0.8920	57.1550
 0.8930	57.1510
 0.8940	57.1430
 0.8950	57.1300
 0.8960	57.1190
 0.8970	57.1050
 0.8980	57.0940
 0.8990	57.0840
 0.9000	57.0700
 0.9010	57.0630
 0.9020	57.0560
 0.9030	57.0450
 0.9040	57.0360
 0.9050	57.0130
 0.9060	56.9930
 0.9070	56.9830
 0.9080	56.9680
 0.9090	56.9490
 0.9100	56.9320
 0.9110	56.9220
 0.9120	56.9150
 0.9130	56.8920
 0.9140	56.8680
 0.9150	56.8550
 0.9160	56.8310
 0.9170	56.8110
 0.9180	56.7900
 0.9190	56.7590
 0.9200	56.7310
 0.9210	56.7060
 0.9220	56.6780
 0.9230	56.6390
 0.9240	56.5920
 0.9250	56.5520
 0.9260	56.5100
 0.9270	56.4470
 0.9280	56.3920
 0.9290	56.3480
 0.9300	56.3010
 0.9310	56.2250
 0.9320	56.1470
 0.9330	56.0690
 0.9340	55.9910
 0.9350	55.9170
 0.9360	55.8350
 0.9370	55.7500
 0.9380	55.6650
 0.9390	55.5820
 0.9400	55.4900
 0.9410	55.3810
 0.9420	55.2610
 0.9430	55.1580
 0.9440	55.0390
 0.9450	54.9070
 0.9460	54.7680
 0.9470	54.6290
 0.9480	54.4570
 0.9490	54.2740
 0.9500	54.1040
 0.9510	53.9230
 0.9520	53.7290
 0.9530	53.5160
 0.9540	53.2960
 0.9550	53.1230
 0.9560	52.9350
 0.9570	52.7240
 0.9580	52.5120
 0.9590	52.3550
 0.9600	52.2130
 0.9610	52.0700
 0.9620	51.9340
 0.9630	51.8430
 0.9640	51.7470
 0.9650	51.6530
 0.9660	51.5820
 0.9670	51.5040
 0.9680	51.4480
 0.9690	51.3910
 0.9700	51.3090
 0.9710	51.2600
 0.9720	51.2310
 0.9730	51.2020
 0.9740	51.1580
 0.9750	51.1070
 0.9760	51.0790
 0.9770	51.0680
 0.9780	51.0590
 0.9790	51.0530
 0.9800	51.0570
 0.9810	51.0610
 0.9820	51.0580
 0.9830	51.0750
 0.9840	51.1010
 0.9850	51.1290
 0.9860	51.1510
 0.9870	51.1620
 0.9880	51.2050
 0.9890	51.2670
 0.9900	51.3100
 0.9910	51.3410
 0.9920	51.4320
 0.9930	51.5230
 0.9940	51.6150
 0.9950	51.7060
 0.9960	51.7970
 0.9970	51.8880
 0.9980	51.9790
 0.9990	52.0700
 1.0000	52.1620
 1.0010	52.2530
 1.0020	52.3440
 1.0030	52.4350
 1.0040	52.5260
 1.0050	52.6180
 1.0060	52.7090
 1.0070	52.8000
 1.0080	52.8910
 1.0090	52.9820
 1.0100	52.9820
 1.0110	53.0640
 1.0120	53.1460
 1.0130	53.2290
 1.0140	53.3130
 1.0150	53.3980
 1.0160	53.4830
 1.0170	53.5640
 1.0180	53.6490
 1.0190	53.7330
 1.0200	53.8150
 1.0210	53.9020
 1.0220	53.9850
 1.0230	54.0670
 1.0240	54.1480
 1.0250	54.2280
 1.0260	54.3030
 1.0270	54.3840
 1.0280	54.4700
 1.0290	54.5490
 1.0300	54.6270
 1.0310	54.7040
 1.0320	54.7780
 1.0330	54.8510
 1.0340	54.9280
 1.0350	55.0000
 1.0360	55.0630
 1.0370	55.1240
 1.0380	55.1900
 1.0390	55.2530
 1.0400	55.3200
 1.0410	55.3970
 1.0420	55.4620
 1.0430	55.5250
 1.0440	55.5800
 1.0450	55.6220
 1.0460	55.6730
 1.0470	55.7210
 1.0480	55.7710
 1.0490	55.8290
 1.0500	55.8810
 1.0510	55.9330
 1.0520	55.9760
 1.0530	56.0200
 1.0540	56.0610
 1.0550	56.1000
 1.0560	56.1380
 1.0570	56.1750
 1.0580	56.2100
 1.0590	56.2440
 1.0600	56.2760
 1.0610	56.3080
 1.0620	56.3430
 1.0630	56.3690
 1.0640	56.3880
 1.0650	56.4090
 1.0660	56.4220
 1.0670	56.4380
 1.0680	56.4540
 1.0690	56.4750
 1.0700	56.4880
 1.0710	56.4990
 1.0720	56.5100
 1.0730	56.5200
 1.0740	56.5270
 1.0750	56.5360
 1.0760	56.5400
 1.0770	56.5390
 1.0780	56.5380
 1.0790	56.5350
 1.0800	56.5310
 1.0810	56.5270
 1.0820	56.5190
 1.0830	56.5090
 1.0840	56.4950
 1.0850	56.4770
 1.0860	56.4570
 1.0870	56.4360
 1.0880	56.4110
 1.0890	56.3880
 1.0900	56.3650
 1.0910	56.3400
 1.0920	56.3180
 1.0930	56.2870
 1.0940	56.2500
 1.0950	56.2150
 1.0960	56.1770
 1.0970	56.1380
 1.0980	56.1010
 1.0990	56.0620
 1.1000	56.0190
 1.1010	55.9760
 1.1020	55.9340
 1.1030	55.8880
 1.1040	55.8400
 1.1050	55.7940
 1.1060	55.7450
 1.1070	55.6930
 1.1080	55.6410
 1.1090	55.5880
 1.1100	55.5310
 1.1110	55.4710
 1.1120	55.4080
 1.1130	55.3430
 1.1140	55.2720
 1.1150	55.1990
 1.1160	55.1210
 1.1170	55.0380
 1.1180	54.9490
 1.1190	54.8560
 1.1200	54.7550
 1.1210	54.6480
 1.1220	54.5310
 1.1230	54.3980
 1.1240	54.2550
 1.1250	54.0960
 1.1260	53.9230
 1.1270	53.7310
 1.1280	53.5260
 1.1290	53.3010
 1.1300	53.0590
 1.1310	52.7980
 1.1320	52.5200
 1.1330	52.2240
 1.1340	51.9070
 1.1350	51.5740
 1.1360	51.2240
 1.1370	50.8600
 1.1380	50.4820
 1.1390	50.0990
 1.1400	49.7080
 1.1410	49.3140
 1.1420	48.9210
 1.1430	48.5280
 1.1440	48.1440
 1.1450	47.7590
 1.1460	47.3910
 1.1470	47.0260
 1.1480	46.6810
 1.1490	46.3470
 1.1500	46.0360
 1.1510	45.7390
 1.1520	45.4610
 1.1530	45.2010
 1.1540	44.9620
 1.1550	44.7400
 1.1560	44.5390
 1.1570	44.3570
 1.1580	44.1900
 1.1590	44.0370
 1.1600	43.8950
 1.1610	43.7660
 1.1620	43.6500
 1.1630	43.5460
 1.1640	43.4500
 1.1650	43.3600
 1.1660	43.2780
 1.1670	43.2010
 1.1680	43.1320
 1.1690	43.0650
 1.1700	43.0040
 1.1710	42.9430
 1.1720	42.8870
 1.1730	42.8290
 1.1740	42.7730
 1.1750	42.7180
 1.1760	42.6570
 1.1770	42.5960
 1.1780	42.5380
 1.1790	42.4770
 1.1800	42.4180
 1.1810	42.3590
 1.1820	42.2970
 1.1830	42.2360
 1.1840	42.1760
 1.1850	42.1180
 1.1860	42.0610
 1.1870	42.0060
 1.1880	41.9550
 1.1890	41.9070
 1.1900	41.8630
 1.1910	41.8250
 1.1920	41.7890
 1.1930	41.7550
 1.1940	41.7260
 1.1950	41.7010
 1.1960	41.6820
 1.1970	41.6650
 1.1980	41.6500
 1.1990	41.6450
 1.2000	41.6460
 1.2010	41.6500
 1.2020	41.6610
 1.2030	41.6740
 1.2040	41.6870
 1.2050	41.7060
 1.2060	41.7310
 1.2070	41.7600
 1.2080	41.7940
 1.2090	41.8330
 1.2100	41.8740
 1.2110	41.9210
 1.2120	41.9730
 1.2130	42.0290
 1.2140	42.0920
 1.2150	42.1560
 1.2160	42.2230
 1.2170	42.2910
 1.2180	42.3590
 1.2190	42.4300
 1.2200	42.5060
 1.2210	42.5820
 1.2220	42.6610
 1.2230	42.7410
 1.2240	42.8210
 1.2250	42.9020
 1.2260	42.9800
 1.2270	43.0570
 1.2280	43.1340
 1.2290	43.2070
 1.2300	43.2780
 1.2310	43.3480
 1.2320	43.4170
 1.2330	43.4820
 1.2340	43.5450
 1.2350	43.6070
 1.2360	43.6680
 1.2370	43.7280
 1.2380	43.7880
 1.2390	43.8450
 1.2400	43.9010
 1.2410	43.9530
 1.2420	44.0020
 1.2430	44.0530
 1.2440	44.1020
 1.2450	44.1500
 1.2460	44.1950
 1.2470	44.2370
 1.2480	44.2790
 1.2490	44.3210
 1.2500	44.3630
 1.2510	44.4030
 1.2520	44.4390
 1.2530	44.4710
 1.2540	44.5030
 1.2550	44.5360
 1.2560	44.5650
 1.2570	44.5930
 1.2580	44.6190
 1.2590	44.6420
 1.2600	44.6650
 1.2610	44.6850
 1.2620	44.7030
 1.2630	44.7180
 1.2640	44.7300
 1.2650	44.7390
 1.2660	44.7460
 1.2670	44.7520
 1.2680	44.7530
 1.2690	44.7530
 1.2700	44.7530
 1.2710	44.7480
 1.2720	44.7390
 1.2730	44.7310
 1.2740	44.7180
 1.2750	44.7010
 1.2760	44.6870
 1.2770	44.6670
 1.2780	44.6450
 1.2790	44.6210
 1.2800	44.5910
 1.2810	44.5570
 1.2820	44.5200
 1.2830	44.4800
 1.2840	44.4360
 1.2850	44.3890
 1.2860	44.3400
 1.2870	44.2860
 1.2880	44.2270
 1.2890	44.1640
 1.2900	44.0960
 1.2910	44.0210
 1.2920	43.9450
 1.2930	43.8660
 1.2940	43.7820
 1.2950	43.6960
 1.2960	43.6020
 1.2970	43.5020
 1.2980	43.3990
 1.2990	43.2900
 1.3000	43.1790
 1.3010	43.0630
 1.3020	42.9400
 1.3030	42.8130
 1.3040	42.6780
 1.3050	42.5380
 1.3060	42.3930
 1.3070	42.2430
 1.3080	42.0900
 1.3090	41.9290
 1.3100	41.7640
 1.3110	41.5910
 1.3120	41.4110
 1.3130	41.2310
 1.3140	41.0430
 1.3150	40.8500
 1.3160	40.6520
 1.3170	40.4510
 1.3180	40.2420
 1.3190	40.0280
 1.3200	39.8100
 1.3210	39.5860
 1.3220	39.3600
 1.3230	39.1290
 1.3240	38.8950
 1.3250	38.6620
 1.3260	38.4220
 1.3270	38.1790
 1.3280	37.9360
 1.3290	37.6890
 1.3300	37.4420
 1.3310	37.1940
 1.3320	36.9430
 1.3330	36.6950
 1.3340	36.4490
 1.3350	36.2040
 1.3360	35.9610
 1.3370	35.7190
 1.3380	35.4770
 1.3390	35.2400
 1.3400	35.0060
 1.3410	34.7750
 1.3420	34.5500
 1.3430	34.3290
 1.3440	34.1120
 1.3450	33.8990
 1.3460	33.6910
 1.3470	33.4870
 1.3480	33.2840
 1.3490	33.0880
 1.3500	32.8960
 1.3510	32.7070
 1.3520	32.5220
 1.3530	32.3410
 1.3540	32.1580
 1.3550	31.9770
 1.3560	31.7970
 1.3570	31.6150
 1.3580	31.4350
 1.3590	31.2510
 1.3600	31.0640
 1.3610	30.8740
 1.3620	30.6790
 1.3630	30.4800
 1.3640	30.2720
 1.3650	30.0550
 1.3660	29.8320
 1.3670	29.5990
 1.3680	29.3560
 1.3690	29.1020
 1.3700	28.8320
 1.3710	28.5500
 1.3720	28.2530
 1.3730	27.9380
 1.3740	27.6090
 1.3750	27.2600
 1.3760	26.8910
 1.3770	26.5030
 1.3780	26.0900
 1.3790	25.6580
 1.3800	25.2070
 1.3810	24.7350
 1.3820	24.2510
 1.3830	23.7510
 1.3840	23.2420
 1.3850	22.7170
 1.3860	22.1900
 1.3870	21.6500
 1.3880	21.1140
 1.3890	20.5740
 1.3900	20.0340
 1.3910	19.5030
 1.3920	18.9760
 1.3930	18.4560
 1.3940	17.9500
 1.3950	17.4490
 1.3960	16.9630
 1.3970	16.4950
 1.3980	16.0400
 1.3990	15.6090
 1.4000	15.1960
 1.4010	14.7990
 1.4020	14.4240
 1.4030	14.0640
 1.4040	13.7230
 1.4050	13.4030
 1.4060	13.0990
 1.4070	12.8160
 1.4080	12.5490
 1.4090	12.2980
 1.4100	12.0650
 1.4110	11.8460
 1.4120	11.6420
 1.4130	11.4520
 1.4140	11.2740
 1.4150	11.1100
 1.4160	10.9570
 1.4170	10.8140
 1.4180	10.6820
 1.4190	10.5570
 1.4200	10.4410
 1.4210	10.3340
 1.4220	10.2340
 1.4230	10.1420
 1.4240	10.0570
 1.4250	 9.9770
 1.4260	 9.9040
 1.4270	 9.8350
 1.4280	 9.7720
 1.4290	 9.7140
 1.4300	 9.6610
 1.4310	 9.6120
 1.4320	 9.5690
 1.4330	 9.5280
 1.4340	 9.4920
 1.4350	 9.4580
 1.4360	 9.4280
 1.4370	 9.4020
 1.4380	 9.3770
 1.4390	 9.3560
 1.4400	 9.3370
 1.4410	 9.3210
 1.4420	 9.3080
 1.4430	 9.2960
 1.4440	 9.2860
 1.4450	 9.2780
 1.4460	 9.2720
 1.4470	 9.2680
 1.4480	 9.2660
 1.4490	 9.2640
 1.4500	 9.2640
 1.4510	 9.2660
 1.4520	 9.2680
 1.4530	 9.2720
 1.4540	 9.2780
 1.4550	 9.2850
 1.4560	 9.2940
 1.4570	 9.3040
 1.4580	 9.3170
 1.4590	 9.3300
 1.4600	 9.3460
 1.4610	 9.3650
 1.4620	 9.3850
 1.4630	 9.4090
 1.4640	 9.4340
 1.4650	 9.4620
 1.4660	 9.4940
 1.4670	 9.5280
 1.4680	 9.5660
 1.4690	 9.6070
 1.4700	 9.6510
 1.4710	 9.6980
