Name: Pinus ponderosa 1
Type: vegetation
Class: Tree
Genus: Pinus
Species: ponderosa
Sample No.: VH153
Owner: UCSB
Wavelength Range: VSWIR
Origin: 37.0443; -119.3026; WGS84
Collection Date: 6/8/2013
Description: Samples were collected as part of the HyspIRI Airborne Campaign. 48 individual plants were sampled in three times in 2013 - spring  summer  and fall. The name of the sample includes a 1  2  or 3 which references a different individual of the species. Samples were taken to JPL and processed within 48 hours of collection. The same leaves were processed in the Nicolet and then measured using the ASD.
Measurement: Bidirectional reflectance
First Column: X
Second Column: Y
X Units: Wavelength (micrometers)
Y Units: Reflectance (percentage)
First X Value: 0.35
Last X Value: 2.5
Number of X Values: 2151
Additional Information: vegetation.tree.pinus.ponderosa.vswir.vh153.ucsb.asd.ancillary.txt

 0.3500	 4.8800
 0.3510	 4.9990
 0.3520	 4.9580
 0.3530	 4.9200
 0.3540	 5.0160
 0.3550	 5.0110
 0.3560	 4.8910
 0.3570	 4.7990
 0.3580	 4.9090
 0.3590	 4.8900
 0.3600	 4.9350
 0.3610	 5.0560
 0.3620	 4.9400
 0.3630	 4.8100
 0.3640	 4.7820
 0.3650	 4.8510
 0.3660	 4.7140
 0.3670	 4.6570
 0.3680	 4.7470
 0.3690	 4.8670
 0.3700	 4.8630
 0.3710	 4.8060
 0.3720	 4.7590
 0.3730	 4.7210
 0.3740	 4.7370
 0.3750	 4.7520
 0.3760	 4.7010
 0.3770	 4.6830
 0.3780	 4.7270
 0.3790	 4.7930
 0.3800	 4.7980
 0.3810	 4.7490
 0.3820	 4.7460
 0.3830	 4.7950
 0.3840	 4.6760
 0.3850	 4.6570
 0.3860	 4.7230
 0.3870	 4.7610
 0.3880	 4.7040
 0.3890	 4.6630
 0.3900	 4.6860
 0.3910	 4.7610
 0.3920	 4.7110
 0.3930	 4.6540
 0.3940	 4.6970
 0.3950	 4.7300
 0.3960	 4.7270
 0.3970	 4.7000
 0.3980	 4.6830
 0.3990	 4.7120
 0.4000	 4.7460
 0.4010	 4.7650
 0.4020	 4.7650
 0.4030	 4.7530
 0.4040	 4.7600
 0.4050	 4.8030
 0.4060	 4.7900
 0.4070	 4.8160
 0.4080	 4.8740
 0.4090	 4.8990
 0.4100	 4.9270
 0.4110	 4.9510
 0.4120	 4.9780
 0.4130	 5.0250
 0.4140	 5.0900
 0.4150	 5.1510
 0.4160	 5.1810
 0.4170	 5.2160
 0.4180	 5.2690
 0.4190	 5.3420
 0.4200	 5.4030
 0.4210	 5.4660
 0.4220	 5.5220
 0.4230	 5.5720
 0.4240	 5.6530
 0.4250	 5.7270
 0.4260	 5.7860
 0.4270	 5.8320
 0.4280	 5.8810
 0.4290	 5.9440
 0.4300	 6.0120
 0.4310	 6.0530
 0.4320	 6.0960
 0.4330	 6.1390
 0.4340	 6.1730
 0.4350	 6.2170
 0.4360	 6.2650
 0.4370	 6.3080
 0.4380	 6.3570
 0.4390	 6.4080
 0.4400	 6.4540
 0.4410	 6.4910
 0.4420	 6.5190
 0.4430	 6.5490
 0.4440	 6.5820
 0.4450	 6.6110
 0.4460	 6.6410
 0.4470	 6.6790
 0.4480	 6.7150
 0.4490	 6.7370
 0.4500	 6.7660
 0.4510	 6.7940
 0.4520	 6.8150
 0.4530	 6.8410
 0.4540	 6.8650
 0.4550	 6.8890
 0.4560	 6.9140
 0.4570	 6.9320
 0.4580	 6.9460
 0.4590	 6.9610
 0.4600	 6.9840
 0.4610	 6.9810
 0.4620	 6.9770
 0.4630	 7.0050
 0.4640	 7.0270
 0.4650	 7.0320
 0.4660	 7.0280
 0.4670	 7.0220
 0.4680	 7.0350
 0.4690	 7.0520
 0.4700	 7.0610
 0.4710	 7.0590
 0.4720	 7.0610
 0.4730	 7.0660
 0.4740	 7.0810
 0.4750	 7.0930
 0.4760	 7.0960
 0.4770	 7.0910
 0.4780	 7.1040
 0.4790	 7.1060
 0.4800	 7.1020
 0.4810	 7.0980
 0.4820	 7.1210
 0.4830	 7.1290
 0.4840	 7.1190
 0.4850	 7.1270
 0.4860	 7.1360
 0.4870	 7.1450
 0.4880	 7.1520
 0.4890	 7.1640
 0.4900	 7.1860
 0.4910	 7.2060
 0.4920	 7.2190
 0.4930	 7.2320
 0.4940	 7.2510
 0.4950	 7.2840
 0.4960	 7.3140
 0.4970	 7.3520
 0.4980	 7.3850
 0.4990	 7.4080
 0.5000	 7.4410
 0.5010	 7.4800
 0.5020	 7.5240
 0.5030	 7.5810
 0.5040	 7.6330
 0.5050	 7.6900
 0.5060	 7.7550
 0.5070	 7.8130
 0.5080	 7.8780
 0.5090	 7.9530
 0.5100	 8.0420
 0.5110	 8.1300
 0.5120	 8.2170
 0.5130	 8.3110
 0.5140	 8.4150
 0.5150	 8.5290
 0.5160	 8.6470
 0.5170	 8.7650
 0.5180	 8.8900
 0.5190	 9.0180
 0.5200	 9.1450
 0.5210	 9.2810
 0.5220	 9.4170
 0.5230	 9.5460
 0.5240	 9.6680
 0.5250	 9.7930
 0.5260	 9.9080
 0.5270	10.0140
 0.5280	10.1190
 0.5290	10.2120
 0.5300	10.2970
 0.5310	10.3750
 0.5320	10.4440
 0.5330	10.5070
 0.5340	10.5630
 0.5350	10.6120
 0.5360	10.6580
 0.5370	10.6970
 0.5380	10.7270
 0.5390	10.7550
 0.5400	10.7730
 0.5410	10.7860
 0.5420	10.7980
 0.5430	10.8160
 0.5440	10.8310
 0.5450	10.8490
 0.5460	10.8800
 0.5470	10.9170
 0.5480	10.9500
 0.5490	10.9740
 0.5500	10.9930
 0.5510	11.0030
 0.5520	11.0070
 0.5530	11.0080
 0.5540	10.9980
 0.5550	10.9820
 0.5560	10.9600
 0.5570	10.9250
 0.5580	10.8810
 0.5590	10.8310
 0.5600	10.7750
 0.5610	10.7120
 0.5620	10.6480
 0.5630	10.5770
 0.5640	10.5020
 0.5650	10.4300
 0.5660	10.3580
 0.5670	10.2810
 0.5680	10.2020
 0.5690	10.1150
 0.5700	10.0280
 0.5710	 9.9480
 0.5720	 9.8710
 0.5730	 9.7930
 0.5740	 9.7150
 0.5750	 9.6430
 0.5760	 9.5740
 0.5770	 9.5170
 0.5780	 9.4650
 0.5790	 9.4140
 0.5800	 9.3660
 0.5810	 9.3210
 0.5820	 9.2820
 0.5830	 9.2440
 0.5840	 9.2070
 0.5850	 9.1690
 0.5860	 9.1370
 0.5870	 9.1060
 0.5880	 9.0790
 0.5890	 9.0510
 0.5900	 9.0150
 0.5910	 8.9820
 0.5920	 8.9550
 0.5930	 8.9360
 0.5940	 8.9190
 0.5950	 8.9070
 0.5960	 8.8990
 0.5970	 8.8880
 0.5980	 8.8800
 0.5990	 8.8740
 0.6000	 8.8630
 0.6010	 8.8510
 0.6020	 8.8350
 0.6030	 8.8160
 0.6040	 8.7920
 0.6050	 8.7700
 0.6060	 8.7440
 0.6070	 8.7100
 0.6080	 8.6690
 0.6090	 8.6270
 0.6100	 8.5770
 0.6110	 8.5250
 0.6120	 8.4890
 0.6130	 8.4620
 0.6140	 8.4370
 0.6150	 8.4100
 0.6160	 8.3800
 0.6170	 8.3530
 0.6180	 8.3230
 0.6190	 8.2990
 0.6200	 8.2770
 0.6210	 8.2560
 0.6220	 8.2400
 0.6230	 8.2230
 0.6240	 8.2110
 0.6250	 8.2020
 0.6260	 8.1960
 0.6270	 8.1890
 0.6280	 8.1810
 0.6290	 8.1780
 0.6300	 8.1720
 0.6310	 8.1670
 0.6320	 8.1640
 0.6330	 8.1590
 0.6340	 8.1480
 0.6350	 8.1290
 0.6360	 8.1040
 0.6370	 8.0810
 0.6380	 8.0540
 0.6390	 8.0190
 0.6400	 7.9840
 0.6410	 7.9470
 0.6420	 7.9090
 0.6430	 7.8720
 0.6440	 7.8320
 0.6450	 7.7930
 0.6460	 7.7570
 0.6470	 7.7250
 0.6480	 7.6950
 0.6490	 7.6640
 0.6500	 7.6400
 0.6510	 7.6180
 0.6520	 7.5980
 0.6530	 7.5800
 0.6540	 7.5600
 0.6550	 7.5420
 0.6560	 7.5210
 0.6570	 7.4990
 0.6580	 7.4750
 0.6590	 7.4480
 0.6600	 7.4180
 0.6610	 7.3880
 0.6620	 7.3550
 0.6630	 7.3300
 0.6640	 7.3060
 0.6650	 7.2850
 0.6660	 7.2660
 0.6670	 7.2480
 0.6680	 7.2340
 0.6690	 7.2260
 0.6700	 7.2250
 0.6710	 7.2210
 0.6720	 7.2210
 0.6730	 7.2290
 0.6740	 7.2390
 0.6750	 7.2520
 0.6760	 7.2650
 0.6770	 7.2810
 0.6780	 7.3040
 0.6790	 7.3320
 0.6800	 7.3650
 0.6810	 7.3990
 0.6820	 7.4390
 0.6830	 7.4890
 0.6840	 7.5460
 0.6850	 7.6090
 0.6860	 7.6860
 0.6870	 7.7760
 0.6880	 7.8810
 0.6890	 8.0090
 0.6900	 8.1630
 0.6910	 8.3420
 0.6920	 8.5600
 0.6930	 8.8170
 0.6940	 9.1130
 0.6950	 9.4510
 0.6960	 9.8330
 0.6970	10.2560
 0.6980	10.7220
 0.6990	11.2310
 0.7000	11.7790
 0.7010	12.3650
 0.7020	12.9840
 0.7030	13.6330
 0.7040	14.3120
 0.7050	15.0160
 0.7060	15.7420
 0.7070	16.4920
 0.7080	17.2650
 0.7090	18.0620
 0.7100	18.8820
 0.7110	19.7250
 0.7120	20.5920
 0.7130	21.4770
 0.7140	22.3900
 0.7150	23.3260
 0.7160	24.2780
 0.7170	25.2440
 0.7180	26.2360
 0.7190	27.2480
 0.7200	28.2730
 0.7210	29.3140
 0.7220	30.3660
 0.7230	31.4230
 0.7240	32.4880
 0.7250	33.5530
 0.7260	34.6130
 0.7270	35.6650
 0.7280	36.7060
 0.7290	37.7360
 0.7300	38.7510
 0.7310	39.7450
 0.7320	40.7190
 0.7330	41.6680
 0.7340	42.5920
 0.7350	43.4950
 0.7360	44.3690
 0.7370	45.2130
 0.7380	46.0260
 0.7390	46.8050
 0.7400	47.5510
 0.7410	48.2650
 0.7420	48.9500
 0.7430	49.5960
 0.7440	50.2060
 0.7450	50.7860
 0.7460	51.3400
 0.7470	51.8500
 0.7480	52.3230
 0.7490	52.7670
 0.7500	53.1860
 0.7510	53.5670
 0.7520	53.9160
 0.7530	54.2460
 0.7540	54.5440
 0.7550	54.8170
 0.7560	55.0710
 0.7570	55.3060
 0.7580	55.5150
 0.7590	55.7040
 0.7600	55.8800
 0.7610	56.0440
 0.7620	56.1940
 0.7630	56.3300
 0.7640	56.4520
 0.7650	56.5630
 0.7660	56.6670
 0.7670	56.7630
 0.7680	56.8510
 0.7690	56.9320
 0.7700	57.0070
 0.7710	57.0770
 0.7720	57.1380
 0.7730	57.1990
 0.7740	57.2570
 0.7750	57.3110
 0.7760	57.3650
 0.7770	57.4170
 0.7780	57.4640
 0.7790	57.5050
 0.7800	57.5520
 0.7810	57.5980
 0.7820	57.6390
 0.7830	57.6740
 0.7840	57.7160
 0.7850	57.7570
 0.7860	57.7920
 0.7870	57.8230
 0.7880	57.8620
 0.7890	57.9020
 0.7900	57.9360
 0.7910	57.9660
 0.7920	57.9980
 0.7930	58.0300
 0.7940	58.0550
 0.7950	58.0870
 0.7960	58.1180
 0.7970	58.1440
 0.7980	58.1670
 0.7990	58.1940
 0.8000	58.2230
 0.8010	58.2500
 0.8020	58.2760
 0.8030	58.3020
 0.8040	58.3270
 0.8050	58.3490
 0.8060	58.3670
 0.8070	58.3940
 0.8080	58.4260
 0.8090	58.4470
 0.8100	58.4640
 0.8110	58.4800
 0.8120	58.4960
 0.8130	58.5160
 0.8140	58.5410
 0.8150	58.5640
 0.8160	58.5830
 0.8170	58.6020
 0.8180	58.6210
 0.8190	58.6410
 0.8200	58.6640
 0.8210	58.6840
 0.8220	58.7030
 0.8230	58.7200
 0.8240	58.7330
 0.8250	58.7500
 0.8260	58.7670
 0.8270	58.7810
 0.8280	58.7910
 0.8290	58.7980
 0.8300	58.8050
 0.8310	58.8140
 0.8320	58.8260
 0.8330	58.8370
 0.8340	58.8510
 0.8350	58.8690
 0.8360	58.8850
 0.8370	58.9100
 0.8380	58.9390
 0.8390	58.9580
 0.8400	58.9830
 0.8410	59.0060
 0.8420	59.0270
 0.8430	59.0520
 0.8440	59.0760
 0.8450	59.1010
 0.8460	59.1300
 0.8470	59.1570
 0.8480	59.1800
 0.8490	59.2040
 0.8500	59.2310
 0.8510	59.2510
 0.8520	59.2750
 0.8530	59.3030
 0.8540	59.3330
 0.8550	59.3560
 0.8560	59.3770
 0.8570	59.3970
 0.8580	59.4140
 0.8590	59.4300
 0.8600	59.4500
 0.8610	59.4750
 0.8620	59.4910
 0.8630	59.5100
 0.8640	59.5270
 0.8650	59.5400
 0.8660	59.5590
 0.8670	59.5770
 0.8680	59.5940
 0.8690	59.6110
 0.8700	59.6300
 0.8710	59.6530
 0.8720	59.6720
 0.8730	59.6790
 0.8740	59.6870
 0.8750	59.6990
 0.8760	59.7150
 0.8770	59.7310
 0.8780	59.7420
 0.8790	59.7490
 0.8800	59.7530
 0.8810	59.7650
 0.8820	59.7830
 0.8830	59.7960
 0.8840	59.7980
 0.8850	59.8080
 0.8860	59.8110
 0.8870	59.8080
 0.8880	59.8090
 0.8890	59.8200
 0.8900	59.8290
 0.8910	59.8290
 0.8920	59.8230
 0.8930	59.8220
 0.8940	59.8280
 0.8950	59.8370
 0.8960	59.8420
 0.8970	59.8300
 0.8980	59.8250
 0.8990	59.8320
 0.9000	59.8350
 0.9010	59.8250
 0.9020	59.8150
 0.9030	59.8130
 0.9040	59.8180
 0.9050	59.8110
 0.9060	59.8010
 0.9070	59.7980
 0.9080	59.7970
 0.9090	59.7910
 0.9100	59.7850
 0.9110	59.7830
 0.9120	59.7770
 0.9130	59.7690
 0.9140	59.7600
 0.9150	59.7540
 0.9160	59.7470
 0.9170	59.7340
 0.9180	59.7200
 0.9190	59.7090
 0.9200	59.7050
 0.9210	59.6900
 0.9220	59.6600
 0.9230	59.6240
 0.9240	59.6030
 0.9250	59.5750
 0.9260	59.5370
 0.9270	59.4960
 0.9280	59.4510
 0.9290	59.4070
 0.9300	59.3610
 0.9310	59.3010
 0.9320	59.2350
 0.9330	59.1710
 0.9340	59.1140
 0.9350	59.0670
 0.9360	58.9900
 0.9370	58.9050
 0.9380	58.8270
 0.9390	58.7480
 0.9400	58.6690
 0.9410	58.5850
 0.9420	58.4920
 0.9430	58.3930
 0.9440	58.2770
 0.9450	58.1550
 0.9460	58.0310
 0.9470	57.8770
 0.9480	57.7250
 0.9490	57.5670
 0.9500	57.3950
 0.9510	57.2190
 0.9520	57.0250
 0.9530	56.8260
 0.9540	56.6340
 0.9550	56.4320
 0.9560	56.2350
 0.9570	56.0490
 0.9580	55.8780
 0.9590	55.7130
 0.9600	55.5820
 0.9610	55.4660
 0.9620	55.3430
 0.9630	55.2330
 0.9640	55.1470
 0.9650	55.0830
 0.9660	55.0260
 0.9670	54.9640
 0.9680	54.9050
 0.9690	54.8610
 0.9700	54.8370
 0.9710	54.7900
 0.9720	54.7500
 0.9730	54.7240
 0.9740	54.7080
 0.9750	54.6880
 0.9760	54.6800
 0.9770	54.6840
 0.9780	54.6890
 0.9790	54.6780
 0.9800	54.6860
 0.9810	54.7110
 0.9820	54.7330
 0.9830	54.7660
 0.9840	54.8000
 0.9850	54.8370
 0.9860	54.8830
 0.9870	54.9240
 0.9880	54.9690
 0.9890	55.0260
 0.9900	55.0940
 0.9910	55.1620
 0.9920	55.2060
 0.9930	55.2480
 0.9940	55.3250
 0.9950	55.3960
 0.9960	55.4770
 0.9970	55.5590
 0.9980	55.6240
 0.9990	55.7000
 1.0000	56.0930
 1.0010	56.7090
 1.0020	57.1000
 1.0030	57.1860
 1.0040	57.2840
 1.0050	57.3780
 1.0060	57.4680
 1.0070	57.5600
 1.0080	57.6500
 1.0090	57.7310
 1.0100	57.8210
 1.0110	57.9140
 1.0120	58.0090
 1.0130	58.1120
 1.0140	58.2080
 1.0150	58.3040
 1.0160	58.4010
 1.0170	58.4940
 1.0180	58.5850
 1.0190	58.6780
 1.0200	58.7770
 1.0210	58.8760
 1.0220	58.9750
 1.0230	59.0700
 1.0240	59.1630
 1.0250	59.2550
 1.0260	59.3440
 1.0270	59.4360
 1.0280	59.5310
 1.0290	59.6230
 1.0300	59.7190
 1.0310	59.8080
 1.0320	59.8900
 1.0330	59.9770
 1.0340	60.0590
 1.0350	60.1360
 1.0360	60.2160
 1.0370	60.2950
 1.0380	60.3730
 1.0390	60.4520
 1.0400	60.5280
 1.0410	60.6040
 1.0420	60.6770
 1.0430	60.7470
 1.0440	60.8160
 1.0450	60.8810
 1.0460	60.9470
 1.0470	61.0110
 1.0480	61.0740
 1.0490	61.1390
 1.0500	61.1990
 1.0510	61.2550
 1.0520	61.3080
 1.0530	61.3630
 1.0540	61.4150
 1.0550	61.4670
 1.0560	61.5220
 1.0570	61.5700
 1.0580	61.6130
 1.0590	61.6580
 1.0600	61.7000
 1.0610	61.7410
 1.0620	61.7790
 1.0630	61.8170
 1.0640	61.8540
 1.0650	61.8870
 1.0660	61.9210
 1.0670	61.9500
 1.0680	61.9770
 1.0690	61.9970
 1.0700	62.0210
 1.0710	62.0440
 1.0720	62.0650
 1.0730	62.0860
 1.0740	62.1030
 1.0750	62.1150
 1.0760	62.1270
 1.0770	62.1390
 1.0780	62.1470
 1.0790	62.1520
 1.0800	62.1570
 1.0810	62.1610
 1.0820	62.1620
 1.0830	62.1650
 1.0840	62.1620
 1.0850	62.1530
 1.0860	62.1410
 1.0870	62.1270
 1.0880	62.1060
 1.0890	62.0910
 1.0900	62.0770
 1.0910	62.0600
 1.0920	62.0460
 1.0930	62.0230
 1.0940	61.9920
 1.0950	61.9630
 1.0960	61.9310
 1.0970	61.9000
 1.0980	61.8730
 1.0990	61.8400
 1.1000	61.8030
 1.1010	61.7650
 1.1020	61.7240
 1.1030	61.6780
 1.1040	61.6320
 1.1050	61.5880
 1.1060	61.5400
 1.1070	61.4890
 1.1080	61.4390
 1.1090	61.3900
 1.1100	61.3340
 1.1110	61.2760
 1.1120	61.2140
 1.1130	61.1450
 1.1140	61.0730
 1.1150	61.0020
 1.1160	60.9220
 1.1170	60.8360
 1.1180	60.7440
 1.1190	60.6480
 1.1200	60.5420
 1.1210	60.4250
 1.1220	60.2970
 1.1230	60.1520
 1.1240	59.9940
 1.1250	59.8190
 1.1260	59.6330
 1.1270	59.4230
 1.1280	59.1940
 1.1290	58.9450
 1.1300	58.6770
 1.1310	58.3850
 1.1320	58.0750
 1.1330	57.7420
 1.1340	57.3840
 1.1350	57.0120
 1.1360	56.6210
 1.1370	56.2140
 1.1380	55.7970
 1.1390	55.3710
 1.1400	54.9350
 1.1410	54.4980
 1.1420	54.0550
 1.1430	53.6120
 1.1440	53.1820
 1.1450	52.7490
 1.1460	52.3380
 1.1470	51.9340
 1.1480	51.5530
 1.1490	51.1850
 1.1500	50.8440
 1.1510	50.5220
 1.1520	50.2240
 1.1530	49.9480
 1.1540	49.6910
 1.1550	49.4540
 1.1560	49.2380
 1.1570	49.0420
 1.1580	48.8680
 1.1590	48.7110
 1.1600	48.5680
 1.1610	48.4370
 1.1620	48.3180
 1.1630	48.2100
 1.1640	48.1120
 1.1650	48.0220
 1.1660	47.9420
 1.1670	47.8670
 1.1680	47.8030
 1.1690	47.7380
 1.1700	47.6800
 1.1710	47.6220
 1.1720	47.5680
 1.1730	47.5110
 1.1740	47.4540
 1.1750	47.3970
 1.1760	47.3400
 1.1770	47.2820
 1.1780	47.2270
 1.1790	47.1680
 1.1800	47.1050
 1.1810	47.0420
 1.1820	46.9790
 1.1830	46.9170
 1.1840	46.8560
 1.1850	46.7940
 1.1860	46.7340
 1.1870	46.6770
 1.1880	46.6250
 1.1890	46.5770
 1.1900	46.5340
 1.1910	46.4940
 1.1920	46.4590
 1.1930	46.4260
 1.1940	46.4000
 1.1950	46.3800
 1.1960	46.3670
 1.1970	46.3610
 1.1980	46.3620
 1.1990	46.3680
 1.2000	46.3810
 1.2010	46.3980
 1.2020	46.4190
 1.2030	46.4430
 1.2040	46.4710
 1.2050	46.5030
 1.2060	46.5400
 1.2070	46.5820
 1.2080	46.6290
 1.2090	46.6790
 1.2100	46.7320
 1.2110	46.7900
 1.2120	46.8510
 1.2130	46.9160
 1.2140	46.9860
 1.2150	47.0610
 1.2160	47.1410
 1.2170	47.2210
 1.2180	47.3080
 1.2190	47.3940
 1.2200	47.4820
 1.2210	47.5770
 1.2220	47.6710
 1.2230	47.7660
 1.2240	47.8630
 1.2250	47.9550
 1.2260	48.0450
 1.2270	48.1370
 1.2280	48.2290
 1.2290	48.3190
 1.2300	48.4080
 1.2310	48.4960
 1.2320	48.5780
 1.2330	48.6580
 1.2340	48.7390
 1.2350	48.8240
 1.2360	48.9020
 1.2370	48.9780
 1.2380	49.0520
 1.2390	49.1230
 1.2400	49.1910
 1.2410	49.2590
 1.2420	49.3240
 1.2430	49.3870
 1.2440	49.4480
 1.2450	49.5100
 1.2460	49.5710
 1.2470	49.6300
 1.2480	49.6860
 1.2490	49.7420
 1.2500	49.7960
 1.2510	49.8470
 1.2520	49.8970
 1.2530	49.9420
 1.2540	49.9840
 1.2550	50.0250
 1.2560	50.0630
 1.2570	50.1010
 1.2580	50.1370
 1.2590	50.1710
 1.2600	50.2040
 1.2610	50.2330
 1.2620	50.2590
 1.2630	50.2840
 1.2640	50.3030
 1.2650	50.3180
 1.2660	50.3310
 1.2670	50.3390
 1.2680	50.3480
 1.2690	50.3550
 1.2700	50.3570
 1.2710	50.3560
 1.2720	50.3490
 1.2730	50.3420
 1.2740	50.3340
 1.2750	50.3230
 1.2760	50.3060
 1.2770	50.2860
 1.2780	50.2650
 1.2790	50.2400
 1.2800	50.2120
 1.2810	50.1830
 1.2820	50.1480
 1.2830	50.1080
 1.2840	50.0630
 1.2850	50.0130
 1.2860	49.9570
 1.2870	49.8980
 1.2880	49.8350
 1.2890	49.7690
 1.2900	49.6980
 1.2910	49.6190
 1.2920	49.5350
 1.2930	49.4450
 1.2940	49.3500
 1.2950	49.2510
 1.2960	49.1480
 1.2970	49.0390
 1.2980	48.9220
 1.2990	48.7970
 1.3000	48.6680
 1.3010	48.5320
 1.3020	48.3900
 1.3030	48.2440
 1.3040	48.0910
 1.3050	47.9310
 1.3060	47.7620
 1.3070	47.5880
 1.3080	47.4090
 1.3090	47.2220
 1.3100	47.0320
 1.3110	46.8340
 1.3120	46.6260
 1.3130	46.4140
 1.3140	46.1940
 1.3150	45.9680
 1.3160	45.7380
 1.3170	45.5050
 1.3180	45.2640
 1.3190	45.0190
 1.3200	44.7690
 1.3210	44.5090
 1.3220	44.2460
 1.3230	43.9800
 1.3240	43.7060
 1.3250	43.4360
 1.3260	43.1610
 1.3270	42.8820
 1.3280	42.6020
 1.3290	42.3180
 1.3300	42.0350
 1.3310	41.7520
 1.3320	41.4680
 1.3330	41.1880
 1.3340	40.9070
 1.3350	40.6260
 1.3360	40.3480
 1.3370	40.0700
 1.3380	39.7940
 1.3390	39.5200
 1.3400	39.2510
 1.3410	38.9880
 1.3420	38.7310
 1.3430	38.4800
 1.3440	38.2350
 1.3450	37.9920
 1.3460	37.7510
 1.3470	37.5160
 1.3480	37.2810
 1.3490	37.0550
 1.3500	36.8380
 1.3510	36.6240
 1.3520	36.4110
 1.3530	36.2040
 1.3540	35.9930
 1.3550	35.7830
 1.3560	35.5770
 1.3570	35.3700
 1.3580	35.1660
 1.3590	34.9610
 1.3600	34.7470
 1.3610	34.5310
 1.3620	34.3060
 1.3630	34.0750
 1.3640	33.8420
 1.3650	33.6000
 1.3660	33.3530
 1.3670	33.0950
 1.3680	32.8240
 1.3690	32.5420
 1.3700	32.2440
 1.3710	31.9330
 1.3720	31.6070
 1.3730	31.2630
 1.3740	30.9070
 1.3750	30.5320
 1.3760	30.1350
 1.3770	29.7190
 1.3780	29.2780
 1.3790	28.8180
 1.3800	28.3390
 1.3810	27.8380
 1.3820	27.3280
 1.3830	26.8010
 1.3840	26.2660
 1.3850	25.7170
 1.3860	25.1650
 1.3870	24.5980
 1.3880	24.0390
 1.3890	23.4780
 1.3900	22.9170
 1.3910	22.3690
 1.3920	21.8260
 1.3930	21.2910
 1.3940	20.7700
 1.3950	20.2560
 1.3960	19.7600
 1.3970	19.2830
 1.3980	18.8210
 1.3990	18.3840
 1.4000	17.9660
 1.4010	17.5630
 1.4020	17.1830
 1.4030	16.8200
 1.4040	16.4760
 1.4050	16.1540
 1.4060	15.8490
 1.4070	15.5660
 1.4080	15.3010
 1.4090	15.0520
 1.4100	14.8200
 1.4110	14.6030
 1.4120	14.3990
 1.4130	14.2100
 1.4140	14.0330
 1.4150	13.8720
 1.4160	13.7220
 1.4170	13.5810
 1.4180	13.4510
 1.4190	13.3280
 1.4200	13.2140
 1.4210	13.1090
 1.4220	13.0120
 1.4230	12.9230
 1.4240	12.8410
 1.4250	12.7630
 1.4260	12.6920
 1.4270	12.6270
 1.4280	12.5670
 1.4290	12.5130
 1.4300	12.4640
 1.4310	12.4190
 1.4320	12.3800
 1.4330	12.3430
 1.4340	12.3100
 1.4350	12.2800
 1.4360	12.2540
 1.4370	12.2300
 1.4380	12.2090
 1.4390	12.1920
 1.4400	12.1760
 1.4410	12.1630
 1.4420	12.1530
 1.4430	12.1460
 1.4440	12.1390
 1.4450	12.1350
 1.4460	12.1310
 1.4470	12.1290
 1.4480	12.1290
 1.4490	12.1300
 1.4500	12.1330
 1.4510	12.1370
 1.4520	12.1420
 1.4530	12.1480
 1.4540	12.1550
 1.4550	12.1650
 1.4560	12.1750
 1.4570	12.1860
 1.4580	12.2010
 1.4590	12.2180
 1.4600	12.2360
 1.4610	12.2580
 1.4620	12.2820
 1.4630	12.3090
 1.4640	12.3400
 1.4650	12.3730
 1.4660	12.4100
 1.4670	12.4500
 1.4680	12.4940
 1.4690	12.5390
 1.4700	12.5870
