Name: Abies concolor 2
Type: vegetation
Class: Tree
Genus: Abies
Species: concolor
Sample No.: VH063
Owner: UCSB
Wavelength Range: TIR
Origin: 37.0437; -119.3025; WGS84
Collection Date: 4/20/2013
Description: Samples were collected as part of the HyspIRI Airborne Campaign. 48 individual plants were sampled in three times in 2013 - spring  summer  and fall. The name of the sample includes a 1  2  or 3 which references a different individual of the species. Samples were taken to JPL and processed within 48 hours of collection. The same leaves were processed in the Nicolet and then measured using the ASD.
Measurement: Hemispherical reflectance
First Column: X
Second Column: Y
X Units: Wavelength (micrometers)
Y Units: Reflectance (percentage)
First X Value: 2.501
Last X Value: 15.387
Number of X Values: 1737
Additional Information: vegetation.tree.abies.concolor.tir.vh063.ucsb.nicolet.ancillary.txt

 2.5010	 6.7910
 2.5030	 6.7890
 2.5040	 6.8080
 2.5050	 6.8380
 2.5060	 6.9040
 2.5070	 6.9440
 2.5090	 6.9220
 2.5100	 6.8110
 2.5110	 6.8130
 2.5120	 6.8930
 2.5140	 6.8180
 2.5150	 6.7500
 2.5160	 6.8050
 2.5170	 6.7580
 2.5180	 6.7420
 2.5200	 6.8610
 2.5210	 6.9880
 2.5220	 6.8350
 2.5230	 6.7350
 2.5250	 6.8470
 2.5260	 6.9250
 2.5270	 6.9100
 2.5280	 6.9240
 2.5290	 6.9420
 2.5310	 6.7910
 2.5320	 6.7200
 2.5330	 6.7730
 2.5340	 6.8040
 2.5360	 6.7590
 2.5370	 6.8030
 2.5380	 6.8310
 2.5390	 6.7690
 2.5410	 6.7450
 2.5420	 6.7190
 2.5430	 6.7380
 2.5440	 6.8570
 2.5460	 6.8770
 2.5470	 6.8680
 2.5480	 6.7910
 2.5490	 6.7510
 2.5510	 6.8010
 2.5520	 6.8440
 2.5530	 6.9320
 2.5540	 6.8770
 2.5560	 6.8480
 2.5570	 6.9420
 2.5580	 6.8910
 2.5590	 6.8310
 2.5610	 6.9040
 2.5620	 7.0120
 2.5630	 6.9440
 2.5640	 6.9490
 2.5660	 6.8680
 2.5670	 6.8200
 2.5680	 6.8770
 2.5700	 6.8870
 2.5710	 6.8700
 2.5720	 6.8990
 2.5730	 6.8370
 2.5750	 6.7730
 2.5760	 6.8480
 2.5770	 6.9540
 2.5790	 6.8830
 2.5800	 6.8430
 2.5810	 6.8200
 2.5820	 6.8380
 2.5840	 6.7890
 2.5850	 6.7540
 2.5860	 6.7400
 2.5880	 6.8040
 2.5890	 6.8540
 2.5900	 6.8550
 2.5910	 6.8230
 2.5930	 6.7940
 2.5940	 6.7390
 2.5950	 6.8540
 2.5970	 6.8770
 2.5980	 6.8680
 2.5990	 6.8410
 2.6000	 6.7910
 2.6020	 6.7730
 2.6030	 6.8150
 2.6040	 6.7080
 2.6060	 6.7270
 2.6070	 6.8540
 2.6080	 6.8910
 2.6100	 6.7440
 2.6110	 6.5770
 2.6120	 6.5820
 2.6140	 6.6640
 2.6150	 6.6040
 2.6160	 6.5640
 2.6180	 6.6070
 2.6190	 6.6600
 2.6200	 6.6310
 2.6220	 6.6190
 2.6230	 6.6120
 2.6240	 6.6470
 2.6260	 6.6800
 2.6270	 6.6780
 2.6280	 6.6610
 2.6300	 6.6090
 2.6310	 6.4800
 2.6320	 6.4450
 2.6340	 6.4550
 2.6350	 6.3360
 2.6360	 6.2890
 2.6380	 6.4130
 2.6390	 6.4910
 2.6400	 6.4950
 2.6420	 6.5000
 2.6430	 6.4010
 2.6440	 6.3470
 2.6460	 6.3050
 2.6470	 6.2060
 2.6480	 6.1900
 2.6500	 6.2310
 2.6510	 6.2850
 2.6520	 6.3010
 2.6540	 6.2220
 2.6550	 6.1540
 2.6560	 6.2300
 2.6580	 6.1610
 2.6590	 6.0340
 2.6610	 6.1320
 2.6620	 6.1370
 2.6630	 6.0610
 2.6650	 6.0950
 2.6660	 6.0700
 2.6670	 6.0280
 2.6690	 6.0340
 2.6700	 5.9850
 2.6720	 5.8870
 2.6730	 5.8380
 2.6740	 5.8500
 2.6760	 5.9030
 2.6770	 5.9060
 2.6780	 5.7430
 2.6800	 5.6920
 2.6810	 5.6780
 2.6830	 5.6960
 2.6840	 5.7370
 2.6850	 5.6840
 2.6870	 5.6960
 2.6880	 5.7190
 2.6900	 5.6370
 2.6910	 5.6500
 2.6920	 5.6330
 2.6940	 5.5770
 2.6950	 5.5930
 2.6970	 5.6070
 2.6980	 5.5620
 2.6990	 5.4270
 2.7010	 5.4370
 2.7020	 5.4900
 2.7040	 5.5340
 2.7050	 5.4550
 2.7060	 5.3640
 2.7080	 5.3630
 2.7090	 5.4420
 2.7110	 5.5010
 2.7120	 5.4630
 2.7130	 5.3060
 2.7150	 5.2780
 2.7160	 5.2620
 2.7180	 5.1660
 2.7190	 5.1260
 2.7210	 5.1520
 2.7220	 5.1280
 2.7230	 5.1800
 2.7250	 5.2010
 2.7260	 5.2150
 2.7280	 5.1210
 2.7290	 4.9940
 2.7310	 4.9860
 2.7320	 5.0500
 2.7330	 5.0700
 2.7350	 5.0010
 2.7360	 5.0660
 2.7380	 5.2290
 2.7390	 5.2120
 2.7410	 5.1470
 2.7420	 5.1810
 2.7440	 5.1400
 2.7450	 5.0470
 2.7470	 5.0310
 2.7480	 4.9120
 2.7490	 4.9530
 2.7510	 5.1320
 2.7520	 5.1350
 2.7540	 5.0680
 2.7550	 5.1310
 2.7570	 5.1030
 2.7580	 5.0630
 2.7600	 5.1120
 2.7610	 5.1570
 2.7630	 5.1230
 2.7640	 5.1370
 2.7660	 5.1250
 2.7670	 5.0820
 2.7680	 5.0210
 2.7700	 4.9120
 2.7710	 4.8610
 2.7730	 5.0600
 2.7740	 5.1720
 2.7760	 5.0150
 2.7770	 4.9830
 2.7790	 5.0610
 2.7800	 4.9630
 2.7820	 4.9030
 2.7830	 4.9470
 2.7850	 4.9180
 2.7860	 4.9240
 2.7880	 5.0170
 2.7890	 4.9810
 2.7910	 5.0050
 2.7920	 5.0730
 2.7940	 5.0410
 2.7950	 5.0350
 2.7970	 5.0750
 2.7980	 5.1440
 2.8000	 5.1440
 2.8010	 5.0310
 2.8030	 4.9830
 2.8040	 4.9880
 2.8060	 4.9920
 2.8070	 5.0110
 2.8090	 5.0580
 2.8110	 5.1430
 2.8120	 5.0340
 2.8140	 4.9960
 2.8150	 5.0320
 2.8170	 4.9510
 2.8180	 4.9660
 2.8200	 4.9720
 2.8210	 4.9320
 2.8230	 4.9120
 2.8240	 4.9740
 2.8260	 4.9590
 2.8270	 4.9570
 2.8290	 4.8570
 2.8300	 4.8560
 2.8320	 4.8850
 2.8340	 4.9400
 2.8350	 5.0010
 2.8370	 4.9850
 2.8380	 4.9790
 2.8400	 5.0490
 2.8410	 5.0960
 2.8430	 5.1010
 2.8440	 5.0390
 2.8460	 4.9450
 2.8480	 4.8700
 2.8490	 4.8750
 2.8510	 4.9300
 2.8520	 5.0500
 2.8540	 4.9910
 2.8550	 4.9080
 2.8570	 4.9410
 2.8590	 4.9700
 2.8600	 5.0100
 2.8620	 4.9710
 2.8630	 4.9550
 2.8650	 5.0960
 2.8660	 5.1270
 2.8680	 5.0520
 2.8700	 4.9480
 2.8710	 5.0040
 2.8730	 5.0340
 2.8740	 4.9680
 2.8760	 4.9540
 2.8780	 5.0160
 2.8790	 5.1440
 2.8810	 4.9770
 2.8820	 4.8530
 2.8840	 4.9870
 2.8860	 5.0640
 2.8870	 4.9820
 2.8890	 5.0270
 2.8900	 5.0110
 2.8920	 4.9130
 2.8940	 4.9210
 2.8950	 4.8730
 2.8970	 4.9380
 2.8980	 4.9910
 2.9000	 5.0040
 2.9020	 4.9980
 2.9030	 4.9860
 2.9050	 4.9620
 2.9070	 5.0080
 2.9080	 5.1240
 2.9100	 5.1510
 2.9120	 5.0210
 2.9130	 5.0750
 2.9150	 5.1010
 2.9160	 4.9020
 2.9180	 4.8770
 2.9200	 4.9640
 2.9210	 4.9230
 2.9230	 4.9470
 2.9250	 4.9710
 2.9260	 4.9450
 2.9280	 4.9250
 2.9300	 4.9250
 2.9310	 4.9210
 2.9330	 4.9610
 2.9350	 4.9540
 2.9360	 5.0620
 2.9380	 5.0940
 2.9400	 5.0550
 2.9410	 5.0950
 2.9430	 5.1160
 2.9450	 5.1210
 2.9460	 5.1820
 2.9480	 5.1600
 2.9500	 5.1300
 2.9510	 5.1310
 2.9530	 5.2010
 2.9550	 5.3650
 2.9560	 5.2700
 2.9580	 4.8470
 2.9600	 4.7420
 2.9610	 4.9990
 2.9630	 5.2760
 2.9650	 5.4230
 2.9660	 5.4360
 2.9680	 5.1840
 2.9700	 5.1430
 2.9720	 5.2370
 2.9730	 5.3490
 2.9750	 5.5850
 2.9770	 5.6370
 2.9780	 5.2120
 2.9800	 4.5800
 2.9820	 4.8350
 2.9840	 5.1730
 2.9850	 5.2020
 2.9870	 5.1630
 2.9890	 5.4140
 2.9900	 5.5850
 2.9920	 5.4460
 2.9940	 5.5630
 2.9960	 5.4960
 2.9970	 5.1500
 2.9990	 4.8180
 3.0010	 4.9880
 3.0030	 5.2800
 3.0040	 5.2060
 3.0060	 5.1430
 3.0080	 5.0530
 3.0100	 4.9600
 3.0110	 5.1220
 3.0130	 5.1070
 3.0150	 4.9220
 3.0170	 4.8710
 3.0180	 5.1190
 3.0200	 5.2170
 3.0220	 5.2580
 3.0240	 5.1550
 3.0250	 5.1420
 3.0270	 5.1580
 3.0290	 5.1470
 3.0310	 5.0190
 3.0320	 4.9680
 3.0340	 5.1140
 3.0360	 5.6850
 3.0380	 5.7150
 3.0400	 5.1460
 3.0410	 4.8130
 3.0430	 5.0170
 3.0450	 4.7310
 3.0470	 4.7580
 3.0480	 4.8070
 3.0500	 4.7320
 3.0520	 5.1990
 3.0540	 5.6780
 3.0560	 5.6510
 3.0570	 5.3260
 3.0590	 5.1080
 3.0610	 5.1840
 3.0630	 5.0830
 3.0650	 4.8540
 3.0660	 4.9770
 3.0680	 5.3540
 3.0700	 5.3440
 3.0720	 5.3200
 3.0740	 5.2420
 3.0760	 5.1710
 3.0770	 5.0800
 3.0790	 5.1010
 3.0810	 5.1000
 3.0830	 5.0110
 3.0850	 4.9550
 3.0870	 5.0130
 3.0880	 5.0880
 3.0900	 5.1260
 3.0920	 5.1090
 3.0940	 5.0810
 3.0960	 4.9860
 3.0980	 4.9800
 3.0990	 5.0230
 3.1010	 5.1320
 3.1030	 5.2350
 3.1050	 5.3440
 3.1070	 5.2540
 3.1090	 5.1580
 3.1110	 5.0930
 3.1120	 4.9940
 3.1140	 4.9260
 3.1160	 5.0670
 3.1180	 5.1760
 3.1200	 5.1350
 3.1220	 5.1010
 3.1240	 5.1030
 3.1260	 5.0970
 3.1270	 5.1370
 3.1290	 5.1680
 3.1310	 5.1930
 3.1330	 5.1230
 3.1350	 5.1710
 3.1370	 5.1440
 3.1390	 5.0510
 3.1410	 5.1760
 3.1430	 5.3450
 3.1450	 5.3570
 3.1460	 5.3600
 3.1480	 5.3320
 3.1500	 5.2320
 3.1520	 5.1920
 3.1540	 5.1430
 3.1560	 4.9750
 3.1580	 4.9370
 3.1600	 4.9360
 3.1620	 4.7660
 3.1640	 4.7320
 3.1660	 5.0540
 3.1680	 5.0480
 3.1700	 5.1750
 3.1710	 5.6580
 3.1730	 5.9070
 3.1750	 5.9830
 3.1770	 5.6380
 3.1790	 5.3110
 3.1810	 5.2940
 3.1830	 5.3400
 3.1850	 5.1970
 3.1870	 4.8430
 3.1890	 4.8490
 3.1910	 4.9830
 3.1930	 5.0070
 3.1950	 5.0170
 3.1970	 5.0290
 3.1990	 5.1060
 3.2010	 5.1160
 3.2030	 5.0820
 3.2050	 5.1170
 3.2070	 5.1310
 3.2090	 4.9970
 3.2110	 4.9470
 3.2130	 4.9820
 3.2150	 4.9940
 3.2170	 4.9910
 3.2190	 5.0410
 3.2210	 5.0700
 3.2230	 5.0550
 3.2250	 5.0060
 3.2270	 4.9770
 3.2290	 4.9550
 3.2310	 5.0310
 3.2330	 5.1350
 3.2350	 5.1820
 3.2370	 5.1650
 3.2390	 5.0830
 3.2410	 5.0740
 3.2430	 5.1180
 3.2450	 5.1220
 3.2470	 5.0940
 3.2490	 5.0730
 3.2510	 4.8790
 3.2530	 4.8090
 3.2550	 4.9450
 3.2570	 5.0760
 3.2590	 5.0670
 3.2610	 5.0210
 3.2630	 4.9280
 3.2650	 4.9410
 3.2670	 5.0670
 3.2690	 5.0910
 3.2720	 5.1050
 3.2740	 5.1280
 3.2760	 5.1260
 3.2780	 5.0450
 3.2800	 4.9810
 3.2820	 5.0120
 3.2840	 5.0240
 3.2860	 4.9770
 3.2880	 4.9390
 3.2900	 4.9340
 3.2920	 4.9500
 3.2940	 4.9720
 3.2960	 5.0250
 3.2990	 4.9980
 3.3010	 4.8960
 3.3030	 4.9130
 3.3050	 4.9400
 3.3070	 4.9360
 3.3090	 4.9560
 3.3110	 5.0330
 3.3130	 5.0000
 3.3150	 4.9970
 3.3180	 4.9090
 3.3200	 4.9170
 3.3220	 4.9030
 3.3240	 4.8670
 3.3260	 4.9140
 3.3280	 4.9830
 3.3300	 4.9870
 3.3330	 4.9860
 3.3350	 4.9200
 3.3370	 4.8910
 3.3390	 4.8710
 3.3410	 5.0190
 3.3430	 5.0130
 3.3450	 4.8680
 3.3480	 4.7850
 3.3500	 4.8220
 3.3520	 4.8190
 3.3540	 4.7460
 3.3560	 4.7350
 3.3580	 4.7800
 3.3610	 4.8480
 3.3630	 4.8200
 3.3650	 4.6750
 3.3670	 4.5650
 3.3690	 4.5680
 3.3720	 4.6090
 3.3740	 4.6500
 3.3760	 4.6640
 3.3780	 4.5920
 3.3800	 4.6710
 3.3830	 4.7490
 3.3850	 4.7290
 3.3870	 4.5760
 3.3890	 4.4310
 3.3910	 4.4610
 3.3940	 4.5230
 3.3960	 4.4860
 3.3980	 4.4330
 3.4000	 4.5170
 3.4020	 4.6070
 3.4050	 4.5100
 3.4070	 4.4260
 3.4090	 4.5160
 3.4110	 4.7010
 3.4140	 4.8410
 3.4160	 4.9800
 3.4180	 5.2040
 3.4200	 5.4450
 3.4230	 5.6520
 3.4250	 6.0120
 3.4270	 6.5090
 3.4290	 6.8270
 3.4320	 6.8930
 3.4340	 6.7100
 3.4360	 6.4290
 3.4390	 6.2960
 3.4410	 6.0720
 3.4430	 5.9280
 3.4450	 5.9250
 3.4480	 5.9550
 3.4500	 5.7750
 3.4520	 5.5350
 3.4550	 5.5360
 3.4570	 5.7260
 3.4590	 5.7770
 3.4620	 5.6670
 3.4640	 5.5770
 3.4660	 5.5890
 3.4680	 5.5870
 3.4710	 5.4900
 3.4730	 5.4540
 3.4750	 5.4640
 3.4780	 5.4010
 3.4800	 5.3440
 3.4820	 5.2160
 3.4850	 5.1920
 3.4870	 5.2060
 3.4890	 5.1500
 3.4920	 5.1540
 3.4940	 5.1520
 3.4970	 5.1210
 3.4990	 5.0730
 3.5010	 5.0490
 3.5040	 5.1120
 3.5060	 5.4700
 3.5080	 6.1190
 3.5110	 6.7050
 3.5130	 6.8370
 3.5160	 6.6260
 3.5180	 6.3760
 3.5200	 6.1060
 3.5230	 6.0450
 3.5250	 6.0670
 3.5270	 5.9670
 3.5300	 5.8270
 3.5320	 5.7200
 3.5350	 5.6530
 3.5370	 5.7050
 3.5400	 5.7040
 3.5420	 5.6520
 3.5440	 5.6140
 3.5470	 5.5920
 3.5490	 5.5890
 3.5520	 5.5470
 3.5540	 5.5310
 3.5570	 5.5730
 3.5590	 5.5930
 3.5610	 5.6400
 3.5640	 5.5940
 3.5660	 5.5290
 3.5690	 5.5550
 3.5710	 5.6450
 3.5740	 5.5510
 3.5760	 5.4940
 3.5790	 5.4710
 3.5810	 5.4780
 3.5840	 5.4750
 3.5860	 5.4780
 3.5890	 5.4650
 3.5910	 5.4470
 3.5930	 5.4300
 3.5960	 5.3840
 3.5980	 5.3040
 3.6010	 5.2760
 3.6030	 5.3310
 3.6060	 5.4180
 3.6080	 5.4550
 3.6110	 5.4680
 3.6140	 5.4400
 3.6160	 5.4490
 3.6190	 5.4420
 3.6210	 5.5080
 3.6240	 5.4800
 3.6260	 5.4480
 3.6290	 5.4460
 3.6310	 5.4220
 3.6340	 5.3020
 3.6360	 5.2800
 3.6390	 5.3230
 3.6410	 5.3810
 3.6440	 5.4000
 3.6470	 5.4380
 3.6490	 5.4630
 3.6520	 5.4850
 3.6540	 5.4450
 3.6570	 5.4430
 3.6590	 5.4900
 3.6620	 5.4670
 3.6650	 5.3640
 3.6670	 5.3910
 3.6700	 5.4070
 3.6720	 5.3980
 3.6750	 5.3680
 3.6780	 5.3540
 3.6800	 5.3790
 3.6830	 5.3800
 3.6850	 5.3340
 3.6880	 5.3400
 3.6910	 5.3290
 3.6930	 5.3750
 3.6960	 5.4020
 3.6990	 5.4060
 3.7010	 5.3540
 3.7040	 5.3310
 3.7060	 5.2840
 3.7090	 5.2890
 3.7120	 5.3430
 3.7140	 5.3780
 3.7170	 5.3230
 3.7200	 5.3360
 3.7220	 5.3200
 3.7250	 5.2570
 3.7280	 5.2560
 3.7300	 5.3340
 3.7330	 5.3900
 3.7360	 5.4140
 3.7390	 5.3910
 3.7410	 5.4290
 3.7440	 5.4490
 3.7470	 5.4300
 3.7490	 5.3860
 3.7520	 5.3870
 3.7550	 5.4180
 3.7580	 5.4410
 3.7600	 5.3520
 3.7630	 5.3200
 3.7660	 5.3370
 3.7680	 5.3730
 3.7710	 5.3770
 3.7740	 5.3260
 3.7770	 5.3040
 3.7790	 5.3450
 3.7820	 5.3220
 3.7850	 5.3600
 3.7880	 5.3610
 3.7900	 5.3920
 3.7930	 5.3820
 3.7960	 5.3230
 3.7990	 5.2960
 3.8020	 5.3360
 3.8040	 5.3490
 3.8070	 5.3880
 3.8100	 5.3690
 3.8130	 5.4080
 3.8160	 5.4310
 3.8180	 5.4430
 3.8210	 5.4280
 3.8240	 5.4190
 3.8270	 5.3700
 3.8300	 5.3960
 3.8330	 5.3750
 3.8350	 5.4020
 3.8380	 5.4000
 3.8410	 5.3650
 3.8440	 5.3310
 3.8470	 5.3370
 3.8500	 5.3420
 3.8520	 5.4230
 3.8550	 5.4400
 3.8580	 5.4380
 3.8610	 5.4700
 3.8640	 5.4700
 3.8670	 5.4310
 3.8700	 5.3490
 3.8730	 5.3460
 3.8750	 5.4000
 3.8780	 5.3700
 3.8810	 5.4060
 3.8840	 5.4560
 3.8870	 5.4860
 3.8900	 5.4570
 3.8930	 5.3780
 3.8960	 5.3120
 3.8990	 5.3620
 3.9020	 5.3340
 3.9050	 5.3560
 3.9080	 5.4160
 3.9110	 5.4700
 3.9140	 5.5030
 3.9160	 5.5170
 3.9190	 5.4890
 3.9220	 5.4570
 3.9250	 5.4730
 3.9280	 5.4480
 3.9310	 5.4020
 3.9340	 5.4230
 3.9370	 5.4580
 3.9400	 5.4520
 3.9430	 5.4270
 3.9460	 5.4080
 3.9490	 5.3940
 3.9520	 5.4480
 3.9550	 5.4440
 3.9580	 5.4030
 3.9610	 5.3650
 3.9640	 5.4210
 3.9670	 5.4500
 3.9700	 5.4390
 3.9730	 5.4760
 3.9770	 5.4790
 3.9800	 5.3930
 3.9830	 5.4090
 3.9860	 5.4170
 3.9890	 5.4600
 3.9920	 5.4830
 3.9950	 5.4640
 3.9980	 5.4390
 4.0010	 5.4610
 4.0040	 5.3840
 4.0070	 5.3580
 4.0100	 5.3680
 4.0130	 5.4200
 4.0170	 5.5010
 4.0200	 5.5900
 4.0230	 5.5350
 4.0260	 5.4640
 4.0290	 5.4380
 4.0320	 5.4260
 4.0350	 5.4370
 4.0380	 5.4450
 4.0420	 5.4280
 4.0450	 5.4590
 4.0480	 5.4210
 4.0510	 5.4530
 4.0540	 5.4780
 4.0570	 5.4430
 4.0610	 5.3700
 4.0640	 5.4180
 4.0670	 5.4360
 4.0700	 5.4600
 4.0730	 5.4960
 4.0770	 5.4910
 4.0800	 5.4320
 4.0830	 5.4530
 4.0860	 5.4420
 4.0890	 5.4410
 4.0930	 5.4560
 4.0960	 5.4840
 4.0990	 5.4490
 4.1020	 5.4520
 4.1060	 5.4370
 4.1090	 5.3810
 4.1120	 5.3030
 4.1150	 5.3250
 4.1190	 5.4110
 4.1220	 5.4430
 4.1250	 5.4270
 4.1280	 5.4690
 4.1320	 5.4900
 4.1350	 5.4920
 4.1380	 5.4770
 4.1420	 5.5180
 4.1450	 5.4380
 4.1480	 5.3710
 4.1520	 5.4240
 4.1550	 5.4640
 4.1580	 5.4080
 4.1620	 5.3860
 4.1650	 5.4100
 4.1680	 5.4880
 4.1720	 5.4370
 4.1750	 5.3810
 4.1780	 5.3690
 4.1820	 5.3840
 4.1850	 5.3810
 4.1890	 5.4230
 4.1920	 5.3810
 4.1950	 5.3320
 4.1990	 5.3930
 4.2020	 5.4940
 4.2060	 5.4870
 4.2090	 5.6170
 4.2120	 5.6630
 4.2160	 5.6030
 4.2190	 5.5970
 4.2230	 5.8010
 4.2260	 5.7400
 4.2300	 5.5870
 4.2330	 5.3970
 4.2360	 5.5230
 4.2400	 5.6460
 4.2430	 5.6870
 4.2470	 5.6160
 4.2500	 5.7730
 4.2540	 5.6670
 4.2570	 5.4900
 4.2610	 5.3700
 4.2640	 5.2930
 4.2680	 5.3470
 4.2710	 5.5480
 4.2750	 5.3010
 4.2780	 5.4420
 4.2820	 5.5770
 4.2850	 5.5360
 4.2890	 5.3000
 4.2930	 5.2660
 4.2960	 5.3680
 4.3000	 5.4160
 4.3030	 5.3410
 4.3070	 5.3970
 4.3100	 5.3570
 4.3140	 5.3810
 4.3180	 5.3790
 4.3210	 5.3230
 4.3250	 5.2580
 4.3280	 5.3680
 4.3320	 5.3720
 4.3360	 5.3390
 4.3390	 5.3350
 4.3430	 5.3210
 4.3470	 5.2490
 4.3500	 5.2080
 4.3540	 5.1630
 4.3570	 5.1820
 4.3610	 5.2040
 4.3650	 5.2200
 4.3680	 5.1780
 4.3720	 5.1690
 4.3760	 5.1390
 4.3800	 5.1840
 4.3830	 5.2550
 4.3870	 5.2590
 4.3910	 5.1790
 4.3940	 5.1520
 4.3980	 5.1430
 4.4020	 5.1900
 4.4060	 5.2240
 4.4090	 5.2380
 4.4130	 5.1950
 4.4170	 5.2160
 4.4210	 5.1850
 4.4240	 5.1370
 4.4280	 5.0820
 4.4320	 5.0700
 4.4360	 5.0590
 4.4400	 5.0910
 4.4430	 5.0890
 4.4470	 5.0940
 4.4510	 5.0840
 4.4550	 5.0960
 4.4590	 5.0600
 4.4620	 5.1190
 4.4660	 5.1230
 4.4700	 5.0890
 4.4740	 5.0510
 4.4780	 5.0490
 4.4820	 5.0140
 4.4860	 5.0280
 4.4900	 5.0470
 4.4930	 5.0890
 4.4970	 5.0720
 4.5010	 5.0670
 4.5050	 5.0190
 4.5090	 5.0050
 4.5130	 5.0170
 4.5170	 5.0780
 4.5210	 5.0840
 4.5250	 5.0660
 4.5290	 5.0460
 4.5330	 5.1010
 4.5370	 5.0930
 4.5410	 5.0870
 4.5450	 5.0910
 4.5490	 5.0710
 4.5530	 5.0050
 4.5570	 5.0380
 4.5610	 5.0390
 4.5650	 5.0530
 4.5690	 5.0390
 4.5730	 5.0650
 4.5770	 5.0450
 4.5810	 5.0510
 4.5850	 5.0250
 4.5890	 5.0600
 4.5930	 5.0540
 4.5970	 5.0810
 4.6010	 5.0550
 4.6050	 5.0600
 4.6090	 5.0390
 4.6130	 5.0820
 4.6170	 5.0240
 4.6220	 5.0520
 4.6260	 5.0520
 4.6300	 4.9990
 4.6340	 4.9370
 4.6380	 4.9160
 4.6420	 4.9540
 4.6460	 4.9920
 4.6510	 4.9770
 4.6550	 4.9680
 4.6590	 4.9700
 4.6630	 5.0630
 4.6670	 5.0440
 4.6720	 5.0250
 4.6760	 4.9790
 4.6800	 4.9460
 4.6840	 4.9180
 4.6880	 4.9770
 4.6930	 4.9930
 4.6970	 4.9910
 4.7010	 4.9640
 4.7050	 4.9610
 4.7100	 4.9380
 4.7140	 5.0140
 4.7180	 5.0070
 4.7230	 4.9940
 4.7270	 4.9010
 4.7310	 4.9400
 4.7360	 4.9700
 4.7400	 4.9650
 4.7440	 4.9710
 4.7490	 5.0120
 4.7530	 4.9520
 4.7570	 4.9450
 4.7620	 4.9230
 4.7660	 4.9460
 4.7700	 4.9670
 4.7750	 4.9790
 4.7790	 4.9770
 4.7840	 4.9550
 4.7880	 4.8830
 4.7920	 4.8870
 4.7970	 4.8430
 4.8010	 4.8850
 4.8060	 4.9240
 4.8100	 4.9340
 4.8150	 4.9470
 4.8190	 4.9800
 4.8240	 4.9740
 4.8280	 5.0020
 4.8330	 4.9370
 4.8370	 4.9580
 4.8420	 4.9170
 4.8460	 4.9130
 4.8510	 4.8820
 4.8550	 4.8760
 4.8600	 4.8930
 4.8640	 4.9320
 4.8690	 4.9270
 4.8730	 5.0060
 4.8780	 4.9510
 4.8830	 4.8910
 4.8870	 4.9050
 4.8920	 4.9420
 4.8960	 4.8880
 4.9010	 4.9140
 4.9060	 4.9210
 4.9100	 4.9580
 4.9150	 4.9810
 4.9200	 4.9660
 4.9240	 4.8950
 4.9290	 4.9380
 4.9340	 4.9300
 4.9380	 4.9750
 4.9430	 4.9550
 4.9480	 4.9040
 4.9530	 4.8750
 4.9570	 4.8990
 4.9620	 4.9020
 4.9670	 4.8900
 4.9720	 4.8600
 4.9760	 4.8880
 4.9810	 4.9070
 4.9860	 4.9520
 4.9910	 4.9280
 4.9960	 4.9450
 5.0000	 4.9260
 5.0050	 4.9480
 5.0100	 4.9450
 5.0150	 5.0100
 5.0200	 4.9800
 5.0250	 4.9940
 5.0290	 4.9950
 5.0340	 5.0030
 5.0390	 5.0010
 5.0440	 5.0390
 5.0490	 4.9660
 5.0540	 4.9460
 5.0590	 4.9180
 5.0640	 4.9500
 5.0690	 4.9440
 5.0740	 4.9760
 5.0790	 4.9810
 5.0840	 4.9760
 5.0890	 4.9300
 5.0940	 4.9850
 5.0990	 4.9620
 5.1040	 4.9380
 5.1090	 4.9710
 5.1140	 5.0430
 5.1190	 5.0380
 5.1240	 5.0390
 5.1290	 4.9960
 5.1340	 5.0180
 5.1390	 4.9980
 5.1440	 5.0150
 5.1490	 5.0150
 5.1540	 5.0500
 5.1600	 5.0000
 5.1650	 5.0460
 5.1700	 4.9990
 5.1750	 5.0000
 5.1800	 5.0230
 5.1850	 5.0840
 5.1910	 5.0300
 5.1960	 5.0340
 5.2010	 4.9840
 5.2060	 5.0120
 5.2110	 4.9980
 5.2170	 5.0200
 5.2220	 4.9710
 5.2270	 4.9540
 5.2320	 4.9430
 5.2380	 4.9810
 5.2430	 4.9300
 5.2480	 4.9640
 5.2540	 4.9720
 5.2590	 4.9670
 5.2640	 4.8990
 5.2700	 4.9470
 5.2750	 4.9770
 5.2800	 5.0340
 5.2860	 4.9840
 5.2910	 4.9810
 5.2970	 4.9460
 5.3020	 4.9850
 5.3070	 4.9630
 5.3130	 4.9680
 5.3180	 4.9150
 5.3240	 4.9060
 5.3290	 4.8970
 5.3350	 4.9390
 5.3400	 4.9280
 5.3460	 5.0170
 5.3510	 4.9740
 5.3570	 4.9590
 5.3620	 4.9520
 5.3680	 5.0180
 5.3730	 4.9270
 5.3790	 4.9800
 5.3850	 4.9670
 5.3900	 4.9450
 5.3960	 4.9150
 5.4010	 4.9500
 5.4070	 4.9110
 5.4130	 4.9060
 5.4180	 4.8920
 5.4240	 4.8950
 5.4300	 4.9170
 5.4350	 4.9630
 5.4410	 4.8900
