Name: Lagerstroemia indica
Type: vegetation
Class: Tree
Genus: Lagerstroemia
Species: indica
Sample No.: JPL227
Owner: JPL
Wavelength Range: VSWIR
Origin: 34.126825; -118.114904; WGS84
Collection Date: 10/3/2016
Description: Samples were collected at the Huntington Garden in San Marino California as part of a JPL Subcontract studying HyTES imagery. Samples were taken to JPL and processed within 48 hours of collection. The same leaves were processed in the Nicolet and then measured using the ASD.
Measurement: Bidirectional reflectance
First Column: X
Second Column: Y
X Units: Wavelength (micrometer)
Y Units: Reflectance (percentage)
First X Value: 0.35
Last X Value: 2.5
Number of X Values: 2151
Additional Information: vegetation.tree.lagerstroemia.indica.vswir.jpl227.jpl.asd.ancillary.txt

 0.3500	 4.1120
 0.3510	 4.1140
 0.3520	 4.0930
 0.3530	 4.0330
 0.3540	 3.9530
 0.3550	 3.9770
 0.3560	 3.9750
 0.3570	 3.9300
 0.3580	 3.8890
 0.3590	 3.9340
 0.3600	 3.8960
 0.3610	 3.7740
 0.3620	 3.8240
 0.3630	 3.8690
 0.3640	 3.8590
 0.3650	 3.8120
 0.3660	 3.8570
 0.3670	 3.8620
 0.3680	 3.8510
 0.3690	 3.9370
 0.3700	 3.9170
 0.3710	 3.8550
 0.3720	 3.8100
 0.3730	 3.7600
 0.3740	 3.7570
 0.3750	 3.7740
 0.3760	 3.7680
 0.3770	 3.7710
 0.3780	 3.7630
 0.3790	 3.7570
 0.3800	 3.7920
 0.3810	 3.7860
 0.3820	 3.7770
 0.3830	 3.7890
 0.3840	 3.7490
 0.3850	 3.7670
 0.3860	 3.7940
 0.3870	 3.7540
 0.3880	 3.7670
 0.3890	 3.7720
 0.3900	 3.7490
 0.3910	 3.7300
 0.3920	 3.7440
 0.3930	 3.7630
 0.3940	 3.7590
 0.3950	 3.7390
 0.3960	 3.7380
 0.3970	 3.7480
 0.3980	 3.7480
 0.3990	 3.7540
 0.4000	 3.7420
 0.4010	 3.7160
 0.4020	 3.7270
 0.4030	 3.7400
 0.4040	 3.7560
 0.4050	 3.7730
 0.4060	 3.7640
 0.4070	 3.7630
 0.4080	 3.7710
 0.4090	 3.7650
 0.4100	 3.7620
 0.4110	 3.7680
 0.4120	 3.7860
 0.4130	 3.8120
 0.4140	 3.8230
 0.4150	 3.8200
 0.4160	 3.8180
 0.4170	 3.8400
 0.4180	 3.8470
 0.4190	 3.8370
 0.4200	 3.8480
 0.4210	 3.8480
 0.4220	 3.8520
 0.4230	 3.8720
 0.4240	 3.8930
 0.4250	 3.8980
 0.4260	 3.8950
 0.4270	 3.9070
 0.4280	 3.9220
 0.4290	 3.9270
 0.4300	 3.9230
 0.4310	 3.9330
 0.4320	 3.9320
 0.4330	 3.9310
 0.4340	 3.9440
 0.4350	 3.9460
 0.4360	 3.9450
 0.4370	 3.9510
 0.4380	 3.9700
 0.4390	 3.9830
 0.4400	 3.9880
 0.4410	 3.9870
 0.4420	 4.0010
 0.4430	 4.0110
 0.4440	 4.0210
 0.4450	 4.0440
 0.4460	 4.0480
 0.4470	 4.0550
 0.4480	 4.0720
 0.4490	 4.0810
 0.4500	 4.0930
 0.4510	 4.1040
 0.4520	 4.1120
 0.4530	 4.1300
 0.4540	 4.1420
 0.4550	 4.1500
 0.4560	 4.1650
 0.4570	 4.1740
 0.4580	 4.1810
 0.4590	 4.1920
 0.4600	 4.2040
 0.4610	 4.2060
 0.4620	 4.2060
 0.4630	 4.2160
 0.4640	 4.2160
 0.4650	 4.2130
 0.4660	 4.2150
 0.4670	 4.2230
 0.4680	 4.2290
 0.4690	 4.2340
 0.4700	 4.2390
 0.4710	 4.2350
 0.4720	 4.2360
 0.4730	 4.2410
 0.4740	 4.2440
 0.4750	 4.2440
 0.4760	 4.2450
 0.4770	 4.2500
 0.4780	 4.2570
 0.4790	 4.2590
 0.4800	 4.2560
 0.4810	 4.2560
 0.4820	 4.2630
 0.4830	 4.2670
 0.4840	 4.2700
 0.4850	 4.2830
 0.4860	 4.2960
 0.4870	 4.3080
 0.4880	 4.3190
 0.4890	 4.3340
 0.4900	 4.3490
 0.4910	 4.3660
 0.4920	 4.3930
 0.4930	 4.4140
 0.4940	 4.4360
 0.4950	 4.4630
 0.4960	 4.4980
 0.4970	 4.5310
 0.4980	 4.5650
 0.4990	 4.6050
 0.5000	 4.6540
 0.5010	 4.7070
 0.5020	 4.7600
 0.5030	 4.8140
 0.5040	 4.8740
 0.5050	 4.9410
 0.5060	 5.0160
 0.5070	 5.0980
 0.5080	 5.1840
 0.5090	 5.2740
 0.5100	 5.3730
 0.5110	 5.4780
 0.5120	 5.5940
 0.5130	 5.7200
 0.5140	 5.8530
 0.5150	 5.9950
 0.5160	 6.1450
 0.5170	 6.3000
 0.5180	 6.4580
 0.5190	 6.6250
 0.5200	 6.8000
 0.5210	 6.9790
 0.5220	 7.1630
 0.5230	 7.3450
 0.5240	 7.5200
 0.5250	 7.6960
 0.5260	 7.8640
 0.5270	 8.0260
 0.5280	 8.1850
 0.5290	 8.3350
 0.5300	 8.4740
 0.5310	 8.6010
 0.5320	 8.7240
 0.5330	 8.8360
 0.5340	 8.9380
 0.5350	 9.0370
 0.5360	 9.1260
 0.5370	 9.2040
 0.5380	 9.2770
 0.5390	 9.3510
 0.5400	 9.4230
 0.5410	 9.4990
 0.5420	 9.5780
 0.5430	 9.6430
 0.5440	 9.6970
 0.5450	 9.7390
 0.5460	 9.7670
 0.5470	 9.7880
 0.5480	 9.8100
 0.5490	 9.8350
 0.5500	 9.8620
 0.5510	 9.8830
 0.5520	 9.8950
 0.5530	 9.8950
 0.5540	 9.8840
 0.5550	 9.8610
 0.5560	 9.8260
 0.5570	 9.7790
 0.5580	 9.7220
 0.5590	 9.6580
 0.5600	 9.5900
 0.5610	 9.5170
 0.5620	 9.4420
 0.5630	 9.3640
 0.5640	 9.2810
 0.5650	 9.1940
 0.5660	 9.1060
 0.5670	 9.0150
 0.5680	 8.9170
 0.5690	 8.8140
 0.5700	 8.7050
 0.5710	 8.5940
 0.5720	 8.4850
 0.5730	 8.3820
 0.5740	 8.2840
 0.5750	 8.1860
 0.5760	 8.0860
 0.5770	 7.9860
 0.5780	 7.8920
 0.5790	 7.8140
 0.5800	 7.7460
 0.5810	 7.6870
 0.5820	 7.6340
 0.5830	 7.5850
 0.5840	 7.5370
 0.5850	 7.4900
 0.5860	 7.4420
 0.5870	 7.4050
 0.5880	 7.3730
 0.5890	 7.3390
 0.5900	 7.3040
 0.5910	 7.2730
 0.5920	 7.2440
 0.5930	 7.2160
 0.5940	 7.1920
 0.5950	 7.1740
 0.5960	 7.1630
 0.5970	 7.1500
 0.5980	 7.1340
 0.5990	 7.1150
 0.6000	 7.0970
 0.6010	 7.0740
 0.6020	 7.0470
 0.6030	 7.0160
 0.6040	 6.9780
 0.6050	 6.9340
 0.6060	 6.8870
 0.6070	 6.8380
 0.6080	 6.7840
 0.6090	 6.7300
 0.6100	 6.6770
 0.6110	 6.6290
 0.6120	 6.5710
 0.6130	 6.5050
 0.6140	 6.4370
 0.6150	 6.3750
 0.6160	 6.3180
 0.6170	 6.2660
 0.6180	 6.2150
 0.6190	 6.1700
 0.6200	 6.1330
 0.6210	 6.1010
 0.6220	 6.0720
 0.6230	 6.0470
 0.6240	 6.0250
 0.6250	 6.0050
 0.6260	 5.9920
 0.6270	 5.9850
 0.6280	 5.9800
 0.6290	 5.9760
 0.6300	 5.9710
 0.6310	 5.9680
 0.6320	 5.9640
 0.6330	 5.9540
 0.6340	 5.9380
 0.6350	 5.9190
 0.6360	 5.8950
 0.6370	 5.8640
 0.6380	 5.8240
 0.6390	 5.7790
 0.6400	 5.7320
 0.6410	 5.6790
 0.6420	 5.6230
 0.6430	 5.5670
 0.6440	 5.5090
 0.6450	 5.4480
 0.6460	 5.3890
 0.6470	 5.3360
 0.6480	 5.2860
 0.6490	 5.2410
 0.6500	 5.2030
 0.6510	 5.1690
 0.6520	 5.1400
 0.6530	 5.1130
 0.6540	 5.0850
 0.6550	 5.0550
 0.6560	 5.0220
 0.6570	 4.9850
 0.6580	 4.9420
 0.6590	 4.8970
 0.6600	 4.8490
 0.6610	 4.8000
 0.6620	 4.7540
 0.6630	 4.7100
 0.6640	 4.6700
 0.6650	 4.6360
 0.6660	 4.6070
 0.6670	 4.5830
 0.6680	 4.5640
 0.6690	 4.5520
 0.6700	 4.5450
 0.6710	 4.5440
 0.6720	 4.5480
 0.6730	 4.5590
 0.6740	 4.5730
 0.6750	 4.5910
 0.6760	 4.6120
 0.6770	 4.6420
 0.6780	 4.6740
 0.6790	 4.7080
 0.6800	 4.7510
 0.6810	 4.8000
 0.6820	 4.8560
 0.6830	 4.9220
 0.6840	 4.9950
 0.6850	 5.0800
 0.6860	 5.1800
 0.6870	 5.3020
 0.6880	 5.4430
 0.6890	 5.6110
 0.6900	 5.8130
 0.6910	 6.0590
 0.6920	 6.3460
 0.6930	 6.6800
 0.6940	 7.0650
 0.6950	 7.5040
 0.6960	 7.9950
 0.6970	 8.5360
 0.6980	 9.1250
 0.6990	 9.7580
 0.7000	10.4260
 0.7010	11.1240
 0.7020	11.8440
 0.7030	12.5780
 0.7040	13.3210
 0.7050	14.0720
 0.7060	14.8280
 0.7070	15.5890
 0.7080	16.3540
 0.7090	17.1240
 0.7100	17.9000
 0.7110	18.6860
 0.7120	19.4800
 0.7130	20.2810
 0.7140	21.0890
 0.7150	21.9050
 0.7160	22.7270
 0.7170	23.5510
 0.7180	24.3780
 0.7190	25.2050
 0.7200	26.0320
 0.7210	26.8550
 0.7220	27.6690
 0.7230	28.4710
 0.7240	29.2610
 0.7250	30.0330
 0.7260	30.7850
 0.7270	31.5160
 0.7280	32.2250
 0.7290	32.9090
 0.7300	33.5680
 0.7310	34.2000
 0.7320	34.8040
 0.7330	35.3790
 0.7340	35.9240
 0.7350	36.4390
 0.7360	36.9280
 0.7370	37.3910
 0.7380	37.8260
 0.7390	38.2330
 0.7400	38.6140
 0.7410	38.9700
 0.7420	39.3020
 0.7430	39.6080
 0.7440	39.8900
 0.7450	40.1500
 0.7460	40.3890
 0.7470	40.6110
 0.7480	40.8130
 0.7490	40.9930
 0.7500	41.1620
 0.7510	41.3150
 0.7520	41.4530
 0.7530	41.5810
 0.7540	41.6980
 0.7550	41.8050
 0.7560	41.9020
 0.7570	41.9890
 0.7580	42.0700
 0.7590	42.1440
 0.7600	42.2120
 0.7610	42.2770
 0.7620	42.3360
 0.7630	42.3910
 0.7640	42.4420
 0.7650	42.4870
 0.7660	42.5250
 0.7670	42.5580
 0.7680	42.5920
 0.7690	42.6270
 0.7700	42.6580
 0.7710	42.6850
 0.7720	42.7150
 0.7730	42.7430
 0.7740	42.7690
 0.7750	42.7930
 0.7760	42.8180
 0.7770	42.8430
 0.7780	42.8660
 0.7790	42.8870
 0.7800	42.9120
 0.7810	42.9370
 0.7820	42.9590
 0.7830	42.9770
 0.7840	42.9990
 0.7850	43.0210
 0.7860	43.0420
 0.7870	43.0600
 0.7880	43.0770
 0.7890	43.0920
 0.7900	43.1070
 0.7910	43.1240
 0.7920	43.1420
 0.7930	43.1580
 0.7940	43.1720
 0.7950	43.1880
 0.7960	43.2000
 0.7970	43.2090
 0.7980	43.2160
 0.7990	43.2220
 0.8000	43.2310
 0.8010	43.2430
 0.8020	43.2490
 0.8030	43.2570
 0.8040	43.2660
 0.8050	43.2730
 0.8060	43.2780
 0.8070	43.2830
 0.8080	43.2860
 0.8090	43.2880
 0.8100	43.2900
 0.8110	43.2910
 0.8120	43.2930
 0.8130	43.2910
 0.8140	43.2940
 0.8150	43.2980
 0.8160	43.3000
 0.8170	43.3020
 0.8180	43.3020
 0.8190	43.3010
 0.8200	43.2990
 0.8210	43.3000
 0.8220	43.3030
 0.8230	43.3070
 0.8240	43.3050
 0.8250	43.3040
 0.8260	43.3000
 0.8270	43.2960
 0.8280	43.3000
 0.8290	43.2970
 0.8300	43.2930
 0.8310	43.2920
 0.8320	43.2910
 0.8330	43.2910
 0.8340	43.2920
 0.8350	43.2930
 0.8360	43.2970
 0.8370	43.3030
 0.8380	43.3080
 0.8390	43.3130
 0.8400	43.3210
 0.8410	43.3290
 0.8420	43.3370
 0.8430	43.3430
 0.8440	43.3520
 0.8450	43.3620
 0.8460	43.3710
 0.8470	43.3820
 0.8480	43.3930
 0.8490	43.4050
 0.8500	43.4170
 0.8510	43.4300
 0.8520	43.4430
 0.8530	43.4530
 0.8540	43.4600
 0.8550	43.4720
 0.8560	43.4870
 0.8570	43.5010
 0.8580	43.5130
 0.8590	43.5270
 0.8600	43.5400
 0.8610	43.5550
 0.8620	43.5730
 0.8630	43.5830
 0.8640	43.5930
 0.8650	43.6100
 0.8660	43.6290
 0.8670	43.6430
 0.8680	43.6520
 0.8690	43.6600
 0.8700	43.6760
 0.8710	43.6950
 0.8720	43.7120
 0.8730	43.7200
 0.8740	43.7310
 0.8750	43.7460
 0.8760	43.7640
 0.8770	43.7750
 0.8780	43.7850
 0.8790	43.7980
 0.8800	43.8160
 0.8810	43.8330
 0.8820	43.8430
 0.8830	43.8510
 0.8840	43.8620
 0.8850	43.8760
 0.8860	43.8860
 0.8870	43.8970
 0.8880	43.9130
 0.8890	43.9260
 0.8900	43.9340
 0.8910	43.9410
 0.8920	43.9530
 0.8930	43.9680
 0.8940	43.9770
 0.8950	43.9810
 0.8960	43.9880
 0.8970	43.9970
 0.8980	44.0080
 0.8990	44.0180
 0.9000	44.0280
 0.9010	44.0390
 0.9020	44.0480
 0.9030	44.0550
 0.9040	44.0670
 0.9050	44.0720
 0.9060	44.0760
 0.9070	44.0870
 0.9080	44.0950
 0.9090	44.1060
 0.9100	44.1120
 0.9110	44.1110
 0.9120	44.1130
 0.9130	44.1160
 0.9140	44.1200
 0.9150	44.1240
 0.9160	44.1260
 0.9170	44.1250
 0.9180	44.1210
 0.9190	44.1120
 0.9200	44.1030
 0.9210	44.0940
 0.9220	44.0860
 0.9230	44.0820
 0.9240	44.0650
 0.9250	44.0500
 0.9260	44.0370
 0.9270	44.0150
 0.9280	43.9830
 0.9290	43.9560
 0.9300	43.9370
 0.9310	43.9110
 0.9320	43.8780
 0.9330	43.8480
 0.9340	43.8200
 0.9350	43.7780
 0.9360	43.7410
 0.9370	43.7030
 0.9380	43.6620
 0.9390	43.6250
 0.9400	43.5820
 0.9410	43.5310
 0.9420	43.4760
 0.9430	43.4300
 0.9440	43.3710
 0.9450	43.3080
 0.9460	43.2440
 0.9470	43.1650
 0.9480	43.0910
 0.9490	43.0160
 0.9500	42.9290
 0.9510	42.8350
 0.9520	42.7420
 0.9530	42.6510
 0.9540	42.5600
 0.9550	42.4590
 0.9560	42.3550
 0.9570	42.2630
 0.9580	42.1900
 0.9590	42.1110
 0.9600	42.0380
 0.9610	41.9680
 0.9620	41.9000
 0.9630	41.8530
 0.9640	41.8070
 0.9650	41.7630
 0.9660	41.7300
 0.9670	41.7140
 0.9680	41.6930
 0.9690	41.6650
 0.9700	41.6360
 0.9710	41.6290
 0.9720	41.6210
 0.9730	41.6080
 0.9740	41.5930
 0.9750	41.5910
 0.9760	41.5940
 0.9770	41.5890
 0.9780	41.5710
 0.9790	41.5780
 0.9800	41.5890
 0.9810	41.5920
 0.9820	41.5870
 0.9830	41.6040
 0.9840	41.6260
 0.9850	41.6390
 0.9860	41.6390
 0.9870	41.6760
 0.9880	41.7030
 0.9890	41.7160
 0.9900	41.7350
 0.9910	41.7600
 0.9920	41.7850
 0.9930	41.8080
 0.9940	41.8330
 0.9950	41.8530
 0.9960	41.8820
 0.9970	41.9180
 0.9980	41.9550
 0.9990	41.9890
 1.0000	42.0140
 1.0010	42.3110
 1.0020	42.3460
 1.0030	42.3820
 1.0040	42.4160
 1.0050	42.4520
 1.0060	42.4910
 1.0070	42.5260
 1.0080	42.5640
 1.0090	42.6050
 1.0100	42.6430
 1.0110	42.6780
 1.0120	42.7170
 1.0130	42.7570
 1.0140	42.7940
 1.0150	42.8310
 1.0160	42.8710
 1.0170	42.9050
 1.0180	42.9410
 1.0190	42.9820
 1.0200	43.0200
 1.0210	43.0600
 1.0220	43.0990
 1.0230	43.1370
 1.0240	43.1730
 1.0250	43.2080
 1.0260	43.2420
 1.0270	43.2770
 1.0280	43.3120
 1.0290	43.3460
 1.0300	43.3790
 1.0310	43.4120
 1.0320	43.4470
 1.0330	43.4800
 1.0340	43.5090
 1.0350	43.5390
 1.0360	43.5680
 1.0370	43.5940
 1.0380	43.6220
 1.0390	43.6540
 1.0400	43.6810
 1.0410	43.7070
 1.0420	43.7320
 1.0430	43.7550
 1.0440	43.7790
 1.0450	43.8020
 1.0460	43.8220
 1.0470	43.8390
 1.0480	43.8590
 1.0490	43.8810
 1.0500	43.9010
 1.0510	43.9260
 1.0520	43.9480
 1.0530	43.9660
 1.0540	43.9780
 1.0550	43.9950
 1.0560	44.0140
 1.0570	44.0300
 1.0580	44.0490
 1.0590	44.0610
 1.0600	44.0660
 1.0610	44.0760
 1.0620	44.0850
 1.0630	44.0950
 1.0640	44.1090
 1.0650	44.1180
 1.0660	44.1230
 1.0670	44.1300
 1.0680	44.1360
 1.0690	44.1400
 1.0700	44.1450
 1.0710	44.1510
 1.0720	44.1550
 1.0730	44.1560
 1.0740	44.1590
 1.0750	44.1630
 1.0760	44.1650
 1.0770	44.1680
 1.0780	44.1680
 1.0790	44.1670
 1.0800	44.1650
 1.0810	44.1610
 1.0820	44.1570
 1.0830	44.1490
 1.0840	44.1430
 1.0850	44.1380
 1.0860	44.1330
 1.0870	44.1250
 1.0880	44.1160
 1.0890	44.1070
 1.0900	44.0960
 1.0910	44.0860
 1.0920	44.0790
 1.0930	44.0670
 1.0940	44.0510
 1.0950	44.0370
 1.0960	44.0210
 1.0970	44.0040
 1.0980	43.9890
 1.0990	43.9730
 1.1000	43.9550
 1.1010	43.9370
 1.1020	43.9190
 1.1030	43.9020
 1.1040	43.8840
 1.1050	43.8660
 1.1060	43.8480
 1.1070	43.8310
 1.1080	43.8110
 1.1090	43.7900
 1.1100	43.7680
 1.1110	43.7450
 1.1120	43.7200
 1.1130	43.6950
 1.1140	43.6680
 1.1150	43.6400
 1.1160	43.6090
 1.1170	43.5760
 1.1180	43.5390
 1.1190	43.4990
 1.1200	43.4570
 1.1210	43.4120
 1.1220	43.3630
 1.1230	43.3100
 1.1240	43.2490
 1.1250	43.1790
 1.1260	43.1050
 1.1270	43.0180
 1.1280	42.9240
 1.1290	42.8180
 1.1300	42.7040
 1.1310	42.5780
 1.1320	42.4440
 1.1330	42.2960
 1.1340	42.1370
 1.1350	41.9680
 1.1360	41.7850
 1.1370	41.5940
 1.1380	41.3960
 1.1390	41.1900
 1.1400	40.9750
 1.1410	40.7570
 1.1420	40.5340
 1.1430	40.3070
 1.1440	40.0830
 1.1450	39.8540
 1.1460	39.6360
 1.1470	39.4170
 1.1480	39.2110
 1.1490	39.0110
 1.1500	38.8240
 1.1510	38.6420
 1.1520	38.4740
 1.1530	38.3160
 1.1540	38.1720
 1.1550	38.0410
 1.1560	37.9220
 1.1570	37.8160
 1.1580	37.7210
 1.1590	37.6330
 1.1600	37.5560
 1.1610	37.4890
 1.1620	37.4300
 1.1630	37.3760
 1.1640	37.3260
 1.1650	37.2810
 1.1660	37.2420
 1.1670	37.2060
 1.1680	37.1760
 1.1690	37.1480
 1.1700	37.1210
 1.1710	37.0970
 1.1720	37.0770
 1.1730	37.0560
 1.1740	37.0380
 1.1750	37.0190
 1.1760	37.0000
 1.1770	36.9800
 1.1780	36.9580
 1.1790	36.9360
 1.1800	36.9150
 1.1810	36.8920
 1.1820	36.8700
 1.1830	36.8480
 1.1840	36.8260
 1.1850	36.8050
 1.1860	36.7850
 1.1870	36.7660
 1.1880	36.7480
 1.1890	36.7300
 1.1900	36.7150
 1.1910	36.7010
 1.1920	36.6880
 1.1930	36.6760
 1.1940	36.6660
 1.1950	36.6560
 1.1960	36.6490
 1.1970	36.6440
 1.1980	36.6440
 1.1990	36.6460
 1.2000	36.6500
 1.2010	36.6590
 1.2020	36.6700
 1.2030	36.6820
 1.2040	36.6990
 1.2050	36.7200
 1.2060	36.7390
 1.2070	36.7620
 1.2080	36.7880
 1.2090	36.8130
 1.2100	36.8440
 1.2110	36.8740
 1.2120	36.9060
 1.2130	36.9400
 1.2140	36.9740
 1.2150	37.0090
 1.2160	37.0440
 1.2170	37.0810
 1.2180	37.1170
 1.2190	37.1540
 1.2200	37.1910
 1.2210	37.2310
 1.2220	37.2690
 1.2230	37.3060
 1.2240	37.3440
 1.2250	37.3800
 1.2260	37.4170
 1.2270	37.4550
 1.2280	37.4890
 1.2290	37.5230
 1.2300	37.5560
 1.2310	37.5880
 1.2320	37.6190
 1.2330	37.6520
 1.2340	37.6840
 1.2350	37.7150
 1.2360	37.7440
 1.2370	37.7730
 1.2380	37.8000
 1.2390	37.8260
 1.2400	37.8500
 1.2410	37.8760
 1.2420	37.9010
 1.2430	37.9240
 1.2440	37.9490
 1.2450	37.9730
 1.2460	37.9960
 1.2470	38.0220
 1.2480	38.0470
 1.2490	38.0690
 1.2500	38.0890
 1.2510	38.1070
 1.2520	38.1250
 1.2530	38.1420
 1.2540	38.1600
 1.2550	38.1750
 1.2560	38.1890
 1.2570	38.2010
 1.2580	38.2120
 1.2590	38.2220
 1.2600	38.2300
 1.2610	38.2370
 1.2620	38.2430
 1.2630	38.2480
 1.2640	38.2520
 1.2650	38.2530
 1.2660	38.2520
 1.2670	38.2490
 1.2680	38.2440
 1.2690	38.2370
 1.2700	38.2300
 1.2710	38.2210
 1.2720	38.2110
 1.2730	38.1980
 1.2740	38.1820
 1.2750	38.1630
 1.2760	38.1400
 1.2770	38.1170
 1.2780	38.0930
 1.2790	38.0660
 1.2800	38.0370
 1.2810	38.0060
 1.2820	37.9730
 1.2830	37.9400
 1.2840	37.9060
 1.2850	37.8670
 1.2860	37.8260
 1.2870	37.7820
 1.2880	37.7350
 1.2890	37.6830
 1.2900	37.6290
 1.2910	37.5740
 1.2920	37.5160
 1.2930	37.4570
 1.2940	37.3960
 1.2950	37.3310
 1.2960	37.2630
 1.2970	37.1910
 1.2980	37.1160
 1.2990	37.0380
 1.3000	36.9580
 1.3010	36.8760
 1.3020	36.7900
 1.3030	36.7020
 1.3040	36.6080
 1.3050	36.5090
 1.3060	36.4080
 1.3070	36.3030
 1.3080	36.1950
 1.3090	36.0840
 1.3100	35.9660
 1.3110	35.8460
 1.3120	35.7220
 1.3130	35.5920
 1.3140	35.4600
 1.3150	35.3230
 1.3160	35.1830
 1.3170	35.0410
 1.3180	34.8940
 1.3190	34.7410
 1.3200	34.5850
 1.3210	34.4230
 1.3220	34.2600
 1.3230	34.0970
 1.3240	33.9290
 1.3250	33.7590
 1.3260	33.5850
 1.3270	33.4040
 1.3280	33.2220
 1.3290	33.0380
 1.3300	32.8510
 1.3310	32.6650
 1.3320	32.4760
 1.3330	32.2870
 1.3340	32.0990
 1.3350	31.9080
 1.3360	31.7200
 1.3370	31.5310
 1.3380	31.3440
 1.3390	31.1610
 1.3400	30.9760
 1.3410	30.7940
 1.3420	30.6130
 1.3430	30.4330
 1.3440	30.2580
 1.3450	30.0850
 1.3460	29.9130
 1.3470	29.7460
 1.3480	29.5810
 1.3490	29.4190
 1.3500	29.2600
 1.3510	29.1030
 1.3520	28.9470
 1.3530	28.7930
 1.3540	28.6380
 1.3550	28.4830
 1.3560	28.3280
 1.3570	28.1700
 1.3580	28.0130
 1.3590	27.8530
 1.3600	27.6870
 1.3610	27.5180
 1.3620	27.3420
 1.3630	27.1600
 1.3640	26.9720
 1.3650	26.7740
 1.3660	26.5680
 1.3670	26.3510
 1.3680	26.1220
 1.3690	25.8820
 1.3700	25.6250
 1.3710	25.3530
 1.3720	25.0650
 1.3730	24.7580
 1.3740	24.4370
 1.3750	24.0970
 1.3760	23.7340
 1.3770	23.3500
 1.3780	22.9400
 1.3790	22.5080
 1.3800	22.0560
 1.3810	21.5800
 1.3820	21.0910
 1.3830	20.5820
 1.3840	20.0630
 1.3850	19.5270
 1.3860	18.9880
 1.3870	18.4320
 1.3880	17.8850
 1.3890	17.3340
 1.3900	16.7850
 1.3910	16.2460
 1.3920	15.7110
 1.3930	15.1840
 1.3940	14.6710
 1.3950	14.1670
 1.3960	13.6800
 1.3970	13.2120
 1.3980	12.7620
 1.3990	12.3390
 1.4000	11.9360
 1.4010	11.5520
 1.4020	11.1920
 1.4030	10.8510
 1.4040	10.5320
 1.4050	10.2360
 1.4060	 9.9590
 1.4070	 9.7040
 1.4080	 9.4660
 1.4090	 9.2440
 1.4100	 9.0410
 1.4110	 8.8530
 1.4120	 8.6800
 1.4130	 8.5210
 1.4140	 8.3730
 1.4150	 8.2400
 1.4160	 8.1160
 1.4170	 8.0030
 1.4180	 7.9000
 1.4190	 7.8030
 1.4200	 7.7150
 1.4210	 7.6330
 1.4220	 7.5580
 1.4230	 7.4910
 1.4240	 7.4290
 1.4250	 7.3710
 1.4260	 7.3200
 1.4270	 7.2710
 1.4280	 7.2260
 1.4290	 7.1850
 1.4300	 7.1490
 1.4310	 7.1150
 1.4320	 7.0860
 1.4330	 7.0580
 1.4340	 7.0320
 1.4350	 7.0100
 1.4360	 6.9910
 1.4370	 6.9730
 1.4380	 6.9560
 1.4390	 6.9430
 1.4400	 6.9310
 1.4410	 6.9210
 1.4420	 6.9140
 1.4430	 6.9070
 1.4440	 6.9010
 1.4450	 6.8970
 1.4460	 6.8950
 1.4470	 6.8940
 1.4480	 6.8940
 1.4490	 6.8940
 1.4500	 6.8970
 1.4510	 6.9000
 1.4520	 6.9050
 1.4530	 6.9100
 1.4540	 6.9160
 1.4550	 6.9240
 1.4560	 6.9340
 1.4570	 6.9450
 1.4580	 6.9590
 1.4590	 6.9730
 1.4600	 6.9900
 1.4610	 7.0090
 1.4620	 7.0290
 1.4630	 7.0530
 1.4640	 7.0790
 1.4650	 7.1070
 1.4660	 7.1380
 1.4670	 7.1720
 1.4680	 7.2100
 1.4690	 7.2500
 1.4700	 7.2910
 1.4710	 7.3370
 1.4720	 7.3830
 1.4730	 7.4320
 1.4740	 7.4840
 1.4750	 7.5370
 1.4760	 7.5930
 1.4770	 7.6520
