Name: Acacia visco
Type: vegetation
Class: Tree
Genus: Acacia
Species: visco
Sample No.: JPL196
Owner: JPL
Wavelength Range: TIR
Origin: 34.1258; -118.11388; WGS84
Collection Date: 10/3/2016
Description: Samples were collected at the Huntington Garden in San Marino California as part of a JPL Subcontract studying HyTES imagery. Samples were taken to JPL and processed within 48 hours of collection. The same leaves were processed in the Nicolet and then measured using the ASD.
Measurement: Hemispherical reflectance
First Column: X
Second Column: Y
X Units: Wavelength (micrometer)
Y Units: Reflectance (percentage)
First X Value: 2.501
Last X Value: 15.387
Number of X Values: 1737
Additional Information: vegetation.tree.acacia.visco.tir.jpl196.jpl.nicolet.ancillary.txt

 2.5010	 2.4220
 2.5030	 2.4110
 2.5040	 2.4170
 2.5050	 2.4150
 2.5060	 2.4060
 2.5070	 2.4070
 2.5090	 2.4070
 2.5100	 2.4010
 2.5110	 2.4010
 2.5120	 2.3980
 2.5140	 2.4010
 2.5150	 2.3890
 2.5160	 2.3770
 2.5170	 2.3790
 2.5180	 2.3880
 2.5200	 2.3870
 2.5210	 2.3950
 2.5220	 2.3940
 2.5230	 2.3780
 2.5250	 2.3700
 2.5260	 2.3840
 2.5270	 2.3880
 2.5280	 2.3870
 2.5300	 2.3780
 2.5310	 2.3660
 2.5320	 2.3500
 2.5330	 2.3460
 2.5340	 2.3600
 2.5360	 2.3540
 2.5370	 2.3530
 2.5380	 2.3760
 2.5390	 2.3780
 2.5410	 2.3780
 2.5420	 2.3500
 2.5430	 2.3140
 2.5440	 2.3200
 2.5460	 2.3520
 2.5470	 2.3490
 2.5480	 2.3200
 2.5490	 2.3410
 2.5510	 2.3430
 2.5520	 2.3250
 2.5530	 2.3240
 2.5540	 2.3560
 2.5560	 2.3850
 2.5570	 2.3830
 2.5580	 2.3870
 2.5590	 2.3520
 2.5610	 2.2620
 2.5620	 2.1950
 2.5630	 2.2060
 2.5650	 2.2270
 2.5660	 2.3030
 2.5670	 2.3670
 2.5680	 2.3370
 2.5700	 2.2640
 2.5710	 2.2970
 2.5720	 2.3340
 2.5730	 2.2440
 2.5750	 2.2620
 2.5760	 2.2840
 2.5770	 2.2500
 2.5790	 2.3230
 2.5800	 2.3490
 2.5810	 2.2720
 2.5820	 2.2580
 2.5840	 2.1920
 2.5850	 2.2020
 2.5860	 2.2740
 2.5880	 2.2150
 2.5890	 2.2300
 2.5900	 2.2750
 2.5910	 2.3130
 2.5930	 2.2700
 2.5940	 2.1130
 2.5950	 1.9610
 2.5970	 2.1140
 2.5980	 2.2740
 2.5990	 2.3380
 2.6010	 2.3070
 2.6020	 2.2450
 2.6030	 2.2040
 2.6040	 2.1460
 2.6060	 2.1080
 2.6070	 2.1570
 2.6080	 2.2020
 2.6100	 2.2120
 2.6110	 2.2440
 2.6120	 2.2630
 2.6140	 2.2330
 2.6150	 2.2370
 2.6160	 2.1240
 2.6180	 2.0640
 2.6190	 2.1560
 2.6200	 2.1200
 2.6220	 2.1500
 2.6230	 2.2560
 2.6240	 2.2670
 2.6260	 2.2140
 2.6270	 2.1120
 2.6280	 2.1520
 2.6300	 2.1070
 2.6310	 2.0250
 2.6320	 2.1200
 2.6340	 2.1430
 2.6350	 2.1480
 2.6360	 2.2160
 2.6380	 2.2310
 2.6390	 2.2280
 2.6400	 2.2040
 2.6420	 2.1680
 2.6430	 2.1520
 2.6440	 2.1640
 2.6460	 2.1090
 2.6470	 2.1220
 2.6480	 2.1700
 2.6500	 2.1810
 2.6510	 2.1390
 2.6520	 2.0620
 2.6540	 2.0670
 2.6550	 2.0880
 2.6570	 2.0840
 2.6580	 2.1180
 2.6590	 2.0530
 2.6610	 2.0110
 2.6620	 2.0280
 2.6630	 2.0340
 2.6650	 1.9240
 2.6660	 1.8280
 2.6670	 1.8380
 2.6690	 1.9090
 2.6700	 1.8180
 2.6720	 1.8400
 2.6730	 1.9830
 2.6740	 2.0010
 2.6760	 1.9260
 2.6770	 1.8360
 2.6780	 1.8530
 2.6800	 1.9050
 2.6810	 1.9920
 2.6830	 1.9980
 2.6840	 1.9600
 2.6850	 1.9680
 2.6870	 1.9600
 2.6880	 1.9730
 2.6900	 1.9790
 2.6910	 1.9860
 2.6920	 1.9460
 2.6940	 1.8490
 2.6950	 1.8290
 2.6970	 1.9010
 2.6980	 1.9690
 2.6990	 1.9900
 2.7010	 1.9390
 2.7020	 1.9200
 2.7040	 1.9710
 2.7050	 1.9830
 2.7060	 1.9710
 2.7080	 1.9330
 2.7090	 1.8420
 2.7110	 1.7800
 2.7120	 1.8310
 2.7130	 1.9380
 2.7150	 1.9540
 2.7160	 1.9440
 2.7180	 1.9000
 2.7190	 1.8340
 2.7210	 1.7090
 2.7220	 1.7720
 2.7230	 1.8240
 2.7250	 1.7630
 2.7260	 1.8300
 2.7280	 1.9230
 2.7290	 1.9410
 2.7310	 1.9440
 2.7320	 1.9410
 2.7340	 1.9150
 2.7350	 1.8530
 2.7360	 1.8750
 2.7380	 1.8640
 2.7390	 1.7350
 2.7410	 1.6810
 2.7420	 1.7580
 2.7440	 1.8730
 2.7450	 1.9160
 2.7470	 1.9220
 2.7480	 1.9320
 2.7490	 1.9290
 2.7510	 1.9190
 2.7520	 1.8990
 2.7540	 1.8720
 2.7550	 1.7390
 2.7570	 1.7610
 2.7580	 1.8870
 2.7600	 1.9310
 2.7610	 1.8950
 2.7630	 1.8100
 2.7640	 1.8030
 2.7660	 1.8590
 2.7670	 1.8470
 2.7690	 1.8400
 2.7700	 1.8440
 2.7720	 1.8260
 2.7730	 1.8610
 2.7740	 1.9100
 2.7760	 1.9110
 2.7770	 1.8970
 2.7790	 1.9040
 2.7800	 1.8990
 2.7820	 1.8760
 2.7830	 1.8890
 2.7850	 1.9040
 2.7860	 1.8490
 2.7880	 1.8050
 2.7890	 1.8620
 2.7910	 1.9130
 2.7920	 1.9300
 2.7940	 1.9230
 2.7950	 1.9210
 2.7970	 1.9160
 2.7980	 1.9130
 2.8000	 1.9080
 2.8010	 1.8790
 2.8030	 1.8100
 2.8040	 1.8150
 2.8060	 1.8730
 2.8080	 1.9080
 2.8090	 1.9150
 2.8110	 1.9200
 2.8120	 1.9220
 2.8140	 1.9180
 2.8150	 1.8970
 2.8170	 1.9070
 2.8180	 1.9060
 2.8200	 1.8880
 2.8210	 1.8880
 2.8230	 1.9100
 2.8240	 1.9290
 2.8260	 1.9360
 2.8270	 1.9210
 2.8290	 1.9250
 2.8310	 1.9360
 2.8320	 1.9260
 2.8340	 1.9050
 2.8350	 1.9000
 2.8370	 1.9040
 2.8380	 1.9090
 2.8400	 1.9190
 2.8410	 1.9280
 2.8430	 1.9250
 2.8440	 1.9300
 2.8460	 1.9360
 2.8480	 1.9330
 2.8490	 1.9170
 2.8510	 1.9230
 2.8520	 1.9280
 2.8540	 1.9170
 2.8550	 1.9140
 2.8570	 1.9280
 2.8590	 1.9290
 2.8600	 1.9250
 2.8620	 1.9250
 2.8630	 1.9310
 2.8650	 1.9330
 2.8660	 1.9310
 2.8680	 1.9240
 2.8700	 1.9320
 2.8710	 1.9270
 2.8730	 1.9330
 2.8740	 1.9390
 2.8760	 1.9340
 2.8780	 1.9230
 2.8790	 1.9290
 2.8810	 1.9360
 2.8820	 1.9400
 2.8840	 1.9330
 2.8860	 1.9320
 2.8870	 1.9300
 2.8890	 1.9290
 2.8900	 1.9290
 2.8920	 1.9420
 2.8940	 1.9510
 2.8950	 1.9540
 2.8970	 1.9480
 2.8990	 1.9470
 2.9000	 1.9330
 2.9020	 1.9320
 2.9030	 1.9350
 2.9050	 1.9330
 2.9070	 1.9300
 2.9080	 1.9370
 2.9100	 1.9420
 2.9120	 1.9470
 2.9130	 1.9390
 2.9150	 1.9390
 2.9160	 1.9450
 2.9180	 1.9530
 2.9200	 1.9450
 2.9210	 1.9370
 2.9230	 1.9350
 2.9250	 1.9410
 2.9260	 1.9430
 2.9280	 1.9460
 2.9300	 1.9420
 2.9310	 1.9450
 2.9330	 1.9450
 2.9350	 1.9430
 2.9360	 1.9460
 2.9380	 1.9480
 2.9400	 1.9420
 2.9410	 1.9480
 2.9430	 1.9390
 2.9450	 1.9410
 2.9460	 1.9460
 2.9480	 1.9450
 2.9500	 1.9430
 2.9510	 1.9480
 2.9530	 1.9470
 2.9550	 1.9410
 2.9560	 1.9390
 2.9580	 1.9460
 2.9600	 1.9400
 2.9610	 1.9440
 2.9630	 1.9440
 2.9650	 1.9470
 2.9670	 1.9470
 2.9680	 1.9440
 2.9700	 1.9440
 2.9720	 1.9450
 2.9730	 1.9430
 2.9750	 1.9450
 2.9770	 1.9430
 2.9780	 1.9400
 2.9800	 1.9330
 2.9820	 1.9420
 2.9840	 1.9450
 2.9850	 1.9440
 2.9870	 1.9390
 2.9890	 1.9420
 2.9900	 1.9420
 2.9920	 1.9440
 2.9940	 1.9420
 2.9960	 1.9410
 2.9970	 1.9330
 2.9990	 1.9340
 3.0010	 1.9350
 3.0030	 1.9420
 3.0040	 1.9400
 3.0060	 1.9420
 3.0080	 1.9460
 3.0100	 1.9490
 3.0110	 1.9430
 3.0130	 1.9470
 3.0150	 1.9460
 3.0170	 1.9480
 3.0180	 1.9470
 3.0200	 1.9450
 3.0220	 1.9400
 3.0240	 1.9420
 3.0250	 1.9420
 3.0270	 1.9410
 3.0290	 1.9420
 3.0310	 1.9490
 3.0320	 1.9450
 3.0340	 1.9430
 3.0360	 1.9360
 3.0380	 1.9340
 3.0400	 1.9370
 3.0410	 1.9410
 3.0430	 1.9410
 3.0450	 1.9410
 3.0470	 1.9350
 3.0480	 1.9380
 3.0500	 1.9350
 3.0520	 1.9380
 3.0540	 1.9340
 3.0560	 1.9340
 3.0570	 1.9350
 3.0590	 1.9430
 3.0610	 1.9400
 3.0630	 1.9410
 3.0650	 1.9360
 3.0670	 1.9350
 3.0680	 1.9350
 3.0700	 1.9340
 3.0720	 1.9320
 3.0740	 1.9370
 3.0760	 1.9380
 3.0770	 1.9400
 3.0790	 1.9420
 3.0810	 1.9330
 3.0830	 1.9280
 3.0850	 1.9380
 3.0870	 1.9370
 3.0880	 1.9350
 3.0900	 1.9310
 3.0920	 1.9330
 3.0940	 1.9330
 3.0960	 1.9390
 3.0980	 1.9370
 3.1000	 1.9330
 3.1010	 1.9360
 3.1030	 1.9410
 3.1050	 1.9320
 3.1070	 1.9310
 3.1090	 1.9320
 3.1110	 1.9340
 3.1130	 1.9370
 3.1140	 1.9400
 3.1160	 1.9330
 3.1180	 1.9340
 3.1200	 1.9320
 3.1220	 1.9330
 3.1240	 1.9330
 3.1260	 1.9310
 3.1280	 1.9230
 3.1290	 1.9280
 3.1310	 1.9320
 3.1330	 1.9360
 3.1350	 1.9360
 3.1370	 1.9390
 3.1390	 1.9330
 3.1410	 1.9320
 3.1430	 1.9280
 3.1450	 1.9260
 3.1470	 1.9260
 3.1480	 1.9350
 3.1500	 1.9340
 3.1520	 1.9320
 3.1540	 1.9260
 3.1560	 1.9290
 3.1580	 1.9310
 3.1600	 1.9370
 3.1620	 1.9360
 3.1640	 1.9350
 3.1660	 1.9310
 3.1680	 1.9350
 3.1700	 1.9350
 3.1720	 1.9310
 3.1730	 1.9280
 3.1750	 1.9320
 3.1770	 1.9360
 3.1790	 1.9370
 3.1810	 1.9330
 3.1830	 1.9370
 3.1850	 1.9380
 3.1870	 1.9350
 3.1890	 1.9320
 3.1910	 1.9330
 3.1930	 1.9300
 3.1950	 1.9290
 3.1970	 1.9270
 3.1990	 1.9290
 3.2010	 1.9300
 3.2030	 1.9310
 3.2050	 1.9280
 3.2070	 1.9250
 3.2090	 1.9230
 3.2110	 1.9250
 3.2130	 1.9270
 3.2150	 1.9280
 3.2170	 1.9290
 3.2190	 1.9320
 3.2210	 1.9320
 3.2230	 1.9280
 3.2250	 1.9220
 3.2270	 1.9250
 3.2290	 1.9230
 3.2310	 1.9250
 3.2330	 1.9270
 3.2350	 1.9340
 3.2370	 1.9330
 3.2390	 1.9350
 3.2410	 1.9290
 3.2430	 1.9300
 3.2450	 1.9280
 3.2470	 1.9260
 3.2490	 1.9220
 3.2510	 1.9220
 3.2530	 1.9230
 3.2550	 1.9280
 3.2570	 1.9290
 3.2590	 1.9290
 3.2610	 1.9240
 3.2630	 1.9210
 3.2650	 1.9200
 3.2670	 1.9200
 3.2700	 1.9210
 3.2720	 1.9260
 3.2740	 1.9240
 3.2760	 1.9230
 3.2780	 1.9200
 3.2800	 1.9260
 3.2820	 1.9270
 3.2840	 1.9290
 3.2860	 1.9280
 3.2880	 1.9230
 3.2900	 1.9180
 3.2920	 1.9220
 3.2940	 1.9210
 3.2970	 1.9200
 3.2990	 1.9150
 3.3010	 1.9130
 3.3030	 1.9120
 3.3050	 1.9180
 3.3070	 1.9190
 3.3090	 1.9170
 3.3110	 1.9150
 3.3130	 1.9240
 3.3160	 1.9220
 3.3180	 1.9170
 3.3200	 1.9110
 3.3220	 1.9130
 3.3240	 1.9160
 3.3260	 1.9210
 3.3280	 1.9160
 3.3300	 1.9150
 3.3330	 1.9160
 3.3350	 1.9190
 3.3370	 1.9180
 3.3390	 1.9170
 3.3410	 1.9120
 3.3430	 1.9160
 3.3450	 1.9150
 3.3480	 1.9140
 3.3500	 1.9090
 3.3520	 1.9110
 3.3540	 1.9130
 3.3560	 1.9140
 3.3580	 1.9090
 3.3610	 1.9060
 3.3630	 1.9020
 3.3650	 1.9050
 3.3670	 1.9050
 3.3690	 1.9020
 3.3720	 1.8950
 3.3740	 1.8960
 3.3760	 1.8970
 3.3780	 1.8960
 3.3800	 1.8940
 3.3830	 1.8920
 3.3850	 1.8870
 3.3870	 1.8890
 3.3890	 1.8900
 3.3910	 1.8920
 3.3940	 1.8870
 3.3960	 1.8820
 3.3980	 1.8710
 3.4000	 1.8730
 3.4030	 1.8760
 3.4050	 1.8770
 3.4070	 1.8720
 3.4090	 1.8710
 3.4110	 1.8700
 3.4140	 1.8760
 3.4160	 1.8770
 3.4180	 1.8790
 3.4200	 1.8830
 3.4230	 1.8970
 3.4250	 1.9180
 3.4270	 1.9420
 3.4300	 1.9500
 3.4320	 1.9530
 3.4340	 1.9440
 3.4360	 1.9370
 3.4390	 1.9320
 3.4410	 1.9310
 3.4430	 1.9250
 3.4450	 1.9260
 3.4480	 1.9230
 3.4500	 1.9220
 3.4520	 1.9230
 3.4550	 1.9220
 3.4570	 1.9190
 3.4590	 1.9230
 3.4620	 1.9200
 3.4640	 1.9200
 3.4660	 1.9200
 3.4690	 1.9190
 3.4710	 1.9190
 3.4730	 1.9190
 3.4760	 1.9140
 3.4780	 1.9140
 3.4800	 1.9140
 3.4830	 1.9120
 3.4850	 1.9080
 3.4870	 1.9080
 3.4900	 1.9030
 3.4920	 1.8990
 3.4940	 1.8900
 3.4970	 1.8870
 3.4990	 1.8850
 3.5010	 1.8860
 3.5040	 1.8830
 3.5060	 1.8880
 3.5080	 1.9070
 3.5110	 1.9340
 3.5130	 1.9430
 3.5160	 1.9460
 3.5180	 1.9460
 3.5200	 1.9440
 3.5230	 1.9440
 3.5250	 1.9450
 3.5280	 1.9430
 3.5300	 1.9440
 3.5320	 1.9430
 3.5350	 1.9430
 3.5370	 1.9440
 3.5400	 1.9440
 3.5420	 1.9420
 3.5440	 1.9420
 3.5470	 1.9390
 3.5490	 1.9400
 3.5520	 1.9400
 3.5540	 1.9420
 3.5570	 1.9400
 3.5590	 1.9340
 3.5610	 1.9310
 3.5640	 1.9360
 3.5660	 1.9400
 3.5690	 1.9440
 3.5710	 1.9420
 3.5740	 1.9410
 3.5760	 1.9400
 3.5790	 1.9390
 3.5810	 1.9390
 3.5840	 1.9430
 3.5860	 1.9400
 3.5890	 1.9400
 3.5910	 1.9410
 3.5940	 1.9400
 3.5960	 1.9380
 3.5990	 1.9410
 3.6010	 1.9450
 3.6040	 1.9490
 3.6060	 1.9460
 3.6090	 1.9440
 3.6110	 1.9410
 3.6140	 1.9420
 3.6160	 1.9410
 3.6190	 1.9440
 3.6210	 1.9460
 3.6240	 1.9470
 3.6260	 1.9440
 3.6290	 1.9440
 3.6310	 1.9450
 3.6340	 1.9490
 3.6360	 1.9450
 3.6390	 1.9450
 3.6410	 1.9430
 3.6440	 1.9440
 3.6470	 1.9430
 3.6490	 1.9480
 3.6520	 1.9470
 3.6540	 1.9470
 3.6570	 1.9430
 3.6590	 1.9420
 3.6620	 1.9460
 3.6650	 1.9450
 3.6670	 1.9450
 3.6700	 1.9530
 3.6720	 1.9540
 3.6750	 1.9510
 3.6780	 1.9490
 3.6800	 1.9470
 3.6830	 1.9490
 3.6850	 1.9530
 3.6880	 1.9510
 3.6910	 1.9510
 3.6930	 1.9480
 3.6960	 1.9500
 3.6990	 1.9490
 3.7010	 1.9480
 3.7040	 1.9460
 3.7070	 1.9550
 3.7090	 1.9580
 3.7120	 1.9540
 3.7150	 1.9550
 3.7170	 1.9600
 3.7200	 1.9550
 3.7230	 1.9540
 3.7250	 1.9570
 3.7280	 1.9580
 3.7310	 1.9570
 3.7330	 1.9600
 3.7360	 1.9610
 3.7390	 1.9630
 3.7410	 1.9620
 3.7440	 1.9650
 3.7470	 1.9640
 3.7490	 1.9630
 3.7520	 1.9620
 3.7550	 1.9630
 3.7580	 1.9650
 3.7600	 1.9690
 3.7630	 1.9690
 3.7660	 1.9700
 3.7690	 1.9690
 3.7710	 1.9730
 3.7740	 1.9740
 3.7770	 1.9740
 3.7790	 1.9710
 3.7820	 1.9720
 3.7850	 1.9710
 3.7880	 1.9720
 3.7910	 1.9750
 3.7930	 1.9790
 3.7960	 1.9770
 3.7990	 1.9790
 3.8020	 1.9800
 3.8040	 1.9780
 3.8070	 1.9780
 3.8100	 1.9830
 3.8130	 1.9830
 3.8160	 1.9820
 3.8180	 1.9840
 3.8210	 1.9860
 3.8240	 1.9880
 3.8270	 1.9900
 3.8300	 1.9900
 3.8330	 1.9910
 3.8350	 1.9920
 3.8380	 1.9910
 3.8410	 1.9880
 3.8440	 1.9890
 3.8470	 1.9910
 3.8500	 1.9930
 3.8520	 1.9900
 3.8550	 1.9920
 3.8580	 1.9920
 3.8610	 1.9960
 3.8640	 1.9970
 3.8670	 1.9940
 3.8700	 1.9920
 3.8730	 1.9940
 3.8760	 1.9960
 3.8780	 1.9950
 3.8810	 1.9940
 3.8840	 1.9970
 3.8870	 1.9960
 3.8900	 1.9940
 3.8930	 1.9950
 3.8960	 1.9960
 3.8990	 1.9950
 3.9020	 1.9980
 3.9050	 1.9980
 3.9080	 1.9990
 3.9110	 1.9960
 3.9140	 1.9930
 3.9170	 1.9900
 3.9190	 1.9890
 3.9220	 1.9900
 3.9250	 1.9930
 3.9280	 1.9940
 3.9310	 1.9980
 3.9340	 1.9970
 3.9370	 1.9940
 3.9400	 1.9890
 3.9430	 1.9880
 3.9460	 1.9920
 3.9490	 1.9930
 3.9520	 1.9930
 3.9550	 1.9940
 3.9580	 1.9940
 3.9610	 1.9960
 3.9640	 1.9950
 3.9670	 1.9950
 3.9700	 1.9930
 3.9740	 1.9930
 3.9770	 1.9940
 3.9800	 1.9940
 3.9830	 1.9960
 3.9860	 1.9960
 3.9890	 1.9890
 3.9920	 1.9890
 3.9950	 1.9910
 3.9980	 1.9950
 4.0010	 1.9960
 4.0040	 1.9980
 4.0070	 1.9970
 4.0100	 1.9950
 4.0140	 1.9950
 4.0170	 2.0010
 4.0200	 2.0030
 4.0230	 2.0040
 4.0260	 2.0040
 4.0290	 2.0040
 4.0320	 2.0030
 4.0350	 2.0030
 4.0390	 2.0010
 4.0420	 2.0010
 4.0450	 2.0040
 4.0480	 2.0050
 4.0510	 2.0050
 4.0540	 2.0030
 4.0570	 1.9980
 4.0610	 2.0010
 4.0640	 2.0030
 4.0670	 2.0040
 4.0700	 2.0020
 4.0730	 2.0010
 4.0770	 2.0010
 4.0800	 2.0020
 4.0830	 2.0050
 4.0860	 2.0050
 4.0890	 2.0010
 4.0930	 1.9980
 4.0960	 1.9960
 4.0990	 1.9990
 4.1020	 1.9980
 4.1060	 1.9970
 4.1090	 1.9960
 4.1120	 1.9980
 4.1150	 1.9980
 4.1190	 1.9970
 4.1220	 1.9960
 4.1250	 1.9990
 4.1290	 2.0000
 4.1320	 1.9980
 4.1350	 1.9940
 4.1380	 1.9950
 4.1420	 1.9950
 4.1450	 1.9950
 4.1480	 1.9950
 4.1520	 1.9940
 4.1550	 1.9940
 4.1580	 1.9940
 4.1620	 1.9920
 4.1650	 1.9930
 4.1680	 1.9940
 4.1720	 1.9930
 4.1750	 1.9890
 4.1780	 1.9880
 4.1820	 1.9870
 4.1850	 1.9890
 4.1890	 1.9900
 4.1920	 1.9950
 4.1950	 2.0000
 4.1990	 2.0100
 4.2020	 2.0330
 4.2060	 2.0570
 4.2090	 2.0750
 4.2120	 2.0950
 4.2160	 2.1150
 4.2190	 2.1340
 4.2230	 2.1540
 4.2260	 2.1750
 4.2300	 2.1780
 4.2330	 2.1830
 4.2360	 2.1960
 4.2400	 2.2010
 4.2430	 2.1850
 4.2470	 2.1740
 4.2500	 2.1510
 4.2540	 2.1170
 4.2570	 2.0880
 4.2610	 2.0990
 4.2640	 2.1310
 4.2680	 2.1430
 4.2710	 2.1370
 4.2750	 2.1290
 4.2780	 2.1240
 4.2820	 2.1240
 4.2850	 2.1250
 4.2890	 2.1250
 4.2930	 2.1180
 4.2960	 2.1080
 4.3000	 2.0990
 4.3030	 2.0970
 4.3070	 2.0910
 4.3100	 2.0790
 4.3140	 2.0600
 4.3180	 2.0500
 4.3210	 2.0470
 4.3250	 2.0390
 4.3280	 2.0290
 4.3320	 2.0210
 4.3360	 2.0110
 4.3390	 2.0020
 4.3430	 1.9930
 4.3470	 1.9870
 4.3500	 1.9780
 4.3540	 1.9760
 4.3580	 1.9750
 4.3610	 1.9710
 4.3650	 1.9660
 4.3690	 1.9660
 4.3720	 1.9650
 4.3760	 1.9610
 4.3800	 1.9580
 4.3830	 1.9570
 4.3870	 1.9580
 4.3910	 1.9550
 4.3940	 1.9530
 4.3980	 1.9560
 4.4020	 1.9550
 4.4060	 1.9520
 4.4090	 1.9550
 4.4130	 1.9550
 4.4170	 1.9580
 4.4210	 1.9580
 4.4240	 1.9520
 4.4280	 1.9490
 4.4320	 1.9460
 4.4360	 1.9450
 4.4400	 1.9450
 4.4430	 1.9490
 4.4470	 1.9490
 4.4510	 1.9460
 4.4550	 1.9460
 4.4590	 1.9450
 4.4630	 1.9440
 4.4660	 1.9430
 4.4700	 1.9410
 4.4740	 1.9380
 4.4780	 1.9370
 4.4820	 1.9370
 4.4860	 1.9370
 4.4900	 1.9380
 4.4930	 1.9370
 4.4970	 1.9380
 4.5010	 1.9390
 4.5050	 1.9390
 4.5090	 1.9350
 4.5130	 1.9340
 4.5170	 1.9340
 4.5210	 1.9330
 4.5250	 1.9300
 4.5290	 1.9300
 4.5330	 1.9280
 4.5370	 1.9300
 4.5410	 1.9330
 4.5450	 1.9340
 4.5490	 1.9320
 4.5530	 1.9300
 4.5570	 1.9310
 4.5610	 1.9320
 4.5650	 1.9310
 4.5690	 1.9290
 4.5730	 1.9290
 4.5770	 1.9240
 4.5810	 1.9230
 4.5850	 1.9250
 4.5890	 1.9260
 4.5930	 1.9240
 4.5970	 1.9240
 4.6010	 1.9250
 4.6050	 1.9230
 4.6090	 1.9240
 4.6130	 1.9230
 4.6170	 1.9220
 4.6220	 1.9190
 4.6260	 1.9220
 4.6300	 1.9250
 4.6340	 1.9220
 4.6380	 1.9190
 4.6420	 1.9210
 4.6460	 1.9230
 4.6510	 1.9220
 4.6550	 1.9230
 4.6590	 1.9230
 4.6630	 1.9230
 4.6670	 1.9220
 4.6720	 1.9200
 4.6760	 1.9200
 4.6800	 1.9230
 4.6840	 1.9250
 4.6880	 1.9240
 4.6930	 1.9210
 4.6970	 1.9230
 4.7010	 1.9210
 4.7050	 1.9190
 4.7100	 1.9230
 4.7140	 1.9270
 4.7180	 1.9230
 4.7230	 1.9200
 4.7270	 1.9220
 4.7310	 1.9260
 4.7360	 1.9260
 4.7400	 1.9230
 4.7440	 1.9230
 4.7490	 1.9220
 4.7530	 1.9210
 4.7570	 1.9250
 4.7620	 1.9290
 4.7660	 1.9260
 4.7700	 1.9260
 4.7750	 1.9260
 4.7790	 1.9250
 4.7840	 1.9250
 4.7880	 1.9250
 4.7920	 1.9270
 4.7970	 1.9300
 4.8010	 1.9320
 4.8060	 1.9290
 4.8100	 1.9250
 4.8150	 1.9250
 4.8190	 1.9300
 4.8240	 1.9310
 4.8280	 1.9330
 4.8330	 1.9330
 4.8370	 1.9300
 4.8420	 1.9250
 4.8460	 1.9290
 4.8510	 1.9330
 4.8550	 1.9340
 4.8600	 1.9360
 4.8640	 1.9350
 4.8690	 1.9350
 4.8740	 1.9360
 4.8780	 1.9380
 4.8830	 1.9380
 4.8870	 1.9370
 4.8920	 1.9360
 4.8970	 1.9340
 4.9010	 1.9360
 4.9060	 1.9380
 4.9100	 1.9400
 4.9150	 1.9460
 4.9200	 1.9460
 4.9240	 1.9430
 4.9290	 1.9450
 4.9340	 1.9490
 4.9390	 1.9490
 4.9430	 1.9440
 4.9480	 1.9440
 4.9530	 1.9420
 4.9570	 1.9320
 4.9620	 1.9370
 4.9670	 1.9480
 4.9720	 1.9520
 4.9760	 1.9550
 4.9810	 1.9560
 4.9860	 1.9560
 4.9910	 1.9580
 4.9960	 1.9610
 5.0000	 1.9600
 5.0050	 1.9590
 5.0100	 1.9600
 5.0150	 1.9540
 5.0200	 1.9390
 5.0250	 1.9490
 5.0300	 1.9580
 5.0340	 1.9620
 5.0390	 1.9650
 5.0440	 1.9650
 5.0490	 1.9660
 5.0540	 1.9650
 5.0590	 1.9640
 5.0640	 1.9670
 5.0690	 1.9710
 5.0740	 1.9740
 5.0790	 1.9660
 5.0840	 1.9550
 5.0890	 1.9660
 5.0940	 1.9780
 5.0990	 1.9810
 5.1040	 1.9790
 5.1090	 1.9770
 5.1140	 1.9770
 5.1190	 1.9810
 5.1240	 1.9850
 5.1290	 1.9860
 5.1340	 1.9810
 5.1390	 1.9750
 5.1440	 1.9600
 5.1490	 1.9470
 5.1550	 1.9770
 5.1600	 1.9880
 5.1650	 1.9860
 5.1700	 1.9860
 5.1750	 1.9900
 5.1800	 1.9900
 5.1850	 1.9920
 5.1910	 1.9910
 5.1960	 1.9770
 5.2010	 1.9590
 5.2060	 1.9660
 5.2110	 1.9440
 5.2170	 1.9500
 5.2220	 1.9890
 5.2270	 1.9930
 5.2330	 1.9800
 5.2380	 1.9720
 5.2430	 1.9810
 5.2480	 1.9890
 5.2540	 1.9930
 5.2590	 1.9920
 5.2640	 1.9950
 5.2700	 1.9930
 5.2750	 1.9840
 5.2800	 1.9840
 5.2860	 1.9850
 5.2910	 1.9600
 5.2970	 1.9690
 5.3020	 1.9920
 5.3080	 1.9920
 5.3130	 1.9930
 5.3180	 1.9930
 5.3240	 1.9960
 5.3290	 1.9970
 5.3350	 1.9960
 5.3400	 1.9860
 5.3460	 1.9390
 5.3510	 1.8920
 5.3570	 1.9290
 5.3620	 1.9760
 5.3680	 1.9910
 5.3740	 1.9860
 5.3790	 1.9850
 5.3850	 1.9850
 5.3900	 1.9910
 5.3960	 1.9910
 5.4010	 1.9900
 5.4070	 1.9720
 5.4130	 1.9520
 5.4180	 1.8950
 5.4240	 1.8600
 5.4300	 1.9360
 5.4350	 1.9760
 5.4410	 1.9670
 5.4470	 1.9670
 5.4530	 1.9740
 5.4580	 1.9480
 5.4640	 1.8790
 5.4700	 1.8990
 5.4760	 1.9170
 5.4810	 1.9080
 5.4870	 1.9500
