Name: Citharexylum montevidense
Type: vegetation
Class: Tree
Genus: Citharexylum
Species: montevidense
Sample No.: JPL200
Owner: JPL
Wavelength Range: VSWIR
Origin: 34.12557; -118.11327; WGS84
Collection Date: 10/3/2016
Description: Samples were collected at the Huntington Garden in San Marino California as part of a JPL Subcontract studying HyTES imagery. Samples were taken to JPL and processed within 48 hours of collection. The same leaves were processed in the Nicolet and then measured using the ASD.
Measurement: Bidirectional reflectance
First Column: X
Second Column: Y
X Units: Wavelength (micrometer)
Y Units: Reflectance (percentage)
First X Value: 0.35
Last X Value: 2.5
Number of X Values: 2151
Additional Information: vegetation.tree.citharexylum.montevidense.vswir.jpl200.jpl.asd.ancillary.txt

 0.3500	 4.0510
 0.3510	 4.1260
 0.3520	 4.0620
 0.3530	 3.9560
 0.3540	 3.9170
 0.3550	 3.9150
 0.3560	 3.8740
 0.3570	 3.8050
 0.3580	 3.7640
 0.3590	 3.7180
 0.3600	 3.7900
 0.3610	 3.9310
 0.3620	 3.8450
 0.3630	 3.7390
 0.3640	 3.7010
 0.3650	 3.7450
 0.3660	 3.7200
 0.3670	 3.7240
 0.3680	 3.7520
 0.3690	 3.7320
 0.3700	 3.7210
 0.3710	 3.6870
 0.3720	 3.6360
 0.3730	 3.6540
 0.3740	 3.6790
 0.3750	 3.6690
 0.3760	 3.6180
 0.3770	 3.6530
 0.3780	 3.6730
 0.3790	 3.6570
 0.3800	 3.6610
 0.3810	 3.6930
 0.3820	 3.6950
 0.3830	 3.6400
 0.3840	 3.5930
 0.3850	 3.6070
 0.3860	 3.6450
 0.3870	 3.6480
 0.3880	 3.6680
 0.3890	 3.6420
 0.3900	 3.5980
 0.3910	 3.6550
 0.3920	 3.6770
 0.3930	 3.6500
 0.3940	 3.6050
 0.3950	 3.6050
 0.3960	 3.6290
 0.3970	 3.6440
 0.3980	 3.6230
 0.3990	 3.6340
 0.4000	 3.6410
 0.4010	 3.6280
 0.4020	 3.6250
 0.4030	 3.6250
 0.4040	 3.6300
 0.4050	 3.6390
 0.4060	 3.6410
 0.4070	 3.6500
 0.4080	 3.6550
 0.4090	 3.6360
 0.4100	 3.6510
 0.4110	 3.6550
 0.4120	 3.6340
 0.4130	 3.6550
 0.4140	 3.6620
 0.4150	 3.6530
 0.4160	 3.6460
 0.4170	 3.6750
 0.4180	 3.6890
 0.4190	 3.6790
 0.4200	 3.6760
 0.4210	 3.6810
 0.4220	 3.6830
 0.4230	 3.6780
 0.4240	 3.6840
 0.4250	 3.6910
 0.4260	 3.6970
 0.4270	 3.7020
 0.4280	 3.7010
 0.4290	 3.6990
 0.4300	 3.6990
 0.4310	 3.6940
 0.4320	 3.6970
 0.4330	 3.7030
 0.4340	 3.7020
 0.4350	 3.7100
 0.4360	 3.7130
 0.4370	 3.7120
 0.4380	 3.7170
 0.4390	 3.7190
 0.4400	 3.7160
 0.4410	 3.7120
 0.4420	 3.7180
 0.4430	 3.7280
 0.4440	 3.7370
 0.4450	 3.7430
 0.4460	 3.7430
 0.4470	 3.7460
 0.4480	 3.7530
 0.4490	 3.7600
 0.4500	 3.7580
 0.4510	 3.7580
 0.4520	 3.7680
 0.4530	 3.7750
 0.4540	 3.7810
 0.4550	 3.7850
 0.4560	 3.7830
 0.4570	 3.7920
 0.4580	 3.8000
 0.4590	 3.8000
 0.4600	 3.7980
 0.4610	 3.8040
 0.4620	 3.8090
 0.4630	 3.8040
 0.4640	 3.8140
 0.4650	 3.8190
 0.4660	 3.8170
 0.4670	 3.8180
 0.4680	 3.8200
 0.4690	 3.8190
 0.4700	 3.8160
 0.4710	 3.8250
 0.4720	 3.8260
 0.4730	 3.8180
 0.4740	 3.8130
 0.4750	 3.8170
 0.4760	 3.8210
 0.4770	 3.8260
 0.4780	 3.8390
 0.4790	 3.8370
 0.4800	 3.8240
 0.4810	 3.8160
 0.4820	 3.8260
 0.4830	 3.8360
 0.4840	 3.8390
 0.4850	 3.8410
 0.4860	 3.8480
 0.4870	 3.8550
 0.4880	 3.8570
 0.4890	 3.8560
 0.4900	 3.8640
 0.4910	 3.8780
 0.4920	 3.8920
 0.4930	 3.9020
 0.4940	 3.9140
 0.4950	 3.9310
 0.4960	 3.9450
 0.4970	 3.9680
 0.4980	 3.9930
 0.4990	 4.0160
 0.5000	 4.0410
 0.5010	 4.0730
 0.5020	 4.1110
 0.5030	 4.1510
 0.5040	 4.1970
 0.5050	 4.2510
 0.5060	 4.3100
 0.5070	 4.3690
 0.5080	 4.4460
 0.5090	 4.5360
 0.5100	 4.6270
 0.5110	 4.7250
 0.5120	 4.8370
 0.5130	 4.9650
 0.5140	 5.1010
 0.5150	 5.2510
 0.5160	 5.4140
 0.5170	 5.5890
 0.5180	 5.7730
 0.5190	 5.9720
 0.5200	 6.1840
 0.5210	 6.4050
 0.5220	 6.6290
 0.5230	 6.8530
 0.5240	 7.0770
 0.5250	 7.3030
 0.5260	 7.5290
 0.5270	 7.7470
 0.5280	 7.9510
 0.5290	 8.1470
 0.5300	 8.3310
 0.5310	 8.5000
 0.5320	 8.6610
 0.5330	 8.8110
 0.5340	 8.9480
 0.5350	 9.0700
 0.5360	 9.1790
 0.5370	 9.2790
 0.5380	 9.3730
 0.5390	 9.4580
 0.5400	 9.5370
 0.5410	 9.6150
 0.5420	 9.6930
 0.5430	 9.7590
 0.5440	 9.8140
 0.5450	 9.8600
 0.5460	 9.8950
 0.5470	 9.9270
 0.5480	 9.9560
 0.5490	 9.9830
 0.5500	10.0080
 0.5510	10.0240
 0.5520	10.0290
 0.5530	10.0210
 0.5540	 9.9990
 0.5550	 9.9640
 0.5560	 9.9150
 0.5570	 9.8510
 0.5580	 9.7780
 0.5590	 9.6940
 0.5600	 9.5960
 0.5610	 9.4910
 0.5620	 9.3780
 0.5630	 9.2570
 0.5640	 9.1300
 0.5650	 8.9980
 0.5660	 8.8600
 0.5670	 8.7140
 0.5680	 8.5600
 0.5690	 8.4020
 0.5700	 8.2490
 0.5710	 8.1050
 0.5720	 7.9640
 0.5730	 7.8270
 0.5740	 7.6940
 0.5750	 7.5680
 0.5760	 7.4560
 0.5770	 7.3560
 0.5780	 7.2640
 0.5790	 7.1770
 0.5800	 7.0920
 0.5810	 7.0080
 0.5820	 6.9250
 0.5830	 6.8550
 0.5840	 6.7910
 0.5850	 6.7310
 0.5860	 6.6770
 0.5870	 6.6200
 0.5880	 6.5610
 0.5890	 6.5000
 0.5900	 6.4460
 0.5910	 6.3990
 0.5920	 6.3610
 0.5930	 6.3330
 0.5940	 6.3070
 0.5950	 6.2840
 0.5960	 6.2620
 0.5970	 6.2380
 0.5980	 6.2140
 0.5990	 6.1900
 0.6000	 6.1700
 0.6010	 6.1490
 0.6020	 6.1200
 0.6030	 6.0820
 0.6040	 6.0390
 0.6050	 5.9910
 0.6060	 5.9380
 0.6070	 5.8800
 0.6080	 5.8200
 0.6090	 5.7580
 0.6100	 5.6950
 0.6110	 5.6340
 0.6120	 5.5730
 0.6130	 5.5100
 0.6140	 5.4480
 0.6150	 5.3850
 0.6160	 5.3260
 0.6170	 5.2730
 0.6180	 5.2260
 0.6190	 5.1820
 0.6200	 5.1440
 0.6210	 5.1120
 0.6220	 5.0810
 0.6230	 5.0550
 0.6240	 5.0340
 0.6250	 5.0190
 0.6260	 5.0070
 0.6270	 4.9970
 0.6280	 4.9890
 0.6290	 4.9850
 0.6300	 4.9790
 0.6310	 4.9730
 0.6320	 4.9650
 0.6330	 4.9510
 0.6340	 4.9340
 0.6350	 4.9120
 0.6360	 4.8840
 0.6370	 4.8490
 0.6380	 4.8100
 0.6390	 4.7680
 0.6400	 4.7210
 0.6410	 4.6700
 0.6420	 4.6190
 0.6430	 4.5680
 0.6440	 4.5140
 0.6450	 4.4640
 0.6460	 4.4180
 0.6470	 4.3720
 0.6480	 4.3340
 0.6490	 4.3010
 0.6500	 4.2740
 0.6510	 4.2550
 0.6520	 4.2370
 0.6530	 4.2190
 0.6540	 4.2010
 0.6550	 4.1860
 0.6560	 4.1690
 0.6570	 4.1490
 0.6580	 4.1280
 0.6590	 4.1040
 0.6600	 4.0810
 0.6610	 4.0610
 0.6620	 4.0410
 0.6630	 4.0250
 0.6640	 4.0130
 0.6650	 4.0040
 0.6660	 3.9960
 0.6670	 3.9940
 0.6680	 3.9980
 0.6690	 4.0090
 0.6700	 4.0210
 0.6710	 4.0360
 0.6720	 4.0530
 0.6730	 4.0720
 0.6740	 4.0980
 0.6750	 4.1280
 0.6760	 4.1580
 0.6770	 4.1910
 0.6780	 4.2270
 0.6790	 4.2650
 0.6800	 4.3090
 0.6810	 4.3530
 0.6820	 4.4000
 0.6830	 4.4500
 0.6840	 4.4990
 0.6850	 4.5540
 0.6860	 4.6140
 0.6870	 4.6830
 0.6880	 4.7680
 0.6890	 4.8760
 0.6900	 5.0170
 0.6910	 5.2060
 0.6920	 5.4530
 0.6930	 5.7680
 0.6940	 6.1550
 0.6950	 6.6190
 0.6960	 7.1630
 0.6970	 7.7870
 0.6980	 8.4840
 0.6990	 9.2460
 0.7000	10.0650
 0.7010	10.9340
 0.7020	11.8390
 0.7030	12.7700
 0.7040	13.7180
 0.7050	14.6770
 0.7060	15.6410
 0.7070	16.6090
 0.7080	17.5810
 0.7090	18.5560
 0.7100	19.5310
 0.7110	20.5100
 0.7120	21.4920
 0.7130	22.4690
 0.7140	23.4450
 0.7150	24.4190
 0.7160	25.3860
 0.7170	26.3500
 0.7180	27.3020
 0.7190	28.2410
 0.7200	29.1680
 0.7210	30.0760
 0.7220	30.9620
 0.7230	31.8270
 0.7240	32.6690
 0.7250	33.4810
 0.7260	34.2620
 0.7270	35.0120
 0.7280	35.7320
 0.7290	36.4200
 0.7300	37.0740
 0.7310	37.6940
 0.7320	38.2810
 0.7330	38.8340
 0.7340	39.3570
 0.7350	39.8490
 0.7360	40.3100
 0.7370	40.7400
 0.7380	41.1430
 0.7390	41.5170
 0.7400	41.8640
 0.7410	42.1850
 0.7420	42.4830
 0.7430	42.7560
 0.7440	43.0050
 0.7450	43.2310
 0.7460	43.4380
 0.7470	43.6260
 0.7480	43.7960
 0.7490	43.9480
 0.7500	44.0880
 0.7510	44.2160
 0.7520	44.3290
 0.7530	44.4270
 0.7540	44.5170
 0.7550	44.6020
 0.7560	44.6780
 0.7570	44.7420
 0.7580	44.8010
 0.7590	44.8550
 0.7600	44.9030
 0.7610	44.9500
 0.7620	44.9900
 0.7630	45.0230
 0.7640	45.0510
 0.7650	45.0780
 0.7660	45.1010
 0.7670	45.1200
 0.7680	45.1380
 0.7690	45.1550
 0.7700	45.1700
 0.7710	45.1840
 0.7720	45.1960
 0.7730	45.2050
 0.7740	45.2160
 0.7750	45.2280
 0.7760	45.2350
 0.7770	45.2450
 0.7780	45.2570
 0.7790	45.2660
 0.7800	45.2730
 0.7810	45.2800
 0.7820	45.2890
 0.7830	45.2980
 0.7840	45.3040
 0.7850	45.3110
 0.7860	45.3190
 0.7870	45.3190
 0.7880	45.3260
 0.7890	45.3340
 0.7900	45.3350
 0.7910	45.3380
 0.7920	45.3420
 0.7930	45.3460
 0.7940	45.3490
 0.7950	45.3510
 0.7960	45.3530
 0.7970	45.3540
 0.7980	45.3550
 0.7990	45.3530
 0.8000	45.3480
 0.8010	45.3440
 0.8020	45.3430
 0.8030	45.3420
 0.8040	45.3390
 0.8050	45.3350
 0.8060	45.3300
 0.8070	45.3240
 0.8080	45.3190
 0.8090	45.3140
 0.8100	45.3100
 0.8110	45.3050
 0.8120	45.2990
 0.8130	45.2950
 0.8140	45.2880
 0.8150	45.2800
 0.8160	45.2740
 0.8170	45.2690
 0.8180	45.2630
 0.8190	45.2570
 0.8200	45.2530
 0.8210	45.2500
 0.8220	45.2430
 0.8230	45.2350
 0.8240	45.2340
 0.8250	45.2260
 0.8260	45.2200
 0.8270	45.2180
 0.8280	45.2150
 0.8290	45.2100
 0.8300	45.2040
 0.8310	45.1980
 0.8320	45.1880
 0.8330	45.1820
 0.8340	45.1810
 0.8350	45.1810
 0.8360	45.1810
 0.8370	45.1810
 0.8380	45.1830
 0.8390	45.1870
 0.8400	45.1890
 0.8410	45.1920
 0.8420	45.1960
 0.8430	45.2010
 0.8440	45.2030
 0.8450	45.2050
 0.8460	45.2050
 0.8470	45.2090
 0.8480	45.2160
 0.8490	45.2230
 0.8500	45.2290
 0.8510	45.2340
 0.8520	45.2410
 0.8530	45.2500
 0.8540	45.2610
 0.8550	45.2650
 0.8560	45.2690
 0.8570	45.2770
 0.8580	45.2890
 0.8590	45.2940
 0.8600	45.3010
 0.8610	45.3120
 0.8620	45.3180
 0.8630	45.3240
 0.8640	45.3340
 0.8650	45.3460
 0.8660	45.3500
 0.8670	45.3560
 0.8680	45.3630
 0.8690	45.3710
 0.8700	45.3830
 0.8710	45.3940
 0.8720	45.4040
 0.8730	45.4130
 0.8740	45.4220
 0.8750	45.4290
 0.8760	45.4360
 0.8770	45.4490
 0.8780	45.4580
 0.8790	45.4630
 0.8800	45.4670
 0.8810	45.4750
 0.8820	45.4860
 0.8830	45.4980
 0.8840	45.5090
 0.8850	45.5170
 0.8860	45.5230
 0.8870	45.5290
 0.8880	45.5340
 0.8890	45.5390
 0.8900	45.5450
 0.8910	45.5520
 0.8920	45.5590
 0.8930	45.5670
 0.8940	45.5730
 0.8950	45.5770
 0.8960	45.5780
 0.8970	45.5890
 0.8980	45.5970
 0.8990	45.5990
 0.9000	45.6060
 0.9010	45.6150
 0.9020	45.6190
 0.9030	45.6180
 0.9040	45.6220
 0.9050	45.6290
 0.9060	45.6370
 0.9070	45.6420
 0.9080	45.6420
 0.9090	45.6410
 0.9100	45.6420
 0.9110	45.6450
 0.9120	45.6480
 0.9130	45.6520
 0.9140	45.6560
 0.9150	45.6600
 0.9160	45.6560
 0.9170	45.6570
 0.9180	45.6600
 0.9190	45.6550
 0.9200	45.6530
 0.9210	45.6490
 0.9220	45.6410
 0.9230	45.6350
 0.9240	45.6270
 0.9250	45.6170
 0.9260	45.6060
 0.9270	45.5960
 0.9280	45.5710
 0.9290	45.5520
 0.9300	45.5390
 0.9310	45.5170
 0.9320	45.4960
 0.9330	45.4770
 0.9340	45.4580
 0.9350	45.4410
 0.9360	45.4110
 0.9370	45.3790
 0.9380	45.3510
 0.9390	45.3220
 0.9400	45.2940
 0.9410	45.2640
 0.9420	45.2310
 0.9430	45.1990
 0.9440	45.1590
 0.9450	45.1170
 0.9460	45.0750
 0.9470	45.0240
 0.9480	44.9680
 0.9490	44.9100
 0.9500	44.8550
 0.9510	44.7990
 0.9520	44.7380
 0.9530	44.6730
 0.9540	44.6100
 0.9550	44.5530
 0.9560	44.4860
 0.9570	44.4210
 0.9580	44.3690
 0.9590	44.3140
 0.9600	44.2650
 0.9610	44.2180
 0.9620	44.1730
 0.9630	44.1380
 0.9640	44.1060
 0.9650	44.0780
 0.9660	44.0590
 0.9670	44.0430
 0.9680	44.0260
 0.9690	44.0040
 0.9700	43.9780
 0.9710	43.9700
 0.9720	43.9580
 0.9730	43.9410
 0.9740	43.9260
 0.9750	43.9220
 0.9760	43.9220
 0.9770	43.9200
 0.9780	43.9120
 0.9790	43.9100
 0.9800	43.9110
 0.9810	43.9130
 0.9820	43.9120
 0.9830	43.9180
 0.9840	43.9260
 0.9850	43.9330
 0.9860	43.9430
 0.9870	43.9590
 0.9880	43.9660
 0.9890	43.9730
 0.9900	43.9890
 0.9910	43.9880
 0.9920	44.0050
 0.9930	44.0330
 0.9940	44.0480
 0.9950	44.0650
 0.9960	44.0900
 0.9970	44.1130
 0.9980	44.1230
 0.9990	44.1400
 1.0000	44.1590
 1.0010	45.3680
 1.0020	45.3850
 1.0030	45.4020
 1.0040	45.4260
 1.0050	45.4480
 1.0060	45.4700
 1.0070	45.4960
 1.0080	45.5180
 1.0090	45.5340
 1.0100	45.5560
 1.0110	45.5790
 1.0120	45.6010
 1.0130	45.6240
 1.0140	45.6460
 1.0150	45.6660
 1.0160	45.6860
 1.0170	45.7080
 1.0180	45.7310
 1.0190	45.7540
 1.0200	45.7790
 1.0210	45.8030
 1.0220	45.8250
 1.0230	45.8480
 1.0240	45.8680
 1.0250	45.8910
 1.0260	45.9170
 1.0270	45.9410
 1.0280	45.9650
 1.0290	45.9880
 1.0300	46.0080
 1.0310	46.0290
 1.0320	46.0500
 1.0330	46.0740
 1.0340	46.0930
 1.0350	46.1140
 1.0360	46.1350
 1.0370	46.1560
 1.0380	46.1780
 1.0390	46.2060
 1.0400	46.2270
 1.0410	46.2470
 1.0420	46.2660
 1.0430	46.2810
 1.0440	46.2970
 1.0450	46.3130
 1.0460	46.3270
 1.0470	46.3410
 1.0480	46.3550
 1.0490	46.3650
 1.0500	46.3790
 1.0510	46.3960
 1.0520	46.4110
 1.0530	46.4220
 1.0540	46.4340
 1.0550	46.4450
 1.0560	46.4530
 1.0570	46.4610
 1.0580	46.4720
 1.0590	46.4790
 1.0600	46.4810
 1.0610	46.4850
 1.0620	46.4890
 1.0630	46.4910
 1.0640	46.4930
 1.0650	46.4950
 1.0660	46.4980
 1.0670	46.4980
 1.0680	46.4970
 1.0690	46.4940
 1.0700	46.4920
 1.0710	46.4860
 1.0720	46.4810
 1.0730	46.4780
 1.0740	46.4730
 1.0750	46.4680
 1.0760	46.4620
 1.0770	46.4550
 1.0780	46.4490
 1.0790	46.4440
 1.0800	46.4360
 1.0810	46.4310
 1.0820	46.4230
 1.0830	46.4100
 1.0840	46.4000
 1.0850	46.3910
 1.0860	46.3830
 1.0870	46.3720
 1.0880	46.3620
 1.0890	46.3520
 1.0900	46.3420
 1.0910	46.3310
 1.0920	46.3220
 1.0930	46.3110
 1.0940	46.2980
 1.0950	46.2850
 1.0960	46.2710
 1.0970	46.2580
 1.0980	46.2430
 1.0990	46.2300
 1.1000	46.2190
 1.1010	46.2060
 1.1020	46.1900
 1.1030	46.1770
 1.1040	46.1640
 1.1050	46.1510
 1.1060	46.1380
 1.1070	46.1270
 1.1080	46.1130
 1.1090	46.0950
 1.1100	46.0810
 1.1110	46.0670
 1.1120	46.0520
 1.1130	46.0420
 1.1140	46.0250
 1.1150	46.0030
 1.1160	45.9830
 1.1170	45.9620
 1.1180	45.9390
 1.1190	45.9150
 1.1200	45.8920
 1.1210	45.8650
 1.1220	45.8330
 1.1230	45.8010
 1.1240	45.7640
 1.1250	45.7200
 1.1260	45.6700
 1.1270	45.6140
 1.1280	45.5530
 1.1290	45.4830
 1.1300	45.4090
 1.1310	45.3250
 1.1320	45.2330
 1.1330	45.1350
 1.1340	45.0310
 1.1350	44.9180
 1.1360	44.7980
 1.1370	44.6690
 1.1380	44.5330
 1.1390	44.3920
 1.1400	44.2480
 1.1410	44.1030
 1.1420	43.9540
 1.1430	43.8030
 1.1440	43.6520
 1.1450	43.4970
 1.1460	43.3500
 1.1470	43.2030
 1.1480	43.0630
 1.1490	42.9270
 1.1500	42.7980
 1.1510	42.6720
 1.1520	42.5560
 1.1530	42.4470
 1.1540	42.3470
 1.1550	42.2540
 1.1560	42.1680
 1.1570	42.0910
 1.1580	42.0230
 1.1590	41.9590
 1.1600	41.9020
 1.1610	41.8530
 1.1620	41.8050
 1.1630	41.7620
 1.1640	41.7260
 1.1650	41.6910
 1.1660	41.6590
 1.1670	41.6300
 1.1680	41.6060
 1.1690	41.5810
 1.1700	41.5600
 1.1710	41.5390
 1.1720	41.5200
 1.1730	41.5000
 1.1740	41.4810
 1.1750	41.4620
 1.1760	41.4430
 1.1770	41.4230
 1.1780	41.4050
 1.1790	41.3850
 1.1800	41.3630
 1.1810	41.3430
 1.1820	41.3230
 1.1830	41.3040
 1.1840	41.2860
 1.1850	41.2680
 1.1860	41.2500
 1.1870	41.2340
 1.1880	41.2190
 1.1890	41.2070
 1.1900	41.1960
 1.1910	41.1870
 1.1920	41.1780
 1.1930	41.1710
 1.1940	41.1660
 1.1950	41.1610
 1.1960	41.1590
 1.1970	41.1600
 1.1980	41.1620
 1.1990	41.1660
 1.2000	41.1720
 1.2010	41.1790
 1.2020	41.1880
 1.2030	41.1970
 1.2040	41.2080
 1.2050	41.2210
 1.2060	41.2350
 1.2070	41.2500
 1.2080	41.2670
 1.2090	41.2850
 1.2100	41.3040
 1.2110	41.3240
 1.2120	41.3460
 1.2130	41.3680
 1.2140	41.3890
 1.2150	41.4120
 1.2160	41.4370
 1.2170	41.4600
 1.2180	41.4840
 1.2190	41.5100
 1.2200	41.5340
 1.2210	41.5590
 1.2220	41.5840
 1.2230	41.6090
 1.2240	41.6350
 1.2250	41.6590
 1.2260	41.6830
 1.2270	41.7070
 1.2280	41.7300
 1.2290	41.7540
 1.2300	41.7770
 1.2310	41.7990
 1.2320	41.8220
 1.2330	41.8440
 1.2340	41.8660
 1.2350	41.8910
 1.2360	41.9130
 1.2370	41.9330
 1.2380	41.9540
 1.2390	41.9750
 1.2400	41.9930
 1.2410	42.0120
 1.2420	42.0310
 1.2430	42.0480
 1.2440	42.0640
 1.2450	42.0800
 1.2460	42.0960
 1.2470	42.1120
 1.2480	42.1280
 1.2490	42.1450
 1.2500	42.1590
 1.2510	42.1700
 1.2520	42.1810
 1.2530	42.1930
 1.2540	42.2030
 1.2550	42.2140
 1.2560	42.2240
 1.2570	42.2340
 1.2580	42.2400
 1.2590	42.2450
 1.2600	42.2480
 1.2610	42.2520
 1.2620	42.2550
 1.2630	42.2590
 1.2640	42.2620
 1.2650	42.2620
 1.2660	42.2620
 1.2670	42.2610
 1.2680	42.2570
 1.2690	42.2540
 1.2700	42.2510
 1.2710	42.2470
 1.2720	42.2450
 1.2730	42.2420
 1.2740	42.2350
 1.2750	42.2270
 1.2760	42.2170
 1.2770	42.2060
 1.2780	42.1950
 1.2790	42.1840
 1.2800	42.1710
 1.2810	42.1570
 1.2820	42.1400
 1.2830	42.1200
 1.2840	42.0960
 1.2850	42.0690
 1.2860	42.0410
 1.2870	42.0110
 1.2880	41.9790
 1.2890	41.9460
 1.2900	41.9080
 1.2910	41.8660
 1.2920	41.8200
 1.2930	41.7730
 1.2940	41.7220
 1.2950	41.6690
 1.2960	41.6120
 1.2970	41.5500
 1.2980	41.4840
 1.2990	41.4160
 1.3000	41.3480
 1.3010	41.2760
 1.3020	41.2000
 1.3030	41.1240
 1.3040	41.0420
 1.3050	40.9560
 1.3060	40.8710
 1.3070	40.7830
 1.3080	40.6920
 1.3090	40.6000
 1.3100	40.5040
 1.3110	40.4030
 1.3120	40.3010
 1.3130	40.1960
 1.3140	40.0890
 1.3150	39.9810
 1.3160	39.8690
 1.3170	39.7550
 1.3180	39.6360
 1.3190	39.5140
 1.3200	39.3910
 1.3210	39.2640
 1.3220	39.1380
 1.3230	39.0130
 1.3240	38.8820
 1.3250	38.7510
 1.3260	38.6160
 1.3270	38.4770
 1.3280	38.3380
 1.3290	38.1940
 1.3300	38.0510
 1.3310	37.9070
 1.3320	37.7600
 1.3330	37.6160
 1.3340	37.4710
 1.3350	37.3240
 1.3360	37.1790
 1.3370	37.0310
 1.3380	36.8840
 1.3390	36.7380
 1.3400	36.5920
 1.3410	36.4500
 1.3420	36.3100
 1.3430	36.1700
 1.3440	36.0320
 1.3450	35.8950
 1.3460	35.7570
 1.3470	35.6230
 1.3480	35.4900
 1.3490	35.3590
 1.3500	35.2310
 1.3510	35.1040
 1.3520	34.9770
 1.3530	34.8500
 1.3540	34.7230
 1.3550	34.5930
 1.3560	34.4630
 1.3570	34.3330
 1.3580	34.2020
 1.3590	34.0680
 1.3600	33.9320
 1.3610	33.7910
 1.3620	33.6440
 1.3630	33.4940
 1.3640	33.3360
 1.3650	33.1700
 1.3660	32.9970
 1.3670	32.8130
 1.3680	32.6180
 1.3690	32.4130
 1.3700	32.1910
 1.3710	31.9560
 1.3720	31.7060
 1.3730	31.4360
 1.3740	31.1510
 1.3750	30.8460
 1.3760	30.5170
 1.3770	30.1660
 1.3780	29.7870
 1.3790	29.3850
 1.3800	28.9600
 1.3810	28.5080
 1.3820	28.0380
 1.3830	27.5470
 1.3840	27.0360
 1.3850	26.5020
 1.3860	25.9570
 1.3870	25.3890
 1.3880	24.8200
 1.3890	24.2390
 1.3900	23.6500
 1.3910	23.0640
 1.3920	22.4760
 1.3930	21.8870
 1.3940	21.3060
 1.3950	20.7250
 1.3960	20.1570
 1.3970	19.6050
 1.3980	19.0650
 1.3990	18.5490
 1.4000	18.0520
 1.4010	17.5710
 1.4020	17.1150
 1.4030	16.6760
 1.4040	16.2610
 1.4050	15.8700
 1.4060	15.5000
 1.4070	15.1560
 1.4080	14.8330
 1.4090	14.5280
 1.4100	14.2460
 1.4110	13.9810
 1.4120	13.7340
 1.4130	13.5050
 1.4140	13.2910
 1.4150	13.0950
 1.4160	12.9140
 1.4170	12.7460
 1.4180	12.5910
 1.4190	12.4460
 1.4200	12.3110
 1.4210	12.1860
 1.4220	12.0720
 1.4230	11.9670
 1.4240	11.8710
 1.4250	11.7820
 1.4260	11.7000
 1.4270	11.6240
 1.4280	11.5560
 1.4290	11.4920
 1.4300	11.4330
 1.4310	11.3800
 1.4320	11.3330
 1.4330	11.2900
 1.4340	11.2530
 1.4350	11.2190
 1.4360	11.1900
 1.4370	11.1630
 1.4380	11.1410
 1.4390	11.1220
 1.4400	11.1060
 1.4410	11.0930
 1.4420	11.0820
 1.4430	11.0740
 1.4440	11.0690
 1.4450	11.0650
 1.4460	11.0630
 1.4470	11.0630
 1.4480	11.0660
 1.4490	11.0700
 1.4500	11.0760
 1.4510	11.0830
 1.4520	11.0910
 1.4530	11.1010
 1.4540	11.1140
 1.4550	11.1290
 1.4560	11.1460
 1.4570	11.1660
 1.4580	11.1880
 1.4590	11.2130
 1.4600	11.2420
 1.4610	11.2740
 1.4620	11.3100
 1.4630	11.3500
 1.4640	11.3940
 1.4650	11.4420
 1.4660	11.4940
 1.4670	11.5500
 1.4680	11.6100
 1.4690	11.6730
 1.4700	11.7410
 1.4710	11.8130
 1.4720	11.8880
 1.4730	11.9650
 1.4740	12.0460
 1.4750	12.1290
 1.4760	12.2160
