Name: Umbellularia californica 2
Type: vegetation
Class: Shrub
Genus: Umbellularia
Species: californica
Sample No.: VH106
Owner: UCSB
Wavelength Range: VSWIR
Origin: 34.5074; -119.7632; WGS84
Collection Date: 6/3/2013
Description: Samples were collected as part of the HyspIRI Airborne Campaign. 48 individual plants were sampled in three times in 2013 - spring  summer  and fall. The name of the sample includes a 1  2  or 3 which references a different individual of the species. Samples were taken to JPL and processed within 48 hours of collection. The same leaves were processed in the Nicolet and then measured using the ASD.
Measurement: Bidirectional reflectance
First Column: X
Second Column: Y
X Units: Wavelength (micrometers)
Y Units: Reflectance (percentage)
First X Value: 0.35
Last X Value: 2.5
Number of X Values: 2151
Additional Information: vegetation.shrub.umbellularia.californica.vswir.vh106.ucsb.asd.ancillary.txt

 0.3500	 5.9070
 0.3510	 5.8040
 0.3520	 5.7680
 0.3530	 5.8100
 0.3540	 5.8830
 0.3550	 5.8000
 0.3560	 5.8070
 0.3570	 5.8050
 0.3580	 5.5800
 0.3590	 5.6050
 0.3600	 5.6570
 0.3610	 5.6180
 0.3620	 5.6150
 0.3630	 5.5610
 0.3640	 5.5040
 0.3650	 5.5130
 0.3660	 5.6380
 0.3670	 5.6430
 0.3680	 5.5460
 0.3690	 5.5350
 0.3700	 5.5920
 0.3710	 5.5980
 0.3720	 5.5280
 0.3730	 5.5530
 0.3740	 5.5330
 0.3750	 5.4690
 0.3760	 5.4270
 0.3770	 5.5490
 0.3780	 5.5980
 0.3790	 5.5430
 0.3800	 5.5340
 0.3810	 5.4570
 0.3820	 5.4510
 0.3830	 5.5490
 0.3840	 5.4540
 0.3850	 5.4500
 0.3860	 5.5100
 0.3870	 5.5150
 0.3880	 5.5210
 0.3890	 5.5250
 0.3900	 5.5180
 0.3910	 5.4970
 0.3920	 5.4640
 0.3930	 5.4510
 0.3940	 5.4740
 0.3950	 5.4930
 0.3960	 5.5060
 0.3970	 5.4940
 0.3980	 5.4440
 0.3990	 5.4430
 0.4000	 5.4730
 0.4010	 5.4990
 0.4020	 5.4800
 0.4030	 5.4680
 0.4040	 5.4710
 0.4050	 5.4820
 0.4060	 5.4940
 0.4070	 5.4820
 0.4080	 5.4630
 0.4090	 5.4710
 0.4100	 5.4970
 0.4110	 5.5200
 0.4120	 5.5280
 0.4130	 5.5120
 0.4140	 5.5230
 0.4150	 5.5560
 0.4160	 5.5870
 0.4170	 5.6130
 0.4180	 5.6220
 0.4190	 5.6300
 0.4200	 5.6710
 0.4210	 5.6800
 0.4220	 5.6860
 0.4230	 5.7190
 0.4240	 5.7520
 0.4250	 5.7720
 0.4260	 5.7840
 0.4270	 5.8050
 0.4280	 5.8350
 0.4290	 5.8640
 0.4300	 5.8890
 0.4310	 5.9240
 0.4320	 5.9410
 0.4330	 5.9560
 0.4340	 5.9890
 0.4350	 6.0130
 0.4360	 6.0290
 0.4370	 6.0410
 0.4380	 6.0540
 0.4390	 6.0560
 0.4400	 6.0660
 0.4410	 6.0890
 0.4420	 6.1010
 0.4430	 6.1150
 0.4440	 6.1280
 0.4450	 6.1360
 0.4460	 6.1640
 0.4470	 6.1920
 0.4480	 6.2060
 0.4490	 6.2090
 0.4500	 6.2320
 0.4510	 6.2610
 0.4520	 6.2800
 0.4530	 6.2950
 0.4540	 6.3080
 0.4550	 6.3210
 0.4560	 6.3300
 0.4570	 6.3460
 0.4580	 6.3530
 0.4590	 6.3500
 0.4600	 6.3690
 0.4610	 6.3800
 0.4620	 6.3800
 0.4630	 6.3790
 0.4640	 6.3970
 0.4650	 6.4100
 0.4660	 6.4120
 0.4670	 6.4140
 0.4680	 6.4190
 0.4690	 6.4220
 0.4700	 6.4230
 0.4710	 6.4300
 0.4720	 6.4320
 0.4730	 6.4290
 0.4740	 6.4250
 0.4750	 6.4280
 0.4760	 6.4360
 0.4770	 6.4430
 0.4780	 6.4370
 0.4790	 6.4410
 0.4800	 6.4480
 0.4810	 6.4450
 0.4820	 6.4600
 0.4830	 6.4740
 0.4840	 6.4830
 0.4850	 6.4950
 0.4860	 6.5050
 0.4870	 6.5200
 0.4880	 6.5450
 0.4890	 6.5630
 0.4900	 6.5790
 0.4910	 6.6010
 0.4920	 6.6380
 0.4930	 6.6720
 0.4940	 6.7120
 0.4950	 6.7580
 0.4960	 6.7980
 0.4970	 6.8480
 0.4980	 6.9050
 0.4990	 6.9660
 0.5000	 7.0350
 0.5010	 7.1140
 0.5020	 7.2030
 0.5030	 7.2970
 0.5040	 7.4020
 0.5050	 7.5190
 0.5060	 7.6500
 0.5070	 7.7870
 0.5080	 7.9430
 0.5090	 8.1190
 0.5100	 8.3080
 0.5110	 8.5130
 0.5120	 8.7310
 0.5130	 8.9600
 0.5140	 9.2090
 0.5150	 9.4750
 0.5160	 9.7610
 0.5170	10.0680
 0.5180	10.3850
 0.5190	10.7140
 0.5200	11.0530
 0.5210	11.3970
 0.5220	11.7420
 0.5230	12.0830
 0.5240	12.4210
 0.5250	12.7620
 0.5260	13.0940
 0.5270	13.4100
 0.5280	13.7070
 0.5290	13.9850
 0.5300	14.2490
 0.5310	14.5010
 0.5320	14.7380
 0.5330	14.9570
 0.5340	15.1560
 0.5350	15.3360
 0.5360	15.4960
 0.5370	15.6460
 0.5380	15.7880
 0.5390	15.9110
 0.5400	16.0320
 0.5410	16.1470
 0.5420	16.2540
 0.5430	16.3570
 0.5440	16.4540
 0.5450	16.5390
 0.5460	16.6070
 0.5470	16.6650
 0.5480	16.7130
 0.5490	16.7550
 0.5500	16.7950
 0.5510	16.8240
 0.5520	16.8360
 0.5530	16.8290
 0.5540	16.8020
 0.5550	16.7560
 0.5560	16.6910
 0.5570	16.6060
 0.5580	16.5090
 0.5590	16.3950
 0.5600	16.2630
 0.5610	16.1230
 0.5620	15.9720
 0.5630	15.8090
 0.5640	15.6320
 0.5650	15.4410
 0.5660	15.2360
 0.5670	15.0220
 0.5680	14.8060
 0.5690	14.5850
 0.5700	14.3620
 0.5710	14.1400
 0.5720	13.9270
 0.5730	13.7230
 0.5740	13.5320
 0.5750	13.3590
 0.5760	13.1990
 0.5770	13.0470
 0.5780	12.9000
 0.5790	12.7630
 0.5800	12.6330
 0.5810	12.5090
 0.5820	12.3910
 0.5830	12.2720
 0.5840	12.1580
 0.5850	12.0510
 0.5860	11.9490
 0.5870	11.8560
 0.5880	11.7740
 0.5890	11.7010
 0.5900	11.6410
 0.5910	11.5860
 0.5920	11.5330
 0.5930	11.4840
 0.5940	11.4360
 0.5950	11.3890
 0.5960	11.3420
 0.5970	11.2900
 0.5980	11.2390
 0.5990	11.1880
 0.6000	11.1340
 0.6010	11.0760
 0.6020	11.0150
 0.6030	10.9510
 0.6040	10.8810
 0.6050	10.8100
 0.6060	10.7330
 0.6070	10.6470
 0.6080	10.5590
 0.6090	10.4690
 0.6100	10.3790
 0.6110	10.2900
 0.6120	10.1920
 0.6130	10.0860
 0.6140	 9.9800
 0.6150	 9.8840
 0.6160	 9.7920
 0.6170	 9.7040
 0.6180	 9.6220
 0.6190	 9.5460
 0.6200	 9.4780
 0.6210	 9.4200
 0.6220	 9.3700
 0.6230	 9.3240
 0.6240	 9.2850
 0.6250	 9.2530
 0.6260	 9.2270
 0.6270	 9.2070
 0.6280	 9.1900
 0.6290	 9.1740
 0.6300	 9.1570
 0.6310	 9.1390
 0.6320	 9.1160
 0.6330	 9.0850
 0.6340	 9.0470
 0.6350	 8.9980
 0.6360	 8.9340
 0.6370	 8.8550
 0.6380	 8.7630
 0.6390	 8.6620
 0.6400	 8.5540
 0.6410	 8.4350
 0.6420	 8.3140
 0.6430	 8.1950
 0.6440	 8.0730
 0.6450	 7.9550
 0.6460	 7.8450
 0.6470	 7.7460
 0.6480	 7.6560
 0.6490	 7.5760
 0.6500	 7.5080
 0.6510	 7.4510
 0.6520	 7.4010
 0.6530	 7.3560
 0.6540	 7.3140
 0.6550	 7.2630
 0.6560	 7.2150
 0.6570	 7.1640
 0.6580	 7.1060
 0.6590	 7.0410
 0.6600	 6.9720
 0.6610	 6.9030
 0.6620	 6.8370
 0.6630	 6.7730
 0.6640	 6.7120
 0.6650	 6.6590
 0.6660	 6.6130
 0.6670	 6.5720
 0.6680	 6.5390
 0.6690	 6.5140
 0.6700	 6.4980
 0.6710	 6.4910
 0.6720	 6.4890
 0.6730	 6.4860
 0.6740	 6.4900
 0.6750	 6.5000
 0.6760	 6.5140
 0.6770	 6.5360
 0.6780	 6.5600
 0.6790	 6.5890
 0.6800	 6.6240
 0.6810	 6.6710
 0.6820	 6.7280
 0.6830	 6.7970
 0.6840	 6.8820
 0.6850	 6.9910
 0.6860	 7.1320
 0.6870	 7.3110
 0.6880	 7.5350
 0.6890	 7.8150
 0.6900	 8.1610
 0.6910	 8.5890
 0.6920	 9.1030
 0.6930	 9.7050
 0.6940	10.3990
 0.6950	11.1840
 0.6960	12.0610
 0.6970	13.0180
 0.6980	14.0430
 0.6990	15.1310
 0.7000	16.2690
 0.7010	17.4420
 0.7020	18.6360
 0.7030	19.8390
 0.7040	21.0410
 0.7050	22.2350
 0.7060	23.4210
 0.7070	24.5870
 0.7080	25.7340
 0.7090	26.8660
 0.7100	27.9790
 0.7110	29.0760
 0.7120	30.1570
 0.7130	31.2160
 0.7140	32.2590
 0.7150	33.2860
 0.7160	34.2910
 0.7170	35.2770
 0.7180	36.2420
 0.7190	37.1900
 0.7200	38.1210
 0.7210	39.0260
 0.7220	39.9040
 0.7230	40.7600
 0.7240	41.5930
 0.7250	42.3990
 0.7260	43.1760
 0.7270	43.9230
 0.7280	44.6430
 0.7290	45.3300
 0.7300	45.9840
 0.7310	46.6120
 0.7320	47.2070
 0.7330	47.7750
 0.7340	48.3170
 0.7350	48.8260
 0.7360	49.3080
 0.7370	49.7640
 0.7380	50.1960
 0.7390	50.5970
 0.7400	50.9830
 0.7410	51.3460
 0.7420	51.6770
 0.7430	51.9860
 0.7440	52.2760
 0.7450	52.5470
 0.7460	52.7990
 0.7470	53.0280
 0.7480	53.2390
 0.7490	53.4360
 0.7500	53.6180
 0.7510	53.7830
 0.7520	53.9330
 0.7530	54.0700
 0.7540	54.1940
 0.7550	54.3060
 0.7560	54.4080
 0.7570	54.5030
 0.7580	54.5900
 0.7590	54.6690
 0.7600	54.7390
 0.7610	54.8040
 0.7620	54.8620
 0.7630	54.9140
 0.7640	54.9640
 0.7650	55.0080
 0.7660	55.0480
 0.7670	55.0840
 0.7680	55.1140
 0.7690	55.1450
 0.7700	55.1720
 0.7710	55.1960
 0.7720	55.2170
 0.7730	55.2390
 0.7740	55.2600
 0.7750	55.2760
 0.7760	55.2930
 0.7770	55.3110
 0.7780	55.3290
 0.7790	55.3460
 0.7800	55.3600
 0.7810	55.3770
 0.7820	55.3960
 0.7830	55.4040
 0.7840	55.4110
 0.7850	55.4220
 0.7860	55.4370
 0.7870	55.4440
 0.7880	55.4500
 0.7890	55.4600
 0.7900	55.4700
 0.7910	55.4780
 0.7920	55.4860
 0.7930	55.4930
 0.7940	55.4980
 0.7950	55.5000
 0.7960	55.5050
 0.7970	55.5110
 0.7980	55.5070
 0.7990	55.5070
 0.8000	55.5060
 0.8010	55.5030
 0.8020	55.5040
 0.8030	55.5020
 0.8040	55.4970
 0.8050	55.4920
 0.8060	55.4880
 0.8070	55.4820
 0.8080	55.4760
 0.8090	55.4700
 0.8100	55.4600
 0.8110	55.4480
 0.8120	55.4390
 0.8130	55.4340
 0.8140	55.4220
 0.8150	55.4070
 0.8160	55.3950
 0.8170	55.3850
 0.8180	55.3720
 0.8190	55.3580
 0.8200	55.3450
 0.8210	55.3380
 0.8220	55.3290
 0.8230	55.3150
 0.8240	55.2980
 0.8250	55.2790
 0.8260	55.2620
 0.8270	55.2480
 0.8280	55.2280
 0.8290	55.2140
 0.8300	55.2020
 0.8310	55.1860
 0.8320	55.1750
 0.8330	55.1590
 0.8340	55.1410
 0.8350	55.1240
 0.8360	55.1140
 0.8370	55.1090
 0.8380	55.1040
 0.8390	55.0940
 0.8400	55.0850
 0.8410	55.0770
 0.8420	55.0710
 0.8430	55.0680
 0.8440	55.0660
 0.8450	55.0600
 0.8460	55.0530
 0.8470	55.0450
 0.8480	55.0410
 0.8490	55.0400
 0.8500	55.0400
 0.8510	55.0360
 0.8520	55.0320
 0.8530	55.0310
 0.8540	55.0360
 0.8550	55.0270
 0.8560	55.0230
 0.8570	55.0270
 0.8580	55.0230
 0.8590	55.0180
 0.8600	55.0220
 0.8610	55.0310
 0.8620	55.0250
 0.8630	55.0200
 0.8640	55.0210
 0.8650	55.0260
 0.8660	55.0350
 0.8670	55.0340
 0.8680	55.0310
 0.8690	55.0320
 0.8700	55.0310
 0.8710	55.0300
 0.8720	55.0330
 0.8730	55.0390
 0.8740	55.0430
 0.8750	55.0460
 0.8760	55.0480
 0.8770	55.0510
 0.8780	55.0580
 0.8790	55.0660
 0.8800	55.0730
 0.8810	55.0780
 0.8820	55.0770
 0.8830	55.0770
 0.8840	55.0830
 0.8850	55.0870
 0.8860	55.0920
 0.8870	55.1020
 0.8880	55.1130
 0.8890	55.1030
 0.8900	55.1040
 0.8910	55.1160
 0.8920	55.1240
 0.8930	55.1290
 0.8940	55.1290
 0.8950	55.1290
 0.8960	55.1350
 0.8970	55.1430
 0.8980	55.1480
 0.8990	55.1470
 0.9000	55.1430
 0.9010	55.1530
 0.9020	55.1600
 0.9030	55.1580
 0.9040	55.1680
 0.9050	55.1720
 0.9060	55.1710
 0.9070	55.1700
 0.9080	55.1750
 0.9090	55.1730
 0.9100	55.1700
 0.9110	55.1720
 0.9120	55.1810
 0.9130	55.1770
 0.9140	55.1720
 0.9150	55.1810
 0.9160	55.1810
 0.9170	55.1840
 0.9180	55.1860
 0.9190	55.1790
 0.9200	55.1790
 0.9210	55.1720
 0.9220	55.1580
 0.9230	55.1420
 0.9240	55.1340
 0.9250	55.1190
 0.9260	55.1000
 0.9270	55.0900
 0.9280	55.0660
 0.9290	55.0430
 0.9300	55.0260
 0.9310	55.0070
 0.9320	54.9890
 0.9330	54.9660
 0.9340	54.9330
 0.9350	54.8900
 0.9360	54.8660
 0.9370	54.8380
 0.9380	54.7970
 0.9390	54.7670
 0.9400	54.7280
 0.9410	54.6900
 0.9420	54.6560
 0.9430	54.6110
 0.9440	54.5640
 0.9450	54.5110
 0.9460	54.4540
 0.9470	54.4020
 0.9480	54.3390
 0.9490	54.2700
 0.9500	54.1990
 0.9510	54.1280
 0.9520	54.0330
 0.9530	53.9370
 0.9540	53.8640
 0.9550	53.7880
 0.9560	53.7120
 0.9570	53.6320
 0.9580	53.5500
 0.9590	53.4910
 0.9600	53.4390
 0.9610	53.3840
 0.9620	53.3290
 0.9630	53.2940
 0.9640	53.2500
 0.9650	53.2110
 0.9660	53.1990
 0.9670	53.1680
 0.9680	53.1500
 0.9690	53.1460
 0.9700	53.1390
 0.9710	53.1060
 0.9720	53.0950
 0.9730	53.0960
 0.9740	53.0830
 0.9750	53.0890
 0.9760	53.0860
 0.9770	53.0770
 0.9780	53.0810
 0.9790	53.0890
 0.9800	53.0930
 0.9810	53.0960
 0.9820	53.1090
 0.9830	53.1200
 0.9840	53.1290
 0.9850	53.1390
 0.9860	53.1550
 0.9870	53.1700
 0.9880	53.1690
 0.9890	53.1770
 0.9900	53.2200
 0.9910	53.2340
 0.9920	53.2890
 0.9930	53.3450
 0.9940	53.4010
 0.9950	53.4570
 0.9960	53.5130
 0.9970	53.5690
 0.9980	53.6240
 0.9990	53.6800
 1.0000	53.7360
 1.0010	53.7920
 1.0020	53.8480
 1.0030	53.9030
 1.0040	53.9590
 1.0050	54.0150
 1.0060	54.0710
 1.0070	54.1270
 1.0080	54.1830
 1.0090	54.2380
 1.0100	54.2380
 1.0110	54.2570
 1.0120	54.2780
 1.0130	54.3010
 1.0140	54.3250
 1.0150	54.3530
 1.0160	54.3730
 1.0170	54.3970
 1.0180	54.4190
 1.0190	54.4380
 1.0200	54.4620
 1.0210	54.4820
 1.0220	54.5040
 1.0230	54.5250
 1.0240	54.5460
 1.0250	54.5660
 1.0260	54.5850
 1.0270	54.6030
 1.0280	54.6200
 1.0290	54.6360
 1.0300	54.6500
 1.0310	54.6680
 1.0320	54.6880
 1.0330	54.7070
 1.0340	54.7240
 1.0350	54.7370
 1.0360	54.7460
 1.0370	54.7520
 1.0380	54.7680
 1.0390	54.7910
 1.0400	54.8100
 1.0410	54.8350
 1.0420	54.8520
 1.0430	54.8620
 1.0440	54.8730
 1.0450	54.8800
 1.0460	54.8880
 1.0470	54.8930
 1.0480	54.9020
 1.0490	54.9160
 1.0500	54.9270
 1.0510	54.9410
 1.0520	54.9550
 1.0530	54.9630
 1.0540	54.9650
 1.0550	54.9710
 1.0560	54.9760
 1.0570	54.9830
 1.0580	54.9960
 1.0590	55.0000
 1.0600	54.9990
 1.0610	54.9990
 1.0620	54.9950
 1.0630	54.9950
 1.0640	55.0000
 1.0650	55.0020
 1.0660	55.0010
 1.0670	55.0010
 1.0680	55.0010
 1.0690	54.9980
 1.0700	54.9960
 1.0710	54.9950
 1.0720	54.9910
 1.0730	54.9830
 1.0740	54.9780
 1.0750	54.9750
 1.0760	54.9690
 1.0770	54.9610
 1.0780	54.9560
 1.0790	54.9500
 1.0800	54.9440
 1.0810	54.9400
 1.0820	54.9350
 1.0830	54.9300
 1.0840	54.9210
 1.0850	54.9090
 1.0860	54.8960
 1.0870	54.8840
 1.0880	54.8670
 1.0890	54.8530
 1.0900	54.8430
 1.0910	54.8290
 1.0920	54.8140
 1.0930	54.7990
 1.0940	54.7850
 1.0950	54.7700
 1.0960	54.7570
 1.0970	54.7400
 1.0980	54.7190
 1.0990	54.7020
 1.1000	54.6830
 1.1010	54.6640
 1.1020	54.6470
 1.1030	54.6310
 1.1040	54.6080
 1.1050	54.5880
 1.1060	54.5680
 1.1070	54.5480
 1.1080	54.5280
 1.1090	54.5090
 1.1100	54.4870
 1.1110	54.4640
 1.1120	54.4380
 1.1130	54.4070
 1.1140	54.3790
 1.1150	54.3530
 1.1160	54.3230
 1.1170	54.2960
 1.1180	54.2650
 1.1190	54.2320
 1.1200	54.1940
 1.1210	54.1540
 1.1220	54.1100
 1.1230	54.0570
 1.1240	54.0030
 1.1250	53.9420
 1.1260	53.8760
 1.1270	53.8000
 1.1280	53.7190
 1.1290	53.6260
 1.1300	53.5250
 1.1310	53.4130
 1.1320	53.2890
 1.1330	53.1580
 1.1340	53.0210
 1.1350	52.8710
 1.1360	52.7110
 1.1370	52.5440
 1.1380	52.3690
 1.1390	52.1860
 1.1400	52.0000
 1.1410	51.8130
 1.1420	51.6210
 1.1430	51.4280
 1.1440	51.2410
 1.1450	51.0530
 1.1460	50.8760
 1.1470	50.7040
 1.1480	50.5430
 1.1490	50.3880
 1.1500	50.2460
 1.1510	50.1120
 1.1520	49.9910
 1.1530	49.8810
 1.1540	49.7820
 1.1550	49.6950
 1.1560	49.6170
 1.1570	49.5510
 1.1580	49.4940
 1.1590	49.4420
 1.1600	49.3980
 1.1610	49.3600
 1.1620	49.3280
 1.1630	49.3030
 1.1640	49.2800
 1.1650	49.2600
 1.1660	49.2440
 1.1670	49.2290
 1.1680	49.2200
 1.1690	49.2080
 1.1700	49.1960
 1.1710	49.1840
 1.1720	49.1690
 1.1730	49.1560
 1.1740	49.1460
 1.1750	49.1350
 1.1760	49.1230
 1.1770	49.1110
 1.1780	49.0940
 1.1790	49.0750
 1.1800	49.0570
 1.1810	49.0370
 1.1820	49.0170
 1.1830	48.9980
 1.1840	48.9780
 1.1850	48.9570
 1.1860	48.9390
 1.1870	48.9230
 1.1880	48.9080
 1.1890	48.8920
 1.1900	48.8810
 1.1910	48.8700
 1.1920	48.8640
 1.1930	48.8620
 1.1940	48.8600
 1.1950	48.8630
 1.1960	48.8660
 1.1970	48.8700
 1.1980	48.8760
 1.1990	48.8840
 1.2000	48.8940
 1.2010	48.9050
 1.2020	48.9190
 1.2030	48.9330
 1.2040	48.9490
 1.2050	48.9700
 1.2060	48.9910
 1.2070	49.0140
 1.2080	49.0370
 1.2090	49.0620
 1.2100	49.0880
 1.2110	49.1150
 1.2120	49.1450
 1.2130	49.1750
 1.2140	49.2020
 1.2150	49.2350
 1.2160	49.2710
 1.2170	49.3060
 1.2180	49.3430
 1.2190	49.3800
 1.2200	49.4140
 1.2210	49.4520
 1.2220	49.4910
 1.2230	49.5270
 1.2240	49.5620
 1.2250	49.5960
 1.2260	49.6300
 1.2270	49.6640
 1.2280	49.6960
 1.2290	49.7270
 1.2300	49.7570
 1.2310	49.7850
 1.2320	49.8130
 1.2330	49.8420
 1.2340	49.8680
 1.2350	49.8900
 1.2360	49.9140
 1.2370	49.9360
 1.2380	49.9550
 1.2390	49.9760
 1.2400	49.9950
 1.2410	50.0130
 1.2420	50.0290
 1.2430	50.0440
 1.2440	50.0620
 1.2450	50.0780
 1.2460	50.0930
 1.2470	50.1090
 1.2480	50.1240
 1.2490	50.1370
 1.2500	50.1500
 1.2510	50.1600
 1.2520	50.1680
 1.2530	50.1780
 1.2540	50.1860
 1.2550	50.1910
 1.2560	50.1940
 1.2570	50.1960
 1.2580	50.1970
 1.2590	50.1970
 1.2600	50.1990
 1.2610	50.1990
 1.2620	50.1970
 1.2630	50.1950
 1.2640	50.1910
 1.2650	50.1860
 1.2660	50.1800
 1.2670	50.1710
 1.2680	50.1610
 1.2690	50.1490
 1.2700	50.1350
 1.2710	50.1220
 1.2720	50.1080
 1.2730	50.0920
 1.2740	50.0750
 1.2750	50.0540
 1.2760	50.0320
 1.2770	50.0120
 1.2780	49.9870
 1.2790	49.9590
 1.2800	49.9310
 1.2810	49.9010
 1.2820	49.8680
 1.2830	49.8380
 1.2840	49.8040
 1.2850	49.7670
 1.2860	49.7310
 1.2870	49.6920
 1.2880	49.6500
 1.2890	49.6080
 1.2900	49.5640
 1.2910	49.5150
 1.2920	49.4650
 1.2930	49.4130
 1.2940	49.3550
 1.2950	49.2950
 1.2960	49.2310
 1.2970	49.1630
 1.2980	49.0940
 1.2990	49.0220
 1.3000	48.9510
 1.3010	48.8760
 1.3020	48.7980
 1.3030	48.7200
 1.3040	48.6350
 1.3050	48.5450
 1.3060	48.4540
 1.3070	48.3570
 1.3080	48.2530
 1.3090	48.1500
 1.3100	48.0440
 1.3110	47.9330
 1.3120	47.8200
 1.3130	47.7040
 1.3140	47.5820
 1.3150	47.4550
 1.3160	47.3260
 1.3170	47.1930
 1.3180	47.0570
 1.3190	46.9170
 1.3200	46.7730
 1.3210	46.6260
 1.3220	46.4740
 1.3230	46.3180
 1.3240	46.1600
 1.3250	46.0010
 1.3260	45.8370
 1.3270	45.6720
 1.3280	45.5040
 1.3290	45.3320
 1.3300	45.1590
 1.3310	44.9850
 1.3320	44.8070
 1.3330	44.6330
 1.3340	44.4580
 1.3350	44.2820
 1.3360	44.1060
 1.3370	43.9270
 1.3380	43.7480
 1.3390	43.5720
 1.3400	43.3960
 1.3410	43.2230
 1.3420	43.0510
 1.3430	42.8780
 1.3440	42.7060
 1.3450	42.5360
 1.3460	42.3640
 1.3470	42.1970
 1.3480	42.0310
 1.3490	41.8670
 1.3500	41.7040
 1.3510	41.5430
 1.3520	41.3790
 1.3530	41.2150
 1.3540	41.0520
 1.3550	40.8850
 1.3560	40.7160
 1.3570	40.5470
 1.3580	40.3760
 1.3590	40.2020
 1.3600	40.0250
 1.3610	39.8430
 1.3620	39.6520
 1.3630	39.4540
 1.3640	39.2470
 1.3650	39.0290
 1.3660	38.8040
 1.3670	38.5680
 1.3680	38.3160
 1.3690	38.0510
 1.3700	37.7650
 1.3710	37.4620
 1.3720	37.1410
 1.3730	36.7990
 1.3740	36.4380
 1.3750	36.0540
 1.3760	35.6420
 1.3770	35.2060
 1.3780	34.7380
 1.3790	34.2470
 1.3800	33.7310
 1.3810	33.1850
 1.3820	32.6220
 1.3830	32.0370
 1.3840	31.4340
 1.3850	30.8100
 1.3860	30.1780
 1.3870	29.5240
 1.3880	28.8720
 1.3890	28.2130
 1.3900	27.5470
 1.3910	26.8890
 1.3920	26.2300
 1.3930	25.5740
 1.3940	24.9290
 1.3950	24.2880
 1.3960	23.6640
 1.3970	23.0600
 1.3980	22.4730
 1.3990	21.9140
 1.4000	21.3780
 1.4010	20.8600
 1.4020	20.3710
 1.4030	19.9040
 1.4040	19.4650
 1.4050	19.0550
 1.4060	18.6680
 1.4070	18.3100
 1.4080	17.9760
 1.4090	17.6650
 1.4100	17.3780
 1.4110	17.1120
 1.4120	16.8670
 1.4130	16.6440
 1.4140	16.4390
 1.4150	16.2550
 1.4160	16.0880
 1.4170	15.9340
 1.4180	15.7960
 1.4190	15.6690
 1.4200	15.5550
 1.4210	15.4530
 1.4220	15.3610
 1.4230	15.2790
 1.4240	15.2070
 1.4250	15.1410
 1.4260	15.0860
 1.4270	15.0350
 1.4280	14.9930
 1.4290	14.9550
 1.4300	14.9230
 1.4310	14.8970
 1.4320	14.8770
 1.4330	14.8620
 1.4340	14.8520
 1.4350	14.8440
 1.4360	14.8400
 1.4370	14.8400
 1.4380	14.8430
 1.4390	14.8490
 1.4400	14.8580
 1.4410	14.8690
 1.4420	14.8820
 1.4430	14.8980
 1.4440	14.9160
 1.4450	14.9350
 1.4460	14.9560
 1.4470	14.9790
 1.4480	15.0030
 1.4490	15.0270
 1.4500	15.0520
 1.4510	15.0790
 1.4520	15.1060
 1.4530	15.1350
 1.4540	15.1660
 1.4550	15.2000
 1.4560	15.2370
 1.4570	15.2770
 1.4580	15.3210
 1.4590	15.3670
 1.4600	15.4170
 1.4610	15.4720
 1.4620	15.5310
 1.4630	15.5980
 1.4640	15.6680
 1.4650	15.7440
 1.4660	15.8250
 1.4670	15.9090
 1.4680	16.0000
 1.4690	16.0960
