Name: Umbellularia californica 1
Type: vegetation
Class: Shrub
Genus: Umbellularia
Species: californica
Sample No.: VH026
Owner: UCSB
Wavelength Range: TIR
Origin: 34.5074; -119.7634; WGS84
Collection Date: 4/1/2013
Description: Samples were collected as part of the HyspIRI Airborne Campaign. 48 individual plants were sampled in three times in 2013 - spring  summer  and fall. The name of the sample includes a 1  2  or 3 which references a different individual of the species. Samples were taken to JPL and processed within 48 hours of collection. The same leaves were processed in the Nicolet and then measured using the ASD.
Measurement: Hemispherical reflectance
First Column: X
Second Column: Y
X Units: Wavelength (micrometers)
Y Units: Reflectance (percentage)
First X Value: 2.501
Last X Value: 15.387
Number of X Values: 1737
Additional Information: vegetation.shrub.umbellularia.californica.tir.vh026.ucsb.nicolet.ancillary.txt

 2.5010	 7.4130
 2.5030	 7.5780
 2.5040	 7.6130
 2.5050	 7.3650
 2.5060	 7.2310
 2.5070	 7.3600
 2.5090	 7.4910
 2.5100	 7.3580
 2.5110	 7.2560
 2.5120	 7.1760
 2.5140	 7.2550
 2.5150	 7.3470
 2.5160	 7.4730
 2.5170	 7.3770
 2.5180	 7.4090
 2.5200	 7.2480
 2.5210	 7.2860
 2.5220	 7.2340
 2.5230	 7.1570
 2.5250	 7.2030
 2.5260	 7.3360
 2.5270	 7.2120
 2.5280	 7.2070
 2.5290	 7.3140
 2.5310	 7.3610
 2.5320	 7.3580
 2.5330	 7.3420
 2.5340	 7.2100
 2.5360	 7.1560
 2.5370	 7.0740
 2.5380	 7.1180
 2.5390	 7.1640
 2.5410	 7.1970
 2.5420	 7.0430
 2.5430	 7.0220
 2.5440	 7.0550
 2.5460	 7.1270
 2.5470	 7.2090
 2.5480	 7.2450
 2.5490	 7.1170
 2.5510	 7.1860
 2.5520	 7.2260
 2.5530	 7.1740
 2.5540	 7.1160
 2.5560	 7.2870
 2.5570	 7.4440
 2.5580	 7.4010
 2.5590	 7.1760
 2.5610	 7.2670
 2.5620	 7.3160
 2.5630	 7.3410
 2.5640	 7.3270
 2.5660	 7.2410
 2.5670	 7.1750
 2.5680	 7.2520
 2.5700	 7.2330
 2.5710	 7.3370
 2.5720	 7.3130
 2.5730	 7.2920
 2.5750	 7.2420
 2.5760	 7.3540
 2.5770	 7.5090
 2.5790	 7.4920
 2.5800	 7.5210
 2.5810	 7.5340
 2.5820	 7.3990
 2.5840	 7.4850
 2.5850	 7.4730
 2.5860	 7.4890
 2.5880	 7.3840
 2.5890	 7.2470
 2.5900	 7.0790
 2.5910	 7.0820
 2.5930	 7.2310
 2.5940	 7.4320
 2.5950	 7.3180
 2.5970	 7.1810
 2.5980	 7.1020
 2.5990	 7.0870
 2.6000	 6.9720
 2.6020	 6.8720
 2.6030	 6.8270
 2.6040	 7.0920
 2.6060	 7.0490
 2.6070	 6.9600
 2.6080	 6.9250
 2.6100	 6.9150
 2.6110	 6.9390
 2.6120	 6.9150
 2.6140	 6.7590
 2.6150	 6.8200
 2.6160	 6.8320
 2.6180	 6.6840
 2.6190	 6.5790
 2.6200	 6.6130
 2.6220	 6.5970
 2.6230	 6.5590
 2.6240	 6.5580
 2.6260	 6.6830
 2.6270	 6.6380
 2.6280	 6.6260
 2.6300	 6.6680
 2.6310	 6.5900
 2.6320	 6.4090
 2.6340	 6.3480
 2.6350	 6.2090
 2.6360	 6.3690
 2.6380	 6.5430
 2.6390	 6.4160
 2.6400	 6.1600
 2.6420	 6.1260
 2.6430	 6.1240
 2.6440	 6.0450
 2.6460	 6.0600
 2.6470	 6.2420
 2.6480	 6.1760
 2.6500	 6.0640
 2.6510	 5.9880
 2.6520	 6.0010
 2.6540	 5.9020
 2.6550	 5.8800
 2.6560	 5.8640
 2.6580	 5.9090
 2.6590	 5.8620
 2.6610	 5.7670
 2.6620	 5.6420
 2.6630	 5.6880
 2.6650	 5.5920
 2.6660	 5.6180
 2.6670	 5.5970
 2.6690	 5.5470
 2.6700	 5.4560
 2.6720	 5.5190
 2.6730	 5.5020
 2.6740	 5.4530
 2.6760	 5.4700
 2.6770	 5.5580
 2.6780	 5.5220
 2.6800	 5.4640
 2.6810	 5.3610
 2.6830	 5.3270
 2.6840	 5.3290
 2.6850	 5.3860
 2.6870	 5.3470
 2.6880	 5.1770
 2.6900	 5.0620
 2.6910	 5.0960
 2.6920	 5.0550
 2.6940	 5.0420
 2.6950	 5.0790
 2.6970	 5.0200
 2.6980	 4.9670
 2.6990	 5.1070
 2.7010	 5.1370
 2.7020	 5.1190
 2.7040	 4.9870
 2.7050	 4.9500
 2.7060	 4.8950
 2.7080	 4.8330
 2.7090	 4.7770
 2.7110	 4.7830
 2.7120	 4.6970
 2.7130	 4.7090
 2.7150	 4.7020
 2.7160	 4.7970
 2.7180	 4.7990
 2.7190	 4.8000
 2.7210	 4.7380
 2.7220	 4.7380
 2.7230	 4.6470
 2.7250	 4.6820
 2.7260	 4.7160
 2.7280	 4.7520
 2.7290	 4.7430
 2.7310	 4.6810
 2.7320	 4.6610
 2.7330	 4.7400
 2.7350	 4.6820
 2.7360	 4.6670
 2.7380	 4.7070
 2.7390	 4.7440
 2.7410	 4.7480
 2.7420	 4.7690
 2.7440	 4.6900
 2.7450	 4.6100
 2.7470	 4.5810
 2.7480	 4.7530
 2.7490	 4.7950
 2.7510	 4.8210
 2.7520	 4.6340
 2.7540	 4.4000
 2.7550	 4.5060
 2.7570	 4.7430
 2.7580	 4.6130
 2.7600	 4.6540
 2.7610	 4.5630
 2.7630	 4.3940
 2.7640	 4.3490
 2.7660	 4.4960
 2.7670	 4.3760
 2.7680	 4.3800
 2.7700	 4.5270
 2.7710	 4.5320
 2.7730	 4.4530
 2.7740	 4.6620
 2.7760	 4.7990
 2.7770	 4.7740
 2.7790	 4.5920
 2.7800	 4.7220
 2.7820	 4.7860
 2.7830	 4.8150
 2.7850	 4.7010
 2.7860	 4.6510
 2.7880	 4.5300
 2.7890	 4.6600
 2.7910	 4.7640
 2.7920	 4.6540
 2.7940	 4.5410
 2.7950	 4.6050
 2.7970	 4.5550
 2.7980	 4.5740
 2.8000	 4.5270
 2.8010	 4.5320
 2.8030	 4.4170
 2.8040	 4.4470
 2.8060	 4.5430
 2.8070	 4.3700
 2.8090	 4.2390
 2.8110	 4.3360
 2.8120	 4.3990
 2.8140	 4.4080
 2.8150	 4.3380
 2.8170	 4.4240
 2.8180	 4.2730
 2.8200	 4.2220
 2.8210	 4.3990
 2.8230	 4.5680
 2.8240	 4.5420
 2.8260	 4.5950
 2.8270	 4.5070
 2.8290	 4.3990
 2.8300	 4.4320
 2.8320	 4.5590
 2.8340	 4.6530
 2.8350	 4.5200
 2.8370	 4.2210
 2.8380	 4.2520
 2.8400	 4.2960
 2.8410	 4.4350
 2.8430	 4.4580
 2.8440	 4.5020
 2.8460	 4.4530
 2.8480	 4.5030
 2.8490	 4.4150
 2.8510	 4.4090
 2.8520	 4.4460
 2.8540	 4.3360
 2.8550	 4.2340
 2.8570	 4.3390
 2.8590	 4.4450
 2.8600	 4.6060
 2.8620	 4.4220
 2.8630	 4.3070
 2.8650	 4.4280
 2.8660	 4.5690
 2.8680	 4.5850
 2.8700	 4.4860
 2.8710	 4.3170
 2.8730	 4.5210
 2.8740	 4.5520
 2.8760	 4.4230
 2.8780	 4.4370
 2.8790	 4.5570
 2.8810	 4.4370
 2.8820	 4.3820
 2.8840	 4.5180
 2.8860	 4.6650
 2.8870	 4.5190
 2.8890	 4.4410
 2.8900	 4.2590
 2.8920	 4.2330
 2.8940	 4.3640
 2.8950	 4.5630
 2.8970	 4.4690
 2.8980	 4.4900
 2.9000	 4.5300
 2.9020	 4.5220
 2.9030	 4.5950
 2.9050	 4.6500
 2.9070	 4.5240
 2.9080	 4.4100
 2.9100	 4.2760
 2.9120	 4.3690
 2.9130	 4.5430
 2.9150	 4.7110
 2.9160	 4.5410
 2.9180	 4.4520
 2.9200	 4.4350
 2.9210	 4.5520
 2.9230	 4.5420
 2.9250	 4.4150
 2.9260	 4.4360
 2.9280	 4.4710
 2.9300	 4.2560
 2.9310	 4.2040
 2.9330	 4.4580
 2.9350	 4.6450
 2.9360	 4.5240
 2.9380	 4.4950
 2.9400	 4.4500
 2.9410	 4.5590
 2.9430	 4.6480
 2.9450	 4.5190
 2.9460	 4.4050
 2.9480	 4.2720
 2.9500	 4.1960
 2.9510	 4.3770
 2.9530	 4.3260
 2.9550	 4.2580
 2.9560	 3.9750
 2.9580	 4.2240
 2.9600	 4.4430
 2.9610	 4.3990
 2.9630	 4.8250
 2.9650	 5.6200
 2.9660	 4.7510
 2.9680	 3.9380
 2.9700	 4.4980
 2.9720	 5.0270
 2.9730	 4.9290
 2.9750	 5.0220
 2.9770	 4.7260
 2.9780	 4.1030
 2.9800	 4.2440
 2.9820	 4.9620
 2.9840	 4.1730
 2.9850	 3.7380
 2.9870	 3.7880
 2.9890	 3.8880
 2.9900	 4.6230
 2.9920	 5.1410
 2.9940	 4.7550
 2.9960	 4.8030
 2.9970	 4.1870
 2.9990	 4.0850
 3.0010	 4.2190
 3.0030	 4.4210
 3.0040	 4.5970
 3.0060	 4.6490
 3.0080	 4.4010
 3.0100	 4.8300
 3.0110	 4.6490
 3.0130	 4.5060
 3.0150	 5.1240
 3.0170	 5.4440
 3.0180	 5.1640
 3.0200	 4.2640
 3.0220	 3.9360
 3.0240	 4.4720
 3.0250	 4.1680
 3.0270	 3.9080
 3.0290	 4.3040
 3.0310	 4.2810
 3.0320	 4.3750
 3.0340	 4.8350
 3.0360	 4.6280
 3.0380	 4.4940
 3.0400	 4.1800
 3.0410	 3.9240
 3.0430	 4.2620
 3.0450	 4.7280
 3.0470	 4.6150
 3.0480	 4.5480
 3.0500	 4.7850
 3.0520	 4.7740
 3.0540	 4.3080
 3.0560	 4.1270
 3.0570	 3.9090
 3.0590	 4.4060
 3.0610	 4.2730
 3.0630	 3.7540
 3.0650	 4.0080
 3.0660	 4.4500
 3.0680	 4.7170
 3.0700	 4.6950
 3.0720	 4.4840
 3.0740	 4.2150
 3.0760	 4.3450
 3.0770	 4.6230
 3.0790	 4.5830
 3.0810	 4.5950
 3.0830	 4.5490
 3.0850	 4.7250
 3.0870	 4.6810
 3.0880	 4.5370
 3.0900	 4.4690
 3.0920	 4.5250
 3.0940	 4.6550
 3.0960	 4.9370
 3.0980	 4.8620
 3.0990	 4.6390
 3.1010	 4.5170
 3.1030	 4.7680
 3.1050	 4.6930
 3.1070	 4.6430
 3.1090	 4.5390
 3.1110	 4.4030
 3.1120	 4.3790
 3.1140	 4.3620
 3.1160	 4.3130
 3.1180	 4.4580
 3.1200	 4.5390
 3.1220	 4.3600
 3.1240	 4.1590
 3.1260	 4.2840
 3.1270	 4.3300
 3.1290	 4.3190
 3.1310	 4.2890
 3.1330	 4.5220
 3.1350	 4.6290
 3.1370	 4.5110
 3.1390	 4.4860
 3.1410	 4.4200
 3.1430	 4.2210
 3.1450	 4.4340
 3.1460	 4.4780
 3.1480	 4.5080
 3.1500	 4.5900
 3.1520	 4.8240
 3.1540	 4.6330
 3.1560	 4.7550
 3.1580	 4.7420
 3.1600	 4.4450
 3.1620	 3.9330
 3.1640	 3.6590
 3.1660	 3.8980
 3.1680	 4.3090
 3.1700	 4.4330
 3.1710	 4.2230
 3.1730	 4.3680
 3.1750	 4.9420
 3.1770	 4.7220
 3.1790	 4.3600
 3.1810	 4.6070
 3.1830	 4.8900
 3.1850	 4.5380
 3.1870	 4.1140
 3.1890	 4.1440
 3.1910	 4.2970
 3.1930	 4.4840
 3.1950	 4.7130
 3.1970	 4.7630
 3.1990	 4.6930
 3.2010	 4.5240
 3.2030	 4.5120
 3.2050	 4.7080
 3.2070	 4.7050
 3.2090	 4.5100
 3.2110	 4.5250
 3.2130	 4.5400
 3.2150	 4.5450
 3.2170	 4.4780
 3.2190	 4.4700
 3.2210	 4.6340
 3.2230	 4.7210
 3.2250	 4.5600
 3.2270	 4.4950
 3.2290	 4.5100
 3.2310	 4.4820
 3.2330	 4.4050
 3.2350	 4.3390
 3.2370	 4.3120
 3.2390	 4.4150
 3.2410	 4.3100
 3.2430	 4.2280
 3.2450	 4.3100
 3.2470	 4.4620
 3.2490	 4.6430
 3.2510	 4.5890
 3.2530	 4.3070
 3.2550	 4.1560
 3.2570	 4.2300
 3.2590	 4.3910
 3.2610	 4.4220
 3.2630	 4.3760
 3.2650	 4.2790
 3.2670	 4.3760
 3.2690	 4.3370
 3.2720	 4.3720
 3.2740	 4.3970
 3.2760	 4.4270
 3.2780	 4.4300
 3.2800	 4.3910
 3.2820	 4.3410
 3.2840	 4.4220
 3.2860	 4.4780
 3.2880	 4.4750
 3.2900	 4.3210
 3.2920	 4.2050
 3.2940	 4.3460
 3.2960	 4.4110
 3.2990	 4.2480
 3.3010	 4.3060
 3.3030	 4.3920
 3.3050	 4.3710
 3.3070	 4.3340
 3.3090	 4.4070
 3.3110	 4.3200
 3.3130	 4.2620
 3.3150	 4.1910
 3.3180	 4.2600
 3.3200	 4.3260
 3.3220	 4.2560
 3.3240	 4.0850
 3.3260	 4.1200
 3.3280	 4.1310
 3.3300	 4.2160
 3.3330	 4.2140
 3.3350	 4.2020
 3.3370	 4.0540
 3.3390	 4.0330
 3.3410	 4.0760
 3.3430	 4.1440
 3.3450	 4.1290
 3.3480	 4.0660
 3.3500	 3.8500
 3.3520	 3.8740
 3.3540	 3.9580
 3.3560	 3.9990
 3.3580	 3.9130
 3.3610	 3.9060
 3.3630	 3.8710
 3.3650	 3.7430
 3.3670	 3.7110
 3.3690	 3.9620
 3.3720	 4.0040
 3.3740	 4.0030
 3.3760	 3.9740
 3.3780	 3.8130
 3.3800	 3.8000
 3.3830	 3.9290
 3.3850	 3.9190
 3.3870	 3.8660
 3.3890	 3.7930
 3.3910	 3.8750
 3.3940	 3.8200
 3.3960	 3.6880
 3.3980	 3.7290
 3.4000	 3.8810
 3.4020	 3.8740
 3.4050	 3.8590
 3.4070	 3.9040
 3.4090	 4.2290
 3.4110	 4.5310
 3.4140	 4.7390
 3.4160	 5.2110
 3.4180	 5.9060
 3.4200	 6.8000
 3.4230	 8.0030
 3.4250	 9.3970
 3.4270	10.8860
 3.4290	11.7230
 3.4320	11.3180
 3.4340	10.0810
 3.4360	 8.9210
 3.4390	 8.1020
 3.4410	 7.5950
 3.4430	 7.2890
 3.4450	 7.1540
 3.4480	 6.8860
 3.4500	 6.7480
 3.4520	 6.7550
 3.4550	 6.6920
 3.4570	 6.6250
 3.4590	 6.4460
 3.4620	 6.1280
 3.4640	 5.9810
 3.4660	 5.9430
 3.4680	 5.9500
 3.4710	 5.7530
 3.4730	 5.5230
 3.4750	 5.3790
 3.4780	 5.4930
 3.4800	 5.5130
 3.4820	 5.3450
 3.4850	 5.1110
 3.4870	 4.9890
 3.4890	 4.9210
 3.4920	 4.9580
 3.4940	 4.9380
 3.4970	 4.9450
 3.4990	 5.0540
 3.5010	 5.2910
 3.5040	 5.6770
 3.5060	 6.7220
 3.5080	 8.6210
 3.5110	10.3800
 3.5130	10.5330
 3.5160	 9.4440
 3.5180	 8.3790
 3.5200	 7.7850
 3.5230	 7.3180
 3.5250	 7.0130
 3.5270	 6.6970
 3.5300	 6.4490
 3.5320	 6.2670
 3.5350	 6.1490
 3.5370	 6.0250
 3.5400	 5.9540
 3.5420	 5.9940
 3.5440	 6.0570
 3.5470	 6.0060
 3.5490	 6.0000
 3.5520	 5.8750
 3.5540	 5.6950
 3.5570	 5.7060
 3.5590	 5.7730
 3.5610	 5.7320
 3.5640	 5.7780
 3.5660	 5.7490
 3.5690	 5.6700
 3.5710	 5.7000
 3.5740	 5.7990
 3.5760	 5.7600
 3.5790	 5.8110
 3.5810	 5.6780
 3.5840	 5.6700
 3.5860	 5.4210
 3.5890	 5.1970
 3.5910	 5.1660
 3.5930	 5.2620
 3.5960	 5.3190
 3.5980	 5.4520
 3.6010	 5.6730
 3.6030	 5.6910
 3.6060	 5.4480
 3.6080	 5.3480
 3.6110	 5.4090
 3.6140	 5.5260
 3.6160	 5.5920
 3.6190	 5.5220
 3.6210	 5.4890
 3.6240	 5.5600
 3.6260	 5.4620
 3.6290	 5.4040
 3.6310	 5.3540
 3.6340	 5.3860
 3.6360	 5.4170
 3.6390	 5.4370
 3.6410	 5.3670
 3.6440	 5.3890
 3.6470	 5.3800
 3.6490	 5.3840
 3.6520	 5.3200
 3.6540	 5.3030
 3.6570	 5.2570
 3.6590	 5.2670
 3.6620	 5.3760
 3.6650	 5.4290
 3.6670	 5.3550
 3.6700	 5.4240
 3.6720	 5.4460
 3.6750	 5.4160
 3.6780	 5.3380
 3.6800	 5.2620
 3.6830	 5.2530
 3.6850	 5.4090
 3.6880	 5.5130
 3.6910	 5.4700
 3.6930	 5.3550
 3.6960	 5.3350
 3.6990	 5.3600
 3.7010	 5.3780
 3.7040	 5.2970
 3.7060	 5.3320
 3.7090	 5.3270
 3.7120	 5.2750
 3.7140	 5.3160
 3.7170	 5.3110
 3.7200	 5.3260
 3.7220	 5.4130
 3.7250	 5.3550
 3.7280	 5.3100
 3.7300	 5.2990
 3.7330	 5.2900
 3.7360	 5.3000
 3.7390	 5.2750
 3.7410	 5.2260
 3.7440	 5.3000
 3.7470	 5.2720
 3.7490	 5.1860
 3.7520	 5.2450
 3.7550	 5.3850
 3.7580	 5.3290
 3.7600	 5.3560
 3.7630	 5.4100
 3.7660	 5.3980
 3.7680	 5.2960
 3.7710	 5.3030
 3.7740	 5.3390
 3.7770	 5.3470
 3.7790	 5.3140
 3.7820	 5.3380
 3.7850	 5.3370
 3.7880	 5.3960
 3.7900	 5.3780
 3.7930	 5.2970
 3.7960	 5.3100
 3.7990	 5.3440
 3.8020	 5.3500
 3.8040	 5.4570
 3.8070	 5.4070
 3.8100	 5.3630
 3.8130	 5.4120
 3.8160	 5.4080
 3.8180	 5.3710
 3.8210	 5.3510
 3.8240	 5.3030
 3.8270	 5.3190
 3.8300	 5.3600
 3.8330	 5.4180
 3.8350	 5.4360
 3.8380	 5.4300
 3.8410	 5.4380
 3.8440	 5.4510
 3.8470	 5.4460
 3.8500	 5.4200
 3.8520	 5.3840
 3.8550	 5.3870
 3.8580	 5.3960
 3.8610	 5.4670
 3.8640	 5.4190
 3.8670	 5.3110
 3.8700	 5.3300
 3.8730	 5.3720
 3.8750	 5.3580
 3.8780	 5.3380
 3.8810	 5.2510
 3.8840	 5.3210
 3.8870	 5.3890
 3.8900	 5.4090
 3.8930	 5.4300
 3.8960	 5.3930
 3.8990	 5.3860
 3.9020	 5.4280
 3.9050	 5.3200
 3.9080	 5.3520
 3.9110	 5.4600
 3.9140	 5.4600
 3.9160	 5.4200
 3.9190	 5.4600
 3.9220	 5.4430
 3.9250	 5.4320
 3.9280	 5.4250
 3.9310	 5.3580
 3.9340	 5.3650
 3.9370	 5.3820
 3.9400	 5.3330
 3.9430	 5.4490
 3.9460	 5.5060
 3.9490	 5.4790
 3.9520	 5.5080
 3.9550	 5.5770
 3.9580	 5.5490
 3.9610	 5.5340
 3.9640	 5.4590
 3.9670	 5.4490
 3.9700	 5.5020
 3.9730	 5.5180
 3.9770	 5.4480
 3.9800	 5.4760
 3.9830	 5.5230
 3.9860	 5.5290
 3.9890	 5.4410
 3.9920	 5.4620
 3.9950	 5.4560
 3.9980	 5.4290
 4.0010	 5.4490
 4.0040	 5.5210
 4.0070	 5.4550
 4.0100	 5.4740
 4.0130	 5.4700
 4.0170	 5.4140
 4.0200	 5.4230
 4.0230	 5.4830
 4.0260	 5.5110
 4.0290	 5.5530
 4.0320	 5.5170
 4.0350	 5.5400
 4.0380	 5.4980
 4.0420	 5.5050
 4.0450	 5.5160
 4.0480	 5.5380
 4.0510	 5.5820
 4.0540	 5.6130
 4.0570	 5.5260
 4.0610	 5.5010
 4.0640	 5.4780
 4.0670	 5.5540
 4.0700	 5.5060
 4.0730	 5.4990
 4.0770	 5.5000
 4.0800	 5.4180
 4.0830	 5.4120
 4.0860	 5.4260
 4.0890	 5.3270
 4.0930	 5.4100
 4.0960	 5.4830
 4.0990	 5.4970
 4.1020	 5.5080
 4.1060	 5.4790
 4.1090	 5.4650
 4.1120	 5.4010
 4.1150	 5.3950
 4.1190	 5.4290
 4.1220	 5.3710
 4.1250	 5.3670
 4.1280	 5.4100
 4.1320	 5.4330
 4.1350	 5.4200
 4.1380	 5.5120
 4.1420	 5.5920
 4.1450	 5.5070
 4.1480	 5.4830
 4.1520	 5.4960
 4.1550	 5.4700
 4.1580	 5.4620
 4.1620	 5.4070
 4.1650	 5.4040
 4.1680	 5.3980
 4.1720	 5.3880
 4.1750	 5.3830
 4.1780	 5.3870
 4.1820	 5.3870
 4.1850	 5.3830
 4.1890	 5.4300
 4.1920	 5.4520
 4.1950	 5.4030
 4.1990	 5.4570
 4.2020	 5.4930
 4.2060	 5.5210
 4.2090	 5.6420
 4.2120	 5.8230
 4.2160	 5.8910
 4.2190	 5.7970
 4.2230	 5.8600
 4.2260	 6.0970
 4.2300	 6.2750
 4.2330	 6.2200
 4.2360	 6.3580
 4.2400	 6.3660
 4.2430	 6.1610
 4.2470	 5.9540
 4.2500	 5.7610
 4.2540	 5.8600
 4.2570	 6.0130
 4.2610	 6.1580
 4.2640	 6.1090
 4.2680	 6.0730
 4.2710	 6.3060
 4.2750	 6.2340
 4.2780	 6.0860
 4.2820	 6.1510
 4.2850	 6.2130
 4.2890	 6.1900
 4.2930	 5.9410
 4.2960	 6.0580
 4.3000	 6.0270
 4.3030	 5.8320
 4.3070	 5.7100
 4.3100	 5.6660
 4.3140	 5.4510
 4.3180	 5.4300
 4.3210	 5.5450
 4.3250	 5.6030
 4.3280	 5.6050
 4.3320	 5.5290
 4.3360	 5.4520
 4.3390	 5.4450
 4.3430	 5.4200
 4.3470	 5.3860
 4.3500	 5.3930
 4.3540	 5.4090
 4.3570	 5.3520
 4.3610	 5.2980
 4.3650	 5.2910
 4.3680	 5.2830
 4.3720	 5.2060
 4.3760	 5.1510
 4.3800	 5.2170
 4.3830	 5.2920
 4.3870	 5.2780
 4.3910	 5.2710
 4.3940	 5.2590
 4.3980	 5.3210
 4.4020	 5.2860
 4.4060	 5.2160
 4.4090	 5.1660
 4.4130	 5.2000
 4.4170	 5.1840
 4.4210	 5.1790
 4.4240	 5.2500
 4.4280	 5.2170
 4.4320	 5.1390
 4.4360	 5.1440
 4.4400	 5.1110
 4.4430	 5.0790
 4.4470	 5.1770
 4.4510	 5.2110
 4.4550	 5.1740
 4.4590	 5.1160
 4.4620	 5.1510
 4.4660	 5.1810
 4.4700	 5.1780
 4.4740	 5.1740
 4.4780	 5.1830
 4.4820	 5.1120
 4.4860	 5.0670
 4.4900	 5.1350
 4.4930	 5.1560
 4.4970	 5.0970
 4.5010	 5.0310
 4.5050	 5.0510
 4.5090	 5.0950
 4.5130	 5.0980
 4.5170	 5.0820
 4.5210	 5.0760
 4.5250	 5.1150
 4.5290	 5.1340
 4.5330	 5.1080
 4.5370	 5.0230
 4.5410	 4.9750
 4.5450	 4.9900
 4.5490	 5.0170
 4.5530	 5.1060
 4.5570	 5.1150
 4.5610	 5.0810
 4.5650	 5.0790
 4.5690	 5.0190
 4.5730	 4.9980
 4.5770	 5.1010
 4.5810	 5.1870
 4.5850	 5.1510
 4.5890	 5.0570
 4.5930	 5.0550
 4.5970	 5.0740
 4.6010	 5.0110
 4.6050	 5.0440
 4.6090	 5.1350
 4.6130	 5.1080
 4.6170	 5.0610
 4.6220	 4.9650
 4.6260	 4.9100
 4.6300	 4.9560
 4.6340	 5.0210
 4.6380	 5.0160
 4.6420	 4.9940
 4.6460	 5.1030
 4.6510	 5.1510
 4.6550	 5.1230
 4.6590	 5.0170
 4.6630	 4.9310
 4.6670	 4.9760
 4.6720	 5.0740
 4.6760	 5.1420
 4.6800	 5.0780
 4.6840	 4.9450
 4.6880	 5.0000
 4.6930	 5.0810
 4.6970	 5.0770
 4.7010	 5.0920
 4.7050	 4.9730
 4.7100	 4.9670
 4.7140	 5.0660
 4.7180	 5.0600
 4.7230	 4.9940
 4.7270	 4.9750
 4.7310	 4.9850
 4.7360	 5.0030
 4.7400	 5.0340
 4.7440	 5.0520
 4.7490	 4.9490
 4.7530	 4.8910
 4.7570	 4.9400
 4.7620	 4.9810
 4.7660	 4.9590
 4.7700	 4.9790
 4.7750	 5.0330
 4.7790	 5.0550
 4.7840	 5.0200
 4.7880	 5.0280
 4.7920	 5.0250
 4.7970	 5.0030
 4.8010	 4.8980
 4.8060	 4.8780
 4.8100	 4.9410
 4.8150	 4.9300
 4.8190	 4.9810
 4.8240	 5.0610
 4.8280	 5.0430
 4.8330	 5.0300
 4.8370	 4.9840
 4.8420	 4.9430
 4.8460	 4.9580
 4.8510	 5.0320
 4.8550	 5.1050
 4.8600	 5.1130
 4.8640	 5.0540
 4.8690	 5.0200
 4.8730	 5.0440
 4.8780	 5.0790
 4.8830	 5.0420
 4.8870	 5.0100
 4.8920	 5.0020
 4.8960	 5.0490
 4.9010	 5.0910
 4.9060	 5.0360
 4.9100	 5.0800
 4.9150	 5.1000
 4.9200	 5.0490
 4.9240	 4.9830
 4.9290	 4.9990
 4.9340	 5.0310
 4.9380	 5.0240
 4.9430	 5.0700
 4.9480	 5.0260
 4.9530	 4.9490
 4.9570	 4.9710
 4.9620	 5.0570
 4.9670	 5.0770
 4.9720	 5.0370
 4.9760	 4.9880
 4.9810	 4.9860
 4.9860	 5.0430
 4.9910	 4.9890
 4.9960	 4.9990
 5.0000	 5.0760
 5.0050	 5.0900
 5.0100	 5.1200
 5.0150	 5.1210
 5.0200	 5.1340
 5.0250	 5.1100
 5.0290	 5.0730
 5.0340	 5.1210
 5.0390	 5.0890
 5.0440	 5.0600
 5.0490	 5.1020
 5.0540	 5.0810
 5.0590	 5.0760
 5.0640	 5.1060
 5.0690	 5.0780
 5.0740	 5.0800
 5.0790	 5.1170
 5.0840	 5.1960
 5.0890	 5.1640
 5.0940	 5.0750
 5.0990	 5.0240
 5.1040	 5.0620
 5.1090	 5.0790
 5.1140	 5.1050
 5.1190	 5.0860
 5.1240	 5.0910
 5.1290	 5.1160
 5.1340	 5.0740
 5.1390	 5.0480
 5.1440	 5.0630
 5.1490	 5.0970
 5.1540	 5.1220
 5.1600	 5.0510
 5.1650	 5.0110
 5.1700	 5.0090
 5.1750	 5.0900
 5.1800	 5.1110
 5.1850	 5.0920
 5.1910	 5.0970
 5.1960	 5.1420
 5.2010	 5.0800
 5.2060	 5.0650
 5.2110	 5.1520
 5.2170	 5.1450
 5.2220	 5.0230
 5.2270	 5.0080
 5.2320	 5.0450
 5.2380	 5.0370
 5.2430	 4.9760
 5.2480	 4.9800
 5.2540	 4.9550
 5.2590	 4.9460
 5.2640	 4.9820
 5.2700	 5.0780
 5.2750	 5.0800
 5.2800	 5.0560
 5.2860	 5.0860
 5.2910	 5.1480
 5.2970	 5.0190
 5.3020	 4.9760
 5.3070	 4.9540
 5.3130	 4.9240
 5.3180	 4.9540
 5.3240	 4.9840
 5.3290	 4.9850
 5.3350	 5.0740
 5.3400	 5.0110
 5.3460	 4.9570
 5.3510	 4.9070
 5.3570	 4.9220
 5.3620	 4.9520
 5.3680	 4.9640
 5.3730	 4.9070
 5.3790	 4.9170
 5.3850	 4.9040
 5.3900	 4.8800
 5.3960	 4.8680
 5.4010	 4.8500
 5.4070	 4.8180
 5.4130	 4.8280
 5.4180	 4.7990
 5.4240	 4.8200
 5.4300	 4.8680
