Name: Quercus rubra
Type: vegetation
Class: Tree
Genus: Quercus
Species: rubra
Sample No.: JPL189
Owner: JPL
Wavelength Range: VSWIR
Origin: 34.12537; -118.11533; WGS84
Collection Date: 10/3/2016
Description: Samples were collected at the Huntington Garden in San Marino California as part of a JPL Subcontract studying HyTES imagery. Samples were taken to JPL and processed within 48 hours of collection. The same leaves were processed in the Nicolet and then measured using the ASD.
Measurement: Bidirectional reflectance
First Column: X
Second Column: Y
X Units: Wavelength (micrometer)
Y Units: Reflectance (percentage)
First X Value: 0.35
Last X Value: 2.5
Number of X Values: 2151
Additional Information: vegetation.tree.quercus.rubra.vswir.jpl189.jpl.asd.ancillary.txt

 0.3500	 5.9310
 0.3510	 5.8280
 0.3520	 5.7100
 0.3530	 5.6580
 0.3540	 5.6970
 0.3550	 5.7080
 0.3560	 5.6440
 0.3570	 5.6030
 0.3580	 5.7080
 0.3590	 5.6250
 0.3600	 5.5590
 0.3610	 5.6050
 0.3620	 5.6300
 0.3630	 5.6400
 0.3640	 5.6170
 0.3650	 5.5670
 0.3660	 5.5800
 0.3670	 5.5970
 0.3680	 5.5870
 0.3690	 5.5440
 0.3700	 5.5430
 0.3710	 5.5710
 0.3720	 5.6020
 0.3730	 5.6050
 0.3740	 5.5260
 0.3750	 5.4660
 0.3760	 5.5330
 0.3770	 5.6010
 0.3780	 5.6130
 0.3790	 5.5850
 0.3800	 5.5920
 0.3810	 5.5720
 0.3820	 5.5520
 0.3830	 5.5520
 0.3840	 5.5420
 0.3850	 5.5780
 0.3860	 5.6170
 0.3870	 5.5880
 0.3880	 5.5230
 0.3890	 5.5170
 0.3900	 5.5730
 0.3910	 5.5960
 0.3920	 5.5710
 0.3930	 5.5490
 0.3940	 5.5590
 0.3950	 5.5330
 0.3960	 5.5390
 0.3970	 5.5790
 0.3980	 5.6150
 0.3990	 5.5970
 0.4000	 5.5830
 0.4010	 5.5910
 0.4020	 5.5730
 0.4030	 5.5940
 0.4040	 5.6200
 0.4050	 5.6200
 0.4060	 5.6430
 0.4070	 5.6550
 0.4080	 5.6590
 0.4090	 5.6850
 0.4100	 5.7030
 0.4110	 5.7090
 0.4120	 5.7080
 0.4130	 5.7240
 0.4140	 5.7400
 0.4150	 5.7540
 0.4160	 5.7690
 0.4170	 5.7940
 0.4180	 5.8120
 0.4190	 5.8190
 0.4200	 5.8240
 0.4210	 5.8390
 0.4220	 5.8610
 0.4230	 5.8870
 0.4240	 5.8980
 0.4250	 5.9140
 0.4260	 5.9330
 0.4270	 5.9390
 0.4280	 5.9500
 0.4290	 5.9660
 0.4300	 5.9790
 0.4310	 5.9750
 0.4320	 5.9780
 0.4330	 5.9880
 0.4340	 6.0020
 0.4350	 6.0020
 0.4360	 6.0080
 0.4370	 6.0220
 0.4380	 6.0330
 0.4390	 6.0640
 0.4400	 6.0950
 0.4410	 6.1120
 0.4420	 6.1350
 0.4430	 6.1450
 0.4440	 6.1480
 0.4450	 6.1560
 0.4460	 6.1750
 0.4470	 6.1950
 0.4480	 6.2090
 0.4490	 6.2200
 0.4500	 6.2360
 0.4510	 6.2510
 0.4520	 6.2580
 0.4530	 6.2810
 0.4540	 6.2950
 0.4550	 6.2970
 0.4560	 6.3030
 0.4570	 6.3120
 0.4580	 6.3240
 0.4590	 6.3350
 0.4600	 6.3400
 0.4610	 6.3450
 0.4620	 6.3510
 0.4630	 6.3530
 0.4640	 6.3550
 0.4650	 6.3610
 0.4660	 6.3710
 0.4670	 6.3800
 0.4680	 6.3830
 0.4690	 6.3870
 0.4700	 6.3950
 0.4710	 6.3990
 0.4720	 6.4000
 0.4730	 6.4020
 0.4740	 6.4070
 0.4750	 6.4100
 0.4760	 6.4170
 0.4770	 6.4280
 0.4780	 6.4350
 0.4790	 6.4340
 0.4800	 6.4330
 0.4810	 6.4400
 0.4820	 6.4500
 0.4830	 6.4510
 0.4840	 6.4450
 0.4850	 6.4430
 0.4860	 6.4490
 0.4870	 6.4550
 0.4880	 6.4580
 0.4890	 6.4780
 0.4900	 6.4930
 0.4910	 6.5040
 0.4920	 6.5190
 0.4930	 6.5350
 0.4940	 6.5540
 0.4950	 6.5750
 0.4960	 6.5920
 0.4970	 6.6180
 0.4980	 6.6430
 0.4990	 6.6590
 0.5000	 6.6830
 0.5010	 6.7170
 0.5020	 6.7530
 0.5030	 6.7830
 0.5040	 6.8130
 0.5050	 6.8490
 0.5060	 6.8920
 0.5070	 6.9340
 0.5080	 6.9790
 0.5090	 7.0320
 0.5100	 7.0920
 0.5110	 7.1500
 0.5120	 7.2150
 0.5130	 7.2880
 0.5140	 7.3680
 0.5150	 7.4530
 0.5160	 7.5430
 0.5170	 7.6390
 0.5180	 7.7370
 0.5190	 7.8440
 0.5200	 7.9610
 0.5210	 8.0810
 0.5220	 8.2030
 0.5230	 8.3240
 0.5240	 8.4410
 0.5250	 8.5610
 0.5260	 8.6760
 0.5270	 8.7870
 0.5280	 8.8980
 0.5290	 9.0000
 0.5300	 9.0970
 0.5310	 9.1900
 0.5320	 9.2680
 0.5330	 9.3470
 0.5340	 9.4220
 0.5350	 9.4890
 0.5360	 9.5440
 0.5370	 9.5950
 0.5380	 9.6410
 0.5390	 9.6790
 0.5400	 9.7070
 0.5410	 9.7280
 0.5420	 9.7470
 0.5430	 9.7690
 0.5440	 9.7980
 0.5450	 9.8360
 0.5460	 9.8820
 0.5470	 9.9320
 0.5480	 9.9820
 0.5490	10.0250
 0.5500	10.0550
 0.5510	10.0810
 0.5520	10.1030
 0.5530	10.1200
 0.5540	10.1240
 0.5550	10.1190
 0.5560	10.1040
 0.5570	10.0780
 0.5580	10.0430
 0.5590	10.0010
 0.5600	 9.9540
 0.5610	 9.9040
 0.5620	 9.8490
 0.5630	 9.7910
 0.5640	 9.7320
 0.5650	 9.6740
 0.5660	 9.6140
 0.5670	 9.5520
 0.5680	 9.4890
 0.5690	 9.4250
 0.5700	 9.3570
 0.5710	 9.2860
 0.5720	 9.2190
 0.5730	 9.1530
 0.5740	 9.0890
 0.5750	 9.0250
 0.5760	 8.9700
 0.5770	 8.9200
 0.5780	 8.8720
 0.5790	 8.8270
 0.5800	 8.7860
 0.5810	 8.7510
 0.5820	 8.7190
 0.5830	 8.6890
 0.5840	 8.6610
 0.5850	 8.6350
 0.5860	 8.6130
 0.5870	 8.5920
 0.5880	 8.5770
 0.5890	 8.5670
 0.5900	 8.5590
 0.5910	 8.5490
 0.5920	 8.5390
 0.5930	 8.5330
 0.5940	 8.5290
 0.5950	 8.5290
 0.5960	 8.5310
 0.5970	 8.5350
 0.5980	 8.5340
 0.5990	 8.5300
 0.6000	 8.5260
 0.6010	 8.5230
 0.6020	 8.5180
 0.6030	 8.5080
 0.6040	 8.4910
 0.6050	 8.4720
 0.6060	 8.4500
 0.6070	 8.4240
 0.6080	 8.3930
 0.6090	 8.3550
 0.6100	 8.3070
 0.6110	 8.2520
 0.6120	 8.2220
 0.6130	 8.2060
 0.6140	 8.1920
 0.6150	 8.1720
 0.6160	 8.1520
 0.6170	 8.1320
 0.6180	 8.1140
 0.6190	 8.0980
 0.6200	 8.0820
 0.6210	 8.0670
 0.6220	 8.0620
 0.6230	 8.0590
 0.6240	 8.0570
 0.6250	 8.0580
 0.6260	 8.0580
 0.6270	 8.0600
 0.6280	 8.0650
 0.6290	 8.0720
 0.6300	 8.0780
 0.6310	 8.0840
 0.6320	 8.0890
 0.6330	 8.0980
 0.6340	 8.1050
 0.6350	 8.1070
 0.6360	 8.1040
 0.6370	 8.0980
 0.6380	 8.0900
 0.6390	 8.0780
 0.6400	 8.0640
 0.6410	 8.0500
 0.6420	 8.0330
 0.6430	 8.0130
 0.6440	 7.9950
 0.6450	 7.9780
 0.6460	 7.9600
 0.6470	 7.9410
 0.6480	 7.9270
 0.6490	 7.9150
 0.6500	 7.9050
 0.6510	 7.8980
 0.6520	 7.8940
 0.6530	 7.8910
 0.6540	 7.8860
 0.6550	 7.8790
 0.6560	 7.8690
 0.6570	 7.8580
 0.6580	 7.8480
 0.6590	 7.8340
 0.6600	 7.8190
 0.6610	 7.8060
 0.6620	 7.7960
 0.6630	 7.7830
 0.6640	 7.7720
 0.6650	 7.7700
 0.6660	 7.7710
 0.6670	 7.7730
 0.6680	 7.7780
 0.6690	 7.7930
 0.6700	 7.8070
 0.6710	 7.8250
 0.6720	 7.8510
 0.6730	 7.8790
 0.6740	 7.9120
 0.6750	 7.9470
 0.6760	 7.9860
 0.6770	 8.0290
 0.6780	 8.0760
 0.6790	 8.1290
 0.6800	 8.1870
 0.6810	 8.2490
 0.6820	 8.3130
 0.6830	 8.3810
 0.6840	 8.4570
 0.6850	 8.5370
 0.6860	 8.6180
 0.6870	 8.7030
 0.6880	 8.8020
 0.6890	 8.9140
 0.6900	 9.0400
 0.6910	 9.1880
 0.6920	 9.3660
 0.6930	 9.5810
 0.6940	 9.8340
 0.6950	10.1280
 0.6960	10.4690
 0.6970	10.8550
 0.6980	11.2830
 0.6990	11.7530
 0.7000	12.2590
 0.7010	12.7990
 0.7020	13.3670
 0.7030	13.9560
 0.7040	14.5620
 0.7050	15.1800
 0.7060	15.8100
 0.7070	16.4480
 0.7080	17.0920
 0.7090	17.7470
 0.7100	18.4080
 0.7110	19.0750
 0.7120	19.7480
 0.7130	20.4260
 0.7140	21.1070
 0.7150	21.7900
 0.7160	22.4740
 0.7170	23.1610
 0.7180	23.8450
 0.7190	24.5230
 0.7200	25.1970
 0.7210	25.8660
 0.7220	26.5240
 0.7230	27.1700
 0.7240	27.8040
 0.7250	28.4240
 0.7260	29.0270
 0.7270	29.6110
 0.7280	30.1740
 0.7290	30.7200
 0.7300	31.2450
 0.7310	31.7440
 0.7320	32.2240
 0.7330	32.6820
 0.7340	33.1170
 0.7350	33.5280
 0.7360	33.9180
 0.7370	34.2870
 0.7380	34.6340
 0.7390	34.9610
 0.7400	35.2640
 0.7410	35.5480
 0.7420	35.8140
 0.7430	36.0610
 0.7440	36.2880
 0.7450	36.4960
 0.7460	36.6890
 0.7470	36.8650
 0.7480	37.0250
 0.7490	37.1710
 0.7500	37.3030
 0.7510	37.4240
 0.7520	37.5370
 0.7530	37.6430
 0.7540	37.7350
 0.7550	37.8200
 0.7560	37.9000
 0.7570	37.9720
 0.7580	38.0370
 0.7590	38.0970
 0.7600	38.1540
 0.7610	38.2060
 0.7620	38.2520
 0.7630	38.2950
 0.7640	38.3350
 0.7650	38.3700
 0.7660	38.4020
 0.7670	38.4310
 0.7680	38.4610
 0.7690	38.4890
 0.7700	38.5140
 0.7710	38.5370
 0.7720	38.5580
 0.7730	38.5800
 0.7740	38.6020
 0.7750	38.6220
 0.7760	38.6410
 0.7770	38.6600
 0.7780	38.6790
 0.7790	38.6970
 0.7800	38.7160
 0.7810	38.7360
 0.7820	38.7550
 0.7830	38.7730
 0.7840	38.7910
 0.7850	38.8070
 0.7860	38.8220
 0.7870	38.8360
 0.7880	38.8500
 0.7890	38.8640
 0.7900	38.8760
 0.7910	38.8890
 0.7920	38.9030
 0.7930	38.9170
 0.7940	38.9280
 0.7950	38.9380
 0.7960	38.9460
 0.7970	38.9550
 0.7980	38.9630
 0.7990	38.9710
 0.8000	38.9770
 0.8010	38.9810
 0.8020	38.9880
 0.8030	38.9970
 0.8040	39.0030
 0.8050	39.0050
 0.8060	39.0110
 0.8070	39.0150
 0.8080	39.0160
 0.8090	39.0190
 0.8100	39.0210
 0.8110	39.0230
 0.8120	39.0240
 0.8130	39.0260
 0.8140	39.0230
 0.8150	39.0220
 0.8160	39.0270
 0.8170	39.0280
 0.8180	39.0250
 0.8190	39.0220
 0.8200	39.0220
 0.8210	39.0200
 0.8220	39.0200
 0.8230	39.0220
 0.8240	39.0200
 0.8250	39.0180
 0.8260	39.0170
 0.8270	39.0160
 0.8280	39.0160
 0.8290	39.0120
 0.8300	39.0070
 0.8310	39.0050
 0.8320	39.0040
 0.8330	39.0030
 0.8340	39.0040
 0.8350	39.0060
 0.8360	39.0040
 0.8370	39.0010
 0.8380	39.0010
 0.8390	39.0030
 0.8400	39.0070
 0.8410	39.0100
 0.8420	39.0100
 0.8430	39.0100
 0.8440	39.0130
 0.8450	39.0170
 0.8460	39.0200
 0.8470	39.0240
 0.8480	39.0260
 0.8490	39.0290
 0.8500	39.0340
 0.8510	39.0400
 0.8520	39.0460
 0.8530	39.0510
 0.8540	39.0550
 0.8550	39.0610
 0.8560	39.0660
 0.8570	39.0700
 0.8580	39.0770
 0.8590	39.0860
 0.8600	39.0940
 0.8610	39.1020
 0.8620	39.1080
 0.8630	39.1170
 0.8640	39.1260
 0.8650	39.1340
 0.8660	39.1430
 0.8670	39.1520
 0.8680	39.1600
 0.8690	39.1690
 0.8700	39.1770
 0.8710	39.1870
 0.8720	39.1970
 0.8730	39.2060
 0.8740	39.2170
 0.8750	39.2290
 0.8760	39.2400
 0.8770	39.2480
 0.8780	39.2620
 0.8790	39.2740
 0.8800	39.2800
 0.8810	39.2930
 0.8820	39.3040
 0.8830	39.3150
 0.8840	39.3280
 0.8850	39.3350
 0.8860	39.3400
 0.8870	39.3460
 0.8880	39.3570
 0.8890	39.3680
 0.8900	39.3770
 0.8910	39.3850
 0.8920	39.3990
 0.8930	39.4120
 0.8940	39.4210
 0.8950	39.4270
 0.8960	39.4370
 0.8970	39.4470
 0.8980	39.4540
 0.8990	39.4620
 0.9000	39.4730
 0.9010	39.4810
 0.9020	39.4900
 0.9030	39.4990
 0.9040	39.5030
 0.9050	39.5060
 0.9060	39.5140
 0.9070	39.5270
 0.9080	39.5350
 0.9090	39.5400
 0.9100	39.5450
 0.9110	39.5490
 0.9120	39.5520
 0.9130	39.5550
 0.9140	39.5590
 0.9150	39.5620
 0.9160	39.5660
 0.9170	39.5760
 0.9180	39.5850
 0.9190	39.5810
 0.9200	39.5770
 0.9210	39.5800
 0.9220	39.5840
 0.9230	39.5790
 0.9240	39.5790
 0.9250	39.5830
 0.9260	39.5850
 0.9270	39.5790
 0.9280	39.5720
 0.9290	39.5660
 0.9300	39.5600
 0.9310	39.5520
 0.9320	39.5460
 0.9330	39.5410
 0.9340	39.5360
 0.9350	39.5290
 0.9360	39.5190
 0.9370	39.5120
 0.9380	39.5060
 0.9390	39.4930
 0.9400	39.4830
 0.9410	39.4720
 0.9420	39.4590
 0.9430	39.4520
 0.9440	39.4370
 0.9450	39.4170
 0.9460	39.3980
 0.9470	39.3790
 0.9480	39.3680
 0.9490	39.3500
 0.9500	39.3170
 0.9510	39.2930
 0.9520	39.2720
 0.9530	39.2490
 0.9540	39.2220
 0.9550	39.1920
 0.9560	39.1680
 0.9570	39.1440
 0.9580	39.1120
 0.9590	39.0790
 0.9600	39.0570
 0.9610	39.0460
 0.9620	39.0360
 0.9630	39.0100
 0.9640	38.9920
 0.9650	38.9770
 0.9660	38.9540
 0.9670	38.9440
 0.9680	38.9350
 0.9690	38.9250
 0.9700	38.9180
 0.9710	38.9080
 0.9720	38.9050
 0.9730	38.9000
 0.9740	38.8850
 0.9750	38.8770
 0.9760	38.8670
 0.9770	38.8580
 0.9780	38.8570
 0.9790	38.8540
 0.9800	38.8490
 0.9810	38.8370
 0.9820	38.8210
 0.9830	38.8270
 0.9840	38.8350
 0.9850	38.8350
 0.9860	38.8270
 0.9870	38.8290
 0.9880	38.8280
 0.9890	38.8210
 0.9900	38.8150
 0.9910	38.8270
 0.9920	38.8320
 0.9930	38.8300
 0.9940	38.8310
 0.9950	38.8450
 0.9960	38.8570
 0.9970	38.8620
 0.9980	38.8590
 0.9990	38.8580
 1.0000	38.8560
 1.0010	39.0670
 1.0020	39.0690
 1.0030	39.0750
 1.0040	39.0790
 1.0050	39.0830
 1.0060	39.0900
 1.0070	39.0940
 1.0080	39.1010
 1.0090	39.1110
 1.0100	39.1190
 1.0110	39.1230
 1.0120	39.1290
 1.0130	39.1360
 1.0140	39.1420
 1.0150	39.1490
 1.0160	39.1570
 1.0170	39.1650
 1.0180	39.1700
 1.0190	39.1760
 1.0200	39.1800
 1.0210	39.1800
 1.0220	39.1810
 1.0230	39.1860
 1.0240	39.1940
 1.0250	39.2010
 1.0260	39.2110
 1.0270	39.2190
 1.0280	39.2240
 1.0290	39.2300
 1.0300	39.2380
 1.0310	39.2440
 1.0320	39.2500
 1.0330	39.2530
 1.0340	39.2580
 1.0350	39.2640
 1.0360	39.2730
 1.0370	39.2800
 1.0380	39.2860
 1.0390	39.2940
 1.0400	39.2990
 1.0410	39.3020
 1.0420	39.3070
 1.0430	39.3140
 1.0440	39.3200
 1.0450	39.3270
 1.0460	39.3320
 1.0470	39.3340
 1.0480	39.3360
 1.0490	39.3360
 1.0500	39.3370
 1.0510	39.3380
 1.0520	39.3430
 1.0530	39.3480
 1.0540	39.3550
 1.0550	39.3580
 1.0560	39.3620
 1.0570	39.3650
 1.0580	39.3650
 1.0590	39.3680
 1.0600	39.3760
 1.0610	39.3790
 1.0620	39.3820
 1.0630	39.3830
 1.0640	39.3800
 1.0650	39.3800
 1.0660	39.3830
 1.0670	39.3830
 1.0680	39.3840
 1.0690	39.3840
 1.0700	39.3850
 1.0710	39.3830
 1.0720	39.3830
 1.0730	39.3830
 1.0740	39.3830
 1.0750	39.3810
 1.0760	39.3810
 1.0770	39.3830
 1.0780	39.3820
 1.0790	39.3800
 1.0800	39.3790
 1.0810	39.3750
 1.0820	39.3750
 1.0830	39.3780
 1.0840	39.3780
 1.0850	39.3800
 1.0860	39.3810
 1.0870	39.3800
 1.0880	39.3760
 1.0890	39.3720
 1.0900	39.3670
 1.0910	39.3630
 1.0920	39.3600
 1.0930	39.3580
 1.0940	39.3600
 1.0950	39.3580
 1.0960	39.3560
 1.0970	39.3550
 1.0980	39.3530
 1.0990	39.3510
 1.1000	39.3500
 1.1010	39.3480
 1.1020	39.3430
 1.1030	39.3400
 1.1040	39.3350
 1.1050	39.3300
 1.1060	39.3270
 1.1070	39.3240
 1.1080	39.3210
 1.1090	39.3190
 1.1100	39.3150
 1.1110	39.3090
 1.1120	39.3040
 1.1130	39.3000
 1.1140	39.2940
 1.1150	39.2910
 1.1160	39.2840
 1.1170	39.2770
 1.1180	39.2680
 1.1190	39.2570
 1.1200	39.2440
 1.1210	39.2290
 1.1220	39.2160
 1.1230	39.2020
 1.1240	39.1870
 1.1250	39.1690
 1.1260	39.1510
 1.1270	39.1290
 1.1280	39.1030
 1.1290	39.0760
 1.1300	39.0460
 1.1310	39.0130
 1.1320	38.9760
 1.1330	38.9370
 1.1340	38.8950
 1.1350	38.8500
 1.1360	38.8030
 1.1370	38.7540
 1.1380	38.7030
 1.1390	38.6500
 1.1400	38.5930
 1.1410	38.5360
 1.1420	38.4770
 1.1430	38.4160
 1.1440	38.3540
 1.1450	38.2900
 1.1460	38.2290
 1.1470	38.1670
 1.1480	38.1060
 1.1490	38.0470
 1.1500	37.9890
 1.1510	37.9310
 1.1520	37.8780
 1.1530	37.8310
 1.1540	37.7840
 1.1550	37.7380
 1.1560	37.6960
 1.1570	37.6560
 1.1580	37.6160
 1.1590	37.5820
 1.1600	37.5510
 1.1610	37.5200
 1.1620	37.4920
 1.1630	37.4660
 1.1640	37.4390
 1.1650	37.4150
 1.1660	37.3930
 1.1670	37.3740
 1.1680	37.3570
 1.1690	37.3410
 1.1700	37.3260
 1.1710	37.3100
 1.1720	37.2940
 1.1730	37.2780
 1.1740	37.2610
 1.1750	37.2460
 1.1760	37.2320
 1.1770	37.2180
 1.1780	37.2010
 1.1790	37.1850
 1.1800	37.1670
 1.1810	37.1490
 1.1820	37.1340
 1.1830	37.1190
 1.1840	37.1030
 1.1850	37.0870
 1.1860	37.0710
 1.1870	37.0560
 1.1880	37.0420
 1.1890	37.0280
 1.1900	37.0160
 1.1910	37.0030
 1.1920	36.9930
 1.1930	36.9860
 1.1940	36.9780
 1.1950	36.9710
 1.1960	36.9670
 1.1970	36.9620
 1.1980	36.9560
 1.1990	36.9500
 1.2000	36.9460
 1.2010	36.9430
 1.2020	36.9420
 1.2030	36.9430
 1.2040	36.9450
 1.2050	36.9450
 1.2060	36.9470
 1.2070	36.9520
 1.2080	36.9560
 1.2090	36.9600
 1.2100	36.9680
 1.2110	36.9760
 1.2120	36.9830
 1.2130	36.9930
 1.2140	37.0050
 1.2150	37.0170
 1.2160	37.0310
 1.2170	37.0460
 1.2180	37.0610
 1.2190	37.0770
 1.2200	37.0930
 1.2210	37.1080
 1.2220	37.1240
 1.2230	37.1410
 1.2240	37.1590
 1.2250	37.1770
 1.2260	37.1940
 1.2270	37.2100
 1.2280	37.2250
 1.2290	37.2400
 1.2300	37.2550
 1.2310	37.2690
 1.2320	37.2800
 1.2330	37.2920
 1.2340	37.3040
 1.2350	37.3150
 1.2360	37.3270
 1.2370	37.3400
 1.2380	37.3500
 1.2390	37.3610
 1.2400	37.3710
 1.2410	37.3780
 1.2420	37.3860
 1.2430	37.3930
 1.2440	37.4000
 1.2450	37.4060
 1.2460	37.4120
 1.2470	37.4190
 1.2480	37.4260
 1.2490	37.4330
 1.2500	37.4400
 1.2510	37.4460
 1.2520	37.4500
 1.2530	37.4540
 1.2540	37.4570
 1.2550	37.4600
 1.2560	37.4630
 1.2570	37.4630
 1.2580	37.4660
 1.2590	37.4670
 1.2600	37.4690
 1.2610	37.4700
 1.2620	37.4720
 1.2630	37.4720
 1.2640	37.4710
 1.2650	37.4690
 1.2660	37.4670
 1.2670	37.4640
 1.2680	37.4620
 1.2690	37.4590
 1.2700	37.4550
 1.2710	37.4500
 1.2720	37.4450
 1.2730	37.4400
 1.2740	37.4350
 1.2750	37.4300
 1.2760	37.4250
 1.2770	37.4170
 1.2780	37.4110
 1.2790	37.4060
 1.2800	37.3950
 1.2810	37.3850
 1.2820	37.3750
 1.2830	37.3640
 1.2840	37.3540
 1.2850	37.3430
 1.2860	37.3300
 1.2870	37.3160
 1.2880	37.2990
 1.2890	37.2830
 1.2900	37.2660
 1.2910	37.2480
 1.2920	37.2310
 1.2930	37.2110
 1.2940	37.1910
 1.2950	37.1680
 1.2960	37.1460
 1.2970	37.1220
 1.2980	37.0960
 1.2990	37.0710
 1.3000	37.0430
 1.3010	37.0160
 1.3020	36.9880
 1.3030	36.9580
 1.3040	36.9270
 1.3050	36.8950
 1.3060	36.8590
 1.3070	36.8260
 1.3080	36.7920
 1.3090	36.7560
 1.3100	36.7200
 1.3110	36.6810
 1.3120	36.6420
 1.3130	36.6030
 1.3140	36.5610
 1.3150	36.5190
 1.3160	36.4740
 1.3170	36.4280
 1.3180	36.3790
 1.3190	36.3310
 1.3200	36.2820
 1.3210	36.2320
 1.3220	36.1810
 1.3230	36.1280
 1.3240	36.0730
 1.3250	36.0180
 1.3260	35.9610
 1.3270	35.9010
 1.3280	35.8410
 1.3290	35.7790
 1.3300	35.7160
 1.3310	35.6530
 1.3320	35.5880
 1.3330	35.5220
 1.3340	35.4540
 1.3350	35.3870
 1.3360	35.3190
 1.3370	35.2510
 1.3380	35.1830
 1.3390	35.1140
 1.3400	35.0460
 1.3410	34.9770
 1.3420	34.9080
 1.3430	34.8380
 1.3440	34.7700
 1.3450	34.7020
 1.3460	34.6350
 1.3470	34.5680
 1.3480	34.5020
 1.3490	34.4370
 1.3500	34.3720
 1.3510	34.3080
 1.3520	34.2450
 1.3530	34.1810
 1.3540	34.1150
 1.3550	34.0510
 1.3560	33.9880
 1.3570	33.9220
 1.3580	33.8560
 1.3590	33.7890
 1.3600	33.7190
 1.3610	33.6480
 1.3620	33.5740
 1.3630	33.4960
 1.3640	33.4150
 1.3650	33.3320
 1.3660	33.2450
 1.3670	33.1550
 1.3680	33.0590
 1.3690	32.9570
 1.3700	32.8460
 1.3710	32.7290
 1.3720	32.6030
 1.3730	32.4670
 1.3740	32.3230
 1.3750	32.1680
 1.3760	31.9990
 1.3770	31.8160
 1.3780	31.6160
 1.3790	31.4010
 1.3800	31.1720
 1.3810	30.9240
 1.3820	30.6630
 1.3830	30.3890
 1.3840	30.0970
 1.3850	29.7900
 1.3860	29.4690
 1.3870	29.1320
 1.3880	28.7850
 1.3890	28.4240
 1.3900	28.0510
 1.3910	27.6740
 1.3920	27.2860
 1.3930	26.8920
 1.3940	26.4940
 1.3950	26.0890
 1.3960	25.6850
 1.3970	25.2830
 1.3980	24.8830
 1.3990	24.4910
 1.4000	24.1030
 1.4010	23.7190
 1.4020	23.3460
 1.4030	22.9790
 1.4040	22.6250
 1.4050	22.2820
 1.4060	21.9520
 1.4070	21.6370
 1.4080	21.3340
 1.4090	21.0430
 1.4100	20.7690
 1.4110	20.5050
 1.4120	20.2570
 1.4130	20.0210
 1.4140	19.7990
 1.4150	19.5910
 1.4160	19.3950
 1.4170	19.2100
 1.4180	19.0380
 1.4190	18.8760
 1.4200	18.7250
 1.4210	18.5850
 1.4220	18.4520
 1.4230	18.3300
 1.4240	18.2160
 1.4250	18.1090
 1.4260	18.0110
 1.4270	17.9180
 1.4280	17.8330
 1.4290	17.7540
 1.4300	17.6830
 1.4310	17.6170
 1.4320	17.5580
 1.4330	17.5030
 1.4340	17.4540
 1.4350	17.4090
 1.4360	17.3700
 1.4370	17.3340
 1.4380	17.3030
 1.4390	17.2770
 1.4400	17.2540
 1.4410	17.2360
 1.4420	17.2190
 1.4430	17.2050
 1.4440	17.1940
 1.4450	17.1860
 1.4460	17.1800
 1.4470	17.1770
 1.4480	17.1770
 1.4490	17.1770
 1.4500	17.1790
 1.4510	17.1820
 1.4520	17.1870
 1.4530	17.1950
 1.4540	17.2050
 1.4550	17.2160
 1.4560	17.2290
 1.4570	17.2450
 1.4580	17.2630
 1.4590	17.2840
 1.4600	17.3090
 1.4610	17.3380
 1.4620	17.3690
 1.4630	17.4050
 1.4640	17.4440
 1.4650	17.4860
 1.4660	17.5330
 1.4670	17.5830
 1.4680	17.6390
 1.4690	17.6970
 1.4700	17.7600
 1.4710	17.8260
 1.4720	17.8940
 1.4730	17.9650
 1.4740	18.0410
 1.4750	18.1200
 1.4760	18.2010
 1.4770	18.2840
 1.4780	18.3670
