Name: Bambusa beecheyana
Type: vegetation
Class: Tree
Genus: Bambusa
Species: beecheyana
Sample No.: JPL244
Owner: JPL
Wavelength Range: TIR
Origin: 34.12536; -118.11136; WGS84
Collection Date: 10/6/2016
Description: Samples were collected at the Huntington Garden in San Marino California as part of a JPL Subcontract studying HyTES imagery. Samples were taken to JPL and processed within 48 hours of collection. The same leaves were processed in the Nicolet and then measured using the ASD.
Measurement: Hemispherical reflectance
First Column: X
Second Column: Y
X Units: Wavelength (micrometer)
Y Units: Reflectance (percentage)
First X Value: 2.501
Last X Value: 15.387
Number of X Values: 1737
Additional Information: vegetation.tree.bambusa.beecheyana.tir.jpl244.jpl.nicolet.ancillary.txt

 2.5010	 7.4000
 2.5030	 7.2970
 2.5040	 7.2640
 2.5050	 7.2380
 2.5060	 7.2600
 2.5070	 7.2770
 2.5090	 7.3130
 2.5100	 7.2580
 2.5110	 7.2200
 2.5120	 7.1990
 2.5140	 7.1040
 2.5150	 7.0290
 2.5160	 7.0860
 2.5170	 7.1260
 2.5180	 7.1740
 2.5200	 7.1130
 2.5210	 7.0940
 2.5220	 7.1120
 2.5230	 7.0450
 2.5250	 6.9560
 2.5260	 7.0540
 2.5270	 7.0670
 2.5280	 7.0780
 2.5300	 7.0390
 2.5310	 7.0000
 2.5320	 6.9130
 2.5330	 6.9230
 2.5340	 7.0150
 2.5360	 6.9540
 2.5370	 6.8170
 2.5380	 6.9880
 2.5390	 7.0550
 2.5410	 7.0640
 2.5420	 7.0080
 2.5430	 6.7970
 2.5440	 6.8240
 2.5460	 7.0060
 2.5470	 6.9670
 2.5480	 6.8630
 2.5490	 6.9070
 2.5510	 6.8870
 2.5520	 6.7720
 2.5530	 6.7870
 2.5540	 6.9710
 2.5560	 7.1750
 2.5570	 7.2350
 2.5580	 7.2910
 2.5590	 7.1390
 2.5610	 6.6660
 2.5620	 6.2910
 2.5630	 6.2950
 2.5650	 6.3160
 2.5660	 6.6880
 2.5670	 7.0950
 2.5680	 6.9900
 2.5700	 6.5620
 2.5710	 6.6920
 2.5720	 6.9080
 2.5730	 6.4740
 2.5750	 6.5590
 2.5760	 6.7090
 2.5770	 6.4500
 2.5790	 6.8450
 2.5800	 7.0220
 2.5810	 6.6170
 2.5820	 6.5170
 2.5840	 6.1660
 2.5850	 6.1590
 2.5860	 6.5420
 2.5880	 6.2390
 2.5890	 6.3300
 2.5900	 6.5700
 2.5910	 6.8150
 2.5930	 6.5840
 2.5940	 5.7210
 2.5950	 4.8790
 2.5970	 5.5510
 2.5980	 6.4280
 2.5990	 6.7810
 2.6010	 6.6170
 2.6020	 6.2990
 2.6030	 6.0270
 2.6040	 5.6340
 2.6060	 5.3210
 2.6070	 5.5740
 2.6080	 5.7970
 2.6100	 5.8010
 2.6110	 5.9530
 2.6120	 6.0620
 2.6140	 5.9210
 2.6150	 5.9250
 2.6160	 5.2940
 2.6180	 4.9080
 2.6190	 5.3240
 2.6200	 5.1390
 2.6220	 5.1850
 2.6230	 5.6830
 2.6240	 5.7140
 2.6260	 5.4760
 2.6270	 4.9840
 2.6280	 5.1400
 2.6300	 4.9420
 2.6310	 4.4780
 2.6320	 4.7880
 2.6340	 4.9510
 2.6350	 4.9550
 2.6360	 5.1750
 2.6380	 5.1360
 2.6390	 5.1070
 2.6400	 4.9900
 2.6420	 4.8420
 2.6430	 4.6960
 2.6440	 4.6620
 2.6460	 4.3920
 2.6470	 4.4210
 2.6480	 4.5450
 2.6500	 4.5850
 2.6510	 4.3780
 2.6520	 4.0390
 2.6540	 3.9980
 2.6550	 4.0370
 2.6570	 3.9470
 2.6580	 4.0730
 2.6590	 3.8020
 2.6610	 3.6440
 2.6620	 3.6220
 2.6630	 3.6080
 2.6650	 3.1940
 2.6660	 2.8440
 2.6670	 2.8120
 2.6690	 3.0440
 2.6700	 2.7610
 2.6720	 2.6900
 2.6730	 3.0700
 2.6740	 3.1720
 2.6760	 2.8980
 2.6770	 2.5760
 2.6780	 2.5860
 2.6800	 2.7640
 2.6810	 2.9730
 2.6830	 3.0300
 2.6840	 2.9010
 2.6850	 2.8120
 2.6870	 2.7340
 2.6880	 2.8050
 2.6900	 2.8010
 2.6910	 2.8440
 2.6920	 2.7300
 2.6940	 2.4300
 2.6950	 2.2910
 2.6970	 2.4640
 2.6980	 2.6170
 2.6990	 2.6810
 2.7010	 2.5090
 2.7020	 2.4870
 2.7040	 2.6270
 2.7050	 2.6740
 2.7060	 2.5880
 2.7080	 2.5010
 2.7090	 2.2340
 2.7110	 2.0790
 2.7120	 2.1490
 2.7130	 2.4640
 2.7150	 2.5220
 2.7160	 2.4890
 2.7180	 2.3410
 2.7190	 2.1750
 2.7210	 1.8970
 2.7220	 2.0970
 2.7230	 2.1930
 2.7250	 2.0120
 2.7260	 2.1440
 2.7280	 2.3940
 2.7290	 2.4700
 2.7310	 2.5110
 2.7320	 2.5000
 2.7340	 2.5150
 2.7350	 2.3540
 2.7360	 2.3530
 2.7380	 2.2730
 2.7390	 1.9770
 2.7410	 1.8370
 2.7420	 2.0380
 2.7440	 2.3290
 2.7450	 2.4230
 2.7470	 2.3480
 2.7480	 2.3880
 2.7490	 2.3740
 2.7510	 2.3750
 2.7520	 2.2810
 2.7540	 2.2310
 2.7550	 1.9150
 2.7570	 1.9880
 2.7580	 2.3240
 2.7600	 2.4540
 2.7610	 2.3370
 2.7630	 2.1870
 2.7640	 2.1420
 2.7660	 2.2600
 2.7670	 2.1940
 2.7690	 2.1800
 2.7700	 2.1590
 2.7720	 2.1360
 2.7730	 2.2350
 2.7740	 2.3210
 2.7760	 2.2580
 2.7770	 2.2640
 2.7790	 2.2700
 2.7800	 2.2630
 2.7820	 2.1940
 2.7830	 2.2910
 2.7850	 2.3240
 2.7860	 2.1290
 2.7880	 2.0290
 2.7890	 2.2680
 2.7910	 2.3210
 2.7920	 2.2660
 2.7940	 2.2110
 2.7950	 2.2730
 2.7970	 2.2830
 2.7980	 2.2930
 2.8000	 2.3210
 2.8010	 2.2590
 2.8030	 2.0580
 2.8040	 2.1730
 2.8060	 2.2860
 2.8080	 2.2740
 2.8090	 2.2960
 2.8110	 2.3390
 2.8120	 2.2630
 2.8140	 2.2710
 2.8150	 2.2610
 2.8170	 2.2620
 2.8180	 2.1750
 2.8200	 2.1650
 2.8210	 2.1770
 2.8230	 2.2310
 2.8240	 2.2780
 2.8260	 2.3240
 2.8270	 2.2950
 2.8290	 2.3030
 2.8310	 2.2870
 2.8320	 2.3090
 2.8340	 2.2630
 2.8350	 2.2030
 2.8370	 2.0960
 2.8380	 2.1900
 2.8400	 2.2820
 2.8410	 2.3150
 2.8430	 2.2990
 2.8440	 2.3080
 2.8460	 2.2910
 2.8480	 2.3250
 2.8490	 2.2550
 2.8510	 2.2100
 2.8520	 2.1310
 2.8540	 2.1710
 2.8550	 2.2010
 2.8570	 2.2200
 2.8590	 2.2080
 2.8600	 2.2710
 2.8620	 2.2640
 2.8630	 2.2600
 2.8650	 2.2120
 2.8660	 2.2540
 2.8680	 2.2040
 2.8700	 2.2190
 2.8710	 2.2290
 2.8730	 2.2790
 2.8740	 2.2970
 2.8760	 2.2820
 2.8780	 2.2030
 2.8790	 2.2640
 2.8810	 2.2940
 2.8820	 2.3020
 2.8840	 2.2100
 2.8860	 2.1840
 2.8870	 2.2050
 2.8890	 2.1940
 2.8900	 2.1160
 2.8920	 2.1920
 2.8940	 2.2490
 2.8950	 2.2490
 2.8970	 2.2010
 2.8990	 2.1970
 2.9000	 2.1600
 2.9020	 2.2300
 2.9030	 2.1980
 2.9050	 2.1750
 2.9070	 2.1440
 2.9080	 2.2070
 2.9100	 2.1560
 2.9120	 2.2110
 2.9130	 2.2440
 2.9150	 2.2260
 2.9160	 2.1990
 2.9180	 2.2250
 2.9200	 2.2330
 2.9210	 2.2940
 2.9230	 2.2860
 2.9250	 2.2700
 2.9260	 2.1950
 2.9280	 2.1800
 2.9300	 2.1680
 2.9310	 2.1900
 2.9330	 2.1410
 2.9350	 2.1380
 2.9360	 2.1330
 2.9380	 2.2200
 2.9400	 2.1720
 2.9410	 2.1200
 2.9430	 2.0830
 2.9450	 2.1070
 2.9460	 2.1100
 2.9480	 2.1710
 2.9500	 2.1120
 2.9510	 2.1030
 2.9530	 2.1350
 2.9550	 2.1700
 2.9560	 2.1390
 2.9580	 2.1420
 2.9600	 2.1610
 2.9610	 2.1810
 2.9630	 2.0720
 2.9650	 2.1000
 2.9670	 2.1240
 2.9680	 2.1320
 2.9700	 2.0700
 2.9720	 2.0760
 2.9730	 2.1210
 2.9750	 2.1970
 2.9770	 2.1140
 2.9780	 2.0940
 2.9800	 2.1070
 2.9820	 2.1340
 2.9840	 2.1110
 2.9850	 2.1230
 2.9870	 2.1250
 2.9890	 2.0990
 2.9900	 2.0450
 2.9920	 2.0770
 2.9940	 2.0630
 2.9960	 2.0620
 2.9970	 2.0780
 2.9990	 2.1090
 3.0010	 2.0880
 3.0030	 2.1260
 3.0040	 2.1270
 3.0060	 2.1020
 3.0080	 2.0870
 3.0100	 2.0720
 3.0110	 2.0360
 3.0130	 2.0800
 3.0150	 2.1270
 3.0170	 2.1780
 3.0180	 2.1140
 3.0200	 2.1300
 3.0220	 2.0850
 3.0240	 2.0230
 3.0250	 2.0890
 3.0270	 2.1860
 3.0290	 2.1480
 3.0310	 2.1280
 3.0320	 2.0710
 3.0340	 2.0970
 3.0360	 2.0810
 3.0380	 2.0920
 3.0400	 2.1260
 3.0410	 2.1810
 3.0430	 2.1190
 3.0450	 2.1600
 3.0470	 2.1530
 3.0480	 2.1150
 3.0500	 2.1010
 3.0520	 2.1410
 3.0540	 2.0510
 3.0560	 2.0610
 3.0570	 2.1290
 3.0590	 2.1380
 3.0610	 2.1170
 3.0630	 2.1380
 3.0650	 2.1160
 3.0670	 2.2030
 3.0680	 2.1580
 3.0700	 2.1300
 3.0720	 2.0970
 3.0740	 2.1260
 3.0760	 2.0920
 3.0770	 2.1020
 3.0790	 2.1130
 3.0810	 2.0780
 3.0830	 2.0610
 3.0850	 2.1630
 3.0870	 2.1370
 3.0880	 2.1190
 3.0900	 2.0970
 3.0920	 2.0950
 3.0940	 2.0670
 3.0960	 2.1310
 3.0980	 2.1530
 3.1000	 2.1600
 3.1010	 2.1460
 3.1030	 2.1620
 3.1050	 2.1270
 3.1070	 2.1310
 3.1090	 2.1120
 3.1110	 2.1120
 3.1130	 2.0680
 3.1140	 2.0780
 3.1160	 2.0730
 3.1180	 2.1090
 3.1200	 2.0720
 3.1220	 2.0690
 3.1240	 2.0730
 3.1260	 2.1090
 3.1280	 2.1140
 3.1290	 2.1850
 3.1310	 2.1820
 3.1330	 2.1510
 3.1350	 2.1030
 3.1370	 2.1120
 3.1390	 2.0740
 3.1410	 2.0670
 3.1430	 2.0800
 3.1450	 2.1170
 3.1470	 2.0660
 3.1480	 2.0780
 3.1500	 2.0990
 3.1520	 2.1310
 3.1540	 2.1580
 3.1560	 2.1680
 3.1580	 2.1000
 3.1600	 2.0920
 3.1620	 2.1130
 3.1640	 2.1470
 3.1660	 2.1170
 3.1680	 2.1470
 3.1700	 2.1420
 3.1720	 2.1340
 3.1730	 2.1100
 3.1750	 2.1360
 3.1770	 2.0980
 3.1790	 2.0950
 3.1810	 2.0950
 3.1830	 2.0990
 3.1850	 2.0700
 3.1870	 2.0950
 3.1890	 2.0680
 3.1910	 2.0840
 3.1930	 2.0810
 3.1950	 2.1010
 3.1970	 2.0750
 3.1990	 2.1290
 3.2010	 2.1610
 3.2030	 2.1110
 3.2050	 2.0600
 3.2070	 2.1390
 3.2090	 2.1120
 3.2110	 2.0900
 3.2130	 2.1250
 3.2150	 2.1500
 3.2170	 2.0940
 3.2190	 2.1140
 3.2210	 2.1310
 3.2230	 2.1630
 3.2250	 2.0970
 3.2270	 2.0930
 3.2290	 2.0590
 3.2310	 2.0680
 3.2330	 2.0730
 3.2350	 2.0760
 3.2370	 2.0410
 3.2390	 2.1060
 3.2410	 2.1450
 3.2430	 2.1330
 3.2450	 2.0840
 3.2470	 2.0880
 3.2490	 2.0530
 3.2510	 2.0840
 3.2530	 2.1080
 3.2550	 2.1100
 3.2570	 2.0660
 3.2590	 2.0690
 3.2610	 2.0390
 3.2630	 2.0870
 3.2650	 2.1220
 3.2670	 2.1280
 3.2700	 2.0870
 3.2720	 2.0960
 3.2740	 2.1000
 3.2760	 2.1210
 3.2780	 2.1030
 3.2800	 2.0690
 3.2820	 1.9960
 3.2840	 2.0460
 3.2860	 2.0970
 3.2880	 2.1260
 3.2900	 2.0850
 3.2920	 2.0840
 3.2940	 2.0340
 3.2970	 2.0010
 3.2990	 1.9860
 3.3010	 2.0090
 3.3030	 2.0040
 3.3050	 2.0090
 3.3070	 2.0090
 3.3090	 2.0630
 3.3110	 2.0630
 3.3130	 2.0470
 3.3160	 1.9870
 3.3180	 2.0190
 3.3200	 2.0950
 3.3220	 2.0900
 3.3240	 2.0090
 3.3260	 2.0340
 3.3280	 2.0240
 3.3300	 2.0310
 3.3330	 2.0180
 3.3350	 2.0500
 3.3370	 2.0340
 3.3390	 2.0220
 3.3410	 1.9680
 3.3430	 1.9970
 3.3450	 2.0030
 3.3480	 1.9960
 3.3500	 1.9610
 3.3520	 2.0270
 3.3540	 2.0090
 3.3560	 1.9900
 3.3580	 1.9750
 3.3610	 1.9470
 3.3630	 1.9000
 3.3650	 1.9140
 3.3670	 1.9360
 3.3690	 1.9730
 3.3720	 1.9630
 3.3740	 1.9740
 3.3760	 1.9600
 3.3780	 1.9770
 3.3800	 1.9830
 3.3830	 1.9630
 3.3850	 1.9230
 3.3870	 1.9710
 3.3890	 1.9810
 3.3910	 1.9660
 3.3940	 1.9340
 3.3960	 1.9540
 3.3980	 1.9700
 3.4000	 1.9860
 3.4030	 2.0090
 3.4050	 2.0330
 3.4070	 2.0590
 3.4090	 2.1640
 3.4110	 2.2400
 3.4140	 2.3310
 3.4160	 2.4560
 3.4180	 2.6350
 3.4200	 2.8800
 3.4230	 3.2790
 3.4250	 3.7270
 3.4270	 4.2290
 3.4300	 4.5120
 3.4320	 4.4100
 3.4340	 4.0370
 3.4360	 3.6780
 3.4390	 3.4330
 3.4410	 3.3230
 3.4430	 3.2070
 3.4450	 3.1480
 3.4480	 3.0880
 3.4500	 3.0330
 3.4520	 2.9430
 3.4550	 2.9310
 3.4570	 2.8820
 3.4590	 2.8370
 3.4620	 2.7930
 3.4640	 2.7680
 3.4660	 2.7280
 3.4690	 2.7190
 3.4710	 2.6780
 3.4730	 2.6350
 3.4760	 2.6050
 3.4780	 2.5970
 3.4800	 2.5310
 3.4830	 2.5110
 3.4850	 2.4960
 3.4870	 2.5010
 3.4900	 2.4800
 3.4920	 2.4270
 3.4940	 2.3760
 3.4970	 2.4250
 3.4990	 2.4640
 3.5010	 2.5370
 3.5040	 2.5950
 3.5060	 2.9430
 3.5080	 3.6030
 3.5110	 4.1610
 3.5130	 4.2100
 3.5160	 3.9030
 3.5180	 3.5650
 3.5200	 3.3740
 3.5230	 3.2790
 3.5250	 3.1870
 3.5280	 3.0810
 3.5300	 3.0270
 3.5320	 3.0040
 3.5350	 2.9590
 3.5370	 2.8780
 3.5400	 2.8470
 3.5420	 2.8150
 3.5440	 2.8240
 3.5470	 2.8040
 3.5490	 2.7800
 3.5520	 2.7490
 3.5540	 2.7390
 3.5570	 2.7240
 3.5590	 2.7380
 3.5610	 2.7200
 3.5640	 2.7270
 3.5660	 2.7430
 3.5690	 2.7780
 3.5710	 2.7800
 3.5740	 2.7960
 3.5760	 2.7700
 3.5790	 2.7660
 3.5810	 2.7670
 3.5840	 2.7760
 3.5860	 2.7120
 3.5890	 2.6990
 3.5910	 2.6840
 3.5940	 2.7130
 3.5960	 2.7350
 3.5990	 2.7440
 3.6010	 2.7230
 3.6040	 2.7500
 3.6060	 2.7300
 3.6090	 2.6960
 3.6110	 2.7000
 3.6140	 2.7350
 3.6160	 2.7390
 3.6190	 2.7480
 3.6210	 2.7730
 3.6240	 2.8060
 3.6260	 2.7890
 3.6290	 2.7960
 3.6310	 2.8340
 3.6340	 2.8470
 3.6360	 2.7910
 3.6390	 2.7610
 3.6410	 2.7460
 3.6440	 2.7850
 3.6470	 2.7850
 3.6490	 2.7880
 3.6520	 2.7950
 3.6540	 2.7860
 3.6570	 2.7660
 3.6590	 2.8310
 3.6620	 2.8340
 3.6650	 2.8420
 3.6670	 2.8690
 3.6700	 2.8790
 3.6720	 2.8510
 3.6750	 2.8380
 3.6780	 2.8530
 3.6800	 2.8970
 3.6830	 2.8880
 3.6850	 2.8930
 3.6880	 2.9210
 3.6910	 2.9390
 3.6930	 2.9070
 3.6960	 2.9410
 3.6990	 2.9190
 3.7010	 2.9100
 3.7040	 2.9510
 3.7070	 2.9930
 3.7090	 2.9720
 3.7120	 2.9530
 3.7150	 2.9600
 3.7170	 3.0100
 3.7200	 2.9960
 3.7230	 2.9840
 3.7250	 3.0000
 3.7280	 3.0500
 3.7310	 3.0560
 3.7330	 3.0730
 3.7360	 3.0630
 3.7390	 3.0770
 3.7410	 3.0680
 3.7440	 3.1030
 3.7470	 3.1280
 3.7490	 3.1560
 3.7520	 3.1600
 3.7550	 3.1740
 3.7580	 3.1990
 3.7600	 3.2390
 3.7630	 3.2340
 3.7660	 3.2490
 3.7690	 3.2510
 3.7710	 3.2890
 3.7740	 3.3160
 3.7770	 3.3140
 3.7790	 3.3120
 3.7820	 3.3550
 3.7850	 3.3540
 3.7880	 3.3430
 3.7910	 3.3270
 3.7930	 3.3550
 3.7960	 3.3660
 3.7990	 3.4070
 3.8020	 3.4300
 3.8040	 3.4190
 3.8070	 3.4390
 3.8100	 3.4750
 3.8130	 3.4660
 3.8160	 3.4860
 3.8180	 3.5130
 3.8210	 3.5000
 3.8240	 3.4980
 3.8270	 3.5240
 3.8300	 3.5390
 3.8330	 3.6010
 3.8350	 3.5960
 3.8380	 3.5750
 3.8410	 3.5430
 3.8440	 3.5380
 3.8470	 3.5310
 3.8500	 3.5620
 3.8520	 3.5900
 3.8550	 3.6170
 3.8580	 3.6260
 3.8610	 3.6410
 3.8640	 3.6160
 3.8670	 3.6650
 3.8700	 3.6600
 3.8730	 3.6310
 3.8760	 3.6310
 3.8780	 3.6240
 3.8810	 3.6100
 3.8840	 3.6450
 3.8870	 3.6530
 3.8900	 3.6590
 3.8930	 3.6590
 3.8960	 3.6700
 3.8990	 3.6500
 3.9020	 3.6490
 3.9050	 3.6300
 3.9080	 3.6330
 3.9110	 3.6370
 3.9140	 3.6460
 3.9170	 3.6290
 3.9190	 3.6330
 3.9220	 3.6390
 3.9250	 3.6890
 3.9280	 3.6900
 3.9310	 3.6370
 3.9340	 3.6350
 3.9370	 3.6580
 3.9400	 3.6410
 3.9430	 3.6440
 3.9460	 3.6430
 3.9490	 3.6460
 3.9520	 3.6130
 3.9550	 3.6180
 3.9580	 3.6050
 3.9610	 3.5990
 3.9640	 3.5980
 3.9670	 3.5910
 3.9700	 3.5770
 3.9740	 3.5510
 3.9770	 3.5530
 3.9800	 3.6030
 3.9830	 3.5830
 3.9860	 3.5790
 3.9890	 3.6320
 3.9920	 3.6840
 3.9950	 3.6660
 3.9980	 3.6150
 4.0010	 3.5720
 4.0040	 3.5860
 4.0070	 3.5930
 4.0100	 3.5890
 4.0140	 3.5570
 4.0170	 3.5490
 4.0200	 3.5370
 4.0230	 3.5640
 4.0260	 3.5920
 4.0290	 3.5780
 4.0320	 3.5410
 4.0350	 3.5240
 4.0390	 3.5200
 4.0420	 3.5510
 4.0450	 3.5600
 4.0480	 3.5240
 4.0510	 3.4840
 4.0540	 3.5010
 4.0570	 3.5150
 4.0610	 3.5040
 4.0640	 3.4740
 4.0670	 3.4600
 4.0700	 3.4710
 4.0730	 3.4890
 4.0770	 3.4540
 4.0800	 3.4680
 4.0830	 3.4630
 4.0860	 3.4260
 4.0890	 3.4300
 4.0930	 3.4450
 4.0960	 3.4150
 4.0990	 3.4190
 4.1020	 3.4210
 4.1060	 3.4000
 4.1090	 3.3550
 4.1120	 3.3500
 4.1150	 3.3730
 4.1190	 3.3850
 4.1220	 3.3720
 4.1250	 3.3740
 4.1290	 3.3740
 4.1320	 3.3660
 4.1350	 3.3410
 4.1380	 3.3350
 4.1420	 3.3240
 4.1450	 3.3220
 4.1480	 3.3070
 4.1520	 3.2870
 4.1550	 3.2700
 4.1580	 3.2900
 4.1620	 3.2930
 4.1650	 3.2720
 4.1680	 3.2550
 4.1720	 3.2490
 4.1750	 3.2380
 4.1780	 3.2200
 4.1820	 3.1950
 4.1850	 3.2330
 4.1890	 3.2000
 4.1920	 3.1910
 4.1950	 3.2160
 4.1990	 3.2140
 4.2020	 3.2290
 4.2060	 3.2540
 4.2090	 3.2580
 4.2120	 3.2530
 4.2160	 3.2490
 4.2190	 3.3410
 4.2230	 3.3080
 4.2260	 3.3650
 4.2300	 3.3980
 4.2330	 3.3330
 4.2360	 3.2740
 4.2400	 3.2930
 4.2430	 3.2770
 4.2470	 3.2290
 4.2500	 3.1870
 4.2540	 3.1050
 4.2570	 3.0310
 4.2610	 3.0120
 4.2640	 3.0790
 4.2680	 3.1150
 4.2710	 3.0850
 4.2750	 3.0730
 4.2780	 3.0420
 4.2820	 3.0600
 4.2850	 3.0160
 4.2890	 2.9840
 4.2930	 2.9940
 4.2960	 2.9990
 4.3000	 3.0230
 4.3030	 2.9770
 4.3070	 2.9340
 4.3100	 2.9400
 4.3140	 2.9270
 4.3180	 2.8810
 4.3210	 2.8600
 4.3250	 2.8480
 4.3280	 2.8490
 4.3320	 2.8200
 4.3360	 2.7650
 4.3390	 2.7540
 4.3430	 2.7490
 4.3470	 2.7540
 4.3500	 2.7560
 4.3540	 2.7520
 4.3580	 2.7270
 4.3610	 2.6880
 4.3650	 2.6760
 4.3690	 2.6690
 4.3720	 2.6760
 4.3760	 2.7030
 4.3800	 2.6940
 4.3830	 2.6470
 4.3870	 2.6230
 4.3910	 2.6210
 4.3940	 2.6320
 4.3980	 2.6480
 4.4020	 2.6250
 4.4060	 2.5930
 4.4090	 2.5710
 4.4130	 2.5930
 4.4170	 2.5950
 4.4210	 2.5630
 4.4240	 2.5800
 4.4280	 2.6010
 4.4320	 2.5780
 4.4360	 2.5280
 4.4400	 2.5210
 4.4430	 2.5170
 4.4470	 2.5220
 4.4510	 2.5280
 4.4550	 2.5140
 4.4590	 2.5190
 4.4630	 2.5400
 4.4660	 2.5240
 4.4700	 2.5180
 4.4740	 2.5230
 4.4780	 2.5170
 4.4820	 2.5010
 4.4860	 2.5070
 4.4900	 2.4780
 4.4930	 2.4470
 4.4970	 2.4320
 4.5010	 2.4200
 4.5050	 2.4170
 4.5090	 2.4370
 4.5130	 2.4330
 4.5170	 2.4010
 4.5210	 2.3960
 4.5250	 2.4430
 4.5290	 2.4340
 4.5330	 2.4270
 4.5370	 2.4090
 4.5410	 2.3940
 4.5450	 2.3930
 4.5490	 2.3980
 4.5530	 2.4200
 4.5570	 2.4040
 4.5610	 2.3810
 4.5650	 2.3900
 4.5690	 2.3890
 4.5730	 2.3690
 4.5770	 2.3830
 4.5810	 2.3970
 4.5850	 2.3770
 4.5890	 2.3630
 4.5930	 2.3600
 4.5970	 2.3870
 4.6010	 2.3520
 4.6050	 2.3320
 4.6090	 2.3770
 4.6130	 2.4230
 4.6170	 2.4140
 4.6220	 2.3910
 4.6260	 2.3810
 4.6300	 2.3870
 4.6340	 2.4050
 4.6380	 2.4060
 4.6420	 2.4050
 4.6460	 2.4090
 4.6510	 2.3830
 4.6550	 2.3670
 4.6590	 2.3850
 4.6630	 2.3770
 4.6670	 2.3470
 4.6720	 2.3520
 4.6760	 2.3480
 4.6800	 2.3430
 4.6840	 2.3370
 4.6880	 2.3380
 4.6930	 2.3450
 4.6970	 2.3380
 4.7010	 2.3320
 4.7050	 2.3720
 4.7100	 2.3650
 4.7140	 2.3550
 4.7180	 2.3740
 4.7230	 2.3900
 4.7270	 2.3860
 4.7310	 2.3680
 4.7360	 2.3340
 4.7400	 2.3620
 4.7440	 2.3770
 4.7490	 2.3800
 4.7530	 2.3830
 4.7570	 2.3600
 4.7620	 2.3660
 4.7660	 2.3920
 4.7700	 2.3580
 4.7750	 2.3600
 4.7790	 2.3470
 4.7840	 2.3490
 4.7880	 2.3460
 4.7920	 2.3560
 4.7970	 2.3720
 4.8010	 2.3710
 4.8060	 2.3800
 4.8100	 2.3990
 4.8150	 2.3870
 4.8190	 2.4010
 4.8240	 2.3950
 4.8280	 2.3820
 4.8330	 2.3790
 4.8370	 2.3780
 4.8420	 2.3610
 4.8460	 2.3850
 4.8510	 2.3880
 4.8550	 2.3890
 4.8600	 2.4120
 4.8640	 2.4100
 4.8690	 2.3900
 4.8740	 2.4190
 4.8780	 2.4200
 4.8830	 2.4390
 4.8870	 2.4440
 4.8920	 2.4570
 4.8970	 2.4610
 4.9010	 2.4680
 4.9060	 2.4500
 4.9100	 2.4420
 4.9150	 2.4550
 4.9200	 2.4450
 4.9240	 2.4240
 4.9290	 2.4610
 4.9340	 2.4760
 4.9390	 2.4630
 4.9430	 2.4650
 4.9480	 2.5110
 4.9530	 2.5100
 4.9570	 2.4670
 4.9620	 2.4710
 4.9670	 2.5280
 4.9720	 2.5640
 4.9760	 2.5740
 4.9810	 2.5320
 4.9860	 2.5200
 4.9910	 2.5460
 4.9960	 2.5720
 5.0000	 2.5560
 5.0050	 2.5770
 5.0100	 2.5720
 5.0150	 2.5660
 5.0200	 2.5380
 5.0250	 2.5700
 5.0300	 2.5570
 5.0340	 2.5760
 5.0390	 2.5930
 5.0440	 2.5980
 5.0490	 2.6190
 5.0540	 2.6300
 5.0590	 2.6410
 5.0640	 2.6750
 5.0690	 2.6620
 5.0740	 2.6680
 5.0790	 2.6630
 5.0840	 2.6300
 5.0890	 2.6510
 5.0940	 2.7030
 5.0990	 2.6940
 5.1040	 2.7010
 5.1090	 2.7400
 5.1140	 2.7560
 5.1190	 2.6970
 5.1240	 2.7110
 5.1290	 2.7430
 5.1340	 2.7600
 5.1390	 2.7470
 5.1440	 2.7230
 5.1490	 2.6930
 5.1550	 2.7520
 5.1600	 2.7940
 5.1650	 2.8390
 5.1700	 2.8530
 5.1750	 2.8910
 5.1800	 2.8680
 5.1850	 2.8500
 5.1910	 2.8380
 5.1960	 2.8040
 5.2010	 2.7300
 5.2060	 2.7810
 5.2110	 2.7340
 5.2170	 2.7360
 5.2220	 2.8160
 5.2270	 2.8550
 5.2330	 2.8550
 5.2380	 2.8160
 5.2430	 2.7900
 5.2480	 2.8540
 5.2540	 2.8720
 5.2590	 2.8950
 5.2640	 2.9170
 5.2700	 2.8640
 5.2750	 2.8170
 5.2800	 2.8700
 5.2860	 2.8680
 5.2910	 2.8130
 5.2970	 2.8470
 5.3020	 2.8640
 5.3080	 2.8440
 5.3130	 2.8980
 5.3180	 2.8910
 5.3240	 2.9180
 5.3290	 2.8930
 5.3350	 2.8750
 5.3400	 2.8660
 5.3460	 2.7440
 5.3510	 2.5710
 5.3570	 2.6950
 5.3620	 2.7940
 5.3680	 2.8100
 5.3740	 2.7770
 5.3790	 2.7740
 5.3850	 2.7510
 5.3900	 2.8130
 5.3960	 2.8460
 5.4010	 2.8230
 5.4070	 2.7640
 5.4130	 2.7410
 5.4180	 2.5520
 5.4240	 2.4320
 5.4300	 2.6220
 5.4350	 2.7330
 5.4410	 2.6440
 5.4470	 2.6250
 5.4530	 2.6630
 5.4580	 2.6220
 5.4640	 2.4280
 5.4700	 2.4710
 5.4760	 2.5020
 5.4810	 2.4880
