Name: Umbellularia californica 3
Type: vegetation
Class: Shrub
Genus: Umbellularia
Species: californica
Sample No.: VH030
Owner: UCSB
Wavelength Range: VSWIR
Origin: 34.5075; -119.763; WGS84
Collection Date: 4/1/2013
Description: Samples were collected as part of the HyspIRI Airborne Campaign. 48 individual plants were sampled in three times in 2013 - spring  summer  and fall. The name of the sample includes a 1  2  or 3 which references a different individual of the species. Samples were taken to JPL and processed within 48 hours of collection. The same leaves were processed in the Nicolet and then measured using the ASD.
Measurement: Bidirectional reflectance
First Column: X
Second Column: Y
X Units: Wavelength (micrometers)
Y Units: Reflectance (percentage)
First X Value: 0.35
Last X Value: 2.5
Number of X Values: 2151
Additional Information: vegetation.shrub.umbellularia.californica.vswir.vh030.ucsb.asd.ancillary.txt

 0.3500	 5.1930
 0.3510	 5.7780
 0.3520	 5.8580
 0.3530	 5.5830
 0.3540	 5.3620
 0.3550	 5.4550
 0.3560	 5.5220
 0.3570	 5.5010
 0.3580	 5.4900
 0.3590	 5.5710
 0.3600	 5.5500
 0.3610	 5.4270
 0.3620	 5.5130
 0.3630	 5.4830
 0.3640	 5.4430
 0.3650	 5.5210
 0.3660	 5.4850
 0.3670	 5.5320
 0.3680	 5.6060
 0.3690	 5.5050
 0.3700	 5.4850
 0.3710	 5.5360
 0.3720	 5.5820
 0.3730	 5.4950
 0.3740	 5.4590
 0.3750	 5.5090
 0.3760	 5.5860
 0.3770	 5.4730
 0.3780	 5.3840
 0.3790	 5.3810
 0.3800	 5.3780
 0.3810	 5.4240
 0.3820	 5.3970
 0.3830	 5.2840
 0.3840	 5.3800
 0.3850	 5.4100
 0.3860	 5.3540
 0.3870	 5.2930
 0.3880	 5.3380
 0.3890	 5.3910
 0.3900	 5.3840
 0.3910	 5.3080
 0.3920	 5.3510
 0.3930	 5.3760
 0.3940	 5.2960
 0.3950	 5.3400
 0.3960	 5.4350
 0.3970	 5.4860
 0.3980	 5.4110
 0.3990	 5.3370
 0.4000	 5.3110
 0.4010	 5.3270
 0.4020	 5.3280
 0.4030	 5.3020
 0.4040	 5.3120
 0.4050	 5.3870
 0.4060	 5.4100
 0.4070	 5.4060
 0.4080	 5.3850
 0.4090	 5.3470
 0.4100	 5.3580
 0.4110	 5.3810
 0.4120	 5.3880
 0.4130	 5.4010
 0.4140	 5.4220
 0.4150	 5.4250
 0.4160	 5.3990
 0.4170	 5.4370
 0.4180	 5.4840
 0.4190	 5.5030
 0.4200	 5.4860
 0.4210	 5.5050
 0.4220	 5.5420
 0.4230	 5.5730
 0.4240	 5.6100
 0.4250	 5.6360
 0.4260	 5.6600
 0.4270	 5.6950
 0.4280	 5.7090
 0.4290	 5.7240
 0.4300	 5.7570
 0.4310	 5.8050
 0.4320	 5.8340
 0.4330	 5.8490
 0.4340	 5.8670
 0.4350	 5.8980
 0.4360	 5.9110
 0.4370	 5.9170
 0.4380	 5.9520
 0.4390	 5.9790
 0.4400	 5.9950
 0.4410	 6.0030
 0.4420	 6.0120
 0.4430	 6.0300
 0.4440	 6.0510
 0.4450	 6.0660
 0.4460	 6.0840
 0.4470	 6.1000
 0.4480	 6.1120
 0.4490	 6.1250
 0.4500	 6.1290
 0.4510	 6.1350
 0.4520	 6.1550
 0.4530	 6.1740
 0.4540	 6.1850
 0.4550	 6.1910
 0.4560	 6.2020
 0.4570	 6.2150
 0.4580	 6.2220
 0.4590	 6.2220
 0.4600	 6.2300
 0.4610	 6.2400
 0.4620	 6.2480
 0.4630	 6.2510
 0.4640	 6.2450
 0.4650	 6.2530
 0.4660	 6.2700
 0.4670	 6.2640
 0.4680	 6.2740
 0.4690	 6.2780
 0.4700	 6.2630
 0.4710	 6.2740
 0.4720	 6.2770
 0.4730	 6.2680
 0.4740	 6.2590
 0.4750	 6.2610
 0.4760	 6.2610
 0.4770	 6.2550
 0.4780	 6.2580
 0.4790	 6.2690
 0.4800	 6.2790
 0.4810	 6.2800
 0.4820	 6.2760
 0.4830	 6.2770
 0.4840	 6.2820
 0.4850	 6.2800
 0.4860	 6.2890
 0.4870	 6.3050
 0.4880	 6.3210
 0.4890	 6.3400
 0.4900	 6.3480
 0.4910	 6.3530
 0.4920	 6.3670
 0.4930	 6.3850
 0.4940	 6.4110
 0.4950	 6.4410
 0.4960	 6.4650
 0.4970	 6.4830
 0.4980	 6.5070
 0.4990	 6.5410
 0.5000	 6.5760
 0.5010	 6.6110
 0.5020	 6.6480
 0.5030	 6.6930
 0.5040	 6.7440
 0.5050	 6.8020
 0.5060	 6.8650
 0.5070	 6.9260
 0.5080	 6.9920
 0.5090	 7.0670
 0.5100	 7.1520
 0.5110	 7.2600
 0.5120	 7.3720
 0.5130	 7.4790
 0.5140	 7.5940
 0.5150	 7.7280
 0.5160	 7.8730
 0.5170	 8.0200
 0.5180	 8.1910
 0.5190	 8.3660
 0.5200	 8.5450
 0.5210	 8.7440
 0.5220	 8.9430
 0.5230	 9.1420
 0.5240	 9.3430
 0.5250	 9.5510
 0.5260	 9.7560
 0.5270	 9.9560
 0.5280	10.1550
 0.5290	10.3560
 0.5300	10.5540
 0.5310	10.7450
 0.5320	10.9210
 0.5330	11.0900
 0.5340	11.2560
 0.5350	11.4210
 0.5360	11.5750
 0.5370	11.7180
 0.5380	11.8520
 0.5390	11.9810
 0.5400	12.1120
 0.5410	12.2370
 0.5420	12.3530
 0.5430	12.4630
 0.5440	12.5750
 0.5450	12.6790
 0.5460	12.7640
 0.5470	12.8380
 0.5480	12.9090
 0.5490	12.9780
 0.5500	13.0390
 0.5510	13.0820
 0.5520	13.1120
 0.5530	13.1350
 0.5540	13.1420
 0.5550	13.1310
 0.5560	13.1030
 0.5570	13.0610
 0.5580	13.0040
 0.5590	12.9350
 0.5600	12.8560
 0.5610	12.7620
 0.5620	12.6640
 0.5630	12.5610
 0.5640	12.4500
 0.5650	12.3230
 0.5660	12.1830
 0.5670	12.0390
 0.5680	11.9000
 0.5690	11.7480
 0.5700	11.5950
 0.5710	11.4480
 0.5720	11.2970
 0.5730	11.1560
 0.5740	11.0240
 0.5750	10.8970
 0.5760	10.7740
 0.5770	10.6570
 0.5780	10.5460
 0.5790	10.4480
 0.5800	10.3560
 0.5810	10.2700
 0.5820	10.1920
 0.5830	10.1240
 0.5840	10.0590
 0.5850	 9.9950
 0.5860	 9.9310
 0.5870	 9.8770
 0.5880	 9.8300
 0.5890	 9.7890
 0.5900	 9.7550
 0.5910	 9.7190
 0.5920	 9.6800
 0.5930	 9.6450
 0.5940	 9.6080
 0.5950	 9.5760
 0.5960	 9.5510
 0.5970	 9.5240
 0.5980	 9.4950
 0.5990	 9.4640
 0.6000	 9.4310
 0.6010	 9.3880
 0.6020	 9.3450
 0.6030	 9.3010
 0.6040	 9.2420
 0.6050	 9.1860
 0.6060	 9.1290
 0.6070	 9.0630
 0.6080	 8.9910
 0.6090	 8.9260
 0.6100	 8.8630
 0.6110	 8.7910
 0.6120	 8.7150
 0.6130	 8.6390
 0.6140	 8.5670
 0.6150	 8.5000
 0.6160	 8.4360
 0.6170	 8.3730
 0.6180	 8.3130
 0.6190	 8.2630
 0.6200	 8.2180
 0.6210	 8.1770
 0.6220	 8.1480
 0.6230	 8.1210
 0.6240	 8.0920
 0.6250	 8.0640
 0.6260	 8.0470
 0.6270	 8.0360
 0.6280	 8.0260
 0.6290	 8.0140
 0.6300	 8.0060
 0.6310	 7.9960
 0.6320	 7.9850
 0.6330	 7.9710
 0.6340	 7.9550
 0.6350	 7.9310
 0.6360	 7.8980
 0.6370	 7.8620
 0.6380	 7.8160
 0.6390	 7.7630
 0.6400	 7.7050
 0.6410	 7.6460
 0.6420	 7.5840
 0.6430	 7.5200
 0.6440	 7.4490
 0.6450	 7.3790
 0.6460	 7.3130
 0.6470	 7.2540
 0.6480	 7.1960
 0.6490	 7.1430
 0.6500	 7.0980
 0.6510	 7.0570
 0.6520	 7.0170
 0.6530	 6.9760
 0.6540	 6.9360
 0.6550	 6.9000
 0.6560	 6.8610
 0.6570	 6.8190
 0.6580	 6.7720
 0.6590	 6.7200
 0.6600	 6.6700
 0.6610	 6.6230
 0.6620	 6.5760
 0.6630	 6.5290
 0.6640	 6.4850
 0.6650	 6.4500
 0.6660	 6.4200
 0.6670	 6.3920
 0.6680	 6.3680
 0.6690	 6.3500
 0.6700	 6.3380
 0.6710	 6.3300
 0.6720	 6.3240
 0.6730	 6.3190
 0.6740	 6.3240
 0.6750	 6.3340
 0.6760	 6.3430
 0.6770	 6.3530
 0.6780	 6.3690
 0.6790	 6.3910
 0.6800	 6.4140
 0.6810	 6.4420
 0.6820	 6.4780
 0.6830	 6.5230
 0.6840	 6.5790
 0.6850	 6.6510
 0.6860	 6.7410
 0.6870	 6.8530
 0.6880	 6.9900
 0.6890	 7.1610
 0.6900	 7.3740
 0.6910	 7.6350
 0.6920	 7.9540
 0.6930	 8.3360
 0.6940	 8.7840
 0.6950	 9.2990
 0.6960	 9.8930
 0.6970	10.5630
 0.6980	11.3050
 0.6990	12.1140
 0.7000	12.9870
 0.7010	13.9170
 0.7020	14.8950
 0.7030	15.9110
 0.7040	16.9590
 0.7050	18.0280
 0.7060	19.1050
 0.7070	20.1970
 0.7080	21.2960
 0.7090	22.3950
 0.7100	23.4970
 0.7110	24.5930
 0.7120	25.6810
 0.7130	26.7630
 0.7140	27.8370
 0.7150	28.8990
 0.7160	29.9450
 0.7170	30.9730
 0.7180	31.9920
 0.7190	32.9940
 0.7200	33.9720
 0.7210	34.9370
 0.7220	35.8780
 0.7230	36.7920
 0.7240	37.6860
 0.7250	38.5530
 0.7260	39.3940
 0.7270	40.2100
 0.7280	40.9890
 0.7290	41.7360
 0.7300	42.4580
 0.7310	43.1570
 0.7320	43.8220
 0.7330	44.4530
 0.7340	45.0550
 0.7350	45.6380
 0.7360	46.1890
 0.7370	46.7110
 0.7380	47.2080
 0.7390	47.6760
 0.7400	48.1230
 0.7410	48.5450
 0.7420	48.9370
 0.7430	49.3150
 0.7440	49.6670
 0.7450	49.9920
 0.7460	50.3020
 0.7470	50.5840
 0.7480	50.8460
 0.7490	51.0980
 0.7500	51.3310
 0.7510	51.5440
 0.7520	51.7390
 0.7530	51.9190
 0.7540	52.0840
 0.7550	52.2350
 0.7560	52.3740
 0.7570	52.4990
 0.7580	52.6160
 0.7590	52.7240
 0.7600	52.8240
 0.7610	52.9150
 0.7620	52.9970
 0.7630	53.0740
 0.7640	53.1490
 0.7650	53.2100
 0.7660	53.2610
 0.7670	53.3080
 0.7680	53.3570
 0.7690	53.4020
 0.7700	53.4410
 0.7710	53.4740
 0.7720	53.5100
 0.7730	53.5410
 0.7740	53.5690
 0.7750	53.5970
 0.7760	53.6310
 0.7770	53.6580
 0.7780	53.6790
 0.7790	53.7000
 0.7800	53.7190
 0.7810	53.7390
 0.7820	53.7600
 0.7830	53.7770
 0.7840	53.7890
 0.7850	53.8020
 0.7860	53.8210
 0.7870	53.8420
 0.7880	53.8500
 0.7890	53.8550
 0.7900	53.8720
 0.7910	53.8790
 0.7920	53.8900
 0.7930	53.9040
 0.7940	53.9120
 0.7950	53.9130
 0.7960	53.9180
 0.7970	53.9270
 0.7980	53.9270
 0.7990	53.9360
 0.8000	53.9430
 0.8010	53.9400
 0.8020	53.9390
 0.8030	53.9400
 0.8040	53.9400
 0.8050	53.9370
 0.8060	53.9340
 0.8070	53.9310
 0.8080	53.9260
 0.8090	53.9160
 0.8100	53.9150
 0.8110	53.9120
 0.8120	53.9030
 0.8130	53.9030
 0.8140	53.8950
 0.8150	53.8810
 0.8160	53.8680
 0.8170	53.8610
 0.8180	53.8520
 0.8190	53.8430
 0.8200	53.8390
 0.8210	53.8180
 0.8220	53.8040
 0.8230	53.8010
 0.8240	53.7960
 0.8250	53.7860
 0.8260	53.7700
 0.8270	53.7510
 0.8280	53.7430
 0.8290	53.7330
 0.8300	53.7170
 0.8310	53.6990
 0.8320	53.6860
 0.8330	53.6780
 0.8340	53.6690
 0.8350	53.6560
 0.8360	53.6490
 0.8370	53.6420
 0.8380	53.6330
 0.8390	53.6240
 0.8400	53.6140
 0.8410	53.6040
 0.8420	53.5990
 0.8430	53.5990
 0.8440	53.5940
 0.8450	53.5890
 0.8460	53.5860
 0.8470	53.5770
 0.8480	53.5760
 0.8490	53.5810
 0.8500	53.5830
 0.8510	53.5780
 0.8520	53.5720
 0.8530	53.5690
 0.8540	53.5650
 0.8550	53.5570
 0.8560	53.5600
 0.8570	53.5690
 0.8580	53.5650
 0.8590	53.5610
 0.8600	53.5560
 0.8610	53.5520
 0.8620	53.5580
 0.8630	53.5580
 0.8640	53.5550
 0.8650	53.5540
 0.8660	53.5630
 0.8670	53.5680
 0.8680	53.5680
 0.8690	53.5690
 0.8700	53.5710
 0.8710	53.5650
 0.8720	53.5580
 0.8730	53.5630
 0.8740	53.5740
 0.8750	53.5800
 0.8760	53.5820
 0.8770	53.5850
 0.8780	53.5840
 0.8790	53.5800
 0.8800	53.5800
 0.8810	53.5890
 0.8820	53.6040
 0.8830	53.6130
 0.8840	53.6100
 0.8850	53.6060
 0.8860	53.6090
 0.8870	53.6190
 0.8880	53.6320
 0.8890	53.6320
 0.8900	53.6290
 0.8910	53.6300
 0.8920	53.6340
 0.8930	53.6330
 0.8940	53.6360
 0.8950	53.6410
 0.8960	53.6410
 0.8970	53.6430
 0.8980	53.6380
 0.8990	53.6310
 0.9000	53.6360
 0.9010	53.6370
 0.9020	53.6390
 0.9030	53.6450
 0.9040	53.6560
 0.9050	53.6500
 0.9060	53.6460
 0.9070	53.6520
 0.9080	53.6530
 0.9090	53.6560
 0.9100	53.6570
 0.9110	53.6560
 0.9120	53.6590
 0.9130	53.6560
 0.9140	53.6540
 0.9150	53.6570
 0.9160	53.6490
 0.9170	53.6470
 0.9180	53.6510
 0.9190	53.6540
 0.9200	53.6610
 0.9210	53.6600
 0.9220	53.6530
 0.9230	53.6480
 0.9240	53.6380
 0.9250	53.6290
 0.9260	53.6230
 0.9270	53.6160
 0.9280	53.6120
 0.9290	53.6000
 0.9300	53.5820
 0.9310	53.5710
 0.9320	53.5470
 0.9330	53.5280
 0.9340	53.5160
 0.9350	53.4900
 0.9360	53.4670
 0.9370	53.4440
 0.9380	53.4230
 0.9390	53.4120
 0.9400	53.4080
 0.9410	53.3890
 0.9420	53.3490
 0.9430	53.3230
 0.9440	53.2720
 0.9450	53.2250
 0.9460	53.1980
 0.9470	53.1570
 0.9480	53.1060
 0.9490	53.0520
 0.9500	53.0010
 0.9510	52.9530
 0.9520	52.8870
 0.9530	52.8130
 0.9540	52.7430
 0.9550	52.6810
 0.9560	52.6100
 0.9570	52.5510
 0.9580	52.5170
 0.9590	52.4600
 0.9600	52.4060
 0.9610	52.3580
 0.9620	52.3100
 0.9630	52.2580
 0.9640	52.2270
 0.9650	52.2050
 0.9660	52.1730
 0.9670	52.1340
 0.9680	52.1100
 0.9690	52.1030
 0.9700	52.1010
 0.9710	52.0850
 0.9720	52.0590
 0.9730	52.0390
 0.9740	52.0400
 0.9750	52.0310
 0.9760	52.0140
 0.9770	52.0050
 0.9780	52.0140
 0.9790	51.9850
 0.9800	51.9870
 0.9810	52.0020
 0.9820	51.9870
 0.9830	52.0080
 0.9840	52.0230
 0.9850	52.0250
 0.9860	52.0270
 0.9870	52.0210
 0.9880	52.0270
 0.9890	52.0530
 0.9900	52.0890
 0.9910	52.0880
 0.9920	52.1060
 0.9930	52.1240
 0.9940	52.1420
 0.9950	52.1600
 0.9960	52.1780
 0.9970	52.1960
 0.9980	52.2140
 0.9990	52.2320
 1.0000	52.2500
 1.0010	52.2680
 1.0020	52.2860
 1.0030	52.3040
 1.0040	52.3220
 1.0050	52.3400
 1.0060	52.3580
 1.0070	52.3760
 1.0080	52.3940
 1.0090	52.4120
 1.0100	52.4120
 1.0110	52.4230
 1.0120	52.4390
 1.0130	52.4540
 1.0140	52.4720
 1.0150	52.4980
 1.0160	52.5210
 1.0170	52.5390
 1.0180	52.5540
 1.0190	52.5610
 1.0200	52.5680
 1.0210	52.5750
 1.0220	52.5830
 1.0230	52.5960
 1.0240	52.6150
 1.0250	52.6300
 1.0260	52.6470
 1.0270	52.6600
 1.0280	52.6680
 1.0290	52.6790
 1.0300	52.6910
 1.0310	52.7040
 1.0320	52.7230
 1.0330	52.7320
 1.0340	52.7400
 1.0350	52.7450
 1.0360	52.7490
 1.0370	52.7530
 1.0380	52.7620
 1.0390	52.7750
 1.0400	52.7880
 1.0410	52.8070
 1.0420	52.8180
 1.0430	52.8280
 1.0440	52.8350
 1.0450	52.8360
 1.0460	52.8410
 1.0470	52.8480
 1.0480	52.8530
 1.0490	52.8590
 1.0500	52.8620
 1.0510	52.8630
 1.0520	52.8650
 1.0530	52.8670
 1.0540	52.8680
 1.0550	52.8700
 1.0560	52.8740
 1.0570	52.8790
 1.0580	52.8870
 1.0590	52.8920
 1.0600	52.8990
 1.0610	52.9030
 1.0620	52.9040
 1.0630	52.9030
 1.0640	52.8990
 1.0650	52.8960
 1.0660	52.8900
 1.0670	52.8880
 1.0680	52.8890
 1.0690	52.8940
 1.0700	52.8930
 1.0710	52.8920
 1.0720	52.8900
 1.0730	52.8830
 1.0740	52.8810
 1.0750	52.8830
 1.0760	52.8820
 1.0770	52.8830
 1.0780	52.8810
 1.0790	52.8780
 1.0800	52.8760
 1.0810	52.8740
 1.0820	52.8680
 1.0830	52.8580
 1.0840	52.8530
 1.0850	52.8480
 1.0860	52.8440
 1.0870	52.8390
 1.0880	52.8400
 1.0890	52.8330
 1.0900	52.8190
 1.0910	52.8110
 1.0920	52.8050
 1.0930	52.7970
 1.0940	52.7950
 1.0950	52.7860
 1.0960	52.7740
 1.0970	52.7630
 1.0980	52.7510
 1.0990	52.7390
 1.1000	52.7290
 1.1010	52.7190
 1.1020	52.7080
 1.1030	52.7000
 1.1040	52.6870
 1.1050	52.6730
 1.1060	52.6580
 1.1070	52.6410
 1.1080	52.6240
 1.1090	52.6100
 1.1100	52.5930
 1.1110	52.5740
 1.1120	52.5570
 1.1130	52.5420
 1.1140	52.5220
 1.1150	52.5020
 1.1160	52.4780
 1.1170	52.4510
 1.1180	52.4230
 1.1190	52.3940
 1.1200	52.3600
 1.1210	52.3280
 1.1220	52.2910
 1.1230	52.2490
 1.1240	52.2060
 1.1250	52.1550
 1.1260	52.0970
 1.1270	52.0350
 1.1280	51.9680
 1.1290	51.8940
 1.1300	51.8160
 1.1310	51.7290
 1.1320	51.6340
 1.1330	51.5310
 1.1340	51.4180
 1.1350	51.3000
 1.1360	51.1730
 1.1370	51.0430
 1.1380	50.9060
 1.1390	50.7620
 1.1400	50.6120
 1.1410	50.4610
 1.1420	50.3060
 1.1430	50.1520
 1.1440	49.9980
 1.1450	49.8420
 1.1460	49.6930
 1.1470	49.5440
 1.1480	49.4030
 1.1490	49.2650
 1.1500	49.1390
 1.1510	49.0200
 1.1520	48.9080
 1.1530	48.8020
 1.1540	48.7040
 1.1550	48.6120
 1.1560	48.5280
 1.1570	48.4530
 1.1580	48.3870
 1.1590	48.3270
 1.1600	48.2720
 1.1610	48.2250
 1.1620	48.1850
 1.1630	48.1440
 1.1640	48.1080
 1.1650	48.0740
 1.1660	48.0400
 1.1670	48.0080
 1.1680	47.9800
 1.1690	47.9520
 1.1700	47.9250
 1.1710	47.8970
 1.1720	47.8700
 1.1730	47.8430
 1.1740	47.8190
 1.1750	47.7900
 1.1760	47.7620
 1.1770	47.7330
 1.1780	47.6990
 1.1790	47.6620
 1.1800	47.6250
 1.1810	47.5880
 1.1820	47.5550
 1.1830	47.5230
 1.1840	47.4920
 1.1850	47.4590
 1.1860	47.4240
 1.1870	47.3930
 1.1880	47.3650
 1.1890	47.3390
 1.1900	47.3170
 1.1910	47.3010
 1.1920	47.2860
 1.1930	47.2750
 1.1940	47.2670
 1.1950	47.2620
 1.1960	47.2590
 1.1970	47.2620
 1.1980	47.2660
 1.1990	47.2700
 1.2000	47.2780
 1.2010	47.2910
 1.2020	47.3030
 1.2030	47.3200
 1.2040	47.3380
 1.2050	47.3560
 1.2060	47.3780
 1.2070	47.4050
 1.2080	47.4330
 1.2090	47.4660
 1.2100	47.4990
 1.2110	47.5340
 1.2120	47.5710
 1.2130	47.6100
 1.2140	47.6520
 1.2150	47.6950
 1.2160	47.7390
 1.2170	47.7840
 1.2180	47.8310
 1.2190	47.8780
 1.2200	47.9250
 1.2210	47.9770
 1.2220	48.0270
 1.2230	48.0750
 1.2240	48.1240
 1.2250	48.1710
 1.2260	48.2160
 1.2270	48.2600
 1.2280	48.3010
 1.2290	48.3430
 1.2300	48.3840
 1.2310	48.4220
 1.2320	48.4580
 1.2330	48.4910
 1.2340	48.5230
 1.2350	48.5530
 1.2360	48.5810
 1.2370	48.6070
 1.2380	48.6350
 1.2390	48.6590
 1.2400	48.6840
 1.2410	48.7130
 1.2420	48.7390
 1.2430	48.7610
 1.2440	48.7840
 1.2450	48.8030
 1.2460	48.8210
 1.2470	48.8370
 1.2480	48.8510
 1.2490	48.8640
 1.2500	48.8740
 1.2510	48.8850
 1.2520	48.8960
 1.2530	48.9060
 1.2540	48.9190
 1.2550	48.9300
 1.2560	48.9390
 1.2570	48.9480
 1.2580	48.9520
 1.2590	48.9560
 1.2600	48.9570
 1.2610	48.9580
 1.2620	48.9570
 1.2630	48.9560
 1.2640	48.9560
 1.2650	48.9550
 1.2660	48.9510
 1.2670	48.9470
 1.2680	48.9410
 1.2690	48.9320
 1.2700	48.9240
 1.2710	48.9170
 1.2720	48.9070
 1.2730	48.8960
 1.2740	48.8840
 1.2750	48.8700
 1.2760	48.8520
 1.2770	48.8360
 1.2780	48.8180
 1.2790	48.8000
 1.2800	48.7820
 1.2810	48.7600
 1.2820	48.7380
 1.2830	48.7140
 1.2840	48.6880
 1.2850	48.6640
 1.2860	48.6400
 1.2870	48.6120
 1.2880	48.5840
 1.2890	48.5520
 1.2900	48.5180
 1.2910	48.4790
 1.2920	48.4420
 1.2930	48.4040
 1.2940	48.3630
 1.2950	48.3230
 1.2960	48.2800
 1.2970	48.2320
 1.2980	48.1820
 1.2990	48.1300
 1.3000	48.0750
 1.3010	48.0190
 1.3020	47.9590
 1.3030	47.8970
 1.3040	47.8320
 1.3050	47.7650
 1.3060	47.6980
 1.3070	47.6270
 1.3080	47.5490
 1.3090	47.4690
 1.3100	47.3910
 1.3110	47.3060
 1.3120	47.2220
 1.3130	47.1380
 1.3140	47.0470
 1.3150	46.9490
 1.3160	46.8520
 1.3170	46.7550
 1.3180	46.6490
 1.3190	46.5400
 1.3200	46.4280
 1.3210	46.3070
 1.3220	46.1830
 1.3230	46.0600
 1.3240	45.9320
 1.3250	45.8040
 1.3260	45.6750
 1.3270	45.5430
 1.3280	45.4080
 1.3290	45.2690
 1.3300	45.1300
 1.3310	44.9860
 1.3320	44.8380
 1.3330	44.6910
 1.3340	44.5400
 1.3350	44.3880
 1.3360	44.2380
 1.3370	44.0840
 1.3380	43.9310
 1.3390	43.7780
 1.3400	43.6230
 1.3410	43.4680
 1.3420	43.3160
 1.3430	43.1650
 1.3440	43.0120
 1.3450	42.8610
 1.3460	42.7120
 1.3470	42.5590
 1.3480	42.4040
 1.3490	42.2520
 1.3500	42.1000
 1.3510	41.9490
 1.3520	41.7990
 1.3530	41.6510
 1.3540	41.4990
 1.3550	41.3440
 1.3560	41.1900
 1.3570	41.0320
 1.3580	40.8760
 1.3590	40.7190
 1.3600	40.5590
 1.3610	40.3950
 1.3620	40.2240
 1.3630	40.0490
 1.3640	39.8690
 1.3650	39.6790
 1.3660	39.4820
 1.3670	39.2770
 1.3680	39.0590
 1.3690	38.8300
 1.3700	38.5860
 1.3710	38.3290
 1.3720	38.0580
 1.3730	37.7680
 1.3740	37.4640
 1.3750	37.1400
 1.3760	36.7920
 1.3770	36.4240
 1.3780	36.0290
 1.3790	35.6110
 1.3800	35.1680
 1.3810	34.7000
 1.3820	34.2130
 1.3830	33.7050
 1.3840	33.1780
 1.3850	32.6310
 1.3860	32.0700
 1.3870	31.4870
 1.3880	30.9020
 1.3890	30.3050
 1.3900	29.6970
 1.3910	29.0910
 1.3920	28.4800
 1.3930	27.8650
 1.3940	27.2550
 1.3950	26.6430
 1.3960	26.0400
 1.3970	25.4490
 1.3980	24.8680
 1.3990	24.3110
 1.4000	23.7710
 1.4010	23.2460
 1.4020	22.7430
 1.4030	22.2570
 1.4040	21.7930
 1.4050	21.3510
 1.4060	20.9330
 1.4070	20.5420
 1.4080	20.1730
 1.4090	19.8280
 1.4100	19.5090
 1.4110	19.2090
 1.4120	18.9300
 1.4130	18.6730
 1.4140	18.4360
 1.4150	18.2220
 1.4160	18.0270
 1.4170	17.8470
 1.4180	17.6840
 1.4190	17.5350
 1.4200	17.3990
 1.4210	17.2770
 1.4220	17.1680
 1.4230	17.0720
 1.4240	16.9860
 1.4250	16.9090
 1.4260	16.8420
 1.4270	16.7820
 1.4280	16.7290
 1.4290	16.6850
 1.4300	16.6500
 1.4310	16.6200
 1.4320	16.5980
 1.4330	16.5800
 1.4340	16.5670
 1.4350	16.5590
 1.4360	16.5560
 1.4370	16.5580
 1.4380	16.5630
 1.4390	16.5720
 1.4400	16.5860
 1.4410	16.6030
 1.4420	16.6220
 1.4430	16.6430
 1.4440	16.6660
 1.4450	16.6900
 1.4460	16.7150
 1.4470	16.7430
 1.4480	16.7710
 1.4490	16.8010
 1.4500	16.8330
 1.4510	16.8640
 1.4520	16.8960
 1.4530	16.9290
 1.4540	16.9660
 1.4550	17.0050
 1.4560	17.0460
 1.4570	17.0900
 1.4580	17.1360
 1.4590	17.1850
 1.4600	17.2390
 1.4610	17.2950
 1.4620	17.3580
 1.4630	17.4270
 1.4640	17.4990
 1.4650	17.5780
 1.4660	17.6620
 1.4670	17.7480
 1.4680	17.8400
 1.4690	17.9380
