Name: Ceanothus spinosus 1
Type: vegetation
Class: Shrub
Genus: Ceanothus
Species: spinosus
Sample No.: VH128
Owner: UCSB
Wavelength Range: VSWIR
Origin: 34.4906; -119.7908; WGS84
Collection Date: 6/3/2013
Description: Samples were collected as part of the HyspIRI Airborne Campaign. 48 individual plants were sampled in three times in 2013 - spring  summer  and fall. The name of the sample includes a 1  2  or 3 which references a different individual of the species. Samples were taken to JPL and processed within 48 hours of collection. The same leaves were processed in the Nicolet and then measured using the ASD.
Measurement: Bidirectional reflectance
First Column: X
Second Column: Y
X Units: Wavelength (micrometers)
Y Units: Reflectance (percentage)
First X Value: 0.35
Last X Value: 2.5
Number of X Values: 2151
Additional Information: vegetation.shrub.ceanothus.spinosus.vswir.vh128.ucsb.asd.ancillary.txt

 0.3500	 6.4430
 0.3510	 6.2670
 0.3520	 6.2390
 0.3530	 6.2550
 0.3540	 6.2100
 0.3550	 6.2840
 0.3560	 6.2960
 0.3570	 6.2530
 0.3580	 6.2430
 0.3590	 6.1640
 0.3600	 6.0660
 0.3610	 6.0250
 0.3620	 6.1350
 0.3630	 6.1450
 0.3640	 6.0480
 0.3650	 5.9240
 0.3660	 5.8850
 0.3670	 5.9230
 0.3680	 5.9880
 0.3690	 6.0080
 0.3700	 6.0340
 0.3710	 6.0280
 0.3720	 5.9920
 0.3730	 6.0130
 0.3740	 6.0700
 0.3750	 6.1110
 0.3760	 6.0820
 0.3770	 5.9410
 0.3780	 5.9030
 0.3790	 5.9440
 0.3800	 5.8540
 0.3810	 5.9010
 0.3820	 5.9530
 0.3830	 5.9080
 0.3840	 5.8740
 0.3850	 5.8110
 0.3860	 5.7910
 0.3870	 5.8790
 0.3880	 5.9030
 0.3890	 5.8570
 0.3900	 5.8090
 0.3910	 5.8750
 0.3920	 5.9370
 0.3930	 5.9400
 0.3940	 5.8810
 0.3950	 5.8460
 0.3960	 5.8220
 0.3970	 5.7920
 0.3980	 5.7510
 0.3990	 5.7910
 0.4000	 5.8560
 0.4010	 5.8810
 0.4020	 5.8070
 0.4030	 5.8000
 0.4040	 5.8340
 0.4050	 5.8470
 0.4060	 5.8300
 0.4070	 5.8260
 0.4080	 5.8480
 0.4090	 5.8820
 0.4100	 5.8660
 0.4110	 5.8490
 0.4120	 5.8640
 0.4130	 5.8930
 0.4140	 5.9100
 0.4150	 5.9240
 0.4160	 5.9510
 0.4170	 5.9660
 0.4180	 5.9800
 0.4190	 5.9990
 0.4200	 6.0230
 0.4210	 6.0480
 0.4220	 6.0680
 0.4230	 6.0840
 0.4240	 6.1140
 0.4250	 6.1400
 0.4260	 6.1580
 0.4270	 6.1720
 0.4280	 6.1810
 0.4290	 6.2020
 0.4300	 6.2310
 0.4310	 6.2360
 0.4320	 6.2480
 0.4330	 6.2690
 0.4340	 6.2900
 0.4350	 6.2920
 0.4360	 6.3060
 0.4370	 6.3320
 0.4380	 6.3400
 0.4390	 6.3410
 0.4400	 6.3470
 0.4410	 6.3610
 0.4420	 6.3750
 0.4430	 6.3830
 0.4440	 6.3930
 0.4450	 6.4170
 0.4460	 6.4310
 0.4470	 6.4310
 0.4480	 6.4310
 0.4490	 6.4650
 0.4500	 6.4880
 0.4510	 6.4910
 0.4520	 6.4820
 0.4530	 6.4900
 0.4540	 6.5070
 0.4550	 6.5230
 0.4560	 6.5280
 0.4570	 6.5370
 0.4580	 6.5520
 0.4590	 6.5640
 0.4600	 6.5590
 0.4610	 6.5620
 0.4620	 6.5680
 0.4630	 6.5660
 0.4640	 6.5670
 0.4650	 6.5780
 0.4660	 6.5910
 0.4670	 6.5890
 0.4680	 6.5840
 0.4690	 6.5820
 0.4700	 6.5850
 0.4710	 6.5850
 0.4720	 6.5810
 0.4730	 6.5770
 0.4740	 6.5780
 0.4750	 6.5810
 0.4760	 6.5830
 0.4770	 6.5830
 0.4780	 6.5860
 0.4790	 6.5860
 0.4800	 6.5870
 0.4810	 6.5930
 0.4820	 6.5960
 0.4830	 6.6050
 0.4840	 6.6180
 0.4850	 6.6240
 0.4860	 6.6300
 0.4870	 6.6360
 0.4880	 6.6470
 0.4890	 6.6680
 0.4900	 6.6860
 0.4910	 6.7050
 0.4920	 6.7310
 0.4930	 6.7570
 0.4940	 6.7730
 0.4950	 6.7870
 0.4960	 6.8260
 0.4970	 6.8650
 0.4980	 6.9000
 0.4990	 6.9360
 0.5000	 6.9760
 0.5010	 7.0210
 0.5020	 7.0700
 0.5030	 7.1220
 0.5040	 7.1810
 0.5050	 7.2510
 0.5060	 7.3320
 0.5070	 7.4080
 0.5080	 7.4920
 0.5090	 7.5890
 0.5100	 7.6970
 0.5110	 7.8090
 0.5120	 7.9290
 0.5130	 8.0610
 0.5140	 8.2030
 0.5150	 8.3550
 0.5160	 8.5170
 0.5170	 8.6890
 0.5180	 8.8790
 0.5190	 9.0720
 0.5200	 9.2640
 0.5210	 9.4680
 0.5220	 9.6730
 0.5230	 9.8780
 0.5240	10.0810
 0.5250	10.2810
 0.5260	10.4750
 0.5270	10.6620
 0.5280	10.8410
 0.5290	11.0030
 0.5300	11.1540
 0.5310	11.2980
 0.5320	11.4280
 0.5330	11.5460
 0.5340	11.6570
 0.5350	11.7580
 0.5360	11.8370
 0.5370	11.9110
 0.5380	11.9830
 0.5390	12.0450
 0.5400	12.1020
 0.5410	12.1570
 0.5420	12.2110
 0.5430	12.2630
 0.5440	12.3130
 0.5450	12.3570
 0.5460	12.3910
 0.5470	12.4230
 0.5480	12.4490
 0.5490	12.4700
 0.5500	12.4920
 0.5510	12.5050
 0.5520	12.5070
 0.5530	12.4980
 0.5540	12.4770
 0.5550	12.4410
 0.5560	12.3920
 0.5570	12.3360
 0.5580	12.2650
 0.5590	12.1830
 0.5600	12.0930
 0.5610	11.9950
 0.5620	11.8920
 0.5630	11.7840
 0.5640	11.6690
 0.5650	11.5480
 0.5660	11.4230
 0.5670	11.2940
 0.5680	11.1640
 0.5690	11.0270
 0.5700	10.8890
 0.5710	10.7550
 0.5720	10.6250
 0.5730	10.5010
 0.5740	10.3880
 0.5750	10.2910
 0.5760	10.2010
 0.5770	10.1170
 0.5780	10.0410
 0.5790	 9.9680
 0.5800	 9.8920
 0.5810	 9.8190
 0.5820	 9.7560
 0.5830	 9.6980
 0.5840	 9.6400
 0.5850	 9.5790
 0.5860	 9.5160
 0.5870	 9.4520
 0.5880	 9.3980
 0.5890	 9.3590
 0.5900	 9.3240
 0.5910	 9.2990
 0.5920	 9.2810
 0.5930	 9.2580
 0.5940	 9.2370
 0.5950	 9.2160
 0.5960	 9.1920
 0.5970	 9.1680
 0.5980	 9.1430
 0.5990	 9.1180
 0.6000	 9.0940
 0.6010	 9.0640
 0.6020	 9.0310
 0.6030	 8.9980
 0.6040	 8.9610
 0.6050	 8.9220
 0.6060	 8.8790
 0.6070	 8.8320
 0.6080	 8.7800
 0.6090	 8.7260
 0.6100	 8.6710
 0.6110	 8.6160
 0.6120	 8.5630
 0.6130	 8.5080
 0.6140	 8.4490
 0.6150	 8.3960
 0.6160	 8.3500
 0.6170	 8.3050
 0.6180	 8.2580
 0.6190	 8.2180
 0.6200	 8.1830
 0.6210	 8.1520
 0.6220	 8.1270
 0.6230	 8.1040
 0.6240	 8.0840
 0.6250	 8.0680
 0.6260	 8.0550
 0.6270	 8.0420
 0.6280	 8.0310
 0.6290	 8.0280
 0.6300	 8.0220
 0.6310	 8.0110
 0.6320	 7.9980
 0.6330	 7.9840
 0.6340	 7.9710
 0.6350	 7.9510
 0.6360	 7.9200
 0.6370	 7.8840
 0.6380	 7.8440
 0.6390	 7.8000
 0.6400	 7.7510
 0.6410	 7.6970
 0.6420	 7.6420
 0.6430	 7.5890
 0.6440	 7.5350
 0.6450	 7.4810
 0.6460	 7.4280
 0.6470	 7.3770
 0.6480	 7.3330
 0.6490	 7.2940
 0.6500	 7.2600
 0.6510	 7.2300
 0.6520	 7.2050
 0.6530	 7.1800
 0.6540	 7.1540
 0.6550	 7.1310
 0.6560	 7.1040
 0.6570	 7.0730
 0.6580	 7.0390
 0.6590	 7.0050
 0.6600	 6.9720
 0.6610	 6.9380
 0.6620	 6.9030
 0.6630	 6.8710
 0.6640	 6.8430
 0.6650	 6.8190
 0.6660	 6.8000
 0.6670	 6.7850
 0.6680	 6.7740
 0.6690	 6.7680
 0.6700	 6.7690
 0.6710	 6.7730
 0.6720	 6.7790
 0.6730	 6.7920
 0.6740	 6.8070
 0.6750	 6.8260
 0.6760	 6.8490
 0.6770	 6.8780
 0.6780	 6.9090
 0.6790	 6.9440
 0.6800	 6.9820
 0.6810	 7.0280
 0.6820	 7.0790
 0.6830	 7.1340
 0.6840	 7.1980
 0.6850	 7.2720
 0.6860	 7.3560
 0.6870	 7.4530
 0.6880	 7.5750
 0.6890	 7.7200
 0.6900	 7.8940
 0.6910	 8.1070
 0.6920	 8.3640
 0.6930	 8.6730
 0.6940	 9.0400
 0.6950	 9.4690
 0.6960	 9.9600
 0.6970	10.5170
 0.6980	11.1430
 0.6990	11.8290
 0.7000	12.5720
 0.7010	13.3670
 0.7020	14.2100
 0.7030	15.0930
 0.7040	16.0100
 0.7050	16.9540
 0.7060	17.9170
 0.7070	18.9000
 0.7080	19.8990
 0.7090	20.9080
 0.7100	21.9270
 0.7110	22.9540
 0.7120	23.9850
 0.7130	25.0190
 0.7140	26.0550
 0.7150	27.0930
 0.7160	28.1270
 0.7170	29.1530
 0.7180	30.1720
 0.7190	31.1820
 0.7200	32.1790
 0.7210	33.1610
 0.7220	34.1290
 0.7230	35.0810
 0.7240	36.0030
 0.7250	36.9020
 0.7260	37.7770
 0.7270	38.6220
 0.7280	39.4340
 0.7290	40.2180
 0.7300	40.9700
 0.7310	41.6870
 0.7320	42.3750
 0.7330	43.0320
 0.7340	43.6580
 0.7350	44.2470
 0.7360	44.8050
 0.7370	45.3340
 0.7380	45.8370
 0.7390	46.3080
 0.7400	46.7500
 0.7410	47.1660
 0.7420	47.5560
 0.7430	47.9160
 0.7440	48.2500
 0.7450	48.5600
 0.7460	48.8510
 0.7470	49.1190
 0.7480	49.3670
 0.7490	49.5950
 0.7500	49.8030
 0.7510	49.9910
 0.7520	50.1630
 0.7530	50.3240
 0.7540	50.4700
 0.7550	50.6010
 0.7560	50.7190
 0.7570	50.8310
 0.7580	50.9350
 0.7590	51.0280
 0.7600	51.1120
 0.7610	51.1920
 0.7620	51.2610
 0.7630	51.3230
 0.7640	51.3810
 0.7650	51.4350
 0.7660	51.4800
 0.7670	51.5220
 0.7680	51.5650
 0.7690	51.6010
 0.7700	51.6350
 0.7710	51.6700
 0.7720	51.7010
 0.7730	51.7310
 0.7740	51.7570
 0.7750	51.7780
 0.7760	51.8100
 0.7770	51.8350
 0.7780	51.8540
 0.7790	51.8760
 0.7800	51.8980
 0.7810	51.9230
 0.7820	51.9500
 0.7830	51.9700
 0.7840	51.9910
 0.7850	52.0120
 0.7860	52.0330
 0.7870	52.0510
 0.7880	52.0670
 0.7890	52.0840
 0.7900	52.1030
 0.7910	52.1230
 0.7920	52.1380
 0.7930	52.1500
 0.7940	52.1650
 0.7950	52.1780
 0.7960	52.1910
 0.7970	52.2030
 0.7980	52.2150
 0.7990	52.2250
 0.8000	52.2330
 0.8010	52.2400
 0.8020	52.2460
 0.8030	52.2510
 0.8040	52.2600
 0.8050	52.2730
 0.8060	52.2750
 0.8070	52.2750
 0.8080	52.2770
 0.8090	52.2810
 0.8100	52.2820
 0.8110	52.2820
 0.8120	52.2810
 0.8130	52.2820
 0.8140	52.2810
 0.8150	52.2810
 0.8160	52.2800
 0.8170	52.2740
 0.8180	52.2660
 0.8190	52.2600
 0.8200	52.2580
 0.8210	52.2560
 0.8220	52.2500
 0.8230	52.2430
 0.8240	52.2400
 0.8250	52.2360
 0.8260	52.2290
 0.8270	52.2210
 0.8280	52.2130
 0.8290	52.2070
 0.8300	52.1990
 0.8310	52.1880
 0.8320	52.1820
 0.8330	52.1720
 0.8340	52.1620
 0.8350	52.1570
 0.8360	52.1520
 0.8370	52.1510
 0.8380	52.1500
 0.8390	52.1410
 0.8400	52.1370
 0.8410	52.1340
 0.8420	52.1330
 0.8430	52.1330
 0.8440	52.1340
 0.8450	52.1360
 0.8460	52.1390
 0.8470	52.1360
 0.8480	52.1370
 0.8490	52.1400
 0.8500	52.1400
 0.8510	52.1420
 0.8520	52.1450
 0.8530	52.1490
 0.8540	52.1560
 0.8550	52.1560
 0.8560	52.1550
 0.8570	52.1550
 0.8580	52.1610
 0.8590	52.1670
 0.8600	52.1730
 0.8610	52.1770
 0.8620	52.1790
 0.8630	52.1870
 0.8640	52.1910
 0.8650	52.1870
 0.8660	52.1970
 0.8670	52.2070
 0.8680	52.2150
 0.8690	52.2200
 0.8700	52.2290
 0.8710	52.2350
 0.8720	52.2390
 0.8730	52.2450
 0.8740	52.2580
 0.8750	52.2680
 0.8760	52.2740
 0.8770	52.2820
 0.8780	52.2900
 0.8790	52.2970
 0.8800	52.3050
 0.8810	52.3120
 0.8820	52.3210
 0.8830	52.3320
 0.8840	52.3420
 0.8850	52.3450
 0.8860	52.3510
 0.8870	52.3610
 0.8880	52.3720
 0.8890	52.3810
 0.8900	52.3860
 0.8910	52.3890
 0.8920	52.3930
 0.8930	52.3990
 0.8940	52.4050
 0.8950	52.4100
 0.8960	52.4210
 0.8970	52.4310
 0.8980	52.4370
 0.8990	52.4400
 0.9000	52.4480
 0.9010	52.4670
 0.9020	52.4720
 0.9030	52.4640
 0.9040	52.4730
 0.9050	52.4770
 0.9060	52.4810
 0.9070	52.4900
 0.9080	52.4910
 0.9090	52.4930
 0.9100	52.5010
 0.9110	52.5130
 0.9120	52.5220
 0.9130	52.5270
 0.9140	52.5310
 0.9150	52.5370
 0.9160	52.5380
 0.9170	52.5400
 0.9180	52.5430
 0.9190	52.5480
 0.9200	52.5440
 0.9210	52.5470
 0.9220	52.5530
 0.9230	52.5470
 0.9240	52.5370
 0.9250	52.5230
 0.9260	52.5120
 0.9270	52.5070
 0.9280	52.4900
 0.9290	52.4790
 0.9300	52.4710
 0.9310	52.4510
 0.9320	52.4340
 0.9330	52.4170
 0.9340	52.3960
 0.9350	52.3670
 0.9360	52.3440
 0.9370	52.3230
 0.9380	52.3010
 0.9390	52.2800
 0.9400	52.2540
 0.9410	52.2240
 0.9420	52.1890
 0.9430	52.1380
 0.9440	52.1060
 0.9450	52.0720
 0.9460	52.0190
 0.9470	51.9760
 0.9480	51.9300
 0.9490	51.8740
 0.9500	51.8070
 0.9510	51.7440
 0.9520	51.6900
 0.9530	51.6270
 0.9540	51.5430
 0.9550	51.4580
 0.9560	51.3770
 0.9570	51.3040
 0.9580	51.2380
 0.9590	51.1710
 0.9600	51.1060
 0.9610	51.0460
 0.9620	50.9960
 0.9630	50.9480
 0.9640	50.9020
 0.9650	50.8610
 0.9660	50.8290
 0.9670	50.8010
 0.9680	50.7780
 0.9690	50.7570
 0.9700	50.7320
 0.9710	50.7040
 0.9720	50.6770
 0.9730	50.6530
 0.9740	50.6330
 0.9750	50.6230
 0.9760	50.6250
 0.9770	50.6330
 0.9780	50.6350
 0.9790	50.6050
 0.9800	50.5810
 0.9810	50.5750
 0.9820	50.5850
 0.9830	50.6070
 0.9840	50.6170
 0.9850	50.6230
 0.9860	50.6400
 0.9870	50.6580
 0.9880	50.6770
 0.9890	50.6870
 0.9900	50.6840
 0.9910	50.6990
 0.9920	50.7570
 0.9930	50.8150
 0.9940	50.8720
 0.9950	50.9300
 0.9960	50.9880
 0.9970	51.0460
 0.9980	51.1030
 0.9990	51.1610
 1.0000	51.2190
 1.0010	51.2760
 1.0020	51.3340
 1.0030	51.3920
 1.0040	51.4500
 1.0050	51.5070
 1.0060	51.5650
 1.0070	51.6230
 1.0080	51.6800
 1.0090	51.7380
 1.0100	51.7380
 1.0110	51.7650
 1.0120	51.7910
 1.0130	51.8100
 1.0140	51.8360
 1.0150	51.8680
 1.0160	51.8930
 1.0170	51.9170
 1.0180	51.9460
 1.0190	51.9730
 1.0200	52.0000
 1.0210	52.0280
 1.0220	52.0500
 1.0230	52.0720
 1.0240	52.0880
 1.0250	52.1110
 1.0260	52.1390
 1.0270	52.1620
 1.0280	52.1870
 1.0290	52.2080
 1.0300	52.2180
 1.0310	52.2380
 1.0320	52.2640
 1.0330	52.2890
 1.0340	52.3060
 1.0350	52.3290
 1.0360	52.3460
 1.0370	52.3570
 1.0380	52.3740
 1.0390	52.3970
 1.0400	52.4160
 1.0410	52.4350
 1.0420	52.4510
 1.0430	52.4650
 1.0440	52.4820
 1.0450	52.5000
 1.0460	52.5130
 1.0470	52.5220
 1.0480	52.5350
 1.0490	52.5450
 1.0500	52.5560
 1.0510	52.5690
 1.0520	52.5840
 1.0530	52.5970
 1.0540	52.6080
 1.0550	52.6190
 1.0560	52.6330
 1.0570	52.6430
 1.0580	52.6490
 1.0590	52.6590
 1.0600	52.6710
 1.0610	52.6800
 1.0620	52.6920
 1.0630	52.6990
 1.0640	52.7000
 1.0650	52.7030
 1.0660	52.7060
 1.0670	52.7090
 1.0680	52.7130
 1.0690	52.7170
 1.0700	52.7220
 1.0710	52.7250
 1.0720	52.7300
 1.0730	52.7390
 1.0740	52.7430
 1.0750	52.7460
 1.0760	52.7460
 1.0770	52.7420
 1.0780	52.7390
 1.0790	52.7330
 1.0800	52.7300
 1.0810	52.7240
 1.0820	52.7220
 1.0830	52.7270
 1.0840	52.7250
 1.0850	52.7180
 1.0860	52.7150
 1.0870	52.7080
 1.0880	52.6930
 1.0890	52.6870
 1.0900	52.6870
 1.0910	52.6810
 1.0920	52.6770
 1.0930	52.6700
 1.0940	52.6580
 1.0950	52.6470
 1.0960	52.6370
 1.0970	52.6260
 1.0980	52.6160
 1.0990	52.6050
 1.1000	52.5930
 1.1010	52.5810
 1.1020	52.5690
 1.1030	52.5540
 1.1040	52.5390
 1.1050	52.5230
 1.1060	52.5070
 1.1070	52.4900
 1.1080	52.4740
 1.1090	52.4620
 1.1100	52.4430
 1.1110	52.4210
 1.1120	52.3980
 1.1130	52.3680
 1.1140	52.3420
 1.1150	52.3180
 1.1160	52.2880
 1.1170	52.2560
 1.1180	52.2230
 1.1190	52.1870
 1.1200	52.1450
 1.1210	52.1090
 1.1220	52.0670
 1.1230	52.0180
 1.1240	51.9690
 1.1250	51.9130
 1.1260	51.8520
 1.1270	51.7840
 1.1280	51.7100
 1.1290	51.6300
 1.1300	51.5440
 1.1310	51.4510
 1.1320	51.3530
 1.1330	51.2480
 1.1340	51.1380
 1.1350	51.0190
 1.1360	50.8950
 1.1370	50.7610
 1.1380	50.6200
 1.1390	50.4750
 1.1400	50.3220
 1.1410	50.1660
 1.1420	50.0080
 1.1430	49.8460
 1.1440	49.6830
 1.1450	49.5170
 1.1460	49.3550
 1.1470	49.1910
 1.1480	49.0340
 1.1490	48.8780
 1.1500	48.7330
 1.1510	48.5900
 1.1520	48.4590
 1.1530	48.3380
 1.1540	48.2240
 1.1550	48.1170
 1.1560	48.0210
 1.1570	47.9290
 1.1580	47.8470
 1.1590	47.7750
 1.1600	47.7080
 1.1610	47.6520
 1.1620	47.6050
 1.1630	47.5640
 1.1640	47.5280
 1.1650	47.4970
 1.1660	47.4740
 1.1670	47.4530
 1.1680	47.4370
 1.1690	47.4230
 1.1700	47.4130
 1.1710	47.4030
 1.1720	47.3940
 1.1730	47.3840
 1.1740	47.3760
 1.1750	47.3660
 1.1760	47.3560
 1.1770	47.3440
 1.1780	47.3290
 1.1790	47.3170
 1.1800	47.3060
 1.1810	47.2940
 1.1820	47.2810
 1.1830	47.2680
 1.1840	47.2550
 1.1850	47.2420
 1.1860	47.2290
 1.1870	47.2170
 1.1880	47.2070
 1.1890	47.1960
 1.1900	47.1880
 1.1910	47.1840
 1.1920	47.1810
 1.1930	47.1790
 1.1940	47.1790
 1.1950	47.1810
 1.1960	47.1840
 1.1970	47.1860
 1.1980	47.1900
 1.1990	47.1970
 1.2000	47.2050
 1.2010	47.2150
 1.2020	47.2310
 1.2030	47.2460
 1.2040	47.2610
 1.2050	47.2760
 1.2060	47.2900
 1.2070	47.3060
 1.2080	47.3220
 1.2090	47.3440
 1.2100	47.3690
 1.2110	47.3930
 1.2120	47.4210
 1.2130	47.4470
 1.2140	47.4740
 1.2150	47.5010
 1.2160	47.5290
 1.2170	47.5570
 1.2180	47.5880
 1.2190	47.6200
 1.2200	47.6510
 1.2210	47.6800
 1.2220	47.7080
 1.2230	47.7350
 1.2240	47.7620
 1.2250	47.7920
 1.2260	47.8200
 1.2270	47.8450
 1.2280	47.8710
 1.2290	47.8990
 1.2300	47.9250
 1.2310	47.9520
 1.2320	47.9740
 1.2330	47.9950
 1.2340	48.0160
 1.2350	48.0370
 1.2360	48.0570
 1.2370	48.0780
 1.2380	48.1010
 1.2390	48.1200
 1.2400	48.1390
 1.2410	48.1590
 1.2420	48.1770
 1.2430	48.1920
 1.2440	48.2090
 1.2450	48.2280
 1.2460	48.2430
 1.2470	48.2570
 1.2480	48.2720
 1.2490	48.2830
 1.2500	48.2930
 1.2510	48.3050
 1.2520	48.3150
 1.2530	48.3250
 1.2540	48.3330
 1.2550	48.3380
 1.2560	48.3450
 1.2570	48.3510
 1.2580	48.3560
 1.2590	48.3600
 1.2600	48.3640
 1.2610	48.3650
 1.2620	48.3650
 1.2630	48.3650
 1.2640	48.3630
 1.2650	48.3610
 1.2660	48.3590
 1.2670	48.3540
 1.2680	48.3490
 1.2690	48.3470
 1.2700	48.3400
 1.2710	48.3340
 1.2720	48.3270
 1.2730	48.3140
 1.2740	48.3010
 1.2750	48.2880
 1.2760	48.2720
 1.2770	48.2560
 1.2780	48.2390
 1.2790	48.2190
 1.2800	48.2000
 1.2810	48.1810
 1.2820	48.1580
 1.2830	48.1360
 1.2840	48.1150
 1.2850	48.0890
 1.2860	48.0610
 1.2870	48.0310
 1.2880	47.9980
 1.2890	47.9620
 1.2900	47.9240
 1.2910	47.8870
 1.2920	47.8490
 1.2930	47.8070
 1.2940	47.7630
 1.2950	47.7170
 1.2960	47.6680
 1.2970	47.6150
 1.2980	47.5600
 1.2990	47.5010
 1.3000	47.4400
 1.3010	47.3770
 1.3020	47.3120
 1.3030	47.2430
 1.3040	47.1710
 1.3050	47.0980
 1.3060	47.0200
 1.3070	46.9380
 1.3080	46.8550
 1.3090	46.7670
 1.3100	46.6740
 1.3110	46.5830
 1.3120	46.4840
 1.3130	46.3800
 1.3140	46.2740
 1.3150	46.1640
 1.3160	46.0510
 1.3170	45.9350
 1.3180	45.8170
 1.3190	45.6940
 1.3200	45.5680
 1.3210	45.4380
 1.3220	45.3030
 1.3230	45.1680
 1.3240	45.0240
 1.3250	44.8790
 1.3260	44.7320
 1.3270	44.5800
 1.3280	44.4290
 1.3290	44.2730
 1.3300	44.1130
 1.3310	43.9500
 1.3320	43.7840
 1.3330	43.6190
 1.3340	43.4500
 1.3350	43.2810
 1.3360	43.1120
 1.3370	42.9390
 1.3380	42.7680
 1.3390	42.5970
 1.3400	42.4260
 1.3410	42.2580
 1.3420	42.0900
 1.3430	41.9230
 1.3440	41.7570
 1.3450	41.5920
 1.3460	41.4250
 1.3470	41.2610
 1.3480	41.0990
 1.3490	40.9390
 1.3500	40.7810
 1.3510	40.6240
 1.3520	40.4660
 1.3530	40.3100
 1.3540	40.1540
 1.3550	40.0000
 1.3560	39.8460
 1.3570	39.6910
 1.3580	39.5360
 1.3590	39.3790
 1.3600	39.2200
 1.3610	39.0570
 1.3620	38.8890
 1.3630	38.7190
 1.3640	38.5450
 1.3650	38.3640
 1.3660	38.1770
 1.3670	37.9800
 1.3680	37.7710
 1.3690	37.5520
 1.3700	37.3180
 1.3710	37.0730
 1.3720	36.8160
 1.3730	36.5400
 1.3740	36.2480
 1.3750	35.9360
 1.3760	35.6020
 1.3770	35.2480
 1.3780	34.8670
 1.3790	34.4640
 1.3800	34.0410
 1.3810	33.5920
 1.3820	33.1260
 1.3830	32.6410
 1.3840	32.1380
 1.3850	31.6140
 1.3860	31.0770
 1.3870	30.5190
 1.3880	29.9570
 1.3890	29.3820
 1.3900	28.7980
 1.3910	28.2130
 1.3920	27.6230
 1.3930	27.0290
 1.3940	26.4380
 1.3950	25.8450
 1.3960	25.2600
 1.3970	24.6860
 1.3980	24.1230
 1.3990	23.5800
 1.4000	23.0510
 1.4010	22.5360
 1.4020	22.0410
 1.4030	21.5620
 1.4040	21.1050
 1.4050	20.6710
 1.4060	20.2580
 1.4070	19.8700
 1.4080	19.5030
 1.4090	19.1570
 1.4100	18.8340
 1.4110	18.5300
 1.4120	18.2470
 1.4130	17.9840
 1.4140	17.7390
 1.4150	17.5160
 1.4160	17.3100
 1.4170	17.1180
 1.4180	16.9440
 1.4190	16.7830
 1.4200	16.6370
 1.4210	16.5040
 1.4220	16.3840
 1.4230	16.2750
 1.4240	16.1780
 1.4250	16.0880
 1.4260	16.0090
 1.4270	15.9370
 1.4280	15.8750
 1.4290	15.8200
 1.4300	15.7730
 1.4310	15.7320
 1.4320	15.6990
 1.4330	15.6700
 1.4340	15.6470
 1.4350	15.6280
 1.4360	15.6150
 1.4370	15.6050
 1.4380	15.5990
 1.4390	15.5980
 1.4400	15.5990
 1.4410	15.6040
 1.4420	15.6110
 1.4430	15.6220
 1.4440	15.6340
 1.4450	15.6490
 1.4460	15.6650
 1.4470	15.6830
 1.4480	15.7020
 1.4490	15.7240
 1.4500	15.7460
 1.4510	15.7700
 1.4520	15.7940
 1.4530	15.8180
 1.4540	15.8440
 1.4550	15.8710
 1.4560	15.9010
 1.4570	15.9340
 1.4580	15.9680
 1.4590	16.0040
 1.4600	16.0430
 1.4610	16.0850
 1.4620	16.1300
 1.4630	16.1790
 1.4640	16.2320
 1.4650	16.2900
 1.4660	16.3530
 1.4670	16.4180
 1.4680	16.4880
 1.4690	16.5630
 1.4700	16.6410
