Name: Cedrus atlantica 'glauca'
Type: vegetation
Class: Tree
Genus: Cedrus
Species: atlantica_glauca
Sample No.: JPL177
Owner: JPL
Wavelength Range: TIR
Origin: 34.12899; -118.11297; WGS84
Collection Date: 10/3/2016
Description: Samples were collected at the Huntington Garden in San Marino California as part of a JPL Subcontract studying HyTES imagery. Samples were taken to JPL and processed within 48 hours of collection. The same leaves were processed in the Nicolet and then measured using the ASD.
Measurement: Hemispherical reflectance
First Column: X
Second Column: Y
X Units: Wavelength (micrometer)
Y Units: Reflectance (percentage)
First X Value: 2.501
Last X Value: 15.387
Number of X Values: 1737
Additional Information: vegetation.tree.cedrus.atlantica_glauca.tir.jpl177.jpl.nicolet.ancillary.txt

 2.5010	 6.1020
 2.5030	 6.0940
 2.5040	 6.1330
 2.5050	 6.1660
 2.5060	 6.1710
 2.5070	 6.1050
 2.5090	 6.0240
 2.5100	 5.9970
 2.5110	 6.0820
 2.5120	 6.0760
 2.5140	 6.0810
 2.5150	 6.0930
 2.5160	 6.1120
 2.5170	 6.0900
 2.5180	 6.0580
 2.5200	 5.9810
 2.5210	 6.0250
 2.5220	 6.0590
 2.5230	 6.0960
 2.5250	 6.0340
 2.5260	 6.0440
 2.5270	 6.1230
 2.5280	 6.1360
 2.5300	 6.0620
 2.5310	 6.0750
 2.5320	 6.0850
 2.5330	 6.1420
 2.5340	 6.1340
 2.5360	 6.1940
 2.5370	 6.1720
 2.5380	 6.1240
 2.5390	 6.0320
 2.5410	 6.1070
 2.5420	 6.1140
 2.5430	 6.1240
 2.5440	 6.0960
 2.5460	 6.1050
 2.5470	 6.0830
 2.5480	 6.1260
 2.5490	 6.1130
 2.5510	 6.0770
 2.5520	 6.0400
 2.5530	 6.1530
 2.5540	 6.2040
 2.5560	 6.1670
 2.5570	 6.0670
 2.5580	 6.0430
 2.5590	 6.0730
 2.5610	 6.1920
 2.5620	 6.2010
 2.5630	 6.2370
 2.5650	 6.2310
 2.5660	 6.1480
 2.5670	 6.1030
 2.5680	 6.1750
 2.5700	 6.2340
 2.5710	 6.1960
 2.5720	 6.1590
 2.5730	 6.2790
 2.5750	 6.2370
 2.5760	 6.2330
 2.5770	 6.2570
 2.5790	 6.2200
 2.5800	 6.1140
 2.5810	 6.1270
 2.5820	 6.1890
 2.5840	 6.2990
 2.5850	 6.2600
 2.5860	 6.2140
 2.5880	 6.1600
 2.5890	 6.1530
 2.5900	 6.1600
 2.5910	 6.1800
 2.5930	 6.1820
 2.5940	 6.4140
 2.5950	 6.6230
 2.5970	 6.4310
 2.5980	 6.1560
 2.5990	 6.0740
 2.6010	 6.0330
 2.6020	 6.0880
 2.6030	 6.1420
 2.6040	 6.2080
 2.6060	 6.2820
 2.6070	 6.2420
 2.6080	 6.1130
 2.6100	 6.1440
 2.6110	 6.1180
 2.6120	 6.0840
 2.6140	 5.9920
 2.6150	 5.9890
 2.6160	 6.0490
 2.6180	 6.1750
 2.6190	 6.0840
 2.6200	 6.0850
 2.6220	 6.0610
 2.6230	 5.9420
 2.6240	 5.9000
 2.6260	 6.0220
 2.6270	 6.1050
 2.6280	 6.0410
 2.6300	 5.9740
 2.6310	 6.0760
 2.6320	 6.0160
 2.6340	 5.9690
 2.6350	 5.8960
 2.6360	 5.7730
 2.6380	 5.7040
 2.6390	 5.7710
 2.6400	 5.7870
 2.6420	 5.7570
 2.6430	 5.6920
 2.6440	 5.6960
 2.6460	 5.7380
 2.6470	 5.7710
 2.6480	 5.7270
 2.6500	 5.7110
 2.6510	 5.7060
 2.6520	 5.7830
 2.6540	 5.7040
 2.6550	 5.6690
 2.6570	 5.6590
 2.6580	 5.6620
 2.6590	 5.6370
 2.6610	 5.6360
 2.6620	 5.5990
 2.6630	 5.6340
 2.6650	 5.7790
 2.6660	 5.9360
 2.6670	 5.8560
 2.6690	 5.7210
 2.6700	 5.7980
 2.6720	 5.7740
 2.6730	 5.4890
 2.6740	 5.4420
 2.6760	 5.5190
 2.6770	 5.5760
 2.6780	 5.5050
 2.6800	 5.5440
 2.6810	 5.3990
 2.6830	 5.3910
 2.6840	 5.4220
 2.6850	 5.4100
 2.6870	 5.3310
 2.6880	 5.3450
 2.6900	 5.3630
 2.6910	 5.2960
 2.6920	 5.2180
 2.6940	 5.2790
 2.6950	 5.1970
 2.6970	 5.1440
 2.6980	 5.1250
 2.6990	 5.1530
 2.7010	 5.1440
 2.7020	 5.1320
 2.7040	 5.0510
 2.7050	 5.0120
 2.7060	 4.9180
 2.7080	 4.9630
 2.7090	 5.0180
 2.7110	 5.1130
 2.7120	 5.0940
 2.7130	 4.9960
 2.7150	 4.8720
 2.7160	 4.8060
 2.7180	 4.8030
 2.7190	 4.8890
 2.7210	 4.9510
 2.7220	 4.9000
 2.7230	 4.8460
 2.7250	 4.8890
 2.7260	 4.7340
 2.7280	 4.6210
 2.7290	 4.5830
 2.7310	 4.6430
 2.7320	 4.6000
 2.7340	 4.5790
 2.7350	 4.6080
 2.7360	 4.5940
 2.7380	 4.5690
 2.7390	 4.7440
 2.7410	 4.8260
 2.7420	 4.7570
 2.7440	 4.5690
 2.7450	 4.5410
 2.7470	 4.4750
 2.7480	 4.4410
 2.7490	 4.4480
 2.7510	 4.4940
 2.7520	 4.4930
 2.7540	 4.5550
 2.7550	 4.6130
 2.7570	 4.6010
 2.7580	 4.4200
 2.7600	 4.3860
 2.7610	 4.3690
 2.7630	 4.4480
 2.7640	 4.3980
 2.7660	 4.4100
 2.7670	 4.4260
 2.7690	 4.3990
 2.7700	 4.4260
 2.7720	 4.4920
 2.7730	 4.4110
 2.7740	 4.4060
 2.7760	 4.3710
 2.7770	 4.3960
 2.7790	 4.3540
 2.7800	 4.4010
 2.7820	 4.4100
 2.7830	 4.4350
 2.7850	 4.3890
 2.7860	 4.4820
 2.7880	 4.4690
 2.7890	 4.4410
 2.7910	 4.3700
 2.7920	 4.3830
 2.7940	 4.3310
 2.7950	 4.3210
 2.7970	 4.4000
 2.7980	 4.4320
 2.8000	 4.2920
 2.8010	 4.2870
 2.8030	 4.3640
 2.8040	 4.4490
 2.8060	 4.3540
 2.8080	 4.3770
 2.8090	 4.3710
 2.8110	 4.3370
 2.8120	 4.2870
 2.8140	 4.3500
 2.8150	 4.3030
 2.8170	 4.2490
 2.8180	 4.2610
 2.8200	 4.3540
 2.8210	 4.3270
 2.8230	 4.3860
 2.8240	 4.3610
 2.8260	 4.3870
 2.8270	 4.3120
 2.8290	 4.2940
 2.8310	 4.2370
 2.8320	 4.2880
 2.8340	 4.2610
 2.8350	 4.2540
 2.8370	 4.2920
 2.8380	 4.3740
 2.8400	 4.3470
 2.8410	 4.2970
 2.8430	 4.2240
 2.8440	 4.2850
 2.8460	 4.2620
 2.8480	 4.2780
 2.8490	 4.2660
 2.8510	 4.3140
 2.8520	 4.2650
 2.8540	 4.2600
 2.8550	 4.2440
 2.8570	 4.2880
 2.8590	 4.2670
 2.8600	 4.2720
 2.8620	 4.2190
 2.8630	 4.2560
 2.8650	 4.2550
 2.8660	 4.2840
 2.8680	 4.2760
 2.8700	 4.3230
 2.8710	 4.3070
 2.8730	 4.2790
 2.8740	 4.2730
 2.8760	 4.3400
 2.8780	 4.2930
 2.8790	 4.2700
 2.8810	 4.2680
 2.8820	 4.3680
 2.8840	 4.3180
 2.8860	 4.2730
 2.8870	 4.2800
 2.8890	 4.2900
 2.8900	 4.2470
 2.8920	 4.2500
 2.8940	 4.2600
 2.8950	 4.3050
 2.8970	 4.2850
 2.8990	 4.3570
 2.9000	 4.3410
 2.9020	 4.3490
 2.9030	 4.3090
 2.9050	 4.3260
 2.9070	 4.2720
 2.9080	 4.2520
 2.9100	 4.2090
 2.9120	 4.1850
 2.9130	 4.2000
 2.9150	 4.2880
 2.9160	 4.3450
 2.9180	 4.4360
 2.9200	 4.3330
 2.9210	 4.2890
 2.9230	 4.2910
 2.9250	 4.3080
 2.9260	 4.2010
 2.9280	 4.2780
 2.9300	 4.3090
 2.9310	 4.3260
 2.9330	 4.2630
 2.9350	 4.2740
 2.9360	 4.2690
 2.9380	 4.2940
 2.9400	 4.2820
 2.9410	 4.2670
 2.9430	 4.2370
 2.9450	 4.2950
 2.9460	 4.2410
 2.9480	 4.2290
 2.9500	 4.2430
 2.9510	 4.2820
 2.9530	 4.2610
 2.9550	 4.2500
 2.9560	 4.2000
 2.9580	 4.2730
 2.9600	 4.3310
 2.9610	 4.3570
 2.9630	 4.2860
 2.9650	 4.2640
 2.9670	 4.2440
 2.9680	 4.2930
 2.9700	 4.2210
 2.9720	 4.2460
 2.9730	 4.2630
 2.9750	 4.2470
 2.9770	 4.2580
 2.9780	 4.3300
 2.9800	 4.2990
 2.9820	 4.3230
 2.9840	 4.2900
 2.9850	 4.2540
 2.9870	 4.2180
 2.9890	 4.2630
 2.9900	 4.1980
 2.9920	 4.1510
 2.9940	 4.1810
 2.9960	 4.2510
 2.9970	 4.2380
 2.9990	 4.2920
 3.0010	 4.2650
 3.0030	 4.2130
 3.0040	 4.2040
 3.0060	 4.3080
 3.0080	 4.3210
 3.0100	 4.2950
 3.0110	 4.2690
 3.0130	 4.2980
 3.0150	 4.2260
 3.0170	 4.2660
 3.0180	 4.3100
 3.0200	 4.3240
 3.0220	 4.2220
 3.0240	 4.2160
 3.0250	 4.2390
 3.0270	 4.2440
 3.0290	 4.2150
 3.0310	 4.2310
 3.0320	 4.2110
 3.0340	 4.2490
 3.0360	 4.2530
 3.0380	 4.2990
 3.0400	 4.2620
 3.0410	 4.2940
 3.0430	 4.2680
 3.0450	 4.2500
 3.0470	 4.2020
 3.0480	 4.2140
 3.0500	 4.1740
 3.0520	 4.1950
 3.0540	 4.2480
 3.0560	 4.2850
 3.0570	 4.2460
 3.0590	 4.2800
 3.0610	 4.2880
 3.0630	 4.3290
 3.0650	 4.2650
 3.0670	 4.2510
 3.0680	 4.2320
 3.0700	 4.2660
 3.0720	 4.2630
 3.0740	 4.3060
 3.0760	 4.2570
 3.0770	 4.2780
 3.0790	 4.2520
 3.0810	 4.2770
 3.0830	 4.2390
 3.0850	 4.2660
 3.0870	 4.3360
 3.0880	 4.3690
 3.0900	 4.3130
 3.0920	 4.2760
 3.0940	 4.2290
 3.0960	 4.2540
 3.0980	 4.2480
 3.1000	 4.3080
 3.1010	 4.3330
 3.1030	 4.2910
 3.1050	 4.2720
 3.1070	 4.3080
 3.1090	 4.3070
 3.1110	 4.3270
 3.1130	 4.3120
 3.1140	 4.2800
 3.1160	 4.2490
 3.1180	 4.3520
 3.1200	 4.3680
 3.1220	 4.3740
 3.1240	 4.3250
 3.1260	 4.3080
 3.1280	 4.2920
 3.1290	 4.3030
 3.1310	 4.2680
 3.1330	 4.2850
 3.1350	 4.2980
 3.1370	 4.3620
 3.1390	 4.3330
 3.1410	 4.3230
 3.1430	 4.3090
 3.1450	 4.2970
 3.1470	 4.2670
 3.1480	 4.3220
 3.1500	 4.2610
 3.1520	 4.2530
 3.1540	 4.2590
 3.1560	 4.3060
 3.1580	 4.3000
 3.1600	 4.2980
 3.1620	 4.2480
 3.1640	 4.2470
 3.1660	 4.2770
 3.1680	 4.3220
 3.1700	 4.3340
 3.1720	 4.3450
 3.1730	 4.3010
 3.1750	 4.3240
 3.1770	 4.3100
 3.1790	 4.3320
 3.1810	 4.3170
 3.1830	 4.3130
 3.1850	 4.2950
 3.1870	 4.3200
 3.1890	 4.3190
 3.1910	 4.3440
 3.1930	 4.3070
 3.1950	 4.2860
 3.1970	 4.3120
 3.1990	 4.3770
 3.2010	 4.2980
 3.2030	 4.2940
 3.2050	 4.3270
 3.2070	 4.3530
 3.2090	 4.2880
 3.2110	 4.2860
 3.2130	 4.3220
 3.2150	 4.3790
 3.2170	 4.3780
 3.2190	 4.3700
 3.2210	 4.3380
 3.2230	 4.3300
 3.2250	 4.3140
 3.2270	 4.3150
 3.2290	 4.2940
 3.2310	 4.2870
 3.2330	 4.2880
 3.2350	 4.3110
 3.2370	 4.3120
 3.2390	 4.3420
 3.2410	 4.2960
 3.2430	 4.3180
 3.2450	 4.3230
 3.2470	 4.3540
 3.2490	 4.3020
 3.2510	 4.3090
 3.2530	 4.2900
 3.2550	 4.3430
 3.2570	 4.3360
 3.2590	 4.3180
 3.2610	 4.2900
 3.2630	 4.2950
 3.2650	 4.2980
 3.2670	 4.3360
 3.2700	 4.3240
 3.2720	 4.3340
 3.2740	 4.3280
 3.2760	 4.3290
 3.2780	 4.3020
 3.2800	 4.3270
 3.2820	 4.3020
 3.2840	 4.2930
 3.2860	 4.2890
 3.2880	 4.2990
 3.2900	 4.2720
 3.2920	 4.2870
 3.2940	 4.2600
 3.2970	 4.2560
 3.2990	 4.2170
 3.3010	 4.2180
 3.3030	 4.2200
 3.3050	 4.2740
 3.3070	 4.3010
 3.3090	 4.2990
 3.3110	 4.2420
 3.3130	 4.2790
 3.3160	 4.2820
 3.3180	 4.2530
 3.3200	 4.2370
 3.3220	 4.2520
 3.3240	 4.2380
 3.3260	 4.2430
 3.3280	 4.2140
 3.3300	 4.2470
 3.3330	 4.2490
 3.3350	 4.2560
 3.3370	 4.2390
 3.3390	 4.2640
 3.3410	 4.2330
 3.3430	 4.2240
 3.3450	 4.2300
 3.3480	 4.2640
 3.3500	 4.2380
 3.3520	 4.2280
 3.3540	 4.1970
 3.3560	 4.1860
 3.3580	 4.1340
 3.3610	 4.1150
 3.3630	 4.1110
 3.3650	 4.1250
 3.3670	 4.0840
 3.3690	 4.0660
 3.3720	 4.0250
 3.3740	 4.0380
 3.3760	 3.9870
 3.3780	 3.9920
 3.3800	 4.0030
 3.3830	 4.0320
 3.3850	 4.0180
 3.3870	 4.0010
 3.3890	 3.9720
 3.3910	 3.9670
 3.3940	 3.9250
 3.3960	 3.9280
 3.3980	 3.9270
 3.4000	 3.9170
 3.4030	 3.8960
 3.4050	 3.9040
 3.4070	 3.8480
 3.4090	 3.8540
 3.4110	 3.8220
 3.4140	 3.8590
 3.4160	 3.8770
 3.4180	 3.9170
 3.4200	 3.9700
 3.4230	 4.0790
 3.4250	 4.1620
 3.4270	 4.2680
 3.4300	 4.3420
 3.4320	 4.4360
 3.4340	 4.4940
 3.4360	 4.5110
 3.4390	 4.4310
 3.4410	 4.4310
 3.4430	 4.4270
 3.4450	 4.4440
 3.4480	 4.3750
 3.4500	 4.3540
 3.4520	 4.3360
 3.4550	 4.3780
 3.4570	 4.3990
 3.4590	 4.3920
 3.4620	 4.3840
 3.4640	 4.4210
 3.4660	 4.3560
 3.4690	 4.3420
 3.4710	 4.3370
 3.4730	 4.3210
 3.4760	 4.2690
 3.4780	 4.2980
 3.4800	 4.2800
 3.4830	 4.2450
 3.4850	 4.2190
 3.4870	 4.2350
 3.4900	 4.2110
 3.4920	 4.1740
 3.4940	 4.1320
 3.4970	 4.1410
 3.4990	 4.1310
 3.5010	 4.1010
 3.5040	 4.0670
 3.5060	 4.1510
 3.5080	 4.3170
 3.5110	 4.5020
 3.5130	 4.5710
 3.5160	 4.6120
 3.5180	 4.6120
 3.5200	 4.6280
 3.5230	 4.6340
 3.5250	 4.6500
 3.5280	 4.5730
 3.5300	 4.5390
 3.5320	 4.5420
 3.5350	 4.5450
 3.5370	 4.5530
 3.5400	 4.5690
 3.5420	 4.5520
 3.5440	 4.5890
 3.5470	 4.5890
 3.5490	 4.5680
 3.5520	 4.5390
 3.5540	 4.5490
 3.5570	 4.5240
 3.5590	 4.5680
 3.5610	 4.5820
 3.5640	 4.5810
 3.5660	 4.6070
 3.5690	 4.6060
 3.5710	 4.5660
 3.5740	 4.5900
 3.5760	 4.5820
 3.5790	 4.5740
 3.5810	 4.5630
 3.5840	 4.5920
 3.5860	 4.5910
 3.5890	 4.5930
 3.5910	 4.6000
 3.5940	 4.6000
 3.5960	 4.5770
 3.5990	 4.6080
 3.6010	 4.5750
 3.6040	 4.5750
 3.6060	 4.5580
 3.6090	 4.5520
 3.6110	 4.5370
 3.6140	 4.5370
 3.6160	 4.5270
 3.6190	 4.5540
 3.6210	 4.5710
 3.6240	 4.5770
 3.6260	 4.5290
 3.6290	 4.5170
 3.6310	 4.5550
 3.6340	 4.5960
 3.6360	 4.5770
 3.6390	 4.5490
 3.6410	 4.5050
 3.6440	 4.4940
 3.6470	 4.5210
 3.6490	 4.5920
 3.6520	 4.5690
 3.6540	 4.5710
 3.6570	 4.5540
 3.6590	 4.5370
 3.6620	 4.5330
 3.6650	 4.5340
 3.6670	 4.5420
 3.6700	 4.5730
 3.6720	 4.5740
 3.6750	 4.5660
 3.6780	 4.5490
 3.6800	 4.5420
 3.6830	 4.5130
 3.6850	 4.5120
 3.6880	 4.4990
 3.6910	 4.5110
 3.6930	 4.5270
 3.6960	 4.5520
 3.6990	 4.5660
 3.7010	 4.5840
 3.7040	 4.5670
 3.7070	 4.5890
 3.7090	 4.5610
 3.7120	 4.5180
 3.7150	 4.5250
 3.7170	 4.5760
 3.7200	 4.5490
 3.7230	 4.5710
 3.7250	 4.5640
 3.7280	 4.5450
 3.7310	 4.5160
 3.7330	 4.5330
 3.7360	 4.5190
 3.7390	 4.5490
 3.7410	 4.5820
 3.7440	 4.5730
 3.7470	 4.5630
 3.7490	 4.5670
 3.7520	 4.5610
 3.7550	 4.5760
 3.7580	 4.5530
 3.7600	 4.5500
 3.7630	 4.5580
 3.7660	 4.5710
 3.7690	 4.5900
 3.7710	 4.6380
 3.7740	 4.6290
 3.7770	 4.6080
 3.7790	 4.5710
 3.7820	 4.5750
 3.7850	 4.5540
 3.7880	 4.5970
 3.7910	 4.6020
 3.7930	 4.6230
 3.7960	 4.6590
 3.7990	 4.6620
 3.8020	 4.6310
 3.8040	 4.6400
 3.8070	 4.6590
 3.8100	 4.6680
 3.8130	 4.6380
 3.8160	 4.6320
 3.8180	 4.6180
 3.8210	 4.6300
 3.8240	 4.5930
 3.8270	 4.5880
 3.8300	 4.5890
 3.8330	 4.6440
 3.8350	 4.6360
 3.8380	 4.6210
 3.8410	 4.6320
 3.8440	 4.6730
 3.8470	 4.6390
 3.8500	 4.6170
 3.8520	 4.6110
 3.8550	 4.6430
 3.8580	 4.6340
 3.8610	 4.6420
 3.8640	 4.6470
 3.8670	 4.6430
 3.8700	 4.6410
 3.8730	 4.6520
 3.8760	 4.6430
 3.8780	 4.6810
 3.8810	 4.6870
 3.8840	 4.6730
 3.8870	 4.6580
 3.8900	 4.6920
 3.8930	 4.6960
 3.8960	 4.6750
 3.8990	 4.6640
 3.9020	 4.6750
 3.9050	 4.6660
 3.9080	 4.6900
 3.9110	 4.6900
 3.9140	 4.6610
 3.9170	 4.6520
 3.9190	 4.7070
 3.9220	 4.7090
 3.9250	 4.6900
 3.9280	 4.6670
 3.9310	 4.6820
 3.9340	 4.6800
 3.9370	 4.6890
 3.9400	 4.6640
 3.9430	 4.6580
 3.9460	 4.6530
 3.9490	 4.6860
 3.9520	 4.7070
 3.9550	 4.6950
 3.9580	 4.6310
 3.9610	 4.6350
 3.9640	 4.6570
 3.9670	 4.6880
 3.9700	 4.6640
 3.9740	 4.6600
 3.9770	 4.6590
 3.9800	 4.7070
 3.9830	 4.7030
 3.9860	 4.6610
 3.9890	 4.6840
 3.9920	 4.7180
 3.9950	 4.7140
 3.9980	 4.7360
 4.0010	 4.7500
 4.0040	 4.7190
 4.0070	 4.6770
 4.0100	 4.6510
 4.0140	 4.6480
 4.0170	 4.7170
 4.0200	 4.7330
 4.0230	 4.7150
 4.0260	 4.6840
 4.0290	 4.6930
 4.0320	 4.7070
 4.0350	 4.7500
 4.0390	 4.7190
 4.0420	 4.7070
 4.0450	 4.7050
 4.0480	 4.7190
 4.0510	 4.7150
 4.0540	 4.7170
 4.0570	 4.7170
 4.0610	 4.7200
 4.0640	 4.7000
 4.0670	 4.7020
 4.0700	 4.6860
 4.0730	 4.6780
 4.0770	 4.7080
 4.0800	 4.7460
 4.0830	 4.7150
 4.0860	 4.7260
 4.0890	 4.7480
 4.0930	 4.7550
 4.0960	 4.7450
 4.0990	 4.7550
 4.1020	 4.7200
 4.1060	 4.6820
 4.1090	 4.6750
 4.1120	 4.7070
 4.1150	 4.6900
 4.1190	 4.6940
 4.1220	 4.7050
 4.1250	 4.7350
 4.1290	 4.7540
 4.1320	 4.7640
 4.1350	 4.7370
 4.1380	 4.7190
 4.1420	 4.7360
 4.1450	 4.7500
 4.1480	 4.7390
 4.1520	 4.7350
 4.1550	 4.7090
 4.1580	 4.7300
 4.1620	 4.7390
 4.1650	 4.7250
 4.1680	 4.7330
 4.1720	 4.7550
 4.1750	 4.7290
 4.1780	 4.7250
 4.1820	 4.7400
 4.1850	 4.7240
 4.1890	 4.7150
 4.1920	 4.7420
 4.1950	 4.7360
 4.1990	 4.7160
 4.2020	 4.6840
 4.2060	 4.7150
 4.2090	 4.6900
 4.2120	 4.6690
 4.2160	 4.6820
 4.2190	 4.6930
 4.2230	 4.6740
 4.2260	 4.6550
 4.2300	 4.6570
 4.2330	 4.7210
 4.2360	 4.7170
 4.2400	 4.7120
 4.2430	 4.6880
 4.2470	 4.6830
 4.2500	 4.6550
 4.2540	 4.6670
 4.2570	 4.6500
 4.2610	 4.6280
 4.2640	 4.6310
 4.2680	 4.6300
 4.2710	 4.5740
 4.2750	 4.5880
 4.2780	 4.5510
 4.2820	 4.5660
 4.2850	 4.6460
 4.2890	 4.6500
 4.2930	 4.6050
 4.2960	 4.6420
 4.3000	 4.6650
 4.3030	 4.6660
 4.3070	 4.6440
 4.3100	 4.6760
 4.3140	 4.6670
 4.3180	 4.6390
 4.3210	 4.6440
 4.3250	 4.5970
 4.3280	 4.5580
 4.3320	 4.5470
 4.3360	 4.5620
 4.3390	 4.6310
 4.3430	 4.6560
 4.3470	 4.6360
 4.3500	 4.6030
 4.3540	 4.5880
 4.3580	 4.6230
 4.3610	 4.6500
 4.3650	 4.6160
 4.3690	 4.5670
 4.3720	 4.5640
 4.3760	 4.5730
 4.3800	 4.5740
 4.3830	 4.5630
 4.3870	 4.5790
 4.3910	 4.6080
 4.3940	 4.6030
 4.3980	 4.5810
 4.4020	 4.5730
 4.4060	 4.5670
 4.4090	 4.5410
 4.4130	 4.5480
 4.4170	 4.5770
 4.4210	 4.5800
 4.4240	 4.5610
 4.4280	 4.5950
 4.4320	 4.6060
 4.4360	 4.5630
 4.4400	 4.5380
 4.4430	 4.5520
 4.4470	 4.5470
 4.4510	 4.5050
 4.4550	 4.5170
 4.4590	 4.5500
 4.4630	 4.5290
 4.4660	 4.5100
 4.4700	 4.5260
 4.4740	 4.5430
 4.4780	 4.5210
 4.4820	 4.5260
 4.4860	 4.5360
 4.4900	 4.5450
 4.4930	 4.5360
 4.4970	 4.5160
 4.5010	 4.5060
 4.5050	 4.5040
 4.5090	 4.5160
 4.5130	 4.5220
 4.5170	 4.5460
 4.5210	 4.5460
 4.5250	 4.5250
 4.5290	 4.5140
 4.5330	 4.5090
 4.5370	 4.5230
 4.5410	 4.5200
 4.5450	 4.5070
 4.5490	 4.4880
 4.5530	 4.4740
 4.5570	 4.4780
 4.5610	 4.4840
 4.5650	 4.4540
 4.5690	 4.4570
 4.5730	 4.5090
 4.5770	 4.4950
 4.5810	 4.4610
 4.5850	 4.4620
 4.5890	 4.4740
 4.5930	 4.4730
 4.5970	 4.4770
 4.6010	 4.4780
 4.6050	 4.4810
 4.6090	 4.4740
 4.6130	 4.4680
 4.6170	 4.4710
 4.6220	 4.4800
 4.6260	 4.4810
 4.6300	 4.4770
 4.6340	 4.4490
 4.6380	 4.4210
 4.6420	 4.4280
 4.6460	 4.4430
 4.6510	 4.4380
 4.6550	 4.4370
 4.6590	 4.4380
 4.6630	 4.4370
 4.6670	 4.4640
 4.6720	 4.4720
 4.6760	 4.4780
 4.6800	 4.4610
 4.6840	 4.4460
 4.6880	 4.4310
 4.6930	 4.3900
 4.6970	 4.4030
 4.7010	 4.4360
 4.7050	 4.4240
 4.7100	 4.4110
 4.7140	 4.4220
 4.7180	 4.4300
 4.7230	 4.4280
 4.7270	 4.4270
 4.7310	 4.4320
 4.7360	 4.4120
 4.7400	 4.3990
 4.7440	 4.4060
 4.7490	 4.4030
 4.7530	 4.3950
 4.7570	 4.4220
 4.7620	 4.4090
 4.7660	 4.4120
 4.7700	 4.4240
 4.7750	 4.4170
 4.7790	 4.4060
 4.7840	 4.4210
 4.7880	 4.4260
 4.7920	 4.4030
 4.7970	 4.4090
 4.8010	 4.4180
 4.8060	 4.4090
 4.8100	 4.4290
 4.8150	 4.4320
 4.8190	 4.4390
 4.8240	 4.4030
 4.8280	 4.4180
 4.8330	 4.4460
 4.8370	 4.3980
 4.8420	 4.3390
 4.8460	 4.3570
 4.8510	 4.3860
 4.8550	 4.3920
 4.8600	 4.3720
 4.8640	 4.3840
 4.8690	 4.4250
 4.8740	 4.4450
 4.8780	 4.4000
 4.8830	 4.3670
 4.8870	 4.3820
 4.8920	 4.4140
 4.8970	 4.3970
 4.9010	 4.3920
 4.9060	 4.4060
 4.9100	 4.4120
 4.9150	 4.3860
 4.9200	 4.4020
 4.9240	 4.3970
 4.9290	 4.3790
 4.9340	 4.3730
 4.9390	 4.3780
 4.9430	 4.3700
 4.9480	 4.3850
 4.9530	 4.3860
 4.9570	 4.4120
 4.9620	 4.4270
 4.9670	 4.4220
 4.9720	 4.4040
 4.9760	 4.4170
 4.9810	 4.4230
 4.9860	 4.4390
 4.9910	 4.4300
 4.9960	 4.4220
 5.0000	 4.4150
 5.0050	 4.3940
 5.0100	 4.3680
 5.0150	 4.4060
 5.0200	 4.4300
 5.0250	 4.4380
 5.0300	 4.4460
 5.0340	 4.4470
 5.0390	 4.4130
 5.0440	 4.4080
 5.0490	 4.4090
 5.0540	 4.4360
 5.0590	 4.4490
 5.0640	 4.4760
 5.0690	 4.4610
 5.0740	 4.4580
 5.0790	 4.4620
 5.0840	 4.4640
 5.0890	 4.4490
 5.0940	 4.4550
 5.0990	 4.4690
 5.1040	 4.4840
 5.1090	 4.4320
 5.1140	 4.4180
 5.1190	 4.4320
 5.1240	 4.4600
 5.1290	 4.4580
 5.1340	 4.4560
 5.1390	 4.4170
 5.1440	 4.4590
 5.1490	 4.4760
 5.1550	 4.4620
 5.1600	 4.4520
 5.1650	 4.4480
 5.1700	 4.4160
 5.1750	 4.3990
 5.1800	 4.4120
 5.1850	 4.4680
 5.1910	 4.4900
 5.1960	 4.5120
 5.2010	 4.5040
 5.2060	 4.5070
 5.2110	 4.4780
 5.2170	 4.4700
 5.2220	 4.4250
 5.2270	 4.4090
 5.2330	 4.3970
 5.2380	 4.4180
 5.2430	 4.4350
 5.2480	 4.4560
 5.2540	 4.4240
 5.2590	 4.4120
 5.2640	 4.3880
 5.2700	 4.4090
 5.2750	 4.4490
 5.2800	 4.4590
 5.2860	 4.4360
 5.2910	 4.4770
 5.2970	 4.4500
 5.3020	 4.4040
 5.3080	 4.3720
 5.3130	 4.4060
 5.3180	 4.4050
 5.3240	 4.3770
 5.3290	 4.3610
 5.3350	 4.3850
 5.3400	 4.3930
 5.3460	 4.4320
 5.3510	 4.4330
 5.3570	 4.3980
 5.3620	 4.3670
 5.3680	 4.3870
 5.3740	 4.3880
 5.3790	 4.4140
 5.3850	 4.4070
 5.3900	 4.4170
 5.3960	 4.4110
 5.4010	 4.4120
 5.4070	 4.3910
 5.4130	 4.3670
 5.4180	 4.3890
 5.4240	 4.4740
 5.4300	 4.4080
 5.4350	 4.3690
 5.4410	 4.3510
 5.4470	 4.3420
 5.4530	 4.3130
 5.4580	 4.3500
 5.4640	 4.3990
 5.4700	 4.4000
 5.4760	 4.3430
