Name: Pinus ponderosa 1
Type: vegetation
Class: Tree
Genus: Pinus
Species: ponderosa
Sample No.: VH250
Owner: UCSB
Wavelength Range: VSWIR
Origin: 37.0443; -119.3026; WGS84
Collection Date: 11/2/2013
Description: Samples were collected as part of the HyspIRI Airborne Campaign. 48 individual plants were sampled in three times in 2013 - spring  summer  and fall. The name of the sample includes a 1  2  or 3 which references a different individual of the species. Samples were taken to JPL and processed within 48 hours of collection. The same leaves were processed in the Nicolet and then measured using the ASD.
Measurement: Bidirectional reflectance
First Column: X
Second Column: Y
X Units: Wavelength (micrometers)
Y Units: Reflectance (percentage)
First X Value: 0.35
Last X Value: 2.5
Number of X Values: 2151
Additional Information: vegetation.tree.pinus.ponderosa.vswir.vh250.ucsb.asd.ancillary.txt

 0.3500	 5.7570
 0.3510	 6.0570
 0.3520	 5.9270
 0.3530	 5.6920
 0.3540	 5.7160
 0.3550	 5.8150
 0.3560	 5.8440
 0.3570	 5.7770
 0.3580	 5.6710
 0.3590	 5.7010
 0.3600	 5.7290
 0.3610	 5.6960
 0.3620	 5.6890
 0.3630	 5.6150
 0.3640	 5.5760
 0.3650	 5.6560
 0.3660	 5.7170
 0.3670	 5.6820
 0.3680	 5.6030
 0.3690	 5.6070
 0.3700	 5.6360
 0.3710	 5.6210
 0.3720	 5.5620
 0.3730	 5.5770
 0.3740	 5.5780
 0.3750	 5.5640
 0.3760	 5.5680
 0.3770	 5.6410
 0.3780	 5.6780
 0.3790	 5.6530
 0.3800	 5.6160
 0.3810	 5.5920
 0.3820	 5.5820
 0.3830	 5.5830
 0.3840	 5.6220
 0.3850	 5.6080
 0.3860	 5.5650
 0.3870	 5.5510
 0.3880	 5.5820
 0.3890	 5.5920
 0.3900	 5.5690
 0.3910	 5.5680
 0.3920	 5.5840
 0.3930	 5.6040
 0.3940	 5.6150
 0.3950	 5.6120
 0.3960	 5.6080
 0.3970	 5.6140
 0.3980	 5.6340
 0.3990	 5.6260
 0.4000	 5.6180
 0.4010	 5.6150
 0.4020	 5.5920
 0.4030	 5.6070
 0.4040	 5.6360
 0.4050	 5.6470
 0.4060	 5.6670
 0.4070	 5.6860
 0.4080	 5.7030
 0.4090	 5.7240
 0.4100	 5.7600
 0.4110	 5.8090
 0.4120	 5.8590
 0.4130	 5.8760
 0.4140	 5.9020
 0.4150	 5.9480
 0.4160	 6.0090
 0.4170	 6.0450
 0.4180	 6.0870
 0.4190	 6.1430
 0.4200	 6.1900
 0.4210	 6.2360
 0.4220	 6.2850
 0.4230	 6.3390
 0.4240	 6.3740
 0.4250	 6.4270
 0.4260	 6.4890
 0.4270	 6.5310
 0.4280	 6.5700
 0.4290	 6.6120
 0.4300	 6.6570
 0.4310	 6.6990
 0.4320	 6.7320
 0.4330	 6.7540
 0.4340	 6.7720
 0.4350	 6.8060
 0.4360	 6.8450
 0.4370	 6.8820
 0.4380	 6.9140
 0.4390	 6.9530
 0.4400	 6.9940
 0.4410	 7.0280
 0.4420	 7.0560
 0.4430	 7.0850
 0.4440	 7.1120
 0.4450	 7.1320
 0.4460	 7.1480
 0.4470	 7.1740
 0.4480	 7.2080
 0.4490	 7.2320
 0.4500	 7.2630
 0.4510	 7.2850
 0.4520	 7.2880
 0.4530	 7.3100
 0.4540	 7.3280
 0.4550	 7.3410
 0.4560	 7.3580
 0.4570	 7.3740
 0.4580	 7.3900
 0.4590	 7.4030
 0.4600	 7.4030
 0.4610	 7.4110
 0.4620	 7.4270
 0.4630	 7.4450
 0.4640	 7.4550
 0.4650	 7.4540
 0.4660	 7.4510
 0.4670	 7.4670
 0.4680	 7.4730
 0.4690	 7.4750
 0.4700	 7.4780
 0.4710	 7.4820
 0.4720	 7.4910
 0.4730	 7.5020
 0.4740	 7.5030
 0.4750	 7.4900
 0.4760	 7.4860
 0.4770	 7.4990
 0.4780	 7.5100
 0.4790	 7.5150
 0.4800	 7.5130
 0.4810	 7.5080
 0.4820	 7.5130
 0.4830	 7.5180
 0.4840	 7.5240
 0.4850	 7.5350
 0.4860	 7.5360
 0.4870	 7.5380
 0.4880	 7.5530
 0.4890	 7.5680
 0.4900	 7.5850
 0.4910	 7.6040
 0.4920	 7.6230
 0.4930	 7.6470
 0.4940	 7.6770
 0.4950	 7.7100
 0.4960	 7.7480
 0.4970	 7.7870
 0.4980	 7.8280
 0.4990	 7.8710
 0.5000	 7.9200
 0.5010	 7.9760
 0.5020	 8.0390
 0.5030	 8.1060
 0.5040	 8.1830
 0.5050	 8.2690
 0.5060	 8.3600
 0.5070	 8.4530
 0.5080	 8.5640
 0.5090	 8.6860
 0.5100	 8.8090
 0.5110	 8.9490
 0.5120	 9.1030
 0.5130	 9.2660
 0.5140	 9.4340
 0.5150	 9.6180
 0.5160	 9.8150
 0.5170	10.0200
 0.5180	10.2320
 0.5190	10.4540
 0.5200	10.6800
 0.5210	10.9000
 0.5220	11.1340
 0.5230	11.3670
 0.5240	11.5880
 0.5250	11.8050
 0.5260	12.0180
 0.5270	12.2240
 0.5280	12.4180
 0.5290	12.5970
 0.5300	12.7670
 0.5310	12.9290
 0.5320	13.0730
 0.5330	13.2050
 0.5340	13.3270
 0.5350	13.4410
 0.5360	13.5400
 0.5370	13.6340
 0.5380	13.7210
 0.5390	13.7890
 0.5400	13.8520
 0.5410	13.9050
 0.5420	13.9500
 0.5430	14.0030
 0.5440	14.0560
 0.5450	14.1070
 0.5460	14.1600
 0.5470	14.2290
 0.5480	14.2980
 0.5490	14.3550
 0.5500	14.3980
 0.5510	14.4280
 0.5520	14.4480
 0.5530	14.4590
 0.5540	14.4550
 0.5550	14.4400
 0.5560	14.4120
 0.5570	14.3670
 0.5580	14.3070
 0.5590	14.2330
 0.5600	14.1460
 0.5610	14.0490
 0.5620	13.9410
 0.5630	13.8240
 0.5640	13.6990
 0.5650	13.5670
 0.5660	13.4320
 0.5670	13.2990
 0.5680	13.1710
 0.5690	13.0380
 0.5700	12.9010
 0.5710	12.7630
 0.5720	12.6270
 0.5730	12.4920
 0.5740	12.3580
 0.5750	12.2240
 0.5760	12.0970
 0.5770	11.9790
 0.5780	11.8720
 0.5790	11.7710
 0.5800	11.6850
 0.5810	11.6100
 0.5820	11.5350
 0.5830	11.4660
 0.5840	11.3970
 0.5850	11.3290
 0.5860	11.2660
 0.5870	11.2100
 0.5880	11.1630
 0.5890	11.1230
 0.5900	11.0800
 0.5910	11.0350
 0.5920	10.9880
 0.5930	10.9460
 0.5940	10.9100
 0.5950	10.8790
 0.5960	10.8520
 0.5970	10.8280
 0.5980	10.8080
 0.5990	10.7870
 0.6000	10.7580
 0.6010	10.7220
 0.6020	10.6820
 0.6030	10.6380
 0.6040	10.5880
 0.6050	10.5310
 0.6060	10.4720
 0.6070	10.4130
 0.6080	10.3470
 0.6090	10.2720
 0.6100	10.1860
 0.6110	10.0990
 0.6120	10.0280
 0.6130	 9.9720
 0.6140	 9.9200
 0.6150	 9.8590
 0.6160	 9.7980
 0.6170	 9.7440
 0.6180	 9.6970
 0.6190	 9.6460
 0.6200	 9.5990
 0.6210	 9.5600
 0.6220	 9.5270
 0.6230	 9.5000
 0.6240	 9.4770
 0.6250	 9.4570
 0.6260	 9.4430
 0.6270	 9.4310
 0.6280	 9.4210
 0.6290	 9.4170
 0.6300	 9.4090
 0.6310	 9.4010
 0.6320	 9.3940
 0.6330	 9.3840
 0.6340	 9.3640
 0.6350	 9.3340
 0.6360	 9.2960
 0.6370	 9.2470
 0.6380	 9.1880
 0.6390	 9.1200
 0.6400	 9.0480
 0.6410	 8.9700
 0.6420	 8.8890
 0.6430	 8.8060
 0.6440	 8.7210
 0.6450	 8.6380
 0.6460	 8.5580
 0.6470	 8.4830
 0.6480	 8.4130
 0.6490	 8.3510
 0.6500	 8.2980
 0.6510	 8.2500
 0.6520	 8.2100
 0.6530	 8.1750
 0.6540	 8.1420
 0.6550	 8.0990
 0.6560	 8.0550
 0.6570	 8.0110
 0.6580	 7.9660
 0.6590	 7.9110
 0.6600	 7.8550
 0.6610	 7.8000
 0.6620	 7.7370
 0.6630	 7.6830
 0.6640	 7.6350
 0.6650	 7.5880
 0.6660	 7.5430
 0.6670	 7.5050
 0.6680	 7.4750
 0.6690	 7.4520
 0.6700	 7.4350
 0.6710	 7.4230
 0.6720	 7.4150
 0.6730	 7.4130
 0.6740	 7.4150
 0.6750	 7.4210
 0.6760	 7.4320
 0.6770	 7.4480
 0.6780	 7.4670
 0.6790	 7.4900
 0.6800	 7.5220
 0.6810	 7.5590
 0.6820	 7.6070
 0.6830	 7.6670
 0.6840	 7.7400
 0.6850	 7.8350
 0.6860	 7.9550
 0.6870	 8.1010
 0.6880	 8.2840
 0.6890	 8.5110
 0.6900	 8.7890
 0.6910	 9.1230
 0.6920	 9.5140
 0.6930	 9.9680
 0.6940	10.4880
 0.6950	11.0680
 0.6960	11.7090
 0.6970	12.4080
 0.6980	13.1590
 0.6990	13.9610
 0.7000	14.8030
 0.7010	15.6830
 0.7020	16.6010
 0.7030	17.5430
 0.7040	18.5020
 0.7050	19.4750
 0.7060	20.4650
 0.7070	21.4660
 0.7080	22.4730
 0.7090	23.4880
 0.7100	24.5090
 0.7110	25.5330
 0.7120	26.5590
 0.7130	27.5860
 0.7140	28.6170
 0.7150	29.6470
 0.7160	30.6690
 0.7170	31.6840
 0.7180	32.6960
 0.7190	33.7010
 0.7200	34.6910
 0.7210	35.6770
 0.7220	36.6400
 0.7230	37.5760
 0.7240	38.5040
 0.7250	39.4020
 0.7260	40.2800
 0.7270	41.1400
 0.7280	41.9580
 0.7290	42.7350
 0.7300	43.4810
 0.7310	44.2060
 0.7320	44.9030
 0.7330	45.5580
 0.7340	46.1710
 0.7350	46.7650
 0.7360	47.3320
 0.7370	47.8670
 0.7380	48.3700
 0.7390	48.8460
 0.7400	49.2970
 0.7410	49.7200
 0.7420	50.1090
 0.7430	50.4760
 0.7440	50.8240
 0.7450	51.1470
 0.7460	51.4370
 0.7470	51.7080
 0.7480	51.9670
 0.7490	52.2100
 0.7500	52.4340
 0.7510	52.6300
 0.7520	52.8020
 0.7530	52.9580
 0.7540	53.1080
 0.7550	53.2420
 0.7560	53.3600
 0.7570	53.4740
 0.7580	53.5740
 0.7590	53.6640
 0.7600	53.7470
 0.7610	53.8250
 0.7620	53.8950
 0.7630	53.9590
 0.7640	54.0180
 0.7650	54.0610
 0.7660	54.0940
 0.7670	54.1250
 0.7680	54.1590
 0.7690	54.1950
 0.7700	54.2240
 0.7710	54.2490
 0.7720	54.2810
 0.7730	54.3050
 0.7740	54.3210
 0.7750	54.3360
 0.7760	54.3510
 0.7770	54.3660
 0.7780	54.3810
 0.7790	54.3980
 0.7800	54.4150
 0.7810	54.4340
 0.7820	54.4510
 0.7830	54.4560
 0.7840	54.4540
 0.7850	54.4670
 0.7860	54.4960
 0.7870	54.4970
 0.7880	54.5180
 0.7890	54.5430
 0.7900	54.5450
 0.7910	54.5520
 0.7920	54.5640
 0.7930	54.5800
 0.7940	54.5950
 0.7950	54.6010
 0.7960	54.6070
 0.7970	54.6170
 0.7980	54.6260
 0.7990	54.6270
 0.8000	54.6310
 0.8010	54.6450
 0.8020	54.6660
 0.8030	54.6860
 0.8040	54.7040
 0.8050	54.7200
 0.8060	54.7160
 0.8070	54.7210
 0.8080	54.7400
 0.8090	54.7540
 0.8100	54.7600
 0.8110	54.7610
 0.8120	54.7660
 0.8130	54.7850
 0.8140	54.7990
 0.8150	54.8070
 0.8160	54.8130
 0.8170	54.8310
 0.8180	54.8390
 0.8190	54.8380
 0.8200	54.8410
 0.8210	54.8610
 0.8220	54.8700
 0.8230	54.8690
 0.8240	54.8890
 0.8250	54.8920
 0.8260	54.8900
 0.8270	54.8920
 0.8280	54.8920
 0.8290	54.9080
 0.8300	54.9190
 0.8310	54.9060
 0.8320	54.8830
 0.8330	54.8800
 0.8340	54.8910
 0.8350	54.8990
 0.8360	54.9070
 0.8370	54.9230
 0.8380	54.9410
 0.8390	54.9460
 0.8400	54.9470
 0.8410	54.9510
 0.8420	54.9600
 0.8430	54.9770
 0.8440	54.9900
 0.8450	55.0030
 0.8460	55.0200
 0.8470	55.0320
 0.8480	55.0380
 0.8490	55.0430
 0.8500	55.0510
 0.8510	55.0650
 0.8520	55.0830
 0.8530	55.0960
 0.8540	55.0960
 0.8550	55.0910
 0.8560	55.0990
 0.8570	55.1160
 0.8580	55.1210
 0.8590	55.1240
 0.8600	55.1330
 0.8610	55.1470
 0.8620	55.1550
 0.8630	55.1620
 0.8640	55.1580
 0.8650	55.1440
 0.8660	55.1550
 0.8670	55.1530
 0.8680	55.1500
 0.8690	55.1630
 0.8700	55.1620
 0.8710	55.1590
 0.8720	55.1590
 0.8730	55.1590
 0.8740	55.1610
 0.8750	55.1750
 0.8760	55.1870
 0.8770	55.1680
 0.8780	55.1560
 0.8790	55.1580
 0.8800	55.1640
 0.8810	55.1500
 0.8820	55.1380
 0.8830	55.1240
 0.8840	55.1100
 0.8850	55.1050
 0.8860	55.0980
 0.8870	55.0910
 0.8880	55.0870
 0.8890	55.0720
 0.8900	55.0620
 0.8910	55.0520
 0.8920	55.0330
 0.8930	55.0290
 0.8940	55.0300
 0.8950	55.0230
 0.8960	54.9980
 0.8970	54.9870
 0.8980	54.9750
 0.8990	54.9600
 0.9000	54.9500
 0.9010	54.9350
 0.9020	54.9240
 0.9030	54.9170
 0.9040	54.9020
 0.9050	54.8810
 0.9060	54.8560
 0.9070	54.8330
 0.9080	54.8210
 0.9090	54.8090
 0.9100	54.7920
 0.9110	54.7660
 0.9120	54.7370
 0.9130	54.7010
 0.9140	54.6780
 0.9150	54.6780
 0.9160	54.6720
 0.9170	54.6560
 0.9180	54.6390
 0.9190	54.6250
 0.9200	54.5880
 0.9210	54.5540
 0.9220	54.5270
 0.9230	54.5030
 0.9240	54.4890
 0.9250	54.4550
 0.9260	54.4100
 0.9270	54.3800
 0.9280	54.3410
 0.9290	54.2890
 0.9300	54.2300
 0.9310	54.1710
 0.9320	54.1150
 0.9330	54.0660
 0.9340	54.0160
 0.9350	53.9420
 0.9360	53.8750
 0.9370	53.8190
 0.9380	53.7680
 0.9390	53.7020
 0.9400	53.6240
 0.9410	53.5370
 0.9420	53.4470
 0.9430	53.3640
 0.9440	53.2840
 0.9450	53.2000
 0.9460	53.1060
 0.9470	53.0020
 0.9480	52.8800
 0.9490	52.7520
 0.9500	52.6260
 0.9510	52.4860
 0.9520	52.3360
 0.9530	52.1850
 0.9540	52.0410
 0.9550	51.8920
 0.9560	51.7410
 0.9570	51.5890
 0.9580	51.4420
 0.9590	51.3170
 0.9600	51.2110
 0.9610	51.1100
 0.9620	51.0060
 0.9630	50.9230
 0.9640	50.8430
 0.9650	50.7710
 0.9660	50.7160
 0.9670	50.6680
 0.9680	50.6390
 0.9690	50.6240
 0.9700	50.6020
 0.9710	50.5600
 0.9720	50.5280
 0.9730	50.5150
 0.9740	50.5130
 0.9750	50.5190
 0.9760	50.5160
 0.9770	50.5110
 0.9780	50.5160
 0.9790	50.5190
 0.9800	50.5350
 0.9810	50.5630
 0.9820	50.5900
 0.9830	50.6040
 0.9840	50.6420
 0.9850	50.6870
 0.9860	50.7110
 0.9870	50.7450
 0.9880	50.7760
 0.9890	50.8140
 0.9900	50.8740
 0.9910	50.9160
 0.9920	50.9690
 0.9930	51.0310
 0.9940	51.0860
 0.9950	51.1670
 0.9960	51.2210
 0.9970	51.2670
 0.9980	51.3430
 0.9990	51.4260
 1.0000	51.5430
 1.0010	51.6580
 1.0020	51.7780
 1.0030	51.8410
 1.0040	51.9050
 1.0050	51.9680
 1.0060	52.0320
 1.0070	52.0950
 1.0080	52.1600
 1.0090	52.2270
 1.0100	52.2900
 1.0110	52.3530
 1.0120	52.4170
 1.0130	52.4760
 1.0140	52.5390
 1.0150	52.6040
 1.0160	52.6700
 1.0170	52.7380
 1.0180	52.8000
 1.0190	52.8580
 1.0200	52.9210
 1.0210	52.9780
 1.0220	53.0340
 1.0230	53.0950
 1.0240	53.1610
 1.0250	53.2210
 1.0260	53.2830
 1.0270	53.3410
 1.0280	53.3950
 1.0290	53.4480
 1.0300	53.5000
 1.0310	53.5520
 1.0320	53.6040
 1.0330	53.6550
 1.0340	53.7080
 1.0350	53.7590
 1.0360	53.8090
 1.0370	53.8600
 1.0380	53.9080
 1.0390	53.9560
 1.0400	54.0010
 1.0410	54.0430
 1.0420	54.0850
 1.0430	54.1240
 1.0440	54.1630
 1.0450	54.2040
 1.0460	54.2400
 1.0470	54.2690
 1.0480	54.3010
 1.0490	54.3310
 1.0500	54.3610
 1.0510	54.3910
 1.0520	54.4200
 1.0530	54.4470
 1.0540	54.4700
 1.0550	54.4930
 1.0560	54.5150
 1.0570	54.5360
 1.0580	54.5570
 1.0590	54.5740
 1.0600	54.5920
 1.0610	54.6040
 1.0620	54.6090
 1.0630	54.6190
 1.0640	54.6300
 1.0650	54.6400
 1.0660	54.6530
 1.0670	54.6610
 1.0680	54.6650
 1.0690	54.6640
 1.0700	54.6640
 1.0710	54.6610
 1.0720	54.6600
 1.0730	54.6610
 1.0740	54.6580
 1.0750	54.6530
 1.0760	54.6470
 1.0770	54.6380
 1.0780	54.6280
 1.0790	54.6180
 1.0800	54.6060
 1.0810	54.5940
 1.0820	54.5790
 1.0830	54.5620
 1.0840	54.5450
 1.0850	54.5280
 1.0860	54.5090
 1.0870	54.4860
 1.0880	54.4620
 1.0890	54.4360
 1.0900	54.4030
 1.0910	54.3770
 1.0920	54.3540
 1.0930	54.3260
 1.0940	54.2980
 1.0950	54.2680
 1.0960	54.2370
 1.0970	54.2050
 1.0980	54.1740
 1.0990	54.1410
 1.1000	54.1020
 1.1010	54.0660
 1.1020	54.0280
 1.1030	53.9910
 1.1040	53.9580
 1.1050	53.9240
 1.1060	53.8850
 1.1070	53.8460
 1.1080	53.8030
 1.1090	53.7540
 1.1100	53.7080
 1.1110	53.6640
 1.1120	53.6160
 1.1130	53.5710
 1.1140	53.5160
 1.1150	53.4550
 1.1160	53.3930
 1.1170	53.3320
 1.1180	53.2620
 1.1190	53.1890
 1.1200	53.1120
 1.1210	53.0270
 1.1220	52.9350
 1.1230	52.8370
 1.1240	52.7270
 1.1250	52.6060
 1.1260	52.4760
 1.1270	52.3300
 1.1280	52.1740
 1.1290	52.0010
 1.1300	51.8140
 1.1310	51.6080
 1.1320	51.3840
 1.1330	51.1480
 1.1340	50.8940
 1.1350	50.6270
 1.1360	50.3470
 1.1370	50.0510
 1.1380	49.7430
 1.1390	49.4270
 1.1400	49.1000
 1.1410	48.7720
 1.1420	48.4420
 1.1430	48.1070
 1.1440	47.7800
 1.1450	47.4500
 1.1460	47.1350
 1.1470	46.8210
 1.1480	46.5260
 1.1490	46.2400
 1.1500	45.9730
 1.1510	45.7190
 1.1520	45.4840
 1.1530	45.2650
 1.1540	45.0660
 1.1550	44.8860
 1.1560	44.7210
 1.1570	44.5730
 1.1580	44.4430
 1.1590	44.3260
 1.1600	44.2210
 1.1610	44.1290
 1.1620	44.0480
 1.1630	43.9760
 1.1640	43.9100
 1.1650	43.8530
 1.1660	43.8060
 1.1670	43.7600
 1.1680	43.7220
 1.1690	43.6850
 1.1700	43.6540
 1.1710	43.6210
 1.1720	43.5900
 1.1730	43.5580
 1.1740	43.5250
 1.1750	43.4910
 1.1760	43.4540
 1.1770	43.4180
 1.1780	43.3800
 1.1790	43.3400
 1.1800	43.2980
 1.1810	43.2550
 1.1820	43.2110
 1.1830	43.1650
 1.1840	43.1210
 1.1850	43.0790
 1.1860	43.0360
 1.1870	42.9950
 1.1880	42.9570
 1.1890	42.9210
 1.1900	42.8870
 1.1910	42.8540
 1.1920	42.8270
 1.1930	42.8020
 1.1940	42.7810
 1.1950	42.7630
 1.1960	42.7510
 1.1970	42.7440
 1.1980	42.7400
 1.1990	42.7430
 1.2000	42.7510
 1.2010	42.7600
 1.2020	42.7720
 1.2030	42.7880
 1.2040	42.8070
 1.2050	42.8310
 1.2060	42.8590
 1.2070	42.8910
 1.2080	42.9270
 1.2090	42.9680
 1.2100	43.0120
 1.2110	43.0590
 1.2120	43.1090
 1.2130	43.1620
 1.2140	43.2180
 1.2150	43.2780
 1.2160	43.3400
 1.2170	43.4060
 1.2180	43.4740
 1.2190	43.5440
 1.2200	43.6150
 1.2210	43.6880
 1.2220	43.7610
 1.2230	43.8340
 1.2240	43.9080
 1.2250	43.9810
 1.2260	44.0530
 1.2270	44.1260
 1.2280	44.1970
 1.2290	44.2680
 1.2300	44.3390
 1.2310	44.4060
 1.2320	44.4700
 1.2330	44.5320
 1.2340	44.5920
 1.2350	44.6500
 1.2360	44.7070
 1.2370	44.7630
 1.2380	44.8170
 1.2390	44.8690
 1.2400	44.9210
 1.2410	44.9720
 1.2420	45.0200
 1.2430	45.0700
 1.2440	45.1170
 1.2450	45.1610
 1.2460	45.2070
 1.2470	45.2490
 1.2480	45.2870
 1.2490	45.3250
 1.2500	45.3570
 1.2510	45.3880
 1.2520	45.4200
 1.2530	45.4500
 1.2540	45.4800
 1.2550	45.5060
 1.2560	45.5320
 1.2570	45.5570
 1.2580	45.5780
 1.2590	45.5960
 1.2600	45.6110
 1.2610	45.6230
 1.2620	45.6320
 1.2630	45.6420
 1.2640	45.6510
 1.2650	45.6590
 1.2660	45.6650
 1.2670	45.6660
 1.2680	45.6660
 1.2690	45.6660
 1.2700	45.6640
 1.2710	45.6610
 1.2720	45.6560
 1.2730	45.6470
 1.2740	45.6380
 1.2750	45.6260
 1.2760	45.6120
 1.2770	45.5980
 1.2780	45.5820
 1.2790	45.5620
 1.2800	45.5390
 1.2810	45.5120
 1.2820	45.4810
 1.2830	45.4460
 1.2840	45.4110
 1.2850	45.3710
 1.2860	45.3260
 1.2870	45.2780
 1.2880	45.2260
 1.2890	45.1700
 1.2900	45.1090
 1.2910	45.0430
 1.2920	44.9730
 1.2930	44.8990
 1.2940	44.8200
 1.2950	44.7370
 1.2960	44.6510
 1.2970	44.5590
 1.2980	44.4620
 1.2990	44.3570
 1.3000	44.2470
 1.3010	44.1340
 1.3020	44.0150
 1.3030	43.8930
 1.3040	43.7680
 1.3050	43.6360
 1.3060	43.4980
 1.3070	43.3570
 1.3080	43.2120
 1.3090	43.0590
 1.3100	42.9020
 1.3110	42.7410
 1.3120	42.5720
 1.3130	42.4010
 1.3140	42.2250
 1.3150	42.0450
 1.3160	41.8600
 1.3170	41.6720
 1.3180	41.4790
 1.3190	41.2790
 1.3200	41.0770
 1.3210	40.8690
 1.3220	40.6570
 1.3230	40.4430
 1.3240	40.2250
 1.3250	40.0060
 1.3260	39.7840
 1.3270	39.5560
 1.3280	39.3280
 1.3290	39.0960
 1.3300	38.8610
 1.3310	38.6270
 1.3320	38.3920
 1.3330	38.1590
 1.3340	37.9260
 1.3350	37.6930
 1.3360	37.4600
 1.3370	37.2260
 1.3380	36.9970
 1.3390	36.7690
 1.3400	36.5430
 1.3410	36.3230
 1.3420	36.1030
 1.3430	35.8850
 1.3440	35.6700
 1.3450	35.4590
 1.3460	35.2490
 1.3470	35.0450
 1.3480	34.8460
 1.3490	34.6500
 1.3500	34.4580
 1.3510	34.2680
 1.3520	34.0790
 1.3530	33.8940
 1.3540	33.7090
 1.3550	33.5270
 1.3560	33.3450
 1.3570	33.1620
 1.3580	32.9800
 1.3590	32.7940
 1.3600	32.6050
 1.3610	32.4150
 1.3620	32.2180
 1.3630	32.0160
 1.3640	31.8080
 1.3650	31.5910
 1.3660	31.3690
 1.3670	31.1380
 1.3680	30.8960
 1.3690	30.6430
 1.3700	30.3740
 1.3710	30.0950
 1.3720	29.8020
 1.3730	29.4940
 1.3740	29.1740
 1.3750	28.8390
 1.3760	28.4840
 1.3770	28.1130
 1.3780	27.7190
 1.3790	27.3070
 1.3800	26.8800
 1.3810	26.4320
 1.3820	25.9740
 1.3830	25.5010
 1.3840	25.0180
 1.3850	24.5210
 1.3860	24.0220
 1.3870	23.5090
 1.3880	23.0020
 1.3890	22.4920
 1.3900	21.9820
 1.3910	21.4820
 1.3920	20.9850
 1.3930	20.4920
 1.3940	20.0110
 1.3950	19.5360
 1.3960	19.0750
 1.3970	18.6310
 1.3980	18.2010
 1.3990	17.7920
 1.4000	17.3980
 1.4010	17.0190
 1.4020	16.6620
 1.4030	16.3190
 1.4040	15.9950
 1.4050	15.6920
 1.4060	15.4060
 1.4070	15.1400
 1.4080	14.8910
 1.4090	14.6560
 1.4100	14.4380
 1.4110	14.2340
 1.4120	14.0450
 1.4130	13.8710
 1.4140	13.7090
 1.4150	13.5620
 1.4160	13.4260
 1.4170	13.2990
 1.4180	13.1830
 1.4190	13.0760
 1.4200	12.9780
 1.4210	12.8870
 1.4220	12.8050
 1.4230	12.7300
 1.4240	12.6620
 1.4250	12.6000
 1.4260	12.5450
 1.4270	12.4940
 1.4280	12.4500
 1.4290	12.4090
 1.4300	12.3730
 1.4310	12.3410
 1.4320	12.3140
 1.4330	12.2890
 1.4340	12.2680
 1.4350	12.2510
 1.4360	12.2370
 1.4370	12.2250
 1.4380	12.2170
 1.4390	12.2120
 1.4400	12.2070
 1.4410	12.2050
 1.4420	12.2040
 1.4430	12.2060
 1.4440	12.2110
 1.4450	12.2170
 1.4460	12.2230
 1.4470	12.2320
 1.4480	12.2410
 1.4490	12.2500
 1.4500	12.2610
 1.4510	12.2720
 1.4520	12.2840
 1.4530	12.2970
 1.4540	12.3120
 1.4550	12.3270
 1.4560	12.3430
 1.4570	12.3620
 1.4580	12.3830
 1.4590	12.4050
 1.4600	12.4290
 1.4610	12.4540
 1.4620	12.4830
 1.4630	12.5150
 1.4640	12.5510
 1.4650	12.5890
 1.4660	12.6300
 1.4670	12.6730
 1.4680	12.7190
 1.4690	12.7670
 1.4700	12.8180
