Name: Ceanothus megacarpus 2
Type: vegetation
Class: Shrub
Genus: Ceanothus
Species: megacarpus
Sample No.: VH214
Owner: UCSB
Wavelength Range: VSWIR
Origin: 34.4909; -119.7914; WGS84
Collection Date: 10/13/2013
Description: Samples were collected as part of the HyspIRI Airborne Campaign. 48 individual plants were sampled in three times in 2013 - spring  summer  and fall. The name of the sample includes a 1  2  or 3 which references a different individual of the species. Samples were taken to JPL and processed within 48 hours of collection. The same leaves were processed in the Nicolet and then measured using the ASD.
Measurement: Bidirectional reflectance
First Column: X
Second Column: Y
X Units: Wavelength (micrometers)
Y Units: Reflectance (percentage)
First X Value: 0.35
Last X Value: 2.5
Number of X Values: 2151
Additional Information: vegetation.shrub.ceanothus.megacarpus.vswir.vh214.ucsb.asd.ancillary.txt

 0.3500	 6.3690
 0.3510	 6.2930
 0.3520	 6.0820
 0.3530	 5.9240
 0.3540	 5.9270
 0.3550	 5.8520
 0.3560	 5.8250
 0.3570	 5.8720
 0.3580	 5.9510
 0.3590	 5.9370
 0.3600	 5.8830
 0.3610	 5.8260
 0.3620	 5.7480
 0.3630	 5.7550
 0.3640	 5.8240
 0.3650	 5.8820
 0.3660	 5.8520
 0.3670	 5.7120
 0.3680	 5.5980
 0.3690	 5.7070
 0.3700	 5.7220
 0.3710	 5.6850
 0.3720	 5.6700
 0.3730	 5.7170
 0.3740	 5.7780
 0.3750	 5.7840
 0.3760	 5.7010
 0.3770	 5.6650
 0.3780	 5.7030
 0.3790	 5.7680
 0.3800	 5.7620
 0.3810	 5.7450
 0.3820	 5.7550
 0.3830	 5.7740
 0.3840	 5.6740
 0.3850	 5.5280
 0.3860	 5.5000
 0.3870	 5.7020
 0.3880	 5.7780
 0.3890	 5.7570
 0.3900	 5.7040
 0.3910	 5.6880
 0.3920	 5.6150
 0.3930	 5.5920
 0.3940	 5.6800
 0.3950	 5.7170
 0.3960	 5.7170
 0.3970	 5.6720
 0.3980	 5.5930
 0.3990	 5.6190
 0.4000	 5.6920
 0.4010	 5.7230
 0.4020	 5.6130
 0.4030	 5.5980
 0.4040	 5.6470
 0.4050	 5.6770
 0.4060	 5.6930
 0.4070	 5.6460
 0.4080	 5.5990
 0.4090	 5.6680
 0.4100	 5.7020
 0.4110	 5.7180
 0.4120	 5.7270
 0.4130	 5.6940
 0.4140	 5.6640
 0.4150	 5.6810
 0.4160	 5.7540
 0.4170	 5.7490
 0.4180	 5.7270
 0.4190	 5.7360
 0.4200	 5.7970
 0.4210	 5.8360
 0.4220	 5.8460
 0.4230	 5.8460
 0.4240	 5.8810
 0.4250	 5.9120
 0.4260	 5.9360
 0.4270	 5.9620
 0.4280	 5.9890
 0.4290	 6.0110
 0.4300	 6.0340
 0.4310	 6.0710
 0.4320	 6.0920
 0.4330	 6.1210
 0.4340	 6.1700
 0.4350	 6.1590
 0.4360	 6.1830
 0.4370	 6.2370
 0.4380	 6.2470
 0.4390	 6.2430
 0.4400	 6.2590
 0.4410	 6.3080
 0.4420	 6.3480
 0.4430	 6.3640
 0.4440	 6.3650
 0.4450	 6.3690
 0.4460	 6.3990
 0.4470	 6.4260
 0.4480	 6.4330
 0.4490	 6.4200
 0.4500	 6.4330
 0.4510	 6.4590
 0.4520	 6.4810
 0.4530	 6.4980
 0.4540	 6.5220
 0.4550	 6.5470
 0.4560	 6.5540
 0.4570	 6.5620
 0.4580	 6.5580
 0.4590	 6.5470
 0.4600	 6.5640
 0.4610	 6.5960
 0.4620	 6.6150
 0.4630	 6.6040
 0.4640	 6.6190
 0.4650	 6.6310
 0.4660	 6.6300
 0.4670	 6.6250
 0.4680	 6.6460
 0.4690	 6.6610
 0.4700	 6.6520
 0.4710	 6.6800
 0.4720	 6.6980
 0.4730	 6.6990
 0.4740	 6.6990
 0.4750	 6.6970
 0.4760	 6.6970
 0.4770	 6.7050
 0.4780	 6.7280
 0.4790	 6.7320
 0.4800	 6.7240
 0.4810	 6.7250
 0.4820	 6.7360
 0.4830	 6.7440
 0.4840	 6.7450
 0.4850	 6.7470
 0.4860	 6.7580
 0.4870	 6.7700
 0.4880	 6.7770
 0.4890	 6.7760
 0.4900	 6.8020
 0.4910	 6.8350
 0.4920	 6.8440
 0.4930	 6.8790
 0.4940	 6.9140
 0.4950	 6.9390
 0.4960	 6.9750
 0.4970	 7.0130
 0.4980	 7.0540
 0.4990	 7.0990
 0.5000	 7.1340
 0.5010	 7.1740
 0.5020	 7.2260
 0.5030	 7.2900
 0.5040	 7.3440
 0.5050	 7.4130
 0.5060	 7.5070
 0.5070	 7.5910
 0.5080	 7.6770
 0.5090	 7.7690
 0.5100	 7.8650
 0.5110	 7.9750
 0.5120	 8.1010
 0.5130	 8.2370
 0.5140	 8.3700
 0.5150	 8.5220
 0.5160	 8.6840
 0.5170	 8.8470
 0.5180	 9.0190
 0.5190	 9.1990
 0.5200	 9.3880
 0.5210	 9.5850
 0.5220	 9.7830
 0.5230	 9.9910
 0.5240	10.2070
 0.5250	10.4050
 0.5260	10.6060
 0.5270	10.8130
 0.5280	11.0200
 0.5290	11.2230
 0.5300	11.4210
 0.5310	11.6150
 0.5320	11.8010
 0.5330	11.9810
 0.5340	12.1580
 0.5350	12.3310
 0.5360	12.4920
 0.5370	12.6490
 0.5380	12.8020
 0.5390	12.9460
 0.5400	13.0790
 0.5410	13.2070
 0.5420	13.3330
 0.5430	13.4480
 0.5440	13.5670
 0.5450	13.6890
 0.5460	13.8010
 0.5470	13.9210
 0.5480	14.0350
 0.5490	14.1330
 0.5500	14.2200
 0.5510	14.2880
 0.5520	14.3460
 0.5530	14.4040
 0.5540	14.4450
 0.5550	14.4700
 0.5560	14.4840
 0.5570	14.4890
 0.5580	14.4850
 0.5590	14.4660
 0.5600	14.4330
 0.5610	14.3950
 0.5620	14.3430
 0.5630	14.2800
 0.5640	14.2150
 0.5650	14.1470
 0.5660	14.0720
 0.5670	13.9910
 0.5680	13.9090
 0.5690	13.8260
 0.5700	13.7380
 0.5710	13.6440
 0.5720	13.5410
 0.5730	13.4480
 0.5740	13.3700
 0.5750	13.2970
 0.5760	13.2200
 0.5770	13.1500
 0.5780	13.0920
 0.5790	13.0230
 0.5800	12.9650
 0.5810	12.9110
 0.5820	12.8500
 0.5830	12.7940
 0.5840	12.7350
 0.5850	12.6750
 0.5860	12.6260
 0.5870	12.5800
 0.5880	12.5330
 0.5890	12.4850
 0.5900	12.4470
 0.5910	12.4140
 0.5920	12.3840
 0.5930	12.3540
 0.5940	12.3310
 0.5950	12.3160
 0.5960	12.3060
 0.5970	12.2810
 0.5980	12.2530
 0.5990	12.2220
 0.6000	12.1890
 0.6010	12.1550
 0.6020	12.1190
 0.6030	12.0800
 0.6040	12.0390
 0.6050	11.9930
 0.6060	11.9420
 0.6070	11.8860
 0.6080	11.8280
 0.6090	11.7610
 0.6100	11.6840
 0.6110	11.6050
 0.6120	11.5430
 0.6130	11.4920
 0.6140	11.4430
 0.6150	11.3810
 0.6160	11.3220
 0.6170	11.2700
 0.6180	11.2220
 0.6190	11.1770
 0.6200	11.1310
 0.6210	11.0890
 0.6220	11.0630
 0.6230	11.0400
 0.6240	11.0210
 0.6250	11.0070
 0.6260	10.9980
 0.6270	10.9920
 0.6280	10.9890
 0.6290	10.9900
 0.6300	10.9850
 0.6310	10.9800
 0.6320	10.9750
 0.6330	10.9630
 0.6340	10.9370
 0.6350	10.8960
 0.6360	10.8420
 0.6370	10.7720
 0.6380	10.6860
 0.6390	10.5820
 0.6400	10.4580
 0.6410	10.3320
 0.6420	10.2040
 0.6430	10.0720
 0.6440	 9.9340
 0.6450	 9.8010
 0.6460	 9.6730
 0.6470	 9.5520
 0.6480	 9.4460
 0.6490	 9.3570
 0.6500	 9.2800
 0.6510	 9.2040
 0.6520	 9.1490
 0.6530	 9.1010
 0.6540	 9.0480
 0.6550	 8.9970
 0.6560	 8.9390
 0.6570	 8.8780
 0.6580	 8.8160
 0.6590	 8.7400
 0.6600	 8.6550
 0.6610	 8.5690
 0.6620	 8.4840
 0.6630	 8.3980
 0.6640	 8.3170
 0.6650	 8.2440
 0.6660	 8.1660
 0.6670	 8.1040
 0.6680	 8.0570
 0.6690	 8.0140
 0.6700	 7.9770
 0.6710	 7.9490
 0.6720	 7.9320
 0.6730	 7.9230
 0.6740	 7.9190
 0.6750	 7.9220
 0.6760	 7.9310
 0.6770	 7.9410
 0.6780	 7.9650
 0.6790	 8.0030
 0.6800	 8.0470
 0.6810	 8.1050
 0.6820	 8.1830
 0.6830	 8.2840
 0.6840	 8.4140
 0.6850	 8.5860
 0.6860	 8.8020
 0.6870	 9.0640
 0.6880	 9.3850
 0.6890	 9.7770
 0.6900	10.2440
 0.6910	10.7910
 0.6920	11.4200
 0.6930	12.1340
 0.6940	12.9330
 0.6950	13.8130
 0.6960	14.7730
 0.6970	15.8010
 0.6980	16.8850
 0.6990	18.0390
 0.7000	19.2290
 0.7010	20.4410
 0.7020	21.6780
 0.7030	22.9440
 0.7040	24.2040
 0.7050	25.4340
 0.7060	26.6620
 0.7070	27.8660
 0.7080	29.0380
 0.7090	30.1780
 0.7100	31.2900
 0.7110	32.3590
 0.7120	33.3820
 0.7130	34.3730
 0.7140	35.3300
 0.7150	36.2450
 0.7160	37.1120
 0.7170	37.9310
 0.7180	38.7200
 0.7190	39.4780
 0.7200	40.2000
 0.7210	40.8850
 0.7220	41.5300
 0.7230	42.1410
 0.7240	42.7310
 0.7250	43.2840
 0.7260	43.8000
 0.7270	44.2810
 0.7280	44.7420
 0.7290	45.1810
 0.7300	45.5880
 0.7310	45.9570
 0.7320	46.3180
 0.7330	46.6520
 0.7340	46.9620
 0.7350	47.2700
 0.7360	47.5500
 0.7370	47.8040
 0.7380	48.0400
 0.7390	48.2620
 0.7400	48.4870
 0.7410	48.7060
 0.7420	48.8990
 0.7430	49.0790
 0.7440	49.2450
 0.7450	49.4000
 0.7460	49.5470
 0.7470	49.6780
 0.7480	49.8110
 0.7490	49.9460
 0.7500	50.0430
 0.7510	50.1400
 0.7520	50.2380
 0.7530	50.3280
 0.7540	50.4240
 0.7550	50.4970
 0.7560	50.5520
 0.7570	50.6230
 0.7580	50.6700
 0.7590	50.7260
 0.7600	50.8020
 0.7610	50.8490
 0.7620	50.8820
 0.7630	50.9150
 0.7640	50.9560
 0.7650	50.9980
 0.7660	51.0320
 0.7670	51.0600
 0.7680	51.0910
 0.7690	51.1210
 0.7700	51.1440
 0.7710	51.1650
 0.7720	51.1990
 0.7730	51.2260
 0.7740	51.2490
 0.7750	51.2730
 0.7760	51.2790
 0.7770	51.2910
 0.7780	51.3210
 0.7790	51.3630
 0.7800	51.3640
 0.7810	51.3740
 0.7820	51.4060
 0.7830	51.4280
 0.7840	51.4390
 0.7850	51.4560
 0.7860	51.4830
 0.7870	51.5030
 0.7880	51.5110
 0.7890	51.5220
 0.7900	51.5440
 0.7910	51.5530
 0.7920	51.5790
 0.7930	51.6090
 0.7940	51.6120
 0.7950	51.6270
 0.7960	51.6420
 0.7970	51.6510
 0.7980	51.6630
 0.7990	51.6880
 0.8000	51.7170
 0.8010	51.7420
 0.8020	51.7700
 0.8030	51.7850
 0.8040	51.7890
 0.8050	51.7930
 0.8060	51.8180
 0.8070	51.8300
 0.8080	51.8320
 0.8090	51.8560
 0.8100	51.8820
 0.8110	51.8980
 0.8120	51.9050
 0.8130	51.9140
 0.8140	51.9300
 0.8150	51.9490
 0.8160	51.9650
 0.8170	51.9780
 0.8180	52.0020
 0.8190	52.0340
 0.8200	52.0580
 0.8210	52.0420
 0.8220	52.0450
 0.8230	52.0730
 0.8240	52.0810
 0.8250	52.1080
 0.8260	52.1240
 0.8270	52.1240
 0.8280	52.1630
 0.8290	52.1680
 0.8300	52.1610
 0.8310	52.1690
 0.8320	52.1630
 0.8330	52.1770
 0.8340	52.1990
 0.8350	52.2020
 0.8360	52.2070
 0.8370	52.2220
 0.8380	52.2400
 0.8390	52.2400
 0.8400	52.2540
 0.8410	52.2690
 0.8420	52.2790
 0.8430	52.2830
 0.8440	52.2930
 0.8450	52.3130
 0.8460	52.3430
 0.8470	52.3690
 0.8480	52.3720
 0.8490	52.3640
 0.8500	52.3670
 0.8510	52.4010
 0.8520	52.4160
 0.8530	52.4120
 0.8540	52.4180
 0.8550	52.4300
 0.8560	52.4470
 0.8570	52.4650
 0.8580	52.4770
 0.8590	52.4590
 0.8600	52.4580
 0.8610	52.4830
 0.8620	52.4800
 0.8630	52.4800
 0.8640	52.4980
 0.8650	52.5300
 0.8660	52.5240
 0.8670	52.5190
 0.8680	52.5290
 0.8690	52.5510
 0.8700	52.5420
 0.8710	52.5620
 0.8720	52.5910
 0.8730	52.5770
 0.8740	52.5800
 0.8750	52.5770
 0.8760	52.5700
 0.8770	52.5850
 0.8780	52.6110
 0.8790	52.6140
 0.8800	52.5990
 0.8810	52.6160
 0.8820	52.6120
 0.8830	52.6070
 0.8840	52.6200
 0.8850	52.6330
 0.8860	52.6300
 0.8870	52.6220
 0.8880	52.6210
 0.8890	52.6180
 0.8900	52.6280
 0.8910	52.6430
 0.8920	52.6440
 0.8930	52.6310
 0.8940	52.6240
 0.8950	52.6160
 0.8960	52.5880
 0.8970	52.5970
 0.8980	52.6080
 0.8990	52.5980
 0.9000	52.5650
 0.9010	52.5540
 0.9020	52.5610
 0.9030	52.5720
 0.9040	52.5770
 0.9050	52.5810
 0.9060	52.5820
 0.9070	52.5770
 0.9080	52.5570
 0.9090	52.5460
 0.9100	52.5520
 0.9110	52.5620
 0.9120	52.5330
 0.9130	52.5220
 0.9140	52.5290
 0.9150	52.5360
 0.9160	52.5270
 0.9170	52.5220
 0.9180	52.5190
 0.9190	52.5120
 0.9200	52.5210
 0.9210	52.5150
 0.9220	52.4810
 0.9230	52.4310
 0.9240	52.4360
 0.9250	52.4520
 0.9260	52.4550
 0.9270	52.4400
 0.9280	52.3990
 0.9290	52.3710
 0.9300	52.3550
 0.9310	52.3200
 0.9320	52.3120
 0.9330	52.2980
 0.9340	52.2740
 0.9350	52.2790
 0.9360	52.2610
 0.9370	52.2210
 0.9380	52.1710
 0.9390	52.1270
 0.9400	52.0970
 0.9410	52.0680
 0.9420	52.0330
 0.9430	51.9970
 0.9440	51.9680
 0.9450	51.9290
 0.9460	51.8750
 0.9470	51.8400
 0.9480	51.8090
 0.9490	51.7480
 0.9500	51.6520
 0.9510	51.5980
 0.9520	51.5290
 0.9530	51.4400
 0.9540	51.3420
 0.9550	51.2450
 0.9560	51.1810
 0.9570	51.1160
 0.9580	51.0210
 0.9590	50.9700
 0.9600	50.8960
 0.9610	50.8070
 0.9620	50.7330
 0.9630	50.6500
 0.9640	50.5810
 0.9650	50.5380
 0.9660	50.5170
 0.9670	50.4540
 0.9680	50.4050
 0.9690	50.3850
 0.9700	50.3800
 0.9710	50.3610
 0.9720	50.3450
 0.9730	50.3140
 0.9740	50.2580
 0.9750	50.2700
 0.9760	50.2590
 0.9770	50.2290
 0.9780	50.2290
 0.9790	50.2580
 0.9800	50.2770
 0.9810	50.2590
 0.9820	50.2110
 0.9830	50.2450
 0.9840	50.2460
 0.9850	50.2440
 0.9860	50.3170
 0.9870	50.3710
 0.9880	50.3950
 0.9890	50.3990
 0.9900	50.4060
 0.9910	50.4660
 0.9920	50.5430
 0.9930	50.6190
 0.9940	50.6960
 0.9950	50.7730
 0.9960	50.8490
 0.9970	50.9260
 0.9980	51.0020
 0.9990	51.0790
 1.0000	51.1560
 1.0010	51.2320
 1.0020	51.3090
 1.0030	51.3860
 1.0040	51.4620
 1.0050	51.5390
 1.0060	51.6150
 1.0070	51.6920
 1.0080	51.7690
 1.0090	51.8450
 1.0100	51.8450
 1.0110	51.8850
 1.0120	51.9240
 1.0130	51.9570
 1.0140	51.9980
 1.0150	52.0440
 1.0160	52.0850
 1.0170	52.1260
 1.0180	52.1680
 1.0190	52.2210
 1.0200	52.2660
 1.0210	52.3140
 1.0220	52.3670
 1.0230	52.4090
 1.0240	52.4410
 1.0250	52.4790
 1.0260	52.5130
 1.0270	52.5480
 1.0280	52.5880
 1.0290	52.6200
 1.0300	52.6450
 1.0310	52.6760
 1.0320	52.7070
 1.0330	52.7340
 1.0340	52.7620
 1.0350	52.8010
 1.0360	52.8460
 1.0370	52.8790
 1.0380	52.9090
 1.0390	52.9410
 1.0400	52.9670
 1.0410	52.9780
 1.0420	53.0000
 1.0430	53.0280
 1.0440	53.0520
 1.0450	53.0810
 1.0460	53.1030
 1.0470	53.1230
 1.0480	53.1400
 1.0490	53.1480
 1.0500	53.1650
 1.0510	53.1820
 1.0520	53.2110
 1.0530	53.2340
 1.0540	53.2650
 1.0550	53.2850
 1.0560	53.2990
 1.0570	53.3130
 1.0580	53.3270
 1.0590	53.3350
 1.0600	53.3380
 1.0610	53.3440
 1.0620	53.3440
 1.0630	53.3510
 1.0640	53.3630
 1.0650	53.3770
 1.0660	53.4010
 1.0670	53.4160
 1.0680	53.4290
 1.0690	53.4420
 1.0700	53.4490
 1.0710	53.4510
 1.0720	53.4520
 1.0730	53.4470
 1.0740	53.4490
 1.0750	53.4470
 1.0760	53.4510
 1.0770	53.4630
 1.0780	53.4690
 1.0790	53.4760
 1.0800	53.4800
 1.0810	53.4840
 1.0820	53.4860
 1.0830	53.4870
 1.0840	53.4860
 1.0850	53.4790
 1.0860	53.4730
 1.0870	53.4730
 1.0880	53.4750
 1.0890	53.4720
 1.0900	53.4710
 1.0910	53.4680
 1.0920	53.4620
 1.0930	53.4520
 1.0940	53.4390
 1.0950	53.4290
 1.0960	53.4170
 1.0970	53.4020
 1.0980	53.3950
 1.0990	53.3770
 1.1000	53.3400
 1.1010	53.3170
 1.1020	53.2970
 1.1030	53.2780
 1.1040	53.2660
 1.1050	53.2540
 1.1060	53.2370
 1.1070	53.2200
 1.1080	53.1950
 1.1090	53.1670
 1.1100	53.1370
 1.1110	53.0970
 1.1120	53.0640
 1.1130	53.0370
 1.1140	53.0010
 1.1150	52.9690
 1.1160	52.9260
 1.1170	52.8750
 1.1180	52.8180
 1.1190	52.7500
 1.1200	52.6790
 1.1210	52.6060
 1.1220	52.5340
 1.1230	52.4620
 1.1240	52.3830
 1.1250	52.2990
 1.1260	52.2070
 1.1270	52.1150
 1.1280	52.0210
 1.1290	51.9210
 1.1300	51.8190
 1.1310	51.7090
 1.1320	51.5880
 1.1330	51.4650
 1.1340	51.3410
 1.1350	51.2080
 1.1360	51.0680
 1.1370	50.9240
 1.1380	50.7750
 1.1390	50.6190
 1.1400	50.4590
 1.1410	50.2950
 1.1420	50.1190
 1.1430	49.9360
 1.1440	49.7510
 1.1450	49.5550
 1.1460	49.3640
 1.1470	49.1670
 1.1480	48.9800
 1.1490	48.7910
 1.1500	48.6110
 1.1510	48.4330
 1.1520	48.2680
 1.1530	48.1100
 1.1540	47.9610
 1.1550	47.8210
 1.1560	47.6940
 1.1570	47.5690
 1.1580	47.4620
 1.1590	47.3650
 1.1600	47.2710
 1.1610	47.1970
 1.1620	47.1310
 1.1630	47.0730
 1.1640	47.0310
 1.1650	46.9920
 1.1660	46.9600
 1.1670	46.9320
 1.1680	46.9130
 1.1690	46.8930
 1.1700	46.8740
 1.1710	46.8590
 1.1720	46.8470
 1.1730	46.8370
 1.1740	46.8310
 1.1750	46.8230
 1.1760	46.8210
 1.1770	46.8190
 1.1780	46.8060
 1.1790	46.7970
 1.1800	46.7820
 1.1810	46.7560
 1.1820	46.7300
 1.1830	46.7070
 1.1840	46.6830
 1.1850	46.6550
 1.1860	46.6370
 1.1870	46.6230
 1.1880	46.6070
 1.1890	46.5930
 1.1900	46.5800
 1.1910	46.5650
 1.1920	46.5520
 1.1930	46.5420
 1.1940	46.5350
 1.1950	46.5280
 1.1960	46.5220
 1.1970	46.5190
 1.1980	46.5190
 1.1990	46.5200
 1.2000	46.5270
 1.2010	46.5420
 1.2020	46.5550
 1.2030	46.5730
 1.2040	46.5950
 1.2050	46.6130
 1.2060	46.6360
 1.2070	46.6600
 1.2080	46.6890
 1.2090	46.7230
 1.2100	46.7580
 1.2110	46.7950
 1.2120	46.8290
 1.2130	46.8700
 1.2140	46.9190
 1.2150	46.9670
 1.2160	47.0190
 1.2170	47.0720
 1.2180	47.1220
 1.2190	47.1650
 1.2200	47.2140
 1.2210	47.2670
 1.2220	47.3200
 1.2230	47.3720
 1.2240	47.4220
 1.2250	47.4750
 1.2260	47.5270
 1.2270	47.5770
 1.2280	47.6300
 1.2290	47.6760
 1.2300	47.7250
 1.2310	47.7760
 1.2320	47.8150
 1.2330	47.8580
 1.2340	47.9030
 1.2350	47.9450
 1.2360	47.9880
 1.2370	48.0370
 1.2380	48.0820
 1.2390	48.1220
 1.2400	48.1540
 1.2410	48.1880
 1.2420	48.2230
 1.2430	48.2550
 1.2440	48.2900
 1.2450	48.3240
 1.2460	48.3530
 1.2470	48.3810
 1.2480	48.4010
 1.2490	48.4220
 1.2500	48.4510
 1.2510	48.4790
 1.2520	48.5110
 1.2530	48.5320
 1.2540	48.5400
 1.2550	48.5530
 1.2560	48.5620
 1.2570	48.5750
 1.2580	48.5970
 1.2590	48.6140
 1.2600	48.6280
 1.2610	48.6420
 1.2620	48.6570
 1.2630	48.6670
 1.2640	48.6700
 1.2650	48.6820
 1.2660	48.6900
 1.2670	48.6860
 1.2680	48.6840
 1.2690	48.6780
 1.2700	48.6710
 1.2710	48.6730
 1.2720	48.6770
 1.2730	48.6760
 1.2740	48.6660
 1.2750	48.6530
 1.2760	48.6430
 1.2770	48.6330
 1.2780	48.6210
 1.2790	48.6060
 1.2800	48.5930
 1.2810	48.5800
 1.2820	48.5630
 1.2830	48.5500
 1.2840	48.5280
 1.2850	48.5020
 1.2860	48.4790
 1.2870	48.4520
 1.2880	48.4200
 1.2890	48.3920
 1.2900	48.3620
 1.2910	48.3230
 1.2920	48.2890
 1.2930	48.2470
 1.2940	48.2020
 1.2950	48.1640
 1.2960	48.1170
 1.2970	48.0670
 1.2980	48.0160
 1.2990	47.9560
 1.3000	47.8920
 1.3010	47.8250
 1.3020	47.7560
 1.3030	47.6840
 1.3040	47.6090
 1.3050	47.5310
 1.3060	47.4470
 1.3070	47.3560
 1.3080	47.2580
 1.3090	47.1620
 1.3100	47.0620
 1.3110	46.9540
 1.3120	46.8470
 1.3130	46.7340
 1.3140	46.6170
 1.3150	46.4940
 1.3160	46.3690
 1.3170	46.2410
 1.3180	46.1080
 1.3190	45.9690
 1.3200	45.8240
 1.3210	45.6700
 1.3220	45.5090
 1.3230	45.3450
 1.3240	45.1770
 1.3250	45.0110
 1.3260	44.8400
 1.3270	44.6600
 1.3280	44.4800
 1.3290	44.2950
 1.3300	44.1060
 1.3310	43.9170
 1.3320	43.7200
 1.3330	43.5190
 1.3340	43.3180
 1.3350	43.1160
 1.3360	42.9110
 1.3370	42.7050
 1.3380	42.4960
 1.3390	42.2820
 1.3400	42.0650
 1.3410	41.8480
 1.3420	41.6350
 1.3430	41.4230
 1.3440	41.2140
 1.3450	41.0050
 1.3460	40.7940
 1.3470	40.5900
 1.3480	40.3870
 1.3490	40.1870
 1.3500	39.9910
 1.3510	39.7950
 1.3520	39.5980
 1.3530	39.4020
 1.3540	39.2110
 1.3550	39.0200
 1.3560	38.8320
 1.3570	38.6450
 1.3580	38.4580
 1.3590	38.2670
 1.3600	38.0730
 1.3610	37.8770
 1.3620	37.6780
 1.3630	37.4800
 1.3640	37.2770
 1.3650	37.0670
 1.3660	36.8520
 1.3670	36.6240
 1.3680	36.3830
 1.3690	36.1350
 1.3700	35.8740
 1.3710	35.6010
 1.3720	35.3210
 1.3730	35.0190
 1.3740	34.6980
 1.3750	34.3600
 1.3760	34.0010
 1.3770	33.6200
 1.3780	33.2190
 1.3790	32.8000
 1.3800	32.3610
 1.3810	31.9010
 1.3820	31.4200
 1.3830	30.9210
 1.3840	30.3980
 1.3850	29.8480
 1.3860	29.2890
 1.3870	28.7070
 1.3880	28.1220
 1.3890	27.5260
 1.3900	26.9200
 1.3910	26.3130
 1.3920	25.6990
 1.3930	25.0820
 1.3940	24.4670
 1.3950	23.8450
 1.3960	23.2340
 1.3970	22.6350
 1.3980	22.0450
 1.3990	21.4770
 1.4000	20.9220
 1.4010	20.3790
 1.4020	19.8610
 1.4030	19.3600
 1.4040	18.8820
 1.4050	18.4310
 1.4060	17.9970
 1.4070	17.5910
 1.4080	17.2070
 1.4090	16.8420
 1.4100	16.5010
 1.4110	16.1810
 1.4120	15.8840
 1.4130	15.6100
 1.4140	15.3580
 1.4150	15.1280
 1.4160	14.9150
 1.4170	14.7200
 1.4180	14.5450
 1.4190	14.3850
 1.4200	14.2380
 1.4210	14.1080
 1.4220	13.9910
 1.4230	13.8850
 1.4240	13.7900
 1.4250	13.7040
 1.4260	13.6260
 1.4270	13.5570
 1.4280	13.4980
 1.4290	13.4460
 1.4300	13.4000
 1.4310	13.3620
 1.4320	13.3320
 1.4330	13.3050
 1.4340	13.2850
 1.4350	13.2700
 1.4360	13.2590
 1.4370	13.2540
 1.4380	13.2540
 1.4390	13.2580
 1.4400	13.2620
 1.4410	13.2670
 1.4420	13.2780
 1.4430	13.2910
 1.4440	13.3090
 1.4450	13.3320
 1.4460	13.3530
 1.4470	13.3760
 1.4480	13.3980
 1.4490	13.4190
 1.4500	13.4400
 1.4510	13.4630
 1.4520	13.4890
 1.4530	13.5170
 1.4540	13.5450
 1.4550	13.5740
 1.4560	13.6020
 1.4570	13.6310
 1.4580	13.6640
 1.4590	13.6970
 1.4600	13.7320
 1.4610	13.7700
 1.4620	13.8120
 1.4630	13.8560
 1.4640	13.9040
 1.4650	13.9550
 1.4660	14.0070
 1.4670	14.0630
 1.4680	14.1240
 1.4690	14.1890
