Name: Pinus lambertiana 3
Type: vegetation
Class: Tree
Genus: Pinus
Species: lambertiana
Sample No.: VH166
Owner: UCSB
Wavelength Range: VSWIR
Origin: 37.0433; -119.3048; WGS84
Collection Date: 6/8/2013
Description: Samples were collected as part of the HyspIRI Airborne Campaign. 48 individual plants were sampled in three times in 2013 - spring  summer  and fall. The name of the sample includes a 1  2  or 3 which references a different individual of the species. Samples were taken to JPL and processed within 48 hours of collection. The same leaves were processed in the Nicolet and then measured using the ASD.
Measurement: Bidirectional reflectance
First Column: X
Second Column: Y
X Units: Wavelength (micrometers)
Y Units: Reflectance (percentage)
First X Value: 0.35
Last X Value: 2.5
Number of X Values: 2151
Additional Information: vegetation.tree.pinus.lambertiana.vswir.vh166.ucsb.asd.ancillary.txt

 0.3500	 6.5870
 0.3510	 6.7000
 0.3520	 6.6310
 0.3530	 6.5980
 0.3540	 6.7540
 0.3550	 6.6470
 0.3560	 6.6170
 0.3570	 6.6510
 0.3580	 6.5790
 0.3590	 6.4670
 0.3600	 6.4320
 0.3610	 6.4710
 0.3620	 6.4420
 0.3630	 6.3090
 0.3640	 6.2510
 0.3650	 6.3960
 0.3660	 6.4300
 0.3670	 6.4200
 0.3680	 6.3980
 0.3690	 6.3650
 0.3700	 6.3140
 0.3710	 6.2900
 0.3720	 6.2910
 0.3730	 6.2600
 0.3740	 6.2470
 0.3750	 6.2650
 0.3760	 6.3030
 0.3770	 6.3260
 0.3780	 6.2600
 0.3790	 6.1910
 0.3800	 6.3200
 0.3810	 6.3690
 0.3820	 6.3160
 0.3830	 6.2110
 0.3840	 6.1640
 0.3850	 6.1780
 0.3860	 6.2490
 0.3870	 6.3290
 0.3880	 6.3160
 0.3890	 6.2860
 0.3900	 6.2620
 0.3910	 6.2070
 0.3920	 6.2190
 0.3930	 6.2090
 0.3940	 6.1280
 0.3950	 6.1940
 0.3960	 6.1960
 0.3970	 6.1590
 0.3980	 6.1920
 0.3990	 6.1880
 0.4000	 6.1790
 0.4010	 6.1740
 0.4020	 6.1530
 0.4030	 6.1370
 0.4040	 6.1540
 0.4050	 6.2070
 0.4060	 6.2210
 0.4070	 6.2150
 0.4080	 6.2160
 0.4090	 6.2550
 0.4100	 6.2750
 0.4110	 6.3020
 0.4120	 6.3460
 0.4130	 6.4160
 0.4140	 6.4790
 0.4150	 6.5220
 0.4160	 6.5440
 0.4170	 6.5860
 0.4180	 6.6550
 0.4190	 6.7390
 0.4200	 6.8140
 0.4210	 6.8740
 0.4220	 6.9270
 0.4230	 6.9810
 0.4240	 7.0500
 0.4250	 7.1180
 0.4260	 7.1740
 0.4270	 7.2090
 0.4280	 7.2820
 0.4290	 7.3520
 0.4300	 7.3990
 0.4310	 7.4240
 0.4320	 7.4690
 0.4330	 7.5130
 0.4340	 7.5390
 0.4350	 7.5880
 0.4360	 7.6160
 0.4370	 7.6370
 0.4380	 7.6900
 0.4390	 7.7250
 0.4400	 7.7690
 0.4410	 7.8320
 0.4420	 7.8460
 0.4430	 7.8660
 0.4440	 7.8930
 0.4450	 7.9040
 0.4460	 7.9180
 0.4470	 7.9460
 0.4480	 7.9770
 0.4490	 7.9750
 0.4500	 8.0030
 0.4510	 8.0320
 0.4520	 8.0310
 0.4530	 8.0570
 0.4540	 8.0840
 0.4550	 8.0960
 0.4560	 8.0950
 0.4570	 8.1010
 0.4580	 8.1120
 0.4590	 8.1200
 0.4600	 8.1130
 0.4610	 8.1380
 0.4620	 8.1610
 0.4630	 8.1490
 0.4640	 8.1440
 0.4650	 8.1440
 0.4660	 8.1510
 0.4670	 8.1630
 0.4680	 8.1610
 0.4690	 8.1560
 0.4700	 8.1550
 0.4710	 8.1510
 0.4720	 8.1460
 0.4730	 8.1440
 0.4740	 8.1380
 0.4750	 8.1380
 0.4760	 8.1450
 0.4770	 8.1490
 0.4780	 8.1370
 0.4790	 8.1350
 0.4800	 8.1380
 0.4810	 8.1360
 0.4820	 8.1410
 0.4830	 8.1430
 0.4840	 8.1420
 0.4850	 8.1460
 0.4860	 8.1560
 0.4870	 8.1640
 0.4880	 8.1710
 0.4890	 8.1770
 0.4900	 8.1900
 0.4910	 8.2090
 0.4920	 8.2300
 0.4930	 8.2330
 0.4940	 8.2540
 0.4950	 8.2960
 0.4960	 8.3230
 0.4970	 8.3540
 0.4980	 8.3990
 0.4990	 8.4490
 0.5000	 8.5000
 0.5010	 8.5550
 0.5020	 8.6140
 0.5030	 8.6830
 0.5040	 8.7600
 0.5050	 8.8450
 0.5060	 8.9380
 0.5070	 9.0400
 0.5080	 9.1560
 0.5090	 9.2830
 0.5100	 9.4200
 0.5110	 9.5720
 0.5120	 9.7400
 0.5130	 9.9230
 0.5140	10.1070
 0.5150	10.3140
 0.5160	10.5360
 0.5170	10.7610
 0.5180	11.0090
 0.5190	11.2690
 0.5200	11.5290
 0.5210	11.7800
 0.5220	12.0390
 0.5230	12.3010
 0.5240	12.5600
 0.5250	12.8050
 0.5260	13.0470
 0.5270	13.2800
 0.5280	13.4930
 0.5290	13.6910
 0.5300	13.8780
 0.5310	14.0540
 0.5320	14.2100
 0.5330	14.3490
 0.5340	14.4770
 0.5350	14.5990
 0.5360	14.7050
 0.5370	14.7990
 0.5380	14.8840
 0.5390	14.9590
 0.5400	15.0170
 0.5410	15.0710
 0.5420	15.1280
 0.5430	15.1830
 0.5440	15.2370
 0.5450	15.2910
 0.5460	15.3480
 0.5470	15.4140
 0.5480	15.4770
 0.5490	15.5270
 0.5500	15.5640
 0.5510	15.5920
 0.5520	15.6100
 0.5530	15.6140
 0.5540	15.6020
 0.5550	15.5710
 0.5560	15.5230
 0.5570	15.4590
 0.5580	15.3810
 0.5590	15.2930
 0.5600	15.1960
 0.5610	15.0860
 0.5620	14.9670
 0.5630	14.8440
 0.5640	14.7150
 0.5650	14.5730
 0.5660	14.4250
 0.5670	14.2710
 0.5680	14.1000
 0.5690	13.9280
 0.5700	13.7550
 0.5710	13.5820
 0.5720	13.4210
 0.5730	13.2640
 0.5740	13.1160
 0.5750	12.9840
 0.5760	12.8580
 0.5770	12.7360
 0.5780	12.6220
 0.5790	12.5240
 0.5800	12.4280
 0.5810	12.3360
 0.5820	12.2530
 0.5830	12.1660
 0.5840	12.0770
 0.5850	11.9910
 0.5860	11.9160
 0.5870	11.8350
 0.5880	11.7560
 0.5890	11.6900
 0.5900	11.6420
 0.5910	11.5970
 0.5920	11.5560
 0.5930	11.5240
 0.5940	11.4960
 0.5950	11.4690
 0.5960	11.4400
 0.5970	11.4090
 0.5980	11.3790
 0.5990	11.3480
 0.6000	11.3150
 0.6010	11.2780
 0.6020	11.2380
 0.6030	11.1930
 0.6040	11.1390
 0.6050	11.0790
 0.6060	11.0130
 0.6070	10.9430
 0.6080	10.8580
 0.6090	10.7700
 0.6100	10.6790
 0.6110	10.5830
 0.6120	10.4990
 0.6130	10.4260
 0.6140	10.3540
 0.6150	10.2720
 0.6160	10.2000
 0.6170	10.1330
 0.6180	10.0670
 0.6190	10.0060
 0.6200	 9.9540
 0.6210	 9.9050
 0.6220	 9.8590
 0.6230	 9.8240
 0.6240	 9.7940
 0.6250	 9.7730
 0.6260	 9.7450
 0.6270	 9.7310
 0.6280	 9.7180
 0.6290	 9.7050
 0.6300	 9.6940
 0.6310	 9.6800
 0.6320	 9.6630
 0.6330	 9.6460
 0.6340	 9.6160
 0.6350	 9.5780
 0.6360	 9.5290
 0.6370	 9.4720
 0.6380	 9.4060
 0.6390	 9.3310
 0.6400	 9.2490
 0.6410	 9.1690
 0.6420	 9.0830
 0.6430	 8.9920
 0.6440	 8.8990
 0.6450	 8.8080
 0.6460	 8.7220
 0.6470	 8.6410
 0.6480	 8.5700
 0.6490	 8.5040
 0.6500	 8.4480
 0.6510	 8.4030
 0.6520	 8.3620
 0.6530	 8.3220
 0.6540	 8.2860
 0.6550	 8.2480
 0.6560	 8.2020
 0.6570	 8.1490
 0.6580	 8.0920
 0.6590	 8.0330
 0.6600	 7.9670
 0.6610	 7.9010
 0.6620	 7.8330
 0.6630	 7.7730
 0.6640	 7.7160
 0.6650	 7.6660
 0.6660	 7.6250
 0.6670	 7.5850
 0.6680	 7.5500
 0.6690	 7.5300
 0.6700	 7.5130
 0.6710	 7.4990
 0.6720	 7.4940
 0.6730	 7.4890
 0.6740	 7.4940
 0.6750	 7.5020
 0.6760	 7.5110
 0.6770	 7.5240
 0.6780	 7.5420
 0.6790	 7.5660
 0.6800	 7.6000
 0.6810	 7.6380
 0.6820	 7.6830
 0.6830	 7.7440
 0.6840	 7.8270
 0.6850	 7.9220
 0.6860	 8.0400
 0.6870	 8.1920
 0.6880	 8.3960
 0.6890	 8.6480
 0.6900	 8.9590
 0.6910	 9.3380
 0.6920	 9.7900
 0.6930	10.3160
 0.6940	10.9180
 0.6950	11.5880
 0.6960	12.3220
 0.6970	13.1140
 0.6980	13.9580
 0.6990	14.8480
 0.7000	15.7760
 0.7010	16.7360
 0.7020	17.7210
 0.7030	18.7220
 0.7040	19.7340
 0.7050	20.7550
 0.7060	21.7820
 0.7070	22.8170
 0.7080	23.8600
 0.7090	24.9130
 0.7100	25.9740
 0.7110	27.0430
 0.7120	28.1190
 0.7130	29.2030
 0.7140	30.2970
 0.7150	31.4030
 0.7160	32.5200
 0.7170	33.6400
 0.7180	34.7700
 0.7190	35.9070
 0.7200	37.0450
 0.7210	38.1840
 0.7220	39.3280
 0.7230	40.4690
 0.7240	41.5930
 0.7250	42.7100
 0.7260	43.8200
 0.7270	44.9130
 0.7280	45.9760
 0.7290	47.0170
 0.7300	48.0360
 0.7310	49.0270
 0.7320	49.9930
 0.7330	50.9290
 0.7340	51.8340
 0.7350	52.7060
 0.7360	53.5470
 0.7370	54.3530
 0.7380	55.1240
 0.7390	55.8600
 0.7400	56.5620
 0.7410	57.2300
 0.7420	57.8660
 0.7430	58.4670
 0.7440	59.0320
 0.7450	59.5630
 0.7460	60.0660
 0.7470	60.5380
 0.7480	60.9760
 0.7490	61.3800
 0.7500	61.7510
 0.7510	62.0960
 0.7520	62.4170
 0.7530	62.7150
 0.7540	62.9870
 0.7550	63.2360
 0.7560	63.4670
 0.7570	63.6790
 0.7580	63.8730
 0.7590	64.0520
 0.7600	64.2190
 0.7610	64.3630
 0.7620	64.5040
 0.7630	64.6350
 0.7640	64.7500
 0.7650	64.8610
 0.7660	64.9610
 0.7670	65.0510
 0.7680	65.1400
 0.7690	65.2190
 0.7700	65.2900
 0.7710	65.3540
 0.7720	65.4170
 0.7730	65.4860
 0.7740	65.5510
 0.7750	65.6020
 0.7760	65.6550
 0.7770	65.7090
 0.7780	65.7620
 0.7790	65.8120
 0.7800	65.8570
 0.7810	65.9030
 0.7820	65.9490
 0.7830	65.9890
 0.7840	66.0290
 0.7850	66.0680
 0.7860	66.1040
 0.7870	66.1430
 0.7880	66.1800
 0.7890	66.2180
 0.7900	66.2580
 0.7910	66.2830
 0.7920	66.3110
 0.7930	66.3440
 0.7940	66.3770
 0.7950	66.4100
 0.7960	66.4370
 0.7970	66.4600
 0.7980	66.4910
 0.7990	66.5150
 0.8000	66.5330
 0.8010	66.5510
 0.8020	66.5800
 0.8030	66.6050
 0.8040	66.6220
 0.8050	66.6340
 0.8060	66.6510
 0.8070	66.6700
 0.8080	66.6870
 0.8090	66.7010
 0.8100	66.7170
 0.8110	66.7340
 0.8120	66.7490
 0.8130	66.7560
 0.8140	66.7650
 0.8150	66.7790
 0.8160	66.7940
 0.8170	66.8060
 0.8180	66.8160
 0.8190	66.8260
 0.8200	66.8380
 0.8210	66.8490
 0.8220	66.8610
 0.8230	66.8720
 0.8240	66.8790
 0.8250	66.8780
 0.8260	66.8760
 0.8270	66.8750
 0.8280	66.8670
 0.8290	66.8680
 0.8300	66.8730
 0.8310	66.8710
 0.8320	66.8680
 0.8330	66.8720
 0.8340	66.8770
 0.8350	66.8740
 0.8360	66.8860
 0.8370	66.9000
 0.8380	66.9110
 0.8390	66.9250
 0.8400	66.9390
 0.8410	66.9520
 0.8420	66.9650
 0.8430	66.9830
 0.8440	66.9960
 0.8450	67.0120
 0.8460	67.0370
 0.8470	67.0500
 0.8480	67.0680
 0.8490	67.0900
 0.8500	67.1090
 0.8510	67.1240
 0.8520	67.1420
 0.8530	67.1620
 0.8540	67.1810
 0.8550	67.1960
 0.8560	67.2050
 0.8570	67.2130
 0.8580	67.2340
 0.8590	67.2550
 0.8600	67.2680
 0.8610	67.2780
 0.8620	67.3010
 0.8630	67.3150
 0.8640	67.3260
 0.8650	67.3410
 0.8660	67.3600
 0.8670	67.3710
 0.8680	67.3770
 0.8690	67.3840
 0.8700	67.4010
 0.8710	67.4110
 0.8720	67.4140
 0.8730	67.4190
 0.8740	67.4340
 0.8750	67.4500
 0.8760	67.4630
 0.8770	67.4740
 0.8780	67.4870
 0.8790	67.4970
 0.8800	67.5020
 0.8810	67.5060
 0.8820	67.5130
 0.8830	67.5180
 0.8840	67.5150
 0.8850	67.5090
 0.8860	67.5160
 0.8870	67.5250
 0.8880	67.5230
 0.8890	67.5090
 0.8900	67.4990
 0.8910	67.4970
 0.8920	67.4980
 0.8930	67.4920
 0.8940	67.4840
 0.8950	67.4810
 0.8960	67.4810
 0.8970	67.4620
 0.8980	67.4500
 0.8990	67.4520
 0.9000	67.4510
 0.9010	67.4350
 0.9020	67.4150
 0.9030	67.4010
 0.9040	67.4010
 0.9050	67.3950
 0.9060	67.3790
 0.9070	67.3590
 0.9080	67.3470
 0.9090	67.3350
 0.9100	67.3250
 0.9110	67.3150
 0.9120	67.2930
 0.9130	67.2850
 0.9140	67.2760
 0.9150	67.2490
 0.9160	67.2350
 0.9170	67.2150
 0.9180	67.1950
 0.9190	67.1830
 0.9200	67.1520
 0.9210	67.1210
 0.9220	67.0950
 0.9230	67.0640
 0.9240	67.0120
 0.9250	66.9660
 0.9260	66.9290
 0.9270	66.8810
 0.9280	66.8210
 0.9290	66.7570
 0.9300	66.6910
 0.9310	66.6240
 0.9320	66.5370
 0.9330	66.4500
 0.9340	66.3680
 0.9350	66.2780
 0.9360	66.1900
 0.9370	66.0930
 0.9380	65.9860
 0.9390	65.8840
 0.9400	65.7780
 0.9410	65.6570
 0.9420	65.5240
 0.9430	65.4090
 0.9440	65.2710
 0.9450	65.1140
 0.9460	64.9510
 0.9470	64.7900
 0.9480	64.6110
 0.9490	64.4160
 0.9500	64.2120
 0.9510	63.9950
 0.9520	63.7550
 0.9530	63.5060
 0.9540	63.2640
 0.9550	63.0290
 0.9560	62.7820
 0.9570	62.5460
 0.9580	62.3450
 0.9590	62.1500
 0.9600	61.9620
 0.9610	61.7940
 0.9620	61.6490
 0.9630	61.4990
 0.9640	61.3750
 0.9650	61.2720
 0.9660	61.1710
 0.9670	61.0780
 0.9680	61.0030
 0.9690	60.9340
 0.9700	60.8590
 0.9710	60.8040
 0.9720	60.7450
 0.9730	60.6790
 0.9740	60.6200
 0.9750	60.6100
 0.9760	60.5790
 0.9770	60.5420
 0.9780	60.5440
 0.9790	60.5200
 0.9800	60.5050
 0.9810	60.5030
 0.9820	60.5100
 0.9830	60.5430
 0.9840	60.5600
 0.9850	60.5700
 0.9860	60.6000
 0.9870	60.6400
 0.9880	60.6910
 0.9890	60.7440
 0.9900	60.7890
 0.9910	60.8400
 0.9920	60.9020
 0.9930	60.9740
 0.9940	61.0470
 0.9950	61.1150
 0.9960	61.1860
 0.9970	61.2590
 0.9980	61.3320
 0.9990	61.4060
 1.0000	61.7200
 1.0010	62.1810
 1.0020	62.4980
 1.0030	62.5900
 1.0040	62.6820
 1.0050	62.7680
 1.0060	62.8630
 1.0070	62.9640
 1.0080	63.0620
 1.0090	63.1600
 1.0100	63.2570
 1.0110	63.3530
 1.0120	63.4520
 1.0130	63.5550
 1.0140	63.6560
 1.0150	63.7570
 1.0160	63.8610
 1.0170	63.9610
 1.0180	64.0560
 1.0190	64.1530
 1.0200	64.2480
 1.0210	64.3440
 1.0220	64.4430
 1.0230	64.5400
 1.0240	64.6380
 1.0250	64.7360
 1.0260	64.8350
 1.0270	64.9290
 1.0280	65.0230
 1.0290	65.1160
 1.0300	65.2020
 1.0310	65.2920
 1.0320	65.3790
 1.0330	65.4760
 1.0340	65.5720
 1.0350	65.6620
 1.0360	65.7480
 1.0370	65.8270
 1.0380	65.9060
 1.0390	65.9790
 1.0400	66.0550
 1.0410	66.1340
 1.0420	66.2060
 1.0430	66.2720
 1.0440	66.3420
 1.0450	66.4110
 1.0460	66.4780
 1.0470	66.5460
 1.0480	66.6110
 1.0490	66.6720
 1.0500	66.7300
 1.0510	66.7880
 1.0520	66.8440
 1.0530	66.8970
 1.0540	66.9460
 1.0550	66.9960
 1.0560	67.0450
 1.0570	67.0920
 1.0580	67.1410
 1.0590	67.1830
 1.0600	67.2210
 1.0610	67.2580
 1.0620	67.2920
 1.0630	67.3240
 1.0640	67.3560
 1.0650	67.3840
 1.0660	67.4050
 1.0670	67.4260
 1.0680	67.4470
 1.0690	67.4650
 1.0700	67.4810
 1.0710	67.4970
 1.0720	67.5100
 1.0730	67.5210
 1.0740	67.5300
 1.0750	67.5370
 1.0760	67.5400
 1.0770	67.5370
 1.0780	67.5350
 1.0790	67.5310
 1.0800	67.5270
 1.0810	67.5230
 1.0820	67.5140
 1.0830	67.5040
 1.0840	67.4890
 1.0850	67.4670
 1.0860	67.4460
 1.0870	67.4240
 1.0880	67.4020
 1.0890	67.3740
 1.0900	67.3480
 1.0910	67.3130
 1.0920	67.2690
 1.0930	67.2290
 1.0940	67.1880
 1.0950	67.1470
 1.0960	67.1090
 1.0970	67.0670
 1.0980	67.0230
 1.0990	66.9740
 1.1000	66.9230
 1.1010	66.8690
 1.1020	66.8120
 1.1030	66.7500
 1.1040	66.6930
 1.1050	66.6350
 1.1060	66.5750
 1.1070	66.5180
 1.1080	66.4540
 1.1090	66.3860
 1.1100	66.3180
 1.1110	66.2490
 1.1120	66.1740
 1.1130	66.0980
 1.1140	66.0120
 1.1150	65.9170
 1.1160	65.8170
 1.1170	65.7130
 1.1180	65.6010
 1.1190	65.4840
 1.1200	65.3590
 1.1210	65.2230
 1.1220	65.0760
 1.1230	64.9160
 1.1240	64.7410
 1.1250	64.5470
 1.1260	64.3390
 1.1270	64.1100
 1.1280	63.8650
 1.1290	63.5970
 1.1300	63.3120
 1.1310	63.0040
 1.1320	62.6750
 1.1330	62.3270
 1.1340	61.9560
 1.1350	61.5680
 1.1360	61.1600
 1.1370	60.7340
 1.1380	60.2990
 1.1390	59.8560
 1.1400	59.4010
 1.1410	58.9480
 1.1420	58.4940
 1.1430	58.0300
 1.1440	57.5780
 1.1450	57.1240
 1.1460	56.6890
 1.1470	56.2550
 1.1480	55.8470
 1.1490	55.4520
 1.1500	55.0800
 1.1510	54.7220
 1.1520	54.3890
 1.1530	54.0770
 1.1540	53.7880
 1.1550	53.5210
 1.1560	53.2780
 1.1570	53.0520
 1.1580	52.8490
 1.1590	52.6680
 1.1600	52.5000
 1.1610	52.3500
 1.1620	52.2140
 1.1630	52.0860
 1.1640	51.9730
 1.1650	51.8670
 1.1660	51.7730
 1.1670	51.6850
 1.1680	51.6060
 1.1690	51.5310
 1.1700	51.4640
 1.1710	51.3960
 1.1720	51.3320
 1.1730	51.2690
 1.1740	51.2060
 1.1750	51.1450
 1.1760	51.0870
 1.1770	51.0270
 1.1780	50.9630
 1.1790	50.9000
 1.1800	50.8330
 1.1810	50.7640
 1.1820	50.7000
 1.1830	50.6370
 1.1840	50.5710
 1.1850	50.5060
 1.1860	50.4410
 1.1870	50.3780
 1.1880	50.3220
 1.1890	50.2740
 1.1900	50.2270
 1.1910	50.1840
 1.1920	50.1450
 1.1930	50.1050
 1.1940	50.0730
 1.1950	50.0450
 1.1960	50.0250
 1.1970	50.0120
 1.1980	50.0040
 1.1990	50.0040
 1.2000	50.0080
 1.2010	50.0160
 1.2020	50.0280
 1.2030	50.0430
 1.2040	50.0610
 1.2050	50.0850
 1.2060	50.1150
 1.2070	50.1500
 1.2080	50.1900
 1.2090	50.2340
 1.2100	50.2790
 1.2110	50.3290
 1.2120	50.3820
 1.2130	50.4400
 1.2140	50.5030
 1.2150	50.5690
 1.2160	50.6390
 1.2170	50.7090
 1.2180	50.7840
 1.2190	50.8600
 1.2200	50.9370
 1.2210	51.0210
 1.2220	51.1040
 1.2230	51.1850
 1.2240	51.2690
 1.2250	51.3500
 1.2260	51.4290
 1.2270	51.5090
 1.2280	51.5870
 1.2290	51.6660
 1.2300	51.7450
 1.2310	51.8220
 1.2320	51.8970
 1.2330	51.9700
 1.2340	52.0410
 1.2350	52.1120
 1.2360	52.1800
 1.2370	52.2480
 1.2380	52.3130
 1.2390	52.3770
 1.2400	52.4360
 1.2410	52.4960
 1.2420	52.5550
 1.2430	52.6110
 1.2440	52.6670
 1.2450	52.7200
 1.2460	52.7720
 1.2470	52.8210
 1.2480	52.8680
 1.2490	52.9150
 1.2500	52.9600
 1.2510	53.0050
 1.2520	53.0470
 1.2530	53.0860
 1.2540	53.1240
 1.2550	53.1570
 1.2560	53.1890
 1.2570	53.2210
 1.2580	53.2480
 1.2590	53.2740
 1.2600	53.2990
 1.2610	53.3200
 1.2620	53.3380
 1.2630	53.3540
 1.2640	53.3710
 1.2650	53.3810
 1.2660	53.3890
 1.2670	53.3960
 1.2680	53.3970
 1.2690	53.3950
 1.2700	53.3920
 1.2710	53.3860
 1.2720	53.3790
 1.2730	53.3710
 1.2740	53.3620
 1.2750	53.3490
 1.2760	53.3330
 1.2770	53.3120
 1.2780	53.2880
 1.2790	53.2600
 1.2800	53.2290
 1.2810	53.1940
 1.2820	53.1560
 1.2830	53.1160
 1.2840	53.0710
 1.2850	53.0180
 1.2860	52.9630
 1.2870	52.9040
 1.2880	52.8390
 1.2890	52.7690
 1.2900	52.6990
 1.2910	52.6220
 1.2920	52.5350
 1.2930	52.4460
 1.2940	52.3480
 1.2950	52.2450
 1.2960	52.1370
 1.2970	52.0210
 1.2980	51.9010
 1.2990	51.7740
 1.3000	51.6440
 1.3010	51.5090
 1.3020	51.3650
 1.3030	51.2140
 1.3040	51.0530
 1.3050	50.8870
 1.3060	50.7180
 1.3070	50.5410
 1.3080	50.3610
 1.3090	50.1740
 1.3100	49.9780
 1.3110	49.7770
 1.3120	49.5660
 1.3130	49.3480
 1.3140	49.1260
 1.3150	48.8980
 1.3160	48.6650
 1.3170	48.4270
 1.3180	48.1860
 1.3190	47.9360
 1.3200	47.6800
 1.3210	47.4180
 1.3220	47.1540
 1.3230	46.8860
 1.3240	46.6100
 1.3250	46.3330
 1.3260	46.0510
 1.3270	45.7660
 1.3280	45.4810
 1.3290	45.1910
 1.3300	44.9010
 1.3310	44.6120
 1.3320	44.3200
 1.3330	44.0340
 1.3340	43.7470
 1.3350	43.4580
 1.3360	43.1700
 1.3370	42.8830
 1.3380	42.6000
 1.3390	42.3220
 1.3400	42.0470
 1.3410	41.7800
 1.3420	41.5170
 1.3430	41.2540
 1.3440	40.9970
 1.3450	40.7440
 1.3460	40.4930
 1.3470	40.2500
 1.3480	40.0130
 1.3490	39.7800
 1.3500	39.5540
 1.3510	39.3300
 1.3520	39.1080
 1.3530	38.8910
 1.3540	38.6770
 1.3550	38.4630
 1.3560	38.2510
 1.3570	38.0390
 1.3580	37.8260
 1.3590	37.6100
 1.3600	37.3930
 1.3610	37.1730
 1.3620	36.9480
 1.3630	36.7190
 1.3640	36.4800
 1.3650	36.2330
 1.3660	35.9810
 1.3670	35.7190
 1.3680	35.4440
 1.3690	35.1590
 1.3700	34.8570
 1.3710	34.5410
 1.3720	34.2120
 1.3730	33.8620
 1.3740	33.4950
 1.3750	33.1100
 1.3760	32.7000
 1.3770	32.2700
 1.3780	31.8130
 1.3790	31.3350
 1.3800	30.8360
 1.3810	30.3100
 1.3820	29.7710
 1.3830	29.2120
 1.3840	28.6410
 1.3850	28.0520
 1.3860	27.4570
 1.3870	26.8430
 1.3880	26.2350
 1.3890	25.6210
 1.3900	25.0040
 1.3910	24.3970
 1.3920	23.7930
 1.3930	23.1940
 1.3940	22.6080
 1.3950	22.0290
 1.3960	21.4650
 1.3970	20.9190
 1.3980	20.3890
 1.3990	19.8840
 1.4000	19.3980
 1.4010	18.9290
 1.4020	18.4850
 1.4030	18.0590
 1.4040	17.6540
 1.4050	17.2730
 1.4060	16.9120
 1.4070	16.5750
 1.4080	16.2580
 1.4090	15.9580
 1.4100	15.6790
 1.4110	15.4150
 1.4120	15.1690
 1.4130	14.9420
 1.4140	14.7280
 1.4150	14.5320
 1.4160	14.3500
 1.4170	14.1790
 1.4180	14.0210
 1.4190	13.8740
 1.4200	13.7370
 1.4210	13.6110
 1.4220	13.4940
 1.4230	13.3870
 1.4240	13.2870
 1.4250	13.1940
 1.4260	13.1090
 1.4270	13.0300
 1.4280	12.9570
 1.4290	12.8900
 1.4300	12.8300
 1.4310	12.7750
 1.4320	12.7270
 1.4330	12.6820
 1.4340	12.6410
 1.4350	12.6040
 1.4360	12.5710
 1.4370	12.5420
 1.4380	12.5180
 1.4390	12.4970
 1.4400	12.4800
 1.4410	12.4640
 1.4420	12.4500
 1.4430	12.4380
 1.4440	12.4290
 1.4450	12.4230
 1.4460	12.4190
 1.4470	12.4170
 1.4480	12.4170
 1.4490	12.4180
 1.4500	12.4200
 1.4510	12.4240
 1.4520	12.4290
 1.4530	12.4350
 1.4540	12.4420
 1.4550	12.4520
 1.4560	12.4640
 1.4570	12.4790
 1.4580	12.4960
 1.4590	12.5130
 1.4600	12.5330
 1.4610	12.5570
 1.4620	12.5840
 1.4630	12.6150
 1.4640	12.6470
 1.4650	12.6840
 1.4660	12.7210
 1.4670	12.7620
 1.4680	12.8070
 1.4690	12.8550
 1.4700	12.9050
