Name: Arctostaphylos glandulosa 1
Type: vegetation
Class: Shrub
Genus: Arctostaphylos
Species: glandulosa
Sample No.: VH049
Owner: UCSB
Wavelength Range: VSWIR
Origin: 37.0432; -119.304; WGS84
Collection Date: 4/20/2013
Description: Samples were collected as part of the HyspIRI Airborne Campaign. 48 individual plants were sampled in three times in 2013 - spring  summer  and fall. The name of the sample includes a 1  2  or 3 which references a different individual of the species. Samples were taken to JPL and processed within 48 hours of collection. The same leaves were processed in the Nicolet and then measured using the ASD.
Measurement: Bidirectional reflectance
First Column: X
Second Column: Y
X Units: Wavelength (micrometers)
Y Units: Reflectance (percentage)
First X Value: 0.35
Last X Value: 2.5
Number of X Values: 2151
Additional Information: vegetation.shrub.arctostaphylos.glandulosa.vswir.vh049.ucsb.asd.ancillary.txt

 0.3500	 4.2950
 0.3510	 4.1810
 0.3520	 4.1390
 0.3530	 4.1130
 0.3540	 4.0850
 0.3550	 3.9830
 0.3560	 4.0240
 0.3570	 4.0710
 0.3580	 3.8720
 0.3590	 3.8450
 0.3600	 3.8730
 0.3610	 3.9050
 0.3620	 4.0650
 0.3630	 4.1420
 0.3640	 4.1050
 0.3650	 4.0060
 0.3660	 3.9620
 0.3670	 4.0260
 0.3680	 4.0890
 0.3690	 3.9620
 0.3700	 3.9150
 0.3710	 3.8870
 0.3720	 3.8380
 0.3730	 3.8570
 0.3740	 3.9140
 0.3750	 3.9680
 0.3760	 3.9790
 0.3770	 3.9210
 0.3780	 3.8750
 0.3790	 3.8860
 0.3800	 3.9510
 0.3810	 3.8780
 0.3820	 3.8070
 0.3830	 3.8320
 0.3840	 3.8270
 0.3850	 3.8510
 0.3860	 3.8680
 0.3870	 3.8350
 0.3880	 3.8330
 0.3890	 3.8740
 0.3900	 3.9110
 0.3910	 3.8510
 0.3920	 3.8240
 0.3930	 3.8460
 0.3940	 3.8960
 0.3950	 3.9540
 0.3960	 3.9510
 0.3970	 3.9340
 0.3980	 3.9840
 0.3990	 4.0140
 0.4000	 4.0220
 0.4010	 4.0230
 0.4020	 4.0360
 0.4030	 4.0780
 0.4040	 4.1080
 0.4050	 4.0980
 0.4060	 4.1350
 0.4070	 4.1690
 0.4080	 4.2010
 0.4090	 4.2590
 0.4100	 4.2870
 0.4110	 4.3030
 0.4120	 4.3280
 0.4130	 4.3760
 0.4140	 4.4080
 0.4150	 4.4480
 0.4160	 4.5180
 0.4170	 4.5450
 0.4180	 4.5680
 0.4190	 4.6090
 0.4200	 4.6690
 0.4210	 4.7050
 0.4220	 4.7270
 0.4230	 4.7460
 0.4240	 4.7690
 0.4250	 4.8060
 0.4260	 4.8460
 0.4270	 4.8700
 0.4280	 4.8930
 0.4290	 4.9220
 0.4300	 4.9590
 0.4310	 5.0000
 0.4320	 5.0280
 0.4330	 5.0420
 0.4340	 5.0520
 0.4350	 5.0880
 0.4360	 5.1200
 0.4370	 5.1430
 0.4380	 5.1720
 0.4390	 5.2030
 0.4400	 5.2330
 0.4410	 5.2630
 0.4420	 5.3050
 0.4430	 5.3300
 0.4440	 5.3530
 0.4450	 5.3950
 0.4460	 5.4290
 0.4470	 5.4620
 0.4480	 5.5020
 0.4490	 5.5500
 0.4500	 5.5850
 0.4510	 5.6150
 0.4520	 5.6490
 0.4530	 5.6850
 0.4540	 5.7140
 0.4550	 5.7390
 0.4560	 5.7730
 0.4570	 5.8100
 0.4580	 5.8380
 0.4590	 5.8530
 0.4600	 5.8710
 0.4610	 5.8900
 0.4620	 5.9140
 0.4630	 5.9410
 0.4640	 5.9500
 0.4650	 5.9580
 0.4660	 5.9740
 0.4670	 5.9920
 0.4680	 6.0040
 0.4690	 6.0160
 0.4700	 6.0300
 0.4710	 6.0400
 0.4720	 6.0410
 0.4730	 6.0440
 0.4740	 6.0640
 0.4750	 6.0760
 0.4760	 6.0880
 0.4770	 6.1040
 0.4780	 6.1220
 0.4790	 6.1310
 0.4800	 6.1390
 0.4810	 6.1520
 0.4820	 6.1550
 0.4830	 6.1690
 0.4840	 6.1930
 0.4850	 6.2120
 0.4860	 6.2180
 0.4870	 6.2240
 0.4880	 6.2430
 0.4890	 6.2780
 0.4900	 6.3090
 0.4910	 6.3390
 0.4920	 6.3810
 0.4930	 6.4240
 0.4940	 6.4720
 0.4950	 6.5250
 0.4960	 6.5790
 0.4970	 6.6420
 0.4980	 6.7180
 0.4990	 6.8040
 0.5000	 6.8750
 0.5010	 6.9680
 0.5020	 7.0860
 0.5030	 7.2030
 0.5040	 7.3270
 0.5050	 7.4610
 0.5060	 7.6090
 0.5070	 7.7760
 0.5080	 7.9490
 0.5090	 8.1300
 0.5100	 8.3290
 0.5110	 8.5430
 0.5120	 8.7620
 0.5130	 8.9870
 0.5140	 9.2420
 0.5150	 9.5030
 0.5160	 9.7680
 0.5170	10.0410
 0.5180	10.3200
 0.5190	10.6010
 0.5200	10.8830
 0.5210	11.1650
 0.5220	11.4460
 0.5230	11.7160
 0.5240	11.9720
 0.5250	12.2210
 0.5260	12.4570
 0.5270	12.6810
 0.5280	12.8890
 0.5290	13.0810
 0.5300	13.2580
 0.5310	13.4180
 0.5320	13.5640
 0.5330	13.6990
 0.5340	13.8250
 0.5350	13.9400
 0.5360	14.0360
 0.5370	14.1240
 0.5380	14.2070
 0.5390	14.2790
 0.5400	14.3460
 0.5410	14.4070
 0.5420	14.4660
 0.5430	14.5270
 0.5440	14.5890
 0.5450	14.6520
 0.5460	14.7120
 0.5470	14.7600
 0.5480	14.8050
 0.5490	14.8510
 0.5500	14.8900
 0.5510	14.9210
 0.5520	14.9420
 0.5530	14.9500
 0.5540	14.9440
 0.5550	14.9240
 0.5560	14.8900
 0.5570	14.8350
 0.5580	14.7670
 0.5590	14.6890
 0.5600	14.6010
 0.5610	14.4970
 0.5620	14.3850
 0.5630	14.2650
 0.5640	14.1370
 0.5650	14.0010
 0.5660	13.8620
 0.5670	13.7190
 0.5680	13.5650
 0.5690	13.4060
 0.5700	13.2460
 0.5710	13.0870
 0.5720	12.9340
 0.5730	12.7800
 0.5740	12.6320
 0.5750	12.4990
 0.5760	12.3700
 0.5770	12.2450
 0.5780	12.1280
 0.5790	12.0210
 0.5800	11.9180
 0.5810	11.8210
 0.5820	11.7340
 0.5830	11.6480
 0.5840	11.5700
 0.5850	11.5020
 0.5860	11.4320
 0.5870	11.3640
 0.5880	11.3000
 0.5890	11.2380
 0.5900	11.1800
 0.5910	11.1250
 0.5920	11.0750
 0.5930	11.0320
 0.5940	10.9940
 0.5950	10.9620
 0.5960	10.9340
 0.5970	10.9050
 0.5980	10.8770
 0.5990	10.8490
 0.6000	10.8190
 0.6010	10.7800
 0.6020	10.7360
 0.6030	10.6860
 0.6040	10.6300
 0.6050	10.5700
 0.6060	10.5060
 0.6070	10.4360
 0.6080	10.3500
 0.6090	10.2660
 0.6100	10.1820
 0.6110	10.0920
 0.6120	10.0050
 0.6130	 9.9170
 0.6140	 9.8280
 0.6150	 9.7430
 0.6160	 9.6630
 0.6170	 9.5880
 0.6180	 9.5170
 0.6190	 9.4480
 0.6200	 9.3900
 0.6210	 9.3410
 0.6220	 9.2980
 0.6230	 9.2590
 0.6240	 9.2280
 0.6250	 9.2080
 0.6260	 9.1900
 0.6270	 9.1760
 0.6280	 9.1640
 0.6290	 9.1560
 0.6300	 9.1500
 0.6310	 9.1400
 0.6320	 9.1260
 0.6330	 9.1090
 0.6340	 9.0820
 0.6350	 9.0420
 0.6360	 8.9870
 0.6370	 8.9190
 0.6380	 8.8450
 0.6390	 8.7620
 0.6400	 8.6650
 0.6410	 8.5610
 0.6420	 8.4500
 0.6430	 8.3330
 0.6440	 8.2170
 0.6450	 8.1010
 0.6460	 7.9880
 0.6470	 7.8800
 0.6480	 7.7810
 0.6490	 7.6940
 0.6500	 7.6210
 0.6510	 7.5610
 0.6520	 7.5090
 0.6530	 7.4620
 0.6540	 7.4140
 0.6550	 7.3600
 0.6560	 7.3020
 0.6570	 7.2380
 0.6580	 7.1600
 0.6590	 7.0810
 0.6600	 6.9960
 0.6610	 6.9060
 0.6620	 6.8150
 0.6630	 6.7290
 0.6640	 6.6490
 0.6650	 6.5780
 0.6660	 6.5110
 0.6670	 6.4520
 0.6680	 6.4020
 0.6690	 6.3600
 0.6700	 6.3270
 0.6710	 6.3040
 0.6720	 6.2890
 0.6730	 6.2830
 0.6740	 6.2850
 0.6750	 6.2930
 0.6760	 6.3050
 0.6770	 6.3230
 0.6780	 6.3500
 0.6790	 6.3850
 0.6800	 6.4280
 0.6810	 6.4870
 0.6820	 6.5640
 0.6830	 6.6590
 0.6840	 6.7750
 0.6850	 6.9210
 0.6860	 7.1020
 0.6870	 7.3270
 0.6880	 7.6050
 0.6890	 7.9420
 0.6900	 8.3470
 0.6910	 8.8280
 0.6920	 9.3820
 0.6930	10.0080
 0.6940	10.7020
 0.6950	11.4570
 0.6960	12.2650
 0.6970	13.1190
 0.6980	14.0110
 0.6990	14.9350
 0.7000	15.8830
 0.7010	16.8490
 0.7020	17.8270
 0.7030	18.8030
 0.7040	19.7800
 0.7050	20.7580
 0.7060	21.7260
 0.7070	22.6940
 0.7080	23.6580
 0.7090	24.6180
 0.7100	25.5770
 0.7110	26.5360
 0.7120	27.4930
 0.7130	28.4440
 0.7140	29.3930
 0.7150	30.3410
 0.7160	31.2840
 0.7170	32.2260
 0.7180	33.1640
 0.7190	34.0910
 0.7200	35.0030
 0.7210	35.9110
 0.7220	36.8060
 0.7230	37.6820
 0.7240	38.5440
 0.7250	39.3880
 0.7260	40.2050
 0.7270	40.9920
 0.7280	41.7560
 0.7290	42.4950
 0.7300	43.2060
 0.7310	43.8830
 0.7320	44.5380
 0.7330	45.1620
 0.7340	45.7510
 0.7350	46.3120
 0.7360	46.8450
 0.7370	47.3460
 0.7380	47.8140
 0.7390	48.2620
 0.7400	48.6880
 0.7410	49.0840
 0.7420	49.4470
 0.7430	49.7890
 0.7440	50.1080
 0.7450	50.4050
 0.7460	50.6870
 0.7470	50.9330
 0.7480	51.1550
 0.7490	51.3640
 0.7500	51.5650
 0.7510	51.7390
 0.7520	51.8960
 0.7530	52.0490
 0.7540	52.1870
 0.7550	52.3100
 0.7560	52.4220
 0.7570	52.5280
 0.7580	52.6200
 0.7590	52.7050
 0.7600	52.7890
 0.7610	52.8630
 0.7620	52.9260
 0.7630	52.9810
 0.7640	53.0350
 0.7650	53.0920
 0.7660	53.1450
 0.7670	53.1900
 0.7680	53.2270
 0.7690	53.2650
 0.7700	53.3000
 0.7710	53.3310
 0.7720	53.3630
 0.7730	53.3950
 0.7740	53.4250
 0.7750	53.4530
 0.7760	53.4800
 0.7770	53.5040
 0.7780	53.5270
 0.7790	53.5530
 0.7800	53.5770
 0.7810	53.6040
 0.7820	53.6330
 0.7830	53.6540
 0.7840	53.6750
 0.7850	53.7000
 0.7860	53.7270
 0.7870	53.7440
 0.7880	53.7630
 0.7890	53.7850
 0.7900	53.8090
 0.7910	53.8330
 0.7920	53.8480
 0.7930	53.8600
 0.7940	53.8800
 0.7950	53.9080
 0.7960	53.9270
 0.7970	53.9350
 0.7980	53.9470
 0.7990	53.9650
 0.8000	53.9830
 0.8010	54.0000
 0.8020	54.0140
 0.8030	54.0300
 0.8040	54.0430
 0.8050	54.0500
 0.8060	54.0690
 0.8070	54.0880
 0.8080	54.1030
 0.8090	54.1140
 0.8100	54.1200
 0.8110	54.1280
 0.8120	54.1400
 0.8130	54.1510
 0.8140	54.1620
 0.8150	54.1770
 0.8160	54.1950
 0.8170	54.1980
 0.8180	54.2050
 0.8190	54.2170
 0.8200	54.2290
 0.8210	54.2360
 0.8220	54.2490
 0.8230	54.2660
 0.8240	54.2710
 0.8250	54.2740
 0.8260	54.2760
 0.8270	54.2790
 0.8280	54.2880
 0.8290	54.2970
 0.8300	54.3020
 0.8310	54.3070
 0.8320	54.3180
 0.8330	54.3240
 0.8340	54.3260
 0.8350	54.3320
 0.8360	54.3490
 0.8370	54.3660
 0.8380	54.3740
 0.8390	54.3710
 0.8400	54.3770
 0.8410	54.3970
 0.8420	54.4240
 0.8430	54.4370
 0.8440	54.4420
 0.8450	54.4520
 0.8460	54.4720
 0.8470	54.4800
 0.8480	54.4920
 0.8490	54.5140
 0.8500	54.5400
 0.8510	54.5390
 0.8520	54.5520
 0.8530	54.5760
 0.8540	54.5840
 0.8550	54.5900
 0.8560	54.6040
 0.8570	54.6220
 0.8580	54.6340
 0.8590	54.6430
 0.8600	54.6480
 0.8610	54.6540
 0.8620	54.6740
 0.8630	54.6900
 0.8640	54.6990
 0.8650	54.7060
 0.8660	54.7080
 0.8670	54.7280
 0.8680	54.7510
 0.8690	54.7570
 0.8700	54.7740
 0.8710	54.7880
 0.8720	54.7910
 0.8730	54.7840
 0.8740	54.7960
 0.8750	54.8060
 0.8760	54.8110
 0.8770	54.8230
 0.8780	54.8320
 0.8790	54.8350
 0.8800	54.8370
 0.8810	54.8480
 0.8820	54.8600
 0.8830	54.8720
 0.8840	54.8820
 0.8850	54.8840
 0.8860	54.8860
 0.8870	54.8840
 0.8880	54.8770
 0.8890	54.8920
 0.8900	54.8940
 0.8910	54.8860
 0.8920	54.8830
 0.8930	54.8840
 0.8940	54.8840
 0.8950	54.8870
 0.8960	54.9000
 0.8970	54.9030
 0.8980	54.9020
 0.8990	54.9000
 0.9000	54.8880
 0.9010	54.8900
 0.9020	54.8980
 0.9030	54.9020
 0.9040	54.8890
 0.9050	54.8900
 0.9060	54.8930
 0.9070	54.8860
 0.9080	54.8820
 0.9090	54.8730
 0.9100	54.8660
 0.9110	54.8660
 0.9120	54.8680
 0.9130	54.8630
 0.9140	54.8550
 0.9150	54.8520
 0.9160	54.8590
 0.9170	54.8570
 0.9180	54.8480
 0.9190	54.8420
 0.9200	54.8320
 0.9210	54.8170
 0.9220	54.8010
 0.9230	54.7870
 0.9240	54.7760
 0.9250	54.7660
 0.9260	54.7490
 0.9270	54.7170
 0.9280	54.7100
 0.9290	54.6940
 0.9300	54.6660
 0.9310	54.6560
 0.9320	54.6220
 0.9330	54.5860
 0.9340	54.5620
 0.9350	54.5450
 0.9360	54.5150
 0.9370	54.4710
 0.9380	54.4240
 0.9390	54.3890
 0.9400	54.3530
 0.9410	54.3090
 0.9420	54.2590
 0.9430	54.2110
 0.9440	54.1540
 0.9450	54.0850
 0.9460	54.0100
 0.9470	53.9470
 0.9480	53.8730
 0.9490	53.7840
 0.9500	53.6840
 0.9510	53.5680
 0.9520	53.4710
 0.9530	53.3790
 0.9540	53.2660
 0.9550	53.1360
 0.9560	53.0290
 0.9570	52.9340
 0.9580	52.8320
 0.9590	52.7400
 0.9600	52.6520
 0.9610	52.5730
 0.9620	52.5070
 0.9630	52.4360
 0.9640	52.3790
 0.9650	52.3250
 0.9660	52.2610
 0.9670	52.2180
 0.9680	52.1820
 0.9690	52.1550
 0.9700	52.1450
 0.9710	52.1200
 0.9720	52.0920
 0.9730	52.0660
 0.9740	52.0450
 0.9750	52.0200
 0.9760	52.0000
 0.9770	51.9970
 0.9780	52.0110
 0.9790	51.9960
 0.9800	51.9920
 0.9810	51.9970
 0.9820	51.9990
 0.9830	52.0420
 0.9840	52.0580
 0.9850	52.0560
 0.9860	52.0740
 0.9870	52.0910
 0.9880	52.1150
 0.9890	52.1440
 0.9900	52.1730
 0.9910	52.2130
 0.9920	52.3180
 0.9930	52.4230
 0.9940	52.5270
 0.9950	52.6320
 0.9960	52.7370
 0.9970	52.8420
 0.9980	52.9470
 0.9990	53.0510
 1.0000	53.1560
 1.0010	53.2610
 1.0020	53.3660
 1.0030	53.4710
 1.0040	53.5760
 1.0050	53.6800
 1.0060	53.7850
 1.0070	53.8900
 1.0080	53.9950
 1.0090	54.1000
 1.0100	54.1000
 1.0110	54.1570
 1.0120	54.2090
 1.0130	54.2660
 1.0140	54.3170
 1.0150	54.3660
 1.0160	54.4120
 1.0170	54.4610
 1.0180	54.5100
 1.0190	54.5620
 1.0200	54.6160
 1.0210	54.6720
 1.0220	54.7280
 1.0230	54.7830
 1.0240	54.8380
 1.0250	54.8920
 1.0260	54.9460
 1.0270	54.9950
 1.0280	55.0410
 1.0290	55.0880
 1.0300	55.1330
 1.0310	55.1790
 1.0320	55.2250
 1.0330	55.2750
 1.0340	55.3210
 1.0350	55.3640
 1.0360	55.4070
 1.0370	55.4510
 1.0380	55.4920
 1.0390	55.5300
 1.0400	55.5690
 1.0410	55.6030
 1.0420	55.6430
 1.0430	55.6880
 1.0440	55.7270
 1.0450	55.7630
 1.0460	55.8010
 1.0470	55.8340
 1.0480	55.8690
 1.0490	55.9110
 1.0500	55.9470
 1.0510	55.9800
 1.0520	56.0110
 1.0530	56.0410
 1.0540	56.0690
 1.0550	56.0960
 1.0560	56.1230
 1.0570	56.1470
 1.0580	56.1690
 1.0590	56.1910
 1.0600	56.2100
 1.0610	56.2300
 1.0620	56.2480
 1.0630	56.2690
 1.0640	56.2940
 1.0650	56.3140
 1.0660	56.3330
 1.0670	56.3510
 1.0680	56.3650
 1.0690	56.3760
 1.0700	56.3880
 1.0710	56.4020
 1.0720	56.4110
 1.0730	56.4180
 1.0740	56.4260
 1.0750	56.4320
 1.0760	56.4380
 1.0770	56.4420
 1.0780	56.4470
 1.0790	56.4530
 1.0800	56.4560
 1.0810	56.4590
 1.0820	56.4590
 1.0830	56.4540
 1.0840	56.4490
 1.0850	56.4400
 1.0860	56.4360
 1.0870	56.4300
 1.0880	56.4250
 1.0890	56.4190
 1.0900	56.4120
 1.0910	56.4050
 1.0920	56.3970
 1.0930	56.3860
 1.0940	56.3740
 1.0950	56.3590
 1.0960	56.3360
 1.0970	56.3190
 1.0980	56.3060
 1.0990	56.2900
 1.1000	56.2740
 1.1010	56.2550
 1.1020	56.2340
 1.1030	56.2100
 1.1040	56.1880
 1.1050	56.1690
 1.1060	56.1450
 1.1070	56.1210
 1.1080	56.0950
 1.1090	56.0650
 1.1100	56.0360
 1.1110	56.0080
 1.1120	55.9770
 1.1130	55.9450
 1.1140	55.9100
 1.1150	55.8750
 1.1160	55.8330
 1.1170	55.7850
 1.1180	55.7350
 1.1190	55.6830
 1.1200	55.6230
 1.1210	55.5620
 1.1220	55.4950
 1.1230	55.4170
 1.1240	55.3350
 1.1250	55.2400
 1.1260	55.1350
 1.1270	55.0200
 1.1280	54.8960
 1.1290	54.7570
 1.1300	54.6080
 1.1310	54.4440
 1.1320	54.2630
 1.1330	54.0730
 1.1340	53.8730
 1.1350	53.6600
 1.1360	53.4340
 1.1370	53.1960
 1.1380	52.9470
 1.1390	52.6890
 1.1400	52.4250
 1.1410	52.1590
 1.1420	51.8890
 1.1430	51.6160
 1.1440	51.3470
 1.1450	51.0760
 1.1460	50.8140
 1.1470	50.5500
 1.1480	50.3010
 1.1490	50.0570
 1.1500	49.8260
 1.1510	49.6040
 1.1520	49.3950
 1.1530	49.1950
 1.1540	49.0100
 1.1550	48.8390
 1.1560	48.6800
 1.1570	48.5350
 1.1580	48.4030
 1.1590	48.2770
 1.1600	48.1630
 1.1610	48.0600
 1.1620	47.9630
 1.1630	47.8770
 1.1640	47.7970
 1.1650	47.7200
 1.1660	47.6450
 1.1670	47.5790
 1.1680	47.5200
 1.1690	47.4610
 1.1700	47.4100
 1.1710	47.3570
 1.1720	47.3030
 1.1730	47.2510
 1.1740	47.2010
 1.1750	47.1530
 1.1760	47.1020
 1.1770	47.0490
 1.1780	46.9960
 1.1790	46.9410
 1.1800	46.8830
 1.1810	46.8280
 1.1820	46.7690
 1.1830	46.7110
 1.1840	46.6540
 1.1850	46.5970
 1.1860	46.5440
 1.1870	46.4900
 1.1880	46.4390
 1.1890	46.3920
 1.1900	46.3450
 1.1910	46.2990
 1.1920	46.2570
 1.1930	46.2150
 1.1940	46.1790
 1.1950	46.1460
 1.1960	46.1170
 1.1970	46.0940
 1.1980	46.0750
 1.1990	46.0620
 1.2000	46.0550
 1.2010	46.0530
 1.2020	46.0560
 1.2030	46.0670
 1.2040	46.0840
 1.2050	46.1050
 1.2060	46.1340
 1.2070	46.1690
 1.2080	46.2070
 1.2090	46.2510
 1.2100	46.3010
 1.2110	46.3560
 1.2120	46.4150
 1.2130	46.4790
 1.2140	46.5500
 1.2150	46.6230
 1.2160	46.6990
 1.2170	46.7800
 1.2180	46.8630
 1.2190	46.9470
 1.2200	47.0320
 1.2210	47.1200
 1.2220	47.2070
 1.2230	47.2940
 1.2240	47.3820
 1.2250	47.4690
 1.2260	47.5550
 1.2270	47.6410
 1.2280	47.7240
 1.2290	47.8070
 1.2300	47.8860
 1.2310	47.9620
 1.2320	48.0360
 1.2330	48.1060
 1.2340	48.1750
 1.2350	48.2430
 1.2360	48.3070
 1.2370	48.3690
 1.2380	48.4280
 1.2390	48.4840
 1.2400	48.5390
 1.2410	48.5940
 1.2420	48.6480
 1.2430	48.6990
 1.2440	48.7480
 1.2450	48.7970
 1.2460	48.8440
 1.2470	48.8890
 1.2480	48.9330
 1.2490	48.9770
 1.2500	49.0180
 1.2510	49.0550
 1.2520	49.0910
 1.2530	49.1230
 1.2540	49.1530
 1.2550	49.1840
 1.2560	49.2140
 1.2570	49.2430
 1.2580	49.2680
 1.2590	49.2920
 1.2600	49.3140
 1.2610	49.3330
 1.2620	49.3500
 1.2630	49.3680
 1.2640	49.3840
 1.2650	49.3980
 1.2660	49.4100
 1.2670	49.4180
 1.2680	49.4270
 1.2690	49.4370
 1.2700	49.4450
 1.2710	49.4520
 1.2720	49.4560
 1.2730	49.4570
 1.2740	49.4570
 1.2750	49.4550
 1.2760	49.4480
 1.2770	49.4370
 1.2780	49.4270
 1.2790	49.4150
 1.2800	49.4010
 1.2810	49.3860
 1.2820	49.3670
 1.2830	49.3440
 1.2840	49.3160
 1.2850	49.2880
 1.2860	49.2560
 1.2870	49.2200
 1.2880	49.1790
 1.2890	49.1370
 1.2900	49.0900
 1.2910	49.0380
 1.2920	48.9860
 1.2930	48.9310
 1.2940	48.8740
 1.2950	48.8140
 1.2960	48.7450
 1.2970	48.6730
 1.2980	48.5950
 1.2990	48.5130
 1.3000	48.4300
 1.3010	48.3420
 1.3020	48.2460
 1.3030	48.1460
 1.3040	48.0420
 1.3050	47.9370
 1.3060	47.8310
 1.3070	47.7190
 1.3080	47.6040
 1.3090	47.4810
 1.3100	47.3520
 1.3110	47.2180
 1.3120	47.0770
 1.3130	46.9340
 1.3140	46.7860
 1.3150	46.6350
 1.3160	46.4790
 1.3170	46.3220
 1.3180	46.1570
 1.3190	45.9860
 1.3200	45.8090
 1.3210	45.6280
 1.3220	45.4440
 1.3230	45.2580
 1.3240	45.0670
 1.3250	44.8730
 1.3260	44.6750
 1.3270	44.4740
 1.3280	44.2730
 1.3290	44.0690
 1.3300	43.8660
 1.3310	43.6600
 1.3320	43.4500
 1.3330	43.2410
 1.3340	43.0310
 1.3350	42.8200
 1.3360	42.6110
 1.3370	42.4030
 1.3380	42.1950
 1.3390	41.9890
 1.3400	41.7800
 1.3410	41.5740
 1.3420	41.3730
 1.3430	41.1730
 1.3440	40.9780
 1.3450	40.7870
 1.3460	40.5970
 1.3470	40.4120
 1.3480	40.2290
 1.3490	40.0500
 1.3500	39.8760
 1.3510	39.7040
 1.3520	39.5320
 1.3530	39.3610
 1.3540	39.1890
 1.3550	39.0190
 1.3560	38.8510
 1.3570	38.6830
 1.3580	38.5150
 1.3590	38.3440
 1.3600	38.1670
 1.3610	37.9870
 1.3620	37.8020
 1.3630	37.6110
 1.3640	37.4140
 1.3650	37.2070
 1.3660	36.9950
 1.3670	36.7750
 1.3680	36.5450
 1.3690	36.3080
 1.3700	36.0550
 1.3710	35.7910
 1.3720	35.5120
 1.3730	35.2150
 1.3740	34.9040
 1.3750	34.5750
 1.3760	34.2250
 1.3770	33.8590
 1.3780	33.4660
 1.3790	33.0530
 1.3800	32.6200
 1.3810	32.1640
 1.3820	31.6940
 1.3830	31.2080
 1.3840	30.7060
 1.3850	30.1870
 1.3860	29.6620
 1.3870	29.1190
 1.3880	28.5770
 1.3890	28.0280
 1.3900	27.4750
 1.3910	26.9240
 1.3920	26.3720
 1.3930	25.8230
 1.3940	25.2820
 1.3950	24.7410
 1.3960	24.2120
 1.3970	23.6960
 1.3980	23.1900
 1.3990	22.7050
 1.4000	22.2340
 1.4010	21.7770
 1.4020	21.3390
 1.4030	20.9150
 1.4040	20.5100
 1.4050	20.1250
 1.4060	19.7580
 1.4070	19.4120
 1.4080	19.0830
 1.4090	18.7710
 1.4100	18.4770
 1.4110	18.1990
 1.4120	17.9370
 1.4130	17.6930
 1.4140	17.4630
 1.4150	17.2490
 1.4160	17.0500
 1.4170	16.8630
 1.4180	16.6880
 1.4190	16.5240
 1.4200	16.3710
 1.4210	16.2290
 1.4220	16.0960
 1.4230	15.9750
 1.4240	15.8620
 1.4250	15.7570
 1.4260	15.6600
 1.4270	15.5690
 1.4280	15.4860
 1.4290	15.4090
 1.4300	15.3410
 1.4310	15.2770
 1.4320	15.2190
 1.4330	15.1660
 1.4340	15.1180
 1.4350	15.0750
 1.4360	15.0370
 1.4370	15.0050
 1.4380	14.9760
 1.4390	14.9510
 1.4400	14.9290
 1.4410	14.9110
 1.4420	14.8970
 1.4430	14.8860
 1.4440	14.8770
 1.4450	14.8720
 1.4460	14.8690
 1.4470	14.8690
 1.4480	14.8710
 1.4490	14.8750
 1.4500	14.8790
 1.4510	14.8850
 1.4520	14.8930
 1.4530	14.9010
 1.4540	14.9120
 1.4550	14.9260
 1.4560	14.9420
 1.4570	14.9610
 1.4580	14.9820
 1.4590	15.0060
 1.4600	15.0320
 1.4610	15.0610
 1.4620	15.0940
 1.4630	15.1320
 1.4640	15.1720
 1.4650	15.2170
 1.4660	15.2640
 1.4670	15.3160
 1.4680	15.3710
