Name: Gasteria acinacifolia
Type: vegetation
Class: Shrub
Genus: Gasteria
Species: acinacifolia
Sample No.: JPL143
Owner: JPL
Wavelength Range: VSWIR
Origin: 34.12581; -118.10946; WGS84
Collection Date: 9/14/2016
Description: Samples were collected at the Huntington Garden in San Marino California as part of a JPL Subcontract studying HyTES imagery. Samples were taken to JPL and processed within 48 hours of collection. The same leaves were processed in the Nicolet and then measured using the ASD.
Measurement: Bidirectional reflectance
First Column: X
Second Column: Y
X Units: Wavelength (micrometer)
Y Units: Reflectance (percentage)
First X Value: 0.35
Last X Value: 2.5
Number of X Values: 2151
Additional Information: vegetation.shrub.gasteria.acinacifolia.vswir.jpl143.jpl.asd.ancillary.txt

 0.3500	 2.8580
 0.3510	 2.6620
 0.3520	 2.5580
 0.3530	 2.5180
 0.3540	 2.5110
 0.3550	 2.6480
 0.3560	 2.7320
 0.3570	 2.7220
 0.3580	 2.6690
 0.3590	 2.6680
 0.3600	 2.5780
 0.3610	 2.4350
 0.3620	 2.5540
 0.3630	 2.6430
 0.3640	 2.6450
 0.3650	 2.5890
 0.3660	 2.5860
 0.3670	 2.5560
 0.3680	 2.5160
 0.3690	 2.5410
 0.3700	 2.5610
 0.3710	 2.5780
 0.3720	 2.5970
 0.3730	 2.6150
 0.3740	 2.5880
 0.3750	 2.5500
 0.3760	 2.5510
 0.3770	 2.6030
 0.3780	 2.6280
 0.3790	 2.6140
 0.3800	 2.6120
 0.3810	 2.5900
 0.3820	 2.5830
 0.3830	 2.6090
 0.3840	 2.6290
 0.3850	 2.6130
 0.3860	 2.5810
 0.3870	 2.5690
 0.3880	 2.5890
 0.3890	 2.5860
 0.3900	 2.5710
 0.3910	 2.6250
 0.3920	 2.6440
 0.3930	 2.6450
 0.3940	 2.6550
 0.3950	 2.6780
 0.3960	 2.6840
 0.3970	 2.6890
 0.3980	 2.7200
 0.3990	 2.7240
 0.4000	 2.7210
 0.4010	 2.7340
 0.4020	 2.7750
 0.4030	 2.7660
 0.4040	 2.7620
 0.4050	 2.8110
 0.4060	 2.8060
 0.4070	 2.8300
 0.4080	 2.8680
 0.4090	 2.8520
 0.4100	 2.8790
 0.4110	 2.9210
 0.4120	 2.9510
 0.4130	 2.9700
 0.4140	 2.9980
 0.4150	 3.0310
 0.4160	 3.0560
 0.4170	 3.0790
 0.4180	 3.0940
 0.4190	 3.1090
 0.4200	 3.1480
 0.4210	 3.1860
 0.4220	 3.2160
 0.4230	 3.2400
 0.4240	 3.2630
 0.4250	 3.2930
 0.4260	 3.3230
 0.4270	 3.3440
 0.4280	 3.3710
 0.4290	 3.4040
 0.4300	 3.4370
 0.4310	 3.4570
 0.4320	 3.4760
 0.4330	 3.4960
 0.4340	 3.5120
 0.4350	 3.5310
 0.4360	 3.5540
 0.4370	 3.5770
 0.4380	 3.5960
 0.4390	 3.6170
 0.4400	 3.6370
 0.4410	 3.6560
 0.4420	 3.6700
 0.4430	 3.6810
 0.4440	 3.6960
 0.4450	 3.7230
 0.4460	 3.7370
 0.4470	 3.7510
 0.4480	 3.7680
 0.4490	 3.7820
 0.4500	 3.8000
 0.4510	 3.8160
 0.4520	 3.8250
 0.4530	 3.8280
 0.4540	 3.8340
 0.4550	 3.8480
 0.4560	 3.8700
 0.4570	 3.8790
 0.4580	 3.8820
 0.4590	 3.8860
 0.4600	 3.9020
 0.4610	 3.9050
 0.4620	 3.9050
 0.4630	 3.9200
 0.4640	 3.9270
 0.4650	 3.9250
 0.4660	 3.9190
 0.4670	 3.9220
 0.4680	 3.9290
 0.4690	 3.9330
 0.4700	 3.9350
 0.4710	 3.9440
 0.4720	 3.9510
 0.4730	 3.9540
 0.4740	 3.9590
 0.4750	 3.9610
 0.4760	 3.9600
 0.4770	 3.9580
 0.4780	 3.9630
 0.4790	 3.9750
 0.4800	 3.9850
 0.4810	 3.9860
 0.4820	 3.9860
 0.4830	 3.9860
 0.4840	 3.9890
 0.4850	 3.9980
 0.4860	 4.0010
 0.4870	 4.0050
 0.4880	 4.0120
 0.4890	 4.0180
 0.4900	 4.0210
 0.4910	 4.0270
 0.4920	 4.0430
 0.4930	 4.0570
 0.4940	 4.0670
 0.4950	 4.0780
 0.4960	 4.0980
 0.4970	 4.1190
 0.4980	 4.1400
 0.4990	 4.1620
 0.5000	 4.1800
 0.5010	 4.2030
 0.5020	 4.2330
 0.5030	 4.2650
 0.5040	 4.2990
 0.5050	 4.3350
 0.5060	 4.3740
 0.5070	 4.4210
 0.5080	 4.4680
 0.5090	 4.5180
 0.5100	 4.5720
 0.5110	 4.6310
 0.5120	 4.6960
 0.5130	 4.7680
 0.5140	 4.8440
 0.5150	 4.9270
 0.5160	 5.0180
 0.5170	 5.1150
 0.5180	 5.2120
 0.5190	 5.3160
 0.5200	 5.4260
 0.5210	 5.5410
 0.5220	 5.6580
 0.5230	 5.7760
 0.5240	 5.8930
 0.5250	 6.0120
 0.5260	 6.1270
 0.5270	 6.2370
 0.5280	 6.3420
 0.5290	 6.4410
 0.5300	 6.5380
 0.5310	 6.6310
 0.5320	 6.7090
 0.5330	 6.7830
 0.5340	 6.8520
 0.5350	 6.9120
 0.5360	 6.9660
 0.5370	 7.0170
 0.5380	 7.0630
 0.5390	 7.1010
 0.5400	 7.1400
 0.5410	 7.1790
 0.5420	 7.2140
 0.5430	 7.2450
 0.5440	 7.2750
 0.5450	 7.3020
 0.5460	 7.3200
 0.5470	 7.3370
 0.5480	 7.3540
 0.5490	 7.3700
 0.5500	 7.3840
 0.5510	 7.3930
 0.5520	 7.3970
 0.5530	 7.3940
 0.5540	 7.3780
 0.5550	 7.3550
 0.5560	 7.3280
 0.5570	 7.2940
 0.5580	 7.2570
 0.5590	 7.2130
 0.5600	 7.1630
 0.5610	 7.1150
 0.5620	 7.0650
 0.5630	 7.0110
 0.5640	 6.9570
 0.5650	 6.9000
 0.5660	 6.8400
 0.5670	 6.7720
 0.5680	 6.6980
 0.5690	 6.6230
 0.5700	 6.5510
 0.5710	 6.4820
 0.5720	 6.4120
 0.5730	 6.3440
 0.5740	 6.2800
 0.5750	 6.2200
 0.5760	 6.1690
 0.5770	 6.1210
 0.5780	 6.0720
 0.5790	 6.0300
 0.5800	 5.9910
 0.5810	 5.9540
 0.5820	 5.9220
 0.5830	 5.8900
 0.5840	 5.8590
 0.5850	 5.8290
 0.5860	 5.8030
 0.5870	 5.7780
 0.5880	 5.7540
 0.5890	 5.7290
 0.5900	 5.7080
 0.5910	 5.6920
 0.5920	 5.6810
 0.5930	 5.6730
 0.5940	 5.6600
 0.5950	 5.6480
 0.5960	 5.6420
 0.5970	 5.6390
 0.5980	 5.6320
 0.5990	 5.6230
 0.6000	 5.6160
 0.6010	 5.6060
 0.6020	 5.5920
 0.6030	 5.5730
 0.6040	 5.5520
 0.6050	 5.5280
 0.6060	 5.5020
 0.6070	 5.4740
 0.6080	 5.4400
 0.6090	 5.4070
 0.6100	 5.3750
 0.6110	 5.3440
 0.6120	 5.3100
 0.6130	 5.2760
 0.6140	 5.2430
 0.6150	 5.2090
 0.6160	 5.1790
 0.6170	 5.1550
 0.6180	 5.1320
 0.6190	 5.1090
 0.6200	 5.0880
 0.6210	 5.0720
 0.6220	 5.0580
 0.6230	 5.0450
 0.6240	 5.0320
 0.6250	 5.0210
 0.6260	 5.0180
 0.6270	 5.0150
 0.6280	 5.0090
 0.6290	 5.0040
 0.6300	 5.0030
 0.6310	 5.0030
 0.6320	 5.0010
 0.6330	 4.9990
 0.6340	 4.9940
 0.6350	 4.9860
 0.6360	 4.9760
 0.6370	 4.9630
 0.6380	 4.9470
 0.6390	 4.9300
 0.6400	 4.9100
 0.6410	 4.8910
 0.6420	 4.8710
 0.6430	 4.8500
 0.6440	 4.8280
 0.6450	 4.8020
 0.6460	 4.7760
 0.6470	 4.7540
 0.6480	 4.7290
 0.6490	 4.7070
 0.6500	 4.6900
 0.6510	 4.6760
 0.6520	 4.6640
 0.6530	 4.6510
 0.6540	 4.6370
 0.6550	 4.6220
 0.6560	 4.6040
 0.6570	 4.5840
 0.6580	 4.5630
 0.6590	 4.5420
 0.6600	 4.5170
 0.6610	 4.4910
 0.6620	 4.4680
 0.6630	 4.4470
 0.6640	 4.4270
 0.6650	 4.4110
 0.6660	 4.3980
 0.6670	 4.3870
 0.6680	 4.3800
 0.6690	 4.3800
 0.6700	 4.3820
 0.6710	 4.3870
 0.6720	 4.3980
 0.6730	 4.4120
 0.6740	 4.4290
 0.6750	 4.4480
 0.6760	 4.4690
 0.6770	 4.4970
 0.6780	 4.5280
 0.6790	 4.5630
 0.6800	 4.6030
 0.6810	 4.6460
 0.6820	 4.6920
 0.6830	 4.7410
 0.6840	 4.7950
 0.6850	 4.8520
 0.6860	 4.9130
 0.6870	 4.9800
 0.6880	 5.0540
 0.6890	 5.1400
 0.6900	 5.2430
 0.6910	 5.3620
 0.6920	 5.5040
 0.6930	 5.6760
 0.6940	 5.8780
 0.6950	 6.1120
 0.6960	 6.3810
 0.6970	 6.6860
 0.6980	 7.0250
 0.6990	 7.3950
 0.7000	 7.7970
 0.7010	 8.2280
 0.7020	 8.6840
 0.7030	 9.1620
 0.7040	 9.6600
 0.7050	10.1760
 0.7060	10.7070
 0.7070	11.2560
 0.7080	11.8200
 0.7090	12.4000
 0.7100	12.9970
 0.7110	13.6130
 0.7120	14.2450
 0.7130	14.8940
 0.7140	15.5620
 0.7150	16.2470
 0.7160	16.9490
 0.7170	17.6700
 0.7180	18.4050
 0.7190	19.1530
 0.7200	19.9140
 0.7210	20.6830
 0.7220	21.4630
 0.7230	22.2480
 0.7240	23.0350
 0.7250	23.8200
 0.7260	24.6020
 0.7270	25.3790
 0.7280	26.1460
 0.7290	26.9020
 0.7300	27.6430
 0.7310	28.3660
 0.7320	29.0690
 0.7330	29.7500
 0.7340	30.4090
 0.7350	31.0430
 0.7360	31.6510
 0.7370	32.2340
 0.7380	32.7900
 0.7390	33.3170
 0.7400	33.8160
 0.7410	34.2850
 0.7420	34.7250
 0.7430	35.1360
 0.7440	35.5190
 0.7450	35.8750
 0.7460	36.2050
 0.7470	36.5060
 0.7480	36.7840
 0.7490	37.0410
 0.7500	37.2710
 0.7510	37.4820
 0.7520	37.6750
 0.7530	37.8490
 0.7540	38.0110
 0.7550	38.1580
 0.7560	38.2910
 0.7570	38.4150
 0.7580	38.5250
 0.7590	38.6240
 0.7600	38.7130
 0.7610	38.7970
 0.7620	38.8720
 0.7630	38.9390
 0.7640	38.9990
 0.7650	39.0500
 0.7660	39.1010
 0.7670	39.1490
 0.7680	39.1890
 0.7690	39.2260
 0.7700	39.2600
 0.7710	39.2920
 0.7720	39.3190
 0.7730	39.3470
 0.7740	39.3740
 0.7750	39.3980
 0.7760	39.4260
 0.7770	39.4530
 0.7780	39.4750
 0.7790	39.4940
 0.7800	39.5160
 0.7810	39.5380
 0.7820	39.5580
 0.7830	39.5780
 0.7840	39.5970
 0.7850	39.6160
 0.7860	39.6350
 0.7870	39.6530
 0.7880	39.6680
 0.7890	39.6820
 0.7900	39.7010
 0.7910	39.7180
 0.7920	39.7300
 0.7930	39.7410
 0.7940	39.7560
 0.7950	39.7690
 0.7960	39.7800
 0.7970	39.7900
 0.7980	39.7990
 0.7990	39.8090
 0.8000	39.8190
 0.8010	39.8270
 0.8020	39.8320
 0.8030	39.8380
 0.8040	39.8460
 0.8050	39.8540
 0.8060	39.8580
 0.8070	39.8640
 0.8080	39.8690
 0.8090	39.8680
 0.8100	39.8710
 0.8110	39.8750
 0.8120	39.8770
 0.8130	39.8750
 0.8140	39.8730
 0.8150	39.8720
 0.8160	39.8710
 0.8170	39.8710
 0.8180	39.8700
 0.8190	39.8700
 0.8200	39.8720
 0.8210	39.8700
 0.8220	39.8670
 0.8230	39.8630
 0.8240	39.8580
 0.8250	39.8530
 0.8260	39.8480
 0.8270	39.8420
 0.8280	39.8340
 0.8290	39.8260
 0.8300	39.8200
 0.8310	39.8150
 0.8320	39.8060
 0.8330	39.7980
 0.8340	39.7930
 0.8350	39.7910
 0.8360	39.7880
 0.8370	39.7840
 0.8380	39.7800
 0.8390	39.7830
 0.8400	39.7840
 0.8410	39.7850
 0.8420	39.7850
 0.8430	39.7810
 0.8440	39.7830
 0.8450	39.7860
 0.8460	39.7890
 0.8470	39.7930
 0.8480	39.7970
 0.8490	39.8010
 0.8500	39.8030
 0.8510	39.8090
 0.8520	39.8140
 0.8530	39.8170
 0.8540	39.8220
 0.8550	39.8290
 0.8560	39.8370
 0.8570	39.8450
 0.8580	39.8500
 0.8590	39.8540
 0.8600	39.8620
 0.8610	39.8730
 0.8620	39.8790
 0.8630	39.8840
 0.8640	39.8920
 0.8650	39.9060
 0.8660	39.9130
 0.8670	39.9220
 0.8680	39.9330
 0.8690	39.9410
 0.8700	39.9470
 0.8710	39.9560
 0.8720	39.9670
 0.8730	39.9760
 0.8740	39.9820
 0.8750	39.9920
 0.8760	40.0060
 0.8770	40.0150
 0.8780	40.0270
 0.8790	40.0350
 0.8800	40.0390
 0.8810	40.0530
 0.8820	40.0630
 0.8830	40.0700
 0.8840	40.0780
 0.8850	40.0820
 0.8860	40.0870
 0.8870	40.0930
 0.8880	40.0990
 0.8890	40.1080
 0.8900	40.1160
 0.8910	40.1240
 0.8920	40.1340
 0.8930	40.1380
 0.8940	40.1390
 0.8950	40.1440
 0.8960	40.1540
 0.8970	40.1630
 0.8980	40.1680
 0.8990	40.1700
 0.9000	40.1710
 0.9010	40.1760
 0.9020	40.1850
 0.9030	40.1950
 0.9040	40.1950
 0.9050	40.1960
 0.9060	40.2000
 0.9070	40.2060
 0.9080	40.2070
 0.9090	40.2040
 0.9100	40.1990
 0.9110	40.1990
 0.9120	40.2010
 0.9130	40.2020
 0.9140	40.1980
 0.9150	40.1920
 0.9160	40.1990
 0.9170	40.2000
 0.9180	40.1910
 0.9190	40.1830
 0.9200	40.1790
 0.9210	40.1660
 0.9220	40.1490
 0.9230	40.1420
 0.9240	40.1310
 0.9250	40.1160
 0.9260	40.0980
 0.9270	40.0830
 0.9280	40.0620
 0.9290	40.0380
 0.9300	40.0130
 0.9310	39.9890
 0.9320	39.9600
 0.9330	39.9300
 0.9340	39.9030
 0.9350	39.8770
 0.9360	39.8370
 0.9370	39.8000
 0.9380	39.7710
 0.9390	39.7340
 0.9400	39.6950
 0.9410	39.6510
 0.9420	39.6030
 0.9430	39.5550
 0.9440	39.4970
 0.9450	39.4350
 0.9460	39.3720
 0.9470	39.3010
 0.9480	39.2290
 0.9490	39.1540
 0.9500	39.0720
 0.9510	38.9750
 0.9520	38.8740
 0.9530	38.7760
 0.9540	38.6840
 0.9550	38.5870
 0.9560	38.4870
 0.9570	38.3890
 0.9580	38.3010
 0.9590	38.2160
 0.9600	38.1450
 0.9610	38.0760
 0.9620	37.9990
 0.9630	37.9410
 0.9640	37.8900
 0.9650	37.8400
 0.9660	37.7920
 0.9670	37.7600
 0.9680	37.7300
 0.9690	37.7040
 0.9700	37.6850
 0.9710	37.6440
 0.9720	37.6150
 0.9730	37.5960
 0.9740	37.5760
 0.9750	37.5570
 0.9760	37.5460
 0.9770	37.5390
 0.9780	37.5270
 0.9790	37.5230
 0.9800	37.5180
 0.9810	37.5100
 0.9820	37.5030
 0.9830	37.5110
 0.9840	37.5270
 0.9850	37.5390
 0.9860	37.5400
 0.9870	37.5590
 0.9880	37.5850
 0.9890	37.6060
 0.9900	37.6100
 0.9910	37.6150
 0.9920	37.6410
 0.9930	37.6760
 0.9940	37.6950
 0.9950	37.7110
 0.9960	37.7430
 0.9970	37.7830
 0.9980	37.8160
 0.9990	37.8560
 1.0000	37.8870
 1.0010	38.8180
 1.0020	38.8520
 1.0030	38.8870
 1.0040	38.9220
 1.0050	38.9580
 1.0060	38.9970
 1.0070	39.0380
 1.0080	39.0750
 1.0090	39.1090
 1.0100	39.1480
 1.0110	39.1880
 1.0120	39.2280
 1.0130	39.2720
 1.0140	39.3140
 1.0150	39.3550
 1.0160	39.3940
 1.0170	39.4330
 1.0180	39.4690
 1.0190	39.5070
 1.0200	39.5470
 1.0210	39.5900
 1.0220	39.6360
 1.0230	39.6780
 1.0240	39.7200
 1.0250	39.7580
 1.0260	39.7900
 1.0270	39.8280
 1.0280	39.8650
 1.0290	39.9030
 1.0300	39.9470
 1.0310	39.9850
 1.0320	40.0190
 1.0330	40.0540
 1.0340	40.0900
 1.0350	40.1230
 1.0360	40.1560
 1.0370	40.1910
 1.0380	40.2260
 1.0390	40.2600
 1.0400	40.2930
 1.0410	40.3280
 1.0420	40.3590
 1.0430	40.3850
 1.0440	40.4130
 1.0450	40.4410
 1.0460	40.4690
 1.0470	40.5000
 1.0480	40.5270
 1.0490	40.5520
 1.0500	40.5770
 1.0510	40.6020
 1.0520	40.6260
 1.0530	40.6490
 1.0540	40.6730
 1.0550	40.6960
 1.0560	40.7190
 1.0570	40.7390
 1.0580	40.7560
 1.0590	40.7740
 1.0600	40.7870
 1.0610	40.8010
 1.0620	40.8190
 1.0630	40.8350
 1.0640	40.8510
 1.0650	40.8640
 1.0660	40.8750
 1.0670	40.8860
 1.0680	40.8950
 1.0690	40.9000
 1.0700	40.9080
 1.0710	40.9180
 1.0720	40.9240
 1.0730	40.9270
 1.0740	40.9320
 1.0750	40.9350
 1.0760	40.9380
 1.0770	40.9440
 1.0780	40.9460
 1.0790	40.9440
 1.0800	40.9420
 1.0810	40.9370
 1.0820	40.9330
 1.0830	40.9320
 1.0840	40.9270
 1.0850	40.9200
 1.0860	40.9150
 1.0870	40.9070
 1.0880	40.8980
 1.0890	40.8890
 1.0900	40.8820
 1.0910	40.8710
 1.0920	40.8570
 1.0930	40.8450
 1.0940	40.8320
 1.0950	40.8180
 1.0960	40.8040
 1.0970	40.7880
 1.0980	40.7700
 1.0990	40.7520
 1.1000	40.7350
 1.1010	40.7160
 1.1020	40.6970
 1.1030	40.6760
 1.1040	40.6540
 1.1050	40.6340
 1.1060	40.6100
 1.1070	40.5850
 1.1080	40.5590
 1.1090	40.5290
 1.1100	40.5020
 1.1110	40.4770
 1.1120	40.4470
 1.1130	40.4160
 1.1140	40.3830
 1.1150	40.3470
 1.1160	40.3090
 1.1170	40.2710
 1.1180	40.2280
 1.1190	40.1820
 1.1200	40.1300
 1.1210	40.0750
 1.1220	40.0160
 1.1230	39.9480
 1.1240	39.8750
 1.1250	39.7940
 1.1260	39.7080
 1.1270	39.6100
 1.1280	39.5060
 1.1290	39.3900
 1.1300	39.2650
 1.1310	39.1280
 1.1320	38.9810
 1.1330	38.8240
 1.1340	38.6560
 1.1350	38.4780
 1.1360	38.2910
 1.1370	38.0940
 1.1380	37.8880
 1.1390	37.6740
 1.1400	37.4520
 1.1410	37.2270
 1.1420	37.0010
 1.1430	36.7710
 1.1440	36.5430
 1.1450	36.3130
 1.1460	36.0880
 1.1470	35.8610
 1.1480	35.6460
 1.1490	35.4350
 1.1500	35.2350
 1.1510	35.0390
 1.1520	34.8560
 1.1530	34.6790
 1.1540	34.5160
 1.1550	34.3660
 1.1560	34.2260
 1.1570	34.0940
 1.1580	33.9740
 1.1590	33.8620
 1.1600	33.7570
 1.1610	33.6640
 1.1620	33.5790
 1.1630	33.4980
 1.1640	33.4250
 1.1650	33.3560
 1.1660	33.2950
 1.1670	33.2370
 1.1680	33.1830
 1.1690	33.1330
 1.1700	33.0870
 1.1710	33.0420
 1.1720	33.0000
 1.1730	32.9570
 1.1740	32.9140
 1.1750	32.8710
 1.1760	32.8290
 1.1770	32.7860
 1.1780	32.7430
 1.1790	32.6990
 1.1800	32.6550
 1.1810	32.6110
 1.1820	32.5670
 1.1830	32.5240
 1.1840	32.4810
 1.1850	32.4380
 1.1860	32.3970
 1.1870	32.3570
 1.1880	32.3180
 1.1890	32.2790
 1.1900	32.2440
 1.1910	32.2090
 1.1920	32.1780
 1.1930	32.1510
 1.1940	32.1260
 1.1950	32.1030
 1.1960	32.0830
 1.1970	32.0660
 1.1980	32.0520
 1.1990	32.0410
 1.2000	32.0310
 1.2010	32.0250
 1.2020	32.0220
 1.2030	32.0230
 1.2040	32.0290
 1.2050	32.0370
 1.2060	32.0470
 1.2070	32.0610
 1.2080	32.0780
 1.2090	32.1000
 1.2100	32.1260
 1.2110	32.1570
 1.2120	32.1910
 1.2130	32.2280
 1.2140	32.2690
 1.2150	32.3140
 1.2160	32.3630
 1.2170	32.4120
 1.2180	32.4640
 1.2190	32.5170
 1.2200	32.5710
 1.2210	32.6290
 1.2220	32.6880
 1.2230	32.7480
 1.2240	32.8080
 1.2250	32.8660
 1.2260	32.9240
 1.2270	32.9810
 1.2280	33.0360
 1.2290	33.0890
 1.2300	33.1410
 1.2310	33.1910
 1.2320	33.2410
 1.2330	33.2910
 1.2340	33.3380
 1.2350	33.3850
 1.2360	33.4300
 1.2370	33.4710
 1.2380	33.5120
 1.2390	33.5500
 1.2400	33.5900
 1.2410	33.6290
 1.2420	33.6650
 1.2430	33.7010
 1.2440	33.7350
 1.2450	33.7680
 1.2460	33.8000
 1.2470	33.8310
 1.2480	33.8620
 1.2490	33.8940
 1.2500	33.9210
 1.2510	33.9490
 1.2520	33.9760
 1.2530	34.0000
 1.2540	34.0240
 1.2550	34.0470
 1.2560	34.0680
 1.2570	34.0870
 1.2580	34.1040
 1.2590	34.1210
 1.2600	34.1360
 1.2610	34.1490
 1.2620	34.1620
 1.2630	34.1720
 1.2640	34.1800
 1.2650	34.1870
 1.2660	34.1920
 1.2670	34.1980
 1.2680	34.2010
 1.2690	34.2020
 1.2700	34.2020
 1.2710	34.2000
 1.2720	34.1970
 1.2730	34.1950
 1.2740	34.1910
 1.2750	34.1850
 1.2760	34.1780
 1.2770	34.1690
 1.2780	34.1580
 1.2790	34.1430
 1.2800	34.1270
 1.2810	34.1110
 1.2820	34.0930
 1.2830	34.0750
 1.2840	34.0560
 1.2850	34.0330
 1.2860	34.0050
 1.2870	33.9740
 1.2880	33.9380
 1.2890	33.8990
 1.2900	33.8570
 1.2910	33.8150
 1.2920	33.7720
 1.2930	33.7280
 1.2940	33.6790
 1.2950	33.6240
 1.2960	33.5650
 1.2970	33.5020
 1.2980	33.4380
 1.2990	33.3720
 1.3000	33.3030
 1.3010	33.2300
 1.3020	33.1520
 1.3030	33.0690
 1.3040	32.9850
 1.3050	32.8950
 1.3060	32.8020
 1.3070	32.7060
 1.3080	32.6060
 1.3090	32.5050
 1.3100	32.4000
 1.3110	32.2900
 1.3120	32.1750
 1.3130	32.0560
 1.3140	31.9340
 1.3150	31.8080
 1.3160	31.6800
 1.3170	31.5490
 1.3180	31.4150
 1.3190	31.2760
 1.3200	31.1340
 1.3210	30.9890
 1.3220	30.8410
 1.3230	30.6920
 1.3240	30.5380
 1.3250	30.3820
 1.3260	30.2240
 1.3270	30.0610
 1.3280	29.8990
 1.3290	29.7330
 1.3300	29.5650
 1.3310	29.3980
 1.3320	29.2260
 1.3330	29.0550
 1.3340	28.8860
 1.3350	28.7160
 1.3360	28.5480
 1.3370	28.3790
 1.3380	28.2090
 1.3390	28.0410
 1.3400	27.8730
 1.3410	27.7090
 1.3420	27.5480
 1.3430	27.3890
 1.3440	27.2330
 1.3450	27.0790
 1.3460	26.9270
 1.3470	26.7780
 1.3480	26.6310
 1.3490	26.4880
 1.3500	26.3480
 1.3510	26.2110
 1.3520	26.0760
 1.3530	25.9430
 1.3540	25.8100
 1.3550	25.6790
 1.3560	25.5470
 1.3570	25.4150
 1.3580	25.2820
 1.3590	25.1470
 1.3600	25.0120
 1.3610	24.8740
 1.3620	24.7330
 1.3630	24.5900
 1.3640	24.4420
 1.3650	24.2890
 1.3660	24.1330
 1.3670	23.9710
 1.3680	23.8020
 1.3690	23.6270
 1.3700	23.4400
 1.3710	23.2460
 1.3720	23.0420
 1.3730	22.8250
 1.3740	22.5990
 1.3750	22.3600
 1.3760	22.1050
 1.3770	21.8360
 1.3780	21.5480
 1.3790	21.2450
 1.3800	20.9280
 1.3810	20.5930
 1.3820	20.2490
 1.3830	19.8940
 1.3840	19.5290
 1.3850	19.1510
 1.3860	18.7700
 1.3870	18.3760
 1.3880	17.9860
 1.3890	17.5930
 1.3900	17.1980
 1.3910	16.8080
 1.3920	16.4190
 1.3930	16.0320
 1.3940	15.6530
 1.3950	15.2780
 1.3960	14.9120
 1.3970	14.5570
 1.3980	14.2130
 1.3990	13.8840
 1.4000	13.5670
 1.4010	13.2610
 1.4020	12.9700
 1.4030	12.6900
 1.4040	12.4240
 1.4050	12.1720
 1.4060	11.9320
 1.4070	11.7080
 1.4080	11.4960
 1.4090	11.2940
 1.4100	11.1060
 1.4110	10.9280
 1.4120	10.7610
 1.4130	10.6050
 1.4140	10.4580
 1.4150	10.3230
 1.4160	10.1960
 1.4170	10.0770
 1.4180	 9.9680
 1.4190	 9.8640
 1.4200	 9.7660
 1.4210	 9.6760
 1.4220	 9.5900
 1.4230	 9.5120
 1.4240	 9.4400
 1.4250	 9.3720
 1.4260	 9.3090
 1.4270	 9.2490
 1.4280	 9.1920
 1.4290	 9.1400
 1.4300	 9.0920
 1.4310	 9.0480
 1.4320	 9.0090
 1.4330	 8.9720
 1.4340	 8.9370
 1.4350	 8.9060
 1.4360	 8.8770
 1.4370	 8.8510
 1.4380	 8.8280
 1.4390	 8.8070
 1.4400	 8.7880
 1.4410	 8.7710
 1.4420	 8.7560
 1.4430	 8.7440
 1.4440	 8.7330
 1.4450	 8.7230
 1.4460	 8.7150
 1.4470	 8.7080
 1.4480	 8.7010
 1.4490	 8.6960
 1.4500	 8.6930
 1.4510	 8.6910
 1.4520	 8.6900
 1.4530	 8.6900
 1.4540	 8.6910
 1.4550	 8.6930
 1.4560	 8.6980
 1.4570	 8.7020
 1.4580	 8.7080
 1.4590	 8.7160
 1.4600	 8.7250
 1.4610	 8.7360
 1.4620	 8.7500
 1.4630	 8.7660
 1.4640	 8.7840
 1.4650	 8.8040
 1.4660	 8.8260
 1.4670	 8.8500
 1.4680	 8.8770
 1.4690	 8.9040
 1.4700	 8.9340
 1.4710	 8.9660
 1.4720	 9.0000
 1.4730	 9.0370
 1.4740	 9.0770
 1.4750	 9.1170
 1.4760	 9.1590
 1.4770	 9.2010
