Name: Umbellularia californica 2
Type: vegetation
Class: Shrub
Genus: Umbellularia
Species: californica
Sample No.: VH105
Owner: UCSB
Wavelength Range: TIR
Origin: 34.5074; -119.7632; WGS84
Collection Date: 6/3/2013
Description: Samples were collected as part of the HyspIRI Airborne Campaign. 48 individual plants were sampled in three times in 2013 - spring  summer  and fall. The name of the sample includes a 1  2  or 3 which references a different individual of the species. Samples were taken to JPL and processed within 48 hours of collection. The same leaves were processed in the Nicolet and then measured using the ASD.
Measurement: Hemispherical reflectance
First Column: X
Second Column: Y
X Units: Wavelength (micrometers)
Y Units: Reflectance (percentage)
First X Value: 2.501
Last X Value: 15.387
Number of X Values: 1737
Additional Information: vegetation.shrub.umbellularia.californica.tir.vh105.ucsb.nicolet.ancillary.txt

 2.5010	 3.7300
 2.5030	 3.7530
 2.5040	 3.8020
 2.5050	 3.8110
 2.5060	 3.8000
 2.5070	 3.8010
 2.5090	 3.8610
 2.5100	 3.8480
 2.5110	 3.8180
 2.5120	 3.7750
 2.5140	 3.7940
 2.5150	 3.8140
 2.5160	 3.8120
 2.5170	 3.7710
 2.5180	 3.7970
 2.5200	 3.8070
 2.5210	 3.8170
 2.5220	 3.8220
 2.5230	 3.8430
 2.5250	 3.8160
 2.5260	 3.8330
 2.5270	 3.8360
 2.5280	 3.8330
 2.5290	 3.8250
 2.5310	 3.8600
 2.5320	 3.8330
 2.5330	 3.8680
 2.5340	 3.8580
 2.5360	 3.8560
 2.5370	 3.8320
 2.5380	 3.8640
 2.5390	 3.9030
 2.5410	 3.9420
 2.5420	 3.9680
 2.5430	 3.9800
 2.5440	 3.9010
 2.5460	 3.8790
 2.5470	 3.8840
 2.5480	 3.9290
 2.5490	 3.9250
 2.5510	 3.9030
 2.5520	 3.8890
 2.5530	 3.9450
 2.5540	 4.0120
 2.5560	 4.0350
 2.5570	 3.9870
 2.5580	 3.9940
 2.5590	 3.9830
 2.5610	 4.0270
 2.5620	 4.0500
 2.5630	 4.0670
 2.5640	 4.0850
 2.5660	 4.1090
 2.5670	 4.0700
 2.5680	 4.0880
 2.5700	 4.0230
 2.5710	 3.9920
 2.5720	 4.0340
 2.5730	 4.0690
 2.5750	 4.0480
 2.5760	 4.0510
 2.5770	 4.0590
 2.5790	 4.0770
 2.5800	 4.1140
 2.5810	 4.1390
 2.5820	 4.0840
 2.5840	 4.1000
 2.5850	 4.1010
 2.5860	 4.1170
 2.5880	 4.1360
 2.5890	 4.1650
 2.5900	 4.1480
 2.5910	 4.1510
 2.5930	 4.1580
 2.5940	 4.1840
 2.5950	 4.1240
 2.5970	 4.1290
 2.5980	 4.1470
 2.5990	 4.1610
 2.6000	 4.1480
 2.6020	 4.1380
 2.6030	 4.0870
 2.6040	 4.0820
 2.6060	 4.0830
 2.6070	 4.1070
 2.6080	 4.0910
 2.6100	 4.1090
 2.6110	 4.0750
 2.6120	 4.1000
 2.6140	 4.1090
 2.6150	 4.1160
 2.6160	 4.0580
 2.6180	 4.0630
 2.6190	 4.0840
 2.6200	 4.0900
 2.6220	 4.0600
 2.6230	 4.0810
 2.6240	 4.0450
 2.6260	 4.0930
 2.6270	 4.0540
 2.6280	 4.0040
 2.6300	 4.0010
 2.6310	 4.0010
 2.6320	 3.9460
 2.6340	 3.9370
 2.6350	 3.9450
 2.6360	 3.9720
 2.6380	 4.0120
 2.6390	 4.0140
 2.6400	 3.9400
 2.6420	 3.9160
 2.6430	 3.8910
 2.6440	 3.8850
 2.6460	 3.8610
 2.6470	 3.9070
 2.6480	 3.8550
 2.6500	 3.8200
 2.6510	 3.8390
 2.6520	 3.8380
 2.6540	 3.7630
 2.6550	 3.7870
 2.6560	 3.8320
 2.6580	 3.8460
 2.6590	 3.7770
 2.6610	 3.7410
 2.6620	 3.7300
 2.6630	 3.7880
 2.6650	 3.7340
 2.6660	 3.6550
 2.6670	 3.6160
 2.6690	 3.6460
 2.6700	 3.5880
 2.6720	 3.5910
 2.6730	 3.5690
 2.6740	 3.5310
 2.6760	 3.4930
 2.6770	 3.4800
 2.6780	 3.4150
 2.6800	 3.4410
 2.6810	 3.4280
 2.6830	 3.4060
 2.6840	 3.3550
 2.6850	 3.3490
 2.6870	 3.3390
 2.6880	 3.3970
 2.6900	 3.4210
 2.6910	 3.4030
 2.6920	 3.3570
 2.6940	 3.3630
 2.6950	 3.3080
 2.6970	 3.2090
 2.6980	 3.2100
 2.6990	 3.2880
 2.7010	 3.2510
 2.7020	 3.2140
 2.7040	 3.1770
 2.7050	 3.1820
 2.7060	 3.1740
 2.7080	 3.1590
 2.7090	 3.1250
 2.7110	 3.1520
 2.7120	 3.1500
 2.7130	 3.1900
 2.7150	 3.1940
 2.7160	 3.1710
 2.7180	 3.1090
 2.7190	 3.1120
 2.7210	 3.0670
 2.7220	 3.0560
 2.7230	 3.0670
 2.7250	 3.0750
 2.7260	 3.0820
 2.7280	 3.1090
 2.7290	 3.0580
 2.7310	 3.0740
 2.7320	 3.0600
 2.7330	 3.0430
 2.7350	 3.0140
 2.7360	 3.0380
 2.7380	 2.9760
 2.7390	 2.9520
 2.7410	 2.9420
 2.7420	 2.9790
 2.7440	 2.9700
 2.7450	 2.9510
 2.7470	 2.9600
 2.7480	 2.9950
 2.7490	 2.9350
 2.7510	 2.9380
 2.7520	 2.9400
 2.7540	 2.9310
 2.7550	 2.8660
 2.7570	 2.8600
 2.7580	 2.8310
 2.7600	 2.8800
 2.7610	 2.8790
 2.7630	 2.9370
 2.7640	 2.9160
 2.7660	 2.9500
 2.7670	 2.9530
 2.7680	 2.9660
 2.7700	 2.9430
 2.7710	 2.9370
 2.7730	 2.9120
 2.7740	 2.9080
 2.7760	 2.9230
 2.7770	 2.9000
 2.7790	 2.8830
 2.7800	 2.8930
 2.7820	 2.8260
 2.7830	 2.8170
 2.7850	 2.8030
 2.7860	 2.7760
 2.7880	 2.8210
 2.7890	 2.9640
 2.7910	 2.9250
 2.7920	 2.8780
 2.7940	 2.8420
 2.7950	 2.8490
 2.7970	 2.8280
 2.7980	 2.8840
 2.8000	 2.8930
 2.8010	 2.8900
 2.8030	 2.8560
 2.8040	 2.8460
 2.8060	 2.8200
 2.8070	 2.8270
 2.8090	 2.8270
 2.8110	 2.8740
 2.8120	 2.8480
 2.8140	 2.8420
 2.8150	 2.8030
 2.8170	 2.8190
 2.8180	 2.8090
 2.8200	 2.8320
 2.8210	 2.8130
 2.8230	 2.8150
 2.8240	 2.8300
 2.8260	 2.8550
 2.8270	 2.8420
 2.8290	 2.8470
 2.8300	 2.7660
 2.8320	 2.7840
 2.8340	 2.8330
 2.8350	 2.8280
 2.8370	 2.8140
 2.8380	 2.8350
 2.8400	 2.8010
 2.8410	 2.8080
 2.8430	 2.8220
 2.8440	 2.8080
 2.8460	 2.7550
 2.8480	 2.7800
 2.8490	 2.7640
 2.8510	 2.7970
 2.8520	 2.8040
 2.8540	 2.7740
 2.8550	 2.7540
 2.8570	 2.7980
 2.8590	 2.8200
 2.8600	 2.8420
 2.8620	 2.7670
 2.8630	 2.7320
 2.8650	 2.7370
 2.8660	 2.7570
 2.8680	 2.7380
 2.8700	 2.7480
 2.8710	 2.7380
 2.8730	 2.7820
 2.8740	 2.8140
 2.8760	 2.8230
 2.8780	 2.7290
 2.8790	 2.7250
 2.8810	 2.7690
 2.8820	 2.8240
 2.8840	 2.8250
 2.8860	 2.7920
 2.8870	 2.7430
 2.8890	 2.7830
 2.8900	 2.7200
 2.8920	 2.7360
 2.8940	 2.7370
 2.8950	 2.7520
 2.8970	 2.7680
 2.8980	 2.7970
 2.9000	 2.7640
 2.9020	 2.7740
 2.9030	 2.7760
 2.9050	 2.7880
 2.9070	 2.7790
 2.9080	 2.8100
 2.9100	 2.7700
 2.9120	 2.7850
 2.9130	 2.8080
 2.9150	 2.8510
 2.9160	 2.8570
 2.9180	 2.9030
 2.9200	 2.8550
 2.9210	 2.8130
 2.9230	 2.7780
 2.9250	 2.8060
 2.9260	 2.7910
 2.9280	 2.8260
 2.9300	 2.8030
 2.9310	 2.7860
 2.9330	 2.8080
 2.9350	 2.8740
 2.9360	 2.8270
 2.9380	 2.8060
 2.9400	 2.8450
 2.9410	 2.9230
 2.9430	 2.8980
 2.9450	 2.8670
 2.9460	 2.8630
 2.9480	 2.8450
 2.9500	 2.8090
 2.9510	 2.8870
 2.9530	 2.9020
 2.9550	 2.8990
 2.9560	 2.8550
 2.9580	 2.8980
 2.9600	 2.9060
 2.9610	 2.9580
 2.9630	 2.9430
 2.9650	 2.9290
 2.9660	 2.9540
 2.9680	 2.9770
 2.9700	 2.9260
 2.9720	 2.9430
 2.9730	 2.9170
 2.9750	 2.9180
 2.9770	 2.9360
 2.9780	 3.0050
 2.9800	 3.0450
 2.9820	 3.0530
 2.9840	 3.0020
 2.9850	 3.0130
 2.9870	 2.9980
 2.9890	 3.0170
 2.9900	 3.0440
 2.9920	 3.0750
 2.9940	 3.0470
 2.9960	 3.0530
 2.9970	 3.0410
 2.9990	 3.0480
 3.0010	 3.0270
 3.0030	 3.0820
 3.0040	 3.0960
 3.0060	 3.0690
 3.0080	 3.0580
 3.0100	 3.1030
 3.0110	 3.0810
 3.0130	 3.1310
 3.0150	 3.1380
 3.0170	 3.1290
 3.0180	 3.1260
 3.0200	 3.1580
 3.0220	 3.1290
 3.0240	 3.1200
 3.0250	 3.0780
 3.0270	 3.1270
 3.0290	 3.1700
 3.0310	 3.1780
 3.0320	 3.1360
 3.0340	 3.1960
 3.0360	 3.1780
 3.0380	 3.2210
 3.0400	 3.2460
 3.0410	 3.2800
 3.0430	 3.2690
 3.0450	 3.2550
 3.0470	 3.2310
 3.0480	 3.2570
 3.0500	 3.2400
 3.0520	 3.2230
 3.0540	 3.2270
 3.0560	 3.2540
 3.0570	 3.2420
 3.0590	 3.2550
 3.0610	 3.2730
 3.0630	 3.3350
 3.0650	 3.3470
 3.0660	 3.3320
 3.0680	 3.2970
 3.0700	 3.3470
 3.0720	 3.3310
 3.0740	 3.3610
 3.0760	 3.3630
 3.0770	 3.3420
 3.0790	 3.3300
 3.0810	 3.3510
 3.0830	 3.3240
 3.0850	 3.3740
 3.0870	 3.4050
 3.0880	 3.4290
 3.0900	 3.4060
 3.0920	 3.4290
 3.0940	 3.3950
 3.0960	 3.4040
 3.0980	 3.3600
 3.0990	 3.3640
 3.1010	 3.3690
 3.1030	 3.3980
 3.1050	 3.4070
 3.1070	 3.4350
 3.1090	 3.4300
 3.1110	 3.4220
 3.1120	 3.3880
 3.1140	 3.4280
 3.1160	 3.4730
 3.1180	 3.5050
 3.1200	 3.4950
 3.1220	 3.5010
 3.1240	 3.4830
 3.1260	 3.4540
 3.1270	 3.4200
 3.1290	 3.4810
 3.1310	 3.5530
 3.1330	 3.5980
 3.1350	 3.5490
 3.1370	 3.5590
 3.1390	 3.5460
 3.1410	 3.5500
 3.1430	 3.5670
 3.1450	 3.6000
 3.1460	 3.5630
 3.1480	 3.5290
 3.1500	 3.5110
 3.1520	 3.5540
 3.1540	 3.5680
 3.1560	 3.5740
 3.1580	 3.5740
 3.1600	 3.6020
 3.1620	 3.5600
 3.1640	 3.5830
 3.1660	 3.6040
 3.1680	 3.6590
 3.1700	 3.6420
 3.1710	 3.6840
 3.1730	 3.7110
 3.1750	 3.7180
 3.1770	 3.6720
 3.1790	 3.6640
 3.1810	 3.6430
 3.1830	 3.6550
 3.1850	 3.6520
 3.1870	 3.6620
 3.1890	 3.6150
 3.1910	 3.6820
 3.1930	 3.7120
 3.1950	 3.7020
 3.1970	 3.6800
 3.1990	 3.7250
 3.2010	 3.7040
 3.2030	 3.7130
 3.2050	 3.7160
 3.2070	 3.7680
 3.2090	 3.7810
 3.2110	 3.7730
 3.2130	 3.6890
 3.2150	 3.7320
 3.2170	 3.7860
 3.2190	 3.8030
 3.2210	 3.7570
 3.2230	 3.7440
 3.2250	 3.7660
 3.2270	 3.7950
 3.2290	 3.7820
 3.2310	 3.7750
 3.2330	 3.7760
 3.2350	 3.8040
 3.2370	 3.7450
 3.2390	 3.6900
 3.2410	 3.7190
 3.2430	 3.8460
 3.2450	 3.8620
 3.2470	 3.8550
 3.2490	 3.8420
 3.2510	 3.8480
 3.2530	 3.8290
 3.2550	 3.8510
 3.2570	 3.8420
 3.2590	 3.8650
 3.2610	 3.8500
 3.2630	 3.8660
 3.2650	 3.8430
 3.2670	 3.8760
 3.2690	 3.9050
 3.2720	 3.9110
 3.2740	 3.8620
 3.2760	 3.8480
 3.2780	 3.8800
 3.2800	 3.9340
 3.2820	 3.9170
 3.2840	 3.9090
 3.2860	 3.8540
 3.2880	 3.8820
 3.2900	 3.9360
 3.2920	 3.9160
 3.2940	 3.8930
 3.2960	 3.9410
 3.2990	 3.9240
 3.3010	 3.9080
 3.3030	 3.8900
 3.3050	 3.9160
 3.3070	 3.9360
 3.3090	 3.9760
 3.3110	 3.9480
 3.3130	 3.9180
 3.3150	 3.8920
 3.3180	 3.9200
 3.3200	 3.9180
 3.3220	 3.9090
 3.3240	 3.8740
 3.3260	 3.8870
 3.3280	 3.9000
 3.3300	 3.9310
 3.3330	 3.9340
 3.3350	 3.9470
 3.3370	 3.9390
 3.3390	 3.9310
 3.3410	 3.8730
 3.3430	 3.8850
 3.3450	 3.8490
 3.3480	 3.8720
 3.3500	 3.8460
 3.3520	 3.8050
 3.3540	 3.7980
 3.3560	 3.8220
 3.3580	 3.7710
 3.3610	 3.7520
 3.3630	 3.7100
 3.3650	 3.7250
 3.3670	 3.6630
 3.3690	 3.6060
 3.3720	 3.5960
 3.3740	 3.6100
 3.3760	 3.5690
 3.3780	 3.5980
 3.3800	 3.6120
 3.3830	 3.6500
 3.3850	 3.6620
 3.3870	 3.6420
 3.3890	 3.6290
 3.3910	 3.5800
 3.3940	 3.5790
 3.3960	 3.6490
 3.3980	 3.5590
 3.4000	 3.5160
 3.4020	 3.5570
 3.4050	 3.6250
 3.4070	 3.6680
 3.4090	 3.7270
 3.4110	 3.7630
 3.4140	 3.8860
 3.4160	 4.0290
 3.4180	 4.2610
 3.4200	 4.5640
 3.4230	 5.0460
 3.4250	 5.6510
 3.4270	 6.3040
 3.4290	 6.7370
 3.4320	 6.7170
 3.4340	 6.3620
 3.4360	 6.0200
 3.4390	 5.6940
 3.4410	 5.4610
 3.4430	 5.3160
 3.4450	 5.2460
 3.4480	 5.1530
 3.4500	 5.0970
 3.4520	 5.0160
 3.4550	 5.0020
 3.4570	 4.9860
 3.4590	 4.9700
 3.4620	 4.9600
 3.4640	 4.9540
 3.4660	 4.8670
 3.4680	 4.7980
 3.4710	 4.7500
 3.4730	 4.7370
 3.4750	 4.6850
 3.4780	 4.6680
 3.4800	 4.6210
 3.4820	 4.5480
 3.4850	 4.4620
 3.4870	 4.4250
 3.4890	 4.3550
 3.4920	 4.3550
 3.4940	 4.3590
 3.4970	 4.3200
 3.4990	 4.2850
 3.5010	 4.3890
 3.5040	 4.5810
 3.5060	 5.0370
 3.5080	 5.8390
 3.5110	 6.6850
 3.5130	 6.9010
 3.5160	 6.6090
 3.5180	 6.2240
 3.5200	 5.9840
 3.5230	 5.7960
 3.5250	 5.6640
 3.5270	 5.5470
 3.5300	 5.5040
 3.5320	 5.4280
 3.5350	 5.3510
 3.5370	 5.2850
 3.5400	 5.2970
 3.5420	 5.2890
 3.5440	 5.2640
 3.5470	 5.2080
 3.5490	 5.2030
 3.5520	 5.1850
 3.5540	 5.2020
 3.5570	 5.1880
 3.5590	 5.1410
 3.5610	 5.1150
 3.5640	 5.2010
 3.5660	 5.2010
 3.5690	 5.1870
 3.5710	 5.0970
 3.5740	 5.0850
 3.5760	 5.0810
 3.5790	 5.1310
 3.5810	 5.1060
 3.5840	 5.0890
 3.5860	 5.1210
 3.5890	 5.1340
 3.5910	 5.0620
 3.5930	 5.0790
 3.5960	 5.0690
 3.5980	 5.0920
 3.6010	 5.0920
 3.6030	 5.1450
 3.6060	 5.1130
 3.6080	 5.0540
 3.6110	 5.0360
 3.6140	 5.0690
 3.6160	 5.0990
 3.6190	 5.1060
 3.6210	 5.0740
 3.6240	 5.1040
 3.6260	 5.1270
 3.6290	 5.1530
 3.6310	 5.1280
 3.6340	 5.1420
 3.6360	 5.1180
 3.6390	 5.0940
 3.6410	 5.0240
 3.6440	 5.0390
 3.6470	 5.1090
 3.6490	 5.1230
 3.6520	 5.0460
 3.6540	 5.0620
 3.6570	 5.0970
 3.6590	 5.0770
 3.6620	 5.0680
 3.6650	 5.1240
 3.6670	 5.0810
 3.6700	 5.1120
 3.6720	 5.1240
 3.6750	 5.1180
 3.6780	 5.0870
 3.6800	 5.0980
 3.6830	 5.1300
 3.6850	 5.1610
 3.6880	 5.1530
 3.6910	 5.1310
 3.6930	 5.0990
 3.6960	 5.1360
 3.6990	 5.1260
 3.7010	 5.1610
 3.7040	 5.1720
 3.7060	 5.1850
 3.7090	 5.1710
 3.7120	 5.1870
 3.7140	 5.1920
 3.7170	 5.1740
 3.7200	 5.1430
 3.7220	 5.2020
 3.7250	 5.2130
 3.7280	 5.1960
 3.7300	 5.1270
 3.7330	 5.1180
 3.7360	 5.1100
 3.7390	 5.1520
 3.7410	 5.1940
 3.7440	 5.2130
 3.7470	 5.2040
 3.7490	 5.2420
 3.7520	 5.2310
 3.7550	 5.2260
 3.7580	 5.2140
 3.7600	 5.2080
 3.7630	 5.2210
 3.7660	 5.2800
 3.7680	 5.3090
 3.7710	 5.2840
 3.7740	 5.2650
 3.7770	 5.2850
 3.7790	 5.2480
 3.7820	 5.2840
 3.7850	 5.2950
 3.7880	 5.2860
 3.7900	 5.3000
 3.7930	 5.2820
 3.7960	 5.2300
 3.7990	 5.2860
 3.8020	 5.3240
 3.8040	 5.3480
 3.8070	 5.3140
 3.8100	 5.3190
 3.8130	 5.3440
 3.8160	 5.3910
 3.8180	 5.3930
 3.8210	 5.4130
 3.8240	 5.4090
 3.8270	 5.3920
 3.8300	 5.4030
 3.8330	 5.4390
 3.8350	 5.3980
 3.8380	 5.4030
 3.8410	 5.4170
 3.8440	 5.4430
 3.8470	 5.4150
 3.8500	 5.3820
 3.8520	 5.4040
 3.8550	 5.4450
 3.8580	 5.4160
 3.8610	 5.4230
 3.8640	 5.4160
 3.8670	 5.4240
 3.8700	 5.4140
 3.8730	 5.4300
 3.8750	 5.4310
 3.8780	 5.4630
 3.8810	 5.4960
 3.8840	 5.5130
 3.8870	 5.4740
 3.8900	 5.4980
 3.8930	 5.4910
 3.8960	 5.5020
 3.8990	 5.4850
 3.9020	 5.4320
 3.9050	 5.4680
 3.9080	 5.5770
 3.9110	 5.5890
 3.9140	 5.5520
 3.9160	 5.4950
 3.9190	 5.4830
 3.9220	 5.5350
 3.9250	 5.5740
 3.9280	 5.5160
 3.9310	 5.5200
 3.9340	 5.5120
 3.9370	 5.5240
 3.9400	 5.5160
 3.9430	 5.5390
 3.9460	 5.5620
 3.9490	 5.5850
 3.9520	 5.5660
 3.9550	 5.5960
 3.9580	 5.6060
 3.9610	 5.5580
 3.9640	 5.5540
 3.9670	 5.6610
 3.9700	 5.6490
 3.9730	 5.6050
 3.9770	 5.5800
 3.9800	 5.5960
 3.9830	 5.6240
 3.9860	 5.6000
 3.9890	 5.5710
 3.9920	 5.5690
 3.9950	 5.5580
 3.9980	 5.5640
 4.0010	 5.5960
 4.0040	 5.6490
 4.0070	 5.6140
 4.0100	 5.6080
 4.0130	 5.6370
 4.0170	 5.6450
 4.0200	 5.6030
 4.0230	 5.5980
 4.0260	 5.6300
 4.0290	 5.6670
 4.0320	 5.6240
 4.0350	 5.6240
 4.0380	 5.6400
 4.0420	 5.6320
 4.0450	 5.6030
 4.0480	 5.6320
 4.0510	 5.6650
 4.0540	 5.6680
 4.0570	 5.6560
 4.0610	 5.6340
 4.0640	 5.6720
 4.0670	 5.7330
 4.0700	 5.6960
 4.0730	 5.7030
 4.0770	 5.6580
 4.0800	 5.6610
 4.0830	 5.7160
 4.0860	 5.7540
 4.0890	 5.7340
 4.0930	 5.7220
 4.0960	 5.6640
 4.0990	 5.6700
 4.1020	 5.6610
 4.1060	 5.6280
 4.1090	 5.6540
 4.1120	 5.6980
 4.1150	 5.6630
 4.1190	 5.6590
 4.1220	 5.6630
 4.1250	 5.6930
 4.1280	 5.7300
 4.1320	 5.7530
 4.1350	 5.7440
 4.1380	 5.7380
 4.1420	 5.7260
 4.1450	 5.7040
 4.1480	 5.6800
 4.1520	 5.6910
 4.1550	 5.7380
 4.1580	 5.7760
 4.1620	 5.7480
 4.1650	 5.7070
 4.1680	 5.6460
 4.1720	 5.6970
 4.1750	 5.7480
 4.1780	 5.7180
 4.1820	 5.6950
 4.1850	 5.7050
 4.1890	 5.6910
 4.1920	 5.6420
 4.1950	 5.5020
 4.1990	 5.3200
 4.2020	 5.0690
 4.2060	 4.7660
 4.2090	 4.4100
 4.2120	 4.0540
 4.2160	 3.7120
 4.2190	 3.4560
 4.2230	 3.2370
 4.2260	 3.0320
 4.2300	 2.8360
 4.2330	 2.7170
 4.2360	 2.7120
 4.2400	 2.7770
 4.2430	 2.8500
 4.2470	 3.0910
 4.2500	 3.4730
 4.2540	 3.9670
 4.2570	 4.2940
 4.2610	 3.9800
 4.2640	 3.4990
 4.2680	 3.3510
 4.2710	 3.2810
 4.2750	 3.2530
 4.2780	 3.2570
 4.2820	 3.2900
 4.2850	 3.3070
 4.2890	 3.3530
 4.2930	 3.4480
 4.2960	 3.5470
 4.3000	 3.6620
 4.3030	 3.7640
 4.3070	 3.8400
 4.3100	 3.9720
 4.3140	 4.1940
 4.3180	 4.4180
 4.3210	 4.5340
 4.3250	 4.6400
 4.3280	 4.7560
 4.3320	 4.8890
 4.3360	 5.0200
 4.3390	 5.1460
 4.3430	 5.1890
 4.3470	 5.2480
 4.3500	 5.2830
 4.3540	 5.3050
 4.3570	 5.3390
 4.3610	 5.3700
 4.3650	 5.4090
 4.3680	 5.4210
 4.3720	 5.4690
 4.3760	 5.5410
 4.3800	 5.5510
 4.3830	 5.5350
 4.3870	 5.4610
 4.3910	 5.4240
 4.3940	 5.4220
 4.3980	 5.4470
 4.4020	 5.4430
 4.4060	 5.4250
 4.4090	 5.3890
 4.4130	 5.4140
 4.4170	 5.4620
 4.4210	 5.4920
 4.4240	 5.4700
 4.4280	 5.4500
 4.4320	 5.4200
 4.4360	 5.4280
 4.4400	 5.4540
 4.4430	 5.4800
 4.4470	 5.4490
 4.4510	 5.4540
 4.4550	 5.4930
 4.4590	 5.5020
 4.4620	 5.4700
 4.4660	 5.4500
 4.4700	 5.4380
 4.4740	 5.4460
 4.4780	 5.4460
 4.4820	 5.4310
 4.4860	 5.4500
 4.4900	 5.4810
 4.4930	 5.5030
 4.4970	 5.4970
 4.5010	 5.4800
 4.5050	 5.4650
 4.5090	 5.4200
 4.5130	 5.4300
 4.5170	 5.4850
 4.5210	 5.4680
 4.5250	 5.4420
 4.5290	 5.4520
 4.5330	 5.4840
 4.5370	 5.4700
 4.5410	 5.4810
 4.5450	 5.4990
 4.5490	 5.4780
 4.5530	 5.4820
 4.5570	 5.4930
 4.5610	 5.4960
 4.5650	 5.4760
 4.5690	 5.4630
 4.5730	 5.5070
 4.5770	 5.5490
 4.5810	 5.5620
 4.5850	 5.5600
 4.5890	 5.5300
 4.5930	 5.5180
 4.5970	 5.4980
 4.6010	 5.4820
 4.6050	 5.4940
 4.6090	 5.4920
 4.6130	 5.4800
 4.6170	 5.4750
 4.6220	 5.4780
 4.6260	 5.4760
 4.6300	 5.4710
 4.6340	 5.4430
 4.6380	 5.4330
 4.6420	 5.4760
 4.6460	 5.5010
 4.6510	 5.4960
 4.6550	 5.4700
 4.6590	 5.4750
 4.6630	 5.4680
 4.6670	 5.4490
 4.6720	 5.4870
 4.6760	 5.4950
 4.6800	 5.4930
 4.6840	 5.4690
 4.6880	 5.4210
 4.6930	 5.4500
 4.6970	 5.4660
 4.7010	 5.4410
 4.7050	 5.4300
 4.7100	 5.4560
 4.7140	 5.5070
 4.7180	 5.4610
 4.7230	 5.4330
 4.7270	 5.4480
 4.7310	 5.4730
 4.7360	 5.4290
 4.7400	 5.4420
 4.7440	 5.5220
 4.7490	 5.5200
 4.7530	 5.4640
 4.7570	 5.4520
 4.7620	 5.4400
 4.7660	 5.4140
 4.7700	 5.4060
 4.7750	 5.4640
 4.7790	 5.4660
 4.7840	 5.4310
 4.7880	 5.4190
 4.7920	 5.4260
 4.7970	 5.4100
 4.8010	 5.4380
 4.8060	 5.4770
 4.8100	 5.4600
 4.8150	 5.3850
 4.8190	 5.3950
 4.8240	 5.4340
 4.8280	 5.4190
 4.8330	 5.4330
 4.8370	 5.4580
 4.8420	 5.4180
 4.8460	 5.4050
 4.8510	 5.3950
 4.8550	 5.4110
 4.8600	 5.4340
 4.8640	 5.4440
 4.8690	 5.4100
 4.8730	 5.3730
 4.8780	 5.3420
 4.8830	 5.3130
 4.8870	 5.3260
 4.8920	 5.3570
 4.8960	 5.3700
 4.9010	 5.3880
 4.9060	 5.3700
 4.9100	 5.3770
 4.9150	 5.3750
 4.9200	 5.4010
 4.9240	 5.3670
 4.9290	 5.3600
 4.9340	 5.3640
 4.9380	 5.3640
 4.9430	 5.3540
 4.9480	 5.3230
 4.9530	 5.3210
 4.9570	 5.3520
 4.9620	 5.3380
 4.9670	 5.3770
 4.9720	 5.3550
 4.9760	 5.3360
 4.9810	 5.3270
 4.9860	 5.3200
 4.9910	 5.3160
 4.9960	 5.3200
 5.0000	 5.3530
 5.0050	 5.4010
 5.0100	 5.4380
 5.0150	 5.4600
 5.0200	 5.4070
 5.0250	 5.3850
 5.0290	 5.3760
 5.0340	 5.3570
 5.0390	 5.3780
 5.0440	 5.3990
 5.0490	 5.3690
 5.0540	 5.3660
 5.0590	 5.3650
 5.0640	 5.3760
 5.0690	 5.3890
 5.0740	 5.4540
 5.0790	 5.4380
 5.0840	 5.3910
 5.0890	 5.3810
 5.0940	 5.3920
 5.0990	 5.3760
 5.1040	 5.4060
 5.1090	 5.3700
 5.1140	 5.3870
 5.1190	 5.4210
 5.1240	 5.4100
 5.1290	 5.4250
 5.1340	 5.4490
 5.1390	 5.4330
 5.1440	 5.4420
 5.1490	 5.4370
 5.1540	 5.4280
 5.1600	 5.4020
 5.1650	 5.3810
 5.1700	 5.3790
 5.1750	 5.4000
 5.1800	 5.4460
 5.1850	 5.4660
 5.1910	 5.4690
 5.1960	 5.4510
 5.2010	 5.4190
 5.2060	 5.4400
 5.2110	 5.4020
 5.2170	 5.3670
 5.2220	 5.3900
 5.2270	 5.4420
 5.2320	 5.4460
 5.2380	 5.4200
 5.2430	 5.4130
 5.2480	 5.4270
 5.2540	 5.4000
 5.2590	 5.4020
 5.2640	 5.4370
 5.2700	 5.4200
 5.2750	 5.3870
 5.2800	 5.4130
 5.2860	 5.4200
 5.2910	 5.3970
 5.2970	 5.4040
 5.3020	 5.3790
 5.3070	 5.3490
 5.3130	 5.3630
 5.3180	 5.3390
 5.3240	 5.3980
 5.3290	 5.4060
 5.3350	 5.3970
 5.3400	 5.4380
 5.3460	 5.4470
 5.3510	 5.3920
 5.3570	 5.4170
 5.3620	 5.4140
 5.3680	 5.4440
 5.3730	 5.4250
 5.3790	 5.3530
 5.3850	 5.3390
 5.3900	 5.4040
 5.3960	 5.4190
 5.4010	 5.4370
 5.4070	 5.4010
 5.4130	 5.3540
 5.4180	 5.3370
 5.4240	 5.3730
 5.4300	 5.3550
