Name: Avena fatua
Type: vegetation
Class: grass
Genus: Avena
Species: fatua
Sample No.: VH353
Owner: UCSB
Wavelength Range: TIR
Origin: 34.5143; -119.798367; WGS84
Collection Date: 3/18/2015
Description: Samples were collected as part of the HyspIRI Airborne Campaign proposal titled: HyspIRI discrimination of plant species and functional types along a strong environmental temperature gradient. The same materials were processed in the Nicolet and then measured using the ASD.
Measurement: Hemispherical reflectance
First Column: X
Second Column: Y
X Units: Wavelength (micrometer)
Y Units: Reflectance (percentage)
First X Value: 2.501
Last X Value: 15.341
Number of X Values: 1736
Additional Information: 

 2.5010	 5.4990
 2.5030	 5.5350
 2.5040	 5.5170
 2.5050	 5.4620
 2.5060	 5.5190
 2.5070	 5.4710
 2.5090	 5.3920
 2.5100	 5.3790
 2.5110	 5.4070
 2.5120	 5.3990
 2.5140	 5.4230
 2.5150	 5.4080
 2.5160	 5.4050
 2.5170	 5.4450
 2.5180	 5.4120
 2.5200	 5.3550
 2.5210	 5.3260
 2.5220	 5.3600
 2.5230	 5.3750
 2.5250	 5.3640
 2.5260	 5.3890
 2.5270	 5.3670
 2.5280	 5.3140
 2.5300	 5.3240
 2.5310	 5.3680
 2.5320	 5.4070
 2.5330	 5.3520
 2.5340	 5.3260
 2.5360	 5.4070
 2.5370	 5.3680
 2.5380	 5.2770
 2.5390	 5.3210
 2.5410	 5.3680
 2.5420	 5.3300
 2.5430	 5.3940
 2.5440	 5.3560
 2.5460	 5.3120
 2.5470	 5.2910
 2.5480	 5.3660
 2.5490	 5.4230
 2.5510	 5.4020
 2.5520	 5.3710
 2.5530	 5.4290
 2.5540	 5.4850
 2.5560	 5.4750
 2.5570	 5.3920
 2.5580	 5.3090
 2.5590	 5.3150
 2.5610	 5.3790
 2.5620	 5.4260
 2.5630	 5.4160
 2.5650	 5.4080
 2.5660	 5.4240
 2.5670	 5.4100
 2.5680	 5.4520
 2.5700	 5.4340
 2.5710	 5.3960
 2.5720	 5.4360
 2.5730	 5.4800
 2.5750	 5.3970
 2.5760	 5.3950
 2.5770	 5.4710
 2.5790	 5.4750
 2.5800	 5.4140
 2.5810	 5.4060
 2.5820	 5.3690
 2.5840	 5.3140
 2.5850	 5.2840
 2.5860	 5.3530
 2.5880	 5.3350
 2.5890	 5.2870
 2.5900	 5.2780
 2.5910	 5.2620
 2.5930	 5.2570
 2.5940	 5.2720
 2.5950	 5.2890
 2.5970	 5.2790
 2.5980	 5.2550
 2.5990	 5.2010
 2.6010	 5.1750
 2.6020	 5.1280
 2.6030	 5.1300
 2.6040	 5.1790
 2.6060	 5.1710
 2.6070	 5.0830
 2.6080	 5.0380
 2.6100	 5.0780
 2.6110	 5.0510
 2.6120	 5.0310
 2.6140	 4.9700
 2.6150	 4.9500
 2.6160	 4.9160
 2.6180	 4.8870
 2.6190	 4.8510
 2.6200	 4.8590
 2.6220	 4.8440
 2.6230	 4.8020
 2.6240	 4.7180
 2.6260	 4.6510
 2.6270	 4.6680
 2.6280	 4.6980
 2.6300	 4.6480
 2.6310	 4.6680
 2.6320	 4.6760
 2.6340	 4.6410
 2.6350	 4.5840
 2.6360	 4.5370
 2.6380	 4.5310
 2.6390	 4.4940
 2.6400	 4.4470
 2.6420	 4.4110
 2.6430	 4.3720
 2.6440	 4.3030
 2.6460	 4.2580
 2.6470	 4.3070
 2.6480	 4.2800
 2.6500	 4.2400
 2.6510	 4.2050
 2.6520	 4.2630
 2.6540	 4.2680
 2.6550	 4.1820
 2.6570	 4.1880
 2.6580	 4.1550
 2.6590	 4.0560
 2.6610	 4.0360
 2.6620	 4.0490
 2.6630	 4.0380
 2.6650	 4.0230
 2.6660	 4.0130
 2.6670	 3.9580
 2.6690	 3.9060
 2.6700	 3.8990
 2.6720	 3.9260
 2.6730	 3.9170
 2.6740	 3.9090
 2.6760	 3.8250
 2.6770	 3.8020
 2.6780	 3.8040
 2.6800	 3.7460
 2.6810	 3.6540
 2.6830	 3.6200
 2.6840	 3.6660
 2.6850	 3.7150
 2.6870	 3.7060
 2.6880	 3.6190
 2.6900	 3.5420
 2.6910	 3.5550
 2.6920	 3.5650
 2.6940	 3.5560
 2.6950	 3.5330
 2.6970	 3.4810
 2.6980	 3.4280
 2.6990	 3.4500
 2.7010	 3.4330
 2.7020	 3.3730
 2.7040	 3.3510
 2.7050	 3.3470
 2.7060	 3.2770
 2.7080	 3.2230
 2.7090	 3.2370
 2.7110	 3.3190
 2.7120	 3.3040
 2.7130	 3.2970
 2.7150	 3.2300
 2.7160	 3.1990
 2.7180	 3.2400
 2.7190	 3.2130
 2.7210	 3.1520
 2.7220	 3.1220
 2.7230	 3.0980
 2.7250	 3.1050
 2.7260	 3.1230
 2.7280	 3.2060
 2.7290	 3.2250
 2.7310	 3.1370
 2.7320	 3.0720
 2.7340	 3.1470
 2.7350	 3.1730
 2.7360	 3.1580
 2.7380	 3.0910
 2.7390	 3.1070
 2.7410	 3.0720
 2.7420	 3.0300
 2.7440	 3.0390
 2.7450	 3.0460
 2.7470	 3.0380
 2.7480	 3.0790
 2.7490	 3.0250
 2.7510	 3.0100
 2.7520	 3.0850
 2.7540	 3.1760
 2.7550	 3.1490
 2.7570	 3.1340
 2.7580	 3.0720
 2.7600	 3.0550
 2.7610	 2.9690
 2.7630	 3.0650
 2.7640	 3.1050
 2.7660	 3.0620
 2.7670	 3.0480
 2.7690	 2.9860
 2.7700	 2.9730
 2.7720	 3.0320
 2.7730	 3.0390
 2.7740	 3.0200
 2.7760	 2.9780
 2.7770	 2.9360
 2.7790	 2.9270
 2.7800	 2.9490
 2.7820	 2.9680
 2.7830	 2.9700
 2.7850	 2.9610
 2.7860	 3.0020
 2.7880	 3.0000
 2.7890	 2.9670
 2.7910	 2.8780
 2.7920	 2.8680
 2.7940	 2.8270
 2.7950	 2.8640
 2.7970	 2.9300
 2.7980	 2.9030
 2.8000	 2.8740
 2.8010	 2.8870
 2.8030	 2.8420
 2.8040	 2.8510
 2.8060	 2.8200
 2.8080	 2.7990
 2.8090	 2.8390
 2.8110	 2.8770
 2.8120	 2.8320
 2.8140	 2.8030
 2.8150	 2.8100
 2.8170	 2.8310
 2.8180	 2.8160
 2.8200	 2.7980
 2.8210	 2.7830
 2.8230	 2.7910
 2.8240	 2.7640
 2.8260	 2.7390
 2.8270	 2.6990
 2.8290	 2.7000
 2.8310	 2.7550
 2.8320	 2.7790
 2.8340	 2.7550
 2.8350	 2.7390
 2.8370	 2.7250
 2.8380	 2.7100
 2.8400	 2.6570
 2.8410	 2.7160
 2.8430	 2.7290
 2.8440	 2.7340
 2.8460	 2.6850
 2.8480	 2.6840
 2.8490	 2.6500
 2.8510	 2.5890
 2.8520	 2.5890
 2.8540	 2.6750
 2.8550	 2.6910
 2.8570	 2.6860
 2.8590	 2.6570
 2.8600	 2.6830
 2.8620	 2.6370
 2.8630	 2.5830
 2.8650	 2.5760
 2.8660	 2.5930
 2.8680	 2.5840
 2.8700	 2.6290
 2.8710	 2.5780
 2.8730	 2.5660
 2.8740	 2.5820
 2.8760	 2.5880
 2.8780	 2.5580
 2.8790	 2.6240
 2.8810	 2.6120
 2.8820	 2.5310
 2.8840	 2.5080
 2.8860	 2.5430
 2.8870	 2.5570
 2.8890	 2.5680
 2.8900	 2.5100
 2.8920	 2.5020
 2.8940	 2.5180
 2.8950	 2.4960
 2.8970	 2.4710
 2.8990	 2.5530
 2.9000	 2.5210
 2.9020	 2.4290
 2.9030	 2.3750
 2.9050	 2.4080
 2.9070	 2.4300
 2.9080	 2.4610
 2.9100	 2.4250
 2.9120	 2.4050
 2.9130	 2.3910
 2.9150	 2.4170
 2.9160	 2.4210
 2.9180	 2.4340
 2.9200	 2.4200
 2.9210	 2.3640
 2.9230	 2.3180
 2.9250	 2.3420
 2.9260	 2.3940
 2.9280	 2.4080
 2.9300	 2.4150
 2.9310	 2.4230
 2.9330	 2.3570
 2.9350	 2.2930
 2.9360	 2.3100
 2.9380	 2.3620
 2.9400	 2.4020
 2.9410	 2.4500
 2.9430	 2.3360
 2.9450	 2.2710
 2.9460	 2.2510
 2.9480	 2.2540
 2.9500	 2.2580
 2.9510	 2.2990
 2.9530	 2.3160
 2.9550	 2.3010
 2.9560	 2.2410
 2.9580	 2.2060
 2.9600	 2.1760
 2.9610	 2.2300
 2.9630	 2.2410
 2.9650	 2.2270
 2.9670	 2.1960
 2.9680	 2.2070
 2.9700	 2.2230
 2.9720	 2.2740
 2.9730	 2.2450
 2.9750	 2.2020
 2.9770	 2.2520
 2.9780	 2.3320
 2.9800	 2.2970
 2.9820	 2.2470
 2.9840	 2.1710
 2.9850	 2.1730
 2.9870	 2.2270
 2.9890	 2.2350
 2.9900	 2.1480
 2.9920	 2.1720
 2.9940	 2.2020
 2.9960	 2.2290
 2.9970	 2.1990
 2.9990	 2.1940
 3.0010	 2.1970
 3.0030	 2.1770
 3.0040	 2.1680
 3.0060	 2.2220
 3.0080	 2.1700
 3.0100	 2.1440
 3.0110	 2.1810
 3.0130	 2.2310
 3.0150	 2.2130
 3.0170	 2.2630
 3.0180	 2.2660
 3.0200	 2.1420
 3.0220	 2.0790
 3.0240	 2.1530
 3.0250	 2.1990
 3.0270	 2.2190
 3.0290	 2.1900
 3.0310	 2.1340
 3.0320	 2.1160
 3.0340	 2.1550
 3.0360	 2.1910
 3.0380	 2.2340
 3.0400	 2.1940
 3.0410	 2.1850
 3.0430	 2.1680
 3.0450	 2.1550
 3.0470	 2.1430
 3.0480	 2.2020
 3.0500	 2.2110
 3.0520	 2.1800
 3.0540	 2.1640
 3.0560	 2.1500
 3.0570	 2.1710
 3.0590	 2.2360
 3.0610	 2.2240
 3.0630	 2.1890
 3.0650	 2.2060
 3.0670	 2.2370
 3.0680	 2.1300
 3.0700	 2.0990
 3.0720	 2.1150
 3.0740	 2.1560
 3.0760	 2.1490
 3.0770	 2.1950
 3.0790	 2.1970
 3.0810	 2.1350
 3.0830	 2.1570
 3.0850	 2.2090
 3.0870	 2.1920
 3.0880	 2.2120
 3.0900	 2.1570
 3.0920	 2.1650
 3.0940	 2.1670
 3.0960	 2.1270
 3.0980	 2.1630
 3.1000	 2.2190
 3.1010	 2.2310
 3.1030	 2.2750
 3.1050	 2.1930
 3.1070	 2.1390
 3.1090	 2.1980
 3.1110	 2.2450
 3.1130	 2.1760
 3.1140	 2.1610
 3.1160	 2.1600
 3.1180	 2.1550
 3.1200	 2.1740
 3.1220	 2.2350
 3.1240	 2.1960
 3.1260	 2.1480
 3.1280	 2.1730
 3.1290	 2.2050
 3.1310	 2.1850
 3.1330	 2.1960
 3.1350	 2.2040
 3.1370	 2.1930
 3.1390	 2.1880
 3.1410	 2.2240
 3.1430	 2.1790
 3.1450	 2.1460
 3.1470	 2.1520
 3.1480	 2.2010
 3.1500	 2.2000
 3.1520	 2.1930
 3.1540	 2.1880
 3.1560	 2.2220
 3.1580	 2.2480
 3.1600	 2.2130
 3.1620	 2.1860
 3.1640	 2.1800
 3.1660	 2.2080
 3.1680	 2.2930
 3.1700	 2.2710
 3.1720	 2.2490
 3.1730	 2.2200
 3.1750	 2.2170
 3.1770	 2.2380
 3.1790	 2.2240
 3.1810	 2.1890
 3.1830	 2.1990
 3.1850	 2.2020
 3.1870	 2.2460
 3.1890	 2.2470
 3.1910	 2.2740
 3.1930	 2.2510
 3.1950	 2.2380
 3.1970	 2.2360
 3.1990	 2.2270
 3.2010	 2.2340
 3.2030	 2.2500
 3.2050	 2.2470
 3.2070	 2.2610
 3.2090	 2.1990
 3.2110	 2.2370
 3.2130	 2.2820
 3.2150	 2.3020
 3.2170	 2.2970
 3.2190	 2.2930
 3.2210	 2.2450
 3.2230	 2.2700
 3.2250	 2.2840
 3.2270	 2.2890
 3.2290	 2.3010
 3.2310	 2.2640
 3.2330	 2.1970
 3.2350	 2.2140
 3.2370	 2.2610
 3.2390	 2.2860
 3.2410	 2.2990
 3.2430	 2.3010
 3.2450	 2.2840
 3.2470	 2.2860
 3.2490	 2.2440
 3.2510	 2.2410
 3.2530	 2.2670
 3.2550	 2.3100
 3.2570	 2.3200
 3.2590	 2.3320
 3.2610	 2.3180
 3.2630	 2.3090
 3.2650	 2.2930
 3.2670	 2.3010
 3.2700	 2.2870
 3.2720	 2.2980
 3.2740	 2.3000
 3.2760	 2.2740
 3.2780	 2.2650
 3.2800	 2.2860
 3.2820	 2.2580
 3.2840	 2.2360
 3.2860	 2.2590
 3.2880	 2.2990
 3.2900	 2.3070
 3.2920	 2.3200
 3.2940	 2.2970
 3.2970	 2.2820
 3.2990	 2.3160
 3.3010	 2.3560
 3.3030	 2.3520
 3.3050	 2.3310
 3.3070	 2.3110
 3.3090	 2.3420
 3.3110	 2.3290
 3.3130	 2.2840
 3.3160	 2.2650
 3.3180	 2.2780
 3.3200	 2.2910
 3.3220	 2.3070
 3.3240	 2.3020
 3.3260	 2.3120
 3.3280	 2.2860
 3.3300	 2.2690
 3.3330	 2.2720
 3.3350	 2.2770
 3.3370	 2.2620
 3.3390	 2.3140
 3.3410	 2.3200
 3.3430	 2.2790
 3.3450	 2.2560
 3.3480	 2.3050
 3.3500	 2.3030
 3.3520	 2.2610
 3.3540	 2.2400
 3.3560	 2.2420
 3.3580	 2.2340
 3.3610	 2.2320
 3.3630	 2.2300
 3.3650	 2.2740
 3.3670	 2.2730
 3.3690	 2.2580
 3.3720	 2.2160
 3.3740	 2.2410
 3.3760	 2.2390
 3.3780	 2.2460
 3.3800	 2.3010
 3.3830	 2.3430
 3.3850	 2.3380
 3.3870	 2.3120
 3.3890	 2.2830
 3.3910	 2.2680
 3.3940	 2.3000
 3.3960	 2.4190
 3.3980	 2.5180
 3.4000	 2.5150
 3.4030	 2.5000
 3.4050	 2.6010
 3.4070	 2.7600
 3.4090	 2.8650
 3.4110	 2.9250
 3.4140	 3.0100
 3.4160	 3.1270
 3.4180	 3.2610
 3.4200	 3.3870
 3.4230	 3.5670
 3.4250	 3.7400
 3.4270	 3.8340
 3.4300	 3.7780
 3.4320	 3.6180
 3.4340	 3.4500
 3.4360	 3.3080
 3.4390	 3.1910
 3.4410	 3.1180
 3.4430	 3.0700
 3.4450	 3.0170
 3.4480	 2.9750
 3.4500	 2.9560
 3.4520	 2.9480
 3.4550	 2.9570
 3.4570	 2.9290
 3.4590	 2.9220
 3.4620	 2.8660
 3.4640	 2.8230
 3.4660	 2.8330
 3.4690	 2.8410
 3.4710	 2.7690
 3.4730	 2.7300
 3.4760	 2.7190
 3.4780	 2.7140
 3.4800	 2.7040
 3.4830	 2.7560
 3.4850	 2.7380
 3.4870	 2.6970
 3.4900	 2.6980
 3.4920	 2.7330
 3.4940	 2.7330
 3.4970	 2.7640
 3.4990	 2.8900
 3.5010	 3.0470
 3.5040	 3.1760
 3.5060	 3.3070
 3.5080	 3.5620
 3.5110	 3.7250
 3.5130	 3.6630
 3.5160	 3.4980
 3.5180	 3.3350
 3.5200	 3.2830
 3.5230	 3.2300
 3.5250	 3.0970
 3.5280	 3.0970
 3.5300	 3.1440
 3.5320	 3.0950
 3.5350	 3.0930
 3.5370	 3.0860
 3.5400	 3.0700
 3.5420	 3.0500
 3.5440	 3.0530
 3.5470	 3.0660
 3.5490	 3.0590
 3.5520	 3.0610
 3.5540	 3.0930
 3.5570	 3.0930
 3.5590	 3.1250
 3.5610	 3.0800
 3.5640	 3.0400
 3.5660	 3.0420
 3.5690	 3.0620
 3.5710	 3.0570
 3.5740	 3.0210
 3.5760	 3.0190
 3.5790	 3.0420
 3.5810	 3.0200
 3.5840	 3.0150
 3.5860	 3.0570
 3.5890	 3.0930
 3.5910	 3.0860
 3.5940	 3.0650
 3.5960	 3.0730
 3.5990	 3.0650
 3.6010	 3.0600
 3.6040	 3.0960
 3.6060	 3.0770
 3.6090	 3.0880
 3.6110	 3.1340
 3.6140	 3.1390
 3.6160	 3.1190
 3.6190	 3.1070
 3.6210	 3.1190
 3.6240	 3.1420
 3.6260	 3.1390
 3.6290	 3.1590
 3.6310	 3.1620
 3.6340	 3.1350
 3.6360	 3.1310
 3.6390	 3.1820
 3.6410	 3.1960
 3.6440	 3.1940
 3.6470	 3.1970
 3.6490	 3.1800
 3.6520	 3.1880
 3.6540	 3.2460
 3.6570	 3.2570
 3.6590	 3.2480
 3.6620	 3.2270
 3.6650	 3.2180
 3.6670	 3.2300
 3.6700	 3.2680
 3.6720	 3.2770
 3.6750	 3.2620
 3.6780	 3.2370
 3.6800	 3.2500
 3.6830	 3.2710
 3.6850	 3.2940
 3.6880	 3.3280
 3.6910	 3.3190
 3.6930	 3.3200
 3.6960	 3.3240
 3.6990	 3.3240
 3.7010	 3.3210
 3.7040	 3.3460
 3.7070	 3.3840
 3.7090	 3.4050
 3.7120	 3.4170
 3.7150	 3.4090
 3.7170	 3.4110
 3.7200	 3.4430
 3.7230	 3.4350
 3.7250	 3.4240
 3.7280	 3.4290
 3.7310	 3.4610
 3.7330	 3.4930
 3.7360	 3.5230
 3.7390	 3.5260
 3.7410	 3.5180
 3.7440	 3.5110
 3.7470	 3.4990
 3.7490	 3.5030
 3.7520	 3.5200
 3.7550	 3.5330
 3.7580	 3.5230
 3.7600	 3.5210
 3.7630	 3.5770
 3.7660	 3.6350
 3.7690	 3.6550
 3.7710	 3.6550
 3.7740	 3.6330
 3.7770	 3.6220
 3.7790	 3.6580
 3.7820	 3.6700
 3.7850	 3.6500
 3.7880	 3.6540
 3.7910	 3.6960
 3.7930	 3.7040
 3.7960	 3.7250
 3.7990	 3.7300
 3.8020	 3.7270
 3.8040	 3.6930
 3.8070	 3.6920
 3.8100	 3.7460
 3.8130	 3.7940
 3.8160	 3.8180
 3.8180	 3.7750
 3.8210	 3.7340
 3.8240	 3.7790
 3.8270	 3.8130
 3.8300	 3.7960
 3.8330	 3.7810
 3.8350	 3.7930
 3.8380	 3.7910
 3.8410	 3.7910
 3.8440	 3.8100
 3.8470	 3.8180
 3.8500	 3.7810
 3.8520	 3.7210
 3.8550	 3.7570
 3.8580	 3.7820
 3.8610	 3.7660
 3.8640	 3.8190
 3.8670	 3.8680
 3.8700	 3.8690
 3.8730	 3.8430
 3.8760	 3.7980
 3.8780	 3.8030
 3.8810	 3.8260
 3.8840	 3.8090
 3.8870	 3.7850
 3.8900	 3.7990
 3.8930	 3.8160
 3.8960	 3.8190
 3.8990	 3.8040
 3.9020	 3.8230
 3.9050	 3.8610
 3.9080	 3.8210
 3.9110	 3.7980
 3.9140	 3.8160
 3.9170	 3.8150
 3.9190	 3.8100
 3.9220	 3.7940
 3.9250	 3.7660
 3.9280	 3.7360
 3.9310	 3.7370
 3.9340	 3.7500
 3.9370	 3.7360
 3.9400	 3.7710
 3.9430	 3.7970
 3.9460	 3.7760
 3.9490	 3.7680
 3.9520	 3.7570
 3.9550	 3.7250
 3.9580	 3.7090
 3.9610	 3.7140
 3.9640	 3.7180
 3.9670	 3.7360
 3.9700	 3.7310
 3.9740	 3.7060
 3.9770	 3.7160
 3.9800	 3.7250
 3.9830	 3.7330
 3.9860	 3.7420
 3.9890	 3.7460
 3.9920	 3.7110
 3.9950	 3.7020
 3.9980	 3.6960
 4.0010	 3.6980
 4.0040	 3.6840
 4.0070	 3.6410
 4.0100	 3.6730
 4.0140	 3.7110
 4.0170	 3.6660
 4.0200	 3.6460
 4.0230	 3.6490
 4.0260	 3.6570
 4.0290	 3.6570
 4.0320	 3.6510
 4.0350	 3.6510
 4.0390	 3.6810
 4.0420	 3.6900
 4.0450	 3.6660
 4.0480	 3.6400
 4.0510	 3.6530
 4.0540	 3.6540
 4.0570	 3.6700
 4.0610	 3.6580
 4.0640	 3.6530
 4.0670	 3.6240
 4.0700	 3.5860
 4.0730	 3.5940
 4.0770	 3.6200
 4.0800	 3.6220
 4.0830	 3.5920
 4.0860	 3.5720
 4.0890	 3.6100
 4.0930	 3.5990
 4.0960	 3.6120
 4.0990	 3.6130
 4.1020	 3.5850
 4.1060	 3.5700
 4.1090	 3.5770
 4.1120	 3.5680
 4.1150	 3.5920
 4.1190	 3.5680
 4.1220	 3.5160
 4.1250	 3.4720
 4.1290	 3.4760
 4.1320	 3.5040
 4.1350	 3.5290
 4.1380	 3.5150
 4.1420	 3.4960
 4.1450	 3.4770
 4.1480	 3.4730
 4.1520	 3.4520
 4.1550	 3.4610
 4.1580	 3.5000
 4.1620	 3.5050
 4.1650	 3.4820
 4.1680	 3.4710
 4.1720	 3.4310
 4.1750	 3.4200
 4.1780	 3.4230
 4.1820	 3.4160
 4.1850	 3.4030
 4.1890	 3.3950
 4.1920	 3.4130
 4.1950	 3.4550
 4.1990	 3.4960
 4.2020	 3.5690
 4.2060	 3.5660
 4.2090	 3.6040
 4.2120	 3.7140
 4.2160	 3.7630
 4.2190	 3.7920
 4.2230	 3.8690
 4.2260	 3.8640
 4.2300	 3.8070
 4.2330	 3.7720
 4.2360	 3.8160
 4.2400	 3.8260
 4.2430	 3.8330
 4.2470	 3.7550
 4.2500	 3.6640
 4.2540	 3.5450
 4.2570	 3.5300
 4.2610	 3.6020
 4.2640	 3.6640
 4.2680	 3.6140
 4.2710	 3.6670
 4.2750	 3.7260
 4.2780	 3.6950
 4.2820	 3.5770
 4.2850	 3.5400
 4.2890	 3.6090
 4.2930	 3.5460
 4.2960	 3.4750
 4.3000	 3.5580
 4.3030	 3.5580
 4.3070	 3.5070
 4.3100	 3.4670
 4.3140	 3.4560
 4.3180	 3.3940
 4.3210	 3.3700
 4.3250	 3.3390
 4.3280	 3.2970
 4.3320	 3.2630
 4.3360	 3.2550
 4.3390	 3.2560
 4.3430	 3.2320
 4.3470	 3.1990
 4.3500	 3.1870
 4.3540	 3.1730
 4.3580	 3.1430
 4.3610	 3.1260
 4.3650	 3.1940
 4.3690	 3.1770
 4.3720	 3.1350
 4.3760	 3.0910
 4.3800	 3.0910
 4.3830	 3.1020
 4.3870	 3.1150
 4.3910	 3.1100
 4.3940	 3.1020
 4.3980	 3.0860
 4.4020	 3.0850
 4.4060	 3.0110
 4.4090	 3.0140
 4.4130	 3.0310
 4.4170	 3.0310
 4.4210	 3.0240
 4.4240	 3.0190
 4.4280	 2.9840
 4.4320	 2.9840
 4.4360	 2.9800
 4.4400	 2.9800
 4.4430	 2.9810
 4.4470	 2.9980
 4.4510	 2.9520
 4.4550	 2.9490
 4.4590	 2.9480
 4.4630	 2.9410
 4.4660	 2.9140
 4.4700	 2.9510
 4.4740	 2.9720
 4.4780	 2.9790
 4.4820	 2.9200
 4.4860	 2.9250
 4.4900	 2.9270
 4.4930	 2.8960
 4.4970	 2.8890
 4.5010	 2.9280
 4.5050	 2.8980
 4.5090	 2.9070
 4.5130	 2.8830
 4.5170	 2.9090
 4.5210	 2.9320
 4.5250	 2.9120
 4.5290	 2.9000
 4.5330	 2.9380
 4.5370	 2.9320
 4.5410	 2.9110
 4.5450	 2.8350
 4.5490	 2.8600
 4.5530	 2.8980
 4.5570	 2.8970
 4.5610	 2.8610
 4.5650	 2.8490
 4.5690	 2.8360
 4.5730	 2.8600
 4.5770	 2.8380
 4.5810	 2.8150
 4.5850	 2.7700
 4.5890	 2.8000
 4.5930	 2.8150
 4.5970	 2.8170
 4.6010	 2.7710
 4.6050	 2.7730
 4.6090	 2.7830
 4.6130	 2.7980
 4.6170	 2.8180
 4.6220	 2.8480
 4.6260	 2.7980
 4.6300	 2.7900
 4.6340	 2.7640
 4.6380	 2.7440
 4.6420	 2.7600
 4.6460	 2.8320
 4.6510	 2.8310
 4.6550	 2.8390
 4.6590	 2.8140
 4.6630	 2.8240
 4.6670	 2.8030
 4.6720	 2.7740
 4.6760	 2.7580
 4.6800	 2.7950
 4.6840	 2.8250
 4.6880	 2.8230
 4.6930	 2.7930
 4.6970	 2.7830
 4.7010	 2.7480
 4.7050	 2.7680
 4.7100	 2.7570
 4.7140	 2.7520
 4.7180	 2.7340
 4.7230	 2.7450
 4.7270	 2.7280
 4.7310	 2.7660
 4.7360	 2.8030
 4.7400	 2.8170
 4.7440	 2.7810
 4.7490	 2.7760
 4.7530	 2.7390
 4.7570	 2.7280
 4.7620	 2.7190
 4.7660	 2.7490
 4.7700	 2.7310
 4.7750	 2.7190
 4.7790	 2.7400
 4.7840	 2.7790
 4.7880	 2.7800
 4.7920	 2.7990
 4.7970	 2.7720
 4.8010	 2.7810
 4.8060	 2.7690
 4.8100	 2.7940
 4.8150	 2.7850
 4.8190	 2.8100
 4.8240	 2.7910
 4.8280	 2.7690
 4.8330	 2.7190
 4.8370	 2.7440
 4.8420	 2.7880
 4.8460	 2.8480
 4.8510	 2.8110
 4.8550	 2.7680
 4.8600	 2.7500
 4.8640	 2.8010
 4.8690	 2.8360
 4.8740	 2.8690
 4.8780	 2.8720
 4.8830	 2.8730
 4.8870	 2.8410
 4.8920	 2.8280
 4.8970	 2.7950
 4.9010	 2.7990
 4.9060	 2.7870
 4.9100	 2.8190
 4.9150	 2.8250
 4.9200	 2.8350
 4.9240	 2.8070
 4.9290	 2.8220
 4.9340	 2.8360
 4.9390	 2.8490
 4.9430	 2.8110
 4.9480	 2.8350
 4.9530	 2.8080
 4.9570	 2.8320
 4.9620	 2.8400
 4.9670	 2.8430
 4.9720	 2.8220
 4.9760	 2.8590
 4.9810	 2.8650
 4.9860	 2.8830
 4.9910	 2.8770
 4.9960	 2.8850
 5.0000	 2.8610
 5.0050	 2.8740
 5.0100	 2.8780
 5.0150	 2.9180
 5.0200	 2.9020
 5.0250	 2.9040
 5.0300	 2.8970
 5.0340	 2.9500
 5.0390	 2.9250
 5.0440	 2.9040
 5.0490	 2.8610
 5.0540	 2.9010
 5.0590	 2.9030
 5.0640	 2.9460
 5.0690	 2.9580
 5.0740	 2.9670
 5.0790	 2.9310
 5.0840	 2.9460
 5.0890	 2.9470
 5.0940	 2.9530
 5.0990	 2.9210
 5.1040	 2.9530
 5.1090	 2.9970
 5.1140	 3.0410
 5.1190	 2.9830
 5.1240	 2.9730
 5.1290	 2.9690
 5.1340	 2.9350
 5.1390	 2.8870
 5.1440	 2.9480
 5.1490	 2.9790
 5.1550	 3.0090
 5.1600	 2.9740
 5.1650	 2.9870
 5.1700	 3.0090
 5.1750	 2.9910
 5.1800	 2.9210
 5.1850	 2.9650
 5.1910	 2.9870
 5.1960	 3.0110
 5.2010	 3.0000
 5.2060	 3.0380
 5.2110	 3.0310
 5.2170	 3.0460
 5.2220	 2.9910
 5.2270	 3.0030
 5.2330	 2.9800
 5.2380	 2.9950
 5.2430	 2.9730
 5.2480	 3.0200
 5.2540	 3.0280
 5.2590	 3.0260
 5.2640	 2.9920
 5.2700	 2.9890
 5.2750	 2.9680
 5.2800	 3.0200
 5.2860	 3.0100
 5.2910	 2.9910
 5.2970	 2.9540
 5.3020	 2.9690
 5.3080	 2.9910
 5.3130	 3.0120
 5.3180	 2.9570
 5.3240	 2.9730
 5.3290	 2.9590
 5.3350	 2.9280
 5.3400	 2.9010
 5.3460	 2.9690
 5.3510	 2.9810
 5.3570	 2.9600
 5.3620	 2.9050
 5.3680	 2.9180
 5.3740	 2.9360
 5.3790	 2.9680
 5.3850	 2.9220
 5.3900	 2.9300
 5.3960	 2.9120
 5.4010	 2.9170
 5.4070	 2.9450
 5.4130	 2.9410
 5.4180	 2.8980
 5.4240	 2.9070
 5.4300	 2.8710
 5.4350	 2.8840
 5.4410	 2.8750
 5.4470	 2.8970
 5.4530	 2.8450
 5.4580	 2.8490
 5.4640	 2.7850
 5.4700	 2.7800
 5.4760	 2.7820
 5.4810	 2.8240
 5.4870	 2.7900
 5.4930	 2.7920
 5.4990	 2.7440
 5.5050	 2.7770
 5.5110	 2.7620
