Name: Quercus agrifolia
Type: vegetation
Class: Tree
Genus: Quercus
Species: agrifolia
Sample No.: JPL111
Owner: JPL
Wavelength Range: VSWIR
Origin: 34.12881; -118.11349;; WGS84
Collection Date: 9/7/2016
Description: Samples were collected at the Huntington Garden in San Marino California as part of a JPL Subcontract studying HyTES imagery. Samples were taken to JPL and processed within 48 hours of collection. The same leaves were processed in the Nicolet and then measured using the ASD.
Measurement: Bidirectional reflectance
First Column: X
Second Column: Y
X Units: Wavelength (micrometer)
Y Units: Reflectance (percentage)
First X Value: 0.35
Last X Value: 2.5
Number of X Values: 2151
Additional Information: vegetation.tree.quercus.agrifolia.vswir.jpl111.jpl.asd.ancillary.txt

 0.3500	 5.3220
 0.3510	 5.2650
 0.3520	 5.1550
 0.3530	 5.0680
 0.3540	 5.0630
 0.3550	 5.1940
 0.3560	 5.1360
 0.3570	 4.9690
 0.3580	 4.9570
 0.3590	 5.0010
 0.3600	 5.0510
 0.3610	 5.0850
 0.3620	 5.1170
 0.3630	 5.0250
 0.3640	 4.9260
 0.3650	 4.9410
 0.3660	 4.9800
 0.3670	 4.9920
 0.3680	 4.9650
 0.3690	 4.9210
 0.3700	 4.9430
 0.3710	 4.9840
 0.3720	 4.9990
 0.3730	 4.9770
 0.3740	 4.9580
 0.3750	 4.9620
 0.3760	 4.9780
 0.3770	 4.9080
 0.3780	 4.8770
 0.3790	 4.9010
 0.3800	 4.8950
 0.3810	 4.8870
 0.3820	 4.9300
 0.3830	 5.0070
 0.3840	 4.9330
 0.3850	 4.9330
 0.3860	 4.9680
 0.3870	 4.9260
 0.3880	 4.8980
 0.3890	 4.8870
 0.3900	 4.8910
 0.3910	 4.9130
 0.3920	 4.9020
 0.3930	 4.9140
 0.3940	 4.9710
 0.3950	 4.9590
 0.3960	 4.9370
 0.3970	 4.9230
 0.3980	 4.9180
 0.3990	 4.9090
 0.4000	 4.9090
 0.4010	 4.9310
 0.4020	 4.9860
 0.4030	 4.9760
 0.4040	 4.9450
 0.4050	 4.9520
 0.4060	 4.9880
 0.4070	 5.0060
 0.4080	 5.0100
 0.4090	 5.0340
 0.4100	 5.0390
 0.4110	 5.0540
 0.4120	 5.0890
 0.4130	 5.1150
 0.4140	 5.1340
 0.4150	 5.1410
 0.4160	 5.1340
 0.4170	 5.1530
 0.4180	 5.1650
 0.4190	 5.1700
 0.4200	 5.1990
 0.4210	 5.2240
 0.4220	 5.2430
 0.4230	 5.2580
 0.4240	 5.2740
 0.4250	 5.2940
 0.4260	 5.3160
 0.4270	 5.3360
 0.4280	 5.3510
 0.4290	 5.3630
 0.4300	 5.3710
 0.4310	 5.3700
 0.4320	 5.3750
 0.4330	 5.3850
 0.4340	 5.3920
 0.4350	 5.3950
 0.4360	 5.4070
 0.4370	 5.4240
 0.4380	 5.4320
 0.4390	 5.4440
 0.4400	 5.4610
 0.4410	 5.4800
 0.4420	 5.5010
 0.4430	 5.5090
 0.4440	 5.5060
 0.4450	 5.5070
 0.4460	 5.5210
 0.4470	 5.5350
 0.4480	 5.5430
 0.4490	 5.5510
 0.4500	 5.5650
 0.4510	 5.5770
 0.4520	 5.5800
 0.4530	 5.5820
 0.4540	 5.5870
 0.4550	 5.5950
 0.4560	 5.6010
 0.4570	 5.6110
 0.4580	 5.6190
 0.4590	 5.6220
 0.4600	 5.6170
 0.4610	 5.6190
 0.4620	 5.6240
 0.4630	 5.6250
 0.4640	 5.6320
 0.4650	 5.6350
 0.4660	 5.6360
 0.4670	 5.6400
 0.4680	 5.6370
 0.4690	 5.6320
 0.4700	 5.6340
 0.4710	 5.6420
 0.4720	 5.6480
 0.4730	 5.6500
 0.4740	 5.6470
 0.4750	 5.6460
 0.4760	 5.6440
 0.4770	 5.6430
 0.4780	 5.6450
 0.4790	 5.6480
 0.4800	 5.6520
 0.4810	 5.6530
 0.4820	 5.6440
 0.4830	 5.6390
 0.4840	 5.6440
 0.4850	 5.6480
 0.4860	 5.6490
 0.4870	 5.6490
 0.4880	 5.6520
 0.4890	 5.6660
 0.4900	 5.6780
 0.4910	 5.6830
 0.4920	 5.6880
 0.4930	 5.7020
 0.4940	 5.7180
 0.4950	 5.7330
 0.4960	 5.7540
 0.4970	 5.7650
 0.4980	 5.7770
 0.4990	 5.7980
 0.5000	 5.8170
 0.5010	 5.8400
 0.5020	 5.8670
 0.5030	 5.8900
 0.5040	 5.9210
 0.5050	 5.9550
 0.5060	 5.9900
 0.5070	 6.0300
 0.5080	 6.0700
 0.5090	 6.1140
 0.5100	 6.1650
 0.5110	 6.2240
 0.5120	 6.2870
 0.5130	 6.3540
 0.5140	 6.4290
 0.5150	 6.5110
 0.5160	 6.5980
 0.5170	 6.6900
 0.5180	 6.7910
 0.5190	 6.8970
 0.5200	 7.0080
 0.5210	 7.1240
 0.5220	 7.2460
 0.5230	 7.3690
 0.5240	 7.4900
 0.5250	 7.6080
 0.5260	 7.7250
 0.5270	 7.8400
 0.5280	 7.9470
 0.5290	 8.0450
 0.5300	 8.1380
 0.5310	 8.2260
 0.5320	 8.3080
 0.5330	 8.3820
 0.5340	 8.4470
 0.5350	 8.5050
 0.5360	 8.5560
 0.5370	 8.6020
 0.5380	 8.6410
 0.5390	 8.6730
 0.5400	 8.6940
 0.5410	 8.7090
 0.5420	 8.7230
 0.5430	 8.7400
 0.5440	 8.7620
 0.5450	 8.7900
 0.5460	 8.8210
 0.5470	 8.8530
 0.5480	 8.8830
 0.5490	 8.9090
 0.5500	 8.9300
 0.5510	 8.9410
 0.5520	 8.9430
 0.5530	 8.9400
 0.5540	 8.9290
 0.5550	 8.9100
 0.5560	 8.8800
 0.5570	 8.8390
 0.5580	 8.7880
 0.5590	 8.7310
 0.5600	 8.6690
 0.5610	 8.6010
 0.5620	 8.5330
 0.5630	 8.4660
 0.5640	 8.3950
 0.5650	 8.3230
 0.5660	 8.2460
 0.5670	 8.1640
 0.5680	 8.0830
 0.5690	 7.9980
 0.5700	 7.9090
 0.5710	 7.8210
 0.5720	 7.7410
 0.5730	 7.6690
 0.5740	 7.6060
 0.5750	 7.5500
 0.5760	 7.4970
 0.5770	 7.4380
 0.5780	 7.3730
 0.5790	 7.3130
 0.5800	 7.2590
 0.5810	 7.2140
 0.5820	 7.1750
 0.5830	 7.1410
 0.5840	 7.1050
 0.5850	 7.0650
 0.5860	 7.0240
 0.5870	 6.9880
 0.5880	 6.9580
 0.5890	 6.9360
 0.5900	 6.9220
 0.5910	 6.9140
 0.5920	 6.9100
 0.5930	 6.9060
 0.5940	 6.8990
 0.5950	 6.8900
 0.5960	 6.8780
 0.5970	 6.8590
 0.5980	 6.8400
 0.5990	 6.8230
 0.6000	 6.8050
 0.6010	 6.7920
 0.6020	 6.7780
 0.6030	 6.7610
 0.6040	 6.7380
 0.6050	 6.7150
 0.6060	 6.6910
 0.6070	 6.6630
 0.6080	 6.6300
 0.6090	 6.5940
 0.6100	 6.5530
 0.6110	 6.5050
 0.6120	 6.4740
 0.6130	 6.4540
 0.6140	 6.4350
 0.6150	 6.4110
 0.6160	 6.3890
 0.6170	 6.3660
 0.6180	 6.3390
 0.6190	 6.3200
 0.6200	 6.3020
 0.6210	 6.2850
 0.6220	 6.2690
 0.6230	 6.2580
 0.6240	 6.2480
 0.6250	 6.2390
 0.6260	 6.2340
 0.6270	 6.2300
 0.6280	 6.2260
 0.6290	 6.2200
 0.6300	 6.2140
 0.6310	 6.2090
 0.6320	 6.2060
 0.6330	 6.2040
 0.6340	 6.1990
 0.6350	 6.1900
 0.6360	 6.1760
 0.6370	 6.1620
 0.6380	 6.1450
 0.6390	 6.1240
 0.6400	 6.1000
 0.6410	 6.0790
 0.6420	 6.0570
 0.6430	 6.0350
 0.6440	 6.0110
 0.6450	 5.9890
 0.6460	 5.9670
 0.6470	 5.9460
 0.6480	 5.9280
 0.6490	 5.9120
 0.6500	 5.8980
 0.6510	 5.8860
 0.6520	 5.8780
 0.6530	 5.8720
 0.6540	 5.8620
 0.6550	 5.8530
 0.6560	 5.8410
 0.6570	 5.8280
 0.6580	 5.8160
 0.6590	 5.8030
 0.6600	 5.7880
 0.6610	 5.7720
 0.6620	 5.7590
 0.6630	 5.7470
 0.6640	 5.7380
 0.6650	 5.7310
 0.6660	 5.7260
 0.6670	 5.7220
 0.6680	 5.7210
 0.6690	 5.7250
 0.6700	 5.7290
 0.6710	 5.7370
 0.6720	 5.7490
 0.6730	 5.7600
 0.6740	 5.7740
 0.6750	 5.7900
 0.6760	 5.8080
 0.6770	 5.8290
 0.6780	 5.8540
 0.6790	 5.8810
 0.6800	 5.9090
 0.6810	 5.9390
 0.6820	 5.9720
 0.6830	 6.0090
 0.6840	 6.0460
 0.6850	 6.0850
 0.6860	 6.1260
 0.6870	 6.1700
 0.6880	 6.2230
 0.6890	 6.2860
 0.6900	 6.3620
 0.6910	 6.4580
 0.6920	 6.5740
 0.6930	 6.7190
 0.6940	 6.9000
 0.6950	 7.1230
 0.6960	 7.3890
 0.6970	 7.6990
 0.6980	 8.0570
 0.6990	 8.4660
 0.7000	 8.9220
 0.7010	 9.4210
 0.7020	 9.9590
 0.7030	10.5320
 0.7040	11.1370
 0.7050	11.7710
 0.7060	12.4290
 0.7070	13.1060
 0.7080	13.8030
 0.7090	14.5210
 0.7100	15.2580
 0.7110	16.0140
 0.7120	16.7850
 0.7130	17.5700
 0.7140	18.3720
 0.7150	19.1890
 0.7160	20.0180
 0.7170	20.8560
 0.7180	21.7000
 0.7190	22.5520
 0.7200	23.4100
 0.7210	24.2710
 0.7220	25.1290
 0.7230	25.9820
 0.7240	26.8280
 0.7250	27.6630
 0.7260	28.4860
 0.7270	29.2940
 0.7280	30.0800
 0.7290	30.8470
 0.7300	31.5930
 0.7310	32.3120
 0.7320	33.0070
 0.7330	33.6760
 0.7340	34.3190
 0.7350	34.9330
 0.7360	35.5170
 0.7370	36.0730
 0.7380	36.6030
 0.7390	37.1050
 0.7400	37.5780
 0.7410	38.0220
 0.7420	38.4430
 0.7430	38.8360
 0.7440	39.2010
 0.7450	39.5410
 0.7460	39.8590
 0.7470	40.1530
 0.7480	40.4230
 0.7490	40.6720
 0.7500	40.9030
 0.7510	41.1130
 0.7520	41.3060
 0.7530	41.4860
 0.7540	41.6490
 0.7550	41.7950
 0.7560	41.9260
 0.7570	42.0470
 0.7580	42.1550
 0.7590	42.2550
 0.7600	42.3470
 0.7610	42.4280
 0.7620	42.5060
 0.7630	42.5780
 0.7640	42.6410
 0.7650	42.6970
 0.7660	42.7450
 0.7670	42.7900
 0.7680	42.8340
 0.7690	42.8690
 0.7700	42.9020
 0.7710	42.9340
 0.7720	42.9640
 0.7730	42.9910
 0.7740	43.0140
 0.7750	43.0370
 0.7760	43.0600
 0.7770	43.0810
 0.7780	43.1010
 0.7790	43.1190
 0.7800	43.1380
 0.7810	43.1540
 0.7820	43.1690
 0.7830	43.1840
 0.7840	43.1980
 0.7850	43.2120
 0.7860	43.2260
 0.7870	43.2360
 0.7880	43.2480
 0.7890	43.2600
 0.7900	43.2690
 0.7910	43.2800
 0.7920	43.2930
 0.7930	43.3060
 0.7940	43.3130
 0.7950	43.3150
 0.7960	43.3220
 0.7970	43.3350
 0.7980	43.3420
 0.7990	43.3500
 0.8000	43.3560
 0.8010	43.3600
 0.8020	43.3630
 0.8030	43.3690
 0.8040	43.3740
 0.8050	43.3770
 0.8060	43.3840
 0.8070	43.3900
 0.8080	43.3920
 0.8090	43.3930
 0.8100	43.3980
 0.8110	43.4020
 0.8120	43.4050
 0.8130	43.4070
 0.8140	43.4100
 0.8150	43.4120
 0.8160	43.4130
 0.8170	43.4150
 0.8180	43.4190
 0.8190	43.4220
 0.8200	43.4250
 0.8210	43.4280
 0.8220	43.4300
 0.8230	43.4300
 0.8240	43.4280
 0.8250	43.4300
 0.8260	43.4330
 0.8270	43.4330
 0.8280	43.4390
 0.8290	43.4410
 0.8300	43.4410
 0.8310	43.4410
 0.8320	43.4430
 0.8330	43.4470
 0.8340	43.4500
 0.8350	43.4500
 0.8360	43.4540
 0.8370	43.4590
 0.8380	43.4640
 0.8390	43.4700
 0.8400	43.4720
 0.8410	43.4780
 0.8420	43.4870
 0.8430	43.4910
 0.8440	43.4970
 0.8450	43.5060
 0.8460	43.5140
 0.8470	43.5170
 0.8480	43.5210
 0.8490	43.5280
 0.8500	43.5380
 0.8510	43.5440
 0.8520	43.5500
 0.8530	43.5560
 0.8540	43.5630
 0.8550	43.5670
 0.8560	43.5720
 0.8570	43.5800
 0.8580	43.5920
 0.8590	43.6030
 0.8600	43.6120
 0.8610	43.6190
 0.8620	43.6300
 0.8630	43.6370
 0.8640	43.6410
 0.8650	43.6460
 0.8660	43.6490
 0.8670	43.6580
 0.8680	43.6710
 0.8690	43.6810
 0.8700	43.6880
 0.8710	43.6950
 0.8720	43.7060
 0.8730	43.7160
 0.8740	43.7230
 0.8750	43.7320
 0.8760	43.7440
 0.8770	43.7490
 0.8780	43.7610
 0.8790	43.7720
 0.8800	43.7770
 0.8810	43.7830
 0.8820	43.7930
 0.8830	43.8020
 0.8840	43.8070
 0.8850	43.8140
 0.8860	43.8210
 0.8870	43.8300
 0.8880	43.8390
 0.8890	43.8460
 0.8900	43.8540
 0.8910	43.8610
 0.8920	43.8660
 0.8930	43.8720
 0.8940	43.8790
 0.8950	43.8870
 0.8960	43.8950
 0.8970	43.9040
 0.8980	43.9100
 0.8990	43.9120
 0.9000	43.9210
 0.9010	43.9260
 0.9020	43.9290
 0.9030	43.9340
 0.9040	43.9440
 0.9050	43.9540
 0.9060	43.9620
 0.9070	43.9650
 0.9080	43.9690
 0.9090	43.9780
 0.9100	43.9880
 0.9110	43.9950
 0.9120	43.9950
 0.9130	43.9980
 0.9140	44.0040
 0.9150	44.0090
 0.9160	44.0070
 0.9170	44.0090
 0.9180	44.0120
 0.9190	44.0130
 0.9200	44.0220
 0.9210	44.0260
 0.9220	44.0250
 0.9230	44.0270
 0.9240	44.0330
 0.9250	44.0270
 0.9260	44.0140
 0.9270	44.0090
 0.9280	44.0070
 0.9290	44.0030
 0.9300	43.9960
 0.9310	43.9890
 0.9320	43.9780
 0.9330	43.9630
 0.9340	43.9510
 0.9350	43.9520
 0.9360	43.9400
 0.9370	43.9320
 0.9380	43.9320
 0.9390	43.9190
 0.9400	43.9000
 0.9410	43.8810
 0.9420	43.8660
 0.9430	43.8530
 0.9440	43.8390
 0.9450	43.8220
 0.9460	43.7970
 0.9470	43.7690
 0.9480	43.7440
 0.9490	43.7210
 0.9500	43.6920
 0.9510	43.6550
 0.9520	43.6190
 0.9530	43.5800
 0.9540	43.5370
 0.9550	43.5050
 0.9560	43.4690
 0.9570	43.4330
 0.9580	43.4000
 0.9590	43.3590
 0.9600	43.3230
 0.9610	43.2950
 0.9620	43.2730
 0.9630	43.2480
 0.9640	43.2300
 0.9650	43.2150
 0.9660	43.2020
 0.9670	43.2010
 0.9680	43.1830
 0.9690	43.1590
 0.9700	43.1510
 0.9710	43.1460
 0.9720	43.1500
 0.9730	43.1500
 0.9740	43.1340
 0.9750	43.1300
 0.9760	43.1240
 0.9770	43.1200
 0.9780	43.1310
 0.9790	43.1460
 0.9800	43.1470
 0.9810	43.1390
 0.9820	43.1370
 0.9830	43.1480
 0.9840	43.1640
 0.9850	43.1720
 0.9860	43.1730
 0.9870	43.1970
 0.9880	43.2110
 0.9890	43.2130
 0.9900	43.2160
 0.9910	43.2230
 0.9920	43.2460
 0.9930	43.2680
 0.9940	43.2730
 0.9950	43.3000
 0.9960	43.3170
 0.9970	43.3250
 0.9980	43.3400
 0.9990	43.3660
 1.0000	43.3810
 1.0010	46.1710
 1.0020	46.1900
 1.0030	46.2080
 1.0040	46.2250
 1.0050	46.2440
 1.0060	46.2600
 1.0070	46.2740
 1.0080	46.2900
 1.0090	46.3050
 1.0100	46.3210
 1.0110	46.3380
 1.0120	46.3540
 1.0130	46.3720
 1.0140	46.3870
 1.0150	46.4010
 1.0160	46.4120
 1.0170	46.4250
 1.0180	46.4390
 1.0190	46.4530
 1.0200	46.4710
 1.0210	46.4880
 1.0220	46.5030
 1.0230	46.5190
 1.0240	46.5370
 1.0250	46.5540
 1.0260	46.5720
 1.0270	46.5900
 1.0280	46.6090
 1.0290	46.6260
 1.0300	46.6410
 1.0310	46.6570
 1.0320	46.6730
 1.0330	46.6890
 1.0340	46.7100
 1.0350	46.7280
 1.0360	46.7450
 1.0370	46.7620
 1.0380	46.7790
 1.0390	46.7940
 1.0400	46.8090
 1.0410	46.8240
 1.0420	46.8380
 1.0430	46.8520
 1.0440	46.8650
 1.0450	46.8760
 1.0460	46.8890
 1.0470	46.8990
 1.0480	46.9110
 1.0490	46.9270
 1.0500	46.9380
 1.0510	46.9480
 1.0520	46.9550
 1.0530	46.9620
 1.0540	46.9640
 1.0550	46.9690
 1.0560	46.9760
 1.0570	46.9820
 1.0580	46.9860
 1.0590	46.9920
 1.0600	47.0010
 1.0610	47.0050
 1.0620	47.0070
 1.0630	47.0070
 1.0640	47.0010
 1.0650	46.9980
 1.0660	46.9960
 1.0670	46.9920
 1.0680	46.9870
 1.0690	46.9820
 1.0700	46.9750
 1.0710	46.9650
 1.0720	46.9590
 1.0730	46.9540
 1.0740	46.9470
 1.0750	46.9430
 1.0760	46.9350
 1.0770	46.9240
 1.0780	46.9150
 1.0790	46.9060
 1.0800	46.8950
 1.0810	46.8840
 1.0820	46.8730
 1.0830	46.8600
 1.0840	46.8490
 1.0850	46.8390
 1.0860	46.8300
 1.0870	46.8190
 1.0880	46.8090
 1.0890	46.7970
 1.0900	46.7820
 1.0910	46.7700
 1.0920	46.7560
 1.0930	46.7450
 1.0940	46.7340
 1.0950	46.7240
 1.0960	46.7160
 1.0970	46.7060
 1.0980	46.6950
 1.0990	46.6840
 1.1000	46.6730
 1.1010	46.6610
 1.1020	46.6480
 1.1030	46.6340
 1.1040	46.6210
 1.1050	46.6080
 1.1060	46.5970
 1.1070	46.5890
 1.1080	46.5780
 1.1090	46.5660
 1.1100	46.5540
 1.1110	46.5410
 1.1120	46.5280
 1.1130	46.5160
 1.1140	46.5030
 1.1150	46.4890
 1.1160	46.4740
 1.1170	46.4610
 1.1180	46.4430
 1.1190	46.4230
 1.1200	46.4030
 1.1210	46.3800
 1.1220	46.3570
 1.1230	46.3320
 1.1240	46.3040
 1.1250	46.2710
 1.1260	46.2340
 1.1270	46.1940
 1.1280	46.1530
 1.1290	46.1050
 1.1300	46.0560
 1.1310	46.0000
 1.1320	45.9390
 1.1330	45.8730
 1.1340	45.8020
 1.1350	45.7260
 1.1360	45.6440
 1.1370	45.5550
 1.1380	45.4610
 1.1390	45.3650
 1.1400	45.2630
 1.1410	45.1580
 1.1420	45.0500
 1.1430	44.9400
 1.1440	44.8300
 1.1450	44.7180
 1.1460	44.6080
 1.1470	44.4970
 1.1480	44.3900
 1.1490	44.2840
 1.1500	44.1830
 1.1510	44.0850
 1.1520	43.9910
 1.1530	43.8980
 1.1540	43.8140
 1.1550	43.7360
 1.1560	43.6640
 1.1570	43.6010
 1.1580	43.5420
 1.1590	43.4870
 1.1600	43.4380
 1.1610	43.3930
 1.1620	43.3510
 1.1630	43.3130
 1.1640	43.2800
 1.1650	43.2500
 1.1660	43.2250
 1.1670	43.2010
 1.1680	43.1820
 1.1690	43.1620
 1.1700	43.1430
 1.1710	43.1250
 1.1720	43.1070
 1.1730	43.0900
 1.1740	43.0750
 1.1750	43.0600
 1.1760	43.0420
 1.1770	43.0230
 1.1780	43.0040
 1.1790	42.9840
 1.1800	42.9650
 1.1810	42.9470
 1.1820	42.9270
 1.1830	42.9050
 1.1840	42.8850
 1.1850	42.8650
 1.1860	42.8460
 1.1870	42.8290
 1.1880	42.8130
 1.1890	42.7980
 1.1900	42.7840
 1.1910	42.7720
 1.1920	42.7610
 1.1930	42.7510
 1.1940	42.7420
 1.1950	42.7350
 1.1960	42.7270
 1.1970	42.7210
 1.1980	42.7160
 1.1990	42.7110
 1.2000	42.7090
 1.2010	42.7090
 1.2020	42.7100
 1.2030	42.7140
 1.2040	42.7180
 1.2050	42.7230
 1.2060	42.7290
 1.2070	42.7350
 1.2080	42.7430
 1.2090	42.7530
 1.2100	42.7640
 1.2110	42.7780
 1.2120	42.7950
 1.2130	42.8130
 1.2140	42.8330
 1.2150	42.8550
 1.2160	42.8790
 1.2170	42.9050
 1.2180	42.9330
 1.2190	42.9620
 1.2200	42.9940
 1.2210	43.0280
 1.2220	43.0610
 1.2230	43.0940
 1.2240	43.1260
 1.2250	43.1580
 1.2260	43.1880
 1.2270	43.2190
 1.2280	43.2510
 1.2290	43.2800
 1.2300	43.3100
 1.2310	43.3390
 1.2320	43.3670
 1.2330	43.3940
 1.2340	43.4190
 1.2350	43.4430
 1.2360	43.4660
 1.2370	43.4870
 1.2380	43.5060
 1.2390	43.5250
 1.2400	43.5430
 1.2410	43.5610
 1.2420	43.5790
 1.2430	43.5970
 1.2440	43.6140
 1.2450	43.6320
 1.2460	43.6470
 1.2470	43.6620
 1.2480	43.6770
 1.2490	43.6900
 1.2500	43.7040
 1.2510	43.7180
 1.2520	43.7300
 1.2530	43.7400
 1.2540	43.7490
 1.2550	43.7580
 1.2560	43.7660
 1.2570	43.7750
 1.2580	43.7820
 1.2590	43.7880
 1.2600	43.7900
 1.2610	43.7930
 1.2620	43.7960
 1.2630	43.7980
 1.2640	43.7990
 1.2650	43.8020
 1.2660	43.8030
 1.2670	43.8030
 1.2680	43.8040
 1.2690	43.8050
 1.2700	43.8060
 1.2710	43.8050
 1.2720	43.8050
 1.2730	43.8060
 1.2740	43.8050
 1.2750	43.8050
 1.2760	43.8030
 1.2770	43.7970
 1.2780	43.7910
 1.2790	43.7830
 1.2800	43.7750
 1.2810	43.7680
 1.2820	43.7580
 1.2830	43.7450
 1.2840	43.7300
 1.2850	43.7110
 1.2860	43.6920
 1.2870	43.6700
 1.2880	43.6480
 1.2890	43.6210
 1.2900	43.5920
 1.2910	43.5590
 1.2920	43.5230
 1.2930	43.4850
 1.2940	43.4450
 1.2950	43.4030
 1.2960	43.3570
 1.2970	43.3080
 1.2980	43.2570
 1.2990	43.2030
 1.3000	43.1470
 1.3010	43.0880
 1.3020	43.0280
 1.3030	42.9650
 1.3040	42.9010
 1.3050	42.8370
 1.3060	42.7680
 1.3070	42.6970
 1.3080	42.6270
 1.3090	42.5550
 1.3100	42.4800
 1.3110	42.4060
 1.3120	42.3280
 1.3130	42.2490
 1.3140	42.1690
 1.3150	42.0880
 1.3160	42.0050
 1.3170	41.9210
 1.3180	41.8350
 1.3190	41.7460
 1.3200	41.6560
 1.3210	41.5630
 1.3220	41.4690
 1.3230	41.3740
 1.3240	41.2780
 1.3250	41.1790
 1.3260	41.0790
 1.3270	40.9750
 1.3280	40.8700
 1.3290	40.7650
 1.3300	40.6590
 1.3310	40.5500
 1.3320	40.4400
 1.3330	40.3280
 1.3340	40.2150
 1.3350	40.1020
 1.3360	39.9900
 1.3370	39.8750
 1.3380	39.7600
 1.3390	39.6450
 1.3400	39.5280
 1.3410	39.4120
 1.3420	39.2970
 1.3430	39.1820
 1.3440	39.0700
 1.3450	38.9590
 1.3460	38.8490
 1.3470	38.7410
 1.3480	38.6330
 1.3490	38.5280
 1.3500	38.4250
 1.3510	38.3210
 1.3520	38.2170
 1.3530	38.1140
 1.3540	38.0080
 1.3550	37.9040
 1.3560	37.8000
 1.3570	37.6940
 1.3580	37.5870
 1.3590	37.4780
 1.3600	37.3650
 1.3610	37.2490
 1.3620	37.1270
 1.3630	37.0010
 1.3640	36.8700
 1.3650	36.7340
 1.3660	36.5920
 1.3670	36.4410
 1.3680	36.2820
 1.3690	36.1130
 1.3700	35.9320
 1.3710	35.7400
 1.3720	35.5350
 1.3730	35.3140
 1.3740	35.0790
 1.3750	34.8290
 1.3760	34.5580
 1.3770	34.2670
 1.3780	33.9530
 1.3790	33.6160
 1.3800	33.2590
 1.3810	32.8770
 1.3820	32.4740
 1.3830	32.0510
 1.3840	31.6060
 1.3850	31.1400
 1.3860	30.6570
 1.3870	30.1500
 1.3880	29.6370
 1.3890	29.1090
 1.3900	28.5700
 1.3910	28.0290
 1.3920	27.4790
 1.3930	26.9210
 1.3940	26.3640
 1.3950	25.8000
 1.3960	25.2430
 1.3970	24.6950
 1.3980	24.1550
 1.3990	23.6330
 1.4000	23.1240
 1.4010	22.6260
 1.4020	22.1460
 1.4030	21.6790
 1.4040	21.2300
 1.4050	20.8060
 1.4060	20.3990
 1.4070	20.0170
 1.4080	19.6550
 1.4090	19.3090
 1.4100	18.9850
 1.4110	18.6810
 1.4120	18.3960
 1.4130	18.1320
 1.4140	17.8850
 1.4150	17.6580
 1.4160	17.4480
 1.4170	17.2530
 1.4180	17.0730
 1.4190	16.9050
 1.4200	16.7500
 1.4210	16.6080
 1.4220	16.4780
 1.4230	16.3590
 1.4240	16.2510
 1.4250	16.1500
 1.4260	16.0590
 1.4270	15.9750
 1.4280	15.8980
 1.4290	15.8290
 1.4300	15.7680
 1.4310	15.7120
 1.4320	15.6640
 1.4330	15.6200
 1.4340	15.5830
 1.4350	15.5500
 1.4360	15.5220
 1.4370	15.4990
 1.4380	15.4790
 1.4390	15.4630
 1.4400	15.4500
 1.4410	15.4410
 1.4420	15.4340
 1.4430	15.4300
 1.4440	15.4290
 1.4450	15.4300
 1.4460	15.4330
 1.4470	15.4380
 1.4480	15.4450
 1.4490	15.4530
 1.4500	15.4630
 1.4510	15.4730
 1.4520	15.4860
 1.4530	15.5010
 1.4540	15.5180
 1.4550	15.5360
 1.4560	15.5570
 1.4570	15.5790
 1.4580	15.6040
 1.4590	15.6320
 1.4600	15.6620
 1.4610	15.6970
 1.4620	15.7360
 1.4630	15.7790
 1.4640	15.8270
 1.4650	15.8780
 1.4660	15.9350
 1.4670	15.9960
 1.4680	16.0620
 1.4690	16.1320
 1.4700	16.2070
 1.4710	16.2860
 1.4720	16.3680
 1.4730	16.4540
 1.4740	16.5430
 1.4750	16.6350
 1.4760	16.7310
 1.4770	16.8300
