Name: Peltophorum africanum
Type: vegetation
Class: Tree
Genus: Peltophorum
Species: africanum
Sample No.: JPL259
Owner: JPL
Wavelength Range: VSWIR
Origin: 34.13116; -118.11242; WGS84
Collection Date: 10/6/2016
Description: Samples were collected at the Huntington Garden in San Marino California as part of a JPL Subcontract studying HyTES imagery. Samples were taken to JPL and processed within 48 hours of collection. The same leaves were processed in the Nicolet and then measured using the ASD.
Measurement: Bidirectional reflectance
First Column: X
Second Column: Y
X Units: Wavelength (micrometer)
Y Units: Reflectance (percentage)
First X Value: 0.35
Last X Value: 2.5
Number of X Values: 2151
Additional Information: vegetation.tree.peltophorum.africanum.vswir.jpl259.jpl.asd.ancillary.txt

 0.3500	 4.0090
 0.3510	 3.9700
 0.3520	 3.9160
 0.3530	 3.8240
 0.3540	 3.7030
 0.3550	 3.7720
 0.3560	 3.7970
 0.3570	 3.7810
 0.3580	 3.8380
 0.3590	 3.8820
 0.3600	 3.8230
 0.3610	 3.6980
 0.3620	 3.7110
 0.3630	 3.7710
 0.3640	 3.8100
 0.3650	 3.7860
 0.3660	 3.7260
 0.3670	 3.6670
 0.3680	 3.6520
 0.3690	 3.7100
 0.3700	 3.7530
 0.3710	 3.7290
 0.3720	 3.6590
 0.3730	 3.6840
 0.3740	 3.6880
 0.3750	 3.7040
 0.3760	 3.7700
 0.3770	 3.7200
 0.3780	 3.6560
 0.3790	 3.6360
 0.3800	 3.6730
 0.3810	 3.7090
 0.3820	 3.7180
 0.3830	 3.6990
 0.3840	 3.6880
 0.3850	 3.6680
 0.3860	 3.6570
 0.3870	 3.6720
 0.3880	 3.6800
 0.3890	 3.6710
 0.3900	 3.6610
 0.3910	 3.6840
 0.3920	 3.6990
 0.3930	 3.6840
 0.3940	 3.6460
 0.3950	 3.6550
 0.3960	 3.6670
 0.3970	 3.6690
 0.3980	 3.6650
 0.3990	 3.6690
 0.4000	 3.6760
 0.4010	 3.6800
 0.4020	 3.6800
 0.4030	 3.6680
 0.4040	 3.6590
 0.4050	 3.6630
 0.4060	 3.6790
 0.4070	 3.6700
 0.4080	 3.6500
 0.4090	 3.6610
 0.4100	 3.6890
 0.4110	 3.7030
 0.4120	 3.6930
 0.4130	 3.6970
 0.4140	 3.6920
 0.4150	 3.6920
 0.4160	 3.7110
 0.4170	 3.7150
 0.4180	 3.7150
 0.4190	 3.7210
 0.4200	 3.7340
 0.4210	 3.7390
 0.4220	 3.7380
 0.4230	 3.7390
 0.4240	 3.7600
 0.4250	 3.7660
 0.4260	 3.7640
 0.4270	 3.7770
 0.4280	 3.7880
 0.4290	 3.7920
 0.4300	 3.7960
 0.4310	 3.8080
 0.4320	 3.8180
 0.4330	 3.8280
 0.4340	 3.8400
 0.4350	 3.8410
 0.4360	 3.8460
 0.4370	 3.8540
 0.4380	 3.8530
 0.4390	 3.8630
 0.4400	 3.8740
 0.4410	 3.8780
 0.4420	 3.8810
 0.4430	 3.8820
 0.4440	 3.8850
 0.4450	 3.8930
 0.4460	 3.9000
 0.4470	 3.9080
 0.4480	 3.9150
 0.4490	 3.9120
 0.4500	 3.9200
 0.4510	 3.9340
 0.4520	 3.9430
 0.4530	 3.9400
 0.4540	 3.9480
 0.4550	 3.9630
 0.4560	 3.9620
 0.4570	 3.9620
 0.4580	 3.9640
 0.4590	 3.9690
 0.4600	 3.9770
 0.4610	 3.9760
 0.4620	 3.9730
 0.4630	 3.9760
 0.4640	 3.9840
 0.4650	 3.9860
 0.4660	 3.9800
 0.4670	 3.9770
 0.4680	 3.9790
 0.4690	 3.9860
 0.4700	 3.9930
 0.4710	 3.9900
 0.4720	 3.9850
 0.4730	 3.9850
 0.4740	 3.9910
 0.4750	 3.9970
 0.4760	 3.9980
 0.4770	 3.9960
 0.4780	 4.0020
 0.4790	 4.0050
 0.4800	 4.0060
 0.4810	 4.0090
 0.4820	 4.0120
 0.4830	 4.0160
 0.4840	 4.0200
 0.4850	 4.0250
 0.4860	 4.0280
 0.4870	 4.0330
 0.4880	 4.0420
 0.4890	 4.0380
 0.4900	 4.0410
 0.4910	 4.0490
 0.4920	 4.0550
 0.4930	 4.0630
 0.4940	 4.0730
 0.4950	 4.0830
 0.4960	 4.0830
 0.4970	 4.0930
 0.4980	 4.1090
 0.4990	 4.1220
 0.5000	 4.1270
 0.5010	 4.1410
 0.5020	 4.1620
 0.5030	 4.1780
 0.5040	 4.1980
 0.5050	 4.2190
 0.5060	 4.2390
 0.5070	 4.2720
 0.5080	 4.3060
 0.5090	 4.3390
 0.5100	 4.3760
 0.5110	 4.4180
 0.5120	 4.4660
 0.5130	 4.5190
 0.5140	 4.5770
 0.5150	 4.6410
 0.5160	 4.7100
 0.5170	 4.7860
 0.5180	 4.8690
 0.5190	 4.9600
 0.5200	 5.0590
 0.5210	 5.1630
 0.5220	 5.2690
 0.5230	 5.3770
 0.5240	 5.4870
 0.5250	 5.5910
 0.5260	 5.6990
 0.5270	 5.8100
 0.5280	 5.9120
 0.5290	 6.0100
 0.5300	 6.1010
 0.5310	 6.1850
 0.5320	 6.2630
 0.5330	 6.3360
 0.5340	 6.4030
 0.5350	 6.4610
 0.5360	 6.5140
 0.5370	 6.5620
 0.5380	 6.6040
 0.5390	 6.6410
 0.5400	 6.6780
 0.5410	 6.7150
 0.5420	 6.7520
 0.5430	 6.7860
 0.5440	 6.8130
 0.5450	 6.8330
 0.5460	 6.8470
 0.5470	 6.8540
 0.5480	 6.8610
 0.5490	 6.8700
 0.5500	 6.8800
 0.5510	 6.8860
 0.5520	 6.8860
 0.5530	 6.8780
 0.5540	 6.8640
 0.5550	 6.8440
 0.5560	 6.8150
 0.5570	 6.7750
 0.5580	 6.7350
 0.5590	 6.6900
 0.5600	 6.6360
 0.5610	 6.5780
 0.5620	 6.5200
 0.5630	 6.4610
 0.5640	 6.4000
 0.5650	 6.3330
 0.5660	 6.2640
 0.5670	 6.1950
 0.5680	 6.1230
 0.5690	 6.0520
 0.5700	 5.9790
 0.5710	 5.9070
 0.5720	 5.8370
 0.5730	 5.7700
 0.5740	 5.7080
 0.5750	 5.6530
 0.5760	 5.5990
 0.5770	 5.5480
 0.5780	 5.5010
 0.5790	 5.4570
 0.5800	 5.4150
 0.5810	 5.3780
 0.5820	 5.3460
 0.5830	 5.3200
 0.5840	 5.2960
 0.5850	 5.2720
 0.5860	 5.2480
 0.5870	 5.2270
 0.5880	 5.2060
 0.5890	 5.1840
 0.5900	 5.1670
 0.5910	 5.1520
 0.5920	 5.1380
 0.5930	 5.1250
 0.5940	 5.1130
 0.5950	 5.1020
 0.5960	 5.0930
 0.5970	 5.0830
 0.5980	 5.0730
 0.5990	 5.0630
 0.6000	 5.0520
 0.6010	 5.0420
 0.6020	 5.0310
 0.6030	 5.0180
 0.6040	 5.0040
 0.6050	 4.9860
 0.6060	 4.9680
 0.6070	 4.9510
 0.6080	 4.9300
 0.6090	 4.9120
 0.6100	 4.8990
 0.6110	 4.8860
 0.6120	 4.8660
 0.6130	 4.8380
 0.6140	 4.8060
 0.6150	 4.7810
 0.6160	 4.7600
 0.6170	 4.7400
 0.6180	 4.7200
 0.6190	 4.7040
 0.6200	 4.6930
 0.6210	 4.6830
 0.6220	 4.6720
 0.6230	 4.6630
 0.6240	 4.6550
 0.6250	 4.6480
 0.6260	 4.6430
 0.6270	 4.6390
 0.6280	 4.6360
 0.6290	 4.6350
 0.6300	 4.6330
 0.6310	 4.6320
 0.6320	 4.6290
 0.6330	 4.6240
 0.6340	 4.6180
 0.6350	 4.6110
 0.6360	 4.6030
 0.6370	 4.5890
 0.6380	 4.5720
 0.6390	 4.5560
 0.6400	 4.5400
 0.6410	 4.5220
 0.6420	 4.5050
 0.6430	 4.4900
 0.6440	 4.4720
 0.6450	 4.4600
 0.6460	 4.4490
 0.6470	 4.4360
 0.6480	 4.4250
 0.6490	 4.4180
 0.6500	 4.4150
 0.6510	 4.4110
 0.6520	 4.4090
 0.6530	 4.4090
 0.6540	 4.4080
 0.6550	 4.4100
 0.6560	 4.4090
 0.6570	 4.4070
 0.6580	 4.4040
 0.6590	 4.4030
 0.6600	 4.4030
 0.6610	 4.4020
 0.6620	 4.4050
 0.6630	 4.4060
 0.6640	 4.4080
 0.6650	 4.4150
 0.6660	 4.4230
 0.6670	 4.4330
 0.6680	 4.4470
 0.6690	 4.4640
 0.6700	 4.4810
 0.6710	 4.5030
 0.6720	 4.5280
 0.6730	 4.5550
 0.6740	 4.5810
 0.6750	 4.6110
 0.6760	 4.6470
 0.6770	 4.6840
 0.6780	 4.7240
 0.6790	 4.7670
 0.6800	 4.8110
 0.6810	 4.8560
 0.6820	 4.9010
 0.6830	 4.9440
 0.6840	 4.9840
 0.6850	 5.0190
 0.6860	 5.0530
 0.6870	 5.0870
 0.6880	 5.1230
 0.6890	 5.1630
 0.6900	 5.2110
 0.6910	 5.2760
 0.6920	 5.3640
 0.6930	 5.4810
 0.6940	 5.6310
 0.6950	 5.8210
 0.6960	 6.0530
 0.6970	 6.3270
 0.6980	 6.6440
 0.6990	 7.0090
 0.7000	 7.4130
 0.7010	 7.8540
 0.7020	 8.3330
 0.7030	 8.8430
 0.7040	 9.3830
 0.7050	 9.9480
 0.7060	10.5330
 0.7070	11.1420
 0.7080	11.7730
 0.7090	12.4230
 0.7100	13.0910
 0.7110	13.7810
 0.7120	14.4900
 0.7130	15.2140
 0.7140	15.9540
 0.7150	16.7100
 0.7160	17.4810
 0.7170	18.2630
 0.7180	19.0570
 0.7190	19.8570
 0.7200	20.6580
 0.7210	21.4630
 0.7220	22.2650
 0.7230	23.0620
 0.7240	23.8500
 0.7250	24.6290
 0.7260	25.3930
 0.7270	26.1390
 0.7280	26.8620
 0.7290	27.5650
 0.7300	28.2450
 0.7310	28.8980
 0.7320	29.5250
 0.7330	30.1260
 0.7340	30.6990
 0.7350	31.2400
 0.7360	31.7530
 0.7370	32.2370
 0.7380	32.6920
 0.7390	33.1180
 0.7400	33.5150
 0.7410	33.8840
 0.7420	34.2260
 0.7430	34.5400
 0.7440	34.8270
 0.7450	35.0900
 0.7460	35.3310
 0.7470	35.5480
 0.7480	35.7430
 0.7490	35.9200
 0.7500	36.0800
 0.7510	36.2230
 0.7520	36.3520
 0.7530	36.4660
 0.7540	36.5680
 0.7550	36.6600
 0.7560	36.7410
 0.7570	36.8150
 0.7580	36.8810
 0.7590	36.9400
 0.7600	36.9920
 0.7610	37.0360
 0.7620	37.0750
 0.7630	37.1110
 0.7640	37.1420
 0.7650	37.1690
 0.7660	37.1880
 0.7670	37.2030
 0.7680	37.2210
 0.7690	37.2360
 0.7700	37.2470
 0.7710	37.2550
 0.7720	37.2630
 0.7730	37.2730
 0.7740	37.2820
 0.7750	37.2890
 0.7760	37.2990
 0.7770	37.3070
 0.7780	37.3110
 0.7790	37.3170
 0.7800	37.3260
 0.7810	37.3330
 0.7820	37.3380
 0.7830	37.3440
 0.7840	37.3500
 0.7850	37.3560
 0.7860	37.3630
 0.7870	37.3690
 0.7880	37.3720
 0.7890	37.3740
 0.7900	37.3790
 0.7910	37.3810
 0.7920	37.3830
 0.7930	37.3850
 0.7940	37.3860
 0.7950	37.3870
 0.7960	37.3880
 0.7970	37.3870
 0.7980	37.3860
 0.7990	37.3830
 0.8000	37.3810
 0.8010	37.3800
 0.8020	37.3730
 0.8030	37.3680
 0.8040	37.3650
 0.8050	37.3620
 0.8060	37.3570
 0.8070	37.3510
 0.8080	37.3450
 0.8090	37.3390
 0.8100	37.3300
 0.8110	37.3220
 0.8120	37.3150
 0.8130	37.3070
 0.8140	37.2950
 0.8150	37.2830
 0.8160	37.2760
 0.8170	37.2670
 0.8180	37.2580
 0.8190	37.2500
 0.8200	37.2410
 0.8210	37.2290
 0.8220	37.2200
 0.8230	37.2120
 0.8240	37.2010
 0.8250	37.1910
 0.8260	37.1810
 0.8270	37.1700
 0.8280	37.1640
 0.8290	37.1530
 0.8300	37.1400
 0.8310	37.1290
 0.8320	37.1180
 0.8330	37.1110
 0.8340	37.1040
 0.8350	37.0950
 0.8360	37.0880
 0.8370	37.0820
 0.8380	37.0750
 0.8390	37.0680
 0.8400	37.0610
 0.8410	37.0580
 0.8420	37.0560
 0.8430	37.0500
 0.8440	37.0470
 0.8450	37.0460
 0.8460	37.0450
 0.8470	37.0410
 0.8480	37.0410
 0.8490	37.0420
 0.8500	37.0410
 0.8510	37.0400
 0.8520	37.0370
 0.8530	37.0350
 0.8540	37.0370
 0.8550	37.0380
 0.8560	37.0410
 0.8570	37.0440
 0.8580	37.0450
 0.8590	37.0500
 0.8600	37.0540
 0.8610	37.0570
 0.8620	37.0630
 0.8630	37.0660
 0.8640	37.0700
 0.8650	37.0800
 0.8660	37.0860
 0.8670	37.0880
 0.8680	37.0900
 0.8690	37.0960
 0.8700	37.1010
 0.8710	37.1070
 0.8720	37.1150
 0.8730	37.1240
 0.8740	37.1310
 0.8750	37.1370
 0.8760	37.1450
 0.8770	37.1550
 0.8780	37.1610
 0.8790	37.1660
 0.8800	37.1730
 0.8810	37.1800
 0.8820	37.1880
 0.8830	37.1960
 0.8840	37.2030
 0.8850	37.2110
 0.8860	37.2200
 0.8870	37.2260
 0.8880	37.2290
 0.8890	37.2390
 0.8900	37.2480
 0.8910	37.2560
 0.8920	37.2610
 0.8930	37.2620
 0.8940	37.2680
 0.8950	37.2780
 0.8960	37.2880
 0.8970	37.2960
 0.8980	37.3010
 0.8990	37.3070
 0.9000	37.3180
 0.9010	37.3230
 0.9020	37.3250
 0.9030	37.3280
 0.9040	37.3370
 0.9050	37.3450
 0.9060	37.3500
 0.9070	37.3510
 0.9080	37.3580
 0.9090	37.3630
 0.9100	37.3660
 0.9110	37.3670
 0.9120	37.3670
 0.9130	37.3650
 0.9140	37.3660
 0.9150	37.3720
 0.9160	37.3760
 0.9170	37.3740
 0.9180	37.3730
 0.9190	37.3780
 0.9200	37.3770
 0.9210	37.3700
 0.9220	37.3620
 0.9230	37.3570
 0.9240	37.3580
 0.9250	37.3560
 0.9260	37.3480
 0.9270	37.3400
 0.9280	37.3260
 0.9290	37.3120
 0.9300	37.3030
 0.9310	37.2910
 0.9320	37.2790
 0.9330	37.2680
 0.9340	37.2560
 0.9350	37.2440
 0.9360	37.2220
 0.9370	37.1970
 0.9380	37.1770
 0.9390	37.1730
 0.9400	37.1560
 0.9410	37.1340
 0.9420	37.1130
 0.9430	37.0880
 0.9440	37.0650
 0.9450	37.0430
 0.9460	37.0190
 0.9470	36.9850
 0.9480	36.9510
 0.9490	36.9110
 0.9500	36.8650
 0.9510	36.8310
 0.9520	36.7940
 0.9530	36.7550
 0.9540	36.7140
 0.9550	36.6650
 0.9560	36.6210
 0.9570	36.5830
 0.9580	36.5450
 0.9590	36.5070
 0.9600	36.4660
 0.9610	36.4290
 0.9620	36.4010
 0.9630	36.3750
 0.9640	36.3510
 0.9650	36.3320
 0.9660	36.3200
 0.9670	36.2990
 0.9680	36.2800
 0.9690	36.2620
 0.9700	36.2410
 0.9710	36.2270
 0.9720	36.2110
 0.9730	36.1970
 0.9740	36.1890
 0.9750	36.1810
 0.9760	36.1690
 0.9770	36.1580
 0.9780	36.1550
 0.9790	36.1500
 0.9800	36.1390
 0.9810	36.1350
 0.9820	36.1490
 0.9830	36.1440
 0.9840	36.1370
 0.9850	36.1290
 0.9860	36.1190
 0.9870	36.1300
 0.9880	36.1370
 0.9890	36.1380
 0.9900	36.1440
 0.9910	36.1420
 0.9920	36.1410
 0.9930	36.1470
 0.9940	36.1580
 0.9950	36.1600
 0.9960	36.1620
 0.9970	36.1660
 0.9980	36.1740
 0.9990	36.1960
 1.0000	36.2210
 1.0010	35.5490
 1.0020	35.5620
 1.0030	35.5730
 1.0040	35.5880
 1.0050	35.6030
 1.0060	35.6150
 1.0070	35.6280
 1.0080	35.6410
 1.0090	35.6570
 1.0100	35.6700
 1.0110	35.6800
 1.0120	35.6930
 1.0130	35.7050
 1.0140	35.7160
 1.0150	35.7270
 1.0160	35.7430
 1.0170	35.7560
 1.0180	35.7650
 1.0190	35.7770
 1.0200	35.7910
 1.0210	35.8030
 1.0220	35.8170
 1.0230	35.8290
 1.0240	35.8420
 1.0250	35.8530
 1.0260	35.8610
 1.0270	35.8730
 1.0280	35.8870
 1.0290	35.8980
 1.0300	35.9120
 1.0310	35.9230
 1.0320	35.9310
 1.0330	35.9370
 1.0340	35.9460
 1.0350	35.9560
 1.0360	35.9630
 1.0370	35.9720
 1.0380	35.9810
 1.0390	35.9890
 1.0400	35.9960
 1.0410	36.0030
 1.0420	36.0100
 1.0430	36.0150
 1.0440	36.0220
 1.0450	36.0310
 1.0460	36.0390
 1.0470	36.0470
 1.0480	36.0540
 1.0490	36.0600
 1.0500	36.0660
 1.0510	36.0710
 1.0520	36.0770
 1.0530	36.0830
 1.0540	36.0900
 1.0550	36.0960
 1.0560	36.1010
 1.0570	36.1080
 1.0580	36.1180
 1.0590	36.1250
 1.0600	36.1340
 1.0610	36.1410
 1.0620	36.1450
 1.0630	36.1510
 1.0640	36.1560
 1.0650	36.1620
 1.0660	36.1640
 1.0670	36.1700
 1.0680	36.1770
 1.0690	36.1850
 1.0700	36.1940
 1.0710	36.2070
 1.0720	36.2150
 1.0730	36.2210
 1.0740	36.2270
 1.0750	36.2310
 1.0760	36.2360
 1.0770	36.2400
 1.0780	36.2440
 1.0790	36.2480
 1.0800	36.2520
 1.0810	36.2580
 1.0820	36.2630
 1.0830	36.2700
 1.0840	36.2740
 1.0850	36.2750
 1.0860	36.2790
 1.0870	36.2810
 1.0880	36.2800
 1.0890	36.2810
 1.0900	36.2840
 1.0910	36.2840
 1.0920	36.2840
 1.0930	36.2840
 1.0940	36.2850
 1.0950	36.2840
 1.0960	36.2830
 1.0970	36.2800
 1.0980	36.2760
 1.0990	36.2720
 1.1000	36.2680
 1.1010	36.2640
 1.1020	36.2610
 1.1030	36.2570
 1.1040	36.2510
 1.1050	36.2440
 1.1060	36.2370
 1.1070	36.2270
 1.1080	36.2190
 1.1090	36.2130
 1.1100	36.2050
 1.1110	36.2000
 1.1120	36.1900
 1.1130	36.1800
 1.1140	36.1670
 1.1150	36.1530
 1.1160	36.1380
 1.1170	36.1210
 1.1180	36.1030
 1.1190	36.0820
 1.1200	36.0600
 1.1210	36.0400
 1.1220	36.0160
 1.1230	35.9910
 1.1240	35.9650
 1.1250	35.9350
 1.1260	35.9040
 1.1270	35.8660
 1.1280	35.8260
 1.1290	35.7810
 1.1300	35.7320
 1.1310	35.6800
 1.1320	35.6260
 1.1330	35.5680
 1.1340	35.5070
 1.1350	35.4400
 1.1360	35.3700
 1.1370	35.2960
 1.1380	35.2150
 1.1390	35.1320
 1.1400	35.0480
 1.1410	34.9590
 1.1420	34.8700
 1.1430	34.7800
 1.1440	34.6900
 1.1450	34.5960
 1.1460	34.5060
 1.1470	34.4160
 1.1480	34.3290
 1.1490	34.2420
 1.1500	34.1610
 1.1510	34.0820
 1.1520	34.0080
 1.1530	33.9390
 1.1540	33.8740
 1.1550	33.8140
 1.1560	33.7570
 1.1570	33.7050
 1.1580	33.6570
 1.1590	33.6120
 1.1600	33.5710
 1.1610	33.5350
 1.1620	33.5040
 1.1630	33.4750
 1.1640	33.4490
 1.1650	33.4260
 1.1660	33.4060
 1.1670	33.3860
 1.1680	33.3670
 1.1690	33.3500
 1.1700	33.3350
 1.1710	33.3200
 1.1720	33.3090
 1.1730	33.2960
 1.1740	33.2840
 1.1750	33.2700
 1.1760	33.2560
 1.1770	33.2420
 1.1780	33.2260
 1.1790	33.2110
 1.1800	33.1970
 1.1810	33.1840
 1.1820	33.1730
 1.1830	33.1600
 1.1840	33.1450
 1.1850	33.1320
 1.1860	33.1170
 1.1870	33.1020
 1.1880	33.0900
 1.1890	33.0770
 1.1900	33.0670
 1.1910	33.0590
 1.1920	33.0510
 1.1930	33.0430
 1.1940	33.0360
 1.1950	33.0290
 1.1960	33.0240
 1.1970	33.0210
 1.1980	33.0180
 1.1990	33.0170
 1.2000	33.0160
 1.2010	33.0150
 1.2020	33.0150
 1.2030	33.0170
 1.2040	33.0210
 1.2050	33.0260
 1.2060	33.0330
 1.2070	33.0390
 1.2080	33.0470
 1.2090	33.0560
 1.2100	33.0660
 1.2110	33.0770
 1.2120	33.0900
 1.2130	33.1020
 1.2140	33.1140
 1.2150	33.1280
 1.2160	33.1430
 1.2170	33.1600
 1.2180	33.1760
 1.2190	33.1950
 1.2200	33.2140
 1.2210	33.2330
 1.2220	33.2530
 1.2230	33.2730
 1.2240	33.2920
 1.2250	33.3100
 1.2260	33.3280
 1.2270	33.3470
 1.2280	33.3630
 1.2290	33.3800
 1.2300	33.3970
 1.2310	33.4130
 1.2320	33.4290
 1.2330	33.4450
 1.2340	33.4600
 1.2350	33.4730
 1.2360	33.4860
 1.2370	33.4980
 1.2380	33.5090
 1.2390	33.5200
 1.2400	33.5310
 1.2410	33.5440
 1.2420	33.5560
 1.2430	33.5700
 1.2440	33.5810
 1.2450	33.5900
 1.2460	33.5980
 1.2470	33.6070
 1.2480	33.6160
 1.2490	33.6230
 1.2500	33.6310
 1.2510	33.6390
 1.2520	33.6450
 1.2530	33.6530
 1.2540	33.6590
 1.2550	33.6640
 1.2560	33.6690
 1.2570	33.6750
 1.2580	33.6810
 1.2590	33.6840
 1.2600	33.6880
 1.2610	33.6890
 1.2620	33.6880
 1.2630	33.6870
 1.2640	33.6860
 1.2650	33.6840
 1.2660	33.6830
 1.2670	33.6780
 1.2680	33.6740
 1.2690	33.6710
 1.2700	33.6640
 1.2710	33.6580
 1.2720	33.6500
 1.2730	33.6410
 1.2740	33.6310
 1.2750	33.6190
 1.2760	33.6070
 1.2770	33.5950
 1.2780	33.5810
 1.2790	33.5660
 1.2800	33.5520
 1.2810	33.5360
 1.2820	33.5200
 1.2830	33.5040
 1.2840	33.4870
 1.2850	33.4700
 1.2860	33.4530
 1.2870	33.4350
 1.2880	33.4180
 1.2890	33.3990
 1.2900	33.3800
 1.2910	33.3600
 1.2920	33.3390
 1.2930	33.3170
 1.2940	33.2950
 1.2950	33.2740
 1.2960	33.2520
 1.2970	33.2290
 1.2980	33.2050
 1.2990	33.1770
 1.3000	33.1480
 1.3010	33.1180
 1.3020	33.0870
 1.3030	33.0550
 1.3040	33.0220
 1.3050	32.9870
 1.3060	32.9490
 1.3070	32.9100
 1.3080	32.8680
 1.3090	32.8250
 1.3100	32.7800
 1.3110	32.7340
 1.3120	32.6850
 1.3130	32.6330
 1.3140	32.5780
 1.3150	32.5200
 1.3160	32.4590
 1.3170	32.3950
 1.3180	32.3280
 1.3190	32.2610
 1.3200	32.1900
 1.3210	32.1160
 1.3220	32.0410
 1.3230	31.9630
 1.3240	31.8820
 1.3250	31.8010
 1.3260	31.7190
 1.3270	31.6350
 1.3280	31.5470
 1.3290	31.4580
 1.3300	31.3650
 1.3310	31.2700
 1.3320	31.1750
 1.3330	31.0780
 1.3340	30.9780
 1.3350	30.8790
 1.3360	30.7800
 1.3370	30.6790
 1.3380	30.5780
 1.3390	30.4780
 1.3400	30.3760
 1.3410	30.2750
 1.3420	30.1760
 1.3430	30.0780
 1.3440	29.9810
 1.3450	29.8840
 1.3460	29.7880
 1.3470	29.6920
 1.3480	29.5960
 1.3490	29.5020
 1.3500	29.4090
 1.3510	29.3160
 1.3520	29.2250
 1.3530	29.1340
 1.3540	29.0430
 1.3550	28.9540
 1.3560	28.8640
 1.3570	28.7720
 1.3580	28.6800
 1.3590	28.5860
 1.3600	28.4890
 1.3610	28.3920
 1.3620	28.2910
 1.3630	28.1870
 1.3640	28.0790
 1.3650	27.9660
 1.3660	27.8480
 1.3670	27.7250
 1.3680	27.5940
 1.3690	27.4550
 1.3700	27.3060
 1.3710	27.1460
 1.3720	26.9750
 1.3730	26.7910
 1.3740	26.5970
 1.3750	26.3910
 1.3760	26.1690
 1.3770	25.9320
 1.3780	25.6760
 1.3790	25.4020
 1.3800	25.1110
 1.3810	24.8010
 1.3820	24.4770
 1.3830	24.1360
 1.3840	23.7800
 1.3850	23.4080
 1.3860	23.0220
 1.3870	22.6170
 1.3880	22.2080
 1.3890	21.7880
 1.3900	21.3590
 1.3910	20.9290
 1.3920	20.4940
 1.3930	20.0550
 1.3940	19.6170
 1.3950	19.1770
 1.3960	18.7430
 1.3970	18.3160
 1.3980	17.8950
 1.3990	17.4900
 1.4000	17.0950
 1.4010	16.7100
 1.4020	16.3400
 1.4030	15.9810
 1.4040	15.6370
 1.4050	15.3100
 1.4060	14.9960
 1.4070	14.7020
 1.4080	14.4230
 1.4090	14.1570
 1.4100	13.9090
 1.4110	13.6740
 1.4120	13.4530
 1.4130	13.2480
 1.4140	13.0550
 1.4150	12.8780
 1.4160	12.7130
 1.4170	12.5590
 1.4180	12.4160
 1.4190	12.2820
 1.4200	12.1570
 1.4210	12.0410
 1.4220	11.9340
 1.4230	11.8370
 1.4240	11.7460
 1.4250	11.6610
 1.4260	11.5830
 1.4270	11.5090
 1.4280	11.4420
 1.4290	11.3790
 1.4300	11.3220
 1.4310	11.2690
 1.4320	11.2220
 1.4330	11.1780
 1.4340	11.1380
 1.4350	11.1020
 1.4360	11.0690
 1.4370	11.0390
 1.4380	11.0120
 1.4390	10.9890
 1.4400	10.9690
 1.4410	10.9520
 1.4420	10.9370
 1.4430	10.9230
 1.4440	10.9110
 1.4450	10.9000
 1.4460	10.8920
 1.4470	10.8860
 1.4480	10.8810
 1.4490	10.8790
 1.4500	10.8810
 1.4510	10.8830
 1.4520	10.8870
 1.4530	10.8920
 1.4540	10.8960
 1.4550	10.9040
 1.4560	10.9130
 1.4570	10.9240
 1.4580	10.9390
 1.4590	10.9560
 1.4600	10.9750
 1.4610	10.9980
 1.4620	11.0240
 1.4630	11.0530
 1.4640	11.0840
 1.4650	11.1190
 1.4660	11.1580
 1.4670	11.2000
 1.4680	11.2460
 1.4690	11.2940
 1.4700	11.3450
 1.4710	11.4010
 1.4720	11.4590
 1.4730	11.5200
 1.4740	11.5840
 1.4750	11.6510
 1.4760	11.7200
 1.4770	11.7910
