Name: Agave attenuata
Type: vegetation
Class: Shrub
Genus: Agave
Species: attenuata
Sample No.: JPL106
Owner: JPL
Wavelength Range: VSWIR
Origin: 34.12733; - 118.1109; WGS84
Collection Date: 2/2/2016
Description: Samples were collected at the Huntington Garden in San Marino California as part of a JPL Subcontract studying HyTES imagery. Samples were taken to JPL and processed within 48 hours of collection. The same leaves were processed in the Nicolet and then measured using the ASD.
Measurement: Bidirectional reflectance
First Column: X
Second Column: Y
X Units: Wavelength (micrometer)
Y Units: Reflectance (percentage)
First X Value: 0.35
Last X Value: 2.5
Number of X Values: 2151
Additional Information: 

 0.3500	 7.2390
 0.3510	 8.2790
 0.3520	 6.9930
 0.3530	 5.2120
 0.3540	 4.9560
 0.3550	 5.7070
 0.3560	 6.1440
 0.3570	 6.3500
 0.3580	 6.9300
 0.3590	 6.5050
 0.3600	 5.9620
 0.3610	 5.7790
 0.3620	 5.4860
 0.3630	 6.0630
 0.3640	 6.7590
 0.3650	 6.7510
 0.3660	 6.4840
 0.3670	 6.1140
 0.3680	 5.9400
 0.3690	 6.2990
 0.3700	 6.8180
 0.3710	 6.6080
 0.3720	 5.7180
 0.3730	 6.1030
 0.3740	 6.3630
 0.3750	 6.3220
 0.3760	 6.2120
 0.3770	 6.2660
 0.3780	 6.1350
 0.3790	 6.0530
 0.3800	 6.6600
 0.3810	 6.6770
 0.3820	 6.7670
 0.3830	 7.2270
 0.3840	 6.7940
 0.3850	 6.6660
 0.3860	 6.3890
 0.3870	 5.3750
 0.3880	 5.9950
 0.3890	 6.5590
 0.3900	 6.4080
 0.3910	 6.2020
 0.3920	 6.4670
 0.3930	 6.6100
 0.3940	 6.2780
 0.3950	 6.3530
 0.3960	 6.3150
 0.3970	 6.1540
 0.3980	 6.1020
 0.3990	 6.1940
 0.4000	 6.4640
 0.4010	 6.6670
 0.4020	 6.2180
 0.4030	 6.0470
 0.4040	 6.1460
 0.4050	 6.2950
 0.4060	 6.5630
 0.4070	 6.3290
 0.4080	 5.9720
 0.4090	 6.3920
 0.4100	 6.6790
 0.4110	 6.6390
 0.4120	 6.3730
 0.4130	 6.2800
 0.4140	 6.3300
 0.4150	 6.3890
 0.4160	 6.3460
 0.4170	 6.4290
 0.4180	 6.4670
 0.4190	 6.4680
 0.4200	 6.6130
 0.4210	 6.6730
 0.4220	 6.6930
 0.4230	 6.7440
 0.4240	 6.8400
 0.4250	 6.8430
 0.4260	 6.8350
 0.4270	 6.9560
 0.4280	 6.9760
 0.4290	 6.9320
 0.4300	 6.9220
 0.4310	 7.0830
 0.4320	 7.1200
 0.4330	 7.0580
 0.4340	 7.0130
 0.4350	 7.0790
 0.4360	 7.1400
 0.4370	 7.1550
 0.4380	 7.1430
 0.4390	 7.1940
 0.4400	 7.2770
 0.4410	 7.3420
 0.4420	 7.3480
 0.4430	 7.3260
 0.4440	 7.3120
 0.4450	 7.3400
 0.4460	 7.4280
 0.4470	 7.4970
 0.4480	 7.5330
 0.4490	 7.6150
 0.4500	 7.6550
 0.4510	 7.6170
 0.4520	 7.5270
 0.4530	 7.5770
 0.4540	 7.6470
 0.4550	 7.6770
 0.4560	 7.6610
 0.4570	 7.7080
 0.4580	 7.7660
 0.4590	 7.7870
 0.4600	 7.7610
 0.4610	 7.7350
 0.4620	 7.7660
 0.4630	 7.8670
 0.4640	 7.8460
 0.4650	 7.8210
 0.4660	 7.8530
 0.4670	 7.9260
 0.4680	 7.9610
 0.4690	 7.9610
 0.4700	 7.9380
 0.4710	 7.8700
 0.4720	 7.9210
 0.4730	 8.0070
 0.4740	 7.9440
 0.4750	 7.9620
 0.4760	 8.0200
 0.4770	 8.0510
 0.4780	 8.0010
 0.4790	 7.9810
 0.4800	 7.9600
 0.4810	 7.8990
 0.4820	 7.9370
 0.4830	 7.9880
 0.4840	 8.0050
 0.4850	 7.9920
 0.4860	 8.0980
 0.4870	 8.1880
 0.4880	 8.1730
 0.4890	 8.1990
 0.4900	 8.1950
 0.4910	 8.2030
 0.4920	 8.3030
 0.4930	 8.4320
 0.4940	 8.5090
 0.4950	 8.5380
 0.4960	 8.6420
 0.4970	 8.7370
 0.4980	 8.8310
 0.4990	 8.9540
 0.5000	 9.1270
 0.5010	 9.2940
 0.5020	 9.4470
 0.5030	 9.6230
 0.5040	 9.8100
 0.5050	10.0290
 0.5060	10.2830
 0.5070	10.5110
 0.5080	10.7720
 0.5090	11.0720
 0.5100	11.3950
 0.5110	11.7420
 0.5120	12.0940
 0.5130	12.4620
 0.5140	12.8890
 0.5150	13.3230
 0.5160	13.7370
 0.5170	14.1390
 0.5180	14.6510
 0.5190	15.1490
 0.5200	15.6240
 0.5210	16.1580
 0.5220	16.6920
 0.5230	17.1980
 0.5240	17.6630
 0.5250	18.0890
 0.5260	18.5380
 0.5270	18.9870
 0.5280	19.3800
 0.5290	19.7440
 0.5300	20.0980
 0.5310	20.4380
 0.5320	20.7370
 0.5330	21.0010
 0.5340	21.2490
 0.5350	21.4900
 0.5360	21.6560
 0.5370	21.8260
 0.5380	22.0240
 0.5390	22.2270
 0.5400	22.3960
 0.5410	22.5500
 0.5420	22.7030
 0.5430	22.8550
 0.5440	22.9680
 0.5450	23.0450
 0.5460	23.1030
 0.5470	23.1490
 0.5480	23.1680
 0.5490	23.1770
 0.5500	23.2360
 0.5510	23.2780
 0.5520	23.2950
 0.5530	23.2900
 0.5540	23.2490
 0.5550	23.1760
 0.5560	23.0810
 0.5570	22.9780
 0.5580	22.8520
 0.5590	22.7130
 0.5600	22.5680
 0.5610	22.4240
 0.5620	22.2540
 0.5630	22.0750
 0.5640	21.9060
 0.5650	21.6960
 0.5660	21.4700
 0.5670	21.2410
 0.5680	21.0020
 0.5690	20.7500
 0.5700	20.4870
 0.5710	20.2140
 0.5720	19.9180
 0.5730	19.6450
 0.5740	19.4000
 0.5750	19.1590
 0.5760	18.9370
 0.5770	18.7490
 0.5780	18.5840
 0.5790	18.3840
 0.5800	18.2020
 0.5810	18.0380
 0.5820	17.8740
 0.5830	17.7120
 0.5840	17.5770
 0.5850	17.4580
 0.5860	17.3080
 0.5870	17.1730
 0.5880	17.0540
 0.5890	16.9480
 0.5900	16.8720
 0.5910	16.7780
 0.5920	16.6830
 0.5930	16.6340
 0.5940	16.5600
 0.5950	16.4830
 0.5960	16.4280
 0.5970	16.4120
 0.5980	16.3670
 0.5990	16.3020
 0.6000	16.2450
 0.6010	16.1650
 0.6020	16.0780
 0.6030	15.9910
 0.6040	15.9000
 0.6050	15.8030
 0.6060	15.6710
 0.6070	15.4930
 0.6080	15.3270
 0.6090	15.1680
 0.6100	15.0300
 0.6110	14.9210
 0.6120	14.7540
 0.6130	14.5490
 0.6140	14.3400
 0.6150	14.1710
 0.6160	14.0070
 0.6170	13.8480
 0.6180	13.7060
 0.6190	13.6140
 0.6200	13.5150
 0.6210	13.3970
 0.6220	13.2900
 0.6230	13.2270
 0.6240	13.1750
 0.6250	13.1140
 0.6260	13.0820
 0.6270	13.0480
 0.6280	13.0320
 0.6290	13.0560
 0.6300	13.0370
 0.6310	13.0030
 0.6320	12.9660
 0.6330	12.9160
 0.6340	12.8790
 0.6350	12.8250
 0.6360	12.7280
 0.6370	12.6060
 0.6380	12.4770
 0.6390	12.3390
 0.6400	12.1840
 0.6410	12.0210
 0.6420	11.8380
 0.6430	11.6410
 0.6440	11.4730
 0.6450	11.2760
 0.6460	11.0690
 0.6470	10.8910
 0.6480	10.7480
 0.6490	10.6220
 0.6500	10.5000
 0.6510	10.3710
 0.6520	10.2650
 0.6530	10.1690
 0.6540	10.0730
 0.6550	 9.9860
 0.6560	 9.8890
 0.6570	 9.7660
 0.6580	 9.6130
 0.6590	 9.4770
 0.6600	 9.3190
 0.6610	 9.1350
 0.6620	 8.9670
 0.6630	 8.8170
 0.6640	 8.6820
 0.6650	 8.5560
 0.6660	 8.4210
 0.6670	 8.3230
 0.6680	 8.2620
 0.6690	 8.2130
 0.6700	 8.1500
 0.6710	 8.1030
 0.6720	 8.0900
 0.6730	 8.1110
 0.6740	 8.1110
 0.6750	 8.1130
 0.6760	 8.1490
 0.6770	 8.1840
 0.6780	 8.2320
 0.6790	 8.2980
 0.6800	 8.3810
 0.6810	 8.5080
 0.6820	 8.6370
 0.6830	 8.7700
 0.6840	 9.0070
 0.6850	 9.2730
 0.6860	 9.5800
 0.6870	 9.9680
 0.6880	10.4690
 0.6890	11.0840
 0.6900	11.8170
 0.6910	12.6770
 0.6920	13.6570
 0.6930	14.7400
 0.6940	15.9260
 0.6950	17.2640
 0.6960	18.6390
 0.6970	20.0460
 0.6980	21.5130
 0.6990	22.9960
 0.7000	24.5030
 0.7010	26.0200
 0.7020	27.5110
 0.7030	28.9620
 0.7040	30.3810
 0.7050	31.7780
 0.7060	33.1620
 0.7070	34.4780
 0.7080	35.7360
 0.7090	36.9780
 0.7100	38.2130
 0.7110	39.4230
 0.7120	40.5980
 0.7130	41.7460
 0.7140	42.8790
 0.7150	43.9730
 0.7160	45.0190
 0.7170	46.0720
 0.7180	47.1110
 0.7190	48.1030
 0.7200	49.0200
 0.7210	49.9580
 0.7220	50.8570
 0.7230	51.6950
 0.7240	52.4990
 0.7250	53.2570
 0.7260	53.9720
 0.7270	54.6510
 0.7280	55.3050
 0.7290	55.9230
 0.7300	56.4910
 0.7310	56.9940
 0.7320	57.4420
 0.7330	57.8900
 0.7340	58.3450
 0.7350	58.7590
 0.7360	59.0870
 0.7370	59.3880
 0.7380	59.7030
 0.7390	59.9860
 0.7400	60.2350
 0.7410	60.4770
 0.7420	60.7310
 0.7430	60.9400
 0.7440	61.1280
 0.7450	61.2950
 0.7460	61.4170
 0.7470	61.5460
 0.7480	61.6860
 0.7490	61.8160
 0.7500	61.8780
 0.7510	61.9320
 0.7520	61.9930
 0.7530	62.0580
 0.7540	62.1040
 0.7550	62.1510
 0.7560	62.1970
 0.7570	62.2240
 0.7580	62.2670
 0.7590	62.3100
 0.7600	62.3340
 0.7610	62.3330
 0.7620	62.3450
 0.7630	62.3650
 0.7640	62.3750
 0.7650	62.3870
 0.7660	62.4080
 0.7670	62.4170
 0.7680	62.3910
 0.7690	62.3880
 0.7700	62.3920
 0.7710	62.4000
 0.7720	62.4340
 0.7730	62.4200
 0.7740	62.4110
 0.7750	62.4510
 0.7760	62.4480
 0.7770	62.4270
 0.7780	62.4140
 0.7790	62.4250
 0.7800	62.4440
 0.7810	62.4400
 0.7820	62.4300
 0.7830	62.4700
 0.7840	62.4650
 0.7850	62.4540
 0.7860	62.4670
 0.7870	62.4630
 0.7880	62.4610
 0.7890	62.4770
 0.7900	62.5130
 0.7910	62.4990
 0.7920	62.4830
 0.7930	62.4810
 0.7940	62.4840
 0.7950	62.4910
 0.7960	62.4920
 0.7970	62.4840
 0.7980	62.4720
 0.7990	62.4800
 0.8000	62.5030
 0.8010	62.5200
 0.8020	62.5020
 0.8030	62.4730
 0.8040	62.4440
 0.8050	62.4190
 0.8060	62.4180
 0.8070	62.4130
 0.8080	62.3910
 0.8090	62.3550
 0.8100	62.3700
 0.8110	62.3630
 0.8120	62.3110
 0.8130	62.2940
 0.8140	62.3010
 0.8150	62.3060
 0.8160	62.2850
 0.8170	62.2390
 0.8180	62.2090
 0.8190	62.1990
 0.8200	62.1900
 0.8210	62.1370
 0.8220	62.1090
 0.8230	62.1070
 0.8240	62.0670
 0.8250	62.0010
 0.8260	61.9490
 0.8270	61.9140
 0.8280	61.8440
 0.8290	61.7600
 0.8300	61.6700
 0.8310	61.5840
 0.8320	61.5340
 0.8330	61.5120
 0.8340	61.4980
 0.8350	61.4650
 0.8360	61.3770
 0.8370	61.3490
 0.8380	61.3770
 0.8390	61.3610
 0.8400	61.3390
 0.8410	61.3180
 0.8420	61.3000
 0.8430	61.2770
 0.8440	61.2730
 0.8450	61.2590
 0.8460	61.2300
 0.8470	61.2730
 0.8480	61.2830
 0.8490	61.2600
 0.8500	61.2370
 0.8510	61.2170
 0.8520	61.2280
 0.8530	61.2600
 0.8540	61.2810
 0.8550	61.2620
 0.8560	61.2310
 0.8570	61.2140
 0.8580	61.2210
 0.8590	61.2350
 0.8600	61.2510
 0.8610	61.2590
 0.8620	61.2430
 0.8630	61.2410
 0.8640	61.2470
 0.8650	61.2430
 0.8660	61.2150
 0.8670	61.2150
 0.8680	61.2270
 0.8690	61.2240
 0.8700	61.2410
 0.8710	61.2350
 0.8720	61.2210
 0.8730	61.2390
 0.8740	61.2180
 0.8750	61.1960
 0.8760	61.1990
 0.8770	61.2240
 0.8780	61.2340
 0.8790	61.2060
 0.8800	61.1520
 0.8810	61.1250
 0.8820	61.1390
 0.8830	61.1560
 0.8840	61.1450
 0.8850	61.1080
 0.8860	61.0590
 0.8870	61.0330
 0.8880	61.0460
 0.8890	61.0610
 0.8900	61.0320
 0.8910	60.9810
 0.8920	60.9600
 0.8930	60.9990
 0.8940	61.0080
 0.8950	60.9720
 0.8960	60.9330
 0.8970	60.8850
 0.8980	60.8850
 0.8990	60.9060
 0.9000	60.8510
 0.9010	60.8320
 0.9020	60.8170
 0.9030	60.7800
 0.9040	60.7330
 0.9050	60.7150
 0.9060	60.6990
 0.9070	60.6620
 0.9080	60.6120
 0.9090	60.5900
 0.9100	60.5720
 0.9110	60.5360
 0.9120	60.5180
 0.9130	60.4830
 0.9140	60.4110
 0.9150	60.3080
 0.9160	60.2190
 0.9170	60.1720
 0.9180	60.1280
 0.9190	60.0330
 0.9200	59.9100
 0.9210	59.8130
 0.9220	59.7420
 0.9230	59.6650
 0.9240	59.5550
 0.9250	59.3550
 0.9260	59.1370
 0.9270	59.0400
 0.9280	58.9260
 0.9290	58.7390
 0.9300	58.5190
 0.9310	58.3630
 0.9320	58.0980
 0.9330	57.8730
 0.9340	57.7390
 0.9350	57.5800
 0.9360	57.3110
 0.9370	57.0310
 0.9380	56.7870
 0.9390	56.5110
 0.9400	56.3150
 0.9410	56.1120
 0.9420	55.8250
 0.9430	55.4760
 0.9440	55.1960
 0.9450	54.9160
 0.9460	54.5680
 0.9470	54.1980
 0.9480	53.8460
 0.9490	53.4940
 0.9500	53.1080
 0.9510	52.6640
 0.9520	52.3020
 0.9530	51.9530
 0.9540	51.5450
 0.9550	51.2120
 0.9560	50.8620
 0.9570	50.4730
 0.9580	50.0940
 0.9590	49.9120
 0.9600	49.7250
 0.9610	49.4890
 0.9620	49.2460
 0.9630	49.0950
 0.9640	49.0080
 0.9650	48.9270
 0.9660	48.8130
 0.9670	48.7500
 0.9680	48.7110
 0.9690	48.6500
 0.9700	48.5430
 0.9710	48.4710
 0.9720	48.4130
 0.9730	48.3400
 0.9740	48.2460
 0.9750	48.2340
 0.9760	48.2860
 0.9770	48.3450
 0.9780	48.3530
 0.9790	48.3130
 0.9800	48.3090
 0.9810	48.3680
 0.9820	48.4600
 0.9830	48.4800
 0.9840	48.5000
 0.9850	48.5740
 0.9860	48.7070
 0.9870	48.7470
 0.9880	48.8050
 0.9890	48.9010
 0.9900	48.9990
 0.9910	49.0870
 0.9920	49.1200
 0.9930	49.1250
 0.9940	49.1580
 0.9950	49.2050
 0.9960	49.2580
 0.9970	49.4250
 0.9980	49.7370
 0.9990	49.6970
 1.0000	49.7420
 1.0010	49.8590
 1.0020	49.9550
 1.0030	50.0520
 1.0040	50.1160
 1.0050	50.2370
 1.0060	50.3820
 1.0070	50.5130
 1.0080	50.6430
 1.0090	50.7600
 1.0100	50.8990
 1.0110	51.0440
 1.0120	51.1880
 1.0130	51.3640
 1.0140	51.5160
 1.0150	51.6440
 1.0160	51.7930
 1.0170	51.9320
 1.0180	52.0560
 1.0190	52.1900
 1.0200	52.3420
 1.0210	52.5400
 1.0220	52.7120
 1.0230	52.8690
 1.0240	53.0230
 1.0250	53.1710
 1.0260	53.2800
 1.0270	53.4280
 1.0280	53.6060
 1.0290	53.7660
 1.0300	53.9460
 1.0310	54.0930
 1.0320	54.2290
 1.0330	54.3240
 1.0340	54.4280
 1.0350	54.5300
 1.0360	54.6710
 1.0370	54.8530
 1.0380	55.0030
 1.0390	55.1810
 1.0400	55.3050
 1.0410	55.3730
 1.0420	55.4810
 1.0430	55.5800
 1.0440	55.6980
 1.0450	55.8590
 1.0460	55.9840
 1.0470	56.0990
 1.0480	56.2060
 1.0490	56.2980
 1.0500	56.3820
 1.0510	56.4470
 1.0520	56.5210
 1.0530	56.6020
 1.0540	56.6850
 1.0550	56.7610
 1.0560	56.8610
 1.0570	56.9130
 1.0580	56.9220
 1.0590	56.9610
 1.0600	56.9880
 1.0610	57.0300
 1.0620	57.0930
 1.0630	57.1500
 1.0640	57.2130
 1.0650	57.2640
 1.0660	57.3310
 1.0670	57.3640
 1.0680	57.3770
 1.0690	57.3620
 1.0700	57.3630
 1.0710	57.3500
 1.0720	57.3410
 1.0730	57.3360
 1.0740	57.3340
 1.0750	57.3290
 1.0760	57.3220
 1.0770	57.3300
 1.0780	57.3200
 1.0790	57.3000
 1.0800	57.2700
 1.0810	57.2390
 1.0820	57.1930
 1.0830	57.1230
 1.0840	57.0630
 1.0850	56.9930
 1.0860	56.9340
 1.0870	56.8850
 1.0880	56.8540
 1.0890	56.7990
 1.0900	56.7570
 1.0910	56.6770
 1.0920	56.5660
 1.0930	56.4680
 1.0940	56.3490
 1.0950	56.2500
 1.0960	56.1650
 1.0970	56.0770
 1.0980	56.0080
 1.0990	55.9140
 1.1000	55.8080
 1.1010	55.7000
 1.1020	55.5700
 1.1030	55.4440
 1.1040	55.3510
 1.1050	55.2870
 1.1060	55.2080
 1.1070	55.1620
 1.1080	55.0700
 1.1090	54.9520
 1.1100	54.8340
 1.1110	54.6980
 1.1120	54.5740
 1.1130	54.4480
 1.1140	54.3270
 1.1150	54.2180
 1.1160	54.0900
 1.1170	53.9610
 1.1180	53.8170
 1.1190	53.6610
 1.1200	53.4940
 1.1210	53.3120
 1.1220	53.1160
 1.1230	52.8970
 1.1240	52.6650
 1.1250	52.3950
 1.1260	52.1090
 1.1270	51.7770
 1.1280	51.4080
 1.1290	51.0120
 1.1300	50.5760
 1.1310	50.1320
 1.1320	49.6740
 1.1330	49.1850
 1.1340	48.6810
 1.1350	48.1420
 1.1360	47.5720
 1.1370	46.9680
 1.1380	46.3580
 1.1390	45.7420
 1.1400	45.1250
 1.1410	44.5260
 1.1420	43.9180
 1.1430	43.3200
 1.1440	42.7660
 1.1450	42.2300
 1.1460	41.7170
 1.1470	41.2390
 1.1480	40.7800
 1.1490	40.3270
 1.1500	39.9240
 1.1510	39.5570
 1.1520	39.2170
 1.1530	38.9140
 1.1540	38.6330
 1.1550	38.3730
 1.1560	38.1490
 1.1570	37.9600
 1.1580	37.7850
 1.1590	37.6330
 1.1600	37.5010
 1.1610	37.3760
 1.1620	37.2680
 1.1630	37.1870
 1.1640	37.1220
 1.1650	37.0600
 1.1660	37.0210
 1.1670	36.9660
 1.1680	36.9080
 1.1690	36.8510
 1.1700	36.7870
 1.1710	36.7320
 1.1720	36.6790
 1.1730	36.6350
 1.1740	36.5970
 1.1750	36.5610
 1.1760	36.5310
 1.1770	36.4930
 1.1780	36.4480
 1.1790	36.4010
 1.1800	36.3510
 1.1810	36.3090
 1.1820	36.2780
 1.1830	36.2490
 1.1840	36.2210
 1.1850	36.1850
 1.1860	36.1470
 1.1870	36.1100
 1.1880	36.0740
 1.1890	36.0390
 1.1900	36.0080
 1.1910	35.9680
 1.1920	35.9450
 1.1930	35.9360
 1.1940	35.9220
 1.1950	35.9140
 1.1960	35.9110
 1.1970	35.8930
 1.1980	35.8790
 1.1990	35.8690
 1.2000	35.8740
 1.2010	35.8970
 1.2020	35.9230
 1.2030	35.9520
 1.2040	35.9740
 1.2050	35.9960
 1.2060	36.0100
 1.2070	36.0190
 1.2080	36.0430
 1.2090	36.0680
 1.2100	36.0990
 1.2110	36.1340
 1.2120	36.1820
 1.2130	36.2180
 1.2140	36.2500
 1.2150	36.2870
 1.2160	36.3210
 1.2170	36.3630
 1.2180	36.4180
 1.2190	36.4740
 1.2200	36.5250
 1.2210	36.5710
 1.2220	36.6090
 1.2230	36.6390
 1.2240	36.6830
 1.2250	36.7300
 1.2260	36.7660
 1.2270	36.8120
 1.2280	36.8540
 1.2290	36.8930
 1.2300	36.9420
 1.2310	37.0000
 1.2320	37.0630
 1.2330	37.1170
 1.2340	37.1650
 1.2350	37.2060
 1.2360	37.2500
 1.2370	37.2870
 1.2380	37.3330
 1.2390	37.3830
 1.2400	37.4400
 1.2410	37.4910
 1.2420	37.5360
 1.2430	37.5890
 1.2440	37.6310
 1.2450	37.6650
 1.2460	37.7180
 1.2470	37.7680
 1.2480	37.8150
 1.2490	37.8710
 1.2500	37.9090
 1.2510	37.9350
 1.2520	37.9630
 1.2530	37.9840
 1.2540	38.0100
 1.2550	38.0420
 1.2560	38.0680
 1.2570	38.1000
 1.2580	38.1260
 1.2590	38.1460
 1.2600	38.1630
 1.2610	38.1790
 1.2620	38.1870
 1.2630	38.1930
 1.2640	38.2130
 1.2650	38.2130
 1.2660	38.2090
 1.2670	38.1980
 1.2680	38.1680
 1.2690	38.1450
 1.2700	38.1350
 1.2710	38.1190
 1.2720	38.0960
 1.2730	38.0750
 1.2740	38.0350
 1.2750	37.9890
 1.2760	37.9490
 1.2770	37.9030
 1.2780	37.8480
 1.2790	37.7870
 1.2800	37.7300
 1.2810	37.6570
 1.2820	37.5700
 1.2830	37.4950
 1.2840	37.4200
 1.2850	37.3430
 1.2860	37.2690
 1.2870	37.1850
 1.2880	37.0960
 1.2890	36.9910
 1.2900	36.8800
 1.2910	36.7650
 1.2920	36.6490
 1.2930	36.5290
 1.2940	36.3970
 1.2950	36.2620
 1.2960	36.1250
 1.2970	35.9710
 1.2980	35.8170
 1.2990	35.6650
 1.3000	35.5040
 1.3010	35.3400
 1.3020	35.1740
 1.3030	35.0040
 1.3040	34.8200
 1.3050	34.6330
 1.3060	34.4450
 1.3070	34.2520
 1.3080	34.0570
 1.3090	33.8520
 1.3100	33.6360
 1.3110	33.4110
 1.3120	33.1710
 1.3130	32.9320
 1.3140	32.6970
 1.3150	32.4670
 1.3160	32.2290
 1.3170	31.9930
 1.3180	31.7540
 1.3190	31.5020
 1.3200	31.2410
 1.3210	30.9760
 1.3220	30.7060
 1.3230	30.4420
 1.3240	30.1740
 1.3250	29.9080
 1.3260	29.6490
 1.3270	29.3740
 1.3280	29.1030
 1.3290	28.8370
 1.3300	28.5700
 1.3310	28.3070
 1.3320	28.0440
 1.3330	27.7910
 1.3340	27.5430
 1.3350	27.2960
 1.3360	27.0540
 1.3370	26.8110
 1.3380	26.5690
 1.3390	26.3340
 1.3400	26.1040
 1.3410	25.8820
 1.3420	25.6640
 1.3430	25.4520
 1.3440	25.2440
 1.3450	25.0410
 1.3460	24.8420
 1.3470	24.6480
 1.3480	24.4580
 1.3490	24.2760
 1.3500	24.0980
 1.3510	23.9230
 1.3520	23.7570
 1.3530	23.5870
 1.3540	23.4160
 1.3550	23.2510
 1.3560	23.0810
 1.3570	22.9150
 1.3580	22.7540
 1.3590	22.5890
 1.3600	22.4190
 1.3610	22.2400
 1.3620	22.0530
 1.3630	21.8580
 1.3640	21.6560
 1.3650	21.4510
 1.3660	21.2410
 1.3670	21.0240
 1.3680	20.7930
 1.3690	20.5420
 1.3700	20.2780
 1.3710	19.9990
 1.3720	19.7060
 1.3730	19.4100
 1.3740	19.0950
 1.3750	18.7640
 1.3760	18.4270
 1.3770	18.0730
 1.3780	17.7020
 1.3790	17.3210
 1.3800	16.9270
 1.3810	16.5200
 1.3820	16.1120
 1.3830	15.6940
 1.3840	15.2830
 1.3850	14.8700
 1.3860	14.4590
 1.3870	14.0470
 1.3880	13.6460
 1.3890	13.2430
 1.3900	12.8540
 1.3910	12.4890
 1.3920	12.1380
 1.3930	11.8030
 1.3940	11.4810
 1.3950	11.1710
 1.3960	10.8770
 1.3970	10.6040
 1.3980	10.3540
 1.3990	10.1250
 1.4000	 9.9110
 1.4010	 9.7130
 1.4020	 9.5230
 1.4030	 9.3470
 1.4040	 9.1880
 1.4050	 9.0420
 1.4060	 8.9110
 1.4070	 8.7890
 1.4080	 8.6750
 1.4090	 8.5750
 1.4100	 8.4830
 1.4110	 8.3960
 1.4120	 8.3200
 1.4130	 8.2460
 1.4140	 8.1760
 1.4150	 8.1180
 1.4160	 8.0640
 1.4170	 8.0140
 1.4180	 7.9700
 1.4190	 7.9270
 1.4200	 7.8890
 1.4210	 7.8510
 1.4220	 7.8150
 1.4230	 7.7840
 1.4240	 7.7510
 1.4250	 7.7200
 1.4260	 7.6900
 1.4270	 7.6660
 1.4280	 7.6440
 1.4290	 7.6220
 1.4300	 7.6060
 1.4310	 7.5890
 1.4320	 7.5700
 1.4330	 7.5560
 1.4340	 7.5500
 1.4350	 7.5360
 1.4360	 7.5200
 1.4370	 7.5100
 1.4380	 7.4960
 1.4390	 7.4880
 1.4400	 7.4880
 1.4410	 7.4850
 1.4420	 7.4820
 1.4430	 7.4750
 1.4440	 7.4690
 1.4450	 7.4620
 1.4460	 7.4490
 1.4470	 7.4440
 1.4480	 7.4440
 1.4490	 7.4450
 1.4500	 7.4500
 1.4510	 7.4520
 1.4520	 7.4500
 1.4530	 7.4440
 1.4540	 7.4410
 1.4550	 7.4420
 1.4560	 7.4450
 1.4570	 7.4530
 1.4580	 7.4630
 1.4590	 7.4710
 1.4600	 7.4790
 1.4610	 7.4860
 1.4620	 7.4900
 1.4630	 7.4980
 1.4640	 7.5070
 1.4650	 7.5210
 1.4660	 7.5370
 1.4670	 7.5510
 1.4680	 7.5640
 1.4690	 7.5780
 1.4700	 7.5920
 1.4710	 7.6090
 1.4720	 7.6320
 1.4730	 7.6530
 1.4740	 7.6720
 1.4750	 7.6900
 1.4760	 7.7050
 1.4770	 7.7270
 1.4780	 7.7560
 1.4790	 7.7880
 1.4800	 7.8220
 1.4810	 7.8530
 1.4820	 7.8830
