Name: Quercus agrifolia
Type: vegetation
Class: Tree
Genus: Quercus
Species: agrifolia
Sample No.: JPL176
Owner: JPL
Wavelength Range: VSWIR
Origin: 34.12864; -118.11269; WGS84
Collection Date: 10/3/2016
Description: Samples were collected at the Huntington Garden in San Marino California as part of a JPL Subcontract studying HyTES imagery. Samples were taken to JPL and processed within 48 hours of collection. The same leaves were processed in the Nicolet and then measured using the ASD.
Measurement: Bidirectional reflectance
First Column: X
Second Column: Y
X Units: Wavelength (micrometer)
Y Units: Reflectance (percentage)
First X Value: 0.35
Last X Value: 2.5
Number of X Values: 2151
Additional Information: vegetation.tree.quercus.agrifolia.vswir.jpl176.jpl.asd.ancillary.txt

 0.3500	 6.7640
 0.3510	 6.9040
 0.3520	 6.7810
 0.3530	 6.6670
 0.3540	 6.7790
 0.3550	 6.7810
 0.3560	 6.7380
 0.3570	 6.7060
 0.3580	 6.7210
 0.3590	 6.6750
 0.3600	 6.6390
 0.3610	 6.6370
 0.3620	 6.6120
 0.3630	 6.5950
 0.3640	 6.5920
 0.3650	 6.5940
 0.3660	 6.5760
 0.3670	 6.5540
 0.3680	 6.5440
 0.3690	 6.5610
 0.3700	 6.5510
 0.3710	 6.5260
 0.3720	 6.5090
 0.3730	 6.5200
 0.3740	 6.5350
 0.3750	 6.5530
 0.3760	 6.5670
 0.3770	 6.5000
 0.3780	 6.4330
 0.3790	 6.4080
 0.3800	 6.4250
 0.3810	 6.4640
 0.3820	 6.4780
 0.3830	 6.4520
 0.3840	 6.4330
 0.3850	 6.4340
 0.3860	 6.4510
 0.3870	 6.4720
 0.3880	 6.4700
 0.3890	 6.4580
 0.3900	 6.4480
 0.3910	 6.4530
 0.3920	 6.4370
 0.3930	 6.4280
 0.3940	 6.4450
 0.3950	 6.4410
 0.3960	 6.4490
 0.3970	 6.4560
 0.3980	 6.4370
 0.3990	 6.4310
 0.4000	 6.4260
 0.4010	 6.4210
 0.4020	 6.4420
 0.4030	 6.4430
 0.4040	 6.4500
 0.4050	 6.4840
 0.4060	 6.4820
 0.4070	 6.4950
 0.4080	 6.5170
 0.4090	 6.5080
 0.4100	 6.5130
 0.4110	 6.5250
 0.4120	 6.5360
 0.4130	 6.5530
 0.4140	 6.5520
 0.4150	 6.5550
 0.4160	 6.5810
 0.4170	 6.5770
 0.4180	 6.5800
 0.4190	 6.5980
 0.4200	 6.6140
 0.4210	 6.6130
 0.4220	 6.6120
 0.4230	 6.6230
 0.4240	 6.6420
 0.4250	 6.6450
 0.4260	 6.6380
 0.4270	 6.6400
 0.4280	 6.6490
 0.4290	 6.6560
 0.4300	 6.6550
 0.4310	 6.6490
 0.4320	 6.6380
 0.4330	 6.6290
 0.4340	 6.6250
 0.4350	 6.6160
 0.4360	 6.6170
 0.4370	 6.6310
 0.4380	 6.6440
 0.4390	 6.6520
 0.4400	 6.6630
 0.4410	 6.6780
 0.4420	 6.6910
 0.4430	 6.6980
 0.4440	 6.7030
 0.4450	 6.7130
 0.4460	 6.7130
 0.4470	 6.7190
 0.4480	 6.7300
 0.4490	 6.7320
 0.4500	 6.7400
 0.4510	 6.7490
 0.4520	 6.7530
 0.4530	 6.7540
 0.4540	 6.7620
 0.4550	 6.7730
 0.4560	 6.7740
 0.4570	 6.7760
 0.4580	 6.7790
 0.4590	 6.7790
 0.4600	 6.7820
 0.4610	 6.7880
 0.4620	 6.7890
 0.4630	 6.7820
 0.4640	 6.7860
 0.4650	 6.7920
 0.4660	 6.7970
 0.4670	 6.7990
 0.4680	 6.7980
 0.4690	 6.7930
 0.4700	 6.7880
 0.4710	 6.7940
 0.4720	 6.7980
 0.4730	 6.7970
 0.4740	 6.7900
 0.4750	 6.7880
 0.4760	 6.7950
 0.4770	 6.8050
 0.4780	 6.8000
 0.4790	 6.8010
 0.4800	 6.8050
 0.4810	 6.8060
 0.4820	 6.7980
 0.4830	 6.7920
 0.4840	 6.7920
 0.4850	 6.7920
 0.4860	 6.7930
 0.4870	 6.7960
 0.4880	 6.8030
 0.4890	 6.8100
 0.4900	 6.8160
 0.4910	 6.8270
 0.4920	 6.8430
 0.4930	 6.8570
 0.4940	 6.8730
 0.4950	 6.8930
 0.4960	 6.9140
 0.4970	 6.9380
 0.4980	 6.9620
 0.4990	 6.9870
 0.5000	 7.0150
 0.5010	 7.0470
 0.5020	 7.0830
 0.5030	 7.1200
 0.5040	 7.1680
 0.5050	 7.2190
 0.5060	 7.2700
 0.5070	 7.3330
 0.5080	 7.4030
 0.5090	 7.4780
 0.5100	 7.5590
 0.5110	 7.6540
 0.5120	 7.7590
 0.5130	 7.8720
 0.5140	 7.9950
 0.5150	 8.1240
 0.5160	 8.2650
 0.5170	 8.4190
 0.5180	 8.5830
 0.5190	 8.7560
 0.5200	 8.9330
 0.5210	 9.1140
 0.5220	 9.3000
 0.5230	 9.4880
 0.5240	 9.6720
 0.5250	 9.8500
 0.5260	10.0240
 0.5270	10.1920
 0.5280	10.3480
 0.5290	10.4970
 0.5300	10.6370
 0.5310	10.7660
 0.5320	10.8810
 0.5330	10.9830
 0.5340	11.0770
 0.5350	11.1610
 0.5360	11.2370
 0.5370	11.3010
 0.5380	11.3540
 0.5390	11.3980
 0.5400	11.4310
 0.5410	11.4560
 0.5420	11.4780
 0.5430	11.5040
 0.5440	11.5360
 0.5450	11.5740
 0.5460	11.6180
 0.5470	11.6660
 0.5480	11.7110
 0.5490	11.7480
 0.5500	11.7760
 0.5510	11.7970
 0.5520	11.8090
 0.5530	11.8090
 0.5540	11.7970
 0.5550	11.7720
 0.5560	11.7340
 0.5570	11.6830
 0.5580	11.6210
 0.5590	11.5460
 0.5600	11.4590
 0.5610	11.3670
 0.5620	11.2730
 0.5630	11.1730
 0.5640	11.0660
 0.5650	10.9590
 0.5660	10.8440
 0.5670	10.7200
 0.5680	10.5940
 0.5690	10.4640
 0.5700	10.3350
 0.5710	10.2090
 0.5720	10.0870
 0.5730	 9.9700
 0.5740	 9.8610
 0.5750	 9.7650
 0.5760	 9.6820
 0.5770	 9.6060
 0.5780	 9.5310
 0.5790	 9.4500
 0.5800	 9.3800
 0.5810	 9.3200
 0.5820	 9.2620
 0.5830	 9.2030
 0.5840	 9.1480
 0.5850	 9.0960
 0.5860	 9.0430
 0.5870	 8.9900
 0.5880	 8.9400
 0.5890	 8.8960
 0.5900	 8.8540
 0.5910	 8.8200
 0.5920	 8.7940
 0.5930	 8.7740
 0.5940	 8.7610
 0.5950	 8.7510
 0.5960	 8.7390
 0.5970	 8.7270
 0.5980	 8.7140
 0.5990	 8.7000
 0.6000	 8.6820
 0.6010	 8.6620
 0.6020	 8.6410
 0.6030	 8.6180
 0.6040	 8.5870
 0.6050	 8.5500
 0.6060	 8.5080
 0.6070	 8.4610
 0.6080	 8.4060
 0.6090	 8.3430
 0.6100	 8.2680
 0.6110	 8.1870
 0.6120	 8.1350
 0.6130	 8.0990
 0.6140	 8.0670
 0.6150	 8.0280
 0.6160	 7.9910
 0.6170	 7.9550
 0.6180	 7.9160
 0.6190	 7.8850
 0.6200	 7.8550
 0.6210	 7.8270
 0.6220	 7.8060
 0.6230	 7.7870
 0.6240	 7.7690
 0.6250	 7.7540
 0.6260	 7.7470
 0.6270	 7.7410
 0.6280	 7.7340
 0.6290	 7.7280
 0.6300	 7.7220
 0.6310	 7.7170
 0.6320	 7.7120
 0.6330	 7.7060
 0.6340	 7.6980
 0.6350	 7.6840
 0.6360	 7.6640
 0.6370	 7.6380
 0.6380	 7.6070
 0.6390	 7.5710
 0.6400	 7.5340
 0.6410	 7.4970
 0.6420	 7.4590
 0.6430	 7.4190
 0.6440	 7.3790
 0.6450	 7.3400
 0.6460	 7.3020
 0.6470	 7.2680
 0.6480	 7.2390
 0.6490	 7.2110
 0.6500	 7.1840
 0.6510	 7.1650
 0.6520	 7.1510
 0.6530	 7.1380
 0.6540	 7.1210
 0.6550	 7.1030
 0.6560	 7.0850
 0.6570	 7.0660
 0.6580	 7.0450
 0.6590	 7.0240
 0.6600	 7.0020
 0.6610	 6.9800
 0.6620	 6.9580
 0.6630	 6.9400
 0.6640	 6.9240
 0.6650	 6.9120
 0.6660	 6.9020
 0.6670	 6.8950
 0.6680	 6.8910
 0.6690	 6.8920
 0.6700	 6.8970
 0.6710	 6.9050
 0.6720	 6.9140
 0.6730	 6.9280
 0.6740	 6.9430
 0.6750	 6.9600
 0.6760	 6.9790
 0.6770	 7.0030
 0.6780	 7.0290
 0.6790	 7.0580
 0.6800	 7.0890
 0.6810	 7.1240
 0.6820	 7.1620
 0.6830	 7.2030
 0.6840	 7.2490
 0.6850	 7.3010
 0.6860	 7.3580
 0.6870	 7.4210
 0.6880	 7.4960
 0.6890	 7.5900
 0.6900	 7.7130
 0.6910	 7.8710
 0.6920	 8.0680
 0.6930	 8.3100
 0.6940	 8.6060
 0.6950	 8.9590
 0.6960	 9.3720
 0.6970	 9.8440
 0.6980	10.3710
 0.6990	10.9530
 0.7000	11.5830
 0.7010	12.2540
 0.7020	12.9580
 0.7030	13.6880
 0.7040	14.4380
 0.7050	15.2030
 0.7060	15.9760
 0.7070	16.7540
 0.7080	17.5370
 0.7090	18.3270
 0.7100	19.1220
 0.7110	19.9190
 0.7120	20.7170
 0.7130	21.5140
 0.7140	22.3140
 0.7150	23.1130
 0.7160	23.9080
 0.7170	24.7020
 0.7180	25.4890
 0.7190	26.2670
 0.7200	27.0350
 0.7210	27.7940
 0.7220	28.5410
 0.7230	29.2720
 0.7240	29.9840
 0.7250	30.6780
 0.7260	31.3520
 0.7270	32.0030
 0.7280	32.6280
 0.7290	33.2310
 0.7300	33.8100
 0.7310	34.3580
 0.7320	34.8830
 0.7330	35.3850
 0.7340	35.8610
 0.7350	36.3070
 0.7360	36.7310
 0.7370	37.1320
 0.7380	37.5080
 0.7390	37.8630
 0.7400	38.1940
 0.7410	38.5020
 0.7420	38.7870
 0.7430	39.0540
 0.7440	39.3000
 0.7450	39.5250
 0.7460	39.7320
 0.7470	39.9240
 0.7480	40.0990
 0.7490	40.2580
 0.7500	40.4040
 0.7510	40.5380
 0.7520	40.6600
 0.7530	40.7690
 0.7540	40.8660
 0.7550	40.9550
 0.7560	41.0370
 0.7570	41.1100
 0.7580	41.1730
 0.7590	41.2320
 0.7600	41.2880
 0.7610	41.3360
 0.7620	41.3800
 0.7630	41.4190
 0.7640	41.4510
 0.7650	41.4790
 0.7660	41.5050
 0.7670	41.5300
 0.7680	41.5520
 0.7690	41.5700
 0.7700	41.5880
 0.7710	41.6050
 0.7720	41.6190
 0.7730	41.6330
 0.7740	41.6450
 0.7750	41.6540
 0.7760	41.6640
 0.7770	41.6720
 0.7780	41.6800
 0.7790	41.6890
 0.7800	41.6970
 0.7810	41.7060
 0.7820	41.7140
 0.7830	41.7200
 0.7840	41.7250
 0.7850	41.7310
 0.7860	41.7370
 0.7870	41.7400
 0.7880	41.7440
 0.7890	41.7500
 0.7900	41.7560
 0.7910	41.7600
 0.7920	41.7630
 0.7930	41.7650
 0.7940	41.7680
 0.7950	41.7710
 0.7960	41.7730
 0.7970	41.7710
 0.7980	41.7720
 0.7990	41.7720
 0.8000	41.7720
 0.8010	41.7740
 0.8020	41.7740
 0.8030	41.7750
 0.8040	41.7760
 0.8050	41.7770
 0.8060	41.7750
 0.8070	41.7730
 0.8080	41.7710
 0.8090	41.7660
 0.8100	41.7640
 0.8110	41.7620
 0.8120	41.7580
 0.8130	41.7560
 0.8140	41.7530
 0.8150	41.7480
 0.8160	41.7450
 0.8170	41.7420
 0.8180	41.7420
 0.8190	41.7430
 0.8200	41.7410
 0.8210	41.7350
 0.8220	41.7310
 0.8230	41.7280
 0.8240	41.7220
 0.8250	41.7190
 0.8260	41.7170
 0.8270	41.7140
 0.8280	41.7110
 0.8290	41.7050
 0.8300	41.7010
 0.8310	41.7000
 0.8320	41.6980
 0.8330	41.6950
 0.8340	41.6930
 0.8350	41.6910
 0.8360	41.6910
 0.8370	41.6910
 0.8380	41.6910
 0.8390	41.6950
 0.8400	41.6950
 0.8410	41.6930
 0.8420	41.6930
 0.8430	41.6960
 0.8440	41.6960
 0.8450	41.6960
 0.8460	41.7000
 0.8470	41.7020
 0.8480	41.7040
 0.8490	41.7040
 0.8500	41.7070
 0.8510	41.7120
 0.8520	41.7160
 0.8530	41.7200
 0.8540	41.7240
 0.8550	41.7260
 0.8560	41.7280
 0.8570	41.7320
 0.8580	41.7380
 0.8590	41.7420
 0.8600	41.7460
 0.8610	41.7510
 0.8620	41.7570
 0.8630	41.7620
 0.8640	41.7660
 0.8650	41.7700
 0.8660	41.7730
 0.8670	41.7790
 0.8680	41.7880
 0.8690	41.7970
 0.8700	41.8000
 0.8710	41.8030
 0.8720	41.8090
 0.8730	41.8200
 0.8740	41.8260
 0.8750	41.8300
 0.8760	41.8340
 0.8770	41.8430
 0.8780	41.8500
 0.8790	41.8540
 0.8800	41.8570
 0.8810	41.8650
 0.8820	41.8680
 0.8830	41.8730
 0.8840	41.8830
 0.8850	41.8880
 0.8860	41.8940
 0.8870	41.8980
 0.8880	41.8980
 0.8890	41.9040
 0.8900	41.9110
 0.8910	41.9140
 0.8920	41.9140
 0.8930	41.9180
 0.8940	41.9260
 0.8950	41.9330
 0.8960	41.9360
 0.8970	41.9410
 0.8980	41.9460
 0.8990	41.9510
 0.9000	41.9520
 0.9010	41.9590
 0.9020	41.9640
 0.9030	41.9650
 0.9040	41.9680
 0.9050	41.9690
 0.9060	41.9740
 0.9070	41.9840
 0.9080	41.9850
 0.9090	41.9860
 0.9100	41.9890
 0.9110	41.9930
 0.9120	41.9920
 0.9130	41.9970
 0.9140	42.0020
 0.9150	41.9990
 0.9160	41.9980
 0.9170	41.9980
 0.9180	41.9990
 0.9190	41.9990
 0.9200	41.9990
 0.9210	41.9970
 0.9220	41.9950
 0.9230	41.9920
 0.9240	41.9880
 0.9250	41.9830
 0.9260	41.9790
 0.9270	41.9730
 0.9280	41.9660
 0.9290	41.9600
 0.9300	41.9500
 0.9310	41.9350
 0.9320	41.9290
 0.9330	41.9220
 0.9340	41.9110
 0.9350	41.9050
 0.9360	41.8980
 0.9370	41.8840
 0.9380	41.8660
 0.9390	41.8640
 0.9400	41.8510
 0.9410	41.8320
 0.9420	41.8170
 0.9430	41.8040
 0.9440	41.7910
 0.9450	41.7740
 0.9460	41.7530
 0.9470	41.7250
 0.9480	41.7010
 0.9490	41.6770
 0.9500	41.6490
 0.9510	41.6130
 0.9520	41.5770
 0.9530	41.5430
 0.9540	41.5110
 0.9550	41.4810
 0.9560	41.4500
 0.9570	41.4150
 0.9580	41.3750
 0.9590	41.3390
 0.9600	41.3130
 0.9610	41.2950
 0.9620	41.2790
 0.9630	41.2530
 0.9640	41.2320
 0.9650	41.2180
 0.9660	41.2050
 0.9670	41.1820
 0.9680	41.1650
 0.9690	41.1600
 0.9700	41.1630
 0.9710	41.1470
 0.9720	41.1370
 0.9730	41.1320
 0.9740	41.1200
 0.9750	41.1200
 0.9760	41.1180
 0.9770	41.1140
 0.9780	41.1090
 0.9790	41.0980
 0.9800	41.0950
 0.9810	41.1040
 0.9820	41.1190
 0.9830	41.1220
 0.9840	41.1210
 0.9850	41.1220
 0.9860	41.1290
 0.9870	41.1390
 0.9880	41.1470
 0.9890	41.1510
 0.9900	41.1570
 0.9910	41.1670
 0.9920	41.1760
 0.9930	41.1860
 0.9940	41.2000
 0.9950	41.2060
 0.9960	41.2150
 0.9970	41.2220
 0.9980	41.2180
 0.9990	41.2330
 1.0000	41.2560
 1.0010	43.1620
 1.0020	43.1750
 1.0030	43.1860
 1.0040	43.1950
 1.0050	43.2080
 1.0060	43.2220
 1.0070	43.2320
 1.0080	43.2430
 1.0090	43.2540
 1.0100	43.2650
 1.0110	43.2760
 1.0120	43.2890
 1.0130	43.3050
 1.0140	43.3200
 1.0150	43.3360
 1.0160	43.3500
 1.0170	43.3630
 1.0180	43.3760
 1.0190	43.3870
 1.0200	43.3980
 1.0210	43.4100
 1.0220	43.4210
 1.0230	43.4330
 1.0240	43.4460
 1.0250	43.4580
 1.0260	43.4710
 1.0270	43.4840
 1.0280	43.4960
 1.0290	43.5070
 1.0300	43.5170
 1.0310	43.5260
 1.0320	43.5350
 1.0330	43.5470
 1.0340	43.5560
 1.0350	43.5640
 1.0360	43.5740
 1.0370	43.5820
 1.0380	43.5910
 1.0390	43.6040
 1.0400	43.6110
 1.0410	43.6140
 1.0420	43.6200
 1.0430	43.6270
 1.0440	43.6330
 1.0450	43.6410
 1.0460	43.6490
 1.0470	43.6570
 1.0480	43.6630
 1.0490	43.6700
 1.0500	43.6760
 1.0510	43.6810
 1.0520	43.6830
 1.0530	43.6870
 1.0540	43.6920
 1.0550	43.6960
 1.0560	43.6980
 1.0570	43.7020
 1.0580	43.7080
 1.0590	43.7100
 1.0600	43.7090
 1.0610	43.7090
 1.0620	43.7060
 1.0630	43.7050
 1.0640	43.7060
 1.0650	43.7060
 1.0660	43.7080
 1.0670	43.7070
 1.0680	43.7050
 1.0690	43.7010
 1.0700	43.7010
 1.0710	43.7010
 1.0720	43.7000
 1.0730	43.7030
 1.0740	43.7000
 1.0750	43.6910
 1.0760	43.6850
 1.0770	43.6780
 1.0780	43.6740
 1.0790	43.6750
 1.0800	43.6720
 1.0810	43.6680
 1.0820	43.6640
 1.0830	43.6560
 1.0840	43.6510
 1.0850	43.6470
 1.0860	43.6430
 1.0870	43.6380
 1.0880	43.6340
 1.0890	43.6300
 1.0900	43.6270
 1.0910	43.6220
 1.0920	43.6160
 1.0930	43.6090
 1.0940	43.5990
 1.0950	43.5930
 1.0960	43.5920
 1.0970	43.5860
 1.0980	43.5810
 1.0990	43.5740
 1.1000	43.5590
 1.1010	43.5500
 1.1020	43.5420
 1.1030	43.5340
 1.1040	43.5270
 1.1050	43.5200
 1.1060	43.5110
 1.1070	43.5000
 1.1080	43.4910
 1.1090	43.4840
 1.1100	43.4750
 1.1110	43.4660
 1.1120	43.4570
 1.1130	43.4490
 1.1140	43.4380
 1.1150	43.4240
 1.1160	43.4110
 1.1170	43.3940
 1.1180	43.3770
 1.1190	43.3590
 1.1200	43.3420
 1.1210	43.3220
 1.1220	43.3010
 1.1230	43.2780
 1.1240	43.2530
 1.1250	43.2260
 1.1260	43.1980
 1.1270	43.1660
 1.1280	43.1320
 1.1290	43.0930
 1.1300	43.0500
 1.1310	43.0030
 1.1320	42.9520
 1.1330	42.8970
 1.1340	42.8380
 1.1350	42.7730
 1.1360	42.7040
 1.1370	42.6330
 1.1380	42.5560
 1.1390	42.4750
 1.1400	42.3910
 1.1410	42.3040
 1.1420	42.2140
 1.1430	42.1230
 1.1440	42.0320
 1.1450	41.9400
 1.1460	41.8500
 1.1470	41.7590
 1.1480	41.6700
 1.1490	41.5790
 1.1500	41.4950
 1.1510	41.4150
 1.1520	41.3390
 1.1530	41.2690
 1.1540	41.2020
 1.1550	41.1390
 1.1560	41.0810
 1.1570	41.0270
 1.1580	40.9780
 1.1590	40.9350
 1.1600	40.8960
 1.1610	40.8600
 1.1620	40.8270
 1.1630	40.7980
 1.1640	40.7710
 1.1650	40.7470
 1.1660	40.7270
 1.1670	40.7080
 1.1680	40.6910
 1.1690	40.6760
 1.1700	40.6630
 1.1710	40.6490
 1.1720	40.6370
 1.1730	40.6240
 1.1740	40.6090
 1.1750	40.5950
 1.1760	40.5830
 1.1770	40.5690
 1.1780	40.5530
 1.1790	40.5400
 1.1800	40.5240
 1.1810	40.5060
 1.1820	40.4900
 1.1830	40.4730
 1.1840	40.4560
 1.1850	40.4420
 1.1860	40.4280
 1.1870	40.4120
 1.1880	40.3980
 1.1890	40.3850
 1.1900	40.3710
 1.1910	40.3580
 1.1920	40.3460
 1.1930	40.3340
 1.1940	40.3250
 1.1950	40.3180
 1.1960	40.3110
 1.1970	40.3040
 1.1980	40.2980
 1.1990	40.2900
 1.2000	40.2850
 1.2010	40.2800
 1.2020	40.2770
 1.2030	40.2760
 1.2040	40.2760
 1.2050	40.2770
 1.2060	40.2780
 1.2070	40.2790
 1.2080	40.2830
 1.2090	40.2870
 1.2100	40.2940
 1.2110	40.3030
 1.2120	40.3160
 1.2130	40.3290
 1.2140	40.3420
 1.2150	40.3590
 1.2160	40.3770
 1.2170	40.3960
 1.2180	40.4180
 1.2190	40.4430
 1.2200	40.4680
 1.2210	40.4950
 1.2220	40.5240
 1.2230	40.5530
 1.2240	40.5820
 1.2250	40.6090
 1.2260	40.6360
 1.2270	40.6630
 1.2280	40.6890
 1.2290	40.7150
 1.2300	40.7390
 1.2310	40.7620
 1.2320	40.7840
 1.2330	40.8060
 1.2340	40.8270
 1.2350	40.8470
 1.2360	40.8660
 1.2370	40.8830
 1.2380	40.9000
 1.2390	40.9180
 1.2400	40.9370
 1.2410	40.9550
 1.2420	40.9700
 1.2430	40.9830
 1.2440	40.9970
 1.2450	41.0080
 1.2460	41.0210
 1.2470	41.0340
 1.2480	41.0450
 1.2490	41.0560
 1.2500	41.0650
 1.2510	41.0760
 1.2520	41.0850
 1.2530	41.0910
 1.2540	41.0990
 1.2550	41.1040
 1.2560	41.1080
 1.2570	41.1150
 1.2580	41.1210
 1.2590	41.1260
 1.2600	41.1310
 1.2610	41.1350
 1.2620	41.1370
 1.2630	41.1380
 1.2640	41.1390
 1.2650	41.1390
 1.2660	41.1370
 1.2670	41.1360
 1.2680	41.1360
 1.2690	41.1350
 1.2700	41.1330
 1.2710	41.1300
 1.2720	41.1250
 1.2730	41.1210
 1.2740	41.1190
 1.2750	41.1150
 1.2760	41.1090
 1.2770	41.1010
 1.2780	41.0920
 1.2790	41.0810
 1.2800	41.0700
 1.2810	41.0570
 1.2820	41.0420
 1.2830	41.0280
 1.2840	41.0120
 1.2850	40.9940
 1.2860	40.9760
 1.2870	40.9570
 1.2880	40.9360
 1.2890	40.9120
 1.2900	40.8880
 1.2910	40.8620
 1.2920	40.8320
 1.2930	40.8030
 1.2940	40.7720
 1.2950	40.7390
 1.2960	40.7040
 1.2970	40.6670
 1.2980	40.6270
 1.2990	40.5870
 1.3000	40.5460
 1.3010	40.5050
 1.3020	40.4610
 1.3030	40.4160
 1.3040	40.3680
 1.3050	40.3190
 1.3060	40.2690
 1.3070	40.2170
 1.3080	40.1640
 1.3090	40.1110
 1.3100	40.0570
 1.3110	40.0000
 1.3120	39.9420
 1.3130	39.8800
 1.3140	39.8160
 1.3150	39.7500
 1.3160	39.6830
 1.3170	39.6140
 1.3180	39.5460
 1.3190	39.4750
 1.3200	39.4010
 1.3210	39.3270
 1.3220	39.2520
 1.3230	39.1740
 1.3240	39.0960
 1.3250	39.0140
 1.3260	38.9290
 1.3270	38.8410
 1.3280	38.7530
 1.3290	38.6640
 1.3300	38.5720
 1.3310	38.4820
 1.3320	38.3890
 1.3330	38.2920
 1.3340	38.1960
 1.3350	38.0960
 1.3360	37.9960
 1.3370	37.8980
 1.3380	37.7990
 1.3390	37.6990
 1.3400	37.5970
 1.3410	37.4950
 1.3420	37.3960
 1.3430	37.2990
 1.3440	37.2040
 1.3450	37.1070
 1.3460	37.0100
 1.3470	36.9140
 1.3480	36.8170
 1.3490	36.7240
 1.3500	36.6350
 1.3510	36.5470
 1.3520	36.4570
 1.3530	36.3680
 1.3540	36.2790
 1.3550	36.1880
 1.3560	36.0980
 1.3570	36.0070
 1.3580	35.9140
 1.3590	35.8190
 1.3600	35.7220
 1.3610	35.6230
 1.3620	35.5190
 1.3630	35.4120
 1.3640	35.3020
 1.3650	35.1850
 1.3660	35.0640
 1.3670	34.9370
 1.3680	34.8010
 1.3690	34.6590
 1.3700	34.5060
 1.3710	34.3420
 1.3720	34.1680
 1.3730	33.9790
 1.3740	33.7780
 1.3750	33.5630
 1.3760	33.3300
 1.3770	33.0810
 1.3780	32.8110
 1.3790	32.5220
 1.3800	32.2130
 1.3810	31.8830
 1.3820	31.5350
 1.3830	31.1700
 1.3840	30.7860
 1.3850	30.3820
 1.3860	29.9630
 1.3870	29.5240
 1.3880	29.0770
 1.3890	28.6180
 1.3900	28.1460
 1.3910	27.6710
 1.3920	27.1880
 1.3930	26.7000
 1.3940	26.2110
 1.3950	25.7160
 1.3960	25.2270
 1.3970	24.7420
 1.3980	24.2640
 1.3990	23.8010
 1.4000	23.3480
 1.4010	22.9050
 1.4020	22.4790
 1.4030	22.0650
 1.4040	21.6670
 1.4050	21.2870
 1.4060	20.9230
 1.4070	20.5810
 1.4080	20.2560
 1.4090	19.9470
 1.4100	19.6580
 1.4110	19.3840
 1.4120	19.1280
 1.4130	18.8900
 1.4140	18.6680
 1.4150	18.4650
 1.4160	18.2770
 1.4170	18.1000
 1.4180	17.9390
 1.4190	17.7880
 1.4200	17.6470
 1.4210	17.5190
 1.4220	17.4010
 1.4230	17.2930
 1.4240	17.1950
 1.4250	17.1050
 1.4260	17.0230
 1.4270	16.9480
 1.4280	16.8800
 1.4290	16.8180
 1.4300	16.7640
 1.4310	16.7140
 1.4320	16.6700
 1.4330	16.6310
 1.4340	16.5970
 1.4350	16.5670
 1.4360	16.5420
 1.4370	16.5220
 1.4380	16.5040
 1.4390	16.4910
 1.4400	16.4810
 1.4410	16.4750
 1.4420	16.4700
 1.4430	16.4690
 1.4440	16.4700
 1.4450	16.4720
 1.4460	16.4760
 1.4470	16.4830
 1.4480	16.4910
 1.4490	16.5010
 1.4500	16.5120
 1.4510	16.5240
 1.4520	16.5380
 1.4530	16.5540
 1.4540	16.5690
 1.4550	16.5870
 1.4560	16.6080
 1.4570	16.6310
 1.4580	16.6570
 1.4590	16.6860
 1.4600	16.7170
 1.4610	16.7500
 1.4620	16.7880
 1.4630	16.8300
 1.4640	16.8750
 1.4650	16.9260
 1.4660	16.9810
 1.4670	17.0390
 1.4680	17.1030
 1.4690	17.1700
 1.4700	17.2410
 1.4710	17.3160
 1.4720	17.3940
 1.4730	17.4730
 1.4740	17.5580
 1.4750	17.6450
 1.4760	17.7350
 1.4770	17.8290
