Name: Calocedrus decrruens 3
Type: vegetation
Class: Tree
Genus: Calocedrus
Species: decurrens
Sample No.: VH252
Owner: UCSB
Wavelength Range: TIR
Origin: 37.0443; -119.3026; WGS84
Collection Date: 11/2/2013
Description: Samples were collected as part of the HyspIRI Airborne Campaign. 48 individual plants were sampled in three times in 2013 - spring  summer  and fall. The name of the sample includes a 1  2  or 3 which references a different individual of the species. Samples were taken to JPL and processed within 48 hours of collection. The same leaves were processed in the Nicolet and then measured using the ASD.
Measurement: Hemispherical reflectance
First Column: X
Second Column: Y
X Units: Wavelength (micrometers)
Y Units: Reflectance (percentage)
First X Value: 2.501
Last X Value: 15.387
Number of X Values: 1737
Additional Information: vegetation.tree.calocedrus.decurrens.tir.vh252.ucsb.nicolet.ancillary.txt

 2.5010	12.5460
 2.5030	12.5790
 2.5040	12.6970
 2.5050	12.6010
 2.5060	12.6710
 2.5070	12.6950
 2.5090	12.7030
 2.5100	12.5880
 2.5110	12.5030
 2.5120	12.5290
 2.5140	12.6220
 2.5150	12.5970
 2.5160	12.7090
 2.5170	12.6830
 2.5180	12.5670
 2.5200	12.4150
 2.5210	12.4580
 2.5220	12.4740
 2.5230	12.5250
 2.5250	12.5210
 2.5260	12.4720
 2.5270	12.3700
 2.5280	12.3990
 2.5290	12.4690
 2.5310	12.3930
 2.5320	12.2920
 2.5330	12.4470
 2.5340	12.4550
 2.5360	12.4960
 2.5370	12.5350
 2.5380	12.5900
 2.5390	12.6090
 2.5410	12.6330
 2.5420	12.5790
 2.5430	12.7140
 2.5440	12.7750
 2.5460	12.8060
 2.5470	12.7090
 2.5480	12.7330
 2.5490	12.6700
 2.5510	12.6900
 2.5520	12.5830
 2.5530	12.6780
 2.5540	12.7040
 2.5560	12.6860
 2.5570	12.7380
 2.5580	12.8150
 2.5590	12.7360
 2.5610	12.7650
 2.5620	12.7970
 2.5630	12.7960
 2.5640	12.6840
 2.5660	12.7100
 2.5670	12.6820
 2.5680	12.6570
 2.5700	12.6910
 2.5710	12.7770
 2.5720	12.7800
 2.5730	12.8480
 2.5750	12.8140
 2.5760	12.8940
 2.5770	12.8240
 2.5790	12.7780
 2.5800	12.7030
 2.5810	12.9330
 2.5820	12.9460
 2.5840	12.8390
 2.5850	12.7470
 2.5860	12.8190
 2.5880	12.7490
 2.5890	12.6870
 2.5900	12.6000
 2.5910	12.6670
 2.5930	12.6420
 2.5940	12.6550
 2.5950	12.6260
 2.5970	12.6040
 2.5980	12.5530
 2.5990	12.5980
 2.6000	12.6590
 2.6020	12.6610
 2.6030	12.5370
 2.6040	12.5180
 2.6060	12.5490
 2.6070	12.6000
 2.6080	12.4990
 2.6100	12.5470
 2.6110	12.5950
 2.6120	12.5670
 2.6140	12.5290
 2.6150	12.4260
 2.6160	12.2980
 2.6180	12.2470
 2.6190	12.0760
 2.6200	12.1620
 2.6220	12.1910
 2.6230	12.1650
 2.6240	12.2800
 2.6260	12.2180
 2.6270	12.0090
 2.6280	12.1170
 2.6300	12.1680
 2.6310	12.2000
 2.6320	12.1930
 2.6340	12.1460
 2.6350	11.9830
 2.6360	11.8870
 2.6380	11.8350
 2.6390	11.8360
 2.6400	11.6490
 2.6420	11.6330
 2.6430	11.7700
 2.6440	11.8200
 2.6460	11.6120
 2.6470	11.5140
 2.6480	11.4900
 2.6500	11.5890
 2.6510	11.5800
 2.6520	11.5650
 2.6540	11.4100
 2.6550	11.4200
 2.6560	11.3640
 2.6580	11.4140
 2.6590	11.4590
 2.6610	11.4980
 2.6620	11.4310
 2.6630	11.3860
 2.6650	11.3550
 2.6660	11.4460
 2.6670	11.3490
 2.6690	11.3530
 2.6700	11.3510
 2.6720	11.1730
 2.6730	11.1070
 2.6740	11.1700
 2.6760	11.2850
 2.6770	11.4200
 2.6780	11.2260
 2.6800	11.1280
 2.6810	11.0000
 2.6830	10.9400
 2.6840	10.8540
 2.6850	10.8040
 2.6870	10.7270
 2.6880	10.7790
 2.6900	10.7690
 2.6910	10.9270
 2.6920	10.9460
 2.6940	10.7490
 2.6950	10.6110
 2.6970	10.6210
 2.6980	10.5460
 2.6990	10.5710
 2.7010	10.5380
 2.7020	10.6550
 2.7040	10.5660
 2.7050	10.5200
 2.7060	10.4450
 2.7080	10.5690
 2.7090	10.5180
 2.7110	10.6500
 2.7120	10.6750
 2.7130	10.5820
 2.7150	10.4850
 2.7160	10.3540
 2.7180	10.1470
 2.7190	10.3090
 2.7210	10.5350
 2.7220	10.5570
 2.7230	10.3100
 2.7250	10.3220
 2.7260	10.3780
 2.7280	10.4950
 2.7290	10.4730
 2.7310	10.4100
 2.7320	10.2270
 2.7330	10.2260
 2.7350	10.2890
 2.7360	10.2620
 2.7380	10.3120
 2.7390	10.3970
 2.7410	10.2210
 2.7420	10.0590
 2.7440	10.0130
 2.7450	10.2320
 2.7470	10.3350
 2.7480	10.3460
 2.7490	10.4520
 2.7510	10.6750
 2.7520	10.7510
 2.7540	10.7750
 2.7550	10.6570
 2.7570	10.6680
 2.7580	10.6660
 2.7600	10.7350
 2.7610	10.7300
 2.7630	10.6180
 2.7640	10.4590
 2.7660	10.4440
 2.7670	10.3920
 2.7680	10.4990
 2.7700	10.7100
 2.7710	10.8270
 2.7730	10.5260
 2.7740	10.4680
 2.7760	10.4610
 2.7770	10.4220
 2.7790	10.3850
 2.7800	10.6040
 2.7820	10.6710
 2.7830	10.5960
 2.7850	10.4660
 2.7860	10.3970
 2.7880	10.4380
 2.7890	10.7290
 2.7910	10.5000
 2.7920	10.4600
 2.7940	10.5400
 2.7950	10.6700
 2.7970	10.7480
 2.7980	10.7830
 2.8000	10.5500
 2.8010	10.3790
 2.8030	10.3480
 2.8040	10.4700
 2.8060	10.4310
 2.8070	10.4860
 2.8090	10.5850
 2.8110	10.6110
 2.8120	10.4850
 2.8140	10.3980
 2.8150	10.5440
 2.8170	10.6270
 2.8180	10.5150
 2.8200	10.6940
 2.8210	10.6280
 2.8230	10.5690
 2.8240	10.4290
 2.8260	10.4130
 2.8270	10.5180
 2.8290	10.5910
 2.8300	10.5830
 2.8320	10.6280
 2.8340	10.5250
 2.8350	10.5310
 2.8370	10.5450
 2.8380	10.5570
 2.8400	10.6650
 2.8410	10.7680
 2.8430	10.5430
 2.8440	10.4640
 2.8460	10.6590
 2.8480	10.8410
 2.8490	10.6250
 2.8510	10.5180
 2.8520	10.5720
 2.8540	10.6460
 2.8550	10.6360
 2.8570	10.7030
 2.8590	10.6900
 2.8600	10.7320
 2.8620	10.7670
 2.8630	10.7740
 2.8650	10.5780
 2.8660	10.6250
 2.8680	10.7060
 2.8700	10.6650
 2.8710	10.6560
 2.8730	10.7560
 2.8740	10.7920
 2.8760	10.8670
 2.8780	10.8430
 2.8790	10.6520
 2.8810	10.3790
 2.8820	10.4460
 2.8840	10.5350
 2.8860	10.3250
 2.8870	10.0560
 2.8890	10.4810
 2.8900	10.9050
 2.8920	10.8580
 2.8940	10.4890
 2.8950	10.5590
 2.8970	10.6620
 2.8980	10.6510
 2.9000	10.5330
 2.9020	10.5210
 2.9030	10.6050
 2.9050	10.7310
 2.9070	10.6540
 2.9080	10.5540
 2.9100	10.3590
 2.9120	10.4140
 2.9130	10.6330
 2.9150	10.7170
 2.9160	10.7540
 2.9180	10.6200
 2.9200	10.4660
 2.9210	10.5040
 2.9230	10.5370
 2.9250	10.6340
 2.9260	10.7480
 2.9280	10.7690
 2.9300	10.7760
 2.9310	10.8650
 2.9330	10.9400
 2.9350	10.8050
 2.9360	10.4830
 2.9380	10.4640
 2.9400	10.7360
 2.9410	10.6910
 2.9430	10.5860
 2.9450	10.7990
 2.9460	10.8690
 2.9480	10.9700
 2.9500	11.0550
 2.9510	10.6120
 2.9530	10.3720
 2.9550	10.3170
 2.9560	10.3050
 2.9580	10.2980
 2.9600	10.4570
 2.9610	10.4950
 2.9630	10.3160
 2.9650	10.2170
 2.9660	10.3410
 2.9680	10.3570
 2.9700	10.5400
 2.9720	10.7150
 2.9730	10.5430
 2.9750	10.9060
 2.9770	10.7110
 2.9780	10.3520
 2.9800	10.7040
 2.9820	10.5590
 2.9840	10.2560
 2.9850	10.7690
 2.9870	10.9180
 2.9890	11.9440
 2.9900	12.8640
 2.9920	13.6150
 2.9940	14.0770
 2.9960	13.2460
 2.9970	11.4690
 2.9990	10.9970
 3.0010	10.8760
 3.0030	10.9860
 3.0040	10.6050
 3.0060	10.3470
 3.0080	10.1100
 3.0100	10.6520
 3.0110	10.5200
 3.0130	10.2950
 3.0150	10.5190
 3.0170	10.6010
 3.0180	10.1770
 3.0200	10.0770
 3.0220	10.2690
 3.0240	10.4110
 3.0250	10.4580
 3.0270	10.3640
 3.0290	10.5370
 3.0310	10.7690
 3.0320	10.4730
 3.0340	10.4610
 3.0360	10.4850
 3.0380	10.0920
 3.0400	 9.6970
 3.0410	 9.6570
 3.0430	10.5260
 3.0450	10.8900
 3.0470	11.4270
 3.0480	10.8480
 3.0500	 9.7940
 3.0520	 9.3910
 3.0540	 9.4200
 3.0560	 9.8410
 3.0570	10.6210
 3.0590	10.6480
 3.0610	10.5230
 3.0630	10.8570
 3.0650	10.8320
 3.0660	10.9490
 3.0680	10.6740
 3.0700	10.3420
 3.0720	10.0660
 3.0740	10.4330
 3.0760	10.5090
 3.0770	10.5700
 3.0790	10.7480
 3.0810	10.7000
 3.0830	10.5620
 3.0850	10.5590
 3.0870	10.3950
 3.0880	10.4090
 3.0900	10.3470
 3.0920	10.2910
 3.0940	10.2750
 3.0960	10.4390
 3.0980	10.3660
 3.0990	10.3640
 3.1010	10.4050
 3.1030	10.7210
 3.1050	10.8070
 3.1070	10.5850
 3.1090	10.2720
 3.1110	10.4310
 3.1120	10.3710
 3.1140	10.4000
 3.1160	10.4430
 3.1180	10.5410
 3.1200	10.5790
 3.1220	10.6190
 3.1240	10.4080
 3.1260	10.4040
 3.1270	10.3780
 3.1290	10.4860
 3.1310	10.3580
 3.1330	10.6510
 3.1350	11.0860
 3.1370	11.1250
 3.1390	10.7580
 3.1410	10.6130
 3.1430	 9.7600
 3.1450	 9.1920
 3.1460	 8.8890
 3.1480	 8.7040
 3.1500	 9.5320
 3.1520	10.9260
 3.1540	11.4270
 3.1560	10.7070
 3.1580	10.3010
 3.1600	10.6270
 3.1620	10.8640
 3.1640	10.5280
 3.1660	 9.9350
 3.1680	 9.2450
 3.1700	 9.4440
 3.1710	11.1950
 3.1730	12.0130
 3.1750	11.2410
 3.1770	10.1870
 3.1790	10.3800
 3.1810	11.1270
 3.1830	11.6720
 3.1850	11.0460
 3.1870	10.2260
 3.1890	10.2740
 3.1910	10.4540
 3.1930	10.4630
 3.1950	10.4590
 3.1970	10.1670
 3.1990	 9.9990
 3.2010	10.0880
 3.2030	10.2800
 3.2050	10.2800
 3.2070	10.2510
 3.2090	10.3370
 3.2110	10.3660
 3.2130	10.2910
 3.2150	10.2420
 3.2170	10.2580
 3.2190	10.2310
 3.2210	10.1650
 3.2230	10.2070
 3.2250	10.2040
 3.2270	10.3560
 3.2290	10.3040
 3.2310	10.1950
 3.2330	10.0920
 3.2350	10.0510
 3.2370	10.0250
 3.2390	10.0170
 3.2410	10.2910
 3.2430	10.3440
 3.2450	10.1680
 3.2470	10.0860
 3.2490	10.1070
 3.2510	10.1520
 3.2530	10.1690
 3.2550	10.2500
 3.2570	10.1140
 3.2590	10.1220
 3.2610	10.2510
 3.2630	10.2040
 3.2650	 9.9880
 3.2670	 9.9820
 3.2690	10.1580
 3.2720	10.2310
 3.2740	10.0800
 3.2760	10.0790
 3.2780	10.0460
 3.2800	10.0640
 3.2820	10.0900
 3.2840	10.2460
 3.2860	10.2090
 3.2880	10.2200
 3.2900	10.2150
 3.2920	10.2410
 3.2940	10.0720
 3.2960	10.0530
 3.2990	10.0860
 3.3010	 9.9830
 3.3030	10.0110
 3.3050	10.1850
 3.3070	10.1080
 3.3090	10.0810
 3.3110	10.0520
 3.3130	10.0980
 3.3150	10.2620
 3.3180	10.2690
 3.3200	10.0640
 3.3220	10.1460
 3.3240	10.0160
 3.3260	 9.9750
 3.3280	10.0410
 3.3300	 9.9770
 3.3330	 9.8300
 3.3350	 9.8220
 3.3370	 9.8450
 3.3390	 9.9150
 3.3410	 9.9540
 3.3430	10.0180
 3.3450	 9.9070
 3.3480	 9.9130
 3.3500	 9.9060
 3.3520	 9.8340
 3.3540	 9.8820
 3.3560	 9.9640
 3.3580	 9.8150
 3.3610	 9.8540
 3.3630	 9.9180
 3.3650	 9.8360
 3.3670	 9.7790
 3.3690	 9.7070
 3.3720	 9.6240
 3.3740	 9.6710
 3.3760	 9.7540
 3.3780	 9.7790
 3.3800	 9.6070
 3.3830	 9.6410
 3.3850	 9.7020
 3.3870	 9.7080
 3.3890	 9.5820
 3.3910	 9.5260
 3.3940	 9.5720
 3.3960	 9.5350
 3.3980	 9.4470
 3.4000	 9.5160
 3.4020	 9.5220
 3.4050	 9.5750
 3.4070	 9.5730
 3.4090	 9.7350
 3.4110	 9.8140
 3.4140	 9.9990
 3.4160	10.2910
 3.4180	10.4210
 3.4200	10.5290
 3.4230	11.0480
 3.4250	11.6090
 3.4270	12.0830
 3.4290	12.3000
 3.4320	12.1560
 3.4340	11.7980
 3.4360	11.6100
 3.4390	11.4790
 3.4410	11.4340
 3.4430	11.1960
 3.4450	11.0140
 3.4480	11.0630
 3.4500	10.9560
 3.4520	10.5900
 3.4550	10.5880
 3.4570	10.6670
 3.4590	10.5460
 3.4620	10.5150
 3.4640	10.5570
 3.4660	10.5440
 3.4680	10.6030
 3.4710	10.5200
 3.4730	10.5400
 3.4750	10.5150
 3.4780	10.5350
 3.4800	10.5560
 3.4820	10.4390
 3.4850	10.1870
 3.4870	10.0560
 3.4890	10.1020
 3.4920	10.1450
 3.4940	10.1140
 3.4970	10.0630
 3.4990	 9.9480
 3.5010	10.0660
 3.5040	10.2920
 3.5060	10.7580
 3.5080	11.5110
 3.5110	12.1660
 3.5130	12.1400
 3.5160	11.8440
 3.5180	11.5730
 3.5200	11.4280
 3.5230	11.1840
 3.5250	11.0690
 3.5270	11.0230
 3.5300	10.9770
 3.5320	10.9030
 3.5350	10.8960
 3.5370	10.7490
 3.5400	10.6030
 3.5420	10.5560
 3.5440	10.7590
 3.5470	10.9080
 3.5490	10.8680
 3.5520	10.7840
 3.5540	10.7530
 3.5570	10.6960
 3.5590	10.6960
 3.5610	10.5830
 3.5640	10.5030
 3.5660	10.4760
 3.5690	10.5040
 3.5710	10.5040
 3.5740	10.5040
 3.5760	10.6210
 3.5790	10.7280
 3.5810	10.7000
 3.5840	10.6300
 3.5860	10.5350
 3.5890	10.4560
 3.5910	10.3710
 3.5930	10.3390
 3.5960	10.3760
 3.5980	10.5350
 3.6010	10.4380
 3.6030	10.4310
 3.6060	10.4010
 3.6080	10.4190
 3.6110	10.4490
 3.6140	10.5000
 3.6160	10.4150
 3.6190	10.4270
 3.6210	10.4180
 3.6240	10.4580
 3.6260	10.5310
 3.6290	10.5160
 3.6310	10.4330
 3.6340	10.4240
 3.6360	10.4150
 3.6390	10.4570
 3.6410	10.4630
 3.6440	10.5460
 3.6470	10.5260
 3.6490	10.5410
 3.6520	10.4560
 3.6540	10.3960
 3.6570	10.3910
 3.6590	10.5140
 3.6620	10.4070
 3.6650	10.3840
 3.6670	10.4250
 3.6700	10.5120
 3.6720	10.5920
 3.6750	10.5200
 3.6780	10.4300
 3.6800	10.3420
 3.6830	10.3390
 3.6850	10.4300
 3.6880	10.4730
 3.6910	10.4920
 3.6930	10.4250
 3.6960	10.4610
 3.6990	10.4770
 3.7010	10.4800
 3.7040	10.5000
 3.7060	10.5990
 3.7090	10.6010
 3.7120	10.6070
 3.7140	10.5520
 3.7170	10.4650
 3.7200	10.3990
 3.7220	10.4550
 3.7250	10.4090
 3.7280	10.4720
 3.7300	10.5480
 3.7330	10.5520
 3.7360	10.5050
 3.7390	10.4950
 3.7410	10.5200
 3.7440	10.5110
 3.7470	10.4840
 3.7490	10.5150
 3.7520	10.5600
 3.7550	10.5370
 3.7580	10.4860
 3.7600	10.6140
 3.7630	10.6130
 3.7660	10.4690
 3.7680	10.3570
 3.7710	10.5450
 3.7740	10.5780
 3.7770	10.5350
 3.7790	10.6170
 3.7820	10.6860
 3.7850	10.6860
 3.7880	10.6900
 3.7900	10.6360
 3.7930	10.6710
 3.7960	10.6730
 3.7990	10.6610
 3.8020	10.6430
 3.8040	10.6680
 3.8070	10.5980
 3.8100	10.6080
 3.8130	10.5550
 3.8160	10.5620
 3.8180	10.5660
 3.8210	10.5040
 3.8240	10.5010
 3.8270	10.6500
 3.8300	10.6520
 3.8330	10.7190
 3.8350	10.6680
 3.8380	10.5820
 3.8410	10.5470
 3.8440	10.6040
 3.8470	10.6200
 3.8500	10.5850
 3.8520	10.6240
 3.8550	10.7550
 3.8580	10.6840
 3.8610	10.6120
 3.8640	10.7220
 3.8670	10.8050
 3.8700	10.6850
 3.8730	10.6220
 3.8750	10.6600
 3.8780	10.7090
 3.8810	10.7330
 3.8840	10.7650
 3.8870	10.7120
 3.8900	10.6430
 3.8930	10.6210
 3.8960	10.6910
 3.8990	10.7070
 3.9020	10.7380
 3.9050	10.7260
 3.9080	10.7800
 3.9110	10.7210
 3.9140	10.6240
 3.9160	10.5680
 3.9190	10.6190
 3.9220	10.6970
 3.9250	10.7630
 3.9280	10.6430
 3.9310	10.6680
 3.9340	10.7280
 3.9370	10.7370
 3.9400	10.7060
 3.9430	10.7700
 3.9460	10.7780
 3.9490	10.7900
 3.9520	10.7530
 3.9550	10.8010
 3.9580	10.7470
 3.9610	10.7770
 3.9640	10.7970
 3.9670	10.7510
 3.9700	10.7260
 3.9730	10.8130
 3.9770	10.7750
 3.9800	10.8250
 3.9830	10.8420
 3.9860	10.7590
 3.9890	10.6840
 3.9920	10.7410
 3.9950	10.7870
 3.9980	10.7130
 4.0010	10.6750
 4.0040	10.6580
 4.0070	10.5170
 4.0100	10.4980
 4.0130	10.5740
 4.0170	10.6890
 4.0200	10.7590
 4.0230	10.7690
 4.0260	10.7960
 4.0290	10.7850
 4.0320	10.7580
 4.0350	10.8260
 4.0380	10.8320
 4.0420	10.7740
 4.0450	10.7490
 4.0480	10.7960
 4.0510	10.7540
 4.0540	10.7260
 4.0570	10.7820
 4.0610	10.8920
 4.0640	10.8410
 4.0670	10.7620
 4.0700	10.8060
 4.0730	10.8800
 4.0770	10.8220
 4.0800	10.7490
 4.0830	10.6920
 4.0860	10.6950
 4.0890	10.6980
 4.0930	10.7120
 4.0960	10.7190
 4.0990	10.7220
 4.1020	10.7220
 4.1060	10.6480
 4.1090	10.6620
 4.1120	10.7610
 4.1150	10.7970
 4.1190	10.7920
 4.1220	10.7870
 4.1250	10.8050
 4.1280	10.7110
 4.1320	10.7060
 4.1350	10.7580
 4.1380	10.7320
 4.1420	10.7840
 4.1450	10.9170
 4.1480	10.8800
 4.1520	10.8140
 4.1550	10.8110
 4.1580	10.8620
 4.1620	10.8230
 4.1650	10.7880
 4.1680	10.7480
 4.1720	10.7110
 4.1750	10.6970
 4.1780	10.7490
 4.1820	10.8320
 4.1850	10.7600
 4.1890	10.6830
 4.1920	10.8070
 4.1950	10.9570
 4.1990	11.0950
 4.2020	11.1240
 4.2060	11.1480
 4.2090	11.3050
 4.2120	11.5410
 4.2160	11.7410
 4.2190	12.0270
 4.2230	11.9600
 4.2260	11.9800
 4.2300	12.2310
 4.2330	12.4470
 4.2360	12.4830
 4.2400	12.5210
 4.2430	12.3960
 4.2470	12.2330
 4.2500	12.0460
 4.2540	11.6740
 4.2570	11.4210
 4.2610	11.6010
 4.2640	11.8380
 4.2680	12.1890
 4.2710	12.3430
 4.2750	12.2640
 4.2780	11.9690
 4.2820	11.8590
 4.2850	11.7190
 4.2890	11.7960
 4.2930	11.9100
 4.2960	11.9100
 4.3000	11.9270
 4.3030	11.7010
 4.3070	11.5440
 4.3100	11.4170
 4.3140	11.2590
 4.3180	11.2700
 4.3210	11.2380
 4.3250	11.2520
 4.3280	11.2480
 4.3320	11.2600
 4.3360	11.0830
 4.3390	10.9020
 4.3430	10.9060
 4.3470	10.9950
 4.3500	10.9720
 4.3540	10.8840
 4.3570	10.7870
 4.3610	10.7200
 4.3650	10.7290
 4.3680	10.8300
 4.3720	10.7860
 4.3760	10.6630
 4.3800	10.5280
 4.3830	10.4900
 4.3870	10.6380
 4.3910	10.7100
 4.3940	10.7450
 4.3980	10.6910
 4.4020	10.6260
 4.4060	10.6910
 4.4090	10.7370
 4.4130	10.7290
 4.4170	10.6980
 4.4210	10.6770
 4.4240	10.6840
 4.4280	10.6930
 4.4320	10.6540
 4.4360	10.5400
 4.4400	10.5760
 4.4430	10.6650
 4.4470	10.5950
 4.4510	10.6260
 4.4550	10.6320
 4.4590	10.5980
 4.4620	10.6000
 4.4660	10.5730
 4.4700	10.5690
 4.4740	10.5740
 4.4780	10.6030
 4.4820	10.6420
 4.4860	10.6290
 4.4900	10.6630
 4.4930	10.6230
 4.4970	10.5800
 4.5010	10.5550
 4.5050	10.5840
 4.5090	10.6130
 4.5130	10.5690
 4.5170	10.5670
 4.5210	10.6110
 4.5250	10.5690
 4.5290	10.4820
 4.5330	10.3850
 4.5370	10.4730
 4.5410	10.6560
 4.5450	10.6400
 4.5490	10.5820
 4.5530	10.5380
 4.5570	10.5290
 4.5610	10.5050
 4.5650	10.5110
 4.5690	10.5940
 4.5730	10.5590
 4.5770	10.5110
 4.5810	10.5320
 4.5850	10.5890
 4.5890	10.6210
 4.5930	10.6050
 4.5970	10.4880
 4.6010	10.3480
 4.6050	10.3510
 4.6090	10.3970
 4.6130	10.4440
 4.6170	10.4550
 4.6220	10.4470
 4.6260	10.5260
 4.6300	10.5690
 4.6340	10.5500
 4.6380	10.4790
 4.6420	10.4700
 4.6460	10.5350
 4.6510	10.5400
 4.6550	10.4880
 4.6590	10.4520
 4.6630	10.4680
 4.6670	10.4600
 4.6720	10.5130
 4.6760	10.5150
 4.6800	10.4380
 4.6840	10.3620
 4.6880	10.4030
 4.6930	10.4290
 4.6970	10.4960
 4.7010	10.5360
 4.7050	10.4720
 4.7100	10.4440
 4.7140	10.4060
 4.7180	10.4890
 4.7230	10.6000
 4.7270	10.5670
 4.7310	10.5490
 4.7360	10.5180
 4.7400	10.5570
 4.7440	10.5440
 4.7490	10.4830
 4.7530	10.4290
 4.7570	10.4150
 4.7620	10.4680
 4.7660	10.4910
 4.7700	10.4390
 4.7750	10.3300
 4.7790	10.2460
 4.7840	10.1990
 4.7880	10.4010
 4.7920	10.6190
 4.7970	10.5590
 4.8010	10.4850
 4.8060	10.5380
 4.8100	10.7060
 4.8150	10.6510
 4.8190	10.4240
 4.8240	10.3730
 4.8280	10.4310
 4.8330	10.5120
 4.8370	10.5480
 4.8420	10.5550
 4.8460	10.5610
 4.8510	10.5310
 4.8550	10.5800
 4.8600	10.5860
 4.8640	10.6030
 4.8690	10.5340
 4.8730	10.5310
 4.8780	10.5180
 4.8830	10.5270
 4.8870	10.5500
 4.8920	10.5320
 4.8960	10.5530
 4.9010	10.5130
 4.9060	10.5040
 4.9100	10.5920
 4.9150	10.6620
 4.9200	10.6280
 4.9240	10.5840
 4.9290	10.5270
 4.9340	10.4560
 4.9380	10.5010
 4.9430	10.5250
 4.9480	10.5520
 4.9530	10.5550
 4.9570	10.5650
 4.9620	10.6190
 4.9670	10.5980
 4.9720	10.6100
 4.9760	10.7420
 4.9810	10.7250
 4.9860	10.7290
 4.9910	10.7000
 4.9960	10.6350
 5.0000	10.7040
 5.0050	10.7650
 5.0100	10.7160
 5.0150	10.7980
 5.0200	10.8450
 5.0250	10.8180
 5.0290	10.7750
 5.0340	10.7610
 5.0390	10.6670
 5.0440	10.6280
 5.0490	10.7450
 5.0540	10.7630
 5.0590	10.6800
 5.0640	10.7080
 5.0690	10.7040
 5.0740	10.7470
 5.0790	10.8360
 5.0840	10.7590
 5.0890	10.6550
 5.0940	10.6300
 5.0990	10.6530
 5.1040	10.7340
 5.1090	10.7810
 5.1140	10.7980
 5.1190	10.8150
 5.1240	10.7550
 5.1290	10.6360
 5.1340	10.6620
 5.1390	10.7320
 5.1440	10.6990
 5.1490	10.7150
 5.1540	10.7930
 5.1600	10.8120
 5.1650	10.7930
 5.1700	10.7750
 5.1750	10.8650
 5.1800	10.8460
 5.1850	10.7910
 5.1910	10.7470
 5.1960	10.7080
 5.2010	10.6850
 5.2060	10.7350
 5.2110	10.7700
 5.2170	10.8160
 5.2220	10.8170
 5.2270	10.8270
 5.2320	10.7940
 5.2380	10.7670
 5.2430	10.7280
 5.2480	10.7360
 5.2540	10.7260
 5.2590	10.6520
 5.2640	10.7030
 5.2700	10.8520
 5.2750	10.7920
 5.2800	10.7550
 5.2860	10.7560
 5.2910	10.7520
 5.2970	10.7160
 5.3020	10.7340
 5.3070	10.6460
 5.3130	10.6890
 5.3180	10.7320
 5.3240	10.7160
 5.3290	10.7430
 5.3350	10.7930
 5.3400	10.7040
 5.3460	10.6710
 5.3510	10.7060
 5.3570	10.7710
 5.3620	10.7380
 5.3680	10.6370
 5.3730	10.4940
 5.3790	10.4860
 5.3850	10.5220
 5.3900	10.5460
 5.3960	10.5410
 5.4010	10.6320
 5.4070	10.6230
 5.4130	10.6810
 5.4180	10.7750
 5.4240	10.6780
 5.4300	10.5800
 5.4350	10.5380
