Name: Quercus suber
Type: vegetation
Class: Tree
Genus: Quercus
Species: suber
Sample No.: JPL106b
Owner: JPL
Wavelength Range: VSWIR
Origin: 34.12913; -118.11246;; WGS84
Collection Date: 9/7/2016
Description: Samples were collected at the Huntington Garden in San Marino California as part of a JPL Subcontract studying HyTES imagery. Samples were taken to JPL and processed within 48 hours of collection. The same leaves were processed in the Nicolet and then measured using the ASD.
Measurement: Bidirectional reflectance
First Column: X
Second Column: Y
X Units: Wavelength (micrometer)
Y Units: Reflectance (percentage)
First X Value: 0.35
Last X Value: 2.5
Number of X Values: 2151
Additional Information: vegetation.tree.quercus.suber.vswir.jpl106b.jpl.asd.ancillary.txt

 0.3500	 6.3130
 0.3510	 6.3040
 0.3520	 6.2430
 0.3530	 6.2140
 0.3540	 6.2780
 0.3550	 6.2430
 0.3560	 6.1750
 0.3570	 6.1020
 0.3580	 6.0350
 0.3590	 6.0340
 0.3600	 6.0600
 0.3610	 6.0840
 0.3620	 6.1060
 0.3630	 6.0760
 0.3640	 6.0270
 0.3650	 5.9950
 0.3660	 5.9420
 0.3670	 5.9510
 0.3680	 5.9880
 0.3690	 5.9530
 0.3700	 5.9850
 0.3710	 5.9970
 0.3720	 5.9540
 0.3730	 5.9600
 0.3740	 5.9550
 0.3750	 5.9150
 0.3760	 5.8530
 0.3770	 5.9070
 0.3780	 5.9430
 0.3790	 5.9400
 0.3800	 5.9730
 0.3810	 5.9210
 0.3820	 5.8630
 0.3830	 5.8760
 0.3840	 5.9730
 0.3850	 5.9830
 0.3860	 5.9020
 0.3870	 5.8100
 0.3880	 5.8530
 0.3890	 5.8990
 0.3900	 5.8900
 0.3910	 5.8680
 0.3920	 5.8870
 0.3930	 5.9080
 0.3940	 5.8970
 0.3950	 5.8810
 0.3960	 5.8580
 0.3970	 5.8460
 0.3980	 5.8690
 0.3990	 5.8660
 0.4000	 5.8740
 0.4010	 5.8980
 0.4020	 5.8920
 0.4030	 5.8940
 0.4040	 5.8940
 0.4050	 5.8850
 0.4060	 5.9170
 0.4070	 5.9320
 0.4080	 5.9320
 0.4090	 5.9610
 0.4100	 5.9570
 0.4110	 5.9460
 0.4120	 5.9470
 0.4130	 5.9460
 0.4140	 5.9730
 0.4150	 6.0020
 0.4160	 6.0040
 0.4170	 6.0130
 0.4180	 6.0220
 0.4190	 6.0320
 0.4200	 6.0620
 0.4210	 6.0860
 0.4220	 6.1060
 0.4230	 6.1230
 0.4240	 6.1310
 0.4250	 6.1470
 0.4260	 6.1720
 0.4270	 6.2010
 0.4280	 6.2190
 0.4290	 6.2320
 0.4300	 6.2450
 0.4310	 6.2620
 0.4320	 6.2710
 0.4330	 6.2760
 0.4340	 6.2850
 0.4350	 6.3060
 0.4360	 6.3220
 0.4370	 6.3360
 0.4380	 6.3640
 0.4390	 6.3930
 0.4400	 6.4230
 0.4410	 6.4530
 0.4420	 6.4690
 0.4430	 6.4780
 0.4440	 6.4910
 0.4450	 6.5130
 0.4460	 6.5190
 0.4470	 6.5260
 0.4480	 6.5420
 0.4490	 6.5650
 0.4500	 6.5740
 0.4510	 6.5780
 0.4520	 6.5890
 0.4530	 6.6050
 0.4540	 6.6160
 0.4550	 6.6230
 0.4560	 6.6350
 0.4570	 6.6370
 0.4580	 6.6420
 0.4590	 6.6570
 0.4600	 6.6640
 0.4610	 6.6740
 0.4620	 6.6840
 0.4630	 6.6870
 0.4640	 6.6890
 0.4650	 6.6940
 0.4660	 6.7020
 0.4670	 6.7060
 0.4680	 6.7160
 0.4690	 6.7260
 0.4700	 6.7290
 0.4710	 6.7290
 0.4720	 6.7310
 0.4730	 6.7360
 0.4740	 6.7430
 0.4750	 6.7480
 0.4760	 6.7540
 0.4770	 6.7610
 0.4780	 6.7660
 0.4790	 6.7730
 0.4800	 6.7770
 0.4810	 6.7740
 0.4820	 6.7760
 0.4830	 6.7810
 0.4840	 6.7850
 0.4850	 6.7850
 0.4860	 6.7860
 0.4870	 6.7910
 0.4880	 6.8000
 0.4890	 6.8060
 0.4900	 6.8230
 0.4910	 6.8410
 0.4920	 6.8410
 0.4930	 6.8570
 0.4940	 6.8730
 0.4950	 6.8820
 0.4960	 6.8990
 0.4970	 6.9190
 0.4980	 6.9410
 0.4990	 6.9680
 0.5000	 6.9840
 0.5010	 7.0040
 0.5020	 7.0340
 0.5030	 7.0740
 0.5040	 7.1080
 0.5050	 7.1460
 0.5060	 7.1940
 0.5070	 7.2400
 0.5080	 7.2920
 0.5090	 7.3490
 0.5100	 7.4080
 0.5110	 7.4780
 0.5120	 7.5570
 0.5130	 7.6440
 0.5140	 7.7330
 0.5150	 7.8330
 0.5160	 7.9430
 0.5170	 8.0610
 0.5180	 8.1830
 0.5190	 8.3100
 0.5200	 8.4460
 0.5210	 8.5930
 0.5220	 8.7410
 0.5230	 8.8900
 0.5240	 9.0380
 0.5250	 9.1850
 0.5260	 9.3270
 0.5270	 9.4640
 0.5280	 9.5970
 0.5290	 9.7260
 0.5300	 9.8480
 0.5310	 9.9630
 0.5320	10.0730
 0.5330	10.1740
 0.5340	10.2660
 0.5350	10.3520
 0.5360	10.4380
 0.5370	10.5190
 0.5380	10.5910
 0.5390	10.6490
 0.5400	10.7010
 0.5410	10.7500
 0.5420	10.7960
 0.5430	10.8400
 0.5440	10.8910
 0.5450	10.9480
 0.5460	11.0080
 0.5470	11.0690
 0.5480	11.1250
 0.5490	11.1720
 0.5500	11.2090
 0.5510	11.2380
 0.5520	11.2580
 0.5530	11.2670
 0.5540	11.2720
 0.5550	11.2680
 0.5560	11.2510
 0.5570	11.2220
 0.5580	11.1790
 0.5590	11.1280
 0.5600	11.0730
 0.5610	11.0080
 0.5620	10.9350
 0.5630	10.8560
 0.5640	10.7730
 0.5650	10.6890
 0.5660	10.6010
 0.5670	10.5090
 0.5680	10.4100
 0.5690	10.3130
 0.5700	10.2200
 0.5710	10.1280
 0.5720	10.0360
 0.5730	 9.9420
 0.5740	 9.8540
 0.5750	 9.7840
 0.5760	 9.7330
 0.5770	 9.6860
 0.5780	 9.6330
 0.5790	 9.5730
 0.5800	 9.5090
 0.5810	 9.4450
 0.5820	 9.3880
 0.5830	 9.3450
 0.5840	 9.3110
 0.5850	 9.2800
 0.5860	 9.2450
 0.5870	 9.2010
 0.5880	 9.1550
 0.5890	 9.1140
 0.5900	 9.0860
 0.5910	 9.0710
 0.5920	 9.0620
 0.5930	 9.0490
 0.5940	 9.0380
 0.5950	 9.0270
 0.5960	 9.0150
 0.5970	 9.0000
 0.5980	 8.9870
 0.5990	 8.9750
 0.6000	 8.9610
 0.6010	 8.9430
 0.6020	 8.9220
 0.6030	 8.8970
 0.6040	 8.8700
 0.6050	 8.8340
 0.6060	 8.7930
 0.6070	 8.7490
 0.6080	 8.6980
 0.6090	 8.6410
 0.6100	 8.5780
 0.6110	 8.5100
 0.6120	 8.4600
 0.6130	 8.4200
 0.6140	 8.3830
 0.6150	 8.3410
 0.6160	 8.3020
 0.6170	 8.2650
 0.6180	 8.2250
 0.6190	 8.1920
 0.6200	 8.1620
 0.6210	 8.1350
 0.6220	 8.1160
 0.6230	 8.0980
 0.6240	 8.0830
 0.6250	 8.0690
 0.6260	 8.0580
 0.6270	 8.0500
 0.6280	 8.0450
 0.6290	 8.0420
 0.6300	 8.0370
 0.6310	 8.0350
 0.6320	 8.0350
 0.6330	 8.0350
 0.6340	 8.0290
 0.6350	 8.0220
 0.6360	 8.0140
 0.6370	 8.0020
 0.6380	 7.9860
 0.6390	 7.9660
 0.6400	 7.9440
 0.6410	 7.9210
 0.6420	 7.8930
 0.6430	 7.8610
 0.6440	 7.8320
 0.6450	 7.8020
 0.6460	 7.7700
 0.6470	 7.7360
 0.6480	 7.7080
 0.6490	 7.6790
 0.6500	 7.6490
 0.6510	 7.6260
 0.6520	 7.5980
 0.6530	 7.5720
 0.6540	 7.5480
 0.6550	 7.5200
 0.6560	 7.4910
 0.6570	 7.4610
 0.6580	 7.4280
 0.6590	 7.3950
 0.6600	 7.3610
 0.6610	 7.3290
 0.6620	 7.2970
 0.6630	 7.2720
 0.6640	 7.2490
 0.6650	 7.2280
 0.6660	 7.2080
 0.6670	 7.1940
 0.6680	 7.1850
 0.6690	 7.1790
 0.6700	 7.1750
 0.6710	 7.1720
 0.6720	 7.1720
 0.6730	 7.1760
 0.6740	 7.1820
 0.6750	 7.1910
 0.6760	 7.2030
 0.6770	 7.2130
 0.6780	 7.2230
 0.6790	 7.2360
 0.6800	 7.2550
 0.6810	 7.2790
 0.6820	 7.3050
 0.6830	 7.3360
 0.6840	 7.3710
 0.6850	 7.4140
 0.6860	 7.4680
 0.6870	 7.5340
 0.6880	 7.6130
 0.6890	 7.7110
 0.6900	 7.8350
 0.6910	 7.9870
 0.6920	 8.1760
 0.6930	 8.4020
 0.6940	 8.6700
 0.6950	 8.9900
 0.6960	 9.3570
 0.6970	 9.7730
 0.6980	10.2380
 0.6990	10.7480
 0.7000	11.3010
 0.7010	11.8930
 0.7020	12.5180
 0.7030	13.1670
 0.7040	13.8410
 0.7050	14.5330
 0.7060	15.2330
 0.7070	15.9470
 0.7080	16.6730
 0.7090	17.4030
 0.7100	18.1370
 0.7110	18.8780
 0.7120	19.6250
 0.7130	20.3670
 0.7140	21.1130
 0.7150	21.8610
 0.7160	22.6050
 0.7170	23.3480
 0.7180	24.0840
 0.7190	24.8150
 0.7200	25.5460
 0.7210	26.2620
 0.7220	26.9670
 0.7230	27.6610
 0.7240	28.3420
 0.7250	29.0030
 0.7260	29.6450
 0.7270	30.2690
 0.7280	30.8710
 0.7290	31.4500
 0.7300	32.0060
 0.7310	32.5410
 0.7320	33.0530
 0.7330	33.5440
 0.7340	34.0130
 0.7350	34.4540
 0.7360	34.8730
 0.7370	35.2710
 0.7380	35.6500
 0.7390	36.0070
 0.7400	36.3440
 0.7410	36.6620
 0.7420	36.9620
 0.7430	37.2410
 0.7440	37.5020
 0.7450	37.7470
 0.7460	37.9700
 0.7470	38.1810
 0.7480	38.3810
 0.7490	38.5670
 0.7500	38.7310
 0.7510	38.8850
 0.7520	39.0330
 0.7530	39.1730
 0.7540	39.2980
 0.7550	39.4140
 0.7560	39.5200
 0.7570	39.6120
 0.7580	39.6960
 0.7590	39.7790
 0.7600	39.8610
 0.7610	39.9340
 0.7620	40.0010
 0.7630	40.0600
 0.7640	40.1130
 0.7650	40.1650
 0.7660	40.2160
 0.7670	40.2640
 0.7680	40.3070
 0.7690	40.3470
 0.7700	40.3840
 0.7710	40.4180
 0.7720	40.4510
 0.7730	40.4850
 0.7740	40.5150
 0.7750	40.5380
 0.7760	40.5670
 0.7770	40.5920
 0.7780	40.6170
 0.7790	40.6440
 0.7800	40.6700
 0.7810	40.6910
 0.7820	40.7090
 0.7830	40.7300
 0.7840	40.7470
 0.7850	40.7650
 0.7860	40.7850
 0.7870	40.7960
 0.7880	40.8130
 0.7890	40.8310
 0.7900	40.8420
 0.7910	40.8560
 0.7920	40.8690
 0.7930	40.8800
 0.7940	40.8950
 0.7950	40.9050
 0.7960	40.9150
 0.7970	40.9260
 0.7980	40.9400
 0.7990	40.9440
 0.8000	40.9470
 0.8010	40.9550
 0.8020	40.9620
 0.8030	40.9650
 0.8040	40.9680
 0.8050	40.9770
 0.8060	40.9790
 0.8070	40.9760
 0.8080	40.9740
 0.8090	40.9790
 0.8100	40.9800
 0.8110	40.9850
 0.8120	40.9940
 0.8130	40.9960
 0.8140	40.9880
 0.8150	40.9810
 0.8160	40.9830
 0.8170	40.9900
 0.8180	40.9910
 0.8190	40.9890
 0.8200	40.9890
 0.8210	40.9880
 0.8220	40.9850
 0.8230	40.9800
 0.8240	40.9730
 0.8250	40.9690
 0.8260	40.9690
 0.8270	40.9740
 0.8280	40.9770
 0.8290	40.9710
 0.8300	40.9630
 0.8310	40.9630
 0.8320	40.9610
 0.8330	40.9600
 0.8340	40.9580
 0.8350	40.9540
 0.8360	40.9530
 0.8370	40.9510
 0.8380	40.9490
 0.8390	40.9520
 0.8400	40.9530
 0.8410	40.9550
 0.8420	40.9590
 0.8430	40.9630
 0.8440	40.9690
 0.8450	40.9780
 0.8460	40.9840
 0.8470	40.9820
 0.8480	40.9840
 0.8490	40.9870
 0.8500	40.9880
 0.8510	40.9860
 0.8520	40.9880
 0.8530	40.9960
 0.8540	41.0010
 0.8550	41.0070
 0.8560	41.0110
 0.8570	41.0140
 0.8580	41.0220
 0.8590	41.0350
 0.8600	41.0490
 0.8610	41.0580
 0.8620	41.0660
 0.8630	41.0730
 0.8640	41.0780
 0.8650	41.0800
 0.8660	41.0820
 0.8670	41.0870
 0.8680	41.0960
 0.8690	41.1080
 0.8700	41.1140
 0.8710	41.1210
 0.8720	41.1300
 0.8730	41.1390
 0.8740	41.1520
 0.8750	41.1620
 0.8760	41.1720
 0.8770	41.1830
 0.8780	41.1940
 0.8790	41.2050
 0.8800	41.2160
 0.8810	41.2250
 0.8820	41.2360
 0.8830	41.2440
 0.8840	41.2490
 0.8850	41.2570
 0.8860	41.2680
 0.8870	41.2790
 0.8880	41.2870
 0.8890	41.3000
 0.8900	41.3110
 0.8910	41.3170
 0.8920	41.3190
 0.8930	41.3320
 0.8940	41.3430
 0.8950	41.3500
 0.8960	41.3600
 0.8970	41.3690
 0.8980	41.3770
 0.8990	41.3840
 0.9000	41.3950
 0.9010	41.4050
 0.9020	41.4160
 0.9030	41.4300
 0.9040	41.4470
 0.9050	41.4510
 0.9060	41.4550
 0.9070	41.4660
 0.9080	41.4640
 0.9090	41.4640
 0.9100	41.4710
 0.9110	41.4830
 0.9120	41.4840
 0.9130	41.4910
 0.9140	41.5010
 0.9150	41.5060
 0.9160	41.5070
 0.9170	41.5100
 0.9180	41.5160
 0.9190	41.5230
 0.9200	41.5300
 0.9210	41.5350
 0.9220	41.5370
 0.9230	41.5380
 0.9240	41.5370
 0.9250	41.5370
 0.9260	41.5340
 0.9270	41.5240
 0.9280	41.5200
 0.9290	41.5170
 0.9300	41.5120
 0.9310	41.5040
 0.9320	41.4900
 0.9330	41.4760
 0.9340	41.4660
 0.9350	41.4540
 0.9360	41.4370
 0.9370	41.4240
 0.9380	41.4170
 0.9390	41.4020
 0.9400	41.3890
 0.9410	41.3750
 0.9420	41.3580
 0.9430	41.3360
 0.9440	41.3140
 0.9450	41.2960
 0.9460	41.2790
 0.9470	41.2380
 0.9480	41.1980
 0.9490	41.1630
 0.9500	41.1310
 0.9510	41.0900
 0.9520	41.0420
 0.9530	40.9950
 0.9540	40.9560
 0.9550	40.9230
 0.9560	40.8970
 0.9570	40.8610
 0.9580	40.8040
 0.9590	40.7630
 0.9600	40.7220
 0.9610	40.6860
 0.9620	40.6590
 0.9630	40.6260
 0.9640	40.6030
 0.9650	40.5850
 0.9660	40.5620
 0.9670	40.5420
 0.9680	40.5200
 0.9690	40.5040
 0.9700	40.4990
 0.9710	40.4860
 0.9720	40.4690
 0.9730	40.4580
 0.9740	40.4590
 0.9750	40.4490
 0.9760	40.4390
 0.9770	40.4400
 0.9780	40.4560
 0.9790	40.4590
 0.9800	40.4550
 0.9810	40.4520
 0.9820	40.4550
 0.9830	40.4570
 0.9840	40.4570
 0.9850	40.4600
 0.9860	40.4750
 0.9870	40.4860
 0.9880	40.4990
 0.9890	40.5090
 0.9900	40.5110
 0.9910	40.5110
 0.9920	40.5200
 0.9930	40.5360
 0.9940	40.5500
 0.9950	40.5680
 0.9960	40.5780
 0.9970	40.5800
 0.9980	40.5850
 0.9990	40.6100
 1.0000	40.6290
 1.0010	41.6280
 1.0020	41.6460
 1.0030	41.6630
 1.0040	41.6760
 1.0050	41.6910
 1.0060	41.7050
 1.0070	41.7180
 1.0080	41.7340
 1.0090	41.7520
 1.0100	41.7670
 1.0110	41.7820
 1.0120	41.7980
 1.0130	41.8160
 1.0140	41.8310
 1.0150	41.8450
 1.0160	41.8600
 1.0170	41.8690
 1.0180	41.8790
 1.0190	41.8930
 1.0200	41.9080
 1.0210	41.9270
 1.0220	41.9450
 1.0230	41.9610
 1.0240	41.9780
 1.0250	41.9930
 1.0260	42.0050
 1.0270	42.0210
 1.0280	42.0370
 1.0290	42.0520
 1.0300	42.0660
 1.0310	42.0820
 1.0320	42.0960
 1.0330	42.1120
 1.0340	42.1320
 1.0350	42.1490
 1.0360	42.1680
 1.0370	42.1840
 1.0380	42.2000
 1.0390	42.2170
 1.0400	42.2310
 1.0410	42.2420
 1.0420	42.2560
 1.0430	42.2720
 1.0440	42.2860
 1.0450	42.2990
 1.0460	42.3140
 1.0470	42.3300
 1.0480	42.3430
 1.0490	42.3590
 1.0500	42.3720
 1.0510	42.3830
 1.0520	42.3920
 1.0530	42.4010
 1.0540	42.4090
 1.0550	42.4180
 1.0560	42.4270
 1.0570	42.4340
 1.0580	42.4400
 1.0590	42.4440
 1.0600	42.4440
 1.0610	42.4470
 1.0620	42.4520
 1.0630	42.4540
 1.0640	42.4560
 1.0650	42.4560
 1.0660	42.4540
 1.0670	42.4540
 1.0680	42.4540
 1.0690	42.4540
 1.0700	42.4530
 1.0710	42.4520
 1.0720	42.4480
 1.0730	42.4400
 1.0740	42.4370
 1.0750	42.4330
 1.0760	42.4300
 1.0770	42.4290
 1.0780	42.4260
 1.0790	42.4200
 1.0800	42.4160
 1.0810	42.4110
 1.0820	42.4070
 1.0830	42.4050
 1.0840	42.4010
 1.0850	42.3970
 1.0860	42.3930
 1.0870	42.3890
 1.0880	42.3850
 1.0890	42.3790
 1.0900	42.3730
 1.0910	42.3670
 1.0920	42.3580
 1.0930	42.3530
 1.0940	42.3510
 1.0950	42.3460
 1.0960	42.3410
 1.0970	42.3360
 1.0980	42.3320
 1.0990	42.3280
 1.1000	42.3230
 1.1010	42.3190
 1.1020	42.3150
 1.1030	42.3090
 1.1040	42.3050
 1.1050	42.3000
 1.1060	42.2940
 1.1070	42.2840
 1.1080	42.2770
 1.1090	42.2710
 1.1100	42.2640
 1.1110	42.2570
 1.1120	42.2500
 1.1130	42.2390
 1.1140	42.2300
 1.1150	42.2230
 1.1160	42.2130
 1.1170	42.2040
 1.1180	42.1920
 1.1190	42.1780
 1.1200	42.1630
 1.1210	42.1450
 1.1220	42.1250
 1.1230	42.1040
 1.1240	42.0800
 1.1250	42.0520
 1.1260	42.0220
 1.1270	41.9860
 1.1280	41.9450
 1.1290	41.9010
 1.1300	41.8550
 1.1310	41.8020
 1.1320	41.7470
 1.1330	41.6830
 1.1340	41.6110
 1.1350	41.5360
 1.1360	41.4580
 1.1370	41.3720
 1.1380	41.2870
 1.1390	41.1960
 1.1400	41.0980
 1.1410	41.0000
 1.1420	40.8970
 1.1430	40.7920
 1.1440	40.6870
 1.1450	40.5770
 1.1460	40.4710
 1.1470	40.3630
 1.1480	40.2590
 1.1490	40.1550
 1.1500	40.0570
 1.1510	39.9620
 1.1520	39.8720
 1.1530	39.7860
 1.1540	39.7070
 1.1550	39.6320
 1.1560	39.5650
 1.1570	39.5060
 1.1580	39.4510
 1.1590	39.4040
 1.1600	39.3610
 1.1610	39.3190
 1.1620	39.2840
 1.1630	39.2510
 1.1640	39.2210
 1.1650	39.1950
 1.1660	39.1740
 1.1670	39.1540
 1.1680	39.1350
 1.1690	39.1180
 1.1700	39.1040
 1.1710	39.0890
 1.1720	39.0770
 1.1730	39.0630
 1.1740	39.0490
 1.1750	39.0360
 1.1760	39.0220
 1.1770	39.0100
 1.1780	38.9970
 1.1790	38.9810
 1.1800	38.9640
 1.1810	38.9460
 1.1820	38.9280
 1.1830	38.9120
 1.1840	38.8970
 1.1850	38.8820
 1.1860	38.8670
 1.1870	38.8530
 1.1880	38.8400
 1.1890	38.8280
 1.1900	38.8170
 1.1910	38.8050
 1.1920	38.7960
 1.1930	38.7880
 1.1940	38.7820
 1.1950	38.7780
 1.1960	38.7750
 1.1970	38.7710
 1.1980	38.7680
 1.1990	38.7680
 1.2000	38.7680
 1.2010	38.7720
 1.2020	38.7780
 1.2030	38.7820
 1.2040	38.7890
 1.2050	38.7960
 1.2060	38.8050
 1.2070	38.8170
 1.2080	38.8300
 1.2090	38.8440
 1.2100	38.8610
 1.2110	38.8790
 1.2120	38.8970
 1.2130	38.9170
 1.2140	38.9390
 1.2150	38.9620
 1.2160	38.9860
 1.2170	39.0120
 1.2180	39.0390
 1.2190	39.0670
 1.2200	39.0960
 1.2210	39.1280
 1.2220	39.1590
 1.2230	39.1900
 1.2240	39.2200
 1.2250	39.2480
 1.2260	39.2750
 1.2270	39.3030
 1.2280	39.3290
 1.2290	39.3560
 1.2300	39.3820
 1.2310	39.4060
 1.2320	39.4290
 1.2330	39.4500
 1.2340	39.4720
 1.2350	39.4940
 1.2360	39.5150
 1.2370	39.5370
 1.2380	39.5560
 1.2390	39.5750
 1.2400	39.5930
 1.2410	39.6120
 1.2420	39.6290
 1.2430	39.6470
 1.2440	39.6650
 1.2450	39.6790
 1.2460	39.6950
 1.2470	39.7090
 1.2480	39.7220
 1.2490	39.7360
 1.2500	39.7490
 1.2510	39.7610
 1.2520	39.7720
 1.2530	39.7830
 1.2540	39.7940
 1.2550	39.8030
 1.2560	39.8110
 1.2570	39.8170
 1.2580	39.8220
 1.2590	39.8270
 1.2600	39.8310
 1.2610	39.8350
 1.2620	39.8380
 1.2630	39.8410
 1.2640	39.8420
 1.2650	39.8410
 1.2660	39.8420
 1.2670	39.8400
 1.2680	39.8390
 1.2690	39.8380
 1.2700	39.8390
 1.2710	39.8400
 1.2720	39.8410
 1.2730	39.8420
 1.2740	39.8410
 1.2750	39.8390
 1.2760	39.8370
 1.2770	39.8350
 1.2780	39.8320
 1.2790	39.8260
 1.2800	39.8190
 1.2810	39.8110
 1.2820	39.8010
 1.2830	39.7890
 1.2840	39.7770
 1.2850	39.7620
 1.2860	39.7440
 1.2870	39.7240
 1.2880	39.7040
 1.2890	39.6810
 1.2900	39.6560
 1.2910	39.6280
 1.2920	39.5980
 1.2930	39.5640
 1.2940	39.5280
 1.2950	39.4890
 1.2960	39.4470
 1.2970	39.4030
 1.2980	39.3560
 1.2990	39.3060
 1.3000	39.2570
 1.3010	39.2040
 1.3020	39.1500
 1.3030	39.0950
 1.3040	39.0360
 1.3050	38.9750
 1.3060	38.9150
 1.3070	38.8520
 1.3080	38.7880
 1.3090	38.7230
 1.3100	38.6540
 1.3110	38.5840
 1.3120	38.5120
 1.3130	38.4370
 1.3140	38.3620
 1.3150	38.2840
 1.3160	38.2050
 1.3170	38.1240
 1.3180	38.0430
 1.3190	37.9580
 1.3200	37.8710
 1.3210	37.7820
 1.3220	37.6920
 1.3230	37.6030
 1.3240	37.5120
 1.3250	37.4190
 1.3260	37.3250
 1.3270	37.2250
 1.3280	37.1240
 1.3290	37.0210
 1.3300	36.9150
 1.3310	36.8090
 1.3320	36.7010
 1.3330	36.5920
 1.3340	36.4830
 1.3350	36.3720
 1.3360	36.2590
 1.3370	36.1470
 1.3380	36.0350
 1.3390	35.9220
 1.3400	35.8090
 1.3410	35.6970
 1.3420	35.5860
 1.3430	35.4760
 1.3440	35.3660
 1.3450	35.2570
 1.3460	35.1490
 1.3470	35.0420
 1.3480	34.9350
 1.3490	34.8300
 1.3500	34.7270
 1.3510	34.6240
 1.3520	34.5210
 1.3530	34.4180
 1.3540	34.3140
 1.3550	34.2090
 1.3560	34.1040
 1.3570	33.9960
 1.3580	33.8890
 1.3590	33.7820
 1.3600	33.6710
 1.3610	33.5580
 1.3620	33.4400
 1.3630	33.3190
 1.3640	33.1930
 1.3650	33.0610
 1.3660	32.9260
 1.3670	32.7850
 1.3680	32.6350
 1.3690	32.4770
 1.3700	32.3070
 1.3710	32.1260
 1.3720	31.9350
 1.3730	31.7290
 1.3740	31.5110
 1.3750	31.2770
 1.3760	31.0250
 1.3770	30.7560
 1.3780	30.4630
 1.3790	30.1520
 1.3800	29.8210
 1.3810	29.4650
 1.3820	29.0950
 1.3830	28.7070
 1.3840	28.3010
 1.3850	27.8760
 1.3860	27.4370
 1.3870	26.9780
 1.3880	26.5140
 1.3890	26.0390
 1.3900	25.5540
 1.3910	25.0680
 1.3920	24.5770
 1.3930	24.0800
 1.3940	23.5830
 1.3950	23.0810
 1.3960	22.5850
 1.3970	22.0970
 1.3980	21.6170
 1.3990	21.1540
 1.4000	20.7030
 1.4010	20.2630
 1.4020	19.8410
 1.4030	19.4320
 1.4040	19.0410
 1.4050	18.6680
 1.4060	18.3130
 1.4070	17.9810
 1.4080	17.6670
 1.4090	17.3700
 1.4100	17.0940
 1.4110	16.8340
 1.4120	16.5920
 1.4130	16.3690
 1.4140	16.1620
 1.4150	15.9730
 1.4160	15.7990
 1.4170	15.6370
 1.4180	15.4880
 1.4190	15.3500
 1.4200	15.2240
 1.4210	15.1100
 1.4220	15.0060
 1.4230	14.9120
 1.4240	14.8270
 1.4250	14.7490
 1.4260	14.6790
 1.4270	14.6150
 1.4280	14.5610
 1.4290	14.5100
 1.4300	14.4660
 1.4310	14.4270
 1.4320	14.3940
 1.4330	14.3650
 1.4340	14.3410
 1.4350	14.3200
 1.4360	14.3030
 1.4370	14.2890
 1.4380	14.2790
 1.4390	14.2730
 1.4400	14.2690
 1.4410	14.2680
 1.4420	14.2700
 1.4430	14.2730
 1.4440	14.2770
 1.4450	14.2840
 1.4460	14.2910
 1.4470	14.3010
 1.4480	14.3110
 1.4490	14.3230
 1.4500	14.3360
 1.4510	14.3490
 1.4520	14.3640
 1.4530	14.3810
 1.4540	14.3980
 1.4550	14.4170
 1.4560	14.4370
 1.4570	14.4580
 1.4580	14.4810
 1.4590	14.5070
 1.4600	14.5370
 1.4610	14.5700
 1.4620	14.6060
 1.4630	14.6450
 1.4640	14.6860
 1.4650	14.7300
 1.4660	14.7790
 1.4670	14.8310
 1.4680	14.8880
 1.4690	14.9490
 1.4700	15.0140
 1.4710	15.0820
 1.4720	15.1530
 1.4730	15.2280
 1.4740	15.3060
 1.4750	15.3860
 1.4760	15.4700
 1.4770	15.5560
 1.4780	15.6430
