Name: Ceanothus spinosus 3
Type: vegetation
Class: Shrub
Genus: Ceanothus
Species: spinosus
Sample No.: VH204
Owner: UCSB
Wavelength Range: VSWIR
Origin: 34.4906; -119.7908; WGS84
Collection Date: 10/13/2013
Description: Samples were collected as part of the HyspIRI Airborne Campaign. 48 individual plants were sampled in three times in 2013 - spring  summer  and fall. The name of the sample includes a 1  2  or 3 which references a different individual of the species. Samples were taken to JPL and processed within 48 hours of collection. The same leaves were processed in the Nicolet and then measured using the ASD.
Measurement: Bidirectional reflectance
First Column: X
Second Column: Y
X Units: Wavelength (micrometers)
Y Units: Reflectance (percentage)
First X Value: 0.35
Last X Value: 2.5
Number of X Values: 2151
Additional Information: vegetation.shrub.ceanothus.spinosus.vswir.vh204.ucsb.asd.ancillary.txt

 0.3500	10.6290
 0.3510	10.4270
 0.3520	10.2350
 0.3530	10.1090
 0.3540	10.0200
 0.3550	 9.8930
 0.3560	 9.9040
 0.3570	10.0020
 0.3580	10.0310
 0.3590	10.0410
 0.3600	 9.9850
 0.3610	 9.8670
 0.3620	 9.7690
 0.3630	 9.7410
 0.3640	 9.8080
 0.3650	 9.9290
 0.3660	 9.9080
 0.3670	 9.7960
 0.3680	 9.6580
 0.3690	 9.5740
 0.3700	 9.6850
 0.3710	 9.7440
 0.3720	 9.6540
 0.3730	 9.6800
 0.3740	 9.7650
 0.3750	 9.7720
 0.3760	 9.6180
 0.3770	 9.5870
 0.3780	 9.6600
 0.3790	 9.7570
 0.3800	 9.7690
 0.3810	 9.7320
 0.3820	 9.7030
 0.3830	 9.6960
 0.3840	 9.6020
 0.3850	 9.5480
 0.3860	 9.5700
 0.3870	 9.6530
 0.3880	 9.7530
 0.3890	 9.7050
 0.3900	 9.5550
 0.3910	 9.5610
 0.3920	 9.4850
 0.3930	 9.4570
 0.3940	 9.5600
 0.3950	 9.5780
 0.3960	 9.5910
 0.3970	 9.5700
 0.3980	 9.4680
 0.3990	 9.4820
 0.4000	 9.5380
 0.4010	 9.5580
 0.4020	 9.4910
 0.4030	 9.4700
 0.4040	 9.4890
 0.4050	 9.5040
 0.4060	 9.4750
 0.4070	 9.4390
 0.4080	 9.4370
 0.4090	 9.4910
 0.4100	 9.5000
 0.4110	 9.5200
 0.4120	 9.5670
 0.4130	 9.5460
 0.4140	 9.5230
 0.4150	 9.5380
 0.4160	 9.5960
 0.4170	 9.6060
 0.4180	 9.6140
 0.4190	 9.6420
 0.4200	 9.6840
 0.4210	 9.7130
 0.4220	 9.7290
 0.4230	 9.7400
 0.4240	 9.7720
 0.4250	 9.8030
 0.4260	 9.8290
 0.4270	 9.8560
 0.4280	 9.8900
 0.4290	 9.9090
 0.4300	 9.9100
 0.4310	 9.9180
 0.4320	 9.9400
 0.4330	 9.9670
 0.4340	 9.9820
 0.4350	 9.9660
 0.4360	 9.9770
 0.4370	10.0120
 0.4380	10.0240
 0.4390	10.0260
 0.4400	10.0450
 0.4410	10.0890
 0.4420	10.1310
 0.4430	10.1410
 0.4440	10.1390
 0.4450	10.1580
 0.4460	10.1900
 0.4470	10.2080
 0.4480	10.2070
 0.4490	10.2120
 0.4500	10.2210
 0.4510	10.2350
 0.4520	10.2510
 0.4530	10.2640
 0.4540	10.2850
 0.4550	10.3070
 0.4560	10.3090
 0.4570	10.3220
 0.4580	10.3220
 0.4590	10.3060
 0.4600	10.3230
 0.4610	10.3490
 0.4620	10.3560
 0.4630	10.3340
 0.4640	10.3530
 0.4650	10.3670
 0.4660	10.3590
 0.4670	10.3530
 0.4680	10.3600
 0.4690	10.3690
 0.4700	10.3690
 0.4710	10.3810
 0.4720	10.3900
 0.4730	10.3940
 0.4740	10.3940
 0.4750	10.3850
 0.4760	10.3790
 0.4770	10.3840
 0.4780	10.4000
 0.4790	10.4070
 0.4800	10.4040
 0.4810	10.4050
 0.4820	10.4190
 0.4830	10.4270
 0.4840	10.4260
 0.4850	10.4290
 0.4860	10.4380
 0.4870	10.4530
 0.4880	10.4700
 0.4890	10.4750
 0.4900	10.5040
 0.4910	10.5430
 0.4920	10.5610
 0.4930	10.5940
 0.4940	10.6310
 0.4950	10.6660
 0.4960	10.7110
 0.4970	10.7640
 0.4980	10.8180
 0.4990	10.8670
 0.5000	10.9200
 0.5010	10.9760
 0.5020	11.0390
 0.5030	11.1160
 0.5040	11.1970
 0.5050	11.2860
 0.5060	11.3850
 0.5070	11.4930
 0.5080	11.6080
 0.5090	11.7320
 0.5100	11.8690
 0.5110	12.0070
 0.5120	12.1640
 0.5130	12.3410
 0.5140	12.5100
 0.5150	12.7050
 0.5160	12.9170
 0.5170	13.1300
 0.5180	13.3470
 0.5190	13.5750
 0.5200	13.8180
 0.5210	14.0710
 0.5220	14.3150
 0.5230	14.5650
 0.5240	14.8250
 0.5250	15.0640
 0.5260	15.2990
 0.5270	15.5350
 0.5280	15.7650
 0.5290	15.9800
 0.5300	16.1840
 0.5310	16.3780
 0.5320	16.5570
 0.5330	16.7220
 0.5340	16.8780
 0.5350	17.0260
 0.5360	17.1540
 0.5370	17.2760
 0.5380	17.3940
 0.5390	17.4980
 0.5400	17.5790
 0.5410	17.6550
 0.5420	17.7330
 0.5430	17.8000
 0.5440	17.8700
 0.5450	17.9430
 0.5460	18.0130
 0.5470	18.1120
 0.5480	18.1990
 0.5490	18.2590
 0.5500	18.3080
 0.5510	18.3430
 0.5520	18.3670
 0.5530	18.3870
 0.5540	18.3910
 0.5550	18.3810
 0.5560	18.3580
 0.5570	18.3230
 0.5580	18.2700
 0.5590	18.2000
 0.5600	18.1190
 0.5610	18.0300
 0.5620	17.9250
 0.5630	17.8050
 0.5640	17.6720
 0.5650	17.5290
 0.5660	17.3750
 0.5670	17.2120
 0.5680	17.0470
 0.5690	16.8850
 0.5700	16.7260
 0.5710	16.5670
 0.5720	16.4070
 0.5730	16.2630
 0.5740	16.1370
 0.5750	16.0230
 0.5760	15.9010
 0.5770	15.7890
 0.5780	15.6920
 0.5790	15.5830
 0.5800	15.4840
 0.5810	15.3920
 0.5820	15.2980
 0.5830	15.2080
 0.5840	15.1350
 0.5850	15.0810
 0.5860	15.0330
 0.5870	14.9770
 0.5880	14.9150
 0.5890	14.8540
 0.5900	14.7960
 0.5910	14.7430
 0.5920	14.6980
 0.5930	14.6600
 0.5940	14.6280
 0.5950	14.6050
 0.5960	14.5870
 0.5970	14.5560
 0.5980	14.5280
 0.5990	14.4930
 0.6000	14.4400
 0.6010	14.3950
 0.6020	14.3540
 0.6030	14.3120
 0.6040	14.2610
 0.6050	14.2100
 0.6060	14.1560
 0.6070	14.0920
 0.6080	14.0190
 0.6090	13.9350
 0.6100	13.8390
 0.6110	13.7380
 0.6120	13.6640
 0.6130	13.6100
 0.6140	13.5610
 0.6150	13.5020
 0.6160	13.4350
 0.6170	13.3710
 0.6180	13.3220
 0.6190	13.2740
 0.6200	13.2250
 0.6210	13.1810
 0.6220	13.1510
 0.6230	13.1280
 0.6240	13.1090
 0.6250	13.0940
 0.6260	13.0800
 0.6270	13.0680
 0.6280	13.0600
 0.6290	13.0550
 0.6300	13.0480
 0.6310	13.0390
 0.6320	13.0310
 0.6330	13.0220
 0.6340	13.0000
 0.6350	12.9690
 0.6360	12.9300
 0.6370	12.8810
 0.6380	12.8190
 0.6390	12.7450
 0.6400	12.6600
 0.6410	12.5740
 0.6420	12.4840
 0.6430	12.3870
 0.6440	12.2850
 0.6450	12.1940
 0.6460	12.1090
 0.6470	12.0240
 0.6480	11.9420
 0.6490	11.8730
 0.6500	11.8170
 0.6510	11.7630
 0.6520	11.7220
 0.6530	11.6840
 0.6540	11.6440
 0.6550	11.6010
 0.6560	11.5550
 0.6570	11.5070
 0.6580	11.4580
 0.6590	11.3990
 0.6600	11.3360
 0.6610	11.2750
 0.6620	11.2190
 0.6630	11.1610
 0.6640	11.1070
 0.6650	11.0620
 0.6660	11.0190
 0.6670	10.9870
 0.6680	10.9630
 0.6690	10.9380
 0.6700	10.9230
 0.6710	10.9180
 0.6720	10.9200
 0.6730	10.9180
 0.6740	10.9270
 0.6750	10.9420
 0.6760	10.9590
 0.6770	10.9770
 0.6780	11.0030
 0.6790	11.0360
 0.6800	11.0740
 0.6810	11.1240
 0.6820	11.1820
 0.6830	11.2470
 0.6840	11.3290
 0.6850	11.4450
 0.6860	11.5870
 0.6870	11.7460
 0.6880	11.9480
 0.6890	12.1960
 0.6900	12.4950
 0.6910	12.8540
 0.6920	13.2790
 0.6930	13.7770
 0.6940	14.3550
 0.6950	15.0190
 0.6960	15.7710
 0.6970	16.6030
 0.6980	17.5010
 0.6990	18.4690
 0.7000	19.5010
 0.7010	20.5800
 0.7020	21.6860
 0.7030	22.8310
 0.7040	23.9890
 0.7050	25.1390
 0.7060	26.2880
 0.7070	27.4310
 0.7080	28.5650
 0.7090	29.6850
 0.7100	30.7910
 0.7110	31.8670
 0.7120	32.9140
 0.7130	33.9540
 0.7140	34.9570
 0.7150	35.9280
 0.7160	36.8740
 0.7170	37.7830
 0.7180	38.6650
 0.7190	39.5150
 0.7200	40.3230
 0.7210	41.1030
 0.7220	41.8500
 0.7230	42.5650
 0.7240	43.2570
 0.7250	43.9210
 0.7260	44.5370
 0.7270	45.1030
 0.7280	45.6620
 0.7290	46.1940
 0.7300	46.6850
 0.7310	47.1290
 0.7320	47.5620
 0.7330	47.9700
 0.7340	48.3500
 0.7350	48.7090
 0.7360	49.0440
 0.7370	49.3540
 0.7380	49.6390
 0.7390	49.9070
 0.7400	50.1690
 0.7410	50.4130
 0.7420	50.6260
 0.7430	50.8310
 0.7440	51.0140
 0.7450	51.1830
 0.7460	51.3580
 0.7470	51.5060
 0.7480	51.6310
 0.7490	51.7450
 0.7500	51.8680
 0.7510	51.9620
 0.7520	52.0400
 0.7530	52.1260
 0.7540	52.2220
 0.7550	52.2970
 0.7560	52.3530
 0.7570	52.4140
 0.7580	52.4670
 0.7590	52.5190
 0.7600	52.5660
 0.7610	52.5850
 0.7620	52.6170
 0.7630	52.6550
 0.7640	52.6850
 0.7650	52.7110
 0.7660	52.7430
 0.7670	52.7670
 0.7680	52.7660
 0.7690	52.7920
 0.7700	52.8190
 0.7710	52.8310
 0.7720	52.8360
 0.7730	52.8510
 0.7740	52.8680
 0.7750	52.8760
 0.7760	52.8800
 0.7770	52.8830
 0.7780	52.8900
 0.7790	52.9060
 0.7800	52.9260
 0.7810	52.9280
 0.7820	52.9260
 0.7830	52.9590
 0.7840	52.9700
 0.7850	52.9690
 0.7860	52.9750
 0.7870	52.9950
 0.7880	53.0070
 0.7890	53.0110
 0.7900	53.0170
 0.7910	53.0190
 0.7920	53.0270
 0.7930	53.0440
 0.7940	53.0610
 0.7950	53.0620
 0.7960	53.0600
 0.7970	53.0650
 0.7980	53.0670
 0.7990	53.0810
 0.8000	53.0940
 0.8010	53.0940
 0.8020	53.0990
 0.8030	53.1130
 0.8040	53.1270
 0.8050	53.1330
 0.8060	53.1490
 0.8070	53.1380
 0.8080	53.1180
 0.8090	53.1440
 0.8100	53.1790
 0.8110	53.1900
 0.8120	53.1790
 0.8130	53.1890
 0.8140	53.1910
 0.8150	53.1850
 0.8160	53.1810
 0.8170	53.1880
 0.8180	53.2100
 0.8190	53.2350
 0.8200	53.2420
 0.8210	53.2340
 0.8220	53.2340
 0.8230	53.2420
 0.8240	53.2380
 0.8250	53.2550
 0.8260	53.2730
 0.8270	53.2810
 0.8280	53.2880
 0.8290	53.2920
 0.8300	53.2910
 0.8310	53.2850
 0.8320	53.2850
 0.8330	53.2870
 0.8340	53.2990
 0.8350	53.3230
 0.8360	53.3230
 0.8370	53.3150
 0.8380	53.3190
 0.8390	53.3460
 0.8400	53.3510
 0.8410	53.3470
 0.8420	53.3490
 0.8430	53.3620
 0.8440	53.3570
 0.8450	53.3580
 0.8460	53.3790
 0.8470	53.3920
 0.8480	53.4040
 0.8490	53.4020
 0.8500	53.3800
 0.8510	53.4170
 0.8520	53.4500
 0.8530	53.4490
 0.8540	53.4230
 0.8550	53.4340
 0.8560	53.4620
 0.8570	53.4770
 0.8580	53.4590
 0.8590	53.4480
 0.8600	53.4630
 0.8610	53.4900
 0.8620	53.4750
 0.8630	53.4620
 0.8640	53.4700
 0.8650	53.4990
 0.8660	53.5140
 0.8670	53.5100
 0.8680	53.5000
 0.8690	53.5010
 0.8700	53.4920
 0.8710	53.4940
 0.8720	53.4990
 0.8730	53.4910
 0.8740	53.5080
 0.8750	53.5270
 0.8760	53.5320
 0.8770	53.5200
 0.8780	53.5200
 0.8790	53.5270
 0.8800	53.5350
 0.8810	53.5410
 0.8820	53.5290
 0.8830	53.5150
 0.8840	53.5170
 0.8850	53.5290
 0.8860	53.5180
 0.8870	53.5080
 0.8880	53.5240
 0.8890	53.5300
 0.8900	53.5330
 0.8910	53.5370
 0.8920	53.5410
 0.8930	53.5490
 0.8940	53.5320
 0.8950	53.5020
 0.8960	53.4950
 0.8970	53.5190
 0.8980	53.5310
 0.8990	53.5170
 0.9000	53.5020
 0.9010	53.5020
 0.9020	53.4950
 0.9030	53.4880
 0.9040	53.5220
 0.9050	53.5170
 0.9060	53.4890
 0.9070	53.4690
 0.9080	53.4760
 0.9090	53.4800
 0.9100	53.4850
 0.9110	53.4930
 0.9120	53.4610
 0.9130	53.4690
 0.9140	53.5000
 0.9150	53.5100
 0.9160	53.4820
 0.9170	53.4670
 0.9180	53.4740
 0.9190	53.4880
 0.9200	53.4910
 0.9210	53.4770
 0.9220	53.4510
 0.9230	53.4290
 0.9240	53.4370
 0.9250	53.4450
 0.9260	53.4420
 0.9270	53.4380
 0.9280	53.4150
 0.9290	53.3890
 0.9300	53.3580
 0.9310	53.3110
 0.9320	53.3210
 0.9330	53.3420
 0.9340	53.3420
 0.9350	53.3260
 0.9360	53.3130
 0.9370	53.2850
 0.9380	53.2450
 0.9390	53.2270
 0.9400	53.2160
 0.9410	53.2000
 0.9420	53.1730
 0.9430	53.1450
 0.9440	53.1130
 0.9450	53.0880
 0.9460	53.0800
 0.9470	53.0810
 0.9480	53.0550
 0.9490	53.0100
 0.9500	52.9630
 0.9510	52.9160
 0.9520	52.8550
 0.9530	52.8070
 0.9540	52.7870
 0.9550	52.7240
 0.9560	52.6840
 0.9570	52.6500
 0.9580	52.6030
 0.9590	52.5920
 0.9600	52.5560
 0.9610	52.4940
 0.9620	52.4380
 0.9630	52.4240
 0.9640	52.4090
 0.9650	52.3810
 0.9660	52.3480
 0.9670	52.3350
 0.9680	52.3210
 0.9690	52.3050
 0.9700	52.2920
 0.9710	52.2770
 0.9720	52.2660
 0.9730	52.2540
 0.9740	52.2380
 0.9750	52.2440
 0.9760	52.2190
 0.9770	52.1990
 0.9780	52.2420
 0.9790	52.2570
 0.9800	52.2710
 0.9810	52.2650
 0.9820	52.2240
 0.9830	52.2520
 0.9840	52.2590
 0.9850	52.2490
 0.9860	52.2710
 0.9870	52.3230
 0.9880	52.3300
 0.9890	52.3130
 0.9900	52.3320
 0.9910	52.3580
 0.9920	52.3560
 0.9930	52.3540
 0.9940	52.3530
 0.9950	52.3510
 0.9960	52.3500
 0.9970	52.3480
 0.9980	52.3470
 0.9990	52.3450
 1.0000	52.3440
 1.0010	52.3420
 1.0020	52.3400
 1.0030	52.3390
 1.0040	52.3370
 1.0050	52.3360
 1.0060	52.3340
 1.0070	52.3330
 1.0080	52.3310
 1.0090	52.3300
 1.0100	52.3300
 1.0110	52.3430
 1.0120	52.3600
 1.0130	52.3740
 1.0140	52.3880
 1.0150	52.4060
 1.0160	52.4200
 1.0170	52.4260
 1.0180	52.4490
 1.0190	52.4830
 1.0200	52.5100
 1.0210	52.5350
 1.0220	52.5580
 1.0230	52.5790
 1.0240	52.5930
 1.0250	52.6100
 1.0260	52.6270
 1.0270	52.6450
 1.0280	52.6720
 1.0290	52.6830
 1.0300	52.6850
 1.0310	52.6910
 1.0320	52.6910
 1.0330	52.6880
 1.0340	52.6960
 1.0350	52.7220
 1.0360	52.7430
 1.0370	52.7500
 1.0380	52.7630
 1.0390	52.7750
 1.0400	52.7840
 1.0410	52.7900
 1.0420	52.8000
 1.0430	52.8100
 1.0440	52.8170
 1.0450	52.8320
 1.0460	52.8350
 1.0470	52.8220
 1.0480	52.8230
 1.0490	52.8260
 1.0500	52.8280
 1.0510	52.8350
 1.0520	52.8500
 1.0530	52.8560
 1.0540	52.8570
 1.0550	52.8600
 1.0560	52.8600
 1.0570	52.8660
 1.0580	52.8750
 1.0590	52.8800
 1.0600	52.8850
 1.0610	52.8910
 1.0620	52.8920
 1.0630	52.8970
 1.0640	52.9050
 1.0650	52.9140
 1.0660	52.9260
 1.0670	52.9340
 1.0680	52.9410
 1.0690	52.9520
 1.0700	52.9530
 1.0710	52.9480
 1.0720	52.9480
 1.0730	52.9480
 1.0740	52.9480
 1.0750	52.9480
 1.0760	52.9520
 1.0770	52.9580
 1.0780	52.9610
 1.0790	52.9680
 1.0800	52.9720
 1.0810	52.9730
 1.0820	52.9750
 1.0830	52.9740
 1.0840	52.9780
 1.0850	52.9830
 1.0860	52.9870
 1.0870	52.9920
 1.0880	53.0040
 1.0890	53.0050
 1.0900	52.9990
 1.0910	52.9980
 1.0920	52.9990
 1.0930	52.9920
 1.0940	52.9820
 1.0950	52.9750
 1.0960	52.9610
 1.0970	52.9530
 1.0980	52.9560
 1.0990	52.9490
 1.1000	52.9350
 1.1010	52.9220
 1.1020	52.9060
 1.1030	52.8860
 1.1040	52.8770
 1.1050	52.8700
 1.1060	52.8630
 1.1070	52.8650
 1.1080	52.8550
 1.1090	52.8380
 1.1100	52.8250
 1.1110	52.8050
 1.1120	52.7900
 1.1130	52.7820
 1.1140	52.7680
 1.1150	52.7550
 1.1160	52.7350
 1.1170	52.7140
 1.1180	52.6880
 1.1190	52.6530
 1.1200	52.6200
 1.1210	52.5820
 1.1220	52.5460
 1.1230	52.5110
 1.1240	52.4700
 1.1250	52.4270
 1.1260	52.3820
 1.1270	52.3340
 1.1280	52.2850
 1.1290	52.2300
 1.1300	52.1720
 1.1310	52.1100
 1.1320	52.0450
 1.1330	51.9750
 1.1340	51.9020
 1.1350	51.8220
 1.1360	51.7340
 1.1370	51.6440
 1.1380	51.5460
 1.1390	51.4470
 1.1400	51.3460
 1.1410	51.2440
 1.1420	51.1370
 1.1430	51.0250
 1.1440	50.9140
 1.1450	50.7960
 1.1460	50.6840
 1.1470	50.5750
 1.1480	50.4680
 1.1490	50.3620
 1.1500	50.2600
 1.1510	50.1580
 1.1520	50.0670
 1.1530	49.9820
 1.1540	49.9040
 1.1550	49.8370
 1.1560	49.7720
 1.1570	49.6980
 1.1580	49.6370
 1.1590	49.5850
 1.1600	49.5320
 1.1610	49.5000
 1.1620	49.4740
 1.1630	49.4390
 1.1640	49.4150
 1.1650	49.3920
 1.1660	49.3680
 1.1670	49.3520
 1.1680	49.3450
 1.1690	49.3360
 1.1700	49.3320
 1.1710	49.3250
 1.1720	49.3160
 1.1730	49.3100
 1.1740	49.3060
 1.1750	49.3000
 1.1760	49.2980
 1.1770	49.2940
 1.1780	49.2830
 1.1790	49.2770
 1.1800	49.2680
 1.1810	49.2540
 1.1820	49.2440
 1.1830	49.2360
 1.1840	49.2310
 1.1850	49.2240
 1.1860	49.2180
 1.1870	49.2180
 1.1880	49.2170
 1.1890	49.2160
 1.1900	49.2160
 1.1910	49.2180
 1.1920	49.2180
 1.1930	49.2200
 1.1940	49.2220
 1.1950	49.2230
 1.1960	49.2230
 1.1970	49.2240
 1.1980	49.2230
 1.1990	49.2300
 1.2000	49.2370
 1.2010	49.2500
 1.2020	49.2600
 1.2030	49.2700
 1.2040	49.2860
 1.2050	49.2990
 1.2060	49.3180
 1.2070	49.3310
 1.2080	49.3430
 1.2090	49.3620
 1.2100	49.3800
 1.2110	49.4000
 1.2120	49.4250
 1.2130	49.4470
 1.2140	49.4720
 1.2150	49.4940
 1.2160	49.5130
 1.2170	49.5350
 1.2180	49.5570
 1.2190	49.5680
 1.2200	49.5830
 1.2210	49.6060
 1.2220	49.6240
 1.2230	49.6390
 1.2240	49.6560
 1.2250	49.6740
 1.2260	49.6910
 1.2270	49.7140
 1.2280	49.7380
 1.2290	49.7550
 1.2300	49.7760
 1.2310	49.7990
 1.2320	49.8150
 1.2330	49.8350
 1.2340	49.8560
 1.2350	49.8780
 1.2360	49.8990
 1.2370	49.9230
 1.2380	49.9430
 1.2390	49.9610
 1.2400	49.9710
 1.2410	49.9840
 1.2420	50.0010
 1.2430	50.0150
 1.2440	50.0330
 1.2450	50.0480
 1.2460	50.0560
 1.2470	50.0620
 1.2480	50.0620
 1.2490	50.0680
 1.2500	50.0790
 1.2510	50.0880
 1.2520	50.1020
 1.2530	50.1060
 1.2540	50.1020
 1.2550	50.1060
 1.2560	50.1080
 1.2570	50.1120
 1.2580	50.1240
 1.2590	50.1330
 1.2600	50.1390
 1.2610	50.1440
 1.2620	50.1520
 1.2630	50.1560
 1.2640	50.1540
 1.2650	50.1630
 1.2660	50.1660
 1.2670	50.1580
 1.2680	50.1530
 1.2690	50.1430
 1.2700	50.1320
 1.2710	50.1300
 1.2720	50.1230
 1.2730	50.1110
 1.2740	50.0970
 1.2750	50.0780
 1.2760	50.0630
 1.2770	50.0500
 1.2780	50.0330
 1.2790	50.0170
 1.2800	50.0040
 1.2810	49.9900
 1.2820	49.9720
 1.2830	49.9580
 1.2840	49.9400
 1.2850	49.9150
 1.2860	49.9010
 1.2870	49.8840
 1.2880	49.8630
 1.2890	49.8420
 1.2900	49.8260
 1.2910	49.7970
 1.2920	49.7760
 1.2930	49.7580
 1.2940	49.7370
 1.2950	49.7220
 1.2960	49.7020
 1.2970	49.6820
 1.2980	49.6630
 1.2990	49.6390
 1.3000	49.6110
 1.3010	49.5780
 1.3020	49.5450
 1.3030	49.5100
 1.3040	49.4730
 1.3050	49.4350
 1.3060	49.3920
 1.3070	49.3460
 1.3080	49.2950
 1.3090	49.2420
 1.3100	49.1880
 1.3110	49.1280
 1.3120	49.0710
 1.3130	49.0130
 1.3140	48.9480
 1.3150	48.8800
 1.3160	48.8080
 1.3170	48.7310
 1.3180	48.6500
 1.3190	48.5650
 1.3200	48.4740
 1.3210	48.3800
 1.3220	48.2820
 1.3230	48.1830
 1.3240	48.0820
 1.3250	47.9830
 1.3260	47.8820
 1.3270	47.7700
 1.3280	47.6570
 1.3290	47.5410
 1.3300	47.4220
 1.3310	47.3060
 1.3320	47.1850
 1.3330	47.0570
 1.3340	46.9280
 1.3350	46.7990
 1.3360	46.6710
 1.3370	46.5380
 1.3380	46.4020
 1.3390	46.2640
 1.3400	46.1190
 1.3410	45.9790
 1.3420	45.8420
 1.3430	45.7030
 1.3440	45.5700
 1.3450	45.4380
 1.3460	45.3110
 1.3470	45.1840
 1.3480	45.0580
 1.3490	44.9310
 1.3500	44.8040
 1.3510	44.6760
 1.3520	44.5500
 1.3530	44.4270
 1.3540	44.3070
 1.3550	44.1860
 1.3560	44.0640
 1.3570	43.9470
 1.3580	43.8270
 1.3590	43.7040
 1.3600	43.5790
 1.3610	43.4470
 1.3620	43.3120
 1.3630	43.1780
 1.3640	43.0380
 1.3650	42.8910
 1.3660	42.7370
 1.3670	42.5710
 1.3680	42.3910
 1.3690	42.2050
 1.3700	42.0120
 1.3710	41.8080
 1.3720	41.5970
 1.3730	41.3700
 1.3740	41.1270
 1.3750	40.8720
 1.3760	40.6000
 1.3770	40.3050
 1.3780	39.9900
 1.3790	39.6590
 1.3800	39.3050
 1.3810	38.9320
 1.3820	38.5390
 1.3830	38.1270
 1.3840	37.6920
 1.3850	37.2340
 1.3860	36.7600
 1.3870	36.2650
 1.3880	35.7600
 1.3890	35.2400
 1.3900	34.7040
 1.3910	34.1640
 1.3920	33.6140
 1.3930	33.0550
 1.3940	32.4960
 1.3950	31.9260
 1.3960	31.3580
 1.3970	30.8010
 1.3980	30.2450
 1.3990	29.7030
 1.4000	29.1730
 1.4010	28.6490
 1.4020	28.1420
 1.4030	27.6520
 1.4040	27.1800
 1.4050	26.7290
 1.4060	26.2940
 1.4070	25.8840
 1.4080	25.4920
 1.4090	25.1170
 1.4100	24.7650
 1.4110	24.4290
 1.4120	24.1150
 1.4130	23.8230
 1.4140	23.5510
 1.4150	23.3040
 1.4160	23.0740
 1.4170	22.8600
 1.4180	22.6650
 1.4190	22.4840
 1.4200	22.3180
 1.4210	22.1700
 1.4220	22.0330
 1.4230	21.9100
 1.4240	21.7970
 1.4250	21.6950
 1.4260	21.6030
 1.4270	21.5210
 1.4280	21.4500
 1.4290	21.3880
 1.4300	21.3340
 1.4310	21.2870
 1.4320	21.2500
 1.4330	21.2180
 1.4340	21.1930
 1.4350	21.1730
 1.4360	21.1580
 1.4370	21.1500
 1.4380	21.1460
 1.4390	21.1450
 1.4400	21.1500
 1.4410	21.1560
 1.4420	21.1640
 1.4430	21.1740
 1.4440	21.1910
 1.4450	21.2080
 1.4460	21.2280
 1.4470	21.2530
 1.4480	21.2740
 1.4490	21.2960
 1.4500	21.3220
 1.4510	21.3460
 1.4520	21.3740
 1.4530	21.4040
 1.4540	21.4320
 1.4550	21.4630
 1.4560	21.4920
 1.4570	21.5250
 1.4580	21.5640
 1.4590	21.6040
 1.4600	21.6490
 1.4610	21.7000
 1.4620	21.7530
 1.4630	21.8110
 1.4640	21.8730
 1.4650	21.9360
 1.4660	22.0050
 1.4670	22.0790
 1.4680	22.1580
 1.4690	22.2430
 1.4700	22.3310
