Name: Bromus diandrus
Type: vegetation
Class: grass
Genus: Bromus
Species: diandrus
Sample No.: VH350
Owner: UCSB
Wavelength Range: VSWIR
Origin: 34.5143; -119.798367; WGS84
Collection Date: 3/18/2015
Description: Samples were collected as part of the HyspIRI Airborne Campaign proposal titled: HyspIRI discrimination of plant species and functional types along a strong environmental temperature gradient. The same materials were processed in the Nicolet and then measured using the ASD.
Measurement: Bidirectional reflectance
First Column: X
Second Column: Y
X Units: Wavelength (micrometer)
Y Units: Reflectance (percentage)
First X Value: 0.35
Last X Value: 2.5
Number of X Values: 2151
Additional Information: 

 0.3500	 6.4080
 0.3510	 6.2330
 0.3520	 6.2170
 0.3530	 6.2750
 0.3540	 6.2450
 0.3550	 6.0770
 0.3560	 6.1180
 0.3570	 6.1910
 0.3580	 5.9300
 0.3590	 5.7800
 0.3600	 5.8520
 0.3610	 6.0090
 0.3620	 5.8280
 0.3630	 5.8310
 0.3640	 5.9260
 0.3650	 5.9180
 0.3660	 5.8270
 0.3670	 5.8540
 0.3680	 5.9480
 0.3690	 5.9020
 0.3700	 5.8900
 0.3710	 5.8500
 0.3720	 5.7860
 0.3730	 5.8940
 0.3740	 5.8970
 0.3750	 5.8060
 0.3760	 5.7390
 0.3770	 5.8260
 0.3780	 5.8530
 0.3790	 5.8250
 0.3800	 5.9210
 0.3810	 5.8870
 0.3820	 5.9010
 0.3830	 6.0210
 0.3840	 5.8730
 0.3850	 5.8490
 0.3860	 5.9640
 0.3870	 6.0770
 0.3880	 6.0920
 0.3890	 6.1040
 0.3900	 6.1360
 0.3910	 6.1280
 0.3920	 6.2240
 0.3930	 6.3340
 0.3940	 6.3800
 0.3950	 6.4330
 0.3960	 6.5180
 0.3970	 6.6180
 0.3980	 6.6990
 0.3990	 6.7920
 0.4000	 6.9150
 0.4010	 7.0390
 0.4020	 7.0680
 0.4030	 7.2380
 0.4040	 7.4270
 0.4050	 7.5010
 0.4060	 7.6070
 0.4070	 7.7640
 0.4080	 7.9230
 0.4090	 8.0030
 0.4100	 8.1120
 0.4110	 8.2310
 0.4120	 8.3470
 0.4130	 8.4860
 0.4140	 8.6280
 0.4150	 8.7440
 0.4160	 8.8200
 0.4170	 8.9410
 0.4180	 9.0640
 0.4190	 9.1560
 0.4200	 9.2100
 0.4210	 9.2670
 0.4220	 9.3440
 0.4230	 9.4360
 0.4240	 9.5180
 0.4250	 9.5650
 0.4260	 9.5970
 0.4270	 9.6490
 0.4280	 9.7160
 0.4290	 9.7730
 0.4300	 9.8100
 0.4310	 9.8440
 0.4320	 9.8760
 0.4330	 9.9070
 0.4340	 9.9380
 0.4350	 9.9610
 0.4360	 9.9930
 0.4370	10.0320
 0.4380	10.0600
 0.4390	10.0890
 0.4400	10.1210
 0.4410	10.1540
 0.4420	10.1780
 0.4430	10.2050
 0.4440	10.2430
 0.4450	10.2930
 0.4460	10.3250
 0.4470	10.3640
 0.4480	10.4130
 0.4490	10.4430
 0.4500	10.4770
 0.4510	10.5080
 0.4520	10.5320
 0.4530	10.5800
 0.4540	10.6070
 0.4550	10.6230
 0.4560	10.6650
 0.4570	10.6980
 0.4580	10.7070
 0.4590	10.7000
 0.4600	10.7250
 0.4610	10.7340
 0.4620	10.7300
 0.4630	10.7340
 0.4640	10.7540
 0.4650	10.7630
 0.4660	10.7570
 0.4670	10.7540
 0.4680	10.7580
 0.4690	10.7630
 0.4700	10.7660
 0.4710	10.7670
 0.4720	10.7730
 0.4730	10.7770
 0.4740	10.7740
 0.4750	10.7800
 0.4760	10.7890
 0.4770	10.7960
 0.4780	10.8020
 0.4790	10.8080
 0.4800	10.8140
 0.4810	10.8190
 0.4820	10.8310
 0.4830	10.8560
 0.4840	10.8810
 0.4850	10.8810
 0.4860	10.8970
 0.4870	10.9290
 0.4880	10.9690
 0.4890	11.0060
 0.4900	11.0520
 0.4910	11.1060
 0.4920	11.1590
 0.4930	11.2290
 0.4940	11.3020
 0.4950	11.3760
 0.4960	11.4690
 0.4970	11.5730
 0.4980	11.6800
 0.4990	11.7860
 0.5000	11.9140
 0.5010	12.0560
 0.5020	12.2090
 0.5030	12.3770
 0.5040	12.5570
 0.5050	12.7460
 0.5060	12.9470
 0.5070	13.1850
 0.5080	13.4300
 0.5090	13.6860
 0.5100	13.9690
 0.5110	14.2650
 0.5120	14.5880
 0.5130	14.9370
 0.5140	15.2970
 0.5150	15.6660
 0.5160	16.0520
 0.5170	16.4600
 0.5180	16.8830
 0.5190	17.3060
 0.5200	17.7290
 0.5210	18.1610
 0.5220	18.5880
 0.5230	19.0040
 0.5240	19.4110
 0.5250	19.8090
 0.5260	20.1930
 0.5270	20.5570
 0.5280	20.8940
 0.5290	21.2060
 0.5300	21.5000
 0.5310	21.7730
 0.5320	22.0150
 0.5330	22.2380
 0.5340	22.4420
 0.5350	22.6230
 0.5360	22.7850
 0.5370	22.9280
 0.5380	23.0570
 0.5390	23.1780
 0.5400	23.2780
 0.5410	23.3650
 0.5420	23.4470
 0.5430	23.5260
 0.5440	23.6040
 0.5450	23.6810
 0.5460	23.7550
 0.5470	23.8320
 0.5480	23.9030
 0.5490	23.9590
 0.5500	23.9980
 0.5510	24.0360
 0.5520	24.0600
 0.5530	24.0620
 0.5540	24.0530
 0.5550	24.0250
 0.5560	23.9740
 0.5570	23.8990
 0.5580	23.8160
 0.5590	23.7130
 0.5600	23.5820
 0.5610	23.4390
 0.5620	23.2770
 0.5630	23.1020
 0.5640	22.9170
 0.5650	22.7210
 0.5660	22.5140
 0.5670	22.2970
 0.5680	22.0720
 0.5690	21.8300
 0.5700	21.5850
 0.5710	21.3470
 0.5720	21.1180
 0.5730	20.8950
 0.5740	20.6800
 0.5750	20.4770
 0.5760	20.2670
 0.5770	20.0690
 0.5780	19.8980
 0.5790	19.7420
 0.5800	19.5900
 0.5810	19.4370
 0.5820	19.2870
 0.5830	19.1460
 0.5840	19.0140
 0.5850	18.8930
 0.5860	18.7910
 0.5870	18.6940
 0.5880	18.6020
 0.5890	18.5120
 0.5900	18.4140
 0.5910	18.3210
 0.5920	18.2370
 0.5930	18.1600
 0.5940	18.1000
 0.5950	18.0480
 0.5960	17.9980
 0.5970	17.9470
 0.5980	17.8970
 0.5990	17.8470
 0.6000	17.7920
 0.6010	17.7360
 0.6020	17.6740
 0.6030	17.6030
 0.6040	17.5220
 0.6050	17.4390
 0.6060	17.3510
 0.6070	17.2550
 0.6080	17.1500
 0.6090	17.0360
 0.6100	16.9120
 0.6110	16.7800
 0.6120	16.6660
 0.6130	16.5550
 0.6140	16.4400
 0.6150	16.3260
 0.6160	16.2120
 0.6170	16.1040
 0.6180	16.0070
 0.6190	15.9130
 0.6200	15.8290
 0.6210	15.7570
 0.6220	15.6990
 0.6230	15.6390
 0.6240	15.5910
 0.6250	15.5610
 0.6260	15.5310
 0.6270	15.5010
 0.6280	15.4770
 0.6290	15.4660
 0.6300	15.4480
 0.6310	15.4230
 0.6320	15.3910
 0.6330	15.3530
 0.6340	15.2920
 0.6350	15.2130
 0.6360	15.1220
 0.6370	15.0050
 0.6380	14.8710
 0.6390	14.7240
 0.6400	14.5680
 0.6410	14.3910
 0.6420	14.2140
 0.6430	14.0470
 0.6440	13.8750
 0.6450	13.6990
 0.6460	13.5300
 0.6470	13.3780
 0.6480	13.2340
 0.6490	13.1040
 0.6500	12.9920
 0.6510	12.8990
 0.6520	12.8190
 0.6530	12.7480
 0.6540	12.6810
 0.6550	12.6140
 0.6560	12.5410
 0.6570	12.4570
 0.6580	12.3580
 0.6590	12.2630
 0.6600	12.1510
 0.6610	12.0220
 0.6620	11.8990
 0.6630	11.7810
 0.6640	11.6680
 0.6650	11.5620
 0.6660	11.4720
 0.6670	11.3890
 0.6680	11.3150
 0.6690	11.2590
 0.6700	11.2220
 0.6710	11.1970
 0.6720	11.1820
 0.6730	11.1840
 0.6740	11.1950
 0.6750	11.2150
 0.6760	11.2470
 0.6770	11.2890
 0.6780	11.3420
 0.6790	11.4080
 0.6800	11.4920
 0.6810	11.5980
 0.6820	11.7230
 0.6830	11.8690
 0.6840	12.0540
 0.6850	12.2790
 0.6860	12.5480
 0.6870	12.8700
 0.6880	13.2660
 0.6890	13.7400
 0.6900	14.2960
 0.6910	14.9390
 0.6920	15.6710
 0.6930	16.4860
 0.6940	17.3820
 0.6950	18.3640
 0.6960	19.4230
 0.6970	20.5460
 0.6980	21.7130
 0.6990	22.9200
 0.7000	24.1540
 0.7010	25.4040
 0.7020	26.6570
 0.7030	27.8950
 0.7040	29.1150
 0.7050	30.3110
 0.7060	31.4750
 0.7070	32.6130
 0.7080	33.7260
 0.7090	34.8200
 0.7100	35.8830
 0.7110	36.9310
 0.7120	37.9620
 0.7130	38.9580
 0.7140	39.9370
 0.7150	40.9030
 0.7160	41.8550
 0.7170	42.7790
 0.7180	43.6840
 0.7190	44.5670
 0.7200	45.4250
 0.7210	46.2680
 0.7220	47.0880
 0.7230	47.8760
 0.7240	48.6230
 0.7250	49.3620
 0.7260	50.0720
 0.7270	50.7370
 0.7280	51.3830
 0.7290	51.9980
 0.7300	52.5820
 0.7310	53.1370
 0.7320	53.6650
 0.7330	54.1640
 0.7340	54.6340
 0.7350	55.0730
 0.7360	55.4850
 0.7370	55.8680
 0.7380	56.2250
 0.7390	56.5700
 0.7400	56.8780
 0.7410	57.1590
 0.7420	57.4310
 0.7430	57.6770
 0.7440	57.8980
 0.7450	58.0970
 0.7460	58.2740
 0.7470	58.4290
 0.7480	58.5730
 0.7490	58.7100
 0.7500	58.8260
 0.7510	58.9250
 0.7520	59.0090
 0.7530	59.0840
 0.7540	59.1560
 0.7550	59.2140
 0.7560	59.2610
 0.7570	59.3080
 0.7580	59.3520
 0.7590	59.3860
 0.7600	59.4100
 0.7610	59.4340
 0.7620	59.4550
 0.7630	59.4700
 0.7640	59.4720
 0.7650	59.4730
 0.7660	59.4810
 0.7670	59.4870
 0.7680	59.4770
 0.7690	59.4730
 0.7700	59.4680
 0.7710	59.4590
 0.7720	59.4540
 0.7730	59.4480
 0.7740	59.4430
 0.7750	59.4390
 0.7760	59.4250
 0.7770	59.4230
 0.7780	59.4220
 0.7790	59.4080
 0.7800	59.3990
 0.7810	59.3990
 0.7820	59.4020
 0.7830	59.3950
 0.7840	59.3880
 0.7850	59.3810
 0.7860	59.3730
 0.7870	59.3680
 0.7880	59.3720
 0.7890	59.3730
 0.7900	59.3630
 0.7910	59.3610
 0.7920	59.3600
 0.7930	59.3610
 0.7940	59.3740
 0.7950	59.3610
 0.7960	59.3490
 0.7970	59.3540
 0.7980	59.3590
 0.7990	59.3550
 0.8000	59.3470
 0.8010	59.3420
 0.8020	59.3430
 0.8030	59.3400
 0.8040	59.3400
 0.8050	59.3540
 0.8060	59.3490
 0.8070	59.3450
 0.8080	59.3510
 0.8090	59.3560
 0.8100	59.3450
 0.8110	59.3390
 0.8120	59.3480
 0.8130	59.3520
 0.8140	59.3540
 0.8150	59.3570
 0.8160	59.3590
 0.8170	59.3500
 0.8180	59.3490
 0.8190	59.3530
 0.8200	59.3530
 0.8210	59.3600
 0.8220	59.3640
 0.8230	59.3630
 0.8240	59.3680
 0.8250	59.3540
 0.8260	59.3510
 0.8270	59.3670
 0.8280	59.3590
 0.8290	59.3570
 0.8300	59.3580
 0.8310	59.3510
 0.8320	59.3380
 0.8330	59.3470
 0.8340	59.3630
 0.8350	59.3600
 0.8360	59.3580
 0.8370	59.3660
 0.8380	59.3730
 0.8390	59.3630
 0.8400	59.3670
 0.8410	59.3720
 0.8420	59.3720
 0.8430	59.3840
 0.8440	59.3860
 0.8450	59.3850
 0.8460	59.3920
 0.8470	59.4000
 0.8480	59.4040
 0.8490	59.4060
 0.8500	59.4130
 0.8510	59.4170
 0.8520	59.4200
 0.8530	59.4240
 0.8540	59.4290
 0.8550	59.4270
 0.8560	59.4400
 0.8570	59.4570
 0.8580	59.4430
 0.8590	59.4320
 0.8600	59.4350
 0.8610	59.4450
 0.8620	59.4370
 0.8630	59.4440
 0.8640	59.4560
 0.8650	59.4580
 0.8660	59.4540
 0.8670	59.4570
 0.8680	59.4590
 0.8690	59.4490
 0.8700	59.4540
 0.8710	59.4550
 0.8720	59.4490
 0.8730	59.4430
 0.8740	59.4570
 0.8750	59.4580
 0.8760	59.4420
 0.8770	59.4350
 0.8780	59.4420
 0.8790	59.4390
 0.8800	59.4230
 0.8810	59.4330
 0.8820	59.4390
 0.8830	59.4300
 0.8840	59.4110
 0.8850	59.4150
 0.8860	59.4220
 0.8870	59.4190
 0.8880	59.4050
 0.8890	59.3990
 0.8900	59.3920
 0.8910	59.3890
 0.8920	59.3940
 0.8930	59.3850
 0.8940	59.3740
 0.8950	59.3710
 0.8960	59.3750
 0.8970	59.3540
 0.8980	59.3430
 0.8990	59.3460
 0.9000	59.3370
 0.9010	59.3320
 0.9020	59.3300
 0.9030	59.3270
 0.9040	59.3170
 0.9050	59.3070
 0.9060	59.2990
 0.9070	59.2910
 0.9080	59.2850
 0.9090	59.2790
 0.9100	59.2760
 0.9110	59.2730
 0.9120	59.2600
 0.9130	59.2460
 0.9140	59.2320
 0.9150	59.2190
 0.9160	59.2040
 0.9170	59.1940
 0.9180	59.1880
 0.9190	59.1820
 0.9200	59.1650
 0.9210	59.1480
 0.9220	59.1300
 0.9230	59.1030
 0.9240	59.0750
 0.9250	59.0520
 0.9260	59.0380
 0.9270	59.0290
 0.9280	59.0130
 0.9290	58.9860
 0.9300	58.9510
 0.9310	58.9230
 0.9320	58.8930
 0.9330	58.8540
 0.9340	58.8130
 0.9350	58.7970
 0.9360	58.7670
 0.9370	58.7250
 0.9380	58.6760
 0.9390	58.6280
 0.9400	58.6090
 0.9410	58.5770
 0.9420	58.5170
 0.9430	58.4860
 0.9440	58.4380
 0.9450	58.3810
 0.9460	58.3300
 0.9470	58.2750
 0.9480	58.2140
 0.9490	58.1480
 0.9500	58.0760
 0.9510	57.9920
 0.9520	57.9080
 0.9530	57.8420
 0.9540	57.7880
 0.9550	57.6790
 0.9560	57.6080
 0.9570	57.5470
 0.9580	57.4570
 0.9590	57.4050
 0.9600	57.3510
 0.9610	57.2940
 0.9620	57.2470
 0.9630	57.2200
 0.9640	57.2090
 0.9650	57.2020
 0.9660	57.1860
 0.9670	57.1320
 0.9680	57.1320
 0.9690	57.1430
 0.9700	57.0980
 0.9710	57.0930
 0.9720	57.0940
 0.9730	57.0990
 0.9740	57.1180
 0.9750	57.1220
 0.9760	57.1040
 0.9770	57.0920
 0.9780	57.1130
 0.9790	57.1170
 0.9800	57.1230
 0.9810	57.1390
 0.9820	57.1630
 0.9830	57.1880
 0.9840	57.1950
 0.9850	57.2050
 0.9860	57.2410
 0.9870	57.2380
 0.9880	57.2680
 0.9890	57.3040
 0.9900	57.2920
 0.9910	57.3230
 0.9920	57.3580
 0.9930	57.3740
 0.9940	57.3790
 0.9950	57.4280
 0.9960	57.4720
 0.9970	57.5030
 0.9980	57.5370
 0.9990	57.5810
 1.0000	57.7220
 1.0010	58.0360
 1.0020	58.2090
 1.0030	58.2400
 1.0040	58.2740
 1.0050	58.3040
 1.0060	58.3330
 1.0070	58.3600
 1.0080	58.3890
 1.0090	58.4180
 1.0100	58.4490
 1.0110	58.4850
 1.0120	58.5150
 1.0130	58.5450
 1.0140	58.5710
 1.0150	58.5930
 1.0160	58.6060
 1.0170	58.6350
 1.0180	58.6660
 1.0190	58.6860
 1.0200	58.7240
 1.0210	58.7560
 1.0220	58.7710
 1.0230	58.7960
 1.0240	58.8270
 1.0250	58.8530
 1.0260	58.8780
 1.0270	58.9010
 1.0280	58.9200
 1.0290	58.9460
 1.0300	58.9730
 1.0310	58.9980
 1.0320	59.0230
 1.0330	59.0520
 1.0340	59.0750
 1.0350	59.1000
 1.0360	59.1270
 1.0370	59.1450
 1.0380	59.1610
 1.0390	59.1680
 1.0400	59.1820
 1.0410	59.1940
 1.0420	59.2100
 1.0430	59.2320
 1.0440	59.2480
 1.0450	59.2650
 1.0460	59.2800
 1.0470	59.2920
 1.0480	59.3030
 1.0490	59.3120
 1.0500	59.3200
 1.0510	59.3300
 1.0520	59.3330
 1.0530	59.3420
 1.0540	59.3560
 1.0550	59.3610
 1.0560	59.3620
 1.0570	59.3690
 1.0580	59.3760
 1.0590	59.3810
 1.0600	59.3930
 1.0610	59.3990
 1.0620	59.3960
 1.0630	59.3960
 1.0640	59.3950
 1.0650	59.3950
 1.0660	59.3940
 1.0670	59.3920
 1.0680	59.3900
 1.0690	59.3900
 1.0700	59.3840
 1.0710	59.3730
 1.0720	59.3660
 1.0730	59.3580
 1.0740	59.3500
 1.0750	59.3430
 1.0760	59.3380
 1.0770	59.3320
 1.0780	59.3270
 1.0790	59.3300
 1.0800	59.3230
 1.0810	59.3090
 1.0820	59.2980
 1.0830	59.2800
 1.0840	59.2670
 1.0850	59.2560
 1.0860	59.2490
 1.0870	59.2380
 1.0880	59.2290
 1.0890	59.2170
 1.0900	59.2020
 1.0910	59.1920
 1.0920	59.1880
 1.0930	59.1730
 1.0940	59.1530
 1.0950	59.1330
 1.0960	59.1000
 1.0970	59.0790
 1.0980	59.0680
 1.0990	59.0510
 1.1000	59.0370
 1.1010	59.0170
 1.1020	58.9880
 1.1030	58.9660
 1.1040	58.9440
 1.1050	58.9200
 1.1060	58.9000
 1.1070	58.8860
 1.1080	58.8660
 1.1090	58.8460
 1.1100	58.8270
 1.1110	58.8080
 1.1120	58.7850
 1.1130	58.7600
 1.1140	58.7370
 1.1150	58.7150
 1.1160	58.6880
 1.1170	58.6620
 1.1180	58.6340
 1.1190	58.6010
 1.1200	58.5710
 1.1210	58.5350
 1.1220	58.4930
 1.1230	58.4500
 1.1240	58.3980
 1.1250	58.3400
 1.1260	58.2780
 1.1270	58.2100
 1.1280	58.1340
 1.1290	58.0500
 1.1300	57.9610
 1.1310	57.8630
 1.1320	57.7570
 1.1330	57.6410
 1.1340	57.5180
 1.1350	57.3850
 1.1360	57.2410
 1.1370	57.0880
 1.1380	56.9290
 1.1390	56.7600
 1.1400	56.5920
 1.1410	56.4180
 1.1420	56.2440
 1.1430	56.0740
 1.1440	55.9040
 1.1450	55.7310
 1.1460	55.5670
 1.1470	55.4010
 1.1480	55.2490
 1.1490	55.0990
 1.1500	54.9630
 1.1510	54.8360
 1.1520	54.7210
 1.1530	54.6160
 1.1540	54.5220
 1.1550	54.4380
 1.1560	54.3630
 1.1570	54.2980
 1.1580	54.2410
 1.1590	54.1920
 1.1600	54.1520
 1.1610	54.1190
 1.1620	54.0940
 1.1630	54.0710
 1.1640	54.0490
 1.1650	54.0320
 1.1660	54.0170
 1.1670	54.0070
 1.1680	54.0040
 1.1690	53.9990
 1.1700	53.9990
 1.1710	53.9960
 1.1720	53.9910
 1.1730	53.9880
 1.1740	53.9870
 1.1750	53.9820
 1.1760	53.9750
 1.1770	53.9740
 1.1780	53.9670
 1.1790	53.9570
 1.1800	53.9530
 1.1810	53.9440
 1.1820	53.9360
 1.1830	53.9320
 1.1840	53.9250
 1.1850	53.9160
 1.1860	53.9040
 1.1870	53.8970
 1.1880	53.8890
 1.1890	53.8800
 1.1900	53.8750
 1.1910	53.8760
 1.1920	53.8730
 1.1930	53.8690
 1.1940	53.8710
 1.1950	53.8750
 1.1960	53.8780
 1.1970	53.8780
 1.1980	53.8860
 1.1990	53.8910
 1.2000	53.8950
 1.2010	53.9110
 1.2020	53.9250
 1.2030	53.9360
 1.2040	53.9490
 1.2050	53.9640
 1.2060	53.9780
 1.2070	53.9940
 1.2080	54.0130
 1.2090	54.0320
 1.2100	54.0510
 1.2110	54.0710
 1.2120	54.0940
 1.2130	54.1140
 1.2140	54.1310
 1.2150	54.1490
 1.2160	54.1680
 1.2170	54.1860
 1.2180	54.2080
 1.2190	54.2300
 1.2200	54.2540
 1.2210	54.2810
 1.2220	54.3010
 1.2230	54.3240
 1.2240	54.3510
 1.2250	54.3730
 1.2260	54.3960
 1.2270	54.4160
 1.2280	54.4300
 1.2290	54.4500
 1.2300	54.4740
 1.2310	54.4980
 1.2320	54.5240
 1.2330	54.5460
 1.2340	54.5670
 1.2350	54.5860
 1.2360	54.6040
 1.2370	54.6210
 1.2380	54.6400
 1.2390	54.6590
 1.2400	54.6780
 1.2410	54.6990
 1.2420	54.7150
 1.2430	54.7320
 1.2440	54.7500
 1.2450	54.7640
 1.2460	54.7790
 1.2470	54.7940
 1.2480	54.8090
 1.2490	54.8260
 1.2500	54.8410
 1.2510	54.8580
 1.2520	54.8730
 1.2530	54.8840
 1.2540	54.9000
 1.2550	54.9110
 1.2560	54.9140
 1.2570	54.9150
 1.2580	54.9180
 1.2590	54.9210
 1.2600	54.9250
 1.2610	54.9270
 1.2620	54.9300
 1.2630	54.9270
 1.2640	54.9200
 1.2650	54.9140
 1.2660	54.9120
 1.2670	54.9080
 1.2680	54.9020
 1.2690	54.8960
 1.2700	54.8880
 1.2710	54.8800
 1.2720	54.8720
 1.2730	54.8650
 1.2740	54.8570
 1.2750	54.8450
 1.2760	54.8310
 1.2770	54.8120
 1.2780	54.7880
 1.2790	54.7630
 1.2800	54.7390
 1.2810	54.7170
 1.2820	54.6930
 1.2830	54.6680
 1.2840	54.6450
 1.2850	54.6150
 1.2860	54.5840
 1.2870	54.5480
 1.2880	54.5090
 1.2890	54.4630
 1.2900	54.4180
 1.2910	54.3690
 1.2920	54.3230
 1.2930	54.2790
 1.2940	54.2270
 1.2950	54.1720
 1.2960	54.1140
 1.2970	54.0510
 1.2980	53.9840
 1.2990	53.9130
 1.3000	53.8310
 1.3010	53.7450
 1.3020	53.6590
 1.3030	53.5660
 1.3040	53.4780
 1.3050	53.3940
 1.3060	53.3000
 1.3070	53.2060
 1.3080	53.1100
 1.3090	53.0030
 1.3100	52.8970
 1.3110	52.7890
 1.3120	52.6730
 1.3130	52.5530
 1.3140	52.4310
 1.3150	52.3040
 1.3160	52.1750
 1.3170	52.0450
 1.3180	51.9100
 1.3190	51.7700
 1.3200	51.6220
 1.3210	51.4740
 1.3220	51.3280
 1.3230	51.1800
 1.3240	51.0330
 1.3250	50.8800
 1.3260	50.7200
 1.3270	50.5610
 1.3280	50.4000
 1.3290	50.2360
 1.3300	50.0720
 1.3310	49.9060
 1.3320	49.7350
 1.3330	49.5660
 1.3340	49.3980
 1.3350	49.2250
 1.3360	49.0540
 1.3370	48.8830
 1.3380	48.7090
 1.3390	48.5370
 1.3400	48.3680
 1.3410	48.2000
 1.3420	48.0350
 1.3430	47.8750
 1.3440	47.7140
 1.3450	47.5550
 1.3460	47.4010
 1.3470	47.2450
 1.3480	47.0860
 1.3490	46.9310
 1.3500	46.7790
 1.3510	46.6240
 1.3520	46.4750
 1.3530	46.3260
 1.3540	46.1730
 1.3550	46.0210
 1.3560	45.8660
 1.3570	45.7110
 1.3580	45.5560
 1.3590	45.3940
 1.3600	45.2250
 1.3610	45.0470
 1.3620	44.8590
 1.3630	44.6620
 1.3640	44.4550
 1.3650	44.2360
 1.3660	44.0100
 1.3670	43.7720
 1.3680	43.5180
 1.3690	43.2510
 1.3700	42.9630
 1.3710	42.6580
 1.3720	42.3350
 1.3730	41.9840
 1.3740	41.6160
 1.3750	41.2240
 1.3760	40.8060
 1.3770	40.3650
 1.3780	39.8920
 1.3790	39.3920
 1.3800	38.8620
 1.3810	38.3010
 1.3820	37.7200
 1.3830	37.1130
 1.3840	36.4870
 1.3850	35.8390
 1.3860	35.1770
 1.3870	34.4920
 1.3880	33.8060
 1.3890	33.1070
 1.3900	32.4020
 1.3910	31.7070
 1.3920	31.0090
 1.3930	30.3160
 1.3940	29.6360
 1.3950	28.9570
 1.3960	28.2960
 1.3970	27.6550
 1.3980	27.0320
 1.3990	26.4400
 1.4000	25.8710
 1.4010	25.3250
 1.4020	24.8080
 1.4030	24.3110
 1.4040	23.8440
 1.4050	23.4060
 1.4060	22.9940
 1.4070	22.6170
 1.4080	22.2640
 1.4090	21.9340
 1.4100	21.6290
 1.4110	21.3440
 1.4120	21.0790
 1.4130	20.8350
 1.4140	20.6120
 1.4150	20.4120
 1.4160	20.2280
 1.4170	20.0600
 1.4180	19.9060
 1.4190	19.7610
 1.4200	19.6300
 1.4210	19.5110
 1.4220	19.4030
 1.4230	19.3090
 1.4240	19.2230
 1.4250	19.1430
 1.4260	19.0710
 1.4270	19.0070
 1.4280	18.9500
 1.4290	18.9000
 1.4300	18.8600
 1.4310	18.8230
 1.4320	18.7920
 1.4330	18.7650
 1.4340	18.7440
 1.4350	18.7260
 1.4360	18.7140
 1.4370	18.7060
 1.4380	18.7010
 1.4390	18.7000
 1.4400	18.7020
 1.4410	18.7080
 1.4420	18.7160
 1.4430	18.7240
 1.4440	18.7330
 1.4450	18.7450
 1.4460	18.7570
 1.4470	18.7760
 1.4480	18.7950
 1.4490	18.8150
 1.4500	18.8390
 1.4510	18.8620
 1.4520	18.8870
 1.4530	18.9160
 1.4540	18.9450
 1.4550	18.9770
 1.4560	19.0130
 1.4570	19.0520
 1.4580	19.0960
 1.4590	19.1440
 1.4600	19.1970
 1.4610	19.2540
 1.4620	19.3140
 1.4630	19.3810
 1.4640	19.4540
 1.4650	19.5320
 1.4660	19.6180
 1.4670	19.7100
 1.4680	19.8070
 1.4690	19.9090
 1.4700	20.0160
 1.4710	20.1270
 1.4720	20.2410
 1.4730	20.3610
 1.4740	20.4870
 1.4750	20.6160
 1.4760	20.7490
 1.4770	20.8840
 1.4780	21.0190
 1.4790	21.1570
 1.4800	21.2980
 1.4810	21.4410
 1.4820	21.5850
