Name: Betula papyrifera
Type: Vegetation
Class: Tree
Genus: Betula
Species: papyrifera
Sample No.: BEPA-2-37
Owner: UCSB
Wavelength Range: TIR
Origin: USA; Massachusetts; Harvard Forest
Collection Date: 7/8/2013
Description: Samples were collected as part of NSF Macrosystem Biology proposal titled: Collaborative Research: Thermal controls on ecosystem metabolism and function: scaling from leaves to canopies to regions. Samples were collected and overnighted to JPL facilities for processing. The same leaves were processed in the Nicolet and then measured using the ASD.
Measurement: Hemispherical reflectance
First Column: X
Second Column: Y
X Units: Wavelength (micrometers)
Y Units: Reflectance (percentage)
First X Value: 2.501
Last X Value: 15.387
Number of X Values: 1737
Additional Information: vegetation.tree.betula.papyrifera.tir.bepa-2-37.ucsb.nicolet.ancillary.txt

 2.5010	19.5260
 2.5030	19.5160
 2.5040	19.5530
 2.5050	19.5720
 2.5060	19.6270
 2.5070	19.3990
 2.5090	19.0740
 2.5100	19.1960
 2.5110	19.2930
 2.5120	19.2710
 2.5140	19.2480
 2.5150	19.0940
 2.5160	19.0400
 2.5170	19.0010
 2.5180	19.1580
 2.5200	19.2990
 2.5210	19.4600
 2.5220	19.3820
 2.5230	19.2300
 2.5250	19.0460
 2.5260	19.0440
 2.5270	19.1720
 2.5280	19.2780
 2.5290	19.3160
 2.5310	19.4130
 2.5320	19.2010
 2.5330	19.0630
 2.5340	18.9070
 2.5360	18.8830
 2.5370	19.1100
 2.5380	19.2390
 2.5390	19.2270
 2.5410	19.3290
 2.5420	19.1290
 2.5430	19.0730
 2.5440	19.2530
 2.5460	19.3750
 2.5470	19.2240
 2.5480	19.1550
 2.5490	19.1010
 2.5510	19.0220
 2.5520	19.0880
 2.5530	19.3280
 2.5540	19.3380
 2.5560	19.2730
 2.5570	19.2190
 2.5580	19.2030
 2.5590	19.2600
 2.5610	19.3900
 2.5620	19.2280
 2.5630	19.2440
 2.5640	19.1000
 2.5660	19.1720
 2.5670	19.3290
 2.5680	19.2530
 2.5700	19.0750
 2.5710	19.0360
 2.5720	18.9310
 2.5730	19.1520
 2.5750	19.2420
 2.5760	19.1250
 2.5770	19.1140
 2.5790	19.4910
 2.5800	19.2380
 2.5810	19.2000
 2.5820	19.4010
 2.5840	19.2750
 2.5850	19.0440
 2.5860	18.9040
 2.5880	18.9200
 2.5890	18.8080
 2.5900	18.7880
 2.5910	18.7490
 2.5930	18.7770
 2.5940	18.9360
 2.5950	18.7630
 2.5970	18.7530
 2.5980	18.7250
 2.5990	18.8240
 2.6000	18.8810
 2.6020	18.9770
 2.6030	18.9440
 2.6040	18.6210
 2.6060	18.4250
 2.6070	18.5430
 2.6080	18.4450
 2.6100	18.3910
 2.6110	18.3180
 2.6120	18.4210
 2.6140	18.5390
 2.6150	18.3620
 2.6160	18.0270
 2.6180	17.9950
 2.6190	18.0370
 2.6200	18.1830
 2.6220	18.0560
 2.6230	17.8520
 2.6240	17.7530
 2.6260	17.7550
 2.6270	17.6100
 2.6280	17.4170
 2.6300	17.3710
 2.6310	17.4100
 2.6320	17.4510
 2.6340	17.2990
 2.6350	17.2010
 2.6360	17.2840
 2.6380	17.1600
 2.6390	17.0750
 2.6400	17.0920
 2.6420	16.9920
 2.6430	16.9530
 2.6440	16.9890
 2.6460	16.9540
 2.6470	17.0120
 2.6480	16.9420
 2.6500	16.6870
 2.6510	16.3930
 2.6520	16.4330
 2.6540	16.6890
 2.6550	16.8480
 2.6560	16.7900
 2.6580	16.7250
 2.6590	16.6210
 2.6610	16.3250
 2.6620	15.9160
 2.6630	16.1930
 2.6650	16.3510
 2.6660	16.0290
 2.6670	15.9460
 2.6690	16.2380
 2.6700	16.0840
 2.6720	15.8180
 2.6730	15.6590
 2.6740	15.8620
 2.6760	16.0750
 2.6770	16.1720
 2.6780	15.9070
 2.6800	15.7390
 2.6810	15.5410
 2.6830	15.5570
 2.6840	15.7000
 2.6850	15.6780
 2.6870	15.6750
 2.6880	15.7480
 2.6900	15.6730
 2.6910	15.7120
 2.6920	15.6360
 2.6940	15.5540
 2.6950	15.3060
 2.6970	15.0850
 2.6980	15.1430
 2.6990	15.4940
 2.7010	15.6450
 2.7020	15.4870
 2.7040	15.4180
 2.7050	15.3750
 2.7060	15.3730
 2.7080	15.3700
 2.7090	15.3680
 2.7110	15.5740
 2.7120	15.6160
 2.7130	15.5970
 2.7150	15.5730
 2.7160	15.4420
 2.7180	15.4990
 2.7190	15.6680
 2.7210	15.9100
 2.7220	15.6400
 2.7230	15.4660
 2.7250	15.7000
 2.7260	15.5340
 2.7280	15.4360
 2.7290	15.5500
 2.7310	15.4180
 2.7320	15.2230
 2.7330	15.5250
 2.7350	15.6450
 2.7360	15.6860
 2.7380	15.7490
 2.7390	15.9120
 2.7410	15.9010
 2.7420	15.6120
 2.7440	15.1740
 2.7450	15.1080
 2.7470	14.9870
 2.7480	15.1890
 2.7490	15.6540
 2.7510	15.7900
 2.7520	15.2250
 2.7540	15.3560
 2.7550	15.3230
 2.7570	15.0400
 2.7580	14.9600
 2.7600	15.3050
 2.7610	15.6690
 2.7630	15.4720
 2.7640	15.4370
 2.7660	15.6490
 2.7670	15.4480
 2.7680	15.6760
 2.7700	15.9960
 2.7710	16.0210
 2.7730	16.2470
 2.7740	16.2190
 2.7760	15.8250
 2.7770	15.6030
 2.7790	15.6000
 2.7800	16.1600
 2.7820	16.2050
 2.7830	15.8700
 2.7850	15.9290
 2.7860	16.1860
 2.7880	15.8280
 2.7890	15.7390
 2.7910	15.7100
 2.7920	15.7550
 2.7940	15.7690
 2.7950	15.7870
 2.7970	15.6070
 2.7980	15.7640
 2.8000	15.8980
 2.8010	16.0540
 2.8030	15.9510
 2.8040	15.7830
 2.8060	15.6750
 2.8070	15.6830
 2.8090	15.8650
 2.8110	15.9830
 2.8120	15.9500
 2.8140	16.0450
 2.8150	16.1840
 2.8170	16.1530
 2.8180	16.1360
 2.8200	16.2400
 2.8210	16.2190
 2.8230	16.3210
 2.8240	16.2470
 2.8260	16.2830
 2.8270	15.9750
 2.8290	15.9790
 2.8300	16.1200
 2.8320	16.1200
 2.8340	16.1010
 2.8350	16.0140
 2.8370	15.9690
 2.8380	16.0850
 2.8400	16.0390
 2.8410	16.1990
 2.8430	16.0650
 2.8440	15.9520
 2.8460	15.9030
 2.8480	16.0010
 2.8490	16.0910
 2.8510	16.1300
 2.8520	16.0360
 2.8540	16.1850
 2.8550	15.9970
 2.8570	15.7980
 2.8590	15.7870
 2.8600	15.9460
 2.8620	15.9780
 2.8630	16.0300
 2.8650	15.9590
 2.8660	16.0820
 2.8680	15.7420
 2.8700	15.5990
 2.8710	15.8360
 2.8730	15.9840
 2.8740	16.3060
 2.8760	16.1920
 2.8780	16.2950
 2.8790	16.5300
 2.8810	15.8680
 2.8820	15.6810
 2.8840	15.6140
 2.8860	15.9760
 2.8870	16.2240
 2.8890	16.3220
 2.8900	16.0300
 2.8920	15.9940
 2.8940	16.0640
 2.8950	15.8640
 2.8970	15.8790
 2.8980	15.8700
 2.9000	15.8520
 2.9020	16.2030
 2.9030	16.1750
 2.9050	16.0230
 2.9070	16.2110
 2.9080	16.3770
 2.9100	16.0700
 2.9120	15.7010
 2.9130	15.5900
 2.9150	15.7070
 2.9160	15.6610
 2.9180	15.8130
 2.9200	15.8770
 2.9210	16.1050
 2.9230	16.1840
 2.9250	16.0920
 2.9260	15.9970
 2.9280	16.1650
 2.9300	16.0310
 2.9310	15.9960
 2.9330	15.7980
 2.9350	15.8370
 2.9360	15.9070
 2.9380	16.0150
 2.9400	16.3280
 2.9410	16.5520
 2.9430	16.3750
 2.9450	16.1770
 2.9460	16.4940
 2.9480	16.6070
 2.9500	16.2550
 2.9510	15.8070
 2.9530	15.8860
 2.9550	16.4320
 2.9560	16.4480
 2.9580	16.5930
 2.9600	16.3150
 2.9610	15.8700
 2.9630	15.7030
 2.9650	16.8500
 2.9660	17.9900
 2.9680	17.1680
 2.9700	16.2320
 2.9720	16.9640
 2.9730	17.8960
 2.9750	16.8990
 2.9770	15.3550
 2.9780	14.7530
 2.9800	15.0130
 2.9820	15.0610
 2.9840	15.8140
 2.9850	16.6590
 2.9870	16.5280
 2.9890	16.8060
 2.9900	17.9080
 2.9920	17.2130
 2.9940	15.1760
 2.9960	13.9800
 2.9970	15.8390
 2.9990	18.9040
 3.0010	17.8890
 3.0030	16.9570
 3.0040	16.6280
 3.0060	16.1360
 3.0080	16.1580
 3.0100	15.9530
 3.0110	15.7620
 3.0130	16.6980
 3.0150	16.4850
 3.0170	15.9940
 3.0180	15.8460
 3.0200	15.6990
 3.0220	15.6480
 3.0240	15.2980
 3.0250	15.2250
 3.0270	15.4430
 3.0290	15.9570
 3.0310	16.0230
 3.0320	16.0470
 3.0340	15.4410
 3.0360	15.3710
 3.0380	16.8260
 3.0400	16.9180
 3.0410	15.3480
 3.0430	15.1690
 3.0450	14.7430
 3.0470	14.9890
 3.0480	16.4170
 3.0500	14.4140
 3.0520	11.3850
 3.0540	12.2420
 3.0560	13.3390
 3.0570	14.4640
 3.0590	13.8840
 3.0610	14.2690
 3.0630	13.3990
 3.0650	11.3440
 3.0660	12.7440
 3.0680	15.7800
 3.0700	17.0770
 3.0720	16.4080
 3.0740	16.0320
 3.0760	15.7310
 3.0770	15.6970
 3.0790	15.3100
 3.0810	15.4300
 3.0830	15.6460
 3.0850	15.8130
 3.0870	15.8620
 3.0880	15.9630
 3.0900	15.6290
 3.0920	15.7990
 3.0940	15.8130
 3.0960	15.8660
 3.0980	15.6370
 3.0990	15.6670
 3.1010	15.5520
 3.1030	15.2480
 3.1050	15.3550
 3.1070	15.5680
 3.1090	15.4140
 3.1110	15.4820
 3.1120	14.7640
 3.1140	14.8400
 3.1160	15.3990
 3.1180	15.9060
 3.1200	15.3610
 3.1220	14.5340
 3.1240	14.9600
 3.1260	15.4660
 3.1270	15.5730
 3.1290	15.5430
 3.1310	15.5340
 3.1330	15.9240
 3.1350	15.5600
 3.1370	15.0330
 3.1390	14.4010
 3.1410	14.4440
 3.1430	14.7880
 3.1450	14.7640
 3.1460	14.1510
 3.1480	15.7400
 3.1500	15.5990
 3.1520	14.0520
 3.1540	13.3970
 3.1560	14.7890
 3.1580	15.8180
 3.1600	15.7910
 3.1620	15.2290
 3.1640	13.7910
 3.1660	14.3080
 3.1680	14.2850
 3.1700	13.5860
 3.1710	13.7630
 3.1730	16.5970
 3.1750	18.1980
 3.1770	17.8320
 3.1790	15.5490
 3.1810	13.0120
 3.1830	15.1810
 3.1850	17.0800
 3.1870	16.2330
 3.1890	15.9010
 3.1910	15.3040
 3.1930	14.9550
 3.1950	15.4160
 3.1970	16.0510
 3.1990	15.8390
 3.2010	15.3860
 3.2030	15.1490
 3.2050	15.1770
 3.2070	15.0880
 3.2090	15.0360
 3.2110	14.9950
 3.2130	15.3230
 3.2150	15.4160
 3.2170	15.4110
 3.2190	15.4400
 3.2210	15.3940
 3.2230	15.2440
 3.2250	15.2730
 3.2270	15.3820
 3.2290	15.5040
 3.2310	15.5190
 3.2330	15.2870
 3.2350	15.3770
 3.2370	15.4170
 3.2390	15.2680
 3.2410	14.9390
 3.2430	14.8230
 3.2450	14.8250
 3.2470	15.0540
 3.2490	15.3470
 3.2510	15.4140
 3.2530	15.2800
 3.2550	15.2380
 3.2570	15.1880
 3.2590	15.2230
 3.2610	15.2240
 3.2630	15.1750
 3.2650	15.2120
 3.2670	15.0920
 3.2690	15.1260
 3.2720	15.2280
 3.2740	15.2540
 3.2760	15.2090
 3.2780	15.1160
 3.2800	14.9080
 3.2820	14.8460
 3.2840	15.0400
 3.2860	15.0370
 3.2880	14.9760
 3.2900	15.2950
 3.2920	15.4070
 3.2940	15.0670
 3.2960	14.9850
 3.2990	15.1210
 3.3010	15.2570
 3.3030	15.1970
 3.3050	15.0840
 3.3070	15.0400
 3.3090	14.8520
 3.3110	14.8160
 3.3130	14.7930
 3.3150	14.9090
 3.3180	15.0580
 3.3200	14.9990
 3.3220	15.0310
 3.3240	15.1040
 3.3260	15.0760
 3.3280	15.1490
 3.3300	15.2660
 3.3330	15.0680
 3.3350	14.9530
 3.3370	14.8600
 3.3390	14.8660
 3.3410	14.8530
 3.3430	14.7650
 3.3450	14.7980
 3.3480	15.1080
 3.3500	15.2600
 3.3520	15.1170
 3.3540	15.0690
 3.3560	15.1450
 3.3580	15.1800
 3.3610	15.1660
 3.3630	14.9990
 3.3650	14.9090
 3.3670	14.7680
 3.3690	14.6200
 3.3720	14.6080
 3.3740	14.7270
 3.3760	14.7710
 3.3780	14.8240
 3.3800	14.8590
 3.3830	14.9900
 3.3850	15.0520
 3.3870	15.0990
 3.3890	15.0950
 3.3910	15.1490
 3.3940	14.8910
 3.3960	14.6980
 3.3980	14.6690
 3.4000	14.7780
 3.4020	14.7710
 3.4050	14.8380
 3.4070	14.7420
 3.4090	14.6980
 3.4110	14.6970
 3.4140	14.6650
 3.4160	14.7460
 3.4180	14.8840
 3.4200	15.2810
 3.4230	15.8480
 3.4250	16.3960
 3.4270	17.1690
 3.4290	17.5460
 3.4320	17.5520
 3.4340	17.3250
 3.4360	17.0380
 3.4390	16.7590
 3.4410	16.3970
 3.4430	16.3140
 3.4450	16.5350
 3.4480	16.6100
 3.4500	16.5410
 3.4520	16.4840
 3.4550	16.4380
 3.4570	16.0220
 3.4590	15.8790
 3.4620	15.9960
 3.4640	16.1130
 3.4660	16.2920
 3.4680	16.3760
 3.4710	16.2310
 3.4730	16.0890
 3.4750	15.9860
 3.4780	15.8620
 3.4800	15.8010
 3.4820	15.7480
 3.4850	15.5380
 3.4870	15.5190
 3.4890	15.5520
 3.4920	15.5530
 3.4940	15.5480
 3.4970	15.4440
 3.4990	15.4250
 3.5010	15.3920
 3.5040	15.2580
 3.5060	15.5580
 3.5080	16.2430
 3.5110	17.0660
 3.5130	17.4590
 3.5160	17.3510
 3.5180	17.1560
 3.5200	16.9800
 3.5230	16.7140
 3.5250	16.5260
 3.5270	16.6390
 3.5300	16.6370
 3.5320	16.3510
 3.5350	16.1520
 3.5370	16.1680
 3.5400	16.1950
 3.5420	16.1660
 3.5440	16.1620
 3.5470	16.0820
 3.5490	15.9980
 3.5520	16.0320
 3.5540	15.9130
 3.5570	15.8650
 3.5590	16.1020
 3.5610	16.0500
 3.5640	15.9380
 3.5660	16.0610
 3.5690	16.0770
 3.5710	16.0020
 3.5740	16.0040
 3.5760	16.0730
 3.5790	15.9670
 3.5810	15.7360
 3.5840	15.8790
 3.5860	15.9680
 3.5890	15.7220
 3.5910	15.5420
 3.5930	15.6880
 3.5960	15.8640
 3.5980	15.8960
 3.6010	16.0810
 3.6030	16.0310
 3.6060	15.7170
 3.6080	15.7770
 3.6110	15.8390
 3.6140	15.9340
 3.6160	15.8580
 3.6190	15.7460
 3.6210	15.7220
 3.6240	15.7620
 3.6260	15.8040
 3.6290	15.7030
 3.6310	15.4630
 3.6340	15.4290
 3.6360	15.6780
 3.6390	15.8190
 3.6410	15.8140
 3.6440	15.9080
 3.6470	15.8440
 3.6490	15.7700
 3.6520	15.8870
 3.6540	15.8050
 3.6570	15.7020
 3.6590	15.7170
 3.6620	15.6810
 3.6650	15.7090
 3.6670	15.9010
 3.6700	15.9560
 3.6720	15.7940
 3.6750	15.7120
 3.6780	15.7510
 3.6800	15.8150
 3.6830	15.7730
 3.6850	15.8700
 3.6880	15.8180
 3.6910	15.7560
 3.6930	15.8280
 3.6960	15.8080
 3.6990	15.8360
 3.7010	15.8580
 3.7040	15.7760
 3.7060	15.7010
 3.7090	15.7650
 3.7120	15.8540
 3.7140	15.7710
 3.7170	15.6480
 3.7200	15.6710
 3.7220	15.8070
 3.7250	16.0580
 3.7280	16.1180
 3.7300	15.9410
 3.7330	15.8120
 3.7360	15.9040
 3.7390	16.0470
 3.7410	15.8580
 3.7440	15.7010
 3.7470	15.9000
 3.7490	15.9550
 3.7520	15.9120
 3.7550	16.1420
 3.7580	16.1200
 3.7600	16.0250
 3.7630	15.9540
 3.7660	15.9580
 3.7680	15.9350
 3.7710	15.8890
 3.7740	15.8730
 3.7770	15.9140
 3.7790	16.0260
 3.7820	16.0290
 3.7850	16.0370
 3.7880	16.1350
 3.7900	15.9960
 3.7930	16.0180
 3.7960	16.0780
 3.7990	16.0270
 3.8020	16.0140
 3.8040	16.0950
 3.8070	15.9630
 3.8100	15.8820
 3.8130	16.0980
 3.8160	16.1510
 3.8180	15.9230
 3.8210	15.7790
 3.8240	15.9970
 3.8270	16.1570
 3.8300	16.2370
 3.8330	16.2410
 3.8350	16.1210
 3.8380	15.9960
 3.8410	15.8620
 3.8440	15.8810
 3.8470	16.0220
 3.8500	16.0360
 3.8520	16.1440
 3.8550	16.2500
 3.8580	16.1610
 3.8610	16.2350
 3.8640	16.3200
 3.8670	16.3520
 3.8700	16.2460
 3.8730	16.0720
 3.8750	16.0680
 3.8780	16.0800
 3.8810	16.0690
 3.8840	16.0860
 3.8870	16.0650
 3.8900	16.0760
 3.8930	16.0100
 3.8960	15.9330
 3.8990	16.0600
 3.9020	16.2040
 3.9050	16.1330
 3.9080	16.1300
 3.9110	16.2320
 3.9140	16.2920
 3.9160	16.2050
 3.9190	16.2240
 3.9220	16.2960
 3.9250	16.2780
 3.9280	16.1970
 3.9310	16.1570
 3.9340	16.2070
 3.9370	16.2360
 3.9400	16.2790
 3.9430	16.3850
 3.9460	16.3580
 3.9490	16.3120
 3.9520	16.2900
 3.9550	16.2620
 3.9580	16.1720
 3.9610	16.2290
 3.9640	16.2610
 3.9670	16.2540
 3.9700	16.2780
 3.9730	16.3670
 3.9770	16.3540
 3.9800	16.2690
 3.9830	16.2300
 3.9860	16.3210
 3.9890	16.3750
 3.9920	16.4140
 3.9950	16.4120
 3.9980	16.3200
 4.0010	16.2240
 4.0040	16.2640
 4.0070	16.4060
 4.0100	16.4300
 4.0130	16.2660
 4.0170	16.1460
 4.0200	16.1740
 4.0230	16.2640
 4.0260	16.3280
 4.0290	16.3000
 4.0320	16.1730
 4.0350	16.1450
 4.0380	16.1280
 4.0420	16.1640
 4.0450	16.2000
 4.0480	16.1440
 4.0510	16.1470
 4.0540	16.1490
 4.0570	16.0110
 4.0610	15.9040
 4.0640	15.9610
 4.0670	16.0340
 4.0700	16.0200
 4.0730	16.0950
 4.0770	16.2500
 4.0800	16.3200
 4.0830	16.1470
 4.0860	16.0460
 4.0890	16.0800
 4.0930	16.1480
 4.0960	16.1290
 4.0990	16.0630
 4.1020	16.0130
 4.1060	16.0520
 4.1090	16.3090
 4.1120	16.3280
 4.1150	16.1450
 4.1190	16.0840
 4.1220	16.0490
 4.1250	16.1470
 4.1280	16.1990
 4.1320	16.1210
 4.1350	16.0620
 4.1380	15.9900
 4.1420	15.8960
 4.1450	15.9510
 4.1480	16.0070
 4.1520	16.0830
 4.1550	16.1300
 4.1580	16.1470
 4.1620	15.9890
 4.1650	16.0100
 4.1680	16.1630
 4.1720	16.1420
 4.1750	16.0240
 4.1780	15.9760
 4.1820	16.0190
 4.1850	16.1190
 4.1890	16.0020
 4.1920	16.0150
 4.1950	16.1410
 4.1990	16.2620
 4.2020	16.3230
 4.2060	16.4980
 4.2090	16.6670
 4.2120	16.6650
 4.2160	16.7950
 4.2190	17.0520
 4.2230	17.2790
 4.2260	17.5300
 4.2300	17.4240
 4.2330	17.4150
 4.2360	17.3270
 4.2400	17.5400
 4.2430	17.7750
 4.2470	17.4290
 4.2500	17.0420
 4.2540	16.7240
 4.2570	16.5870
 4.2610	16.8680
 4.2640	17.1530
 4.2680	17.0760
 4.2710	17.0340
 4.2750	17.1500
 4.2780	17.1360
 4.2820	17.0900
 4.2850	16.8950
 4.2890	16.7970
 4.2930	16.7150
 4.2960	16.7040
 4.3000	16.7560
 4.3030	16.9870
 4.3070	16.9280
 4.3100	16.6460
 4.3140	16.4050
 4.3180	16.3560
 4.3210	16.3970
 4.3250	16.2910
 4.3280	16.1860
 4.3320	16.1690
 4.3360	16.1780
 4.3390	16.0940
 4.3430	15.9960
 4.3470	16.0380
 4.3500	16.0520
 4.3540	16.0310
 4.3570	15.9200
 4.3610	15.8430
 4.3650	15.8520
 4.3680	15.8870
 4.3720	15.8050
 4.3760	15.7690
 4.3800	15.8730
 4.3830	15.8620
 4.3870	15.8020
 4.3910	15.7380
 4.3940	15.6900
 4.3980	15.7750
 4.4020	15.8350
 4.4060	15.7640
 4.4090	15.7200
 4.4130	15.7860
 4.4170	15.8970
 4.4210	15.7990
 4.4240	15.7130
 4.4280	15.7200
 4.4320	15.6920
 4.4360	15.7550
 4.4400	15.7290
 4.4430	15.5810
 4.4470	15.6660
 4.4510	15.7660
 4.4550	15.7380
 4.4590	15.7470
 4.4620	15.8140
 4.4660	15.7440
 4.4700	15.6850
 4.4740	15.6330
 4.4780	15.5680
 4.4820	15.5810
 4.4860	15.6960
 4.4900	15.6690
 4.4930	15.6330
 4.4970	15.6260
 4.5010	15.5510
 4.5050	15.5220
 4.5090	15.5470
 4.5130	15.4470
 4.5170	15.5330
 4.5210	15.6680
 4.5250	15.6500
 4.5290	15.6410
 4.5330	15.5770
 4.5370	15.5010
 4.5410	15.5660
 4.5450	15.6200
 4.5490	15.6230
 4.5530	15.5020
 4.5570	15.4680
 4.5610	15.5850
 4.5650	15.6900
 4.5690	15.6290
 4.5730	15.6120
 4.5770	15.6400
 4.5810	15.5600
 4.5850	15.5220
 4.5890	15.6200
 4.5930	15.6270
 4.5970	15.5330
 4.6010	15.5340
 4.6050	15.5660
 4.6090	15.6040
 4.6130	15.5870
 4.6170	15.6480
 4.6220	15.4690
 4.6260	15.0660
 4.6300	15.1100
 4.6340	15.4970
 4.6380	15.6350
 4.6420	15.5260
 4.6460	15.5220
 4.6510	15.4630
 4.6550	15.5150
 4.6590	15.5470
 4.6630	15.5970
 4.6670	15.5870
 4.6720	15.5460
 4.6760	15.5090
 4.6800	15.4930
 4.6840	15.6100
 4.6880	15.6190
 4.6930	15.5040
 4.6970	15.5090
 4.7010	15.5990
 4.7050	15.6290
 4.7100	15.5230
 4.7140	15.5110
 4.7180	15.5480
 4.7230	15.5150
 4.7270	15.4820
 4.7310	15.5530
 4.7360	15.5520
 4.7400	15.5830
 4.7440	15.6250
 4.7490	15.5690
 4.7530	15.4250
 4.7570	15.4140
 4.7620	15.5310
 4.7660	15.6870
 4.7700	15.6660
 4.7750	15.6060
 4.7790	15.5970
 4.7840	15.6420
 4.7880	15.5360
 4.7920	15.6550
 4.7970	15.6740
 4.8010	15.5990
 4.8060	15.5250
 4.8100	15.5810
 4.8150	15.5100
 4.8190	15.4680
 4.8240	15.5110
 4.8280	15.5930
 4.8330	15.6770
 4.8370	15.6660
 4.8420	15.6320
 4.8460	15.6830
 4.8510	15.6880
 4.8550	15.7310
 4.8600	15.7810
 4.8640	15.7830
 4.8690	15.7460
 4.8730	15.7120
 4.8780	15.6390
 4.8830	15.6390
 4.8870	15.7580
 4.8920	15.7070
 4.8960	15.5440
 4.9010	15.5530
 4.9060	15.6460
 4.9100	15.6870
 4.9150	15.6150
 4.9200	15.7000
 4.9240	15.7140
 4.9290	15.6490
 4.9340	15.6350
 4.9380	15.6530
 4.9430	15.6680
 4.9480	15.6850
 4.9530	15.6650
 4.9570	15.6130
 4.9620	15.6260
 4.9670	15.7030
 4.9720	15.7320
 4.9760	15.7360
 4.9810	15.7220
 4.9860	15.7570
 4.9910	15.7540
 4.9960	15.8540
 5.0000	15.8450
 5.0050	15.8040
 5.0100	15.8530
 5.0150	15.8770
 5.0200	15.8130
 5.0250	15.8320
 5.0290	15.8500
 5.0340	15.8250
 5.0390	15.7870
 5.0440	15.9350
 5.0490	16.0140
 5.0540	15.9850
 5.0590	15.9510
 5.0640	15.9080
 5.0690	15.8800
 5.0740	15.9280
 5.0790	15.9310
 5.0840	15.8770
 5.0890	15.8510
 5.0940	15.8660
 5.0990	15.8810
 5.1040	15.9150
 5.1090	15.9010
 5.1140	15.9630
 5.1190	15.9510
 5.1240	15.9360
 5.1290	15.9580
 5.1340	15.9670
 5.1390	15.9860
 5.1440	15.9840
 5.1490	15.9450
 5.1540	15.9800
 5.1600	15.9040
 5.1650	15.9820
 5.1700	16.0530
 5.1750	16.0490
 5.1800	16.0430
 5.1850	16.0900
 5.1910	16.0070
 5.1960	15.9240
 5.2010	15.9910
 5.2060	16.0970
 5.2110	16.1570
 5.2170	16.1620
 5.2220	16.0140
 5.2270	15.9860
 5.2320	16.0780
 5.2380	16.1480
 5.2430	16.0840
 5.2480	16.1310
 5.2540	16.0810
 5.2590	15.9740
 5.2640	15.9670
 5.2700	15.9940
 5.2750	15.8770
 5.2800	15.9280
 5.2860	16.0590
 5.2910	16.1100
 5.2970	16.1620
 5.3020	16.1440
 5.3070	16.0530
 5.3130	16.1040
 5.3180	16.1170
 5.3240	16.0990
 5.3290	16.0020
 5.3350	15.8920
 5.3400	15.9370
 5.3460	16.1100
 5.3510	16.2160
 5.3570	16.1790
 5.3620	16.0830
 5.3680	16.0780
 5.3730	16.0040
 5.3790	15.9520
 5.3850	15.9710
 5.3900	16.0410
 5.3960	16.0060
 5.4010	16.0130
 5.4070	16.0120
 5.4130	16.0330
 5.4180	15.9830
 5.4240	15.9980
 5.4300	15.9900
 5.4350	16.0120
 5.4410	15.9280
 5.4470	15.9170
 5.4530	15.9340
