Name: Quercus virginana
Type: vegetation
Class: Tree
Genus: Quercus
Species: virginana
Sample No.: JPL128
Owner: JPL
Wavelength Range: VSWIR
Origin: 34.12729; -118.11594;; WGS84
Collection Date: 9/7/2016
Description: Samples were collected at the Huntington Garden in San Marino California as part of a JPL Subcontract studying HyTES imagery. Samples were taken to JPL and processed within 48 hours of collection. The same leaves were processed in the Nicolet and then measured using the ASD.
Measurement: Bidirectional reflectance
First Column: X
Second Column: Y
X Units: Wavelength (micrometer)
Y Units: Reflectance (percentage)
First X Value: 0.35
Last X Value: 2.5
Number of X Values: 2151
Additional Information: vegetation.tree.quercus.virginana.vswir.jpl128.jpl.asd.ancillary.txt

 0.3500	 8.5330
 0.3510	 8.6620
 0.3520	 8.5860
 0.3530	 8.4920
 0.3540	 8.5470
 0.3550	 8.5040
 0.3560	 8.4570
 0.3570	 8.4490
 0.3580	 8.4730
 0.3590	 8.4120
 0.3600	 8.3570
 0.3610	 8.3580
 0.3620	 8.3750
 0.3630	 8.3790
 0.3640	 8.3740
 0.3650	 8.3660
 0.3660	 8.3100
 0.3670	 8.3230
 0.3680	 8.3600
 0.3690	 8.2830
 0.3700	 8.2380
 0.3710	 8.2320
 0.3720	 8.2510
 0.3730	 8.2920
 0.3740	 8.2870
 0.3750	 8.2650
 0.3760	 8.2690
 0.3770	 8.2420
 0.3780	 8.2290
 0.3790	 8.2580
 0.3800	 8.3280
 0.3810	 8.2820
 0.3820	 8.2410
 0.3830	 8.2800
 0.3840	 8.2820
 0.3850	 8.2850
 0.3860	 8.2880
 0.3870	 8.2820
 0.3880	 8.2820
 0.3890	 8.2900
 0.3900	 8.3000
 0.3910	 8.2970
 0.3920	 8.2990
 0.3930	 8.2950
 0.3940	 8.2900
 0.3950	 8.3450
 0.3960	 8.3250
 0.3970	 8.2820
 0.3980	 8.3340
 0.3990	 8.3410
 0.4000	 8.3380
 0.4010	 8.3480
 0.4020	 8.3620
 0.4030	 8.3740
 0.4040	 8.3800
 0.4050	 8.3770
 0.4060	 8.3820
 0.4070	 8.3910
 0.4080	 8.4000
 0.4090	 8.4080
 0.4100	 8.4080
 0.4110	 8.4230
 0.4120	 8.4500
 0.4130	 8.4340
 0.4140	 8.4350
 0.4150	 8.4470
 0.4160	 8.4430
 0.4170	 8.4350
 0.4180	 8.4330
 0.4190	 8.4340
 0.4200	 8.4250
 0.4210	 8.4160
 0.4220	 8.4120
 0.4230	 8.4120
 0.4240	 8.4080
 0.4250	 8.4080
 0.4260	 8.4070
 0.4270	 8.3970
 0.4280	 8.3980
 0.4290	 8.3940
 0.4300	 8.3780
 0.4310	 8.3580
 0.4320	 8.3480
 0.4330	 8.3330
 0.4340	 8.3030
 0.4350	 8.2930
 0.4360	 8.2940
 0.4370	 8.3030
 0.4380	 8.3180
 0.4390	 8.3300
 0.4400	 8.3490
 0.4410	 8.3770
 0.4420	 8.3930
 0.4430	 8.4000
 0.4440	 8.4000
 0.4450	 8.3950
 0.4460	 8.3970
 0.4470	 8.4020
 0.4480	 8.4060
 0.4490	 8.4130
 0.4500	 8.4160
 0.4510	 8.4170
 0.4520	 8.4180
 0.4530	 8.4240
 0.4540	 8.4240
 0.4550	 8.4190
 0.4560	 8.4140
 0.4570	 8.4240
 0.4580	 8.4340
 0.4590	 8.4330
 0.4600	 8.4240
 0.4610	 8.4270
 0.4620	 8.4360
 0.4630	 8.4360
 0.4640	 8.4340
 0.4650	 8.4350
 0.4660	 8.4400
 0.4670	 8.4450
 0.4680	 8.4430
 0.4690	 8.4400
 0.4700	 8.4390
 0.4710	 8.4390
 0.4720	 8.4390
 0.4730	 8.4380
 0.4740	 8.4360
 0.4750	 8.4420
 0.4760	 8.4460
 0.4770	 8.4460
 0.4780	 8.4510
 0.4790	 8.4530
 0.4800	 8.4530
 0.4810	 8.4520
 0.4820	 8.4510
 0.4830	 8.4440
 0.4840	 8.4330
 0.4850	 8.4280
 0.4860	 8.4230
 0.4870	 8.4210
 0.4880	 8.4220
 0.4890	 8.4210
 0.4900	 8.4290
 0.4910	 8.4440
 0.4920	 8.4560
 0.4930	 8.4640
 0.4940	 8.4730
 0.4950	 8.4840
 0.4960	 8.4940
 0.4970	 8.5100
 0.4980	 8.5270
 0.4990	 8.5400
 0.5000	 8.5550
 0.5010	 8.5750
 0.5020	 8.5980
 0.5030	 8.6170
 0.5040	 8.6480
 0.5050	 8.6770
 0.5060	 8.6990
 0.5070	 8.7340
 0.5080	 8.7710
 0.5090	 8.8120
 0.5100	 8.8640
 0.5110	 8.9150
 0.5120	 8.9730
 0.5130	 9.0420
 0.5140	 9.1230
 0.5150	 9.2070
 0.5160	 9.2980
 0.5170	 9.3990
 0.5180	 9.5060
 0.5190	 9.6220
 0.5200	 9.7440
 0.5210	 9.8690
 0.5220	10.0000
 0.5230	10.1340
 0.5240	10.2650
 0.5250	10.3940
 0.5260	10.5190
 0.5270	10.6390
 0.5280	10.7530
 0.5290	10.8570
 0.5300	10.9500
 0.5310	11.0350
 0.5320	11.1170
 0.5330	11.1900
 0.5340	11.2520
 0.5350	11.3040
 0.5360	11.3440
 0.5370	11.3780
 0.5380	11.4050
 0.5390	11.4200
 0.5400	11.4160
 0.5410	11.3960
 0.5420	11.3700
 0.5430	11.3590
 0.5440	11.3670
 0.5450	11.3930
 0.5460	11.4340
 0.5470	11.4810
 0.5480	11.5230
 0.5490	11.5500
 0.5500	11.5630
 0.5510	11.5700
 0.5520	11.5720
 0.5530	11.5700
 0.5540	11.5630
 0.5550	11.5470
 0.5560	11.5180
 0.5570	11.4770
 0.5580	11.4270
 0.5590	11.3690
 0.5600	11.3040
 0.5610	11.2340
 0.5620	11.1560
 0.5630	11.0700
 0.5640	10.9800
 0.5650	10.8830
 0.5660	10.7800
 0.5670	10.6780
 0.5680	10.5790
 0.5690	10.4780
 0.5700	10.3820
 0.5710	10.2980
 0.5720	10.2200
 0.5730	10.1450
 0.5740	10.0750
 0.5750	10.0130
 0.5760	 9.9560
 0.5770	 9.8990
 0.5780	 9.8410
 0.5790	 9.7820
 0.5800	 9.7290
 0.5810	 9.6810
 0.5820	 9.6370
 0.5830	 9.6030
 0.5840	 9.5760
 0.5850	 9.5540
 0.5860	 9.5310
 0.5870	 9.5010
 0.5880	 9.4660
 0.5890	 9.4330
 0.5900	 9.4140
 0.5910	 9.4090
 0.5920	 9.4120
 0.5930	 9.4090
 0.5940	 9.4020
 0.5950	 9.3940
 0.5960	 9.3850
 0.5970	 9.3720
 0.5980	 9.3540
 0.5990	 9.3370
 0.6000	 9.3220
 0.6010	 9.3090
 0.6020	 9.2960
 0.6030	 9.2800
 0.6040	 9.2590
 0.6050	 9.2370
 0.6060	 9.2140
 0.6070	 9.1900
 0.6080	 9.1570
 0.6090	 9.1090
 0.6100	 9.0390
 0.6110	 8.9540
 0.6120	 8.9280
 0.6130	 8.9350
 0.6140	 8.9470
 0.6150	 8.9360
 0.6160	 8.9220
 0.6170	 8.9080
 0.6180	 8.8880
 0.6190	 8.8650
 0.6200	 8.8450
 0.6210	 8.8320
 0.6220	 8.8230
 0.6230	 8.8130
 0.6240	 8.8030
 0.6250	 8.7980
 0.6260	 8.7930
 0.6270	 8.7900
 0.6280	 8.7880
 0.6290	 8.7830
 0.6300	 8.7740
 0.6310	 8.7690
 0.6320	 8.7690
 0.6330	 8.7700
 0.6340	 8.7670
 0.6350	 8.7590
 0.6360	 8.7480
 0.6370	 8.7350
 0.6380	 8.7210
 0.6390	 8.7060
 0.6400	 8.6890
 0.6410	 8.6720
 0.6420	 8.6550
 0.6430	 8.6370
 0.6440	 8.6190
 0.6450	 8.6050
 0.6460	 8.5930
 0.6470	 8.5790
 0.6480	 8.5710
 0.6490	 8.5650
 0.6500	 8.5590
 0.6510	 8.5530
 0.6520	 8.5480
 0.6530	 8.5460
 0.6540	 8.5480
 0.6550	 8.5470
 0.6560	 8.5460
 0.6570	 8.5450
 0.6580	 8.5410
 0.6590	 8.5380
 0.6600	 8.5360
 0.6610	 8.5330
 0.6620	 8.5290
 0.6630	 8.5260
 0.6640	 8.5260
 0.6650	 8.5310
 0.6660	 8.5340
 0.6670	 8.5420
 0.6680	 8.5520
 0.6690	 8.5600
 0.6700	 8.5710
 0.6710	 8.5850
 0.6720	 8.6010
 0.6730	 8.6220
 0.6740	 8.6420
 0.6750	 8.6640
 0.6760	 8.6880
 0.6770	 8.7130
 0.6780	 8.7400
 0.6790	 8.7690
 0.6800	 8.8030
 0.6810	 8.8370
 0.6820	 8.8700
 0.6830	 8.9040
 0.6840	 8.9420
 0.6850	 8.9800
 0.6860	 9.0150
 0.6870	 9.0480
 0.6880	 9.0860
 0.6890	 9.1320
 0.6900	 9.1870
 0.6910	 9.2540
 0.6920	 9.3430
 0.6930	 9.4570
 0.6940	 9.6000
 0.6950	 9.7880
 0.6960	10.0210
 0.6970	10.3000
 0.6980	10.6310
 0.6990	11.0140
 0.7000	11.4490
 0.7010	11.9330
 0.7020	12.4650
 0.7030	13.0380
 0.7040	13.6490
 0.7050	14.2920
 0.7060	14.9610
 0.7070	15.6610
 0.7080	16.3870
 0.7090	17.1370
 0.7100	17.9130
 0.7110	18.7080
 0.7120	19.5220
 0.7130	20.3560
 0.7140	21.2070
 0.7150	22.0740
 0.7160	22.9510
 0.7170	23.8380
 0.7180	24.7370
 0.7190	25.6440
 0.7200	26.5540
 0.7210	27.4620
 0.7220	28.3710
 0.7230	29.2760
 0.7240	30.1710
 0.7250	31.0500
 0.7260	31.9150
 0.7270	32.7630
 0.7280	33.5870
 0.7290	34.3880
 0.7300	35.1650
 0.7310	35.9160
 0.7320	36.6380
 0.7330	37.3320
 0.7340	37.9970
 0.7350	38.6320
 0.7360	39.2370
 0.7370	39.8120
 0.7380	40.3570
 0.7390	40.8690
 0.7400	41.3520
 0.7410	41.8070
 0.7420	42.2370
 0.7430	42.6310
 0.7440	42.9980
 0.7450	43.3420
 0.7460	43.6590
 0.7470	43.9520
 0.7480	44.2220
 0.7490	44.4670
 0.7500	44.6900
 0.7510	44.8950
 0.7520	45.0820
 0.7530	45.2570
 0.7540	45.4170
 0.7550	45.5590
 0.7560	45.6850
 0.7570	45.8000
 0.7580	45.9040
 0.7590	45.9990
 0.7600	46.0840
 0.7610	46.1610
 0.7620	46.2300
 0.7630	46.2920
 0.7640	46.3490
 0.7650	46.4000
 0.7660	46.4460
 0.7670	46.4870
 0.7680	46.5210
 0.7690	46.5520
 0.7700	46.5790
 0.7710	46.6010
 0.7720	46.6230
 0.7730	46.6430
 0.7740	46.6620
 0.7750	46.6810
 0.7760	46.6920
 0.7770	46.7060
 0.7780	46.7200
 0.7790	46.7320
 0.7800	46.7440
 0.7810	46.7550
 0.7820	46.7630
 0.7830	46.7720
 0.7840	46.7790
 0.7850	46.7860
 0.7860	46.7930
 0.7870	46.7930
 0.7880	46.7950
 0.7890	46.8000
 0.7900	46.8010
 0.7910	46.8030
 0.7920	46.8030
 0.7930	46.8010
 0.7940	46.8010
 0.7950	46.8010
 0.7960	46.7990
 0.7970	46.7950
 0.7980	46.7900
 0.7990	46.7860
 0.8000	46.7790
 0.8010	46.7700
 0.8020	46.7650
 0.8030	46.7560
 0.8040	46.7450
 0.8050	46.7390
 0.8060	46.7320
 0.8070	46.7220
 0.8080	46.7110
 0.8090	46.6980
 0.8100	46.6870
 0.8110	46.6780
 0.8120	46.6680
 0.8130	46.6560
 0.8140	46.6420
 0.8150	46.6260
 0.8160	46.6110
 0.8170	46.6020
 0.8180	46.5920
 0.8190	46.5800
 0.8200	46.5700
 0.8210	46.5560
 0.8220	46.5440
 0.8230	46.5330
 0.8240	46.5200
 0.8250	46.5050
 0.8260	46.4900
 0.8270	46.4760
 0.8280	46.4670
 0.8290	46.4560
 0.8300	46.4440
 0.8310	46.4310
 0.8320	46.4260
 0.8330	46.4160
 0.8340	46.4050
 0.8350	46.3990
 0.8360	46.3900
 0.8370	46.3800
 0.8380	46.3700
 0.8390	46.3600
 0.8400	46.3570
 0.8410	46.3540
 0.8420	46.3490
 0.8430	46.3460
 0.8440	46.3450
 0.8450	46.3410
 0.8460	46.3360
 0.8470	46.3330
 0.8480	46.3310
 0.8490	46.3290
 0.8500	46.3290
 0.8510	46.3290
 0.8520	46.3300
 0.8530	46.3300
 0.8540	46.3300
 0.8550	46.3290
 0.8560	46.3300
 0.8570	46.3330
 0.8580	46.3380
 0.8590	46.3420
 0.8600	46.3490
 0.8610	46.3590
 0.8620	46.3620
 0.8630	46.3670
 0.8640	46.3720
 0.8650	46.3740
 0.8660	46.3790
 0.8670	46.3830
 0.8680	46.3880
 0.8690	46.3970
 0.8700	46.4020
 0.8710	46.4110
 0.8720	46.4220
 0.8730	46.4300
 0.8740	46.4390
 0.8750	46.4470
 0.8760	46.4550
 0.8770	46.4650
 0.8780	46.4770
 0.8790	46.4890
 0.8800	46.4990
 0.8810	46.5110
 0.8820	46.5230
 0.8830	46.5330
 0.8840	46.5420
 0.8850	46.5550
 0.8860	46.5650
 0.8870	46.5720
 0.8880	46.5820
 0.8890	46.5950
 0.8900	46.6080
 0.8910	46.6170
 0.8920	46.6230
 0.8930	46.6350
 0.8940	46.6460
 0.8950	46.6580
 0.8960	46.6740
 0.8970	46.6830
 0.8980	46.6910
 0.8990	46.7000
 0.9000	46.7100
 0.9010	46.7180
 0.9020	46.7240
 0.9030	46.7310
 0.9040	46.7430
 0.9050	46.7540
 0.9060	46.7650
 0.9070	46.7740
 0.9080	46.7800
 0.9090	46.7850
 0.9100	46.7920
 0.9110	46.7980
 0.9120	46.8010
 0.9130	46.8090
 0.9140	46.8170
 0.9150	46.8170
 0.9160	46.8230
 0.9170	46.8240
 0.9180	46.8220
 0.9190	46.8250
 0.9200	46.8320
 0.9210	46.8310
 0.9220	46.8290
 0.9230	46.8350
 0.9240	46.8300
 0.9250	46.8210
 0.9260	46.8130
 0.9270	46.8100
 0.9280	46.8060
 0.9290	46.7980
 0.9300	46.7840
 0.9310	46.7700
 0.9320	46.7600
 0.9330	46.7550
 0.9340	46.7470
 0.9350	46.7230
 0.9360	46.7010
 0.9370	46.6870
 0.9380	46.6780
 0.9390	46.6580
 0.9400	46.6380
 0.9410	46.6210
 0.9420	46.6050
 0.9430	46.5840
 0.9440	46.5570
 0.9450	46.5320
 0.9460	46.5110
 0.9470	46.4800
 0.9480	46.4450
 0.9490	46.4070
 0.9500	46.3700
 0.9510	46.3310
 0.9520	46.2910
 0.9530	46.2520
 0.9540	46.2140
 0.9550	46.1860
 0.9560	46.1540
 0.9570	46.1180
 0.9580	46.0780
 0.9590	46.0450
 0.9600	46.0090
 0.9610	45.9770
 0.9620	45.9520
 0.9630	45.9220
 0.9640	45.9010
 0.9650	45.8830
 0.9660	45.8570
 0.9670	45.8450
 0.9680	45.8300
 0.9690	45.8150
 0.9700	45.8090
 0.9710	45.7950
 0.9720	45.7800
 0.9730	45.7670
 0.9740	45.7590
 0.9750	45.7540
 0.9760	45.7480
 0.9770	45.7400
 0.9780	45.7330
 0.9790	45.7360
 0.9800	45.7390
 0.9810	45.7410
 0.9820	45.7460
 0.9830	45.7480
 0.9840	45.7470
 0.9850	45.7520
 0.9860	45.7680
 0.9870	45.7600
 0.9880	45.7600
 0.9890	45.7680
 0.9900	45.7700
 0.9910	45.7780
 0.9920	45.7810
 0.9930	45.7810
 0.9940	45.7870
 0.9950	45.8030
 0.9960	45.8110
 0.9970	45.8080
 0.9980	45.8050
 0.9990	45.8320
 1.0000	45.8480
 1.0010	45.5380
 1.0020	45.5450
 1.0030	45.5530
 1.0040	45.5630
 1.0050	45.5770
 1.0060	45.5890
 1.0070	45.5970
 1.0080	45.6070
 1.0090	45.6180
 1.0100	45.6270
 1.0110	45.6380
 1.0120	45.6480
 1.0130	45.6570
 1.0140	45.6670
 1.0150	45.6780
 1.0160	45.6880
 1.0170	45.6950
 1.0180	45.7050
 1.0190	45.7170
 1.0200	45.7270
 1.0210	45.7390
 1.0220	45.7500
 1.0230	45.7590
 1.0240	45.7670
 1.0250	45.7750
 1.0260	45.7830
 1.0270	45.7910
 1.0280	45.7980
 1.0290	45.8070
 1.0300	45.8180
 1.0310	45.8270
 1.0320	45.8360
 1.0330	45.8440
 1.0340	45.8490
 1.0350	45.8540
 1.0360	45.8640
 1.0370	45.8720
 1.0380	45.8780
 1.0390	45.8860
 1.0400	45.8930
 1.0410	45.8940
 1.0420	45.9010
 1.0430	45.9120
 1.0440	45.9190
 1.0450	45.9230
 1.0460	45.9280
 1.0470	45.9310
 1.0480	45.9360
 1.0490	45.9440
 1.0500	45.9500
 1.0510	45.9560
 1.0520	45.9600
 1.0530	45.9630
 1.0540	45.9640
 1.0550	45.9670
 1.0560	45.9700
 1.0570	45.9740
 1.0580	45.9820
 1.0590	45.9860
 1.0600	45.9870
 1.0610	45.9900
 1.0620	45.9930
 1.0630	45.9950
 1.0640	45.9990
 1.0650	46.0010
 1.0660	46.0020
 1.0670	46.0030
 1.0680	46.0040
 1.0690	46.0040
 1.0700	46.0060
 1.0710	46.0090
 1.0720	46.0130
 1.0730	46.0180
 1.0740	46.0210
 1.0750	46.0220
 1.0760	46.0240
 1.0770	46.0270
 1.0780	46.0280
 1.0790	46.0300
 1.0800	46.0320
 1.0810	46.0310
 1.0820	46.0340
 1.0830	46.0410
 1.0840	46.0450
 1.0850	46.0480
 1.0860	46.0510
 1.0870	46.0490
 1.0880	46.0430
 1.0890	46.0420
 1.0900	46.0420
 1.0910	46.0410
 1.0920	46.0420
 1.0930	46.0410
 1.0940	46.0380
 1.0950	46.0370
 1.0960	46.0390
 1.0970	46.0380
 1.0980	46.0360
 1.0990	46.0350
 1.1000	46.0310
 1.1010	46.0280
 1.1020	46.0250
 1.1030	46.0220
 1.1040	46.0210
 1.1050	46.0190
 1.1060	46.0150
 1.1070	46.0110
 1.1080	46.0080
 1.1090	46.0030
 1.1100	45.9990
 1.1110	45.9950
 1.1120	45.9900
 1.1130	45.9830
 1.1140	45.9760
 1.1150	45.9690
 1.1160	45.9600
 1.1170	45.9490
 1.1180	45.9380
 1.1190	45.9270
 1.1200	45.9140
 1.1210	45.9000
 1.1220	45.8830
 1.1230	45.8630
 1.1240	45.8400
 1.1250	45.8150
 1.1260	45.7870
 1.1270	45.7560
 1.1280	45.7250
 1.1290	45.6870
 1.1300	45.6470
 1.1310	45.6020
 1.1320	45.5510
 1.1330	45.4970
 1.1340	45.4390
 1.1350	45.3760
 1.1360	45.3080
 1.1370	45.2360
 1.1380	45.1590
 1.1390	45.0820
 1.1400	45.0010
 1.1410	44.9180
 1.1420	44.8330
 1.1430	44.7460
 1.1440	44.6590
 1.1450	44.5700
 1.1460	44.4830
 1.1470	44.3920
 1.1480	44.3090
 1.1490	44.2270
 1.1500	44.1510
 1.1510	44.0800
 1.1520	44.0130
 1.1530	43.9480
 1.1540	43.8900
 1.1550	43.8360
 1.1560	43.7870
 1.1570	43.7420
 1.1580	43.7010
 1.1590	43.6650
 1.1600	43.6330
 1.1610	43.6050
 1.1620	43.5810
 1.1630	43.5590
 1.1640	43.5390
 1.1650	43.5220
 1.1660	43.5100
 1.1670	43.4960
 1.1680	43.4850
 1.1690	43.4750
 1.1700	43.4660
 1.1710	43.4570
 1.1720	43.4520
 1.1730	43.4430
 1.1740	43.4330
 1.1750	43.4260
 1.1760	43.4170
 1.1770	43.4070
 1.1780	43.4000
 1.1790	43.3910
 1.1800	43.3810
 1.1810	43.3700
 1.1820	43.3590
 1.1830	43.3480
 1.1840	43.3380
 1.1850	43.3280
 1.1860	43.3180
 1.1870	43.3080
 1.1880	43.2990
 1.1890	43.2900
 1.1900	43.2820
 1.1910	43.2740
 1.1920	43.2680
 1.1930	43.2630
 1.1940	43.2590
 1.1950	43.2560
 1.1960	43.2540
 1.1970	43.2540
 1.1980	43.2530
 1.1990	43.2550
 1.2000	43.2580
 1.2010	43.2610
 1.2020	43.2660
 1.2030	43.2710
 1.2040	43.2750
 1.2050	43.2800
 1.2060	43.2870
 1.2070	43.2950
 1.2080	43.3050
 1.2090	43.3140
 1.2100	43.3220
 1.2110	43.3310
 1.2120	43.3400
 1.2130	43.3510
 1.2140	43.3640
 1.2150	43.3770
 1.2160	43.3920
 1.2170	43.4060
 1.2180	43.4190
 1.2190	43.4340
 1.2200	43.4480
 1.2210	43.4630
 1.2220	43.4790
 1.2230	43.4950
 1.2240	43.5100
 1.2250	43.5240
 1.2260	43.5390
 1.2270	43.5530
 1.2280	43.5650
 1.2290	43.5780
 1.2300	43.5910
 1.2310	43.6050
 1.2320	43.6200
 1.2330	43.6320
 1.2340	43.6440
 1.2350	43.6530
 1.2360	43.6630
 1.2370	43.6720
 1.2380	43.6840
 1.2390	43.6960
 1.2400	43.7060
 1.2410	43.7150
 1.2420	43.7230
 1.2430	43.7300
 1.2440	43.7380
 1.2450	43.7470
 1.2460	43.7560
 1.2470	43.7640
 1.2480	43.7730
 1.2490	43.7790
 1.2500	43.7870
 1.2510	43.7930
 1.2520	43.7970
 1.2530	43.8030
 1.2540	43.8050
 1.2550	43.8070
 1.2560	43.8100
 1.2570	43.8130
 1.2580	43.8150
 1.2590	43.8170
 1.2600	43.8180
 1.2610	43.8180
 1.2620	43.8170
 1.2630	43.8160
 1.2640	43.8150
 1.2650	43.8110
 1.2660	43.8070
 1.2670	43.8020
 1.2680	43.7960
 1.2690	43.7900
 1.2700	43.7850
 1.2710	43.7790
 1.2720	43.7720
 1.2730	43.7640
 1.2740	43.7540
 1.2750	43.7440
 1.2760	43.7340
 1.2770	43.7220
 1.2780	43.7110
 1.2790	43.6970
 1.2800	43.6830
 1.2810	43.6690
 1.2820	43.6540
 1.2830	43.6400
 1.2840	43.6240
 1.2850	43.6040
 1.2860	43.5850
 1.2870	43.5660
 1.2880	43.5450
 1.2890	43.5250
 1.2900	43.5040
 1.2910	43.4810
 1.2920	43.4560
 1.2930	43.4290
 1.2940	43.4020
 1.2950	43.3740
 1.2960	43.3460
 1.2970	43.3150
 1.2980	43.2830
 1.2990	43.2530
 1.3000	43.2210
 1.3010	43.1890
 1.3020	43.1550
 1.3030	43.1180
 1.3040	43.0780
 1.3050	43.0380
 1.3060	42.9950
 1.3070	42.9520
 1.3080	42.9070
 1.3090	42.8610
 1.3100	42.8140
 1.3110	42.7630
 1.3120	42.7090
 1.3130	42.6540
 1.3140	42.5980
 1.3150	42.5420
 1.3160	42.4820
 1.3170	42.4220
 1.3180	42.3580
 1.3190	42.2900
 1.3200	42.2200
 1.3210	42.1480
 1.3220	42.0730
 1.3230	41.9990
 1.3240	41.9230
 1.3250	41.8470
 1.3260	41.7670
 1.3270	41.6830
 1.3280	41.5970
 1.3290	41.5090
 1.3300	41.4200
 1.3310	41.3320
 1.3320	41.2410
 1.3330	41.1480
 1.3340	41.0540
 1.3350	40.9580
 1.3360	40.8620
 1.3370	40.7670
 1.3380	40.6710
 1.3390	40.5760
 1.3400	40.4780
 1.3410	40.3800
 1.3420	40.2820
 1.3430	40.1850
 1.3440	40.0910
 1.3450	39.9960
 1.3460	39.9020
 1.3470	39.8080
 1.3480	39.7120
 1.3490	39.6190
 1.3500	39.5270
 1.3510	39.4350
 1.3520	39.3430
 1.3530	39.2520
 1.3540	39.1600
 1.3550	39.0670
 1.3560	38.9740
 1.3570	38.8790
 1.3580	38.7830
 1.3590	38.6850
 1.3600	38.5850
 1.3610	38.4830
 1.3620	38.3770
 1.3630	38.2690
 1.3640	38.1560
 1.3650	38.0370
 1.3660	37.9130
 1.3670	37.7810
 1.3680	37.6420
 1.3690	37.4960
 1.3700	37.3390
 1.3710	37.1740
 1.3720	36.9970
 1.3730	36.8060
 1.3740	36.6030
 1.3750	36.3840
 1.3760	36.1460
 1.3770	35.8920
 1.3780	35.6150
 1.3790	35.3200
 1.3800	35.0050
 1.3810	34.6660
 1.3820	34.3100
 1.3830	33.9360
 1.3840	33.5430
 1.3850	33.1330
 1.3860	32.7070
 1.3870	32.2600
 1.3880	31.8060
 1.3890	31.3380
 1.3900	30.8560
 1.3910	30.3720
 1.3920	29.8800
 1.3930	29.3790
 1.3940	28.8780
 1.3950	28.3720
 1.3960	27.8690
 1.3970	27.3730
 1.3980	26.8830
 1.3990	26.4080
 1.4000	25.9430
 1.4010	25.4890
 1.4020	25.0520
 1.4030	24.6270
 1.4040	24.2190
 1.4050	23.8330
 1.4060	23.4630
 1.4070	23.1160
 1.4080	22.7870
 1.4090	22.4730
 1.4100	22.1820
 1.4110	21.9070
 1.4120	21.6500
 1.4130	21.4130
 1.4140	21.1920
 1.4150	20.9890
 1.4160	20.8010
 1.4170	20.6280
 1.4180	20.4680
 1.4190	20.3210
 1.4200	20.1850
 1.4210	20.0610
 1.4220	19.9480
 1.4230	19.8460
 1.4240	19.7530
 1.4250	19.6690
 1.4260	19.5940
 1.4270	19.5250
 1.4280	19.4650
 1.4290	19.4090
 1.4300	19.3610
 1.4310	19.3180
 1.4320	19.2830
 1.4330	19.2510
 1.4340	19.2260
 1.4350	19.2040
 1.4360	19.1860
 1.4370	19.1720
 1.4380	19.1620
 1.4390	19.1560
 1.4400	19.1540
 1.4410	19.1540
 1.4420	19.1560
 1.4430	19.1600
 1.4440	19.1670
 1.4450	19.1750
 1.4460	19.1840
 1.4470	19.1960
 1.4480	19.2100
 1.4490	19.2240
 1.4500	19.2390
 1.4510	19.2560
 1.4520	19.2750
 1.4530	19.2950
 1.4540	19.3160
 1.4550	19.3400
 1.4560	19.3650
 1.4570	19.3940
 1.4580	19.4250
 1.4590	19.4600
 1.4600	19.4980
 1.4610	19.5390
 1.4620	19.5840
 1.4630	19.6340
 1.4640	19.6880
 1.4650	19.7460
 1.4660	19.8090
 1.4670	19.8770
 1.4680	19.9490
 1.4690	20.0250
 1.4700	20.1060
 1.4710	20.1910
 1.4720	20.2790
 1.4730	20.3710
 1.4740	20.4670
 1.4750	20.5660
 1.4760	20.6680
 1.4770	20.7720
