Name: Abies concolor 1
Type: vegetation
Class: Tree
Genus: Abies
Species: concolor
Sample No.: VH054
Owner: UCSB
Wavelength Range: TIR
Origin: 37.044; -119.3035; WGS84
Collection Date: 4/20/2013
Description: Samples were collected as part of the HyspIRI Airborne Campaign. 48 individual plants were sampled in three times in 2013 - spring  summer  and fall. The name of the sample includes a 1  2  or 3 which references a different individual of the species. Samples were taken to JPL and processed within 48 hours of collection. The same leaves were processed in the Nicolet and then measured using the ASD.
Measurement: Hemispherical reflectance
First Column: X
Second Column: Y
X Units: Wavelength (micrometers)
Y Units: Reflectance (percentage)
First X Value: 2.501
Last X Value: 15.387
Number of X Values: 1737
Additional Information: vegetation.tree.abies.concolor.tir.vh054.ucsb.nicolet.ancillary.txt

 2.5010	 5.6120
 2.5030	 5.6500
 2.5040	 5.6690
 2.5050	 5.6930
 2.5060	 5.8240
 2.5070	 5.8310
 2.5090	 5.6100
 2.5100	 5.5260
 2.5110	 5.5340
 2.5120	 5.5030
 2.5140	 5.4830
 2.5150	 5.4930
 2.5160	 5.5830
 2.5170	 5.5780
 2.5180	 5.5850
 2.5200	 5.5840
 2.5210	 5.5540
 2.5220	 5.5850
 2.5230	 5.6250
 2.5250	 5.4910
 2.5260	 5.4330
 2.5270	 5.5800
 2.5280	 5.6350
 2.5290	 5.5480
 2.5310	 5.6220
 2.5320	 5.6240
 2.5330	 5.5830
 2.5340	 5.5890
 2.5360	 5.5380
 2.5370	 5.5510
 2.5380	 5.6460
 2.5390	 5.6470
 2.5410	 5.6520
 2.5420	 5.5630
 2.5430	 5.3910
 2.5440	 5.3830
 2.5460	 5.4640
 2.5470	 5.5080
 2.5480	 5.5950
 2.5490	 5.7000
 2.5510	 5.6460
 2.5520	 5.5860
 2.5530	 5.6400
 2.5540	 5.6850
 2.5560	 5.6910
 2.5570	 5.6340
 2.5580	 5.5380
 2.5590	 5.5480
 2.5610	 5.6580
 2.5620	 5.5520
 2.5630	 5.5430
 2.5640	 5.6190
 2.5660	 5.7010
 2.5670	 5.7520
 2.5680	 5.6330
 2.5700	 5.6530
 2.5710	 5.6960
 2.5720	 5.5520
 2.5730	 5.5680
 2.5750	 5.6720
 2.5760	 5.6680
 2.5770	 5.5870
 2.5790	 5.6050
 2.5800	 5.6040
 2.5810	 5.6780
 2.5820	 5.7360
 2.5840	 5.7220
 2.5850	 5.6520
 2.5860	 5.6420
 2.5880	 5.5460
 2.5890	 5.5610
 2.5900	 5.5010
 2.5910	 5.5130
 2.5930	 5.5820
 2.5940	 5.5870
 2.5950	 5.5660
 2.5970	 5.5540
 2.5980	 5.6580
 2.5990	 5.7220
 2.6000	 5.6300
 2.6020	 5.5980
 2.6030	 5.5760
 2.6040	 5.5980
 2.6060	 5.5530
 2.6070	 5.5590
 2.6080	 5.5470
 2.6100	 5.4510
 2.6110	 5.4070
 2.6120	 5.4490
 2.6140	 5.4470
 2.6150	 5.4740
 2.6160	 5.4520
 2.6180	 5.4280
 2.6190	 5.3990
 2.6200	 5.3820
 2.6220	 5.2700
 2.6230	 5.1980
 2.6240	 5.2170
 2.6260	 5.2610
 2.6270	 5.2170
 2.6280	 5.2150
 2.6300	 5.2540
 2.6310	 5.2540
 2.6320	 5.2180
 2.6340	 5.1650
 2.6350	 5.0820
 2.6360	 5.0590
 2.6380	 5.0230
 2.6390	 5.0680
 2.6400	 5.0550
 2.6420	 5.0510
 2.6430	 5.0200
 2.6440	 5.0700
 2.6460	 5.0730
 2.6470	 5.0770
 2.6480	 5.0040
 2.6500	 5.0040
 2.6510	 5.0090
 2.6520	 4.9880
 2.6540	 4.9250
 2.6550	 4.9400
 2.6560	 4.9500
 2.6580	 4.9090
 2.6590	 4.8320
 2.6610	 4.9270
 2.6620	 4.9260
 2.6630	 4.8690
 2.6650	 4.8490
 2.6660	 4.8480
 2.6670	 4.8070
 2.6690	 4.8070
 2.6700	 4.7840
 2.6720	 4.7340
 2.6730	 4.7030
 2.6740	 4.6800
 2.6760	 4.6250
 2.6770	 4.6010
 2.6780	 4.4690
 2.6800	 4.4820
 2.6810	 4.5570
 2.6830	 4.5080
 2.6840	 4.4140
 2.6850	 4.3980
 2.6870	 4.2280
 2.6880	 4.2690
 2.6900	 4.3610
 2.6910	 4.3200
 2.6920	 4.2780
 2.6940	 4.3070
 2.6950	 4.2750
 2.6970	 4.2360
 2.6980	 4.2020
 2.6990	 4.2830
 2.7010	 4.2220
 2.7020	 4.0540
 2.7040	 3.9930
 2.7050	 4.0810
 2.7060	 4.1190
 2.7080	 4.0740
 2.7090	 3.9680
 2.7110	 3.9400
 2.7120	 3.8930
 2.7130	 3.9680
 2.7150	 3.9690
 2.7160	 3.8150
 2.7180	 3.7390
 2.7190	 3.6830
 2.7210	 3.7350
 2.7220	 3.8420
 2.7230	 3.7690
 2.7250	 3.6680
 2.7260	 3.6760
 2.7280	 3.8010
 2.7290	 3.6670
 2.7310	 3.5920
 2.7320	 3.6220
 2.7330	 3.6600
 2.7350	 3.6490
 2.7360	 3.6750
 2.7380	 3.7230
 2.7390	 3.8410
 2.7410	 3.7370
 2.7420	 3.6510
 2.7440	 3.6990
 2.7450	 3.7470
 2.7470	 3.6540
 2.7480	 3.7220
 2.7490	 3.7050
 2.7510	 3.6400
 2.7520	 3.5590
 2.7540	 3.7190
 2.7550	 3.8200
 2.7570	 3.7090
 2.7580	 3.6120
 2.7600	 3.5930
 2.7610	 3.5900
 2.7630	 3.6450
 2.7640	 3.5660
 2.7660	 3.5310
 2.7670	 3.5450
 2.7680	 3.4850
 2.7700	 3.4110
 2.7710	 3.4800
 2.7730	 3.6260
 2.7740	 3.7520
 2.7760	 3.7460
 2.7770	 3.7170
 2.7790	 3.5780
 2.7800	 3.6290
 2.7820	 3.7230
 2.7830	 3.7210
 2.7850	 3.6680
 2.7860	 3.6490
 2.7880	 3.5930
 2.7890	 3.5570
 2.7910	 3.6350
 2.7920	 3.6960
 2.7940	 3.6910
 2.7950	 3.6340
 2.7970	 3.6130
 2.7980	 3.6330
 2.8000	 3.5530
 2.8010	 3.5270
 2.8030	 3.5260
 2.8040	 3.6030
 2.8060	 3.5560
 2.8070	 3.4760
 2.8090	 3.4430
 2.8110	 3.4870
 2.8120	 3.5670
 2.8140	 3.6560
 2.8150	 3.5760
 2.8170	 3.5700
 2.8180	 3.6020
 2.8200	 3.6680
 2.8210	 3.6350
 2.8230	 3.5690
 2.8240	 3.5130
 2.8260	 3.5480
 2.8270	 3.5730
 2.8290	 3.6720
 2.8300	 3.6830
 2.8320	 3.7370
 2.8340	 3.6450
 2.8350	 3.5220
 2.8370	 3.4530
 2.8380	 3.5540
 2.8400	 3.6420
 2.8410	 3.6450
 2.8430	 3.5340
 2.8440	 3.5600
 2.8460	 3.6600
 2.8480	 3.7130
 2.8490	 3.6810
 2.8510	 3.6700
 2.8520	 3.6690
 2.8540	 3.6040
 2.8550	 3.5760
 2.8570	 3.7280
 2.8590	 3.7180
 2.8600	 3.6080
 2.8620	 3.5560
 2.8630	 3.5940
 2.8650	 3.5410
 2.8660	 3.5280
 2.8680	 3.5830
 2.8700	 3.7100
 2.8710	 3.5510
 2.8730	 3.4510
 2.8740	 3.5840
 2.8760	 3.6610
 2.8780	 3.6840
 2.8790	 3.7360
 2.8810	 3.7250
 2.8820	 3.6630
 2.8840	 3.5470
 2.8860	 3.7140
 2.8870	 3.7110
 2.8890	 3.6520
 2.8900	 3.6590
 2.8920	 3.6050
 2.8940	 3.6120
 2.8950	 3.6970
 2.8970	 3.6500
 2.8980	 3.6980
 2.9000	 3.7000
 2.9020	 3.7250
 2.9030	 3.7500
 2.9050	 3.7060
 2.9070	 3.6010
 2.9080	 3.6090
 2.9100	 3.6110
 2.9120	 3.6330
 2.9130	 3.5360
 2.9150	 3.5280
 2.9160	 3.6150
 2.9180	 3.7550
 2.9200	 3.7540
 2.9210	 3.6600
 2.9230	 3.6440
 2.9250	 3.7590
 2.9260	 3.6500
 2.9280	 3.6890
 2.9300	 3.7090
 2.9310	 3.6570
 2.9330	 3.7410
 2.9350	 3.7640
 2.9360	 3.6900
 2.9380	 3.6320
 2.9400	 3.5990
 2.9410	 3.6010
 2.9430	 3.5350
 2.9450	 3.7240
 2.9460	 3.8210
 2.9480	 3.7070
 2.9500	 3.6550
 2.9510	 3.7290
 2.9530	 3.6540
 2.9550	 3.6200
 2.9560	 3.7730
 2.9580	 3.6470
 2.9600	 3.4540
 2.9610	 3.4170
 2.9630	 3.5080
 2.9650	 3.8850
 2.9660	 4.1590
 2.9680	 3.9680
 2.9700	 3.8080
 2.9720	 3.7000
 2.9730	 3.0660
 2.9750	 2.9460
 2.9770	 3.3730
 2.9780	 3.5760
 2.9800	 3.8760
 2.9820	 3.8120
 2.9840	 3.4390
 2.9850	 3.4500
 2.9870	 3.8520
 2.9890	 3.7460
 2.9900	 4.0070
 2.9920	 4.4340
 2.9940	 4.1440
 2.9960	 3.7920
 2.9970	 4.1940
 2.9990	 4.2320
 3.0010	 3.9220
 3.0030	 3.7300
 3.0040	 3.6090
 3.0060	 3.6340
 3.0080	 3.6530
 3.0100	 3.6150
 3.0110	 3.9220
 3.0130	 4.1290
 3.0150	 3.8370
 3.0170	 3.9230
 3.0180	 4.0850
 3.0200	 3.9820
 3.0220	 3.6000
 3.0240	 3.6240
 3.0250	 3.7640
 3.0270	 3.8520
 3.0290	 3.7860
 3.0310	 3.5750
 3.0320	 3.4450
 3.0340	 3.3870
 3.0360	 3.2920
 3.0380	 3.5090
 3.0400	 3.4560
 3.0410	 3.5880
 3.0430	 3.6050
 3.0450	 3.5250
 3.0470	 3.4500
 3.0480	 3.5160
 3.0500	 4.0220
 3.0520	 4.3710
 3.0540	 4.3040
 3.0560	 4.2260
 3.0570	 3.9130
 3.0590	 3.6330
 3.0610	 3.6810
 3.0630	 3.8600
 3.0650	 3.5930
 3.0660	 3.5450
 3.0680	 3.7580
 3.0700	 3.7450
 3.0720	 3.5870
 3.0740	 3.6210
 3.0760	 3.7150
 3.0770	 3.6530
 3.0790	 3.6670
 3.0810	 3.7430
 3.0830	 3.7320
 3.0850	 3.5870
 3.0870	 3.5700
 3.0880	 3.6950
 3.0900	 3.7470
 3.0920	 3.8250
 3.0940	 3.7200
 3.0960	 3.5940
 3.0980	 3.5610
 3.0990	 3.5430
 3.1010	 3.6850
 3.1030	 3.8400
 3.1050	 3.7670
 3.1070	 3.7080
 3.1090	 3.5430
 3.1110	 3.5150
 3.1120	 3.6670
 3.1140	 3.7480
 3.1160	 3.8190
 3.1180	 3.8050
 3.1200	 3.8300
 3.1220	 3.8740
 3.1240	 3.7960
 3.1260	 3.7350
 3.1270	 3.7790
 3.1290	 3.7740
 3.1310	 3.6980
 3.1330	 3.6570
 3.1350	 3.7280
 3.1370	 3.7400
 3.1390	 3.7840
 3.1410	 3.8310
 3.1430	 3.8930
 3.1450	 3.6290
 3.1460	 3.3590
 3.1480	 3.4430
 3.1500	 3.5800
 3.1520	 3.7520
 3.1540	 3.8420
 3.1560	 3.8640
 3.1580	 3.9740
 3.1600	 4.0180
 3.1620	 3.8070
 3.1640	 3.6210
 3.1660	 3.9110
 3.1680	 4.2810
 3.1700	 4.0460
 3.1710	 3.5480
 3.1730	 3.1580
 3.1750	 3.3910
 3.1770	 3.9070
 3.1790	 3.4570
 3.1810	 3.3660
 3.1830	 3.5850
 3.1850	 3.6240
 3.1870	 3.6510
 3.1890	 3.5350
 3.1910	 3.6650
 3.1930	 3.7690
 3.1950	 3.7250
 3.1970	 3.6350
 3.1990	 3.6380
 3.2010	 3.6000
 3.2030	 3.5900
 3.2050	 3.5200
 3.2070	 3.5480
 3.2090	 3.6440
 3.2110	 3.6280
 3.2130	 3.5810
 3.2150	 3.6370
 3.2170	 3.6130
 3.2190	 3.5840
 3.2210	 3.5850
 3.2230	 3.6710
 3.2250	 3.6490
 3.2270	 3.5350
 3.2290	 3.5340
 3.2310	 3.5390
 3.2330	 3.5460
 3.2350	 3.6160
 3.2370	 3.5880
 3.2390	 3.5710
 3.2410	 3.5770
 3.2430	 3.5500
 3.2450	 3.5640
 3.2470	 3.6460
 3.2490	 3.5830
 3.2510	 3.5400
 3.2530	 3.5780
 3.2550	 3.5880
 3.2570	 3.5860
 3.2590	 3.6370
 3.2610	 3.5750
 3.2630	 3.6150
 3.2650	 3.6210
 3.2670	 3.6340
 3.2690	 3.6300
 3.2720	 3.5760
 3.2740	 3.5310
 3.2760	 3.5850
 3.2780	 3.5810
 3.2800	 3.6090
 3.2820	 3.5190
 3.2840	 3.4820
 3.2860	 3.5180
 3.2880	 3.4900
 3.2900	 3.4100
 3.2920	 3.4450
 3.2940	 3.4500
 3.2960	 3.4540
 3.2990	 3.4530
 3.3010	 3.5200
 3.3030	 3.5150
 3.3050	 3.5120
 3.3070	 3.4930
 3.3090	 3.5020
 3.3110	 3.5020
 3.3130	 3.5140
 3.3150	 3.4690
 3.3180	 3.3940
 3.3200	 3.4260
 3.3220	 3.4540
 3.3240	 3.4510
 3.3260	 3.5100
 3.3280	 3.5580
 3.3300	 3.5480
 3.3330	 3.3920
 3.3350	 3.3600
 3.3370	 3.3490
 3.3390	 3.3240
 3.3410	 3.2630
 3.3430	 3.2280
 3.3450	 3.3060
 3.3480	 3.4240
 3.3500	 3.3760
 3.3520	 3.2930
 3.3540	 3.2800
 3.3560	 3.3160
 3.3580	 3.3490
 3.3610	 3.2530
 3.3630	 3.1020
 3.3650	 3.1670
 3.3670	 3.3170
 3.3690	 3.2930
 3.3720	 3.1640
 3.3740	 3.1140
 3.3760	 3.1100
 3.3780	 3.1690
 3.3800	 3.2060
 3.3830	 3.2330
 3.3850	 3.1460
 3.3870	 3.0520
 3.3890	 3.0950
 3.3910	 3.0760
 3.3940	 2.9980
 3.3960	 2.9680
 3.3980	 3.0270
 3.4000	 3.0920
 3.4020	 3.0620
 3.4050	 3.0930
 3.4070	 3.1250
 3.4090	 3.1590
 3.4110	 3.2190
 3.4140	 3.3170
 3.4160	 3.4520
 3.4180	 3.6380
 3.4200	 3.9170
 3.4230	 4.2670
 3.4250	 4.6430
 3.4270	 5.1520
 3.4290	 5.4260
 3.4320	 5.4350
 3.4340	 5.3260
 3.4360	 5.1230
 3.4390	 4.8980
 3.4410	 4.6900
 3.4430	 4.5930
 3.4450	 4.5200
 3.4480	 4.4770
 3.4500	 4.4220
 3.4520	 4.2890
 3.4550	 4.3140
 3.4570	 4.3250
 3.4590	 4.2980
 3.4620	 4.2710
 3.4640	 4.3130
 3.4660	 4.2410
 3.4680	 4.1260
 3.4710	 4.0250
 3.4730	 3.9970
 3.4750	 3.9790
 3.4780	 3.9580
 3.4800	 3.9420
 3.4820	 3.9020
 3.4850	 3.8920
 3.4870	 3.8870
 3.4890	 3.8110
 3.4920	 3.7040
 3.4940	 3.6610
 3.4970	 3.6690
 3.4990	 3.6400
 3.5010	 3.6750
 3.5040	 3.7760
 3.5060	 4.1390
 3.5080	 4.8220
 3.5110	 5.4210
 3.5130	 5.5390
 3.5160	 5.3780
 3.5180	 5.1850
 3.5200	 4.9580
 3.5230	 4.7840
 3.5250	 4.6480
 3.5270	 4.5960
 3.5300	 4.5410
 3.5320	 4.4490
 3.5350	 4.4360
 3.5370	 4.4530
 3.5400	 4.3670
 3.5420	 4.2620
 3.5440	 4.3030
 3.5470	 4.3080
 3.5490	 4.2950
 3.5520	 4.2500
 3.5540	 4.2450
 3.5570	 4.2960
 3.5590	 4.2890
 3.5610	 4.2180
 3.5640	 4.2150
 3.5660	 4.2210
 3.5690	 4.2030
 3.5710	 4.1840
 3.5740	 4.2040
 3.5760	 4.2380
 3.5790	 4.1620
 3.5810	 4.1410
 3.5840	 4.2640
 3.5860	 4.3110
 3.5890	 4.2250
 3.5910	 4.1380
 3.5930	 4.1440
 3.5960	 4.1740
 3.5980	 4.1220
 3.6010	 4.1080
 3.6030	 4.2020
 3.6060	 4.1750
 3.6080	 4.1120
 3.6110	 4.1180
 3.6140	 4.1970
 3.6160	 4.1710
 3.6190	 4.0470
 3.6210	 3.9730
 3.6240	 4.0360
 3.6260	 4.1200
 3.6290	 4.1940
 3.6310	 4.1380
 3.6340	 4.0990
 3.6360	 4.1140
 3.6390	 4.1230
 3.6410	 4.1160
 3.6440	 4.1040
 3.6470	 4.0880
 3.6490	 4.1080
 3.6520	 4.0910
 3.6540	 4.0730
 3.6570	 4.0910
 3.6590	 4.0990
 3.6620	 4.0900
 3.6650	 4.1140
 3.6670	 4.1440
 3.6700	 4.1420
 3.6720	 4.1320
 3.6750	 4.0480
 3.6780	 4.0530
 3.6800	 4.1200
 3.6830	 4.1100
 3.6850	 4.0830
 3.6880	 4.0570
 3.6910	 4.0340
 3.6930	 4.0340
 3.6960	 4.0420
 3.6990	 4.0570
 3.7010	 4.1010
 3.7040	 4.1490
 3.7060	 4.1040
 3.7090	 4.0570
 3.7120	 4.0700
 3.7140	 4.1820
 3.7170	 4.2680
 3.7200	 4.2270
 3.7220	 4.1660
 3.7250	 4.1490
 3.7280	 4.1180
 3.7300	 4.0680
 3.7330	 4.0550
 3.7360	 4.1230
 3.7390	 4.1840
 3.7410	 4.1550
 3.7440	 4.1360
 3.7470	 4.1690
 3.7490	 4.1590
 3.7520	 4.1760
 3.7550	 4.2060
 3.7580	 4.1760
 3.7600	 4.1330
 3.7630	 4.1730
 3.7660	 4.1970
 3.7680	 4.1450
 3.7710	 4.1450
 3.7740	 4.1850
 3.7770	 4.1840
 3.7790	 4.2010
 3.7820	 4.2550
 3.7850	 4.2800
 3.7880	 4.2350
 3.7900	 4.2470
 3.7930	 4.3130
 3.7960	 4.3050
 3.7990	 4.2360
 3.8020	 4.2280
 3.8040	 4.2060
 3.8070	 4.2180
 3.8100	 4.2660
 3.8130	 4.2050
 3.8160	 4.1610
 3.8180	 4.2290
 3.8210	 4.3520
 3.8240	 4.3930
 3.8270	 4.2730
 3.8300	 4.2190
 3.8330	 4.2460
 3.8350	 4.2620
 3.8380	 4.2590
 3.8410	 4.2670
 3.8440	 4.2350
 3.8470	 4.2220
 3.8500	 4.2720
 3.8520	 4.3080
 3.8550	 4.2930
 3.8580	 4.2720
 3.8610	 4.2500
 3.8640	 4.2450
 3.8670	 4.2780
 3.8700	 4.3050
 3.8730	 4.2690
 3.8750	 4.2340
 3.8780	 4.2070
 3.8810	 4.2440
 3.8840	 4.3050
 3.8870	 4.3240
 3.8900	 4.2860
 3.8930	 4.2330
 3.8960	 4.2050
 3.8990	 4.2620
 3.9020	 4.2610
 3.9050	 4.2680
 3.9080	 4.2850
 3.9110	 4.3070
 3.9140	 4.3160
 3.9160	 4.2990
 3.9190	 4.2930
 3.9220	 4.2660
 3.9250	 4.2660
 3.9280	 4.2930
 3.9310	 4.2450
 3.9340	 4.2970
 3.9370	 4.3570
 3.9400	 4.3280
 3.9430	 4.2470
 3.9460	 4.2080
 3.9490	 4.2500
 3.9520	 4.2960
 3.9550	 4.3060
 3.9580	 4.2860
 3.9610	 4.2590
 3.9640	 4.2200
 3.9670	 4.2030
 3.9700	 4.2490
 3.9730	 4.3350
 3.9770	 4.4000
 3.9800	 4.3770
 3.9830	 4.3370
 3.9860	 4.3300
 3.9890	 4.3110
 3.9920	 4.2800
 3.9950	 4.2790
 3.9980	 4.3370
 4.0010	 4.3860
 4.0040	 4.3590
 4.0070	 4.3740
 4.0100	 4.3770
 4.0130	 4.3310
 4.0170	 4.2820
 4.0200	 4.2760
 4.0230	 4.2970
 4.0260	 4.3220
 4.0290	 4.3240
 4.0320	 4.2970
 4.0350	 4.3100
 4.0380	 4.3510
 4.0420	 4.3550
 4.0450	 4.4010
 4.0480	 4.3480
 4.0510	 4.3010
 4.0540	 4.3040
 4.0570	 4.3290
 4.0610	 4.3350
 4.0640	 4.3410
 4.0670	 4.3280
 4.0700	 4.3220
 4.0730	 4.3780
 4.0770	 4.3840
 4.0800	 4.3280
 4.0830	 4.2950
 4.0860	 4.3280
 4.0890	 4.4320
 4.0930	 4.3830
 4.0960	 4.2990
 4.0990	 4.3350
 4.1020	 4.3500
 4.1060	 4.2430
 4.1090	 4.2550
 4.1120	 4.3150
 4.1150	 4.3520
 4.1190	 4.3750
 4.1220	 4.4100
 4.1250	 4.4000
 4.1280	 4.3340
 4.1320	 4.3110
 4.1350	 4.3360
 4.1380	 4.3330
 4.1420	 4.3550
 4.1450	 4.3820
 4.1480	 4.3370
 4.1520	 4.2980
 4.1550	 4.3610
 4.1580	 4.3550
 4.1620	 4.3500
 4.1650	 4.3740
 4.1680	 4.3630
 4.1720	 4.2890
 4.1750	 4.3020
 4.1780	 4.3490
 4.1820	 4.3800
 4.1850	 4.3580
 4.1890	 4.3260
 4.1920	 4.3540
 4.1950	 4.3590
 4.1990	 4.3620
 4.2020	 4.4850
 4.2060	 4.5400
 4.2090	 4.5470
 4.2120	 4.5440
 4.2160	 4.5600
 4.2190	 4.6770
 4.2230	 4.8570
 4.2260	 4.7570
 4.2300	 4.6790
 4.2330	 4.6440
 4.2360	 4.6850
 4.2400	 4.6740
 4.2430	 4.9070
 4.2470	 4.8210
 4.2500	 4.5820
 4.2540	 4.4850
 4.2570	 4.5400
 4.2610	 4.4450
 4.2640	 4.5100
 4.2680	 4.7210
 4.2710	 4.8480
 4.2750	 4.8340
 4.2780	 4.8180
 4.2820	 4.7670
 4.2850	 4.7960
 4.2890	 4.7020
 4.2930	 4.4670
 4.2960	 4.4350
 4.3000	 4.4370
 4.3030	 4.2850
 4.3070	 4.3000
 4.3100	 4.3020
 4.3140	 4.3680
 4.3180	 4.3390
 4.3210	 4.2860
 4.3250	 4.2900
 4.3280	 4.3020
 4.3320	 4.3100
 4.3360	 4.3190
 4.3390	 4.2430
 4.3430	 4.2440
 4.3470	 4.2690
 4.3500	 4.2550
 4.3540	 4.1550
 4.3570	 4.1480
 4.3610	 4.1310
 4.3650	 4.1400
 4.3680	 4.1390
 4.3720	 4.1230
 4.3760	 4.1030
 4.3800	 4.0960
 4.3830	 4.0470
 4.3870	 4.0480
 4.3910	 4.0630
 4.3940	 4.0890
 4.3980	 4.0730
 4.4020	 4.0150
 4.4060	 4.0300
 4.4090	 4.0930
 4.4130	 4.0600
 4.4170	 4.0760
 4.4210	 4.0660
 4.4240	 4.0300
 4.4280	 4.0190
 4.4320	 4.0500
 4.4360	 4.0580
 4.4400	 4.0830
 4.4430	 3.9890
 4.4470	 3.9900
 4.4510	 3.9820
 4.4550	 3.9930
 4.4590	 4.0160
 4.4620	 4.0210
 4.4660	 3.9780
 4.4700	 3.9870
 4.4740	 3.9940
 4.4780	 4.0480
 4.4820	 3.9940
 4.4860	 3.9270
 4.4900	 3.9080
 4.4930	 3.9130
 4.4970	 3.9250
 4.5010	 3.9430
 4.5050	 3.9570
 4.5090	 3.9800
 4.5130	 3.9900
 4.5170	 4.0080
 4.5210	 3.8880
 4.5250	 3.8830
 4.5290	 3.9910
 4.5330	 4.0590
 4.5370	 3.9710
 4.5410	 3.9580
 4.5450	 3.9510
 4.5490	 3.9300
 4.5530	 3.9420
 4.5570	 3.9840
 4.5610	 3.9290
 4.5650	 3.9080
 4.5690	 3.8850
 4.5730	 3.9250
 4.5770	 3.9440
 4.5810	 3.9110
 4.5850	 3.9230
 4.5890	 3.9450
 4.5930	 3.9070
 4.5970	 3.9580
 4.6010	 3.8910
 4.6050	 3.8430
 4.6090	 3.9120
 4.6130	 3.9450
 4.6170	 3.9260
 4.6220	 3.8780
 4.6260	 3.8330
 4.6300	 3.8870
 4.6340	 3.9550
 4.6380	 3.9640
 4.6420	 3.9390
 4.6460	 3.8870
 4.6510	 3.8500
 4.6550	 3.9190
 4.6590	 3.9470
 4.6630	 3.9410
 4.6670	 3.8870
 4.6720	 3.8460
 4.6760	 3.8170
 4.6800	 3.8490
 4.6840	 3.8630
 4.6880	 3.8540
 4.6930	 3.7620
 4.6970	 3.7970
 4.7010	 3.8200
 4.7050	 3.8590
 4.7100	 3.8660
 4.7140	 3.8140
 4.7180	 3.8030
 4.7230	 3.8600
 4.7270	 3.8380
 4.7310	 3.7870
 4.7360	 3.7510
 4.7400	 3.7700
 4.7440	 3.7640
 4.7490	 3.8080
 4.7530	 3.8310
 4.7570	 3.8780
 4.7620	 3.8890
 4.7660	 3.8640
 4.7700	 3.8030
 4.7750	 3.7900
 4.7790	 3.8040
 4.7840	 3.8390
 4.7880	 3.7940
 4.7920	 3.7150
 4.7970	 3.6570
 4.8010	 3.7400
 4.8060	 3.7840
 4.8100	 3.8190
 4.8150	 3.7420
 4.8190	 3.7950
 4.8240	 3.8080
 4.8280	 3.8180
 4.8330	 3.7580
 4.8370	 3.6970
 4.8420	 3.6920
 4.8460	 3.7640
 4.8510	 3.7520
 4.8550	 3.8220
 4.8600	 3.8490
 4.8640	 3.8380
 4.8690	 3.7480
 4.8730	 3.7410
 4.8780	 3.7660
 4.8830	 3.8020
 4.8870	 3.8220
 4.8920	 3.8370
 4.8960	 3.7740
 4.9010	 3.8390
 4.9060	 3.8300
 4.9100	 3.7860
 4.9150	 3.7870
 4.9200	 3.8380
 4.9240	 3.8310
 4.9290	 3.8520
 4.9340	 3.8340
 4.9380	 3.8160
 4.9430	 3.8020
 4.9480	 3.8160
 4.9530	 3.7990
 4.9570	 3.8360
 4.9620	 3.7850
 4.9670	 3.8070
 4.9720	 3.7680
 4.9760	 3.7990
 4.9810	 3.8000
 4.9860	 3.8240
 4.9910	 3.7630
 4.9960	 3.7950
 5.0000	 3.8210
 5.0050	 3.8540
 5.0100	 3.8940
 5.0150	 3.9150
 5.0200	 3.8490
 5.0250	 3.8490
 5.0290	 3.8520
 5.0340	 3.9340
 5.0390	 3.9430
 5.0440	 3.9020
 5.0490	 3.8220
 5.0540	 3.9000
 5.0590	 3.9340
 5.0640	 3.9040
 5.0690	 3.8900
 5.0740	 3.9520
 5.0790	 3.9160
 5.0840	 3.9120
 5.0890	 3.9310
 5.0940	 3.9650
 5.0990	 3.9250
 5.1040	 3.9760
 5.1090	 3.9850
 5.1140	 3.9510
 5.1190	 3.8900
 5.1240	 3.9050
 5.1290	 3.9440
 5.1340	 3.9670
 5.1390	 3.9230
 5.1440	 3.9690
 5.1490	 3.9440
 5.1540	 3.9290
 5.1600	 3.8810
 5.1650	 4.0110
 5.1700	 4.0310
 5.1750	 3.9410
 5.1800	 3.8650
 5.1850	 3.9300
 5.1910	 3.9780
 5.1960	 4.0050
 5.2010	 3.9410
 5.2060	 3.9630
 5.2110	 3.9630
 5.2170	 3.9880
 5.2220	 3.9110
 5.2270	 3.9280
 5.2320	 3.9750
 5.2380	 4.0170
 5.2430	 3.9440
 5.2480	 3.9470
 5.2540	 3.9220
 5.2590	 3.9460
 5.2640	 3.9670
 5.2700	 3.9810
 5.2750	 3.9190
 5.2800	 4.0010
 5.2860	 3.9750
 5.2910	 3.9260
 5.2970	 3.8490
 5.3020	 3.9550
 5.3070	 3.9280
 5.3130	 3.8720
 5.3180	 3.8190
 5.3240	 3.8630
 5.3290	 3.9140
 5.3350	 3.9730
 5.3400	 3.9130
 5.3460	 3.8840
 5.3510	 3.8760
 5.3570	 3.9170
 5.3620	 3.8630
 5.3680	 3.8930
 5.3730	 3.8920
 5.3790	 3.8950
 5.3850	 3.8660
 5.3900	 3.8780
 5.3960	 3.8790
 5.4010	 3.9110
 5.4070	 3.8180
 5.4130	 3.8200
 5.4180	 3.8270
 5.4240	 3.8750
 5.4300	 3.8800
 5.4350	 3.9540
 5.4410	 3.8830
