Name: Fagus grandifolia
Type: Vegetation
Class: Tree
Genus: Fagus
Species: grandifolia
Sample No.: FAGR-2-43
Owner: UCSB
Wavelength Range: TIR
Origin: USA; Massachusetts; Harvard Forest
Collection Date: 7/8/2013
Description: Samples were collected as part of NSF Macrosystem Biology proposal titled: Collaborative Research: Thermal controls on ecosystem metabolism and function: scaling from leaves to canopies to regions. Samples were collected and overnighted to JPL facilities for processing. The same leaves were processed in the Nicolet and then measured using the ASD.
Measurement: Hemispherical reflectance
First Column: X
Second Column: Y
X Units: Wavelength (micrometers)
Y Units: Reflectance (percentage)
First X Value: 2.501
Last X Value: 15.387
Number of X Values: 1737
Additional Information: vegetation.tree.fagus.grandifolia.tir.fagr-2-43.ucsb.nicolet.ancillary.txt

 2.5010	10.9120
 2.5030	11.0660
 2.5040	11.4050
 2.5050	11.1030
 2.5060	10.8890
 2.5070	10.8490
 2.5090	10.7470
 2.5100	10.8650
 2.5110	10.8820
 2.5120	10.7490
 2.5140	10.8070
 2.5150	10.8860
 2.5160	10.8690
 2.5170	10.8400
 2.5180	10.7280
 2.5200	10.5690
 2.5210	10.5590
 2.5220	10.6800
 2.5230	10.7600
 2.5250	10.7390
 2.5260	10.7720
 2.5270	10.7650
 2.5280	10.7590
 2.5290	10.8600
 2.5310	10.9530
 2.5320	10.7590
 2.5330	10.6490
 2.5340	10.6220
 2.5360	10.6330
 2.5370	10.5560
 2.5380	10.6090
 2.5390	10.6840
 2.5410	10.9230
 2.5420	11.0110
 2.5430	10.8480
 2.5440	10.6130
 2.5460	10.5950
 2.5470	10.5980
 2.5480	10.6410
 2.5490	10.7300
 2.5510	10.7290
 2.5520	10.4770
 2.5530	10.5390
 2.5540	10.7200
 2.5560	10.7980
 2.5570	10.7630
 2.5580	10.8000
 2.5590	10.8610
 2.5610	10.9290
 2.5620	10.8790
 2.5630	10.9760
 2.5640	10.9660
 2.5660	10.8810
 2.5670	10.9690
 2.5680	11.0180
 2.5700	11.0050
 2.5710	11.1060
 2.5720	11.0210
 2.5730	11.0660
 2.5750	11.0500
 2.5760	11.0370
 2.5770	10.9950
 2.5790	10.9560
 2.5800	10.8080
 2.5810	11.0200
 2.5820	11.0250
 2.5840	10.8700
 2.5850	10.7050
 2.5860	10.3160
 2.5880	10.6530
 2.5890	10.9840
 2.5900	10.6870
 2.5910	10.5580
 2.5930	10.4250
 2.5940	10.3590
 2.5950	10.2810
 2.5970	10.1810
 2.5980	10.2510
 2.5990	10.4210
 2.6000	10.2470
 2.6020	10.1160
 2.6030	10.1340
 2.6040	10.0460
 2.6060	 9.8680
 2.6070	 9.9540
 2.6080	 9.9130
 2.6100	 9.9730
 2.6110	10.0600
 2.6120	10.0300
 2.6140	 9.7380
 2.6150	 9.4900
 2.6160	 9.6080
 2.6180	 9.6690
 2.6190	 9.5210
 2.6200	 9.2020
 2.6220	 9.0100
 2.6230	 8.9820
 2.6240	 9.0350
 2.6260	 9.2080
 2.6270	 9.1050
 2.6280	 8.7240
 2.6300	 8.3680
 2.6310	 8.3570
 2.6320	 8.4630
 2.6340	 8.6700
 2.6350	 8.6100
 2.6360	 8.3790
 2.6380	 8.1020
 2.6390	 7.9070
 2.6400	 7.9390
 2.6420	 8.0240
 2.6430	 7.9740
 2.6440	 7.9170
 2.6460	 7.7280
 2.6470	 7.5780
 2.6480	 7.5080
 2.6500	 7.4200
 2.6510	 7.3290
 2.6520	 7.4100
 2.6540	 7.4330
 2.6550	 7.6220
 2.6560	 7.5710
 2.6580	 7.2070
 2.6590	 7.0830
 2.6610	 6.9260
 2.6620	 6.6300
 2.6630	 6.6340
 2.6650	 6.5110
 2.6660	 6.4660
 2.6670	 6.6920
 2.6690	 6.7270
 2.6700	 6.4290
 2.6720	 6.3440
 2.6730	 6.3760
 2.6740	 6.3970
 2.6760	 6.0890
 2.6770	 6.1000
 2.6780	 6.0100
 2.6800	 5.7310
 2.6810	 5.8380
 2.6830	 6.0510
 2.6840	 5.9370
 2.6850	 5.6950
 2.6870	 5.5030
 2.6880	 5.5040
 2.6900	 5.5010
 2.6910	 5.4630
 2.6920	 5.2800
 2.6940	 5.3870
 2.6950	 5.4890
 2.6970	 5.5970
 2.6980	 5.5340
 2.6990	 5.4620
 2.7010	 5.4000
 2.7020	 5.7160
 2.7040	 5.6770
 2.7050	 5.3110
 2.7060	 5.0910
 2.7080	 5.1690
 2.7090	 5.1340
 2.7110	 5.3390
 2.7120	 5.4060
 2.7130	 5.3200
 2.7150	 5.3340
 2.7160	 5.3890
 2.7180	 5.3040
 2.7190	 5.5010
 2.7210	 5.6640
 2.7220	 5.3710
 2.7230	 5.1960
 2.7250	 5.6200
 2.7260	 5.6840
 2.7280	 5.2330
 2.7290	 5.0560
 2.7310	 5.4800
 2.7320	 5.4600
 2.7330	 5.3780
 2.7350	 5.6590
 2.7360	 5.9140
 2.7380	 5.4590
 2.7390	 5.2640
 2.7410	 5.3300
 2.7420	 5.5250
 2.7440	 5.5250
 2.7450	 5.3170
 2.7470	 4.9150
 2.7480	 4.6380
 2.7490	 4.3600
 2.7510	 4.6070
 2.7520	 4.8860
 2.7540	 5.3440
 2.7550	 5.8660
 2.7570	 6.1740
 2.7580	 5.2800
 2.7600	 4.7110
 2.7610	 4.8850
 2.7630	 5.1860
 2.7640	 5.4320
 2.7660	 5.3950
 2.7670	 5.7110
 2.7680	 5.8850
 2.7700	 5.5700
 2.7710	 5.2590
 2.7730	 4.9200
 2.7740	 5.1620
 2.7760	 5.3790
 2.7770	 5.2140
 2.7790	 5.1160
 2.7800	 5.2110
 2.7820	 5.0630
 2.7830	 4.8740
 2.7850	 4.8610
 2.7860	 5.2560
 2.7880	 5.2410
 2.7890	 5.0670
 2.7910	 4.9510
 2.7920	 5.0790
 2.7940	 5.0430
 2.7950	 5.1620
 2.7970	 5.2320
 2.7980	 5.2800
 2.8000	 5.3190
 2.8010	 5.1740
 2.8030	 4.8560
 2.8040	 4.9110
 2.8060	 5.1380
 2.8070	 5.2850
 2.8090	 5.3810
 2.8110	 5.3320
 2.8120	 5.1120
 2.8140	 5.2190
 2.8150	 5.3340
 2.8170	 5.4060
 2.8180	 5.2770
 2.8200	 5.1420
 2.8210	 5.0870
 2.8230	 5.0100
 2.8240	 4.8820
 2.8260	 5.2100
 2.8270	 5.4390
 2.8290	 5.5670
 2.8300	 5.5360
 2.8320	 5.3970
 2.8340	 5.2820
 2.8350	 5.3350
 2.8370	 5.2540
 2.8380	 5.2900
 2.8400	 5.3970
 2.8410	 5.3840
 2.8430	 5.2140
 2.8440	 5.1650
 2.8460	 5.2350
 2.8480	 5.2880
 2.8490	 5.3260
 2.8510	 5.3550
 2.8520	 5.2300
 2.8540	 5.0900
 2.8550	 5.0470
 2.8570	 5.0220
 2.8590	 5.0100
 2.8600	 5.0910
 2.8620	 5.0810
 2.8630	 5.2360
 2.8650	 5.5580
 2.8660	 5.6590
 2.8680	 5.6210
 2.8700	 5.3960
 2.8710	 5.0520
 2.8730	 4.9960
 2.8740	 4.5820
 2.8760	 4.7100
 2.8780	 4.9950
 2.8790	 4.7790
 2.8810	 4.9060
 2.8820	 5.0760
 2.8840	 5.2620
 2.8860	 5.4740
 2.8870	 4.9750
 2.8890	 4.9320
 2.8900	 4.5880
 2.8920	 4.5500
 2.8940	 5.0210
 2.8950	 5.4880
 2.8970	 5.4300
 2.8980	 5.2460
 2.9000	 5.1170
 2.9020	 5.1690
 2.9030	 5.1310
 2.9050	 5.1760
 2.9070	 5.1310
 2.9080	 5.0450
 2.9100	 5.1210
 2.9120	 5.0980
 2.9130	 5.0370
 2.9150	 5.2040
 2.9160	 5.2680
 2.9180	 5.2670
 2.9200	 5.1570
 2.9210	 5.0010
 2.9230	 4.9990
 2.9250	 5.1660
 2.9260	 5.1970
 2.9280	 5.1860
 2.9300	 5.2700
 2.9310	 5.1460
 2.9330	 5.0450
 2.9350	 5.1950
 2.9360	 5.0940
 2.9380	 4.9050
 2.9400	 5.1550
 2.9410	 5.5370
 2.9430	 5.3630
 2.9450	 5.0420
 2.9460	 5.2330
 2.9480	 5.2850
 2.9500	 5.2820
 2.9510	 5.0170
 2.9530	 5.0570
 2.9550	 4.7630
 2.9560	 5.2820
 2.9580	 4.8500
 2.9600	 4.4920
 2.9610	 4.7050
 2.9630	 4.7680
 2.9650	 5.4640
 2.9660	 6.0290
 2.9680	 5.4230
 2.9700	 6.6880
 2.9720	 8.4890
 2.9730	 6.6410
 2.9750	 3.8810
 2.9770	 2.6830
 2.9780	 3.6260
 2.9800	 4.1020
 2.9820	 4.4210
 2.9840	 3.5670
 2.9850	 4.2340
 2.9870	 5.8130
 2.9890	 5.7070
 2.9900	 4.8030
 2.9920	 4.0140
 2.9940	 4.0500
 2.9960	 3.1580
 2.9970	 2.0190
 2.9990	 1.9360
 3.0010	 2.8360
 3.0030	 3.9210
 3.0040	 4.7060
 3.0060	 5.2020
 3.0080	 5.0130
 3.0100	 5.9340
 3.0110	 6.2750
 3.0130	 5.4370
 3.0150	 6.1930
 3.0170	 7.9720
 3.0180	 7.0950
 3.0200	 4.7970
 3.0220	 3.3300
 3.0240	 4.2180
 3.0250	 4.9000
 3.0270	 4.9320
 3.0290	 4.8580
 3.0310	 4.7930
 3.0320	 4.8360
 3.0340	 4.9720
 3.0360	 4.6310
 3.0380	 4.9860
 3.0400	 5.4550
 3.0410	 6.4760
 3.0430	 6.5870
 3.0450	 5.7500
 3.0470	 5.3390
 3.0480	 6.2230
 3.0500	 6.8530
 3.0520	 6.6510
 3.0540	 4.7610
 3.0560	 2.4630
 3.0570	 1.6080
 3.0590	 2.1760
 3.0610	 4.6030
 3.0630	 7.2120
 3.0650	 6.6520
 3.0660	 6.2810
 3.0680	 3.8410
 3.0700	 3.7810
 3.0720	 5.3120
 3.0740	 5.0150
 3.0760	 4.8410
 3.0770	 4.7610
 3.0790	 4.5910
 3.0810	 4.6850
 3.0830	 4.8330
 3.0850	 4.8210
 3.0870	 4.8540
 3.0880	 4.8430
 3.0900	 4.6260
 3.0920	 4.7580
 3.0940	 4.9840
 3.0960	 4.9370
 3.0980	 4.4150
 3.0990	 4.3340
 3.1010	 4.3790
 3.1030	 4.4590
 3.1050	 4.5410
 3.1070	 4.3980
 3.1090	 4.1490
 3.1110	 3.5990
 3.1120	 3.7060
 3.1140	 4.6050
 3.1160	 5.1870
 3.1180	 5.2630
 3.1200	 5.0040
 3.1220	 5.1750
 3.1240	 4.2870
 3.1260	 3.6560
 3.1270	 3.8710
 3.1290	 4.0840
 3.1310	 3.5540
 3.1330	 3.2500
 3.1350	 4.2870
 3.1370	 5.1980
 3.1390	 4.8110
 3.1410	 3.2670
 3.1430	 4.1460
 3.1450	 4.4110
 3.1460	 3.2510
 3.1480	 4.1540
 3.1500	 3.3760
 3.1520	 3.2710
 3.1540	 4.6810
 3.1560	 5.2260
 3.1580	 4.3520
 3.1600	 4.0440
 3.1620	 4.5680
 3.1640	 5.6640
 3.1660	 5.5790
 3.1680	 4.5860
 3.1700	 2.7330
 3.1710	 1.3240
 3.1730	 1.6700
 3.1750	 4.7540
 3.1770	 5.9680
 3.1790	 4.7370
 3.1810	 3.9240
 3.1830	 3.7130
 3.1850	 3.3070
 3.1870	 4.3890
 3.1890	 4.5110
 3.1910	 4.8300
 3.1930	 4.7970
 3.1950	 4.7410
 3.1970	 4.8460
 3.1990	 4.9010
 3.2010	 4.6160
 3.2030	 4.6970
 3.2050	 4.6050
 3.2070	 4.5450
 3.2090	 4.3220
 3.2110	 4.3920
 3.2130	 4.4030
 3.2150	 4.3860
 3.2170	 4.3230
 3.2190	 4.4220
 3.2210	 4.4420
 3.2230	 4.7620
 3.2250	 4.8140
 3.2270	 4.6680
 3.2290	 4.3340
 3.2310	 4.4710
 3.2330	 4.8220
 3.2350	 4.5240
 3.2370	 4.2570
 3.2390	 4.7740
 3.2410	 4.7340
 3.2430	 4.5450
 3.2450	 4.7220
 3.2470	 5.2950
 3.2490	 4.8600
 3.2510	 4.1100
 3.2530	 4.2420
 3.2550	 4.4210
 3.2570	 4.0970
 3.2590	 4.3000
 3.2610	 4.5280
 3.2630	 4.8110
 3.2650	 4.8340
 3.2670	 4.8350
 3.2690	 4.6390
 3.2720	 4.4940
 3.2740	 4.3280
 3.2760	 4.3820
 3.2780	 4.4500
 3.2800	 4.8180
 3.2820	 4.9290
 3.2840	 4.9060
 3.2860	 4.6400
 3.2880	 4.4240
 3.2900	 4.5250
 3.2920	 4.5970
 3.2940	 4.2270
 3.2960	 4.3500
 3.2990	 4.6080
 3.3010	 4.7340
 3.3030	 4.6490
 3.3050	 4.2750
 3.3070	 4.0560
 3.3090	 4.2480
 3.3110	 4.4490
 3.3130	 4.7750
 3.3150	 4.7050
 3.3180	 4.3420
 3.3200	 4.4330
 3.3220	 4.8770
 3.3240	 4.8300
 3.3260	 4.1910
 3.3280	 3.9100
 3.3300	 4.1640
 3.3330	 4.0820
 3.3350	 4.1510
 3.3370	 4.2530
 3.3390	 4.1800
 3.3410	 4.2040
 3.3430	 4.2930
 3.3450	 4.0450
 3.3480	 4.0300
 3.3500	 4.1680
 3.3520	 4.2010
 3.3540	 4.3190
 3.3560	 4.3400
 3.3580	 4.1190
 3.3610	 4.0240
 3.3630	 4.1120
 3.3650	 4.2030
 3.3670	 4.1150
 3.3690	 4.0140
 3.3720	 3.8960
 3.3740	 3.9560
 3.3760	 4.0430
 3.3780	 4.0780
 3.3800	 3.9680
 3.3830	 3.9230
 3.3850	 4.1070
 3.3870	 4.2810
 3.3890	 4.0920
 3.3910	 3.9600
 3.3940	 3.8620
 3.3960	 4.0730
 3.3980	 4.2450
 3.4000	 4.1390
 3.4020	 3.9680
 3.4050	 4.3020
 3.4070	 4.6120
 3.4090	 4.8740
 3.4110	 5.0870
 3.4140	 5.1590
 3.4160	 5.3670
 3.4180	 5.7700
 3.4200	 6.3400
 3.4230	 7.0840
 3.4250	 7.9410
 3.4270	 8.8250
 3.4290	 9.1330
 3.4320	 8.7710
 3.4340	 8.0500
 3.4360	 7.3550
 3.4390	 6.9700
 3.4410	 6.7940
 3.4430	 6.5630
 3.4450	 6.4310
 3.4480	 6.3200
 3.4500	 6.2750
 3.4520	 6.0840
 3.4550	 5.9590
 3.4570	 5.9240
 3.4590	 5.8570
 3.4620	 5.5460
 3.4640	 5.6160
 3.4660	 5.7140
 3.4680	 5.7150
 3.4710	 5.4160
 3.4730	 5.3790
 3.4750	 5.4060
 3.4780	 5.2820
 3.4800	 5.1150
 3.4820	 5.2250
 3.4850	 5.2990
 3.4870	 5.2870
 3.4890	 5.1070
 3.4920	 4.9630
 3.4940	 5.0540
 3.4970	 5.2240
 3.4990	 5.3600
 3.5010	 5.6010
 3.5040	 6.0660
 3.5060	 6.6600
 3.5080	 7.6170
 3.5110	 8.6590
 3.5130	 8.6880
 3.5160	 8.0250
 3.5180	 7.1630
 3.5200	 6.7400
 3.5230	 6.6600
 3.5250	 6.6080
 3.5270	 6.4780
 3.5300	 6.2980
 3.5320	 6.0350
 3.5350	 5.9240
 3.5370	 5.9100
 3.5400	 5.9410
 3.5420	 5.7970
 3.5440	 5.6970
 3.5470	 5.5930
 3.5490	 5.5680
 3.5520	 5.5340
 3.5540	 5.6880
 3.5570	 5.7170
 3.5590	 5.6760
 3.5610	 5.5190
 3.5640	 5.5280
 3.5660	 5.4770
 3.5690	 5.4380
 3.5710	 5.5760
 3.5740	 5.7580
 3.5760	 5.7060
 3.5790	 5.6280
 3.5810	 5.5030
 3.5840	 5.6280
 3.5860	 5.7430
 3.5890	 5.8410
 3.5910	 5.5470
 3.5930	 5.3210
 3.5960	 5.7690
 3.5980	 6.1550
 3.6010	 6.0310
 3.6030	 5.8460
 3.6060	 5.5400
 3.6080	 5.3970
 3.6110	 5.4040
 3.6140	 5.5330
 3.6160	 5.4620
 3.6190	 5.4890
 3.6210	 5.6190
 3.6240	 5.6380
 3.6260	 5.5270
 3.6290	 5.4180
 3.6310	 5.4270
 3.6340	 5.5630
 3.6360	 5.5610
 3.6390	 5.5290
 3.6410	 5.4480
 3.6440	 5.4030
 3.6470	 5.4600
 3.6490	 5.5490
 3.6520	 5.5040
 3.6540	 5.5350
 3.6570	 5.6050
 3.6590	 5.5920
 3.6620	 5.5020
 3.6650	 5.3610
 3.6670	 5.2840
 3.6700	 5.3780
 3.6720	 5.4190
 3.6750	 5.4740
 3.6780	 5.5270
 3.6800	 5.6110
 3.6830	 5.5400
 3.6850	 5.4910
 3.6880	 5.5090
 3.6910	 5.5460
 3.6930	 5.5550
 3.6960	 5.5410
 3.6990	 5.4460
 3.7010	 5.5280
 3.7040	 5.6300
 3.7060	 5.6460
 3.7090	 5.5310
 3.7120	 5.5400
 3.7140	 5.5450
 3.7170	 5.5100
 3.7200	 5.5400
 3.7220	 5.6170
 3.7250	 5.5620
 3.7280	 5.5650
 3.7300	 5.5710
 3.7330	 5.4500
 3.7360	 5.3570
 3.7390	 5.5130
 3.7410	 5.5920
 3.7440	 5.6280
 3.7470	 5.6380
 3.7490	 5.6580
 3.7520	 5.7610
 3.7550	 5.8380
 3.7580	 5.8310
 3.7600	 5.8090
 3.7630	 5.8310
 3.7660	 5.9810
 3.7680	 5.9680
 3.7710	 5.7850
 3.7740	 5.6980
 3.7770	 5.7920
 3.7790	 5.7480
 3.7820	 5.7430
 3.7850	 5.6930
 3.7880	 5.7670
 3.7900	 5.9640
 3.7930	 5.9390
 3.7960	 5.6980
 3.7990	 5.8000
 3.8020	 6.0230
 3.8040	 5.9020
 3.8070	 5.7980
 3.8100	 5.9960
 3.8130	 5.9640
 3.8160	 5.8780
 3.8180	 5.9440
 3.8210	 6.0250
 3.8240	 6.0130
 3.8270	 5.8080
 3.8300	 5.8410
 3.8330	 6.0570
 3.8350	 6.1410
 3.8380	 6.3380
 3.8410	 6.1140
 3.8440	 6.0050
 3.8470	 6.1290
 3.8500	 6.2160
 3.8520	 6.2180
 3.8550	 6.0930
 3.8580	 6.0640
 3.8610	 6.1480
 3.8640	 6.1770
 3.8670	 6.2190
 3.8700	 6.1840
 3.8730	 6.1430
 3.8750	 6.0930
 3.8780	 6.1490
 3.8810	 6.1210
 3.8840	 6.2300
 3.8870	 6.1300
 3.8900	 6.0670
 3.8930	 6.1480
 3.8960	 6.2710
 3.8990	 6.2830
 3.9020	 6.2570
 3.9050	 6.2240
 3.9080	 6.2240
 3.9110	 6.2990
 3.9140	 6.4140
 3.9160	 6.2860
 3.9190	 6.1560
 3.9220	 6.1130
 3.9250	 6.2030
 3.9280	 6.2910
 3.9310	 6.2940
 3.9340	 6.2240
 3.9370	 6.3190
 3.9400	 6.3590
 3.9430	 6.3370
 3.9460	 6.2380
 3.9490	 6.1960
 3.9520	 6.2280
 3.9550	 6.2940
 3.9580	 6.3130
 3.9610	 6.2430
 3.9640	 6.2430
 3.9670	 6.3040
 3.9700	 6.3700
 3.9730	 6.3390
 3.9770	 6.2330
 3.9800	 6.2670
 3.9830	 6.2030
 3.9860	 6.1950
 3.9890	 6.2750
 3.9920	 6.2520
 3.9950	 6.1940
 3.9980	 6.2560
 4.0010	 6.2920
 4.0040	 6.3050
 4.0070	 6.2500
 4.0100	 6.2370
 4.0130	 6.3000
 4.0170	 6.2370
 4.0200	 6.1550
 4.0230	 6.2750
 4.0260	 6.1380
 4.0290	 5.9980
 4.0320	 6.0880
 4.0350	 6.2110
 4.0380	 6.1540
 4.0420	 6.1160
 4.0450	 6.1310
 4.0480	 6.1570
 4.0510	 6.2290
 4.0540	 6.2590
 4.0570	 6.2090
 4.0610	 6.3160
 4.0640	 6.2950
 4.0670	 6.2220
 4.0700	 6.1520
 4.0730	 6.1740
 4.0770	 6.0890
 4.0800	 6.1190
 4.0830	 6.1190
 4.0860	 5.9880
 4.0890	 5.9740
 4.0930	 6.1000
 4.0960	 6.1240
 4.0990	 6.0300
 4.1020	 6.0470
 4.1060	 6.1900
 4.1090	 6.0460
 4.1120	 5.9230
 4.1150	 6.1290
 4.1190	 6.3310
 4.1220	 6.2710
 4.1250	 6.1460
 4.1280	 6.0940
 4.1320	 6.0490
 4.1350	 5.9770
 4.1380	 6.0340
 4.1420	 6.0340
 4.1450	 6.0430
 4.1480	 5.9400
 4.1520	 5.7840
 4.1550	 5.7750
 4.1580	 5.8410
 4.1620	 5.9330
 4.1650	 5.9710
 4.1680	 5.9720
 4.1720	 5.9430
 4.1750	 5.8350
 4.1780	 5.8560
 4.1820	 5.9730
 4.1850	 6.0600
 4.1890	 6.0410
 4.1920	 5.8870
 4.1950	 5.6140
 4.1990	 5.6310
 4.2020	 5.7150
 4.2060	 5.6310
 4.2090	 5.6820
 4.2120	 5.6660
 4.2160	 5.5320
 4.2190	 5.4840
 4.2230	 5.4030
 4.2260	 5.1890
 4.2300	 5.3050
 4.2330	 5.3790
 4.2360	 5.1190
 4.2400	 4.9570
 4.2430	 4.7620
 4.2470	 4.7540
 4.2500	 5.1110
 4.2540	 5.3920
 4.2570	 5.3930
 4.2610	 5.4440
 4.2640	 5.4130
 4.2680	 5.3150
 4.2710	 5.2680
 4.2750	 5.1400
 4.2780	 5.0140
 4.2820	 5.1590
 4.2850	 5.2910
 4.2890	 5.3840
 4.2930	 5.4510
 4.2960	 5.3970
 4.3000	 5.1860
 4.3030	 5.3320
 4.3070	 5.2690
 4.3100	 5.0260
 4.3140	 5.0810
 4.3180	 5.4820
 4.3210	 5.6100
 4.3250	 5.3860
 4.3280	 5.1250
 4.3320	 5.1090
 4.3360	 5.2150
 4.3390	 5.3940
 4.3430	 5.4150
 4.3470	 5.2090
 4.3500	 5.1730
 4.3540	 5.2140
 4.3570	 5.2840
 4.3610	 5.3340
 4.3650	 5.2550
 4.3680	 5.2360
 4.3720	 5.2880
 4.3760	 5.2450
 4.3800	 5.3050
 4.3830	 5.3610
 4.3870	 5.2880
 4.3910	 5.2510
 4.3940	 5.2860
 4.3980	 5.2930
 4.4020	 5.2490
 4.4060	 5.1510
 4.4090	 5.1390
 4.4130	 5.1840
 4.4170	 5.1710
 4.4210	 5.2460
 4.4240	 5.1930
 4.4280	 5.1790
 4.4320	 5.2130
 4.4360	 5.2040
 4.4400	 5.1300
 4.4430	 5.1130
 4.4470	 5.1540
 4.4510	 5.1440
 4.4550	 5.1240
 4.4590	 5.2540
 4.4620	 5.2290
 4.4660	 5.1140
 4.4700	 5.0940
 4.4740	 5.0570
 4.4780	 5.0310
 4.4820	 5.0870
 4.4860	 5.0170
 4.4900	 5.0420
 4.4930	 5.0900
 4.4970	 5.0350
 4.5010	 5.0550
 4.5050	 5.0780
 4.5090	 5.0460
 4.5130	 5.0300
 4.5170	 5.0280
 4.5210	 5.0060
 4.5250	 5.0770
 4.5290	 5.0920
 4.5330	 5.0790
 4.5370	 5.0740
 4.5410	 5.0230
 4.5450	 5.0420
 4.5490	 5.1720
 4.5530	 5.1960
 4.5570	 5.1230
 4.5610	 4.9770
 4.5650	 4.8610
 4.5690	 4.9560
 4.5730	 5.1610
 4.5770	 5.2200
 4.5810	 5.2380
 4.5850	 5.1790
 4.5890	 5.0980
 4.5930	 5.1410
 4.5970	 5.1540
 4.6010	 5.1080
 4.6050	 5.2270
 4.6090	 5.3400
 4.6130	 5.2590
 4.6170	 5.0550
 4.6220	 4.9600
 4.6260	 5.0860
 4.6300	 5.3490
 4.6340	 5.3160
 4.6380	 5.0720
 4.6420	 5.0700
 4.6460	 5.0980
 4.6510	 4.9560
 4.6550	 4.9810
 4.6590	 5.0380
 4.6630	 5.0130
 4.6670	 5.0280
 4.6720	 5.0630
 4.6760	 5.0590
 4.6800	 5.0690
 4.6840	 5.1310
 4.6880	 5.1020
 4.6930	 4.9460
 4.6970	 4.9160
 4.7010	 5.0060
 4.7050	 5.0830
 4.7100	 5.0530
 4.7140	 5.0930
 4.7180	 5.0810
 4.7230	 5.0010
 4.7270	 4.8800
 4.7310	 4.8180
 4.7360	 4.9260
 4.7400	 5.0750
 4.7440	 5.1360
 4.7490	 5.1150
 4.7530	 4.9990
 4.7570	 4.9170
 4.7620	 4.8840
 4.7660	 4.8590
 4.7700	 4.8940
 4.7750	 5.1160
 4.7790	 5.0700
 4.7840	 5.0610
 4.7880	 4.8740
 4.7920	 4.5010
 4.7970	 4.5320
 4.8010	 4.7570
 4.8060	 4.9320
 4.8100	 4.9060
 4.8150	 4.9680
 4.8190	 4.9770
 4.8240	 5.0010
 4.8280	 5.0220
 4.8330	 4.9650
 4.8370	 4.8840
 4.8420	 4.9000
 4.8460	 4.9560
 4.8510	 5.0400
 4.8550	 5.0590
 4.8600	 5.0290
 4.8640	 5.0030
 4.8690	 4.9940
 4.8730	 5.0680
 4.8780	 5.0130
 4.8830	 4.9440
 4.8870	 5.0220
 4.8920	 5.0600
 4.8960	 5.0240
 4.9010	 4.9680
 4.9060	 4.9840
 4.9100	 5.0160
 4.9150	 4.8970
 4.9200	 4.9530
 4.9240	 5.0010
 4.9290	 5.0240
 4.9340	 5.0930
 4.9380	 5.1300
 4.9430	 5.1010
 4.9480	 5.1360
 4.9530	 5.1600
 4.9570	 5.0690
 4.9620	 5.0170
 4.9670	 5.0510
 4.9720	 5.0140
 4.9760	 4.9970
 4.9810	 5.1040
 4.9860	 5.1270
 4.9910	 5.0480
 4.9960	 5.0500
 5.0000	 5.0780
 5.0050	 5.1340
 5.0100	 5.1180
 5.0150	 5.1320
 5.0200	 5.1120
 5.0250	 5.1300
 5.0290	 5.1510
 5.0340	 5.1630
 5.0390	 5.1560
 5.0440	 5.1830
 5.0490	 5.1990
 5.0540	 5.2590
 5.0590	 5.1800
 5.0640	 5.1760
 5.0690	 5.2580
 5.0740	 5.2600
 5.0790	 5.2450
 5.0840	 5.2020
 5.0890	 5.1580
 5.0940	 5.2000
 5.0990	 5.3090
 5.1040	 5.3820
 5.1090	 5.3500
 5.1140	 5.3700
 5.1190	 5.3150
 5.1240	 5.2450
 5.1290	 5.2220
 5.1340	 5.3070
 5.1390	 5.3620
 5.1440	 5.3070
 5.1490	 5.1740
 5.1540	 5.3300
 5.1600	 5.4300
 5.1650	 5.3950
 5.1700	 5.3590
 5.1750	 5.3140
 5.1800	 5.3280
 5.1850	 5.3780
 5.1910	 5.4180
 5.1960	 5.4050
 5.2010	 5.3620
 5.2060	 5.4030
 5.2110	 5.4340
 5.2170	 5.4790
 5.2220	 5.4110
 5.2270	 5.3570
 5.2320	 5.4060
 5.2380	 5.4630
 5.2430	 5.4320
 5.2480	 5.4260
 5.2540	 5.3910
 5.2590	 5.4640
 5.2640	 5.5530
 5.2700	 5.5250
 5.2750	 5.4550
 5.2800	 5.4360
 5.2860	 5.4910
 5.2910	 5.4790
 5.2970	 5.3880
 5.3020	 5.3040
 5.3070	 5.3170
 5.3130	 5.4410
 5.3180	 5.5120
 5.3240	 5.4120
 5.3290	 5.3880
 5.3350	 5.4550
 5.3400	 5.5000
 5.3460	 5.4900
 5.3510	 5.4360
 5.3570	 5.4300
 5.3620	 5.4430
 5.3680	 5.4150
 5.3730	 5.4100
 5.3790	 5.4470
 5.3850	 5.4900
 5.3900	 5.5040
 5.3960	 5.3550
 5.4010	 5.3680
 5.4070	 5.4180
 5.4130	 5.3500
 5.4180	 5.2980
 5.4240	 5.4500
 5.4300	 5.4710
 5.4350	 5.3980
 5.4410	 5.3650
 5.4470	 5.2510
 5.4530	 5.1520
