Name: Quercus agrifolia 1
Type: vegetation
Class: Tree
Genus: Quercus
Species: agrifolia
Sample No.: VH271
Owner: UCSB
Wavelength Range: TIR
Origin: 34.7153; -120.0601; WGS84
Collection Date: 11/2/2013
Description: Samples were collected as part of the HyspIRI Airborne Campaign. 48 individual plants were sampled in three times in 2013 - spring  summer  and fall. The name of the sample includes a 1  2  or 3 which references a different individual of the species. Samples were taken to JPL and processed within 48 hours of collection. The same leaves were processed in the Nicolet and then measured using the ASD.
Measurement: Hemispherical reflectance
First Column: X
Second Column: Y
X Units: Wavelength (micrometers)
Y Units: Reflectance (percentage)
First X Value: 2.501
Last X Value: 15.387
Number of X Values: 1737
Additional Information: vegetation.tree.quercus.agrifolia.tir.vh271.ucsb.nicolet.ancillary.txt

 2.5010	 7.0650
 2.5030	 7.1400
 2.5040	 7.0790
 2.5050	 7.0160
 2.5060	 7.1060
 2.5070	 7.0650
 2.5090	 6.8920
 2.5100	 6.8240
 2.5110	 6.8670
 2.5120	 6.9020
 2.5140	 6.8260
 2.5150	 6.8800
 2.5160	 6.9980
 2.5170	 6.9360
 2.5180	 7.0390
 2.5200	 7.0880
 2.5210	 6.9630
 2.5220	 6.8920
 2.5230	 6.9030
 2.5250	 6.9510
 2.5260	 7.0630
 2.5270	 6.9930
 2.5280	 6.8400
 2.5290	 6.7990
 2.5310	 6.9530
 2.5320	 6.9220
 2.5330	 6.8320
 2.5340	 6.8540
 2.5360	 6.9270
 2.5370	 6.9780
 2.5380	 7.0810
 2.5390	 7.1200
 2.5410	 7.0020
 2.5420	 7.0160
 2.5430	 7.0160
 2.5440	 6.8900
 2.5460	 6.9730
 2.5470	 7.0960
 2.5480	 7.1320
 2.5490	 7.0350
 2.5510	 7.0410
 2.5520	 7.0120
 2.5530	 6.8750
 2.5540	 7.0110
 2.5560	 7.2120
 2.5570	 7.1350
 2.5580	 7.1230
 2.5590	 7.1740
 2.5610	 7.2000
 2.5620	 7.0700
 2.5630	 7.0570
 2.5640	 7.1170
 2.5660	 7.2110
 2.5670	 7.1770
 2.5680	 7.0130
 2.5700	 7.0440
 2.5710	 7.1540
 2.5720	 7.0440
 2.5730	 7.0000
 2.5750	 7.1180
 2.5760	 7.2820
 2.5770	 7.1850
 2.5790	 7.0420
 2.5800	 7.1060
 2.5810	 7.0880
 2.5820	 6.9900
 2.5840	 6.9110
 2.5850	 6.8870
 2.5860	 6.9460
 2.5880	 7.0520
 2.5890	 7.2730
 2.5900	 7.1710
 2.5910	 7.0480
 2.5930	 7.0380
 2.5940	 6.8530
 2.5950	 6.6910
 2.5970	 6.8950
 2.5980	 7.1320
 2.5990	 7.1350
 2.6000	 6.9950
 2.6020	 6.9340
 2.6030	 6.9250
 2.6040	 6.9640
 2.6060	 6.9100
 2.6070	 6.8800
 2.6080	 6.8440
 2.6100	 6.7610
 2.6110	 6.7200
 2.6120	 6.7160
 2.6140	 6.7800
 2.6150	 6.9420
 2.6160	 6.8370
 2.6180	 6.6090
 2.6190	 6.5860
 2.6200	 6.7170
 2.6220	 6.7570
 2.6230	 6.8150
 2.6240	 6.8490
 2.6260	 6.7380
 2.6270	 6.5990
 2.6280	 6.6620
 2.6300	 6.7750
 2.6310	 6.5340
 2.6320	 6.4210
 2.6340	 6.6190
 2.6350	 6.6660
 2.6360	 6.6820
 2.6380	 6.5260
 2.6390	 6.4980
 2.6400	 6.5500
 2.6420	 6.6160
 2.6430	 6.3700
 2.6440	 6.1390
 2.6460	 6.1960
 2.6470	 6.2770
 2.6480	 6.2990
 2.6500	 6.2480
 2.6510	 6.1190
 2.6520	 6.0960
 2.6540	 6.0030
 2.6550	 6.0280
 2.6560	 6.0220
 2.6580	 6.0850
 2.6590	 6.0060
 2.6610	 5.8950
 2.6620	 5.8630
 2.6630	 5.9160
 2.6650	 5.8240
 2.6660	 5.8550
 2.6670	 5.6280
 2.6690	 5.4780
 2.6700	 5.3510
 2.6720	 5.3470
 2.6730	 5.6140
 2.6740	 5.6400
 2.6760	 5.4370
 2.6770	 5.5040
 2.6780	 5.5810
 2.6800	 5.6340
 2.6810	 5.6480
 2.6830	 5.6650
 2.6840	 5.4330
 2.6850	 5.2640
 2.6870	 5.2730
 2.6880	 5.1840
 2.6900	 4.9820
 2.6910	 5.0580
 2.6920	 5.0500
 2.6940	 4.9160
 2.6950	 4.8160
 2.6970	 4.8110
 2.6980	 4.9220
 2.6990	 4.8850
 2.7010	 4.7080
 2.7020	 4.5800
 2.7040	 4.4320
 2.7050	 4.5210
 2.7060	 4.4680
 2.7080	 4.3810
 2.7090	 4.3360
 2.7110	 4.2640
 2.7120	 4.1410
 2.7130	 4.2700
 2.7150	 4.1780
 2.7160	 4.3090
 2.7180	 4.3510
 2.7190	 4.3270
 2.7210	 4.1280
 2.7220	 3.9270
 2.7230	 3.8880
 2.7250	 3.8130
 2.7260	 3.7500
 2.7280	 3.7570
 2.7290	 3.6840
 2.7310	 3.8090
 2.7320	 3.6850
 2.7330	 3.5540
 2.7350	 3.6290
 2.7360	 3.6400
 2.7380	 3.5240
 2.7390	 3.5820
 2.7410	 3.5810
 2.7420	 3.5590
 2.7440	 3.5980
 2.7450	 3.5390
 2.7470	 3.6370
 2.7480	 3.5790
 2.7490	 3.2910
 2.7510	 3.6100
 2.7520	 3.6700
 2.7540	 3.4020
 2.7550	 3.2930
 2.7570	 3.4910
 2.7580	 3.6500
 2.7600	 3.5210
 2.7610	 3.2540
 2.7630	 3.2680
 2.7640	 3.3670
 2.7660	 3.3260
 2.7670	 3.3190
 2.7680	 3.3090
 2.7700	 3.4200
 2.7710	 3.4570
 2.7730	 3.4480
 2.7740	 3.5370
 2.7760	 3.4250
 2.7770	 3.4190
 2.7790	 3.5870
 2.7800	 3.5840
 2.7820	 3.4200
 2.7830	 3.4250
 2.7850	 3.2800
 2.7860	 3.1350
 2.7880	 3.1260
 2.7890	 3.3210
 2.7910	 3.4150
 2.7920	 3.4620
 2.7940	 3.3850
 2.7950	 3.2710
 2.7970	 3.2230
 2.7980	 3.2890
 2.8000	 3.2590
 2.8010	 3.4000
 2.8030	 3.3810
 2.8040	 3.2800
 2.8060	 3.1710
 2.8070	 3.1900
 2.8090	 3.1720
 2.8110	 3.2330
 2.8120	 3.1940
 2.8140	 3.2580
 2.8150	 3.2240
 2.8170	 3.0970
 2.8180	 3.0530
 2.8200	 3.1230
 2.8210	 3.0720
 2.8230	 3.2240
 2.8240	 3.1110
 2.8260	 3.1640
 2.8270	 3.2280
 2.8290	 3.2640
 2.8300	 3.3310
 2.8320	 3.2700
 2.8340	 3.2170
 2.8350	 3.2430
 2.8370	 2.9620
 2.8380	 2.9030
 2.8400	 3.0550
 2.8410	 3.0340
 2.8430	 2.7810
 2.8440	 2.6750
 2.8460	 2.9250
 2.8480	 3.1690
 2.8490	 3.1010
 2.8510	 3.1620
 2.8520	 3.0350
 2.8540	 2.9510
 2.8550	 2.9630
 2.8570	 2.9350
 2.8590	 2.8790
 2.8600	 2.9510
 2.8620	 3.0470
 2.8630	 3.0410
 2.8650	 3.0470
 2.8660	 3.1890
 2.8680	 3.0680
 2.8700	 3.0770
 2.8710	 3.1460
 2.8730	 3.1580
 2.8740	 3.0620
 2.8760	 3.0320
 2.8780	 3.0470
 2.8790	 3.2150
 2.8810	 3.2470
 2.8820	 3.4230
 2.8840	 3.5290
 2.8860	 3.2970
 2.8870	 2.9740
 2.8890	 3.0000
 2.8900	 2.6100
 2.8920	 2.5140
 2.8940	 2.7520
 2.8950	 3.1590
 2.8970	 3.2710
 2.8980	 3.3010
 2.9000	 3.0880
 2.9020	 2.9860
 2.9030	 2.9200
 2.9050	 2.9860
 2.9070	 2.9760
 2.9080	 2.8520
 2.9100	 2.6890
 2.9120	 2.8580
 2.9130	 3.0120
 2.9150	 3.0580
 2.9160	 2.9660
 2.9180	 2.9340
 2.9200	 2.9710
 2.9210	 3.0420
 2.9230	 3.0120
 2.9250	 3.0130
 2.9260	 2.8500
 2.9280	 3.0380
 2.9300	 3.1390
 2.9310	 3.2150
 2.9330	 3.1390
 2.9350	 2.9490
 2.9360	 2.8020
 2.9380	 2.9960
 2.9400	 3.1330
 2.9410	 3.3860
 2.9430	 3.6810
 2.9450	 3.3220
 2.9460	 3.2980
 2.9480	 3.5750
 2.9500	 3.2070
 2.9510	 3.2210
 2.9530	 3.3070
 2.9550	 3.1450
 2.9560	 3.6040
 2.9580	 4.4310
 2.9600	 4.0160
 2.9610	 2.8310
 2.9630	 2.9950
 2.9650	 3.5940
 2.9660	 3.7370
 2.9680	 3.3360
 2.9700	 3.0090
 2.9720	 3.0700
 2.9730	 2.3610
 2.9750	 1.3540
 2.9770	 1.1340
 2.9780	 1.4420
 2.9800	 2.4850
 2.9820	 4.1090
 2.9840	 3.7940
 2.9850	 2.9680
 2.9870	 2.8070
 2.9890	 4.2810
 2.9900	 5.5030
 2.9920	 5.4400
 2.9940	 5.3170
 2.9960	 3.2010
 2.9970	 2.7110
 2.9990	 4.8000
 3.0010	 4.9820
 3.0030	 3.7520
 3.0040	 2.7690
 3.0060	 2.4660
 3.0080	 3.2210
 3.0100	 4.2170
 3.0110	 3.8710
 3.0130	 3.2160
 3.0150	 3.2850
 3.0170	 3.4870
 3.0180	 3.2170
 3.0200	 3.1460
 3.0220	 2.7730
 3.0240	 2.9110
 3.0250	 3.1130
 3.0270	 3.1960
 3.0290	 3.0600
 3.0310	 3.2830
 3.0320	 3.1030
 3.0340	 3.1650
 3.0360	 2.5940
 3.0380	 1.9170
 3.0400	 1.8200
 3.0410	 2.7070
 3.0430	 2.7080
 3.0450	 3.3780
 3.0470	 3.3160
 3.0480	 3.1310
 3.0500	 2.1220
 3.0520	 2.1890
 3.0540	 2.9410
 3.0560	 1.9910
 3.0570	 2.3470
 3.0590	 3.5210
 3.0610	 3.5840
 3.0630	 3.2170
 3.0650	 3.3150
 3.0660	 3.0990
 3.0680	 2.9720
 3.0700	 2.5240
 3.0720	 2.5280
 3.0740	 2.7470
 3.0760	 3.2440
 3.0770	 3.3970
 3.0790	 3.1940
 3.0810	 3.3730
 3.0830	 3.5590
 3.0850	 3.3460
 3.0870	 3.1410
 3.0880	 3.0550
 3.0900	 3.0820
 3.0920	 3.2980
 3.0940	 3.4260
 3.0960	 3.6570
 3.0980	 3.7190
 3.0990	 3.1870
 3.1010	 3.2020
 3.1030	 3.6990
 3.1050	 3.8020
 3.1070	 3.6530
 3.1090	 3.6200
 3.1110	 3.4980
 3.1120	 3.2430
 3.1140	 3.2120
 3.1160	 3.3260
 3.1180	 3.4750
 3.1200	 3.4060
 3.1220	 3.2920
 3.1240	 3.3510
 3.1260	 3.2380
 3.1270	 3.0790
 3.1290	 3.4340
 3.1310	 3.5610
 3.1330	 3.0160
 3.1350	 2.8040
 3.1370	 3.6200
 3.1390	 3.6940
 3.1410	 4.0980
 3.1430	 3.8960
 3.1450	 3.1080
 3.1460	 3.5630
 3.1480	 4.4190
 3.1500	 5.2170
 3.1520	 4.7440
 3.1540	 3.4840
 3.1560	 3.9410
 3.1580	 3.8360
 3.1600	 2.4500
 3.1620	 2.2750
 3.1640	 2.7450
 3.1660	 3.5650
 3.1680	 5.0990
 3.1700	 5.1810
 3.1710	 3.9020
 3.1730	 2.4610
 3.1750	 2.8590
 3.1770	 3.7380
 3.1790	 3.7490
 3.1810	 3.3970
 3.1830	 3.5670
 3.1850	 3.8410
 3.1870	 3.5560
 3.1890	 3.3350
 3.1910	 3.4870
 3.1930	 3.4970
 3.1950	 3.2730
 3.1970	 3.2470
 3.1990	 3.2720
 3.2010	 3.4260
 3.2030	 3.5790
 3.2050	 3.4100
 3.2070	 3.3830
 3.2090	 3.5050
 3.2110	 3.3660
 3.2130	 3.2010
 3.2150	 3.3620
 3.2170	 3.3620
 3.2190	 3.2320
 3.2210	 3.2990
 3.2230	 3.3750
 3.2250	 3.4340
 3.2270	 3.2880
 3.2290	 3.1790
 3.2310	 3.2760
 3.2330	 3.3860
 3.2350	 3.1840
 3.2370	 3.3940
 3.2390	 3.7190
 3.2410	 3.6130
 3.2430	 3.4710
 3.2450	 3.2910
 3.2470	 3.2260
 3.2490	 3.4540
 3.2510	 3.4700
 3.2530	 3.4330
 3.2550	 3.3140
 3.2570	 3.3600
 3.2590	 3.5770
 3.2610	 3.4410
 3.2630	 3.2560
 3.2650	 3.4790
 3.2670	 3.6310
 3.2690	 3.5550
 3.2720	 3.5080
 3.2740	 3.3910
 3.2760	 3.2760
 3.2780	 3.2690
 3.2800	 3.4540
 3.2820	 3.4580
 3.2840	 3.4560
 3.2860	 3.5480
 3.2880	 3.5410
 3.2900	 3.5710
 3.2920	 3.4700
 3.2940	 3.2450
 3.2960	 3.1070
 3.2990	 3.0360
 3.3010	 3.2890
 3.3030	 3.2770
 3.3050	 3.3330
 3.3070	 3.4500
 3.3090	 3.4820
 3.3110	 3.3500
 3.3130	 3.2630
 3.3150	 3.4630
 3.3180	 3.5040
 3.3200	 3.4980
 3.3220	 3.5260
 3.3240	 3.5000
 3.3260	 3.3840
 3.3280	 3.3880
 3.3300	 3.3180
 3.3330	 3.2930
 3.3350	 3.4630
 3.3370	 3.4810
 3.3390	 3.3170
 3.3410	 3.2880
 3.3430	 3.2950
 3.3450	 3.1540
 3.3480	 3.0990
 3.3500	 3.1080
 3.3520	 3.2090
 3.3540	 3.2590
 3.3560	 3.1820
 3.3580	 3.1880
 3.3610	 3.1090
 3.3630	 2.9960
 3.3650	 2.9410
 3.3670	 2.9290
 3.3690	 2.9720
 3.3720	 3.1220
 3.3740	 3.1740
 3.3760	 3.0470
 3.3780	 2.9620
 3.3800	 2.9080
 3.3830	 2.7440
 3.3850	 2.7210
 3.3870	 2.8790
 3.3890	 2.8920
 3.3910	 2.8700
 3.3940	 2.9950
 3.3960	 2.9110
 3.3980	 2.7280
 3.4000	 2.7960
 3.4020	 2.7490
 3.4050	 2.5870
 3.4070	 2.6380
 3.4090	 2.7430
 3.4110	 2.5580
 3.4140	 2.6170
 3.4160	 2.9420
 3.4180	 3.2360
 3.4200	 3.6890
 3.4230	 4.2170
 3.4250	 4.7440
 3.4270	 5.4900
 3.4290	 5.7890
 3.4320	 5.5330
 3.4340	 5.1460
 3.4360	 4.8920
 3.4390	 4.6300
 3.4410	 4.4740
 3.4430	 4.4890
 3.4450	 4.3240
 3.4480	 4.0910
 3.4500	 3.7760
 3.4520	 3.7730
 3.4550	 3.9710
 3.4570	 4.2400
 3.4590	 4.2120
 3.4620	 3.9100
 3.4640	 3.8100
 3.4660	 3.8190
 3.4680	 3.9230
 3.4710	 3.9340
 3.4730	 3.8430
 3.4750	 3.7800
 3.4780	 3.7450
 3.4800	 3.6240
 3.4820	 3.6590
 3.4850	 3.7480
 3.4870	 3.7160
 3.4890	 3.6470
 3.4920	 3.6310
 3.4940	 3.5260
 3.4970	 3.4360
 3.4990	 3.3860
 3.5010	 3.3840
 3.5040	 3.3080
 3.5060	 3.6820
 3.5080	 4.4560
 3.5110	 5.2550
 3.5130	 5.6160
 3.5160	 5.2520
 3.5180	 4.8840
 3.5200	 4.7390
 3.5230	 4.7010
 3.5250	 4.7490
 3.5270	 4.6950
 3.5300	 4.5090
 3.5320	 4.3440
 3.5350	 4.4210
 3.5370	 4.5920
 3.5400	 4.4460
 3.5420	 4.2840
 3.5440	 4.3560
 3.5470	 4.4400
 3.5490	 4.4560
 3.5520	 4.4000
 3.5540	 4.4070
 3.5570	 4.4560
 3.5590	 4.4760
 3.5610	 4.3910
 3.5640	 4.3880
 3.5660	 4.4300
 3.5690	 4.5130
 3.5710	 4.5520
 3.5740	 4.4630
 3.5760	 4.2980
 3.5790	 4.1610
 3.5810	 4.1460
 3.5840	 4.2440
 3.5860	 4.2300
 3.5890	 4.2340
 3.5910	 4.2660
 3.5930	 4.3370
 3.5960	 4.4180
 3.5980	 4.4450
 3.6010	 4.3560
 3.6030	 4.4200
 3.6060	 4.6000
 3.6080	 4.4300
 3.6110	 4.3370
 3.6140	 4.3650
 3.6160	 4.2780
 3.6190	 4.1740
 3.6210	 4.2240
 3.6240	 4.2810
 3.6260	 4.4420
 3.6290	 4.5030
 3.6310	 4.3850
 3.6340	 4.3370
 3.6360	 4.2690
 3.6390	 4.1760
 3.6410	 4.1920
 3.6440	 4.2230
 3.6470	 4.2810
 3.6490	 4.2520
 3.6520	 4.2800
 3.6540	 4.3210
 3.6570	 4.3460
 3.6590	 4.3220
 3.6620	 4.3410
 3.6650	 4.2320
 3.6670	 4.2010
 3.6700	 4.2460
 3.6720	 4.2620
 3.6750	 4.3510
 3.6780	 4.3760
 3.6800	 4.3250
 3.6830	 4.4180
 3.6850	 4.4610
 3.6880	 4.4210
 3.6910	 4.4110
 3.6930	 4.3540
 3.6960	 4.2960
 3.6990	 4.4120
 3.7010	 4.3730
 3.7040	 4.2990
 3.7060	 4.2760
 3.7090	 4.3080
 3.7120	 4.4140
 3.7140	 4.4940
 3.7170	 4.6060
 3.7200	 4.6310
 3.7220	 4.4550
 3.7250	 4.3810
 3.7280	 4.4870
 3.7300	 4.5600
 3.7330	 4.5970
 3.7360	 4.4670
 3.7390	 4.3210
 3.7410	 4.4030
 3.7440	 4.5570
 3.7470	 4.5500
 3.7490	 4.4210
 3.7520	 4.3240
 3.7550	 4.4770
 3.7580	 4.6490
 3.7600	 4.4900
 3.7630	 4.4250
 3.7660	 4.5330
 3.7680	 4.4210
 3.7710	 4.5260
 3.7740	 4.6420
 3.7770	 4.6140
 3.7790	 4.5980
 3.7820	 4.4510
 3.7850	 4.3830
 3.7880	 4.4710
 3.7900	 4.4990
 3.7930	 4.4890
 3.7960	 4.5240
 3.7990	 4.5650
 3.8020	 4.5850
 3.8040	 4.6310
 3.8070	 4.7210
 3.8100	 4.6070
 3.8130	 4.3160
 3.8160	 4.2880
 3.8180	 4.4270
 3.8210	 4.4360
 3.8240	 4.5220
 3.8270	 4.6600
 3.8300	 4.5640
 3.8330	 4.4790
 3.8350	 4.4300
 3.8380	 4.5060
 3.8410	 4.6740
 3.8440	 4.5100
 3.8470	 4.4670
 3.8500	 4.6410
 3.8520	 4.6760
 3.8550	 4.6760
 3.8580	 4.6190
 3.8610	 4.6230
 3.8640	 4.7030
 3.8670	 4.6740
 3.8700	 4.6540
 3.8730	 4.7150
 3.8750	 4.7660
 3.8780	 4.6990
 3.8810	 4.6310
 3.8840	 4.6260
 3.8870	 4.6660
 3.8900	 4.6700
 3.8930	 4.6530
 3.8960	 4.7630
 3.8990	 4.9180
 3.9020	 4.8130
 3.9050	 4.6740
 3.9080	 4.8190
 3.9110	 4.8920
 3.9140	 4.7480
 3.9160	 4.6870
 3.9190	 4.7310
 3.9220	 4.7810
 3.9250	 4.8180
 3.9280	 4.8050
 3.9310	 4.8070
 3.9340	 4.9320
 3.9370	 4.8670
 3.9400	 4.6650
 3.9430	 4.7540
 3.9460	 4.8600
 3.9490	 4.7340
 3.9520	 4.6870
 3.9550	 4.6800
 3.9580	 4.6910
 3.9610	 4.7620
 3.9640	 4.8360
 3.9670	 4.7960
 3.9700	 4.8810
 3.9730	 4.8840
 3.9770	 4.8090
 3.9800	 4.8720
 3.9830	 4.8540
 3.9860	 4.7980
 3.9890	 4.7710
 3.9920	 4.8040
 3.9950	 4.8370
 3.9980	 4.7570
 4.0010	 4.8180
 4.0040	 4.9180
 4.0070	 4.9410
 4.0100	 4.9160
 4.0130	 4.8560
 4.0170	 4.8380
 4.0200	 4.8980
 4.0230	 4.9240
 4.0260	 4.8900
 4.0290	 4.7970
 4.0320	 4.7580
 4.0350	 4.7680
 4.0380	 4.8210
 4.0420	 4.8920
 4.0450	 4.9740
 4.0480	 4.9430
 4.0510	 4.8460
 4.0540	 4.8510
 4.0570	 4.9200
 4.0610	 4.8770
 4.0640	 4.8870
 4.0670	 4.8250
 4.0700	 4.7810
 4.0730	 4.8290
 4.0770	 4.9440
 4.0800	 4.9130
 4.0830	 4.9380
 4.0860	 4.9460
 4.0890	 4.9490
 4.0930	 4.9170
 4.0960	 4.9390
 4.0990	 4.9090
 4.1020	 4.8460
 4.1060	 4.8760
 4.1090	 4.9410
 4.1120	 5.0020
 4.1150	 5.0300
 4.1190	 4.9250
 4.1220	 4.9310
 4.1250	 4.9250
 4.1280	 4.8590
 4.1320	 4.8110
 4.1350	 4.8520
 4.1380	 4.8950
 4.1420	 4.9650
 4.1450	 5.0120
 4.1480	 4.9760
 4.1520	 4.9200
 4.1550	 4.9290
 4.1580	 4.9730
 4.1620	 5.0500
 4.1650	 4.9690
 4.1680	 4.9830
 4.1720	 5.0130
 4.1750	 5.0550
 4.1780	 5.0330
 4.1820	 4.9570
 4.1850	 4.8770
 4.1890	 4.8970
 4.1920	 4.9540
 4.1950	 4.9550
 4.1990	 4.9580
 4.2020	 4.9910
 4.2060	 5.0130
 4.2090	 5.2200
 4.2120	 5.3140
 4.2160	 5.3510
 4.2190	 5.5450
 4.2230	 5.6820
 4.2260	 5.6410
 4.2300	 5.8570
 4.2330	 6.0900
 4.2360	 5.9490
 4.2400	 5.1700
 4.2430	 5.1630
 4.2470	 5.5530
 4.2500	 5.6840
 4.2540	 5.4110
 4.2570	 5.2190
 4.2610	 5.2390
 4.2640	 5.4810
 4.2680	 5.7190
 4.2710	 5.6280
 4.2750	 5.4630
 4.2780	 5.3930
 4.2820	 5.5320
 4.2850	 5.5660
 4.2890	 5.3980
 4.2930	 5.3340
 4.2960	 5.2790
 4.3000	 5.3410
 4.3030	 5.4250
 4.3070	 5.3780
 4.3100	 5.2300
 4.3140	 5.1500
 4.3180	 4.9970
 4.3210	 4.9010
 4.3250	 4.9020
 4.3280	 5.0520
 4.3320	 5.0810
 4.3360	 4.9430
 4.3390	 4.8650
 4.3430	 4.8580
 4.3470	 4.7700
 4.3500	 4.7220
 4.3540	 4.6950
 4.3570	 4.7490
 4.3610	 4.7140
 4.3650	 4.7180
 4.3680	 4.7290
 4.3720	 4.7000
 4.3760	 4.6530
 4.3800	 4.7370
 4.3830	 4.7360
 4.3870	 4.6990
 4.3910	 4.6860
 4.3940	 4.6690
 4.3980	 4.6540
 4.4020	 4.6360
 4.4060	 4.4990
 4.4090	 4.5130
 4.4130	 4.6020
 4.4170	 4.6250
 4.4210	 4.5920
 4.4240	 4.5840
 4.4280	 4.5810
 4.4320	 4.5980
 4.4360	 4.5640
 4.4400	 4.6190
 4.4430	 4.6130
 4.4470	 4.6080
 4.4510	 4.5160
 4.4550	 4.4530
 4.4590	 4.4790
 4.4620	 4.5320
 4.4660	 4.5100
 4.4700	 4.5070
 4.4740	 4.4790
 4.4780	 4.5170
 4.4820	 4.5020
 4.4860	 4.5120
 4.4900	 4.5280
 4.4930	 4.5480
 4.4970	 4.5020
 4.5010	 4.5100
 4.5050	 4.3870
 4.5090	 4.3010
 4.5130	 4.3250
 4.5170	 4.4440
 4.5210	 4.4270
 4.5250	 4.4600
 4.5290	 4.4950
 4.5330	 4.4770
 4.5370	 4.3710
 4.5410	 4.3780
 4.5450	 4.4440
 4.5490	 4.5010
 4.5530	 4.4650
 4.5570	 4.4510
 4.5610	 4.3540
 4.5650	 4.3020
 4.5690	 4.3440
 4.5730	 4.3790
 4.5770	 4.3620
 4.5810	 4.3760
 4.5850	 4.4030
 4.5890	 4.3570
 4.5930	 4.3000
 4.5970	 4.3230
 4.6010	 4.2890
 4.6050	 4.3630
 4.6090	 4.4150
 4.6130	 4.2800
 4.6170	 4.2470
 4.6220	 4.4250
 4.6260	 4.4000
 4.6300	 4.4120
 4.6340	 4.4200
 4.6380	 4.4120
 4.6420	 4.2920
 4.6460	 4.2440
 4.6510	 4.2090
 4.6550	 4.2640
 4.6590	 4.3020
 4.6630	 4.3160
 4.6670	 4.3530
 4.6720	 4.3920
 4.6760	 4.3730
 4.6800	 4.3980
 4.6840	 4.2930
 4.6880	 4.1930
 4.6930	 4.1090
 4.6970	 4.2300
 4.7010	 4.3310
 4.7050	 4.3070
 4.7100	 4.2470
 4.7140	 4.2950
 4.7180	 4.2480
 4.7230	 4.1630
 4.7270	 4.1520
 4.7310	 4.2560
 4.7360	 4.2460
 4.7400	 4.2390
 4.7440	 4.2730
 4.7490	 4.2410
 4.7530	 4.1730
 4.7570	 4.1550
 4.7620	 4.2030
 4.7660	 4.3390
 4.7700	 4.2470
 4.7750	 4.1930
 4.7790	 4.3290
 4.7840	 4.5200
 4.7880	 4.3560
 4.7920	 4.3500
 4.7970	 4.4400
 4.8010	 4.3540
 4.8060	 4.2120
 4.8100	 4.1610
 4.8150	 4.2380
 4.8190	 4.4240
 4.8240	 4.4270
 4.8280	 4.3860
 4.8330	 4.2520
 4.8370	 4.2230
 4.8420	 4.2080
 4.8460	 4.2290
 4.8510	 4.1840
 4.8550	 4.2720
 4.8600	 4.2520
 4.8640	 4.3180
 4.8690	 4.3840
 4.8730	 4.2710
 4.8780	 4.2310
 4.8830	 4.2430
 4.8870	 4.2520
 4.8920	 4.3040
 4.8960	 4.2770
 4.9010	 4.2710
 4.9060	 4.1980
 4.9100	 4.2200
 4.9150	 4.2500
 4.9200	 4.2860
 4.9240	 4.2490
 4.9290	 4.1890
 4.9340	 4.1370
 4.9380	 4.1990
 4.9430	 4.1850
 4.9480	 4.3600
 4.9530	 4.4040
 4.9570	 4.1960
 4.9620	 4.1260
 4.9670	 4.2340
 4.9720	 4.3670
 4.9760	 4.3880
 4.9810	 4.2490
 4.9860	 4.2840
 4.9910	 4.3200
 4.9960	 4.4630
 5.0000	 4.3830
 5.0050	 4.2750
 5.0100	 4.2750
 5.0150	 4.2920
 5.0200	 4.2660
 5.0250	 4.3620
 5.0290	 4.4340
 5.0340	 4.3980
 5.0390	 4.2950
 5.0440	 4.3260
 5.0490	 4.3570
 5.0540	 4.2880
 5.0590	 4.2350
 5.0640	 4.3490
 5.0690	 4.4330
 5.0740	 4.4540
 5.0790	 4.3540
 5.0840	 4.3890
 5.0890	 4.3630
 5.0940	 4.3700
 5.0990	 4.3230
 5.1040	 4.3360
 5.1090	 4.3590
 5.1140	 4.3830
 5.1190	 4.2560
 5.1240	 4.3680
 5.1290	 4.3880
 5.1340	 4.3800
 5.1390	 4.3120
 5.1440	 4.3110
 5.1490	 4.2290
 5.1540	 4.2690
 5.1600	 4.3460
 5.1650	 4.3910
 5.1700	 4.2810
 5.1750	 4.2390
 5.1800	 4.2770
 5.1850	 4.3400
 5.1910	 4.3080
 5.1960	 4.3890
 5.2010	 4.3630
 5.2060	 4.2960
 5.2110	 4.2190
 5.2170	 4.2380
 5.2220	 4.2890
 5.2270	 4.3140
 5.2320	 4.3320
 5.2380	 4.3470
 5.2430	 4.2630
 5.2480	 4.3620
 5.2540	 4.4000
 5.2590	 4.2400
 5.2640	 4.0820
 5.2700	 4.1120
 5.2750	 4.0930
 5.2800	 4.1390
 5.2860	 4.1560
 5.2910	 4.2060
 5.2970	 4.1640
 5.3020	 4.2500
 5.3070	 4.2580
 5.3130	 4.2960
 5.3180	 4.2020
 5.3240	 4.1350
 5.3290	 4.1890
 5.3350	 4.2700
 5.3400	 4.2380
 5.3460	 4.2420
 5.3510	 4.1730
 5.3570	 4.1190
 5.3620	 4.1570
 5.3680	 4.2860
 5.3730	 4.2320
 5.3790	 4.1440
 5.3850	 4.1510
 5.3900	 4.2150
 5.3960	 4.1310
 5.4010	 4.1590
 5.4070	 4.1410
 5.4130	 4.1710
 5.4180	 4.1030
 5.4240	 4.1230
 5.4300	 4.1560
 5.4350	 4.1580
 5.4410	 4.1020
