Name: Pinus lambertiana 3
Type: vegetation
Class: Tree
Genus: Pinus
Species: lambertiana
Sample No.: VH165
Owner: UCSB
Wavelength Range: TIR
Origin: 37.0433; -119.3048; WGS84
Collection Date: 6/8/2013
Description: Samples were collected as part of the HyspIRI Airborne Campaign. 48 individual plants were sampled in three times in 2013 - spring  summer  and fall. The name of the sample includes a 1  2  or 3 which references a different individual of the species. Samples were taken to JPL and processed within 48 hours of collection. The same leaves were processed in the Nicolet and then measured using the ASD.
Measurement: Hemispherical reflectance
First Column: X
Second Column: Y
X Units: Wavelength (micrometers)
Y Units: Reflectance (percentage)
First X Value: 2.501
Last X Value: 15.387
Number of X Values: 1737
Additional Information: vegetation.tree.pinus.lambertiana.tir.vh165.ucsb.nicolet.ancillary.txt

 2.5010	 5.1690
 2.5030	 5.2430
 2.5040	 5.2700
 2.5050	 5.2370
 2.5060	 5.3270
 2.5070	 5.4730
 2.5090	 5.2580
 2.5100	 5.0190
 2.5110	 5.2180
 2.5120	 5.3290
 2.5140	 5.4040
 2.5150	 5.2530
 2.5160	 5.1400
 2.5170	 5.1680
 2.5180	 5.3830
 2.5200	 5.3140
 2.5210	 5.2190
 2.5220	 5.1950
 2.5230	 5.2790
 2.5250	 5.2950
 2.5260	 5.3630
 2.5270	 5.3190
 2.5280	 5.2240
 2.5290	 5.1250
 2.5310	 5.1890
 2.5320	 5.1840
 2.5330	 5.2650
 2.5340	 5.3200
 2.5360	 5.3960
 2.5370	 5.3050
 2.5380	 5.3720
 2.5390	 5.3860
 2.5410	 5.3670
 2.5420	 5.3430
 2.5430	 5.3900
 2.5440	 5.2690
 2.5460	 5.2610
 2.5470	 5.2810
 2.5480	 5.3810
 2.5490	 5.4270
 2.5510	 5.5110
 2.5520	 5.4830
 2.5530	 5.3880
 2.5540	 5.3470
 2.5560	 5.4170
 2.5570	 5.2440
 2.5580	 5.2070
 2.5590	 5.2970
 2.5610	 5.4140
 2.5620	 5.3470
 2.5630	 5.3910
 2.5640	 5.3470
 2.5660	 5.4240
 2.5670	 5.3280
 2.5680	 5.3420
 2.5700	 5.4470
 2.5710	 5.4670
 2.5720	 5.3380
 2.5730	 5.3780
 2.5750	 5.4710
 2.5760	 5.5260
 2.5770	 5.3540
 2.5790	 5.3730
 2.5800	 5.3870
 2.5810	 5.3710
 2.5820	 5.2600
 2.5840	 5.3530
 2.5850	 5.2420
 2.5860	 5.1260
 2.5880	 5.1500
 2.5890	 5.1470
 2.5900	 5.2730
 2.5910	 5.4100
 2.5930	 5.3250
 2.5940	 5.2600
 2.5950	 5.2390
 2.5970	 5.4230
 2.5980	 5.3680
 2.5990	 5.3600
 2.6000	 5.2890
 2.6020	 5.3120
 2.6030	 5.3220
 2.6040	 5.3650
 2.6060	 5.3020
 2.6070	 5.2700
 2.6080	 5.1780
 2.6100	 5.1960
 2.6110	 5.0670
 2.6120	 4.9970
 2.6140	 5.1300
 2.6150	 5.3020
 2.6160	 5.2620
 2.6180	 5.0680
 2.6190	 4.8900
 2.6200	 4.9840
 2.6220	 5.0180
 2.6230	 5.0110
 2.6240	 4.9850
 2.6260	 5.0650
 2.6270	 5.0880
 2.6280	 5.0390
 2.6300	 4.9230
 2.6310	 4.9600
 2.6320	 4.9450
 2.6340	 4.9480
 2.6350	 4.9090
 2.6360	 4.9430
 2.6380	 4.8590
 2.6390	 4.8010
 2.6400	 4.7030
 2.6420	 4.7470
 2.6430	 4.7610
 2.6440	 4.7840
 2.6460	 4.6620
 2.6470	 4.7170
 2.6480	 4.8140
 2.6500	 4.7890
 2.6510	 4.6420
 2.6520	 4.7030
 2.6540	 4.7630
 2.6550	 4.7060
 2.6560	 4.4690
 2.6580	 4.5320
 2.6590	 4.5670
 2.6610	 4.6610
 2.6620	 4.6530
 2.6630	 4.5360
 2.6650	 4.3420
 2.6660	 4.2920
 2.6670	 4.2710
 2.6690	 4.4080
 2.6700	 4.4160
 2.6720	 4.4610
 2.6730	 4.4370
 2.6740	 4.4770
 2.6760	 4.3650
 2.6770	 4.3120
 2.6780	 4.2950
 2.6800	 4.3310
 2.6810	 4.3120
 2.6830	 4.3050
 2.6840	 4.1870
 2.6850	 4.2620
 2.6870	 4.1970
 2.6880	 4.1930
 2.6900	 4.1610
 2.6910	 4.1160
 2.6920	 4.1340
 2.6940	 4.2440
 2.6950	 4.0950
 2.6970	 3.9850
 2.6980	 3.8940
 2.6990	 3.9300
 2.7010	 3.8770
 2.7020	 3.7930
 2.7040	 3.7820
 2.7050	 3.8140
 2.7060	 3.7470
 2.7080	 3.8630
 2.7090	 3.8510
 2.7110	 3.8960
 2.7120	 3.9180
 2.7130	 3.9250
 2.7150	 3.7720
 2.7160	 3.6220
 2.7180	 3.4940
 2.7190	 3.6300
 2.7210	 3.6690
 2.7220	 3.6250
 2.7230	 3.7300
 2.7250	 3.6240
 2.7260	 3.5110
 2.7280	 3.5400
 2.7290	 3.5200
 2.7310	 3.5180
 2.7320	 3.6020
 2.7330	 3.7110
 2.7350	 3.6010
 2.7360	 3.4330
 2.7380	 3.4290
 2.7390	 3.5220
 2.7410	 3.3890
 2.7420	 3.2810
 2.7440	 3.4110
 2.7450	 3.5950
 2.7470	 3.4740
 2.7480	 3.3520
 2.7490	 3.4800
 2.7510	 3.4840
 2.7520	 3.5440
 2.7540	 3.7200
 2.7550	 3.6410
 2.7570	 3.7280
 2.7580	 3.5890
 2.7600	 3.7170
 2.7610	 3.6420
 2.7630	 3.3720
 2.7640	 3.3160
 2.7660	 3.4150
 2.7670	 3.3460
 2.7680	 3.5160
 2.7700	 3.5810
 2.7710	 3.6860
 2.7730	 3.6630
 2.7740	 3.5520
 2.7760	 3.4470
 2.7770	 3.5320
 2.7790	 3.4520
 2.7800	 3.5400
 2.7820	 3.4780
 2.7830	 3.4510
 2.7850	 3.3330
 2.7860	 3.3380
 2.7880	 3.3160
 2.7890	 3.4070
 2.7910	 3.4140
 2.7920	 3.4750
 2.7940	 3.3850
 2.7950	 3.3080
 2.7970	 3.3690
 2.7980	 3.4380
 2.8000	 3.5060
 2.8010	 3.5660
 2.8030	 3.5780
 2.8040	 3.5420
 2.8060	 3.2910
 2.8070	 3.3200
 2.8090	 3.3110
 2.8110	 3.4260
 2.8120	 3.3680
 2.8140	 3.3550
 2.8150	 3.3050
 2.8170	 3.3620
 2.8180	 3.4790
 2.8200	 3.4180
 2.8210	 3.1900
 2.8230	 3.1480
 2.8240	 3.0520
 2.8260	 3.2890
 2.8270	 3.2950
 2.8290	 3.2240
 2.8300	 3.2820
 2.8320	 3.1870
 2.8340	 3.1200
 2.8350	 3.2640
 2.8370	 3.2480
 2.8380	 3.1880
 2.8400	 3.1170
 2.8410	 3.3580
 2.8430	 3.4350
 2.8440	 3.4330
 2.8460	 3.4220
 2.8480	 3.3970
 2.8490	 3.3220
 2.8510	 3.4080
 2.8520	 3.3760
 2.8540	 3.3840
 2.8550	 3.3810
 2.8570	 3.5000
 2.8590	 3.4620
 2.8600	 3.3950
 2.8620	 3.3810
 2.8630	 3.4080
 2.8650	 3.3240
 2.8660	 3.4670
 2.8680	 3.4450
 2.8700	 3.4240
 2.8710	 3.4580
 2.8730	 3.5050
 2.8740	 3.4580
 2.8760	 3.3680
 2.8780	 3.2960
 2.8790	 3.3710
 2.8810	 3.2490
 2.8820	 3.1940
 2.8840	 3.3190
 2.8860	 3.4610
 2.8870	 3.5500
 2.8890	 3.6510
 2.8900	 3.3870
 2.8920	 3.3820
 2.8940	 3.1370
 2.8950	 3.1880
 2.8970	 3.2670
 2.8980	 3.2820
 2.9000	 3.4350
 2.9020	 3.6320
 2.9030	 3.5090
 2.9050	 3.3580
 2.9070	 3.3100
 2.9080	 3.4190
 2.9100	 3.4140
 2.9120	 3.3600
 2.9130	 3.2540
 2.9150	 3.4310
 2.9160	 3.4810
 2.9180	 3.4500
 2.9200	 3.3300
 2.9210	 3.3180
 2.9230	 3.2290
 2.9250	 3.1260
 2.9260	 3.1340
 2.9280	 3.3350
 2.9300	 3.4480
 2.9310	 3.4660
 2.9330	 3.2770
 2.9350	 3.2350
 2.9360	 3.3490
 2.9380	 3.3960
 2.9400	 3.3610
 2.9410	 3.5580
 2.9430	 3.6980
 2.9450	 3.6990
 2.9460	 3.3450
 2.9480	 3.0010
 2.9500	 3.2200
 2.9510	 3.6530
 2.9530	 4.0230
 2.9550	 3.9030
 2.9560	 3.2420
 2.9580	 3.1360
 2.9600	 3.3920
 2.9610	 3.7160
 2.9630	 3.4560
 2.9650	 3.7070
 2.9660	 4.2710
 2.9680	 4.0120
 2.9700	 3.4690
 2.9720	 2.8220
 2.9730	 3.9260
 2.9750	 4.2550
 2.9770	 3.9240
 2.9780	 4.0400
 2.9800	 4.3610
 2.9820	 4.4680
 2.9840	 4.3270
 2.9850	 4.4180
 2.9870	 3.8670
 2.9890	 2.3440
 2.9900	 2.0940
 2.9920	 3.9740
 2.9940	 5.6360
 2.9960	 5.1060
 2.9970	 3.7120
 2.9990	 3.6540
 3.0010	 4.2110
 3.0030	 4.2080
 3.0040	 3.0970
 3.0060	 2.8750
 3.0080	 3.4040
 3.0100	 3.3690
 3.0110	 3.1410
 3.0130	 3.4220
 3.0150	 3.5820
 3.0170	 3.6800
 3.0180	 3.0280
 3.0200	 2.7920
 3.0220	 3.0440
 3.0240	 3.3720
 3.0250	 3.2890
 3.0270	 3.2310
 3.0290	 3.2130
 3.0310	 3.3740
 3.0320	 3.6310
 3.0340	 4.0440
 3.0360	 3.7650
 3.0380	 3.7240
 3.0400	 3.7440
 3.0410	 4.2920
 3.0430	 3.8630
 3.0450	 3.7490
 3.0470	 5.3100
 3.0480	 4.6330
 3.0500	 4.1590
 3.0520	 3.1620
 3.0540	 2.4180
 3.0560	 3.8420
 3.0570	 4.1390
 3.0590	 3.8200
 3.0610	 3.1650
 3.0630	 2.9260
 3.0650	 2.1490
 3.0660	 2.4810
 3.0680	 3.4090
 3.0700	 3.1940
 3.0720	 2.9670
 3.0740	 3.0910
 3.0760	 3.0960
 3.0770	 3.2260
 3.0790	 3.2190
 3.0810	 3.2910
 3.0830	 3.3480
 3.0850	 3.3580
 3.0870	 3.2570
 3.0880	 3.2410
 3.0900	 3.2960
 3.0920	 3.2450
 3.0940	 3.2470
 3.0960	 3.2930
 3.0980	 3.1810
 3.0990	 3.2440
 3.1010	 3.2380
 3.1030	 3.3930
 3.1050	 3.4770
 3.1070	 3.4830
 3.1090	 3.4170
 3.1110	 3.4620
 3.1120	 3.2960
 3.1140	 3.2200
 3.1160	 3.4440
 3.1180	 3.6990
 3.1200	 3.2560
 3.1220	 2.9910
 3.1240	 3.1930
 3.1260	 3.3390
 3.1270	 3.1550
 3.1290	 2.9550
 3.1310	 3.1570
 3.1330	 3.4720
 3.1350	 2.9180
 3.1370	 3.1800
 3.1390	 4.0730
 3.1410	 4.1860
 3.1430	 3.4010
 3.1450	 2.9100
 3.1460	 2.9650
 3.1480	 3.4440
 3.1500	 4.2670
 3.1520	 4.2900
 3.1540	 3.6290
 3.1560	 3.3300
 3.1580	 3.0590
 3.1600	 3.1020
 3.1620	 2.6900
 3.1640	 4.0000
 3.1660	 5.0840
 3.1680	 5.1540
 3.1700	 4.5240
 3.1710	 4.1620
 3.1730	 4.7810
 3.1750	 4.0240
 3.1770	 2.5540
 3.1790	 2.7200
 3.1810	 3.1770
 3.1830	 3.2700
 3.1850	 3.0010
 3.1870	 3.0700
 3.1890	 3.4380
 3.1910	 3.5310
 3.1930	 3.3040
 3.1950	 3.3490
 3.1970	 3.2060
 3.1990	 3.1890
 3.2010	 3.2670
 3.2030	 3.3470
 3.2050	 3.2670
 3.2070	 3.3150
 3.2090	 3.4040
 3.2110	 3.4750
 3.2130	 3.3510
 3.2150	 3.3010
 3.2170	 3.1880
 3.2190	 3.2080
 3.2210	 3.2990
 3.2230	 3.3390
 3.2250	 3.1680
 3.2270	 3.1640
 3.2290	 3.2820
 3.2310	 3.4670
 3.2330	 3.3810
 3.2350	 3.4400
 3.2370	 3.4760
 3.2390	 3.3990
 3.2410	 3.3360
 3.2430	 3.2810
 3.2450	 3.2800
 3.2470	 3.3440
 3.2490	 3.3450
 3.2510	 3.4780
 3.2530	 3.2460
 3.2550	 3.1810
 3.2570	 3.2700
 3.2590	 3.2820
 3.2610	 2.9560
 3.2630	 2.8870
 3.2650	 2.8270
 3.2670	 2.8960
 3.2690	 3.1560
 3.2720	 3.3450
 3.2740	 3.5580
 3.2760	 3.4510
 3.2780	 3.2230
 3.2800	 3.1980
 3.2820	 3.1740
 3.2840	 3.2050
 3.2860	 3.1460
 3.2880	 3.2160
 3.2900	 3.4340
 3.2920	 3.3810
 3.2940	 3.0960
 3.2960	 2.9960
 3.2990	 3.0820
 3.3010	 3.2560
 3.3030	 3.3060
 3.3050	 3.2480
 3.3070	 3.3780
 3.3090	 3.5570
 3.3110	 3.2390
 3.3130	 3.0130
 3.3150	 3.0970
 3.3180	 3.1300
 3.3200	 3.0190
 3.3220	 2.9840
 3.3240	 2.9250
 3.3260	 2.9900
 3.3280	 3.0510
 3.3300	 3.0070
 3.3330	 3.0900
 3.3350	 3.1330
 3.3370	 2.9740
 3.3390	 3.0990
 3.3410	 3.1120
 3.3430	 3.2140
 3.3450	 3.1530
 3.3480	 2.9870
 3.3500	 2.9300
 3.3520	 2.9010
 3.3540	 2.8060
 3.3560	 2.8560
 3.3580	 2.8980
 3.3610	 2.8630
 3.3630	 2.7180
 3.3650	 2.7580
 3.3670	 2.7730
 3.3690	 2.6700
 3.3720	 2.5780
 3.3740	 2.7190
 3.3760	 2.6790
 3.3780	 2.5880
 3.3800	 2.5270
 3.3830	 2.4700
 3.3850	 2.5930
 3.3870	 2.8240
 3.3890	 2.6670
 3.3910	 2.5210
 3.3940	 2.4740
 3.3960	 2.5700
 3.3980	 2.5290
 3.4000	 2.4680
 3.4020	 2.4950
 3.4050	 2.5110
 3.4070	 2.3650
 3.4090	 2.3770
 3.4110	 2.4370
 3.4140	 2.6210
 3.4160	 2.7870
 3.4180	 3.0380
 3.4200	 3.2670
 3.4230	 3.7820
 3.4250	 4.4920
 3.4270	 5.2800
 3.4290	 5.7590
 3.4320	 5.7850
 3.4340	 5.5160
 3.4360	 5.1430
 3.4390	 4.7900
 3.4410	 4.7390
 3.4430	 4.5670
 3.4450	 4.4400
 3.4480	 4.2590
 3.4500	 4.1470
 3.4520	 4.3110
 3.4550	 4.3530
 3.4570	 4.3020
 3.4590	 4.2350
 3.4620	 4.0100
 3.4640	 3.9530
 3.4660	 3.9240
 3.4680	 3.9560
 3.4710	 3.9300
 3.4730	 3.9500
 3.4750	 3.8570
 3.4780	 3.7950
 3.4800	 3.7090
 3.4820	 3.7020
 3.4850	 3.5470
 3.4870	 3.4200
 3.4890	 3.4260
 3.4920	 3.4260
 3.4940	 3.3040
 3.4970	 3.1320
 3.4990	 3.0530
 3.5010	 3.1530
 3.5040	 3.3550
 3.5060	 3.8970
 3.5080	 4.8240
 3.5110	 5.6350
 3.5130	 5.8970
 3.5160	 5.7870
 3.5180	 5.3800
 3.5200	 5.1140
 3.5230	 4.8670
 3.5250	 4.7580
 3.5270	 4.7210
 3.5300	 4.6780
 3.5320	 4.5440
 3.5350	 4.4750
 3.5370	 4.3780
 3.5400	 4.3950
 3.5420	 4.4140
 3.5440	 4.3950
 3.5470	 4.2560
 3.5490	 4.1880
 3.5520	 4.2250
 3.5540	 4.2740
 3.5570	 4.1950
 3.5590	 4.1920
 3.5610	 4.1920
 3.5640	 4.1780
 3.5660	 4.1450
 3.5690	 4.1880
 3.5710	 4.1280
 3.5740	 4.0580
 3.5760	 4.0370
 3.5790	 4.1390
 3.5810	 4.2360
 3.5840	 4.3020
 3.5860	 4.3150
 3.5890	 4.4110
 3.5910	 4.2420
 3.5930	 4.0470
 3.5960	 3.9580
 3.5980	 3.9290
 3.6010	 3.8850
 3.6030	 4.0150
 3.6060	 4.1710
 3.6080	 4.1320
 3.6110	 3.9340
 3.6140	 3.9250
 3.6160	 3.9580
 3.6190	 4.0440
 3.6210	 3.9960
 3.6240	 3.9710
 3.6260	 4.0180
 3.6290	 4.0580
 3.6310	 4.0510
 3.6340	 3.9670
 3.6360	 4.0330
 3.6390	 4.0130
 3.6410	 3.9010
 3.6440	 3.9370
 3.6470	 3.8930
 3.6490	 3.9150
 3.6520	 3.9640
 3.6540	 4.0170
 3.6570	 3.9210
 3.6590	 3.9290
 3.6620	 3.9330
 3.6650	 3.9220
 3.6670	 3.8920
 3.6700	 3.9600
 3.6720	 3.9620
 3.6750	 4.0000
 3.6780	 3.9460
 3.6800	 3.9120
 3.6830	 3.9250
 3.6850	 3.9570
 3.6880	 3.9410
 3.6910	 4.0000
 3.6930	 3.9680
 3.6960	 3.9670
 3.6990	 3.9130
 3.7010	 3.9810
 3.7040	 4.0090
 3.7060	 4.0400
 3.7090	 3.9990
 3.7120	 3.9390
 3.7140	 3.9050
 3.7170	 3.8810
 3.7200	 3.8080
 3.7220	 3.8710
 3.7250	 3.9420
 3.7280	 4.0260
 3.7300	 4.0600
 3.7330	 4.0190
 3.7360	 3.9760
 3.7390	 3.9890
 3.7410	 3.9140
 3.7440	 3.9890
 3.7470	 4.0290
 3.7490	 3.9760
 3.7520	 3.9930
 3.7550	 3.9550
 3.7580	 3.8560
 3.7600	 3.9340
 3.7630	 3.9310
 3.7660	 3.8920
 3.7680	 3.8200
 3.7710	 3.8390
 3.7740	 3.9260
 3.7770	 3.9460
 3.7790	 3.9610
 3.7820	 3.9860
 3.7850	 3.9890
 3.7880	 3.9480
 3.7900	 3.8950
 3.7930	 3.9410
 3.7960	 3.9490
 3.7990	 3.9390
 3.8020	 3.9650
 3.8040	 4.0980
 3.8070	 4.0300
 3.8100	 3.9570
 3.8130	 3.9550
 3.8160	 3.9940
 3.8180	 3.9590
 3.8210	 3.9900
 3.8240	 3.9870
 3.8270	 3.9790
 3.8300	 4.0250
 3.8330	 4.0660
 3.8350	 3.9910
 3.8380	 4.0670
 3.8410	 4.1370
 3.8440	 3.9740
 3.8470	 3.7930
 3.8500	 3.8400
 3.8520	 3.9710
 3.8550	 4.0010
 3.8580	 3.9040
 3.8610	 3.9370
 3.8640	 3.9470
 3.8670	 3.9780
 3.8700	 3.9910
 3.8730	 3.9820
 3.8750	 3.9420
 3.8780	 3.9650
 3.8810	 3.9980
 3.8840	 4.0700
 3.8870	 4.0310
 3.8900	 3.9420
 3.8930	 3.9460
 3.8960	 4.0460
 3.8990	 4.1190
 3.9020	 4.1590
 3.9050	 4.1090
 3.9080	 4.0620
 3.9110	 4.0380
 3.9140	 4.0830
 3.9160	 4.0400
 3.9190	 4.0370
 3.9220	 4.0140
 3.9250	 4.0460
 3.9280	 4.1180
 3.9310	 4.0920
 3.9340	 3.9930
 3.9370	 3.9970
 3.9400	 4.0230
 3.9430	 4.0300
 3.9460	 4.0240
 3.9490	 4.0840
 3.9520	 4.0640
 3.9550	 4.0430
 3.9580	 3.9890
 3.9610	 3.9880
 3.9640	 3.9700
 3.9670	 3.9790
 3.9700	 3.9960
 3.9730	 4.0770
 3.9770	 4.0540
 3.9800	 4.0550
 3.9830	 4.0480
 3.9860	 4.0460
 3.9890	 4.0410
 3.9920	 4.0630
 3.9950	 4.0540
 3.9980	 4.0340
 4.0010	 4.0110
 4.0040	 4.0220
 4.0070	 4.0410
 4.0100	 4.0890
 4.0130	 4.0370
 4.0170	 4.0100
 4.0200	 3.9960
 4.0230	 4.0500
 4.0260	 4.0650
 4.0290	 4.0610
 4.0320	 4.0140
 4.0350	 3.9720
 4.0380	 3.9330
 4.0420	 3.9980
 4.0450	 3.9910
 4.0480	 3.9890
 4.0510	 3.9540
 4.0540	 3.9700
 4.0570	 4.0210
 4.0610	 4.0570
 4.0640	 3.9770
 4.0670	 3.9570
 4.0700	 3.9870
 4.0730	 3.9510
 4.0770	 3.9640
 4.0800	 3.9760
 4.0830	 3.9370
 4.0860	 3.9930
 4.0890	 4.0550
 4.0930	 4.0410
 4.0960	 4.0200
 4.0990	 4.1490
 4.1020	 4.1230
 4.1060	 4.1410
 4.1090	 4.1200
 4.1120	 4.1890
 4.1150	 4.2050
 4.1190	 4.1220
 4.1220	 4.1120
 4.1250	 4.0770
 4.1280	 3.9590
 4.1320	 3.9480
 4.1350	 4.0140
 4.1380	 4.1190
 4.1420	 4.0960
 4.1450	 4.0570
 4.1480	 4.0730
 4.1520	 4.0740
 4.1550	 4.0100
 4.1580	 4.0270
 4.1620	 4.0380
 4.1650	 4.0110
 4.1680	 3.9560
 4.1720	 3.9700
 4.1750	 3.9620
 4.1780	 3.9890
 4.1820	 4.0170
 4.1850	 3.9540
 4.1890	 3.9340
 4.1920	 4.0520
 4.1950	 4.1510
 4.1990	 4.1790
 4.2020	 4.1280
 4.2060	 4.1980
 4.2090	 4.1320
 4.2120	 3.9610
 4.2160	 3.9040
 4.2190	 3.9360
 4.2230	 4.2010
 4.2260	 4.4830
 4.2300	 4.2120
 4.2330	 3.9680
 4.2360	 4.0020
 4.2400	 4.1560
 4.2430	 4.3410
 4.2470	 4.2840
 4.2500	 4.0690
 4.2540	 3.9930
 4.2570	 3.9740
 4.2610	 4.0980
 4.2640	 4.2080
 4.2680	 4.3820
 4.2710	 4.1350
 4.2750	 3.9640
 4.2780	 3.8810
 4.2820	 3.7720
 4.2850	 3.8920
 4.2890	 3.9970
 4.2930	 3.9580
 4.2960	 3.9530
 4.3000	 3.9010
 4.3030	 3.9760
 4.3070	 4.0320
 4.3100	 4.0070
 4.3140	 3.9590
 4.3180	 3.8970
 4.3210	 3.8370
 4.3250	 3.9320
 4.3280	 3.9920
 4.3320	 3.9880
 4.3360	 3.9840
 4.3390	 3.9790
 4.3430	 3.9760
 4.3470	 3.9940
 4.3500	 3.9740
 4.3540	 3.9460
 4.3570	 3.9030
 4.3610	 3.8730
 4.3650	 3.8480
 4.3680	 3.9040
 4.3720	 3.9140
 4.3760	 3.9000
 4.3800	 3.8940
 4.3830	 3.8760
 4.3870	 3.8510
 4.3910	 3.9110
 4.3940	 3.9650
 4.3980	 3.9340
 4.4020	 3.8460
 4.4060	 3.8200
 4.4090	 3.8800
 4.4130	 3.9140
 4.4170	 3.8720
 4.4210	 3.8080
 4.4240	 3.8380
 4.4280	 3.8860
 4.4320	 3.8840
 4.4360	 3.8660
 4.4400	 3.8570
 4.4430	 3.8180
 4.4470	 3.8100
 4.4510	 3.7950
 4.4550	 3.7600
 4.4590	 3.7890
 4.4620	 3.7830
 4.4660	 3.8070
 4.4700	 3.8020
 4.4740	 3.7640
 4.4780	 3.7700
 4.4820	 3.7450
 4.4860	 3.7610
 4.4900	 3.8570
 4.4930	 3.8160
 4.4970	 3.7700
 4.5010	 3.8000
 4.5050	 3.7800
 4.5090	 3.7840
 4.5130	 3.7980
 4.5170	 3.7680
 4.5210	 3.7810
 4.5250	 3.8100
 4.5290	 3.8070
 4.5330	 3.8010
 4.5370	 3.7770
 4.5410	 3.7950
 4.5450	 3.8070
 4.5490	 3.7800
 4.5530	 3.7410
 4.5570	 3.7500
 4.5610	 3.7850
 4.5650	 3.7820
 4.5690	 3.7760
 4.5730	 3.7720
 4.5770	 3.7430
 4.5810	 3.7140
 4.5850	 3.7440
 4.5890	 3.8140
 4.5930	 3.8260
 4.5970	 3.7250
 4.6010	 3.5840
 4.6050	 3.7190
 4.6090	 3.8800
 4.6130	 3.7390
 4.6170	 3.7050
 4.6220	 3.7340
 4.6260	 3.7530
 4.6300	 3.9530
 4.6340	 3.8990
 4.6380	 3.7040
 4.6420	 3.7090
 4.6460	 3.7190
 4.6510	 3.7390
 4.6550	 3.7430
 4.6590	 3.7000
 4.6630	 3.6720
 4.6670	 3.6700
 4.6720	 3.7080
 4.6760	 3.6790
 4.6800	 3.6280
 4.6840	 3.6670
 4.6880	 3.7020
 4.6930	 3.7020
 4.6970	 3.6650
 4.7010	 3.6370
 4.7050	 3.6530
 4.7100	 3.7020
 4.7140	 3.7370
 4.7180	 3.7590
 4.7230	 3.7210
 4.7270	 3.6930
 4.7310	 3.6890
 4.7360	 3.7210
 4.7400	 3.7360
 4.7440	 3.7610
 4.7490	 3.7350
 4.7530	 3.7030
 4.7570	 3.7530
 4.7620	 3.7710
 4.7660	 3.7540
 4.7700	 3.6610
 4.7750	 3.5810
 4.7790	 3.6000
 4.7840	 3.7010
 4.7880	 3.5290
 4.7920	 3.4770
 4.7970	 3.6220
 4.8010	 3.6660
 4.8060	 3.7460
 4.8100	 3.7590
 4.8150	 3.6730
 4.8190	 3.6970
 4.8240	 3.7490
 4.8280	 3.7340
 4.8330	 3.7440
 4.8370	 3.7290
 4.8420	 3.6740
 4.8460	 3.6320
 4.8510	 3.6020
 4.8550	 3.6050
 4.8600	 3.6210
 4.8640	 3.6150
 4.8690	 3.6240
 4.8730	 3.6650
 4.8780	 3.6490
 4.8830	 3.6100
 4.8870	 3.6500
 4.8920	 3.7010
 4.8960	 3.6770
 4.9010	 3.6490
 4.9060	 3.6540
 4.9100	 3.6660
 4.9150	 3.6580
 4.9200	 3.6260
 4.9240	 3.6190
 4.9290	 3.6310
 4.9340	 3.6270
 4.9380	 3.6590
 4.9430	 3.6710
 4.9480	 3.6730
 4.9530	 3.6740
 4.9570	 3.6500
 4.9620	 3.6390
 4.9670	 3.6760
 4.9720	 3.7000
 4.9760	 3.7110
 4.9810	 3.7630
 4.9860	 3.7690
 4.9910	 3.6780
 4.9960	 3.6400
 5.0000	 3.6910
 5.0050	 3.7930
 5.0100	 3.7640
 5.0150	 3.6680
 5.0200	 3.7110
 5.0250	 3.7340
 5.0290	 3.6780
 5.0340	 3.6840
 5.0390	 3.6730
 5.0440	 3.7230
 5.0490	 3.7290
 5.0540	 3.7000
 5.0590	 3.6750
 5.0640	 3.7180
 5.0690	 3.7290
 5.0740	 3.6820
 5.0790	 3.6290
 5.0840	 3.6250
 5.0890	 3.6370
 5.0940	 3.7270
 5.0990	 3.7640
 5.1040	 3.7750
 5.1090	 3.7450
 5.1140	 3.6520
 5.1190	 3.6050
 5.1240	 3.6370
 5.1290	 3.6950
 5.1340	 3.7300
 5.1390	 3.6780
 5.1440	 3.6920
 5.1490	 3.7000
 5.1540	 3.6610
 5.1600	 3.6500
 5.1650	 3.7270
 5.1700	 3.7620
 5.1750	 3.7870
 5.1800	 3.8080
 5.1850	 3.7990
 5.1910	 3.7520
 5.1960	 3.7070
 5.2010	 3.7190
 5.2060	 3.7320
 5.2110	 3.7230
 5.2170	 3.7140
 5.2220	 3.6930
 5.2270	 3.6800
 5.2320	 3.6150
 5.2380	 3.6410
 5.2430	 3.6910
 5.2480	 3.6990
 5.2540	 3.7380
 5.2590	 3.7590
 5.2640	 3.7290
 5.2700	 3.7200
 5.2750	 3.7170
 5.2800	 3.7320
 5.2860	 3.7300
 5.2910	 3.7400
 5.2970	 3.7380
 5.3020	 3.6920
 5.3070	 3.6450
 5.3130	 3.6500
 5.3180	 3.5990
 5.3240	 3.5820
 5.3290	 3.6180
 5.3350	 3.6580
 5.3400	 3.6130
 5.3460	 3.6080
 5.3510	 3.6010
 5.3570	 3.6470
 5.3620	 3.6270
 5.3680	 3.5890
 5.3730	 3.6110
 5.3790	 3.6240
 5.3850	 3.5580
 5.3900	 3.5300
 5.3960	 3.5340
 5.4010	 3.5610
 5.4070	 3.5090
 5.4130	 3.5210
 5.4180	 3.5630
 5.4240	 3.5790
 5.4300	 3.5550
 5.4350	 3.6150
 5.4410	 3.5830
