Name: Quercus douglasii 3
Type: vegetation
Class: Tree
Genus: Quercus
Species: douglasii
Sample No.: VH178
Owner: UCSB
Wavelength Range: TIR
Origin: 34.7165; -120.0605; WGS84
Collection Date: 6/9/2013
Description: Samples were collected as part of the HyspIRI Airborne Campaign. 48 individual plants were sampled in three times in 2013 - spring  summer  and fall. The name of the sample includes a 1  2  or 3 which references a different individual of the species. Samples were taken to JPL and processed within 48 hours of collection. The same leaves were processed in the Nicolet and then measured using the ASD.
Measurement: Hemispherical reflectance
First Column: X
Second Column: Y
X Units: Wavelength (micrometers)
Y Units: Reflectance (percentage)
First X Value: 2.501
Last X Value: 15.387
Number of X Values: 1737
Additional Information: vegetation.tree.quercus.douglasii.tir.vh178.ucsb.nicolet.ancillary.txt

 2.5010	 7.2520
 2.5030	 7.1760
 2.5040	 7.1930
 2.5050	 7.1720
 2.5060	 7.1970
 2.5070	 7.1190
 2.5090	 7.1470
 2.5100	 7.1850
 2.5110	 7.2290
 2.5120	 7.2000
 2.5140	 7.2010
 2.5150	 7.0910
 2.5160	 7.1290
 2.5170	 7.1630
 2.5180	 7.2040
 2.5200	 7.2360
 2.5210	 7.2810
 2.5220	 7.2120
 2.5230	 7.1720
 2.5250	 7.0760
 2.5260	 7.0830
 2.5270	 7.0270
 2.5280	 7.1250
 2.5290	 7.1610
 2.5310	 7.1970
 2.5320	 7.1840
 2.5330	 7.2700
 2.5340	 7.2520
 2.5360	 7.2230
 2.5370	 7.1690
 2.5380	 7.1920
 2.5390	 7.2140
 2.5410	 7.2920
 2.5420	 7.1730
 2.5430	 7.2890
 2.5440	 7.2770
 2.5460	 7.1460
 2.5470	 7.0890
 2.5480	 7.2810
 2.5490	 7.2740
 2.5510	 7.0950
 2.5520	 7.0240
 2.5530	 7.1340
 2.5540	 7.0590
 2.5560	 7.0420
 2.5570	 7.0280
 2.5580	 7.0710
 2.5590	 7.1510
 2.5610	 7.2260
 2.5620	 7.2010
 2.5630	 7.1270
 2.5640	 7.0140
 2.5660	 7.1740
 2.5670	 7.2030
 2.5680	 7.2200
 2.5700	 7.1980
 2.5710	 7.2030
 2.5720	 7.1930
 2.5730	 7.2610
 2.5750	 7.2340
 2.5760	 7.2880
 2.5770	 7.2730
 2.5790	 7.2320
 2.5800	 7.1550
 2.5810	 7.2860
 2.5820	 7.2870
 2.5840	 7.2300
 2.5850	 7.2820
 2.5860	 7.3710
 2.5880	 7.0810
 2.5890	 7.0430
 2.5900	 7.1670
 2.5910	 7.3510
 2.5930	 7.1050
 2.5940	 6.9360
 2.5950	 6.9600
 2.5970	 7.0220
 2.5980	 7.0260
 2.5990	 6.9780
 2.6000	 6.8930
 2.6020	 6.9690
 2.6030	 7.0140
 2.6040	 7.0710
 2.6060	 7.0200
 2.6070	 7.0080
 2.6080	 6.9720
 2.6100	 6.9480
 2.6110	 6.8710
 2.6120	 6.8370
 2.6140	 6.8870
 2.6150	 6.9630
 2.6160	 6.9390
 2.6180	 6.8690
 2.6190	 6.8150
 2.6200	 6.8240
 2.6220	 6.6720
 2.6230	 6.7220
 2.6240	 6.7670
 2.6260	 6.7880
 2.6270	 6.7080
 2.6280	 6.7830
 2.6300	 6.7700
 2.6310	 6.7380
 2.6320	 6.5940
 2.6340	 6.5800
 2.6350	 6.6700
 2.6360	 6.6670
 2.6380	 6.5870
 2.6390	 6.5140
 2.6400	 6.4030
 2.6420	 6.4980
 2.6430	 6.4250
 2.6440	 6.4910
 2.6460	 6.4710
 2.6470	 6.4720
 2.6480	 6.3960
 2.6500	 6.2950
 2.6510	 6.1600
 2.6520	 6.2180
 2.6540	 6.2540
 2.6550	 6.3840
 2.6560	 6.2890
 2.6580	 6.2840
 2.6590	 6.3300
 2.6610	 6.3400
 2.6620	 6.1100
 2.6630	 5.8670
 2.6650	 5.8190
 2.6660	 6.0610
 2.6670	 6.0190
 2.6690	 6.0140
 2.6700	 6.0390
 2.6720	 5.9740
 2.6730	 6.0300
 2.6740	 6.0860
 2.6760	 6.0060
 2.6770	 6.0030
 2.6780	 5.8870
 2.6800	 5.9140
 2.6810	 5.9020
 2.6830	 5.8550
 2.6840	 5.8760
 2.6850	 6.0630
 2.6870	 6.0210
 2.6880	 5.9450
 2.6900	 5.8220
 2.6910	 5.7020
 2.6920	 5.6240
 2.6940	 5.7340
 2.6950	 5.7080
 2.6970	 5.6080
 2.6980	 5.5980
 2.6990	 5.7250
 2.7010	 5.5490
 2.7020	 5.3790
 2.7040	 5.2910
 2.7050	 5.3420
 2.7060	 5.4540
 2.7080	 5.4800
 2.7090	 5.3180
 2.7110	 5.2490
 2.7120	 5.2190
 2.7130	 5.1900
 2.7150	 5.1390
 2.7160	 5.0740
 2.7180	 5.1160
 2.7190	 5.1920
 2.7210	 5.0950
 2.7220	 5.0300
 2.7230	 4.9120
 2.7250	 4.9330
 2.7260	 4.8530
 2.7280	 4.9360
 2.7290	 4.8800
 2.7310	 4.6860
 2.7320	 4.5990
 2.7330	 4.6680
 2.7350	 4.6240
 2.7360	 4.6030
 2.7380	 4.4770
 2.7390	 4.4680
 2.7410	 4.5510
 2.7420	 4.5260
 2.7440	 4.5500
 2.7450	 4.4450
 2.7470	 4.2280
 2.7480	 4.1820
 2.7490	 3.9630
 2.7510	 3.9930
 2.7520	 4.1250
 2.7540	 4.3380
 2.7550	 4.2930
 2.7570	 4.0440
 2.7580	 3.9950
 2.7600	 4.2340
 2.7610	 3.9920
 2.7630	 3.7180
 2.7640	 3.7280
 2.7660	 3.7610
 2.7670	 3.8470
 2.7680	 3.9310
 2.7700	 3.9590
 2.7710	 4.1620
 2.7730	 4.0890
 2.7740	 3.9130
 2.7760	 3.7920
 2.7770	 3.8360
 2.7790	 3.9110
 2.7800	 4.0340
 2.7820	 3.8850
 2.7830	 3.7260
 2.7850	 3.5920
 2.7860	 3.5870
 2.7880	 3.5330
 2.7890	 3.5550
 2.7910	 3.7670
 2.7920	 3.9740
 2.7940	 3.6670
 2.7950	 3.5490
 2.7970	 3.6940
 2.7980	 3.6620
 2.8000	 3.5040
 2.8010	 3.5370
 2.8030	 3.5980
 2.8040	 3.7710
 2.8060	 3.6380
 2.8070	 3.5550
 2.8090	 3.5450
 2.8110	 3.6150
 2.8120	 3.5030
 2.8140	 3.3500
 2.8150	 3.2910
 2.8170	 3.3040
 2.8180	 3.2250
 2.8200	 3.2550
 2.8210	 3.2260
 2.8230	 3.4110
 2.8240	 3.4630
 2.8260	 3.4680
 2.8270	 3.2810
 2.8290	 3.2510
 2.8300	 3.2980
 2.8320	 3.3680
 2.8340	 3.2810
 2.8350	 3.1580
 2.8370	 3.1840
 2.8380	 3.3400
 2.8400	 3.4070
 2.8410	 3.4630
 2.8430	 3.3850
 2.8440	 3.3670
 2.8460	 3.2210
 2.8480	 3.1000
 2.8490	 3.0860
 2.8510	 3.2270
 2.8520	 3.1800
 2.8540	 3.2930
 2.8550	 3.3680
 2.8570	 3.2980
 2.8590	 3.2290
 2.8600	 3.2380
 2.8620	 3.1990
 2.8630	 3.2430
 2.8650	 3.0650
 2.8660	 2.9640
 2.8680	 3.1060
 2.8700	 3.2350
 2.8710	 3.0390
 2.8730	 3.0590
 2.8740	 3.1310
 2.8760	 3.3460
 2.8780	 3.3740
 2.8790	 3.1590
 2.8810	 2.8990
 2.8820	 3.0140
 2.8840	 3.1270
 2.8860	 3.2740
 2.8870	 3.2380
 2.8890	 3.1690
 2.8900	 3.0420
 2.8920	 3.0860
 2.8940	 3.2940
 2.8950	 3.3040
 2.8970	 3.2490
 2.8980	 3.2110
 2.9000	 3.1190
 2.9020	 3.1350
 2.9030	 3.1870
 2.9050	 3.1360
 2.9070	 2.8970
 2.9080	 2.9760
 2.9100	 2.9880
 2.9120	 2.9110
 2.9130	 2.7320
 2.9150	 2.8370
 2.9160	 2.9220
 2.9180	 2.9550
 2.9200	 3.0040
 2.9210	 3.1200
 2.9230	 3.1350
 2.9250	 3.1040
 2.9260	 3.1430
 2.9280	 3.2480
 2.9300	 3.2330
 2.9310	 3.2410
 2.9330	 3.0790
 2.9350	 2.8780
 2.9360	 2.8860
 2.9380	 3.0300
 2.9400	 2.8550
 2.9410	 2.8000
 2.9430	 3.0120
 2.9450	 3.1570
 2.9460	 3.1400
 2.9480	 3.1920
 2.9500	 3.0480
 2.9510	 3.0470
 2.9530	 3.2410
 2.9550	 3.3930
 2.9560	 3.3920
 2.9580	 3.0010
 2.9600	 2.8530
 2.9610	 3.0320
 2.9630	 3.2800
 2.9650	 3.2190
 2.9660	 2.4450
 2.9680	 2.4350
 2.9700	 2.4530
 2.9720	 2.6390
 2.9730	 3.6410
 2.9750	 4.4770
 2.9770	 4.5160
 2.9780	 3.3820
 2.9800	 3.0380
 2.9820	 3.4510
 2.9840	 3.8750
 2.9850	 3.4730
 2.9870	 2.5820
 2.9890	 2.5490
 2.9900	 2.4240
 2.9920	 1.9210
 2.9940	 2.1240
 2.9960	 3.2360
 2.9970	 3.0060
 2.9990	 2.0670
 3.0010	 2.1840
 3.0030	 3.6540
 3.0040	 3.3600
 3.0060	 3.0270
 3.0080	 2.9820
 3.0100	 3.2940
 3.0110	 2.8290
 3.0130	 2.7930
 3.0150	 3.2160
 3.0170	 3.4410
 3.0180	 3.0940
 3.0200	 2.4880
 3.0220	 2.6100
 3.0240	 3.1420
 3.0250	 3.1750
 3.0270	 3.1520
 3.0290	 3.0570
 3.0310	 3.2140
 3.0320	 2.9890
 3.0340	 2.5330
 3.0360	 2.3520
 3.0380	 2.3380
 3.0400	 2.0690
 3.0410	 2.5340
 3.0430	 3.2720
 3.0450	 2.5160
 3.0470	 2.6890
 3.0480	 3.2880
 3.0500	 2.8240
 3.0520	 2.0500
 3.0540	 2.2160
 3.0560	 2.3420
 3.0570	 2.3050
 3.0590	 2.7740
 3.0610	 3.6140
 3.0630	 4.4550
 3.0650	 3.4210
 3.0660	 2.4260
 3.0680	 3.0820
 3.0700	 2.9250
 3.0720	 3.0110
 3.0740	 3.4600
 3.0760	 3.2840
 3.0770	 3.3160
 3.0790	 3.4450
 3.0810	 3.6070
 3.0830	 3.5090
 3.0850	 3.4130
 3.0870	 3.2480
 3.0880	 3.2920
 3.0900	 3.4360
 3.0920	 3.5060
 3.0940	 3.5500
 3.0960	 3.6380
 3.0980	 3.5050
 3.0990	 3.5490
 3.1010	 3.5070
 3.1030	 3.4550
 3.1050	 3.4200
 3.1070	 3.4440
 3.1090	 3.5580
 3.1110	 3.7530
 3.1120	 3.7690
 3.1140	 3.5090
 3.1160	 3.2020
 3.1180	 3.4190
 3.1200	 3.6410
 3.1220	 3.7530
 3.1240	 3.6230
 3.1260	 3.5870
 3.1270	 3.7190
 3.1290	 3.7020
 3.1310	 3.5920
 3.1330	 3.8780
 3.1350	 3.9480
 3.1370	 3.5340
 3.1390	 4.0410
 3.1410	 3.9300
 3.1430	 3.9800
 3.1450	 5.0430
 3.1460	 4.6170
 3.1480	 3.6980
 3.1500	 2.7450
 3.1520	 2.5530
 3.1540	 3.4410
 3.1560	 4.0100
 3.1580	 3.1200
 3.1600	 3.0790
 3.1620	 2.9650
 3.1640	 3.9970
 3.1660	 4.8900
 3.1680	 5.4990
 3.1700	 6.0500
 3.1710	 5.1400
 3.1730	 4.3310
 3.1750	 4.5920
 3.1770	 4.5710
 3.1790	 4.3130
 3.1810	 4.3880
 3.1830	 3.9200
 3.1850	 3.5530
 3.1870	 3.9040
 3.1890	 3.9990
 3.1910	 3.9900
 3.1930	 3.8900
 3.1950	 3.7760
 3.1970	 3.6400
 3.1990	 3.7560
 3.2010	 3.8910
 3.2030	 4.0270
 3.2050	 3.9720
 3.2070	 3.8880
 3.2090	 3.7990
 3.2110	 3.9690
 3.2130	 3.7860
 3.2150	 3.7090
 3.2170	 3.8330
 3.2190	 3.9750
 3.2210	 3.9440
 3.2230	 3.9230
 3.2250	 3.8640
 3.2270	 3.8000
 3.2290	 3.6400
 3.2310	 3.6750
 3.2330	 3.7890
 3.2350	 3.8940
 3.2370	 3.7300
 3.2390	 3.8020
 3.2410	 3.7290
 3.2430	 3.6750
 3.2450	 3.8140
 3.2470	 3.9490
 3.2490	 3.9380
 3.2510	 3.9940
 3.2530	 3.9580
 3.2550	 4.0250
 3.2570	 3.8670
 3.2590	 3.7570
 3.2610	 3.6880
 3.2630	 4.0650
 3.2650	 4.1670
 3.2670	 3.8330
 3.2690	 3.9520
 3.2720	 4.2450
 3.2740	 4.2000
 3.2760	 4.2240
 3.2780	 4.0780
 3.2800	 4.1630
 3.2820	 4.1500
 3.2840	 4.2720
 3.2860	 4.3990
 3.2880	 4.4080
 3.2900	 4.2270
 3.2920	 4.1180
 3.2940	 4.1720
 3.2960	 4.1460
 3.2990	 3.8990
 3.3010	 4.0410
 3.3030	 4.2340
 3.3050	 4.2910
 3.3070	 4.1620
 3.3090	 4.3170
 3.3110	 4.4330
 3.3130	 4.3440
 3.3150	 4.1180
 3.3180	 4.1750
 3.3200	 4.1300
 3.3220	 4.1790
 3.3240	 4.1140
 3.3260	 4.0880
 3.3280	 4.0300
 3.3300	 3.9340
 3.3330	 3.9220
 3.3350	 4.0710
 3.3370	 4.1080
 3.3390	 4.2540
 3.3410	 4.1490
 3.3430	 4.0540
 3.3450	 3.9930
 3.3480	 3.9780
 3.3500	 3.9900
 3.3520	 4.0430
 3.3540	 3.9470
 3.3560	 3.9050
 3.3580	 3.8110
 3.3610	 3.6810
 3.3630	 3.4890
 3.3650	 3.5920
 3.3670	 3.6680
 3.3690	 3.6960
 3.3720	 3.7420
 3.3740	 3.8160
 3.3760	 3.7920
 3.3780	 3.8450
 3.3800	 3.7780
 3.3830	 3.6740
 3.3850	 3.5900
 3.3870	 3.7770
 3.3890	 3.6120
 3.3910	 3.3480
 3.3940	 3.1850
 3.3960	 3.1930
 3.3980	 3.3380
 3.4000	 3.6270
 3.4020	 3.6110
 3.4050	 3.4890
 3.4070	 3.3430
 3.4090	 3.5260
 3.4110	 3.6810
 3.4140	 3.7760
 3.4160	 3.8560
 3.4180	 4.0310
 3.4200	 4.1250
 3.4230	 4.4200
 3.4250	 4.6900
 3.4270	 4.8950
 3.4290	 4.8870
 3.4320	 4.7240
 3.4340	 4.4450
 3.4360	 4.3250
 3.4390	 4.3020
 3.4410	 4.2510
 3.4430	 4.2560
 3.4450	 4.4240
 3.4480	 4.1760
 3.4500	 4.0850
 3.4520	 4.1370
 3.4550	 4.0150
 3.4570	 3.9480
 3.4590	 4.0620
 3.4620	 4.2980
 3.4640	 4.4340
 3.4660	 4.2760
 3.4680	 4.0720
 3.4710	 3.9340
 3.4730	 4.0180
 3.4750	 4.0880
 3.4780	 4.0170
 3.4800	 3.9220
 3.4820	 3.9420
 3.4850	 3.9700
 3.4870	 4.0380
 3.4890	 4.0260
 3.4920	 3.9960
 3.4940	 3.9420
 3.4970	 3.8950
 3.4990	 3.9160
 3.5010	 4.0200
 3.5040	 4.1290
 3.5060	 4.3640
 3.5080	 4.6900
 3.5110	 5.0070
 3.5130	 5.0000
 3.5160	 4.9370
 3.5180	 4.8400
 3.5200	 4.7700
 3.5230	 4.7910
 3.5250	 4.8780
 3.5270	 4.8280
 3.5300	 4.8340
 3.5320	 4.7370
 3.5350	 4.7420
 3.5370	 4.7530
 3.5400	 4.8480
 3.5420	 4.8460
 3.5440	 4.7970
 3.5470	 4.8270
 3.5490	 4.9620
 3.5520	 4.8590
 3.5540	 4.8580
 3.5570	 4.9350
 3.5590	 5.0230
 3.5610	 4.9790
 3.5640	 4.9380
 3.5660	 4.8670
 3.5690	 4.8960
 3.5710	 4.8600
 3.5740	 4.9250
 3.5760	 4.9130
 3.5790	 4.9190
 3.5810	 4.8640
 3.5840	 4.9330
 3.5860	 5.0500
 3.5890	 5.0490
 3.5910	 4.8310
 3.5930	 4.7730
 3.5960	 4.9830
 3.5980	 5.0740
 3.6010	 4.8740
 3.6030	 4.7110
 3.6060	 4.5610
 3.6080	 4.8200
 3.6110	 5.0800
 3.6140	 5.1010
 3.6160	 5.0280
 3.6190	 4.9950
 3.6210	 4.9760
 3.6240	 4.9960
 3.6260	 5.0000
 3.6290	 5.0670
 3.6310	 5.1140
 3.6340	 5.1060
 3.6360	 5.1130
 3.6390	 5.1020
 3.6410	 5.0420
 3.6440	 5.0050
 3.6470	 5.0070
 3.6490	 5.0670
 3.6520	 5.0500
 3.6540	 5.0830
 3.6570	 5.0440
 3.6590	 5.0300
 3.6620	 5.0460
 3.6650	 5.1120
 3.6670	 5.0060
 3.6700	 4.9110
 3.6720	 4.9320
 3.6750	 5.0680
 3.6780	 5.0260
 3.6800	 4.9970
 3.6830	 4.9920
 3.6850	 5.0700
 3.6880	 5.0380
 3.6910	 5.0250
 3.6930	 5.0580
 3.6960	 5.0860
 3.6990	 5.0630
 3.7010	 5.1430
 3.7040	 5.0520
 3.7060	 5.0470
 3.7090	 5.0740
 3.7120	 5.0480
 3.7140	 5.0720
 3.7170	 5.1630
 3.7200	 5.0940
 3.7220	 5.0050
 3.7250	 5.0030
 3.7280	 5.2480
 3.7300	 5.2150
 3.7330	 5.1470
 3.7360	 5.1970
 3.7390	 5.2010
 3.7410	 5.1790
 3.7440	 5.2530
 3.7470	 5.2390
 3.7490	 5.2210
 3.7520	 5.1470
 3.7550	 5.0800
 3.7580	 5.1340
 3.7600	 5.3560
 3.7630	 5.3230
 3.7660	 5.2620
 3.7680	 5.2860
 3.7710	 5.3160
 3.7740	 5.2250
 3.7770	 5.2150
 3.7790	 5.2410
 3.7820	 5.2630
 3.7850	 5.2330
 3.7880	 5.1840
 3.7900	 5.1380
 3.7930	 5.1670
 3.7960	 5.2090
 3.7990	 5.2010
 3.8020	 5.2200
 3.8040	 5.2810
 3.8070	 5.2960
 3.8100	 5.2860
 3.8130	 5.2890
 3.8160	 5.3740
 3.8180	 5.4000
 3.8210	 5.3500
 3.8240	 5.2950
 3.8270	 5.2470
 3.8300	 5.2230
 3.8330	 5.3240
 3.8350	 5.2680
 3.8380	 5.2650
 3.8410	 5.1790
 3.8440	 5.2530
 3.8470	 5.3450
 3.8500	 5.2740
 3.8520	 5.3110
 3.8550	 5.3750
 3.8580	 5.2960
 3.8610	 5.3520
 3.8640	 5.4320
 3.8670	 5.4330
 3.8700	 5.3610
 3.8730	 5.3130
 3.8750	 5.3440
 3.8780	 5.4150
 3.8810	 5.3650
 3.8840	 5.3890
 3.8870	 5.4130
 3.8900	 5.4240
 3.8930	 5.4060
 3.8960	 5.4550
 3.8990	 5.3850
 3.9020	 5.4280
 3.9050	 5.4780
 3.9080	 5.4070
 3.9110	 5.3910
 3.9140	 5.4450
 3.9160	 5.4290
 3.9190	 5.4280
 3.9220	 5.4290
 3.9250	 5.4830
 3.9280	 5.4480
 3.9310	 5.4170
 3.9340	 5.4500
 3.9370	 5.4990
 3.9400	 5.4310
 3.9430	 5.4120
 3.9460	 5.4040
 3.9490	 5.4070
 3.9520	 5.4360
 3.9550	 5.4970
 3.9580	 5.3950
 3.9610	 5.3610
 3.9640	 5.4050
 3.9670	 5.4330
 3.9700	 5.4070
 3.9730	 5.4040
 3.9770	 5.3550
 3.9800	 5.3830
 3.9830	 5.4250
 3.9860	 5.4500
 3.9890	 5.4450
 3.9920	 5.4530
 3.9950	 5.4950
 3.9980	 5.5160
 4.0010	 5.5070
 4.0040	 5.4850
 4.0070	 5.4350
 4.0100	 5.4860
 4.0130	 5.4930
 4.0170	 5.5210
 4.0200	 5.4810
 4.0230	 5.4740
 4.0260	 5.4960
 4.0290	 5.5190
 4.0320	 5.5470
 4.0350	 5.6080
 4.0380	 5.5510
 4.0420	 5.5380
 4.0450	 5.5220
 4.0480	 5.5230
 4.0510	 5.5340
 4.0540	 5.5200
 4.0570	 5.4240
 4.0610	 5.4520
 4.0640	 5.5610
 4.0670	 5.6280
 4.0700	 5.6030
 4.0730	 5.6210
 4.0770	 5.6370
 4.0800	 5.6550
 4.0830	 5.6160
 4.0860	 5.5520
 4.0890	 5.4840
 4.0930	 5.5320
 4.0960	 5.5260
 4.0990	 5.5270
 4.1020	 5.5120
 4.1060	 5.6090
 4.1090	 5.6480
 4.1120	 5.7570
 4.1150	 5.7820
 4.1190	 5.6810
 4.1220	 5.5760
 4.1250	 5.6190
 4.1280	 5.6700
 4.1320	 5.5990
 4.1350	 5.5290
 4.1380	 5.5530
 4.1420	 5.6000
 4.1450	 5.6320
 4.1480	 5.6780
 4.1520	 5.6840
 4.1550	 5.6540
 4.1580	 5.7200
 4.1620	 5.6790
 4.1650	 5.6350
 4.1680	 5.6640
 4.1720	 5.6400
 4.1750	 5.6200
 4.1780	 5.6620
 4.1820	 5.6670
 4.1850	 5.7210
 4.1890	 5.6710
 4.1920	 5.6440
 4.1950	 5.6160
 4.1990	 5.5970
 4.2020	 5.6420
 4.2060	 5.7270
 4.2090	 5.8260
 4.2120	 5.9750
 4.2160	 5.8990
 4.2190	 5.7500
 4.2230	 5.4440
 4.2260	 5.4720
 4.2300	 5.5420
 4.2330	 5.5590
 4.2360	 5.3030
 4.2400	 5.2160
 4.2430	 5.4790
 4.2470	 5.7410
 4.2500	 5.6460
 4.2540	 5.7190
 4.2570	 5.8070
 4.2610	 5.9220
 4.2640	 5.8960
 4.2680	 5.7220
 4.2710	 5.6170
 4.2750	 5.7030
 4.2780	 5.6940
 4.2820	 5.8320
 4.2850	 5.7730
 4.2890	 5.6220
 4.2930	 5.5130
 4.2960	 5.5800
 4.3000	 5.7010
 4.3030	 5.6630
 4.3070	 5.5460
 4.3100	 5.4950
 4.3140	 5.5650
 4.3180	 5.6500
 4.3210	 5.6190
 4.3250	 5.6160
 4.3280	 5.6420
 4.3320	 5.6790
 4.3360	 5.6120
 4.3390	 5.5800
 4.3430	 5.6330
 4.3470	 5.6410
 4.3500	 5.6500
 4.3540	 5.6530
 4.3570	 5.5740
 4.3610	 5.5890
 4.3650	 5.5930
 4.3680	 5.5560
 4.3720	 5.5360
 4.3760	 5.5800
 4.3800	 5.5990
 4.3830	 5.5790
 4.3870	 5.5600
 4.3910	 5.5920
 4.3940	 5.5890
 4.3980	 5.5140
 4.4020	 5.5250
 4.4060	 5.5680
 4.4090	 5.5640
 4.4130	 5.5520
 4.4170	 5.5450
 4.4210	 5.5840
 4.4240	 5.6110
 4.4280	 5.6170
 4.4320	 5.6010
 4.4360	 5.6810
 4.4400	 5.6120
 4.4430	 5.5540
 4.4470	 5.5890
 4.4510	 5.5740
 4.4550	 5.5490
 4.4590	 5.5660
 4.4620	 5.6030
 4.4660	 5.5880
 4.4700	 5.5670
 4.4740	 5.5860
 4.4780	 5.5720
 4.4820	 5.5660
 4.4860	 5.5650
 4.4900	 5.5380
 4.4930	 5.5320
 4.4970	 5.5460
 4.5010	 5.5420
 4.5050	 5.5180
 4.5090	 5.4360
 4.5130	 5.4180
 4.5170	 5.4900
 4.5210	 5.5020
 4.5250	 5.4440
 4.5290	 5.4890
 4.5330	 5.5000
 4.5370	 5.4820
 4.5410	 5.5240
 4.5450	 5.5270
 4.5490	 5.4420
 4.5530	 5.4140
 4.5570	 5.4130
 4.5610	 5.4610
 4.5650	 5.5310
 4.5690	 5.5010
 4.5730	 5.4000
 4.5770	 5.4410
 4.5810	 5.4920
 4.5850	 5.4830
 4.5890	 5.4810
 4.5930	 5.5350
 4.5970	 5.5150
 4.6010	 5.4660
 4.6050	 5.4460
 4.6090	 5.3030
 4.6130	 5.4220
 4.6170	 5.5290
 4.6220	 5.4940
 4.6260	 5.5090
 4.6300	 5.3760
 4.6340	 5.2790
 4.6380	 5.3010
 4.6420	 5.3090
 4.6460	 5.2980
 4.6510	 5.3720
 4.6550	 5.4410
 4.6590	 5.4420
 4.6630	 5.4380
 4.6670	 5.4060
 4.6720	 5.3650
 4.6760	 5.3820
 4.6800	 5.4210
 4.6840	 5.4060
 4.6880	 5.3320
 4.6930	 5.2910
 4.6970	 5.3260
 4.7010	 5.3650
 4.7050	 5.3850
 4.7100	 5.3520
 4.7140	 5.2950
 4.7180	 5.2960
 4.7230	 5.3690
 4.7270	 5.3900
 4.7310	 5.2960
 4.7360	 5.2990
 4.7400	 5.3720
 4.7440	 5.3700
 4.7490	 5.3340
 4.7530	 5.3380
 4.7570	 5.3540
 4.7620	 5.3170
 4.7660	 5.3050
 4.7700	 5.3430
 4.7750	 5.4090
 4.7790	 5.2370
 4.7840	 5.1240
 4.7880	 5.3910
 4.7920	 5.3930
 4.7970	 5.3700
 4.8010	 5.4520
 4.8060	 5.3900
 4.8100	 5.3310
 4.8150	 5.2610
 4.8190	 5.3030
 4.8240	 5.2870
 4.8280	 5.2820
 4.8330	 5.3440
 4.8370	 5.4400
 4.8420	 5.4520
 4.8460	 5.3910
 4.8510	 5.3520
 4.8550	 5.3610
 4.8600	 5.3840
 4.8640	 5.3900
 4.8690	 5.3950
 4.8730	 5.3630
 4.8780	 5.3830
 4.8830	 5.4210
 4.8870	 5.3760
 4.8920	 5.3950
 4.8960	 5.3660
 4.9010	 5.3640
 4.9060	 5.4200
 4.9100	 5.4730
 4.9150	 5.4580
 4.9200	 5.3720
 4.9240	 5.3590
 4.9290	 5.3630
 4.9340	 5.3850
 4.9380	 5.4050
 4.9430	 5.3920
 4.9480	 5.4120
 4.9530	 5.3750
 4.9570	 5.3640
 4.9620	 5.3690
 4.9670	 5.4160
 4.9720	 5.3930
 4.9760	 5.3750
 4.9810	 5.3660
 4.9860	 5.4020
 4.9910	 5.4570
 4.9960	 5.4340
 5.0000	 5.4300
 5.0050	 5.4740
 5.0100	 5.4660
 5.0150	 5.4360
 5.0200	 5.4730
 5.0250	 5.4810
 5.0290	 5.4850
 5.0340	 5.5350
 5.0390	 5.4730
 5.0440	 5.4050
 5.0490	 5.3820
 5.0540	 5.3740
 5.0590	 5.3470
 5.0640	 5.3900
 5.0690	 5.3890
 5.0740	 5.4150
 5.0790	 5.4840
 5.0840	 5.4800
 5.0890	 5.4260
 5.0940	 5.4610
 5.0990	 5.4500
 5.1040	 5.4900
 5.1090	 5.4960
 5.1140	 5.4670
 5.1190	 5.4280
 5.1240	 5.4510
 5.1290	 5.4380
 5.1340	 5.4700
 5.1390	 5.4980
 5.1440	 5.5340
 5.1490	 5.4450
 5.1540	 5.3430
 5.1600	 5.3570
 5.1650	 5.4770
 5.1700	 5.5020
 5.1750	 5.4090
 5.1800	 5.3120
 5.1850	 5.3710
 5.1910	 5.3720
 5.1960	 5.3390
 5.2010	 5.3590
 5.2060	 5.4170
 5.2110	 5.4370
 5.2170	 5.4190
 5.2220	 5.3650
 5.2270	 5.3660
 5.2320	 5.3940
 5.2380	 5.4090
 5.2430	 5.4400
 5.2480	 5.4310
 5.2540	 5.3470
 5.2590	 5.3840
 5.2640	 5.3650
 5.2700	 5.3520
 5.2750	 5.3950
 5.2800	 5.3890
 5.2860	 5.2920
 5.2910	 5.3120
 5.2970	 5.3800
 5.3020	 5.3550
 5.3070	 5.3640
 5.3130	 5.3330
 5.3180	 5.3020
 5.3240	 5.3680
 5.3290	 5.3200
 5.3350	 5.3070
 5.3400	 5.3480
 5.3460	 5.3330
 5.3510	 5.2470
 5.3570	 5.2220
 5.3620	 5.1950
 5.3680	 5.1460
 5.3730	 5.1540
 5.3790	 5.2030
 5.3850	 5.2440
 5.3900	 5.2670
 5.3960	 5.1730
 5.4010	 5.1620
 5.4070	 5.1790
 5.4130	 5.2040
 5.4180	 5.1580
 5.4240	 5.1310
 5.4300	 5.1160
 5.4350	 5.1640
 5.4410	 5.1660
