Name: Ficus craterostoma
Type: vegetation
Class: Tree
Genus: Ficus
Species: craterostoma
Sample No.: JPL091
Owner: JPL
Wavelength Range: VSWIR
Origin: 34.1258; - 118.1156; WGS84
Collection Date: 2/2/2016
Description: Samples were collected at the Huntington Garden in San Marino California as part of a JPL Subcontract studying HyTES imagery. Samples were taken to JPL and processed within 48 hours of collection. The same leaves were processed in the Nicolet and then measured using the ASD.
Measurement: Bidirectional reflectance
First Column: X
Second Column: Y
X Units: Wavelength (micrometer)
Y Units: Reflectance (percentage)
First X Value: 0.35
Last X Value: 2.5
Number of X Values: 2151
Additional Information: 

 0.3500	 5.7120
 0.3510	 4.2590
 0.3520	 3.2750
 0.3530	 3.2240
 0.3540	 3.4940
 0.3550	 2.5840
 0.3560	 3.3640
 0.3570	 4.7710
 0.3580	 4.3440
 0.3590	 4.6320
 0.3600	 4.7230
 0.3610	 4.3760
 0.3620	 4.7680
 0.3630	 4.8790
 0.3640	 4.2900
 0.3650	 3.2790
 0.3660	 4.1110
 0.3670	 4.8450
 0.3680	 4.7870
 0.3690	 4.2030
 0.3700	 3.8560
 0.3710	 4.0700
 0.3720	 4.5840
 0.3730	 4.2480
 0.3740	 4.1980
 0.3750	 4.3390
 0.3760	 4.2830
 0.3770	 4.2060
 0.3780	 4.1720
 0.3790	 4.3050
 0.3800	 4.7100
 0.3810	 4.4450
 0.3820	 4.1810
 0.3830	 4.3550
 0.3840	 4.2470
 0.3850	 4.5000
 0.3860	 4.8380
 0.3870	 4.7440
 0.3880	 4.2890
 0.3890	 4.4960
 0.3900	 5.2340
 0.3910	 5.1860
 0.3920	 4.2780
 0.3930	 3.8390
 0.3940	 4.5110
 0.3950	 4.3500
 0.3960	 4.0770
 0.3970	 4.1220
 0.3980	 4.6160
 0.3990	 4.6830
 0.4000	 4.6190
 0.4010	 4.6480
 0.4020	 4.7580
 0.4030	 4.6860
 0.4040	 4.5750
 0.4050	 4.6100
 0.4060	 4.7570
 0.4070	 4.7690
 0.4080	 4.7290
 0.4090	 4.8910
 0.4100	 4.8880
 0.4110	 4.8350
 0.4120	 4.8000
 0.4130	 4.6230
 0.4140	 4.6310
 0.4150	 4.7120
 0.4160	 4.6820
 0.4170	 4.8130
 0.4180	 4.7790
 0.4190	 4.6070
 0.4200	 4.6600
 0.4210	 4.8130
 0.4220	 4.8770
 0.4230	 4.7900
 0.4240	 4.8240
 0.4250	 4.8480
 0.4260	 4.7780
 0.4270	 4.6010
 0.4280	 4.6470
 0.4290	 4.8150
 0.4300	 4.9260
 0.4310	 4.7520
 0.4320	 4.5940
 0.4330	 4.6380
 0.4340	 4.8760
 0.4350	 4.7480
 0.4360	 4.7460
 0.4370	 4.8840
 0.4380	 4.8220
 0.4390	 4.7070
 0.4400	 4.6630
 0.4410	 4.7290
 0.4420	 4.7790
 0.4430	 4.8130
 0.4440	 4.7890
 0.4450	 4.7020
 0.4460	 4.8460
 0.4470	 4.9180
 0.4480	 4.8340
 0.4490	 4.8110
 0.4500	 4.8610
 0.4510	 4.8930
 0.4520	 4.8410
 0.4530	 4.8080
 0.4540	 4.8450
 0.4550	 4.8960
 0.4560	 4.8530
 0.4570	 4.8250
 0.4580	 4.7900
 0.4590	 4.7650
 0.4600	 4.8780
 0.4610	 4.9020
 0.4620	 4.8790
 0.4630	 4.9090
 0.4640	 4.8820
 0.4650	 4.7920
 0.4660	 4.7160
 0.4670	 4.7960
 0.4680	 4.7790
 0.4690	 4.7600
 0.4700	 4.8170
 0.4710	 4.7800
 0.4720	 4.8190
 0.4730	 4.8850
 0.4740	 4.8370
 0.4750	 4.8280
 0.4760	 4.8610
 0.4770	 4.8970
 0.4780	 4.8480
 0.4790	 4.8260
 0.4800	 4.8210
 0.4810	 4.8080
 0.4820	 4.8720
 0.4830	 4.8480
 0.4840	 4.7580
 0.4850	 4.7870
 0.4860	 4.8370
 0.4870	 4.8690
 0.4880	 4.8670
 0.4890	 4.8400
 0.4900	 4.8520
 0.4910	 4.9020
 0.4920	 4.9480
 0.4930	 4.9570
 0.4940	 4.8930
 0.4950	 4.8160
 0.4960	 4.9270
 0.4970	 4.9850
 0.4980	 4.9790
 0.4990	 4.9730
 0.5000	 5.0450
 0.5010	 5.0910
 0.5020	 5.1150
 0.5030	 5.1990
 0.5040	 5.2850
 0.5050	 5.2920
 0.5060	 5.2450
 0.5070	 5.4160
 0.5080	 5.5170
 0.5090	 5.5610
 0.5100	 5.6720
 0.5110	 5.7340
 0.5120	 5.8170
 0.5130	 5.9560
 0.5140	 6.1140
 0.5150	 6.2630
 0.5160	 6.4430
 0.5170	 6.6750
 0.5180	 6.8500
 0.5190	 6.9990
 0.5200	 7.1590
 0.5210	 7.3660
 0.5220	 7.5120
 0.5230	 7.6960
 0.5240	 7.9680
 0.5250	 8.2190
 0.5260	 8.4080
 0.5270	 8.5580
 0.5280	 8.7190
 0.5290	 8.9050
 0.5300	 9.0690
 0.5310	 9.1960
 0.5320	 9.3160
 0.5330	 9.4310
 0.5340	 9.5370
 0.5350	 9.6300
 0.5360	 9.7000
 0.5370	 9.7650
 0.5380	 9.8350
 0.5390	 9.9100
 0.5400	 9.9990
 0.5410	10.0740
 0.5420	10.1350
 0.5430	10.2560
 0.5440	10.3280
 0.5450	10.3390
 0.5460	10.3170
 0.5470	10.2930
 0.5480	10.2910
 0.5490	10.3070
 0.5500	10.3040
 0.5510	10.2940
 0.5520	10.2840
 0.5530	10.2740
 0.5540	10.2600
 0.5550	10.2190
 0.5560	10.1540
 0.5570	10.0890
 0.5580	10.0140
 0.5590	 9.9230
 0.5600	 9.8180
 0.5610	 9.7230
 0.5620	 9.6300
 0.5630	 9.5290
 0.5640	 9.4060
 0.5650	 9.2660
 0.5660	 9.1380
 0.5670	 9.0220
 0.5680	 8.8770
 0.5690	 8.7370
 0.5700	 8.5990
 0.5710	 8.4560
 0.5720	 8.3030
 0.5730	 8.1760
 0.5740	 8.0710
 0.5750	 7.9600
 0.5760	 7.8590
 0.5770	 7.7580
 0.5780	 7.6630
 0.5790	 7.6250
 0.5800	 7.5590
 0.5810	 7.4740
 0.5820	 7.4010
 0.5830	 7.3120
 0.5840	 7.2440
 0.5850	 7.2000
 0.5860	 7.1430
 0.5870	 7.1040
 0.5880	 7.0740
 0.5890	 7.0330
 0.5900	 6.9480
 0.5910	 6.9060
 0.5920	 6.9130
 0.5930	 6.9160
 0.5940	 6.8660
 0.5950	 6.8040
 0.5960	 6.7620
 0.5970	 6.7350
 0.5980	 6.6830
 0.5990	 6.6440
 0.6000	 6.6570
 0.6010	 6.6540
 0.6020	 6.6160
 0.6030	 6.5610
 0.6040	 6.5340
 0.6050	 6.5020
 0.6060	 6.4670
 0.6070	 6.4320
 0.6080	 6.3800
 0.6090	 6.3460
 0.6100	 6.3330
 0.6110	 6.3250
 0.6120	 6.2850
 0.6130	 6.2110
 0.6140	 6.1280
 0.6150	 6.0990
 0.6160	 6.0430
 0.6170	 5.9850
 0.6180	 5.9590
 0.6190	 5.9260
 0.6200	 5.8870
 0.6210	 5.8470
 0.6220	 5.8190
 0.6230	 5.8200
 0.6240	 5.8030
 0.6250	 5.7550
 0.6260	 5.7720
 0.6270	 5.7650
 0.6280	 5.7590
 0.6290	 5.7990
 0.6300	 5.7990
 0.6310	 5.7610
 0.6320	 5.7220
 0.6330	 5.7420
 0.6340	 5.7130
 0.6350	 5.6610
 0.6360	 5.6290
 0.6370	 5.6160
 0.6380	 5.5520
 0.6390	 5.4710
 0.6400	 5.4480
 0.6410	 5.3990
 0.6420	 5.3410
 0.6430	 5.2940
 0.6440	 5.2620
 0.6450	 5.2160
 0.6460	 5.1690
 0.6470	 5.1430
 0.6480	 5.1280
 0.6490	 5.0960
 0.6500	 5.0580
 0.6510	 5.0570
 0.6520	 5.0390
 0.6530	 5.0120
 0.6540	 4.9970
 0.6550	 5.0280
 0.6560	 5.0230
 0.6570	 4.9950
 0.6580	 4.9900
 0.6590	 4.9700
 0.6600	 4.9630
 0.6610	 4.9640
 0.6620	 4.9260
 0.6630	 4.9090
 0.6640	 4.9190
 0.6650	 4.9400
 0.6660	 4.9240
 0.6670	 4.9090
 0.6680	 4.9140
 0.6690	 4.9370
 0.6700	 4.9680
 0.6710	 4.9850
 0.6720	 5.0010
 0.6730	 5.0640
 0.6740	 5.0920
 0.6750	 5.1140
 0.6760	 5.1680
 0.6770	 5.2050
 0.6780	 5.2590
 0.6790	 5.3300
 0.6800	 5.3940
 0.6810	 5.4590
 0.6820	 5.5270
 0.6830	 5.5980
 0.6840	 5.6720
 0.6850	 5.7550
 0.6860	 5.8470
 0.6870	 5.9460
 0.6880	 6.0300
 0.6890	 6.1680
 0.6900	 6.3660
 0.6910	 6.5820
 0.6920	 6.8790
 0.6930	 7.2440
 0.6940	 7.6690
 0.6950	 8.1940
 0.6960	 8.7890
 0.6970	 9.4620
 0.6980	10.2290
 0.6990	11.0690
 0.7000	11.9740
 0.7010	12.9320
 0.7020	13.9290
 0.7030	14.9220
 0.7040	15.9470
 0.7050	17.0180
 0.7060	18.0730
 0.7070	19.1450
 0.7080	20.2170
 0.7090	21.2680
 0.7100	22.3360
 0.7110	23.4440
 0.7120	24.5650
 0.7130	25.6440
 0.7140	26.7400
 0.7150	27.8590
 0.7160	28.9880
 0.7170	30.1100
 0.7180	31.2470
 0.7190	32.3910
 0.7200	33.5250
 0.7210	34.6790
 0.7220	35.7950
 0.7230	36.8740
 0.7240	37.9820
 0.7250	39.0500
 0.7260	40.0930
 0.7270	41.1270
 0.7280	42.1430
 0.7290	43.1070
 0.7300	44.0200
 0.7310	44.9030
 0.7320	45.7670
 0.7330	46.6020
 0.7340	47.3960
 0.7350	48.1380
 0.7360	48.8420
 0.7370	49.5010
 0.7380	50.1160
 0.7390	50.7180
 0.7400	51.2630
 0.7410	51.7660
 0.7420	52.2520
 0.7430	52.6960
 0.7440	53.1010
 0.7450	53.4690
 0.7460	53.8020
 0.7470	54.1230
 0.7480	54.4070
 0.7490	54.6430
 0.7500	54.8590
 0.7510	55.0700
 0.7520	55.2660
 0.7530	55.4260
 0.7540	55.5410
 0.7550	55.6530
 0.7560	55.7730
 0.7570	55.8850
 0.7580	55.9640
 0.7590	56.0210
 0.7600	56.0750
 0.7610	56.1490
 0.7620	56.2060
 0.7630	56.2350
 0.7640	56.2440
 0.7650	56.2740
 0.7660	56.3190
 0.7670	56.3600
 0.7680	56.3740
 0.7690	56.3720
 0.7700	56.3650
 0.7710	56.3650
 0.7720	56.3790
 0.7730	56.3810
 0.7740	56.3760
 0.7750	56.3750
 0.7760	56.3780
 0.7770	56.3740
 0.7780	56.3640
 0.7790	56.3590
 0.7800	56.3660
 0.7810	56.3660
 0.7820	56.3610
 0.7830	56.3810
 0.7840	56.3620
 0.7850	56.3460
 0.7860	56.3620
 0.7870	56.3650
 0.7880	56.3660
 0.7890	56.3600
 0.7900	56.3430
 0.7910	56.3440
 0.7920	56.3590
 0.7930	56.3670
 0.7940	56.3410
 0.7950	56.3330
 0.7960	56.3280
 0.7970	56.3200
 0.7980	56.3320
 0.7990	56.3270
 0.8000	56.3170
 0.8010	56.3160
 0.8020	56.3040
 0.8030	56.2690
 0.8040	56.2540
 0.8050	56.2990
 0.8060	56.3280
 0.8070	56.3120
 0.8080	56.2760
 0.8090	56.2780
 0.8100	56.2720
 0.8110	56.2640
 0.8120	56.2640
 0.8130	56.2720
 0.8140	56.2570
 0.8150	56.2440
 0.8160	56.2530
 0.8170	56.2300
 0.8180	56.2290
 0.8190	56.2380
 0.8200	56.2240
 0.8210	56.2260
 0.8220	56.2100
 0.8230	56.1870
 0.8240	56.2060
 0.8250	56.2340
 0.8260	56.2300
 0.8270	56.1990
 0.8280	56.2130
 0.8290	56.2260
 0.8300	56.2350
 0.8310	56.2380
 0.8320	56.2050
 0.8330	56.1830
 0.8340	56.1770
 0.8350	56.1710
 0.8360	56.1680
 0.8370	56.1880
 0.8380	56.2140
 0.8390	56.2070
 0.8400	56.2010
 0.8410	56.2080
 0.8420	56.2270
 0.8430	56.2300
 0.8440	56.2380
 0.8450	56.2470
 0.8460	56.2520
 0.8470	56.2610
 0.8480	56.2830
 0.8490	56.2880
 0.8500	56.2610
 0.8510	56.2850
 0.8520	56.2900
 0.8530	56.2830
 0.8540	56.3100
 0.8550	56.3280
 0.8560	56.3540
 0.8570	56.3750
 0.8580	56.3520
 0.8590	56.3420
 0.8600	56.3640
 0.8610	56.4020
 0.8620	56.3900
 0.8630	56.3740
 0.8640	56.3670
 0.8650	56.3720
 0.8660	56.3890
 0.8670	56.3950
 0.8680	56.3890
 0.8690	56.3780
 0.8700	56.3730
 0.8710	56.4020
 0.8720	56.4450
 0.8730	56.4580
 0.8740	56.4500
 0.8750	56.4300
 0.8760	56.4100
 0.8770	56.4050
 0.8780	56.4030
 0.8790	56.4330
 0.8800	56.4730
 0.8810	56.4220
 0.8820	56.4160
 0.8830	56.4420
 0.8840	56.4640
 0.8850	56.4810
 0.8860	56.4680
 0.8870	56.4550
 0.8880	56.4650
 0.8890	56.4370
 0.8900	56.4130
 0.8910	56.4140
 0.8920	56.4370
 0.8930	56.4350
 0.8940	56.4330
 0.8950	56.4360
 0.8960	56.4370
 0.8970	56.3870
 0.8980	56.3790
 0.8990	56.4260
 0.9000	56.4540
 0.9010	56.4100
 0.9020	56.3660
 0.9030	56.3560
 0.9040	56.3370
 0.9050	56.3420
 0.9060	56.3450
 0.9070	56.3250
 0.9080	56.2980
 0.9090	56.2790
 0.9100	56.2980
 0.9110	56.3450
 0.9120	56.3120
 0.9130	56.3090
 0.9140	56.2880
 0.9150	56.2050
 0.9160	56.2270
 0.9170	56.2110
 0.9180	56.1510
 0.9190	56.1060
 0.9200	56.1120
 0.9210	56.1110
 0.9220	56.0910
 0.9230	56.0740
 0.9240	56.0520
 0.9250	55.9930
 0.9260	55.9200
 0.9270	55.8850
 0.9280	55.8630
 0.9290	55.8650
 0.9300	55.8540
 0.9310	55.7630
 0.9320	55.6950
 0.9330	55.6280
 0.9340	55.5660
 0.9350	55.5640
 0.9360	55.5340
 0.9370	55.4770
 0.9380	55.4160
 0.9390	55.3890
 0.9400	55.3020
 0.9410	55.2060
 0.9420	55.1370
 0.9430	55.0460
 0.9440	54.9850
 0.9450	54.9320
 0.9460	54.8650
 0.9470	54.7980
 0.9480	54.6670
 0.9490	54.4880
 0.9500	54.3200
 0.9510	54.2700
 0.9520	54.1950
 0.9530	54.0880
 0.9540	53.9670
 0.9550	53.7940
 0.9560	53.6210
 0.9570	53.5120
 0.9580	53.4780
 0.9590	53.3730
 0.9600	53.3230
 0.9610	53.2700
 0.9620	53.1400
 0.9630	53.0720
 0.9640	52.9900
 0.9650	52.9520
 0.9660	52.9980
 0.9670	52.8900
 0.9680	52.8560
 0.9690	52.8530
 0.9700	52.7760
 0.9710	52.8200
 0.9720	52.8190
 0.9730	52.7560
 0.9740	52.6960
 0.9750	52.6890
 0.9760	52.7130
 0.9770	52.7270
 0.9780	52.7080
 0.9790	52.7420
 0.9800	52.7340
 0.9810	52.7470
 0.9820	52.8530
 0.9830	52.7650
 0.9840	52.7570
 0.9850	52.8330
 0.9860	52.8400
 0.9870	52.6610
 0.9880	52.7490
 0.9890	52.9490
 0.9900	52.9010
 0.9910	52.9100
 0.9920	52.8890
 0.9930	52.9000
 0.9940	53.0100
 0.9950	52.9590
 0.9960	52.9630
 0.9970	53.0690
 0.9980	53.2260
 0.9990	53.4010
 1.0000	53.3480
 1.0010	52.9580
 1.0020	53.0090
 1.0030	53.0460
 1.0040	53.1510
 1.0050	53.2520
 1.0060	53.3040
 1.0070	53.3510
 1.0080	53.3920
 1.0090	53.4000
 1.0100	53.4480
 1.0110	53.5130
 1.0120	53.5770
 1.0130	53.6700
 1.0140	53.7230
 1.0150	53.7450
 1.0160	53.7960
 1.0170	53.8430
 1.0180	53.8660
 1.0190	53.9030
 1.0200	53.9460
 1.0210	53.9610
 1.0220	53.9740
 1.0230	54.0130
 1.0240	54.0670
 1.0250	54.1000
 1.0260	54.1530
 1.0270	54.1930
 1.0280	54.2030
 1.0290	54.2330
 1.0300	54.2620
 1.0310	54.3050
 1.0320	54.3600
 1.0330	54.4160
 1.0340	54.4630
 1.0350	54.5100
 1.0360	54.5250
 1.0370	54.5510
 1.0380	54.5830
 1.0390	54.6280
 1.0400	54.6570
 1.0410	54.6870
 1.0420	54.7060
 1.0430	54.6990
 1.0440	54.7230
 1.0450	54.7520
 1.0460	54.7880
 1.0470	54.8610
 1.0480	54.9060
 1.0490	54.9380
 1.0500	54.9690
 1.0510	54.9960
 1.0520	55.0030
 1.0530	55.0190
 1.0540	55.0360
 1.0550	55.0520
 1.0560	55.0630
 1.0570	55.0790
 1.0580	55.1060
 1.0590	55.1110
 1.0600	55.0900
 1.0610	55.0990
 1.0620	55.1130
 1.0630	55.1250
 1.0640	55.1560
 1.0650	55.1830
 1.0660	55.2170
 1.0670	55.2210
 1.0680	55.2140
 1.0690	55.1930
 1.0700	55.1970
 1.0710	55.1900
 1.0720	55.1850
 1.0730	55.2080
 1.0740	55.2130
 1.0750	55.1950
 1.0760	55.1840
 1.0770	55.1730
 1.0780	55.1760
 1.0790	55.1680
 1.0800	55.1800
 1.0810	55.2370
 1.0820	55.2550
 1.0830	55.2640
 1.0840	55.2630
 1.0850	55.2340
 1.0860	55.2140
 1.0870	55.1910
 1.0880	55.1650
 1.0890	55.1440
 1.0900	55.1280
 1.0910	55.1020
 1.0920	55.0660
 1.0930	55.0470
 1.0940	55.0250
 1.0950	55.0160
 1.0960	55.0420
 1.0970	55.0380
 1.0980	55.0210
 1.0990	55.0050
 1.1000	54.9750
 1.1010	54.9470
 1.1020	54.9240
 1.1030	54.8990
 1.1040	54.8580
 1.1050	54.8230
 1.1060	54.7950
 1.1070	54.7630
 1.1080	54.7490
 1.1090	54.7690
 1.1100	54.7390
 1.1110	54.6970
 1.1120	54.6560
 1.1130	54.5700
 1.1140	54.5270
 1.1150	54.5360
 1.1160	54.4960
 1.1170	54.4460
 1.1180	54.3900
 1.1190	54.3080
 1.1200	54.2210
 1.1210	54.1620
 1.1220	54.1120
 1.1230	54.0500
 1.1240	53.9770
 1.1250	53.8980
 1.1260	53.8160
 1.1270	53.7150
 1.1280	53.6200
 1.1290	53.4800
 1.1300	53.2960
 1.1310	53.1280
 1.1320	52.9460
 1.1330	52.7580
 1.1340	52.5740
 1.1350	52.3770
 1.1360	52.1660
 1.1370	51.9480
 1.1380	51.7120
 1.1390	51.4650
 1.1400	51.2030
 1.1410	50.9180
 1.1420	50.6460
 1.1430	50.3930
 1.1440	50.1340
 1.1450	49.8770
 1.1460	49.6230
 1.1470	49.3640
 1.1480	49.1240
 1.1490	48.8910
 1.1500	48.6730
 1.1510	48.4640
 1.1520	48.2760
 1.1530	48.0980
 1.1540	47.9380
 1.1550	47.7980
 1.1560	47.6750
 1.1570	47.5570
 1.1580	47.4590
 1.1590	47.3660
 1.1600	47.2790
 1.1610	47.1910
 1.1620	47.1230
 1.1630	47.0920
 1.1640	47.0510
 1.1650	47.0030
 1.1660	46.9640
 1.1670	46.9230
 1.1680	46.8550
 1.1690	46.8250
 1.1700	46.8300
 1.1710	46.8070
 1.1720	46.7830
 1.1730	46.7650
 1.1740	46.7410
 1.1750	46.7140
 1.1760	46.6960
 1.1770	46.6700
 1.1780	46.6380
 1.1790	46.6010
 1.1800	46.5730
 1.1810	46.5510
 1.1820	46.5350
 1.1830	46.5200
 1.1840	46.4840
 1.1850	46.4440
 1.1860	46.4070
 1.1870	46.3570
 1.1880	46.3180
 1.1890	46.2860
 1.1900	46.2610
 1.1910	46.2400
 1.1920	46.2280
 1.1930	46.2320
 1.1940	46.2340
 1.1950	46.2460
 1.1960	46.2360
 1.1970	46.2390
 1.1980	46.2410
 1.1990	46.2340
 1.2000	46.2380
 1.2010	46.2470
 1.2020	46.2580
 1.2030	46.2780
 1.2040	46.2920
 1.2050	46.3080
 1.2060	46.3300
 1.2070	46.3570
 1.2080	46.3900
 1.2090	46.4180
 1.2100	46.4430
 1.2110	46.4740
 1.2120	46.5040
 1.2130	46.5410
 1.2140	46.5790
 1.2150	46.6250
 1.2160	46.6800
 1.2170	46.7330
 1.2180	46.7810
 1.2190	46.8440
 1.2200	46.8830
 1.2210	46.9120
 1.2220	46.9530
 1.2230	46.9820
 1.2240	47.0270
 1.2250	47.0820
 1.2260	47.1390
 1.2270	47.2030
 1.2280	47.2500
 1.2290	47.2980
 1.2300	47.3360
 1.2310	47.3620
 1.2320	47.3930
 1.2330	47.4170
 1.2340	47.4530
 1.2350	47.4980
 1.2360	47.5380
 1.2370	47.5810
 1.2380	47.6290
 1.2390	47.6630
 1.2400	47.6910
 1.2410	47.7320
 1.2420	47.7660
 1.2430	47.8000
 1.2440	47.8360
 1.2450	47.8580
 1.2460	47.8850
 1.2470	47.9070
 1.2480	47.9360
 1.2490	47.9650
 1.2500	47.9850
 1.2510	48.0170
 1.2520	48.0320
 1.2530	48.0530
 1.2540	48.0720
 1.2550	48.0820
 1.2560	48.0980
 1.2570	48.1170
 1.2580	48.1420
 1.2590	48.1550
 1.2600	48.1620
 1.2610	48.1690
 1.2620	48.1650
 1.2630	48.1620
 1.2640	48.1780
 1.2650	48.1870
 1.2660	48.1880
 1.2670	48.1820
 1.2680	48.1650
 1.2690	48.1560
 1.2700	48.1690
 1.2710	48.1780
 1.2720	48.1840
 1.2730	48.1820
 1.2740	48.1440
 1.2750	48.1060
 1.2760	48.0720
 1.2770	48.0330
 1.2780	48.0090
 1.2790	47.9810
 1.2800	47.9420
 1.2810	47.8990
 1.2820	47.8540
 1.2830	47.8140
 1.2840	47.7700
 1.2850	47.7270
 1.2860	47.6930
 1.2870	47.6500
 1.2880	47.6020
 1.2890	47.5550
 1.2900	47.5010
 1.2910	47.4410
 1.2920	47.3880
 1.2930	47.3270
 1.2940	47.2770
 1.2950	47.2110
 1.2960	47.1250
 1.2970	47.0440
 1.2980	46.9500
 1.2990	46.8590
 1.3000	46.7640
 1.3010	46.6640
 1.3020	46.5730
 1.3030	46.4780
 1.3040	46.3830
 1.3050	46.2770
 1.3060	46.1570
 1.3070	46.0300
 1.3080	45.9050
 1.3090	45.7800
 1.3100	45.6390
 1.3110	45.4950
 1.3120	45.3340
 1.3130	45.1680
 1.3140	45.0090
 1.3150	44.8590
 1.3160	44.6890
 1.3170	44.5160
 1.3180	44.3400
 1.3190	44.1450
 1.3200	43.9450
 1.3210	43.7510
 1.3220	43.5520
 1.3230	43.3360
 1.3240	43.1190
 1.3250	42.9080
 1.3260	42.6890
 1.3270	42.4840
 1.3280	42.2830
 1.3290	42.0610
 1.3300	41.8340
 1.3310	41.5910
 1.3320	41.3420
 1.3330	41.1040
 1.3340	40.8700
 1.3350	40.6380
 1.3360	40.4040
 1.3370	40.1740
 1.3380	39.9420
 1.3390	39.7120
 1.3400	39.4930
 1.3410	39.2690
 1.3420	39.0470
 1.3430	38.8270
 1.3440	38.6070
 1.3450	38.3930
 1.3460	38.1810
 1.3470	37.9760
 1.3480	37.7780
 1.3490	37.5770
 1.3500	37.3820
 1.3510	37.1840
 1.3520	36.9790
 1.3530	36.7830
 1.3540	36.5900
 1.3550	36.4000
 1.3560	36.2110
 1.3570	36.0090
 1.3580	35.8110
 1.3590	35.6070
 1.3600	35.3980
 1.3610	35.2000
 1.3620	34.9850
 1.3630	34.7570
 1.3640	34.5170
 1.3650	34.2620
 1.3660	33.9990
 1.3670	33.7240
 1.3680	33.4360
 1.3690	33.1300
 1.3700	32.8030
 1.3710	32.4580
 1.3720	32.0900
 1.3730	31.6980
 1.3740	31.2860
 1.3750	30.8530
 1.3760	30.3950
 1.3770	29.9090
 1.3780	29.3880
 1.3790	28.8400
 1.3800	28.2680
 1.3810	27.6700
 1.3820	27.0570
 1.3830	26.4250
 1.3840	25.7790
 1.3850	25.1120
 1.3860	24.4380
 1.3870	23.7450
 1.3880	23.0610
 1.3890	22.3690
 1.3900	21.6780
 1.3910	21.0080
 1.3920	20.3420
 1.3930	19.6830
 1.3940	19.0410
 1.3950	18.4070
 1.3960	17.7970
 1.3970	17.2170
 1.3980	16.6630
 1.3990	16.1440
 1.4000	15.6470
 1.4010	15.1760
 1.4020	14.7290
 1.4030	14.3010
 1.4040	13.8980
 1.4050	13.5240
 1.4060	13.1790
 1.4070	12.8650
 1.4080	12.5740
 1.4090	12.2980
 1.4100	12.0350
 1.4110	11.7900
 1.4120	11.5650
 1.4130	11.3590
 1.4140	11.1740
 1.4150	11.0040
 1.4160	10.8490
 1.4170	10.7080
 1.4180	10.5770
 1.4190	10.4560
 1.4200	10.3450
 1.4210	10.2360
 1.4220	10.1340
 1.4230	10.0430
 1.4240	 9.9600
 1.4250	 9.8810
 1.4260	 9.8130
 1.4270	 9.7480
 1.4280	 9.6850
 1.4290	 9.6310
 1.4300	 9.5820
 1.4310	 9.5390
 1.4320	 9.5070
 1.4330	 9.4730
 1.4340	 9.4440
 1.4350	 9.4150
 1.4360	 9.3860
 1.4370	 9.3580
 1.4380	 9.3340
 1.4390	 9.3170
 1.4400	 9.3030
 1.4410	 9.2930
 1.4420	 9.2870
 1.4430	 9.2760
 1.4440	 9.2690
 1.4450	 9.2660
 1.4460	 9.2670
 1.4470	 9.2730
 1.4480	 9.2780
 1.4490	 9.2810
 1.4500	 9.2810
 1.4510	 9.2800
 1.4520	 9.2810
 1.4530	 9.2860
 1.4540	 9.2950
 1.4550	 9.3100
 1.4560	 9.3310
 1.4570	 9.3520
 1.4580	 9.3720
 1.4590	 9.3940
 1.4600	 9.4160
 1.4610	 9.4430
 1.4620	 9.4740
 1.4630	 9.5090
 1.4640	 9.5470
 1.4650	 9.5910
 1.4660	 9.6380
 1.4670	 9.6860
 1.4680	 9.7380
 1.4690	 9.7900
 1.4700	 9.8470
 1.4710	 9.9110
 1.4720	 9.9740
 1.4730	10.0440
 1.4740	10.1200
 1.4750	10.1930
 1.4760	10.2740
 1.4770	10.3570
 1.4780	10.4390
 1.4790	10.5290
 1.4800	10.6190
 1.4810	10.7100
