Name: Salix babylonica
Type: vegetation
Class: Tree
Genus: Salix
Species: babylonica
Sample No.: JPL130
Owner: JPL
Wavelength Range: VSWIR
Origin: 34.12804; -118.11607;; WGS84
Collection Date: 9/7/2016
Description: Samples were collected at the Huntington Garden in San Marino California as part of a JPL Subcontract studying HyTES imagery. Samples were taken to JPL and processed within 48 hours of collection. The same leaves were processed in the Nicolet and then measured using the ASD.
Measurement: Bidirectional reflectance
First Column: X
Second Column: Y
X Units: Wavelength (micrometer)
Y Units: Reflectance (percentage)
First X Value: 0.35
Last X Value: 2.5
Number of X Values: 2151
Additional Information: vegetation.tree.salix.babylonica.vswir.jpl130.jpl.asd.ancillary.txt

 0.3500	 5.8360
 0.3510	 5.7840
 0.3520	 5.6870
 0.3530	 5.6400
 0.3540	 5.6990
 0.3550	 5.7960
 0.3560	 5.7120
 0.3570	 5.5870
 0.3580	 5.6990
 0.3590	 5.7990
 0.3600	 5.8020
 0.3610	 5.7240
 0.3620	 5.6940
 0.3630	 5.6640
 0.3640	 5.6280
 0.3650	 5.6110
 0.3660	 5.7210
 0.3670	 5.7430
 0.3680	 5.6720
 0.3690	 5.6510
 0.3700	 5.6540
 0.3710	 5.6650
 0.3720	 5.6590
 0.3730	 5.5860
 0.3740	 5.5830
 0.3750	 5.6450
 0.3760	 5.7090
 0.3770	 5.6840
 0.3780	 5.6540
 0.3790	 5.6620
 0.3800	 5.7040
 0.3810	 5.6520
 0.3820	 5.6310
 0.3830	 5.6960
 0.3840	 5.6730
 0.3850	 5.6340
 0.3860	 5.6070
 0.3870	 5.6070
 0.3880	 5.6630
 0.3890	 5.6890
 0.3900	 5.6700
 0.3910	 5.6750
 0.3920	 5.6780
 0.3930	 5.6590
 0.3940	 5.6360
 0.3950	 5.7170
 0.3960	 5.7430
 0.3970	 5.7170
 0.3980	 5.7130
 0.3990	 5.6920
 0.4000	 5.6870
 0.4010	 5.6970
 0.4020	 5.6640
 0.4030	 5.6770
 0.4040	 5.6940
 0.4050	 5.6760
 0.4060	 5.6990
 0.4070	 5.7200
 0.4080	 5.7180
 0.4090	 5.6950
 0.4100	 5.6930
 0.4110	 5.7000
 0.4120	 5.7010
 0.4130	 5.6910
 0.4140	 5.6980
 0.4150	 5.7140
 0.4160	 5.7210
 0.4170	 5.7090
 0.4180	 5.7040
 0.4190	 5.7130
 0.4200	 5.7200
 0.4210	 5.7210
 0.4220	 5.7200
 0.4230	 5.7210
 0.4240	 5.7230
 0.4250	 5.7200
 0.4260	 5.7180
 0.4270	 5.7240
 0.4280	 5.7280
 0.4290	 5.7240
 0.4300	 5.7110
 0.4310	 5.6910
 0.4320	 5.6840
 0.4330	 5.6830
 0.4340	 5.6750
 0.4350	 5.6660
 0.4360	 5.6650
 0.4370	 5.6690
 0.4380	 5.6700
 0.4390	 5.6780
 0.4400	 5.6920
 0.4410	 5.7060
 0.4420	 5.7010
 0.4430	 5.7090
 0.4440	 5.7240
 0.4450	 5.7340
 0.4460	 5.7310
 0.4470	 5.7370
 0.4480	 5.7510
 0.4490	 5.7440
 0.4500	 5.7420
 0.4510	 5.7500
 0.4520	 5.7680
 0.4530	 5.7790
 0.4540	 5.7820
 0.4550	 5.7800
 0.4560	 5.7760
 0.4570	 5.7900
 0.4580	 5.7970
 0.4590	 5.7900
 0.4600	 5.7920
 0.4610	 5.7940
 0.4620	 5.7930
 0.4630	 5.7900
 0.4640	 5.7900
 0.4650	 5.7900
 0.4660	 5.7910
 0.4670	 5.7950
 0.4680	 5.7940
 0.4690	 5.7940
 0.4700	 5.7950
 0.4710	 5.7940
 0.4720	 5.7980
 0.4730	 5.8040
 0.4740	 5.8040
 0.4750	 5.8110
 0.4760	 5.8150
 0.4770	 5.8130
 0.4780	 5.8100
 0.4790	 5.8080
 0.4800	 5.8100
 0.4810	 5.8150
 0.4820	 5.8240
 0.4830	 5.8240
 0.4840	 5.8170
 0.4850	 5.8160
 0.4860	 5.8170
 0.4870	 5.8210
 0.4880	 5.8290
 0.4890	 5.8290
 0.4900	 5.8390
 0.4910	 5.8560
 0.4920	 5.8680
 0.4930	 5.8870
 0.4940	 5.9070
 0.4950	 5.9230
 0.4960	 5.9400
 0.4970	 5.9620
 0.4980	 5.9870
 0.4990	 6.0160
 0.5000	 6.0480
 0.5010	 6.0840
 0.5020	 6.1230
 0.5030	 6.1670
 0.5040	 6.2190
 0.5050	 6.2750
 0.5060	 6.3340
 0.5070	 6.4040
 0.5080	 6.4800
 0.5090	 6.5640
 0.5100	 6.6610
 0.5110	 6.7650
 0.5120	 6.8810
 0.5130	 7.0090
 0.5140	 7.1470
 0.5150	 7.2960
 0.5160	 7.4560
 0.5170	 7.6270
 0.5180	 7.8060
 0.5190	 7.9950
 0.5200	 8.1930
 0.5210	 8.3910
 0.5220	 8.5990
 0.5230	 8.8070
 0.5240	 9.0110
 0.5250	 9.2080
 0.5260	 9.3990
 0.5270	 9.5800
 0.5280	 9.7510
 0.5290	 9.9120
 0.5300	10.0610
 0.5310	10.1960
 0.5320	10.3160
 0.5330	10.4170
 0.5340	10.5060
 0.5350	10.5890
 0.5360	10.6610
 0.5370	10.7260
 0.5380	10.7830
 0.5390	10.8250
 0.5400	10.8590
 0.5410	10.8900
 0.5420	10.9180
 0.5430	10.9440
 0.5440	10.9700
 0.5450	10.9960
 0.5460	11.0210
 0.5470	11.0470
 0.5480	11.0700
 0.5490	11.0890
 0.5500	11.0990
 0.5510	11.1040
 0.5520	11.1000
 0.5530	11.0850
 0.5540	11.0630
 0.5550	11.0310
 0.5560	10.9880
 0.5570	10.9340
 0.5580	10.8670
 0.5590	10.7890
 0.5600	10.7020
 0.5610	10.6060
 0.5620	10.5010
 0.5630	10.3880
 0.5640	10.2700
 0.5650	10.1430
 0.5660	10.0110
 0.5670	 9.8750
 0.5680	 9.7370
 0.5690	 9.5970
 0.5700	 9.4610
 0.5710	 9.3300
 0.5720	 9.2050
 0.5730	 9.0860
 0.5740	 8.9760
 0.5750	 8.8800
 0.5760	 8.7960
 0.5770	 8.7160
 0.5780	 8.6370
 0.5790	 8.5600
 0.5800	 8.4860
 0.5810	 8.4150
 0.5820	 8.3480
 0.5830	 8.2890
 0.5840	 8.2370
 0.5850	 8.1880
 0.5860	 8.1410
 0.5870	 8.0890
 0.5880	 8.0340
 0.5890	 7.9820
 0.5900	 7.9410
 0.5910	 7.9090
 0.5920	 7.8820
 0.5930	 7.8570
 0.5940	 7.8310
 0.5950	 7.8080
 0.5960	 7.7890
 0.5970	 7.7690
 0.5980	 7.7480
 0.5990	 7.7280
 0.6000	 7.7110
 0.6010	 7.6910
 0.6020	 7.6660
 0.6030	 7.6360
 0.6040	 7.6040
 0.6050	 7.5690
 0.6060	 7.5290
 0.6070	 7.4840
 0.6080	 7.4390
 0.6090	 7.3850
 0.6100	 7.3200
 0.6110	 7.2510
 0.6120	 7.2040
 0.6130	 7.1680
 0.6140	 7.1340
 0.6150	 7.0930
 0.6160	 7.0530
 0.6170	 7.0140
 0.6180	 6.9770
 0.6190	 6.9400
 0.6200	 6.9060
 0.6210	 6.8760
 0.6220	 6.8520
 0.6230	 6.8320
 0.6240	 6.8150
 0.6250	 6.8010
 0.6260	 6.7870
 0.6270	 6.7770
 0.6280	 6.7670
 0.6290	 6.7570
 0.6300	 6.7490
 0.6310	 6.7400
 0.6320	 6.7290
 0.6330	 6.7180
 0.6340	 6.7010
 0.6350	 6.6800
 0.6360	 6.6530
 0.6370	 6.6190
 0.6380	 6.5820
 0.6390	 6.5420
 0.6400	 6.4950
 0.6410	 6.4500
 0.6420	 6.4080
 0.6430	 6.3650
 0.6440	 6.3180
 0.6450	 6.2760
 0.6460	 6.2380
 0.6470	 6.2030
 0.6480	 6.1740
 0.6490	 6.1500
 0.6500	 6.1310
 0.6510	 6.1180
 0.6520	 6.1040
 0.6530	 6.0920
 0.6540	 6.0840
 0.6550	 6.0730
 0.6560	 6.0620
 0.6570	 6.0500
 0.6580	 6.0330
 0.6590	 6.0160
 0.6600	 5.9980
 0.6610	 5.9810
 0.6620	 5.9650
 0.6630	 5.9520
 0.6640	 5.9410
 0.6650	 5.9320
 0.6660	 5.9260
 0.6670	 5.9230
 0.6680	 5.9250
 0.6690	 5.9320
 0.6700	 5.9400
 0.6710	 5.9510
 0.6720	 5.9670
 0.6730	 5.9840
 0.6740	 6.0020
 0.6750	 6.0230
 0.6760	 6.0500
 0.6770	 6.0770
 0.6780	 6.1060
 0.6790	 6.1390
 0.6800	 6.1760
 0.6810	 6.2150
 0.6820	 6.2570
 0.6830	 6.3020
 0.6840	 6.3520
 0.6850	 6.4060
 0.6860	 6.4660
 0.6870	 6.5350
 0.6880	 6.6180
 0.6890	 6.7230
 0.6900	 6.8590
 0.6910	 7.0290
 0.6920	 7.2390
 0.6930	 7.4960
 0.6940	 7.8070
 0.6950	 8.1750
 0.6960	 8.6000
 0.6970	 9.0820
 0.6980	 9.6210
 0.6990	10.2090
 0.7000	10.8430
 0.7010	11.5180
 0.7020	12.2290
 0.7030	12.9680
 0.7040	13.7300
 0.7050	14.5110
 0.7060	15.3080
 0.7070	16.1160
 0.7080	16.9330
 0.7090	17.7590
 0.7100	18.5930
 0.7110	19.4320
 0.7120	20.2760
 0.7130	21.1210
 0.7140	21.9690
 0.7150	22.8160
 0.7160	23.6590
 0.7170	24.4990
 0.7180	25.3350
 0.7190	26.1630
 0.7200	26.9780
 0.7210	27.7790
 0.7220	28.5660
 0.7230	29.3340
 0.7240	30.0820
 0.7250	30.8060
 0.7260	31.5050
 0.7270	32.1800
 0.7280	32.8280
 0.7290	33.4480
 0.7300	34.0400
 0.7310	34.6030
 0.7320	35.1360
 0.7330	35.6420
 0.7340	36.1210
 0.7350	36.5720
 0.7360	36.9960
 0.7370	37.3940
 0.7380	37.7640
 0.7390	38.1120
 0.7400	38.4360
 0.7410	38.7370
 0.7420	39.0150
 0.7430	39.2710
 0.7440	39.5070
 0.7450	39.7250
 0.7460	39.9250
 0.7470	40.1070
 0.7480	40.2720
 0.7490	40.4210
 0.7500	40.5550
 0.7510	40.6770
 0.7520	40.7890
 0.7530	40.8900
 0.7540	40.9810
 0.7550	41.0630
 0.7560	41.1370
 0.7570	41.2030
 0.7580	41.2620
 0.7590	41.3170
 0.7600	41.3670
 0.7610	41.4100
 0.7620	41.4470
 0.7630	41.4800
 0.7640	41.5120
 0.7650	41.5380
 0.7660	41.5620
 0.7670	41.5840
 0.7680	41.6000
 0.7690	41.6170
 0.7700	41.6320
 0.7710	41.6430
 0.7720	41.6520
 0.7730	41.6620
 0.7740	41.6730
 0.7750	41.6820
 0.7760	41.6880
 0.7770	41.6940
 0.7780	41.7010
 0.7790	41.7080
 0.7800	41.7130
 0.7810	41.7170
 0.7820	41.7190
 0.7830	41.7250
 0.7840	41.7280
 0.7850	41.7300
 0.7860	41.7320
 0.7870	41.7320
 0.7880	41.7310
 0.7890	41.7310
 0.7900	41.7310
 0.7910	41.7300
 0.7920	41.7260
 0.7930	41.7210
 0.7940	41.7170
 0.7950	41.7130
 0.7960	41.7070
 0.7970	41.7000
 0.7980	41.6930
 0.7990	41.6830
 0.8000	41.6730
 0.8010	41.6660
 0.8020	41.6570
 0.8030	41.6440
 0.8040	41.6300
 0.8050	41.6180
 0.8060	41.6060
 0.8070	41.5910
 0.8080	41.5740
 0.8090	41.5600
 0.8100	41.5440
 0.8110	41.5300
 0.8120	41.5180
 0.8130	41.5020
 0.8140	41.4820
 0.8150	41.4610
 0.8160	41.4420
 0.8170	41.4290
 0.8180	41.4120
 0.8190	41.3930
 0.8200	41.3780
 0.8210	41.3580
 0.8220	41.3370
 0.8230	41.3160
 0.8240	41.2990
 0.8250	41.2760
 0.8260	41.2540
 0.8270	41.2370
 0.8280	41.2190
 0.8290	41.2000
 0.8300	41.1790
 0.8310	41.1560
 0.8320	41.1360
 0.8330	41.1190
 0.8340	41.1030
 0.8350	41.0850
 0.8360	41.0670
 0.8370	41.0480
 0.8380	41.0320
 0.8390	41.0180
 0.8400	41.0030
 0.8410	40.9900
 0.8420	40.9780
 0.8430	40.9680
 0.8440	40.9550
 0.8450	40.9420
 0.8460	40.9300
 0.8470	40.9170
 0.8480	40.9060
 0.8490	40.8990
 0.8500	40.8920
 0.8510	40.8780
 0.8520	40.8690
 0.8530	40.8640
 0.8540	40.8560
 0.8550	40.8500
 0.8560	40.8410
 0.8570	40.8310
 0.8580	40.8270
 0.8590	40.8280
 0.8600	40.8280
 0.8610	40.8230
 0.8620	40.8200
 0.8630	40.8160
 0.8640	40.8120
 0.8650	40.8110
 0.8660	40.8080
 0.8670	40.8100
 0.8680	40.8130
 0.8690	40.8100
 0.8700	40.8080
 0.8710	40.8090
 0.8720	40.8100
 0.8730	40.8120
 0.8740	40.8130
 0.8750	40.8180
 0.8760	40.8240
 0.8770	40.8280
 0.8780	40.8320
 0.8790	40.8350
 0.8800	40.8370
 0.8810	40.8400
 0.8820	40.8450
 0.8830	40.8510
 0.8840	40.8590
 0.8850	40.8630
 0.8860	40.8650
 0.8870	40.8690
 0.8880	40.8760
 0.8890	40.8800
 0.8900	40.8880
 0.8910	40.8940
 0.8920	40.8960
 0.8930	40.9010
 0.8940	40.9080
 0.8950	40.9150
 0.8960	40.9220
 0.8970	40.9250
 0.8980	40.9290
 0.8990	40.9370
 0.9000	40.9440
 0.9010	40.9450
 0.9020	40.9500
 0.9030	40.9600
 0.9040	40.9690
 0.9050	40.9710
 0.9060	40.9690
 0.9070	40.9680
 0.9080	40.9710
 0.9090	40.9750
 0.9100	40.9770
 0.9110	40.9770
 0.9120	40.9780
 0.9130	40.9800
 0.9140	40.9810
 0.9150	40.9810
 0.9160	40.9830
 0.9170	40.9830
 0.9180	40.9790
 0.9190	40.9750
 0.9200	40.9790
 0.9210	40.9740
 0.9220	40.9610
 0.9230	40.9550
 0.9240	40.9470
 0.9250	40.9390
 0.9260	40.9310
 0.9270	40.9230
 0.9280	40.9100
 0.9290	40.8990
 0.9300	40.8880
 0.9310	40.8650
 0.9320	40.8510
 0.9330	40.8340
 0.9340	40.8100
 0.9350	40.7940
 0.9360	40.7770
 0.9370	40.7610
 0.9380	40.7450
 0.9390	40.7240
 0.9400	40.6940
 0.9410	40.6680
 0.9420	40.6500
 0.9430	40.6240
 0.9440	40.5970
 0.9450	40.5690
 0.9460	40.5380
 0.9470	40.5050
 0.9480	40.4690
 0.9490	40.4260
 0.9500	40.3790
 0.9510	40.3370
 0.9520	40.2970
 0.9530	40.2540
 0.9540	40.2100
 0.9550	40.1720
 0.9560	40.1320
 0.9570	40.0900
 0.9580	40.0490
 0.9590	39.9990
 0.9600	39.9680
 0.9610	39.9480
 0.9620	39.9190
 0.9630	39.8870
 0.9640	39.8660
 0.9650	39.8510
 0.9660	39.8350
 0.9670	39.8120
 0.9680	39.7980
 0.9690	39.7880
 0.9700	39.7660
 0.9710	39.7410
 0.9720	39.7240
 0.9730	39.7220
 0.9740	39.7310
 0.9750	39.7130
 0.9760	39.7020
 0.9770	39.6990
 0.9780	39.6940
 0.9790	39.6900
 0.9800	39.6880
 0.9810	39.6910
 0.9820	39.6960
 0.9830	39.6880
 0.9840	39.6790
 0.9850	39.6770
 0.9860	39.6820
 0.9870	39.6970
 0.9880	39.6930
 0.9890	39.6850
 0.9900	39.6940
 0.9910	39.7030
 0.9920	39.6990
 0.9930	39.6930
 0.9940	39.7020
 0.9950	39.7040
 0.9960	39.7100
 0.9970	39.7190
 0.9980	39.7250
 0.9990	39.7270
 1.0000	39.7310
 1.0010	40.2930
 1.0020	40.3050
 1.0030	40.3130
 1.0040	40.3200
 1.0050	40.3270
 1.0060	40.3340
 1.0070	40.3420
 1.0080	40.3480
 1.0090	40.3530
 1.0100	40.3590
 1.0110	40.3610
 1.0120	40.3670
 1.0130	40.3770
 1.0140	40.3850
 1.0150	40.3930
 1.0160	40.3990
 1.0170	40.4040
 1.0180	40.4100
 1.0190	40.4160
 1.0200	40.4200
 1.0210	40.4250
 1.0220	40.4320
 1.0230	40.4370
 1.0240	40.4420
 1.0250	40.4480
 1.0260	40.4560
 1.0270	40.4610
 1.0280	40.4640
 1.0290	40.4700
 1.0300	40.4770
 1.0310	40.4830
 1.0320	40.4910
 1.0330	40.5020
 1.0340	40.5100
 1.0350	40.5160
 1.0360	40.5230
 1.0370	40.5270
 1.0380	40.5320
 1.0390	40.5340
 1.0400	40.5390
 1.0410	40.5440
 1.0420	40.5510
 1.0430	40.5620
 1.0440	40.5680
 1.0450	40.5720
 1.0460	40.5760
 1.0470	40.5750
 1.0480	40.5780
 1.0490	40.5850
 1.0500	40.5880
 1.0510	40.5920
 1.0520	40.5920
 1.0530	40.5930
 1.0540	40.5920
 1.0550	40.5930
 1.0560	40.5970
 1.0570	40.5970
 1.0580	40.5950
 1.0590	40.5940
 1.0600	40.5910
 1.0610	40.5890
 1.0620	40.5890
 1.0630	40.5860
 1.0640	40.5820
 1.0650	40.5790
 1.0660	40.5760
 1.0670	40.5730
 1.0680	40.5700
 1.0690	40.5700
 1.0700	40.5660
 1.0710	40.5590
 1.0720	40.5550
 1.0730	40.5490
 1.0740	40.5440
 1.0750	40.5390
 1.0760	40.5350
 1.0770	40.5290
 1.0780	40.5230
 1.0790	40.5200
 1.0800	40.5150
 1.0810	40.5100
 1.0820	40.5040
 1.0830	40.4970
 1.0840	40.4910
 1.0850	40.4860
 1.0860	40.4810
 1.0870	40.4760
 1.0880	40.4710
 1.0890	40.4650
 1.0900	40.4590
 1.0910	40.4520
 1.0920	40.4460
 1.0930	40.4400
 1.0940	40.4320
 1.0950	40.4240
 1.0960	40.4170
 1.0970	40.4090
 1.0980	40.4030
 1.0990	40.3960
 1.1000	40.3910
 1.1010	40.3840
 1.1020	40.3780
 1.1030	40.3710
 1.1040	40.3630
 1.1050	40.3560
 1.1060	40.3490
 1.1070	40.3430
 1.1080	40.3360
 1.1090	40.3290
 1.1100	40.3220
 1.1110	40.3130
 1.1120	40.3060
 1.1130	40.2980
 1.1140	40.2890
 1.1150	40.2790
 1.1160	40.2690
 1.1170	40.2610
 1.1180	40.2490
 1.1190	40.2360
 1.1200	40.2230
 1.1210	40.2050
 1.1220	40.1850
 1.1230	40.1650
 1.1240	40.1420
 1.1250	40.1170
 1.1260	40.0910
 1.1270	40.0590
 1.1280	40.0270
 1.1290	39.9890
 1.1300	39.9450
 1.1310	39.8980
 1.1320	39.8490
 1.1330	39.7940
 1.1340	39.7350
 1.1350	39.6720
 1.1360	39.6030
 1.1370	39.5300
 1.1380	39.4530
 1.1390	39.3750
 1.1400	39.2910
 1.1410	39.2070
 1.1420	39.1230
 1.1430	39.0360
 1.1440	38.9500
 1.1450	38.8640
 1.1460	38.7800
 1.1470	38.6950
 1.1480	38.6160
 1.1490	38.5390
 1.1500	38.4670
 1.1510	38.3990
 1.1520	38.3360
 1.1530	38.2790
 1.1540	38.2250
 1.1550	38.1760
 1.1560	38.1320
 1.1570	38.0930
 1.1580	38.0610
 1.1590	38.0320
 1.1600	38.0060
 1.1610	37.9840
 1.1620	37.9640
 1.1630	37.9470
 1.1640	37.9320
 1.1650	37.9170
 1.1660	37.9040
 1.1670	37.8930
 1.1680	37.8850
 1.1690	37.8770
 1.1700	37.8720
 1.1710	37.8650
 1.1720	37.8570
 1.1730	37.8510
 1.1740	37.8470
 1.1750	37.8430
 1.1760	37.8380
 1.1770	37.8320
 1.1780	37.8240
 1.1790	37.8140
 1.1800	37.8030
 1.1810	37.7940
 1.1820	37.7830
 1.1830	37.7710
 1.1840	37.7620
 1.1850	37.7520
 1.1860	37.7430
 1.1870	37.7350
 1.1880	37.7270
 1.1890	37.7180
 1.1900	37.7110
 1.1910	37.7030
 1.1920	37.6960
 1.1930	37.6890
 1.1940	37.6840
 1.1950	37.6790
 1.1960	37.6770
 1.1970	37.6760
 1.1980	37.6740
 1.1990	37.6740
 1.2000	37.6740
 1.2010	37.6760
 1.2020	37.6780
 1.2030	37.6800
 1.2040	37.6840
 1.2050	37.6880
 1.2060	37.6900
 1.2070	37.6940
 1.2080	37.6990
 1.2090	37.7040
 1.2100	37.7100
 1.2110	37.7170
 1.2120	37.7250
 1.2130	37.7320
 1.2140	37.7400
 1.2150	37.7480
 1.2160	37.7570
 1.2170	37.7660
 1.2180	37.7750
 1.2190	37.7860
 1.2200	37.7950
 1.2210	37.8040
 1.2220	37.8140
 1.2230	37.8240
 1.2240	37.8350
 1.2250	37.8450
 1.2260	37.8550
 1.2270	37.8640
 1.2280	37.8730
 1.2290	37.8810
 1.2300	37.8880
 1.2310	37.8930
 1.2320	37.9010
 1.2330	37.9090
 1.2340	37.9160
 1.2350	37.9250
 1.2360	37.9330
 1.2370	37.9390
 1.2380	37.9440
 1.2390	37.9480
 1.2400	37.9530
 1.2410	37.9580
 1.2420	37.9630
 1.2430	37.9690
 1.2440	37.9750
 1.2450	37.9780
 1.2460	37.9810
 1.2470	37.9840
 1.2480	37.9860
 1.2490	37.9880
 1.2500	37.9900
 1.2510	37.9920
 1.2520	37.9930
 1.2530	37.9930
 1.2540	37.9930
 1.2550	37.9910
 1.2560	37.9890
 1.2570	37.9880
 1.2580	37.9860
 1.2590	37.9840
 1.2600	37.9820
 1.2610	37.9790
 1.2620	37.9750
 1.2630	37.9700
 1.2640	37.9640
 1.2650	37.9570
 1.2660	37.9510
 1.2670	37.9460
 1.2680	37.9400
 1.2690	37.9330
 1.2700	37.9240
 1.2710	37.9160
 1.2720	37.9070
 1.2730	37.8980
 1.2740	37.8890
 1.2750	37.8800
 1.2760	37.8700
 1.2770	37.8580
 1.2780	37.8440
 1.2790	37.8290
 1.2800	37.8140
 1.2810	37.7980
 1.2820	37.7820
 1.2830	37.7650
 1.2840	37.7450
 1.2850	37.7220
 1.2860	37.6990
 1.2870	37.6740
 1.2880	37.6470
 1.2890	37.6200
 1.2900	37.5930
 1.2910	37.5630
 1.2920	37.5300
 1.2930	37.4960
 1.2940	37.4590
 1.2950	37.4200
 1.2960	37.3800
 1.2970	37.3400
 1.2980	37.2980
 1.2990	37.2540
 1.3000	37.2110
 1.3010	37.1660
 1.3020	37.1200
 1.3030	37.0720
 1.3040	37.0210
 1.3050	36.9690
 1.3060	36.9160
 1.3070	36.8630
 1.3080	36.8090
 1.3090	36.7530
 1.3100	36.6960
 1.3110	36.6360
 1.3120	36.5760
 1.3130	36.5140
 1.3140	36.4500
 1.3150	36.3850
 1.3160	36.3180
 1.3170	36.2500
 1.3180	36.1800
 1.3190	36.1090
 1.3200	36.0370
 1.3210	35.9630
 1.3220	35.8880
 1.3230	35.8140
 1.3240	35.7380
 1.3250	35.6610
 1.3260	35.5820
 1.3270	35.5000
 1.3280	35.4170
 1.3290	35.3320
 1.3300	35.2470
 1.3310	35.1620
 1.3320	35.0760
 1.3330	34.9890
 1.3340	34.9020
 1.3350	34.8140
 1.3360	34.7260
 1.3370	34.6370
 1.3380	34.5480
 1.3390	34.4590
 1.3400	34.3690
 1.3410	34.2810
 1.3420	34.1950
 1.3430	34.1080
 1.3440	34.0210
 1.3450	33.9360
 1.3460	33.8500
 1.3470	33.7660
 1.3480	33.6810
 1.3490	33.5980
 1.3500	33.5160
 1.3510	33.4320
 1.3520	33.3500
 1.3530	33.2680
 1.3540	33.1840
 1.3550	33.0990
 1.3560	33.0140
 1.3570	32.9280
 1.3580	32.8420
 1.3590	32.7540
 1.3600	32.6630
 1.3610	32.5680
 1.3620	32.4700
 1.3630	32.3670
 1.3640	32.2600
 1.3650	32.1450
 1.3660	32.0270
 1.3670	31.9020
 1.3680	31.7690
 1.3690	31.6260
 1.3700	31.4720
 1.3710	31.3080
 1.3720	31.1320
 1.3730	30.9430
 1.3740	30.7420
 1.3750	30.5250
 1.3760	30.2910
 1.3770	30.0390
 1.3780	29.7660
 1.3790	29.4760
 1.3800	29.1660
 1.3810	28.8350
 1.3820	28.4890
 1.3830	28.1260
 1.3840	27.7450
 1.3850	27.3480
 1.3860	26.9380
 1.3870	26.5080
 1.3880	26.0740
 1.3890	25.6280
 1.3900	25.1730
 1.3910	24.7170
 1.3920	24.2550
 1.3930	23.7890
 1.3940	23.3240
 1.3950	22.8580
 1.3960	22.3970
 1.3970	21.9450
 1.3980	21.5000
 1.3990	21.0720
 1.4000	20.6560
 1.4010	20.2510
 1.4020	19.8650
 1.4030	19.4930
 1.4040	19.1380
 1.4050	18.8040
 1.4060	18.4860
 1.4070	18.1890
 1.4080	17.9100
 1.4090	17.6460
 1.4100	17.4030
 1.4110	17.1750
 1.4120	16.9630
 1.4130	16.7680
 1.4140	16.5870
 1.4150	16.4220
 1.4160	16.2710
 1.4170	16.1310
 1.4180	16.0030
 1.4190	15.8850
 1.4200	15.7770
 1.4210	15.6790
 1.4220	15.5900
 1.4230	15.5090
 1.4240	15.4370
 1.4250	15.3700
 1.4260	15.3120
 1.4270	15.2580
 1.4280	15.2110
 1.4290	15.1680
 1.4300	15.1310
 1.4310	15.0980
 1.4320	15.0710
 1.4330	15.0470
 1.4340	15.0280
 1.4350	15.0120
 1.4360	15.0010
 1.4370	14.9920
 1.4380	14.9870
 1.4390	14.9840
 1.4400	14.9840
 1.4410	14.9860
 1.4420	14.9910
 1.4430	14.9970
 1.4440	15.0050
 1.4450	15.0150
 1.4460	15.0270
 1.4470	15.0390
 1.4480	15.0530
 1.4490	15.0690
 1.4500	15.0850
 1.4510	15.1030
 1.4520	15.1220
 1.4530	15.1420
 1.4540	15.1640
 1.4550	15.1890
 1.4560	15.2160
 1.4570	15.2450
 1.4580	15.2770
 1.4590	15.3100
 1.4600	15.3480
 1.4610	15.3900
 1.4620	15.4350
 1.4630	15.4860
 1.4640	15.5400
 1.4650	15.5970
 1.4660	15.6590
 1.4670	15.7250
 1.4680	15.7960
 1.4690	15.8710
 1.4700	15.9490
 1.4710	16.0310
 1.4720	16.1150
 1.4730	16.2030
 1.4740	16.2940
 1.4750	16.3870
 1.4760	16.4840
 1.4770	16.5820
 1.4780	16.6820
