Name: Quercus agrifolia 2
Type: vegetation
Class: Tree
Genus: Quercus
Species: agrifolia
Sample No.: VH080
Owner: UCSB
Wavelength Range: VSWIR
Origin: 34.7156; -120.0603; WGS84
Collection Date: 4/21/2013
Description: Samples were collected as part of the HyspIRI Airborne Campaign. 48 individual plants were sampled in three times in 2013 - spring  summer  and fall. The name of the sample includes a 1  2  or 3 which references a different individual of the species. Samples were taken to JPL and processed within 48 hours of collection. The same leaves were processed in the Nicolet and then measured using the ASD.
Measurement: Bidirectional reflectance
First Column: X
Second Column: Y
X Units: Wavelength (micrometers)
Y Units: Reflectance (percentage)
First X Value: 0.35
Last X Value: 2.5
Number of X Values: 2151
Additional Information: vegetation.tree.quercus.agrifolia.vswir.vh080.ucsb.asd.ancillary.txt

 0.3500	 7.3950
 0.3510	 7.4820
 0.3520	 7.4540
 0.3530	 7.4160
 0.3540	 7.5340
 0.3550	 7.7180
 0.3560	 7.7320
 0.3570	 7.6130
 0.3580	 7.5380
 0.3590	 7.5090
 0.3600	 7.4710
 0.3610	 7.4130
 0.3620	 7.3990
 0.3630	 7.3900
 0.3640	 7.3610
 0.3650	 7.3210
 0.3660	 7.3960
 0.3670	 7.4180
 0.3680	 7.3860
 0.3690	 7.4060
 0.3700	 7.4050
 0.3710	 7.3530
 0.3720	 7.2740
 0.3730	 7.2790
 0.3740	 7.3170
 0.3750	 7.3630
 0.3760	 7.3870
 0.3770	 7.2870
 0.3780	 7.2440
 0.3790	 7.2830
 0.3800	 7.2880
 0.3810	 7.2870
 0.3820	 7.2470
 0.3830	 7.1850
 0.3840	 7.2390
 0.3850	 7.3020
 0.3860	 7.3210
 0.3870	 7.2850
 0.3880	 7.2950
 0.3890	 7.2740
 0.3900	 7.2190
 0.3910	 7.2140
 0.3920	 7.2460
 0.3930	 7.2730
 0.3940	 7.2760
 0.3950	 7.3240
 0.3960	 7.3020
 0.3970	 7.2840
 0.3980	 7.3850
 0.3990	 7.3270
 0.4000	 7.2840
 0.4010	 7.3160
 0.4020	 7.2750
 0.4030	 7.2440
 0.4040	 7.2500
 0.4050	 7.2910
 0.4060	 7.3260
 0.4070	 7.3250
 0.4080	 7.3080
 0.4090	 7.3210
 0.4100	 7.3570
 0.4110	 7.3570
 0.4120	 7.3170
 0.4130	 7.3540
 0.4140	 7.3650
 0.4150	 7.3670
 0.4160	 7.4000
 0.4170	 7.4180
 0.4180	 7.4330
 0.4190	 7.4440
 0.4200	 7.4420
 0.4210	 7.4670
 0.4220	 7.4830
 0.4230	 7.4710
 0.4240	 7.4940
 0.4250	 7.5110
 0.4260	 7.5220
 0.4270	 7.5380
 0.4280	 7.5550
 0.4290	 7.5530
 0.4300	 7.5430
 0.4310	 7.5770
 0.4320	 7.5840
 0.4330	 7.5760
 0.4340	 7.5750
 0.4350	 7.5600
 0.4360	 7.5600
 0.4370	 7.5750
 0.4380	 7.5850
 0.4390	 7.5850
 0.4400	 7.5860
 0.4410	 7.5940
 0.4420	 7.5980
 0.4430	 7.6100
 0.4440	 7.6260
 0.4450	 7.6340
 0.4460	 7.6400
 0.4470	 7.6370
 0.4480	 7.6350
 0.4490	 7.6570
 0.4500	 7.6710
 0.4510	 7.6740
 0.4520	 7.6740
 0.4530	 7.6860
 0.4540	 7.6890
 0.4550	 7.6850
 0.4560	 7.6920
 0.4570	 7.7020
 0.4580	 7.7090
 0.4590	 7.7100
 0.4600	 7.7180
 0.4610	 7.7180
 0.4620	 7.7120
 0.4630	 7.7060
 0.4640	 7.7040
 0.4650	 7.7040
 0.4660	 7.7080
 0.4670	 7.7240
 0.4680	 7.7170
 0.4690	 7.7050
 0.4700	 7.7020
 0.4710	 7.7040
 0.4720	 7.7100
 0.4730	 7.7130
 0.4740	 7.7080
 0.4750	 7.7010
 0.4760	 7.7030
 0.4770	 7.7110
 0.4780	 7.6980
 0.4790	 7.6980
 0.4800	 7.7010
 0.4810	 7.6960
 0.4820	 7.7040
 0.4830	 7.7120
 0.4840	 7.7150
 0.4850	 7.7100
 0.4860	 7.7100
 0.4870	 7.7150
 0.4880	 7.7230
 0.4890	 7.7310
 0.4900	 7.7400
 0.4910	 7.7490
 0.4920	 7.7540
 0.4930	 7.7670
 0.4940	 7.7720
 0.4950	 7.7700
 0.4960	 7.7920
 0.4970	 7.8100
 0.4980	 7.8310
 0.4990	 7.8660
 0.5000	 7.8840
 0.5010	 7.9090
 0.5020	 7.9410
 0.5030	 7.9630
 0.5040	 8.0020
 0.5050	 8.0410
 0.5060	 8.0710
 0.5070	 8.1230
 0.5080	 8.1740
 0.5090	 8.2250
 0.5100	 8.2890
 0.5110	 8.3570
 0.5120	 8.4370
 0.5130	 8.5250
 0.5140	 8.6070
 0.5150	 8.7040
 0.5160	 8.8170
 0.5170	 8.9370
 0.5180	 9.0600
 0.5190	 9.1910
 0.5200	 9.3290
 0.5210	 9.4690
 0.5220	 9.6150
 0.5230	 9.7660
 0.5240	 9.9180
 0.5250	10.0550
 0.5260	10.1900
 0.5270	10.3230
 0.5280	10.4490
 0.5290	10.5750
 0.5300	10.6900
 0.5310	10.7900
 0.5320	10.8840
 0.5330	10.9710
 0.5340	11.0520
 0.5350	11.1230
 0.5360	11.1820
 0.5370	11.2370
 0.5380	11.2880
 0.5390	11.3280
 0.5400	11.3600
 0.5410	11.3900
 0.5420	11.4230
 0.5430	11.4550
 0.5440	11.4840
 0.5450	11.5130
 0.5460	11.5460
 0.5470	11.5730
 0.5480	11.6010
 0.5490	11.6300
 0.5500	11.6480
 0.5510	11.6600
 0.5520	11.6630
 0.5530	11.6590
 0.5540	11.6430
 0.5550	11.6160
 0.5560	11.5750
 0.5570	11.5260
 0.5580	11.4660
 0.5590	11.4030
 0.5600	11.3390
 0.5610	11.2660
 0.5620	11.1970
 0.5630	11.1280
 0.5640	11.0490
 0.5650	10.9630
 0.5660	10.8660
 0.5670	10.7560
 0.5680	10.6400
 0.5690	10.5230
 0.5700	10.4060
 0.5710	10.2960
 0.5720	10.2020
 0.5730	10.1190
 0.5740	10.0460
 0.5750	 9.9840
 0.5760	 9.9300
 0.5770	 9.8740
 0.5780	 9.8150
 0.5790	 9.7560
 0.5800	 9.7060
 0.5810	 9.6640
 0.5820	 9.6270
 0.5830	 9.5930
 0.5840	 9.5460
 0.5850	 9.4860
 0.5860	 9.4250
 0.5870	 9.3630
 0.5880	 9.3090
 0.5890	 9.2700
 0.5900	 9.2570
 0.5910	 9.2540
 0.5920	 9.2540
 0.5930	 9.2570
 0.5940	 9.2530
 0.5950	 9.2420
 0.5960	 9.2240
 0.5970	 9.2000
 0.5980	 9.1750
 0.5990	 9.1520
 0.6000	 9.1310
 0.6010	 9.1080
 0.6020	 9.0870
 0.6030	 9.0650
 0.6040	 9.0430
 0.6050	 9.0200
 0.6060	 8.9930
 0.6070	 8.9600
 0.6080	 8.9260
 0.6090	 8.8900
 0.6100	 8.8450
 0.6110	 8.7910
 0.6120	 8.7520
 0.6130	 8.7230
 0.6140	 8.6960
 0.6150	 8.6650
 0.6160	 8.6300
 0.6170	 8.6000
 0.6180	 8.5790
 0.6190	 8.5580
 0.6200	 8.5300
 0.6210	 8.5020
 0.6220	 8.4860
 0.6230	 8.4720
 0.6240	 8.4600
 0.6250	 8.4500
 0.6260	 8.4410
 0.6270	 8.4280
 0.6280	 8.4160
 0.6290	 8.4150
 0.6300	 8.4130
 0.6310	 8.4100
 0.6320	 8.4050
 0.6330	 8.3940
 0.6340	 8.3820
 0.6350	 8.3690
 0.6360	 8.3530
 0.6370	 8.3340
 0.6380	 8.3100
 0.6390	 8.2830
 0.6400	 8.2550
 0.6410	 8.2220
 0.6420	 8.1890
 0.6430	 8.1580
 0.6440	 8.1290
 0.6450	 8.1030
 0.6460	 8.0750
 0.6470	 8.0430
 0.6480	 8.0150
 0.6490	 7.9970
 0.6500	 7.9830
 0.6510	 7.9620
 0.6520	 7.9500
 0.6530	 7.9380
 0.6540	 7.9220
 0.6550	 7.9110
 0.6560	 7.9000
 0.6570	 7.8840
 0.6580	 7.8610
 0.6590	 7.8490
 0.6600	 7.8350
 0.6610	 7.8160
 0.6620	 7.8010
 0.6630	 7.7810
 0.6640	 7.7650
 0.6650	 7.7590
 0.6660	 7.7530
 0.6670	 7.7450
 0.6680	 7.7380
 0.6690	 7.7410
 0.6700	 7.7470
 0.6710	 7.7530
 0.6720	 7.7610
 0.6730	 7.7720
 0.6740	 7.7830
 0.6750	 7.7960
 0.6760	 7.8130
 0.6770	 7.8380
 0.6780	 7.8590
 0.6790	 7.8770
 0.6800	 7.9090
 0.6810	 7.9380
 0.6820	 7.9690
 0.6830	 8.0070
 0.6840	 8.0470
 0.6850	 8.0920
 0.6860	 8.1390
 0.6870	 8.1880
 0.6880	 8.2540
 0.6890	 8.3380
 0.6900	 8.4400
 0.6910	 8.5600
 0.6920	 8.7160
 0.6930	 8.9090
 0.6940	 9.1400
 0.6950	 9.4220
 0.6960	 9.7530
 0.6970	10.1380
 0.6980	10.5830
 0.6990	11.0770
 0.7000	11.6200
 0.7010	12.2120
 0.7020	12.8490
 0.7030	13.5220
 0.7040	14.2190
 0.7050	14.9340
 0.7060	15.6760
 0.7070	16.4300
 0.7080	17.1910
 0.7090	17.9630
 0.7100	18.7400
 0.7110	19.5210
 0.7120	20.3030
 0.7130	21.0820
 0.7140	21.8680
 0.7150	22.6550
 0.7160	23.4330
 0.7170	24.1980
 0.7180	24.9530
 0.7190	25.7030
 0.7200	26.4510
 0.7210	27.1810
 0.7220	27.8930
 0.7230	28.5860
 0.7240	29.2570
 0.7250	29.9180
 0.7260	30.5560
 0.7270	31.1650
 0.7280	31.7630
 0.7290	32.3360
 0.7300	32.8780
 0.7310	33.3900
 0.7320	33.8770
 0.7330	34.3450
 0.7340	34.7930
 0.7350	35.2090
 0.7360	35.6060
 0.7370	35.9830
 0.7380	36.3390
 0.7390	36.6730
 0.7400	36.9780
 0.7410	37.2650
 0.7420	37.5490
 0.7430	37.7980
 0.7440	38.0300
 0.7450	38.2500
 0.7460	38.4420
 0.7470	38.6230
 0.7480	38.7950
 0.7490	38.9530
 0.7500	39.0900
 0.7510	39.2150
 0.7520	39.3280
 0.7530	39.4260
 0.7540	39.5230
 0.7550	39.6110
 0.7560	39.6900
 0.7570	39.7650
 0.7580	39.8300
 0.7590	39.8860
 0.7600	39.9370
 0.7610	39.9850
 0.7620	40.0240
 0.7630	40.0590
 0.7640	40.0970
 0.7650	40.1330
 0.7660	40.1640
 0.7670	40.1860
 0.7680	40.1920
 0.7690	40.2110
 0.7700	40.2370
 0.7710	40.2610
 0.7720	40.2750
 0.7730	40.2810
 0.7740	40.2890
 0.7750	40.3030
 0.7760	40.3130
 0.7770	40.3200
 0.7780	40.3330
 0.7790	40.3570
 0.7800	40.3590
 0.7810	40.3650
 0.7820	40.3830
 0.7830	40.3930
 0.7840	40.3940
 0.7850	40.3970
 0.7860	40.4080
 0.7870	40.4140
 0.7880	40.4260
 0.7890	40.4410
 0.7900	40.4540
 0.7910	40.4520
 0.7920	40.4470
 0.7930	40.4510
 0.7940	40.4740
 0.7950	40.4760
 0.7960	40.4780
 0.7970	40.4900
 0.7980	40.5020
 0.7990	40.4950
 0.8000	40.4880
 0.8010	40.4950
 0.8020	40.4980
 0.8030	40.5000
 0.8040	40.5040
 0.8050	40.5100
 0.8060	40.5070
 0.8070	40.5000
 0.8080	40.4970
 0.8090	40.5010
 0.8100	40.4940
 0.8110	40.4940
 0.8120	40.5060
 0.8130	40.5060
 0.8140	40.5000
 0.8150	40.4940
 0.8160	40.4940
 0.8170	40.4950
 0.8180	40.4900
 0.8190	40.4840
 0.8200	40.4830
 0.8210	40.4780
 0.8220	40.4720
 0.8230	40.4690
 0.8240	40.4710
 0.8250	40.4700
 0.8260	40.4630
 0.8270	40.4500
 0.8280	40.4410
 0.8290	40.4380
 0.8300	40.4410
 0.8310	40.4460
 0.8320	40.4410
 0.8330	40.4300
 0.8340	40.4210
 0.8350	40.4210
 0.8360	40.4200
 0.8370	40.4200
 0.8380	40.4230
 0.8390	40.4260
 0.8400	40.4130
 0.8410	40.4060
 0.8420	40.4100
 0.8430	40.4080
 0.8440	40.4060
 0.8450	40.4090
 0.8460	40.4190
 0.8470	40.4280
 0.8480	40.4220
 0.8490	40.4130
 0.8500	40.4150
 0.8510	40.4090
 0.8520	40.4100
 0.8530	40.4160
 0.8540	40.4210
 0.8550	40.4310
 0.8560	40.4340
 0.8570	40.4290
 0.8580	40.4260
 0.8590	40.4280
 0.8600	40.4370
 0.8610	40.4480
 0.8620	40.4440
 0.8630	40.4370
 0.8640	40.4410
 0.8650	40.4610
 0.8660	40.4640
 0.8670	40.4660
 0.8680	40.4650
 0.8690	40.4590
 0.8700	40.4770
 0.8710	40.4820
 0.8720	40.4770
 0.8730	40.4850
 0.8740	40.4930
 0.8750	40.4940
 0.8760	40.4910
 0.8770	40.5000
 0.8780	40.5230
 0.8790	40.5330
 0.8800	40.5240
 0.8810	40.5240
 0.8820	40.5330
 0.8830	40.5440
 0.8840	40.5480
 0.8850	40.5430
 0.8860	40.5500
 0.8870	40.5570
 0.8880	40.5530
 0.8890	40.5650
 0.8900	40.5730
 0.8910	40.5810
 0.8920	40.5990
 0.8930	40.5990
 0.8940	40.5980
 0.8950	40.6020
 0.8960	40.6080
 0.8970	40.6010
 0.8980	40.6090
 0.8990	40.6250
 0.9000	40.6140
 0.9010	40.6150
 0.9020	40.6300
 0.9030	40.6430
 0.9040	40.6330
 0.9050	40.6300
 0.9060	40.6410
 0.9070	40.6570
 0.9080	40.6420
 0.9090	40.6470
 0.9100	40.6630
 0.9110	40.6720
 0.9120	40.6790
 0.9130	40.6840
 0.9140	40.6950
 0.9150	40.7110
 0.9160	40.6920
 0.9170	40.6840
 0.9180	40.6930
 0.9190	40.7010
 0.9200	40.7020
 0.9210	40.7020
 0.9220	40.7060
 0.9230	40.7110
 0.9240	40.7090
 0.9250	40.6960
 0.9260	40.6820
 0.9270	40.6850
 0.9280	40.6940
 0.9290	40.6960
 0.9300	40.6890
 0.9310	40.6810
 0.9320	40.6660
 0.9330	40.6650
 0.9340	40.6700
 0.9350	40.6420
 0.9360	40.6390
 0.9370	40.6380
 0.9380	40.6190
 0.9390	40.5940
 0.9400	40.6020
 0.9410	40.6040
 0.9420	40.5800
 0.9430	40.5630
 0.9440	40.5540
 0.9450	40.5420
 0.9460	40.5210
 0.9470	40.5050
 0.9480	40.4790
 0.9490	40.4450
 0.9500	40.4130
 0.9510	40.4000
 0.9520	40.3870
 0.9530	40.3630
 0.9540	40.3270
 0.9550	40.2820
 0.9560	40.2620
 0.9570	40.2500
 0.9580	40.2200
 0.9590	40.1830
 0.9600	40.1420
 0.9610	40.1160
 0.9620	40.1120
 0.9630	40.0910
 0.9640	40.0620
 0.9650	40.0370
 0.9660	40.0270
 0.9670	40.0170
 0.9680	40.0160
 0.9690	40.0200
 0.9700	40.0170
 0.9710	39.9990
 0.9720	39.9900
 0.9730	39.9910
 0.9740	39.9900
 0.9750	39.9650
 0.9760	39.9690
 0.9770	39.9920
 0.9780	39.9980
 0.9790	39.9710
 0.9800	39.9700
 0.9810	39.9780
 0.9820	39.9610
 0.9830	39.9770
 0.9840	39.9780
 0.9850	39.9720
 0.9860	39.9870
 0.9870	39.9920
 0.9880	40.0230
 0.9890	40.0460
 0.9900	40.0210
 0.9910	40.0340
 0.9920	40.0410
 0.9930	40.0470
 0.9940	40.0540
 0.9950	40.0600
 0.9960	40.0670
 0.9970	40.0730
 0.9980	40.0790
 0.9990	40.0860
 1.0000	40.0920
 1.0010	40.0990
 1.0020	40.1050
 1.0030	40.1120
 1.0040	40.1180
 1.0050	40.1240
 1.0060	40.1310
 1.0070	40.1370
 1.0080	40.1440
 1.0090	40.1500
 1.0100	40.1500
 1.0110	40.1590
 1.0120	40.1720
 1.0130	40.1930
 1.0140	40.2070
 1.0150	40.2200
 1.0160	40.2350
 1.0170	40.2450
 1.0180	40.2550
 1.0190	40.2670
 1.0200	40.2770
 1.0210	40.2890
 1.0220	40.3000
 1.0230	40.3100
 1.0240	40.3200
 1.0250	40.3300
 1.0260	40.3370
 1.0270	40.3460
 1.0280	40.3570
 1.0290	40.3680
 1.0300	40.3800
 1.0310	40.3910
 1.0320	40.4020
 1.0330	40.4120
 1.0340	40.4220
 1.0350	40.4310
 1.0360	40.4410
 1.0370	40.4510
 1.0380	40.4610
 1.0390	40.4710
 1.0400	40.4790
 1.0410	40.4870
 1.0420	40.4960
 1.0430	40.5050
 1.0440	40.5130
 1.0450	40.5220
 1.0460	40.5300
 1.0470	40.5350
 1.0480	40.5430
 1.0490	40.5540
 1.0500	40.5640
 1.0510	40.5750
 1.0520	40.5840
 1.0530	40.5900
 1.0540	40.5920
 1.0550	40.5990
 1.0560	40.6060
 1.0570	40.6140
 1.0580	40.6250
 1.0590	40.6330
 1.0600	40.6380
 1.0610	40.6460
 1.0620	40.6530
 1.0630	40.6610
 1.0640	40.6720
 1.0650	40.6780
 1.0660	40.6800
 1.0670	40.6830
 1.0680	40.6850
 1.0690	40.6840
 1.0700	40.6840
 1.0710	40.6840
 1.0720	40.6850
 1.0730	40.6890
 1.0740	40.6900
 1.0750	40.6910
 1.0760	40.6930
 1.0770	40.6930
 1.0780	40.6930
 1.0790	40.6930
 1.0800	40.6920
 1.0810	40.6890
 1.0820	40.6870
 1.0830	40.6860
 1.0840	40.6850
 1.0850	40.6850
 1.0860	40.6850
 1.0870	40.6830
 1.0880	40.6820
 1.0890	40.6790
 1.0900	40.6730
 1.0910	40.6700
 1.0920	40.6660
 1.0930	40.6630
 1.0940	40.6610
 1.0950	40.6580
 1.0960	40.6550
 1.0970	40.6500
 1.0980	40.6440
 1.0990	40.6390
 1.1000	40.6320
 1.1010	40.6250
 1.1020	40.6170
 1.1030	40.6120
 1.1040	40.6050
 1.1050	40.5980
 1.1060	40.5910
 1.1070	40.5850
 1.1080	40.5770
 1.1090	40.5680
 1.1100	40.5600
 1.1110	40.5510
 1.1120	40.5420
 1.1130	40.5350
 1.1140	40.5250
 1.1150	40.5160
 1.1160	40.5030
 1.1170	40.4860
 1.1180	40.4710
 1.1190	40.4570
 1.1200	40.4420
 1.1210	40.4270
 1.1220	40.4110
 1.1230	40.3910
 1.1240	40.3670
 1.1250	40.3410
 1.1260	40.3140
 1.1270	40.2830
 1.1280	40.2500
 1.1290	40.2140
 1.1300	40.1760
 1.1310	40.1340
 1.1320	40.0880
 1.1330	40.0390
 1.1340	39.9860
 1.1350	39.9280
 1.1360	39.8630
 1.1370	39.7970
 1.1380	39.7270
 1.1390	39.6530
 1.1400	39.5800
 1.1410	39.5030
 1.1420	39.4230
 1.1430	39.3440
 1.1440	39.2630
 1.1450	39.1790
 1.1460	39.0990
 1.1470	39.0190
 1.1480	38.9420
 1.1490	38.8660
 1.1500	38.7960
 1.1510	38.7290
 1.1520	38.6650
 1.1530	38.6030
 1.1540	38.5470
 1.1550	38.4920
 1.1560	38.4420
 1.1570	38.3990
 1.1580	38.3620
 1.1590	38.3270
 1.1600	38.2950
 1.1610	38.2670
 1.1620	38.2430
 1.1630	38.2200
 1.1640	38.1990
 1.1650	38.1810
 1.1660	38.1660
 1.1670	38.1530
 1.1680	38.1450
 1.1690	38.1360
 1.1700	38.1270
 1.1710	38.1190
 1.1720	38.1100
 1.1730	38.1010
 1.1740	38.0920
 1.1750	38.0850
 1.1760	38.0750
 1.1770	38.0650
 1.1780	38.0560
 1.1790	38.0440
 1.1800	38.0330
 1.1810	38.0210
 1.1820	38.0100
 1.1830	37.9970
 1.1840	37.9840
 1.1850	37.9720
 1.1860	37.9610
 1.1870	37.9510
 1.1880	37.9430
 1.1890	37.9360
 1.1900	37.9290
 1.1910	37.9220
 1.1920	37.9160
 1.1930	37.9110
 1.1940	37.9060
 1.1950	37.9010
 1.1960	37.9000
 1.1970	37.8990
 1.1980	37.8970
 1.1990	37.8970
 1.2000	37.8970
 1.2010	37.9000
 1.2020	37.9030
 1.2030	37.9070
 1.2040	37.9130
 1.2050	37.9180
 1.2060	37.9240
 1.2070	37.9300
 1.2080	37.9370
 1.2090	37.9480
 1.2100	37.9630
 1.2110	37.9750
 1.2120	37.9890
 1.2130	38.0030
 1.2140	38.0150
 1.2150	38.0300
 1.2160	38.0490
 1.2170	38.0710
 1.2180	38.0930
 1.2190	38.1150
 1.2200	38.1370
 1.2210	38.1580
 1.2220	38.1810
 1.2230	38.2040
 1.2240	38.2270
 1.2250	38.2490
 1.2260	38.2720
 1.2270	38.2950
 1.2280	38.3180
 1.2290	38.3410
 1.2300	38.3640
 1.2310	38.3840
 1.2320	38.4030
 1.2330	38.4230
 1.2340	38.4420
 1.2350	38.4610
 1.2360	38.4780
 1.2370	38.4960
 1.2380	38.5110
 1.2390	38.5250
 1.2400	38.5380
 1.2410	38.5530
 1.2420	38.5680
 1.2430	38.5830
 1.2440	38.5980
 1.2450	38.6130
 1.2460	38.6270
 1.2470	38.6370
 1.2480	38.6480
 1.2490	38.6590
 1.2500	38.6700
 1.2510	38.6810
 1.2520	38.6930
 1.2530	38.7020
 1.2540	38.7110
 1.2550	38.7190
 1.2560	38.7270
 1.2570	38.7340
 1.2580	38.7410
 1.2590	38.7470
 1.2600	38.7530
 1.2610	38.7580
 1.2620	38.7610
 1.2630	38.7640
 1.2640	38.7670
 1.2650	38.7690
 1.2660	38.7730
 1.2670	38.7750
 1.2680	38.7760
 1.2690	38.7760
 1.2700	38.7750
 1.2710	38.7710
 1.2720	38.7680
 1.2730	38.7680
 1.2740	38.7670
 1.2750	38.7650
 1.2760	38.7630
 1.2770	38.7590
 1.2780	38.7520
 1.2790	38.7450
 1.2800	38.7400
 1.2810	38.7320
 1.2820	38.7220
 1.2830	38.7170
 1.2840	38.7090
 1.2850	38.7020
 1.2860	38.6960
 1.2870	38.6870
 1.2880	38.6770
 1.2890	38.6660
 1.2900	38.6550
 1.2910	38.6420
 1.2920	38.6280
 1.2930	38.6130
 1.2940	38.5970
 1.2950	38.5790
 1.2960	38.5610
 1.2970	38.5440
 1.2980	38.5230
 1.2990	38.5000
 1.3000	38.4760
 1.3010	38.4470
 1.3020	38.4170
 1.3030	38.3880
 1.3040	38.3560
 1.3050	38.3240
 1.3060	38.2920
 1.3070	38.2560
 1.3080	38.2170
 1.3090	38.1760
 1.3100	38.1320
 1.3110	38.0840
 1.3120	38.0360
 1.3130	37.9860
 1.3140	37.9320
 1.3150	37.8770
 1.3160	37.8190
 1.3170	37.7600
 1.3180	37.6970
 1.3190	37.6330
 1.3200	37.5670
 1.3210	37.5010
 1.3220	37.4340
 1.3230	37.3630
 1.3240	37.2880
 1.3250	37.2100
 1.3260	37.1290
 1.3270	37.0470
 1.3280	36.9640
 1.3290	36.8810
 1.3300	36.7960
 1.3310	36.7080
 1.3320	36.6200
 1.3330	36.5300
 1.3340	36.4390
 1.3350	36.3480
 1.3360	36.2560
 1.3370	36.1640
 1.3380	36.0710
 1.3390	35.9750
 1.3400	35.8810
 1.3410	35.7870
 1.3420	35.6920
 1.3430	35.6000
 1.3440	35.5070
 1.3450	35.4130
 1.3460	35.3190
 1.3470	35.2270
 1.3480	35.1340
 1.3490	35.0450
 1.3500	34.9590
 1.3510	34.8720
 1.3520	34.7850
 1.3530	34.6990
 1.3540	34.6130
 1.3550	34.5250
 1.3560	34.4380
 1.3570	34.3510
 1.3580	34.2630
 1.3590	34.1730
 1.3600	34.0810
 1.3610	33.9870
 1.3620	33.8890
 1.3630	33.7880
 1.3640	33.6840
 1.3650	33.5730
 1.3660	33.4560
 1.3670	33.3340
 1.3680	33.2040
 1.3690	33.0660
 1.3700	32.9200
 1.3710	32.7650
 1.3720	32.6020
 1.3730	32.4260
 1.3740	32.2390
 1.3750	32.0370
 1.3760	31.8180
 1.3770	31.5840
 1.3780	31.3330
 1.3790	31.0640
 1.3800	30.7790
 1.3810	30.4730
 1.3820	30.1530
 1.3830	29.8180
 1.3840	29.4650
 1.3850	29.0970
 1.3860	28.7150
 1.3870	28.3130
 1.3880	27.9040
 1.3890	27.4830
 1.3900	27.0510
 1.3910	26.6160
 1.3920	26.1720
 1.3930	25.7240
 1.3940	25.2750
 1.3950	24.8200
 1.3960	24.3710
 1.3970	23.9280
 1.3980	23.4910
 1.3990	23.0680
 1.4000	22.6540
 1.4010	22.2500
 1.4020	21.8600
 1.4030	21.4800
 1.4040	21.1160
 1.4050	20.7690
 1.4060	20.4350
 1.4070	20.1230
 1.4080	19.8270
 1.4090	19.5450
 1.4100	19.2830
 1.4110	19.0350
 1.4120	18.8040
 1.4130	18.5880
 1.4140	18.3890
 1.4150	18.2070
 1.4160	18.0370
 1.4170	17.8810
 1.4180	17.7380
 1.4190	17.6030
 1.4200	17.4810
 1.4210	17.3690
 1.4220	17.2660
 1.4230	17.1750
 1.4240	17.0920
 1.4250	17.0160
 1.4260	16.9490
 1.4270	16.8870
 1.4280	16.8320
 1.4290	16.7830
 1.4300	16.7420
 1.4310	16.7040
 1.4320	16.6730
 1.4330	16.6450
 1.4340	16.6210
 1.4350	16.6010
 1.4360	16.5850
 1.4370	16.5730
 1.4380	16.5650
 1.4390	16.5610
 1.4400	16.5600
 1.4410	16.5610
 1.4420	16.5630
 1.4430	16.5690
 1.4440	16.5760
 1.4450	16.5850
 1.4460	16.5960
 1.4470	16.6070
 1.4480	16.6210
 1.4490	16.6350
 1.4500	16.6500
 1.4510	16.6670
 1.4520	16.6830
 1.4530	16.7000
 1.4540	16.7190
 1.4550	16.7390
 1.4560	16.7620
 1.4570	16.7860
 1.4580	16.8140
 1.4590	16.8440
 1.4600	16.8770
 1.4610	16.9140
 1.4620	16.9530
 1.4630	16.9970
 1.4640	17.0440
 1.4650	17.0950
 1.4660	17.1500
 1.4670	17.2090
 1.4680	17.2720
 1.4690	17.3390
 1.4700	17.4090
