Name: Arctostaphylos glandulosa 3
Type: vegetation
Class: Shrub
Genus: Arctostaphylos
Species: glandulosa
Sample No.: VH122
Owner: UCSB
Wavelength Range: VSWIR
Origin: 34.5085; -119.7682; WGS84
Collection Date: 6/3/2013
Description: Samples were collected as part of the HyspIRI Airborne Campaign. 48 individual plants were sampled in three times in 2013 - spring  summer  and fall. The name of the sample includes a 1  2  or 3 which references a different individual of the species. Samples were taken to JPL and processed within 48 hours of collection. The same leaves were processed in the Nicolet and then measured using the ASD.
Measurement: Bidirectional reflectance
First Column: X
Second Column: Y
X Units: Wavelength (micrometers)
Y Units: Reflectance (percentage)
First X Value: 0.35
Last X Value: 2.5
Number of X Values: 2151
Additional Information: vegetation.shrub.arctostaphylos.glandulosa.vswir.vh122.ucsb.asd.ancillary.txt

 0.3500	 7.2580
 0.3510	 7.2840
 0.3520	 7.3380
 0.3530	 7.2730
 0.3540	 7.0740
 0.3550	 7.1330
 0.3560	 7.1300
 0.3570	 7.0450
 0.3580	 7.0140
 0.3590	 7.1130
 0.3600	 7.2100
 0.3610	 7.2190
 0.3620	 7.1320
 0.3630	 7.1040
 0.3640	 7.1330
 0.3650	 7.1690
 0.3660	 7.1740
 0.3670	 7.1610
 0.3680	 7.1250
 0.3690	 7.0660
 0.3700	 7.1180
 0.3710	 7.1830
 0.3720	 7.2000
 0.3730	 7.2360
 0.3740	 7.2480
 0.3750	 7.2440
 0.3760	 7.2460
 0.3770	 7.2640
 0.3780	 7.2830
 0.3790	 7.2890
 0.3800	 7.2740
 0.3810	 7.3350
 0.3820	 7.3760
 0.3830	 7.3520
 0.3840	 7.3930
 0.3850	 7.4210
 0.3860	 7.4310
 0.3870	 7.4480
 0.3880	 7.4910
 0.3890	 7.5410
 0.3900	 7.5780
 0.3910	 7.5850
 0.3920	 7.5850
 0.3930	 7.5860
 0.3940	 7.5970
 0.3950	 7.6390
 0.3960	 7.6520
 0.3970	 7.6590
 0.3980	 7.7100
 0.3990	 7.7300
 0.4000	 7.7410
 0.4010	 7.7560
 0.4020	 7.7740
 0.4030	 7.7970
 0.4040	 7.8220
 0.4050	 7.8420
 0.4060	 7.8470
 0.4070	 7.8710
 0.4080	 7.9130
 0.4090	 7.9510
 0.4100	 8.0100
 0.4110	 8.0480
 0.4120	 8.0540
 0.4130	 8.0880
 0.4140	 8.1180
 0.4150	 8.1430
 0.4160	 8.1690
 0.4170	 8.2140
 0.4180	 8.2730
 0.4190	 8.3400
 0.4200	 8.4100
 0.4210	 8.4540
 0.4220	 8.4930
 0.4230	 8.5470
 0.4240	 8.6080
 0.4250	 8.6700
 0.4260	 8.7300
 0.4270	 8.7900
 0.4280	 8.8540
 0.4290	 8.9270
 0.4300	 9.0040
 0.4310	 9.0740
 0.4320	 9.1400
 0.4330	 9.2030
 0.4340	 9.2600
 0.4350	 9.3180
 0.4360	 9.3870
 0.4370	 9.4640
 0.4380	 9.5380
 0.4390	 9.6090
 0.4400	 9.6700
 0.4410	 9.7240
 0.4420	 9.7870
 0.4430	 9.8500
 0.4440	 9.9120
 0.4450	 9.9770
 0.4460	10.0580
 0.4470	10.1290
 0.4480	10.1820
 0.4490	10.2380
 0.4500	10.3050
 0.4510	10.3690
 0.4520	10.4200
 0.4530	10.4730
 0.4540	10.5130
 0.4550	10.5480
 0.4560	10.5980
 0.4570	10.6410
 0.4580	10.6630
 0.4590	10.6680
 0.4600	10.6960
 0.4610	10.7160
 0.4620	10.7320
 0.4630	10.7560
 0.4640	10.7720
 0.4650	10.7880
 0.4660	10.8050
 0.4670	10.8110
 0.4680	10.8100
 0.4690	10.8180
 0.4700	10.8430
 0.4710	10.8540
 0.4720	10.8630
 0.4730	10.8740
 0.4740	10.8850
 0.4750	10.8890
 0.4760	10.9010
 0.4770	10.9200
 0.4780	10.9230
 0.4790	10.9220
 0.4800	10.9240
 0.4810	10.9330
 0.4820	10.9440
 0.4830	10.9510
 0.4840	10.9620
 0.4850	10.9890
 0.4860	11.0090
 0.4870	11.0310
 0.4880	11.0620
 0.4890	11.0920
 0.4900	11.1290
 0.4910	11.1700
 0.4920	11.2070
 0.4930	11.2610
 0.4940	11.3180
 0.4950	11.3710
 0.4960	11.4300
 0.4970	11.4960
 0.4980	11.5710
 0.4990	11.6560
 0.5000	11.7430
 0.5010	11.8340
 0.5020	11.9340
 0.5030	12.0490
 0.5040	12.1730
 0.5050	12.3000
 0.5060	12.4290
 0.5070	12.5640
 0.5080	12.7140
 0.5090	12.8750
 0.5100	13.0420
 0.5110	13.2180
 0.5120	13.3960
 0.5130	13.5770
 0.5140	13.7710
 0.5150	13.9670
 0.5160	14.1610
 0.5170	14.3540
 0.5180	14.5580
 0.5190	14.7630
 0.5200	14.9650
 0.5210	15.1580
 0.5220	15.3450
 0.5230	15.5270
 0.5240	15.7020
 0.5250	15.8660
 0.5260	16.0190
 0.5270	16.1630
 0.5280	16.2980
 0.5290	16.4240
 0.5300	16.5440
 0.5310	16.6570
 0.5320	16.7530
 0.5330	16.8460
 0.5340	16.9320
 0.5350	17.0100
 0.5360	17.0840
 0.5370	17.1550
 0.5380	17.2210
 0.5390	17.2810
 0.5400	17.3440
 0.5410	17.4100
 0.5420	17.4750
 0.5430	17.5330
 0.5440	17.5990
 0.5450	17.6710
 0.5460	17.7380
 0.5470	17.8080
 0.5480	17.8780
 0.5490	17.9470
 0.5500	18.0150
 0.5510	18.0840
 0.5520	18.1520
 0.5530	18.2170
 0.5540	18.2740
 0.5550	18.3310
 0.5560	18.3860
 0.5570	18.4300
 0.5580	18.4720
 0.5590	18.5090
 0.5600	18.5410
 0.5610	18.5710
 0.5620	18.6060
 0.5630	18.6420
 0.5640	18.6750
 0.5650	18.7000
 0.5660	18.7180
 0.5670	18.7290
 0.5680	18.7310
 0.5690	18.7280
 0.5700	18.7230
 0.5710	18.7180
 0.5720	18.7090
 0.5730	18.7060
 0.5740	18.7130
 0.5750	18.7280
 0.5760	18.7370
 0.5770	18.7400
 0.5780	18.7390
 0.5790	18.7270
 0.5800	18.7200
 0.5810	18.7230
 0.5820	18.7400
 0.5830	18.7730
 0.5840	18.8070
 0.5850	18.8350
 0.5860	18.8600
 0.5870	18.8710
 0.5880	18.8840
 0.5890	18.9130
 0.5900	18.9650
 0.5910	19.0250
 0.5920	19.0880
 0.5930	19.1470
 0.5940	19.1980
 0.5950	19.2370
 0.5960	19.2670
 0.5970	19.2980
 0.5980	19.3300
 0.5990	19.3600
 0.6000	19.3840
 0.6010	19.4000
 0.6020	19.4060
 0.6030	19.4010
 0.6040	19.3830
 0.6050	19.3550
 0.6060	19.3140
 0.6070	19.2570
 0.6080	19.1900
 0.6090	19.1130
 0.6100	19.0280
 0.6110	18.9390
 0.6120	18.8430
 0.6130	18.7370
 0.6140	18.6260
 0.6150	18.5290
 0.6160	18.4260
 0.6170	18.3250
 0.6180	18.2370
 0.6190	18.1580
 0.6200	18.0860
 0.6210	18.0220
 0.6220	17.9670
 0.6230	17.9180
 0.6240	17.8770
 0.6250	17.8450
 0.6260	17.8280
 0.6270	17.8110
 0.6280	17.7970
 0.6290	17.7910
 0.6300	17.7820
 0.6310	17.7680
 0.6320	17.7440
 0.6330	17.7100
 0.6340	17.6590
 0.6350	17.5920
 0.6360	17.5090
 0.6370	17.3990
 0.6380	17.2660
 0.6390	17.1160
 0.6400	16.9520
 0.6410	16.7680
 0.6420	16.5760
 0.6430	16.3780
 0.6440	16.1650
 0.6450	15.9560
 0.6460	15.7530
 0.6470	15.5550
 0.6480	15.3750
 0.6490	15.2140
 0.6500	15.0740
 0.6510	14.9520
 0.6520	14.8440
 0.6530	14.7400
 0.6540	14.6320
 0.6550	14.5210
 0.6560	14.3970
 0.6570	14.2550
 0.6580	14.0980
 0.6590	13.9250
 0.6600	13.7400
 0.6610	13.5470
 0.6620	13.3490
 0.6630	13.1560
 0.6640	12.9700
 0.6650	12.7930
 0.6660	12.6350
 0.6670	12.4950
 0.6680	12.3720
 0.6690	12.2650
 0.6700	12.1730
 0.6710	12.0990
 0.6720	12.0440
 0.6730	12.0060
 0.6740	11.9810
 0.6750	11.9660
 0.6760	11.9620
 0.6770	11.9710
 0.6780	11.9950
 0.6790	12.0390
 0.6800	12.1060
 0.6810	12.2050
 0.6820	12.3420
 0.6830	12.5270
 0.6840	12.7650
 0.6850	13.0660
 0.6860	13.4430
 0.6870	13.9070
 0.6880	14.4580
 0.6890	15.1010
 0.6900	15.8390
 0.6910	16.6730
 0.6920	17.5980
 0.6930	18.6040
 0.6940	19.6840
 0.6950	20.8270
 0.6960	22.0260
 0.6970	23.2700
 0.6980	24.5460
 0.6990	25.8450
 0.7000	27.1530
 0.7010	28.4600
 0.7020	29.7580
 0.7030	31.0340
 0.7040	32.2810
 0.7050	33.4960
 0.7060	34.6710
 0.7070	35.8070
 0.7080	36.9060
 0.7090	37.9700
 0.7100	38.9980
 0.7110	39.9950
 0.7120	40.9570
 0.7130	41.8810
 0.7140	42.7700
 0.7150	43.6310
 0.7160	44.4620
 0.7170	45.2600
 0.7180	46.0300
 0.7190	46.7670
 0.7200	47.4670
 0.7210	48.1460
 0.7220	48.7980
 0.7230	49.4170
 0.7240	49.9950
 0.7250	50.5480
 0.7260	51.0700
 0.7270	51.5580
 0.7280	52.0220
 0.7290	52.4550
 0.7300	52.8600
 0.7310	53.2380
 0.7320	53.5960
 0.7330	53.9270
 0.7340	54.2320
 0.7350	54.5230
 0.7360	54.7930
 0.7370	55.0440
 0.7380	55.2770
 0.7390	55.4950
 0.7400	55.6970
 0.7410	55.8840
 0.7420	56.0580
 0.7430	56.2230
 0.7440	56.3750
 0.7450	56.5130
 0.7460	56.6430
 0.7470	56.7620
 0.7480	56.8690
 0.7490	56.9650
 0.7500	57.0600
 0.7510	57.1460
 0.7520	57.2240
 0.7530	57.2970
 0.7540	57.3630
 0.7550	57.4200
 0.7560	57.4720
 0.7570	57.5280
 0.7580	57.5770
 0.7590	57.6250
 0.7600	57.6730
 0.7610	57.7140
 0.7620	57.7520
 0.7630	57.7870
 0.7640	57.8170
 0.7650	57.8480
 0.7660	57.8800
 0.7670	57.9100
 0.7680	57.9370
 0.7690	57.9640
 0.7700	57.9890
 0.7710	58.0140
 0.7720	58.0400
 0.7730	58.0630
 0.7740	58.0870
 0.7750	58.1150
 0.7760	58.1360
 0.7770	58.1540
 0.7780	58.1730
 0.7790	58.1980
 0.7800	58.2220
 0.7810	58.2470
 0.7820	58.2690
 0.7830	58.2880
 0.7840	58.3050
 0.7850	58.3240
 0.7860	58.3430
 0.7870	58.3620
 0.7880	58.3810
 0.7890	58.3980
 0.7900	58.4110
 0.7910	58.4310
 0.7920	58.4500
 0.7930	58.4640
 0.7940	58.4780
 0.7950	58.4890
 0.7960	58.5010
 0.7970	58.5150
 0.7980	58.5250
 0.7990	58.5330
 0.8000	58.5420
 0.8010	58.5540
 0.8020	58.5610
 0.8030	58.5670
 0.8040	58.5730
 0.8050	58.5740
 0.8060	58.5720
 0.8070	58.5740
 0.8080	58.5800
 0.8090	58.5780
 0.8100	58.5740
 0.8110	58.5700
 0.8120	58.5680
 0.8130	58.5700
 0.8140	58.5630
 0.8150	58.5530
 0.8160	58.5480
 0.8170	58.5430
 0.8180	58.5360
 0.8190	58.5300
 0.8200	58.5310
 0.8210	58.5220
 0.8220	58.5110
 0.8230	58.5030
 0.8240	58.4920
 0.8250	58.4730
 0.8260	58.4540
 0.8270	58.4400
 0.8280	58.4230
 0.8290	58.4060
 0.8300	58.3890
 0.8310	58.3710
 0.8320	58.3530
 0.8330	58.3380
 0.8340	58.3250
 0.8350	58.3110
 0.8360	58.2950
 0.8370	58.2820
 0.8380	58.2740
 0.8390	58.2650
 0.8400	58.2640
 0.8410	58.2600
 0.8420	58.2510
 0.8430	58.2500
 0.8440	58.2470
 0.8450	58.2450
 0.8460	58.2450
 0.8470	58.2300
 0.8480	58.2250
 0.8490	58.2280
 0.8500	58.2320
 0.8510	58.2260
 0.8520	58.2250
 0.8530	58.2280
 0.8540	58.2260
 0.8550	58.2200
 0.8560	58.2190
 0.8570	58.2220
 0.8580	58.2220
 0.8590	58.2150
 0.8600	58.2140
 0.8610	58.2200
 0.8620	58.2180
 0.8630	58.2190
 0.8640	58.2210
 0.8650	58.2240
 0.8660	58.2240
 0.8670	58.2300
 0.8680	58.2390
 0.8690	58.2400
 0.8700	58.2340
 0.8710	58.2380
 0.8720	58.2480
 0.8730	58.2530
 0.8740	58.2570
 0.8750	58.2620
 0.8760	58.2700
 0.8770	58.2780
 0.8780	58.2800
 0.8790	58.2800
 0.8800	58.2830
 0.8810	58.2850
 0.8820	58.2890
 0.8830	58.2920
 0.8840	58.2920
 0.8850	58.2960
 0.8860	58.2970
 0.8870	58.3010
 0.8880	58.3100
 0.8890	58.3030
 0.8900	58.2990
 0.8910	58.3020
 0.8920	58.3020
 0.8930	58.2980
 0.8940	58.3050
 0.8950	58.3140
 0.8960	58.3070
 0.8970	58.3040
 0.8980	58.3060
 0.8990	58.3090
 0.9000	58.3100
 0.9010	58.3080
 0.9020	58.3070
 0.9030	58.3080
 0.9040	58.3070
 0.9050	58.2970
 0.9060	58.2880
 0.9070	58.2870
 0.9080	58.2930
 0.9090	58.2890
 0.9100	58.2820
 0.9110	58.2790
 0.9120	58.2780
 0.9130	58.2740
 0.9140	58.2700
 0.9150	58.2670
 0.9160	58.2460
 0.9170	58.2320
 0.9180	58.2260
 0.9190	58.2180
 0.9200	58.2060
 0.9210	58.1880
 0.9220	58.1660
 0.9230	58.1430
 0.9240	58.1220
 0.9250	58.1000
 0.9260	58.0700
 0.9270	58.0260
 0.9280	57.9910
 0.9290	57.9610
 0.9300	57.9280
 0.9310	57.8840
 0.9320	57.8440
 0.9330	57.8020
 0.9340	57.7580
 0.9350	57.7180
 0.9360	57.6570
 0.9370	57.5990
 0.9380	57.5530
 0.9390	57.4930
 0.9400	57.4330
 0.9410	57.3700
 0.9420	57.3020
 0.9430	57.2340
 0.9440	57.1490
 0.9450	57.0630
 0.9460	56.9810
 0.9470	56.8820
 0.9480	56.7710
 0.9490	56.6590
 0.9500	56.5440
 0.9510	56.4070
 0.9520	56.2670
 0.9530	56.1310
 0.9540	55.9960
 0.9550	55.8490
 0.9560	55.7040
 0.9570	55.5670
 0.9580	55.4440
 0.9590	55.3310
 0.9600	55.2130
 0.9610	55.1030
 0.9620	55.0160
 0.9630	54.9310
 0.9640	54.8720
 0.9650	54.8210
 0.9660	54.7610
 0.9670	54.7300
 0.9680	54.7040
 0.9690	54.6800
 0.9700	54.6570
 0.9710	54.6130
 0.9720	54.5880
 0.9730	54.5770
 0.9740	54.5610
 0.9750	54.5450
 0.9760	54.5520
 0.9770	54.5640
 0.9780	54.5570
 0.9790	54.5580
 0.9800	54.5650
 0.9810	54.5710
 0.9820	54.5740
 0.9830	54.5980
 0.9840	54.6230
 0.9850	54.6460
 0.9860	54.6670
 0.9870	54.6780
 0.9880	54.7000
 0.9890	54.7420
 0.9900	54.8030
 0.9910	54.8750
 0.9920	54.9100
 0.9930	54.9460
 0.9940	54.9810
 0.9950	55.0160
 0.9960	55.0520
 0.9970	55.0870
 0.9980	55.1220
 0.9990	55.1580
 1.0000	55.1930
 1.0010	55.2280
 1.0020	55.2630
 1.0030	55.2990
 1.0040	55.3340
 1.0050	55.3690
 1.0060	55.4050
 1.0070	55.4400
 1.0080	55.4750
 1.0090	55.5110
 1.0100	55.5110
 1.0110	55.5510
 1.0120	55.5980
 1.0130	55.6490
 1.0140	55.7030
 1.0150	55.7630
 1.0160	55.8180
 1.0170	55.8630
 1.0180	55.9100
 1.0190	55.9530
 1.0200	55.9950
 1.0210	56.0450
 1.0220	56.1010
 1.0230	56.1470
 1.0240	56.1870
 1.0250	56.2300
 1.0260	56.2730
 1.0270	56.3130
 1.0280	56.3530
 1.0290	56.3930
 1.0300	56.4300
 1.0310	56.4680
 1.0320	56.5090
 1.0330	56.5490
 1.0340	56.5850
 1.0350	56.6240
 1.0360	56.6660
 1.0370	56.7030
 1.0380	56.7350
 1.0390	56.7630
 1.0400	56.7930
 1.0410	56.8200
 1.0420	56.8490
 1.0430	56.8850
 1.0440	56.9130
 1.0450	56.9350
 1.0460	56.9600
 1.0470	56.9820
 1.0480	57.0060
 1.0490	57.0330
 1.0500	57.0560
 1.0510	57.0780
 1.0520	57.0990
 1.0530	57.1210
 1.0540	57.1430
 1.0550	57.1630
 1.0560	57.1850
 1.0570	57.2050
 1.0580	57.2220
 1.0590	57.2400
 1.0600	57.2600
 1.0610	57.2740
 1.0620	57.2840
 1.0630	57.2960
 1.0640	57.3030
 1.0650	57.3130
 1.0660	57.3250
 1.0670	57.3350
 1.0680	57.3430
 1.0690	57.3510
 1.0700	57.3560
 1.0710	57.3580
 1.0720	57.3610
 1.0730	57.3620
 1.0740	57.3630
 1.0750	57.3620
 1.0760	57.3620
 1.0770	57.3620
 1.0780	57.3600
 1.0790	57.3580
 1.0800	57.3540
 1.0810	57.3480
 1.0820	57.3410
 1.0830	57.3320
 1.0840	57.3230
 1.0850	57.3120
 1.0860	57.3010
 1.0870	57.2890
 1.0880	57.2780
 1.0890	57.2640
 1.0900	57.2480
 1.0910	57.2310
 1.0920	57.2130
 1.0930	57.1930
 1.0940	57.1720
 1.0950	57.1500
 1.0960	57.1260
 1.0970	57.1020
 1.0980	57.0780
 1.0990	57.0520
 1.1000	57.0230
 1.1010	56.9950
 1.1020	56.9660
 1.1030	56.9380
 1.1040	56.9100
 1.1050	56.8810
 1.1060	56.8470
 1.1070	56.8080
 1.1080	56.7720
 1.1090	56.7340
 1.1100	56.6960
 1.1110	56.6630
 1.1120	56.6210
 1.1130	56.5730
 1.1140	56.5230
 1.1150	56.4710
 1.1160	56.4120
 1.1170	56.3490
 1.1180	56.2830
 1.1190	56.2130
 1.1200	56.1380
 1.1210	56.0600
 1.1220	55.9770
 1.1230	55.8830
 1.1240	55.7830
 1.1250	55.6730
 1.1260	55.5570
 1.1270	55.4300
 1.1280	55.2960
 1.1290	55.1480
 1.1300	54.9930
 1.1310	54.8240
 1.1320	54.6450
 1.1330	54.4510
 1.1340	54.2470
 1.1350	54.0280
 1.1360	53.7930
 1.1370	53.5480
 1.1380	53.2950
 1.1390	53.0330
 1.1400	52.7620
 1.1410	52.4880
 1.1420	52.2070
 1.1430	51.9200
 1.1440	51.6370
 1.1450	51.3500
 1.1460	51.0740
 1.1470	50.7970
 1.1480	50.5350
 1.1490	50.2770
 1.1500	50.0390
 1.1510	49.8120
 1.1520	49.6020
 1.1530	49.4070
 1.1540	49.2290
 1.1550	49.0660
 1.1560	48.9210
 1.1570	48.7930
 1.1580	48.6800
 1.1590	48.5790
 1.1600	48.4930
 1.1610	48.4200
 1.1620	48.3550
 1.1630	48.3020
 1.1640	48.2550
 1.1650	48.2130
 1.1660	48.1780
 1.1670	48.1470
 1.1680	48.1230
 1.1690	48.0990
 1.1700	48.0810
 1.1710	48.0620
 1.1720	48.0460
 1.1730	48.0280
 1.1740	48.0100
 1.1750	47.9910
 1.1760	47.9670
 1.1770	47.9440
 1.1780	47.9200
 1.1790	47.8930
 1.1800	47.8680
 1.1810	47.8420
 1.1820	47.8160
 1.1830	47.7900
 1.1840	47.7610
 1.1850	47.7330
 1.1860	47.7040
 1.1870	47.6770
 1.1880	47.6520
 1.1890	47.6280
 1.1900	47.6060
 1.1910	47.5850
 1.1920	47.5670
 1.1930	47.5500
 1.1940	47.5370
 1.1950	47.5280
 1.1960	47.5200
 1.1970	47.5150
 1.1980	47.5090
 1.1990	47.5060
 1.2000	47.5050
 1.2010	47.5100
 1.2020	47.5190
 1.2030	47.5310
 1.2040	47.5470
 1.2050	47.5670
 1.2060	47.5900
 1.2070	47.6200
 1.2080	47.6520
 1.2090	47.6830
 1.2100	47.7200
 1.2110	47.7600
 1.2120	47.8020
 1.2130	47.8490
 1.2140	47.9010
 1.2150	47.9550
 1.2160	48.0120
 1.2170	48.0720
 1.2180	48.1340
 1.2190	48.2000
 1.2200	48.2650
 1.2210	48.3290
 1.2220	48.3930
 1.2230	48.4530
 1.2240	48.5110
 1.2250	48.5730
 1.2260	48.6320
 1.2270	48.6920
 1.2280	48.7510
 1.2290	48.8070
 1.2300	48.8580
 1.2310	48.9080
 1.2320	48.9570
 1.2330	49.0040
 1.2340	49.0500
 1.2350	49.0950
 1.2360	49.1400
 1.2370	49.1840
 1.2380	49.2240
 1.2390	49.2640
 1.2400	49.2990
 1.2410	49.3330
 1.2420	49.3650
 1.2430	49.3980
 1.2440	49.4340
 1.2450	49.4650
 1.2460	49.4950
 1.2470	49.5270
 1.2480	49.5560
 1.2490	49.5830
 1.2500	49.6100
 1.2510	49.6350
 1.2520	49.6550
 1.2530	49.6730
 1.2540	49.6920
 1.2550	49.7080
 1.2560	49.7220
 1.2570	49.7390
 1.2580	49.7540
 1.2590	49.7660
 1.2600	49.7790
 1.2610	49.7870
 1.2620	49.7930
 1.2630	49.7950
 1.2640	49.7950
 1.2650	49.7910
 1.2660	49.7850
 1.2670	49.7800
 1.2680	49.7720
 1.2690	49.7650
 1.2700	49.7550
 1.2710	49.7420
 1.2720	49.7290
 1.2730	49.7110
 1.2740	49.6920
 1.2750	49.6710
 1.2760	49.6440
 1.2770	49.6160
 1.2780	49.5850
 1.2790	49.5520
 1.2800	49.5200
 1.2810	49.4850
 1.2820	49.4480
 1.2830	49.4100
 1.2840	49.3650
 1.2850	49.3170
 1.2860	49.2690
 1.2870	49.2160
 1.2880	49.1590
 1.2890	49.1010
 1.2900	49.0430
 1.2910	48.9790
 1.2920	48.9160
 1.2930	48.8500
 1.2940	48.7790
 1.2950	48.7030
 1.2960	48.6220
 1.2970	48.5370
 1.2980	48.4490
 1.2990	48.3590
 1.3000	48.2630
 1.3010	48.1630
 1.3020	48.0600
 1.3030	47.9510
 1.3040	47.8370
 1.3050	47.7190
 1.3060	47.5950
 1.3070	47.4670
 1.3080	47.3380
 1.3090	47.2040
 1.3100	47.0650
 1.3110	46.9190
 1.3120	46.7640
 1.3130	46.6070
 1.3140	46.4420
 1.3150	46.2710
 1.3160	46.0980
 1.3170	45.9220
 1.3180	45.7360
 1.3190	45.5460
 1.3200	45.3530
 1.3210	45.1490
 1.3220	44.9430
 1.3230	44.7330
 1.3240	44.5180
 1.3250	44.3020
 1.3260	44.0830
 1.3270	43.8590
 1.3280	43.6350
 1.3290	43.4050
 1.3300	43.1730
 1.3310	42.9410
 1.3320	42.7060
 1.3330	42.4720
 1.3340	42.2370
 1.3350	42.0010
 1.3360	41.7660
 1.3370	41.5280
 1.3380	41.2920
 1.3390	41.0580
 1.3400	40.8250
 1.3410	40.5980
 1.3420	40.3760
 1.3430	40.1550
 1.3440	39.9390
 1.3450	39.7230
 1.3460	39.5050
 1.3470	39.2940
 1.3480	39.0850
 1.3490	38.8810
 1.3500	38.6820
 1.3510	38.4850
 1.3520	38.2880
 1.3530	38.0930
 1.3540	37.8990
 1.3550	37.7060
 1.3560	37.5120
 1.3570	37.3160
 1.3580	37.1210
 1.3590	36.9210
 1.3600	36.7170
 1.3610	36.5100
 1.3620	36.2950
 1.3630	36.0750
 1.3640	35.8480
 1.3650	35.6090
 1.3660	35.3630
 1.3670	35.1050
 1.3680	34.8330
 1.3690	34.5510
 1.3700	34.2510
 1.3710	33.9360
 1.3720	33.6040
 1.3730	33.2500
 1.3740	32.8790
 1.3750	32.4890
 1.3760	32.0750
 1.3770	31.6410
 1.3780	31.1810
 1.3790	30.6980
 1.3800	30.1950
 1.3810	29.6680
 1.3820	29.1290
 1.3830	28.5720
 1.3840	28.0050
 1.3850	27.4240
 1.3860	26.8380
 1.3870	26.2360
 1.3880	25.6420
 1.3890	25.0450
 1.3900	24.4490
 1.3910	23.8640
 1.3920	23.2840
 1.3930	22.7110
 1.3940	22.1510
 1.3950	21.6000
 1.3960	21.0660
 1.3970	20.5520
 1.3980	20.0570
 1.3990	19.5890
 1.4000	19.1410
 1.4010	18.7130
 1.4020	18.3110
 1.4030	17.9270
 1.4040	17.5670
 1.4050	17.2310
 1.4060	16.9160
 1.4070	16.6270
 1.4080	16.3570
 1.4090	16.1070
 1.4100	15.8780
 1.4110	15.6650
 1.4120	15.4690
 1.4130	15.2900
 1.4140	15.1260
 1.4150	14.9790
 1.4160	14.8450
 1.4170	14.7220
 1.4180	14.6120
 1.4190	14.5110
 1.4200	14.4190
 1.4210	14.3370
 1.4220	14.2630
 1.4230	14.1970
 1.4240	14.1370
 1.4250	14.0830
 1.4260	14.0370
 1.4270	13.9950
 1.4280	13.9600
 1.4290	13.9280
 1.4300	13.9000
 1.4310	13.8760
 1.4320	13.8560
 1.4330	13.8400
 1.4340	13.8300
 1.4350	13.8200
 1.4360	13.8130
 1.4370	13.8080
 1.4380	13.8060
 1.4390	13.8040
 1.4400	13.8050
 1.4410	13.8090
 1.4420	13.8140
 1.4430	13.8210
 1.4440	13.8300
 1.4450	13.8380
 1.4460	13.8470
 1.4470	13.8590
 1.4480	13.8700
 1.4490	13.8820
 1.4500	13.8970
 1.4510	13.9120
 1.4520	13.9280
 1.4530	13.9450
 1.4540	13.9610
 1.4550	13.9800
 1.4560	13.9990
 1.4570	14.0200
 1.4580	14.0430
 1.4590	14.0690
 1.4600	14.0970
 1.4610	14.1280
 1.4620	14.1620
 1.4630	14.2000
 1.4640	14.2390
 1.4650	14.2820
 1.4660	14.3300
 1.4670	14.3800
 1.4680	14.4350
