Name: Lagerstroemia indica
Type: vegetation
Class: Tree
Genus: Lagerstroemia
Species: indica
Sample No.: JPL227
Owner: JPL
Wavelength Range: TIR
Origin: 34.126825; -118.114904; WGS84
Collection Date: 10/3/2016
Description: Samples were collected at the Huntington Garden in San Marino California as part of a JPL Subcontract studying HyTES imagery. Samples were taken to JPL and processed within 48 hours of collection. The same leaves were processed in the Nicolet and then measured using the ASD.
Measurement: Hemispherical reflectance
First Column: X
Second Column: Y
X Units: Wavelength (micrometer)
Y Units: Reflectance (percentage)
First X Value: 2.501
Last X Value: 15.387
Number of X Values: 1737
Additional Information: vegetation.tree.lagerstroemia.indica.tir.jpl227.jpl.nicolet.ancillary.txt

 2.5010	 4.3240
 2.5030	 4.3070
 2.5040	 4.3240
 2.5050	 4.3190
 2.5060	 4.3070
 2.5070	 4.2780
 2.5090	 4.3370
 2.5100	 4.3260
 2.5110	 4.2940
 2.5120	 4.2210
 2.5140	 4.2610
 2.5150	 4.2900
 2.5160	 4.2960
 2.5170	 4.2410
 2.5180	 4.2420
 2.5200	 4.2590
 2.5210	 4.3230
 2.5220	 4.2620
 2.5230	 4.2270
 2.5250	 4.1590
 2.5260	 4.1870
 2.5270	 4.2170
 2.5280	 4.2300
 2.5300	 4.1740
 2.5310	 4.1870
 2.5320	 4.1370
 2.5330	 4.1520
 2.5340	 4.2030
 2.5360	 4.1950
 2.5370	 4.2040
 2.5380	 4.3190
 2.5390	 4.2240
 2.5410	 4.2530
 2.5420	 4.3020
 2.5430	 4.2240
 2.5440	 4.1480
 2.5460	 4.1780
 2.5470	 4.1600
 2.5480	 4.1660
 2.5490	 4.2150
 2.5510	 4.2410
 2.5520	 4.1390
 2.5530	 4.1820
 2.5540	 4.2770
 2.5560	 4.3400
 2.5570	 4.1940
 2.5580	 4.1540
 2.5590	 4.0950
 2.5610	 3.9800
 2.5620	 3.8560
 2.5630	 3.8990
 2.5650	 3.9370
 2.5660	 4.0740
 2.5670	 4.1580
 2.5680	 4.1640
 2.5700	 4.0250
 2.5710	 4.0950
 2.5720	 4.1850
 2.5730	 4.0360
 2.5750	 4.0500
 2.5760	 4.1210
 2.5770	 4.0310
 2.5790	 4.1910
 2.5800	 4.2710
 2.5810	 4.1130
 2.5820	 4.0260
 2.5840	 3.8380
 2.5850	 3.7920
 2.5860	 4.0230
 2.5880	 3.9050
 2.5890	 3.9470
 2.5900	 4.0520
 2.5910	 4.1950
 2.5930	 4.0340
 2.5940	 3.6250
 2.5950	 3.2570
 2.5970	 3.5930
 2.5980	 4.0090
 2.5990	 4.2140
 2.6010	 4.1350
 2.6020	 4.0090
 2.6030	 3.8910
 2.6040	 3.7700
 2.6060	 3.6710
 2.6070	 3.8490
 2.6080	 3.9680
 2.6100	 4.0230
 2.6110	 4.0060
 2.6120	 4.0280
 2.6140	 3.9330
 2.6150	 4.0120
 2.6160	 3.8430
 2.6180	 3.6880
 2.6190	 3.8700
 2.6200	 3.7820
 2.6220	 3.7430
 2.6230	 4.0030
 2.6240	 4.0910
 2.6260	 4.0360
 2.6270	 3.8480
 2.6280	 3.9470
 2.6300	 3.7810
 2.6310	 3.6370
 2.6320	 3.8410
 2.6340	 3.9500
 2.6350	 3.9190
 2.6360	 4.0620
 2.6380	 4.0830
 2.6390	 4.1130
 2.6400	 4.0960
 2.6420	 4.0520
 2.6430	 3.9830
 2.6440	 4.0400
 2.6460	 3.9020
 2.6470	 3.9200
 2.6480	 4.0400
 2.6500	 4.1060
 2.6510	 3.9930
 2.6520	 3.8800
 2.6540	 3.8380
 2.6550	 3.8470
 2.6570	 3.7690
 2.6580	 3.9070
 2.6590	 3.8060
 2.6610	 3.7260
 2.6620	 3.7660
 2.6630	 3.8550
 2.6650	 3.5490
 2.6660	 3.3210
 2.6670	 3.3510
 2.6690	 3.5400
 2.6700	 3.2600
 2.6720	 3.2870
 2.6730	 3.7440
 2.6740	 3.8500
 2.6760	 3.6330
 2.6770	 3.4290
 2.6780	 3.4560
 2.6800	 3.6390
 2.6810	 3.8470
 2.6830	 3.8480
 2.6840	 3.7150
 2.6850	 3.7130
 2.6870	 3.7020
 2.6880	 3.7740
 2.6900	 3.7700
 2.6910	 3.8080
 2.6920	 3.7200
 2.6940	 3.5270
 2.6950	 3.4580
 2.6970	 3.6240
 2.6980	 3.7780
 2.6990	 3.8740
 2.7010	 3.7650
 2.7020	 3.7070
 2.7040	 3.7210
 2.7050	 3.7790
 2.7060	 3.8390
 2.7080	 3.7640
 2.7090	 3.4890
 2.7110	 3.3400
 2.7120	 3.3910
 2.7130	 3.6530
 2.7150	 3.7550
 2.7160	 3.7810
 2.7180	 3.6500
 2.7190	 3.5190
 2.7210	 3.2190
 2.7220	 3.3250
 2.7230	 3.3740
 2.7250	 3.2350
 2.7260	 3.4230
 2.7280	 3.6130
 2.7290	 3.6770
 2.7310	 3.7560
 2.7320	 3.7110
 2.7340	 3.6830
 2.7350	 3.4960
 2.7360	 3.5080
 2.7380	 3.4650
 2.7390	 3.2020
 2.7410	 3.0420
 2.7420	 3.2640
 2.7440	 3.5460
 2.7450	 3.6640
 2.7470	 3.5750
 2.7480	 3.5070
 2.7490	 3.5190
 2.7510	 3.5520
 2.7520	 3.4560
 2.7540	 3.3890
 2.7550	 3.1600
 2.7570	 3.2360
 2.7580	 3.4650
 2.7600	 3.6030
 2.7610	 3.5340
 2.7630	 3.3930
 2.7640	 3.3450
 2.7660	 3.4180
 2.7670	 3.3380
 2.7690	 3.3090
 2.7700	 3.2810
 2.7720	 3.2870
 2.7730	 3.3890
 2.7740	 3.4630
 2.7760	 3.4840
 2.7770	 3.4880
 2.7790	 3.4500
 2.7800	 3.4680
 2.7820	 3.4190
 2.7830	 3.4510
 2.7850	 3.5140
 2.7860	 3.4350
 2.7880	 3.3100
 2.7890	 3.4130
 2.7910	 3.4760
 2.7920	 3.4960
 2.7940	 3.4640
 2.7950	 3.4670
 2.7970	 3.3910
 2.7980	 3.4300
 2.8000	 3.4470
 2.8010	 3.4710
 2.8030	 3.3020
 2.8040	 3.3550
 2.8060	 3.4840
 2.8080	 3.4980
 2.8090	 3.4770
 2.8110	 3.5710
 2.8120	 3.5220
 2.8140	 3.4660
 2.8150	 3.4370
 2.8170	 3.4770
 2.8180	 3.4280
 2.8200	 3.4180
 2.8210	 3.4140
 2.8230	 3.3990
 2.8240	 3.3610
 2.8260	 3.4140
 2.8270	 3.4760
 2.8290	 3.5220
 2.8310	 3.5050
 2.8320	 3.5450
 2.8340	 3.4870
 2.8350	 3.4650
 2.8370	 3.3960
 2.8380	 3.4320
 2.8400	 3.4560
 2.8410	 3.4840
 2.8430	 3.4660
 2.8440	 3.5020
 2.8460	 3.4910
 2.8480	 3.4850
 2.8490	 3.4550
 2.8510	 3.5270
 2.8520	 3.5080
 2.8540	 3.5060
 2.8550	 3.5010
 2.8570	 3.5040
 2.8590	 3.4460
 2.8600	 3.4440
 2.8620	 3.4010
 2.8630	 3.4360
 2.8650	 3.4770
 2.8660	 3.5780
 2.8680	 3.5680
 2.8700	 3.5420
 2.8710	 3.4840
 2.8730	 3.5540
 2.8740	 3.5570
 2.8760	 3.5880
 2.8780	 3.5380
 2.8790	 3.5460
 2.8810	 3.5670
 2.8820	 3.5790
 2.8840	 3.4840
 2.8860	 3.5110
 2.8870	 3.5080
 2.8890	 3.4920
 2.8900	 3.4920
 2.8920	 3.6120
 2.8940	 3.6500
 2.8950	 3.6600
 2.8970	 3.5960
 2.8990	 3.6180
 2.9000	 3.5580
 2.9020	 3.5280
 2.9030	 3.5140
 2.9050	 3.5400
 2.9070	 3.5030
 2.9080	 3.4620
 2.9100	 3.4450
 2.9120	 3.5430
 2.9130	 3.5420
 2.9150	 3.5410
 2.9160	 3.5170
 2.9180	 3.6130
 2.9200	 3.5790
 2.9210	 3.5540
 2.9230	 3.5240
 2.9250	 3.5490
 2.9260	 3.5130
 2.9280	 3.5490
 2.9300	 3.5220
 2.9310	 3.5700
 2.9330	 3.6040
 2.9350	 3.6270
 2.9360	 3.6000
 2.9380	 3.6580
 2.9400	 3.6740
 2.9410	 3.6520
 2.9430	 3.6230
 2.9450	 3.6660
 2.9460	 3.6150
 2.9480	 3.5840
 2.9500	 3.5220
 2.9510	 3.5710
 2.9530	 3.6260
 2.9550	 3.5860
 2.9560	 3.4910
 2.9580	 3.5630
 2.9600	 3.5830
 2.9610	 3.6250
 2.9630	 3.5860
 2.9650	 3.6480
 2.9670	 3.6240
 2.9680	 3.6100
 2.9700	 3.5910
 2.9720	 3.6030
 2.9730	 3.5720
 2.9750	 3.6240
 2.9770	 3.5910
 2.9780	 3.6790
 2.9800	 3.7120
 2.9820	 3.7340
 2.9840	 3.6730
 2.9850	 3.6260
 2.9870	 3.5780
 2.9890	 3.5720
 2.9900	 3.5860
 2.9920	 3.6710
 2.9940	 3.5910
 2.9960	 3.5980
 2.9970	 3.6590
 2.9990	 3.7310
 3.0010	 3.6810
 3.0030	 3.6260
 3.0040	 3.6050
 3.0060	 3.6730
 3.0080	 3.6320
 3.0100	 3.6060
 3.0110	 3.5790
 3.0130	 3.5990
 3.0150	 3.5810
 3.0170	 3.6080
 3.0180	 3.5840
 3.0200	 3.6430
 3.0220	 3.5750
 3.0240	 3.5940
 3.0250	 3.6030
 3.0270	 3.6250
 3.0290	 3.6010
 3.0310	 3.6290
 3.0320	 3.5940
 3.0340	 3.6080
 3.0360	 3.6220
 3.0380	 3.6550
 3.0400	 3.6270
 3.0410	 3.6170
 3.0430	 3.5820
 3.0450	 3.6110
 3.0470	 3.6000
 3.0480	 3.6260
 3.0500	 3.6170
 3.0520	 3.6390
 3.0540	 3.6130
 3.0560	 3.6340
 3.0570	 3.6350
 3.0590	 3.6910
 3.0610	 3.6600
 3.0630	 3.6500
 3.0650	 3.6290
 3.0670	 3.6510
 3.0680	 3.6350
 3.0700	 3.6400
 3.0720	 3.6160
 3.0740	 3.6350
 3.0760	 3.6410
 3.0770	 3.6860
 3.0790	 3.6430
 3.0810	 3.6940
 3.0830	 3.7040
 3.0850	 3.6730
 3.0870	 3.6080
 3.0880	 3.6700
 3.0900	 3.6750
 3.0920	 3.6600
 3.0940	 3.6410
 3.0960	 3.6550
 3.0980	 3.6170
 3.1000	 3.6380
 3.1010	 3.6290
 3.1030	 3.6360
 3.1050	 3.5820
 3.1070	 3.5630
 3.1090	 3.6100
 3.1110	 3.6790
 3.1130	 3.6510
 3.1140	 3.6350
 3.1160	 3.5950
 3.1180	 3.6310
 3.1200	 3.6130
 3.1220	 3.6180
 3.1240	 3.6260
 3.1260	 3.6200
 3.1280	 3.5630
 3.1290	 3.5810
 3.1310	 3.6040
 3.1330	 3.6330
 3.1350	 3.6070
 3.1370	 3.6610
 3.1390	 3.6240
 3.1410	 3.6340
 3.1430	 3.6370
 3.1450	 3.6540
 3.1470	 3.6410
 3.1480	 3.6650
 3.1500	 3.5810
 3.1520	 3.5690
 3.1540	 3.5860
 3.1560	 3.6340
 3.1580	 3.6050
 3.1600	 3.6220
 3.1620	 3.5950
 3.1640	 3.5780
 3.1660	 3.5730
 3.1680	 3.6300
 3.1700	 3.6390
 3.1720	 3.6600
 3.1730	 3.6100
 3.1750	 3.5870
 3.1770	 3.6190
 3.1790	 3.5960
 3.1810	 3.5080
 3.1830	 3.5440
 3.1850	 3.5740
 3.1870	 3.5800
 3.1890	 3.5930
 3.1910	 3.6380
 3.1930	 3.5840
 3.1950	 3.5850
 3.1970	 3.5650
 3.1990	 3.5590
 3.2010	 3.5940
 3.2030	 3.6670
 3.2050	 3.6110
 3.2070	 3.6200
 3.2090	 3.5730
 3.2110	 3.5600
 3.2130	 3.5540
 3.2150	 3.5890
 3.2170	 3.5620
 3.2190	 3.5810
 3.2210	 3.5610
 3.2230	 3.5660
 3.2250	 3.5710
 3.2270	 3.5860
 3.2290	 3.5300
 3.2310	 3.5160
 3.2330	 3.4720
 3.2350	 3.5480
 3.2370	 3.5520
 3.2390	 3.5060
 3.2410	 3.4760
 3.2430	 3.5200
 3.2450	 3.5660
 3.2470	 3.5640
 3.2490	 3.4990
 3.2510	 3.5600
 3.2530	 3.5670
 3.2550	 3.5560
 3.2570	 3.5260
 3.2590	 3.5750
 3.2610	 3.5220
 3.2630	 3.5050
 3.2650	 3.5010
 3.2670	 3.5220
 3.2700	 3.4810
 3.2720	 3.4940
 3.2740	 3.5040
 3.2760	 3.5230
 3.2780	 3.5100
 3.2800	 3.5520
 3.2820	 3.5240
 3.2840	 3.5040
 3.2860	 3.4800
 3.2880	 3.4600
 3.2900	 3.4370
 3.2920	 3.4940
 3.2940	 3.4780
 3.2970	 3.4650
 3.2990	 3.4390
 3.3010	 3.4820
 3.3030	 3.5090
 3.3050	 3.5470
 3.3070	 3.4830
 3.3090	 3.4540
 3.3110	 3.4470
 3.3130	 3.4550
 3.3160	 3.4230
 3.3180	 3.4650
 3.3200	 3.4220
 3.3220	 3.3940
 3.3240	 3.3890
 3.3260	 3.4080
 3.3280	 3.3720
 3.3300	 3.3600
 3.3330	 3.3700
 3.3350	 3.3720
 3.3370	 3.3580
 3.3390	 3.3890
 3.3410	 3.3630
 3.3430	 3.3440
 3.3450	 3.3130
 3.3480	 3.3300
 3.3500	 3.3150
 3.3520	 3.3110
 3.3540	 3.2840
 3.3560	 3.3000
 3.3580	 3.2950
 3.3610	 3.2770
 3.3630	 3.2190
 3.3650	 3.2790
 3.3670	 3.3040
 3.3690	 3.3120
 3.3720	 3.2700
 3.3740	 3.2590
 3.3760	 3.2330
 3.3780	 3.2760
 3.3800	 3.2640
 3.3830	 3.2830
 3.3850	 3.2600
 3.3870	 3.2620
 3.3890	 3.2300
 3.3910	 3.2280
 3.3940	 3.2540
 3.3960	 3.3250
 3.3980	 3.2840
 3.4000	 3.2470
 3.4030	 3.2690
 3.4050	 3.3330
 3.4070	 3.3830
 3.4090	 3.4590
 3.4110	 3.5090
 3.4140	 3.5890
 3.4160	 3.7000
 3.4180	 3.8500
 3.4200	 4.0090
 3.4230	 4.2730
 3.4250	 4.5260
 3.4270	 4.7650
 3.4300	 4.9100
 3.4320	 4.8420
 3.4340	 4.6070
 3.4360	 4.4230
 3.4390	 4.2720
 3.4410	 4.2030
 3.4430	 4.1470
 3.4450	 4.1890
 3.4480	 4.1620
 3.4500	 4.1140
 3.4520	 4.0620
 3.4550	 4.0370
 3.4570	 4.0370
 3.4590	 4.0140
 3.4620	 3.9800
 3.4640	 4.0060
 3.4660	 3.9920
 3.4690	 3.9480
 3.4710	 3.8880
 3.4730	 3.8780
 3.4760	 3.8890
 3.4780	 3.8910
 3.4800	 3.8040
 3.4830	 3.7750
 3.4850	 3.7400
 3.4870	 3.7460
 3.4900	 3.7710
 3.4920	 3.8070
 3.4940	 3.8330
 3.4970	 3.8750
 3.4990	 3.8490
 3.5010	 3.8710
 3.5040	 3.9530
 3.5060	 4.1710
 3.5080	 4.4780
 3.5110	 4.7570
 3.5130	 4.7240
 3.5160	 4.5260
 3.5180	 4.3900
 3.5200	 4.2940
 3.5230	 4.1990
 3.5250	 4.1730
 3.5280	 4.1250
 3.5300	 4.1170
 3.5320	 4.0520
 3.5350	 4.0440
 3.5370	 4.0820
 3.5400	 4.0670
 3.5420	 4.0070
 3.5440	 4.0230
 3.5470	 4.0420
 3.5490	 4.0420
 3.5520	 3.9960
 3.5540	 4.0310
 3.5570	 4.0190
 3.5590	 4.0120
 3.5610	 4.0220
 3.5640	 4.0270
 3.5660	 3.9740
 3.5690	 3.9730
 3.5710	 3.9780
 3.5740	 4.0050
 3.5760	 3.9560
 3.5790	 3.9650
 3.5810	 3.9680
 3.5840	 3.9620
 3.5860	 3.9310
 3.5890	 3.9170
 3.5910	 3.8980
 3.5940	 3.9180
 3.5960	 3.9130
 3.5990	 3.9310
 3.6010	 3.9240
 3.6040	 3.9560
 3.6060	 3.9310
 3.6090	 3.9430
 3.6110	 3.9550
 3.6140	 3.9620
 3.6160	 3.9010
 3.6190	 3.9220
 3.6210	 3.9530
 3.6240	 3.9230
 3.6260	 3.8880
 3.6290	 3.8760
 3.6310	 3.8480
 3.6340	 3.8730
 3.6360	 3.9140
 3.6390	 3.9220
 3.6410	 3.8860
 3.6440	 3.9000
 3.6470	 3.9020
 3.6490	 3.9080
 3.6520	 3.9150
 3.6540	 3.9410
 3.6570	 3.8880
 3.6590	 3.8740
 3.6620	 3.8480
 3.6650	 3.8570
 3.6670	 3.8740
 3.6700	 3.9040
 3.6720	 3.8570
 3.6750	 3.8780
 3.6780	 3.9110
 3.6800	 3.8930
 3.6830	 3.8650
 3.6850	 3.8690
 3.6880	 3.8480
 3.6910	 3.8640
 3.6930	 3.8440
 3.6960	 3.8380
 3.6990	 3.8320
 3.7010	 3.8680
 3.7040	 3.8760
 3.7070	 3.8850
 3.7090	 3.8580
 3.7120	 3.8550
 3.7150	 3.8610
 3.7170	 3.8620
 3.7200	 3.8380
 3.7230	 3.8620
 3.7250	 3.8450
 3.7280	 3.8330
 3.7310	 3.8680
 3.7330	 3.8850
 3.7360	 3.8580
 3.7390	 3.8780
 3.7410	 3.8810
 3.7440	 3.8860
 3.7470	 3.8880
 3.7490	 3.8920
 3.7520	 3.8650
 3.7550	 3.8850
 3.7580	 3.9020
 3.7600	 3.8800
 3.7630	 3.8290
 3.7660	 3.8460
 3.7690	 3.8700
 3.7710	 3.8580
 3.7740	 3.8220
 3.7770	 3.8500
 3.7790	 3.8500
 3.7820	 3.8850
 3.7850	 3.8870
 3.7880	 3.8870
 3.7910	 3.8600
 3.7930	 3.8640
 3.7960	 3.8680
 3.7990	 3.8800
 3.8020	 3.8900
 3.8040	 3.8770
 3.8070	 3.8600
 3.8100	 3.8600
 3.8130	 3.8730
 3.8160	 3.8950
 3.8180	 3.8900
 3.8210	 3.9120
 3.8240	 3.8820
 3.8270	 3.8860
 3.8300	 3.8890
 3.8330	 3.8950
 3.8350	 3.8770
 3.8380	 3.8910
 3.8410	 3.8850
 3.8440	 3.8750
 3.8470	 3.8690
 3.8500	 3.9120
 3.8520	 3.8770
 3.8550	 3.8710
 3.8580	 3.8870
 3.8610	 3.9300
 3.8640	 3.9070
 3.8670	 3.8860
 3.8700	 3.8430
 3.8730	 3.8780
 3.8760	 3.9250
 3.8780	 3.9260
 3.8810	 3.8860
 3.8840	 3.8760
 3.8870	 3.8710
 3.8900	 3.8760
 3.8930	 3.8630
 3.8960	 3.8620
 3.8990	 3.8310
 3.9020	 3.8700
 3.9050	 3.9000
 3.9080	 3.8850
 3.9110	 3.8750
 3.9140	 3.8790
 3.9170	 3.8780
 3.9190	 3.9310
 3.9220	 3.9170
 3.9250	 3.8870
 3.9280	 3.9010
 3.9310	 3.9400
 3.9340	 3.9320
 3.9370	 3.9000
 3.9400	 3.8880
 3.9430	 3.9130
 3.9460	 3.8970
 3.9490	 3.8590
 3.9520	 3.8360
 3.9550	 3.9100
 3.9580	 3.9240
 3.9610	 3.9060
 3.9640	 3.8820
 3.9670	 3.8650
 3.9700	 3.8500
 3.9740	 3.8670
 3.9770	 3.8900
 3.9800	 3.9250
 3.9830	 3.9050
 3.9860	 3.8740
 3.9890	 3.8720
 3.9920	 3.8790
 3.9950	 3.8770
 3.9980	 3.8890
 4.0010	 3.8750
 4.0040	 3.8700
 4.0070	 3.8630
 4.0100	 3.8870
 4.0140	 3.8920
 4.0170	 3.9010
 4.0200	 3.8600
 4.0230	 3.8430
 4.0260	 3.8410
 4.0290	 3.8400
 4.0320	 3.8560
 4.0350	 3.8820
 4.0390	 3.8920
 4.0420	 3.8860
 4.0450	 3.8630
 4.0480	 3.8650
 4.0510	 3.8460
 4.0540	 3.8680
 4.0570	 3.8810
 4.0610	 3.8860
 4.0640	 3.8740
 4.0670	 3.8740
 4.0700	 3.8950
 4.0730	 3.9220
 4.0770	 3.9090
 4.0800	 3.8930
 4.0830	 3.8450
 4.0860	 3.8590
 4.0890	 3.8750
 4.0930	 3.9040
 4.0960	 3.9180
 4.0990	 3.8950
 4.1020	 3.8430
 4.1060	 3.8680
 4.1090	 3.8690
 4.1120	 3.8770
 4.1150	 3.9140
 4.1190	 3.9150
 4.1220	 3.9130
 4.1250	 3.9160
 4.1290	 3.8730
 4.1320	 3.8390
 4.1350	 3.8310
 4.1380	 3.8570
 4.1420	 3.8490
 4.1450	 3.8480
 4.1480	 3.8420
 4.1520	 3.8490
 4.1550	 3.8390
 4.1580	 3.8290
 4.1620	 3.8490
 4.1650	 3.8650
 4.1680	 3.8730
 4.1720	 3.8850
 4.1750	 3.8840
 4.1780	 3.8770
 4.1820	 3.8700
 4.1850	 3.9030
 4.1890	 3.8830
 4.1920	 3.8710
 4.1950	 3.8750
 4.1990	 3.9000
 4.2020	 3.8940
 4.2060	 3.9440
 4.2090	 3.9680
 4.2120	 3.9470
 4.2160	 3.9340
 4.2190	 3.9440
 4.2230	 3.9480
 4.2260	 3.9690
 4.2300	 3.9830
 4.2330	 3.9970
 4.2360	 3.9310
 4.2400	 4.0360
 4.2430	 4.0750
 4.2470	 4.0460
 4.2500	 4.0020
 4.2540	 3.9590
 4.2570	 3.9380
 4.2610	 3.9590
 4.2640	 3.9750
 4.2680	 3.9780
 4.2710	 3.9160
 4.2750	 3.9420
 4.2780	 3.9300
 4.2820	 3.9610
 4.2850	 3.9320
 4.2890	 3.9030
 4.2930	 3.9030
 4.2960	 3.8790
 4.3000	 3.8650
 4.3030	 3.9150
 4.3070	 3.8790
 4.3100	 3.8940
 4.3140	 3.9300
 4.3180	 3.9160
 4.3210	 3.9060
 4.3250	 3.8970
 4.3280	 3.8770
 4.3320	 3.8650
 4.3360	 3.8350
 4.3390	 3.7990
 4.3430	 3.8310
 4.3470	 3.8640
 4.3500	 3.8570
 4.3540	 3.8480
 4.3580	 3.8300
 4.3610	 3.7970
 4.3650	 3.8020
 4.3690	 3.8140
 4.3720	 3.8150
 4.3760	 3.7990
 4.3800	 3.8010
 4.3830	 3.8390
 4.3870	 3.8320
 4.3910	 3.8330
 4.3940	 3.8570
 4.3980	 3.8400
 4.4020	 3.8060
 4.4060	 3.8160
 4.4090	 3.8350
 4.4130	 3.8250
 4.4170	 3.8170
 4.4210	 3.8260
 4.4240	 3.8090
 4.4280	 3.8320
 4.4320	 3.8400
 4.4360	 3.7930
 4.4400	 3.7810
 4.4430	 3.8070
 4.4470	 3.8340
 4.4510	 3.8490
 4.4550	 3.8230
 4.4590	 3.8150
 4.4630	 3.8100
 4.4660	 3.8190
 4.4700	 3.7960
 4.4740	 3.7930
 4.4780	 3.8460
 4.4820	 3.8250
 4.4860	 3.7780
 4.4900	 3.7760
 4.4930	 3.7780
 4.4970	 3.7670
 4.5010	 3.7670
 4.5050	 3.7930
 4.5090	 3.7950
 4.5130	 3.7780
 4.5170	 3.7780
 4.5210	 3.7910
 4.5250	 3.7970
 4.5290	 3.8000
 4.5330	 3.7980
 4.5370	 3.7860
 4.5410	 3.7960
 4.5450	 3.8050
 4.5490	 3.8050
 4.5530	 3.7890
 4.5570	 3.8200
 4.5610	 3.8280
 4.5650	 3.8010
 4.5690	 3.7930
 4.5730	 3.7660
 4.5770	 3.7760
 4.5810	 3.7780
 4.5850	 3.7890
 4.5890	 3.8130
 4.5930	 3.7980
 4.5970	 3.8030
 4.6010	 3.8160
 4.6050	 3.8150
 4.6090	 3.8060
 4.6130	 3.7830
 4.6170	 3.7730
 4.6220	 3.7580
 4.6260	 3.7520
 4.6300	 3.7630
 4.6340	 3.7610
 4.6380	 3.7750
 4.6420	 3.7860
 4.6460	 3.7590
 4.6510	 3.7660
 4.6550	 3.7760
 4.6590	 3.8020
 4.6630	 3.8040
 4.6670	 3.7700
 4.6720	 3.7560
 4.6760	 3.7610
 4.6800	 3.7800
 4.6840	 3.7890
 4.6880	 3.7660
 4.6930	 3.7550
 4.6970	 3.7860
 4.7010	 3.7780
 4.7050	 3.7570
 4.7100	 3.7620
 4.7140	 3.7870
 4.7180	 3.7720
 4.7230	 3.7490
 4.7270	 3.7710
 4.7310	 3.8110
 4.7360	 3.8040
 4.7400	 3.7700
 4.7440	 3.7320
 4.7490	 3.7250
 4.7530	 3.7280
 4.7570	 3.7450
 4.7620	 3.7660
 4.7660	 3.7820
 4.7700	 3.7690
 4.7750	 3.7580
 4.7790	 3.7660
 4.7840	 3.7770
 4.7880	 3.7830
 4.7920	 3.7770
 4.7970	 3.7550
 4.8010	 3.7620
 4.8060	 3.7870
 4.8100	 3.7870
 4.8150	 3.7650
 4.8190	 3.7710
 4.8240	 3.7950
 4.8280	 3.7930
 4.8330	 3.7790
 4.8370	 3.7670
 4.8420	 3.7830
 4.8460	 3.7910
 4.8510	 3.8080
 4.8550	 3.7940
 4.8600	 3.7800
 4.8640	 3.8070
 4.8690	 3.7880
 4.8740	 3.7870
 4.8780	 3.7820
 4.8830	 3.7800
 4.8870	 3.7790
 4.8920	 3.7670
 4.8970	 3.7490
 4.9010	 3.7700
 4.9060	 3.7750
 4.9100	 3.7700
 4.9150	 3.7420
 4.9200	 3.7470
 4.9240	 3.7720
 4.9290	 3.7580
 4.9340	 3.7260
 4.9390	 3.7510
 4.9430	 3.7700
 4.9480	 3.7800
 4.9530	 3.7660
 4.9570	 3.7570
 4.9620	 3.7560
 4.9670	 3.7830
 4.9720	 3.7770
 4.9760	 3.7640
 4.9810	 3.7640
 4.9860	 3.7810
 4.9910	 3.7620
 4.9960	 3.7570
 5.0000	 3.7190
 5.0050	 3.7440
 5.0100	 3.7860
 5.0150	 3.7700
 5.0200	 3.7450
 5.0250	 3.7770
 5.0300	 3.7970
 5.0340	 3.8150
 5.0390	 3.7520
 5.0440	 3.7360
 5.0490	 3.7670
 5.0540	 3.7950
 5.0590	 3.7850
 5.0640	 3.7910
 5.0690	 3.7740
 5.0740	 3.7660
 5.0790	 3.7680
 5.0840	 3.7460
 5.0890	 3.7390
 5.0940	 3.7690
 5.0990	 3.7340
 5.1040	 3.7200
 5.1090	 3.7330
 5.1140	 3.7710
 5.1190	 3.7450
 5.1240	 3.7260
 5.1290	 3.7390
 5.1340	 3.7410
 5.1390	 3.7340
 5.1440	 3.7130
 5.1490	 3.6700
 5.1550	 3.7360
 5.1600	 3.7480
 5.1650	 3.7450
 5.1700	 3.7380
 5.1750	 3.7580
 5.1800	 3.7380
 5.1850	 3.7490
 5.1910	 3.7400
 5.1960	 3.7230
 5.2010	 3.7010
 5.2060	 3.7600
 5.2110	 3.7150
 5.2170	 3.6960
 5.2220	 3.7210
 5.2270	 3.7130
 5.2330	 3.6960
 5.2380	 3.7070
 5.2430	 3.7180
 5.2480	 3.6970
 5.2540	 3.6950
 5.2590	 3.7270
 5.2640	 3.7390
 5.2700	 3.7440
 5.2750	 3.7250
 5.2800	 3.7460
 5.2860	 3.7290
 5.2910	 3.6410
 5.2970	 3.6160
 5.3020	 3.6760
 5.3080	 3.6880
 5.3130	 3.7210
 5.3180	 3.7430
 5.3240	 3.7520
 5.3290	 3.7530
 5.3350	 3.7450
 5.3400	 3.6930
 5.3460	 3.6070
 5.3510	 3.5310
 5.3570	 3.6200
 5.3620	 3.6650
 5.3680	 3.6970
 5.3740	 3.6780
 5.3790	 3.6800
 5.3850	 3.6800
 5.3900	 3.7110
 5.3960	 3.7040
 5.4010	 3.7100
 5.4070	 3.6580
 5.4130	 3.6010
 5.4180	 3.4680
 5.4240	 3.4140
 5.4300	 3.5970
 5.4350	 3.6980
 5.4410	 3.6650
 5.4470	 3.6530
 5.4530	 3.6310
 5.4580	 3.6040
 5.4640	 3.5140
 5.4700	 3.5490
 5.4760	 3.5490
