Name: Baccharis pilularis 2
Type: vegetation
Class: Shrub
Genus: Baccharis
Species: pilularis
Sample No.: VH004
Owner: UCSB
Wavelength Range: VSWIR
Origin: 34.418; -119.8455; WGS84
Collection Date: 4/1/2013
Description: Samples were collected as part of the HyspIRI Airborne Campaign. 48 individual plants were sampled in three times in 2013 - spring  summer  and fall. The name of the sample includes a 1  2  or 3 which references a different individual of the species. Samples were taken to JPL and processed within 48 hours of collection. The same leaves were processed in the Nicolet and then measured using the ASD.
Measurement: Bidirectional reflectance
First Column: X
Second Column: Y
X Units: Wavelength (micrometers)
Y Units: Reflectance (percentage)
First X Value: 0.35
Last X Value: 2.5
Number of X Values: 2151
Additional Information: vegetation.shrub.baccharis.pilularis.vswir.vh004.ucsb.asd.ancillary.txt

 0.3500	 3.5820
 0.3510	 3.4750
 0.3520	 3.5240
 0.3530	 3.5790
 0.3540	 3.5360
 0.3550	 3.4990
 0.3560	 3.4820
 0.3570	 3.4980
 0.3580	 3.5430
 0.3590	 3.4660
 0.3600	 3.4250
 0.3610	 3.4650
 0.3620	 3.4400
 0.3630	 3.3800
 0.3640	 3.3540
 0.3650	 3.4040
 0.3660	 3.4360
 0.3670	 3.3350
 0.3680	 3.2780
 0.3690	 3.5600
 0.3700	 3.4120
 0.3710	 3.2350
 0.3720	 3.3130
 0.3730	 3.4320
 0.3740	 3.4400
 0.3750	 3.3480
 0.3760	 3.2680
 0.3770	 3.4070
 0.3780	 3.5230
 0.3790	 3.5260
 0.3800	 3.4870
 0.3810	 3.5410
 0.3820	 3.5490
 0.3830	 3.4570
 0.3840	 3.4890
 0.3850	 3.5330
 0.3860	 3.5570
 0.3870	 3.5600
 0.3880	 3.5570
 0.3890	 3.5910
 0.3900	 3.6360
 0.3910	 3.6010
 0.3920	 3.5980
 0.3930	 3.6050
 0.3940	 3.6110
 0.3950	 3.7310
 0.3960	 3.7170
 0.3970	 3.6630
 0.3980	 3.7750
 0.3990	 3.8040
 0.4000	 3.7940
 0.4010	 3.7970
 0.4020	 3.8360
 0.4030	 3.8710
 0.4040	 3.9230
 0.4050	 4.0000
 0.4060	 4.0010
 0.4070	 4.0090
 0.4080	 4.0300
 0.4090	 4.0270
 0.4100	 4.1280
 0.4110	 4.1950
 0.4120	 4.1760
 0.4130	 4.2240
 0.4140	 4.2960
 0.4150	 4.3470
 0.4160	 4.3490
 0.4170	 4.4050
 0.4180	 4.4660
 0.4190	 4.5090
 0.4200	 4.5430
 0.4210	 4.5850
 0.4220	 4.6240
 0.4230	 4.6550
 0.4240	 4.7110
 0.4250	 4.7460
 0.4260	 4.7670
 0.4270	 4.8030
 0.4280	 4.8350
 0.4290	 4.8740
 0.4300	 4.9190
 0.4310	 4.9530
 0.4320	 4.9940
 0.4330	 5.0250
 0.4340	 5.0370
 0.4350	 5.0800
 0.4360	 5.1040
 0.4370	 5.1090
 0.4380	 5.1330
 0.4390	 5.1550
 0.4400	 5.1780
 0.4410	 5.2000
 0.4420	 5.2080
 0.4430	 5.2300
 0.4440	 5.2680
 0.4450	 5.3080
 0.4460	 5.3430
 0.4470	 5.3590
 0.4480	 5.3690
 0.4490	 5.4140
 0.4500	 5.4520
 0.4510	 5.4770
 0.4520	 5.4960
 0.4530	 5.5430
 0.4540	 5.5780
 0.4550	 5.5950
 0.4560	 5.6150
 0.4570	 5.6260
 0.4580	 5.6410
 0.4590	 5.6630
 0.4600	 5.6790
 0.4610	 5.6970
 0.4620	 5.7190
 0.4630	 5.7400
 0.4640	 5.7330
 0.4650	 5.7340
 0.4660	 5.7490
 0.4670	 5.7520
 0.4680	 5.7610
 0.4690	 5.7740
 0.4700	 5.7820
 0.4710	 5.7830
 0.4720	 5.7860
 0.4730	 5.7950
 0.4740	 5.8050
 0.4750	 5.8140
 0.4760	 5.8190
 0.4770	 5.8210
 0.4780	 5.8220
 0.4790	 5.8360
 0.4800	 5.8490
 0.4810	 5.8500
 0.4820	 5.8650
 0.4830	 5.8730
 0.4840	 5.8790
 0.4850	 5.9050
 0.4860	 5.9260
 0.4870	 5.9540
 0.4880	 5.9950
 0.4890	 6.0210
 0.4900	 6.0560
 0.4910	 6.1000
 0.4920	 6.1440
 0.4930	 6.1930
 0.4940	 6.2470
 0.4950	 6.3080
 0.4960	 6.3670
 0.4970	 6.4390
 0.4980	 6.5180
 0.4990	 6.5950
 0.5000	 6.6900
 0.5010	 6.8010
 0.5020	 6.9210
 0.5030	 7.0430
 0.5040	 7.1730
 0.5050	 7.3160
 0.5060	 7.4750
 0.5070	 7.6440
 0.5080	 7.8240
 0.5090	 8.0200
 0.5100	 8.2400
 0.5110	 8.4640
 0.5120	 8.7020
 0.5130	 8.9580
 0.5140	 9.2240
 0.5150	 9.5060
 0.5160	 9.7990
 0.5170	10.0970
 0.5180	10.4140
 0.5190	10.7380
 0.5200	11.0590
 0.5210	11.3760
 0.5220	11.7010
 0.5230	12.0290
 0.5240	12.3500
 0.5250	12.6480
 0.5260	12.9370
 0.5270	13.2130
 0.5280	13.4680
 0.5290	13.7120
 0.5300	13.9410
 0.5310	14.1520
 0.5320	14.3410
 0.5330	14.5140
 0.5340	14.6760
 0.5350	14.8250
 0.5360	14.9500
 0.5370	15.0640
 0.5380	15.1730
 0.5390	15.2790
 0.5400	15.3740
 0.5410	15.4720
 0.5420	15.5730
 0.5430	15.6590
 0.5440	15.7360
 0.5450	15.8050
 0.5460	15.8650
 0.5470	15.8990
 0.5480	15.9240
 0.5490	15.9500
 0.5500	15.9760
 0.5510	15.9950
 0.5520	16.0020
 0.5530	15.9930
 0.5540	15.9670
 0.5550	15.9260
 0.5560	15.8690
 0.5570	15.7950
 0.5580	15.7090
 0.5590	15.6110
 0.5600	15.5020
 0.5610	15.3830
 0.5620	15.2600
 0.5630	15.1300
 0.5640	14.9900
 0.5650	14.8370
 0.5660	14.6850
 0.5670	14.5370
 0.5680	14.3730
 0.5690	14.1950
 0.5700	14.0130
 0.5710	13.8360
 0.5720	13.6610
 0.5730	13.4860
 0.5740	13.3130
 0.5750	13.1410
 0.5760	12.9800
 0.5770	12.8290
 0.5780	12.6870
 0.5790	12.5600
 0.5800	12.4320
 0.5810	12.3090
 0.5820	12.2020
 0.5830	12.1040
 0.5840	12.0120
 0.5850	11.9240
 0.5860	11.8410
 0.5870	11.7670
 0.5880	11.7000
 0.5890	11.6360
 0.5900	11.5690
 0.5910	11.5100
 0.5920	11.4610
 0.5930	11.4150
 0.5940	11.3750
 0.5950	11.3420
 0.5960	11.3160
 0.5970	11.2950
 0.5980	11.2630
 0.5990	11.2240
 0.6000	11.1880
 0.6010	11.1430
 0.6020	11.0880
 0.6030	11.0270
 0.6040	10.9640
 0.6050	10.8870
 0.6060	10.8000
 0.6070	10.7100
 0.6080	10.6140
 0.6090	10.5170
 0.6100	10.4240
 0.6110	10.3340
 0.6120	10.2230
 0.6130	10.0970
 0.6140	 9.9710
 0.6150	 9.8590
 0.6160	 9.7540
 0.6170	 9.6580
 0.6180	 9.5740
 0.6190	 9.4920
 0.6200	 9.4200
 0.6210	 9.3560
 0.6220	 9.2950
 0.6230	 9.2470
 0.6240	 9.2070
 0.6250	 9.1720
 0.6260	 9.1440
 0.6270	 9.1200
 0.6280	 9.1010
 0.6290	 9.0860
 0.6300	 9.0710
 0.6310	 9.0570
 0.6320	 9.0410
 0.6330	 9.0110
 0.6340	 8.9810
 0.6350	 8.9410
 0.6360	 8.8860
 0.6370	 8.8260
 0.6380	 8.7530
 0.6390	 8.6700
 0.6400	 8.5840
 0.6410	 8.4880
 0.6420	 8.3830
 0.6430	 8.2750
 0.6440	 8.1670
 0.6450	 8.0560
 0.6460	 7.9450
 0.6470	 7.8350
 0.6480	 7.7340
 0.6490	 7.6410
 0.6500	 7.5560
 0.6510	 7.4790
 0.6520	 7.4090
 0.6530	 7.3380
 0.6540	 7.2640
 0.6550	 7.1900
 0.6560	 7.1060
 0.6570	 7.0140
 0.6580	 6.9200
 0.6590	 6.8150
 0.6600	 6.7090
 0.6610	 6.6040
 0.6620	 6.5010
 0.6630	 6.4040
 0.6640	 6.3130
 0.6650	 6.2300
 0.6660	 6.1580
 0.6670	 6.1000
 0.6680	 6.0510
 0.6690	 6.0100
 0.6700	 5.9770
 0.6710	 5.9560
 0.6720	 5.9470
 0.6730	 5.9430
 0.6740	 5.9450
 0.6750	 5.9520
 0.6760	 5.9690
 0.6770	 5.9980
 0.6780	 6.0320
 0.6790	 6.0700
 0.6800	 6.1210
 0.6810	 6.1820
 0.6820	 6.2580
 0.6830	 6.3550
 0.6840	 6.4710
 0.6850	 6.6140
 0.6860	 6.7880
 0.6870	 7.0020
 0.6880	 7.2670
 0.6890	 7.5890
 0.6900	 7.9710
 0.6910	 8.4170
 0.6920	 8.9400
 0.6930	 9.5350
 0.6940	10.1950
 0.6950	10.9210
 0.6960	11.7090
 0.6970	12.5500
 0.6980	13.4350
 0.6990	14.3570
 0.7000	15.3040
 0.7010	16.2680
 0.7020	17.2420
 0.7030	18.2140
 0.7040	19.1800
 0.7050	20.1370
 0.7060	21.0740
 0.7070	21.9890
 0.7080	22.8840
 0.7090	23.7660
 0.7100	24.6210
 0.7110	25.4590
 0.7120	26.2770
 0.7130	27.0630
 0.7140	27.8320
 0.7150	28.5830
 0.7160	29.3070
 0.7170	30.0050
 0.7180	30.6840
 0.7190	31.3400
 0.7200	31.9660
 0.7210	32.5690
 0.7220	33.1450
 0.7230	33.6930
 0.7240	34.2170
 0.7250	34.7110
 0.7260	35.1820
 0.7270	35.6300
 0.7280	36.0470
 0.7290	36.4360
 0.7300	36.8030
 0.7310	37.1510
 0.7320	37.4720
 0.7330	37.7720
 0.7340	38.0540
 0.7350	38.3180
 0.7360	38.5650
 0.7370	38.7920
 0.7380	38.9960
 0.7390	39.1900
 0.7400	39.3710
 0.7410	39.5400
 0.7420	39.6960
 0.7430	39.8430
 0.7440	39.9740
 0.7450	40.0890
 0.7460	40.1980
 0.7470	40.2990
 0.7480	40.3890
 0.7490	40.4680
 0.7500	40.5430
 0.7510	40.6150
 0.7520	40.6760
 0.7530	40.7230
 0.7540	40.7720
 0.7550	40.8180
 0.7560	40.8600
 0.7570	40.8980
 0.7580	40.9310
 0.7590	40.9620
 0.7600	40.9940
 0.7610	41.0220
 0.7620	41.0480
 0.7630	41.0720
 0.7640	41.0900
 0.7650	41.1090
 0.7660	41.1260
 0.7670	41.1420
 0.7680	41.1620
 0.7690	41.1740
 0.7700	41.1860
 0.7710	41.2040
 0.7720	41.2190
 0.7730	41.2330
 0.7740	41.2440
 0.7750	41.2520
 0.7760	41.2690
 0.7770	41.2850
 0.7780	41.2990
 0.7790	41.3150
 0.7800	41.3300
 0.7810	41.3430
 0.7820	41.3550
 0.7830	41.3660
 0.7840	41.3830
 0.7850	41.4010
 0.7860	41.4130
 0.7870	41.4280
 0.7880	41.4440
 0.7890	41.4570
 0.7900	41.4640
 0.7910	41.4770
 0.7920	41.4910
 0.7930	41.5030
 0.7940	41.5150
 0.7950	41.5270
 0.7960	41.5360
 0.7970	41.5430
 0.7980	41.5610
 0.7990	41.5710
 0.8000	41.5770
 0.8010	41.5840
 0.8020	41.5880
 0.8030	41.5910
 0.8040	41.5970
 0.8050	41.6050
 0.8060	41.6110
 0.8070	41.6130
 0.8080	41.6120
 0.8090	41.6200
 0.8100	41.6230
 0.8110	41.6160
 0.8120	41.6080
 0.8130	41.6200
 0.8140	41.6210
 0.8150	41.6160
 0.8160	41.6160
 0.8170	41.6130
 0.8180	41.6100
 0.8190	41.6070
 0.8200	41.6050
 0.8210	41.6020
 0.8220	41.5960
 0.8230	41.5840
 0.8240	41.5700
 0.8250	41.5650
 0.8260	41.5660
 0.8270	41.5640
 0.8280	41.5530
 0.8290	41.5390
 0.8300	41.5270
 0.8310	41.5210
 0.8320	41.5030
 0.8330	41.4910
 0.8340	41.4880
 0.8350	41.4890
 0.8360	41.4780
 0.8370	41.4690
 0.8380	41.4620
 0.8390	41.4530
 0.8400	41.4490
 0.8410	41.4490
 0.8420	41.4480
 0.8430	41.4450
 0.8440	41.4480
 0.8450	41.4530
 0.8460	41.4500
 0.8470	41.4360
 0.8480	41.4320
 0.8490	41.4360
 0.8500	41.4380
 0.8510	41.4390
 0.8520	41.4360
 0.8530	41.4320
 0.8540	41.4350
 0.8550	41.4380
 0.8560	41.4400
 0.8570	41.4430
 0.8580	41.4480
 0.8590	41.4520
 0.8600	41.4550
 0.8610	41.4600
 0.8620	41.4670
 0.8630	41.4710
 0.8640	41.4730
 0.8650	41.4780
 0.8660	41.4830
 0.8670	41.4910
 0.8680	41.5000
 0.8690	41.5060
 0.8700	41.5060
 0.8710	41.5160
 0.8720	41.5310
 0.8730	41.5380
 0.8740	41.5440
 0.8750	41.5500
 0.8760	41.5570
 0.8770	41.5730
 0.8780	41.5870
 0.8790	41.5990
 0.8800	41.6090
 0.8810	41.6180
 0.8820	41.6250
 0.8830	41.6420
 0.8840	41.6670
 0.8850	41.6700
 0.8860	41.6810
 0.8870	41.6980
 0.8880	41.7110
 0.8890	41.7270
 0.8900	41.7410
 0.8910	41.7580
 0.8920	41.7810
 0.8930	41.7960
 0.8940	41.8080
 0.8950	41.8260
 0.8960	41.8520
 0.8970	41.8610
 0.8980	41.8700
 0.8990	41.8860
 0.9000	41.9020
 0.9010	41.9150
 0.9020	41.9290
 0.9030	41.9440
 0.9040	41.9600
 0.9050	41.9740
 0.9060	41.9930
 0.9070	42.0170
 0.9080	42.0290
 0.9090	42.0470
 0.9100	42.0620
 0.9110	42.0700
 0.9120	42.0830
 0.9130	42.1020
 0.9140	42.1200
 0.9150	42.1320
 0.9160	42.1470
 0.9170	42.1560
 0.9180	42.1600
 0.9190	42.1640
 0.9200	42.1770
 0.9210	42.1800
 0.9220	42.1760
 0.9230	42.1820
 0.9240	42.1970
 0.9250	42.1960
 0.9260	42.1840
 0.9270	42.1900
 0.9280	42.1850
 0.9290	42.1840
 0.9300	42.1840
 0.9310	42.1650
 0.9320	42.1480
 0.9330	42.1280
 0.9340	42.1090
 0.9350	42.1030
 0.9360	42.0860
 0.9370	42.0660
 0.9380	42.0490
 0.9390	42.0340
 0.9400	42.0040
 0.9410	41.9760
 0.9420	41.9580
 0.9430	41.9300
 0.9440	41.8970
 0.9450	41.8580
 0.9460	41.8160
 0.9470	41.7840
 0.9480	41.7340
 0.9490	41.6750
 0.9500	41.6200
 0.9510	41.5620
 0.9520	41.5070
 0.9530	41.4410
 0.9540	41.3620
 0.9550	41.3030
 0.9560	41.2490
 0.9570	41.1920
 0.9580	41.1290
 0.9590	41.0610
 0.9600	41.0170
 0.9610	40.9890
 0.9620	40.9620
 0.9630	40.9440
 0.9640	40.9370
 0.9650	40.9210
 0.9660	40.8870
 0.9670	40.8840
 0.9680	40.8850
 0.9690	40.8830
 0.9700	40.8780
 0.9710	40.8790
 0.9720	40.8830
 0.9730	40.8850
 0.9740	40.8840
 0.9750	40.8920
 0.9760	40.8900
 0.9770	40.8890
 0.9780	40.9120
 0.9790	40.9310
 0.9800	40.9460
 0.9810	40.9580
 0.9820	40.9720
 0.9830	40.9970
 0.9840	41.0110
 0.9850	41.0300
 0.9860	41.0730
 0.9870	41.0850
 0.9880	41.0920
 0.9890	41.1130
 0.9900	41.1510
 0.9910	41.1550
 0.9920	41.1830
 0.9930	41.2100
 0.9940	41.2380
 0.9950	41.2660
 0.9960	41.2930
 0.9970	41.3210
 0.9980	41.3480
 0.9990	41.3760
 1.0000	41.4040
 1.0010	41.4310
 1.0020	41.4590
 1.0030	41.4860
 1.0040	41.5140
 1.0050	41.5420
 1.0060	41.5690
 1.0070	41.5970
 1.0080	41.6240
 1.0090	41.6520
 1.0100	41.6520
 1.0110	41.6730
 1.0120	41.6940
 1.0130	41.7160
 1.0140	41.7380
 1.0150	41.7590
 1.0160	41.7840
 1.0170	41.8070
 1.0180	41.8300
 1.0190	41.8540
 1.0200	41.8770
 1.0210	41.9000
 1.0220	41.9210
 1.0230	41.9400
 1.0240	41.9530
 1.0250	41.9730
 1.0260	41.9970
 1.0270	42.0160
 1.0280	42.0390
 1.0290	42.0580
 1.0300	42.0700
 1.0310	42.0880
 1.0320	42.1100
 1.0330	42.1290
 1.0340	42.1460
 1.0350	42.1650
 1.0360	42.1800
 1.0370	42.1930
 1.0380	42.2090
 1.0390	42.2270
 1.0400	42.2430
 1.0410	42.2570
 1.0420	42.2720
 1.0430	42.2850
 1.0440	42.2980
 1.0450	42.3130
 1.0460	42.3250
 1.0470	42.3350
 1.0480	42.3460
 1.0490	42.3590
 1.0500	42.3680
 1.0510	42.3740
 1.0520	42.3820
 1.0530	42.3890
 1.0540	42.3900
 1.0550	42.3980
 1.0560	42.4130
 1.0570	42.4220
 1.0580	42.4350
 1.0590	42.4420
 1.0600	42.4440
 1.0610	42.4480
 1.0620	42.4510
 1.0630	42.4540
 1.0640	42.4580
 1.0650	42.4590
 1.0660	42.4560
 1.0670	42.4560
 1.0680	42.4570
 1.0690	42.4570
 1.0700	42.4560
 1.0710	42.4570
 1.0720	42.4560
 1.0730	42.4530
 1.0740	42.4510
 1.0750	42.4500
 1.0760	42.4470
 1.0770	42.4440
 1.0780	42.4390
 1.0790	42.4330
 1.0800	42.4280
 1.0810	42.4220
 1.0820	42.4160
 1.0830	42.4100
 1.0840	42.4030
 1.0850	42.3920
 1.0860	42.3830
 1.0870	42.3730
 1.0880	42.3630
 1.0890	42.3520
 1.0900	42.3420
 1.0910	42.3310
 1.0920	42.3210
 1.0930	42.3070
 1.0940	42.2920
 1.0950	42.2780
 1.0960	42.2600
 1.0970	42.2450
 1.0980	42.2330
 1.0990	42.2180
 1.1000	42.2020
 1.1010	42.1860
 1.1020	42.1680
 1.1030	42.1510
 1.1040	42.1380
 1.1050	42.1200
 1.1060	42.1050
 1.1070	42.0940
 1.1080	42.0760
 1.1090	42.0540
 1.1100	42.0350
 1.1110	42.0120
 1.1120	41.9930
 1.1130	41.9770
 1.1140	41.9580
 1.1150	41.9380
 1.1160	41.9170
 1.1170	41.8980
 1.1180	41.8710
 1.1190	41.8410
 1.1200	41.8070
 1.1210	41.7720
 1.1220	41.7340
 1.1230	41.6930
 1.1240	41.6490
 1.1250	41.5970
 1.1260	41.5400
 1.1270	41.4740
 1.1280	41.4030
 1.1290	41.3230
 1.1300	41.2360
 1.1310	41.1390
 1.1320	41.0350
 1.1330	40.9230
 1.1340	40.8040
 1.1350	40.6750
 1.1360	40.5390
 1.1370	40.3940
 1.1380	40.2410
 1.1390	40.0840
 1.1400	39.9240
 1.1410	39.7630
 1.1420	39.6010
 1.1430	39.4370
 1.1440	39.2760
 1.1450	39.1140
 1.1460	38.9590
 1.1470	38.8060
 1.1480	38.6640
 1.1490	38.5260
 1.1500	38.4000
 1.1510	38.2830
 1.1520	38.1750
 1.1530	38.0760
 1.1540	37.9890
 1.1550	37.9120
 1.1560	37.8420
 1.1570	37.7820
 1.1580	37.7300
 1.1590	37.6830
 1.1600	37.6430
 1.1610	37.6100
 1.1620	37.5830
 1.1630	37.5570
 1.1640	37.5360
 1.1650	37.5180
 1.1660	37.5030
 1.1670	37.4890
 1.1680	37.4810
 1.1690	37.4700
 1.1700	37.4590
 1.1710	37.4500
 1.1720	37.4430
 1.1730	37.4340
 1.1740	37.4270
 1.1750	37.4170
 1.1760	37.4080
 1.1770	37.3980
 1.1780	37.3850
 1.1790	37.3740
 1.1800	37.3640
 1.1810	37.3480
 1.1820	37.3340
 1.1830	37.3220
 1.1840	37.3080
 1.1850	37.2980
 1.1860	37.2870
 1.1870	37.2760
 1.1880	37.2660
 1.1890	37.2560
 1.1900	37.2480
 1.1910	37.2420
 1.1920	37.2390
 1.1930	37.2370
 1.1940	37.2380
 1.1950	37.2400
 1.1960	37.2460
 1.1970	37.2530
 1.1980	37.2600
 1.1990	37.2690
 1.2000	37.2790
 1.2010	37.2920
 1.2020	37.3070
 1.2030	37.3220
 1.2040	37.3360
 1.2050	37.3510
 1.2060	37.3670
 1.2070	37.3870
 1.2080	37.4090
 1.2090	37.4310
 1.2100	37.4550
 1.2110	37.4790
 1.2120	37.5020
 1.2130	37.5260
 1.2140	37.5530
 1.2150	37.5770
 1.2160	37.6010
 1.2170	37.6260
 1.2180	37.6510
 1.2190	37.6780
 1.2200	37.7080
 1.2210	37.7370
 1.2220	37.7630
 1.2230	37.7900
 1.2240	37.8150
 1.2250	37.8400
 1.2260	37.8620
 1.2270	37.8860
 1.2280	37.9110
 1.2290	37.9330
 1.2300	37.9560
 1.2310	37.9790
 1.2320	37.9990
 1.2330	38.0190
 1.2340	38.0400
 1.2350	38.0630
 1.2360	38.0840
 1.2370	38.1060
 1.2380	38.1260
 1.2390	38.1420
 1.2400	38.1610
 1.2410	38.1780
 1.2420	38.1920
 1.2430	38.2060
 1.2440	38.2200
 1.2450	38.2330
 1.2460	38.2490
 1.2470	38.2640
 1.2480	38.2770
 1.2490	38.2880
 1.2500	38.2980
 1.2510	38.3080
 1.2520	38.3170
 1.2530	38.3230
 1.2540	38.3310
 1.2550	38.3380
 1.2560	38.3430
 1.2570	38.3480
 1.2580	38.3520
 1.2590	38.3550
 1.2600	38.3570
 1.2610	38.3590
 1.2620	38.3590
 1.2630	38.3590
 1.2640	38.3570
 1.2650	38.3530
 1.2660	38.3490
 1.2670	38.3410
 1.2680	38.3340
 1.2690	38.3260
 1.2700	38.3160
 1.2710	38.3060
 1.2720	38.2940
 1.2730	38.2790
 1.2740	38.2630
 1.2750	38.2450
 1.2760	38.2270
 1.2770	38.2090
 1.2780	38.1890
 1.2790	38.1690
 1.2800	38.1480
 1.2810	38.1230
 1.2820	38.0960
 1.2830	38.0670
 1.2840	38.0370
 1.2850	38.0040
 1.2860	37.9700
 1.2870	37.9350
 1.2880	37.9000
 1.2890	37.8610
 1.2900	37.8200
 1.2910	37.7770
 1.2920	37.7280
 1.2930	37.6780
 1.2940	37.6280
 1.2950	37.5760
 1.2960	37.5210
 1.2970	37.4620
 1.2980	37.4010
 1.2990	37.3370
 1.3000	37.2720
 1.3010	37.2040
 1.3020	37.1330
 1.3030	37.0590
 1.3040	36.9820
 1.3050	36.9010
 1.3060	36.8190
 1.3070	36.7320
 1.3080	36.6470
 1.3090	36.5570
 1.3100	36.4610
 1.3110	36.3620
 1.3120	36.2620
 1.3130	36.1590
 1.3140	36.0530
 1.3150	35.9490
 1.3160	35.8380
 1.3170	35.7220
 1.3180	35.6030
 1.3190	35.4810
 1.3200	35.3570
 1.3210	35.2280
 1.3220	35.0960
 1.3230	34.9630
 1.3240	34.8260
 1.3250	34.6880
 1.3260	34.5490
 1.3270	34.4060
 1.3280	34.2620
 1.3290	34.1170
 1.3300	33.9690
 1.3310	33.8200
 1.3320	33.6700
 1.3330	33.5200
 1.3340	33.3660
 1.3350	33.2130
 1.3360	33.0600
 1.3370	32.9060
 1.3380	32.7560
 1.3390	32.6080
 1.3400	32.4580
 1.3410	32.3100
 1.3420	32.1650
 1.3430	32.0200
 1.3440	31.8770
 1.3450	31.7350
 1.3460	31.5930
 1.3470	31.4530
 1.3480	31.3140
 1.3490	31.1760
 1.3500	31.0400
 1.3510	30.9030
 1.3520	30.7670
 1.3530	30.6300
 1.3540	30.4920
 1.3550	30.3560
 1.3560	30.2190
 1.3570	30.0800
 1.3580	29.9400
 1.3590	29.7960
 1.3600	29.6480
 1.3610	29.4960
 1.3620	29.3370
 1.3630	29.1750
 1.3640	29.0040
 1.3650	28.8230
 1.3660	28.6360
 1.3670	28.4370
 1.3680	28.2250
 1.3690	28.0020
 1.3700	27.7630
 1.3710	27.5100
 1.3720	27.2410
 1.3730	26.9530
 1.3740	26.6470
 1.3750	26.3220
 1.3760	25.9760
 1.3770	25.6090
 1.3780	25.2180
 1.3790	24.8080
 1.3800	24.3770
 1.3810	23.9240
 1.3820	23.4580
 1.3830	22.9750
 1.3840	22.4800
 1.3850	21.9700
 1.3860	21.4530
 1.3870	20.9210
 1.3880	20.3920
 1.3890	19.8570
 1.3900	19.3220
 1.3910	18.7950
 1.3920	18.2710
 1.3930	17.7520
 1.3940	17.2460
 1.3950	16.7460
 1.3960	16.2630
 1.3970	15.7970
 1.3980	15.3470
 1.3990	14.9240
 1.4000	14.5200
 1.4010	14.1350
 1.4020	13.7750
 1.4030	13.4320
 1.4040	13.1100
 1.4050	12.8110
 1.4060	12.5330
 1.4070	12.2760
 1.4080	12.0380
 1.4090	11.8170
 1.4100	11.6150
 1.4110	11.4280
 1.4120	11.2570
 1.4130	11.1010
 1.4140	10.9570
 1.4150	10.8280
 1.4160	10.7110
 1.4170	10.6030
 1.4180	10.5060
 1.4190	10.4170
 1.4200	10.3370
 1.4210	10.2640
 1.4220	10.1980
 1.4230	10.1390
 1.4240	10.0850
 1.4250	10.0370
 1.4260	 9.9960
 1.4270	 9.9580
 1.4280	 9.9240
 1.4290	 9.8940
 1.4300	 9.8680
 1.4310	 9.8460
 1.4320	 9.8280
 1.4330	 9.8130
 1.4340	 9.8010
 1.4350	 9.7910
 1.4360	 9.7830
 1.4370	 9.7770
 1.4380	 9.7740
 1.4390	 9.7740
 1.4400	 9.7750
 1.4410	 9.7780
 1.4420	 9.7820
 1.4430	 9.7870
 1.4440	 9.7940
 1.4450	 9.8030
 1.4460	 9.8130
 1.4470	 9.8240
 1.4480	 9.8360
 1.4490	 9.8490
 1.4500	 9.8630
 1.4510	 9.8780
 1.4520	 9.8940
 1.4530	 9.9110
 1.4540	 9.9290
 1.4550	 9.9500
 1.4560	 9.9710
 1.4570	 9.9960
 1.4580	10.0230
 1.4590	10.0520
 1.4600	10.0860
 1.4610	10.1220
 1.4620	10.1610
 1.4630	10.2040
 1.4640	10.2500
 1.4650	10.3000
 1.4660	10.3540
 1.4670	10.4110
 1.4680	10.4720
 1.4690	10.5370
 1.4700	10.6060
