Name: Quercus lobata 1
Type: vegetation
Class: Tree
Genus: Quercus
Species: lobata
Sample No.: VH086
Owner: UCSB
Wavelength Range: TIR
Origin: 34.7139; -120.0598; WGS84
Collection Date: 4/21/2013
Description: Samples were collected as part of the HyspIRI Airborne Campaign. 48 individual plants were sampled in three times in 2013 - spring  summer  and fall. The name of the sample includes a 1  2  or 3 which references a different individual of the species. Samples were taken to JPL and processed within 48 hours of collection. The same leaves were processed in the Nicolet and then measured using the ASD.
Measurement: Hemispherical reflectance
First Column: X
Second Column: Y
X Units: Wavelength (micrometers)
Y Units: Reflectance (percentage)
First X Value: 2.501
Last X Value: 15.387
Number of X Values: 1737
Additional Information: vegetation.tree.quercus.lobata.tir.vh086.ucsb.nicolet.ancillary.txt

 2.5010	 8.1700
 2.5030	 8.1430
 2.5040	 8.0730
 2.5050	 8.0520
 2.5060	 8.1290
 2.5070	 8.0590
 2.5090	 7.9610
 2.5100	 7.9960
 2.5110	 8.0530
 2.5120	 7.9770
 2.5140	 7.8960
 2.5150	 7.8000
 2.5160	 7.8740
 2.5170	 7.9910
 2.5180	 8.0010
 2.5200	 7.9700
 2.5210	 7.9880
 2.5220	 8.0020
 2.5230	 8.0570
 2.5250	 8.0680
 2.5260	 8.0390
 2.5270	 7.9590
 2.5280	 7.8280
 2.5290	 7.8550
 2.5310	 7.9350
 2.5320	 7.8500
 2.5330	 7.8880
 2.5340	 8.0000
 2.5360	 7.9780
 2.5370	 7.9470
 2.5380	 8.0460
 2.5390	 8.1110
 2.5410	 8.0580
 2.5420	 8.0140
 2.5430	 8.1070
 2.5440	 8.0910
 2.5460	 7.9860
 2.5470	 7.9040
 2.5480	 7.9490
 2.5490	 8.0390
 2.5510	 8.0080
 2.5520	 7.9840
 2.5530	 8.0400
 2.5540	 8.0290
 2.5560	 8.0590
 2.5570	 8.1010
 2.5580	 8.1270
 2.5590	 8.1220
 2.5610	 8.1090
 2.5620	 8.0320
 2.5630	 7.8680
 2.5640	 7.8260
 2.5660	 8.0530
 2.5670	 8.1170
 2.5680	 8.0390
 2.5700	 8.0400
 2.5710	 8.0800
 2.5720	 8.0220
 2.5730	 7.9430
 2.5750	 7.9780
 2.5760	 7.9180
 2.5770	 7.8810
 2.5790	 7.9340
 2.5800	 7.9770
 2.5810	 8.0150
 2.5820	 8.1320
 2.5840	 8.0660
 2.5850	 8.0130
 2.5860	 8.0740
 2.5880	 8.0690
 2.5890	 8.0240
 2.5900	 7.9860
 2.5910	 7.9880
 2.5930	 7.9420
 2.5940	 8.0400
 2.5950	 7.9870
 2.5970	 7.9180
 2.5980	 7.9950
 2.5990	 8.0120
 2.6000	 7.9670
 2.6020	 7.9270
 2.6030	 7.8360
 2.6040	 7.7910
 2.6060	 7.8160
 2.6070	 7.8880
 2.6080	 7.9180
 2.6100	 7.8670
 2.6110	 7.8310
 2.6120	 7.8290
 2.6140	 7.6910
 2.6150	 7.6090
 2.6160	 7.7140
 2.6180	 7.8150
 2.6190	 7.7420
 2.6200	 7.7150
 2.6220	 7.6740
 2.6230	 7.6410
 2.6240	 7.5390
 2.6260	 7.4880
 2.6270	 7.4250
 2.6280	 7.4840
 2.6300	 7.5220
 2.6310	 7.5740
 2.6320	 7.5090
 2.6340	 7.4670
 2.6350	 7.5450
 2.6360	 7.5610
 2.6380	 7.4420
 2.6390	 7.4320
 2.6400	 7.4600
 2.6420	 7.4370
 2.6430	 7.3900
 2.6440	 7.4480
 2.6460	 7.4480
 2.6470	 7.3810
 2.6480	 7.3300
 2.6500	 7.3430
 2.6510	 7.3290
 2.6520	 7.3460
 2.6540	 7.2740
 2.6550	 7.2430
 2.6560	 7.2790
 2.6580	 7.1890
 2.6590	 7.1110
 2.6610	 7.1610
 2.6620	 7.1170
 2.6630	 6.9990
 2.6650	 7.0160
 2.6660	 7.0890
 2.6670	 7.1010
 2.6690	 7.2410
 2.6700	 7.2770
 2.6720	 7.1880
 2.6730	 7.1320
 2.6740	 7.0730
 2.6760	 7.0760
 2.6770	 7.1200
 2.6780	 7.0220
 2.6800	 7.0280
 2.6810	 7.0550
 2.6830	 7.0320
 2.6840	 6.9020
 2.6850	 6.8270
 2.6870	 6.8490
 2.6880	 6.9070
 2.6900	 6.8260
 2.6910	 6.7730
 2.6920	 6.7910
 2.6940	 6.7540
 2.6950	 6.6280
 2.6970	 6.6000
 2.6980	 6.5780
 2.6990	 6.5560
 2.7010	 6.6160
 2.7020	 6.7220
 2.7040	 6.6350
 2.7050	 6.5480
 2.7060	 6.4460
 2.7080	 6.4390
 2.7090	 6.5290
 2.7110	 6.5420
 2.7120	 6.4080
 2.7130	 6.3360
 2.7150	 6.3250
 2.7160	 6.2040
 2.7180	 6.0130
 2.7190	 5.9950
 2.7210	 5.9340
 2.7220	 5.8500
 2.7230	 5.7950
 2.7250	 5.8450
 2.7260	 5.7420
 2.7280	 5.6050
 2.7290	 5.5090
 2.7310	 5.6310
 2.7320	 5.5240
 2.7330	 5.2820
 2.7350	 5.2040
 2.7360	 5.2850
 2.7380	 5.1990
 2.7390	 5.0660
 2.7410	 4.9570
 2.7420	 4.8970
 2.7440	 4.8640
 2.7450	 4.8640
 2.7470	 4.8300
 2.7480	 4.7510
 2.7490	 4.6430
 2.7510	 4.5910
 2.7520	 4.6190
 2.7540	 4.6760
 2.7550	 4.5950
 2.7570	 4.4990
 2.7580	 4.3980
 2.7600	 4.3930
 2.7610	 4.3480
 2.7630	 4.3640
 2.7640	 4.3780
 2.7660	 4.4020
 2.7670	 4.3270
 2.7680	 4.2550
 2.7700	 4.2140
 2.7710	 4.2730
 2.7730	 4.2500
 2.7740	 4.2370
 2.7760	 4.2010
 2.7770	 4.1510
 2.7790	 4.1560
 2.7800	 4.2210
 2.7820	 4.0610
 2.7830	 3.9510
 2.7850	 3.9480
 2.7860	 4.0060
 2.7880	 3.9920
 2.7890	 3.9530
 2.7910	 3.9540
 2.7920	 3.9200
 2.7940	 3.8920
 2.7950	 3.9310
 2.7970	 3.9340
 2.7980	 3.9120
 2.8000	 3.8460
 2.8010	 3.8680
 2.8030	 3.8480
 2.8040	 3.8230
 2.8060	 3.7270
 2.8070	 3.7280
 2.8090	 3.7820
 2.8110	 3.7920
 2.8120	 3.6750
 2.8140	 3.6580
 2.8150	 3.6690
 2.8170	 3.7440
 2.8180	 3.7270
 2.8200	 3.6930
 2.8210	 3.7200
 2.8230	 3.7520
 2.8240	 3.6760
 2.8260	 3.6400
 2.8270	 3.6700
 2.8290	 3.6850
 2.8300	 3.6140
 2.8320	 3.5590
 2.8340	 3.6070
 2.8350	 3.6790
 2.8370	 3.5870
 2.8380	 3.6080
 2.8400	 3.6230
 2.8410	 3.5670
 2.8430	 3.5150
 2.8440	 3.5970
 2.8460	 3.6060
 2.8480	 3.4960
 2.8490	 3.4560
 2.8510	 3.5510
 2.8520	 3.6490
 2.8540	 3.6280
 2.8550	 3.5340
 2.8570	 3.5780
 2.8590	 3.5310
 2.8600	 3.4650
 2.8620	 3.5130
 2.8630	 3.5610
 2.8650	 3.4940
 2.8660	 3.5240
 2.8680	 3.5870
 2.8700	 3.5330
 2.8710	 3.3300
 2.8730	 3.4080
 2.8740	 3.6040
 2.8760	 3.5750
 2.8780	 3.4680
 2.8790	 3.4910
 2.8810	 3.5010
 2.8820	 3.4920
 2.8840	 3.6720
 2.8860	 3.8290
 2.8870	 3.6280
 2.8890	 3.4750
 2.8900	 3.3880
 2.8920	 3.4380
 2.8940	 3.4110
 2.8950	 3.2820
 2.8970	 3.2340
 2.8980	 3.3530
 2.9000	 3.4330
 2.9020	 3.4170
 2.9030	 3.4050
 2.9050	 3.4420
 2.9070	 3.4170
 2.9080	 3.2720
 2.9100	 3.2230
 2.9120	 3.3270
 2.9130	 3.4470
 2.9150	 3.4580
 2.9160	 3.3890
 2.9180	 3.4100
 2.9200	 3.4670
 2.9210	 3.4750
 2.9230	 3.4840
 2.9250	 3.4180
 2.9260	 3.2940
 2.9280	 3.4620
 2.9300	 3.5690
 2.9310	 3.4780
 2.9330	 3.4040
 2.9350	 3.4710
 2.9360	 3.4470
 2.9380	 3.3500
 2.9400	 3.3060
 2.9410	 3.3260
 2.9430	 3.3400
 2.9450	 3.4380
 2.9460	 3.4540
 2.9480	 3.4240
 2.9500	 3.2990
 2.9510	 3.3370
 2.9530	 3.4710
 2.9550	 3.5400
 2.9560	 3.5530
 2.9580	 3.3920
 2.9600	 3.3350
 2.9610	 3.4410
 2.9630	 3.1640
 2.9650	 3.1050
 2.9660	 3.1960
 2.9680	 3.1250
 2.9700	 3.4490
 2.9720	 3.8490
 2.9730	 3.6750
 2.9750	 3.4540
 2.9770	 3.7180
 2.9780	 3.6410
 2.9800	 3.0210
 2.9820	 2.7780
 2.9840	 3.0950
 2.9850	 3.1600
 2.9870	 2.8660
 2.9890	 3.0160
 2.9900	 3.6100
 2.9920	 3.8120
 2.9940	 3.4110
 2.9960	 2.6490
 2.9970	 2.8330
 2.9990	 3.5950
 3.0010	 3.5410
 3.0030	 3.2930
 3.0040	 3.2610
 3.0060	 3.3700
 3.0080	 3.3610
 3.0100	 3.6060
 3.0110	 3.7710
 3.0130	 3.7440
 3.0150	 3.6210
 3.0170	 3.7170
 3.0180	 3.6650
 3.0200	 3.5440
 3.0220	 3.4090
 3.0240	 3.3920
 3.0250	 3.3870
 3.0270	 3.3840
 3.0290	 3.3200
 3.0310	 3.3150
 3.0320	 3.2450
 3.0340	 3.3280
 3.0360	 3.2540
 3.0380	 3.1230
 3.0400	 3.0520
 3.0410	 3.2550
 3.0430	 3.4730
 3.0450	 3.4660
 3.0470	 3.5120
 3.0480	 3.6120
 3.0500	 3.6350
 3.0520	 3.4800
 3.0540	 3.3530
 3.0560	 3.7900
 3.0570	 3.6220
 3.0590	 3.0170
 3.0610	 2.8830
 3.0630	 2.9970
 3.0650	 3.3320
 3.0660	 3.6350
 3.0680	 3.5220
 3.0700	 3.4970
 3.0720	 3.5730
 3.0740	 3.6330
 3.0760	 3.6320
 3.0770	 3.6140
 3.0790	 3.5520
 3.0810	 3.5130
 3.0830	 3.5030
 3.0850	 3.4830
 3.0870	 3.5570
 3.0880	 3.6130
 3.0900	 3.5420
 3.0920	 3.4710
 3.0940	 3.3860
 3.0960	 3.4250
 3.0980	 3.5470
 3.0990	 3.5520
 3.1010	 3.5170
 3.1030	 3.4080
 3.1050	 3.3270
 3.1070	 3.4650
 3.1090	 3.5050
 3.1110	 3.4300
 3.1120	 3.4440
 3.1140	 3.5950
 3.1160	 3.5930
 3.1180	 3.4960
 3.1200	 3.5250
 3.1220	 3.6300
 3.1240	 3.6090
 3.1260	 3.6470
 3.1270	 3.6000
 3.1290	 3.5310
 3.1310	 3.5240
 3.1330	 3.5420
 3.1350	 3.6850
 3.1370	 3.8680
 3.1390	 3.9580
 3.1410	 3.7930
 3.1430	 3.4830
 3.1450	 3.4710
 3.1460	 3.5970
 3.1480	 3.7150
 3.1500	 3.8460
 3.1520	 3.9000
 3.1540	 3.6950
 3.1560	 3.6360
 3.1580	 3.9310
 3.1600	 3.8920
 3.1620	 3.7240
 3.1640	 3.7630
 3.1660	 4.0260
 3.1680	 4.2780
 3.1700	 4.0000
 3.1710	 3.8900
 3.1730	 4.0560
 3.1750	 4.4280
 3.1770	 4.5880
 3.1790	 4.5530
 3.1810	 4.3060
 3.1830	 4.4950
 3.1850	 4.5560
 3.1870	 4.2660
 3.1890	 4.1170
 3.1910	 3.8760
 3.1930	 3.8500
 3.1950	 3.9710
 3.1970	 3.9990
 3.1990	 4.0520
 3.2010	 4.0410
 3.2030	 4.0270
 3.2050	 4.1280
 3.2070	 4.1670
 3.2090	 4.0760
 3.2110	 4.0690
 3.2130	 4.1170
 3.2150	 4.1410
 3.2170	 4.1430
 3.2190	 4.1290
 3.2210	 4.1350
 3.2230	 4.0810
 3.2250	 4.0300
 3.2270	 4.1570
 3.2290	 4.2460
 3.2310	 4.3030
 3.2330	 4.3740
 3.2350	 4.3490
 3.2370	 4.2550
 3.2390	 4.1870
 3.2410	 4.3040
 3.2430	 4.4500
 3.2450	 4.4310
 3.2470	 4.4250
 3.2490	 4.4200
 3.2510	 4.3560
 3.2530	 4.4210
 3.2550	 4.4330
 3.2570	 4.3960
 3.2590	 4.4930
 3.2610	 4.5160
 3.2630	 4.4420
 3.2650	 4.3670
 3.2670	 4.3810
 3.2690	 4.4880
 3.2720	 4.6100
 3.2740	 4.6020
 3.2760	 4.5280
 3.2780	 4.5010
 3.2800	 4.5220
 3.2820	 4.5350
 3.2840	 4.5400
 3.2860	 4.5950
 3.2880	 4.6960
 3.2900	 4.7320
 3.2920	 4.7400
 3.2940	 4.7360
 3.2960	 4.7450
 3.2990	 4.6830
 3.3010	 4.6150
 3.3030	 4.7100
 3.3050	 4.7960
 3.3070	 4.7520
 3.3090	 4.6810
 3.3110	 4.6170
 3.3130	 4.5940
 3.3150	 4.5950
 3.3180	 4.6530
 3.3200	 4.7430
 3.3220	 4.7900
 3.3240	 4.6820
 3.3260	 4.6700
 3.3280	 4.6710
 3.3300	 4.6880
 3.3330	 4.7240
 3.3350	 4.6950
 3.3370	 4.6560
 3.3390	 4.7480
 3.3410	 4.8250
 3.3430	 4.8200
 3.3450	 4.7480
 3.3480	 4.6620
 3.3500	 4.5680
 3.3520	 4.5420
 3.3540	 4.5520
 3.3560	 4.5580
 3.3580	 4.5610
 3.3610	 4.5380
 3.3630	 4.4410
 3.3650	 4.3520
 3.3670	 4.3910
 3.3690	 4.4580
 3.3720	 4.3960
 3.3740	 4.2840
 3.3760	 4.2230
 3.3780	 4.3400
 3.3800	 4.4540
 3.3830	 4.3230
 3.3850	 4.1330
 3.3870	 4.1360
 3.3890	 4.2040
 3.3910	 4.1780
 3.3940	 4.1240
 3.3960	 4.1140
 3.3980	 4.0460
 3.4000	 4.0030
 3.4020	 4.1080
 3.4050	 4.1760
 3.4070	 4.1990
 3.4090	 4.2840
 3.4110	 4.3890
 3.4140	 4.4770
 3.4160	 4.5550
 3.4180	 4.6960
 3.4200	 4.8610
 3.4230	 4.9780
 3.4250	 5.0290
 3.4270	 5.1160
 3.4290	 5.2210
 3.4320	 5.2610
 3.4340	 5.2070
 3.4360	 5.0510
 3.4390	 4.9890
 3.4410	 5.0410
 3.4430	 5.0410
 3.4450	 5.0460
 3.4480	 5.0770
 3.4500	 5.1470
 3.4520	 5.1700
 3.4550	 5.1260
 3.4570	 5.0400
 3.4590	 4.9920
 3.4620	 4.9580
 3.4640	 4.9970
 3.4660	 5.0350
 3.4680	 5.0490
 3.4710	 5.0770
 3.4730	 5.1090
 3.4750	 5.1050
 3.4780	 5.0240
 3.4800	 5.0150
 3.4820	 5.0630
 3.4850	 5.0140
 3.4870	 4.9840
 3.4890	 4.9600
 3.4920	 4.8670
 3.4940	 4.8010
 3.4970	 4.8440
 3.4990	 4.8640
 3.5010	 4.9270
 3.5040	 5.0690
 3.5060	 5.2850
 3.5080	 5.4470
 3.5110	 5.6320
 3.5130	 5.6980
 3.5160	 5.7900
 3.5180	 5.7990
 3.5200	 5.8050
 3.5230	 5.8810
 3.5250	 5.9530
 3.5270	 5.9490
 3.5300	 5.9400
 3.5320	 6.0400
 3.5350	 6.1150
 3.5370	 6.0220
 3.5400	 5.9450
 3.5420	 5.9970
 3.5440	 6.0200
 3.5470	 5.9710
 3.5490	 6.0140
 3.5520	 6.0910
 3.5540	 6.1010
 3.5570	 6.0280
 3.5590	 6.0200
 3.5610	 6.0850
 3.5640	 6.1870
 3.5660	 6.1770
 3.5690	 6.1420
 3.5710	 6.1440
 3.5740	 6.1660
 3.5760	 6.2000
 3.5790	 6.2230
 3.5810	 6.2250
 3.5840	 6.1990
 3.5860	 6.1350
 3.5890	 6.1110
 3.5910	 6.1010
 3.5930	 6.1140
 3.5960	 6.1520
 3.5980	 6.2070
 3.6010	 6.2530
 3.6030	 6.2330
 3.6060	 6.1970
 3.6080	 6.1690
 3.6110	 6.1860
 3.6140	 6.2520
 3.6160	 6.2200
 3.6190	 6.1860
 3.6210	 6.2900
 3.6240	 6.3320
 3.6260	 6.3300
 3.6290	 6.3800
 3.6310	 6.4020
 3.6340	 6.3460
 3.6360	 6.2740
 3.6390	 6.2580
 3.6410	 6.2480
 3.6440	 6.2280
 3.6470	 6.2670
 3.6490	 6.3450
 3.6520	 6.3190
 3.6540	 6.2250
 3.6570	 6.2340
 3.6590	 6.2690
 3.6620	 6.2870
 3.6650	 6.2500
 3.6670	 6.2680
 3.6700	 6.3040
 3.6720	 6.3550
 3.6750	 6.3890
 3.6780	 6.3820
 3.6800	 6.3420
 3.6830	 6.3470
 3.6850	 6.3690
 3.6880	 6.3970
 3.6910	 6.3960
 3.6930	 6.3480
 3.6960	 6.3360
 3.6990	 6.3040
 3.7010	 6.3220
 3.7040	 6.3710
 3.7060	 6.4170
 3.7090	 6.4310
 3.7120	 6.4150
 3.7140	 6.4200
 3.7170	 6.4180
 3.7200	 6.3450
 3.7220	 6.3650
 3.7250	 6.4150
 3.7280	 6.3850
 3.7300	 6.3970
 3.7330	 6.4220
 3.7360	 6.4040
 3.7390	 6.4090
 3.7410	 6.5310
 3.7440	 6.6160
 3.7470	 6.5380
 3.7490	 6.4850
 3.7520	 6.4670
 3.7550	 6.4790
 3.7580	 6.5510
 3.7600	 6.7100
 3.7630	 6.6930
 3.7660	 6.6220
 3.7680	 6.5500
 3.7710	 6.5270
 3.7740	 6.5960
 3.7770	 6.6490
 3.7790	 6.6160
 3.7820	 6.6000
 3.7850	 6.6360
 3.7880	 6.6010
 3.7900	 6.5750
 3.7930	 6.6310
 3.7960	 6.6590
 3.7990	 6.6730
 3.8020	 6.6300
 3.8040	 6.5850
 3.8070	 6.5960
 3.8100	 6.5510
 3.8130	 6.5650
 3.8160	 6.6150
 3.8180	 6.6370
 3.8210	 6.6640
 3.8240	 6.6710
 3.8270	 6.6470
 3.8300	 6.6840
 3.8330	 6.6870
 3.8350	 6.6770
 3.8380	 6.6270
 3.8410	 6.6220
 3.8440	 6.6550
 3.8470	 6.6700
 3.8500	 6.7040
 3.8520	 6.7240
 3.8550	 6.7220
 3.8580	 6.7220
 3.8610	 6.7510
 3.8640	 6.7670
 3.8670	 6.7280
 3.8700	 6.7220
 3.8730	 6.7110
 3.8750	 6.7110
 3.8780	 6.6920
 3.8810	 6.7200
 3.8840	 6.7810
 3.8870	 6.7730
 3.8900	 6.7420
 3.8930	 6.7640
 3.8960	 6.8070
 3.8990	 6.7790
 3.9020	 6.7970
 3.9050	 6.8200
 3.9080	 6.8000
 3.9110	 6.7920
 3.9140	 6.8020
 3.9160	 6.8070
 3.9190	 6.8000
 3.9220	 6.8040
 3.9250	 6.7920
 3.9280	 6.8390
 3.9310	 6.8440
 3.9340	 6.8270
 3.9370	 6.8210
 3.9400	 6.8250
 3.9430	 6.7810
 3.9460	 6.7720
 3.9490	 6.8180
 3.9520	 6.8730
 3.9550	 6.8570
 3.9580	 6.8160
 3.9610	 6.8050
 3.9640	 6.8230
 3.9670	 6.8800
 3.9700	 6.8950
 3.9730	 6.8380
 3.9770	 6.8210
 3.9800	 6.8690
 3.9830	 6.8570
 3.9860	 6.8330
 3.9890	 6.8610
 3.9920	 6.8270
 3.9950	 6.8240
 3.9980	 6.7960
 4.0010	 6.8090
 4.0040	 6.8370
 4.0070	 6.8810
 4.0100	 6.9130
 4.0130	 6.8570
 4.0170	 6.8180
 4.0200	 6.8590
 4.0230	 6.8760
 4.0260	 6.9090
 4.0290	 6.9830
 4.0320	 6.9550
 4.0350	 6.8870
 4.0380	 6.8790
 4.0420	 6.8740
 4.0450	 6.9350
 4.0480	 6.9450
 4.0510	 6.9330
 4.0540	 6.9630
 4.0570	 6.9970
 4.0610	 6.9540
 4.0640	 6.8710
 4.0670	 6.8820
 4.0700	 6.9020
 4.0730	 6.8860
 4.0770	 6.9370
 4.0800	 6.9590
 4.0830	 6.9780
 4.0860	 6.9560
 4.0890	 6.9420
 4.0930	 6.9160
 4.0960	 6.8970
 4.0990	 6.9240
 4.1020	 6.9430
 4.1060	 6.9920
 4.1090	 6.9990
 4.1120	 6.9240
 4.1150	 6.9210
 4.1190	 6.9540
 4.1220	 7.0100
 4.1250	 7.0090
 4.1280	 6.9900
 4.1320	 6.9790
 4.1350	 6.9490
 4.1380	 6.8970
 4.1420	 6.9130
 4.1450	 6.9830
 4.1480	 7.0360
 4.1520	 6.9960
 4.1550	 6.9200
 4.1580	 6.8950
 4.1620	 6.9310
 4.1650	 6.9710
 4.1680	 7.0110
 4.1720	 6.9820
 4.1750	 6.9650
 4.1780	 6.9770
 4.1820	 6.9690
 4.1850	 6.9630
 4.1890	 7.0190
 4.1920	 6.9870
 4.1950	 6.9500
 4.1990	 6.9010
 4.2020	 6.8420
 4.2060	 6.7930
 4.2090	 6.8290
 4.2120	 6.8380
 4.2160	 6.8410
 4.2190	 6.7020
 4.2230	 6.5560
 4.2260	 6.6830
 4.2300	 6.7370
 4.2330	 6.6340
 4.2360	 6.5700
 4.2400	 6.5330
 4.2430	 6.5370
 4.2470	 6.4580
 4.2500	 6.6080
 4.2540	 6.6710
 4.2570	 6.6940
 4.2610	 6.6350
 4.2640	 6.5720
 4.2680	 6.6440
 4.2710	 6.7820
 4.2750	 6.7370
 4.2780	 6.6770
 4.2820	 6.6080
 4.2850	 6.6000
 4.2890	 6.6330
 4.2930	 6.6490
 4.2960	 6.5810
 4.3000	 6.6060
 4.3030	 6.5930
 4.3070	 6.6360
 4.3100	 6.6410
 4.3140	 6.7070
 4.3180	 6.7650
 4.3210	 6.8160
 4.3250	 6.8150
 4.3280	 6.7820
 4.3320	 6.7630
 4.3360	 6.7900
 4.3390	 6.7850
 4.3430	 6.7750
 4.3470	 6.7620
 4.3500	 6.7720
 4.3540	 6.7930
 4.3570	 6.8280
 4.3610	 6.7720
 4.3650	 6.7930
 4.3680	 6.8440
 4.3720	 6.8630
 4.3760	 6.8250
 4.3800	 6.8270
 4.3830	 6.7970
 4.3870	 6.8160
 4.3910	 6.8530
 4.3940	 6.8860
 4.3980	 6.8840
 4.4020	 6.8330
 4.4060	 6.7600
 4.4090	 6.7430
 4.4130	 6.7270
 4.4170	 6.7270
 4.4210	 6.7550
 4.4240	 6.7710
 4.4280	 6.7370
 4.4320	 6.7480
 4.4360	 6.7560
 4.4400	 6.7740
 4.4430	 6.7170
 4.4470	 6.7240
 4.4510	 6.7140
 4.4550	 6.7310
 4.4590	 6.7500
 4.4620	 6.7730
 4.4660	 6.6860
 4.4700	 6.6170
 4.4740	 6.6420
 4.4780	 6.6650
 4.4820	 6.6320
 4.4860	 6.6940
 4.4900	 6.7230
 4.4930	 6.7270
 4.4970	 6.7120
 4.5010	 6.6700
 4.5050	 6.5810
 4.5090	 6.5830
 4.5130	 6.6140
 4.5170	 6.6240
 4.5210	 6.6290
 4.5250	 6.6840
 4.5290	 6.6460
 4.5330	 6.6170
 4.5370	 6.5870
 4.5410	 6.5980
 4.5450	 6.6250
 4.5490	 6.6330
 4.5530	 6.6160
 4.5570	 6.6070
 4.5610	 6.5830
 4.5650	 6.6250
 4.5690	 6.5880
 4.5730	 6.5790
 4.5770	 6.5810
 4.5810	 6.5550
 4.5850	 6.5190
 4.5890	 6.5270
 4.5930	 6.5260
 4.5970	 6.5460
 4.6010	 6.5300
 4.6050	 6.5150
 4.6090	 6.4590
 4.6130	 6.4230
 4.6170	 6.4530
 4.6220	 6.5230
 4.6260	 6.4580
 4.6300	 6.3970
 4.6340	 6.3670
 4.6380	 6.3560
 4.6420	 6.3940
 4.6460	 6.4330
 4.6510	 6.3740
 4.6550	 6.3950
 4.6590	 6.4100
 4.6630	 6.4060
 4.6670	 6.3800
 4.6720	 6.4560
 4.6760	 6.4550
 4.6800	 6.3940
 4.6840	 6.4290
 4.6880	 6.4860
 4.6930	 6.3810
 4.6970	 6.4010
 4.7010	 6.3930
 4.7050	 6.3860
 4.7100	 6.3840
 4.7140	 6.4460
 4.7180	 6.4100
 4.7230	 6.4000
 4.7270	 6.4180
 4.7310	 6.4350
 4.7360	 6.4040
 4.7400	 6.4510
 4.7440	 6.4440
 4.7490	 6.4050
 4.7530	 6.3510
 4.7570	 6.3710
 4.7620	 6.3710
 4.7660	 6.3950
 4.7700	 6.4270
 4.7750	 6.4570
 4.7790	 6.4160
 4.7840	 6.4630
 4.7880	 6.5100
 4.7920	 6.5250
 4.7970	 6.4680
 4.8010	 6.4450
 4.8060	 6.4000
 4.8100	 6.4460
 4.8150	 6.4200
 4.8190	 6.4590
 4.8240	 6.4350
 4.8280	 6.3640
 4.8330	 6.3590
 4.8370	 6.3760
 4.8420	 6.3820
 4.8460	 6.3890
 4.8510	 6.4040
 4.8550	 6.4500
 4.8600	 6.4370
 4.8640	 6.4540
 4.8690	 6.4220
 4.8730	 6.4270
 4.8780	 6.4220
 4.8830	 6.4450
 4.8870	 6.4520
 4.8920	 6.4450
 4.8960	 6.4230
 4.9010	 6.4850
 4.9060	 6.4010
 4.9100	 6.4130
 4.9150	 6.5180
 4.9200	 6.5560
 4.9240	 6.4860
 4.9290	 6.4740
 4.9340	 6.4640
 4.9380	 6.4630
 4.9430	 6.4030
 4.9480	 6.4240
 4.9530	 6.4600
 4.9570	 6.4830
 4.9620	 6.4690
 4.9670	 6.4780
 4.9720	 6.4620
 4.9760	 6.5060
 4.9810	 6.5020
 4.9860	 6.4890
 4.9910	 6.4950
 4.9960	 6.5720
 5.0000	 6.5320
 5.0050	 6.5000
 5.0100	 6.4800
 5.0150	 6.5320
 5.0200	 6.5330
 5.0250	 6.5110
 5.0290	 6.4650
 5.0340	 6.5230
 5.0390	 6.4980
 5.0440	 6.4790
 5.0490	 6.4690
 5.0540	 6.4820
 5.0590	 6.4820
 5.0640	 6.4740
 5.0690	 6.4470
 5.0740	 6.5430
 5.0790	 6.5250
 5.0840	 6.5370
 5.0890	 6.5600
 5.0940	 6.5580
 5.0990	 6.4600
 5.1040	 6.4790
 5.1090	 6.4890
 5.1140	 6.5010
 5.1190	 6.5000
 5.1240	 6.5610
 5.1290	 6.5400
 5.1340	 6.5440
 5.1390	 6.5080
 5.1440	 6.5060
 5.1490	 6.4380
 5.1540	 6.4200
 5.1600	 6.4090
 5.1650	 6.4630
 5.1700	 6.4740
 5.1750	 6.4490
 5.1800	 6.4300
 5.1850	 6.4770
 5.1910	 6.4850
 5.1960	 6.5410
 5.2010	 6.4830
 5.2060	 6.4580
 5.2110	 6.4280
 5.2170	 6.4370
 5.2220	 6.4340
 5.2270	 6.4510
 5.2320	 6.3960
 5.2380	 6.3880
 5.2430	 6.3680
 5.2480	 6.4160
 5.2540	 6.4430
 5.2590	 6.4660
 5.2640	 6.4630
 5.2700	 6.4890
 5.2750	 6.4150
 5.2800	 6.4120
 5.2860	 6.3740
 5.2910	 6.3300
 5.2970	 6.2950
 5.3020	 6.3550
 5.3070	 6.3350
 5.3130	 6.3920
 5.3180	 6.3960
 5.3240	 6.3860
 5.3290	 6.3530
 5.3350	 6.3680
 5.3400	 6.3330
 5.3460	 6.3600
 5.3510	 6.2920
 5.3570	 6.3250
 5.3620	 6.2990
 5.3680	 6.2810
 5.3730	 6.2610
 5.3790	 6.2260
 5.3850	 6.1720
 5.3900	 6.2280
 5.3960	 6.2100
 5.4010	 6.1720
 5.4070	 6.1200
 5.4130	 6.1180
 5.4180	 6.0880
 5.4240	 6.1130
 5.4300	 6.0990
 5.4350	 6.1170
 5.4410	 6.1030
