Name: Quercus agrifolia 2
Type: vegetation
Class: Tree
Genus: Quercus
Species: agrifolia
Sample No.: VH175
Owner: UCSB
Wavelength Range: VSWIR
Origin: 34.7156; -120.0603; WGS84
Collection Date: 6/9/2013
Description: Samples were collected as part of the HyspIRI Airborne Campaign. 48 individual plants were sampled in three times in 2013 - spring  summer  and fall. The name of the sample includes a 1  2  or 3 which references a different individual of the species. Samples were taken to JPL and processed within 48 hours of collection. The same leaves were processed in the Nicolet and then measured using the ASD.
Measurement: Bidirectional reflectance
First Column: X
Second Column: Y
X Units: Wavelength (micrometers)
Y Units: Reflectance (percentage)
First X Value: 0.35
Last X Value: 2.5
Number of X Values: 2151
Additional Information: vegetation.tree.quercus.agrifolia.vswir.vh175.ucsb.asd.ancillary.txt

 0.3500	 6.9960
 0.3510	 6.9980
 0.3520	 7.0260
 0.3530	 7.0920
 0.3540	 7.1690
 0.3550	 7.0480
 0.3560	 6.8650
 0.3570	 6.7440
 0.3580	 6.7810
 0.3590	 6.8660
 0.3600	 6.8850
 0.3610	 6.8230
 0.3620	 6.8090
 0.3630	 6.8740
 0.3640	 6.8770
 0.3650	 6.7440
 0.3660	 6.7980
 0.3670	 6.8810
 0.3680	 6.8940
 0.3690	 6.7980
 0.3700	 6.7810
 0.3710	 6.8070
 0.3720	 6.8210
 0.3730	 6.7880
 0.3740	 6.7690
 0.3750	 6.7650
 0.3760	 6.7600
 0.3770	 6.7430
 0.3780	 6.7050
 0.3790	 6.6740
 0.3800	 6.6950
 0.3810	 6.7440
 0.3820	 6.7990
 0.3830	 6.8260
 0.3840	 6.7670
 0.3850	 6.7410
 0.3860	 6.7630
 0.3870	 6.7900
 0.3880	 6.7970
 0.3890	 6.7610
 0.3900	 6.7130
 0.3910	 6.7330
 0.3920	 6.7120
 0.3930	 6.6890
 0.3940	 6.7130
 0.3950	 6.7550
 0.3960	 6.7790
 0.3970	 6.7750
 0.3980	 6.7620
 0.3990	 6.7810
 0.4000	 6.8150
 0.4010	 6.8270
 0.4020	 6.7500
 0.4030	 6.7420
 0.4040	 6.7510
 0.4050	 6.7250
 0.4060	 6.7710
 0.4070	 6.7930
 0.4080	 6.7960
 0.4090	 6.8270
 0.4100	 6.8490
 0.4110	 6.8570
 0.4120	 6.8520
 0.4130	 6.8450
 0.4140	 6.8650
 0.4150	 6.8950
 0.4160	 6.9100
 0.4170	 6.9310
 0.4180	 6.9430
 0.4190	 6.9460
 0.4200	 6.9650
 0.4210	 7.0160
 0.4220	 7.0480
 0.4230	 7.0430
 0.4240	 7.0790
 0.4250	 7.1060
 0.4260	 7.1140
 0.4270	 7.1190
 0.4280	 7.1450
 0.4290	 7.1670
 0.4300	 7.1790
 0.4310	 7.1800
 0.4320	 7.1990
 0.4330	 7.2140
 0.4340	 7.2110
 0.4350	 7.2270
 0.4360	 7.2410
 0.4370	 7.2470
 0.4380	 7.2620
 0.4390	 7.2760
 0.4400	 7.2870
 0.4410	 7.2950
 0.4420	 7.3050
 0.4430	 7.3290
 0.4440	 7.3490
 0.4450	 7.3530
 0.4460	 7.3660
 0.4470	 7.3800
 0.4480	 7.3900
 0.4490	 7.4030
 0.4500	 7.4210
 0.4510	 7.4420
 0.4520	 7.4610
 0.4530	 7.4660
 0.4540	 7.4770
 0.4550	 7.4900
 0.4560	 7.4870
 0.4570	 7.5020
 0.4580	 7.5080
 0.4590	 7.5000
 0.4600	 7.5250
 0.4610	 7.5410
 0.4620	 7.5480
 0.4630	 7.5560
 0.4640	 7.5590
 0.4650	 7.5600
 0.4660	 7.5650
 0.4670	 7.5710
 0.4680	 7.5740
 0.4690	 7.5750
 0.4700	 7.5780
 0.4710	 7.5760
 0.4720	 7.5710
 0.4730	 7.5720
 0.4740	 7.5840
 0.4750	 7.5780
 0.4760	 7.5750
 0.4770	 7.5870
 0.4780	 7.5990
 0.4790	 7.6040
 0.4800	 7.6050
 0.4810	 7.6060
 0.4820	 7.6090
 0.4830	 7.6150
 0.4840	 7.6230
 0.4850	 7.6280
 0.4860	 7.6410
 0.4870	 7.6600
 0.4880	 7.6790
 0.4890	 7.6930
 0.4900	 7.7030
 0.4910	 7.7190
 0.4920	 7.7460
 0.4930	 7.7690
 0.4940	 7.7920
 0.4950	 7.8200
 0.4960	 7.8490
 0.4970	 7.8900
 0.4980	 7.9300
 0.4990	 7.9680
 0.5000	 8.0170
 0.5010	 8.0710
 0.5020	 8.1240
 0.5030	 8.1860
 0.5040	 8.2510
 0.5050	 8.3290
 0.5060	 8.4180
 0.5070	 8.5060
 0.5080	 8.6070
 0.5090	 8.7170
 0.5100	 8.8260
 0.5110	 8.9470
 0.5120	 9.0820
 0.5130	 9.2300
 0.5140	 9.3810
 0.5150	 9.5510
 0.5160	 9.7360
 0.5170	 9.9230
 0.5180	10.1180
 0.5190	10.3170
 0.5200	10.5220
 0.5210	10.7330
 0.5220	10.9450
 0.5230	11.1580
 0.5240	11.3710
 0.5250	11.5870
 0.5260	11.7930
 0.5270	11.9850
 0.5280	12.1690
 0.5290	12.3480
 0.5300	12.5130
 0.5310	12.6650
 0.5320	12.8160
 0.5330	12.9560
 0.5340	13.0800
 0.5350	13.1920
 0.5360	13.3040
 0.5370	13.4070
 0.5380	13.5000
 0.5390	13.5880
 0.5400	13.6640
 0.5410	13.7370
 0.5420	13.8160
 0.5430	13.8870
 0.5440	13.9540
 0.5450	14.0190
 0.5460	14.0880
 0.5470	14.1530
 0.5480	14.2140
 0.5490	14.2700
 0.5500	14.3160
 0.5510	14.3570
 0.5520	14.3900
 0.5530	14.4110
 0.5540	14.4160
 0.5550	14.4110
 0.5560	14.3950
 0.5570	14.3640
 0.5580	14.3190
 0.5590	14.2600
 0.5600	14.1890
 0.5610	14.1110
 0.5620	14.0270
 0.5630	13.9350
 0.5640	13.8320
 0.5650	13.7160
 0.5660	13.5920
 0.5670	13.4640
 0.5680	13.3290
 0.5690	13.1910
 0.5700	13.0540
 0.5710	12.9180
 0.5720	12.7850
 0.5730	12.6610
 0.5740	12.5540
 0.5750	12.4660
 0.5760	12.3780
 0.5770	12.2870
 0.5780	12.1940
 0.5790	12.1110
 0.5800	12.0260
 0.5810	11.9420
 0.5820	11.8640
 0.5830	11.7990
 0.5840	11.7350
 0.5850	11.6640
 0.5860	11.5950
 0.5870	11.5240
 0.5880	11.4540
 0.5890	11.3950
 0.5900	11.3600
 0.5910	11.3390
 0.5920	11.3220
 0.5930	11.2990
 0.5940	11.2700
 0.5950	11.2450
 0.5960	11.2220
 0.5970	11.1890
 0.5980	11.1620
 0.5990	11.1340
 0.6000	11.1020
 0.6010	11.0670
 0.6020	11.0290
 0.6030	10.9910
 0.6040	10.9470
 0.6050	10.8990
 0.6060	10.8450
 0.6070	10.7830
 0.6080	10.7200
 0.6090	10.6520
 0.6100	10.5800
 0.6110	10.5100
 0.6120	10.4400
 0.6130	10.3690
 0.6140	10.2980
 0.6150	10.2310
 0.6160	10.1700
 0.6170	10.1130
 0.6180	10.0540
 0.6190	10.0050
 0.6200	 9.9600
 0.6210	 9.9180
 0.6220	 9.8850
 0.6230	 9.8560
 0.6240	 9.8300
 0.6250	 9.8070
 0.6260	 9.7950
 0.6270	 9.7830
 0.6280	 9.7730
 0.6290	 9.7650
 0.6300	 9.7570
 0.6310	 9.7470
 0.6320	 9.7350
 0.6330	 9.7170
 0.6340	 9.6940
 0.6350	 9.6640
 0.6360	 9.6210
 0.6370	 9.5650
 0.6380	 9.5040
 0.6390	 9.4390
 0.6400	 9.3680
 0.6410	 9.2890
 0.6420	 9.2040
 0.6430	 9.1180
 0.6440	 9.0380
 0.6450	 8.9580
 0.6460	 8.8790
 0.6470	 8.8120
 0.6480	 8.7480
 0.6490	 8.6930
 0.6500	 8.6450
 0.6510	 8.6020
 0.6520	 8.5680
 0.6530	 8.5340
 0.6540	 8.4980
 0.6550	 8.4610
 0.6560	 8.4200
 0.6570	 8.3750
 0.6580	 8.3260
 0.6590	 8.2720
 0.6600	 8.2150
 0.6610	 8.1600
 0.6620	 8.1040
 0.6630	 8.0560
 0.6640	 8.0050
 0.6650	 7.9550
 0.6660	 7.9140
 0.6670	 7.8800
 0.6680	 7.8540
 0.6690	 7.8390
 0.6700	 7.8220
 0.6710	 7.8080
 0.6720	 7.8020
 0.6730	 7.8000
 0.6740	 7.8010
 0.6750	 7.8050
 0.6760	 7.8150
 0.6770	 7.8330
 0.6780	 7.8490
 0.6790	 7.8680
 0.6800	 7.8970
 0.6810	 7.9320
 0.6820	 7.9750
 0.6830	 8.0260
 0.6840	 8.0950
 0.6850	 8.1850
 0.6860	 8.2960
 0.6870	 8.4310
 0.6880	 8.6020
 0.6890	 8.8140
 0.6900	 9.0800
 0.6910	 9.4040
 0.6920	 9.7970
 0.6930	10.2650
 0.6940	10.8100
 0.6950	11.4350
 0.6960	12.1390
 0.6970	12.9210
 0.6980	13.7780
 0.6990	14.6940
 0.7000	15.6580
 0.7010	16.6620
 0.7020	17.7020
 0.7030	18.7560
 0.7040	19.8130
 0.7050	20.8640
 0.7060	21.9050
 0.7070	22.9350
 0.7080	23.9470
 0.7090	24.9350
 0.7100	25.9010
 0.7110	26.8480
 0.7120	27.7730
 0.7130	28.6730
 0.7140	29.5470
 0.7150	30.3980
 0.7160	31.2250
 0.7170	32.0230
 0.7180	32.7970
 0.7190	33.5460
 0.7200	34.2680
 0.7210	34.9610
 0.7220	35.6300
 0.7230	36.2730
 0.7240	36.8870
 0.7250	37.4710
 0.7260	38.0260
 0.7270	38.5550
 0.7280	39.0560
 0.7290	39.5280
 0.7300	39.9740
 0.7310	40.3970
 0.7320	40.7970
 0.7330	41.1750
 0.7340	41.5300
 0.7350	41.8580
 0.7360	42.1710
 0.7370	42.4660
 0.7380	42.7400
 0.7390	42.9950
 0.7400	43.2380
 0.7410	43.4670
 0.7420	43.6770
 0.7430	43.8720
 0.7440	44.0520
 0.7450	44.2190
 0.7460	44.3760
 0.7470	44.5220
 0.7480	44.6560
 0.7490	44.7780
 0.7500	44.8930
 0.7510	44.9970
 0.7520	45.0940
 0.7530	45.1860
 0.7540	45.2660
 0.7550	45.3410
 0.7560	45.4120
 0.7570	45.4730
 0.7580	45.5330
 0.7590	45.5890
 0.7600	45.6400
 0.7610	45.6900
 0.7620	45.7360
 0.7630	45.7760
 0.7640	45.8090
 0.7650	45.8420
 0.7660	45.8780
 0.7670	45.9120
 0.7680	45.9380
 0.7690	45.9650
 0.7700	45.9890
 0.7710	46.0120
 0.7720	46.0370
 0.7730	46.0570
 0.7740	46.0750
 0.7750	46.0950
 0.7760	46.1160
 0.7770	46.1340
 0.7780	46.1520
 0.7790	46.1750
 0.7800	46.1930
 0.7810	46.2090
 0.7820	46.2260
 0.7830	46.2450
 0.7840	46.2600
 0.7850	46.2720
 0.7860	46.2850
 0.7870	46.3060
 0.7880	46.3210
 0.7890	46.3340
 0.7900	46.3480
 0.7910	46.3580
 0.7920	46.3690
 0.7930	46.3820
 0.7940	46.3960
 0.7950	46.4080
 0.7960	46.4200
 0.7970	46.4340
 0.7980	46.4470
 0.7990	46.4580
 0.8000	46.4670
 0.8010	46.4740
 0.8020	46.4840
 0.8030	46.4940
 0.8040	46.5030
 0.8050	46.5120
 0.8060	46.5180
 0.8070	46.5250
 0.8080	46.5330
 0.8090	46.5420
 0.8100	46.5530
 0.8110	46.5610
 0.8120	46.5670
 0.8130	46.5720
 0.8140	46.5730
 0.8150	46.5770
 0.8160	46.5920
 0.8170	46.6010
 0.8180	46.6090
 0.8190	46.6130
 0.8200	46.6130
 0.8210	46.6180
 0.8220	46.6280
 0.8230	46.6380
 0.8240	46.6420
 0.8250	46.6480
 0.8260	46.6510
 0.8270	46.6520
 0.8280	46.6590
 0.8290	46.6570
 0.8300	46.6580
 0.8310	46.6710
 0.8320	46.6740
 0.8330	46.6790
 0.8340	46.6860
 0.8350	46.6900
 0.8360	46.6990
 0.8370	46.7090
 0.8380	46.7180
 0.8390	46.7200
 0.8400	46.7200
 0.8410	46.7260
 0.8420	46.7380
 0.8430	46.7510
 0.8440	46.7580
 0.8450	46.7630
 0.8460	46.7740
 0.8470	46.7800
 0.8480	46.7870
 0.8490	46.7960
 0.8500	46.8050
 0.8510	46.8140
 0.8520	46.8240
 0.8530	46.8330
 0.8540	46.8390
 0.8550	46.8520
 0.8560	46.8600
 0.8570	46.8630
 0.8580	46.8750
 0.8590	46.8810
 0.8600	46.8870
 0.8610	46.8970
 0.8620	46.9040
 0.8630	46.9120
 0.8640	46.9230
 0.8650	46.9360
 0.8660	46.9450
 0.8670	46.9500
 0.8680	46.9550
 0.8690	46.9620
 0.8700	46.9750
 0.8710	46.9840
 0.8720	46.9880
 0.8730	46.9930
 0.8740	46.9990
 0.8750	47.0050
 0.8760	47.0120
 0.8770	47.0240
 0.8780	47.0310
 0.8790	47.0360
 0.8800	47.0440
 0.8810	47.0550
 0.8820	47.0630
 0.8830	47.0720
 0.8840	47.0810
 0.8850	47.0850
 0.8860	47.0850
 0.8870	47.0880
 0.8880	47.0950
 0.8890	47.0980
 0.8900	47.1030
 0.8910	47.1100
 0.8920	47.1170
 0.8930	47.1240
 0.8940	47.1290
 0.8950	47.1310
 0.8960	47.1290
 0.8970	47.1330
 0.8980	47.1410
 0.8990	47.1470
 0.9000	47.1510
 0.9010	47.1610
 0.9020	47.1670
 0.9030	47.1660
 0.9040	47.1750
 0.9050	47.1830
 0.9060	47.1870
 0.9070	47.1880
 0.9080	47.1860
 0.9090	47.1890
 0.9100	47.1950
 0.9110	47.2000
 0.9120	47.2020
 0.9130	47.2030
 0.9140	47.2030
 0.9150	47.2070
 0.9160	47.2170
 0.9170	47.2190
 0.9180	47.2170
 0.9190	47.2210
 0.9200	47.2220
 0.9210	47.2220
 0.9220	47.2240
 0.9230	47.2310
 0.9240	47.2200
 0.9250	47.2160
 0.9260	47.2200
 0.9270	47.2170
 0.9280	47.2130
 0.9290	47.2060
 0.9300	47.1970
 0.9310	47.1930
 0.9320	47.1880
 0.9330	47.1800
 0.9340	47.1710
 0.9350	47.1660
 0.9360	47.1530
 0.9370	47.1400
 0.9380	47.1290
 0.9390	47.1150
 0.9400	47.1120
 0.9410	47.1020
 0.9420	47.0800
 0.9430	47.0780
 0.9440	47.0610
 0.9450	47.0390
 0.9460	47.0180
 0.9470	46.9840
 0.9480	46.9480
 0.9490	46.9230
 0.9500	46.9090
 0.9510	46.8680
 0.9520	46.8420
 0.9530	46.8170
 0.9540	46.7740
 0.9550	46.7340
 0.9560	46.7010
 0.9570	46.6740
 0.9580	46.6460
 0.9590	46.6100
 0.9600	46.5870
 0.9610	46.5640
 0.9620	46.5250
 0.9630	46.4950
 0.9640	46.4800
 0.9650	46.4690
 0.9660	46.4520
 0.9670	46.4380
 0.9680	46.4240
 0.9690	46.4130
 0.9700	46.4100
 0.9710	46.3920
 0.9720	46.3840
 0.9730	46.3830
 0.9740	46.3760
 0.9750	46.3730
 0.9760	46.3770
 0.9770	46.3800
 0.9780	46.3740
 0.9790	46.3850
 0.9800	46.3840
 0.9810	46.3730
 0.9820	46.3680
 0.9830	46.3980
 0.9840	46.4250
 0.9850	46.4270
 0.9860	46.4080
 0.9870	46.4200
 0.9880	46.4370
 0.9890	46.4510
 0.9900	46.4630
 0.9910	46.4570
 0.9920	46.4810
 0.9930	46.5190
 0.9940	46.5280
 0.9950	46.5280
 0.9960	46.5420
 0.9970	46.5660
 0.9980	46.5870
 0.9990	46.6180
 1.0000	46.7080
 1.0010	46.8800
 1.0020	46.9820
 1.0030	47.0010
 1.0040	47.0220
 1.0050	47.0420
 1.0060	47.0600
 1.0070	47.0770
 1.0080	47.0930
 1.0090	47.1040
 1.0100	47.1220
 1.0110	47.1440
 1.0120	47.1620
 1.0130	47.1820
 1.0140	47.2000
 1.0150	47.2160
 1.0160	47.2310
 1.0170	47.2460
 1.0180	47.2630
 1.0190	47.2780
 1.0200	47.2930
 1.0210	47.3120
 1.0220	47.3270
 1.0230	47.3420
 1.0240	47.3550
 1.0250	47.3690
 1.0260	47.3810
 1.0270	47.3960
 1.0280	47.4110
 1.0290	47.4280
 1.0300	47.4460
 1.0310	47.4630
 1.0320	47.4840
 1.0330	47.4990
 1.0340	47.5090
 1.0350	47.5200
 1.0360	47.5300
 1.0370	47.5430
 1.0380	47.5570
 1.0390	47.5740
 1.0400	47.5870
 1.0410	47.6000
 1.0420	47.6130
 1.0430	47.6260
 1.0440	47.6380
 1.0450	47.6510
 1.0460	47.6620
 1.0470	47.6710
 1.0480	47.6810
 1.0490	47.6930
 1.0500	47.7040
 1.0510	47.7190
 1.0520	47.7290
 1.0530	47.7380
 1.0540	47.7470
 1.0550	47.7550
 1.0560	47.7610
 1.0570	47.7690
 1.0580	47.7770
 1.0590	47.7850
 1.0600	47.7940
 1.0610	47.8030
 1.0620	47.8160
 1.0630	47.8230
 1.0640	47.8270
 1.0650	47.8310
 1.0660	47.8290
 1.0670	47.8320
 1.0680	47.8370
 1.0690	47.8450
 1.0700	47.8510
 1.0710	47.8600
 1.0720	47.8640
 1.0730	47.8660
 1.0740	47.8670
 1.0750	47.8650
 1.0760	47.8660
 1.0770	47.8680
 1.0780	47.8700
 1.0790	47.8730
 1.0800	47.8740
 1.0810	47.8740
 1.0820	47.8760
 1.0830	47.8790
 1.0840	47.8800
 1.0850	47.8790
 1.0860	47.8800
 1.0870	47.8810
 1.0880	47.8800
 1.0890	47.8790
 1.0900	47.8790
 1.0910	47.8760
 1.0920	47.8690
 1.0930	47.8650
 1.0940	47.8580
 1.0950	47.8530
 1.0960	47.8510
 1.0970	47.8460
 1.0980	47.8380
 1.0990	47.8340
 1.1000	47.8300
 1.1010	47.8260
 1.1020	47.8230
 1.1030	47.8210
 1.1040	47.8160
 1.1050	47.8080
 1.1060	47.8010
 1.1070	47.7940
 1.1080	47.7850
 1.1090	47.7750
 1.1100	47.7660
 1.1110	47.7590
 1.1120	47.7490
 1.1130	47.7400
 1.1140	47.7280
 1.1150	47.7120
 1.1160	47.6970
 1.1170	47.6820
 1.1180	47.6650
 1.1190	47.6490
 1.1200	47.6310
 1.1210	47.6080
 1.1220	47.5850
 1.1230	47.5590
 1.1240	47.5300
 1.1250	47.5000
 1.1260	47.4730
 1.1270	47.4360
 1.1280	47.3960
 1.1290	47.3520
 1.1300	47.3020
 1.1310	47.2490
 1.1320	47.1950
 1.1330	47.1340
 1.1340	47.0680
 1.1350	46.9960
 1.1360	46.9180
 1.1370	46.8360
 1.1380	46.7510
 1.1390	46.6640
 1.1400	46.5700
 1.1410	46.4740
 1.1420	46.3760
 1.1430	46.2760
 1.1440	46.1760
 1.1450	46.0760
 1.1460	45.9770
 1.1470	45.8790
 1.1480	45.7830
 1.1490	45.6850
 1.1500	45.5930
 1.1510	45.5010
 1.1520	45.4170
 1.1530	45.3380
 1.1540	45.2660
 1.1550	45.1990
 1.1560	45.1360
 1.1570	45.0780
 1.1580	45.0280
 1.1590	44.9810
 1.1600	44.9390
 1.1610	44.9060
 1.1620	44.8720
 1.1630	44.8400
 1.1640	44.8140
 1.1650	44.7890
 1.1660	44.7660
 1.1670	44.7480
 1.1680	44.7380
 1.1690	44.7230
 1.1700	44.7100
 1.1710	44.6980
 1.1720	44.6850
 1.1730	44.6730
 1.1740	44.6610
 1.1750	44.6510
 1.1760	44.6370
 1.1770	44.6220
 1.1780	44.6080
 1.1790	44.5930
 1.1800	44.5770
 1.1810	44.5620
 1.1820	44.5490
 1.1830	44.5350
 1.1840	44.5190
 1.1850	44.5050
 1.1860	44.4920
 1.1870	44.4810
 1.1880	44.4700
 1.1890	44.4600
 1.1900	44.4500
 1.1910	44.4390
 1.1920	44.4300
 1.1930	44.4240
 1.1940	44.4190
 1.1950	44.4160
 1.1960	44.4140
 1.1970	44.4110
 1.1980	44.4100
 1.1990	44.4080
 1.2000	44.4080
 1.2010	44.4130
 1.2020	44.4170
 1.2030	44.4250
 1.2040	44.4330
 1.2050	44.4400
 1.2060	44.4510
 1.2070	44.4620
 1.2080	44.4740
 1.2090	44.4910
 1.2100	44.5080
 1.2110	44.5270
 1.2120	44.5490
 1.2130	44.5710
 1.2140	44.5930
 1.2150	44.6190
 1.2160	44.6460
 1.2170	44.6740
 1.2180	44.7060
 1.2190	44.7390
 1.2200	44.7720
 1.2210	44.8030
 1.2220	44.8350
 1.2230	44.8670
 1.2240	44.9010
 1.2250	44.9360
 1.2260	44.9700
 1.2270	45.0050
 1.2280	45.0380
 1.2290	45.0710
 1.2300	45.1020
 1.2310	45.1290
 1.2320	45.1550
 1.2330	45.1810
 1.2340	45.2070
 1.2350	45.2350
 1.2360	45.2610
 1.2370	45.2880
 1.2380	45.3120
 1.2390	45.3340
 1.2400	45.3560
 1.2410	45.3790
 1.2420	45.4000
 1.2430	45.4190
 1.2440	45.4380
 1.2450	45.4550
 1.2460	45.4720
 1.2470	45.4890
 1.2480	45.5060
 1.2490	45.5210
 1.2500	45.5370
 1.2510	45.5530
 1.2520	45.5680
 1.2530	45.5840
 1.2540	45.5960
 1.2550	45.6070
 1.2560	45.6160
 1.2570	45.6250
 1.2580	45.6350
 1.2590	45.6440
 1.2600	45.6540
 1.2610	45.6630
 1.2620	45.6700
 1.2630	45.6750
 1.2640	45.6800
 1.2650	45.6830
 1.2660	45.6850
 1.2670	45.6860
 1.2680	45.6890
 1.2690	45.6910
 1.2700	45.6930
 1.2710	45.6940
 1.2720	45.6930
 1.2730	45.6940
 1.2740	45.6940
 1.2750	45.6900
 1.2760	45.6880
 1.2770	45.6840
 1.2780	45.6790
 1.2790	45.6740
 1.2800	45.6680
 1.2810	45.6620
 1.2820	45.6560
 1.2830	45.6490
 1.2840	45.6400
 1.2850	45.6300
 1.2860	45.6180
 1.2870	45.6040
 1.2880	45.5890
 1.2890	45.5750
 1.2900	45.5620
 1.2910	45.5460
 1.2920	45.5280
 1.2930	45.5060
 1.2940	45.4800
 1.2950	45.4570
 1.2960	45.4320
 1.2970	45.4060
 1.2980	45.3770
 1.2990	45.3440
 1.3000	45.3110
 1.3010	45.2760
 1.3020	45.2400
 1.3030	45.2030
 1.3040	45.1610
 1.3050	45.1180
 1.3060	45.0710
 1.3070	45.0230
 1.3080	44.9740
 1.3090	44.9210
 1.3100	44.8650
 1.3110	44.8060
 1.3120	44.7450
 1.3130	44.6820
 1.3140	44.6160
 1.3150	44.5490
 1.3160	44.4790
 1.3170	44.4050
 1.3180	44.3300
 1.3190	44.2530
 1.3200	44.1730
 1.3210	44.0880
 1.3220	44.0010
 1.3230	43.9070
 1.3240	43.8110
 1.3250	43.7160
 1.3260	43.6190
 1.3270	43.5210
 1.3280	43.4210
 1.3290	43.3170
 1.3300	43.2100
 1.3310	43.1010
 1.3320	42.9890
 1.3330	42.8750
 1.3340	42.7610
 1.3350	42.6460
 1.3360	42.5300
 1.3370	42.4140
 1.3380	42.2960
 1.3390	42.1750
 1.3400	42.0540
 1.3410	41.9360
 1.3420	41.8160
 1.3430	41.6970
 1.3440	41.5810
 1.3450	41.4640
 1.3460	41.3460
 1.3470	41.2330
 1.3480	41.1190
 1.3490	41.0080
 1.3500	40.9000
 1.3510	40.7910
 1.3520	40.6820
 1.3530	40.5730
 1.3540	40.4630
 1.3550	40.3510
 1.3560	40.2390
 1.3570	40.1270
 1.3580	40.0140
 1.3590	39.9000
 1.3600	39.7820
 1.3610	39.6600
 1.3620	39.5330
 1.3630	39.4020
 1.3640	39.2670
 1.3650	39.1270
 1.3660	38.9810
 1.3670	38.8280
 1.3680	38.6670
 1.3690	38.4970
 1.3700	38.3150
 1.3710	38.1220
 1.3720	37.9170
 1.3730	37.6970
 1.3740	37.4660
 1.3750	37.2190
 1.3760	36.9510
 1.3770	36.6650
 1.3780	36.3550
 1.3790	36.0230
 1.3800	35.6720
 1.3810	35.2940
 1.3820	34.8990
 1.3830	34.4850
 1.3840	34.0490
 1.3850	33.5900
 1.3860	33.1180
 1.3870	32.6230
 1.3880	32.1210
 1.3890	31.6050
 1.3900	31.0770
 1.3910	30.5430
 1.3920	30.0010
 1.3930	29.4520
 1.3940	28.9030
 1.3950	28.3480
 1.3960	27.7970
 1.3970	27.2540
 1.3980	26.7170
 1.3990	26.1970
 1.4000	25.6880
 1.4010	25.1880
 1.4020	24.7080
 1.4030	24.2390
 1.4040	23.7880
 1.4050	23.3590
 1.4060	22.9470
 1.4070	22.5600
 1.4080	22.1940
 1.4090	21.8460
 1.4100	21.5210
 1.4110	21.2140
 1.4120	20.9270
 1.4130	20.6600
 1.4140	20.4120
 1.4150	20.1850
 1.4160	19.9740
 1.4170	19.7790
 1.4180	19.6010
 1.4190	19.4360
 1.4200	19.2840
 1.4210	19.1450
 1.4220	19.0190
 1.4230	18.9070
 1.4240	18.8040
 1.4250	18.7100
 1.4260	18.6270
 1.4270	18.5500
 1.4280	18.4810
 1.4290	18.4200
 1.4300	18.3670
 1.4310	18.3200
 1.4320	18.2810
 1.4330	18.2470
 1.4340	18.2200
 1.4350	18.1960
 1.4360	18.1780
 1.4370	18.1640
 1.4380	18.1540
 1.4390	18.1480
 1.4400	18.1460
 1.4410	18.1470
 1.4420	18.1510
 1.4430	18.1570
 1.4440	18.1650
 1.4450	18.1750
 1.4460	18.1870
 1.4470	18.2010
 1.4480	18.2180
 1.4490	18.2380
 1.4500	18.2570
 1.4510	18.2770
 1.4520	18.2990
 1.4530	18.3200
 1.4540	18.3440
 1.4550	18.3700
 1.4560	18.3980
 1.4570	18.4280
 1.4580	18.4620
 1.4590	18.4970
 1.4600	18.5360
 1.4610	18.5790
 1.4620	18.6260
 1.4630	18.6790
 1.4640	18.7340
 1.4650	18.7950
 1.4660	18.8610
 1.4670	18.9310
 1.4680	19.0060
 1.4690	19.0850
 1.4700	19.1680
