Name: Arctostaphylos glandulosa 3
Type: vegetation
Class: Shrub
Genus: Arctostaphylos
Species: glandulosa
Sample No.: VH252
Owner: UCSB
Wavelength Range: VSWIR
Origin: 37.0443; -119.3026; WGS84
Collection Date: 11/2/2013
Description: Samples were collected as part of the HyspIRI Airborne Campaign. 48 individual plants were sampled in three times in 2013 - spring  summer  and fall. The name of the sample includes a 1  2  or 3 which references a different individual of the species. Samples were taken to JPL and processed within 48 hours of collection. The same leaves were processed in the Nicolet and then measured using the ASD.
Measurement: Bidirectional reflectance
First Column: X
Second Column: Y
X Units: Wavelength (micrometers)
Y Units: Reflectance (percentage)
First X Value: 0.35
Last X Value: 2.5
Number of X Values: 2151
Additional Information: vegetation.shrub.arctostaphylos.glandulosa.vswir.vh252.ucsb.asd.ancillary.txt

 0.3500	 4.3310
 0.3510	 4.4280
 0.3520	 4.3500
 0.3530	 4.2600
 0.3540	 4.2930
 0.3550	 4.2120
 0.3560	 4.2140
 0.3570	 4.2800
 0.3580	 4.2900
 0.3590	 4.2530
 0.3600	 4.2280
 0.3610	 4.2400
 0.3620	 4.2680
 0.3630	 4.2360
 0.3640	 4.2320
 0.3650	 4.3220
 0.3660	 4.3330
 0.3670	 4.3370
 0.3680	 4.3530
 0.3690	 4.3580
 0.3700	 4.3520
 0.3710	 4.3020
 0.3720	 4.2380
 0.3730	 4.3120
 0.3740	 4.3590
 0.3750	 4.3740
 0.3760	 4.3930
 0.3770	 4.3630
 0.3780	 4.3350
 0.3790	 4.3370
 0.3800	 4.3640
 0.3810	 4.3820
 0.3820	 4.3660
 0.3830	 4.3270
 0.3840	 4.3530
 0.3850	 4.3510
 0.3860	 4.3470
 0.3870	 4.3910
 0.3880	 4.3630
 0.3890	 4.3610
 0.3900	 4.4020
 0.3910	 4.4080
 0.3920	 4.4230
 0.3930	 4.4380
 0.3940	 4.4380
 0.3950	 4.4150
 0.3960	 4.4580
 0.3970	 4.5110
 0.3980	 4.4790
 0.3990	 4.5240
 0.4000	 4.5600
 0.4010	 4.5610
 0.4020	 4.6010
 0.4030	 4.6420
 0.4040	 4.6860
 0.4050	 4.7400
 0.4060	 4.7940
 0.4070	 4.8430
 0.4080	 4.8850
 0.4090	 4.9250
 0.4100	 4.9820
 0.4110	 5.0430
 0.4120	 5.0980
 0.4130	 5.1510
 0.4140	 5.1940
 0.4150	 5.2420
 0.4160	 5.3070
 0.4170	 5.3770
 0.4180	 5.4260
 0.4190	 5.4610
 0.4200	 5.5180
 0.4210	 5.5490
 0.4220	 5.5850
 0.4230	 5.6430
 0.4240	 5.6690
 0.4250	 5.7070
 0.4260	 5.7520
 0.4270	 5.7840
 0.4280	 5.8250
 0.4290	 5.8530
 0.4300	 5.8670
 0.4310	 5.9070
 0.4320	 5.9330
 0.4330	 5.9540
 0.4340	 5.9790
 0.4350	 5.9800
 0.4360	 6.0040
 0.4370	 6.0450
 0.4380	 6.0620
 0.4390	 6.0870
 0.4400	 6.1160
 0.4410	 6.1410
 0.4420	 6.1580
 0.4430	 6.1820
 0.4440	 6.2050
 0.4450	 6.2150
 0.4460	 6.2410
 0.4470	 6.2620
 0.4480	 6.2770
 0.4490	 6.3110
 0.4500	 6.3290
 0.4510	 6.3490
 0.4520	 6.3840
 0.4530	 6.3960
 0.4540	 6.4130
 0.4550	 6.4370
 0.4560	 6.4550
 0.4570	 6.4690
 0.4580	 6.4800
 0.4590	 6.4900
 0.4600	 6.5030
 0.4610	 6.5090
 0.4620	 6.5140
 0.4630	 6.5270
 0.4640	 6.5360
 0.4650	 6.5440
 0.4660	 6.5510
 0.4670	 6.5530
 0.4680	 6.5590
 0.4690	 6.5700
 0.4700	 6.5800
 0.4710	 6.5780
 0.4720	 6.5800
 0.4730	 6.5900
 0.4740	 6.5970
 0.4750	 6.6030
 0.4760	 6.6050
 0.4770	 6.6050
 0.4780	 6.6130
 0.4790	 6.6130
 0.4800	 6.6140
 0.4810	 6.6260
 0.4820	 6.6330
 0.4830	 6.6400
 0.4840	 6.6480
 0.4850	 6.6530
 0.4860	 6.6590
 0.4870	 6.6720
 0.4880	 6.6960
 0.4890	 6.7160
 0.4900	 6.7390
 0.4910	 6.7660
 0.4920	 6.7910
 0.4930	 6.8200
 0.4940	 6.8580
 0.4950	 6.9070
 0.4960	 6.9600
 0.4970	 7.0160
 0.4980	 7.0740
 0.4990	 7.1360
 0.5000	 7.2070
 0.5010	 7.2930
 0.5020	 7.3870
 0.5030	 7.4790
 0.5040	 7.5880
 0.5050	 7.7070
 0.5060	 7.8330
 0.5070	 7.9850
 0.5080	 8.1390
 0.5090	 8.2990
 0.5100	 8.4760
 0.5110	 8.6710
 0.5120	 8.8800
 0.5130	 9.0990
 0.5140	 9.3330
 0.5150	 9.5770
 0.5160	 9.8290
 0.5170	10.0890
 0.5180	10.3540
 0.5190	10.6280
 0.5200	10.9080
 0.5210	11.1900
 0.5220	11.4740
 0.5230	11.7490
 0.5240	12.0120
 0.5250	12.2710
 0.5260	12.5100
 0.5270	12.7320
 0.5280	12.9470
 0.5290	13.1440
 0.5300	13.3250
 0.5310	13.4950
 0.5320	13.6540
 0.5330	13.7980
 0.5340	13.9260
 0.5350	14.0410
 0.5360	14.1410
 0.5370	14.2300
 0.5380	14.3110
 0.5390	14.3860
 0.5400	14.4510
 0.5410	14.5050
 0.5420	14.5510
 0.5430	14.6050
 0.5440	14.6560
 0.5450	14.7080
 0.5460	14.7690
 0.5470	14.8330
 0.5480	14.8950
 0.5490	14.9470
 0.5500	14.9860
 0.5510	15.0170
 0.5520	15.0380
 0.5530	15.0460
 0.5540	15.0410
 0.5550	15.0200
 0.5560	14.9830
 0.5570	14.9310
 0.5580	14.8650
 0.5590	14.7850
 0.5600	14.6920
 0.5610	14.5870
 0.5620	14.4690
 0.5630	14.3410
 0.5640	14.2050
 0.5650	14.0600
 0.5660	13.9110
 0.5670	13.7610
 0.5680	13.6080
 0.5690	13.4470
 0.5700	13.2800
 0.5710	13.1140
 0.5720	12.9530
 0.5730	12.7990
 0.5740	12.6490
 0.5750	12.4990
 0.5760	12.3540
 0.5770	12.2200
 0.5780	12.0990
 0.5790	11.9880
 0.5800	11.8800
 0.5810	11.7760
 0.5820	11.6770
 0.5830	11.5800
 0.5840	11.4880
 0.5850	11.4050
 0.5860	11.3290
 0.5870	11.2590
 0.5880	11.1990
 0.5890	11.1500
 0.5900	11.0910
 0.5910	11.0320
 0.5920	10.9760
 0.5930	10.9250
 0.5940	10.8840
 0.5950	10.8490
 0.5960	10.8170
 0.5970	10.7830
 0.5980	10.7480
 0.5990	10.7080
 0.6000	10.6610
 0.6010	10.6190
 0.6020	10.5740
 0.6030	10.5220
 0.6040	10.4610
 0.6050	10.4000
 0.6060	10.3360
 0.6070	10.2630
 0.6080	10.1880
 0.6090	10.1050
 0.6100	10.0130
 0.6110	 9.9150
 0.6120	 9.8380
 0.6130	 9.7660
 0.6140	 9.6890
 0.6150	 9.6140
 0.6160	 9.5420
 0.6170	 9.4720
 0.6180	 9.4030
 0.6190	 9.3420
 0.6200	 9.2890
 0.6210	 9.2450
 0.6220	 9.2030
 0.6230	 9.1690
 0.6240	 9.1420
 0.6250	 9.1220
 0.6260	 9.1020
 0.6270	 9.0880
 0.6280	 9.0800
 0.6290	 9.0760
 0.6300	 9.0680
 0.6310	 9.0580
 0.6320	 9.0460
 0.6330	 9.0280
 0.6340	 9.0030
 0.6350	 8.9690
 0.6360	 8.9220
 0.6370	 8.8590
 0.6380	 8.7910
 0.6390	 8.7150
 0.6400	 8.6200
 0.6410	 8.5190
 0.6420	 8.4160
 0.6430	 8.3110
 0.6440	 8.2000
 0.6450	 8.0920
 0.6460	 7.9880
 0.6470	 7.8880
 0.6480	 7.8010
 0.6490	 7.7200
 0.6500	 7.6480
 0.6510	 7.5900
 0.6520	 7.5410
 0.6530	 7.4960
 0.6540	 7.4510
 0.6550	 7.4020
 0.6560	 7.3520
 0.6570	 7.2980
 0.6580	 7.2390
 0.6590	 7.1680
 0.6600	 7.0930
 0.6610	 7.0190
 0.6620	 6.9450
 0.6630	 6.8730
 0.6640	 6.8060
 0.6650	 6.7420
 0.6660	 6.6870
 0.6670	 6.6380
 0.6680	 6.5980
 0.6690	 6.5650
 0.6700	 6.5400
 0.6710	 6.5210
 0.6720	 6.5080
 0.6730	 6.5020
 0.6740	 6.5020
 0.6750	 6.5070
 0.6760	 6.5180
 0.6770	 6.5300
 0.6780	 6.5490
 0.6790	 6.5780
 0.6800	 6.6170
 0.6810	 6.6640
 0.6820	 6.7200
 0.6830	 6.7890
 0.6840	 6.8810
 0.6850	 6.9980
 0.6860	 7.1420
 0.6870	 7.3150
 0.6880	 7.5300
 0.6890	 7.8010
 0.6900	 8.1320
 0.6910	 8.5270
 0.6920	 8.9930
 0.6930	 9.5320
 0.6940	10.1460
 0.6950	10.8310
 0.6960	11.5780
 0.6970	12.3870
 0.6980	13.2560
 0.6990	14.1740
 0.7000	15.1390
 0.7010	16.1430
 0.7020	17.1740
 0.7030	18.2240
 0.7040	19.2910
 0.7050	20.3740
 0.7060	21.4730
 0.7070	22.5730
 0.7080	23.6760
 0.7090	24.7910
 0.7100	25.9110
 0.7110	27.0290
 0.7120	28.1470
 0.7130	29.2720
 0.7140	30.3940
 0.7150	31.5150
 0.7160	32.6350
 0.7170	33.7440
 0.7180	34.8490
 0.7190	35.9510
 0.7200	37.0450
 0.7210	38.1240
 0.7220	39.1890
 0.7230	40.2350
 0.7240	41.2610
 0.7250	42.2550
 0.7260	43.2200
 0.7270	44.1570
 0.7280	45.0610
 0.7290	45.9560
 0.7300	46.8130
 0.7310	47.5920
 0.7320	48.3550
 0.7330	49.0990
 0.7340	49.8140
 0.7350	50.4890
 0.7360	51.1230
 0.7370	51.7260
 0.7380	52.2990
 0.7390	52.8260
 0.7400	53.3370
 0.7410	53.8240
 0.7420	54.2670
 0.7430	54.6820
 0.7440	55.0720
 0.7450	55.4410
 0.7460	55.7920
 0.7470	56.1070
 0.7480	56.3900
 0.7490	56.6520
 0.7500	56.9080
 0.7510	57.1440
 0.7520	57.3540
 0.7530	57.5370
 0.7540	57.6940
 0.7550	57.8510
 0.7560	58.0030
 0.7570	58.1210
 0.7580	58.2410
 0.7590	58.3540
 0.7600	58.4520
 0.7610	58.5390
 0.7620	58.6290
 0.7630	58.7060
 0.7640	58.7600
 0.7650	58.8220
 0.7660	58.8800
 0.7670	58.9280
 0.7680	58.9630
 0.7690	59.0010
 0.7700	59.0380
 0.7710	59.0720
 0.7720	59.1060
 0.7730	59.1390
 0.7740	59.1700
 0.7750	59.1980
 0.7760	59.2140
 0.7770	59.2410
 0.7780	59.2690
 0.7790	59.2800
 0.7800	59.3020
 0.7810	59.3250
 0.7820	59.3440
 0.7830	59.3640
 0.7840	59.3870
 0.7850	59.4080
 0.7860	59.4250
 0.7870	59.4400
 0.7880	59.4730
 0.7890	59.5020
 0.7900	59.5070
 0.7910	59.5260
 0.7920	59.5540
 0.7930	59.5800
 0.7940	59.5930
 0.7950	59.6000
 0.7960	59.6240
 0.7970	59.6610
 0.7980	59.6700
 0.7990	59.6950
 0.8000	59.7190
 0.8010	59.7300
 0.8020	59.7610
 0.8030	59.7920
 0.8040	59.8140
 0.8050	59.8240
 0.8060	59.8450
 0.8070	59.8670
 0.8080	59.8860
 0.8090	59.9020
 0.8100	59.9060
 0.8110	59.9170
 0.8120	59.9470
 0.8130	59.9840
 0.8140	60.0060
 0.8150	60.0190
 0.8160	60.0380
 0.8170	60.0680
 0.8180	60.0930
 0.8190	60.1160
 0.8200	60.1410
 0.8210	60.1710
 0.8220	60.1760
 0.8230	60.1680
 0.8240	60.1940
 0.8250	60.2100
 0.8260	60.2210
 0.8270	60.2300
 0.8280	60.2250
 0.8290	60.2350
 0.8300	60.2470
 0.8310	60.2510
 0.8320	60.2730
 0.8330	60.2790
 0.8340	60.2770
 0.8350	60.2910
 0.8360	60.3150
 0.8370	60.3300
 0.8380	60.3330
 0.8390	60.3330
 0.8400	60.3380
 0.8410	60.3540
 0.8420	60.3780
 0.8430	60.4010
 0.8440	60.3960
 0.8450	60.3880
 0.8460	60.3980
 0.8470	60.4010
 0.8480	60.4210
 0.8490	60.4470
 0.8500	60.4590
 0.8510	60.4510
 0.8520	60.4360
 0.8530	60.4350
 0.8540	60.4580
 0.8550	60.4660
 0.8560	60.4620
 0.8570	60.4550
 0.8580	60.4530
 0.8590	60.4650
 0.8600	60.4680
 0.8610	60.4560
 0.8620	60.4580
 0.8630	60.4690
 0.8640	60.4680
 0.8650	60.4450
 0.8660	60.4380
 0.8670	60.4370
 0.8680	60.4310
 0.8690	60.4110
 0.8700	60.3980
 0.8710	60.3810
 0.8720	60.3670
 0.8730	60.3690
 0.8740	60.3510
 0.8750	60.3410
 0.8760	60.3440
 0.8770	60.3370
 0.8780	60.3220
 0.8790	60.3030
 0.8800	60.2790
 0.8810	60.2550
 0.8820	60.2400
 0.8830	60.2280
 0.8840	60.2110
 0.8850	60.1930
 0.8860	60.1620
 0.8870	60.1350
 0.8880	60.1280
 0.8890	60.1040
 0.8900	60.0810
 0.8910	60.0630
 0.8920	60.0440
 0.8930	60.0120
 0.8940	60.0000
 0.8950	59.9970
 0.8960	59.9640
 0.8970	59.9250
 0.8980	59.9000
 0.8990	59.8860
 0.9000	59.8600
 0.9010	59.8420
 0.9020	59.8230
 0.9030	59.7970
 0.9040	59.7690
 0.9050	59.7300
 0.9060	59.6970
 0.9070	59.6750
 0.9080	59.6490
 0.9090	59.6240
 0.9100	59.6060
 0.9110	59.5940
 0.9120	59.5890
 0.9130	59.5640
 0.9140	59.5330
 0.9150	59.5130
 0.9160	59.4790
 0.9170	59.4490
 0.9180	59.4270
 0.9190	59.4080
 0.9200	59.3880
 0.9210	59.3530
 0.9220	59.3160
 0.9230	59.2960
 0.9240	59.2610
 0.9250	59.2080
 0.9260	59.1590
 0.9270	59.1420
 0.9280	59.1080
 0.9290	59.0690
 0.9300	59.0300
 0.9310	58.9870
 0.9320	58.9530
 0.9330	58.9150
 0.9340	58.8660
 0.9350	58.8090
 0.9360	58.7550
 0.9370	58.7030
 0.9380	58.6540
 0.9390	58.6210
 0.9400	58.5660
 0.9410	58.4980
 0.9420	58.4310
 0.9430	58.3740
 0.9440	58.3110
 0.9450	58.2430
 0.9460	58.1660
 0.9470	58.0590
 0.9480	57.9620
 0.9490	57.8650
 0.9500	57.7530
 0.9510	57.6420
 0.9520	57.5100
 0.9530	57.3740
 0.9540	57.2460
 0.9550	57.0920
 0.9560	56.9640
 0.9570	56.8500
 0.9580	56.7320
 0.9590	56.6340
 0.9600	56.5340
 0.9610	56.4440
 0.9620	56.3750
 0.9630	56.2950
 0.9640	56.2420
 0.9650	56.2060
 0.9660	56.1640
 0.9670	56.1270
 0.9680	56.0820
 0.9690	56.0430
 0.9700	56.0280
 0.9710	56.0230
 0.9720	56.0230
 0.9730	56.0070
 0.9740	55.9720
 0.9750	55.9860
 0.9760	55.9850
 0.9770	55.9700
 0.9780	55.9730
 0.9790	55.9780
 0.9800	56.0010
 0.9810	56.0280
 0.9820	56.0420
 0.9830	56.0890
 0.9840	56.1250
 0.9850	56.1490
 0.9860	56.1810
 0.9870	56.2200
 0.9880	56.2570
 0.9890	56.2910
 0.9900	56.3240
 0.9910	56.3710
 0.9920	56.4390
 0.9930	56.4950
 0.9940	56.5150
 0.9950	56.5630
 0.9960	56.6430
 0.9970	56.7260
 0.9980	56.7780
 0.9990	56.8170
 1.0000	57.0140
 1.0010	57.2910
 1.0020	57.4870
 1.0030	57.5490
 1.0040	57.6150
 1.0050	57.6730
 1.0060	57.7380
 1.0070	57.8100
 1.0080	57.8700
 1.0090	57.9230
 1.0100	57.9800
 1.0110	58.0280
 1.0120	58.0900
 1.0130	58.1630
 1.0140	58.2300
 1.0150	58.3020
 1.0160	58.3670
 1.0170	58.4210
 1.0180	58.4760
 1.0190	58.5320
 1.0200	58.5900
 1.0210	58.6490
 1.0220	58.7050
 1.0230	58.7630
 1.0240	58.8230
 1.0250	58.8790
 1.0260	58.9360
 1.0270	58.9910
 1.0280	59.0420
 1.0290	59.0920
 1.0300	59.1440
 1.0310	59.1950
 1.0320	59.2450
 1.0330	59.2910
 1.0340	59.3350
 1.0350	59.3740
 1.0360	59.4080
 1.0370	59.4490
 1.0380	59.4940
 1.0390	59.5470
 1.0400	59.5890
 1.0410	59.6340
 1.0420	59.6710
 1.0430	59.6970
 1.0440	59.7300
 1.0450	59.7640
 1.0460	59.7980
 1.0470	59.8340
 1.0480	59.8650
 1.0490	59.8880
 1.0500	59.9170
 1.0510	59.9500
 1.0520	59.9740
 1.0530	60.0050
 1.0540	60.0450
 1.0550	60.0730
 1.0560	60.0960
 1.0570	60.1210
 1.0580	60.1410
 1.0590	60.1610
 1.0600	60.1820
 1.0610	60.2010
 1.0620	60.2170
 1.0630	60.2340
 1.0640	60.2550
 1.0650	60.2700
 1.0660	60.2830
 1.0670	60.2940
 1.0680	60.3030
 1.0690	60.3070
 1.0700	60.3160
 1.0710	60.3240
 1.0720	60.3340
 1.0730	60.3470
 1.0740	60.3550
 1.0750	60.3630
 1.0760	60.3660
 1.0770	60.3630
 1.0780	60.3630
 1.0790	60.3630
 1.0800	60.3630
 1.0810	60.3700
 1.0820	60.3690
 1.0830	60.3630
 1.0840	60.3570
 1.0850	60.3510
 1.0860	60.3390
 1.0870	60.3250
 1.0880	60.3100
 1.0890	60.2940
 1.0900	60.2700
 1.0910	60.2530
 1.0920	60.2420
 1.0930	60.2220
 1.0940	60.2020
 1.0950	60.1790
 1.0960	60.1500
 1.0970	60.1220
 1.0980	60.0930
 1.0990	60.0650
 1.1000	60.0390
 1.1010	60.0090
 1.1020	59.9790
 1.1030	59.9480
 1.1040	59.9140
 1.1050	59.8780
 1.1060	59.8420
 1.1070	59.8060
 1.1080	59.7670
 1.1090	59.7260
 1.1100	59.6830
 1.1110	59.6390
 1.1120	59.5950
 1.1130	59.5530
 1.1140	59.5050
 1.1150	59.4540
 1.1160	59.4000
 1.1170	59.3470
 1.1180	59.2850
 1.1190	59.2190
 1.1200	59.1480
 1.1210	59.0660
 1.1220	58.9760
 1.1230	58.8800
 1.1240	58.7800
 1.1250	58.6660
 1.1260	58.5470
 1.1270	58.4070
 1.1280	58.2530
 1.1290	58.0870
 1.1300	57.9100
 1.1310	57.7150
 1.1320	57.5050
 1.1330	57.2830
 1.1340	57.0430
 1.1350	56.7940
 1.1360	56.5330
 1.1370	56.2600
 1.1380	55.9730
 1.1390	55.6780
 1.1400	55.3740
 1.1410	55.0650
 1.1420	54.7580
 1.1430	54.4480
 1.1440	54.1410
 1.1450	53.8320
 1.1460	53.5350
 1.1470	53.2380
 1.1480	52.9580
 1.1490	52.6840
 1.1500	52.4300
 1.1510	52.1870
 1.1520	51.9620
 1.1530	51.7550
 1.1540	51.5620
 1.1550	51.3830
 1.1560	51.2200
 1.1570	51.0750
 1.1580	50.9440
 1.1590	50.8290
 1.1600	50.7240
 1.1610	50.6300
 1.1620	50.5470
 1.1630	50.4720
 1.1640	50.4060
 1.1650	50.3450
 1.1660	50.2910
 1.1670	50.2410
 1.1680	50.2000
 1.1690	50.1600
 1.1700	50.1270
 1.1710	50.0910
 1.1720	50.0580
 1.1730	50.0220
 1.1740	49.9850
 1.1750	49.9490
 1.1760	49.9110
 1.1770	49.8720
 1.1780	49.8320
 1.1790	49.7910
 1.1800	49.7480
 1.1810	49.7050
 1.1820	49.6630
 1.1830	49.6180
 1.1840	49.5750
 1.1850	49.5350
 1.1860	49.4900
 1.1870	49.4460
 1.1880	49.4040
 1.1890	49.3580
 1.1900	49.3180
 1.1910	49.2820
 1.1920	49.2480
 1.1930	49.2160
 1.1940	49.1880
 1.1950	49.1630
 1.1960	49.1430
 1.1970	49.1260
 1.1980	49.1120
 1.1990	49.1020
 1.2000	49.0980
 1.2010	49.1010
 1.2020	49.1090
 1.2030	49.1240
 1.2040	49.1470
 1.2050	49.1760
 1.2060	49.2120
 1.2070	49.2580
 1.2080	49.3080
 1.2090	49.3620
 1.2100	49.4220
 1.2110	49.4850
 1.2120	49.5520
 1.2130	49.6240
 1.2140	49.7040
 1.2150	49.7850
 1.2160	49.8700
 1.2170	49.9590
 1.2180	50.0500
 1.2190	50.1440
 1.2200	50.2400
 1.2210	50.3370
 1.2220	50.4360
 1.2230	50.5310
 1.2240	50.6250
 1.2250	50.7210
 1.2260	50.8140
 1.2270	50.9050
 1.2280	50.9960
 1.2290	51.0820
 1.2300	51.1640
 1.2310	51.2480
 1.2320	51.3280
 1.2330	51.4030
 1.2340	51.4790
 1.2350	51.5550
 1.2360	51.6280
 1.2370	51.6990
 1.2380	51.7710
 1.2390	51.8350
 1.2400	51.8970
 1.2410	51.9570
 1.2420	52.0140
 1.2430	52.0730
 1.2440	52.1280
 1.2450	52.1780
 1.2460	52.2280
 1.2470	52.2750
 1.2480	52.3210
 1.2490	52.3650
 1.2500	52.4060
 1.2510	52.4480
 1.2520	52.4880
 1.2530	52.5260
 1.2540	52.5640
 1.2550	52.5970
 1.2560	52.6280
 1.2570	52.6600
 1.2580	52.6870
 1.2590	52.7120
 1.2600	52.7350
 1.2610	52.7560
 1.2620	52.7730
 1.2630	52.7910
 1.2640	52.8040
 1.2650	52.8130
 1.2660	52.8210
 1.2670	52.8260
 1.2680	52.8300
 1.2690	52.8370
 1.2700	52.8400
 1.2710	52.8360
 1.2720	52.8320
 1.2730	52.8260
 1.2740	52.8170
 1.2750	52.8100
 1.2760	52.7990
 1.2770	52.7820
 1.2780	52.7630
 1.2790	52.7390
 1.2800	52.7160
 1.2810	52.6930
 1.2820	52.6650
 1.2830	52.6340
 1.2840	52.6010
 1.2850	52.5640
 1.2860	52.5250
 1.2870	52.4840
 1.2880	52.4430
 1.2890	52.3950
 1.2900	52.3440
 1.2910	52.2890
 1.2920	52.2290
 1.2930	52.1630
 1.2940	52.0940
 1.2950	52.0230
 1.2960	51.9470
 1.2970	51.8650
 1.2980	51.7790
 1.2990	51.6880
 1.3000	51.5910
 1.3010	51.4930
 1.3020	51.3890
 1.3030	51.2800
 1.3040	51.1710
 1.3050	51.0530
 1.3060	50.9260
 1.3070	50.7960
 1.3080	50.6590
 1.3090	50.5190
 1.3100	50.3770
 1.3110	50.2250
 1.3120	50.0680
 1.3130	49.9070
 1.3140	49.7420
 1.3150	49.5740
 1.3160	49.3970
 1.3170	49.2160
 1.3180	49.0260
 1.3190	48.8280
 1.3200	48.6270
 1.3210	48.4210
 1.3220	48.2120
 1.3230	48.0000
 1.3240	47.7780
 1.3250	47.5550
 1.3260	47.3280
 1.3270	47.0970
 1.3280	46.8650
 1.3290	46.6270
 1.3300	46.3900
 1.3310	46.1500
 1.3320	45.9070
 1.3330	45.6680
 1.3340	45.4270
 1.3350	45.1820
 1.3360	44.9410
 1.3370	44.6980
 1.3380	44.4560
 1.3390	44.2190
 1.3400	43.9790
 1.3410	43.7430
 1.3420	43.5110
 1.3430	43.2800
 1.3440	43.0550
 1.3450	42.8330
 1.3460	42.6130
 1.3470	42.3990
 1.3480	42.1880
 1.3490	41.9800
 1.3500	41.7760
 1.3510	41.5750
 1.3520	41.3750
 1.3530	41.1780
 1.3540	40.9810
 1.3550	40.7860
 1.3560	40.5910
 1.3570	40.3930
 1.3580	40.1960
 1.3590	39.9960
 1.3600	39.7910
 1.3610	39.5830
 1.3620	39.3670
 1.3630	39.1440
 1.3640	38.9170
 1.3650	38.6790
 1.3660	38.4330
 1.3670	38.1780
 1.3680	37.9080
 1.3690	37.6270
 1.3700	37.3320
 1.3710	37.0230
 1.3720	36.7000
 1.3730	36.3590
 1.3740	36.0040
 1.3750	35.6270
 1.3760	35.2280
 1.3770	34.8090
 1.3780	34.3650
 1.3790	33.9000
 1.3800	33.4140
 1.3810	32.9030
 1.3820	32.3780
 1.3830	31.8350
 1.3840	31.2780
 1.3850	30.7020
 1.3860	30.1190
 1.3870	29.5160
 1.3880	28.9170
 1.3890	28.3100
 1.3900	27.7010
 1.3910	27.1020
 1.3920	26.5040
 1.3930	25.9100
 1.3940	25.3240
 1.3950	24.7410
 1.3960	24.1700
 1.3970	23.6160
 1.3980	23.0770
 1.3990	22.5620
 1.4000	22.0630
 1.4010	21.5800
 1.4020	21.1190
 1.4030	20.6750
 1.4040	20.2550
 1.4050	19.8580
 1.4060	19.4810
 1.4070	19.1270
 1.4080	18.7940
 1.4090	18.4790
 1.4100	18.1890
 1.4110	17.9150
 1.4120	17.6600
 1.4130	17.4230
 1.4140	17.2020
 1.4150	17.0010
 1.4160	16.8160
 1.4170	16.6450
 1.4180	16.4870
 1.4190	16.3390
 1.4200	16.2030
 1.4210	16.0790
 1.4220	15.9660
 1.4230	15.8640
 1.4240	15.7720
 1.4250	15.6870
 1.4260	15.6120
 1.4270	15.5420
 1.4280	15.4800
 1.4290	15.4250
 1.4300	15.3790
 1.4310	15.3370
 1.4320	15.3030
 1.4330	15.2720
 1.4340	15.2470
 1.4350	15.2260
 1.4360	15.2100
 1.4370	15.1970
 1.4380	15.1880
 1.4390	15.1830
 1.4400	15.1810
 1.4410	15.1820
 1.4420	15.1870
 1.4430	15.1940
 1.4440	15.2040
 1.4450	15.2160
 1.4460	15.2290
 1.4470	15.2450
 1.4480	15.2610
 1.4490	15.2790
 1.4500	15.2970
 1.4510	15.3170
 1.4520	15.3400
 1.4530	15.3630
 1.4540	15.3860
 1.4550	15.4120
 1.4560	15.4390
 1.4570	15.4690
 1.4580	15.5020
 1.4590	15.5390
 1.4600	15.5780
 1.4610	15.6200
 1.4620	15.6670
 1.4630	15.7170
 1.4640	15.7710
 1.4650	15.8290
 1.4660	15.8900
 1.4670	15.9550
 1.4680	16.0260
