Name: Ficus platypoda
Type: vegetation
Class: Tree
Genus: Ficus
Species: platypoda
Sample No.: JPL194
Owner: JPL
Wavelength Range: VSWIR
Origin: 34.12559; -118.11498; WGS84
Collection Date: 10/3/2016
Description: Samples were collected at the Huntington Garden in San Marino California as part of a JPL Subcontract studying HyTES imagery. Samples were taken to JPL and processed within 48 hours of collection. The same leaves were processed in the Nicolet and then measured using the ASD.
Measurement: Bidirectional reflectance
First Column: X
Second Column: Y
X Units: Wavelength (micrometer)
Y Units: Reflectance (percentage)
First X Value: 0.35
Last X Value: 2.5
Number of X Values: 2151
Additional Information: vegetation.tree.ficus.platypoda.vswir.jpl194.jpl.asd.ancillary.txt

 0.3500	10.1510
 0.3510	10.1860
 0.3520	10.1510
 0.3530	10.1140
 0.3540	10.1300
 0.3550	10.0790
 0.3560	10.0490
 0.3570	10.0410
 0.3580	10.0100
 0.3590	 9.9890
 0.3600	 9.9680
 0.3610	 9.9430
 0.3620	 9.9170
 0.3630	 9.8540
 0.3640	 9.8270
 0.3650	 9.8800
 0.3660	 9.8680
 0.3670	 9.8600
 0.3680	 9.8650
 0.3690	 9.8510
 0.3700	 9.8070
 0.3710	 9.7620
 0.3720	 9.7440
 0.3730	 9.7740
 0.3740	 9.8100
 0.3750	 9.8200
 0.3760	 9.7870
 0.3770	 9.7490
 0.3780	 9.7090
 0.3790	 9.6830
 0.3800	 9.6950
 0.3810	 9.7190
 0.3820	 9.7300
 0.3830	 9.7140
 0.3840	 9.6570
 0.3850	 9.6430
 0.3860	 9.6590
 0.3870	 9.6600
 0.3880	 9.6680
 0.3890	 9.6730
 0.3900	 9.6630
 0.3910	 9.6280
 0.3920	 9.6040
 0.3930	 9.5940
 0.3940	 9.5920
 0.3950	 9.5820
 0.3960	 9.5750
 0.3970	 9.5710
 0.3980	 9.5580
 0.3990	 9.5450
 0.4000	 9.5360
 0.4010	 9.5310
 0.4020	 9.5270
 0.4030	 9.5010
 0.4040	 9.4930
 0.4050	 9.5220
 0.4060	 9.4960
 0.4070	 9.4900
 0.4080	 9.5080
 0.4090	 9.5100
 0.4100	 9.5150
 0.4110	 9.5210
 0.4120	 9.5270
 0.4130	 9.5350
 0.4140	 9.5350
 0.4150	 9.5380
 0.4160	 9.5540
 0.4170	 9.5420
 0.4180	 9.5360
 0.4190	 9.5450
 0.4200	 9.5550
 0.4210	 9.5540
 0.4220	 9.5540
 0.4230	 9.5650
 0.4240	 9.5890
 0.4250	 9.5990
 0.4260	 9.5970
 0.4270	 9.6010
 0.4280	 9.6160
 0.4290	 9.6260
 0.4300	 9.6220
 0.4310	 9.6080
 0.4320	 9.5900
 0.4330	 9.5740
 0.4340	 9.5620
 0.4350	 9.5450
 0.4360	 9.5460
 0.4370	 9.5670
 0.4380	 9.5960
 0.4390	 9.6230
 0.4400	 9.6530
 0.4410	 9.6880
 0.4420	 9.7170
 0.4430	 9.7260
 0.4440	 9.7280
 0.4450	 9.7400
 0.4460	 9.7430
 0.4470	 9.7500
 0.4480	 9.7620
 0.4490	 9.7680
 0.4500	 9.7720
 0.4510	 9.7750
 0.4520	 9.7770
 0.4530	 9.7780
 0.4540	 9.7800
 0.4550	 9.7830
 0.4560	 9.7900
 0.4570	 9.7960
 0.4580	 9.7970
 0.4590	 9.7930
 0.4600	 9.7990
 0.4610	 9.8050
 0.4620	 9.8060
 0.4630	 9.8040
 0.4640	 9.8080
 0.4650	 9.8120
 0.4660	 9.8140
 0.4670	 9.8170
 0.4680	 9.8210
 0.4690	 9.8200
 0.4700	 9.8130
 0.4710	 9.8170
 0.4720	 9.8210
 0.4730	 9.8210
 0.4740	 9.8160
 0.4750	 9.8150
 0.4760	 9.8180
 0.4770	 9.8220
 0.4780	 9.8130
 0.4790	 9.8160
 0.4800	 9.8240
 0.4810	 9.8240
 0.4820	 9.8060
 0.4830	 9.7910
 0.4840	 9.7840
 0.4850	 9.7780
 0.4860	 9.7680
 0.4870	 9.7620
 0.4880	 9.7660
 0.4890	 9.7740
 0.4900	 9.7860
 0.4910	 9.7990
 0.4920	 9.8140
 0.4930	 9.8300
 0.4940	 9.8460
 0.4950	 9.8650
 0.4960	 9.8840
 0.4970	 9.9070
 0.4980	 9.9300
 0.4990	 9.9500
 0.5000	 9.9770
 0.5010	10.0050
 0.5020	10.0340
 0.5030	10.0650
 0.5040	10.1030
 0.5050	10.1430
 0.5060	10.1840
 0.5070	10.2320
 0.5080	10.2850
 0.5090	10.3440
 0.5100	10.4090
 0.5110	10.4920
 0.5120	10.5830
 0.5130	10.6790
 0.5140	10.7890
 0.5150	10.9100
 0.5160	11.0430
 0.5170	11.1910
 0.5180	11.3510
 0.5190	11.5210
 0.5200	11.7010
 0.5210	11.8900
 0.5220	12.0880
 0.5230	12.2910
 0.5240	12.4930
 0.5250	12.6980
 0.5260	12.9020
 0.5270	13.1000
 0.5280	13.2830
 0.5290	13.4640
 0.5300	13.6370
 0.5310	13.7960
 0.5320	13.9360
 0.5330	14.0670
 0.5340	14.1870
 0.5350	14.2920
 0.5360	14.3860
 0.5370	14.4660
 0.5380	14.5270
 0.5390	14.5660
 0.5400	14.5840
 0.5410	14.5770
 0.5420	14.5580
 0.5430	14.5580
 0.5440	14.5830
 0.5450	14.6370
 0.5460	14.7150
 0.5470	14.8030
 0.5480	14.8840
 0.5490	14.9430
 0.5500	14.9790
 0.5510	15.0000
 0.5520	15.0090
 0.5530	15.0080
 0.5540	14.9890
 0.5550	14.9520
 0.5560	14.8980
 0.5570	14.8270
 0.5580	14.7430
 0.5590	14.6480
 0.5600	14.5430
 0.5610	14.4350
 0.5620	14.3260
 0.5630	14.2130
 0.5640	14.0950
 0.5650	13.9760
 0.5660	13.8540
 0.5670	13.7260
 0.5680	13.5970
 0.5690	13.4610
 0.5700	13.3220
 0.5710	13.1820
 0.5720	13.0480
 0.5730	12.9200
 0.5740	12.7980
 0.5750	12.6830
 0.5760	12.5700
 0.5770	12.4630
 0.5780	12.3660
 0.5790	12.2700
 0.5800	12.1890
 0.5810	12.1200
 0.5820	12.0540
 0.5830	11.9800
 0.5840	11.9100
 0.5850	11.8520
 0.5860	11.8010
 0.5870	11.7580
 0.5880	11.7260
 0.5890	11.7060
 0.5900	11.6860
 0.5910	11.6600
 0.5920	11.6320
 0.5930	11.6070
 0.5940	11.5930
 0.5950	11.5830
 0.5960	11.5690
 0.5970	11.5500
 0.5980	11.5280
 0.5990	11.5050
 0.6000	11.4790
 0.6010	11.4570
 0.6020	11.4340
 0.6030	11.4070
 0.6040	11.3720
 0.6050	11.3340
 0.6060	11.2930
 0.6070	11.2470
 0.6080	11.1930
 0.6090	11.1160
 0.6100	11.0060
 0.6110	10.8720
 0.6120	10.8230
 0.6130	10.8220
 0.6140	10.8270
 0.6150	10.8000
 0.6160	10.7740
 0.6170	10.7460
 0.6180	10.7100
 0.6190	10.6760
 0.6200	10.6420
 0.6210	10.6130
 0.6220	10.5940
 0.6230	10.5790
 0.6240	10.5640
 0.6250	10.5510
 0.6260	10.5480
 0.6270	10.5430
 0.6280	10.5360
 0.6290	10.5260
 0.6300	10.5150
 0.6310	10.5080
 0.6320	10.5060
 0.6330	10.5050
 0.6340	10.4980
 0.6350	10.4850
 0.6360	10.4650
 0.6370	10.4410
 0.6380	10.4110
 0.6390	10.3790
 0.6400	10.3490
 0.6410	10.3190
 0.6420	10.2900
 0.6430	10.2600
 0.6440	10.2280
 0.6450	10.1990
 0.6460	10.1720
 0.6470	10.1470
 0.6480	10.1230
 0.6490	10.1000
 0.6500	10.0810
 0.6510	10.0680
 0.6520	10.0630
 0.6530	10.0600
 0.6540	10.0540
 0.6550	10.0470
 0.6560	10.0400
 0.6570	10.0310
 0.6580	10.0210
 0.6590	10.0110
 0.6600	10.0010
 0.6610	 9.9920
 0.6620	 9.9840
 0.6630	 9.9800
 0.6640	 9.9790
 0.6650	 9.9810
 0.6660	 9.9870
 0.6670	 9.9950
 0.6680	10.0050
 0.6690	10.0210
 0.6700	10.0400
 0.6710	10.0620
 0.6720	10.0880
 0.6730	10.1180
 0.6740	10.1500
 0.6750	10.1830
 0.6760	10.2200
 0.6770	10.2610
 0.6780	10.3070
 0.6790	10.3550
 0.6800	10.4040
 0.6810	10.4570
 0.6820	10.5120
 0.6830	10.5660
 0.6840	10.6200
 0.6850	10.6740
 0.6860	10.7290
 0.6870	10.7840
 0.6880	10.8480
 0.6890	10.9310
 0.6900	11.0410
 0.6910	11.1840
 0.6920	11.3660
 0.6930	11.5990
 0.6940	11.8950
 0.6950	12.2580
 0.6960	12.6910
 0.6970	13.1940
 0.6980	13.7640
 0.6990	14.3980
 0.7000	15.0920
 0.7010	15.8380
 0.7020	16.6280
 0.7030	17.4570
 0.7040	18.3180
 0.7050	19.2070
 0.7060	20.1180
 0.7070	21.0500
 0.7080	22.0030
 0.7090	22.9800
 0.7100	23.9810
 0.7110	25.0000
 0.7120	26.0340
 0.7130	27.0850
 0.7140	28.1550
 0.7150	29.2390
 0.7160	30.3300
 0.7170	31.4300
 0.7180	32.5350
 0.7190	33.6420
 0.7200	34.7460
 0.7210	35.8430
 0.7220	36.9300
 0.7230	38.0030
 0.7240	39.0560
 0.7250	40.0870
 0.7260	41.0930
 0.7270	42.0690
 0.7280	43.0110
 0.7290	43.9200
 0.7300	44.7940
 0.7310	45.6280
 0.7320	46.4230
 0.7330	47.1800
 0.7340	47.8990
 0.7350	48.5760
 0.7360	49.2140
 0.7370	49.8140
 0.7380	50.3770
 0.7390	50.9000
 0.7400	51.3890
 0.7410	51.8410
 0.7420	52.2570
 0.7430	52.6420
 0.7440	52.9930
 0.7450	53.3120
 0.7460	53.6030
 0.7470	53.8670
 0.7480	54.1030
 0.7490	54.3140
 0.7500	54.5090
 0.7510	54.6840
 0.7520	54.8410
 0.7530	54.9810
 0.7540	55.1060
 0.7550	55.2160
 0.7560	55.3160
 0.7570	55.4040
 0.7580	55.4820
 0.7590	55.5510
 0.7600	55.6140
 0.7610	55.6720
 0.7620	55.7230
 0.7630	55.7660
 0.7640	55.8000
 0.7650	55.8310
 0.7660	55.8580
 0.7670	55.8800
 0.7680	55.9000
 0.7690	55.9150
 0.7700	55.9280
 0.7710	55.9420
 0.7720	55.9530
 0.7730	55.9640
 0.7740	55.9740
 0.7750	55.9830
 0.7760	55.9900
 0.7770	55.9950
 0.7780	56.0000
 0.7790	56.0110
 0.7800	56.0180
 0.7810	56.0240
 0.7820	56.0310
 0.7830	56.0380
 0.7840	56.0430
 0.7850	56.0470
 0.7860	56.0490
 0.7870	56.0500
 0.7880	56.0520
 0.7890	56.0540
 0.7900	56.0560
 0.7910	56.0570
 0.7920	56.0570
 0.7930	56.0560
 0.7940	56.0540
 0.7950	56.0520
 0.7960	56.0500
 0.7970	56.0450
 0.7980	56.0380
 0.7990	56.0300
 0.8000	56.0220
 0.8010	56.0140
 0.8020	56.0030
 0.8030	55.9960
 0.8040	55.9920
 0.8050	55.9830
 0.8060	55.9730
 0.8070	55.9600
 0.8080	55.9460
 0.8090	55.9320
 0.8100	55.9200
 0.8110	55.9040
 0.8120	55.8860
 0.8130	55.8730
 0.8140	55.8590
 0.8150	55.8440
 0.8160	55.8290
 0.8170	55.8120
 0.8180	55.7980
 0.8190	55.7850
 0.8200	55.7680
 0.8210	55.7470
 0.8220	55.7270
 0.8230	55.7100
 0.8240	55.6920
 0.8250	55.6750
 0.8260	55.6570
 0.8270	55.6390
 0.8280	55.6190
 0.8290	55.6000
 0.8300	55.5810
 0.8310	55.5620
 0.8320	55.5420
 0.8330	55.5260
 0.8340	55.5110
 0.8350	55.4940
 0.8360	55.4800
 0.8370	55.4680
 0.8380	55.4580
 0.8390	55.4510
 0.8400	55.4400
 0.8410	55.4290
 0.8420	55.4220
 0.8430	55.4120
 0.8440	55.4050
 0.8450	55.4010
 0.8460	55.3970
 0.8470	55.3910
 0.8480	55.3840
 0.8490	55.3800
 0.8500	55.3800
 0.8510	55.3770
 0.8520	55.3740
 0.8530	55.3740
 0.8540	55.3760
 0.8550	55.3730
 0.8560	55.3710
 0.8570	55.3720
 0.8580	55.3750
 0.8590	55.3780
 0.8600	55.3810
 0.8610	55.3860
 0.8620	55.3950
 0.8630	55.3990
 0.8640	55.4010
 0.8650	55.4030
 0.8660	55.4050
 0.8670	55.4120
 0.8680	55.4230
 0.8690	55.4320
 0.8700	55.4370
 0.8710	55.4430
 0.8720	55.4500
 0.8730	55.4600
 0.8740	55.4690
 0.8750	55.4770
 0.8760	55.4870
 0.8770	55.4980
 0.8780	55.5080
 0.8790	55.5150
 0.8800	55.5210
 0.8810	55.5350
 0.8820	55.5440
 0.8830	55.5550
 0.8840	55.5680
 0.8850	55.5750
 0.8860	55.5850
 0.8870	55.5930
 0.8880	55.5970
 0.8890	55.6040
 0.8900	55.6140
 0.8910	55.6250
 0.8920	55.6330
 0.8930	55.6410
 0.8940	55.6500
 0.8950	55.6580
 0.8960	55.6660
 0.8970	55.6790
 0.8980	55.6900
 0.8990	55.6950
 0.9000	55.6980
 0.9010	55.7080
 0.9020	55.7160
 0.9030	55.7220
 0.9040	55.7330
 0.9050	55.7340
 0.9060	55.7360
 0.9070	55.7440
 0.9080	55.7520
 0.9090	55.7580
 0.9100	55.7620
 0.9110	55.7640
 0.9120	55.7640
 0.9130	55.7630
 0.9140	55.7630
 0.9150	55.7640
 0.9160	55.7630
 0.9170	55.7620
 0.9180	55.7590
 0.9190	55.7540
 0.9200	55.7450
 0.9210	55.7360
 0.9220	55.7270
 0.9230	55.7140
 0.9240	55.6990
 0.9250	55.6870
 0.9260	55.6740
 0.9270	55.6540
 0.9280	55.6340
 0.9290	55.6120
 0.9300	55.5870
 0.9310	55.5600
 0.9320	55.5350
 0.9330	55.5070
 0.9340	55.4760
 0.9350	55.4520
 0.9360	55.4200
 0.9370	55.3830
 0.9380	55.3470
 0.9390	55.3210
 0.9400	55.2740
 0.9410	55.2250
 0.9420	55.1850
 0.9430	55.1420
 0.9440	55.0910
 0.9450	55.0360
 0.9460	54.9780
 0.9470	54.9150
 0.9480	54.8540
 0.9490	54.7860
 0.9500	54.7060
 0.9510	54.6310
 0.9520	54.5510
 0.9530	54.4690
 0.9540	54.3890
 0.9550	54.3100
 0.9560	54.2280
 0.9570	54.1450
 0.9580	54.0680
 0.9590	53.9990
 0.9600	53.9410
 0.9610	53.8890
 0.9620	53.8400
 0.9630	53.7890
 0.9640	53.7550
 0.9650	53.7300
 0.9660	53.6950
 0.9670	53.6540
 0.9680	53.6210
 0.9690	53.6010
 0.9700	53.5930
 0.9710	53.5740
 0.9720	53.5590
 0.9730	53.5430
 0.9740	53.5210
 0.9750	53.5200
 0.9760	53.5170
 0.9770	53.5060
 0.9780	53.4940
 0.9790	53.4730
 0.9800	53.4700
 0.9810	53.4830
 0.9820	53.4940
 0.9830	53.4990
 0.9840	53.4960
 0.9850	53.4950
 0.9860	53.5080
 0.9870	53.5260
 0.9880	53.5410
 0.9890	53.5500
 0.9900	53.5580
 0.9910	53.5850
 0.9920	53.5990
 0.9930	53.6130
 0.9940	53.6470
 0.9950	53.6510
 0.9960	53.6650
 0.9970	53.6880
 0.9980	53.7010
 0.9990	53.7210
 1.0000	53.7590
 1.0010	53.2560
 1.0020	53.2760
 1.0030	53.3000
 1.0040	53.3260
 1.0050	53.3530
 1.0060	53.3850
 1.0070	53.4100
 1.0080	53.4360
 1.0090	53.4610
 1.0100	53.4870
 1.0110	53.5100
 1.0120	53.5380
 1.0130	53.5690
 1.0140	53.5990
 1.0150	53.6310
 1.0160	53.6630
 1.0170	53.6960
 1.0180	53.7270
 1.0190	53.7540
 1.0200	53.7820
 1.0210	53.8070
 1.0220	53.8310
 1.0230	53.8580
 1.0240	53.8870
 1.0250	53.9140
 1.0260	53.9430
 1.0270	53.9700
 1.0280	53.9980
 1.0290	54.0230
 1.0300	54.0440
 1.0310	54.0670
 1.0320	54.0890
 1.0330	54.1120
 1.0340	54.1360
 1.0350	54.1610
 1.0360	54.1820
 1.0370	54.2000
 1.0380	54.2200
 1.0390	54.2420
 1.0400	54.2600
 1.0410	54.2760
 1.0420	54.2940
 1.0430	54.3100
 1.0440	54.3260
 1.0450	54.3410
 1.0460	54.3570
 1.0470	54.3720
 1.0480	54.3870
 1.0490	54.4050
 1.0500	54.4210
 1.0510	54.4360
 1.0520	54.4480
 1.0530	54.4620
 1.0540	54.4750
 1.0550	54.4880
 1.0560	54.5020
 1.0570	54.5150
 1.0580	54.5290
 1.0590	54.5400
 1.0600	54.5480
 1.0610	54.5560
 1.0620	54.5640
 1.0630	54.5720
 1.0640	54.5820
 1.0650	54.5910
 1.0660	54.5990
 1.0670	54.6080
 1.0680	54.6170
 1.0690	54.6250
 1.0700	54.6330
 1.0710	54.6430
 1.0720	54.6490
 1.0730	54.6550
 1.0740	54.6580
 1.0750	54.6540
 1.0760	54.6560
 1.0770	54.6560
 1.0780	54.6590
 1.0790	54.6710
 1.0800	54.6750
 1.0810	54.6760
 1.0820	54.6770
 1.0830	54.6750
 1.0840	54.6730
 1.0850	54.6720
 1.0860	54.6730
 1.0870	54.6710
 1.0880	54.6670
 1.0890	54.6650
 1.0900	54.6660
 1.0910	54.6620
 1.0920	54.6570
 1.0930	54.6510
 1.0940	54.6400
 1.0950	54.6330
 1.0960	54.6310
 1.0970	54.6240
 1.0980	54.6140
 1.0990	54.6050
 1.1000	54.5900
 1.1010	54.5800
 1.1020	54.5720
 1.1030	54.5660
 1.1040	54.5570
 1.1050	54.5470
 1.1060	54.5340
 1.1070	54.5160
 1.1080	54.5020
 1.1090	54.4870
 1.1100	54.4720
 1.1110	54.4560
 1.1120	54.4410
 1.1130	54.4270
 1.1140	54.4080
 1.1150	54.3880
 1.1160	54.3650
 1.1170	54.3380
 1.1180	54.3090
 1.1190	54.2780
 1.1200	54.2460
 1.1210	54.2110
 1.1220	54.1740
 1.1230	54.1310
 1.1240	54.0840
 1.1250	54.0300
 1.1260	53.9710
 1.1270	53.9030
 1.1280	53.8310
 1.1290	53.7490
 1.1300	53.6620
 1.1310	53.5640
 1.1320	53.4580
 1.1330	53.3430
 1.1340	53.2180
 1.1350	53.0860
 1.1360	52.9450
 1.1370	52.7980
 1.1380	52.6410
 1.1390	52.4780
 1.1400	52.3100
 1.1410	52.1380
 1.1420	51.9640
 1.1430	51.7880
 1.1440	51.6140
 1.1450	51.4370
 1.1460	51.2660
 1.1470	51.0940
 1.1480	50.9310
 1.1490	50.7700
 1.1500	50.6220
 1.1510	50.4830
 1.1520	50.3520
 1.1530	50.2320
 1.1540	50.1190
 1.1550	50.0150
 1.1560	49.9200
 1.1570	49.8310
 1.1580	49.7510
 1.1590	49.6820
 1.1600	49.6170
 1.1610	49.5610
 1.1620	49.5120
 1.1630	49.4660
 1.1640	49.4220
 1.1650	49.3840
 1.1660	49.3540
 1.1670	49.3240
 1.1680	49.3000
 1.1690	49.2760
 1.1700	49.2550
 1.1710	49.2330
 1.1720	49.2140
 1.1730	49.1940
 1.1740	49.1750
 1.1750	49.1570
 1.1760	49.1400
 1.1770	49.1210
 1.1780	49.1010
 1.1790	49.0810
 1.1800	49.0610
 1.1810	49.0400
 1.1820	49.0190
 1.1830	48.9980
 1.1840	48.9760
 1.1850	48.9560
 1.1860	48.9370
 1.1870	48.9170
 1.1880	48.8990
 1.1890	48.8800
 1.1900	48.8640
 1.1910	48.8480
 1.1920	48.8360
 1.1930	48.8250
 1.1940	48.8170
 1.1950	48.8110
 1.1960	48.8070
 1.1970	48.8040
 1.1980	48.8010
 1.1990	48.7970
 1.2000	48.7960
 1.2010	48.7970
 1.2020	48.8010
 1.2030	48.8090
 1.2040	48.8180
 1.2050	48.8270
 1.2060	48.8390
 1.2070	48.8500
 1.2080	48.8640
 1.2090	48.8790
 1.2100	48.8970
 1.2110	48.9170
 1.2120	48.9400
 1.2130	48.9630
 1.2140	48.9870
 1.2150	49.0130
 1.2160	49.0390
 1.2170	49.0660
 1.2180	49.0950
 1.2190	49.1270
 1.2200	49.1590
 1.2210	49.1910
 1.2220	49.2250
 1.2230	49.2580
 1.2240	49.2920
 1.2250	49.3260
 1.2260	49.3580
 1.2270	49.3900
 1.2280	49.4210
 1.2290	49.4510
 1.2300	49.4810
 1.2310	49.5090
 1.2320	49.5370
 1.2330	49.5650
 1.2340	49.5920
 1.2350	49.6210
 1.2360	49.6470
 1.2370	49.6730
 1.2380	49.6960
 1.2390	49.7200
 1.2400	49.7430
 1.2410	49.7670
 1.2420	49.7910
 1.2430	49.8130
 1.2440	49.8310
 1.2450	49.8490
 1.2460	49.8670
 1.2470	49.8870
 1.2480	49.9080
 1.2490	49.9250
 1.2500	49.9410
 1.2510	49.9570
 1.2520	49.9710
 1.2530	49.9830
 1.2540	49.9960
 1.2550	50.0060
 1.2560	50.0140
 1.2570	50.0250
 1.2580	50.0340
 1.2590	50.0410
 1.2600	50.0470
 1.2610	50.0520
 1.2620	50.0550
 1.2630	50.0580
 1.2640	50.0620
 1.2650	50.0630
 1.2660	50.0600
 1.2670	50.0560
 1.2680	50.0500
 1.2690	50.0420
 1.2700	50.0330
 1.2710	50.0210
 1.2720	50.0070
 1.2730	49.9940
 1.2740	49.9810
 1.2750	49.9650
 1.2760	49.9480
 1.2770	49.9300
 1.2780	49.9090
 1.2790	49.8860
 1.2800	49.8620
 1.2810	49.8340
 1.2820	49.8030
 1.2830	49.7740
 1.2840	49.7420
 1.2850	49.7060
 1.2860	49.6720
 1.2870	49.6360
 1.2880	49.5970
 1.2890	49.5560
 1.2900	49.5150
 1.2910	49.4710
 1.2920	49.4240
 1.2930	49.3740
 1.2940	49.3230
 1.2950	49.2710
 1.2960	49.2140
 1.2970	49.1560
 1.2980	49.0960
 1.2990	49.0320
 1.3000	48.9680
 1.3010	48.9030
 1.3020	48.8310
 1.3030	48.7570
 1.3040	48.6810
 1.3050	48.6010
 1.3060	48.5200
 1.3070	48.4350
 1.3080	48.3470
 1.3090	48.2560
 1.3100	48.1600
 1.3110	48.0590
 1.3120	47.9530
 1.3130	47.8430
 1.3140	47.7310
 1.3150	47.6180
 1.3160	47.5000
 1.3170	47.3800
 1.3180	47.2580
 1.3190	47.1290
 1.3200	46.9960
 1.3210	46.8620
 1.3220	46.7240
 1.3230	46.5800
 1.3240	46.4350
 1.3250	46.2860
 1.3260	46.1330
 1.3270	45.9770
 1.3280	45.8190
 1.3290	45.6590
 1.3300	45.4970
 1.3310	45.3340
 1.3320	45.1680
 1.3330	45.0000
 1.3340	44.8300
 1.3350	44.6600
 1.3360	44.4890
 1.3370	44.3200
 1.3380	44.1510
 1.3390	43.9820
 1.3400	43.8130
 1.3410	43.6480
 1.3420	43.4850
 1.3430	43.3240
 1.3440	43.1650
 1.3450	43.0060
 1.3460	42.8460
 1.3470	42.6910
 1.3480	42.5350
 1.3490	42.3850
 1.3500	42.2380
 1.3510	42.0920
 1.3520	41.9460
 1.3530	41.8010
 1.3540	41.6560
 1.3550	41.5100
 1.3560	41.3630
 1.3570	41.2160
 1.3580	41.0670
 1.3590	40.9130
 1.3600	40.7550
 1.3610	40.5930
 1.3620	40.4240
 1.3630	40.2490
 1.3640	40.0670
 1.3650	39.8740
 1.3660	39.6720
 1.3670	39.4610
 1.3680	39.2330
 1.3690	38.9940
 1.3700	38.7380
 1.3710	38.4650
 1.3720	38.1750
 1.3730	37.8620
 1.3740	37.5300
 1.3750	37.1760
 1.3760	36.7970
 1.3770	36.3930
 1.3780	35.9580
 1.3790	35.4970
 1.3800	35.0100
 1.3810	34.4920
 1.3820	33.9540
 1.3830	33.3930
 1.3840	32.8130
 1.3850	32.2090
 1.3860	31.5930
 1.3870	30.9540
 1.3880	30.3150
 1.3890	29.6660
 1.3900	29.0090
 1.3910	28.3590
 1.3920	27.7090
 1.3930	27.0590
 1.3940	26.4210
 1.3950	25.7870
 1.3960	25.1670
 1.3970	24.5650
 1.3980	23.9810
 1.3990	23.4250
 1.4000	22.8910
 1.4010	22.3760
 1.4020	21.8880
 1.4030	21.4210
 1.4040	20.9790
 1.4050	20.5660
 1.4060	20.1750
 1.4070	19.8100
 1.4080	19.4690
 1.4090	19.1470
 1.4100	18.8490
 1.4110	18.5700
 1.4120	18.3100
 1.4130	18.0700
 1.4140	17.8460
 1.4150	17.6400
 1.4160	17.4500
 1.4170	17.2740
 1.4180	17.1120
 1.4190	16.9610
 1.4200	16.8210
 1.4210	16.6910
 1.4220	16.5700
 1.4230	16.4580
 1.4240	16.3560
 1.4250	16.2600
 1.4260	16.1740
 1.4270	16.0930
 1.4280	16.0190
 1.4290	15.9510
 1.4300	15.8880
 1.4310	15.8300
 1.4320	15.7780
 1.4330	15.7310
 1.4340	15.6880
 1.4350	15.6490
 1.4360	15.6140
 1.4370	15.5830
 1.4380	15.5550
 1.4390	15.5310
 1.4400	15.5100
 1.4410	15.4910
 1.4420	15.4750
 1.4430	15.4640
 1.4440	15.4540
 1.4450	15.4470
 1.4460	15.4420
 1.4470	15.4400
 1.4480	15.4390
 1.4490	15.4400
 1.4500	15.4430
 1.4510	15.4450
 1.4520	15.4510
 1.4530	15.4590
 1.4540	15.4670
 1.4550	15.4790
 1.4560	15.4930
 1.4570	15.5090
 1.4580	15.5300
 1.4590	15.5540
 1.4600	15.5800
 1.4610	15.6100
 1.4620	15.6430
 1.4630	15.6800
 1.4640	15.7210
 1.4650	15.7660
 1.4660	15.8150
 1.4670	15.8690
 1.4680	15.9280
 1.4690	15.9900
 1.4700	16.0560
 1.4710	16.1270
 1.4720	16.1990
 1.4730	16.2750
 1.4740	16.3570
 1.4750	16.4390
 1.4760	16.5260
 1.4770	16.6160
 1.4780	16.7070
