Name: Pinus ponderosa 2
Type: vegetation
Class: Tree
Genus: Pinus
Species: ponderosa
Sample No.: VH061
Owner: UCSB
Wavelength Range: VSWIR
Origin: 37.044; -119.3023; WGS84
Collection Date: 4/20/2013
Description: Samples were collected as part of the HyspIRI Airborne Campaign. 48 individual plants were sampled in three times in 2013 - spring  summer  and fall. The name of the sample includes a 1  2  or 3 which references a different individual of the species. Samples were taken to JPL and processed within 48 hours of collection. The same leaves were processed in the Nicolet and then measured using the ASD.
Measurement: Bidirectional reflectance
First Column: X
Second Column: Y
X Units: Wavelength (micrometers)
Y Units: Reflectance (percentage)
First X Value: 0.35
Last X Value: 2.5
Number of X Values: 2151
Additional Information: vegetation.tree.pinus.ponderosa.vswir.vh061.ucsb.asd.ancillary.txt

 0.3500	 4.4990
 0.3510	 4.3260
 0.3520	 4.3670
 0.3530	 4.5070
 0.3540	 4.5530
 0.3550	 4.4730
 0.3560	 4.4170
 0.3570	 4.3850
 0.3580	 4.3190
 0.3590	 4.3940
 0.3600	 4.3930
 0.3610	 4.2660
 0.3620	 4.2290
 0.3630	 4.3010
 0.3640	 4.3410
 0.3650	 4.2630
 0.3660	 4.3580
 0.3670	 4.3150
 0.3680	 4.1760
 0.3690	 4.2180
 0.3700	 4.3060
 0.3710	 4.2950
 0.3720	 4.1680
 0.3730	 4.1410
 0.3740	 4.1860
 0.3750	 4.2370
 0.3760	 4.2260
 0.3770	 4.1700
 0.3780	 4.1350
 0.3790	 4.1440
 0.3800	 4.1770
 0.3810	 4.1910
 0.3820	 4.1970
 0.3830	 4.2020
 0.3840	 4.1730
 0.3850	 4.1760
 0.3860	 4.2040
 0.3870	 4.2210
 0.3880	 4.1790
 0.3890	 4.1660
 0.3900	 4.1910
 0.3910	 4.1800
 0.3920	 4.2080
 0.3930	 4.2350
 0.3940	 4.2270
 0.3950	 4.2170
 0.3960	 4.1870
 0.3970	 4.1770
 0.3980	 4.2310
 0.3990	 4.2070
 0.4000	 4.1750
 0.4010	 4.1870
 0.4020	 4.2420
 0.4030	 4.2690
 0.4040	 4.2600
 0.4050	 4.2360
 0.4060	 4.2350
 0.4070	 4.2610
 0.4080	 4.2960
 0.4090	 4.3140
 0.4100	 4.3480
 0.4110	 4.3680
 0.4120	 4.3680
 0.4130	 4.3890
 0.4140	 4.4420
 0.4150	 4.4930
 0.4160	 4.5120
 0.4170	 4.5600
 0.4180	 4.6100
 0.4190	 4.6630
 0.4200	 4.7420
 0.4210	 4.7970
 0.4220	 4.8400
 0.4230	 4.8890
 0.4240	 4.9500
 0.4250	 5.0190
 0.4260	 5.0860
 0.4270	 5.1380
 0.4280	 5.1940
 0.4290	 5.2500
 0.4300	 5.3040
 0.4310	 5.3610
 0.4320	 5.4250
 0.4330	 5.4840
 0.4340	 5.5290
 0.4350	 5.5680
 0.4360	 5.6070
 0.4370	 5.6530
 0.4380	 5.7110
 0.4390	 5.7590
 0.4400	 5.8000
 0.4410	 5.8390
 0.4420	 5.8720
 0.4430	 5.9020
 0.4440	 5.9360
 0.4450	 5.9810
 0.4460	 6.0250
 0.4470	 6.0520
 0.4480	 6.0680
 0.4490	 6.1010
 0.4500	 6.1330
 0.4510	 6.1590
 0.4520	 6.1780
 0.4530	 6.1970
 0.4540	 6.2210
 0.4550	 6.2450
 0.4560	 6.2610
 0.4570	 6.2790
 0.4580	 6.3020
 0.4590	 6.3240
 0.4600	 6.3220
 0.4610	 6.3380
 0.4620	 6.3600
 0.4630	 6.3670
 0.4640	 6.3760
 0.4650	 6.3880
 0.4660	 6.4000
 0.4670	 6.4140
 0.4680	 6.4230
 0.4690	 6.4320
 0.4700	 6.4450
 0.4710	 6.4520
 0.4720	 6.4640
 0.4730	 6.4770
 0.4740	 6.4790
 0.4750	 6.4800
 0.4760	 6.4830
 0.4770	 6.4860
 0.4780	 6.4920
 0.4790	 6.5000
 0.4800	 6.5060
 0.4810	 6.5090
 0.4820	 6.5210
 0.4830	 6.5250
 0.4840	 6.5200
 0.4850	 6.5200
 0.4860	 6.5330
 0.4870	 6.5490
 0.4880	 6.5600
 0.4890	 6.5770
 0.4900	 6.5890
 0.4910	 6.6000
 0.4920	 6.6170
 0.4930	 6.6380
 0.4940	 6.6650
 0.4950	 6.6970
 0.4960	 6.7280
 0.4970	 6.7650
 0.4980	 6.8010
 0.4990	 6.8320
 0.5000	 6.8660
 0.5010	 6.9080
 0.5020	 6.9570
 0.5030	 7.0090
 0.5040	 7.0750
 0.5050	 7.1430
 0.5060	 7.2060
 0.5070	 7.2750
 0.5080	 7.3590
 0.5090	 7.4540
 0.5100	 7.5450
 0.5110	 7.6370
 0.5120	 7.7400
 0.5130	 7.8570
 0.5140	 7.9820
 0.5150	 8.1100
 0.5160	 8.2380
 0.5170	 8.3670
 0.5180	 8.5100
 0.5190	 8.6580
 0.5200	 8.8100
 0.5210	 8.9690
 0.5220	 9.1210
 0.5230	 9.2720
 0.5240	 9.4230
 0.5250	 9.5690
 0.5260	 9.7150
 0.5270	 9.8610
 0.5280	10.0000
 0.5290	10.1260
 0.5300	10.2440
 0.5310	10.3570
 0.5320	10.4630
 0.5330	10.5690
 0.5340	10.6710
 0.5350	10.7640
 0.5360	10.8540
 0.5370	10.9350
 0.5380	11.0070
 0.5390	11.0730
 0.5400	11.1420
 0.5410	11.2070
 0.5420	11.2660
 0.5430	11.3250
 0.5440	11.3880
 0.5450	11.4500
 0.5460	11.5050
 0.5470	11.5610
 0.5480	11.6160
 0.5490	11.6680
 0.5500	11.7150
 0.5510	11.7520
 0.5520	11.7780
 0.5530	11.7920
 0.5540	11.8000
 0.5550	11.7980
 0.5560	11.7850
 0.5570	11.7560
 0.5580	11.7220
 0.5590	11.6850
 0.5600	11.6430
 0.5610	11.5910
 0.5620	11.5340
 0.5630	11.4750
 0.5640	11.4140
 0.5650	11.3450
 0.5660	11.2660
 0.5670	11.1770
 0.5680	11.0860
 0.5690	10.9940
 0.5700	10.9000
 0.5710	10.8020
 0.5720	10.7040
 0.5730	10.6140
 0.5740	10.5320
 0.5750	10.4550
 0.5760	10.3910
 0.5770	10.3370
 0.5780	10.2860
 0.5790	10.2370
 0.5800	10.1900
 0.5810	10.1420
 0.5820	10.0890
 0.5830	10.0380
 0.5840	 9.9880
 0.5850	 9.9400
 0.5860	 9.8910
 0.5870	 9.8470
 0.5880	 9.8080
 0.5890	 9.7700
 0.5900	 9.7330
 0.5910	 9.7100
 0.5920	 9.6950
 0.5930	 9.6770
 0.5940	 9.6630
 0.5950	 9.6520
 0.5960	 9.6420
 0.5970	 9.6280
 0.5980	 9.6150
 0.5990	 9.5990
 0.6000	 9.5780
 0.6010	 9.5670
 0.6020	 9.5480
 0.6030	 9.5170
 0.6040	 9.4830
 0.6050	 9.4450
 0.6060	 9.4030
 0.6070	 9.3580
 0.6080	 9.3020
 0.6090	 9.2430
 0.6100	 9.1820
 0.6110	 9.1170
 0.6120	 9.0600
 0.6130	 9.0070
 0.6140	 8.9580
 0.6150	 8.9120
 0.6160	 8.8610
 0.6170	 8.8110
 0.6180	 8.7710
 0.6190	 8.7360
 0.6200	 8.7010
 0.6210	 8.6690
 0.6220	 8.6430
 0.6230	 8.6200
 0.6240	 8.6000
 0.6250	 8.5830
 0.6260	 8.5710
 0.6270	 8.5640
 0.6280	 8.5590
 0.6290	 8.5540
 0.6300	 8.5520
 0.6310	 8.5470
 0.6320	 8.5420
 0.6330	 8.5400
 0.6340	 8.5310
 0.6350	 8.5150
 0.6360	 8.4940
 0.6370	 8.4660
 0.6380	 8.4320
 0.6390	 8.3930
 0.6400	 8.3520
 0.6410	 8.3060
 0.6420	 8.2590
 0.6430	 8.2130
 0.6440	 8.1590
 0.6450	 8.1020
 0.6460	 8.0450
 0.6470	 7.9860
 0.6480	 7.9350
 0.6490	 7.8890
 0.6500	 7.8480
 0.6510	 7.8070
 0.6520	 7.7700
 0.6530	 7.7350
 0.6540	 7.6990
 0.6550	 7.6580
 0.6560	 7.6100
 0.6570	 7.5570
 0.6580	 7.5020
 0.6590	 7.4410
 0.6600	 7.3760
 0.6610	 7.3090
 0.6620	 7.2480
 0.6630	 7.1870
 0.6640	 7.1270
 0.6650	 7.0710
 0.6660	 7.0290
 0.6670	 6.9900
 0.6680	 6.9520
 0.6690	 6.9220
 0.6700	 6.8980
 0.6710	 6.8790
 0.6720	 6.8650
 0.6730	 6.8550
 0.6740	 6.8510
 0.6750	 6.8490
 0.6760	 6.8460
 0.6770	 6.8520
 0.6780	 6.8610
 0.6790	 6.8740
 0.6800	 6.8930
 0.6810	 6.9240
 0.6820	 6.9640
 0.6830	 7.0130
 0.6840	 7.0770
 0.6850	 7.1610
 0.6860	 7.2690
 0.6870	 7.4020
 0.6880	 7.5600
 0.6890	 7.7530
 0.6900	 7.9840
 0.6910	 8.2520
 0.6920	 8.5630
 0.6930	 8.9170
 0.6940	 9.3110
 0.6950	 9.7440
 0.6960	10.2150
 0.6970	10.7230
 0.6980	11.2690
 0.6990	11.8470
 0.7000	12.4520
 0.7010	13.0830
 0.7020	13.7370
 0.7030	14.4130
 0.7040	15.1050
 0.7050	15.8100
 0.7060	16.5300
 0.7070	17.2610
 0.7080	18.0070
 0.7090	18.7730
 0.7100	19.5460
 0.7110	20.3340
 0.7120	21.1380
 0.7130	21.9590
 0.7140	22.7850
 0.7150	23.6220
 0.7160	24.4750
 0.7170	25.3430
 0.7180	26.2200
 0.7190	27.1030
 0.7200	27.9940
 0.7210	28.9000
 0.7220	29.8090
 0.7230	30.7170
 0.7240	31.6260
 0.7250	32.5270
 0.7260	33.4220
 0.7270	34.3120
 0.7280	35.1850
 0.7290	36.0470
 0.7300	36.8970
 0.7310	37.7310
 0.7320	38.5290
 0.7330	39.3110
 0.7340	40.0800
 0.7350	40.8190
 0.7360	41.5370
 0.7370	42.2320
 0.7380	42.9020
 0.7390	43.5420
 0.7400	44.1580
 0.7410	44.7460
 0.7420	45.3030
 0.7430	45.8390
 0.7440	46.3520
 0.7450	46.8410
 0.7460	47.3000
 0.7470	47.7350
 0.7480	48.1400
 0.7490	48.5180
 0.7500	48.8750
 0.7510	49.2070
 0.7520	49.5110
 0.7530	49.7880
 0.7540	50.0590
 0.7550	50.3080
 0.7560	50.5310
 0.7570	50.7380
 0.7580	50.9280
 0.7590	51.1100
 0.7600	51.2840
 0.7610	51.4400
 0.7620	51.5740
 0.7630	51.6990
 0.7640	51.8240
 0.7650	51.9380
 0.7660	52.0420
 0.7670	52.1390
 0.7680	52.2350
 0.7690	52.3180
 0.7700	52.3990
 0.7710	52.4790
 0.7720	52.5500
 0.7730	52.6140
 0.7740	52.6740
 0.7750	52.7320
 0.7760	52.7830
 0.7770	52.8410
 0.7780	52.9010
 0.7790	52.9470
 0.7800	52.9930
 0.7810	53.0340
 0.7820	53.0720
 0.7830	53.1200
 0.7840	53.1620
 0.7850	53.2010
 0.7860	53.2380
 0.7870	53.2790
 0.7880	53.3170
 0.7890	53.3510
 0.7900	53.3830
 0.7910	53.4170
 0.7920	53.4470
 0.7930	53.4750
 0.7940	53.5050
 0.7950	53.5350
 0.7960	53.5620
 0.7970	53.5870
 0.7980	53.6190
 0.7990	53.6420
 0.8000	53.6640
 0.8010	53.6930
 0.8020	53.7150
 0.8030	53.7340
 0.8040	53.7540
 0.8050	53.7780
 0.8060	53.8030
 0.8070	53.8220
 0.8080	53.8380
 0.8090	53.8590
 0.8100	53.8730
 0.8110	53.8900
 0.8120	53.9120
 0.8130	53.9280
 0.8140	53.9410
 0.8150	53.9570
 0.8160	53.9800
 0.8170	53.9910
 0.8180	54.0100
 0.8190	54.0320
 0.8200	54.0450
 0.8210	54.0670
 0.8220	54.0870
 0.8230	54.0990
 0.8240	54.1050
 0.8250	54.1230
 0.8260	54.1380
 0.8270	54.1440
 0.8280	54.1530
 0.8290	54.1670
 0.8300	54.1760
 0.8310	54.1740
 0.8320	54.1810
 0.8330	54.1950
 0.8340	54.2080
 0.8350	54.2150
 0.8360	54.2340
 0.8370	54.2530
 0.8380	54.2690
 0.8390	54.2860
 0.8400	54.3040
 0.8410	54.3250
 0.8420	54.3470
 0.8430	54.3690
 0.8440	54.3930
 0.8450	54.4110
 0.8460	54.4220
 0.8470	54.4460
 0.8480	54.4720
 0.8490	54.4950
 0.8500	54.5120
 0.8510	54.5250
 0.8520	54.5430
 0.8530	54.5650
 0.8540	54.5860
 0.8550	54.6060
 0.8560	54.6230
 0.8570	54.6400
 0.8580	54.6640
 0.8590	54.6790
 0.8600	54.6940
 0.8610	54.7130
 0.8620	54.7300
 0.8630	54.7380
 0.8640	54.7410
 0.8650	54.7490
 0.8660	54.7790
 0.8670	54.7980
 0.8680	54.8040
 0.8690	54.8090
 0.8700	54.8150
 0.8710	54.8220
 0.8720	54.8340
 0.8730	54.8530
 0.8740	54.8680
 0.8750	54.8740
 0.8760	54.8750
 0.8770	54.8860
 0.8780	54.8910
 0.8790	54.8930
 0.8800	54.8980
 0.8810	54.9070
 0.8820	54.9080
 0.8830	54.9080
 0.8840	54.9110
 0.8850	54.9120
 0.8860	54.9100
 0.8870	54.9030
 0.8880	54.8930
 0.8890	54.8940
 0.8900	54.8820
 0.8910	54.8640
 0.8920	54.8530
 0.8930	54.8500
 0.8940	54.8460
 0.8950	54.8390
 0.8960	54.8280
 0.8970	54.8140
 0.8980	54.8040
 0.8990	54.7970
 0.9000	54.7850
 0.9010	54.7720
 0.9020	54.7630
 0.9030	54.7540
 0.9040	54.7340
 0.9050	54.7240
 0.9060	54.7160
 0.9070	54.7000
 0.9080	54.6740
 0.9090	54.6550
 0.9100	54.6450
 0.9110	54.6350
 0.9120	54.6100
 0.9130	54.5870
 0.9140	54.5730
 0.9150	54.5670
 0.9160	54.5550
 0.9170	54.5390
 0.9180	54.5220
 0.9190	54.5100
 0.9200	54.5030
 0.9210	54.4770
 0.9220	54.4410
 0.9230	54.4230
 0.9240	54.3880
 0.9250	54.3520
 0.9260	54.3240
 0.9270	54.3060
 0.9280	54.2690
 0.9290	54.2250
 0.9300	54.1800
 0.9310	54.1370
 0.9320	54.0900
 0.9330	54.0340
 0.9340	53.9720
 0.9350	53.9190
 0.9360	53.8470
 0.9370	53.7840
 0.9380	53.7430
 0.9390	53.6950
 0.9400	53.6310
 0.9410	53.5540
 0.9420	53.4680
 0.9430	53.3740
 0.9440	53.2840
 0.9450	53.1910
 0.9460	53.0860
 0.9470	52.9570
 0.9480	52.8230
 0.9490	52.6870
 0.9500	52.5480
 0.9510	52.3930
 0.9520	52.2220
 0.9530	52.0490
 0.9540	51.8830
 0.9550	51.7080
 0.9560	51.5430
 0.9570	51.3800
 0.9580	51.2100
 0.9590	51.0530
 0.9600	50.9160
 0.9610	50.8010
 0.9620	50.7000
 0.9630	50.5860
 0.9640	50.4830
 0.9650	50.3990
 0.9660	50.3300
 0.9670	50.2630
 0.9680	50.2100
 0.9690	50.1590
 0.9700	50.0950
 0.9710	50.0420
 0.9720	49.9800
 0.9730	49.9310
 0.9740	49.9190
 0.9750	49.8950
 0.9760	49.8480
 0.9770	49.8040
 0.9780	49.7990
 0.9790	49.8020
 0.9800	49.8030
 0.9810	49.7940
 0.9820	49.7750
 0.9830	49.7900
 0.9840	49.8080
 0.9850	49.8180
 0.9860	49.8300
 0.9870	49.8910
 0.9880	49.9190
 0.9890	49.9290
 0.9900	49.9750
 0.9910	50.0300
 0.9920	50.1180
 0.9930	50.2060
 0.9940	50.2940
 0.9950	50.3820
 0.9960	50.4700
 0.9970	50.5580
 0.9980	50.6460
 0.9990	50.7350
 1.0000	50.8230
 1.0010	50.9110
 1.0020	50.9990
 1.0030	51.0870
 1.0040	51.1750
 1.0050	51.2630
 1.0060	51.3510
 1.0070	51.4400
 1.0080	51.5280
 1.0090	51.6160
 1.0100	51.6160
 1.0110	51.6910
 1.0120	51.7630
 1.0130	51.8330
 1.0140	51.9060
 1.0150	51.9800
 1.0160	52.0490
 1.0170	52.1210
 1.0180	52.1960
 1.0190	52.2710
 1.0200	52.3450
 1.0210	52.4190
 1.0220	52.4960
 1.0230	52.5730
 1.0240	52.6500
 1.0250	52.7240
 1.0260	52.8020
 1.0270	52.8730
 1.0280	52.9360
 1.0290	53.0020
 1.0300	53.0670
 1.0310	53.1320
 1.0320	53.1990
 1.0330	53.2610
 1.0340	53.3210
 1.0350	53.3810
 1.0360	53.4500
 1.0370	53.5200
 1.0380	53.5840
 1.0390	53.6520
 1.0400	53.7120
 1.0410	53.7610
 1.0420	53.8160
 1.0430	53.8710
 1.0440	53.9240
 1.0450	53.9760
 1.0460	54.0280
 1.0470	54.0840
 1.0480	54.1350
 1.0490	54.1820
 1.0500	54.2290
 1.0510	54.2760
 1.0520	54.3180
 1.0530	54.3600
 1.0540	54.4000
 1.0550	54.4440
 1.0560	54.4900
 1.0570	54.5280
 1.0580	54.5660
 1.0590	54.6030
 1.0600	54.6300
 1.0610	54.6620
 1.0620	54.7000
 1.0630	54.7310
 1.0640	54.7570
 1.0650	54.7850
 1.0660	54.8120
 1.0670	54.8380
 1.0680	54.8630
 1.0690	54.8920
 1.0700	54.9110
 1.0710	54.9260
 1.0720	54.9400
 1.0730	54.9500
 1.0740	54.9610
 1.0750	54.9720
 1.0760	54.9820
 1.0770	54.9910
 1.0780	54.9960
 1.0790	54.9970
 1.0800	54.9990
 1.0810	54.9970
 1.0820	54.9970
 1.0830	55.0040
 1.0840	55.0030
 1.0850	54.9970
 1.0860	54.9880
 1.0870	54.9740
 1.0880	54.9520
 1.0890	54.9340
 1.0900	54.9170
 1.0910	54.8970
 1.0920	54.8790
 1.0930	54.8560
 1.0940	54.8320
 1.0950	54.8050
 1.0960	54.7770
 1.0970	54.7470
 1.0980	54.7110
 1.0990	54.6800
 1.1000	54.6510
 1.1010	54.6180
 1.1020	54.5830
 1.1030	54.5490
 1.1040	54.5100
 1.1050	54.4710
 1.1060	54.4280
 1.1070	54.3850
 1.1080	54.3380
 1.1090	54.2880
 1.1100	54.2350
 1.1110	54.1800
 1.1120	54.1220
 1.1130	54.0610
 1.1140	53.9960
 1.1150	53.9330
 1.1160	53.8620
 1.1170	53.7890
 1.1180	53.7070
 1.1190	53.6200
 1.1200	53.5240
 1.1210	53.4200
 1.1220	53.3070
 1.1230	53.1810
 1.1240	53.0450
 1.1250	52.8940
 1.1260	52.7330
 1.1270	52.5540
 1.1280	52.3600
 1.1290	52.1510
 1.1300	51.9270
 1.1310	51.6850
 1.1320	51.4270
 1.1330	51.1550
 1.1340	50.8670
 1.1350	50.5650
 1.1360	50.2490
 1.1370	49.9190
 1.1380	49.5770
 1.1390	49.2260
 1.1400	48.8670
 1.1410	48.5100
 1.1420	48.1480
 1.1430	47.7880
 1.1440	47.4330
 1.1450	47.0770
 1.1460	46.7340
 1.1470	46.3940
 1.1480	46.0700
 1.1490	45.7530
 1.1500	45.4540
 1.1510	45.1640
 1.1520	44.8950
 1.1530	44.6420
 1.1540	44.4050
 1.1550	44.1860
 1.1560	43.9810
 1.1570	43.7890
 1.1580	43.6140
 1.1590	43.4530
 1.1600	43.3040
 1.1610	43.1670
 1.1620	43.0380
 1.1630	42.9190
 1.1640	42.8120
 1.1650	42.7110
 1.1660	42.6200
 1.1670	42.5350
 1.1680	42.4570
 1.1690	42.3810
 1.1700	42.3120
 1.1710	42.2430
 1.1720	42.1770
 1.1730	42.1110
 1.1740	42.0480
 1.1750	41.9830
 1.1760	41.9150
 1.1770	41.8460
 1.1780	41.7710
 1.1790	41.6970
 1.1800	41.6230
 1.1810	41.5480
 1.1820	41.4740
 1.1830	41.4030
 1.1840	41.3320
 1.1850	41.2630
 1.1860	41.1950
 1.1870	41.1280
 1.1880	41.0660
 1.1890	41.0050
 1.1900	40.9510
 1.1910	40.9010
 1.1920	40.8560
 1.1930	40.8150
 1.1940	40.7800
 1.1950	40.7480
 1.1960	40.7220
 1.1970	40.7030
 1.1980	40.6850
 1.1990	40.6720
 1.2000	40.6630
 1.2010	40.6610
 1.2020	40.6660
 1.2030	40.6760
 1.2040	40.6920
 1.2050	40.7140
 1.2060	40.7410
 1.2070	40.7730
 1.2080	40.8110
 1.2090	40.8550
 1.2100	40.9040
 1.2110	40.9590
 1.2120	41.0220
 1.2130	41.0880
 1.2140	41.1590
 1.2150	41.2360
 1.2160	41.3180
 1.2170	41.4030
 1.2180	41.4920
 1.2190	41.5860
 1.2200	41.6800
 1.2210	41.7760
 1.2220	41.8750
 1.2230	41.9750
 1.2240	42.0750
 1.2250	42.1750
 1.2260	42.2740
 1.2270	42.3680
 1.2280	42.4600
 1.2290	42.5510
 1.2300	42.6390
 1.2310	42.7250
 1.2320	42.8090
 1.2330	42.8880
 1.2340	42.9670
 1.2350	43.0430
 1.2360	43.1170
 1.2370	43.1880
 1.2380	43.2580
 1.2390	43.3240
 1.2400	43.3880
 1.2410	43.4520
 1.2420	43.5150
 1.2430	43.5770
 1.2440	43.6380
 1.2450	43.6960
 1.2460	43.7500
 1.2470	43.8000
 1.2480	43.8500
 1.2490	43.8970
 1.2500	43.9420
 1.2510	43.9870
 1.2520	44.0310
 1.2530	44.0730
 1.2540	44.1150
 1.2550	44.1570
 1.2560	44.1930
 1.2570	44.2260
 1.2580	44.2560
 1.2590	44.2840
 1.2600	44.3060
 1.2610	44.3300
 1.2620	44.3520
 1.2630	44.3730
 1.2640	44.3940
 1.2650	44.4130
 1.2660	44.4270
 1.2670	44.4380
 1.2680	44.4460
 1.2690	44.4510
 1.2700	44.4560
 1.2710	44.4610
 1.2720	44.4630
 1.2730	44.4640
 1.2740	44.4610
 1.2750	44.4550
 1.2760	44.4490
 1.2770	44.4410
 1.2780	44.4320
 1.2790	44.4220
 1.2800	44.4060
 1.2810	44.3860
 1.2820	44.3650
 1.2830	44.3430
 1.2840	44.3200
 1.2850	44.2940
 1.2860	44.2630
 1.2870	44.2270
 1.2880	44.1850
 1.2890	44.1410
 1.2900	44.0940
 1.2910	44.0430
 1.2920	43.9880
 1.2930	43.9280
 1.2940	43.8640
 1.2950	43.7950
 1.2960	43.7230
 1.2970	43.6480
 1.2980	43.5660
 1.2990	43.4790
 1.3000	43.3870
 1.3010	43.2870
 1.3020	43.1850
 1.3030	43.0760
 1.3040	42.9590
 1.3050	42.8390
 1.3060	42.7110
 1.3070	42.5790
 1.3080	42.4470
 1.3090	42.3070
 1.3100	42.1590
 1.3110	42.0070
 1.3120	41.8480
 1.3130	41.6830
 1.3140	41.5150
 1.3150	41.3420
 1.3160	41.1630
 1.3170	40.9790
 1.3180	40.7920
 1.3190	40.5980
 1.3200	40.3990
 1.3210	40.1960
 1.3220	39.9880
 1.3230	39.7770
 1.3240	39.5650
 1.3250	39.3520
 1.3260	39.1340
 1.3270	38.9120
 1.3280	38.6880
 1.3290	38.4590
 1.3300	38.2300
 1.3310	38.0010
 1.3320	37.7690
 1.3330	37.5400
 1.3340	37.3110
 1.3350	37.0820
 1.3360	36.8550
 1.3370	36.6270
 1.3380	36.4010
 1.3390	36.1770
 1.3400	35.9540
 1.3410	35.7380
 1.3420	35.5240
 1.3430	35.3130
 1.3440	35.1070
 1.3450	34.9030
 1.3460	34.7010
 1.3470	34.5050
 1.3480	34.3130
 1.3490	34.1240
 1.3500	33.9410
 1.3510	33.7590
 1.3520	33.5780
 1.3530	33.4000
 1.3540	33.2220
 1.3550	33.0480
 1.3560	32.8740
 1.3570	32.7010
 1.3580	32.5290
 1.3590	32.3540
 1.3600	32.1760
 1.3610	31.9970
 1.3620	31.8130
 1.3630	31.6260
 1.3640	31.4350
 1.3650	31.2380
 1.3660	31.0340
 1.3670	30.8240
 1.3680	30.6060
 1.3690	30.3790
 1.3700	30.1390
 1.3710	29.8920
 1.3720	29.6320
 1.3730	29.3560
 1.3740	29.0700
 1.3750	28.7700
 1.3760	28.4520
 1.3770	28.1190
 1.3780	27.7650
 1.3790	27.3930
 1.3800	27.0040
 1.3810	26.5970
 1.3820	26.1780
 1.3830	25.7450
 1.3840	25.3020
 1.3850	24.8450
 1.3860	24.3820
 1.3870	23.9060
 1.3880	23.4320
 1.3890	22.9510
 1.3900	22.4700
 1.3910	21.9950
 1.3920	21.5230
 1.3930	21.0540
 1.3940	20.5930
 1.3950	20.1360
 1.3960	19.6900
 1.3970	19.2560
 1.3980	18.8340
 1.3990	18.4310
 1.4000	18.0410
 1.4010	17.6630
 1.4020	17.3040
 1.4030	16.9570
 1.4040	16.6270
 1.4050	16.3150
 1.4060	16.0170
 1.4070	15.7380
 1.4080	15.4740
 1.4090	15.2220
 1.4100	14.9870
 1.4110	14.7640
 1.4120	14.5550
 1.4130	14.3600
 1.4140	14.1770
 1.4150	14.0080
 1.4160	13.8510
 1.4170	13.7040
 1.4180	13.5670
 1.4190	13.4380
 1.4200	13.3170
 1.4210	13.2070
 1.4220	13.1030
 1.4230	13.0080
 1.4240	12.9190
 1.4250	12.8370
 1.4260	12.7610
 1.4270	12.6890
 1.4280	12.6240
 1.4290	12.5640
 1.4300	12.5090
 1.4310	12.4590
 1.4320	12.4140
 1.4330	12.3720
 1.4340	12.3350
 1.4350	12.3010
 1.4360	12.2710
 1.4370	12.2430
 1.4380	12.2190
 1.4390	12.1990
 1.4400	12.1820
 1.4410	12.1670
 1.4420	12.1560
 1.4430	12.1450
 1.4440	12.1360
 1.4450	12.1290
 1.4460	12.1240
 1.4470	12.1220
 1.4480	12.1210
 1.4490	12.1220
 1.4500	12.1230
 1.4510	12.1250
 1.4520	12.1290
 1.4530	12.1340
 1.4540	12.1410
 1.4550	12.1490
 1.4560	12.1590
 1.4570	12.1700
 1.4580	12.1820
 1.4590	12.1960
 1.4600	12.2130
 1.4610	12.2310
 1.4620	12.2510
 1.4630	12.2740
 1.4640	12.2990
 1.4650	12.3270
 1.4660	12.3590
 1.4670	12.3920
 1.4680	12.4290
 1.4690	12.4680
 1.4700	12.5090
