Name: Ficus macrophylla f. columnaris
Type: vegetation
Class: Tree
Genus: Ficus
Species: macrophylla_columnaris
Sample No.: JPL094
Owner: JPL
Wavelength Range: VSWIR
Origin: 34.12573; - 118.11237; WGS84
Collection Date: 2/2/2016
Description: Samples were collected at the Huntington Garden in San Marino California as part of a JPL Subcontract studying HyTES imagery. Samples were taken to JPL and processed within 48 hours of collection. The same leaves were processed in the Nicolet and then measured using the ASD.
Measurement: Bidirectional reflectance
First Column: X
Second Column: Y
X Units: Wavelength (micrometer)
Y Units: Reflectance (percentage)
First X Value: 0.35
Last X Value: 2.5
Number of X Values: 2151
Additional Information: 

 0.3500	12.9460
 0.3510	12.8730
 0.3520	12.0830
 0.3530	12.0020
 0.3540	13.3100
 0.3550	13.3220
 0.3560	13.4360
 0.3570	13.4830
 0.3580	12.6520
 0.3590	12.0480
 0.3600	12.2590
 0.3610	12.9450
 0.3620	12.6920
 0.3630	12.8390
 0.3640	13.0290
 0.3650	12.7640
 0.3660	12.6270
 0.3670	12.3300
 0.3680	11.9910
 0.3690	12.0280
 0.3700	12.5430
 0.3710	13.0120
 0.3720	13.0280
 0.3730	12.3740
 0.3740	12.3250
 0.3750	12.6480
 0.3760	12.7360
 0.3770	12.8040
 0.3780	12.7480
 0.3790	12.7120
 0.3800	12.9930
 0.3810	12.7780
 0.3820	12.2610
 0.3830	11.8700
 0.3840	12.1670
 0.3850	12.2190
 0.3860	12.2380
 0.3870	12.6410
 0.3880	12.4590
 0.3890	12.3080
 0.3900	12.3780
 0.3910	12.3320
 0.3920	12.0950
 0.3930	12.0170
 0.3940	12.3150
 0.3950	12.6960
 0.3960	12.7870
 0.3970	12.5650
 0.3980	12.2400
 0.3990	12.1980
 0.4000	12.3340
 0.4010	12.4560
 0.4020	12.3280
 0.4030	12.4970
 0.4040	12.6690
 0.4050	12.5150
 0.4060	12.2610
 0.4070	12.2420
 0.4080	12.3510
 0.4090	12.2420
 0.4100	12.4110
 0.4110	12.5240
 0.4120	12.4000
 0.4130	12.2820
 0.4140	12.3540
 0.4150	12.3830
 0.4160	12.1570
 0.4170	12.2900
 0.4180	12.4250
 0.4190	12.3590
 0.4200	12.0950
 0.4210	12.0940
 0.4220	12.2880
 0.4230	12.4940
 0.4240	12.5420
 0.4250	12.4580
 0.4260	12.3460
 0.4270	12.3280
 0.4280	12.3360
 0.4290	12.3270
 0.4300	12.2840
 0.4310	12.2260
 0.4320	12.1660
 0.4330	12.1880
 0.4340	12.3000
 0.4350	12.1630
 0.4360	12.0560
 0.4370	12.0860
 0.4380	12.2080
 0.4390	12.2650
 0.4400	12.2860
 0.4410	12.2960
 0.4420	12.2140
 0.4430	12.2340
 0.4440	12.3230
 0.4450	12.3670
 0.4460	12.3800
 0.4470	12.3510
 0.4480	12.3110
 0.4490	12.3410
 0.4500	12.3440
 0.4510	12.3110
 0.4520	12.2790
 0.4530	12.3760
 0.4540	12.4060
 0.4550	12.3580
 0.4560	12.3370
 0.4570	12.2970
 0.4580	12.2980
 0.4590	12.3410
 0.4600	12.3050
 0.4610	12.3340
 0.4620	12.3820
 0.4630	12.3620
 0.4640	12.3130
 0.4650	12.2980
 0.4660	12.3210
 0.4670	12.3190
 0.4680	12.3000
 0.4690	12.3080
 0.4700	12.3420
 0.4710	12.2310
 0.4720	12.3110
 0.4730	12.4570
 0.4740	12.3470
 0.4750	12.3160
 0.4760	12.3410
 0.4770	12.3690
 0.4780	12.3500
 0.4790	12.3580
 0.4800	12.3680
 0.4810	12.3410
 0.4820	12.3330
 0.4830	12.3140
 0.4840	12.2880
 0.4850	12.2890
 0.4860	12.2900
 0.4870	12.2800
 0.4880	12.2580
 0.4890	12.2200
 0.4900	12.2570
 0.4910	12.3080
 0.4920	12.2620
 0.4930	12.2420
 0.4940	12.2880
 0.4950	12.3550
 0.4960	12.2890
 0.4970	12.2840
 0.4980	12.3410
 0.4990	12.3970
 0.5000	12.3670
 0.5010	12.3720
 0.5020	12.4170
 0.5030	12.4120
 0.5040	12.3870
 0.5050	12.3950
 0.5060	12.4540
 0.5070	12.4810
 0.5080	12.5340
 0.5090	12.5750
 0.5100	12.5510
 0.5110	12.5790
 0.5120	12.6170
 0.5130	12.6480
 0.5140	12.7180
 0.5150	12.7700
 0.5160	12.8550
 0.5170	13.0060
 0.5180	13.0570
 0.5190	13.0990
 0.5200	13.1790
 0.5210	13.2990
 0.5220	13.4160
 0.5230	13.5280
 0.5240	13.6400
 0.5250	13.7370
 0.5260	13.8310
 0.5270	13.9220
 0.5280	14.0120
 0.5290	14.1490
 0.5300	14.2710
 0.5310	14.3510
 0.5320	14.4180
 0.5330	14.5010
 0.5340	14.5790
 0.5350	14.6260
 0.5360	14.6360
 0.5370	14.6590
 0.5380	14.7020
 0.5390	14.7310
 0.5400	14.7060
 0.5410	14.6520
 0.5420	14.6010
 0.5430	14.5710
 0.5440	14.5630
 0.5450	14.5950
 0.5460	14.6760
 0.5470	14.7420
 0.5480	14.8110
 0.5490	14.8700
 0.5500	14.8710
 0.5510	14.8750
 0.5520	14.8790
 0.5530	14.8730
 0.5540	14.8900
 0.5550	14.8750
 0.5560	14.8340
 0.5570	14.8110
 0.5580	14.7250
 0.5590	14.6460
 0.5600	14.6100
 0.5610	14.5370
 0.5620	14.4860
 0.5630	14.4270
 0.5640	14.3140
 0.5650	14.2470
 0.5660	14.1930
 0.5670	14.1220
 0.5680	14.0230
 0.5690	13.9280
 0.5700	13.8350
 0.5710	13.7420
 0.5720	13.6580
 0.5730	13.5790
 0.5740	13.5070
 0.5750	13.4470
 0.5760	13.4030
 0.5770	13.3740
 0.5780	13.3500
 0.5790	13.3100
 0.5800	13.2640
 0.5810	13.2170
 0.5820	13.1720
 0.5830	13.1370
 0.5840	13.1120
 0.5850	13.0870
 0.5860	13.0420
 0.5870	12.9890
 0.5880	12.9630
 0.5890	12.9740
 0.5900	12.9530
 0.5910	12.9420
 0.5920	12.9500
 0.5930	12.9620
 0.5940	12.9700
 0.5950	12.9520
 0.5960	12.9150
 0.5970	12.9150
 0.5980	12.9140
 0.5990	12.9050
 0.6000	12.8900
 0.6010	12.8450
 0.6020	12.8210
 0.6030	12.8210
 0.6040	12.8010
 0.6050	12.7920
 0.6060	12.7810
 0.6070	12.7560
 0.6080	12.7350
 0.6090	12.6600
 0.6100	12.5400
 0.6110	12.4290
 0.6120	12.4060
 0.6130	12.4540
 0.6140	12.5230
 0.6150	12.5220
 0.6160	12.5300
 0.6170	12.5320
 0.6180	12.5060
 0.6190	12.4950
 0.6200	12.4870
 0.6210	12.4660
 0.6220	12.4250
 0.6230	12.4190
 0.6240	12.4380
 0.6250	12.4590
 0.6260	12.4620
 0.6270	12.4560
 0.6280	12.4510
 0.6290	12.4520
 0.6300	12.4670
 0.6310	12.4650
 0.6320	12.4520
 0.6330	12.4770
 0.6340	12.4700
 0.6350	12.4490
 0.6360	12.4430
 0.6370	12.4500
 0.6380	12.4560
 0.6390	12.4500
 0.6400	12.4240
 0.6410	12.4410
 0.6420	12.4490
 0.6430	12.4260
 0.6440	12.4190
 0.6450	12.4080
 0.6460	12.4030
 0.6470	12.4150
 0.6480	12.4150
 0.6490	12.4070
 0.6500	12.3980
 0.6510	12.3890
 0.6520	12.3850
 0.6530	12.3990
 0.6540	12.4250
 0.6550	12.4230
 0.6560	12.4180
 0.6570	12.4250
 0.6580	12.4500
 0.6590	12.4330
 0.6600	12.4190
 0.6610	12.4220
 0.6620	12.4180
 0.6630	12.4280
 0.6640	12.4380
 0.6650	12.4360
 0.6660	12.4510
 0.6670	12.4400
 0.6680	12.4270
 0.6690	12.4560
 0.6700	12.4740
 0.6710	12.4820
 0.6720	12.4880
 0.6730	12.5060
 0.6740	12.5220
 0.6750	12.5470
 0.6760	12.5860
 0.6770	12.5780
 0.6780	12.5820
 0.6790	12.6180
 0.6800	12.6750
 0.6810	12.7190
 0.6820	12.7480
 0.6830	12.7700
 0.6840	12.7970
 0.6850	12.8120
 0.6860	12.8320
 0.6870	12.8770
 0.6880	12.9220
 0.6890	12.9480
 0.6900	12.9680
 0.6910	13.0150
 0.6920	13.0640
 0.6930	13.1580
 0.6940	13.3190
 0.6950	13.4960
 0.6960	13.7090
 0.6970	13.9870
 0.6980	14.3450
 0.6990	14.7460
 0.7000	15.2260
 0.7010	15.7900
 0.7020	16.4170
 0.7030	17.0840
 0.7040	17.7980
 0.7050	18.5640
 0.7060	19.3650
 0.7070	20.2270
 0.7080	21.1400
 0.7090	22.0840
 0.7100	23.0460
 0.7110	24.0520
 0.7120	25.1100
 0.7130	26.2190
 0.7140	27.3310
 0.7150	28.4600
 0.7160	29.6270
 0.7170	30.8470
 0.7180	32.0830
 0.7190	33.3310
 0.7200	34.6020
 0.7210	35.8740
 0.7220	37.1580
 0.7230	38.4550
 0.7240	39.7520
 0.7250	41.0490
 0.7260	42.3260
 0.7270	43.5650
 0.7280	44.7640
 0.7290	45.9550
 0.7300	47.1200
 0.7310	48.2270
 0.7320	49.3090
 0.7330	50.3590
 0.7340	51.3630
 0.7350	52.3050
 0.7360	53.1870
 0.7370	54.0420
 0.7380	54.8790
 0.7390	55.6290
 0.7400	56.3450
 0.7410	57.0320
 0.7420	57.6740
 0.7430	58.2500
 0.7440	58.7800
 0.7450	59.2800
 0.7460	59.7570
 0.7470	60.1580
 0.7480	60.5290
 0.7490	60.8950
 0.7500	61.1970
 0.7510	61.5020
 0.7520	61.7930
 0.7530	62.0310
 0.7540	62.2050
 0.7550	62.3840
 0.7560	62.5740
 0.7570	62.7290
 0.7580	62.8810
 0.7590	63.0220
 0.7600	63.1380
 0.7610	63.2160
 0.7620	63.2740
 0.7630	63.3460
 0.7640	63.4450
 0.7650	63.5070
 0.7660	63.5300
 0.7670	63.5610
 0.7680	63.6580
 0.7690	63.6670
 0.7700	63.6620
 0.7710	63.6840
 0.7720	63.6870
 0.7730	63.7020
 0.7740	63.7410
 0.7750	63.7870
 0.7760	63.7530
 0.7770	63.7440
 0.7780	63.7630
 0.7790	63.7650
 0.7800	63.7790
 0.7810	63.7860
 0.7820	63.7750
 0.7830	63.7560
 0.7840	63.7640
 0.7850	63.7630
 0.7860	63.7370
 0.7870	63.7510
 0.7880	63.7650
 0.7890	63.7600
 0.7900	63.7360
 0.7910	63.7300
 0.7920	63.7290
 0.7930	63.7320
 0.7940	63.7400
 0.7950	63.7180
 0.7960	63.6810
 0.7970	63.6550
 0.7980	63.6600
 0.7990	63.6810
 0.8000	63.6840
 0.8010	63.6570
 0.8020	63.6600
 0.8030	63.6500
 0.8040	63.6290
 0.8050	63.6150
 0.8060	63.5840
 0.8070	63.5820
 0.8080	63.5970
 0.8090	63.5730
 0.8100	63.5810
 0.8110	63.5800
 0.8120	63.5490
 0.8130	63.5200
 0.8140	63.5060
 0.8150	63.5120
 0.8160	63.5320
 0.8170	63.5400
 0.8180	63.5240
 0.8190	63.4910
 0.8200	63.4620
 0.8210	63.4830
 0.8220	63.5090
 0.8230	63.5160
 0.8240	63.5000
 0.8250	63.4710
 0.8260	63.4530
 0.8270	63.4530
 0.8280	63.4490
 0.8290	63.4690
 0.8300	63.4950
 0.8310	63.5070
 0.8320	63.5150
 0.8330	63.4800
 0.8340	63.4430
 0.8350	63.4570
 0.8360	63.4660
 0.8370	63.4750
 0.8380	63.4880
 0.8390	63.5070
 0.8400	63.5200
 0.8410	63.5430
 0.8420	63.5720
 0.8430	63.5700
 0.8440	63.5760
 0.8450	63.5770
 0.8460	63.5690
 0.8470	63.5900
 0.8480	63.6390
 0.8490	63.6670
 0.8500	63.6400
 0.8510	63.6430
 0.8520	63.6620
 0.8530	63.6830
 0.8540	63.6930
 0.8550	63.6970
 0.8560	63.7240
 0.8570	63.7580
 0.8580	63.7430
 0.8590	63.7780
 0.8600	63.7970
 0.8610	63.7750
 0.8620	63.8000
 0.8630	63.8000
 0.8640	63.8090
 0.8650	63.8620
 0.8660	63.9220
 0.8670	63.9150
 0.8680	63.8680
 0.8690	63.8430
 0.8700	63.8660
 0.8710	63.8800
 0.8720	63.8830
 0.8730	63.8990
 0.8740	63.9070
 0.8750	63.9490
 0.8760	64.0040
 0.8770	64.0060
 0.8780	64.0220
 0.8790	64.0030
 0.8800	63.9760
 0.8810	64.0790
 0.8820	64.0630
 0.8830	64.0110
 0.8840	64.0160
 0.8850	64.0220
 0.8860	64.0650
 0.8870	64.0860
 0.8880	64.0420
 0.8890	64.0430
 0.8900	64.0660
 0.8910	64.0630
 0.8920	64.0090
 0.8930	64.0370
 0.8940	64.0730
 0.8950	64.0720
 0.8960	64.0320
 0.8970	64.0380
 0.8980	64.0490
 0.8990	64.0480
 0.9000	64.0560
 0.9010	64.0410
 0.9020	64.0580
 0.9030	64.0960
 0.9040	64.0550
 0.9050	64.0040
 0.9060	63.9700
 0.9070	63.9690
 0.9080	64.0100
 0.9090	64.0130
 0.9100	63.9810
 0.9110	63.9480
 0.9120	63.9680
 0.9130	63.9590
 0.9140	63.9510
 0.9150	63.9820
 0.9160	63.9720
 0.9170	63.9750
 0.9180	63.9690
 0.9190	63.9200
 0.9200	63.8830
 0.9210	63.8760
 0.9220	63.8760
 0.9230	63.8460
 0.9240	63.8410
 0.9250	63.8160
 0.9260	63.7820
 0.9270	63.7800
 0.9280	63.7240
 0.9290	63.6760
 0.9300	63.6490
 0.9310	63.6030
 0.9320	63.5820
 0.9330	63.5080
 0.9340	63.4050
 0.9350	63.4130
 0.9360	63.3770
 0.9370	63.3260
 0.9380	63.2940
 0.9390	63.2710
 0.9400	63.1880
 0.9410	63.1510
 0.9420	63.1760
 0.9430	63.0750
 0.9440	63.0220
 0.9450	62.9390
 0.9460	62.7970
 0.9470	62.7960
 0.9480	62.6700
 0.9490	62.5860
 0.9500	62.6300
 0.9510	62.4180
 0.9520	62.2300
 0.9530	62.1610
 0.9540	62.1750
 0.9550	62.0180
 0.9560	61.9580
 0.9570	61.9560
 0.9580	61.8970
 0.9590	61.7950
 0.9600	61.6370
 0.9610	61.5220
 0.9620	61.5190
 0.9630	61.4510
 0.9640	61.4210
 0.9650	61.3900
 0.9660	61.3080
 0.9670	61.3410
 0.9680	61.3360
 0.9690	61.2520
 0.9700	61.1410
 0.9710	61.1710
 0.9720	61.2750
 0.9730	61.3020
 0.9740	61.1630
 0.9750	61.1880
 0.9760	61.1900
 0.9770	61.2020
 0.9780	61.3050
 0.9790	61.2640
 0.9800	61.2280
 0.9810	61.2410
 0.9820	61.2740
 0.9830	61.2990
 0.9840	61.2750
 0.9850	61.2420
 0.9860	61.2790
 0.9870	61.4300
 0.9880	61.4370
 0.9890	61.3500
 0.9900	61.3460
 0.9910	61.3550
 0.9920	61.3790
 0.9930	61.4450
 0.9940	61.5520
 0.9950	61.5300
 0.9960	61.5120
 0.9970	61.5290
 0.9980	61.5660
 0.9990	61.6550
 1.0000	61.7020
 1.0010	61.5910
 1.0020	61.6350
 1.0030	61.6590
 1.0040	61.6940
 1.0050	61.7310
 1.0060	61.7630
 1.0070	61.8080
 1.0080	61.8380
 1.0090	61.8380
 1.0100	61.8610
 1.0110	61.8970
 1.0120	61.9340
 1.0130	61.9860
 1.0140	62.0220
 1.0150	62.0560
 1.0160	62.0660
 1.0170	62.1000
 1.0180	62.1550
 1.0190	62.1990
 1.0200	62.2580
 1.0210	62.3030
 1.0220	62.3290
 1.0230	62.3600
 1.0240	62.3880
 1.0250	62.4220
 1.0260	62.4620
 1.0270	62.4940
 1.0280	62.5290
 1.0290	62.5570
 1.0300	62.5390
 1.0310	62.5760
 1.0320	62.6590
 1.0330	62.7260
 1.0340	62.7330
 1.0350	62.7720
 1.0360	62.8000
 1.0370	62.8170
 1.0380	62.8420
 1.0390	62.9160
 1.0400	62.9530
 1.0410	62.9530
 1.0420	62.9670
 1.0430	62.9930
 1.0440	63.0130
 1.0450	62.9940
 1.0460	63.0200
 1.0470	63.1050
 1.0480	63.1420
 1.0490	63.1660
 1.0500	63.1970
 1.0510	63.2030
 1.0520	63.2080
 1.0530	63.2260
 1.0540	63.2760
 1.0550	63.2860
 1.0560	63.2630
 1.0570	63.2800
 1.0580	63.3100
 1.0590	63.3230
 1.0600	63.3600
 1.0610	63.3720
 1.0620	63.3490
 1.0630	63.3430
 1.0640	63.3340
 1.0650	63.3350
 1.0660	63.3410
 1.0670	63.3480
 1.0680	63.3600
 1.0690	63.3820
 1.0700	63.3980
 1.0710	63.4140
 1.0720	63.4240
 1.0730	63.4470
 1.0740	63.4330
 1.0750	63.3900
 1.0760	63.3640
 1.0770	63.3000
 1.0780	63.2890
 1.0790	63.3250
 1.0800	63.3370
 1.0810	63.3720
 1.0820	63.3880
 1.0830	63.3820
 1.0840	63.3800
 1.0850	63.3760
 1.0860	63.3700
 1.0870	63.3620
 1.0880	63.3470
 1.0890	63.3430
 1.0900	63.3470
 1.0910	63.3400
 1.0920	63.3390
 1.0930	63.3230
 1.0940	63.2930
 1.0950	63.2680
 1.0960	63.2220
 1.0970	63.2080
 1.0980	63.2190
 1.0990	63.2130
 1.1000	63.2170
 1.1010	63.2200
 1.1020	63.2180
 1.1030	63.2010
 1.1040	63.1880
 1.1050	63.1660
 1.1060	63.1410
 1.1070	63.1020
 1.1080	63.0650
 1.1090	63.0230
 1.1100	62.9990
 1.1110	62.9770
 1.1120	62.9550
 1.1130	62.9510
 1.1140	62.9320
 1.1150	62.9060
 1.1160	62.8740
 1.1170	62.8400
 1.1180	62.8020
 1.1190	62.7570
 1.1200	62.6990
 1.1210	62.6460
 1.1220	62.6030
 1.1230	62.5620
 1.1240	62.5070
 1.1250	62.4340
 1.1260	62.3580
 1.1270	62.2520
 1.1280	62.1090
 1.1290	61.9890
 1.1300	61.8600
 1.1310	61.7270
 1.1320	61.6110
 1.1330	61.4630
 1.1340	61.2920
 1.1350	61.1250
 1.1360	60.9460
 1.1370	60.7630
 1.1380	60.5960
 1.1390	60.4000
 1.1400	60.2060
 1.1410	59.9960
 1.1420	59.7520
 1.1430	59.5140
 1.1440	59.2950
 1.1450	59.0680
 1.1460	58.8690
 1.1470	58.7070
 1.1480	58.5150
 1.1490	58.3110
 1.1500	58.1280
 1.1510	57.9350
 1.1520	57.7710
 1.1530	57.6290
 1.1540	57.4960
 1.1550	57.3780
 1.1560	57.2710
 1.1570	57.1820
 1.1580	57.1010
 1.1590	57.0360
 1.1600	56.9660
 1.1610	56.8860
 1.1620	56.8270
 1.1630	56.7610
 1.1640	56.7070
 1.1650	56.6660
 1.1660	56.6480
 1.1670	56.6110
 1.1680	56.5740
 1.1690	56.5430
 1.1700	56.5060
 1.1710	56.4780
 1.1720	56.4660
 1.1730	56.4470
 1.1740	56.4240
 1.1750	56.4030
 1.1760	56.3880
 1.1770	56.3700
 1.1780	56.3530
 1.1790	56.3330
 1.1800	56.3020
 1.1810	56.2600
 1.1820	56.2220
 1.1830	56.1860
 1.1840	56.1490
 1.1850	56.1290
 1.1860	56.1040
 1.1870	56.0610
 1.1880	56.0390
 1.1890	56.0220
 1.1900	56.0190
 1.1910	56.0410
 1.1920	56.0490
 1.1930	56.0650
 1.1940	56.0580
 1.1950	56.0300
 1.1960	56.0070
 1.1970	55.9910
 1.1980	55.9920
 1.1990	56.0000
 1.2000	56.0160
 1.2010	56.0250
 1.2020	56.0150
 1.2030	56.0090
 1.2040	56.0040
 1.2050	56.0020
 1.2060	56.0190
 1.2070	56.0410
 1.2080	56.0580
 1.2090	56.0710
 1.2100	56.0820
 1.2110	56.1090
 1.2120	56.1460
 1.2130	56.1810
 1.2140	56.2360
 1.2150	56.2810
 1.2160	56.3220
 1.2170	56.3560
 1.2180	56.3940
 1.2190	56.4180
 1.2200	56.4350
 1.2210	56.4680
 1.2220	56.5170
 1.2230	56.5690
 1.2240	56.6300
 1.2250	56.6930
 1.2260	56.7500
 1.2270	56.8030
 1.2280	56.8500
 1.2290	56.8980
 1.2300	56.9400
 1.2310	56.9710
 1.2320	56.9980
 1.2330	57.0200
 1.2340	57.0510
 1.2350	57.0930
 1.2360	57.1260
 1.2370	57.1580
 1.2380	57.1860
 1.2390	57.2200
 1.2400	57.2390
 1.2410	57.2630
 1.2420	57.3030
 1.2430	57.3300
 1.2440	57.3460
 1.2450	57.3790
 1.2460	57.4110
 1.2470	57.4280
 1.2480	57.4540
 1.2490	57.4920
 1.2500	57.5280
 1.2510	57.5660
 1.2520	57.5920
 1.2530	57.5960
 1.2540	57.6050
 1.2550	57.6040
 1.2560	57.6120
 1.2570	57.6470
 1.2580	57.6670
 1.2590	57.6790
 1.2600	57.6990
 1.2610	57.7040
 1.2620	57.6890
 1.2630	57.6780
 1.2640	57.6840
 1.2650	57.6960
 1.2660	57.7120
 1.2670	57.7280
 1.2680	57.7320
 1.2690	57.7330
 1.2700	57.7240
 1.2710	57.6990
 1.2720	57.6850
 1.2730	57.6710
 1.2740	57.6440
 1.2750	57.6430
 1.2760	57.6290
 1.2770	57.5870
 1.2780	57.5530
 1.2790	57.5110
 1.2800	57.4670
 1.2810	57.4320
 1.2820	57.4070
 1.2830	57.3770
 1.2840	57.3470
 1.2850	57.3140
 1.2860	57.2720
 1.2870	57.2240
 1.2880	57.1720
 1.2890	57.1040
 1.2900	57.0390
 1.2910	56.9840
 1.2920	56.9350
 1.2930	56.8890
 1.2940	56.8460
 1.2950	56.7950
 1.2960	56.7300
 1.2970	56.6660
 1.2980	56.6050
 1.2990	56.5380
 1.3000	56.4730
 1.3010	56.4140
 1.3020	56.3470
 1.3030	56.2670
 1.3040	56.1700
 1.3050	56.0750
 1.3060	55.9750
 1.3070	55.8610
 1.3080	55.7620
 1.3090	55.6500
 1.3100	55.5290
 1.3110	55.4230
 1.3120	55.3020
 1.3130	55.1650
 1.3140	55.0350
 1.3150	54.9050
 1.3160	54.7700
 1.3170	54.6350
 1.3180	54.5030
 1.3190	54.3590
 1.3200	54.1810
 1.3210	53.9990
 1.3220	53.8200
 1.3230	53.6300
 1.3240	53.4490
 1.3250	53.2700
 1.3260	53.0950
 1.3270	52.9260
 1.3280	52.7480
 1.3290	52.5750
 1.3300	52.3900
 1.3310	52.1860
 1.3320	51.9780
 1.3330	51.7730
 1.3340	51.5760
 1.3350	51.3860
 1.3360	51.1960
 1.3370	50.9920
 1.3380	50.7890
 1.3390	50.5900
 1.3400	50.3870
 1.3410	50.2040
 1.3420	50.0230
 1.3430	49.8280
 1.3440	49.6560
 1.3450	49.4810
 1.3460	49.3030
 1.3470	49.1230
 1.3480	48.9460
 1.3490	48.7720
 1.3500	48.5970
 1.3510	48.4350
 1.3520	48.2810
 1.3530	48.1150
 1.3540	47.9400
 1.3550	47.7730
 1.3560	47.5990
 1.3570	47.4250
 1.3580	47.2610
 1.3590	47.0850
 1.3600	46.9040
 1.3610	46.7180
 1.3620	46.5180
 1.3630	46.3120
 1.3640	46.0950
 1.3650	45.8740
 1.3660	45.6500
 1.3670	45.4110
 1.3680	45.1540
 1.3690	44.8710
 1.3700	44.5790
 1.3710	44.2650
 1.3720	43.9330
 1.3730	43.5870
 1.3740	43.2090
 1.3750	42.8050
 1.3760	42.3730
 1.3770	41.9140
 1.3780	41.4290
 1.3790	40.9180
 1.3800	40.3750
 1.3810	39.8060
 1.3820	39.2230
 1.3830	38.6170
 1.3840	37.9900
 1.3850	37.3500
 1.3860	36.6850
 1.3870	35.9820
 1.3880	35.2910
 1.3890	34.5880
 1.3900	33.8810
 1.3910	33.1860
 1.3920	32.4930
 1.3930	31.8050
 1.3940	31.1290
 1.3950	30.4560
 1.3960	29.8130
 1.3970	29.1950
 1.3980	28.5880
 1.3990	28.0120
 1.4000	27.4570
 1.4010	26.9140
 1.4020	26.4000
 1.4030	25.9110
 1.4040	25.4430
 1.4050	25.0050
 1.4060	24.5930
 1.4070	24.2110
 1.4080	23.8570
 1.4090	23.5250
 1.4100	23.2200
 1.4110	22.9330
 1.4120	22.6630
 1.4130	22.4140
 1.4140	22.1790
 1.4150	21.9620
 1.4160	21.7620
 1.4170	21.5730
 1.4180	21.4000
 1.4190	21.2360
 1.4200	21.0840
 1.4210	20.9440
 1.4220	20.8160
 1.4230	20.7000
 1.4240	20.5910
 1.4250	20.4910
 1.4260	20.4000
 1.4270	20.3130
 1.4280	20.2320
 1.4290	20.1590
 1.4300	20.0910
 1.4310	20.0300
 1.4320	19.9790
 1.4330	19.9270
 1.4340	19.8790
 1.4350	19.8340
 1.4360	19.7910
 1.4370	19.7560
 1.4380	19.7290
 1.4390	19.7080
 1.4400	19.6880
 1.4410	19.6730
 1.4420	19.6560
 1.4430	19.6370
 1.4440	19.6290
 1.4450	19.6190
 1.4460	19.6100
 1.4470	19.6130
 1.4480	19.6130
 1.4490	19.6130
 1.4500	19.6210
 1.4510	19.6220
 1.4520	19.6280
 1.4530	19.6380
 1.4540	19.6510
 1.4550	19.6740
 1.4560	19.6940
 1.4570	19.7170
 1.4580	19.7450
 1.4590	19.7690
 1.4600	19.7950
 1.4610	19.8280
 1.4620	19.8660
 1.4630	19.9100
 1.4640	19.9600
 1.4650	20.0170
 1.4660	20.0750
 1.4670	20.1330
 1.4680	20.2000
 1.4690	20.2720
 1.4700	20.3480
 1.4710	20.4310
 1.4720	20.5120
 1.4730	20.5960
 1.4740	20.6820
 1.4750	20.7760
 1.4760	20.8760
 1.4770	20.9820
 1.4780	21.0920
 1.4790	21.1970
 1.4800	21.3060
