Name: Pinus lambertiana 1
Type: vegetation
Class: Tree
Genus: Pinus
Species: lambertiana
Sample No.: VH243
Owner: UCSB
Wavelength Range: TIR
Origin: 37.043; -119.3043; WGS84
Collection Date: 11/2/2013
Description: Samples were collected as part of the HyspIRI Airborne Campaign. 48 individual plants were sampled in three times in 2013 - spring  summer  and fall. The name of the sample includes a 1  2  or 3 which references a different individual of the species. Samples were taken to JPL and processed within 48 hours of collection. The same leaves were processed in the Nicolet and then measured using the ASD.
Measurement: Hemispherical reflectance
First Column: X
Second Column: Y
X Units: Wavelength (micrometers)
Y Units: Reflectance (percentage)
First X Value: 2.501
Last X Value: 15.387
Number of X Values: 1737
Additional Information: vegetation.tree.pinus.lambertiana.tir.vh243.ucsb.nicolet.ancillary.txt

 2.5010	 5.7340
 2.5030	 5.7320
 2.5040	 5.7420
 2.5050	 5.7390
 2.5060	 5.7280
 2.5070	 5.7310
 2.5090	 5.7390
 2.5100	 5.7380
 2.5110	 5.7270
 2.5120	 5.7300
 2.5140	 5.7260
 2.5150	 5.7220
 2.5160	 5.7330
 2.5170	 5.7240
 2.5180	 5.7210
 2.5200	 5.7250
 2.5210	 5.7280
 2.5220	 5.7250
 2.5230	 5.7350
 2.5250	 5.7410
 2.5260	 5.7340
 2.5270	 5.7300
 2.5280	 5.7270
 2.5290	 5.7210
 2.5310	 5.7260
 2.5320	 5.7270
 2.5330	 5.7110
 2.5340	 5.7130
 2.5360	 5.7390
 2.5370	 5.7470
 2.5380	 5.7380
 2.5390	 5.7190
 2.5410	 5.7110
 2.5420	 5.7210
 2.5430	 5.7260
 2.5440	 5.7160
 2.5460	 5.7170
 2.5470	 5.7240
 2.5480	 5.7250
 2.5490	 5.7210
 2.5510	 5.7330
 2.5520	 5.7380
 2.5530	 5.7240
 2.5540	 5.7290
 2.5560	 5.7370
 2.5570	 5.7360
 2.5580	 5.7350
 2.5590	 5.7260
 2.5610	 5.7040
 2.5620	 5.6770
 2.5630	 5.6840
 2.5640	 5.7010
 2.5660	 5.7250
 2.5670	 5.7290
 2.5680	 5.7180
 2.5700	 5.7040
 2.5710	 5.7120
 2.5720	 5.7180
 2.5730	 5.6860
 2.5750	 5.6910
 2.5760	 5.7000
 2.5770	 5.6830
 2.5790	 5.7060
 2.5800	 5.7340
 2.5810	 5.7250
 2.5820	 5.6930
 2.5840	 5.6680
 2.5850	 5.6890
 2.5860	 5.7030
 2.5880	 5.6900
 2.5890	 5.7090
 2.5900	 5.7150
 2.5910	 5.7230
 2.5930	 5.6980
 2.5940	 5.6290
 2.5950	 5.5900
 2.5970	 5.6500
 2.5980	 5.7030
 2.5990	 5.7160
 2.6000	 5.7140
 2.6020	 5.7100
 2.6030	 5.6930
 2.6040	 5.6590
 2.6060	 5.6440
 2.6070	 5.6790
 2.6080	 5.7080
 2.6100	 5.6980
 2.6110	 5.6900
 2.6120	 5.6980
 2.6140	 5.7000
 2.6150	 5.7050
 2.6160	 5.6800
 2.6180	 5.6650
 2.6190	 5.6840
 2.6200	 5.6660
 2.6220	 5.6800
 2.6230	 5.7160
 2.6240	 5.7130
 2.6260	 5.7060
 2.6270	 5.6850
 2.6280	 5.6990
 2.6300	 5.6790
 2.6310	 5.6430
 2.6320	 5.6780
 2.6340	 5.6940
 2.6350	 5.6770
 2.6360	 5.6830
 2.6380	 5.6940
 2.6390	 5.7020
 2.6400	 5.6940
 2.6420	 5.6960
 2.6430	 5.6980
 2.6440	 5.6940
 2.6460	 5.6790
 2.6470	 5.6770
 2.6480	 5.6950
 2.6500	 5.7000
 2.6510	 5.6870
 2.6520	 5.6660
 2.6540	 5.6650
 2.6550	 5.6770
 2.6560	 5.6720
 2.6580	 5.6900
 2.6590	 5.6890
 2.6610	 5.6770
 2.6620	 5.6660
 2.6630	 5.6650
 2.6650	 5.6270
 2.6660	 5.5910
 2.6670	 5.5980
 2.6690	 5.6270
 2.6700	 5.5840
 2.6720	 5.5760
 2.6730	 5.6330
 2.6740	 5.6460
 2.6760	 5.6190
 2.6770	 5.5900
 2.6780	 5.5970
 2.6800	 5.6010
 2.6810	 5.6190
 2.6830	 5.6240
 2.6840	 5.6260
 2.6850	 5.6400
 2.6870	 5.6500
 2.6880	 5.6650
 2.6900	 5.6610
 2.6910	 5.6540
 2.6920	 5.6440
 2.6940	 5.6210
 2.6950	 5.6090
 2.6970	 5.6300
 2.6980	 5.6540
 2.6990	 5.6680
 2.7010	 5.6500
 2.7020	 5.6460
 2.7040	 5.6530
 2.7050	 5.6670
 2.7060	 5.6750
 2.7080	 5.6620
 2.7090	 5.6370
 2.7110	 5.6160
 2.7120	 5.6190
 2.7130	 5.6610
 2.7150	 5.6790
 2.7160	 5.6860
 2.7180	 5.6840
 2.7190	 5.6640
 2.7210	 5.6200
 2.7220	 5.6360
 2.7230	 5.6330
 2.7250	 5.6210
 2.7260	 5.6520
 2.7280	 5.6770
 2.7290	 5.6900
 2.7310	 5.6980
 2.7320	 5.7000
 2.7330	 5.7080
 2.7350	 5.6900
 2.7360	 5.6930
 2.7380	 5.6750
 2.7390	 5.6390
 2.7410	 5.6290
 2.7420	 5.6720
 2.7440	 5.7170
 2.7450	 5.7240
 2.7470	 5.7130
 2.7480	 5.7010
 2.7490	 5.6920
 2.7510	 5.7010
 2.7520	 5.7270
 2.7540	 5.7360
 2.7550	 5.6880
 2.7570	 5.6980
 2.7580	 5.7310
 2.7600	 5.7300
 2.7610	 5.7160
 2.7630	 5.7010
 2.7640	 5.7020
 2.7660	 5.7210
 2.7670	 5.7360
 2.7680	 5.7330
 2.7700	 5.6960
 2.7710	 5.6960
 2.7730	 5.7330
 2.7740	 5.7630
 2.7760	 5.7760
 2.7770	 5.7710
 2.7790	 5.7790
 2.7800	 5.7660
 2.7820	 5.7610
 2.7830	 5.7730
 2.7850	 5.7810
 2.7860	 5.7590
 2.7880	 5.7440
 2.7890	 5.7680
 2.7910	 5.7670
 2.7920	 5.7630
 2.7940	 5.7730
 2.7950	 5.7900
 2.7970	 5.7890
 2.7980	 5.7960
 2.8000	 5.7810
 2.8010	 5.7640
 2.8030	 5.7550
 2.8040	 5.7590
 2.8060	 5.7790
 2.8070	 5.7930
 2.8090	 5.7910
 2.8110	 5.7990
 2.8120	 5.7990
 2.8140	 5.8010
 2.8150	 5.8030
 2.8170	 5.8020
 2.8180	 5.8000
 2.8200	 5.7980
 2.8210	 5.7980
 2.8230	 5.8110
 2.8240	 5.8250
 2.8260	 5.8170
 2.8270	 5.8160
 2.8290	 5.8270
 2.8300	 5.8190
 2.8320	 5.8000
 2.8340	 5.7880
 2.8350	 5.7970
 2.8370	 5.8040
 2.8380	 5.8170
 2.8400	 5.8190
 2.8410	 5.8230
 2.8430	 5.8350
 2.8440	 5.8380
 2.8460	 5.8330
 2.8480	 5.8230
 2.8490	 5.8170
 2.8510	 5.8300
 2.8520	 5.8440
 2.8540	 5.8460
 2.8550	 5.8360
 2.8570	 5.8340
 2.8590	 5.8360
 2.8600	 5.8600
 2.8620	 5.8590
 2.8630	 5.8370
 2.8650	 5.8400
 2.8660	 5.8490
 2.8680	 5.8360
 2.8700	 5.8470
 2.8710	 5.8690
 2.8730	 5.8730
 2.8740	 5.8520
 2.8760	 5.8560
 2.8780	 5.8610
 2.8790	 5.8550
 2.8810	 5.8670
 2.8820	 5.8900
 2.8840	 5.8960
 2.8860	 5.8850
 2.8870	 5.8810
 2.8890	 5.8770
 2.8900	 5.8590
 2.8920	 5.8560
 2.8940	 5.8600
 2.8950	 5.8750
 2.8970	 5.8850
 2.8980	 5.8790
 2.9000	 5.8620
 2.9020	 5.8520
 2.9030	 5.8520
 2.9050	 5.8670
 2.9070	 5.8790
 2.9080	 5.8720
 2.9100	 5.8520
 2.9120	 5.8530
 2.9130	 5.8780
 2.9150	 5.9000
 2.9160	 5.8910
 2.9180	 5.8770
 2.9200	 5.8770
 2.9210	 5.8920
 2.9230	 5.9010
 2.9250	 5.8980
 2.9260	 5.8930
 2.9280	 5.8920
 2.9300	 5.8930
 2.9310	 5.9110
 2.9330	 5.9090
 2.9350	 5.8990
 2.9360	 5.8990
 2.9380	 5.9040
 2.9400	 5.8840
 2.9410	 5.8860
 2.9430	 5.8870
 2.9450	 5.8790
 2.9460	 5.8970
 2.9480	 5.9120
 2.9500	 5.9160
 2.9510	 5.9150
 2.9530	 5.8930
 2.9550	 5.8720
 2.9560	 5.9040
 2.9580	 5.9230
 2.9600	 5.9010
 2.9610	 5.8900
 2.9630	 5.8700
 2.9650	 5.8640
 2.9660	 5.9350
 2.9680	 6.0170
 2.9700	 5.9470
 2.9720	 5.9300
 2.9730	 5.9490
 2.9750	 5.9400
 2.9770	 5.9060
 2.9780	 5.8520
 2.9800	 5.8720
 2.9820	 5.8990
 2.9840	 5.9290
 2.9850	 5.9370
 2.9870	 5.9450
 2.9890	 6.0500
 2.9900	 6.0920
 2.9920	 6.0000
 2.9940	 5.8400
 2.9960	 5.7130
 2.9970	 5.7600
 2.9990	 5.7360
 3.0010	 5.8230
 3.0030	 5.8860
 3.0040	 5.8750
 3.0060	 5.8480
 3.0080	 5.8800
 3.0100	 5.9450
 3.0110	 5.9430
 3.0130	 5.8890
 3.0150	 5.8750
 3.0170	 5.8760
 3.0180	 5.9130
 3.0200	 5.9410
 3.0220	 5.9330
 3.0240	 5.9240
 3.0250	 5.9100
 3.0270	 5.9010
 3.0290	 5.8880
 3.0310	 5.8600
 3.0320	 5.8660
 3.0340	 5.8700
 3.0360	 5.8490
 3.0380	 5.8550
 3.0400	 5.8640
 3.0410	 5.8060
 3.0430	 5.8730
 3.0450	 5.9240
 3.0470	 5.7680
 3.0480	 5.7850
 3.0500	 5.8110
 3.0520	 5.7780
 3.0540	 5.8430
 3.0560	 5.8730
 3.0570	 5.8900
 3.0590	 5.9060
 3.0610	 5.8700
 3.0630	 5.8250
 3.0650	 5.8410
 3.0660	 5.8510
 3.0680	 5.8760
 3.0700	 5.8990
 3.0720	 5.8820
 3.0740	 5.9020
 3.0760	 5.9240
 3.0770	 5.8970
 3.0790	 5.8580
 3.0810	 5.8460
 3.0830	 5.8660
 3.0850	 5.8730
 3.0870	 5.8680
 3.0880	 5.8750
 3.0900	 5.8690
 3.0920	 5.8650
 3.0940	 5.8760
 3.0960	 5.8870
 3.0980	 5.8870
 3.0990	 5.8820
 3.1010	 5.8570
 3.1030	 5.8300
 3.1050	 5.8420
 3.1070	 5.8820
 3.1090	 5.8960
 3.1110	 5.8830
 3.1120	 5.8640
 3.1140	 5.8560
 3.1160	 5.8540
 3.1180	 5.8580
 3.1200	 5.8590
 3.1220	 5.8580
 3.1240	 5.8550
 3.1260	 5.8590
 3.1270	 5.8630
 3.1290	 5.8640
 3.1310	 5.8510
 3.1330	 5.8620
 3.1350	 5.8890
 3.1370	 5.8690
 3.1390	 5.8650
 3.1410	 5.8770
 3.1430	 5.8310
 3.1450	 5.8250
 3.1460	 5.8400
 3.1480	 5.8620
 3.1500	 5.8340
 3.1520	 5.8510
 3.1540	 5.8350
 3.1560	 5.8290
 3.1580	 5.8590
 3.1600	 5.8670
 3.1620	 5.8450
 3.1640	 5.8310
 3.1660	 5.8490
 3.1680	 5.8450
 3.1700	 5.8010
 3.1710	 5.7880
 3.1730	 5.6820
 3.1750	 5.7250
 3.1770	 5.7870
 3.1790	 5.8000
 3.1810	 5.8500
 3.1830	 5.8950
 3.1850	 5.8910
 3.1870	 5.8700
 3.1890	 5.8390
 3.1910	 5.8280
 3.1930	 5.8130
 3.1950	 5.8050
 3.1970	 5.8100
 3.1990	 5.8090
 3.2010	 5.8140
 3.2030	 5.8190
 3.2050	 5.8180
 3.2070	 5.8220
 3.2090	 5.8170
 3.2110	 5.8230
 3.2130	 5.8370
 3.2150	 5.8240
 3.2170	 5.8090
 3.2190	 5.8090
 3.2210	 5.8180
 3.2230	 5.8270
 3.2250	 5.8230
 3.2270	 5.8150
 3.2290	 5.8120
 3.2310	 5.8220
 3.2330	 5.8200
 3.2350	 5.8240
 3.2370	 5.8240
 3.2390	 5.8150
 3.2410	 5.8140
 3.2430	 5.8140
 3.2450	 5.8140
 3.2470	 5.8080
 3.2490	 5.7910
 3.2510	 5.7720
 3.2530	 5.7780
 3.2550	 5.7890
 3.2570	 5.7960
 3.2590	 5.8030
 3.2610	 5.8120
 3.2630	 5.8230
 3.2650	 5.8150
 3.2670	 5.7920
 3.2690	 5.7910
 3.2720	 5.8060
 3.2740	 5.8030
 3.2760	 5.8000
 3.2780	 5.8080
 3.2800	 5.7940
 3.2820	 5.7830
 3.2840	 5.7950
 3.2860	 5.7960
 3.2880	 5.7910
 3.2900	 5.7920
 3.2920	 5.7890
 3.2940	 5.7870
 3.2960	 5.8020
 3.2990	 5.8080
 3.3010	 5.7950
 3.3030	 5.7750
 3.3050	 5.7760
 3.3070	 5.7930
 3.3090	 5.7860
 3.3110	 5.7750
 3.3130	 5.7950
 3.3150	 5.7840
 3.3180	 5.7640
 3.3200	 5.7750
 3.3220	 5.7830
 3.3240	 5.7940
 3.3260	 5.7960
 3.3280	 5.7910
 3.3300	 5.7980
 3.3330	 5.7990
 3.3350	 5.7770
 3.3370	 5.7670
 3.3390	 5.7770
 3.3410	 5.7830
 3.3430	 5.7850
 3.3450	 5.7760
 3.3480	 5.7790
 3.3500	 5.7890
 3.3520	 5.7910
 3.3540	 5.7860
 3.3560	 5.7810
 3.3580	 5.7860
 3.3610	 5.7940
 3.3630	 5.8020
 3.3650	 5.7990
 3.3670	 5.7890
 3.3690	 5.7830
 3.3720	 5.7890
 3.3740	 5.8030
 3.3760	 5.8000
 3.3780	 5.7970
 3.3800	 5.8010
 3.3830	 5.8040
 3.3850	 5.8040
 3.3870	 5.8090
 3.3890	 5.8040
 3.3910	 5.7910
 3.3940	 5.7890
 3.3960	 5.8020
 3.3980	 5.8160
 3.4000	 5.8180
 3.4020	 5.8140
 3.4050	 5.8140
 3.4070	 5.8180
 3.4090	 5.8260
 3.4110	 5.8200
 3.4140	 5.8150
 3.4160	 5.8210
 3.4180	 5.8340
 3.4200	 5.8480
 3.4230	 5.8580
 3.4250	 5.8670
 3.4270	 5.8820
 3.4290	 5.8820
 3.4320	 5.8820
 3.4340	 5.8850
 3.4360	 5.8750
 3.4390	 5.8740
 3.4410	 5.8630
 3.4430	 5.8400
 3.4450	 5.8360
 3.4480	 5.8370
 3.4500	 5.8360
 3.4520	 5.8290
 3.4550	 5.8270
 3.4570	 5.8190
 3.4590	 5.8190
 3.4620	 5.8180
 3.4640	 5.8130
 3.4660	 5.8160
 3.4680	 5.8110
 3.4710	 5.8100
 3.4730	 5.8170
 3.4750	 5.8210
 3.4780	 5.8090
 3.4800	 5.7960
 3.4820	 5.7910
 3.4850	 5.7950
 3.4870	 5.7970
 3.4890	 5.7860
 3.4920	 5.7810
 3.4940	 5.7840
 3.4970	 5.7870
 3.4990	 5.7800
 3.5010	 5.7780
 3.5040	 5.7950
 3.5060	 5.8220
 3.5080	 5.8390
 3.5110	 5.8560
 3.5130	 5.8610
 3.5160	 5.8540
 3.5180	 5.8360
 3.5200	 5.8110
 3.5230	 5.7990
 3.5250	 5.8040
 3.5270	 5.7930
 3.5300	 5.7790
 3.5320	 5.7750
 3.5350	 5.7760
 3.5370	 5.7820
 3.5400	 5.7760
 3.5420	 5.7650
 3.5440	 5.7600
 3.5470	 5.7570
 3.5490	 5.7580
 3.5520	 5.7640
 3.5540	 5.7590
 3.5570	 5.7560
 3.5590	 5.7730
 3.5610	 5.7730
 3.5640	 5.7660
 3.5660	 5.7590
 3.5690	 5.7550
 3.5710	 5.7540
 3.5740	 5.7540
 3.5760	 5.7480
 3.5790	 5.7450
 3.5810	 5.7470
 3.5840	 5.7570
 3.5860	 5.7620
 3.5890	 5.7540
 3.5910	 5.7470
 3.5930	 5.7570
 3.5960	 5.7620
 3.5980	 5.7640
 3.6010	 5.7680
 3.6030	 5.7620
 3.6060	 5.7540
 3.6080	 5.7430
 3.6110	 5.7360
 3.6140	 5.7370
 3.6160	 5.7430
 3.6190	 5.7550
 3.6210	 5.7520
 3.6240	 5.7410
 3.6260	 5.7380
 3.6290	 5.7450
 3.6310	 5.7460
 3.6340	 5.7440
 3.6360	 5.7420
 3.6390	 5.7300
 3.6410	 5.7320
 3.6440	 5.7420
 3.6470	 5.7440
 3.6490	 5.7450
 3.6520	 5.7330
 3.6540	 5.7300
 3.6570	 5.7330
 3.6590	 5.7300
 3.6620	 5.7320
 3.6650	 5.7400
 3.6670	 5.7340
 3.6700	 5.7340
 3.6720	 5.7330
 3.6750	 5.7370
 3.6780	 5.7400
 3.6800	 5.7370
 3.6830	 5.7330
 3.6850	 5.7260
 3.6880	 5.7230
 3.6910	 5.7270
 3.6930	 5.7290
 3.6960	 5.7330
 3.6990	 5.7250
 3.7010	 5.7170
 3.7040	 5.7170
 3.7060	 5.7200
 3.7090	 5.7230
 3.7120	 5.7230
 3.7140	 5.7180
 3.7170	 5.7190
 3.7200	 5.7220
 3.7220	 5.7220
 3.7250	 5.7240
 3.7280	 5.7280
 3.7300	 5.7310
 3.7330	 5.7300
 3.7360	 5.7250
 3.7390	 5.7220
 3.7410	 5.7300
 3.7440	 5.7310
 3.7470	 5.7290
 3.7490	 5.7280
 3.7520	 5.7170
 3.7550	 5.7140
 3.7580	 5.7200
 3.7600	 5.7240
 3.7630	 5.7270
 3.7660	 5.7240
 3.7680	 5.7180
 3.7710	 5.7200
 3.7740	 5.7200
 3.7770	 5.7210
 3.7790	 5.7240
 3.7820	 5.7210
 3.7850	 5.7150
 3.7880	 5.7170
 3.7900	 5.7180
 3.7930	 5.7220
 3.7960	 5.7210
 3.7990	 5.7170
 3.8020	 5.7210
 3.8040	 5.7220
 3.8070	 5.7180
 3.8100	 5.7210
 3.8130	 5.7160
 3.8160	 5.7130
 3.8180	 5.7160
 3.8210	 5.7170
 3.8240	 5.7140
 3.8270	 5.7150
 3.8300	 5.7080
 3.8330	 5.7030
 3.8350	 5.7170
 3.8380	 5.7290
 3.8410	 5.7270
 3.8440	 5.7190
 3.8470	 5.7160
 3.8500	 5.7180
 3.8520	 5.7180
 3.8550	 5.7200
 3.8580	 5.7140
 3.8610	 5.7130
 3.8640	 5.7090
 3.8670	 5.7120
 3.8700	 5.7170
 3.8730	 5.7150
 3.8750	 5.7140
 3.8780	 5.7190
 3.8810	 5.7220
 3.8840	 5.7240
 3.8870	 5.7180
 3.8900	 5.7110
 3.8930	 5.7080
 3.8960	 5.7160
 3.8990	 5.7280
 3.9020	 5.7250
 3.9050	 5.7180
 3.9080	 5.7190
 3.9110	 5.7180
 3.9140	 5.7130
 3.9160	 5.7150
 3.9190	 5.7160
 3.9220	 5.7110
 3.9250	 5.7130
 3.9280	 5.7130
 3.9310	 5.7120
 3.9340	 5.7170
 3.9370	 5.7180
 3.9400	 5.7200
 3.9430	 5.7200
 3.9460	 5.7140
 3.9490	 5.7130
 3.9520	 5.7190
 3.9550	 5.7280
 3.9580	 5.7270
 3.9610	 5.7200
 3.9640	 5.7240
 3.9670	 5.7260
 3.9700	 5.7230
 3.9730	 5.7310
 3.9770	 5.7370
 3.9800	 5.7370
 3.9830	 5.7320
 3.9860	 5.7230
 3.9890	 5.7200
 3.9920	 5.7240
 3.9950	 5.7210
 3.9980	 5.7220
 4.0010	 5.7190
 4.0040	 5.7170
 4.0070	 5.7090
 4.0100	 5.7090
 4.0130	 5.7100
 4.0170	 5.7100
 4.0200	 5.7150
 4.0230	 5.7150
 4.0260	 5.7030
 4.0290	 5.6990
 4.0320	 5.7050
 4.0350	 5.7090
 4.0380	 5.7070
 4.0420	 5.7020
 4.0450	 5.7010
 4.0480	 5.7040
 4.0510	 5.7050
 4.0540	 5.7070
 4.0570	 5.6990
 4.0610	 5.6950
 4.0640	 5.7010
 4.0670	 5.7090
 4.0700	 5.7120
 4.0730	 5.7090
 4.0770	 5.7030
 4.0800	 5.7020
 4.0830	 5.7080
 4.0860	 5.7100
 4.0890	 5.7040
 4.0930	 5.7000
 4.0960	 5.7040
 4.0990	 5.7050
 4.1020	 5.7000
 4.1060	 5.7020
 4.1090	 5.6980
 4.1120	 5.6940
 4.1150	 5.6920
 4.1190	 5.6950
 4.1220	 5.6910
 4.1250	 5.6900
 4.1280	 5.7010
 4.1320	 5.7080
 4.1350	 5.7050
 4.1380	 5.6970
 4.1420	 5.6970
 4.1450	 5.7020
 4.1480	 5.7040
 4.1520	 5.7060
 4.1550	 5.6970
 4.1580	 5.6960
 4.1620	 5.7000
 4.1650	 5.6990
 4.1680	 5.6970
 4.1720	 5.6970
 4.1750	 5.6940
 4.1780	 5.6940
 4.1820	 5.6900
 4.1850	 5.6900
 4.1890	 5.6930
 4.1920	 5.6850
 4.1950	 5.6660
 4.1990	 5.6470
 4.2020	 5.6190
 4.2060	 5.5940
 4.2090	 5.5700
 4.2120	 5.5410
 4.2160	 5.5040
 4.2190	 5.4650
 4.2230	 5.4220
 4.2260	 5.4040
 4.2300	 5.3740
 4.2330	 5.3530
 4.2360	 5.3690
 4.2400	 5.3840
 4.2430	 5.4010
 4.2470	 5.4180
 4.2500	 5.4390
 4.2540	 5.4730
 4.2570	 5.5190
 4.2610	 5.5200
 4.2640	 5.4730
 4.2680	 5.4560
 4.2710	 5.4380
 4.2750	 5.4510
 4.2780	 5.4830
 4.2820	 5.4700
 4.2850	 5.4560
 4.2890	 5.4630
 4.2930	 5.4730
 4.2960	 5.4900
 4.3000	 5.4980
 4.3030	 5.4960
 4.3070	 5.5010
 4.3100	 5.5150
 4.3140	 5.5400
 4.3180	 5.5590
 4.3210	 5.5720
 4.3250	 5.5810
 4.3280	 5.5920
 4.3320	 5.6070
 4.3360	 5.6170
 4.3390	 5.6240
 4.3430	 5.6250
 4.3470	 5.6310
 4.3500	 5.6400
 4.3540	 5.6530
 4.3570	 5.6560
 4.3610	 5.6560
 4.3650	 5.6560
 4.3680	 5.6580
 4.3720	 5.6670
 4.3760	 5.6740
 4.3800	 5.6720
 4.3830	 5.6810
 4.3870	 5.6910
 4.3910	 5.6870
 4.3940	 5.6830
 4.3980	 5.6780
 4.4020	 5.6750
 4.4060	 5.6720
 4.4090	 5.6760
 4.4130	 5.6820
 4.4170	 5.6830
 4.4210	 5.6790
 4.4240	 5.6770
 4.4280	 5.6800
 4.4320	 5.6790
 4.4360	 5.6780
 4.4400	 5.6800
 4.4430	 5.6850
 4.4470	 5.6790
 4.4510	 5.6740
 4.4550	 5.6780
 4.4590	 5.6780
 4.4620	 5.6810
 4.4660	 5.6880
 4.4700	 5.6950
 4.4740	 5.6950
 4.4780	 5.6880
 4.4820	 5.6810
 4.4860	 5.6790
 4.4900	 5.6820
 4.4930	 5.6860
 4.4970	 5.6850
 4.5010	 5.6850
 4.5050	 5.6800
 4.5090	 5.6780
 4.5130	 5.6810
 4.5170	 5.6820
 4.5210	 5.6810
 4.5250	 5.6810
 4.5290	 5.6840
 4.5330	 5.6820
 4.5370	 5.6840
 4.5410	 5.6800
 4.5450	 5.6780
 4.5490	 5.6780
 4.5530	 5.6760
 4.5570	 5.6810
 4.5610	 5.6830
 4.5650	 5.6770
 4.5690	 5.6800
 4.5730	 5.6840
 4.5770	 5.6840
 4.5810	 5.6830
 4.5850	 5.6770
 4.5890	 5.6730
 4.5930	 5.6780
 4.5970	 5.6810
 4.6010	 5.6740
 4.6050	 5.6810
 4.6090	 5.6910
 4.6130	 5.6860
 4.6170	 5.6910
 4.6220	 5.6900
 4.6260	 5.6730
 4.6300	 5.6620
 4.6340	 5.6680
 4.6380	 5.6710
 4.6420	 5.6650
 4.6460	 5.6660
 4.6510	 5.6750
 4.6550	 5.6730
 4.6590	 5.6710
 4.6630	 5.6780
 4.6670	 5.6790
 4.6720	 5.6790
 4.6760	 5.6770
 4.6800	 5.6730
 4.6840	 5.6790
 4.6880	 5.6780
 4.6930	 5.6710
 4.6970	 5.6700
 4.7010	 5.6780
 4.7050	 5.6790
 4.7100	 5.6730
 4.7140	 5.6770
 4.7180	 5.6850
 4.7230	 5.6820
 4.7270	 5.6760
 4.7310	 5.6700
 4.7360	 5.6730
 4.7400	 5.6750
 4.7440	 5.6710
 4.7490	 5.6720
 4.7530	 5.6700
 4.7570	 5.6650
 4.7620	 5.6670
 4.7660	 5.6710
 4.7700	 5.6710
 4.7750	 5.6740
 4.7790	 5.6760
 4.7840	 5.6710
 4.7880	 5.6770
 4.7920	 5.6770
 4.7970	 5.6690
 4.8010	 5.6750
 4.8060	 5.6780
 4.8100	 5.6760
 4.8150	 5.6810
 4.8190	 5.6760
 4.8240	 5.6680
 4.8280	 5.6700
 4.8330	 5.6720
 4.8370	 5.6740
 4.8420	 5.6800
 4.8460	 5.6810
 4.8510	 5.6810
 4.8550	 5.6790
 4.8600	 5.6780
 4.8640	 5.6750
 4.8690	 5.6720
 4.8730	 5.6740
 4.8780	 5.6690
 4.8830	 5.6700
 4.8870	 5.6750
 4.8920	 5.6700
 4.8960	 5.6720
 4.9010	 5.6750
 4.9060	 5.6800
 4.9100	 5.6830
 4.9150	 5.6750
 4.9200	 5.6710
 4.9240	 5.6670
 4.9290	 5.6660
 4.9340	 5.6700
 4.9380	 5.6720
 4.9430	 5.6740
 4.9480	 5.6770
 4.9530	 5.6760
 4.9570	 5.6750
 4.9620	 5.6840
 4.9670	 5.6860
 4.9720	 5.6820
 4.9760	 5.6800
 4.9810	 5.6770
 4.9860	 5.6710
 4.9910	 5.6700
 4.9960	 5.6740
 5.0000	 5.6770
 5.0050	 5.6830
 5.0100	 5.6860
 5.0150	 5.6740
 5.0200	 5.6620
 5.0250	 5.6620
 5.0290	 5.6700
 5.0340	 5.6770
 5.0390	 5.6760
 5.0440	 5.6740
 5.0490	 5.6750
 5.0540	 5.6750
 5.0590	 5.6820
 5.0640	 5.6800
 5.0690	 5.6780
 5.0740	 5.6780
 5.0790	 5.6740
 5.0840	 5.6690
 5.0890	 5.6720
 5.0940	 5.6740
 5.0990	 5.6750
 5.1040	 5.6810
 5.1090	 5.6810
 5.1140	 5.6710
 5.1190	 5.6720
 5.1240	 5.6820
 5.1290	 5.6770
 5.1340	 5.6670
 5.1390	 5.6660
 5.1440	 5.6690
 5.1490	 5.6680
 5.1540	 5.6690
 5.1600	 5.6680
 5.1650	 5.6690
 5.1700	 5.6720
 5.1750	 5.6750
 5.1800	 5.6730
 5.1850	 5.6740
 5.1910	 5.6780
 5.1960	 5.6690
 5.2010	 5.6600
 5.2060	 5.6660
 5.2110	 5.6610
 5.2170	 5.6640
 5.2220	 5.6770
 5.2270	 5.6800
 5.2320	 5.6770
 5.2380	 5.6680
 5.2430	 5.6670
 5.2480	 5.6660
 5.2540	 5.6680
 5.2590	 5.6720
 5.2640	 5.6690
 5.2700	 5.6690
 5.2750	 5.6760
 5.2800	 5.6740
 5.2860	 5.6700
 5.2910	 5.6600
 5.2970	 5.6590
 5.3020	 5.6680
 5.3070	 5.6770
 5.3130	 5.6760
 5.3180	 5.6740
 5.3240	 5.6760
 5.3290	 5.6750
 5.3350	 5.6720
 5.3400	 5.6700
 5.3460	 5.6600
 5.3510	 5.6510
 5.3570	 5.6560
 5.3620	 5.6610
 5.3680	 5.6650
 5.3730	 5.6720
 5.3790	 5.6780
 5.3850	 5.6690
 5.3900	 5.6650
 5.3960	 5.6670
 5.4010	 5.6670
 5.4070	 5.6630
 5.4130	 5.6570
 5.4180	 5.6420
 5.4240	 5.6380
 5.4300	 5.6530
 5.4350	 5.6600
 5.4410	 5.6600
