Name: Quercus douglasii 3
Type: vegetation
Class: Tree
Genus: Quercus
Species: douglasii
Sample No.: VH277
Owner: UCSB
Wavelength Range: VSWIR
Origin: 34.7165; -120.0605; WGS84
Collection Date: 11/2/2013
Description: Samples were collected as part of the HyspIRI Airborne Campaign. 48 individual plants were sampled in three times in 2013 - spring  summer  and fall. The name of the sample includes a 1  2  or 3 which references a different individual of the species. Samples were taken to JPL and processed within 48 hours of collection. The same leaves were processed in the Nicolet and then measured using the ASD.
Measurement: Bidirectional reflectance
First Column: X
Second Column: Y
X Units: Wavelength (micrometers)
Y Units: Reflectance (percentage)
First X Value: 0.35
Last X Value: 2.5
Number of X Values: 2151
Additional Information: vegetation.tree.quercus.douglasii.vswir.vh277.ucsb.asd.ancillary.txt

 0.3500	 7.5380
 0.3510	 7.3600
 0.3520	 7.2700
 0.3530	 7.2550
 0.3540	 7.2510
 0.3550	 7.1950
 0.3560	 7.2630
 0.3570	 7.3860
 0.3580	 7.3860
 0.3590	 7.2830
 0.3600	 7.2050
 0.3610	 7.2280
 0.3620	 7.3490
 0.3630	 7.3300
 0.3640	 7.2830
 0.3650	 7.3360
 0.3660	 7.3070
 0.3670	 7.2700
 0.3680	 7.2660
 0.3690	 7.2970
 0.3700	 7.2580
 0.3710	 7.2310
 0.3720	 7.2620
 0.3730	 7.2920
 0.3740	 7.3110
 0.3750	 7.2970
 0.3760	 7.2580
 0.3770	 7.3350
 0.3780	 7.3430
 0.3790	 7.2770
 0.3800	 7.2930
 0.3810	 7.3580
 0.3820	 7.4020
 0.3830	 7.3940
 0.3840	 7.3890
 0.3850	 7.3960
 0.3860	 7.4090
 0.3870	 7.4230
 0.3880	 7.4890
 0.3890	 7.5250
 0.3900	 7.5210
 0.3910	 7.5460
 0.3920	 7.5340
 0.3930	 7.5070
 0.3940	 7.4990
 0.3950	 7.5400
 0.3960	 7.6020
 0.3970	 7.6530
 0.3980	 7.6650
 0.3990	 7.6600
 0.4000	 7.6740
 0.4010	 7.7080
 0.4020	 7.7220
 0.4030	 7.7240
 0.4040	 7.7320
 0.4050	 7.7600
 0.4060	 7.7990
 0.4070	 7.8520
 0.4080	 7.9050
 0.4090	 7.9360
 0.4100	 7.9570
 0.4110	 7.9900
 0.4120	 8.0390
 0.4130	 8.0770
 0.4140	 8.1090
 0.4150	 8.1340
 0.4160	 8.1560
 0.4170	 8.1880
 0.4180	 8.2300
 0.4190	 8.2770
 0.4200	 8.3130
 0.4210	 8.3270
 0.4220	 8.3530
 0.4230	 8.4100
 0.4240	 8.4490
 0.4250	 8.4870
 0.4260	 8.5310
 0.4270	 8.5790
 0.4280	 8.6160
 0.4290	 8.6350
 0.4300	 8.6470
 0.4310	 8.6880
 0.4320	 8.7290
 0.4330	 8.7510
 0.4340	 8.7540
 0.4350	 8.7770
 0.4360	 8.8120
 0.4370	 8.8500
 0.4380	 8.8770
 0.4390	 8.9160
 0.4400	 8.9530
 0.4410	 8.9750
 0.4420	 8.9790
 0.4430	 9.0000
 0.4440	 9.0280
 0.4450	 9.0410
 0.4460	 9.0650
 0.4470	 9.0880
 0.4480	 9.1040
 0.4490	 9.1190
 0.4500	 9.1340
 0.4510	 9.1530
 0.4520	 9.1720
 0.4530	 9.1900
 0.4540	 9.2020
 0.4550	 9.2120
 0.4560	 9.2270
 0.4570	 9.2490
 0.4580	 9.2590
 0.4590	 9.2560
 0.4600	 9.2770
 0.4610	 9.2870
 0.4620	 9.2930
 0.4630	 9.3090
 0.4640	 9.3200
 0.4650	 9.3320
 0.4660	 9.3440
 0.4670	 9.3510
 0.4680	 9.3530
 0.4690	 9.3570
 0.4700	 9.3680
 0.4710	 9.3740
 0.4720	 9.3810
 0.4730	 9.3920
 0.4740	 9.4070
 0.4750	 9.4100
 0.4760	 9.4080
 0.4770	 9.4090
 0.4780	 9.4140
 0.4790	 9.4250
 0.4800	 9.4350
 0.4810	 9.4400
 0.4820	 9.4420
 0.4830	 9.4500
 0.4840	 9.4640
 0.4850	 9.4740
 0.4860	 9.4820
 0.4870	 9.4950
 0.4880	 9.5140
 0.4890	 9.5280
 0.4900	 9.5440
 0.4910	 9.5670
 0.4920	 9.5920
 0.4930	 9.6060
 0.4940	 9.6320
 0.4950	 9.6760
 0.4960	 9.7030
 0.4970	 9.7410
 0.4980	 9.7830
 0.4990	 9.8210
 0.5000	 9.8640
 0.5010	 9.9180
 0.5020	 9.9810
 0.5030	10.0470
 0.5040	10.1170
 0.5050	10.1930
 0.5060	10.2800
 0.5070	10.3820
 0.5080	10.4940
 0.5090	10.6140
 0.5100	10.7440
 0.5110	10.8880
 0.5120	11.0480
 0.5130	11.2270
 0.5140	11.4180
 0.5150	11.6230
 0.5160	11.8450
 0.5170	12.0820
 0.5180	12.3260
 0.5190	12.5810
 0.5200	12.8460
 0.5210	13.1130
 0.5220	13.3890
 0.5230	13.6660
 0.5240	13.9380
 0.5250	14.2040
 0.5260	14.4700
 0.5270	14.7270
 0.5280	14.9630
 0.5290	15.1910
 0.5300	15.4100
 0.5310	15.6200
 0.5320	15.8130
 0.5330	15.9930
 0.5340	16.1630
 0.5350	16.3240
 0.5360	16.4650
 0.5370	16.5970
 0.5380	16.7250
 0.5390	16.8450
 0.5400	16.9620
 0.5410	17.0690
 0.5420	17.1670
 0.5430	17.2630
 0.5440	17.3710
 0.5450	17.4840
 0.5460	17.5890
 0.5470	17.7000
 0.5480	17.8060
 0.5490	17.8950
 0.5500	17.9640
 0.5510	18.0250
 0.5520	18.0750
 0.5530	18.1070
 0.5540	18.1250
 0.5550	18.1270
 0.5560	18.1110
 0.5570	18.0810
 0.5580	18.0350
 0.5590	17.9710
 0.5600	17.8900
 0.5610	17.7940
 0.5620	17.6870
 0.5630	17.5670
 0.5640	17.4340
 0.5650	17.2940
 0.5660	17.1520
 0.5670	17.0050
 0.5680	16.8440
 0.5690	16.6830
 0.5700	16.5210
 0.5710	16.3580
 0.5720	16.1990
 0.5730	16.0410
 0.5740	15.8910
 0.5750	15.7540
 0.5760	15.6150
 0.5770	15.4870
 0.5780	15.3760
 0.5790	15.2670
 0.5800	15.1690
 0.5810	15.0810
 0.5820	14.9940
 0.5830	14.9110
 0.5840	14.8400
 0.5850	14.7770
 0.5860	14.7160
 0.5870	14.6620
 0.5880	14.6140
 0.5890	14.5730
 0.5900	14.5340
 0.5910	14.5030
 0.5920	14.4780
 0.5930	14.4550
 0.5940	14.4340
 0.5950	14.4150
 0.5960	14.3950
 0.5970	14.3630
 0.5980	14.3280
 0.5990	14.2920
 0.6000	14.2520
 0.6010	14.1990
 0.6020	14.1340
 0.6030	14.0610
 0.6040	13.9850
 0.6050	13.9000
 0.6060	13.8100
 0.6070	13.7130
 0.6080	13.6090
 0.6090	13.4970
 0.6100	13.3770
 0.6110	13.2570
 0.6120	13.1610
 0.6130	13.0790
 0.6140	13.0000
 0.6150	12.9200
 0.6160	12.8490
 0.6170	12.7810
 0.6180	12.7090
 0.6190	12.6530
 0.6200	12.6060
 0.6210	12.5640
 0.6220	12.5300
 0.6230	12.5060
 0.6240	12.4900
 0.6250	12.4770
 0.6260	12.4650
 0.6270	12.4600
 0.6280	12.4630
 0.6290	12.4680
 0.6300	12.4750
 0.6310	12.4830
 0.6320	12.4900
 0.6330	12.4920
 0.6340	12.4900
 0.6350	12.4790
 0.6360	12.4580
 0.6370	12.4230
 0.6380	12.3750
 0.6390	12.3150
 0.6400	12.2480
 0.6410	12.1690
 0.6420	12.0800
 0.6430	11.9860
 0.6440	11.8910
 0.6450	11.7970
 0.6460	11.6990
 0.6470	11.5990
 0.6480	11.5100
 0.6490	11.4260
 0.6500	11.3460
 0.6510	11.2750
 0.6520	11.2130
 0.6530	11.1500
 0.6540	11.0800
 0.6550	11.0140
 0.6560	10.9490
 0.6570	10.8820
 0.6580	10.8100
 0.6590	10.7420
 0.6600	10.6800
 0.6610	10.6220
 0.6620	10.5660
 0.6630	10.5210
 0.6640	10.4830
 0.6650	10.4480
 0.6660	10.4270
 0.6670	10.4160
 0.6680	10.4110
 0.6690	10.4100
 0.6700	10.4160
 0.6710	10.4310
 0.6720	10.4550
 0.6730	10.4730
 0.6740	10.5010
 0.6750	10.5380
 0.6760	10.5780
 0.6770	10.6150
 0.6780	10.6650
 0.6790	10.7250
 0.6800	10.7830
 0.6810	10.8570
 0.6820	10.9440
 0.6830	11.0430
 0.6840	11.1600
 0.6850	11.3030
 0.6860	11.4780
 0.6870	11.6920
 0.6880	11.9590
 0.6890	12.2920
 0.6900	12.7030
 0.6910	13.2020
 0.6920	13.7970
 0.6930	14.4950
 0.6940	15.3000
 0.6950	16.2060
 0.6960	17.2100
 0.6970	18.3060
 0.6980	19.4820
 0.6990	20.7170
 0.7000	22.0080
 0.7010	23.3380
 0.7020	24.6840
 0.7030	26.0420
 0.7040	27.3920
 0.7050	28.7210
 0.7060	30.0350
 0.7070	31.3190
 0.7080	32.5640
 0.7090	33.7740
 0.7100	34.9610
 0.7110	36.1110
 0.7120	37.2160
 0.7130	38.2730
 0.7140	39.3030
 0.7150	40.2980
 0.7160	41.2500
 0.7170	42.1720
 0.7180	43.0410
 0.7190	43.8760
 0.7200	44.6980
 0.7210	45.4780
 0.7220	46.2100
 0.7230	46.9040
 0.7240	47.5800
 0.7250	48.2260
 0.7260	48.8320
 0.7270	49.3990
 0.7280	49.9470
 0.7290	50.4610
 0.7300	50.9490
 0.7310	51.4230
 0.7320	51.8660
 0.7330	52.2800
 0.7340	52.6680
 0.7350	53.0320
 0.7360	53.3700
 0.7370	53.6870
 0.7380	53.9900
 0.7390	54.2880
 0.7400	54.5730
 0.7410	54.8320
 0.7420	55.0570
 0.7430	55.2780
 0.7440	55.4860
 0.7450	55.6740
 0.7460	55.8450
 0.7470	56.0120
 0.7480	56.1690
 0.7490	56.3120
 0.7500	56.4460
 0.7510	56.5660
 0.7520	56.6780
 0.7530	56.7900
 0.7540	56.8860
 0.7550	56.9780
 0.7560	57.0640
 0.7570	57.1300
 0.7580	57.1820
 0.7590	57.2460
 0.7600	57.3220
 0.7610	57.3700
 0.7620	57.4170
 0.7630	57.4660
 0.7640	57.5110
 0.7650	57.5520
 0.7660	57.6000
 0.7670	57.6420
 0.7680	57.6590
 0.7690	57.7020
 0.7700	57.7400
 0.7710	57.7620
 0.7720	57.7850
 0.7730	57.8190
 0.7740	57.8450
 0.7750	57.8560
 0.7760	57.8830
 0.7770	57.9100
 0.7780	57.9350
 0.7790	57.9590
 0.7800	57.9830
 0.7810	58.0110
 0.7820	58.0380
 0.7830	58.0500
 0.7840	58.0850
 0.7850	58.1190
 0.7860	58.1360
 0.7870	58.1650
 0.7880	58.1840
 0.7890	58.2060
 0.7900	58.2400
 0.7910	58.2690
 0.7920	58.2790
 0.7930	58.2890
 0.7940	58.3280
 0.7950	58.3500
 0.7960	58.3540
 0.7970	58.3600
 0.7980	58.4030
 0.7990	58.4350
 0.8000	58.4570
 0.8010	58.4810
 0.8020	58.5100
 0.8030	58.5110
 0.8040	58.5130
 0.8050	58.5590
 0.8060	58.5950
 0.8070	58.6190
 0.8080	58.6350
 0.8090	58.6520
 0.8100	58.6700
 0.8110	58.6860
 0.8120	58.7040
 0.8130	58.7330
 0.8140	58.7560
 0.8150	58.7750
 0.8160	58.7950
 0.8170	58.8390
 0.8180	58.8580
 0.8190	58.8580
 0.8200	58.8720
 0.8210	58.9050
 0.8220	58.9290
 0.8230	58.9450
 0.8240	58.9780
 0.8250	58.9790
 0.8260	58.9990
 0.8270	59.0550
 0.8280	59.0890
 0.8290	59.0910
 0.8300	59.0950
 0.8310	59.1250
 0.8320	59.1340
 0.8330	59.1500
 0.8340	59.1680
 0.8350	59.1730
 0.8360	59.1920
 0.8370	59.2220
 0.8380	59.2520
 0.8390	59.2730
 0.8400	59.2930
 0.8410	59.3090
 0.8420	59.3270
 0.8430	59.3630
 0.8440	59.4000
 0.8450	59.4240
 0.8460	59.4330
 0.8470	59.4360
 0.8480	59.4480
 0.8490	59.4670
 0.8500	59.4870
 0.8510	59.5300
 0.8520	59.5680
 0.8530	59.5870
 0.8540	59.5880
 0.8550	59.6030
 0.8560	59.6200
 0.8570	59.6350
 0.8580	59.6580
 0.8590	59.6910
 0.8600	59.7040
 0.8610	59.6930
 0.8620	59.7080
 0.8630	59.7390
 0.8640	59.7710
 0.8650	59.7930
 0.8660	59.8000
 0.8670	59.8140
 0.8680	59.8250
 0.8690	59.8180
 0.8700	59.8100
 0.8710	59.8280
 0.8720	59.8680
 0.8730	59.9070
 0.8740	59.9190
 0.8750	59.9250
 0.8760	59.9280
 0.8770	59.9120
 0.8780	59.9310
 0.8790	59.9540
 0.8800	59.9610
 0.8810	59.9710
 0.8820	59.9730
 0.8830	59.9900
 0.8840	60.0260
 0.8850	60.0180
 0.8860	60.0080
 0.8870	60.0140
 0.8880	60.0360
 0.8890	60.0490
 0.8900	60.0600
 0.8910	60.0650
 0.8920	60.0580
 0.8930	60.0540
 0.8940	60.0550
 0.8950	60.0690
 0.8960	60.1000
 0.8970	60.1130
 0.8980	60.1010
 0.8990	60.0770
 0.9000	60.0730
 0.9010	60.0790
 0.9020	60.0910
 0.9030	60.1040
 0.9040	60.1070
 0.9050	60.1270
 0.9060	60.1530
 0.9070	60.1690
 0.9080	60.1640
 0.9090	60.1340
 0.9100	60.1070
 0.9110	60.1060
 0.9120	60.1200
 0.9130	60.1380
 0.9140	60.1580
 0.9150	60.1750
 0.9160	60.1590
 0.9170	60.1470
 0.9180	60.1470
 0.9190	60.1540
 0.9200	60.1640
 0.9210	60.1620
 0.9220	60.1520
 0.9230	60.1440
 0.9240	60.1430
 0.9250	60.1260
 0.9260	60.1060
 0.9270	60.1120
 0.9280	60.1160
 0.9290	60.1000
 0.9300	60.0770
 0.9310	60.0820
 0.9320	60.0690
 0.9330	60.0500
 0.9340	60.0370
 0.9350	60.0320
 0.9360	60.0150
 0.9370	60.0080
 0.9380	60.0070
 0.9390	59.9590
 0.9400	59.9270
 0.9410	59.9090
 0.9420	59.8960
 0.9430	59.8830
 0.9440	59.8530
 0.9450	59.8290
 0.9460	59.8130
 0.9470	59.7440
 0.9480	59.7020
 0.9490	59.6750
 0.9500	59.6370
 0.9510	59.6000
 0.9520	59.5450
 0.9530	59.4760
 0.9540	59.4060
 0.9550	59.3540
 0.9560	59.3010
 0.9570	59.2490
 0.9580	59.1990
 0.9590	59.1350
 0.9600	59.0940
 0.9610	59.0660
 0.9620	59.0330
 0.9630	59.0190
 0.9640	59.0010
 0.9650	58.9770
 0.9660	58.9510
 0.9670	58.9190
 0.9680	58.8890
 0.9690	58.8640
 0.9700	58.8480
 0.9710	58.8450
 0.9720	58.8450
 0.9730	58.8430
 0.9740	58.8430
 0.9750	58.8630
 0.9760	58.8820
 0.9770	58.9000
 0.9780	58.9150
 0.9790	58.9030
 0.9800	58.8890
 0.9810	58.8870
 0.9820	58.8990
 0.9830	58.8920
 0.9840	58.9210
 0.9850	58.9630
 0.9860	58.9680
 0.9870	58.9990
 0.9880	59.0260
 0.9890	59.0460
 0.9900	59.0680
 0.9910	59.0990
 0.9920	59.1180
 0.9930	59.1320
 0.9940	59.1530
 0.9950	59.1640
 0.9960	59.1940
 0.9970	59.2310
 0.9980	59.2530
 0.9990	59.2860
 1.0000	59.5330
 1.0010	59.9500
 1.0020	60.1840
 1.0030	60.2120
 1.0040	60.2440
 1.0050	60.2670
 1.0060	60.3010
 1.0070	60.3350
 1.0080	60.3630
 1.0090	60.3880
 1.0100	60.4160
 1.0110	60.4390
 1.0120	60.4660
 1.0130	60.5000
 1.0140	60.5270
 1.0150	60.5540
 1.0160	60.5690
 1.0170	60.5850
 1.0180	60.6040
 1.0190	60.6340
 1.0200	60.6710
 1.0210	60.7060
 1.0220	60.7430
 1.0230	60.7710
 1.0240	60.7860
 1.0250	60.8090
 1.0260	60.8350
 1.0270	60.8560
 1.0280	60.8770
 1.0290	60.8980
 1.0300	60.9150
 1.0310	60.9350
 1.0320	60.9580
 1.0330	60.9820
 1.0340	61.0000
 1.0350	61.0190
 1.0360	61.0380
 1.0370	61.0560
 1.0380	61.0750
 1.0390	61.0940
 1.0400	61.1140
 1.0410	61.1360
 1.0420	61.1530
 1.0430	61.1700
 1.0440	61.1860
 1.0450	61.1950
 1.0460	61.2080
 1.0470	61.2200
 1.0480	61.2350
 1.0490	61.2550
 1.0500	61.2720
 1.0510	61.2880
 1.0520	61.3040
 1.0530	61.3190
 1.0540	61.3320
 1.0550	61.3430
 1.0560	61.3550
 1.0570	61.3640
 1.0580	61.3690
 1.0590	61.3750
 1.0600	61.3810
 1.0610	61.3880
 1.0620	61.3940
 1.0630	61.4000
 1.0640	61.4100
 1.0650	61.4150
 1.0660	61.4140
 1.0670	61.4170
 1.0680	61.4200
 1.0690	61.4210
 1.0700	61.4220
 1.0710	61.4240
 1.0720	61.4270
 1.0730	61.4300
 1.0740	61.4310
 1.0750	61.4360
 1.0760	61.4370
 1.0770	61.4350
 1.0780	61.4330
 1.0790	61.4330
 1.0800	61.4310
 1.0810	61.4300
 1.0820	61.4270
 1.0830	61.4220
 1.0840	61.4170
 1.0850	61.4130
 1.0860	61.4060
 1.0870	61.3980
 1.0880	61.3900
 1.0890	61.3810
 1.0900	61.3700
 1.0910	61.3590
 1.0920	61.3470
 1.0930	61.3380
 1.0940	61.3290
 1.0950	61.3180
 1.0960	61.3060
 1.0970	61.2940
 1.0980	61.2810
 1.0990	61.2670
 1.1000	61.2560
 1.1010	61.2420
 1.1020	61.2230
 1.1030	61.2070
 1.1040	61.1920
 1.1050	61.1760
 1.1060	61.1630
 1.1070	61.1550
 1.1080	61.1390
 1.1090	61.1210
 1.1100	61.1030
 1.1110	61.0810
 1.1120	61.0580
 1.1130	61.0360
 1.1140	61.0120
 1.1150	60.9860
 1.1160	60.9600
 1.1170	60.9360
 1.1180	60.9070
 1.1190	60.8760
 1.1200	60.8430
 1.1210	60.8100
 1.1220	60.7730
 1.1230	60.7310
 1.1240	60.6880
 1.1250	60.6370
 1.1260	60.5790
 1.1270	60.5170
 1.1280	60.4500
 1.1290	60.3800
 1.1300	60.3050
 1.1310	60.2250
 1.1320	60.1450
 1.1330	60.0520
 1.1340	59.9500
 1.1350	59.8420
 1.1360	59.7270
 1.1370	59.6020
 1.1380	59.4710
 1.1390	59.3370
 1.1400	59.1950
 1.1410	59.0470
 1.1420	58.9000
 1.1430	58.7480
 1.1440	58.5970
 1.1450	58.4430
 1.1460	58.2930
 1.1470	58.1410
 1.1480	57.9960
 1.1490	57.8530
 1.1500	57.7150
 1.1510	57.5740
 1.1520	57.4510
 1.1530	57.3340
 1.1540	57.2290
 1.1550	57.1370
 1.1560	57.0540
 1.1570	56.9780
 1.1580	56.9080
 1.1590	56.8470
 1.1600	56.7940
 1.1610	56.7460
 1.1620	56.7070
 1.1630	56.6710
 1.1640	56.6420
 1.1650	56.6180
 1.1660	56.6000
 1.1670	56.5830
 1.1680	56.5740
 1.1690	56.5620
 1.1700	56.5490
 1.1710	56.5390
 1.1720	56.5330
 1.1730	56.5240
 1.1740	56.5140
 1.1750	56.5080
 1.1760	56.5020
 1.1770	56.4900
 1.1780	56.4790
 1.1790	56.4710
 1.1800	56.4630
 1.1810	56.4540
 1.1820	56.4420
 1.1830	56.4280
 1.1840	56.4120
 1.1850	56.3950
 1.1860	56.3820
 1.1870	56.3720
 1.1880	56.3620
 1.1890	56.3510
 1.1900	56.3460
 1.1910	56.3440
 1.1920	56.3420
 1.1930	56.3450
 1.1940	56.3470
 1.1950	56.3490
 1.1960	56.3510
 1.1970	56.3580
 1.1980	56.3630
 1.1990	56.3700
 1.2000	56.3830
 1.2010	56.3920
 1.2020	56.4040
 1.2030	56.4210
 1.2040	56.4330
 1.2050	56.4490
 1.2060	56.4710
 1.2070	56.4890
 1.2080	56.5110
 1.2090	56.5300
 1.2100	56.5480
 1.2110	56.5720
 1.2120	56.5970
 1.2130	56.6250
 1.2140	56.6580
 1.2150	56.6890
 1.2160	56.7190
 1.2170	56.7530
 1.2180	56.7860
 1.2190	56.8200
 1.2200	56.8540
 1.2210	56.8870
 1.2220	56.9190
 1.2230	56.9510
 1.2240	56.9860
 1.2250	57.0210
 1.2260	57.0530
 1.2270	57.0840
 1.2280	57.1160
 1.2290	57.1480
 1.2300	57.1770
 1.2310	57.2050
 1.2320	57.2340
 1.2330	57.2610
 1.2340	57.2880
 1.2350	57.3200
 1.2360	57.3450
 1.2370	57.3660
 1.2380	57.3850
 1.2390	57.4030
 1.2400	57.4240
 1.2410	57.4480
 1.2420	57.4720
 1.2430	57.4960
 1.2440	57.5180
 1.2450	57.5340
 1.2460	57.5520
 1.2470	57.5690
 1.2480	57.5830
 1.2490	57.6020
 1.2500	57.6240
 1.2510	57.6420
 1.2520	57.6560
 1.2530	57.6680
 1.2540	57.6780
 1.2550	57.6890
 1.2560	57.7000
 1.2570	57.7110
 1.2580	57.7200
 1.2590	57.7260
 1.2600	57.7290
 1.2610	57.7330
 1.2620	57.7360
 1.2630	57.7380
 1.2640	57.7390
 1.2650	57.7410
 1.2660	57.7440
 1.2670	57.7430
 1.2680	57.7430
 1.2690	57.7420
 1.2700	57.7380
 1.2710	57.7320
 1.2720	57.7260
 1.2730	57.7200
 1.2740	57.7130
 1.2750	57.7060
 1.2760	57.7010
 1.2770	57.6920
 1.2780	57.6790
 1.2790	57.6680
 1.2800	57.6530
 1.2810	57.6380
 1.2820	57.6240
 1.2830	57.6070
 1.2840	57.5890
 1.2850	57.5700
 1.2860	57.5460
 1.2870	57.5210
 1.2880	57.4960
 1.2890	57.4670
 1.2900	57.4350
 1.2910	57.4020
 1.2920	57.3690
 1.2930	57.3300
 1.2940	57.2870
 1.2950	57.2470
 1.2960	57.2060
 1.2970	57.1620
 1.2980	57.1150
 1.2990	57.0630
 1.3000	57.0080
 1.3010	56.9510
 1.3020	56.8930
 1.3030	56.8320
 1.3040	56.7630
 1.3050	56.6930
 1.3060	56.6220
 1.3070	56.5430
 1.3080	56.4620
 1.3090	56.3810
 1.3100	56.2940
 1.3110	56.2050
 1.3120	56.1130
 1.3130	56.0160
 1.3140	55.9150
 1.3150	55.8080
 1.3160	55.7030
 1.3170	55.5980
 1.3180	55.4870
 1.3190	55.3750
 1.3200	55.2560
 1.3210	55.1260
 1.3220	54.9950
 1.3230	54.8600
 1.3240	54.7230
 1.3250	54.5850
 1.3260	54.4410
 1.3270	54.2950
 1.3280	54.1450
 1.3290	53.9900
 1.3300	53.8370
 1.3310	53.6790
 1.3320	53.5180
 1.3330	53.3560
 1.3340	53.1920
 1.3350	53.0280
 1.3360	52.8620
 1.3370	52.6930
 1.3380	52.5250
 1.3390	52.3580
 1.3400	52.1890
 1.3410	52.0230
 1.3420	51.8570
 1.3430	51.6900
 1.3440	51.5250
 1.3450	51.3600
 1.3460	51.1950
 1.3470	51.0320
 1.3480	50.8690
 1.3490	50.7080
 1.3500	50.5500
 1.3510	50.3930
 1.3520	50.2360
 1.3530	50.0810
 1.3540	49.9250
 1.3550	49.7670
 1.3560	49.6100
 1.3570	49.4510
 1.3580	49.2910
 1.3590	49.1290
 1.3600	48.9650
 1.3610	48.7960
 1.3620	48.6230
 1.3630	48.4460
 1.3640	48.2590
 1.3650	48.0660
 1.3660	47.8660
 1.3670	47.6550
 1.3680	47.4320
 1.3690	47.1970
 1.3700	46.9440
 1.3710	46.6800
 1.3720	46.4010
 1.3730	46.1010
 1.3740	45.7860
 1.3750	45.4490
 1.3760	45.0860
 1.3770	44.7000
 1.3780	44.2850
 1.3790	43.8450
 1.3800	43.3790
 1.3810	42.8820
 1.3820	42.3640
 1.3830	41.8210
 1.3840	41.2550
 1.3850	40.6650
 1.3860	40.0570
 1.3870	39.4200
 1.3880	38.7780
 1.3890	38.1180
 1.3900	37.4440
 1.3910	36.7690
 1.3920	36.0850
 1.3930	35.3940
 1.3940	34.7040
 1.3950	34.0080
 1.3960	33.3200
 1.3970	32.6420
 1.3980	31.9740
 1.3990	31.3300
 1.4000	30.7000
 1.4010	30.0840
 1.4020	29.4940
 1.4030	28.9170
 1.4040	28.3650
 1.4050	27.8420
 1.4060	27.3430
 1.4070	26.8760
 1.4080	26.4340
 1.4090	26.0170
 1.4100	25.6310
 1.4110	25.2690
 1.4120	24.9310
 1.4130	24.6200
 1.4140	24.3310
 1.4150	24.0680
 1.4160	23.8280
 1.4170	23.6070
 1.4180	23.4070
 1.4190	23.2230
 1.4200	23.0560
 1.4210	22.9080
 1.4220	22.7730
 1.4230	22.6540
 1.4240	22.5500
 1.4250	22.4550
 1.4260	22.3730
 1.4270	22.3010
 1.4280	22.2420
 1.4290	22.1900
 1.4300	22.1490
 1.4310	22.1120
 1.4320	22.0830
 1.4330	22.0600
 1.4340	22.0450
 1.4350	22.0350
 1.4360	22.0310
 1.4370	22.0300
 1.4380	22.0340
 1.4390	22.0420
 1.4400	22.0520
 1.4410	22.0670
 1.4420	22.0840
 1.4430	22.1030
 1.4440	22.1240
 1.4450	22.1470
 1.4460	22.1730
 1.4470	22.2000
 1.4480	22.2300
 1.4490	22.2600
 1.4500	22.2920
 1.4510	22.3240
 1.4520	22.3560
 1.4530	22.3890
 1.4540	22.4230
 1.4550	22.4610
 1.4560	22.5000
 1.4570	22.5410
 1.4580	22.5870
 1.4590	22.6350
 1.4600	22.6880
 1.4610	22.7450
 1.4620	22.8060
 1.4630	22.8730
 1.4640	22.9450
 1.4650	23.0230
 1.4660	23.1070
 1.4670	23.1970
 1.4680	23.2930
 1.4690	23.3940
 1.4700	23.5010
