Name: Quercus lobata 2
Type: vegetation
Class: Tree
Genus: Quercus
Species: lobata
Sample No.: VH283
Owner: UCSB
Wavelength Range: TIR
Origin: 34.7146; -120.0588; WGS84
Collection Date: 11/2/2013
Description: Samples were collected as part of the HyspIRI Airborne Campaign. 48 individual plants were sampled in three times in 2013 - spring  summer  and fall. The name of the sample includes a 1  2  or 3 which references a different individual of the species. Samples were taken to JPL and processed within 48 hours of collection. The same leaves were processed in the Nicolet and then measured using the ASD.
Measurement: Hemispherical reflectance
First Column: X
Second Column: Y
X Units: Wavelength (micrometers)
Y Units: Reflectance (percentage)
First X Value: 2.501
Last X Value: 15.387
Number of X Values: 1737
Additional Information: vegetation.tree.quercus.lobata.tir.vh283.ucsb.nicolet.ancillary.txt

 2.5010	 9.7870
 2.5030	 9.7350
 2.5040	 9.7470
 2.5050	 9.6910
 2.5060	 9.7030
 2.5070	 9.7600
 2.5090	 9.7420
 2.5100	 9.6260
 2.5110	 9.6870
 2.5120	 9.7500
 2.5140	 9.8070
 2.5150	 9.7340
 2.5160	 9.6360
 2.5170	 9.6240
 2.5180	 9.6020
 2.5200	 9.6490
 2.5210	 9.6860
 2.5220	 9.8250
 2.5230	 9.8490
 2.5250	 9.7500
 2.5260	 9.5160
 2.5270	 9.4690
 2.5280	 9.6610
 2.5290	 9.8050
 2.5310	 9.6720
 2.5320	 9.4570
 2.5330	 9.5250
 2.5340	 9.6270
 2.5360	 9.6140
 2.5370	 9.6630
 2.5380	 9.6090
 2.5390	 9.4740
 2.5410	 9.4430
 2.5420	 9.5780
 2.5430	 9.5940
 2.5440	 9.7290
 2.5460	 9.9180
 2.5470	 9.7910
 2.5480	 9.7710
 2.5490	 9.8130
 2.5510	 9.6990
 2.5520	 9.6680
 2.5530	 9.7980
 2.5540	 9.6660
 2.5560	 9.6780
 2.5570	 9.7200
 2.5580	 9.7130
 2.5590	 9.7150
 2.5610	 9.7840
 2.5620	 9.8500
 2.5630	 9.7770
 2.5640	 9.6810
 2.5660	 9.6590
 2.5670	 9.5060
 2.5680	 9.5760
 2.5700	 9.7170
 2.5710	 9.7960
 2.5720	 9.7910
 2.5730	 9.8130
 2.5750	 9.7170
 2.5760	 9.8260
 2.5770	 9.9320
 2.5790	 9.7550
 2.5800	 9.5530
 2.5810	 9.5590
 2.5820	 9.5710
 2.5840	 9.6800
 2.5850	 9.7110
 2.5860	 9.6700
 2.5880	 9.6270
 2.5890	 9.5890
 2.5900	 9.6920
 2.5910	 9.7090
 2.5930	 9.6900
 2.5940	 9.5480
 2.5950	 9.3600
 2.5970	 9.4870
 2.5980	 9.7170
 2.5990	 9.6200
 2.6000	 9.4420
 2.6020	 9.4890
 2.6030	 9.4070
 2.6040	 9.3360
 2.6060	 9.4240
 2.6070	 9.4010
 2.6080	 9.2080
 2.6100	 9.1600
 2.6110	 9.1580
 2.6120	 9.2540
 2.6140	 9.4170
 2.6150	 9.4380
 2.6160	 9.2140
 2.6180	 9.0490
 2.6190	 9.0960
 2.6200	 9.1190
 2.6220	 8.9040
 2.6230	 8.9770
 2.6240	 9.1420
 2.6260	 9.0360
 2.6270	 9.0420
 2.6280	 9.0010
 2.6300	 8.8190
 2.6310	 8.8660
 2.6320	 8.8460
 2.6340	 8.8490
 2.6350	 8.7520
 2.6360	 8.6320
 2.6380	 8.6620
 2.6390	 8.6130
 2.6400	 8.6730
 2.6420	 8.8780
 2.6430	 8.8030
 2.6440	 8.6030
 2.6460	 8.4330
 2.6470	 8.4590
 2.6480	 8.5370
 2.6500	 8.5790
 2.6510	 8.5180
 2.6520	 8.5870
 2.6540	 8.4860
 2.6550	 8.3440
 2.6560	 8.4060
 2.6580	 8.3270
 2.6590	 8.2420
 2.6610	 8.2710
 2.6620	 8.3050
 2.6630	 8.3600
 2.6650	 8.2760
 2.6660	 8.0600
 2.6670	 8.1600
 2.6690	 8.3800
 2.6700	 8.3070
 2.6720	 8.1080
 2.6730	 8.0310
 2.6740	 8.1250
 2.6760	 8.2120
 2.6770	 8.1580
 2.6780	 8.0630
 2.6800	 7.9840
 2.6810	 8.1450
 2.6830	 8.1850
 2.6840	 8.0360
 2.6850	 7.9280
 2.6870	 7.7610
 2.6880	 7.6420
 2.6900	 7.5420
 2.6910	 7.5890
 2.6920	 7.4270
 2.6940	 7.3750
 2.6950	 7.4350
 2.6970	 7.5140
 2.6980	 7.5080
 2.6990	 7.4910
 2.7010	 7.1830
 2.7020	 6.9810
 2.7040	 6.9160
 2.7050	 7.0070
 2.7060	 7.1130
 2.7080	 7.1460
 2.7090	 7.0850
 2.7110	 7.0480
 2.7120	 6.9680
 2.7130	 6.9180
 2.7150	 6.7870
 2.7160	 6.7150
 2.7180	 6.5940
 2.7190	 6.4680
 2.7210	 6.3620
 2.7220	 6.3880
 2.7230	 6.5770
 2.7250	 6.4580
 2.7260	 6.2340
 2.7280	 6.3010
 2.7290	 6.3040
 2.7310	 6.2110
 2.7320	 6.1680
 2.7330	 6.1310
 2.7350	 6.0360
 2.7360	 5.8700
 2.7380	 5.8560
 2.7390	 5.9200
 2.7410	 5.6210
 2.7420	 5.5610
 2.7440	 5.6530
 2.7450	 5.7180
 2.7470	 5.5160
 2.7480	 5.2960
 2.7490	 5.1740
 2.7510	 5.4180
 2.7520	 5.6490
 2.7540	 5.5550
 2.7550	 5.3580
 2.7570	 5.2850
 2.7580	 5.4050
 2.7600	 5.3440
 2.7610	 5.1470
 2.7630	 5.1550
 2.7640	 4.9670
 2.7660	 4.9890
 2.7670	 5.2680
 2.7680	 5.4450
 2.7700	 5.1500
 2.7710	 4.9190
 2.7730	 4.8330
 2.7740	 4.8800
 2.7760	 4.8370
 2.7770	 4.8310
 2.7790	 4.8190
 2.7800	 4.7590
 2.7820	 4.7030
 2.7830	 4.7550
 2.7850	 4.8290
 2.7860	 4.8850
 2.7880	 4.8890
 2.7890	 4.8500
 2.7910	 4.7520
 2.7920	 4.7350
 2.7940	 4.7290
 2.7950	 4.7610
 2.7970	 4.7450
 2.7980	 4.7340
 2.8000	 4.7910
 2.8010	 4.8250
 2.8030	 4.6690
 2.8040	 4.6520
 2.8060	 4.7660
 2.8070	 4.8230
 2.8090	 4.7040
 2.8110	 4.5500
 2.8120	 4.5800
 2.8140	 4.5030
 2.8150	 4.3490
 2.8170	 4.4620
 2.8180	 4.6340
 2.8200	 4.6260
 2.8210	 4.4980
 2.8230	 4.4840
 2.8240	 4.4630
 2.8260	 4.4540
 2.8270	 4.5060
 2.8290	 4.5140
 2.8300	 4.2760
 2.8320	 4.2610
 2.8340	 4.4060
 2.8350	 4.5800
 2.8370	 4.6500
 2.8380	 4.5420
 2.8400	 4.3510
 2.8410	 4.4300
 2.8430	 4.5150
 2.8440	 4.5920
 2.8460	 4.5570
 2.8480	 4.4370
 2.8490	 4.4110
 2.8510	 4.2560
 2.8520	 4.3090
 2.8540	 4.4440
 2.8550	 4.4470
 2.8570	 4.4980
 2.8590	 4.4940
 2.8600	 4.4880
 2.8620	 4.4000
 2.8630	 4.3130
 2.8650	 4.2940
 2.8660	 4.3360
 2.8680	 4.3410
 2.8700	 4.2850
 2.8710	 4.3780
 2.8730	 4.5080
 2.8740	 4.4630
 2.8760	 4.2890
 2.8780	 4.3140
 2.8790	 4.5790
 2.8810	 4.5810
 2.8820	 4.2680
 2.8840	 4.1780
 2.8860	 4.0900
 2.8870	 4.0050
 2.8890	 4.1500
 2.8900	 4.2920
 2.8920	 4.2290
 2.8940	 4.3310
 2.8950	 4.4290
 2.8970	 4.4290
 2.8980	 4.4650
 2.9000	 4.3820
 2.9020	 4.2210
 2.9030	 4.1260
 2.9050	 4.2230
 2.9070	 4.1790
 2.9080	 4.0760
 2.9100	 4.0240
 2.9120	 4.1870
 2.9130	 4.1950
 2.9150	 4.2160
 2.9160	 4.2680
 2.9180	 4.3670
 2.9200	 4.4490
 2.9210	 4.3250
 2.9230	 4.2460
 2.9250	 4.3410
 2.9260	 4.2200
 2.9280	 4.1020
 2.9300	 4.0940
 2.9310	 4.3460
 2.9330	 4.2140
 2.9350	 4.0580
 2.9360	 4.2220
 2.9380	 4.3820
 2.9400	 4.3730
 2.9410	 4.5350
 2.9430	 4.6110
 2.9450	 4.4470
 2.9460	 4.4050
 2.9480	 4.4450
 2.9500	 4.3370
 2.9510	 4.2420
 2.9530	 4.1650
 2.9550	 4.0700
 2.9560	 4.2280
 2.9580	 4.8760
 2.9600	 4.8350
 2.9610	 4.8290
 2.9630	 4.7510
 2.9650	 3.7640
 2.9660	 3.5850
 2.9680	 3.7820
 2.9700	 3.7960
 2.9720	 4.4950
 2.9730	 3.8400
 2.9750	 3.5590
 2.9770	 4.2640
 2.9780	 3.9940
 2.9800	 4.1400
 2.9820	 4.6840
 2.9840	 4.0270
 2.9850	 3.8480
 2.9870	 4.3820
 2.9890	 4.6750
 2.9900	 5.0680
 2.9920	 5.2490
 2.9940	 4.2590
 2.9960	 2.2760
 2.9970	 4.0250
 2.9990	 5.1740
 3.0010	 4.5980
 3.0030	 4.3220
 3.0040	 3.8410
 3.0060	 3.6020
 3.0080	 4.1460
 3.0100	 4.8100
 3.0110	 4.5730
 3.0130	 4.5160
 3.0150	 4.6360
 3.0170	 4.6120
 3.0180	 4.8040
 3.0200	 4.4760
 3.0220	 4.1830
 3.0240	 4.4670
 3.0250	 4.7190
 3.0270	 4.8310
 3.0290	 4.7170
 3.0310	 4.3240
 3.0320	 4.3220
 3.0340	 4.5370
 3.0360	 3.9850
 3.0380	 3.9230
 3.0400	 4.2260
 3.0410	 3.2130
 3.0430	 2.3730
 3.0450	 2.4760
 3.0470	 2.5730
 3.0480	 3.1450
 3.0500	 3.0580
 3.0520	 3.9970
 3.0540	 4.2080
 3.0560	 3.8850
 3.0570	 4.4050
 3.0590	 4.7650
 3.0610	 4.5130
 3.0630	 5.0340
 3.0650	 6.0330
 3.0660	 5.8060
 3.0680	 5.1960
 3.0700	 5.0510
 3.0720	 5.0340
 3.0740	 4.8370
 3.0760	 4.6430
 3.0770	 4.4890
 3.0790	 4.4050
 3.0810	 4.4950
 3.0830	 4.5920
 3.0850	 4.6940
 3.0870	 4.8700
 3.0880	 4.9690
 3.0900	 4.6300
 3.0920	 4.3510
 3.0940	 4.5600
 3.0960	 4.8560
 3.0980	 4.9160
 3.0990	 5.0900
 3.1010	 5.0250
 3.1030	 4.8660
 3.1050	 4.6600
 3.1070	 4.5570
 3.1090	 4.5810
 3.1110	 4.7540
 3.1120	 4.7430
 3.1140	 4.5530
 3.1160	 4.5300
 3.1180	 4.6420
 3.1200	 4.7860
 3.1220	 4.8270
 3.1240	 4.8310
 3.1260	 4.7580
 3.1270	 4.9200
 3.1290	 5.1060
 3.1310	 5.0260
 3.1330	 4.9220
 3.1350	 5.1020
 3.1370	 5.3030
 3.1390	 4.7170
 3.1410	 4.5900
 3.1430	 4.7170
 3.1450	 4.9060
 3.1460	 4.7010
 3.1480	 4.7930
 3.1500	 4.2360
 3.1520	 3.9360
 3.1540	 4.6160
 3.1560	 5.3270
 3.1580	 5.2600
 3.1600	 5.2860
 3.1620	 5.1250
 3.1640	 4.2240
 3.1660	 3.8270
 3.1680	 5.1350
 3.1700	 5.8410
 3.1710	 4.7540
 3.1730	 4.8370
 3.1750	 5.2810
 3.1770	 5.7350
 3.1790	 5.6340
 3.1810	 4.6680
 3.1830	 4.3480
 3.1850	 4.8070
 3.1870	 5.4140
 3.1890	 5.4140
 3.1910	 5.2040
 3.1930	 5.1980
 3.1950	 5.1350
 3.1970	 5.0790
 3.1990	 5.1130
 3.2010	 5.2870
 3.2030	 5.3890
 3.2050	 5.1660
 3.2070	 5.0610
 3.2090	 5.1500
 3.2110	 5.1880
 3.2130	 5.2700
 3.2150	 5.4070
 3.2170	 5.4350
 3.2190	 5.4170
 3.2210	 5.4340
 3.2230	 5.4430
 3.2250	 5.4070
 3.2270	 5.3990
 3.2290	 5.3130
 3.2310	 5.3640
 3.2330	 5.4790
 3.2350	 5.3960
 3.2370	 5.3930
 3.2390	 5.4190
 3.2410	 5.3660
 3.2430	 5.3950
 3.2450	 5.4700
 3.2470	 5.4170
 3.2490	 5.3970
 3.2510	 5.4760
 3.2530	 5.5460
 3.2550	 5.5390
 3.2570	 5.4610
 3.2590	 5.4960
 3.2610	 5.5370
 3.2630	 5.5330
 3.2650	 5.5880
 3.2670	 5.6510
 3.2690	 5.6120
 3.2720	 5.4710
 3.2740	 5.4150
 3.2760	 5.4870
 3.2780	 5.4420
 3.2800	 5.4790
 3.2820	 5.5360
 3.2840	 5.6670
 3.2860	 5.6030
 3.2880	 5.5380
 3.2900	 5.6070
 3.2920	 5.7560
 3.2940	 5.7280
 3.2960	 5.5860
 3.2990	 5.6980
 3.3010	 5.9080
 3.3030	 5.8290
 3.3050	 5.7400
 3.3070	 5.6790
 3.3090	 5.7250
 3.3110	 5.9460
 3.3130	 5.9600
 3.3150	 5.8210
 3.3180	 5.7050
 3.3200	 5.6020
 3.3220	 5.6810
 3.3240	 5.6550
 3.3260	 5.6450
 3.3280	 5.7710
 3.3300	 5.7620
 3.3330	 5.7480
 3.3350	 5.6730
 3.3370	 5.5510
 3.3390	 5.6360
 3.3410	 5.6260
 3.3430	 5.6150
 3.3450	 5.6710
 3.3480	 5.6780
 3.3500	 5.7030
 3.3520	 5.7440
 3.3540	 5.6250
 3.3560	 5.4640
 3.3580	 5.4910
 3.3610	 5.5470
 3.3630	 5.6270
 3.3650	 5.6440
 3.3670	 5.5530
 3.3690	 5.4130
 3.3720	 5.2990
 3.3740	 5.2440
 3.3760	 5.2030
 3.3780	 5.2700
 3.3800	 5.3220
 3.3830	 5.2720
 3.3850	 5.2890
 3.3870	 5.2750
 3.3890	 5.2430
 3.3910	 5.1710
 3.3940	 5.1770
 3.3960	 5.2080
 3.3980	 5.2190
 3.4000	 5.2520
 3.4020	 5.2330
 3.4050	 5.2860
 3.4070	 5.3730
 3.4090	 5.3760
 3.4110	 5.4330
 3.4140	 5.5770
 3.4160	 5.6990
 3.4180	 5.8170
 3.4200	 6.0290
 3.4230	 6.3650
 3.4250	 6.6420
 3.4270	 6.8160
 3.4290	 6.7390
 3.4320	 6.6510
 3.4340	 6.5830
 3.4360	 6.4100
 3.4390	 6.2510
 3.4410	 6.2170
 3.4430	 5.9560
 3.4450	 5.9280
 3.4480	 5.9820
 3.4500	 5.9240
 3.4520	 5.9170
 3.4550	 5.8600
 3.4570	 5.8210
 3.4590	 6.0440
 3.4620	 6.2180
 3.4640	 6.1390
 3.4660	 6.0470
 3.4680	 6.0250
 3.4710	 5.9430
 3.4730	 5.8160
 3.4750	 5.8700
 3.4780	 5.9710
 3.4800	 5.9510
 3.4820	 5.8490
 3.4850	 5.8480
 3.4870	 5.9230
 3.4890	 5.9370
 3.4920	 5.8310
 3.4940	 5.8670
 3.4970	 5.9900
 3.4990	 6.0480
 3.5010	 6.0060
 3.5040	 6.0750
 3.5060	 6.5470
 3.5080	 7.0320
 3.5110	 7.2130
 3.5130	 6.9790
 3.5160	 6.6820
 3.5180	 6.5470
 3.5200	 6.5850
 3.5230	 6.6990
 3.5250	 6.8040
 3.5270	 6.8290
 3.5300	 6.8380
 3.5320	 6.8050
 3.5350	 6.7900
 3.5370	 6.7580
 3.5400	 6.7270
 3.5420	 6.7890
 3.5440	 6.8180
 3.5470	 6.6640
 3.5490	 6.6420
 3.5520	 6.7470
 3.5540	 6.8080
 3.5570	 6.7780
 3.5590	 6.8120
 3.5610	 6.8410
 3.5640	 6.8480
 3.5660	 6.8620
 3.5690	 6.8270
 3.5710	 6.7630
 3.5740	 6.8140
 3.5760	 6.8800
 3.5790	 6.8670
 3.5810	 6.8420
 3.5840	 6.8220
 3.5860	 6.7760
 3.5890	 6.9170
 3.5910	 7.0230
 3.5930	 7.0430
 3.5960	 7.0700
 3.5980	 7.1150
 3.6010	 6.9640
 3.6030	 6.9310
 3.6060	 7.0140
 3.6080	 7.0120
 3.6110	 7.0120
 3.6140	 6.9340
 3.6160	 6.9140
 3.6190	 7.0210
 3.6210	 7.0700
 3.6240	 7.0140
 3.6260	 6.9890
 3.6290	 7.0070
 3.6310	 6.8590
 3.6340	 6.8010
 3.6360	 6.9010
 3.6390	 6.9960
 3.6410	 7.0270
 3.6440	 6.9590
 3.6470	 6.9370
 3.6490	 7.0070
 3.6520	 6.9890
 3.6540	 6.9790
 3.6570	 6.9820
 3.6590	 6.9470
 3.6620	 6.9600
 3.6650	 6.9790
 3.6670	 7.0550
 3.6700	 7.0470
 3.6720	 6.9480
 3.6750	 6.9630
 3.6780	 6.9470
 3.6800	 7.0230
 3.6830	 7.0760
 3.6850	 7.0600
 3.6880	 7.0960
 3.6910	 7.1380
 3.6930	 7.1320
 3.6960	 7.0700
 3.6990	 7.0690
 3.7010	 7.0700
 3.7040	 7.0460
 3.7060	 7.0350
 3.7090	 7.0120
 3.7120	 7.0470
 3.7140	 7.0920
 3.7170	 7.1090
 3.7200	 7.0850
 3.7220	 7.0650
 3.7250	 7.0310
 3.7280	 7.0390
 3.7300	 7.0550
 3.7330	 7.0130
 3.7360	 6.9680
 3.7390	 7.0130
 3.7410	 7.1570
 3.7440	 7.1220
 3.7470	 7.0830
 3.7490	 7.1440
 3.7520	 7.1580
 3.7550	 7.1100
 3.7580	 7.1410
 3.7600	 7.2130
 3.7630	 7.1790
 3.7660	 7.2020
 3.7680	 7.2750
 3.7710	 7.2550
 3.7740	 7.3290
 3.7770	 7.3680
 3.7790	 7.4090
 3.7820	 7.3630
 3.7850	 7.2380
 3.7880	 7.2100
 3.7900	 7.2750
 3.7930	 7.2540
 3.7960	 7.2120
 3.7990	 7.3080
 3.8020	 7.3400
 3.8040	 7.3250
 3.8070	 7.2390
 3.8100	 7.2690
 3.8130	 7.3330
 3.8160	 7.2750
 3.8180	 7.2030
 3.8210	 7.1820
 3.8240	 7.2420
 3.8270	 7.4070
 3.8300	 7.4270
 3.8330	 7.3770
 3.8350	 7.3120
 3.8380	 7.3200
 3.8410	 7.4860
 3.8440	 7.5900
 3.8470	 7.5850
 3.8500	 7.4740
 3.8520	 7.3090
 3.8550	 7.3280
 3.8580	 7.4950
 3.8610	 7.4920
 3.8640	 7.4100
 3.8670	 7.3720
 3.8700	 7.4370
 3.8730	 7.4800
 3.8750	 7.3980
 3.8780	 7.4070
 3.8810	 7.4570
 3.8840	 7.4480
 3.8870	 7.4420
 3.8900	 7.4990
 3.8930	 7.5630
 3.8960	 7.6160
 3.8990	 7.6480
 3.9020	 7.5510
 3.9050	 7.4470
 3.9080	 7.4170
 3.9110	 7.4370
 3.9140	 7.4760
 3.9160	 7.4510
 3.9190	 7.4220
 3.9220	 7.4290
 3.9250	 7.4330
 3.9280	 7.4230
 3.9310	 7.4220
 3.9340	 7.4880
 3.9370	 7.4440
 3.9400	 7.3490
 3.9430	 7.3910
 3.9460	 7.5460
 3.9490	 7.5320
 3.9520	 7.5220
 3.9550	 7.5280
 3.9580	 7.4480
 3.9610	 7.4940
 3.9640	 7.5550
 3.9670	 7.5060
 3.9700	 7.4370
 3.9730	 7.4870
 3.9770	 7.5720
 3.9800	 7.5640
 3.9830	 7.5000
 3.9860	 7.4120
 3.9890	 7.4630
 3.9920	 7.5530
 3.9950	 7.5520
 3.9980	 7.4780
 4.0010	 7.5160
 4.0040	 7.5090
 4.0070	 7.5150
 4.0100	 7.5500
 4.0130	 7.5250
 4.0170	 7.5680
 4.0200	 7.6290
 4.0230	 7.5900
 4.0260	 7.5240
 4.0290	 7.5210
 4.0320	 7.5280
 4.0350	 7.4690
 4.0380	 7.3930
 4.0420	 7.4770
 4.0450	 7.5860
 4.0480	 7.5670
 4.0510	 7.6250
 4.0540	 7.6220
 4.0570	 7.5530
 4.0610	 7.5310
 4.0640	 7.5580
 4.0670	 7.5640
 4.0700	 7.5100
 4.0730	 7.4640
 4.0770	 7.4640
 4.0800	 7.5740
 4.0830	 7.6830
 4.0860	 7.6410
 4.0890	 7.6120
 4.0930	 7.6250
 4.0960	 7.6400
 4.0990	 7.6640
 4.1020	 7.6770
 4.1060	 7.5730
 4.1090	 7.5340
 4.1120	 7.5480
 4.1150	 7.5580
 4.1190	 7.6530
 4.1220	 7.6290
 4.1250	 7.6300
 4.1280	 7.6670
 4.1320	 7.6280
 4.1350	 7.6140
 4.1380	 7.5890
 4.1420	 7.5760
 4.1450	 7.4790
 4.1480	 7.4310
 4.1520	 7.5840
 4.1550	 7.7040
 4.1580	 7.6110
 4.1620	 7.4960
 4.1650	 7.5230
 4.1680	 7.5450
 4.1720	 7.5170
 4.1750	 7.5960
 4.1780	 7.6580
 4.1820	 7.5770
 4.1850	 7.4800
 4.1890	 7.5370
 4.1920	 7.6190
 4.1950	 7.5940
 4.1990	 7.6590
 4.2020	 7.7640
 4.2060	 7.8110
 4.2090	 7.7670
 4.2120	 7.7460
 4.2160	 7.9480
 4.2190	 7.9180
 4.2230	 8.0110
 4.2260	 8.2490
 4.2300	 8.1770
 4.2330	 8.0590
 4.2360	 7.8840
 4.2400	 7.5420
 4.2430	 7.8000
 4.2470	 8.1670
 4.2500	 8.0390
 4.2540	 7.8600
 4.2570	 7.9200
 4.2610	 7.9820
 4.2640	 8.1690
 4.2680	 8.1160
 4.2710	 7.9620
 4.2750	 7.6830
 4.2780	 7.7390
 4.2820	 7.8320
 4.2850	 7.8900
 4.2890	 7.8840
 4.2930	 8.0390
 4.2960	 8.0470
 4.3000	 7.8410
 4.3030	 7.6720
 4.3070	 7.7130
 4.3100	 7.7600
 4.3140	 7.7300
 4.3180	 7.6730
 4.3210	 7.6830
 4.3250	 7.6240
 4.3280	 7.6120
 4.3320	 7.6740
 4.3360	 7.5710
 4.3390	 7.4630
 4.3430	 7.4510
 4.3470	 7.4500
 4.3500	 7.5140
 4.3540	 7.4860
 4.3570	 7.3750
 4.3610	 7.3590
 4.3650	 7.4600
 4.3680	 7.5000
 4.3720	 7.4840
 4.3760	 7.3510
 4.3800	 7.3970
 4.3830	 7.3940
 4.3870	 7.4260
 4.3910	 7.4560
 4.3940	 7.4340
 4.3980	 7.3630
 4.4020	 7.4150
 4.4060	 7.4040
 4.4090	 7.3630
 4.4130	 7.3300
 4.4170	 7.3400
 4.4210	 7.3020
 4.4240	 7.2280
 4.4280	 7.2460
 4.4320	 7.3160
 4.4360	 7.2840
 4.4400	 7.2620
 4.4430	 7.2170
 4.4470	 7.2190
 4.4510	 7.1130
 4.4550	 7.1420
 4.4590	 7.1760
 4.4620	 7.2460
 4.4660	 7.2530
 4.4700	 7.2560
 4.4740	 7.2730
 4.4780	 7.2210
 4.4820	 7.1490
 4.4860	 7.2270
 4.4900	 7.2810
 4.4930	 7.2660
 4.4970	 7.2150
 4.5010	 7.2210
 4.5050	 7.2180
 4.5090	 7.1680
 4.5130	 7.1200
 4.5170	 7.1690
 4.5210	 7.1570
 4.5250	 7.1750
 4.5290	 7.1750
 4.5330	 7.1820
 4.5370	 7.1540
 4.5410	 7.1650
 4.5450	 7.1670
 4.5490	 7.1590
 4.5530	 7.1630
 4.5570	 7.1480
 4.5610	 7.1100
 4.5650	 7.1520
 4.5690	 7.1160
 4.5730	 7.1300
 4.5770	 7.1330
 4.5810	 7.1210
 4.5850	 7.1950
 4.5890	 7.2490
 4.5930	 7.2020
 4.5970	 7.1460
 4.6010	 7.1180
 4.6050	 7.1140
 4.6090	 7.0240
 4.6130	 6.9930
 4.6170	 7.0230
 4.6220	 7.0810
 4.6260	 6.9890
 4.6300	 6.9210
 4.6340	 7.0180
 4.6380	 7.0940
 4.6420	 7.0250
 4.6460	 7.0760
 4.6510	 7.1230
 4.6550	 7.1840
 4.6590	 7.1320
 4.6630	 7.0700
 4.6670	 7.0080
 4.6720	 7.1130
 4.6760	 7.0920
 4.6800	 7.0210
 4.6840	 7.0270
 4.6880	 7.1160
 4.6930	 7.0870
 4.6970	 7.0020
 4.7010	 7.0370
 4.7050	 7.1290
 4.7100	 7.0900
 4.7140	 7.1030
 4.7180	 7.0300
 4.7230	 6.9440
 4.7270	 6.8620
 4.7310	 6.9340
 4.7360	 7.0780
 4.7400	 7.0690
 4.7440	 6.9850
 4.7490	 6.9590
 4.7530	 6.9130
 4.7570	 6.9390
 4.7620	 6.9170
 4.7660	 6.8670
 4.7700	 6.7900
 4.7750	 6.9340
 4.7790	 6.9740
 4.7840	 7.0250
 4.7880	 7.1620
 4.7920	 7.2080
 4.7970	 7.0440
 4.8010	 7.0640
 4.8060	 7.0520
 4.8100	 6.9900
 4.8150	 6.9300
 4.8190	 6.9470
 4.8240	 6.9060
 4.8280	 6.9140
 4.8330	 6.9620
 4.8370	 6.9950
 4.8420	 6.9670
 4.8460	 7.0630
 4.8510	 7.1000
 4.8550	 7.0910
 4.8600	 6.9820
 4.8640	 6.9770
 4.8690	 7.0260
 4.8730	 7.0480
 4.8780	 7.0290
 4.8830	 6.9840
 4.8870	 6.9040
 4.8920	 6.9130
 4.8960	 6.9350
 4.9010	 7.0310
 4.9060	 7.0180
 4.9100	 7.0240
 4.9150	 6.9490
 4.9200	 6.9650
 4.9240	 6.9640
 4.9290	 6.9640
 4.9340	 6.9610
 4.9380	 7.0520
 4.9430	 6.9610
 4.9480	 6.9220
 4.9530	 6.8370
 4.9570	 6.8820
 4.9620	 6.9990
 4.9670	 7.1090
 4.9720	 7.0460
 4.9760	 7.0000
 4.9810	 6.9310
 4.9860	 6.9180
 4.9910	 6.9270
 4.9960	 7.0030
 5.0000	 7.0150
 5.0050	 7.0020
 5.0100	 6.9690
 5.0150	 6.9690
 5.0200	 7.0280
 5.0250	 7.0570
 5.0290	 6.9430
 5.0340	 6.9610
 5.0390	 7.0150
 5.0440	 7.0510
 5.0490	 6.9920
 5.0540	 7.0620
 5.0590	 7.0550
 5.0640	 7.1280
 5.0690	 7.0850
 5.0740	 7.0070
 5.0790	 6.9720
 5.0840	 7.0220
 5.0890	 6.9860
 5.0940	 7.0440
 5.0990	 7.0400
 5.1040	 6.9490
 5.1090	 6.9240
 5.1140	 7.0040
 5.1190	 6.9840
 5.1240	 7.0150
 5.1290	 7.0230
 5.1340	 7.0210
 5.1390	 6.9650
 5.1440	 7.0580
 5.1490	 7.0170
 5.1540	 6.9480
 5.1600	 6.9150
 5.1650	 6.9570
 5.1700	 6.9610
 5.1750	 6.9420
 5.1800	 6.9330
 5.1850	 7.0500
 5.1910	 7.0380
 5.1960	 7.0580
 5.2010	 7.0580
 5.2060	 7.0820
 5.2110	 7.1050
 5.2170	 7.0970
 5.2220	 6.9490
 5.2270	 6.9030
 5.2320	 6.9440
 5.2380	 7.0000
 5.2430	 6.9400
 5.2480	 6.9550
 5.2540	 6.9440
 5.2590	 7.0240
 5.2640	 7.0440
 5.2700	 6.9990
 5.2750	 6.9010
 5.2800	 6.8790
 5.2860	 6.8810
 5.2910	 6.9110
 5.2970	 6.8600
 5.3020	 6.8970
 5.3070	 6.9040
 5.3130	 6.8980
 5.3180	 6.8380
 5.3240	 6.9170
 5.3290	 6.9020
 5.3350	 6.9000
 5.3400	 6.8670
 5.3460	 6.8270
 5.3510	 6.6950
 5.3570	 6.6870
 5.3620	 6.6900
 5.3680	 6.7120
 5.3730	 6.6920
 5.3790	 6.7770
 5.3850	 6.7950
 5.3900	 6.8410
 5.3960	 6.7630
 5.4010	 6.8030
 5.4070	 6.7900
 5.4130	 6.7370
 5.4180	 6.6900
 5.4240	 6.6890
 5.4300	 6.6400
 5.4350	 6.6640
 5.4410	 6.6540
