Name: Bambusa beecheyana
Type: vegetation
Class: Tree
Genus: Bambusa
Species: beecheyana
Sample No.: JPL236
Owner: JPL
Wavelength Range: TIR
Origin: 34.12719; -118.11127; WGS84
Collection Date: 10/6/2016
Description: Samples were collected at the Huntington Garden in San Marino California as part of a JPL Subcontract studying HyTES imagery. Samples were taken to JPL and processed within 48 hours of collection. The same leaves were processed in the Nicolet and then measured using the ASD.
Measurement: Hemispherical reflectance
First Column: X
Second Column: Y
X Units: Wavelength (micrometer)
Y Units: Reflectance (percentage)
First X Value: 2.501
Last X Value: 15.387
Number of X Values: 1737
Additional Information: vegetation.tree.bambusa.beecheyana.tir.jpl236.jpl.nicolet.ancillary.txt

 2.5010	 7.9140
 2.5030	 7.8830
 2.5040	 7.8640
 2.5050	 7.7840
 2.5060	 7.7940
 2.5070	 7.7770
 2.5090	 7.7200
 2.5100	 7.7020
 2.5110	 7.7590
 2.5120	 7.7350
 2.5140	 7.7470
 2.5150	 7.6790
 2.5160	 7.6050
 2.5170	 7.5900
 2.5180	 7.6470
 2.5200	 7.5960
 2.5210	 7.6050
 2.5220	 7.6090
 2.5230	 7.5780
 2.5250	 7.5360
 2.5260	 7.5010
 2.5270	 7.5130
 2.5280	 7.6130
 2.5300	 7.6230
 2.5310	 7.6410
 2.5320	 7.6110
 2.5330	 7.6180
 2.5340	 7.6110
 2.5360	 7.6420
 2.5370	 7.6400
 2.5380	 7.6550
 2.5390	 7.6750
 2.5410	 7.6780
 2.5420	 7.6030
 2.5430	 7.5720
 2.5440	 7.5450
 2.5460	 7.6430
 2.5470	 7.6120
 2.5480	 7.6410
 2.5490	 7.7240
 2.5510	 7.7460
 2.5520	 7.6560
 2.5530	 7.6810
 2.5540	 7.7470
 2.5560	 7.7290
 2.5570	 7.7180
 2.5580	 7.7600
 2.5590	 7.7510
 2.5610	 7.8100
 2.5620	 7.7590
 2.5630	 7.7580
 2.5650	 7.7570
 2.5660	 7.8070
 2.5670	 7.8100
 2.5680	 7.8370
 2.5700	 7.7910
 2.5710	 7.8220
 2.5720	 7.8080
 2.5730	 7.7780
 2.5750	 7.7680
 2.5760	 7.8030
 2.5770	 7.8000
 2.5790	 7.8250
 2.5800	 7.7880
 2.5810	 7.7970
 2.5820	 7.7870
 2.5840	 7.7290
 2.5850	 7.6840
 2.5860	 7.7380
 2.5880	 7.6360
 2.5890	 7.6560
 2.5900	 7.6490
 2.5910	 7.6380
 2.5930	 7.5780
 2.5940	 7.5000
 2.5950	 7.3220
 2.5970	 7.3200
 2.5980	 7.3850
 2.5990	 7.4330
 2.6010	 7.3680
 2.6020	 7.3520
 2.6030	 7.2610
 2.6040	 7.1190
 2.6060	 6.9870
 2.6070	 6.9800
 2.6080	 6.9730
 2.6100	 6.9750
 2.6110	 6.9310
 2.6120	 6.8810
 2.6140	 6.7480
 2.6150	 6.7080
 2.6160	 6.5740
 2.6180	 6.4380
 2.6190	 6.4130
 2.6200	 6.3780
 2.6220	 6.3190
 2.6230	 6.3750
 2.6240	 6.2350
 2.6260	 6.1540
 2.6270	 6.0150
 2.6280	 5.9410
 2.6300	 5.8470
 2.6310	 5.7270
 2.6320	 5.6680
 2.6340	 5.6650
 2.6350	 5.5590
 2.6360	 5.5490
 2.6380	 5.4900
 2.6390	 5.4180
 2.6400	 5.2660
 2.6420	 5.1770
 2.6430	 5.0900
 2.6440	 5.0660
 2.6460	 4.9540
 2.6470	 4.8970
 2.6480	 4.8400
 2.6500	 4.7420
 2.6510	 4.6010
 2.6520	 4.5320
 2.6540	 4.4290
 2.6550	 4.4100
 2.6570	 4.3380
 2.6580	 4.2940
 2.6590	 4.1430
 2.6610	 4.0750
 2.6620	 4.0410
 2.6630	 4.0570
 2.6650	 3.8990
 2.6660	 3.7730
 2.6670	 3.6800
 2.6690	 3.6870
 2.6700	 3.5440
 2.6720	 3.4600
 2.6730	 3.4130
 2.6740	 3.3540
 2.6760	 3.2740
 2.6770	 3.2570
 2.6780	 3.1740
 2.6800	 3.1170
 2.6810	 3.0610
 2.6830	 3.0600
 2.6840	 2.9660
 2.6850	 2.9410
 2.6870	 2.8620
 2.6880	 2.7980
 2.6900	 2.6790
 2.6910	 2.6350
 2.6920	 2.5680
 2.6940	 2.5240
 2.6950	 2.4810
 2.6970	 2.5390
 2.6980	 2.5030
 2.6990	 2.4370
 2.7010	 2.3890
 2.7020	 2.4080
 2.7040	 2.3450
 2.7050	 2.3620
 2.7060	 2.3510
 2.7080	 2.3820
 2.7090	 2.3050
 2.7110	 2.3020
 2.7120	 2.3210
 2.7130	 2.3480
 2.7150	 2.3000
 2.7160	 2.3130
 2.7180	 2.2530
 2.7190	 2.2780
 2.7210	 2.2590
 2.7220	 2.2680
 2.7230	 2.1960
 2.7250	 2.2290
 2.7260	 2.2440
 2.7280	 2.2780
 2.7290	 2.2560
 2.7310	 2.2920
 2.7320	 2.2800
 2.7340	 2.2950
 2.7350	 2.2360
 2.7360	 2.2310
 2.7380	 2.1770
 2.7390	 2.1880
 2.7410	 2.1460
 2.7420	 2.1740
 2.7440	 2.2120
 2.7450	 2.2880
 2.7470	 2.2990
 2.7480	 2.2650
 2.7490	 2.2190
 2.7510	 2.3050
 2.7520	 2.2490
 2.7540	 2.2370
 2.7550	 2.2410
 2.7570	 2.2640
 2.7580	 2.2550
 2.7600	 2.2810
 2.7610	 2.2240
 2.7630	 2.1820
 2.7640	 2.1570
 2.7660	 2.2120
 2.7670	 2.1980
 2.7690	 2.2280
 2.7700	 2.1680
 2.7720	 2.1560
 2.7730	 2.1330
 2.7740	 2.1360
 2.7760	 2.0910
 2.7770	 2.2080
 2.7790	 2.2070
 2.7800	 2.1970
 2.7820	 2.2660
 2.7830	 2.3670
 2.7850	 2.2910
 2.7860	 2.2210
 2.7880	 2.1460
 2.7890	 2.2130
 2.7910	 2.2380
 2.7920	 2.2920
 2.7940	 2.2210
 2.7950	 2.2660
 2.7970	 2.2930
 2.7980	 2.3320
 2.8000	 2.3000
 2.8010	 2.3170
 2.8030	 2.2560
 2.8040	 2.2720
 2.8060	 2.2460
 2.8080	 2.2030
 2.8090	 2.1270
 2.8110	 2.1770
 2.8120	 2.1730
 2.8140	 2.2430
 2.8150	 2.2280
 2.8170	 2.2200
 2.8180	 2.1370
 2.8200	 2.1510
 2.8210	 2.1600
 2.8230	 2.1880
 2.8240	 2.1350
 2.8260	 2.2080
 2.8270	 2.1930
 2.8290	 2.1380
 2.8310	 2.1090
 2.8320	 2.1660
 2.8340	 2.1560
 2.8350	 2.1990
 2.8370	 2.1780
 2.8380	 2.2200
 2.8400	 2.1890
 2.8410	 2.2710
 2.8430	 2.2540
 2.8440	 2.2270
 2.8460	 2.1630
 2.8480	 2.1680
 2.8490	 2.1240
 2.8510	 2.1020
 2.8520	 2.1760
 2.8540	 2.2940
 2.8550	 2.2180
 2.8570	 2.2110
 2.8590	 2.1710
 2.8600	 2.2600
 2.8620	 2.2210
 2.8630	 2.1580
 2.8650	 2.1410
 2.8660	 2.1880
 2.8680	 2.1640
 2.8700	 2.1590
 2.8710	 2.1360
 2.8730	 2.2080
 2.8740	 2.1940
 2.8760	 2.1910
 2.8780	 2.1140
 2.8790	 2.1640
 2.8810	 2.1980
 2.8820	 2.2780
 2.8840	 2.1830
 2.8860	 2.1340
 2.8870	 2.1350
 2.8890	 2.1760
 2.8900	 2.1430
 2.8920	 2.1550
 2.8940	 2.1350
 2.8950	 2.2030
 2.8970	 2.1450
 2.8990	 2.1500
 2.9000	 2.1610
 2.9020	 2.1980
 2.9030	 2.1100
 2.9050	 2.1230
 2.9070	 2.2070
 2.9080	 2.2130
 2.9100	 2.0920
 2.9120	 2.0860
 2.9130	 2.1130
 2.9150	 2.1470
 2.9160	 2.1370
 2.9180	 2.1550
 2.9200	 2.1080
 2.9210	 2.1410
 2.9230	 2.1050
 2.9250	 2.1350
 2.9260	 2.0900
 2.9280	 2.1250
 2.9300	 2.1320
 2.9310	 2.1470
 2.9330	 2.1190
 2.9350	 2.1380
 2.9360	 2.1230
 2.9380	 2.1900
 2.9400	 2.1340
 2.9410	 2.0640
 2.9430	 2.0700
 2.9450	 2.1190
 2.9460	 2.0130
 2.9480	 2.0940
 2.9500	 2.1630
 2.9510	 2.2330
 2.9530	 2.1440
 2.9550	 2.0960
 2.9560	 2.0570
 2.9580	 2.1300
 2.9600	 2.1210
 2.9610	 2.0600
 2.9630	 1.9730
 2.9650	 2.0330
 2.9670	 1.9990
 2.9680	 2.0420
 2.9700	 2.0260
 2.9720	 2.0850
 2.9730	 2.0670
 2.9750	 2.0510
 2.9770	 1.9880
 2.9780	 2.0490
 2.9800	 2.0490
 2.9820	 2.0710
 2.9840	 2.0840
 2.9850	 2.1710
 2.9870	 2.1330
 2.9890	 2.0950
 2.9900	 2.1280
 2.9920	 2.1940
 2.9940	 2.1350
 2.9960	 2.0940
 2.9970	 2.0230
 2.9990	 2.0770
 3.0010	 2.0840
 3.0030	 2.1210
 3.0040	 2.0920
 3.0060	 2.0820
 3.0080	 2.0700
 3.0100	 2.0830
 3.0110	 2.0130
 3.0130	 2.0070
 3.0150	 1.9890
 3.0170	 2.0380
 3.0180	 2.0520
 3.0200	 2.0510
 3.0220	 2.0370
 3.0240	 2.0600
 3.0250	 2.0510
 3.0270	 2.1040
 3.0290	 2.0710
 3.0310	 2.0710
 3.0320	 2.0400
 3.0340	 2.0600
 3.0360	 2.0250
 3.0380	 2.0810
 3.0400	 2.0410
 3.0410	 2.0500
 3.0430	 2.0010
 3.0450	 2.0330
 3.0470	 2.0860
 3.0480	 2.1470
 3.0500	 2.0980
 3.0520	 2.0920
 3.0540	 2.0140
 3.0560	 2.0280
 3.0570	 2.0780
 3.0590	 2.1350
 3.0610	 2.0780
 3.0630	 2.0170
 3.0650	 1.9370
 3.0670	 1.9920
 3.0680	 2.0640
 3.0700	 2.0510
 3.0720	 2.0440
 3.0740	 2.0950
 3.0760	 2.0270
 3.0770	 2.0370
 3.0790	 2.0020
 3.0810	 1.9750
 3.0830	 1.9580
 3.0850	 2.0030
 3.0870	 1.9980
 3.0880	 2.0300
 3.0900	 2.0020
 3.0920	 2.0620
 3.0940	 2.0310
 3.0960	 2.0160
 3.0980	 2.0230
 3.1000	 2.0830
 3.1010	 2.0200
 3.1030	 1.9760
 3.1050	 1.9820
 3.1070	 2.0040
 3.1090	 2.0140
 3.1110	 2.0790
 3.1130	 2.0230
 3.1140	 2.0270
 3.1160	 2.0470
 3.1180	 2.0830
 3.1200	 2.0370
 3.1220	 2.0330
 3.1240	 1.9650
 3.1260	 1.9960
 3.1280	 1.9660
 3.1290	 1.9870
 3.1310	 2.0300
 3.1330	 2.0220
 3.1350	 1.9570
 3.1370	 2.0220
 3.1390	 2.0380
 3.1410	 2.0240
 3.1430	 1.9740
 3.1450	 1.9790
 3.1470	 1.9450
 3.1480	 1.9570
 3.1500	 1.9420
 3.1520	 2.0120
 3.1540	 2.0050
 3.1560	 1.9740
 3.1580	 1.9600
 3.1600	 1.9680
 3.1620	 1.9500
 3.1640	 2.0030
 3.1660	 1.9680
 3.1680	 1.9620
 3.1700	 1.9350
 3.1720	 1.9970
 3.1730	 1.9700
 3.1750	 1.9630
 3.1770	 1.9730
 3.1790	 1.9950
 3.1810	 1.9620
 3.1830	 1.9900
 3.1850	 1.9700
 3.1870	 1.9980
 3.1890	 1.9950
 3.1910	 2.0490
 3.1930	 2.0300
 3.1950	 2.0340
 3.1970	 2.0070
 3.1990	 1.9690
 3.2010	 1.9380
 3.2030	 1.9960
 3.2050	 1.9650
 3.2070	 1.9350
 3.2090	 1.9310
 3.2110	 2.0160
 3.2130	 2.0280
 3.2150	 2.0400
 3.2170	 1.9630
 3.2190	 1.9800
 3.2210	 1.9550
 3.2230	 1.9590
 3.2250	 1.9570
 3.2270	 1.9270
 3.2290	 1.9240
 3.2310	 2.0190
 3.2330	 1.9790
 3.2350	 1.9710
 3.2370	 1.9420
 3.2390	 1.9500
 3.2410	 1.9720
 3.2430	 2.0400
 3.2450	 2.0370
 3.2470	 2.0210
 3.2490	 1.9680
 3.2510	 1.9630
 3.2530	 1.9480
 3.2550	 1.9690
 3.2570	 1.9430
 3.2590	 1.9590
 3.2610	 1.9560
 3.2630	 1.9700
 3.2650	 1.9460
 3.2670	 1.9870
 3.2700	 1.9500
 3.2720	 1.9790
 3.2740	 1.9890
 3.2760	 1.9740
 3.2780	 1.9170
 3.2800	 1.9630
 3.2820	 1.9200
 3.2840	 1.9390
 3.2860	 1.9160
 3.2880	 1.9230
 3.2900	 1.9130
 3.2920	 1.9110
 3.2940	 1.8790
 3.2970	 1.9230
 3.2990	 1.9370
 3.3010	 1.9440
 3.3030	 1.8940
 3.3050	 1.9350
 3.3070	 1.9200
 3.3090	 1.9290
 3.3110	 1.9070
 3.3130	 1.9320
 3.3160	 1.9070
 3.3180	 1.8960
 3.3200	 1.8790
 3.3220	 1.9160
 3.3240	 1.8740
 3.3260	 1.8730
 3.3280	 1.8400
 3.3300	 1.8530
 3.3330	 1.8500
 3.3350	 1.8610
 3.3370	 1.8180
 3.3390	 1.8230
 3.3410	 1.8350
 3.3430	 1.8560
 3.3450	 1.8140
 3.3480	 1.7900
 3.3500	 1.7890
 3.3520	 1.8200
 3.3540	 1.8150
 3.3560	 1.8360
 3.3580	 1.7870
 3.3610	 1.7880
 3.3630	 1.7820
 3.3650	 1.7830
 3.3670	 1.7460
 3.3690	 1.7420
 3.3720	 1.7550
 3.3740	 1.8120
 3.3760	 1.8010
 3.3780	 1.8140
 3.3800	 1.7850
 3.3830	 1.8010
 3.3850	 1.8240
 3.3870	 1.8720
 3.3890	 1.8350
 3.3910	 1.8150
 3.3940	 1.7780
 3.3960	 1.8320
 3.3980	 1.8180
 3.4000	 1.8250
 3.4030	 1.8010
 3.4050	 1.8170
 3.4070	 1.8460
 3.4090	 1.9330
 3.4110	 2.0170
 3.4140	 2.1180
 3.4160	 2.2570
 3.4180	 2.5360
 3.4200	 2.8370
 3.4230	 3.2170
 3.4250	 3.6260
 3.4270	 4.0990
 3.4300	 4.3610
 3.4320	 4.2180
 3.4340	 3.8380
 3.4360	 3.5440
 3.4390	 3.2510
 3.4410	 3.0580
 3.4430	 2.9700
 3.4450	 2.9320
 3.4480	 2.8580
 3.4500	 2.8390
 3.4520	 2.7790
 3.4550	 2.7780
 3.4570	 2.7220
 3.4590	 2.6990
 3.4620	 2.6570
 3.4640	 2.6440
 3.4660	 2.5930
 3.4690	 2.5700
 3.4710	 2.5030
 3.4730	 2.5050
 3.4760	 2.4770
 3.4780	 2.4350
 3.4800	 2.3710
 3.4830	 2.3760
 3.4850	 2.3230
 3.4870	 2.2810
 3.4900	 2.2170
 3.4920	 2.2110
 3.4940	 2.1840
 3.4970	 2.2010
 3.4990	 2.2180
 3.5010	 2.2800
 3.5040	 2.3960
 3.5060	 2.7990
 3.5080	 3.4820
 3.5110	 4.0730
 3.5130	 4.1300
 3.5160	 3.8330
 3.5180	 3.5130
 3.5200	 3.3180
 3.5230	 3.1340
 3.5250	 3.0250
 3.5280	 2.9460
 3.5300	 2.9350
 3.5320	 2.8700
 3.5350	 2.8460
 3.5370	 2.7820
 3.5400	 2.7350
 3.5420	 2.6800
 3.5440	 2.6590
 3.5470	 2.6230
 3.5490	 2.6460
 3.5520	 2.6460
 3.5540	 2.6830
 3.5570	 2.6550
 3.5590	 2.6070
 3.5610	 2.5670
 3.5640	 2.5940
 3.5660	 2.5840
 3.5690	 2.6040
 3.5710	 2.5200
 3.5740	 2.5010
 3.5760	 2.5670
 3.5790	 2.6500
 3.5810	 2.6210
 3.5840	 2.6120
 3.5860	 2.6110
 3.5890	 2.6110
 3.5910	 2.5710
 3.5940	 2.6080
 3.5960	 2.6510
 3.5990	 2.6470
 3.6010	 2.5990
 3.6040	 2.6070
 3.6060	 2.5810
 3.6090	 2.5740
 3.6110	 2.5640
 3.6140	 2.5980
 3.6160	 2.6100
 3.6190	 2.6380
 3.6210	 2.6080
 3.6240	 2.6370
 3.6260	 2.6430
 3.6290	 2.6030
 3.6310	 2.5600
 3.6340	 2.6160
 3.6360	 2.6170
 3.6390	 2.6150
 3.6410	 2.6350
 3.6440	 2.6690
 3.6470	 2.6280
 3.6490	 2.6180
 3.6520	 2.6310
 3.6540	 2.6630
 3.6570	 2.6270
 3.6590	 2.6400
 3.6620	 2.6460
 3.6650	 2.6880
 3.6670	 2.7030
 3.6700	 2.7070
 3.6720	 2.6760
 3.6750	 2.6770
 3.6780	 2.6830
 3.6800	 2.6990
 3.6830	 2.7010
 3.6850	 2.7540
 3.6880	 2.7420
 3.6910	 2.7480
 3.6930	 2.7690
 3.6960	 2.8050
 3.6990	 2.8050
 3.7010	 2.8140
 3.7040	 2.8210
 3.7070	 2.8590
 3.7090	 2.8360
 3.7120	 2.7990
 3.7150	 2.7970
 3.7170	 2.8610
 3.7200	 2.8820
 3.7230	 2.8940
 3.7250	 2.8810
 3.7280	 2.9050
 3.7310	 2.9030
 3.7330	 2.9300
 3.7360	 2.9590
 3.7390	 3.0100
 3.7410	 3.0040
 3.7440	 3.0370
 3.7470	 3.0290
 3.7490	 3.0100
 3.7520	 3.0160
 3.7550	 3.0870
 3.7580	 3.0870
 3.7600	 3.1010
 3.7630	 3.1000
 3.7660	 3.1280
 3.7690	 3.1340
 3.7710	 3.1650
 3.7740	 3.1650
 3.7770	 3.2070
 3.7790	 3.2170
 3.7820	 3.2460
 3.7850	 3.2890
 3.7880	 3.3310
 3.7910	 3.2930
 3.7930	 3.2780
 3.7960	 3.2920
 3.7990	 3.3380
 3.8020	 3.3470
 3.8040	 3.3580
 3.8070	 3.3660
 3.8100	 3.4010
 3.8130	 3.4000
 3.8160	 3.4320
 3.8180	 3.4460
 3.8210	 3.4690
 3.8240	 3.4780
 3.8270	 3.5060
 3.8300	 3.4930
 3.8330	 3.5300
 3.8350	 3.5190
 3.8380	 3.5070
 3.8410	 3.4930
 3.8440	 3.5050
 3.8470	 3.5320
 3.8500	 3.5710
 3.8520	 3.5680
 3.8550	 3.5880
 3.8580	 3.6010
 3.8610	 3.6420
 3.8640	 3.6560
 3.8670	 3.6460
 3.8700	 3.6340
 3.8730	 3.6670
 3.8760	 3.6880
 3.8780	 3.6850
 3.8810	 3.6720
 3.8840	 3.6880
 3.8870	 3.6740
 3.8900	 3.6920
 3.8930	 3.6960
 3.8960	 3.6790
 3.8990	 3.6600
 3.9020	 3.7200
 3.9050	 3.7320
 3.9080	 3.7050
 3.9110	 3.6760
 3.9140	 3.7110
 3.9170	 3.7010
 3.9190	 3.6910
 3.9220	 3.6660
 3.9250	 3.6620
 3.9280	 3.6590
 3.9310	 3.6850
 3.9340	 3.6770
 3.9370	 3.6840
 3.9400	 3.6620
 3.9430	 3.6870
 3.9460	 3.7210
 3.9490	 3.7170
 3.9520	 3.6850
 3.9550	 3.6830
 3.9580	 3.6830
 3.9610	 3.6840
 3.9640	 3.6690
 3.9670	 3.6560
 3.9700	 3.6470
 3.9740	 3.6830
 3.9770	 3.7000
 3.9800	 3.7060
 3.9830	 3.6970
 3.9860	 3.7270
 3.9890	 3.7300
 3.9920	 3.7310
 3.9950	 3.7210
 3.9980	 3.7250
 4.0010	 3.7080
 4.0040	 3.6790
 4.0070	 3.6550
 4.0100	 3.6740
 4.0140	 3.6950
 4.0170	 3.7080
 4.0200	 3.6980
 4.0230	 3.7260
 4.0260	 3.6930
 4.0290	 3.6870
 4.0320	 3.7020
 4.0350	 3.7150
 4.0390	 3.6830
 4.0420	 3.6860
 4.0450	 3.6820
 4.0480	 3.6900
 4.0510	 3.6680
 4.0540	 3.6680
 4.0570	 3.6700
 4.0610	 3.6750
 4.0640	 3.6430
 4.0670	 3.6380
 4.0700	 3.6570
 4.0730	 3.6600
 4.0770	 3.6360
 4.0800	 3.6260
 4.0830	 3.6020
 4.0860	 3.5940
 4.0890	 3.5790
 4.0930	 3.6020
 4.0960	 3.5960
 4.0990	 3.5950
 4.1020	 3.5800
 4.1060	 3.5640
 4.1090	 3.5530
 4.1120	 3.5620
 4.1150	 3.5610
 4.1190	 3.5550
 4.1220	 3.5460
 4.1250	 3.5490
 4.1290	 3.5300
 4.1320	 3.5430
 4.1350	 3.5200
 4.1380	 3.4980
 4.1420	 3.4930
 4.1450	 3.4830
 4.1480	 3.4790
 4.1520	 3.4760
 4.1550	 3.4610
 4.1580	 3.4940
 4.1620	 3.4670
 4.1650	 3.4220
 4.1680	 3.3900
 4.1720	 3.4040
 4.1750	 3.4230
 4.1780	 3.4190
 4.1820	 3.3870
 4.1850	 3.3900
 4.1890	 3.3700
 4.1920	 3.3760
 4.1950	 3.3660
 4.1990	 3.3610
 4.2020	 3.3460
 4.2060	 3.3340
 4.2090	 3.3290
 4.2120	 3.3270
 4.2160	 3.2960
 4.2190	 3.2590
 4.2230	 3.2950
 4.2260	 3.3560
 4.2300	 3.3020
 4.2330	 3.2290
 4.2360	 3.1690
 4.2400	 3.2230
 4.2430	 3.2540
 4.2470	 3.2140
 4.2500	 3.1780
 4.2540	 3.1650
 4.2570	 3.1180
 4.2610	 3.1120
 4.2640	 3.1180
 4.2680	 3.1260
 4.2710	 3.1130
 4.2750	 3.1580
 4.2780	 3.1400
 4.2820	 3.0850
 4.2850	 3.0460
 4.2890	 3.0770
 4.2930	 3.0630
 4.2960	 3.0610
 4.3000	 3.0150
 4.3030	 2.9880
 4.3070	 3.0180
 4.3100	 3.0420
 4.3140	 2.9990
 4.3180	 2.9490
 4.3210	 2.9070
 4.3250	 2.8940
 4.3280	 2.8520
 4.3320	 2.8680
 4.3360	 2.8810
 4.3390	 2.8580
 4.3430	 2.8380
 4.3470	 2.8150
 4.3500	 2.8130
 4.3540	 2.8240
 4.3580	 2.8070
 4.3610	 2.7920
 4.3650	 2.7590
 4.3690	 2.7680
 4.3720	 2.7570
 4.3760	 2.7540
 4.3800	 2.7500
 4.3830	 2.7240
 4.3870	 2.7210
 4.3910	 2.7370
 4.3940	 2.7160
 4.3980	 2.7070
 4.4020	 2.7030
 4.4060	 2.7350
 4.4090	 2.6990
 4.4130	 2.6800
 4.4170	 2.6750
 4.4210	 2.6740
 4.4240	 2.6510
 4.4280	 2.6260
 4.4320	 2.6140
 4.4360	 2.5990
 4.4400	 2.5990
 4.4430	 2.6200
 4.4470	 2.6180
 4.4510	 2.6110
 4.4550	 2.5960
 4.4590	 2.5760
 4.4630	 2.5640
 4.4660	 2.5440
 4.4700	 2.5520
 4.4740	 2.5600
 4.4780	 2.5450
 4.4820	 2.5480
 4.4860	 2.5330
 4.4900	 2.5250
 4.4930	 2.5450
 4.4970	 2.5620
 4.5010	 2.5520
 4.5050	 2.5380
 4.5090	 2.5200
 4.5130	 2.5130
 4.5170	 2.4870
 4.5210	 2.4780
 4.5250	 2.4880
 4.5290	 2.4780
 4.5330	 2.4580
 4.5370	 2.4580
 4.5410	 2.4630
 4.5450	 2.4720
 4.5490	 2.4560
 4.5530	 2.4540
 4.5570	 2.4320
 4.5610	 2.4380
 4.5650	 2.4440
 4.5690	 2.4490
 4.5730	 2.4290
 4.5770	 2.4160
 4.5810	 2.4530
 4.5850	 2.4740
 4.5890	 2.4440
 4.5930	 2.4280
 4.5970	 2.4370
 4.6010	 2.4170
 4.6050	 2.4190
 4.6090	 2.4070
 4.6130	 2.3720
 4.6170	 2.3750
 4.6220	 2.4090
 4.6260	 2.4440
 4.6300	 2.4490
 4.6340	 2.4330
 4.6380	 2.4080
 4.6420	 2.3980
 4.6460	 2.3880
 4.6510	 2.3880
 4.6550	 2.4060
 4.6590	 2.4210
 4.6630	 2.4280
 4.6670	 2.4210
 4.6720	 2.3840
 4.6760	 2.3870
 4.6800	 2.4040
 4.6840	 2.4130
 4.6880	 2.4170
 4.6930	 2.4090
 4.6970	 2.4140
 4.7010	 2.4370
 4.7050	 2.4120
 4.7100	 2.3730
 4.7140	 2.3670
 4.7180	 2.3600
 4.7230	 2.3810
 4.7270	 2.4020
 4.7310	 2.4140
 4.7360	 2.4280
 4.7400	 2.4060
 4.7440	 2.3830
 4.7490	 2.4080
 4.7530	 2.4140
 4.7570	 2.3920
 4.7620	 2.3930
 4.7660	 2.4170
 4.7700	 2.4270
 4.7750	 2.4160
 4.7790	 2.4050
 4.7840	 2.4230
 4.7880	 2.4460
 4.7920	 2.4650
 4.7970	 2.4380
 4.8010	 2.4270
 4.8060	 2.4390
 4.8100	 2.4390
 4.8150	 2.4290
 4.8190	 2.4560
 4.8240	 2.4740
 4.8280	 2.4780
 4.8330	 2.4820
 4.8370	 2.4660
 4.8420	 2.4580
 4.8460	 2.4690
 4.8510	 2.4710
 4.8550	 2.4870
 4.8600	 2.4870
 4.8640	 2.4820
 4.8690	 2.4960
 4.8740	 2.5270
 4.8780	 2.4960
 4.8830	 2.4770
 4.8870	 2.5050
 4.8920	 2.5200
 4.8970	 2.5170
 4.9010	 2.5270
 4.9060	 2.5260
 4.9100	 2.5360
 4.9150	 2.5450
 4.9200	 2.5560
 4.9240	 2.5850
 4.9290	 2.6040
 4.9340	 2.5870
 4.9390	 2.5850
 4.9430	 2.6320
 4.9480	 2.6600
 4.9530	 2.6470
 4.9570	 2.6350
 4.9620	 2.6000
 4.9670	 2.6240
 4.9720	 2.6740
 4.9760	 2.6630
 4.9810	 2.6570
 4.9860	 2.6880
 4.9910	 2.7000
 4.9960	 2.7010
 5.0000	 2.6820
 5.0050	 2.7170
 5.0100	 2.7540
 5.0150	 2.7650
 5.0200	 2.7560
 5.0250	 2.7510
 5.0300	 2.7660
 5.0340	 2.8110
 5.0390	 2.8090
 5.0440	 2.8140
 5.0490	 2.8360
 5.0540	 2.8160
 5.0590	 2.7910
 5.0640	 2.8330
 5.0690	 2.8610
 5.0740	 2.8630
 5.0790	 2.8820
 5.0840	 2.9270
 5.0890	 2.9160
 5.0940	 2.9010
 5.0990	 2.9320
 5.1040	 2.9700
 5.1090	 2.9640
 5.1140	 2.9750
 5.1190	 2.9760
 5.1240	 2.9770
 5.1290	 2.9850
 5.1340	 3.0130
 5.1390	 3.0080
 5.1440	 3.0240
 5.1490	 3.0540
 5.1550	 3.0780
 5.1600	 3.0870
 5.1650	 3.0720
 5.1700	 3.0910
 5.1750	 3.1520
 5.1800	 3.1510
 5.1850	 3.1440
 5.1910	 3.1660
 5.1960	 3.2050
 5.2010	 3.2020
 5.2060	 3.1900
 5.2110	 3.1930
 5.2170	 3.1830
 5.2220	 3.1690
 5.2270	 3.1680
 5.2330	 3.1690
 5.2380	 3.1970
 5.2430	 3.2100
 5.2480	 3.2190
 5.2540	 3.2280
 5.2590	 3.2140
 5.2640	 3.1870
 5.2700	 3.1910
 5.2750	 3.1960
 5.2800	 3.2250
 5.2860	 3.2050
 5.2910	 3.1780
 5.2970	 3.1770
 5.3020	 3.2080
 5.3080	 3.2050
 5.3130	 3.2020
 5.3180	 3.2110
 5.3240	 3.2340
 5.3290	 3.2260
 5.3350	 3.2060
 5.3400	 3.1800
 5.3460	 3.1860
 5.3510	 3.1840
 5.3570	 3.1750
 5.3620	 3.1710
 5.3680	 3.2070
 5.3740	 3.1740
 5.3790	 3.1490
 5.3850	 3.1370
 5.3900	 3.1730
 5.3960	 3.1800
 5.4010	 3.1860
 5.4070	 3.1800
 5.4130	 3.1970
 5.4180	 3.1360
 5.4240	 3.0790
 5.4300	 3.0860
 5.4350	 3.0700
 5.4410	 3.0410
 5.4470	 3.0590
 5.4530	 3.0280
 5.4580	 3.0280
 5.4640	 2.9860
 5.4700	 2.9610
 5.4760	 2.9350
 5.4810	 2.9490
