Name: Ceanothus megacarpus 3
Type: vegetation
Class: Shrub
Genus: Ceanothus
Species: megacarpus
Sample No.: VH023
Owner: UCSB
Wavelength Range: VSWIR
Origin: 34.4909; -119.7914; WGS84
Collection Date: 4/1/2013
Description: Samples were collected as part of the HyspIRI Airborne Campaign. 48 individual plants were sampled in three times in 2013 - spring  summer  and fall. The name of the sample includes a 1  2  or 3 which references a different individual of the species. Samples were taken to JPL and processed within 48 hours of collection. The same leaves were processed in the Nicolet and then measured using the ASD.
Measurement: Bidirectional reflectance
First Column: X
Second Column: Y
X Units: Wavelength (micrometers)
Y Units: Reflectance (percentage)
First X Value: 0.35
Last X Value: 2.5
Number of X Values: 2151
Additional Information: vegetation.shrub.ceanothus.megacarpus.vswir.vh023.ucsb.asd.ancillary.txt

 0.3500	 7.7790
 0.3510	 8.0590
 0.3520	 7.9230
 0.3530	 7.7410
 0.3540	 7.8410
 0.3550	 7.9250
 0.3560	 7.8070
 0.3570	 7.6110
 0.3580	 7.5960
 0.3590	 7.7050
 0.3600	 7.8230
 0.3610	 7.8660
 0.3620	 7.8040
 0.3630	 7.7570
 0.3640	 7.7260
 0.3650	 7.6880
 0.3660	 7.6590
 0.3670	 7.5950
 0.3680	 7.5380
 0.3690	 7.5820
 0.3700	 7.6330
 0.3710	 7.6480
 0.3720	 7.6390
 0.3730	 7.6970
 0.3740	 7.6800
 0.3750	 7.6170
 0.3760	 7.5850
 0.3770	 7.5710
 0.3780	 7.6080
 0.3790	 7.6590
 0.3800	 7.6410
 0.3810	 7.6040
 0.3820	 7.6140
 0.3830	 7.6690
 0.3840	 7.6190
 0.3850	 7.5600
 0.3860	 7.5220
 0.3870	 7.5110
 0.3880	 7.5650
 0.3890	 7.6100
 0.3900	 7.5980
 0.3910	 7.5270
 0.3920	 7.5460
 0.3930	 7.5680
 0.3940	 7.5180
 0.3950	 7.4740
 0.3960	 7.4910
 0.3970	 7.5390
 0.3980	 7.5560
 0.3990	 7.5560
 0.4000	 7.5360
 0.4010	 7.5030
 0.4020	 7.4800
 0.4030	 7.4780
 0.4040	 7.4870
 0.4050	 7.4930
 0.4060	 7.4760
 0.4070	 7.4470
 0.4080	 7.4230
 0.4090	 7.4250
 0.4100	 7.4440
 0.4110	 7.4650
 0.4120	 7.4760
 0.4130	 7.4650
 0.4140	 7.4660
 0.4150	 7.4860
 0.4160	 7.5180
 0.4170	 7.5140
 0.4180	 7.5200
 0.4190	 7.5460
 0.4200	 7.5670
 0.4210	 7.5900
 0.4220	 7.6110
 0.4230	 7.6310
 0.4240	 7.6620
 0.4250	 7.6890
 0.4260	 7.7190
 0.4270	 7.7600
 0.4280	 7.7730
 0.4290	 7.7970
 0.4300	 7.8380
 0.4310	 7.8570
 0.4320	 7.8700
 0.4330	 7.8850
 0.4340	 7.9040
 0.4350	 7.9230
 0.4360	 7.9440
 0.4370	 7.9680
 0.4380	 7.9920
 0.4390	 8.0150
 0.4400	 8.0400
 0.4410	 8.0700
 0.4420	 8.0950
 0.4430	 8.1150
 0.4440	 8.1320
 0.4450	 8.1500
 0.4460	 8.1580
 0.4470	 8.1690
 0.4480	 8.1870
 0.4490	 8.2080
 0.4500	 8.2150
 0.4510	 8.2260
 0.4520	 8.2560
 0.4530	 8.2750
 0.4540	 8.2890
 0.4550	 8.2970
 0.4560	 8.3010
 0.4570	 8.3140
 0.4580	 8.3300
 0.4590	 8.3380
 0.4600	 8.3250
 0.4610	 8.3210
 0.4620	 8.3290
 0.4630	 8.3420
 0.4640	 8.3410
 0.4650	 8.3400
 0.4660	 8.3470
 0.4670	 8.3590
 0.4680	 8.3500
 0.4690	 8.3430
 0.4700	 8.3560
 0.4710	 8.3540
 0.4720	 8.3560
 0.4730	 8.3610
 0.4740	 8.3570
 0.4750	 8.3500
 0.4760	 8.3480
 0.4770	 8.3510
 0.4780	 8.3480
 0.4790	 8.3560
 0.4800	 8.3640
 0.4810	 8.3610
 0.4820	 8.3670
 0.4830	 8.3700
 0.4840	 8.3690
 0.4850	 8.3680
 0.4860	 8.3740
 0.4870	 8.3800
 0.4880	 8.3810
 0.4890	 8.3930
 0.4900	 8.4020
 0.4910	 8.4100
 0.4920	 8.4220
 0.4930	 8.4440
 0.4940	 8.4580
 0.4950	 8.4620
 0.4960	 8.4850
 0.4970	 8.5040
 0.4980	 8.5200
 0.4990	 8.5410
 0.5000	 8.5670
 0.5010	 8.6000
 0.5020	 8.6350
 0.5030	 8.6580
 0.5040	 8.6940
 0.5050	 8.7350
 0.5060	 8.7760
 0.5070	 8.8230
 0.5080	 8.8730
 0.5090	 8.9280
 0.5100	 8.9930
 0.5110	 9.0530
 0.5120	 9.1230
 0.5130	 9.2100
 0.5140	 9.3030
 0.5150	 9.3990
 0.5160	 9.5010
 0.5170	 9.6100
 0.5180	 9.7290
 0.5190	 9.8520
 0.5200	 9.9810
 0.5210	10.1200
 0.5220	10.2590
 0.5230	10.4000
 0.5240	10.5420
 0.5250	10.6710
 0.5260	10.8010
 0.5270	10.9320
 0.5280	11.0560
 0.5290	11.1760
 0.5300	11.2840
 0.5310	11.3800
 0.5320	11.4760
 0.5330	11.5630
 0.5340	11.6420
 0.5350	11.7160
 0.5360	11.7760
 0.5370	11.8300
 0.5380	11.8810
 0.5390	11.9290
 0.5400	11.9680
 0.5410	11.9960
 0.5420	12.0170
 0.5430	12.0500
 0.5440	12.0810
 0.5450	12.1120
 0.5460	12.1500
 0.5470	12.1900
 0.5480	12.2260
 0.5490	12.2550
 0.5500	12.2700
 0.5510	12.2860
 0.5520	12.3000
 0.5530	12.3060
 0.5540	12.2990
 0.5550	12.2820
 0.5560	12.2540
 0.5570	12.2150
 0.5580	12.1660
 0.5590	12.1120
 0.5600	12.0560
 0.5610	11.9930
 0.5620	11.9190
 0.5630	11.8350
 0.5640	11.7420
 0.5650	11.6460
 0.5660	11.5490
 0.5670	11.4500
 0.5680	11.3520
 0.5690	11.2490
 0.5700	11.1490
 0.5710	11.0570
 0.5720	10.9770
 0.5730	10.8940
 0.5740	10.8110
 0.5750	10.7340
 0.5760	10.6560
 0.5770	10.5830
 0.5780	10.5210
 0.5790	10.4640
 0.5800	10.4150
 0.5810	10.3690
 0.5820	10.3230
 0.5830	10.2750
 0.5840	10.2340
 0.5850	10.2020
 0.5860	10.1760
 0.5870	10.1490
 0.5880	10.1200
 0.5890	10.0920
 0.5900	10.0690
 0.5910	10.0610
 0.5920	10.0590
 0.5930	10.0510
 0.5940	10.0410
 0.5950	10.0270
 0.5960	10.0090
 0.5970	 9.9950
 0.5980	 9.9790
 0.5990	 9.9650
 0.6000	 9.9570
 0.6010	 9.9410
 0.6020	 9.9190
 0.6030	 9.8930
 0.6040	 9.8650
 0.6050	 9.8310
 0.6060	 9.7920
 0.6070	 9.7520
 0.6080	 9.7120
 0.6090	 9.6640
 0.6100	 9.6080
 0.6110	 9.5520
 0.6120	 9.5140
 0.6130	 9.4830
 0.6140	 9.4510
 0.6150	 9.4160
 0.6160	 9.3800
 0.6170	 9.3470
 0.6180	 9.3190
 0.6190	 9.2900
 0.6200	 9.2640
 0.6210	 9.2410
 0.6220	 9.2230
 0.6230	 9.2040
 0.6240	 9.1880
 0.6250	 9.1770
 0.6260	 9.1630
 0.6270	 9.1560
 0.6280	 9.1520
 0.6290	 9.1440
 0.6300	 9.1370
 0.6310	 9.1340
 0.6320	 9.1320
 0.6330	 9.1240
 0.6340	 9.1160
 0.6350	 9.1050
 0.6360	 9.0880
 0.6370	 9.0700
 0.6380	 9.0500
 0.6390	 9.0270
 0.6400	 9.0010
 0.6410	 8.9750
 0.6420	 8.9480
 0.6430	 8.9170
 0.6440	 8.8840
 0.6450	 8.8520
 0.6460	 8.8190
 0.6470	 8.7870
 0.6480	 8.7610
 0.6490	 8.7350
 0.6500	 8.7120
 0.6510	 8.6920
 0.6520	 8.6700
 0.6530	 8.6480
 0.6540	 8.6290
 0.6550	 8.6060
 0.6560	 8.5830
 0.6570	 8.5600
 0.6580	 8.5330
 0.6590	 8.5040
 0.6600	 8.4750
 0.6610	 8.4460
 0.6620	 8.4170
 0.6630	 8.3930
 0.6640	 8.3710
 0.6650	 8.3500
 0.6660	 8.3320
 0.6670	 8.3190
 0.6680	 8.3080
 0.6690	 8.2990
 0.6700	 8.2940
 0.6710	 8.2920
 0.6720	 8.2940
 0.6730	 8.2970
 0.6740	 8.3000
 0.6750	 8.3070
 0.6760	 8.3170
 0.6770	 8.3250
 0.6780	 8.3350
 0.6790	 8.3500
 0.6800	 8.3700
 0.6810	 8.3900
 0.6820	 8.4140
 0.6830	 8.4450
 0.6840	 8.4850
 0.6850	 8.5280
 0.6860	 8.5770
 0.6870	 8.6360
 0.6880	 8.7060
 0.6890	 8.7960
 0.6900	 8.9090
 0.6910	 9.0440
 0.6920	 9.2110
 0.6930	 9.4130
 0.6940	 9.6510
 0.6950	 9.9320
 0.6960	10.2580
 0.6970	10.6270
 0.6980	11.0400
 0.6990	11.4970
 0.7000	11.9960
 0.7010	12.5350
 0.7020	13.1090
 0.7030	13.7130
 0.7040	14.3470
 0.7050	15.0080
 0.7060	15.6910
 0.7070	16.4030
 0.7080	17.1370
 0.7090	17.8840
 0.7100	18.6560
 0.7110	19.4490
 0.7120	20.2590
 0.7130	21.0840
 0.7140	21.9300
 0.7150	22.7930
 0.7160	23.6680
 0.7170	24.5510
 0.7180	25.4480
 0.7190	26.3550
 0.7200	27.2680
 0.7210	28.1810
 0.7220	29.0970
 0.7230	30.0130
 0.7240	30.9200
 0.7250	31.8130
 0.7260	32.6930
 0.7270	33.5610
 0.7280	34.4060
 0.7290	35.2300
 0.7300	36.0300
 0.7310	36.8010
 0.7320	37.5470
 0.7330	38.2640
 0.7340	38.9510
 0.7350	39.6100
 0.7360	40.2430
 0.7370	40.8460
 0.7380	41.4160
 0.7390	41.9550
 0.7400	42.4580
 0.7410	42.9350
 0.7420	43.3930
 0.7430	43.8200
 0.7440	44.2190
 0.7450	44.5940
 0.7460	44.9410
 0.7470	45.2640
 0.7480	45.5620
 0.7490	45.8370
 0.7500	46.0900
 0.7510	46.3290
 0.7520	46.5510
 0.7530	46.7510
 0.7540	46.9300
 0.7550	47.0970
 0.7560	47.2530
 0.7570	47.3930
 0.7580	47.5260
 0.7590	47.6490
 0.7600	47.7580
 0.7610	47.8590
 0.7620	47.9480
 0.7630	48.0330
 0.7640	48.1170
 0.7650	48.1860
 0.7660	48.2470
 0.7670	48.3050
 0.7680	48.3630
 0.7690	48.4210
 0.7700	48.4710
 0.7710	48.5110
 0.7720	48.5550
 0.7730	48.5940
 0.7740	48.6330
 0.7750	48.6750
 0.7760	48.7110
 0.7770	48.7440
 0.7780	48.7750
 0.7790	48.8010
 0.7800	48.8340
 0.7810	48.8640
 0.7820	48.8890
 0.7830	48.9180
 0.7840	48.9430
 0.7850	48.9650
 0.7860	48.9870
 0.7870	49.0140
 0.7880	49.0370
 0.7890	49.0570
 0.7900	49.0800
 0.7910	49.1010
 0.7920	49.1180
 0.7930	49.1340
 0.7940	49.1540
 0.7950	49.1670
 0.7960	49.1780
 0.7970	49.1920
 0.7980	49.2070
 0.7990	49.2200
 0.8000	49.2290
 0.8010	49.2360
 0.8020	49.2460
 0.8030	49.2550
 0.8040	49.2600
 0.8050	49.2590
 0.8060	49.2680
 0.8070	49.2670
 0.8080	49.2580
 0.8090	49.2680
 0.8100	49.2740
 0.8110	49.2760
 0.8120	49.2730
 0.8130	49.2710
 0.8140	49.2660
 0.8150	49.2560
 0.8160	49.2460
 0.8170	49.2470
 0.8180	49.2430
 0.8190	49.2350
 0.8200	49.2320
 0.8210	49.2280
 0.8220	49.2170
 0.8230	49.2030
 0.8240	49.1910
 0.8250	49.1810
 0.8260	49.1720
 0.8270	49.1630
 0.8280	49.1450
 0.8290	49.1290
 0.8300	49.1150
 0.8310	49.1000
 0.8320	49.0810
 0.8330	49.0680
 0.8340	49.0560
 0.8350	49.0390
 0.8360	49.0270
 0.8370	49.0190
 0.8380	49.0130
 0.8390	49.0050
 0.8400	49.0040
 0.8410	48.9990
 0.8420	48.9890
 0.8430	48.9910
 0.8440	48.9880
 0.8450	48.9860
 0.8460	48.9890
 0.8470	48.9820
 0.8480	48.9790
 0.8490	48.9790
 0.8500	48.9760
 0.8510	48.9720
 0.8520	48.9710
 0.8530	48.9750
 0.8540	48.9790
 0.8550	48.9730
 0.8560	48.9700
 0.8570	48.9750
 0.8580	48.9840
 0.8590	48.9770
 0.8600	48.9750
 0.8610	48.9860
 0.8620	48.9910
 0.8630	48.9970
 0.8640	49.0050
 0.8650	49.0140
 0.8660	49.0130
 0.8670	49.0150
 0.8680	49.0230
 0.8690	49.0340
 0.8700	49.0430
 0.8710	49.0470
 0.8720	49.0500
 0.8730	49.0570
 0.8740	49.0590
 0.8750	49.0630
 0.8760	49.0720
 0.8770	49.0880
 0.8780	49.1040
 0.8790	49.1150
 0.8800	49.1180
 0.8810	49.1190
 0.8820	49.1300
 0.8830	49.1420
 0.8840	49.1460
 0.8850	49.1520
 0.8860	49.1570
 0.8870	49.1630
 0.8880	49.1720
 0.8890	49.1840
 0.8900	49.1900
 0.8910	49.1920
 0.8920	49.1970
 0.8930	49.2020
 0.8940	49.2100
 0.8950	49.2150
 0.8960	49.2130
 0.8970	49.2140
 0.8980	49.2190
 0.8990	49.2250
 0.9000	49.2210
 0.9010	49.2260
 0.9020	49.2400
 0.9030	49.2540
 0.9040	49.2500
 0.9050	49.2530
 0.9060	49.2580
 0.9070	49.2610
 0.9080	49.2580
 0.9090	49.2630
 0.9100	49.2720
 0.9110	49.2780
 0.9120	49.2740
 0.9130	49.2720
 0.9140	49.2740
 0.9150	49.2780
 0.9160	49.2750
 0.9170	49.2700
 0.9180	49.2700
 0.9190	49.2730
 0.9200	49.2570
 0.9210	49.2430
 0.9220	49.2380
 0.9230	49.2330
 0.9240	49.2140
 0.9250	49.1930
 0.9260	49.1720
 0.9270	49.1450
 0.9280	49.1210
 0.9290	49.0910
 0.9300	49.0530
 0.9310	49.0140
 0.9320	48.9850
 0.9330	48.9540
 0.9340	48.9130
 0.9350	48.8700
 0.9360	48.8280
 0.9370	48.7780
 0.9380	48.7200
 0.9390	48.6720
 0.9400	48.6200
 0.9410	48.5550
 0.9420	48.4860
 0.9430	48.4360
 0.9440	48.3790
 0.9450	48.3140
 0.9460	48.2370
 0.9470	48.1410
 0.9480	48.0480
 0.9490	47.9500
 0.9500	47.8400
 0.9510	47.7260
 0.9520	47.6150
 0.9530	47.4970
 0.9540	47.3650
 0.9550	47.2410
 0.9560	47.1220
 0.9570	47.0070
 0.9580	46.8940
 0.9590	46.7750
 0.9600	46.6740
 0.9610	46.5940
 0.9620	46.5270
 0.9630	46.4500
 0.9640	46.3800
 0.9650	46.3190
 0.9660	46.2660
 0.9670	46.2300
 0.9680	46.1960
 0.9690	46.1600
 0.9700	46.1280
 0.9710	46.1050
 0.9720	46.0810
 0.9730	46.0620
 0.9740	46.0550
 0.9750	46.0410
 0.9760	46.0220
 0.9770	46.0110
 0.9780	46.0210
 0.9790	46.0190
 0.9800	46.0280
 0.9810	46.0380
 0.9820	46.0330
 0.9830	46.0420
 0.9840	46.0590
 0.9850	46.0810
 0.9860	46.1080
 0.9870	46.1430
 0.9880	46.1760
 0.9890	46.2010
 0.9900	46.2160
 0.9910	46.2440
 0.9920	46.3100
 0.9930	46.3750
 0.9940	46.4410
 0.9950	46.5070
 0.9960	46.5730
 0.9970	46.6390
 0.9980	46.7040
 0.9990	46.7700
 1.0000	46.8360
 1.0010	46.9020
 1.0020	46.9670
 1.0030	47.0330
 1.0040	47.0990
 1.0050	47.1650
 1.0060	47.2300
 1.0070	47.2960
 1.0080	47.3620
 1.0090	47.4280
 1.0100	47.4280
 1.0110	47.4730
 1.0120	47.5180
 1.0130	47.5640
 1.0140	47.6060
 1.0150	47.6420
 1.0160	47.6800
 1.0170	47.7230
 1.0180	47.7670
 1.0190	47.8150
 1.0200	47.8630
 1.0210	47.9050
 1.0220	47.9400
 1.0230	47.9780
 1.0240	48.0130
 1.0250	48.0510
 1.0260	48.0890
 1.0270	48.1300
 1.0280	48.1770
 1.0290	48.2170
 1.0300	48.2550
 1.0310	48.2930
 1.0320	48.3290
 1.0330	48.3600
 1.0340	48.3910
 1.0350	48.4290
 1.0360	48.4660
 1.0370	48.5000
 1.0380	48.5350
 1.0390	48.5730
 1.0400	48.6070
 1.0410	48.6420
 1.0420	48.6730
 1.0430	48.7030
 1.0440	48.7310
 1.0450	48.7550
 1.0460	48.7810
 1.0470	48.8060
 1.0480	48.8320
 1.0490	48.8590
 1.0500	48.8840
 1.0510	48.9080
 1.0520	48.9310
 1.0530	48.9500
 1.0540	48.9660
 1.0550	48.9830
 1.0560	49.0010
 1.0570	49.0160
 1.0580	49.0300
 1.0590	49.0450
 1.0600	49.0590
 1.0610	49.0720
 1.0620	49.0860
 1.0630	49.0960
 1.0640	49.1000
 1.0650	49.1060
 1.0660	49.1070
 1.0670	49.1110
 1.0680	49.1150
 1.0690	49.1190
 1.0700	49.1230
 1.0710	49.1280
 1.0720	49.1280
 1.0730	49.1260
 1.0740	49.1240
 1.0750	49.1210
 1.0760	49.1160
 1.0770	49.1110
 1.0780	49.1040
 1.0790	49.0910
 1.0800	49.0820
 1.0810	49.0770
 1.0820	49.0670
 1.0830	49.0550
 1.0840	49.0410
 1.0850	49.0210
 1.0860	49.0040
 1.0870	48.9880
 1.0880	48.9760
 1.0890	48.9600
 1.0900	48.9460
 1.0910	48.9280
 1.0920	48.9090
 1.0930	48.8890
 1.0940	48.8660
 1.0950	48.8460
 1.0960	48.8270
 1.0970	48.8060
 1.0980	48.7850
 1.0990	48.7620
 1.1000	48.7350
 1.1010	48.7100
 1.1020	48.6840
 1.1030	48.6610
 1.1040	48.6360
 1.1050	48.6120
 1.1060	48.5870
 1.1070	48.5620
 1.1080	48.5330
 1.1090	48.5030
 1.1100	48.4710
 1.1110	48.4360
 1.1120	48.3990
 1.1130	48.3620
 1.1140	48.3220
 1.1150	48.2800
 1.1160	48.2340
 1.1170	48.1860
 1.1180	48.1330
 1.1190	48.0790
 1.1200	48.0180
 1.1210	47.9510
 1.1220	47.8780
 1.1230	47.7960
 1.1240	47.7100
 1.1250	47.6160
 1.1260	47.5170
 1.1270	47.4060
 1.1280	47.2890
 1.1290	47.1590
 1.1300	47.0220
 1.1310	46.8730
 1.1320	46.7140
 1.1330	46.5430
 1.1340	46.3600
 1.1350	46.1680
 1.1360	45.9660
 1.1370	45.7510
 1.1380	45.5300
 1.1390	45.3010
 1.1400	45.0610
 1.1410	44.8190
 1.1420	44.5700
 1.1430	44.3160
 1.1440	44.0660
 1.1450	43.8120
 1.1460	43.5670
 1.1470	43.3200
 1.1480	43.0860
 1.1490	42.8560
 1.1500	42.6420
 1.1510	42.4350
 1.1520	42.2440
 1.1530	42.0620
 1.1540	41.8970
 1.1550	41.7460
 1.1560	41.6090
 1.1570	41.4830
 1.1580	41.3740
 1.1590	41.2750
 1.1600	41.1870
 1.1610	41.1140
 1.1620	41.0480
 1.1630	40.9900
 1.1640	40.9400
 1.1650	40.8960
 1.1660	40.8610
 1.1670	40.8290
 1.1680	40.8060
 1.1690	40.7820
 1.1700	40.7630
 1.1710	40.7430
 1.1720	40.7250
 1.1730	40.7070
 1.1740	40.6910
 1.1750	40.6750
 1.1760	40.6590
 1.1770	40.6430
 1.1780	40.6260
 1.1790	40.6090
 1.1800	40.5910
 1.1810	40.5710
 1.1820	40.5520
 1.1830	40.5320
 1.1840	40.5100
 1.1850	40.4890
 1.1860	40.4680
 1.1870	40.4490
 1.1880	40.4320
 1.1890	40.4170
 1.1900	40.4040
 1.1910	40.3920
 1.1920	40.3820
 1.1930	40.3730
 1.1940	40.3670
 1.1950	40.3650
 1.1960	40.3650
 1.1970	40.3660
 1.1980	40.3700
 1.1990	40.3750
 1.2000	40.3820
 1.2010	40.3940
 1.2020	40.4080
 1.2030	40.4260
 1.2040	40.4490
 1.2050	40.4710
 1.2060	40.4940
 1.2070	40.5200
 1.2080	40.5470
 1.2090	40.5770
 1.2100	40.6110
 1.2110	40.6460
 1.2120	40.6820
 1.2130	40.7190
 1.2140	40.7570
 1.2150	40.7970
 1.2160	40.8390
 1.2170	40.8810
 1.2180	40.9230
 1.2190	40.9650
 1.2200	41.0060
 1.2210	41.0490
 1.2220	41.0910
 1.2230	41.1330
 1.2240	41.1750
 1.2250	41.2170
 1.2260	41.2600
 1.2270	41.3000
 1.2280	41.3420
 1.2290	41.3820
 1.2300	41.4200
 1.2310	41.4590
 1.2320	41.4950
 1.2330	41.5290
 1.2340	41.5640
 1.2350	41.5970
 1.2360	41.6310
 1.2370	41.6640
 1.2380	41.6960
 1.2390	41.7250
 1.2400	41.7550
 1.2410	41.7840
 1.2420	41.8090
 1.2430	41.8360
 1.2440	41.8640
 1.2450	41.8890
 1.2460	41.9160
 1.2470	41.9410
 1.2480	41.9630
 1.2490	41.9830
 1.2500	42.0020
 1.2510	42.0200
 1.2520	42.0370
 1.2530	42.0540
 1.2540	42.0720
 1.2550	42.0860
 1.2560	42.0980
 1.2570	42.1090
 1.2580	42.1170
 1.2590	42.1230
 1.2600	42.1270
 1.2610	42.1310
 1.2620	42.1320
 1.2630	42.1330
 1.2640	42.1340
 1.2650	42.1340
 1.2660	42.1320
 1.2670	42.1260
 1.2680	42.1190
 1.2690	42.1090
 1.2700	42.0970
 1.2710	42.0880
 1.2720	42.0770
 1.2730	42.0650
 1.2740	42.0520
 1.2750	42.0340
 1.2760	42.0140
 1.2770	41.9950
 1.2780	41.9740
 1.2790	41.9520
 1.2800	41.9300
 1.2810	41.9020
 1.2820	41.8710
 1.2830	41.8390
 1.2840	41.8010
 1.2850	41.7610
 1.2860	41.7180
 1.2870	41.6710
 1.2880	41.6190
 1.2890	41.5670
 1.2900	41.5110
 1.2910	41.4520
 1.2920	41.3910
 1.2930	41.3250
 1.2940	41.2510
 1.2950	41.1740
 1.2960	41.0930
 1.2970	41.0090
 1.2980	40.9210
 1.2990	40.8270
 1.3000	40.7280
 1.3010	40.6250
 1.3020	40.5190
 1.3030	40.4090
 1.3040	40.2950
 1.3050	40.1770
 1.3060	40.0530
 1.3070	39.9250
 1.3080	39.7930
 1.3090	39.6550
 1.3100	39.5130
 1.3110	39.3670
 1.3120	39.2180
 1.3130	39.0650
 1.3140	38.9070
 1.3150	38.7460
 1.3160	38.5810
 1.3170	38.4140
 1.3180	38.2410
 1.3190	38.0650
 1.3200	37.8870
 1.3210	37.7020
 1.3220	37.5110
 1.3230	37.3200
 1.3240	37.1210
 1.3250	36.9240
 1.3260	36.7250
 1.3270	36.5220
 1.3280	36.3190
 1.3290	36.1110
 1.3300	35.9030
 1.3310	35.6910
 1.3320	35.4770
 1.3330	35.2660
 1.3340	35.0530
 1.3350	34.8410
 1.3360	34.6330
 1.3370	34.4210
 1.3380	34.2110
 1.3390	34.0040
 1.3400	33.7960
 1.3410	33.5930
 1.3420	33.3920
 1.3430	33.1940
 1.3440	33.0000
 1.3450	32.8070
 1.3460	32.6150
 1.3470	32.4270
 1.3480	32.2410
 1.3490	32.0580
 1.3500	31.8790
 1.3510	31.7040
 1.3520	31.5270
 1.3530	31.3520
 1.3540	31.1780
 1.3550	31.0020
 1.3560	30.8270
 1.3570	30.6530
 1.3580	30.4790
 1.3590	30.3030
 1.3600	30.1240
 1.3610	29.9410
 1.3620	29.7510
 1.3630	29.5540
 1.3640	29.3500
 1.3650	29.1370
 1.3660	28.9180
 1.3670	28.6900
 1.3680	28.4500
 1.3690	28.1980
 1.3700	27.9290
 1.3710	27.6470
 1.3720	27.3500
 1.3730	27.0350
 1.3740	26.7070
 1.3750	26.3600
 1.3760	25.9920
 1.3770	25.6070
 1.3780	25.1970
 1.3790	24.7670
 1.3800	24.3180
 1.3810	23.8470
 1.3820	23.3660
 1.3830	22.8710
 1.3840	22.3660
 1.3850	21.8490
 1.3860	21.3300
 1.3870	20.7960
 1.3880	20.2720
 1.3890	19.7460
 1.3900	19.2200
 1.3910	18.7070
 1.3920	18.2010
 1.3930	17.7000
 1.3940	17.2150
 1.3950	16.7380
 1.3960	16.2780
 1.3970	15.8370
 1.3980	15.4140
 1.3990	15.0170
 1.4000	14.6390
 1.4010	14.2800
 1.4020	13.9440
 1.4030	13.6250
 1.4040	13.3270
 1.4050	13.0510
 1.4060	12.7940
 1.4070	12.5580
 1.4080	12.3390
 1.4090	12.1360
 1.4100	11.9500
 1.4110	11.7780
 1.4120	11.6200
 1.4130	11.4760
 1.4140	11.3440
 1.4150	11.2260
 1.4160	11.1180
 1.4170	11.0200
 1.4180	10.9310
 1.4190	10.8490
 1.4200	10.7740
 1.4210	10.7070
 1.4220	10.6450
 1.4230	10.5900
 1.4240	10.5410
 1.4250	10.4960
 1.4260	10.4580
 1.4270	10.4220
 1.4280	10.3890
 1.4290	10.3600
 1.4300	10.3350
 1.4310	10.3130
 1.4320	10.2930
 1.4330	10.2760
 1.4340	10.2620
 1.4350	10.2490
 1.4360	10.2400
 1.4370	10.2330
 1.4380	10.2270
 1.4390	10.2230
 1.4400	10.2200
 1.4410	10.2180
 1.4420	10.2180
 1.4430	10.2200
 1.4440	10.2230
 1.4450	10.2280
 1.4460	10.2320
 1.4470	10.2390
 1.4480	10.2460
 1.4490	10.2540
 1.4500	10.2620
 1.4510	10.2700
 1.4520	10.2790
 1.4530	10.2890
 1.4540	10.3000
 1.4550	10.3110
 1.4560	10.3240
 1.4570	10.3370
 1.4580	10.3520
 1.4590	10.3670
 1.4600	10.3860
 1.4610	10.4050
 1.4620	10.4270
 1.4630	10.4510
 1.4640	10.4770
 1.4650	10.5060
 1.4660	10.5370
 1.4670	10.5690
 1.4680	10.6040
 1.4690	10.6420
