Name: Heteromeles arbutifolia 2
Type: vegetation
Class: Shrub
Genus: Heteromeles
Species: arbutifolia
Sample No.: VH208
Owner: UCSB
Wavelength Range: VSWIR
Origin: 34.4907; -119.7912; WGS84
Collection Date: 10/13/2013
Description: Samples were collected as part of the HyspIRI Airborne Campaign. 48 individual plants were sampled in three times in 2013 - spring  summer  and fall. The name of the sample includes a 1  2  or 3 which references a different individual of the species. Samples were taken to JPL and processed within 48 hours of collection. The same leaves were processed in the Nicolet and then measured using the ASD.
Measurement: Bidirectional reflectance
First Column: X
Second Column: Y
X Units: Wavelength (micrometers)
Y Units: Reflectance (percentage)
First X Value: 0.35
Last X Value: 2.5
Number of X Values: 2151
Additional Information: vegetation.shrub.heteromeles.arbutifolia.vswir.vh208.ucsb.asd.ancillary.txt

 0.3500	13.5300
 0.3510	13.5470
 0.3520	13.3770
 0.3530	13.1700
 0.3540	13.0900
 0.3550	13.0460
 0.3560	13.0710
 0.3570	13.1430
 0.3580	13.2110
 0.3590	13.2410
 0.3600	13.2130
 0.3610	13.1190
 0.3620	12.9480
 0.3630	12.8630
 0.3640	12.9140
 0.3650	13.0420
 0.3660	12.9390
 0.3670	12.8400
 0.3680	12.7960
 0.3690	12.7400
 0.3700	12.8590
 0.3710	12.9180
 0.3720	12.8320
 0.3730	12.8820
 0.3740	12.9240
 0.3750	12.8880
 0.3760	12.7740
 0.3770	12.8000
 0.3780	12.8560
 0.3790	12.8840
 0.3800	12.8880
 0.3810	12.8690
 0.3820	12.8680
 0.3830	12.8720
 0.3840	12.7380
 0.3850	12.6670
 0.3860	12.7100
 0.3870	12.8320
 0.3880	12.9240
 0.3890	12.9090
 0.3900	12.8180
 0.3910	12.7850
 0.3920	12.7320
 0.3930	12.7290
 0.3940	12.8010
 0.3950	12.8040
 0.3960	12.8220
 0.3970	12.7990
 0.3980	12.6580
 0.3990	12.7030
 0.4000	12.7680
 0.4010	12.7570
 0.4020	12.7190
 0.4030	12.7020
 0.4040	12.6970
 0.4050	12.6810
 0.4060	12.6590
 0.4070	12.6560
 0.4080	12.6840
 0.4090	12.7360
 0.4100	12.7270
 0.4110	12.7060
 0.4120	12.7050
 0.4130	12.6820
 0.4140	12.6550
 0.4150	12.6620
 0.4160	12.7130
 0.4170	12.6670
 0.4180	12.6230
 0.4190	12.6180
 0.4200	12.6180
 0.4210	12.6160
 0.4220	12.5950
 0.4230	12.5550
 0.4240	12.5530
 0.4250	12.5690
 0.4260	12.5750
 0.4270	12.5500
 0.4280	12.5380
 0.4290	12.5220
 0.4300	12.4950
 0.4310	12.4750
 0.4320	12.4450
 0.4330	12.4150
 0.4340	12.3890
 0.4350	12.3360
 0.4360	12.3240
 0.4370	12.3500
 0.4380	12.3610
 0.4390	12.3660
 0.4400	12.3910
 0.4410	12.4350
 0.4420	12.4430
 0.4430	12.4350
 0.4440	12.4250
 0.4450	12.4250
 0.4460	12.4350
 0.4470	12.4440
 0.4480	12.4420
 0.4490	12.4240
 0.4500	12.4190
 0.4510	12.4150
 0.4520	12.4070
 0.4530	12.4340
 0.4540	12.4480
 0.4550	12.4470
 0.4560	12.4590
 0.4570	12.4590
 0.4580	12.4410
 0.4590	12.4150
 0.4600	12.4180
 0.4610	12.4300
 0.4620	12.4300
 0.4630	12.4060
 0.4640	12.4200
 0.4650	12.4250
 0.4660	12.4070
 0.4670	12.3930
 0.4680	12.3890
 0.4690	12.3870
 0.4700	12.3790
 0.4710	12.3910
 0.4720	12.4010
 0.4730	12.3990
 0.4740	12.3820
 0.4750	12.3710
 0.4760	12.3680
 0.4770	12.3730
 0.4780	12.3790
 0.4790	12.3750
 0.4800	12.3650
 0.4810	12.3560
 0.4820	12.3580
 0.4830	12.3520
 0.4840	12.3370
 0.4850	12.3280
 0.4860	12.3180
 0.4870	12.3150
 0.4880	12.3180
 0.4890	12.3110
 0.4900	12.3220
 0.4910	12.3410
 0.4920	12.3460
 0.4930	12.3670
 0.4940	12.3860
 0.4950	12.3970
 0.4960	12.4220
 0.4970	12.4480
 0.4980	12.4710
 0.4990	12.4920
 0.5000	12.5130
 0.5010	12.5350
 0.5020	12.5650
 0.5030	12.6140
 0.5040	12.6540
 0.5050	12.6960
 0.5060	12.7480
 0.5070	12.8050
 0.5080	12.8640
 0.5090	12.9320
 0.5100	13.0180
 0.5110	13.1060
 0.5120	13.2120
 0.5130	13.3360
 0.5140	13.4500
 0.5150	13.5930
 0.5160	13.7540
 0.5170	13.9180
 0.5180	14.0950
 0.5190	14.2910
 0.5200	14.5010
 0.5210	14.7110
 0.5220	14.9300
 0.5230	15.1570
 0.5240	15.3880
 0.5250	15.6030
 0.5260	15.8150
 0.5270	16.0220
 0.5280	16.2190
 0.5290	16.4040
 0.5300	16.5780
 0.5310	16.7330
 0.5320	16.8600
 0.5330	16.9830
 0.5340	17.0930
 0.5350	17.1800
 0.5360	17.2670
 0.5370	17.3400
 0.5380	17.3950
 0.5390	17.4330
 0.5400	17.4470
 0.5410	17.4450
 0.5420	17.4380
 0.5430	17.4320
 0.5440	17.4410
 0.5450	17.4660
 0.5460	17.5090
 0.5470	17.5970
 0.5480	17.6850
 0.5490	17.7410
 0.5500	17.7640
 0.5510	17.7730
 0.5520	17.7750
 0.5530	17.7700
 0.5540	17.7550
 0.5550	17.7280
 0.5560	17.6880
 0.5570	17.6340
 0.5580	17.5660
 0.5590	17.4830
 0.5600	17.3850
 0.5610	17.2780
 0.5620	17.1570
 0.5630	17.0220
 0.5640	16.8790
 0.5650	16.7280
 0.5660	16.5690
 0.5670	16.4010
 0.5680	16.2280
 0.5690	16.0550
 0.5700	15.8910
 0.5710	15.7410
 0.5720	15.5830
 0.5730	15.4300
 0.5740	15.2900
 0.5750	15.1610
 0.5760	15.0170
 0.5770	14.8820
 0.5780	14.7680
 0.5790	14.6500
 0.5800	14.5420
 0.5810	14.4410
 0.5820	14.3450
 0.5830	14.2740
 0.5840	14.2430
 0.5850	14.2380
 0.5860	14.2160
 0.5870	14.1730
 0.5880	14.1130
 0.5890	14.0480
 0.5900	13.9820
 0.5910	13.9250
 0.5920	13.8800
 0.5930	13.8480
 0.5940	13.8260
 0.5950	13.8090
 0.5960	13.7910
 0.5970	13.7650
 0.5980	13.7480
 0.5990	13.7320
 0.6000	13.7080
 0.6010	13.6930
 0.6020	13.6760
 0.6030	13.6530
 0.6040	13.6240
 0.6050	13.5930
 0.6060	13.5560
 0.6070	13.5090
 0.6080	13.4600
 0.6090	13.3920
 0.6100	13.2980
 0.6110	13.1830
 0.6120	13.1440
 0.6130	13.1490
 0.6140	13.1570
 0.6150	13.1380
 0.6160	13.1080
 0.6170	13.0790
 0.6180	13.0590
 0.6190	13.0350
 0.6200	13.0050
 0.6210	12.9750
 0.6220	12.9600
 0.6230	12.9480
 0.6240	12.9380
 0.6250	12.9300
 0.6260	12.9190
 0.6270	12.9120
 0.6280	12.9060
 0.6290	12.8950
 0.6300	12.8790
 0.6310	12.8690
 0.6320	12.8660
 0.6330	12.8630
 0.6340	12.8510
 0.6350	12.8290
 0.6360	12.7990
 0.6370	12.7700
 0.6380	12.7380
 0.6390	12.6990
 0.6400	12.6510
 0.6410	12.6080
 0.6420	12.5700
 0.6430	12.5320
 0.6440	12.4860
 0.6450	12.4510
 0.6460	12.4220
 0.6470	12.3940
 0.6480	12.3600
 0.6490	12.3330
 0.6500	12.3150
 0.6510	12.2980
 0.6520	12.2880
 0.6530	12.2820
 0.6540	12.2770
 0.6550	12.2700
 0.6560	12.2590
 0.6570	12.2480
 0.6580	12.2440
 0.6590	12.2310
 0.6600	12.2160
 0.6610	12.2040
 0.6620	12.1970
 0.6630	12.1870
 0.6640	12.1820
 0.6650	12.1850
 0.6660	12.1800
 0.6670	12.1810
 0.6680	12.1900
 0.6690	12.2010
 0.6700	12.2100
 0.6710	12.2260
 0.6720	12.2500
 0.6730	12.2710
 0.6740	12.2940
 0.6750	12.3220
 0.6760	12.3550
 0.6770	12.3820
 0.6780	12.4150
 0.6790	12.4570
 0.6800	12.5000
 0.6810	12.5430
 0.6820	12.5870
 0.6830	12.6330
 0.6840	12.6800
 0.6850	12.7370
 0.6860	12.7960
 0.6870	12.8570
 0.6880	12.9360
 0.6890	13.0300
 0.6900	13.1480
 0.6910	13.3040
 0.6920	13.5000
 0.6930	13.7500
 0.6940	14.0700
 0.6950	14.4750
 0.6960	14.9690
 0.6970	15.5540
 0.6980	16.2350
 0.6990	17.0190
 0.7000	17.8980
 0.7010	18.8600
 0.7020	19.8950
 0.7030	21.0140
 0.7040	22.1850
 0.7050	23.3850
 0.7060	24.6300
 0.7070	25.9090
 0.7080	27.2110
 0.7090	28.5330
 0.7100	29.8670
 0.7110	31.2010
 0.7120	32.5320
 0.7130	33.8740
 0.7140	35.2140
 0.7150	36.5440
 0.7160	37.8570
 0.7170	39.1350
 0.7180	40.4120
 0.7190	41.6670
 0.7200	42.8710
 0.7210	44.0610
 0.7220	45.2210
 0.7230	46.3450
 0.7240	47.4490
 0.7250	48.5000
 0.7260	49.4970
 0.7270	50.4500
 0.7280	51.3880
 0.7290	52.2570
 0.7300	53.0710
 0.7310	53.8630
 0.7320	54.6080
 0.7330	55.3040
 0.7340	55.9580
 0.7350	56.5820
 0.7360	57.1660
 0.7370	57.7140
 0.7380	58.2270
 0.7390	58.6800
 0.7400	59.1330
 0.7410	59.5720
 0.7420	59.9560
 0.7430	60.2940
 0.7440	60.6170
 0.7450	60.9230
 0.7460	61.1830
 0.7470	61.4310
 0.7480	61.6610
 0.7490	61.8640
 0.7500	62.0380
 0.7510	62.2060
 0.7520	62.3560
 0.7530	62.4780
 0.7540	62.6230
 0.7550	62.7340
 0.7560	62.8030
 0.7570	62.8630
 0.7580	62.9330
 0.7590	63.0110
 0.7600	63.0810
 0.7610	63.1160
 0.7620	63.1480
 0.7630	63.1850
 0.7640	63.2200
 0.7650	63.2430
 0.7660	63.2550
 0.7670	63.2630
 0.7680	63.2740
 0.7690	63.2950
 0.7700	63.3050
 0.7710	63.2940
 0.7720	63.2790
 0.7730	63.2840
 0.7740	63.2970
 0.7750	63.3040
 0.7760	63.2920
 0.7770	63.2780
 0.7780	63.2750
 0.7790	63.2900
 0.7800	63.2940
 0.7810	63.2810
 0.7820	63.2640
 0.7830	63.2780
 0.7840	63.2820
 0.7850	63.2760
 0.7860	63.2700
 0.7870	63.2780
 0.7880	63.2600
 0.7890	63.2450
 0.7900	63.2680
 0.7910	63.2600
 0.7920	63.2650
 0.7930	63.2810
 0.7940	63.2740
 0.7950	63.2700
 0.7960	63.2730
 0.7970	63.2750
 0.7980	63.2530
 0.7990	63.2570
 0.8000	63.2730
 0.8010	63.2820
 0.8020	63.2870
 0.8030	63.2930
 0.8040	63.2960
 0.8050	63.2910
 0.8060	63.3010
 0.8070	63.2910
 0.8080	63.2690
 0.8090	63.2740
 0.8100	63.2870
 0.8110	63.3100
 0.8120	63.3300
 0.8130	63.3080
 0.8140	63.3100
 0.8150	63.3130
 0.8160	63.2970
 0.8170	63.3040
 0.8180	63.3450
 0.8190	63.3810
 0.8200	63.3640
 0.8210	63.3440
 0.8220	63.3410
 0.8230	63.3540
 0.8240	63.3660
 0.8250	63.3820
 0.8260	63.3820
 0.8270	63.3710
 0.8280	63.4000
 0.8290	63.4140
 0.8300	63.4050
 0.8310	63.3870
 0.8320	63.4050
 0.8330	63.4200
 0.8340	63.4150
 0.8350	63.3960
 0.8360	63.4270
 0.8370	63.4320
 0.8380	63.4130
 0.8390	63.4370
 0.8400	63.4620
 0.8410	63.4660
 0.8420	63.4510
 0.8430	63.4540
 0.8440	63.4410
 0.8450	63.4450
 0.8460	63.4840
 0.8470	63.5200
 0.8480	63.5120
 0.8490	63.4810
 0.8500	63.4720
 0.8510	63.5090
 0.8520	63.5480
 0.8530	63.5530
 0.8540	63.5130
 0.8550	63.5280
 0.8560	63.5470
 0.8570	63.5490
 0.8580	63.5540
 0.8590	63.5530
 0.8600	63.5550
 0.8610	63.5600
 0.8620	63.5420
 0.8630	63.5350
 0.8640	63.5480
 0.8650	63.5730
 0.8660	63.5660
 0.8670	63.5730
 0.8680	63.5730
 0.8690	63.5400
 0.8700	63.5200
 0.8710	63.5250
 0.8720	63.5360
 0.8730	63.5280
 0.8740	63.5490
 0.8750	63.5670
 0.8760	63.5630
 0.8770	63.5410
 0.8780	63.5460
 0.8790	63.5410
 0.8800	63.5160
 0.8810	63.5100
 0.8820	63.5230
 0.8830	63.5240
 0.8840	63.5020
 0.8850	63.4850
 0.8860	63.4810
 0.8870	63.4840
 0.8880	63.4830
 0.8890	63.4930
 0.8900	63.4900
 0.8910	63.4780
 0.8920	63.4720
 0.8930	63.4620
 0.8940	63.4570
 0.8950	63.4440
 0.8960	63.4080
 0.8970	63.4180
 0.8980	63.4280
 0.8990	63.4160
 0.9000	63.3940
 0.9010	63.3810
 0.9020	63.3810
 0.9030	63.3940
 0.9040	63.4150
 0.9050	63.3890
 0.9060	63.3620
 0.9070	63.3630
 0.9080	63.3550
 0.9090	63.3530
 0.9100	63.3470
 0.9110	63.3270
 0.9120	63.2940
 0.9130	63.2870
 0.9140	63.3000
 0.9150	63.3110
 0.9160	63.2900
 0.9170	63.2730
 0.9180	63.2810
 0.9190	63.3070
 0.9200	63.2910
 0.9210	63.2600
 0.9220	63.2240
 0.9230	63.1840
 0.9240	63.1760
 0.9250	63.1880
 0.9260	63.1940
 0.9270	63.1680
 0.9280	63.1150
 0.9290	63.0880
 0.9300	63.0840
 0.9310	63.0460
 0.9320	63.0460
 0.9330	63.0390
 0.9340	63.0130
 0.9350	63.0040
 0.9360	62.9550
 0.9370	62.9020
 0.9380	62.8670
 0.9390	62.8240
 0.9400	62.8070
 0.9410	62.7870
 0.9420	62.7490
 0.9430	62.7210
 0.9440	62.6770
 0.9450	62.6340
 0.9460	62.6090
 0.9470	62.6010
 0.9480	62.5540
 0.9490	62.4760
 0.9500	62.3940
 0.9510	62.3370
 0.9520	62.2630
 0.9530	62.1890
 0.9540	62.1330
 0.9550	62.0710
 0.9560	62.0160
 0.9570	61.9600
 0.9580	61.8960
 0.9590	61.8300
 0.9600	61.7930
 0.9610	61.7690
 0.9620	61.7380
 0.9630	61.7230
 0.9640	61.6650
 0.9650	61.6170
 0.9660	61.6340
 0.9670	61.5940
 0.9680	61.5820
 0.9690	61.6120
 0.9700	61.6490
 0.9710	61.6050
 0.9720	61.5610
 0.9730	61.5310
 0.9740	61.5040
 0.9750	61.5460
 0.9760	61.5500
 0.9770	61.5360
 0.9780	61.5700
 0.9790	61.5870
 0.9800	61.6190
 0.9810	61.6300
 0.9820	61.5850
 0.9830	61.6370
 0.9840	61.6620
 0.9850	61.6590
 0.9860	61.6870
 0.9870	61.7130
 0.9880	61.7300
 0.9890	61.7510
 0.9900	61.7940
 0.9910	61.8180
 0.9920	61.8440
 0.9930	61.8710
 0.9940	61.8980
 0.9950	61.9240
 0.9960	61.9510
 0.9970	61.9780
 0.9980	62.0040
 0.9990	62.0310
 1.0000	62.0580
 1.0010	62.0840
 1.0020	62.1110
 1.0030	62.1380
 1.0040	62.1640
 1.0050	62.1910
 1.0060	62.2180
 1.0070	62.2440
 1.0080	62.2710
 1.0090	62.2980
 1.0100	62.2980
 1.0110	62.3200
 1.0120	62.3440
 1.0130	62.3770
 1.0140	62.3990
 1.0150	62.4150
 1.0160	62.4290
 1.0170	62.4460
 1.0180	62.4630
 1.0190	62.4940
 1.0200	62.5250
 1.0210	62.5510
 1.0220	62.5730
 1.0230	62.5950
 1.0240	62.6150
 1.0250	62.6370
 1.0260	62.6580
 1.0270	62.6800
 1.0280	62.7120
 1.0290	62.7250
 1.0300	62.7180
 1.0310	62.7300
 1.0320	62.7390
 1.0330	62.7510
 1.0340	62.7810
 1.0350	62.8220
 1.0360	62.8460
 1.0370	62.8550
 1.0380	62.8680
 1.0390	62.8740
 1.0400	62.8820
 1.0410	62.8880
 1.0420	62.9000
 1.0430	62.9170
 1.0440	62.9260
 1.0450	62.9400
 1.0460	62.9440
 1.0470	62.9320
 1.0480	62.9320
 1.0490	62.9340
 1.0500	62.9380
 1.0510	62.9470
 1.0520	62.9650
 1.0530	62.9780
 1.0540	62.9910
 1.0550	63.0040
 1.0560	63.0200
 1.0570	63.0250
 1.0580	63.0260
 1.0590	63.0250
 1.0600	63.0130
 1.0610	63.0070
 1.0620	63.0040
 1.0630	63.0010
 1.0640	62.9970
 1.0650	62.9970
 1.0660	63.0010
 1.0670	63.0030
 1.0680	63.0040
 1.0690	63.0100
 1.0700	63.0030
 1.0710	62.9880
 1.0720	62.9780
 1.0730	62.9620
 1.0740	62.9540
 1.0750	62.9520
 1.0760	62.9480
 1.0770	62.9450
 1.0780	62.9400
 1.0790	62.9360
 1.0800	62.9300
 1.0810	62.9190
 1.0820	62.9130
 1.0830	62.9080
 1.0840	62.9030
 1.0850	62.8990
 1.0860	62.8940
 1.0870	62.8930
 1.0880	62.8950
 1.0890	62.8870
 1.0900	62.8740
 1.0910	62.8680
 1.0920	62.8610
 1.0930	62.8490
 1.0940	62.8380
 1.0950	62.8270
 1.0960	62.8060
 1.0970	62.7910
 1.0980	62.7910
 1.0990	62.7780
 1.1000	62.7560
 1.1010	62.7400
 1.1020	62.7220
 1.1030	62.7030
 1.1040	62.6940
 1.1050	62.6870
 1.1060	62.6810
 1.1070	62.6810
 1.1080	62.6730
 1.1090	62.6620
 1.1100	62.6510
 1.1110	62.6350
 1.1120	62.6210
 1.1130	62.6080
 1.1140	62.5950
 1.1150	62.5860
 1.1160	62.5690
 1.1170	62.5520
 1.1180	62.5260
 1.1190	62.4900
 1.1200	62.4510
 1.1210	62.4100
 1.1220	62.3750
 1.1230	62.3390
 1.1240	62.2980
 1.1250	62.2530
 1.1260	62.2080
 1.1270	62.1520
 1.1280	62.0920
 1.1290	62.0200
 1.1300	61.9390
 1.1310	61.8530
 1.1320	61.7570
 1.1330	61.6570
 1.1340	61.5540
 1.1350	61.4420
 1.1360	61.3240
 1.1370	61.1970
 1.1380	61.0610
 1.1390	60.9250
 1.1400	60.7880
 1.1410	60.6470
 1.1420	60.5020
 1.1430	60.3560
 1.1440	60.2080
 1.1450	60.0520
 1.1460	59.9060
 1.1470	59.7610
 1.1480	59.6280
 1.1490	59.5000
 1.1500	59.3810
 1.1510	59.2690
 1.1520	59.1680
 1.1530	59.0760
 1.1540	58.9930
 1.1550	58.9220
 1.1560	58.8570
 1.1570	58.7940
 1.1580	58.7430
 1.1590	58.6980
 1.1600	58.6540
 1.1610	58.6240
 1.1620	58.5990
 1.1630	58.5740
 1.1640	58.5580
 1.1650	58.5430
 1.1660	58.5310
 1.1670	58.5230
 1.1680	58.5220
 1.1690	58.5200
 1.1700	58.5240
 1.1710	58.5210
 1.1720	58.5150
 1.1730	58.5120
 1.1740	58.5080
 1.1750	58.5040
 1.1760	58.5090
 1.1770	58.5140
 1.1780	58.5130
 1.1790	58.5130
 1.1800	58.5060
 1.1810	58.4920
 1.1820	58.4810
 1.1830	58.4710
 1.1840	58.4600
 1.1850	58.4500
 1.1860	58.4440
 1.1870	58.4430
 1.1880	58.4410
 1.1890	58.4420
 1.1900	58.4430
 1.1910	58.4440
 1.1920	58.4420
 1.1930	58.4380
 1.1940	58.4400
 1.1950	58.4440
 1.1960	58.4420
 1.1970	58.4470
 1.1980	58.4530
 1.1990	58.4560
 1.2000	58.4630
 1.2010	58.4780
 1.2020	58.4880
 1.2030	58.5050
 1.2040	58.5310
 1.2050	58.5500
 1.2060	58.5730
 1.2070	58.5890
 1.2080	58.5990
 1.2090	58.6200
 1.2100	58.6420
 1.2110	58.6650
 1.2120	58.6890
 1.2130	58.7170
 1.2140	58.7490
 1.2150	58.7770
 1.2160	58.8060
 1.2170	58.8380
 1.2180	58.8660
 1.2190	58.8850
 1.2200	58.9110
 1.2210	58.9380
 1.2220	58.9600
 1.2230	58.9830
 1.2240	59.0080
 1.2250	59.0320
 1.2260	59.0570
 1.2270	59.0850
 1.2280	59.1110
 1.2290	59.1330
 1.2300	59.1570
 1.2310	59.1780
 1.2320	59.1930
 1.2330	59.2110
 1.2340	59.2340
 1.2350	59.2620
 1.2360	59.2880
 1.2370	59.3180
 1.2380	59.3460
 1.2390	59.3680
 1.2400	59.3810
 1.2410	59.3990
 1.2420	59.4190
 1.2430	59.4380
 1.2440	59.4600
 1.2450	59.4750
 1.2460	59.4870
 1.2470	59.5000
 1.2480	59.5080
 1.2490	59.5210
 1.2500	59.5360
 1.2510	59.5470
 1.2520	59.5650
 1.2530	59.5760
 1.2540	59.5770
 1.2550	59.5820
 1.2560	59.5820
 1.2570	59.5800
 1.2580	59.5840
 1.2590	59.5880
 1.2600	59.5900
 1.2610	59.5910
 1.2620	59.5940
 1.2630	59.5960
 1.2640	59.5870
 1.2650	59.5900
 1.2660	59.5970
 1.2670	59.5910
 1.2680	59.5890
 1.2690	59.5800
 1.2700	59.5680
 1.2710	59.5610
 1.2720	59.5520
 1.2730	59.5420
 1.2740	59.5270
 1.2750	59.5070
 1.2760	59.4930
 1.2770	59.4790
 1.2780	59.4600
 1.2790	59.4370
 1.2800	59.4190
 1.2810	59.4000
 1.2820	59.3760
 1.2830	59.3590
 1.2840	59.3350
 1.2850	59.3030
 1.2860	59.2800
 1.2870	59.2480
 1.2880	59.2120
 1.2890	59.1730
 1.2900	59.1330
 1.2910	59.0770
 1.2920	59.0270
 1.2930	58.9790
 1.2940	58.9280
 1.2950	58.8850
 1.2960	58.8400
 1.2970	58.7900
 1.2980	58.7380
 1.2990	58.6800
 1.3000	58.6180
 1.3010	58.5520
 1.3020	58.4840
 1.3030	58.4140
 1.3040	58.3420
 1.3050	58.2710
 1.3060	58.1990
 1.3070	58.1240
 1.3080	58.0390
 1.3090	57.9530
 1.3100	57.8640
 1.3110	57.7680
 1.3120	57.6750
 1.3130	57.5830
 1.3140	57.4850
 1.3150	57.3840
 1.3160	57.2770
 1.3170	57.1660
 1.3180	57.0500
 1.3190	56.9280
 1.3200	56.8040
 1.3210	56.6780
 1.3220	56.5520
 1.3230	56.4260
 1.3240	56.2980
 1.3250	56.1750
 1.3260	56.0470
 1.3270	55.9060
 1.3280	55.7690
 1.3290	55.6280
 1.3300	55.4830
 1.3310	55.3450
 1.3320	55.2000
 1.3330	55.0510
 1.3340	54.8980
 1.3350	54.7430
 1.3360	54.5890
 1.3370	54.4330
 1.3380	54.2800
 1.3390	54.1250
 1.3400	53.9650
 1.3410	53.8110
 1.3420	53.6590
 1.3430	53.5080
 1.3440	53.3640
 1.3450	53.2200
 1.3460	53.0770
 1.3470	52.9370
 1.3480	52.7970
 1.3490	52.6580
 1.3500	52.5210
 1.3510	52.3840
 1.3520	52.2440
 1.3530	52.1040
 1.3540	51.9630
 1.3550	51.8210
 1.3560	51.6780
 1.3570	51.5410
 1.3580	51.4030
 1.3590	51.2550
 1.3600	51.1020
 1.3610	50.9400
 1.3620	50.7670
 1.3630	50.5940
 1.3640	50.4120
 1.3650	50.2160
 1.3660	50.0110
 1.3670	49.7900
 1.3680	49.5510
 1.3690	49.3010
 1.3700	49.0350
 1.3710	48.7560
 1.3720	48.4680
 1.3730	48.1550
 1.3740	47.8210
 1.3750	47.4690
 1.3760	47.0870
 1.3770	46.6780
 1.3780	46.2470
 1.3790	45.7920
 1.3800	45.3100
 1.3810	44.8020
 1.3820	44.2690
 1.3830	43.7110
 1.3840	43.1290
 1.3850	42.5180
 1.3860	41.8950
 1.3870	41.2450
 1.3880	40.5910
 1.3890	39.9220
 1.3900	39.2430
 1.3910	38.5660
 1.3920	37.8810
 1.3930	37.1930
 1.3940	36.5110
 1.3950	35.8270
 1.3960	35.1570
 1.3970	34.5070
 1.3980	33.8700
 1.3990	33.2570
 1.4000	32.6620
 1.4010	32.0830
 1.4020	31.5320
 1.4030	31.0070
 1.4040	30.5120
 1.4050	30.0460
 1.4060	29.6030
 1.4070	29.1920
 1.4080	28.8040
 1.4090	28.4390
 1.4100	28.1020
 1.4110	27.7830
 1.4120	27.4900
 1.4130	27.2240
 1.4140	26.9820
 1.4150	26.7670
 1.4160	26.5680
 1.4170	26.3840
 1.4180	26.2190
 1.4190	26.0690
 1.4200	25.9340
 1.4210	25.8150
 1.4220	25.7100
 1.4230	25.6190
 1.4240	25.5370
 1.4250	25.4660
 1.4260	25.4070
 1.4270	25.3520
 1.4280	25.3020
 1.4290	25.2620
 1.4300	25.2300
 1.4310	25.2030
 1.4320	25.1820
 1.4330	25.1680
 1.4340	25.1600
 1.4350	25.1560
 1.4360	25.1580
 1.4370	25.1670
 1.4380	25.1760
 1.4390	25.1880
 1.4400	25.2020
 1.4410	25.2190
 1.4420	25.2420
 1.4430	25.2640
 1.4440	25.2960
 1.4450	25.3270
 1.4460	25.3580
 1.4470	25.3950
 1.4480	25.4300
 1.4490	25.4660
 1.4500	25.5040
 1.4510	25.5380
 1.4520	25.5750
 1.4530	25.6140
 1.4540	25.6530
 1.4550	25.6970
 1.4560	25.7420
 1.4570	25.7910
 1.4580	25.8470
 1.4590	25.9090
 1.4600	25.9750
 1.4610	26.0470
 1.4620	26.1230
 1.4630	26.2040
 1.4640	26.2900
 1.4650	26.3820
 1.4660	26.4790
 1.4670	26.5830
 1.4680	26.6940
 1.4690	26.8120
