Name: Pinus ponderosa 2
Type: vegetation
Class: Tree
Genus: Pinus
Species: ponderosa
Sample No.: VH254
Owner: UCSB
Wavelength Range: TIR
Origin: 37.044; -119.3023; WGS84
Collection Date: 11/2/2013
Description: Samples were collected as part of the HyspIRI Airborne Campaign. 48 individual plants were sampled in three times in 2013 - spring  summer  and fall. The name of the sample includes a 1  2  or 3 which references a different individual of the species. Samples were taken to JPL and processed within 48 hours of collection. The same leaves were processed in the Nicolet and then measured using the ASD.
Measurement: Hemispherical reflectance
First Column: X
Second Column: Y
X Units: Wavelength (micrometers)
Y Units: Reflectance (percentage)
First X Value: 2.501
Last X Value: 15.387
Number of X Values: 1737
Additional Information: vegetation.tree.pinus.ponderosa.tir.vh254.ucsb.nicolet.ancillary.txt

 2.5010	 2.0590
 2.5030	 2.0590
 2.5040	 2.0680
 2.5050	 2.0540
 2.5060	 2.0640
 2.5070	 2.0660
 2.5090	 2.0610
 2.5100	 2.0650
 2.5110	 2.0620
 2.5120	 2.0580
 2.5140	 2.0580
 2.5150	 2.0470
 2.5160	 2.0640
 2.5170	 2.0580
 2.5180	 2.0580
 2.5200	 2.0680
 2.5210	 2.0590
 2.5220	 2.0540
 2.5230	 2.0520
 2.5250	 2.0520
 2.5260	 2.0560
 2.5270	 2.0580
 2.5280	 2.0520
 2.5290	 2.0450
 2.5310	 2.0630
 2.5320	 2.0530
 2.5330	 2.0510
 2.5340	 2.0570
 2.5360	 2.0530
 2.5370	 2.0420
 2.5380	 2.0450
 2.5390	 2.0500
 2.5410	 2.0530
 2.5420	 2.0440
 2.5430	 2.0660
 2.5440	 2.0650
 2.5460	 2.0580
 2.5470	 2.0490
 2.5480	 2.0370
 2.5490	 2.0430
 2.5510	 2.0600
 2.5520	 2.0540
 2.5530	 2.0530
 2.5540	 2.0440
 2.5560	 2.0530
 2.5570	 2.0690
 2.5580	 2.0850
 2.5590	 2.0710
 2.5610	 2.0670
 2.5620	 2.0690
 2.5630	 2.0740
 2.5640	 2.0660
 2.5660	 2.0630
 2.5670	 2.0700
 2.5680	 2.0880
 2.5700	 2.0790
 2.5710	 2.0710
 2.5720	 2.0780
 2.5730	 2.0820
 2.5750	 2.0590
 2.5760	 2.0680
 2.5770	 2.0710
 2.5790	 2.0630
 2.5800	 2.0610
 2.5810	 2.0510
 2.5820	 2.0470
 2.5840	 2.0670
 2.5850	 2.0590
 2.5860	 2.0510
 2.5880	 2.0350
 2.5890	 2.0430
 2.5900	 2.0500
 2.5910	 2.0500
 2.5930	 2.0580
 2.5940	 2.0910
 2.5950	 2.0860
 2.5970	 2.0610
 2.5980	 2.0580
 2.5990	 2.0670
 2.6000	 2.0710
 2.6020	 2.0720
 2.6030	 2.0620
 2.6040	 2.0590
 2.6060	 2.0490
 2.6070	 2.0600
 2.6080	 2.0730
 2.6100	 2.0780
 2.6110	 2.0760
 2.6120	 2.0810
 2.6140	 2.0680
 2.6150	 2.0700
 2.6160	 2.0590
 2.6180	 2.0410
 2.6190	 2.0460
 2.6200	 2.0540
 2.6220	 2.0360
 2.6230	 2.0420
 2.6240	 2.0600
 2.6260	 2.0700
 2.6270	 2.0490
 2.6280	 2.0380
 2.6300	 2.0560
 2.6310	 2.0520
 2.6320	 2.0460
 2.6340	 2.0620
 2.6350	 2.0530
 2.6360	 2.0510
 2.6380	 2.0500
 2.6390	 2.0440
 2.6400	 2.0340
 2.6420	 2.0450
 2.6430	 2.0330
 2.6440	 2.0290
 2.6460	 2.0320
 2.6470	 2.0220
 2.6480	 2.0140
 2.6500	 2.0240
 2.6510	 2.0410
 2.6520	 2.0400
 2.6540	 2.0290
 2.6550	 2.0300
 2.6560	 2.0260
 2.6580	 2.0300
 2.6590	 2.0290
 2.6610	 2.0200
 2.6620	 2.0180
 2.6630	 2.0240
 2.6650	 2.0200
 2.6660	 2.0120
 2.6670	 2.0110
 2.6690	 2.0190
 2.6700	 2.0200
 2.6720	 1.9920
 2.6730	 1.9940
 2.6740	 2.0170
 2.6760	 2.0050
 2.6770	 1.9940
 2.6780	 1.9990
 2.6800	 2.0100
 2.6810	 2.0060
 2.6830	 2.0160
 2.6840	 2.0120
 2.6850	 2.0130
 2.6870	 2.0050
 2.6880	 1.9980
 2.6900	 1.9770
 2.6910	 1.9740
 2.6920	 1.9760
 2.6940	 1.9900
 2.6950	 1.9830
 2.6970	 1.9860
 2.6980	 2.0010
 2.6990	 2.0070
 2.7010	 2.0000
 2.7020	 1.9940
 2.7040	 1.9960
 2.7050	 2.0090
 2.7060	 1.9990
 2.7080	 1.9900
 2.7090	 1.9770
 2.7110	 1.9860
 2.7120	 1.9790
 2.7130	 1.9730
 2.7150	 1.9720
 2.7160	 1.9860
 2.7180	 1.9750
 2.7190	 1.9810
 2.7210	 1.9840
 2.7220	 1.9760
 2.7230	 1.9790
 2.7250	 1.9700
 2.7260	 1.9660
 2.7280	 2.0000
 2.7290	 2.0000
 2.7310	 1.9920
 2.7320	 1.9980
 2.7330	 1.9910
 2.7350	 1.9810
 2.7360	 1.9940
 2.7380	 1.9990
 2.7390	 2.0010
 2.7410	 2.0040
 2.7420	 2.0080
 2.7440	 2.0000
 2.7450	 1.9990
 2.7470	 2.0050
 2.7480	 2.0220
 2.7490	 2.0080
 2.7510	 1.9920
 2.7520	 1.9880
 2.7540	 2.0060
 2.7550	 1.9820
 2.7570	 1.9730
 2.7580	 2.0210
 2.7600	 2.0400
 2.7610	 2.0470
 2.7630	 2.0360
 2.7640	 2.0040
 2.7660	 2.0140
 2.7670	 2.0470
 2.7680	 2.0570
 2.7700	 2.0420
 2.7710	 2.0410
 2.7730	 2.0240
 2.7740	 2.0230
 2.7760	 2.0480
 2.7770	 2.0530
 2.7790	 2.0230
 2.7800	 2.0210
 2.7820	 2.0270
 2.7830	 2.0480
 2.7850	 2.0500
 2.7860	 2.0390
 2.7880	 2.0390
 2.7890	 2.0440
 2.7910	 2.0420
 2.7920	 2.0530
 2.7940	 2.0420
 2.7950	 2.0400
 2.7970	 2.0310
 2.7980	 2.0390
 2.8000	 2.0500
 2.8010	 2.0450
 2.8030	 2.0360
 2.8040	 2.0400
 2.8060	 2.0360
 2.8070	 2.0480
 2.8090	 2.0510
 2.8110	 2.0570
 2.8120	 2.0530
 2.8140	 2.0610
 2.8150	 2.0670
 2.8170	 2.0610
 2.8180	 2.0470
 2.8200	 2.0420
 2.8210	 2.0470
 2.8230	 2.0540
 2.8240	 2.0550
 2.8260	 2.0710
 2.8270	 2.0720
 2.8290	 2.0660
 2.8300	 2.0610
 2.8320	 2.0660
 2.8340	 2.0720
 2.8350	 2.0690
 2.8370	 2.0710
 2.8380	 2.0830
 2.8400	 2.0620
 2.8410	 2.0500
 2.8430	 2.0530
 2.8440	 2.0640
 2.8460	 2.0710
 2.8480	 2.0760
 2.8490	 2.0600
 2.8510	 2.0580
 2.8520	 2.0660
 2.8540	 2.0920
 2.8550	 2.0910
 2.8570	 2.0810
 2.8590	 2.0670
 2.8600	 2.0850
 2.8620	 2.1070
 2.8630	 2.0970
 2.8650	 2.0770
 2.8660	 2.0660
 2.8680	 2.0680
 2.8700	 2.0750
 2.8710	 2.0770
 2.8730	 2.0930
 2.8740	 2.0980
 2.8760	 2.0860
 2.8780	 2.0790
 2.8790	 2.0980
 2.8810	 2.1060
 2.8820	 2.1040
 2.8840	 2.1010
 2.8860	 2.1070
 2.8870	 2.0830
 2.8890	 2.0700
 2.8900	 2.0720
 2.8920	 2.0820
 2.8940	 2.0950
 2.8950	 2.1040
 2.8970	 2.0980
 2.8980	 2.1070
 2.9000	 2.1180
 2.9020	 2.0950
 2.9030	 2.0670
 2.9050	 2.0780
 2.9070	 2.0720
 2.9080	 2.0710
 2.9100	 2.0820
 2.9120	 2.0990
 2.9130	 2.0830
 2.9150	 2.1020
 2.9160	 2.1190
 2.9180	 2.1090
 2.9200	 2.0920
 2.9210	 2.1060
 2.9230	 2.1100
 2.9250	 2.0900
 2.9260	 2.0840
 2.9280	 2.1000
 2.9300	 2.1030
 2.9310	 2.0990
 2.9330	 2.0770
 2.9350	 2.0760
 2.9360	 2.0870
 2.9380	 2.0920
 2.9400	 2.0890
 2.9410	 2.0910
 2.9430	 2.0910
 2.9450	 2.0860
 2.9460	 2.1000
 2.9480	 2.0930
 2.9500	 2.0650
 2.9510	 2.0620
 2.9530	 2.0810
 2.9550	 2.1190
 2.9560	 2.1730
 2.9580	 2.1730
 2.9600	 2.0990
 2.9610	 2.0700
 2.9630	 2.1150
 2.9650	 2.1150
 2.9660	 2.0730
 2.9680	 2.1070
 2.9700	 2.0870
 2.9720	 2.1200
 2.9730	 2.1400
 2.9750	 2.0760
 2.9770	 2.0210
 2.9780	 2.0510
 2.9800	 2.1290
 2.9820	 2.1870
 2.9840	 2.1680
 2.9850	 2.1160
 2.9870	 2.0940
 2.9890	 2.1500
 2.9900	 2.0820
 2.9920	 2.0020
 2.9940	 1.9950
 2.9960	 2.0800
 2.9970	 2.0950
 2.9990	 2.0820
 3.0010	 2.0490
 3.0030	 2.0730
 3.0040	 2.0770
 3.0060	 2.0560
 3.0080	 2.0640
 3.0100	 2.0800
 3.0110	 2.0840
 3.0130	 2.0860
 3.0150	 2.0720
 3.0170	 2.0840
 3.0180	 2.1020
 3.0200	 2.1060
 3.0220	 2.1120
 3.0240	 2.1240
 3.0250	 2.0840
 3.0270	 2.0510
 3.0290	 2.0570
 3.0310	 2.0960
 3.0320	 2.1130
 3.0340	 2.1300
 3.0360	 2.0870
 3.0380	 2.0830
 3.0400	 2.0630
 3.0410	 2.0350
 3.0430	 2.1070
 3.0450	 2.2390
 3.0470	 2.2650
 3.0480	 2.2380
 3.0500	 2.1620
 3.0520	 2.1120
 3.0540	 2.0310
 3.0560	 2.0270
 3.0570	 2.1120
 3.0590	 2.1840
 3.0610	 2.1200
 3.0630	 2.0560
 3.0650	 2.0770
 3.0660	 2.0790
 3.0680	 2.0600
 3.0700	 2.0340
 3.0720	 2.0270
 3.0740	 2.0400
 3.0760	 2.0710
 3.0770	 2.1000
 3.0790	 2.1200
 3.0810	 2.0970
 3.0830	 2.0780
 3.0850	 2.0770
 3.0870	 2.0690
 3.0880	 2.0810
 3.0900	 2.0920
 3.0920	 2.0850
 3.0940	 2.0730
 3.0960	 2.0810
 3.0980	 2.1020
 3.0990	 2.0940
 3.1010	 2.0660
 3.1030	 2.0700
 3.1050	 2.0870
 3.1070	 2.0770
 3.1090	 2.0580
 3.1110	 2.0470
 3.1120	 2.0570
 3.1140	 2.0560
 3.1160	 2.0410
 3.1180	 2.0530
 3.1200	 2.0530
 3.1220	 2.0480
 3.1240	 2.0550
 3.1260	 2.0610
 3.1270	 2.0610
 3.1290	 2.0570
 3.1310	 2.0580
 3.1330	 2.0370
 3.1350	 2.0210
 3.1370	 2.0330
 3.1390	 2.0650
 3.1410	 2.0810
 3.1430	 2.0690
 3.1450	 1.9920
 3.1460	 2.0360
 3.1480	 2.1150
 3.1500	 2.0790
 3.1520	 2.0270
 3.1540	 2.0700
 3.1560	 2.1190
 3.1580	 2.0970
 3.1600	 2.0490
 3.1620	 2.0190
 3.1640	 1.9920
 3.1660	 1.9880
 3.1680	 2.0520
 3.1700	 2.1420
 3.1710	 2.0680
 3.1730	 2.0030
 3.1750	 2.0100
 3.1770	 2.0960
 3.1790	 2.1340
 3.1810	 2.0660
 3.1830	 2.0060
 3.1850	 2.0530
 3.1870	 2.0860
 3.1890	 2.0550
 3.1910	 2.0510
 3.1930	 2.0450
 3.1950	 2.0480
 3.1970	 2.0250
 3.1990	 2.0280
 3.2010	 2.0330
 3.2030	 2.0430
 3.2050	 2.0430
 3.2070	 2.0430
 3.2090	 2.0300
 3.2110	 2.0270
 3.2130	 2.0250
 3.2150	 2.0240
 3.2170	 2.0280
 3.2190	 2.0360
 3.2210	 2.0400
 3.2230	 2.0420
 3.2250	 2.0390
 3.2270	 2.0490
 3.2290	 2.0350
 3.2310	 2.0380
 3.2330	 2.0370
 3.2350	 2.0190
 3.2370	 2.0130
 3.2390	 2.0340
 3.2410	 2.0300
 3.2430	 2.0390
 3.2450	 2.0070
 3.2470	 2.0050
 3.2490	 2.0320
 3.2510	 2.0230
 3.2530	 2.0160
 3.2550	 2.0240
 3.2570	 2.0330
 3.2590	 2.0430
 3.2610	 2.0440
 3.2630	 2.0470
 3.2650	 2.0380
 3.2670	 2.0290
 3.2690	 2.0190
 3.2720	 2.0180
 3.2740	 2.0370
 3.2760	 2.0410
 3.2780	 2.0310
 3.2800	 2.0320
 3.2820	 2.0280
 3.2840	 2.0300
 3.2860	 2.0350
 3.2880	 2.0430
 3.2900	 2.0360
 3.2920	 2.0160
 3.2940	 2.0100
 3.2960	 2.0150
 3.2990	 2.0140
 3.3010	 2.0250
 3.3030	 2.0180
 3.3050	 2.0030
 3.3070	 1.9950
 3.3090	 2.0170
 3.3110	 2.0230
 3.3130	 2.0180
 3.3150	 2.0000
 3.3180	 2.0080
 3.3200	 2.0190
 3.3220	 2.0140
 3.3240	 2.0020
 3.3260	 2.0080
 3.3280	 2.0010
 3.3300	 2.0060
 3.3330	 2.0020
 3.3350	 1.9960
 3.3370	 1.9980
 3.3390	 2.0020
 3.3410	 2.0020
 3.3430	 2.0150
 3.3450	 2.0200
 3.3480	 2.0230
 3.3500	 2.0170
 3.3520	 2.0180
 3.3540	 2.0010
 3.3560	 2.0040
 3.3580	 2.0220
 3.3610	 2.0230
 3.3630	 2.0080
 3.3650	 2.0030
 3.3670	 1.9990
 3.3690	 2.0050
 3.3720	 2.0060
 3.3740	 1.9980
 3.3760	 1.9900
 3.3780	 1.9910
 3.3800	 1.9900
 3.3830	 1.9990
 3.3850	 2.0020
 3.3870	 2.0010
 3.3890	 1.9990
 3.3910	 2.0010
 3.3940	 1.9860
 3.3960	 1.9840
 3.3980	 1.9980
 3.4000	 2.0170
 3.4020	 2.0050
 3.4050	 2.0060
 3.4070	 2.0040
 3.4090	 1.9990
 3.4110	 1.9990
 3.4140	 2.0100
 3.4160	 2.0160
 3.4180	 2.0370
 3.4200	 2.0620
 3.4230	 2.0850
 3.4250	 2.1020
 3.4270	 2.1220
 3.4290	 2.1380
 3.4320	 2.1530
 3.4340	 2.1380
 3.4360	 2.1270
 3.4390	 2.1290
 3.4410	 2.1190
 3.4430	 2.0940
 3.4450	 2.0740
 3.4480	 2.0650
 3.4500	 2.0640
 3.4520	 2.0630
 3.4550	 2.0870
 3.4570	 2.0990
 3.4590	 2.0890
 3.4620	 2.0670
 3.4640	 2.0630
 3.4660	 2.0700
 3.4680	 2.0730
 3.4710	 2.0650
 3.4730	 2.0640
 3.4750	 2.0560
 3.4780	 2.0490
 3.4800	 2.0460
 3.4820	 2.0420
 3.4850	 2.0350
 3.4870	 2.0510
 3.4890	 2.0490
 3.4920	 2.0390
 3.4940	 2.0350
 3.4970	 2.0340
 3.4990	 2.0310
 3.5010	 2.0330
 3.5040	 2.0490
 3.5060	 2.0740
 3.5080	 2.1080
 3.5110	 2.1520
 3.5130	 2.1590
 3.5160	 2.1500
 3.5180	 2.1320
 3.5200	 2.1200
 3.5230	 2.1040
 3.5250	 2.0920
 3.5270	 2.0860
 3.5300	 2.0850
 3.5320	 2.0690
 3.5350	 2.0620
 3.5370	 2.0620
 3.5400	 2.0730
 3.5420	 2.0690
 3.5440	 2.0610
 3.5470	 2.0520
 3.5490	 2.0450
 3.5520	 2.0390
 3.5540	 2.0470
 3.5570	 2.0450
 3.5590	 2.0430
 3.5610	 2.0510
 3.5640	 2.0610
 3.5660	 2.0570
 3.5690	 2.0550
 3.5710	 2.0530
 3.5740	 2.0550
 3.5760	 2.0570
 3.5790	 2.0610
 3.5810	 2.0560
 3.5840	 2.0480
 3.5860	 2.0370
 3.5890	 2.0370
 3.5910	 2.0340
 3.5930	 2.0350
 3.5960	 2.0490
 3.5980	 2.0530
 3.6010	 2.0390
 3.6030	 2.0450
 3.6060	 2.0470
 3.6080	 2.0460
 3.6110	 2.0360
 3.6140	 2.0430
 3.6160	 2.0400
 3.6190	 2.0360
 3.6210	 2.0330
 3.6240	 2.0410
 3.6260	 2.0390
 3.6290	 2.0360
 3.6310	 2.0300
 3.6340	 2.0390
 3.6360	 2.0420
 3.6390	 2.0370
 3.6410	 2.0410
 3.6440	 2.0430
 3.6470	 2.0330
 3.6490	 2.0350
 3.6520	 2.0370
 3.6540	 2.0390
 3.6570	 2.0410
 3.6590	 2.0380
 3.6620	 2.0320
 3.6650	 2.0340
 3.6670	 2.0340
 3.6700	 2.0420
 3.6720	 2.0390
 3.6750	 2.0330
 3.6780	 2.0320
 3.6800	 2.0340
 3.6830	 2.0350
 3.6850	 2.0430
 3.6880	 2.0380
 3.6910	 2.0370
 3.6930	 2.0360
 3.6960	 2.0370
 3.6990	 2.0320
 3.7010	 2.0300
 3.7040	 2.0310
 3.7060	 2.0360
 3.7090	 2.0340
 3.7120	 2.0330
 3.7140	 2.0270
 3.7170	 2.0290
 3.7200	 2.0210
 3.7220	 2.0250
 3.7250	 2.0270
 3.7280	 2.0370
 3.7300	 2.0410
 3.7330	 2.0360
 3.7360	 2.0330
 3.7390	 2.0320
 3.7410	 2.0330
 3.7440	 2.0380
 3.7470	 2.0360
 3.7490	 2.0380
 3.7520	 2.0340
 3.7550	 2.0310
 3.7580	 2.0380
 3.7600	 2.0350
 3.7630	 2.0150
 3.7660	 2.0260
 3.7680	 2.0470
 3.7710	 2.0410
 3.7740	 2.0300
 3.7770	 2.0350
 3.7790	 2.0330
 3.7820	 2.0370
 3.7850	 2.0400
 3.7880	 2.0340
 3.7900	 2.0280
 3.7930	 2.0350
 3.7960	 2.0320
 3.7990	 2.0380
 3.8020	 2.0380
 3.8040	 2.0430
 3.8070	 2.0390
 3.8100	 2.0390
 3.8130	 2.0380
 3.8160	 2.0370
 3.8180	 2.0410
 3.8210	 2.0430
 3.8240	 2.0390
 3.8270	 2.0390
 3.8300	 2.0330
 3.8330	 2.0340
 3.8350	 2.0320
 3.8380	 2.0460
 3.8410	 2.0500
 3.8440	 2.0460
 3.8470	 2.0420
 3.8500	 2.0390
 3.8520	 2.0380
 3.8550	 2.0400
 3.8580	 2.0390
 3.8610	 2.0380
 3.8640	 2.0370
 3.8670	 2.0350
 3.8700	 2.0340
 3.8730	 2.0360
 3.8750	 2.0330
 3.8780	 2.0390
 3.8810	 2.0380
 3.8840	 2.0300
 3.8870	 2.0280
 3.8900	 2.0350
 3.8930	 2.0420
 3.8960	 2.0490
 3.8990	 2.0440
 3.9020	 2.0370
 3.9050	 2.0340
 3.9080	 2.0390
 3.9110	 2.0380
 3.9140	 2.0400
 3.9160	 2.0320
 3.9190	 2.0300
 3.9220	 2.0380
 3.9250	 2.0440
 3.9280	 2.0430
 3.9310	 2.0370
 3.9340	 2.0350
 3.9370	 2.0410
 3.9400	 2.0340
 3.9430	 2.0260
 3.9460	 2.0270
 3.9490	 2.0400
 3.9520	 2.0400
 3.9550	 2.0360
 3.9580	 2.0380
 3.9610	 2.0490
 3.9640	 2.0530
 3.9670	 2.0500
 3.9700	 2.0400
 3.9730	 2.0390
 3.9770	 2.0460
 3.9800	 2.0580
 3.9830	 2.0530
 3.9860	 2.0450
 3.9890	 2.0370
 3.9920	 2.0400
 3.9950	 2.0480
 3.9980	 2.0510
 4.0010	 2.0510
 4.0040	 2.0530
 4.0070	 2.0450
 4.0100	 2.0440
 4.0130	 2.0410
 4.0170	 2.0390
 4.0200	 2.0320
 4.0230	 2.0370
 4.0260	 2.0440
 4.0290	 2.0440
 4.0320	 2.0370
 4.0350	 2.0320
 4.0380	 2.0340
 4.0420	 2.0410
 4.0450	 2.0390
 4.0480	 2.0320
 4.0510	 2.0350
 4.0540	 2.0470
 4.0570	 2.0460
 4.0610	 2.0370
 4.0640	 2.0310
 4.0670	 2.0330
 4.0700	 2.0360
 4.0730	 2.0440
 4.0770	 2.0490
 4.0800	 2.0480
 4.0830	 2.0400
 4.0860	 2.0390
 4.0890	 2.0380
 4.0930	 2.0350
 4.0960	 2.0340
 4.0990	 2.0440
 4.1020	 2.0450
 4.1060	 2.0400
 4.1090	 2.0240
 4.1120	 2.0250
 4.1150	 2.0350
 4.1190	 2.0320
 4.1220	 2.0350
 4.1250	 2.0420
 4.1280	 2.0470
 4.1320	 2.0490
 4.1350	 2.0460
 4.1380	 2.0440
 4.1420	 2.0510
 4.1450	 2.0550
 4.1480	 2.0440
 4.1520	 2.0440
 4.1550	 2.0520
 4.1580	 2.0540
 4.1620	 2.0470
 4.1650	 2.0420
 4.1680	 2.0340
 4.1720	 2.0340
 4.1750	 2.0400
 4.1780	 2.0480
 4.1820	 2.0460
 4.1850	 2.0470
 4.1890	 2.0490
 4.1920	 2.0550
 4.1950	 2.0600
 4.1990	 2.0720
 4.2020	 2.0950
 4.2060	 2.1230
 4.2090	 2.1240
 4.2120	 2.1220
 4.2160	 2.1320
 4.2190	 2.1360
 4.2230	 2.1470
 4.2260	 2.1680
 4.2300	 2.1920
 4.2330	 2.2140
 4.2360	 2.2050
 4.2400	 2.1950
 4.2430	 2.1650
 4.2470	 2.1510
 4.2500	 2.1200
 4.2540	 2.0990
 4.2570	 2.1160
 4.2610	 2.1560
 4.2640	 2.1630
 4.2680	 2.1540
 4.2710	 2.1460
 4.2750	 2.1430
 4.2780	 2.1150
 4.2820	 2.1110
 4.2850	 2.1350
 4.2890	 2.1360
 4.2930	 2.1270
 4.2960	 2.1170
 4.3000	 2.1160
 4.3030	 2.1210
 4.3070	 2.1070
 4.3100	 2.0810
 4.3140	 2.0740
 4.3180	 2.0890
 4.3210	 2.0870
 4.3250	 2.0860
 4.3280	 2.0800
 4.3320	 2.0770
 4.3360	 2.0710
 4.3390	 2.0750
 4.3430	 2.0790
 4.3470	 2.0760
 4.3500	 2.0690
 4.3540	 2.0700
 4.3570	 2.0670
 4.3610	 2.0560
 4.3650	 2.0540
 4.3680	 2.0580
 4.3720	 2.0540
 4.3760	 2.0480
 4.3800	 2.0480
 4.3830	 2.0510
 4.3870	 2.0470
 4.3910	 2.0500
 4.3940	 2.0570
 4.3980	 2.0590
 4.4020	 2.0590
 4.4060	 2.0570
 4.4090	 2.0570
 4.4130	 2.0620
 4.4170	 2.0600
 4.4210	 2.0580
 4.4240	 2.0610
 4.4280	 2.0700
 4.4320	 2.0650
 4.4360	 2.0580
 4.4400	 2.0550
 4.4430	 2.0540
 4.4470	 2.0520
 4.4510	 2.0530
 4.4550	 2.0580
 4.4590	 2.0610
 4.4620	 2.0620
 4.4660	 2.0620
 4.4700	 2.0620
 4.4740	 2.0670
 4.4780	 2.0600
 4.4820	 2.0600
 4.4860	 2.0610
 4.4900	 2.0580
 4.4930	 2.0540
 4.4970	 2.0530
 4.5010	 2.0560
 4.5050	 2.0550
 4.5090	 2.0550
 4.5130	 2.0580
 4.5170	 2.0530
 4.5210	 2.0490
 4.5250	 2.0510
 4.5290	 2.0590
 4.5330	 2.0630
 4.5370	 2.0580
 4.5410	 2.0550
 4.5450	 2.0560
 4.5490	 2.0510
 4.5530	 2.0570
 4.5570	 2.0610
 4.5610	 2.0500
 4.5650	 2.0490
 4.5690	 2.0480
 4.5730	 2.0480
 4.5770	 2.0530
 4.5810	 2.0510
 4.5850	 2.0510
 4.5890	 2.0550
 4.5930	 2.0490
 4.5970	 2.0440
 4.6010	 2.0470
 4.6050	 2.0460
 4.6090	 2.0370
 4.6130	 2.0430
 4.6170	 2.0610
 4.6220	 2.0600
 4.6260	 2.0580
 4.6300	 2.0520
 4.6340	 2.0560
 4.6380	 2.0600
 4.6420	 2.0560
 4.6460	 2.0480
 4.6510	 2.0460
 4.6550	 2.0500
 4.6590	 2.0550
 4.6630	 2.0550
 4.6670	 2.0560
 4.6720	 2.0620
 4.6760	 2.0630
 4.6800	 2.0570
 4.6840	 2.0570
 4.6880	 2.0530
 4.6930	 2.0500
 4.6970	 2.0530
 4.7010	 2.0590
 4.7050	 2.0620
 4.7100	 2.0610
 4.7140	 2.0620
 4.7180	 2.0670
 4.7230	 2.0680
 4.7270	 2.0540
 4.7310	 2.0470
 4.7360	 2.0520
 4.7400	 2.0550
 4.7440	 2.0560
 4.7490	 2.0550
 4.7530	 2.0570
 4.7570	 2.0610
 4.7620	 2.0630
 4.7660	 2.0580
 4.7700	 2.0520
 4.7750	 2.0480
 4.7790	 2.0450
 4.7840	 2.0410
 4.7880	 2.0420
 4.7920	 2.0540
 4.7970	 2.0610
 4.8010	 2.0580
 4.8060	 2.0600
 4.8100	 2.0480
 4.8150	 2.0430
 4.8190	 2.0540
 4.8240	 2.0630
 4.8280	 2.0570
 4.8330	 2.0530
 4.8370	 2.0590
 4.8420	 2.0660
 4.8460	 2.0650
 4.8510	 2.0570
 4.8550	 2.0510
 4.8600	 2.0620
 4.8640	 2.0660
 4.8690	 2.0590
 4.8730	 2.0560
 4.8780	 2.0580
 4.8830	 2.0690
 4.8870	 2.0690
 4.8920	 2.0580
 4.8960	 2.0540
 4.9010	 2.0650
 4.9060	 2.0700
 4.9100	 2.0660
 4.9150	 2.0670
 4.9200	 2.0670
 4.9240	 2.0600
 4.9290	 2.0590
 4.9340	 2.0640
 4.9380	 2.0690
 4.9430	 2.0640
 4.9480	 2.0640
 4.9530	 2.0720
 4.9570	 2.0780
 4.9620	 2.0700
 4.9670	 2.0700
 4.9720	 2.0710
 4.9760	 2.0710
 4.9810	 2.0680
 4.9860	 2.0670
 4.9910	 2.0680
 4.9960	 2.0670
 5.0000	 2.0710
 5.0050	 2.0740
 5.0100	 2.0760
 5.0150	 2.0750
 5.0200	 2.0750
 5.0250	 2.0710
 5.0290	 2.0630
 5.0340	 2.0640
 5.0390	 2.0730
 5.0440	 2.0730
 5.0490	 2.0690
 5.0540	 2.0650
 5.0590	 2.0650
 5.0640	 2.0690
 5.0690	 2.0720
 5.0740	 2.0750
 5.0790	 2.0700
 5.0840	 2.0700
 5.0890	 2.0670
 5.0940	 2.0650
 5.0990	 2.0680
 5.1040	 2.0710
 5.1090	 2.0650
 5.1140	 2.0640
 5.1190	 2.0660
 5.1240	 2.0660
 5.1290	 2.0670
 5.1340	 2.0720
 5.1390	 2.0660
 5.1440	 2.0650
 5.1490	 2.0670
 5.1540	 2.0680
 5.1600	 2.0640
 5.1650	 2.0620
 5.1700	 2.0610
 5.1750	 2.0630
 5.1800	 2.0670
 5.1850	 2.0750
 5.1910	 2.0760
 5.1960	 2.0710
 5.2010	 2.0630
 5.2060	 2.0660
 5.2110	 2.0730
 5.2170	 2.0750
 5.2220	 2.0780
 5.2270	 2.0730
 5.2320	 2.0700
 5.2380	 2.0660
 5.2430	 2.0640
 5.2480	 2.0750
 5.2540	 2.0770
 5.2590	 2.0770
 5.2640	 2.0730
 5.2700	 2.0730
 5.2750	 2.0750
 5.2800	 2.0760
 5.2860	 2.0770
 5.2910	 2.0760
 5.2970	 2.0730
 5.3020	 2.0690
 5.3070	 2.0660
 5.3130	 2.0690
 5.3180	 2.0700
 5.3240	 2.0770
 5.3290	 2.0770
 5.3350	 2.0730
 5.3400	 2.0730
 5.3460	 2.0740
 5.3510	 2.0740
 5.3570	 2.0790
 5.3620	 2.0720
 5.3680	 2.0650
 5.3730	 2.0600
 5.3790	 2.0610
 5.3850	 2.0600
 5.3900	 2.0590
 5.3960	 2.0650
 5.4010	 2.0740
 5.4070	 2.0690
 5.4130	 2.0650
 5.4180	 2.0650
 5.4240	 2.0600
 5.4300	 2.0600
 5.4350	 2.0660
 5.4410	 2.0570
