Name: Quercus suber
Type: vegetation
Class: Tree
Genus: Quercus
Species: suber
Sample No.: JPL248
Owner: JPL
Wavelength Range: VSWIR
Origin: 34.12798; -118.11368; WGS84
Collection Date: 10/6/2016
Description: Samples were collected at the Huntington Garden in San Marino California as part of a JPL Subcontract studying HyTES imagery. Samples were taken to JPL and processed within 48 hours of collection. The same leaves were processed in the Nicolet and then measured using the ASD.
Measurement: Bidirectional reflectance
First Column: X
Second Column: Y
X Units: Wavelength (micrometer)
Y Units: Reflectance (percentage)
First X Value: 0.35
Last X Value: 2.5
Number of X Values: 2151
Additional Information: vegetation.tree.quercus.suber.vswir.jpl248.jpl.asd.ancillary.txt

 0.3500	 7.6170
 0.3510	 7.4260
 0.3520	 7.2650
 0.3530	 7.2080
 0.3540	 7.2470
 0.3550	 7.2100
 0.3560	 7.1920
 0.3570	 7.2070
 0.3580	 7.2200
 0.3590	 7.2490
 0.3600	 7.2390
 0.3610	 7.1810
 0.3620	 7.1330
 0.3630	 7.1210
 0.3640	 7.1310
 0.3650	 7.1380
 0.3660	 7.1470
 0.3670	 7.0910
 0.3680	 7.0360
 0.3690	 7.1120
 0.3700	 7.1080
 0.3710	 7.0730
 0.3720	 7.0590
 0.3730	 7.0570
 0.3740	 7.0390
 0.3750	 7.0000
 0.3760	 6.9550
 0.3770	 6.9900
 0.3780	 6.9930
 0.3790	 6.9800
 0.3800	 7.0630
 0.3810	 7.0820
 0.3820	 7.0450
 0.3830	 6.9970
 0.3840	 7.0100
 0.3850	 6.9580
 0.3860	 6.9170
 0.3870	 6.9970
 0.3880	 7.0360
 0.3890	 7.0280
 0.3900	 6.9930
 0.3910	 6.9640
 0.3920	 6.9430
 0.3930	 6.9450
 0.3940	 6.9720
 0.3950	 7.0090
 0.3960	 7.0160
 0.3970	 6.9980
 0.3980	 6.9870
 0.3990	 7.0160
 0.4000	 7.0360
 0.4010	 7.0320
 0.4020	 7.0360
 0.4030	 7.0490
 0.4040	 7.0610
 0.4050	 7.0700
 0.4060	 7.0870
 0.4070	 7.1040
 0.4080	 7.1160
 0.4090	 7.1210
 0.4100	 7.1330
 0.4110	 7.1490
 0.4120	 7.1680
 0.4130	 7.1860
 0.4140	 7.2040
 0.4150	 7.2230
 0.4160	 7.2430
 0.4170	 7.2640
 0.4180	 7.2820
 0.4190	 7.2990
 0.4200	 7.3180
 0.4210	 7.3230
 0.4220	 7.3290
 0.4230	 7.3440
 0.4240	 7.3500
 0.4250	 7.3630
 0.4260	 7.3760
 0.4270	 7.3750
 0.4280	 7.3890
 0.4290	 7.3990
 0.4300	 7.3970
 0.4310	 7.3970
 0.4320	 7.3870
 0.4330	 7.3810
 0.4340	 7.3910
 0.4350	 7.3890
 0.4360	 7.3890
 0.4370	 7.3950
 0.4380	 7.4030
 0.4390	 7.4210
 0.4400	 7.4410
 0.4410	 7.4560
 0.4420	 7.4710
 0.4430	 7.4750
 0.4440	 7.4740
 0.4450	 7.4810
 0.4460	 7.4940
 0.4470	 7.5070
 0.4480	 7.5140
 0.4490	 7.5150
 0.4500	 7.5220
 0.4510	 7.5330
 0.4520	 7.5410
 0.4530	 7.5480
 0.4540	 7.5500
 0.4550	 7.5540
 0.4560	 7.5700
 0.4570	 7.5770
 0.4580	 7.5780
 0.4590	 7.5750
 0.4600	 7.5780
 0.4610	 7.5790
 0.4620	 7.5790
 0.4630	 7.5810
 0.4640	 7.5870
 0.4650	 7.5870
 0.4660	 7.5820
 0.4670	 7.5840
 0.4680	 7.5850
 0.4690	 7.5850
 0.4700	 7.5830
 0.4710	 7.5840
 0.4720	 7.5910
 0.4730	 7.5960
 0.4740	 7.5900
 0.4750	 7.5920
 0.4760	 7.6000
 0.4770	 7.6060
 0.4780	 7.6030
 0.4790	 7.6000
 0.4800	 7.6000
 0.4810	 7.5980
 0.4820	 7.5970
 0.4830	 7.6020
 0.4840	 7.6070
 0.4850	 7.5990
 0.4860	 7.5980
 0.4870	 7.6010
 0.4880	 7.6040
 0.4890	 7.6100
 0.4900	 7.6170
 0.4910	 7.6260
 0.4920	 7.6390
 0.4930	 7.6520
 0.4940	 7.6660
 0.4950	 7.6820
 0.4960	 7.7040
 0.4970	 7.7190
 0.4980	 7.7340
 0.4990	 7.7550
 0.5000	 7.7790
 0.5010	 7.8090
 0.5020	 7.8440
 0.5030	 7.8790
 0.5040	 7.9120
 0.5050	 7.9500
 0.5060	 7.9960
 0.5070	 8.0450
 0.5080	 8.1010
 0.5090	 8.1640
 0.5100	 8.2320
 0.5110	 8.3100
 0.5120	 8.3950
 0.5130	 8.4880
 0.5140	 8.5900
 0.5150	 8.7010
 0.5160	 8.8220
 0.5170	 8.9520
 0.5180	 9.0910
 0.5190	 9.2370
 0.5200	 9.3910
 0.5210	 9.5540
 0.5220	 9.7190
 0.5230	 9.8860
 0.5240	10.0540
 0.5250	10.2170
 0.5260	10.3780
 0.5270	10.5340
 0.5280	10.6810
 0.5290	10.8200
 0.5300	10.9490
 0.5310	11.0660
 0.5320	11.1740
 0.5330	11.2740
 0.5340	11.3640
 0.5350	11.4410
 0.5360	11.5070
 0.5370	11.5640
 0.5380	11.6110
 0.5390	11.6500
 0.5400	11.6790
 0.5410	11.6990
 0.5420	11.7160
 0.5430	11.7390
 0.5440	11.7650
 0.5450	11.7960
 0.5460	11.8340
 0.5470	11.8710
 0.5480	11.9070
 0.5490	11.9400
 0.5500	11.9670
 0.5510	11.9850
 0.5520	11.9920
 0.5530	11.9890
 0.5540	11.9760
 0.5550	11.9480
 0.5560	11.9070
 0.5570	11.8530
 0.5580	11.7860
 0.5590	11.7090
 0.5600	11.6240
 0.5610	11.5310
 0.5620	11.4320
 0.5630	11.3280
 0.5640	11.2220
 0.5650	11.1170
 0.5660	11.0130
 0.5670	10.9080
 0.5680	10.7960
 0.5690	10.6810
 0.5700	10.5680
 0.5710	10.4580
 0.5720	10.3540
 0.5730	10.2530
 0.5740	10.1560
 0.5750	10.0630
 0.5760	 9.9730
 0.5770	 9.8890
 0.5780	 9.8130
 0.5790	 9.7440
 0.5800	 9.6810
 0.5810	 9.6210
 0.5820	 9.5650
 0.5830	 9.5140
 0.5840	 9.4680
 0.5850	 9.4260
 0.5860	 9.3870
 0.5870	 9.3530
 0.5880	 9.3220
 0.5890	 9.2910
 0.5900	 9.2590
 0.5910	 9.2260
 0.5920	 9.1970
 0.5930	 9.1750
 0.5940	 9.1610
 0.5950	 9.1510
 0.5960	 9.1410
 0.5970	 9.1290
 0.5980	 9.1140
 0.5990	 9.0980
 0.6000	 9.0810
 0.6010	 9.0660
 0.6020	 9.0480
 0.6030	 9.0230
 0.6040	 8.9950
 0.6050	 8.9610
 0.6060	 8.9250
 0.6070	 8.8890
 0.6080	 8.8460
 0.6090	 8.7960
 0.6100	 8.7360
 0.6110	 8.6660
 0.6120	 8.6260
 0.6130	 8.5980
 0.6140	 8.5700
 0.6150	 8.5370
 0.6160	 8.5050
 0.6170	 8.4740
 0.6180	 8.4440
 0.6190	 8.4150
 0.6200	 8.3890
 0.6210	 8.3670
 0.6220	 8.3490
 0.6230	 8.3340
 0.6240	 8.3200
 0.6250	 8.3070
 0.6260	 8.3010
 0.6270	 8.2940
 0.6280	 8.2880
 0.6290	 8.2840
 0.6300	 8.2770
 0.6310	 8.2690
 0.6320	 8.2650
 0.6330	 8.2650
 0.6340	 8.2570
 0.6350	 8.2430
 0.6360	 8.2260
 0.6370	 8.2040
 0.6380	 8.1790
 0.6390	 8.1510
 0.6400	 8.1220
 0.6410	 8.0930
 0.6420	 8.0620
 0.6430	 8.0300
 0.6440	 8.0000
 0.6450	 7.9710
 0.6460	 7.9450
 0.6470	 7.9220
 0.6480	 7.8980
 0.6490	 7.8790
 0.6500	 7.8650
 0.6510	 7.8530
 0.6520	 7.8400
 0.6530	 7.8310
 0.6540	 7.8270
 0.6550	 7.8190
 0.6560	 7.8090
 0.6570	 7.7970
 0.6580	 7.7840
 0.6590	 7.7730
 0.6600	 7.7600
 0.6610	 7.7450
 0.6620	 7.7330
 0.6630	 7.7220
 0.6640	 7.7160
 0.6650	 7.7150
 0.6660	 7.7140
 0.6670	 7.7160
 0.6680	 7.7220
 0.6690	 7.7310
 0.6700	 7.7450
 0.6710	 7.7620
 0.6720	 7.7830
 0.6730	 7.8050
 0.6740	 7.8320
 0.6750	 7.8610
 0.6760	 7.8940
 0.6770	 7.9290
 0.6780	 7.9690
 0.6790	 8.0130
 0.6800	 8.0560
 0.6810	 8.1030
 0.6820	 8.1540
 0.6830	 8.2050
 0.6840	 8.2570
 0.6850	 8.3080
 0.6860	 8.3610
 0.6870	 8.4180
 0.6880	 8.4810
 0.6890	 8.5550
 0.6900	 8.6480
 0.6910	 8.7690
 0.6920	 8.9250
 0.6930	 9.1230
 0.6940	 9.3670
 0.6950	 9.6670
 0.6960	10.0240
 0.6970	10.4390
 0.6980	10.9130
 0.6990	11.4390
 0.7000	12.0160
 0.7010	12.6380
 0.7020	13.2970
 0.7030	13.9880
 0.7040	14.7060
 0.7050	15.4430
 0.7060	16.1970
 0.7070	16.9670
 0.7080	17.7530
 0.7090	18.5540
 0.7100	19.3700
 0.7110	20.2020
 0.7120	21.0480
 0.7130	21.9060
 0.7140	22.7760
 0.7150	23.6590
 0.7160	24.5540
 0.7170	25.4590
 0.7180	26.3700
 0.7190	27.2830
 0.7200	28.1950
 0.7210	29.1080
 0.7220	30.0150
 0.7230	30.9140
 0.7240	31.8050
 0.7250	32.6820
 0.7260	33.5410
 0.7270	34.3800
 0.7280	35.1970
 0.7290	35.9910
 0.7300	36.7610
 0.7310	37.5010
 0.7320	38.2120
 0.7330	38.8940
 0.7340	39.5450
 0.7350	40.1650
 0.7360	40.7540
 0.7370	41.3110
 0.7380	41.8360
 0.7390	42.3330
 0.7400	42.7960
 0.7410	43.2290
 0.7420	43.6340
 0.7430	44.0080
 0.7440	44.3530
 0.7450	44.6700
 0.7460	44.9630
 0.7470	45.2280
 0.7480	45.4670
 0.7490	45.6830
 0.7500	45.8850
 0.7510	46.0690
 0.7520	46.2330
 0.7530	46.3810
 0.7540	46.5140
 0.7550	46.6330
 0.7560	46.7390
 0.7570	46.8370
 0.7580	46.9250
 0.7590	47.0040
 0.7600	47.0740
 0.7610	47.1370
 0.7620	47.1950
 0.7630	47.2460
 0.7640	47.2900
 0.7650	47.3300
 0.7660	47.3630
 0.7670	47.3910
 0.7680	47.4160
 0.7690	47.4360
 0.7700	47.4540
 0.7710	47.4730
 0.7720	47.4920
 0.7730	47.5090
 0.7740	47.5260
 0.7750	47.5400
 0.7760	47.5500
 0.7770	47.5610
 0.7780	47.5720
 0.7790	47.5830
 0.7800	47.5940
 0.7810	47.6060
 0.7820	47.6190
 0.7830	47.6300
 0.7840	47.6410
 0.7850	47.6500
 0.7860	47.6580
 0.7870	47.6660
 0.7880	47.6730
 0.7890	47.6780
 0.7900	47.6850
 0.7910	47.6910
 0.7920	47.6960
 0.7930	47.7000
 0.7940	47.7030
 0.7950	47.7080
 0.7960	47.7140
 0.7970	47.7170
 0.7980	47.7140
 0.7990	47.7130
 0.8000	47.7130
 0.8010	47.7130
 0.8020	47.7150
 0.8030	47.7140
 0.8040	47.7110
 0.8050	47.7110
 0.8060	47.7050
 0.8070	47.7010
 0.8080	47.7000
 0.8090	47.6980
 0.8100	47.6910
 0.8110	47.6840
 0.8120	47.6780
 0.8130	47.6710
 0.8140	47.6650
 0.8150	47.6600
 0.8160	47.6540
 0.8170	47.6460
 0.8180	47.6390
 0.8190	47.6340
 0.8200	47.6270
 0.8210	47.6190
 0.8220	47.6110
 0.8230	47.6030
 0.8240	47.5940
 0.8250	47.5850
 0.8260	47.5780
 0.8270	47.5720
 0.8280	47.5640
 0.8290	47.5550
 0.8300	47.5480
 0.8310	47.5410
 0.8320	47.5310
 0.8330	47.5260
 0.8340	47.5230
 0.8350	47.5180
 0.8360	47.5150
 0.8370	47.5120
 0.8380	47.5080
 0.8390	47.5040
 0.8400	47.5000
 0.8410	47.4970
 0.8420	47.4980
 0.8430	47.4990
 0.8440	47.4990
 0.8450	47.4990
 0.8460	47.4980
 0.8470	47.5010
 0.8480	47.5030
 0.8490	47.5050
 0.8500	47.5060
 0.8510	47.5070
 0.8520	47.5080
 0.8530	47.5120
 0.8540	47.5190
 0.8550	47.5200
 0.8560	47.5210
 0.8570	47.5230
 0.8580	47.5270
 0.8590	47.5330
 0.8600	47.5420
 0.8610	47.5520
 0.8620	47.5560
 0.8630	47.5650
 0.8640	47.5750
 0.8650	47.5820
 0.8660	47.5870
 0.8670	47.5940
 0.8680	47.6030
 0.8690	47.6130
 0.8700	47.6230
 0.8710	47.6320
 0.8720	47.6400
 0.8730	47.6470
 0.8740	47.6590
 0.8750	47.6700
 0.8760	47.6800
 0.8770	47.6890
 0.8780	47.6950
 0.8790	47.7010
 0.8800	47.7100
 0.8810	47.7220
 0.8820	47.7350
 0.8830	47.7450
 0.8840	47.7530
 0.8850	47.7590
 0.8860	47.7680
 0.8870	47.7790
 0.8880	47.7910
 0.8890	47.7980
 0.8900	47.8070
 0.8910	47.8160
 0.8920	47.8250
 0.8930	47.8300
 0.8940	47.8400
 0.8950	47.8510
 0.8960	47.8580
 0.8970	47.8680
 0.8980	47.8770
 0.8990	47.8850
 0.9000	47.8950
 0.9010	47.9010
 0.9020	47.9070
 0.9030	47.9150
 0.9040	47.9260
 0.9050	47.9340
 0.9060	47.9400
 0.9070	47.9440
 0.9080	47.9490
 0.9090	47.9560
 0.9100	47.9630
 0.9110	47.9660
 0.9120	47.9720
 0.9130	47.9780
 0.9140	47.9820
 0.9150	47.9840
 0.9160	47.9850
 0.9170	47.9850
 0.9180	47.9880
 0.9190	47.9950
 0.9200	47.9970
 0.9210	47.9950
 0.9220	47.9920
 0.9230	47.9920
 0.9240	47.9890
 0.9250	47.9820
 0.9260	47.9760
 0.9270	47.9740
 0.9280	47.9640
 0.9290	47.9500
 0.9300	47.9390
 0.9310	47.9350
 0.9320	47.9290
 0.9330	47.9170
 0.9340	47.9020
 0.9350	47.8850
 0.9360	47.8680
 0.9370	47.8540
 0.9380	47.8400
 0.9390	47.8220
 0.9400	47.8000
 0.9410	47.7820
 0.9420	47.7670
 0.9430	47.7390
 0.9440	47.7150
 0.9450	47.6890
 0.9460	47.6570
 0.9470	47.6310
 0.9480	47.6050
 0.9490	47.5730
 0.9500	47.5310
 0.9510	47.4890
 0.9520	47.4420
 0.9530	47.3940
 0.9540	47.3510
 0.9550	47.3060
 0.9560	47.2630
 0.9570	47.2200
 0.9580	47.1780
 0.9590	47.1430
 0.9600	47.1050
 0.9610	47.0670
 0.9620	47.0370
 0.9630	47.0070
 0.9640	46.9910
 0.9650	46.9710
 0.9660	46.9330
 0.9670	46.9200
 0.9680	46.9020
 0.9690	46.8860
 0.9700	46.8820
 0.9710	46.8550
 0.9720	46.8390
 0.9730	46.8360
 0.9740	46.8290
 0.9750	46.8190
 0.9760	46.8180
 0.9770	46.8190
 0.9780	46.8090
 0.9790	46.7990
 0.9800	46.7880
 0.9810	46.7800
 0.9820	46.7840
 0.9830	46.7900
 0.9840	46.7940
 0.9850	46.7900
 0.9860	46.7740
 0.9870	46.7860
 0.9880	46.8010
 0.9890	46.8140
 0.9900	46.8260
 0.9910	46.8270
 0.9920	46.8240
 0.9930	46.8320
 0.9940	46.8610
 0.9950	46.8830
 0.9960	46.8970
 0.9970	46.9040
 0.9980	46.9080
 0.9990	46.9100
 1.0000	46.9320
 1.0010	47.0990
 1.0020	47.1100
 1.0030	47.1190
 1.0040	47.1350
 1.0050	47.1500
 1.0060	47.1680
 1.0070	47.1880
 1.0080	47.2070
 1.0090	47.2280
 1.0100	47.2440
 1.0110	47.2590
 1.0120	47.2740
 1.0130	47.2870
 1.0140	47.3010
 1.0150	47.3160
 1.0160	47.3300
 1.0170	47.3460
 1.0180	47.3620
 1.0190	47.3820
 1.0200	47.3990
 1.0210	47.4120
 1.0220	47.4250
 1.0230	47.4410
 1.0240	47.4550
 1.0250	47.4710
 1.0260	47.4890
 1.0270	47.5050
 1.0280	47.5220
 1.0290	47.5370
 1.0300	47.5510
 1.0310	47.5660
 1.0320	47.5820
 1.0330	47.5950
 1.0340	47.6140
 1.0350	47.6320
 1.0360	47.6430
 1.0370	47.6570
 1.0380	47.6680
 1.0390	47.6750
 1.0400	47.6860
 1.0410	47.6990
 1.0420	47.7110
 1.0430	47.7210
 1.0440	47.7330
 1.0450	47.7450
 1.0460	47.7550
 1.0470	47.7630
 1.0480	47.7730
 1.0490	47.7830
 1.0500	47.7930
 1.0510	47.8030
 1.0520	47.8140
 1.0530	47.8230
 1.0540	47.8310
 1.0550	47.8360
 1.0560	47.8390
 1.0570	47.8460
 1.0580	47.8510
 1.0590	47.8580
 1.0600	47.8710
 1.0610	47.8790
 1.0620	47.8860
 1.0630	47.8920
 1.0640	47.8980
 1.0650	47.9030
 1.0660	47.9070
 1.0670	47.9120
 1.0680	47.9180
 1.0690	47.9240
 1.0700	47.9310
 1.0710	47.9390
 1.0720	47.9460
 1.0730	47.9550
 1.0740	47.9590
 1.0750	47.9590
 1.0760	47.9630
 1.0770	47.9650
 1.0780	47.9680
 1.0790	47.9770
 1.0800	47.9810
 1.0810	47.9830
 1.0820	47.9860
 1.0830	47.9860
 1.0840	47.9860
 1.0850	47.9850
 1.0860	47.9860
 1.0870	47.9870
 1.0880	47.9880
 1.0890	47.9880
 1.0900	47.9890
 1.0910	47.9900
 1.0920	47.9910
 1.0930	47.9900
 1.0940	47.9880
 1.0950	47.9860
 1.0960	47.9800
 1.0970	47.9780
 1.0980	47.9800
 1.0990	47.9760
 1.1000	47.9680
 1.1010	47.9630
 1.1020	47.9570
 1.1030	47.9520
 1.1040	47.9500
 1.1050	47.9490
 1.1060	47.9430
 1.1070	47.9340
 1.1080	47.9270
 1.1090	47.9190
 1.1100	47.9110
 1.1110	47.9030
 1.1120	47.8940
 1.1130	47.8850
 1.1140	47.8730
 1.1150	47.8610
 1.1160	47.8470
 1.1170	47.8310
 1.1180	47.8150
 1.1190	47.8000
 1.1200	47.7820
 1.1210	47.7640
 1.1220	47.7440
 1.1230	47.7170
 1.1240	47.6890
 1.1250	47.6580
 1.1260	47.6230
 1.1270	47.5830
 1.1280	47.5410
 1.1290	47.4940
 1.1300	47.4410
 1.1310	47.3830
 1.1320	47.3220
 1.1330	47.2550
 1.1340	47.1840
 1.1350	47.1060
 1.1360	47.0230
 1.1370	46.9350
 1.1380	46.8400
 1.1390	46.7420
 1.1400	46.6380
 1.1410	46.5310
 1.1420	46.4230
 1.1430	46.3100
 1.1440	46.1990
 1.1450	46.0860
 1.1460	45.9760
 1.1470	45.8650
 1.1480	45.7580
 1.1490	45.6520
 1.1500	45.5530
 1.1510	45.4570
 1.1520	45.3650
 1.1530	45.2790
 1.1540	45.1970
 1.1550	45.1210
 1.1560	45.0480
 1.1570	44.9810
 1.1580	44.9210
 1.1590	44.8630
 1.1600	44.8120
 1.1610	44.7670
 1.1620	44.7250
 1.1630	44.6880
 1.1640	44.6520
 1.1650	44.6190
 1.1660	44.5890
 1.1670	44.5620
 1.1680	44.5380
 1.1690	44.5150
 1.1700	44.4940
 1.1710	44.4740
 1.1720	44.4530
 1.1730	44.4330
 1.1740	44.4150
 1.1750	44.3970
 1.1760	44.3770
 1.1770	44.3580
 1.1780	44.3380
 1.1790	44.3170
 1.1800	44.2990
 1.1810	44.2800
 1.1820	44.2590
 1.1830	44.2400
 1.1840	44.2180
 1.1850	44.1970
 1.1860	44.1790
 1.1870	44.1610
 1.1880	44.1450
 1.1890	44.1300
 1.1900	44.1150
 1.1910	44.1010
 1.1920	44.0890
 1.1930	44.0790
 1.1940	44.0690
 1.1950	44.0610
 1.1960	44.0520
 1.1970	44.0440
 1.1980	44.0380
 1.1990	44.0350
 1.2000	44.0340
 1.2010	44.0330
 1.2020	44.0330
 1.2030	44.0340
 1.2040	44.0370
 1.2050	44.0400
 1.2060	44.0430
 1.2070	44.0500
 1.2080	44.0560
 1.2090	44.0670
 1.2100	44.0800
 1.2110	44.0930
 1.2120	44.1070
 1.2130	44.1250
 1.2140	44.1470
 1.2150	44.1680
 1.2160	44.1930
 1.2170	44.2170
 1.2180	44.2430
 1.2190	44.2690
 1.2200	44.2970
 1.2210	44.3290
 1.2220	44.3610
 1.2230	44.3950
 1.2240	44.4310
 1.2250	44.4650
 1.2260	44.4950
 1.2270	44.5270
 1.2280	44.5560
 1.2290	44.5850
 1.2300	44.6130
 1.2310	44.6390
 1.2320	44.6650
 1.2330	44.6900
 1.2340	44.7150
 1.2350	44.7410
 1.2360	44.7640
 1.2370	44.7870
 1.2380	44.8090
 1.2390	44.8300
 1.2400	44.8500
 1.2410	44.8710
 1.2420	44.8890
 1.2430	44.9060
 1.2440	44.9240
 1.2450	44.9390
 1.2460	44.9540
 1.2470	44.9690
 1.2480	44.9830
 1.2490	44.9980
 1.2500	45.0140
 1.2510	45.0280
 1.2520	45.0420
 1.2530	45.0520
 1.2540	45.0610
 1.2550	45.0710
 1.2560	45.0790
 1.2570	45.0890
 1.2580	45.0980
 1.2590	45.1060
 1.2600	45.1150
 1.2610	45.1200
 1.2620	45.1220
 1.2630	45.1240
 1.2640	45.1240
 1.2650	45.1240
 1.2660	45.1250
 1.2670	45.1250
 1.2680	45.1250
 1.2690	45.1240
 1.2700	45.1240
 1.2710	45.1210
 1.2720	45.1160
 1.2730	45.1100
 1.2740	45.1020
 1.2750	45.0940
 1.2760	45.0880
 1.2770	45.0790
 1.2780	45.0690
 1.2790	45.0570
 1.2800	45.0430
 1.2810	45.0290
 1.2820	45.0150
 1.2830	45.0010
 1.2840	44.9850
 1.2850	44.9680
 1.2860	44.9470
 1.2870	44.9270
 1.2880	44.9040
 1.2890	44.8820
 1.2900	44.8570
 1.2910	44.8320
 1.2920	44.8060
 1.2930	44.7750
 1.2940	44.7420
 1.2950	44.7100
 1.2960	44.6750
 1.2970	44.6390
 1.2980	44.6030
 1.2990	44.5650
 1.3000	44.5250
 1.3010	44.4820
 1.3020	44.4370
 1.3030	44.3910
 1.3040	44.3410
 1.3050	44.2900
 1.3060	44.2370
 1.3070	44.1840
 1.3080	44.1290
 1.3090	44.0720
 1.3100	44.0120
 1.3110	43.9480
 1.3120	43.8800
 1.3130	43.8090
 1.3140	43.7380
 1.3150	43.6680
 1.3160	43.5920
 1.3170	43.5140
 1.3180	43.4320
 1.3190	43.3460
 1.3200	43.2570
 1.3210	43.1650
 1.3220	43.0730
 1.3230	42.9800
 1.3240	42.8850
 1.3250	42.7870
 1.3260	42.6850
 1.3270	42.5790
 1.3280	42.4720
 1.3290	42.3630
 1.3300	42.2520
 1.3310	42.1390
 1.3320	42.0230
 1.3330	41.9060
 1.3340	41.7880
 1.3350	41.6700
 1.3360	41.5510
 1.3370	41.4310
 1.3380	41.3110
 1.3390	41.1910
 1.3400	41.0700
 1.3410	40.9520
 1.3420	40.8330
 1.3430	40.7160
 1.3440	40.5990
 1.3450	40.4830
 1.3460	40.3690
 1.3470	40.2560
 1.3480	40.1430
 1.3490	40.0320
 1.3500	39.9230
 1.3510	39.8130
 1.3520	39.7050
 1.3530	39.5990
 1.3540	39.4910
 1.3550	39.3830
 1.3560	39.2750
 1.3570	39.1660
 1.3580	39.0560
 1.3590	38.9450
 1.3600	38.8300
 1.3610	38.7130
 1.3620	38.5900
 1.3630	38.4640
 1.3640	38.3320
 1.3650	38.1920
 1.3660	38.0480
 1.3670	37.8960
 1.3680	37.7340
 1.3690	37.5640
 1.3700	37.3810
 1.3710	37.1860
 1.3720	36.9790
 1.3730	36.7560
 1.3740	36.5180
 1.3750	36.2620
 1.3760	35.9860
 1.3770	35.6920
 1.3780	35.3750
 1.3790	35.0380
 1.3800	34.6790
 1.3810	34.2930
 1.3820	33.8890
 1.3830	33.4640
 1.3840	33.0180
 1.3850	32.5520
 1.3860	32.0690
 1.3870	31.5610
 1.3880	31.0470
 1.3890	30.5170
 1.3900	29.9740
 1.3910	29.4290
 1.3920	28.8770
 1.3930	28.3190
 1.3940	27.7640
 1.3950	27.2050
 1.3960	26.6540
 1.3970	26.1120
 1.3980	25.5780
 1.3990	25.0620
 1.4000	24.5590
 1.4010	24.0670
 1.4020	23.5930
 1.4030	23.1330
 1.4040	22.6910
 1.4050	22.2710
 1.4060	21.8700
 1.4070	21.4920
 1.4080	21.1330
 1.4090	20.7920
 1.4100	20.4720
 1.4110	20.1680
 1.4120	19.8840
 1.4130	19.6190
 1.4140	19.3710
 1.4150	19.1420
 1.4160	18.9310
 1.4170	18.7310
 1.4180	18.5470
 1.4190	18.3730
 1.4200	18.2100
 1.4210	18.0610
 1.4220	17.9210
 1.4230	17.7920
 1.4240	17.6750
 1.4250	17.5650
 1.4260	17.4640
 1.4270	17.3700
 1.4280	17.2850
 1.4290	17.2060
 1.4300	17.1330
 1.4310	17.0660
 1.4320	17.0060
 1.4330	16.9500
 1.4340	16.9000
 1.4350	16.8550
 1.4360	16.8160
 1.4370	16.7800
 1.4380	16.7480
 1.4390	16.7210
 1.4400	16.6980
 1.4410	16.6780
 1.4420	16.6610
 1.4430	16.6470
 1.4440	16.6350
 1.4450	16.6260
 1.4460	16.6200
 1.4470	16.6170
 1.4480	16.6160
 1.4490	16.6160
 1.4500	16.6190
 1.4510	16.6240
 1.4520	16.6300
 1.4530	16.6380
 1.4540	16.6470
 1.4550	16.6580
 1.4560	16.6710
 1.4570	16.6870
 1.4580	16.7070
 1.4590	16.7290
 1.4600	16.7560
 1.4610	16.7850
 1.4620	16.8180
 1.4630	16.8560
 1.4640	16.8960
 1.4650	16.9420
 1.4660	16.9930
 1.4670	17.0490
 1.4680	17.1090
 1.4690	17.1720
 1.4700	17.2390
 1.4710	17.3110
 1.4720	17.3860
 1.4730	17.4650
 1.4740	17.5470
 1.4750	17.6320
 1.4760	17.7200
 1.4770	17.8120
 1.4780	17.9060
