Name: Citharexylum montevidense
Type: vegetation
Class: Tree
Genus: Citharexylum
Species: montevidense
Sample No.: JPL160
Owner: JPL
Wavelength Range: VSWIR
Origin: 34.12558; -118.11333; WGS84
Collection Date: 9/14/2016
Description: Samples were collected at the Huntington Garden in San Marino California as part of a JPL Subcontract studying HyTES imagery. Samples were taken to JPL and processed within 48 hours of collection. The same leaves were processed in the Nicolet and then measured using the ASD.
Measurement: Bidirectional reflectance
First Column: X
Second Column: Y
X Units: Wavelength (micrometer)
Y Units: Reflectance (percentage)
First X Value: 0.35
Last X Value: 2.5
Number of X Values: 2151
Additional Information: vegetation.tree.citharexylum.montevidense.vswir.jpl160.jpl.asd.ancillary.txt

 0.3500	 4.8020
 0.3510	 4.8250
 0.3520	 4.8340
 0.3530	 4.8250
 0.3540	 4.8040
 0.3550	 4.7770
 0.3560	 4.6640
 0.3570	 4.5540
 0.3580	 4.5940
 0.3590	 4.6080
 0.3600	 4.6210
 0.3610	 4.6390
 0.3620	 4.6030
 0.3630	 4.5690
 0.3640	 4.5900
 0.3650	 4.6630
 0.3660	 4.5940
 0.3670	 4.5410
 0.3680	 4.5400
 0.3690	 4.5410
 0.3700	 4.5560
 0.3710	 4.5680
 0.3720	 4.5650
 0.3730	 4.5580
 0.3740	 4.5430
 0.3750	 4.5290
 0.3760	 4.5240
 0.3770	 4.5360
 0.3780	 4.5190
 0.3790	 4.4840
 0.3800	 4.4850
 0.3810	 4.4920
 0.3820	 4.4930
 0.3830	 4.4870
 0.3840	 4.4980
 0.3850	 4.4680
 0.3860	 4.4370
 0.3870	 4.4560
 0.3880	 4.4300
 0.3890	 4.4100
 0.3900	 4.4170
 0.3910	 4.4330
 0.3920	 4.4560
 0.3930	 4.4550
 0.3940	 4.4220
 0.3950	 4.4200
 0.3960	 4.4490
 0.3970	 4.4630
 0.3980	 4.4190
 0.3990	 4.4180
 0.4000	 4.4180
 0.4010	 4.3970
 0.4020	 4.3780
 0.4030	 4.4170
 0.4040	 4.4450
 0.4050	 4.4110
 0.4060	 4.4150
 0.4070	 4.4270
 0.4080	 4.4340
 0.4090	 4.4320
 0.4100	 4.4280
 0.4110	 4.4150
 0.4120	 4.4030
 0.4130	 4.4290
 0.4140	 4.4360
 0.4150	 4.4360
 0.4160	 4.4530
 0.4170	 4.4580
 0.4180	 4.4560
 0.4190	 4.4560
 0.4200	 4.4700
 0.4210	 4.4680
 0.4220	 4.4660
 0.4230	 4.4800
 0.4240	 4.5030
 0.4250	 4.5000
 0.4260	 4.4810
 0.4270	 4.4780
 0.4280	 4.4820
 0.4290	 4.4860
 0.4300	 4.4870
 0.4310	 4.4940
 0.4320	 4.4910
 0.4330	 4.4800
 0.4340	 4.4670
 0.4350	 4.4750
 0.4360	 4.4810
 0.4370	 4.4820
 0.4380	 4.4880
 0.4390	 4.4980
 0.4400	 4.5080
 0.4410	 4.5170
 0.4420	 4.5220
 0.4430	 4.5280
 0.4440	 4.5370
 0.4450	 4.5430
 0.4460	 4.5420
 0.4470	 4.5450
 0.4480	 4.5560
 0.4490	 4.5660
 0.4500	 4.5700
 0.4510	 4.5750
 0.4520	 4.5840
 0.4530	 4.5890
 0.4540	 4.5920
 0.4550	 4.5950
 0.4560	 4.6010
 0.4570	 4.6120
 0.4580	 4.6170
 0.4590	 4.6170
 0.4600	 4.6260
 0.4610	 4.6310
 0.4620	 4.6310
 0.4630	 4.6320
 0.4640	 4.6320
 0.4650	 4.6400
 0.4660	 4.6520
 0.4670	 4.6460
 0.4680	 4.6430
 0.4690	 4.6460
 0.4700	 4.6520
 0.4710	 4.6520
 0.4720	 4.6510
 0.4730	 4.6530
 0.4740	 4.6580
 0.4750	 4.6550
 0.4760	 4.6560
 0.4770	 4.6630
 0.4780	 4.6630
 0.4790	 4.6630
 0.4800	 4.6670
 0.4810	 4.6750
 0.4820	 4.6770
 0.4830	 4.6760
 0.4840	 4.6750
 0.4850	 4.6770
 0.4860	 4.6730
 0.4870	 4.6760
 0.4880	 4.6930
 0.4890	 4.7020
 0.4900	 4.7140
 0.4910	 4.7290
 0.4920	 4.7420
 0.4930	 4.7660
 0.4940	 4.7880
 0.4950	 4.8060
 0.4960	 4.8240
 0.4970	 4.8530
 0.4980	 4.8890
 0.4990	 4.9230
 0.5000	 4.9570
 0.5010	 4.9960
 0.5020	 5.0440
 0.5030	 5.1020
 0.5040	 5.1650
 0.5050	 5.2290
 0.5060	 5.2980
 0.5070	 5.3860
 0.5080	 5.4890
 0.5090	 5.6000
 0.5100	 5.7170
 0.5110	 5.8490
 0.5120	 5.9940
 0.5130	 6.1520
 0.5140	 6.3250
 0.5150	 6.5150
 0.5160	 6.7210
 0.5170	 6.9430
 0.5180	 7.1760
 0.5190	 7.4260
 0.5200	 7.6900
 0.5210	 7.9560
 0.5220	 8.2250
 0.5230	 8.4970
 0.5240	 8.7710
 0.5250	 9.0420
 0.5260	 9.3090
 0.5270	 9.5670
 0.5280	 9.8120
 0.5290	10.0410
 0.5300	10.2600
 0.5310	10.4680
 0.5320	10.6560
 0.5330	10.8330
 0.5340	10.9980
 0.5350	11.1460
 0.5360	11.2810
 0.5370	11.4010
 0.5380	11.5100
 0.5390	11.6090
 0.5400	11.7050
 0.5410	11.7930
 0.5420	11.8710
 0.5430	11.9460
 0.5440	12.0180
 0.5450	12.0860
 0.5460	12.1520
 0.5470	12.2170
 0.5480	12.2770
 0.5490	12.3270
 0.5500	12.3660
 0.5510	12.3970
 0.5520	12.4130
 0.5530	12.4100
 0.5540	12.3890
 0.5550	12.3470
 0.5560	12.2850
 0.5570	12.2030
 0.5580	12.1060
 0.5590	12.0030
 0.5600	11.8960
 0.5610	11.7790
 0.5620	11.6590
 0.5630	11.5350
 0.5640	11.4070
 0.5650	11.2730
 0.5660	11.1340
 0.5670	10.9880
 0.5680	10.8370
 0.5690	10.6780
 0.5700	10.5090
 0.5710	10.3330
 0.5720	10.1590
 0.5730	 9.9950
 0.5740	 9.8390
 0.5750	 9.6910
 0.5760	 9.5460
 0.5770	 9.4060
 0.5780	 9.2740
 0.5790	 9.1530
 0.5800	 9.0430
 0.5810	 8.9430
 0.5820	 8.8480
 0.5830	 8.7530
 0.5840	 8.6600
 0.5850	 8.5730
 0.5860	 8.4980
 0.5870	 8.4370
 0.5880	 8.3860
 0.5890	 8.3420
 0.5900	 8.3090
 0.5910	 8.2790
 0.5920	 8.2500
 0.5930	 8.2230
 0.5940	 8.1980
 0.5950	 8.1740
 0.5960	 8.1500
 0.5970	 8.1230
 0.5980	 8.0920
 0.5990	 8.0580
 0.6000	 8.0200
 0.6010	 7.9760
 0.6020	 7.9300
 0.6030	 7.8800
 0.6040	 7.8200
 0.6050	 7.7570
 0.6060	 7.6880
 0.6070	 7.6100
 0.6080	 7.5260
 0.6090	 7.4340
 0.6100	 7.3350
 0.6110	 7.2340
 0.6120	 7.1450
 0.6130	 7.0610
 0.6140	 6.9790
 0.6150	 6.8980
 0.6160	 6.8200
 0.6170	 6.7470
 0.6180	 6.6800
 0.6190	 6.6180
 0.6200	 6.5630
 0.6210	 6.5150
 0.6220	 6.4740
 0.6230	 6.4380
 0.6240	 6.4080
 0.6250	 6.3860
 0.6260	 6.3650
 0.6270	 6.3490
 0.6280	 6.3380
 0.6290	 6.3280
 0.6300	 6.3180
 0.6310	 6.3090
 0.6320	 6.3010
 0.6330	 6.2910
 0.6340	 6.2770
 0.6350	 6.2550
 0.6360	 6.2240
 0.6370	 6.1900
 0.6380	 6.1490
 0.6390	 6.1010
 0.6400	 6.0470
 0.6410	 5.9900
 0.6420	 5.9340
 0.6430	 5.8750
 0.6440	 5.8100
 0.6450	 5.7460
 0.6460	 5.6820
 0.6470	 5.6180
 0.6480	 5.5590
 0.6490	 5.5070
 0.6500	 5.4610
 0.6510	 5.4200
 0.6520	 5.3830
 0.6530	 5.3480
 0.6540	 5.3120
 0.6550	 5.2750
 0.6560	 5.2320
 0.6570	 5.1850
 0.6580	 5.1380
 0.6590	 5.0890
 0.6600	 5.0430
 0.6610	 4.9980
 0.6620	 4.9540
 0.6630	 4.9140
 0.6640	 4.8820
 0.6650	 4.8570
 0.6660	 4.8380
 0.6670	 4.8230
 0.6680	 4.8130
 0.6690	 4.8120
 0.6700	 4.8120
 0.6710	 4.8130
 0.6720	 4.8190
 0.6730	 4.8310
 0.6740	 4.8470
 0.6750	 4.8660
 0.6760	 4.8840
 0.6770	 4.9080
 0.6780	 4.9340
 0.6790	 4.9650
 0.6800	 5.0000
 0.6810	 5.0380
 0.6820	 5.0790
 0.6830	 5.1240
 0.6840	 5.1760
 0.6850	 5.2360
 0.6860	 5.3060
 0.6870	 5.3940
 0.6880	 5.5070
 0.6890	 5.6550
 0.6900	 5.8490
 0.6910	 6.0980
 0.6920	 6.4120
 0.6930	 6.8010
 0.6940	 7.2710
 0.6950	 7.8260
 0.6960	 8.4610
 0.6970	 9.1740
 0.6980	 9.9590
 0.6990	10.8060
 0.7000	11.7050
 0.7010	12.6450
 0.7020	13.6120
 0.7030	14.5980
 0.7040	15.5920
 0.7050	16.5870
 0.7060	17.5780
 0.7070	18.5670
 0.7080	19.5480
 0.7090	20.5220
 0.7100	21.4900
 0.7110	22.4490
 0.7120	23.4010
 0.7130	24.3430
 0.7140	25.2710
 0.7150	26.1870
 0.7160	27.0920
 0.7170	27.9820
 0.7180	28.8560
 0.7190	29.7110
 0.7200	30.5460
 0.7210	31.3560
 0.7220	32.1430
 0.7230	32.9060
 0.7240	33.6410
 0.7250	34.3470
 0.7260	35.0220
 0.7270	35.6640
 0.7280	36.2760
 0.7290	36.8570
 0.7300	37.4070
 0.7310	37.9250
 0.7320	38.4130
 0.7330	38.8720
 0.7340	39.3040
 0.7350	39.7110
 0.7360	40.0920
 0.7370	40.4460
 0.7380	40.7740
 0.7390	41.0820
 0.7400	41.3690
 0.7410	41.6340
 0.7420	41.8770
 0.7430	42.0990
 0.7440	42.3030
 0.7450	42.4930
 0.7460	42.6680
 0.7470	42.8270
 0.7480	42.9710
 0.7490	43.1040
 0.7500	43.2270
 0.7510	43.3360
 0.7520	43.4340
 0.7530	43.5260
 0.7540	43.6090
 0.7550	43.6850
 0.7560	43.7530
 0.7570	43.8150
 0.7580	43.8730
 0.7590	43.9280
 0.7600	43.9780
 0.7610	44.0220
 0.7620	44.0630
 0.7630	44.1010
 0.7640	44.1350
 0.7650	44.1660
 0.7660	44.1920
 0.7670	44.2170
 0.7680	44.2410
 0.7690	44.2640
 0.7700	44.2850
 0.7710	44.3050
 0.7720	44.3210
 0.7730	44.3370
 0.7740	44.3540
 0.7750	44.3720
 0.7760	44.3870
 0.7770	44.4010
 0.7780	44.4140
 0.7790	44.4270
 0.7800	44.4410
 0.7810	44.4540
 0.7820	44.4640
 0.7830	44.4760
 0.7840	44.4840
 0.7850	44.4910
 0.7860	44.4990
 0.7870	44.5090
 0.7880	44.5160
 0.7890	44.5200
 0.7900	44.5250
 0.7910	44.5310
 0.7920	44.5380
 0.7930	44.5440
 0.7940	44.5480
 0.7950	44.5480
 0.7960	44.5480
 0.7970	44.5490
 0.7980	44.5490
 0.7990	44.5460
 0.8000	44.5430
 0.8010	44.5430
 0.8020	44.5410
 0.8030	44.5390
 0.8040	44.5350
 0.8050	44.5300
 0.8060	44.5240
 0.8070	44.5190
 0.8080	44.5160
 0.8090	44.5110
 0.8100	44.5020
 0.8110	44.4920
 0.8120	44.4840
 0.8130	44.4760
 0.8140	44.4690
 0.8150	44.4610
 0.8160	44.4510
 0.8170	44.4420
 0.8180	44.4330
 0.8190	44.4250
 0.8200	44.4180
 0.8210	44.4090
 0.8220	44.3970
 0.8230	44.3860
 0.8240	44.3790
 0.8250	44.3740
 0.8260	44.3640
 0.8270	44.3510
 0.8280	44.3400
 0.8290	44.3310
 0.8300	44.3200
 0.8310	44.3080
 0.8320	44.3030
 0.8330	44.2930
 0.8340	44.2810
 0.8350	44.2730
 0.8360	44.2730
 0.8370	44.2710
 0.8380	44.2660
 0.8390	44.2630
 0.8400	44.2580
 0.8410	44.2530
 0.8420	44.2500
 0.8430	44.2480
 0.8440	44.2490
 0.8450	44.2490
 0.8460	44.2460
 0.8470	44.2450
 0.8480	44.2460
 0.8490	44.2470
 0.8500	44.2480
 0.8510	44.2500
 0.8520	44.2530
 0.8530	44.2550
 0.8540	44.2560
 0.8550	44.2570
 0.8560	44.2630
 0.8570	44.2710
 0.8580	44.2710
 0.8590	44.2750
 0.8600	44.2820
 0.8610	44.2890
 0.8620	44.2920
 0.8630	44.2990
 0.8640	44.3080
 0.8650	44.3140
 0.8660	44.3160
 0.8670	44.3240
 0.8680	44.3330
 0.8690	44.3380
 0.8700	44.3470
 0.8710	44.3560
 0.8720	44.3640
 0.8730	44.3720
 0.8740	44.3810
 0.8750	44.3920
 0.8760	44.4010
 0.8770	44.4040
 0.8780	44.4120
 0.8790	44.4220
 0.8800	44.4320
 0.8810	44.4400
 0.8820	44.4480
 0.8830	44.4530
 0.8840	44.4590
 0.8850	44.4760
 0.8860	44.4870
 0.8870	44.4950
 0.8880	44.5040
 0.8890	44.5120
 0.8900	44.5200
 0.8910	44.5280
 0.8920	44.5380
 0.8930	44.5460
 0.8940	44.5530
 0.8950	44.5590
 0.8960	44.5640
 0.8970	44.5730
 0.8980	44.5790
 0.8990	44.5850
 0.9000	44.5960
 0.9010	44.6020
 0.9020	44.6060
 0.9030	44.6110
 0.9040	44.6190
 0.9050	44.6290
 0.9060	44.6370
 0.9070	44.6400
 0.9080	44.6400
 0.9090	44.6430
 0.9100	44.6470
 0.9110	44.6510
 0.9120	44.6580
 0.9130	44.6620
 0.9140	44.6610
 0.9150	44.6600
 0.9160	44.6630
 0.9170	44.6660
 0.9180	44.6670
 0.9190	44.6660
 0.9200	44.6630
 0.9210	44.6540
 0.9220	44.6450
 0.9230	44.6430
 0.9240	44.6360
 0.9250	44.6270
 0.9260	44.6200
 0.9270	44.6120
 0.9280	44.5970
 0.9290	44.5810
 0.9300	44.5650
 0.9310	44.5470
 0.9320	44.5290
 0.9330	44.5110
 0.9340	44.4890
 0.9350	44.4640
 0.9360	44.4390
 0.9370	44.4140
 0.9380	44.3870
 0.9390	44.3640
 0.9400	44.3370
 0.9410	44.3060
 0.9420	44.2710
 0.9430	44.2310
 0.9440	44.1960
 0.9450	44.1590
 0.9460	44.1150
 0.9470	44.0700
 0.9480	44.0200
 0.9490	43.9640
 0.9500	43.9030
 0.9510	43.8430
 0.9520	43.7850
 0.9530	43.7270
 0.9540	43.6650
 0.9550	43.6050
 0.9560	43.5360
 0.9570	43.4670
 0.9580	43.4090
 0.9590	43.3620
 0.9600	43.3200
 0.9610	43.2800
 0.9620	43.2380
 0.9630	43.1950
 0.9640	43.1560
 0.9650	43.1210
 0.9660	43.0900
 0.9670	43.0670
 0.9680	43.0410
 0.9690	43.0130
 0.9700	42.9920
 0.9710	42.9730
 0.9720	42.9660
 0.9730	42.9550
 0.9740	42.9270
 0.9750	42.9080
 0.9760	42.9010
 0.9770	42.8960
 0.9780	42.8830
 0.9790	42.8880
 0.9800	42.8870
 0.9810	42.8770
 0.9820	42.8710
 0.9830	42.8700
 0.9840	42.8660
 0.9850	42.8670
 0.9860	42.8840
 0.9870	42.8990
 0.9880	42.9080
 0.9890	42.9090
 0.9900	42.9080
 0.9910	42.9170
 0.9920	42.9350
 0.9930	42.9580
 0.9940	42.9770
 0.9950	42.9800
 0.9960	42.9870
 0.9970	42.9990
 0.9980	43.0090
 0.9990	43.0340
 1.0000	43.0600
 1.0010	42.4030
 1.0020	42.4200
 1.0030	42.4370
 1.0040	42.4580
 1.0050	42.4830
 1.0060	42.5040
 1.0070	42.5270
 1.0080	42.5480
 1.0090	42.5650
 1.0100	42.5860
 1.0110	42.6080
 1.0120	42.6310
 1.0130	42.6560
 1.0140	42.6800
 1.0150	42.7040
 1.0160	42.7270
 1.0170	42.7480
 1.0180	42.7670
 1.0190	42.7870
 1.0200	42.8060
 1.0210	42.8290
 1.0220	42.8510
 1.0230	42.8710
 1.0240	42.8890
 1.0250	42.9060
 1.0260	42.9190
 1.0270	42.9360
 1.0280	42.9570
 1.0290	42.9760
 1.0300	42.9950
 1.0310	43.0130
 1.0320	43.0310
 1.0330	43.0470
 1.0340	43.0630
 1.0350	43.0780
 1.0360	43.0900
 1.0370	43.1060
 1.0380	43.1200
 1.0390	43.1350
 1.0400	43.1510
 1.0410	43.1700
 1.0420	43.1850
 1.0430	43.1980
 1.0440	43.2120
 1.0450	43.2240
 1.0460	43.2360
 1.0470	43.2490
 1.0480	43.2620
 1.0490	43.2740
 1.0500	43.2850
 1.0510	43.2940
 1.0520	43.3050
 1.0530	43.3150
 1.0540	43.3240
 1.0550	43.3360
 1.0560	43.3500
 1.0570	43.3610
 1.0580	43.3710
 1.0590	43.3810
 1.0600	43.3900
 1.0610	43.4010
 1.0620	43.4170
 1.0630	43.4270
 1.0640	43.4370
 1.0650	43.4450
 1.0660	43.4500
 1.0670	43.4560
 1.0680	43.4630
 1.0690	43.4710
 1.0700	43.4790
 1.0710	43.4880
 1.0720	43.4970
 1.0730	43.5080
 1.0740	43.5160
 1.0750	43.5230
 1.0760	43.5290
 1.0770	43.5320
 1.0780	43.5350
 1.0790	43.5350
 1.0800	43.5390
 1.0810	43.5450
 1.0820	43.5480
 1.0830	43.5510
 1.0840	43.5530
 1.0850	43.5540
 1.0860	43.5530
 1.0870	43.5520
 1.0880	43.5520
 1.0890	43.5510
 1.0900	43.5480
 1.0910	43.5460
 1.0920	43.5440
 1.0930	43.5410
 1.0940	43.5350
 1.0950	43.5310
 1.0960	43.5260
 1.0970	43.5200
 1.0980	43.5150
 1.0990	43.5090
 1.1000	43.5040
 1.1010	43.4970
 1.1020	43.4880
 1.1030	43.4800
 1.1040	43.4700
 1.1050	43.4570
 1.1060	43.4470
 1.1070	43.4380
 1.1080	43.4260
 1.1090	43.4140
 1.1100	43.4010
 1.1110	43.3840
 1.1120	43.3690
 1.1130	43.3540
 1.1140	43.3380
 1.1150	43.3220
 1.1160	43.3030
 1.1170	43.2820
 1.1180	43.2590
 1.1190	43.2350
 1.1200	43.2070
 1.1210	43.1750
 1.1220	43.1420
 1.1230	43.1050
 1.1240	43.0630
 1.1250	43.0160
 1.1260	42.9660
 1.1270	42.9090
 1.1280	42.8470
 1.1290	42.7790
 1.1300	42.7070
 1.1310	42.6260
 1.1320	42.5370
 1.1330	42.4420
 1.1340	42.3400
 1.1350	42.2290
 1.1360	42.1090
 1.1370	41.9840
 1.1380	41.8520
 1.1390	41.7160
 1.1400	41.5760
 1.1410	41.4350
 1.1420	41.2910
 1.1430	41.1420
 1.1440	40.9960
 1.1450	40.8470
 1.1460	40.7030
 1.1470	40.5570
 1.1480	40.4200
 1.1490	40.2840
 1.1500	40.1560
 1.1510	40.0310
 1.1520	39.9150
 1.1530	39.8050
 1.1540	39.7030
 1.1550	39.6090
 1.1560	39.5230
 1.1570	39.4420
 1.1580	39.3680
 1.1590	39.3010
 1.1600	39.2400
 1.1610	39.1840
 1.1620	39.1340
 1.1630	39.0900
 1.1640	39.0500
 1.1650	39.0110
 1.1660	38.9750
 1.1670	38.9420
 1.1680	38.9120
 1.1690	38.8830
 1.1700	38.8580
 1.1710	38.8320
 1.1720	38.8080
 1.1730	38.7850
 1.1740	38.7640
 1.1750	38.7420
 1.1760	38.7190
 1.1770	38.6970
 1.1780	38.6740
 1.1790	38.6500
 1.1800	38.6260
 1.1810	38.6020
 1.1820	38.5800
 1.1830	38.5580
 1.1840	38.5390
 1.1850	38.5200
 1.1860	38.4990
 1.1870	38.4790
 1.1880	38.4620
 1.1890	38.4450
 1.1900	38.4290
 1.1910	38.4150
 1.1920	38.4020
 1.1930	38.3900
 1.1940	38.3810
 1.1950	38.3750
 1.1960	38.3720
 1.1970	38.3690
 1.1980	38.3680
 1.1990	38.3690
 1.2000	38.3710
 1.2010	38.3760
 1.2020	38.3850
 1.2030	38.3940
 1.2040	38.4050
 1.2050	38.4190
 1.2060	38.4330
 1.2070	38.4490
 1.2080	38.4690
 1.2090	38.4880
 1.2100	38.5090
 1.2110	38.5310
 1.2120	38.5540
 1.2130	38.5780
 1.2140	38.6060
 1.2150	38.6320
 1.2160	38.6590
 1.2170	38.6860
 1.2180	38.7140
 1.2190	38.7420
 1.2200	38.7740
 1.2210	38.8050
 1.2220	38.8340
 1.2230	38.8650
 1.2240	38.8960
 1.2250	38.9250
 1.2260	38.9540
 1.2270	38.9820
 1.2280	39.0090
 1.2290	39.0360
 1.2300	39.0620
 1.2310	39.0880
 1.2320	39.1140
 1.2330	39.1380
 1.2340	39.1620
 1.2350	39.1860
 1.2360	39.2090
 1.2370	39.2330
 1.2380	39.2560
 1.2390	39.2770
 1.2400	39.2980
 1.2410	39.3190
 1.2420	39.3390
 1.2430	39.3600
 1.2440	39.3790
 1.2450	39.3970
 1.2460	39.4150
 1.2470	39.4310
 1.2480	39.4460
 1.2490	39.4620
 1.2500	39.4780
 1.2510	39.4910
 1.2520	39.5050
 1.2530	39.5180
 1.2540	39.5290
 1.2550	39.5410
 1.2560	39.5520
 1.2570	39.5620
 1.2580	39.5700
 1.2590	39.5780
 1.2600	39.5870
 1.2610	39.5920
 1.2620	39.5960
 1.2630	39.5990
 1.2640	39.6000
 1.2650	39.6010
 1.2660	39.6030
 1.2670	39.6020
 1.2680	39.6000
 1.2690	39.5970
 1.2700	39.5900
 1.2710	39.5840
 1.2720	39.5780
 1.2730	39.5690
 1.2740	39.5600
 1.2750	39.5500
 1.2760	39.5400
 1.2770	39.5300
 1.2780	39.5170
 1.2790	39.5010
 1.2800	39.4840
 1.2810	39.4660
 1.2820	39.4480
 1.2830	39.4300
 1.2840	39.4090
 1.2850	39.3890
 1.2860	39.3670
 1.2870	39.3440
 1.2880	39.3190
 1.2890	39.2960
 1.2900	39.2680
 1.2910	39.2360
 1.2920	39.2060
 1.2930	39.1720
 1.2940	39.1380
 1.2950	39.1080
 1.2960	39.0740
 1.2970	39.0380
 1.2980	39.0000
 1.2990	38.9570
 1.3000	38.9110
 1.3010	38.8630
 1.3020	38.8110
 1.3030	38.7570
 1.3040	38.7020
 1.3050	38.6450
 1.3060	38.5850
 1.3070	38.5220
 1.3080	38.4550
 1.3090	38.3850
 1.3100	38.3120
 1.3110	38.2360
 1.3120	38.1560
 1.3130	38.0720
 1.3140	37.9840
 1.3150	37.8900
 1.3160	37.7940
 1.3170	37.6960
 1.3180	37.5930
 1.3190	37.4880
 1.3200	37.3800
 1.3210	37.2660
 1.3220	37.1500
 1.3230	37.0320
 1.3240	36.9090
 1.3250	36.7860
 1.3260	36.6590
 1.3270	36.5260
 1.3280	36.3900
 1.3290	36.2510
 1.3300	36.1090
 1.3310	35.9660
 1.3320	35.8210
 1.3330	35.6740
 1.3340	35.5260
 1.3350	35.3780
 1.3360	35.2280
 1.3370	35.0780
 1.3380	34.9270
 1.3390	34.7760
 1.3400	34.6260
 1.3410	34.4770
 1.3420	34.3280
 1.3430	34.1810
 1.3440	34.0350
 1.3450	33.8900
 1.3460	33.7460
 1.3470	33.6050
 1.3480	33.4650
 1.3490	33.3280
 1.3500	33.1940
 1.3510	33.0590
 1.3520	32.9240
 1.3530	32.7910
 1.3540	32.6560
 1.3550	32.5220
 1.3560	32.3890
 1.3570	32.2540
 1.3580	32.1180
 1.3590	31.9810
 1.3600	31.8410
 1.3610	31.6990
 1.3620	31.5520
 1.3630	31.4020
 1.3640	31.2460
 1.3650	31.0830
 1.3660	30.9160
 1.3670	30.7390
 1.3680	30.5530
 1.3690	30.3580
 1.3700	30.1480
 1.3710	29.9280
 1.3720	29.6940
 1.3730	29.4430
 1.3740	29.1790
 1.3750	28.8970
 1.3760	28.5940
 1.3770	28.2710
 1.3780	27.9230
 1.3790	27.5540
 1.3800	27.1640
 1.3810	26.7480
 1.3820	26.3160
 1.3830	25.8650
 1.3840	25.3950
 1.3850	24.9050
 1.3860	24.4030
 1.3870	23.8790
 1.3880	23.3540
 1.3890	22.8170
 1.3900	22.2720
 1.3910	21.7290
 1.3920	21.1810
 1.3930	20.6310
 1.3940	20.0870
 1.3950	19.5440
 1.3960	19.0100
 1.3970	18.4890
 1.3980	17.9800
 1.3990	17.4910
 1.4000	17.0180
 1.4010	16.5590
 1.4020	16.1210
 1.4030	15.6990
 1.4040	15.2970
 1.4050	14.9180
 1.4060	14.5570
 1.4070	14.2200
 1.4080	13.9030
 1.4090	13.6030
 1.4100	13.3230
 1.4110	13.0600
 1.4120	12.8130
 1.4130	12.5840
 1.4140	12.3700
 1.4150	12.1740
 1.4160	11.9920
 1.4170	11.8200
 1.4180	11.6620
 1.4190	11.5130
 1.4200	11.3760
 1.4210	11.2500
 1.4220	11.1310
 1.4230	11.0230
 1.4240	10.9230
 1.4250	10.8290
 1.4260	10.7440
 1.4270	10.6640
 1.4280	10.5910
 1.4290	10.5230
 1.4300	10.4620
 1.4310	10.4060
 1.4320	10.3560
 1.4330	10.3100
 1.4340	10.2700
 1.4350	10.2330
 1.4360	10.2000
 1.4370	10.1700
 1.4380	10.1450
 1.4390	10.1230
 1.4400	10.1050
 1.4410	10.0890
 1.4420	10.0760
 1.4430	10.0650
 1.4440	10.0570
 1.4450	10.0520
 1.4460	10.0480
 1.4470	10.0470
 1.4480	10.0480
 1.4490	10.0500
 1.4500	10.0540
 1.4510	10.0580
 1.4520	10.0650
 1.4530	10.0730
 1.4540	10.0830
 1.4550	10.0950
 1.4560	10.1100
 1.4570	10.1260
 1.4580	10.1450
 1.4590	10.1670
 1.4600	10.1910
 1.4610	10.2180
 1.4620	10.2480
 1.4630	10.2820
 1.4640	10.3200
 1.4650	10.3610
 1.4660	10.4060
 1.4670	10.4540
 1.4680	10.5070
 1.4690	10.5630
 1.4700	10.6220
 1.4710	10.6850
 1.4720	10.7500
 1.4730	10.8180
 1.4740	10.8900
 1.4750	10.9650
 1.4760	11.0430
