Name: Pinus lambertiana 3
Type: vegetation
Class: Tree
Genus: Pinus
Species: lambertiana
Sample No.: VH263
Owner: UCSB
Wavelength Range: VSWIR
Origin: 37.0433; -119.3048; WGS84
Collection Date: 11/2/2013
Description: Samples were collected as part of the HyspIRI Airborne Campaign. 48 individual plants were sampled in three times in 2013 - spring  summer  and fall. The name of the sample includes a 1  2  or 3 which references a different individual of the species. Samples were taken to JPL and processed within 48 hours of collection. The same leaves were processed in the Nicolet and then measured using the ASD.
Measurement: Bidirectional reflectance
First Column: X
Second Column: Y
X Units: Wavelength (micrometers)
Y Units: Reflectance (percentage)
First X Value: 0.35
Last X Value: 2.5
Number of X Values: 2151
Additional Information: vegetation.tree.pinus.lambertiana.vswir.vh263.ucsb.asd.ancillary.txt

 0.3500	 6.3680
 0.3510	 6.3220
 0.3520	 6.2590
 0.3530	 6.2350
 0.3540	 6.2430
 0.3550	 6.1980
 0.3560	 6.1810
 0.3570	 6.1640
 0.3580	 6.0840
 0.3590	 6.0750
 0.3600	 6.0700
 0.3610	 6.0360
 0.3620	 6.0130
 0.3630	 5.9340
 0.3640	 5.8840
 0.3650	 5.9230
 0.3660	 5.8850
 0.3670	 5.8880
 0.3680	 5.9220
 0.3690	 5.8960
 0.3700	 5.8580
 0.3710	 5.8450
 0.3720	 5.8660
 0.3730	 5.8880
 0.3740	 5.8890
 0.3750	 5.8610
 0.3760	 5.8220
 0.3770	 5.8450
 0.3780	 5.8670
 0.3790	 5.8740
 0.3800	 5.8910
 0.3810	 5.8760
 0.3820	 5.8350
 0.3830	 5.7900
 0.3840	 5.7750
 0.3850	 5.7690
 0.3860	 5.7750
 0.3870	 5.7930
 0.3880	 5.7340
 0.3890	 5.7350
 0.3900	 5.7910
 0.3910	 5.7530
 0.3920	 5.7240
 0.3930	 5.7210
 0.3940	 5.7320
 0.3950	 5.7250
 0.3960	 5.7290
 0.3970	 5.7280
 0.3980	 5.6990
 0.3990	 5.7170
 0.4000	 5.7260
 0.4010	 5.7110
 0.4020	 5.7170
 0.4030	 5.7180
 0.4040	 5.7230
 0.4050	 5.7410
 0.4060	 5.7580
 0.4070	 5.7820
 0.4080	 5.8020
 0.4090	 5.8050
 0.4100	 5.8390
 0.4110	 5.8750
 0.4120	 5.8900
 0.4130	 5.8960
 0.4140	 5.9310
 0.4150	 5.9880
 0.4160	 6.0380
 0.4170	 6.0430
 0.4180	 6.0840
 0.4190	 6.1610
 0.4200	 6.2050
 0.4210	 6.2390
 0.4220	 6.2830
 0.4230	 6.3360
 0.4240	 6.3420
 0.4250	 6.3670
 0.4260	 6.4140
 0.4270	 6.4600
 0.4280	 6.5040
 0.4290	 6.5400
 0.4300	 6.5640
 0.4310	 6.5780
 0.4320	 6.6050
 0.4330	 6.6360
 0.4340	 6.6570
 0.4350	 6.6580
 0.4360	 6.6690
 0.4370	 6.6960
 0.4380	 6.7270
 0.4390	 6.7370
 0.4400	 6.7520
 0.4410	 6.7850
 0.4420	 6.8020
 0.4430	 6.8060
 0.4440	 6.8140
 0.4450	 6.8450
 0.4460	 6.8650
 0.4470	 6.8800
 0.4480	 6.8930
 0.4490	 6.9000
 0.4500	 6.9270
 0.4510	 6.9470
 0.4520	 6.9420
 0.4530	 6.9610
 0.4540	 6.9760
 0.4550	 6.9800
 0.4560	 6.9850
 0.4570	 6.9880
 0.4580	 6.9940
 0.4590	 7.0010
 0.4600	 7.0000
 0.4610	 7.0020
 0.4620	 7.0080
 0.4630	 7.0150
 0.4640	 7.0200
 0.4650	 7.0110
 0.4660	 6.9980
 0.4670	 7.0050
 0.4680	 7.0110
 0.4690	 7.0130
 0.4700	 7.0130
 0.4710	 7.0060
 0.4720	 7.0100
 0.4730	 7.0150
 0.4740	 7.0040
 0.4750	 6.9990
 0.4760	 6.9950
 0.4770	 6.9940
 0.4780	 7.0120
 0.4790	 7.0170
 0.4800	 7.0130
 0.4810	 7.0140
 0.4820	 7.0140
 0.4830	 7.0190
 0.4840	 7.0240
 0.4850	 7.0220
 0.4860	 7.0160
 0.4870	 7.0200
 0.4880	 7.0400
 0.4890	 7.0590
 0.4900	 7.0780
 0.4910	 7.0960
 0.4920	 7.1150
 0.4930	 7.1380
 0.4940	 7.1720
 0.4950	 7.2150
 0.4960	 7.2440
 0.4970	 7.2850
 0.4980	 7.3370
 0.4990	 7.3950
 0.5000	 7.4700
 0.5010	 7.5460
 0.5020	 7.6240
 0.5030	 7.7160
 0.5040	 7.8140
 0.5050	 7.9180
 0.5060	 8.0340
 0.5070	 8.1770
 0.5080	 8.3280
 0.5090	 8.4870
 0.5100	 8.6620
 0.5110	 8.8510
 0.5120	 9.0570
 0.5130	 9.2800
 0.5140	 9.5170
 0.5150	 9.7670
 0.5160	10.0270
 0.5170	10.2990
 0.5180	10.5870
 0.5190	10.8790
 0.5200	11.1720
 0.5210	11.4680
 0.5220	11.7680
 0.5230	12.0640
 0.5240	12.3500
 0.5250	12.6270
 0.5260	12.8890
 0.5270	13.1360
 0.5280	13.3700
 0.5290	13.5860
 0.5300	13.7900
 0.5310	13.9770
 0.5320	14.1340
 0.5330	14.2840
 0.5340	14.4250
 0.5350	14.5490
 0.5360	14.6620
 0.5370	14.7590
 0.5380	14.8430
 0.5390	14.9220
 0.5400	14.9880
 0.5410	15.0460
 0.5420	15.0990
 0.5430	15.1500
 0.5440	15.2040
 0.5450	15.2580
 0.5460	15.3100
 0.5470	15.3660
 0.5480	15.4160
 0.5490	15.4550
 0.5500	15.4880
 0.5510	15.5150
 0.5520	15.5310
 0.5530	15.5320
 0.5540	15.5220
 0.5550	15.4970
 0.5560	15.4570
 0.5570	15.3960
 0.5580	15.3240
 0.5590	15.2380
 0.5600	15.1390
 0.5610	15.0280
 0.5620	14.9060
 0.5630	14.7710
 0.5640	14.6210
 0.5650	14.4640
 0.5660	14.3060
 0.5670	14.1430
 0.5680	13.9680
 0.5690	13.7860
 0.5700	13.6020
 0.5710	13.4200
 0.5720	13.2440
 0.5730	13.0760
 0.5740	12.9130
 0.5750	12.7490
 0.5760	12.5920
 0.5770	12.4450
 0.5780	12.3120
 0.5790	12.2060
 0.5800	12.1050
 0.5810	12.0060
 0.5820	11.9100
 0.5830	11.8160
 0.5840	11.7250
 0.5850	11.6370
 0.5860	11.5530
 0.5870	11.4830
 0.5880	11.4210
 0.5890	11.3610
 0.5900	11.2970
 0.5910	11.2330
 0.5920	11.1720
 0.5930	11.1150
 0.5940	11.0720
 0.5950	11.0350
 0.5960	10.9950
 0.5970	10.9550
 0.5980	10.9120
 0.5990	10.8690
 0.6000	10.8300
 0.6010	10.7840
 0.6020	10.7330
 0.6030	10.6790
 0.6040	10.6220
 0.6050	10.5570
 0.6060	10.4870
 0.6070	10.4150
 0.6080	10.3390
 0.6090	10.2580
 0.6100	10.1690
 0.6110	10.0750
 0.6120	 9.9980
 0.6130	 9.9250
 0.6140	 9.8480
 0.6150	 9.7650
 0.6160	 9.6900
 0.6170	 9.6210
 0.6180	 9.5540
 0.6190	 9.4920
 0.6200	 9.4350
 0.6210	 9.3850
 0.6220	 9.3420
 0.6230	 9.3070
 0.6240	 9.2770
 0.6250	 9.2530
 0.6260	 9.2370
 0.6270	 9.2210
 0.6280	 9.2080
 0.6290	 9.2050
 0.6300	 9.1940
 0.6310	 9.1810
 0.6320	 9.1670
 0.6330	 9.1430
 0.6340	 9.1070
 0.6350	 9.0590
 0.6360	 8.9980
 0.6370	 8.9220
 0.6380	 8.8340
 0.6390	 8.7340
 0.6400	 8.6250
 0.6410	 8.5080
 0.6420	 8.3880
 0.6430	 8.2680
 0.6440	 8.1460
 0.6450	 8.0280
 0.6460	 7.9150
 0.6470	 7.8100
 0.6480	 7.7240
 0.6490	 7.6500
 0.6500	 7.5840
 0.6510	 7.5300
 0.6520	 7.4880
 0.6530	 7.4490
 0.6540	 7.4090
 0.6550	 7.3730
 0.6560	 7.3350
 0.6570	 7.2890
 0.6580	 7.2340
 0.6590	 7.1760
 0.6600	 7.1160
 0.6610	 7.0540
 0.6620	 6.9910
 0.6630	 6.9220
 0.6640	 6.8570
 0.6650	 6.8010
 0.6660	 6.7590
 0.6670	 6.7180
 0.6680	 6.6820
 0.6690	 6.6590
 0.6700	 6.6390
 0.6710	 6.6240
 0.6720	 6.6150
 0.6730	 6.6170
 0.6740	 6.6210
 0.6750	 6.6280
 0.6760	 6.6380
 0.6770	 6.6550
 0.6780	 6.6750
 0.6790	 6.7020
 0.6800	 6.7370
 0.6810	 6.7790
 0.6820	 6.8320
 0.6830	 6.9040
 0.6840	 6.9900
 0.6850	 7.1060
 0.6860	 7.2570
 0.6870	 7.4460
 0.6880	 7.6870
 0.6890	 7.9910
 0.6900	 8.3640
 0.6910	 8.8140
 0.6920	 9.3420
 0.6930	 9.9490
 0.6940	10.6350
 0.6950	11.3900
 0.6960	12.2080
 0.6970	13.0830
 0.6980	14.0070
 0.6990	14.9750
 0.7000	15.9780
 0.7010	17.0100
 0.7020	18.0670
 0.7030	19.1390
 0.7040	20.2180
 0.7050	21.3010
 0.7060	22.3840
 0.7070	23.4700
 0.7080	24.5530
 0.7090	25.6310
 0.7100	26.7120
 0.7110	27.7890
 0.7120	28.8590
 0.7130	29.9230
 0.7140	30.9860
 0.7150	32.0410
 0.7160	33.0850
 0.7170	34.1230
 0.7180	35.1460
 0.7190	36.1560
 0.7200	37.1600
 0.7210	38.1430
 0.7220	39.1070
 0.7230	40.0500
 0.7240	40.9710
 0.7250	41.8640
 0.7260	42.7260
 0.7270	43.5570
 0.7280	44.3570
 0.7290	45.1220
 0.7300	45.8540
 0.7310	46.5520
 0.7320	47.2220
 0.7330	47.8530
 0.7340	48.4450
 0.7350	49.0150
 0.7360	49.5570
 0.7370	50.0640
 0.7380	50.5380
 0.7390	50.9790
 0.7400	51.4000
 0.7410	51.8000
 0.7420	52.1720
 0.7430	52.5050
 0.7440	52.8200
 0.7450	53.1190
 0.7460	53.3880
 0.7470	53.6430
 0.7480	53.8790
 0.7490	54.0930
 0.7500	54.2800
 0.7510	54.4510
 0.7520	54.6100
 0.7530	54.7590
 0.7540	54.8920
 0.7550	55.0120
 0.7560	55.1200
 0.7570	55.2160
 0.7580	55.2990
 0.7590	55.3770
 0.7600	55.4500
 0.7610	55.5120
 0.7620	55.5670
 0.7630	55.6170
 0.7640	55.6630
 0.7650	55.7040
 0.7660	55.7380
 0.7670	55.7670
 0.7680	55.7930
 0.7690	55.8240
 0.7700	55.8450
 0.7710	55.8540
 0.7720	55.8770
 0.7730	55.8940
 0.7740	55.9060
 0.7750	55.9180
 0.7760	55.9290
 0.7770	55.9420
 0.7780	55.9540
 0.7790	55.9610
 0.7800	55.9720
 0.7810	55.9820
 0.7820	55.9900
 0.7830	55.9980
 0.7840	56.0120
 0.7850	56.0250
 0.7860	56.0320
 0.7870	56.0350
 0.7880	56.0380
 0.7890	56.0440
 0.7900	56.0530
 0.7910	56.0710
 0.7920	56.0810
 0.7930	56.0820
 0.7940	56.0870
 0.7950	56.0980
 0.7960	56.1060
 0.7970	56.1110
 0.7980	56.1200
 0.7990	56.1280
 0.8000	56.1360
 0.8010	56.1440
 0.8020	56.1510
 0.8030	56.1600
 0.8040	56.1670
 0.8050	56.1650
 0.8060	56.1710
 0.8070	56.1770
 0.8080	56.1830
 0.8090	56.1980
 0.8100	56.2030
 0.8110	56.2040
 0.8120	56.2120
 0.8130	56.2280
 0.8140	56.2390
 0.8150	56.2440
 0.8160	56.2500
 0.8170	56.2590
 0.8180	56.2690
 0.8190	56.2760
 0.8200	56.2820
 0.8210	56.2820
 0.8220	56.2910
 0.8230	56.3040
 0.8240	56.3040
 0.8250	56.3060
 0.8260	56.3090
 0.8270	56.3100
 0.8280	56.3110
 0.8290	56.3060
 0.8300	56.3040
 0.8310	56.3070
 0.8320	56.2960
 0.8330	56.2920
 0.8340	56.2970
 0.8350	56.3000
 0.8360	56.3090
 0.8370	56.3220
 0.8380	56.3320
 0.8390	56.3350
 0.8400	56.3390
 0.8410	56.3480
 0.8420	56.3620
 0.8430	56.3780
 0.8440	56.3870
 0.8450	56.3960
 0.8460	56.4110
 0.8470	56.4210
 0.8480	56.4270
 0.8490	56.4320
 0.8500	56.4390
 0.8510	56.4520
 0.8520	56.4630
 0.8530	56.4710
 0.8540	56.4780
 0.8550	56.4900
 0.8560	56.4960
 0.8570	56.4990
 0.8580	56.5120
 0.8590	56.5210
 0.8600	56.5210
 0.8610	56.5180
 0.8620	56.5250
 0.8630	56.5350
 0.8640	56.5410
 0.8650	56.5390
 0.8660	56.5450
 0.8670	56.5470
 0.8680	56.5450
 0.8690	56.5440
 0.8700	56.5560
 0.8710	56.5590
 0.8720	56.5530
 0.8730	56.5540
 0.8740	56.5490
 0.8750	56.5460
 0.8760	56.5470
 0.8770	56.5520
 0.8780	56.5540
 0.8790	56.5460
 0.8800	56.5320
 0.8810	56.5320
 0.8820	56.5260
 0.8830	56.5210
 0.8840	56.5180
 0.8850	56.5060
 0.8860	56.4930
 0.8870	56.4810
 0.8880	56.4710
 0.8890	56.4690
 0.8900	56.4610
 0.8910	56.4490
 0.8920	56.4400
 0.8930	56.4170
 0.8940	56.3900
 0.8950	56.3750
 0.8960	56.3790
 0.8970	56.3760
 0.8980	56.3620
 0.8990	56.3420
 0.9000	56.3250
 0.9010	56.3030
 0.9020	56.2810
 0.9030	56.2630
 0.9040	56.2490
 0.9050	56.2370
 0.9060	56.2190
 0.9070	56.1970
 0.9080	56.1890
 0.9090	56.1640
 0.9100	56.1430
 0.9110	56.1370
 0.9120	56.1180
 0.9130	56.0910
 0.9140	56.0670
 0.9150	56.0510
 0.9160	56.0300
 0.9170	56.0040
 0.9180	55.9790
 0.9190	55.9590
 0.9200	55.9220
 0.9210	55.8890
 0.9220	55.8600
 0.9230	55.8230
 0.9240	55.7820
 0.9250	55.7400
 0.9260	55.6960
 0.9270	55.6500
 0.9280	55.6000
 0.9290	55.5410
 0.9300	55.4780
 0.9310	55.4230
 0.9320	55.3570
 0.9330	55.2890
 0.9340	55.2180
 0.9350	55.1380
 0.9360	55.0820
 0.9370	55.0110
 0.9380	54.9130
 0.9390	54.8360
 0.9400	54.7600
 0.9410	54.6770
 0.9420	54.5860
 0.9430	54.4950
 0.9440	54.3940
 0.9450	54.2900
 0.9460	54.1830
 0.9470	54.0480
 0.9480	53.9130
 0.9490	53.7760
 0.9500	53.6280
 0.9510	53.4670
 0.9520	53.2990
 0.9530	53.1320
 0.9540	52.9690
 0.9550	52.7980
 0.9560	52.6330
 0.9570	52.4750
 0.9580	52.3200
 0.9590	52.1650
 0.9600	52.0380
 0.9610	51.9310
 0.9620	51.8300
 0.9630	51.7390
 0.9640	51.6660
 0.9650	51.5990
 0.9660	51.5300
 0.9670	51.4860
 0.9680	51.4500
 0.9690	51.4190
 0.9700	51.3930
 0.9710	51.3650
 0.9720	51.3300
 0.9730	51.2990
 0.9740	51.2840
 0.9750	51.2890
 0.9760	51.2800
 0.9770	51.2610
 0.9780	51.2550
 0.9790	51.2620
 0.9800	51.2940
 0.9810	51.3290
 0.9820	51.3370
 0.9830	51.3590
 0.9840	51.3800
 0.9850	51.4090
 0.9860	51.4620
 0.9870	51.4680
 0.9880	51.5100
 0.9890	51.5760
 0.9900	51.6170
 0.9910	51.6440
 0.9920	51.7020
 0.9930	51.7820
 0.9940	51.8500
 0.9950	51.8980
 0.9960	51.9520
 0.9970	52.0170
 0.9980	52.0820
 0.9990	52.1270
 1.0000	52.1950
 1.0010	52.2250
 1.0020	52.3100
 1.0030	52.3760
 1.0040	52.4380
 1.0050	52.5000
 1.0060	52.5640
 1.0070	52.6270
 1.0080	52.6950
 1.0090	52.7740
 1.0100	52.8450
 1.0110	52.9180
 1.0120	52.9870
 1.0130	53.0480
 1.0140	53.1150
 1.0150	53.1830
 1.0160	53.2530
 1.0170	53.3190
 1.0180	53.3850
 1.0190	53.4470
 1.0200	53.5100
 1.0210	53.5770
 1.0220	53.6410
 1.0230	53.7000
 1.0240	53.7520
 1.0250	53.8080
 1.0260	53.8630
 1.0270	53.9190
 1.0280	53.9790
 1.0290	54.0340
 1.0300	54.0880
 1.0310	54.1410
 1.0320	54.1910
 1.0330	54.2420
 1.0340	54.2950
 1.0350	54.3470
 1.0360	54.3960
 1.0370	54.4410
 1.0380	54.4840
 1.0390	54.5210
 1.0400	54.5610
 1.0410	54.6030
 1.0420	54.6410
 1.0430	54.6760
 1.0440	54.7130
 1.0450	54.7520
 1.0460	54.7850
 1.0470	54.8150
 1.0480	54.8460
 1.0490	54.8750
 1.0500	54.9010
 1.0510	54.9260
 1.0520	54.9530
 1.0530	54.9760
 1.0540	54.9930
 1.0550	55.0130
 1.0560	55.0330
 1.0570	55.0540
 1.0580	55.0750
 1.0590	55.0950
 1.0600	55.1190
 1.0610	55.1350
 1.0620	55.1420
 1.0630	55.1560
 1.0640	55.1720
 1.0650	55.1860
 1.0660	55.2060
 1.0670	55.2190
 1.0680	55.2270
 1.0690	55.2280
 1.0700	55.2330
 1.0710	55.2350
 1.0720	55.2380
 1.0730	55.2390
 1.0740	55.2430
 1.0750	55.2500
 1.0760	55.2490
 1.0770	55.2450
 1.0780	55.2420
 1.0790	55.2300
 1.0800	55.2230
 1.0810	55.2230
 1.0820	55.2150
 1.0830	55.2010
 1.0840	55.1880
 1.0850	55.1730
 1.0860	55.1590
 1.0870	55.1400
 1.0880	55.1190
 1.0890	55.0990
 1.0900	55.0730
 1.0910	55.0510
 1.0920	55.0340
 1.0930	55.0080
 1.0940	54.9800
 1.0950	54.9490
 1.0960	54.9130
 1.0970	54.8790
 1.0980	54.8460
 1.0990	54.8110
 1.1000	54.7760
 1.1010	54.7400
 1.1020	54.7010
 1.1030	54.6630
 1.1040	54.6230
 1.1050	54.5800
 1.1060	54.5350
 1.1070	54.4860
 1.1080	54.4380
 1.1090	54.3890
 1.1100	54.3410
 1.1110	54.2960
 1.1120	54.2430
 1.1130	54.1860
 1.1140	54.1270
 1.1150	54.0640
 1.1160	53.9990
 1.1170	53.9350
 1.1180	53.8630
 1.1190	53.7880
 1.1200	53.7020
 1.1210	53.6080
 1.1220	53.5070
 1.1230	53.3960
 1.1240	53.2750
 1.1250	53.1430
 1.1260	53.0060
 1.1270	52.8480
 1.1280	52.6780
 1.1290	52.4920
 1.1300	52.2920
 1.1310	52.0750
 1.1320	51.8450
 1.1330	51.5990
 1.1340	51.3370
 1.1350	51.0610
 1.1360	50.7710
 1.1370	50.4650
 1.1380	50.1490
 1.1390	49.8240
 1.1400	49.4920
 1.1410	49.1580
 1.1420	48.8160
 1.1430	48.4730
 1.1440	48.1380
 1.1450	47.7970
 1.1460	47.4750
 1.1470	47.1560
 1.1480	46.8550
 1.1490	46.5610
 1.1500	46.2920
 1.1510	46.0380
 1.1520	45.8030
 1.1530	45.5870
 1.1540	45.3880
 1.1550	45.2070
 1.1560	45.0450
 1.1570	44.8990
 1.1580	44.7720
 1.1590	44.6620
 1.1600	44.5650
 1.1610	44.4830
 1.1620	44.4110
 1.1630	44.3460
 1.1640	44.2880
 1.1650	44.2380
 1.1660	44.2000
 1.1670	44.1630
 1.1680	44.1340
 1.1690	44.1060
 1.1700	44.0810
 1.1710	44.0560
 1.1720	44.0360
 1.1730	44.0130
 1.1740	43.9890
 1.1750	43.9680
 1.1760	43.9460
 1.1770	43.9220
 1.1780	43.8960
 1.1790	43.8700
 1.1800	43.8400
 1.1810	43.8130
 1.1820	43.7840
 1.1830	43.7520
 1.1840	43.7200
 1.1850	43.6890
 1.1860	43.6590
 1.1870	43.6320
 1.1880	43.6060
 1.1890	43.5810
 1.1900	43.5610
 1.1910	43.5430
 1.1920	43.5280
 1.1930	43.5180
 1.1940	43.5100
 1.1950	43.5040
 1.1960	43.5020
 1.1970	43.5050
 1.1980	43.5110
 1.1990	43.5210
 1.2000	43.5350
 1.2010	43.5500
 1.2020	43.5700
 1.2030	43.5890
 1.2040	43.6120
 1.2050	43.6400
 1.2060	43.6670
 1.2070	43.6970
 1.2080	43.7280
 1.2090	43.7590
 1.2100	43.7930
 1.2110	43.8320
 1.2120	43.8750
 1.2130	43.9210
 1.2140	43.9710
 1.2150	44.0210
 1.2160	44.0730
 1.2170	44.1250
 1.2180	44.1770
 1.2190	44.2330
 1.2200	44.2870
 1.2210	44.3430
 1.2220	44.4000
 1.2230	44.4550
 1.2240	44.5140
 1.2250	44.5710
 1.2260	44.6270
 1.2270	44.6840
 1.2280	44.7400
 1.2290	44.7950
 1.2300	44.8520
 1.2310	44.9060
 1.2320	44.9590
 1.2330	45.0120
 1.2340	45.0630
 1.2350	45.1130
 1.2360	45.1610
 1.2370	45.2090
 1.2380	45.2540
 1.2390	45.2970
 1.2400	45.3390
 1.2410	45.3820
 1.2420	45.4230
 1.2430	45.4660
 1.2440	45.5070
 1.2450	45.5420
 1.2460	45.5780
 1.2470	45.6120
 1.2480	45.6450
 1.2490	45.6790
 1.2500	45.7130
 1.2510	45.7440
 1.2520	45.7740
 1.2530	45.8020
 1.2540	45.8270
 1.2550	45.8500
 1.2560	45.8710
 1.2570	45.8910
 1.2580	45.9070
 1.2590	45.9220
 1.2600	45.9350
 1.2610	45.9450
 1.2620	45.9510
 1.2630	45.9550
 1.2640	45.9590
 1.2650	45.9610
 1.2660	45.9610
 1.2670	45.9610
 1.2680	45.9600
 1.2690	45.9550
 1.2700	45.9470
 1.2710	45.9330
 1.2720	45.9170
 1.2730	45.9000
 1.2740	45.8810
 1.2750	45.8630
 1.2760	45.8420
 1.2770	45.8160
 1.2780	45.7880
 1.2790	45.7600
 1.2800	45.7300
 1.2810	45.6970
 1.2820	45.6610
 1.2830	45.6200
 1.2840	45.5740
 1.2850	45.5270
 1.2860	45.4770
 1.2870	45.4240
 1.2880	45.3670
 1.2890	45.3080
 1.2900	45.2430
 1.2910	45.1740
 1.2920	45.1020
 1.2930	45.0250
 1.2940	44.9430
 1.2950	44.8580
 1.2960	44.7690
 1.2970	44.6760
 1.2980	44.5790
 1.2990	44.4770
 1.3000	44.3690
 1.3010	44.2570
 1.3020	44.1390
 1.3030	44.0140
 1.3040	43.8820
 1.3050	43.7460
 1.3060	43.6050
 1.3070	43.4590
 1.3080	43.3100
 1.3090	43.1540
 1.3100	42.9920
 1.3110	42.8250
 1.3120	42.6510
 1.3130	42.4740
 1.3140	42.2890
 1.3150	42.0990
 1.3160	41.9030
 1.3170	41.7040
 1.3180	41.4960
 1.3190	41.2830
 1.3200	41.0640
 1.3210	40.8380
 1.3220	40.6080
 1.3230	40.3750
 1.3240	40.1370
 1.3250	39.8990
 1.3260	39.6570
 1.3270	39.4130
 1.3280	39.1640
 1.3290	38.9090
 1.3300	38.6550
 1.3310	38.3990
 1.3320	38.1420
 1.3330	37.8870
 1.3340	37.6310
 1.3350	37.3730
 1.3360	37.1190
 1.3370	36.8650
 1.3380	36.6130
 1.3390	36.3640
 1.3400	36.1150
 1.3410	35.8710
 1.3420	35.6290
 1.3430	35.3910
 1.3440	35.1590
 1.3450	34.9310
 1.3460	34.7060
 1.3470	34.4870
 1.3480	34.2720
 1.3490	34.0620
 1.3500	33.8550
 1.3510	33.6510
 1.3520	33.4500
 1.3530	33.2520
 1.3540	33.0530
 1.3550	32.8570
 1.3560	32.6620
 1.3570	32.4640
 1.3580	32.2670
 1.3590	32.0670
 1.3600	31.8620
 1.3610	31.6540
 1.3620	31.4380
 1.3630	31.2160
 1.3640	30.9890
 1.3650	30.7510
 1.3660	30.5090
 1.3670	30.2550
 1.3680	29.9880
 1.3690	29.7090
 1.3700	29.4130
 1.3710	29.1030
 1.3720	28.7800
 1.3730	28.4390
 1.3740	28.0840
 1.3750	27.7150
 1.3760	27.3230
 1.3770	26.9110
 1.3780	26.4760
 1.3790	26.0200
 1.3800	25.5440
 1.3810	25.0460
 1.3820	24.5380
 1.3830	24.0120
 1.3840	23.4780
 1.3850	22.9300
 1.3860	22.3800
 1.3870	21.8170
 1.3880	21.2620
 1.3890	20.7030
 1.3900	20.1470
 1.3910	19.6030
 1.3920	19.0630
 1.3930	18.5310
 1.3940	18.0130
 1.3950	17.5030
 1.3960	17.0090
 1.3970	16.5350
 1.3980	16.0790
 1.3990	15.6470
 1.4000	15.2360
 1.4010	14.8430
 1.4020	14.4720
 1.4030	14.1210
 1.4040	13.7900
 1.4050	13.4800
 1.4060	13.1900
 1.4070	12.9210
 1.4080	12.6710
 1.4090	12.4380
 1.4100	12.2230
 1.4110	12.0210
 1.4120	11.8350
 1.4130	11.6650
 1.4140	11.5070
 1.4150	11.3650
 1.4160	11.2330
 1.4170	11.1120
 1.4180	11.0020
 1.4190	10.8990
 1.4200	10.8060
 1.4210	10.7210
 1.4220	10.6430
 1.4230	10.5730
 1.4240	10.5100
 1.4250	10.4520
 1.4260	10.4010
 1.4270	10.3530
 1.4280	10.3100
 1.4290	10.2720
 1.4300	10.2380
 1.4310	10.2080
 1.4320	10.1840
 1.4330	10.1610
 1.4340	10.1440
 1.4350	10.1280
 1.4360	10.1140
 1.4370	10.1030
 1.4380	10.0960
 1.4390	10.0900
 1.4400	10.0860
 1.4410	10.0850
 1.4420	10.0860
 1.4430	10.0870
 1.4440	10.0910
 1.4450	10.0960
 1.4460	10.1010
 1.4470	10.1080
 1.4480	10.1150
 1.4490	10.1230
 1.4500	10.1330
 1.4510	10.1430
 1.4520	10.1550
 1.4530	10.1680
 1.4540	10.1810
 1.4550	10.1960
 1.4560	10.2130
 1.4570	10.2310
 1.4580	10.2500
 1.4590	10.2710
 1.4600	10.2950
 1.4610	10.3210
 1.4620	10.3500
 1.4630	10.3820
 1.4640	10.4160
 1.4650	10.4530
 1.4660	10.4930
 1.4670	10.5360
 1.4680	10.5820
 1.4690	10.6320
 1.4700	10.6830
