Name: Salvia leucophylla 1
Type: vegetation
Class: Shrub
Genus: Salvia
Species: leucophylla
Sample No.: VH092
Owner: UCSB
Wavelength Range: VSWIR
Origin: 34.698; -120.0477; WGS84
Collection Date: 4/21/2013
Description: Samples were collected as part of the HyspIRI Airborne Campaign. 48 individual plants were sampled in three times in 2013 - spring  summer  and fall. The name of the sample includes a 1  2  or 3 which references a different individual of the species. Samples were taken to JPL and processed within 48 hours of collection. The same leaves were processed in the Nicolet and then measured using the ASD.
Measurement: Bidirectional reflectance
First Column: X
Second Column: Y
X Units: Wavelength (micrometers)
Y Units: Reflectance (percentage)
First X Value: 0.35
Last X Value: 2.5
Number of X Values: 2151
Additional Information: vegetation.shrub.salvia.leucophylla.vswir.vh092.ucsb.asd.ancillary.txt

 0.3500	 3.2460
 0.3510	 3.1220
 0.3520	 3.1980
 0.3530	 3.2910
 0.3540	 3.2630
 0.3550	 3.3130
 0.3560	 3.2510
 0.3570	 3.2090
 0.3580	 3.4200
 0.3590	 3.4440
 0.3600	 3.4320
 0.3610	 3.4950
 0.3620	 3.6050
 0.3630	 3.6080
 0.3640	 3.6360
 0.3650	 3.8070
 0.3660	 3.9180
 0.3670	 3.9760
 0.3680	 4.0260
 0.3690	 4.1330
 0.3700	 4.2540
 0.3710	 4.3680
 0.3720	 4.4690
 0.3730	 4.5740
 0.3740	 4.7510
 0.3750	 4.9410
 0.3760	 5.0630
 0.3770	 5.1270
 0.3780	 5.3030
 0.3790	 5.5720
 0.3800	 5.7610
 0.3810	 5.9690
 0.3820	 6.2000
 0.3830	 6.4330
 0.3840	 6.6220
 0.3850	 6.8370
 0.3860	 7.0640
 0.3870	 7.2670
 0.3880	 7.4900
 0.3890	 7.7460
 0.3900	 8.0220
 0.3910	 8.2830
 0.3920	 8.5860
 0.3930	 8.8610
 0.3940	 9.0670
 0.3950	 9.2850
 0.3960	 9.5860
 0.3970	 9.9060
 0.3980	10.1310
 0.3990	10.3040
 0.4000	10.5260
 0.4010	10.8120
 0.4020	11.0650
 0.4030	11.3130
 0.4040	11.5250
 0.4050	11.7000
 0.4060	11.9610
 0.4070	12.2140
 0.4080	12.4310
 0.4090	12.6350
 0.4100	12.8370
 0.4110	13.0380
 0.4120	13.2390
 0.4130	13.4480
 0.4140	13.6460
 0.4150	13.8480
 0.4160	14.0690
 0.4170	14.2570
 0.4180	14.4310
 0.4190	14.6060
 0.4200	14.7950
 0.4210	15.0150
 0.4220	15.2060
 0.4230	15.3460
 0.4240	15.5480
 0.4250	15.7150
 0.4260	15.8520
 0.4270	16.0090
 0.4280	16.1730
 0.4290	16.3310
 0.4300	16.4750
 0.4310	16.6030
 0.4320	16.7530
 0.4330	16.9050
 0.4340	17.0330
 0.4350	17.1520
 0.4360	17.2610
 0.4370	17.3570
 0.4380	17.4400
 0.4390	17.4990
 0.4400	17.5750
 0.4410	17.6790
 0.4420	17.7500
 0.4430	17.8230
 0.4440	17.9060
 0.4450	17.9920
 0.4460	18.0580
 0.4470	18.1330
 0.4480	18.2150
 0.4490	18.2700
 0.4500	18.3360
 0.4510	18.4050
 0.4520	18.4620
 0.4530	18.5110
 0.4540	18.5510
 0.4550	18.5930
 0.4560	18.6530
 0.4570	18.7020
 0.4580	18.7460
 0.4590	18.7890
 0.4600	18.8310
 0.4610	18.8560
 0.4620	18.8780
 0.4630	18.9160
 0.4640	18.9490
 0.4650	18.9870
 0.4660	19.0280
 0.4670	19.0550
 0.4680	19.0690
 0.4690	19.0850
 0.4700	19.1180
 0.4710	19.1570
 0.4720	19.1750
 0.4730	19.1810
 0.4740	19.2030
 0.4750	19.2270
 0.4760	19.2470
 0.4770	19.2620
 0.4780	19.2770
 0.4790	19.2980
 0.4800	19.3250
 0.4810	19.3570
 0.4820	19.3780
 0.4830	19.4040
 0.4840	19.4360
 0.4850	19.4610
 0.4860	19.4790
 0.4870	19.4940
 0.4880	19.5130
 0.4890	19.5410
 0.4900	19.5670
 0.4910	19.5900
 0.4920	19.6160
 0.4930	19.6420
 0.4940	19.6670
 0.4950	19.6930
 0.4960	19.7230
 0.4970	19.7450
 0.4980	19.7670
 0.4990	19.7990
 0.5000	19.8350
 0.5010	19.8670
 0.5020	19.8950
 0.5030	19.9240
 0.5040	19.9670
 0.5050	20.0090
 0.5060	20.0420
 0.5070	20.0840
 0.5080	20.1330
 0.5090	20.1880
 0.5100	20.2470
 0.5110	20.2990
 0.5120	20.3580
 0.5130	20.4260
 0.5140	20.4910
 0.5150	20.5640
 0.5160	20.6460
 0.5170	20.7340
 0.5180	20.8190
 0.5190	20.9060
 0.5200	20.9990
 0.5210	21.0950
 0.5220	21.1970
 0.5230	21.3000
 0.5240	21.4040
 0.5250	21.5050
 0.5260	21.6060
 0.5270	21.7020
 0.5280	21.7870
 0.5290	21.8760
 0.5300	21.9670
 0.5310	22.0540
 0.5320	22.1270
 0.5330	22.1980
 0.5340	22.2690
 0.5350	22.3370
 0.5360	22.4020
 0.5370	22.4630
 0.5380	22.5190
 0.5390	22.5700
 0.5400	22.6280
 0.5410	22.6970
 0.5420	22.7690
 0.5430	22.8290
 0.5440	22.8800
 0.5450	22.9220
 0.5460	22.9530
 0.5470	22.9640
 0.5480	22.9690
 0.5490	22.9810
 0.5500	23.0090
 0.5510	23.0310
 0.5520	23.0460
 0.5530	23.0540
 0.5540	23.0570
 0.5550	23.0490
 0.5560	23.0340
 0.5570	23.0240
 0.5580	23.0040
 0.5590	22.9800
 0.5600	22.9570
 0.5610	22.9290
 0.5620	22.8970
 0.5630	22.8640
 0.5640	22.8320
 0.5650	22.7900
 0.5660	22.7440
 0.5670	22.6980
 0.5680	22.6520
 0.5690	22.5980
 0.5700	22.5410
 0.5710	22.4890
 0.5720	22.4550
 0.5730	22.4210
 0.5740	22.3830
 0.5750	22.3420
 0.5760	22.2940
 0.5770	22.2470
 0.5780	22.2060
 0.5790	22.1710
 0.5800	22.1450
 0.5810	22.1270
 0.5820	22.1100
 0.5830	22.0940
 0.5840	22.0740
 0.5850	22.0520
 0.5860	22.0320
 0.5870	22.0230
 0.5880	22.0160
 0.5890	22.0020
 0.5900	21.9910
 0.5910	21.9800
 0.5920	21.9740
 0.5930	21.9770
 0.5940	21.9920
 0.5950	22.0050
 0.5960	22.0110
 0.5970	22.0160
 0.5980	22.0140
 0.5990	22.0050
 0.6000	21.9950
 0.6010	21.9810
 0.6020	21.9660
 0.6030	21.9510
 0.6040	21.9370
 0.6050	21.9170
 0.6060	21.8940
 0.6070	21.8690
 0.6080	21.8490
 0.6090	21.8350
 0.6100	21.8320
 0.6110	21.8370
 0.6120	21.8050
 0.6130	21.7530
 0.6140	21.7000
 0.6150	21.6570
 0.6160	21.6210
 0.6170	21.5930
 0.6180	21.5730
 0.6190	21.5520
 0.6200	21.5320
 0.6210	21.5170
 0.6220	21.5070
 0.6230	21.4930
 0.6240	21.4780
 0.6250	21.4660
 0.6260	21.4600
 0.6270	21.4540
 0.6280	21.4500
 0.6290	21.4520
 0.6300	21.4530
 0.6310	21.4500
 0.6320	21.4440
 0.6330	21.4360
 0.6340	21.4300
 0.6350	21.4220
 0.6360	21.4110
 0.6370	21.4040
 0.6380	21.3950
 0.6390	21.3820
 0.6400	21.3660
 0.6410	21.3470
 0.6420	21.3270
 0.6430	21.3080
 0.6440	21.2870
 0.6450	21.2630
 0.6460	21.2380
 0.6470	21.2160
 0.6480	21.1960
 0.6490	21.1750
 0.6500	21.1530
 0.6510	21.1360
 0.6520	21.1180
 0.6530	21.0980
 0.6540	21.0740
 0.6550	21.0520
 0.6560	21.0290
 0.6570	21.0050
 0.6580	20.9790
 0.6590	20.9520
 0.6600	20.9260
 0.6610	20.9020
 0.6620	20.8790
 0.6630	20.8580
 0.6640	20.8370
 0.6650	20.8170
 0.6660	20.8000
 0.6670	20.7900
 0.6680	20.7850
 0.6690	20.7790
 0.6700	20.7770
 0.6710	20.7790
 0.6720	20.7830
 0.6730	20.7830
 0.6740	20.7910
 0.6750	20.8020
 0.6760	20.8110
 0.6770	20.8210
 0.6780	20.8350
 0.6790	20.8540
 0.6800	20.8760
 0.6810	20.9020
 0.6820	20.9260
 0.6830	20.9530
 0.6840	20.9930
 0.6850	21.0370
 0.6860	21.0870
 0.6870	21.1510
 0.6880	21.2250
 0.6890	21.3120
 0.6900	21.4150
 0.6910	21.5340
 0.6920	21.6780
 0.6930	21.8470
 0.6940	22.0390
 0.6950	22.2610
 0.6960	22.5110
 0.6970	22.7880
 0.6980	23.0920
 0.6990	23.4250
 0.7000	23.7830
 0.7010	24.1630
 0.7020	24.5640
 0.7030	24.9870
 0.7040	25.4270
 0.7050	25.8810
 0.7060	26.3520
 0.7070	26.8340
 0.7080	27.3250
 0.7090	27.8300
 0.7100	28.3400
 0.7110	28.8630
 0.7120	29.3990
 0.7130	29.9410
 0.7140	30.4920
 0.7150	31.0520
 0.7160	31.6190
 0.7170	32.1880
 0.7180	32.7660
 0.7190	33.3490
 0.7200	33.9310
 0.7210	34.5140
 0.7220	35.0970
 0.7230	35.6770
 0.7240	36.2550
 0.7250	36.8240
 0.7260	37.3850
 0.7270	37.9370
 0.7280	38.4770
 0.7290	39.0020
 0.7300	39.5120
 0.7310	40.0050
 0.7320	40.4820
 0.7330	40.9430
 0.7340	41.3890
 0.7350	41.8160
 0.7360	42.2270
 0.7370	42.6220
 0.7380	43.0000
 0.7390	43.3600
 0.7400	43.6980
 0.7410	44.0180
 0.7420	44.3250
 0.7430	44.6150
 0.7440	44.8900
 0.7450	45.1500
 0.7460	45.3920
 0.7470	45.6230
 0.7480	45.8390
 0.7490	46.0380
 0.7500	46.2260
 0.7510	46.4020
 0.7520	46.5680
 0.7530	46.7220
 0.7540	46.8680
 0.7550	47.0060
 0.7560	47.1350
 0.7570	47.2500
 0.7580	47.3630
 0.7590	47.4680
 0.7600	47.5620
 0.7610	47.6540
 0.7620	47.7390
 0.7630	47.8190
 0.7640	47.8960
 0.7650	47.9720
 0.7660	48.0420
 0.7670	48.1070
 0.7680	48.1730
 0.7690	48.2260
 0.7700	48.2790
 0.7710	48.3350
 0.7720	48.3850
 0.7730	48.4340
 0.7740	48.4840
 0.7750	48.5360
 0.7760	48.5830
 0.7770	48.6270
 0.7780	48.6710
 0.7790	48.7190
 0.7800	48.7590
 0.7810	48.7990
 0.7820	48.8400
 0.7830	48.8760
 0.7840	48.9170
 0.7850	48.9580
 0.7860	48.9960
 0.7870	49.0280
 0.7880	49.0630
 0.7890	49.1000
 0.7900	49.1350
 0.7910	49.1700
 0.7920	49.2020
 0.7930	49.2310
 0.7940	49.2600
 0.7950	49.2870
 0.7960	49.3140
 0.7970	49.3420
 0.7980	49.3670
 0.7990	49.3970
 0.8000	49.4270
 0.8010	49.4500
 0.8020	49.4730
 0.8030	49.4930
 0.8040	49.5110
 0.8050	49.5300
 0.8060	49.5470
 0.8070	49.5650
 0.8080	49.5820
 0.8090	49.5990
 0.8100	49.6140
 0.8110	49.6330
 0.8120	49.6540
 0.8130	49.6610
 0.8140	49.6650
 0.8150	49.6740
 0.8160	49.6910
 0.8170	49.7080
 0.8180	49.7180
 0.8190	49.7250
 0.8200	49.7370
 0.8210	49.7490
 0.8220	49.7570
 0.8230	49.7610
 0.8240	49.7670
 0.8250	49.7720
 0.8260	49.7790
 0.8270	49.7880
 0.8280	49.7930
 0.8290	49.7910
 0.8300	49.7910
 0.8310	49.7990
 0.8320	49.8040
 0.8330	49.8140
 0.8340	49.8240
 0.8350	49.8270
 0.8360	49.8240
 0.8370	49.8300
 0.8380	49.8440
 0.8390	49.8510
 0.8400	49.8580
 0.8410	49.8690
 0.8420	49.8840
 0.8430	49.9000
 0.8440	49.9120
 0.8450	49.9200
 0.8460	49.9290
 0.8470	49.9440
 0.8480	49.9530
 0.8490	49.9620
 0.8500	49.9810
 0.8510	49.9940
 0.8520	50.0040
 0.8530	50.0140
 0.8540	50.0280
 0.8550	50.0400
 0.8560	50.0570
 0.8570	50.0770
 0.8580	50.0960
 0.8590	50.1100
 0.8600	50.1270
 0.8610	50.1480
 0.8620	50.1600
 0.8630	50.1770
 0.8640	50.1940
 0.8650	50.2070
 0.8660	50.2270
 0.8670	50.2490
 0.8680	50.2670
 0.8690	50.2830
 0.8700	50.3070
 0.8710	50.3260
 0.8720	50.3420
 0.8730	50.3640
 0.8740	50.3830
 0.8750	50.4070
 0.8760	50.4330
 0.8770	50.4510
 0.8780	50.4670
 0.8790	50.4900
 0.8800	50.5160
 0.8810	50.5310
 0.8820	50.5560
 0.8830	50.5840
 0.8840	50.6070
 0.8850	50.6180
 0.8860	50.6340
 0.8870	50.6590
 0.8880	50.6910
 0.8890	50.7080
 0.8900	50.7290
 0.8910	50.7550
 0.8920	50.7800
 0.8930	50.7950
 0.8940	50.8150
 0.8950	50.8370
 0.8960	50.8540
 0.8970	50.8750
 0.8980	50.9010
 0.8990	50.9270
 0.9000	50.9450
 0.9010	50.9630
 0.9020	50.9820
 0.9030	51.0030
 0.9040	51.0240
 0.9050	51.0430
 0.9060	51.0660
 0.9070	51.0940
 0.9080	51.1050
 0.9090	51.1240
 0.9100	51.1400
 0.9110	51.1460
 0.9120	51.1760
 0.9130	51.2140
 0.9140	51.2370
 0.9150	51.2380
 0.9160	51.2550
 0.9170	51.2720
 0.9180	51.2850
 0.9190	51.2960
 0.9200	51.3070
 0.9210	51.3320
 0.9220	51.3570
 0.9230	51.3590
 0.9240	51.3780
 0.9250	51.3940
 0.9260	51.3960
 0.9270	51.3870
 0.9280	51.3970
 0.9290	51.4110
 0.9300	51.4160
 0.9310	51.4080
 0.9320	51.4080
 0.9330	51.4110
 0.9340	51.4120
 0.9350	51.4140
 0.9360	51.4000
 0.9370	51.3930
 0.9380	51.3990
 0.9390	51.3960
 0.9400	51.3690
 0.9410	51.3460
 0.9420	51.3430
 0.9430	51.3300
 0.9440	51.2970
 0.9450	51.2620
 0.9460	51.2420
 0.9470	51.2260
 0.9480	51.1950
 0.9490	51.1610
 0.9500	51.1270
 0.9510	51.0690
 0.9520	51.0210
 0.9530	50.9760
 0.9540	50.9220
 0.9550	50.8780
 0.9560	50.8230
 0.9570	50.7710
 0.9580	50.7370
 0.9590	50.6970
 0.9600	50.6530
 0.9610	50.6180
 0.9620	50.5970
 0.9630	50.5540
 0.9640	50.5310
 0.9650	50.5250
 0.9660	50.5190
 0.9670	50.5100
 0.9680	50.4850
 0.9690	50.4680
 0.9700	50.4780
 0.9710	50.4770
 0.9720	50.4720
 0.9730	50.4680
 0.9740	50.4640
 0.9750	50.4470
 0.9760	50.4490
 0.9770	50.4640
 0.9780	50.4700
 0.9790	50.4860
 0.9800	50.5000
 0.9810	50.5080
 0.9820	50.5130
 0.9830	50.5210
 0.9840	50.5520
 0.9850	50.5780
 0.9860	50.5700
 0.9870	50.5960
 0.9880	50.6180
 0.9890	50.6350
 0.9900	50.6620
 0.9910	50.7050
 0.9920	50.7260
 0.9930	50.7470
 0.9940	50.7690
 0.9950	50.7900
 0.9960	50.8120
 0.9970	50.8330
 0.9980	50.8550
 0.9990	50.8760
 1.0000	50.8970
 1.0010	50.9190
 1.0020	50.9400
 1.0030	50.9620
 1.0040	50.9830
 1.0050	51.0050
 1.0060	51.0260
 1.0070	51.0470
 1.0080	51.0690
 1.0090	51.0900
 1.0100	51.0900
 1.0110	51.1160
 1.0120	51.1460
 1.0130	51.1790
 1.0140	51.2070
 1.0150	51.2320
 1.0160	51.2610
 1.0170	51.2880
 1.0180	51.3140
 1.0190	51.3460
 1.0200	51.3780
 1.0210	51.4010
 1.0220	51.4250
 1.0230	51.4520
 1.0240	51.4790
 1.0250	51.5090
 1.0260	51.5470
 1.0270	51.5740
 1.0280	51.5960
 1.0290	51.6210
 1.0300	51.6410
 1.0310	51.6660
 1.0320	51.6950
 1.0330	51.7250
 1.0340	51.7520
 1.0350	51.7750
 1.0360	51.7980
 1.0370	51.8210
 1.0380	51.8430
 1.0390	51.8620
 1.0400	51.8850
 1.0410	51.9090
 1.0420	51.9310
 1.0430	51.9570
 1.0440	51.9760
 1.0450	51.9880
 1.0460	52.0050
 1.0470	52.0210
 1.0480	52.0410
 1.0490	52.0690
 1.0500	52.0900
 1.0510	52.1120
 1.0520	52.1290
 1.0530	52.1460
 1.0540	52.1600
 1.0550	52.1760
 1.0560	52.1920
 1.0570	52.2090
 1.0580	52.2230
 1.0590	52.2410
 1.0600	52.2630
 1.0610	52.2810
 1.0620	52.3020
 1.0630	52.3170
 1.0640	52.3220
 1.0650	52.3320
 1.0660	52.3410
 1.0670	52.3510
 1.0680	52.3620
 1.0690	52.3770
 1.0700	52.3870
 1.0710	52.3940
 1.0720	52.4030
 1.0730	52.4110
 1.0740	52.4200
 1.0750	52.4300
 1.0760	52.4390
 1.0770	52.4480
 1.0780	52.4550
 1.0790	52.4610
 1.0800	52.4680
 1.0810	52.4770
 1.0820	52.4830
 1.0830	52.4900
 1.0840	52.4950
 1.0850	52.4980
 1.0860	52.4990
 1.0870	52.4980
 1.0880	52.4940
 1.0890	52.4940
 1.0900	52.4920
 1.0910	52.4910
 1.0920	52.4950
 1.0930	52.4930
 1.0940	52.4860
 1.0950	52.4830
 1.0960	52.4790
 1.0970	52.4750
 1.0980	52.4740
 1.0990	52.4700
 1.1000	52.4640
 1.1010	52.4590
 1.1020	52.4550
 1.1030	52.4490
 1.1040	52.4420
 1.1050	52.4360
 1.1060	52.4280
 1.1070	52.4200
 1.1080	52.4120
 1.1090	52.4050
 1.1100	52.3950
 1.1110	52.3860
 1.1120	52.3730
 1.1130	52.3570
 1.1140	52.3430
 1.1150	52.3320
 1.1160	52.3150
 1.1170	52.3000
 1.1180	52.2800
 1.1190	52.2540
 1.1200	52.2280
 1.1210	52.2060
 1.1220	52.1770
 1.1230	52.1430
 1.1240	52.1070
 1.1250	52.0640
 1.1260	52.0160
 1.1270	51.9590
 1.1280	51.8980
 1.1290	51.8280
 1.1300	51.7500
 1.1310	51.6640
 1.1320	51.5720
 1.1330	51.4720
 1.1340	51.3620
 1.1350	51.2460
 1.1360	51.1220
 1.1370	50.9910
 1.1380	50.8570
 1.1390	50.7180
 1.1400	50.5740
 1.1410	50.4300
 1.1420	50.2810
 1.1430	50.1320
 1.1440	49.9830
 1.1450	49.8310
 1.1460	49.6860
 1.1470	49.5420
 1.1480	49.4060
 1.1490	49.2760
 1.1500	49.1530
 1.1510	49.0340
 1.1520	48.9250
 1.1530	48.8200
 1.1540	48.7250
 1.1550	48.6390
 1.1560	48.5620
 1.1570	48.4890
 1.1580	48.4230
 1.1590	48.3640
 1.1600	48.3070
 1.1610	48.2570
 1.1620	48.2140
 1.1630	48.1720
 1.1640	48.1320
 1.1650	48.0960
 1.1660	48.0630
 1.1670	48.0310
 1.1680	48.0030
 1.1690	47.9750
 1.1700	47.9470
 1.1710	47.9190
 1.1720	47.8950
 1.1730	47.8660
 1.1740	47.8370
 1.1750	47.8080
 1.1760	47.7760
 1.1770	47.7460
 1.1780	47.7140
 1.1790	47.6830
 1.1800	47.6540
 1.1810	47.6230
 1.1820	47.5930
 1.1830	47.5660
 1.1840	47.5370
 1.1850	47.5120
 1.1860	47.4880
 1.1870	47.4650
 1.1880	47.4490
 1.1890	47.4350
 1.1900	47.4260
 1.1910	47.4220
 1.1920	47.4200
 1.1930	47.4190
 1.1940	47.4210
 1.1950	47.4270
 1.1960	47.4350
 1.1970	47.4440
 1.1980	47.4540
 1.1990	47.4680
 1.2000	47.4870
 1.2010	47.5050
 1.2020	47.5260
 1.2030	47.5500
 1.2040	47.5730
 1.2050	47.6000
 1.2060	47.6300
 1.2070	47.6600
 1.2080	47.6920
 1.2090	47.7260
 1.2100	47.7610
 1.2110	47.8000
 1.2120	47.8410
 1.2130	47.8840
 1.2140	47.9320
 1.2150	47.9790
 1.2160	48.0270
 1.2170	48.0760
 1.2180	48.1280
 1.2190	48.1800
 1.2200	48.2340
 1.2210	48.2900
 1.2220	48.3430
 1.2230	48.3950
 1.2240	48.4460
 1.2250	48.4960
 1.2260	48.5440
 1.2270	48.5930
 1.2280	48.6400
 1.2290	48.6850
 1.2300	48.7270
 1.2310	48.7670
 1.2320	48.8060
 1.2330	48.8440
 1.2340	48.8810
 1.2350	48.9160
 1.2360	48.9500
 1.2370	48.9820
 1.2380	49.0150
 1.2390	49.0480
 1.2400	49.0770
 1.2410	49.1060
 1.2420	49.1340
 1.2430	49.1620
 1.2440	49.1900
 1.2450	49.2210
 1.2460	49.2500
 1.2470	49.2760
 1.2480	49.3010
 1.2490	49.3210
 1.2500	49.3390
 1.2510	49.3580
 1.2520	49.3740
 1.2530	49.3910
 1.2540	49.4090
 1.2550	49.4280
 1.2560	49.4470
 1.2570	49.4640
 1.2580	49.4770
 1.2590	49.4900
 1.2600	49.5010
 1.2610	49.5110
 1.2620	49.5190
 1.2630	49.5280
 1.2640	49.5350
 1.2650	49.5380
 1.2660	49.5420
 1.2670	49.5460
 1.2680	49.5470
 1.2690	49.5470
 1.2700	49.5450
 1.2710	49.5400
 1.2720	49.5340
 1.2730	49.5300
 1.2740	49.5250
 1.2750	49.5190
 1.2760	49.5130
 1.2770	49.5050
 1.2780	49.4960
 1.2790	49.4860
 1.2800	49.4740
 1.2810	49.4630
 1.2820	49.4520
 1.2830	49.4380
 1.2840	49.4220
 1.2850	49.4050
 1.2860	49.3860
 1.2870	49.3650
 1.2880	49.3420
 1.2890	49.3190
 1.2900	49.2920
 1.2910	49.2620
 1.2920	49.2320
 1.2930	49.1990
 1.2940	49.1650
 1.2950	49.1280
 1.2960	49.0900
 1.2970	49.0510
 1.2980	49.0050
 1.2990	48.9590
 1.3000	48.9120
 1.3010	48.8620
 1.3020	48.8120
 1.3030	48.7570
 1.3040	48.6980
 1.3050	48.6350
 1.3060	48.5690
 1.3070	48.5020
 1.3080	48.4340
 1.3090	48.3610
 1.3100	48.2850
 1.3110	48.2050
 1.3120	48.1190
 1.3130	48.0330
 1.3140	47.9420
 1.3150	47.8480
 1.3160	47.7520
 1.3170	47.6530
 1.3180	47.5520
 1.3190	47.4510
 1.3200	47.3490
 1.3210	47.2410
 1.3220	47.1280
 1.3230	47.0140
 1.3240	46.8950
 1.3250	46.7770
 1.3260	46.6580
 1.3270	46.5340
 1.3280	46.4100
 1.3290	46.2820
 1.3300	46.1540
 1.3310	46.0260
 1.3320	45.8950
 1.3330	45.7610
 1.3340	45.6290
 1.3350	45.4940
 1.3360	45.3590
 1.3370	45.2230
 1.3380	45.0880
 1.3390	44.9530
 1.3400	44.8180
 1.3410	44.6860
 1.3420	44.5570
 1.3430	44.4260
 1.3440	44.2950
 1.3450	44.1650
 1.3460	44.0330
 1.3470	43.9050
 1.3480	43.7790
 1.3490	43.6540
 1.3500	43.5310
 1.3510	43.4090
 1.3520	43.2860
 1.3530	43.1640
 1.3540	43.0420
 1.3550	42.9180
 1.3560	42.7960
 1.3570	42.6720
 1.3580	42.5470
 1.3590	42.4220
 1.3600	42.2930
 1.3610	42.1630
 1.3620	42.0290
 1.3630	41.8890
 1.3640	41.7470
 1.3650	41.6000
 1.3660	41.4470
 1.3670	41.2880
 1.3680	41.1200
 1.3690	40.9430
 1.3700	40.7560
 1.3710	40.5600
 1.3720	40.3520
 1.3730	40.1290
 1.3740	39.8950
 1.3750	39.6460
 1.3760	39.3820
 1.3770	39.1030
 1.3780	38.8050
 1.3790	38.4910
 1.3800	38.1650
 1.3810	37.8200
 1.3820	37.4650
 1.3830	37.0960
 1.3840	36.7170
 1.3850	36.3260
 1.3860	35.9290
 1.3870	35.5180
 1.3880	35.1090
 1.3890	34.6920
 1.3900	34.2720
 1.3910	33.8580
 1.3920	33.4430
 1.3930	33.0280
 1.3940	32.6190
 1.3950	32.2100
 1.3960	31.8100
 1.3970	31.4210
 1.3980	31.0410
 1.3990	30.6780
 1.4000	30.3270
 1.4010	29.9870
 1.4020	29.6630
 1.4030	29.3500
 1.4040	29.0500
 1.4050	28.7680
 1.4060	28.5000
 1.4070	28.2480
 1.4080	28.0120
 1.4090	27.7880
 1.4100	27.5810
 1.4110	27.3860
 1.4120	27.2050
 1.4130	27.0390
 1.4140	26.8830
 1.4150	26.7410
 1.4160	26.6100
 1.4170	26.4870
 1.4180	26.3740
 1.4190	26.2700
 1.4200	26.1730
 1.4210	26.0860
 1.4220	26.0060
 1.4230	25.9340
 1.4240	25.8690
 1.4250	25.8080
 1.4260	25.7540
 1.4270	25.7030
 1.4280	25.6570
 1.4290	25.6160
 1.4300	25.5800
 1.4310	25.5470
 1.4320	25.5200
 1.4330	25.4960
 1.4340	25.4760
 1.4350	25.4590
 1.4360	25.4460
 1.4370	25.4340
 1.4380	25.4250
 1.4390	25.4180
 1.4400	25.4130
 1.4410	25.4090
 1.4420	25.4100
 1.4430	25.4120
 1.4440	25.4140
 1.4450	25.4200
 1.4460	25.4270
 1.4470	25.4330
 1.4480	25.4410
 1.4490	25.4500
 1.4500	25.4590
 1.4510	25.4710
 1.4520	25.4840
 1.4530	25.4980
 1.4540	25.5140
 1.4550	25.5300
 1.4560	25.5480
 1.4570	25.5670
 1.4580	25.5880
 1.4590	25.6110
 1.4600	25.6370
 1.4610	25.6650
 1.4620	25.6960
 1.4630	25.7310
 1.4640	25.7680
 1.4650	25.8080
 1.4660	25.8520
 1.4670	25.9000
 1.4680	25.9500
 1.4690	26.0030
 1.4700	26.0580
