Name: Fagus grandifolia
Type: Vegetation
Class: Tree
Genus: Fagus
Species: grandifolia
Sample No.: FAGR-2-43
Owner: UCSB
Wavelength Range: VSWIR
Origin: USA; Massachusetts; Harvard Forest
Collection Date: 7/8/2013
Description: Samples were collected as part of NSF Macrosystem Biology proposal titled: Collaborative Research: Thermal controls on ecosystem metabolism and function: scaling from leaves to canopies to regions. Samples were collected and overnighted to JPL facilities for processing. The same leaves were processed in the Nicolet and then measured using the ASD.
Measurement: Bidirectional reflectance
First Column: X
Second Column: Y
X Units: Wavelength (micrometers)
Y Units: Reflectance (percentage)
First X Value: 0.35
Last X Value: 2.5
Number of X Values: 2151
Additional Information: vegetation.tree.fagus.grandifolia.vswir.fagr-2-43.ucsb.asd.ancillary.txt

 0.3500	12.3270
 0.3510	12.1900
 0.3520	12.2060
 0.3530	12.2390
 0.3540	12.2130
 0.3550	12.4380
 0.3560	12.5370
 0.3570	12.4800
 0.3580	12.4050
 0.3590	12.1250
 0.3600	12.1130
 0.3610	12.3810
 0.3620	12.2410
 0.3630	12.1170
 0.3640	12.0440
 0.3650	12.0010
 0.3660	12.1380
 0.3670	12.2410
 0.3680	12.2140
 0.3690	12.0700
 0.3700	12.0570
 0.3710	12.0850
 0.3720	12.0730
 0.3730	12.0500
 0.3740	11.9080
 0.3750	11.7990
 0.3760	11.8780
 0.3770	11.9120
 0.3780	11.9400
 0.3790	12.0000
 0.3800	12.1010
 0.3810	11.9790
 0.3820	11.8080
 0.3830	11.7580
 0.3840	11.8350
 0.3850	11.9160
 0.3860	11.9290
 0.3870	11.8580
 0.3880	11.8500
 0.3890	11.9100
 0.3900	11.9750
 0.3910	11.9320
 0.3920	11.9140
 0.3930	11.9270
 0.3940	11.9390
 0.3950	11.9060
 0.3960	11.8280
 0.3970	11.7950
 0.3980	11.8940
 0.3990	11.8990
 0.4000	11.8510
 0.4010	11.8000
 0.4020	11.7790
 0.4030	11.8080
 0.4040	11.8180
 0.4050	11.7650
 0.4060	11.7710
 0.4070	11.7690
 0.4080	11.7640
 0.4090	11.8040
 0.4100	11.8090
 0.4110	11.8000
 0.4120	11.8050
 0.4130	11.8360
 0.4140	11.8670
 0.4150	11.8850
 0.4160	11.8880
 0.4170	11.8710
 0.4180	11.8640
 0.4190	11.8630
 0.4200	11.8400
 0.4210	11.8580
 0.4220	11.8760
 0.4230	11.8620
 0.4240	11.8420
 0.4250	11.8380
 0.4260	11.8430
 0.4270	11.8400
 0.4280	11.8410
 0.4290	11.8260
 0.4300	11.7980
 0.4310	11.7910
 0.4320	11.7570
 0.4330	11.7130
 0.4340	11.6860
 0.4350	11.6670
 0.4360	11.6660
 0.4370	11.6800
 0.4380	11.7000
 0.4390	11.7470
 0.4400	11.7770
 0.4410	11.7660
 0.4420	11.7660
 0.4430	11.7610
 0.4440	11.7650
 0.4450	11.7880
 0.4460	11.7650
 0.4470	11.7520
 0.4480	11.7670
 0.4490	11.7690
 0.4500	11.7730
 0.4510	11.7870
 0.4520	11.8040
 0.4530	11.7750
 0.4540	11.7640
 0.4550	11.7790
 0.4560	11.7910
 0.4570	11.7890
 0.4580	11.7890
 0.4590	11.7970
 0.4600	11.7840
 0.4610	11.7850
 0.4620	11.7960
 0.4630	11.7950
 0.4640	11.7740
 0.4650	11.7630
 0.4660	11.7670
 0.4670	11.7660
 0.4680	11.7620
 0.4690	11.7550
 0.4700	11.7500
 0.4710	11.7540
 0.4720	11.7440
 0.4730	11.7280
 0.4740	11.7330
 0.4750	11.7360
 0.4760	11.7360
 0.4770	11.7340
 0.4780	11.7220
 0.4790	11.7260
 0.4800	11.7320
 0.4810	11.7220
 0.4820	11.7060
 0.4830	11.7020
 0.4840	11.7020
 0.4850	11.6840
 0.4860	11.6800
 0.4870	11.6840
 0.4880	11.6890
 0.4890	11.7060
 0.4900	11.7130
 0.4910	11.7110
 0.4920	11.7130
 0.4930	11.7340
 0.4940	11.7540
 0.4950	11.7590
 0.4960	11.7570
 0.4970	11.7700
 0.4980	11.7920
 0.4990	11.8140
 0.5000	11.8350
 0.5010	11.8550
 0.5020	11.8750
 0.5030	11.8960
 0.5040	11.9250
 0.5050	11.9590
 0.5060	11.9960
 0.5070	12.0480
 0.5080	12.0960
 0.5090	12.1460
 0.5100	12.2100
 0.5110	12.2810
 0.5120	12.3660
 0.5130	12.4630
 0.5140	12.5570
 0.5150	12.6760
 0.5160	12.8140
 0.5170	12.9570
 0.5180	13.1080
 0.5190	13.2690
 0.5200	13.4420
 0.5210	13.6220
 0.5220	13.8100
 0.5230	13.9980
 0.5240	14.1820
 0.5250	14.3670
 0.5260	14.5530
 0.5270	14.7280
 0.5280	14.8820
 0.5290	15.0360
 0.5300	15.1800
 0.5310	15.3100
 0.5320	15.4220
 0.5330	15.5240
 0.5340	15.6170
 0.5350	15.6990
 0.5360	15.7760
 0.5370	15.8310
 0.5380	15.8680
 0.5390	15.9050
 0.5400	15.9240
 0.5410	15.9290
 0.5420	15.9280
 0.5430	15.9370
 0.5440	15.9560
 0.5450	15.9880
 0.5460	16.0380
 0.5470	16.1140
 0.5480	16.1850
 0.5490	16.2300
 0.5500	16.2500
 0.5510	16.2620
 0.5520	16.2710
 0.5530	16.2740
 0.5540	16.2600
 0.5550	16.2260
 0.5560	16.1750
 0.5570	16.1160
 0.5580	16.0470
 0.5590	15.9640
 0.5600	15.8680
 0.5610	15.7640
 0.5620	15.6540
 0.5630	15.5380
 0.5640	15.4140
 0.5650	15.2850
 0.5660	15.1560
 0.5670	15.0280
 0.5680	14.8870
 0.5690	14.7430
 0.5700	14.5990
 0.5710	14.4570
 0.5720	14.3220
 0.5730	14.2020
 0.5740	14.0970
 0.5750	13.9990
 0.5760	13.8990
 0.5770	13.8120
 0.5780	13.7450
 0.5790	13.6720
 0.5800	13.6020
 0.5810	13.5390
 0.5820	13.4850
 0.5830	13.4200
 0.5840	13.3590
 0.5850	13.3070
 0.5860	13.2540
 0.5870	13.2000
 0.5880	13.1530
 0.5890	13.1180
 0.5900	13.0870
 0.5910	13.0640
 0.5920	13.0470
 0.5930	13.0340
 0.5940	13.0160
 0.5950	13.0060
 0.5960	13.0050
 0.5970	12.9940
 0.5980	12.9730
 0.5990	12.9500
 0.6000	12.9360
 0.6010	12.9250
 0.6020	12.9110
 0.6030	12.8880
 0.6040	12.8560
 0.6050	12.8250
 0.6060	12.7960
 0.6070	12.7630
 0.6080	12.7200
 0.6090	12.6560
 0.6100	12.5670
 0.6110	12.4640
 0.6120	12.4350
 0.6130	12.4430
 0.6140	12.4500
 0.6150	12.4310
 0.6160	12.4130
 0.6170	12.3940
 0.6180	12.3710
 0.6190	12.3430
 0.6200	12.3180
 0.6210	12.2980
 0.6220	12.2840
 0.6230	12.2680
 0.6240	12.2540
 0.6250	12.2430
 0.6260	12.2340
 0.6270	12.2260
 0.6280	12.2200
 0.6290	12.2150
 0.6300	12.2040
 0.6310	12.1930
 0.6320	12.1850
 0.6330	12.1840
 0.6340	12.1770
 0.6350	12.1600
 0.6360	12.1380
 0.6370	12.1200
 0.6380	12.0980
 0.6390	12.0710
 0.6400	12.0400
 0.6410	12.0090
 0.6420	11.9800
 0.6430	11.9530
 0.6440	11.9210
 0.6450	11.8940
 0.6460	11.8700
 0.6470	11.8480
 0.6480	11.8390
 0.6490	11.8250
 0.6500	11.8060
 0.6510	11.7940
 0.6520	11.7910
 0.6530	11.7910
 0.6540	11.7880
 0.6550	11.7810
 0.6560	11.7760
 0.6570	11.7720
 0.6580	11.7680
 0.6590	11.7610
 0.6600	11.7560
 0.6610	11.7530
 0.6620	11.7450
 0.6630	11.7460
 0.6640	11.7530
 0.6650	11.7580
 0.6660	11.7570
 0.6670	11.7670
 0.6680	11.7840
 0.6690	11.7970
 0.6700	11.8120
 0.6710	11.8330
 0.6720	11.8580
 0.6730	11.8780
 0.6740	11.9020
 0.6750	11.9320
 0.6760	11.9640
 0.6770	11.9920
 0.6780	12.0260
 0.6790	12.0670
 0.6800	12.1060
 0.6810	12.1460
 0.6820	12.1900
 0.6830	12.2340
 0.6840	12.2720
 0.6850	12.3130
 0.6860	12.3560
 0.6870	12.4010
 0.6880	12.4480
 0.6890	12.5110
 0.6900	12.5960
 0.6910	12.7000
 0.6920	12.8400
 0.6930	13.0280
 0.6940	13.2740
 0.6950	13.5850
 0.6960	13.9690
 0.6970	14.4350
 0.6980	14.9890
 0.6990	15.6190
 0.7000	16.3250
 0.7010	17.1020
 0.7020	17.9390
 0.7030	18.8290
 0.7040	19.7550
 0.7050	20.7040
 0.7060	21.6760
 0.7070	22.6720
 0.7080	23.6830
 0.7090	24.7050
 0.7100	25.7310
 0.7110	26.7610
 0.7120	27.7950
 0.7130	28.8240
 0.7140	29.8510
 0.7150	30.8700
 0.7160	31.8790
 0.7170	32.8810
 0.7180	33.8740
 0.7190	34.8520
 0.7200	35.8110
 0.7210	36.7470
 0.7220	37.6660
 0.7230	38.5680
 0.7240	39.4510
 0.7250	40.2860
 0.7260	41.0920
 0.7270	41.8850
 0.7280	42.6510
 0.7290	43.3780
 0.7300	44.0640
 0.7310	44.7150
 0.7320	45.3530
 0.7330	45.9520
 0.7340	46.5080
 0.7350	47.0430
 0.7360	47.5640
 0.7370	48.0510
 0.7380	48.4900
 0.7390	48.9050
 0.7400	49.3020
 0.7410	49.6710
 0.7420	50.0030
 0.7430	50.3110
 0.7440	50.6130
 0.7450	50.8990
 0.7460	51.1360
 0.7470	51.3540
 0.7480	51.5610
 0.7490	51.7580
 0.7500	51.9440
 0.7510	52.1000
 0.7520	52.2310
 0.7530	52.3510
 0.7540	52.4840
 0.7550	52.5920
 0.7560	52.6700
 0.7570	52.7460
 0.7580	52.8370
 0.7590	52.9180
 0.7600	52.9770
 0.7610	53.0340
 0.7620	53.0820
 0.7630	53.1260
 0.7640	53.1680
 0.7650	53.1930
 0.7660	53.2300
 0.7670	53.2770
 0.7680	53.3090
 0.7690	53.3210
 0.7700	53.3370
 0.7710	53.3610
 0.7720	53.3690
 0.7730	53.3810
 0.7740	53.3950
 0.7750	53.4070
 0.7760	53.4270
 0.7770	53.4580
 0.7780	53.4850
 0.7790	53.4870
 0.7800	53.4810
 0.7810	53.4960
 0.7820	53.5300
 0.7830	53.5450
 0.7840	53.5540
 0.7850	53.5610
 0.7860	53.5680
 0.7870	53.5840
 0.7880	53.5970
 0.7890	53.6090
 0.7900	53.6220
 0.7910	53.6130
 0.7920	53.6200
 0.7930	53.6400
 0.7940	53.6410
 0.7950	53.6580
 0.7960	53.6710
 0.7970	53.6730
 0.7980	53.6790
 0.7990	53.6840
 0.8000	53.6890
 0.8010	53.6920
 0.8020	53.6930
 0.8030	53.6880
 0.8040	53.6830
 0.8050	53.6860
 0.8060	53.6870
 0.8070	53.6860
 0.8080	53.6870
 0.8090	53.6930
 0.8100	53.6770
 0.8110	53.6690
 0.8120	53.6800
 0.8130	53.6750
 0.8140	53.6590
 0.8150	53.6460
 0.8160	53.6440
 0.8170	53.6450
 0.8180	53.6290
 0.8190	53.6120
 0.8200	53.6240
 0.8210	53.6280
 0.8220	53.6260
 0.8230	53.6170
 0.8240	53.5980
 0.8250	53.6000
 0.8260	53.5960
 0.8270	53.5730
 0.8280	53.5540
 0.8290	53.5570
 0.8300	53.5620
 0.8310	53.5540
 0.8320	53.5500
 0.8330	53.5370
 0.8340	53.5260
 0.8350	53.5280
 0.8360	53.5220
 0.8370	53.5220
 0.8380	53.5240
 0.8390	53.5110
 0.8400	53.5050
 0.8410	53.5040
 0.8420	53.5070
 0.8430	53.5130
 0.8440	53.5050
 0.8450	53.4910
 0.8460	53.4840
 0.8470	53.4970
 0.8480	53.5020
 0.8490	53.4920
 0.8500	53.4780
 0.8510	53.4870
 0.8520	53.4870
 0.8530	53.4820
 0.8540	53.4960
 0.8550	53.5190
 0.8560	53.5090
 0.8570	53.4820
 0.8580	53.5050
 0.8590	53.5280
 0.8600	53.5260
 0.8610	53.5040
 0.8620	53.5040
 0.8630	53.5170
 0.8640	53.5300
 0.8650	53.5340
 0.8660	53.5270
 0.8670	53.5290
 0.8680	53.5400
 0.8690	53.5490
 0.8700	53.5480
 0.8710	53.5530
 0.8720	53.5670
 0.8730	53.5780
 0.8740	53.5910
 0.8750	53.5890
 0.8760	53.5800
 0.8770	53.5970
 0.8780	53.6100
 0.8790	53.6140
 0.8800	53.6090
 0.8810	53.5950
 0.8820	53.6200
 0.8830	53.6450
 0.8840	53.6450
 0.8850	53.6510
 0.8860	53.6530
 0.8870	53.6650
 0.8880	53.6930
 0.8890	53.6870
 0.8900	53.6700
 0.8910	53.6700
 0.8920	53.7010
 0.8930	53.7240
 0.8940	53.7270
 0.8950	53.7240
 0.8960	53.7370
 0.8970	53.7550
 0.8980	53.7640
 0.8990	53.7610
 0.9000	53.7510
 0.9010	53.7630
 0.9020	53.7770
 0.9030	53.7830
 0.9040	53.7930
 0.9050	53.8090
 0.9060	53.8230
 0.9070	53.8290
 0.9080	53.8340
 0.9090	53.8440
 0.9100	53.8460
 0.9110	53.8370
 0.9120	53.8390
 0.9130	53.8540
 0.9140	53.8750
 0.9150	53.8920
 0.9160	53.8890
 0.9170	53.8720
 0.9180	53.8770
 0.9190	53.9220
 0.9200	53.9150
 0.9210	53.9050
 0.9220	53.9090
 0.9230	53.9160
 0.9240	53.8990
 0.9250	53.9000
 0.9260	53.9240
 0.9270	53.9450
 0.9280	53.9540
 0.9290	53.9360
 0.9300	53.9140
 0.9310	53.9440
 0.9320	53.9550
 0.9330	53.9430
 0.9340	53.9140
 0.9350	53.8700
 0.9360	53.8510
 0.9370	53.8560
 0.9380	53.8730
 0.9390	53.8850
 0.9400	53.8800
 0.9410	53.8650
 0.9420	53.8540
 0.9430	53.8550
 0.9440	53.8140
 0.9450	53.7840
 0.9460	53.7980
 0.9470	53.7870
 0.9480	53.7830
 0.9490	53.7530
 0.9500	53.6920
 0.9510	53.6950
 0.9520	53.6790
 0.9530	53.6570
 0.9540	53.6490
 0.9550	53.6120
 0.9560	53.5720
 0.9570	53.5450
 0.9580	53.5360
 0.9590	53.5290
 0.9600	53.5170
 0.9610	53.4930
 0.9620	53.4580
 0.9630	53.4160
 0.9640	53.3930
 0.9650	53.3800
 0.9660	53.3630
 0.9670	53.3820
 0.9680	53.3690
 0.9690	53.3450
 0.9700	53.3580
 0.9710	53.3500
 0.9720	53.3620
 0.9730	53.3620
 0.9740	53.3110
 0.9750	53.2910
 0.9760	53.2880
 0.9770	53.2970
 0.9780	53.3100
 0.9790	53.2660
 0.9800	53.2690
 0.9810	53.3020
 0.9820	53.3000
 0.9830	53.2800
 0.9840	53.2660
 0.9850	53.2720
 0.9860	53.2970
 0.9870	53.3080
 0.9880	53.3040
 0.9890	53.2960
 0.9900	53.2940
 0.9910	53.2670
 0.9920	53.3340
 0.9930	53.4000
 0.9940	53.4670
 0.9950	53.5330
 0.9960	53.6000
 0.9970	53.6660
 0.9980	53.7330
 0.9990	53.7990
 1.0000	53.8650
 1.0010	53.9320
 1.0020	53.9980
 1.0030	54.0650
 1.0040	54.1310
 1.0050	54.1980
 1.0060	54.2640
 1.0070	54.3310
 1.0080	54.3970
 1.0090	54.4640
 1.0100	54.4640
 1.0110	54.4630
 1.0120	54.4690
 1.0130	54.4730
 1.0140	54.4810
 1.0150	54.4960
 1.0160	54.5040
 1.0170	54.5080
 1.0180	54.5150
 1.0190	54.5140
 1.0200	54.5200
 1.0210	54.5250
 1.0220	54.5190
 1.0230	54.5180
 1.0240	54.5120
 1.0250	54.5150
 1.0260	54.5210
 1.0270	54.5280
 1.0280	54.5430
 1.0290	54.5510
 1.0300	54.5550
 1.0310	54.5610
 1.0320	54.5630
 1.0330	54.5690
 1.0340	54.5680
 1.0350	54.5680
 1.0360	54.5840
 1.0370	54.5910
 1.0380	54.5980
 1.0390	54.6120
 1.0400	54.6160
 1.0410	54.6070
 1.0420	54.6070
 1.0430	54.6070
 1.0440	54.6110
 1.0450	54.6190
 1.0460	54.6270
 1.0470	54.6420
 1.0480	54.6520
 1.0490	54.6600
 1.0500	54.6670
 1.0510	54.6740
 1.0520	54.6770
 1.0530	54.6810
 1.0540	54.6830
 1.0550	54.6920
 1.0560	54.7070
 1.0570	54.7130
 1.0580	54.7210
 1.0590	54.7250
 1.0600	54.7170
 1.0610	54.7210
 1.0620	54.7340
 1.0630	54.7410
 1.0640	54.7490
 1.0650	54.7570
 1.0660	54.7610
 1.0670	54.7670
 1.0680	54.7750
 1.0690	54.7870
 1.0700	54.7930
 1.0710	54.7970
 1.0720	54.8010
 1.0730	54.8010
 1.0740	54.8040
 1.0750	54.8090
 1.0760	54.8090
 1.0770	54.8050
 1.0780	54.8020
 1.0790	54.7930
 1.0800	54.7920
 1.0810	54.7990
 1.0820	54.8010
 1.0830	54.8110
 1.0840	54.8100
 1.0850	54.8000
 1.0860	54.7890
 1.0870	54.7850
 1.0880	54.7790
 1.0890	54.7730
 1.0900	54.7740
 1.0910	54.7700
 1.0920	54.7620
 1.0930	54.7560
 1.0940	54.7520
 1.0950	54.7470
 1.0960	54.7400
 1.0970	54.7330
 1.0980	54.7290
 1.0990	54.7230
 1.1000	54.7150
 1.1010	54.7070
 1.1020	54.7000
 1.1030	54.6890
 1.1040	54.6790
 1.1050	54.6640
 1.1060	54.6490
 1.1070	54.6320
 1.1080	54.6170
 1.1090	54.6040
 1.1100	54.5880
 1.1110	54.5700
 1.1120	54.5550
 1.1130	54.5390
 1.1140	54.5240
 1.1150	54.5080
 1.1160	54.4950
 1.1170	54.4830
 1.1180	54.4700
 1.1190	54.4610
 1.1200	54.4480
 1.1210	54.4300
 1.1220	54.4120
 1.1230	54.3850
 1.1240	54.3640
 1.1250	54.3410
 1.1260	54.3150
 1.1270	54.2860
 1.1280	54.2580
 1.1290	54.2250
 1.1300	54.1880
 1.1310	54.1510
 1.1320	54.1150
 1.1330	54.0710
 1.1340	54.0240
 1.1350	53.9740
 1.1360	53.9180
 1.1370	53.8630
 1.1380	53.8110
 1.1390	53.7530
 1.1400	53.6900
 1.1410	53.6310
 1.1420	53.5750
 1.1430	53.5130
 1.1440	53.4530
 1.1450	53.3920
 1.1460	53.3350
 1.1470	53.2760
 1.1480	53.2220
 1.1490	53.1750
 1.1500	53.1260
 1.1510	53.0740
 1.1520	53.0270
 1.1530	52.9830
 1.1540	52.9410
 1.1550	52.9020
 1.1560	52.8650
 1.1570	52.8320
 1.1580	52.8000
 1.1590	52.7740
 1.1600	52.7530
 1.1610	52.7320
 1.1620	52.7150
 1.1630	52.7010
 1.1640	52.6870
 1.1650	52.6780
 1.1660	52.6750
 1.1670	52.6710
 1.1680	52.6710
 1.1690	52.6670
 1.1700	52.6600
 1.1710	52.6540
 1.1720	52.6420
 1.1730	52.6360
 1.1740	52.6320
 1.1750	52.6270
 1.1760	52.6230
 1.1770	52.6220
 1.1780	52.6200
 1.1790	52.6190
 1.1800	52.6170
 1.1810	52.6130
 1.1820	52.6020
 1.1830	52.5890
 1.1840	52.5790
 1.1850	52.5730
 1.1860	52.5690
 1.1870	52.5640
 1.1880	52.5610
 1.1890	52.5550
 1.1900	52.5540
 1.1910	52.5610
 1.1920	52.5620
 1.1930	52.5620
 1.1940	52.5630
 1.1950	52.5610
 1.1960	52.5620
 1.1970	52.5690
 1.1980	52.5750
 1.1990	52.5750
 1.2000	52.5750
 1.2010	52.5800
 1.2020	52.5820
 1.2030	52.5860
 1.2040	52.5940
 1.2050	52.5950
 1.2060	52.5970
 1.2070	52.6030
 1.2080	52.6090
 1.2090	52.6190
 1.2100	52.6210
 1.2110	52.6250
 1.2120	52.6260
 1.2130	52.6340
 1.2140	52.6450
 1.2150	52.6560
 1.2160	52.6740
 1.2170	52.6880
 1.2180	52.6980
 1.2190	52.7120
 1.2200	52.7270
 1.2210	52.7420
 1.2220	52.7520
 1.2230	52.7630
 1.2240	52.7720
 1.2250	52.7790
 1.2260	52.7900
 1.2270	52.8010
 1.2280	52.8100
 1.2290	52.8200
 1.2300	52.8330
 1.2310	52.8440
 1.2320	52.8500
 1.2330	52.8530
 1.2340	52.8600
 1.2350	52.8610
 1.2360	52.8680
 1.2370	52.8810
 1.2380	52.8980
 1.2390	52.9090
 1.2400	52.9170
 1.2410	52.9280
 1.2420	52.9390
 1.2430	52.9450
 1.2440	52.9530
 1.2450	52.9650
 1.2460	52.9700
 1.2470	52.9760
 1.2480	52.9870
 1.2490	52.9940
 1.2500	52.9960
 1.2510	53.0010
 1.2520	53.0030
 1.2530	53.0040
 1.2540	53.0060
 1.2550	53.0060
 1.2560	53.0080
 1.2570	53.0120
 1.2580	53.0120
 1.2590	53.0150
 1.2600	53.0230
 1.2610	53.0280
 1.2620	53.0320
 1.2630	53.0370
 1.2640	53.0420
 1.2650	53.0420
 1.2660	53.0410
 1.2670	53.0390
 1.2680	53.0400
 1.2690	53.0410
 1.2700	53.0380
 1.2710	53.0380
 1.2720	53.0370
 1.2730	53.0320
 1.2740	53.0340
 1.2750	53.0310
 1.2760	53.0250
 1.2770	53.0240
 1.2780	53.0210
 1.2790	53.0210
 1.2800	53.0230
 1.2810	53.0180
 1.2820	53.0150
 1.2830	53.0140
 1.2840	53.0090
 1.2850	53.0090
 1.2860	53.0060
 1.2870	52.9990
 1.2880	52.9880
 1.2890	52.9790
 1.2900	52.9700
 1.2910	52.9630
 1.2920	52.9560
 1.2930	52.9480
 1.2940	52.9370
 1.2950	52.9200
 1.2960	52.9080
 1.2970	52.8940
 1.2980	52.8780
 1.2990	52.8630
 1.3000	52.8410
 1.3010	52.8160
 1.3020	52.7920
 1.3030	52.7690
 1.3040	52.7470
 1.3050	52.7260
 1.3060	52.7050
 1.3070	52.6760
 1.3080	52.6450
 1.3090	52.6120
 1.3100	52.5720
 1.3110	52.5340
 1.3120	52.4930
 1.3130	52.4430
 1.3140	52.3930
 1.3150	52.3410
 1.3160	52.2870
 1.3170	52.2300
 1.3180	52.1750
 1.3190	52.1180
 1.3200	52.0630
 1.3210	52.0050
 1.3220	51.9450
 1.3230	51.8850
 1.3240	51.8190
 1.3250	51.7530
 1.3260	51.6860
 1.3270	51.6140
 1.3280	51.5430
 1.3290	51.4700
 1.3300	51.3940
 1.3310	51.3180
 1.3320	51.2370
 1.3330	51.1530
 1.3340	51.0730
 1.3350	50.9930
 1.3360	50.9150
 1.3370	50.8400
 1.3380	50.7640
 1.3390	50.6860
 1.3400	50.6010
 1.3410	50.5170
 1.3420	50.4350
 1.3430	50.3480
 1.3440	50.2640
 1.3450	50.1810
 1.3460	50.0980
 1.3470	50.0150
 1.3480	49.9340
 1.3490	49.8520
 1.3500	49.7700
 1.3510	49.6860
 1.3520	49.6040
 1.3530	49.5280
 1.3540	49.4490
 1.3550	49.3710
 1.3560	49.2950
 1.3570	49.2140
 1.3580	49.1330
 1.3590	49.0500
 1.3600	48.9630
 1.3610	48.8730
 1.3620	48.7840
 1.3630	48.6940
 1.3640	48.6000
 1.3650	48.4990
 1.3660	48.3960
 1.3670	48.2870
 1.3680	48.1700
 1.3690	48.0490
 1.3700	47.9170
 1.3710	47.7730
 1.3720	47.6250
 1.3730	47.4640
 1.3740	47.2900
 1.3750	47.1040
 1.3760	46.9040
 1.3770	46.6880
 1.3780	46.4540
 1.3790	46.2020
 1.3800	45.9300
 1.3810	45.6390
 1.3820	45.3310
 1.3830	45.0070
 1.3840	44.6650
 1.3850	44.3060
 1.3860	43.9300
 1.3870	43.5330
 1.3880	43.1280
 1.3890	42.7090
 1.3900	42.2740
 1.3910	41.8340
 1.3920	41.3810
 1.3930	40.9160
 1.3940	40.4520
 1.3950	39.9750
 1.3960	39.5010
 1.3970	39.0300
 1.3980	38.5550
 1.3990	38.0930
 1.4000	37.6360
 1.4010	37.1860
 1.4020	36.7570
 1.4030	36.3340
 1.4040	35.9270
 1.4050	35.5370
 1.4060	35.1560
 1.4070	34.8000
 1.4080	34.4620
 1.4090	34.1380
 1.4100	33.8410
 1.4110	33.5610
 1.4120	33.2980
 1.4130	33.0580
 1.4140	32.8320
 1.4150	32.6200
 1.4160	32.4260
 1.4170	32.2470
 1.4180	32.0820
 1.4190	31.9330
 1.4200	31.7980
 1.4210	31.6740
 1.4220	31.5610
 1.4230	31.4620
 1.4240	31.3720
 1.4250	31.2910
 1.4260	31.2230
 1.4270	31.1610
 1.4280	31.1090
 1.4290	31.0630
 1.4300	31.0260
 1.4310	30.9930
 1.4320	30.9660
 1.4330	30.9440
 1.4340	30.9300
 1.4350	30.9190
 1.4360	30.9150
 1.4370	30.9170
 1.4380	30.9230
 1.4390	30.9300
 1.4400	30.9430
 1.4410	30.9570
 1.4420	30.9730
 1.4430	30.9950
 1.4440	31.0190
 1.4450	31.0440
 1.4460	31.0700
 1.4470	31.0950
 1.4480	31.1210
 1.4490	31.1470
 1.4500	31.1750
 1.4510	31.2080
 1.4520	31.2450
 1.4530	31.2840
 1.4540	31.3260
 1.4550	31.3710
 1.4560	31.4150
 1.4570	31.4610
 1.4580	31.5140
 1.4590	31.5680
 1.4600	31.6250
 1.4610	31.6880
 1.4620	31.7530
 1.4630	31.8240
 1.4640	31.9010
 1.4650	31.9820
 1.4660	32.0680
 1.4670	32.1590
 1.4680	32.2570
 1.4690	32.3620
 1.4700	32.4710
 1.4710	32.5820
 1.4720	32.6970
