Name: Quercus douglasii 2
Type: vegetation
Class: Tree
Genus: Quercus
Species: douglasii
Sample No.: VH174
Owner: UCSB
Wavelength Range: VSWIR
Origin: 34.7157; -120.0601; WGS84
Collection Date: 6/9/2013
Description: Samples were collected as part of the HyspIRI Airborne Campaign. 48 individual plants were sampled in three times in 2013 - spring  summer  and fall. The name of the sample includes a 1  2  or 3 which references a different individual of the species. Samples were taken to JPL and processed within 48 hours of collection. The same leaves were processed in the Nicolet and then measured using the ASD.
Measurement: Bidirectional reflectance
First Column: X
Second Column: Y
X Units: Wavelength (micrometers)
Y Units: Reflectance (percentage)
First X Value: 0.35
Last X Value: 2.5
Number of X Values: 2151
Additional Information: vegetation.tree.quercus.douglasii.vswir.vh174.ucsb.asd.ancillary.txt

 0.3500	 5.5980
 0.3510	 5.8700
 0.3520	 5.9010
 0.3530	 5.7850
 0.3540	 5.7440
 0.3550	 5.8270
 0.3560	 5.8010
 0.3570	 5.6950
 0.3580	 5.6720
 0.3590	 5.7140
 0.3600	 5.7200
 0.3610	 5.6870
 0.3620	 5.7440
 0.3630	 5.7070
 0.3640	 5.6540
 0.3650	 5.6960
 0.3660	 5.7400
 0.3670	 5.7680
 0.3680	 5.7540
 0.3690	 5.6820
 0.3700	 5.7060
 0.3710	 5.7850
 0.3720	 5.8340
 0.3730	 5.7390
 0.3740	 5.7320
 0.3750	 5.7690
 0.3760	 5.7430
 0.3770	 5.7400
 0.3780	 5.7460
 0.3790	 5.7350
 0.3800	 5.6740
 0.3810	 5.7490
 0.3820	 5.8370
 0.3830	 5.8370
 0.3840	 5.8330
 0.3850	 5.8410
 0.3860	 5.8850
 0.3870	 5.9600
 0.3880	 6.0190
 0.3890	 5.9830
 0.3900	 5.8970
 0.3910	 5.9330
 0.3920	 5.9790
 0.3930	 6.0310
 0.3940	 6.0790
 0.3950	 6.0550
 0.3960	 6.0590
 0.3970	 6.1050
 0.3980	 6.1550
 0.3990	 6.1530
 0.4000	 6.1520
 0.4010	 6.1880
 0.4020	 6.2790
 0.4030	 6.2790
 0.4040	 6.2630
 0.4050	 6.3190
 0.4060	 6.3790
 0.4070	 6.3930
 0.4080	 6.3860
 0.4090	 6.4310
 0.4100	 6.5020
 0.4110	 6.5430
 0.4120	 6.5450
 0.4130	 6.5860
 0.4140	 6.6020
 0.4150	 6.6230
 0.4160	 6.6930
 0.4170	 6.7310
 0.4180	 6.7620
 0.4190	 6.8060
 0.4200	 6.8500
 0.4210	 6.8860
 0.4220	 6.9270
 0.4230	 6.9670
 0.4240	 6.9910
 0.4250	 7.0210
 0.4260	 7.0630
 0.4270	 7.1160
 0.4280	 7.1560
 0.4290	 7.1860
 0.4300	 7.2140
 0.4310	 7.2260
 0.4320	 7.2510
 0.4330	 7.2800
 0.4340	 7.2990
 0.4350	 7.3110
 0.4360	 7.3350
 0.4370	 7.3640
 0.4380	 7.3770
 0.4390	 7.3990
 0.4400	 7.4250
 0.4410	 7.4390
 0.4420	 7.4370
 0.4430	 7.4570
 0.4440	 7.4870
 0.4450	 7.4960
 0.4460	 7.5260
 0.4470	 7.5390
 0.4480	 7.5380
 0.4490	 7.5600
 0.4500	 7.5790
 0.4510	 7.5830
 0.4520	 7.5720
 0.4530	 7.5880
 0.4540	 7.6120
 0.4550	 7.6340
 0.4560	 7.6460
 0.4570	 7.6530
 0.4580	 7.6600
 0.4590	 7.6670
 0.4600	 7.6600
 0.4610	 7.6660
 0.4620	 7.6820
 0.4630	 7.6870
 0.4640	 7.6960
 0.4650	 7.7000
 0.4660	 7.7020
 0.4670	 7.7040
 0.4680	 7.7040
 0.4690	 7.6990
 0.4700	 7.6940
 0.4710	 7.7000
 0.4720	 7.7000
 0.4730	 7.6980
 0.4740	 7.7110
 0.4750	 7.6960
 0.4760	 7.6970
 0.4770	 7.7170
 0.4780	 7.7140
 0.4790	 7.7140
 0.4800	 7.7190
 0.4810	 7.7260
 0.4820	 7.7290
 0.4830	 7.7290
 0.4840	 7.7260
 0.4850	 7.7340
 0.4860	 7.7490
 0.4870	 7.7560
 0.4880	 7.7470
 0.4890	 7.7590
 0.4900	 7.7730
 0.4910	 7.7810
 0.4920	 7.7850
 0.4930	 7.8010
 0.4940	 7.8200
 0.4950	 7.8350
 0.4960	 7.8460
 0.4970	 7.8560
 0.4980	 7.8730
 0.4990	 7.8970
 0.5000	 7.9170
 0.5010	 7.9370
 0.5020	 7.9620
 0.5030	 7.9940
 0.5040	 8.0280
 0.5050	 8.0600
 0.5060	 8.0920
 0.5070	 8.1420
 0.5080	 8.1900
 0.5090	 8.2410
 0.5100	 8.3050
 0.5110	 8.3710
 0.5120	 8.4410
 0.5130	 8.5230
 0.5140	 8.6250
 0.5150	 8.7250
 0.5160	 8.8340
 0.5170	 8.9600
 0.5180	 9.0890
 0.5190	 9.2270
 0.5200	 9.3730
 0.5210	 9.5190
 0.5220	 9.6820
 0.5230	 9.8480
 0.5240	10.0060
 0.5250	10.1600
 0.5260	10.3110
 0.5270	10.4610
 0.5280	10.6080
 0.5290	10.7470
 0.5300	10.8720
 0.5310	10.9840
 0.5320	11.0950
 0.5330	11.1940
 0.5340	11.2810
 0.5350	11.3590
 0.5360	11.4280
 0.5370	11.4940
 0.5380	11.5550
 0.5390	11.6030
 0.5400	11.6500
 0.5410	11.6940
 0.5420	11.7320
 0.5430	11.7740
 0.5440	11.8180
 0.5450	11.8620
 0.5460	11.9040
 0.5470	11.9420
 0.5480	11.9750
 0.5490	12.0050
 0.5500	12.0300
 0.5510	12.0500
 0.5520	12.0610
 0.5530	12.0580
 0.5540	12.0420
 0.5550	12.0180
 0.5560	11.9830
 0.5570	11.9300
 0.5580	11.8620
 0.5590	11.7890
 0.5600	11.7120
 0.5610	11.6250
 0.5620	11.5360
 0.5630	11.4440
 0.5640	11.3440
 0.5650	11.2420
 0.5660	11.1370
 0.5670	11.0290
 0.5680	10.9190
 0.5690	10.8110
 0.5700	10.6990
 0.5710	10.5810
 0.5720	10.4820
 0.5730	10.3890
 0.5740	10.2990
 0.5750	10.2060
 0.5760	10.1150
 0.5770	10.0270
 0.5780	 9.9420
 0.5790	 9.8700
 0.5800	 9.8030
 0.5810	 9.7430
 0.5820	 9.6960
 0.5830	 9.6510
 0.5840	 9.6080
 0.5850	 9.5650
 0.5860	 9.5320
 0.5870	 9.5010
 0.5880	 9.4720
 0.5890	 9.4450
 0.5900	 9.4260
 0.5910	 9.4070
 0.5920	 9.3900
 0.5930	 9.3800
 0.5940	 9.3700
 0.5950	 9.3590
 0.5960	 9.3520
 0.5970	 9.3420
 0.5980	 9.3260
 0.5990	 9.3050
 0.6000	 9.2890
 0.6010	 9.2690
 0.6020	 9.2450
 0.6030	 9.2170
 0.6040	 9.1940
 0.6050	 9.1580
 0.6060	 9.1200
 0.6070	 9.0830
 0.6080	 9.0440
 0.6090	 8.9980
 0.6100	 8.9510
 0.6110	 8.9040
 0.6120	 8.8660
 0.6130	 8.8250
 0.6140	 8.7850
 0.6150	 8.7500
 0.6160	 8.7140
 0.6170	 8.6820
 0.6180	 8.6620
 0.6190	 8.6300
 0.6200	 8.6040
 0.6210	 8.5800
 0.6220	 8.5640
 0.6230	 8.5450
 0.6240	 8.5310
 0.6250	 8.5210
 0.6260	 8.5130
 0.6270	 8.5050
 0.6280	 8.4990
 0.6290	 8.4910
 0.6300	 8.4840
 0.6310	 8.4810
 0.6320	 8.4800
 0.6330	 8.4700
 0.6340	 8.4620
 0.6350	 8.4540
 0.6360	 8.4450
 0.6370	 8.4320
 0.6380	 8.4150
 0.6390	 8.3890
 0.6400	 8.3710
 0.6410	 8.3460
 0.6420	 8.3170
 0.6430	 8.2890
 0.6440	 8.2640
 0.6450	 8.2390
 0.6460	 8.2150
 0.6470	 8.1850
 0.6480	 8.1600
 0.6490	 8.1390
 0.6500	 8.1210
 0.6510	 8.1060
 0.6520	 8.0870
 0.6530	 8.0700
 0.6540	 8.0490
 0.6550	 8.0350
 0.6560	 8.0120
 0.6570	 7.9900
 0.6580	 7.9690
 0.6590	 7.9510
 0.6600	 7.9310
 0.6610	 7.9120
 0.6620	 7.8920
 0.6630	 7.8750
 0.6640	 7.8590
 0.6650	 7.8480
 0.6660	 7.8410
 0.6670	 7.8390
 0.6680	 7.8360
 0.6690	 7.8360
 0.6700	 7.8390
 0.6710	 7.8460
 0.6720	 7.8570
 0.6730	 7.8670
 0.6740	 7.8790
 0.6750	 7.8940
 0.6760	 7.9090
 0.6770	 7.9280
 0.6780	 7.9530
 0.6790	 7.9780
 0.6800	 8.0030
 0.6810	 8.0300
 0.6820	 8.0620
 0.6830	 8.0990
 0.6840	 8.1380
 0.6850	 8.1760
 0.6860	 8.2210
 0.6870	 8.2720
 0.6880	 8.3330
 0.6890	 8.4070
 0.6900	 8.4940
 0.6910	 8.6040
 0.6920	 8.7440
 0.6930	 8.9200
 0.6940	 9.1370
 0.6950	 9.4040
 0.6960	 9.7240
 0.6970	10.1050
 0.6980	10.5480
 0.6990	11.0530
 0.7000	11.6220
 0.7010	12.2510
 0.7020	12.9310
 0.7030	13.6590
 0.7040	14.4270
 0.7050	15.2270
 0.7060	16.0660
 0.7070	16.9260
 0.7080	17.8030
 0.7090	18.6990
 0.7100	19.6080
 0.7110	20.5300
 0.7120	21.4620
 0.7130	22.3990
 0.7140	23.3390
 0.7150	24.2810
 0.7160	25.2220
 0.7170	26.1600
 0.7180	27.0870
 0.7190	28.0040
 0.7200	28.9160
 0.7210	29.8120
 0.7220	30.6950
 0.7230	31.5600
 0.7240	32.3980
 0.7250	33.2160
 0.7260	34.0100
 0.7270	34.7780
 0.7280	35.5160
 0.7290	36.2280
 0.7300	36.9120
 0.7310	37.5620
 0.7320	38.1830
 0.7330	38.7710
 0.7340	39.3310
 0.7350	39.8730
 0.7360	40.3800
 0.7370	40.8600
 0.7380	41.3170
 0.7390	41.7430
 0.7400	42.1420
 0.7410	42.5180
 0.7420	42.8720
 0.7430	43.2050
 0.7440	43.5150
 0.7450	43.8010
 0.7460	44.0610
 0.7470	44.3070
 0.7480	44.5370
 0.7490	44.7480
 0.7500	44.9410
 0.7510	45.1160
 0.7520	45.2790
 0.7530	45.4320
 0.7540	45.5670
 0.7550	45.6920
 0.7560	45.8070
 0.7570	45.9060
 0.7580	46.0030
 0.7590	46.0930
 0.7600	46.1720
 0.7610	46.2470
 0.7620	46.3120
 0.7630	46.3700
 0.7640	46.4250
 0.7650	46.4740
 0.7660	46.5230
 0.7670	46.5670
 0.7680	46.6000
 0.7690	46.6390
 0.7700	46.6720
 0.7710	46.6990
 0.7720	46.7300
 0.7730	46.7560
 0.7740	46.7790
 0.7750	46.8010
 0.7760	46.8250
 0.7770	46.8440
 0.7780	46.8640
 0.7790	46.8900
 0.7800	46.9100
 0.7810	46.9290
 0.7820	46.9490
 0.7830	46.9630
 0.7840	46.9780
 0.7850	46.9930
 0.7860	47.0050
 0.7870	47.0230
 0.7880	47.0350
 0.7890	47.0450
 0.7900	47.0580
 0.7910	47.0770
 0.7920	47.0900
 0.7930	47.0950
 0.7940	47.1000
 0.7950	47.1080
 0.7960	47.1190
 0.7970	47.1300
 0.7980	47.1330
 0.7990	47.1390
 0.8000	47.1460
 0.8010	47.1480
 0.8020	47.1520
 0.8030	47.1580
 0.8040	47.1620
 0.8050	47.1620
 0.8060	47.1580
 0.8070	47.1520
 0.8080	47.1480
 0.8090	47.1470
 0.8100	47.1470
 0.8110	47.1500
 0.8120	47.1520
 0.8130	47.1420
 0.8140	47.1320
 0.8150	47.1270
 0.8160	47.1260
 0.8170	47.1230
 0.8180	47.1220
 0.8190	47.1160
 0.8200	47.1000
 0.8210	47.0870
 0.8220	47.0850
 0.8230	47.0840
 0.8240	47.0670
 0.8250	47.0570
 0.8260	47.0470
 0.8270	47.0320
 0.8280	47.0210
 0.8290	47.0080
 0.8300	47.0010
 0.8310	47.0020
 0.8320	46.9930
 0.8330	46.9850
 0.8340	46.9760
 0.8350	46.9600
 0.8360	46.9540
 0.8370	46.9540
 0.8380	46.9500
 0.8390	46.9350
 0.8400	46.9270
 0.8410	46.9260
 0.8420	46.9270
 0.8430	46.9240
 0.8440	46.9140
 0.8450	46.9090
 0.8460	46.9120
 0.8470	46.9050
 0.8480	46.9020
 0.8490	46.9000
 0.8500	46.8940
 0.8510	46.8940
 0.8520	46.8940
 0.8530	46.8940
 0.8540	46.8990
 0.8550	46.8970
 0.8560	46.8950
 0.8570	46.8960
 0.8580	46.9060
 0.8590	46.9040
 0.8600	46.8980
 0.8610	46.8940
 0.8620	46.8990
 0.8630	46.8960
 0.8640	46.8990
 0.8650	46.9140
 0.8660	46.9140
 0.8670	46.9130
 0.8680	46.9180
 0.8690	46.9270
 0.8700	46.9280
 0.8710	46.9360
 0.8720	46.9430
 0.8730	46.9400
 0.8740	46.9470
 0.8750	46.9550
 0.8760	46.9580
 0.8770	46.9650
 0.8780	46.9750
 0.8790	46.9780
 0.8800	46.9750
 0.8810	46.9810
 0.8820	46.9990
 0.8830	47.0100
 0.8840	47.0060
 0.8850	47.0080
 0.8860	47.0180
 0.8870	47.0210
 0.8880	47.0140
 0.8890	47.0270
 0.8900	47.0360
 0.8910	47.0410
 0.8920	47.0500
 0.8930	47.0550
 0.8940	47.0600
 0.8950	47.0660
 0.8960	47.0750
 0.8970	47.0860
 0.8980	47.0920
 0.8990	47.0930
 0.9000	47.0990
 0.9010	47.1070
 0.9020	47.1100
 0.9030	47.1140
 0.9040	47.1400
 0.9050	47.1440
 0.9060	47.1430
 0.9070	47.1510
 0.9080	47.1510
 0.9090	47.1530
 0.9100	47.1610
 0.9110	47.1740
 0.9120	47.1780
 0.9130	47.1800
 0.9140	47.1850
 0.9150	47.1920
 0.9160	47.1870
 0.9170	47.1990
 0.9180	47.2140
 0.9190	47.2060
 0.9200	47.2050
 0.9210	47.2100
 0.9220	47.2170
 0.9230	47.2170
 0.9240	47.2090
 0.9250	47.2050
 0.9260	47.2070
 0.9270	47.2060
 0.9280	47.2000
 0.9290	47.1930
 0.9300	47.1840
 0.9310	47.1730
 0.9320	47.1670
 0.9330	47.1570
 0.9340	47.1390
 0.9350	47.1260
 0.9360	47.1200
 0.9370	47.1160
 0.9380	47.1050
 0.9390	47.0830
 0.9400	47.0660
 0.9410	47.0430
 0.9420	47.0110
 0.9430	46.9890
 0.9440	46.9710
 0.9450	46.9550
 0.9460	46.9390
 0.9470	46.9090
 0.9480	46.8810
 0.9490	46.8470
 0.9500	46.8000
 0.9510	46.7560
 0.9520	46.7100
 0.9530	46.6690
 0.9540	46.6350
 0.9550	46.5860
 0.9560	46.5350
 0.9570	46.4940
 0.9580	46.4610
 0.9590	46.4130
 0.9600	46.3860
 0.9610	46.3550
 0.9620	46.2950
 0.9630	46.2740
 0.9640	46.2500
 0.9650	46.2280
 0.9660	46.2190
 0.9670	46.1900
 0.9680	46.1670
 0.9690	46.1520
 0.9700	46.1380
 0.9710	46.1360
 0.9720	46.1270
 0.9730	46.1150
 0.9740	46.1080
 0.9750	46.0890
 0.9760	46.0780
 0.9770	46.0810
 0.9780	46.0900
 0.9790	46.0740
 0.9800	46.0660
 0.9810	46.0710
 0.9820	46.0760
 0.9830	46.0780
 0.9840	46.0820
 0.9850	46.0820
 0.9860	46.0700
 0.9870	46.0700
 0.9880	46.0850
 0.9890	46.0940
 0.9900	46.0800
 0.9910	46.1080
 0.9920	46.1310
 0.9930	46.1300
 0.9940	46.1160
 0.9950	46.1350
 0.9960	46.1510
 0.9970	46.1640
 0.9980	46.1820
 0.9990	46.1660
 1.0000	46.1620
 1.0010	46.1550
 1.0020	46.1550
 1.0030	46.1650
 1.0040	46.1780
 1.0050	46.1880
 1.0060	46.2010
 1.0070	46.2140
 1.0080	46.2270
 1.0090	46.2360
 1.0100	46.2480
 1.0110	46.2620
 1.0120	46.2740
 1.0130	46.2850
 1.0140	46.2980
 1.0150	46.3130
 1.0160	46.3300
 1.0170	46.3460
 1.0180	46.3580
 1.0190	46.3690
 1.0200	46.3800
 1.0210	46.3880
 1.0220	46.3950
 1.0230	46.4040
 1.0240	46.4110
 1.0250	46.4210
 1.0260	46.4330
 1.0270	46.4440
 1.0280	46.4570
 1.0290	46.4670
 1.0300	46.4770
 1.0310	46.4860
 1.0320	46.4890
 1.0330	46.4980
 1.0340	46.5130
 1.0350	46.5250
 1.0360	46.5370
 1.0370	46.5520
 1.0380	46.5610
 1.0390	46.5620
 1.0400	46.5700
 1.0410	46.5800
 1.0420	46.5860
 1.0430	46.5930
 1.0440	46.6000
 1.0450	46.6080
 1.0460	46.6140
 1.0470	46.6230
 1.0480	46.6300
 1.0490	46.6320
 1.0500	46.6380
 1.0510	46.6460
 1.0520	46.6560
 1.0530	46.6620
 1.0540	46.6680
 1.0550	46.6730
 1.0560	46.6740
 1.0570	46.6780
 1.0580	46.6850
 1.0590	46.6910
 1.0600	46.6980
 1.0610	46.7020
 1.0620	46.7030
 1.0630	46.7070
 1.0640	46.7100
 1.0650	46.7130
 1.0660	46.7200
 1.0670	46.7220
 1.0680	46.7230
 1.0690	46.7210
 1.0700	46.7190
 1.0710	46.7140
 1.0720	46.7150
 1.0730	46.7190
 1.0740	46.7190
 1.0750	46.7210
 1.0760	46.7200
 1.0770	46.7160
 1.0780	46.7140
 1.0790	46.7130
 1.0800	46.7110
 1.0810	46.7080
 1.0820	46.7040
 1.0830	46.6990
 1.0840	46.6960
 1.0850	46.6930
 1.0860	46.6890
 1.0870	46.6850
 1.0880	46.6820
 1.0890	46.6780
 1.0900	46.6750
 1.0910	46.6710
 1.0920	46.6690
 1.0930	46.6630
 1.0940	46.6540
 1.0950	46.6460
 1.0960	46.6330
 1.0970	46.6250
 1.0980	46.6190
 1.0990	46.6120
 1.1000	46.6080
 1.1010	46.6020
 1.1020	46.5920
 1.1030	46.5850
 1.1040	46.5760
 1.1050	46.5670
 1.1060	46.5570
 1.1070	46.5470
 1.1080	46.5370
 1.1090	46.5260
 1.1100	46.5160
 1.1110	46.5060
 1.1120	46.4940
 1.1130	46.4830
 1.1140	46.4690
 1.1150	46.4520
 1.1160	46.4360
 1.1170	46.4200
 1.1180	46.4020
 1.1190	46.3830
 1.1200	46.3640
 1.1210	46.3440
 1.1220	46.3200
 1.1230	46.2940
 1.1240	46.2680
 1.1250	46.2360
 1.1260	46.2010
 1.1270	46.1620
 1.1280	46.1200
 1.1290	46.0730
 1.1300	46.0220
 1.1310	45.9660
 1.1320	45.9050
 1.1330	45.8400
 1.1340	45.7700
 1.1350	45.6960
 1.1360	45.6200
 1.1370	45.5360
 1.1380	45.4450
 1.1390	45.3500
 1.1400	45.2500
 1.1410	45.1470
 1.1420	45.0450
 1.1430	44.9420
 1.1440	44.8370
 1.1450	44.7280
 1.1460	44.6240
 1.1470	44.5170
 1.1480	44.4150
 1.1490	44.3160
 1.1500	44.2230
 1.1510	44.1320
 1.1520	44.0470
 1.1530	43.9640
 1.1540	43.8900
 1.1550	43.8220
 1.1560	43.7570
 1.1570	43.7000
 1.1580	43.6530
 1.1590	43.6120
 1.1600	43.5730
 1.1610	43.5390
 1.1620	43.5090
 1.1630	43.4800
 1.1640	43.4570
 1.1650	43.4350
 1.1660	43.4170
 1.1670	43.4010
 1.1680	43.3890
 1.1690	43.3770
 1.1700	43.3670
 1.1710	43.3570
 1.1720	43.3470
 1.1730	43.3370
 1.1740	43.3300
 1.1750	43.3220
 1.1760	43.3140
 1.1770	43.3060
 1.1780	43.2940
 1.1790	43.2840
 1.1800	43.2720
 1.1810	43.2580
 1.1820	43.2440
 1.1830	43.2310
 1.1840	43.2180
 1.1850	43.2070
 1.1860	43.1960
 1.1870	43.1870
 1.1880	43.1770
 1.1890	43.1640
 1.1900	43.1560
 1.1910	43.1460
 1.1920	43.1400
 1.1930	43.1380
 1.1940	43.1350
 1.1950	43.1340
 1.1960	43.1340
 1.1970	43.1340
 1.1980	43.1340
 1.1990	43.1360
 1.2000	43.1420
 1.2010	43.1480
 1.2020	43.1540
 1.2030	43.1590
 1.2040	43.1640
 1.2050	43.1720
 1.2060	43.1820
 1.2070	43.1950
 1.2080	43.2090
 1.2090	43.2200
 1.2100	43.2320
 1.2110	43.2450
 1.2120	43.2570
 1.2130	43.2710
 1.2140	43.2870
 1.2150	43.3030
 1.2160	43.3200
 1.2170	43.3370
 1.2180	43.3550
 1.2190	43.3740
 1.2200	43.3950
 1.2210	43.4160
 1.2220	43.4360
 1.2230	43.4580
 1.2240	43.4780
 1.2250	43.4970
 1.2260	43.5150
 1.2270	43.5340
 1.2280	43.5520
 1.2290	43.5700
 1.2300	43.5890
 1.2310	43.6070
 1.2320	43.6240
 1.2330	43.6380
 1.2340	43.6530
 1.2350	43.6650
 1.2360	43.6790
 1.2370	43.6920
 1.2380	43.7070
 1.2390	43.7200
 1.2400	43.7330
 1.2410	43.7470
 1.2420	43.7590
 1.2430	43.7720
 1.2440	43.7830
 1.2450	43.7940
 1.2460	43.8040
 1.2470	43.8130
 1.2480	43.8210
 1.2490	43.8300
 1.2500	43.8380
 1.2510	43.8450
 1.2520	43.8530
 1.2530	43.8590
 1.2540	43.8640
 1.2550	43.8690
 1.2560	43.8740
 1.2570	43.8780
 1.2580	43.8820
 1.2590	43.8850
 1.2600	43.8880
 1.2610	43.8890
 1.2620	43.8900
 1.2630	43.8900
 1.2640	43.8870
 1.2650	43.8830
 1.2660	43.8790
 1.2670	43.8720
 1.2680	43.8670
 1.2690	43.8630
 1.2700	43.8580
 1.2710	43.8540
 1.2720	43.8480
 1.2730	43.8390
 1.2740	43.8300
 1.2750	43.8220
 1.2760	43.8130
 1.2770	43.8030
 1.2780	43.7920
 1.2790	43.7790
 1.2800	43.7650
 1.2810	43.7520
 1.2820	43.7370
 1.2830	43.7220
 1.2840	43.7070
 1.2850	43.6900
 1.2860	43.6740
 1.2870	43.6560
 1.2880	43.6370
 1.2890	43.6150
 1.2900	43.5920
 1.2910	43.5690
 1.2920	43.5440
 1.2930	43.5190
 1.2940	43.4930
 1.2950	43.4640
 1.2960	43.4320
 1.2970	43.3980
 1.2980	43.3630
 1.2990	43.3240
 1.3000	43.2850
 1.3010	43.2450
 1.3020	43.2030
 1.3030	43.1600
 1.3040	43.1140
 1.3050	43.0660
 1.3060	43.0150
 1.3070	42.9610
 1.3080	42.9060
 1.3090	42.8490
 1.3100	42.7870
 1.3110	42.7230
 1.3120	42.6580
 1.3130	42.5890
 1.3140	42.5180
 1.3150	42.4470
 1.3160	42.3720
 1.3170	42.2940
 1.3180	42.2120
 1.3190	42.1270
 1.3200	42.0390
 1.3210	41.9460
 1.3220	41.8550
 1.3230	41.7630
 1.3240	41.6650
 1.3250	41.5690
 1.3260	41.4670
 1.3270	41.3600
 1.3280	41.2550
 1.3290	41.1490
 1.3300	41.0420
 1.3310	40.9350
 1.3320	40.8250
 1.3330	40.7110
 1.3340	40.5950
 1.3350	40.4750
 1.3360	40.3540
 1.3370	40.2350
 1.3380	40.1170
 1.3390	39.9980
 1.3400	39.8790
 1.3410	39.7600
 1.3420	39.6400
 1.3430	39.5210
 1.3440	39.4050
 1.3450	39.2880
 1.3460	39.1710
 1.3470	39.0560
 1.3480	38.9400
 1.3490	38.8260
 1.3500	38.7140
 1.3510	38.6020
 1.3520	38.4900
 1.3530	38.3790
 1.3540	38.2660
 1.3550	38.1520
 1.3560	38.0390
 1.3570	37.9240
 1.3580	37.8080
 1.3590	37.6920
 1.3600	37.5740
 1.3610	37.4520
 1.3620	37.3250
 1.3630	37.1950
 1.3640	37.0610
 1.3650	36.9200
 1.3660	36.7750
 1.3670	36.6240
 1.3680	36.4620
 1.3690	36.2920
 1.3700	36.1080
 1.3710	35.9130
 1.3720	35.7070
 1.3730	35.4870
 1.3740	35.2560
 1.3750	35.0080
 1.3760	34.7400
 1.3770	34.4540
 1.3780	34.1450
 1.3790	33.8170
 1.3800	33.4680
 1.3810	33.0930
 1.3820	32.7020
 1.3830	32.2940
 1.3840	31.8660
 1.3850	31.4190
 1.3860	30.9570
 1.3870	30.4730
 1.3880	29.9820
 1.3890	29.4770
 1.3900	28.9610
 1.3910	28.4410
 1.3920	27.9120
 1.3930	27.3780
 1.3940	26.8440
 1.3950	26.3040
 1.3960	25.7700
 1.3970	25.2430
 1.3980	24.7220
 1.3990	24.2200
 1.4000	23.7300
 1.4010	23.2500
 1.4020	22.7910
 1.4030	22.3450
 1.4040	21.9170
 1.4050	21.5110
 1.4060	21.1220
 1.4070	20.7580
 1.4080	20.4130
 1.4090	20.0870
 1.4100	19.7840
 1.4110	19.4990
 1.4120	19.2330
 1.4130	18.9870
 1.4140	18.7580
 1.4150	18.5500
 1.4160	18.3580
 1.4170	18.1790
 1.4180	18.0170
 1.4190	17.8680
 1.4200	17.7320
 1.4210	17.6090
 1.4220	17.4980
 1.4230	17.3980
 1.4240	17.3070
 1.4250	17.2250
 1.4260	17.1530
 1.4270	17.0880
 1.4280	17.0310
 1.4290	16.9800
 1.4300	16.9380
 1.4310	16.9010
 1.4320	16.8710
 1.4330	16.8460
 1.4340	16.8270
 1.4350	16.8110
 1.4360	16.8000
 1.4370	16.7920
 1.4380	16.7890
 1.4390	16.7880
 1.4400	16.7910
 1.4410	16.7960
 1.4420	16.8050
 1.4430	16.8160
 1.4440	16.8280
 1.4450	16.8420
 1.4460	16.8560
 1.4470	16.8720
 1.4480	16.8890
 1.4490	16.9070
 1.4500	16.9270
 1.4510	16.9470
 1.4520	16.9690
 1.4530	16.9930
 1.4540	17.0180
 1.4550	17.0450
 1.4560	17.0730
 1.4570	17.1040
 1.4580	17.1380
 1.4590	17.1740
 1.4600	17.2140
 1.4610	17.2570
 1.4620	17.3040
 1.4630	17.3560
 1.4640	17.4100
 1.4650	17.4700
 1.4660	17.5350
 1.4670	17.6050
 1.4680	17.6800
 1.4690	17.7600
 1.4700	17.8430
