Name: Quercus virginana
Type: vegetation
Class: Tree
Genus: Quercus
Species: virginana
Sample No.: JPL234
Owner: JPL
Wavelength Range: VSWIR
Origin: 34.13189; -118.11205; WGS84
Collection Date: 10/6/2016
Description: Samples were collected at the Huntington Garden in San Marino California as part of a JPL Subcontract studying HyTES imagery. Samples were taken to JPL and processed within 48 hours of collection. The same leaves were processed in the Nicolet and then measured using the ASD.
Measurement: Bidirectional reflectance
First Column: X
Second Column: Y
X Units: Wavelength (micrometer)
Y Units: Reflectance (percentage)
First X Value: 0.35
Last X Value: 2.5
Number of X Values: 2151
Additional Information: vegetation.tree.quercus.virginana.vswir.jpl234.jpl.asd.ancillary.txt

 0.3500	 9.3250
 0.3510	 9.2260
 0.3520	 9.2670
 0.3530	 9.2590
 0.3540	 9.0970
 0.3550	 9.1050
 0.3560	 9.1590
 0.3570	 9.1680
 0.3580	 9.0850
 0.3590	 9.0080
 0.3600	 9.0070
 0.3610	 9.0700
 0.3620	 9.0770
 0.3630	 9.0440
 0.3640	 8.9950
 0.3650	 8.9480
 0.3660	 8.8960
 0.3670	 8.9000
 0.3680	 8.9410
 0.3690	 8.9500
 0.3700	 8.9470
 0.3710	 8.9280
 0.3720	 8.8970
 0.3730	 8.8750
 0.3740	 8.8900
 0.3750	 8.9090
 0.3760	 8.8940
 0.3770	 8.8760
 0.3780	 8.8730
 0.3790	 8.8790
 0.3800	 8.8690
 0.3810	 8.8450
 0.3820	 8.8160
 0.3830	 8.7950
 0.3840	 8.7990
 0.3850	 8.8390
 0.3860	 8.8670
 0.3870	 8.8310
 0.3880	 8.7960
 0.3890	 8.7840
 0.3900	 8.8050
 0.3910	 8.8540
 0.3920	 8.8430
 0.3930	 8.8000
 0.3940	 8.7730
 0.3950	 8.8040
 0.3960	 8.8090
 0.3970	 8.8050
 0.3980	 8.8410
 0.3990	 8.8340
 0.4000	 8.8220
 0.4010	 8.8210
 0.4020	 8.8140
 0.4030	 8.8020
 0.4040	 8.7960
 0.4050	 8.8050
 0.4060	 8.8230
 0.4070	 8.8410
 0.4080	 8.8540
 0.4090	 8.8650
 0.4100	 8.8720
 0.4110	 8.8890
 0.4120	 8.9130
 0.4130	 8.9120
 0.4140	 8.9050
 0.4150	 8.9040
 0.4160	 8.9130
 0.4170	 8.9140
 0.4180	 8.9190
 0.4190	 8.9290
 0.4200	 8.9340
 0.4210	 8.9290
 0.4220	 8.9290
 0.4230	 8.9420
 0.4240	 8.9560
 0.4250	 8.9510
 0.4260	 8.9370
 0.4270	 8.9350
 0.4280	 8.9380
 0.4290	 8.9330
 0.4300	 8.9120
 0.4310	 8.8810
 0.4320	 8.8650
 0.4330	 8.8500
 0.4340	 8.8220
 0.4350	 8.7990
 0.4360	 8.7910
 0.4370	 8.8020
 0.4380	 8.8260
 0.4390	 8.8510
 0.4400	 8.8710
 0.4410	 8.8880
 0.4420	 8.9110
 0.4430	 8.9210
 0.4440	 8.9220
 0.4450	 8.9250
 0.4460	 8.9300
 0.4470	 8.9310
 0.4480	 8.9300
 0.4490	 8.9440
 0.4500	 8.9510
 0.4510	 8.9570
 0.4520	 8.9660
 0.4530	 8.9590
 0.4540	 8.9620
 0.4550	 8.9720
 0.4560	 8.9670
 0.4570	 8.9820
 0.4580	 8.9890
 0.4590	 8.9780
 0.4600	 8.9750
 0.4610	 8.9790
 0.4620	 8.9850
 0.4630	 8.9870
 0.4640	 8.9880
 0.4650	 8.9870
 0.4660	 8.9850
 0.4670	 8.9890
 0.4680	 8.9870
 0.4690	 8.9840
 0.4700	 8.9880
 0.4710	 8.9890
 0.4720	 8.9900
 0.4730	 8.9900
 0.4740	 8.9910
 0.4750	 8.9970
 0.4760	 8.9960
 0.4770	 8.9870
 0.4780	 8.9900
 0.4790	 8.9950
 0.4800	 8.9940
 0.4810	 8.9850
 0.4820	 8.9780
 0.4830	 8.9730
 0.4840	 8.9670
 0.4850	 8.9550
 0.4860	 8.9440
 0.4870	 8.9390
 0.4880	 8.9430
 0.4890	 8.9480
 0.4900	 8.9550
 0.4910	 8.9660
 0.4920	 8.9840
 0.4930	 9.0030
 0.4940	 9.0200
 0.4950	 9.0360
 0.4960	 9.0520
 0.4970	 9.0730
 0.4980	 9.0940
 0.4990	 9.1120
 0.5000	 9.1390
 0.5010	 9.1670
 0.5020	 9.1950
 0.5030	 9.2260
 0.5040	 9.2580
 0.5050	 9.2890
 0.5060	 9.3250
 0.5070	 9.3720
 0.5080	 9.4200
 0.5090	 9.4710
 0.5100	 9.5320
 0.5110	 9.5950
 0.5120	 9.6660
 0.5130	 9.7470
 0.5140	 9.8320
 0.5150	 9.9220
 0.5160	10.0230
 0.5170	10.1360
 0.5180	10.2470
 0.5190	10.3670
 0.5200	10.4960
 0.5210	10.6290
 0.5220	10.7650
 0.5230	10.9020
 0.5240	11.0390
 0.5250	11.1790
 0.5260	11.3110
 0.5270	11.4330
 0.5280	11.5510
 0.5290	11.6650
 0.5300	11.7710
 0.5310	11.8660
 0.5320	11.9500
 0.5330	12.0290
 0.5340	12.1020
 0.5350	12.1680
 0.5360	12.2160
 0.5370	12.2540
 0.5380	12.2820
 0.5390	12.2980
 0.5400	12.2910
 0.5410	12.2650
 0.5420	12.2320
 0.5430	12.2100
 0.5440	12.2110
 0.5450	12.2390
 0.5460	12.2940
 0.5470	12.3620
 0.5480	12.4230
 0.5490	12.4640
 0.5500	12.4850
 0.5510	12.5000
 0.5520	12.5100
 0.5530	12.5130
 0.5540	12.5110
 0.5550	12.4960
 0.5560	12.4670
 0.5570	12.4260
 0.5580	12.3730
 0.5590	12.3130
 0.5600	12.2500
 0.5610	12.1770
 0.5620	12.0980
 0.5630	12.0110
 0.5640	11.9170
 0.5650	11.8230
 0.5660	11.7300
 0.5670	11.6390
 0.5680	11.5500
 0.5690	11.4620
 0.5700	11.3770
 0.5710	11.2910
 0.5720	11.2080
 0.5730	11.1300
 0.5740	11.0530
 0.5750	10.9720
 0.5760	10.8890
 0.5770	10.8090
 0.5780	10.7360
 0.5790	10.6740
 0.5800	10.6210
 0.5810	10.5730
 0.5820	10.5230
 0.5830	10.4700
 0.5840	10.4240
 0.5850	10.3880
 0.5860	10.3610
 0.5870	10.3390
 0.5880	10.3230
 0.5890	10.3140
 0.5900	10.3060
 0.5910	10.2910
 0.5920	10.2660
 0.5930	10.2360
 0.5940	10.2190
 0.5950	10.2120
 0.5960	10.2110
 0.5970	10.2050
 0.5980	10.1980
 0.5990	10.1850
 0.6000	10.1660
 0.6010	10.1490
 0.6020	10.1320
 0.6030	10.1110
 0.6040	10.0850
 0.6050	10.0600
 0.6060	10.0350
 0.6070	10.0050
 0.6080	 9.9700
 0.6090	 9.9150
 0.6100	 9.8300
 0.6110	 9.7240
 0.6120	 9.6900
 0.6130	 9.6990
 0.6140	 9.7160
 0.6150	 9.7040
 0.6160	 9.6880
 0.6170	 9.6710
 0.6180	 9.6500
 0.6190	 9.6240
 0.6200	 9.5990
 0.6210	 9.5790
 0.6220	 9.5660
 0.6230	 9.5570
 0.6240	 9.5490
 0.6250	 9.5430
 0.6260	 9.5390
 0.6270	 9.5350
 0.6280	 9.5310
 0.6290	 9.5240
 0.6300	 9.5130
 0.6310	 9.5050
 0.6320	 9.5050
 0.6330	 9.5090
 0.6340	 9.5040
 0.6350	 9.4930
 0.6360	 9.4770
 0.6370	 9.4590
 0.6380	 9.4380
 0.6390	 9.4130
 0.6400	 9.3860
 0.6410	 9.3560
 0.6420	 9.3280
 0.6430	 9.3020
 0.6440	 9.2750
 0.6450	 9.2520
 0.6460	 9.2310
 0.6470	 9.2120
 0.6480	 9.1950
 0.6490	 9.1790
 0.6500	 9.1650
 0.6510	 9.1570
 0.6520	 9.1530
 0.6530	 9.1510
 0.6540	 9.1460
 0.6550	 9.1430
 0.6560	 9.1400
 0.6570	 9.1360
 0.6580	 9.1270
 0.6590	 9.1220
 0.6600	 9.1160
 0.6610	 9.1090
 0.6620	 9.1020
 0.6630	 9.0980
 0.6640	 9.0980
 0.6650	 9.1000
 0.6660	 9.1040
 0.6670	 9.1100
 0.6680	 9.1200
 0.6690	 9.1320
 0.6700	 9.1510
 0.6710	 9.1730
 0.6720	 9.1960
 0.6730	 9.2200
 0.6740	 9.2510
 0.6750	 9.2870
 0.6760	 9.3230
 0.6770	 9.3620
 0.6780	 9.4040
 0.6790	 9.4490
 0.6800	 9.4990
 0.6810	 9.5500
 0.6820	 9.6030
 0.6830	 9.6560
 0.6840	 9.7100
 0.6850	 9.7610
 0.6860	 9.8120
 0.6870	 9.8660
 0.6880	 9.9280
 0.6890	10.0000
 0.6900	10.0880
 0.6910	10.1990
 0.6920	10.3400
 0.6930	10.5190
 0.6940	10.7430
 0.6950	11.0180
 0.6960	11.3480
 0.6970	11.7350
 0.6980	12.1760
 0.6990	12.6740
 0.7000	13.2240
 0.7010	13.8230
 0.7020	14.4660
 0.7030	15.1450
 0.7040	15.8550
 0.7050	16.5890
 0.7060	17.3450
 0.7070	18.1220
 0.7080	18.9180
 0.7090	19.7350
 0.7100	20.5750
 0.7110	21.4320
 0.7120	22.3020
 0.7130	23.1900
 0.7140	24.0940
 0.7150	25.0120
 0.7160	25.9410
 0.7170	26.8780
 0.7180	27.8240
 0.7190	28.7760
 0.7200	29.7310
 0.7210	30.6840
 0.7220	31.6340
 0.7230	32.5780
 0.7240	33.5090
 0.7250	34.4260
 0.7260	35.3250
 0.7270	36.2030
 0.7280	37.0590
 0.7290	37.8880
 0.7300	38.6890
 0.7310	39.4640
 0.7320	40.2080
 0.7330	40.9210
 0.7340	41.6000
 0.7350	42.2450
 0.7360	42.8590
 0.7370	43.4430
 0.7380	43.9920
 0.7390	44.5060
 0.7400	44.9900
 0.7410	45.4440
 0.7420	45.8660
 0.7430	46.2570
 0.7440	46.6200
 0.7450	46.9540
 0.7460	47.2570
 0.7470	47.5370
 0.7480	47.7910
 0.7490	48.0190
 0.7500	48.2300
 0.7510	48.4200
 0.7520	48.5900
 0.7530	48.7440
 0.7540	48.8840
 0.7550	49.0100
 0.7560	49.1230
 0.7570	49.2200
 0.7580	49.3080
 0.7590	49.3890
 0.7600	49.4630
 0.7610	49.5300
 0.7620	49.5880
 0.7630	49.6380
 0.7640	49.6820
 0.7650	49.7190
 0.7660	49.7520
 0.7670	49.7810
 0.7680	49.8060
 0.7690	49.8250
 0.7700	49.8430
 0.7710	49.8630
 0.7720	49.8760
 0.7730	49.8890
 0.7740	49.9010
 0.7750	49.9130
 0.7760	49.9240
 0.7770	49.9330
 0.7780	49.9420
 0.7790	49.9520
 0.7800	49.9610
 0.7810	49.9690
 0.7820	49.9780
 0.7830	49.9860
 0.7840	49.9950
 0.7850	50.0030
 0.7860	50.0090
 0.7870	50.0110
 0.7880	50.0130
 0.7890	50.0160
 0.7900	50.0210
 0.7910	50.0220
 0.7920	50.0250
 0.7930	50.0300
 0.7940	50.0310
 0.7950	50.0330
 0.7960	50.0320
 0.7970	50.0290
 0.7980	50.0270
 0.7990	50.0240
 0.8000	50.0210
 0.8010	50.0170
 0.8020	50.0120
 0.8030	50.0080
 0.8040	50.0030
 0.8050	49.9980
 0.8060	49.9940
 0.8070	49.9870
 0.8080	49.9780
 0.8090	49.9690
 0.8100	49.9630
 0.8110	49.9560
 0.8120	49.9480
 0.8130	49.9380
 0.8140	49.9300
 0.8150	49.9210
 0.8160	49.9080
 0.8170	49.9020
 0.8180	49.8930
 0.8190	49.8810
 0.8200	49.8720
 0.8210	49.8670
 0.8220	49.8570
 0.8230	49.8460
 0.8240	49.8380
 0.8250	49.8300
 0.8260	49.8210
 0.8270	49.8130
 0.8280	49.8070
 0.8290	49.7970
 0.8300	49.7870
 0.8310	49.7790
 0.8320	49.7710
 0.8330	49.7650
 0.8340	49.7610
 0.8350	49.7570
 0.8360	49.7530
 0.8370	49.7500
 0.8380	49.7480
 0.8390	49.7440
 0.8400	49.7400
 0.8410	49.7410
 0.8420	49.7440
 0.8430	49.7390
 0.8440	49.7400
 0.8450	49.7420
 0.8460	49.7400
 0.8470	49.7410
 0.8480	49.7470
 0.8490	49.7530
 0.8500	49.7530
 0.8510	49.7540
 0.8520	49.7590
 0.8530	49.7650
 0.8540	49.7670
 0.8550	49.7720
 0.8560	49.7750
 0.8570	49.7780
 0.8580	49.7860
 0.8590	49.7950
 0.8600	49.8020
 0.8610	49.8080
 0.8620	49.8150
 0.8630	49.8220
 0.8640	49.8280
 0.8650	49.8360
 0.8660	49.8460
 0.8670	49.8530
 0.8680	49.8610
 0.8690	49.8700
 0.8700	49.8800
 0.8710	49.8910
 0.8720	49.9030
 0.8730	49.9120
 0.8740	49.9160
 0.8750	49.9240
 0.8760	49.9350
 0.8770	49.9440
 0.8780	49.9550
 0.8790	49.9670
 0.8800	49.9780
 0.8810	49.9850
 0.8820	49.9910
 0.8830	50.0000
 0.8840	50.0110
 0.8850	50.0220
 0.8860	50.0320
 0.8870	50.0390
 0.8880	50.0470
 0.8890	50.0540
 0.8900	50.0620
 0.8910	50.0700
 0.8920	50.0790
 0.8930	50.0920
 0.8940	50.1030
 0.8950	50.1100
 0.8960	50.1180
 0.8970	50.1250
 0.8980	50.1300
 0.8990	50.1370
 0.9000	50.1490
 0.9010	50.1560
 0.9020	50.1620
 0.9030	50.1710
 0.9040	50.1750
 0.9050	50.1800
 0.9060	50.1880
 0.9070	50.1990
 0.9080	50.2060
 0.9090	50.2090
 0.9100	50.2120
 0.9110	50.2210
 0.9120	50.2270
 0.9130	50.2330
 0.9140	50.2370
 0.9150	50.2420
 0.9160	50.2450
 0.9170	50.2430
 0.9180	50.2390
 0.9190	50.2420
 0.9200	50.2480
 0.9210	50.2480
 0.9220	50.2390
 0.9230	50.2320
 0.9240	50.2350
 0.9250	50.2330
 0.9260	50.2210
 0.9270	50.2100
 0.9280	50.2030
 0.9290	50.1970
 0.9300	50.1860
 0.9310	50.1730
 0.9320	50.1640
 0.9330	50.1500
 0.9340	50.1300
 0.9350	50.1160
 0.9360	50.1060
 0.9370	50.0920
 0.9380	50.0710
 0.9390	50.0570
 0.9400	50.0360
 0.9410	50.0140
 0.9420	49.9950
 0.9430	49.9660
 0.9440	49.9350
 0.9450	49.9090
 0.9460	49.8880
 0.9470	49.8630
 0.9480	49.8350
 0.9490	49.7970
 0.9500	49.7500
 0.9510	49.7080
 0.9520	49.6680
 0.9530	49.6250
 0.9540	49.5760
 0.9550	49.5380
 0.9560	49.4960
 0.9570	49.4470
 0.9580	49.3970
 0.9590	49.3600
 0.9600	49.3280
 0.9610	49.2980
 0.9620	49.2670
 0.9630	49.2360
 0.9640	49.2030
 0.9650	49.1760
 0.9660	49.1610
 0.9670	49.1470
 0.9680	49.1240
 0.9690	49.0970
 0.9700	49.0780
 0.9710	49.0730
 0.9720	49.0610
 0.9730	49.0470
 0.9740	49.0420
 0.9750	49.0370
 0.9760	49.0320
 0.9770	49.0220
 0.9780	49.0030
 0.9790	48.9940
 0.9800	48.9940
 0.9810	48.9960
 0.9820	48.9930
 0.9830	49.0100
 0.9840	49.0060
 0.9850	48.9960
 0.9860	49.0080
 0.9870	49.0150
 0.9880	49.0070
 0.9890	49.0020
 0.9900	49.0210
 0.9910	49.0210
 0.9920	49.0300
 0.9930	49.0430
 0.9940	49.0490
 0.9950	49.0580
 0.9960	49.0740
 0.9970	49.0880
 0.9980	49.0900
 0.9990	49.1050
 1.0000	49.1090
 1.0010	49.3220
 1.0020	49.3370
 1.0030	49.3530
 1.0040	49.3640
 1.0050	49.3720
 1.0060	49.3850
 1.0070	49.3980
 1.0080	49.4100
 1.0090	49.4240
 1.0100	49.4350
 1.0110	49.4410
 1.0120	49.4520
 1.0130	49.4660
 1.0140	49.4780
 1.0150	49.4880
 1.0160	49.5010
 1.0170	49.5170
 1.0180	49.5330
 1.0190	49.5490
 1.0200	49.5620
 1.0210	49.5710
 1.0220	49.5820
 1.0230	49.5950
 1.0240	49.6110
 1.0250	49.6250
 1.0260	49.6380
 1.0270	49.6500
 1.0280	49.6610
 1.0290	49.6740
 1.0300	49.6860
 1.0310	49.6980
 1.0320	49.7120
 1.0330	49.7250
 1.0340	49.7370
 1.0350	49.7480
 1.0360	49.7590
 1.0370	49.7710
 1.0380	49.7810
 1.0390	49.7900
 1.0400	49.8020
 1.0410	49.8150
 1.0420	49.8230
 1.0430	49.8320
 1.0440	49.8390
 1.0450	49.8400
 1.0460	49.8460
 1.0470	49.8560
 1.0480	49.8640
 1.0490	49.8760
 1.0500	49.8840
 1.0510	49.8890
 1.0520	49.8940
 1.0530	49.8980
 1.0540	49.8990
 1.0550	49.9030
 1.0560	49.9070
 1.0570	49.9110
 1.0580	49.9160
 1.0590	49.9200
 1.0600	49.9230
 1.0610	49.9280
 1.0620	49.9340
 1.0630	49.9380
 1.0640	49.9410
 1.0650	49.9430
 1.0660	49.9440
 1.0670	49.9440
 1.0680	49.9430
 1.0690	49.9430
 1.0700	49.9410
 1.0710	49.9370
 1.0720	49.9350
 1.0730	49.9330
 1.0740	49.9330
 1.0750	49.9340
 1.0760	49.9360
 1.0770	49.9410
 1.0780	49.9410
 1.0790	49.9390
 1.0800	49.9370
 1.0810	49.9320
 1.0820	49.9310
 1.0830	49.9360
 1.0840	49.9360
 1.0850	49.9340
 1.0860	49.9320
 1.0870	49.9290
 1.0880	49.9220
 1.0890	49.9180
 1.0900	49.9180
 1.0910	49.9140
 1.0920	49.9080
 1.0930	49.9030
 1.0940	49.8980
 1.0950	49.8940
 1.0960	49.8900
 1.0970	49.8860
 1.0980	49.8820
 1.0990	49.8780
 1.1000	49.8760
 1.1010	49.8710
 1.1020	49.8660
 1.1030	49.8590
 1.1040	49.8530
 1.1050	49.8450
 1.1060	49.8390
 1.1070	49.8340
 1.1080	49.8280
 1.1090	49.8230
 1.1100	49.8150
 1.1110	49.8040
 1.1120	49.7950
 1.1130	49.7870
 1.1140	49.7760
 1.1150	49.7670
 1.1160	49.7560
 1.1170	49.7430
 1.1180	49.7280
 1.1190	49.7130
 1.1200	49.6950
 1.1210	49.6760
 1.1220	49.6560
 1.1230	49.6310
 1.1240	49.6030
 1.1250	49.5740
 1.1260	49.5420
 1.1270	49.5040
 1.1280	49.4660
 1.1290	49.4220
 1.1300	49.3710
 1.1310	49.3170
 1.1320	49.2600
 1.1330	49.1960
 1.1340	49.1260
 1.1350	49.0520
 1.1360	48.9710
 1.1370	48.8880
 1.1380	48.8010
 1.1390	48.7080
 1.1400	48.6100
 1.1410	48.5120
 1.1420	48.4110
 1.1430	48.3080
 1.1440	48.2050
 1.1450	48.1010
 1.1460	47.9970
 1.1470	47.8890
 1.1480	47.7880
 1.1490	47.6890
 1.1500	47.5940
 1.1510	47.5000
 1.1520	47.4150
 1.1530	47.3350
 1.1540	47.2590
 1.1550	47.1890
 1.1560	47.1270
 1.1570	47.0670
 1.1580	47.0120
 1.1590	46.9630
 1.1600	46.9170
 1.1610	46.8750
 1.1620	46.8380
 1.1630	46.8070
 1.1640	46.7780
 1.1650	46.7520
 1.1660	46.7300
 1.1670	46.7070
 1.1680	46.6850
 1.1690	46.6660
 1.1700	46.6480
 1.1710	46.6300
 1.1720	46.6120
 1.1730	46.5950
 1.1740	46.5780
 1.1750	46.5610
 1.1760	46.5460
 1.1770	46.5330
 1.1780	46.5180
 1.1790	46.5010
 1.1800	46.4840
 1.1810	46.4640
 1.1820	46.4440
 1.1830	46.4260
 1.1840	46.4090
 1.1850	46.3910
 1.1860	46.3750
 1.1870	46.3610
 1.1880	46.3460
 1.1890	46.3310
 1.1900	46.3180
 1.1910	46.3050
 1.1920	46.2930
 1.1930	46.2840
 1.1940	46.2750
 1.1950	46.2670
 1.1960	46.2620
 1.1970	46.2590
 1.1980	46.2560
 1.1990	46.2550
 1.2000	46.2560
 1.2010	46.2580
 1.2020	46.2630
 1.2030	46.2680
 1.2040	46.2760
 1.2050	46.2840
 1.2060	46.2910
 1.2070	46.3010
 1.2080	46.3110
 1.2090	46.3210
 1.2100	46.3340
 1.2110	46.3460
 1.2120	46.3570
 1.2130	46.3710
 1.2140	46.3840
 1.2150	46.3990
 1.2160	46.4180
 1.2170	46.4360
 1.2180	46.4550
 1.2190	46.4740
 1.2200	46.4920
 1.2210	46.5130
 1.2220	46.5330
 1.2230	46.5520
 1.2240	46.5730
 1.2250	46.5920
 1.2260	46.6110
 1.2270	46.6290
 1.2280	46.6450
 1.2290	46.6610
 1.2300	46.6780
 1.2310	46.6950
 1.2320	46.7130
 1.2330	46.7310
 1.2340	46.7470
 1.2350	46.7610
 1.2360	46.7760
 1.2370	46.7900
 1.2380	46.8030
 1.2390	46.8170
 1.2400	46.8300
 1.2410	46.8430
 1.2420	46.8530
 1.2430	46.8650
 1.2440	46.8760
 1.2450	46.8860
 1.2460	46.8980
 1.2470	46.9080
 1.2480	46.9160
 1.2490	46.9260
 1.2500	46.9350
 1.2510	46.9440
 1.2520	46.9510
 1.2530	46.9580
 1.2540	46.9630
 1.2550	46.9680
 1.2560	46.9730
 1.2570	46.9760
 1.2580	46.9780
 1.2590	46.9810
 1.2600	46.9820
 1.2610	46.9830
 1.2620	46.9830
 1.2630	46.9830
 1.2640	46.9820
 1.2650	46.9790
 1.2660	46.9760
 1.2670	46.9730
 1.2680	46.9690
 1.2690	46.9650
 1.2700	46.9600
 1.2710	46.9560
 1.2720	46.9500
 1.2730	46.9430
 1.2740	46.9360
 1.2750	46.9260
 1.2760	46.9160
 1.2770	46.9050
 1.2780	46.8920
 1.2790	46.8790
 1.2800	46.8640
 1.2810	46.8460
 1.2820	46.8290
 1.2830	46.8120
 1.2840	46.7930
 1.2850	46.7750
 1.2860	46.7550
 1.2870	46.7330
 1.2880	46.7070
 1.2890	46.6810
 1.2900	46.6540
 1.2910	46.6230
 1.2920	46.5910
 1.2930	46.5590
 1.2940	46.5240
 1.2950	46.4890
 1.2960	46.4550
 1.2970	46.4170
 1.2980	46.3760
 1.2990	46.3340
 1.3000	46.2900
 1.3010	46.2430
 1.3020	46.1960
 1.3030	46.1480
 1.3040	46.0990
 1.3050	46.0490
 1.3060	45.9960
 1.3070	45.9370
 1.3080	45.8790
 1.3090	45.8190
 1.3100	45.7570
 1.3110	45.6970
 1.3120	45.6330
 1.3130	45.5650
 1.3140	45.4950
 1.3150	45.4230
 1.3160	45.3500
 1.3170	45.2750
 1.3180	45.1970
 1.3190	45.1180
 1.3200	45.0360
 1.3210	44.9510
 1.3220	44.8660
 1.3230	44.7790
 1.3240	44.6890
 1.3250	44.5960
 1.3260	44.4990
 1.3270	44.4000
 1.3280	44.2990
 1.3290	44.1950
 1.3300	44.0890
 1.3310	43.9840
 1.3320	43.8750
 1.3330	43.7680
 1.3340	43.6600
 1.3350	43.5490
 1.3360	43.4390
 1.3370	43.3280
 1.3380	43.2160
 1.3390	43.1050
 1.3400	42.9920
 1.3410	42.8820
 1.3420	42.7710
 1.3430	42.6600
 1.3440	42.5500
 1.3450	42.4410
 1.3460	42.3290
 1.3470	42.2220
 1.3480	42.1170
 1.3490	42.0130
 1.3500	41.9110
 1.3510	41.8090
 1.3520	41.7040
 1.3530	41.5990
 1.3540	41.4930
 1.3550	41.3870
 1.3560	41.2830
 1.3570	41.1780
 1.3580	41.0740
 1.3590	40.9670
 1.3600	40.8580
 1.3610	40.7450
 1.3620	40.6250
 1.3630	40.5020
 1.3640	40.3740
 1.3650	40.2410
 1.3660	40.1050
 1.3670	39.9590
 1.3680	39.8030
 1.3690	39.6380
 1.3700	39.4600
 1.3710	39.2710
 1.3720	39.0700
 1.3730	38.8520
 1.3740	38.6200
 1.3750	38.3720
 1.3760	38.1030
 1.3770	37.8140
 1.3780	37.5030
 1.3790	37.1700
 1.3800	36.8150
 1.3810	36.4340
 1.3820	36.0340
 1.3830	35.6140
 1.3840	35.1710
 1.3850	34.7060
 1.3860	34.2240
 1.3870	33.7180
 1.3880	33.2030
 1.3890	32.6730
 1.3900	32.1290
 1.3910	31.5820
 1.3920	31.0240
 1.3930	30.4600
 1.3940	29.8970
 1.3950	29.3260
 1.3960	28.7600
 1.3970	28.2030
 1.3980	27.6520
 1.3990	27.1190
 1.4000	26.5970
 1.4010	26.0860
 1.4020	25.5950
 1.4030	25.1160
 1.4040	24.6570
 1.4050	24.2210
 1.4060	23.8010
 1.4070	23.4060
 1.4080	23.0320
 1.4090	22.6750
 1.4100	22.3410
 1.4110	22.0250
 1.4120	21.7280
 1.4130	21.4500
 1.4140	21.1890
 1.4150	20.9480
 1.4160	20.7250
 1.4170	20.5160
 1.4180	20.3230
 1.4190	20.1430
 1.4200	19.9750
 1.4210	19.8200
 1.4220	19.6760
 1.4230	19.5440
 1.4240	19.4240
 1.4250	19.3110
 1.4260	19.2090
 1.4270	19.1130
 1.4280	19.0260
 1.4290	18.9470
 1.4300	18.8760
 1.4310	18.8100
 1.4320	18.7530
 1.4330	18.7000
 1.4340	18.6520
 1.4350	18.6090
 1.4360	18.5720
 1.4370	18.5400
 1.4380	18.5140
 1.4390	18.4910
 1.4400	18.4720
 1.4410	18.4560
 1.4420	18.4430
 1.4430	18.4330
 1.4440	18.4270
 1.4450	18.4230
 1.4460	18.4220
 1.4470	18.4240
 1.4480	18.4280
 1.4490	18.4330
 1.4500	18.4400
 1.4510	18.4480
 1.4520	18.4580
 1.4530	18.4710
 1.4540	18.4840
 1.4550	18.5000
 1.4560	18.5180
 1.4570	18.5380
 1.4580	18.5630
 1.4590	18.5910
 1.4600	18.6220
 1.4610	18.6560
 1.4620	18.6960
 1.4630	18.7410
 1.4640	18.7890
 1.4650	18.8430
 1.4660	18.9010
 1.4670	18.9620
 1.4680	19.0300
 1.4690	19.1030
 1.4700	19.1800
 1.4710	19.2610
 1.4720	19.3440
 1.4730	19.4310
 1.4740	19.5230
 1.4750	19.6170
 1.4760	19.7170
 1.4770	19.8180
