Name: Quercus rubra
Type: Vegetation
Class: Tree
Genus: Quercus
Species: rubra
Sample No.: QURU-1-1
Owner: UCSB
Wavelength Range: VSWIR
Origin: USA; Massachusetts; Harvard Forest
Collection Date: 7/8/2013
Description: Samples were collected as part of NSF Macrosystem Biology proposal titled: Collaborative Research: Thermal controls on ecosystem metabolism and function: scaling from leaves to canopies to regions. Samples were collected and overnighted to JPL facilities for processing. The same leaves were processed in the Nicolet and then measured using the ASD.
Measurement: Bidirectional reflectance
First Column: X
Second Column: Y
X Units: Wavelength (micrometers)
Y Units: Reflectance (percentage)
First X Value: 0.35
Last X Value: 2.5
Number of X Values: 2151
Additional Information: vegetation.tree.quercus.rubra.vswir.quru-1-1.ucsb.asd.ancillary.txt

 0.3500	 5.6290
 0.3510	 5.7570
 0.3520	 5.4640
 0.3530	 5.3620
 0.3540	 5.8230
 0.3550	 5.8150
 0.3560	 5.6450
 0.3570	 5.4830
 0.3580	 5.4170
 0.3590	 5.4820
 0.3600	 5.6570
 0.3610	 5.8010
 0.3620	 5.6260
 0.3630	 5.3870
 0.3640	 5.3190
 0.3650	 5.5280
 0.3660	 5.7520
 0.3670	 5.6420
 0.3680	 5.4020
 0.3690	 5.5470
 0.3700	 5.5130
 0.3710	 5.4670
 0.3720	 5.4980
 0.3730	 5.3780
 0.3740	 5.3380
 0.3750	 5.3480
 0.3760	 5.3250
 0.3770	 5.3690
 0.3780	 5.3090
 0.3790	 5.1780
 0.3800	 5.1840
 0.3810	 5.2970
 0.3820	 5.3520
 0.3830	 5.2920
 0.3840	 5.3360
 0.3850	 5.3470
 0.3860	 5.3440
 0.3870	 5.3850
 0.3880	 5.3950
 0.3890	 5.3710
 0.3900	 5.3120
 0.3910	 5.2200
 0.3920	 5.2910
 0.3930	 5.3830
 0.3940	 5.3700
 0.3950	 5.3290
 0.3960	 5.3810
 0.3970	 5.4700
 0.3980	 5.4650
 0.3990	 5.4110
 0.4000	 5.3650
 0.4010	 5.3580
 0.4020	 5.3900
 0.4030	 5.4030
 0.4040	 5.4100
 0.4050	 5.4290
 0.4060	 5.4200
 0.4070	 5.4380
 0.4080	 5.4700
 0.4090	 5.4630
 0.4100	 5.4740
 0.4110	 5.4830
 0.4120	 5.4690
 0.4130	 5.4350
 0.4140	 5.4140
 0.4150	 5.4210
 0.4160	 5.4510
 0.4170	 5.4540
 0.4180	 5.4640
 0.4190	 5.4830
 0.4200	 5.4740
 0.4210	 5.4960
 0.4220	 5.5220
 0.4230	 5.5280
 0.4240	 5.5310
 0.4250	 5.5430
 0.4260	 5.5490
 0.4270	 5.5350
 0.4280	 5.5620
 0.4290	 5.5730
 0.4300	 5.5460
 0.4310	 5.5300
 0.4320	 5.5520
 0.4330	 5.5910
 0.4340	 5.6140
 0.4350	 5.6160
 0.4360	 5.6140
 0.4370	 5.6120
 0.4380	 5.6040
 0.4390	 5.5900
 0.4400	 5.5890
 0.4410	 5.6070
 0.4420	 5.6140
 0.4430	 5.6200
 0.4440	 5.6270
 0.4450	 5.6340
 0.4460	 5.6390
 0.4470	 5.6510
 0.4480	 5.6640
 0.4490	 5.6490
 0.4500	 5.6620
 0.4510	 5.6870
 0.4520	 5.6990
 0.4530	 5.6940
 0.4540	 5.6970
 0.4550	 5.7090
 0.4560	 5.7180
 0.4570	 5.7220
 0.4580	 5.7400
 0.4590	 5.7690
 0.4600	 5.7470
 0.4610	 5.7340
 0.4620	 5.7390
 0.4630	 5.7510
 0.4640	 5.7570
 0.4650	 5.7590
 0.4660	 5.7560
 0.4670	 5.7380
 0.4680	 5.7410
 0.4690	 5.7510
 0.4700	 5.7510
 0.4710	 5.7350
 0.4720	 5.7360
 0.4730	 5.7440
 0.4740	 5.7300
 0.4750	 5.7270
 0.4760	 5.7280
 0.4770	 5.7340
 0.4780	 5.7630
 0.4790	 5.7540
 0.4800	 5.7380
 0.4810	 5.7600
 0.4820	 5.7680
 0.4830	 5.7680
 0.4840	 5.7630
 0.4850	 5.7560
 0.4860	 5.7690
 0.4870	 5.7840
 0.4880	 5.7880
 0.4890	 5.7920
 0.4900	 5.8050
 0.4910	 5.8250
 0.4920	 5.8440
 0.4930	 5.8470
 0.4940	 5.8630
 0.4950	 5.8970
 0.4960	 5.9050
 0.4970	 5.9200
 0.4980	 5.9480
 0.4990	 5.9830
 0.5000	 6.0030
 0.5010	 6.0300
 0.5020	 6.0660
 0.5030	 6.0980
 0.5040	 6.1510
 0.5050	 6.2000
 0.5060	 6.2310
 0.5070	 6.2800
 0.5080	 6.3400
 0.5090	 6.4070
 0.5100	 6.4760
 0.5110	 6.5520
 0.5120	 6.6380
 0.5130	 6.7370
 0.5140	 6.8450
 0.5150	 6.9600
 0.5160	 7.0810
 0.5170	 7.2150
 0.5180	 7.3730
 0.5190	 7.5330
 0.5200	 7.6920
 0.5210	 7.8650
 0.5220	 8.0410
 0.5230	 8.2210
 0.5240	 8.4030
 0.5250	 8.5730
 0.5260	 8.7480
 0.5270	 8.9200
 0.5280	 9.0720
 0.5290	 9.2180
 0.5300	 9.3570
 0.5310	 9.4860
 0.5320	 9.6000
 0.5330	 9.7060
 0.5340	 9.8030
 0.5350	 9.8900
 0.5360	 9.9620
 0.5370	10.0260
 0.5380	10.0840
 0.5390	10.1310
 0.5400	10.1740
 0.5410	10.2160
 0.5420	10.2580
 0.5430	10.2880
 0.5440	10.3340
 0.5450	10.3870
 0.5460	10.4300
 0.5470	10.4640
 0.5480	10.4920
 0.5490	10.5160
 0.5500	10.5390
 0.5510	10.5520
 0.5520	10.5580
 0.5530	10.5590
 0.5540	10.5440
 0.5550	10.5160
 0.5560	10.4760
 0.5570	10.4200
 0.5580	10.3620
 0.5590	10.2910
 0.5600	10.1980
 0.5610	10.0960
 0.5620	 9.9990
 0.5630	 9.8960
 0.5640	 9.7750
 0.5650	 9.6550
 0.5660	 9.5280
 0.5670	 9.3970
 0.5680	 9.2740
 0.5690	 9.1470
 0.5700	 9.0210
 0.5710	 8.8990
 0.5720	 8.7780
 0.5730	 8.6630
 0.5740	 8.5550
 0.5750	 8.4520
 0.5760	 8.3490
 0.5770	 8.2480
 0.5780	 8.1520
 0.5790	 8.0680
 0.5800	 7.9840
 0.5810	 7.9120
 0.5820	 7.8620
 0.5830	 7.8050
 0.5840	 7.7620
 0.5850	 7.7340
 0.5860	 7.6970
 0.5870	 7.6670
 0.5880	 7.6450
 0.5890	 7.6230
 0.5900	 7.5910
 0.5910	 7.5530
 0.5920	 7.5140
 0.5930	 7.4800
 0.5940	 7.4550
 0.5950	 7.4400
 0.5960	 7.4320
 0.5970	 7.4170
 0.5980	 7.4070
 0.5990	 7.3960
 0.6000	 7.3750
 0.6010	 7.3490
 0.6020	 7.3280
 0.6030	 7.3090
 0.6040	 7.2760
 0.6050	 7.2420
 0.6060	 7.2090
 0.6070	 7.1760
 0.6080	 7.1340
 0.6090	 7.0880
 0.6100	 7.0400
 0.6110	 6.9950
 0.6120	 6.9550
 0.6130	 6.9210
 0.6140	 6.8870
 0.6150	 6.8460
 0.6160	 6.8180
 0.6170	 6.7900
 0.6180	 6.7520
 0.6190	 6.7230
 0.6200	 6.6990
 0.6210	 6.6800
 0.6220	 6.6630
 0.6230	 6.6430
 0.6240	 6.6280
 0.6250	 6.6210
 0.6260	 6.6110
 0.6270	 6.6010
 0.6280	 6.5920
 0.6290	 6.5890
 0.6300	 6.5920
 0.6310	 6.5860
 0.6320	 6.5710
 0.6330	 6.5610
 0.6340	 6.5590
 0.6350	 6.5520
 0.6360	 6.5300
 0.6370	 6.5050
 0.6380	 6.4770
 0.6390	 6.4480
 0.6400	 6.4150
 0.6410	 6.3840
 0.6420	 6.3540
 0.6430	 6.3240
 0.6440	 6.2850
 0.6450	 6.2470
 0.6460	 6.2160
 0.6470	 6.1950
 0.6480	 6.1700
 0.6490	 6.1460
 0.6500	 6.1250
 0.6510	 6.1090
 0.6520	 6.0910
 0.6530	 6.0770
 0.6540	 6.0690
 0.6550	 6.0500
 0.6560	 6.0320
 0.6570	 6.0140
 0.6580	 5.9940
 0.6590	 5.9720
 0.6600	 5.9500
 0.6610	 5.9300
 0.6620	 5.9110
 0.6630	 5.8910
 0.6640	 5.8720
 0.6650	 5.8600
 0.6660	 5.8540
 0.6670	 5.8480
 0.6680	 5.8420
 0.6690	 5.8410
 0.6700	 5.8420
 0.6710	 5.8480
 0.6720	 5.8600
 0.6730	 5.8770
 0.6740	 5.8960
 0.6750	 5.9160
 0.6760	 5.9370
 0.6770	 5.9560
 0.6780	 5.9860
 0.6790	 6.0260
 0.6800	 6.0620
 0.6810	 6.1000
 0.6820	 6.1460
 0.6830	 6.1980
 0.6840	 6.2510
 0.6850	 6.3070
 0.6860	 6.3700
 0.6870	 6.4410
 0.6880	 6.5250
 0.6890	 6.6210
 0.6900	 6.7320
 0.6910	 6.8640
 0.6920	 7.0260
 0.6930	 7.2290
 0.6940	 7.4830
 0.6950	 7.7890
 0.6960	 8.1600
 0.6970	 8.6010
 0.6980	 9.1100
 0.6990	 9.6830
 0.7000	10.3250
 0.7010	11.0360
 0.7020	11.8100
 0.7030	12.6300
 0.7040	13.4850
 0.7050	14.3710
 0.7060	15.2950
 0.7070	16.2440
 0.7080	17.2050
 0.7090	18.1770
 0.7100	19.1580
 0.7110	20.1490
 0.7120	21.1490
 0.7130	22.1520
 0.7140	23.1570
 0.7150	24.1600
 0.7160	25.1550
 0.7170	26.1310
 0.7180	27.1070
 0.7190	28.0780
 0.7200	29.0270
 0.7210	29.9580
 0.7220	30.8730
 0.7230	31.7700
 0.7240	32.6470
 0.7250	33.4920
 0.7260	34.3040
 0.7270	35.0890
 0.7280	35.8570
 0.7290	36.5900
 0.7300	37.2840
 0.7310	37.9390
 0.7320	38.5640
 0.7330	39.1650
 0.7340	39.7410
 0.7350	40.2810
 0.7360	40.7850
 0.7370	41.2620
 0.7380	41.7160
 0.7390	42.1370
 0.7400	42.5350
 0.7410	42.9100
 0.7420	43.2590
 0.7430	43.5870
 0.7440	43.8740
 0.7450	44.1340
 0.7460	44.4070
 0.7470	44.6540
 0.7480	44.8750
 0.7490	45.0720
 0.7500	45.2380
 0.7510	45.3980
 0.7520	45.5560
 0.7530	45.7020
 0.7540	45.8100
 0.7550	45.9220
 0.7560	46.0410
 0.7570	46.1390
 0.7580	46.2020
 0.7590	46.2690
 0.7600	46.3520
 0.7610	46.3910
 0.7620	46.4500
 0.7630	46.4990
 0.7640	46.5110
 0.7650	46.5770
 0.7660	46.6210
 0.7670	46.6390
 0.7680	46.6710
 0.7690	46.6850
 0.7700	46.7030
 0.7710	46.7340
 0.7720	46.7640
 0.7730	46.7850
 0.7740	46.7930
 0.7750	46.7940
 0.7760	46.8130
 0.7770	46.8220
 0.7780	46.8260
 0.7790	46.8450
 0.7800	46.8720
 0.7810	46.8940
 0.7820	46.9000
 0.7830	46.8910
 0.7840	46.8820
 0.7850	46.8860
 0.7860	46.9070
 0.7870	46.9220
 0.7880	46.9360
 0.7890	46.9480
 0.7900	46.9530
 0.7910	46.9410
 0.7920	46.9500
 0.7930	46.9730
 0.7940	46.9720
 0.7950	46.9740
 0.7960	46.9810
 0.7970	46.9870
 0.7980	46.9830
 0.7990	46.9810
 0.8000	46.9970
 0.8010	47.0240
 0.8020	47.0080
 0.8030	46.9960
 0.8040	46.9930
 0.8050	46.9890
 0.8060	46.9890
 0.8070	47.0040
 0.8080	47.0180
 0.8090	46.9980
 0.8100	46.9930
 0.8110	46.9950
 0.8120	46.9930
 0.8130	46.9890
 0.8140	46.9960
 0.8150	46.9930
 0.8160	46.9670
 0.8170	46.9540
 0.8180	46.9550
 0.8190	46.9620
 0.8200	46.9630
 0.8210	46.9490
 0.8220	46.9470
 0.8230	46.9560
 0.8240	46.9470
 0.8250	46.9520
 0.8260	46.9560
 0.8270	46.9450
 0.8280	46.9130
 0.8290	46.9100
 0.8300	46.9220
 0.8310	46.9220
 0.8320	46.9050
 0.8330	46.9050
 0.8340	46.9060
 0.8350	46.8840
 0.8360	46.8930
 0.8370	46.8910
 0.8380	46.8750
 0.8390	46.8680
 0.8400	46.8760
 0.8410	46.8800
 0.8420	46.8780
 0.8430	46.8960
 0.8440	46.8960
 0.8450	46.8890
 0.8460	46.8860
 0.8470	46.8760
 0.8480	46.8750
 0.8490	46.8820
 0.8500	46.8860
 0.8510	46.8900
 0.8520	46.8840
 0.8530	46.8850
 0.8540	46.9180
 0.8550	46.9240
 0.8560	46.9110
 0.8570	46.8960
 0.8580	46.8990
 0.8590	46.9160
 0.8600	46.9090
 0.8610	46.8860
 0.8620	46.9240
 0.8630	46.9360
 0.8640	46.9250
 0.8650	46.9140
 0.8660	46.9110
 0.8670	46.9190
 0.8680	46.9340
 0.8690	46.9500
 0.8700	46.9640
 0.8710	46.9610
 0.8720	46.9430
 0.8730	46.9230
 0.8740	46.9460
 0.8750	46.9710
 0.8760	46.9800
 0.8770	46.9850
 0.8780	46.9690
 0.8790	46.9600
 0.8800	46.9690
 0.8810	46.9780
 0.8820	47.0080
 0.8830	47.0300
 0.8840	47.0200
 0.8850	46.9910
 0.8860	46.9910
 0.8870	46.9990
 0.8880	46.9910
 0.8890	47.0040
 0.8900	47.0080
 0.8910	47.0050
 0.8920	47.0110
 0.8930	47.0230
 0.8940	47.0280
 0.8950	47.0230
 0.8960	47.0150
 0.8970	47.0080
 0.8980	47.0100
 0.8990	47.0230
 0.9000	47.0420
 0.9010	47.0460
 0.9020	47.0470
 0.9030	47.0460
 0.9040	47.0270
 0.9050	47.0420
 0.9060	47.0650
 0.9070	47.0710
 0.9080	47.0660
 0.9090	47.0640
 0.9100	47.0720
 0.9110	47.0810
 0.9120	47.0590
 0.9130	47.0470
 0.9140	47.0530
 0.9150	47.0710
 0.9160	47.0700
 0.9170	47.0650
 0.9180	47.0640
 0.9190	47.0700
 0.9200	47.0680
 0.9210	47.0650
 0.9220	47.0630
 0.9230	47.0570
 0.9240	47.0480
 0.9250	47.0240
 0.9260	47.0030
 0.9270	47.0180
 0.9280	47.0220
 0.9290	47.0140
 0.9300	47.0030
 0.9310	47.0020
 0.9320	46.9740
 0.9330	46.9450
 0.9340	46.9370
 0.9350	46.9540
 0.9360	46.9500
 0.9370	46.9340
 0.9380	46.9090
 0.9390	46.8610
 0.9400	46.8230
 0.9410	46.8090
 0.9420	46.8130
 0.9430	46.8130
 0.9440	46.8170
 0.9450	46.7960
 0.9460	46.7410
 0.9470	46.7150
 0.9480	46.6810
 0.9490	46.6410
 0.9500	46.6000
 0.9510	46.5570
 0.9520	46.5030
 0.9530	46.4500
 0.9540	46.4100
 0.9550	46.3870
 0.9560	46.3500
 0.9570	46.3100
 0.9580	46.2800
 0.9590	46.2180
 0.9600	46.1700
 0.9610	46.1470
 0.9620	46.1410
 0.9630	46.1290
 0.9640	46.1010
 0.9650	46.0660
 0.9660	46.0330
 0.9670	45.9990
 0.9680	45.9920
 0.9690	45.9950
 0.9700	45.9800
 0.9710	45.9870
 0.9720	45.9850
 0.9730	45.9820
 0.9740	45.9920
 0.9750	45.9900
 0.9760	45.9650
 0.9770	45.9420
 0.9780	45.9490
 0.9790	45.9460
 0.9800	45.9620
 0.9810	45.9670
 0.9820	45.9270
 0.9830	45.9290
 0.9840	45.9520
 0.9850	45.9700
 0.9860	45.9660
 0.9870	45.9540
 0.9880	45.9540
 0.9890	45.9700
 0.9900	45.9890
 0.9910	45.9850
 0.9920	45.9900
 0.9930	45.9950
 0.9940	46.0000
 0.9950	46.0050
 0.9960	46.0110
 0.9970	46.0160
 0.9980	46.0210
 0.9990	46.0260
 1.0000	46.0310
 1.0010	46.0360
 1.0020	46.0420
 1.0030	46.0470
 1.0040	46.0520
 1.0050	46.0570
 1.0060	46.0620
 1.0070	46.0680
 1.0080	46.0730
 1.0090	46.0780
 1.0100	46.0780
 1.0110	46.0920
 1.0120	46.1030
 1.0130	46.1210
 1.0140	46.1350
 1.0150	46.1430
 1.0160	46.1520
 1.0170	46.1650
 1.0180	46.1690
 1.0190	46.1750
 1.0200	46.1900
 1.0210	46.2050
 1.0220	46.2240
 1.0230	46.2380
 1.0240	46.2500
 1.0250	46.2610
 1.0260	46.2700
 1.0270	46.2790
 1.0280	46.2890
 1.0290	46.3000
 1.0300	46.3110
 1.0310	46.3210
 1.0320	46.3350
 1.0330	46.3430
 1.0340	46.3490
 1.0350	46.3620
 1.0360	46.3690
 1.0370	46.3770
 1.0380	46.3820
 1.0390	46.3840
 1.0400	46.3890
 1.0410	46.3950
 1.0420	46.4030
 1.0430	46.4130
 1.0440	46.4220
 1.0450	46.4380
 1.0460	46.4470
 1.0470	46.4510
 1.0480	46.4590
 1.0490	46.4670
 1.0500	46.4710
 1.0510	46.4730
 1.0520	46.4740
 1.0530	46.4760
 1.0540	46.4730
 1.0550	46.4770
 1.0560	46.4870
 1.0570	46.4920
 1.0580	46.4920
 1.0590	46.4980
 1.0600	46.5080
 1.0610	46.5120
 1.0620	46.5130
 1.0630	46.5170
 1.0640	46.5190
 1.0650	46.5190
 1.0660	46.5240
 1.0670	46.5260
 1.0680	46.5250
 1.0690	46.5180
 1.0700	46.5200
 1.0710	46.5250
 1.0720	46.5290
 1.0730	46.5390
 1.0740	46.5410
 1.0750	46.5380
 1.0760	46.5370
 1.0770	46.5340
 1.0780	46.5310
 1.0790	46.5280
 1.0800	46.5240
 1.0810	46.5170
 1.0820	46.5130
 1.0830	46.5150
 1.0840	46.5110
 1.0850	46.5040
 1.0860	46.4970
 1.0870	46.4960
 1.0880	46.4950
 1.0890	46.4920
 1.0900	46.4970
 1.0910	46.4920
 1.0920	46.4800
 1.0930	46.4690
 1.0940	46.4560
 1.0950	46.4450
 1.0960	46.4320
 1.0970	46.4240
 1.0980	46.4280
 1.0990	46.4210
 1.1000	46.4100
 1.1010	46.4010
 1.1020	46.3860
 1.1030	46.3730
 1.1040	46.3690
 1.1050	46.3660
 1.1060	46.3560
 1.1070	46.3430
 1.1080	46.3330
 1.1090	46.3220
 1.1100	46.3100
 1.1110	46.2970
 1.1120	46.2860
 1.1130	46.2750
 1.1140	46.2630
 1.1150	46.2550
 1.1160	46.2410
 1.1170	46.2200
 1.1180	46.2000
 1.1190	46.1770
 1.1200	46.1600
 1.1210	46.1380
 1.1220	46.1180
 1.1230	46.0930
 1.1240	46.0610
 1.1250	46.0300
 1.1260	45.9960
 1.1270	45.9570
 1.1280	45.9160
 1.1290	45.8690
 1.1300	45.8180
 1.1310	45.7600
 1.1320	45.6940
 1.1330	45.6270
 1.1340	45.5550
 1.1350	45.4800
 1.1360	45.4030
 1.1370	45.3220
 1.1380	45.2300
 1.1390	45.1350
 1.1400	45.0350
 1.1410	44.9350
 1.1420	44.8420
 1.1430	44.7470
 1.1440	44.6500
 1.1450	44.5520
 1.1460	44.4550
 1.1470	44.3510
 1.1480	44.2560
 1.1490	44.1640
 1.1500	44.0760
 1.1510	43.9880
 1.1520	43.9100
 1.1530	43.8410
 1.1540	43.7750
 1.1550	43.7140
 1.1560	43.6570
 1.1570	43.6050
 1.1580	43.5610
 1.1590	43.5240
 1.1600	43.4930
 1.1610	43.4660
 1.1620	43.4390
 1.1630	43.4180
 1.1640	43.3990
 1.1650	43.3790
 1.1660	43.3610
 1.1670	43.3470
 1.1680	43.3350
 1.1690	43.3240
 1.1700	43.3150
 1.1710	43.3080
 1.1720	43.3040
 1.1730	43.2980
 1.1740	43.2920
 1.1750	43.2880
 1.1760	43.2790
 1.1770	43.2680
 1.1780	43.2590
 1.1790	43.2470
 1.1800	43.2330
 1.1810	43.2220
 1.1820	43.2110
 1.1830	43.1970
 1.1840	43.1880
 1.1850	43.1780
 1.1860	43.1660
 1.1870	43.1570
 1.1880	43.1470
 1.1890	43.1370
 1.1900	43.1280
 1.1910	43.1200
 1.1920	43.1130
 1.1930	43.1050
 1.1940	43.1000
 1.1950	43.0960
 1.1960	43.0960
 1.1970	43.0960
 1.1980	43.1010
 1.1990	43.1080
 1.2000	43.1130
 1.2010	43.1160
 1.2020	43.1150
 1.2030	43.1170
 1.2040	43.1230
 1.2050	43.1260
 1.2060	43.1370
 1.2070	43.1510
 1.2080	43.1610
 1.2090	43.1730
 1.2100	43.1850
 1.2110	43.1990
 1.2120	43.2140
 1.2130	43.2260
 1.2140	43.2380
 1.2150	43.2520
 1.2160	43.2660
 1.2170	43.2760
 1.2180	43.2930
 1.2190	43.3130
 1.2200	43.3300
 1.2210	43.3520
 1.2220	43.3750
 1.2230	43.3960
 1.2240	43.4180
 1.2250	43.4360
 1.2260	43.4570
 1.2270	43.4820
 1.2280	43.5000
 1.2290	43.5170
 1.2300	43.5320
 1.2310	43.5390
 1.2320	43.5550
 1.2330	43.5740
 1.2340	43.5890
 1.2350	43.6040
 1.2360	43.6200
 1.2370	43.6330
 1.2380	43.6440
 1.2390	43.6590
 1.2400	43.6750
 1.2410	43.6830
 1.2420	43.6900
 1.2430	43.7000
 1.2440	43.7110
 1.2450	43.7240
 1.2460	43.7380
 1.2470	43.7510
 1.2480	43.7580
 1.2490	43.7580
 1.2500	43.7610
 1.2510	43.7650
 1.2520	43.7700
 1.2530	43.7820
 1.2540	43.7920
 1.2550	43.7960
 1.2560	43.8000
 1.2570	43.8040
 1.2580	43.8100
 1.2590	43.8130
 1.2600	43.8170
 1.2610	43.8170
 1.2620	43.8150
 1.2630	43.8090
 1.2640	43.8030
 1.2650	43.7980
 1.2660	43.7950
 1.2670	43.7910
 1.2680	43.7860
 1.2690	43.7820
 1.2700	43.7770
 1.2710	43.7700
 1.2720	43.7600
 1.2730	43.7520
 1.2740	43.7420
 1.2750	43.7310
 1.2760	43.7220
 1.2770	43.7090
 1.2780	43.6950
 1.2790	43.6830
 1.2800	43.6690
 1.2810	43.6540
 1.2820	43.6380
 1.2830	43.6160
 1.2840	43.5940
 1.2850	43.5740
 1.2860	43.5530
 1.2870	43.5320
 1.2880	43.5100
 1.2890	43.4890
 1.2900	43.4640
 1.2910	43.4380
 1.2920	43.4180
 1.2930	43.3960
 1.2940	43.3740
 1.2950	43.3490
 1.2960	43.3190
 1.2970	43.2900
 1.2980	43.2580
 1.2990	43.2250
 1.3000	43.1850
 1.3010	43.1370
 1.3020	43.0920
 1.3030	43.0490
 1.3040	43.0010
 1.3050	42.9520
 1.3060	42.9000
 1.3070	42.8430
 1.3080	42.7880
 1.3090	42.7320
 1.3100	42.6720
 1.3110	42.6110
 1.3120	42.5490
 1.3130	42.4810
 1.3140	42.4110
 1.3150	42.3380
 1.3160	42.2640
 1.3170	42.1860
 1.3180	42.1130
 1.3190	42.0370
 1.3200	41.9550
 1.3210	41.8690
 1.3220	41.7780
 1.3230	41.6870
 1.3240	41.5980
 1.3250	41.5060
 1.3260	41.4130
 1.3270	41.3130
 1.3280	41.2070
 1.3290	41.1020
 1.3300	40.9930
 1.3310	40.8830
 1.3320	40.7760
 1.3330	40.6690
 1.3340	40.5580
 1.3350	40.4480
 1.3360	40.3380
 1.3370	40.2240
 1.3380	40.1110
 1.3390	39.9970
 1.3400	39.8780
 1.3410	39.7650
 1.3420	39.6540
 1.3430	39.5400
 1.3440	39.4280
 1.3450	39.3150
 1.3460	39.1980
 1.3470	39.0880
 1.3480	38.9820
 1.3490	38.8750
 1.3500	38.7710
 1.3510	38.6660
 1.3520	38.5620
 1.3530	38.4550
 1.3540	38.3490
 1.3550	38.2450
 1.3560	38.1330
 1.3570	38.0220
 1.3580	37.9120
 1.3590	37.7980
 1.3600	37.6830
 1.3610	37.5660
 1.3620	37.4430
 1.3630	37.3150
 1.3640	37.1840
 1.3650	37.0470
 1.3660	36.9020
 1.3670	36.7480
 1.3680	36.5840
 1.3690	36.4080
 1.3700	36.2200
 1.3710	36.0240
 1.3720	35.8170
 1.3730	35.5950
 1.3740	35.3620
 1.3750	35.1100
 1.3760	34.8360
 1.3770	34.5410
 1.3780	34.2200
 1.3790	33.8800
 1.3800	33.5220
 1.3810	33.1390
 1.3820	32.7370
 1.3830	32.3180
 1.3840	31.8770
 1.3850	31.4130
 1.3860	30.9360
 1.3870	30.4390
 1.3880	29.9340
 1.3890	29.4150
 1.3900	28.8850
 1.3910	28.3520
 1.3920	27.8110
 1.3930	27.2610
 1.3940	26.7100
 1.3950	26.1520
 1.3960	25.5980
 1.3970	25.0540
 1.3980	24.5160
 1.3990	23.9970
 1.4000	23.4890
 1.4010	22.9920
 1.4020	22.5140
 1.4030	22.0490
 1.4040	21.6050
 1.4050	21.1830
 1.4060	20.7820
 1.4070	20.4060
 1.4080	20.0530
 1.4090	19.7180
 1.4100	19.4060
 1.4110	19.1120
 1.4120	18.8360
 1.4130	18.5810
 1.4140	18.3440
 1.4150	18.1260
 1.4160	17.9270
 1.4170	17.7430
 1.4180	17.5730
 1.4190	17.4180
 1.4200	17.2760
 1.4210	17.1460
 1.4220	17.0310
 1.4230	16.9310
 1.4240	16.8400
 1.4250	16.7570
 1.4260	16.6850
 1.4270	16.6190
 1.4280	16.5600
 1.4290	16.5090
 1.4300	16.4660
 1.4310	16.4290
 1.4320	16.4000
 1.4330	16.3750
 1.4340	16.3570
 1.4350	16.3420
 1.4360	16.3310
 1.4370	16.3230
 1.4380	16.3190
 1.4390	16.3190
 1.4400	16.3230
 1.4410	16.3300
 1.4420	16.3400
 1.4430	16.3530
 1.4440	16.3690
 1.4450	16.3860
 1.4460	16.4040
 1.4470	16.4250
 1.4480	16.4480
 1.4490	16.4720
 1.4500	16.4980
 1.4510	16.5230
 1.4520	16.5490
 1.4530	16.5770
 1.4540	16.6070
 1.4550	16.6400
 1.4560	16.6760
 1.4570	16.7170
 1.4580	16.7580
 1.4590	16.8000
 1.4600	16.8500
 1.4610	16.9010
 1.4620	16.9570
 1.4630	17.0210
 1.4640	17.0850
 1.4650	17.1540
 1.4660	17.2280
 1.4670	17.3080
 1.4680	17.3960
 1.4690	17.4870
 1.4700	17.5820
 1.4710	17.6840
 1.4720	17.7890
 1.4730	17.8980
