Name: Taxodium mucronatum
Type: vegetation
Class: Tree
Genus: Taxodium
Species: mucronatum
Sample No.: JPL229
Owner: JPL
Wavelength Range: VSWIR
Origin: 34.12628; -118.11407; WGS84
Collection Date: 10/3/2016
Description: Samples were collected at the Huntington Garden in San Marino California as part of a JPL Subcontract studying HyTES imagery. Samples were taken to JPL and processed within 48 hours of collection. The same leaves were processed in the Nicolet and then measured using the ASD.
Measurement: Bidirectional reflectance
First Column: X
Second Column: Y
X Units: Wavelength (micrometer)
Y Units: Reflectance (percentage)
First X Value: 0.35
Last X Value: 2.5
Number of X Values: 2151
Additional Information: vegetation.tree.taxodium.mucronatum.vswir.jpl229.jpl.asd.ancillary.txt

 0.3500	 3.8350
 0.3510	 3.7290
 0.3520	 3.7350
 0.3530	 3.7430
 0.3540	 3.6830
 0.3550	 3.7300
 0.3560	 3.6860
 0.3570	 3.6070
 0.3580	 3.6550
 0.3590	 3.7020
 0.3600	 3.6770
 0.3610	 3.6010
 0.3620	 3.6120
 0.3630	 3.5910
 0.3640	 3.5740
 0.3650	 3.6060
 0.3660	 3.6390
 0.3670	 3.6280
 0.3680	 3.6200
 0.3690	 3.7010
 0.3700	 3.6710
 0.3710	 3.6060
 0.3720	 3.5720
 0.3730	 3.5410
 0.3740	 3.5490
 0.3750	 3.5560
 0.3760	 3.5220
 0.3770	 3.4930
 0.3780	 3.4990
 0.3790	 3.5530
 0.3800	 3.6440
 0.3810	 3.6610
 0.3820	 3.6430
 0.3830	 3.6340
 0.3840	 3.6160
 0.3850	 3.6300
 0.3860	 3.6460
 0.3870	 3.6300
 0.3880	 3.6660
 0.3890	 3.6870
 0.3900	 3.6770
 0.3910	 3.6760
 0.3920	 3.7180
 0.3930	 3.7410
 0.3940	 3.7140
 0.3950	 3.7340
 0.3960	 3.7480
 0.3970	 3.7670
 0.3980	 3.8240
 0.3990	 3.8750
 0.4000	 3.8950
 0.4010	 3.8930
 0.4020	 3.9150
 0.4030	 3.9620
 0.4040	 4.0170
 0.4050	 4.0610
 0.4060	 4.0930
 0.4070	 4.1370
 0.4080	 4.1830
 0.4090	 4.2060
 0.4100	 4.2330
 0.4110	 4.2770
 0.4120	 4.3370
 0.4130	 4.3910
 0.4140	 4.4380
 0.4150	 4.4750
 0.4160	 4.5070
 0.4170	 4.5510
 0.4180	 4.5860
 0.4190	 4.6140
 0.4200	 4.6580
 0.4210	 4.6910
 0.4220	 4.7240
 0.4230	 4.7690
 0.4240	 4.8130
 0.4250	 4.8480
 0.4260	 4.8730
 0.4270	 4.8880
 0.4280	 4.9240
 0.4290	 4.9520
 0.4300	 4.9670
 0.4310	 5.0030
 0.4320	 5.0240
 0.4330	 5.0380
 0.4340	 5.0580
 0.4350	 5.0760
 0.4360	 5.0850
 0.4370	 5.0950
 0.4380	 5.1260
 0.4390	 5.1440
 0.4400	 5.1510
 0.4410	 5.1570
 0.4420	 5.1770
 0.4430	 5.2010
 0.4440	 5.2260
 0.4450	 5.2530
 0.4460	 5.2700
 0.4470	 5.2900
 0.4480	 5.3150
 0.4490	 5.3390
 0.4500	 5.3590
 0.4510	 5.3770
 0.4520	 5.3960
 0.4530	 5.4150
 0.4540	 5.4350
 0.4550	 5.4540
 0.4560	 5.4710
 0.4570	 5.4850
 0.4580	 5.4980
 0.4590	 5.5100
 0.4600	 5.5260
 0.4610	 5.5370
 0.4620	 5.5460
 0.4630	 5.5590
 0.4640	 5.5590
 0.4650	 5.5660
 0.4660	 5.5800
 0.4670	 5.5800
 0.4680	 5.5870
 0.4690	 5.5980
 0.4700	 5.6050
 0.4710	 5.5990
 0.4720	 5.6000
 0.4730	 5.6070
 0.4740	 5.6110
 0.4750	 5.6120
 0.4760	 5.6130
 0.4770	 5.6140
 0.4780	 5.6180
 0.4790	 5.6210
 0.4800	 5.6250
 0.4810	 5.6310
 0.4820	 5.6380
 0.4830	 5.6460
 0.4840	 5.6580
 0.4850	 5.6790
 0.4860	 5.7070
 0.4870	 5.7350
 0.4880	 5.7620
 0.4890	 5.7960
 0.4900	 5.8320
 0.4910	 5.8760
 0.4920	 5.9320
 0.4930	 5.9870
 0.4940	 6.0480
 0.4950	 6.1180
 0.4960	 6.1960
 0.4970	 6.2800
 0.4980	 6.3710
 0.4990	 6.4720
 0.5000	 6.5850
 0.5010	 6.7080
 0.5020	 6.8380
 0.5030	 6.9730
 0.5040	 7.1180
 0.5050	 7.2750
 0.5060	 7.4450
 0.5070	 7.6250
 0.5080	 7.8110
 0.5090	 8.0070
 0.5100	 8.2160
 0.5110	 8.4300
 0.5120	 8.6550
 0.5130	 8.8900
 0.5140	 9.1310
 0.5150	 9.3750
 0.5160	 9.6220
 0.5170	 9.8740
 0.5180	10.1240
 0.5190	10.3750
 0.5200	10.6270
 0.5210	10.8800
 0.5220	11.1250
 0.5230	11.3610
 0.5240	11.5900
 0.5250	11.8090
 0.5260	12.0190
 0.5270	12.2180
 0.5280	12.4070
 0.5290	12.5860
 0.5300	12.7520
 0.5310	12.9050
 0.5320	13.0470
 0.5330	13.1810
 0.5340	13.3080
 0.5350	13.4260
 0.5360	13.5330
 0.5370	13.6320
 0.5380	13.7270
 0.5390	13.8240
 0.5400	13.9200
 0.5410	14.0200
 0.5420	14.1240
 0.5430	14.2150
 0.5440	14.2860
 0.5450	14.3400
 0.5460	14.3790
 0.5470	14.4070
 0.5480	14.4380
 0.5490	14.4780
 0.5500	14.5230
 0.5510	14.5620
 0.5520	14.5910
 0.5530	14.6100
 0.5540	14.6180
 0.5550	14.6160
 0.5560	14.6040
 0.5570	14.5840
 0.5580	14.5550
 0.5590	14.5200
 0.5600	14.4760
 0.5610	14.4230
 0.5620	14.3680
 0.5630	14.3070
 0.5640	14.2380
 0.5650	14.1660
 0.5660	14.0890
 0.5670	14.0060
 0.5680	13.9180
 0.5690	13.8240
 0.5700	13.7250
 0.5710	13.6240
 0.5720	13.5250
 0.5730	13.4300
 0.5740	13.3410
 0.5750	13.2560
 0.5760	13.1770
 0.5770	13.0990
 0.5780	13.0250
 0.5790	12.9620
 0.5800	12.9020
 0.5810	12.8440
 0.5820	12.7900
 0.5830	12.7390
 0.5840	12.6880
 0.5850	12.6350
 0.5860	12.5840
 0.5870	12.5410
 0.5880	12.4970
 0.5890	12.4500
 0.5900	12.4100
 0.5910	12.3790
 0.5920	12.3540
 0.5930	12.3260
 0.5940	12.2980
 0.5950	12.2770
 0.5960	12.2650
 0.5970	12.2550
 0.5980	12.2430
 0.5990	12.2310
 0.6000	12.2180
 0.6010	12.1970
 0.6020	12.1720
 0.6030	12.1440
 0.6040	12.1060
 0.6050	12.0630
 0.6060	12.0160
 0.6070	11.9630
 0.6080	11.9040
 0.6090	11.8500
 0.6100	11.8070
 0.6110	11.7730
 0.6120	11.7070
 0.6130	11.6200
 0.6140	11.5300
 0.6150	11.4560
 0.6160	11.3860
 0.6170	11.3200
 0.6180	11.2590
 0.6190	11.2070
 0.6200	11.1640
 0.6210	11.1270
 0.6220	11.0950
 0.6230	11.0700
 0.6240	11.0510
 0.6250	11.0360
 0.6260	11.0290
 0.6270	11.0290
 0.6280	11.0350
 0.6290	11.0450
 0.6300	11.0530
 0.6310	11.0560
 0.6320	11.0530
 0.6330	11.0400
 0.6340	11.0120
 0.6350	10.9720
 0.6360	10.9190
 0.6370	10.8450
 0.6380	10.7540
 0.6390	10.6480
 0.6400	10.5310
 0.6410	10.4010
 0.6420	10.2640
 0.6430	10.1240
 0.6440	 9.9770
 0.6450	 9.8290
 0.6460	 9.6830
 0.6470	 9.5470
 0.6480	 9.4180
 0.6490	 9.3040
 0.6500	 9.2080
 0.6510	 9.1260
 0.6520	 9.0600
 0.6530	 9.0010
 0.6540	 8.9430
 0.6550	 8.8850
 0.6560	 8.8230
 0.6570	 8.7570
 0.6580	 8.6850
 0.6590	 8.6050
 0.6600	 8.5160
 0.6610	 8.4210
 0.6620	 8.3240
 0.6630	 8.2250
 0.6640	 8.1260
 0.6650	 8.0310
 0.6660	 7.9460
 0.6670	 7.8670
 0.6680	 7.7980
 0.6690	 7.7420
 0.6700	 7.6980
 0.6710	 7.6670
 0.6720	 7.6460
 0.6730	 7.6380
 0.6740	 7.6400
 0.6750	 7.6500
 0.6760	 7.6690
 0.6770	 7.7020
 0.6780	 7.7460
 0.6790	 7.8040
 0.6800	 7.8830
 0.6810	 7.9880
 0.6820	 8.1230
 0.6830	 8.2960
 0.6840	 8.5120
 0.6850	 8.7800
 0.6860	 9.1090
 0.6870	 9.5060
 0.6880	 9.9710
 0.6890	10.5060
 0.6900	11.1100
 0.6910	11.7790
 0.6920	12.5010
 0.6930	13.2640
 0.6940	14.0570
 0.6950	14.8700
 0.6960	15.6900
 0.6970	16.5090
 0.6980	17.3210
 0.6990	18.1250
 0.7000	18.9140
 0.7010	19.6820
 0.7020	20.4240
 0.7030	21.1400
 0.7040	21.8310
 0.7050	22.4960
 0.7060	23.1360
 0.7070	23.7500
 0.7080	24.3410
 0.7090	24.9120
 0.7100	25.4620
 0.7110	25.9960
 0.7120	26.5140
 0.7130	27.0130
 0.7140	27.4930
 0.7150	27.9580
 0.7160	28.4080
 0.7170	28.8410
 0.7180	29.2580
 0.7190	29.6590
 0.7200	30.0440
 0.7210	30.4150
 0.7220	30.7660
 0.7230	31.0990
 0.7240	31.4180
 0.7250	31.7180
 0.7260	32.0000
 0.7270	32.2650
 0.7280	32.5180
 0.7290	32.7550
 0.7300	32.9760
 0.7310	33.1830
 0.7320	33.3770
 0.7330	33.5590
 0.7340	33.7270
 0.7350	33.8850
 0.7360	34.0340
 0.7370	34.1720
 0.7380	34.3010
 0.7390	34.4230
 0.7400	34.5370
 0.7410	34.6430
 0.7420	34.7400
 0.7430	34.8320
 0.7440	34.9150
 0.7450	34.9890
 0.7460	35.0590
 0.7470	35.1250
 0.7480	35.1850
 0.7490	35.2380
 0.7500	35.2900
 0.7510	35.3370
 0.7520	35.3810
 0.7530	35.4230
 0.7540	35.4630
 0.7550	35.5000
 0.7560	35.5340
 0.7570	35.5670
 0.7580	35.5980
 0.7590	35.6290
 0.7600	35.6600
 0.7610	35.6900
 0.7620	35.7170
 0.7630	35.7400
 0.7640	35.7650
 0.7650	35.7910
 0.7660	35.8140
 0.7670	35.8330
 0.7680	35.8550
 0.7690	35.8760
 0.7700	35.8970
 0.7710	35.9190
 0.7720	35.9410
 0.7730	35.9620
 0.7740	35.9810
 0.7750	35.9990
 0.7760	36.0200
 0.7770	36.0420
 0.7780	36.0610
 0.7790	36.0790
 0.7800	36.0990
 0.7810	36.1190
 0.7820	36.1380
 0.7830	36.1580
 0.7840	36.1770
 0.7850	36.1930
 0.7860	36.2090
 0.7870	36.2270
 0.7880	36.2420
 0.7890	36.2550
 0.7900	36.2690
 0.7910	36.2860
 0.7920	36.3020
 0.7930	36.3150
 0.7940	36.3270
 0.7950	36.3400
 0.7960	36.3520
 0.7970	36.3610
 0.7980	36.3690
 0.7990	36.3780
 0.8000	36.3870
 0.8010	36.3950
 0.8020	36.4030
 0.8030	36.4100
 0.8040	36.4170
 0.8050	36.4260
 0.8060	36.4310
 0.8070	36.4340
 0.8080	36.4360
 0.8090	36.4390
 0.8100	36.4430
 0.8110	36.4450
 0.8120	36.4450
 0.8130	36.4480
 0.8140	36.4490
 0.8150	36.4480
 0.8160	36.4490
 0.8170	36.4500
 0.8180	36.4510
 0.8190	36.4510
 0.8200	36.4490
 0.8210	36.4460
 0.8220	36.4450
 0.8230	36.4460
 0.8240	36.4430
 0.8250	36.4410
 0.8260	36.4390
 0.8270	36.4370
 0.8280	36.4360
 0.8290	36.4310
 0.8300	36.4260
 0.8310	36.4240
 0.8320	36.4220
 0.8330	36.4190
 0.8340	36.4170
 0.8350	36.4170
 0.8360	36.4150
 0.8370	36.4150
 0.8380	36.4180
 0.8390	36.4180
 0.8400	36.4200
 0.8410	36.4230
 0.8420	36.4260
 0.8430	36.4280
 0.8440	36.4310
 0.8450	36.4360
 0.8460	36.4400
 0.8470	36.4420
 0.8480	36.4450
 0.8490	36.4490
 0.8500	36.4560
 0.8510	36.4630
 0.8520	36.4710
 0.8530	36.4780
 0.8540	36.4800
 0.8550	36.4880
 0.8560	36.4960
 0.8570	36.5020
 0.8580	36.5080
 0.8590	36.5140
 0.8600	36.5230
 0.8610	36.5330
 0.8620	36.5450
 0.8630	36.5510
 0.8640	36.5570
 0.8650	36.5700
 0.8660	36.5810
 0.8670	36.5900
 0.8680	36.5980
 0.8690	36.6080
 0.8700	36.6180
 0.8710	36.6300
 0.8720	36.6420
 0.8730	36.6490
 0.8740	36.6580
 0.8750	36.6710
 0.8760	36.6840
 0.8770	36.6890
 0.8780	36.6990
 0.8790	36.7110
 0.8800	36.7230
 0.8810	36.7360
 0.8820	36.7450
 0.8830	36.7530
 0.8840	36.7640
 0.8850	36.7770
 0.8860	36.7890
 0.8870	36.7980
 0.8880	36.8060
 0.8890	36.8190
 0.8900	36.8330
 0.8910	36.8420
 0.8920	36.8470
 0.8930	36.8600
 0.8940	36.8720
 0.8950	36.8800
 0.8960	36.8880
 0.8970	36.8940
 0.8980	36.9030
 0.8990	36.9140
 0.9000	36.9270
 0.9010	36.9390
 0.9020	36.9440
 0.9030	36.9480
 0.9040	36.9620
 0.9050	36.9720
 0.9060	36.9790
 0.9070	36.9870
 0.9080	36.9920
 0.9090	36.9980
 0.9100	37.0030
 0.9110	37.0080
 0.9120	37.0110
 0.9130	37.0150
 0.9140	37.0190
 0.9150	37.0220
 0.9160	37.0260
 0.9170	37.0300
 0.9180	37.0350
 0.9190	37.0380
 0.9200	37.0320
 0.9210	37.0300
 0.9220	37.0320
 0.9230	37.0290
 0.9240	37.0240
 0.9250	37.0210
 0.9260	37.0170
 0.9270	37.0010
 0.9280	36.9870
 0.9290	36.9760
 0.9300	36.9660
 0.9310	36.9530
 0.9320	36.9410
 0.9330	36.9270
 0.9340	36.9110
 0.9350	36.8980
 0.9360	36.8780
 0.9370	36.8550
 0.9380	36.8350
 0.9390	36.8160
 0.9400	36.7990
 0.9410	36.7770
 0.9420	36.7480
 0.9430	36.7250
 0.9440	36.6920
 0.9450	36.6570
 0.9460	36.6260
 0.9470	36.5930
 0.9480	36.5550
 0.9490	36.5100
 0.9500	36.4600
 0.9510	36.4140
 0.9520	36.3640
 0.9530	36.3150
 0.9540	36.2690
 0.9550	36.2120
 0.9560	36.1570
 0.9570	36.1100
 0.9580	36.0720
 0.9590	36.0320
 0.9600	36.0010
 0.9610	35.9690
 0.9620	35.9270
 0.9630	35.8960
 0.9640	35.8670
 0.9650	35.8420
 0.9660	35.8290
 0.9670	35.8160
 0.9680	35.8090
 0.9690	35.7990
 0.9700	35.7790
 0.9710	35.7710
 0.9720	35.7630
 0.9730	35.7520
 0.9740	35.7400
 0.9750	35.7360
 0.9760	35.7370
 0.9770	35.7350
 0.9780	35.7220
 0.9790	35.7260
 0.9800	35.7340
 0.9810	35.7400
 0.9820	35.7420
 0.9830	35.7390
 0.9840	35.7450
 0.9850	35.7550
 0.9860	35.7640
 0.9870	35.7770
 0.9880	35.7830
 0.9890	35.7870
 0.9900	35.8010
 0.9910	35.8130
 0.9920	35.8230
 0.9930	35.8320
 0.9940	35.8450
 0.9950	35.8610
 0.9960	35.8740
 0.9970	35.8920
 0.9980	35.9220
 0.9990	35.9440
 1.0000	35.9530
 1.0010	36.9860
 1.0020	37.0030
 1.0030	37.0250
 1.0040	37.0420
 1.0050	37.0610
 1.0060	37.0790
 1.0070	37.0930
 1.0080	37.1100
 1.0090	37.1300
 1.0100	37.1480
 1.0110	37.1640
 1.0120	37.1810
 1.0130	37.1970
 1.0140	37.2150
 1.0150	37.2330
 1.0160	37.2540
 1.0170	37.2720
 1.0180	37.2890
 1.0190	37.3070
 1.0200	37.3220
 1.0210	37.3400
 1.0220	37.3590
 1.0230	37.3770
 1.0240	37.3930
 1.0250	37.4110
 1.0260	37.4280
 1.0270	37.4460
 1.0280	37.4670
 1.0290	37.4840
 1.0300	37.4970
 1.0310	37.5150
 1.0320	37.5370
 1.0330	37.5560
 1.0340	37.5710
 1.0350	37.5880
 1.0360	37.6000
 1.0370	37.6110
 1.0380	37.6240
 1.0390	37.6390
 1.0400	37.6530
 1.0410	37.6650
 1.0420	37.6760
 1.0430	37.6860
 1.0440	37.6980
 1.0450	37.7100
 1.0460	37.7210
 1.0470	37.7350
 1.0480	37.7480
 1.0490	37.7610
 1.0500	37.7720
 1.0510	37.7830
 1.0520	37.7940
 1.0530	37.8020
 1.0540	37.8050
 1.0550	37.8120
 1.0560	37.8210
 1.0570	37.8270
 1.0580	37.8370
 1.0590	37.8420
 1.0600	37.8420
 1.0610	37.8450
 1.0620	37.8480
 1.0630	37.8510
 1.0640	37.8570
 1.0650	37.8600
 1.0660	37.8590
 1.0670	37.8600
 1.0680	37.8610
 1.0690	37.8610
 1.0700	37.8610
 1.0710	37.8630
 1.0720	37.8610
 1.0730	37.8570
 1.0740	37.8550
 1.0750	37.8550
 1.0760	37.8530
 1.0770	37.8540
 1.0780	37.8520
 1.0790	37.8490
 1.0800	37.8460
 1.0810	37.8410
 1.0820	37.8370
 1.0830	37.8320
 1.0840	37.8270
 1.0850	37.8220
 1.0860	37.8170
 1.0870	37.8110
 1.0880	37.8030
 1.0890	37.7970
 1.0900	37.7910
 1.0910	37.7850
 1.0920	37.7820
 1.0930	37.7740
 1.0940	37.7630
 1.0950	37.7530
 1.0960	37.7420
 1.0970	37.7310
 1.0980	37.7210
 1.0990	37.7110
 1.1000	37.7030
 1.1010	37.6930
 1.1020	37.6820
 1.1030	37.6700
 1.1040	37.6600
 1.1050	37.6500
 1.1060	37.6400
 1.1070	37.6320
 1.1080	37.6210
 1.1090	37.6070
 1.1100	37.5940
 1.1110	37.5810
 1.1120	37.5680
 1.1130	37.5540
 1.1140	37.5390
 1.1150	37.5240
 1.1160	37.5070
 1.1170	37.4880
 1.1180	37.4680
 1.1190	37.4460
 1.1200	37.4230
 1.1210	37.3990
 1.1220	37.3730
 1.1230	37.3450
 1.1240	37.3120
 1.1250	37.2740
 1.1260	37.2340
 1.1270	37.1880
 1.1280	37.1380
 1.1290	37.0810
 1.1300	37.0190
 1.1310	36.9510
 1.1320	36.8770
 1.1330	36.7970
 1.1340	36.7120
 1.1350	36.6190
 1.1360	36.5190
 1.1370	36.4150
 1.1380	36.3080
 1.1390	36.1950
 1.1400	36.0790
 1.1410	35.9620
 1.1420	35.8390
 1.1430	35.7160
 1.1440	35.5940
 1.1450	35.4680
 1.1460	35.3500
 1.1470	35.2340
 1.1480	35.1220
 1.1490	35.0140
 1.1500	34.9120
 1.1510	34.8130
 1.1520	34.7210
 1.1530	34.6360
 1.1540	34.5580
 1.1550	34.4860
 1.1560	34.4190
 1.1570	34.3600
 1.1580	34.3050
 1.1590	34.2540
 1.1600	34.2110
 1.1610	34.1710
 1.1620	34.1360
 1.1630	34.1040
 1.1640	34.0730
 1.1650	34.0450
 1.1660	34.0210
 1.1670	33.9970
 1.1680	33.9770
 1.1690	33.9570
 1.1700	33.9380
 1.1710	33.9190
 1.1720	33.9010
 1.1730	33.8850
 1.1740	33.8690
 1.1750	33.8540
 1.1760	33.8390
 1.1770	33.8250
 1.1780	33.8080
 1.1790	33.7900
 1.1800	33.7720
 1.1810	33.7520
 1.1820	33.7360
 1.1830	33.7180
 1.1840	33.7020
 1.1850	33.6860
 1.1860	33.6680
 1.1870	33.6510
 1.1880	33.6360
 1.1890	33.6210
 1.1900	33.6080
 1.1910	33.5970
 1.1920	33.5860
 1.1930	33.5760
 1.1940	33.5670
 1.1950	33.5600
 1.1960	33.5550
 1.1970	33.5510
 1.1980	33.5470
 1.1990	33.5440
 1.2000	33.5430
 1.2010	33.5450
 1.2020	33.5490
 1.2030	33.5540
 1.2040	33.5620
 1.2050	33.5720
 1.2060	33.5810
 1.2070	33.5920
 1.2080	33.6030
 1.2090	33.6130
 1.2100	33.6250
 1.2110	33.6400
 1.2120	33.6570
 1.2130	33.6750
 1.2140	33.6960
 1.2150	33.7150
 1.2160	33.7350
 1.2170	33.7560
 1.2180	33.7730
 1.2190	33.7930
 1.2200	33.8150
 1.2210	33.8360
 1.2220	33.8580
 1.2230	33.8800
 1.2240	33.9010
 1.2250	33.9210
 1.2260	33.9430
 1.2270	33.9660
 1.2280	33.9860
 1.2290	34.0050
 1.2300	34.0230
 1.2310	34.0410
 1.2320	34.0580
 1.2330	34.0780
 1.2340	34.0960
 1.2350	34.1130
 1.2360	34.1290
 1.2370	34.1450
 1.2380	34.1600
 1.2390	34.1730
 1.2400	34.1870
 1.2410	34.2010
 1.2420	34.2140
 1.2430	34.2260
 1.2440	34.2400
 1.2450	34.2520
 1.2460	34.2630
 1.2470	34.2760
 1.2480	34.2900
 1.2490	34.3010
 1.2500	34.3110
 1.2510	34.3190
 1.2520	34.3260
 1.2530	34.3340
 1.2540	34.3440
 1.2550	34.3530
 1.2560	34.3610
 1.2570	34.3650
 1.2580	34.3680
 1.2590	34.3710
 1.2600	34.3720
 1.2610	34.3740
 1.2620	34.3770
 1.2630	34.3790
 1.2640	34.3800
 1.2650	34.3800
 1.2660	34.3790
 1.2670	34.3770
 1.2680	34.3740
 1.2690	34.3700
 1.2700	34.3650
 1.2710	34.3600
 1.2720	34.3520
 1.2730	34.3430
 1.2740	34.3330
 1.2750	34.3220
 1.2760	34.3110
 1.2770	34.2990
 1.2780	34.2850
 1.2790	34.2700
 1.2800	34.2530
 1.2810	34.2350
 1.2820	34.2170
 1.2830	34.1980
 1.2840	34.1770
 1.2850	34.1540
 1.2860	34.1270
 1.2870	34.0990
 1.2880	34.0680
 1.2890	34.0340
 1.2900	33.9990
 1.2910	33.9650
 1.2920	33.9280
 1.2930	33.8900
 1.2940	33.8490
 1.2950	33.8060
 1.2960	33.7610
 1.2970	33.7140
 1.2980	33.6660
 1.2990	33.6160
 1.3000	33.5610
 1.3010	33.5060
 1.3020	33.4500
 1.3030	33.3930
 1.3040	33.3330
 1.3050	33.2700
 1.3060	33.2060
 1.3070	33.1380
 1.3080	33.0680
 1.3090	32.9970
 1.3100	32.9240
 1.3110	32.8480
 1.3120	32.7710
 1.3130	32.6890
 1.3140	32.6060
 1.3150	32.5190
 1.3160	32.4310
 1.3170	32.3430
 1.3180	32.2530
 1.3190	32.1610
 1.3200	32.0660
 1.3210	31.9670
 1.3220	31.8670
 1.3230	31.7670
 1.3240	31.6640
 1.3250	31.5610
 1.3260	31.4550
 1.3270	31.3450
 1.3280	31.2340
 1.3290	31.1220
 1.3300	31.0090
 1.3310	30.8960
 1.3320	30.7820
 1.3330	30.6670
 1.3340	30.5510
 1.3350	30.4340
 1.3360	30.3180
 1.3370	30.2020
 1.3380	30.0870
 1.3390	29.9730
 1.3400	29.8580
 1.3410	29.7460
 1.3420	29.6340
 1.3430	29.5210
 1.3440	29.4120
 1.3450	29.3030
 1.3460	29.1950
 1.3470	29.0880
 1.3480	28.9840
 1.3490	28.8800
 1.3500	28.7780
 1.3510	28.6760
 1.3520	28.5740
 1.3530	28.4730
 1.3540	28.3720
 1.3550	28.2690
 1.3560	28.1670
 1.3570	28.0650
 1.3580	27.9610
 1.3590	27.8530
 1.3600	27.7430
 1.3610	27.6290
 1.3620	27.5090
 1.3630	27.3870
 1.3640	27.2610
 1.3650	27.1280
 1.3660	26.9890
 1.3670	26.8430
 1.3680	26.6890
 1.3690	26.5240
 1.3700	26.3490
 1.3710	26.1640
 1.3720	25.9650
 1.3730	25.7520
 1.3740	25.5260
 1.3750	25.2850
 1.3760	25.0260
 1.3770	24.7510
 1.3780	24.4540
 1.3790	24.1390
 1.3800	23.8070
 1.3810	23.4540
 1.3820	23.0890
 1.3830	22.7080
 1.3840	22.3140
 1.3850	21.9040
 1.3860	21.4870
 1.3870	21.0540
 1.3880	20.6210
 1.3890	20.1820
 1.3900	19.7380
 1.3910	19.2980
 1.3920	18.8580
 1.3930	18.4190
 1.3940	17.9870
 1.3950	17.5570
 1.3960	17.1380
 1.3970	16.7300
 1.3980	16.3340
 1.3990	15.9560
 1.4000	15.5920
 1.4010	15.2410
 1.4020	14.9080
 1.4030	14.5890
 1.4040	14.2860
 1.4050	14.0020
 1.4060	13.7330
 1.4070	13.4830
 1.4080	13.2460
 1.4090	13.0220
 1.4100	12.8140
 1.4110	12.6180
 1.4120	12.4350
 1.4130	12.2660
 1.4140	12.1080
 1.4150	11.9620
 1.4160	11.8260
 1.4170	11.7000
 1.4180	11.5830
 1.4190	11.4740
 1.4200	11.3720
 1.4210	11.2780
 1.4220	11.1900
 1.4230	11.1090
 1.4240	11.0350
 1.4250	10.9650
 1.4260	10.9000
 1.4270	10.8400
 1.4280	10.7850
 1.4290	10.7340
 1.4300	10.6870
 1.4310	10.6440
 1.4320	10.6060
 1.4330	10.5700
 1.4340	10.5380
 1.4350	10.5090
 1.4360	10.4830
 1.4370	10.4590
 1.4380	10.4370
 1.4390	10.4190
 1.4400	10.4030
 1.4410	10.3890
 1.4420	10.3780
 1.4430	10.3690
 1.4440	10.3610
 1.4450	10.3540
 1.4460	10.3490
 1.4470	10.3460
 1.4480	10.3450
 1.4490	10.3460
 1.4500	10.3470
 1.4510	10.3490
 1.4520	10.3530
 1.4530	10.3580
 1.4540	10.3640
 1.4550	10.3730
 1.4560	10.3840
 1.4570	10.3970
 1.4580	10.4120
 1.4590	10.4300
 1.4600	10.4490
 1.4610	10.4710
 1.4620	10.4950
 1.4630	10.5220
 1.4640	10.5520
 1.4650	10.5850
 1.4660	10.6210
 1.4670	10.6600
 1.4680	10.7020
 1.4690	10.7470
 1.4700	10.7930
 1.4710	10.8440
 1.4720	10.8970
 1.4730	10.9520
 1.4740	11.0110
 1.4750	11.0710
 1.4760	11.1320
 1.4770	11.1970
