Name: Abies concolor 2
Type: vegetation
Class: Tree
Genus: Abies
Species: concolor
Sample No.: VH159
Owner: UCSB
Wavelength Range: VSWIR
Origin: 37.0437; -119.3025; WGS84
Collection Date: 6/8/2013
Description: Samples were collected as part of the HyspIRI Airborne Campaign. 48 individual plants were sampled in three times in 2013 - spring  summer  and fall. The name of the sample includes a 1  2  or 3 which references a different individual of the species. Samples were taken to JPL and processed within 48 hours of collection. The same leaves were processed in the Nicolet and then measured using the ASD.
Measurement: Bidirectional reflectance
First Column: X
Second Column: Y
X Units: Wavelength (micrometers)
Y Units: Reflectance (percentage)
First X Value: 0.35
Last X Value: 2.5
Number of X Values: 2151
Additional Information: vegetation.tree.abies.concolor.vswir.vh159.ucsb.asd.ancillary.txt

 0.3500	 4.3150
 0.3510	 4.2840
 0.3520	 4.1710
 0.3530	 4.0580
 0.3540	 3.9920
 0.3550	 3.9640
 0.3560	 4.0230
 0.3570	 4.1110
 0.3580	 4.1230
 0.3590	 3.9800
 0.3600	 3.9150
 0.3610	 3.9940
 0.3620	 4.0070
 0.3630	 3.9290
 0.3640	 3.8520
 0.3650	 3.8600
 0.3660	 3.8950
 0.3670	 3.9560
 0.3680	 3.9930
 0.3690	 3.9170
 0.3700	 3.7940
 0.3710	 3.7740
 0.3720	 3.8810
 0.3730	 3.8710
 0.3740	 3.8100
 0.3750	 3.7990
 0.3760	 3.8950
 0.3770	 3.8510
 0.3780	 3.8480
 0.3790	 3.8870
 0.3800	 3.8260
 0.3810	 3.8160
 0.3820	 3.8300
 0.3830	 3.8320
 0.3840	 3.8360
 0.3850	 3.8440
 0.3860	 3.8380
 0.3870	 3.8070
 0.3880	 3.8140
 0.3890	 3.7970
 0.3900	 3.7620
 0.3910	 3.7860
 0.3920	 3.7690
 0.3930	 3.7590
 0.3940	 3.7860
 0.3950	 3.7750
 0.3960	 3.7960
 0.3970	 3.8440
 0.3980	 3.8680
 0.3990	 3.8920
 0.4000	 3.8910
 0.4010	 3.8770
 0.4020	 3.9100
 0.4030	 3.9430
 0.4040	 3.9720
 0.4050	 4.0010
 0.4060	 4.0300
 0.4070	 4.0620
 0.4080	 4.1020
 0.4090	 4.1580
 0.4100	 4.2000
 0.4110	 4.2260
 0.4120	 4.2550
 0.4130	 4.3150
 0.4140	 4.3550
 0.4150	 4.3940
 0.4160	 4.4600
 0.4170	 4.5130
 0.4180	 4.5750
 0.4190	 4.6460
 0.4200	 4.7080
 0.4210	 4.7640
 0.4220	 4.8130
 0.4230	 4.8600
 0.4240	 4.9420
 0.4250	 5.0070
 0.4260	 5.0530
 0.4270	 5.1030
 0.4280	 5.1690
 0.4290	 5.2300
 0.4300	 5.2880
 0.4310	 5.3530
 0.4320	 5.4330
 0.4330	 5.5050
 0.4340	 5.5560
 0.4350	 5.6120
 0.4360	 5.6590
 0.4370	 5.6990
 0.4380	 5.7340
 0.4390	 5.7790
 0.4400	 5.8310
 0.4410	 5.8840
 0.4420	 5.9170
 0.4430	 5.9530
 0.4440	 5.9940
 0.4450	 6.0540
 0.4460	 6.1080
 0.4470	 6.1570
 0.4480	 6.1980
 0.4490	 6.2270
 0.4500	 6.2640
 0.4510	 6.3060
 0.4520	 6.3400
 0.4530	 6.3810
 0.4540	 6.4210
 0.4550	 6.4530
 0.4560	 6.4710
 0.4570	 6.4840
 0.4580	 6.4940
 0.4590	 6.5110
 0.4600	 6.5420
 0.4610	 6.5600
 0.4620	 6.5730
 0.4630	 6.5910
 0.4640	 6.5970
 0.4650	 6.6070
 0.4660	 6.6210
 0.4670	 6.6350
 0.4680	 6.6410
 0.4690	 6.6520
 0.4700	 6.6650
 0.4710	 6.6640
 0.4720	 6.6540
 0.4730	 6.6590
 0.4740	 6.6910
 0.4750	 6.7020
 0.4760	 6.6970
 0.4770	 6.6880
 0.4780	 6.7030
 0.4790	 6.7170
 0.4800	 6.7250
 0.4810	 6.7280
 0.4820	 6.7330
 0.4830	 6.7480
 0.4840	 6.7690
 0.4850	 6.7810
 0.4860	 6.8000
 0.4870	 6.8120
 0.4880	 6.8190
 0.4890	 6.8590
 0.4900	 6.8940
 0.4910	 6.9220
 0.4920	 6.9540
 0.4930	 6.9920
 0.4940	 7.0280
 0.4950	 7.0680
 0.4960	 7.1230
 0.4970	 7.1780
 0.4980	 7.2350
 0.4990	 7.2970
 0.5000	 7.3610
 0.5010	 7.4330
 0.5020	 7.5160
 0.5030	 7.6020
 0.5040	 7.6960
 0.5050	 7.8010
 0.5060	 7.9140
 0.5070	 8.0260
 0.5080	 8.1510
 0.5090	 8.2910
 0.5100	 8.4330
 0.5110	 8.5750
 0.5120	 8.7300
 0.5130	 8.8960
 0.5140	 9.0680
 0.5150	 9.2460
 0.5160	 9.4330
 0.5170	 9.6180
 0.5180	 9.8160
 0.5190	10.0130
 0.5200	10.2080
 0.5210	10.4090
 0.5220	10.6010
 0.5230	10.7880
 0.5240	10.9700
 0.5250	11.1470
 0.5260	11.3100
 0.5270	11.4640
 0.5280	11.6120
 0.5290	11.7520
 0.5300	11.8790
 0.5310	11.9920
 0.5320	12.1000
 0.5330	12.1950
 0.5340	12.2810
 0.5350	12.3640
 0.5360	12.4350
 0.5370	12.5050
 0.5380	12.5740
 0.5390	12.6320
 0.5400	12.6900
 0.5410	12.7520
 0.5420	12.8180
 0.5430	12.8820
 0.5440	12.9370
 0.5450	12.9810
 0.5460	13.0180
 0.5470	13.0480
 0.5480	13.0730
 0.5490	13.0970
 0.5500	13.1250
 0.5510	13.1480
 0.5520	13.1620
 0.5530	13.1670
 0.5540	13.1640
 0.5550	13.1480
 0.5560	13.1180
 0.5570	13.0770
 0.5580	13.0300
 0.5590	12.9740
 0.5600	12.9080
 0.5610	12.8350
 0.5620	12.7640
 0.5630	12.6910
 0.5640	12.6100
 0.5650	12.5190
 0.5660	12.4260
 0.5670	12.3310
 0.5680	12.2310
 0.5690	12.1260
 0.5700	12.0170
 0.5710	11.9070
 0.5720	11.8000
 0.5730	11.6970
 0.5740	11.5970
 0.5750	11.5050
 0.5760	11.4200
 0.5770	11.3390
 0.5780	11.2610
 0.5790	11.1890
 0.5800	11.1170
 0.5810	11.0480
 0.5820	10.9880
 0.5830	10.9290
 0.5840	10.8710
 0.5850	10.8160
 0.5860	10.7600
 0.5870	10.7140
 0.5880	10.6700
 0.5890	10.6190
 0.5900	10.5770
 0.5910	10.5430
 0.5920	10.5130
 0.5930	10.4880
 0.5940	10.4640
 0.5950	10.4430
 0.5960	10.4290
 0.5970	10.4100
 0.5980	10.3890
 0.5990	10.3660
 0.6000	10.3450
 0.6010	10.3200
 0.6020	10.2920
 0.6030	10.2590
 0.6040	10.2200
 0.6050	10.1780
 0.6060	10.1260
 0.6070	10.0680
 0.6080	10.0120
 0.6090	 9.9600
 0.6100	 9.9110
 0.6110	 9.8640
 0.6120	 9.7970
 0.6130	 9.7170
 0.6140	 9.6350
 0.6150	 9.5690
 0.6160	 9.5070
 0.6170	 9.4470
 0.6180	 9.3910
 0.6190	 9.3390
 0.6200	 9.2970
 0.6210	 9.2630
 0.6220	 9.2300
 0.6230	 9.1950
 0.6240	 9.1690
 0.6250	 9.1520
 0.6260	 9.1370
 0.6270	 9.1280
 0.6280	 9.1200
 0.6290	 9.1100
 0.6300	 9.1060
 0.6310	 9.0990
 0.6320	 9.0860
 0.6330	 9.0680
 0.6340	 9.0430
 0.6350	 9.0110
 0.6360	 8.9760
 0.6370	 8.9190
 0.6380	 8.8590
 0.6390	 8.7960
 0.6400	 8.7260
 0.6410	 8.6530
 0.6420	 8.5740
 0.6430	 8.4880
 0.6440	 8.4050
 0.6450	 8.3220
 0.6460	 8.2410
 0.6470	 8.1570
 0.6480	 8.0830
 0.6490	 8.0180
 0.6500	 7.9640
 0.6510	 7.9150
 0.6520	 7.8690
 0.6530	 7.8250
 0.6540	 7.7810
 0.6550	 7.7350
 0.6560	 7.6880
 0.6570	 7.6320
 0.6580	 7.5660
 0.6590	 7.4910
 0.6600	 7.4100
 0.6610	 7.3260
 0.6620	 7.2420
 0.6630	 7.1560
 0.6640	 7.0760
 0.6650	 6.9980
 0.6660	 6.9310
 0.6670	 6.8690
 0.6680	 6.8160
 0.6690	 6.7730
 0.6700	 6.7350
 0.6710	 6.7070
 0.6720	 6.6880
 0.6730	 6.6690
 0.6740	 6.6620
 0.6750	 6.6630
 0.6760	 6.6680
 0.6770	 6.6710
 0.6780	 6.6870
 0.6790	 6.7100
 0.6800	 6.7470
 0.6810	 6.7960
 0.6820	 6.8580
 0.6830	 6.9400
 0.6840	 7.0460
 0.6850	 7.1860
 0.6860	 7.3580
 0.6870	 7.5580
 0.6880	 7.7950
 0.6890	 8.0800
 0.6900	 8.4110
 0.6910	 8.7910
 0.6920	 9.2250
 0.6930	 9.7070
 0.6940	10.2350
 0.6950	10.8080
 0.6960	11.4280
 0.6970	12.0850
 0.6980	12.7690
 0.6990	13.4830
 0.7000	14.2190
 0.7010	14.9730
 0.7020	15.7420
 0.7030	16.5100
 0.7040	17.2820
 0.7050	18.0560
 0.7060	18.8280
 0.7070	19.5990
 0.7080	20.3700
 0.7090	21.1440
 0.7100	21.9240
 0.7110	22.7090
 0.7120	23.4990
 0.7130	24.2920
 0.7140	25.0950
 0.7150	25.9080
 0.7160	26.7270
 0.7170	27.5500
 0.7180	28.3770
 0.7190	29.2120
 0.7200	30.0540
 0.7210	30.8920
 0.7220	31.7280
 0.7230	32.5620
 0.7240	33.3940
 0.7250	34.2080
 0.7260	35.0140
 0.7270	35.8170
 0.7280	36.5940
 0.7290	37.3490
 0.7300	38.0840
 0.7310	38.8030
 0.7320	39.5020
 0.7330	40.1750
 0.7340	40.8210
 0.7350	41.4460
 0.7360	42.0360
 0.7370	42.6030
 0.7380	43.1530
 0.7390	43.6700
 0.7400	44.1600
 0.7410	44.6240
 0.7420	45.0660
 0.7430	45.4790
 0.7440	45.8670
 0.7450	46.2340
 0.7460	46.5800
 0.7470	46.8980
 0.7480	47.1940
 0.7490	47.4700
 0.7500	47.7210
 0.7510	47.9520
 0.7520	48.1660
 0.7530	48.3650
 0.7540	48.5510
 0.7550	48.7250
 0.7560	48.8840
 0.7570	49.0300
 0.7580	49.1600
 0.7590	49.2830
 0.7600	49.4000
 0.7610	49.5100
 0.7620	49.6020
 0.7630	49.6850
 0.7640	49.7700
 0.7650	49.8530
 0.7660	49.9260
 0.7670	49.9930
 0.7680	50.0590
 0.7690	50.1150
 0.7700	50.1700
 0.7710	50.2260
 0.7720	50.2720
 0.7730	50.3220
 0.7740	50.3710
 0.7750	50.4120
 0.7760	50.4540
 0.7770	50.4940
 0.7780	50.5320
 0.7790	50.5720
 0.7800	50.6050
 0.7810	50.6380
 0.7820	50.6730
 0.7830	50.7070
 0.7840	50.7420
 0.7850	50.7830
 0.7860	50.8240
 0.7870	50.8490
 0.7880	50.8770
 0.7890	50.9100
 0.7900	50.9400
 0.7910	50.9630
 0.7920	50.9870
 0.7930	51.0150
 0.7940	51.0400
 0.7950	51.0630
 0.7960	51.0890
 0.7970	51.1170
 0.7980	51.1430
 0.7990	51.1670
 0.8000	51.1870
 0.8010	51.2020
 0.8020	51.2220
 0.8030	51.2450
 0.8040	51.2640
 0.8050	51.2760
 0.8060	51.2930
 0.8070	51.3120
 0.8080	51.3300
 0.8090	51.3470
 0.8100	51.3620
 0.8110	51.3770
 0.8120	51.3940
 0.8130	51.4140
 0.8140	51.4250
 0.8150	51.4340
 0.8160	51.4510
 0.8170	51.4680
 0.8180	51.4800
 0.8190	51.4900
 0.8200	51.5050
 0.8210	51.5310
 0.8220	51.5440
 0.8230	51.5460
 0.8240	51.5600
 0.8250	51.5710
 0.8260	51.5810
 0.8270	51.5930
 0.8280	51.6100
 0.8290	51.6120
 0.8300	51.6110
 0.8310	51.6200
 0.8320	51.6270
 0.8330	51.6380
 0.8340	51.6530
 0.8350	51.6680
 0.8360	51.6800
 0.8370	51.6960
 0.8380	51.7130
 0.8390	51.7300
 0.8400	51.7490
 0.8410	51.7690
 0.8420	51.7870
 0.8430	51.8010
 0.8440	51.8260
 0.8450	51.8470
 0.8460	51.8540
 0.8470	51.8710
 0.8480	51.8910
 0.8490	51.9140
 0.8500	51.9370
 0.8510	51.9500
 0.8520	51.9690
 0.8530	51.9940
 0.8540	52.0130
 0.8550	52.0290
 0.8560	52.0470
 0.8570	52.0670
 0.8580	52.0860
 0.8590	52.1030
 0.8600	52.1140
 0.8610	52.1210
 0.8620	52.1380
 0.8630	52.1550
 0.8640	52.1680
 0.8650	52.1760
 0.8660	52.1930
 0.8670	52.2110
 0.8680	52.2250
 0.8690	52.2300
 0.8700	52.2460
 0.8710	52.2630
 0.8720	52.2760
 0.8730	52.2840
 0.8740	52.2990
 0.8750	52.3090
 0.8760	52.3140
 0.8770	52.3240
 0.8780	52.3390
 0.8790	52.3530
 0.8800	52.3630
 0.8810	52.3720
 0.8820	52.3680
 0.8830	52.3630
 0.8840	52.3660
 0.8850	52.3730
 0.8860	52.3800
 0.8870	52.3870
 0.8880	52.3940
 0.8890	52.3870
 0.8900	52.3810
 0.8910	52.3810
 0.8920	52.3860
 0.8930	52.3860
 0.8940	52.3800
 0.8950	52.3720
 0.8960	52.3670
 0.8970	52.3610
 0.8980	52.3600
 0.8990	52.3600
 0.9000	52.3520
 0.9010	52.3370
 0.9020	52.3280
 0.9030	52.3290
 0.9040	52.3220
 0.9050	52.3150
 0.9060	52.3080
 0.9070	52.3040
 0.9080	52.3060
 0.9090	52.2900
 0.9100	52.2680
 0.9110	52.2550
 0.9120	52.2510
 0.9130	52.2530
 0.9140	52.2520
 0.9150	52.2470
 0.9160	52.2440
 0.9170	52.2310
 0.9180	52.2200
 0.9190	52.2210
 0.9200	52.1920
 0.9210	52.1690
 0.9220	52.1620
 0.9230	52.1620
 0.9240	52.1470
 0.9250	52.1240
 0.9260	52.0930
 0.9270	52.0580
 0.9280	52.0420
 0.9290	52.0210
 0.9300	51.9850
 0.9310	51.9470
 0.9320	51.9160
 0.9330	51.8840
 0.9340	51.8440
 0.9350	51.7990
 0.9360	51.7530
 0.9370	51.6990
 0.9380	51.6390
 0.9390	51.5810
 0.9400	51.5190
 0.9410	51.4600
 0.9420	51.4040
 0.9430	51.3350
 0.9440	51.2520
 0.9450	51.1660
 0.9460	51.0820
 0.9470	50.9860
 0.9480	50.8780
 0.9490	50.7550
 0.9500	50.6230
 0.9510	50.5060
 0.9520	50.3710
 0.9530	50.2200
 0.9540	50.0650
 0.9550	49.9170
 0.9560	49.7710
 0.9570	49.6300
 0.9580	49.5000
 0.9590	49.3690
 0.9600	49.2380
 0.9610	49.1180
 0.9620	49.0200
 0.9630	48.9230
 0.9640	48.8390
 0.9650	48.7680
 0.9660	48.7070
 0.9670	48.6420
 0.9680	48.5900
 0.9690	48.5430
 0.9700	48.4860
 0.9710	48.4470
 0.9720	48.4000
 0.9730	48.3560
 0.9740	48.3350
 0.9750	48.3040
 0.9760	48.2760
 0.9770	48.2550
 0.9780	48.2400
 0.9790	48.2360
 0.9800	48.2320
 0.9810	48.2280
 0.9820	48.2270
 0.9830	48.2330
 0.9840	48.2360
 0.9850	48.2450
 0.9860	48.2720
 0.9870	48.2920
 0.9880	48.3150
 0.9890	48.3430
 0.9900	48.3770
 0.9910	48.4290
 0.9920	48.4670
 0.9930	48.4970
 0.9940	48.5420
 0.9950	48.5950
 0.9960	48.6530
 0.9970	48.7110
 0.9980	48.7670
 0.9990	48.8150
 1.0000	49.0370
 1.0010	49.3830
 1.0020	49.6160
 1.0030	49.6790
 1.0040	49.7460
 1.0050	49.8080
 1.0060	49.8670
 1.0070	49.9270
 1.0080	49.9910
 1.0090	50.0550
 1.0100	50.1200
 1.0110	50.1880
 1.0120	50.2560
 1.0130	50.3220
 1.0140	50.3910
 1.0150	50.4620
 1.0160	50.5360
 1.0170	50.6070
 1.0180	50.6790
 1.0190	50.7450
 1.0200	50.8080
 1.0210	50.8790
 1.0220	50.9460
 1.0230	51.0110
 1.0240	51.0800
 1.0250	51.1460
 1.0260	51.2050
 1.0270	51.2700
 1.0280	51.3390
 1.0290	51.4050
 1.0300	51.4720
 1.0310	51.5360
 1.0320	51.5950
 1.0330	51.6590
 1.0340	51.7190
 1.0350	51.7800
 1.0360	51.8460
 1.0370	51.9080
 1.0380	51.9670
 1.0390	52.0260
 1.0400	52.0800
 1.0410	52.1250
 1.0420	52.1770
 1.0430	52.2320
 1.0440	52.2840
 1.0450	52.3400
 1.0460	52.3890
 1.0470	52.4280
 1.0480	52.4730
 1.0490	52.5170
 1.0500	52.5600
 1.0510	52.6060
 1.0520	52.6540
 1.0530	52.6940
 1.0540	52.7270
 1.0550	52.7660
 1.0560	52.8060
 1.0570	52.8420
 1.0580	52.8780
 1.0590	52.9130
 1.0600	52.9430
 1.0610	52.9710
 1.0620	52.9990
 1.0630	53.0250
 1.0640	53.0450
 1.0650	53.0670
 1.0660	53.0890
 1.0670	53.1110
 1.0680	53.1330
 1.0690	53.1550
 1.0700	53.1740
 1.0710	53.1930
 1.0720	53.2060
 1.0730	53.2120
 1.0740	53.2240
 1.0750	53.2390
 1.0760	53.2480
 1.0770	53.2570
 1.0780	53.2630
 1.0790	53.2620
 1.0800	53.2640
 1.0810	53.2670
 1.0820	53.2680
 1.0830	53.2690
 1.0840	53.2670
 1.0850	53.2610
 1.0860	53.2560
 1.0870	53.2500
 1.0880	53.2430
 1.0890	53.2330
 1.0900	53.2240
 1.0910	53.2110
 1.0920	53.1940
 1.0930	53.1770
 1.0940	53.1590
 1.0950	53.1390
 1.0960	53.1180
 1.0970	53.0970
 1.0980	53.0780
 1.0990	53.0550
 1.1000	53.0340
 1.1010	53.0080
 1.1020	52.9790
 1.1030	52.9470
 1.1040	52.9150
 1.1050	52.8810
 1.1060	52.8470
 1.1070	52.8150
 1.1080	52.7780
 1.1090	52.7390
 1.1100	52.7000
 1.1110	52.6580
 1.1120	52.6130
 1.1130	52.5700
 1.1140	52.5200
 1.1150	52.4630
 1.1160	52.4050
 1.1170	52.3470
 1.1180	52.2780
 1.1190	52.2070
 1.1200	52.1270
 1.1210	52.0350
 1.1220	51.9380
 1.1230	51.8330
 1.1240	51.7180
 1.1250	51.5920
 1.1260	51.4580
 1.1270	51.3080
 1.1280	51.1500
 1.1290	50.9720
 1.1300	50.7820
 1.1310	50.5720
 1.1320	50.3440
 1.1330	50.1030
 1.1340	49.8440
 1.1350	49.5750
 1.1360	49.2940
 1.1370	48.9990
 1.1380	48.6930
 1.1390	48.3770
 1.1400	48.0490
 1.1410	47.7190
 1.1420	47.3860
 1.1430	47.0500
 1.1440	46.7170
 1.1450	46.3790
 1.1460	46.0540
 1.1470	45.7310
 1.1480	45.4220
 1.1490	45.1190
 1.1500	44.8330
 1.1510	44.5550
 1.1520	44.2940
 1.1530	44.0490
 1.1540	43.8190
 1.1550	43.6040
 1.1560	43.4040
 1.1570	43.2170
 1.1580	43.0450
 1.1590	42.8870
 1.1600	42.7390
 1.1610	42.6030
 1.1620	42.4740
 1.1630	42.3540
 1.1640	42.2420
 1.1650	42.1380
 1.1660	42.0460
 1.1670	41.9560
 1.1680	41.8750
 1.1690	41.7940
 1.1700	41.7160
 1.1710	41.6400
 1.1720	41.5650
 1.1730	41.4920
 1.1740	41.4210
 1.1750	41.3520
 1.1760	41.2850
 1.1770	41.2170
 1.1780	41.1470
 1.1790	41.0750
 1.1800	41.0010
 1.1810	40.9290
 1.1820	40.8590
 1.1830	40.7900
 1.1840	40.7220
 1.1850	40.6520
 1.1860	40.5850
 1.1870	40.5220
 1.1880	40.4630
 1.1890	40.4070
 1.1900	40.3550
 1.1910	40.3070
 1.1920	40.2630
 1.1930	40.2220
 1.1940	40.1860
 1.1950	40.1540
 1.1960	40.1260
 1.1970	40.1020
 1.1980	40.0830
 1.1990	40.0710
 1.2000	40.0680
 1.2010	40.0720
 1.2020	40.0830
 1.2030	40.1010
 1.2040	40.1250
 1.2050	40.1560
 1.2060	40.1930
 1.2070	40.2370
 1.2080	40.2850
 1.2090	40.3420
 1.2100	40.4070
 1.2110	40.4740
 1.2120	40.5470
 1.2130	40.6230
 1.2140	40.7030
 1.2150	40.7860
 1.2160	40.8750
 1.2170	40.9670
 1.2180	41.0590
 1.2190	41.1530
 1.2200	41.2480
 1.2210	41.3450
 1.2220	41.4420
 1.2230	41.5400
 1.2240	41.6380
 1.2250	41.7340
 1.2260	41.8290
 1.2270	41.9250
 1.2280	42.0160
 1.2290	42.1040
 1.2300	42.1910
 1.2310	42.2730
 1.2320	42.3520
 1.2330	42.4300
 1.2340	42.5070
 1.2350	42.5840
 1.2360	42.6580
 1.2370	42.7310
 1.2380	42.8010
 1.2390	42.8670
 1.2400	42.9300
 1.2410	42.9910
 1.2420	43.0490
 1.2430	43.1060
 1.2440	43.1620
 1.2450	43.2160
 1.2460	43.2700
 1.2470	43.3210
 1.2480	43.3690
 1.2490	43.4150
 1.2500	43.4590
 1.2510	43.5030
 1.2520	43.5440
 1.2530	43.5820
 1.2540	43.6190
 1.2550	43.6530
 1.2560	43.6850
 1.2570	43.7180
 1.2580	43.7480
 1.2590	43.7760
 1.2600	43.8020
 1.2610	43.8280
 1.2620	43.8510
 1.2630	43.8730
 1.2640	43.8950
 1.2650	43.9140
 1.2660	43.9300
 1.2670	43.9440
 1.2680	43.9550
 1.2690	43.9660
 1.2700	43.9740
 1.2710	43.9800
 1.2720	43.9850
 1.2730	43.9880
 1.2740	43.9890
 1.2750	43.9880
 1.2760	43.9830
 1.2770	43.9740
 1.2780	43.9610
 1.2790	43.9480
 1.2800	43.9340
 1.2810	43.9160
 1.2820	43.8970
 1.2830	43.8730
 1.2840	43.8440
 1.2850	43.8120
 1.2860	43.7770
 1.2870	43.7390
 1.2880	43.6980
 1.2890	43.6550
 1.2900	43.6060
 1.2910	43.5510
 1.2920	43.4920
 1.2930	43.4270
 1.2940	43.3580
 1.2950	43.2890
 1.2960	43.2110
 1.2970	43.1280
 1.2980	43.0440
 1.2990	42.9540
 1.3000	42.8630
 1.3010	42.7680
 1.3020	42.6670
 1.3030	42.5600
 1.3040	42.4460
 1.3050	42.3250
 1.3060	42.2010
 1.3070	42.0700
 1.3080	41.9350
 1.3090	41.7970
 1.3100	41.6520
 1.3110	41.5050
 1.3120	41.3520
 1.3130	41.1930
 1.3140	41.0290
 1.3150	40.8600
 1.3160	40.6860
 1.3170	40.5070
 1.3180	40.3240
 1.3190	40.1350
 1.3200	39.9430
 1.3210	39.7440
 1.3220	39.5400
 1.3230	39.3320
 1.3240	39.1190
 1.3250	38.9060
 1.3260	38.6930
 1.3270	38.4750
 1.3280	38.2550
 1.3290	38.0280
 1.3300	37.8000
 1.3310	37.5730
 1.3320	37.3440
 1.3330	37.1180
 1.3340	36.8920
 1.3350	36.6640
 1.3360	36.4350
 1.3370	36.2070
 1.3380	35.9800
 1.3390	35.7560
 1.3400	35.5350
 1.3410	35.3180
 1.3420	35.1030
 1.3430	34.8910
 1.3440	34.6820
 1.3450	34.4770
 1.3460	34.2730
 1.3470	34.0750
 1.3480	33.8780
 1.3490	33.6870
 1.3500	33.5010
 1.3510	33.3160
 1.3520	33.1340
 1.3530	32.9540
 1.3540	32.7740
 1.3550	32.5960
 1.3560	32.4200
 1.3570	32.2430
 1.3580	32.0660
 1.3590	31.8870
 1.3600	31.7050
 1.3610	31.5220
 1.3620	31.3340
 1.3630	31.1410
 1.3640	30.9450
 1.3650	30.7420
 1.3660	30.5350
 1.3670	30.3210
 1.3680	30.0950
 1.3690	29.8600
 1.3700	29.6120
 1.3710	29.3540
 1.3720	29.0850
 1.3730	28.8000
 1.3740	28.5050
 1.3750	28.1930
 1.3760	27.8590
 1.3770	27.5090
 1.3780	27.1360
 1.3790	26.7440
 1.3800	26.3350
 1.3810	25.9060
 1.3820	25.4650
 1.3830	25.0080
 1.3840	24.5390
 1.3850	24.0560
 1.3860	23.5660
 1.3870	23.0600
 1.3880	22.5570
 1.3890	22.0480
 1.3900	21.5360
 1.3910	21.0300
 1.3920	20.5240
 1.3930	20.0200
 1.3940	19.5250
 1.3950	19.0330
 1.3960	18.5530
 1.3970	18.0860
 1.3980	17.6310
 1.3990	17.1940
 1.4000	16.7730
 1.4010	16.3630
 1.4020	15.9720
 1.4030	15.5960
 1.4040	15.2360
 1.4050	14.8970
 1.4060	14.5720
 1.4070	14.2670
 1.4080	13.9800
 1.4090	13.7070
 1.4100	13.4510
 1.4110	13.2100
 1.4120	12.9820
 1.4130	12.7700
 1.4140	12.5710
 1.4150	12.3860
 1.4160	12.2140
 1.4170	12.0530
 1.4180	11.9030
 1.4190	11.7620
 1.4200	11.6300
 1.4210	11.5070
 1.4220	11.3920
 1.4230	11.2870
 1.4240	11.1890
 1.4250	11.0970
 1.4260	11.0140
 1.4270	10.9350
 1.4280	10.8630
 1.4290	10.7960
 1.4300	10.7350
 1.4310	10.6780
 1.4320	10.6270
 1.4330	10.5800
 1.4340	10.5380
 1.4350	10.4980
 1.4360	10.4630
 1.4370	10.4310
 1.4380	10.4040
 1.4390	10.3800
 1.4400	10.3590
 1.4410	10.3410
 1.4420	10.3260
 1.4430	10.3130
 1.4440	10.3030
 1.4450	10.2950
 1.4460	10.2880
 1.4470	10.2830
 1.4480	10.2800
 1.4490	10.2790
 1.4500	10.2800
 1.4510	10.2820
 1.4520	10.2850
 1.4530	10.2890
 1.4540	10.2950
 1.4550	10.3040
 1.4560	10.3130
 1.4570	10.3230
 1.4580	10.3360
 1.4590	10.3500
 1.4600	10.3660
 1.4610	10.3860
 1.4620	10.4070
 1.4630	10.4320
 1.4640	10.4590
 1.4650	10.4880
 1.4660	10.5210
 1.4670	10.5560
 1.4680	10.5950
 1.4690	10.6350
 1.4700	10.6790
 1.4710	10.7260
