Name: Quercus ilex
Type: vegetation
Class: Tree
Genus: Quercus
Species: ilex
Sample No.: JPL256
Owner: JPL
Wavelength Range: TIR
Origin: 34.13163; -118.1186; WGS84
Collection Date: 10/6/2016
Description: Samples were collected at the Huntington Garden in San Marino California as part of a JPL Subcontract studying HyTES imagery. Samples were taken to JPL and processed within 48 hours of collection. The same leaves were processed in the Nicolet and then measured using the ASD.
Measurement: Hemispherical reflectance
First Column: X
Second Column: Y
X Units: Wavelength (micrometer)
Y Units: Reflectance (percentage)
First X Value: 2.501
Last X Value: 15.387
Number of X Values: 1737
Additional Information: vegetation.tree.quercus.ilex.tir.jpl256.jpl.nicolet.ancillary.txt

 2.5010	 4.8070
 2.5030	 4.8630
 2.5040	 4.8720
 2.5050	 4.7900
 2.5060	 4.7870
 2.5070	 4.8270
 2.5090	 4.8940
 2.5100	 4.8720
 2.5110	 4.8270
 2.5120	 4.7950
 2.5140	 4.7880
 2.5150	 4.7130
 2.5160	 4.7610
 2.5170	 4.8360
 2.5180	 4.8490
 2.5200	 4.8010
 2.5210	 4.7430
 2.5220	 4.7110
 2.5230	 4.7580
 2.5250	 4.6710
 2.5260	 4.6540
 2.5270	 4.6920
 2.5280	 4.7410
 2.5300	 4.7500
 2.5310	 4.7550
 2.5320	 4.7150
 2.5330	 4.7200
 2.5340	 4.7240
 2.5360	 4.7790
 2.5370	 4.7880
 2.5380	 4.8160
 2.5390	 4.8170
 2.5410	 4.8180
 2.5420	 4.7620
 2.5430	 4.7750
 2.5440	 4.8150
 2.5460	 4.8230
 2.5470	 4.7480
 2.5480	 4.7620
 2.5490	 4.7970
 2.5510	 4.7870
 2.5520	 4.7600
 2.5530	 4.8280
 2.5540	 4.8870
 2.5560	 4.8880
 2.5570	 4.8030
 2.5580	 4.8400
 2.5590	 4.8540
 2.5610	 4.8260
 2.5620	 4.7320
 2.5630	 4.6450
 2.5650	 4.5920
 2.5660	 4.7450
 2.5670	 4.8230
 2.5680	 4.8090
 2.5700	 4.7540
 2.5710	 4.8130
 2.5720	 4.8300
 2.5730	 4.8500
 2.5750	 4.8240
 2.5760	 4.8380
 2.5770	 4.8140
 2.5790	 4.8230
 2.5800	 4.8280
 2.5810	 4.7860
 2.5820	 4.7550
 2.5840	 4.8260
 2.5850	 4.8160
 2.5860	 4.7530
 2.5880	 4.7270
 2.5890	 4.7710
 2.5900	 4.7470
 2.5910	 4.7880
 2.5930	 4.7740
 2.5940	 4.6310
 2.5950	 4.5120
 2.5970	 4.6550
 2.5980	 4.7480
 2.5990	 4.8170
 2.6010	 4.7490
 2.6020	 4.6900
 2.6030	 4.6740
 2.6040	 4.7070
 2.6060	 4.6380
 2.6070	 4.6670
 2.6080	 4.7070
 2.6100	 4.6790
 2.6110	 4.6770
 2.6120	 4.7040
 2.6140	 4.6030
 2.6150	 4.5960
 2.6160	 4.5730
 2.6180	 4.5960
 2.6190	 4.6060
 2.6200	 4.5740
 2.6220	 4.6010
 2.6230	 4.6720
 2.6240	 4.6110
 2.6260	 4.5680
 2.6270	 4.4560
 2.6280	 4.5290
 2.6300	 4.5220
 2.6310	 4.4210
 2.6320	 4.4530
 2.6340	 4.5070
 2.6350	 4.5250
 2.6360	 4.5780
 2.6380	 4.4960
 2.6390	 4.4880
 2.6400	 4.4620
 2.6420	 4.4530
 2.6430	 4.4240
 2.6440	 4.4320
 2.6460	 4.3800
 2.6470	 4.3680
 2.6480	 4.3600
 2.6500	 4.3450
 2.6510	 4.3250
 2.6520	 4.2800
 2.6540	 4.2610
 2.6550	 4.3210
 2.6570	 4.3150
 2.6580	 4.3640
 2.6590	 4.3280
 2.6610	 4.2600
 2.6620	 4.2330
 2.6630	 4.2860
 2.6650	 4.1370
 2.6660	 4.1080
 2.6670	 4.1520
 2.6690	 4.1440
 2.6700	 4.0250
 2.6720	 4.0070
 2.6730	 4.1300
 2.6740	 4.1270
 2.6760	 4.0280
 2.6770	 4.0140
 2.6780	 4.0510
 2.6800	 4.0780
 2.6810	 4.1330
 2.6830	 4.1620
 2.6840	 4.0560
 2.6850	 4.0330
 2.6870	 4.0130
 2.6880	 4.0550
 2.6900	 4.0210
 2.6910	 3.9810
 2.6920	 3.8820
 2.6940	 3.8060
 2.6950	 3.8360
 2.6970	 3.9070
 2.6980	 3.8530
 2.6990	 3.8590
 2.7010	 3.8330
 2.7020	 3.8330
 2.7040	 3.7750
 2.7050	 3.7400
 2.7060	 3.7430
 2.7080	 3.7540
 2.7090	 3.6860
 2.7110	 3.5790
 2.7120	 3.5480
 2.7130	 3.6260
 2.7150	 3.6000
 2.7160	 3.6340
 2.7180	 3.5790
 2.7190	 3.5040
 2.7210	 3.4010
 2.7220	 3.4270
 2.7230	 3.5010
 2.7250	 3.4960
 2.7260	 3.4910
 2.7280	 3.5530
 2.7290	 3.5650
 2.7310	 3.5940
 2.7320	 3.5440
 2.7340	 3.4450
 2.7350	 3.3320
 2.7360	 3.3340
 2.7380	 3.3290
 2.7390	 3.3060
 2.7410	 3.1820
 2.7420	 3.1310
 2.7440	 3.1430
 2.7450	 3.1780
 2.7470	 3.1740
 2.7480	 3.2150
 2.7490	 3.1940
 2.7510	 3.1560
 2.7520	 3.1260
 2.7540	 3.1320
 2.7550	 3.0510
 2.7570	 3.0560
 2.7580	 3.0490
 2.7600	 3.0810
 2.7610	 3.0760
 2.7630	 3.1000
 2.7640	 3.0790
 2.7660	 3.1470
 2.7670	 3.1250
 2.7690	 3.0520
 2.7700	 3.0280
 2.7720	 3.0500
 2.7730	 2.9940
 2.7740	 2.9430
 2.7760	 2.9640
 2.7770	 3.0630
 2.7790	 3.1400
 2.7800	 3.1330
 2.7820	 2.9910
 2.7830	 3.0000
 2.7850	 2.9900
 2.7860	 2.9690
 2.7880	 2.9710
 2.7890	 3.0340
 2.7910	 2.9800
 2.7920	 3.0220
 2.7940	 3.0130
 2.7950	 2.9550
 2.7970	 2.9090
 2.7980	 2.9810
 2.8000	 2.9680
 2.8010	 2.9320
 2.8030	 2.8980
 2.8040	 2.9450
 2.8060	 2.9750
 2.8080	 3.0200
 2.8090	 2.9270
 2.8110	 2.9110
 2.8120	 2.9120
 2.8140	 2.9380
 2.8150	 2.9110
 2.8170	 2.9100
 2.8180	 2.8810
 2.8200	 2.8920
 2.8210	 2.8930
 2.8230	 2.9480
 2.8240	 2.9010
 2.8260	 2.8770
 2.8270	 2.8370
 2.8290	 2.9180
 2.8310	 2.9130
 2.8320	 2.9070
 2.8340	 2.9040
 2.8350	 2.9440
 2.8370	 2.9700
 2.8380	 2.9660
 2.8400	 2.9390
 2.8410	 2.9570
 2.8430	 2.8660
 2.8440	 2.7800
 2.8460	 2.7710
 2.8480	 2.8720
 2.8490	 2.8760
 2.8510	 2.9220
 2.8520	 2.9580
 2.8540	 2.9490
 2.8550	 2.8760
 2.8570	 2.8840
 2.8590	 2.8700
 2.8600	 2.9290
 2.8620	 2.9750
 2.8630	 2.9600
 2.8650	 2.8830
 2.8660	 2.8070
 2.8680	 2.7890
 2.8700	 2.8690
 2.8710	 2.8100
 2.8730	 2.8260
 2.8740	 2.8460
 2.8760	 2.9020
 2.8780	 2.8830
 2.8790	 2.9370
 2.8810	 2.9100
 2.8820	 2.9110
 2.8840	 2.8640
 2.8860	 2.8750
 2.8870	 2.8370
 2.8890	 2.8820
 2.8900	 2.8630
 2.8920	 2.8660
 2.8940	 2.8430
 2.8950	 2.8580
 2.8970	 2.8470
 2.8990	 2.9220
 2.9000	 2.9210
 2.9020	 2.9070
 2.9030	 2.8640
 2.9050	 2.8620
 2.9070	 2.9030
 2.9080	 2.9060
 2.9100	 2.8140
 2.9120	 2.8560
 2.9130	 2.8790
 2.9150	 2.8910
 2.9160	 2.8810
 2.9180	 2.9090
 2.9200	 2.9030
 2.9210	 2.8910
 2.9230	 2.9080
 2.9250	 2.9520
 2.9260	 2.9120
 2.9280	 2.9600
 2.9300	 2.9470
 2.9310	 2.9630
 2.9330	 2.8780
 2.9350	 2.8580
 2.9360	 2.8710
 2.9380	 2.9210
 2.9400	 2.9360
 2.9410	 2.9480
 2.9430	 2.9050
 2.9450	 2.9470
 2.9460	 2.9800
 2.9480	 2.9810
 2.9500	 2.9080
 2.9510	 2.9160
 2.9530	 2.9110
 2.9550	 2.8910
 2.9560	 2.8560
 2.9580	 2.9180
 2.9600	 2.9580
 2.9610	 2.9790
 2.9630	 2.9410
 2.9650	 2.9350
 2.9670	 2.9140
 2.9680	 2.9190
 2.9700	 2.9340
 2.9720	 2.9560
 2.9730	 2.9340
 2.9750	 2.9610
 2.9770	 2.9270
 2.9780	 2.9280
 2.9800	 2.8460
 2.9820	 2.8260
 2.9840	 2.8390
 2.9850	 2.9360
 2.9870	 2.9240
 2.9890	 2.9070
 2.9900	 2.9160
 2.9920	 2.9560
 2.9940	 2.9420
 2.9960	 3.0010
 2.9970	 3.0000
 2.9990	 2.9620
 3.0010	 2.9280
 3.0030	 2.9650
 3.0040	 2.9400
 3.0060	 2.8840
 3.0080	 2.8630
 3.0100	 2.9640
 3.0110	 2.9650
 3.0130	 2.9910
 3.0150	 2.9610
 3.0170	 2.9210
 3.0180	 2.9010
 3.0200	 2.9360
 3.0220	 2.9270
 3.0240	 2.9950
 3.0250	 2.9740
 3.0270	 2.9710
 3.0290	 2.9730
 3.0310	 2.9870
 3.0320	 2.9230
 3.0340	 2.9380
 3.0360	 2.9210
 3.0380	 2.9250
 3.0400	 2.9660
 3.0410	 2.9730
 3.0430	 2.8620
 3.0450	 2.8630
 3.0470	 2.9610
 3.0480	 3.0560
 3.0500	 3.0070
 3.0520	 2.9750
 3.0540	 2.9040
 3.0560	 2.9310
 3.0570	 2.9620
 3.0590	 2.9970
 3.0610	 2.9940
 3.0630	 2.9590
 3.0650	 2.9210
 3.0670	 2.9680
 3.0680	 2.9700
 3.0700	 2.9550
 3.0720	 2.8820
 3.0740	 2.8790
 3.0760	 2.9240
 3.0770	 3.0210
 3.0790	 3.0620
 3.0810	 3.0650
 3.0830	 2.9710
 3.0850	 2.9990
 3.0870	 3.0220
 3.0880	 3.0260
 3.0900	 2.9800
 3.0920	 2.9720
 3.0940	 2.9230
 3.0960	 2.9190
 3.0980	 2.9140
 3.1000	 3.0000
 3.1010	 3.0800
 3.1030	 3.0520
 3.1050	 2.9620
 3.1070	 2.9640
 3.1090	 2.9780
 3.1110	 2.9820
 3.1130	 2.9620
 3.1140	 3.0050
 3.1160	 2.9790
 3.1180	 2.9700
 3.1200	 2.9800
 3.1220	 2.9990
 3.1240	 2.9870
 3.1260	 3.0090
 3.1280	 3.0080
 3.1290	 3.0580
 3.1310	 3.0110
 3.1330	 2.9700
 3.1350	 3.0000
 3.1370	 3.0460
 3.1390	 2.9750
 3.1410	 2.9820
 3.1430	 3.0170
 3.1450	 3.0590
 3.1470	 2.9980
 3.1480	 2.9780
 3.1500	 2.9980
 3.1520	 3.0240
 3.1540	 3.0070
 3.1560	 3.0400
 3.1580	 3.0270
 3.1600	 3.0620
 3.1620	 3.0570
 3.1640	 2.9830
 3.1660	 2.9710
 3.1680	 3.0200
 3.1700	 3.0370
 3.1720	 3.0480
 3.1730	 3.0070
 3.1750	 2.9870
 3.1770	 2.9940
 3.1790	 3.0840
 3.1810	 3.1030
 3.1830	 3.1150
 3.1850	 3.0540
 3.1870	 3.0480
 3.1890	 3.0440
 3.1910	 3.0720
 3.1930	 3.0520
 3.1950	 3.0410
 3.1970	 3.0290
 3.1990	 3.0780
 3.2010	 3.0340
 3.2030	 3.0260
 3.2050	 3.0510
 3.2070	 3.0470
 3.2090	 2.9960
 3.2110	 2.9900
 3.2130	 2.9850
 3.2150	 3.0420
 3.2170	 3.0810
 3.2190	 3.1160
 3.2210	 3.0980
 3.2230	 3.0760
 3.2250	 3.0740
 3.2270	 3.0390
 3.2290	 2.9930
 3.2310	 3.0380
 3.2330	 3.0620
 3.2350	 3.0860
 3.2370	 3.0310
 3.2390	 3.0140
 3.2410	 3.0170
 3.2430	 3.0350
 3.2450	 3.0350
 3.2470	 3.0440
 3.2490	 3.0210
 3.2510	 3.0200
 3.2530	 2.9910
 3.2550	 2.9880
 3.2570	 3.0080
 3.2590	 3.0490
 3.2610	 3.0360
 3.2630	 3.0500
 3.2650	 3.0530
 3.2670	 3.0510
 3.2700	 2.9890
 3.2720	 2.9950
 3.2740	 2.9820
 3.2760	 2.9730
 3.2780	 2.9790
 3.2800	 3.0080
 3.2820	 2.9520
 3.2840	 2.9550
 3.2860	 3.0000
 3.2880	 3.0460
 3.2900	 3.0020
 3.2920	 2.9810
 3.2940	 2.9660
 3.2970	 2.9800
 3.2990	 3.0180
 3.3010	 3.0530
 3.3030	 2.9770
 3.3050	 2.9590
 3.3070	 2.9670
 3.3090	 2.9850
 3.3110	 2.9690
 3.3130	 2.9580
 3.3160	 2.9530
 3.3180	 3.0010
 3.3200	 2.9650
 3.3220	 2.9600
 3.3240	 2.9420
 3.3260	 2.9390
 3.3280	 2.9240
 3.3300	 2.8950
 3.3330	 2.8500
 3.3350	 2.8440
 3.3370	 2.8420
 3.3390	 2.8960
 3.3410	 2.8640
 3.3430	 2.8070
 3.3450	 2.7590
 3.3480	 2.7940
 3.3500	 2.7900
 3.3520	 2.7590
 3.3540	 2.7230
 3.3560	 2.6990
 3.3580	 2.6780
 3.3610	 2.6730
 3.3630	 2.6490
 3.3650	 2.6000
 3.3670	 2.5590
 3.3690	 2.5320
 3.3720	 2.4700
 3.3740	 2.4570
 3.3760	 2.4040
 3.3780	 2.4680
 3.3800	 2.4980
 3.3830	 2.4470
 3.3850	 2.3990
 3.3870	 2.4330
 3.3890	 2.4080
 3.3910	 2.3690
 3.3940	 2.3270
 3.3960	 2.2740
 3.3980	 2.2230
 3.4000	 2.1970
 3.4030	 2.1030
 3.4050	 2.0480
 3.4070	 2.0250
 3.4090	 2.0070
 3.4110	 2.0060
 3.4140	 2.0300
 3.4160	 2.1120
 3.4180	 2.3570
 3.4200	 2.7960
 3.4230	 3.4760
 3.4250	 4.2890
 3.4270	 5.2420
 3.4300	 5.9340
 3.4320	 6.0350
 3.4340	 5.6480
 3.4360	 5.1810
 3.4390	 4.8020
 3.4410	 4.5590
 3.4430	 4.3590
 3.4450	 4.2500
 3.4480	 4.1530
 3.4500	 4.0880
 3.4520	 4.0040
 3.4550	 3.9430
 3.4570	 3.9010
 3.4590	 3.9070
 3.4620	 3.8650
 3.4640	 3.8480
 3.4660	 3.8010
 3.4690	 3.7260
 3.4710	 3.6970
 3.4730	 3.7010
 3.4760	 3.6160
 3.4780	 3.5590
 3.4800	 3.4970
 3.4830	 3.4160
 3.4850	 3.3480
 3.4870	 3.3090
 3.4900	 3.1980
 3.4920	 3.0980
 3.4940	 3.0040
 3.4970	 2.9000
 3.4990	 2.7890
 3.5010	 2.7290
 3.5040	 2.7450
 3.5060	 3.1320
 3.5080	 4.1150
 3.5110	 5.3100
 3.5130	 5.8430
 3.5160	 5.7270
 3.5180	 5.3870
 3.5200	 5.0890
 3.5230	 4.8420
 3.5250	 4.6680
 3.5280	 4.5390
 3.5300	 4.4850
 3.5320	 4.4640
 3.5350	 4.4210
 3.5370	 4.2980
 3.5400	 4.2740
 3.5420	 4.2660
 3.5440	 4.1750
 3.5470	 4.1110
 3.5490	 4.1310
 3.5520	 4.1330
 3.5540	 4.1350
 3.5570	 4.1190
 3.5590	 4.0860
 3.5610	 4.0560
 3.5640	 4.0390
 3.5660	 4.0190
 3.5690	 4.0270
 3.5710	 4.0270
 3.5740	 4.0460
 3.5760	 4.0220
 3.5790	 3.9840
 3.5810	 3.9620
 3.5840	 3.9670
 3.5860	 3.9570
 3.5890	 3.9570
 3.5910	 3.9310
 3.5940	 3.9100
 3.5960	 3.9140
 3.5990	 3.9470
 3.6010	 3.9410
 3.6040	 3.9440
 3.6060	 3.8900
 3.6090	 3.8820
 3.6110	 3.8730
 3.6140	 3.8690
 3.6160	 3.8630
 3.6190	 3.8510
 3.6210	 3.8040
 3.6240	 3.8470
 3.6260	 3.9060
 3.6290	 3.8980
 3.6310	 3.8370
 3.6340	 3.8410
 3.6360	 3.8350
 3.6390	 3.8380
 3.6410	 3.8270
 3.6440	 3.8220
 3.6470	 3.8180
 3.6490	 3.8410
 3.6520	 3.8490
 3.6540	 3.8280
 3.6570	 3.8280
 3.6590	 3.8370
 3.6620	 3.8100
 3.6650	 3.8540
 3.6670	 3.8940
 3.6700	 3.8580
 3.6720	 3.7880
 3.6750	 3.7700
 3.6780	 3.7930
 3.6800	 3.8240
 3.6830	 3.8320
 3.6850	 3.8540
 3.6880	 3.8290
 3.6910	 3.8140
 3.6930	 3.7830
 3.6960	 3.7830
 3.6990	 3.8010
 3.7010	 3.8200
 3.7040	 3.7980
 3.7070	 3.7980
 3.7090	 3.8170
 3.7120	 3.8160
 3.7150	 3.7960
 3.7170	 3.8030
 3.7200	 3.8180
 3.7230	 3.8340
 3.7250	 3.8110
 3.7280	 3.8280
 3.7310	 3.8340
 3.7330	 3.8470
 3.7360	 3.8520
 3.7390	 3.8340
 3.7410	 3.8100
 3.7440	 3.8290
 3.7470	 3.8430
 3.7490	 3.8150
 3.7520	 3.7830
 3.7550	 3.7970
 3.7580	 3.8330
 3.7600	 3.8600
 3.7630	 3.8330
 3.7660	 3.8330
 3.7690	 3.8360
 3.7710	 3.8370
 3.7740	 3.8360
 3.7770	 3.8380
 3.7790	 3.8180
 3.7820	 3.8200
 3.7850	 3.8180
 3.7880	 3.8420
 3.7910	 3.8440
 3.7930	 3.8410
 3.7960	 3.8250
 3.7990	 3.8570
 3.8020	 3.8760
 3.8040	 3.8600
 3.8070	 3.8500
 3.8100	 3.8710
 3.8130	 3.8580
 3.8160	 3.8390
 3.8180	 3.8270
 3.8210	 3.8380
 3.8240	 3.8740
 3.8270	 3.8720
 3.8300	 3.8540
 3.8330	 3.8290
 3.8350	 3.8020
 3.8380	 3.8330
 3.8410	 3.8710
 3.8440	 3.9080
 3.8470	 3.9240
 3.8500	 3.8910
 3.8520	 3.8390
 3.8550	 3.8600
 3.8580	 3.9020
 3.8610	 3.9200
 3.8640	 3.8910
 3.8670	 3.8710
 3.8700	 3.8680
 3.8730	 3.8650
 3.8760	 3.8610
 3.8780	 3.8710
 3.8810	 3.8620
 3.8840	 3.8500
 3.8870	 3.8580
 3.8900	 3.8770
 3.8930	 3.8680
 3.8960	 3.9040
 3.8990	 3.9120
 3.9020	 3.8830
 3.9050	 3.8730
 3.9080	 3.8950
 3.9110	 3.8930
 3.9140	 3.8950
 3.9170	 3.8940
 3.9190	 3.9050
 3.9220	 3.9330
 3.9250	 3.9570
 3.9280	 3.9140
 3.9310	 3.8980
 3.9340	 3.8910
 3.9370	 3.8780
 3.9400	 3.8800
 3.9430	 3.8880
 3.9460	 3.8900
 3.9490	 3.8970
 3.9520	 3.8950
 3.9550	 3.8700
 3.9580	 3.8360
 3.9610	 3.8640
 3.9640	 3.8660
 3.9670	 3.8640
 3.9700	 3.8670
 3.9740	 3.8830
 3.9770	 3.8790
 3.9800	 3.9060
 3.9830	 3.8900
 3.9860	 3.8630
 3.9890	 3.8450
 3.9920	 3.8240
 3.9950	 3.8080
 3.9980	 3.8400
 4.0010	 3.8420
 4.0040	 3.8230
 4.0070	 3.8510
 4.0100	 3.8880
 4.0140	 3.8890
 4.0170	 3.8690
 4.0200	 3.8750
 4.0230	 3.8930
 4.0260	 3.8950
 4.0290	 3.8910
 4.0320	 3.8630
 4.0350	 3.8590
 4.0390	 3.8780
 4.0420	 3.8950
 4.0450	 3.8940
 4.0480	 3.9090
 4.0510	 3.9080
 4.0540	 3.8920
 4.0570	 3.9050
 4.0610	 3.9020
 4.0640	 3.8860
 4.0670	 3.8830
 4.0700	 3.8880
 4.0730	 3.8940
 4.0770	 3.8890
 4.0800	 3.8860
 4.0830	 3.9030
 4.0860	 3.9030
 4.0890	 3.8840
 4.0930	 3.8970
 4.0960	 3.9140
 4.0990	 3.9130
 4.1020	 3.8950
 4.1060	 3.8860
 4.1090	 3.8670
 4.1120	 3.8650
 4.1150	 3.8790
 4.1190	 3.8950
 4.1220	 3.9000
 4.1250	 3.9110
 4.1290	 3.9320
 4.1320	 3.9340
 4.1350	 3.9200
 4.1380	 3.9120
 4.1420	 3.8930
 4.1450	 3.8680
 4.1480	 3.8830
 4.1520	 3.9110
 4.1550	 3.9040
 4.1580	 3.8830
 4.1620	 3.8630
 4.1650	 3.8790
 4.1680	 3.9060
 4.1720	 3.9100
 4.1750	 3.8890
 4.1780	 3.8940
 4.1820	 3.9210
 4.1850	 3.9270
 4.1890	 3.9330
 4.1920	 3.9360
 4.1950	 3.9070
 4.1990	 3.8900
 4.2020	 3.9150
 4.2060	 3.9200
 4.2090	 3.9320
 4.2120	 3.9310
 4.2160	 3.8590
 4.2190	 3.8430
 4.2230	 3.8580
 4.2260	 3.8180
 4.2300	 3.8180
 4.2330	 3.8260
 4.2360	 3.8070
 4.2400	 3.7850
 4.2430	 3.7800
 4.2470	 3.7770
 4.2500	 3.7890
 4.2540	 3.8280
 4.2570	 3.8600
 4.2610	 3.8420
 4.2640	 3.8130
 4.2680	 3.8300
 4.2710	 3.8370
 4.2750	 3.8690
 4.2780	 3.8800
 4.2820	 3.8270
 4.2850	 3.8300
 4.2890	 3.8160
 4.2930	 3.7880
 4.2960	 3.8610
 4.3000	 3.9730
 4.3030	 3.9580
 4.3070	 3.9010
 4.3100	 3.8980
 4.3140	 3.9230
 4.3180	 3.8900
 4.3210	 3.8330
 4.3250	 3.8490
 4.3280	 3.8500
 4.3320	 3.8200
 4.3360	 3.8480
 4.3390	 3.8800
 4.3430	 3.8850
 4.3470	 3.8830
 4.3500	 3.8790
 4.3540	 3.8740
 4.3580	 3.8370
 4.3610	 3.8340
 4.3650	 3.8290
 4.3690	 3.8240
 4.3720	 3.8480
 4.3760	 3.8740
 4.3800	 3.8630
 4.3830	 3.8250
 4.3870	 3.8520
 4.3910	 3.8570
 4.3940	 3.8440
 4.3980	 3.8260
 4.4020	 3.8170
 4.4060	 3.8160
 4.4090	 3.8170
 4.4130	 3.8440
 4.4170	 3.8540
 4.4210	 3.8590
 4.4240	 3.8440
 4.4280	 3.8270
 4.4320	 3.8300
 4.4360	 3.8430
 4.4400	 3.8540
 4.4430	 3.8220
 4.4470	 3.7990
 4.4510	 3.8160
 4.4550	 3.8110
 4.4590	 3.7860
 4.4630	 3.7910
 4.4660	 3.8150
 4.4700	 3.8080
 4.4740	 3.7860
 4.4780	 3.7910
 4.4820	 3.8120
 4.4860	 3.8400
 4.4900	 3.8170
 4.4930	 3.8120
 4.4970	 3.8010
 4.5010	 3.8010
 4.5050	 3.8050
 4.5090	 3.8040
 4.5130	 3.7980
 4.5170	 3.7870
 4.5210	 3.7710
 4.5250	 3.7850
 4.5290	 3.7900
 4.5330	 3.8010
 4.5370	 3.8020
 4.5410	 3.7640
 4.5450	 3.7400
 4.5490	 3.7560
 4.5530	 3.7370
 4.5570	 3.7260
 4.5610	 3.7380
 4.5650	 3.7690
 4.5690	 3.7890
 4.5730	 3.8060
 4.5770	 3.7870
 4.5810	 3.7610
 4.5850	 3.7510
 4.5890	 3.7570
 4.5930	 3.7690
 4.5970	 3.7650
 4.6010	 3.7300
 4.6050	 3.7480
 4.6090	 3.7650
 4.6130	 3.7480
 4.6170	 3.7450
 4.6220	 3.7340
 4.6260	 3.7190
 4.6300	 3.7370
 4.6340	 3.7440
 4.6380	 3.7360
 4.6420	 3.7200
 4.6460	 3.7340
 4.6510	 3.7280
 4.6550	 3.7480
 4.6590	 3.7740
 4.6630	 3.7790
 4.6670	 3.7340
 4.6720	 3.7020
 4.6760	 3.6660
 4.6800	 3.6810
 4.6840	 3.6870
 4.6880	 3.7170
 4.6930	 3.7250
 4.6970	 3.7260
 4.7010	 3.7330
 4.7050	 3.7560
 4.7100	 3.7370
 4.7140	 3.7020
 4.7180	 3.6990
 4.7230	 3.7320
 4.7270	 3.7260
 4.7310	 3.7040
 4.7360	 3.7030
 4.7400	 3.7000
 4.7440	 3.6810
 4.7490	 3.6950
 4.7530	 3.6890
 4.7570	 3.6760
 4.7620	 3.6710
 4.7660	 3.6730
 4.7700	 3.6970
 4.7750	 3.7040
 4.7790	 3.6490
 4.7840	 3.6560
 4.7880	 3.7190
 4.7920	 3.7190
 4.7970	 3.6650
 4.8010	 3.6830
 4.8060	 3.6900
 4.8100	 3.7300
 4.8150	 3.7340
 4.8190	 3.7150
 4.8240	 3.6940
 4.8280	 3.6870
 4.8330	 3.6780
 4.8370	 3.6990
 4.8420	 3.6800
 4.8460	 3.6590
 4.8510	 3.6710
 4.8550	 3.7020
 4.8600	 3.7010
 4.8640	 3.6960
 4.8690	 3.6870
 4.8740	 3.6890
 4.8780	 3.6810
 4.8830	 3.6830
 4.8870	 3.6570
 4.8920	 3.6710
 4.8970	 3.6660
 4.9010	 3.6650
 4.9060	 3.6740
 4.9100	 3.6940
 4.9150	 3.6910
 4.9200	 3.6840
 4.9240	 3.6790
 4.9290	 3.7040
 4.9340	 3.6680
 4.9390	 3.6490
 4.9430	 3.6470
 4.9480	 3.6490
 4.9530	 3.6340
 4.9570	 3.6710
 4.9620	 3.7090
 4.9670	 3.7140
 4.9720	 3.6660
 4.9760	 3.6620
 4.9810	 3.6530
 4.9860	 3.6870
 4.9910	 3.6880
 4.9960	 3.6770
 5.0000	 3.6440
 5.0050	 3.6450
 5.0100	 3.6480
 5.0150	 3.6750
 5.0200	 3.6780
 5.0250	 3.6810
 5.0300	 3.6500
 5.0340	 3.6610
 5.0390	 3.6800
 5.0440	 3.6930
 5.0490	 3.6790
 5.0540	 3.6700
 5.0590	 3.6640
 5.0640	 3.6840
 5.0690	 3.6740
 5.0740	 3.6730
 5.0790	 3.6440
 5.0840	 3.6390
 5.0890	 3.6620
 5.0940	 3.6780
 5.0990	 3.6380
 5.1040	 3.6270
 5.1090	 3.6120
 5.1140	 3.6550
 5.1190	 3.6760
 5.1240	 3.6800
 5.1290	 3.6830
 5.1340	 3.6800
 5.1390	 3.6530
 5.1440	 3.6370
 5.1490	 3.5960
 5.1550	 3.6400
 5.1600	 3.6560
 5.1650	 3.6670
 5.1700	 3.6400
 5.1750	 3.6330
 5.1800	 3.6280
 5.1850	 3.6350
 5.1910	 3.6060
 5.1960	 3.6150
 5.2010	 3.6190
 5.2060	 3.6400
 5.2110	 3.6130
 5.2170	 3.6340
 5.2220	 3.6330
 5.2270	 3.6410
 5.2330	 3.6340
 5.2380	 3.6370
 5.2430	 3.6370
 5.2480	 3.6380
 5.2540	 3.6000
 5.2590	 3.6500
 5.2640	 3.6540
 5.2700	 3.6540
 5.2750	 3.6160
 5.2800	 3.6170
 5.2860	 3.6150
 5.2910	 3.5980
 5.2970	 3.5560
 5.3020	 3.5890
 5.3080	 3.6190
 5.3130	 3.6370
 5.3180	 3.6030
 5.3240	 3.5740
 5.3290	 3.5770
 5.3350	 3.6120
 5.3400	 3.5760
 5.3460	 3.5370
 5.3510	 3.4840
 5.3570	 3.5630
 5.3620	 3.5910
 5.3680	 3.5670
 5.3740	 3.5330
 5.3790	 3.5330
 5.3850	 3.5310
 5.3900	 3.5700
 5.3960	 3.5690
 5.4010	 3.5670
 5.4070	 3.5130
 5.4130	 3.5100
 5.4180	 3.4770
 5.4240	 3.4680
 5.4300	 3.5120
 5.4350	 3.5510
 5.4410	 3.5050
 5.4470	 3.5050
 5.4530	 3.4810
 5.4580	 3.4940
 5.4640	 3.4650
 5.4700	 3.4700
 5.4760	 3.4530
 5.4810	 3.4360
 5.4870	 3.4240
