Name: Baccharis pilularis 1
Type: vegetation
Class: Shrub
Genus: Baccharis
Species: pilularis
Sample No.: VH193
Owner: UCSB
Wavelength Range: TIR
Origin: 34.4186; -119.8458; WGS84
Collection Date: 10/13/2013
Description: Samples were collected as part of the HyspIRI Airborne Campaign. 48 individual plants were sampled in three times in 2013 - spring  summer  and fall. The name of the sample includes a 1  2  or 3 which references a different individual of the species. Samples were taken to JPL and processed within 48 hours of collection. The same leaves were processed in the Nicolet and then measured using the ASD.
Measurement: Hemispherical reflectance
First Column: X
Second Column: Y
X Units: Wavelength (micrometers)
Y Units: Reflectance (percentage)
First X Value: 2.501
Last X Value: 15.387
Number of X Values: 1737
Additional Information: vegetation.shrub.baccharis.pilularis.tir.vh193.ucsb.nicolet.ancillary.txt

 2.5010	 8.3310
 2.5030	 8.4180
 2.5040	 8.7180
 2.5050	 8.5430
 2.5060	 8.1850
 2.5070	 8.1650
 2.5090	 8.3430
 2.5100	 8.0820
 2.5110	 8.0470
 2.5120	 8.2610
 2.5140	 8.3820
 2.5150	 8.4080
 2.5160	 8.3520
 2.5170	 8.3640
 2.5180	 8.1290
 2.5200	 7.9410
 2.5210	 8.0690
 2.5220	 8.1080
 2.5230	 8.1920
 2.5250	 8.1620
 2.5260	 8.1030
 2.5270	 8.0020
 2.5280	 7.8720
 2.5290	 8.0150
 2.5310	 8.3820
 2.5320	 8.3430
 2.5330	 8.1420
 2.5340	 8.1080
 2.5360	 8.2560
 2.5370	 8.2100
 2.5380	 8.1760
 2.5390	 8.1200
 2.5410	 8.1150
 2.5420	 8.2500
 2.5430	 8.2830
 2.5440	 8.0510
 2.5460	 8.0190
 2.5470	 7.9530
 2.5480	 7.9780
 2.5490	 8.0370
 2.5510	 8.0720
 2.5520	 8.1230
 2.5530	 8.2340
 2.5540	 8.2540
 2.5560	 8.1070
 2.5570	 8.0460
 2.5580	 8.0740
 2.5590	 8.2350
 2.5610	 8.3740
 2.5620	 8.2620
 2.5630	 8.1270
 2.5640	 8.0460
 2.5660	 8.2330
 2.5670	 8.3700
 2.5680	 8.3190
 2.5700	 8.3280
 2.5710	 8.2890
 2.5720	 8.0710
 2.5730	 8.1000
 2.5750	 8.1460
 2.5760	 8.2870
 2.5770	 8.1900
 2.5790	 8.2020
 2.5800	 8.3020
 2.5810	 8.4870
 2.5820	 8.3830
 2.5840	 7.9860
 2.5850	 7.7320
 2.5860	 8.0450
 2.5880	 8.2210
 2.5890	 8.4340
 2.5900	 8.3400
 2.5910	 8.1280
 2.5930	 7.9920
 2.5940	 7.9990
 2.5950	 8.0320
 2.5970	 8.2570
 2.5980	 8.3360
 2.5990	 8.2330
 2.6000	 8.1570
 2.6020	 8.1260
 2.6030	 8.0640
 2.6040	 8.0480
 2.6060	 8.0580
 2.6070	 8.0950
 2.6080	 8.2320
 2.6100	 8.1980
 2.6110	 7.8900
 2.6120	 7.7350
 2.6140	 7.8500
 2.6150	 7.9930
 2.6160	 7.7770
 2.6180	 7.6930
 2.6190	 8.0340
 2.6200	 8.2470
 2.6220	 7.9800
 2.6230	 7.8940
 2.6240	 7.6770
 2.6260	 7.7160
 2.6270	 7.6800
 2.6280	 7.6760
 2.6300	 7.8390
 2.6310	 7.7990
 2.6320	 7.7010
 2.6340	 7.7750
 2.6350	 7.6770
 2.6360	 7.5700
 2.6380	 7.5190
 2.6390	 7.6320
 2.6400	 7.6130
 2.6420	 7.5820
 2.6430	 7.5070
 2.6440	 7.4950
 2.6460	 7.5720
 2.6470	 7.6400
 2.6480	 7.5350
 2.6500	 7.5860
 2.6510	 7.6040
 2.6520	 7.4350
 2.6540	 7.2430
 2.6550	 7.2500
 2.6560	 7.2970
 2.6580	 7.2770
 2.6590	 7.2760
 2.6610	 7.4720
 2.6620	 7.3950
 2.6630	 7.5010
 2.6650	 7.4700
 2.6660	 7.0330
 2.6670	 7.0330
 2.6690	 7.1770
 2.6700	 7.1050
 2.6720	 7.0480
 2.6730	 7.2130
 2.6740	 7.2730
 2.6760	 7.2180
 2.6770	 7.1510
 2.6780	 7.0210
 2.6800	 6.9910
 2.6810	 7.0010
 2.6830	 7.0050
 2.6840	 7.0510
 2.6850	 7.1280
 2.6870	 6.9160
 2.6880	 6.8900
 2.6900	 7.0050
 2.6910	 7.1420
 2.6920	 7.1530
 2.6940	 6.9910
 2.6950	 6.7210
 2.6970	 6.5790
 2.6980	 6.5650
 2.6990	 6.4320
 2.7010	 6.3430
 2.7020	 6.6290
 2.7040	 6.7910
 2.7050	 6.7630
 2.7060	 6.6810
 2.7080	 6.8110
 2.7090	 6.7680
 2.7110	 6.5660
 2.7120	 6.6190
 2.7130	 6.5940
 2.7150	 6.5070
 2.7160	 6.5520
 2.7180	 6.5870
 2.7190	 6.4110
 2.7210	 6.1510
 2.7220	 6.1550
 2.7230	 6.2880
 2.7250	 6.3150
 2.7260	 6.4650
 2.7280	 6.4020
 2.7290	 6.5170
 2.7310	 6.7260
 2.7320	 6.4580
 2.7330	 6.3430
 2.7350	 6.4250
 2.7360	 6.5120
 2.7380	 6.1540
 2.7390	 6.1820
 2.7410	 6.1700
 2.7420	 6.2110
 2.7440	 6.7480
 2.7450	 7.1620
 2.7470	 6.4120
 2.7480	 5.7770
 2.7490	 5.5270
 2.7510	 5.4630
 2.7520	 6.0910
 2.7540	 6.3620
 2.7550	 5.8680
 2.7570	 5.6140
 2.7580	 5.8180
 2.7600	 6.2070
 2.7610	 6.4440
 2.7630	 6.3130
 2.7640	 6.3960
 2.7660	 6.6550
 2.7670	 6.5120
 2.7680	 6.2030
 2.7700	 5.9210
 2.7710	 5.6860
 2.7730	 5.4760
 2.7740	 5.6710
 2.7760	 6.0380
 2.7770	 6.0460
 2.7790	 5.9630
 2.7800	 6.1610
 2.7820	 6.3270
 2.7830	 6.3930
 2.7850	 6.1360
 2.7860	 6.1460
 2.7880	 5.8190
 2.7890	 5.8200
 2.7910	 5.8090
 2.7920	 5.9390
 2.7940	 5.9770
 2.7950	 5.8890
 2.7970	 5.9390
 2.7980	 6.0030
 2.8000	 5.7380
 2.8010	 5.6590
 2.8030	 5.6320
 2.8040	 5.7840
 2.8060	 5.8880
 2.8070	 5.9780
 2.8090	 5.8370
 2.8110	 5.9300
 2.8120	 5.8900
 2.8140	 5.7450
 2.8150	 5.5620
 2.8170	 5.6120
 2.8180	 5.8510
 2.8200	 5.9870
 2.8210	 5.8910
 2.8230	 5.9100
 2.8240	 5.8380
 2.8260	 5.7400
 2.8270	 5.5510
 2.8290	 5.6950
 2.8300	 5.8480
 2.8320	 5.6980
 2.8340	 5.4790
 2.8350	 5.7590
 2.8370	 5.7720
 2.8380	 5.6340
 2.8400	 5.5090
 2.8410	 5.6340
 2.8430	 5.7920
 2.8440	 5.8050
 2.8460	 5.7610
 2.8480	 5.9480
 2.8490	 5.9630
 2.8510	 5.8680
 2.8520	 5.9280
 2.8540	 5.8640
 2.8550	 5.5940
 2.8570	 5.5350
 2.8590	 5.5110
 2.8600	 5.7410
 2.8620	 5.6630
 2.8630	 5.4280
 2.8650	 5.4800
 2.8660	 5.7170
 2.8680	 5.6060
 2.8700	 5.5450
 2.8710	 5.2340
 2.8730	 5.1580
 2.8740	 5.8140
 2.8760	 5.9260
 2.8780	 5.4660
 2.8790	 5.3670
 2.8810	 5.8990
 2.8820	 5.7980
 2.8840	 5.7070
 2.8860	 5.9880
 2.8870	 6.1780
 2.8890	 6.4050
 2.8900	 5.7450
 2.8920	 5.5390
 2.8940	 5.5070
 2.8950	 5.3300
 2.8970	 5.1580
 2.8980	 5.7810
 2.9000	 5.8430
 2.9020	 5.7020
 2.9030	 6.1270
 2.9050	 6.2980
 2.9070	 6.1690
 2.9080	 6.1450
 2.9100	 5.7910
 2.9120	 5.7230
 2.9130	 5.6650
 2.9150	 5.5950
 2.9160	 5.5920
 2.9180	 5.7960
 2.9200	 5.7170
 2.9210	 5.4480
 2.9230	 5.5580
 2.9250	 5.7610
 2.9260	 5.5640
 2.9280	 5.5050
 2.9300	 5.5580
 2.9310	 5.5940
 2.9330	 5.4580
 2.9350	 5.2450
 2.9360	 5.4850
 2.9380	 5.8220
 2.9400	 5.5030
 2.9410	 5.0670
 2.9430	 5.3530
 2.9450	 5.8620
 2.9460	 5.6340
 2.9480	 5.0020
 2.9500	 4.8730
 2.9510	 5.4200
 2.9530	 5.9560
 2.9550	 5.8810
 2.9560	 5.4050
 2.9580	 5.8120
 2.9600	 6.3210
 2.9610	 5.3030
 2.9630	 5.0320
 2.9650	 5.4760
 2.9660	 5.5380
 2.9680	 4.8630
 2.9700	 4.2230
 2.9720	 4.2330
 2.9730	 3.0110
 2.9750	 0.6300
 2.9770	 3.2350
 2.9780	 5.2460
 2.9800	 4.0560
 2.9820	 4.5410
 2.9840	 5.2790
 2.9850	 6.4660
 2.9870	 7.4340
 2.9890	 7.0940
 2.9900	 4.3520
 2.9920	 4.4020
 2.9940	 3.9120
 2.9960	 2.0570
 2.9970	 3.7490
 2.9990	 5.7380
 3.0010	 5.1520
 3.0030	 4.5590
 3.0040	 6.5260
 3.0060	 8.4410
 3.0080	 7.2850
 3.0100	 5.6710
 3.0110	 5.0550
 3.0130	 5.9060
 3.0150	 6.4340
 3.0170	 6.0000
 3.0180	 5.0980
 3.0200	 5.2430
 3.0220	 6.2470
 3.0240	 6.1210
 3.0250	 5.4820
 3.0270	 4.9620
 3.0290	 4.5130
 3.0310	 4.4890
 3.0320	 4.6460
 3.0340	 5.0820
 3.0360	 4.2150
 3.0380	 3.4160
 3.0400	 3.1780
 3.0410	 4.1290
 3.0430	 3.7530
 3.0450	 4.1700
 3.0470	 5.7520
 3.0480	 6.6400
 3.0500	 5.2260
 3.0520	 3.4080
 3.0540	 5.1530
 3.0560	 7.2940
 3.0570	 7.9000
 3.0590	 5.5650
 3.0610	 4.7380
 3.0630	 5.5770
 3.0650	 5.6390
 3.0660	 6.3350
 3.0680	 7.1680
 3.0700	 7.4110
 3.0720	 7.5310
 3.0740	 5.9930
 3.0760	 4.9330
 3.0770	 5.3770
 3.0790	 5.6520
 3.0810	 5.8300
 3.0830	 5.8250
 3.0850	 5.7380
 3.0870	 5.4580
 3.0880	 5.5340
 3.0900	 5.7300
 3.0920	 6.0290
 3.0940	 6.0520
 3.0960	 5.9520
 3.0980	 5.8790
 3.0990	 5.8130
 3.1010	 5.2380
 3.1030	 5.0210
 3.1050	 5.4400
 3.1070	 5.8410
 3.1090	 5.6330
 3.1110	 5.6120
 3.1120	 5.6820
 3.1140	 4.9320
 3.1160	 4.7080
 3.1180	 5.0890
 3.1200	 5.3920
 3.1220	 5.9280
 3.1240	 5.7200
 3.1260	 5.3750
 3.1270	 5.3810
 3.1290	 5.0330
 3.1310	 4.8730
 3.1330	 4.8950
 3.1350	 5.6870
 3.1370	 5.7270
 3.1390	 5.7560
 3.1410	 7.4750
 3.1430	 7.6410
 3.1450	 5.8050
 3.1460	 4.8760
 3.1480	 4.3250
 3.1500	 4.3310
 3.1520	 4.8470
 3.1540	 5.5750
 3.1560	 5.5190
 3.1580	 4.0400
 3.1600	 2.6430
 3.1620	 5.0260
 3.1640	 5.8410
 3.1660	 6.4240
 3.1680	 6.8360
 3.1700	 5.7840
 3.1710	 4.1240
 3.1730	 3.0600
 3.1750	 3.6480
 3.1770	 6.0150
 3.1790	 5.1560
 3.1810	 6.0460
 3.1830	 8.0960
 3.1850	 6.6140
 3.1870	 4.9080
 3.1890	 4.4810
 3.1910	 5.5840
 3.1930	 5.5340
 3.1950	 5.2630
 3.1970	 5.1340
 3.1990	 5.5080
 3.2010	 5.6590
 3.2030	 5.7230
 3.2050	 5.7930
 3.2070	 5.7330
 3.2090	 5.3890
 3.2110	 5.4220
 3.2130	 5.5110
 3.2150	 5.6470
 3.2170	 5.5200
 3.2190	 5.6340
 3.2210	 5.6580
 3.2230	 5.5900
 3.2250	 5.2730
 3.2270	 5.3610
 3.2290	 5.6190
 3.2310	 5.6370
 3.2330	 5.3250
 3.2350	 5.2700
 3.2370	 5.3750
 3.2390	 5.5070
 3.2410	 5.4830
 3.2430	 5.7250
 3.2450	 5.8500
 3.2470	 5.9380
 3.2490	 5.7830
 3.2510	 6.2880
 3.2530	 6.7030
 3.2550	 6.3460
 3.2570	 5.8120
 3.2590	 5.7440
 3.2610	 5.6820
 3.2630	 5.4690
 3.2650	 5.4610
 3.2670	 5.4730
 3.2690	 5.2160
 3.2720	 5.4670
 3.2740	 5.8320
 3.2760	 5.6730
 3.2780	 5.3570
 3.2800	 5.3940
 3.2820	 5.6740
 3.2840	 6.0020
 3.2860	 6.1830
 3.2880	 6.1800
 3.2900	 6.0430
 3.2920	 5.2980
 3.2940	 4.7510
 3.2960	 4.7940
 3.2990	 4.7070
 3.3010	 4.8030
 3.3030	 5.2750
 3.3050	 5.9570
 3.3070	 6.3310
 3.3090	 5.9990
 3.3110	 5.6000
 3.3130	 5.6220
 3.3150	 5.2630
 3.3180	 5.2640
 3.3200	 5.4870
 3.3220	 5.4670
 3.3240	 5.5960
 3.3260	 5.5880
 3.3280	 5.3570
 3.3300	 5.4050
 3.3330	 5.6320
 3.3350	 5.4500
 3.3370	 5.0470
 3.3390	 5.1720
 3.3410	 5.1500
 3.3430	 4.8310
 3.3450	 5.0380
 3.3480	 5.5340
 3.3500	 5.6280
 3.3520	 5.3500
 3.3540	 5.1510
 3.3560	 5.2070
 3.3580	 5.2580
 3.3610	 5.3560
 3.3630	 5.3100
 3.3650	 5.2090
 3.3670	 5.1470
 3.3690	 5.2020
 3.3720	 5.2970
 3.3740	 5.2960
 3.3760	 5.2000
 3.3780	 5.1350
 3.3800	 5.0960
 3.3830	 5.1250
 3.3850	 5.1170
 3.3870	 5.1660
 3.3890	 5.1060
 3.3910	 5.0410
 3.3940	 5.1300
 3.3960	 5.2930
 3.3980	 5.3620
 3.4000	 5.3960
 3.4020	 5.3510
 3.4050	 5.4170
 3.4070	 5.4390
 3.4090	 5.4470
 3.4110	 5.3320
 3.4140	 5.3400
 3.4160	 5.4850
 3.4180	 5.5040
 3.4200	 5.4960
 3.4230	 5.7520
 3.4250	 5.8290
 3.4270	 5.8890
 3.4290	 6.0030
 3.4320	 6.0450
 3.4340	 5.9780
 3.4360	 5.9810
 3.4390	 5.8630
 3.4410	 5.7230
 3.4430	 5.9020
 3.4450	 6.4930
 3.4480	 6.5570
 3.4500	 6.1100
 3.4520	 5.7380
 3.4550	 5.4660
 3.4570	 5.4300
 3.4590	 5.5470
 3.4620	 5.6660
 3.4640	 5.6650
 3.4660	 5.5660
 3.4680	 5.6030
 3.4710	 5.7440
 3.4730	 5.8780
 3.4750	 5.7690
 3.4780	 5.6640
 3.4800	 5.5720
 3.4820	 5.5730
 3.4850	 5.5620
 3.4870	 5.6860
 3.4890	 5.7140
 3.4920	 5.7420
 3.4940	 5.7110
 3.4970	 5.6930
 3.4990	 5.7530
 3.5010	 5.8110
 3.5040	 5.7530
 3.5060	 6.0630
 3.5080	 6.4590
 3.5110	 6.3020
 3.5130	 6.0650
 3.5160	 6.2510
 3.5180	 6.3090
 3.5200	 6.2330
 3.5230	 6.0540
 3.5250	 5.9900
 3.5270	 5.9930
 3.5300	 5.9060
 3.5320	 5.9160
 3.5350	 6.0990
 3.5370	 6.2120
 3.5400	 6.1760
 3.5420	 5.9670
 3.5440	 6.0910
 3.5470	 6.2430
 3.5490	 6.0600
 3.5520	 5.8760
 3.5540	 5.9290
 3.5570	 5.9940
 3.5590	 6.0200
 3.5610	 6.0440
 3.5640	 6.0500
 3.5660	 6.0700
 3.5690	 6.1100
 3.5710	 6.0530
 3.5740	 6.1090
 3.5760	 6.1580
 3.5790	 6.1080
 3.5810	 6.0090
 3.5840	 5.9520
 3.5860	 6.0640
 3.5890	 6.1180
 3.5910	 5.8920
 3.5930	 5.6970
 3.5960	 6.0140
 3.5980	 5.8650
 3.6010	 5.7480
 3.6030	 5.9740
 3.6060	 5.8830
 3.6080	 5.7680
 3.6110	 5.7440
 3.6140	 6.0370
 3.6160	 6.1260
 3.6190	 6.0200
 3.6210	 6.0120
 3.6240	 6.1830
 3.6260	 6.1120
 3.6290	 6.0470
 3.6310	 6.1060
 3.6340	 6.2890
 3.6360	 6.1860
 3.6390	 6.0210
 3.6410	 6.0330
 3.6440	 6.0300
 3.6470	 5.9400
 3.6490	 6.0240
 3.6520	 6.0360
 3.6540	 6.0600
 3.6570	 6.1090
 3.6590	 6.0670
 3.6620	 5.9260
 3.6650	 5.8800
 3.6670	 5.9180
 3.6700	 5.9870
 3.6720	 5.9920
 3.6750	 6.0870
 3.6780	 6.1460
 3.6800	 6.2360
 3.6830	 6.2000
 3.6850	 6.0590
 3.6880	 6.0360
 3.6910	 6.1200
 3.6930	 6.1040
 3.6960	 6.0890
 3.6990	 6.1310
 3.7010	 6.2510
 3.7040	 6.2720
 3.7060	 6.2360
 3.7090	 6.1620
 3.7120	 6.1620
 3.7140	 6.1300
 3.7170	 6.2000
 3.7200	 6.3020
 3.7220	 6.3560
 3.7250	 6.2570
 3.7280	 6.1330
 3.7300	 5.9250
 3.7330	 5.8160
 3.7360	 5.8780
 3.7390	 6.0580
 3.7410	 6.2620
 3.7440	 6.3670
 3.7470	 6.2250
 3.7490	 6.1270
 3.7520	 6.1990
 3.7550	 6.3210
 3.7580	 6.3730
 3.7600	 6.1740
 3.7630	 6.0870
 3.7660	 6.3140
 3.7680	 6.3810
 3.7710	 6.2730
 3.7740	 6.3360
 3.7770	 6.2770
 3.7790	 6.1040
 3.7820	 6.2140
 3.7850	 6.2510
 3.7880	 6.2300
 3.7900	 6.2560
 3.7930	 6.3280
 3.7960	 6.2780
 3.7990	 6.2640
 3.8020	 6.1530
 3.8040	 6.1510
 3.8070	 6.1130
 3.8100	 6.2560
 3.8130	 6.4170
 3.8160	 6.4140
 3.8180	 6.2430
 3.8210	 6.0190
 3.8240	 5.9750
 3.8270	 6.2030
 3.8300	 6.2270
 3.8330	 6.2170
 3.8350	 6.2020
 3.8380	 6.2390
 3.8410	 6.1720
 3.8440	 6.0500
 3.8470	 6.1450
 3.8500	 6.2420
 3.8520	 6.2920
 3.8550	 6.4230
 3.8580	 6.4250
 3.8610	 6.3190
 3.8640	 6.2860
 3.8670	 6.3290
 3.8700	 6.2570
 3.8730	 6.2710
 3.8750	 6.3070
 3.8780	 6.2760
 3.8810	 6.2730
 3.8840	 6.3690
 3.8870	 6.4360
 3.8900	 6.4170
 3.8930	 6.3880
 3.8960	 6.3000
 3.8990	 6.1970
 3.9020	 6.2140
 3.9050	 6.2300
 3.9080	 6.2720
 3.9110	 6.2950
 3.9140	 6.3860
 3.9160	 6.4750
 3.9190	 6.4360
 3.9220	 6.3500
 3.9250	 6.3340
 3.9280	 6.2840
 3.9310	 6.3270
 3.9340	 6.3550
 3.9370	 6.3310
 3.9400	 6.3600
 3.9430	 6.3990
 3.9460	 6.3560
 3.9490	 6.3190
 3.9520	 6.3340
 3.9550	 6.4740
 3.9580	 6.4250
 3.9610	 6.4550
 3.9640	 6.4280
 3.9670	 6.3390
 3.9700	 6.2830
 3.9730	 6.2990
 3.9770	 6.3180
 3.9800	 6.3680
 3.9830	 6.3370
 3.9860	 6.3290
 3.9890	 6.3670
 3.9920	 6.3440
 3.9950	 6.3080
 3.9980	 6.3610
 4.0010	 6.2970
 4.0040	 6.3240
 4.0070	 6.3930
 4.0100	 6.4010
 4.0130	 6.3840
 4.0170	 6.3230
 4.0200	 6.2880
 4.0230	 6.3350
 4.0260	 6.3400
 4.0290	 6.3670
 4.0320	 6.3310
 4.0350	 6.3160
 4.0380	 6.3940
 4.0420	 6.4640
 4.0450	 6.4340
 4.0480	 6.3760
 4.0510	 6.5260
 4.0540	 6.5990
 4.0570	 6.4010
 4.0610	 6.3110
 4.0640	 6.1320
 4.0670	 6.0290
 4.0700	 6.1370
 4.0730	 6.3420
 4.0770	 6.4130
 4.0800	 6.3050
 4.0830	 6.1840
 4.0860	 6.1420
 4.0890	 6.2700
 4.0930	 6.4010
 4.0960	 6.3990
 4.0990	 6.3470
 4.1020	 6.2970
 4.1060	 6.2130
 4.1090	 6.2250
 4.1120	 6.3860
 4.1150	 6.3080
 4.1190	 6.3720
 4.1220	 6.4200
 4.1250	 6.3370
 4.1280	 6.3490
 4.1320	 6.3140
 4.1350	 6.2680
 4.1380	 6.3260
 4.1420	 6.3320
 4.1450	 6.3530
 4.1480	 6.3010
 4.1520	 6.2470
 4.1550	 6.1700
 4.1580	 6.1330
 4.1620	 6.3120
 4.1650	 6.4550
 4.1680	 6.4330
 4.1720	 6.3250
 4.1750	 6.2330
 4.1780	 6.1900
 4.1820	 6.1660
 4.1850	 6.2620
 4.1890	 6.3990
 4.1920	 6.3900
 4.1950	 6.2800
 4.1990	 6.2820
 4.2020	 6.3220
 4.2060	 6.4570
 4.2090	 6.4140
 4.2120	 6.2770
 4.2160	 6.2710
 4.2190	 6.5070
 4.2230	 6.4400
 4.2260	 6.2230
 4.2300	 6.2640
 4.2330	 6.5390
 4.2360	 6.7760
 4.2400	 6.5210
 4.2430	 6.2500
 4.2470	 6.3330
 4.2500	 6.2960
 4.2540	 6.2230
 4.2570	 6.1520
 4.2610	 6.3400
 4.2640	 6.5110
 4.2680	 6.6190
 4.2710	 6.2620
 4.2750	 5.9210
 4.2780	 5.9730
 4.2820	 6.2530
 4.2850	 6.4530
 4.2890	 6.3950
 4.2930	 6.1490
 4.2960	 6.0380
 4.3000	 5.7390
 4.3030	 5.6490
 4.3070	 6.1190
 4.3100	 6.5850
 4.3140	 6.6130
 4.3180	 6.3800
 4.3210	 6.2790
 4.3250	 6.2730
 4.3280	 6.2660
 4.3320	 6.2590
 4.3360	 6.1970
 4.3390	 6.1830
 4.3430	 6.1810
 4.3470	 6.1680
 4.3500	 6.1950
 4.3540	 6.3180
 4.3570	 6.3290
 4.3610	 6.2730
 4.3650	 6.2480
 4.3680	 6.1530
 4.3720	 6.0670
 4.3760	 6.1140
 4.3800	 6.1270
 4.3830	 6.1190
 4.3870	 6.2080
 4.3910	 6.2510
 4.3940	 6.2790
 4.3980	 6.2770
 4.4020	 6.2070
 4.4060	 6.1950
 4.4090	 6.1570
 4.4130	 6.1690
 4.4170	 6.1630
 4.4210	 6.1760
 4.4240	 6.2050
 4.4280	 6.2300
 4.4320	 6.1810
 4.4360	 6.1850
 4.4400	 6.2110
 4.4430	 6.1290
 4.4470	 6.0400
 4.4510	 6.0280
 4.4550	 6.1030
 4.4590	 6.0780
 4.4620	 6.0240
 4.4660	 6.0320
 4.4700	 6.0530
 4.4740	 6.0920
 4.4780	 6.1380
 4.4820	 6.1570
 4.4860	 6.1910
 4.4900	 6.2350
 4.4930	 6.2280
 4.4970	 6.1570
 4.5010	 6.0460
 4.5050	 6.0480
 4.5090	 6.2070
 4.5130	 6.2610
 4.5170	 6.1790
 4.5210	 6.0270
 4.5250	 6.0680
 4.5290	 6.1430
 4.5330	 6.0970
 4.5370	 6.0410
 4.5410	 6.0270
 4.5450	 5.9720
 4.5490	 5.9150
 4.5530	 5.9850
 4.5570	 6.0200
 4.5610	 5.9550
 4.5650	 5.9700
 4.5690	 5.9840
 4.5730	 5.9680
 4.5770	 5.9410
 4.5810	 5.9770
 4.5850	 5.9980
 4.5890	 5.9550
 4.5930	 5.8600
 4.5970	 5.9040
 4.6010	 5.9900
 4.6050	 6.0790
 4.6090	 6.2650
 4.6130	 6.1700
 4.6170	 6.1030
 4.6220	 6.1890
 4.6260	 6.1620
 4.6300	 5.9610
 4.6340	 5.9850
 4.6380	 6.0570
 4.6420	 5.9280
 4.6460	 5.9560
 4.6510	 6.0620
 4.6550	 6.0340
 4.6590	 5.9220
 4.6630	 5.9480
 4.6670	 5.9560
 4.6720	 5.9940
 4.6760	 6.0350
 4.6800	 6.0750
 4.6840	 6.0820
 4.6880	 5.9390
 4.6930	 5.8130
 4.6970	 5.7530
 4.7010	 5.7590
 4.7050	 5.9390
 4.7100	 6.0110
 4.7140	 6.0850
 4.7180	 6.0400
 4.7230	 6.0150
 4.7270	 6.0700
 4.7310	 6.0750
 4.7360	 5.9910
 4.7400	 5.9520
 4.7440	 5.9120
 4.7490	 5.9100
 4.7530	 5.9510
 4.7570	 5.9930
 4.7620	 6.0070
 4.7660	 5.9940
 4.7700	 5.9820
 4.7750	 5.9590
 4.7790	 5.8560
 4.7840	 5.8550
 4.7880	 5.9240
 4.7920	 5.5820
 4.7970	 5.3580
 4.8010	 5.7440
 4.8060	 5.7820
 4.8100	 5.9320
 4.8150	 6.0280
 4.8190	 6.0000
 4.8240	 5.9030
 4.8280	 5.9360
 4.8330	 5.9320
 4.8370	 5.8570
 4.8420	 5.8790
 4.8460	 5.9160
 4.8510	 5.9200
 4.8550	 5.9530
 4.8600	 5.8340
 4.8640	 5.7780
 4.8690	 5.9130
 4.8730	 5.9700
 4.8780	 5.9310
 4.8830	 5.9710
 4.8870	 5.9300
 4.8920	 5.9230
 4.8960	 5.9290
 4.9010	 5.9130
 4.9060	 5.9260
 4.9100	 6.0270
 4.9150	 5.9560
 4.9200	 5.8050
 4.9240	 5.8600
 4.9290	 5.9440
 4.9340	 5.8850
 4.9380	 5.9850
 4.9430	 5.9650
 4.9480	 5.9370
 4.9530	 5.9530
 4.9570	 6.0620
 4.9620	 6.1170
 4.9670	 6.0370
 4.9720	 5.9460
 4.9760	 5.9190
 4.9810	 5.9420
 4.9860	 5.9780
 4.9910	 5.9570
 4.9960	 5.9600
 5.0000	 5.9490
 5.0050	 5.9970
 5.0100	 5.9710
 5.0150	 5.9760
 5.0200	 5.9220
 5.0250	 6.0130
 5.0290	 6.0090
 5.0340	 5.9720
 5.0390	 5.9970
 5.0440	 6.0360
 5.0490	 6.0240
 5.0540	 6.0390
 5.0590	 5.9970
 5.0640	 6.0690
 5.0690	 6.0930
 5.0740	 6.0320
 5.0790	 5.9200
 5.0840	 5.9680
 5.0890	 5.9900
 5.0940	 5.9950
 5.0990	 5.8660
 5.1040	 5.8230
 5.1090	 5.8430
 5.1140	 5.9420
 5.1190	 5.9930
 5.1240	 5.9880
 5.1290	 5.8830
 5.1340	 5.9020
 5.1390	 5.8800
 5.1440	 5.9250
 5.1490	 5.9330
 5.1540	 6.0240
 5.1600	 6.0320
 5.1650	 5.9850
 5.1700	 5.9120
 5.1750	 5.9510
 5.1800	 5.9400
 5.1850	 5.9460
 5.1910	 5.9670
 5.1960	 6.0160
 5.2010	 6.0000
 5.2060	 5.9940
 5.2110	 5.9400
 5.2170	 5.8870
 5.2220	 5.8250
 5.2270	 5.8800
 5.2320	 5.8140
 5.2380	 5.8580
 5.2430	 5.9210
 5.2480	 5.9400
 5.2540	 5.9500
 5.2590	 6.0940
 5.2640	 6.1040
 5.2700	 5.9730
 5.2750	 5.9370
 5.2800	 5.9660
 5.2860	 5.9170
 5.2910	 6.0050
 5.2970	 5.9860
 5.3020	 5.9090
 5.3070	 5.8680
 5.3130	 5.9080
 5.3180	 5.9070
 5.3240	 5.9360
 5.3290	 5.9120
 5.3350	 5.9250
 5.3400	 5.8710
 5.3460	 5.9060
 5.3510	 5.8890
 5.3570	 5.9110
 5.3620	 5.9690
 5.3680	 6.0430
 5.3730	 6.0150
 5.3790	 5.9900
 5.3850	 5.9090
 5.3900	 5.8520
 5.3960	 5.7980
 5.4010	 5.8400
 5.4070	 5.7080
 5.4130	 5.7090
 5.4180	 5.7710
 5.4240	 5.7530
 5.4300	 5.6920
 5.4350	 5.7390
