Name: Pinus lambertiana 1
Type: vegetation
Class: Tree
Genus: Pinus
Species: lambertiana
Sample No.: VH148
Owner: UCSB
Wavelength Range: VSWIR
Origin: 37.043; -119.3043; WGS84
Collection Date: 6/8/2013
Description: Samples were collected as part of the HyspIRI Airborne Campaign. 48 individual plants were sampled in three times in 2013 - spring  summer  and fall. The name of the sample includes a 1  2  or 3 which references a different individual of the species. Samples were taken to JPL and processed within 48 hours of collection. The same leaves were processed in the Nicolet and then measured using the ASD.
Measurement: Bidirectional reflectance
First Column: X
Second Column: Y
X Units: Wavelength (micrometers)
Y Units: Reflectance (percentage)
First X Value: 0.35
Last X Value: 2.5
Number of X Values: 2151
Additional Information: vegetation.tree.pinus.lambertiana.vswir.vh148.ucsb.asd.ancillary.txt

 0.3500	 7.4560
 0.3510	 7.5510
 0.3520	 7.6130
 0.3530	 7.6070
 0.3540	 7.5790
 0.3550	 7.5050
 0.3560	 7.4700
 0.3570	 7.4830
 0.3580	 7.5110
 0.3590	 7.4780
 0.3600	 7.3840
 0.3610	 7.2760
 0.3620	 7.2500
 0.3630	 7.2470
 0.3640	 7.2450
 0.3650	 7.2570
 0.3660	 7.3920
 0.3670	 7.3810
 0.3680	 7.2840
 0.3690	 7.3530
 0.3700	 7.2560
 0.3710	 7.1710
 0.3720	 7.2030
 0.3730	 7.2180
 0.3740	 7.2660
 0.3750	 7.2850
 0.3760	 7.2130
 0.3770	 7.2020
 0.3780	 7.1500
 0.3790	 7.0880
 0.3800	 7.1560
 0.3810	 7.2170
 0.3820	 7.1990
 0.3830	 7.1190
 0.3840	 7.1180
 0.3850	 7.1100
 0.3860	 7.1060
 0.3870	 7.1300
 0.3880	 7.1100
 0.3890	 7.0750
 0.3900	 7.0450
 0.3910	 7.0180
 0.3920	 7.0070
 0.3930	 7.0180
 0.3940	 7.0450
 0.3950	 7.0360
 0.3960	 6.9990
 0.3970	 6.9860
 0.3980	 7.0450
 0.3990	 7.0400
 0.4000	 7.0690
 0.4010	 7.1280
 0.4020	 7.0630
 0.4030	 7.0680
 0.4040	 7.0910
 0.4050	 7.0570
 0.4060	 7.0520
 0.4070	 7.0750
 0.4080	 7.1150
 0.4090	 7.1460
 0.4100	 7.1770
 0.4110	 7.2060
 0.4120	 7.2370
 0.4130	 7.2650
 0.4140	 7.3030
 0.4150	 7.3570
 0.4160	 7.4200
 0.4170	 7.4870
 0.4180	 7.5490
 0.4190	 7.6090
 0.4200	 7.6650
 0.4210	 7.7330
 0.4220	 7.7940
 0.4230	 7.8470
 0.4240	 7.8990
 0.4250	 7.9460
 0.4260	 7.9920
 0.4270	 8.0440
 0.4280	 8.0990
 0.4290	 8.1460
 0.4300	 8.1810
 0.4310	 8.2150
 0.4320	 8.2490
 0.4330	 8.2720
 0.4340	 8.2880
 0.4350	 8.3200
 0.4360	 8.3580
 0.4370	 8.3980
 0.4380	 8.4210
 0.4390	 8.4430
 0.4400	 8.4660
 0.4410	 8.4910
 0.4420	 8.5190
 0.4430	 8.5410
 0.4440	 8.5610
 0.4450	 8.5890
 0.4460	 8.5910
 0.4470	 8.6010
 0.4480	 8.6260
 0.4490	 8.6500
 0.4500	 8.6700
 0.4510	 8.6840
 0.4520	 8.6890
 0.4530	 8.6940
 0.4540	 8.7010
 0.4550	 8.7140
 0.4560	 8.7360
 0.4570	 8.7500
 0.4580	 8.7590
 0.4590	 8.7620
 0.4600	 8.7720
 0.4610	 8.7740
 0.4620	 8.7710
 0.4630	 8.7720
 0.4640	 8.7730
 0.4650	 8.7690
 0.4660	 8.7620
 0.4670	 8.7590
 0.4680	 8.7650
 0.4690	 8.7630
 0.4700	 8.7570
 0.4710	 8.7420
 0.4720	 8.7370
 0.4730	 8.7420
 0.4740	 8.7490
 0.4750	 8.7450
 0.4760	 8.7410
 0.4770	 8.7490
 0.4780	 8.7530
 0.4790	 8.7520
 0.4800	 8.7460
 0.4810	 8.7460
 0.4820	 8.7460
 0.4830	 8.7460
 0.4840	 8.7470
 0.4850	 8.7400
 0.4860	 8.7410
 0.4870	 8.7480
 0.4880	 8.7500
 0.4890	 8.7470
 0.4900	 8.7620
 0.4910	 8.7820
 0.4920	 8.7860
 0.4930	 8.7980
 0.4940	 8.8130
 0.4950	 8.8320
 0.4960	 8.8530
 0.4970	 8.8790
 0.4980	 8.9110
 0.4990	 8.9470
 0.5000	 8.9920
 0.5010	 9.0340
 0.5020	 9.0790
 0.5030	 9.1460
 0.5040	 9.2130
 0.5050	 9.2790
 0.5060	 9.3550
 0.5070	 9.4500
 0.5080	 9.5560
 0.5090	 9.6690
 0.5100	 9.7910
 0.5110	 9.9250
 0.5120	10.0730
 0.5130	10.2350
 0.5140	10.4080
 0.5150	10.5970
 0.5160	10.8020
 0.5170	11.0200
 0.5180	11.2440
 0.5190	11.4760
 0.5200	11.7140
 0.5210	11.9560
 0.5220	12.1970
 0.5230	12.4360
 0.5240	12.6700
 0.5250	12.8940
 0.5260	13.1080
 0.5270	13.3100
 0.5280	13.4950
 0.5290	13.6660
 0.5300	13.8230
 0.5310	13.9650
 0.5320	14.0910
 0.5330	14.2050
 0.5340	14.3090
 0.5350	14.4040
 0.5360	14.4860
 0.5370	14.5560
 0.5380	14.6140
 0.5390	14.6620
 0.5400	14.7050
 0.5410	14.7440
 0.5420	14.7810
 0.5430	14.8120
 0.5440	14.8530
 0.5450	14.8990
 0.5460	14.9440
 0.5470	15.0040
 0.5480	15.0630
 0.5490	15.1070
 0.5500	15.1400
 0.5510	15.1660
 0.5520	15.1800
 0.5530	15.1770
 0.5540	15.1590
 0.5550	15.1250
 0.5560	15.0730
 0.5570	15.0040
 0.5580	14.9220
 0.5590	14.8300
 0.5600	14.7290
 0.5610	14.6120
 0.5620	14.4890
 0.5630	14.3620
 0.5640	14.2280
 0.5650	14.0870
 0.5660	13.9390
 0.5670	13.7870
 0.5680	13.6240
 0.5690	13.4590
 0.5700	13.2960
 0.5710	13.1330
 0.5720	12.9730
 0.5730	12.8150
 0.5740	12.6660
 0.5750	12.5310
 0.5760	12.4080
 0.5770	12.2960
 0.5780	12.1940
 0.5790	12.0960
 0.5800	12.0020
 0.5810	11.9130
 0.5820	11.8290
 0.5830	11.7470
 0.5840	11.6710
 0.5850	11.6010
 0.5860	11.5330
 0.5870	11.4680
 0.5880	11.4070
 0.5890	11.3500
 0.5900	11.2920
 0.5910	11.2390
 0.5920	11.1970
 0.5930	11.1700
 0.5940	11.1420
 0.5950	11.1150
 0.5960	11.0910
 0.5970	11.0690
 0.5980	11.0460
 0.5990	11.0220
 0.6000	11.0000
 0.6010	10.9710
 0.6020	10.9360
 0.6030	10.8960
 0.6040	10.8480
 0.6050	10.8000
 0.6060	10.7450
 0.6070	10.6750
 0.6080	10.6020
 0.6090	10.5220
 0.6100	10.4330
 0.6110	10.3390
 0.6120	10.2690
 0.6130	10.2100
 0.6140	10.1500
 0.6150	10.0850
 0.6160	10.0250
 0.6170	 9.9690
 0.6180	 9.9100
 0.6190	 9.8580
 0.6200	 9.8110
 0.6210	 9.7670
 0.6220	 9.7360
 0.6230	 9.7090
 0.6240	 9.6840
 0.6250	 9.6590
 0.6260	 9.6430
 0.6270	 9.6270
 0.6280	 9.6130
 0.6290	 9.6030
 0.6300	 9.5910
 0.6310	 9.5800
 0.6320	 9.5650
 0.6330	 9.5520
 0.6340	 9.5290
 0.6350	 9.4970
 0.6360	 9.4570
 0.6370	 9.4120
 0.6380	 9.3610
 0.6390	 9.3040
 0.6400	 9.2440
 0.6410	 9.1800
 0.6420	 9.1130
 0.6430	 9.0450
 0.6440	 8.9820
 0.6450	 8.9210
 0.6460	 8.8560
 0.6470	 8.7980
 0.6480	 8.7450
 0.6490	 8.6990
 0.6500	 8.6560
 0.6510	 8.6240
 0.6520	 8.5880
 0.6530	 8.5590
 0.6540	 8.5340
 0.6550	 8.5000
 0.6560	 8.4670
 0.6570	 8.4290
 0.6580	 8.3850
 0.6590	 8.3450
 0.6600	 8.3010
 0.6610	 8.2590
 0.6620	 8.2150
 0.6630	 8.1800
 0.6640	 8.1500
 0.6650	 8.1210
 0.6660	 8.0930
 0.6670	 8.0720
 0.6680	 8.0590
 0.6690	 8.0460
 0.6700	 8.0400
 0.6710	 8.0360
 0.6720	 8.0330
 0.6730	 8.0420
 0.6740	 8.0490
 0.6750	 8.0600
 0.6760	 8.0710
 0.6770	 8.0910
 0.6780	 8.1090
 0.6790	 8.1280
 0.6800	 8.1580
 0.6810	 8.1890
 0.6820	 8.2240
 0.6830	 8.2710
 0.6840	 8.3200
 0.6850	 8.3840
 0.6860	 8.4620
 0.6870	 8.5620
 0.6880	 8.6960
 0.6890	 8.8670
 0.6900	 9.0850
 0.6910	 9.3640
 0.6920	 9.7070
 0.6930	10.1230
 0.6940	10.6140
 0.6950	11.1760
 0.6960	11.8060
 0.6970	12.4980
 0.6980	13.2460
 0.6990	14.0530
 0.7000	14.9080
 0.7010	15.8010
 0.7020	16.7200
 0.7030	17.6700
 0.7040	18.6430
 0.7050	19.6330
 0.7060	20.6300
 0.7070	21.6410
 0.7080	22.6670
 0.7090	23.7050
 0.7100	24.7600
 0.7110	25.8250
 0.7120	26.8990
 0.7130	27.9870
 0.7140	29.0900
 0.7150	30.2060
 0.7160	31.3310
 0.7170	32.4650
 0.7180	33.6090
 0.7190	34.7600
 0.7200	35.9160
 0.7210	37.0800
 0.7220	38.2440
 0.7230	39.4030
 0.7240	40.5640
 0.7250	41.7080
 0.7260	42.8360
 0.7270	43.9510
 0.7280	45.0420
 0.7290	46.1110
 0.7300	47.1590
 0.7310	48.1790
 0.7320	49.1710
 0.7330	50.1310
 0.7340	51.0590
 0.7350	51.9580
 0.7360	52.8220
 0.7370	53.6530
 0.7380	54.4490
 0.7390	55.2120
 0.7400	55.9410
 0.7410	56.6330
 0.7420	57.2880
 0.7430	57.9090
 0.7440	58.4960
 0.7450	59.0500
 0.7460	59.5690
 0.7470	60.0540
 0.7480	60.5070
 0.7490	60.9280
 0.7500	61.3220
 0.7510	61.6840
 0.7520	62.0180
 0.7530	62.3280
 0.7540	62.6100
 0.7550	62.8710
 0.7560	63.1140
 0.7570	63.3360
 0.7580	63.5370
 0.7590	63.7180
 0.7600	63.8850
 0.7610	64.0460
 0.7620	64.1910
 0.7630	64.3220
 0.7640	64.4430
 0.7650	64.5490
 0.7660	64.6530
 0.7670	64.7530
 0.7680	64.8400
 0.7690	64.9220
 0.7700	65.0000
 0.7710	65.0720
 0.7720	65.1370
 0.7730	65.2010
 0.7740	65.2600
 0.7750	65.3130
 0.7760	65.3670
 0.7770	65.4170
 0.7780	65.4640
 0.7790	65.5100
 0.7800	65.5530
 0.7810	65.5970
 0.7820	65.6420
 0.7830	65.6860
 0.7840	65.7230
 0.7850	65.7580
 0.7860	65.7940
 0.7870	65.8320
 0.7880	65.8670
 0.7890	65.9000
 0.7900	65.9340
 0.7910	65.9650
 0.7920	65.9960
 0.7930	66.0250
 0.7940	66.0510
 0.7950	66.0750
 0.7960	66.1030
 0.7970	66.1350
 0.7980	66.1570
 0.7990	66.1800
 0.8000	66.1980
 0.8010	66.2120
 0.8020	66.2360
 0.8030	66.2600
 0.8040	66.2770
 0.8050	66.2850
 0.8060	66.3010
 0.8070	66.3160
 0.8080	66.3300
 0.8090	66.3470
 0.8100	66.3600
 0.8110	66.3690
 0.8120	66.3780
 0.8130	66.3860
 0.8140	66.3980
 0.8150	66.4110
 0.8160	66.4200
 0.8170	66.4280
 0.8180	66.4390
 0.8190	66.4490
 0.8200	66.4550
 0.8210	66.4600
 0.8220	66.4660
 0.8230	66.4730
 0.8240	66.4840
 0.8250	66.4850
 0.8260	66.4840
 0.8270	66.4850
 0.8280	66.4810
 0.8290	66.4790
 0.8300	66.4790
 0.8310	66.4780
 0.8320	66.4760
 0.8330	66.4710
 0.8340	66.4710
 0.8350	66.4780
 0.8360	66.4900
 0.8370	66.5010
 0.8380	66.5100
 0.8390	66.5220
 0.8400	66.5320
 0.8410	66.5450
 0.8420	66.5630
 0.8430	66.5780
 0.8440	66.5910
 0.8450	66.6070
 0.8460	66.6280
 0.8470	66.6480
 0.8480	66.6640
 0.8490	66.6770
 0.8500	66.6930
 0.8510	66.7120
 0.8520	66.7320
 0.8530	66.7480
 0.8540	66.7570
 0.8550	66.7770
 0.8560	66.7900
 0.8570	66.7980
 0.8580	66.8250
 0.8590	66.8440
 0.8600	66.8600
 0.8610	66.8760
 0.8620	66.8890
 0.8630	66.8960
 0.8640	66.9040
 0.8650	66.9190
 0.8660	66.9290
 0.8670	66.9430
 0.8680	66.9590
 0.8690	66.9730
 0.8700	66.9840
 0.8710	67.0020
 0.8720	67.0200
 0.8730	67.0300
 0.8740	67.0410
 0.8750	67.0550
 0.8760	67.0670
 0.8770	67.0710
 0.8780	67.0860
 0.8790	67.1050
 0.8800	67.1160
 0.8810	67.1150
 0.8820	67.1240
 0.8830	67.1330
 0.8840	67.1380
 0.8850	67.1480
 0.8860	67.1520
 0.8870	67.1530
 0.8880	67.1530
 0.8890	67.1590
 0.8900	67.1620
 0.8910	67.1600
 0.8920	67.1560
 0.8930	67.1610
 0.8940	67.1660
 0.8950	67.1670
 0.8960	67.1680
 0.8970	67.1620
 0.8980	67.1630
 0.8990	67.1710
 0.9000	67.1690
 0.9010	67.1570
 0.9020	67.1490
 0.9030	67.1480
 0.9040	67.1410
 0.9050	67.1390
 0.9060	67.1370
 0.9070	67.1330
 0.9080	67.1330
 0.9090	67.1190
 0.9100	67.1090
 0.9110	67.1140
 0.9120	67.1090
 0.9130	67.0980
 0.9140	67.0860
 0.9150	67.0800
 0.9160	67.0700
 0.9170	67.0610
 0.9180	67.0460
 0.9190	67.0250
 0.9200	67.0170
 0.9210	66.9950
 0.9220	66.9610
 0.9230	66.9320
 0.9240	66.9000
 0.9250	66.8600
 0.9260	66.8120
 0.9270	66.7620
 0.9280	66.7170
 0.9290	66.6650
 0.9300	66.6040
 0.9310	66.5430
 0.9320	66.4750
 0.9330	66.3970
 0.9340	66.3200
 0.9350	66.2640
 0.9360	66.1810
 0.9370	66.0820
 0.9380	65.9870
 0.9390	65.9080
 0.9400	65.8110
 0.9410	65.7020
 0.9420	65.5920
 0.9430	65.4770
 0.9440	65.3560
 0.9450	65.2230
 0.9460	65.0790
 0.9470	64.9340
 0.9480	64.7670
 0.9490	64.5870
 0.9500	64.4010
 0.9510	64.1950
 0.9520	63.9960
 0.9530	63.7930
 0.9540	63.5730
 0.9550	63.3580
 0.9560	63.1520
 0.9570	62.9520
 0.9580	62.7620
 0.9590	62.5970
 0.9600	62.4230
 0.9610	62.2670
 0.9620	62.1600
 0.9630	62.0540
 0.9640	61.9440
 0.9650	61.8410
 0.9660	61.7580
 0.9670	61.6870
 0.9680	61.6430
 0.9690	61.5970
 0.9700	61.5230
 0.9710	61.4830
 0.9720	61.4440
 0.9730	61.4030
 0.9740	61.3730
 0.9750	61.3600
 0.9760	61.3420
 0.9770	61.3240
 0.9780	61.3230
 0.9790	61.3320
 0.9800	61.3300
 0.9810	61.3270
 0.9820	61.3480
 0.9830	61.3810
 0.9840	61.4180
 0.9850	61.4500
 0.9860	61.4750
 0.9870	61.5030
 0.9880	61.5450
 0.9890	61.6020
 0.9900	61.6630
 0.9910	61.7070
 0.9920	61.7670
 0.9930	61.8370
 0.9940	61.8970
 0.9950	61.9680
 0.9960	62.0420
 0.9970	62.1120
 0.9980	62.1750
 0.9990	62.2540
 1.0000	62.6370
 1.0010	63.2640
 1.0020	63.6570
 1.0030	63.7380
 1.0040	63.8170
 1.0050	63.9050
 1.0060	63.9910
 1.0070	64.0750
 1.0080	64.1580
 1.0090	64.2360
 1.0100	64.3240
 1.0110	64.4170
 1.0120	64.5080
 1.0130	64.6050
 1.0140	64.6950
 1.0150	64.7790
 1.0160	64.8620
 1.0170	64.9470
 1.0180	65.0360
 1.0190	65.1270
 1.0200	65.2130
 1.0210	65.2990
 1.0220	65.3820
 1.0230	65.4660
 1.0240	65.5510
 1.0250	65.6340
 1.0260	65.7160
 1.0270	65.7980
 1.0280	65.8820
 1.0290	65.9640
 1.0300	66.0470
 1.0310	66.1260
 1.0320	66.2030
 1.0330	66.2820
 1.0340	66.3610
 1.0350	66.4370
 1.0360	66.5070
 1.0370	66.5780
 1.0380	66.6470
 1.0390	66.7110
 1.0400	66.7770
 1.0410	66.8480
 1.0420	66.9110
 1.0430	66.9700
 1.0440	67.0280
 1.0450	67.0820
 1.0460	67.1370
 1.0470	67.1920
 1.0480	67.2450
 1.0490	67.2970
 1.0500	67.3470
 1.0510	67.3900
 1.0520	67.4390
 1.0530	67.4860
 1.0540	67.5340
 1.0550	67.5760
 1.0560	67.6170
 1.0570	67.6540
 1.0580	67.6860
 1.0590	67.7170
 1.0600	67.7480
 1.0610	67.7750
 1.0620	67.7990
 1.0630	67.8230
 1.0640	67.8470
 1.0650	67.8700
 1.0660	67.8940
 1.0670	67.9120
 1.0680	67.9260
 1.0690	67.9380
 1.0700	67.9490
 1.0710	67.9540
 1.0720	67.9630
 1.0730	67.9740
 1.0740	67.9810
 1.0750	67.9900
 1.0760	67.9920
 1.0770	67.9890
 1.0780	67.9850
 1.0790	67.9770
 1.0800	67.9680
 1.0810	67.9580
 1.0820	67.9470
 1.0830	67.9370
 1.0840	67.9230
 1.0850	67.9070
 1.0860	67.8880
 1.0870	67.8650
 1.0880	67.8370
 1.0890	67.8100
 1.0900	67.7790
 1.0910	67.7490
 1.0920	67.7200
 1.0930	67.6870
 1.0940	67.6550
 1.0950	67.6160
 1.0960	67.5730
 1.0970	67.5280
 1.0980	67.4760
 1.0990	67.4300
 1.1000	67.3880
 1.1010	67.3420
 1.1020	67.2990
 1.1030	67.2530
 1.1040	67.2030
 1.1050	67.1520
 1.1060	67.1000
 1.1070	67.0480
 1.1080	66.9940
 1.1090	66.9370
 1.1100	66.8790
 1.1110	66.8230
 1.1120	66.7600
 1.1130	66.6930
 1.1140	66.6220
 1.1150	66.5470
 1.1160	66.4650
 1.1170	66.3830
 1.1180	66.2870
 1.1190	66.1840
 1.1200	66.0690
 1.1210	65.9490
 1.1220	65.8150
 1.1230	65.6720
 1.1240	65.5220
 1.1250	65.3510
 1.1260	65.1680
 1.1270	64.9630
 1.1280	64.7430
 1.1290	64.5010
 1.1300	64.2430
 1.1310	63.9630
 1.1320	63.6630
 1.1330	63.3450
 1.1340	63.0080
 1.1350	62.6540
 1.1360	62.2800
 1.1370	61.8930
 1.1380	61.4930
 1.1390	61.0830
 1.1400	60.6620
 1.1410	60.2380
 1.1420	59.8120
 1.1430	59.3860
 1.1440	58.9690
 1.1450	58.5520
 1.1460	58.1520
 1.1470	57.7550
 1.1480	57.3810
 1.1490	57.0180
 1.1500	56.6800
 1.1510	56.3570
 1.1520	56.0590
 1.1530	55.7810
 1.1540	55.5250
 1.1550	55.2910
 1.1560	55.0790
 1.1570	54.8820
 1.1580	54.7100
 1.1590	54.5520
 1.1600	54.4090
 1.1610	54.2850
 1.1620	54.1710
 1.1630	54.0730
 1.1640	53.9860
 1.1650	53.9050
 1.1660	53.8370
 1.1670	53.7700
 1.1680	53.7100
 1.1690	53.6520
 1.1700	53.5980
 1.1710	53.5460
 1.1720	53.4990
 1.1730	53.4510
 1.1740	53.4050
 1.1750	53.3620
 1.1760	53.3170
 1.1770	53.2700
 1.1780	53.2220
 1.1790	53.1740
 1.1800	53.1230
 1.1810	53.0700
 1.1820	53.0190
 1.1830	52.9660
 1.1840	52.9150
 1.1850	52.8680
 1.1860	52.8170
 1.1870	52.7660
 1.1880	52.7220
 1.1890	52.6780
 1.1900	52.6400
 1.1910	52.6080
 1.1920	52.5790
 1.1930	52.5540
 1.1940	52.5330
 1.1950	52.5160
 1.1960	52.5040
 1.1970	52.4960
 1.1980	52.4920
 1.1990	52.4950
 1.2000	52.5010
 1.2010	52.5100
 1.2020	52.5240
 1.2030	52.5390
 1.2040	52.5580
 1.2050	52.5830
 1.2060	52.6090
 1.2070	52.6400
 1.2080	52.6770
 1.2090	52.7140
 1.2100	52.7560
 1.2110	52.8010
 1.2120	52.8480
 1.2130	52.8990
 1.2140	52.9520
 1.2150	53.0100
 1.2160	53.0710
 1.2170	53.1380
 1.2180	53.2060
 1.2190	53.2740
 1.2200	53.3450
 1.2210	53.4190
 1.2220	53.4940
 1.2230	53.5710
 1.2240	53.6450
 1.2250	53.7160
 1.2260	53.7890
 1.2270	53.8610
 1.2280	53.9320
 1.2290	54.0070
 1.2300	54.0780
 1.2310	54.1460
 1.2320	54.2140
 1.2330	54.2770
 1.2340	54.3400
 1.2350	54.3980
 1.2360	54.4600
 1.2370	54.5220
 1.2380	54.5830
 1.2390	54.6430
 1.2400	54.7000
 1.2410	54.7550
 1.2420	54.8070
 1.2430	54.8610
 1.2440	54.9130
 1.2450	54.9640
 1.2460	55.0130
 1.2470	55.0560
 1.2480	55.0990
 1.2490	55.1410
 1.2500	55.1790
 1.2510	55.2190
 1.2520	55.2570
 1.2530	55.2940
 1.2540	55.3300
 1.2550	55.3630
 1.2560	55.3940
 1.2570	55.4200
 1.2580	55.4420
 1.2590	55.4630
 1.2600	55.4800
 1.2610	55.4950
 1.2620	55.5090
 1.2630	55.5220
 1.2640	55.5320
 1.2650	55.5400
 1.2660	55.5470
 1.2670	55.5500
 1.2680	55.5490
 1.2690	55.5470
 1.2700	55.5420
 1.2710	55.5320
 1.2720	55.5230
 1.2730	55.5120
 1.2740	55.4960
 1.2750	55.4790
 1.2760	55.4600
 1.2770	55.4350
 1.2780	55.4070
 1.2790	55.3770
 1.2800	55.3450
 1.2810	55.3090
 1.2820	55.2680
 1.2830	55.2220
 1.2840	55.1740
 1.2850	55.1210
 1.2860	55.0640
 1.2870	55.0020
 1.2880	54.9350
 1.2890	54.8630
 1.2900	54.7860
 1.2910	54.7050
 1.2920	54.6180
 1.2930	54.5260
 1.2940	54.4270
 1.2950	54.3210
 1.2960	54.2110
 1.2970	54.0960
 1.2980	53.9760
 1.2990	53.8510
 1.3000	53.7200
 1.3010	53.5810
 1.3020	53.4330
 1.3030	53.2790
 1.3040	53.1200
 1.3050	52.9570
 1.3060	52.7880
 1.3070	52.6100
 1.3080	52.4280
 1.3090	52.2390
 1.3100	52.0440
 1.3110	51.8480
 1.3120	51.6430
 1.3130	51.4330
 1.3140	51.2160
 1.3150	50.9900
 1.3160	50.7600
 1.3170	50.5260
 1.3180	50.2840
 1.3190	50.0400
 1.3200	49.7910
 1.3210	49.5320
 1.3220	49.2680
 1.3230	49.0020
 1.3240	48.7300
 1.3250	48.4600
 1.3260	48.1890
 1.3270	47.9090
 1.3280	47.6290
 1.3290	47.3460
 1.3300	47.0640
 1.3310	46.7830
 1.3320	46.5000
 1.3330	46.2190
 1.3340	45.9370
 1.3350	45.6520
 1.3360	45.3720
 1.3370	45.0910
 1.3380	44.8130
 1.3390	44.5400
 1.3400	44.2690
 1.3410	44.0040
 1.3420	43.7430
 1.3430	43.4840
 1.3440	43.2310
 1.3450	42.9820
 1.3460	42.7340
 1.3470	42.4940
 1.3480	42.2570
 1.3490	42.0270
 1.3500	41.8020
 1.3510	41.5810
 1.3520	41.3620
 1.3530	41.1470
 1.3540	40.9300
 1.3550	40.7170
 1.3560	40.5060
 1.3570	40.2920
 1.3580	40.0810
 1.3590	39.8640
 1.3600	39.6430
 1.3610	39.4190
 1.3620	39.1880
 1.3630	38.9520
 1.3640	38.7090
 1.3650	38.4580
 1.3660	38.2010
 1.3670	37.9320
 1.3680	37.6490
 1.3690	37.3540
 1.3700	37.0390
 1.3710	36.7110
 1.3720	36.3670
 1.3730	35.9990
 1.3740	35.6160
 1.3750	35.2110
 1.3760	34.7790
 1.3770	34.3280
 1.3780	33.8490
 1.3790	33.3480
 1.3800	32.8250
 1.3810	32.2760
 1.3820	31.7130
 1.3830	31.1320
 1.3840	30.5370
 1.3850	29.9240
 1.3860	29.3050
 1.3870	28.6670
 1.3880	28.0360
 1.3890	27.4000
 1.3900	26.7620
 1.3910	26.1360
 1.3920	25.5130
 1.3930	24.8950
 1.3940	24.2920
 1.3950	23.6930
 1.3960	23.1120
 1.3970	22.5500
 1.3980	22.0050
 1.3990	21.4880
 1.4000	20.9920
 1.4010	20.5140
 1.4020	20.0610
 1.4030	19.6260
 1.4040	19.2160
 1.4050	18.8310
 1.4060	18.4670
 1.4070	18.1290
 1.4080	17.8110
 1.4090	17.5110
 1.4100	17.2340
 1.4110	16.9730
 1.4120	16.7300
 1.4130	16.5060
 1.4140	16.2950
 1.4150	16.1030
 1.4160	15.9250
 1.4170	15.7580
 1.4180	15.6050
 1.4190	15.4600
 1.4200	15.3270
 1.4210	15.2060
 1.4220	15.0920
 1.4230	14.9890
 1.4240	14.8950
 1.4250	14.8080
 1.4260	14.7290
 1.4270	14.6550
 1.4280	14.5880
 1.4290	14.5270
 1.4300	14.4720
 1.4310	14.4230
 1.4320	14.3800
 1.4330	14.3400
 1.4340	14.3040
 1.4350	14.2720
 1.4360	14.2420
 1.4370	14.2180
 1.4380	14.1980
 1.4390	14.1810
 1.4400	14.1680
 1.4410	14.1570
 1.4420	14.1490
 1.4430	14.1420
 1.4440	14.1390
 1.4450	14.1380
 1.4460	14.1380
 1.4470	14.1390
 1.4480	14.1430
 1.4490	14.1480
 1.4500	14.1550
 1.4510	14.1630
 1.4520	14.1730
 1.4530	14.1850
 1.4540	14.1990
 1.4550	14.2140
 1.4560	14.2300
 1.4570	14.2470
 1.4580	14.2670
 1.4590	14.2890
 1.4600	14.3140
 1.4610	14.3430
 1.4620	14.3750
 1.4630	14.4100
 1.4640	14.4480
 1.4650	14.4900
 1.4660	14.5350
 1.4670	14.5840
 1.4680	14.6380
 1.4690	14.6950
 1.4700	14.7550
