Name: Quercus lobata 2
Type: vegetation
Class: Tree
Genus: Quercus
Species: lobata
Sample No.: VH283
Owner: UCSB
Wavelength Range: VSWIR
Origin: 34.7146; -120.0588; WGS84
Collection Date: 11/2/2013
Description: Samples were collected as part of the HyspIRI Airborne Campaign. 48 individual plants were sampled in three times in 2013 - spring  summer  and fall. The name of the sample includes a 1  2  or 3 which references a different individual of the species. Samples were taken to JPL and processed within 48 hours of collection. The same leaves were processed in the Nicolet and then measured using the ASD.
Measurement: Bidirectional reflectance
First Column: X
Second Column: Y
X Units: Wavelength (micrometers)
Y Units: Reflectance (percentage)
First X Value: 0.35
Last X Value: 2.5
Number of X Values: 2151
Additional Information: vegetation.tree.quercus.lobata.vswir.vh283.ucsb.asd.ancillary.txt

 0.3500	 7.5220
 0.3510	 7.4720
 0.3520	 7.5360
 0.3530	 7.6320
 0.3540	 7.6560
 0.3550	 7.6520
 0.3560	 7.5100
 0.3570	 7.3600
 0.3580	 7.4070
 0.3590	 7.3780
 0.3600	 7.4100
 0.3610	 7.4920
 0.3620	 7.3540
 0.3630	 7.3450
 0.3640	 7.4330
 0.3650	 7.4930
 0.3660	 7.4760
 0.3670	 7.4670
 0.3680	 7.4650
 0.3690	 7.4150
 0.3700	 7.4610
 0.3710	 7.5120
 0.3720	 7.5160
 0.3730	 7.5470
 0.3740	 7.5810
 0.3750	 7.5810
 0.3760	 7.5300
 0.3770	 7.5220
 0.3780	 7.5380
 0.3790	 7.5590
 0.3800	 7.5730
 0.3810	 7.6140
 0.3820	 7.6660
 0.3830	 7.7010
 0.3840	 7.6890
 0.3850	 7.6430
 0.3860	 7.6620
 0.3870	 7.8170
 0.3880	 7.8220
 0.3890	 7.8200
 0.3900	 7.8580
 0.3910	 7.8600
 0.3920	 7.9320
 0.3930	 8.0310
 0.3940	 8.0990
 0.3950	 8.1300
 0.3960	 8.1210
 0.3970	 8.1190
 0.3980	 8.1780
 0.3990	 8.2500
 0.4000	 8.2980
 0.4010	 8.3290
 0.4020	 8.3950
 0.4030	 8.4840
 0.4040	 8.5480
 0.4050	 8.5580
 0.4060	 8.5910
 0.4070	 8.6560
 0.4080	 8.7300
 0.4090	 8.7780
 0.4100	 8.8470
 0.4110	 8.9200
 0.4120	 8.9790
 0.4130	 9.0130
 0.4140	 9.0720
 0.4150	 9.1450
 0.4160	 9.2040
 0.4170	 9.2540
 0.4180	 9.3030
 0.4190	 9.3550
 0.4200	 9.4120
 0.4210	 9.4530
 0.4220	 9.4890
 0.4230	 9.5310
 0.4240	 9.5770
 0.4250	 9.6260
 0.4260	 9.6750
 0.4270	 9.7240
 0.4280	 9.7810
 0.4290	 9.8140
 0.4300	 9.8290
 0.4310	 9.8780
 0.4320	 9.8970
 0.4330	 9.9090
 0.4340	 9.9470
 0.4350	 9.9700
 0.4360	 9.9910
 0.4370	10.0170
 0.4380	10.0480
 0.4390	10.0770
 0.4400	10.1070
 0.4410	10.1390
 0.4420	10.1620
 0.4430	10.1900
 0.4440	10.2150
 0.4450	10.2300
 0.4460	10.2550
 0.4470	10.2850
 0.4480	10.3130
 0.4490	10.3290
 0.4500	10.3360
 0.4510	10.3480
 0.4520	10.3740
 0.4530	10.3970
 0.4540	10.4100
 0.4550	10.4240
 0.4560	10.4540
 0.4570	10.4660
 0.4580	10.4720
 0.4590	10.4830
 0.4600	10.4900
 0.4610	10.4990
 0.4620	10.5150
 0.4630	10.5390
 0.4640	10.5500
 0.4650	10.5580
 0.4660	10.5650
 0.4670	10.5670
 0.4680	10.5910
 0.4690	10.6070
 0.4700	10.5980
 0.4710	10.6180
 0.4720	10.6340
 0.4730	10.6380
 0.4740	10.6390
 0.4750	10.6470
 0.4760	10.6530
 0.4770	10.6560
 0.4780	10.6740
 0.4790	10.6800
 0.4800	10.6810
 0.4810	10.6920
 0.4820	10.7040
 0.4830	10.7090
 0.4840	10.7110
 0.4850	10.7220
 0.4860	10.7300
 0.4870	10.7360
 0.4880	10.7470
 0.4890	10.7750
 0.4900	10.7930
 0.4910	10.8040
 0.4920	10.8220
 0.4930	10.8390
 0.4940	10.8570
 0.4950	10.8810
 0.4960	10.9190
 0.4970	10.9490
 0.4980	10.9760
 0.4990	11.0090
 0.5000	11.0490
 0.5010	11.0990
 0.5020	11.1530
 0.5030	11.2020
 0.5040	11.2590
 0.5050	11.3280
 0.5060	11.4060
 0.5070	11.4870
 0.5080	11.5760
 0.5090	11.6810
 0.5100	11.8030
 0.5110	11.9320
 0.5120	12.0700
 0.5130	12.2210
 0.5140	12.3860
 0.5150	12.5740
 0.5160	12.7760
 0.5170	12.9840
 0.5180	13.2090
 0.5190	13.4450
 0.5200	13.6910
 0.5210	13.9400
 0.5220	14.1970
 0.5230	14.4510
 0.5240	14.6980
 0.5250	14.9490
 0.5260	15.1860
 0.5270	15.4100
 0.5280	15.6260
 0.5290	15.8290
 0.5300	16.0200
 0.5310	16.1970
 0.5320	16.3530
 0.5330	16.4940
 0.5340	16.6230
 0.5350	16.7420
 0.5360	16.8460
 0.5370	16.9390
 0.5380	17.0210
 0.5390	17.0930
 0.5400	17.1500
 0.5410	17.1990
 0.5420	17.2460
 0.5430	17.2960
 0.5440	17.3500
 0.5450	17.4090
 0.5460	17.4730
 0.5470	17.5460
 0.5480	17.6120
 0.5490	17.6620
 0.5500	17.7010
 0.5510	17.7360
 0.5520	17.7580
 0.5530	17.7600
 0.5540	17.7510
 0.5550	17.7310
 0.5560	17.6980
 0.5570	17.6470
 0.5580	17.5770
 0.5590	17.4960
 0.5600	17.4060
 0.5610	17.3000
 0.5620	17.1850
 0.5630	17.0640
 0.5640	16.9330
 0.5650	16.7950
 0.5660	16.6510
 0.5670	16.4990
 0.5680	16.3330
 0.5690	16.1660
 0.5700	16.0020
 0.5710	15.8450
 0.5720	15.6920
 0.5730	15.5430
 0.5740	15.4040
 0.5750	15.2740
 0.5760	15.1560
 0.5770	15.0410
 0.5780	14.9260
 0.5790	14.8210
 0.5800	14.7270
 0.5810	14.6430
 0.5820	14.5710
 0.5830	14.5050
 0.5840	14.4350
 0.5850	14.3600
 0.5860	14.2940
 0.5870	14.2410
 0.5880	14.1950
 0.5890	14.1480
 0.5900	14.1120
 0.5910	14.0760
 0.5920	14.0420
 0.5930	14.0150
 0.5940	13.9870
 0.5950	13.9610
 0.5960	13.9360
 0.5970	13.9030
 0.5980	13.8680
 0.5990	13.8330
 0.6000	13.8010
 0.6010	13.7730
 0.6020	13.7380
 0.6030	13.6940
 0.6040	13.6490
 0.6050	13.5980
 0.6060	13.5450
 0.6070	13.4910
 0.6080	13.4250
 0.6090	13.3490
 0.6100	13.2640
 0.6110	13.1740
 0.6120	13.1140
 0.6130	13.0690
 0.6140	13.0240
 0.6150	12.9770
 0.6160	12.9290
 0.6170	12.8800
 0.6180	12.8340
 0.6190	12.7950
 0.6200	12.7590
 0.6210	12.7280
 0.6220	12.7060
 0.6230	12.6860
 0.6240	12.6670
 0.6250	12.6530
 0.6260	12.6450
 0.6270	12.6420
 0.6280	12.6390
 0.6290	12.6330
 0.6300	12.6310
 0.6310	12.6290
 0.6320	12.6270
 0.6330	12.6270
 0.6340	12.6140
 0.6350	12.5920
 0.6360	12.5680
 0.6370	12.5370
 0.6380	12.4980
 0.6390	12.4510
 0.6400	12.3980
 0.6410	12.3410
 0.6420	12.2780
 0.6430	12.2170
 0.6440	12.1670
 0.6450	12.1090
 0.6460	12.0480
 0.6470	11.9970
 0.6480	11.9500
 0.6490	11.9130
 0.6500	11.8820
 0.6510	11.8500
 0.6520	11.8260
 0.6530	11.8040
 0.6540	11.7800
 0.6550	11.7550
 0.6560	11.7300
 0.6570	11.7040
 0.6580	11.6780
 0.6590	11.6490
 0.6600	11.6210
 0.6610	11.5960
 0.6620	11.5690
 0.6630	11.5430
 0.6640	11.5210
 0.6650	11.5070
 0.6660	11.4990
 0.6670	11.4930
 0.6680	11.4880
 0.6690	11.4860
 0.6700	11.4920
 0.6710	11.5010
 0.6720	11.5130
 0.6730	11.5280
 0.6740	11.5470
 0.6750	11.5660
 0.6760	11.5820
 0.6770	11.6130
 0.6780	11.6450
 0.6790	11.6760
 0.6800	11.7080
 0.6810	11.7520
 0.6820	11.7960
 0.6830	11.8370
 0.6840	11.8940
 0.6850	11.9570
 0.6860	12.0310
 0.6870	12.1210
 0.6880	12.2300
 0.6890	12.3710
 0.6900	12.5540
 0.6910	12.7860
 0.6920	13.0750
 0.6930	13.4390
 0.6940	13.8870
 0.6950	14.4110
 0.6960	15.0260
 0.6970	15.7380
 0.6980	16.5410
 0.6990	17.4160
 0.7000	18.3660
 0.7010	19.3860
 0.7020	20.4570
 0.7030	21.5580
 0.7040	22.6830
 0.7050	23.8310
 0.7060	25.0010
 0.7070	26.1680
 0.7080	27.3250
 0.7090	28.4810
 0.7100	29.6340
 0.7110	30.7750
 0.7120	31.9030
 0.7130	33.0230
 0.7140	34.1250
 0.7150	35.2080
 0.7160	36.2680
 0.7170	37.3080
 0.7180	38.3210
 0.7190	39.3080
 0.7200	40.2760
 0.7210	41.2180
 0.7220	42.1270
 0.7230	43.0070
 0.7240	43.8700
 0.7250	44.6880
 0.7260	45.4700
 0.7270	46.2280
 0.7280	46.9450
 0.7290	47.6230
 0.7300	48.2760
 0.7310	48.9140
 0.7320	49.5000
 0.7330	50.0530
 0.7340	50.5810
 0.7350	51.0800
 0.7360	51.5480
 0.7370	51.9930
 0.7380	52.4130
 0.7390	52.7830
 0.7400	53.1550
 0.7410	53.5210
 0.7420	53.8470
 0.7430	54.1080
 0.7440	54.3710
 0.7450	54.6400
 0.7460	54.8580
 0.7470	55.0750
 0.7480	55.2790
 0.7490	55.4590
 0.7500	55.6220
 0.7510	55.7740
 0.7520	55.9110
 0.7530	56.0300
 0.7540	56.1420
 0.7550	56.2380
 0.7560	56.3210
 0.7570	56.4060
 0.7580	56.4730
 0.7590	56.5390
 0.7600	56.6100
 0.7610	56.6570
 0.7620	56.7000
 0.7630	56.7420
 0.7640	56.7840
 0.7650	56.8040
 0.7660	56.8240
 0.7670	56.8490
 0.7680	56.8760
 0.7690	56.8850
 0.7700	56.8900
 0.7710	56.9040
 0.7720	56.9340
 0.7730	56.9460
 0.7740	56.9460
 0.7750	56.9510
 0.7760	56.9590
 0.7770	56.9830
 0.7780	56.9990
 0.7790	56.9800
 0.7800	56.9820
 0.7810	56.9810
 0.7820	56.9770
 0.7830	57.0020
 0.7840	57.0200
 0.7850	57.0270
 0.7860	57.0280
 0.7870	57.0300
 0.7880	57.0430
 0.7890	57.0560
 0.7900	57.0590
 0.7910	57.0700
 0.7920	57.0700
 0.7930	57.0650
 0.7940	57.0750
 0.7950	57.0840
 0.7960	57.0970
 0.7970	57.1140
 0.7980	57.1250
 0.7990	57.1300
 0.8000	57.1380
 0.8010	57.1510
 0.8020	57.1650
 0.8030	57.1810
 0.8040	57.1950
 0.8050	57.2000
 0.8060	57.1950
 0.8070	57.2010
 0.8080	57.2170
 0.8090	57.2240
 0.8100	57.2460
 0.8110	57.2630
 0.8120	57.2710
 0.8130	57.2950
 0.8140	57.3070
 0.8150	57.3130
 0.8160	57.3270
 0.8170	57.3480
 0.8180	57.3760
 0.8190	57.3940
 0.8200	57.3900
 0.8210	57.4040
 0.8220	57.4290
 0.8230	57.4480
 0.8240	57.4380
 0.8250	57.4630
 0.8260	57.4960
 0.8270	57.5140
 0.8280	57.5200
 0.8290	57.5470
 0.8300	57.5630
 0.8310	57.5510
 0.8320	57.5720
 0.8330	57.5960
 0.8340	57.6110
 0.8350	57.6170
 0.8360	57.6310
 0.8370	57.6470
 0.8380	57.6710
 0.8390	57.7060
 0.8400	57.7210
 0.8410	57.7300
 0.8420	57.7410
 0.8430	57.7510
 0.8440	57.7840
 0.8450	57.8030
 0.8460	57.7950
 0.8470	57.8270
 0.8480	57.8570
 0.8490	57.8710
 0.8500	57.8650
 0.8510	57.8590
 0.8520	57.8850
 0.8530	57.9270
 0.8540	57.9420
 0.8550	57.9400
 0.8560	57.9370
 0.8570	57.9480
 0.8580	57.9750
 0.8590	57.9780
 0.8600	57.9710
 0.8610	57.9730
 0.8620	57.9970
 0.8630	58.0170
 0.8640	58.0290
 0.8650	58.0380
 0.8660	58.0470
 0.8670	58.0500
 0.8680	58.0510
 0.8690	58.0550
 0.8700	58.0470
 0.8710	58.0410
 0.8720	58.0430
 0.8730	58.0560
 0.8740	58.0780
 0.8750	58.0930
 0.8760	58.0940
 0.8770	58.0850
 0.8780	58.0840
 0.8790	58.0830
 0.8800	58.0890
 0.8810	58.1230
 0.8820	58.1180
 0.8830	58.0990
 0.8840	58.0960
 0.8850	58.1030
 0.8860	58.0970
 0.8870	58.0860
 0.8880	58.0820
 0.8890	58.0780
 0.8900	58.0620
 0.8910	58.0490
 0.8920	58.0580
 0.8930	58.0640
 0.8940	58.0640
 0.8950	58.0640
 0.8960	58.0670
 0.8970	58.0610
 0.8980	58.0520
 0.8990	58.0450
 0.9000	58.0430
 0.9010	58.0410
 0.9020	58.0300
 0.9030	58.0190
 0.9040	58.0270
 0.9050	58.0160
 0.9060	57.9990
 0.9070	57.9950
 0.9080	58.0140
 0.9090	58.0070
 0.9100	57.9860
 0.9110	57.9740
 0.9120	57.9900
 0.9130	57.9800
 0.9140	57.9650
 0.9150	57.9710
 0.9160	57.9670
 0.9170	57.9350
 0.9180	57.9140
 0.9190	57.9440
 0.9200	57.9520
 0.9210	57.9420
 0.9220	57.9240
 0.9230	57.9080
 0.9240	57.9190
 0.9250	57.9130
 0.9260	57.8860
 0.9270	57.8630
 0.9280	57.8470
 0.9290	57.8330
 0.9300	57.8240
 0.9310	57.8290
 0.9320	57.8250
 0.9330	57.8230
 0.9340	57.8140
 0.9350	57.7620
 0.9360	57.7370
 0.9370	57.7330
 0.9380	57.7270
 0.9390	57.6960
 0.9400	57.6650
 0.9410	57.6570
 0.9420	57.6630
 0.9430	57.6320
 0.9440	57.6180
 0.9450	57.6010
 0.9460	57.5610
 0.9470	57.5200
 0.9480	57.4760
 0.9490	57.4450
 0.9500	57.4300
 0.9510	57.3990
 0.9520	57.3550
 0.9530	57.3040
 0.9540	57.2540
 0.9550	57.2070
 0.9560	57.1800
 0.9570	57.1610
 0.9580	57.1250
 0.9590	57.0470
 0.9600	56.9920
 0.9610	56.9580
 0.9620	56.9260
 0.9630	56.9150
 0.9640	56.8880
 0.9650	56.8620
 0.9660	56.8610
 0.9670	56.8480
 0.9680	56.8540
 0.9690	56.8560
 0.9700	56.8290
 0.9710	56.8480
 0.9720	56.8330
 0.9730	56.8050
 0.9740	56.8140
 0.9750	56.8250
 0.9760	56.8270
 0.9770	56.8290
 0.9780	56.8440
 0.9790	56.8510
 0.9800	56.8460
 0.9810	56.8630
 0.9820	56.9200
 0.9830	56.8990
 0.9840	56.9120
 0.9850	56.9370
 0.9860	56.9060
 0.9870	56.9050
 0.9880	56.9300
 0.9890	56.9590
 0.9900	56.9750
 0.9910	57.0100
 0.9920	57.0310
 0.9930	57.0460
 0.9940	57.0820
 0.9950	57.1170
 0.9960	57.1190
 0.9970	57.1110
 0.9980	57.1250
 0.9990	57.1400
 1.0000	57.3650
 1.0010	57.7120
 1.0020	57.9120
 1.0030	57.9350
 1.0040	57.9680
 1.0050	58.0030
 1.0060	58.0240
 1.0070	58.0490
 1.0080	58.0720
 1.0090	58.0920
 1.0100	58.1110
 1.0110	58.1280
 1.0120	58.1500
 1.0130	58.1740
 1.0140	58.1930
 1.0150	58.2100
 1.0160	58.2360
 1.0170	58.2530
 1.0180	58.2690
 1.0190	58.2940
 1.0200	58.3160
 1.0210	58.3380
 1.0220	58.3580
 1.0230	58.3780
 1.0240	58.4010
 1.0250	58.4210
 1.0260	58.4400
 1.0270	58.4580
 1.0280	58.4730
 1.0290	58.4890
 1.0300	58.5040
 1.0310	58.5180
 1.0320	58.5330
 1.0330	58.5500
 1.0340	58.5580
 1.0350	58.5680
 1.0360	58.5790
 1.0370	58.5900
 1.0380	58.6050
 1.0390	58.6260
 1.0400	58.6410
 1.0410	58.6550
 1.0420	58.6680
 1.0430	58.6800
 1.0440	58.6890
 1.0450	58.6920
 1.0460	58.7010
 1.0470	58.7120
 1.0480	58.7210
 1.0490	58.7370
 1.0500	58.7470
 1.0510	58.7490
 1.0520	58.7530
 1.0530	58.7600
 1.0540	58.7660
 1.0550	58.7750
 1.0560	58.7900
 1.0570	58.7960
 1.0580	58.7980
 1.0590	58.8020
 1.0600	58.8010
 1.0610	58.8050
 1.0620	58.8110
 1.0630	58.8180
 1.0640	58.8280
 1.0650	58.8340
 1.0660	58.8400
 1.0670	58.8440
 1.0680	58.8460
 1.0690	58.8440
 1.0700	58.8420
 1.0710	58.8370
 1.0720	58.8370
 1.0730	58.8350
 1.0740	58.8350
 1.0750	58.8380
 1.0760	58.8360
 1.0770	58.8310
 1.0780	58.8270
 1.0790	58.8220
 1.0800	58.8170
 1.0810	58.8120
 1.0820	58.8080
 1.0830	58.8060
 1.0840	58.8010
 1.0850	58.7940
 1.0860	58.7870
 1.0870	58.7790
 1.0880	58.7670
 1.0890	58.7560
 1.0900	58.7430
 1.0910	58.7320
 1.0920	58.7170
 1.0930	58.7070
 1.0940	58.7000
 1.0950	58.6910
 1.0960	58.6880
 1.0970	58.6750
 1.0980	58.6550
 1.0990	58.6380
 1.1000	58.6130
 1.1010	58.5950
 1.1020	58.5840
 1.1030	58.5720
 1.1040	58.5600
 1.1050	58.5450
 1.1060	58.5300
 1.1070	58.5110
 1.1080	58.4940
 1.1090	58.4790
 1.1100	58.4620
 1.1110	58.4410
 1.1120	58.4240
 1.1130	58.4090
 1.1140	58.3910
 1.1150	58.3750
 1.1160	58.3530
 1.1170	58.3260
 1.1180	58.2990
 1.1190	58.2700
 1.1200	58.2390
 1.1210	58.2090
 1.1220	58.1780
 1.1230	58.1440
 1.1240	58.1070
 1.1250	58.0690
 1.1260	58.0300
 1.1270	57.9840
 1.1280	57.9380
 1.1290	57.8820
 1.1300	57.8200
 1.1310	57.7520
 1.1320	57.6770
 1.1330	57.6000
 1.1340	57.5180
 1.1350	57.4320
 1.1360	57.3430
 1.1370	57.2500
 1.1380	57.1520
 1.1390	57.0510
 1.1400	56.9450
 1.1410	56.8340
 1.1420	56.7160
 1.1430	56.5950
 1.1440	56.4750
 1.1450	56.3510
 1.1460	56.2310
 1.1470	56.1100
 1.1480	55.9950
 1.1490	55.8800
 1.1500	55.7750
 1.1510	55.6740
 1.1520	55.5790
 1.1530	55.4900
 1.1540	55.4060
 1.1550	55.3260
 1.1560	55.2530
 1.1570	55.1900
 1.1580	55.1310
 1.1590	55.0830
 1.1600	55.0430
 1.1610	55.0050
 1.1620	54.9760
 1.1630	54.9500
 1.1640	54.9220
 1.1650	54.9030
 1.1660	54.8910
 1.1670	54.8770
 1.1680	54.8660
 1.1690	54.8580
 1.1700	54.8500
 1.1710	54.8420
 1.1720	54.8380
 1.1730	54.8330
 1.1740	54.8270
 1.1750	54.8180
 1.1760	54.8090
 1.1770	54.7990
 1.1780	54.7900
 1.1790	54.7800
 1.1800	54.7700
 1.1810	54.7620
 1.1820	54.7510
 1.1830	54.7400
 1.1840	54.7340
 1.1850	54.7270
 1.1860	54.7190
 1.1870	54.7110
 1.1880	54.7030
 1.1890	54.6930
 1.1900	54.6880
 1.1910	54.6840
 1.1920	54.6830
 1.1930	54.6850
 1.1940	54.6850
 1.1950	54.6870
 1.1960	54.6880
 1.1970	54.6870
 1.1980	54.6900
 1.1990	54.6950
 1.2000	54.6990
 1.2010	54.7060
 1.2020	54.7160
 1.2030	54.7250
 1.2040	54.7360
 1.2050	54.7520
 1.2060	54.7640
 1.2070	54.7790
 1.2080	54.7960
 1.2090	54.8100
 1.2100	54.8280
 1.2110	54.8450
 1.2120	54.8620
 1.2130	54.8800
 1.2140	54.8990
 1.2150	54.9200
 1.2160	54.9420
 1.2170	54.9700
 1.2180	54.9960
 1.2190	55.0210
 1.2200	55.0460
 1.2210	55.0680
 1.2220	55.0890
 1.2230	55.1160
 1.2240	55.1440
 1.2250	55.1710
 1.2260	55.1960
 1.2270	55.2190
 1.2280	55.2420
 1.2290	55.2640
 1.2300	55.2840
 1.2310	55.3020
 1.2320	55.3180
 1.2330	55.3370
 1.2340	55.3560
 1.2350	55.3790
 1.2360	55.4010
 1.2370	55.4220
 1.2380	55.4430
 1.2390	55.4630
 1.2400	55.4810
 1.2410	55.4970
 1.2420	55.5130
 1.2430	55.5260
 1.2440	55.5430
 1.2450	55.5620
 1.2460	55.5770
 1.2470	55.5940
 1.2480	55.6080
 1.2490	55.6220
 1.2500	55.6350
 1.2510	55.6460
 1.2520	55.6550
 1.2530	55.6640
 1.2540	55.6730
 1.2550	55.6820
 1.2560	55.6920
 1.2570	55.7000
 1.2580	55.7030
 1.2590	55.7080
 1.2600	55.7110
 1.2610	55.7150
 1.2620	55.7170
 1.2630	55.7230
 1.2640	55.7280
 1.2650	55.7300
 1.2660	55.7330
 1.2670	55.7380
 1.2680	55.7360
 1.2690	55.7330
 1.2700	55.7330
 1.2710	55.7280
 1.2720	55.7230
 1.2730	55.7210
 1.2740	55.7160
 1.2750	55.7070
 1.2760	55.7010
 1.2770	55.6940
 1.2780	55.6820
 1.2790	55.6700
 1.2800	55.6590
 1.2810	55.6410
 1.2820	55.6270
 1.2830	55.6130
 1.2840	55.5950
 1.2850	55.5800
 1.2860	55.5650
 1.2870	55.5480
 1.2880	55.5280
 1.2890	55.5090
 1.2900	55.4870
 1.2910	55.4620
 1.2920	55.4380
 1.2930	55.4100
 1.2940	55.3820
 1.2950	55.3510
 1.2960	55.3160
 1.2970	55.2820
 1.2980	55.2450
 1.2990	55.2040
 1.3000	55.1610
 1.3010	55.1110
 1.3020	55.0600
 1.3030	55.0120
 1.3040	54.9630
 1.3050	54.9130
 1.3060	54.8590
 1.3070	54.7970
 1.3080	54.7360
 1.3090	54.6700
 1.3100	54.6050
 1.3110	54.5360
 1.3120	54.4580
 1.3130	54.3820
 1.3140	54.3010
 1.3150	54.2160
 1.3160	54.1310
 1.3170	54.0450
 1.3180	53.9550
 1.3190	53.8650
 1.3200	53.7700
 1.3210	53.6680
 1.3220	53.5650
 1.3230	53.4550
 1.3240	53.3410
 1.3250	53.2300
 1.3260	53.1180
 1.3270	53.0030
 1.3280	52.8870
 1.3290	52.7660
 1.3300	52.6410
 1.3310	52.5110
 1.3320	52.3810
 1.3330	52.2540
 1.3340	52.1210
 1.3350	51.9850
 1.3360	51.8470
 1.3370	51.7070
 1.3380	51.5670
 1.3390	51.4280
 1.3400	51.2880
 1.3410	51.1510
 1.3420	51.0160
 1.3430	50.8830
 1.3440	50.7510
 1.3450	50.6200
 1.3460	50.4860
 1.3470	50.3560
 1.3480	50.2270
 1.3490	50.1000
 1.3500	49.9750
 1.3510	49.8510
 1.3520	49.7280
 1.3530	49.6040
 1.3540	49.4790
 1.3550	49.3530
 1.3560	49.2280
 1.3570	49.1040
 1.3580	48.9790
 1.3590	48.8500
 1.3600	48.7170
 1.3610	48.5800
 1.3620	48.4340
 1.3630	48.2850
 1.3640	48.1290
 1.3650	47.9610
 1.3660	47.7900
 1.3670	47.6080
 1.3680	47.4160
 1.3690	47.2160
 1.3700	47.0010
 1.3710	46.7750
 1.3720	46.5360
 1.3730	46.2800
 1.3740	46.0130
 1.3750	45.7300
 1.3760	45.4250
 1.3770	45.1000
 1.3780	44.7470
 1.3790	44.3690
 1.3800	43.9690
 1.3810	43.5390
 1.3820	43.0880
 1.3830	42.6150
 1.3840	42.1180
 1.3850	41.5970
 1.3860	41.0570
 1.3870	40.4890
 1.3880	39.9130
 1.3890	39.3180
 1.3900	38.7070
 1.3910	38.0930
 1.3920	37.4700
 1.3930	36.8400
 1.3940	36.2070
 1.3950	35.5670
 1.3960	34.9290
 1.3970	34.2960
 1.3980	33.6690
 1.3990	33.0610
 1.4000	32.4650
 1.4010	31.8820
 1.4020	31.3210
 1.4030	30.7740
 1.4040	30.2500
 1.4050	29.7500
 1.4060	29.2700
 1.4070	28.8180
 1.4080	28.3920
 1.4090	27.9890
 1.4100	27.6150
 1.4110	27.2640
 1.4120	26.9360
 1.4130	26.6310
 1.4140	26.3480
 1.4150	26.0900
 1.4160	25.8540
 1.4170	25.6370
 1.4180	25.4400
 1.4190	25.2580
 1.4200	25.0890
 1.4210	24.9380
 1.4220	24.8020
 1.4230	24.6820
 1.4240	24.5760
 1.4250	24.4800
 1.4260	24.3970
 1.4270	24.3210
 1.4280	24.2550
 1.4290	24.1980
 1.4300	24.1510
 1.4310	24.1110
 1.4320	24.0800
 1.4330	24.0550
 1.4340	24.0380
 1.4350	24.0240
 1.4360	24.0170
 1.4370	24.0150
 1.4380	24.0160
 1.4390	24.0230
 1.4400	24.0330
 1.4410	24.0460
 1.4420	24.0620
 1.4430	24.0790
 1.4440	24.0980
 1.4450	24.1190
 1.4460	24.1410
 1.4470	24.1650
 1.4480	24.1900
 1.4490	24.2150
 1.4500	24.2410
 1.4510	24.2680
 1.4520	24.2960
 1.4530	24.3270
 1.4540	24.3610
 1.4550	24.3960
 1.4560	24.4320
 1.4570	24.4700
 1.4580	24.5100
 1.4590	24.5550
 1.4600	24.6060
 1.4610	24.6600
 1.4620	24.7180
 1.4630	24.7820
 1.4640	24.8480
 1.4650	24.9220
 1.4660	25.0040
 1.4670	25.0900
 1.4680	25.1840
 1.4690	25.2820
 1.4700	25.3850
