Name: Podocarpus gracilior
Type: vegetation
Class: Tree
Genus: Podocarpus
Species: gracilior
Sample No.: JPL187
Owner: JPL
Wavelength Range: TIR
Origin: 34.12691; -118.116; WGS84
Collection Date: 10/3/2016
Description: Samples were collected at the Huntington Garden in San Marino California as part of a JPL Subcontract studying HyTES imagery. Samples were taken to JPL and processed within 48 hours of collection. The same leaves were processed in the Nicolet and then measured using the ASD.
Measurement: Hemispherical reflectance
First Column: X
Second Column: Y
X Units: Wavelength (micrometer)
Y Units: Reflectance (percentage)
First X Value: 2.501
Last X Value: 15.387
Number of X Values: 1737
Additional Information: vegetation.tree.podocarpus.gracilior.tir.jpl187.jpl.nicolet.ancillary.txt

 2.5010	 8.4970
 2.5030	 8.4150
 2.5040	 8.4460
 2.5050	 8.4330
 2.5060	 8.3990
 2.5070	 8.3530
 2.5090	 8.3390
 2.5100	 8.2890
 2.5110	 8.3340
 2.5120	 8.3390
 2.5140	 8.3620
 2.5150	 8.3190
 2.5160	 8.2740
 2.5170	 8.2440
 2.5180	 8.2690
 2.5200	 8.2920
 2.5210	 8.2990
 2.5220	 8.2600
 2.5230	 8.2630
 2.5250	 8.1810
 2.5260	 8.2070
 2.5270	 8.2670
 2.5280	 8.2550
 2.5300	 8.2280
 2.5310	 8.2760
 2.5320	 8.1430
 2.5330	 8.0680
 2.5340	 8.1530
 2.5360	 8.2130
 2.5370	 8.1610
 2.5380	 8.2100
 2.5390	 8.2550
 2.5410	 8.2430
 2.5420	 8.1510
 2.5430	 8.1860
 2.5440	 8.2150
 2.5460	 8.2270
 2.5470	 8.2010
 2.5480	 8.2400
 2.5490	 8.1940
 2.5510	 8.1760
 2.5520	 8.1680
 2.5530	 8.1410
 2.5540	 8.1530
 2.5560	 8.2060
 2.5570	 8.2170
 2.5580	 8.2850
 2.5590	 8.2790
 2.5610	 8.2520
 2.5620	 8.1370
 2.5630	 8.1390
 2.5650	 8.1490
 2.5660	 8.1880
 2.5670	 8.2600
 2.5680	 8.3090
 2.5700	 8.2110
 2.5710	 8.2140
 2.5720	 8.1830
 2.5730	 8.1520
 2.5750	 8.1110
 2.5760	 8.1400
 2.5770	 8.1050
 2.5790	 8.1590
 2.5800	 8.1650
 2.5810	 8.1350
 2.5820	 8.1390
 2.5840	 8.1080
 2.5850	 8.0030
 2.5860	 8.0560
 2.5880	 8.0710
 2.5890	 8.1300
 2.5900	 8.0870
 2.5910	 8.0580
 2.5930	 8.0140
 2.5940	 7.9300
 2.5950	 7.7930
 2.5970	 7.8970
 2.5980	 7.9730
 2.5990	 8.0040
 2.6010	 7.9370
 2.6020	 7.8570
 2.6030	 7.7870
 2.6040	 7.7810
 2.6060	 7.7070
 2.6070	 7.7060
 2.6080	 7.7170
 2.6100	 7.7360
 2.6110	 7.6980
 2.6120	 7.6500
 2.6140	 7.6080
 2.6150	 7.5920
 2.6160	 7.4590
 2.6180	 7.3780
 2.6190	 7.3740
 2.6200	 7.3600
 2.6220	 7.3720
 2.6230	 7.4830
 2.6240	 7.4360
 2.6260	 7.3360
 2.6270	 7.1940
 2.6280	 7.1970
 2.6300	 7.1550
 2.6310	 7.0480
 2.6320	 7.0630
 2.6340	 7.0800
 2.6350	 6.9910
 2.6360	 7.0090
 2.6380	 7.0080
 2.6390	 7.0530
 2.6400	 7.0080
 2.6420	 6.9620
 2.6430	 6.8730
 2.6440	 6.8780
 2.6460	 6.8390
 2.6470	 6.7650
 2.6480	 6.7070
 2.6500	 6.6650
 2.6510	 6.5520
 2.6520	 6.5130
 2.6540	 6.5100
 2.6550	 6.5330
 2.6570	 6.4490
 2.6580	 6.4370
 2.6590	 6.3880
 2.6610	 6.3030
 2.6620	 6.2690
 2.6630	 6.2990
 2.6650	 6.1730
 2.6660	 6.1090
 2.6670	 6.0720
 2.6690	 6.0940
 2.6700	 6.0360
 2.6720	 5.9300
 2.6730	 5.9160
 2.6740	 5.9500
 2.6760	 5.9010
 2.6770	 5.9020
 2.6780	 5.8340
 2.6800	 5.7800
 2.6810	 5.7240
 2.6830	 5.7130
 2.6840	 5.6600
 2.6850	 5.6040
 2.6870	 5.5640
 2.6880	 5.5870
 2.6900	 5.5650
 2.6910	 5.5660
 2.6920	 5.5110
 2.6940	 5.4380
 2.6950	 5.3530
 2.6970	 5.3510
 2.6980	 5.3440
 2.6990	 5.3350
 2.7010	 5.2440
 2.7020	 5.2210
 2.7040	 5.2240
 2.7050	 5.2310
 2.7060	 5.1820
 2.7080	 5.1460
 2.7090	 5.1110
 2.7110	 5.1270
 2.7120	 5.0750
 2.7130	 5.0680
 2.7150	 5.0440
 2.7160	 5.0960
 2.7180	 5.0600
 2.7190	 5.0240
 2.7210	 4.9840
 2.7220	 5.0420
 2.7230	 5.0160
 2.7250	 4.9520
 2.7260	 4.9340
 2.7280	 4.9710
 2.7290	 4.9910
 2.7310	 5.0490
 2.7320	 4.9900
 2.7340	 4.9670
 2.7350	 4.9440
 2.7360	 4.9280
 2.7380	 4.9260
 2.7390	 4.9160
 2.7410	 4.8500
 2.7420	 4.9700
 2.7440	 5.1000
 2.7450	 5.1180
 2.7470	 4.9960
 2.7480	 5.0250
 2.7490	 5.0630
 2.7510	 5.0240
 2.7520	 4.9450
 2.7540	 4.9290
 2.7550	 4.8600
 2.7570	 4.9390
 2.7580	 4.9590
 2.7600	 4.9390
 2.7610	 4.9060
 2.7630	 4.8670
 2.7640	 4.8710
 2.7660	 4.9530
 2.7670	 4.9360
 2.7690	 4.9780
 2.7700	 4.9640
 2.7720	 4.9400
 2.7730	 4.9090
 2.7740	 4.9470
 2.7760	 4.8820
 2.7770	 4.8790
 2.7790	 4.8660
 2.7800	 4.8360
 2.7820	 4.8480
 2.7830	 4.9490
 2.7850	 4.9650
 2.7860	 4.9490
 2.7880	 4.8910
 2.7890	 4.9220
 2.7910	 4.9550
 2.7920	 4.9490
 2.7940	 4.8660
 2.7950	 4.8880
 2.7970	 4.9200
 2.7980	 4.9770
 2.8000	 4.9220
 2.8010	 4.8860
 2.8030	 4.8500
 2.8040	 4.9150
 2.8060	 4.9250
 2.8080	 4.9640
 2.8090	 4.9690
 2.8110	 4.9380
 2.8120	 4.8360
 2.8140	 4.8660
 2.8150	 4.9040
 2.8170	 4.9000
 2.8180	 4.8480
 2.8200	 4.9330
 2.8210	 4.9460
 2.8230	 4.9170
 2.8240	 4.9150
 2.8260	 4.9390
 2.8270	 4.9110
 2.8290	 4.8710
 2.8310	 4.8810
 2.8320	 4.9890
 2.8340	 4.9390
 2.8350	 4.9050
 2.8370	 4.8700
 2.8380	 4.8490
 2.8400	 4.8170
 2.8410	 4.8580
 2.8430	 4.8600
 2.8440	 4.9430
 2.8460	 4.9400
 2.8480	 4.9390
 2.8490	 4.9530
 2.8510	 5.0050
 2.8520	 4.9750
 2.8540	 4.9870
 2.8550	 4.9800
 2.8570	 4.9820
 2.8590	 4.9680
 2.8600	 5.0240
 2.8620	 5.0700
 2.8630	 5.0970
 2.8650	 4.9900
 2.8660	 4.9920
 2.8680	 5.0400
 2.8700	 5.0510
 2.8710	 4.9640
 2.8730	 5.0180
 2.8740	 4.9620
 2.8760	 4.9710
 2.8780	 5.0060
 2.8790	 5.0330
 2.8810	 5.0260
 2.8820	 5.0700
 2.8840	 5.0160
 2.8860	 4.9830
 2.8870	 4.9500
 2.8890	 5.0260
 2.8900	 5.0210
 2.8920	 5.0420
 2.8940	 5.0490
 2.8950	 5.0770
 2.8970	 5.0660
 2.8990	 5.0320
 2.9000	 5.0150
 2.9020	 5.0160
 2.9030	 4.9960
 2.9050	 5.1000
 2.9070	 5.1180
 2.9080	 5.1380
 2.9100	 5.0680
 2.9120	 5.0780
 2.9130	 5.0550
 2.9150	 5.0260
 2.9160	 5.0270
 2.9180	 5.0990
 2.9200	 5.0900
 2.9210	 5.0870
 2.9230	 5.0640
 2.9250	 5.1090
 2.9260	 5.1020
 2.9280	 5.1170
 2.9300	 5.0120
 2.9310	 4.9910
 2.9330	 5.0280
 2.9350	 5.0970
 2.9360	 5.0600
 2.9380	 5.0440
 2.9400	 5.0160
 2.9410	 5.0380
 2.9430	 5.0100
 2.9450	 5.0560
 2.9460	 5.1130
 2.9480	 5.1520
 2.9500	 5.1180
 2.9510	 5.1400
 2.9530	 5.0960
 2.9550	 5.0770
 2.9560	 5.0420
 2.9580	 5.0460
 2.9600	 5.0400
 2.9610	 5.1580
 2.9630	 5.1620
 2.9650	 5.1110
 2.9670	 5.0850
 2.9680	 5.1320
 2.9700	 5.0860
 2.9720	 5.1090
 2.9730	 5.1180
 2.9750	 5.0980
 2.9770	 5.1050
 2.9780	 5.1570
 2.9800	 5.1070
 2.9820	 5.1090
 2.9840	 5.1350
 2.9850	 5.1500
 2.9870	 5.1380
 2.9890	 5.1620
 2.9900	 5.1210
 2.9920	 5.1160
 2.9940	 5.0590
 2.9960	 5.0350
 2.9970	 5.0540
 2.9990	 5.1270
 3.0010	 5.1260
 3.0030	 5.1960
 3.0040	 5.1990
 3.0060	 5.1960
 3.0080	 5.1830
 3.0100	 5.1720
 3.0110	 5.1180
 3.0130	 5.1220
 3.0150	 5.1150
 3.0170	 5.1290
 3.0180	 5.0840
 3.0200	 5.0850
 3.0220	 5.0520
 3.0240	 5.0740
 3.0250	 5.0660
 3.0270	 5.1300
 3.0290	 5.1220
 3.0310	 5.1530
 3.0320	 5.1340
 3.0340	 5.1400
 3.0360	 5.1540
 3.0380	 5.1750
 3.0400	 5.1610
 3.0410	 5.1640
 3.0430	 5.1420
 3.0450	 5.1680
 3.0470	 5.1130
 3.0480	 5.0940
 3.0500	 5.0690
 3.0520	 5.1360
 3.0540	 5.1510
 3.0560	 5.1740
 3.0570	 5.1360
 3.0590	 5.0920
 3.0610	 5.0960
 3.0630	 5.1560
 3.0650	 5.1740
 3.0670	 5.1530
 3.0680	 5.1000
 3.0700	 5.1560
 3.0720	 5.1520
 3.0740	 5.1620
 3.0760	 5.1550
 3.0770	 5.1870
 3.0790	 5.2090
 3.0810	 5.1940
 3.0830	 5.0940
 3.0850	 5.1310
 3.0870	 5.1350
 3.0880	 5.1510
 3.0900	 5.1400
 3.0920	 5.1760
 3.0940	 5.1550
 3.0960	 5.1660
 3.0980	 5.1250
 3.1000	 5.1670
 3.1010	 5.1610
 3.1030	 5.1680
 3.1050	 5.1550
 3.1070	 5.1320
 3.1090	 5.0910
 3.1110	 5.1310
 3.1130	 5.1370
 3.1140	 5.1000
 3.1160	 5.0840
 3.1180	 5.1760
 3.1200	 5.1860
 3.1220	 5.1800
 3.1240	 5.1360
 3.1260	 5.1180
 3.1280	 5.0630
 3.1290	 5.0970
 3.1310	 5.1190
 3.1330	 5.1030
 3.1350	 5.0920
 3.1370	 5.1140
 3.1390	 5.1140
 3.1410	 5.1540
 3.1430	 5.1090
 3.1450	 5.1070
 3.1470	 5.1090
 3.1480	 5.1110
 3.1500	 5.0780
 3.1520	 5.0810
 3.1540	 5.1100
 3.1560	 5.1180
 3.1580	 5.0580
 3.1600	 5.0950
 3.1620	 5.0870
 3.1640	 5.1070
 3.1660	 5.1050
 3.1680	 5.0760
 3.1700	 5.0460
 3.1720	 5.0740
 3.1730	 5.0780
 3.1750	 5.1250
 3.1770	 5.1350
 3.1790	 5.1240
 3.1810	 5.0980
 3.1830	 5.1210
 3.1850	 5.1320
 3.1870	 5.1600
 3.1890	 5.1620
 3.1910	 5.1320
 3.1930	 5.1020
 3.1950	 5.1720
 3.1970	 5.1560
 3.1990	 5.1500
 3.2010	 5.1280
 3.2030	 5.1170
 3.2050	 5.0760
 3.2070	 5.0550
 3.2090	 5.0210
 3.2110	 5.0450
 3.2130	 5.0800
 3.2150	 5.1270
 3.2170	 5.0820
 3.2190	 5.0870
 3.2210	 5.0620
 3.2230	 5.0650
 3.2250	 5.0810
 3.2270	 5.0910
 3.2290	 5.0730
 3.2310	 5.0850
 3.2330	 5.0500
 3.2350	 5.0540
 3.2370	 5.0650
 3.2390	 5.0940
 3.2410	 5.0510
 3.2430	 5.0500
 3.2450	 5.0680
 3.2470	 5.1070
 3.2490	 5.0850
 3.2510	 5.0940
 3.2530	 5.0510
 3.2550	 5.0360
 3.2570	 5.0460
 3.2590	 5.0450
 3.2610	 5.0340
 3.2630	 5.0530
 3.2650	 5.0270
 3.2670	 5.0410
 3.2700	 4.9870
 3.2720	 5.0080
 3.2740	 5.0120
 3.2760	 5.0380
 3.2780	 5.0220
 3.2800	 5.0530
 3.2820	 5.0590
 3.2840	 5.0460
 3.2860	 5.0210
 3.2880	 4.9760
 3.2900	 4.9730
 3.2920	 5.0570
 3.2940	 5.0230
 3.2970	 4.9980
 3.2990	 5.0050
 3.3010	 5.0480
 3.3030	 5.0670
 3.3050	 5.0450
 3.3070	 4.9770
 3.3090	 4.9600
 3.3110	 4.9590
 3.3130	 4.9650
 3.3160	 4.9260
 3.3180	 4.9660
 3.3200	 4.9570
 3.3220	 4.9600
 3.3240	 4.9480
 3.3260	 4.9430
 3.3280	 4.9520
 3.3300	 4.9540
 3.3330	 4.9020
 3.3350	 4.8770
 3.3370	 4.8980
 3.3390	 4.9020
 3.3410	 4.8460
 3.3430	 4.8580
 3.3450	 4.8520
 3.3480	 4.8470
 3.3500	 4.8140
 3.3520	 4.8220
 3.3540	 4.8180
 3.3560	 4.8140
 3.3580	 4.8270
 3.3610	 4.8310
 3.3630	 4.7870
 3.3650	 4.7650
 3.3670	 4.7390
 3.3690	 4.7250
 3.3720	 4.6750
 3.3740	 4.7040
 3.3760	 4.7090
 3.3780	 4.7530
 3.3800	 4.7060
 3.3830	 4.6650
 3.3850	 4.6510
 3.3870	 4.7160
 3.3890	 4.7210
 3.3910	 4.7040
 3.3940	 4.6580
 3.3960	 4.6500
 3.3980	 4.6190
 3.4000	 4.6600
 3.4030	 4.7240
 3.4050	 4.8070
 3.4070	 4.8560
 3.4090	 4.9560
 3.4110	 5.0660
 3.4140	 5.1950
 3.4160	 5.2610
 3.4180	 5.4240
 3.4200	 5.6040
 3.4230	 5.7540
 3.4250	 5.9070
 3.4270	 6.0490
 3.4300	 6.1010
 3.4320	 6.0890
 3.4340	 5.9720
 3.4360	 5.8190
 3.4390	 5.6600
 3.4410	 5.6050
 3.4430	 5.5820
 3.4450	 5.6060
 3.4480	 5.5700
 3.4500	 5.5470
 3.4520	 5.4990
 3.4550	 5.4840
 3.4570	 5.4480
 3.4590	 5.4120
 3.4620	 5.4000
 3.4640	 5.4270
 3.4660	 5.3780
 3.4690	 5.3560
 3.4710	 5.3420
 3.4730	 5.3240
 3.4760	 5.2840
 3.4780	 5.2790
 3.4800	 5.2670
 3.4830	 5.2330
 3.4850	 5.1910
 3.4870	 5.1840
 3.4900	 5.1580
 3.4920	 5.1860
 3.4940	 5.1740
 3.4970	 5.1800
 3.4990	 5.2220
 3.5010	 5.3210
 3.5040	 5.4780
 3.5060	 5.6950
 3.5080	 5.9080
 3.5110	 6.0510
 3.5130	 6.0020
 3.5160	 5.8680
 3.5180	 5.7200
 3.5200	 5.6070
 3.5230	 5.5600
 3.5250	 5.6100
 3.5280	 5.5730
 3.5300	 5.5350
 3.5320	 5.5110
 3.5350	 5.5070
 3.5370	 5.5060
 3.5400	 5.5070
 3.5420	 5.4680
 3.5440	 5.4310
 3.5470	 5.4090
 3.5490	 5.4450
 3.5520	 5.4190
 3.5540	 5.4200
 3.5570	 5.4290
 3.5590	 5.4400
 3.5610	 5.4310
 3.5640	 5.4620
 3.5660	 5.4700
 3.5690	 5.4480
 3.5710	 5.3880
 3.5740	 5.4020
 3.5760	 5.4570
 3.5790	 5.4690
 3.5810	 5.4220
 3.5840	 5.4330
 3.5860	 5.4350
 3.5890	 5.4380
 3.5910	 5.4190
 3.5940	 5.4290
 3.5960	 5.4110
 3.5990	 5.4020
 3.6010	 5.4200
 3.6040	 5.4450
 3.6060	 5.4130
 3.6090	 5.4000
 3.6110	 5.3860
 3.6140	 5.4060
 3.6160	 5.4600
 3.6190	 5.4860
 3.6210	 5.4490
 3.6240	 5.4420
 3.6260	 5.4080
 3.6290	 5.3950
 3.6310	 5.3900
 3.6340	 5.4320
 3.6360	 5.4250
 3.6390	 5.4120
 3.6410	 5.3990
 3.6440	 5.4120
 3.6470	 5.3930
 3.6490	 5.3790
 3.6520	 5.4070
 3.6540	 5.4610
 3.6570	 5.4450
 3.6590	 5.4270
 3.6620	 5.4230
 3.6650	 5.4610
 3.6670	 5.4720
 3.6700	 5.4490
 3.6720	 5.4520
 3.6750	 5.5120
 3.6780	 5.4890
 3.6800	 5.4770
 3.6830	 5.4690
 3.6850	 5.4790
 3.6880	 5.4880
 3.6910	 5.5140
 3.6930	 5.4850
 3.6960	 5.4500
 3.6990	 5.4280
 3.7010	 5.4390
 3.7040	 5.4410
 3.7070	 5.4680
 3.7090	 5.4740
 3.7120	 5.4940
 3.7150	 5.5450
 3.7170	 5.5380
 3.7200	 5.4920
 3.7230	 5.5190
 3.7250	 5.5310
 3.7280	 5.5390
 3.7310	 5.5480
 3.7330	 5.5510
 3.7360	 5.5400
 3.7390	 5.5750
 3.7410	 5.6170
 3.7440	 5.6140
 3.7470	 5.5770
 3.7490	 5.6010
 3.7520	 5.6330
 3.7550	 5.6580
 3.7580	 5.6530
 3.7600	 5.6610
 3.7630	 5.6380
 3.7660	 5.6420
 3.7690	 5.6340
 3.7710	 5.6390
 3.7740	 5.6700
 3.7770	 5.6870
 3.7790	 5.6550
 3.7820	 5.6360
 3.7850	 5.6190
 3.7880	 5.6340
 3.7910	 5.6560
 3.7930	 5.6760
 3.7960	 5.6500
 3.7990	 5.6530
 3.8020	 5.7110
 3.8040	 5.7300
 3.8070	 5.7020
 3.8100	 5.7170
 3.8130	 5.7290
 3.8160	 5.7250
 3.8180	 5.7090
 3.8210	 5.7450
 3.8240	 5.7510
 3.8270	 5.7730
 3.8300	 5.7660
 3.8330	 5.7570
 3.8350	 5.7600
 3.8380	 5.7720
 3.8410	 5.7660
 3.8440	 5.7910
 3.8470	 5.8150
 3.8500	 5.8290
 3.8520	 5.8100
 3.8550	 5.8250
 3.8580	 5.8170
 3.8610	 5.8200
 3.8640	 5.8220
 3.8670	 5.8030
 3.8700	 5.7970
 3.8730	 5.8170
 3.8760	 5.8360
 3.8780	 5.8230
 3.8810	 5.8240
 3.8840	 5.8540
 3.8870	 5.8740
 3.8900	 5.8750
 3.8930	 5.8430
 3.8960	 5.8670
 3.8990	 5.8850
 3.9020	 5.8850
 3.9050	 5.8740
 3.9080	 5.8780
 3.9110	 5.8630
 3.9140	 5.8610
 3.9170	 5.8430
 3.9190	 5.8710
 3.9220	 5.8910
 3.9250	 5.8820
 3.9280	 5.8430
 3.9310	 5.8580
 3.9340	 5.8570
 3.9370	 5.8520
 3.9400	 5.8820
 3.9430	 5.8870
 3.9460	 5.8730
 3.9490	 5.8780
 3.9520	 5.8550
 3.9550	 5.8660
 3.9580	 5.8660
 3.9610	 5.8460
 3.9640	 5.8700
 3.9670	 5.9120
 3.9700	 5.8940
 3.9740	 5.8810
 3.9770	 5.9010
 3.9800	 5.9290
 3.9830	 5.8860
 3.9860	 5.8520
 3.9890	 5.8350
 3.9920	 5.8680
 3.9950	 5.8720
 3.9980	 5.8830
 4.0010	 5.8990
 4.0040	 5.8900
 4.0070	 5.8720
 4.0100	 5.8670
 4.0140	 5.8540
 4.0170	 5.8670
 4.0200	 5.8790
 4.0230	 5.8770
 4.0260	 5.8920
 4.0290	 5.9210
 4.0320	 5.9130
 4.0350	 5.9020
 4.0390	 5.8760
 4.0420	 5.8760
 4.0450	 5.8920
 4.0480	 5.8940
 4.0510	 5.8840
 4.0540	 5.8960
 4.0570	 5.8910
 4.0610	 5.8440
 4.0640	 5.8230
 4.0670	 5.8660
 4.0700	 5.8680
 4.0730	 5.8790
 4.0770	 5.8930
 4.0800	 5.8870
 4.0830	 5.8390
 4.0860	 5.8020
 4.0890	 5.8260
 4.0930	 5.8340
 4.0960	 5.7970
 4.0990	 5.7770
 4.1020	 5.7710
 4.1060	 5.7950
 4.1090	 5.8340
 4.1120	 5.8170
 4.1150	 5.7910
 4.1190	 5.8010
 4.1220	 5.8180
 4.1250	 5.8120
 4.1290	 5.8080
 4.1320	 5.8060
 4.1350	 5.7860
 4.1380	 5.7700
 4.1420	 5.7860
 4.1450	 5.7770
 4.1480	 5.7380
 4.1520	 5.7450
 4.1550	 5.7520
 4.1580	 5.7540
 4.1620	 5.7600
 4.1650	 5.7760
 4.1680	 5.7590
 4.1720	 5.7030
 4.1750	 5.6860
 4.1780	 5.7180
 4.1820	 5.7000
 4.1850	 5.6670
 4.1890	 5.6810
 4.1920	 5.7070
 4.1950	 5.7130
 4.1990	 5.7110
 4.2020	 5.7230
 4.2060	 5.7560
 4.2090	 5.7670
 4.2120	 5.7450
 4.2160	 5.7380
 4.2190	 5.7630
 4.2230	 5.8040
 4.2260	 5.8310
 4.2300	 5.7400
 4.2330	 5.7150
 4.2360	 5.8300
 4.2400	 5.8410
 4.2430	 5.7270
 4.2470	 5.7380
 4.2500	 5.7340
 4.2540	 5.6880
 4.2570	 5.6790
 4.2610	 5.6850
 4.2640	 5.6770
 4.2680	 5.6380
 4.2710	 5.5810
 4.2750	 5.5750
 4.2780	 5.6190
 4.2820	 5.6830
 4.2850	 5.6940
 4.2890	 5.6370
 4.2930	 5.5910
 4.2960	 5.5550
 4.3000	 5.5390
 4.3030	 5.5630
 4.3070	 5.5530
 4.3100	 5.4980
 4.3140	 5.4720
 4.3180	 5.4520
 4.3210	 5.4740
 4.3250	 5.4800
 4.3280	 5.4120
 4.3320	 5.4070
 4.3360	 5.4320
 4.3390	 5.4200
 4.3430	 5.3750
 4.3470	 5.3460
 4.3500	 5.3290
 4.3540	 5.3340
 4.3580	 5.3510
 4.3610	 5.3430
 4.3650	 5.3140
 4.3690	 5.2880
 4.3720	 5.2720
 4.3760	 5.2620
 4.3800	 5.2850
 4.3830	 5.2590
 4.3870	 5.2530
 4.3910	 5.2770
 4.3940	 5.2900
 4.3980	 5.2650
 4.4020	 5.2440
 4.4060	 5.2170
 4.4090	 5.1840
 4.4130	 5.1970
 4.4170	 5.2070
 4.4210	 5.1870
 4.4240	 5.1710
 4.4280	 5.1740
 4.4320	 5.2220
 4.4360	 5.2220
 4.4400	 5.1990
 4.4430	 5.1700
 4.4470	 5.1610
 4.4510	 5.1500
 4.4550	 5.1390
 4.4590	 5.1360
 4.4630	 5.1560
 4.4660	 5.1720
 4.4700	 5.1300
 4.4740	 5.0890
 4.4780	 5.0840
 4.4820	 5.0980
 4.4860	 5.1010
 4.4900	 5.1230
 4.4930	 5.1050
 4.4970	 5.0880
 4.5010	 5.0960
 4.5050	 5.0870
 4.5090	 5.0750
 4.5130	 5.0740
 4.5170	 5.1110
 4.5210	 5.1030
 4.5250	 5.0770
 4.5290	 5.0470
 4.5330	 5.0400
 4.5370	 5.0850
 4.5410	 5.1020
 4.5450	 5.0610
 4.5490	 5.0460
 4.5530	 5.0410
 4.5570	 5.0460
 4.5610	 5.0470
 4.5650	 5.0420
 4.5690	 4.9930
 4.5730	 4.9850
 4.5770	 5.0150
 4.5810	 5.0330
 4.5850	 5.0090
 4.5890	 4.9860
 4.5930	 4.9960
 4.5970	 5.0090
 4.6010	 5.0130
 4.6050	 5.0420
 4.6090	 5.0530
 4.6130	 5.0640
 4.6170	 5.0200
 4.6220	 4.9950
 4.6260	 5.0190
 4.6300	 5.0010
 4.6340	 4.9940
 4.6380	 5.0120
 4.6420	 5.0090
 4.6460	 5.0050
 4.6510	 5.0000
 4.6550	 4.9740
 4.6590	 4.9600
 4.6630	 4.9260
 4.6670	 4.9260
 4.6720	 4.9530
 4.6760	 4.9320
 4.6800	 4.9530
 4.6840	 4.9660
 4.6880	 4.9560
 4.6930	 4.9530
 4.6970	 4.9670
 4.7010	 4.9920
 4.7050	 4.9790
 4.7100	 4.9270
 4.7140	 4.9000
 4.7180	 4.9230
 4.7230	 4.9720
 4.7270	 4.9610
 4.7310	 4.9640
 4.7360	 4.9510
 4.7400	 4.9460
 4.7440	 4.9400
 4.7490	 4.9400
 4.7530	 4.9450
 4.7570	 4.9690
 4.7620	 4.9440
 4.7660	 4.9070
 4.7700	 4.9030
 4.7750	 4.9150
 4.7790	 4.9090
 4.7840	 4.9210
 4.7880	 4.9300
 4.7920	 4.9530
 4.7970	 4.9650
 4.8010	 4.9610
 4.8060	 4.9340
 4.8100	 4.9450
 4.8150	 4.9080
 4.8190	 4.8990
 4.8240	 4.9270
 4.8280	 4.9610
 4.8330	 4.9390
 4.8370	 4.9280
 4.8420	 4.9380
 4.8460	 4.9310
 4.8510	 4.9250
 4.8550	 4.9430
 4.8600	 4.9570
 4.8640	 4.9710
 4.8690	 4.9380
 4.8740	 4.9280
 4.8780	 4.9420
 4.8830	 4.9500
 4.8870	 4.9210
 4.8920	 4.9190
 4.8970	 4.9300
 4.9010	 4.9490
 4.9060	 4.9330
 4.9100	 4.9460
 4.9150	 4.9580
 4.9200	 4.9400
 4.9240	 4.9370
 4.9290	 4.9870
 4.9340	 4.9960
 4.9390	 5.0130
 4.9430	 4.9990
 4.9480	 4.9810
 4.9530	 4.9670
 4.9570	 4.9570
 4.9620	 4.9410
 4.9670	 4.9640
 4.9720	 4.9900
 4.9760	 4.9900
 4.9810	 4.9780
 4.9860	 4.9990
 4.9910	 4.9770
 4.9960	 4.9560
 5.0000	 4.9780
 5.0050	 5.0480
 5.0100	 5.0590
 5.0150	 5.0420
 5.0200	 5.0190
 5.0250	 5.0470
 5.0300	 5.0180
 5.0340	 5.0100
 5.0390	 4.9900
 5.0440	 5.0040
 5.0490	 5.0370
 5.0540	 5.0560
 5.0590	 5.0220
 5.0640	 5.0000
 5.0690	 4.9970
 5.0740	 5.0690
 5.0790	 5.0850
 5.0840	 5.0750
 5.0890	 5.0830
 5.0940	 5.0970
 5.0990	 5.0850
 5.1040	 5.1060
 5.1090	 5.0860
 5.1140	 5.0760
 5.1190	 5.0510
 5.1240	 5.0260
 5.1290	 5.0110
 5.1340	 5.0750
 5.1390	 5.0860
 5.1440	 5.0960
 5.1490	 5.1220
 5.1550	 5.1420
 5.1600	 5.1200
 5.1650	 5.1230
 5.1700	 5.1370
 5.1750	 5.1320
 5.1800	 5.1180
 5.1850	 5.1450
 5.1910	 5.1460
 5.1960	 5.1580
 5.2010	 5.1310
 5.2060	 5.1310
 5.2110	 5.1180
 5.2170	 5.1450
 5.2220	 5.1420
 5.2270	 5.1270
 5.2330	 5.1040
 5.2380	 5.1200
 5.2430	 5.1350
 5.2480	 5.1470
 5.2540	 5.1170
 5.2590	 5.1370
 5.2640	 5.1390
 5.2700	 5.1140
 5.2750	 5.0800
 5.2800	 5.0940
 5.2860	 5.0860
 5.2910	 5.0880
 5.2970	 5.1120
 5.3020	 5.1390
 5.3080	 5.1160
 5.3130	 5.1260
 5.3180	 5.1070
 5.3240	 5.1100
 5.3290	 5.0880
 5.3350	 5.0940
 5.3400	 5.1050
 5.3460	 5.0830
 5.3510	 5.0460
 5.3570	 5.0780
 5.3620	 5.0650
 5.3680	 5.0850
 5.3740	 5.0890
 5.3790	 5.0980
 5.3850	 5.0800
 5.3900	 5.0840
 5.3960	 5.0450
 5.4010	 5.0390
 5.4070	 5.0170
 5.4130	 5.0350
 5.4180	 4.9990
 5.4240	 4.9590
 5.4300	 4.9730
 5.4350	 5.0000
 5.4410	 4.9670
 5.4470	 4.9650
 5.4530	 4.9800
 5.4580	 4.9830
 5.4640	 4.9160
 5.4700	 4.8890
 5.4760	 4.8800
 5.4810	 4.9180
