Name: Quercus lobata 1
Type: vegetation
Class: Tree
Genus: Quercus
Species: lobata
Sample No.: VH281
Owner: UCSB
Wavelength Range: VSWIR
Origin: 34.7139; -120.0598; WGS84
Collection Date: 11/2/2013
Description: Samples were collected as part of the HyspIRI Airborne Campaign. 48 individual plants were sampled in three times in 2013 - spring  summer  and fall. The name of the sample includes a 1  2  or 3 which references a different individual of the species. Samples were taken to JPL and processed within 48 hours of collection. The same leaves were processed in the Nicolet and then measured using the ASD.
Measurement: Bidirectional reflectance
First Column: X
Second Column: Y
X Units: Wavelength (micrometers)
Y Units: Reflectance (percentage)
First X Value: 0.35
Last X Value: 2.5
Number of X Values: 2151
Additional Information: vegetation.tree.quercus.lobata.vswir.vh281.ucsb.asd.ancillary.txt

 0.3500	 4.6860
 0.3510	 4.6980
 0.3520	 4.7470
 0.3530	 4.8270
 0.3540	 4.8770
 0.3550	 4.7900
 0.3560	 4.6670
 0.3570	 4.6470
 0.3580	 4.8090
 0.3590	 4.5490
 0.3600	 4.4690
 0.3610	 4.6990
 0.3620	 4.5610
 0.3630	 4.5020
 0.3640	 4.5700
 0.3650	 4.6810
 0.3660	 4.6750
 0.3670	 4.6340
 0.3680	 4.5960
 0.3690	 4.5680
 0.3700	 4.6470
 0.3710	 4.6970
 0.3720	 4.6600
 0.3730	 4.6610
 0.3740	 4.7740
 0.3750	 4.8440
 0.3760	 4.7330
 0.3770	 4.7350
 0.3780	 4.7640
 0.3790	 4.7800
 0.3800	 4.7970
 0.3810	 4.8380
 0.3820	 4.8710
 0.3830	 4.8740
 0.3840	 4.8530
 0.3850	 4.8550
 0.3860	 4.9100
 0.3870	 5.0090
 0.3880	 4.9990
 0.3890	 5.0070
 0.3900	 5.0480
 0.3910	 5.0150
 0.3920	 5.0580
 0.3930	 5.1490
 0.3940	 5.2310
 0.3950	 5.2740
 0.3960	 5.2530
 0.3970	 5.2230
 0.3980	 5.2670
 0.3990	 5.3390
 0.4000	 5.4120
 0.4010	 5.4740
 0.4020	 5.5320
 0.4030	 5.6110
 0.4040	 5.6660
 0.4050	 5.6720
 0.4060	 5.7250
 0.4070	 5.7930
 0.4080	 5.8590
 0.4090	 5.9140
 0.4100	 5.9800
 0.4110	 6.0490
 0.4120	 6.1120
 0.4130	 6.1700
 0.4140	 6.2380
 0.4150	 6.3000
 0.4160	 6.3450
 0.4170	 6.4150
 0.4180	 6.4870
 0.4190	 6.5530
 0.4200	 6.6200
 0.4210	 6.6720
 0.4220	 6.7190
 0.4230	 6.7710
 0.4240	 6.8240
 0.4250	 6.8730
 0.4260	 6.9160
 0.4270	 6.9600
 0.4280	 7.0250
 0.4290	 7.0720
 0.4300	 7.0990
 0.4310	 7.1620
 0.4320	 7.1900
 0.4330	 7.2180
 0.4340	 7.2780
 0.4350	 7.3120
 0.4360	 7.3440
 0.4370	 7.3770
 0.4380	 7.4020
 0.4390	 7.4260
 0.4400	 7.4560
 0.4410	 7.4940
 0.4420	 7.5300
 0.4430	 7.5550
 0.4440	 7.5740
 0.4450	 7.5990
 0.4460	 7.6330
 0.4470	 7.6650
 0.4480	 7.6890
 0.4490	 7.7130
 0.4500	 7.7210
 0.4510	 7.7350
 0.4520	 7.7690
 0.4530	 7.7900
 0.4540	 7.8080
 0.4550	 7.8300
 0.4560	 7.8630
 0.4570	 7.8800
 0.4580	 7.8920
 0.4590	 7.9080
 0.4600	 7.9200
 0.4610	 7.9330
 0.4620	 7.9520
 0.4630	 7.9800
 0.4640	 7.9970
 0.4650	 8.0130
 0.4660	 8.0310
 0.4670	 8.0420
 0.4680	 8.0640
 0.4690	 8.0800
 0.4700	 8.0810
 0.4710	 8.1050
 0.4720	 8.1280
 0.4730	 8.1420
 0.4740	 8.1450
 0.4750	 8.1540
 0.4760	 8.1660
 0.4770	 8.1790
 0.4780	 8.2030
 0.4790	 8.2140
 0.4800	 8.2200
 0.4810	 8.2370
 0.4820	 8.2500
 0.4830	 8.2570
 0.4840	 8.2630
 0.4850	 8.2750
 0.4860	 8.2920
 0.4870	 8.3050
 0.4880	 8.3140
 0.4890	 8.3370
 0.4900	 8.3530
 0.4910	 8.3620
 0.4920	 8.3740
 0.4930	 8.3880
 0.4940	 8.4020
 0.4950	 8.4190
 0.4960	 8.4430
 0.4970	 8.4660
 0.4980	 8.4880
 0.4990	 8.5090
 0.5000	 8.5330
 0.5010	 8.5630
 0.5020	 8.5950
 0.5030	 8.6240
 0.5040	 8.6570
 0.5050	 8.6940
 0.5060	 8.7340
 0.5070	 8.7730
 0.5080	 8.8150
 0.5090	 8.8630
 0.5100	 8.9180
 0.5110	 8.9740
 0.5120	 9.0340
 0.5130	 9.0990
 0.5140	 9.1710
 0.5150	 9.2550
 0.5160	 9.3420
 0.5170	 9.4240
 0.5180	 9.5160
 0.5190	 9.6160
 0.5200	 9.7220
 0.5210	 9.8350
 0.5220	 9.9450
 0.5230	10.0540
 0.5240	10.1650
 0.5250	10.2780
 0.5260	10.3880
 0.5270	10.4930
 0.5280	10.5920
 0.5290	10.6870
 0.5300	10.7780
 0.5310	10.8650
 0.5320	10.9450
 0.5330	11.0180
 0.5340	11.0850
 0.5350	11.1470
 0.5360	11.2110
 0.5370	11.2690
 0.5380	11.3200
 0.5390	11.3680
 0.5400	11.4110
 0.5410	11.4540
 0.5420	11.5000
 0.5430	11.5390
 0.5440	11.5850
 0.5450	11.6350
 0.5460	11.6830
 0.5470	11.7250
 0.5480	11.7610
 0.5490	11.7910
 0.5500	11.8210
 0.5510	11.8520
 0.5520	11.8760
 0.5530	11.8860
 0.5540	11.8910
 0.5550	11.8850
 0.5560	11.8700
 0.5570	11.8490
 0.5580	11.8230
 0.5590	11.7920
 0.5600	11.7570
 0.5610	11.7210
 0.5620	11.6780
 0.5630	11.6310
 0.5640	11.5850
 0.5650	11.5350
 0.5660	11.4890
 0.5670	11.4440
 0.5680	11.3790
 0.5690	11.3090
 0.5700	11.2430
 0.5710	11.1840
 0.5720	11.1310
 0.5730	11.0720
 0.5740	11.0080
 0.5750	10.9480
 0.5760	10.8950
 0.5770	10.8520
 0.5780	10.8180
 0.5790	10.7900
 0.5800	10.7660
 0.5810	10.7450
 0.5820	10.7230
 0.5830	10.6990
 0.5840	10.6680
 0.5850	10.6310
 0.5860	10.6040
 0.5870	10.5870
 0.5880	10.5720
 0.5890	10.5540
 0.5900	10.5380
 0.5910	10.5200
 0.5920	10.5030
 0.5930	10.4970
 0.5940	10.4920
 0.5950	10.4830
 0.5960	10.4700
 0.5970	10.4570
 0.5980	10.4420
 0.5990	10.4290
 0.6000	10.4180
 0.6010	10.4110
 0.6020	10.4040
 0.6030	10.3920
 0.6040	10.3730
 0.6050	10.3520
 0.6060	10.3320
 0.6070	10.3130
 0.6080	10.2930
 0.6090	10.2680
 0.6100	10.2400
 0.6110	10.2140
 0.6120	10.1950
 0.6130	10.1750
 0.6140	10.1500
 0.6150	10.1270
 0.6160	10.1080
 0.6170	10.0890
 0.6180	10.0700
 0.6190	10.0560
 0.6200	10.0480
 0.6210	10.0410
 0.6220	10.0310
 0.6230	10.0250
 0.6240	10.0210
 0.6250	10.0180
 0.6260	10.0220
 0.6270	10.0260
 0.6280	10.0280
 0.6290	10.0310
 0.6300	10.0380
 0.6310	10.0450
 0.6320	10.0500
 0.6330	10.0550
 0.6340	10.0540
 0.6350	10.0480
 0.6360	10.0420
 0.6370	10.0350
 0.6380	10.0240
 0.6390	10.0080
 0.6400	 9.9870
 0.6410	 9.9680
 0.6420	 9.9460
 0.6430	 9.9210
 0.6440	 9.9050
 0.6450	 9.8840
 0.6460	 9.8610
 0.6470	 9.8420
 0.6480	 9.8180
 0.6490	 9.8010
 0.6500	 9.7920
 0.6510	 9.7790
 0.6520	 9.7650
 0.6530	 9.7540
 0.6540	 9.7460
 0.6550	 9.7350
 0.6560	 9.7200
 0.6570	 9.7020
 0.6580	 9.6830
 0.6590	 9.6650
 0.6600	 9.6470
 0.6610	 9.6280
 0.6620	 9.6070
 0.6630	 9.5850
 0.6640	 9.5660
 0.6650	 9.5520
 0.6660	 9.5430
 0.6670	 9.5330
 0.6680	 9.5230
 0.6690	 9.5130
 0.6700	 9.5090
 0.6710	 9.5120
 0.6720	 9.5170
 0.6730	 9.5190
 0.6740	 9.5250
 0.6750	 9.5310
 0.6760	 9.5370
 0.6770	 9.5560
 0.6780	 9.5790
 0.6790	 9.6000
 0.6800	 9.6170
 0.6810	 9.6470
 0.6820	 9.6780
 0.6830	 9.7060
 0.6840	 9.7470
 0.6850	 9.7930
 0.6860	 9.8450
 0.6870	 9.9080
 0.6880	 9.9760
 0.6890	10.0610
 0.6900	10.1650
 0.6910	10.2870
 0.6920	10.4360
 0.6930	10.6200
 0.6940	10.8460
 0.6950	11.1100
 0.6960	11.4250
 0.6970	11.7920
 0.6980	12.2130
 0.6990	12.6870
 0.7000	13.2140
 0.7010	13.7900
 0.7020	14.4130
 0.7030	15.0720
 0.7040	15.7680
 0.7050	16.4980
 0.7060	17.2580
 0.7070	18.0380
 0.7080	18.8350
 0.7090	19.6560
 0.7100	20.4920
 0.7110	21.3420
 0.7120	22.2080
 0.7130	23.0910
 0.7140	23.9820
 0.7150	24.8830
 0.7160	25.7930
 0.7170	26.7050
 0.7180	27.6160
 0.7190	28.5300
 0.7200	29.4500
 0.7210	30.3690
 0.7220	31.2760
 0.7230	32.1720
 0.7240	33.0630
 0.7250	33.9430
 0.7260	34.8040
 0.7270	35.6440
 0.7280	36.4650
 0.7290	37.2590
 0.7300	38.0310
 0.7310	38.7840
 0.7320	39.5080
 0.7330	40.2050
 0.7340	40.8750
 0.7350	41.5150
 0.7360	42.1380
 0.7370	42.7320
 0.7380	43.2920
 0.7390	43.8220
 0.7400	44.3350
 0.7410	44.8200
 0.7420	45.2670
 0.7430	45.6930
 0.7440	46.1010
 0.7450	46.4850
 0.7460	46.8390
 0.7470	47.1800
 0.7480	47.5010
 0.7490	47.7910
 0.7500	48.0530
 0.7510	48.3090
 0.7520	48.5530
 0.7530	48.7690
 0.7540	48.9720
 0.7550	49.1550
 0.7560	49.3190
 0.7570	49.4720
 0.7580	49.6150
 0.7590	49.7540
 0.7600	49.8850
 0.7610	49.9930
 0.7620	50.0980
 0.7630	50.1970
 0.7640	50.2860
 0.7650	50.3670
 0.7660	50.4400
 0.7670	50.5090
 0.7680	50.5790
 0.7690	50.6320
 0.7700	50.6840
 0.7710	50.7400
 0.7720	50.7830
 0.7730	50.8340
 0.7740	50.8820
 0.7750	50.9180
 0.7760	50.9510
 0.7770	50.9950
 0.7780	51.0400
 0.7790	51.0690
 0.7800	51.0880
 0.7810	51.1140
 0.7820	51.1510
 0.7830	51.1820
 0.7840	51.2190
 0.7850	51.2520
 0.7860	51.2790
 0.7870	51.3080
 0.7880	51.3440
 0.7890	51.3750
 0.7900	51.3900
 0.7910	51.4130
 0.7920	51.4390
 0.7930	51.4660
 0.7940	51.4950
 0.7950	51.5380
 0.7960	51.5720
 0.7970	51.5920
 0.7980	51.6250
 0.7990	51.6550
 0.8000	51.6820
 0.8010	51.7120
 0.8020	51.7580
 0.8030	51.7900
 0.8040	51.8090
 0.8050	51.8300
 0.8060	51.8650
 0.8070	51.9000
 0.8080	51.9300
 0.8090	51.9590
 0.8100	51.9930
 0.8110	52.0270
 0.8120	52.0630
 0.8130	52.1140
 0.8140	52.1450
 0.8150	52.1710
 0.8160	52.2110
 0.8170	52.2400
 0.8180	52.2840
 0.8190	52.3320
 0.8200	52.3670
 0.8210	52.4020
 0.8220	52.4370
 0.8230	52.4680
 0.8240	52.4880
 0.8250	52.5360
 0.8260	52.5880
 0.8270	52.6250
 0.8280	52.6560
 0.8290	52.6940
 0.8300	52.7280
 0.8310	52.7490
 0.8320	52.7900
 0.8330	52.8290
 0.8340	52.8600
 0.8350	52.8870
 0.8360	52.9250
 0.8370	52.9630
 0.8380	53.0010
 0.8390	53.0440
 0.8400	53.0830
 0.8410	53.1200
 0.8420	53.1580
 0.8430	53.1870
 0.8440	53.2340
 0.8450	53.2740
 0.8460	53.2940
 0.8470	53.3280
 0.8480	53.3720
 0.8490	53.4060
 0.8500	53.4150
 0.8510	53.4530
 0.8520	53.4930
 0.8530	53.5270
 0.8540	53.5580
 0.8550	53.5790
 0.8560	53.6090
 0.8570	53.6440
 0.8580	53.6610
 0.8590	53.6800
 0.8600	53.7030
 0.8610	53.7240
 0.8620	53.7450
 0.8630	53.7710
 0.8640	53.8000
 0.8650	53.8260
 0.8660	53.8440
 0.8670	53.8560
 0.8680	53.8740
 0.8690	53.9000
 0.8700	53.9030
 0.8710	53.9070
 0.8720	53.9220
 0.8730	53.9440
 0.8740	53.9620
 0.8750	53.9780
 0.8760	53.9910
 0.8770	53.9980
 0.8780	54.0130
 0.8790	54.0190
 0.8800	54.0200
 0.8810	54.0430
 0.8820	54.0520
 0.8830	54.0500
 0.8840	54.0500
 0.8850	54.0630
 0.8860	54.0640
 0.8870	54.0620
 0.8880	54.0680
 0.8890	54.0610
 0.8900	54.0560
 0.8910	54.0590
 0.8920	54.0660
 0.8930	54.0700
 0.8940	54.0730
 0.8950	54.0750
 0.8960	54.0730
 0.8970	54.0710
 0.8980	54.0690
 0.8990	54.0660
 0.9000	54.0610
 0.9010	54.0580
 0.9020	54.0580
 0.9030	54.0570
 0.9040	54.0480
 0.9050	54.0410
 0.9060	54.0320
 0.9070	54.0260
 0.9080	54.0390
 0.9090	54.0410
 0.9100	54.0290
 0.9110	54.0140
 0.9120	54.0080
 0.9130	54.0050
 0.9140	54.0010
 0.9150	53.9960
 0.9160	53.9870
 0.9170	53.9690
 0.9180	53.9580
 0.9190	53.9710
 0.9200	53.9730
 0.9210	53.9700
 0.9220	53.9590
 0.9230	53.9390
 0.9240	53.9350
 0.9250	53.9310
 0.9260	53.9200
 0.9270	53.9030
 0.9280	53.8790
 0.9290	53.8640
 0.9300	53.8540
 0.9310	53.8300
 0.9320	53.8110
 0.9330	53.7960
 0.9340	53.7790
 0.9350	53.7530
 0.9360	53.7360
 0.9370	53.7170
 0.9380	53.6900
 0.9390	53.6650
 0.9400	53.6360
 0.9410	53.6150
 0.9420	53.6030
 0.9430	53.5690
 0.9440	53.5440
 0.9450	53.5180
 0.9460	53.4830
 0.9470	53.4410
 0.9480	53.3930
 0.9490	53.3450
 0.9500	53.3010
 0.9510	53.2430
 0.9520	53.1880
 0.9530	53.1280
 0.9540	53.0570
 0.9550	53.0060
 0.9560	52.9540
 0.9570	52.9000
 0.9580	52.8430
 0.9590	52.7740
 0.9600	52.7160
 0.9610	52.6800
 0.9620	52.6610
 0.9630	52.6440
 0.9640	52.5940
 0.9650	52.5490
 0.9660	52.5530
 0.9670	52.5370
 0.9680	52.5310
 0.9690	52.5340
 0.9700	52.5360
 0.9710	52.5560
 0.9720	52.5380
 0.9730	52.5120
 0.9740	52.5250
 0.9750	52.5210
 0.9760	52.5300
 0.9770	52.5500
 0.9780	52.5630
 0.9790	52.5770
 0.9800	52.5880
 0.9810	52.6080
 0.9820	52.6470
 0.9830	52.6690
 0.9840	52.6990
 0.9850	52.7210
 0.9860	52.7140
 0.9870	52.7320
 0.9880	52.7710
 0.9890	52.8090
 0.9900	52.8230
 0.9910	52.8580
 0.9920	52.8980
 0.9930	52.9360
 0.9940	52.9730
 0.9950	53.0190
 0.9960	53.0400
 0.9970	53.0470
 0.9980	53.0670
 0.9990	53.0830
 1.0000	53.2100
 1.0010	53.3530
 1.0020	53.4570
 1.0030	53.4980
 1.0040	53.5460
 1.0050	53.5920
 1.0060	53.6340
 1.0070	53.6740
 1.0080	53.7130
 1.0090	53.7420
 1.0100	53.7780
 1.0110	53.8210
 1.0120	53.8610
 1.0130	53.9020
 1.0140	53.9380
 1.0150	53.9690
 1.0160	54.0010
 1.0170	54.0330
 1.0180	54.0640
 1.0190	54.0930
 1.0200	54.1270
 1.0210	54.1650
 1.0220	54.1950
 1.0230	54.2300
 1.0240	54.2750
 1.0250	54.3090
 1.0260	54.3340
 1.0270	54.3650
 1.0280	54.3940
 1.0290	54.4230
 1.0300	54.4550
 1.0310	54.4840
 1.0320	54.5080
 1.0330	54.5380
 1.0340	54.5650
 1.0350	54.5900
 1.0360	54.6190
 1.0370	54.6460
 1.0380	54.6750
 1.0390	54.7070
 1.0400	54.7330
 1.0410	54.7560
 1.0420	54.7790
 1.0430	54.7990
 1.0440	54.8200
 1.0450	54.8410
 1.0460	54.8630
 1.0470	54.8890
 1.0480	54.9100
 1.0490	54.9280
 1.0500	54.9470
 1.0510	54.9630
 1.0520	54.9780
 1.0530	54.9930
 1.0540	55.0080
 1.0550	55.0240
 1.0560	55.0380
 1.0570	55.0520
 1.0580	55.0680
 1.0590	55.0810
 1.0600	55.0910
 1.0610	55.1010
 1.0620	55.1110
 1.0630	55.1220
 1.0640	55.1360
 1.0650	55.1440
 1.0660	55.1500
 1.0670	55.1560
 1.0680	55.1600
 1.0690	55.1590
 1.0700	55.1610
 1.0710	55.1640
 1.0720	55.1670
 1.0730	55.1690
 1.0740	55.1690
 1.0750	55.1670
 1.0760	55.1650
 1.0770	55.1580
 1.0780	55.1530
 1.0790	55.1500
 1.0800	55.1460
 1.0810	55.1430
 1.0820	55.1390
 1.0830	55.1330
 1.0840	55.1270
 1.0850	55.1190
 1.0860	55.1100
 1.0870	55.1020
 1.0880	55.0940
 1.0890	55.0820
 1.0900	55.0670
 1.0910	55.0550
 1.0920	55.0410
 1.0930	55.0270
 1.0940	55.0180
 1.0950	55.0050
 1.0960	54.9930
 1.0970	54.9750
 1.0980	54.9530
 1.0990	54.9340
 1.1000	54.9080
 1.1010	54.8890
 1.1020	54.8750
 1.1030	54.8640
 1.1040	54.8520
 1.1050	54.8360
 1.1060	54.8180
 1.1070	54.7970
 1.1080	54.7780
 1.1090	54.7600
 1.1100	54.7400
 1.1110	54.7200
 1.1120	54.6980
 1.1130	54.6770
 1.1140	54.6510
 1.1150	54.6240
 1.1160	54.5950
 1.1170	54.5640
 1.1180	54.5310
 1.1190	54.4980
 1.1200	54.4620
 1.1210	54.4220
 1.1220	54.3810
 1.1230	54.3330
 1.1240	54.2820
 1.1250	54.2280
 1.1260	54.1710
 1.1270	54.1060
 1.1280	54.0390
 1.1290	53.9600
 1.1300	53.8730
 1.1310	53.7780
 1.1320	53.6740
 1.1330	53.5630
 1.1340	53.4440
 1.1350	53.3200
 1.1360	53.1900
 1.1370	53.0530
 1.1380	52.9080
 1.1390	52.7580
 1.1400	52.5990
 1.1410	52.4360
 1.1420	52.2700
 1.1430	52.0980
 1.1440	51.9280
 1.1450	51.7530
 1.1460	51.5840
 1.1470	51.4140
 1.1480	51.2530
 1.1490	51.0950
 1.1500	50.9460
 1.1510	50.8020
 1.1520	50.6670
 1.1530	50.5380
 1.1540	50.4230
 1.1550	50.3180
 1.1560	50.2230
 1.1570	50.1400
 1.1580	50.0630
 1.1590	49.9950
 1.1600	49.9350
 1.1610	49.8830
 1.1620	49.8430
 1.1630	49.8070
 1.1640	49.7730
 1.1650	49.7450
 1.1660	49.7230
 1.1670	49.7030
 1.1680	49.6860
 1.1690	49.6730
 1.1700	49.6640
 1.1710	49.6530
 1.1720	49.6470
 1.1730	49.6390
 1.1740	49.6300
 1.1750	49.6200
 1.1760	49.6090
 1.1770	49.5980
 1.1780	49.5850
 1.1790	49.5710
 1.1800	49.5580
 1.1810	49.5440
 1.1820	49.5280
 1.1830	49.5120
 1.1840	49.4970
 1.1850	49.4850
 1.1860	49.4730
 1.1870	49.4620
 1.1880	49.4520
 1.1890	49.4400
 1.1900	49.4330
 1.1910	49.4300
 1.1920	49.4290
 1.1930	49.4340
 1.1940	49.4350
 1.1950	49.4370
 1.1960	49.4410
 1.1970	49.4440
 1.1980	49.4510
 1.1990	49.4630
 1.2000	49.4750
 1.2010	49.4880
 1.2020	49.5060
 1.2030	49.5240
 1.2040	49.5430
 1.2050	49.5670
 1.2060	49.5920
 1.2070	49.6170
 1.2080	49.6460
 1.2090	49.6740
 1.2100	49.7030
 1.2110	49.7350
 1.2120	49.7680
 1.2130	49.8000
 1.2140	49.8340
 1.2150	49.8690
 1.2160	49.9050
 1.2170	49.9430
 1.2180	49.9830
 1.2190	50.0210
 1.2200	50.0610
 1.2210	50.1000
 1.2220	50.1380
 1.2230	50.1790
 1.2240	50.2190
 1.2250	50.2610
 1.2260	50.3000
 1.2270	50.3370
 1.2280	50.3770
 1.2290	50.4130
 1.2300	50.4450
 1.2310	50.4770
 1.2320	50.5070
 1.2330	50.5380
 1.2340	50.5700
 1.2350	50.6080
 1.2360	50.6420
 1.2370	50.6750
 1.2380	50.7070
 1.2390	50.7380
 1.2400	50.7690
 1.2410	50.7980
 1.2420	50.8230
 1.2430	50.8470
 1.2440	50.8740
 1.2450	50.8990
 1.2460	50.9240
 1.2470	50.9500
 1.2480	50.9720
 1.2490	50.9940
 1.2500	51.0160
 1.2510	51.0350
 1.2520	51.0530
 1.2530	51.0710
 1.2540	51.0890
 1.2550	51.1040
 1.2560	51.1200
 1.2570	51.1320
 1.2580	51.1400
 1.2590	51.1490
 1.2600	51.1570
 1.2610	51.1650
 1.2620	51.1720
 1.2630	51.1780
 1.2640	51.1850
 1.2650	51.1900
 1.2660	51.1930
 1.2670	51.1980
 1.2680	51.1960
 1.2690	51.1930
 1.2700	51.1940
 1.2710	51.1900
 1.2720	51.1870
 1.2730	51.1860
 1.2740	51.1790
 1.2750	51.1740
 1.2760	51.1690
 1.2770	51.1640
 1.2780	51.1530
 1.2790	51.1410
 1.2800	51.1300
 1.2810	51.1130
 1.2820	51.0990
 1.2830	51.0840
 1.2840	51.0650
 1.2850	51.0480
 1.2860	51.0290
 1.2870	51.0060
 1.2880	50.9800
 1.2890	50.9540
 1.2900	50.9210
 1.2910	50.8860
 1.2920	50.8500
 1.2930	50.8070
 1.2940	50.7640
 1.2950	50.7190
 1.2960	50.6690
 1.2970	50.6170
 1.2980	50.5600
 1.2990	50.5000
 1.3000	50.4370
 1.3010	50.3710
 1.3020	50.3000
 1.3030	50.2260
 1.3040	50.1490
 1.3050	50.0720
 1.3060	49.9890
 1.3070	49.8990
 1.3080	49.8100
 1.3090	49.7130
 1.3100	49.6160
 1.3110	49.5200
 1.3120	49.4150
 1.3130	49.3090
 1.3140	49.1970
 1.3150	49.0770
 1.3160	48.9570
 1.3170	48.8340
 1.3180	48.7060
 1.3190	48.5790
 1.3200	48.4500
 1.3210	48.3130
 1.3220	48.1730
 1.3230	48.0260
 1.3240	47.8730
 1.3250	47.7210
 1.3260	47.5660
 1.3270	47.4100
 1.3280	47.2520
 1.3290	47.0890
 1.3300	46.9260
 1.3310	46.7570
 1.3320	46.5870
 1.3330	46.4210
 1.3340	46.2510
 1.3350	46.0790
 1.3360	45.9070
 1.3370	45.7310
 1.3380	45.5540
 1.3390	45.3780
 1.3400	45.2030
 1.3410	45.0300
 1.3420	44.8590
 1.3430	44.6890
 1.3440	44.5210
 1.3450	44.3530
 1.3460	44.1830
 1.3470	44.0170
 1.3480	43.8530
 1.3490	43.6920
 1.3500	43.5320
 1.3510	43.3760
 1.3520	43.2210
 1.3530	43.0660
 1.3540	42.9100
 1.3550	42.7540
 1.3560	42.5980
 1.3570	42.4420
 1.3580	42.2860
 1.3590	42.1240
 1.3600	41.9580
 1.3610	41.7870
 1.3620	41.6060
 1.3630	41.4230
 1.3640	41.2310
 1.3650	41.0260
 1.3660	40.8150
 1.3670	40.5940
 1.3680	40.3610
 1.3690	40.1160
 1.3700	39.8540
 1.3710	39.5790
 1.3720	39.2890
 1.3730	38.9810
 1.3740	38.6590
 1.3750	38.3180
 1.3760	37.9520
 1.3770	37.5630
 1.3780	37.1470
 1.3790	36.7040
 1.3800	36.2390
 1.3810	35.7440
 1.3820	35.2300
 1.3830	34.6940
 1.3840	34.1380
 1.3850	33.5580
 1.3860	32.9660
 1.3870	32.3480
 1.3880	31.7300
 1.3890	31.1000
 1.3900	30.4620
 1.3910	29.8260
 1.3920	29.1870
 1.3930	28.5460
 1.3940	27.9120
 1.3950	27.2780
 1.3960	26.6550
 1.3970	26.0450
 1.3980	25.4490
 1.3990	24.8760
 1.4000	24.3210
 1.4010	23.7830
 1.4020	23.2710
 1.4030	22.7760
 1.4040	22.3080
 1.4050	21.8690
 1.4060	21.4500
 1.4070	21.0600
 1.4080	20.6940
 1.4090	20.3470
 1.4100	20.0280
 1.4110	19.7300
 1.4120	19.4550
 1.4130	19.2020
 1.4140	18.9690
 1.4150	18.7570
 1.4160	18.5630
 1.4170	18.3860
 1.4180	18.2270
 1.4190	18.0790
 1.4200	17.9440
 1.4210	17.8210
 1.4220	17.7100
 1.4230	17.6150
 1.4240	17.5300
 1.4250	17.4520
 1.4260	17.3850
 1.4270	17.3230
 1.4280	17.2690
 1.4290	17.2220
 1.4300	17.1830
 1.4310	17.1490
 1.4320	17.1220
 1.4330	17.0980
 1.4340	17.0780
 1.4350	17.0640
 1.4360	17.0550
 1.4370	17.0480
 1.4380	17.0460
 1.4390	17.0480
 1.4400	17.0520
 1.4410	17.0580
 1.4420	17.0650
 1.4430	17.0760
 1.4440	17.0880
 1.4450	17.1010
 1.4460	17.1180
 1.4470	17.1350
 1.4480	17.1510
 1.4490	17.1690
 1.4500	17.1880
 1.4510	17.2080
 1.4520	17.2290
 1.4530	17.2510
 1.4540	17.2760
 1.4550	17.3020
 1.4560	17.3310
 1.4570	17.3610
 1.4580	17.3930
 1.4590	17.4290
 1.4600	17.4690
 1.4610	17.5130
 1.4620	17.5590
 1.4630	17.6090
 1.4640	17.6630
 1.4650	17.7210
 1.4660	17.7860
 1.4670	17.8550
 1.4680	17.9300
 1.4690	18.0080
 1.4700	18.0900
