Name: Baccharis pilularis 1
Type: vegetation
Class: Shrub
Genus: Baccharis
Species: pilularis
Sample No.: VH223
Owner: UCSB
Wavelength Range: VSWIR
Origin: 34.5084; -119.7687; WGS84
Collection Date: 10/13/2013
Description: Samples were collected as part of the HyspIRI Airborne Campaign. 48 individual plants were sampled in three times in 2013 - spring  summer  and fall. The name of the sample includes a 1  2  or 3 which references a different individual of the species. Samples were taken to JPL and processed within 48 hours of collection. The same leaves were processed in the Nicolet and then measured using the ASD.
Measurement: Bidirectional reflectance
First Column: X
Second Column: Y
X Units: Wavelength (micrometers)
Y Units: Reflectance (percentage)
First X Value: 0.35
Last X Value: 2.5
Number of X Values: 2151
Additional Information: vegetation.shrub.baccharis.pilularis.vswir.vh223.ucsb.asd.ancillary.txt

 0.3500	 4.5890
 0.3510	 4.4740
 0.3520	 4.3320
 0.3530	 4.2130
 0.3540	 4.1310
 0.3550	 4.0060
 0.3560	 3.9990
 0.3570	 4.0800
 0.3580	 4.1270
 0.3590	 4.1440
 0.3600	 4.1010
 0.3610	 4.0060
 0.3620	 3.9240
 0.3630	 3.8510
 0.3640	 3.8690
 0.3650	 3.9850
 0.3660	 3.8510
 0.3670	 3.7660
 0.3680	 3.7910
 0.3690	 3.8210
 0.3700	 3.8960
 0.3710	 3.8820
 0.3720	 3.7890
 0.3730	 3.9180
 0.3740	 3.9870
 0.3750	 3.9240
 0.3760	 3.7830
 0.3770	 3.8380
 0.3780	 3.9210
 0.3790	 3.9700
 0.3800	 4.0290
 0.3810	 3.9790
 0.3820	 3.9480
 0.3830	 3.9740
 0.3840	 3.7860
 0.3850	 3.7160
 0.3860	 3.7920
 0.3870	 3.9140
 0.3880	 3.9870
 0.3890	 3.9650
 0.3900	 3.8940
 0.3910	 3.9040
 0.3920	 3.8060
 0.3930	 3.7610
 0.3940	 3.8660
 0.3950	 3.8740
 0.3960	 3.8960
 0.3970	 3.8950
 0.3980	 3.7970
 0.3990	 3.8030
 0.4000	 3.8770
 0.4010	 3.9330
 0.4020	 3.8540
 0.4030	 3.8520
 0.4040	 3.8860
 0.4050	 3.8840
 0.4060	 3.9060
 0.4070	 3.8720
 0.4080	 3.8340
 0.4090	 3.9040
 0.4100	 3.9240
 0.4110	 3.9200
 0.4120	 3.9190
 0.4130	 3.8960
 0.4140	 3.8530
 0.4150	 3.8530
 0.4160	 3.9350
 0.4170	 3.9170
 0.4180	 3.8910
 0.4190	 3.9010
 0.4200	 3.9340
 0.4210	 3.9630
 0.4220	 3.9620
 0.4230	 3.9320
 0.4240	 3.9500
 0.4250	 3.9670
 0.4260	 3.9780
 0.4270	 3.9960
 0.4280	 4.0110
 0.4290	 4.0140
 0.4300	 4.0140
 0.4310	 4.0340
 0.4320	 4.0570
 0.4330	 4.0880
 0.4340	 4.1240
 0.4350	 4.1230
 0.4360	 4.1270
 0.4370	 4.1460
 0.4380	 4.1560
 0.4390	 4.1500
 0.4400	 4.1590
 0.4410	 4.1920
 0.4420	 4.2160
 0.4430	 4.2230
 0.4440	 4.2250
 0.4450	 4.2440
 0.4460	 4.2840
 0.4470	 4.3100
 0.4480	 4.3160
 0.4490	 4.3230
 0.4500	 4.3400
 0.4510	 4.3560
 0.4520	 4.3670
 0.4530	 4.4020
 0.4540	 4.4360
 0.4550	 4.4570
 0.4560	 4.4630
 0.4570	 4.4790
 0.4580	 4.4820
 0.4590	 4.4720
 0.4600	 4.4970
 0.4610	 4.5300
 0.4620	 4.5510
 0.4630	 4.5500
 0.4640	 4.5710
 0.4650	 4.5860
 0.4660	 4.5850
 0.4670	 4.5840
 0.4680	 4.5980
 0.4690	 4.6150
 0.4700	 4.6240
 0.4710	 4.6440
 0.4720	 4.6630
 0.4730	 4.6740
 0.4740	 4.6750
 0.4750	 4.6730
 0.4760	 4.6800
 0.4770	 4.6990
 0.4780	 4.7190
 0.4790	 4.7260
 0.4800	 4.7260
 0.4810	 4.7300
 0.4820	 4.7490
 0.4830	 4.7650
 0.4840	 4.7710
 0.4850	 4.7730
 0.4860	 4.7760
 0.4870	 4.7880
 0.4880	 4.8060
 0.4890	 4.8000
 0.4900	 4.8140
 0.4910	 4.8380
 0.4920	 4.8410
 0.4930	 4.8700
 0.4940	 4.8990
 0.4950	 4.9160
 0.4960	 4.9370
 0.4970	 4.9700
 0.4980	 5.0050
 0.4990	 5.0310
 0.5000	 5.0490
 0.5010	 5.0750
 0.5020	 5.1140
 0.5030	 5.1620
 0.5040	 5.2140
 0.5050	 5.2710
 0.5060	 5.3340
 0.5070	 5.3990
 0.5080	 5.4700
 0.5090	 5.5500
 0.5100	 5.6370
 0.5110	 5.7230
 0.5120	 5.8300
 0.5130	 5.9550
 0.5140	 6.0660
 0.5150	 6.1960
 0.5160	 6.3390
 0.5170	 6.4850
 0.5180	 6.6410
 0.5190	 6.8040
 0.5200	 6.9730
 0.5210	 7.1480
 0.5220	 7.3230
 0.5230	 7.5020
 0.5240	 7.6850
 0.5250	 7.8590
 0.5260	 8.0220
 0.5270	 8.1820
 0.5280	 8.3460
 0.5290	 8.5010
 0.5300	 8.6460
 0.5310	 8.7820
 0.5320	 8.9100
 0.5330	 9.0270
 0.5340	 9.1360
 0.5350	 9.2430
 0.5360	 9.3390
 0.5370	 9.4310
 0.5380	 9.5190
 0.5390	 9.6010
 0.5400	 9.6800
 0.5410	 9.7600
 0.5420	 9.8390
 0.5430	 9.9070
 0.5440	 9.9790
 0.5450	10.0470
 0.5460	10.1040
 0.5470	10.1660
 0.5480	10.2230
 0.5490	10.2700
 0.5500	10.3150
 0.5510	10.3500
 0.5520	10.3780
 0.5530	10.4000
 0.5540	10.4080
 0.5550	10.4020
 0.5560	10.3860
 0.5570	10.3620
 0.5580	10.3280
 0.5590	10.2840
 0.5600	10.2310
 0.5610	10.1700
 0.5620	10.1030
 0.5630	10.0300
 0.5640	 9.9490
 0.5650	 9.8590
 0.5660	 9.7670
 0.5670	 9.6710
 0.5680	 9.5640
 0.5690	 9.4580
 0.5700	 9.3520
 0.5710	 9.2410
 0.5720	 9.1290
 0.5730	 9.0280
 0.5740	 8.9390
 0.5750	 8.8520
 0.5760	 8.7590
 0.5770	 8.6750
 0.5780	 8.6040
 0.5790	 8.5270
 0.5800	 8.4630
 0.5810	 8.4040
 0.5820	 8.3390
 0.5830	 8.2760
 0.5840	 8.2140
 0.5850	 8.1560
 0.5860	 8.1090
 0.5870	 8.0720
 0.5880	 8.0400
 0.5890	 8.0090
 0.5900	 7.9720
 0.5910	 7.9480
 0.5920	 7.9340
 0.5930	 7.9140
 0.5940	 7.8990
 0.5950	 7.8860
 0.5960	 7.8720
 0.5970	 7.8520
 0.5980	 7.8360
 0.5990	 7.8170
 0.6000	 7.7890
 0.6010	 7.7650
 0.6020	 7.7390
 0.6030	 7.7100
 0.6040	 7.6800
 0.6050	 7.6420
 0.6060	 7.5980
 0.6070	 7.5510
 0.6080	 7.5050
 0.6090	 7.4510
 0.6100	 7.3970
 0.6110	 7.3520
 0.6120	 7.2990
 0.6130	 7.2400
 0.6140	 7.1830
 0.6150	 7.1300
 0.6160	 7.0770
 0.6170	 7.0300
 0.6180	 6.9910
 0.6190	 6.9560
 0.6200	 6.9230
 0.6210	 6.8940
 0.6220	 6.8730
 0.6230	 6.8570
 0.6240	 6.8420
 0.6250	 6.8300
 0.6260	 6.8200
 0.6270	 6.8160
 0.6280	 6.8150
 0.6290	 6.8150
 0.6300	 6.8130
 0.6310	 6.8130
 0.6320	 6.8150
 0.6330	 6.8110
 0.6340	 6.8020
 0.6350	 6.7850
 0.6360	 6.7620
 0.6370	 6.7380
 0.6380	 6.7060
 0.6390	 6.6630
 0.6400	 6.6070
 0.6410	 6.5550
 0.6420	 6.5010
 0.6430	 6.4410
 0.6440	 6.3750
 0.6450	 6.3100
 0.6460	 6.2500
 0.6470	 6.1930
 0.6480	 6.1380
 0.6490	 6.0910
 0.6500	 6.0470
 0.6510	 6.0000
 0.6520	 5.9690
 0.6530	 5.9410
 0.6540	 5.9030
 0.6550	 5.8690
 0.6560	 5.8300
 0.6570	 5.7860
 0.6580	 5.7440
 0.6590	 5.6950
 0.6600	 5.6420
 0.6610	 5.5890
 0.6620	 5.5390
 0.6630	 5.4910
 0.6640	 5.4470
 0.6650	 5.4100
 0.6660	 5.3710
 0.6670	 5.3410
 0.6680	 5.3180
 0.6690	 5.2960
 0.6700	 5.2800
 0.6710	 5.2720
 0.6720	 5.2710
 0.6730	 5.2670
 0.6740	 5.2670
 0.6750	 5.2730
 0.6760	 5.2820
 0.6770	 5.2920
 0.6780	 5.3100
 0.6790	 5.3350
 0.6800	 5.3610
 0.6810	 5.3960
 0.6820	 5.4370
 0.6830	 5.4850
 0.6840	 5.5490
 0.6850	 5.6330
 0.6860	 5.7330
 0.6870	 5.8500
 0.6880	 6.0050
 0.6890	 6.1930
 0.6900	 6.4160
 0.6910	 6.6890
 0.6920	 7.0100
 0.6930	 7.3870
 0.6940	 7.8270
 0.6950	 8.3310
 0.6960	 8.9020
 0.6970	 9.5320
 0.6980	10.2160
 0.6990	10.9630
 0.7000	11.7600
 0.7010	12.5980
 0.7020	13.4700
 0.7030	14.3930
 0.7040	15.3410
 0.7050	16.2960
 0.7060	17.2770
 0.7070	18.2750
 0.7080	19.2850
 0.7090	20.3070
 0.7100	21.3420
 0.7110	22.3780
 0.7120	23.4140
 0.7130	24.4680
 0.7140	25.5240
 0.7150	26.5760
 0.7160	27.6230
 0.7170	28.6670
 0.7180	29.7100
 0.7190	30.7470
 0.7200	31.7660
 0.7210	32.7740
 0.7220	33.7650
 0.7230	34.7380
 0.7240	35.7010
 0.7250	36.6290
 0.7260	37.5190
 0.7270	38.3780
 0.7280	39.2250
 0.7290	40.0330
 0.7300	40.7970
 0.7310	41.5260
 0.7320	42.2330
 0.7330	42.9080
 0.7340	43.5440
 0.7350	44.1460
 0.7360	44.7080
 0.7370	45.2450
 0.7380	45.7620
 0.7390	46.2310
 0.7400	46.6870
 0.7410	47.1220
 0.7420	47.5160
 0.7430	47.8860
 0.7440	48.2310
 0.7450	48.5540
 0.7460	48.8600
 0.7470	49.1420
 0.7480	49.3980
 0.7490	49.6310
 0.7500	49.8620
 0.7510	50.0700
 0.7520	50.2560
 0.7530	50.4290
 0.7540	50.6000
 0.7550	50.7500
 0.7560	50.8800
 0.7570	51.0130
 0.7580	51.1240
 0.7590	51.2280
 0.7600	51.3330
 0.7610	51.4220
 0.7620	51.4940
 0.7630	51.5650
 0.7640	51.6470
 0.7650	51.7290
 0.7660	51.7950
 0.7670	51.8440
 0.7680	51.8900
 0.7690	51.9500
 0.7700	52.0040
 0.7710	52.0430
 0.7720	52.0810
 0.7730	52.1230
 0.7740	52.1710
 0.7750	52.2170
 0.7760	52.2350
 0.7770	52.2550
 0.7780	52.2880
 0.7790	52.3300
 0.7800	52.3590
 0.7810	52.3850
 0.7820	52.4180
 0.7830	52.4590
 0.7840	52.4820
 0.7850	52.5040
 0.7860	52.5380
 0.7870	52.5770
 0.7880	52.6060
 0.7890	52.6210
 0.7900	52.6260
 0.7910	52.6500
 0.7920	52.6950
 0.7930	52.7370
 0.7940	52.7430
 0.7950	52.7480
 0.7960	52.7730
 0.7970	52.8150
 0.7980	52.8420
 0.7990	52.8640
 0.8000	52.8910
 0.8010	52.9250
 0.8020	52.9480
 0.8030	52.9670
 0.8040	52.9850
 0.8050	53.0100
 0.8060	53.0450
 0.8070	53.0710
 0.8080	53.0880
 0.8090	53.1090
 0.8100	53.1280
 0.8110	53.1560
 0.8120	53.1930
 0.8130	53.2170
 0.8140	53.2360
 0.8150	53.2590
 0.8160	53.2890
 0.8170	53.2990
 0.8180	53.3290
 0.8190	53.3700
 0.8200	53.3950
 0.8210	53.4180
 0.8220	53.4350
 0.8230	53.4500
 0.8240	53.4770
 0.8250	53.5100
 0.8260	53.5380
 0.8270	53.5580
 0.8280	53.5740
 0.8290	53.5950
 0.8300	53.6190
 0.8310	53.6390
 0.8320	53.6410
 0.8330	53.6500
 0.8340	53.6700
 0.8350	53.6940
 0.8360	53.7100
 0.8370	53.7310
 0.8380	53.7590
 0.8390	53.7850
 0.8400	53.8020
 0.8410	53.8220
 0.8420	53.8490
 0.8430	53.8660
 0.8440	53.8690
 0.8450	53.8880
 0.8460	53.9360
 0.8470	53.9690
 0.8480	53.9850
 0.8490	53.9880
 0.8500	53.9920
 0.8510	54.0350
 0.8520	54.0650
 0.8530	54.0710
 0.8540	54.0690
 0.8550	54.0890
 0.8560	54.1180
 0.8570	54.1400
 0.8580	54.1390
 0.8590	54.1450
 0.8600	54.1650
 0.8610	54.1910
 0.8620	54.1930
 0.8630	54.1850
 0.8640	54.1990
 0.8650	54.2410
 0.8660	54.2460
 0.8670	54.2430
 0.8680	54.2440
 0.8690	54.2500
 0.8700	54.2450
 0.8710	54.2620
 0.8720	54.2890
 0.8730	54.2900
 0.8740	54.3000
 0.8750	54.3040
 0.8760	54.3010
 0.8770	54.3100
 0.8780	54.3320
 0.8790	54.3390
 0.8800	54.3290
 0.8810	54.3450
 0.8820	54.3390
 0.8830	54.3320
 0.8840	54.3390
 0.8850	54.3360
 0.8860	54.3370
 0.8870	54.3380
 0.8880	54.3350
 0.8890	54.3330
 0.8900	54.3370
 0.8910	54.3380
 0.8920	54.3300
 0.8930	54.3260
 0.8940	54.3150
 0.8950	54.2950
 0.8960	54.2800
 0.8970	54.2850
 0.8980	54.2870
 0.8990	54.2730
 0.9000	54.2480
 0.9010	54.2470
 0.9020	54.2300
 0.9030	54.2010
 0.9040	54.2320
 0.9050	54.2370
 0.9060	54.2100
 0.9070	54.1730
 0.9080	54.1620
 0.9090	54.1760
 0.9100	54.1880
 0.9110	54.1740
 0.9120	54.1340
 0.9130	54.1340
 0.9140	54.1410
 0.9150	54.1140
 0.9160	54.0890
 0.9170	54.0760
 0.9180	54.0760
 0.9190	54.0810
 0.9200	54.0810
 0.9210	54.0660
 0.9220	54.0330
 0.9230	53.9920
 0.9240	53.9710
 0.9250	53.9660
 0.9260	53.9650
 0.9270	53.9540
 0.9280	53.9080
 0.9290	53.8680
 0.9300	53.8380
 0.9310	53.7900
 0.9320	53.7740
 0.9330	53.7690
 0.9340	53.7470
 0.9350	53.6930
 0.9360	53.6410
 0.9370	53.5990
 0.9380	53.5660
 0.9390	53.5300
 0.9400	53.4850
 0.9410	53.4430
 0.9420	53.4070
 0.9430	53.3530
 0.9440	53.2760
 0.9450	53.2110
 0.9460	53.1740
 0.9470	53.1320
 0.9480	53.0520
 0.9490	52.9410
 0.9500	52.8320
 0.9510	52.7870
 0.9520	52.6880
 0.9530	52.5510
 0.9540	52.4270
 0.9550	52.3250
 0.9560	52.2440
 0.9570	52.1590
 0.9580	52.0500
 0.9590	51.9440
 0.9600	51.8630
 0.9610	51.7790
 0.9620	51.6750
 0.9630	51.6240
 0.9640	51.5660
 0.9650	51.5060
 0.9660	51.4640
 0.9670	51.4090
 0.9680	51.3670
 0.9690	51.3490
 0.9700	51.3480
 0.9710	51.3180
 0.9720	51.2870
 0.9730	51.2590
 0.9740	51.2330
 0.9750	51.2390
 0.9760	51.2140
 0.9770	51.1820
 0.9780	51.1960
 0.9790	51.2180
 0.9800	51.2220
 0.9810	51.2030
 0.9820	51.1820
 0.9830	51.2280
 0.9840	51.2520
 0.9850	51.2550
 0.9860	51.2870
 0.9870	51.3470
 0.9880	51.3740
 0.9890	51.3870
 0.9900	51.4290
 0.9910	51.4770
 0.9920	51.4570
 0.9930	51.4370
 0.9940	51.4170
 0.9950	51.3970
 0.9960	51.3770
 0.9970	51.3570
 0.9980	51.3380
 0.9990	51.3180
 1.0000	51.2980
 1.0010	51.2780
 1.0020	51.2580
 1.0030	51.2380
 1.0040	51.2180
 1.0050	51.1980
 1.0060	51.1780
 1.0070	51.1580
 1.0080	51.1380
 1.0090	51.1190
 1.0100	51.1190
 1.0110	51.1600
 1.0120	51.2040
 1.0130	51.2430
 1.0140	51.2860
 1.0150	51.3380
 1.0160	51.3810
 1.0170	51.4180
 1.0180	51.4660
 1.0190	51.5170
 1.0200	51.5670
 1.0210	51.6150
 1.0220	51.6570
 1.0230	51.7070
 1.0240	51.7590
 1.0250	51.8090
 1.0260	51.8680
 1.0270	51.9140
 1.0280	51.9560
 1.0290	51.9900
 1.0300	52.0080
 1.0310	52.0360
 1.0320	52.0610
 1.0330	52.0900
 1.0340	52.1280
 1.0350	52.1780
 1.0360	52.2180
 1.0370	52.2510
 1.0380	52.2860
 1.0390	52.3170
 1.0400	52.3480
 1.0410	52.3790
 1.0420	52.4130
 1.0430	52.4500
 1.0440	52.4750
 1.0450	52.4960
 1.0460	52.5160
 1.0470	52.5180
 1.0480	52.5360
 1.0490	52.5670
 1.0500	52.5940
 1.0510	52.6240
 1.0520	52.6560
 1.0530	52.6800
 1.0540	52.6980
 1.0550	52.7200
 1.0560	52.7390
 1.0570	52.7560
 1.0580	52.7760
 1.0590	52.7870
 1.0600	52.7850
 1.0610	52.7960
 1.0620	52.8100
 1.0630	52.8230
 1.0640	52.8480
 1.0650	52.8630
 1.0660	52.8710
 1.0670	52.8790
 1.0680	52.8850
 1.0690	52.8870
 1.0700	52.8910
 1.0710	52.8960
 1.0720	52.9000
 1.0730	52.9040
 1.0740	52.9080
 1.0750	52.9130
 1.0760	52.9170
 1.0770	52.9260
 1.0780	52.9280
 1.0790	52.9260
 1.0800	52.9260
 1.0810	52.9280
 1.0820	52.9240
 1.0830	52.9160
 1.0840	52.9110
 1.0850	52.9050
 1.0860	52.8940
 1.0870	52.8880
 1.0880	52.8880
 1.0890	52.8780
 1.0900	52.8570
 1.0910	52.8490
 1.0920	52.8470
 1.0930	52.8350
 1.0940	52.8280
 1.0950	52.8140
 1.0960	52.7880
 1.0970	52.7660
 1.0980	52.7470
 1.0990	52.7240
 1.1000	52.6970
 1.1010	52.6710
 1.1020	52.6440
 1.1030	52.6180
 1.1040	52.5970
 1.1050	52.5710
 1.1060	52.5480
 1.1070	52.5340
 1.1080	52.5050
 1.1090	52.4710
 1.1100	52.4390
 1.1110	52.3990
 1.1120	52.3610
 1.1130	52.3310
 1.1140	52.2900
 1.1150	52.2470
 1.1160	52.1960
 1.1170	52.1410
 1.1180	52.0780
 1.1190	52.0060
 1.1200	51.9290
 1.1210	51.8460
 1.1220	51.7590
 1.1230	51.6700
 1.1240	51.5730
 1.1250	51.4690
 1.1260	51.3590
 1.1270	51.2430
 1.1280	51.1240
 1.1290	50.9910
 1.1300	50.8480
 1.1310	50.6970
 1.1320	50.5340
 1.1330	50.3650
 1.1340	50.1910
 1.1350	50.0060
 1.1360	49.8100
 1.1370	49.6060
 1.1380	49.3910
 1.1390	49.1780
 1.1400	48.9600
 1.1410	48.7340
 1.1420	48.5060
 1.1430	48.2710
 1.1440	48.0370
 1.1450	47.7930
 1.1460	47.5600
 1.1470	47.3260
 1.1480	47.1050
 1.1490	46.8910
 1.1500	46.6870
 1.1510	46.4920
 1.1520	46.3080
 1.1530	46.1310
 1.1540	45.9670
 1.1550	45.8150
 1.1560	45.6730
 1.1570	45.5390
 1.1580	45.4190
 1.1590	45.3050
 1.1600	45.1980
 1.1610	45.1060
 1.1620	45.0220
 1.1630	44.9480
 1.1640	44.8870
 1.1650	44.8280
 1.1660	44.7740
 1.1670	44.7240
 1.1680	44.6800
 1.1690	44.6390
 1.1700	44.6050
 1.1710	44.5690
 1.1720	44.5330
 1.1730	44.5010
 1.1740	44.4700
 1.1750	44.4390
 1.1760	44.4120
 1.1770	44.3880
 1.1780	44.3550
 1.1790	44.3210
 1.1800	44.2840
 1.1810	44.2390
 1.1820	44.1970
 1.1830	44.1560
 1.1840	44.1140
 1.1850	44.0740
 1.1860	44.0380
 1.1870	44.0090
 1.1880	43.9800
 1.1890	43.9530
 1.1900	43.9300
 1.1910	43.9080
 1.1920	43.8880
 1.1930	43.8760
 1.1940	43.8620
 1.1950	43.8490
 1.1960	43.8350
 1.1970	43.8230
 1.1980	43.8140
 1.1990	43.8150
 1.2000	43.8220
 1.2010	43.8340
 1.2020	43.8500
 1.2030	43.8670
 1.2040	43.8900
 1.2050	43.9180
 1.2060	43.9520
 1.2070	43.9890
 1.2080	44.0270
 1.2090	44.0720
 1.2100	44.1250
 1.2110	44.1770
 1.2120	44.2290
 1.2130	44.2880
 1.2140	44.3520
 1.2150	44.4170
 1.2160	44.4870
 1.2170	44.5610
 1.2180	44.6330
 1.2190	44.7020
 1.2200	44.7740
 1.2210	44.8520
 1.2220	44.9260
 1.2230	44.9990
 1.2240	45.0730
 1.2250	45.1450
 1.2260	45.2150
 1.2270	45.2830
 1.2280	45.3540
 1.2290	45.4180
 1.2300	45.4810
 1.2310	45.5470
 1.2320	45.6030
 1.2330	45.6570
 1.2340	45.7130
 1.2350	45.7710
 1.2360	45.8250
 1.2370	45.8780
 1.2380	45.9290
 1.2390	45.9750
 1.2400	46.0130
 1.2410	46.0540
 1.2420	46.0990
 1.2430	46.1400
 1.2440	46.1840
 1.2450	46.2280
 1.2460	46.2660
 1.2470	46.3010
 1.2480	46.3300
 1.2490	46.3570
 1.2500	46.3880
 1.2510	46.4180
 1.2520	46.4510
 1.2530	46.4750
 1.2540	46.4900
 1.2550	46.5080
 1.2560	46.5200
 1.2570	46.5370
 1.2580	46.5600
 1.2590	46.5790
 1.2600	46.5960
 1.2610	46.6140
 1.2620	46.6340
 1.2630	46.6490
 1.2640	46.6560
 1.2650	46.6730
 1.2660	46.6840
 1.2670	46.6790
 1.2680	46.6790
 1.2690	46.6710
 1.2700	46.6600
 1.2710	46.6600
 1.2720	46.6570
 1.2730	46.6480
 1.2740	46.6360
 1.2750	46.6220
 1.2760	46.6110
 1.2770	46.6050
 1.2780	46.5960
 1.2790	46.5790
 1.2800	46.5650
 1.2810	46.5500
 1.2820	46.5300
 1.2830	46.5170
 1.2840	46.4970
 1.2850	46.4660
 1.2860	46.4430
 1.2870	46.4120
 1.2880	46.3760
 1.2890	46.3370
 1.2900	46.2990
 1.2910	46.2470
 1.2920	46.1960
 1.2930	46.1470
 1.2940	46.0950
 1.2950	46.0490
 1.2960	45.9980
 1.2970	45.9450
 1.2980	45.8850
 1.2990	45.8160
 1.3000	45.7420
 1.3010	45.6640
 1.3020	45.5860
 1.3030	45.5040
 1.3040	45.4180
 1.3050	45.3300
 1.3060	45.2350
 1.3070	45.1320
 1.3080	45.0220
 1.3090	44.9100
 1.3100	44.7920
 1.3110	44.6660
 1.3120	44.5390
 1.3130	44.4090
 1.3140	44.2740
 1.3150	44.1370
 1.3160	43.9930
 1.3170	43.8450
 1.3180	43.6900
 1.3190	43.5260
 1.3200	43.3590
 1.3210	43.1810
 1.3220	42.9990
 1.3230	42.8160
 1.3240	42.6290
 1.3250	42.4440
 1.3260	42.2540
 1.3270	42.0530
 1.3280	41.8490
 1.3290	41.6400
 1.3300	41.4310
 1.3310	41.2260
 1.3320	41.0130
 1.3330	40.7990
 1.3340	40.5800
 1.3350	40.3600
 1.3360	40.1410
 1.3370	39.9170
 1.3380	39.6940
 1.3390	39.4690
 1.3400	39.2430
 1.3410	39.0240
 1.3420	38.8090
 1.3430	38.5940
 1.3440	38.3790
 1.3450	38.1680
 1.3460	37.9600
 1.3470	37.7530
 1.3480	37.5470
 1.3490	37.3450
 1.3500	37.1470
 1.3510	36.9460
 1.3520	36.7490
 1.3530	36.5550
 1.3540	36.3630
 1.3550	36.1720
 1.3560	35.9810
 1.3570	35.7940
 1.3580	35.6040
 1.3590	35.4080
 1.3600	35.2130
 1.3610	35.0110
 1.3620	34.8060
 1.3630	34.6000
 1.3640	34.3860
 1.3650	34.1660
 1.3660	33.9390
 1.3670	33.7000
 1.3680	33.4490
 1.3690	33.1890
 1.3700	32.9150
 1.3710	32.6310
 1.3720	32.3350
 1.3730	32.0170
 1.3740	31.6820
 1.3750	31.3290
 1.3760	30.9510
 1.3770	30.5520
 1.3780	30.1310
 1.3790	29.6900
 1.3800	29.2310
 1.3810	28.7490
 1.3820	28.2470
 1.3830	27.7250
 1.3840	27.1850
 1.3850	26.6240
 1.3860	26.0560
 1.3870	25.4690
 1.3880	24.8810
 1.3890	24.2830
 1.3900	23.6750
 1.3910	23.0730
 1.3920	22.4670
 1.3930	21.8640
 1.3940	21.2720
 1.3950	20.6810
 1.3960	20.1000
 1.3970	19.5340
 1.3980	18.9770
 1.3990	18.4430
 1.4000	17.9270
 1.4010	17.4260
 1.4020	16.9490
 1.4030	16.4880
 1.4040	16.0500
 1.4050	15.6350
 1.4060	15.2400
 1.4070	14.8720
 1.4080	14.5270
 1.4090	14.2000
 1.4100	13.8980
 1.4110	13.6140
 1.4120	13.3470
 1.4130	13.1020
 1.4140	12.8750
 1.4150	12.6670
 1.4160	12.4760
 1.4170	12.3000
 1.4180	12.1380
 1.4190	11.9900
 1.4200	11.8540
 1.4210	11.7300
 1.4220	11.6180
 1.4230	11.5160
 1.4240	11.4240
 1.4250	11.3400
 1.4260	11.2670
 1.4270	11.1980
 1.4280	11.1360
 1.4290	11.0810
 1.4300	11.0330
 1.4310	10.9890
 1.4320	10.9530
 1.4330	10.9210
 1.4340	10.8940
 1.4350	10.8710
 1.4360	10.8530
 1.4370	10.8400
 1.4380	10.8290
 1.4390	10.8240
 1.4400	10.8210
 1.4410	10.8190
 1.4420	10.8210
 1.4430	10.8230
 1.4440	10.8280
 1.4450	10.8390
 1.4460	10.8510
 1.4470	10.8670
 1.4480	10.8820
 1.4490	10.8950
 1.4500	10.9070
 1.4510	10.9200
 1.4520	10.9380
 1.4530	10.9560
 1.4540	10.9740
 1.4550	10.9930
 1.4560	11.0090
 1.4570	11.0270
 1.4580	11.0530
 1.4590	11.0790
 1.4600	11.1090
 1.4610	11.1420
 1.4620	11.1760
 1.4630	11.2150
 1.4640	11.2570
 1.4650	11.3020
 1.4660	11.3480
 1.4670	11.3970
 1.4680	11.4490
 1.4690	11.5040
