Name: Acacia visco
Type: vegetation
Class: Tree
Genus: Acacia
Species: visco
Sample No.: JPL196
Owner: JPL
Wavelength Range: VSWIR
Origin: 34.1258; -118.11388; WGS84
Collection Date: 10/3/2016
Description: Samples were collected at the Huntington Garden in San Marino California as part of a JPL Subcontract studying HyTES imagery. Samples were taken to JPL and processed within 48 hours of collection. The same leaves were processed in the Nicolet and then measured using the ASD.
Measurement: Bidirectional reflectance
First Column: X
Second Column: Y
X Units: Wavelength (micrometer)
Y Units: Reflectance (percentage)
First X Value: 0.35
Last X Value: 2.5
Number of X Values: 2151
Additional Information: vegetation.tree.acacia.visco.vswir.jpl196.jpl.asd.ancillary.txt

 0.3500	 3.6550
 0.3510	 3.6840
 0.3520	 3.7390
 0.3530	 3.7120
 0.3540	 3.5720
 0.3550	 3.5410
 0.3560	 3.5830
 0.3570	 3.6400
 0.3580	 3.6410
 0.3590	 3.5370
 0.3600	 3.4650
 0.3610	 3.4800
 0.3620	 3.5050
 0.3630	 3.5280
 0.3640	 3.5640
 0.3650	 3.6090
 0.3660	 3.5570
 0.3670	 3.5220
 0.3680	 3.5470
 0.3690	 3.6080
 0.3700	 3.5350
 0.3710	 3.4760
 0.3720	 3.5080
 0.3730	 3.5090
 0.3740	 3.5260
 0.3750	 3.5190
 0.3760	 3.4540
 0.3770	 3.4210
 0.3780	 3.4470
 0.3790	 3.4920
 0.3800	 3.4740
 0.3810	 3.4370
 0.3820	 3.4110
 0.3830	 3.4110
 0.3840	 3.4210
 0.3850	 3.4490
 0.3860	 3.4790
 0.3870	 3.4860
 0.3880	 3.4620
 0.3890	 3.4350
 0.3900	 3.4170
 0.3910	 3.4010
 0.3920	 3.3750
 0.3930	 3.3760
 0.3940	 3.4080
 0.3950	 3.3790
 0.3960	 3.3840
 0.3970	 3.4010
 0.3980	 3.3690
 0.3990	 3.3850
 0.4000	 3.4030
 0.4010	 3.4020
 0.4020	 3.4090
 0.4030	 3.4030
 0.4040	 3.3920
 0.4050	 3.3870
 0.4060	 3.3740
 0.4070	 3.3850
 0.4080	 3.4030
 0.4090	 3.3880
 0.4100	 3.3880
 0.4110	 3.4020
 0.4120	 3.4200
 0.4130	 3.4200
 0.4140	 3.4070
 0.4150	 3.4020
 0.4160	 3.4220
 0.4170	 3.4260
 0.4180	 3.4320
 0.4190	 3.4540
 0.4200	 3.4950
 0.4210	 3.4970
 0.4220	 3.4920
 0.4230	 3.5080
 0.4240	 3.5320
 0.4250	 3.5460
 0.4260	 3.5550
 0.4270	 3.5740
 0.4280	 3.5880
 0.4290	 3.6050
 0.4300	 3.6300
 0.4310	 3.6660
 0.4320	 3.6900
 0.4330	 3.7060
 0.4340	 3.7190
 0.4350	 3.7260
 0.4360	 3.7420
 0.4370	 3.7640
 0.4380	 3.7760
 0.4390	 3.7980
 0.4400	 3.8120
 0.4410	 3.8120
 0.4420	 3.8240
 0.4430	 3.8430
 0.4440	 3.8590
 0.4450	 3.8670
 0.4460	 3.8740
 0.4470	 3.8870
 0.4480	 3.9050
 0.4490	 3.9140
 0.4500	 3.9180
 0.4510	 3.9220
 0.4520	 3.9270
 0.4530	 3.9380
 0.4540	 3.9470
 0.4550	 3.9540
 0.4560	 3.9610
 0.4570	 3.9610
 0.4580	 3.9600
 0.4590	 3.9610
 0.4600	 3.9650
 0.4610	 3.9660
 0.4620	 3.9650
 0.4630	 3.9690
 0.4640	 3.9650
 0.4650	 3.9620
 0.4660	 3.9640
 0.4670	 3.9710
 0.4680	 3.9630
 0.4690	 3.9510
 0.4700	 3.9480
 0.4710	 3.9520
 0.4720	 3.9540
 0.4730	 3.9500
 0.4740	 3.9460
 0.4750	 3.9480
 0.4760	 3.9520
 0.4770	 3.9510
 0.4780	 3.9460
 0.4790	 3.9430
 0.4800	 3.9430
 0.4810	 3.9460
 0.4820	 3.9470
 0.4830	 3.9470
 0.4840	 3.9480
 0.4850	 3.9520
 0.4860	 3.9510
 0.4870	 3.9460
 0.4880	 3.9430
 0.4890	 3.9500
 0.4900	 3.9560
 0.4910	 3.9600
 0.4920	 3.9690
 0.4930	 3.9750
 0.4940	 3.9780
 0.4950	 3.9810
 0.4960	 3.9860
 0.4970	 3.9930
 0.4980	 4.0030
 0.4990	 4.0170
 0.5000	 4.0290
 0.5010	 4.0430
 0.5020	 4.0600
 0.5030	 4.0770
 0.5040	 4.0960
 0.5050	 4.1150
 0.5060	 4.1360
 0.5070	 4.1650
 0.5080	 4.1960
 0.5090	 4.2270
 0.5100	 4.2620
 0.5110	 4.3050
 0.5120	 4.3500
 0.5130	 4.3970
 0.5140	 4.4460
 0.5150	 4.4990
 0.5160	 4.5560
 0.5170	 4.6180
 0.5180	 4.6840
 0.5190	 4.7570
 0.5200	 4.8350
 0.5210	 4.9120
 0.5220	 4.9920
 0.5230	 5.0750
 0.5240	 5.1580
 0.5250	 5.2410
 0.5260	 5.3210
 0.5270	 5.3950
 0.5280	 5.4660
 0.5290	 5.5390
 0.5300	 5.6070
 0.5310	 5.6660
 0.5320	 5.7200
 0.5330	 5.7700
 0.5340	 5.8160
 0.5350	 5.8580
 0.5360	 5.8980
 0.5370	 5.9330
 0.5380	 5.9630
 0.5390	 5.9910
 0.5400	 6.0190
 0.5410	 6.0490
 0.5420	 6.0810
 0.5430	 6.1090
 0.5440	 6.1280
 0.5450	 6.1370
 0.5460	 6.1390
 0.5470	 6.1360
 0.5480	 6.1330
 0.5490	 6.1330
 0.5500	 6.1360
 0.5510	 6.1340
 0.5520	 6.1290
 0.5530	 6.1230
 0.5540	 6.1090
 0.5550	 6.0880
 0.5560	 6.0610
 0.5570	 6.0310
 0.5580	 5.9980
 0.5590	 5.9610
 0.5600	 5.9210
 0.5610	 5.8790
 0.5620	 5.8310
 0.5630	 5.7810
 0.5640	 5.7330
 0.5650	 5.6820
 0.5660	 5.6250
 0.5670	 5.5650
 0.5680	 5.5040
 0.5690	 5.4430
 0.5700	 5.3830
 0.5710	 5.3260
 0.5720	 5.2710
 0.5730	 5.2150
 0.5740	 5.1620
 0.5750	 5.1200
 0.5760	 5.0790
 0.5770	 5.0390
 0.5780	 5.0010
 0.5790	 4.9680
 0.5800	 4.9360
 0.5810	 4.9040
 0.5820	 4.8740
 0.5830	 4.8470
 0.5840	 4.8210
 0.5850	 4.7970
 0.5860	 4.7710
 0.5870	 4.7480
 0.5880	 4.7280
 0.5890	 4.7060
 0.5900	 4.6860
 0.5910	 4.6700
 0.5920	 4.6560
 0.5930	 4.6440
 0.5940	 4.6340
 0.5950	 4.6220
 0.5960	 4.6100
 0.5970	 4.5990
 0.5980	 4.5920
 0.5990	 4.5850
 0.6000	 4.5730
 0.6010	 4.5580
 0.6020	 4.5420
 0.6030	 4.5260
 0.6040	 4.5100
 0.6050	 4.4920
 0.6060	 4.4710
 0.6070	 4.4490
 0.6080	 4.4270
 0.6090	 4.4060
 0.6100	 4.3890
 0.6110	 4.3770
 0.6120	 4.3510
 0.6130	 4.3180
 0.6140	 4.2860
 0.6150	 4.2590
 0.6160	 4.2360
 0.6170	 4.2130
 0.6180	 4.1920
 0.6190	 4.1740
 0.6200	 4.1560
 0.6210	 4.1390
 0.6220	 4.1240
 0.6230	 4.1130
 0.6240	 4.1030
 0.6250	 4.0910
 0.6260	 4.0810
 0.6270	 4.0740
 0.6280	 4.0700
 0.6290	 4.0680
 0.6300	 4.0630
 0.6310	 4.0570
 0.6320	 4.0490
 0.6330	 4.0390
 0.6340	 4.0310
 0.6350	 4.0220
 0.6360	 4.0100
 0.6370	 3.9930
 0.6380	 3.9750
 0.6390	 3.9570
 0.6400	 3.9370
 0.6410	 3.9180
 0.6420	 3.8980
 0.6430	 3.8760
 0.6440	 3.8540
 0.6450	 3.8330
 0.6460	 3.8110
 0.6470	 3.7890
 0.6480	 3.7720
 0.6490	 3.7580
 0.6500	 3.7440
 0.6510	 3.7330
 0.6520	 3.7220
 0.6530	 3.7130
 0.6540	 3.7050
 0.6550	 3.6950
 0.6560	 3.6860
 0.6570	 3.6760
 0.6580	 3.6650
 0.6590	 3.6500
 0.6600	 3.6350
 0.6610	 3.6210
 0.6620	 3.6060
 0.6630	 3.5940
 0.6640	 3.5840
 0.6650	 3.5750
 0.6660	 3.5680
 0.6670	 3.5620
 0.6680	 3.5590
 0.6690	 3.5590
 0.6700	 3.5610
 0.6710	 3.5660
 0.6720	 3.5750
 0.6730	 3.5810
 0.6740	 3.5920
 0.6750	 3.6050
 0.6760	 3.6210
 0.6770	 3.6390
 0.6780	 3.6570
 0.6790	 3.6770
 0.6800	 3.7040
 0.6810	 3.7280
 0.6820	 3.7540
 0.6830	 3.7820
 0.6840	 3.8130
 0.6850	 3.8440
 0.6860	 3.8760
 0.6870	 3.9160
 0.6880	 3.9570
 0.6890	 4.0050
 0.6900	 4.0640
 0.6910	 4.1360
 0.6920	 4.2210
 0.6930	 4.3240
 0.6940	 4.4480
 0.6950	 4.5990
 0.6960	 4.7730
 0.6970	 4.9720
 0.6980	 5.2000
 0.6990	 5.4580
 0.7000	 5.7420
 0.7010	 6.0520
 0.7020	 6.3900
 0.7030	 6.7480
 0.7040	 7.1240
 0.7050	 7.5210
 0.7060	 7.9350
 0.7070	 8.3620
 0.7080	 8.8020
 0.7090	 9.2540
 0.7100	 9.7180
 0.7110	10.1950
 0.7120	10.6860
 0.7130	11.1830
 0.7140	11.6880
 0.7150	12.2000
 0.7160	12.7160
 0.7170	13.2400
 0.7180	13.7660
 0.7190	14.2950
 0.7200	14.8240
 0.7210	15.3490
 0.7220	15.8710
 0.7230	16.3860
 0.7240	16.8900
 0.7250	17.3870
 0.7260	17.8730
 0.7270	18.3450
 0.7280	18.8010
 0.7290	19.2400
 0.7300	19.6620
 0.7310	20.0670
 0.7320	20.4540
 0.7330	20.8250
 0.7340	21.1780
 0.7350	21.5120
 0.7360	21.8250
 0.7370	22.1200
 0.7380	22.3980
 0.7390	22.6590
 0.7400	22.9030
 0.7410	23.1310
 0.7420	23.3420
 0.7430	23.5370
 0.7440	23.7160
 0.7450	23.8790
 0.7460	24.0290
 0.7470	24.1670
 0.7480	24.2930
 0.7490	24.4070
 0.7500	24.5120
 0.7510	24.6060
 0.7520	24.6900
 0.7530	24.7650
 0.7540	24.8350
 0.7550	24.8990
 0.7560	24.9550
 0.7570	25.0040
 0.7580	25.0480
 0.7590	25.0910
 0.7600	25.1330
 0.7610	25.1630
 0.7620	25.1890
 0.7630	25.2140
 0.7640	25.2360
 0.7650	25.2560
 0.7660	25.2740
 0.7670	25.2900
 0.7680	25.3040
 0.7690	25.3180
 0.7700	25.3290
 0.7710	25.3390
 0.7720	25.3440
 0.7730	25.3510
 0.7740	25.3590
 0.7750	25.3660
 0.7760	25.3700
 0.7770	25.3740
 0.7780	25.3810
 0.7790	25.3860
 0.7800	25.3880
 0.7810	25.3910
 0.7820	25.3970
 0.7830	25.4010
 0.7840	25.4040
 0.7850	25.4060
 0.7860	25.4080
 0.7870	25.4110
 0.7880	25.4100
 0.7890	25.4090
 0.7900	25.4080
 0.7910	25.4070
 0.7920	25.4070
 0.7930	25.4060
 0.7940	25.4050
 0.7950	25.4020
 0.7960	25.3980
 0.7970	25.3950
 0.7980	25.3930
 0.7990	25.3890
 0.8000	25.3840
 0.8010	25.3800
 0.8020	25.3750
 0.8030	25.3690
 0.8040	25.3620
 0.8050	25.3550
 0.8060	25.3460
 0.8070	25.3380
 0.8080	25.3320
 0.8090	25.3240
 0.8100	25.3180
 0.8110	25.3120
 0.8120	25.3030
 0.8130	25.2950
 0.8140	25.2850
 0.8150	25.2720
 0.8160	25.2620
 0.8170	25.2530
 0.8180	25.2450
 0.8190	25.2370
 0.8200	25.2280
 0.8210	25.2170
 0.8220	25.2070
 0.8230	25.2000
 0.8240	25.1910
 0.8250	25.1810
 0.8260	25.1710
 0.8270	25.1620
 0.8280	25.1530
 0.8290	25.1450
 0.8300	25.1370
 0.8310	25.1290
 0.8320	25.1190
 0.8330	25.1080
 0.8340	25.1000
 0.8350	25.0970
 0.8360	25.0900
 0.8370	25.0830
 0.8380	25.0760
 0.8390	25.0690
 0.8400	25.0640
 0.8410	25.0600
 0.8420	25.0550
 0.8430	25.0500
 0.8440	25.0470
 0.8450	25.0440
 0.8460	25.0410
 0.8470	25.0420
 0.8480	25.0380
 0.8490	25.0350
 0.8500	25.0360
 0.8510	25.0340
 0.8520	25.0320
 0.8530	25.0310
 0.8540	25.0300
 0.8550	25.0310
 0.8560	25.0320
 0.8570	25.0330
 0.8580	25.0330
 0.8590	25.0340
 0.8600	25.0370
 0.8610	25.0400
 0.8620	25.0380
 0.8630	25.0400
 0.8640	25.0420
 0.8650	25.0430
 0.8660	25.0490
 0.8670	25.0520
 0.8680	25.0530
 0.8690	25.0560
 0.8700	25.0600
 0.8710	25.0650
 0.8720	25.0700
 0.8730	25.0740
 0.8740	25.0770
 0.8750	25.0820
 0.8760	25.0880
 0.8770	25.0910
 0.8780	25.0950
 0.8790	25.1000
 0.8800	25.1060
 0.8810	25.1120
 0.8820	25.1180
 0.8830	25.1230
 0.8840	25.1290
 0.8850	25.1340
 0.8860	25.1380
 0.8870	25.1410
 0.8880	25.1450
 0.8890	25.1500
 0.8900	25.1550
 0.8910	25.1600
 0.8920	25.1660
 0.8930	25.1700
 0.8940	25.1760
 0.8950	25.1810
 0.8960	25.1840
 0.8970	25.1890
 0.8980	25.1920
 0.8990	25.1960
 0.9000	25.2040
 0.9010	25.2070
 0.9020	25.2090
 0.9030	25.2120
 0.9040	25.2170
 0.9050	25.2210
 0.9060	25.2240
 0.9070	25.2290
 0.9080	25.2330
 0.9090	25.2360
 0.9100	25.2370
 0.9110	25.2370
 0.9120	25.2400
 0.9130	25.2460
 0.9140	25.2470
 0.9150	25.2390
 0.9160	25.2440
 0.9170	25.2500
 0.9180	25.2520
 0.9190	25.2510
 0.9200	25.2520
 0.9210	25.2490
 0.9220	25.2430
 0.9230	25.2400
 0.9240	25.2390
 0.9250	25.2410
 0.9260	25.2430
 0.9270	25.2390
 0.9280	25.2330
 0.9290	25.2240
 0.9300	25.2140
 0.9310	25.2100
 0.9320	25.2050
 0.9330	25.1990
 0.9340	25.1910
 0.9350	25.1780
 0.9360	25.1740
 0.9370	25.1680
 0.9380	25.1560
 0.9390	25.1460
 0.9400	25.1370
 0.9410	25.1270
 0.9420	25.1150
 0.9430	25.1080
 0.9440	25.0910
 0.9450	25.0700
 0.9460	25.0540
 0.9470	25.0460
 0.9480	25.0300
 0.9490	25.0050
 0.9500	24.9790
 0.9510	24.9660
 0.9520	24.9520
 0.9530	24.9320
 0.9540	24.9070
 0.9550	24.8730
 0.9560	24.8490
 0.9570	24.8330
 0.9580	24.8160
 0.9590	24.7950
 0.9600	24.7830
 0.9610	24.7690
 0.9620	24.7410
 0.9630	24.7330
 0.9640	24.7260
 0.9650	24.7140
 0.9660	24.6980
 0.9670	24.6860
 0.9680	24.6790
 0.9690	24.6720
 0.9700	24.6590
 0.9710	24.6490
 0.9720	24.6430
 0.9730	24.6390
 0.9740	24.6340
 0.9750	24.6350
 0.9760	24.6310
 0.9770	24.6220
 0.9780	24.6100
 0.9790	24.6100
 0.9800	24.6020
 0.9810	24.5970
 0.9820	24.6090
 0.9830	24.6040
 0.9840	24.5980
 0.9850	24.5980
 0.9860	24.6020
 0.9870	24.6090
 0.9880	24.6080
 0.9890	24.6010
 0.9900	24.5990
 0.9910	24.6030
 0.9920	24.6090
 0.9930	24.6110
 0.9940	24.6060
 0.9950	24.6210
 0.9960	24.6300
 0.9970	24.6170
 0.9980	24.5900
 0.9990	24.6100
 1.0000	24.6200
 1.0010	25.0030
 1.0020	25.0050
 1.0030	25.0080
 1.0040	25.0090
 1.0050	25.0120
 1.0060	25.0180
 1.0070	25.0230
 1.0080	25.0290
 1.0090	25.0380
 1.0100	25.0420
 1.0110	25.0450
 1.0120	25.0480
 1.0130	25.0470
 1.0140	25.0490
 1.0150	25.0530
 1.0160	25.0570
 1.0170	25.0610
 1.0180	25.0650
 1.0190	25.0710
 1.0200	25.0780
 1.0210	25.0810
 1.0220	25.0870
 1.0230	25.0910
 1.0240	25.0950
 1.0250	25.0980
 1.0260	25.1030
 1.0270	25.1070
 1.0280	25.1080
 1.0290	25.1110
 1.0300	25.1110
 1.0310	25.1140
 1.0320	25.1210
 1.0330	25.1240
 1.0340	25.1280
 1.0350	25.1350
 1.0360	25.1390
 1.0370	25.1450
 1.0380	25.1480
 1.0390	25.1500
 1.0400	25.1550
 1.0410	25.1590
 1.0420	25.1630
 1.0430	25.1680
 1.0440	25.1710
 1.0450	25.1680
 1.0460	25.1690
 1.0470	25.1730
 1.0480	25.1760
 1.0490	25.1800
 1.0500	25.1830
 1.0510	25.1850
 1.0520	25.1860
 1.0530	25.1890
 1.0540	25.1940
 1.0550	25.1960
 1.0560	25.1990
 1.0570	25.2020
 1.0580	25.2020
 1.0590	25.2030
 1.0600	25.2040
 1.0610	25.2060
 1.0620	25.2060
 1.0630	25.2070
 1.0640	25.2110
 1.0650	25.2130
 1.0660	25.2160
 1.0670	25.2180
 1.0680	25.2190
 1.0690	25.2170
 1.0700	25.2170
 1.0710	25.2150
 1.0720	25.2160
 1.0730	25.2180
 1.0740	25.2190
 1.0750	25.2210
 1.0760	25.2210
 1.0770	25.2190
 1.0780	25.2180
 1.0790	25.2160
 1.0800	25.2150
 1.0810	25.2150
 1.0820	25.2150
 1.0830	25.2190
 1.0840	25.2190
 1.0850	25.2150
 1.0860	25.2120
 1.0870	25.2090
 1.0880	25.2030
 1.0890	25.2000
 1.0900	25.1980
 1.0910	25.1950
 1.0920	25.1930
 1.0930	25.1900
 1.0940	25.1870
 1.0950	25.1850
 1.0960	25.1810
 1.0970	25.1800
 1.0980	25.1820
 1.0990	25.1800
 1.1000	25.1760
 1.1010	25.1740
 1.1020	25.1710
 1.1030	25.1670
 1.1040	25.1630
 1.1050	25.1620
 1.1060	25.1580
 1.1070	25.1520
 1.1080	25.1470
 1.1090	25.1430
 1.1100	25.1370
 1.1110	25.1310
 1.1120	25.1260
 1.1130	25.1220
 1.1140	25.1160
 1.1150	25.1090
 1.1160	25.1020
 1.1170	25.0930
 1.1180	25.0850
 1.1190	25.0760
 1.1200	25.0680
 1.1210	25.0590
 1.1220	25.0480
 1.1230	25.0360
 1.1240	25.0240
 1.1250	25.0100
 1.1260	24.9970
 1.1270	24.9790
 1.1280	24.9590
 1.1290	24.9360
 1.1300	24.9090
 1.1310	24.8820
 1.1320	24.8540
 1.1330	24.8230
 1.1340	24.7900
 1.1350	24.7540
 1.1360	24.7150
 1.1370	24.6750
 1.1380	24.6320
 1.1390	24.5880
 1.1400	24.5400
 1.1410	24.4930
 1.1420	24.4460
 1.1430	24.3960
 1.1440	24.3480
 1.1450	24.3010
 1.1460	24.2530
 1.1470	24.2030
 1.1480	24.1560
 1.1490	24.1080
 1.1500	24.0650
 1.1510	24.0230
 1.1520	23.9840
 1.1530	23.9480
 1.1540	23.9130
 1.1550	23.8800
 1.1560	23.8480
 1.1570	23.8190
 1.1580	23.7940
 1.1590	23.7710
 1.1600	23.7510
 1.1610	23.7310
 1.1620	23.7130
 1.1630	23.6940
 1.1640	23.6790
 1.1650	23.6640
 1.1660	23.6510
 1.1670	23.6380
 1.1680	23.6270
 1.1690	23.6160
 1.1700	23.6060
 1.1710	23.5980
 1.1720	23.5920
 1.1730	23.5840
 1.1740	23.5780
 1.1750	23.5690
 1.1760	23.5600
 1.1770	23.5500
 1.1780	23.5400
 1.1790	23.5300
 1.1800	23.5210
 1.1810	23.5130
 1.1820	23.5060
 1.1830	23.4990
 1.1840	23.4920
 1.1850	23.4840
 1.1860	23.4750
 1.1870	23.4670
 1.1880	23.4590
 1.1890	23.4520
 1.1900	23.4460
 1.1910	23.4410
 1.1920	23.4360
 1.1930	23.4300
 1.1940	23.4250
 1.1950	23.4200
 1.1960	23.4160
 1.1970	23.4130
 1.1980	23.4110
 1.1990	23.4080
 1.2000	23.4060
 1.2010	23.4040
 1.2020	23.4050
 1.2030	23.4060
 1.2040	23.4080
 1.2050	23.4100
 1.2060	23.4110
 1.2070	23.4150
 1.2080	23.4180
 1.2090	23.4210
 1.2100	23.4270
 1.2110	23.4330
 1.2120	23.4400
 1.2130	23.4470
 1.2140	23.4550
 1.2150	23.4640
 1.2160	23.4720
 1.2170	23.4830
 1.2180	23.4950
 1.2190	23.5050
 1.2200	23.5170
 1.2210	23.5280
 1.2220	23.5380
 1.2230	23.5500
 1.2240	23.5600
 1.2250	23.5700
 1.2260	23.5820
 1.2270	23.5920
 1.2280	23.6020
 1.2290	23.6130
 1.2300	23.6230
 1.2310	23.6320
 1.2320	23.6400
 1.2330	23.6480
 1.2340	23.6550
 1.2350	23.6590
 1.2360	23.6650
 1.2370	23.6720
 1.2380	23.6770
 1.2390	23.6830
 1.2400	23.6900
 1.2410	23.6970
 1.2420	23.7030
 1.2430	23.7100
 1.2440	23.7160
 1.2450	23.7200
 1.2460	23.7240
 1.2470	23.7260
 1.2480	23.7280
 1.2490	23.7300
 1.2500	23.7340
 1.2510	23.7360
 1.2520	23.7380
 1.2530	23.7400
 1.2540	23.7420
 1.2550	23.7440
 1.2560	23.7470
 1.2570	23.7480
 1.2580	23.7490
 1.2590	23.7490
 1.2600	23.7490
 1.2610	23.7480
 1.2620	23.7460
 1.2630	23.7440
 1.2640	23.7430
 1.2650	23.7420
 1.2660	23.7420
 1.2670	23.7410
 1.2680	23.7370
 1.2690	23.7330
 1.2700	23.7300
 1.2710	23.7250
 1.2720	23.7200
 1.2730	23.7160
 1.2740	23.7100
 1.2750	23.7050
 1.2760	23.7000
 1.2770	23.6930
 1.2780	23.6860
 1.2790	23.6770
 1.2800	23.6690
 1.2810	23.6610
 1.2820	23.6530
 1.2830	23.6440
 1.2840	23.6350
 1.2850	23.6250
 1.2860	23.6130
 1.2870	23.6010
 1.2880	23.5900
 1.2890	23.5790
 1.2900	23.5650
 1.2910	23.5530
 1.2920	23.5390
 1.2930	23.5210
 1.2940	23.5060
 1.2950	23.4900
 1.2960	23.4710
 1.2970	23.4530
 1.2980	23.4340
 1.2990	23.4130
 1.3000	23.3920
 1.3010	23.3700
 1.3020	23.3460
 1.3030	23.3230
 1.3040	23.2990
 1.3050	23.2730
 1.3060	23.2460
 1.3070	23.2180
 1.3080	23.1900
 1.3090	23.1610
 1.3100	23.1310
 1.3110	23.1010
 1.3120	23.0680
 1.3130	23.0330
 1.3140	22.9970
 1.3150	22.9620
 1.3160	22.9250
 1.3170	22.8860
 1.3180	22.8480
 1.3190	22.8100
 1.3200	22.7700
 1.3210	22.7280
 1.3220	22.6860
 1.3230	22.6420
 1.3240	22.5960
 1.3250	22.5500
 1.3260	22.5040
 1.3270	22.4570
 1.3280	22.4090
 1.3290	22.3600
 1.3300	22.3090
 1.3310	22.2580
 1.3320	22.2060
 1.3330	22.1540
 1.3340	22.1000
 1.3350	22.0460
 1.3360	21.9930
 1.3370	21.9380
 1.3380	21.8830
 1.3390	21.8300
 1.3400	21.7750
 1.3410	21.7220
 1.3420	21.6700
 1.3430	21.6170
 1.3440	21.5640
 1.3450	21.5110
 1.3460	21.4580
 1.3470	21.4060
 1.3480	21.3540
 1.3490	21.3020
 1.3500	21.2510
 1.3510	21.1990
 1.3520	21.1470
 1.3530	21.0960
 1.3540	21.0450
 1.3550	20.9930
 1.3560	20.9430
 1.3570	20.8910
 1.3580	20.8390
 1.3590	20.7860
 1.3600	20.7300
 1.3610	20.6730
 1.3620	20.6140
 1.3630	20.5540
 1.3640	20.4930
 1.3650	20.4280
 1.3660	20.3610
 1.3670	20.2910
 1.3680	20.2150
 1.3690	20.1340
 1.3700	20.0480
 1.3710	19.9550
 1.3720	19.8560
 1.3730	19.7490
 1.3740	19.6360
 1.3750	19.5130
 1.3760	19.3800
 1.3770	19.2360
 1.3780	19.0780
 1.3790	18.9100
 1.3800	18.7320
 1.3810	18.5410
 1.3820	18.3410
 1.3830	18.1320
 1.3840	17.9110
 1.3850	17.6780
 1.3860	17.4360
 1.3870	17.1810
 1.3880	16.9230
 1.3890	16.6560
 1.3900	16.3830
 1.3910	16.1080
 1.3920	15.8280
 1.3930	15.5420
 1.3940	15.2550
 1.3950	14.9650
 1.3960	14.6780
 1.3970	14.3950
 1.3980	14.1160
 1.3990	13.8450
 1.4000	13.5790
 1.4010	13.3180
 1.4020	13.0670
 1.4030	12.8220
 1.4040	12.5870
 1.4050	12.3620
 1.4060	12.1480
 1.4070	11.9450
 1.4080	11.7520
 1.4090	11.5690
 1.4100	11.3980
 1.4110	11.2350
 1.4120	11.0820
 1.4130	10.9390
 1.4140	10.8050
 1.4150	10.6810
 1.4160	10.5670
 1.4170	10.4600
 1.4180	10.3610
 1.4190	10.2690
 1.4200	10.1820
 1.4210	10.1020
 1.4220	10.0280
 1.4230	 9.9610
 1.4240	 9.8990
 1.4250	 9.8400
 1.4260	 9.7870
 1.4270	 9.7380
 1.4280	 9.6930
 1.4290	 9.6510
 1.4300	 9.6140
 1.4310	 9.5800
 1.4320	 9.5500
 1.4330	 9.5230
 1.4340	 9.4980
 1.4350	 9.4760
 1.4360	 9.4560
 1.4370	 9.4370
 1.4380	 9.4220
 1.4390	 9.4100
 1.4400	 9.3990
 1.4410	 9.3910
 1.4420	 9.3850
 1.4430	 9.3800
 1.4440	 9.3770
 1.4450	 9.3740
 1.4460	 9.3720
 1.4470	 9.3720
 1.4480	 9.3740
 1.4490	 9.3760
 1.4500	 9.3800
 1.4510	 9.3840
 1.4520	 9.3900
 1.4530	 9.3960
 1.4540	 9.4030
 1.4550	 9.4130
 1.4560	 9.4230
 1.4570	 9.4350
 1.4580	 9.4500
 1.4590	 9.4650
 1.4600	 9.4830
 1.4610	 9.5020
 1.4620	 9.5240
 1.4630	 9.5480
 1.4640	 9.5760
 1.4650	 9.6060
 1.4660	 9.6390
 1.4670	 9.6740
 1.4680	 9.7120
 1.4690	 9.7540
 1.4700	 9.7970
 1.4710	 9.8440
 1.4720	 9.8920
 1.4730	 9.9400
 1.4740	 9.9910
 1.4750	10.0450
 1.4760	10.0990
 1.4770	10.1550
 1.4780	10.2130
