Name: Betula papyrifera
Type: Vegetation
Class: Tree
Genus: Betula
Species: papyrifera
Sample No.: BEPA-2-35
Owner: UCSB
Wavelength Range: VSWIR
Origin: USA; Massachusetts; Harvard Forest
Collection Date: 7/8/2013
Description: Samples were collected as part of NSF Macrosystem Biology proposal titled: Collaborative Research: Thermal controls on ecosystem metabolism and function: scaling from leaves to canopies to regions. Samples were collected and overnighted to JPL facilities for processing. The same leaves were processed in the Nicolet and then measured using the ASD.
Measurement: Bidirectional reflectance
First Column: X
Second Column: Y
X Units: Wavelength (micrometers)
Y Units: Reflectance (percentage)
First X Value: 0.35
Last X Value: 2.5
Number of X Values: 2151
Additional Information: vegetation.tree.betula.papyrifera.vswir.bepa-2-35.ucsb.asd.ancillary.txt

 0.3500	 8.0850
 0.3510	 8.0610
 0.3520	 8.2730
 0.3530	 8.3590
 0.3540	 8.1280
 0.3550	 8.2520
 0.3560	 8.0840
 0.3570	 7.8480
 0.3580	 8.1030
 0.3590	 8.1220
 0.3600	 8.0790
 0.3610	 8.0740
 0.3620	 7.9540
 0.3630	 7.9750
 0.3640	 8.1190
 0.3650	 8.2600
 0.3660	 8.1520
 0.3670	 8.1000
 0.3680	 8.1400
 0.3690	 8.1130
 0.3700	 8.0110
 0.3710	 7.9640
 0.3720	 8.0260
 0.3730	 8.0930
 0.3740	 8.0980
 0.3750	 8.0510
 0.3760	 8.0030
 0.3770	 8.0350
 0.3780	 8.0850
 0.3790	 8.1110
 0.3800	 8.0930
 0.3810	 8.0570
 0.3820	 8.0030
 0.3830	 7.9390
 0.3840	 7.8690
 0.3850	 7.9450
 0.3860	 8.0620
 0.3870	 8.0570
 0.3880	 8.0390
 0.3890	 8.0240
 0.3900	 8.0270
 0.3910	 8.0730
 0.3920	 8.1040
 0.3930	 8.0840
 0.3940	 8.0150
 0.3950	 7.9940
 0.3960	 8.0100
 0.3970	 8.0260
 0.3980	 8.0010
 0.3990	 7.9890
 0.4000	 7.9930
 0.4010	 7.9970
 0.4020	 7.9600
 0.4030	 7.9690
 0.4040	 7.9900
 0.4050	 7.9910
 0.4060	 8.0310
 0.4070	 8.0420
 0.4080	 8.0350
 0.4090	 8.0660
 0.4100	 8.0620
 0.4110	 8.0360
 0.4120	 8.0070
 0.4130	 7.9740
 0.4140	 8.0200
 0.4150	 8.0740
 0.4160	 8.0490
 0.4170	 8.0700
 0.4180	 8.1200
 0.4190	 8.1520
 0.4200	 8.1020
 0.4210	 8.1400
 0.4220	 8.1720
 0.4230	 8.1360
 0.4240	 8.1810
 0.4250	 8.2120
 0.4260	 8.2250
 0.4270	 8.2520
 0.4280	 8.2590
 0.4290	 8.2660
 0.4300	 8.2780
 0.4310	 8.2760
 0.4320	 8.2780
 0.4330	 8.2730
 0.4340	 8.2590
 0.4350	 8.2770
 0.4360	 8.2920
 0.4370	 8.2940
 0.4380	 8.2940
 0.4390	 8.3170
 0.4400	 8.3450
 0.4410	 8.3590
 0.4420	 8.3550
 0.4430	 8.3630
 0.4440	 8.3730
 0.4450	 8.3630
 0.4460	 8.3580
 0.4470	 8.3700
 0.4480	 8.3940
 0.4490	 8.4130
 0.4500	 8.4030
 0.4510	 8.4010
 0.4520	 8.4340
 0.4530	 8.4490
 0.4540	 8.4470
 0.4550	 8.4420
 0.4560	 8.4550
 0.4570	 8.4560
 0.4580	 8.4670
 0.4590	 8.4900
 0.4600	 8.4800
 0.4610	 8.4800
 0.4620	 8.4910
 0.4630	 8.4970
 0.4640	 8.4890
 0.4650	 8.4780
 0.4660	 8.4740
 0.4670	 8.4750
 0.4680	 8.4720
 0.4690	 8.4650
 0.4700	 8.4590
 0.4710	 8.4780
 0.4720	 8.4870
 0.4730	 8.4800
 0.4740	 8.4660
 0.4750	 8.4740
 0.4760	 8.4820
 0.4770	 8.4770
 0.4780	 8.4630
 0.4790	 8.4690
 0.4800	 8.4800
 0.4810	 8.4760
 0.4820	 8.4710
 0.4830	 8.4740
 0.4840	 8.4830
 0.4850	 8.4850
 0.4860	 8.4770
 0.4870	 8.4730
 0.4880	 8.4800
 0.4890	 8.4900
 0.4900	 8.4970
 0.4910	 8.4990
 0.4920	 8.5020
 0.4930	 8.5240
 0.4940	 8.5520
 0.4950	 8.5710
 0.4960	 8.5680
 0.4970	 8.5760
 0.4980	 8.5890
 0.4990	 8.5960
 0.5000	 8.6260
 0.5010	 8.6540
 0.5020	 8.6720
 0.5030	 8.6880
 0.5040	 8.7170
 0.5050	 8.7450
 0.5060	 8.7670
 0.5070	 8.7980
 0.5080	 8.8360
 0.5090	 8.8790
 0.5100	 8.9250
 0.5110	 8.9770
 0.5120	 9.0390
 0.5130	 9.1110
 0.5140	 9.1820
 0.5150	 9.2650
 0.5160	 9.3630
 0.5170	 9.4740
 0.5180	 9.5860
 0.5190	 9.7090
 0.5200	 9.8420
 0.5210	 9.9820
 0.5220	10.1320
 0.5230	10.2870
 0.5240	10.4420
 0.5250	10.5980
 0.5260	10.7470
 0.5270	10.8900
 0.5280	11.0300
 0.5290	11.1600
 0.5300	11.2820
 0.5310	11.3950
 0.5320	11.5010
 0.5330	11.5980
 0.5340	11.6860
 0.5350	11.7650
 0.5360	11.8300
 0.5370	11.8860
 0.5380	11.9350
 0.5390	11.9790
 0.5400	12.0150
 0.5410	12.0390
 0.5420	12.0570
 0.5430	12.0910
 0.5440	12.1240
 0.5450	12.1570
 0.5460	12.1940
 0.5470	12.2490
 0.5480	12.2990
 0.5490	12.3310
 0.5500	12.3490
 0.5510	12.3610
 0.5520	12.3700
 0.5530	12.3710
 0.5540	12.3600
 0.5550	12.3380
 0.5560	12.3020
 0.5570	12.2510
 0.5580	12.1920
 0.5590	12.1230
 0.5600	12.0450
 0.5610	11.9660
 0.5620	11.8670
 0.5630	11.7570
 0.5640	11.6560
 0.5650	11.5490
 0.5660	11.4320
 0.5670	11.3080
 0.5680	11.1870
 0.5690	11.0670
 0.5700	10.9510
 0.5710	10.8420
 0.5720	10.7370
 0.5730	10.6340
 0.5740	10.5360
 0.5750	10.4470
 0.5760	10.3720
 0.5770	10.3030
 0.5780	10.2350
 0.5790	10.1700
 0.5800	10.1110
 0.5810	10.0570
 0.5820	10.0070
 0.5830	 9.9530
 0.5840	 9.9100
 0.5850	 9.8780
 0.5860	 9.8410
 0.5870	 9.8050
 0.5880	 9.7750
 0.5890	 9.7490
 0.5900	 9.7190
 0.5910	 9.6940
 0.5920	 9.6770
 0.5930	 9.6670
 0.5940	 9.6560
 0.5950	 9.6450
 0.5960	 9.6330
 0.5970	 9.6190
 0.5980	 9.6120
 0.5990	 9.6040
 0.6000	 9.5880
 0.6010	 9.5760
 0.6020	 9.5600
 0.6030	 9.5390
 0.6040	 9.5140
 0.6050	 9.4890
 0.6060	 9.4600
 0.6070	 9.4260
 0.6080	 9.3980
 0.6090	 9.3580
 0.6100	 9.3010
 0.6110	 9.2360
 0.6120	 9.2130
 0.6130	 9.2010
 0.6140	 9.1810
 0.6150	 9.1620
 0.6160	 9.1390
 0.6170	 9.1180
 0.6180	 9.1000
 0.6190	 9.0810
 0.6200	 9.0630
 0.6210	 9.0470
 0.6220	 9.0290
 0.6230	 9.0170
 0.6240	 9.0090
 0.6250	 9.0030
 0.6260	 8.9980
 0.6270	 8.9920
 0.6280	 8.9850
 0.6290	 8.9780
 0.6300	 8.9710
 0.6310	 8.9690
 0.6320	 8.9700
 0.6330	 8.9650
 0.6340	 8.9550
 0.6350	 8.9420
 0.6360	 8.9290
 0.6370	 8.9180
 0.6380	 8.9030
 0.6390	 8.8840
 0.6400	 8.8600
 0.6410	 8.8370
 0.6420	 8.8150
 0.6430	 8.7960
 0.6440	 8.7770
 0.6450	 8.7550
 0.6460	 8.7380
 0.6470	 8.7270
 0.6480	 8.7130
 0.6490	 8.6960
 0.6500	 8.6800
 0.6510	 8.6720
 0.6520	 8.6650
 0.6530	 8.6590
 0.6540	 8.6510
 0.6550	 8.6380
 0.6560	 8.6290
 0.6570	 8.6220
 0.6580	 8.6140
 0.6590	 8.6060
 0.6600	 8.5960
 0.6610	 8.5850
 0.6620	 8.5790
 0.6630	 8.5690
 0.6640	 8.5640
 0.6650	 8.5700
 0.6660	 8.5630
 0.6670	 8.5620
 0.6680	 8.5660
 0.6690	 8.5700
 0.6700	 8.5770
 0.6710	 8.5910
 0.6720	 8.6100
 0.6730	 8.6180
 0.6740	 8.6340
 0.6750	 8.6550
 0.6760	 8.6770
 0.6770	 8.7050
 0.6780	 8.7290
 0.6790	 8.7510
 0.6800	 8.7830
 0.6810	 8.8190
 0.6820	 8.8540
 0.6830	 8.8860
 0.6840	 8.9160
 0.6850	 8.9540
 0.6860	 8.9950
 0.6870	 9.0340
 0.6880	 9.0810
 0.6890	 9.1370
 0.6900	 9.2060
 0.6910	 9.2920
 0.6920	 9.4000
 0.6930	 9.5360
 0.6940	 9.7100
 0.6950	 9.9400
 0.6960	10.2220
 0.6970	10.5660
 0.6980	10.9840
 0.6990	11.4830
 0.7000	12.0610
 0.7010	12.7110
 0.7020	13.4310
 0.7030	14.2190
 0.7040	15.0660
 0.7050	15.9640
 0.7060	16.9070
 0.7070	17.8920
 0.7080	18.9100
 0.7090	19.9560
 0.7100	21.0260
 0.7110	22.1170
 0.7120	23.2250
 0.7130	24.3350
 0.7140	25.4590
 0.7150	26.5920
 0.7160	27.7220
 0.7170	28.8380
 0.7180	29.9510
 0.7190	31.0550
 0.7200	32.1350
 0.7210	33.1980
 0.7220	34.2400
 0.7230	35.2600
 0.7240	36.2570
 0.7250	37.2030
 0.7260	38.1160
 0.7270	39.0090
 0.7280	39.8630
 0.7290	40.6610
 0.7300	41.4230
 0.7310	42.1750
 0.7320	42.8670
 0.7330	43.5190
 0.7340	44.1410
 0.7350	44.7260
 0.7360	45.2690
 0.7370	45.7860
 0.7380	46.2830
 0.7390	46.7310
 0.7400	47.1560
 0.7410	47.5540
 0.7420	47.9200
 0.7430	48.2760
 0.7440	48.5810
 0.7450	48.8480
 0.7460	49.1330
 0.7470	49.3930
 0.7480	49.6210
 0.7490	49.8190
 0.7500	50.0060
 0.7510	50.1790
 0.7520	50.3340
 0.7530	50.4750
 0.7540	50.6260
 0.7550	50.7490
 0.7560	50.8430
 0.7570	50.9360
 0.7580	51.0200
 0.7590	51.0980
 0.7600	51.1710
 0.7610	51.2420
 0.7620	51.3030
 0.7630	51.3540
 0.7640	51.3970
 0.7650	51.4450
 0.7660	51.4810
 0.7670	51.5120
 0.7680	51.5540
 0.7690	51.5820
 0.7700	51.6140
 0.7710	51.6520
 0.7720	51.6670
 0.7730	51.6820
 0.7740	51.7030
 0.7750	51.7260
 0.7760	51.7540
 0.7770	51.7610
 0.7780	51.7640
 0.7790	51.7890
 0.7800	51.8170
 0.7810	51.8330
 0.7820	51.8450
 0.7830	51.8730
 0.7840	51.8930
 0.7850	51.9110
 0.7860	51.9300
 0.7870	51.9410
 0.7880	51.9570
 0.7890	51.9750
 0.7900	51.9870
 0.7910	52.0060
 0.7920	52.0140
 0.7930	52.0140
 0.7940	52.0240
 0.7950	52.0440
 0.7960	52.0590
 0.7970	52.0640
 0.7980	52.0680
 0.7990	52.0710
 0.8000	52.0840
 0.8010	52.1110
 0.8020	52.1310
 0.8030	52.1240
 0.8040	52.1100
 0.8050	52.1190
 0.8060	52.1200
 0.8070	52.1100
 0.8080	52.1040
 0.8090	52.1230
 0.8100	52.1440
 0.8110	52.1450
 0.8120	52.1230
 0.8130	52.1070
 0.8140	52.1220
 0.8150	52.1320
 0.8160	52.1110
 0.8170	52.1100
 0.8180	52.1070
 0.8190	52.1020
 0.8200	52.0990
 0.8210	52.0910
 0.8220	52.0860
 0.8230	52.0890
 0.8240	52.0940
 0.8250	52.0810
 0.8260	52.0620
 0.8270	52.0530
 0.8280	52.0550
 0.8290	52.0490
 0.8300	52.0410
 0.8310	52.0350
 0.8320	52.0120
 0.8330	51.9970
 0.8340	51.9910
 0.8350	51.9840
 0.8360	51.9850
 0.8370	51.9840
 0.8380	51.9760
 0.8390	51.9630
 0.8400	51.9680
 0.8410	51.9610
 0.8420	51.9450
 0.8430	51.9740
 0.8440	51.9590
 0.8450	51.9310
 0.8460	51.9270
 0.8470	51.9310
 0.8480	51.9230
 0.8490	51.9140
 0.8500	51.9200
 0.8510	51.9250
 0.8520	51.9160
 0.8530	51.8980
 0.8540	51.8890
 0.8550	51.9100
 0.8560	51.9260
 0.8570	51.9190
 0.8580	51.8980
 0.8590	51.8990
 0.8600	51.9110
 0.8610	51.9160
 0.8620	51.9030
 0.8630	51.8960
 0.8640	51.8900
 0.8650	51.8770
 0.8660	51.8840
 0.8670	51.8980
 0.8680	51.9030
 0.8690	51.8910
 0.8700	51.8890
 0.8710	51.8800
 0.8720	51.8740
 0.8730	51.8910
 0.8740	51.8990
 0.8750	51.8970
 0.8760	51.8920
 0.8770	51.8960
 0.8780	51.9000
 0.8790	51.8940
 0.8800	51.8870
 0.8810	51.9060
 0.8820	51.9170
 0.8830	51.9170
 0.8840	51.9140
 0.8850	51.9260
 0.8860	51.9280
 0.8870	51.9170
 0.8880	51.9040
 0.8890	51.9100
 0.8900	51.9190
 0.8910	51.9210
 0.8920	51.9150
 0.8930	51.9290
 0.8940	51.9250
 0.8950	51.9090
 0.8960	51.9150
 0.8970	51.9300
 0.8980	51.9420
 0.8990	51.9480
 0.9000	51.9560
 0.9010	51.9430
 0.9020	51.9400
 0.9030	51.9600
 0.9040	51.9830
 0.9050	51.9770
 0.9060	51.9590
 0.9070	51.9510
 0.9080	51.9700
 0.9090	51.9690
 0.9100	51.9710
 0.9110	51.9920
 0.9120	51.9920
 0.9130	52.0020
 0.9140	52.0020
 0.9150	51.9780
 0.9160	51.9740
 0.9170	51.9980
 0.9180	52.0240
 0.9190	52.0240
 0.9200	51.9990
 0.9210	51.9990
 0.9220	52.0180
 0.9230	52.0160
 0.9240	52.0080
 0.9250	52.0030
 0.9260	51.9960
 0.9270	51.9800
 0.9280	51.9720
 0.9290	51.9770
 0.9300	51.9870
 0.9310	51.9810
 0.9320	51.9610
 0.9330	51.9420
 0.9340	51.9320
 0.9350	51.9290
 0.9360	51.9180
 0.9370	51.9000
 0.9380	51.8820
 0.9390	51.8750
 0.9400	51.8960
 0.9410	51.8850
 0.9420	51.8310
 0.9430	51.8230
 0.9440	51.8050
 0.9450	51.7830
 0.9460	51.7630
 0.9470	51.7210
 0.9480	51.6680
 0.9490	51.6360
 0.9500	51.6350
 0.9510	51.5980
 0.9520	51.5460
 0.9530	51.5040
 0.9540	51.4790
 0.9550	51.3960
 0.9560	51.3550
 0.9570	51.3470
 0.9580	51.3270
 0.9590	51.2750
 0.9600	51.2240
 0.9610	51.1790
 0.9620	51.1400
 0.9630	51.1210
 0.9640	51.0900
 0.9650	51.0760
 0.9660	51.1020
 0.9670	51.0910
 0.9680	51.0820
 0.9690	51.0730
 0.9700	51.0550
 0.9710	51.0620
 0.9720	51.0530
 0.9730	51.0300
 0.9740	51.0140
 0.9750	51.0060
 0.9760	51.0020
 0.9770	51.0040
 0.9780	51.0190
 0.9790	51.0490
 0.9800	51.0580
 0.9810	51.0360
 0.9820	51.0020
 0.9830	51.0360
 0.9840	51.0500
 0.9850	51.0470
 0.9860	51.0640
 0.9870	51.0530
 0.9880	51.0630
 0.9890	51.0900
 0.9900	51.1090
 0.9910	51.1230
 0.9920	51.2320
 0.9930	51.3410
 0.9940	51.4510
 0.9950	51.5600
 0.9960	51.6700
 0.9970	51.7790
 0.9980	51.8880
 0.9990	51.9980
 1.0000	52.1070
 1.0010	52.2170
 1.0020	52.3260
 1.0030	52.4360
 1.0040	52.5450
 1.0050	52.6540
 1.0060	52.7640
 1.0070	52.8730
 1.0080	52.9830
 1.0090	53.0920
 1.0100	53.0920
 1.0110	53.1070
 1.0120	53.1160
 1.0130	53.1120
 1.0140	53.1210
 1.0150	53.1350
 1.0160	53.1450
 1.0170	53.1670
 1.0180	53.1860
 1.0190	53.1940
 1.0200	53.2060
 1.0210	53.2150
 1.0220	53.2260
 1.0230	53.2410
 1.0240	53.2600
 1.0250	53.2730
 1.0260	53.2900
 1.0270	53.3010
 1.0280	53.3050
 1.0290	53.3150
 1.0300	53.3270
 1.0310	53.3360
 1.0320	53.3470
 1.0330	53.3540
 1.0340	53.3590
 1.0350	53.3640
 1.0360	53.3690
 1.0370	53.3800
 1.0380	53.3910
 1.0390	53.4020
 1.0400	53.4190
 1.0410	53.4470
 1.0420	53.4600
 1.0430	53.4700
 1.0440	53.4800
 1.0450	53.4820
 1.0460	53.4860
 1.0470	53.4940
 1.0480	53.5020
 1.0490	53.5090
 1.0500	53.5170
 1.0510	53.5310
 1.0520	53.5410
 1.0530	53.5470
 1.0540	53.5490
 1.0550	53.5520
 1.0560	53.5510
 1.0570	53.5550
 1.0580	53.5620
 1.0590	53.5670
 1.0600	53.5750
 1.0610	53.5820
 1.0620	53.5900
 1.0630	53.5940
 1.0640	53.5990
 1.0650	53.5990
 1.0660	53.5880
 1.0670	53.5850
 1.0680	53.5820
 1.0690	53.5780
 1.0700	53.5800
 1.0710	53.5890
 1.0720	53.5900
 1.0730	53.5880
 1.0740	53.5890
 1.0750	53.5880
 1.0760	53.5870
 1.0770	53.5910
 1.0780	53.5860
 1.0790	53.5720
 1.0800	53.5640
 1.0810	53.5570
 1.0820	53.5490
 1.0830	53.5430
 1.0840	53.5370
 1.0850	53.5320
 1.0860	53.5190
 1.0870	53.5120
 1.0880	53.5070
 1.0890	53.5020
 1.0900	53.4990
 1.0910	53.4930
 1.0920	53.4890
 1.0930	53.4800
 1.0940	53.4690
 1.0950	53.4560
 1.0960	53.4380
 1.0970	53.4250
 1.0980	53.4140
 1.0990	53.4040
 1.1000	53.4000
 1.1010	53.3930
 1.1020	53.3830
 1.1030	53.3740
 1.1040	53.3650
 1.1050	53.3510
 1.1060	53.3380
 1.1070	53.3240
 1.1080	53.3100
 1.1090	53.2960
 1.1100	53.2810
 1.1110	53.2640
 1.1120	53.2490
 1.1130	53.2340
 1.1140	53.2190
 1.1150	53.2070
 1.1160	53.1920
 1.1170	53.1760
 1.1180	53.1570
 1.1190	53.1370
 1.1200	53.1110
 1.1210	53.0830
 1.1220	53.0560
 1.1230	53.0280
 1.1240	52.9990
 1.1250	52.9660
 1.1260	52.9310
 1.1270	52.8900
 1.1280	52.8440
 1.1290	52.7940
 1.1300	52.7400
 1.1310	52.6810
 1.1320	52.6160
 1.1330	52.5460
 1.1340	52.4720
 1.1350	52.3890
 1.1360	52.2970
 1.1370	52.2020
 1.1380	52.1050
 1.1390	52.0020
 1.1400	51.8950
 1.1410	51.7870
 1.1420	51.6770
 1.1430	51.5660
 1.1440	51.4580
 1.1450	51.3530
 1.1460	51.2480
 1.1470	51.1400
 1.1480	51.0360
 1.1490	50.9280
 1.1500	50.8330
 1.1510	50.7380
 1.1520	50.6550
 1.1530	50.5840
 1.1540	50.5140
 1.1550	50.4470
 1.1560	50.3880
 1.1570	50.3380
 1.1580	50.2940
 1.1590	50.2580
 1.1600	50.2290
 1.1610	50.2010
 1.1620	50.1730
 1.1630	50.1470
 1.1640	50.1270
 1.1650	50.1130
 1.1660	50.1040
 1.1670	50.0950
 1.1680	50.0950
 1.1690	50.0910
 1.1700	50.0870
 1.1710	50.0810
 1.1720	50.0730
 1.1730	50.0650
 1.1740	50.0560
 1.1750	50.0450
 1.1760	50.0400
 1.1770	50.0320
 1.1780	50.0200
 1.1790	50.0090
 1.1800	49.9950
 1.1810	49.9830
 1.1820	49.9760
 1.1830	49.9710
 1.1840	49.9620
 1.1850	49.9470
 1.1860	49.9320
 1.1870	49.9210
 1.1880	49.9120
 1.1890	49.9070
 1.1900	49.9010
 1.1910	49.8970
 1.1920	49.8920
 1.1930	49.8890
 1.1940	49.8860
 1.1950	49.8870
 1.1960	49.8820
 1.1970	49.8780
 1.1980	49.8800
 1.1990	49.8830
 1.2000	49.8880
 1.2010	49.8930
 1.2020	49.8960
 1.2030	49.8990
 1.2040	49.9060
 1.2050	49.9130
 1.2060	49.9240
 1.2070	49.9390
 1.2080	49.9530
 1.2090	49.9670
 1.2100	49.9850
 1.2110	50.0000
 1.2120	50.0120
 1.2130	50.0280
 1.2140	50.0450
 1.2150	50.0640
 1.2160	50.0840
 1.2170	50.1070
 1.2180	50.1330
 1.2190	50.1580
 1.2200	50.1840
 1.2210	50.2120
 1.2220	50.2350
 1.2230	50.2550
 1.2240	50.2800
 1.2250	50.3030
 1.2260	50.3230
 1.2270	50.3480
 1.2280	50.3670
 1.2290	50.3840
 1.2300	50.4020
 1.2310	50.4170
 1.2320	50.4350
 1.2330	50.4520
 1.2340	50.4700
 1.2350	50.4940
 1.2360	50.5090
 1.2370	50.5180
 1.2380	50.5310
 1.2390	50.5430
 1.2400	50.5540
 1.2410	50.5700
 1.2420	50.5840
 1.2430	50.5950
 1.2440	50.6040
 1.2450	50.6150
 1.2460	50.6270
 1.2470	50.6340
 1.2480	50.6400
 1.2490	50.6510
 1.2500	50.6570
 1.2510	50.6610
 1.2520	50.6730
 1.2530	50.6780
 1.2540	50.6880
 1.2550	50.7000
 1.2560	50.7050
 1.2570	50.7120
 1.2580	50.7170
 1.2590	50.7210
 1.2600	50.7260
 1.2610	50.7280
 1.2620	50.7290
 1.2630	50.7280
 1.2640	50.7230
 1.2650	50.7160
 1.2660	50.7110
 1.2670	50.7040
 1.2680	50.7000
 1.2690	50.6970
 1.2700	50.6910
 1.2710	50.6870
 1.2720	50.6820
 1.2730	50.6780
 1.2740	50.6750
 1.2750	50.6690
 1.2760	50.6640
 1.2770	50.6540
 1.2780	50.6440
 1.2790	50.6330
 1.2800	50.6180
 1.2810	50.6020
 1.2820	50.5840
 1.2830	50.5640
 1.2840	50.5440
 1.2850	50.5250
 1.2860	50.5040
 1.2870	50.4820
 1.2880	50.4570
 1.2890	50.4330
 1.2900	50.4060
 1.2910	50.3830
 1.2920	50.3560
 1.2930	50.3200
 1.2940	50.2850
 1.2950	50.2490
 1.2960	50.2080
 1.2970	50.1700
 1.2980	50.1310
 1.2990	50.0830
 1.3000	50.0350
 1.3010	49.9900
 1.3020	49.9410
 1.3030	49.8870
 1.3040	49.8300
 1.3050	49.7720
 1.3060	49.7100
 1.3070	49.6510
 1.3080	49.5870
 1.3090	49.5180
 1.3100	49.4530
 1.3110	49.3830
 1.3120	49.3100
 1.3130	49.2380
 1.3140	49.1590
 1.3150	49.0730
 1.3160	48.9890
 1.3170	48.9040
 1.3180	48.8150
 1.3190	48.7190
 1.3200	48.6200
 1.3210	48.5160
 1.3220	48.4100
 1.3230	48.3040
 1.3240	48.1970
 1.3250	48.0890
 1.3260	47.9820
 1.3270	47.8740
 1.3280	47.7660
 1.3290	47.6530
 1.3300	47.5350
 1.3310	47.4180
 1.3320	47.3000
 1.3330	47.1810
 1.3340	47.0600
 1.3350	46.9380
 1.3360	46.8120
 1.3370	46.6820
 1.3380	46.5550
 1.3390	46.4270
 1.3400	46.3000
 1.3410	46.1740
 1.3420	46.0510
 1.3430	45.9310
 1.3440	45.8110
 1.3450	45.6930
 1.3460	45.5780
 1.3470	45.4610
 1.3480	45.3420
 1.3490	45.2240
 1.3500	45.1060
 1.3510	44.9900
 1.3520	44.8780
 1.3530	44.7630
 1.3540	44.6480
 1.3550	44.5320
 1.3560	44.4110
 1.3570	44.2920
 1.3580	44.1750
 1.3590	44.0530
 1.3600	43.9300
 1.3610	43.8020
 1.3620	43.6690
 1.3630	43.5320
 1.3640	43.3820
 1.3650	43.2220
 1.3660	43.0550
 1.3670	42.8760
 1.3680	42.6930
 1.3690	42.4970
 1.3700	42.2840
 1.3710	42.0620
 1.3720	41.8220
 1.3730	41.5690
 1.3740	41.3020
 1.3750	41.0090
 1.3760	40.6980
 1.3770	40.3630
 1.3780	40.0030
 1.3790	39.6240
 1.3800	39.2180
 1.3810	38.7850
 1.3820	38.3320
 1.3830	37.8580
 1.3840	37.3610
 1.3850	36.8440
 1.3860	36.3090
 1.3870	35.7510
 1.3880	35.1870
 1.3890	34.6080
 1.3900	34.0170
 1.3910	33.4240
 1.3920	32.8210
 1.3930	32.2120
 1.3940	31.6050
 1.3950	30.9930
 1.3960	30.3880
 1.3970	29.7920
 1.3980	29.2030
 1.3990	28.6340
 1.4000	28.0810
 1.4010	27.5410
 1.4020	27.0250
 1.4030	26.5280
 1.4040	26.0510
 1.4050	25.6000
 1.4060	25.1700
 1.4070	24.7690
 1.4080	24.3900
 1.4090	24.0320
 1.4100	23.7010
 1.4110	23.3910
 1.4120	23.1020
 1.4130	22.8360
 1.4140	22.5870
 1.4150	22.3630
 1.4160	22.1590
 1.4170	21.9700
 1.4180	21.8010
 1.4190	21.6440
 1.4200	21.5020
 1.4210	21.3770
 1.4220	21.2640
 1.4230	21.1640
 1.4240	21.0750
 1.4250	20.9940
 1.4260	20.9240
 1.4270	20.8620
 1.4280	20.8090
 1.4290	20.7640
 1.4300	20.7280
 1.4310	20.6980
 1.4320	20.6740
 1.4330	20.6560
 1.4340	20.6450
 1.4350	20.6360
 1.4360	20.6330
 1.4370	20.6330
 1.4380	20.6360
 1.4390	20.6450
 1.4400	20.6570
 1.4410	20.6720
 1.4420	20.6920
 1.4430	20.7120
 1.4440	20.7350
 1.4450	20.7600
 1.4460	20.7870
 1.4470	20.8170
 1.4480	20.8470
 1.4490	20.8760
 1.4500	20.9070
 1.4510	20.9400
 1.4520	20.9750
 1.4530	21.0120
 1.4540	21.0500
 1.4550	21.0890
 1.4560	21.1290
 1.4570	21.1730
 1.4580	21.2230
 1.4590	21.2760
 1.4600	21.3320
 1.4610	21.3930
 1.4620	21.4570
 1.4630	21.5280
 1.4640	21.6040
 1.4650	21.6880
 1.4660	21.7790
 1.4670	21.8750
 1.4680	21.9780
 1.4690	22.0850
 1.4700	22.1960
 1.4710	22.3150
 1.4720	22.4360
