Name: Quercus agrifolia 2
Type: vegetation
Class: Tree
Genus: Quercus
Species: agrifolia
Sample No.: VH176
Owner: UCSB
Wavelength Range: VSWIR
Origin: 34.7156; -120.0603; WGS84
Collection Date: 6/9/2013
Description: Samples were collected as part of the HyspIRI Airborne Campaign. 48 individual plants were sampled in three times in 2013 - spring  summer  and fall. The name of the sample includes a 1  2  or 3 which references a different individual of the species. Samples were taken to JPL and processed within 48 hours of collection. The same leaves were processed in the Nicolet and then measured using the ASD.
Measurement: Bidirectional reflectance
First Column: X
Second Column: Y
X Units: Wavelength (micrometers)
Y Units: Reflectance (percentage)
First X Value: 0.35
Last X Value: 2.5
Number of X Values: 2151
Additional Information: vegetation.tree.quercus.agrifolia.vswir.vh176.ucsb.asd.ancillary.txt

 0.3500	 4.8490
 0.3510	 4.7180
 0.3520	 4.7700
 0.3530	 4.8020
 0.3540	 4.6230
 0.3550	 4.4810
 0.3560	 4.6090
 0.3570	 4.7910
 0.3580	 4.6530
 0.3590	 4.6450
 0.3600	 4.6040
 0.3610	 4.5170
 0.3620	 4.6770
 0.3630	 4.7610
 0.3640	 4.7220
 0.3650	 4.6110
 0.3660	 4.5460
 0.3670	 4.6000
 0.3680	 4.6980
 0.3690	 4.6680
 0.3700	 4.6190
 0.3710	 4.6360
 0.3720	 4.7100
 0.3730	 4.6550
 0.3740	 4.6390
 0.3750	 4.6430
 0.3760	 4.6070
 0.3770	 4.5660
 0.3780	 4.5490
 0.3790	 4.5530
 0.3800	 4.5460
 0.3810	 4.6200
 0.3820	 4.6300
 0.3830	 4.5150
 0.3840	 4.5010
 0.3850	 4.5780
 0.3860	 4.6220
 0.3870	 4.5140
 0.3880	 4.4950
 0.3890	 4.5220
 0.3900	 4.5260
 0.3910	 4.4510
 0.3920	 4.5220
 0.3930	 4.6070
 0.3940	 4.5860
 0.3950	 4.5930
 0.3960	 4.5790
 0.3970	 4.5570
 0.3980	 4.5490
 0.3990	 4.5880
 0.4000	 4.6240
 0.4010	 4.6280
 0.4020	 4.6090
 0.4030	 4.5990
 0.4040	 4.6130
 0.4050	 4.6550
 0.4060	 4.6940
 0.4070	 4.7120
 0.4080	 4.7080
 0.4090	 4.6950
 0.4100	 4.7100
 0.4110	 4.7250
 0.4120	 4.7300
 0.4130	 4.7760
 0.4140	 4.7950
 0.4150	 4.8040
 0.4160	 4.8400
 0.4170	 4.8550
 0.4180	 4.8850
 0.4190	 4.9290
 0.4200	 4.9290
 0.4210	 4.9480
 0.4220	 4.9650
 0.4230	 4.9720
 0.4240	 5.0210
 0.4250	 5.0600
 0.4260	 5.0760
 0.4270	 5.0960
 0.4280	 5.1260
 0.4290	 5.1350
 0.4300	 5.1280
 0.4310	 5.1600
 0.4320	 5.1940
 0.4330	 5.2160
 0.4340	 5.2300
 0.4350	 5.2650
 0.4360	 5.2700
 0.4370	 5.2580
 0.4380	 5.2850
 0.4390	 5.3030
 0.4400	 5.3200
 0.4410	 5.3400
 0.4420	 5.3500
 0.4430	 5.3580
 0.4440	 5.3690
 0.4450	 5.3810
 0.4460	 5.4090
 0.4470	 5.4330
 0.4480	 5.4410
 0.4490	 5.4510
 0.4500	 5.4600
 0.4510	 5.4750
 0.4520	 5.5000
 0.4530	 5.4980
 0.4540	 5.4980
 0.4550	 5.5000
 0.4560	 5.4980
 0.4570	 5.5240
 0.4580	 5.5400
 0.4590	 5.5400
 0.4600	 5.5590
 0.4610	 5.5600
 0.4620	 5.5540
 0.4630	 5.5670
 0.4640	 5.5560
 0.4650	 5.5630
 0.4660	 5.5820
 0.4670	 5.5790
 0.4680	 5.5790
 0.4690	 5.5820
 0.4700	 5.5840
 0.4710	 5.5940
 0.4720	 5.5810
 0.4730	 5.5680
 0.4740	 5.5960
 0.4750	 5.6000
 0.4760	 5.6000
 0.4770	 5.6100
 0.4780	 5.6160
 0.4790	 5.6130
 0.4800	 5.6040
 0.4810	 5.5940
 0.4820	 5.6070
 0.4830	 5.6160
 0.4840	 5.6160
 0.4850	 5.6290
 0.4860	 5.6400
 0.4870	 5.6490
 0.4880	 5.6550
 0.4890	 5.6660
 0.4900	 5.6810
 0.4910	 5.6960
 0.4920	 5.7080
 0.4930	 5.7280
 0.4940	 5.7490
 0.4950	 5.7690
 0.4960	 5.7880
 0.4970	 5.8080
 0.4980	 5.8360
 0.4990	 5.8710
 0.5000	 5.9110
 0.5010	 5.9500
 0.5020	 5.9910
 0.5030	 6.0320
 0.5040	 6.0940
 0.5050	 6.1600
 0.5060	 6.2170
 0.5070	 6.2890
 0.5080	 6.3710
 0.5090	 6.4580
 0.5100	 6.5550
 0.5110	 6.6570
 0.5120	 6.7670
 0.5130	 6.8880
 0.5140	 7.0190
 0.5150	 7.1660
 0.5160	 7.3230
 0.5170	 7.4840
 0.5180	 7.6570
 0.5190	 7.8430
 0.5200	 8.0340
 0.5210	 8.2210
 0.5220	 8.4070
 0.5230	 8.5940
 0.5240	 8.7940
 0.5250	 8.9860
 0.5260	 9.1670
 0.5270	 9.3350
 0.5280	 9.4970
 0.5290	 9.6540
 0.5300	 9.8070
 0.5310	 9.9470
 0.5320	10.0670
 0.5330	10.1800
 0.5340	10.2860
 0.5350	10.3770
 0.5360	10.4640
 0.5370	10.5460
 0.5380	10.6190
 0.5390	10.6890
 0.5400	10.7550
 0.5410	10.8170
 0.5420	10.8760
 0.5430	10.9330
 0.5440	10.9890
 0.5450	11.0420
 0.5460	11.0900
 0.5470	11.1290
 0.5480	11.1640
 0.5490	11.1960
 0.5500	11.2280
 0.5510	11.2540
 0.5520	11.2700
 0.5530	11.2720
 0.5540	11.2630
 0.5550	11.2420
 0.5560	11.2080
 0.5570	11.1630
 0.5580	11.1090
 0.5590	11.0470
 0.5600	10.9750
 0.5610	10.8880
 0.5620	10.8010
 0.5630	10.7090
 0.5640	10.6040
 0.5650	10.5000
 0.5660	10.3810
 0.5670	10.2450
 0.5680	10.1050
 0.5690	 9.9660
 0.5700	 9.8290
 0.5710	 9.6930
 0.5720	 9.5640
 0.5730	 9.4380
 0.5740	 9.3220
 0.5750	 9.2200
 0.5760	 9.1430
 0.5770	 9.0760
 0.5780	 9.0060
 0.5790	 8.9370
 0.5800	 8.8710
 0.5810	 8.8060
 0.5820	 8.7330
 0.5830	 8.6710
 0.5840	 8.6110
 0.5850	 8.5490
 0.5860	 8.4810
 0.5870	 8.4170
 0.5880	 8.3540
 0.5890	 8.2980
 0.5900	 8.2690
 0.5910	 8.2540
 0.5920	 8.2400
 0.5930	 8.2220
 0.5940	 8.1990
 0.5950	 8.1700
 0.5960	 8.1400
 0.5970	 8.1060
 0.5980	 8.0790
 0.5990	 8.0560
 0.6000	 8.0350
 0.6010	 8.0140
 0.6020	 7.9860
 0.6030	 7.9510
 0.6040	 7.9170
 0.6050	 7.8750
 0.6060	 7.8260
 0.6070	 7.7710
 0.6080	 7.7160
 0.6090	 7.6620
 0.6100	 7.6060
 0.6110	 7.5530
 0.6120	 7.4920
 0.6130	 7.4290
 0.6140	 7.3700
 0.6150	 7.3160
 0.6160	 7.2640
 0.6170	 7.2180
 0.6180	 7.1780
 0.6190	 7.1340
 0.6200	 7.0970
 0.6210	 7.0660
 0.6220	 7.0410
 0.6230	 7.0200
 0.6240	 7.0010
 0.6250	 6.9830
 0.6260	 6.9640
 0.6270	 6.9540
 0.6280	 6.9470
 0.6290	 6.9420
 0.6300	 6.9340
 0.6310	 6.9260
 0.6320	 6.9200
 0.6330	 6.9080
 0.6340	 6.8930
 0.6350	 6.8740
 0.6360	 6.8480
 0.6370	 6.8160
 0.6380	 6.7790
 0.6390	 6.7340
 0.6400	 6.6850
 0.6410	 6.6340
 0.6420	 6.5800
 0.6430	 6.5230
 0.6440	 6.4690
 0.6450	 6.4140
 0.6460	 6.3610
 0.6470	 6.3100
 0.6480	 6.2610
 0.6490	 6.2190
 0.6500	 6.1880
 0.6510	 6.1570
 0.6520	 6.1220
 0.6530	 6.0920
 0.6540	 6.0640
 0.6550	 6.0350
 0.6560	 6.0010
 0.6570	 5.9620
 0.6580	 5.9260
 0.6590	 5.8890
 0.6600	 5.8480
 0.6610	 5.8050
 0.6620	 5.7690
 0.6630	 5.7290
 0.6640	 5.6940
 0.6650	 5.6660
 0.6660	 5.6400
 0.6670	 5.6190
 0.6680	 5.6010
 0.6690	 5.5930
 0.6700	 5.5870
 0.6710	 5.5810
 0.6720	 5.5770
 0.6730	 5.5750
 0.6740	 5.5790
 0.6750	 5.5890
 0.6760	 5.6010
 0.6770	 5.6130
 0.6780	 5.6310
 0.6790	 5.6520
 0.6800	 5.6690
 0.6810	 5.6990
 0.6820	 5.7330
 0.6830	 5.7770
 0.6840	 5.8300
 0.6850	 5.8940
 0.6860	 5.9700
 0.6870	 6.0630
 0.6880	 6.1760
 0.6890	 6.3180
 0.6900	 6.4940
 0.6910	 6.7080
 0.6920	 6.9650
 0.6930	 7.2750
 0.6940	 7.6440
 0.6950	 8.0760
 0.6960	 8.5630
 0.6970	 9.1170
 0.6980	 9.7410
 0.6990	10.4200
 0.7000	11.1540
 0.7010	11.9370
 0.7020	12.7590
 0.7030	13.6150
 0.7040	14.4970
 0.7050	15.3950
 0.7060	16.3010
 0.7070	17.2110
 0.7080	18.1220
 0.7090	19.0310
 0.7100	19.9400
 0.7110	20.8430
 0.7120	21.7330
 0.7130	22.6090
 0.7140	23.4820
 0.7150	24.3440
 0.7160	25.1890
 0.7170	26.0180
 0.7180	26.8290
 0.7190	27.6210
 0.7200	28.3990
 0.7210	29.1530
 0.7220	29.8900
 0.7230	30.6080
 0.7240	31.3010
 0.7250	31.9680
 0.7260	32.6090
 0.7270	33.2260
 0.7280	33.8170
 0.7290	34.3780
 0.7300	34.9130
 0.7310	35.4240
 0.7320	35.9110
 0.7330	36.3720
 0.7340	36.8080
 0.7350	37.2240
 0.7360	37.6150
 0.7370	37.9830
 0.7380	38.3320
 0.7390	38.6600
 0.7400	38.9710
 0.7410	39.2630
 0.7420	39.5300
 0.7430	39.7820
 0.7440	40.0200
 0.7450	40.2430
 0.7460	40.4480
 0.7470	40.6360
 0.7480	40.8100
 0.7490	40.9740
 0.7500	41.1280
 0.7510	41.2660
 0.7520	41.3920
 0.7530	41.5100
 0.7540	41.6190
 0.7550	41.7170
 0.7560	41.8040
 0.7570	41.8840
 0.7580	41.9640
 0.7590	42.0350
 0.7600	42.0940
 0.7610	42.1540
 0.7620	42.2060
 0.7630	42.2530
 0.7640	42.3000
 0.7650	42.3380
 0.7660	42.3720
 0.7670	42.4050
 0.7680	42.4400
 0.7690	42.4680
 0.7700	42.4990
 0.7710	42.5290
 0.7720	42.5430
 0.7730	42.5630
 0.7740	42.5850
 0.7750	42.6050
 0.7760	42.6200
 0.7770	42.6400
 0.7780	42.6590
 0.7790	42.6690
 0.7800	42.6800
 0.7810	42.6970
 0.7820	42.7180
 0.7830	42.7300
 0.7840	42.7390
 0.7850	42.7460
 0.7860	42.7520
 0.7870	42.7660
 0.7880	42.7830
 0.7890	42.7970
 0.7900	42.8040
 0.7910	42.8130
 0.7920	42.8240
 0.7930	42.8350
 0.7940	42.8410
 0.7950	42.8500
 0.7960	42.8570
 0.7970	42.8620
 0.7980	42.8750
 0.7990	42.8790
 0.8000	42.8820
 0.8010	42.8900
 0.8020	42.8970
 0.8030	42.9000
 0.8040	42.9020
 0.8050	42.9060
 0.8060	42.9030
 0.8070	42.9080
 0.8080	42.9180
 0.8090	42.9210
 0.8100	42.9220
 0.8110	42.9260
 0.8120	42.9320
 0.8130	42.9380
 0.8140	42.9400
 0.8150	42.9390
 0.8160	42.9380
 0.8170	42.9440
 0.8180	42.9450
 0.8190	42.9460
 0.8200	42.9560
 0.8210	42.9560
 0.8220	42.9560
 0.8230	42.9570
 0.8240	42.9530
 0.8250	42.9520
 0.8260	42.9540
 0.8270	42.9580
 0.8280	42.9590
 0.8290	42.9620
 0.8300	42.9650
 0.8310	42.9640
 0.8320	42.9610
 0.8330	42.9640
 0.8340	42.9680
 0.8350	42.9660
 0.8360	42.9710
 0.8370	42.9750
 0.8380	42.9750
 0.8390	42.9780
 0.8400	42.9810
 0.8410	42.9870
 0.8420	42.9960
 0.8430	43.0080
 0.8440	43.0160
 0.8450	43.0190
 0.8460	43.0220
 0.8470	43.0290
 0.8480	43.0380
 0.8490	43.0450
 0.8500	43.0490
 0.8510	43.0540
 0.8520	43.0640
 0.8530	43.0760
 0.8540	43.0820
 0.8550	43.0840
 0.8560	43.0860
 0.8570	43.0940
 0.8580	43.1110
 0.8590	43.1120
 0.8600	43.1150
 0.8610	43.1280
 0.8620	43.1390
 0.8630	43.1430
 0.8640	43.1450
 0.8650	43.1500
 0.8660	43.1560
 0.8670	43.1650
 0.8680	43.1720
 0.8690	43.1720
 0.8700	43.1850
 0.8710	43.1920
 0.8720	43.1980
 0.8730	43.2100
 0.8740	43.2150
 0.8750	43.2200
 0.8760	43.2290
 0.8770	43.2380
 0.8780	43.2400
 0.8790	43.2450
 0.8800	43.2570
 0.8810	43.2680
 0.8820	43.2700
 0.8830	43.2700
 0.8840	43.2710
 0.8850	43.2690
 0.8860	43.2810
 0.8870	43.2930
 0.8880	43.2890
 0.8890	43.2950
 0.8900	43.2990
 0.8910	43.3050
 0.8920	43.3180
 0.8930	43.3200
 0.8940	43.3230
 0.8950	43.3280
 0.8960	43.3300
 0.8970	43.3300
 0.8980	43.3320
 0.8990	43.3340
 0.9000	43.3330
 0.9010	43.3470
 0.9020	43.3530
 0.9030	43.3480
 0.9040	43.3560
 0.9050	43.3650
 0.9060	43.3680
 0.9070	43.3650
 0.9080	43.3710
 0.9090	43.3780
 0.9100	43.3790
 0.9110	43.3740
 0.9120	43.3760
 0.9130	43.3800
 0.9140	43.3810
 0.9150	43.3800
 0.9160	43.3880
 0.9170	43.3860
 0.9180	43.3820
 0.9190	43.3900
 0.9200	43.3890
 0.9210	43.3850
 0.9220	43.3830
 0.9230	43.3810
 0.9240	43.3720
 0.9250	43.3720
 0.9260	43.3770
 0.9270	43.3710
 0.9280	43.3600
 0.9290	43.3550
 0.9300	43.3520
 0.9310	43.3360
 0.9320	43.3260
 0.9330	43.3130
 0.9340	43.2960
 0.9350	43.2920
 0.9360	43.2840
 0.9370	43.2640
 0.9380	43.2380
 0.9390	43.2270
 0.9400	43.2160
 0.9410	43.2020
 0.9420	43.1840
 0.9430	43.1560
 0.9440	43.1410
 0.9450	43.1240
 0.9460	43.0940
 0.9470	43.0670
 0.9480	43.0370
 0.9490	42.9980
 0.9500	42.9520
 0.9510	42.9180
 0.9520	42.8820
 0.9530	42.8330
 0.9540	42.7760
 0.9550	42.7390
 0.9560	42.6940
 0.9570	42.6470
 0.9580	42.6100
 0.9590	42.5700
 0.9600	42.5300
 0.9610	42.4920
 0.9620	42.4560
 0.9630	42.4250
 0.9640	42.4010
 0.9650	42.3830
 0.9660	42.3680
 0.9670	42.3580
 0.9680	42.3440
 0.9690	42.3290
 0.9700	42.3210
 0.9710	42.3150
 0.9720	42.3100
 0.9730	42.3060
 0.9740	42.3060
 0.9750	42.2850
 0.9760	42.2730
 0.9770	42.2860
 0.9780	42.3150
 0.9790	42.2990
 0.9800	42.2970
 0.9810	42.3120
 0.9820	42.3190
 0.9830	42.3200
 0.9840	42.3290
 0.9850	42.3430
 0.9860	42.3550
 0.9870	42.3730
 0.9880	42.3860
 0.9890	42.3970
 0.9900	42.4120
 0.9910	42.4280
 0.9920	42.4490
 0.9930	42.4680
 0.9940	42.4770
 0.9950	42.5080
 0.9960	42.5400
 0.9970	42.5570
 0.9980	42.5590
 0.9990	42.6020
 1.0000	42.7150
 1.0010	42.8940
 1.0020	43.0020
 1.0030	43.0250
 1.0040	43.0520
 1.0050	43.0750
 1.0060	43.0940
 1.0070	43.1110
 1.0080	43.1300
 1.0090	43.1470
 1.0100	43.1660
 1.0110	43.1840
 1.0120	43.2050
 1.0130	43.2280
 1.0140	43.2480
 1.0150	43.2690
 1.0160	43.2950
 1.0170	43.3160
 1.0180	43.3300
 1.0190	43.3480
 1.0200	43.3630
 1.0210	43.3760
 1.0220	43.3960
 1.0230	43.4130
 1.0240	43.4290
 1.0250	43.4480
 1.0260	43.4690
 1.0270	43.4870
 1.0280	43.5070
 1.0290	43.5250
 1.0300	43.5400
 1.0310	43.5550
 1.0320	43.5700
 1.0330	43.5830
 1.0340	43.5950
 1.0350	43.6080
 1.0360	43.6240
 1.0370	43.6400
 1.0380	43.6540
 1.0390	43.6680
 1.0400	43.6800
 1.0410	43.6890
 1.0420	43.7020
 1.0430	43.7180
 1.0440	43.7310
 1.0450	43.7460
 1.0460	43.7590
 1.0470	43.7710
 1.0480	43.7830
 1.0490	43.7940
 1.0500	43.8070
 1.0510	43.8210
 1.0520	43.8310
 1.0530	43.8400
 1.0540	43.8480
 1.0550	43.8570
 1.0560	43.8660
 1.0570	43.8720
 1.0580	43.8790
 1.0590	43.8860
 1.0600	43.8910
 1.0610	43.8950
 1.0620	43.9020
 1.0630	43.9070
 1.0640	43.9090
 1.0650	43.9110
 1.0660	43.9120
 1.0670	43.9140
 1.0680	43.9160
 1.0690	43.9170
 1.0700	43.9190
 1.0710	43.9230
 1.0720	43.9250
 1.0730	43.9260
 1.0740	43.9270
 1.0750	43.9290
 1.0760	43.9280
 1.0770	43.9250
 1.0780	43.9210
 1.0790	43.9130
 1.0800	43.9080
 1.0810	43.9040
 1.0820	43.9010
 1.0830	43.8990
 1.0840	43.8960
 1.0850	43.8910
 1.0860	43.8870
 1.0870	43.8840
 1.0880	43.8810
 1.0890	43.8770
 1.0900	43.8740
 1.0910	43.8680
 1.0920	43.8570
 1.0930	43.8490
 1.0940	43.8400
 1.0950	43.8310
 1.0960	43.8220
 1.0970	43.8150
 1.0980	43.8090
 1.0990	43.8020
 1.1000	43.7970
 1.1010	43.7900
 1.1020	43.7810
 1.1030	43.7720
 1.1040	43.7650
 1.1050	43.7540
 1.1060	43.7430
 1.1070	43.7300
 1.1080	43.7200
 1.1090	43.7100
 1.1100	43.6990
 1.1110	43.6910
 1.1120	43.6780
 1.1130	43.6610
 1.1140	43.6450
 1.1150	43.6280
 1.1160	43.6100
 1.1170	43.5910
 1.1180	43.5700
 1.1190	43.5490
 1.1200	43.5250
 1.1210	43.4990
 1.1220	43.4700
 1.1230	43.4390
 1.1240	43.4070
 1.1250	43.3700
 1.1260	43.3340
 1.1270	43.2900
 1.1280	43.2400
 1.1290	43.1850
 1.1300	43.1250
 1.1310	43.0610
 1.1320	42.9930
 1.1330	42.9180
 1.1340	42.8380
 1.1350	42.7510
 1.1360	42.6580
 1.1370	42.5580
 1.1380	42.4530
 1.1390	42.3440
 1.1400	42.2300
 1.1410	42.1130
 1.1420	41.9940
 1.1430	41.8690
 1.1440	41.7460
 1.1450	41.6200
 1.1460	41.4990
 1.1470	41.3770
 1.1480	41.2600
 1.1490	41.1440
 1.1500	41.0350
 1.1510	40.9290
 1.1520	40.8300
 1.1530	40.7360
 1.1540	40.6490
 1.1550	40.5680
 1.1560	40.4960
 1.1570	40.4300
 1.1580	40.3720
 1.1590	40.3200
 1.1600	40.2730
 1.1610	40.2310
 1.1620	40.1930
 1.1630	40.1600
 1.1640	40.1330
 1.1650	40.1080
 1.1660	40.0880
 1.1670	40.0690
 1.1680	40.0540
 1.1690	40.0380
 1.1700	40.0250
 1.1710	40.0120
 1.1720	40.0010
 1.1730	39.9890
 1.1740	39.9780
 1.1750	39.9670
 1.1760	39.9550
 1.1770	39.9440
 1.1780	39.9310
 1.1790	39.9170
 1.1800	39.9010
 1.1810	39.8840
 1.1820	39.8680
 1.1830	39.8510
 1.1840	39.8330
 1.1850	39.8180
 1.1860	39.8020
 1.1870	39.7860
 1.1880	39.7710
 1.1890	39.7580
 1.1900	39.7460
 1.1910	39.7360
 1.1920	39.7270
 1.1930	39.7190
 1.1940	39.7120
 1.1950	39.7060
 1.1960	39.7010
 1.1970	39.6960
 1.1980	39.6940
 1.1990	39.6940
 1.2000	39.6920
 1.2010	39.6940
 1.2020	39.6960
 1.2030	39.7010
 1.2040	39.7080
 1.2050	39.7150
 1.2060	39.7240
 1.2070	39.7330
 1.2080	39.7420
 1.2090	39.7540
 1.2100	39.7670
 1.2110	39.7840
 1.2120	39.8040
 1.2130	39.8260
 1.2140	39.8510
 1.2150	39.8780
 1.2160	39.9080
 1.2170	39.9390
 1.2180	39.9690
 1.2190	40.0030
 1.2200	40.0390
 1.2210	40.0740
 1.2220	40.1150
 1.2230	40.1560
 1.2240	40.1930
 1.2250	40.2280
 1.2260	40.2640
 1.2270	40.2990
 1.2280	40.3330
 1.2290	40.3680
 1.2300	40.4030
 1.2310	40.4350
 1.2320	40.4660
 1.2330	40.4980
 1.2340	40.5270
 1.2350	40.5540
 1.2360	40.5810
 1.2370	40.6080
 1.2380	40.6340
 1.2390	40.6560
 1.2400	40.6790
 1.2410	40.7020
 1.2420	40.7230
 1.2430	40.7450
 1.2440	40.7650
 1.2450	40.7830
 1.2460	40.8020
 1.2470	40.8190
 1.2480	40.8380
 1.2490	40.8560
 1.2500	40.8720
 1.2510	40.8870
 1.2520	40.9010
 1.2530	40.9140
 1.2540	40.9260
 1.2550	40.9390
 1.2560	40.9520
 1.2570	40.9630
 1.2580	40.9720
 1.2590	40.9790
 1.2600	40.9820
 1.2610	40.9880
 1.2620	40.9920
 1.2630	40.9970
 1.2640	41.0020
 1.2650	41.0040
 1.2660	41.0050
 1.2670	41.0060
 1.2680	41.0080
 1.2690	41.0090
 1.2700	41.0100
 1.2710	41.0080
 1.2720	41.0050
 1.2730	40.9990
 1.2740	40.9930
 1.2750	40.9890
 1.2760	40.9830
 1.2770	40.9780
 1.2780	40.9720
 1.2790	40.9630
 1.2800	40.9540
 1.2810	40.9430
 1.2820	40.9330
 1.2830	40.9250
 1.2840	40.9140
 1.2850	40.8980
 1.2860	40.8820
 1.2870	40.8640
 1.2880	40.8430
 1.2890	40.8190
 1.2900	40.7970
 1.2910	40.7720
 1.2920	40.7440
 1.2930	40.7140
 1.2940	40.6830
 1.2950	40.6500
 1.2960	40.6130
 1.2970	40.5750
 1.2980	40.5360
 1.2990	40.4940
 1.3000	40.4490
 1.3010	40.4030
 1.3020	40.3530
 1.3030	40.3000
 1.3040	40.2440
 1.3050	40.1870
 1.3060	40.1270
 1.3070	40.0650
 1.3080	40.0040
 1.3090	39.9400
 1.3100	39.8730
 1.3110	39.8020
 1.3120	39.7260
 1.3130	39.6490
 1.3140	39.5690
 1.3150	39.4870
 1.3160	39.4030
 1.3170	39.3190
 1.3180	39.2280
 1.3190	39.1340
 1.3200	39.0390
 1.3210	38.9380
 1.3220	38.8370
 1.3230	38.7330
 1.3240	38.6230
 1.3250	38.5130
 1.3260	38.3990
 1.3270	38.2810
 1.3280	38.1640
 1.3290	38.0430
 1.3300	37.9200
 1.3310	37.7960
 1.3320	37.6680
 1.3330	37.5390
 1.3340	37.4090
 1.3350	37.2780
 1.3360	37.1450
 1.3370	37.0130
 1.3380	36.8800
 1.3390	36.7470
 1.3400	36.6130
 1.3410	36.4800
 1.3420	36.3490
 1.3430	36.2170
 1.3440	36.0870
 1.3450	35.9570
 1.3460	35.8270
 1.3470	35.6990
 1.3480	35.5710
 1.3490	35.4450
 1.3500	35.3200
 1.3510	35.1970
 1.3520	35.0720
 1.3530	34.9510
 1.3540	34.8290
 1.3550	34.7060
 1.3560	34.5830
 1.3570	34.4580
 1.3580	34.3330
 1.3590	34.2060
 1.3600	34.0770
 1.3610	33.9450
 1.3620	33.8090
 1.3630	33.6670
 1.3640	33.5180
 1.3650	33.3630
 1.3660	33.2010
 1.3670	33.0310
 1.3680	32.8540
 1.3690	32.6670
 1.3700	32.4660
 1.3710	32.2560
 1.3720	32.0340
 1.3730	31.7960
 1.3740	31.5460
 1.3750	31.2790
 1.3760	30.9920
 1.3770	30.6870
 1.3780	30.3580
 1.3790	30.0090
 1.3800	29.6390
 1.3810	29.2430
 1.3820	28.8310
 1.3830	28.4000
 1.3840	27.9510
 1.3850	27.4830
 1.3860	27.0020
 1.3870	26.4990
 1.3880	25.9920
 1.3890	25.4730
 1.3900	24.9440
 1.3910	24.4160
 1.3920	23.8820
 1.3930	23.3440
 1.3940	22.8090
 1.3950	22.2720
 1.3960	21.7410
 1.3970	21.2210
 1.3980	20.7100
 1.3990	20.2180
 1.4000	19.7380
 1.4010	19.2720
 1.4020	18.8260
 1.4030	18.3920
 1.4040	17.9800
 1.4050	17.5900
 1.4060	17.2190
 1.4070	16.8710
 1.4080	16.5430
 1.4090	16.2320
 1.4100	15.9450
 1.4110	15.6760
 1.4120	15.4270
 1.4130	15.1970
 1.4140	14.9840
 1.4150	14.7880
 1.4160	14.6080
 1.4170	14.4420
 1.4180	14.2910
 1.4190	14.1530
 1.4200	14.0260
 1.4210	13.9110
 1.4220	13.8070
 1.4230	13.7140
 1.4240	13.6310
 1.4250	13.5550
 1.4260	13.4900
 1.4270	13.4290
 1.4280	13.3770
 1.4290	13.3310
 1.4300	13.2920
 1.4310	13.2580
 1.4320	13.2320
 1.4330	13.2100
 1.4340	13.1930
 1.4350	13.1790
 1.4360	13.1690
 1.4370	13.1630
 1.4380	13.1610
 1.4390	13.1620
 1.4400	13.1660
 1.4410	13.1720
 1.4420	13.1800
 1.4430	13.1900
 1.4440	13.2030
 1.4450	13.2170
 1.4460	13.2330
 1.4470	13.2500
 1.4480	13.2690
 1.4490	13.2880
 1.4500	13.3090
 1.4510	13.3310
 1.4520	13.3540
 1.4530	13.3780
 1.4540	13.4030
 1.4550	13.4290
 1.4560	13.4570
 1.4570	13.4870
 1.4580	13.5180
 1.4590	13.5520
 1.4600	13.5890
 1.4610	13.6300
 1.4620	13.6730
 1.4630	13.7220
 1.4640	13.7740
 1.4650	13.8300
 1.4660	13.8900
 1.4670	13.9550
 1.4680	14.0230
 1.4690	14.0950
 1.4700	14.1720
