Name: Baccharis pilularis 3
Type: vegetation
Class: Shrub
Genus: Baccharis
Species: pilularis
Sample No.: VH125
Owner: UCSB
Wavelength Range: VSWIR
Origin: 34.5088; -119.7683; WGS84
Collection Date: 6/3/2013
Description: Samples were collected as part of the HyspIRI Airborne Campaign. 48 individual plants were sampled in three times in 2013 - spring  summer  and fall. The name of the sample includes a 1  2  or 3 which references a different individual of the species. Samples were taken to JPL and processed within 48 hours of collection. The same leaves were processed in the Nicolet and then measured using the ASD.
Measurement: Bidirectional reflectance
First Column: X
Second Column: Y
X Units: Wavelength (micrometers)
Y Units: Reflectance (percentage)
First X Value: 0.35
Last X Value: 2.5
Number of X Values: 2151
Additional Information: vegetation.shrub.baccharis.pilularis.vswir.vh125.ucsb.asd.ancillary.txt

 0.3500	 4.4660
 0.3510	 4.3700
 0.3520	 4.4230
 0.3530	 4.4050
 0.3540	 4.2100
 0.3550	 4.2310
 0.3560	 4.2940
 0.3570	 4.3520
 0.3580	 4.4150
 0.3590	 4.3340
 0.3600	 4.3260
 0.3610	 4.4220
 0.3620	 4.3470
 0.3630	 4.3450
 0.3640	 4.3830
 0.3650	 4.3700
 0.3660	 4.2630
 0.3670	 4.3000
 0.3680	 4.3980
 0.3690	 4.2930
 0.3700	 4.3300
 0.3710	 4.3950
 0.3720	 4.3800
 0.3730	 4.2930
 0.3740	 4.2780
 0.3750	 4.3010
 0.3760	 4.2940
 0.3770	 4.3180
 0.3780	 4.3310
 0.3790	 4.3010
 0.3800	 4.2100
 0.3810	 4.1940
 0.3820	 4.2130
 0.3830	 4.2270
 0.3840	 4.2610
 0.3850	 4.2870
 0.3860	 4.3010
 0.3870	 4.3090
 0.3880	 4.3370
 0.3890	 4.3210
 0.3900	 4.2720
 0.3910	 4.2820
 0.3920	 4.3080
 0.3930	 4.3190
 0.3940	 4.3030
 0.3950	 4.2860
 0.3960	 4.3130
 0.3970	 4.3540
 0.3980	 4.3530
 0.3990	 4.3470
 0.4000	 4.3620
 0.4010	 4.3760
 0.4020	 4.2920
 0.4030	 4.2860
 0.4040	 4.3230
 0.4050	 4.3430
 0.4060	 4.3870
 0.4070	 4.4100
 0.4080	 4.3910
 0.4090	 4.3380
 0.4100	 4.3240
 0.4110	 4.3430
 0.4120	 4.3710
 0.4130	 4.3830
 0.4140	 4.3940
 0.4150	 4.4070
 0.4160	 4.4200
 0.4170	 4.4390
 0.4180	 4.4400
 0.4190	 4.4320
 0.4200	 4.4470
 0.4210	 4.4560
 0.4220	 4.4620
 0.4230	 4.4740
 0.4240	 4.4960
 0.4250	 4.5000
 0.4260	 4.5010
 0.4270	 4.5270
 0.4280	 4.5330
 0.4290	 4.5490
 0.4300	 4.5780
 0.4310	 4.5820
 0.4320	 4.5930
 0.4330	 4.6080
 0.4340	 4.6200
 0.4350	 4.6290
 0.4360	 4.6280
 0.4370	 4.6220
 0.4380	 4.6300
 0.4390	 4.6520
 0.4400	 4.6730
 0.4410	 4.6810
 0.4420	 4.6580
 0.4430	 4.6610
 0.4440	 4.6820
 0.4450	 4.6890
 0.4460	 4.6870
 0.4470	 4.6860
 0.4480	 4.6950
 0.4490	 4.7170
 0.4500	 4.7350
 0.4510	 4.7430
 0.4520	 4.7420
 0.4530	 4.7510
 0.4540	 4.7600
 0.4550	 4.7640
 0.4560	 4.7650
 0.4570	 4.7660
 0.4580	 4.7670
 0.4590	 4.7700
 0.4600	 4.7830
 0.4610	 4.7840
 0.4620	 4.7810
 0.4630	 4.7880
 0.4640	 4.7930
 0.4650	 4.7880
 0.4660	 4.7790
 0.4670	 4.7910
 0.4680	 4.7990
 0.4690	 4.8000
 0.4700	 4.8010
 0.4710	 4.8010
 0.4720	 4.8050
 0.4730	 4.8070
 0.4740	 4.8000
 0.4750	 4.8020
 0.4760	 4.8050
 0.4770	 4.8060
 0.4780	 4.8190
 0.4790	 4.8220
 0.4800	 4.8160
 0.4810	 4.8110
 0.4820	 4.8180
 0.4830	 4.8210
 0.4840	 4.8170
 0.4850	 4.8170
 0.4860	 4.8250
 0.4870	 4.8320
 0.4880	 4.8320
 0.4890	 4.8390
 0.4900	 4.8440
 0.4910	 4.8480
 0.4920	 4.8550
 0.4930	 4.8660
 0.4940	 4.8740
 0.4950	 4.8780
 0.4960	 4.8900
 0.4970	 4.9030
 0.4980	 4.9140
 0.4990	 4.9210
 0.5000	 4.9350
 0.5010	 4.9530
 0.5020	 4.9760
 0.5030	 5.0050
 0.5040	 5.0290
 0.5050	 5.0500
 0.5060	 5.0750
 0.5070	 5.1130
 0.5080	 5.1490
 0.5090	 5.1880
 0.5100	 5.2400
 0.5110	 5.2920
 0.5120	 5.3470
 0.5130	 5.4060
 0.5140	 5.4730
 0.5150	 5.5520
 0.5160	 5.6400
 0.5170	 5.7360
 0.5180	 5.8400
 0.5190	 5.9490
 0.5200	 6.0660
 0.5210	 6.1930
 0.5220	 6.3190
 0.5230	 6.4440
 0.5240	 6.5710
 0.5250	 6.7020
 0.5260	 6.8310
 0.5270	 6.9540
 0.5280	 7.0720
 0.5290	 7.1930
 0.5300	 7.3040
 0.5310	 7.3990
 0.5320	 7.4930
 0.5330	 7.5800
 0.5340	 7.6620
 0.5350	 7.7390
 0.5360	 7.8030
 0.5370	 7.8620
 0.5380	 7.9180
 0.5390	 7.9700
 0.5400	 8.0150
 0.5410	 8.0570
 0.5420	 8.1010
 0.5430	 8.1440
 0.5440	 8.1870
 0.5450	 8.2280
 0.5460	 8.2630
 0.5470	 8.2880
 0.5480	 8.3100
 0.5490	 8.3330
 0.5500	 8.3550
 0.5510	 8.3700
 0.5520	 8.3770
 0.5530	 8.3770
 0.5540	 8.3690
 0.5550	 8.3510
 0.5560	 8.3200
 0.5570	 8.2750
 0.5580	 8.2240
 0.5590	 8.1680
 0.5600	 8.1050
 0.5610	 8.0340
 0.5620	 7.9570
 0.5630	 7.8770
 0.5640	 7.7940
 0.5650	 7.7060
 0.5660	 7.6160
 0.5670	 7.5230
 0.5680	 7.4300
 0.5690	 7.3350
 0.5700	 7.2410
 0.5710	 7.1480
 0.5720	 7.0580
 0.5730	 6.9710
 0.5740	 6.8900
 0.5750	 6.8160
 0.5760	 6.7510
 0.5770	 6.6910
 0.5780	 6.6340
 0.5790	 6.5790
 0.5800	 6.5290
 0.5810	 6.4830
 0.5820	 6.4390
 0.5830	 6.4000
 0.5840	 6.3630
 0.5850	 6.3260
 0.5860	 6.2900
 0.5870	 6.2530
 0.5880	 6.2220
 0.5890	 6.1980
 0.5900	 6.1710
 0.5910	 6.1500
 0.5920	 6.1370
 0.5930	 6.1300
 0.5940	 6.1170
 0.5950	 6.1030
 0.5960	 6.0910
 0.5970	 6.0750
 0.5980	 6.0620
 0.5990	 6.0500
 0.6000	 6.0330
 0.6010	 6.0150
 0.6020	 5.9960
 0.6030	 5.9760
 0.6040	 5.9550
 0.6050	 5.9280
 0.6060	 5.8990
 0.6070	 5.8710
 0.6080	 5.8400
 0.6090	 5.8090
 0.6100	 5.7810
 0.6110	 5.7570
 0.6120	 5.7240
 0.6130	 5.6850
 0.6140	 5.6470
 0.6150	 5.6110
 0.6160	 5.5810
 0.6170	 5.5570
 0.6180	 5.5340
 0.6190	 5.5090
 0.6200	 5.4890
 0.6210	 5.4730
 0.6220	 5.4590
 0.6230	 5.4430
 0.6240	 5.4300
 0.6250	 5.4220
 0.6260	 5.4160
 0.6270	 5.4080
 0.6280	 5.4010
 0.6290	 5.3960
 0.6300	 5.3910
 0.6310	 5.3890
 0.6320	 5.3870
 0.6330	 5.3780
 0.6340	 5.3680
 0.6350	 5.3550
 0.6360	 5.3390
 0.6370	 5.3200
 0.6380	 5.3030
 0.6390	 5.2870
 0.6400	 5.2650
 0.6410	 5.2440
 0.6420	 5.2190
 0.6430	 5.1900
 0.6440	 5.1640
 0.6450	 5.1410
 0.6460	 5.1180
 0.6470	 5.0950
 0.6480	 5.0780
 0.6490	 5.0620
 0.6500	 5.0460
 0.6510	 5.0320
 0.6520	 5.0210
 0.6530	 5.0100
 0.6540	 5.0000
 0.6550	 4.9880
 0.6560	 4.9740
 0.6570	 4.9620
 0.6580	 4.9530
 0.6590	 4.9330
 0.6600	 4.9170
 0.6610	 4.9050
 0.6620	 4.8930
 0.6630	 4.8840
 0.6640	 4.8750
 0.6650	 4.8630
 0.6660	 4.8570
 0.6670	 4.8530
 0.6680	 4.8500
 0.6690	 4.8520
 0.6700	 4.8540
 0.6710	 4.8570
 0.6720	 4.8620
 0.6730	 4.8690
 0.6740	 4.8820
 0.6750	 4.8940
 0.6760	 4.9030
 0.6770	 4.9130
 0.6780	 4.9270
 0.6790	 4.9440
 0.6800	 4.9650
 0.6810	 4.9850
 0.6820	 5.0060
 0.6830	 5.0300
 0.6840	 5.0580
 0.6850	 5.0880
 0.6860	 5.1240
 0.6870	 5.1660
 0.6880	 5.2090
 0.6890	 5.2670
 0.6900	 5.3450
 0.6910	 5.4430
 0.6920	 5.5640
 0.6930	 5.7190
 0.6940	 5.9150
 0.6950	 6.1550
 0.6960	 6.4460
 0.6970	 6.7920
 0.6980	 7.1940
 0.6990	 7.6560
 0.7000	 8.1770
 0.7010	 8.7530
 0.7020	 9.3830
 0.7030	10.0620
 0.7040	10.7860
 0.7050	11.5510
 0.7060	12.3520
 0.7070	13.1880
 0.7080	14.0550
 0.7090	14.9510
 0.7100	15.8750
 0.7110	16.8250
 0.7120	17.8000
 0.7130	18.7970
 0.7140	19.8130
 0.7150	20.8520
 0.7160	21.9130
 0.7170	22.9800
 0.7180	24.0570
 0.7190	25.1420
 0.7200	26.2340
 0.7210	27.3240
 0.7220	28.4100
 0.7230	29.4870
 0.7240	30.5520
 0.7250	31.5980
 0.7260	32.6250
 0.7270	33.6300
 0.7280	34.6070
 0.7290	35.5550
 0.7300	36.4700
 0.7310	37.3480
 0.7320	38.1910
 0.7330	39.0030
 0.7340	39.7840
 0.7350	40.5250
 0.7360	41.2250
 0.7370	41.8900
 0.7380	42.5240
 0.7390	43.1250
 0.7400	43.6840
 0.7410	44.2090
 0.7420	44.7140
 0.7430	45.1770
 0.7440	45.6130
 0.7450	46.0270
 0.7460	46.4090
 0.7470	46.7660
 0.7480	47.0940
 0.7490	47.3910
 0.7500	47.6730
 0.7510	47.9310
 0.7520	48.1690
 0.7530	48.3930
 0.7540	48.5940
 0.7550	48.7780
 0.7560	48.9460
 0.7570	49.0960
 0.7580	49.2390
 0.7590	49.3760
 0.7600	49.5030
 0.7610	49.6130
 0.7620	49.7150
 0.7630	49.8130
 0.7640	49.9050
 0.7650	49.9870
 0.7660	50.0560
 0.7670	50.1190
 0.7680	50.1900
 0.7690	50.2530
 0.7700	50.3090
 0.7710	50.3590
 0.7720	50.4140
 0.7730	50.4620
 0.7740	50.5070
 0.7750	50.5530
 0.7760	50.5960
 0.7770	50.6340
 0.7780	50.6680
 0.7790	50.6980
 0.7800	50.7360
 0.7810	50.7740
 0.7820	50.8070
 0.7830	50.8380
 0.7840	50.8690
 0.7850	50.9050
 0.7860	50.9440
 0.7870	50.9700
 0.7880	50.9990
 0.7890	51.0270
 0.7900	51.0460
 0.7910	51.0710
 0.7920	51.0950
 0.7930	51.1200
 0.7940	51.1490
 0.7950	51.1720
 0.7960	51.1930
 0.7970	51.2110
 0.7980	51.2220
 0.7990	51.2410
 0.8000	51.2640
 0.8010	51.2840
 0.8020	51.2990
 0.8030	51.3120
 0.8040	51.3260
 0.8050	51.3410
 0.8060	51.3610
 0.8070	51.3760
 0.8080	51.3840
 0.8090	51.3850
 0.8100	51.3960
 0.8110	51.4130
 0.8120	51.4270
 0.8130	51.4390
 0.8140	51.4430
 0.8150	51.4470
 0.8160	51.4570
 0.8170	51.4740
 0.8180	51.4800
 0.8190	51.4820
 0.8200	51.4940
 0.8210	51.5070
 0.8220	51.5150
 0.8230	51.5180
 0.8240	51.5210
 0.8250	51.5270
 0.8260	51.5290
 0.8270	51.5270
 0.8280	51.5370
 0.8290	51.5420
 0.8300	51.5420
 0.8310	51.5410
 0.8320	51.5510
 0.8330	51.5590
 0.8340	51.5630
 0.8350	51.5690
 0.8360	51.5740
 0.8370	51.5800
 0.8380	51.5880
 0.8390	51.5960
 0.8400	51.6100
 0.8410	51.6220
 0.8420	51.6310
 0.8430	51.6510
 0.8440	51.6590
 0.8450	51.6660
 0.8460	51.6830
 0.8470	51.6930
 0.8480	51.7110
 0.8490	51.7290
 0.8500	51.7360
 0.8510	51.7440
 0.8520	51.7560
 0.8530	51.7730
 0.8540	51.7890
 0.8550	51.8040
 0.8560	51.8200
 0.8570	51.8350
 0.8580	51.8470
 0.8590	51.8640
 0.8600	51.8770
 0.8610	51.8850
 0.8620	51.9060
 0.8630	51.9210
 0.8640	51.9350
 0.8650	51.9520
 0.8660	51.9670
 0.8670	51.9800
 0.8680	51.9930
 0.8690	52.0100
 0.8700	52.0230
 0.8710	52.0330
 0.8720	52.0450
 0.8730	52.0650
 0.8740	52.0820
 0.8750	52.0960
 0.8760	52.1100
 0.8770	52.1320
 0.8780	52.1440
 0.8790	52.1550
 0.8800	52.1730
 0.8810	52.1930
 0.8820	52.2070
 0.8830	52.2160
 0.8840	52.2260
 0.8850	52.2460
 0.8860	52.2640
 0.8870	52.2780
 0.8880	52.2930
 0.8890	52.3120
 0.8900	52.3170
 0.8910	52.3170
 0.8920	52.3320
 0.8930	52.3530
 0.8940	52.3670
 0.8950	52.3730
 0.8960	52.3790
 0.8970	52.3910
 0.8980	52.4000
 0.8990	52.4070
 0.9000	52.4200
 0.9010	52.4320
 0.9020	52.4410
 0.9030	52.4480
 0.9040	52.4610
 0.9050	52.4710
 0.9060	52.4770
 0.9070	52.4850
 0.9080	52.5030
 0.9090	52.5120
 0.9100	52.5200
 0.9110	52.5320
 0.9120	52.5340
 0.9130	52.5460
 0.9140	52.5610
 0.9150	52.5650
 0.9160	52.5690
 0.9170	52.5760
 0.9180	52.5780
 0.9190	52.5710
 0.9200	52.5890
 0.9210	52.5980
 0.9220	52.5960
 0.9230	52.5960
 0.9240	52.5900
 0.9250	52.5790
 0.9260	52.5690
 0.9270	52.5660
 0.9280	52.5560
 0.9290	52.5490
 0.9300	52.5400
 0.9310	52.5100
 0.9320	52.4980
 0.9330	52.4870
 0.9340	52.4710
 0.9350	52.4540
 0.9360	52.4220
 0.9370	52.3870
 0.9380	52.3600
 0.9390	52.3350
 0.9400	52.2990
 0.9410	52.2700
 0.9420	52.2520
 0.9430	52.2220
 0.9440	52.1760
 0.9450	52.1230
 0.9460	52.0700
 0.9470	52.0110
 0.9480	51.9560
 0.9490	51.8960
 0.9500	51.8230
 0.9510	51.7510
 0.9520	51.6700
 0.9530	51.5820
 0.9540	51.4910
 0.9550	51.4020
 0.9560	51.3330
 0.9570	51.2630
 0.9580	51.1750
 0.9590	51.0980
 0.9600	51.0350
 0.9610	50.9800
 0.9620	50.9290
 0.9630	50.8840
 0.9640	50.8430
 0.9650	50.8100
 0.9660	50.7860
 0.9670	50.7660
 0.9680	50.7370
 0.9690	50.7060
 0.9700	50.6820
 0.9710	50.6600
 0.9720	50.6560
 0.9730	50.6590
 0.9740	50.6500
 0.9750	50.6440
 0.9760	50.6350
 0.9770	50.6240
 0.9780	50.6220
 0.9790	50.6370
 0.9800	50.6610
 0.9810	50.6770
 0.9820	50.6750
 0.9830	50.6770
 0.9840	50.6940
 0.9850	50.7210
 0.9860	50.7460
 0.9870	50.7600
 0.9880	50.7810
 0.9890	50.8080
 0.9900	50.8390
 0.9910	50.9030
 0.9920	50.9920
 0.9930	51.0810
 0.9940	51.1700
 0.9950	51.2590
 0.9960	51.3480
 0.9970	51.4380
 0.9980	51.5270
 0.9990	51.6160
 1.0000	51.7050
 1.0010	51.7940
 1.0020	51.8830
 1.0030	51.9730
 1.0040	52.0620
 1.0050	52.1510
 1.0060	52.2400
 1.0070	52.3290
 1.0080	52.4180
 1.0090	52.5080
 1.0100	52.5080
 1.0110	52.5410
 1.0120	52.5780
 1.0130	52.6220
 1.0140	52.6600
 1.0150	52.6980
 1.0160	52.7320
 1.0170	52.7630
 1.0180	52.7960
 1.0190	52.8330
 1.0200	52.8730
 1.0210	52.9090
 1.0220	52.9420
 1.0230	52.9760
 1.0240	53.0040
 1.0250	53.0380
 1.0260	53.0790
 1.0270	53.1150
 1.0280	53.1520
 1.0290	53.1870
 1.0300	53.2220
 1.0310	53.2550
 1.0320	53.2880
 1.0330	53.3170
 1.0340	53.3480
 1.0350	53.3800
 1.0360	53.4060
 1.0370	53.4350
 1.0380	53.4650
 1.0390	53.4920
 1.0400	53.5200
 1.0410	53.5490
 1.0420	53.5770
 1.0430	53.6040
 1.0440	53.6290
 1.0450	53.6540
 1.0460	53.6770
 1.0470	53.6970
 1.0480	53.7180
 1.0490	53.7400
 1.0500	53.7610
 1.0510	53.7800
 1.0520	53.7990
 1.0530	53.8170
 1.0540	53.8340
 1.0550	53.8520
 1.0560	53.8700
 1.0570	53.8850
 1.0580	53.8980
 1.0590	53.9110
 1.0600	53.9200
 1.0610	53.9320
 1.0620	53.9460
 1.0630	53.9600
 1.0640	53.9790
 1.0650	53.9910
 1.0660	53.9970
 1.0670	54.0060
 1.0680	54.0140
 1.0690	54.0190
 1.0700	54.0250
 1.0710	54.0340
 1.0720	54.0390
 1.0730	54.0430
 1.0740	54.0450
 1.0750	54.0460
 1.0760	54.0460
 1.0770	54.0450
 1.0780	54.0430
 1.0790	54.0390
 1.0800	54.0390
 1.0810	54.0420
 1.0820	54.0420
 1.0830	54.0460
 1.0840	54.0460
 1.0850	54.0400
 1.0860	54.0340
 1.0870	54.0270
 1.0880	54.0180
 1.0890	54.0110
 1.0900	54.0030
 1.0910	53.9970
 1.0920	53.9930
 1.0930	53.9860
 1.0940	53.9780
 1.0950	53.9700
 1.0960	53.9610
 1.0970	53.9510
 1.0980	53.9410
 1.0990	53.9280
 1.1000	53.9130
 1.1010	53.8980
 1.1020	53.8820
 1.1030	53.8640
 1.1040	53.8460
 1.1050	53.8270
 1.1060	53.8080
 1.1070	53.7880
 1.1080	53.7680
 1.1090	53.7480
 1.1100	53.7260
 1.1110	53.7040
 1.1120	53.6800
 1.1130	53.6560
 1.1140	53.6280
 1.1150	53.6010
 1.1160	53.5700
 1.1170	53.5360
 1.1180	53.4980
 1.1190	53.4590
 1.1200	53.4130
 1.1210	53.3650
 1.1220	53.3130
 1.1230	53.2510
 1.1240	53.1850
 1.1250	53.1100
 1.1260	53.0250
 1.1270	52.9360
 1.1280	52.8410
 1.1290	52.7350
 1.1300	52.6240
 1.1310	52.4970
 1.1320	52.3570
 1.1330	52.2100
 1.1340	52.0530
 1.1350	51.8880
 1.1360	51.7180
 1.1370	51.5380
 1.1380	51.3500
 1.1390	51.1550
 1.1400	50.9520
 1.1410	50.7460
 1.1420	50.5380
 1.1430	50.3280
 1.1440	50.1210
 1.1450	49.9130
 1.1460	49.7120
 1.1470	49.5110
 1.1480	49.3220
 1.1490	49.1370
 1.1500	48.9640
 1.1510	48.8010
 1.1520	48.6470
 1.1530	48.5010
 1.1540	48.3660
 1.1550	48.2390
 1.1560	48.1220
 1.1570	48.0150
 1.1580	47.9220
 1.1590	47.8410
 1.1600	47.7670
 1.1610	47.7020
 1.1620	47.6420
 1.1630	47.5860
 1.1640	47.5400
 1.1650	47.4990
 1.1660	47.4650
 1.1670	47.4330
 1.1680	47.4080
 1.1690	47.3810
 1.1700	47.3570
 1.1710	47.3330
 1.1720	47.3080
 1.1730	47.2850
 1.1740	47.2620
 1.1750	47.2400
 1.1760	47.2170
 1.1770	47.1920
 1.1780	47.1650
 1.1790	47.1380
 1.1800	47.1090
 1.1810	47.0800
 1.1820	47.0510
 1.1830	47.0220
 1.1840	46.9940
 1.1850	46.9690
 1.1860	46.9440
 1.1870	46.9180
 1.1880	46.8960
 1.1890	46.8750
 1.1900	46.8580
 1.1910	46.8450
 1.1920	46.8340
 1.1930	46.8240
 1.1940	46.8160
 1.1950	46.8090
 1.1960	46.8050
 1.1970	46.8040
 1.1980	46.8050
 1.1990	46.8110
 1.2000	46.8210
 1.2010	46.8340
 1.2020	46.8510
 1.2030	46.8690
 1.2040	46.8900
 1.2050	46.9160
 1.2060	46.9410
 1.2070	46.9680
 1.2080	46.9980
 1.2090	47.0300
 1.2100	47.0670
 1.2110	47.1060
 1.2120	47.1490
 1.2130	47.1940
 1.2140	47.2410
 1.2150	47.2890
 1.2160	47.3390
 1.2170	47.3920
 1.2180	47.4440
 1.2190	47.4970
 1.2200	47.5520
 1.2210	47.6070
 1.2220	47.6640
 1.2230	47.7190
 1.2240	47.7750
 1.2250	47.8280
 1.2260	47.8810
 1.2270	47.9310
 1.2280	47.9770
 1.2290	48.0230
 1.2300	48.0680
 1.2310	48.1120
 1.2320	48.1550
 1.2330	48.1950
 1.2340	48.2350
 1.2350	48.2750
 1.2360	48.3130
 1.2370	48.3500
 1.2380	48.3890
 1.2390	48.4260
 1.2400	48.4580
 1.2410	48.4910
 1.2420	48.5240
 1.2430	48.5540
 1.2440	48.5820
 1.2450	48.6110
 1.2460	48.6400
 1.2470	48.6680
 1.2480	48.6940
 1.2490	48.7180
 1.2500	48.7370
 1.2510	48.7560
 1.2520	48.7750
 1.2530	48.7950
 1.2540	48.8150
 1.2550	48.8330
 1.2560	48.8490
 1.2570	48.8640
 1.2580	48.8760
 1.2590	48.8880
 1.2600	48.8970
 1.2610	48.9050
 1.2620	48.9090
 1.2630	48.9160
 1.2640	48.9190
 1.2650	48.9220
 1.2660	48.9250
 1.2670	48.9250
 1.2680	48.9250
 1.2690	48.9210
 1.2700	48.9140
 1.2710	48.9060
 1.2720	48.8950
 1.2730	48.8870
 1.2740	48.8780
 1.2750	48.8660
 1.2760	48.8550
 1.2770	48.8410
 1.2780	48.8240
 1.2790	48.8080
 1.2800	48.7870
 1.2810	48.7630
 1.2820	48.7390
 1.2830	48.7120
 1.2840	48.6840
 1.2850	48.6540
 1.2860	48.6200
 1.2870	48.5840
 1.2880	48.5450
 1.2890	48.5030
 1.2900	48.4570
 1.2910	48.4110
 1.2920	48.3620
 1.2930	48.3080
 1.2940	48.2510
 1.2950	48.1900
 1.2960	48.1250
 1.2970	48.0580
 1.2980	47.9870
 1.2990	47.9150
 1.3000	47.8400
 1.3010	47.7590
 1.3020	47.6730
 1.3030	47.5850
 1.3040	47.4930
 1.3050	47.4010
 1.3060	47.3040
 1.3070	47.2020
 1.3080	47.0950
 1.3090	46.9830
 1.3100	46.8700
 1.3110	46.7540
 1.3120	46.6320
 1.3130	46.5070
 1.3140	46.3780
 1.3150	46.2440
 1.3160	46.1040
 1.3170	45.9610
 1.3180	45.8120
 1.3190	45.6590
 1.3200	45.5020
 1.3210	45.3410
 1.3220	45.1770
 1.3230	45.0090
 1.3240	44.8360
 1.3250	44.6630
 1.3260	44.4840
 1.3270	44.3020
 1.3280	44.1200
 1.3290	43.9310
 1.3300	43.7420
 1.3310	43.5510
 1.3320	43.3540
 1.3330	43.1580
 1.3340	42.9590
 1.3350	42.7610
 1.3360	42.5630
 1.3370	42.3630
 1.3380	42.1640
 1.3390	41.9660
 1.3400	41.7670
 1.3410	41.5720
 1.3420	41.3770
 1.3430	41.1850
 1.3440	40.9950
 1.3450	40.8060
 1.3460	40.6180
 1.3470	40.4340
 1.3480	40.2500
 1.3490	40.0690
 1.3500	39.8930
 1.3510	39.7160
 1.3520	39.5400
 1.3530	39.3660
 1.3540	39.1920
 1.3550	39.0170
 1.3560	38.8420
 1.3570	38.6660
 1.3580	38.4890
 1.3590	38.3080
 1.3600	38.1250
 1.3610	37.9370
 1.3620	37.7410
 1.3630	37.5420
 1.3640	37.3350
 1.3650	37.1180
 1.3660	36.8950
 1.3670	36.6610
 1.3680	36.4150
 1.3690	36.1550
 1.3700	35.8780
 1.3710	35.5860
 1.3720	35.2770
 1.3730	34.9470
 1.3740	34.6000
 1.3750	34.2310
 1.3760	33.8380
 1.3770	33.4220
 1.3780	32.9770
 1.3790	32.5080
 1.3800	32.0160
 1.3810	31.4940
 1.3820	30.9540
 1.3830	30.3920
 1.3840	29.8130
 1.3850	29.2130
 1.3860	28.6020
 1.3870	27.9700
 1.3880	27.3390
 1.3890	26.6970
 1.3900	26.0490
 1.3910	25.4080
 1.3920	24.7640
 1.3930	24.1210
 1.3940	23.4880
 1.3950	22.8560
 1.3960	22.2370
 1.3970	21.6360
 1.3980	21.0490
 1.3990	20.4880
 1.4000	19.9480
 1.4010	19.4240
 1.4020	18.9260
 1.4030	18.4480
 1.4040	17.9930
 1.4050	17.5640
 1.4060	17.1600
 1.4070	16.7840
 1.4080	16.4310
 1.4090	16.0990
 1.4100	15.7910
 1.4110	15.5020
 1.4120	15.2330
 1.4130	14.9870
 1.4140	14.7570
 1.4150	14.5470
 1.4160	14.3550
 1.4170	14.1770
 1.4180	14.0140
 1.4190	13.8640
 1.4200	13.7270
 1.4210	13.6010
 1.4220	13.4850
 1.4230	13.3810
 1.4240	13.2870
 1.4250	13.2010
 1.4260	13.1250
 1.4270	13.0560
 1.4280	12.9940
 1.4290	12.9390
 1.4300	12.8920
 1.4310	12.8500
 1.4320	12.8150
 1.4330	12.7830
 1.4340	12.7560
 1.4350	12.7340
 1.4360	12.7170
 1.4370	12.7040
 1.4380	12.6950
 1.4390	12.6890
 1.4400	12.6850
 1.4410	12.6840
 1.4420	12.6870
 1.4430	12.6910
 1.4440	12.6990
 1.4450	12.7080
 1.4460	12.7190
 1.4470	12.7310
 1.4480	12.7440
 1.4490	12.7590
 1.4500	12.7760
 1.4510	12.7940
 1.4520	12.8130
 1.4530	12.8330
 1.4540	12.8540
 1.4550	12.8780
 1.4560	12.9030
 1.4570	12.9300
 1.4580	12.9610
 1.4590	12.9930
 1.4600	13.0300
 1.4610	13.0700
 1.4620	13.1140
 1.4630	13.1630
 1.4640	13.2140
 1.4650	13.2700
 1.4660	13.3300
 1.4670	13.3940
 1.4680	13.4630
 1.4690	13.5360
 1.4700	13.6130
