Name: Umbellularia californica 3
Type: vegetation
Class: Shrub
Genus: Umbellularia
Species: californica
Sample No.: VH239
Owner: UCSB
Wavelength Range: VSWIR
Origin: 34.5075; -119.763; WGS84
Collection Date: 10/13/2013
Description: Samples were collected as part of the HyspIRI Airborne Campaign. 48 individual plants were sampled in three times in 2013 - spring  summer  and fall. The name of the sample includes a 1  2  or 3 which references a different individual of the species. Samples were taken to JPL and processed within 48 hours of collection. The same leaves were processed in the Nicolet and then measured using the ASD.
Measurement: Bidirectional reflectance
First Column: X
Second Column: Y
X Units: Wavelength (micrometers)
Y Units: Reflectance (percentage)
First X Value: 0.35
Last X Value: 2.5
Number of X Values: 2151
Additional Information: vegetation.shrub.umbellularia.californica.vswir.vh239.ucsb.asd.ancillary.txt

 0.3500	 8.0000
 0.3510	 7.8180
 0.3520	 7.9220
 0.3530	 7.9880
 0.3540	 7.8130
 0.3550	 7.9780
 0.3560	 7.9540
 0.3570	 7.8180
 0.3580	 7.9150
 0.3590	 7.9780
 0.3600	 7.9350
 0.3610	 7.8390
 0.3620	 7.8850
 0.3630	 7.8560
 0.3640	 7.8250
 0.3650	 7.8780
 0.3660	 7.8570
 0.3670	 7.8310
 0.3680	 7.8160
 0.3690	 7.7850
 0.3700	 7.7330
 0.3710	 7.6450
 0.3720	 7.5880
 0.3730	 7.8030
 0.3740	 7.8030
 0.3750	 7.7180
 0.3760	 7.7860
 0.3770	 7.7140
 0.3780	 7.6600
 0.3790	 7.6670
 0.3800	 7.6620
 0.3810	 7.5360
 0.3820	 7.4890
 0.3830	 7.6210
 0.3840	 7.7260
 0.3850	 7.6730
 0.3860	 7.5710
 0.3870	 7.5900
 0.3880	 7.6590
 0.3890	 7.6610
 0.3900	 7.6110
 0.3910	 7.6480
 0.3920	 7.6860
 0.3930	 7.6820
 0.3940	 7.6330
 0.3950	 7.6300
 0.3960	 7.5830
 0.3970	 7.5400
 0.3980	 7.5970
 0.3990	 7.6690
 0.4000	 7.6940
 0.4010	 7.6820
 0.4020	 7.7360
 0.4030	 7.6940
 0.4040	 7.6450
 0.4050	 7.6860
 0.4060	 7.7280
 0.4070	 7.7200
 0.4080	 7.6930
 0.4090	 7.7230
 0.4100	 7.7700
 0.4110	 7.8080
 0.4120	 7.8170
 0.4130	 7.7730
 0.4140	 7.8060
 0.4150	 7.8810
 0.4160	 7.9180
 0.4170	 7.9150
 0.4180	 7.9320
 0.4190	 7.9750
 0.4200	 7.9960
 0.4210	 8.0420
 0.4220	 8.0950
 0.4230	 8.1340
 0.4240	 8.1530
 0.4250	 8.1750
 0.4260	 8.2120
 0.4270	 8.2660
 0.4280	 8.3070
 0.4290	 8.3400
 0.4300	 8.3690
 0.4310	 8.3880
 0.4320	 8.4010
 0.4330	 8.4180
 0.4340	 8.4430
 0.4350	 8.4490
 0.4360	 8.4860
 0.4370	 8.5410
 0.4380	 8.5520
 0.4390	 8.5610
 0.4400	 8.5880
 0.4410	 8.6330
 0.4420	 8.6690
 0.4430	 8.6830
 0.4440	 8.6920
 0.4450	 8.7170
 0.4460	 8.7360
 0.4470	 8.7510
 0.4480	 8.7690
 0.4490	 8.8050
 0.4500	 8.8040
 0.4510	 8.8020
 0.4520	 8.8370
 0.4530	 8.8740
 0.4540	 8.8870
 0.4550	 8.8810
 0.4560	 8.8860
 0.4570	 8.9210
 0.4580	 8.9410
 0.4590	 8.9280
 0.4600	 8.9320
 0.4610	 8.9570
 0.4620	 8.9870
 0.4630	 8.9980
 0.4640	 9.0100
 0.4650	 9.0130
 0.4660	 9.0120
 0.4670	 9.0270
 0.4680	 9.0370
 0.4690	 9.0520
 0.4700	 9.0710
 0.4710	 9.0490
 0.4720	 9.0440
 0.4730	 9.0590
 0.4740	 9.0690
 0.4750	 9.0710
 0.4760	 9.0710
 0.4770	 9.0730
 0.4780	 9.0790
 0.4790	 9.0760
 0.4800	 9.0730
 0.4810	 9.0810
 0.4820	 9.0920
 0.4830	 9.0930
 0.4840	 9.0930
 0.4850	 9.1180
 0.4860	 9.1280
 0.4870	 9.1320
 0.4880	 9.1460
 0.4890	 9.1750
 0.4900	 9.2020
 0.4910	 9.2250
 0.4920	 9.2560
 0.4930	 9.2920
 0.4940	 9.3250
 0.4950	 9.3570
 0.4960	 9.4070
 0.4970	 9.4570
 0.4980	 9.5080
 0.4990	 9.5670
 0.5000	 9.6260
 0.5010	 9.6990
 0.5020	 9.7780
 0.5030	 9.8470
 0.5040	 9.9400
 0.5050	10.0450
 0.5060	10.1500
 0.5070	10.2670
 0.5080	10.3890
 0.5090	10.5210
 0.5100	10.6680
 0.5110	10.8210
 0.5120	10.9860
 0.5130	11.1650
 0.5140	11.3580
 0.5150	11.5660
 0.5160	11.7810
 0.5170	12.0000
 0.5180	12.2490
 0.5190	12.5050
 0.5200	12.7640
 0.5210	13.0330
 0.5220	13.3140
 0.5230	13.6070
 0.5240	13.9060
 0.5250	14.1890
 0.5260	14.4840
 0.5270	14.7840
 0.5280	15.0750
 0.5290	15.3620
 0.5300	15.6470
 0.5310	15.9270
 0.5320	16.1970
 0.5330	16.4540
 0.5340	16.7030
 0.5350	16.9490
 0.5360	17.1900
 0.5370	17.4150
 0.5380	17.6250
 0.5390	17.8330
 0.5400	18.0340
 0.5410	18.2180
 0.5420	18.3850
 0.5430	18.5530
 0.5440	18.7220
 0.5450	18.8810
 0.5460	19.0200
 0.5470	19.1760
 0.5480	19.3270
 0.5490	19.4570
 0.5500	19.5590
 0.5510	19.6470
 0.5520	19.7190
 0.5530	19.7700
 0.5540	19.8030
 0.5550	19.8080
 0.5560	19.7880
 0.5570	19.7530
 0.5580	19.6980
 0.5590	19.6270
 0.5600	19.5410
 0.5610	19.4280
 0.5620	19.3110
 0.5630	19.1850
 0.5640	19.0340
 0.5650	18.8710
 0.5660	18.6980
 0.5670	18.5180
 0.5680	18.3370
 0.5690	18.1400
 0.5700	17.9360
 0.5710	17.7360
 0.5720	17.5260
 0.5730	17.3340
 0.5740	17.1620
 0.5750	16.9930
 0.5760	16.8330
 0.5770	16.6840
 0.5780	16.5450
 0.5790	16.4120
 0.5800	16.2930
 0.5810	16.1790
 0.5820	16.0600
 0.5830	15.9540
 0.5840	15.8540
 0.5850	15.7550
 0.5860	15.6570
 0.5870	15.5700
 0.5880	15.4920
 0.5890	15.4210
 0.5900	15.3570
 0.5910	15.2940
 0.5920	15.2320
 0.5930	15.1760
 0.5940	15.1270
 0.5950	15.0870
 0.5960	15.0520
 0.5970	15.0070
 0.5980	14.9640
 0.5990	14.9190
 0.6000	14.8690
 0.6010	14.8130
 0.6020	14.7470
 0.6030	14.6710
 0.6040	14.5880
 0.6050	14.5030
 0.6060	14.4110
 0.6070	14.3090
 0.6080	14.1980
 0.6090	14.0800
 0.6100	13.9540
 0.6110	13.8240
 0.6120	13.7070
 0.6130	13.6010
 0.6140	13.5020
 0.6150	13.4010
 0.6160	13.2980
 0.6170	13.2020
 0.6180	13.1190
 0.6190	13.0380
 0.6200	12.9600
 0.6210	12.8910
 0.6220	12.8420
 0.6230	12.7980
 0.6240	12.7590
 0.6250	12.7250
 0.6260	12.7020
 0.6270	12.6830
 0.6280	12.6680
 0.6290	12.6610
 0.6300	12.6480
 0.6310	12.6380
 0.6320	12.6300
 0.6330	12.6170
 0.6340	12.5950
 0.6350	12.5630
 0.6360	12.5190
 0.6370	12.4670
 0.6380	12.3970
 0.6390	12.3130
 0.6400	12.2240
 0.6410	12.1250
 0.6420	12.0180
 0.6430	11.9070
 0.6440	11.7960
 0.6450	11.6800
 0.6460	11.5620
 0.6470	11.4490
 0.6480	11.3480
 0.6490	11.2520
 0.6500	11.1610
 0.6510	11.0830
 0.6520	11.0120
 0.6530	10.9440
 0.6540	10.8730
 0.6550	10.7940
 0.6560	10.7110
 0.6570	10.6220
 0.6580	10.5290
 0.6590	10.4310
 0.6600	10.3260
 0.6610	10.2190
 0.6620	10.1140
 0.6630	10.0240
 0.6640	 9.9430
 0.6650	 9.8630
 0.6660	 9.7870
 0.6670	 9.7220
 0.6680	 9.6680
 0.6690	 9.6180
 0.6700	 9.5930
 0.6710	 9.5720
 0.6720	 9.5490
 0.6730	 9.5360
 0.6740	 9.5260
 0.6750	 9.5210
 0.6760	 9.5210
 0.6770	 9.5270
 0.6780	 9.5380
 0.6790	 9.5570
 0.6800	 9.5870
 0.6810	 9.6210
 0.6820	 9.6690
 0.6830	 9.7340
 0.6840	 9.8150
 0.6850	 9.9250
 0.6860	10.0680
 0.6870	10.2480
 0.6880	10.4760
 0.6890	10.7600
 0.6900	11.1070
 0.6910	11.5270
 0.6920	12.0420
 0.6930	12.6470
 0.6940	13.3430
 0.6950	14.1490
 0.6960	15.0580
 0.6970	16.0670
 0.6980	17.1700
 0.6990	18.3580
 0.7000	19.6190
 0.7010	20.9450
 0.7020	22.3230
 0.7030	23.7300
 0.7040	25.1480
 0.7050	26.5660
 0.7060	27.9900
 0.7070	29.4090
 0.7080	30.8060
 0.7090	32.1750
 0.7100	33.5260
 0.7110	34.8490
 0.7120	36.1350
 0.7130	37.3870
 0.7140	38.6150
 0.7150	39.8080
 0.7160	40.9560
 0.7170	42.0600
 0.7180	43.1410
 0.7190	44.1920
 0.7200	45.1930
 0.7210	46.1580
 0.7220	47.0770
 0.7230	47.9560
 0.7240	48.8180
 0.7250	49.6140
 0.7260	50.3700
 0.7270	51.1080
 0.7280	51.7930
 0.7290	52.4540
 0.7300	53.0790
 0.7310	53.6510
 0.7320	54.2100
 0.7330	54.7370
 0.7340	55.2280
 0.7350	55.7030
 0.7360	56.1270
 0.7370	56.5240
 0.7380	56.9140
 0.7390	57.2720
 0.7400	57.6100
 0.7410	57.9320
 0.7420	58.2360
 0.7430	58.5120
 0.7440	58.7600
 0.7450	58.9890
 0.7460	59.2150
 0.7470	59.4210
 0.7480	59.6070
 0.7490	59.7740
 0.7500	59.9210
 0.7510	60.0830
 0.7520	60.2330
 0.7530	60.3350
 0.7540	60.4340
 0.7550	60.5370
 0.7560	60.6430
 0.7570	60.7450
 0.7580	60.8120
 0.7590	60.8680
 0.7600	60.9310
 0.7610	61.0010
 0.7620	61.0660
 0.7630	61.1090
 0.7640	61.1290
 0.7650	61.1700
 0.7660	61.1960
 0.7670	61.2220
 0.7680	61.2820
 0.7690	61.2970
 0.7700	61.3030
 0.7710	61.3230
 0.7720	61.3460
 0.7730	61.3700
 0.7740	61.3780
 0.7750	61.3680
 0.7760	61.3730
 0.7770	61.4000
 0.7780	61.4380
 0.7790	61.4660
 0.7800	61.4430
 0.7810	61.4270
 0.7820	61.4410
 0.7830	61.4610
 0.7840	61.4420
 0.7850	61.4350
 0.7860	61.4740
 0.7870	61.5130
 0.7880	61.5000
 0.7890	61.4760
 0.7900	61.4930
 0.7910	61.4810
 0.7920	61.4940
 0.7930	61.5220
 0.7940	61.5120
 0.7950	61.5090
 0.7960	61.5020
 0.7970	61.4950
 0.7980	61.5210
 0.7990	61.5260
 0.8000	61.5210
 0.8010	61.5270
 0.8020	61.5400
 0.8030	61.5450
 0.8040	61.5490
 0.8050	61.5630
 0.8060	61.5410
 0.8070	61.5370
 0.8080	61.5610
 0.8090	61.5730
 0.8100	61.5380
 0.8110	61.5120
 0.8120	61.5270
 0.8130	61.5520
 0.8140	61.5640
 0.8150	61.5610
 0.8160	61.5570
 0.8170	61.5710
 0.8180	61.5770
 0.8190	61.5790
 0.8200	61.5900
 0.8210	61.5870
 0.8220	61.5990
 0.8230	61.6300
 0.8240	61.6610
 0.8250	61.6490
 0.8260	61.6250
 0.8270	61.6150
 0.8280	61.6140
 0.8290	61.6300
 0.8300	61.6590
 0.8310	61.6850
 0.8320	61.6630
 0.8330	61.6580
 0.8340	61.6620
 0.8350	61.6490
 0.8360	61.6740
 0.8370	61.7010
 0.8380	61.7140
 0.8390	61.7230
 0.8400	61.7250
 0.8410	61.7300
 0.8420	61.7380
 0.8430	61.7350
 0.8440	61.7520
 0.8450	61.7810
 0.8460	61.8050
 0.8470	61.7980
 0.8480	61.8100
 0.8490	61.8330
 0.8500	61.8370
 0.8510	61.8220
 0.8520	61.8240
 0.8530	61.8320
 0.8540	61.8200
 0.8550	61.8560
 0.8560	61.8890
 0.8570	61.8880
 0.8580	61.8540
 0.8590	61.8510
 0.8600	61.8770
 0.8610	61.9080
 0.8620	61.9050
 0.8630	61.9280
 0.8640	61.9350
 0.8650	61.9010
 0.8660	61.9020
 0.8670	61.9200
 0.8680	61.9370
 0.8690	61.9390
 0.8700	61.9350
 0.8710	61.9500
 0.8720	61.9660
 0.8730	61.9460
 0.8740	61.9530
 0.8750	61.9460
 0.8760	61.9310
 0.8770	61.9560
 0.8780	61.9550
 0.8790	61.9360
 0.8800	61.9280
 0.8810	61.9590
 0.8820	61.9650
 0.8830	61.9680
 0.8840	61.9860
 0.8850	61.9870
 0.8860	61.9500
 0.8870	61.9100
 0.8880	61.9040
 0.8890	61.9210
 0.8900	61.9250
 0.8910	61.9170
 0.8920	61.9160
 0.8930	61.9150
 0.8940	61.9250
 0.8950	61.9360
 0.8960	61.9330
 0.8970	61.9040
 0.8980	61.8700
 0.8990	61.8690
 0.9000	61.9320
 0.9010	61.9290
 0.9020	61.9070
 0.9030	61.9010
 0.9040	61.8940
 0.9050	61.8930
 0.9060	61.8770
 0.9070	61.8450
 0.9080	61.8450
 0.9090	61.8410
 0.9100	61.8510
 0.9110	61.8710
 0.9120	61.8160
 0.9130	61.7980
 0.9140	61.8080
 0.9150	61.8090
 0.9160	61.8130
 0.9170	61.8320
 0.9180	61.8310
 0.9190	61.7860
 0.9200	61.7920
 0.9210	61.7860
 0.9220	61.7640
 0.9230	61.7570
 0.9240	61.7350
 0.9250	61.7360
 0.9260	61.7460
 0.9270	61.7240
 0.9280	61.7340
 0.9290	61.7410
 0.9300	61.7180
 0.9310	61.6670
 0.9320	61.6450
 0.9330	61.6450
 0.9340	61.6420
 0.9350	61.6100
 0.9360	61.6020
 0.9370	61.5820
 0.9380	61.5410
 0.9390	61.5220
 0.9400	61.5300
 0.9410	61.5150
 0.9420	61.4650
 0.9430	61.4520
 0.9440	61.4420
 0.9450	61.4050
 0.9460	61.3410
 0.9470	61.3030
 0.9480	61.2620
 0.9490	61.2220
 0.9500	61.1900
 0.9510	61.1620
 0.9520	61.1150
 0.9530	61.0610
 0.9540	61.0170
 0.9550	60.9830
 0.9560	60.9180
 0.9570	60.8360
 0.9580	60.7700
 0.9590	60.7110
 0.9600	60.6990
 0.9610	60.6840
 0.9620	60.6210
 0.9630	60.6020
 0.9640	60.5910
 0.9650	60.5690
 0.9660	60.5350
 0.9670	60.5000
 0.9680	60.4940
 0.9690	60.5030
 0.9700	60.4970
 0.9710	60.4680
 0.9720	60.4690
 0.9730	60.4740
 0.9740	60.4400
 0.9750	60.4490
 0.9760	60.4430
 0.9770	60.4510
 0.9780	60.5160
 0.9790	60.5210
 0.9800	60.4610
 0.9810	60.3950
 0.9820	60.4020
 0.9830	60.4930
 0.9840	60.5390
 0.9850	60.5240
 0.9860	60.4980
 0.9870	60.4790
 0.9880	60.4660
 0.9890	60.4760
 0.9900	60.5190
 0.9910	60.5700
 0.9920	60.6130
 0.9930	60.6560
 0.9940	60.6990
 0.9950	60.7430
 0.9960	60.7860
 0.9970	60.8290
 0.9980	60.8720
 0.9990	60.9150
 1.0000	60.9580
 1.0010	61.0020
 1.0020	61.0450
 1.0030	61.0880
 1.0040	61.1310
 1.0050	61.1740
 1.0060	61.2180
 1.0070	61.2610
 1.0080	61.3040
 1.0090	61.3470
 1.0100	61.3470
 1.0110	61.3680
 1.0120	61.3900
 1.0130	61.4030
 1.0140	61.4230
 1.0150	61.4420
 1.0160	61.4750
 1.0170	61.5100
 1.0180	61.5390
 1.0190	61.5720
 1.0200	61.5920
 1.0210	61.5960
 1.0220	61.6040
 1.0230	61.6140
 1.0240	61.6210
 1.0250	61.6310
 1.0260	61.6440
 1.0270	61.6530
 1.0280	61.6510
 1.0290	61.6640
 1.0300	61.6880
 1.0310	61.7070
 1.0320	61.7300
 1.0330	61.7630
 1.0340	61.7790
 1.0350	61.7880
 1.0360	61.8020
 1.0370	61.8010
 1.0380	61.8070
 1.0390	61.8110
 1.0400	61.8170
 1.0410	61.8300
 1.0420	61.8350
 1.0430	61.8310
 1.0440	61.8360
 1.0450	61.8450
 1.0460	61.8480
 1.0470	61.8560
 1.0480	61.8600
 1.0490	61.8550
 1.0500	61.8510
 1.0510	61.8480
 1.0520	61.8450
 1.0530	61.8450
 1.0540	61.8430
 1.0550	61.8450
 1.0560	61.8510
 1.0570	61.8620
 1.0580	61.8820
 1.0590	61.8910
 1.0600	61.9050
 1.0610	61.9090
 1.0620	61.8930
 1.0630	61.8940
 1.0640	61.9020
 1.0650	61.9070
 1.0660	61.9170
 1.0670	61.9270
 1.0680	61.9370
 1.0690	61.9440
 1.0700	61.9510
 1.0710	61.9650
 1.0720	61.9670
 1.0730	61.9620
 1.0740	61.9570
 1.0750	61.9450
 1.0760	61.9390
 1.0770	61.9350
 1.0780	61.9310
 1.0790	61.9320
 1.0800	61.9280
 1.0810	61.9120
 1.0820	61.9090
 1.0830	61.9130
 1.0840	61.9130
 1.0850	61.9190
 1.0860	61.9260
 1.0870	61.9250
 1.0880	61.9150
 1.0890	61.9080
 1.0900	61.8980
 1.0910	61.8910
 1.0920	61.8830
 1.0930	61.8760
 1.0940	61.8740
 1.0950	61.8660
 1.0960	61.8540
 1.0970	61.8430
 1.0980	61.8340
 1.0990	61.8200
 1.1000	61.8020
 1.1010	61.7860
 1.1020	61.7750
 1.1030	61.7460
 1.1040	61.7110
 1.1050	61.6960
 1.1060	61.6770
 1.1070	61.6550
 1.1080	61.6400
 1.1090	61.6380
 1.1100	61.6250
 1.1110	61.6140
 1.1120	61.5920
 1.1130	61.5610
 1.1140	61.5330
 1.1150	61.4950
 1.1160	61.4670
 1.1170	61.4510
 1.1180	61.4230
 1.1190	61.3930
 1.1200	61.3620
 1.1210	61.3180
 1.1220	61.2740
 1.1230	61.2350
 1.1240	61.1850
 1.1250	61.1320
 1.1260	61.0810
 1.1270	61.0160
 1.1280	60.9370
 1.1290	60.8630
 1.1300	60.7860
 1.1310	60.7050
 1.1320	60.6260
 1.1330	60.5360
 1.1340	60.4410
 1.1350	60.3320
 1.1360	60.2110
 1.1370	60.0850
 1.1380	59.9540
 1.1390	59.8140
 1.1400	59.6800
 1.1410	59.5450
 1.1420	59.4000
 1.1430	59.2560
 1.1440	59.1120
 1.1450	58.9580
 1.1460	58.8200
 1.1470	58.6920
 1.1480	58.5580
 1.1490	58.4260
 1.1500	58.3010
 1.1510	58.1700
 1.1520	58.0530
 1.1530	57.9460
 1.1540	57.8470
 1.1550	57.7520
 1.1560	57.6710
 1.1570	57.6010
 1.1580	57.5340
 1.1590	57.4730
 1.1600	57.4160
 1.1610	57.3600
 1.1620	57.3100
 1.1630	57.2650
 1.1640	57.2230
 1.1650	57.1820
 1.1660	57.1430
 1.1670	57.1090
 1.1680	57.0760
 1.1690	57.0480
 1.1700	57.0280
 1.1710	57.0040
 1.1720	56.9820
 1.1730	56.9550
 1.1740	56.9250
 1.1750	56.8930
 1.1760	56.8660
 1.1770	56.8340
 1.1780	56.8010
 1.1790	56.7660
 1.1800	56.7310
 1.1810	56.6990
 1.1820	56.6710
 1.1830	56.6430
 1.1840	56.6110
 1.1850	56.5780
 1.1860	56.5410
 1.1870	56.5080
 1.1880	56.4810
 1.1890	56.4560
 1.1900	56.4310
 1.1910	56.4120
 1.1920	56.3920
 1.1930	56.3670
 1.1940	56.3530
 1.1950	56.3480
 1.1960	56.3420
 1.1970	56.3410
 1.1980	56.3440
 1.1990	56.3460
 1.2000	56.3510
 1.2010	56.3580
 1.2020	56.3660
 1.2030	56.3780
 1.2040	56.3970
 1.2050	56.4200
 1.2060	56.4440
 1.2070	56.4740
 1.2080	56.5060
 1.2090	56.5360
 1.2100	56.5670
 1.2110	56.6010
 1.2120	56.6340
 1.2130	56.6690
 1.2140	56.7070
 1.2150	56.7480
 1.2160	56.7870
 1.2170	56.8340
 1.2180	56.8880
 1.2190	56.9440
 1.2200	57.0060
 1.2210	57.0630
 1.2220	57.1130
 1.2230	57.1620
 1.2240	57.2070
 1.2250	57.2500
 1.2260	57.2990
 1.2270	57.3430
 1.2280	57.3920
 1.2290	57.4360
 1.2300	57.4700
 1.2310	57.5070
 1.2320	57.5400
 1.2330	57.5760
 1.2340	57.6140
 1.2350	57.6590
 1.2360	57.6990
 1.2370	57.7390
 1.2380	57.7690
 1.2390	57.7980
 1.2400	57.8300
 1.2410	57.8570
 1.2420	57.8840
 1.2430	57.9120
 1.2440	57.9380
 1.2450	57.9640
 1.2460	57.9960
 1.2470	58.0240
 1.2480	58.0380
 1.2490	58.0500
 1.2500	58.0570
 1.2510	58.0640
 1.2520	58.0730
 1.2530	58.0780
 1.2540	58.0870
 1.2550	58.0970
 1.2560	58.1100
 1.2570	58.1230
 1.2580	58.1350
 1.2590	58.1460
 1.2600	58.1500
 1.2610	58.1600
 1.2620	58.1740
 1.2630	58.1900
 1.2640	58.1980
 1.2650	58.2020
 1.2660	58.2010
 1.2670	58.1970
 1.2680	58.1880
 1.2690	58.1800
 1.2700	58.1730
 1.2710	58.1600
 1.2720	58.1480
 1.2730	58.1400
 1.2740	58.1280
 1.2750	58.1170
 1.2760	58.1080
 1.2770	58.0980
 1.2780	58.0890
 1.2790	58.0810
 1.2800	58.0580
 1.2810	58.0320
 1.2820	58.0130
 1.2830	57.9920
 1.2840	57.9730
 1.2850	57.9590
 1.2860	57.9410
 1.2870	57.9180
 1.2880	57.8900
 1.2890	57.8600
 1.2900	57.8240
 1.2910	57.7910
 1.2920	57.7600
 1.2930	57.7280
 1.2940	57.7000
 1.2950	57.6650
 1.2960	57.6230
 1.2970	57.5850
 1.2980	57.5450
 1.2990	57.5070
 1.3000	57.4740
 1.3010	57.4310
 1.3020	57.3880
 1.3030	57.3490
 1.3040	57.3000
 1.3050	57.2530
 1.3060	57.2090
 1.3070	57.1510
 1.3080	57.0860
 1.3090	57.0170
 1.3100	56.9430
 1.3110	56.8690
 1.3120	56.7910
 1.3130	56.7140
 1.3140	56.6280
 1.3150	56.5320
 1.3160	56.4410
 1.3170	56.3500
 1.3180	56.2530
 1.3190	56.1590
 1.3200	56.0580
 1.3210	55.9470
 1.3220	55.8330
 1.3230	55.7160
 1.3240	55.5950
 1.3250	55.4670
 1.3260	55.3370
 1.3270	55.2000
 1.3280	55.0570
 1.3290	54.9140
 1.3300	54.7670
 1.3310	54.6190
 1.3320	54.4700
 1.3330	54.3240
 1.3340	54.1760
 1.3350	54.0210
 1.3360	53.8600
 1.3370	53.6970
 1.3380	53.5400
 1.3390	53.3840
 1.3400	53.2300
 1.3410	53.0790
 1.3420	52.9240
 1.3430	52.7700
 1.3440	52.6160
 1.3450	52.4640
 1.3460	52.3150
 1.3470	52.1650
 1.3480	52.0160
 1.3490	51.8670
 1.3500	51.7210
 1.3510	51.5680
 1.3520	51.4160
 1.3530	51.2670
 1.3540	51.1180
 1.3550	50.9680
 1.3560	50.8200
 1.3570	50.6720
 1.3580	50.5180
 1.3590	50.3620
 1.3600	50.2000
 1.3610	50.0340
 1.3620	49.8670
 1.3630	49.6900
 1.3640	49.5060
 1.3650	49.3150
 1.3660	49.1180
 1.3670	48.9130
 1.3680	48.6980
 1.3690	48.4720
 1.3700	48.2280
 1.3710	47.9680
 1.3720	47.6980
 1.3730	47.4110
 1.3740	47.1090
 1.3750	46.7920
 1.3760	46.4520
 1.3770	46.0880
 1.3780	45.6980
 1.3790	45.2800
 1.3800	44.8310
 1.3810	44.3530
 1.3820	43.8530
 1.3830	43.3290
 1.3840	42.7780
 1.3850	42.2020
 1.3860	41.6090
 1.3870	40.9850
 1.3880	40.3570
 1.3890	39.7150
 1.3900	39.0600
 1.3910	38.4000
 1.3920	37.7320
 1.3930	37.0600
 1.3940	36.3870
 1.3950	35.7120
 1.3960	35.0450
 1.3970	34.3820
 1.3980	33.7310
 1.3990	33.1020
 1.4000	32.4850
 1.4010	31.8840
 1.4020	31.3050
 1.4030	30.7400
 1.4040	30.1970
 1.4050	29.6790
 1.4060	29.1830
 1.4070	28.7150
 1.4080	28.2710
 1.4090	27.8520
 1.4100	27.4630
 1.4110	27.0960
 1.4120	26.7550
 1.4130	26.4390
 1.4140	26.1430
 1.4150	25.8730
 1.4160	25.6240
 1.4170	25.3910
 1.4180	25.1830
 1.4190	24.9900
 1.4200	24.8160
 1.4210	24.6610
 1.4220	24.5160
 1.4230	24.3870
 1.4240	24.2710
 1.4250	24.1650
 1.4260	24.0730
 1.4270	23.9900
 1.4280	23.9160
 1.4290	23.8520
 1.4300	23.7980
 1.4310	23.7510
 1.4320	23.7140
 1.4330	23.6820
 1.4340	23.6540
 1.4350	23.6340
 1.4360	23.6200
 1.4370	23.6120
 1.4380	23.6120
 1.4390	23.6170
 1.4400	23.6260
 1.4410	23.6400
 1.4420	23.6550
 1.4430	23.6760
 1.4440	23.7020
 1.4450	23.7280
 1.4460	23.7560
 1.4470	23.7860
 1.4480	23.8160
 1.4490	23.8460
 1.4500	23.8790
 1.4510	23.9150
 1.4520	23.9480
 1.4530	23.9810
 1.4540	24.0150
 1.4550	24.0500
 1.4560	24.0930
 1.4570	24.1420
 1.4580	24.1940
 1.4590	24.2500
 1.4600	24.3080
 1.4610	24.3720
 1.4620	24.4390
 1.4630	24.5140
 1.4640	24.5930
 1.4650	24.6770
 1.4660	24.7690
 1.4670	24.8640
 1.4680	24.9640
 1.4690	25.0710
