Name: Abies concolor 2
Type: vegetation
Class: Tree
Genus: Abies
Species: concolor
Sample No.: VH064
Owner: UCSB
Wavelength Range: VSWIR
Origin: 37.0437; -119.3025; WGS84
Collection Date: 4/20/2013
Description: Samples were collected as part of the HyspIRI Airborne Campaign. 48 individual plants were sampled in three times in 2013 - spring  summer  and fall. The name of the sample includes a 1  2  or 3 which references a different individual of the species. Samples were taken to JPL and processed within 48 hours of collection. The same leaves were processed in the Nicolet and then measured using the ASD.
Measurement: Bidirectional reflectance
First Column: X
Second Column: Y
X Units: Wavelength (micrometers)
Y Units: Reflectance (percentage)
First X Value: 0.35
Last X Value: 2.5
Number of X Values: 2151
Additional Information: vegetation.tree.abies.concolor.vswir.vh064.ucsb.asd.ancillary.txt

 0.3500	 6.6830
 0.3510	 6.5760
 0.3520	 6.5010
 0.3530	 6.4710
 0.3540	 6.4610
 0.3550	 6.4600
 0.3560	 6.4970
 0.3570	 6.4820
 0.3580	 6.3020
 0.3590	 6.1600
 0.3600	 6.1830
 0.3610	 6.3090
 0.3620	 6.2260
 0.3630	 6.2450
 0.3640	 6.2920
 0.3650	 6.2600
 0.3660	 6.3060
 0.3670	 6.2460
 0.3680	 6.1180
 0.3690	 6.1030
 0.3700	 6.1830
 0.3710	 6.2380
 0.3720	 6.2130
 0.3730	 6.1840
 0.3740	 6.2020
 0.3750	 6.2090
 0.3760	 6.1420
 0.3770	 6.0780
 0.3780	 6.0400
 0.3790	 6.0250
 0.3800	 6.0120
 0.3810	 5.9770
 0.3820	 5.9950
 0.3830	 6.0790
 0.3840	 6.0850
 0.3850	 6.0530
 0.3860	 6.0280
 0.3870	 6.0380
 0.3880	 6.0250
 0.3890	 6.0040
 0.3900	 5.9920
 0.3910	 5.9980
 0.3920	 5.9780
 0.3930	 5.9820
 0.3940	 6.0260
 0.3950	 5.9950
 0.3960	 5.9820
 0.3970	 6.0010
 0.3980	 6.0300
 0.3990	 6.0300
 0.4000	 6.0430
 0.4010	 6.0810
 0.4020	 6.1010
 0.4030	 6.1160
 0.4040	 6.1280
 0.4050	 6.1380
 0.4060	 6.1610
 0.4070	 6.1700
 0.4080	 6.1800
 0.4090	 6.2260
 0.4100	 6.2870
 0.4110	 6.3330
 0.4120	 6.3600
 0.4130	 6.4040
 0.4140	 6.4480
 0.4150	 6.4870
 0.4160	 6.5220
 0.4170	 6.5760
 0.4180	 6.6340
 0.4190	 6.6940
 0.4200	 6.7620
 0.4210	 6.8420
 0.4220	 6.9080
 0.4230	 6.9470
 0.4240	 6.9820
 0.4250	 7.0580
 0.4260	 7.1500
 0.4270	 7.2100
 0.4280	 7.2620
 0.4290	 7.3170
 0.4300	 7.3790
 0.4310	 7.4320
 0.4320	 7.4950
 0.4330	 7.5600
 0.4340	 7.6170
 0.4350	 7.6640
 0.4360	 7.7150
 0.4370	 7.7680
 0.4380	 7.8040
 0.4390	 7.8420
 0.4400	 7.8830
 0.4410	 7.9270
 0.4420	 7.9750
 0.4430	 8.0210
 0.4440	 8.0610
 0.4450	 8.0940
 0.4460	 8.1310
 0.4470	 8.1810
 0.4480	 8.2340
 0.4490	 8.2590
 0.4500	 8.2880
 0.4510	 8.3190
 0.4520	 8.3450
 0.4530	 8.3810
 0.4540	 8.4120
 0.4550	 8.4350
 0.4560	 8.4550
 0.4570	 8.4730
 0.4580	 8.4930
 0.4590	 8.5130
 0.4600	 8.5170
 0.4610	 8.5210
 0.4620	 8.5220
 0.4630	 8.5160
 0.4640	 8.5320
 0.4650	 8.5460
 0.4660	 8.5430
 0.4670	 8.5260
 0.4680	 8.5160
 0.4690	 8.5200
 0.4700	 8.5340
 0.4710	 8.5310
 0.4720	 8.5240
 0.4730	 8.5220
 0.4740	 8.5320
 0.4750	 8.5320
 0.4760	 8.5290
 0.4770	 8.5250
 0.4780	 8.5180
 0.4790	 8.5190
 0.4800	 8.5260
 0.4810	 8.5300
 0.4820	 8.5240
 0.4830	 8.5190
 0.4840	 8.5220
 0.4850	 8.5350
 0.4860	 8.5460
 0.4870	 8.5590
 0.4880	 8.5770
 0.4890	 8.5950
 0.4900	 8.6110
 0.4910	 8.6310
 0.4920	 8.6590
 0.4930	 8.6990
 0.4940	 8.7430
 0.4950	 8.7890
 0.4960	 8.8370
 0.4970	 8.9010
 0.4980	 8.9730
 0.4990	 9.0480
 0.5000	 9.1440
 0.5010	 9.2370
 0.5020	 9.3300
 0.5030	 9.4500
 0.5040	 9.5790
 0.5050	 9.7140
 0.5060	 9.8580
 0.5070	10.0290
 0.5080	10.2090
 0.5090	10.4000
 0.5100	10.6110
 0.5110	10.8280
 0.5120	11.0630
 0.5130	11.3180
 0.5140	11.5810
 0.5150	11.8600
 0.5160	12.1490
 0.5170	12.4450
 0.5180	12.7500
 0.5190	13.0650
 0.5200	13.3870
 0.5210	13.7110
 0.5220	14.0200
 0.5230	14.3220
 0.5240	14.6220
 0.5250	14.9040
 0.5260	15.1750
 0.5270	15.4300
 0.5280	15.6640
 0.5290	15.8810
 0.5300	16.0810
 0.5310	16.2680
 0.5320	16.4420
 0.5330	16.6010
 0.5340	16.7410
 0.5350	16.8650
 0.5360	16.9880
 0.5370	17.0990
 0.5380	17.1950
 0.5390	17.2810
 0.5400	17.3670
 0.5410	17.4490
 0.5420	17.5260
 0.5430	17.6020
 0.5440	17.6810
 0.5450	17.7590
 0.5460	17.8310
 0.5470	17.9030
 0.5480	17.9650
 0.5490	18.0180
 0.5500	18.0690
 0.5510	18.1100
 0.5520	18.1330
 0.5530	18.1380
 0.5540	18.1260
 0.5550	18.0920
 0.5560	18.0360
 0.5570	17.9610
 0.5580	17.8660
 0.5590	17.7600
 0.5600	17.6450
 0.5610	17.5120
 0.5620	17.3760
 0.5630	17.2340
 0.5640	17.0780
 0.5650	16.9200
 0.5660	16.7530
 0.5670	16.5720
 0.5680	16.3810
 0.5690	16.1840
 0.5700	15.9840
 0.5710	15.7810
 0.5720	15.5820
 0.5730	15.3870
 0.5740	15.1960
 0.5750	15.0160
 0.5760	14.8550
 0.5770	14.7070
 0.5780	14.5640
 0.5790	14.4290
 0.5800	14.3040
 0.5810	14.1870
 0.5820	14.0750
 0.5830	13.9730
 0.5840	13.8790
 0.5850	13.7890
 0.5860	13.7050
 0.5870	13.6170
 0.5880	13.5290
 0.5890	13.4440
 0.5900	13.3650
 0.5910	13.2990
 0.5920	13.2480
 0.5930	13.2060
 0.5940	13.1710
 0.5950	13.1340
 0.5960	13.0910
 0.5970	13.0540
 0.5980	13.0200
 0.5990	12.9840
 0.6000	12.9430
 0.6010	12.8960
 0.6020	12.8390
 0.6030	12.7740
 0.6040	12.7040
 0.6050	12.6240
 0.6060	12.5330
 0.6070	12.4340
 0.6080	12.3310
 0.6090	12.2210
 0.6100	12.1090
 0.6110	11.9970
 0.6120	11.8850
 0.6130	11.7690
 0.6140	11.6530
 0.6150	11.5400
 0.6160	11.4330
 0.6170	11.3350
 0.6180	11.2470
 0.6190	11.1670
 0.6200	11.0970
 0.6210	11.0350
 0.6220	10.9740
 0.6230	10.9220
 0.6240	10.8800
 0.6250	10.8460
 0.6260	10.8180
 0.6270	10.7930
 0.6280	10.7710
 0.6290	10.7560
 0.6300	10.7460
 0.6310	10.7310
 0.6320	10.7110
 0.6330	10.6870
 0.6340	10.6570
 0.6350	10.6130
 0.6360	10.5530
 0.6370	10.4840
 0.6380	10.4040
 0.6390	10.3120
 0.6400	10.2110
 0.6410	10.1080
 0.6420	 9.9960
 0.6430	 9.8740
 0.6440	 9.7510
 0.6450	 9.6260
 0.6460	 9.5030
 0.6470	 9.3870
 0.6480	 9.2750
 0.6490	 9.1730
 0.6500	 9.0830
 0.6510	 9.0050
 0.6520	 8.9320
 0.6530	 8.8640
 0.6540	 8.7990
 0.6550	 8.7250
 0.6560	 8.6440
 0.6570	 8.5530
 0.6580	 8.4510
 0.6590	 8.3420
 0.6600	 8.2270
 0.6610	 8.1100
 0.6620	 7.9930
 0.6630	 7.8820
 0.6640	 7.7770
 0.6650	 7.6760
 0.6660	 7.5840
 0.6670	 7.5040
 0.6680	 7.4350
 0.6690	 7.3770
 0.6700	 7.3300
 0.6710	 7.2920
 0.6720	 7.2630
 0.6730	 7.2450
 0.6740	 7.2320
 0.6750	 7.2210
 0.6760	 7.2150
 0.6770	 7.2220
 0.6780	 7.2360
 0.6790	 7.2580
 0.6800	 7.2940
 0.6810	 7.3420
 0.6820	 7.4090
 0.6830	 7.5010
 0.6840	 7.6170
 0.6850	 7.7700
 0.6860	 7.9670
 0.6870	 8.2160
 0.6880	 8.5260
 0.6890	 8.8990
 0.6900	 9.3420
 0.6910	 9.8640
 0.6920	10.4620
 0.6930	11.1420
 0.6940	11.9030
 0.6950	12.7310
 0.6960	13.6200
 0.6970	14.5680
 0.6980	15.5670
 0.6990	16.6030
 0.7000	17.6700
 0.7010	18.7590
 0.7020	19.8560
 0.7030	20.9560
 0.7040	22.0560
 0.7050	23.1530
 0.7060	24.2470
 0.7070	25.3340
 0.7080	26.4140
 0.7090	27.4960
 0.7100	28.5770
 0.7110	29.6580
 0.7120	30.7420
 0.7130	31.8340
 0.7140	32.9190
 0.7150	34.0060
 0.7160	35.1020
 0.7170	36.1990
 0.7180	37.2960
 0.7190	38.3910
 0.7200	39.4840
 0.7210	40.5810
 0.7220	41.6660
 0.7230	42.7370
 0.7240	43.8030
 0.7250	44.8490
 0.7260	45.8750
 0.7270	46.8820
 0.7280	47.8620
 0.7290	48.8160
 0.7300	49.7450
 0.7310	50.6470
 0.7320	51.5060
 0.7330	52.3360
 0.7340	53.1390
 0.7350	53.9030
 0.7360	54.6390
 0.7370	55.3400
 0.7380	56.0010
 0.7390	56.6380
 0.7400	57.2340
 0.7410	57.7950
 0.7420	58.3350
 0.7430	58.8360
 0.7440	59.3040
 0.7450	59.7460
 0.7460	60.1680
 0.7470	60.5480
 0.7480	60.8970
 0.7490	61.2260
 0.7500	61.5280
 0.7510	61.8040
 0.7520	62.0570
 0.7530	62.2900
 0.7540	62.5100
 0.7550	62.7090
 0.7560	62.8880
 0.7570	63.0590
 0.7580	63.2070
 0.7590	63.3460
 0.7600	63.4820
 0.7610	63.5990
 0.7620	63.7010
 0.7630	63.7910
 0.7640	63.8780
 0.7650	63.9630
 0.7660	64.0380
 0.7670	64.1030
 0.7680	64.1630
 0.7690	64.2310
 0.7700	64.2880
 0.7710	64.3310
 0.7720	64.3790
 0.7730	64.4300
 0.7740	64.4810
 0.7750	64.5260
 0.7760	64.5600
 0.7770	64.5940
 0.7780	64.6270
 0.7790	64.6530
 0.7800	64.6840
 0.7810	64.7150
 0.7820	64.7440
 0.7830	64.7700
 0.7840	64.8020
 0.7850	64.8340
 0.7860	64.8610
 0.7870	64.8880
 0.7880	64.9130
 0.7890	64.9340
 0.7900	64.9500
 0.7910	64.9740
 0.7920	64.9970
 0.7930	65.0160
 0.7940	65.0350
 0.7950	65.0510
 0.7960	65.0650
 0.7970	65.0790
 0.7980	65.0990
 0.7990	65.1190
 0.8000	65.1350
 0.8010	65.1460
 0.8020	65.1600
 0.8030	65.1660
 0.8040	65.1740
 0.8050	65.1950
 0.8060	65.2060
 0.8070	65.2120
 0.8080	65.2160
 0.8090	65.2250
 0.8100	65.2270
 0.8110	65.2320
 0.8120	65.2420
 0.8130	65.2510
 0.8140	65.2590
 0.8150	65.2680
 0.8160	65.2780
 0.8170	65.2780
 0.8180	65.2810
 0.8190	65.2840
 0.8200	65.2790
 0.8210	65.2890
 0.8220	65.2940
 0.8230	65.2910
 0.8240	65.2960
 0.8250	65.2980
 0.8260	65.2930
 0.8270	65.2840
 0.8280	65.2870
 0.8290	65.2790
 0.8300	65.2660
 0.8310	65.2560
 0.8320	65.2490
 0.8330	65.2470
 0.8340	65.2490
 0.8350	65.2540
 0.8360	65.2490
 0.8370	65.2500
 0.8380	65.2580
 0.8390	65.2660
 0.8400	65.2770
 0.8410	65.2890
 0.8420	65.2970
 0.8430	65.3000
 0.8440	65.3120
 0.8450	65.3270
 0.8460	65.3350
 0.8470	65.3330
 0.8480	65.3430
 0.8490	65.3640
 0.8500	65.3840
 0.8510	65.3890
 0.8520	65.3930
 0.8530	65.4030
 0.8540	65.4190
 0.8550	65.4330
 0.8560	65.4450
 0.8570	65.4550
 0.8580	65.4670
 0.8590	65.4740
 0.8600	65.4750
 0.8610	65.4760
 0.8620	65.4900
 0.8630	65.4990
 0.8640	65.5040
 0.8650	65.5080
 0.8660	65.5210
 0.8670	65.5230
 0.8680	65.5230
 0.8690	65.5340
 0.8700	65.5510
 0.8710	65.5560
 0.8720	65.5520
 0.8730	65.5520
 0.8740	65.5520
 0.8750	65.5600
 0.8760	65.5720
 0.8770	65.5750
 0.8780	65.5750
 0.8790	65.5750
 0.8800	65.5740
 0.8810	65.5720
 0.8820	65.5770
 0.8830	65.5770
 0.8840	65.5670
 0.8850	65.5680
 0.8860	65.5710
 0.8870	65.5670
 0.8880	65.5540
 0.8890	65.5640
 0.8900	65.5590
 0.8910	65.5430
 0.8920	65.5310
 0.8930	65.5170
 0.8940	65.5020
 0.8950	65.4910
 0.8960	65.4860
 0.8970	65.4780
 0.8980	65.4620
 0.8990	65.4420
 0.9000	65.4350
 0.9010	65.4310
 0.9020	65.4270
 0.9030	65.4190
 0.9040	65.4050
 0.9050	65.3890
 0.9060	65.3760
 0.9070	65.3690
 0.9080	65.3570
 0.9090	65.3290
 0.9100	65.3070
 0.9110	65.3030
 0.9120	65.2780
 0.9130	65.2540
 0.9140	65.2370
 0.9150	65.2260
 0.9160	65.2080
 0.9170	65.1980
 0.9180	65.1870
 0.9190	65.1640
 0.9200	65.1340
 0.9210	65.0960
 0.9220	65.0580
 0.9230	65.0270
 0.9240	64.9930
 0.9250	64.9670
 0.9260	64.9360
 0.9270	64.8820
 0.9280	64.8310
 0.9290	64.7710
 0.9300	64.7120
 0.9310	64.6800
 0.9320	64.6160
 0.9330	64.5430
 0.9340	64.4730
 0.9350	64.3960
 0.9360	64.3130
 0.9370	64.2420
 0.9380	64.1770
 0.9390	64.0830
 0.9400	63.9970
 0.9410	63.9140
 0.9420	63.8220
 0.9430	63.7040
 0.9440	63.5850
 0.9450	63.4610
 0.9460	63.3310
 0.9470	63.2170
 0.9480	63.0630
 0.9490	62.8850
 0.9500	62.7050
 0.9510	62.5020
 0.9520	62.3050
 0.9530	62.1070
 0.9540	61.8970
 0.9550	61.6880
 0.9560	61.5020
 0.9570	61.3280
 0.9580	61.1510
 0.9590	60.9650
 0.9600	60.8050
 0.9610	60.6600
 0.9620	60.5150
 0.9630	60.3990
 0.9640	60.3010
 0.9650	60.2060
 0.9660	60.1100
 0.9670	60.0520
 0.9680	60.0100
 0.9690	59.9470
 0.9700	59.8530
 0.9710	59.8260
 0.9720	59.7850
 0.9730	59.7170
 0.9740	59.6530
 0.9750	59.6470
 0.9760	59.6280
 0.9770	59.5970
 0.9780	59.5830
 0.9790	59.5780
 0.9800	59.5690
 0.9810	59.5640
 0.9820	59.5760
 0.9830	59.5950
 0.9840	59.6250
 0.9850	59.6530
 0.9860	59.6720
 0.9870	59.7180
 0.9880	59.7570
 0.9890	59.7960
 0.9900	59.8520
 0.9910	59.9010
 0.9920	60.0140
 0.9930	60.1270
 0.9940	60.2400
 0.9950	60.3530
 0.9960	60.4650
 0.9970	60.5780
 0.9980	60.6910
 0.9990	60.8040
 1.0000	60.9170
 1.0010	61.0300
 1.0020	61.1430
 1.0030	61.2550
 1.0040	61.3680
 1.0050	61.4810
 1.0060	61.5940
 1.0070	61.7070
 1.0080	61.8200
 1.0090	61.9320
 1.0100	61.9320
 1.0110	62.0080
 1.0120	62.0910
 1.0130	62.1800
 1.0140	62.2650
 1.0150	62.3500
 1.0160	62.4360
 1.0170	62.5200
 1.0180	62.6050
 1.0190	62.6930
 1.0200	62.7730
 1.0210	62.8530
 1.0220	62.9420
 1.0230	63.0270
 1.0240	63.1130
 1.0250	63.1950
 1.0260	63.2750
 1.0270	63.3550
 1.0280	63.4340
 1.0290	63.5110
 1.0300	63.5900
 1.0310	63.6630
 1.0320	63.7310
 1.0330	63.7970
 1.0340	63.8690
 1.0350	63.9340
 1.0360	64.0020
 1.0370	64.0730
 1.0380	64.1390
 1.0390	64.2040
 1.0400	64.2680
 1.0410	64.3330
 1.0420	64.3920
 1.0430	64.4470
 1.0440	64.5030
 1.0450	64.5550
 1.0460	64.6080
 1.0470	64.6640
 1.0480	64.7170
 1.0490	64.7700
 1.0500	64.8190
 1.0510	64.8690
 1.0520	64.9110
 1.0530	64.9510
 1.0540	64.9840
 1.0550	65.0200
 1.0560	65.0550
 1.0570	65.0900
 1.0580	65.1280
 1.0590	65.1620
 1.0600	65.1910
 1.0610	65.2250
 1.0620	65.2650
 1.0630	65.2940
 1.0640	65.3210
 1.0650	65.3450
 1.0660	65.3600
 1.0670	65.3770
 1.0680	65.3940
 1.0690	65.4140
 1.0700	65.4260
 1.0710	65.4330
 1.0720	65.4440
 1.0730	65.4550
 1.0740	65.4610
 1.0750	65.4690
 1.0760	65.4710
 1.0770	65.4650
 1.0780	65.4640
 1.0790	65.4650
 1.0800	65.4610
 1.0810	65.4570
 1.0820	65.4500
 1.0830	65.4430
 1.0840	65.4310
 1.0850	65.4140
 1.0860	65.3950
 1.0870	65.3780
 1.0880	65.3580
 1.0890	65.3370
 1.0900	65.3190
 1.0910	65.2940
 1.0920	65.2630
 1.0930	65.2320
 1.0940	65.1960
 1.0950	65.1620
 1.0960	65.1280
 1.0970	65.0940
 1.0980	65.0610
 1.0990	65.0240
 1.1000	64.9850
 1.1010	64.9450
 1.1020	64.9040
 1.1030	64.8610
 1.1040	64.8190
 1.1050	64.7730
 1.1060	64.7250
 1.1070	64.6760
 1.1080	64.6250
 1.1090	64.5740
 1.1100	64.5190
 1.1110	64.4620
 1.1120	64.4000
 1.1130	64.3330
 1.1140	64.2620
 1.1150	64.1870
 1.1160	64.1070
 1.1170	64.0280
 1.1180	63.9360
 1.1190	63.8380
 1.1200	63.7300
 1.1210	63.6160
 1.1220	63.4890
 1.1230	63.3500
 1.1240	63.2050
 1.1250	63.0420
 1.1260	62.8660
 1.1270	62.6710
 1.1280	62.4650
 1.1290	62.2340
 1.1300	61.9860
 1.1310	61.7140
 1.1320	61.4170
 1.1330	61.1060
 1.1340	60.7760
 1.1350	60.4270
 1.1360	60.0610
 1.1370	59.6780
 1.1380	59.2800
 1.1390	58.8730
 1.1400	58.4570
 1.1410	58.0390
 1.1420	57.6160
 1.1430	57.1940
 1.1440	56.7770
 1.1450	56.3530
 1.1460	55.9520
 1.1470	55.5530
 1.1480	55.1760
 1.1490	54.8130
 1.1500	54.4720
 1.1510	54.1450
 1.1520	53.8400
 1.1530	53.5530
 1.1540	53.2890
 1.1550	53.0440
 1.1560	52.8220
 1.1570	52.6200
 1.1580	52.4380
 1.1590	52.2690
 1.1600	52.1130
 1.1610	51.9700
 1.1620	51.8390
 1.1630	51.7230
 1.1640	51.6160
 1.1650	51.5160
 1.1660	51.4260
 1.1670	51.3390
 1.1680	51.2590
 1.1690	51.1820
 1.1700	51.1110
 1.1710	51.0410
 1.1720	50.9770
 1.1730	50.9090
 1.1740	50.8420
 1.1750	50.7760
 1.1760	50.7050
 1.1770	50.6350
 1.1780	50.5620
 1.1790	50.4890
 1.1800	50.4180
 1.1810	50.3450
 1.1820	50.2740
 1.1830	50.2030
 1.1840	50.1270
 1.1850	50.0540
 1.1860	49.9840
 1.1870	49.9150
 1.1880	49.8510
 1.1890	49.7880
 1.1900	49.7340
 1.1910	49.6860
 1.1920	49.6420
 1.1930	49.6040
 1.1940	49.5710
 1.1950	49.5420
 1.1960	49.5200
 1.1970	49.5050
 1.1980	49.4960
 1.1990	49.4910
 1.2000	49.4890
 1.2010	49.4950
 1.2020	49.5070
 1.2030	49.5240
 1.2040	49.5460
 1.2050	49.5750
 1.2060	49.6090
 1.2070	49.6500
 1.2080	49.6950
 1.2090	49.7420
 1.2100	49.7950
 1.2110	49.8540
 1.2120	49.9170
 1.2130	49.9880
 1.2140	50.0680
 1.2150	50.1490
 1.2160	50.2350
 1.2170	50.3250
 1.2180	50.4190
 1.2190	50.5170
 1.2200	50.6140
 1.2210	50.7140
 1.2220	50.8130
 1.2230	50.9110
 1.2240	51.0110
 1.2250	51.1120
 1.2260	51.2100
 1.2270	51.3070
 1.2280	51.4030
 1.2290	51.4950
 1.2300	51.5880
 1.2310	51.6780
 1.2320	51.7640
 1.2330	51.8450
 1.2340	51.9240
 1.2350	51.9980
 1.2360	52.0710
 1.2370	52.1400
 1.2380	52.2090
 1.2390	52.2780
 1.2400	52.3420
 1.2410	52.4060
 1.2420	52.4710
 1.2430	52.5290
 1.2440	52.5860
 1.2450	52.6440
 1.2460	52.6990
 1.2470	52.7530
 1.2480	52.8050
 1.2490	52.8540
 1.2500	52.8990
 1.2510	52.9440
 1.2520	52.9900
 1.2530	53.0330
 1.2540	53.0750
 1.2550	53.1110
 1.2560	53.1420
 1.2570	53.1750
 1.2580	53.2030
 1.2590	53.2300
 1.2600	53.2560
 1.2610	53.2780
 1.2620	53.2950
 1.2630	53.3100
 1.2640	53.3260
 1.2650	53.3370
 1.2660	53.3480
 1.2670	53.3550
 1.2680	53.3610
 1.2690	53.3650
 1.2700	53.3630
 1.2710	53.3610
 1.2720	53.3540
 1.2730	53.3430
 1.2740	53.3300
 1.2750	53.3130
 1.2760	53.2950
 1.2770	53.2750
 1.2780	53.2520
 1.2790	53.2250
 1.2800	53.1940
 1.2810	53.1580
 1.2820	53.1200
 1.2830	53.0800
 1.2840	53.0340
 1.2850	52.9850
 1.2860	52.9330
 1.2870	52.8760
 1.2880	52.8150
 1.2890	52.7490
 1.2900	52.6790
 1.2910	52.6000
 1.2920	52.5160
 1.2930	52.4310
 1.2940	52.3420
 1.2950	52.2490
 1.2960	52.1470
 1.2970	52.0380
 1.2980	51.9240
 1.2990	51.8040
 1.3000	51.6790
 1.3010	51.5510
 1.3020	51.4160
 1.3030	51.2730
 1.3040	51.1250
 1.3050	50.9710
 1.3060	50.8080
 1.3070	50.6420
 1.3080	50.4720
 1.3090	50.2930
 1.3100	50.1110
 1.3110	49.9200
 1.3120	49.7200
 1.3130	49.5190
 1.3140	49.3100
 1.3150	49.0930
 1.3160	48.8720
 1.3170	48.6470
 1.3180	48.4160
 1.3190	48.1800
 1.3200	47.9370
 1.3210	47.6840
 1.3220	47.4270
 1.3230	47.1680
 1.3240	46.9000
 1.3250	46.6340
 1.3260	46.3620
 1.3270	46.0830
 1.3280	45.8060
 1.3290	45.5220
 1.3300	45.2380
 1.3310	44.9540
 1.3320	44.6670
 1.3330	44.3830
 1.3340	44.0990
 1.3350	43.8130
 1.3360	43.5310
 1.3370	43.2510
 1.3380	42.9730
 1.3390	42.6990
 1.3400	42.4270
 1.3410	42.1600
 1.3420	41.8980
 1.3430	41.6380
 1.3440	41.3830
 1.3450	41.1320
 1.3460	40.8840
 1.3470	40.6420
 1.3480	40.4030
 1.3490	40.1700
 1.3500	39.9430
 1.3510	39.7180
 1.3520	39.4960
 1.3530	39.2780
 1.3540	39.0610
 1.3550	38.8450
 1.3560	38.6280
 1.3570	38.4100
 1.3580	38.1940
 1.3590	37.9760
 1.3600	37.7550
 1.3610	37.5290
 1.3620	37.2950
 1.3630	37.0570
 1.3640	36.8110
 1.3650	36.5550
 1.3660	36.2930
 1.3670	36.0180
 1.3680	35.7320
 1.3690	35.4350
 1.3700	35.1180
 1.3710	34.7870
 1.3720	34.4370
 1.3730	34.0650
 1.3740	33.6780
 1.3750	33.2690
 1.3760	32.8370
 1.3770	32.3840
 1.3780	31.9010
 1.3790	31.3950
 1.3800	30.8660
 1.3810	30.3100
 1.3820	29.7400
 1.3830	29.1510
 1.3840	28.5480
 1.3850	27.9270
 1.3860	27.2990
 1.3870	26.6530
 1.3880	26.0130
 1.3890	25.3660
 1.3900	24.7180
 1.3910	24.0800
 1.3920	23.4430
 1.3930	22.8110
 1.3940	22.1940
 1.3950	21.5810
 1.3960	20.9850
 1.3970	20.4080
 1.3980	19.8470
 1.3990	19.3120
 1.4000	18.7970
 1.4010	18.3000
 1.4020	17.8290
 1.4030	17.3770
 1.4040	16.9480
 1.4050	16.5440
 1.4060	16.1610
 1.4070	15.8040
 1.4080	15.4660
 1.4090	15.1470
 1.4100	14.8520
 1.4110	14.5720
 1.4120	14.3120
 1.4130	14.0700
 1.4140	13.8450
 1.4150	13.6370
 1.4160	13.4440
 1.4170	13.2640
 1.4180	13.0970
 1.4190	12.9400
 1.4200	12.7950
 1.4210	12.6610
 1.4220	12.5350
 1.4230	12.4210
 1.4240	12.3170
 1.4250	12.2190
 1.4260	12.1290
 1.4270	12.0450
 1.4280	11.9690
 1.4290	11.8980
 1.4300	11.8340
 1.4310	11.7750
 1.4320	11.7230
 1.4330	11.6760
 1.4340	11.6340
 1.4350	11.5970
 1.4360	11.5640
 1.4370	11.5350
 1.4380	11.5100
 1.4390	11.4880
 1.4400	11.4700
 1.4410	11.4560
 1.4420	11.4450
 1.4430	11.4350
 1.4440	11.4280
 1.4450	11.4230
 1.4460	11.4210
 1.4470	11.4220
 1.4480	11.4250
 1.4490	11.4280
 1.4500	11.4330
 1.4510	11.4380
 1.4520	11.4460
 1.4530	11.4550
 1.4540	11.4660
 1.4550	11.4800
 1.4560	11.4950
 1.4570	11.5120
 1.4580	11.5310
 1.4590	11.5520
 1.4600	11.5770
 1.4610	11.6050
 1.4620	11.6370
 1.4630	11.6710
 1.4640	11.7090
 1.4650	11.7510
 1.4660	11.7960
 1.4670	11.8440
 1.4680	11.8970
 1.4690	11.9520
 1.4700	12.0110
