Name: Melaleuca linariifolia
Type: vegetation
Class: Tree
Genus: Melaleuca
Species: linariifolia
Sample No.: JPL163
Owner: JPL
Wavelength Range: VSWIR
Origin: 34.1258; -118.11316; WGS84
Collection Date: 9/14/2016
Description: Samples were collected at the Huntington Garden in San Marino California as part of a JPL Subcontract studying HyTES imagery. Samples were taken to JPL and processed within 48 hours of collection. The same leaves were processed in the Nicolet and then measured using the ASD.
Measurement: Bidirectional reflectance
First Column: X
Second Column: Y
X Units: Wavelength (micrometer)
Y Units: Reflectance (percentage)
First X Value: 0.35
Last X Value: 2.5
Number of X Values: 2151
Additional Information: vegetation.tree.melaleuca.linariifolia.vswir.jpl163.jpl.asd.ancillary.txt

 0.3500	 3.9580
 0.3510	 3.8620
 0.3520	 3.8960
 0.3530	 3.9810
 0.3540	 4.0100
 0.3550	 3.9460
 0.3560	 3.9920
 0.3570	 4.0240
 0.3580	 3.8220
 0.3590	 3.8480
 0.3600	 3.9160
 0.3610	 3.9040
 0.3620	 3.8810
 0.3630	 3.8710
 0.3640	 3.8430
 0.3650	 3.7830
 0.3660	 3.7800
 0.3670	 3.8050
 0.3680	 3.8310
 0.3690	 3.8380
 0.3700	 3.8640
 0.3710	 3.8370
 0.3720	 3.7520
 0.3730	 3.7430
 0.3740	 3.7340
 0.3750	 3.7600
 0.3760	 3.8540
 0.3770	 3.8750
 0.3780	 3.8220
 0.3790	 3.7510
 0.3800	 3.7490
 0.3810	 3.7570
 0.3820	 3.7640
 0.3830	 3.7600
 0.3840	 3.7010
 0.3850	 3.7290
 0.3860	 3.7970
 0.3870	 3.8050
 0.3880	 3.7850
 0.3890	 3.7770
 0.3900	 3.7870
 0.3910	 3.7870
 0.3920	 3.8020
 0.3930	 3.8040
 0.3940	 3.7800
 0.3950	 3.7700
 0.3960	 3.7610
 0.3970	 3.7730
 0.3980	 3.8310
 0.3990	 3.8720
 0.4000	 3.8810
 0.4010	 3.8670
 0.4020	 3.8590
 0.4030	 3.8780
 0.4040	 3.9070
 0.4050	 3.9200
 0.4060	 3.9150
 0.4070	 3.9320
 0.4080	 3.9570
 0.4090	 3.9480
 0.4100	 3.9600
 0.4110	 3.9870
 0.4120	 4.0120
 0.4130	 4.0210
 0.4140	 4.0420
 0.4150	 4.0650
 0.4160	 4.0740
 0.4170	 4.0730
 0.4180	 4.0760
 0.4190	 4.0900
 0.4200	 4.1140
 0.4210	 4.1240
 0.4220	 4.1240
 0.4230	 4.1220
 0.4240	 4.1310
 0.4250	 4.1460
 0.4260	 4.1580
 0.4270	 4.1550
 0.4280	 4.1510
 0.4290	 4.1500
 0.4300	 4.1570
 0.4310	 4.1760
 0.4320	 4.1820
 0.4330	 4.1780
 0.4340	 4.1750
 0.4350	 4.1860
 0.4360	 4.1920
 0.4370	 4.1900
 0.4380	 4.1860
 0.4390	 4.1800
 0.4400	 4.1720
 0.4410	 4.1650
 0.4420	 4.1740
 0.4430	 4.1730
 0.4440	 4.1640
 0.4450	 4.1620
 0.4460	 4.1840
 0.4470	 4.2060
 0.4480	 4.2150
 0.4490	 4.2200
 0.4500	 4.2220
 0.4510	 4.2310
 0.4520	 4.2460
 0.4530	 4.2480
 0.4540	 4.2430
 0.4550	 4.2410
 0.4560	 4.2440
 0.4570	 4.2460
 0.4580	 4.2440
 0.4590	 4.2390
 0.4600	 4.2330
 0.4610	 4.2310
 0.4620	 4.2320
 0.4630	 4.2310
 0.4640	 4.2130
 0.4650	 4.1980
 0.4660	 4.1940
 0.4670	 4.1980
 0.4680	 4.1900
 0.4690	 4.1770
 0.4700	 4.1680
 0.4710	 4.1650
 0.4720	 4.1610
 0.4730	 4.1550
 0.4740	 4.1540
 0.4750	 4.1490
 0.4760	 4.1430
 0.4770	 4.1410
 0.4780	 4.1440
 0.4790	 4.1400
 0.4800	 4.1350
 0.4810	 4.1370
 0.4820	 4.1390
 0.4830	 4.1390
 0.4840	 4.1400
 0.4850	 4.1450
 0.4860	 4.1550
 0.4870	 4.1650
 0.4880	 4.1720
 0.4890	 4.1770
 0.4900	 4.1810
 0.4910	 4.1860
 0.4920	 4.1950
 0.4930	 4.2120
 0.4940	 4.2300
 0.4950	 4.2480
 0.4960	 4.2690
 0.4970	 4.2960
 0.4980	 4.3280
 0.4990	 4.3620
 0.5000	 4.4010
 0.5010	 4.4470
 0.5020	 4.5000
 0.5030	 4.5560
 0.5040	 4.6190
 0.5050	 4.6930
 0.5060	 4.7750
 0.5070	 4.8550
 0.5080	 4.9490
 0.5090	 5.0540
 0.5100	 5.1610
 0.5110	 5.2760
 0.5120	 5.4030
 0.5130	 5.5420
 0.5140	 5.6850
 0.5150	 5.8400
 0.5160	 6.0040
 0.5170	 6.1750
 0.5180	 6.3460
 0.5190	 6.5260
 0.5200	 6.7140
 0.5210	 6.9050
 0.5220	 7.0960
 0.5230	 7.2840
 0.5240	 7.4660
 0.5250	 7.6410
 0.5260	 7.8110
 0.5270	 7.9720
 0.5280	 8.1190
 0.5290	 8.2580
 0.5300	 8.3870
 0.5310	 8.5030
 0.5320	 8.6040
 0.5330	 8.6950
 0.5340	 8.7770
 0.5350	 8.8500
 0.5360	 8.9110
 0.5370	 8.9650
 0.5380	 9.0160
 0.5390	 9.0640
 0.5400	 9.1210
 0.5410	 9.1880
 0.5420	 9.2570
 0.5430	 9.3110
 0.5440	 9.3390
 0.5450	 9.3400
 0.5460	 9.3190
 0.5470	 9.2880
 0.5480	 9.2620
 0.5490	 9.2480
 0.5500	 9.2440
 0.5510	 9.2400
 0.5520	 9.2270
 0.5530	 9.1990
 0.5540	 9.1630
 0.5550	 9.1190
 0.5560	 9.0660
 0.5570	 9.0000
 0.5580	 8.9270
 0.5590	 8.8450
 0.5600	 8.7550
 0.5610	 8.6590
 0.5620	 8.5520
 0.5630	 8.4390
 0.5640	 8.3240
 0.5650	 8.2090
 0.5660	 8.0920
 0.5670	 7.9710
 0.5680	 7.8480
 0.5690	 7.7230
 0.5700	 7.5980
 0.5710	 7.4750
 0.5720	 7.3580
 0.5730	 7.2440
 0.5740	 7.1360
 0.5750	 7.0310
 0.5760	 6.9370
 0.5770	 6.8490
 0.5780	 6.7650
 0.5790	 6.6860
 0.5800	 6.6160
 0.5810	 6.5520
 0.5820	 6.4900
 0.5830	 6.4330
 0.5840	 6.3760
 0.5850	 6.3200
 0.5860	 6.2690
 0.5870	 6.2210
 0.5880	 6.1740
 0.5890	 6.1230
 0.5900	 6.0720
 0.5910	 6.0270
 0.5920	 5.9880
 0.5930	 5.9520
 0.5940	 5.9190
 0.5950	 5.8890
 0.5960	 5.8610
 0.5970	 5.8370
 0.5980	 5.8150
 0.5990	 5.7920
 0.6000	 5.7630
 0.6010	 5.7330
 0.6020	 5.7020
 0.6030	 5.6690
 0.6040	 5.6300
 0.6050	 5.5890
 0.6060	 5.5450
 0.6070	 5.4980
 0.6080	 5.4460
 0.6090	 5.4030
 0.6100	 5.3750
 0.6110	 5.3580
 0.6120	 5.3050
 0.6130	 5.2320
 0.6140	 5.1560
 0.6150	 5.0960
 0.6160	 5.0390
 0.6170	 4.9850
 0.6180	 4.9390
 0.6190	 4.8980
 0.6200	 4.8630
 0.6210	 4.8320
 0.6220	 4.8020
 0.6230	 4.7750
 0.6240	 4.7510
 0.6250	 4.7300
 0.6260	 4.7130
 0.6270	 4.6970
 0.6280	 4.6840
 0.6290	 4.6740
 0.6300	 4.6640
 0.6310	 4.6520
 0.6320	 4.6360
 0.6330	 4.6140
 0.6340	 4.5890
 0.6350	 4.5570
 0.6360	 4.5190
 0.6370	 4.4760
 0.6380	 4.4270
 0.6390	 4.3720
 0.6400	 4.3140
 0.6410	 4.2540
 0.6420	 4.1900
 0.6430	 4.1250
 0.6440	 4.0630
 0.6450	 4.0040
 0.6460	 3.9480
 0.6470	 3.9000
 0.6480	 3.8570
 0.6490	 3.8200
 0.6500	 3.7900
 0.6510	 3.7650
 0.6520	 3.7430
 0.6530	 3.7230
 0.6540	 3.7050
 0.6550	 3.6890
 0.6560	 3.6720
 0.6570	 3.6520
 0.6580	 3.6250
 0.6590	 3.5980
 0.6600	 3.5720
 0.6610	 3.5450
 0.6620	 3.5170
 0.6630	 3.4900
 0.6640	 3.4670
 0.6650	 3.4480
 0.6660	 3.4350
 0.6670	 3.4260
 0.6680	 3.4220
 0.6690	 3.4260
 0.6700	 3.4340
 0.6710	 3.4490
 0.6720	 3.4690
 0.6730	 3.4890
 0.6740	 3.5130
 0.6750	 3.5440
 0.6760	 3.5830
 0.6770	 3.6250
 0.6780	 3.6720
 0.6790	 3.7240
 0.6800	 3.7790
 0.6810	 3.8380
 0.6820	 3.9030
 0.6830	 3.9720
 0.6840	 4.0430
 0.6850	 4.1200
 0.6860	 4.2060
 0.6870	 4.3050
 0.6880	 4.4170
 0.6890	 4.5550
 0.6900	 4.7250
 0.6910	 4.9290
 0.6920	 5.1800
 0.6930	 5.4760
 0.6940	 5.8160
 0.6950	 6.2050
 0.6960	 6.6420
 0.6970	 7.1230
 0.6980	 7.6450
 0.6990	 8.2060
 0.7000	 8.8000
 0.7010	 9.4240
 0.7020	10.0740
 0.7030	10.7440
 0.7040	11.4310
 0.7050	12.1310
 0.7060	12.8430
 0.7070	13.5650
 0.7080	14.2940
 0.7090	15.0290
 0.7100	15.7700
 0.7110	16.5200
 0.7120	17.2770
 0.7130	18.0370
 0.7140	18.8010
 0.7150	19.5680
 0.7160	20.3360
 0.7170	21.1050
 0.7180	21.8740
 0.7190	22.6370
 0.7200	23.3900
 0.7210	24.1360
 0.7220	24.8720
 0.7230	25.5940
 0.7240	26.2980
 0.7250	26.9840
 0.7260	27.6500
 0.7270	28.2910
 0.7280	28.9100
 0.7290	29.5030
 0.7300	30.0710
 0.7310	30.6150
 0.7320	31.1310
 0.7330	31.6210
 0.7340	32.0860
 0.7350	32.5220
 0.7360	32.9310
 0.7370	33.3160
 0.7380	33.6750
 0.7390	34.0080
 0.7400	34.3200
 0.7410	34.6110
 0.7420	34.8800
 0.7430	35.1220
 0.7440	35.3430
 0.7450	35.5450
 0.7460	35.7270
 0.7470	35.8900
 0.7480	36.0360
 0.7490	36.1680
 0.7500	36.2890
 0.7510	36.3930
 0.7520	36.4840
 0.7530	36.5670
 0.7540	36.6410
 0.7550	36.7070
 0.7560	36.7630
 0.7570	36.8090
 0.7580	36.8550
 0.7590	36.8970
 0.7600	36.9300
 0.7610	36.9590
 0.7620	36.9840
 0.7630	37.0030
 0.7640	37.0160
 0.7650	37.0300
 0.7660	37.0390
 0.7670	37.0450
 0.7680	37.0530
 0.7690	37.0560
 0.7700	37.0560
 0.7710	37.0550
 0.7720	37.0590
 0.7730	37.0580
 0.7740	37.0550
 0.7750	37.0540
 0.7760	37.0560
 0.7770	37.0570
 0.7780	37.0550
 0.7790	37.0520
 0.7800	37.0490
 0.7810	37.0480
 0.7820	37.0480
 0.7830	37.0480
 0.7840	37.0460
 0.7850	37.0420
 0.7860	37.0390
 0.7870	37.0340
 0.7880	37.0290
 0.7890	37.0240
 0.7900	37.0200
 0.7910	37.0190
 0.7920	37.0140
 0.7930	37.0060
 0.7940	37.0010
 0.7950	36.9950
 0.7960	36.9870
 0.7970	36.9760
 0.7980	36.9680
 0.7990	36.9610
 0.8000	36.9500
 0.8010	36.9350
 0.8020	36.9250
 0.8030	36.9180
 0.8040	36.9110
 0.8050	36.9000
 0.8060	36.8850
 0.8070	36.8700
 0.8080	36.8600
 0.8090	36.8490
 0.8100	36.8330
 0.8110	36.8160
 0.8120	36.7990
 0.8130	36.7890
 0.8140	36.7710
 0.8150	36.7510
 0.8160	36.7350
 0.8170	36.7230
 0.8180	36.7080
 0.8190	36.6900
 0.8200	36.6730
 0.8210	36.6570
 0.8220	36.6430
 0.8230	36.6290
 0.8240	36.6120
 0.8250	36.5960
 0.8260	36.5780
 0.8270	36.5590
 0.8280	36.5450
 0.8290	36.5310
 0.8300	36.5150
 0.8310	36.4980
 0.8320	36.4810
 0.8330	36.4670
 0.8340	36.4540
 0.8350	36.4410
 0.8360	36.4250
 0.8370	36.4150
 0.8380	36.4100
 0.8390	36.3990
 0.8400	36.3890
 0.8410	36.3800
 0.8420	36.3710
 0.8430	36.3580
 0.8440	36.3510
 0.8450	36.3470
 0.8460	36.3420
 0.8470	36.3350
 0.8480	36.3280
 0.8490	36.3240
 0.8500	36.3210
 0.8510	36.3130
 0.8520	36.3100
 0.8530	36.3110
 0.8540	36.3070
 0.8550	36.3050
 0.8560	36.3030
 0.8570	36.3000
 0.8580	36.3010
 0.8590	36.3020
 0.8600	36.3030
 0.8610	36.3030
 0.8620	36.3010
 0.8630	36.3040
 0.8640	36.3080
 0.8650	36.3090
 0.8660	36.3130
 0.8670	36.3150
 0.8680	36.3180
 0.8690	36.3230
 0.8700	36.3270
 0.8710	36.3320
 0.8720	36.3380
 0.8730	36.3390
 0.8740	36.3410
 0.8750	36.3460
 0.8760	36.3510
 0.8770	36.3570
 0.8780	36.3640
 0.8790	36.3720
 0.8800	36.3790
 0.8810	36.3800
 0.8820	36.3850
 0.8830	36.3930
 0.8840	36.4000
 0.8850	36.4070
 0.8860	36.4110
 0.8870	36.4130
 0.8880	36.4180
 0.8890	36.4200
 0.8900	36.4270
 0.8910	36.4360
 0.8920	36.4410
 0.8930	36.4420
 0.8940	36.4480
 0.8950	36.4580
 0.8960	36.4670
 0.8970	36.4690
 0.8980	36.4720
 0.8990	36.4800
 0.9000	36.4860
 0.9010	36.4890
 0.9020	36.4890
 0.9030	36.4890
 0.9040	36.4940
 0.9050	36.5000
 0.9060	36.5030
 0.9070	36.5010
 0.9080	36.5020
 0.9090	36.5030
 0.9100	36.5040
 0.9110	36.5060
 0.9120	36.5070
 0.9130	36.5060
 0.9140	36.5030
 0.9150	36.4990
 0.9160	36.5020
 0.9170	36.5040
 0.9180	36.5040
 0.9190	36.5040
 0.9200	36.4940
 0.9210	36.4850
 0.9220	36.4790
 0.9230	36.4740
 0.9240	36.4680
 0.9250	36.4620
 0.9260	36.4540
 0.9270	36.4410
 0.9280	36.4240
 0.9290	36.4100
 0.9300	36.3950
 0.9310	36.3700
 0.9320	36.3520
 0.9330	36.3390
 0.9340	36.3250
 0.9350	36.3080
 0.9360	36.2880
 0.9370	36.2640
 0.9380	36.2380
 0.9390	36.2120
 0.9400	36.1930
 0.9410	36.1730
 0.9420	36.1460
 0.9430	36.1160
 0.9440	36.0830
 0.9450	36.0520
 0.9460	36.0220
 0.9470	35.9820
 0.9480	35.9410
 0.9490	35.8980
 0.9500	35.8530
 0.9510	35.8030
 0.9520	35.7490
 0.9530	35.6960
 0.9540	35.6470
 0.9550	35.6030
 0.9560	35.5540
 0.9570	35.5030
 0.9580	35.4600
 0.9590	35.4200
 0.9600	35.3820
 0.9610	35.3450
 0.9620	35.3100
 0.9630	35.2870
 0.9640	35.2620
 0.9650	35.2380
 0.9660	35.2220
 0.9670	35.2050
 0.9680	35.1830
 0.9690	35.1610
 0.9700	35.1490
 0.9710	35.1360
 0.9720	35.1240
 0.9730	35.1130
 0.9740	35.1020
 0.9750	35.0960
 0.9760	35.0840
 0.9770	35.0730
 0.9780	35.0760
 0.9790	35.0670
 0.9800	35.0600
 0.9810	35.0600
 0.9820	35.0630
 0.9830	35.0610
 0.9840	35.0670
 0.9850	35.0680
 0.9860	35.0540
 0.9870	35.0650
 0.9880	35.0750
 0.9890	35.0820
 0.9900	35.0960
 0.9910	35.0930
 0.9920	35.0980
 0.9930	35.1100
 0.9940	35.1150
 0.9950	35.1220
 0.9960	35.1420
 0.9970	35.1600
 0.9980	35.1580
 0.9990	35.1630
 1.0000	35.1720
 1.0010	36.5620
 1.0020	36.5700
 1.0030	36.5820
 1.0040	36.5880
 1.0050	36.5970
 1.0060	36.6090
 1.0070	36.6180
 1.0080	36.6280
 1.0090	36.6390
 1.0100	36.6500
 1.0110	36.6620
 1.0120	36.6730
 1.0130	36.6860
 1.0140	36.6970
 1.0150	36.7060
 1.0160	36.7150
 1.0170	36.7280
 1.0180	36.7400
 1.0190	36.7520
 1.0200	36.7630
 1.0210	36.7680
 1.0220	36.7760
 1.0230	36.7840
 1.0240	36.7920
 1.0250	36.8020
 1.0260	36.8160
 1.0270	36.8270
 1.0280	36.8360
 1.0290	36.8470
 1.0300	36.8560
 1.0310	36.8660
 1.0320	36.8780
 1.0330	36.8870
 1.0340	36.8970
 1.0350	36.9050
 1.0360	36.9130
 1.0370	36.9220
 1.0380	36.9290
 1.0390	36.9360
 1.0400	36.9450
 1.0410	36.9540
 1.0420	36.9610
 1.0430	36.9690
 1.0440	36.9760
 1.0450	36.9820
 1.0460	36.9880
 1.0470	36.9950
 1.0480	37.0020
 1.0490	37.0100
 1.0500	37.0170
 1.0510	37.0230
 1.0520	37.0300
 1.0530	37.0330
 1.0540	37.0320
 1.0550	37.0330
 1.0560	37.0280
 1.0570	37.0300
 1.0580	37.0380
 1.0590	37.0400
 1.0600	37.0430
 1.0610	37.0450
 1.0620	37.0430
 1.0630	37.0420
 1.0640	37.0450
 1.0650	37.0440
 1.0660	37.0400
 1.0670	37.0370
 1.0680	37.0330
 1.0690	37.0280
 1.0700	37.0230
 1.0710	37.0190
 1.0720	37.0140
 1.0730	37.0100
 1.0740	37.0050
 1.0750	37.0010
 1.0760	36.9950
 1.0770	36.9910
 1.0780	36.9830
 1.0790	36.9690
 1.0800	36.9610
 1.0810	36.9560
 1.0820	36.9490
 1.0830	36.9490
 1.0840	36.9430
 1.0850	36.9330
 1.0860	36.9210
 1.0870	36.9110
 1.0880	36.8980
 1.0890	36.8870
 1.0900	36.8780
 1.0910	36.8680
 1.0920	36.8560
 1.0930	36.8470
 1.0940	36.8360
 1.0950	36.8280
 1.0960	36.8230
 1.0970	36.8130
 1.0980	36.8010
 1.0990	36.7900
 1.1000	36.7780
 1.1010	36.7650
 1.1020	36.7530
 1.1030	36.7400
 1.1040	36.7260
 1.1050	36.7130
 1.1060	36.6990
 1.1070	36.6850
 1.1080	36.6710
 1.1090	36.6550
 1.1100	36.6400
 1.1110	36.6250
 1.1120	36.6090
 1.1130	36.5940
 1.1140	36.5760
 1.1150	36.5560
 1.1160	36.5370
 1.1170	36.5180
 1.1180	36.4970
 1.1190	36.4750
 1.1200	36.4510
 1.1210	36.4240
 1.1220	36.3930
 1.1230	36.3620
 1.1240	36.3270
 1.1250	36.2900
 1.1260	36.2500
 1.1270	36.2050
 1.1280	36.1560
 1.1290	36.1020
 1.1300	36.0430
 1.1310	35.9780
 1.1320	35.9090
 1.1330	35.8330
 1.1340	35.7520
 1.1350	35.6640
 1.1360	35.5710
 1.1370	35.4700
 1.1380	35.3660
 1.1390	35.2600
 1.1400	35.1500
 1.1410	35.0380
 1.1420	34.9250
 1.1430	34.8080
 1.1440	34.6920
 1.1450	34.5730
 1.1460	34.4610
 1.1470	34.3480
 1.1480	34.2410
 1.1490	34.1380
 1.1500	34.0400
 1.1510	33.9440
 1.1520	33.8560
 1.1530	33.7720
 1.1540	33.6950
 1.1550	33.6250
 1.1560	33.5590
 1.1570	33.5000
 1.1580	33.4470
 1.1590	33.3980
 1.1600	33.3540
 1.1610	33.3130
 1.1620	33.2760
 1.1630	33.2420
 1.1640	33.2090
 1.1650	33.1800
 1.1660	33.1540
 1.1670	33.1290
 1.1680	33.1060
 1.1690	33.0820
 1.1700	33.0600
 1.1710	33.0370
 1.1720	33.0140
 1.1730	32.9920
 1.1740	32.9720
 1.1750	32.9520
 1.1760	32.9320
 1.1770	32.9110
 1.1780	32.8860
 1.1790	32.8610
 1.1800	32.8360
 1.1810	32.8110
 1.1820	32.7870
 1.1830	32.7630
 1.1840	32.7400
 1.1850	32.7190
 1.1860	32.6990
 1.1870	32.6790
 1.1880	32.6620
 1.1890	32.6460
 1.1900	32.6330
 1.1910	32.6240
 1.1920	32.6140
 1.1930	32.6060
 1.1940	32.5990
 1.1950	32.5930
 1.1960	32.5900
 1.1970	32.5900
 1.1980	32.5910
 1.1990	32.5940
 1.2000	32.5980
 1.2010	32.6030
 1.2020	32.6100
 1.2030	32.6160
 1.2040	32.6250
 1.2050	32.6360
 1.2060	32.6460
 1.2070	32.6570
 1.2080	32.6700
 1.2090	32.6820
 1.2100	32.6970
 1.2110	32.7110
 1.2120	32.7270
 1.2130	32.7420
 1.2140	32.7570
 1.2150	32.7740
 1.2160	32.7920
 1.2170	32.8120
 1.2180	32.8320
 1.2190	32.8520
 1.2200	32.8720
 1.2210	32.8920
 1.2220	32.9130
 1.2230	32.9340
 1.2240	32.9540
 1.2250	32.9710
 1.2260	32.9870
 1.2270	33.0040
 1.2280	33.0220
 1.2290	33.0410
 1.2300	33.0600
 1.2310	33.0780
 1.2320	33.0930
 1.2330	33.1070
 1.2340	33.1220
 1.2350	33.1360
 1.2360	33.1500
 1.2370	33.1640
 1.2380	33.1780
 1.2390	33.1890
 1.2400	33.2010
 1.2410	33.2110
 1.2420	33.2200
 1.2430	33.2310
 1.2440	33.2400
 1.2450	33.2470
 1.2460	33.2550
 1.2470	33.2630
 1.2480	33.2680
 1.2490	33.2750
 1.2500	33.2820
 1.2510	33.2860
 1.2520	33.2910
 1.2530	33.2970
 1.2540	33.3010
 1.2550	33.3050
 1.2560	33.3080
 1.2570	33.3100
 1.2580	33.3110
 1.2590	33.3120
 1.2600	33.3120
 1.2610	33.3100
 1.2620	33.3080
 1.2630	33.3060
 1.2640	33.3000
 1.2650	33.2960
 1.2660	33.2910
 1.2670	33.2840
 1.2680	33.2790
 1.2690	33.2730
 1.2700	33.2660
 1.2710	33.2600
 1.2720	33.2510
 1.2730	33.2410
 1.2740	33.2330
 1.2750	33.2210
 1.2760	33.2110
 1.2770	33.2010
 1.2780	33.1880
 1.2790	33.1710
 1.2800	33.1530
 1.2810	33.1330
 1.2820	33.1120
 1.2830	33.0930
 1.2840	33.0730
 1.2850	33.0490
 1.2860	33.0240
 1.2870	32.9980
 1.2880	32.9680
 1.2890	32.9370
 1.2900	32.9070
 1.2910	32.8740
 1.2920	32.8400
 1.2930	32.8030
 1.2940	32.7630
 1.2950	32.7220
 1.2960	32.6790
 1.2970	32.6320
 1.2980	32.5860
 1.2990	32.5370
 1.3000	32.4860
 1.3010	32.4360
 1.3020	32.3840
 1.3030	32.3310
 1.3040	32.2750
 1.3050	32.2170
 1.3060	32.1560
 1.3070	32.0910
 1.3080	32.0270
 1.3090	31.9600
 1.3100	31.8910
 1.3110	31.8210
 1.3120	31.7470
 1.3130	31.6710
 1.3140	31.5940
 1.3150	31.5150
 1.3160	31.4360
 1.3170	31.3550
 1.3180	31.2720
 1.3190	31.1860
 1.3200	31.0980
 1.3210	31.0070
 1.3220	30.9130
 1.3230	30.8210
 1.3240	30.7260
 1.3250	30.6310
 1.3260	30.5340
 1.3270	30.4330
 1.3280	30.3320
 1.3290	30.2270
 1.3300	30.1220
 1.3310	30.0170
 1.3320	29.9100
 1.3330	29.8030
 1.3340	29.6950
 1.3350	29.5860
 1.3360	29.4750
 1.3370	29.3640
 1.3380	29.2520
 1.3390	29.1410
 1.3400	29.0310
 1.3410	28.9230
 1.3420	28.8160
 1.3430	28.7090
 1.3440	28.6020
 1.3450	28.4970
 1.3460	28.3910
 1.3470	28.2880
 1.3480	28.1870
 1.3490	28.0870
 1.3500	27.9880
 1.3510	27.8890
 1.3520	27.7900
 1.3530	27.6920
 1.3540	27.5930
 1.3550	27.4930
 1.3560	27.3920
 1.3570	27.2880
 1.3580	27.1860
 1.3590	27.0830
 1.3600	26.9780
 1.3610	26.8700
 1.3620	26.7550
 1.3630	26.6350
 1.3640	26.5120
 1.3650	26.3830
 1.3660	26.2500
 1.3670	26.1080
 1.3680	25.9570
 1.3690	25.7980
 1.3700	25.6260
 1.3710	25.4440
 1.3720	25.2510
 1.3730	25.0440
 1.3740	24.8260
 1.3750	24.5940
 1.3760	24.3450
 1.3770	24.0790
 1.3780	23.7940
 1.3790	23.4900
 1.3800	23.1670
 1.3810	22.8230
 1.3820	22.4660
 1.3830	22.0910
 1.3840	21.7020
 1.3850	21.2980
 1.3860	20.8830
 1.3870	20.4500
 1.3880	20.0150
 1.3890	19.5710
 1.3900	19.1210
 1.3910	18.6730
 1.3920	18.2210
 1.3930	17.7680
 1.3940	17.3200
 1.3950	16.8730
 1.3960	16.4340
 1.3970	16.0060
 1.3980	15.5870
 1.3990	15.1860
 1.4000	14.7970
 1.4010	14.4210
 1.4020	14.0640
 1.4030	13.7200
 1.4040	13.3930
 1.4050	13.0850
 1.4060	12.7910
 1.4070	12.5180
 1.4080	12.2610
 1.4090	12.0180
 1.4100	11.7930
 1.4110	11.5810
 1.4120	11.3830
 1.4130	11.2010
 1.4140	11.0310
 1.4150	10.8750
 1.4160	10.7310
 1.4170	10.5970
 1.4180	10.4740
 1.4190	10.3590
 1.4200	10.2520
 1.4210	10.1540
 1.4220	10.0640
 1.4230	 9.9820
 1.4240	 9.9080
 1.4250	 9.8390
 1.4260	 9.7760
 1.4270	 9.7170
 1.4280	 9.6620
 1.4290	 9.6130
 1.4300	 9.5690
 1.4310	 9.5290
 1.4320	 9.4940
 1.4330	 9.4620
 1.4340	 9.4340
 1.4350	 9.4090
 1.4360	 9.3880
 1.4370	 9.3700
 1.4380	 9.3530
 1.4390	 9.3400
 1.4400	 9.3290
 1.4410	 9.3200
 1.4420	 9.3140
 1.4430	 9.3090
 1.4440	 9.3050
 1.4450	 9.3050
 1.4460	 9.3050
 1.4470	 9.3070
 1.4480	 9.3100
 1.4490	 9.3140
 1.4500	 9.3200
 1.4510	 9.3270
 1.4520	 9.3350
 1.4530	 9.3440
 1.4540	 9.3550
 1.4550	 9.3670
 1.4560	 9.3820
 1.4570	 9.3990
 1.4580	 9.4180
 1.4590	 9.4400
 1.4600	 9.4650
 1.4610	 9.4920
 1.4620	 9.5220
 1.4630	 9.5560
 1.4640	 9.5930
 1.4650	 9.6340
 1.4660	 9.6780
 1.4670	 9.7250
 1.4680	 9.7760
 1.4690	 9.8300
 1.4700	 9.8870
 1.4710	 9.9490
 1.4720	10.0130
 1.4730	10.0780
 1.4740	10.1480
 1.4750	10.2190
 1.4760	10.2920
 1.4770	10.3670
