Name: Salvia leucophylla 1
Type: vegetation
Class: Shrub
Genus: Salvia
Species: leucophylla
Sample No.: VH188
Owner: UCSB
Wavelength Range: VSWIR
Origin: 34.698; -120.0477; WGS84
Collection Date: 6/9/2013
Description: Samples were collected as part of the HyspIRI Airborne Campaign. 48 individual plants were sampled in three times in 2013 - spring  summer  and fall. The name of the sample includes a 1  2  or 3 which references a different individual of the species. Samples were taken to JPL and processed within 48 hours of collection. The same leaves were processed in the Nicolet and then measured using the ASD.
Measurement: Bidirectional reflectance
First Column: X
Second Column: Y
X Units: Wavelength (micrometers)
Y Units: Reflectance (percentage)
First X Value: 0.35
Last X Value: 2.5
Number of X Values: 2151
Additional Information: vegetation.shrub.salvia.leucophylla.vswir.vh188.ucsb.asd.ancillary.txt

 0.3500	 6.4530
 0.3510	 6.4690
 0.3520	 6.5200
 0.3530	 6.4820
 0.3540	 6.3210
 0.3550	 6.3800
 0.3560	 6.5030
 0.3570	 6.5730
 0.3580	 6.5230
 0.3590	 6.5180
 0.3600	 6.5420
 0.3610	 6.5880
 0.3620	 6.7030
 0.3630	 6.7290
 0.3640	 6.7230
 0.3650	 6.7970
 0.3660	 7.0510
 0.3670	 7.2270
 0.3680	 7.2960
 0.3690	 7.4080
 0.3700	 7.4780
 0.3710	 7.5840
 0.3720	 7.7650
 0.3730	 7.9300
 0.3740	 8.0490
 0.3750	 8.1500
 0.3760	 8.2710
 0.3770	 8.3800
 0.3780	 8.5120
 0.3790	 8.6720
 0.3800	 8.8530
 0.3810	 9.0360
 0.3820	 9.2180
 0.3830	 9.3980
 0.3840	 9.5400
 0.3850	 9.6650
 0.3860	 9.8200
 0.3870	10.0420
 0.3880	10.2590
 0.3890	10.4210
 0.3900	10.5500
 0.3910	10.7340
 0.3920	10.9210
 0.3930	11.0840
 0.3940	11.2250
 0.3950	11.4080
 0.3960	11.5720
 0.3970	11.6900
 0.3980	11.7730
 0.3990	11.9820
 0.4000	12.1430
 0.4010	12.2180
 0.4020	12.3830
 0.4030	12.5090
 0.4040	12.6220
 0.4050	12.7590
 0.4060	12.8760
 0.4070	12.9900
 0.4080	13.1160
 0.4090	13.2590
 0.4100	13.3730
 0.4110	13.4640
 0.4120	13.5550
 0.4130	13.6880
 0.4140	13.8070
 0.4150	13.9180
 0.4160	14.0400
 0.4170	14.1280
 0.4180	14.2240
 0.4190	14.3310
 0.4200	14.4210
 0.4210	14.5270
 0.4220	14.6370
 0.4230	14.7360
 0.4240	14.8220
 0.4250	14.9280
 0.4260	15.0420
 0.4270	15.1370
 0.4280	15.2360
 0.4290	15.3290
 0.4300	15.4200
 0.4310	15.5310
 0.4320	15.6270
 0.4330	15.7160
 0.4340	15.8100
 0.4350	15.9030
 0.4360	15.9940
 0.4370	16.0690
 0.4380	16.1070
 0.4390	16.1610
 0.4400	16.2230
 0.4410	16.2840
 0.4420	16.3600
 0.4430	16.4280
 0.4440	16.4880
 0.4450	16.5470
 0.4460	16.6000
 0.4470	16.6540
 0.4480	16.7120
 0.4490	16.7690
 0.4500	16.8260
 0.4510	16.8790
 0.4520	16.9260
 0.4530	16.9780
 0.4540	17.0270
 0.4550	17.0680
 0.4560	17.1030
 0.4570	17.1530
 0.4580	17.1930
 0.4590	17.2180
 0.4600	17.2570
 0.4610	17.2870
 0.4620	17.3130
 0.4630	17.3480
 0.4640	17.3890
 0.4650	17.4220
 0.4660	17.4450
 0.4670	17.4700
 0.4680	17.4870
 0.4690	17.5060
 0.4700	17.5350
 0.4710	17.5550
 0.4720	17.5790
 0.4730	17.6040
 0.4740	17.6170
 0.4750	17.6360
 0.4760	17.6600
 0.4770	17.6820
 0.4780	17.6980
 0.4790	17.7170
 0.4800	17.7410
 0.4810	17.7660
 0.4820	17.7770
 0.4830	17.7860
 0.4840	17.8050
 0.4850	17.8400
 0.4860	17.8710
 0.4870	17.8990
 0.4880	17.9240
 0.4890	17.9410
 0.4900	17.9660
 0.4910	17.9970
 0.4920	18.0190
 0.4930	18.0380
 0.4940	18.0650
 0.4950	18.1000
 0.4960	18.1330
 0.4970	18.1670
 0.4980	18.2030
 0.4990	18.2360
 0.5000	18.2660
 0.5010	18.3040
 0.5020	18.3500
 0.5030	18.3960
 0.5040	18.4380
 0.5050	18.4850
 0.5060	18.5430
 0.5070	18.5960
 0.5080	18.6590
 0.5090	18.7290
 0.5100	18.7980
 0.5110	18.8720
 0.5120	18.9490
 0.5130	19.0310
 0.5140	19.1240
 0.5150	19.2190
 0.5160	19.3170
 0.5170	19.4180
 0.5180	19.5150
 0.5190	19.6180
 0.5200	19.7290
 0.5210	19.8460
 0.5220	19.9590
 0.5230	20.0720
 0.5240	20.1860
 0.5250	20.2960
 0.5260	20.4070
 0.5270	20.5190
 0.5280	20.6290
 0.5290	20.7350
 0.5300	20.8380
 0.5310	20.9370
 0.5320	21.0300
 0.5330	21.1190
 0.5340	21.2070
 0.5350	21.2970
 0.5360	21.3740
 0.5370	21.4530
 0.5380	21.5360
 0.5390	21.6160
 0.5400	21.7030
 0.5410	21.7960
 0.5420	21.8890
 0.5430	21.9730
 0.5440	22.0470
 0.5450	22.1100
 0.5460	22.1570
 0.5470	22.1780
 0.5480	22.2010
 0.5490	22.2370
 0.5500	22.2750
 0.5510	22.3120
 0.5520	22.3460
 0.5530	22.3730
 0.5540	22.3940
 0.5550	22.4110
 0.5560	22.4230
 0.5570	22.4240
 0.5580	22.4220
 0.5590	22.4200
 0.5600	22.4160
 0.5610	22.4140
 0.5620	22.4120
 0.5630	22.4060
 0.5640	22.3940
 0.5650	22.3760
 0.5660	22.3480
 0.5670	22.3100
 0.5680	22.2690
 0.5690	22.2290
 0.5700	22.1930
 0.5710	22.1640
 0.5720	22.1540
 0.5730	22.1540
 0.5740	22.1600
 0.5750	22.1680
 0.5760	22.1640
 0.5770	22.1510
 0.5780	22.1340
 0.5790	22.1190
 0.5800	22.1020
 0.5810	22.0940
 0.5820	22.1050
 0.5830	22.1270
 0.5840	22.1380
 0.5850	22.1310
 0.5860	22.1100
 0.5870	22.0790
 0.5880	22.0450
 0.5890	22.0170
 0.5900	22.0070
 0.5910	22.0240
 0.5920	22.0620
 0.5930	22.1070
 0.5940	22.1410
 0.5950	22.1570
 0.5960	22.1560
 0.5970	22.1470
 0.5980	22.1390
 0.5990	22.1370
 0.6000	22.1400
 0.6010	22.1350
 0.6020	22.1320
 0.6030	22.1320
 0.6040	22.1240
 0.6050	22.1100
 0.6060	22.0950
 0.6070	22.0840
 0.6080	22.0660
 0.6090	22.0580
 0.6100	22.0670
 0.6110	22.0850
 0.6120	22.0600
 0.6130	22.0090
 0.6140	21.9560
 0.6150	21.9270
 0.6160	21.8950
 0.6170	21.8660
 0.6180	21.8480
 0.6190	21.8330
 0.6200	21.8220
 0.6210	21.8130
 0.6220	21.8040
 0.6230	21.7940
 0.6240	21.7850
 0.6250	21.7800
 0.6260	21.7830
 0.6270	21.7850
 0.6280	21.7860
 0.6290	21.7950
 0.6300	21.8050
 0.6310	21.8110
 0.6320	21.8100
 0.6330	21.8060
 0.6340	21.7990
 0.6350	21.7890
 0.6360	21.7750
 0.6370	21.7550
 0.6380	21.7310
 0.6390	21.7020
 0.6400	21.6670
 0.6410	21.6280
 0.6420	21.5860
 0.6430	21.5410
 0.6440	21.4910
 0.6450	21.4470
 0.6460	21.4060
 0.6470	21.3620
 0.6480	21.3200
 0.6490	21.2850
 0.6500	21.2550
 0.6510	21.2240
 0.6520	21.2030
 0.6530	21.1800
 0.6540	21.1500
 0.6550	21.1280
 0.6560	21.1000
 0.6570	21.0650
 0.6580	21.0280
 0.6590	20.9910
 0.6600	20.9490
 0.6610	20.9000
 0.6620	20.8500
 0.6630	20.8050
 0.6640	20.7600
 0.6650	20.7130
 0.6660	20.6800
 0.6670	20.6470
 0.6680	20.6160
 0.6690	20.5980
 0.6700	20.5770
 0.6710	20.5630
 0.6720	20.5590
 0.6730	20.5600
 0.6740	20.5630
 0.6750	20.5680
 0.6760	20.5800
 0.6770	20.5950
 0.6780	20.6120
 0.6790	20.6340
 0.6800	20.6650
 0.6810	20.7060
 0.6820	20.7580
 0.6830	20.8250
 0.6840	20.9090
 0.6850	21.0110
 0.6860	21.1320
 0.6870	21.2740
 0.6880	21.4410
 0.6890	21.6350
 0.6900	21.8550
 0.6910	22.0980
 0.6920	22.3670
 0.6930	22.6610
 0.6940	22.9750
 0.6950	23.3010
 0.6960	23.6510
 0.6970	24.0210
 0.6980	24.3970
 0.6990	24.7840
 0.7000	25.1790
 0.7010	25.5810
 0.7020	25.9870
 0.7030	26.3960
 0.7040	26.8030
 0.7050	27.2050
 0.7060	27.6060
 0.7070	28.0050
 0.7080	28.3980
 0.7090	28.7860
 0.7100	29.1640
 0.7110	29.5360
 0.7120	29.9040
 0.7130	30.2690
 0.7140	30.6260
 0.7150	30.9770
 0.7160	31.3220
 0.7170	31.6630
 0.7180	31.9920
 0.7190	32.3130
 0.7200	32.6290
 0.7210	32.9380
 0.7220	33.2430
 0.7230	33.5390
 0.7240	33.8170
 0.7250	34.0840
 0.7260	34.3420
 0.7270	34.5910
 0.7280	34.8350
 0.7290	35.0680
 0.7300	35.2880
 0.7310	35.5000
 0.7320	35.7040
 0.7330	35.8970
 0.7340	36.0790
 0.7350	36.2500
 0.7360	36.4100
 0.7370	36.5650
 0.7380	36.7170
 0.7390	36.8550
 0.7400	36.9870
 0.7410	37.1160
 0.7420	37.2410
 0.7430	37.3560
 0.7440	37.4670
 0.7450	37.5720
 0.7460	37.6690
 0.7470	37.7670
 0.7480	37.8560
 0.7490	37.9320
 0.7500	38.0140
 0.7510	38.0930
 0.7520	38.1670
 0.7530	38.2400
 0.7540	38.3000
 0.7550	38.3600
 0.7560	38.4220
 0.7570	38.4780
 0.7580	38.5330
 0.7590	38.5850
 0.7600	38.6340
 0.7610	38.6830
 0.7620	38.7320
 0.7630	38.7770
 0.7640	38.8180
 0.7650	38.8680
 0.7660	38.9110
 0.7670	38.9480
 0.7680	38.9900
 0.7690	39.0300
 0.7700	39.0670
 0.7710	39.1020
 0.7720	39.1400
 0.7730	39.1790
 0.7740	39.2160
 0.7750	39.2460
 0.7760	39.2790
 0.7770	39.3130
 0.7780	39.3480
 0.7790	39.3830
 0.7800	39.4130
 0.7810	39.4450
 0.7820	39.4790
 0.7830	39.5130
 0.7840	39.5420
 0.7850	39.5700
 0.7860	39.5990
 0.7870	39.6320
 0.7880	39.6630
 0.7890	39.6910
 0.7900	39.7160
 0.7910	39.7410
 0.7920	39.7660
 0.7930	39.7900
 0.7940	39.8180
 0.7950	39.8420
 0.7960	39.8630
 0.7970	39.8840
 0.7980	39.9100
 0.7990	39.9320
 0.8000	39.9500
 0.8010	39.9680
 0.8020	39.9950
 0.8030	40.0120
 0.8040	40.0250
 0.8050	40.0440
 0.8060	40.0530
 0.8070	40.0630
 0.8080	40.0780
 0.8090	40.0940
 0.8100	40.1090
 0.8110	40.1250
 0.8120	40.1410
 0.8130	40.1550
 0.8140	40.1640
 0.8150	40.1730
 0.8160	40.1840
 0.8170	40.2000
 0.8180	40.2060
 0.8190	40.2060
 0.8200	40.2130
 0.8210	40.2270
 0.8220	40.2350
 0.8230	40.2380
 0.8240	40.2490
 0.8250	40.2530
 0.8260	40.2540
 0.8270	40.2570
 0.8280	40.2690
 0.8290	40.2790
 0.8300	40.2840
 0.8310	40.2850
 0.8320	40.2940
 0.8330	40.3010
 0.8340	40.3070
 0.8350	40.3140
 0.8360	40.3180
 0.8370	40.3220
 0.8380	40.3310
 0.8390	40.3400
 0.8400	40.3450
 0.8410	40.3520
 0.8420	40.3630
 0.8430	40.3740
 0.8440	40.3840
 0.8450	40.3920
 0.8460	40.3990
 0.8470	40.4100
 0.8480	40.4260
 0.8490	40.4370
 0.8500	40.4380
 0.8510	40.4450
 0.8520	40.4600
 0.8530	40.4780
 0.8540	40.4880
 0.8550	40.4970
 0.8560	40.5100
 0.8570	40.5260
 0.8580	40.5400
 0.8590	40.5510
 0.8600	40.5620
 0.8610	40.5760
 0.8620	40.5920
 0.8630	40.6070
 0.8640	40.6180
 0.8650	40.6270
 0.8660	40.6490
 0.8670	40.6660
 0.8680	40.6800
 0.8690	40.6960
 0.8700	40.7140
 0.8710	40.7300
 0.8720	40.7410
 0.8730	40.7510
 0.8740	40.7670
 0.8750	40.7920
 0.8760	40.8180
 0.8770	40.8320
 0.8780	40.8460
 0.8790	40.8640
 0.8800	40.8850
 0.8810	40.9010
 0.8820	40.9160
 0.8830	40.9330
 0.8840	40.9550
 0.8850	40.9780
 0.8860	40.9970
 0.8870	41.0170
 0.8880	41.0420
 0.8890	41.0570
 0.8900	41.0730
 0.8910	41.0890
 0.8920	41.1030
 0.8930	41.1220
 0.8940	41.1480
 0.8950	41.1700
 0.8960	41.1750
 0.8970	41.1920
 0.8980	41.2150
 0.8990	41.2340
 0.9000	41.2450
 0.9010	41.2570
 0.9020	41.2720
 0.9030	41.2890
 0.9040	41.3060
 0.9050	41.3320
 0.9060	41.3590
 0.9070	41.3790
 0.9080	41.3850
 0.9090	41.3920
 0.9100	41.4030
 0.9110	41.4210
 0.9120	41.4440
 0.9130	41.4650
 0.9140	41.4830
 0.9150	41.5000
 0.9160	41.5210
 0.9170	41.5390
 0.9180	41.5550
 0.9190	41.5700
 0.9200	41.5860
 0.9210	41.6040
 0.9220	41.6160
 0.9230	41.6200
 0.9240	41.6350
 0.9250	41.6500
 0.9260	41.6630
 0.9270	41.6810
 0.9280	41.6930
 0.9290	41.7000
 0.9300	41.7080
 0.9310	41.7280
 0.9320	41.7350
 0.9330	41.7420
 0.9340	41.7500
 0.9350	41.7490
 0.9360	41.7550
 0.9370	41.7620
 0.9380	41.7630
 0.9390	41.7610
 0.9400	41.7650
 0.9410	41.7820
 0.9420	41.7990
 0.9430	41.7780
 0.9440	41.7750
 0.9450	41.7810
 0.9460	41.7810
 0.9470	41.7700
 0.9480	41.7560
 0.9490	41.7370
 0.9500	41.7190
 0.9510	41.7150
 0.9520	41.7070
 0.9530	41.6900
 0.9540	41.6660
 0.9550	41.6450
 0.9560	41.6330
 0.9570	41.6310
 0.9580	41.6290
 0.9590	41.5940
 0.9600	41.5720
 0.9610	41.5650
 0.9620	41.5560
 0.9630	41.5400
 0.9640	41.5270
 0.9650	41.5200
 0.9660	41.5140
 0.9670	41.5170
 0.9680	41.5150
 0.9690	41.5110
 0.9700	41.5110
 0.9710	41.5090
 0.9720	41.5030
 0.9730	41.5010
 0.9740	41.5070
 0.9750	41.5000
 0.9760	41.5020
 0.9770	41.5180
 0.9780	41.5360
 0.9790	41.5200
 0.9800	41.5080
 0.9810	41.5100
 0.9820	41.5170
 0.9830	41.5290
 0.9840	41.5380
 0.9850	41.5470
 0.9860	41.5580
 0.9870	41.5520
 0.9880	41.5740
 0.9890	41.6060
 0.9900	41.6050
 0.9910	41.6040
 0.9920	41.6130
 0.9930	41.6280
 0.9940	41.6440
 0.9950	41.6830
 0.9960	41.7110
 0.9970	41.7120
 0.9980	41.7000
 0.9990	41.7370
 1.0000	41.8900
 1.0010	42.1620
 1.0020	42.3090
 1.0030	42.3200
 1.0040	42.3400
 1.0050	42.3550
 1.0060	42.3700
 1.0070	42.3890
 1.0080	42.4030
 1.0090	42.4140
 1.0100	42.4260
 1.0110	42.4380
 1.0120	42.4500
 1.0130	42.4620
 1.0140	42.4740
 1.0150	42.4870
 1.0160	42.4990
 1.0170	42.5120
 1.0180	42.5250
 1.0190	42.5370
 1.0200	42.5500
 1.0210	42.5640
 1.0220	42.5780
 1.0230	42.5940
 1.0240	42.6130
 1.0250	42.6280
 1.0260	42.6370
 1.0270	42.6510
 1.0280	42.6660
 1.0290	42.6800
 1.0300	42.6960
 1.0310	42.7110
 1.0320	42.7250
 1.0330	42.7380
 1.0340	42.7520
 1.0350	42.7650
 1.0360	42.7780
 1.0370	42.7900
 1.0380	42.8030
 1.0390	42.8150
 1.0400	42.8290
 1.0410	42.8440
 1.0420	42.8580
 1.0430	42.8740
 1.0440	42.8870
 1.0450	42.8960
 1.0460	42.9080
 1.0470	42.9210
 1.0480	42.9340
 1.0490	42.9520
 1.0500	42.9660
 1.0510	42.9800
 1.0520	42.9880
 1.0530	42.9970
 1.0540	43.0030
 1.0550	43.0140
 1.0560	43.0250
 1.0570	43.0360
 1.0580	43.0500
 1.0590	43.0600
 1.0600	43.0690
 1.0610	43.0780
 1.0620	43.0850
 1.0630	43.0920
 1.0640	43.0980
 1.0650	43.1030
 1.0660	43.1080
 1.0670	43.1130
 1.0680	43.1190
 1.0690	43.1230
 1.0700	43.1290
 1.0710	43.1360
 1.0720	43.1410
 1.0730	43.1450
 1.0740	43.1500
 1.0750	43.1550
 1.0760	43.1590
 1.0770	43.1650
 1.0780	43.1680
 1.0790	43.1630
 1.0800	43.1650
 1.0810	43.1700
 1.0820	43.1730
 1.0830	43.1780
 1.0840	43.1820
 1.0850	43.1820
 1.0860	43.1800
 1.0870	43.1800
 1.0880	43.1800
 1.0890	43.1810
 1.0900	43.1820
 1.0910	43.1830
 1.0920	43.1830
 1.0930	43.1860
 1.0940	43.1910
 1.0950	43.1920
 1.0960	43.1940
 1.0970	43.1950
 1.0980	43.1890
 1.0990	43.1890
 1.1000	43.1930
 1.1010	43.1940
 1.1020	43.1980
 1.1030	43.2000
 1.1040	43.2000
 1.1050	43.1990
 1.1060	43.1980
 1.1070	43.1970
 1.1080	43.1950
 1.1090	43.1950
 1.1100	43.1910
 1.1110	43.1840
 1.1120	43.1810
 1.1130	43.1800
 1.1140	43.1760
 1.1150	43.1760
 1.1160	43.1720
 1.1170	43.1640
 1.1180	43.1570
 1.1190	43.1500
 1.1200	43.1420
 1.1210	43.1330
 1.1220	43.1230
 1.1230	43.1110
 1.1240	43.0970
 1.1250	43.0800
 1.1260	43.0610
 1.1270	43.0390
 1.1280	43.0160
 1.1290	42.9870
 1.1300	42.9570
 1.1310	42.9200
 1.1320	42.8780
 1.1330	42.8330
 1.1340	42.7850
 1.1350	42.7340
 1.1360	42.6810
 1.1370	42.6260
 1.1380	42.5690
 1.1390	42.5110
 1.1400	42.4500
 1.1410	42.3860
 1.1420	42.3190
 1.1430	42.2500
 1.1440	42.1830
 1.1450	42.1150
 1.1460	42.0480
 1.1470	41.9810
 1.1480	41.9170
 1.1490	41.8520
 1.1500	41.7920
 1.1510	41.7340
 1.1520	41.6790
 1.1530	41.6270
 1.1540	41.5790
 1.1550	41.5340
 1.1560	41.4920
 1.1570	41.4520
 1.1580	41.4150
 1.1590	41.3780
 1.1600	41.3430
 1.1610	41.3110
 1.1620	41.2800
 1.1630	41.2520
 1.1640	41.2280
 1.1650	41.2020
 1.1660	41.1770
 1.1670	41.1530
 1.1680	41.1290
 1.1690	41.1050
 1.1700	41.0830
 1.1710	41.0600
 1.1720	41.0380
 1.1730	41.0150
 1.1740	40.9930
 1.1750	40.9680
 1.1760	40.9400
 1.1770	40.9120
 1.1780	40.8830
 1.1790	40.8540
 1.1800	40.8270
 1.1810	40.7990
 1.1820	40.7720
 1.1830	40.7470
 1.1840	40.7250
 1.1850	40.7050
 1.1860	40.6870
 1.1870	40.6700
 1.1880	40.6570
 1.1890	40.6480
 1.1900	40.6400
 1.1910	40.6330
 1.1920	40.6300
 1.1930	40.6290
 1.1940	40.6310
 1.1950	40.6380
 1.1960	40.6460
 1.1970	40.6550
 1.1980	40.6640
 1.1990	40.6740
 1.2000	40.6840
 1.2010	40.6940
 1.2020	40.7080
 1.2030	40.7190
 1.2040	40.7340
 1.2050	40.7490
 1.2060	40.7660
 1.2070	40.7870
 1.2080	40.8070
 1.2090	40.8310
 1.2100	40.8570
 1.2110	40.8830
 1.2120	40.9100
 1.2130	40.9390
 1.2140	40.9670
 1.2150	40.9990
 1.2160	41.0370
 1.2170	41.0730
 1.2180	41.1100
 1.2190	41.1470
 1.2200	41.1820
 1.2210	41.2190
 1.2220	41.2530
 1.2230	41.2880
 1.2240	41.3270
 1.2250	41.3600
 1.2260	41.3940
 1.2270	41.4280
 1.2280	41.4580
 1.2290	41.4880
 1.2300	41.5170
 1.2310	41.5470
 1.2320	41.5760
 1.2330	41.6040
 1.2340	41.6290
 1.2350	41.6530
 1.2360	41.6760
 1.2370	41.6960
 1.2380	41.7160
 1.2390	41.7390
 1.2400	41.7600
 1.2410	41.7810
 1.2420	41.8010
 1.2430	41.8180
 1.2440	41.8360
 1.2450	41.8530
 1.2460	41.8670
 1.2470	41.8810
 1.2480	41.8950
 1.2490	41.9080
 1.2500	41.9230
 1.2510	41.9380
 1.2520	41.9510
 1.2530	41.9630
 1.2540	41.9740
 1.2550	41.9820
 1.2560	41.9920
 1.2570	42.0020
 1.2580	42.0120
 1.2590	42.0210
 1.2600	42.0290
 1.2610	42.0370
 1.2620	42.0430
 1.2630	42.0490
 1.2640	42.0550
 1.2650	42.0610
 1.2660	42.0650
 1.2670	42.0700
 1.2680	42.0740
 1.2690	42.0770
 1.2700	42.0810
 1.2710	42.0850
 1.2720	42.0860
 1.2730	42.0880
 1.2740	42.0910
 1.2750	42.0900
 1.2760	42.0920
 1.2770	42.0940
 1.2780	42.0950
 1.2790	42.0970
 1.2800	42.0960
 1.2810	42.0940
 1.2820	42.0930
 1.2830	42.0890
 1.2840	42.0850
 1.2850	42.0810
 1.2860	42.0770
 1.2870	42.0710
 1.2880	42.0660
 1.2890	42.0600
 1.2900	42.0510
 1.2910	42.0390
 1.2920	42.0250
 1.2930	42.0090
 1.2940	41.9920
 1.2950	41.9750
 1.2960	41.9590
 1.2970	41.9390
 1.2980	41.9180
 1.2990	41.8970
 1.3000	41.8720
 1.3010	41.8460
 1.3020	41.8200
 1.3030	41.7890
 1.3040	41.7590
 1.3050	41.7260
 1.3060	41.6900
 1.3070	41.6550
 1.3080	41.6190
 1.3090	41.5790
 1.3100	41.5410
 1.3110	41.5030
 1.3120	41.4590
 1.3130	41.4170
 1.3140	41.3730
 1.3150	41.3280
 1.3160	41.2810
 1.3170	41.2340
 1.3180	41.1860
 1.3190	41.1360
 1.3200	41.0830
 1.3210	41.0290
 1.3220	40.9770
 1.3230	40.9220
 1.3240	40.8640
 1.3250	40.8090
 1.3260	40.7520
 1.3270	40.6920
 1.3280	40.6330
 1.3290	40.5730
 1.3300	40.5110
 1.3310	40.4510
 1.3320	40.3880
 1.3330	40.3240
 1.3340	40.2610
 1.3350	40.1970
 1.3360	40.1330
 1.3370	40.0680
 1.3380	39.9990
 1.3390	39.9300
 1.3400	39.8610
 1.3410	39.7910
 1.3420	39.7210
 1.3430	39.6520
 1.3440	39.5840
 1.3450	39.5140
 1.3460	39.4450
 1.3470	39.3760
 1.3480	39.3060
 1.3490	39.2360
 1.3500	39.1660
 1.3510	39.0950
 1.3520	39.0250
 1.3530	38.9540
 1.3540	38.8830
 1.3550	38.8120
 1.3560	38.7420
 1.3570	38.6690
 1.3580	38.5980
 1.3590	38.5270
 1.3600	38.4540
 1.3610	38.3810
 1.3620	38.3050
 1.3630	38.2270
 1.3640	38.1470
 1.3650	38.0640
 1.3660	37.9790
 1.3670	37.8910
 1.3680	37.7980
 1.3690	37.7020
 1.3700	37.5990
 1.3710	37.4900
 1.3720	37.3760
 1.3730	37.2550
 1.3740	37.1240
 1.3750	36.9850
 1.3760	36.8350
 1.3770	36.6740
 1.3780	36.5020
 1.3790	36.3210
 1.3800	36.1300
 1.3810	35.9270
 1.3820	35.7160
 1.3830	35.4960
 1.3840	35.2680
 1.3850	35.0320
 1.3860	34.7870
 1.3870	34.5330
 1.3880	34.2740
 1.3890	34.0070
 1.3900	33.7340
 1.3910	33.4600
 1.3920	33.1810
 1.3930	32.9000
 1.3940	32.6190
 1.3950	32.3330
 1.3960	32.0510
 1.3970	31.7710
 1.3980	31.4930
 1.3990	31.2240
 1.4000	30.9580
 1.4010	30.6960
 1.4020	30.4420
 1.4030	30.1950
 1.4040	29.9550
 1.4050	29.7260
 1.4060	29.5030
 1.4070	29.2920
 1.4080	29.0910
 1.4090	28.8990
 1.4100	28.7190
 1.4110	28.5490
 1.4120	28.3870
 1.4130	28.2360
 1.4140	28.0940
 1.4150	27.9630
 1.4160	27.8410
 1.4170	27.7280
 1.4180	27.6230
 1.4190	27.5250
 1.4200	27.4350
 1.4210	27.3530
 1.4220	27.2780
 1.4230	27.2110
 1.4240	27.1490
 1.4250	27.0920
 1.4260	27.0400
 1.4270	26.9920
 1.4280	26.9490
 1.4290	26.9100
 1.4300	26.8780
 1.4310	26.8480
 1.4320	26.8210
 1.4330	26.7980
 1.4340	26.7780
 1.4350	26.7620
 1.4360	26.7500
 1.4370	26.7410
 1.4380	26.7330
 1.4390	26.7280
 1.4400	26.7250
 1.4410	26.7230
 1.4420	26.7240
 1.4430	26.7280
 1.4440	26.7310
 1.4450	26.7340
 1.4460	26.7400
 1.4470	26.7480
 1.4480	26.7560
 1.4490	26.7680
 1.4500	26.7810
 1.4510	26.7920
 1.4520	26.8050
 1.4530	26.8190
 1.4540	26.8340
 1.4550	26.8500
 1.4560	26.8660
 1.4570	26.8840
 1.4580	26.9030
 1.4590	26.9220
 1.4600	26.9440
 1.4610	26.9690
 1.4620	26.9960
 1.4630	27.0260
 1.4640	27.0570
 1.4650	27.0890
 1.4660	27.1240
 1.4670	27.1600
 1.4680	27.2000
 1.4690	27.2440
 1.4700	27.2880
