Name: Ceanothus spinosus 3
Type: vegetation
Class: Shrub
Genus: Ceanothus
Species: spinosus
Sample No.: VH131
Owner: UCSB
Wavelength Range: VSWIR
Origin: 34.4906; -119.7908; WGS84
Collection Date: 6/3/2013
Description: Samples were collected as part of the HyspIRI Airborne Campaign. 48 individual plants were sampled in three times in 2013 - spring  summer  and fall. The name of the sample includes a 1  2  or 3 which references a different individual of the species. Samples were taken to JPL and processed within 48 hours of collection. The same leaves were processed in the Nicolet and then measured using the ASD.
Measurement: Bidirectional reflectance
First Column: X
Second Column: Y
X Units: Wavelength (micrometers)
Y Units: Reflectance (percentage)
First X Value: 0.35
Last X Value: 2.5
Number of X Values: 2151
Additional Information: vegetation.shrub.ceanothus.spinosus.vswir.vh131.ucsb.asd.ancillary.txt

 0.3500	11.2530
 0.3510	11.2960
 0.3520	11.2970
 0.3530	11.2270
 0.3540	11.1600
 0.3550	11.2660
 0.3560	11.3410
 0.3570	11.3450
 0.3580	11.3310
 0.3590	11.2850
 0.3600	11.1930
 0.3610	11.0930
 0.3620	11.0930
 0.3630	11.0800
 0.3640	11.0870
 0.3650	11.1460
 0.3660	11.1590
 0.3670	11.1750
 0.3680	11.1560
 0.3690	11.0320
 0.3700	11.0480
 0.3710	11.0790
 0.3720	11.0370
 0.3730	11.0040
 0.3740	10.8980
 0.3750	10.8750
 0.3760	11.0490
 0.3770	10.9920
 0.3780	10.9260
 0.3790	10.9150
 0.3800	10.8680
 0.3810	10.8720
 0.3820	10.9400
 0.3830	11.0260
 0.3840	10.9850
 0.3850	10.9140
 0.3860	10.8600
 0.3870	10.8440
 0.3880	10.8520
 0.3890	10.8560
 0.3900	10.8630
 0.3910	10.9050
 0.3920	10.8850
 0.3930	10.8550
 0.3940	10.8580
 0.3950	10.8390
 0.3960	10.8040
 0.3970	10.7850
 0.3980	10.8120
 0.3990	10.8310
 0.4000	10.8430
 0.4010	10.8400
 0.4020	10.8000
 0.4030	10.7510
 0.4040	10.7420
 0.4050	10.7900
 0.4060	10.7860
 0.4070	10.7690
 0.4080	10.7670
 0.4090	10.7940
 0.4100	10.8190
 0.4110	10.8300
 0.4120	10.8320
 0.4130	10.8590
 0.4140	10.8780
 0.4150	10.8970
 0.4160	10.9360
 0.4170	10.9760
 0.4180	10.9940
 0.4190	11.0070
 0.4200	11.0680
 0.4210	11.1050
 0.4220	11.1200
 0.4230	11.1290
 0.4240	11.1470
 0.4250	11.1810
 0.4260	11.2260
 0.4270	11.2670
 0.4280	11.2910
 0.4290	11.3030
 0.4300	11.3120
 0.4310	11.3220
 0.4320	11.3270
 0.4330	11.3340
 0.4340	11.3510
 0.4350	11.3630
 0.4360	11.3820
 0.4370	11.4050
 0.4380	11.4150
 0.4390	11.4320
 0.4400	11.4600
 0.4410	11.4910
 0.4420	11.5050
 0.4430	11.5170
 0.4440	11.5310
 0.4450	11.5440
 0.4460	11.5500
 0.4470	11.5700
 0.4480	11.6000
 0.4490	11.6120
 0.4500	11.6270
 0.4510	11.6380
 0.4520	11.6390
 0.4530	11.6650
 0.4540	11.6680
 0.4550	11.6580
 0.4560	11.6790
 0.4570	11.6970
 0.4580	11.7000
 0.4590	11.6910
 0.4600	11.6930
 0.4610	11.7000
 0.4620	11.7050
 0.4630	11.7050
 0.4640	11.7010
 0.4650	11.7060
 0.4660	11.7110
 0.4670	11.6960
 0.4680	11.6930
 0.4690	11.6990
 0.4700	11.7050
 0.4710	11.7040
 0.4720	11.7000
 0.4730	11.7010
 0.4740	11.7150
 0.4750	11.7080
 0.4760	11.7000
 0.4770	11.7020
 0.4780	11.7080
 0.4790	11.7180
 0.4800	11.7220
 0.4810	11.7160
 0.4820	11.7180
 0.4830	11.7210
 0.4840	11.7240
 0.4850	11.7320
 0.4860	11.7390
 0.4870	11.7510
 0.4880	11.7710
 0.4890	11.7800
 0.4900	11.7890
 0.4910	11.8040
 0.4920	11.8220
 0.4930	11.8410
 0.4940	11.8630
 0.4950	11.8910
 0.4960	11.9200
 0.4970	11.9440
 0.4980	11.9760
 0.4990	12.0230
 0.5000	12.0590
 0.5010	12.0960
 0.5020	12.1410
 0.5030	12.1980
 0.5040	12.2580
 0.5050	12.3170
 0.5060	12.3770
 0.5070	12.4490
 0.5080	12.5280
 0.5090	12.6170
 0.5100	12.7200
 0.5110	12.8320
 0.5120	12.9490
 0.5130	13.0720
 0.5140	13.2020
 0.5150	13.3540
 0.5160	13.5190
 0.5170	13.6890
 0.5180	13.8620
 0.5190	14.0480
 0.5200	14.2460
 0.5210	14.4460
 0.5220	14.6480
 0.5230	14.8540
 0.5240	15.0660
 0.5250	15.2680
 0.5260	15.4650
 0.5270	15.6550
 0.5280	15.8330
 0.5290	16.0000
 0.5300	16.1590
 0.5310	16.3120
 0.5320	16.4480
 0.5330	16.5680
 0.5340	16.6760
 0.5350	16.7730
 0.5360	16.8620
 0.5370	16.9450
 0.5380	17.0180
 0.5390	17.0760
 0.5400	17.1340
 0.5410	17.1860
 0.5420	17.2270
 0.5430	17.2720
 0.5440	17.3130
 0.5450	17.3530
 0.5460	17.3960
 0.5470	17.4490
 0.5480	17.5030
 0.5490	17.5470
 0.5500	17.5670
 0.5510	17.5780
 0.5520	17.5820
 0.5530	17.5770
 0.5540	17.5580
 0.5550	17.5260
 0.5560	17.4820
 0.5570	17.4190
 0.5580	17.3410
 0.5590	17.2520
 0.5600	17.1570
 0.5610	17.0610
 0.5620	16.9590
 0.5630	16.8490
 0.5640	16.7300
 0.5650	16.5970
 0.5660	16.4560
 0.5670	16.3120
 0.5680	16.1700
 0.5690	16.0290
 0.5700	15.8870
 0.5710	15.7450
 0.5720	15.6080
 0.5730	15.4830
 0.5740	15.3750
 0.5750	15.2850
 0.5760	15.2130
 0.5770	15.1450
 0.5780	15.0730
 0.5790	14.9980
 0.5800	14.9260
 0.5810	14.8590
 0.5820	14.7970
 0.5830	14.7320
 0.5840	14.6610
 0.5850	14.5880
 0.5860	14.5280
 0.5870	14.4630
 0.5880	14.4030
 0.5890	14.3590
 0.5900	14.3350
 0.5910	14.3280
 0.5920	14.3240
 0.5930	14.3070
 0.5940	14.2850
 0.5950	14.2630
 0.5960	14.2440
 0.5970	14.2280
 0.5980	14.2060
 0.5990	14.1770
 0.6000	14.1450
 0.6010	14.1120
 0.6020	14.0770
 0.6030	14.0420
 0.6040	14.0090
 0.6050	13.9700
 0.6060	13.9250
 0.6070	13.8740
 0.6080	13.8170
 0.6090	13.7580
 0.6100	13.6920
 0.6110	13.6160
 0.6120	13.5560
 0.6130	13.5080
 0.6140	13.4620
 0.6150	13.4110
 0.6160	13.3650
 0.6170	13.3210
 0.6180	13.2760
 0.6190	13.2370
 0.6200	13.2010
 0.6210	13.1680
 0.6220	13.1420
 0.6230	13.1190
 0.6240	13.1010
 0.6250	13.0870
 0.6260	13.0700
 0.6270	13.0570
 0.6280	13.0480
 0.6290	13.0400
 0.6300	13.0320
 0.6310	13.0230
 0.6320	13.0150
 0.6330	13.0060
 0.6340	12.9910
 0.6350	12.9700
 0.6360	12.9450
 0.6370	12.9120
 0.6380	12.8750
 0.6390	12.8360
 0.6400	12.7930
 0.6410	12.7440
 0.6420	12.6920
 0.6430	12.6410
 0.6440	12.5940
 0.6450	12.5440
 0.6460	12.4940
 0.6470	12.4470
 0.6480	12.4070
 0.6490	12.3710
 0.6500	12.3370
 0.6510	12.3060
 0.6520	12.2830
 0.6530	12.2600
 0.6540	12.2350
 0.6550	12.2100
 0.6560	12.1830
 0.6570	12.1520
 0.6580	12.1200
 0.6590	12.0880
 0.6600	12.0540
 0.6610	12.0160
 0.6620	11.9800
 0.6630	11.9500
 0.6640	11.9250
 0.6650	11.9030
 0.6660	11.8800
 0.6670	11.8630
 0.6680	11.8540
 0.6690	11.8490
 0.6700	11.8480
 0.6710	11.8520
 0.6720	11.8570
 0.6730	11.8640
 0.6740	11.8760
 0.6750	11.8930
 0.6760	11.9150
 0.6770	11.9390
 0.6780	11.9640
 0.6790	11.9900
 0.6800	12.0180
 0.6810	12.0560
 0.6820	12.1000
 0.6830	12.1470
 0.6840	12.2030
 0.6850	12.2660
 0.6860	12.3390
 0.6870	12.4270
 0.6880	12.5360
 0.6890	12.6680
 0.6900	12.8300
 0.6910	13.0280
 0.6920	13.2730
 0.6930	13.5670
 0.6940	13.9140
 0.6950	14.3260
 0.6960	14.8050
 0.6970	15.3490
 0.6980	15.9560
 0.6990	16.6310
 0.7000	17.3640
 0.7010	18.1510
 0.7020	18.9880
 0.7030	19.8680
 0.7040	20.7790
 0.7050	21.7120
 0.7060	22.6710
 0.7070	23.6480
 0.7080	24.6410
 0.7090	25.6510
 0.7100	26.6660
 0.7110	27.6950
 0.7120	28.7350
 0.7130	29.7730
 0.7140	30.8150
 0.7150	31.8620
 0.7160	32.9100
 0.7170	33.9520
 0.7180	34.9900
 0.7190	36.0230
 0.7200	37.0470
 0.7210	38.0610
 0.7220	39.0590
 0.7230	40.0390
 0.7240	41.0000
 0.7250	41.9370
 0.7260	42.8510
 0.7270	43.7400
 0.7280	44.5910
 0.7290	45.4170
 0.7300	46.2140
 0.7310	46.9720
 0.7320	47.7000
 0.7330	48.3960
 0.7340	49.0590
 0.7350	49.6860
 0.7360	50.2830
 0.7370	50.8500
 0.7380	51.3840
 0.7390	51.8900
 0.7400	52.3650
 0.7410	52.8130
 0.7420	53.2350
 0.7430	53.6230
 0.7440	53.9850
 0.7450	54.3240
 0.7460	54.6360
 0.7470	54.9320
 0.7480	55.2020
 0.7490	55.4440
 0.7500	55.6780
 0.7510	55.8940
 0.7520	56.0890
 0.7530	56.2680
 0.7540	56.4330
 0.7550	56.5810
 0.7560	56.7140
 0.7570	56.8400
 0.7580	56.9530
 0.7590	57.0580
 0.7600	57.1600
 0.7610	57.2490
 0.7620	57.3250
 0.7630	57.3980
 0.7640	57.4730
 0.7650	57.5310
 0.7660	57.5880
 0.7670	57.6460
 0.7680	57.6960
 0.7690	57.7390
 0.7700	57.7760
 0.7710	57.8120
 0.7720	57.8520
 0.7730	57.8900
 0.7740	57.9210
 0.7750	57.9460
 0.7760	57.9720
 0.7770	58.0030
 0.7780	58.0340
 0.7790	58.0580
 0.7800	58.0820
 0.7810	58.1090
 0.7820	58.1350
 0.7830	58.1520
 0.7840	58.1750
 0.7850	58.1980
 0.7860	58.2150
 0.7870	58.2290
 0.7880	58.2460
 0.7890	58.2650
 0.7900	58.2820
 0.7910	58.2990
 0.7920	58.3130
 0.7930	58.3260
 0.7940	58.3380
 0.7950	58.3530
 0.7960	58.3670
 0.7970	58.3780
 0.7980	58.3900
 0.7990	58.3940
 0.8000	58.3970
 0.8010	58.4040
 0.8020	58.4040
 0.8030	58.4110
 0.8040	58.4210
 0.8050	58.4250
 0.8060	58.4280
 0.8070	58.4260
 0.8080	58.4230
 0.8090	58.4230
 0.8100	58.4190
 0.8110	58.4170
 0.8120	58.4190
 0.8130	58.4260
 0.8140	58.4200
 0.8150	58.4090
 0.8160	58.4040
 0.8170	58.3980
 0.8180	58.3970
 0.8190	58.3940
 0.8200	58.3840
 0.8210	58.3830
 0.8220	58.3830
 0.8230	58.3770
 0.8240	58.3660
 0.8250	58.3640
 0.8260	58.3570
 0.8270	58.3420
 0.8280	58.3330
 0.8290	58.3190
 0.8300	58.3100
 0.8310	58.3120
 0.8320	58.3110
 0.8330	58.3010
 0.8340	58.2890
 0.8350	58.2820
 0.8360	58.2810
 0.8370	58.2840
 0.8380	58.2840
 0.8390	58.2730
 0.8400	58.2730
 0.8410	58.2780
 0.8420	58.2790
 0.8430	58.2750
 0.8440	58.2720
 0.8450	58.2750
 0.8460	58.2840
 0.8470	58.2830
 0.8480	58.2860
 0.8490	58.2910
 0.8500	58.2940
 0.8510	58.2990
 0.8520	58.3020
 0.8530	58.3060
 0.8540	58.3100
 0.8550	58.3180
 0.8560	58.3220
 0.8570	58.3240
 0.8580	58.3310
 0.8590	58.3350
 0.8600	58.3440
 0.8610	58.3600
 0.8620	58.3650
 0.8630	58.3700
 0.8640	58.3690
 0.8650	58.3640
 0.8660	58.3810
 0.8670	58.3940
 0.8680	58.4000
 0.8690	58.4050
 0.8700	58.4160
 0.8710	58.4260
 0.8720	58.4360
 0.8730	58.4460
 0.8740	58.4560
 0.8750	58.4660
 0.8760	58.4780
 0.8770	58.4900
 0.8780	58.4970
 0.8790	58.5050
 0.8800	58.5140
 0.8810	58.5240
 0.8820	58.5280
 0.8830	58.5350
 0.8840	58.5500
 0.8850	58.5600
 0.8860	58.5670
 0.8870	58.5720
 0.8880	58.5790
 0.8890	58.5960
 0.8900	58.6040
 0.8910	58.6060
 0.8920	58.6150
 0.8930	58.6310
 0.8940	58.6370
 0.8950	58.6390
 0.8960	58.6510
 0.8970	58.6570
 0.8980	58.6620
 0.8990	58.6680
 0.9000	58.6690
 0.9010	58.6790
 0.9020	58.6930
 0.9030	58.7070
 0.9040	58.7170
 0.9050	58.7250
 0.9060	58.7270
 0.9070	58.7220
 0.9080	58.7200
 0.9090	58.7320
 0.9100	58.7470
 0.9110	58.7550
 0.9120	58.7540
 0.9130	58.7610
 0.9140	58.7710
 0.9150	58.7750
 0.9160	58.7740
 0.9170	58.7770
 0.9180	58.7860
 0.9190	58.7930
 0.9200	58.7890
 0.9210	58.7880
 0.9220	58.7900
 0.9230	58.7810
 0.9240	58.7770
 0.9250	58.7770
 0.9260	58.7720
 0.9270	58.7540
 0.9280	58.7390
 0.9290	58.7250
 0.9300	58.7100
 0.9310	58.6900
 0.9320	58.6630
 0.9330	58.6440
 0.9340	58.6350
 0.9350	58.6170
 0.9360	58.5970
 0.9370	58.5730
 0.9380	58.5430
 0.9390	58.5150
 0.9400	58.4810
 0.9410	58.4490
 0.9420	58.4230
 0.9430	58.3980
 0.9440	58.3600
 0.9450	58.3170
 0.9460	58.2750
 0.9470	58.2230
 0.9480	58.1690
 0.9490	58.1130
 0.9500	58.0520
 0.9510	57.9830
 0.9520	57.9270
 0.9530	57.8660
 0.9540	57.7840
 0.9550	57.7060
 0.9560	57.6360
 0.9570	57.5720
 0.9580	57.5080
 0.9590	57.4440
 0.9600	57.3830
 0.9610	57.3220
 0.9620	57.2620
 0.9630	57.2270
 0.9640	57.1920
 0.9650	57.1600
 0.9660	57.1380
 0.9670	57.1090
 0.9680	57.0700
 0.9690	57.0290
 0.9700	56.9990
 0.9710	57.0090
 0.9720	57.0010
 0.9730	56.9770
 0.9740	56.9560
 0.9750	56.9300
 0.9760	56.9250
 0.9770	56.9320
 0.9780	56.9270
 0.9790	56.9200
 0.9800	56.9100
 0.9810	56.9000
 0.9820	56.8950
 0.9830	56.9160
 0.9840	56.9300
 0.9850	56.9340
 0.9860	56.9380
 0.9870	56.9460
 0.9880	56.9700
 0.9890	57.0000
 0.9900	57.0160
 0.9910	57.0280
 0.9920	57.0690
 0.9930	57.1090
 0.9940	57.1500
 0.9950	57.1900
 0.9960	57.2310
 0.9970	57.2720
 0.9980	57.3120
 0.9990	57.3530
 1.0000	57.3940
 1.0010	57.4340
 1.0020	57.4750
 1.0030	57.5150
 1.0040	57.5560
 1.0050	57.5970
 1.0060	57.6370
 1.0070	57.6780
 1.0080	57.7180
 1.0090	57.7590
 1.0100	57.7590
 1.0110	57.7870
 1.0120	57.8120
 1.0130	57.8300
 1.0140	57.8540
 1.0150	57.8820
 1.0160	57.9110
 1.0170	57.9330
 1.0180	57.9530
 1.0190	57.9740
 1.0200	57.9930
 1.0210	58.0150
 1.0220	58.0380
 1.0230	58.0570
 1.0240	58.0710
 1.0250	58.0910
 1.0260	58.1110
 1.0270	58.1310
 1.0280	58.1550
 1.0290	58.1770
 1.0300	58.1990
 1.0310	58.2200
 1.0320	58.2420
 1.0330	58.2580
 1.0340	58.2730
 1.0350	58.2890
 1.0360	58.2970
 1.0370	58.3090
 1.0380	58.3260
 1.0390	58.3480
 1.0400	58.3650
 1.0410	58.3900
 1.0420	58.4060
 1.0430	58.4120
 1.0440	58.4240
 1.0450	58.4380
 1.0460	58.4530
 1.0470	58.4730
 1.0480	58.4890
 1.0490	58.5020
 1.0500	58.5150
 1.0510	58.5240
 1.0520	58.5350
 1.0530	58.5480
 1.0540	58.5640
 1.0550	58.5760
 1.0560	58.5860
 1.0570	58.5970
 1.0580	58.6070
 1.0590	58.6160
 1.0600	58.6260
 1.0610	58.6370
 1.0620	58.6490
 1.0630	58.6580
 1.0640	58.6690
 1.0650	58.6780
 1.0660	58.6830
 1.0670	58.6900
 1.0680	58.6980
 1.0690	58.7100
 1.0700	58.7150
 1.0710	58.7180
 1.0720	58.7220
 1.0730	58.7230
 1.0740	58.7270
 1.0750	58.7340
 1.0760	58.7400
 1.0770	58.7450
 1.0780	58.7480
 1.0790	58.7530
 1.0800	58.7550
 1.0810	58.7560
 1.0820	58.7540
 1.0830	58.7480
 1.0840	58.7440
 1.0850	58.7420
 1.0860	58.7370
 1.0870	58.7320
 1.0880	58.7290
 1.0890	58.7240
 1.0900	58.7170
 1.0910	58.7100
 1.0920	58.7060
 1.0930	58.6990
 1.0940	58.6920
 1.0950	58.6810
 1.0960	58.6680
 1.0970	58.6560
 1.0980	58.6440
 1.0990	58.6320
 1.1000	58.6220
 1.1010	58.6100
 1.1020	58.5960
 1.1030	58.5810
 1.1040	58.5660
 1.1050	58.5480
 1.1060	58.5300
 1.1070	58.5100
 1.1080	58.4920
 1.1090	58.4730
 1.1100	58.4540
 1.1110	58.4370
 1.1120	58.4150
 1.1130	58.3910
 1.1140	58.3640
 1.1150	58.3300
 1.1160	58.2990
 1.1170	58.2690
 1.1180	58.2370
 1.1190	58.2080
 1.1200	58.1740
 1.1210	58.1300
 1.1220	58.0850
 1.1230	58.0390
 1.1240	57.9900
 1.1250	57.9360
 1.1260	57.8810
 1.1270	57.8180
 1.1280	57.7480
 1.1290	57.6720
 1.1300	57.5920
 1.1310	57.5040
 1.1320	57.4070
 1.1330	57.3070
 1.1340	57.2030
 1.1350	57.0910
 1.1360	56.9730
 1.1370	56.8490
 1.1380	56.7160
 1.1390	56.5770
 1.1400	56.4330
 1.1410	56.2880
 1.1420	56.1380
 1.1430	55.9860
 1.1440	55.8340
 1.1450	55.6780
 1.1460	55.5250
 1.1470	55.3730
 1.1480	55.2250
 1.1490	55.0760
 1.1500	54.9380
 1.1510	54.8030
 1.1520	54.6790
 1.1530	54.5630
 1.1540	54.4550
 1.1550	54.3550
 1.1560	54.2670
 1.1570	54.1870
 1.1580	54.1110
 1.1590	54.0460
 1.1600	53.9880
 1.1610	53.9360
 1.1620	53.8940
 1.1630	53.8550
 1.1640	53.8230
 1.1650	53.7950
 1.1660	53.7740
 1.1670	53.7530
 1.1680	53.7390
 1.1690	53.7220
 1.1700	53.7070
 1.1710	53.6940
 1.1720	53.6820
 1.1730	53.6710
 1.1740	53.6600
 1.1750	53.6510
 1.1760	53.6430
 1.1770	53.6360
 1.1780	53.6250
 1.1790	53.6160
 1.1800	53.6030
 1.1810	53.5880
 1.1820	53.5810
 1.1830	53.5710
 1.1840	53.5600
 1.1850	53.5530
 1.1860	53.5400
 1.1870	53.5280
 1.1880	53.5170
 1.1890	53.5050
 1.1900	53.4970
 1.1910	53.4940
 1.1920	53.4910
 1.1930	53.4920
 1.1940	53.4930
 1.1950	53.4940
 1.1960	53.4970
 1.1970	53.5020
 1.1980	53.5100
 1.1990	53.5220
 1.2000	53.5320
 1.2010	53.5420
 1.2020	53.5530
 1.2030	53.5650
 1.2040	53.5800
 1.2050	53.5990
 1.2060	53.6180
 1.2070	53.6370
 1.2080	53.6560
 1.2090	53.6750
 1.2100	53.6960
 1.2110	53.7180
 1.2120	53.7410
 1.2130	53.7640
 1.2140	53.7860
 1.2150	53.8110
 1.2160	53.8360
 1.2170	53.8630
 1.2180	53.8900
 1.2190	53.9140
 1.2200	53.9380
 1.2210	53.9620
 1.2220	53.9880
 1.2230	54.0180
 1.2240	54.0430
 1.2250	54.0640
 1.2260	54.0890
 1.2270	54.1090
 1.2280	54.1330
 1.2290	54.1600
 1.2300	54.1810
 1.2310	54.2030
 1.2320	54.2240
 1.2330	54.2410
 1.2340	54.2600
 1.2350	54.2800
 1.2360	54.2990
 1.2370	54.3160
 1.2380	54.3350
 1.2390	54.3540
 1.2400	54.3710
 1.2410	54.3880
 1.2420	54.4050
 1.2430	54.4210
 1.2440	54.4360
 1.2450	54.4480
 1.2460	54.4620
 1.2470	54.4760
 1.2480	54.4890
 1.2490	54.5040
 1.2500	54.5160
 1.2510	54.5250
 1.2520	54.5330
 1.2530	54.5420
 1.2540	54.5500
 1.2550	54.5570
 1.2560	54.5650
 1.2570	54.5710
 1.2580	54.5770
 1.2590	54.5830
 1.2600	54.5870
 1.2610	54.5900
 1.2620	54.5920
 1.2630	54.5930
 1.2640	54.5900
 1.2650	54.5900
 1.2660	54.5890
 1.2670	54.5860
 1.2680	54.5830
 1.2690	54.5770
 1.2700	54.5700
 1.2710	54.5620
 1.2720	54.5530
 1.2730	54.5430
 1.2740	54.5310
 1.2750	54.5160
 1.2760	54.5020
 1.2770	54.4870
 1.2780	54.4710
 1.2790	54.4570
 1.2800	54.4390
 1.2810	54.4210
 1.2820	54.3990
 1.2830	54.3760
 1.2840	54.3550
 1.2850	54.3330
 1.2860	54.3090
 1.2870	54.2840
 1.2880	54.2580
 1.2890	54.2300
 1.2900	54.2030
 1.2910	54.1760
 1.2920	54.1490
 1.2930	54.1160
 1.2940	54.0810
 1.2950	54.0440
 1.2960	54.0050
 1.2970	53.9640
 1.2980	53.9200
 1.2990	53.8750
 1.3000	53.8260
 1.3010	53.7750
 1.3020	53.7230
 1.3030	53.6660
 1.3040	53.6030
 1.3050	53.5380
 1.3060	53.4700
 1.3070	53.3970
 1.3080	53.3220
 1.3090	53.2450
 1.3100	53.1610
 1.3110	53.0740
 1.3120	52.9840
 1.3130	52.8890
 1.3140	52.7920
 1.3150	52.6930
 1.3160	52.5900
 1.3170	52.4830
 1.3180	52.3720
 1.3190	52.2570
 1.3200	52.1360
 1.3210	52.0100
 1.3220	51.8800
 1.3230	51.7460
 1.3240	51.6050
 1.3250	51.4650
 1.3260	51.3240
 1.3270	51.1800
 1.3280	51.0340
 1.3290	50.8830
 1.3300	50.7300
 1.3310	50.5740
 1.3320	50.4160
 1.3330	50.2590
 1.3340	50.1010
 1.3350	49.9380
 1.3360	49.7750
 1.3370	49.6100
 1.3380	49.4420
 1.3390	49.2760
 1.3400	49.1140
 1.3410	48.9520
 1.3420	48.7920
 1.3430	48.6310
 1.3440	48.4720
 1.3450	48.3150
 1.3460	48.1600
 1.3470	48.0070
 1.3480	47.8570
 1.3490	47.7060
 1.3500	47.5560
 1.3510	47.4060
 1.3520	47.2570
 1.3530	47.1080
 1.3540	46.9600
 1.3550	46.8120
 1.3560	46.6650
 1.3570	46.5160
 1.3580	46.3670
 1.3590	46.2170
 1.3600	46.0620
 1.3610	45.9060
 1.3620	45.7480
 1.3630	45.5850
 1.3640	45.4160
 1.3650	45.2410
 1.3660	45.0600
 1.3670	44.8690
 1.3680	44.6680
 1.3690	44.4560
 1.3700	44.2310
 1.3710	43.9920
 1.3720	43.7410
 1.3730	43.4750
 1.3740	43.1930
 1.3750	42.8920
 1.3760	42.5680
 1.3770	42.2210
 1.3780	41.8500
 1.3790	41.4570
 1.3800	41.0430
 1.3810	40.6020
 1.3820	40.1430
 1.3830	39.6640
 1.3840	39.1660
 1.3850	38.6470
 1.3860	38.1140
 1.3870	37.5600
 1.3880	36.9990
 1.3890	36.4250
 1.3900	35.8410
 1.3910	35.2550
 1.3920	34.6620
 1.3930	34.0650
 1.3940	33.4710
 1.3950	32.8740
 1.3960	32.2850
 1.3970	31.7060
 1.3980	31.1350
 1.3990	30.5850
 1.4000	30.0490
 1.4010	29.5260
 1.4020	29.0260
 1.4030	28.5400
 1.4040	28.0740
 1.4050	27.6300
 1.4060	27.2060
 1.4070	26.8090
 1.4080	26.4330
 1.4090	26.0780
 1.4100	25.7460
 1.4110	25.4340
 1.4120	25.1420
 1.4130	24.8730
 1.4140	24.6200
 1.4150	24.3890
 1.4160	24.1760
 1.4170	23.9780
 1.4180	23.7970
 1.4190	23.6300
 1.4200	23.4760
 1.4210	23.3370
 1.4220	23.2100
 1.4230	23.0950
 1.4240	22.9910
 1.4250	22.8950
 1.4260	22.8110
 1.4270	22.7340
 1.4280	22.6640
 1.4290	22.6030
 1.4300	22.5510
 1.4310	22.5040
 1.4320	22.4680
 1.4330	22.4340
 1.4340	22.4060
 1.4350	22.3830
 1.4360	22.3660
 1.4370	22.3520
 1.4380	22.3430
 1.4390	22.3380
 1.4400	22.3360
 1.4410	22.3390
 1.4420	22.3430
 1.4430	22.3510
 1.4440	22.3610
 1.4450	22.3730
 1.4460	22.3870
 1.4470	22.4030
 1.4480	22.4190
 1.4490	22.4370
 1.4500	22.4570
 1.4510	22.4790
 1.4520	22.5010
 1.4530	22.5250
 1.4540	22.5500
 1.4550	22.5760
 1.4560	22.6050
 1.4570	22.6350
 1.4580	22.6700
 1.4590	22.7050
 1.4600	22.7450
 1.4610	22.7890
 1.4620	22.8360
 1.4630	22.8880
 1.4640	22.9440
 1.4650	23.0020
 1.4660	23.0660
 1.4670	23.1330
 1.4680	23.2070
 1.4690	23.2860
 1.4700	23.3710
