Name: Quercus rubra
Type: Vegetation
Class: Tree
Genus: Quercus
Species: rubra
Sample No.: QURU-3-11
Owner: UCSB
Wavelength Range: VSWIR
Origin: USA; Massachusetts; Harvard Forest
Collection Date: 7/8/2013
Description: Samples were collected as part of NSF Macrosystem Biology proposal titled: Collaborative Research: Thermal controls on ecosystem metabolism and function: scaling from leaves to canopies to regions. Samples were collected and overnighted to JPL facilities for processing. The same leaves were processed in the Nicolet and then measured using the ASD.
Measurement: Bidirectional reflectance
First Column: X
Second Column: Y
X Units: Wavelength (micrometers)
Y Units: Reflectance (percentage)
First X Value: 0.35
Last X Value: 2.5
Number of X Values: 2151
Additional Information: vegetation.tree.quercus.rubra.vswir.quru-3-11.ucsb.asd.ancillary.txt

 0.3500	 6.5690
 0.3510	 6.3350
 0.3520	 6.1220
 0.3530	 6.2100
 0.3540	 6.6010
 0.3550	 6.5790
 0.3560	 6.3890
 0.3570	 6.2180
 0.3580	 6.1840
 0.3590	 6.1080
 0.3600	 6.0270
 0.3610	 5.9990
 0.3620	 6.0940
 0.3630	 6.1090
 0.3640	 6.1330
 0.3650	 6.2430
 0.3660	 6.1880
 0.3670	 6.1070
 0.3680	 6.0840
 0.3690	 6.1410
 0.3700	 6.1340
 0.3710	 6.0570
 0.3720	 5.9830
 0.3730	 6.1040
 0.3740	 6.1210
 0.3750	 6.0350
 0.3760	 5.9700
 0.3770	 6.1310
 0.3780	 6.2460
 0.3790	 6.1810
 0.3800	 5.9650
 0.3810	 5.9970
 0.3820	 6.1090
 0.3830	 6.1420
 0.3840	 6.1900
 0.3850	 6.1480
 0.3860	 6.0960
 0.3870	 6.1380
 0.3880	 6.1180
 0.3890	 6.1310
 0.3900	 6.1770
 0.3910	 6.1470
 0.3920	 6.0950
 0.3930	 6.0650
 0.3940	 6.0850
 0.3950	 6.1680
 0.3960	 6.1420
 0.3970	 6.0840
 0.3980	 6.1510
 0.3990	 6.1570
 0.4000	 6.1830
 0.4010	 6.2300
 0.4020	 6.1670
 0.4030	 6.1420
 0.4040	 6.1700
 0.4050	 6.2140
 0.4060	 6.1860
 0.4070	 6.1870
 0.4080	 6.2090
 0.4090	 6.1850
 0.4100	 6.2070
 0.4110	 6.2200
 0.4120	 6.2060
 0.4130	 6.2420
 0.4140	 6.2620
 0.4150	 6.2900
 0.4160	 6.3500
 0.4170	 6.3290
 0.4180	 6.2950
 0.4190	 6.2980
 0.4200	 6.3580
 0.4210	 6.3590
 0.4220	 6.3470
 0.4230	 6.3730
 0.4240	 6.4070
 0.4250	 6.4340
 0.4260	 6.4500
 0.4270	 6.4600
 0.4280	 6.4890
 0.4290	 6.5140
 0.4300	 6.5280
 0.4310	 6.5450
 0.4320	 6.5490
 0.4330	 6.5490
 0.4340	 6.5570
 0.4350	 6.5740
 0.4360	 6.6010
 0.4370	 6.6340
 0.4380	 6.6660
 0.4390	 6.6620
 0.4400	 6.6730
 0.4410	 6.7210
 0.4420	 6.7350
 0.4430	 6.7440
 0.4440	 6.7540
 0.4450	 6.7650
 0.4460	 6.7890
 0.4470	 6.8250
 0.4480	 6.8610
 0.4490	 6.8710
 0.4500	 6.8750
 0.4510	 6.8820
 0.4520	 6.8970
 0.4530	 6.9240
 0.4540	 6.9390
 0.4550	 6.9480
 0.4560	 6.9750
 0.4570	 6.9720
 0.4580	 6.9660
 0.4590	 6.9760
 0.4600	 6.9910
 0.4610	 7.0060
 0.4620	 7.0130
 0.4630	 7.0070
 0.4640	 7.0090
 0.4650	 7.0230
 0.4660	 7.0340
 0.4670	 7.0150
 0.4680	 7.0150
 0.4690	 7.0220
 0.4700	 7.0220
 0.4710	 7.0420
 0.4720	 7.0400
 0.4730	 7.0300
 0.4740	 7.0430
 0.4750	 7.0320
 0.4760	 7.0290
 0.4770	 7.0480
 0.4780	 7.0560
 0.4790	 7.0420
 0.4800	 7.0310
 0.4810	 7.0470
 0.4820	 7.0570
 0.4830	 7.0610
 0.4840	 7.0640
 0.4850	 7.0790
 0.4860	 7.0830
 0.4870	 7.0960
 0.4880	 7.1270
 0.4890	 7.1300
 0.4900	 7.1430
 0.4910	 7.1670
 0.4920	 7.1900
 0.4930	 7.2120
 0.4940	 7.2410
 0.4950	 7.2760
 0.4960	 7.3040
 0.4970	 7.3420
 0.4980	 7.3810
 0.4990	 7.4130
 0.5000	 7.4550
 0.5010	 7.5040
 0.5020	 7.5590
 0.5030	 7.6180
 0.5040	 7.6780
 0.5050	 7.7440
 0.5060	 7.8160
 0.5070	 7.8870
 0.5080	 7.9740
 0.5090	 8.0710
 0.5100	 8.1640
 0.5110	 8.2770
 0.5120	 8.3990
 0.5130	 8.5250
 0.5140	 8.6480
 0.5150	 8.7940
 0.5160	 8.9560
 0.5170	 9.1200
 0.5180	 9.2860
 0.5190	 9.4610
 0.5200	 9.6470
 0.5210	 9.8440
 0.5220	10.0280
 0.5230	10.2130
 0.5240	10.4050
 0.5250	10.5860
 0.5260	10.7630
 0.5270	10.9310
 0.5280	11.0860
 0.5290	11.2350
 0.5300	11.3770
 0.5310	11.5090
 0.5320	11.6190
 0.5330	11.7230
 0.5340	11.8210
 0.5350	11.9120
 0.5360	11.9840
 0.5370	12.0530
 0.5380	12.1200
 0.5390	12.1700
 0.5400	12.2140
 0.5410	12.2530
 0.5420	12.2910
 0.5430	12.3410
 0.5440	12.3860
 0.5450	12.4280
 0.5460	12.4770
 0.5470	12.5160
 0.5480	12.5530
 0.5490	12.5910
 0.5500	12.6170
 0.5510	12.6360
 0.5520	12.6480
 0.5530	12.6510
 0.5540	12.6420
 0.5550	12.6180
 0.5560	12.5790
 0.5570	12.5260
 0.5580	12.4550
 0.5590	12.3740
 0.5600	12.2890
 0.5610	12.1970
 0.5620	12.0980
 0.5630	11.9930
 0.5640	11.8830
 0.5650	11.7690
 0.5660	11.6510
 0.5670	11.5290
 0.5680	11.4090
 0.5690	11.2810
 0.5700	11.1460
 0.5710	11.0110
 0.5720	10.8930
 0.5730	10.7810
 0.5740	10.6740
 0.5750	10.5780
 0.5760	10.4870
 0.5770	10.4080
 0.5780	10.3410
 0.5790	10.2680
 0.5800	10.2010
 0.5810	10.1390
 0.5820	10.0760
 0.5830	10.0180
 0.5840	 9.9570
 0.5850	 9.8960
 0.5860	 9.8500
 0.5870	 9.8100
 0.5880	 9.7700
 0.5890	 9.7330
 0.5900	 9.7060
 0.5910	 9.6820
 0.5920	 9.6620
 0.5930	 9.6460
 0.5940	 9.6330
 0.5950	 9.6190
 0.5960	 9.6030
 0.5970	 9.5830
 0.5980	 9.5640
 0.5990	 9.5460
 0.6000	 9.5310
 0.6010	 9.5090
 0.6020	 9.4800
 0.6030	 9.4480
 0.6040	 9.4160
 0.6050	 9.3820
 0.6060	 9.3410
 0.6070	 9.2910
 0.6080	 9.2400
 0.6090	 9.1800
 0.6100	 9.1160
 0.6110	 9.0540
 0.6120	 9.0030
 0.6130	 8.9550
 0.6140	 8.9060
 0.6150	 8.8610
 0.6160	 8.8190
 0.6170	 8.7760
 0.6180	 8.7320
 0.6190	 8.6970
 0.6200	 8.6690
 0.6210	 8.6430
 0.6220	 8.6160
 0.6230	 8.5950
 0.6240	 8.5800
 0.6250	 8.5680
 0.6260	 8.5560
 0.6270	 8.5460
 0.6280	 8.5380
 0.6290	 8.5320
 0.6300	 8.5250
 0.6310	 8.5210
 0.6320	 8.5190
 0.6330	 8.5100
 0.6340	 8.5010
 0.6350	 8.4860
 0.6360	 8.4600
 0.6370	 8.4310
 0.6380	 8.4000
 0.6390	 8.3640
 0.6400	 8.3200
 0.6410	 8.2720
 0.6420	 8.2240
 0.6430	 8.1790
 0.6440	 8.1360
 0.6450	 8.0890
 0.6460	 8.0390
 0.6470	 7.9900
 0.6480	 7.9440
 0.6490	 7.9030
 0.6500	 7.8710
 0.6510	 7.8420
 0.6520	 7.8140
 0.6530	 7.7860
 0.6540	 7.7540
 0.6550	 7.7260
 0.6560	 7.6940
 0.6570	 7.6580
 0.6580	 7.6230
 0.6590	 7.5860
 0.6600	 7.5420
 0.6610	 7.4920
 0.6620	 7.4490
 0.6630	 7.4110
 0.6640	 7.3760
 0.6650	 7.3450
 0.6660	 7.3150
 0.6670	 7.2890
 0.6680	 7.2700
 0.6690	 7.2610
 0.6700	 7.2520
 0.6710	 7.2460
 0.6720	 7.2470
 0.6730	 7.2540
 0.6740	 7.2620
 0.6750	 7.2740
 0.6760	 7.2940
 0.6770	 7.3140
 0.6780	 7.3400
 0.6790	 7.3720
 0.6800	 7.4080
 0.6810	 7.4510
 0.6820	 7.5010
 0.6830	 7.5610
 0.6840	 7.6380
 0.6850	 7.7180
 0.6860	 7.8080
 0.6870	 7.9180
 0.6880	 8.0460
 0.6890	 8.1960
 0.6900	 8.3690
 0.6910	 8.5680
 0.6920	 8.8080
 0.6930	 9.0920
 0.6940	 9.4240
 0.6950	 9.8090
 0.6960	10.2510
 0.6970	10.7520
 0.6980	11.3100
 0.6990	11.9220
 0.7000	12.5900
 0.7010	13.3060
 0.7020	14.0570
 0.7030	14.8510
 0.7040	15.6740
 0.7050	16.5150
 0.7060	17.3760
 0.7070	18.2420
 0.7080	19.1190
 0.7090	20.0210
 0.7100	20.9230
 0.7110	21.8310
 0.7120	22.7450
 0.7130	23.6630
 0.7140	24.5800
 0.7150	25.4970
 0.7160	26.4130
 0.7170	27.3300
 0.7180	28.2320
 0.7190	29.1290
 0.7200	30.0320
 0.7210	30.9140
 0.7220	31.7810
 0.7230	32.6350
 0.7240	33.4640
 0.7250	34.2740
 0.7260	35.0610
 0.7270	35.8210
 0.7280	36.5500
 0.7290	37.2540
 0.7300	37.9280
 0.7310	38.5630
 0.7320	39.1750
 0.7330	39.7670
 0.7340	40.3320
 0.7350	40.8590
 0.7360	41.3520
 0.7370	41.8290
 0.7380	42.2900
 0.7390	42.6930
 0.7400	43.0760
 0.7410	43.4450
 0.7420	43.7930
 0.7430	44.1030
 0.7440	44.3950
 0.7450	44.6700
 0.7460	44.9070
 0.7470	45.1340
 0.7480	45.3500
 0.7490	45.5470
 0.7500	45.7250
 0.7510	45.8830
 0.7520	46.0230
 0.7530	46.1520
 0.7540	46.2780
 0.7550	46.3960
 0.7560	46.4990
 0.7570	46.5890
 0.7580	46.6660
 0.7590	46.7340
 0.7600	46.7960
 0.7610	46.8470
 0.7620	46.9000
 0.7630	46.9450
 0.7640	46.9790
 0.7650	47.0300
 0.7660	47.0670
 0.7670	47.0870
 0.7680	47.1040
 0.7690	47.1230
 0.7700	47.1490
 0.7710	47.1760
 0.7720	47.1760
 0.7730	47.1970
 0.7740	47.2230
 0.7750	47.2330
 0.7760	47.2370
 0.7770	47.2560
 0.7780	47.2720
 0.7790	47.2610
 0.7800	47.2770
 0.7810	47.2880
 0.7820	47.2870
 0.7830	47.2930
 0.7840	47.3120
 0.7850	47.3260
 0.7860	47.3240
 0.7870	47.3140
 0.7880	47.3270
 0.7890	47.3430
 0.7900	47.3370
 0.7910	47.3470
 0.7920	47.3510
 0.7930	47.3500
 0.7940	47.3560
 0.7950	47.3590
 0.7960	47.3580
 0.7970	47.3550
 0.7980	47.3490
 0.7990	47.3630
 0.8000	47.3700
 0.8010	47.3530
 0.8020	47.3490
 0.8030	47.3610
 0.8040	47.3710
 0.8050	47.3620
 0.8060	47.3420
 0.8070	47.3450
 0.8080	47.3600
 0.8090	47.3440
 0.8100	47.3320
 0.8110	47.3260
 0.8120	47.3270
 0.8130	47.3370
 0.8140	47.3320
 0.8150	47.3150
 0.8160	47.2960
 0.8170	47.3000
 0.8180	47.3050
 0.8190	47.3030
 0.8200	47.2970
 0.8210	47.2980
 0.8220	47.2980
 0.8230	47.2920
 0.8240	47.2760
 0.8250	47.2680
 0.8260	47.2690
 0.8270	47.2710
 0.8280	47.2640
 0.8290	47.2510
 0.8300	47.2410
 0.8310	47.2390
 0.8320	47.2370
 0.8330	47.2300
 0.8340	47.2280
 0.8350	47.2390
 0.8360	47.2420
 0.8370	47.2230
 0.8380	47.2050
 0.8390	47.2250
 0.8400	47.2330
 0.8410	47.2250
 0.8420	47.2120
 0.8430	47.2200
 0.8440	47.2300
 0.8450	47.2270
 0.8460	47.2110
 0.8470	47.2180
 0.8480	47.2270
 0.8490	47.2320
 0.8500	47.2300
 0.8510	47.2210
 0.8520	47.2240
 0.8530	47.2330
 0.8540	47.2320
 0.8550	47.2290
 0.8560	47.2430
 0.8570	47.2610
 0.8580	47.2430
 0.8590	47.2390
 0.8600	47.2360
 0.8610	47.2320
 0.8620	47.2540
 0.8630	47.2580
 0.8640	47.2600
 0.8650	47.2740
 0.8660	47.2740
 0.8670	47.2630
 0.8680	47.2550
 0.8690	47.2660
 0.8700	47.2790
 0.8710	47.2790
 0.8720	47.2710
 0.8730	47.2690
 0.8740	47.2790
 0.8750	47.2800
 0.8760	47.2780
 0.8770	47.3030
 0.8780	47.3160
 0.8790	47.3100
 0.8800	47.2970
 0.8810	47.3050
 0.8820	47.2940
 0.8830	47.2860
 0.8840	47.2970
 0.8850	47.2980
 0.8860	47.3120
 0.8870	47.3270
 0.8880	47.3230
 0.8890	47.3170
 0.8900	47.3060
 0.8910	47.3030
 0.8920	47.3190
 0.8930	47.3140
 0.8940	47.3010
 0.8950	47.2950
 0.8960	47.3070
 0.8970	47.3230
 0.8980	47.3380
 0.8990	47.3390
 0.9000	47.3100
 0.9010	47.2960
 0.9020	47.2970
 0.9030	47.3090
 0.9040	47.3300
 0.9050	47.3500
 0.9060	47.3420
 0.9070	47.3070
 0.9080	47.3040
 0.9090	47.3160
 0.9100	47.3150
 0.9110	47.2950
 0.9120	47.3070
 0.9130	47.3290
 0.9140	47.3380
 0.9150	47.3260
 0.9160	47.3250
 0.9170	47.3160
 0.9180	47.3090
 0.9190	47.3230
 0.9200	47.3300
 0.9210	47.3170
 0.9220	47.3000
 0.9230	47.3030
 0.9240	47.3070
 0.9250	47.2890
 0.9260	47.2560
 0.9270	47.2350
 0.9280	47.2280
 0.9290	47.2260
 0.9300	47.2170
 0.9310	47.1890
 0.9320	47.1950
 0.9330	47.1950
 0.9340	47.1760
 0.9350	47.1690
 0.9360	47.1430
 0.9370	47.1110
 0.9380	47.0920
 0.9390	47.0940
 0.9400	47.0780
 0.9410	47.0550
 0.9420	47.0380
 0.9430	47.0260
 0.9440	47.0030
 0.9450	46.9720
 0.9460	46.9430
 0.9470	46.9220
 0.9480	46.8750
 0.9490	46.8340
 0.9500	46.8120
 0.9510	46.7280
 0.9520	46.6880
 0.9530	46.6670
 0.9540	46.6220
 0.9550	46.5830
 0.9560	46.5390
 0.9570	46.4870
 0.9580	46.4320
 0.9590	46.3940
 0.9600	46.3640
 0.9610	46.3470
 0.9620	46.3430
 0.9630	46.3180
 0.9640	46.2760
 0.9650	46.2510
 0.9660	46.2610
 0.9670	46.2130
 0.9680	46.1750
 0.9690	46.1690
 0.9700	46.1790
 0.9710	46.1400
 0.9720	46.1240
 0.9730	46.1380
 0.9740	46.1530
 0.9750	46.1420
 0.9760	46.1190
 0.9770	46.1050
 0.9780	46.1150
 0.9790	46.1110
 0.9800	46.0910
 0.9810	46.0670
 0.9820	46.0610
 0.9830	46.0760
 0.9840	46.0980
 0.9850	46.0990
 0.9860	46.0700
 0.9870	46.0980
 0.9880	46.1390
 0.9890	46.1660
 0.9900	46.1660
 0.9910	46.1220
 0.9920	46.1470
 0.9930	46.1720
 0.9940	46.1970
 0.9950	46.2220
 0.9960	46.2460
 0.9970	46.2710
 0.9980	46.2960
 0.9990	46.3210
 1.0000	46.3460
 1.0010	46.3710
 1.0020	46.3960
 1.0030	46.4210
 1.0040	46.4460
 1.0050	46.4710
 1.0060	46.4960
 1.0070	46.5210
 1.0080	46.5460
 1.0090	46.5710
 1.0100	46.5710
 1.0110	46.5820
 1.0120	46.5980
 1.0130	46.6270
 1.0140	46.6420
 1.0150	46.6580
 1.0160	46.6580
 1.0170	46.6620
 1.0180	46.6700
 1.0190	46.6880
 1.0200	46.7050
 1.0210	46.7170
 1.0220	46.7300
 1.0230	46.7420
 1.0240	46.7540
 1.0250	46.7640
 1.0260	46.7710
 1.0270	46.7780
 1.0280	46.7810
 1.0290	46.7870
 1.0300	46.7930
 1.0310	46.8010
 1.0320	46.8140
 1.0330	46.8220
 1.0340	46.8360
 1.0350	46.8560
 1.0360	46.8690
 1.0370	46.8760
 1.0380	46.8810
 1.0390	46.8750
 1.0400	46.8820
 1.0410	46.8970
 1.0420	46.9050
 1.0430	46.9130
 1.0440	46.9220
 1.0450	46.9260
 1.0460	46.9310
 1.0470	46.9360
 1.0480	46.9430
 1.0490	46.9500
 1.0500	46.9560
 1.0510	46.9580
 1.0520	46.9740
 1.0530	46.9790
 1.0540	46.9800
 1.0550	46.9830
 1.0560	46.9880
 1.0570	46.9870
 1.0580	46.9800
 1.0590	46.9810
 1.0600	46.9790
 1.0610	46.9850
 1.0620	47.0060
 1.0630	47.0150
 1.0640	47.0210
 1.0650	47.0260
 1.0660	47.0220
 1.0670	47.0200
 1.0680	47.0170
 1.0690	47.0120
 1.0700	47.0140
 1.0710	47.0150
 1.0720	47.0210
 1.0730	47.0350
 1.0740	47.0410
 1.0750	47.0460
 1.0760	47.0480
 1.0770	47.0480
 1.0780	47.0470
 1.0790	47.0450
 1.0800	47.0400
 1.0810	47.0280
 1.0820	47.0220
 1.0830	47.0170
 1.0840	47.0120
 1.0850	47.0100
 1.0860	47.0130
 1.0870	47.0100
 1.0880	47.0050
 1.0890	47.0010
 1.0900	46.9940
 1.0910	46.9900
 1.0920	46.9870
 1.0930	46.9820
 1.0940	46.9810
 1.0950	46.9710
 1.0960	46.9510
 1.0970	46.9390
 1.0980	46.9290
 1.0990	46.9170
 1.1000	46.9120
 1.1010	46.9010
 1.1020	46.8830
 1.1030	46.8630
 1.1040	46.8490
 1.1050	46.8370
 1.1060	46.8260
 1.1070	46.8230
 1.1080	46.8100
 1.1090	46.7950
 1.1100	46.7750
 1.1110	46.7450
 1.1120	46.7260
 1.1130	46.7120
 1.1140	46.6930
 1.1150	46.6770
 1.1160	46.6580
 1.1170	46.6350
 1.1180	46.6120
 1.1190	46.5900
 1.1200	46.5630
 1.1210	46.5350
 1.1220	46.5070
 1.1230	46.4740
 1.1240	46.4410
 1.1250	46.4040
 1.1260	46.3630
 1.1270	46.3180
 1.1280	46.2690
 1.1290	46.2190
 1.1300	46.1660
 1.1310	46.1080
 1.1320	46.0490
 1.1330	45.9820
 1.1340	45.9040
 1.1350	45.8270
 1.1360	45.7460
 1.1370	45.6670
 1.1380	45.5770
 1.1390	45.4840
 1.1400	45.3880
 1.1410	45.2840
 1.1420	45.1860
 1.1430	45.0910
 1.1440	44.9920
 1.1450	44.8890
 1.1460	44.7920
 1.1470	44.6920
 1.1480	44.5980
 1.1490	44.5080
 1.1500	44.4190
 1.1510	44.3280
 1.1520	44.2460
 1.1530	44.1660
 1.1540	44.0940
 1.1550	44.0270
 1.1560	43.9670
 1.1570	43.9140
 1.1580	43.8660
 1.1590	43.8240
 1.1600	43.7890
 1.1610	43.7580
 1.1620	43.7300
 1.1630	43.7060
 1.1640	43.6810
 1.1650	43.6580
 1.1660	43.6350
 1.1670	43.6140
 1.1680	43.5970
 1.1690	43.5800
 1.1700	43.5620
 1.1710	43.5460
 1.1720	43.5320
 1.1730	43.5170
 1.1740	43.5030
 1.1750	43.4910
 1.1760	43.4780
 1.1770	43.4630
 1.1780	43.4480
 1.1790	43.4360
 1.1800	43.4250
 1.1810	43.4130
 1.1820	43.4020
 1.1830	43.3860
 1.1840	43.3670
 1.1850	43.3540
 1.1860	43.3400
 1.1870	43.3270
 1.1880	43.3150
 1.1890	43.3050
 1.1900	43.2950
 1.1910	43.2840
 1.1920	43.2770
 1.1930	43.2750
 1.1940	43.2700
 1.1950	43.2650
 1.1960	43.2600
 1.1970	43.2560
 1.1980	43.2510
 1.1990	43.2510
 1.2000	43.2540
 1.2010	43.2530
 1.2020	43.2590
 1.2030	43.2620
 1.2040	43.2670
 1.2050	43.2770
 1.2060	43.2810
 1.2070	43.2830
 1.2080	43.2880
 1.2090	43.2950
 1.2100	43.3080
 1.2110	43.3200
 1.2120	43.3380
 1.2130	43.3530
 1.2140	43.3650
 1.2150	43.3800
 1.2160	43.3980
 1.2170	43.4160
 1.2180	43.4340
 1.2190	43.4550
 1.2200	43.4730
 1.2210	43.4910
 1.2220	43.5110
 1.2230	43.5290
 1.2240	43.5490
 1.2250	43.5720
 1.2260	43.5910
 1.2270	43.6100
 1.2280	43.6290
 1.2290	43.6460
 1.2300	43.6670
 1.2310	43.6870
 1.2320	43.7030
 1.2330	43.7200
 1.2340	43.7340
 1.2350	43.7450
 1.2360	43.7580
 1.2370	43.7720
 1.2380	43.7830
 1.2390	43.7950
 1.2400	43.8070
 1.2410	43.8180
 1.2420	43.8340
 1.2430	43.8560
 1.2440	43.8730
 1.2450	43.8870
 1.2460	43.9010
 1.2470	43.9050
 1.2480	43.9100
 1.2490	43.9200
 1.2500	43.9260
 1.2510	43.9300
 1.2520	43.9370
 1.2530	43.9430
 1.2540	43.9460
 1.2550	43.9540
 1.2560	43.9590
 1.2570	43.9660
 1.2580	43.9730
 1.2590	43.9780
 1.2600	43.9840
 1.2610	43.9850
 1.2620	43.9830
 1.2630	43.9790
 1.2640	43.9760
 1.2650	43.9680
 1.2660	43.9620
 1.2670	43.9610
 1.2680	43.9560
 1.2690	43.9510
 1.2700	43.9460
 1.2710	43.9370
 1.2720	43.9360
 1.2730	43.9320
 1.2740	43.9240
 1.2750	43.9150
 1.2760	43.8960
 1.2770	43.8790
 1.2780	43.8670
 1.2790	43.8560
 1.2800	43.8400
 1.2810	43.8230
 1.2820	43.8090
 1.2830	43.7980
 1.2840	43.7890
 1.2850	43.7810
 1.2860	43.7710
 1.2870	43.7570
 1.2880	43.7360
 1.2890	43.7190
 1.2900	43.7020
 1.2910	43.6800
 1.2920	43.6600
 1.2930	43.6360
 1.2940	43.6060
 1.2950	43.5800
 1.2960	43.5510
 1.2970	43.5160
 1.2980	43.4830
 1.2990	43.4480
 1.3000	43.4090
 1.3010	43.3730
 1.3020	43.3340
 1.3030	43.2960
 1.3040	43.2560
 1.3050	43.2150
 1.3060	43.1700
 1.3070	43.1160
 1.3080	43.0640
 1.3090	43.0100
 1.3100	42.9500
 1.3110	42.8920
 1.3120	42.8290
 1.3130	42.7610
 1.3140	42.6900
 1.3150	42.6190
 1.3160	42.5430
 1.3170	42.4620
 1.3180	42.3800
 1.3190	42.2970
 1.3200	42.2100
 1.3210	42.1210
 1.3220	42.0310
 1.3230	41.9360
 1.3240	41.8420
 1.3250	41.7500
 1.3260	41.6530
 1.3270	41.5540
 1.3280	41.4510
 1.3290	41.3430
 1.3300	41.2320
 1.3310	41.1220
 1.3320	41.0110
 1.3330	40.9000
 1.3340	40.7890
 1.3350	40.6750
 1.3360	40.5600
 1.3370	40.4440
 1.3380	40.3260
 1.3390	40.2060
 1.3400	40.0900
 1.3410	39.9760
 1.3420	39.8650
 1.3430	39.7560
 1.3440	39.6460
 1.3450	39.5340
 1.3460	39.4200
 1.3470	39.3090
 1.3480	39.1970
 1.3490	39.0890
 1.3500	38.9820
 1.3510	38.8760
 1.3520	38.7720
 1.3530	38.6670
 1.3540	38.5620
 1.3550	38.4610
 1.3560	38.3600
 1.3570	38.2570
 1.3580	38.1540
 1.3590	38.0470
 1.3600	37.9360
 1.3610	37.8230
 1.3620	37.7050
 1.3630	37.5790
 1.3640	37.4470
 1.3650	37.3070
 1.3660	37.1610
 1.3670	37.0080
 1.3680	36.8440
 1.3690	36.6690
 1.3700	36.4830
 1.3710	36.2880
 1.3720	36.0820
 1.3730	35.8650
 1.3740	35.6360
 1.3750	35.3920
 1.3760	35.1330
 1.3770	34.8520
 1.3780	34.5440
 1.3790	34.2190
 1.3800	33.8720
 1.3810	33.5020
 1.3820	33.1140
 1.3830	32.7080
 1.3840	32.2790
 1.3850	31.8280
 1.3860	31.3650
 1.3870	30.8810
 1.3880	30.3910
 1.3890	29.8900
 1.3900	29.3750
 1.3910	28.8610
 1.3920	28.3390
 1.3930	27.8090
 1.3940	27.2780
 1.3950	26.7420
 1.3960	26.2090
 1.3970	25.6860
 1.3980	25.1730
 1.3990	24.6750
 1.4000	24.1870
 1.4010	23.7100
 1.4020	23.2510
 1.4030	22.8060
 1.4040	22.3800
 1.4050	21.9750
 1.4060	21.5870
 1.4070	21.2210
 1.4080	20.8750
 1.4090	20.5490
 1.4100	20.2450
 1.4110	19.9580
 1.4120	19.6910
 1.4130	19.4430
 1.4140	19.2100
 1.4150	18.9980
 1.4160	18.8010
 1.4170	18.6180
 1.4180	18.4520
 1.4190	18.2950
 1.4200	18.1520
 1.4210	18.0220
 1.4220	17.9020
 1.4230	17.7950
 1.4240	17.6970
 1.4250	17.6080
 1.4260	17.5280
 1.4270	17.4560
 1.4280	17.3930
 1.4290	17.3370
 1.4300	17.2880
 1.4310	17.2430
 1.4320	17.2040
 1.4330	17.1690
 1.4340	17.1400
 1.4350	17.1150
 1.4360	17.0960
 1.4370	17.0820
 1.4380	17.0710
 1.4390	17.0620
 1.4400	17.0590
 1.4410	17.0580
 1.4420	17.0590
 1.4430	17.0650
 1.4440	17.0710
 1.4450	17.0780
 1.4460	17.0890
 1.4470	17.1000
 1.4480	17.1100
 1.4490	17.1240
 1.4500	17.1410
 1.4510	17.1590
 1.4520	17.1780
 1.4530	17.1970
 1.4540	17.2170
 1.4550	17.2420
 1.4560	17.2710
 1.4570	17.3010
 1.4580	17.3340
 1.4590	17.3670
 1.4600	17.4020
 1.4610	17.4430
 1.4620	17.4880
 1.4630	17.5370
 1.4640	17.5920
 1.4650	17.6530
 1.4660	17.7170
 1.4670	17.7860
 1.4680	17.8610
 1.4690	17.9380
 1.4700	18.0210
 1.4710	18.1100
 1.4720	18.2030
 1.4730	18.2980
