Name: Quercus robur
Type: vegetation
Class: Tree
Genus: Quercus
Species: robur
Sample No.: JPL178
Owner: JPL
Wavelength Range: VSWIR
Origin: 34.12873; -118.11324; WGS84
Collection Date: 10/3/2016
Description: Samples were collected at the Huntington Garden in San Marino California as part of a JPL Subcontract studying HyTES imagery. Samples were taken to JPL and processed within 48 hours of collection. The same leaves were processed in the Nicolet and then measured using the ASD.
Measurement: Bidirectional reflectance
First Column: X
Second Column: Y
X Units: Wavelength (micrometer)
Y Units: Reflectance (percentage)
First X Value: 0.35
Last X Value: 2.5
Number of X Values: 2151
Additional Information: vegetation.tree.quercus.robur.vswir.jpl178.jpl.asd.ancillary.txt

 0.3500	 4.6280
 0.3510	 4.5670
 0.3520	 4.6200
 0.3530	 4.6560
 0.3540	 4.5790
 0.3550	 4.5110
 0.3560	 4.5100
 0.3570	 4.5250
 0.3580	 4.4720
 0.3590	 4.4200
 0.3600	 4.4130
 0.3610	 4.4160
 0.3620	 4.2870
 0.3630	 4.3060
 0.3640	 4.3880
 0.3650	 4.3970
 0.3660	 4.4000
 0.3670	 4.3900
 0.3680	 4.3510
 0.3690	 4.2710
 0.3700	 4.2970
 0.3710	 4.3510
 0.3720	 4.3570
 0.3730	 4.3030
 0.3740	 4.2810
 0.3750	 4.2930
 0.3760	 4.3100
 0.3770	 4.3320
 0.3780	 4.3260
 0.3790	 4.3030
 0.3800	 4.3130
 0.3810	 4.3040
 0.3820	 4.3020
 0.3830	 4.3210
 0.3840	 4.3190
 0.3850	 4.3680
 0.3860	 4.4090
 0.3870	 4.3620
 0.3880	 4.3360
 0.3890	 4.3330
 0.3900	 4.3380
 0.3910	 4.3290
 0.3920	 4.3780
 0.3930	 4.4180
 0.3940	 4.3980
 0.3950	 4.3730
 0.3960	 4.3850
 0.3970	 4.4010
 0.3980	 4.3690
 0.3990	 4.4110
 0.4000	 4.4480
 0.4010	 4.4480
 0.4020	 4.4620
 0.4030	 4.4690
 0.4040	 4.4760
 0.4050	 4.4920
 0.4060	 4.5150
 0.4070	 4.5350
 0.4080	 4.5540
 0.4090	 4.5840
 0.4100	 4.6020
 0.4110	 4.6110
 0.4120	 4.6170
 0.4130	 4.6240
 0.4140	 4.6270
 0.4150	 4.6360
 0.4160	 4.6590
 0.4170	 4.6920
 0.4180	 4.7100
 0.4190	 4.7100
 0.4200	 4.7050
 0.4210	 4.7280
 0.4220	 4.7510
 0.4230	 4.7520
 0.4240	 4.7450
 0.4250	 4.7560
 0.4260	 4.7730
 0.4270	 4.7740
 0.4280	 4.7900
 0.4290	 4.8030
 0.4300	 4.8040
 0.4310	 4.7980
 0.4320	 4.8110
 0.4330	 4.8270
 0.4340	 4.8270
 0.4350	 4.8230
 0.4360	 4.8230
 0.4370	 4.8310
 0.4380	 4.8460
 0.4390	 4.8480
 0.4400	 4.8450
 0.4410	 4.8470
 0.4420	 4.8570
 0.4430	 4.8600
 0.4440	 4.8630
 0.4450	 4.8770
 0.4460	 4.8790
 0.4470	 4.8840
 0.4480	 4.8950
 0.4490	 4.8990
 0.4500	 4.9010
 0.4510	 4.9040
 0.4520	 4.9100
 0.4530	 4.9170
 0.4540	 4.9190
 0.4550	 4.9180
 0.4560	 4.9220
 0.4570	 4.9240
 0.4580	 4.9230
 0.4590	 4.9210
 0.4600	 4.9280
 0.4610	 4.9310
 0.4620	 4.9290
 0.4630	 4.9310
 0.4640	 4.9400
 0.4650	 4.9400
 0.4660	 4.9320
 0.4670	 4.9330
 0.4680	 4.9390
 0.4690	 4.9410
 0.4700	 4.9360
 0.4710	 4.9360
 0.4720	 4.9340
 0.4730	 4.9320
 0.4740	 4.9340
 0.4750	 4.9380
 0.4760	 4.9400
 0.4770	 4.9400
 0.4780	 4.9410
 0.4790	 4.9420
 0.4800	 4.9420
 0.4810	 4.9420
 0.4820	 4.9420
 0.4830	 4.9430
 0.4840	 4.9460
 0.4850	 4.9560
 0.4860	 4.9590
 0.4870	 4.9590
 0.4880	 4.9640
 0.4890	 4.9740
 0.4900	 4.9830
 0.4910	 4.9900
 0.4920	 4.9980
 0.4930	 5.0040
 0.4940	 5.0120
 0.4950	 5.0250
 0.4960	 5.0430
 0.4970	 5.0630
 0.4980	 5.0830
 0.4990	 5.0990
 0.5000	 5.1190
 0.5010	 5.1460
 0.5020	 5.1810
 0.5030	 5.2190
 0.5040	 5.2610
 0.5050	 5.3030
 0.5060	 5.3480
 0.5070	 5.4080
 0.5080	 5.4780
 0.5090	 5.5540
 0.5100	 5.6320
 0.5110	 5.7180
 0.5120	 5.8180
 0.5130	 5.9300
 0.5140	 6.0530
 0.5150	 6.1890
 0.5160	 6.3340
 0.5170	 6.4890
 0.5180	 6.6550
 0.5190	 6.8310
 0.5200	 7.0150
 0.5210	 7.2050
 0.5220	 7.3960
 0.5230	 7.5890
 0.5240	 7.7810
 0.5250	 7.9750
 0.5260	 8.1580
 0.5270	 8.3320
 0.5280	 8.5000
 0.5290	 8.6570
 0.5300	 8.8040
 0.5310	 8.9410
 0.5320	 9.0670
 0.5330	 9.1790
 0.5340	 9.2800
 0.5350	 9.3740
 0.5360	 9.4550
 0.5370	 9.5290
 0.5380	 9.5980
 0.5390	 9.6610
 0.5400	 9.7220
 0.5410	 9.7800
 0.5420	 9.8340
 0.5430	 9.8860
 0.5440	 9.9320
 0.5450	 9.9700
 0.5460	10.0030
 0.5470	10.0280
 0.5480	10.0500
 0.5490	10.0720
 0.5500	10.0930
 0.5510	10.1080
 0.5520	10.1150
 0.5530	10.1090
 0.5540	10.0920
 0.5550	10.0600
 0.5560	10.0130
 0.5570	 9.9510
 0.5580	 9.8810
 0.5590	 9.8000
 0.5600	 9.7090
 0.5610	 9.6150
 0.5620	 9.5130
 0.5630	 9.4050
 0.5640	 9.2970
 0.5650	 9.1810
 0.5660	 9.0620
 0.5670	 8.9430
 0.5680	 8.8220
 0.5690	 8.6980
 0.5700	 8.5710
 0.5710	 8.4430
 0.5720	 8.3210
 0.5730	 8.2030
 0.5740	 8.0910
 0.5750	 7.9870
 0.5760	 7.8860
 0.5770	 7.7910
 0.5780	 7.7050
 0.5790	 7.6280
 0.5800	 7.5580
 0.5810	 7.4910
 0.5820	 7.4250
 0.5830	 7.3690
 0.5840	 7.3140
 0.5850	 7.2590
 0.5860	 7.2080
 0.5870	 7.1620
 0.5880	 7.1180
 0.5890	 7.0770
 0.5900	 7.0440
 0.5910	 7.0130
 0.5920	 6.9840
 0.5930	 6.9570
 0.5940	 6.9330
 0.5950	 6.9110
 0.5960	 6.8930
 0.5970	 6.8760
 0.5980	 6.8570
 0.5990	 6.8370
 0.6000	 6.8140
 0.6010	 6.7890
 0.6020	 6.7600
 0.6030	 6.7270
 0.6040	 6.6930
 0.6050	 6.6530
 0.6060	 6.6100
 0.6070	 6.5670
 0.6080	 6.5180
 0.6090	 6.4690
 0.6100	 6.4200
 0.6110	 6.3690
 0.6120	 6.3190
 0.6130	 6.2640
 0.6140	 6.2090
 0.6150	 6.1600
 0.6160	 6.1110
 0.6170	 6.0670
 0.6180	 6.0290
 0.6190	 5.9950
 0.6200	 5.9650
 0.6210	 5.9370
 0.6220	 5.9140
 0.6230	 5.8910
 0.6240	 5.8720
 0.6250	 5.8590
 0.6260	 5.8460
 0.6270	 5.8360
 0.6280	 5.8280
 0.6290	 5.8200
 0.6300	 5.8150
 0.6310	 5.8110
 0.6320	 5.8050
 0.6330	 5.7960
 0.6340	 5.7830
 0.6350	 5.7650
 0.6360	 5.7400
 0.6370	 5.7090
 0.6380	 5.6770
 0.6390	 5.6420
 0.6400	 5.6010
 0.6410	 5.5590
 0.6420	 5.5170
 0.6430	 5.4770
 0.6440	 5.4350
 0.6450	 5.3930
 0.6460	 5.3540
 0.6470	 5.3210
 0.6480	 5.2920
 0.6490	 5.2670
 0.6500	 5.2460
 0.6510	 5.2270
 0.6520	 5.2100
 0.6530	 5.1960
 0.6540	 5.1840
 0.6550	 5.1710
 0.6560	 5.1580
 0.6570	 5.1430
 0.6580	 5.1230
 0.6590	 5.1070
 0.6600	 5.0900
 0.6610	 5.0720
 0.6620	 5.0580
 0.6630	 5.0450
 0.6640	 5.0360
 0.6650	 5.0290
 0.6660	 5.0270
 0.6670	 5.0290
 0.6680	 5.0330
 0.6690	 5.0400
 0.6700	 5.0520
 0.6710	 5.0690
 0.6720	 5.0890
 0.6730	 5.1110
 0.6740	 5.1360
 0.6750	 5.1650
 0.6760	 5.1970
 0.6770	 5.2320
 0.6780	 5.2720
 0.6790	 5.3150
 0.6800	 5.3590
 0.6810	 5.4100
 0.6820	 5.4630
 0.6830	 5.5160
 0.6840	 5.5700
 0.6850	 5.6260
 0.6860	 5.6870
 0.6870	 5.7540
 0.6880	 5.8320
 0.6890	 5.9290
 0.6900	 6.0550
 0.6910	 6.2200
 0.6920	 6.4320
 0.6930	 6.7000
 0.6940	 7.0310
 0.6950	 7.4310
 0.6960	 7.9040
 0.6970	 8.4450
 0.6980	 9.0480
 0.6990	 9.7100
 0.7000	10.4250
 0.7010	11.1850
 0.7020	11.9790
 0.7030	12.7990
 0.7040	13.6390
 0.7050	14.4910
 0.7060	15.3500
 0.7070	16.2170
 0.7080	17.0870
 0.7090	17.9610
 0.7100	18.8360
 0.7110	19.7140
 0.7120	20.5930
 0.7130	21.4700
 0.7140	22.3460
 0.7150	23.2210
 0.7160	24.0930
 0.7170	24.9590
 0.7180	25.8180
 0.7190	26.6690
 0.7200	27.5090
 0.7210	28.3330
 0.7220	29.1440
 0.7230	29.9370
 0.7240	30.7090
 0.7250	31.4600
 0.7260	32.1870
 0.7270	32.8880
 0.7280	33.5630
 0.7290	34.2110
 0.7300	34.8320
 0.7310	35.4240
 0.7320	35.9890
 0.7330	36.5250
 0.7340	37.0310
 0.7350	37.5100
 0.7360	37.9630
 0.7370	38.3880
 0.7380	38.7860
 0.7390	39.1600
 0.7400	39.5080
 0.7410	39.8300
 0.7420	40.1290
 0.7430	40.4050
 0.7440	40.6580
 0.7450	40.8900
 0.7460	41.1020
 0.7470	41.2930
 0.7480	41.4680
 0.7490	41.6270
 0.7500	41.7700
 0.7510	41.9020
 0.7520	42.0200
 0.7530	42.1230
 0.7540	42.2150
 0.7550	42.2990
 0.7560	42.3760
 0.7570	42.4420
 0.7580	42.5010
 0.7590	42.5570
 0.7600	42.6080
 0.7610	42.6510
 0.7620	42.6890
 0.7630	42.7230
 0.7640	42.7560
 0.7650	42.7810
 0.7660	42.8010
 0.7670	42.8180
 0.7680	42.8370
 0.7690	42.8530
 0.7700	42.8630
 0.7710	42.8700
 0.7720	42.8820
 0.7730	42.8920
 0.7740	42.9010
 0.7750	42.9090
 0.7760	42.9160
 0.7770	42.9220
 0.7780	42.9280
 0.7790	42.9350
 0.7800	42.9380
 0.7810	42.9450
 0.7820	42.9530
 0.7830	42.9590
 0.7840	42.9630
 0.7850	42.9670
 0.7860	42.9690
 0.7870	42.9690
 0.7880	42.9710
 0.7890	42.9750
 0.7900	42.9760
 0.7910	42.9760
 0.7920	42.9760
 0.7930	42.9780
 0.7940	42.9790
 0.7950	42.9780
 0.7960	42.9750
 0.7970	42.9690
 0.7980	42.9650
 0.7990	42.9620
 0.8000	42.9560
 0.8010	42.9490
 0.8020	42.9430
 0.8030	42.9380
 0.8040	42.9320
 0.8050	42.9250
 0.8060	42.9150
 0.8070	42.9060
 0.8080	42.8990
 0.8090	42.8890
 0.8100	42.8790
 0.8110	42.8670
 0.8120	42.8550
 0.8130	42.8440
 0.8140	42.8320
 0.8150	42.8190
 0.8160	42.8070
 0.8170	42.7970
 0.8180	42.7860
 0.8190	42.7740
 0.8200	42.7630
 0.8210	42.7480
 0.8220	42.7330
 0.8230	42.7190
 0.8240	42.7060
 0.8250	42.6940
 0.8260	42.6820
 0.8270	42.6700
 0.8280	42.6570
 0.8290	42.6450
 0.8300	42.6320
 0.8310	42.6170
 0.8320	42.6060
 0.8330	42.5930
 0.8340	42.5790
 0.8350	42.5680
 0.8360	42.5610
 0.8370	42.5520
 0.8380	42.5410
 0.8390	42.5340
 0.8400	42.5250
 0.8410	42.5180
 0.8420	42.5140
 0.8430	42.5080
 0.8440	42.5020
 0.8450	42.4970
 0.8460	42.4920
 0.8470	42.4850
 0.8480	42.4780
 0.8490	42.4730
 0.8500	42.4700
 0.8510	42.4670
 0.8520	42.4650
 0.8530	42.4610
 0.8540	42.4580
 0.8550	42.4570
 0.8560	42.4570
 0.8570	42.4560
 0.8580	42.4530
 0.8590	42.4530
 0.8600	42.4560
 0.8610	42.4610
 0.8620	42.4610
 0.8630	42.4610
 0.8640	42.4640
 0.8650	42.4700
 0.8660	42.4680
 0.8670	42.4710
 0.8680	42.4760
 0.8690	42.4770
 0.8700	42.4810
 0.8710	42.4850
 0.8720	42.4890
 0.8730	42.4970
 0.8740	42.5030
 0.8750	42.5100
 0.8760	42.5180
 0.8770	42.5240
 0.8780	42.5310
 0.8790	42.5370
 0.8800	42.5420
 0.8810	42.5480
 0.8820	42.5520
 0.8830	42.5560
 0.8840	42.5630
 0.8850	42.5720
 0.8860	42.5790
 0.8870	42.5860
 0.8880	42.5940
 0.8890	42.5990
 0.8900	42.6020
 0.8910	42.6040
 0.8920	42.6110
 0.8930	42.6160
 0.8940	42.6220
 0.8950	42.6310
 0.8960	42.6430
 0.8970	42.6460
 0.8980	42.6490
 0.8990	42.6550
 0.9000	42.6630
 0.9010	42.6710
 0.9020	42.6740
 0.9030	42.6740
 0.9040	42.6830
 0.9050	42.6900
 0.9060	42.6950
 0.9070	42.6990
 0.9080	42.6980
 0.9090	42.7050
 0.9100	42.7120
 0.9110	42.7110
 0.9120	42.7130
 0.9130	42.7150
 0.9140	42.7190
 0.9150	42.7240
 0.9160	42.7190
 0.9170	42.7220
 0.9180	42.7260
 0.9190	42.7210
 0.9200	42.7180
 0.9210	42.7200
 0.9220	42.7210
 0.9230	42.7170
 0.9240	42.7120
 0.9250	42.7020
 0.9260	42.6920
 0.9270	42.6950
 0.9280	42.6860
 0.9290	42.6750
 0.9300	42.6690
 0.9310	42.6600
 0.9320	42.6500
 0.9330	42.6410
 0.9340	42.6310
 0.9350	42.6140
 0.9360	42.6000
 0.9370	42.5870
 0.9380	42.5720
 0.9390	42.5540
 0.9400	42.5480
 0.9410	42.5400
 0.9420	42.5190
 0.9430	42.4960
 0.9440	42.4680
 0.9450	42.4470
 0.9460	42.4320
 0.9470	42.4000
 0.9480	42.3730
 0.9490	42.3500
 0.9500	42.3250
 0.9510	42.2880
 0.9520	42.2620
 0.9530	42.2330
 0.9540	42.1890
 0.9550	42.1620
 0.9560	42.1280
 0.9570	42.0890
 0.9580	42.0530
 0.9590	42.0220
 0.9600	41.9970
 0.9610	41.9730
 0.9620	41.9440
 0.9630	41.9220
 0.9640	41.9010
 0.9650	41.8780
 0.9660	41.8570
 0.9670	41.8510
 0.9680	41.8310
 0.9690	41.8040
 0.9700	41.7880
 0.9710	41.7770
 0.9720	41.7700
 0.9730	41.7610
 0.9740	41.7450
 0.9750	41.7410
 0.9760	41.7400
 0.9770	41.7360
 0.9780	41.7260
 0.9790	41.7100
 0.9800	41.7040
 0.9810	41.7050
 0.9820	41.7020
 0.9830	41.6900
 0.9840	41.6850
 0.9850	41.6880
 0.9860	41.6930
 0.9870	41.6940
 0.9880	41.6900
 0.9890	41.6840
 0.9900	41.6790
 0.9910	41.6720
 0.9920	41.6750
 0.9930	41.6830
 0.9940	41.6830
 0.9950	41.6870
 0.9960	41.6960
 0.9970	41.7020
 0.9980	41.6970
 0.9990	41.6940
 1.0000	41.7020
 1.0010	42.6030
 1.0020	42.6070
 1.0030	42.6100
 1.0040	42.6130
 1.0050	42.6160
 1.0060	42.6250
 1.0070	42.6350
 1.0080	42.6410
 1.0090	42.6470
 1.0100	42.6530
 1.0110	42.6520
 1.0120	42.6580
 1.0130	42.6720
 1.0140	42.6780
 1.0150	42.6810
 1.0160	42.6870
 1.0170	42.6880
 1.0180	42.6920
 1.0190	42.7020
 1.0200	42.7080
 1.0210	42.7160
 1.0220	42.7190
 1.0230	42.7250
 1.0240	42.7290
 1.0250	42.7350
 1.0260	42.7410
 1.0270	42.7480
 1.0280	42.7580
 1.0290	42.7660
 1.0300	42.7750
 1.0310	42.7840
 1.0320	42.7940
 1.0330	42.8020
 1.0340	42.8080
 1.0350	42.8150
 1.0360	42.8190
 1.0370	42.8240
 1.0380	42.8300
 1.0390	42.8340
 1.0400	42.8410
 1.0410	42.8520
 1.0420	42.8570
 1.0430	42.8630
 1.0440	42.8670
 1.0450	42.8660
 1.0460	42.8690
 1.0470	42.8740
 1.0480	42.8800
 1.0490	42.8890
 1.0500	42.8950
 1.0510	42.9040
 1.0520	42.9070
 1.0530	42.9110
 1.0540	42.9140
 1.0550	42.9160
 1.0560	42.9180
 1.0570	42.9200
 1.0580	42.9210
 1.0590	42.9230
 1.0600	42.9260
 1.0610	42.9280
 1.0620	42.9320
 1.0630	42.9330
 1.0640	42.9310
 1.0650	42.9290
 1.0660	42.9260
 1.0670	42.9230
 1.0680	42.9210
 1.0690	42.9190
 1.0700	42.9160
 1.0710	42.9120
 1.0720	42.9100
 1.0730	42.9070
 1.0740	42.9060
 1.0750	42.9080
 1.0760	42.9040
 1.0770	42.8980
 1.0780	42.8940
 1.0790	42.8860
 1.0800	42.8810
 1.0810	42.8810
 1.0820	42.8780
 1.0830	42.8770
 1.0840	42.8730
 1.0850	42.8660
 1.0860	42.8580
 1.0870	42.8530
 1.0880	42.8490
 1.0890	42.8430
 1.0900	42.8380
 1.0910	42.8320
 1.0920	42.8240
 1.0930	42.8180
 1.0940	42.8150
 1.0950	42.8100
 1.0960	42.8050
 1.0970	42.7990
 1.0980	42.7910
 1.0990	42.7850
 1.1000	42.7800
 1.1010	42.7740
 1.1020	42.7670
 1.1030	42.7600
 1.1040	42.7530
 1.1050	42.7440
 1.1060	42.7370
 1.1070	42.7320
 1.1080	42.7260
 1.1090	42.7200
 1.1100	42.7120
 1.1110	42.7030
 1.1120	42.6950
 1.1130	42.6880
 1.1140	42.6800
 1.1150	42.6740
 1.1160	42.6640
 1.1170	42.6510
 1.1180	42.6380
 1.1190	42.6230
 1.1200	42.6060
 1.1210	42.5930
 1.1220	42.5770
 1.1230	42.5550
 1.1240	42.5340
 1.1250	42.5110
 1.1260	42.4870
 1.1270	42.4610
 1.1280	42.4370
 1.1290	42.4050
 1.1300	42.3680
 1.1310	42.3280
 1.1320	42.2850
 1.1330	42.2370
 1.1340	42.1850
 1.1350	42.1310
 1.1360	42.0730
 1.1370	42.0110
 1.1380	41.9480
 1.1390	41.8850
 1.1400	41.8140
 1.1410	41.7420
 1.1420	41.6690
 1.1430	41.5920
 1.1440	41.5160
 1.1450	41.4400
 1.1460	41.3650
 1.1470	41.2900
 1.1480	41.2160
 1.1490	41.1420
 1.1500	41.0740
 1.1510	41.0080
 1.1520	40.9460
 1.1530	40.8890
 1.1540	40.8340
 1.1550	40.7820
 1.1560	40.7340
 1.1570	40.6890
 1.1580	40.6490
 1.1590	40.6100
 1.1600	40.5770
 1.1610	40.5460
 1.1620	40.5190
 1.1630	40.4930
 1.1640	40.4690
 1.1650	40.4470
 1.1660	40.4270
 1.1670	40.4070
 1.1680	40.3890
 1.1690	40.3710
 1.1700	40.3530
 1.1710	40.3380
 1.1720	40.3260
 1.1730	40.3120
 1.1740	40.3000
 1.1750	40.2860
 1.1760	40.2700
 1.1770	40.2540
 1.1780	40.2370
 1.1790	40.2210
 1.1800	40.2050
 1.1810	40.1900
 1.1820	40.1740
 1.1830	40.1580
 1.1840	40.1430
 1.1850	40.1270
 1.1860	40.1110
 1.1870	40.0970
 1.1880	40.0830
 1.1890	40.0690
 1.1900	40.0570
 1.1910	40.0460
 1.1920	40.0360
 1.1930	40.0290
 1.1940	40.0200
 1.1950	40.0110
 1.1960	40.0040
 1.1970	39.9970
 1.1980	39.9900
 1.1990	39.9880
 1.2000	39.9880
 1.2010	39.9880
 1.2020	39.9880
 1.2030	39.9880
 1.2040	39.9890
 1.2050	39.9910
 1.2060	39.9940
 1.2070	39.9980
 1.2080	40.0030
 1.2090	40.0060
 1.2100	40.0130
 1.2110	40.0200
 1.2120	40.0290
 1.2130	40.0390
 1.2140	40.0510
 1.2150	40.0630
 1.2160	40.0740
 1.2170	40.0880
 1.2180	40.1020
 1.2190	40.1160
 1.2200	40.1310
 1.2210	40.1460
 1.2220	40.1580
 1.2230	40.1730
 1.2240	40.1870
 1.2250	40.2030
 1.2260	40.2200
 1.2270	40.2340
 1.2280	40.2480
 1.2290	40.2620
 1.2300	40.2740
 1.2310	40.2880
 1.2320	40.3010
 1.2330	40.3120
 1.2340	40.3240
 1.2350	40.3340
 1.2360	40.3420
 1.2370	40.3500
 1.2380	40.3580
 1.2390	40.3660
 1.2400	40.3730
 1.2410	40.3810
 1.2420	40.3900
 1.2430	40.3970
 1.2440	40.4050
 1.2450	40.4110
 1.2460	40.4190
 1.2470	40.4250
 1.2480	40.4310
 1.2490	40.4370
 1.2500	40.4420
 1.2510	40.4460
 1.2520	40.4500
 1.2530	40.4530
 1.2540	40.4560
 1.2550	40.4570
 1.2560	40.4590
 1.2570	40.4600
 1.2580	40.4600
 1.2590	40.4600
 1.2600	40.4610
 1.2610	40.4600
 1.2620	40.4590
 1.2630	40.4590
 1.2640	40.4570
 1.2650	40.4550
 1.2660	40.4540
 1.2670	40.4510
 1.2680	40.4460
 1.2690	40.4410
 1.2700	40.4350
 1.2710	40.4310
 1.2720	40.4270
 1.2730	40.4230
 1.2740	40.4180
 1.2750	40.4100
 1.2760	40.4020
 1.2770	40.3950
 1.2780	40.3880
 1.2790	40.3790
 1.2800	40.3690
 1.2810	40.3580
 1.2820	40.3460
 1.2830	40.3350
 1.2840	40.3240
 1.2850	40.3100
 1.2860	40.2930
 1.2870	40.2740
 1.2880	40.2530
 1.2890	40.2320
 1.2900	40.2090
 1.2910	40.1850
 1.2920	40.1630
 1.2930	40.1390
 1.2940	40.1130
 1.2950	40.0860
 1.2960	40.0560
 1.2970	40.0230
 1.2980	39.9900
 1.2990	39.9570
 1.3000	39.9210
 1.3010	39.8840
 1.3020	39.8450
 1.3030	39.8030
 1.3040	39.7590
 1.3050	39.7150
 1.3060	39.6700
 1.3070	39.6250
 1.3080	39.5780
 1.3090	39.5320
 1.3100	39.4850
 1.3110	39.4360
 1.3120	39.3860
 1.3130	39.3340
 1.3140	39.2800
 1.3150	39.2230
 1.3160	39.1660
 1.3170	39.1080
 1.3180	39.0480
 1.3190	38.9870
 1.3200	38.9250
 1.3210	38.8610
 1.3220	38.7960
 1.3230	38.7280
 1.3240	38.6620
 1.3250	38.5940
 1.3260	38.5240
 1.3270	38.4520
 1.3280	38.3770
 1.3290	38.3000
 1.3300	38.2220
 1.3310	38.1440
 1.3320	38.0660
 1.3330	37.9870
 1.3340	37.9070
 1.3350	37.8270
 1.3360	37.7450
 1.3370	37.6620
 1.3380	37.5800
 1.3390	37.4970
 1.3400	37.4140
 1.3410	37.3320
 1.3420	37.2500
 1.3430	37.1670
 1.3440	37.0860
 1.3450	37.0060
 1.3460	36.9260
 1.3470	36.8460
 1.3480	36.7660
 1.3490	36.6870
 1.3500	36.6100
 1.3510	36.5300
 1.3520	36.4510
 1.3530	36.3740
 1.3540	36.2940
 1.3550	36.2160
 1.3560	36.1370
 1.3570	36.0560
 1.3580	35.9730
 1.3590	35.8910
 1.3600	35.8070
 1.3610	35.7210
 1.3620	35.6330
 1.3630	35.5400
 1.3640	35.4420
 1.3650	35.3390
 1.3660	35.2330
 1.3670	35.1230
 1.3680	35.0050
 1.3690	34.8810
 1.3700	34.7450
 1.3710	34.6000
 1.3720	34.4440
 1.3730	34.2740
 1.3740	34.0940
 1.3750	33.8980
 1.3760	33.6870
 1.3770	33.4630
 1.3780	33.2170
 1.3790	32.9530
 1.3800	32.6700
 1.3810	32.3650
 1.3820	32.0430
 1.3830	31.7050
 1.3840	31.3470
 1.3850	30.9710
 1.3860	30.5790
 1.3870	30.1650
 1.3880	29.7430
 1.3890	29.3080
 1.3900	28.8580
 1.3910	28.4040
 1.3920	27.9380
 1.3930	27.4620
 1.3940	26.9820
 1.3950	26.4970
 1.3960	26.0130
 1.3970	25.5330
 1.3980	25.0560
 1.3990	24.5890
 1.4000	24.1300
 1.4010	23.6790
 1.4020	23.2430
 1.4030	22.8160
 1.4040	22.4030
 1.4050	22.0070
 1.4060	21.6260
 1.4070	21.2640
 1.4080	20.9210
 1.4090	20.5920
 1.4100	20.2830
 1.4110	19.9880
 1.4120	19.7110
 1.4130	19.4520
 1.4140	19.2090
 1.4150	18.9820
 1.4160	18.7700
 1.4170	18.5720
 1.4180	18.3880
 1.4190	18.2170
 1.4200	18.0570
 1.4210	17.9080
 1.4220	17.7700
 1.4230	17.6430
 1.4240	17.5270
 1.4250	17.4190
 1.4260	17.3210
 1.4270	17.2300
 1.4280	17.1460
 1.4290	17.0690
 1.4300	17.0010
 1.4310	16.9380
 1.4320	16.8830
 1.4330	16.8330
 1.4340	16.7880
 1.4350	16.7490
 1.4360	16.7140
 1.4370	16.6850
 1.4380	16.6590
 1.4390	16.6370
 1.4400	16.6210
 1.4410	16.6080
 1.4420	16.5980
 1.4430	16.5900
 1.4440	16.5860
 1.4450	16.5840
 1.4460	16.5840
 1.4470	16.5880
 1.4480	16.5930
 1.4490	16.6000
 1.4500	16.6090
 1.4510	16.6200
 1.4520	16.6320
 1.4530	16.6460
 1.4540	16.6620
 1.4550	16.6800
 1.4560	16.7000
 1.4570	16.7240
 1.4580	16.7510
 1.4590	16.7810
 1.4600	16.8140
 1.4610	16.8510
 1.4620	16.8900
 1.4630	16.9350
 1.4640	16.9840
 1.4650	17.0390
 1.4660	17.0980
 1.4670	17.1620
 1.4680	17.2300
 1.4690	17.3020
 1.4700	17.3780
 1.4710	17.4600
 1.4720	17.5450
 1.4730	17.6340
 1.4740	17.7260
 1.4750	17.8200
 1.4760	17.9180
 1.4770	18.0180
 1.4780	18.1200
