Name: Adenostoma fasciculatum 2
Type: vegetation
Class: Shrub
Genus: Adenostoma
Species: fasciculatum
Sample No.: VH220
Owner: UCSB
Wavelength Range: VSWIR
Origin: 34.5084; -119.7687; WGS84
Collection Date: 10/13/2013
Description: Samples were collected as part of the HyspIRI Airborne Campaign. 48 individual plants were sampled in three times in 2013 - spring  summer  and fall. The name of the sample includes a 1  2  or 3 which references a different individual of the species. Samples were taken to JPL and processed within 48 hours of collection. The same leaves were processed in the Nicolet and then measured using the ASD.
Measurement: Bidirectional reflectance
First Column: X
Second Column: Y
X Units: Wavelength (micrometers)
Y Units: Reflectance (percentage)
First X Value: 0.35
Last X Value: 2.5
Number of X Values: 2151
Additional Information: vegetation.shrub.adenostoma.fasciculatum.vswir.vh220.ucsb.asd.ancillary.txt

 0.3500	 1.9460
 0.3510	 2.0950
 0.3520	 1.8660
 0.3530	 1.5790
 0.3540	 1.5490
 0.3550	 1.5690
 0.3560	 1.8140
 0.3570	 1.9850
 0.3580	 1.6690
 0.3590	 1.6470
 0.3600	 1.7570
 0.3610	 1.8230
 0.3620	 1.8020
 0.3630	 1.7790
 0.3640	 1.7280
 0.3650	 1.6530
 0.3660	 1.7820
 0.3670	 1.7800
 0.3680	 1.6590
 0.3690	 1.6600
 0.3700	 1.6690
 0.3710	 1.7400
 0.3720	 1.8490
 0.3730	 1.7980
 0.3740	 1.7800
 0.3750	 1.7630
 0.3760	 1.7030
 0.3770	 1.8520
 0.3780	 1.9290
 0.3790	 1.8390
 0.3800	 1.6810
 0.3810	 1.6260
 0.3820	 1.6740
 0.3830	 1.7560
 0.3840	 1.7200
 0.3850	 1.7660
 0.3860	 1.8340
 0.3870	 1.8050
 0.3880	 1.7930
 0.3890	 1.8070
 0.3900	 1.8260
 0.3910	 1.8080
 0.3920	 1.8930
 0.3930	 1.9220
 0.3940	 1.7990
 0.3950	 1.7440
 0.3960	 1.7980
 0.3970	 1.8870
 0.3980	 1.8990
 0.3990	 1.8700
 0.4000	 1.8500
 0.4010	 1.8730
 0.4020	 1.9440
 0.4030	 1.9770
 0.4040	 1.9830
 0.4050	 1.9860
 0.4060	 1.9650
 0.4070	 1.9340
 0.4080	 1.9420
 0.4090	 2.0400
 0.4100	 2.0440
 0.4110	 2.0290
 0.4120	 2.0460
 0.4130	 2.0380
 0.4140	 2.0930
 0.4150	 2.1520
 0.4160	 2.1430
 0.4170	 2.1650
 0.4180	 2.2130
 0.4190	 2.2560
 0.4200	 2.2540
 0.4210	 2.2630
 0.4220	 2.2610
 0.4230	 2.2450
 0.4240	 2.3120
 0.4250	 2.3590
 0.4260	 2.3760
 0.4270	 2.3910
 0.4280	 2.3990
 0.4290	 2.4070
 0.4300	 2.4310
 0.4310	 2.5070
 0.4320	 2.5300
 0.4330	 2.5290
 0.4340	 2.5500
 0.4350	 2.5740
 0.4360	 2.5880
 0.4370	 2.5870
 0.4380	 2.5710
 0.4390	 2.5840
 0.4400	 2.6060
 0.4410	 2.6190
 0.4420	 2.6340
 0.4430	 2.6380
 0.4440	 2.6480
 0.4450	 2.6850
 0.4460	 2.6990
 0.4470	 2.6990
 0.4480	 2.6980
 0.4490	 2.7170
 0.4500	 2.7140
 0.4510	 2.7230
 0.4520	 2.7640
 0.4530	 2.7610
 0.4540	 2.7780
 0.4550	 2.8080
 0.4560	 2.8020
 0.4570	 2.8130
 0.4580	 2.8280
 0.4590	 2.8380
 0.4600	 2.8480
 0.4610	 2.8620
 0.4620	 2.8800
 0.4630	 2.8980
 0.4640	 2.9000
 0.4650	 2.8980
 0.4660	 2.9020
 0.4670	 2.9100
 0.4680	 2.9130
 0.4690	 2.9150
 0.4700	 2.9230
 0.4710	 2.9460
 0.4720	 2.9510
 0.4730	 2.9450
 0.4740	 2.9550
 0.4750	 2.9510
 0.4760	 2.9500
 0.4770	 2.9620
 0.4780	 2.9790
 0.4790	 2.9820
 0.4800	 2.9770
 0.4810	 2.9780
 0.4820	 2.9930
 0.4830	 3.0010
 0.4840	 3.0040
 0.4850	 3.0270
 0.4860	 3.0490
 0.4870	 3.0590
 0.4880	 3.0580
 0.4890	 3.0770
 0.4900	 3.0890
 0.4910	 3.0960
 0.4920	 3.1160
 0.4930	 3.1430
 0.4940	 3.1610
 0.4950	 3.1730
 0.4960	 3.2030
 0.4970	 3.2270
 0.4980	 3.2450
 0.4990	 3.2680
 0.5000	 3.3120
 0.5010	 3.3500
 0.5020	 3.3800
 0.5030	 3.4210
 0.5040	 3.4700
 0.5050	 3.5180
 0.5060	 3.5610
 0.5070	 3.6070
 0.5080	 3.6580
 0.5090	 3.7200
 0.5100	 3.7930
 0.5110	 3.8680
 0.5120	 3.9390
 0.5130	 4.0060
 0.5140	 4.0750
 0.5150	 4.1630
 0.5160	 4.2620
 0.5170	 4.3590
 0.5180	 4.4610
 0.5190	 4.5600
 0.5200	 4.6610
 0.5210	 4.7720
 0.5220	 4.8820
 0.5230	 4.9880
 0.5240	 5.0910
 0.5250	 5.1910
 0.5260	 5.2950
 0.5270	 5.3960
 0.5280	 5.4840
 0.5290	 5.5710
 0.5300	 5.6600
 0.5310	 5.7460
 0.5320	 5.8190
 0.5330	 5.8920
 0.5340	 5.9610
 0.5350	 6.0220
 0.5360	 6.0760
 0.5370	 6.1330
 0.5380	 6.1910
 0.5390	 6.2450
 0.5400	 6.2970
 0.5410	 6.3540
 0.5420	 6.4150
 0.5430	 6.4670
 0.5440	 6.5180
 0.5450	 6.5640
 0.5460	 6.5940
 0.5470	 6.6150
 0.5480	 6.6290
 0.5490	 6.6440
 0.5500	 6.6700
 0.5510	 6.6980
 0.5520	 6.7200
 0.5530	 6.7320
 0.5540	 6.7390
 0.5550	 6.7360
 0.5560	 6.7250
 0.5570	 6.7110
 0.5580	 6.6880
 0.5590	 6.6600
 0.5600	 6.6310
 0.5610	 6.6020
 0.5620	 6.5640
 0.5630	 6.5230
 0.5640	 6.4840
 0.5650	 6.4410
 0.5660	 6.3970
 0.5670	 6.3510
 0.5680	 6.2940
 0.5690	 6.2370
 0.5700	 6.1800
 0.5710	 6.1190
 0.5720	 6.0590
 0.5730	 6.0020
 0.5740	 5.9480
 0.5750	 5.8950
 0.5760	 5.8490
 0.5770	 5.8080
 0.5780	 5.7700
 0.5790	 5.7330
 0.5800	 5.7000
 0.5810	 5.6670
 0.5820	 5.6360
 0.5830	 5.6020
 0.5840	 5.5700
 0.5850	 5.5420
 0.5860	 5.5210
 0.5870	 5.4990
 0.5880	 5.4800
 0.5890	 5.4630
 0.5900	 5.4390
 0.5910	 5.4180
 0.5920	 5.4020
 0.5930	 5.3890
 0.5940	 5.3760
 0.5950	 5.3640
 0.5960	 5.3530
 0.5970	 5.3480
 0.5980	 5.3390
 0.5990	 5.3290
 0.6000	 5.3240
 0.6010	 5.3160
 0.6020	 5.3010
 0.6030	 5.2810
 0.6040	 5.2610
 0.6050	 5.2430
 0.6060	 5.2230
 0.6070	 5.1970
 0.6080	 5.1720
 0.6090	 5.1490
 0.6100	 5.1340
 0.6110	 5.1280
 0.6120	 5.0910
 0.6130	 5.0430
 0.6140	 5.0000
 0.6150	 4.9650
 0.6160	 4.9310
 0.6170	 4.8980
 0.6180	 4.8680
 0.6190	 4.8460
 0.6200	 4.8230
 0.6210	 4.8010
 0.6220	 4.7890
 0.6230	 4.7770
 0.6240	 4.7690
 0.6250	 4.7640
 0.6260	 4.7530
 0.6270	 4.7480
 0.6280	 4.7490
 0.6290	 4.7490
 0.6300	 4.7470
 0.6310	 4.7440
 0.6320	 4.7410
 0.6330	 4.7350
 0.6340	 4.7210
 0.6350	 4.7030
 0.6360	 4.6860
 0.6370	 4.6670
 0.6380	 4.6390
 0.6390	 4.6040
 0.6400	 4.5670
 0.6410	 4.5280
 0.6420	 4.4860
 0.6430	 4.4410
 0.6440	 4.4000
 0.6450	 4.3540
 0.6460	 4.3090
 0.6470	 4.2700
 0.6480	 4.2340
 0.6490	 4.2030
 0.6500	 4.1780
 0.6510	 4.1570
 0.6520	 4.1320
 0.6530	 4.1080
 0.6540	 4.0900
 0.6550	 4.0730
 0.6560	 4.0530
 0.6570	 4.0270
 0.6580	 3.9940
 0.6590	 3.9570
 0.6600	 3.9230
 0.6610	 3.8900
 0.6620	 3.8460
 0.6630	 3.8140
 0.6640	 3.7830
 0.6650	 3.7460
 0.6660	 3.7200
 0.6670	 3.6940
 0.6680	 3.6700
 0.6690	 3.6560
 0.6700	 3.6420
 0.6710	 3.6300
 0.6720	 3.6240
 0.6730	 3.6250
 0.6740	 3.6260
 0.6750	 3.6270
 0.6760	 3.6330
 0.6770	 3.6430
 0.6780	 3.6560
 0.6790	 3.6730
 0.6800	 3.6970
 0.6810	 3.7250
 0.6820	 3.7610
 0.6830	 3.8080
 0.6840	 3.8620
 0.6850	 3.9320
 0.6860	 4.0190
 0.6870	 4.1220
 0.6880	 4.2420
 0.6890	 4.3840
 0.6900	 4.5540
 0.6910	 4.7580
 0.6920	 4.9890
 0.6930	 5.2550
 0.6940	 5.5590
 0.6950	 5.8950
 0.6960	 6.2630
 0.6970	 6.6650
 0.6980	 7.1020
 0.6990	 7.5650
 0.7000	 8.0540
 0.7010	 8.5630
 0.7020	 9.0890
 0.7030	 9.6300
 0.7040	10.1880
 0.7050	10.7580
 0.7060	11.3260
 0.7070	11.9060
 0.7080	12.4970
 0.7090	13.0930
 0.7100	13.6880
 0.7110	14.2950
 0.7120	14.9140
 0.7130	15.5330
 0.7140	16.1620
 0.7150	16.7940
 0.7160	17.4240
 0.7170	18.0670
 0.7180	18.7200
 0.7190	19.3720
 0.7200	20.0120
 0.7210	20.6480
 0.7220	21.2810
 0.7230	21.9090
 0.7240	22.5270
 0.7250	23.1450
 0.7260	23.7430
 0.7270	24.3100
 0.7280	24.8710
 0.7290	25.4200
 0.7300	25.9500
 0.7310	26.4540
 0.7320	26.9330
 0.7330	27.3920
 0.7340	27.8330
 0.7350	28.2540
 0.7360	28.6560
 0.7370	29.0370
 0.7380	29.3960
 0.7390	29.7410
 0.7400	30.0550
 0.7410	30.3500
 0.7420	30.6460
 0.7430	30.9130
 0.7440	31.1570
 0.7450	31.3850
 0.7460	31.6040
 0.7470	31.8100
 0.7480	32.0020
 0.7490	32.1790
 0.7500	32.3400
 0.7510	32.4970
 0.7520	32.6460
 0.7530	32.7780
 0.7540	32.8870
 0.7550	32.9960
 0.7560	33.1070
 0.7570	33.2090
 0.7580	33.3020
 0.7590	33.3910
 0.7600	33.4750
 0.7610	33.5450
 0.7620	33.6120
 0.7630	33.6830
 0.7640	33.7570
 0.7650	33.8170
 0.7660	33.8760
 0.7670	33.9350
 0.7680	33.9900
 0.7690	34.0380
 0.7700	34.0820
 0.7710	34.1280
 0.7720	34.1700
 0.7730	34.2190
 0.7740	34.2600
 0.7750	34.2870
 0.7760	34.3290
 0.7770	34.3710
 0.7780	34.4110
 0.7790	34.4550
 0.7800	34.4970
 0.7810	34.5370
 0.7820	34.5730
 0.7830	34.6020
 0.7840	34.6450
 0.7850	34.6880
 0.7860	34.7190
 0.7870	34.7350
 0.7880	34.7660
 0.7890	34.8060
 0.7900	34.8410
 0.7910	34.8750
 0.7920	34.9010
 0.7930	34.9240
 0.7940	34.9590
 0.7950	34.9960
 0.7960	35.0200
 0.7970	35.0290
 0.7980	35.0520
 0.7990	35.0900
 0.8000	35.1310
 0.8010	35.1640
 0.8020	35.1810
 0.8030	35.1980
 0.8040	35.2220
 0.8050	35.2540
 0.8060	35.2660
 0.8070	35.2910
 0.8080	35.3280
 0.8090	35.3480
 0.8100	35.3800
 0.8110	35.4050
 0.8120	35.4160
 0.8130	35.4340
 0.8140	35.4600
 0.8150	35.4880
 0.8160	35.5070
 0.8170	35.5130
 0.8180	35.5320
 0.8190	35.5620
 0.8200	35.5840
 0.8210	35.5960
 0.8220	35.6180
 0.8230	35.6470
 0.8240	35.6640
 0.8250	35.6810
 0.8260	35.7030
 0.8270	35.7260
 0.8280	35.7310
 0.8290	35.7570
 0.8300	35.7790
 0.8310	35.7780
 0.8320	35.7890
 0.8330	35.8100
 0.8340	35.8320
 0.8350	35.8500
 0.8360	35.8800
 0.8370	35.8940
 0.8380	35.9000
 0.8390	35.9290
 0.8400	35.9650
 0.8410	35.9850
 0.8420	35.9960
 0.8430	36.0380
 0.8440	36.0680
 0.8450	36.0720
 0.8460	36.0660
 0.8470	36.1260
 0.8480	36.1550
 0.8490	36.1600
 0.8500	36.1810
 0.8510	36.2230
 0.8520	36.2510
 0.8530	36.2650
 0.8540	36.2900
 0.8550	36.3210
 0.8560	36.3420
 0.8570	36.3520
 0.8580	36.3680
 0.8590	36.3920
 0.8600	36.4210
 0.8610	36.4520
 0.8620	36.4860
 0.8630	36.4900
 0.8640	36.5020
 0.8650	36.5460
 0.8660	36.5550
 0.8670	36.5820
 0.8680	36.6150
 0.8690	36.6290
 0.8700	36.6570
 0.8710	36.6730
 0.8720	36.6840
 0.8730	36.7080
 0.8740	36.7540
 0.8750	36.7730
 0.8760	36.7700
 0.8770	36.8010
 0.8780	36.8270
 0.8790	36.8430
 0.8800	36.8580
 0.8810	36.8840
 0.8820	36.9060
 0.8830	36.9310
 0.8840	36.9560
 0.8850	36.9400
 0.8860	36.9490
 0.8870	36.9730
 0.8880	36.9880
 0.8890	37.0080
 0.8900	37.0320
 0.8910	37.0460
 0.8920	37.0420
 0.8930	37.0560
 0.8940	37.0660
 0.8950	37.0760
 0.8960	37.0990
 0.8970	37.1160
 0.8980	37.1210
 0.8990	37.1260
 0.9000	37.1540
 0.9010	37.1500
 0.9020	37.1490
 0.9030	37.1690
 0.9040	37.1840
 0.9050	37.1810
 0.9060	37.1830
 0.9070	37.1970
 0.9080	37.1920
 0.9090	37.2030
 0.9100	37.2160
 0.9110	37.2180
 0.9120	37.2300
 0.9130	37.2400
 0.9140	37.2530
 0.9150	37.2730
 0.9160	37.2750
 0.9170	37.2880
 0.9180	37.3000
 0.9190	37.2920
 0.9200	37.3050
 0.9210	37.3080
 0.9220	37.2960
 0.9230	37.2810
 0.9240	37.2840
 0.9250	37.2920
 0.9260	37.2960
 0.9270	37.2920
 0.9280	37.2790
 0.9290	37.2680
 0.9300	37.2640
 0.9310	37.2580
 0.9320	37.2500
 0.9330	37.2420
 0.9340	37.2270
 0.9350	37.1930
 0.9360	37.1650
 0.9370	37.1540
 0.9380	37.1520
 0.9390	37.1290
 0.9400	37.0920
 0.9410	37.0620
 0.9420	37.0380
 0.9430	36.9810
 0.9440	36.9480
 0.9450	36.9230
 0.9460	36.8890
 0.9470	36.8610
 0.9480	36.8000
 0.9490	36.7230
 0.9500	36.6510
 0.9510	36.5820
 0.9520	36.5050
 0.9530	36.4350
 0.9540	36.3780
 0.9550	36.2780
 0.9560	36.1810
 0.9570	36.0960
 0.9580	36.0180
 0.9590	35.9650
 0.9600	35.9120
 0.9610	35.8430
 0.9620	35.7580
 0.9630	35.7140
 0.9640	35.6830
 0.9650	35.6430
 0.9660	35.5860
 0.9670	35.5560
 0.9680	35.5360
 0.9690	35.5120
 0.9700	35.4780
 0.9710	35.4490
 0.9720	35.4320
 0.9730	35.4270
 0.9740	35.4250
 0.9750	35.3980
 0.9760	35.3940
 0.9770	35.4010
 0.9780	35.3840
 0.9790	35.3620
 0.9800	35.3590
 0.9810	35.3810
 0.9820	35.4130
 0.9830	35.3930
 0.9840	35.3970
 0.9850	35.4230
 0.9860	35.4370
 0.9870	35.4730
 0.9880	35.5190
 0.9890	35.5520
 0.9900	35.5580
 0.9910	35.5740
 0.9920	35.5840
 0.9930	35.5940
 0.9940	35.6050
 0.9950	35.6150
 0.9960	35.6250
 0.9970	35.6360
 0.9980	35.6460
 0.9990	35.6560
 1.0000	35.6670
 1.0010	35.6770
 1.0020	35.6870
 1.0030	35.6980
 1.0040	35.7080
 1.0050	35.7180
 1.0060	35.7290
 1.0070	35.7390
 1.0080	35.7490
 1.0090	35.7590
 1.0100	35.7590
 1.0110	35.8040
 1.0120	35.8510
 1.0130	35.9000
 1.0140	35.9490
 1.0150	35.9970
 1.0160	36.0500
 1.0170	36.0970
 1.0180	36.1400
 1.0190	36.1740
 1.0200	36.2130
 1.0210	36.2540
 1.0220	36.2990
 1.0230	36.3450
 1.0240	36.3940
 1.0250	36.4390
 1.0260	36.4870
 1.0270	36.5310
 1.0280	36.5690
 1.0290	36.6110
 1.0300	36.6500
 1.0310	36.6950
 1.0320	36.7510
 1.0330	36.7920
 1.0340	36.8310
 1.0350	36.8760
 1.0360	36.9110
 1.0370	36.9450
 1.0380	36.9790
 1.0390	37.0140
 1.0400	37.0460
 1.0410	37.0740
 1.0420	37.1070
 1.0430	37.1390
 1.0440	37.1720
 1.0450	37.2070
 1.0460	37.2390
 1.0470	37.2700
 1.0480	37.2980
 1.0490	37.3240
 1.0500	37.3500
 1.0510	37.3720
 1.0520	37.4000
 1.0530	37.4240
 1.0540	37.4460
 1.0550	37.4740
 1.0560	37.5040
 1.0570	37.5330
 1.0580	37.5630
 1.0590	37.5930
 1.0600	37.6240
 1.0610	37.6490
 1.0620	37.6750
 1.0630	37.6970
 1.0640	37.7110
 1.0650	37.7290
 1.0660	37.7490
 1.0670	37.7680
 1.0680	37.7870
 1.0690	37.8080
 1.0700	37.8260
 1.0710	37.8430
 1.0720	37.8590
 1.0730	37.8740
 1.0740	37.8910
 1.0750	37.9080
 1.0760	37.9250
 1.0770	37.9470
 1.0780	37.9600
 1.0790	37.9650
 1.0800	37.9760
 1.0810	37.9840
 1.0820	37.9920
 1.0830	38.0070
 1.0840	38.0160
 1.0850	38.0170
 1.0860	38.0210
 1.0870	38.0230
 1.0880	38.0210
 1.0890	38.0210
 1.0900	38.0230
 1.0910	38.0200
 1.0920	38.0160
 1.0930	38.0130
 1.0940	38.0090
 1.0950	38.0050
 1.0960	38.0070
 1.0970	38.0000
 1.0980	37.9850
 1.0990	37.9750
 1.1000	37.9640
 1.1010	37.9510
 1.1020	37.9400
 1.1030	37.9300
 1.1040	37.9230
 1.1050	37.9100
 1.1060	37.8960
 1.1070	37.8840
 1.1080	37.8650
 1.1090	37.8400
 1.1100	37.8140
 1.1110	37.7830
 1.1120	37.7570
 1.1130	37.7340
 1.1140	37.7030
 1.1150	37.6740
 1.1160	37.6390
 1.1170	37.5960
 1.1180	37.5500
 1.1190	37.5030
 1.1200	37.4500
 1.1210	37.3850
 1.1220	37.3150
 1.1230	37.2470
 1.1240	37.1760
 1.1250	37.0980
 1.1260	37.0220
 1.1270	36.9310
 1.1280	36.8300
 1.1290	36.7210
 1.1300	36.6050
 1.1310	36.4790
 1.1320	36.3440
 1.1330	36.1980
 1.1340	36.0400
 1.1350	35.8780
 1.1360	35.7080
 1.1370	35.5300
 1.1380	35.3450
 1.1390	35.1540
 1.1400	34.9610
 1.1410	34.7620
 1.1420	34.5570
 1.1430	34.3550
 1.1440	34.1500
 1.1450	33.9370
 1.1460	33.7320
 1.1470	33.5290
 1.1480	33.3310
 1.1490	33.1320
 1.1500	32.9440
 1.1510	32.7610
 1.1520	32.5880
 1.1530	32.4220
 1.1540	32.2690
 1.1550	32.1300
 1.1560	31.9950
 1.1570	31.8740
 1.1580	31.7600
 1.1590	31.6480
 1.1600	31.5480
 1.1610	31.4580
 1.1620	31.3730
 1.1630	31.2980
 1.1640	31.2340
 1.1650	31.1700
 1.1660	31.1130
 1.1670	31.0580
 1.1680	31.0060
 1.1690	30.9580
 1.1700	30.9200
 1.1710	30.8760
 1.1720	30.8320
 1.1730	30.7920
 1.1740	30.7490
 1.1750	30.7110
 1.1760	30.6770
 1.1770	30.6360
 1.1780	30.5920
 1.1790	30.5470
 1.1800	30.4990
 1.1810	30.4570
 1.1820	30.4200
 1.1830	30.3830
 1.1840	30.3490
 1.1850	30.3150
 1.1860	30.2790
 1.1870	30.2450
 1.1880	30.2130
 1.1890	30.1850
 1.1900	30.1580
 1.1910	30.1340
 1.1920	30.1100
 1.1930	30.0850
 1.1940	30.0650
 1.1950	30.0490
 1.1960	30.0340
 1.1970	30.0250
 1.1980	30.0180
 1.1990	30.0180
 1.2000	30.0170
 1.2010	30.0180
 1.2020	30.0310
 1.2030	30.0470
 1.2040	30.0660
 1.2050	30.0950
 1.2060	30.1250
 1.2070	30.1570
 1.2080	30.1950
 1.2090	30.2340
 1.2100	30.2770
 1.2110	30.3250
 1.2120	30.3780
 1.2130	30.4350
 1.2140	30.5000
 1.2150	30.5630
 1.2160	30.6290
 1.2170	30.6930
 1.2180	30.7590
 1.2190	30.8280
 1.2200	30.8970
 1.2210	30.9730
 1.2220	31.0460
 1.2230	31.1150
 1.2240	31.1830
 1.2250	31.2470
 1.2260	31.3150
 1.2270	31.3780
 1.2280	31.4390
 1.2290	31.5030
 1.2300	31.5610
 1.2310	31.6190
 1.2320	31.6790
 1.2330	31.7380
 1.2340	31.7930
 1.2350	31.8460
 1.2360	31.8970
 1.2370	31.9450
 1.2380	31.9920
 1.2390	32.0370
 1.2400	32.0810
 1.2410	32.1270
 1.2420	32.1710
 1.2430	32.2190
 1.2440	32.2670
 1.2450	32.3090
 1.2460	32.3490
 1.2470	32.3830
 1.2480	32.4160
 1.2490	32.4530
 1.2500	32.4870
 1.2510	32.5210
 1.2520	32.5550
 1.2530	32.5820
 1.2540	32.6080
 1.2550	32.6330
 1.2560	32.6560
 1.2570	32.6780
 1.2580	32.6990
 1.2590	32.7200
 1.2600	32.7400
 1.2610	32.7600
 1.2620	32.7800
 1.2630	32.8020
 1.2640	32.8190
 1.2650	32.8350
 1.2660	32.8470
 1.2670	32.8530
 1.2680	32.8610
 1.2690	32.8660
 1.2700	32.8700
 1.2710	32.8770
 1.2720	32.8790
 1.2730	32.8800
 1.2740	32.8790
 1.2750	32.8710
 1.2760	32.8660
 1.2770	32.8630
 1.2780	32.8520
 1.2790	32.8430
 1.2800	32.8310
 1.2810	32.8180
 1.2820	32.8060
 1.2830	32.7890
 1.2840	32.7740
 1.2850	32.7570
 1.2860	32.7360
 1.2870	32.7120
 1.2880	32.6890
 1.2890	32.6610
 1.2900	32.6270
 1.2910	32.5940
 1.2920	32.5610
 1.2930	32.5250
 1.2940	32.4920
 1.2950	32.4520
 1.2960	32.4090
 1.2970	32.3660
 1.2980	32.3130
 1.2990	32.2580
 1.3000	32.2030
 1.3010	32.1420
 1.3020	32.0770
 1.3030	32.0130
 1.3040	31.9430
 1.3050	31.8680
 1.3060	31.7940
 1.3070	31.7120
 1.3080	31.6280
 1.3090	31.5410
 1.3100	31.4440
 1.3110	31.3460
 1.3120	31.2420
 1.3130	31.1330
 1.3140	31.0240
 1.3150	30.9150
 1.3160	30.7980
 1.3170	30.6780
 1.3180	30.5540
 1.3190	30.4230
 1.3200	30.2880
 1.3210	30.1470
 1.3220	30.0060
 1.3230	29.8620
 1.3240	29.7120
 1.3250	29.5590
 1.3260	29.4030
 1.3270	29.2400
 1.3280	29.0750
 1.3290	28.9080
 1.3300	28.7400
 1.3310	28.5710
 1.3320	28.3980
 1.3330	28.2270
 1.3340	28.0560
 1.3350	27.8800
 1.3360	27.7070
 1.3370	27.5330
 1.3380	27.3540
 1.3390	27.1800
 1.3400	27.0040
 1.3410	26.8320
 1.3420	26.6660
 1.3430	26.5000
 1.3440	26.3350
 1.3450	26.1730
 1.3460	26.0090
 1.3470	25.8520
 1.3480	25.7000
 1.3490	25.5510
 1.3500	25.4070
 1.3510	25.2630
 1.3520	25.1210
 1.3530	24.9780
 1.3540	24.8360
 1.3550	24.6990
 1.3560	24.5620
 1.3570	24.4220
 1.3580	24.2840
 1.3590	24.1440
 1.3600	24.0020
 1.3610	23.8600
 1.3620	23.7170
 1.3630	23.5710
 1.3640	23.4180
 1.3650	23.2590
 1.3660	23.0960
 1.3670	22.9290
 1.3680	22.7570
 1.3690	22.5800
 1.3700	22.3900
 1.3710	22.1920
 1.3720	21.9840
 1.3730	21.7640
 1.3740	21.5350
 1.3750	21.2960
 1.3760	21.0410
 1.3770	20.7720
 1.3780	20.4870
 1.3790	20.1870
 1.3800	19.8710
 1.3810	19.5380
 1.3820	19.1990
 1.3830	18.8470
 1.3840	18.4880
 1.3850	18.1230
 1.3860	17.7480
 1.3870	17.3600
 1.3880	16.9720
 1.3890	16.5790
 1.3900	16.1840
 1.3910	15.7910
 1.3920	15.4010
 1.3930	15.0130
 1.3940	14.6310
 1.3950	14.2530
 1.3960	13.8840
 1.3970	13.5240
 1.3980	13.1700
 1.3990	12.8330
 1.4000	12.5070
 1.4010	12.1930
 1.4020	11.8930
 1.4030	11.6020
 1.4040	11.3240
 1.4050	11.0630
 1.4060	10.8150
 1.4070	10.5840
 1.4080	10.3660
 1.4090	10.1570
 1.4100	 9.9590
 1.4110	 9.7730
 1.4120	 9.5980
 1.4130	 9.4390
 1.4140	 9.2900
 1.4150	 9.1540
 1.4160	 9.0270
 1.4170	 8.9050
 1.4180	 8.7920
 1.4190	 8.6870
 1.4200	 8.5880
 1.4210	 8.4990
 1.4220	 8.4180
 1.4230	 8.3440
 1.4240	 8.2780
 1.4250	 8.2140
 1.4260	 8.1550
 1.4270	 8.1010
 1.4280	 8.0500
 1.4290	 8.0030
 1.4300	 7.9610
 1.4310	 7.9220
 1.4320	 7.8880
 1.4330	 7.8560
 1.4340	 7.8280
 1.4350	 7.8030
 1.4360	 7.7800
 1.4370	 7.7610
 1.4380	 7.7450
 1.4390	 7.7330
 1.4400	 7.7220
 1.4410	 7.7110
 1.4420	 7.7020
 1.4430	 7.6940
 1.4440	 7.6900
 1.4450	 7.6880
 1.4460	 7.6870
 1.4470	 7.6870
 1.4480	 7.6880
 1.4490	 7.6890
 1.4500	 7.6940
 1.4510	 7.6990
 1.4520	 7.7030
 1.4530	 7.7100
 1.4540	 7.7150
 1.4550	 7.7220
 1.4560	 7.7330
 1.4570	 7.7440
 1.4580	 7.7550
 1.4590	 7.7670
 1.4600	 7.7800
 1.4610	 7.7960
 1.4620	 7.8140
 1.4630	 7.8350
 1.4640	 7.8570
 1.4650	 7.8800
 1.4660	 7.9070
 1.4670	 7.9390
 1.4680	 7.9730
 1.4690	 8.0080
