Name: Jacaranda mimosifolia
Type: vegetation
Class: Tree
Genus: Jacaranda
Species: mimosifolia
Sample No.: JPL168
Owner: JPL
Wavelength Range: VSWIR
Origin: 34.12571; -118.11267; WGS84
Collection Date: 9/14/2016
Description: Samples were collected at the Huntington Garden in San Marino California as part of a JPL Subcontract studying HyTES imagery. Samples were taken to JPL and processed within 48 hours of collection. The same leaves were processed in the Nicolet and then measured using the ASD.
Measurement: Bidirectional reflectance
First Column: X
Second Column: Y
X Units: Wavelength (micrometer)
Y Units: Reflectance (percentage)
First X Value: 0.35
Last X Value: 2.5
Number of X Values: 2151
Additional Information: vegetation.tree.jacaranda.mimosifolia.vswir.jpl168.jpl.asd.ancillary.txt

 0.3500	 3.1120
 0.3510	 3.0460
 0.3520	 3.1410
 0.3530	 3.1720
 0.3540	 3.0030
 0.3550	 2.9940
 0.3560	 2.9520
 0.3570	 2.8860
 0.3580	 2.9030
 0.3590	 2.9700
 0.3600	 3.0260
 0.3610	 2.9980
 0.3620	 2.7860
 0.3630	 2.7960
 0.3640	 2.8930
 0.3650	 2.8700
 0.3660	 2.8130
 0.3670	 2.8310
 0.3680	 2.8950
 0.3690	 2.8920
 0.3700	 2.9220
 0.3710	 2.8880
 0.3720	 2.7850
 0.3730	 2.8190
 0.3740	 2.8890
 0.3750	 2.9160
 0.3760	 2.8610
 0.3770	 2.8540
 0.3780	 2.8570
 0.3790	 2.8480
 0.3800	 2.8290
 0.3810	 2.8160
 0.3820	 2.8060
 0.3830	 2.8010
 0.3840	 2.8160
 0.3850	 2.8370
 0.3860	 2.8450
 0.3870	 2.8270
 0.3880	 2.8130
 0.3890	 2.7690
 0.3900	 2.7250
 0.3910	 2.7710
 0.3920	 2.7780
 0.3930	 2.7800
 0.3940	 2.8080
 0.3950	 2.7790
 0.3960	 2.7550
 0.3970	 2.7500
 0.3980	 2.7580
 0.3990	 2.7750
 0.4000	 2.7850
 0.4010	 2.7820
 0.4020	 2.7750
 0.4030	 2.7530
 0.4040	 2.7460
 0.4050	 2.7690
 0.4060	 2.7650
 0.4070	 2.7610
 0.4080	 2.7620
 0.4090	 2.7590
 0.4100	 2.7520
 0.4110	 2.7450
 0.4120	 2.7430
 0.4130	 2.7600
 0.4140	 2.7720
 0.4150	 2.7820
 0.4160	 2.7970
 0.4170	 2.8170
 0.4180	 2.8250
 0.4190	 2.8240
 0.4200	 2.8360
 0.4210	 2.8520
 0.4220	 2.8620
 0.4230	 2.8630
 0.4240	 2.8720
 0.4250	 2.8810
 0.4260	 2.8960
 0.4270	 2.9240
 0.4280	 2.9340
 0.4290	 2.9460
 0.4300	 2.9650
 0.4310	 2.9670
 0.4320	 2.9790
 0.4330	 2.9950
 0.4340	 3.0080
 0.4350	 3.0260
 0.4360	 3.0350
 0.4370	 3.0390
 0.4380	 3.0530
 0.4390	 3.0640
 0.4400	 3.0770
 0.4410	 3.0940
 0.4420	 3.0920
 0.4430	 3.0980
 0.4440	 3.1100
 0.4450	 3.1200
 0.4460	 3.1360
 0.4470	 3.1490
 0.4480	 3.1560
 0.4490	 3.1640
 0.4500	 3.1710
 0.4510	 3.1780
 0.4520	 3.1880
 0.4530	 3.1970
 0.4540	 3.2050
 0.4550	 3.2130
 0.4560	 3.2230
 0.4570	 3.2340
 0.4580	 3.2410
 0.4590	 3.2400
 0.4600	 3.2380
 0.4610	 3.2400
 0.4620	 3.2470
 0.4630	 3.2530
 0.4640	 3.2530
 0.4650	 3.2560
 0.4660	 3.2600
 0.4670	 3.2560
 0.4680	 3.2610
 0.4690	 3.2690
 0.4700	 3.2720
 0.4710	 3.2730
 0.4720	 3.2750
 0.4730	 3.2800
 0.4740	 3.2850
 0.4750	 3.2820
 0.4760	 3.2780
 0.4770	 3.2790
 0.4780	 3.2840
 0.4790	 3.2910
 0.4800	 3.2960
 0.4810	 3.2950
 0.4820	 3.2950
 0.4830	 3.2980
 0.4840	 3.3060
 0.4850	 3.3150
 0.4860	 3.3250
 0.4870	 3.3370
 0.4880	 3.3510
 0.4890	 3.3530
 0.4900	 3.3580
 0.4910	 3.3700
 0.4920	 3.3900
 0.4930	 3.4090
 0.4940	 3.4260
 0.4950	 3.4440
 0.4960	 3.4730
 0.4970	 3.5000
 0.4980	 3.5240
 0.4990	 3.5530
 0.5000	 3.5930
 0.5010	 3.6370
 0.5020	 3.6820
 0.5030	 3.7310
 0.5040	 3.7850
 0.5050	 3.8470
 0.5060	 3.9190
 0.5070	 4.0020
 0.5080	 4.0940
 0.5090	 4.1930
 0.5100	 4.3010
 0.5110	 4.4220
 0.5120	 4.5520
 0.5130	 4.6900
 0.5140	 4.8390
 0.5150	 5.0020
 0.5160	 5.1790
 0.5170	 5.3680
 0.5180	 5.5620
 0.5190	 5.7660
 0.5200	 5.9810
 0.5210	 6.2040
 0.5220	 6.4300
 0.5230	 6.6570
 0.5240	 6.8860
 0.5250	 7.1110
 0.5260	 7.3310
 0.5270	 7.5420
 0.5280	 7.7390
 0.5290	 7.9300
 0.5300	 8.1130
 0.5310	 8.2830
 0.5320	 8.4370
 0.5330	 8.5840
 0.5340	 8.7180
 0.5350	 8.8360
 0.5360	 8.9460
 0.5370	 9.0490
 0.5380	 9.1440
 0.5390	 9.2330
 0.5400	 9.3240
 0.5410	 9.4180
 0.5420	 9.5100
 0.5430	 9.5940
 0.5440	 9.6570
 0.5450	 9.7000
 0.5460	 9.7260
 0.5470	 9.7440
 0.5480	 9.7610
 0.5490	 9.7810
 0.5500	 9.8050
 0.5510	 9.8190
 0.5520	 9.8250
 0.5530	 9.8200
 0.5540	 9.8010
 0.5550	 9.7680
 0.5560	 9.7200
 0.5570	 9.6580
 0.5580	 9.5870
 0.5590	 9.5070
 0.5600	 9.4190
 0.5610	 9.3270
 0.5620	 9.2260
 0.5630	 9.1200
 0.5640	 9.0120
 0.5650	 8.8990
 0.5660	 8.7790
 0.5670	 8.6520
 0.5680	 8.5170
 0.5690	 8.3800
 0.5700	 8.2430
 0.5710	 8.1060
 0.5720	 7.9730
 0.5730	 7.8420
 0.5740	 7.7140
 0.5750	 7.5950
 0.5760	 7.4850
 0.5770	 7.3810
 0.5780	 7.2810
 0.5790	 7.1910
 0.5800	 7.1090
 0.5810	 7.0320
 0.5820	 6.9590
 0.5830	 6.8920
 0.5840	 6.8300
 0.5850	 6.7710
 0.5860	 6.7180
 0.5870	 6.6680
 0.5880	 6.6190
 0.5890	 6.5690
 0.5900	 6.5230
 0.5910	 6.4820
 0.5920	 6.4460
 0.5930	 6.4160
 0.5940	 6.3900
 0.5950	 6.3660
 0.5960	 6.3440
 0.5970	 6.3260
 0.5980	 6.3060
 0.5990	 6.2860
 0.6000	 6.2660
 0.6010	 6.2400
 0.6020	 6.2080
 0.6030	 6.1710
 0.6040	 6.1320
 0.6050	 6.0870
 0.6060	 6.0360
 0.6070	 5.9790
 0.6080	 5.9190
 0.6090	 5.8640
 0.6100	 5.8160
 0.6110	 5.7700
 0.6120	 5.7060
 0.6130	 5.6270
 0.6140	 5.5440
 0.6150	 5.4750
 0.6160	 5.4100
 0.6170	 5.3490
 0.6180	 5.2950
 0.6190	 5.2470
 0.6200	 5.2050
 0.6210	 5.1680
 0.6220	 5.1350
 0.6230	 5.1060
 0.6240	 5.0820
 0.6250	 5.0610
 0.6260	 5.0460
 0.6270	 5.0330
 0.6280	 5.0230
 0.6290	 5.0130
 0.6300	 5.0080
 0.6310	 5.0010
 0.6320	 4.9870
 0.6330	 4.9680
 0.6340	 4.9470
 0.6350	 4.9200
 0.6360	 4.8850
 0.6370	 4.8430
 0.6380	 4.7940
 0.6390	 4.7410
 0.6400	 4.6860
 0.6410	 4.6280
 0.6420	 4.5680
 0.6430	 4.5070
 0.6440	 4.4420
 0.6450	 4.3790
 0.6460	 4.3190
 0.6470	 4.2630
 0.6480	 4.2140
 0.6490	 4.1700
 0.6500	 4.1320
 0.6510	 4.1010
 0.6520	 4.0770
 0.6530	 4.0540
 0.6540	 4.0280
 0.6550	 4.0000
 0.6560	 3.9700
 0.6570	 3.9380
 0.6580	 3.9010
 0.6590	 3.8620
 0.6600	 3.8200
 0.6610	 3.7780
 0.6620	 3.7390
 0.6630	 3.7010
 0.6640	 3.6670
 0.6650	 3.6370
 0.6660	 3.6150
 0.6670	 3.5970
 0.6680	 3.5820
 0.6690	 3.5730
 0.6700	 3.5690
 0.6710	 3.5720
 0.6720	 3.5800
 0.6730	 3.5910
 0.6740	 3.6040
 0.6750	 3.6190
 0.6760	 3.6380
 0.6770	 3.6650
 0.6780	 3.6950
 0.6790	 3.7260
 0.6800	 3.7640
 0.6810	 3.8080
 0.6820	 3.8570
 0.6830	 3.9120
 0.6840	 3.9740
 0.6850	 4.0490
 0.6860	 4.1400
 0.6870	 4.2490
 0.6880	 4.3840
 0.6890	 4.5540
 0.6900	 4.7640
 0.6910	 5.0220
 0.6920	 5.3390
 0.6930	 5.7160
 0.6940	 6.1540
 0.6950	 6.6570
 0.6960	 7.2150
 0.6970	 7.8250
 0.6980	 8.4850
 0.6990	 9.1880
 0.7000	 9.9240
 0.7010	10.6840
 0.7020	11.4600
 0.7030	12.2450
 0.7040	13.0360
 0.7050	13.8300
 0.7060	14.6230
 0.7070	15.4120
 0.7080	16.1950
 0.7090	16.9720
 0.7100	17.7470
 0.7110	18.5190
 0.7120	19.2880
 0.7130	20.0520
 0.7140	20.8060
 0.7150	21.5540
 0.7160	22.2980
 0.7170	23.0320
 0.7180	23.7550
 0.7190	24.4650
 0.7200	25.1610
 0.7210	25.8410
 0.7220	26.5030
 0.7230	27.1450
 0.7240	27.7670
 0.7250	28.3660
 0.7260	28.9400
 0.7270	29.4890
 0.7280	30.0150
 0.7290	30.5150
 0.7300	30.9920
 0.7310	31.4440
 0.7320	31.8700
 0.7330	32.2720
 0.7340	32.6490
 0.7350	33.0010
 0.7360	33.3340
 0.7370	33.6440
 0.7380	33.9300
 0.7390	34.1980
 0.7400	34.4470
 0.7410	34.6770
 0.7420	34.8900
 0.7430	35.0830
 0.7440	35.2590
 0.7450	35.4210
 0.7460	35.5680
 0.7470	35.7010
 0.7480	35.8210
 0.7490	35.9290
 0.7500	36.0280
 0.7510	36.1160
 0.7520	36.1950
 0.7530	36.2670
 0.7540	36.3310
 0.7550	36.3890
 0.7560	36.4420
 0.7570	36.4900
 0.7580	36.5350
 0.7590	36.5750
 0.7600	36.6120
 0.7610	36.6440
 0.7620	36.6720
 0.7630	36.6960
 0.7640	36.7190
 0.7650	36.7410
 0.7660	36.7570
 0.7670	36.7710
 0.7680	36.7870
 0.7690	36.7990
 0.7700	36.8110
 0.7710	36.8220
 0.7720	36.8320
 0.7730	36.8410
 0.7740	36.8510
 0.7750	36.8620
 0.7760	36.8660
 0.7770	36.8740
 0.7780	36.8840
 0.7790	36.8920
 0.7800	36.8990
 0.7810	36.9050
 0.7820	36.9120
 0.7830	36.9180
 0.7840	36.9240
 0.7850	36.9300
 0.7860	36.9350
 0.7870	36.9400
 0.7880	36.9450
 0.7890	36.9480
 0.7900	36.9500
 0.7910	36.9520
 0.7920	36.9540
 0.7930	36.9560
 0.7940	36.9570
 0.7950	36.9600
 0.7960	36.9600
 0.7970	36.9570
 0.7980	36.9540
 0.7990	36.9520
 0.8000	36.9470
 0.8010	36.9420
 0.8020	36.9400
 0.8030	36.9370
 0.8040	36.9330
 0.8050	36.9290
 0.8060	36.9230
 0.8070	36.9170
 0.8080	36.9090
 0.8090	36.9000
 0.8100	36.8940
 0.8110	36.8880
 0.8120	36.8810
 0.8130	36.8720
 0.8140	36.8600
 0.8150	36.8490
 0.8160	36.8430
 0.8170	36.8340
 0.8180	36.8220
 0.8190	36.8110
 0.8200	36.8040
 0.8210	36.7940
 0.8220	36.7850
 0.8230	36.7760
 0.8240	36.7670
 0.8250	36.7570
 0.8260	36.7480
 0.8270	36.7400
 0.8280	36.7300
 0.8290	36.7190
 0.8300	36.7090
 0.8310	36.7010
 0.8320	36.6940
 0.8330	36.6850
 0.8340	36.6760
 0.8350	36.6670
 0.8360	36.6620
 0.8370	36.6570
 0.8380	36.6490
 0.8390	36.6430
 0.8400	36.6400
 0.8410	36.6390
 0.8420	36.6380
 0.8430	36.6330
 0.8440	36.6270
 0.8450	36.6240
 0.8460	36.6240
 0.8470	36.6220
 0.8480	36.6180
 0.8490	36.6170
 0.8500	36.6170
 0.8510	36.6150
 0.8520	36.6170
 0.8530	36.6180
 0.8540	36.6140
 0.8550	36.6180
 0.8560	36.6230
 0.8570	36.6240
 0.8580	36.6230
 0.8590	36.6280
 0.8600	36.6330
 0.8610	36.6340
 0.8620	36.6350
 0.8630	36.6390
 0.8640	36.6450
 0.8650	36.6500
 0.8660	36.6560
 0.8670	36.6630
 0.8680	36.6690
 0.8690	36.6730
 0.8700	36.6740
 0.8710	36.6790
 0.8720	36.6860
 0.8730	36.6910
 0.8740	36.7000
 0.8750	36.7090
 0.8760	36.7170
 0.8770	36.7270
 0.8780	36.7320
 0.8790	36.7370
 0.8800	36.7470
 0.8810	36.7560
 0.8820	36.7650
 0.8830	36.7740
 0.8840	36.7820
 0.8850	36.7910
 0.8860	36.7990
 0.8870	36.8040
 0.8880	36.8050
 0.8890	36.8150
 0.8900	36.8240
 0.8910	36.8320
 0.8920	36.8380
 0.8930	36.8450
 0.8940	36.8530
 0.8950	36.8610
 0.8960	36.8700
 0.8970	36.8770
 0.8980	36.8820
 0.8990	36.8860
 0.9000	36.8920
 0.9010	36.8990
 0.9020	36.9080
 0.9030	36.9170
 0.9040	36.9230
 0.9050	36.9300
 0.9060	36.9350
 0.9070	36.9390
 0.9080	36.9430
 0.9090	36.9440
 0.9100	36.9440
 0.9110	36.9460
 0.9120	36.9520
 0.9130	36.9600
 0.9140	36.9660
 0.9150	36.9680
 0.9160	36.9680
 0.9170	36.9670
 0.9180	36.9690
 0.9190	36.9770
 0.9200	36.9810
 0.9210	36.9800
 0.9220	36.9770
 0.9230	36.9780
 0.9240	36.9800
 0.9250	36.9760
 0.9260	36.9690
 0.9270	36.9650
 0.9280	36.9540
 0.9290	36.9470
 0.9300	36.9480
 0.9310	36.9450
 0.9320	36.9390
 0.9330	36.9300
 0.9340	36.9200
 0.9350	36.9090
 0.9360	36.9000
 0.9370	36.8930
 0.9380	36.8840
 0.9390	36.8660
 0.9400	36.8520
 0.9410	36.8400
 0.9420	36.8260
 0.9430	36.8130
 0.9440	36.7980
 0.9450	36.7860
 0.9460	36.7720
 0.9470	36.7410
 0.9480	36.7130
 0.9490	36.6870
 0.9500	36.6620
 0.9510	36.6400
 0.9520	36.6200
 0.9530	36.5930
 0.9540	36.5550
 0.9550	36.5240
 0.9560	36.4940
 0.9570	36.4670
 0.9580	36.4410
 0.9590	36.4160
 0.9600	36.3940
 0.9610	36.3690
 0.9620	36.3370
 0.9630	36.3170
 0.9640	36.3030
 0.9650	36.2890
 0.9660	36.2710
 0.9670	36.2610
 0.9680	36.2470
 0.9690	36.2310
 0.9700	36.2190
 0.9710	36.2020
 0.9720	36.1950
 0.9730	36.1900
 0.9740	36.1740
 0.9750	36.1680
 0.9760	36.1600
 0.9770	36.1510
 0.9780	36.1440
 0.9790	36.1320
 0.9800	36.1240
 0.9810	36.1230
 0.9820	36.1250
 0.9830	36.1320
 0.9840	36.1320
 0.9850	36.1230
 0.9860	36.1080
 0.9870	36.1060
 0.9880	36.1150
 0.9890	36.1220
 0.9900	36.1170
 0.9910	36.1250
 0.9920	36.1330
 0.9930	36.1360
 0.9940	36.1350
 0.9950	36.1280
 0.9960	36.1380
 0.9970	36.1520
 0.9980	36.1510
 0.9990	36.1650
 1.0000	36.1840
 1.0010	36.1090
 1.0020	36.1090
 1.0030	36.1130
 1.0040	36.1190
 1.0050	36.1270
 1.0060	36.1360
 1.0070	36.1430
 1.0080	36.1510
 1.0090	36.1550
 1.0100	36.1640
 1.0110	36.1780
 1.0120	36.1870
 1.0130	36.1950
 1.0140	36.2040
 1.0150	36.2080
 1.0160	36.2160
 1.0170	36.2240
 1.0180	36.2310
 1.0190	36.2370
 1.0200	36.2420
 1.0210	36.2530
 1.0220	36.2620
 1.0230	36.2700
 1.0240	36.2760
 1.0250	36.2830
 1.0260	36.2880
 1.0270	36.2940
 1.0280	36.3050
 1.0290	36.3130
 1.0300	36.3180
 1.0310	36.3240
 1.0320	36.3310
 1.0330	36.3340
 1.0340	36.3420
 1.0350	36.3500
 1.0360	36.3540
 1.0370	36.3610
 1.0380	36.3670
 1.0390	36.3710
 1.0400	36.3760
 1.0410	36.3830
 1.0420	36.3890
 1.0430	36.3930
 1.0440	36.4000
 1.0450	36.4070
 1.0460	36.4130
 1.0470	36.4190
 1.0480	36.4260
 1.0490	36.4320
 1.0500	36.4360
 1.0510	36.4410
 1.0520	36.4420
 1.0530	36.4470
 1.0540	36.4500
 1.0550	36.4560
 1.0560	36.4670
 1.0570	36.4730
 1.0580	36.4760
 1.0590	36.4820
 1.0600	36.4890
 1.0610	36.4930
 1.0620	36.4950
 1.0630	36.4990
 1.0640	36.5030
 1.0650	36.5060
 1.0660	36.5120
 1.0670	36.5170
 1.0680	36.5220
 1.0690	36.5250
 1.0700	36.5280
 1.0710	36.5300
 1.0720	36.5340
 1.0730	36.5350
 1.0740	36.5400
 1.0750	36.5480
 1.0760	36.5540
 1.0770	36.5610
 1.0780	36.5630
 1.0790	36.5630
 1.0800	36.5640
 1.0810	36.5620
 1.0820	36.5620
 1.0830	36.5640
 1.0840	36.5650
 1.0850	36.5670
 1.0860	36.5690
 1.0870	36.5710
 1.0880	36.5720
 1.0890	36.5750
 1.0900	36.5790
 1.0910	36.5790
 1.0920	36.5770
 1.0930	36.5750
 1.0940	36.5700
 1.0950	36.5680
 1.0960	36.5680
 1.0970	36.5670
 1.0980	36.5660
 1.0990	36.5650
 1.1000	36.5630
 1.1010	36.5610
 1.1020	36.5590
 1.1030	36.5550
 1.1040	36.5540
 1.1050	36.5520
 1.1060	36.5470
 1.1070	36.5410
 1.1080	36.5350
 1.1090	36.5260
 1.1100	36.5200
 1.1110	36.5170
 1.1120	36.5090
 1.1130	36.5010
 1.1140	36.4920
 1.1150	36.4790
 1.1160	36.4670
 1.1170	36.4550
 1.1180	36.4430
 1.1190	36.4320
 1.1200	36.4180
 1.1210	36.4040
 1.1220	36.3870
 1.1230	36.3650
 1.1240	36.3420
 1.1250	36.3170
 1.1260	36.2890
 1.1270	36.2590
 1.1280	36.2270
 1.1290	36.1910
 1.1300	36.1510
 1.1310	36.1080
 1.1320	36.0630
 1.1330	36.0140
 1.1340	35.9600
 1.1350	35.9060
 1.1360	35.8500
 1.1370	35.7920
 1.1380	35.7340
 1.1390	35.6720
 1.1400	35.6090
 1.1410	35.5440
 1.1420	35.4800
 1.1430	35.4160
 1.1440	35.3520
 1.1450	35.2870
 1.1460	35.2230
 1.1470	35.1580
 1.1480	35.0960
 1.1490	35.0350
 1.1500	34.9760
 1.1510	34.9200
 1.1520	34.8670
 1.1530	34.8160
 1.1540	34.7680
 1.1550	34.7230
 1.1560	34.6780
 1.1570	34.6380
 1.1580	34.6020
 1.1590	34.5660
 1.1600	34.5360
 1.1610	34.5080
 1.1620	34.4790
 1.1630	34.4510
 1.1640	34.4250
 1.1650	34.4010
 1.1660	34.3780
 1.1670	34.3580
 1.1680	34.3430
 1.1690	34.3240
 1.1700	34.3040
 1.1710	34.2860
 1.1720	34.2660
 1.1730	34.2500
 1.1740	34.2370
 1.1750	34.2230
 1.1760	34.2090
 1.1770	34.1960
 1.1780	34.1800
 1.1790	34.1640
 1.1800	34.1480
 1.1810	34.1320
 1.1820	34.1170
 1.1830	34.1010
 1.1840	34.0860
 1.1850	34.0700
 1.1860	34.0550
 1.1870	34.0410
 1.1880	34.0290
 1.1890	34.0190
 1.1900	34.0080
 1.1910	33.9970
 1.1920	33.9870
 1.1930	33.9750
 1.1940	33.9670
 1.1950	33.9600
 1.1960	33.9540
 1.1970	33.9490
 1.1980	33.9450
 1.1990	33.9420
 1.2000	33.9400
 1.2010	33.9400
 1.2020	33.9410
 1.2030	33.9420
 1.2040	33.9450
 1.2050	33.9500
 1.2060	33.9590
 1.2070	33.9690
 1.2080	33.9800
 1.2090	33.9900
 1.2100	34.0010
 1.2110	34.0140
 1.2120	34.0270
 1.2130	34.0420
 1.2140	34.0590
 1.2150	34.0760
 1.2160	34.0940
 1.2170	34.1120
 1.2180	34.1310
 1.2190	34.1500
 1.2200	34.1700
 1.2210	34.1900
 1.2220	34.2090
 1.2230	34.2290
 1.2240	34.2500
 1.2250	34.2700
 1.2260	34.2900
 1.2270	34.3100
 1.2280	34.3280
 1.2290	34.3460
 1.2300	34.3630
 1.2310	34.3780
 1.2320	34.3920
 1.2330	34.4050
 1.2340	34.4190
 1.2350	34.4340
 1.2360	34.4470
 1.2370	34.4590
 1.2380	34.4710
 1.2390	34.4820
 1.2400	34.4920
 1.2410	34.5020
 1.2420	34.5120
 1.2430	34.5210
 1.2440	34.5310
 1.2450	34.5410
 1.2460	34.5500
 1.2470	34.5590
 1.2480	34.5670
 1.2490	34.5740
 1.2500	34.5810
 1.2510	34.5880
 1.2520	34.5930
 1.2530	34.5980
 1.2540	34.6040
 1.2550	34.6070
 1.2560	34.6110
 1.2570	34.6150
 1.2580	34.6190
 1.2590	34.6220
 1.2600	34.6270
 1.2610	34.6290
 1.2620	34.6300
 1.2630	34.6300
 1.2640	34.6310
 1.2650	34.6330
 1.2660	34.6350
 1.2670	34.6340
 1.2680	34.6300
 1.2690	34.6270
 1.2700	34.6230
 1.2710	34.6200
 1.2720	34.6170
 1.2730	34.6120
 1.2740	34.6070
 1.2750	34.6010
 1.2760	34.5940
 1.2770	34.5880
 1.2780	34.5810
 1.2790	34.5720
 1.2800	34.5640
 1.2810	34.5550
 1.2820	34.5450
 1.2830	34.5340
 1.2840	34.5220
 1.2850	34.5100
 1.2860	34.4970
 1.2870	34.4830
 1.2880	34.4690
 1.2890	34.4550
 1.2900	34.4380
 1.2910	34.4230
 1.2920	34.4080
 1.2930	34.3910
 1.2940	34.3740
 1.2950	34.3560
 1.2960	34.3350
 1.2970	34.3150
 1.2980	34.2920
 1.2990	34.2710
 1.3000	34.2500
 1.3010	34.2270
 1.3020	34.2030
 1.3030	34.1770
 1.3040	34.1480
 1.3050	34.1210
 1.3060	34.0920
 1.3070	34.0600
 1.3080	34.0270
 1.3090	33.9910
 1.3100	33.9540
 1.3110	33.9180
 1.3120	33.8770
 1.3130	33.8340
 1.3140	33.7910
 1.3150	33.7450
 1.3160	33.6980
 1.3170	33.6500
 1.3180	33.6000
 1.3190	33.5470
 1.3200	33.4910
 1.3210	33.4330
 1.3220	33.3760
 1.3230	33.3160
 1.3240	33.2540
 1.3250	33.1910
 1.3260	33.1260
 1.3270	33.0590
 1.3280	32.9910
 1.3290	32.9200
 1.3300	32.8460
 1.3310	32.7710
 1.3320	32.6940
 1.3330	32.6180
 1.3340	32.5410
 1.3350	32.4650
 1.3360	32.3890
 1.3370	32.3090
 1.3380	32.2290
 1.3390	32.1500
 1.3400	32.0700
 1.3410	31.9930
 1.3420	31.9160
 1.3430	31.8380
 1.3440	31.7610
 1.3450	31.6830
 1.3460	31.6040
 1.3470	31.5260
 1.3480	31.4490
 1.3490	31.3730
 1.3500	31.2990
 1.3510	31.2250
 1.3520	31.1520
 1.3530	31.0790
 1.3540	31.0050
 1.3550	30.9300
 1.3560	30.8550
 1.3570	30.7800
 1.3580	30.7040
 1.3590	30.6280
 1.3600	30.5510
 1.3610	30.4720
 1.3620	30.3900
 1.3630	30.3060
 1.3640	30.2200
 1.3650	30.1300
 1.3660	30.0360
 1.3670	29.9390
 1.3680	29.8340
 1.3690	29.7230
 1.3700	29.6040
 1.3710	29.4770
 1.3720	29.3410
 1.3730	29.1940
 1.3740	29.0370
 1.3750	28.8680
 1.3760	28.6860
 1.3770	28.4900
 1.3780	28.2760
 1.3790	28.0480
 1.3800	27.8040
 1.3810	27.5410
 1.3820	27.2630
 1.3830	26.9710
 1.3840	26.6630
 1.3850	26.3380
 1.3860	26.0010
 1.3870	25.6470
 1.3880	25.2860
 1.3890	24.9120
 1.3900	24.5270
 1.3910	24.1350
 1.3920	23.7350
 1.3930	23.3270
 1.3940	22.9160
 1.3950	22.5000
 1.3960	22.0820
 1.3970	21.6690
 1.3980	21.2580
 1.3990	20.8570
 1.4000	20.4630
 1.4010	20.0740
 1.4020	19.6980
 1.4030	19.3290
 1.4040	18.9730
 1.4050	18.6310
 1.4060	18.3010
 1.4070	17.9870
 1.4080	17.6870
 1.4090	17.3990
 1.4100	17.1270
 1.4110	16.8670
 1.4120	16.6240
 1.4130	16.3950
 1.4140	16.1780
 1.4150	15.9770
 1.4160	15.7870
 1.4170	15.6070
 1.4180	15.4410
 1.4190	15.2850
 1.4200	15.1380
 1.4210	15.0020
 1.4220	14.8750
 1.4230	14.7570
 1.4240	14.6480
 1.4250	14.5460
 1.4260	14.4530
 1.4270	14.3650
 1.4280	14.2840
 1.4290	14.2100
 1.4300	14.1410
 1.4310	14.0780
 1.4320	14.0230
 1.4330	13.9720
 1.4340	13.9260
 1.4350	13.8840
 1.4360	13.8470
 1.4370	13.8150
 1.4380	13.7880
 1.4390	13.7640
 1.4400	13.7450
 1.4410	13.7290
 1.4420	13.7140
 1.4430	13.7030
 1.4440	13.6940
 1.4450	13.6870
 1.4460	13.6840
 1.4470	13.6830
 1.4480	13.6850
 1.4490	13.6890
 1.4500	13.6940
 1.4510	13.6990
 1.4520	13.7060
 1.4530	13.7140
 1.4540	13.7240
 1.4550	13.7360
 1.4560	13.7510
 1.4570	13.7690
 1.4580	13.7890
 1.4590	13.8110
 1.4600	13.8370
 1.4610	13.8650
 1.4620	13.8960
 1.4630	13.9320
 1.4640	13.9710
 1.4650	14.0140
 1.4660	14.0600
 1.4670	14.1110
 1.4680	14.1660
 1.4690	14.2260
 1.4700	14.2890
 1.4710	14.3570
 1.4720	14.4270
 1.4730	14.4980
 1.4740	14.5730
 1.4750	14.6500
 1.4760	14.7300
 1.4770	14.8120
