Name: Salvia leucophylla 3
Type: vegetation
Class: Shrub
Genus: Salvia
Species: leucophylla
Sample No.: VH096
Owner: UCSB
Wavelength Range: TIR
Origin: 34.698; -120.0477; WGS84
Collection Date: 4/21/2013
Description: Samples were collected as part of the HyspIRI Airborne Campaign. 48 individual plants were sampled in three times in 2013 - spring  summer  and fall. The name of the sample includes a 1  2  or 3 which references a different individual of the species. Samples were taken to JPL and processed within 48 hours of collection. The same leaves were processed in the Nicolet and then measured using the ASD.
Measurement: Hemispherical reflectance
First Column: X
Second Column: Y
X Units: Wavelength (micrometers)
Y Units: Reflectance (percentage)
First X Value: 2.501
Last X Value: 15.387
Number of X Values: 1737
Additional Information: vegetation.shrub.salvia.leucophylla.tir.vh096.ucsb.nicolet.ancillary.txt

 2.5010	28.2420
 2.5030	28.2830
 2.5040	28.3650
 2.5050	28.4400
 2.5060	28.3220
 2.5070	28.1700
 2.5090	28.3030
 2.5100	28.2790
 2.5110	28.1890
 2.5120	28.1700
 2.5140	28.2170
 2.5150	28.1750
 2.5160	28.2060
 2.5170	28.1570
 2.5180	28.1700
 2.5200	28.1330
 2.5210	28.1710
 2.5220	28.2130
 2.5230	28.1760
 2.5250	28.1710
 2.5260	28.3290
 2.5270	28.2980
 2.5280	28.2240
 2.5290	28.1590
 2.5310	28.2270
 2.5320	28.2080
 2.5330	28.2530
 2.5340	28.3650
 2.5360	28.4130
 2.5370	28.3350
 2.5380	28.2820
 2.5390	28.2800
 2.5410	28.3840
 2.5420	28.3530
 2.5430	28.3960
 2.5440	28.4500
 2.5460	28.4350
 2.5470	28.3190
 2.5480	28.3610
 2.5490	28.4080
 2.5510	28.4160
 2.5520	28.3750
 2.5530	28.4240
 2.5540	28.4560
 2.5560	28.5280
 2.5570	28.5590
 2.5580	28.5130
 2.5590	28.3970
 2.5610	28.4650
 2.5620	28.5430
 2.5630	28.5380
 2.5640	28.4830
 2.5660	28.5820
 2.5670	28.5490
 2.5680	28.4630
 2.5700	28.4700
 2.5710	28.5610
 2.5720	28.5950
 2.5730	28.5020
 2.5750	28.4990
 2.5760	28.5970
 2.5770	28.4960
 2.5790	28.6000
 2.5800	28.6180
 2.5810	28.5020
 2.5820	28.3820
 2.5840	28.4990
 2.5850	28.5600
 2.5860	28.5640
 2.5880	28.5130
 2.5890	28.5890
 2.5900	28.6050
 2.5910	28.6290
 2.5930	28.5350
 2.5940	28.4380
 2.5950	28.3230
 2.5970	28.3860
 2.5980	28.3310
 2.5990	28.3390
 2.6000	28.3440
 2.6020	28.3990
 2.6030	28.3730
 2.6040	28.3040
 2.6060	28.2120
 2.6070	28.2900
 2.6080	28.2970
 2.6100	28.3140
 2.6110	28.2570
 2.6120	28.2040
 2.6140	28.1120
 2.6150	28.1640
 2.6160	28.1480
 2.6180	28.1430
 2.6190	28.0610
 2.6200	27.9800
 2.6220	28.0060
 2.6230	28.0940
 2.6240	27.9870
 2.6260	27.9590
 2.6270	27.9600
 2.6280	27.9650
 2.6300	27.7930
 2.6310	27.7620
 2.6320	27.8310
 2.6340	27.8370
 2.6350	27.8310
 2.6360	27.8610
 2.6380	27.7080
 2.6390	27.7080
 2.6400	27.6300
 2.6420	27.5320
 2.6430	27.4950
 2.6440	27.5140
 2.6460	27.5060
 2.6470	27.4220
 2.6480	27.2630
 2.6500	27.2650
 2.6510	27.2150
 2.6520	27.1950
 2.6540	27.1490
 2.6550	27.1580
 2.6560	27.1540
 2.6580	27.1580
 2.6590	26.9680
 2.6610	26.9310
 2.6620	26.8860
 2.6630	26.8260
 2.6650	26.5590
 2.6660	26.4500
 2.6670	26.4460
 2.6690	26.4900
 2.6700	26.4000
 2.6720	26.4800
 2.6730	26.4460
 2.6740	26.3550
 2.6760	26.3020
 2.6770	26.2420
 2.6780	26.1280
 2.6800	26.0360
 2.6810	25.9870
 2.6830	25.9590
 2.6840	25.7520
 2.6850	25.6420
 2.6870	25.5570
 2.6880	25.4850
 2.6900	25.3390
 2.6910	25.1760
 2.6920	24.9270
 2.6940	24.8220
 2.6950	24.6970
 2.6970	24.5170
 2.6980	24.2730
 2.6990	24.1270
 2.7010	23.9500
 2.7020	23.8160
 2.7040	23.5720
 2.7050	23.3770
 2.7060	23.1900
 2.7080	23.0490
 2.7090	22.7730
 2.7110	22.5920
 2.7120	22.4320
 2.7130	22.3310
 2.7150	22.1250
 2.7160	21.8580
 2.7180	21.5250
 2.7190	21.2690
 2.7210	20.8910
 2.7220	20.6590
 2.7230	20.4020
 2.7250	20.0390
 2.7260	19.8040
 2.7280	19.8200
 2.7290	19.6230
 2.7310	19.3450
 2.7320	19.0640
 2.7330	18.8120
 2.7350	18.6470
 2.7360	18.5460
 2.7380	18.2880
 2.7390	18.1880
 2.7410	17.9630
 2.7420	17.7110
 2.7440	17.4560
 2.7450	17.3150
 2.7470	17.1110
 2.7480	17.0820
 2.7490	16.9370
 2.7510	16.8080
 2.7520	16.6580
 2.7540	16.6090
 2.7550	16.3170
 2.7570	16.1150
 2.7580	16.0210
 2.7600	15.9020
 2.7610	15.8060
 2.7630	15.8810
 2.7640	15.8360
 2.7660	15.7360
 2.7670	15.5120
 2.7680	15.3250
 2.7700	15.1900
 2.7710	15.1800
 2.7730	15.1570
 2.7740	15.1260
 2.7760	14.9900
 2.7770	15.0220
 2.7790	14.8570
 2.7800	14.7340
 2.7820	14.5760
 2.7830	14.4500
 2.7850	14.4550
 2.7860	14.5580
 2.7880	14.4350
 2.7890	14.3570
 2.7910	14.3200
 2.7920	14.3430
 2.7940	14.2190
 2.7950	14.1080
 2.7970	13.9740
 2.7980	14.0160
 2.8000	14.0120
 2.8010	13.9830
 2.8030	13.8560
 2.8040	13.8150
 2.8060	13.7010
 2.8070	13.6950
 2.8090	13.5750
 2.8110	13.5900
 2.8120	13.6500
 2.8140	13.7710
 2.8150	13.5760
 2.8170	13.4460
 2.8180	13.3440
 2.8200	13.2160
 2.8210	13.1040
 2.8230	13.2660
 2.8240	13.3180
 2.8260	13.3370
 2.8270	13.2210
 2.8290	13.1730
 2.8300	13.0650
 2.8320	12.9480
 2.8340	13.0150
 2.8350	13.1260
 2.8370	12.9900
 2.8380	12.9790
 2.8400	13.0620
 2.8410	13.1460
 2.8430	13.0050
 2.8440	12.9980
 2.8460	12.8920
 2.8480	12.9130
 2.8490	12.9040
 2.8510	12.8730
 2.8520	12.7440
 2.8540	12.7600
 2.8550	12.7500
 2.8570	12.8500
 2.8590	12.8070
 2.8600	12.8670
 2.8620	12.8810
 2.8630	12.8210
 2.8650	12.8010
 2.8660	12.9150
 2.8680	12.7930
 2.8700	12.7040
 2.8710	12.6460
 2.8730	12.6360
 2.8740	12.5560
 2.8760	12.5900
 2.8780	12.5420
 2.8790	12.5510
 2.8810	12.5230
 2.8820	12.6760
 2.8840	12.5810
 2.8860	12.3870
 2.8870	12.2700
 2.8890	12.4940
 2.8900	12.5890
 2.8920	12.5360
 2.8940	12.4020
 2.8950	12.3820
 2.8970	12.3040
 2.8980	12.3870
 2.9000	12.3630
 2.9020	12.3790
 2.9030	12.4540
 2.9050	12.4130
 2.9070	12.3550
 2.9080	12.3980
 2.9100	12.3210
 2.9120	12.2860
 2.9130	12.1480
 2.9150	12.2390
 2.9160	12.3690
 2.9180	12.4150
 2.9200	12.3300
 2.9210	12.3790
 2.9230	12.4150
 2.9250	12.4270
 2.9260	12.2740
 2.9280	12.2280
 2.9300	12.1860
 2.9310	12.2630
 2.9330	12.3400
 2.9350	12.3600
 2.9360	12.1980
 2.9380	12.3210
 2.9400	12.4110
 2.9410	12.3320
 2.9430	12.2500
 2.9450	12.3930
 2.9460	12.3750
 2.9480	12.3880
 2.9500	12.4010
 2.9510	12.4360
 2.9530	12.4250
 2.9550	12.5430
 2.9560	12.4140
 2.9580	12.3740
 2.9600	12.3300
 2.9610	12.3310
 2.9630	12.2090
 2.9650	12.2380
 2.9660	12.6720
 2.9680	12.8580
 2.9700	12.5850
 2.9720	12.5850
 2.9730	12.3230
 2.9750	12.5290
 2.9770	12.6710
 2.9780	12.5690
 2.9800	12.4360
 2.9820	12.6530
 2.9840	12.5160
 2.9850	12.4750
 2.9870	12.4040
 2.9890	12.0320
 2.9900	12.4500
 2.9920	13.1910
 2.9940	13.0030
 2.9960	12.4120
 2.9970	12.4670
 2.9990	12.9840
 3.0010	12.7010
 3.0030	12.4760
 3.0040	12.4780
 3.0060	12.7380
 3.0080	12.7320
 3.0100	12.6030
 3.0110	12.5290
 3.0130	12.7140
 3.0150	12.6160
 3.0170	12.7720
 3.0180	12.6530
 3.0200	12.2860
 3.0220	12.2960
 3.0240	12.5310
 3.0250	12.6060
 3.0270	12.6470
 3.0290	12.8200
 3.0310	12.8580
 3.0320	12.7050
 3.0340	12.8040
 3.0360	12.8260
 3.0380	12.7320
 3.0400	12.6990
 3.0410	12.6010
 3.0430	12.4020
 3.0450	12.8430
 3.0470	12.7380
 3.0480	13.0440
 3.0500	12.9580
 3.0520	12.3040
 3.0540	12.0350
 3.0560	12.3440
 3.0570	12.7910
 3.0590	12.8420
 3.0610	12.8980
 3.0630	13.1720
 3.0650	13.0960
 3.0660	13.1070
 3.0680	13.1190
 3.0700	13.1510
 3.0720	13.0050
 3.0740	12.9740
 3.0760	13.0550
 3.0770	13.0980
 3.0790	13.1630
 3.0810	13.1960
 3.0830	13.0670
 3.0850	13.1800
 3.0870	13.2480
 3.0880	13.2710
 3.0900	13.1630
 3.0920	13.2190
 3.0940	13.2740
 3.0960	13.3700
 3.0980	13.2620
 3.0990	13.1320
 3.1010	13.0700
 3.1030	13.2020
 3.1050	13.2790
 3.1070	13.4230
 3.1090	13.4650
 3.1110	13.4640
 3.1120	13.3350
 3.1140	13.4940
 3.1160	13.5890
 3.1180	13.4620
 3.1200	13.3360
 3.1220	13.3520
 3.1240	13.5000
 3.1260	13.5730
 3.1270	13.6020
 3.1290	13.5630
 3.1310	13.4830
 3.1330	13.5770
 3.1350	13.6170
 3.1370	13.6850
 3.1390	13.6420
 3.1410	13.5670
 3.1430	13.5320
 3.1450	13.6560
 3.1460	13.6380
 3.1480	13.8450
 3.1500	14.0290
 3.1520	13.9070
 3.1540	13.6700
 3.1560	13.7240
 3.1580	13.7890
 3.1600	13.8370
 3.1620	13.6950
 3.1640	13.5590
 3.1660	13.4860
 3.1680	13.8950
 3.1700	14.4720
 3.1710	14.9470
 3.1730	14.9520
 3.1750	14.6050
 3.1770	14.2950
 3.1790	14.4210
 3.1810	14.3430
 3.1830	14.1080
 3.1850	14.1130
 3.1870	14.3030
 3.1890	14.3390
 3.1910	14.3690
 3.1930	14.3850
 3.1950	14.3830
 3.1970	14.2770
 3.1990	14.3700
 3.2010	14.4620
 3.2030	14.5030
 3.2050	14.4320
 3.2070	14.4550
 3.2090	14.5120
 3.2110	14.6130
 3.2130	14.5640
 3.2150	14.5010
 3.2170	14.4880
 3.2190	14.5660
 3.2210	14.5740
 3.2230	14.6100
 3.2250	14.6170
 3.2270	14.6960
 3.2290	14.6430
 3.2310	14.5850
 3.2330	14.6840
 3.2350	14.7640
 3.2370	14.7350
 3.2390	14.7560
 3.2410	14.7480
 3.2430	14.7700
 3.2450	14.7120
 3.2470	14.7540
 3.2490	14.7850
 3.2510	14.8140
 3.2530	14.8690
 3.2550	14.9570
 3.2570	14.9690
 3.2590	15.0560
 3.2610	14.9890
 3.2630	14.9010
 3.2650	14.9050
 3.2670	15.0100
 3.2690	15.0490
 3.2720	15.0820
 3.2740	15.0570
 3.2760	15.1360
 3.2780	15.1320
 3.2800	15.1800
 3.2820	15.0880
 3.2840	15.0490
 3.2860	15.0440
 3.2880	15.1210
 3.2900	15.0960
 3.2920	15.1240
 3.2940	15.0560
 3.2960	15.0890
 3.2990	15.1370
 3.3010	15.2020
 3.3030	15.1630
 3.3050	15.2590
 3.3070	15.1540
 3.3090	15.0300
 3.3110	14.9590
 3.3130	14.9320
 3.3150	14.8210
 3.3180	14.7660
 3.3200	14.6770
 3.3220	14.6020
 3.3240	14.5290
 3.3260	14.4550
 3.3280	14.3420
 3.3300	14.2820
 3.3330	14.2390
 3.3350	14.0770
 3.3370	13.7410
 3.3390	13.6520
 3.3410	13.6000
 3.3430	13.4980
 3.3450	13.4150
 3.3480	13.3610
 3.3500	13.1900
 3.3520	13.1210
 3.3540	13.0930
 3.3560	13.0870
 3.3580	13.0050
 3.3610	12.9860
 3.3630	12.7960
 3.3650	12.7050
 3.3670	12.5340
 3.3690	12.4700
 3.3720	12.4650
 3.3740	12.4780
 3.3760	12.3820
 3.3780	12.3260
 3.3800	12.2520
 3.3830	12.2260
 3.3850	12.2360
 3.3870	12.1640
 3.3890	11.9840
 3.3910	11.8720
 3.3940	11.7300
 3.3960	11.6060
 3.3980	11.5300
 3.4000	11.6420
 3.4020	11.6650
 3.4050	11.6940
 3.4070	11.6350
 3.4090	11.5960
 3.4110	11.5580
 3.4140	11.5820
 3.4160	11.5610
 3.4180	11.7370
 3.4200	11.8720
 3.4230	11.9050
 3.4250	11.9970
 3.4270	12.1010
 3.4290	12.1310
 3.4320	12.2800
 3.4340	12.3440
 3.4360	12.3300
 3.4390	12.2920
 3.4410	12.3680
 3.4430	12.3950
 3.4450	12.4610
 3.4480	12.4960
 3.4500	12.6030
 3.4520	12.7590
 3.4550	12.8610
 3.4570	12.9140
 3.4590	13.0700
 3.4620	13.1180
 3.4640	13.1910
 3.4660	13.2000
 3.4680	13.2620
 3.4710	13.2540
 3.4730	13.2970
 3.4750	13.2900
 3.4780	13.2220
 3.4800	13.1450
 3.4820	13.1380
 3.4850	13.0310
 3.4870	12.9790
 3.4890	12.9360
 3.4920	12.8840
 3.4940	12.7630
 3.4970	12.7340
 3.4990	12.7070
 3.5010	12.7620
 3.5040	12.8200
 3.5060	12.8650
 3.5080	12.9370
 3.5110	13.1520
 3.5130	13.3650
 3.5160	13.6980
 3.5180	13.9090
 3.5200	14.1900
 3.5230	14.5290
 3.5250	14.8020
 3.5270	14.9310
 3.5300	15.1870
 3.5320	15.4040
 3.5350	15.5750
 3.5370	15.7440
 3.5400	15.9330
 3.5420	16.0570
 3.5440	16.1550
 3.5470	16.1640
 3.5490	16.2870
 3.5520	16.4330
 3.5540	16.6030
 3.5570	16.6640
 3.5590	16.7620
 3.5610	16.8800
 3.5640	16.9790
 3.5660	16.9900
 3.5690	17.0460
 3.5710	17.1450
 3.5740	17.2300
 3.5760	17.3390
 3.5790	17.4410
 3.5810	17.4260
 3.5840	17.4820
 3.5860	17.5440
 3.5890	17.6060
 3.5910	17.6780
 3.5930	17.7910
 3.5960	17.7910
 3.5980	17.7610
 3.6010	17.8180
 3.6030	18.0280
 3.6060	18.0470
 3.6080	18.0270
 3.6110	18.0280
 3.6140	18.1320
 3.6160	18.1950
 3.6190	18.2400
 3.6210	18.2140
 3.6240	18.2250
 3.6260	18.2420
 3.6290	18.3250
 3.6310	18.3960
 3.6340	18.3250
 3.6360	18.3020
 3.6390	18.3710
 3.6410	18.3530
 3.6440	18.4220
 3.6470	18.4690
 3.6490	18.4310
 3.6520	18.3330
 3.6540	18.3660
 3.6570	18.4310
 3.6590	18.5170
 3.6620	18.5220
 3.6650	18.5500
 3.6670	18.5500
 3.6700	18.6020
 3.6720	18.6290
 3.6750	18.6450
 3.6780	18.5970
 3.6800	18.5590
 3.6830	18.5520
 3.6850	18.6460
 3.6880	18.7070
 3.6910	18.7430
 3.6930	18.7010
 3.6960	18.6980
 3.6990	18.7300
 3.7010	18.8040
 3.7040	18.7770
 3.7060	18.7480
 3.7090	18.7230
 3.7120	18.7340
 3.7140	18.7800
 3.7170	18.8440
 3.7200	18.8290
 3.7220	18.8270
 3.7250	18.8140
 3.7280	18.9040
 3.7300	18.9270
 3.7330	18.9560
 3.7360	18.9550
 3.7390	18.9770
 3.7410	18.9700
 3.7440	18.9990
 3.7470	18.9630
 3.7490	18.9670
 3.7520	18.9760
 3.7550	18.9940
 3.7580	18.9650
 3.7600	18.9540
 3.7630	18.9570
 3.7660	18.9670
 3.7680	18.9480
 3.7710	19.0100
 3.7740	19.0470
 3.7770	19.0450
 3.7790	19.0870
 3.7820	19.1750
 3.7850	19.1910
 3.7880	19.2040
 3.7900	19.2150
 3.7930	19.2430
 3.7960	19.1780
 3.7990	19.2130
 3.8020	19.2960
 3.8040	19.3140
 3.8070	19.2630
 3.8100	19.2840
 3.8130	19.2980
 3.8160	19.3480
 3.8180	19.3890
 3.8210	19.5010
 3.8240	19.5200
 3.8270	19.4680
 3.8300	19.4670
 3.8330	19.5400
 3.8350	19.5500
 3.8380	19.6320
 3.8410	19.6470
 3.8440	19.6640
 3.8470	19.6990
 3.8500	19.7470
 3.8520	19.8210
 3.8550	19.8840
 3.8580	19.8430
 3.8610	19.8470
 3.8640	19.8580
 3.8670	19.8590
 3.8700	19.8910
 3.8730	19.9620
 3.8750	19.9510
 3.8780	19.9640
 3.8810	20.0000
 3.8840	20.0750
 3.8870	20.0600
 3.8900	20.0950
 3.8930	20.1540
 3.8960	20.2450
 3.8990	20.2820
 3.9020	20.2920
 3.9050	20.3620
 3.9080	20.3860
 3.9110	20.3850
 3.9140	20.4590
 3.9160	20.4910
 3.9190	20.4880
 3.9220	20.4780
 3.9250	20.5540
 3.9280	20.5820
 3.9310	20.5390
 3.9340	20.5360
 3.9370	20.6200
 3.9400	20.6160
 3.9430	20.6220
 3.9460	20.6580
 3.9490	20.7450
 3.9520	20.7870
 3.9550	20.8080
 3.9580	20.8260
 3.9610	20.9130
 3.9640	20.9470
 3.9670	21.0070
 3.9700	21.0730
 3.9730	21.1150
 3.9770	21.1390
 3.9800	21.2350
 3.9830	21.2710
 3.9860	21.3350
 3.9890	21.4160
 3.9920	21.4810
 3.9950	21.4540
 3.9980	21.4750
 4.0010	21.5260
 4.0040	21.6020
 4.0070	21.6080
 4.0100	21.6260
 4.0130	21.6720
 4.0170	21.7300
 4.0200	21.7920
 4.0230	21.9030
 4.0260	21.9570
 4.0290	22.0260
 4.0320	22.0470
 4.0350	22.0430
 4.0380	22.0310
 4.0420	22.1260
 4.0450	22.1790
 4.0480	22.2060
 4.0510	22.2500
 4.0540	22.3070
 4.0570	22.3430
 4.0610	22.4610
 4.0640	22.5380
 4.0670	22.6070
 4.0700	22.6440
 4.0730	22.6300
 4.0770	22.6530
 4.0800	22.7600
 4.0830	22.7100
 4.0860	22.6880
 4.0890	22.7300
 4.0930	22.8080
 4.0960	22.7760
 4.0990	22.8300
 4.1020	22.9440
 4.1060	23.0090
 4.1090	23.0180
 4.1120	23.0920
 4.1150	23.0830
 4.1190	23.0370
 4.1220	23.0400
 4.1250	23.1320
 4.1280	23.1980
 4.1320	23.2660
 4.1350	23.2780
 4.1380	23.2640
 4.1420	23.2650
 4.1450	23.2930
 4.1480	23.3360
 4.1520	23.3760
 4.1550	23.3970
 4.1580	23.4000
 4.1620	23.3890
 4.1650	23.4310
 4.1680	23.3900
 4.1720	23.3850
 4.1750	23.4500
 4.1780	23.5000
 4.1820	23.5080
 4.1850	23.6170
 4.1890	23.6600
 4.1920	23.6110
 4.1950	23.5970
 4.1990	23.6650
 4.2020	23.7240
 4.2060	23.8080
 4.2090	23.8490
 4.2120	23.8320
 4.2160	23.8440
 4.2190	23.8950
 4.2230	23.9070
 4.2260	23.9220
 4.2300	23.8480
 4.2330	23.8510
 4.2360	23.9290
 4.2400	24.0840
 4.2430	24.0540
 4.2470	23.9120
 4.2500	23.8460
 4.2540	23.9380
 4.2570	24.0810
 4.2610	24.1400
 4.2640	24.0600
 4.2680	24.0770
 4.2710	24.0000
 4.2750	24.0940
 4.2780	24.1870
 4.2820	24.1400
 4.2850	24.1510
 4.2890	24.1880
 4.2930	24.0890
 4.2960	24.0970
 4.3000	24.0860
 4.3030	23.9520
 4.3070	23.9090
 4.3100	23.9630
 4.3140	24.0100
 4.3180	24.0440
 4.3210	24.0110
 4.3250	23.9650
 4.3280	23.9680
 4.3320	23.9330
 4.3360	23.9090
 4.3390	23.8830
 4.3430	23.8880
 4.3470	23.9320
 4.3500	23.9130
 4.3540	23.8490
 4.3570	23.8370
 4.3610	23.8750
 4.3650	23.9020
 4.3680	23.9520
 4.3720	23.9680
 4.3760	23.8780
 4.3800	23.8300
 4.3830	23.8830
 4.3870	23.8800
 4.3910	23.8940
 4.3940	23.9450
 4.3980	23.9350
 4.4020	23.8740
 4.4060	23.8720
 4.4090	23.8790
 4.4130	23.9050
 4.4170	23.8770
 4.4210	23.8320
 4.4240	23.8860
 4.4280	23.8970
 4.4320	23.8370
 4.4360	23.8120
 4.4400	23.8120
 4.4430	23.7490
 4.4470	23.6920
 4.4510	23.7550
 4.4550	23.7470
 4.4590	23.7570
 4.4620	23.7390
 4.4660	23.7240
 4.4700	23.7290
 4.4740	23.7010
 4.4780	23.6640
 4.4820	23.6670
 4.4860	23.6280
 4.4900	23.5760
 4.4930	23.5270
 4.4970	23.4930
 4.5010	23.5270
 4.5050	23.5640
 4.5090	23.5490
 4.5130	23.5350
 4.5170	23.4980
 4.5210	23.5220
 4.5250	23.5010
 4.5290	23.4440
 4.5330	23.4110
 4.5370	23.4030
 4.5410	23.3930
 4.5450	23.3810
 4.5490	23.3330
 4.5530	23.3190
 4.5570	23.2710
 4.5610	23.2380
 4.5650	23.2460
 4.5690	23.2050
 4.5730	23.1990
 4.5770	23.2310
 4.5810	23.2010
 4.5850	23.1640
 4.5890	23.1820
 4.5930	23.2450
 4.5970	23.2520
 4.6010	23.1710
 4.6050	23.1460
 4.6090	23.1230
 4.6130	23.1570
 4.6170	23.1850
 4.6220	23.1950
 4.6260	23.2060
 4.6300	23.2110
 4.6340	23.1270
 4.6380	23.0870
 4.6420	23.1410
 4.6460	23.1810
 4.6510	23.1250
 4.6550	23.0700
 4.6590	23.0910
 4.6630	23.1180
 4.6670	23.1620
 4.6720	23.1390
 4.6760	23.0880
 4.6800	23.1430
 4.6840	23.1620
 4.6880	23.1540
 4.6930	23.1750
 4.6970	23.1560
 4.7010	23.1410
 4.7050	23.1690
 4.7100	23.1720
 4.7140	23.1470
 4.7180	23.1450
 4.7230	23.1610
 4.7270	23.1930
 4.7310	23.2260
 4.7360	23.2680
 4.7400	23.2730
 4.7440	23.2640
 4.7490	23.2090
 4.7530	23.2070
 4.7570	23.3020
 4.7620	23.2920
 4.7660	23.3000
 4.7700	23.3680
 4.7750	23.4280
 4.7790	23.4580
 4.7840	23.3820
 4.7880	23.3350
 4.7920	23.4960
 4.7970	23.5070
 4.8010	23.3620
 4.8060	23.3660
 4.8100	23.4180
 4.8150	23.4850
 4.8190	23.4990
 4.8240	23.5000
 4.8280	23.4970
 4.8330	23.4930
 4.8370	23.5080
 4.8420	23.4780
 4.8460	23.5030
 4.8510	23.5740
 4.8550	23.5830
 4.8600	23.5870
 4.8640	23.6220
 4.8690	23.6480
 4.8730	23.6350
 4.8780	23.6190
 4.8830	23.6180
 4.8870	23.6320
 4.8920	23.6720
 4.8960	23.7010
 4.9010	23.7270
 4.9060	23.7400
 4.9100	23.7050
 4.9150	23.6500
 4.9200	23.6710
 4.9240	23.7240
 4.9290	23.7440
 4.9340	23.7620
 4.9380	23.7830
 4.9430	23.7800
 4.9480	23.8180
 4.9530	23.8870
 4.9570	23.9220
 4.9620	23.8960
 4.9670	23.9090
 4.9720	23.9270
 4.9760	23.9740
 4.9810	24.0170
 4.9860	24.0080
 4.9910	24.0330
 4.9960	24.0830
 5.0000	24.1180
 5.0050	24.1080
 5.0100	24.0960
 5.0150	24.1310
 5.0200	24.1740
 5.0250	24.1760
 5.0290	24.1820
 5.0340	24.2050
 5.0390	24.2420
 5.0440	24.2620
 5.0490	24.2580
 5.0540	24.2810
 5.0590	24.3080
 5.0640	24.3050
 5.0690	24.2760
 5.0740	24.2950
 5.0790	24.3080
 5.0840	24.3030
 5.0890	24.3230
 5.0940	24.3700
 5.0990	24.3800
 5.1040	24.4040
 5.1090	24.3880
 5.1140	24.3960
 5.1190	24.4150
 5.1240	24.4230
 5.1290	24.3990
 5.1340	24.4070
 5.1390	24.4480
 5.1440	24.4450
 5.1490	24.4030
 5.1540	24.4140
 5.1600	24.4090
 5.1650	24.4080
 5.1700	24.4180
 5.1750	24.4380
 5.1800	24.4120
 5.1850	24.3920
 5.1910	24.3880
 5.1960	24.3570
 5.2010	24.3090
 5.2060	24.2990
 5.2110	24.3100
 5.2170	24.3380
 5.2220	24.3370
 5.2270	24.3320
 5.2320	24.2670
 5.2380	24.2440
 5.2430	24.2840
 5.2480	24.3290
 5.2540	24.2570
 5.2590	24.2620
 5.2640	24.2740
 5.2700	24.2030
 5.2750	24.1320
 5.2800	24.1640
 5.2860	24.1530
 5.2910	24.1050
 5.2970	24.1180
 5.3020	24.1670
 5.3070	24.1310
 5.3130	24.1190
 5.3180	24.0200
 5.3240	23.9660
 5.3290	23.9610
 5.3350	23.9720
 5.3400	23.9280
 5.3460	23.9020
 5.3510	23.9530
 5.3570	23.9640
 5.3620	23.9100
 5.3680	23.8450
 5.3730	23.7950
 5.3790	23.8060
 5.3850	23.8130
 5.3900	23.7680
 5.3960	23.7370
 5.4010	23.7160
 5.4070	23.6660
 5.4130	23.6520
 5.4180	23.5580
 5.4240	23.4680
 5.4300	23.4350
 5.4350	23.4590
