Name: Quercus douglasii 2
Type: vegetation
Class: Tree
Genus: Quercus
Species: douglasii
Sample No.: VH077
Owner: UCSB
Wavelength Range: VSWIR
Origin: 34.7157; -120.0601; WGS84
Collection Date: 4/21/2013
Description: Samples were collected as part of the HyspIRI Airborne Campaign. 48 individual plants were sampled in three times in 2013 - spring  summer  and fall. The name of the sample includes a 1  2  or 3 which references a different individual of the species. Samples were taken to JPL and processed within 48 hours of collection. The same leaves were processed in the Nicolet and then measured using the ASD.
Measurement: Bidirectional reflectance
First Column: X
Second Column: Y
X Units: Wavelength (micrometers)
Y Units: Reflectance (percentage)
First X Value: 0.35
Last X Value: 2.5
Number of X Values: 2151
Additional Information: vegetation.tree.quercus.douglasii.vswir.vh077.ucsb.asd.ancillary.txt

 0.3500	 5.9510
 0.3510	 5.5590
 0.3520	 5.6890
 0.3530	 5.9740
 0.3540	 5.9810
 0.3550	 5.8200
 0.3560	 5.7340
 0.3570	 5.7510
 0.3580	 5.7800
 0.3590	 5.8350
 0.3600	 5.8110
 0.3610	 5.7140
 0.3620	 5.7170
 0.3630	 5.7500
 0.3640	 5.7480
 0.3650	 5.6920
 0.3660	 5.7340
 0.3670	 5.7460
 0.3680	 5.7030
 0.3690	 5.6600
 0.3700	 5.6860
 0.3710	 5.7210
 0.3720	 5.7370
 0.3730	 5.7950
 0.3740	 5.8320
 0.3750	 5.7710
 0.3760	 5.6100
 0.3770	 5.6640
 0.3780	 5.7230
 0.3790	 5.7380
 0.3800	 5.8110
 0.3810	 5.8280
 0.3820	 5.8610
 0.3830	 5.9320
 0.3840	 5.8930
 0.3850	 5.8350
 0.3860	 5.7720
 0.3870	 5.7100
 0.3880	 5.7730
 0.3890	 5.8520
 0.3900	 5.8810
 0.3910	 5.8570
 0.3920	 5.8550
 0.3930	 5.8710
 0.3940	 5.8950
 0.3950	 5.9550
 0.3960	 5.9570
 0.3970	 5.9440
 0.3980	 6.0020
 0.3990	 6.0260
 0.4000	 6.0260
 0.4010	 6.0290
 0.4020	 6.0690
 0.4030	 6.1180
 0.4040	 6.1460
 0.4050	 6.1420
 0.4060	 6.1560
 0.4070	 6.1780
 0.4080	 6.2050
 0.4090	 6.2410
 0.4100	 6.2680
 0.4110	 6.2980
 0.4120	 6.3340
 0.4130	 6.3650
 0.4140	 6.4180
 0.4150	 6.4680
 0.4160	 6.4830
 0.4170	 6.4810
 0.4180	 6.5010
 0.4190	 6.5490
 0.4200	 6.6050
 0.4210	 6.6570
 0.4220	 6.6920
 0.4230	 6.7110
 0.4240	 6.7460
 0.4250	 6.7880
 0.4260	 6.8190
 0.4270	 6.8230
 0.4280	 6.8510
 0.4290	 6.8890
 0.4300	 6.9200
 0.4310	 6.9360
 0.4320	 6.9580
 0.4330	 6.9890
 0.4340	 7.0240
 0.4350	 7.0440
 0.4360	 7.0450
 0.4370	 7.0440
 0.4380	 7.0750
 0.4390	 7.0990
 0.4400	 7.1140
 0.4410	 7.1240
 0.4420	 7.1430
 0.4430	 7.1510
 0.4440	 7.1570
 0.4450	 7.1780
 0.4460	 7.1890
 0.4470	 7.1970
 0.4480	 7.2050
 0.4490	 7.2120
 0.4500	 7.2290
 0.4510	 7.2460
 0.4520	 7.2510
 0.4530	 7.2560
 0.4540	 7.2590
 0.4550	 7.2680
 0.4560	 7.2930
 0.4570	 7.2980
 0.4580	 7.2940
 0.4590	 7.2920
 0.4600	 7.2920
 0.4610	 7.3040
 0.4620	 7.3160
 0.4630	 7.3140
 0.4640	 7.3190
 0.4650	 7.3220
 0.4660	 7.3190
 0.4670	 7.3160
 0.4680	 7.3200
 0.4690	 7.3230
 0.4700	 7.3250
 0.4710	 7.3450
 0.4720	 7.3440
 0.4730	 7.3310
 0.4740	 7.3370
 0.4750	 7.3350
 0.4760	 7.3360
 0.4770	 7.3430
 0.4780	 7.3380
 0.4790	 7.3490
 0.4800	 7.3550
 0.4810	 7.3390
 0.4820	 7.3430
 0.4830	 7.3610
 0.4840	 7.3730
 0.4850	 7.3590
 0.4860	 7.3600
 0.4870	 7.3670
 0.4880	 7.3720
 0.4890	 7.3890
 0.4900	 7.3970
 0.4910	 7.4010
 0.4920	 7.4100
 0.4930	 7.4200
 0.4940	 7.4300
 0.4950	 7.4380
 0.4960	 7.4460
 0.4970	 7.4610
 0.4980	 7.4840
 0.4990	 7.5090
 0.5000	 7.5200
 0.5010	 7.5360
 0.5020	 7.5610
 0.5030	 7.5820
 0.5040	 7.6150
 0.5050	 7.6540
 0.5060	 7.6920
 0.5070	 7.7330
 0.5080	 7.7820
 0.5090	 7.8370
 0.5100	 7.8960
 0.5110	 7.9630
 0.5120	 8.0400
 0.5130	 8.1280
 0.5140	 8.2250
 0.5150	 8.3320
 0.5160	 8.4490
 0.5170	 8.5750
 0.5180	 8.7070
 0.5190	 8.8500
 0.5200	 9.0050
 0.5210	 9.1680
 0.5220	 9.3280
 0.5230	 9.4900
 0.5240	 9.6590
 0.5250	 9.8290
 0.5260	 9.9920
 0.5270	10.1490
 0.5280	10.2990
 0.5290	10.4350
 0.5300	10.5640
 0.5310	10.6870
 0.5320	10.8020
 0.5330	10.9030
 0.5340	10.9950
 0.5350	11.0760
 0.5360	11.1470
 0.5370	11.2110
 0.5380	11.2700
 0.5390	11.3250
 0.5400	11.3770
 0.5410	11.4290
 0.5420	11.4810
 0.5430	11.5220
 0.5440	11.5670
 0.5450	11.6090
 0.5460	11.6380
 0.5470	11.6680
 0.5480	11.6930
 0.5490	11.7080
 0.5500	11.7190
 0.5510	11.7280
 0.5520	11.7300
 0.5530	11.7210
 0.5540	11.7000
 0.5550	11.6680
 0.5560	11.6240
 0.5570	11.5660
 0.5580	11.5010
 0.5590	11.4270
 0.5600	11.3460
 0.5610	11.2580
 0.5620	11.1640
 0.5630	11.0640
 0.5640	10.9640
 0.5650	10.8640
 0.5660	10.7540
 0.5670	10.6320
 0.5680	10.5050
 0.5690	10.3860
 0.5700	10.2710
 0.5710	10.1500
 0.5720	10.0340
 0.5730	 9.9290
 0.5740	 9.8370
 0.5750	 9.7600
 0.5760	 9.6920
 0.5770	 9.6270
 0.5780	 9.5600
 0.5790	 9.4920
 0.5800	 9.4250
 0.5810	 9.3650
 0.5820	 9.3120
 0.5830	 9.2630
 0.5840	 9.2150
 0.5850	 9.1680
 0.5860	 9.1240
 0.5870	 9.0770
 0.5880	 9.0300
 0.5890	 8.9870
 0.5900	 8.9600
 0.5910	 8.9480
 0.5920	 8.9430
 0.5930	 8.9360
 0.5940	 8.9200
 0.5950	 8.8980
 0.5960	 8.8750
 0.5970	 8.8570
 0.5980	 8.8380
 0.5990	 8.8170
 0.6000	 8.7970
 0.6010	 8.7760
 0.6020	 8.7500
 0.6030	 8.7200
 0.6040	 8.6900
 0.6050	 8.6600
 0.6060	 8.6250
 0.6070	 8.5850
 0.6080	 8.5430
 0.6090	 8.5040
 0.6100	 8.4700
 0.6110	 8.4340
 0.6120	 8.3890
 0.6130	 8.3400
 0.6140	 8.2950
 0.6150	 8.2560
 0.6160	 8.2160
 0.6170	 8.1780
 0.6180	 8.1470
 0.6190	 8.1200
 0.6200	 8.0940
 0.6210	 8.0690
 0.6220	 8.0510
 0.6230	 8.0350
 0.6240	 8.0190
 0.6250	 8.0050
 0.6260	 7.9960
 0.6270	 7.9890
 0.6280	 7.9810
 0.6290	 7.9700
 0.6300	 7.9670
 0.6310	 7.9640
 0.6320	 7.9570
 0.6330	 7.9490
 0.6340	 7.9390
 0.6350	 7.9280
 0.6360	 7.9160
 0.6370	 7.8990
 0.6380	 7.8760
 0.6390	 7.8500
 0.6400	 7.8220
 0.6410	 7.7940
 0.6420	 7.7630
 0.6430	 7.7310
 0.6440	 7.7030
 0.6450	 7.6710
 0.6460	 7.6390
 0.6470	 7.6130
 0.6480	 7.5830
 0.6490	 7.5590
 0.6500	 7.5430
 0.6510	 7.5300
 0.6520	 7.5100
 0.6530	 7.4900
 0.6540	 7.4760
 0.6550	 7.4610
 0.6560	 7.4440
 0.6570	 7.4260
 0.6580	 7.4060
 0.6590	 7.3860
 0.6600	 7.3670
 0.6610	 7.3510
 0.6620	 7.3340
 0.6630	 7.3190
 0.6640	 7.3070
 0.6650	 7.2990
 0.6660	 7.2940
 0.6670	 7.2900
 0.6680	 7.2880
 0.6690	 7.2870
 0.6700	 7.2900
 0.6710	 7.2970
 0.6720	 7.3050
 0.6730	 7.3140
 0.6740	 7.3270
 0.6750	 7.3430
 0.6760	 7.3620
 0.6770	 7.3810
 0.6780	 7.4020
 0.6790	 7.4270
 0.6800	 7.4510
 0.6810	 7.4810
 0.6820	 7.5130
 0.6830	 7.5440
 0.6840	 7.5770
 0.6850	 7.6170
 0.6860	 7.6630
 0.6870	 7.7110
 0.6880	 7.7690
 0.6890	 7.8420
 0.6900	 7.9340
 0.6910	 8.0470
 0.6920	 8.1910
 0.6930	 8.3750
 0.6940	 8.6050
 0.6950	 8.8850
 0.6960	 9.2210
 0.6970	 9.6160
 0.6980	10.0730
 0.6990	10.5980
 0.7000	11.1870
 0.7010	11.8340
 0.7020	12.5360
 0.7030	13.2850
 0.7040	14.0770
 0.7050	14.9050
 0.7060	15.7610
 0.7070	16.6430
 0.7080	17.5470
 0.7090	18.4680
 0.7100	19.3950
 0.7110	20.3330
 0.7120	21.2820
 0.7130	22.2400
 0.7140	23.1940
 0.7150	24.1490
 0.7160	25.1060
 0.7170	26.0550
 0.7180	26.9960
 0.7190	27.9290
 0.7200	28.8500
 0.7210	29.7610
 0.7220	30.6580
 0.7230	31.5340
 0.7240	32.3890
 0.7250	33.2250
 0.7260	34.0390
 0.7270	34.8260
 0.7280	35.5860
 0.7290	36.3170
 0.7300	37.0180
 0.7310	37.6900
 0.7320	38.3380
 0.7330	38.9570
 0.7340	39.5460
 0.7350	40.1070
 0.7360	40.6390
 0.7370	41.1420
 0.7380	41.6160
 0.7390	42.0700
 0.7400	42.5020
 0.7410	42.9100
 0.7420	43.2910
 0.7430	43.6470
 0.7440	43.9790
 0.7450	44.2870
 0.7460	44.5780
 0.7470	44.8530
 0.7480	45.1060
 0.7490	45.3330
 0.7500	45.5450
 0.7510	45.7430
 0.7520	45.9240
 0.7530	46.0890
 0.7540	46.2410
 0.7550	46.3790
 0.7560	46.5060
 0.7570	46.6250
 0.7580	46.7310
 0.7590	46.8240
 0.7600	46.9100
 0.7610	46.9970
 0.7620	47.0740
 0.7630	47.1390
 0.7640	47.1960
 0.7650	47.2500
 0.7660	47.3030
 0.7670	47.3520
 0.7680	47.3920
 0.7690	47.4320
 0.7700	47.4680
 0.7710	47.4990
 0.7720	47.5260
 0.7730	47.5520
 0.7740	47.5780
 0.7750	47.6050
 0.7760	47.6230
 0.7770	47.6470
 0.7780	47.6730
 0.7790	47.6910
 0.7800	47.7060
 0.7810	47.7240
 0.7820	47.7430
 0.7830	47.7560
 0.7840	47.7730
 0.7850	47.7890
 0.7860	47.8000
 0.7870	47.8140
 0.7880	47.8250
 0.7890	47.8380
 0.7900	47.8530
 0.7910	47.8620
 0.7920	47.8700
 0.7930	47.8800
 0.7940	47.8900
 0.7950	47.9010
 0.7960	47.9100
 0.7970	47.9170
 0.7980	47.9180
 0.7990	47.9240
 0.8000	47.9280
 0.8010	47.9280
 0.8020	47.9320
 0.8030	47.9360
 0.8040	47.9370
 0.8050	47.9340
 0.8060	47.9380
 0.8070	47.9350
 0.8080	47.9300
 0.8090	47.9340
 0.8100	47.9380
 0.8110	47.9380
 0.8120	47.9340
 0.8130	47.9250
 0.8140	47.9180
 0.8150	47.9140
 0.8160	47.9100
 0.8170	47.9070
 0.8180	47.9010
 0.8190	47.8970
 0.8200	47.8960
 0.8210	47.8940
 0.8220	47.8870
 0.8230	47.8790
 0.8240	47.8770
 0.8250	47.8720
 0.8260	47.8660
 0.8270	47.8580
 0.8280	47.8550
 0.8290	47.8510
 0.8300	47.8450
 0.8310	47.8400
 0.8320	47.8310
 0.8330	47.8260
 0.8340	47.8230
 0.8350	47.8190
 0.8360	47.8150
 0.8370	47.8120
 0.8380	47.8100
 0.8390	47.8110
 0.8400	47.8140
 0.8410	47.8170
 0.8420	47.8190
 0.8430	47.8220
 0.8440	47.8270
 0.8450	47.8330
 0.8460	47.8360
 0.8470	47.8340
 0.8480	47.8360
 0.8490	47.8410
 0.8500	47.8460
 0.8510	47.8540
 0.8520	47.8620
 0.8530	47.8690
 0.8540	47.8760
 0.8550	47.8820
 0.8560	47.8840
 0.8570	47.8860
 0.8580	47.8960
 0.8590	47.9060
 0.8600	47.9110
 0.8610	47.9110
 0.8620	47.9110
 0.8630	47.9160
 0.8640	47.9260
 0.8650	47.9400
 0.8660	47.9450
 0.8670	47.9530
 0.8680	47.9630
 0.8690	47.9690
 0.8700	47.9730
 0.8710	47.9810
 0.8720	47.9940
 0.8730	48.0090
 0.8740	48.0140
 0.8750	48.0160
 0.8760	48.0220
 0.8770	48.0320
 0.8780	48.0430
 0.8790	48.0510
 0.8800	48.0560
 0.8810	48.0680
 0.8820	48.0740
 0.8830	48.0770
 0.8840	48.0830
 0.8850	48.0930
 0.8860	48.1030
 0.8870	48.1170
 0.8880	48.1360
 0.8890	48.1350
 0.8900	48.1440
 0.8910	48.1600
 0.8920	48.1660
 0.8930	48.1690
 0.8940	48.1740
 0.8950	48.1800
 0.8960	48.1810
 0.8970	48.1770
 0.8980	48.1870
 0.8990	48.2100
 0.9000	48.2200
 0.9010	48.2170
 0.9020	48.2170
 0.9030	48.2260
 0.9040	48.2360
 0.9050	48.2450
 0.9060	48.2590
 0.9070	48.2710
 0.9080	48.2610
 0.9090	48.2690
 0.9100	48.2820
 0.9110	48.2860
 0.9120	48.2940
 0.9130	48.3000
 0.9140	48.3040
 0.9150	48.3040
 0.9160	48.3030
 0.9170	48.3020
 0.9180	48.2990
 0.9190	48.2960
 0.9200	48.3070
 0.9210	48.3080
 0.9220	48.2980
 0.9230	48.2880
 0.9240	48.2800
 0.9250	48.2740
 0.9260	48.2730
 0.9270	48.2720
 0.9280	48.2540
 0.9290	48.2370
 0.9300	48.2270
 0.9310	48.2140
 0.9320	48.1900
 0.9330	48.1720
 0.9340	48.1590
 0.9350	48.1330
 0.9360	48.1150
 0.9370	48.0930
 0.9380	48.0640
 0.9390	48.0410
 0.9400	48.0130
 0.9410	47.9900
 0.9420	47.9730
 0.9430	47.9350
 0.9440	47.9030
 0.9450	47.8740
 0.9460	47.8390
 0.9470	47.8050
 0.9480	47.7630
 0.9490	47.7130
 0.9500	47.6580
 0.9510	47.6040
 0.9520	47.5480
 0.9530	47.4840
 0.9540	47.4130
 0.9550	47.3500
 0.9560	47.2990
 0.9570	47.2500
 0.9580	47.1920
 0.9590	47.1300
 0.9600	47.0770
 0.9610	47.0280
 0.9620	46.9780
 0.9630	46.9690
 0.9640	46.9400
 0.9650	46.8990
 0.9660	46.8750
 0.9670	46.8510
 0.9680	46.8430
 0.9690	46.8440
 0.9700	46.8400
 0.9710	46.8190
 0.9720	46.7980
 0.9730	46.7930
 0.9740	46.8070
 0.9750	46.7860
 0.9760	46.7730
 0.9770	46.7810
 0.9780	46.8020
 0.9790	46.8170
 0.9800	46.8130
 0.9810	46.8020
 0.9820	46.8030
 0.9830	46.8140
 0.9840	46.8170
 0.9850	46.8270
 0.9860	46.8600
 0.9870	46.8600
 0.9880	46.8700
 0.9890	46.8980
 0.9900	46.9280
 0.9910	46.9370
 0.9920	47.0090
 0.9930	47.0800
 0.9940	47.1510
 0.9950	47.2230
 0.9960	47.2940
 0.9970	47.3660
 0.9980	47.4370
 0.9990	47.5080
 1.0000	47.5800
 1.0010	47.6510
 1.0020	47.7220
 1.0030	47.7940
 1.0040	47.8650
 1.0050	47.9360
 1.0060	48.0080
 1.0070	48.0790
 1.0080	48.1500
 1.0090	48.2220
 1.0100	48.2220
 1.0110	48.2370
 1.0120	48.2560
 1.0130	48.2780
 1.0140	48.2980
 1.0150	48.3170
 1.0160	48.3390
 1.0170	48.3610
 1.0180	48.3770
 1.0190	48.3960
 1.0200	48.4120
 1.0210	48.4250
 1.0220	48.4390
 1.0230	48.4570
 1.0240	48.4790
 1.0250	48.4980
 1.0260	48.5220
 1.0270	48.5400
 1.0280	48.5510
 1.0290	48.5650
 1.0300	48.5780
 1.0310	48.5920
 1.0320	48.6080
 1.0330	48.6200
 1.0340	48.6350
 1.0350	48.6500
 1.0360	48.6610
 1.0370	48.6760
 1.0380	48.6900
 1.0390	48.7030
 1.0400	48.7140
 1.0410	48.7230
 1.0420	48.7340
 1.0430	48.7430
 1.0440	48.7520
 1.0450	48.7670
 1.0460	48.7770
 1.0470	48.7790
 1.0480	48.7880
 1.0490	48.8010
 1.0500	48.8090
 1.0510	48.8190
 1.0520	48.8270
 1.0530	48.8320
 1.0540	48.8320
 1.0550	48.8350
 1.0560	48.8380
 1.0570	48.8450
 1.0580	48.8560
 1.0590	48.8630
 1.0600	48.8730
 1.0610	48.8780
 1.0620	48.8770
 1.0630	48.8780
 1.0640	48.8760
 1.0650	48.8780
 1.0660	48.8840
 1.0670	48.8870
 1.0680	48.8890
 1.0690	48.8940
 1.0700	48.8940
 1.0710	48.8890
 1.0720	48.8880
 1.0730	48.8880
 1.0740	48.8890
 1.0750	48.8940
 1.0760	48.8930
 1.0770	48.8890
 1.0780	48.8860
 1.0790	48.8790
 1.0800	48.8750
 1.0810	48.8740
 1.0820	48.8700
 1.0830	48.8640
 1.0840	48.8590
 1.0850	48.8550
 1.0860	48.8480
 1.0870	48.8420
 1.0880	48.8370
 1.0890	48.8300
 1.0900	48.8210
 1.0910	48.8150
 1.0920	48.8130
 1.0930	48.8040
 1.0940	48.7930
 1.0950	48.7840
 1.0960	48.7720
 1.0970	48.7600
 1.0980	48.7500
 1.0990	48.7390
 1.1000	48.7270
 1.1010	48.7150
 1.1020	48.7020
 1.1030	48.6920
 1.1040	48.6780
 1.1050	48.6630
 1.1060	48.6500
 1.1070	48.6380
 1.1080	48.6220
 1.1090	48.6040
 1.1100	48.5880
 1.1110	48.5690
 1.1120	48.5500
 1.1130	48.5340
 1.1140	48.5140
 1.1150	48.4910
 1.1160	48.4690
 1.1170	48.4470
 1.1180	48.4220
 1.1190	48.3970
 1.1200	48.3710
 1.1210	48.3380
 1.1220	48.3020
 1.1230	48.2630
 1.1240	48.2190
 1.1250	48.1740
 1.1260	48.1310
 1.1270	48.0760
 1.1280	48.0200
 1.1290	47.9530
 1.1300	47.8780
 1.1310	47.7950
 1.1320	47.7060
 1.1330	47.6100
 1.1340	47.5070
 1.1350	47.3990
 1.1360	47.2870
 1.1370	47.1650
 1.1380	47.0380
 1.1390	46.9040
 1.1400	46.7660
 1.1410	46.6280
 1.1420	46.4840
 1.1430	46.3400
 1.1440	46.1960
 1.1450	46.0470
 1.1460	45.9060
 1.1470	45.7670
 1.1480	45.6360
 1.1490	45.5090
 1.1500	45.3900
 1.1510	45.2760
 1.1520	45.1710
 1.1530	45.0730
 1.1540	44.9840
 1.1550	44.9040
 1.1560	44.8330
 1.1570	44.7710
 1.1580	44.7170
 1.1590	44.6710
 1.1600	44.6350
 1.1610	44.6050
 1.1620	44.5810
 1.1630	44.5600
 1.1640	44.5410
 1.1650	44.5250
 1.1660	44.5100
 1.1670	44.4990
 1.1680	44.4920
 1.1690	44.4860
 1.1700	44.4850
 1.1710	44.4820
 1.1720	44.4810
 1.1730	44.4770
 1.1740	44.4720
 1.1750	44.4640
 1.1760	44.4560
 1.1770	44.4500
 1.1780	44.4420
 1.1790	44.4350
 1.1800	44.4270
 1.1810	44.4180
 1.1820	44.4110
 1.1830	44.4060
 1.1840	44.4000
 1.1850	44.3910
 1.1860	44.3820
 1.1870	44.3720
 1.1880	44.3650
 1.1890	44.3590
 1.1900	44.3550
 1.1910	44.3540
 1.1920	44.3530
 1.1930	44.3520
 1.1940	44.3540
 1.1950	44.3570
 1.1960	44.3600
 1.1970	44.3650
 1.1980	44.3740
 1.1990	44.3820
 1.2000	44.3900
 1.2010	44.4000
 1.2020	44.4090
 1.2030	44.4180
 1.2040	44.4310
 1.2050	44.4430
 1.2060	44.4570
 1.2070	44.4740
 1.2080	44.4890
 1.2090	44.5070
 1.2100	44.5260
 1.2110	44.5430
 1.2120	44.5590
 1.2130	44.5770
 1.2140	44.5930
 1.2150	44.6130
 1.2160	44.6360
 1.2170	44.6600
 1.2180	44.6820
 1.2190	44.7040
 1.2200	44.7240
 1.2210	44.7430
 1.2220	44.7660
 1.2230	44.7910
 1.2240	44.8150
 1.2250	44.8410
 1.2260	44.8630
 1.2270	44.8850
 1.2280	44.9060
 1.2290	44.9250
 1.2300	44.9450
 1.2310	44.9660
 1.2320	44.9850
 1.2330	45.0020
 1.2340	45.0200
 1.2350	45.0370
 1.2360	45.0540
 1.2370	45.0730
 1.2380	45.0910
 1.2390	45.1070
 1.2400	45.1230
 1.2410	45.1360
 1.2420	45.1500
 1.2430	45.1670
 1.2440	45.1790
 1.2450	45.1920
 1.2460	45.2050
 1.2470	45.2160
 1.2480	45.2270
 1.2490	45.2390
 1.2500	45.2500
 1.2510	45.2600
 1.2520	45.2670
 1.2530	45.2760
 1.2540	45.2830
 1.2550	45.2870
 1.2560	45.2930
 1.2570	45.2990
 1.2580	45.3030
 1.2590	45.3070
 1.2600	45.3120
 1.2610	45.3130
 1.2620	45.3120
 1.2630	45.3090
 1.2640	45.3050
 1.2650	45.3000
 1.2660	45.2960
 1.2670	45.2920
 1.2680	45.2860
 1.2690	45.2820
 1.2700	45.2750
 1.2710	45.2650
 1.2720	45.2560
 1.2730	45.2450
 1.2740	45.2330
 1.2750	45.2200
 1.2760	45.2060
 1.2770	45.1910
 1.2780	45.1740
 1.2790	45.1580
 1.2800	45.1390
 1.2810	45.1190
 1.2820	45.0970
 1.2830	45.0760
 1.2840	45.0530
 1.2850	45.0280
 1.2860	45.0010
 1.2870	44.9710
 1.2880	44.9380
 1.2890	44.9050
 1.2900	44.8710
 1.2910	44.8350
 1.2920	44.7990
 1.2930	44.7600
 1.2940	44.7180
 1.2950	44.6750
 1.2960	44.6290
 1.2970	44.5830
 1.2980	44.5350
 1.2990	44.4830
 1.3000	44.4300
 1.3010	44.3720
 1.3020	44.3080
 1.3030	44.2450
 1.3040	44.1780
 1.3050	44.1100
 1.3060	44.0430
 1.3070	43.9700
 1.3080	43.8940
 1.3090	43.8170
 1.3100	43.7350
 1.3110	43.6530
 1.3120	43.5680
 1.3130	43.4790
 1.3140	43.3850
 1.3150	43.2860
 1.3160	43.1840
 1.3170	43.0790
 1.3180	42.9710
 1.3190	42.8600
 1.3200	42.7470
 1.3210	42.6310
 1.3220	42.5120
 1.3230	42.3920
 1.3240	42.2670
 1.3250	42.1400
 1.3260	42.0110
 1.3270	41.8790
 1.3280	41.7450
 1.3290	41.6090
 1.3300	41.4720
 1.3310	41.3300
 1.3320	41.1870
 1.3330	41.0460
 1.3340	40.9030
 1.3350	40.7590
 1.3360	40.6150
 1.3370	40.4670
 1.3380	40.3190
 1.3390	40.1710
 1.3400	40.0220
 1.3410	39.8760
 1.3420	39.7310
 1.3430	39.5880
 1.3440	39.4460
 1.3450	39.3040
 1.3460	39.1630
 1.3470	39.0230
 1.3480	38.8810
 1.3490	38.7420
 1.3500	38.6060
 1.3510	38.4710
 1.3520	38.3360
 1.3530	38.2000
 1.3540	38.0650
 1.3550	37.9270
 1.3560	37.7900
 1.3570	37.6530
 1.3580	37.5120
 1.3590	37.3690
 1.3600	37.2220
 1.3610	37.0700
 1.3620	36.9150
 1.3630	36.7570
 1.3640	36.5920
 1.3650	36.4190
 1.3660	36.2400
 1.3670	36.0510
 1.3680	35.8490
 1.3690	35.6360
 1.3700	35.4070
 1.3710	35.1650
 1.3720	34.9080
 1.3730	34.6320
 1.3740	34.3410
 1.3750	34.0300
 1.3760	33.6980
 1.3770	33.3440
 1.3780	32.9640
 1.3790	32.5630
 1.3800	32.1400
 1.3810	31.6920
 1.3820	31.2280
 1.3830	30.7430
 1.3840	30.2410
 1.3850	29.7190
 1.3860	29.1850
 1.3870	28.6320
 1.3880	28.0760
 1.3890	27.5090
 1.3900	26.9330
 1.3910	26.3590
 1.3920	25.7820
 1.3930	25.2030
 1.3940	24.6300
 1.3950	24.0570
 1.3960	23.4950
 1.3970	22.9460
 1.3980	22.4100
 1.3990	21.8980
 1.4000	21.4020
 1.4010	20.9230
 1.4020	20.4670
 1.4030	20.0290
 1.4040	19.6140
 1.4050	19.2240
 1.4060	18.8550
 1.4070	18.5130
 1.4080	18.1930
 1.4090	17.8940
 1.4100	17.6180
 1.4110	17.3610
 1.4120	17.1250
 1.4130	16.9080
 1.4140	16.7090
 1.4150	16.5300
 1.4160	16.3670
 1.4170	16.2190
 1.4180	16.0860
 1.4190	15.9650
 1.4200	15.8560
 1.4210	15.7590
 1.4220	15.6730
 1.4230	15.5970
 1.4240	15.5300
 1.4250	15.4710
 1.4260	15.4210
 1.4270	15.3780
 1.4280	15.3420
 1.4290	15.3110
 1.4300	15.2870
 1.4310	15.2670
 1.4320	15.2530
 1.4330	15.2430
 1.4340	15.2380
 1.4350	15.2360
 1.4360	15.2390
 1.4370	15.2440
 1.4380	15.2520
 1.4390	15.2630
 1.4400	15.2770
 1.4410	15.2920
 1.4420	15.3100
 1.4430	15.3280
 1.4440	15.3480
 1.4450	15.3690
 1.4460	15.3900
 1.4470	15.4140
 1.4480	15.4370
 1.4490	15.4630
 1.4500	15.4890
 1.4510	15.5150
 1.4520	15.5430
 1.4530	15.5730
 1.4540	15.6030
 1.4550	15.6340
 1.4560	15.6660
 1.4570	15.7010
 1.4580	15.7410
 1.4590	15.7840
 1.4600	15.8310
 1.4610	15.8810
 1.4620	15.9340
 1.4630	15.9930
 1.4640	16.0560
 1.4650	16.1240
 1.4660	16.1970
 1.4670	16.2740
 1.4680	16.3550
 1.4690	16.4420
 1.4700	16.5320
