Name: Abies concolor 3
Type: vegetation
Class: Tree
Genus: Abies
Species: concolor
Sample No.: VH264
Owner: UCSB
Wavelength Range: TIR
Origin: 37.0439; -119.3058; WGS84
Collection Date: 11/2/2013
Description: Samples were collected as part of the HyspIRI Airborne Campaign. 48 individual plants were sampled in three times in 2013 - spring  summer  and fall. The name of the sample includes a 1  2  or 3 which references a different individual of the species. Samples were taken to JPL and processed within 48 hours of collection. The same leaves were processed in the Nicolet and then measured using the ASD.
Measurement: Hemispherical reflectance
First Column: X
Second Column: Y
X Units: Wavelength (micrometers)
Y Units: Reflectance (percentage)
First X Value: 2.501
Last X Value: 15.387
Number of X Values: 1737
Additional Information: vegetation.tree.abies.concolor.tir.vh264.ucsb.nicolet.ancillary.txt

 2.5010	10.5380
 2.5030	10.4970
 2.5040	10.6580
 2.5050	10.6610
 2.5060	10.6640
 2.5070	10.6720
 2.5090	10.7770
 2.5100	10.6770
 2.5110	10.7110
 2.5120	10.7100
 2.5140	10.7260
 2.5150	10.5940
 2.5160	10.5900
 2.5170	10.7470
 2.5180	10.9030
 2.5200	10.7170
 2.5210	10.5310
 2.5220	10.4490
 2.5230	10.6080
 2.5250	10.7380
 2.5260	10.8260
 2.5270	10.6850
 2.5280	10.6980
 2.5290	10.6570
 2.5310	10.7330
 2.5320	10.7740
 2.5330	10.7640
 2.5340	10.6640
 2.5360	10.7650
 2.5370	10.6750
 2.5380	10.6740
 2.5390	10.8160
 2.5410	10.7860
 2.5420	10.5120
 2.5430	10.4240
 2.5440	10.5790
 2.5460	10.8160
 2.5470	10.8170
 2.5480	10.7660
 2.5490	10.7040
 2.5510	10.7190
 2.5520	10.7180
 2.5530	10.8010
 2.5540	10.8410
 2.5560	10.9810
 2.5570	10.9870
 2.5580	10.9060
 2.5590	10.8280
 2.5610	10.8780
 2.5620	10.6350
 2.5630	10.6320
 2.5640	10.7630
 2.5660	10.9100
 2.5670	10.8860
 2.5680	10.8570
 2.5700	10.8290
 2.5710	10.8500
 2.5720	10.6330
 2.5730	10.5140
 2.5750	10.6850
 2.5760	10.8930
 2.5770	10.8680
 2.5790	10.8890
 2.5800	10.7760
 2.5810	10.7780
 2.5820	10.7530
 2.5840	10.7540
 2.5850	10.6720
 2.5860	10.7140
 2.5880	10.7400
 2.5890	10.7380
 2.5900	10.7270
 2.5910	10.8220
 2.5930	10.7370
 2.5940	10.7350
 2.5950	10.6160
 2.5970	10.7010
 2.5980	10.7590
 2.5990	10.7640
 2.6000	10.7560
 2.6020	10.7440
 2.6030	10.6350
 2.6040	10.6390
 2.6060	10.4880
 2.6070	10.4030
 2.6080	10.4880
 2.6100	10.7250
 2.6110	10.8080
 2.6120	10.7530
 2.6140	10.4610
 2.6150	10.5840
 2.6160	10.5300
 2.6180	10.3690
 2.6190	10.5430
 2.6200	10.5740
 2.6220	10.3250
 2.6230	10.4510
 2.6240	10.5990
 2.6260	10.6190
 2.6270	10.4170
 2.6280	10.4080
 2.6300	10.4680
 2.6310	10.4490
 2.6320	10.3380
 2.6340	10.3590
 2.6350	10.4680
 2.6360	10.6260
 2.6380	10.5880
 2.6390	10.6070
 2.6400	10.4940
 2.6420	10.5000
 2.6430	10.3600
 2.6440	10.3250
 2.6460	10.2500
 2.6470	10.3280
 2.6480	10.4340
 2.6500	10.4330
 2.6510	10.3150
 2.6520	10.2840
 2.6540	10.2770
 2.6550	10.2880
 2.6560	10.2940
 2.6580	10.2710
 2.6590	10.2290
 2.6610	10.2860
 2.6620	10.2810
 2.6630	10.2990
 2.6650	10.1640
 2.6660	10.1960
 2.6670	10.1320
 2.6690	10.2780
 2.6700	10.3630
 2.6720	10.2710
 2.6730	10.2690
 2.6740	10.2740
 2.6760	10.1220
 2.6770	10.0130
 2.6780	 9.9260
 2.6800	 9.9730
 2.6810	10.0310
 2.6830	10.0100
 2.6840	 9.9830
 2.6850	10.1810
 2.6870	10.0980
 2.6880	 9.9850
 2.6900	 9.8610
 2.6910	10.0180
 2.6920	 9.9460
 2.6940	 9.6950
 2.6950	 9.7290
 2.6970	 9.9320
 2.6980	 9.9390
 2.6990	 9.9910
 2.7010	 9.7530
 2.7020	 9.6140
 2.7040	 9.6090
 2.7050	 9.7030
 2.7060	 9.8000
 2.7080	 9.9390
 2.7090	 9.7980
 2.7110	 9.8010
 2.7120	 9.7850
 2.7130	 9.9650
 2.7150	 9.9480
 2.7160	 9.8400
 2.7180	 9.7670
 2.7190	 9.8360
 2.7210	 9.8560
 2.7220	 9.9200
 2.7230	 9.9120
 2.7250	 9.7800
 2.7260	 9.5040
 2.7280	 9.5540
 2.7290	 9.8250
 2.7310	 9.9310
 2.7320	 9.9200
 2.7330	 9.9500
 2.7350	 9.7290
 2.7360	 9.6990
 2.7380	 9.7470
 2.7390	 9.9080
 2.7410	 9.8440
 2.7420	 9.5780
 2.7440	 9.4770
 2.7450	 9.5800
 2.7470	 9.6430
 2.7480	 9.7880
 2.7490	 9.6140
 2.7510	 9.6260
 2.7520	 9.5210
 2.7540	 9.6310
 2.7550	 9.9730
 2.7570	 9.9860
 2.7580	 9.8990
 2.7600	 9.8970
 2.7610	 9.6820
 2.7630	 9.5610
 2.7640	 9.3540
 2.7660	 9.3560
 2.7670	 9.4400
 2.7680	 9.6160
 2.7700	 9.7260
 2.7710	 9.8100
 2.7730	 9.7940
 2.7740	 9.9140
 2.7760	10.0150
 2.7770	 9.9170
 2.7790	 9.6100
 2.7800	 9.5830
 2.7820	 9.5700
 2.7830	 9.6870
 2.7850	 9.9580
 2.7860	10.0380
 2.7880	 9.8840
 2.7890	 9.9060
 2.7910	 9.9890
 2.7920	 9.8420
 2.7940	 9.6550
 2.7950	 9.7880
 2.7970	 9.8060
 2.7980	 9.7700
 2.8000	 9.6930
 2.8010	 9.7040
 2.8030	 9.6220
 2.8040	 9.6600
 2.8060	 9.5970
 2.8070	 9.6010
 2.8090	 9.6830
 2.8110	 9.6780
 2.8120	 9.5460
 2.8140	 9.5780
 2.8150	 9.6230
 2.8170	 9.7830
 2.8180	 9.8360
 2.8200	 9.9360
 2.8210	 9.9750
 2.8230	 9.8810
 2.8240	 9.7000
 2.8260	 9.6120
 2.8270	 9.6170
 2.8290	 9.7100
 2.8300	 9.7270
 2.8320	 9.8170
 2.8340	 9.8200
 2.8350	 9.7270
 2.8370	 9.7240
 2.8380	 9.7840
 2.8400	 9.6560
 2.8410	 9.7820
 2.8430	 9.7420
 2.8440	 9.6520
 2.8460	 9.5830
 2.8480	 9.5110
 2.8490	 9.4280
 2.8510	 9.6860
 2.8520	 9.8990
 2.8540	 9.9790
 2.8550	 9.8220
 2.8570	 9.6220
 2.8590	 9.5820
 2.8600	 9.6260
 2.8620	 9.6330
 2.8630	 9.9060
 2.8650	 9.9120
 2.8660	 9.9160
 2.8680	 9.7600
 2.8700	 9.5380
 2.8710	 9.4850
 2.8730	 9.6470
 2.8740	 9.6360
 2.8760	 9.6410
 2.8780	 9.9120
 2.8790	10.0080
 2.8810	 9.8030
 2.8820	 9.6800
 2.8840	 9.8600
 2.8860	 9.8450
 2.8870	 9.8260
 2.8890	 9.8740
 2.8900	 9.8100
 2.8920	 9.6180
 2.8940	 9.4630
 2.8950	 9.6540
 2.8970	 9.5470
 2.8980	 9.7240
 2.9000	 9.7930
 2.9020	 9.7500
 2.9030	 9.9380
 2.9050	10.0290
 2.9070	 9.9140
 2.9080	 9.7490
 2.9100	 9.7490
 2.9120	 9.7040
 2.9130	 9.5360
 2.9150	 9.7760
 2.9160	 9.8910
 2.9180	 9.8920
 2.9200	 9.8410
 2.9210	 9.8300
 2.9230	 9.7370
 2.9250	 9.8390
 2.9260	 9.8170
 2.9280	 9.6990
 2.9300	 9.7580
 2.9310	 9.8110
 2.9330	 9.5920
 2.9350	 9.4920
 2.9360	 9.6680
 2.9380	 9.9710
 2.9400	 9.9600
 2.9410	 9.8430
 2.9430	 9.8510
 2.9450	10.1020
 2.9460	10.1760
 2.9480	 9.8320
 2.9500	 9.3890
 2.9510	 9.4070
 2.9530	 9.5440
 2.9550	 9.7790
 2.9560	10.0710
 2.9580	 9.6050
 2.9600	 9.2850
 2.9610	 9.4270
 2.9630	 9.5590
 2.9650	 9.2370
 2.9660	 8.9040
 2.9680	 9.8290
 2.9700	10.3510
 2.9720	 9.7190
 2.9730	 9.3970
 2.9750	 9.0060
 2.9770	 9.4300
 2.9780	10.2680
 2.9800	10.2480
 2.9820	10.1500
 2.9840	 9.9280
 2.9850	 8.9490
 2.9870	 9.4010
 2.9890	 9.9050
 2.9900	10.2710
 2.9920	10.3920
 2.9940	 9.8360
 2.9960	10.6920
 2.9970	10.5570
 2.9990	10.7510
 3.0010	 8.7820
 3.0030	 7.9850
 3.0040	 9.0150
 3.0060	 9.9700
 3.0080	 9.6980
 3.0100	 9.1560
 3.0110	 9.5480
 3.0130	 9.5670
 3.0150	 8.3570
 3.0170	 8.3400
 3.0180	 8.4310
 3.0200	 9.3180
 3.0220	 9.4370
 3.0240	 9.5600
 3.0250	 9.5490
 3.0270	 9.7580
 3.0290	 9.6080
 3.0310	 9.4460
 3.0320	 9.3700
 3.0340	 9.7920
 3.0360	10.0840
 3.0380	11.3160
 3.0400	11.1200
 3.0410	 9.4680
 3.0430	 8.5580
 3.0450	 8.9060
 3.0470	 8.8300
 3.0480	10.7280
 3.0500	12.0200
 3.0520	11.8990
 3.0540	10.2670
 3.0560	 8.4920
 3.0570	 8.8400
 3.0590	 9.2350
 3.0610	 9.7900
 3.0630	10.3540
 3.0650	 9.8240
 3.0660	 9.6230
 3.0680	 9.4050
 3.0700	 9.5970
 3.0720	10.0180
 3.0740	 9.8250
 3.0760	 9.6650
 3.0770	 9.5630
 3.0790	 9.4270
 3.0810	 9.4580
 3.0830	 9.5170
 3.0850	 9.4750
 3.0870	 9.4540
 3.0880	 9.4020
 3.0900	 9.4080
 3.0920	 9.4710
 3.0940	 9.5280
 3.0960	 9.6340
 3.0980	 9.5320
 3.0990	 9.4960
 3.1010	 9.4470
 3.1030	 9.4440
 3.1050	 9.6060
 3.1070	 9.7990
 3.1090	 9.5720
 3.1110	 9.1890
 3.1120	 9.1780
 3.1140	 9.2720
 3.1160	 9.3560
 3.1180	 9.4210
 3.1200	 9.3420
 3.1220	 9.3850
 3.1240	 9.4260
 3.1260	 9.5570
 3.1270	 9.5130
 3.1290	 9.5170
 3.1310	 9.2810
 3.1330	 9.1410
 3.1350	 9.0110
 3.1370	 9.5150
 3.1390	10.3660
 3.1410	10.6080
 3.1430	 9.7620
 3.1450	 9.9310
 3.1460	10.7700
 3.1480	 9.6970
 3.1500	 9.5700
 3.1520	 9.6400
 3.1540	 9.0740
 3.1560	 9.1220
 3.1580	 9.0250
 3.1600	 9.0380
 3.1620	 8.6510
 3.1640	 8.3220
 3.1660	 8.7090
 3.1680	 9.4380
 3.1700	 9.6320
 3.1710	 9.7210
 3.1730	 8.9700
 3.1750	 8.6360
 3.1770	 8.4500
 3.1790	 8.2180
 3.1810	 8.6000
 3.1830	 8.6640
 3.1850	 8.8790
 3.1870	 9.2200
 3.1890	 9.2720
 3.1910	 9.1560
 3.1930	 9.2650
 3.1950	 9.2600
 3.1970	 9.0420
 3.1990	 9.1450
 3.2010	 9.3620
 3.2030	 9.3160
 3.2050	 9.2350
 3.2070	 9.3010
 3.2090	 9.1450
 3.2110	 9.2740
 3.2130	 9.2590
 3.2150	 9.2900
 3.2170	 9.4390
 3.2190	 9.4200
 3.2210	 9.3320
 3.2230	 9.3480
 3.2250	 9.3180
 3.2270	 9.3610
 3.2290	 9.3870
 3.2310	 9.4140
 3.2330	 9.3530
 3.2350	 9.2000
 3.2370	 9.1390
 3.2390	 9.3110
 3.2410	 9.2860
 3.2430	 9.3370
 3.2450	 9.2660
 3.2470	 9.0900
 3.2490	 9.1970
 3.2510	 9.2360
 3.2530	 9.2550
 3.2550	 9.3530
 3.2570	 9.3470
 3.2590	 9.3430
 3.2610	 9.3910
 3.2630	 9.3490
 3.2650	 9.2340
 3.2670	 9.2300
 3.2690	 9.3170
 3.2720	 9.2730
 3.2740	 9.0590
 3.2760	 9.1330
 3.2780	 9.2370
 3.2800	 9.2730
 3.2820	 9.1540
 3.2840	 9.0570
 3.2860	 8.9970
 3.2880	 9.1060
 3.2900	 9.2230
 3.2920	 9.3750
 3.2940	 9.2790
 3.2960	 9.2040
 3.2990	 9.0200
 3.3010	 9.0680
 3.3030	 9.0440
 3.3050	 9.0080
 3.3070	 9.2380
 3.3090	 9.3630
 3.3110	 9.5110
 3.3130	 9.4490
 3.3150	 9.1740
 3.3180	 9.1930
 3.3200	 9.3090
 3.3220	 9.4070
 3.3240	 9.2420
 3.3260	 9.1320
 3.3280	 9.0280
 3.3300	 9.0380
 3.3330	 8.9270
 3.3350	 8.7970
 3.3370	 8.8720
 3.3390	 9.0080
 3.3410	 8.9600
 3.3430	 8.9530
 3.3450	 8.8540
 3.3480	 8.8430
 3.3500	 8.9390
 3.3520	 9.0140
 3.3540	 8.8570
 3.3560	 8.8730
 3.3580	 9.0290
 3.3610	 8.8110
 3.3630	 8.6140
 3.3650	 8.8830
 3.3670	 8.9320
 3.3690	 8.8590
 3.3720	 8.7830
 3.3740	 8.7670
 3.3760	 8.8000
 3.3780	 8.7140
 3.3800	 8.6550
 3.3830	 8.8660
 3.3850	 8.8660
 3.3870	 8.8760
 3.3890	 8.8690
 3.3910	 8.7330
 3.3940	 8.5780
 3.3960	 8.6690
 3.3980	 8.7280
 3.4000	 8.5950
 3.4020	 8.5350
 3.4050	 8.6590
 3.4070	 8.7370
 3.4090	 8.8250
 3.4110	 8.7530
 3.4140	 8.8730
 3.4160	 9.0300
 3.4180	 9.2770
 3.4200	 9.5540
 3.4230	 9.8450
 3.4250	10.2040
 3.4270	10.5400
 3.4290	10.6660
 3.4320	10.7740
 3.4340	10.7840
 3.4360	10.5960
 3.4390	10.3630
 3.4410	10.1460
 3.4430	 9.9550
 3.4450	 9.9020
 3.4480	 9.7480
 3.4500	 9.7670
 3.4520	 9.8000
 3.4550	 9.8670
 3.4570	 9.6840
 3.4590	 9.4700
 3.4620	 9.5550
 3.4640	 9.7200
 3.4660	 9.7790
 3.4680	 9.7500
 3.4710	 9.7120
 3.4730	 9.6470
 3.4750	 9.4540
 3.4780	 9.4380
 3.4800	 9.3100
 3.4820	 9.2780
 3.4850	 9.2590
 3.4870	 9.2580
 3.4890	 9.1590
 3.4920	 9.0880
 3.4940	 9.0760
 3.4970	 9.1170
 3.4990	 9.1400
 3.5010	 9.1790
 3.5040	 9.1870
 3.5060	 9.4180
 3.5080	 9.9630
 3.5110	10.5680
 3.5130	10.7360
 3.5160	10.6520
 3.5180	10.4400
 3.5200	10.2700
 3.5230	10.0220
 3.5250	 9.9330
 3.5270	 9.9740
 3.5300	10.0350
 3.5320	 9.8410
 3.5350	 9.7390
 3.5370	 9.7300
 3.5400	 9.8050
 3.5420	 9.8860
 3.5440	 9.8510
 3.5470	 9.7630
 3.5490	 9.7450
 3.5520	 9.7100
 3.5540	 9.7630
 3.5570	 9.6360
 3.5590	 9.6020
 3.5610	 9.6170
 3.5640	 9.6250
 3.5660	 9.5460
 3.5690	 9.5190
 3.5710	 9.4070
 3.5740	 9.4320
 3.5760	 9.5080
 3.5790	 9.4600
 3.5810	 9.4210
 3.5840	 9.5270
 3.5860	 9.5130
 3.5890	 9.4780
 3.5910	 9.4180
 3.5930	 9.3870
 3.5960	 9.3190
 3.5980	 9.3970
 3.6010	 9.4970
 3.6030	 9.6250
 3.6060	 9.6620
 3.6080	 9.6350
 3.6110	 9.5120
 3.6140	 9.3950
 3.6160	 9.3710
 3.6190	 9.4300
 3.6210	 9.4690
 3.6240	 9.5560
 3.6260	 9.4350
 3.6290	 9.4490
 3.6310	 9.5800
 3.6340	 9.6150
 3.6360	 9.4480
 3.6390	 9.4620
 3.6410	 9.4300
 3.6440	 9.3340
 3.6470	 9.4000
 3.6490	 9.5490
 3.6520	 9.5140
 3.6540	 9.5080
 3.6570	 9.4750
 3.6590	 9.4030
 3.6620	 9.3980
 3.6650	 9.3350
 3.6670	 9.2030
 3.6700	 9.3120
 3.6720	 9.4370
 3.6750	 9.4160
 3.6780	 9.2810
 3.6800	 9.2760
 3.6830	 9.4020
 3.6850	 9.4070
 3.6880	 9.3360
 3.6910	 9.3540
 3.6930	 9.3470
 3.6960	 9.3730
 3.6990	 9.3590
 3.7010	 9.3140
 3.7040	 9.2860
 3.7060	 9.3840
 3.7090	 9.3300
 3.7120	 9.3690
 3.7140	 9.4210
 3.7170	 9.5140
 3.7200	 9.5090
 3.7220	 9.4050
 3.7250	 9.3730
 3.7280	 9.3930
 3.7300	 9.4600
 3.7330	 9.5440
 3.7360	 9.5720
 3.7390	 9.4420
 3.7410	 9.3240
 3.7440	 9.4730
 3.7470	 9.5230
 3.7490	 9.4080
 3.7520	 9.2540
 3.7550	 9.3640
 3.7580	 9.4290
 3.7600	 9.4290
 3.7630	 9.3940
 3.7660	 9.3780
 3.7680	 9.3650
 3.7710	 9.2290
 3.7740	 9.0500
 3.7770	 9.1820
 3.7790	 9.3810
 3.7820	 9.4890
 3.7850	 9.5430
 3.7880	 9.5810
 3.7900	 9.4820
 3.7930	 9.4650
 3.7960	 9.4980
 3.7990	 9.5360
 3.8020	 9.4440
 3.8040	 9.3000
 3.8070	 9.2260
 3.8100	 9.2960
 3.8130	 9.3700
 3.8160	 9.4260
 3.8180	 9.3840
 3.8210	 9.4240
 3.8240	 9.5330
 3.8270	 9.5900
 3.8300	 9.4300
 3.8330	 9.3520
 3.8350	 9.3100
 3.8380	 9.4890
 3.8410	 9.5810
 3.8440	 9.4670
 3.8470	 9.4390
 3.8500	 9.4230
 3.8520	 9.4570
 3.8550	 9.4350
 3.8580	 9.3750
 3.8610	 9.4330
 3.8640	 9.4400
 3.8670	 9.3940
 3.8700	 9.3960
 3.8730	 9.4090
 3.8750	 9.3800
 3.8780	 9.4070
 3.8810	 9.4480
 3.8840	 9.4460
 3.8870	 9.4420
 3.8900	 9.5140
 3.8930	 9.4520
 3.8960	 9.4160
 3.8990	 9.4610
 3.9020	 9.4610
 3.9050	 9.5180
 3.9080	 9.6930
 3.9110	 9.5680
 3.9140	 9.4270
 3.9160	 9.5110
 3.9190	 9.5830
 3.9220	 9.4550
 3.9250	 9.4520
 3.9280	 9.4640
 3.9310	 9.3780
 3.9340	 9.3640
 3.9370	 9.4190
 3.9400	 9.4280
 3.9430	 9.4580
 3.9460	 9.4450
 3.9490	 9.3960
 3.9520	 9.3970
 3.9550	 9.4670
 3.9580	 9.4710
 3.9610	 9.4590
 3.9640	 9.4370
 3.9670	 9.4570
 3.9700	 9.4080
 3.9730	 9.4280
 3.9770	 9.4680
 3.9800	 9.4800
 3.9830	 9.5100
 3.9860	 9.5720
 3.9890	 9.5230
 3.9920	 9.4760
 3.9950	 9.4500
 3.9980	 9.4370
 4.0010	 9.4730
 4.0040	 9.4950
 4.0070	 9.4810
 4.0100	 9.4830
 4.0130	 9.4220
 4.0170	 9.4610
 4.0200	 9.4870
 4.0230	 9.5330
 4.0260	 9.5520
 4.0290	 9.4990
 4.0320	 9.4410
 4.0350	 9.3860
 4.0380	 9.4210
 4.0420	 9.4970
 4.0450	 9.4340
 4.0480	 9.4310
 4.0510	 9.4680
 4.0540	 9.5130
 4.0570	 9.4650
 4.0610	 9.3980
 4.0640	 9.4230
 4.0670	 9.5120
 4.0700	 9.4090
 4.0730	 9.3620
 4.0770	 9.4180
 4.0800	 9.4080
 4.0830	 9.4340
 4.0860	 9.4730
 4.0890	 9.4420
 4.0930	 9.5000
 4.0960	 9.6020
 4.0990	 9.5870
 4.1020	 9.4470
 4.1060	 9.3960
 4.1090	 9.4580
 4.1120	 9.5270
 4.1150	 9.5410
 4.1190	 9.5010
 4.1220	 9.4570
 4.1250	 9.4650
 4.1280	 9.4850
 4.1320	 9.5070
 4.1350	 9.4280
 4.1380	 9.4570
 4.1420	 9.4840
 4.1450	 9.4600
 4.1480	 9.4130
 4.1520	 9.4050
 4.1550	 9.4180
 4.1580	 9.4040
 4.1620	 9.3400
 4.1650	 9.3930
 4.1680	 9.3900
 4.1720	 9.4430
 4.1750	 9.4940
 4.1780	 9.4680
 4.1820	 9.4360
 4.1850	 9.4650
 4.1890	 9.4940
 4.1920	 9.5080
 4.1950	 9.5230
 4.1990	 9.5600
 4.2020	 9.5200
 4.2060	 9.4860
 4.2090	 9.4480
 4.2120	 9.3060
 4.2160	 9.0830
 4.2190	 9.1870
 4.2230	 9.1680
 4.2260	 8.9390
 4.2300	 8.6310
 4.2330	 8.7110
 4.2360	 9.1020
 4.2400	 9.1050
 4.2430	 8.9480
 4.2470	 8.8430
 4.2500	 8.8630
 4.2540	 9.2070
 4.2570	 9.4040
 4.2610	 9.5430
 4.2640	 9.4630
 4.2680	 9.2510
 4.2710	 8.9770
 4.2750	 8.8900
 4.2780	 8.8760
 4.2820	 9.0030
 4.2850	 8.9070
 4.2890	 8.9280
 4.2930	 9.1240
 4.2960	 9.1150
 4.3000	 9.0030
 4.3030	 8.9370
 4.3070	 9.0880
 4.3100	 9.1970
 4.3140	 9.1500
 4.3180	 9.1230
 4.3210	 9.1700
 4.3250	 9.3160
 4.3280	 9.3610
 4.3320	 9.3310
 4.3360	 9.3300
 4.3390	 9.3800
 4.3430	 9.3860
 4.3470	 9.3220
 4.3500	 9.3150
 4.3540	 9.4540
 4.3570	 9.4550
 4.3610	 9.4900
 4.3650	 9.5140
 4.3680	 9.4780
 4.3720	 9.4670
 4.3760	 9.5080
 4.3800	 9.4940
 4.3830	 9.4590
 4.3870	 9.4560
 4.3910	 9.4720
 4.3940	 9.5100
 4.3980	 9.5390
 4.4020	 9.4660
 4.4060	 9.3920
 4.4090	 9.3620
 4.4130	 9.4080
 4.4170	 9.4260
 4.4210	 9.4750
 4.4240	 9.5610
 4.4280	 9.5770
 4.4320	 9.5370
 4.4360	 9.4590
 4.4400	 9.4490
 4.4430	 9.4740
 4.4470	 9.4920
 4.4510	 9.4920
 4.4550	 9.4780
 4.4590	 9.5120
 4.4620	 9.5030
 4.4660	 9.4880
 4.4700	 9.4830
 4.4740	 9.4790
 4.4780	 9.4240
 4.4820	 9.4130
 4.4860	 9.3880
 4.4900	 9.3930
 4.4930	 9.4450
 4.4970	 9.4810
 4.5010	 9.4100
 4.5050	 9.3180
 4.5090	 9.3900
 4.5130	 9.5030
 4.5170	 9.5130
 4.5210	 9.5180
 4.5250	 9.4420
 4.5290	 9.3700
 4.5330	 9.3130
 4.5370	 9.3360
 4.5410	 9.4130
 4.5450	 9.4990
 4.5490	 9.4350
 4.5530	 9.3910
 4.5570	 9.3780
 4.5610	 9.3950
 4.5650	 9.3730
 4.5690	 9.3140
 4.5730	 9.4320
 4.5770	 9.5290
 4.5810	 9.4600
 4.5850	 9.3480
 4.5890	 9.3390
 4.5930	 9.4170
 4.5970	 9.4770
 4.6010	 9.5410
 4.6050	 9.4000
 4.6090	 9.3030
 4.6130	 9.3620
 4.6170	 9.5350
 4.6220	 9.5580
 4.6260	 9.3830
 4.6300	 9.3330
 4.6340	 9.3930
 4.6380	 9.3880
 4.6420	 9.3890
 4.6460	 9.4380
 4.6510	 9.4590
 4.6550	 9.3750
 4.6590	 9.2990
 4.6630	 9.3580
 4.6670	 9.3890
 4.6720	 9.3960
 4.6760	 9.4480
 4.6800	 9.4480
 4.6840	 9.4140
 4.6880	 9.3400
 4.6930	 9.3010
 4.6970	 9.3280
 4.7010	 9.4130
 4.7050	 9.4150
 4.7100	 9.2650
 4.7140	 9.2250
 4.7180	 9.2970
 4.7230	 9.4160
 4.7270	 9.4150
 4.7310	 9.3760
 4.7360	 9.3210
 4.7400	 9.2760
 4.7440	 9.3480
 4.7490	 9.3570
 4.7530	 9.3100
 4.7570	 9.3200
 4.7620	 9.2890
 4.7660	 9.2680
 4.7700	 9.3460
 4.7750	 9.3980
 4.7790	 9.4950
 4.7840	 9.4330
 4.7880	 9.0420
 4.7920	 9.1240
 4.7970	 9.4360
 4.8010	 9.3550
 4.8060	 9.1860
 4.8100	 9.1690
 4.8150	 9.2650
 4.8190	 9.3860
 4.8240	 9.4020
 4.8280	 9.5080
 4.8330	 9.5120
 4.8370	 9.3700
 4.8420	 9.3080
 4.8460	 9.4030
 4.8510	 9.4760
 4.8550	 9.4610
 4.8600	 9.3940
 4.8640	 9.4000
 4.8690	 9.4750
 4.8730	 9.5080
 4.8780	 9.4480
 4.8830	 9.4780
 4.8870	 9.5470
 4.8920	 9.4920
 4.8960	 9.4640
 4.9010	 9.4800
 4.9060	 9.4920
 4.9100	 9.4950
 4.9150	 9.4530
 4.9200	 9.4050
 4.9240	 9.4630
 4.9290	 9.5080
 4.9340	 9.5240
 4.9380	 9.4870
 4.9430	 9.4160
 4.9480	 9.4920
 4.9530	 9.5620
 4.9570	 9.5620
 4.9620	 9.4810
 4.9670	 9.4410
 4.9720	 9.5100
 4.9760	 9.5050
 4.9810	 9.5310
 4.9860	 9.6500
 4.9910	 9.7250
 4.9960	 9.6760
 5.0000	 9.5690
 5.0050	 9.5200
 5.0100	 9.5750
 5.0150	 9.5880
 5.0200	 9.5560
 5.0250	 9.5660
 5.0290	 9.4710
 5.0340	 9.4470
 5.0390	 9.4470
 5.0440	 9.4310
 5.0490	 9.4550
 5.0540	 9.4660
 5.0590	 9.4780
 5.0640	 9.4960
 5.0690	 9.4620
 5.0740	 9.4540
 5.0790	 9.5140
 5.0840	 9.5240
 5.0890	 9.5380
 5.0940	 9.6070
 5.0990	 9.5630
 5.1040	 9.4980
 5.1090	 9.4960
 5.1140	 9.5340
 5.1190	 9.5320
 5.1240	 9.5720
 5.1290	 9.5710
 5.1340	 9.5200
 5.1390	 9.5000
 5.1440	 9.5110
 5.1490	 9.4650
 5.1540	 9.4660
 5.1600	 9.4780
 5.1650	 9.4750
 5.1700	 9.3780
 5.1750	 9.4290
 5.1800	 9.4800
 5.1850	 9.5350
 5.1910	 9.5220
 5.1960	 9.4740
 5.2010	 9.5120
 5.2060	 9.6020
 5.2110	 9.5310
 5.2170	 9.4460
 5.2220	 9.4670
 5.2270	 9.4620
 5.2320	 9.4580
 5.2380	 9.5300
 5.2430	 9.4630
 5.2480	 9.4490
 5.2540	 9.5340
 5.2590	 9.5940
 5.2640	 9.5360
 5.2700	 9.5040
 5.2750	 9.5320
 5.2800	 9.5810
 5.2860	 9.5410
 5.2910	 9.5770
 5.2970	 9.5290
 5.3020	 9.5180
 5.3070	 9.5340
 5.3130	 9.4750
 5.3180	 9.4360
 5.3240	 9.5150
 5.3290	 9.4940
 5.3350	 9.4380
 5.3400	 9.4430
 5.3460	 9.4850
 5.3510	 9.4710
 5.3570	 9.4740
 5.3620	 9.5310
 5.3680	 9.5270
 5.3730	 9.4670
 5.3790	 9.4190
 5.3850	 9.4160
 5.3900	 9.4690
 5.3960	 9.4330
 5.4010	 9.4010
 5.4070	 9.3540
 5.4130	 9.4340
 5.4180	 9.4260
 5.4240	 9.4020
 5.4300	 9.3930
 5.4350	 9.4140
 5.4410	 9.3990
