Name: Acacia caven
Type: vegetation
Class: Tree
Genus: Acacia
Species: caven
Sample No.: JPL139
Owner: JPL
Wavelength Range: VSWIR
Origin: 34.12567; -118.11021; WGS84
Collection Date: 9/14/2016
Description: Samples were collected at the Huntington Garden in San Marino California as part of a JPL Subcontract studying HyTES imagery. Samples were taken to JPL and processed within 48 hours of collection. The same leaves were processed in the Nicolet and then measured using the ASD.
Measurement: Bidirectional reflectance
First Column: X
Second Column: Y
X Units: Wavelength (micrometer)
Y Units: Reflectance (percentage)
First X Value: 0.35
Last X Value: 2.5
Number of X Values: 2151
Additional Information: vegetation.tree.acacia.caven.vswir.jpl139.jpl.asd.ancillary.txt

 0.3500	 1.7040
 0.3510	 1.6280
 0.3520	 1.5160
 0.3530	 1.4440
 0.3540	 1.4680
 0.3550	 1.5800
 0.3560	 1.6330
 0.3570	 1.6020
 0.3580	 1.5380
 0.3590	 1.5150
 0.3600	 1.5120
 0.3610	 1.5050
 0.3620	 1.4780
 0.3630	 1.5110
 0.3640	 1.5400
 0.3650	 1.5040
 0.3660	 1.4880
 0.3670	 1.5060
 0.3680	 1.5490
 0.3690	 1.5820
 0.3700	 1.5450
 0.3710	 1.4840
 0.3720	 1.4570
 0.3730	 1.5130
 0.3740	 1.5440
 0.3750	 1.5210
 0.3760	 1.4610
 0.3770	 1.4180
 0.3780	 1.4650
 0.3790	 1.5450
 0.3800	 1.5060
 0.3810	 1.4950
 0.3820	 1.4890
 0.3830	 1.4640
 0.3840	 1.4570
 0.3850	 1.4740
 0.3860	 1.5000
 0.3870	 1.5120
 0.3880	 1.4750
 0.3890	 1.4540
 0.3900	 1.4720
 0.3910	 1.5120
 0.3920	 1.5120
 0.3930	 1.4850
 0.3940	 1.4620
 0.3950	 1.4670
 0.3960	 1.4690
 0.3970	 1.4630
 0.3980	 1.4590
 0.3990	 1.4700
 0.4000	 1.5080
 0.4010	 1.5520
 0.4020	 1.5410
 0.4030	 1.5280
 0.4040	 1.5240
 0.4050	 1.5260
 0.4060	 1.5070
 0.4070	 1.5150
 0.4080	 1.5480
 0.4090	 1.5700
 0.4100	 1.5660
 0.4110	 1.5650
 0.4120	 1.5810
 0.4130	 1.5840
 0.4140	 1.6060
 0.4150	 1.6310
 0.4160	 1.6390
 0.4170	 1.6450
 0.4180	 1.6700
 0.4190	 1.7020
 0.4200	 1.7000
 0.4210	 1.7240
 0.4220	 1.7600
 0.4230	 1.7890
 0.4240	 1.8170
 0.4250	 1.8400
 0.4260	 1.8660
 0.4270	 1.9010
 0.4280	 1.9450
 0.4290	 1.9810
 0.4300	 2.0090
 0.4310	 2.0400
 0.4320	 2.0870
 0.4330	 2.1340
 0.4340	 2.1650
 0.4350	 2.1930
 0.4360	 2.2310
 0.4370	 2.2750
 0.4380	 2.3100
 0.4390	 2.3400
 0.4400	 2.3710
 0.4410	 2.4060
 0.4420	 2.4450
 0.4430	 2.4860
 0.4440	 2.5250
 0.4450	 2.5650
 0.4460	 2.6000
 0.4470	 2.6320
 0.4480	 2.6650
 0.4490	 2.7020
 0.4500	 2.7450
 0.4510	 2.7860
 0.4520	 2.8200
 0.4530	 2.8430
 0.4540	 2.8730
 0.4550	 2.9090
 0.4560	 2.9360
 0.4570	 2.9630
 0.4580	 2.9860
 0.4590	 3.0050
 0.4600	 3.0210
 0.4610	 3.0400
 0.4620	 3.0610
 0.4630	 3.0830
 0.4640	 3.1010
 0.4650	 3.1240
 0.4660	 3.1460
 0.4670	 3.1520
 0.4680	 3.1570
 0.4690	 3.1700
 0.4700	 3.1920
 0.4710	 3.1990
 0.4720	 3.2070
 0.4730	 3.2190
 0.4740	 3.2290
 0.4750	 3.2400
 0.4760	 3.2480
 0.4770	 3.2530
 0.4780	 3.2660
 0.4790	 3.2770
 0.4800	 3.2820
 0.4810	 3.2840
 0.4820	 3.3000
 0.4830	 3.3140
 0.4840	 3.3220
 0.4850	 3.3300
 0.4860	 3.3420
 0.4870	 3.3570
 0.4880	 3.3740
 0.4890	 3.3880
 0.4900	 3.3970
 0.4910	 3.4060
 0.4920	 3.4260
 0.4930	 3.4420
 0.4940	 3.4590
 0.4950	 3.4790
 0.4960	 3.4980
 0.4970	 3.5220
 0.4980	 3.5470
 0.4990	 3.5690
 0.5000	 3.5940
 0.5010	 3.6250
 0.5020	 3.6620
 0.5030	 3.6970
 0.5040	 3.7430
 0.5050	 3.7920
 0.5060	 3.8390
 0.5070	 3.8890
 0.5080	 3.9420
 0.5090	 4.0000
 0.5100	 4.0650
 0.5110	 4.1330
 0.5120	 4.2070
 0.5130	 4.2870
 0.5140	 4.3710
 0.5150	 4.4580
 0.5160	 4.5470
 0.5170	 4.6370
 0.5180	 4.7350
 0.5190	 4.8370
 0.5200	 4.9410
 0.5210	 5.0430
 0.5220	 5.1500
 0.5230	 5.2570
 0.5240	 5.3570
 0.5250	 5.4530
 0.5260	 5.5530
 0.5270	 5.6500
 0.5280	 5.7320
 0.5290	 5.8120
 0.5300	 5.8880
 0.5310	 5.9590
 0.5320	 6.0240
 0.5330	 6.0820
 0.5340	 6.1340
 0.5350	 6.1840
 0.5360	 6.2290
 0.5370	 6.2710
 0.5380	 6.3120
 0.5390	 6.3560
 0.5400	 6.4070
 0.5410	 6.4630
 0.5420	 6.5200
 0.5430	 6.5670
 0.5440	 6.5960
 0.5450	 6.6070
 0.5460	 6.6050
 0.5470	 6.5960
 0.5480	 6.5890
 0.5490	 6.5880
 0.5500	 6.5910
 0.5510	 6.5900
 0.5520	 6.5860
 0.5530	 6.5790
 0.5540	 6.5670
 0.5550	 6.5450
 0.5560	 6.5180
 0.5570	 6.4900
 0.5580	 6.4580
 0.5590	 6.4210
 0.5600	 6.3800
 0.5610	 6.3360
 0.5620	 6.2900
 0.5630	 6.2430
 0.5640	 6.1980
 0.5650	 6.1450
 0.5660	 6.0930
 0.5670	 6.0440
 0.5680	 5.9900
 0.5690	 5.9290
 0.5700	 5.8660
 0.5710	 5.8080
 0.5720	 5.7500
 0.5730	 5.6930
 0.5740	 5.6370
 0.5750	 5.5830
 0.5760	 5.5310
 0.5770	 5.4840
 0.5780	 5.4410
 0.5790	 5.4060
 0.5800	 5.3700
 0.5810	 5.3350
 0.5820	 5.3040
 0.5830	 5.2740
 0.5840	 5.2490
 0.5850	 5.2250
 0.5860	 5.2000
 0.5870	 5.1770
 0.5880	 5.1560
 0.5890	 5.1340
 0.5900	 5.1070
 0.5910	 5.0890
 0.5920	 5.0750
 0.5930	 5.0570
 0.5940	 5.0460
 0.5950	 5.0370
 0.5960	 5.0260
 0.5970	 5.0180
 0.5980	 5.0100
 0.5990	 5.0030
 0.6000	 4.9930
 0.6010	 4.9780
 0.6020	 4.9580
 0.6030	 4.9360
 0.6040	 4.9150
 0.6050	 4.8880
 0.6060	 4.8590
 0.6070	 4.8280
 0.6080	 4.7960
 0.6090	 4.7680
 0.6100	 4.7500
 0.6110	 4.7430
 0.6120	 4.7090
 0.6130	 4.6560
 0.6140	 4.5980
 0.6150	 4.5560
 0.6160	 4.5150
 0.6170	 4.4770
 0.6180	 4.4470
 0.6190	 4.4240
 0.6200	 4.4020
 0.6210	 4.3790
 0.6220	 4.3590
 0.6230	 4.3420
 0.6240	 4.3270
 0.6250	 4.3150
 0.6260	 4.3070
 0.6270	 4.2990
 0.6280	 4.2930
 0.6290	 4.2920
 0.6300	 4.2910
 0.6310	 4.2890
 0.6320	 4.2850
 0.6330	 4.2780
 0.6340	 4.2690
 0.6350	 4.2590
 0.6360	 4.2500
 0.6370	 4.2330
 0.6380	 4.2130
 0.6390	 4.1910
 0.6400	 4.1700
 0.6410	 4.1440
 0.6420	 4.1180
 0.6430	 4.0930
 0.6440	 4.0590
 0.6450	 4.0240
 0.6460	 3.9900
 0.6470	 3.9580
 0.6480	 3.9270
 0.6490	 3.8980
 0.6500	 3.8710
 0.6510	 3.8450
 0.6520	 3.8220
 0.6530	 3.8000
 0.6540	 3.7760
 0.6550	 3.7490
 0.6560	 3.7180
 0.6570	 3.6860
 0.6580	 3.6550
 0.6590	 3.6200
 0.6600	 3.5840
 0.6610	 3.5470
 0.6620	 3.5110
 0.6630	 3.4750
 0.6640	 3.4420
 0.6650	 3.4130
 0.6660	 3.3880
 0.6670	 3.3670
 0.6680	 3.3470
 0.6690	 3.3320
 0.6700	 3.3220
 0.6710	 3.3160
 0.6720	 3.3130
 0.6730	 3.3110
 0.6740	 3.3130
 0.6750	 3.3180
 0.6760	 3.3240
 0.6770	 3.3330
 0.6780	 3.3460
 0.6790	 3.3640
 0.6800	 3.3830
 0.6810	 3.4050
 0.6820	 3.4340
 0.6830	 3.4700
 0.6840	 3.5150
 0.6850	 3.5670
 0.6860	 3.6270
 0.6870	 3.6970
 0.6880	 3.7850
 0.6890	 3.8890
 0.6900	 4.0080
 0.6910	 4.1470
 0.6920	 4.3100
 0.6930	 4.4960
 0.6940	 4.7050
 0.6950	 4.9360
 0.6960	 5.1910
 0.6970	 5.4690
 0.6980	 5.7670
 0.6990	 6.0810
 0.7000	 6.4120
 0.7010	 6.7610
 0.7020	 7.1230
 0.7030	 7.4990
 0.7040	 7.8860
 0.7050	 8.2810
 0.7060	 8.6850
 0.7070	 9.0970
 0.7080	 9.5160
 0.7090	 9.9420
 0.7100	10.3760
 0.7110	10.8200
 0.7120	11.2730
 0.7130	11.7310
 0.7140	12.1940
 0.7150	12.6650
 0.7160	13.1450
 0.7170	13.6330
 0.7180	14.1230
 0.7190	14.6150
 0.7200	15.1110
 0.7210	15.6060
 0.7220	16.1000
 0.7230	16.5920
 0.7240	17.0790
 0.7250	17.5610
 0.7260	18.0370
 0.7270	18.5020
 0.7280	18.9540
 0.7290	19.3930
 0.7300	19.8200
 0.7310	20.2340
 0.7320	20.6330
 0.7330	21.0170
 0.7340	21.3830
 0.7350	21.7320
 0.7360	22.0680
 0.7370	22.3870
 0.7380	22.6870
 0.7390	22.9750
 0.7400	23.2450
 0.7410	23.4980
 0.7420	23.7370
 0.7430	23.9590
 0.7440	24.1680
 0.7450	24.3650
 0.7460	24.5470
 0.7470	24.7160
 0.7480	24.8720
 0.7490	25.0170
 0.7500	25.1510
 0.7510	25.2750
 0.7520	25.3890
 0.7530	25.4950
 0.7540	25.5940
 0.7550	25.6870
 0.7560	25.7730
 0.7570	25.8530
 0.7580	25.9270
 0.7590	25.9960
 0.7600	26.0620
 0.7610	26.1210
 0.7620	26.1770
 0.7630	26.2300
 0.7640	26.2780
 0.7650	26.3250
 0.7660	26.3680
 0.7670	26.4090
 0.7680	26.4480
 0.7690	26.4850
 0.7700	26.5200
 0.7710	26.5550
 0.7720	26.5850
 0.7730	26.6160
 0.7740	26.6480
 0.7750	26.6800
 0.7760	26.7080
 0.7770	26.7370
 0.7780	26.7660
 0.7790	26.7940
 0.7800	26.8180
 0.7810	26.8420
 0.7820	26.8670
 0.7830	26.8940
 0.7840	26.9180
 0.7850	26.9410
 0.7860	26.9650
 0.7870	26.9870
 0.7880	27.0090
 0.7890	27.0300
 0.7900	27.0520
 0.7910	27.0710
 0.7920	27.0890
 0.7930	27.1070
 0.7940	27.1280
 0.7950	27.1470
 0.7960	27.1650
 0.7970	27.1820
 0.7980	27.1970
 0.7990	27.2140
 0.8000	27.2290
 0.8010	27.2400
 0.8020	27.2560
 0.8030	27.2720
 0.8040	27.2870
 0.8050	27.2990
 0.8060	27.3110
 0.8070	27.3230
 0.8080	27.3350
 0.8090	27.3460
 0.8100	27.3580
 0.8110	27.3690
 0.8120	27.3800
 0.8130	27.3890
 0.8140	27.3980
 0.8150	27.4060
 0.8160	27.4140
 0.8170	27.4260
 0.8180	27.4360
 0.8190	27.4440
 0.8200	27.4500
 0.8210	27.4580
 0.8220	27.4650
 0.8230	27.4730
 0.8240	27.4830
 0.8250	27.4910
 0.8260	27.4970
 0.8270	27.5020
 0.8280	27.5090
 0.8290	27.5130
 0.8300	27.5180
 0.8310	27.5270
 0.8320	27.5340
 0.8330	27.5410
 0.8340	27.5470
 0.8350	27.5530
 0.8360	27.5580
 0.8370	27.5650
 0.8380	27.5760
 0.8390	27.5860
 0.8400	27.5940
 0.8410	27.6030
 0.8420	27.6120
 0.8430	27.6250
 0.8440	27.6340
 0.8450	27.6420
 0.8460	27.6520
 0.8470	27.6620
 0.8480	27.6730
 0.8490	27.6840
 0.8500	27.6950
 0.8510	27.7060
 0.8520	27.7190
 0.8530	27.7320
 0.8540	27.7400
 0.8550	27.7530
 0.8560	27.7650
 0.8570	27.7770
 0.8580	27.7910
 0.8590	27.8050
 0.8600	27.8160
 0.8610	27.8270
 0.8620	27.8390
 0.8630	27.8560
 0.8640	27.8750
 0.8650	27.8900
 0.8660	27.9050
 0.8670	27.9200
 0.8680	27.9360
 0.8690	27.9510
 0.8700	27.9660
 0.8710	27.9800
 0.8720	27.9950
 0.8730	28.0140
 0.8740	28.0320
 0.8750	28.0490
 0.8760	28.0660
 0.8770	28.0830
 0.8780	28.1010
 0.8790	28.1170
 0.8800	28.1320
 0.8810	28.1480
 0.8820	28.1680
 0.8830	28.1850
 0.8840	28.1990
 0.8850	28.2170
 0.8860	28.2340
 0.8870	28.2490
 0.8880	28.2660
 0.8890	28.2840
 0.8900	28.3040
 0.8910	28.3230
 0.8920	28.3360
 0.8930	28.3510
 0.8940	28.3690
 0.8950	28.3860
 0.8960	28.3980
 0.8970	28.4160
 0.8980	28.4320
 0.8990	28.4440
 0.9000	28.4600
 0.9010	28.4770
 0.9020	28.4920
 0.9030	28.5060
 0.9040	28.5240
 0.9050	28.5430
 0.9060	28.5580
 0.9070	28.5720
 0.9080	28.5850
 0.9090	28.5970
 0.9100	28.6100
 0.9110	28.6210
 0.9120	28.6320
 0.9130	28.6480
 0.9140	28.6650
 0.9150	28.6770
 0.9160	28.6920
 0.9170	28.7060
 0.9180	28.7160
 0.9190	28.7240
 0.9200	28.7330
 0.9210	28.7440
 0.9220	28.7550
 0.9230	28.7580
 0.9240	28.7670
 0.9250	28.7770
 0.9260	28.7830
 0.9270	28.7860
 0.9280	28.7920
 0.9290	28.7970
 0.9300	28.8010
 0.9310	28.8110
 0.9320	28.8160
 0.9330	28.8140
 0.9340	28.8110
 0.9350	28.8120
 0.9360	28.8120
 0.9370	28.8130
 0.9380	28.8140
 0.9390	28.8150
 0.9400	28.8140
 0.9410	28.8120
 0.9420	28.8120
 0.9430	28.8080
 0.9440	28.7940
 0.9450	28.7860
 0.9460	28.7930
 0.9470	28.7840
 0.9480	28.7730
 0.9490	28.7550
 0.9500	28.7290
 0.9510	28.7140
 0.9520	28.7000
 0.9530	28.6820
 0.9540	28.6630
 0.9550	28.6430
 0.9560	28.6200
 0.9570	28.6050
 0.9580	28.6020
 0.9590	28.5810
 0.9600	28.5620
 0.9610	28.5450
 0.9620	28.5260
 0.9630	28.5220
 0.9640	28.5230
 0.9650	28.5230
 0.9660	28.5200
 0.9670	28.5170
 0.9680	28.5040
 0.9690	28.4950
 0.9700	28.5070
 0.9710	28.5130
 0.9720	28.5120
 0.9730	28.5150
 0.9740	28.5300
 0.9750	28.5280
 0.9760	28.5270
 0.9770	28.5320
 0.9780	28.5380
 0.9790	28.5410
 0.9800	28.5430
 0.9810	28.5490
 0.9820	28.5600
 0.9830	28.5710
 0.9840	28.5910
 0.9850	28.6110
 0.9860	28.6160
 0.9870	28.6270
 0.9880	28.6370
 0.9890	28.6450
 0.9900	28.6510
 0.9910	28.6650
 0.9920	28.6790
 0.9930	28.6970
 0.9940	28.7210
 0.9950	28.7370
 0.9960	28.7430
 0.9970	28.7560
 0.9980	28.7850
 0.9990	28.7940
 1.0000	28.8050
 1.0010	29.2290
 1.0020	29.2450
 1.0030	29.2620
 1.0040	29.2800
 1.0050	29.3020
 1.0060	29.3240
 1.0070	29.3440
 1.0080	29.3630
 1.0090	29.3800
 1.0100	29.3990
 1.0110	29.4200
 1.0120	29.4380
 1.0130	29.4580
 1.0140	29.4760
 1.0150	29.4920
 1.0160	29.5090
 1.0170	29.5290
 1.0180	29.5460
 1.0190	29.5600
 1.0200	29.5790
 1.0210	29.6020
 1.0220	29.6230
 1.0230	29.6420
 1.0240	29.6630
 1.0250	29.6830
 1.0260	29.6990
 1.0270	29.7170
 1.0280	29.7390
 1.0290	29.7580
 1.0300	29.7760
 1.0310	29.7940
 1.0320	29.8130
 1.0330	29.8290
 1.0340	29.8420
 1.0350	29.8590
 1.0360	29.8790
 1.0370	29.8990
 1.0380	29.9170
 1.0390	29.9370
 1.0400	29.9570
 1.0410	29.9780
 1.0420	29.9960
 1.0430	30.0160
 1.0440	30.0330
 1.0450	30.0430
 1.0460	30.0600
 1.0470	30.0830
 1.0480	30.1000
 1.0490	30.1160
 1.0500	30.1330
 1.0510	30.1460
 1.0520	30.1580
 1.0530	30.1740
 1.0540	30.1930
 1.0550	30.2110
 1.0560	30.2280
 1.0570	30.2450
 1.0580	30.2630
 1.0590	30.2790
 1.0600	30.2970
 1.0610	30.3130
 1.0620	30.3270
 1.0630	30.3420
 1.0640	30.3560
 1.0650	30.3710
 1.0660	30.3890
 1.0670	30.4030
 1.0680	30.4170
 1.0690	30.4290
 1.0700	30.4430
 1.0710	30.4570
 1.0720	30.4720
 1.0730	30.4910
 1.0740	30.5060
 1.0750	30.5180
 1.0760	30.5310
 1.0770	30.5410
 1.0780	30.5520
 1.0790	30.5640
 1.0800	30.5750
 1.0810	30.5850
 1.0820	30.5970
 1.0830	30.6080
 1.0840	30.6200
 1.0850	30.6320
 1.0860	30.6450
 1.0870	30.6570
 1.0880	30.6670
 1.0890	30.6780
 1.0900	30.6880
 1.0910	30.6960
 1.0920	30.7030
 1.0930	30.7110
 1.0940	30.7160
 1.0950	30.7240
 1.0960	30.7350
 1.0970	30.7440
 1.0980	30.7540
 1.0990	30.7620
 1.1000	30.7690
 1.1010	30.7770
 1.1020	30.7840
 1.1030	30.7900
 1.1040	30.7970
 1.1050	30.8040
 1.1060	30.8100
 1.1070	30.8170
 1.1080	30.8220
 1.1090	30.8260
 1.1100	30.8310
 1.1110	30.8350
 1.1120	30.8390
 1.1130	30.8430
 1.1140	30.8450
 1.1150	30.8460
 1.1160	30.8470
 1.1170	30.8470
 1.1180	30.8450
 1.1190	30.8420
 1.1200	30.8390
 1.1210	30.8320
 1.1220	30.8250
 1.1230	30.8180
 1.1240	30.8080
 1.1250	30.7950
 1.1260	30.7810
 1.1270	30.7630
 1.1280	30.7420
 1.1290	30.7180
 1.1300	30.6920
 1.1310	30.6600
 1.1320	30.6220
 1.1330	30.5820
 1.1340	30.5390
 1.1350	30.4920
 1.1360	30.4420
 1.1370	30.3880
 1.1380	30.3310
 1.1390	30.2700
 1.1400	30.2070
 1.1410	30.1440
 1.1420	30.0770
 1.1430	30.0090
 1.1440	29.9420
 1.1450	29.8750
 1.1460	29.8090
 1.1470	29.7430
 1.1480	29.6800
 1.1490	29.6160
 1.1500	29.5580
 1.1510	29.5030
 1.1520	29.4500
 1.1530	29.4010
 1.1540	29.3550
 1.1550	29.3100
 1.1560	29.2690
 1.1570	29.2320
 1.1580	29.2000
 1.1590	29.1710
 1.1600	29.1450
 1.1610	29.1200
 1.1620	29.0990
 1.1630	29.0810
 1.1640	29.0650
 1.1650	29.0490
 1.1660	29.0360
 1.1670	29.0240
 1.1680	29.0120
 1.1690	29.0030
 1.1700	28.9970
 1.1710	28.9890
 1.1720	28.9820
 1.1730	28.9740
 1.1740	28.9660
 1.1750	28.9580
 1.1760	28.9500
 1.1770	28.9420
 1.1780	28.9360
 1.1790	28.9280
 1.1800	28.9210
 1.1810	28.9150
 1.1820	28.9070
 1.1830	28.8990
 1.1840	28.8930
 1.1850	28.8870
 1.1860	28.8800
 1.1870	28.8740
 1.1880	28.8680
 1.1890	28.8600
 1.1900	28.8560
 1.1910	28.8540
 1.1920	28.8520
 1.1930	28.8520
 1.1940	28.8520
 1.1950	28.8500
 1.1960	28.8500
 1.1970	28.8510
 1.1980	28.8540
 1.1990	28.8580
 1.2000	28.8660
 1.2010	28.8740
 1.2020	28.8840
 1.2030	28.8960
 1.2040	28.9070
 1.2050	28.9190
 1.2060	28.9330
 1.2070	28.9510
 1.2080	28.9710
 1.2090	28.9940
 1.2100	29.0160
 1.2110	29.0400
 1.2120	29.0630
 1.2130	29.0900
 1.2140	29.1180
 1.2150	29.1490
 1.2160	29.1850
 1.2170	29.2210
 1.2180	29.2560
 1.2190	29.2930
 1.2200	29.3300
 1.2210	29.3680
 1.2220	29.4080
 1.2230	29.4480
 1.2240	29.4880
 1.2250	29.5270
 1.2260	29.5630
 1.2270	29.6000
 1.2280	29.6370
 1.2290	29.6740
 1.2300	29.7090
 1.2310	29.7410
 1.2320	29.7720
 1.2330	29.8010
 1.2340	29.8300
 1.2350	29.8590
 1.2360	29.8860
 1.2370	29.9130
 1.2380	29.9390
 1.2390	29.9640
 1.2400	29.9890
 1.2410	30.0150
 1.2420	30.0400
 1.2430	30.0670
 1.2440	30.0910
 1.2450	30.1140
 1.2460	30.1370
 1.2470	30.1590
 1.2480	30.1810
 1.2490	30.2020
 1.2500	30.2200
 1.2510	30.2410
 1.2520	30.2610
 1.2530	30.2790
 1.2540	30.2980
 1.2550	30.3150
 1.2560	30.3290
 1.2570	30.3430
 1.2580	30.3570
 1.2590	30.3700
 1.2600	30.3840
 1.2610	30.3970
 1.2620	30.4090
 1.2630	30.4200
 1.2640	30.4300
 1.2650	30.4410
 1.2660	30.4520
 1.2670	30.4620
 1.2680	30.4720
 1.2690	30.4810
 1.2700	30.4890
 1.2710	30.4960
 1.2720	30.5030
 1.2730	30.5090
 1.2740	30.5170
 1.2750	30.5220
 1.2760	30.5270
 1.2770	30.5300
 1.2780	30.5310
 1.2790	30.5320
 1.2800	30.5330
 1.2810	30.5330
 1.2820	30.5330
 1.2830	30.5310
 1.2840	30.5280
 1.2850	30.5250
 1.2860	30.5220
 1.2870	30.5180
 1.2880	30.5130
 1.2890	30.5070
 1.2900	30.5000
 1.2910	30.4910
 1.2920	30.4800
 1.2930	30.4660
 1.2940	30.4510
 1.2950	30.4370
 1.2960	30.4230
 1.2970	30.4070
 1.2980	30.3900
 1.2990	30.3710
 1.3000	30.3500
 1.3010	30.3270
 1.3020	30.3020
 1.3030	30.2740
 1.3040	30.2450
 1.3050	30.2150
 1.3060	30.1850
 1.3070	30.1540
 1.3080	30.1200
 1.3090	30.0830
 1.3100	30.0440
 1.3110	30.0010
 1.3120	29.9570
 1.3130	29.9140
 1.3140	29.8670
 1.3150	29.8200
 1.3160	29.7700
 1.3170	29.7190
 1.3180	29.6650
 1.3190	29.6090
 1.3200	29.5510
 1.3210	29.4920
 1.3220	29.4330
 1.3230	29.3720
 1.3240	29.3070
 1.3250	29.2410
 1.3260	29.1720
 1.3270	29.1000
 1.3280	29.0270
 1.3290	28.9520
 1.3300	28.8760
 1.3310	28.7990
 1.3320	28.7220
 1.3330	28.6450
 1.3340	28.5650
 1.3350	28.4850
 1.3360	28.4030
 1.3370	28.3200
 1.3380	28.2370
 1.3390	28.1540
 1.3400	28.0700
 1.3410	27.9870
 1.3420	27.9070
 1.3430	27.8250
 1.3440	27.7440
 1.3450	27.6630
 1.3460	27.5830
 1.3470	27.5040
 1.3480	27.4270
 1.3490	27.3490
 1.3500	27.2720
 1.3510	27.1960
 1.3520	27.1210
 1.3530	27.0480
 1.3540	26.9730
 1.3550	26.8980
 1.3560	26.8230
 1.3570	26.7450
 1.3580	26.6700
 1.3590	26.5930
 1.3600	26.5130
 1.3610	26.4310
 1.3620	26.3460
 1.3630	26.2570
 1.3640	26.1660
 1.3650	26.0700
 1.3660	25.9710
 1.3670	25.8670
 1.3680	25.7540
 1.3690	25.6340
 1.3700	25.5050
 1.3710	25.3670
 1.3720	25.2200
 1.3730	25.0630
 1.3740	24.8960
 1.3750	24.7150
 1.3760	24.5180
 1.3770	24.3070
 1.3780	24.0800
 1.3790	23.8380
 1.3800	23.5820
 1.3810	23.3080
 1.3820	23.0210
 1.3830	22.7190
 1.3840	22.4050
 1.3850	22.0760
 1.3860	21.7380
 1.3870	21.3850
 1.3880	21.0280
 1.3890	20.6630
 1.3900	20.2900
 1.3910	19.9180
 1.3920	19.5410
 1.3930	19.1590
 1.3940	18.7800
 1.3950	18.4000
 1.3960	18.0230
 1.3970	17.6550
 1.3980	17.2920
 1.3990	16.9420
 1.4000	16.6000
 1.4010	16.2660
 1.4020	15.9460
 1.4030	15.6340
 1.4040	15.3360
 1.4050	15.0530
 1.4060	14.7810
 1.4070	14.5260
 1.4080	14.2830
 1.4090	14.0520
 1.4100	13.8360
 1.4110	13.6320
 1.4120	13.4410
 1.4130	13.2630
 1.4140	13.0950
 1.4150	12.9400
 1.4160	12.7960
 1.4170	12.6600
 1.4180	12.5340
 1.4190	12.4170
 1.4200	12.3090
 1.4210	12.2090
 1.4220	12.1160
 1.4230	12.0310
 1.4240	11.9520
 1.4250	11.8780
 1.4260	11.8120
 1.4270	11.7490
 1.4280	11.6910
 1.4290	11.6380
 1.4300	11.5900
 1.4310	11.5460
 1.4320	11.5070
 1.4330	11.4720
 1.4340	11.4390
 1.4350	11.4110
 1.4360	11.3860
 1.4370	11.3640
 1.4380	11.3450
 1.4390	11.3300
 1.4400	11.3170
 1.4410	11.3060
 1.4420	11.2970
 1.4430	11.2900
 1.4440	11.2860
 1.4450	11.2830
 1.4460	11.2820
 1.4470	11.2820
 1.4480	11.2820
 1.4490	11.2860
 1.4500	11.2910
 1.4510	11.2970
 1.4520	11.3050
 1.4530	11.3130
 1.4540	11.3220
 1.4550	11.3340
 1.4560	11.3470
 1.4570	11.3610
 1.4580	11.3780
 1.4590	11.3970
 1.4600	11.4190
 1.4610	11.4440
 1.4620	11.4710
 1.4630	11.5010
 1.4640	11.5340
 1.4650	11.5690
 1.4660	11.6090
 1.4670	11.6510
 1.4680	11.6970
 1.4690	11.7460
 1.4700	11.7970
 1.4710	11.8520
 1.4720	11.9090
 1.4730	11.9680
 1.4740	12.0320
 1.4750	12.0970
 1.4760	12.1640
 1.4770	12.2320
 1.4780	12.3000
