Name: Puya venusta
Type: vegetation
Class: Shrub
Genus: Puya
Species: venusta
Sample No.: JPL081
Owner: JPL
Wavelength Range: TIR
Origin: 34.12562; - 118.1098; WGS84
Collection Date: 2/2/2016
Description: Samples were collected at the Huntington Garden in San Marino California as part of a JPL Subcontract studying HyTES imagery. Samples were taken to JPL and processed within 48 hours of collection. The same leaves were processed in the Nicolet and then measured using the ASD.
Measurement: Hemispherical reflectance
First Column: X
Second Column: Y
X Units: Wavelength (micrometer)
Y Units: Reflectance (percentage)
First X Value: 2.501
Last X Value: 15.387
Number of X Values: 1737
Additional Information: 

 2.5010	 7.9660
 2.5030	 7.9630
 2.5040	 8.0050
 2.5050	 7.9970
 2.5060	 7.9700
 2.5070	 7.9360
 2.5090	 7.9800
 2.5100	 7.9660
 2.5110	 7.9540
 2.5120	 7.9920
 2.5140	 8.0530
 2.5150	 8.0390
 2.5160	 7.9880
 2.5170	 7.9290
 2.5180	 7.9970
 2.5200	 8.0260
 2.5210	 8.0710
 2.5220	 8.0450
 2.5230	 8.0690
 2.5250	 8.1330
 2.5260	 8.1540
 2.5270	 8.0470
 2.5280	 8.0390
 2.5300	 7.9880
 2.5310	 7.9290
 2.5320	 7.9190
 2.5330	 8.0020
 2.5340	 8.0290
 2.5360	 8.0740
 2.5370	 8.0480
 2.5380	 8.0060
 2.5390	 8.0090
 2.5410	 8.0340
 2.5420	 8.0290
 2.5430	 8.1190
 2.5440	 8.0830
 2.5460	 8.0190
 2.5470	 7.9580
 2.5480	 8.0450
 2.5490	 8.1630
 2.5510	 8.2000
 2.5520	 8.1230
 2.5530	 8.1160
 2.5540	 8.1290
 2.5560	 8.0620
 2.5570	 8.0330
 2.5580	 8.1060
 2.5590	 8.0680
 2.5610	 8.0710
 2.5620	 8.0960
 2.5630	 8.1640
 2.5650	 8.1780
 2.5660	 8.1450
 2.5670	 8.0930
 2.5680	 8.1640
 2.5700	 8.1840
 2.5710	 8.2200
 2.5720	 8.1820
 2.5730	 8.2420
 2.5750	 8.2580
 2.5760	 8.2150
 2.5770	 8.1810
 2.5790	 8.1600
 2.5800	 8.1240
 2.5810	 8.1180
 2.5820	 8.1840
 2.5840	 8.2890
 2.5850	 8.2350
 2.5860	 8.2500
 2.5880	 8.2480
 2.5890	 8.2900
 2.5900	 8.2680
 2.5910	 8.2030
 2.5930	 8.1570
 2.5940	 8.2620
 2.5950	 8.3230
 2.5970	 8.2850
 2.5980	 8.2270
 2.5990	 8.2000
 2.6010	 8.2170
 2.6020	 8.2790
 2.6030	 8.2560
 2.6040	 8.2520
 2.6060	 8.2790
 2.6070	 8.3040
 2.6080	 8.2970
 2.6100	 8.2740
 2.6110	 8.1740
 2.6120	 8.2110
 2.6140	 8.2420
 2.6150	 8.2220
 2.6160	 8.1620
 2.6180	 8.1730
 2.6190	 8.1550
 2.6200	 8.1950
 2.6220	 8.1570
 2.6230	 8.1350
 2.6240	 8.0830
 2.6260	 8.0720
 2.6270	 8.0720
 2.6280	 8.1150
 2.6300	 8.1000
 2.6310	 8.1370
 2.6320	 8.0830
 2.6340	 8.1200
 2.6350	 8.1470
 2.6360	 8.1080
 2.6380	 8.0840
 2.6390	 8.0820
 2.6400	 8.0610
 2.6420	 8.1210
 2.6430	 8.1070
 2.6440	 8.0530
 2.6460	 8.0000
 2.6470	 8.0720
 2.6480	 8.0800
 2.6500	 8.0980
 2.6510	 8.0450
 2.6520	 8.0080
 2.6540	 8.0030
 2.6550	 8.0450
 2.6570	 7.9410
 2.6580	 7.9290
 2.6590	 7.9790
 2.6610	 8.0260
 2.6620	 7.9470
 2.6630	 7.9010
 2.6650	 7.9710
 2.6660	 8.0220
 2.6670	 7.9530
 2.6690	 7.9160
 2.6700	 7.9290
 2.6720	 7.9520
 2.6730	 7.9330
 2.6740	 7.9030
 2.6760	 7.8100
 2.6770	 7.8240
 2.6780	 7.8240
 2.6800	 7.8480
 2.6810	 7.7770
 2.6830	 7.8090
 2.6840	 7.7760
 2.6850	 7.7280
 2.6870	 7.6960
 2.6880	 7.6800
 2.6900	 7.6680
 2.6910	 7.6450
 2.6920	 7.5890
 2.6940	 7.6230
 2.6950	 7.5910
 2.6970	 7.5960
 2.6980	 7.5550
 2.6990	 7.5450
 2.7010	 7.5000
 2.7020	 7.4370
 2.7040	 7.3410
 2.7050	 7.3120
 2.7060	 7.3270
 2.7080	 7.3810
 2.7090	 7.3530
 2.7110	 7.3290
 2.7120	 7.2220
 2.7130	 7.1160
 2.7150	 7.0120
 2.7160	 7.0160
 2.7180	 6.9850
 2.7190	 6.8870
 2.7210	 6.8700
 2.7220	 6.8780
 2.7230	 6.7760
 2.7250	 6.7470
 2.7260	 6.7180
 2.7280	 6.6790
 2.7290	 6.5390
 2.7310	 6.5330
 2.7320	 6.5110
 2.7340	 6.4380
 2.7350	 6.3820
 2.7360	 6.3580
 2.7380	 6.3410
 2.7390	 6.3780
 2.7410	 6.2320
 2.7420	 6.1560
 2.7440	 6.1060
 2.7450	 6.0670
 2.7470	 6.0100
 2.7480	 5.9850
 2.7490	 5.9440
 2.7510	 5.9440
 2.7520	 5.8680
 2.7540	 5.8660
 2.7550	 5.8440
 2.7570	 5.8120
 2.7580	 5.7360
 2.7600	 5.7140
 2.7610	 5.6550
 2.7630	 5.5910
 2.7640	 5.5600
 2.7660	 5.6260
 2.7670	 5.6170
 2.7690	 5.5520
 2.7700	 5.4670
 2.7720	 5.4780
 2.7730	 5.4700
 2.7740	 5.4590
 2.7760	 5.4050
 2.7770	 5.4040
 2.7790	 5.3270
 2.7800	 5.2710
 2.7820	 5.1940
 2.7830	 5.2340
 2.7850	 5.2310
 2.7860	 5.2580
 2.7880	 5.1860
 2.7890	 5.1330
 2.7910	 5.0910
 2.7920	 5.0550
 2.7940	 4.9380
 2.7950	 4.8770
 2.7970	 4.8950
 2.7980	 4.9710
 2.8000	 4.9280
 2.8010	 4.9260
 2.8030	 4.9070
 2.8040	 4.8740
 2.8060	 4.8020
 2.8080	 4.8140
 2.8090	 4.8120
 2.8110	 4.8340
 2.8120	 4.8010
 2.8140	 4.7760
 2.8150	 4.7540
 2.8170	 4.7630
 2.8180	 4.6940
 2.8200	 4.6880
 2.8210	 4.6720
 2.8230	 4.6860
 2.8240	 4.6420
 2.8260	 4.6250
 2.8270	 4.6140
 2.8290	 4.6370
 2.8310	 4.6110
 2.8320	 4.6360
 2.8340	 4.5590
 2.8350	 4.5780
 2.8370	 4.5400
 2.8380	 4.5300
 2.8400	 4.5020
 2.8410	 4.5230
 2.8430	 4.5220
 2.8440	 4.5650
 2.8460	 4.5420
 2.8480	 4.5400
 2.8490	 4.4950
 2.8510	 4.5480
 2.8520	 4.4670
 2.8540	 4.4140
 2.8550	 4.4270
 2.8570	 4.4500
 2.8590	 4.4270
 2.8600	 4.4390
 2.8620	 4.3530
 2.8630	 4.3640
 2.8650	 4.4440
 2.8660	 4.3980
 2.8680	 4.2890
 2.8700	 4.3060
 2.8710	 4.3280
 2.8730	 4.4080
 2.8740	 4.3850
 2.8760	 4.3220
 2.8780	 4.2910
 2.8790	 4.3060
 2.8810	 4.1770
 2.8820	 4.1870
 2.8840	 4.2640
 2.8860	 4.2750
 2.8870	 4.2110
 2.8890	 4.1980
 2.8900	 4.2140
 2.8920	 4.2800
 2.8940	 4.2360
 2.8950	 4.2490
 2.8970	 4.2490
 2.8990	 4.2550
 2.9000	 4.2190
 2.9020	 4.2430
 2.9030	 4.2360
 2.9050	 4.2210
 2.9070	 4.2130
 2.9080	 4.2730
 2.9100	 4.1890
 2.9120	 4.1450
 2.9130	 4.1080
 2.9150	 4.1350
 2.9160	 4.1680
 2.9180	 4.2230
 2.9200	 4.2060
 2.9210	 4.1930
 2.9230	 4.1860
 2.9250	 4.2520
 2.9260	 4.2410
 2.9280	 4.2260
 2.9300	 4.1780
 2.9310	 4.2180
 2.9330	 4.2860
 2.9350	 4.3340
 2.9360	 4.2110
 2.9380	 4.2020
 2.9400	 4.1830
 2.9410	 4.2380
 2.9430	 4.2170
 2.9450	 4.1930
 2.9460	 4.2360
 2.9480	 4.2810
 2.9500	 4.2420
 2.9510	 4.2570
 2.9530	 4.2210
 2.9550	 4.2580
 2.9560	 4.2870
 2.9580	 4.3390
 2.9600	 4.2450
 2.9610	 4.2100
 2.9630	 4.1810
 2.9650	 4.2430
 2.9670	 4.2600
 2.9680	 4.3160
 2.9700	 4.2870
 2.9720	 4.2700
 2.9730	 4.2440
 2.9750	 4.3110
 2.9770	 4.3220
 2.9780	 4.3090
 2.9800	 4.3110
 2.9820	 4.4000
 2.9840	 4.4120
 2.9850	 4.3990
 2.9870	 4.3930
 2.9890	 4.4280
 2.9900	 4.3390
 2.9920	 4.3530
 2.9940	 4.3720
 2.9960	 4.3970
 2.9970	 4.3710
 2.9990	 4.4030
 3.0010	 4.3920
 3.0030	 4.4360
 3.0040	 4.4340
 3.0060	 4.5070
 3.0080	 4.5060
 3.0100	 4.4940
 3.0110	 4.5010
 3.0130	 4.4940
 3.0150	 4.4700
 3.0170	 4.5480
 3.0180	 4.5370
 3.0200	 4.5160
 3.0220	 4.5500
 3.0240	 4.5860
 3.0250	 4.5570
 3.0270	 4.5880
 3.0290	 4.5280
 3.0310	 4.5830
 3.0320	 4.5850
 3.0340	 4.6430
 3.0360	 4.6770
 3.0380	 4.7000
 3.0400	 4.6560
 3.0410	 4.7340
 3.0430	 4.7520
 3.0450	 4.7350
 3.0470	 4.6740
 3.0480	 4.6800
 3.0500	 4.6920
 3.0520	 4.7260
 3.0540	 4.7350
 3.0560	 4.7800
 3.0570	 4.7440
 3.0590	 4.7880
 3.0610	 4.7610
 3.0630	 4.7640
 3.0650	 4.7660
 3.0670	 4.7920
 3.0680	 4.7580
 3.0700	 4.7710
 3.0720	 4.8070
 3.0740	 4.8420
 3.0760	 4.8570
 3.0770	 4.9330
 3.0790	 4.9190
 3.0810	 4.9670
 3.0830	 4.9570
 3.0850	 4.9630
 3.0870	 4.9230
 3.0880	 4.9490
 3.0900	 4.9230
 3.0920	 4.9480
 3.0940	 4.9580
 3.0960	 5.0000
 3.0980	 5.0390
 3.1000	 5.0680
 3.1010	 5.0150
 3.1030	 5.0230
 3.1050	 4.9940
 3.1070	 5.0520
 3.1090	 5.1090
 3.1110	 5.1570
 3.1130	 5.0930
 3.1140	 5.1410
 3.1160	 5.1310
 3.1180	 5.1400
 3.1200	 5.1160
 3.1220	 5.1000
 3.1240	 5.1450
 3.1260	 5.1670
 3.1280	 5.0860
 3.1290	 5.1240
 3.1310	 5.1630
 3.1330	 5.2240
 3.1350	 5.2180
 3.1370	 5.2020
 3.1390	 5.2140
 3.1410	 5.2540
 3.1430	 5.2430
 3.1450	 5.2950
 3.1470	 5.2810
 3.1480	 5.2750
 3.1500	 5.2780
 3.1520	 5.3310
 3.1540	 5.3100
 3.1560	 5.3160
 3.1580	 5.2660
 3.1600	 5.3320
 3.1620	 5.3790
 3.1640	 5.3570
 3.1660	 5.3330
 3.1680	 5.4070
 3.1700	 5.4540
 3.1720	 5.4640
 3.1730	 5.4400
 3.1750	 5.4360
 3.1770	 5.4260
 3.1790	 5.4810
 3.1810	 5.4720
 3.1830	 5.4630
 3.1850	 5.4360
 3.1870	 5.4530
 3.1890	 5.4920
 3.1910	 5.5210
 3.1930	 5.4850
 3.1950	 5.5290
 3.1970	 5.5450
 3.1990	 5.5640
 3.2010	 5.5800
 3.2030	 5.5700
 3.2050	 5.5370
 3.2070	 5.6050
 3.2090	 5.5820
 3.2110	 5.5740
 3.2130	 5.5900
 3.2150	 5.6050
 3.2170	 5.5990
 3.2190	 5.5850
 3.2210	 5.5350
 3.2230	 5.5730
 3.2250	 5.5610
 3.2270	 5.5920
 3.2290	 5.6250
 3.2310	 5.6620
 3.2330	 5.5770
 3.2350	 5.6070
 3.2370	 5.6180
 3.2390	 5.6330
 3.2410	 5.6550
 3.2430	 5.6990
 3.2450	 5.7100
 3.2470	 5.7630
 3.2490	 5.7980
 3.2510	 5.7780
 3.2530	 5.7360
 3.2550	 5.7430
 3.2570	 5.7070
 3.2590	 5.7120
 3.2610	 5.7210
 3.2630	 5.7250
 3.2650	 5.7360
 3.2670	 5.7580
 3.2700	 5.7470
 3.2720	 5.7550
 3.2740	 5.7260
 3.2760	 5.8020
 3.2780	 5.8350
 3.2800	 5.7760
 3.2820	 5.7340
 3.2840	 5.7770
 3.2860	 5.7650
 3.2880	 5.7770
 3.2900	 5.7710
 3.2920	 5.7700
 3.2940	 5.7660
 3.2970	 5.7890
 3.2990	 5.7980
 3.3010	 5.7920
 3.3030	 5.7730
 3.3050	 5.8360
 3.3070	 5.8270
 3.3090	 5.8140
 3.3110	 5.7820
 3.3130	 5.8120
 3.3160	 5.8520
 3.3180	 5.8400
 3.3200	 5.7450
 3.3220	 5.7030
 3.3240	 5.6910
 3.3260	 5.7420
 3.3280	 5.7360
 3.3300	 5.6950
 3.3330	 5.6450
 3.3350	 5.6530
 3.3370	 5.6520
 3.3390	 5.6230
 3.3410	 5.5620
 3.3430	 5.5580
 3.3450	 5.5800
 3.3480	 5.5660
 3.3500	 5.5240
 3.3520	 5.5140
 3.3540	 5.4690
 3.3560	 5.4100
 3.3580	 5.3760
 3.3610	 5.3490
 3.3630	 5.2930
 3.3650	 5.3090
 3.3670	 5.2610
 3.3690	 5.1570
 3.3720	 5.0650
 3.3740	 5.0550
 3.3760	 5.0230
 3.3780	 4.9690
 3.3800	 4.9040
 3.3830	 4.9400
 3.3850	 4.9240
 3.3870	 4.8220
 3.3890	 4.7710
 3.3910	 4.8050
 3.3940	 4.7920
 3.3960	 4.7590
 3.3980	 4.6850
 3.4000	 4.6510
 3.4030	 4.5970
 3.4050	 4.5560
 3.4070	 4.5700
 3.4090	 4.6330
 3.4110	 4.6450
 3.4140	 4.7100
 3.4160	 4.7560
 3.4180	 4.8660
 3.4200	 4.9640
 3.4230	 5.0900
 3.4250	 5.2750
 3.4270	 5.5290
 3.4300	 5.6340
 3.4320	 5.5810
 3.4340	 5.4370
 3.4360	 5.4110
 3.4390	 5.3750
 3.4410	 5.3370
 3.4430	 5.3380
 3.4450	 5.3860
 3.4480	 5.3840
 3.4500	 5.3570
 3.4520	 5.3690
 3.4550	 5.4350
 3.4570	 5.4300
 3.4590	 5.4320
 3.4620	 5.4050
 3.4640	 5.4730
 3.4660	 5.5420
 3.4690	 5.5360
 3.4710	 5.5390
 3.4730	 5.5400
 3.4760	 5.4850
 3.4780	 5.5180
 3.4800	 5.5060
 3.4830	 5.4530
 3.4850	 5.3670
 3.4870	 5.3320
 3.4900	 5.3100
 3.4920	 5.3150
 3.4940	 5.2150
 3.4970	 5.1230
 3.4990	 5.1220
 3.5010	 5.0890
 3.5040	 4.9770
 3.5060	 5.0340
 3.5080	 5.2670
 3.5110	 5.6330
 3.5130	 5.8960
 3.5160	 6.1140
 3.5180	 6.2500
 3.5200	 6.3090
 3.5230	 6.3260
 3.5250	 6.4150
 3.5280	 6.4350
 3.5300	 6.4660
 3.5320	 6.4940
 3.5350	 6.4880
 3.5370	 6.4550
 3.5400	 6.4700
 3.5420	 6.4570
 3.5440	 6.4550
 3.5470	 6.4390
 3.5490	 6.4570
 3.5520	 6.4510
 3.5540	 6.4750
 3.5570	 6.4710
 3.5590	 6.4920
 3.5610	 6.4710
 3.5640	 6.4670
 3.5660	 6.4510
 3.5690	 6.4570
 3.5710	 6.4910
 3.5740	 6.5570
 3.5760	 6.5500
 3.5790	 6.5360
 3.5810	 6.5050
 3.5840	 6.4890
 3.5860	 6.4770
 3.5890	 6.5130
 3.5910	 6.5170
 3.5940	 6.5230
 3.5960	 6.5450
 3.5990	 6.6200
 3.6010	 6.6110
 3.6040	 6.5890
 3.6060	 6.5380
 3.6090	 6.5480
 3.6110	 6.5600
 3.6140	 6.5700
 3.6160	 6.5570
 3.6190	 6.5790
 3.6210	 6.5630
 3.6240	 6.5550
 3.6260	 6.5550
 3.6290	 6.5680
 3.6310	 6.5250
 3.6340	 6.5240
 3.6360	 6.5460
 3.6390	 6.5790
 3.6410	 6.5980
 3.6440	 6.5790
 3.6470	 6.5630
 3.6490	 6.5830
 3.6520	 6.5420
 3.6540	 6.5320
 3.6570	 6.5350
 3.6590	 6.5640
 3.6620	 6.5610
 3.6650	 6.5630
 3.6670	 6.5810
 3.6700	 6.6040
 3.6720	 6.5720
 3.6750	 6.5400
 3.6780	 6.5320
 3.6800	 6.5680
 3.6830	 6.5570
 3.6850	 6.5650
 3.6880	 6.5560
 3.6910	 6.5500
 3.6930	 6.5560
 3.6960	 6.5700
 3.6990	 6.5630
 3.7010	 6.5820
 3.7040	 6.6120
 3.7070	 6.6440
 3.7090	 6.6130
 3.7120	 6.6190
 3.7150	 6.5960
 3.7170	 6.6050
 3.7200	 6.6220
 3.7230	 6.6260
 3.7250	 6.6220
 3.7280	 6.6120
 3.7310	 6.6180
 3.7330	 6.6480
 3.7360	 6.6270
 3.7390	 6.5910
 3.7410	 6.6160
 3.7440	 6.6670
 3.7470	 6.6900
 3.7490	 6.6850
 3.7520	 6.6270
 3.7550	 6.6350
 3.7580	 6.6750
 3.7600	 6.6660
 3.7630	 6.6170
 3.7660	 6.6230
 3.7690	 6.6760
 3.7710	 6.6970
 3.7740	 6.6630
 3.7770	 6.6780
 3.7790	 6.6900
 3.7820	 6.7110
 3.7850	 6.7260
 3.7880	 6.7130
 3.7910	 6.7020
 3.7930	 6.7280
 3.7960	 6.7460
 3.7990	 6.7350
 3.8020	 6.7170
 3.8040	 6.7390
 3.8070	 6.7280
 3.8100	 6.7340
 3.8130	 6.7410
 3.8160	 6.7630
 3.8180	 6.7460
 3.8210	 6.7520
 3.8240	 6.7770
 3.8270	 6.7890
 3.8300	 6.7600
 3.8330	 6.7850
 3.8350	 6.7850
 3.8380	 6.7790
 3.8410	 6.7670
 3.8440	 6.7770
 3.8470	 6.7700
 3.8500	 6.7930
 3.8520	 6.8420
 3.8550	 6.8630
 3.8580	 6.8400
 3.8610	 6.8210
 3.8640	 6.8130
 3.8670	 6.8040
 3.8700	 6.7760
 3.8730	 6.7910
 3.8760	 6.8170
 3.8780	 6.8190
 3.8810	 6.7900
 3.8840	 6.8270
 3.8870	 6.8410
 3.8900	 6.8450
 3.8930	 6.8340
 3.8960	 6.8700
 3.8990	 6.8610
 3.9020	 6.8390
 3.9050	 6.8330
 3.9080	 6.8120
 3.9110	 6.7850
 3.9140	 6.8000
 3.9170	 6.8210
 3.9190	 6.8450
 3.9220	 6.8370
 3.9250	 6.8470
 3.9280	 6.8440
 3.9310	 6.8430
 3.9340	 6.8730
 3.9370	 6.8660
 3.9400	 6.8310
 3.9430	 6.8190
 3.9460	 6.8260
 3.9490	 6.8360
 3.9520	 6.8610
 3.9550	 6.9040
 3.9580	 6.8860
 3.9610	 6.8860
 3.9640	 6.8360
 3.9670	 6.8230
 3.9700	 6.8710
 3.9740	 6.9140
 3.9770	 6.9300
 3.9800	 6.8990
 3.9830	 6.8550
 3.9860	 6.8630
 3.9890	 6.8920
 3.9920	 6.8980
 3.9950	 6.8840
 3.9980	 6.8690
 4.0010	 6.8680
 4.0040	 6.9250
 4.0070	 6.9180
 4.0100	 6.8830
 4.0140	 6.8570
 4.0170	 6.8640
 4.0200	 6.8750
 4.0230	 6.8930
 4.0260	 6.8980
 4.0290	 6.9130
 4.0320	 6.9090
 4.0350	 6.9160
 4.0390	 6.9110
 4.0420	 6.9370
 4.0450	 6.9310
 4.0480	 6.9380
 4.0510	 6.9490
 4.0540	 6.9180
 4.0570	 6.8760
 4.0610	 6.9150
 4.0640	 6.9260
 4.0670	 6.9300
 4.0700	 6.9240
 4.0730	 6.9170
 4.0770	 6.9390
 4.0800	 6.9600
 4.0830	 6.9300
 4.0860	 6.9640
 4.0890	 6.9750
 4.0930	 6.9590
 4.0960	 6.9610
 4.0990	 6.9770
 4.1020	 7.0030
 4.1060	 6.9990
 4.1090	 6.9970
 4.1120	 7.0000
 4.1150	 6.9820
 4.1190	 6.9720
 4.1220	 6.9530
 4.1250	 6.9350
 4.1290	 6.9430
 4.1320	 6.9480
 4.1350	 6.9460
 4.1380	 6.9640
 4.1420	 6.9560
 4.1450	 6.9530
 4.1480	 6.9500
 4.1520	 6.9420
 4.1550	 6.9470
 4.1580	 6.9370
 4.1620	 6.9090
 4.1650	 6.9130
 4.1680	 6.9100
 4.1720	 6.9220
 4.1750	 6.9410
 4.1780	 6.9290
 4.1820	 6.9180
 4.1850	 6.9490
 4.1890	 6.9960
 4.1920	 7.0260
 4.1950	 7.0120
 4.1990	 7.0250
 4.2020	 7.0940
 4.2060	 7.1560
 4.2090	 7.1950
 4.2120	 7.2750
 4.2160	 7.3870
 4.2190	 7.5260
 4.2230	 7.6040
 4.2260	 7.5750
 4.2300	 7.6280
 4.2330	 7.6200
 4.2360	 7.5590
 4.2400	 7.6240
 4.2430	 7.6280
 4.2470	 7.6040
 4.2500	 7.4870
 4.2540	 7.3360
 4.2570	 7.2930
 4.2610	 7.3160
 4.2640	 7.3790
 4.2680	 7.4520
 4.2710	 7.4910
 4.2750	 7.4510
 4.2780	 7.4300
 4.2820	 7.3930
 4.2850	 7.3890
 4.2890	 7.4010
 4.2930	 7.3390
 4.2960	 7.3010
 4.3000	 7.2830
 4.3030	 7.2740
 4.3070	 7.2780
 4.3100	 7.2070
 4.3140	 7.1870
 4.3180	 7.1850
 4.3210	 7.1360
 4.3250	 7.1180
 4.3280	 7.0890
 4.3320	 7.0280
 4.3360	 6.9820
 4.3390	 6.9430
 4.3430	 6.9310
 4.3470	 6.9300
 4.3500	 6.8890
 4.3540	 6.9080
 4.3580	 6.9150
 4.3610	 6.9010
 4.3650	 6.8850
 4.3690	 6.8470
 4.3720	 6.8440
 4.3760	 6.8550
 4.3800	 6.8500
 4.3830	 6.8190
 4.3870	 6.8220
 4.3910	 6.8260
 4.3940	 6.8130
 4.3980	 6.7850
 4.4020	 6.7900
 4.4060	 6.8100
 4.4090	 6.8220
 4.4130	 6.7860
 4.4170	 6.7650
 4.4210	 6.7340
 4.4240	 6.7110
 4.4280	 6.7390
 4.4320	 6.7380
 4.4360	 6.7100
 4.4400	 6.6970
 4.4430	 6.7430
 4.4470	 6.7660
 4.4510	 6.7160
 4.4550	 6.7210
 4.4590	 6.7210
 4.4630	 6.7200
 4.4660	 6.7280
 4.4700	 6.7100
 4.4740	 6.6890
 4.4780	 6.6960
 4.4820	 6.7010
 4.4860	 6.6990
 4.4900	 6.6870
 4.4930	 6.6930
 4.4970	 6.6600
 4.5010	 6.6670
 4.5050	 6.6790
 4.5090	 6.6540
 4.5130	 6.6520
 4.5170	 6.6800
 4.5210	 6.6710
 4.5250	 6.6430
 4.5290	 6.6250
 4.5330	 6.6240
 4.5370	 6.6250
 4.5410	 6.6510
 4.5450	 6.6590
 4.5490	 6.6380
 4.5530	 6.6040
 4.5570	 6.5890
 4.5610	 6.5960
 4.5650	 6.5900
 4.5690	 6.5630
 4.5730	 6.5670
 4.5770	 6.5660
 4.5810	 6.5630
 4.5850	 6.5400
 4.5890	 6.5580
 4.5930	 6.5560
 4.5970	 6.5230
 4.6010	 6.5140
 4.6050	 6.5160
 4.6090	 6.4980
 4.6130	 6.5220
 4.6170	 6.5200
 4.6220	 6.5070
 4.6260	 6.5060
 4.6300	 6.5360
 4.6340	 6.5260
 4.6380	 6.5050
 4.6420	 6.5210
 4.6460	 6.4930
 4.6510	 6.4650
 4.6550	 6.4600
 4.6590	 6.4470
 4.6630	 6.4670
 4.6670	 6.4730
 4.6720	 6.4990
 4.6760	 6.4730
 4.6800	 6.4450
 4.6840	 6.4630
 4.6880	 6.4530
 4.6930	 6.4470
 4.6970	 6.4610
 4.7010	 6.4470
 4.7050	 6.4240
 4.7100	 6.4140
 4.7140	 6.4210
 4.7180	 6.4150
 4.7230	 6.4450
 4.7270	 6.4430
 4.7310	 6.4290
 4.7360	 6.4400
 4.7400	 6.4530
 4.7440	 6.4270
 4.7490	 6.4450
 4.7530	 6.4480
 4.7570	 6.4210
 4.7620	 6.3980
 4.7660	 6.4450
 4.7700	 6.4520
 4.7750	 6.4070
 4.7790	 6.3710
 4.7840	 6.4200
 4.7880	 6.4520
 4.7920	 6.4410
 4.7970	 6.4180
 4.8010	 6.4210
 4.8060	 6.4260
 4.8100	 6.4480
 4.8150	 6.4260
 4.8190	 6.4260
 4.8240	 6.4460
 4.8280	 6.4770
 4.8330	 6.4670
 4.8370	 6.4410
 4.8420	 6.4150
 4.8460	 6.4120
 4.8510	 6.3990
 4.8550	 6.4340
 4.8600	 6.4230
 4.8640	 6.4030
 4.8690	 6.4030
 4.8740	 6.3980
 4.8780	 6.4020
 4.8830	 6.3780
 4.8870	 6.3520
 4.8920	 6.3830
 4.8970	 6.3920
 4.9010	 6.4310
 4.9060	 6.4550
 4.9100	 6.4350
 4.9150	 6.4140
 4.9200	 6.4060
 4.9240	 6.3940
 4.9290	 6.4040
 4.9340	 6.3860
 4.9390	 6.3970
 4.9430	 6.3840
 4.9480	 6.3790
 4.9530	 6.3950
 4.9570	 6.4280
 4.9620	 6.4180
 4.9670	 6.4230
 4.9720	 6.4010
 4.9760	 6.4190
 4.9810	 6.4320
 4.9860	 6.4230
 4.9910	 6.3950
 4.9960	 6.3950
 5.0000	 6.4070
 5.0050	 6.4370
 5.0100	 6.4100
 5.0150	 6.4140
 5.0200	 6.4130
 5.0250	 6.4180
 5.0300	 6.4260
 5.0340	 6.4280
 5.0390	 6.3950
 5.0440	 6.4190
 5.0490	 6.4420
 5.0540	 6.4430
 5.0590	 6.4140
 5.0640	 6.4080
 5.0690	 6.4040
 5.0740	 6.3910
 5.0790	 6.3910
 5.0840	 6.4080
 5.0890	 6.4050
 5.0940	 6.4290
 5.0990	 6.4250
 5.1040	 6.4120
 5.1090	 6.4030
 5.1140	 6.4250
 5.1190	 6.3990
 5.1240	 6.4070
 5.1290	 6.3710
 5.1340	 6.3620
 5.1390	 6.3690
 5.1440	 6.3990
 5.1490	 6.4090
 5.1550	 6.4190
 5.1600	 6.3940
 5.1650	 6.3650
 5.1700	 6.3920
 5.1750	 6.4210
 5.1800	 6.3740
 5.1850	 6.3320
 5.1910	 6.3360
 5.1960	 6.3870
 5.2010	 6.3780
 5.2060	 6.3600
 5.2110	 6.3440
 5.2170	 6.3620
 5.2220	 6.3550
 5.2270	 6.3470
 5.2330	 6.3210
 5.2380	 6.3220
 5.2430	 6.3080
 5.2480	 6.3440
 5.2540	 6.3270
 5.2590	 6.3510
 5.2640	 6.3520
 5.2700	 6.3530
 5.2750	 6.3450
 5.2800	 6.3560
 5.2860	 6.3260
 5.2910	 6.3220
 5.2970	 6.3140
 5.3020	 6.3320
 5.3080	 6.3230
 5.3130	 6.3110
 5.3180	 6.3030
 5.3240	 6.3210
 5.3290	 6.2700
 5.3350	 6.2490
 5.3400	 6.2780
 5.3460	 6.3340
 5.3510	 6.3170
 5.3570	 6.3090
 5.3620	 6.2870
 5.3680	 6.2980
 5.3740	 6.2690
 5.3790	 6.2440
 5.3850	 6.1980
 5.3900	 6.2190
 5.3960	 6.2200
 5.4010	 6.2210
 5.4070	 6.1740
 5.4130	 6.1630
 5.4180	 6.1620
 5.4240	 6.1940
 5.4300	 6.1850
 5.4350	 6.1690
 5.4410	 6.1510
 5.4470	 6.1700
 5.4530	 6.1410
 5.4580	 6.1000
 5.4640	 6.1170
 5.4700	 6.1640
 5.4760	 6.1320
 5.4810	 6.1210
 5.4870	 6.0900
 5.4930	 6.0770
 5.4990	 6.0440
 5.5050	 6.0480
 5.5110	 6.0090
