Name: Tsuga canadensis
Type: Vegetation
Class: Tree
Genus: Tsuga
Species: canadensis
Sample No.: TSCA-2-53
Owner: UCSB
Wavelength Range: VSWIR
Origin: USA; Massachusetts; Harvard Forest
Collection Date: 7/8/2013
Description: Samples were collected as part of NSF Macrosystem Biology proposal titled: Collaborative Research: Thermal controls on ecosystem metabolism and function: scaling from leaves to canopies to regions. Samples were collected and overnighted to JPL facilities for processing. The same leaves were processed in the Nicolet and then measured using the ASD.
Measurement: Bidirectional reflectance
First Column: X
Second Column: Y
X Units: Wavelength (micrometers)
Y Units: Reflectance (percentage)
First X Value: 0.35
Last X Value: 2.5
Number of X Values: 2151
Additional Information: vegetation.tree.tsuga.canadensis.vswir.tsca-2-53.ucsb.asd.ancillary.txt

 0.3500	 2.6570
 0.3510	 2.4930
 0.3520	 2.3460
 0.3530	 2.4400
 0.3540	 2.7680
 0.3550	 2.6790
 0.3560	 2.4730
 0.3570	 2.3460
 0.3580	 2.4020
 0.3590	 2.4920
 0.3600	 2.4840
 0.3610	 2.3710
 0.3620	 2.2960
 0.3630	 2.3540
 0.3640	 2.3710
 0.3650	 2.2420
 0.3660	 2.4110
 0.3670	 2.3890
 0.3680	 2.2280
 0.3690	 2.3230
 0.3700	 2.3970
 0.3710	 2.3570
 0.3720	 2.2560
 0.3730	 2.3790
 0.3740	 2.3930
 0.3750	 2.3490
 0.3760	 2.3660
 0.3770	 2.2460
 0.3780	 2.1970
 0.3790	 2.2730
 0.3800	 2.3750
 0.3810	 2.4680
 0.3820	 2.4390
 0.3830	 2.3030
 0.3840	 2.3620
 0.3850	 2.4290
 0.3860	 2.3900
 0.3870	 2.2210
 0.3880	 2.2470
 0.3890	 2.3160
 0.3900	 2.3440
 0.3910	 2.3460
 0.3920	 2.3340
 0.3930	 2.3050
 0.3940	 2.2730
 0.3950	 2.3100
 0.3960	 2.3190
 0.3970	 2.3000
 0.3980	 2.2980
 0.3990	 2.3340
 0.4000	 2.3430
 0.4010	 2.3230
 0.4020	 2.3750
 0.4030	 2.3770
 0.4040	 2.3690
 0.4050	 2.3980
 0.4060	 2.4170
 0.4070	 2.4230
 0.4080	 2.4190
 0.4090	 2.4230
 0.4100	 2.4760
 0.4110	 2.4840
 0.4120	 2.4320
 0.4130	 2.4890
 0.4140	 2.5290
 0.4150	 2.5470
 0.4160	 2.5610
 0.4170	 2.5060
 0.4180	 2.5160
 0.4190	 2.5850
 0.4200	 2.5790
 0.4210	 2.5930
 0.4220	 2.6100
 0.4230	 2.6060
 0.4240	 2.6000
 0.4250	 2.6210
 0.4260	 2.6510
 0.4270	 2.6530
 0.4280	 2.6300
 0.4290	 2.6520
 0.4300	 2.7130
 0.4310	 2.6990
 0.4320	 2.7000
 0.4330	 2.7010
 0.4340	 2.6810
 0.4350	 2.7070
 0.4360	 2.7200
 0.4370	 2.7090
 0.4380	 2.6970
 0.4390	 2.7060
 0.4400	 2.7120
 0.4410	 2.7020
 0.4420	 2.6940
 0.4430	 2.7100
 0.4440	 2.7280
 0.4450	 2.7200
 0.4460	 2.7350
 0.4470	 2.7510
 0.4480	 2.7590
 0.4490	 2.7710
 0.4500	 2.7620
 0.4510	 2.7540
 0.4520	 2.7660
 0.4530	 2.7700
 0.4540	 2.7770
 0.4550	 2.7870
 0.4560	 2.7930
 0.4570	 2.7900
 0.4580	 2.7870
 0.4590	 2.7910
 0.4600	 2.7930
 0.4610	 2.7890
 0.4620	 2.7930
 0.4630	 2.8110
 0.4640	 2.8030
 0.4650	 2.8000
 0.4660	 2.8100
 0.4670	 2.8080
 0.4680	 2.8240
 0.4690	 2.8280
 0.4700	 2.8050
 0.4710	 2.8220
 0.4720	 2.8180
 0.4730	 2.7990
 0.4740	 2.8040
 0.4750	 2.7970
 0.4760	 2.8010
 0.4770	 2.8190
 0.4780	 2.8010
 0.4790	 2.8060
 0.4800	 2.8210
 0.4810	 2.8250
 0.4820	 2.8290
 0.4830	 2.8320
 0.4840	 2.8370
 0.4850	 2.8480
 0.4860	 2.8560
 0.4870	 2.8590
 0.4880	 2.8600
 0.4890	 2.8630
 0.4900	 2.8730
 0.4910	 2.8840
 0.4920	 2.8890
 0.4930	 2.8940
 0.4940	 2.9060
 0.4950	 2.9260
 0.4960	 2.9470
 0.4970	 2.9600
 0.4980	 2.9710
 0.4990	 2.9930
 0.5000	 3.0240
 0.5010	 3.0540
 0.5020	 3.0840
 0.5030	 3.1210
 0.5040	 3.1590
 0.5050	 3.2020
 0.5060	 3.2550
 0.5070	 3.3110
 0.5080	 3.3760
 0.5090	 3.4500
 0.5100	 3.5340
 0.5110	 3.6290
 0.5120	 3.7230
 0.5130	 3.8170
 0.5140	 3.9350
 0.5150	 4.0610
 0.5160	 4.1970
 0.5170	 4.3460
 0.5180	 4.5070
 0.5190	 4.6610
 0.5200	 4.8160
 0.5210	 4.9970
 0.5220	 5.1610
 0.5230	 5.3170
 0.5240	 5.4720
 0.5250	 5.6180
 0.5260	 5.7570
 0.5270	 5.8870
 0.5280	 6.0060
 0.5290	 6.1180
 0.5300	 6.2140
 0.5310	 6.2950
 0.5320	 6.3810
 0.5330	 6.4490
 0.5340	 6.5010
 0.5350	 6.5420
 0.5360	 6.5860
 0.5370	 6.6250
 0.5380	 6.6600
 0.5390	 6.6920
 0.5400	 6.7270
 0.5410	 6.7580
 0.5420	 6.7820
 0.5430	 6.8130
 0.5440	 6.8430
 0.5450	 6.8680
 0.5460	 6.8830
 0.5470	 6.8940
 0.5480	 6.9000
 0.5490	 6.9020
 0.5500	 6.9050
 0.5510	 6.9140
 0.5520	 6.9170
 0.5530	 6.9030
 0.5540	 6.8850
 0.5550	 6.8540
 0.5560	 6.8100
 0.5570	 6.7590
 0.5580	 6.6980
 0.5590	 6.6320
 0.5600	 6.5620
 0.5610	 6.4840
 0.5620	 6.4050
 0.5630	 6.3180
 0.5640	 6.2170
 0.5650	 6.1160
 0.5660	 6.0180
 0.5670	 5.9180
 0.5680	 5.8080
 0.5690	 5.6990
 0.5700	 5.5940
 0.5710	 5.4930
 0.5720	 5.3970
 0.5730	 5.3000
 0.5740	 5.2060
 0.5750	 5.1240
 0.5760	 5.0410
 0.5770	 4.9700
 0.5780	 4.9160
 0.5790	 4.8630
 0.5800	 4.8090
 0.5810	 4.7530
 0.5820	 4.6960
 0.5830	 4.6520
 0.5840	 4.6120
 0.5850	 4.5700
 0.5860	 4.5320
 0.5870	 4.4930
 0.5880	 4.4570
 0.5890	 4.4270
 0.5900	 4.3990
 0.5910	 4.3730
 0.5920	 4.3510
 0.5930	 4.3300
 0.5940	 4.3090
 0.5950	 4.2920
 0.5960	 4.2790
 0.5970	 4.2620
 0.5980	 4.2440
 0.5990	 4.2270
 0.6000	 4.2110
 0.6010	 4.1890
 0.6020	 4.1640
 0.6030	 4.1380
 0.6040	 4.1120
 0.6050	 4.0920
 0.6060	 4.0700
 0.6070	 4.0410
 0.6080	 4.0070
 0.6090	 3.9770
 0.6100	 3.9550
 0.6110	 3.9380
 0.6120	 3.9040
 0.6130	 3.8650
 0.6140	 3.8290
 0.6150	 3.7880
 0.6160	 3.7560
 0.6170	 3.7300
 0.6180	 3.7040
 0.6190	 3.6770
 0.6200	 3.6610
 0.6210	 3.6500
 0.6220	 3.6280
 0.6230	 3.6140
 0.6240	 3.6020
 0.6250	 3.5890
 0.6260	 3.5900
 0.6270	 3.5880
 0.6280	 3.5840
 0.6290	 3.5840
 0.6300	 3.5730
 0.6310	 3.5650
 0.6320	 3.5630
 0.6330	 3.5560
 0.6340	 3.5440
 0.6350	 3.5270
 0.6360	 3.5070
 0.6370	 3.4840
 0.6380	 3.4570
 0.6390	 3.4280
 0.6400	 3.4000
 0.6410	 3.3630
 0.6420	 3.3270
 0.6430	 3.2970
 0.6440	 3.2660
 0.6450	 3.2380
 0.6460	 3.2110
 0.6470	 3.1830
 0.6480	 3.1680
 0.6490	 3.1520
 0.6500	 3.1340
 0.6510	 3.1220
 0.6520	 3.1130
 0.6530	 3.1040
 0.6540	 3.0940
 0.6550	 3.0880
 0.6560	 3.0810
 0.6570	 3.0710
 0.6580	 3.0610
 0.6590	 3.0540
 0.6600	 3.0420
 0.6610	 3.0250
 0.6620	 3.0140
 0.6630	 3.0030
 0.6640	 2.9940
 0.6650	 2.9920
 0.6660	 2.9910
 0.6670	 2.9890
 0.6680	 2.9880
 0.6690	 2.9920
 0.6700	 2.9970
 0.6710	 3.0050
 0.6720	 3.0180
 0.6730	 3.0370
 0.6740	 3.0480
 0.6750	 3.0610
 0.6760	 3.0860
 0.6770	 3.1060
 0.6780	 3.1290
 0.6790	 3.1560
 0.6800	 3.1860
 0.6810	 3.2190
 0.6820	 3.2540
 0.6830	 3.2890
 0.6840	 3.3230
 0.6850	 3.3660
 0.6860	 3.4180
 0.6870	 3.4740
 0.6880	 3.5350
 0.6890	 3.6180
 0.6900	 3.7280
 0.6910	 3.8610
 0.6920	 4.0280
 0.6930	 4.2370
 0.6940	 4.4950
 0.6950	 4.8090
 0.6960	 5.1760
 0.6970	 5.6030
 0.6980	 6.0920
 0.6990	 6.6400
 0.7000	 7.2420
 0.7010	 7.8950
 0.7020	 8.5950
 0.7030	 9.3390
 0.7040	10.1220
 0.7050	10.9370
 0.7060	11.7860
 0.7070	12.6590
 0.7080	13.5560
 0.7090	14.4820
 0.7100	15.4190
 0.7110	16.3790
 0.7120	17.3630
 0.7130	18.3530
 0.7140	19.3530
 0.7150	20.3640
 0.7160	21.3830
 0.7170	22.3970
 0.7180	23.4190
 0.7190	24.4410
 0.7200	25.4520
 0.7210	26.4610
 0.7220	27.4600
 0.7230	28.4460
 0.7240	29.4150
 0.7250	30.3670
 0.7260	31.2900
 0.7270	32.1790
 0.7280	33.0550
 0.7290	33.8950
 0.7300	34.7040
 0.7310	35.4900
 0.7320	36.2300
 0.7330	36.9390
 0.7340	37.6200
 0.7350	38.2680
 0.7360	38.8840
 0.7370	39.4640
 0.7380	40.0110
 0.7390	40.5370
 0.7400	41.0280
 0.7410	41.4870
 0.7420	41.9190
 0.7430	42.3180
 0.7440	42.6930
 0.7450	43.0460
 0.7460	43.3630
 0.7470	43.6490
 0.7480	43.9170
 0.7490	44.1740
 0.7500	44.4190
 0.7510	44.6280
 0.7520	44.8120
 0.7530	44.9880
 0.7540	45.1480
 0.7550	45.2930
 0.7560	45.4240
 0.7570	45.5460
 0.7580	45.6530
 0.7590	45.7500
 0.7600	45.8410
 0.7610	45.9240
 0.7620	45.9950
 0.7630	46.0610
 0.7640	46.1280
 0.7650	46.1730
 0.7660	46.2200
 0.7670	46.2670
 0.7680	46.3020
 0.7690	46.3370
 0.7700	46.3770
 0.7710	46.4170
 0.7720	46.4430
 0.7730	46.4640
 0.7740	46.4830
 0.7750	46.5020
 0.7760	46.5310
 0.7770	46.5560
 0.7780	46.5800
 0.7790	46.6120
 0.7800	46.6260
 0.7810	46.6410
 0.7820	46.6600
 0.7830	46.6720
 0.7840	46.6910
 0.7850	46.7160
 0.7860	46.7400
 0.7870	46.7560
 0.7880	46.7730
 0.7890	46.7910
 0.7900	46.8060
 0.7910	46.8190
 0.7920	46.8380
 0.7930	46.8560
 0.7940	46.8620
 0.7950	46.8810
 0.7960	46.9010
 0.7970	46.9150
 0.7980	46.9340
 0.7990	46.9550
 0.8000	46.9700
 0.8010	46.9800
 0.8020	46.9970
 0.8030	47.0070
 0.8040	47.0160
 0.8050	47.0360
 0.8060	47.0350
 0.8070	47.0460
 0.8080	47.0730
 0.8090	47.0920
 0.8100	47.0970
 0.8110	47.1050
 0.8120	47.1220
 0.8130	47.1310
 0.8140	47.1410
 0.8150	47.1570
 0.8160	47.1780
 0.8170	47.1780
 0.8180	47.1870
 0.8190	47.2070
 0.8200	47.2280
 0.8210	47.2460
 0.8220	47.2610
 0.8230	47.2680
 0.8240	47.2600
 0.8250	47.2780
 0.8260	47.2950
 0.8270	47.3000
 0.8280	47.3130
 0.8290	47.3300
 0.8300	47.3400
 0.8310	47.3370
 0.8320	47.3430
 0.8330	47.3650
 0.8340	47.3880
 0.8350	47.3960
 0.8360	47.4020
 0.8370	47.4180
 0.8380	47.4410
 0.8390	47.4530
 0.8400	47.4690
 0.8410	47.4800
 0.8420	47.4920
 0.8430	47.5340
 0.8440	47.5500
 0.8450	47.5600
 0.8460	47.5810
 0.8470	47.6010
 0.8480	47.6080
 0.8490	47.6210
 0.8500	47.6560
 0.8510	47.6680
 0.8520	47.6790
 0.8530	47.6970
 0.8540	47.7170
 0.8550	47.7250
 0.8560	47.7360
 0.8570	47.7560
 0.8580	47.7750
 0.8590	47.7880
 0.8600	47.8010
 0.8610	47.8180
 0.8620	47.8270
 0.8630	47.8410
 0.8640	47.8580
 0.8650	47.8690
 0.8660	47.8730
 0.8670	47.8890
 0.8680	47.9070
 0.8690	47.9120
 0.8700	47.9290
 0.8710	47.9490
 0.8720	47.9640
 0.8730	47.9710
 0.8740	47.9820
 0.8750	47.9930
 0.8760	48.0000
 0.8770	48.0050
 0.8780	48.0250
 0.8790	48.0360
 0.8800	48.0320
 0.8810	48.0390
 0.8820	48.0660
 0.8830	48.0750
 0.8840	48.0530
 0.8850	48.0600
 0.8860	48.0850
 0.8870	48.1070
 0.8880	48.1100
 0.8890	48.1160
 0.8900	48.1150
 0.8910	48.1150
 0.8920	48.1240
 0.8930	48.1300
 0.8940	48.1370
 0.8950	48.1460
 0.8960	48.1580
 0.8970	48.1650
 0.8980	48.1650
 0.8990	48.1590
 0.9000	48.1520
 0.9010	48.1580
 0.9020	48.1670
 0.9030	48.1690
 0.9040	48.1620
 0.9050	48.1760
 0.9060	48.1820
 0.9070	48.1690
 0.9080	48.1800
 0.9090	48.1830
 0.9100	48.1820
 0.9110	48.1820
 0.9120	48.1720
 0.9130	48.1850
 0.9140	48.1960
 0.9150	48.1830
 0.9160	48.1920
 0.9170	48.1910
 0.9180	48.1820
 0.9190	48.1790
 0.9200	48.1660
 0.9210	48.1710
 0.9220	48.1700
 0.9230	48.1310
 0.9240	48.1280
 0.9250	48.1250
 0.9260	48.1090
 0.9270	48.0930
 0.9280	48.0790
 0.9290	48.0490
 0.9300	48.0090
 0.9310	47.9920
 0.9320	47.9980
 0.9330	47.9780
 0.9340	47.9250
 0.9350	47.8890
 0.9360	47.8600
 0.9370	47.8300
 0.9380	47.7940
 0.9390	47.7610
 0.9400	47.7080
 0.9410	47.6590
 0.9420	47.6290
 0.9430	47.5910
 0.9440	47.5370
 0.9450	47.4770
 0.9460	47.4220
 0.9470	47.3780
 0.9480	47.2990
 0.9490	47.2150
 0.9500	47.1560
 0.9510	47.0840
 0.9520	47.0030
 0.9530	46.9060
 0.9540	46.7930
 0.9550	46.6880
 0.9560	46.5950
 0.9570	46.5130
 0.9580	46.4380
 0.9590	46.3670
 0.9600	46.2880
 0.9610	46.2220
 0.9620	46.1910
 0.9630	46.1610
 0.9640	46.1030
 0.9650	46.0540
 0.9660	46.0540
 0.9670	46.0420
 0.9680	46.0300
 0.9690	46.0100
 0.9700	45.9750
 0.9710	45.9730
 0.9720	45.9800
 0.9730	45.9880
 0.9740	45.9930
 0.9750	45.9800
 0.9760	45.9640
 0.9770	45.9580
 0.9780	45.9740
 0.9790	46.0070
 0.9800	46.0450
 0.9810	46.0710
 0.9820	46.0760
 0.9830	46.0950
 0.9840	46.0870
 0.9850	46.0910
 0.9860	46.1560
 0.9870	46.1900
 0.9880	46.2140
 0.9890	46.2410
 0.9900	46.2760
 0.9910	46.3160
 0.9920	46.3860
 0.9930	46.4560
 0.9940	46.5260
 0.9950	46.5960
 0.9960	46.6660
 0.9970	46.7360
 0.9980	46.8060
 0.9990	46.8760
 1.0000	46.9460
 1.0010	47.0160
 1.0020	47.0860
 1.0030	47.1570
 1.0040	47.2270
 1.0050	47.2970
 1.0060	47.3670
 1.0070	47.4370
 1.0080	47.5070
 1.0090	47.5770
 1.0100	47.5770
 1.0110	47.6280
 1.0120	47.6780
 1.0130	47.7280
 1.0140	47.7760
 1.0150	47.8270
 1.0160	47.8740
 1.0170	47.9230
 1.0180	47.9670
 1.0190	48.0010
 1.0200	48.0350
 1.0210	48.0660
 1.0220	48.1080
 1.0230	48.1520
 1.0240	48.2080
 1.0250	48.2540
 1.0260	48.2990
 1.0270	48.3400
 1.0280	48.3790
 1.0290	48.4160
 1.0300	48.4490
 1.0310	48.4840
 1.0320	48.5190
 1.0330	48.5500
 1.0340	48.5860
 1.0350	48.6290
 1.0360	48.6650
 1.0370	48.6970
 1.0380	48.7240
 1.0390	48.7410
 1.0400	48.7670
 1.0410	48.7930
 1.0420	48.8230
 1.0430	48.8600
 1.0440	48.8910
 1.0450	48.9240
 1.0460	48.9500
 1.0470	48.9650
 1.0480	48.9870
 1.0490	49.0110
 1.0500	49.0350
 1.0510	49.0620
 1.0520	49.0910
 1.0530	49.1160
 1.0540	49.1380
 1.0550	49.1570
 1.0560	49.1740
 1.0570	49.1900
 1.0580	49.2010
 1.0590	49.2150
 1.0600	49.2320
 1.0610	49.2460
 1.0620	49.2580
 1.0630	49.2720
 1.0640	49.2840
 1.0650	49.2970
 1.0660	49.3120
 1.0670	49.3250
 1.0680	49.3370
 1.0690	49.3470
 1.0700	49.3590
 1.0710	49.3740
 1.0720	49.3800
 1.0730	49.3840
 1.0740	49.3880
 1.0750	49.3840
 1.0760	49.3870
 1.0770	49.3960
 1.0780	49.4030
 1.0790	49.4130
 1.0800	49.4160
 1.0810	49.4140
 1.0820	49.4130
 1.0830	49.4080
 1.0840	49.4020
 1.0850	49.3980
 1.0860	49.3910
 1.0870	49.3830
 1.0880	49.3710
 1.0890	49.3630
 1.0900	49.3570
 1.0910	49.3490
 1.0920	49.3430
 1.0930	49.3330
 1.0940	49.3190
 1.0950	49.3100
 1.0960	49.3020
 1.0970	49.2930
 1.0980	49.2890
 1.0990	49.2820
 1.1000	49.2730
 1.1010	49.2610
 1.1020	49.2490
 1.1030	49.2320
 1.1040	49.2130
 1.1050	49.1990
 1.1060	49.1780
 1.1070	49.1540
 1.1080	49.1330
 1.1090	49.1110
 1.1100	49.0880
 1.1110	49.0680
 1.1120	49.0470
 1.1130	49.0270
 1.1140	49.0020
 1.1150	48.9780
 1.1160	48.9470
 1.1170	48.9040
 1.1180	48.8640
 1.1190	48.8240
 1.1200	48.7810
 1.1210	48.7320
 1.1220	48.6820
 1.1230	48.6220
 1.1240	48.5550
 1.1250	48.4760
 1.1260	48.3880
 1.1270	48.2930
 1.1280	48.1870
 1.1290	48.0760
 1.1300	47.9670
 1.1310	47.8360
 1.1320	47.6920
 1.1330	47.5360
 1.1340	47.3640
 1.1350	47.1830
 1.1360	46.9920
 1.1370	46.7940
 1.1380	46.5800
 1.1390	46.3600
 1.1400	46.1350
 1.1410	45.9040
 1.1420	45.6740
 1.1430	45.4420
 1.1440	45.2110
 1.1450	44.9730
 1.1460	44.7480
 1.1470	44.5220
 1.1480	44.3110
 1.1490	44.1090
 1.1500	43.9190
 1.1510	43.7330
 1.1520	43.5680
 1.1530	43.4190
 1.1540	43.2810
 1.1550	43.1570
 1.1560	43.0460
 1.1570	42.9440
 1.1580	42.8530
 1.1590	42.7770
 1.1600	42.7100
 1.1610	42.6510
 1.1620	42.6010
 1.1630	42.5580
 1.1640	42.5230
 1.1650	42.4910
 1.1660	42.4660
 1.1670	42.4440
 1.1680	42.4260
 1.1690	42.4080
 1.1700	42.3950
 1.1710	42.3800
 1.1720	42.3630
 1.1730	42.3470
 1.1740	42.3330
 1.1750	42.3140
 1.1760	42.2970
 1.1770	42.2840
 1.1780	42.2660
 1.1790	42.2510
 1.1800	42.2330
 1.1810	42.2080
 1.1820	42.1870
 1.1830	42.1610
 1.1840	42.1380
 1.1850	42.1190
 1.1860	42.0970
 1.1870	42.0800
 1.1880	42.0640
 1.1890	42.0480
 1.1900	42.0360
 1.1910	42.0290
 1.1920	42.0220
 1.1930	42.0150
 1.1940	42.0160
 1.1950	42.0210
 1.1960	42.0270
 1.1970	42.0360
 1.1980	42.0490
 1.1990	42.0630
 1.2000	42.0790
 1.2010	42.0960
 1.2020	42.1180
 1.2030	42.1420
 1.2040	42.1660
 1.2050	42.1890
 1.2060	42.2170
 1.2070	42.2460
 1.2080	42.2800
 1.2090	42.3190
 1.2100	42.3610
 1.2110	42.4030
 1.2120	42.4450
 1.2130	42.4890
 1.2140	42.5350
 1.2150	42.5820
 1.2160	42.6310
 1.2170	42.6810
 1.2180	42.7330
 1.2190	42.7850
 1.2200	42.8360
 1.2210	42.8940
 1.2220	42.9480
 1.2230	43.0020
 1.2240	43.0630
 1.2250	43.1190
 1.2260	43.1780
 1.2270	43.2380
 1.2280	43.2950
 1.2290	43.3490
 1.2300	43.3990
 1.2310	43.4520
 1.2320	43.5010
 1.2330	43.5460
 1.2340	43.5910
 1.2350	43.6340
 1.2360	43.6760
 1.2370	43.7160
 1.2380	43.7590
 1.2390	43.8000
 1.2400	43.8420
 1.2410	43.8850
 1.2420	43.9250
 1.2430	43.9610
 1.2440	43.9970
 1.2450	44.0290
 1.2460	44.0580
 1.2470	44.0890
 1.2480	44.1170
 1.2490	44.1430
 1.2500	44.1740
 1.2510	44.2040
 1.2520	44.2270
 1.2530	44.2480
 1.2540	44.2690
 1.2550	44.2860
 1.2560	44.3030
 1.2570	44.3260
 1.2580	44.3390
 1.2590	44.3520
 1.2600	44.3660
 1.2610	44.3790
 1.2620	44.3880
 1.2630	44.4010
 1.2640	44.4120
 1.2650	44.4180
 1.2660	44.4270
 1.2670	44.4300
 1.2680	44.4310
 1.2690	44.4350
 1.2700	44.4310
 1.2710	44.4260
 1.2720	44.4210
 1.2730	44.4120
 1.2740	44.4060
 1.2750	44.3960
 1.2760	44.3830
 1.2770	44.3660
 1.2780	44.3430
 1.2790	44.3240
 1.2800	44.3040
 1.2810	44.2790
 1.2820	44.2510
 1.2830	44.2170
 1.2840	44.1800
 1.2850	44.1460
 1.2860	44.1130
 1.2870	44.0740
 1.2880	44.0350
 1.2890	43.9890
 1.2900	43.9390
 1.2910	43.8860
 1.2920	43.8360
 1.2930	43.7840
 1.2940	43.7250
 1.2950	43.6620
 1.2960	43.5920
 1.2970	43.5240
 1.2980	43.4550
 1.2990	43.3770
 1.3000	43.2930
 1.3010	43.2060
 1.3020	43.1190
 1.3030	43.0260
 1.3040	42.9310
 1.3050	42.8320
 1.3060	42.7270
 1.3070	42.6160
 1.3080	42.5000
 1.3090	42.3830
 1.3100	42.2600
 1.3110	42.1320
 1.3120	42.0000
 1.3130	41.8640
 1.3140	41.7210
 1.3150	41.5720
 1.3160	41.4190
 1.3170	41.2640
 1.3180	41.1000
 1.3190	40.9280
 1.3200	40.7570
 1.3210	40.5790
 1.3220	40.4020
 1.3230	40.2230
 1.3240	40.0370
 1.3250	39.8450
 1.3260	39.6470
 1.3270	39.4420
 1.3280	39.2370
 1.3290	39.0300
 1.3300	38.8200
 1.3310	38.6100
 1.3320	38.3970
 1.3330	38.1830
 1.3340	37.9710
 1.3350	37.7590
 1.3360	37.5450
 1.3370	37.3270
 1.3380	37.1110
 1.3390	36.8960
 1.3400	36.6830
 1.3410	36.4760
 1.3420	36.2700
 1.3430	36.0640
 1.3440	35.8590
 1.3450	35.6580
 1.3460	35.4550
 1.3470	35.2610
 1.3480	35.0720
 1.3490	34.8840
 1.3500	34.7000
 1.3510	34.5150
 1.3520	34.3290
 1.3530	34.1430
 1.3540	33.9600
 1.3550	33.7780
 1.3560	33.5950
 1.3570	33.4110
 1.3580	33.2230
 1.3590	33.0310
 1.3600	32.8330
 1.3610	32.6280
 1.3620	32.4200
 1.3630	32.2050
 1.3640	31.9840
 1.3650	31.7550
 1.3660	31.5200
 1.3670	31.2700
 1.3680	31.0070
 1.3690	30.7310
 1.3700	30.4330
 1.3710	30.1210
 1.3720	29.7940
 1.3730	29.4440
 1.3740	29.0810
 1.3750	28.6960
 1.3760	28.2850
 1.3770	27.8500
 1.3780	27.3850
 1.3790	26.8980
 1.3800	26.3890
 1.3810	25.8510
 1.3820	25.2970
 1.3830	24.7240
 1.3840	24.1360
 1.3850	23.5270
 1.3860	22.9150
 1.3870	22.2850
 1.3880	21.6600
 1.3890	21.0300
 1.3900	20.3970
 1.3910	19.7760
 1.3920	19.1570
 1.3930	18.5440
 1.3940	17.9470
 1.3950	17.3580
 1.3960	16.7860
 1.3970	16.2340
 1.3980	15.6990
 1.3990	15.1910
 1.4000	14.7070
 1.4010	14.2430
 1.4020	13.8070
 1.4030	13.3930
 1.4040	13.0010
 1.4050	12.6370
 1.4060	12.2960
 1.4070	11.9800
 1.4080	11.6870
 1.4090	11.4140
 1.4100	11.1630
 1.4110	10.9290
 1.4120	10.7120
 1.4130	10.5160
 1.4140	10.3360
 1.4150	10.1720
 1.4160	10.0230
 1.4170	 9.8840
 1.4180	 9.7580
 1.4190	 9.6420
 1.4200	 9.5370
 1.4210	 9.4410
 1.4220	 9.3530
 1.4230	 9.2730
 1.4240	 9.2010
 1.4250	 9.1350
 1.4260	 9.0780
 1.4270	 9.0260
 1.4280	 8.9820
 1.4290	 8.9420
 1.4300	 8.9080
 1.4310	 8.8790
 1.4320	 8.8550
 1.4330	 8.8330
 1.4340	 8.8160
 1.4350	 8.8020
 1.4360	 8.7910
 1.4370	 8.7830
 1.4380	 8.7770
 1.4390	 8.7750
 1.4400	 8.7750
 1.4410	 8.7750
 1.4420	 8.7790
 1.4430	 8.7860
 1.4440	 8.7930
 1.4450	 8.8030
 1.4460	 8.8150
 1.4470	 8.8280
 1.4480	 8.8420
 1.4490	 8.8580
 1.4500	 8.8750
 1.4510	 8.8910
 1.4520	 8.9110
 1.4530	 8.9310
 1.4540	 8.9520
 1.4550	 8.9760
 1.4560	 9.0010
 1.4570	 9.0270
 1.4580	 9.0550
 1.4590	 9.0860
 1.4600	 9.1200
 1.4610	 9.1580
 1.4620	 9.2010
 1.4630	 9.2460
 1.4640	 9.2960
 1.4650	 9.3490
 1.4660	 9.4060
 1.4670	 9.4680
 1.4680	 9.5350
 1.4690	 9.6040
 1.4700	 9.6770
 1.4710	 9.7530
 1.4720	 9.8310
