Name: Rubus occidentalis
Type: Vegetation
Class: Tree
Genus: Rubus
Species: occidentalis
Sample No.: RUOC-1-71
Owner: UCSB
Wavelength Range: VSWIR
Origin: USA; Massachusetts; Harvard Forest
Collection Date: 7/8/2013
Description: Samples were collected as part of NSF Macrosystem Biology proposal titled: Collaborative Research: Thermal controls on ecosystem metabolism and function: scaling from leaves to canopies to regions. Samples were collected and overnighted to JPL facilities for processing. The same leaves were processed in the Nicolet and then measured using the ASD.
Measurement: Bidirectional reflectance
First Column: X
Second Column: Y
X Units: Wavelength (micrometers)
Y Units: Reflectance (percentage)
First X Value: 0.35
Last X Value: 2.5
Number of X Values: 2151
Additional Information: vegetation.tree.rubus.occidentalis.vswir.ruoc-1-71.ucsb.asd.ancillary.txt

 0.3500	 4.5420
 0.3510	 4.6610
 0.3520	 4.4440
 0.3530	 4.2000
 0.3540	 4.2560
 0.3550	 4.2900
 0.3560	 4.4180
 0.3570	 4.5470
 0.3580	 4.4920
 0.3590	 4.2180
 0.3600	 4.2380
 0.3610	 4.4980
 0.3620	 4.0940
 0.3630	 4.0940
 0.3640	 4.3460
 0.3650	 4.4600
 0.3660	 4.4550
 0.3670	 4.3370
 0.3680	 4.2010
 0.3690	 4.1910
 0.3700	 4.1890
 0.3710	 4.2140
 0.3720	 4.2690
 0.3730	 4.2960
 0.3740	 4.3160
 0.3750	 4.2540
 0.3760	 4.0890
 0.3770	 4.1350
 0.3780	 4.1990
 0.3790	 4.2160
 0.3800	 4.2410
 0.3810	 4.1800
 0.3820	 4.1570
 0.3830	 4.2390
 0.3840	 4.2910
 0.3850	 4.2710
 0.3860	 4.2200
 0.3870	 4.2070
 0.3880	 4.1680
 0.3890	 4.1910
 0.3900	 4.2480
 0.3910	 4.1890
 0.3920	 4.2490
 0.3930	 4.3300
 0.3940	 4.3170
 0.3950	 4.2000
 0.3960	 4.2460
 0.3970	 4.3570
 0.3980	 4.3060
 0.3990	 4.2870
 0.4000	 4.3340
 0.4010	 4.4080
 0.4020	 4.3900
 0.4030	 4.3730
 0.4040	 4.3880
 0.4050	 4.4330
 0.4060	 4.4430
 0.4070	 4.4500
 0.4080	 4.4720
 0.4090	 4.5130
 0.4100	 4.5210
 0.4110	 4.5290
 0.4120	 4.5520
 0.4130	 4.5530
 0.4140	 4.5950
 0.4150	 4.6390
 0.4160	 4.6330
 0.4170	 4.6180
 0.4180	 4.6120
 0.4190	 4.6240
 0.4200	 4.6590
 0.4210	 4.6440
 0.4220	 4.6470
 0.4230	 4.7060
 0.4240	 4.7060
 0.4250	 4.7030
 0.4260	 4.7080
 0.4270	 4.7150
 0.4280	 4.7420
 0.4290	 4.7360
 0.4300	 4.6970
 0.4310	 4.7010
 0.4320	 4.7220
 0.4330	 4.7430
 0.4340	 4.7510
 0.4350	 4.7390
 0.4360	 4.7410
 0.4370	 4.7560
 0.4380	 4.7550
 0.4390	 4.7560
 0.4400	 4.7580
 0.4410	 4.7560
 0.4420	 4.7340
 0.4430	 4.7410
 0.4440	 4.7630
 0.4450	 4.7660
 0.4460	 4.7740
 0.4470	 4.7780
 0.4480	 4.7790
 0.4490	 4.7920
 0.4500	 4.7980
 0.4510	 4.7970
 0.4520	 4.7960
 0.4530	 4.8250
 0.4540	 4.8330
 0.4550	 4.8200
 0.4560	 4.8170
 0.4570	 4.8280
 0.4580	 4.8460
 0.4590	 4.8620
 0.4600	 4.8710
 0.4610	 4.8610
 0.4620	 4.8430
 0.4630	 4.8350
 0.4640	 4.8360
 0.4650	 4.8440
 0.4660	 4.8480
 0.4670	 4.8240
 0.4680	 4.8310
 0.4690	 4.8390
 0.4700	 4.8220
 0.4710	 4.8310
 0.4720	 4.8200
 0.4730	 4.8080
 0.4740	 4.8320
 0.4750	 4.8280
 0.4760	 4.8260
 0.4770	 4.8410
 0.4780	 4.8450
 0.4790	 4.8310
 0.4800	 4.8210
 0.4810	 4.8340
 0.4820	 4.8120
 0.4830	 4.8100
 0.4840	 4.8330
 0.4850	 4.8440
 0.4860	 4.8610
 0.4870	 4.8760
 0.4880	 4.8800
 0.4890	 4.8730
 0.4900	 4.8820
 0.4910	 4.9050
 0.4920	 4.9280
 0.4930	 4.9620
 0.4940	 4.9820
 0.4950	 4.9900
 0.4960	 5.0290
 0.4970	 5.0720
 0.4980	 5.1110
 0.4990	 5.1490
 0.5000	 5.2150
 0.5010	 5.2760
 0.5020	 5.3340
 0.5030	 5.4140
 0.5040	 5.5090
 0.5050	 5.6210
 0.5060	 5.7480
 0.5070	 5.8860
 0.5080	 6.0360
 0.5090	 6.1970
 0.5100	 6.3740
 0.5110	 6.5830
 0.5120	 6.8130
 0.5130	 7.0560
 0.5140	 7.3200
 0.5150	 7.6020
 0.5160	 7.9030
 0.5170	 8.2230
 0.5180	 8.5610
 0.5190	 8.9130
 0.5200	 9.2730
 0.5210	 9.6340
 0.5220	 9.9920
 0.5230	10.3440
 0.5240	10.6870
 0.5250	11.0200
 0.5260	11.3370
 0.5270	11.6420
 0.5280	11.9370
 0.5290	12.1900
 0.5300	12.4220
 0.5310	12.6440
 0.5320	12.8490
 0.5330	13.0330
 0.5340	13.1910
 0.5350	13.3260
 0.5360	13.4620
 0.5370	13.5730
 0.5380	13.6620
 0.5390	13.7520
 0.5400	13.8300
 0.5410	13.9060
 0.5420	13.9830
 0.5430	14.0530
 0.5440	14.1170
 0.5450	14.1750
 0.5460	14.2280
 0.5470	14.2720
 0.5480	14.3040
 0.5490	14.3280
 0.5500	14.3600
 0.5510	14.3830
 0.5520	14.3870
 0.5530	14.3700
 0.5540	14.3360
 0.5550	14.2820
 0.5560	14.2090
 0.5570	14.1210
 0.5580	14.0140
 0.5590	13.8900
 0.5600	13.7530
 0.5610	13.6000
 0.5620	13.4360
 0.5630	13.2570
 0.5640	13.0600
 0.5650	12.8640
 0.5660	12.6570
 0.5670	12.4370
 0.5680	12.2140
 0.5690	11.9850
 0.5700	11.7520
 0.5710	11.5210
 0.5720	11.2960
 0.5730	11.0850
 0.5740	10.8870
 0.5750	10.6970
 0.5760	10.5250
 0.5770	10.3630
 0.5780	10.2080
 0.5790	10.0750
 0.5800	 9.9450
 0.5810	 9.8140
 0.5820	 9.6830
 0.5830	 9.5610
 0.5840	 9.4490
 0.5850	 9.3450
 0.5860	 9.2440
 0.5870	 9.1520
 0.5880	 9.0670
 0.5890	 8.9840
 0.5900	 8.9140
 0.5910	 8.8560
 0.5920	 8.8030
 0.5930	 8.7450
 0.5940	 8.7020
 0.5950	 8.6630
 0.5960	 8.6210
 0.5970	 8.5870
 0.5980	 8.5440
 0.5990	 8.4990
 0.6000	 8.4610
 0.6010	 8.4080
 0.6020	 8.3500
 0.6030	 8.2890
 0.6040	 8.2170
 0.6050	 8.1460
 0.6060	 8.0680
 0.6070	 7.9790
 0.6080	 7.8940
 0.6090	 7.7970
 0.6100	 7.6950
 0.6110	 7.6020
 0.6120	 7.5030
 0.6130	 7.4020
 0.6140	 7.3050
 0.6150	 7.2160
 0.6160	 7.1220
 0.6170	 7.0320
 0.6180	 6.9570
 0.6190	 6.8850
 0.6200	 6.8240
 0.6210	 6.7720
 0.6220	 6.7200
 0.6230	 6.6760
 0.6240	 6.6420
 0.6250	 6.6140
 0.6260	 6.5840
 0.6270	 6.5640
 0.6280	 6.5510
 0.6290	 6.5350
 0.6300	 6.5200
 0.6310	 6.5050
 0.6320	 6.4860
 0.6330	 6.4600
 0.6340	 6.4300
 0.6350	 6.3910
 0.6360	 6.3380
 0.6370	 6.2760
 0.6380	 6.2020
 0.6390	 6.1170
 0.6400	 6.0300
 0.6410	 5.9440
 0.6420	 5.8490
 0.6430	 5.7460
 0.6440	 5.6530
 0.6450	 5.5600
 0.6460	 5.4730
 0.6470	 5.3990
 0.6480	 5.3280
 0.6490	 5.2640
 0.6500	 5.2080
 0.6510	 5.1580
 0.6520	 5.1230
 0.6530	 5.0910
 0.6540	 5.0540
 0.6550	 5.0150
 0.6560	 4.9710
 0.6570	 4.9250
 0.6580	 4.8800
 0.6590	 4.8310
 0.6600	 4.7810
 0.6610	 4.7320
 0.6620	 4.6880
 0.6630	 4.6510
 0.6640	 4.6170
 0.6650	 4.5880
 0.6660	 4.5640
 0.6670	 4.5490
 0.6680	 4.5430
 0.6690	 4.5420
 0.6700	 4.5410
 0.6710	 4.5450
 0.6720	 4.5570
 0.6730	 4.5680
 0.6740	 4.5880
 0.6750	 4.6120
 0.6760	 4.6350
 0.6770	 4.6580
 0.6780	 4.6890
 0.6790	 4.7280
 0.6800	 4.7690
 0.6810	 4.8160
 0.6820	 4.8640
 0.6830	 4.9130
 0.6840	 4.9790
 0.6850	 5.0610
 0.6860	 5.1580
 0.6870	 5.2740
 0.6880	 5.4280
 0.6890	 5.6300
 0.6900	 5.8920
 0.6910	 6.2240
 0.6920	 6.6420
 0.6930	 7.1480
 0.6940	 7.7420
 0.6950	 8.4410
 0.6960	 9.2270
 0.6970	10.0890
 0.6980	11.0190
 0.6990	12.0190
 0.7000	13.0640
 0.7010	14.1380
 0.7020	15.2350
 0.7030	16.3290
 0.7040	17.4170
 0.7050	18.4960
 0.7060	19.5510
 0.7070	20.5930
 0.7080	21.6150
 0.7090	22.6070
 0.7100	23.5760
 0.7110	24.5250
 0.7120	25.4520
 0.7130	26.3510
 0.7140	27.2210
 0.7150	28.0700
 0.7160	28.8960
 0.7170	29.6840
 0.7180	30.4590
 0.7190	31.2130
 0.7200	31.9280
 0.7210	32.6160
 0.7220	33.2840
 0.7230	33.9240
 0.7240	34.5160
 0.7250	35.0790
 0.7260	35.6230
 0.7270	36.1500
 0.7280	36.6490
 0.7290	37.1000
 0.7300	37.5240
 0.7310	37.9460
 0.7320	38.3220
 0.7330	38.6710
 0.7340	39.0050
 0.7350	39.3250
 0.7360	39.6200
 0.7370	39.8870
 0.7380	40.1290
 0.7390	40.3590
 0.7400	40.5740
 0.7410	40.7770
 0.7420	40.9690
 0.7430	41.1360
 0.7440	41.2830
 0.7450	41.4130
 0.7460	41.5310
 0.7470	41.6540
 0.7480	41.7680
 0.7490	41.8610
 0.7500	41.9310
 0.7510	42.0020
 0.7520	42.0730
 0.7530	42.1350
 0.7540	42.1820
 0.7550	42.2310
 0.7560	42.2840
 0.7570	42.3250
 0.7580	42.3470
 0.7590	42.3660
 0.7600	42.3940
 0.7610	42.4280
 0.7620	42.4480
 0.7630	42.4580
 0.7640	42.4720
 0.7650	42.4960
 0.7660	42.5060
 0.7670	42.5060
 0.7680	42.5170
 0.7690	42.5190
 0.7700	42.5210
 0.7710	42.5300
 0.7720	42.5460
 0.7730	42.5450
 0.7740	42.5450
 0.7750	42.5600
 0.7760	42.5540
 0.7770	42.5530
 0.7780	42.5620
 0.7790	42.5720
 0.7800	42.5730
 0.7810	42.5770
 0.7820	42.5850
 0.7830	42.5820
 0.7840	42.5850
 0.7850	42.5890
 0.7860	42.5910
 0.7870	42.5970
 0.7880	42.6060
 0.7890	42.6100
 0.7900	42.6050
 0.7910	42.6060
 0.7920	42.6120
 0.7930	42.6190
 0.7940	42.6200
 0.7950	42.6190
 0.7960	42.6140
 0.7970	42.6100
 0.7980	42.6230
 0.7990	42.6190
 0.8000	42.6140
 0.8010	42.6230
 0.8020	42.6270
 0.8030	42.6170
 0.8040	42.6040
 0.8050	42.6060
 0.8060	42.6120
 0.8070	42.6010
 0.8080	42.5860
 0.8090	42.6030
 0.8100	42.6030
 0.8110	42.5950
 0.8120	42.5870
 0.8130	42.5710
 0.8140	42.5650
 0.8150	42.5630
 0.8160	42.5570
 0.8170	42.5470
 0.8180	42.5440
 0.8190	42.5480
 0.8200	42.5460
 0.8210	42.5310
 0.8220	42.5260
 0.8230	42.5300
 0.8240	42.5200
 0.8250	42.5140
 0.8260	42.5060
 0.8270	42.4960
 0.8280	42.4920
 0.8290	42.4850
 0.8300	42.4660
 0.8310	42.4430
 0.8320	42.4570
 0.8330	42.4670
 0.8340	42.4600
 0.8350	42.4440
 0.8360	42.4370
 0.8370	42.4340
 0.8380	42.4330
 0.8390	42.4420
 0.8400	42.4310
 0.8410	42.4260
 0.8420	42.4360
 0.8430	42.4320
 0.8440	42.4260
 0.8450	42.4250
 0.8460	42.4280
 0.8470	42.4100
 0.8480	42.4000
 0.8490	42.3980
 0.8500	42.4000
 0.8510	42.4250
 0.8520	42.4320
 0.8530	42.4220
 0.8540	42.4170
 0.8550	42.4140
 0.8560	42.4130
 0.8570	42.4140
 0.8580	42.4240
 0.8590	42.4250
 0.8600	42.4270
 0.8610	42.4330
 0.8620	42.4320
 0.8630	42.4250
 0.8640	42.4240
 0.8650	42.4310
 0.8660	42.4330
 0.8670	42.4380
 0.8680	42.4450
 0.8690	42.4500
 0.8700	42.4370
 0.8710	42.4420
 0.8720	42.4540
 0.8730	42.4450
 0.8740	42.4710
 0.8750	42.4770
 0.8760	42.4600
 0.8770	42.4710
 0.8780	42.4800
 0.8790	42.4870
 0.8800	42.4890
 0.8810	42.4820
 0.8820	42.4960
 0.8830	42.5060
 0.8840	42.4960
 0.8850	42.4900
 0.8860	42.4930
 0.8870	42.5070
 0.8880	42.5260
 0.8890	42.5220
 0.8900	42.5230
 0.8910	42.5290
 0.8920	42.5300
 0.8930	42.5450
 0.8940	42.5440
 0.8950	42.5350
 0.8960	42.5410
 0.8970	42.5390
 0.8980	42.5480
 0.8990	42.5640
 0.9000	42.5660
 0.9010	42.5670
 0.9020	42.5690
 0.9030	42.5740
 0.9040	42.5900
 0.9050	42.6010
 0.9060	42.6060
 0.9070	42.6090
 0.9080	42.6160
 0.9090	42.6050
 0.9100	42.5990
 0.9110	42.6170
 0.9120	42.6320
 0.9130	42.6280
 0.9140	42.6180
 0.9150	42.6190
 0.9160	42.6350
 0.9170	42.6320
 0.9180	42.6190
 0.9190	42.6220
 0.9200	42.6410
 0.9210	42.6470
 0.9220	42.6400
 0.9230	42.6380
 0.9240	42.6430
 0.9250	42.6450
 0.9260	42.6400
 0.9270	42.6340
 0.9280	42.6120
 0.9290	42.6050
 0.9300	42.6190
 0.9310	42.6330
 0.9320	42.6140
 0.9330	42.6020
 0.9340	42.6100
 0.9350	42.6030
 0.9360	42.6030
 0.9370	42.5990
 0.9380	42.5820
 0.9390	42.5550
 0.9400	42.5400
 0.9410	42.5450
 0.9420	42.5580
 0.9430	42.5390
 0.9440	42.4970
 0.9450	42.4660
 0.9460	42.4670
 0.9470	42.4840
 0.9480	42.4770
 0.9490	42.4480
 0.9500	42.4080
 0.9510	42.3660
 0.9520	42.3390
 0.9530	42.3310
 0.9540	42.3340
 0.9550	42.3160
 0.9560	42.2950
 0.9570	42.2630
 0.9580	42.2180
 0.9590	42.1990
 0.9600	42.1920
 0.9610	42.1880
 0.9620	42.1800
 0.9630	42.1360
 0.9640	42.1280
 0.9650	42.1370
 0.9660	42.1230
 0.9670	42.1100
 0.9680	42.0940
 0.9690	42.0870
 0.9700	42.1020
 0.9710	42.1140
 0.9720	42.1170
 0.9730	42.0990
 0.9740	42.0630
 0.9750	42.0780
 0.9760	42.0570
 0.9770	42.0360
 0.9780	42.0800
 0.9790	42.0990
 0.9800	42.0780
 0.9810	42.0440
 0.9820	42.0420
 0.9830	42.0700
 0.9840	42.0870
 0.9850	42.0990
 0.9860	42.1240
 0.9870	42.0880
 0.9880	42.0940
 0.9890	42.1070
 0.9900	42.0600
 0.9910	42.0910
 0.9920	42.1180
 0.9930	42.1460
 0.9940	42.1740
 0.9950	42.2020
 0.9960	42.2290
 0.9970	42.2570
 0.9980	42.2850
 0.9990	42.3130
 1.0000	42.3400
 1.0010	42.3680
 1.0020	42.3960
 1.0030	42.4240
 1.0040	42.4510
 1.0050	42.4790
 1.0060	42.5070
 1.0070	42.5340
 1.0080	42.5620
 1.0090	42.5900
 1.0100	42.5900
 1.0110	42.5770
 1.0120	42.5790
 1.0130	42.5890
 1.0140	42.5970
 1.0150	42.6120
 1.0160	42.6200
 1.0170	42.6310
 1.0180	42.6360
 1.0190	42.6380
 1.0200	42.6420
 1.0210	42.6430
 1.0220	42.6490
 1.0230	42.6510
 1.0240	42.6530
 1.0250	42.6610
 1.0260	42.6660
 1.0270	42.6730
 1.0280	42.6950
 1.0290	42.7040
 1.0300	42.7060
 1.0310	42.7090
 1.0320	42.7100
 1.0330	42.7030
 1.0340	42.7060
 1.0350	42.7140
 1.0360	42.7260
 1.0370	42.7380
 1.0380	42.7430
 1.0390	42.7420
 1.0400	42.7460
 1.0410	42.7480
 1.0420	42.7500
 1.0430	42.7550
 1.0440	42.7570
 1.0450	42.7520
 1.0460	42.7520
 1.0470	42.7530
 1.0480	42.7540
 1.0490	42.7540
 1.0500	42.7580
 1.0510	42.7630
 1.0520	42.7740
 1.0530	42.7760
 1.0540	42.7780
 1.0550	42.7780
 1.0560	42.7700
 1.0570	42.7710
 1.0580	42.7790
 1.0590	42.7820
 1.0600	42.7840
 1.0610	42.7880
 1.0620	42.7890
 1.0630	42.7950
 1.0640	42.8070
 1.0650	42.8150
 1.0660	42.8230
 1.0670	42.8270
 1.0680	42.8280
 1.0690	42.8220
 1.0700	42.8210
 1.0710	42.8170
 1.0720	42.8200
 1.0730	42.8310
 1.0740	42.8310
 1.0750	42.8300
 1.0760	42.8280
 1.0770	42.8210
 1.0780	42.8170
 1.0790	42.8130
 1.0800	42.8130
 1.0810	42.8160
 1.0820	42.8170
 1.0830	42.8240
 1.0840	42.8240
 1.0850	42.8130
 1.0860	42.8060
 1.0870	42.8050
 1.0880	42.8060
 1.0890	42.8050
 1.0900	42.8120
 1.0910	42.8110
 1.0920	42.8030
 1.0930	42.8000
 1.0940	42.8030
 1.0950	42.7990
 1.0960	42.7950
 1.0970	42.7880
 1.0980	42.7710
 1.0990	42.7650
 1.1000	42.7650
 1.1010	42.7640
 1.1020	42.7710
 1.1030	42.7750
 1.1040	42.7700
 1.1050	42.7630
 1.1060	42.7550
 1.1070	42.7430
 1.1080	42.7350
 1.1090	42.7290
 1.1100	42.7220
 1.1110	42.7140
 1.1120	42.7090
 1.1130	42.7080
 1.1140	42.7030
 1.1150	42.6990
 1.1160	42.6920
 1.1170	42.6800
 1.1180	42.6680
 1.1190	42.6580
 1.1200	42.6420
 1.1210	42.6270
 1.1220	42.6160
 1.1230	42.6030
 1.1240	42.5890
 1.1250	42.5740
 1.1260	42.5600
 1.1270	42.5400
 1.1280	42.5190
 1.1290	42.4930
 1.1300	42.4600
 1.1310	42.4270
 1.1320	42.3930
 1.1330	42.3560
 1.1340	42.3170
 1.1350	42.2770
 1.1360	42.2350
 1.1370	42.1890
 1.1380	42.1430
 1.1390	42.0950
 1.1400	42.0420
 1.1410	41.9900
 1.1420	41.9380
 1.1430	41.8860
 1.1440	41.8340
 1.1450	41.7810
 1.1460	41.7290
 1.1470	41.6760
 1.1480	41.6260
 1.1490	41.5720
 1.1500	41.5290
 1.1510	41.4930
 1.1520	41.4560
 1.1530	41.4260
 1.1540	41.3980
 1.1550	41.3730
 1.1560	41.3460
 1.1570	41.3250
 1.1580	41.3110
 1.1590	41.2940
 1.1600	41.2790
 1.1610	41.2670
 1.1620	41.2540
 1.1630	41.2480
 1.1640	41.2450
 1.1650	41.2400
 1.1660	41.2340
 1.1670	41.2310
 1.1680	41.2270
 1.1690	41.2260
 1.1700	41.2320
 1.1710	41.2330
 1.1720	41.2320
 1.1730	41.2300
 1.1740	41.2260
 1.1750	41.2210
 1.1760	41.2200
 1.1770	41.2160
 1.1780	41.2140
 1.1790	41.2120
 1.1800	41.2120
 1.1810	41.2110
 1.1820	41.2080
 1.1830	41.2050
 1.1840	41.2040
 1.1850	41.2040
 1.1860	41.2010
 1.1870	41.2030
 1.1880	41.2020
 1.1890	41.1970
 1.1900	41.1940
 1.1910	41.1920
 1.1920	41.1910
 1.1930	41.1920
 1.1940	41.1930
 1.1950	41.1960
 1.1960	41.1950
 1.1970	41.1920
 1.1980	41.1930
 1.1990	41.1970
 1.2000	41.2020
 1.2010	41.2070
 1.2020	41.2100
 1.2030	41.2140
 1.2040	41.2190
 1.2050	41.2230
 1.2060	41.2290
 1.2070	41.2340
 1.2080	41.2340
 1.2090	41.2370
 1.2100	41.2400
 1.2110	41.2430
 1.2120	41.2460
 1.2130	41.2520
 1.2140	41.2600
 1.2150	41.2670
 1.2160	41.2770
 1.2170	41.2870
 1.2180	41.2960
 1.2190	41.3050
 1.2200	41.3120
 1.2210	41.3210
 1.2220	41.3290
 1.2230	41.3340
 1.2240	41.3450
 1.2250	41.3550
 1.2260	41.3630
 1.2270	41.3710
 1.2280	41.3720
 1.2290	41.3720
 1.2300	41.3700
 1.2310	41.3680
 1.2320	41.3760
 1.2330	41.3830
 1.2340	41.3870
 1.2350	41.3900
 1.2360	41.3940
 1.2370	41.3940
 1.2380	41.4000
 1.2390	41.4070
 1.2400	41.4140
 1.2410	41.4210
 1.2420	41.4250
 1.2430	41.4290
 1.2440	41.4370
 1.2450	41.4420
 1.2460	41.4460
 1.2470	41.4480
 1.2480	41.4490
 1.2490	41.4500
 1.2500	41.4470
 1.2510	41.4480
 1.2520	41.4490
 1.2530	41.4490
 1.2540	41.4510
 1.2550	41.4540
 1.2560	41.4560
 1.2570	41.4590
 1.2580	41.4600
 1.2590	41.4620
 1.2600	41.4620
 1.2610	41.4630
 1.2620	41.4620
 1.2630	41.4620
 1.2640	41.4610
 1.2650	41.4590
 1.2660	41.4570
 1.2670	41.4570
 1.2680	41.4560
 1.2690	41.4490
 1.2700	41.4410
 1.2710	41.4340
 1.2720	41.4270
 1.2730	41.4210
 1.2740	41.4160
 1.2750	41.4090
 1.2760	41.4060
 1.2770	41.4020
 1.2780	41.3950
 1.2790	41.3870
 1.2800	41.3780
 1.2810	41.3680
 1.2820	41.3570
 1.2830	41.3460
 1.2840	41.3350
 1.2850	41.3230
 1.2860	41.3120
 1.2870	41.2990
 1.2880	41.2850
 1.2890	41.2720
 1.2900	41.2540
 1.2910	41.2400
 1.2920	41.2290
 1.2930	41.2140
 1.2940	41.2040
 1.2950	41.1930
 1.2960	41.1800
 1.2970	41.1660
 1.2980	41.1440
 1.2990	41.1200
 1.3000	41.0960
 1.3010	41.0730
 1.3020	41.0540
 1.3030	41.0330
 1.3040	41.0060
 1.3050	40.9760
 1.3060	40.9440
 1.3070	40.9140
 1.3080	40.8850
 1.3090	40.8530
 1.3100	40.8220
 1.3110	40.7880
 1.3120	40.7500
 1.3130	40.7110
 1.3140	40.6700
 1.3150	40.6240
 1.3160	40.5810
 1.3170	40.5370
 1.3180	40.4950
 1.3190	40.4510
 1.3200	40.4010
 1.3210	40.3510
 1.3220	40.2980
 1.3230	40.2430
 1.3240	40.1880
 1.3250	40.1350
 1.3260	40.0800
 1.3270	40.0260
 1.3280	39.9690
 1.3290	39.9090
 1.3300	39.8460
 1.3310	39.7770
 1.3320	39.7130
 1.3330	39.6510
 1.3340	39.5870
 1.3350	39.5280
 1.3360	39.4650
 1.3370	39.4000
 1.3380	39.3360
 1.3390	39.2700
 1.3400	39.2040
 1.3410	39.1410
 1.3420	39.0790
 1.3430	39.0140
 1.3440	38.9500
 1.3450	38.8880
 1.3460	38.8220
 1.3470	38.7600
 1.3480	38.7030
 1.3490	38.6430
 1.3500	38.5790
 1.3510	38.5220
 1.3520	38.4640
 1.3530	38.4020
 1.3540	38.3410
 1.3550	38.2780
 1.3560	38.2100
 1.3570	38.1460
 1.3580	38.0830
 1.3590	38.0170
 1.3600	37.9500
 1.3610	37.8800
 1.3620	37.8060
 1.3630	37.7280
 1.3640	37.6440
 1.3650	37.5520
 1.3660	37.4570
 1.3670	37.3580
 1.3680	37.2510
 1.3690	37.1410
 1.3700	37.0200
 1.3710	36.8890
 1.3720	36.7530
 1.3730	36.6030
 1.3740	36.4430
 1.3750	36.2740
 1.3760	36.0890
 1.3770	35.8850
 1.3780	35.6640
 1.3790	35.4270
 1.3800	35.1760
 1.3810	34.9100
 1.3820	34.6270
 1.3830	34.3310
 1.3840	34.0160
 1.3850	33.6850
 1.3860	33.3400
 1.3870	32.9780
 1.3880	32.6080
 1.3890	32.2260
 1.3900	31.8310
 1.3910	31.4320
 1.3920	31.0240
 1.3930	30.6080
 1.3940	30.1880
 1.3950	29.7610
 1.3960	29.3380
 1.3970	28.9180
 1.3980	28.5010
 1.3990	28.0960
 1.4000	27.7010
 1.4010	27.3150
 1.4020	26.9420
 1.4030	26.5780
 1.4040	26.2270
 1.4050	25.8900
 1.4060	25.5690
 1.4070	25.2690
 1.4080	24.9830
 1.4090	24.7120
 1.4100	24.4600
 1.4110	24.2240
 1.4120	24.0070
 1.4130	23.8080
 1.4140	23.6270
 1.4150	23.4590
 1.4160	23.3050
 1.4170	23.1630
 1.4180	23.0330
 1.4190	22.9150
 1.4200	22.8090
 1.4210	22.7130
 1.4220	22.6270
 1.4230	22.5490
 1.4240	22.4810
 1.4250	22.4200
 1.4260	22.3640
 1.4270	22.3160
 1.4280	22.2750
 1.4290	22.2390
 1.4300	22.2110
 1.4310	22.1870
 1.4320	22.1680
 1.4330	22.1520
 1.4340	22.1410
 1.4350	22.1340
 1.4360	22.1310
 1.4370	22.1320
 1.4380	22.1370
 1.4390	22.1440
 1.4400	22.1530
 1.4410	22.1660
 1.4420	22.1820
 1.4430	22.2000
 1.4440	22.2160
 1.4450	22.2350
 1.4460	22.2530
 1.4470	22.2740
 1.4480	22.2990
 1.4490	22.3240
 1.4500	22.3490
 1.4510	22.3750
 1.4520	22.4010
 1.4530	22.4310
 1.4540	22.4640
 1.4550	22.4980
 1.4560	22.5360
 1.4570	22.5740
 1.4580	22.6140
 1.4590	22.6580
 1.4600	22.7070
 1.4610	22.7610
 1.4620	22.8190
 1.4630	22.8820
 1.4640	22.9500
 1.4650	23.0230
 1.4660	23.1010
 1.4670	23.1830
 1.4680	23.2700
 1.4690	23.3620
 1.4700	23.4550
 1.4710	23.5530
 1.4720	23.6540
