Name: Arctostaphylos glandulosa 3
Type: vegetation
Class: Shrub
Genus: Arctostaphylos
Species: glandulosa
Sample No.: VH040
Owner: UCSB
Wavelength Range: TIR
Origin: 34.5085; -119.7682; WGS84
Collection Date: 4/1/2013
Description: Samples were collected as part of the HyspIRI Airborne Campaign. 48 individual plants were sampled in three times in 2013 - spring  summer  and fall. The name of the sample includes a 1  2  or 3 which references a different individual of the species. Samples were taken to JPL and processed within 48 hours of collection. The same leaves were processed in the Nicolet and then measured using the ASD.
Measurement: Hemispherical reflectance
First Column: X
Second Column: Y
X Units: Wavelength (micrometers)
Y Units: Reflectance (percentage)
First X Value: 2.501
Last X Value: 15.387
Number of X Values: 1737
Additional Information: vegetation.shrub.arctostaphylos.glandulosa.tir.vh040.ucsb.nicolet.ancillary.txt

 2.5010	 7.1350
 2.5030	 7.1030
 2.5040	 7.1780
 2.5050	 7.1630
 2.5060	 7.1280
 2.5070	 7.1000
 2.5090	 7.1740
 2.5100	 7.2670
 2.5110	 7.2620
 2.5120	 7.1580
 2.5140	 7.1960
 2.5150	 7.2090
 2.5160	 7.2020
 2.5170	 7.1340
 2.5180	 7.1190
 2.5200	 7.0480
 2.5210	 7.1510
 2.5220	 7.1560
 2.5230	 7.1320
 2.5250	 7.0930
 2.5260	 7.1820
 2.5270	 7.2430
 2.5280	 7.3070
 2.5290	 7.2420
 2.5310	 7.2150
 2.5320	 7.1090
 2.5330	 7.1000
 2.5340	 7.1130
 2.5360	 7.1660
 2.5370	 7.1360
 2.5380	 7.2760
 2.5390	 7.2850
 2.5410	 7.1860
 2.5420	 7.1970
 2.5430	 7.3110
 2.5440	 7.2370
 2.5460	 7.2790
 2.5470	 7.2770
 2.5480	 7.2430
 2.5490	 7.1940
 2.5510	 7.2780
 2.5520	 7.2470
 2.5530	 7.2700
 2.5540	 7.2480
 2.5560	 7.3320
 2.5570	 7.3110
 2.5580	 7.2460
 2.5590	 7.2210
 2.5610	 7.3400
 2.5620	 7.3730
 2.5630	 7.3800
 2.5640	 7.3290
 2.5660	 7.2900
 2.5670	 7.1760
 2.5680	 7.2070
 2.5700	 7.2020
 2.5710	 7.1890
 2.5720	 7.1710
 2.5730	 7.1560
 2.5750	 7.1850
 2.5760	 7.2990
 2.5770	 7.2870
 2.5790	 7.2310
 2.5800	 7.1860
 2.5810	 7.2330
 2.5820	 7.2490
 2.5840	 7.2870
 2.5850	 7.2240
 2.5860	 7.2000
 2.5880	 7.2180
 2.5890	 7.2770
 2.5900	 7.2140
 2.5910	 7.2830
 2.5930	 7.3040
 2.5940	 7.3610
 2.5950	 7.3510
 2.5970	 7.3530
 2.5980	 7.3280
 2.5990	 7.3730
 2.6000	 7.3370
 2.6020	 7.3850
 2.6030	 7.2640
 2.6040	 7.2540
 2.6060	 7.3490
 2.6070	 7.4020
 2.6080	 7.3300
 2.6100	 7.3820
 2.6110	 7.3730
 2.6120	 7.2250
 2.6140	 7.1250
 2.6150	 7.2100
 2.6160	 7.1070
 2.6180	 7.1250
 2.6190	 7.1190
 2.6200	 7.1830
 2.6220	 7.1760
 2.6230	 7.1830
 2.6240	 7.1130
 2.6260	 7.1380
 2.6270	 7.1250
 2.6280	 7.0930
 2.6300	 7.0050
 2.6310	 6.9930
 2.6320	 7.0050
 2.6340	 7.0700
 2.6350	 6.9750
 2.6360	 6.9870
 2.6380	 6.9790
 2.6390	 6.9340
 2.6400	 6.8820
 2.6420	 6.9580
 2.6430	 6.9600
 2.6440	 6.9570
 2.6460	 6.8530
 2.6470	 6.9260
 2.6480	 6.9390
 2.6500	 6.9460
 2.6510	 6.9130
 2.6520	 6.9140
 2.6540	 6.8580
 2.6550	 6.8890
 2.6560	 6.8750
 2.6580	 6.9190
 2.6590	 6.8680
 2.6610	 6.8430
 2.6620	 6.7510
 2.6630	 6.6790
 2.6650	 6.6280
 2.6660	 6.7630
 2.6670	 6.8330
 2.6690	 6.8880
 2.6700	 6.7430
 2.6720	 6.6580
 2.6730	 6.6310
 2.6740	 6.6570
 2.6760	 6.6040
 2.6770	 6.6600
 2.6780	 6.6680
 2.6800	 6.7320
 2.6810	 6.6330
 2.6830	 6.5380
 2.6840	 6.4950
 2.6850	 6.5920
 2.6870	 6.4950
 2.6880	 6.4520
 2.6900	 6.4690
 2.6910	 6.5480
 2.6920	 6.5190
 2.6940	 6.5340
 2.6950	 6.4570
 2.6970	 6.3540
 2.6980	 6.2540
 2.6990	 6.2710
 2.7010	 6.1650
 2.7020	 6.2000
 2.7040	 6.2670
 2.7050	 6.3110
 2.7060	 6.1210
 2.7080	 6.1000
 2.7090	 6.0710
 2.7110	 6.0560
 2.7120	 6.0190
 2.7130	 5.9650
 2.7150	 5.8380
 2.7160	 5.8440
 2.7180	 5.8490
 2.7190	 5.9360
 2.7210	 5.8170
 2.7220	 5.7760
 2.7230	 5.7380
 2.7250	 5.7250
 2.7260	 5.5740
 2.7280	 5.5230
 2.7290	 5.5670
 2.7310	 5.6400
 2.7320	 5.5830
 2.7330	 5.5380
 2.7350	 5.5170
 2.7360	 5.5510
 2.7380	 5.4450
 2.7390	 5.4250
 2.7410	 5.3630
 2.7420	 5.3220
 2.7440	 5.2800
 2.7450	 5.4480
 2.7470	 5.4100
 2.7480	 5.3910
 2.7490	 5.4220
 2.7510	 5.3810
 2.7520	 5.2970
 2.7540	 5.3170
 2.7550	 5.2700
 2.7570	 5.2480
 2.7580	 5.1500
 2.7600	 5.1490
 2.7610	 5.0660
 2.7630	 5.0240
 2.7640	 4.9760
 2.7660	 4.9610
 2.7670	 4.8900
 2.7680	 4.8740
 2.7700	 4.9270
 2.7710	 4.9760
 2.7730	 4.8830
 2.7740	 4.8390
 2.7760	 4.7980
 2.7770	 4.9550
 2.7790	 4.9260
 2.7800	 4.7950
 2.7820	 4.6730
 2.7830	 4.6240
 2.7850	 4.5970
 2.7860	 4.6680
 2.7880	 4.5230
 2.7890	 4.5720
 2.7910	 4.5550
 2.7920	 4.5060
 2.7940	 4.5510
 2.7950	 4.6990
 2.7970	 4.6050
 2.7980	 4.5050
 2.8000	 4.4110
 2.8010	 4.3670
 2.8030	 4.2990
 2.8040	 4.2780
 2.8060	 4.2520
 2.8070	 4.3360
 2.8090	 4.2250
 2.8110	 4.1910
 2.8120	 4.2020
 2.8140	 4.2180
 2.8150	 4.0980
 2.8170	 4.0130
 2.8180	 4.0330
 2.8200	 4.1610
 2.8210	 4.0520
 2.8230	 3.9770
 2.8240	 4.0030
 2.8260	 4.1530
 2.8270	 4.0520
 2.8290	 4.0420
 2.8300	 3.9820
 2.8320	 3.9270
 2.8340	 3.8420
 2.8350	 3.8790
 2.8370	 3.8630
 2.8380	 3.9380
 2.8400	 3.9250
 2.8410	 3.9130
 2.8430	 3.8100
 2.8440	 3.8480
 2.8460	 3.8000
 2.8480	 3.8220
 2.8490	 3.9040
 2.8510	 3.9640
 2.8520	 3.8580
 2.8540	 3.8470
 2.8550	 3.7500
 2.8570	 3.7460
 2.8590	 3.7060
 2.8600	 3.7060
 2.8620	 3.5810
 2.8630	 3.6010
 2.8650	 3.6720
 2.8660	 3.7170
 2.8680	 3.6460
 2.8700	 3.7090
 2.8710	 3.6810
 2.8730	 3.7070
 2.8740	 3.7700
 2.8760	 3.7550
 2.8780	 3.6620
 2.8790	 3.6950
 2.8810	 3.6900
 2.8820	 3.7080
 2.8840	 3.6150
 2.8860	 3.5130
 2.8870	 3.5290
 2.8890	 3.6230
 2.8900	 3.5990
 2.8920	 3.7040
 2.8940	 3.6870
 2.8950	 3.6930
 2.8970	 3.6960
 2.8980	 3.7100
 2.9000	 3.5700
 2.9020	 3.5210
 2.9030	 3.5820
 2.9050	 3.5750
 2.9070	 3.5730
 2.9080	 3.7000
 2.9100	 3.6670
 2.9120	 3.6250
 2.9130	 3.5580
 2.9150	 3.6180
 2.9160	 3.4710
 2.9180	 3.4960
 2.9200	 3.5740
 2.9210	 3.6450
 2.9230	 3.5830
 2.9250	 3.5680
 2.9260	 3.4770
 2.9280	 3.4760
 2.9300	 3.4790
 2.9310	 3.5060
 2.9330	 3.5310
 2.9350	 3.5320
 2.9360	 3.4320
 2.9380	 3.5740
 2.9400	 3.4970
 2.9410	 3.6280
 2.9430	 3.6760
 2.9450	 3.5470
 2.9460	 3.4420
 2.9480	 3.5210
 2.9500	 3.5050
 2.9510	 3.4730
 2.9530	 3.5640
 2.9550	 3.5730
 2.9560	 3.4010
 2.9580	 3.4130
 2.9600	 3.3800
 2.9610	 3.3950
 2.9630	 3.5760
 2.9650	 3.8050
 2.9660	 3.2940
 2.9680	 3.0370
 2.9700	 3.2990
 2.9720	 3.4010
 2.9730	 3.3920
 2.9750	 3.1960
 2.9770	 3.1360
 2.9780	 3.5970
 2.9800	 3.7070
 2.9820	 3.6790
 2.9840	 3.6170
 2.9850	 3.6080
 2.9870	 3.5020
 2.9890	 3.4130
 2.9900	 3.2920
 2.9920	 3.4250
 2.9940	 3.9050
 2.9960	 4.1910
 2.9970	 3.9440
 2.9990	 3.9450
 3.0010	 3.7060
 3.0030	 3.5570
 3.0040	 3.5400
 3.0060	 3.5050
 3.0080	 3.3600
 3.0100	 3.2310
 3.0110	 3.1430
 3.0130	 3.2950
 3.0150	 3.1670
 3.0170	 3.2190
 3.0180	 3.3230
 3.0200	 3.4140
 3.0220	 3.5070
 3.0240	 3.6050
 3.0250	 3.5280
 3.0270	 3.7430
 3.0290	 3.5420
 3.0310	 3.7170
 3.0320	 4.1130
 3.0340	 4.1570
 3.0360	 4.0610
 3.0380	 4.0780
 3.0400	 3.7860
 3.0410	 3.5020
 3.0430	 3.4890
 3.0450	 3.4280
 3.0470	 3.4540
 3.0480	 3.4030
 3.0500	 3.4830
 3.0520	 4.1520
 3.0540	 3.8890
 3.0560	 3.5340
 3.0570	 3.5100
 3.0590	 3.2230
 3.0610	 3.2240
 3.0630	 3.4090
 3.0650	 3.5690
 3.0660	 3.6240
 3.0680	 3.5180
 3.0700	 3.8110
 3.0720	 3.7540
 3.0740	 3.6970
 3.0760	 3.7770
 3.0770	 3.6810
 3.0790	 3.6160
 3.0810	 3.7500
 3.0830	 3.7130
 3.0850	 3.6740
 3.0870	 3.6440
 3.0880	 3.8220
 3.0900	 3.8110
 3.0920	 3.6620
 3.0940	 3.9010
 3.0960	 4.0730
 3.0980	 3.9590
 3.0990	 3.8600
 3.1010	 3.9480
 3.1030	 3.8790
 3.1050	 3.8800
 3.1070	 3.7720
 3.1090	 3.6460
 3.1110	 3.7280
 3.1120	 3.7760
 3.1140	 3.9370
 3.1160	 4.0120
 3.1180	 3.9990
 3.1200	 3.9020
 3.1220	 3.8750
 3.1240	 3.9190
 3.1260	 4.0380
 3.1270	 4.2730
 3.1290	 4.1930
 3.1310	 3.9290
 3.1330	 3.9220
 3.1350	 4.0150
 3.1370	 4.1870
 3.1390	 4.0460
 3.1410	 3.9160
 3.1430	 3.9280
 3.1450	 4.1600
 3.1460	 4.3140
 3.1480	 4.2860
 3.1500	 4.1440
 3.1520	 4.2090
 3.1540	 4.3660
 3.1560	 4.3640
 3.1580	 4.4790
 3.1600	 4.6360
 3.1620	 4.5780
 3.1640	 4.4670
 3.1660	 4.3050
 3.1680	 4.0350
 3.1700	 3.8830
 3.1710	 4.1990
 3.1730	 4.3230
 3.1750	 4.0890
 3.1770	 4.0520
 3.1790	 4.0770
 3.1810	 4.1850
 3.1830	 4.1220
 3.1850	 4.0250
 3.1870	 4.0870
 3.1890	 4.1950
 3.1910	 4.3700
 3.1930	 4.1470
 3.1950	 4.0930
 3.1970	 4.1620
 3.1990	 4.2990
 3.2010	 4.3160
 3.2030	 4.2800
 3.2050	 4.1430
 3.2070	 4.1580
 3.2090	 4.1970
 3.2110	 4.3690
 3.2130	 4.5090
 3.2150	 4.4550
 3.2170	 4.3760
 3.2190	 4.3210
 3.2210	 4.2670
 3.2230	 4.2950
 3.2250	 4.3160
 3.2270	 4.3970
 3.2290	 4.4170
 3.2310	 4.4480
 3.2330	 4.4100
 3.2350	 4.4320
 3.2370	 4.4160
 3.2390	 4.4030
 3.2410	 4.3590
 3.2430	 4.3050
 3.2450	 4.3740
 3.2470	 4.5120
 3.2490	 4.5430
 3.2510	 4.5660
 3.2530	 4.5180
 3.2550	 4.5770
 3.2570	 4.5340
 3.2590	 4.4150
 3.2610	 4.3470
 3.2630	 4.4010
 3.2650	 4.4280
 3.2670	 4.4060
 3.2690	 4.4240
 3.2720	 4.4720
 3.2740	 4.4500
 3.2760	 4.4500
 3.2780	 4.4100
 3.2800	 4.4120
 3.2820	 4.4270
 3.2840	 4.4230
 3.2860	 4.3560
 3.2880	 4.3880
 3.2900	 4.3730
 3.2920	 4.3920
 3.2940	 4.4190
 3.2960	 4.4580
 3.2990	 4.4560
 3.3010	 4.4130
 3.3030	 4.4170
 3.3050	 4.3890
 3.3070	 4.3050
 3.3090	 4.4190
 3.3110	 4.4060
 3.3130	 4.3480
 3.3150	 4.2570
 3.3180	 4.2370
 3.3200	 4.2210
 3.3220	 4.2490
 3.3240	 4.2660
 3.3260	 4.2210
 3.3280	 4.1390
 3.3300	 4.0810
 3.3330	 4.0690
 3.3350	 4.1740
 3.3370	 4.1130
 3.3390	 3.9830
 3.3410	 3.9400
 3.3430	 4.0010
 3.3450	 3.9270
 3.3480	 3.8990
 3.3500	 3.9110
 3.3520	 3.9030
 3.3540	 3.7780
 3.3560	 3.7280
 3.3580	 3.6350
 3.3610	 3.6420
 3.3630	 3.6100
 3.3650	 3.5750
 3.3670	 3.4420
 3.3690	 3.4330
 3.3720	 3.3890
 3.3740	 3.4020
 3.3760	 3.3920
 3.3780	 3.3280
 3.3800	 3.2600
 3.3830	 3.3160
 3.3850	 3.3030
 3.3870	 3.3000
 3.3890	 3.2420
 3.3910	 3.1670
 3.3940	 3.1010
 3.3960	 3.0820
 3.3980	 3.0040
 3.4000	 2.9500
 3.4020	 2.8860
 3.4050	 2.8470
 3.4070	 2.7790
 3.4090	 2.7580
 3.4110	 2.7050
 3.4140	 2.7590
 3.4160	 2.8360
 3.4180	 3.0810
 3.4200	 3.5450
 3.4230	 4.2810
 3.4250	 5.2030
 3.4270	 6.0040
 3.4290	 6.3850
 3.4320	 6.3640
 3.4340	 5.9840
 3.4360	 5.5890
 3.4390	 5.2850
 3.4410	 5.1520
 3.4430	 4.9510
 3.4450	 4.8030
 3.4480	 4.6980
 3.4500	 4.6610
 3.4520	 4.6290
 3.4550	 4.6570
 3.4570	 4.5640
 3.4590	 4.6100
 3.4620	 4.6370
 3.4640	 4.5380
 3.4660	 4.4890
 3.4680	 4.5180
 3.4710	 4.4230
 3.4730	 4.3600
 3.4750	 4.2350
 3.4780	 4.1970
 3.4800	 4.1730
 3.4820	 4.1340
 3.4850	 4.0650
 3.4870	 4.0690
 3.4890	 4.0560
 3.4920	 3.9880
 3.4940	 3.8890
 3.4970	 3.8360
 3.4990	 3.7930
 3.5010	 3.6490
 3.5040	 3.5610
 3.5060	 3.9510
 3.5080	 5.0010
 3.5110	 6.1760
 3.5130	 6.5270
 3.5160	 6.2980
 3.5180	 6.0640
 3.5200	 5.9700
 3.5230	 5.8280
 3.5250	 5.6940
 3.5270	 5.5870
 3.5300	 5.5980
 3.5320	 5.5270
 3.5350	 5.4630
 3.5370	 5.3560
 3.5400	 5.2750
 3.5420	 5.2160
 3.5440	 5.1900
 3.5470	 5.1920
 3.5490	 5.2920
 3.5520	 5.3170
 3.5540	 5.2960
 3.5570	 5.2690
 3.5590	 5.2770
 3.5610	 5.2880
 3.5640	 5.3060
 3.5660	 5.3180
 3.5690	 5.3840
 3.5710	 5.3950
 3.5740	 5.3580
 3.5760	 5.2200
 3.5790	 5.1370
 3.5810	 5.1370
 3.5840	 5.1640
 3.5860	 5.2400
 3.5890	 5.4550
 3.5910	 5.4570
 3.5930	 5.2630
 3.5960	 5.0050
 3.5980	 5.0290
 3.6010	 5.1490
 3.6030	 5.2190
 3.6060	 5.2270
 3.6080	 5.3170
 3.6110	 5.3670
 3.6140	 5.3230
 3.6160	 5.2540
 3.6190	 5.2920
 3.6210	 5.2860
 3.6240	 5.2970
 3.6260	 5.2420
 3.6290	 5.2180
 3.6310	 5.1780
 3.6340	 5.2290
 3.6360	 5.2250
 3.6390	 5.2290
 3.6410	 5.2240
 3.6440	 5.2060
 3.6470	 5.2390
 3.6490	 5.2820
 3.6520	 5.2630
 3.6540	 5.2660
 3.6570	 5.2360
 3.6590	 5.2400
 3.6620	 5.1820
 3.6650	 5.1950
 3.6670	 5.1720
 3.6700	 5.1650
 3.6720	 5.1530
 3.6750	 5.1860
 3.6780	 5.1690
 3.6800	 5.1600
 3.6830	 5.1920
 3.6850	 5.2290
 3.6880	 5.2240
 3.6910	 5.2400
 3.6930	 5.1880
 3.6960	 5.2270
 3.6990	 5.2170
 3.7010	 5.2190
 3.7040	 5.2250
 3.7060	 5.2340
 3.7090	 5.2280
 3.7120	 5.2710
 3.7140	 5.2820
 3.7170	 5.2560
 3.7200	 5.1780
 3.7220	 5.1890
 3.7250	 5.2100
 3.7280	 5.2680
 3.7300	 5.3250
 3.7330	 5.3150
 3.7360	 5.2900
 3.7390	 5.3150
 3.7410	 5.3270
 3.7440	 5.4340
 3.7470	 5.4160
 3.7490	 5.3730
 3.7520	 5.3280
 3.7550	 5.3320
 3.7580	 5.2890
 3.7600	 5.3170
 3.7630	 5.2840
 3.7660	 5.3370
 3.7680	 5.3700
 3.7710	 5.3720
 3.7740	 5.2790
 3.7770	 5.2500
 3.7790	 5.2570
 3.7820	 5.2530
 3.7850	 5.2460
 3.7880	 5.3010
 3.7900	 5.3320
 3.7930	 5.3560
 3.7960	 5.3410
 3.7990	 5.3000
 3.8020	 5.2680
 3.8040	 5.3710
 3.8070	 5.4170
 3.8100	 5.3770
 3.8130	 5.3560
 3.8160	 5.4270
 3.8180	 5.3810
 3.8210	 5.3720
 3.8240	 5.4040
 3.8270	 5.4060
 3.8300	 5.3270
 3.8330	 5.3830
 3.8350	 5.4100
 3.8380	 5.3890
 3.8410	 5.3770
 3.8440	 5.3680
 3.8470	 5.3510
 3.8500	 5.3290
 3.8520	 5.3540
 3.8550	 5.3910
 3.8580	 5.3870
 3.8610	 5.3950
 3.8640	 5.4090
 3.8670	 5.4440
 3.8700	 5.4350
 3.8730	 5.4490
 3.8750	 5.4430
 3.8780	 5.4400
 3.8810	 5.4390
 3.8840	 5.4630
 3.8870	 5.4980
 3.8900	 5.5480
 3.8930	 5.4780
 3.8960	 5.5040
 3.8990	 5.5400
 3.9020	 5.4820
 3.9050	 5.3870
 3.9080	 5.3740
 3.9110	 5.4400
 3.9140	 5.4840
 3.9160	 5.4480
 3.9190	 5.4520
 3.9220	 5.4490
 3.9250	 5.4570
 3.9280	 5.4360
 3.9310	 5.4540
 3.9340	 5.4560
 3.9370	 5.4980
 3.9400	 5.5240
 3.9430	 5.5340
 3.9460	 5.4790
 3.9490	 5.4610
 3.9520	 5.4610
 3.9550	 5.4980
 3.9580	 5.4910
 3.9610	 5.4810
 3.9640	 5.4740
 3.9670	 5.5450
 3.9700	 5.5350
 3.9730	 5.5110
 3.9770	 5.5000
 3.9800	 5.4970
 3.9830	 5.4340
 3.9860	 5.4020
 3.9890	 5.4680
 3.9920	 5.5550
 3.9950	 5.5040
 3.9980	 5.5140
 4.0010	 5.5570
 4.0040	 5.5800
 4.0070	 5.5560
 4.0100	 5.5720
 4.0130	 5.5840
 4.0170	 5.5800
 4.0200	 5.5290
 4.0230	 5.5210
 4.0260	 5.5210
 4.0290	 5.5720
 4.0320	 5.5890
 4.0350	 5.5950
 4.0380	 5.5820
 4.0420	 5.6200
 4.0450	 5.5930
 4.0480	 5.6000
 4.0510	 5.6030
 4.0540	 5.6680
 4.0570	 5.6750
 4.0610	 5.6540
 4.0640	 5.6920
 4.0670	 5.7070
 4.0700	 5.6090
 4.0730	 5.6250
 4.0770	 5.7050
 4.0800	 5.7450
 4.0830	 5.6790
 4.0860	 5.6770
 4.0890	 5.6590
 4.0930	 5.6090
 4.0960	 5.6220
 4.0990	 5.6670
 4.1020	 5.7350
 4.1060	 5.7600
 4.1090	 5.6900
 4.1120	 5.6830
 4.1150	 5.6810
 4.1190	 5.7260
 4.1220	 5.7280
 4.1250	 5.7290
 4.1280	 5.7170
 4.1320	 5.7580
 4.1350	 5.7800
 4.1380	 5.7720
 4.1420	 5.7490
 4.1450	 5.7340
 4.1480	 5.7590
 4.1520	 5.7780
 4.1550	 5.7390
 4.1580	 5.7780
 4.1620	 5.7970
 4.1650	 5.7660
 4.1680	 5.7940
 4.1720	 5.8350
 4.1750	 5.8340
 4.1780	 5.8410
 4.1820	 5.8090
 4.1850	 5.7780
 4.1890	 5.7830
 4.1920	 5.8370
 4.1950	 5.8220
 4.1990	 5.8630
 4.2020	 5.9960
 4.2060	 6.0470
 4.2090	 6.0490
 4.2120	 6.0450
 4.2160	 6.1100
 4.2190	 6.2410
 4.2230	 6.3130
 4.2260	 6.4400
 4.2300	 6.6480
 4.2330	 6.8780
 4.2360	 6.8600
 4.2400	 6.7750
 4.2430	 6.5600
 4.2470	 6.5190
 4.2500	 6.4650
 4.2540	 6.2610
 4.2570	 6.1740
 4.2610	 6.2910
 4.2640	 6.4280
 4.2680	 6.5520
 4.2710	 6.5660
 4.2750	 6.5050
 4.2780	 6.4260
 4.2820	 6.4050
 4.2850	 6.2400
 4.2890	 6.2760
 4.2930	 6.3010
 4.2960	 6.3340
 4.3000	 6.2440
 4.3030	 6.2370
 4.3070	 6.2650
 4.3100	 6.2740
 4.3140	 6.2130
 4.3180	 6.0800
 4.3210	 5.9860
 4.3250	 5.9580
 4.3280	 5.9440
 4.3320	 5.8820
 4.3360	 5.8750
 4.3390	 5.9200
 4.3430	 5.9100
 4.3470	 5.8460
 4.3500	 5.8120
 4.3540	 5.8330
 4.3570	 5.8080
 4.3610	 5.8450
 4.3650	 5.8700
 4.3680	 5.8120
 4.3720	 5.7450
 4.3760	 5.7520
 4.3800	 5.7440
 4.3830	 5.7650
 4.3870	 5.7420
 4.3910	 5.7150
 4.3940	 5.6660
 4.3980	 5.6490
 4.4020	 5.6700
 4.4060	 5.6850
 4.4090	 5.7240
 4.4130	 5.7820
 4.4170	 5.7900
 4.4210	 5.7000
 4.4240	 5.6440
 4.4280	 5.6680
 4.4320	 5.7420
 4.4360	 5.8080
 4.4400	 5.7310
 4.4430	 5.6370
 4.4470	 5.6500
 4.4510	 5.6580
 4.4550	 5.6810
 4.4590	 5.7190
 4.4620	 5.6700
 4.4660	 5.6650
 4.4700	 5.6580
 4.4740	 5.6540
 4.4780	 5.6530
 4.4820	 5.6440
 4.4860	 5.6060
 4.4900	 5.5900
 4.4930	 5.5910
 4.4970	 5.6060
 4.5010	 5.6050
 4.5050	 5.6330
 4.5090	 5.6370
 4.5130	 5.5870
 4.5170	 5.6180
 4.5210	 5.6360
 4.5250	 5.6140
 4.5290	 5.6340
 4.5330	 5.6930
 4.5370	 5.7090
 4.5410	 5.6380
 4.5450	 5.5700
 4.5490	 5.5810
 4.5530	 5.6150
 4.5570	 5.5730
 4.5610	 5.5740
 4.5650	 5.5340
 4.5690	 5.4930
 4.5730	 5.5300
 4.5770	 5.5390
 4.5810	 5.5450
 4.5850	 5.6030
 4.5890	 5.5870
 4.5930	 5.5330
 4.5970	 5.5030
 4.6010	 5.4760
 4.6050	 5.4500
 4.6090	 5.4310
 4.6130	 5.4480
 4.6170	 5.4810
 4.6220	 5.5030
 4.6260	 5.5220
 4.6300	 5.5520
 4.6340	 5.5160
 4.6380	 5.4560
 4.6420	 5.4590
 4.6460	 5.4170
 4.6510	 5.3670
 4.6550	 5.4190
 4.6590	 5.4950
 4.6630	 5.5050
 4.6670	 5.4480
 4.6720	 5.4720
 4.6760	 5.5340
 4.6800	 5.5080
 4.6840	 5.4410
 4.6880	 5.4530
 4.6930	 5.4910
 4.6970	 5.4650
 4.7010	 5.4170
 4.7050	 5.4200
 4.7100	 5.4860
 4.7140	 5.5600
 4.7180	 5.4920
 4.7230	 5.4090
 4.7270	 5.4300
 4.7310	 5.4520
 4.7360	 5.4100
 4.7400	 5.4260
 4.7440	 5.4610
 4.7490	 5.4540
 4.7530	 5.4460
 4.7570	 5.4730
 4.7620	 5.5060
 4.7660	 5.5220
 4.7700	 5.4710
 4.7750	 5.4600
 4.7790	 5.4980
 4.7840	 5.5190
 4.7880	 5.4800
 4.7920	 5.4790
 4.7970	 5.5060
 4.8010	 5.5750
 4.8060	 5.5330
 4.8100	 5.4640
 4.8150	 5.4800
 4.8190	 5.5270
 4.8240	 5.5030
 4.8280	 5.4850
 4.8330	 5.4790
 4.8370	 5.4480
 4.8420	 5.4290
 4.8460	 5.4750
 4.8510	 5.4810
 4.8550	 5.5000
 4.8600	 5.5080
 4.8640	 5.4970
 4.8690	 5.4370
 4.8730	 5.4340
 4.8780	 5.4540
 4.8830	 5.4970
 4.8870	 5.5400
 4.8920	 5.5590
 4.8960	 5.5010
 4.9010	 5.4820
 4.9060	 5.5360
 4.9100	 5.5220
 4.9150	 5.4540
 4.9200	 5.4900
 4.9240	 5.5250
 4.9290	 5.5070
 4.9340	 5.5360
 4.9380	 5.6030
 4.9430	 5.6020
 4.9480	 5.5440
 4.9530	 5.5220
 4.9570	 5.5560
 4.9620	 5.5440
 4.9670	 5.5350
 4.9720	 5.5060
 4.9760	 5.5100
 4.9810	 5.5860
 4.9860	 5.5900
 4.9910	 5.5290
 4.9960	 5.5370
 5.0000	 5.6290
 5.0050	 5.6300
 5.0100	 5.5720
 5.0150	 5.5840
 5.0200	 5.5400
 5.0250	 5.4680
 5.0290	 5.4480
 5.0340	 5.5140
 5.0390	 5.5360
 5.0440	 5.5240
 5.0490	 5.5330
 5.0540	 5.6490
 5.0590	 5.6040
 5.0640	 5.5380
 5.0690	 5.5750
 5.0740	 5.6250
 5.0790	 5.5890
 5.0840	 5.5950
 5.0890	 5.5900
 5.0940	 5.6120
 5.0990	 5.6240
 5.1040	 5.5990
 5.1090	 5.5390
 5.1140	 5.5380
 5.1190	 5.5320
 5.1240	 5.5990
 5.1290	 5.6260
 5.1340	 5.5850
 5.1390	 5.5500
 5.1440	 5.5490
 5.1490	 5.5320
 5.1540	 5.6190
 5.1600	 5.6190
 5.1650	 5.5460
 5.1700	 5.5350
 5.1750	 5.6020
 5.1800	 5.6000
 5.1850	 5.5990
 5.1910	 5.6130
 5.1960	 5.6050
 5.2010	 5.5710
 5.2060	 5.5790
 5.2110	 5.5910
 5.2170	 5.5520
 5.2220	 5.5240
 5.2270	 5.5450
 5.2320	 5.5090
 5.2380	 5.5320
 5.2430	 5.5540
 5.2480	 5.5700
 5.2540	 5.5770
 5.2590	 5.5380
 5.2640	 5.5160
 5.2700	 5.5560
 5.2750	 5.5190
 5.2800	 5.5360
 5.2860	 5.5300
 5.2910	 5.5420
 5.2970	 5.5230
 5.3020	 5.4480
 5.3070	 5.4500
 5.3130	 5.5370
 5.3180	 5.5230
 5.3240	 5.5370
 5.3290	 5.5120
 5.3350	 5.4840
 5.3400	 5.5360
 5.3460	 5.5580
 5.3510	 5.4660
 5.3570	 5.4310
 5.3620	 5.4650
 5.3680	 5.5400
 5.3730	 5.5610
 5.3790	 5.5650
 5.3850	 5.5170
 5.3900	 5.5000
 5.3960	 5.4670
 5.4010	 5.4250
 5.4070	 5.4150
 5.4130	 5.3790
 5.4180	 5.3180
 5.4240	 5.3150
 5.4300	 5.3520
