Name: Baccharis pilularis 3
Type: vegetation
Class: Shrub
Genus: Baccharis
Species: pilularis
Sample No.: VH006
Owner: UCSB
Wavelength Range: TIR
Origin: 34.418; -119.8456; WGS84
Collection Date: 4/1/2013
Description: Samples were collected as part of the HyspIRI Airborne Campaign. 48 individual plants were sampled in three times in 2013 - spring  summer  and fall. The name of the sample includes a 1  2  or 3 which references a different individual of the species. Samples were taken to JPL and processed within 48 hours of collection. The same leaves were processed in the Nicolet and then measured using the ASD.
Measurement: Hemispherical reflectance
First Column: X
Second Column: Y
X Units: Wavelength (micrometers)
Y Units: Reflectance (percentage)
First X Value: 2.501
Last X Value: 15.387
Number of X Values: 1737
Additional Information: vegetation.shrub.baccharis.pilularis.tir.vh006.ucsb.nicolet.ancillary.txt

 2.5010	 9.4290
 2.5030	 9.4180
 2.5040	 9.4120
 2.5050	 9.3410
 2.5060	 9.3900
 2.5070	 9.4060
 2.5090	 9.4200
 2.5100	 9.3330
 2.5110	 9.2860
 2.5120	 9.3440
 2.5140	 9.4580
 2.5150	 9.3120
 2.5160	 9.3310
 2.5170	 9.3270
 2.5180	 9.3970
 2.5200	 9.4810
 2.5210	 9.4720
 2.5220	 9.3570
 2.5230	 9.4080
 2.5250	 9.4510
 2.5260	 9.2990
 2.5270	 9.2200
 2.5280	 9.3940
 2.5290	 9.3440
 2.5310	 9.3720
 2.5320	 9.3910
 2.5330	 9.3190
 2.5340	 9.2900
 2.5360	 9.3640
 2.5370	 9.3250
 2.5380	 9.3930
 2.5390	 9.3100
 2.5410	 9.3190
 2.5420	 9.2820
 2.5430	 9.2630
 2.5440	 9.2030
 2.5460	 9.2190
 2.5470	 9.1920
 2.5480	 9.2970
 2.5490	 9.3670
 2.5510	 9.4190
 2.5520	 9.3840
 2.5530	 9.3350
 2.5540	 9.2530
 2.5560	 9.4120
 2.5570	 9.3680
 2.5580	 9.2460
 2.5590	 9.2220
 2.5610	 9.2260
 2.5620	 9.2710
 2.5630	 9.3550
 2.5640	 9.2310
 2.5660	 9.2500
 2.5670	 9.3050
 2.5680	 9.3540
 2.5700	 9.2980
 2.5710	 9.3290
 2.5720	 9.3350
 2.5730	 9.2970
 2.5750	 9.1520
 2.5760	 9.3150
 2.5770	 9.3900
 2.5790	 9.3140
 2.5800	 9.2740
 2.5810	 9.2830
 2.5820	 9.2380
 2.5840	 9.2250
 2.5850	 9.2080
 2.5860	 9.2070
 2.5880	 9.0480
 2.5890	 9.1180
 2.5900	 9.1820
 2.5910	 9.2730
 2.5930	 9.2790
 2.5940	 9.1310
 2.5950	 8.8860
 2.5970	 8.9190
 2.5980	 8.9720
 2.5990	 9.1100
 2.6000	 9.2090
 2.6020	 9.3050
 2.6030	 9.2590
 2.6040	 9.1590
 2.6060	 9.1050
 2.6070	 9.1310
 2.6080	 9.1200
 2.6100	 9.0830
 2.6110	 8.9560
 2.6120	 8.9700
 2.6140	 8.9860
 2.6150	 8.9620
 2.6160	 8.9110
 2.6180	 9.0150
 2.6190	 9.0710
 2.6200	 9.0350
 2.6220	 8.8610
 2.6230	 8.9800
 2.6240	 9.0940
 2.6260	 9.0650
 2.6270	 8.8540
 2.6280	 8.7860
 2.6300	 8.7980
 2.6310	 8.8270
 2.6320	 8.8720
 2.6340	 8.9690
 2.6350	 8.9340
 2.6360	 8.8020
 2.6380	 8.7750
 2.6390	 8.9180
 2.6400	 8.8640
 2.6420	 8.7970
 2.6430	 8.8240
 2.6440	 8.8790
 2.6460	 8.6530
 2.6470	 8.5520
 2.6480	 8.5840
 2.6500	 8.6910
 2.6510	 8.6570
 2.6520	 8.6040
 2.6540	 8.5430
 2.6550	 8.5620
 2.6560	 8.4880
 2.6580	 8.5950
 2.6590	 8.6150
 2.6610	 8.5140
 2.6620	 8.3840
 2.6630	 8.4210
 2.6650	 8.4420
 2.6660	 8.4630
 2.6670	 8.3740
 2.6690	 8.3720
 2.6700	 8.2510
 2.6720	 8.2450
 2.6730	 8.2830
 2.6740	 8.2980
 2.6760	 8.2620
 2.6770	 8.3180
 2.6780	 8.3080
 2.6800	 8.3560
 2.6810	 8.1790
 2.6830	 8.0990
 2.6840	 8.0500
 2.6850	 8.0360
 2.6870	 8.0200
 2.6880	 8.0640
 2.6900	 7.9920
 2.6910	 8.0590
 2.6920	 8.2030
 2.6940	 8.2170
 2.6950	 8.1400
 2.6970	 8.1090
 2.6980	 8.0210
 2.6990	 8.0830
 2.7010	 8.1560
 2.7020	 8.0730
 2.7040	 7.9480
 2.7050	 8.0160
 2.7060	 8.0860
 2.7080	 8.1340
 2.7090	 7.9420
 2.7110	 7.9040
 2.7120	 7.8960
 2.7130	 8.0430
 2.7150	 8.0420
 2.7160	 7.9490
 2.7180	 7.8740
 2.7190	 7.9820
 2.7210	 7.9430
 2.7220	 7.9820
 2.7230	 7.9630
 2.7250	 7.9860
 2.7260	 8.0260
 2.7280	 8.0820
 2.7290	 8.0560
 2.7310	 8.0870
 2.7320	 8.0880
 2.7330	 8.1340
 2.7350	 8.0510
 2.7360	 7.9810
 2.7380	 7.9170
 2.7390	 8.0620
 2.7410	 8.0150
 2.7420	 8.1060
 2.7440	 8.0660
 2.7450	 8.1580
 2.7470	 8.1740
 2.7480	 8.2500
 2.7490	 8.1270
 2.7510	 7.8840
 2.7520	 7.7650
 2.7540	 8.0160
 2.7550	 7.8890
 2.7570	 7.8500
 2.7580	 7.9330
 2.7600	 8.0020
 2.7610	 8.0100
 2.7630	 8.0030
 2.7640	 7.8180
 2.7660	 7.8980
 2.7670	 7.8950
 2.7680	 7.8120
 2.7700	 7.9340
 2.7710	 8.0790
 2.7730	 8.0450
 2.7740	 8.0790
 2.7760	 7.8930
 2.7770	 7.9920
 2.7790	 8.0390
 2.7800	 8.0170
 2.7820	 7.9360
 2.7830	 7.9920
 2.7850	 7.8710
 2.7860	 7.7440
 2.7880	 7.8600
 2.7890	 7.8850
 2.7910	 7.9470
 2.7920	 8.0290
 2.7940	 7.7730
 2.7950	 7.9030
 2.7970	 8.0800
 2.7980	 8.0470
 2.8000	 7.8730
 2.8010	 7.8930
 2.8030	 8.0250
 2.8040	 8.1380
 2.8060	 8.0190
 2.8070	 8.0940
 2.8090	 8.2290
 2.8110	 8.1150
 2.8120	 7.9240
 2.8140	 8.0240
 2.8150	 8.0450
 2.8170	 8.0520
 2.8180	 7.8570
 2.8200	 7.8190
 2.8210	 7.9030
 2.8230	 8.1350
 2.8240	 8.0570
 2.8260	 7.9970
 2.8270	 7.9970
 2.8290	 8.0710
 2.8300	 8.1190
 2.8320	 8.1520
 2.8340	 8.1140
 2.8350	 8.1000
 2.8370	 8.0880
 2.8380	 8.1540
 2.8400	 8.0790
 2.8410	 8.0690
 2.8430	 8.0210
 2.8440	 8.0370
 2.8460	 8.0330
 2.8480	 8.0410
 2.8490	 7.9310
 2.8510	 7.9690
 2.8520	 8.0530
 2.8540	 8.2060
 2.8550	 8.1860
 2.8570	 8.0940
 2.8590	 7.9090
 2.8600	 7.9040
 2.8620	 7.8900
 2.8630	 7.9950
 2.8650	 8.1270
 2.8660	 8.0020
 2.8680	 7.8840
 2.8700	 8.1780
 2.8710	 8.2490
 2.8730	 8.2530
 2.8740	 8.0420
 2.8760	 8.0270
 2.8780	 7.9990
 2.8790	 8.1230
 2.8810	 8.2500
 2.8820	 8.3960
 2.8840	 8.3880
 2.8860	 8.1720
 2.8870	 8.0350
 2.8890	 8.0370
 2.8900	 8.0170
 2.8920	 8.1030
 2.8940	 7.9690
 2.8950	 8.0530
 2.8970	 8.1560
 2.8980	 8.1530
 2.9000	 8.0220
 2.9020	 8.1330
 2.9030	 8.2870
 2.9050	 8.1770
 2.9070	 7.9040
 2.9080	 8.0130
 2.9100	 8.0700
 2.9120	 7.9910
 2.9130	 7.7670
 2.9150	 7.7830
 2.9160	 8.0320
 2.9180	 8.1880
 2.9200	 8.2530
 2.9210	 8.2380
 2.9230	 8.1620
 2.9250	 8.2010
 2.9260	 8.0270
 2.9280	 8.0800
 2.9300	 8.1190
 2.9310	 8.0610
 2.9330	 8.0590
 2.9350	 8.3210
 2.9360	 8.2400
 2.9380	 8.1190
 2.9400	 8.1410
 2.9410	 8.3160
 2.9430	 8.1960
 2.9450	 7.9660
 2.9460	 7.9370
 2.9480	 7.9560
 2.9500	 8.0550
 2.9510	 8.1990
 2.9530	 7.9800
 2.9550	 8.1170
 2.9560	 8.2050
 2.9580	 8.4110
 2.9600	 8.2530
 2.9610	 7.9290
 2.9630	 7.9110
 2.9650	 7.9380
 2.9660	 8.1880
 2.9680	 8.1350
 2.9700	 7.9990
 2.9720	 8.3990
 2.9730	 8.7920
 2.9750	 9.4620
 2.9770	 8.9410
 2.9780	 8.1260
 2.9800	 8.1200
 2.9820	 8.4500
 2.9840	 8.1570
 2.9850	 8.1330
 2.9870	 8.2940
 2.9890	 8.6310
 2.9900	 8.8500
 2.9920	 8.6600
 2.9940	 8.5930
 2.9960	 8.8810
 2.9970	 9.1240
 2.9990	 8.4870
 3.0010	 7.8580
 3.0030	 7.8450
 3.0040	 8.0420
 3.0060	 8.1280
 3.0080	 8.0440
 3.0100	 7.9540
 3.0110	 7.4870
 3.0130	 7.7300
 3.0150	 7.5450
 3.0170	 7.8270
 3.0180	 8.3590
 3.0200	 8.4050
 3.0220	 8.5460
 3.0240	 8.3510
 3.0250	 7.8600
 3.0270	 7.5390
 3.0290	 8.7410
 3.0310	 9.3230
 3.0320	 9.1120
 3.0340	 8.4820
 3.0360	 8.3630
 3.0380	 8.8480
 3.0400	 8.1590
 3.0410	 7.1940
 3.0430	 7.5440
 3.0450	 7.7460
 3.0470	 7.2540
 3.0480	 7.6900
 3.0500	 7.3010
 3.0520	 6.3370
 3.0540	 7.1120
 3.0560	 8.5600
 3.0570	 8.4390
 3.0590	 7.5010
 3.0610	 7.1220
 3.0630	 7.8010
 3.0650	 7.9310
 3.0660	 7.9250
 3.0680	 7.8980
 3.0700	 7.9620
 3.0720	 8.3370
 3.0740	 8.5530
 3.0760	 8.5320
 3.0770	 8.1040
 3.0790	 7.8270
 3.0810	 8.0880
 3.0830	 8.0410
 3.0850	 7.9440
 3.0870	 7.8920
 3.0880	 7.5870
 3.0900	 7.5620
 3.0920	 7.7300
 3.0940	 7.5590
 3.0960	 7.9320
 3.0980	 8.3600
 3.0990	 8.5120
 3.1010	 8.1290
 3.1030	 7.8280
 3.1050	 8.0240
 3.1070	 8.1340
 3.1090	 8.1250
 3.1110	 8.0380
 3.1120	 7.6730
 3.1140	 7.6020
 3.1160	 7.6350
 3.1180	 7.8520
 3.1200	 8.0190
 3.1220	 8.1170
 3.1240	 7.9870
 3.1260	 7.9330
 3.1270	 8.0600
 3.1290	 8.2670
 3.1310	 8.0780
 3.1330	 8.1370
 3.1350	 8.2730
 3.1370	 8.1620
 3.1390	 7.4220
 3.1410	 7.4090
 3.1430	 8.6010
 3.1450	 8.6690
 3.1460	 8.1320
 3.1480	 8.0670
 3.1500	 8.0780
 3.1520	 7.9180
 3.1540	 7.9990
 3.1560	 8.3300
 3.1580	 7.9870
 3.1600	 7.2700
 3.1620	 7.3740
 3.1640	 7.8610
 3.1660	 8.1940
 3.1680	 7.7740
 3.1700	 8.1650
 3.1710	 8.6290
 3.1730	 7.9060
 3.1750	 8.6000
 3.1770	 8.4050
 3.1790	 7.9500
 3.1810	 8.0720
 3.1830	 8.0660
 3.1850	 8.1500
 3.1870	 7.9840
 3.1890	 8.0780
 3.1910	 7.7910
 3.1930	 7.7220
 3.1950	 8.1410
 3.1970	 8.1240
 3.1990	 7.8070
 3.2010	 7.6330
 3.2030	 7.7370
 3.2050	 7.9840
 3.2070	 7.8940
 3.2090	 7.7680
 3.2110	 7.7720
 3.2130	 7.7120
 3.2150	 7.7390
 3.2170	 7.8420
 3.2190	 7.8660
 3.2210	 7.8280
 3.2230	 7.8970
 3.2250	 7.9160
 3.2270	 7.8610
 3.2290	 7.7570
 3.2310	 7.7150
 3.2330	 7.7840
 3.2350	 7.8880
 3.2370	 7.8240
 3.2390	 7.7890
 3.2410	 7.7460
 3.2430	 7.6040
 3.2450	 7.5380
 3.2470	 7.7140
 3.2490	 7.6580
 3.2510	 7.7540
 3.2530	 7.7730
 3.2550	 7.7780
 3.2570	 7.9400
 3.2590	 8.0080
 3.2610	 7.8320
 3.2630	 7.7090
 3.2650	 7.6930
 3.2670	 7.8220
 3.2690	 7.8620
 3.2720	 7.7800
 3.2740	 7.7630
 3.2760	 7.8970
 3.2780	 7.8900
 3.2800	 7.7980
 3.2820	 7.7230
 3.2840	 7.7700
 3.2860	 7.7300
 3.2880	 7.7560
 3.2900	 7.7390
 3.2920	 7.8950
 3.2940	 8.0180
 3.2960	 7.8100
 3.2990	 7.6830
 3.3010	 7.7590
 3.3030	 7.7930
 3.3050	 7.8160
 3.3070	 7.6710
 3.3090	 7.5550
 3.3110	 7.5730
 3.3130	 7.6250
 3.3150	 7.6310
 3.3180	 7.6860
 3.3200	 7.7040
 3.3220	 7.5650
 3.3240	 7.4970
 3.3260	 7.6460
 3.3280	 7.6400
 3.3300	 7.6970
 3.3330	 7.6630
 3.3350	 7.6040
 3.3370	 7.5760
 3.3390	 7.4710
 3.3410	 7.4810
 3.3430	 7.6070
 3.3450	 7.5090
 3.3480	 7.4600
 3.3500	 7.5220
 3.3520	 7.6440
 3.3540	 7.6130
 3.3560	 7.4660
 3.3580	 7.3800
 3.3610	 7.4790
 3.3630	 7.5930
 3.3650	 7.5080
 3.3670	 7.4040
 3.3690	 7.4940
 3.3720	 7.5420
 3.3740	 7.5450
 3.3760	 7.5240
 3.3780	 7.6120
 3.3800	 7.6740
 3.3830	 7.7280
 3.3850	 7.6670
 3.3870	 7.6630
 3.3890	 7.8520
 3.3910	 7.8860
 3.3940	 7.7470
 3.3960	 7.6570
 3.3980	 7.6000
 3.4000	 7.7560
 3.4020	 7.8730
 3.4050	 7.8910
 3.4070	 7.9310
 3.4090	 8.0470
 3.4110	 7.9760
 3.4140	 7.9160
 3.4160	 7.9020
 3.4180	 8.0960
 3.4200	 8.2120
 3.4230	 8.1820
 3.4250	 8.1890
 3.4270	 8.2890
 3.4290	 8.3780
 3.4320	 8.3980
 3.4340	 8.3110
 3.4360	 8.2270
 3.4390	 8.1180
 3.4410	 8.0920
 3.4430	 8.0810
 3.4450	 8.1040
 3.4480	 8.1630
 3.4500	 8.2430
 3.4520	 8.1270
 3.4550	 8.1030
 3.4570	 8.1440
 3.4590	 8.1360
 3.4620	 8.1720
 3.4640	 8.2170
 3.4660	 8.1420
 3.4680	 8.1060
 3.4710	 8.0820
 3.4730	 8.0500
 3.4750	 8.0360
 3.4780	 8.1010
 3.4800	 8.1480
 3.4820	 8.0380
 3.4850	 7.9570
 3.4870	 8.0350
 3.4890	 8.0300
 3.4920	 8.0730
 3.4940	 8.0710
 3.4970	 8.1030
 3.4990	 8.1520
 3.5010	 8.2330
 3.5040	 8.3070
 3.5060	 8.3170
 3.5080	 8.4190
 3.5110	 8.6410
 3.5130	 8.5850
 3.5160	 8.4810
 3.5180	 8.4810
 3.5200	 8.4110
 3.5230	 8.2350
 3.5250	 8.1680
 3.5270	 8.0500
 3.5300	 8.0670
 3.5320	 8.2440
 3.5350	 8.2800
 3.5370	 8.2130
 3.5400	 8.2080
 3.5420	 8.2020
 3.5440	 8.2340
 3.5470	 8.2830
 3.5490	 8.2000
 3.5520	 8.0460
 3.5540	 8.1610
 3.5570	 8.1640
 3.5590	 8.1770
 3.5610	 8.2310
 3.5640	 8.1800
 3.5660	 8.1110
 3.5690	 8.2110
 3.5710	 8.2190
 3.5740	 8.0900
 3.5760	 8.0770
 3.5790	 8.1190
 3.5810	 8.0760
 3.5840	 8.0670
 3.5860	 8.0690
 3.5890	 8.1550
 3.5910	 8.1220
 3.5930	 8.1640
 3.5960	 8.2350
 3.5980	 8.1480
 3.6010	 8.2050
 3.6030	 8.2950
 3.6060	 8.3070
 3.6080	 8.2990
 3.6110	 8.2130
 3.6140	 8.1890
 3.6160	 8.2360
 3.6190	 8.1870
 3.6210	 8.1390
 3.6240	 8.2140
 3.6260	 8.2770
 3.6290	 8.1230
 3.6310	 8.0680
 3.6340	 8.2400
 3.6360	 8.2790
 3.6390	 8.2500
 3.6410	 8.1840
 3.6440	 8.1750
 3.6470	 8.1980
 3.6490	 8.2460
 3.6520	 8.2740
 3.6540	 8.3430
 3.6570	 8.3060
 3.6590	 8.2380
 3.6620	 8.1830
 3.6650	 8.1720
 3.6670	 8.1600
 3.6700	 8.2730
 3.6720	 8.3030
 3.6750	 8.2830
 3.6780	 8.2900
 3.6800	 8.2740
 3.6830	 8.2270
 3.6850	 8.2570
 3.6880	 8.2800
 3.6910	 8.2750
 3.6930	 8.2590
 3.6960	 8.2510
 3.6990	 8.2900
 3.7010	 8.3560
 3.7040	 8.2990
 3.7060	 8.2770
 3.7090	 8.2490
 3.7120	 8.2090
 3.7140	 8.2340
 3.7170	 8.3180
 3.7200	 8.3420
 3.7220	 8.2680
 3.7250	 8.2590
 3.7280	 8.3020
 3.7300	 8.2590
 3.7330	 8.2490
 3.7360	 8.3050
 3.7390	 8.3360
 3.7410	 8.2930
 3.7440	 8.2800
 3.7470	 8.1970
 3.7490	 8.2320
 3.7520	 8.2710
 3.7550	 8.3340
 3.7580	 8.2820
 3.7600	 8.3030
 3.7630	 8.4460
 3.7660	 8.4720
 3.7680	 8.4470
 3.7710	 8.3880
 3.7740	 8.3590
 3.7770	 8.4320
 3.7790	 8.4020
 3.7820	 8.4200
 3.7850	 8.3470
 3.7880	 8.3290
 3.7900	 8.3300
 3.7930	 8.3170
 3.7960	 8.2780
 3.7990	 8.3030
 3.8020	 8.3640
 3.8040	 8.3060
 3.8070	 8.2830
 3.8100	 8.3220
 3.8130	 8.3030
 3.8160	 8.3740
 3.8180	 8.4190
 3.8210	 8.4180
 3.8240	 8.4070
 3.8270	 8.3860
 3.8300	 8.3620
 3.8330	 8.3440
 3.8350	 8.3840
 3.8380	 8.4290
 3.8410	 8.3900
 3.8440	 8.4100
 3.8470	 8.3620
 3.8500	 8.3070
 3.8520	 8.3160
 3.8550	 8.3520
 3.8580	 8.4370
 3.8610	 8.4690
 3.8640	 8.4360
 3.8670	 8.4260
 3.8700	 8.3620
 3.8730	 8.3800
 3.8750	 8.4510
 3.8780	 8.4470
 3.8810	 8.3990
 3.8840	 8.4210
 3.8870	 8.4210
 3.8900	 8.4290
 3.8930	 8.3570
 3.8960	 8.4320
 3.8990	 8.5030
 3.9020	 8.5450
 3.9050	 8.4830
 3.9080	 8.3840
 3.9110	 8.3460
 3.9140	 8.3390
 3.9160	 8.3510
 3.9190	 8.3500
 3.9220	 8.2980
 3.9250	 8.3290
 3.9280	 8.4350
 3.9310	 8.4880
 3.9340	 8.4700
 3.9370	 8.4990
 3.9400	 8.4620
 3.9430	 8.4290
 3.9460	 8.4110
 3.9490	 8.3940
 3.9520	 8.3640
 3.9550	 8.4320
 3.9580	 8.5200
 3.9610	 8.5250
 3.9640	 8.4170
 3.9670	 8.4370
 3.9700	 8.4210
 3.9730	 8.4320
 3.9770	 8.4100
 3.9800	 8.3310
 3.9830	 8.3460
 3.9860	 8.3860
 3.9890	 8.4010
 3.9920	 8.4050
 3.9950	 8.3950
 3.9980	 8.4430
 4.0010	 8.4130
 4.0040	 8.3910
 4.0070	 8.3680
 4.0100	 8.3670
 4.0130	 8.4330
 4.0170	 8.4300
 4.0200	 8.4120
 4.0230	 8.4180
 4.0260	 8.4660
 4.0290	 8.4800
 4.0320	 8.4660
 4.0350	 8.4270
 4.0380	 8.3820
 4.0420	 8.3870
 4.0450	 8.3920
 4.0480	 8.4050
 4.0510	 8.3910
 4.0540	 8.3520
 4.0570	 8.4250
 4.0610	 8.4470
 4.0640	 8.3580
 4.0670	 8.3570
 4.0700	 8.4250
 4.0730	 8.4560
 4.0770	 8.3820
 4.0800	 8.3830
 4.0830	 8.4010
 4.0860	 8.4670
 4.0890	 8.5230
 4.0930	 8.4410
 4.0960	 8.2940
 4.0990	 8.2850
 4.1020	 8.3350
 4.1060	 8.3030
 4.1090	 8.3420
 4.1120	 8.4290
 4.1150	 8.3790
 4.1190	 8.3450
 4.1220	 8.2980
 4.1250	 8.2530
 4.1280	 8.3080
 4.1320	 8.3610
 4.1350	 8.3310
 4.1380	 8.3470
 4.1420	 8.4110
 4.1450	 8.3560
 4.1480	 8.2570
 4.1520	 8.3860
 4.1550	 8.4330
 4.1580	 8.3370
 4.1620	 8.2730
 4.1650	 8.2780
 4.1680	 8.3350
 4.1720	 8.3400
 4.1750	 8.3290
 4.1780	 8.3430
 4.1820	 8.3260
 4.1850	 8.4020
 4.1890	 8.3570
 4.1920	 8.2300
 4.1950	 8.1730
 4.1990	 8.1140
 4.2020	 8.0260
 4.2060	 7.8500
 4.2090	 7.7280
 4.2120	 7.5750
 4.2160	 7.4660
 4.2190	 7.4930
 4.2230	 7.2020
 4.2260	 7.1440
 4.2300	 7.2840
 4.2330	 7.0290
 4.2360	 6.8400
 4.2400	 6.8910
 4.2430	 6.9420
 4.2470	 7.0370
 4.2500	 7.3060
 4.2540	 7.4480
 4.2570	 7.6030
 4.2610	 7.6280
 4.2640	 7.1680
 4.2680	 6.9530
 4.2710	 7.0460
 4.2750	 7.1310
 4.2780	 7.3730
 4.2820	 7.3750
 4.2850	 7.2690
 4.2890	 7.4050
 4.2930	 7.5420
 4.2960	 7.5520
 4.3000	 7.5540
 4.3030	 7.4360
 4.3070	 7.2990
 4.3100	 7.4630
 4.3140	 7.6890
 4.3180	 7.7370
 4.3210	 7.6240
 4.3250	 7.6800
 4.3280	 7.7220
 4.3320	 7.7140
 4.3360	 7.8360
 4.3390	 7.9130
 4.3430	 7.9390
 4.3470	 7.9090
 4.3500	 7.9580
 4.3540	 8.0470
 4.3570	 8.0400
 4.3610	 8.0840
 4.3650	 8.1040
 4.3680	 8.1470
 4.3720	 8.1470
 4.3760	 8.1460
 4.3800	 8.2050
 4.3830	 8.1590
 4.3870	 8.0680
 4.3910	 8.0870
 4.3940	 8.1200
 4.3980	 8.1360
 4.4020	 8.1910
 4.4060	 8.1820
 4.4090	 8.2030
 4.4130	 8.1750
 4.4170	 8.1120
 4.4210	 8.1860
 4.4240	 8.2480
 4.4280	 8.2660
 4.4320	 8.3160
 4.4360	 8.2490
 4.4400	 8.2220
 4.4430	 8.2290
 4.4470	 8.1720
 4.4510	 8.1900
 4.4550	 8.1750
 4.4590	 8.1490
 4.4620	 8.1640
 4.4660	 8.2160
 4.4700	 8.2510
 4.4740	 8.2000
 4.4780	 8.1180
 4.4820	 8.1030
 4.4860	 8.1410
 4.4900	 8.1860
 4.4930	 8.1530
 4.4970	 8.1260
 4.5010	 8.1270
 4.5050	 8.0960
 4.5090	 8.0650
 4.5130	 8.1570
 4.5170	 8.2170
 4.5210	 8.1940
 4.5250	 8.2120
 4.5290	 8.1860
 4.5330	 8.1780
 4.5370	 8.1330
 4.5410	 8.0940
 4.5450	 8.1130
 4.5490	 8.1080
 4.5530	 8.0600
 4.5570	 8.0270
 4.5610	 8.0580
 4.5650	 8.0690
 4.5690	 8.0890
 4.5730	 8.0880
 4.5770	 8.0490
 4.5810	 8.0680
 4.5850	 8.2130
 4.5890	 8.2850
 4.5930	 8.2100
 4.5970	 8.1520
 4.6010	 8.0630
 4.6050	 8.0150
 4.6090	 7.9900
 4.6130	 7.9690
 4.6170	 8.0910
 4.6220	 8.1530
 4.6260	 8.1870
 4.6300	 8.1470
 4.6340	 8.0230
 4.6380	 7.9190
 4.6420	 7.8850
 4.6460	 7.9850
 4.6510	 8.0790
 4.6550	 8.1410
 4.6590	 8.1920
 4.6630	 8.1370
 4.6670	 8.0300
 4.6720	 8.0680
 4.6760	 8.1530
 4.6800	 8.1340
 4.6840	 8.0900
 4.6880	 8.0900
 4.6930	 8.1140
 4.6970	 8.1650
 4.7010	 8.1740
 4.7050	 8.1400
 4.7100	 8.1530
 4.7140	 8.1450
 4.7180	 8.0830
 4.7230	 8.0960
 4.7270	 8.1980
 4.7310	 8.2270
 4.7360	 8.1210
 4.7400	 8.1480
 4.7440	 8.1620
 4.7490	 8.1070
 4.7530	 8.1320
 4.7570	 8.1150
 4.7620	 8.0480
 4.7660	 8.0790
 4.7700	 8.0770
 4.7750	 8.0530
 4.7790	 8.0150
 4.7840	 7.9930
 4.7880	 8.0630
 4.7920	 8.1030
 4.7970	 8.1060
 4.8010	 8.0950
 4.8060	 8.0780
 4.8100	 8.1010
 4.8150	 8.0940
 4.8190	 8.1030
 4.8240	 8.1020
 4.8280	 8.0580
 4.8330	 8.0840
 4.8370	 8.1090
 4.8420	 8.0710
 4.8460	 8.1310
 4.8510	 8.1060
 4.8550	 8.0800
 4.8600	 8.0880
 4.8640	 8.1200
 4.8690	 8.0760
 4.8730	 8.1160
 4.8780	 8.1800
 4.8830	 8.1250
 4.8870	 8.1000
 4.8920	 8.1370
 4.8960	 8.0840
 4.9010	 8.0690
 4.9060	 8.1180
 4.9100	 8.1800
 4.9150	 8.1680
 4.9200	 8.1540
 4.9240	 8.1320
 4.9290	 8.1410
 4.9340	 8.1950
 4.9380	 8.2040
 4.9430	 8.1310
 4.9480	 8.1290
 4.9530	 8.1010
 4.9570	 8.0850
 4.9620	 8.0850
 4.9670	 8.0920
 4.9720	 8.1360
 4.9760	 8.1910
 4.9810	 8.1840
 4.9860	 8.1290
 4.9910	 8.1580
 4.9960	 8.2520
 5.0000	 8.1880
 5.0050	 8.1800
 5.0100	 8.2000
 5.0150	 8.1370
 5.0200	 8.0830
 5.0250	 8.0940
 5.0290	 8.1940
 5.0340	 8.1840
 5.0390	 8.1250
 5.0440	 8.1740
 5.0490	 8.1810
 5.0540	 8.1420
 5.0590	 8.0980
 5.0640	 8.1160
 5.0690	 8.0860
 5.0740	 8.1310
 5.0790	 8.1590
 5.0840	 8.2180
 5.0890	 8.2800
 5.0940	 8.2700
 5.0990	 8.2550
 5.1040	 8.2390
 5.1090	 8.1960
 5.1140	 8.1760
 5.1190	 8.1920
 5.1240	 8.2280
 5.1290	 8.2050
 5.1340	 8.1750
 5.1390	 8.1710
 5.1440	 8.1930
 5.1490	 8.1980
 5.1540	 8.2590
 5.1600	 8.2090
 5.1650	 8.2460
 5.1700	 8.2470
 5.1750	 8.1980
 5.1800	 8.2170
 5.1850	 8.2380
 5.1910	 8.2290
 5.1960	 8.2200
 5.2010	 8.1390
 5.2060	 8.1160
 5.2110	 8.0970
 5.2170	 8.1330
 5.2220	 8.1320
 5.2270	 8.1550
 5.2320	 8.1680
 5.2380	 8.1430
 5.2430	 8.1470
 5.2480	 8.1970
 5.2540	 8.1100
 5.2590	 8.0610
 5.2640	 8.0980
 5.2700	 8.1190
 5.2750	 8.1320
 5.2800	 8.1870
 5.2860	 8.1470
 5.2910	 8.1480
 5.2970	 8.1900
 5.3020	 8.2230
 5.3070	 8.2270
 5.3130	 8.2410
 5.3180	 8.2340
 5.3240	 8.2750
 5.3290	 8.2420
 5.3350	 8.2520
 5.3400	 8.1990
 5.3460	 8.2120
 5.3510	 8.1520
 5.3570	 8.1150
 5.3620	 8.1210
 5.3680	 8.1300
 5.3730	 8.0930
 5.3790	 8.1230
 5.3850	 8.1330
 5.3900	 8.1500
 5.3960	 8.1260
 5.4010	 8.1060
 5.4070	 8.0680
 5.4130	 8.0580
 5.4180	 8.0180
 5.4240	 7.9910
 5.4300	 7.9980
 5.4350	 8.0190
