Name: Pinus lambertiana 1
Type: vegetation
Class: Tree
Genus: Pinus
Species: lambertiana
Sample No.: VH244
Owner: UCSB
Wavelength Range: VSWIR
Origin: 37.043; -119.3043; WGS84
Collection Date: 11/2/2013
Description: Samples were collected as part of the HyspIRI Airborne Campaign. 48 individual plants were sampled in three times in 2013 - spring  summer  and fall. The name of the sample includes a 1  2  or 3 which references a different individual of the species. Samples were taken to JPL and processed within 48 hours of collection. The same leaves were processed in the Nicolet and then measured using the ASD.
Measurement: Bidirectional reflectance
First Column: X
Second Column: Y
X Units: Wavelength (micrometers)
Y Units: Reflectance (percentage)
First X Value: 0.35
Last X Value: 2.5
Number of X Values: 2151
Additional Information: vegetation.tree.pinus.lambertiana.vswir.vh244.ucsb.asd.ancillary.txt

 0.3500	 5.8210
 0.3510	 5.6750
 0.3520	 5.6740
 0.3530	 5.5860
 0.3540	 5.3150
 0.3550	 5.4350
 0.3560	 5.5030
 0.3570	 5.4420
 0.3580	 5.3770
 0.3590	 5.3540
 0.3600	 5.3450
 0.3610	 5.3320
 0.3620	 5.3290
 0.3630	 5.3690
 0.3640	 5.3700
 0.3650	 5.2840
 0.3660	 5.2780
 0.3670	 5.2910
 0.3680	 5.2930
 0.3690	 5.2750
 0.3700	 5.2560
 0.3710	 5.2690
 0.3720	 5.3130
 0.3730	 5.3080
 0.3740	 5.3000
 0.3750	 5.2650
 0.3760	 5.1850
 0.3770	 5.1840
 0.3780	 5.2130
 0.3790	 5.2200
 0.3800	 5.1690
 0.3810	 5.1690
 0.3820	 5.1740
 0.3830	 5.1590
 0.3840	 5.2170
 0.3850	 5.2230
 0.3860	 5.1850
 0.3870	 5.1590
 0.3880	 5.1520
 0.3890	 5.1250
 0.3900	 5.0950
 0.3910	 5.1360
 0.3920	 5.1300
 0.3930	 5.1150
 0.3940	 5.1280
 0.3950	 5.1120
 0.3960	 5.1210
 0.3970	 5.1380
 0.3980	 5.1150
 0.3990	 5.0810
 0.4000	 5.0580
 0.4010	 5.0590
 0.4020	 5.0870
 0.4030	 5.0930
 0.4040	 5.0870
 0.4050	 5.0930
 0.4060	 5.1180
 0.4070	 5.1430
 0.4080	 5.1610
 0.4090	 5.1700
 0.4100	 5.1840
 0.4110	 5.2030
 0.4120	 5.2300
 0.4130	 5.2700
 0.4140	 5.2940
 0.4150	 5.3230
 0.4160	 5.3810
 0.4170	 5.4170
 0.4180	 5.4480
 0.4190	 5.4840
 0.4200	 5.5230
 0.4210	 5.5630
 0.4220	 5.6110
 0.4230	 5.6650
 0.4240	 5.7060
 0.4250	 5.7440
 0.4260	 5.7800
 0.4270	 5.8130
 0.4280	 5.8650
 0.4290	 5.9040
 0.4300	 5.9250
 0.4310	 5.9670
 0.4320	 5.9980
 0.4330	 6.0150
 0.4340	 6.0250
 0.4350	 6.0450
 0.4360	 6.0800
 0.4370	 6.1190
 0.4380	 6.1440
 0.4390	 6.1650
 0.4400	 6.1870
 0.4410	 6.2100
 0.4420	 6.2320
 0.4430	 6.2440
 0.4440	 6.2550
 0.4450	 6.2740
 0.4460	 6.2890
 0.4470	 6.3120
 0.4480	 6.3410
 0.4490	 6.3510
 0.4500	 6.3570
 0.4510	 6.3700
 0.4520	 6.3890
 0.4530	 6.3980
 0.4540	 6.4050
 0.4550	 6.4090
 0.4560	 6.4110
 0.4570	 6.4390
 0.4580	 6.4570
 0.4590	 6.4500
 0.4600	 6.4570
 0.4610	 6.4650
 0.4620	 6.4660
 0.4630	 6.4590
 0.4640	 6.4730
 0.4650	 6.4790
 0.4660	 6.4700
 0.4670	 6.4680
 0.4680	 6.4780
 0.4690	 6.4850
 0.4700	 6.4780
 0.4710	 6.4790
 0.4720	 6.4830
 0.4730	 6.4850
 0.4740	 6.4810
 0.4750	 6.4840
 0.4760	 6.4850
 0.4770	 6.4820
 0.4780	 6.4850
 0.4790	 6.4800
 0.4800	 6.4720
 0.4810	 6.4700
 0.4820	 6.4780
 0.4830	 6.4860
 0.4840	 6.4910
 0.4850	 6.4970
 0.4860	 6.4960
 0.4870	 6.4990
 0.4880	 6.5120
 0.4890	 6.5230
 0.4900	 6.5370
 0.4910	 6.5530
 0.4920	 6.5640
 0.4930	 6.5880
 0.4940	 6.6200
 0.4950	 6.6510
 0.4960	 6.6830
 0.4970	 6.7150
 0.4980	 6.7540
 0.4990	 6.8050
 0.5000	 6.8610
 0.5010	 6.9180
 0.5020	 6.9800
 0.5030	 7.0580
 0.5040	 7.1410
 0.5050	 7.2280
 0.5060	 7.3240
 0.5070	 7.4360
 0.5080	 7.5550
 0.5090	 7.6860
 0.5100	 7.8390
 0.5110	 8.0000
 0.5120	 8.1660
 0.5130	 8.3420
 0.5140	 8.5510
 0.5150	 8.7650
 0.5160	 8.9840
 0.5170	 9.2150
 0.5180	 9.4540
 0.5190	 9.7030
 0.5200	 9.9600
 0.5210	10.2220
 0.5220	10.4790
 0.5230	10.7370
 0.5240	10.9980
 0.5250	11.2440
 0.5260	11.4850
 0.5270	11.7170
 0.5280	11.9350
 0.5290	12.1460
 0.5300	12.3430
 0.5310	12.5240
 0.5320	12.6940
 0.5330	12.8490
 0.5340	12.9900
 0.5350	13.1220
 0.5360	13.2420
 0.5370	13.3500
 0.5380	13.4460
 0.5390	13.5310
 0.5400	13.6110
 0.5410	13.6830
 0.5420	13.7480
 0.5430	13.8120
 0.5440	13.8780
 0.5450	13.9440
 0.5460	14.0070
 0.5470	14.0740
 0.5480	14.1380
 0.5490	14.1930
 0.5500	14.2350
 0.5510	14.2670
 0.5520	14.2910
 0.5530	14.3080
 0.5540	14.3100
 0.5550	14.2930
 0.5560	14.2580
 0.5570	14.2100
 0.5580	14.1460
 0.5590	14.0710
 0.5600	13.9880
 0.5610	13.8920
 0.5620	13.7900
 0.5630	13.6810
 0.5640	13.5660
 0.5650	13.4350
 0.5660	13.2980
 0.5670	13.1610
 0.5680	13.0240
 0.5690	12.8810
 0.5700	12.7300
 0.5710	12.5760
 0.5720	12.4330
 0.5730	12.2970
 0.5740	12.1660
 0.5750	12.0350
 0.5760	11.9040
 0.5770	11.7770
 0.5780	11.6610
 0.5790	11.5520
 0.5800	11.4520
 0.5810	11.3610
 0.5820	11.2820
 0.5830	11.2020
 0.5840	11.1220
 0.5850	11.0450
 0.5860	10.9750
 0.5870	10.9180
 0.5880	10.8650
 0.5890	10.8060
 0.5900	10.7420
 0.5910	10.6860
 0.5920	10.6420
 0.5930	10.6050
 0.5940	10.5680
 0.5950	10.5410
 0.5960	10.5240
 0.5970	10.4950
 0.5980	10.4630
 0.5990	10.4270
 0.6000	10.3830
 0.6010	10.3410
 0.6020	10.2950
 0.6030	10.2420
 0.6040	10.1800
 0.6050	10.1210
 0.6060	10.0570
 0.6070	 9.9840
 0.6080	 9.9090
 0.6090	 9.8240
 0.6100	 9.7300
 0.6110	 9.6340
 0.6120	 9.5510
 0.6130	 9.4740
 0.6140	 9.3980
 0.6150	 9.3180
 0.6160	 9.2430
 0.6170	 9.1740
 0.6180	 9.1090
 0.6190	 9.0450
 0.6200	 8.9890
 0.6210	 8.9430
 0.6220	 8.9030
 0.6230	 8.8690
 0.6240	 8.8390
 0.6250	 8.8150
 0.6260	 8.8010
 0.6270	 8.7850
 0.6280	 8.7700
 0.6290	 8.7630
 0.6300	 8.7590
 0.6310	 8.7510
 0.6320	 8.7360
 0.6330	 8.7150
 0.6340	 8.6900
 0.6350	 8.6550
 0.6360	 8.6040
 0.6370	 8.5410
 0.6380	 8.4700
 0.6390	 8.3890
 0.6400	 8.2940
 0.6410	 8.1970
 0.6420	 8.0960
 0.6430	 7.9900
 0.6440	 7.8810
 0.6450	 7.7740
 0.6460	 7.6720
 0.6470	 7.5740
 0.6480	 7.4860
 0.6490	 7.4060
 0.6500	 7.3370
 0.6510	 7.2830
 0.6520	 7.2290
 0.6530	 7.1810
 0.6540	 7.1390
 0.6550	 7.0870
 0.6560	 7.0340
 0.6570	 6.9760
 0.6580	 6.9050
 0.6590	 6.8360
 0.6600	 6.7610
 0.6610	 6.6820
 0.6620	 6.6060
 0.6630	 6.5320
 0.6640	 6.4610
 0.6650	 6.3970
 0.6660	 6.3400
 0.6670	 6.2920
 0.6680	 6.2520
 0.6690	 6.2190
 0.6700	 6.1950
 0.6710	 6.1780
 0.6720	 6.1670
 0.6730	 6.1630
 0.6740	 6.1670
 0.6750	 6.1740
 0.6760	 6.1800
 0.6770	 6.1970
 0.6780	 6.2180
 0.6790	 6.2460
 0.6800	 6.2850
 0.6810	 6.3290
 0.6820	 6.3860
 0.6830	 6.4610
 0.6840	 6.5570
 0.6850	 6.6790
 0.6860	 6.8320
 0.6870	 7.0250
 0.6880	 7.2650
 0.6890	 7.5690
 0.6900	 7.9390
 0.6910	 8.3700
 0.6920	 8.8780
 0.6930	 9.4580
 0.6940	10.1060
 0.6950	10.8190
 0.6960	11.5900
 0.6970	12.4120
 0.6980	13.2760
 0.6990	14.1770
 0.7000	15.1100
 0.7010	16.0670
 0.7020	17.0430
 0.7030	18.0250
 0.7040	19.0120
 0.7050	20.0020
 0.7060	20.9880
 0.7070	21.9660
 0.7080	22.9400
 0.7090	23.9150
 0.7100	24.8730
 0.7110	25.8300
 0.7120	26.7890
 0.7130	27.7280
 0.7140	28.6520
 0.7150	29.5730
 0.7160	30.4910
 0.7170	31.3830
 0.7180	32.2600
 0.7190	33.1260
 0.7200	33.9780
 0.7210	34.8100
 0.7220	35.6290
 0.7230	36.4270
 0.7240	37.1880
 0.7250	37.9330
 0.7260	38.6520
 0.7270	39.3360
 0.7280	39.9900
 0.7290	40.6110
 0.7300	41.2030
 0.7310	41.7680
 0.7320	42.3180
 0.7330	42.8300
 0.7340	43.3030
 0.7350	43.7610
 0.7360	44.1830
 0.7370	44.5810
 0.7380	44.9640
 0.7390	45.3200
 0.7400	45.6550
 0.7410	45.9690
 0.7420	46.2600
 0.7430	46.5270
 0.7440	46.7770
 0.7450	47.0110
 0.7460	47.2260
 0.7470	47.4200
 0.7480	47.5940
 0.7490	47.7500
 0.7500	47.9010
 0.7510	48.0410
 0.7520	48.1690
 0.7530	48.2830
 0.7540	48.3810
 0.7550	48.4740
 0.7560	48.5600
 0.7570	48.6320
 0.7580	48.6980
 0.7590	48.7610
 0.7600	48.8200
 0.7610	48.8700
 0.7620	48.9190
 0.7630	48.9630
 0.7640	48.9970
 0.7650	49.0230
 0.7660	49.0450
 0.7670	49.0690
 0.7680	49.1020
 0.7690	49.1340
 0.7700	49.1540
 0.7710	49.1640
 0.7720	49.1870
 0.7730	49.1910
 0.7740	49.1990
 0.7750	49.2270
 0.7760	49.2360
 0.7770	49.2510
 0.7780	49.2670
 0.7790	49.2710
 0.7800	49.2860
 0.7810	49.2950
 0.7820	49.2960
 0.7830	49.3070
 0.7840	49.3280
 0.7850	49.3520
 0.7860	49.3710
 0.7870	49.3760
 0.7880	49.3880
 0.7890	49.3980
 0.7900	49.3940
 0.7910	49.4190
 0.7920	49.4480
 0.7930	49.4600
 0.7940	49.4490
 0.7950	49.4640
 0.7960	49.4820
 0.7970	49.4920
 0.7980	49.5090
 0.7990	49.5170
 0.8000	49.5240
 0.8010	49.5370
 0.8020	49.5520
 0.8030	49.5700
 0.8040	49.5860
 0.8050	49.5970
 0.8060	49.6020
 0.8070	49.6200
 0.8080	49.6440
 0.8090	49.6550
 0.8100	49.6690
 0.8110	49.6770
 0.8120	49.6780
 0.8130	49.6930
 0.8140	49.7030
 0.8150	49.7080
 0.8160	49.7150
 0.8170	49.7460
 0.8180	49.7700
 0.8190	49.7840
 0.8200	49.7940
 0.8210	49.7910
 0.8220	49.8030
 0.8230	49.8280
 0.8240	49.8370
 0.8250	49.8410
 0.8260	49.8530
 0.8270	49.8700
 0.8280	49.8710
 0.8290	49.8800
 0.8300	49.8890
 0.8310	49.8880
 0.8320	49.8810
 0.8330	49.8820
 0.8340	49.8920
 0.8350	49.9020
 0.8360	49.9140
 0.8370	49.9260
 0.8380	49.9380
 0.8390	49.9490
 0.8400	49.9720
 0.8410	49.9910
 0.8420	50.0000
 0.8430	50.0090
 0.8440	50.0160
 0.8450	50.0310
 0.8460	50.0540
 0.8470	50.0600
 0.8480	50.0730
 0.8490	50.0960
 0.8500	50.1200
 0.8510	50.1230
 0.8520	50.1360
 0.8530	50.1510
 0.8540	50.1470
 0.8550	50.1690
 0.8560	50.1920
 0.8570	50.2000
 0.8580	50.1940
 0.8590	50.2000
 0.8600	50.2100
 0.8610	50.2190
 0.8620	50.2320
 0.8630	50.2370
 0.8640	50.2360
 0.8650	50.2360
 0.8660	50.2440
 0.8670	50.2660
 0.8680	50.2800
 0.8690	50.2690
 0.8700	50.2790
 0.8710	50.2950
 0.8720	50.3030
 0.8730	50.2930
 0.8740	50.3130
 0.8750	50.3230
 0.8760	50.3150
 0.8770	50.3130
 0.8780	50.3090
 0.8790	50.3090
 0.8800	50.3150
 0.8810	50.3200
 0.8820	50.3110
 0.8830	50.3080
 0.8840	50.3180
 0.8850	50.3180
 0.8860	50.3110
 0.8870	50.3000
 0.8880	50.2880
 0.8890	50.3010
 0.8900	50.3160
 0.8910	50.3180
 0.8920	50.3010
 0.8930	50.2810
 0.8940	50.2650
 0.8950	50.2610
 0.8960	50.2730
 0.8970	50.2580
 0.8980	50.2370
 0.8990	50.2280
 0.9000	50.2420
 0.9010	50.2360
 0.9020	50.2310
 0.9030	50.2310
 0.9040	50.2100
 0.9050	50.1970
 0.9060	50.1880
 0.9070	50.1780
 0.9080	50.1710
 0.9090	50.1580
 0.9100	50.1450
 0.9110	50.1350
 0.9120	50.1350
 0.9130	50.1250
 0.9140	50.1070
 0.9150	50.0910
 0.9160	50.0950
 0.9170	50.0810
 0.9180	50.0570
 0.9190	50.0430
 0.9200	50.0300
 0.9210	50.0250
 0.9220	50.0110
 0.9230	49.9690
 0.9240	49.9250
 0.9250	49.9010
 0.9260	49.8950
 0.9270	49.8850
 0.9280	49.8420
 0.9290	49.7960
 0.9300	49.7600
 0.9310	49.7220
 0.9320	49.6770
 0.9330	49.6400
 0.9340	49.6050
 0.9350	49.5450
 0.9360	49.4940
 0.9370	49.4450
 0.9380	49.3920
 0.9390	49.3330
 0.9400	49.2810
 0.9410	49.2300
 0.9420	49.1710
 0.9430	49.1030
 0.9440	49.0260
 0.9450	48.9430
 0.9460	48.8570
 0.9470	48.7780
 0.9480	48.6780
 0.9490	48.5760
 0.9500	48.4840
 0.9510	48.3690
 0.9520	48.2420
 0.9530	48.1160
 0.9540	47.9960
 0.9550	47.8610
 0.9560	47.7400
 0.9570	47.6260
 0.9580	47.5110
 0.9590	47.4160
 0.9600	47.3150
 0.9610	47.2130
 0.9620	47.1270
 0.9630	47.0590
 0.9640	46.9990
 0.9650	46.9510
 0.9660	46.9210
 0.9670	46.8910
 0.9680	46.8570
 0.9690	46.8230
 0.9700	46.7970
 0.9710	46.7960
 0.9720	46.7930
 0.9730	46.7830
 0.9740	46.7770
 0.9750	46.7730
 0.9760	46.7580
 0.9770	46.7400
 0.9780	46.7370
 0.9790	46.7680
 0.9800	46.7900
 0.9810	46.8060
 0.9820	46.8360
 0.9830	46.8580
 0.9840	46.8680
 0.9850	46.8900
 0.9860	46.9450
 0.9870	47.0070
 0.9880	47.0380
 0.9890	47.0550
 0.9900	47.1010
 0.9910	47.1730
 0.9920	47.2280
 0.9930	47.2660
 0.9940	47.3130
 0.9950	47.3860
 0.9960	47.4450
 0.9970	47.5010
 0.9980	47.5700
 0.9990	47.5940
 1.0000	47.8140
 1.0010	48.1440
 1.0020	48.3610
 1.0030	48.4170
 1.0040	48.4690
 1.0050	48.5260
 1.0060	48.5890
 1.0070	48.6470
 1.0080	48.7070
 1.0090	48.7700
 1.0100	48.8260
 1.0110	48.8740
 1.0120	48.9310
 1.0130	48.9860
 1.0140	49.0440
 1.0150	49.1080
 1.0160	49.1680
 1.0170	49.2260
 1.0180	49.2820
 1.0190	49.3330
 1.0200	49.3850
 1.0210	49.4360
 1.0220	49.4880
 1.0230	49.5410
 1.0240	49.5990
 1.0250	49.6500
 1.0260	49.6960
 1.0270	49.7460
 1.0280	49.7970
 1.0290	49.8460
 1.0300	49.8990
 1.0310	49.9470
 1.0320	49.9900
 1.0330	50.0330
 1.0340	50.0750
 1.0350	50.1170
 1.0360	50.1600
 1.0370	50.2060
 1.0380	50.2510
 1.0390	50.2980
 1.0400	50.3400
 1.0410	50.3810
 1.0420	50.4190
 1.0430	50.4540
 1.0440	50.4890
 1.0450	50.5240
 1.0460	50.5560
 1.0470	50.5870
 1.0480	50.6170
 1.0490	50.6450
 1.0500	50.6720
 1.0510	50.6950
 1.0520	50.7220
 1.0530	50.7460
 1.0540	50.7660
 1.0550	50.7880
 1.0560	50.8110
 1.0570	50.8300
 1.0580	50.8460
 1.0590	50.8630
 1.0600	50.8790
 1.0610	50.8920
 1.0620	50.9040
 1.0630	50.9140
 1.0640	50.9180
 1.0650	50.9230
 1.0660	50.9250
 1.0670	50.9290
 1.0680	50.9330
 1.0690	50.9370
 1.0700	50.9380
 1.0710	50.9400
 1.0720	50.9410
 1.0730	50.9390
 1.0740	50.9360
 1.0750	50.9330
 1.0760	50.9290
 1.0770	50.9230
 1.0780	50.9170
 1.0790	50.9110
 1.0800	50.9010
 1.0810	50.8880
 1.0820	50.8760
 1.0830	50.8640
 1.0840	50.8480
 1.0850	50.8310
 1.0860	50.8110
 1.0870	50.7930
 1.0880	50.7720
 1.0890	50.7510
 1.0900	50.7320
 1.0910	50.7080
 1.0920	50.6810
 1.0930	50.6530
 1.0940	50.6220
 1.0950	50.5940
 1.0960	50.5670
 1.0970	50.5400
 1.0980	50.5160
 1.0990	50.4890
 1.1000	50.4610
 1.1010	50.4310
 1.1020	50.3990
 1.1030	50.3660
 1.1040	50.3290
 1.1050	50.2930
 1.1060	50.2580
 1.1070	50.2230
 1.1080	50.1870
 1.1090	50.1530
 1.1100	50.1160
 1.1110	50.0790
 1.1120	50.0380
 1.1130	49.9960
 1.1140	49.9510
 1.1150	49.9050
 1.1160	49.8550
 1.1170	49.8030
 1.1180	49.7450
 1.1190	49.6840
 1.1200	49.6170
 1.1210	49.5470
 1.1220	49.4690
 1.1230	49.3810
 1.1240	49.2850
 1.1250	49.1770
 1.1260	49.0590
 1.1270	48.9290
 1.1280	48.7900
 1.1290	48.6380
 1.1300	48.4760
 1.1310	48.3000
 1.1320	48.1130
 1.1330	47.9110
 1.1340	47.6950
 1.1350	47.4670
 1.1360	47.2250
 1.1370	46.9710
 1.1380	46.7070
 1.1390	46.4350
 1.1400	46.1530
 1.1410	45.8680
 1.1420	45.5820
 1.1430	45.2930
 1.1440	45.0080
 1.1450	44.7220
 1.1460	44.4460
 1.1470	44.1680
 1.1480	43.9070
 1.1490	43.6510
 1.1500	43.4140
 1.1510	43.1870
 1.1520	42.9790
 1.1530	42.7870
 1.1540	42.6090
 1.1550	42.4450
 1.1560	42.2960
 1.1570	42.1610
 1.1580	42.0420
 1.1590	41.9340
 1.1600	41.8380
 1.1610	41.7570
 1.1620	41.6850
 1.1630	41.6220
 1.1640	41.5650
 1.1650	41.5120
 1.1660	41.4630
 1.1670	41.4210
 1.1680	41.3870
 1.1690	41.3540
 1.1700	41.3290
 1.1710	41.3010
 1.1720	41.2750
 1.1730	41.2480
 1.1740	41.2220
 1.1750	41.1950
 1.1760	41.1680
 1.1770	41.1420
 1.1780	41.1140
 1.1790	41.0850
 1.1800	41.0540
 1.1810	41.0230
 1.1820	40.9900
 1.1830	40.9580
 1.1840	40.9270
 1.1850	40.8940
 1.1860	40.8630
 1.1870	40.8320
 1.1880	40.8040
 1.1890	40.7780
 1.1900	40.7530
 1.1910	40.7290
 1.1920	40.7100
 1.1930	40.6910
 1.1940	40.6770
 1.1950	40.6680
 1.1960	40.6620
 1.1970	40.6580
 1.1980	40.6590
 1.1990	40.6640
 1.2000	40.6720
 1.2010	40.6810
 1.2020	40.6930
 1.2030	40.7100
 1.2040	40.7290
 1.2050	40.7500
 1.2060	40.7760
 1.2070	40.8030
 1.2080	40.8310
 1.2090	40.8620
 1.2100	40.8960
 1.2110	40.9340
 1.2120	40.9750
 1.2130	41.0180
 1.2140	41.0640
 1.2150	41.1140
 1.2160	41.1660
 1.2170	41.2190
 1.2180	41.2760
 1.2190	41.3350
 1.2200	41.3930
 1.2210	41.4530
 1.2220	41.5150
 1.2230	41.5750
 1.2240	41.6360
 1.2250	41.6930
 1.2260	41.7490
 1.2270	41.8070
 1.2280	41.8620
 1.2290	41.9180
 1.2300	41.9730
 1.2310	42.0240
 1.2320	42.0760
 1.2330	42.1260
 1.2340	42.1750
 1.2350	42.2230
 1.2360	42.2700
 1.2370	42.3140
 1.2380	42.3610
 1.2390	42.4040
 1.2400	42.4480
 1.2410	42.4920
 1.2420	42.5320
 1.2430	42.5710
 1.2440	42.6090
 1.2450	42.6460
 1.2460	42.6800
 1.2470	42.7150
 1.2480	42.7480
 1.2490	42.7810
 1.2500	42.8120
 1.2510	42.8410
 1.2520	42.8700
 1.2530	42.8950
 1.2540	42.9200
 1.2550	42.9440
 1.2560	42.9650
 1.2570	42.9870
 1.2580	43.0050
 1.2590	43.0210
 1.2600	43.0370
 1.2610	43.0490
 1.2620	43.0580
 1.2630	43.0660
 1.2640	43.0740
 1.2650	43.0780
 1.2660	43.0830
 1.2670	43.0870
 1.2680	43.0880
 1.2690	43.0880
 1.2700	43.0890
 1.2710	43.0860
 1.2720	43.0810
 1.2730	43.0720
 1.2740	43.0600
 1.2750	43.0480
 1.2760	43.0320
 1.2770	43.0140
 1.2780	42.9940
 1.2790	42.9710
 1.2800	42.9460
 1.2810	42.9200
 1.2820	42.8900
 1.2830	42.8560
 1.2840	42.8210
 1.2850	42.7840
 1.2860	42.7420
 1.2870	42.6960
 1.2880	42.6470
 1.2890	42.5930
 1.2900	42.5370
 1.2910	42.4800
 1.2920	42.4190
 1.2930	42.3540
 1.2940	42.2820
 1.2950	42.2050
 1.2960	42.1250
 1.2970	42.0410
 1.2980	41.9530
 1.2990	41.8600
 1.3000	41.7590
 1.3010	41.6530
 1.3020	41.5430
 1.3030	41.4280
 1.3040	41.3060
 1.3050	41.1830
 1.3060	41.0560
 1.3070	40.9220
 1.3080	40.7890
 1.3090	40.6520
 1.3100	40.5070
 1.3110	40.3590
 1.3120	40.2040
 1.3130	40.0430
 1.3140	39.8790
 1.3150	39.7110
 1.3160	39.5390
 1.3170	39.3660
 1.3180	39.1870
 1.3190	39.0030
 1.3200	38.8130
 1.3210	38.6160
 1.3220	38.4170
 1.3230	38.2150
 1.3240	38.0100
 1.3250	37.8090
 1.3260	37.6020
 1.3270	37.3910
 1.3280	37.1790
 1.3290	36.9590
 1.3300	36.7380
 1.3310	36.5190
 1.3320	36.2950
 1.3330	36.0730
 1.3340	35.8520
 1.3350	35.6290
 1.3360	35.4080
 1.3370	35.1890
 1.3380	34.9720
 1.3390	34.7560
 1.3400	34.5400
 1.3410	34.3300
 1.3420	34.1220
 1.3430	33.9160
 1.3440	33.7160
 1.3450	33.5180
 1.3460	33.3200
 1.3470	33.1280
 1.3480	32.9400
 1.3490	32.7550
 1.3500	32.5730
 1.3510	32.3940
 1.3520	32.2170
 1.3530	32.0430
 1.3540	31.8700
 1.3550	31.6980
 1.3560	31.5240
 1.3570	31.3500
 1.3580	31.1770
 1.3590	31.0000
 1.3600	30.8200
 1.3610	30.6380
 1.3620	30.4470
 1.3630	30.2510
 1.3640	30.0470
 1.3650	29.8360
 1.3660	29.6180
 1.3670	29.3910
 1.3680	29.1530
 1.3690	28.9040
 1.3700	28.6380
 1.3710	28.3600
 1.3720	28.0690
 1.3730	27.7610
 1.3740	27.4410
 1.3750	27.1040
 1.3760	26.7480
 1.3770	26.3740
 1.3780	25.9760
 1.3790	25.5630
 1.3800	25.1310
 1.3810	24.6760
 1.3820	24.2100
 1.3830	23.7280
 1.3840	23.2360
 1.3850	22.7300
 1.3860	22.2190
 1.3870	21.6950
 1.3880	21.1760
 1.3890	20.6510
 1.3900	20.1250
 1.3910	19.6090
 1.3920	19.0980
 1.3930	18.5900
 1.3940	18.0950
 1.3950	17.6060
 1.3960	17.1290
 1.3970	16.6690
 1.3980	16.2240
 1.3990	15.8010
 1.4000	15.3950
 1.4010	15.0040
 1.4020	14.6360
 1.4030	14.2840
 1.4040	13.9520
 1.4050	13.6410
 1.4060	13.3460
 1.4070	13.0720
 1.4080	12.8160
 1.4090	12.5760
 1.4100	12.3530
 1.4110	12.1440
 1.4120	11.9510
 1.4130	11.7740
 1.4140	11.6090
 1.4150	11.4590
 1.4160	11.3200
 1.4170	11.1890
 1.4180	11.0700
 1.4190	10.9610
 1.4200	10.8620
 1.4210	10.7710
 1.4220	10.6870
 1.4230	10.6100
 1.4240	10.5400
 1.4250	10.4760
 1.4260	10.4180
 1.4270	10.3650
 1.4280	10.3170
 1.4290	10.2730
 1.4300	10.2370
 1.4310	10.2030
 1.4320	10.1740
 1.4330	10.1480
 1.4340	10.1260
 1.4350	10.1070
 1.4360	10.0910
 1.4370	10.0790
 1.4380	10.0700
 1.4390	10.0630
 1.4400	10.0580
 1.4410	10.0540
 1.4420	10.0520
 1.4430	10.0510
 1.4440	10.0530
 1.4450	10.0570
 1.4460	10.0620
 1.4470	10.0680
 1.4480	10.0760
 1.4490	10.0840
 1.4500	10.0940
 1.4510	10.1030
 1.4520	10.1140
 1.4530	10.1270
 1.4540	10.1390
 1.4550	10.1540
 1.4560	10.1710
 1.4570	10.1880
 1.4580	10.2070
 1.4590	10.2290
 1.4600	10.2520
 1.4610	10.2780
 1.4620	10.3070
 1.4630	10.3380
 1.4640	10.3710
 1.4650	10.4060
 1.4660	10.4460
 1.4670	10.4870
 1.4680	10.5320
 1.4690	10.5800
 1.4700	10.6310
