Name: Beaucarnea recurvata
Type: vegetation
Class: Tree
Genus: Beaucarnea
Species: recurvata
Sample No.: JPL069
Owner: JPL
Wavelength Range: TIR
Origin: 34.12603; - 118.11015; WGS84
Collection Date: 2/2/2016
Description: Samples were collected at the Huntington Garden in San Marino California as part of a JPL Subcontract studying HyTES imagery. Samples were taken to JPL and processed within 48 hours of collection. The same leaves were processed in the Nicolet and then measured using the ASD.
Measurement: Hemispherical reflectance
First Column: X
Second Column: Y
X Units: Wavelength (micrometer)
Y Units: Reflectance (percentage)
First X Value: 2.501
Last X Value: 15.387
Number of X Values: 1737
Additional Information: 

 2.5010	 5.6330
 2.5030	 5.6030
 2.5040	 5.6140
 2.5050	 5.5770
 2.5060	 5.5410
 2.5070	 5.5070
 2.5090	 5.5630
 2.5100	 5.5650
 2.5110	 5.5690
 2.5120	 5.5520
 2.5140	 5.6080
 2.5150	 5.6490
 2.5160	 5.6350
 2.5170	 5.5300
 2.5180	 5.4730
 2.5200	 5.5210
 2.5210	 5.5470
 2.5220	 5.4910
 2.5230	 5.4810
 2.5250	 5.4140
 2.5260	 5.4480
 2.5270	 5.4650
 2.5280	 5.5280
 2.5300	 5.6010
 2.5310	 5.6560
 2.5320	 5.6250
 2.5330	 5.5560
 2.5340	 5.4830
 2.5360	 5.5690
 2.5370	 5.6000
 2.5380	 5.5820
 2.5390	 5.5550
 2.5410	 5.6100
 2.5420	 5.6200
 2.5430	 5.6420
 2.5440	 5.5820
 2.5460	 5.5900
 2.5470	 5.5610
 2.5480	 5.5630
 2.5490	 5.6570
 2.5510	 5.7030
 2.5520	 5.6630
 2.5530	 5.7130
 2.5540	 5.6820
 2.5560	 5.6230
 2.5570	 5.5850
 2.5580	 5.6640
 2.5590	 5.6630
 2.5610	 5.6870
 2.5620	 5.7130
 2.5630	 5.6890
 2.5650	 5.6350
 2.5660	 5.6540
 2.5670	 5.6270
 2.5680	 5.6540
 2.5700	 5.6190
 2.5710	 5.6090
 2.5720	 5.6360
 2.5730	 5.6380
 2.5750	 5.5950
 2.5760	 5.6160
 2.5770	 5.6230
 2.5790	 5.6450
 2.5800	 5.6190
 2.5810	 5.6650
 2.5820	 5.6730
 2.5840	 5.6460
 2.5850	 5.5740
 2.5860	 5.6190
 2.5880	 5.6200
 2.5890	 5.5980
 2.5900	 5.6050
 2.5910	 5.6230
 2.5930	 5.5890
 2.5940	 5.5440
 2.5950	 5.4930
 2.5970	 5.6060
 2.5980	 5.5730
 2.5990	 5.5550
 2.6010	 5.5610
 2.6020	 5.5690
 2.6030	 5.5120
 2.6040	 5.5170
 2.6060	 5.4580
 2.6070	 5.4340
 2.6080	 5.4100
 2.6100	 5.3600
 2.6110	 5.3690
 2.6120	 5.4390
 2.6140	 5.4070
 2.6150	 5.4400
 2.6160	 5.4410
 2.6180	 5.3880
 2.6190	 5.3150
 2.6200	 5.3460
 2.6220	 5.3040
 2.6230	 5.3040
 2.6240	 5.2960
 2.6260	 5.3310
 2.6270	 5.2420
 2.6280	 5.1790
 2.6300	 5.1900
 2.6310	 5.2420
 2.6320	 5.1720
 2.6340	 5.1430
 2.6350	 5.1040
 2.6360	 5.1150
 2.6380	 5.0350
 2.6390	 5.0460
 2.6400	 5.0510
 2.6420	 5.0330
 2.6430	 5.0380
 2.6440	 5.0640
 2.6460	 5.0000
 2.6470	 4.9440
 2.6480	 4.9210
 2.6500	 4.9080
 2.6510	 4.8470
 2.6520	 4.8610
 2.6540	 4.8520
 2.6550	 4.8290
 2.6570	 4.7780
 2.6580	 4.7650
 2.6590	 4.7060
 2.6610	 4.6930
 2.6620	 4.6760
 2.6630	 4.6480
 2.6650	 4.6350
 2.6660	 4.6990
 2.6670	 4.6310
 2.6690	 4.5900
 2.6700	 4.5660
 2.6720	 4.5250
 2.6730	 4.4780
 2.6740	 4.4960
 2.6760	 4.4230
 2.6770	 4.4580
 2.6780	 4.4680
 2.6800	 4.4280
 2.6810	 4.3900
 2.6830	 4.3440
 2.6840	 4.2550
 2.6850	 4.2580
 2.6870	 4.2900
 2.6880	 4.3190
 2.6900	 4.2780
 2.6910	 4.2150
 2.6920	 4.1410
 2.6940	 4.1170
 2.6950	 4.0820
 2.6970	 4.1040
 2.6980	 4.1010
 2.6990	 4.0850
 2.7010	 4.0450
 2.7020	 4.0540
 2.7040	 4.0400
 2.7050	 4.0220
 2.7060	 3.9620
 2.7080	 3.9560
 2.7090	 3.9550
 2.7110	 3.9450
 2.7120	 3.9190
 2.7130	 3.9140
 2.7150	 3.8560
 2.7160	 3.8610
 2.7180	 3.8530
 2.7190	 3.8630
 2.7210	 3.7580
 2.7220	 3.7080
 2.7230	 3.7700
 2.7250	 3.8240
 2.7260	 3.7980
 2.7280	 3.7820
 2.7290	 3.7380
 2.7310	 3.7790
 2.7320	 3.7900
 2.7340	 3.8230
 2.7350	 3.8330
 2.7360	 3.8080
 2.7380	 3.7390
 2.7390	 3.7750
 2.7410	 3.8020
 2.7420	 3.8270
 2.7440	 3.7730
 2.7450	 3.7550
 2.7470	 3.7320
 2.7480	 3.7210
 2.7490	 3.6680
 2.7510	 3.7050
 2.7520	 3.6650
 2.7540	 3.7220
 2.7550	 3.7170
 2.7570	 3.7080
 2.7580	 3.7400
 2.7600	 3.7710
 2.7610	 3.7170
 2.7630	 3.6830
 2.7640	 3.6440
 2.7660	 3.7230
 2.7670	 3.6910
 2.7690	 3.6560
 2.7700	 3.6130
 2.7720	 3.6580
 2.7730	 3.6810
 2.7740	 3.6760
 2.7760	 3.6660
 2.7770	 3.7090
 2.7790	 3.7220
 2.7800	 3.7670
 2.7820	 3.7810
 2.7830	 3.7740
 2.7850	 3.6910
 2.7860	 3.7150
 2.7880	 3.6350
 2.7890	 3.6660
 2.7910	 3.7140
 2.7920	 3.6850
 2.7940	 3.6040
 2.7950	 3.6850
 2.7970	 3.7200
 2.7980	 3.7070
 2.8000	 3.6610
 2.8010	 3.6820
 2.8030	 3.6490
 2.8040	 3.6680
 2.8060	 3.6880
 2.8080	 3.7390
 2.8090	 3.7160
 2.8110	 3.6770
 2.8120	 3.5830
 2.8140	 3.6140
 2.8150	 3.6010
 2.8170	 3.5630
 2.8180	 3.5070
 2.8200	 3.6100
 2.8210	 3.6740
 2.8230	 3.6440
 2.8240	 3.5960
 2.8260	 3.6420
 2.8270	 3.6760
 2.8290	 3.7190
 2.8310	 3.6520
 2.8320	 3.6660
 2.8340	 3.6520
 2.8350	 3.6910
 2.8370	 3.6900
 2.8380	 3.7150
 2.8400	 3.6460
 2.8410	 3.6530
 2.8430	 3.5910
 2.8440	 3.5950
 2.8460	 3.6080
 2.8480	 3.6470
 2.8490	 3.6560
 2.8510	 3.6610
 2.8520	 3.6650
 2.8540	 3.7010
 2.8550	 3.6850
 2.8570	 3.7380
 2.8590	 3.7220
 2.8600	 3.6440
 2.8620	 3.5890
 2.8630	 3.6570
 2.8650	 3.6440
 2.8660	 3.6430
 2.8680	 3.5890
 2.8700	 3.6390
 2.8710	 3.6370
 2.8730	 3.6480
 2.8740	 3.6510
 2.8760	 3.7080
 2.8780	 3.6690
 2.8790	 3.7180
 2.8810	 3.7010
 2.8820	 3.6220
 2.8840	 3.5810
 2.8860	 3.6710
 2.8870	 3.6310
 2.8890	 3.6600
 2.8900	 3.7190
 2.8920	 3.7460
 2.8940	 3.7350
 2.8950	 3.7830
 2.8970	 3.7000
 2.8990	 3.6660
 2.9000	 3.6920
 2.9020	 3.7520
 2.9030	 3.7760
 2.9050	 3.7870
 2.9070	 3.6600
 2.9080	 3.6950
 2.9100	 3.7290
 2.9120	 3.7740
 2.9130	 3.7670
 2.9150	 3.7660
 2.9160	 3.7260
 2.9180	 3.7530
 2.9200	 3.7740
 2.9210	 3.8070
 2.9230	 3.7490
 2.9250	 3.7630
 2.9260	 3.7820
 2.9280	 3.7810
 2.9300	 3.7330
 2.9310	 3.7470
 2.9330	 3.7460
 2.9350	 3.7140
 2.9360	 3.6570
 2.9380	 3.7010
 2.9400	 3.7500
 2.9410	 3.7790
 2.9430	 3.6900
 2.9450	 3.7280
 2.9460	 3.7920
 2.9480	 3.7450
 2.9500	 3.6530
 2.9510	 3.7100
 2.9530	 3.7040
 2.9550	 3.7150
 2.9560	 3.7330
 2.9580	 3.7330
 2.9600	 3.6900
 2.9610	 3.6820
 2.9630	 3.6910
 2.9650	 3.7200
 2.9670	 3.6810
 2.9680	 3.6840
 2.9700	 3.7030
 2.9720	 3.6770
 2.9730	 3.6820
 2.9750	 3.7640
 2.9770	 3.7130
 2.9780	 3.7780
 2.9800	 3.8040
 2.9820	 3.7360
 2.9840	 3.6560
 2.9850	 3.7070
 2.9870	 3.7980
 2.9890	 3.8430
 2.9900	 3.7690
 2.9920	 3.7860
 2.9940	 3.7360
 2.9960	 3.7300
 2.9970	 3.7080
 2.9990	 3.7300
 3.0010	 3.7080
 3.0030	 3.7700
 3.0040	 3.7880
 3.0060	 3.7590
 3.0080	 3.7040
 3.0100	 3.8090
 3.0110	 3.7950
 3.0130	 3.7760
 3.0150	 3.7660
 3.0170	 3.7960
 3.0180	 3.7200
 3.0200	 3.7680
 3.0220	 3.7880
 3.0240	 3.8240
 3.0250	 3.8150
 3.0270	 3.7950
 3.0290	 3.7130
 3.0310	 3.7510
 3.0320	 3.7240
 3.0340	 3.6990
 3.0360	 3.6940
 3.0380	 3.7450
 3.0400	 3.7930
 3.0410	 3.8500
 3.0430	 3.8040
 3.0450	 3.7630
 3.0470	 3.7130
 3.0480	 3.7330
 3.0500	 3.7280
 3.0520	 3.7630
 3.0540	 3.7130
 3.0560	 3.7130
 3.0570	 3.6930
 3.0590	 3.7400
 3.0610	 3.7370
 3.0630	 3.7380
 3.0650	 3.7270
 3.0670	 3.7810
 3.0680	 3.7580
 3.0700	 3.7690
 3.0720	 3.7440
 3.0740	 3.7640
 3.0760	 3.7330
 3.0770	 3.7330
 3.0790	 3.7000
 3.0810	 3.7240
 3.0830	 3.6850
 3.0850	 3.6930
 3.0870	 3.7000
 3.0880	 3.7200
 3.0900	 3.7150
 3.0920	 3.7440
 3.0940	 3.7270
 3.0960	 3.7000
 3.0980	 3.6630
 3.1000	 3.7350
 3.1010	 3.7380
 3.1030	 3.7020
 3.1050	 3.6680
 3.1070	 3.6980
 3.1090	 3.7300
 3.1110	 3.7640
 3.1130	 3.6910
 3.1140	 3.6320
 3.1160	 3.6410
 3.1180	 3.7560
 3.1200	 3.7650
 3.1220	 3.7130
 3.1240	 3.6880
 3.1260	 3.7180
 3.1280	 3.7030
 3.1290	 3.7680
 3.1310	 3.7750
 3.1330	 3.7530
 3.1350	 3.7590
 3.1370	 3.7760
 3.1390	 3.7280
 3.1410	 3.7270
 3.1430	 3.7580
 3.1450	 3.7500
 3.1470	 3.7040
 3.1480	 3.7430
 3.1500	 3.7340
 3.1520	 3.7230
 3.1540	 3.7000
 3.1560	 3.6940
 3.1580	 3.6470
 3.1600	 3.6760
 3.1620	 3.7160
 3.1640	 3.7570
 3.1660	 3.7400
 3.1680	 3.7150
 3.1700	 3.7130
 3.1720	 3.7560
 3.1730	 3.6930
 3.1750	 3.6760
 3.1770	 3.6720
 3.1790	 3.6750
 3.1810	 3.6420
 3.1830	 3.6880
 3.1850	 3.6660
 3.1870	 3.6330
 3.1890	 3.6160
 3.1910	 3.6780
 3.1930	 3.7250
 3.1950	 3.7540
 3.1970	 3.6800
 3.1990	 3.6680
 3.2010	 3.6700
 3.2030	 3.6690
 3.2050	 3.6700
 3.2070	 3.6840
 3.2090	 3.6550
 3.2110	 3.7020
 3.2130	 3.7040
 3.2150	 3.6920
 3.2170	 3.6890
 3.2190	 3.6900
 3.2210	 3.6360
 3.2230	 3.6270
 3.2250	 3.6430
 3.2270	 3.6700
 3.2290	 3.6120
 3.2310	 3.6290
 3.2330	 3.6590
 3.2350	 3.7180
 3.2370	 3.6680
 3.2390	 3.6310
 3.2410	 3.6180
 3.2430	 3.6440
 3.2450	 3.6400
 3.2470	 3.6350
 3.2490	 3.5990
 3.2510	 3.5970
 3.2530	 3.6320
 3.2550	 3.6810
 3.2570	 3.6560
 3.2590	 3.6050
 3.2610	 3.5350
 3.2630	 3.5480
 3.2650	 3.5850
 3.2670	 3.6400
 3.2700	 3.6150
 3.2720	 3.6150
 3.2740	 3.6170
 3.2760	 3.5940
 3.2780	 3.5590
 3.2800	 3.5660
 3.2820	 3.5460
 3.2840	 3.5630
 3.2860	 3.5230
 3.2880	 3.5190
 3.2900	 3.5590
 3.2920	 3.5600
 3.2940	 3.5330
 3.2970	 3.5700
 3.2990	 3.5480
 3.3010	 3.5440
 3.3030	 3.5510
 3.3050	 3.5410
 3.3070	 3.5580
 3.3090	 3.5940
 3.3110	 3.5300
 3.3130	 3.4960
 3.3160	 3.4690
 3.3180	 3.5000
 3.3200	 3.4830
 3.3220	 3.4710
 3.3240	 3.4300
 3.3260	 3.4430
 3.3280	 3.4060
 3.3300	 3.4430
 3.3330	 3.4550
 3.3350	 3.4670
 3.3370	 3.4510
 3.3390	 3.4610
 3.3410	 3.4260
 3.3430	 3.3950
 3.3450	 3.3770
 3.3480	 3.4300
 3.3500	 3.3840
 3.3520	 3.3730
 3.3540	 3.3820
 3.3560	 3.3780
 3.3580	 3.3290
 3.3610	 3.3110
 3.3630	 3.3010
 3.3650	 3.3210
 3.3670	 3.3330
 3.3690	 3.3250
 3.3720	 3.2570
 3.3740	 3.2680
 3.3760	 3.2620
 3.3780	 3.2600
 3.3800	 3.2250
 3.3830	 3.2030
 3.3850	 3.2470
 3.3870	 3.3020
 3.3890	 3.2300
 3.3910	 3.1610
 3.3940	 3.1450
 3.3960	 3.1140
 3.3980	 3.0740
 3.4000	 3.0670
 3.4030	 2.9990
 3.4050	 2.9580
 3.4070	 2.9140
 3.4090	 2.9310
 3.4110	 2.9210
 3.4140	 2.9630
 3.4160	 3.0450
 3.4180	 3.1860
 3.4200	 3.3440
 3.4230	 3.6390
 3.4250	 4.1620
 3.4270	 4.8890
 3.4300	 5.4310
 3.4320	 5.5730
 3.4340	 5.3850
 3.4360	 5.1110
 3.4390	 4.8370
 3.4410	 4.6980
 3.4430	 4.5970
 3.4450	 4.5060
 3.4480	 4.4110
 3.4500	 4.3940
 3.4520	 4.3580
 3.4550	 4.3070
 3.4570	 4.2230
 3.4590	 4.2170
 3.4620	 4.2420
 3.4640	 4.2420
 3.4660	 4.1960
 3.4690	 4.1540
 3.4710	 4.0960
 3.4730	 4.0850
 3.4760	 4.0080
 3.4780	 3.9610
 3.4800	 3.9240
 3.4830	 3.9380
 3.4850	 3.8690
 3.4870	 3.8100
 3.4900	 3.7280
 3.4920	 3.6830
 3.4940	 3.6130
 3.4970	 3.5880
 3.4990	 3.5090
 3.5010	 3.4700
 3.5040	 3.4400
 3.5060	 3.6550
 3.5080	 4.2930
 3.5110	 5.1440
 3.5130	 5.5190
 3.5160	 5.3460
 3.5180	 5.0320
 3.5200	 4.8440
 3.5230	 4.6960
 3.5250	 4.6020
 3.5280	 4.5080
 3.5300	 4.4470
 3.5320	 4.3840
 3.5350	 4.3690
 3.5370	 4.3460
 3.5400	 4.3530
 3.5420	 4.3240
 3.5440	 4.3040
 3.5470	 4.2780
 3.5490	 4.2480
 3.5520	 4.2290
 3.5540	 4.2000
 3.5570	 4.1670
 3.5590	 4.1930
 3.5610	 4.1980
 3.5640	 4.2470
 3.5660	 4.2350
 3.5690	 4.1930
 3.5710	 4.1680
 3.5740	 4.2020
 3.5760	 4.1790
 3.5790	 4.1670
 3.5810	 4.0990
 3.5840	 4.0920
 3.5860	 4.1380
 3.5890	 4.1490
 3.5910	 4.1050
 3.5940	 4.1100
 3.5960	 4.1230
 3.5990	 4.1110
 3.6010	 4.0830
 3.6040	 4.1140
 3.6060	 4.1290
 3.6090	 4.0990
 3.6110	 4.0280
 3.6140	 4.0630
 3.6160	 4.0990
 3.6190	 4.1180
 3.6210	 4.0610
 3.6240	 4.0430
 3.6260	 4.0590
 3.6290	 4.0740
 3.6310	 4.0660
 3.6340	 4.0980
 3.6360	 4.0680
 3.6390	 4.0280
 3.6410	 4.0450
 3.6440	 4.0830
 3.6470	 4.0510
 3.6490	 4.0400
 3.6520	 4.0180
 3.6540	 4.0150
 3.6570	 4.0130
 3.6590	 4.0790
 3.6620	 4.0840
 3.6650	 4.0760
 3.6670	 4.0540
 3.6700	 4.0600
 3.6720	 4.0520
 3.6750	 4.0600
 3.6780	 4.0560
 3.6800	 4.0780
 3.6830	 4.0560
 3.6850	 4.0510
 3.6880	 4.0250
 3.6910	 4.0260
 3.6930	 4.0670
 3.6960	 4.1000
 3.6990	 4.0550
 3.7010	 4.0450
 3.7040	 4.0840
 3.7070	 4.1110
 3.7090	 4.0950
 3.7120	 4.0970
 3.7150	 4.0910
 3.7170	 4.0830
 3.7200	 4.0930
 3.7230	 4.1350
 3.7250	 4.1180
 3.7280	 4.0750
 3.7310	 4.0590
 3.7330	 4.0810
 3.7360	 4.0810
 3.7390	 4.0790
 3.7410	 4.0670
 3.7440	 4.0870
 3.7470	 4.1030
 3.7490	 4.0980
 3.7520	 4.0780
 3.7550	 4.1120
 3.7580	 4.1070
 3.7600	 4.1350
 3.7630	 4.1250
 3.7660	 4.0800
 3.7690	 4.1000
 3.7710	 4.1490
 3.7740	 4.1040
 3.7770	 4.1080
 3.7790	 4.1310
 3.7820	 4.1320
 3.7850	 4.1410
 3.7880	 4.1650
 3.7910	 4.1410
 3.7930	 4.1330
 3.7960	 4.1180
 3.7990	 4.1250
 3.8020	 4.1050
 3.8040	 4.1130
 3.8070	 4.1330
 3.8100	 4.1730
 3.8130	 4.1750
 3.8160	 4.1960
 3.8180	 4.2020
 3.8210	 4.1840
 3.8240	 4.1660
 3.8270	 4.1790
 3.8300	 4.2110
 3.8330	 4.1960
 3.8350	 4.1700
 3.8380	 4.1560
 3.8410	 4.1520
 3.8440	 4.1850
 3.8470	 4.1810
 3.8500	 4.1760
 3.8520	 4.1420
 3.8550	 4.1740
 3.8580	 4.2230
 3.8610	 4.2390
 3.8640	 4.2180
 3.8670	 4.2390
 3.8700	 4.2590
 3.8730	 4.2690
 3.8760	 4.2490
 3.8780	 4.2360
 3.8810	 4.2230
 3.8840	 4.2100
 3.8870	 4.1680
 3.8900	 4.1760
 3.8930	 4.2000
 3.8960	 4.2290
 3.8990	 4.2390
 3.9020	 4.2190
 3.9050	 4.1770
 3.9080	 4.2160
 3.9110	 4.2320
 3.9140	 4.2300
 3.9170	 4.2530
 3.9190	 4.2470
 3.9220	 4.2270
 3.9250	 4.2520
 3.9280	 4.2600
 3.9310	 4.2350
 3.9340	 4.1970
 3.9370	 4.2260
 3.9400	 4.2400
 3.9430	 4.2160
 3.9460	 4.1700
 3.9490	 4.1630
 3.9520	 4.1930
 3.9550	 4.2500
 3.9580	 4.2480
 3.9610	 4.2280
 3.9640	 4.2250
 3.9670	 4.2010
 3.9700	 4.1900
 3.9740	 4.1960
 3.9770	 4.1880
 3.9800	 4.2290
 3.9830	 4.2400
 3.9860	 4.2460
 3.9890	 4.2200
 3.9920	 4.2010
 3.9950	 4.2090
 3.9980	 4.2320
 4.0010	 4.2430
 4.0040	 4.2440
 4.0070	 4.2170
 4.0100	 4.2010
 4.0140	 4.2010
 4.0170	 4.2020
 4.0200	 4.2180
 4.0230	 4.2450
 4.0260	 4.2480
 4.0290	 4.2240
 4.0320	 4.2230
 4.0350	 4.2360
 4.0390	 4.2120
 4.0420	 4.2160
 4.0450	 4.2000
 4.0480	 4.2070
 4.0510	 4.2070
 4.0540	 4.2290
 4.0570	 4.2160
 4.0610	 4.2010
 4.0640	 4.1810
 4.0670	 4.2020
 4.0700	 4.2080
 4.0730	 4.1800
 4.0770	 4.1820
 4.0800	 4.2190
 4.0830	 4.2010
 4.0860	 4.1810
 4.0890	 4.1830
 4.0930	 4.2010
 4.0960	 4.1960
 4.0990	 4.1890
 4.1020	 4.2030
 4.1060	 4.1810
 4.1090	 4.1770
 4.1120	 4.2290
 4.1150	 4.2560
 4.1190	 4.2250
 4.1220	 4.1620
 4.1250	 4.1550
 4.1290	 4.1720
 4.1320	 4.1780
 4.1350	 4.1710
 4.1380	 4.1630
 4.1420	 4.1540
 4.1450	 4.2110
 4.1480	 4.2170
 4.1520	 4.1910
 4.1550	 4.1740
 4.1580	 4.1930
 4.1620	 4.1910
 4.1650	 4.1470
 4.1680	 4.1120
 4.1720	 4.1250
 4.1750	 4.1880
 4.1780	 4.2240
 4.1820	 4.2250
 4.1850	 4.2240
 4.1890	 4.1790
 4.1920	 4.1550
 4.1950	 4.1770
 4.1990	 4.1930
 4.2020	 4.1870
 4.2060	 4.1740
 4.2090	 4.1660
 4.2120	 4.1740
 4.2160	 4.1710
 4.2190	 4.1630
 4.2230	 4.0830
 4.2260	 4.1030
 4.2300	 4.0910
 4.2330	 4.0560
 4.2360	 4.1380
 4.2400	 4.1720
 4.2430	 4.1880
 4.2470	 4.1510
 4.2500	 4.1000
 4.2540	 4.0880
 4.2570	 4.1510
 4.2610	 4.1990
 4.2640	 4.1680
 4.2680	 4.1360
 4.2710	 4.1360
 4.2750	 4.1200
 4.2780	 4.0840
 4.2820	 4.0950
 4.2850	 4.1290
 4.2890	 4.1230
 4.2930	 4.0580
 4.2960	 4.0340
 4.3000	 4.0580
 4.3030	 4.0810
 4.3070	 4.1090
 4.3100	 4.1240
 4.3140	 4.1500
 4.3180	 4.1060
 4.3210	 4.0330
 4.3250	 4.0180
 4.3280	 4.0580
 4.3320	 4.0770
 4.3360	 4.0750
 4.3390	 4.0560
 4.3430	 4.0220
 4.3470	 3.9730
 4.3500	 3.9920
 4.3540	 4.0310
 4.3580	 4.0140
 4.3610	 4.0050
 4.3650	 4.0450
 4.3690	 4.0330
 4.3720	 4.0150
 4.3760	 4.0160
 4.3800	 4.0210
 4.3830	 4.0430
 4.3870	 4.0390
 4.3910	 4.0220
 4.3940	 4.0110
 4.3980	 3.9920
 4.4020	 3.9910
 4.4060	 3.9770
 4.4090	 3.9780
 4.4130	 3.9880
 4.4170	 3.9720
 4.4210	 3.9790
 4.4240	 3.9870
 4.4280	 3.9920
 4.4320	 3.9760
 4.4360	 3.9790
 4.4400	 4.0100
 4.4430	 4.0100
 4.4470	 3.9890
 4.4510	 3.9740
 4.4550	 3.9840
 4.4590	 3.9700
 4.4630	 3.9330
 4.4660	 3.9310
 4.4700	 3.9490
 4.4740	 3.9360
 4.4780	 3.9330
 4.4820	 3.9160
 4.4860	 3.9070
 4.4900	 3.9060
 4.4930	 3.9250
 4.4970	 3.9720
 4.5010	 3.9650
 4.5050	 3.9650
 4.5090	 3.9700
 4.5130	 3.9220
 4.5170	 3.9060
 4.5210	 3.8840
 4.5250	 3.8960
 4.5290	 3.9350
 4.5330	 3.9730
 4.5370	 3.9730
 4.5410	 3.9380
 4.5450	 3.9430
 4.5490	 3.9660
 4.5530	 3.9350
 4.5570	 3.9270
 4.5610	 3.9240
 4.5650	 3.9230
 4.5690	 3.9200
 4.5730	 3.9330
 4.5770	 3.9180
 4.5810	 3.8960
 4.5850	 3.9040
 4.5890	 3.9380
 4.5930	 3.9110
 4.5970	 3.8880
 4.6010	 3.8910
 4.6050	 3.8750
 4.6090	 3.8710
 4.6130	 3.8910
 4.6170	 3.8850
 4.6220	 3.8860
 4.6260	 3.8840
 4.6300	 3.8920
 4.6340	 3.8670
 4.6380	 3.8500
 4.6420	 3.8630
 4.6460	 3.8770
 4.6510	 3.8560
 4.6550	 3.8470
 4.6590	 3.8250
 4.6630	 3.8420
 4.6670	 3.8560
 4.6720	 3.8490
 4.6760	 3.8500
 4.6800	 3.8660
 4.6840	 3.8580
 4.6880	 3.8620
 4.6930	 3.8660
 4.6970	 3.8750
 4.7010	 3.8740
 4.7050	 3.8990
 4.7100	 3.8930
 4.7140	 3.8790
 4.7180	 3.8760
 4.7230	 3.8940
 4.7270	 3.8540
 4.7310	 3.8780
 4.7360	 3.9300
 4.7400	 3.9270
 4.7440	 3.8800
 4.7490	 3.8430
 4.7530	 3.8490
 4.7570	 3.8980
 4.7620	 3.8930
 4.7660	 3.8610
 4.7700	 3.8580
 4.7750	 3.8940
 4.7790	 3.8820
 4.7840	 3.8900
 4.7880	 3.9080
 4.7920	 3.9100
 4.7970	 3.8670
 4.8010	 3.8620
 4.8060	 3.8790
 4.8100	 3.8870
 4.8150	 3.8990
 4.8190	 3.9010
 4.8240	 3.8520
 4.8280	 3.8830
 4.8330	 3.8840
 4.8370	 3.9110
 4.8420	 3.9070
 4.8460	 3.8870
 4.8510	 3.8760
 4.8550	 3.8740
 4.8600	 3.8620
 4.8640	 3.8630
 4.8690	 3.8700
 4.8740	 3.8880
 4.8780	 3.8860
 4.8830	 3.9110
 4.8870	 3.9110
 4.8920	 3.9320
 4.8970	 3.9290
 4.9010	 3.9300
 4.9060	 3.9020
 4.9100	 3.9310
 4.9150	 3.9200
 4.9200	 3.9200
 4.9240	 3.8700
 4.9290	 3.8770
 4.9340	 3.8900
 4.9390	 3.8950
 4.9430	 3.9130
 4.9480	 3.9220
 4.9530	 3.8920
 4.9570	 3.8800
 4.9620	 3.8660
 4.9670	 3.9010
 4.9720	 3.9240
 4.9760	 3.9450
 4.9810	 3.9240
 4.9860	 3.9160
 4.9910	 3.9150
 4.9960	 3.9710
 5.0000	 3.9560
 5.0050	 3.9390
 5.0100	 3.9480
 5.0150	 3.9690
 5.0200	 3.9500
 5.0250	 3.9560
 5.0300	 3.9660
 5.0340	 3.9690
 5.0390	 3.9380
 5.0440	 3.9280
 5.0490	 3.9450
 5.0540	 3.9780
 5.0590	 3.9280
 5.0640	 3.9170
 5.0690	 3.9180
 5.0740	 3.9390
 5.0790	 3.9250
 5.0840	 3.9500
 5.0890	 3.9910
 5.0940	 4.0000
 5.0990	 3.9640
 5.1040	 3.9750
 5.1090	 3.9650
 5.1140	 3.9750
 5.1190	 3.9500
 5.1240	 3.9580
 5.1290	 3.9560
 5.1340	 3.9440
 5.1390	 3.9180
 5.1440	 3.9510
 5.1490	 3.9580
 5.1550	 3.9860
 5.1600	 4.0040
 5.1650	 4.0000
 5.1700	 3.9600
 5.1750	 3.9800
 5.1800	 3.9730
 5.1850	 3.9850
 5.1910	 3.9880
 5.1960	 4.0090
 5.2010	 4.0170
 5.2060	 4.0350
 5.2110	 4.0180
 5.2170	 4.0230
 5.2220	 3.9840
 5.2270	 3.9870
 5.2330	 3.9660
 5.2380	 3.9700
 5.2430	 3.9830
 5.2480	 4.0080
 5.2540	 3.9680
 5.2590	 3.9530
 5.2640	 3.9620
 5.2700	 3.9950
 5.2750	 3.9950
 5.2800	 3.9920
 5.2860	 4.0010
 5.2910	 4.0040
 5.2970	 3.9420
 5.3020	 3.9620
 5.3080	 3.9870
 5.3130	 4.0220
 5.3180	 3.9500
 5.3240	 3.9140
 5.3290	 3.9460
 5.3350	 4.0150
 5.3400	 4.0410
 5.3460	 3.9960
 5.3510	 3.9300
 5.3570	 3.9500
 5.3620	 3.9510
 5.3680	 3.9510
 5.3740	 3.9430
 5.3790	 3.9460
 5.3850	 3.9210
 5.3900	 3.9280
 5.3960	 3.9250
 5.4010	 3.9500
 5.4070	 3.9200
 5.4130	 3.9190
 5.4180	 3.9210
 5.4240	 3.9410
 5.4300	 3.9090
 5.4350	 3.8940
 5.4410	 3.8790
 5.4470	 3.8980
 5.4530	 3.8870
 5.4580	 3.8920
 5.4640	 3.8410
 5.4700	 3.8140
 5.4760	 3.8080
 5.4810	 3.8600
 5.4870	 3.8590
 5.4930	 3.8520
 5.4990	 3.8170
 5.5050	 3.8110
