Name: Ceanothus spinosus 2
Type: vegetation
Class: Shrub
Genus: Ceanothus
Species: spinosus
Sample No.: VH130
Owner: UCSB
Wavelength Range: VSWIR
Origin: 34.4906; -119.7908; WGS84
Collection Date: 6/3/2013
Description: Samples were collected as part of the HyspIRI Airborne Campaign. 48 individual plants were sampled in three times in 2013 - spring  summer  and fall. The name of the sample includes a 1  2  or 3 which references a different individual of the species. Samples were taken to JPL and processed within 48 hours of collection. The same leaves were processed in the Nicolet and then measured using the ASD.
Measurement: Bidirectional reflectance
First Column: X
Second Column: Y
X Units: Wavelength (micrometers)
Y Units: Reflectance (percentage)
First X Value: 0.35
Last X Value: 2.5
Number of X Values: 2151
Additional Information: vegetation.shrub.ceanothus.spinosus.vswir.vh130.ucsb.asd.ancillary.txt

 0.3500	 7.5600
 0.3510	 7.5950
 0.3520	 7.6750
 0.3530	 7.6800
 0.3540	 7.5910
 0.3550	 7.6240
 0.3560	 7.6720
 0.3570	 7.6700
 0.3580	 7.5930
 0.3590	 7.5990
 0.3600	 7.5810
 0.3610	 7.5130
 0.3620	 7.5190
 0.3630	 7.5020
 0.3640	 7.4810
 0.3650	 7.4970
 0.3660	 7.5750
 0.3670	 7.5850
 0.3680	 7.5250
 0.3690	 7.4890
 0.3700	 7.5190
 0.3710	 7.4900
 0.3720	 7.3810
 0.3730	 7.4060
 0.3740	 7.4100
 0.3750	 7.4000
 0.3760	 7.4200
 0.3770	 7.4320
 0.3780	 7.4120
 0.3790	 7.3850
 0.3800	 7.4120
 0.3810	 7.4250
 0.3820	 7.3880
 0.3830	 7.3300
 0.3840	 7.4020
 0.3850	 7.4030
 0.3860	 7.3500
 0.3870	 7.3290
 0.3880	 7.3350
 0.3890	 7.3180
 0.3900	 7.2980
 0.3910	 7.3670
 0.3920	 7.3950
 0.3930	 7.3640
 0.3940	 7.3050
 0.3950	 7.3130
 0.3960	 7.3410
 0.3970	 7.3450
 0.3980	 7.3000
 0.3990	 7.2920
 0.4000	 7.2930
 0.4010	 7.2870
 0.4020	 7.2870
 0.4030	 7.2820
 0.4040	 7.2790
 0.4050	 7.2890
 0.4060	 7.3070
 0.4070	 7.3200
 0.4080	 7.3270
 0.4090	 7.3260
 0.4100	 7.3000
 0.4110	 7.3090
 0.4120	 7.3600
 0.4130	 7.3560
 0.4140	 7.3620
 0.4150	 7.3870
 0.4160	 7.4130
 0.4170	 7.4220
 0.4180	 7.4410
 0.4190	 7.4800
 0.4200	 7.5240
 0.4210	 7.5350
 0.4220	 7.5420
 0.4230	 7.5670
 0.4240	 7.5880
 0.4250	 7.6190
 0.4260	 7.6470
 0.4270	 7.6480
 0.4280	 7.6550
 0.4290	 7.6700
 0.4300	 7.6890
 0.4310	 7.6990
 0.4320	 7.7000
 0.4330	 7.7040
 0.4340	 7.7190
 0.4350	 7.7320
 0.4360	 7.7410
 0.4370	 7.7530
 0.4380	 7.7720
 0.4390	 7.7930
 0.4400	 7.8090
 0.4410	 7.8230
 0.4420	 7.8460
 0.4430	 7.8660
 0.4440	 7.8770
 0.4450	 7.8790
 0.4460	 7.8960
 0.4470	 7.9090
 0.4480	 7.9150
 0.4490	 7.9330
 0.4500	 7.9640
 0.4510	 7.9890
 0.4520	 7.9910
 0.4530	 7.9970
 0.4540	 8.0110
 0.4550	 8.0260
 0.4560	 8.0270
 0.4570	 8.0390
 0.4580	 8.0490
 0.4590	 8.0500
 0.4600	 8.0680
 0.4610	 8.0710
 0.4620	 8.0710
 0.4630	 8.0870
 0.4640	 8.0810
 0.4650	 8.0710
 0.4660	 8.0700
 0.4670	 8.0810
 0.4680	 8.0810
 0.4690	 8.0740
 0.4700	 8.0670
 0.4710	 8.0710
 0.4720	 8.0750
 0.4730	 8.0760
 0.4740	 8.0770
 0.4750	 8.0830
 0.4760	 8.0900
 0.4770	 8.0930
 0.4780	 8.0870
 0.4790	 8.0850
 0.4800	 8.0860
 0.4810	 8.0880
 0.4820	 8.1060
 0.4830	 8.1170
 0.4840	 8.1180
 0.4850	 8.1210
 0.4860	 8.1300
 0.4870	 8.1440
 0.4880	 8.1620
 0.4890	 8.1870
 0.4900	 8.2050
 0.4910	 8.2220
 0.4920	 8.2480
 0.4930	 8.2870
 0.4940	 8.3210
 0.4950	 8.3460
 0.4960	 8.3840
 0.4970	 8.4260
 0.4980	 8.4700
 0.4990	 8.5160
 0.5000	 8.5610
 0.5010	 8.6160
 0.5020	 8.6830
 0.5030	 8.7520
 0.5040	 8.8290
 0.5050	 8.9120
 0.5060	 8.9990
 0.5070	 9.0960
 0.5080	 9.2010
 0.5090	 9.3160
 0.5100	 9.4390
 0.5110	 9.5750
 0.5120	 9.7180
 0.5130	 9.8730
 0.5140	10.0540
 0.5150	10.2350
 0.5160	10.4220
 0.5170	10.6220
 0.5180	10.8280
 0.5190	11.0450
 0.5200	11.2730
 0.5210	11.5040
 0.5220	11.7360
 0.5230	11.9690
 0.5240	12.2000
 0.5250	12.4190
 0.5260	12.6300
 0.5270	12.8340
 0.5280	13.0310
 0.5290	13.2110
 0.5300	13.3770
 0.5310	13.5300
 0.5320	13.6700
 0.5330	13.8000
 0.5340	13.9170
 0.5350	14.0160
 0.5360	14.1120
 0.5370	14.1940
 0.5380	14.2620
 0.5390	14.3270
 0.5400	14.3830
 0.5410	14.4350
 0.5420	14.4830
 0.5430	14.5300
 0.5440	14.5720
 0.5450	14.6130
 0.5460	14.6560
 0.5470	14.6970
 0.5480	14.7390
 0.5490	14.7740
 0.5500	14.7930
 0.5510	14.8070
 0.5520	14.8150
 0.5530	14.8120
 0.5540	14.7930
 0.5550	14.7610
 0.5560	14.7160
 0.5570	14.6560
 0.5580	14.5800
 0.5590	14.4930
 0.5600	14.3970
 0.5610	14.2980
 0.5620	14.1880
 0.5630	14.0680
 0.5640	13.9410
 0.5650	13.8030
 0.5660	13.6740
 0.5670	13.5520
 0.5680	13.4130
 0.5690	13.2650
 0.5700	13.1160
 0.5710	12.9740
 0.5720	12.8390
 0.5730	12.7090
 0.5740	12.5800
 0.5750	12.4490
 0.5760	12.3160
 0.5770	12.1850
 0.5780	12.0610
 0.5790	11.9480
 0.5800	11.8510
 0.5810	11.7700
 0.5820	11.7050
 0.5830	11.6460
 0.5840	11.5870
 0.5850	11.5280
 0.5860	11.4760
 0.5870	11.4320
 0.5880	11.3950
 0.5890	11.3620
 0.5900	11.3310
 0.5910	11.2960
 0.5920	11.2610
 0.5930	11.2270
 0.5940	11.1910
 0.5950	11.1640
 0.5960	11.1470
 0.5970	11.1250
 0.5980	11.1010
 0.5990	11.0740
 0.6000	11.0460
 0.6010	11.0100
 0.6020	10.9710
 0.6030	10.9290
 0.6040	10.8800
 0.6050	10.8320
 0.6060	10.7790
 0.6070	10.7190
 0.6080	10.6590
 0.6090	10.5950
 0.6100	10.5250
 0.6110	10.4540
 0.6120	10.3900
 0.6130	10.3260
 0.6140	10.2630
 0.6150	10.2040
 0.6160	10.1460
 0.6170	10.0890
 0.6180	10.0360
 0.6190	 9.9890
 0.6200	 9.9440
 0.6210	 9.9040
 0.6220	 9.8760
 0.6230	 9.8510
 0.6240	 9.8270
 0.6250	 9.8030
 0.6260	 9.7860
 0.6270	 9.7750
 0.6280	 9.7660
 0.6290	 9.7560
 0.6300	 9.7420
 0.6310	 9.7310
 0.6320	 9.7230
 0.6330	 9.7100
 0.6340	 9.6920
 0.6350	 9.6670
 0.6360	 9.6350
 0.6370	 9.5950
 0.6380	 9.5480
 0.6390	 9.4960
 0.6400	 9.4400
 0.6410	 9.3810
 0.6420	 9.3190
 0.6430	 9.2540
 0.6440	 9.1880
 0.6450	 9.1220
 0.6460	 9.0600
 0.6470	 9.0040
 0.6480	 8.9470
 0.6490	 8.8960
 0.6500	 8.8510
 0.6510	 8.8110
 0.6520	 8.7740
 0.6530	 8.7410
 0.6540	 8.7110
 0.6550	 8.6740
 0.6560	 8.6350
 0.6570	 8.5940
 0.6580	 8.5500
 0.6590	 8.5000
 0.6600	 8.4510
 0.6610	 8.4050
 0.6620	 8.3590
 0.6630	 8.3180
 0.6640	 8.2810
 0.6650	 8.2460
 0.6660	 8.2200
 0.6670	 8.1980
 0.6680	 8.1800
 0.6690	 8.1710
 0.6700	 8.1720
 0.6710	 8.1760
 0.6720	 8.1800
 0.6730	 8.1900
 0.6740	 8.2070
 0.6750	 8.2300
 0.6760	 8.2580
 0.6770	 8.2860
 0.6780	 8.3200
 0.6790	 8.3610
 0.6800	 8.4060
 0.6810	 8.4590
 0.6820	 8.5180
 0.6830	 8.5810
 0.6840	 8.6540
 0.6850	 8.7380
 0.6860	 8.8360
 0.6870	 8.9550
 0.6880	 9.1010
 0.6890	 9.2720
 0.6900	 9.4770
 0.6910	 9.7290
 0.6920	10.0330
 0.6930	10.3940
 0.6940	10.8160
 0.6950	11.2980
 0.6960	11.8430
 0.6970	12.4510
 0.6980	13.1210
 0.6990	13.8470
 0.7000	14.6240
 0.7010	15.4450
 0.7020	16.3020
 0.7030	17.1860
 0.7040	18.0890
 0.7050	19.0060
 0.7060	19.9310
 0.7070	20.8650
 0.7080	21.8010
 0.7090	22.7320
 0.7100	23.6630
 0.7110	24.5910
 0.7120	25.5140
 0.7130	26.4290
 0.7140	27.3340
 0.7150	28.2320
 0.7160	29.1210
 0.7170	29.9890
 0.7180	30.8410
 0.7190	31.6770
 0.7200	32.4970
 0.7210	33.2970
 0.7220	34.0760
 0.7230	34.8340
 0.7240	35.5670
 0.7250	36.2660
 0.7260	36.9390
 0.7270	37.5910
 0.7280	38.2140
 0.7290	38.8080
 0.7300	39.3720
 0.7310	39.9030
 0.7320	40.4140
 0.7330	40.8940
 0.7340	41.3430
 0.7350	41.7700
 0.7360	42.1780
 0.7370	42.5580
 0.7380	42.9060
 0.7390	43.2390
 0.7400	43.5480
 0.7410	43.8340
 0.7420	44.1010
 0.7430	44.3520
 0.7440	44.5790
 0.7450	44.7880
 0.7460	44.9890
 0.7470	45.1630
 0.7480	45.3200
 0.7490	45.4700
 0.7500	45.6020
 0.7510	45.7220
 0.7520	45.8330
 0.7530	45.9360
 0.7540	46.0290
 0.7550	46.1100
 0.7560	46.1830
 0.7570	46.2520
 0.7580	46.3140
 0.7590	46.3690
 0.7600	46.4190
 0.7610	46.4720
 0.7620	46.5180
 0.7630	46.5530
 0.7640	46.5800
 0.7650	46.6150
 0.7660	46.6430
 0.7670	46.6650
 0.7680	46.6950
 0.7690	46.7150
 0.7700	46.7320
 0.7710	46.7500
 0.7720	46.7670
 0.7730	46.7820
 0.7740	46.7990
 0.7750	46.8190
 0.7760	46.8360
 0.7770	46.8530
 0.7780	46.8680
 0.7790	46.8780
 0.7800	46.8940
 0.7810	46.9090
 0.7820	46.9200
 0.7830	46.9320
 0.7840	46.9460
 0.7850	46.9630
 0.7860	46.9820
 0.7870	46.9920
 0.7880	47.0010
 0.7890	47.0120
 0.7900	47.0280
 0.7910	47.0370
 0.7920	47.0440
 0.7930	47.0530
 0.7940	47.0660
 0.7950	47.0740
 0.7960	47.0820
 0.7970	47.0920
 0.7980	47.0930
 0.7990	47.0990
 0.8000	47.1050
 0.8010	47.1070
 0.8020	47.1140
 0.8030	47.1160
 0.8040	47.1150
 0.8050	47.1170
 0.8060	47.1210
 0.8070	47.1230
 0.8080	47.1200
 0.8090	47.1150
 0.8100	47.1180
 0.8110	47.1180
 0.8120	47.1130
 0.8130	47.1110
 0.8140	47.1050
 0.8150	47.0980
 0.8160	47.0920
 0.8170	47.0950
 0.8180	47.0890
 0.8190	47.0760
 0.8200	47.0720
 0.8210	47.0690
 0.8220	47.0610
 0.8230	47.0500
 0.8240	47.0450
 0.8250	47.0350
 0.8260	47.0250
 0.8270	47.0150
 0.8280	47.0000
 0.8290	46.9870
 0.8300	46.9810
 0.8310	46.9790
 0.8320	46.9620
 0.8330	46.9470
 0.8340	46.9380
 0.8350	46.9350
 0.8360	46.9260
 0.8370	46.9160
 0.8380	46.9090
 0.8390	46.9060
 0.8400	46.8990
 0.8410	46.8930
 0.8420	46.8890
 0.8430	46.8830
 0.8440	46.8790
 0.8450	46.8780
 0.8460	46.8770
 0.8470	46.8710
 0.8480	46.8690
 0.8490	46.8650
 0.8500	46.8560
 0.8510	46.8540
 0.8520	46.8510
 0.8530	46.8500
 0.8540	46.8540
 0.8550	46.8550
 0.8560	46.8570
 0.8570	46.8570
 0.8580	46.8490
 0.8590	46.8500
 0.8600	46.8580
 0.8610	46.8650
 0.8620	46.8560
 0.8630	46.8550
 0.8640	46.8590
 0.8650	46.8590
 0.8660	46.8560
 0.8670	46.8640
 0.8680	46.8730
 0.8690	46.8730
 0.8700	46.8690
 0.8710	46.8730
 0.8720	46.8820
 0.8730	46.8870
 0.8740	46.8850
 0.8750	46.8830
 0.8760	46.8870
 0.8770	46.8980
 0.8780	46.9060
 0.8790	46.9080
 0.8800	46.9050
 0.8810	46.9100
 0.8820	46.9200
 0.8830	46.9250
 0.8840	46.9240
 0.8850	46.9340
 0.8860	46.9350
 0.8870	46.9340
 0.8880	46.9420
 0.8890	46.9450
 0.8900	46.9440
 0.8910	46.9470
 0.8920	46.9600
 0.8930	46.9650
 0.8940	46.9660
 0.8950	46.9650
 0.8960	46.9640
 0.8970	46.9740
 0.8980	46.9820
 0.8990	46.9820
 0.9000	46.9850
 0.9010	46.9940
 0.9020	47.0010
 0.9030	46.9990
 0.9040	46.9950
 0.9050	46.9980
 0.9060	47.0020
 0.9070	47.0030
 0.9080	47.0090
 0.9090	47.0130
 0.9100	47.0180
 0.9110	47.0240
 0.9120	47.0180
 0.9130	47.0240
 0.9140	47.0310
 0.9150	47.0240
 0.9160	47.0160
 0.9170	47.0080
 0.9180	47.0100
 0.9190	47.0270
 0.9200	47.0230
 0.9210	47.0190
 0.9220	47.0140
 0.9230	47.0000
 0.9240	47.0080
 0.9250	47.0040
 0.9260	46.9860
 0.9270	46.9720
 0.9280	46.9580
 0.9290	46.9490
 0.9300	46.9420
 0.9310	46.9250
 0.9320	46.9050
 0.9330	46.8820
 0.9340	46.8610
 0.9350	46.8490
 0.9360	46.8250
 0.9370	46.7960
 0.9380	46.7720
 0.9390	46.7580
 0.9400	46.7270
 0.9410	46.6930
 0.9420	46.6640
 0.9430	46.6350
 0.9440	46.6040
 0.9450	46.5680
 0.9460	46.5240
 0.9470	46.4840
 0.9480	46.4350
 0.9490	46.3820
 0.9500	46.3300
 0.9510	46.2740
 0.9520	46.2110
 0.9530	46.1490
 0.9540	46.0910
 0.9550	46.0290
 0.9560	45.9740
 0.9570	45.9120
 0.9580	45.8330
 0.9590	45.7650
 0.9600	45.7150
 0.9610	45.6730
 0.9620	45.6320
 0.9630	45.6120
 0.9640	45.5660
 0.9650	45.5150
 0.9660	45.4920
 0.9670	45.4670
 0.9680	45.4420
 0.9690	45.4250
 0.9700	45.4170
 0.9710	45.3890
 0.9720	45.3560
 0.9730	45.3380
 0.9740	45.3480
 0.9750	45.3490
 0.9760	45.3330
 0.9770	45.3150
 0.9780	45.3110
 0.9790	45.3050
 0.9800	45.3040
 0.9810	45.3060
 0.9820	45.3060
 0.9830	45.3060
 0.9840	45.3080
 0.9850	45.3140
 0.9860	45.3210
 0.9870	45.3240
 0.9880	45.3260
 0.9890	45.3330
 0.9900	45.3480
 0.9910	45.3520
 0.9920	45.3740
 0.9930	45.3970
 0.9940	45.4190
 0.9950	45.4410
 0.9960	45.4640
 0.9970	45.4860
 0.9980	45.5080
 0.9990	45.5300
 1.0000	45.5530
 1.0010	45.5750
 1.0020	45.5970
 1.0030	45.6200
 1.0040	45.6420
 1.0050	45.6640
 1.0060	45.6860
 1.0070	45.7090
 1.0080	45.7310
 1.0090	45.7530
 1.0100	45.7530
 1.0110	45.7720
 1.0120	45.7920
 1.0130	45.8130
 1.0140	45.8330
 1.0150	45.8540
 1.0160	45.8720
 1.0170	45.8900
 1.0180	45.9130
 1.0190	45.9310
 1.0200	45.9490
 1.0210	45.9690
 1.0220	45.9870
 1.0230	46.0030
 1.0240	46.0200
 1.0250	46.0370
 1.0260	46.0540
 1.0270	46.0700
 1.0280	46.0890
 1.0290	46.1070
 1.0300	46.1230
 1.0310	46.1380
 1.0320	46.1530
 1.0330	46.1690
 1.0340	46.1840
 1.0350	46.1940
 1.0360	46.2060
 1.0370	46.2200
 1.0380	46.2320
 1.0390	46.2450
 1.0400	46.2550
 1.0410	46.2640
 1.0420	46.2750
 1.0430	46.2860
 1.0440	46.2970
 1.0450	46.3090
 1.0460	46.3200
 1.0470	46.3270
 1.0480	46.3380
 1.0490	46.3530
 1.0500	46.3630
 1.0510	46.3720
 1.0520	46.3790
 1.0530	46.3860
 1.0540	46.3900
 1.0550	46.3960
 1.0560	46.4040
 1.0570	46.4120
 1.0580	46.4190
 1.0590	46.4250
 1.0600	46.4310
 1.0610	46.4370
 1.0620	46.4420
 1.0630	46.4460
 1.0640	46.4470
 1.0650	46.4530
 1.0660	46.4640
 1.0670	46.4680
 1.0680	46.4710
 1.0690	46.4760
 1.0700	46.4780
 1.0710	46.4740
 1.0720	46.4750
 1.0730	46.4800
 1.0740	46.4840
 1.0750	46.4890
 1.0760	46.4900
 1.0770	46.4920
 1.0780	46.4910
 1.0790	46.4840
 1.0800	46.4820
 1.0810	46.4850
 1.0820	46.4830
 1.0830	46.4820
 1.0840	46.4810
 1.0850	46.4770
 1.0860	46.4710
 1.0870	46.4650
 1.0880	46.4580
 1.0890	46.4530
 1.0900	46.4470
 1.0910	46.4400
 1.0920	46.4350
 1.0930	46.4270
 1.0940	46.4170
 1.0950	46.4080
 1.0960	46.3980
 1.0970	46.3880
 1.0980	46.3790
 1.0990	46.3670
 1.1000	46.3540
 1.1010	46.3410
 1.1020	46.3250
 1.1030	46.3090
 1.1040	46.2990
 1.1050	46.2850
 1.1060	46.2700
 1.1070	46.2570
 1.1080	46.2410
 1.1090	46.2230
 1.1100	46.2050
 1.1110	46.1860
 1.1120	46.1670
 1.1130	46.1450
 1.1140	46.1240
 1.1150	46.1050
 1.1160	46.0810
 1.1170	46.0560
 1.1180	46.0280
 1.1190	45.9960
 1.1200	45.9600
 1.1210	45.9230
 1.1220	45.8830
 1.1230	45.8430
 1.1240	45.8010
 1.1250	45.7520
 1.1260	45.7010
 1.1270	45.6430
 1.1280	45.5780
 1.1290	45.5100
 1.1300	45.4410
 1.1310	45.3630
 1.1320	45.2810
 1.1330	45.1920
 1.1340	45.0950
 1.1350	44.9920
 1.1360	44.8810
 1.1370	44.7640
 1.1380	44.6420
 1.1390	44.5170
 1.1400	44.3900
 1.1410	44.2600
 1.1420	44.1240
 1.1430	43.9860
 1.1440	43.8490
 1.1450	43.7080
 1.1460	43.5710
 1.1470	43.4340
 1.1480	43.3020
 1.1490	43.1670
 1.1500	43.0450
 1.1510	42.9290
 1.1520	42.8210
 1.1530	42.7210
 1.1540	42.6280
 1.1550	42.5420
 1.1560	42.4640
 1.1570	42.3920
 1.1580	42.3290
 1.1590	42.2730
 1.1600	42.2220
 1.1610	42.1790
 1.1620	42.1430
 1.1630	42.1100
 1.1640	42.0810
 1.1650	42.0550
 1.1660	42.0340
 1.1670	42.0160
 1.1680	42.0030
 1.1690	41.9900
 1.1700	41.9800
 1.1710	41.9700
 1.1720	41.9610
 1.1730	41.9520
 1.1740	41.9450
 1.1750	41.9380
 1.1760	41.9290
 1.1770	41.9220
 1.1780	41.9130
 1.1790	41.9030
 1.1800	41.8930
 1.1810	41.8790
 1.1820	41.8670
 1.1830	41.8560
 1.1840	41.8430
 1.1850	41.8340
 1.1860	41.8240
 1.1870	41.8130
 1.1880	41.8040
 1.1890	41.7960
 1.1900	41.7900
 1.1910	41.7860
 1.1920	41.7840
 1.1930	41.7850
 1.1940	41.7850
 1.1950	41.7840
 1.1960	41.7840
 1.1970	41.7870
 1.1980	41.7910
 1.1990	41.7940
 1.2000	41.8010
 1.2010	41.8070
 1.2020	41.8150
 1.2030	41.8240
 1.2040	41.8360
 1.2050	41.8470
 1.2060	41.8580
 1.2070	41.8730
 1.2080	41.8890
 1.2090	41.9050
 1.2100	41.9210
 1.2110	41.9380
 1.2120	41.9540
 1.2130	41.9730
 1.2140	41.9930
 1.2150	42.0130
 1.2160	42.0340
 1.2170	42.0560
 1.2180	42.0750
 1.2190	42.0930
 1.2200	42.1130
 1.2210	42.1330
 1.2220	42.1530
 1.2230	42.1740
 1.2240	42.1950
 1.2250	42.2140
 1.2260	42.2330
 1.2270	42.2510
 1.2280	42.2690
 1.2290	42.2870
 1.2300	42.3040
 1.2310	42.3210
 1.2320	42.3380
 1.2330	42.3540
 1.2340	42.3690
 1.2350	42.3860
 1.2360	42.4020
 1.2370	42.4190
 1.2380	42.4340
 1.2390	42.4470
 1.2400	42.4600
 1.2410	42.4710
 1.2420	42.4820
 1.2430	42.4940
 1.2440	42.5050
 1.2450	42.5160
 1.2460	42.5260
 1.2470	42.5370
 1.2480	42.5460
 1.2490	42.5560
 1.2500	42.5650
 1.2510	42.5720
 1.2520	42.5800
 1.2530	42.5870
 1.2540	42.5920
 1.2550	42.5970
 1.2560	42.6000
 1.2570	42.6030
 1.2580	42.6050
 1.2590	42.6050
 1.2600	42.6050
 1.2610	42.6040
 1.2620	42.6020
 1.2630	42.6000
 1.2640	42.5980
 1.2650	42.5950
 1.2660	42.5890
 1.2670	42.5830
 1.2680	42.5770
 1.2690	42.5700
 1.2700	42.5630
 1.2710	42.5510
 1.2720	42.5380
 1.2730	42.5250
 1.2740	42.5130
 1.2750	42.4990
 1.2760	42.4840
 1.2770	42.4680
 1.2780	42.4500
 1.2790	42.4330
 1.2800	42.4170
 1.2810	42.3990
 1.2820	42.3790
 1.2830	42.3580
 1.2840	42.3360
 1.2850	42.3140
 1.2860	42.2910
 1.2870	42.2660
 1.2880	42.2380
 1.2890	42.2080
 1.2900	42.1770
 1.2910	42.1440
 1.2920	42.1090
 1.2930	42.0730
 1.2940	42.0370
 1.2950	42.0000
 1.2960	41.9610
 1.2970	41.9210
 1.2980	41.8790
 1.2990	41.8330
 1.3000	41.7870
 1.3010	41.7370
 1.3020	41.6820
 1.3030	41.6260
 1.3040	41.5680
 1.3050	41.5080
 1.3060	41.4480
 1.3070	41.3840
 1.3080	41.3180
 1.3090	41.2480
 1.3100	41.1720
 1.3110	41.0910
 1.3120	41.0080
 1.3130	40.9230
 1.3140	40.8340
 1.3150	40.7400
 1.3160	40.6450
 1.3170	40.5470
 1.3180	40.4460
 1.3190	40.3440
 1.3200	40.2380
 1.3210	40.1290
 1.3220	40.0170
 1.3230	39.8990
 1.3240	39.7780
 1.3250	39.6560
 1.3260	39.5310
 1.3270	39.4040
 1.3280	39.2760
 1.3290	39.1420
 1.3300	39.0060
 1.3310	38.8700
 1.3320	38.7290
 1.3330	38.5880
 1.3340	38.4470
 1.3350	38.3030
 1.3360	38.1590
 1.3370	38.0130
 1.3380	37.8680
 1.3390	37.7230
 1.3400	37.5770
 1.3410	37.4350
 1.3420	37.2920
 1.3430	37.1500
 1.3440	37.0080
 1.3450	36.8670
 1.3460	36.7260
 1.3470	36.5890
 1.3480	36.4530
 1.3490	36.3190
 1.3500	36.1880
 1.3510	36.0550
 1.3520	35.9220
 1.3530	35.7910
 1.3540	35.6590
 1.3550	35.5280
 1.3560	35.3980
 1.3570	35.2650
 1.3580	35.1330
 1.3590	35.0010
 1.3600	34.8650
 1.3610	34.7280
 1.3620	34.5850
 1.3630	34.4380
 1.3640	34.2850
 1.3650	34.1240
 1.3660	33.9600
 1.3670	33.7870
 1.3680	33.6060
 1.3690	33.4170
 1.3700	33.2140
 1.3710	32.9990
 1.3720	32.7720
 1.3730	32.5270
 1.3740	32.2720
 1.3750	32.0010
 1.3760	31.7080
 1.3770	31.3980
 1.3780	31.0650
 1.3790	30.7120
 1.3800	30.3410
 1.3810	29.9490
 1.3820	29.5400
 1.3830	29.1130
 1.3840	28.6690
 1.3850	28.2080
 1.3860	27.7360
 1.3870	27.2440
 1.3880	26.7520
 1.3890	26.2490
 1.3900	25.7380
 1.3910	25.2290
 1.3920	24.7130
 1.3930	24.1930
 1.3940	23.6770
 1.3950	23.1590
 1.3960	22.6500
 1.3970	22.1520
 1.3980	21.6640
 1.3990	21.1940
 1.4000	20.7380
 1.4010	20.2930
 1.4020	19.8680
 1.4030	19.4570
 1.4040	19.0660
 1.4050	18.6950
 1.4060	18.3420
 1.4070	18.0110
 1.4080	17.7000
 1.4090	17.4070
 1.4100	17.1350
 1.4110	16.8790
 1.4120	16.6410
 1.4130	16.4200
 1.4140	16.2150
 1.4150	16.0290
 1.4160	15.8570
 1.4170	15.6980
 1.4180	15.5540
 1.4190	15.4200
 1.4200	15.2980
 1.4210	15.1870
 1.4220	15.0850
 1.4230	14.9950
 1.4240	14.9130
 1.4250	14.8390
 1.4260	14.7730
 1.4270	14.7140
 1.4280	14.6630
 1.4290	14.6160
 1.4300	14.5770
 1.4310	14.5430
 1.4320	14.5140
 1.4330	14.4900
 1.4340	14.4700
 1.4350	14.4540
 1.4360	14.4420
 1.4370	14.4350
 1.4380	14.4300
 1.4390	14.4290
 1.4400	14.4300
 1.4410	14.4330
 1.4420	14.4380
 1.4430	14.4460
 1.4440	14.4550
 1.4450	14.4670
 1.4460	14.4800
 1.4470	14.4940
 1.4480	14.5090
 1.4490	14.5250
 1.4500	14.5430
 1.4510	14.5620
 1.4520	14.5810
 1.4530	14.6020
 1.4540	14.6250
 1.4550	14.6480
 1.4560	14.6730
 1.4570	14.7010
 1.4580	14.7280
 1.4590	14.7580
 1.4600	14.7930
 1.4610	14.8300
 1.4620	14.8710
 1.4630	14.9160
 1.4640	14.9620
 1.4650	15.0120
 1.4660	15.0670
 1.4670	15.1240
 1.4680	15.1880
 1.4690	15.2550
 1.4700	15.3250
