Name: Abies concolor 3
Type: vegetation
Class: Tree
Genus: Abies
Species: concolor
Sample No.: VH265
Owner: UCSB
Wavelength Range: TIR
Origin: 37.0439; -119.3058; WGS84
Collection Date: 11/2/2013
Description: Samples were collected as part of the HyspIRI Airborne Campaign. 48 individual plants were sampled in three times in 2013 - spring  summer  and fall. The name of the sample includes a 1  2  or 3 which references a different individual of the species. Samples were taken to JPL and processed within 48 hours of collection. The same leaves were processed in the Nicolet and then measured using the ASD.
Measurement: Hemispherical reflectance
First Column: X
Second Column: Y
X Units: Wavelength (micrometers)
Y Units: Reflectance (percentage)
First X Value: 2.501
Last X Value: 15.387
Number of X Values: 1737
Additional Information: vegetation.tree.abies.concolor.tir.vh265.ucsb.nicolet.ancillary.txt

 2.5010	 7.2930
 2.5030	 7.1590
 2.5040	 7.0940
 2.5050	 6.9850
 2.5060	 6.8530
 2.5070	 6.7510
 2.5090	 6.8610
 2.5100	 7.0010
 2.5110	 7.0670
 2.5120	 6.9860
 2.5140	 6.9530
 2.5150	 6.9720
 2.5160	 7.0170
 2.5170	 6.9350
 2.5180	 6.9740
 2.5200	 6.9530
 2.5210	 6.9800
 2.5220	 6.9760
 2.5230	 6.9710
 2.5250	 6.7610
 2.5260	 6.6630
 2.5270	 6.7150
 2.5280	 6.8880
 2.5290	 6.9570
 2.5310	 7.1440
 2.5320	 7.1000
 2.5330	 7.0760
 2.5340	 6.8930
 2.5360	 6.7760
 2.5370	 6.7400
 2.5380	 6.7620
 2.5390	 6.9210
 2.5410	 7.0650
 2.5420	 7.0050
 2.5430	 6.9940
 2.5440	 6.9490
 2.5460	 6.9030
 2.5470	 6.8570
 2.5480	 6.9160
 2.5490	 6.8990
 2.5510	 6.9490
 2.5520	 6.9060
 2.5530	 6.9590
 2.5540	 7.1370
 2.5560	 7.1280
 2.5570	 6.8370
 2.5580	 6.7350
 2.5590	 6.7760
 2.5610	 6.9350
 2.5620	 7.0730
 2.5630	 7.0120
 2.5640	 7.0140
 2.5660	 7.0820
 2.5670	 6.9340
 2.5680	 6.7960
 2.5700	 6.7780
 2.5710	 6.9300
 2.5720	 6.9420
 2.5730	 7.0280
 2.5750	 7.1130
 2.5760	 7.0920
 2.5770	 6.9690
 2.5790	 6.8550
 2.5800	 6.7190
 2.5810	 6.8240
 2.5820	 6.8870
 2.5840	 6.8650
 2.5850	 6.8650
 2.5860	 7.0190
 2.5880	 6.8080
 2.5890	 6.8020
 2.5900	 6.7910
 2.5910	 6.7530
 2.5930	 6.6520
 2.5940	 6.5860
 2.5950	 6.7270
 2.5970	 6.9690
 2.5980	 7.0690
 2.5990	 7.0660
 2.6000	 6.9240
 2.6020	 6.9230
 2.6030	 6.8960
 2.6040	 6.9570
 2.6060	 6.8490
 2.6070	 6.8500
 2.6080	 6.8590
 2.6100	 6.9280
 2.6110	 6.9230
 2.6120	 6.9730
 2.6140	 6.8780
 2.6150	 6.8080
 2.6160	 6.6560
 2.6180	 6.6670
 2.6190	 6.7360
 2.6200	 6.6380
 2.6220	 6.6080
 2.6230	 6.6780
 2.6240	 6.7010
 2.6260	 6.9120
 2.6270	 6.8120
 2.6280	 6.7150
 2.6300	 6.5880
 2.6310	 6.6840
 2.6320	 6.7670
 2.6340	 6.7680
 2.6350	 6.6280
 2.6360	 6.6100
 2.6380	 6.5450
 2.6390	 6.6360
 2.6400	 6.6010
 2.6420	 6.6690
 2.6430	 6.6910
 2.6440	 6.6840
 2.6460	 6.6600
 2.6470	 6.7400
 2.6480	 6.5270
 2.6500	 6.3420
 2.6510	 6.3160
 2.6520	 6.3700
 2.6540	 6.3710
 2.6550	 6.4990
 2.6560	 6.3410
 2.6580	 6.4200
 2.6590	 6.4200
 2.6610	 6.4160
 2.6620	 6.3110
 2.6630	 6.1550
 2.6650	 6.0030
 2.6660	 5.9910
 2.6670	 5.9650
 2.6690	 6.1180
 2.6700	 6.1100
 2.6720	 6.1370
 2.6730	 6.1830
 2.6740	 6.1870
 2.6760	 5.9980
 2.6770	 6.0630
 2.6780	 6.1250
 2.6800	 6.1230
 2.6810	 5.9340
 2.6830	 5.9570
 2.6840	 6.0850
 2.6850	 6.1780
 2.6870	 6.0170
 2.6880	 5.9580
 2.6900	 5.8660
 2.6910	 5.7450
 2.6920	 5.7240
 2.6940	 5.8420
 2.6950	 5.8290
 2.6970	 5.7860
 2.6980	 5.8270
 2.6990	 6.1230
 2.7010	 6.2320
 2.7020	 6.1160
 2.7040	 5.9130
 2.7050	 5.9960
 2.7060	 5.9440
 2.7080	 5.8380
 2.7090	 5.7190
 2.7110	 5.6640
 2.7120	 5.6880
 2.7130	 5.8790
 2.7150	 5.8620
 2.7160	 5.8750
 2.7180	 5.8470
 2.7190	 5.8790
 2.7210	 5.6380
 2.7220	 5.6410
 2.7230	 5.6440
 2.7250	 5.5910
 2.7260	 5.6090
 2.7280	 5.7830
 2.7290	 5.8080
 2.7310	 5.7800
 2.7320	 5.6970
 2.7330	 5.8300
 2.7350	 5.6680
 2.7360	 5.6200
 2.7380	 5.4700
 2.7390	 5.4470
 2.7410	 5.5720
 2.7420	 5.6900
 2.7440	 5.9540
 2.7450	 6.0640
 2.7470	 5.6990
 2.7480	 5.5790
 2.7490	 5.8680
 2.7510	 6.0860
 2.7520	 5.8100
 2.7540	 5.3580
 2.7550	 5.4290
 2.7570	 5.8440
 2.7580	 5.8020
 2.7600	 5.8780
 2.7610	 5.8860
 2.7630	 5.7420
 2.7640	 5.4700
 2.7660	 5.4850
 2.7670	 5.6920
 2.7680	 5.8520
 2.7700	 5.6350
 2.7710	 5.6880
 2.7730	 5.8100
 2.7740	 5.8010
 2.7760	 5.7600
 2.7770	 5.6280
 2.7790	 5.5330
 2.7800	 5.5730
 2.7820	 5.4940
 2.7830	 5.6050
 2.7850	 5.5620
 2.7860	 5.6060
 2.7880	 5.5160
 2.7890	 5.5600
 2.7910	 5.5910
 2.7920	 5.6920
 2.7940	 5.5600
 2.7950	 5.6490
 2.7970	 5.7320
 2.7980	 5.7410
 2.8000	 5.7100
 2.8010	 5.7710
 2.8030	 5.5390
 2.8040	 5.4330
 2.8060	 5.3800
 2.8070	 5.5770
 2.8090	 5.7680
 2.8110	 5.8660
 2.8120	 5.7070
 2.8140	 5.6470
 2.8150	 5.6360
 2.8170	 5.8200
 2.8180	 5.8830
 2.8200	 5.8960
 2.8210	 5.8960
 2.8230	 5.8410
 2.8240	 5.6560
 2.8260	 5.7190
 2.8270	 5.6820
 2.8290	 5.8170
 2.8300	 5.7840
 2.8320	 5.7270
 2.8340	 5.6540
 2.8350	 5.6220
 2.8370	 5.6690
 2.8380	 5.8080
 2.8400	 5.7290
 2.8410	 5.6980
 2.8430	 5.6420
 2.8440	 5.6120
 2.8460	 5.5020
 2.8480	 5.6000
 2.8490	 5.6820
 2.8510	 5.5410
 2.8520	 5.3690
 2.8540	 5.4240
 2.8550	 5.5120
 2.8570	 5.6930
 2.8590	 5.6580
 2.8600	 5.6150
 2.8620	 5.6930
 2.8630	 5.6500
 2.8650	 5.4560
 2.8660	 5.5210
 2.8680	 5.6520
 2.8700	 5.8050
 2.8710	 5.7910
 2.8730	 5.6460
 2.8740	 5.6510
 2.8760	 5.8050
 2.8780	 5.6960
 2.8790	 5.6200
 2.8810	 5.5440
 2.8820	 5.4190
 2.8840	 5.2400
 2.8860	 5.4320
 2.8870	 5.5170
 2.8890	 5.4960
 2.8900	 5.6970
 2.8920	 5.8720
 2.8940	 5.5590
 2.8950	 5.5060
 2.8970	 5.4840
 2.8980	 5.3990
 2.9000	 5.4370
 2.9020	 5.6350
 2.9030	 5.8930
 2.9050	 6.1630
 2.9070	 5.9690
 2.9080	 5.7440
 2.9100	 5.5170
 2.9120	 5.5150
 2.9130	 5.4190
 2.9150	 5.5490
 2.9160	 5.5730
 2.9180	 5.6980
 2.9200	 5.6710
 2.9210	 5.6270
 2.9230	 5.5190
 2.9250	 5.7370
 2.9260	 5.8810
 2.9280	 5.8000
 2.9300	 5.6040
 2.9310	 5.7020
 2.9330	 5.8690
 2.9350	 5.8660
 2.9360	 5.4590
 2.9380	 5.4890
 2.9400	 5.8910
 2.9410	 6.3710
 2.9430	 6.0720
 2.9450	 5.9720
 2.9460	 5.5790
 2.9480	 5.3520
 2.9500	 5.3380
 2.9510	 5.0630
 2.9530	 4.9480
 2.9550	 5.2740
 2.9560	 5.1770
 2.9580	 5.2620
 2.9600	 4.7530
 2.9610	 4.9980
 2.9630	 5.5270
 2.9650	 5.9000
 2.9660	 5.5610
 2.9680	 5.6230
 2.9700	 6.2500
 2.9720	 6.8850
 2.9730	 6.0830
 2.9750	 4.7200
 2.9770	 4.8080
 2.9780	 5.7270
 2.9800	 5.7790
 2.9820	 5.8970
 2.9840	 5.6220
 2.9850	 5.3500
 2.9870	 5.5050
 2.9890	 5.6650
 2.9900	 6.5900
 2.9920	 6.8260
 2.9940	 6.1860
 2.9960	 6.9480
 2.9970	 6.2590
 2.9990	 6.5730
 3.0010	 6.4280
 3.0030	 5.9300
 3.0040	 5.9020
 3.0060	 5.6620
 3.0080	 5.6140
 3.0100	 6.2740
 3.0110	 6.5860
 3.0130	 6.3770
 3.0150	 5.8800
 3.0170	 5.0080
 3.0180	 5.4170
 3.0200	 5.9020
 3.0220	 5.5380
 3.0240	 5.3240
 3.0250	 5.6390
 3.0270	 5.9130
 3.0290	 6.0180
 3.0310	 5.8560
 3.0320	 5.9090
 3.0340	 5.9850
 3.0360	 5.6610
 3.0380	 5.2900
 3.0400	 5.5690
 3.0410	 5.8440
 3.0430	 5.7630
 3.0450	 5.1870
 3.0470	 5.3010
 3.0480	 6.7470
 3.0500	 5.3710
 3.0520	 4.2690
 3.0540	 6.9290
 3.0560	 7.5790
 3.0570	 5.3450
 3.0590	 4.3000
 3.0610	 4.8360
 3.0630	 5.5390
 3.0650	 5.6100
 3.0660	 6.1310
 3.0680	 5.8600
 3.0700	 4.9920
 3.0720	 4.8940
 3.0740	 5.0080
 3.0760	 5.2500
 3.0770	 5.5670
 3.0790	 5.4330
 3.0810	 5.5300
 3.0830	 5.6630
 3.0850	 5.7630
 3.0870	 5.7690
 3.0880	 5.8330
 3.0900	 5.7550
 3.0920	 5.6100
 3.0940	 5.6350
 3.0960	 5.7620
 3.0980	 5.5870
 3.0990	 5.5650
 3.1010	 5.5030
 3.1030	 5.5450
 3.1050	 5.5330
 3.1070	 5.3150
 3.1090	 5.3930
 3.1110	 5.3400
 3.1120	 5.3260
 3.1140	 5.5410
 3.1160	 5.8340
 3.1180	 5.6800
 3.1200	 5.4640
 3.1220	 5.6110
 3.1240	 5.6990
 3.1260	 5.7390
 3.1270	 5.8970
 3.1290	 5.5830
 3.1310	 5.3860
 3.1330	 5.4840
 3.1350	 5.4340
 3.1370	 6.0080
 3.1390	 5.2950
 3.1410	 4.6860
 3.1430	 5.9690
 3.1450	 5.0880
 3.1460	 4.1010
 3.1480	 5.7470
 3.1500	 6.9210
 3.1520	 6.6010
 3.1540	 5.5720
 3.1560	 5.3060
 3.1580	 5.2430
 3.1600	 6.1860
 3.1620	 6.6930
 3.1640	 5.9890
 3.1660	 5.3270
 3.1680	 5.5930
 3.1700	 5.8830
 3.1710	 5.4430
 3.1730	 5.2920
 3.1750	 5.3850
 3.1770	 5.0650
 3.1790	 4.8700
 3.1810	 3.7500
 3.1830	 4.6550
 3.1850	 6.2110
 3.1870	 6.3970
 3.1890	 5.6900
 3.1910	 5.5020
 3.1930	 5.7090
 3.1950	 5.8020
 3.1970	 5.5220
 3.1990	 5.6310
 3.2010	 5.8520
 3.2030	 5.6870
 3.2050	 5.4640
 3.2070	 5.3450
 3.2090	 5.4380
 3.2110	 5.6510
 3.2130	 5.6400
 3.2150	 5.5650
 3.2170	 5.5520
 3.2190	 5.6920
 3.2210	 5.6930
 3.2230	 5.6930
 3.2250	 5.4900
 3.2270	 5.4820
 3.2290	 5.6440
 3.2310	 5.7340
 3.2330	 5.5520
 3.2350	 5.8350
 3.2370	 5.8860
 3.2390	 5.7160
 3.2410	 5.6420
 3.2430	 5.7240
 3.2450	 5.9240
 3.2470	 5.8530
 3.2490	 5.6270
 3.2510	 5.5570
 3.2530	 5.5880
 3.2550	 5.6160
 3.2570	 5.5260
 3.2590	 5.4160
 3.2610	 5.3730
 3.2630	 5.5590
 3.2650	 5.5550
 3.2670	 5.4520
 3.2690	 5.4180
 3.2720	 5.4780
 3.2740	 5.3610
 3.2760	 5.3770
 3.2780	 5.3760
 3.2800	 5.4100
 3.2820	 5.4710
 3.2840	 5.5860
 3.2860	 5.6280
 3.2880	 5.5930
 3.2900	 5.5280
 3.2920	 5.5180
 3.2940	 5.5050
 3.2960	 5.4170
 3.2990	 5.4480
 3.3010	 5.6300
 3.3030	 5.6460
 3.3050	 5.3790
 3.3070	 5.3260
 3.3090	 5.1620
 3.3110	 4.9670
 3.3130	 5.0840
 3.3150	 5.2350
 3.3180	 5.2780
 3.3200	 5.2200
 3.3220	 5.0560
 3.3240	 5.0090
 3.3260	 5.2480
 3.3280	 5.3300
 3.3300	 5.3690
 3.3330	 5.2670
 3.3350	 5.0780
 3.3370	 5.1510
 3.3390	 5.2990
 3.3410	 5.3000
 3.3430	 5.4910
 3.3450	 5.3440
 3.3480	 5.2130
 3.3500	 5.1880
 3.3520	 5.2000
 3.3540	 5.2430
 3.3560	 5.3230
 3.3580	 5.1450
 3.3610	 5.0970
 3.3630	 4.9980
 3.3650	 5.0430
 3.3670	 5.1700
 3.3690	 5.2790
 3.3720	 5.1160
 3.3740	 5.0260
 3.3760	 5.0830
 3.3780	 5.1880
 3.3800	 5.1670
 3.3830	 5.2140
 3.3850	 5.1980
 3.3870	 5.2880
 3.3890	 5.2010
 3.3910	 5.0890
 3.3940	 5.0490
 3.3960	 4.9750
 3.3980	 4.8180
 3.4000	 4.8560
 3.4020	 4.9620
 3.4050	 4.9730
 3.4070	 4.9600
 3.4090	 5.2100
 3.4110	 5.3440
 3.4140	 5.4960
 3.4160	 5.6140
 3.4180	 5.7470
 3.4200	 5.9200
 3.4230	 6.3520
 3.4250	 6.8880
 3.4270	 7.4580
 3.4290	 7.6320
 3.4320	 7.4770
 3.4340	 7.2970
 3.4360	 7.0790
 3.4390	 6.8750
 3.4410	 6.6680
 3.4430	 6.4030
 3.4450	 6.5340
 3.4480	 6.6230
 3.4500	 6.5110
 3.4520	 6.3050
 3.4550	 6.2990
 3.4570	 6.2030
 3.4590	 6.1700
 3.4620	 6.1280
 3.4640	 6.2840
 3.4660	 6.3180
 3.4680	 6.1840
 3.4710	 6.0960
 3.4730	 6.0790
 3.4750	 5.9510
 3.4780	 5.9200
 3.4800	 5.8710
 3.4820	 5.8030
 3.4850	 5.6410
 3.4870	 5.6900
 3.4890	 5.6320
 3.4920	 5.5680
 3.4940	 5.6040
 3.4970	 5.5660
 3.4990	 5.5190
 3.5010	 5.5940
 3.5040	 5.8020
 3.5060	 6.3830
 3.5080	 7.0510
 3.5110	 7.4750
 3.5130	 7.4010
 3.5160	 7.1600
 3.5180	 6.8650
 3.5200	 6.8240
 3.5230	 6.6520
 3.5250	 6.5480
 3.5270	 6.4810
 3.5300	 6.3410
 3.5320	 6.2110
 3.5350	 6.2550
 3.5370	 6.3460
 3.5400	 6.3570
 3.5420	 6.2590
 3.5440	 6.2850
 3.5470	 6.1930
 3.5490	 6.1490
 3.5520	 6.0880
 3.5540	 6.1380
 3.5570	 6.0870
 3.5590	 6.0120
 3.5610	 6.0210
 3.5640	 6.0120
 3.5660	 6.0630
 3.5690	 6.1590
 3.5710	 6.0770
 3.5740	 5.9790
 3.5760	 5.9090
 3.5790	 5.9510
 3.5810	 6.0130
 3.5840	 6.0790
 3.5860	 6.1230
 3.5890	 6.1120
 3.5910	 6.0340
 3.5930	 5.8610
 3.5960	 5.8700
 3.5980	 5.9600
 3.6010	 5.8640
 3.6030	 5.8850
 3.6060	 5.7410
 3.6080	 5.7650
 3.6110	 5.8620
 3.6140	 5.9330
 3.6160	 5.8860
 3.6190	 5.8140
 3.6210	 5.8600
 3.6240	 5.9360
 3.6260	 5.8870
 3.6290	 5.9010
 3.6310	 5.9630
 3.6340	 6.0550
 3.6360	 6.0270
 3.6390	 6.0510
 3.6410	 5.9550
 3.6440	 5.8080
 3.6470	 5.7380
 3.6490	 5.8150
 3.6520	 5.9300
 3.6540	 5.9350
 3.6570	 5.8630
 3.6590	 5.9970
 3.6620	 5.9210
 3.6650	 5.7750
 3.6670	 5.9130
 3.6700	 6.1070
 3.6720	 5.9290
 3.6750	 5.8720
 3.6780	 5.8280
 3.6800	 5.7250
 3.6830	 5.7310
 3.6850	 5.7540
 3.6880	 5.7620
 3.6910	 5.8410
 3.6930	 5.8540
 3.6960	 5.8830
 3.6990	 5.8280
 3.7010	 5.8260
 3.7040	 5.8680
 3.7060	 5.9760
 3.7090	 5.9190
 3.7120	 5.8220
 3.7140	 5.8970
 3.7170	 6.0030
 3.7200	 5.9230
 3.7220	 5.9300
 3.7250	 5.8920
 3.7280	 5.8250
 3.7300	 5.7830
 3.7330	 5.9020
 3.7360	 5.9680
 3.7390	 6.0370
 3.7410	 5.9640
 3.7440	 5.7880
 3.7470	 5.7500
 3.7490	 5.7700
 3.7520	 5.7960
 3.7550	 5.9940
 3.7580	 5.9110
 3.7600	 5.7150
 3.7630	 5.7970
 3.7660	 5.9610
 3.7680	 5.9460
 3.7710	 5.9450
 3.7740	 5.9090
 3.7770	 5.9390
 3.7790	 5.9420
 3.7820	 5.9360
 3.7850	 5.9520
 3.7880	 5.9920
 3.7900	 5.9730
 3.7930	 5.9510
 3.7960	 5.8570
 3.7990	 5.8840
 3.8020	 5.8620
 3.8040	 5.8130
 3.8070	 5.8140
 3.8100	 5.9290
 3.8130	 5.9450
 3.8160	 5.9200
 3.8180	 5.7990
 3.8210	 5.8380
 3.8240	 5.8640
 3.8270	 5.9610
 3.8300	 5.9420
 3.8330	 5.9390
 3.8350	 6.0070
 3.8380	 5.9880
 3.8410	 5.9020
 3.8440	 6.0390
 3.8470	 5.9900
 3.8500	 5.8340
 3.8520	 5.8540
 3.8550	 5.9420
 3.8580	 5.8990
 3.8610	 5.9040
 3.8640	 5.9490
 3.8670	 6.0560
 3.8700	 6.0220
 3.8730	 5.9000
 3.8750	 5.9040
 3.8780	 5.9520
 3.8810	 5.9620
 3.8840	 5.9660
 3.8870	 5.8760
 3.8900	 5.9630
 3.8930	 6.0050
 3.8960	 5.9950
 3.8990	 5.9370
 3.9020	 5.9150
 3.9050	 5.8860
 3.9080	 5.9240
 3.9110	 6.0390
 3.9140	 6.0920
 3.9160	 6.1240
 3.9190	 6.0620
 3.9220	 5.9330
 3.9250	 5.8810
 3.9280	 5.8980
 3.9310	 5.9720
 3.9340	 5.9880
 3.9370	 6.0130
 3.9400	 5.9330
 3.9430	 5.8930
 3.9460	 5.9090
 3.9490	 5.9630
 3.9520	 5.9750
 3.9550	 6.0380
 3.9580	 5.9670
 3.9610	 5.9340
 3.9640	 5.9820
 3.9670	 6.0770
 3.9700	 6.0640
 3.9730	 5.9720
 3.9770	 5.9290
 3.9800	 5.9860
 3.9830	 6.0470
 3.9860	 6.1080
 3.9890	 6.0780
 3.9920	 6.0230
 3.9950	 5.9850
 3.9980	 6.0300
 4.0010	 6.0830
 4.0040	 6.1070
 4.0070	 6.0790
 4.0100	 6.0950
 4.0130	 6.0530
 4.0170	 6.0330
 4.0200	 6.0100
 4.0230	 5.9810
 4.0260	 5.9860
 4.0290	 6.0360
 4.0320	 5.9280
 4.0350	 5.8950
 4.0380	 5.9690
 4.0420	 5.9630
 4.0450	 5.8960
 4.0480	 5.8990
 4.0510	 5.9190
 4.0540	 5.8960
 4.0570	 5.8390
 4.0610	 5.9010
 4.0640	 5.9860
 4.0670	 6.0380
 4.0700	 5.9990
 4.0730	 6.0090
 4.0770	 5.9490
 4.0800	 5.9060
 4.0830	 5.9430
 4.0860	 5.9580
 4.0890	 5.9120
 4.0930	 5.9210
 4.0960	 5.8710
 4.0990	 5.9550
 4.1020	 5.9630
 4.1060	 5.9310
 4.1090	 5.9740
 4.1120	 6.0140
 4.1150	 5.9770
 4.1190	 5.9850
 4.1220	 5.9730
 4.1250	 5.9510
 4.1280	 5.9860
 4.1320	 6.0760
 4.1350	 6.0670
 4.1380	 5.9890
 4.1420	 6.0200
 4.1450	 6.0330
 4.1480	 5.9620
 4.1520	 5.9670
 4.1550	 5.9510
 4.1580	 6.0050
 4.1620	 6.0110
 4.1650	 5.9980
 4.1680	 5.9610
 4.1720	 5.9200
 4.1750	 5.9140
 4.1780	 5.8930
 4.1820	 5.8960
 4.1850	 6.0100
 4.1890	 6.0270
 4.1920	 6.0430
 4.1950	 5.9710
 4.1990	 5.8940
 4.2020	 5.8160
 4.2060	 5.7640
 4.2090	 5.7410
 4.2120	 5.7470
 4.2160	 5.7960
 4.2190	 5.8580
 4.2230	 5.7150
 4.2260	 5.6160
 4.2300	 5.3450
 4.2330	 5.1340
 4.2360	 5.0420
 4.2400	 5.1230
 4.2430	 5.3260
 4.2470	 5.6060
 4.2500	 5.7010
 4.2540	 5.6460
 4.2570	 5.4100
 4.2610	 5.2930
 4.2640	 5.4400
 4.2680	 5.6430
 4.2710	 5.6540
 4.2750	 5.7130
 4.2780	 5.8060
 4.2820	 5.7400
 4.2850	 5.6580
 4.2890	 5.7550
 4.2930	 5.8990
 4.2960	 5.9720
 4.3000	 5.6920
 4.3030	 5.7290
 4.3070	 5.8630
 4.3100	 5.7390
 4.3140	 5.6920
 4.3180	 5.7990
 4.3210	 5.6960
 4.3250	 5.7140
 4.3280	 5.8170
 4.3320	 5.7910
 4.3360	 5.7770
 4.3390	 5.7830
 4.3430	 5.7420
 4.3470	 5.7540
 4.3500	 5.7600
 4.3540	 5.8720
 4.3570	 5.8550
 4.3610	 5.7740
 4.3650	 5.7760
 4.3680	 5.7860
 4.3720	 5.8230
 4.3760	 5.8970
 4.3800	 5.9200
 4.3830	 5.9010
 4.3870	 5.9050
 4.3910	 5.8970
 4.3940	 5.8290
 4.3980	 5.8030
 4.4020	 5.8220
 4.4060	 5.8260
 4.4090	 5.8230
 4.4130	 5.8250
 4.4170	 5.8150
 4.4210	 5.7940
 4.4240	 5.8140
 4.4280	 5.9070
 4.4320	 5.8940
 4.4360	 5.8810
 4.4400	 5.9640
 4.4430	 5.9290
 4.4470	 5.8040
 4.4510	 5.8850
 4.4550	 5.9060
 4.4590	 5.9000
 4.4620	 5.9470
 4.4660	 5.8960
 4.4700	 5.8840
 4.4740	 5.9080
 4.4780	 5.8670
 4.4820	 5.8030
 4.4860	 5.7100
 4.4900	 5.7600
 4.4930	 5.8400
 4.4970	 5.9210
 4.5010	 5.9360
 4.5050	 5.8520
 4.5090	 5.8100
 4.5130	 5.8190
 4.5170	 5.8750
 4.5210	 5.8810
 4.5250	 5.8730
 4.5290	 5.8930
 4.5330	 5.9150
 4.5370	 5.8050
 4.5410	 5.7980
 4.5450	 5.8250
 4.5490	 5.7830
 4.5530	 5.7520
 4.5570	 5.7910
 4.5610	 5.8650
 4.5650	 5.7660
 4.5690	 5.6750
 4.5730	 5.7180
 4.5770	 5.7420
 4.5810	 5.7870
 4.5850	 5.7840
 4.5890	 5.8030
 4.5930	 5.7790
 4.5970	 5.8030
 4.6010	 5.8220
 4.6050	 5.8450
 4.6090	 5.8180
 4.6130	 5.8520
 4.6170	 5.9250
 4.6220	 5.9320
 4.6260	 5.7640
 4.6300	 5.7410
 4.6340	 5.8540
 4.6380	 5.8010
 4.6420	 5.7400
 4.6460	 5.7690
 4.6510	 5.7660
 4.6550	 5.7610
 4.6590	 5.7270
 4.6630	 5.7250
 4.6670	 5.7700
 4.6720	 5.7660
 4.6760	 5.6920
 4.6800	 5.6590
 4.6840	 5.7410
 4.6880	 5.7280
 4.6930	 5.6690
 4.6970	 5.6740
 4.7010	 5.7400
 4.7050	 5.7950
 4.7100	 5.7710
 4.7140	 5.7330
 4.7180	 5.7490
 4.7230	 5.7440
 4.7270	 5.7030
 4.7310	 5.7000
 4.7360	 5.7550
 4.7400	 5.7710
 4.7440	 5.7430
 4.7490	 5.7620
 4.7530	 5.7990
 4.7570	 5.8320
 4.7620	 5.8610
 4.7660	 5.7330
 4.7700	 5.7140
 4.7750	 5.7750
 4.7790	 5.7150
 4.7840	 5.6600
 4.7880	 5.8930
 4.7920	 5.8500
 4.7970	 5.7060
 4.8010	 5.7260
 4.8060	 5.6500
 4.8100	 5.6500
 4.8150	 5.7330
 4.8190	 5.8340
 4.8240	 5.8100
 4.8280	 5.7590
 4.8330	 5.7830
 4.8370	 5.7720
 4.8420	 5.6960
 4.8460	 5.7600
 4.8510	 5.7690
 4.8550	 5.7430
 4.8600	 5.7230
 4.8640	 5.7210
 4.8690	 5.7020
 4.8730	 5.7430
 4.8780	 5.7870
 4.8830	 5.7600
 4.8870	 5.7010
 4.8920	 5.6600
 4.8960	 5.7530
 4.9010	 5.8470
 4.9060	 5.8250
 4.9100	 5.8340
 4.9150	 5.7590
 4.9200	 5.7690
 4.9240	 5.8530
 4.9290	 5.7850
 4.9340	 5.7220
 4.9380	 5.7320
 4.9430	 5.8700
 4.9480	 5.8900
 4.9530	 5.8040
 4.9570	 5.7410
 4.9620	 5.7860
 4.9670	 5.8380
 4.9720	 5.7660
 4.9760	 5.6750
 4.9810	 5.7080
 4.9860	 5.8140
 4.9910	 5.8340
 4.9960	 5.8840
 5.0000	 5.9120
 5.0050	 5.8810
 5.0100	 5.8020
 5.0150	 5.7700
 5.0200	 5.8290
 5.0250	 5.9170
 5.0290	 5.8810
 5.0340	 5.8010
 5.0390	 5.7440
 5.0440	 5.7700
 5.0490	 5.7620
 5.0540	 5.7130
 5.0590	 5.7180
 5.0640	 5.8180
 5.0690	 5.9180
 5.0740	 5.8120
 5.0790	 5.7640
 5.0840	 5.8450
 5.0890	 5.8690
 5.0940	 5.8960
 5.0990	 5.8620
 5.1040	 5.7900
 5.1090	 5.8040
 5.1140	 5.8070
 5.1190	 5.7980
 5.1240	 5.8640
 5.1290	 5.8830
 5.1340	 5.9200
 5.1390	 5.9570
 5.1440	 5.9430
 5.1490	 5.8640
 5.1540	 5.6980
 5.1600	 5.6570
 5.1650	 5.7780
 5.1700	 5.8100
 5.1750	 5.8420
 5.1800	 5.7930
 5.1850	 5.8140
 5.1910	 5.8150
 5.1960	 5.7750
 5.2010	 5.8140
 5.2060	 5.8460
 5.2110	 5.7500
 5.2170	 5.8360
 5.2220	 5.9190
 5.2270	 5.9190
 5.2320	 5.8530
 5.2380	 5.8670
 5.2430	 5.9030
 5.2480	 5.8620
 5.2540	 5.8640
 5.2590	 5.8040
 5.2640	 5.7480
 5.2700	 5.7970
 5.2750	 5.7420
 5.2800	 5.6910
 5.2860	 5.7440
 5.2910	 5.8100
 5.2970	 5.7920
 5.3020	 5.7870
 5.3070	 5.7820
 5.3130	 5.8610
 5.3180	 5.9080
 5.3240	 5.9200
 5.3290	 5.8760
 5.3350	 5.8890
 5.3400	 5.8380
 5.3460	 5.7650
 5.3510	 5.7320
 5.3570	 5.7210
 5.3620	 5.7280
 5.3680	 5.8320
 5.3730	 5.8130
 5.3790	 5.8070
 5.3850	 5.7800
 5.3900	 5.7010
 5.3960	 5.7150
 5.4010	 5.7240
 5.4070	 5.7250
 5.4130	 5.8410
 5.4180	 5.8080
 5.4240	 5.7840
 5.4300	 5.8200
 5.4350	 5.8430
 5.4410	 5.8070
