Name: Pinus ponderosa 1
Type: vegetation
Class: Tree
Genus: Pinus
Species: ponderosa
Sample No.: VH154
Owner: UCSB
Wavelength Range: VSWIR
Origin: 37.0443; -119.3026; WGS84
Collection Date: 6/8/2013
Description: Samples were collected as part of the HyspIRI Airborne Campaign. 48 individual plants were sampled in three times in 2013 - spring  summer  and fall. The name of the sample includes a 1  2  or 3 which references a different individual of the species. Samples were taken to JPL and processed within 48 hours of collection. The same leaves were processed in the Nicolet and then measured using the ASD.
Measurement: Bidirectional reflectance
First Column: X
Second Column: Y
X Units: Wavelength (micrometers)
Y Units: Reflectance (percentage)
First X Value: 0.35
Last X Value: 2.5
Number of X Values: 2151
Additional Information: vegetation.tree.pinus.ponderosa.vswir.vh154.ucsb.asd.ancillary.txt

 0.3500	 8.3410
 0.3510	 8.3980
 0.3520	 8.5080
 0.3530	 8.5910
 0.3540	 8.6120
 0.3550	 8.5920
 0.3560	 8.6240
 0.3570	 8.6390
 0.3580	 8.5100
 0.3590	 8.4610
 0.3600	 8.4500
 0.3610	 8.4440
 0.3620	 8.4470
 0.3630	 8.4800
 0.3640	 8.5080
 0.3650	 8.4980
 0.3660	 8.4620
 0.3670	 8.5270
 0.3680	 8.6130
 0.3690	 8.5180
 0.3700	 8.4210
 0.3710	 8.4040
 0.3720	 8.4680
 0.3730	 8.5040
 0.3740	 8.5240
 0.3750	 8.5260
 0.3760	 8.5000
 0.3770	 8.4360
 0.3780	 8.4050
 0.3790	 8.4200
 0.3800	 8.4390
 0.3810	 8.4120
 0.3820	 8.3930
 0.3830	 8.4250
 0.3840	 8.4780
 0.3850	 8.4740
 0.3860	 8.4350
 0.3870	 8.4180
 0.3880	 8.4530
 0.3890	 8.4410
 0.3900	 8.4000
 0.3910	 8.4880
 0.3920	 8.5240
 0.3930	 8.5360
 0.3940	 8.5640
 0.3950	 8.5830
 0.3960	 8.5940
 0.3970	 8.5890
 0.3980	 8.5700
 0.3990	 8.5850
 0.4000	 8.6280
 0.4010	 8.6730
 0.4020	 8.6730
 0.4030	 8.6840
 0.4040	 8.7070
 0.4050	 8.7350
 0.4060	 8.7610
 0.4070	 8.7940
 0.4080	 8.8430
 0.4090	 8.9040
 0.4100	 8.9810
 0.4110	 9.0440
 0.4120	 9.0740
 0.4130	 9.1150
 0.4140	 9.1700
 0.4150	 9.2380
 0.4160	 9.3090
 0.4170	 9.3560
 0.4180	 9.4160
 0.4190	 9.4880
 0.4200	 9.5340
 0.4210	 9.5840
 0.4220	 9.6430
 0.4230	 9.7100
 0.4240	 9.7640
 0.4250	 9.8160
 0.4260	 9.8630
 0.4270	 9.8950
 0.4280	 9.9370
 0.4290	 9.9730
 0.4300	 9.9990
 0.4310	10.0470
 0.4320	10.0730
 0.4330	10.0860
 0.4340	10.1080
 0.4350	10.1370
 0.4360	10.1680
 0.4370	10.1980
 0.4380	10.2300
 0.4390	10.2600
 0.4400	10.2950
 0.4410	10.3370
 0.4420	10.3630
 0.4430	10.3890
 0.4440	10.4240
 0.4450	10.4740
 0.4460	10.5030
 0.4470	10.5310
 0.4480	10.5680
 0.4490	10.6040
 0.4500	10.6490
 0.4510	10.6970
 0.4520	10.7350
 0.4530	10.7700
 0.4540	10.7960
 0.4550	10.8140
 0.4560	10.8300
 0.4570	10.8540
 0.4580	10.8730
 0.4590	10.8790
 0.4600	10.8980
 0.4610	10.9070
 0.4620	10.9130
 0.4630	10.9200
 0.4640	10.9120
 0.4650	10.9200
 0.4660	10.9400
 0.4670	10.9340
 0.4680	10.9360
 0.4690	10.9390
 0.4700	10.9360
 0.4710	10.9360
 0.4720	10.9330
 0.4730	10.9340
 0.4740	10.9480
 0.4750	10.9500
 0.4760	10.9550
 0.4770	10.9700
 0.4780	10.9780
 0.4790	10.9870
 0.4800	10.9930
 0.4810	10.9930
 0.4820	11.0100
 0.4830	11.0240
 0.4840	11.0310
 0.4850	11.0380
 0.4860	11.0620
 0.4870	11.0930
 0.4880	11.1240
 0.4890	11.1580
 0.4900	11.2060
 0.4910	11.2590
 0.4920	11.3050
 0.4930	11.3710
 0.4940	11.4450
 0.4950	11.5210
 0.4960	11.6240
 0.4970	11.7280
 0.4980	11.8360
 0.4990	11.9560
 0.5000	12.0900
 0.5010	12.2450
 0.5020	12.4160
 0.5030	12.5910
 0.5040	12.7770
 0.5050	12.9820
 0.5060	13.2110
 0.5070	13.4470
 0.5080	13.7030
 0.5090	13.9790
 0.5100	14.2680
 0.5110	14.5740
 0.5120	14.9020
 0.5130	15.2500
 0.5140	15.6070
 0.5150	15.9720
 0.5160	16.3460
 0.5170	16.7310
 0.5180	17.1260
 0.5190	17.5280
 0.5200	17.9260
 0.5210	18.3110
 0.5220	18.6950
 0.5230	19.0710
 0.5240	19.4310
 0.5250	19.7670
 0.5260	20.0880
 0.5270	20.3900
 0.5280	20.6660
 0.5290	20.9220
 0.5300	21.1580
 0.5310	21.3700
 0.5320	21.5600
 0.5330	21.7360
 0.5340	21.8940
 0.5350	22.0320
 0.5360	22.1600
 0.5370	22.2770
 0.5380	22.3790
 0.5390	22.4650
 0.5400	22.5520
 0.5410	22.6350
 0.5420	22.7090
 0.5430	22.7870
 0.5440	22.8610
 0.5450	22.9340
 0.5460	23.0070
 0.5470	23.0710
 0.5480	23.1320
 0.5490	23.1880
 0.5500	23.2280
 0.5510	23.2550
 0.5520	23.2680
 0.5530	23.2640
 0.5540	23.2410
 0.5550	23.1970
 0.5560	23.1310
 0.5570	23.0430
 0.5580	22.9360
 0.5590	22.8130
 0.5600	22.6770
 0.5610	22.5320
 0.5620	22.3750
 0.5630	22.2050
 0.5640	22.0250
 0.5650	21.8310
 0.5660	21.6320
 0.5670	21.4300
 0.5680	21.2190
 0.5690	21.0040
 0.5700	20.7850
 0.5710	20.5690
 0.5720	20.3600
 0.5730	20.1610
 0.5740	19.9740
 0.5750	19.8040
 0.5760	19.6400
 0.5770	19.4810
 0.5780	19.3290
 0.5790	19.1920
 0.5800	19.0630
 0.5810	18.9370
 0.5820	18.8110
 0.5830	18.6880
 0.5840	18.5700
 0.5850	18.4590
 0.5860	18.3550
 0.5870	18.2570
 0.5880	18.1590
 0.5890	18.0590
 0.5900	17.9720
 0.5910	17.9030
 0.5920	17.8470
 0.5930	17.7910
 0.5940	17.7500
 0.5950	17.7170
 0.5960	17.6840
 0.5970	17.6500
 0.5980	17.6060
 0.5990	17.5560
 0.6000	17.5030
 0.6010	17.4410
 0.6020	17.3730
 0.6030	17.3020
 0.6040	17.2220
 0.6050	17.1350
 0.6060	17.0360
 0.6070	16.9250
 0.6080	16.8080
 0.6090	16.6840
 0.6100	16.5510
 0.6110	16.4160
 0.6120	16.2890
 0.6130	16.1680
 0.6140	16.0500
 0.6150	15.9310
 0.6160	15.8150
 0.6170	15.7060
 0.6180	15.6040
 0.6190	15.5110
 0.6200	15.4290
 0.6210	15.3570
 0.6220	15.2960
 0.6230	15.2400
 0.6240	15.1910
 0.6250	15.1530
 0.6260	15.1230
 0.6270	15.1030
 0.6280	15.0890
 0.6290	15.0730
 0.6300	15.0610
 0.6310	15.0460
 0.6320	15.0270
 0.6330	14.9990
 0.6340	14.9530
 0.6350	14.8910
 0.6360	14.8150
 0.6370	14.7110
 0.6380	14.5900
 0.6390	14.4550
 0.6400	14.3060
 0.6410	14.1420
 0.6420	13.9720
 0.6430	13.8000
 0.6440	13.6210
 0.6450	13.4440
 0.6460	13.2720
 0.6470	13.1090
 0.6480	12.9660
 0.6490	12.8370
 0.6500	12.7260
 0.6510	12.6380
 0.6520	12.5600
 0.6530	12.4850
 0.6540	12.4100
 0.6550	12.3290
 0.6560	12.2470
 0.6570	12.1540
 0.6580	12.0410
 0.6590	11.9180
 0.6600	11.7880
 0.6610	11.6520
 0.6620	11.5160
 0.6630	11.3810
 0.6640	11.2530
 0.6650	11.1380
 0.6660	11.0320
 0.6670	10.9370
 0.6680	10.8560
 0.6690	10.7900
 0.6700	10.7360
 0.6710	10.6950
 0.6720	10.6650
 0.6730	10.6460
 0.6740	10.6390
 0.6750	10.6390
 0.6760	10.6450
 0.6770	10.6630
 0.6780	10.6890
 0.6790	10.7250
 0.6800	10.7850
 0.6810	10.8590
 0.6820	10.9620
 0.6830	11.1030
 0.6840	11.2830
 0.6850	11.5160
 0.6860	11.8100
 0.6870	12.1750
 0.6880	12.6280
 0.6890	13.1680
 0.6900	13.8000
 0.6910	14.5280
 0.6920	15.3420
 0.6930	16.2360
 0.6940	17.2010
 0.6950	18.2160
 0.6960	19.2810
 0.6970	20.3840
 0.6980	21.5120
 0.6990	22.6550
 0.7000	23.8080
 0.7010	24.9640
 0.7020	26.1180
 0.7030	27.2630
 0.7040	28.3930
 0.7050	29.5070
 0.7060	30.6090
 0.7070	31.6970
 0.7080	32.7700
 0.7090	33.8300
 0.7100	34.8770
 0.7110	35.9170
 0.7120	36.9500
 0.7130	37.9650
 0.7140	38.9810
 0.7150	39.9840
 0.7160	40.9680
 0.7170	41.9570
 0.7180	42.9320
 0.7190	43.8930
 0.7200	44.8430
 0.7210	45.7780
 0.7220	46.7010
 0.7230	47.6070
 0.7240	48.4910
 0.7250	49.3490
 0.7260	50.1820
 0.7270	50.9930
 0.7280	51.7770
 0.7290	52.5250
 0.7300	53.2420
 0.7310	53.9390
 0.7320	54.5990
 0.7330	55.2280
 0.7340	55.8280
 0.7350	56.3950
 0.7360	56.9390
 0.7370	57.4560
 0.7380	57.9410
 0.7390	58.3990
 0.7400	58.8350
 0.7410	59.2480
 0.7420	59.6320
 0.7430	59.9900
 0.7440	60.3270
 0.7450	60.6440
 0.7460	60.9300
 0.7470	61.2000
 0.7480	61.4520
 0.7490	61.6840
 0.7500	61.8910
 0.7510	62.0780
 0.7520	62.2540
 0.7530	62.4210
 0.7540	62.5740
 0.7550	62.7100
 0.7560	62.8290
 0.7570	62.9380
 0.7580	63.0430
 0.7590	63.1400
 0.7600	63.2290
 0.7610	63.3120
 0.7620	63.3810
 0.7630	63.4440
 0.7640	63.5080
 0.7650	63.5720
 0.7660	63.6270
 0.7670	63.6770
 0.7680	63.7280
 0.7690	63.7660
 0.7700	63.8020
 0.7710	63.8430
 0.7720	63.8750
 0.7730	63.9140
 0.7740	63.9490
 0.7750	63.9720
 0.7760	63.9980
 0.7770	64.0320
 0.7780	64.0650
 0.7790	64.0850
 0.7800	64.1070
 0.7810	64.1390
 0.7820	64.1750
 0.7830	64.2020
 0.7840	64.2230
 0.7850	64.2460
 0.7860	64.2720
 0.7870	64.2960
 0.7880	64.3160
 0.7890	64.3360
 0.7900	64.3560
 0.7910	64.3810
 0.7920	64.4010
 0.7930	64.4170
 0.7940	64.4360
 0.7950	64.4470
 0.7960	64.4590
 0.7970	64.4770
 0.7980	64.4930
 0.7990	64.5060
 0.8000	64.5180
 0.8010	64.5310
 0.8020	64.5380
 0.8030	64.5440
 0.8040	64.5530
 0.8050	64.5620
 0.8060	64.5630
 0.8070	64.5630
 0.8080	64.5660
 0.8090	64.5710
 0.8100	64.5670
 0.8110	64.5680
 0.8120	64.5790
 0.8130	64.5820
 0.8140	64.5770
 0.8150	64.5720
 0.8160	64.5740
 0.8170	64.5750
 0.8180	64.5690
 0.8190	64.5580
 0.8200	64.5510
 0.8210	64.5520
 0.8220	64.5480
 0.8230	64.5350
 0.8240	64.5150
 0.8250	64.4920
 0.8260	64.4710
 0.8270	64.4520
 0.8280	64.4290
 0.8290	64.3950
 0.8300	64.3590
 0.8310	64.3330
 0.8320	64.3120
 0.8330	64.2970
 0.8340	64.2830
 0.8350	64.2650
 0.8360	64.2590
 0.8370	64.2490
 0.8380	64.2390
 0.8390	64.2440
 0.8400	64.2480
 0.8410	64.2420
 0.8420	64.2320
 0.8430	64.2440
 0.8440	64.2540
 0.8450	64.2560
 0.8460	64.2500
 0.8470	64.2510
 0.8480	64.2620
 0.8490	64.2720
 0.8500	64.2720
 0.8510	64.2820
 0.8520	64.2870
 0.8530	64.2870
 0.8540	64.2900
 0.8550	64.2940
 0.8560	64.3000
 0.8570	64.3060
 0.8580	64.3120
 0.8590	64.3190
 0.8600	64.3190
 0.8610	64.3150
 0.8620	64.3230
 0.8630	64.3250
 0.8640	64.3240
 0.8650	64.3250
 0.8660	64.3180
 0.8670	64.3280
 0.8680	64.3430
 0.8690	64.3440
 0.8700	64.3420
 0.8710	64.3340
 0.8720	64.3280
 0.8730	64.3340
 0.8740	64.3380
 0.8750	64.3340
 0.8760	64.3260
 0.8770	64.3260
 0.8780	64.3200
 0.8790	64.3210
 0.8800	64.3260
 0.8810	64.3120
 0.8820	64.3000
 0.8830	64.2920
 0.8840	64.2830
 0.8850	64.2650
 0.8860	64.2590
 0.8870	64.2600
 0.8880	64.2560
 0.8890	64.2330
 0.8900	64.2170
 0.8910	64.2100
 0.8920	64.2030
 0.8930	64.1850
 0.8940	64.1720
 0.8950	64.1630
 0.8960	64.1460
 0.8970	64.1290
 0.8980	64.1090
 0.8990	64.0890
 0.9000	64.0820
 0.9010	64.0560
 0.9020	64.0330
 0.9030	64.0270
 0.9040	64.0250
 0.9050	64.0020
 0.9060	63.9730
 0.9070	63.9480
 0.9080	63.9150
 0.9090	63.8900
 0.9100	63.8640
 0.9110	63.8310
 0.9120	63.8110
 0.9130	63.7790
 0.9140	63.7450
 0.9150	63.7190
 0.9160	63.6980
 0.9170	63.6580
 0.9180	63.6070
 0.9190	63.5620
 0.9200	63.5120
 0.9210	63.4550
 0.9220	63.3950
 0.9230	63.3360
 0.9240	63.2590
 0.9250	63.1730
 0.9260	63.0820
 0.9270	62.9860
 0.9280	62.8790
 0.9290	62.7680
 0.9300	62.6550
 0.9310	62.5380
 0.9320	62.4150
 0.9330	62.2880
 0.9340	62.1560
 0.9350	62.0090
 0.9360	61.8600
 0.9370	61.7030
 0.9380	61.5370
 0.9390	61.3770
 0.9400	61.2180
 0.9410	61.0520
 0.9420	60.8760
 0.9430	60.7100
 0.9440	60.5110
 0.9450	60.2910
 0.9460	60.0660
 0.9470	59.8370
 0.9480	59.5990
 0.9490	59.3410
 0.9500	59.0640
 0.9510	58.7760
 0.9520	58.4910
 0.9530	58.1950
 0.9540	57.8850
 0.9550	57.6080
 0.9560	57.3420
 0.9570	57.0910
 0.9580	56.8660
 0.9590	56.6520
 0.9600	56.4600
 0.9610	56.2950
 0.9620	56.1510
 0.9630	56.0160
 0.9640	55.9050
 0.9650	55.8080
 0.9660	55.7180
 0.9670	55.6750
 0.9680	55.6180
 0.9690	55.5480
 0.9700	55.4940
 0.9710	55.4500
 0.9720	55.4140
 0.9730	55.3850
 0.9740	55.3620
 0.9750	55.3370
 0.9760	55.3180
 0.9770	55.3130
 0.9780	55.3200
 0.9790	55.3200
 0.9800	55.3220
 0.9810	55.3360
 0.9820	55.3690
 0.9830	55.3990
 0.9840	55.4340
 0.9850	55.4770
 0.9860	55.5250
 0.9870	55.5760
 0.9880	55.6370
 0.9890	55.6980
 0.9900	55.7490
 0.9910	55.8050
 0.9920	55.8740
 0.9930	55.9470
 0.9940	56.0190
 0.9950	56.1230
 0.9960	56.2110
 0.9970	56.2870
 0.9980	56.3770
 0.9990	56.4740
 1.0000	57.0150
 1.0010	57.9440
 1.0020	58.5090
 1.0030	58.6030
 1.0040	58.7100
 1.0050	58.8210
 1.0060	58.9250
 1.0070	59.0330
 1.0080	59.1390
 1.0090	59.2430
 1.0100	59.3480
 1.0110	59.4510
 1.0120	59.5590
 1.0130	59.6720
 1.0140	59.7810
 1.0150	59.8890
 1.0160	60.0000
 1.0170	60.1120
 1.0180	60.2190
 1.0190	60.3340
 1.0200	60.4500
 1.0210	60.5600
 1.0220	60.6760
 1.0230	60.7870
 1.0240	60.8950
 1.0250	61.0010
 1.0260	61.1020
 1.0270	61.2060
 1.0280	61.3140
 1.0290	61.4170
 1.0300	61.5180
 1.0310	61.6230
 1.0320	61.7310
 1.0330	61.8330
 1.0340	61.9360
 1.0350	62.0350
 1.0360	62.1300
 1.0370	62.2260
 1.0380	62.3190
 1.0390	62.4140
 1.0400	62.5060
 1.0410	62.5950
 1.0420	62.6800
 1.0430	62.7640
 1.0440	62.8450
 1.0450	62.9180
 1.0460	62.9920
 1.0470	63.0670
 1.0480	63.1380
 1.0490	63.2100
 1.0500	63.2760
 1.0510	63.3380
 1.0520	63.3990
 1.0530	63.4570
 1.0540	63.5140
 1.0550	63.5670
 1.0560	63.6190
 1.0570	63.6660
 1.0580	63.7080
 1.0590	63.7460
 1.0600	63.7800
 1.0610	63.8130
 1.0620	63.8420
 1.0630	63.8700
 1.0640	63.8980
 1.0650	63.9190
 1.0660	63.9350
 1.0670	63.9490
 1.0680	63.9600
 1.0690	63.9650
 1.0700	63.9720
 1.0710	63.9780
 1.0720	63.9810
 1.0730	63.9840
 1.0740	63.9780
 1.0750	63.9670
 1.0760	63.9540
 1.0770	63.9360
 1.0780	63.9160
 1.0790	63.8940
 1.0800	63.8700
 1.0810	63.8420
 1.0820	63.8120
 1.0830	63.7820
 1.0840	63.7460
 1.0850	63.7060
 1.0860	63.6630
 1.0870	63.6170
 1.0880	63.5680
 1.0890	63.5180
 1.0900	63.4670
 1.0910	63.4130
 1.0920	63.3540
 1.0930	63.2980
 1.0940	63.2430
 1.0950	63.1820
 1.0960	63.1210
 1.0970	63.0570
 1.0980	62.9860
 1.0990	62.9170
 1.1000	62.8480
 1.1010	62.7790
 1.1020	62.7090
 1.1030	62.6360
 1.1040	62.5620
 1.1050	62.4850
 1.1060	62.4090
 1.1070	62.3300
 1.1080	62.2530
 1.1090	62.1810
 1.1100	62.1000
 1.1110	62.0160
 1.1120	61.9310
 1.1130	61.8450
 1.1140	61.7510
 1.1150	61.6570
 1.1160	61.5540
 1.1170	61.4440
 1.1180	61.3250
 1.1190	61.2030
 1.1200	61.0690
 1.1210	60.9230
 1.1220	60.7620
 1.1230	60.5850
 1.1240	60.3920
 1.1250	60.1780
 1.1260	59.9480
 1.1270	59.6940
 1.1280	59.4220
 1.1290	59.1240
 1.1300	58.8050
 1.1310	58.4590
 1.1320	58.0850
 1.1330	57.6930
 1.1340	57.2750
 1.1350	56.8430
 1.1360	56.3930
 1.1370	55.9260
 1.1380	55.4500
 1.1390	54.9700
 1.1400	54.4790
 1.1410	53.9930
 1.1420	53.5120
 1.1430	53.0310
 1.1440	52.5670
 1.1450	52.1100
 1.1460	51.6770
 1.1470	51.2530
 1.1480	50.8610
 1.1490	50.4900
 1.1500	50.1470
 1.1510	49.8290
 1.1520	49.5370
 1.1530	49.2700
 1.1540	49.0270
 1.1550	48.8100
 1.1560	48.6140
 1.1570	48.4380
 1.1580	48.2830
 1.1590	48.1440
 1.1600	48.0210
 1.1610	47.9140
 1.1620	47.8200
 1.1630	47.7340
 1.1640	47.6590
 1.1650	47.5890
 1.1660	47.5310
 1.1670	47.4750
 1.1680	47.4270
 1.1690	47.3800
 1.1700	47.3410
 1.1710	47.2990
 1.1720	47.2580
 1.1730	47.2180
 1.1740	47.1780
 1.1750	47.1370
 1.1760	47.0990
 1.1770	47.0620
 1.1780	47.0230
 1.1790	46.9850
 1.1800	46.9470
 1.1810	46.9080
 1.1820	46.8680
 1.1830	46.8280
 1.1840	46.7870
 1.1850	46.7460
 1.1860	46.7060
 1.1870	46.6690
 1.1880	46.6350
 1.1890	46.6010
 1.1900	46.5730
 1.1910	46.5460
 1.1920	46.5250
 1.1930	46.5090
 1.1940	46.4960
 1.1950	46.4880
 1.1960	46.4850
 1.1970	46.4830
 1.1980	46.4810
 1.1990	46.4830
 1.2000	46.4900
 1.2010	46.5020
 1.2020	46.5210
 1.2030	46.5420
 1.2040	46.5660
 1.2050	46.5910
 1.2060	46.6180
 1.2070	46.6490
 1.2080	46.6800
 1.2090	46.7140
 1.2100	46.7500
 1.2110	46.7900
 1.2120	46.8320
 1.2130	46.8770
 1.2140	46.9270
 1.2150	46.9770
 1.2160	47.0290
 1.2170	47.0800
 1.2180	47.1340
 1.2190	47.1890
 1.2200	47.2460
 1.2210	47.3040
 1.2220	47.3620
 1.2230	47.4190
 1.2240	47.4750
 1.2250	47.5330
 1.2260	47.5900
 1.2270	47.6470
 1.2280	47.7030
 1.2290	47.7600
 1.2300	47.8160
 1.2310	47.8700
 1.2320	47.9260
 1.2330	47.9800
 1.2340	48.0320
 1.2350	48.0820
 1.2360	48.1330
 1.2370	48.1820
 1.2380	48.2330
 1.2390	48.2820
 1.2400	48.3320
 1.2410	48.3810
 1.2420	48.4270
 1.2430	48.4720
 1.2440	48.5190
 1.2450	48.5640
 1.2460	48.6080
 1.2470	48.6540
 1.2480	48.6960
 1.2490	48.7370
 1.2500	48.7770
 1.2510	48.8130
 1.2520	48.8460
 1.2530	48.8780
 1.2540	48.9080
 1.2550	48.9350
 1.2560	48.9610
 1.2570	48.9850
 1.2580	49.0060
 1.2590	49.0270
 1.2600	49.0480
 1.2610	49.0640
 1.2620	49.0770
 1.2630	49.0870
 1.2640	49.0950
 1.2650	49.0990
 1.2660	49.1010
 1.2670	49.1010
 1.2680	49.0980
 1.2690	49.0910
 1.2700	49.0830
 1.2710	49.0720
 1.2720	49.0570
 1.2730	49.0400
 1.2740	49.0200
 1.2750	48.9990
 1.2760	48.9770
 1.2770	48.9470
 1.2780	48.9150
 1.2790	48.8810
 1.2800	48.8400
 1.2810	48.7970
 1.2820	48.7500
 1.2830	48.6980
 1.2840	48.6430
 1.2850	48.5840
 1.2860	48.5200
 1.2870	48.4500
 1.2880	48.3760
 1.2890	48.2960
 1.2900	48.2120
 1.2910	48.1240
 1.2920	48.0280
 1.2930	47.9290
 1.2940	47.8230
 1.2950	47.7100
 1.2960	47.5930
 1.2970	47.4690
 1.2980	47.3400
 1.2990	47.2060
 1.3000	47.0690
 1.3010	46.9240
 1.3020	46.7680
 1.3030	46.6090
 1.3040	46.4410
 1.3050	46.2700
 1.3060	46.0970
 1.3070	45.9140
 1.3080	45.7290
 1.3090	45.5400
 1.3100	45.3440
 1.3110	45.1460
 1.3120	44.9420
 1.3130	44.7320
 1.3140	44.5160
 1.3150	44.2950
 1.3160	44.0700
 1.3170	43.8430
 1.3180	43.6120
 1.3190	43.3740
 1.3200	43.1370
 1.3210	42.8930
 1.3220	42.6460
 1.3230	42.3990
 1.3240	42.1480
 1.3250	41.8990
 1.3260	41.6480
 1.3270	41.3950
 1.3280	41.1440
 1.3290	40.8900
 1.3300	40.6340
 1.3310	40.3790
 1.3320	40.1240
 1.3330	39.8710
 1.3340	39.6210
 1.3350	39.3740
 1.3360	39.1310
 1.3370	38.8890
 1.3380	38.6500
 1.3390	38.4170
 1.3400	38.1830
 1.3410	37.9570
 1.3420	37.7350
 1.3430	37.5170
 1.3440	37.3040
 1.3450	37.0950
 1.3460	36.8900
 1.3470	36.6900
 1.3480	36.4940
 1.3490	36.3030
 1.3500	36.1160
 1.3510	35.9320
 1.3520	35.7500
 1.3530	35.5710
 1.3540	35.3920
 1.3550	35.2130
 1.3560	35.0350
 1.3570	34.8550
 1.3580	34.6740
 1.3590	34.4900
 1.3600	34.3020
 1.3610	34.1090
 1.3620	33.9100
 1.3630	33.7050
 1.3640	33.4920
 1.3650	33.2680
 1.3660	33.0380
 1.3670	32.7970
 1.3680	32.5430
 1.3690	32.2770
 1.3700	31.9950
 1.3710	31.7000
 1.3720	31.3920
 1.3730	31.0650
 1.3740	30.7250
 1.3750	30.3660
 1.3760	29.9880
 1.3770	29.5910
 1.3780	29.1700
 1.3790	28.7320
 1.3800	28.2760
 1.3810	27.8000
 1.3820	27.3160
 1.3830	26.8180
 1.3840	26.3130
 1.3850	25.7970
 1.3860	25.2810
 1.3870	24.7540
 1.3880	24.2370
 1.3890	23.7190
 1.3900	23.2030
 1.3910	22.7010
 1.3920	22.2070
 1.3930	21.7200
 1.3940	21.2500
 1.3950	20.7880
 1.3960	20.3430
 1.3970	19.9160
 1.3980	19.5070
 1.3990	19.1210
 1.4000	18.7530
 1.4010	18.4010
 1.4020	18.0720
 1.4030	17.7590
 1.4040	17.4650
 1.4050	17.1920
 1.4060	16.9340
 1.4070	16.6960
 1.4080	16.4740
 1.4090	16.2650
 1.4100	16.0730
 1.4110	15.8930
 1.4120	15.7240
 1.4130	15.5700
 1.4140	15.4260
 1.4150	15.2940
 1.4160	15.1730
 1.4170	15.0600
 1.4180	14.9560
 1.4190	14.8590
 1.4200	14.7680
 1.4210	14.6840
 1.4220	14.6070
 1.4230	14.5370
 1.4240	14.4730
 1.4250	14.4120
 1.4260	14.3580
 1.4270	14.3070
 1.4280	14.2600
 1.4290	14.2170
 1.4300	14.1790
 1.4310	14.1440
 1.4320	14.1120
 1.4330	14.0840
 1.4340	14.0580
 1.4350	14.0350
 1.4360	14.0150
 1.4370	13.9970
 1.4380	13.9820
 1.4390	13.9700
 1.4400	13.9590
 1.4410	13.9510
 1.4420	13.9440
 1.4430	13.9380
 1.4440	13.9340
 1.4450	13.9320
 1.4460	13.9310
 1.4470	13.9320
 1.4480	13.9340
 1.4490	13.9360
 1.4500	13.9390
 1.4510	13.9440
 1.4520	13.9500
 1.4530	13.9570
 1.4540	13.9670
 1.4550	13.9770
 1.4560	13.9880
 1.4570	14.0010
 1.4580	14.0150
 1.4590	14.0320
 1.4600	14.0530
 1.4610	14.0750
 1.4620	14.0990
 1.4630	14.1260
 1.4640	14.1560
 1.4650	14.1900
 1.4660	14.2270
 1.4670	14.2660
 1.4680	14.3080
 1.4690	14.3530
 1.4700	14.4000
