Name: Taxodium mucronatum
Type: vegetation
Class: Tree
Genus: Taxodium
Species: mucronatum
Sample No.: JPL117
Owner: JPL
Wavelength Range: VSWIR
Origin: 34.12628; -118.11407;; WGS84
Collection Date: 9/7/2016
Description: Samples were collected at the Huntington Garden in San Marino California as part of a JPL Subcontract studying HyTES imagery. Samples were taken to JPL and processed within 48 hours of collection. The same leaves were processed in the Nicolet and then measured using the ASD.
Measurement: Bidirectional reflectance
First Column: X
Second Column: Y
X Units: Wavelength (micrometer)
Y Units: Reflectance (percentage)
First X Value: 0.35
Last X Value: 2.5
Number of X Values: 2151
Additional Information: vegetation.tree.taxodium.mucronatum.vswir.jpl117.jpl.asd.ancillary.txt

 0.3500	 2.2790
 0.3510	 2.3880
 0.3520	 2.4460
 0.3530	 2.4460
 0.3540	 2.4340
 0.3550	 2.4900
 0.3560	 2.4290
 0.3570	 2.2980
 0.3580	 2.2530
 0.3590	 2.2650
 0.3600	 2.2960
 0.3610	 2.3120
 0.3620	 2.2760
 0.3630	 2.3000
 0.3640	 2.3310
 0.3650	 2.3050
 0.3660	 2.2610
 0.3670	 2.2520
 0.3680	 2.2730
 0.3690	 2.2750
 0.3700	 2.2630
 0.3710	 2.2760
 0.3720	 2.3150
 0.3730	 2.3020
 0.3740	 2.2880
 0.3750	 2.2660
 0.3760	 2.2310
 0.3770	 2.2560
 0.3780	 2.2700
 0.3790	 2.2550
 0.3800	 2.2450
 0.3810	 2.2740
 0.3820	 2.2920
 0.3830	 2.2780
 0.3840	 2.2890
 0.3850	 2.2680
 0.3860	 2.2450
 0.3870	 2.2700
 0.3880	 2.2720
 0.3890	 2.3080
 0.3900	 2.3530
 0.3910	 2.3010
 0.3920	 2.3260
 0.3930	 2.3480
 0.3940	 2.3110
 0.3950	 2.3480
 0.3960	 2.3840
 0.3970	 2.3870
 0.3980	 2.3540
 0.3990	 2.3590
 0.4000	 2.3850
 0.4010	 2.4170
 0.4020	 2.4470
 0.4030	 2.4590
 0.4040	 2.4590
 0.4050	 2.4630
 0.4060	 2.4980
 0.4070	 2.5170
 0.4080	 2.5210
 0.4090	 2.5420
 0.4100	 2.5610
 0.4110	 2.5880
 0.4120	 2.6210
 0.4130	 2.6310
 0.4140	 2.6380
 0.4150	 2.6530
 0.4160	 2.6830
 0.4170	 2.7070
 0.4180	 2.7400
 0.4190	 2.7760
 0.4200	 2.7940
 0.4210	 2.8090
 0.4220	 2.8370
 0.4230	 2.8750
 0.4240	 2.8800
 0.4250	 2.8940
 0.4260	 2.9180
 0.4270	 2.9380
 0.4280	 2.9590
 0.4290	 2.9750
 0.4300	 2.9850
 0.4310	 2.9920
 0.4320	 2.9980
 0.4330	 3.0100
 0.4340	 3.0320
 0.4350	 3.0480
 0.4360	 3.0630
 0.4370	 3.0740
 0.4380	 3.0740
 0.4390	 3.0900
 0.4400	 3.1100
 0.4410	 3.1220
 0.4420	 3.1320
 0.4430	 3.1390
 0.4440	 3.1490
 0.4450	 3.1720
 0.4460	 3.1940
 0.4470	 3.2110
 0.4480	 3.2210
 0.4490	 3.2310
 0.4500	 3.2510
 0.4510	 3.2700
 0.4520	 3.2800
 0.4530	 3.2880
 0.4540	 3.3020
 0.4550	 3.3180
 0.4560	 3.3280
 0.4570	 3.3430
 0.4580	 3.3510
 0.4590	 3.3510
 0.4600	 3.3620
 0.4610	 3.3720
 0.4620	 3.3790
 0.4630	 3.3820
 0.4640	 3.3840
 0.4650	 3.3870
 0.4660	 3.3910
 0.4670	 3.3930
 0.4680	 3.3940
 0.4690	 3.3970
 0.4700	 3.4030
 0.4710	 3.4050
 0.4720	 3.4070
 0.4730	 3.4100
 0.4740	 3.4110
 0.4750	 3.4160
 0.4760	 3.4220
 0.4770	 3.4270
 0.4780	 3.4340
 0.4790	 3.4340
 0.4800	 3.4330
 0.4810	 3.4360
 0.4820	 3.4360
 0.4830	 3.4430
 0.4840	 3.4550
 0.4850	 3.4670
 0.4860	 3.4760
 0.4870	 3.4870
 0.4880	 3.5000
 0.4890	 3.5170
 0.4900	 3.5330
 0.4910	 3.5520
 0.4920	 3.5760
 0.4930	 3.6100
 0.4940	 3.6450
 0.4950	 3.6790
 0.4960	 3.7170
 0.4970	 3.7550
 0.4980	 3.8010
 0.4990	 3.8600
 0.5000	 3.9170
 0.5010	 3.9760
 0.5020	 4.0430
 0.5030	 4.1170
 0.5040	 4.2000
 0.5050	 4.2890
 0.5060	 4.3830
 0.5070	 4.4780
 0.5080	 4.5850
 0.5090	 4.7010
 0.5100	 4.8190
 0.5110	 4.9430
 0.5120	 5.0740
 0.5130	 5.2120
 0.5140	 5.3550
 0.5150	 5.4960
 0.5160	 5.6430
 0.5170	 5.8010
 0.5180	 5.9580
 0.5190	 6.1140
 0.5200	 6.2690
 0.5210	 6.4280
 0.5220	 6.5780
 0.5230	 6.7230
 0.5240	 6.8660
 0.5250	 7.0070
 0.5260	 7.1370
 0.5270	 7.2570
 0.5280	 7.3710
 0.5290	 7.4720
 0.5300	 7.5700
 0.5310	 7.6640
 0.5320	 7.7470
 0.5330	 7.8230
 0.5340	 7.8910
 0.5350	 7.9520
 0.5360	 8.0080
 0.5370	 8.0600
 0.5380	 8.1080
 0.5390	 8.1530
 0.5400	 8.1960
 0.5410	 8.2400
 0.5420	 8.2850
 0.5430	 8.3240
 0.5440	 8.3550
 0.5450	 8.3800
 0.5460	 8.4010
 0.5470	 8.4150
 0.5480	 8.4300
 0.5490	 8.4490
 0.5500	 8.4650
 0.5510	 8.4780
 0.5520	 8.4850
 0.5530	 8.4840
 0.5540	 8.4740
 0.5550	 8.4580
 0.5560	 8.4340
 0.5570	 8.4020
 0.5580	 8.3650
 0.5590	 8.3220
 0.5600	 8.2750
 0.5610	 8.2240
 0.5620	 8.1670
 0.5630	 8.1050
 0.5640	 8.0420
 0.5650	 7.9760
 0.5660	 7.9060
 0.5670	 7.8320
 0.5680	 7.7510
 0.5690	 7.6670
 0.5700	 7.5840
 0.5710	 7.5040
 0.5720	 7.4240
 0.5730	 7.3460
 0.5740	 7.2700
 0.5750	 7.1980
 0.5760	 7.1320
 0.5770	 7.0730
 0.5780	 7.0170
 0.5790	 6.9600
 0.5800	 6.9060
 0.5810	 6.8570
 0.5820	 6.8120
 0.5830	 6.7690
 0.5840	 6.7310
 0.5850	 6.6970
 0.5860	 6.6630
 0.5870	 6.6290
 0.5880	 6.5930
 0.5890	 6.5550
 0.5900	 6.5200
 0.5910	 6.4910
 0.5920	 6.4690
 0.5930	 6.4470
 0.5940	 6.4270
 0.5950	 6.4100
 0.5960	 6.3950
 0.5970	 6.3800
 0.5980	 6.3650
 0.5990	 6.3480
 0.6000	 6.3290
 0.6010	 6.3100
 0.6020	 6.2890
 0.6030	 6.2650
 0.6040	 6.2380
 0.6050	 6.2050
 0.6060	 6.1670
 0.6070	 6.1240
 0.6080	 6.0820
 0.6090	 6.0390
 0.6100	 5.9970
 0.6110	 5.9590
 0.6120	 5.9120
 0.6130	 5.8590
 0.6140	 5.8050
 0.6150	 5.7540
 0.6160	 5.7060
 0.6170	 5.6630
 0.6180	 5.6240
 0.6190	 5.5870
 0.6200	 5.5540
 0.6210	 5.5250
 0.6220	 5.4970
 0.6230	 5.4760
 0.6240	 5.4600
 0.6250	 5.4450
 0.6260	 5.4350
 0.6270	 5.4260
 0.6280	 5.4200
 0.6290	 5.4200
 0.6300	 5.4170
 0.6310	 5.4130
 0.6320	 5.4080
 0.6330	 5.3970
 0.6340	 5.3810
 0.6350	 5.3580
 0.6360	 5.3290
 0.6370	 5.2900
 0.6380	 5.2450
 0.6390	 5.1950
 0.6400	 5.1390
 0.6410	 5.0780
 0.6420	 5.0150
 0.6430	 4.9500
 0.6440	 4.8830
 0.6450	 4.8130
 0.6460	 4.7430
 0.6470	 4.6780
 0.6480	 4.6170
 0.6490	 4.5610
 0.6500	 4.5140
 0.6510	 4.4730
 0.6520	 4.4350
 0.6530	 4.4000
 0.6540	 4.3680
 0.6550	 4.3350
 0.6560	 4.2980
 0.6570	 4.2570
 0.6580	 4.2140
 0.6590	 4.1700
 0.6600	 4.1240
 0.6610	 4.0780
 0.6620	 4.0270
 0.6630	 3.9780
 0.6640	 3.9300
 0.6650	 3.8850
 0.6660	 3.8470
 0.6670	 3.8130
 0.6680	 3.7830
 0.6690	 3.7590
 0.6700	 3.7420
 0.6710	 3.7290
 0.6720	 3.7190
 0.6730	 3.7160
 0.6740	 3.7190
 0.6750	 3.7250
 0.6760	 3.7360
 0.6770	 3.7510
 0.6780	 3.7700
 0.6790	 3.7920
 0.6800	 3.8230
 0.6810	 3.8650
 0.6820	 3.9180
 0.6830	 3.9840
 0.6840	 4.0650
 0.6850	 4.1650
 0.6860	 4.2870
 0.6870	 4.4360
 0.6880	 4.6210
 0.6890	 4.8400
 0.6900	 5.0940
 0.6910	 5.3870
 0.6920	 5.7190
 0.6930	 6.0860
 0.6940	 6.4830
 0.6950	 6.9050
 0.6960	 7.3530
 0.6970	 7.8220
 0.6980	 8.3030
 0.6990	 8.7970
 0.7000	 9.3020
 0.7010	 9.8120
 0.7020	10.3240
 0.7030	10.8360
 0.7040	11.3480
 0.7050	11.8590
 0.7060	12.3670
 0.7070	12.8710
 0.7080	13.3720
 0.7090	13.8690
 0.7100	14.3630
 0.7110	14.8560
 0.7120	15.3480
 0.7130	15.8360
 0.7140	16.3190
 0.7150	16.7970
 0.7160	17.2690
 0.7170	17.7400
 0.7180	18.2030
 0.7190	18.6570
 0.7200	19.1020
 0.7210	19.5370
 0.7220	19.9590
 0.7230	20.3690
 0.7240	20.7650
 0.7250	21.1470
 0.7260	21.5130
 0.7270	21.8650
 0.7280	22.1990
 0.7290	22.5150
 0.7300	22.8170
 0.7310	23.1030
 0.7320	23.3700
 0.7330	23.6230
 0.7340	23.8620
 0.7350	24.0840
 0.7360	24.2920
 0.7370	24.4880
 0.7380	24.6700
 0.7390	24.8410
 0.7400	25.0020
 0.7410	25.1490
 0.7420	25.2820
 0.7430	25.4090
 0.7440	25.5250
 0.7450	25.6310
 0.7460	25.7290
 0.7470	25.8180
 0.7480	25.8990
 0.7490	25.9730
 0.7500	26.0420
 0.7510	26.1040
 0.7520	26.1620
 0.7530	26.2150
 0.7540	26.2620
 0.7550	26.3070
 0.7560	26.3490
 0.7570	26.3870
 0.7580	26.4220
 0.7590	26.4550
 0.7600	26.4870
 0.7610	26.5160
 0.7620	26.5410
 0.7630	26.5650
 0.7640	26.5880
 0.7650	26.6100
 0.7660	26.6290
 0.7670	26.6470
 0.7680	26.6650
 0.7690	26.6830
 0.7700	26.7000
 0.7710	26.7150
 0.7720	26.7290
 0.7730	26.7430
 0.7740	26.7590
 0.7750	26.7740
 0.7760	26.7840
 0.7770	26.7950
 0.7780	26.8090
 0.7790	26.8240
 0.7800	26.8350
 0.7810	26.8460
 0.7820	26.8590
 0.7830	26.8680
 0.7840	26.8800
 0.7850	26.8920
 0.7860	26.9030
 0.7870	26.9110
 0.7880	26.9200
 0.7890	26.9300
 0.7900	26.9400
 0.7910	26.9480
 0.7920	26.9560
 0.7930	26.9630
 0.7940	26.9690
 0.7950	26.9740
 0.7960	26.9790
 0.7970	26.9860
 0.7980	26.9930
 0.7990	26.9990
 0.8000	27.0020
 0.8010	27.0050
 0.8020	27.0080
 0.8030	27.0120
 0.8040	27.0150
 0.8050	27.0160
 0.8060	27.0170
 0.8070	27.0190
 0.8080	27.0220
 0.8090	27.0240
 0.8100	27.0240
 0.8110	27.0250
 0.8120	27.0270
 0.8130	27.0250
 0.8140	27.0230
 0.8150	27.0230
 0.8160	27.0230
 0.8170	27.0200
 0.8180	27.0170
 0.8190	27.0160
 0.8200	27.0180
 0.8210	27.0180
 0.8220	27.0150
 0.8230	27.0120
 0.8240	27.0140
 0.8250	27.0130
 0.8260	27.0080
 0.8270	27.0030
 0.8280	27.0050
 0.8290	27.0000
 0.8300	26.9950
 0.8310	26.9960
 0.8320	26.9900
 0.8330	26.9870
 0.8340	26.9870
 0.8350	26.9870
 0.8360	26.9860
 0.8370	26.9840
 0.8380	26.9830
 0.8390	26.9850
 0.8400	26.9860
 0.8410	26.9860
 0.8420	26.9880
 0.8430	26.9920
 0.8440	26.9930
 0.8450	26.9960
 0.8460	27.0050
 0.8470	27.0060
 0.8480	27.0070
 0.8490	27.0090
 0.8500	27.0120
 0.8510	27.0090
 0.8520	27.0120
 0.8530	27.0210
 0.8540	27.0260
 0.8550	27.0300
 0.8560	27.0330
 0.8570	27.0380
 0.8580	27.0470
 0.8590	27.0530
 0.8600	27.0580
 0.8610	27.0640
 0.8620	27.0680
 0.8630	27.0730
 0.8640	27.0790
 0.8650	27.0850
 0.8660	27.0930
 0.8670	27.1010
 0.8680	27.1060
 0.8690	27.1100
 0.8700	27.1180
 0.8710	27.1270
 0.8720	27.1360
 0.8730	27.1450
 0.8740	27.1470
 0.8750	27.1540
 0.8760	27.1680
 0.8770	27.1770
 0.8780	27.1830
 0.8790	27.1870
 0.8800	27.1910
 0.8810	27.2010
 0.8820	27.2130
 0.8830	27.2210
 0.8840	27.2250
 0.8850	27.2370
 0.8860	27.2460
 0.8870	27.2530
 0.8880	27.2610
 0.8890	27.2660
 0.8900	27.2740
 0.8910	27.2840
 0.8920	27.2910
 0.8930	27.2990
 0.8940	27.3050
 0.8950	27.3120
 0.8960	27.3230
 0.8970	27.3270
 0.8980	27.3310
 0.8990	27.3380
 0.9000	27.3450
 0.9010	27.3500
 0.9020	27.3570
 0.9030	27.3670
 0.9040	27.3750
 0.9050	27.3780
 0.9060	27.3790
 0.9070	27.3820
 0.9080	27.3900
 0.9090	27.3950
 0.9100	27.4010
 0.9110	27.4100
 0.9120	27.4110
 0.9130	27.4150
 0.9140	27.4200
 0.9150	27.4230
 0.9160	27.4260
 0.9170	27.4280
 0.9180	27.4280
 0.9190	27.4280
 0.9200	27.4280
 0.9210	27.4250
 0.9220	27.4220
 0.9230	27.4290
 0.9240	27.4290
 0.9250	27.4240
 0.9260	27.4150
 0.9270	27.4030
 0.9280	27.3940
 0.9290	27.3880
 0.9300	27.3830
 0.9310	27.3780
 0.9320	27.3650
 0.9330	27.3490
 0.9340	27.3350
 0.9350	27.3260
 0.9360	27.3100
 0.9370	27.2940
 0.9380	27.2800
 0.9390	27.2620
 0.9400	27.2460
 0.9410	27.2310
 0.9420	27.2130
 0.9430	27.1930
 0.9440	27.1680
 0.9450	27.1400
 0.9460	27.1120
 0.9470	27.0910
 0.9480	27.0600
 0.9490	27.0190
 0.9500	26.9790
 0.9510	26.9480
 0.9520	26.9100
 0.9530	26.8650
 0.9540	26.8220
 0.9550	26.7860
 0.9560	26.7500
 0.9570	26.7100
 0.9580	26.6680
 0.9590	26.6330
 0.9600	26.6050
 0.9610	26.5820
 0.9620	26.5600
 0.9630	26.5330
 0.9640	26.5100
 0.9650	26.4920
 0.9660	26.4750
 0.9670	26.4720
 0.9680	26.4600
 0.9690	26.4440
 0.9700	26.4360
 0.9710	26.4220
 0.9720	26.4180
 0.9730	26.4190
 0.9740	26.4140
 0.9750	26.4060
 0.9760	26.4030
 0.9770	26.4000
 0.9780	26.3920
 0.9790	26.4050
 0.9800	26.4030
 0.9810	26.3970
 0.9820	26.4160
 0.9830	26.4220
 0.9840	26.4210
 0.9850	26.4250
 0.9860	26.4400
 0.9870	26.4560
 0.9880	26.4630
 0.9890	26.4640
 0.9900	26.4710
 0.9910	26.4870
 0.9920	26.4970
 0.9930	26.5040
 0.9940	26.5170
 0.9950	26.5240
 0.9960	26.5320
 0.9970	26.5460
 0.9980	26.5680
 0.9990	26.5830
 1.0000	26.5950
 1.0010	27.2050
 1.0020	27.2220
 1.0030	27.2400
 1.0040	27.2560
 1.0050	27.2720
 1.0060	27.2870
 1.0070	27.3020
 1.0080	27.3190
 1.0090	27.3390
 1.0100	27.3560
 1.0110	27.3750
 1.0120	27.3910
 1.0130	27.4020
 1.0140	27.4180
 1.0150	27.4350
 1.0160	27.4510
 1.0170	27.4690
 1.0180	27.4860
 1.0190	27.5010
 1.0200	27.5180
 1.0210	27.5370
 1.0220	27.5550
 1.0230	27.5720
 1.0240	27.5900
 1.0250	27.6060
 1.0260	27.6200
 1.0270	27.6350
 1.0280	27.6500
 1.0290	27.6660
 1.0300	27.6810
 1.0310	27.6970
 1.0320	27.7130
 1.0330	27.7290
 1.0340	27.7450
 1.0350	27.7590
 1.0360	27.7750
 1.0370	27.7910
 1.0380	27.8050
 1.0390	27.8200
 1.0400	27.8340
 1.0410	27.8480
 1.0420	27.8620
 1.0430	27.8770
 1.0440	27.8890
 1.0450	27.9000
 1.0460	27.9110
 1.0470	27.9200
 1.0480	27.9310
 1.0490	27.9420
 1.0500	27.9530
 1.0510	27.9630
 1.0520	27.9730
 1.0530	27.9830
 1.0540	27.9920
 1.0550	28.0000
 1.0560	28.0090
 1.0570	28.0170
 1.0580	28.0250
 1.0590	28.0310
 1.0600	28.0360
 1.0610	28.0400
 1.0620	28.0420
 1.0630	28.0470
 1.0640	28.0530
 1.0650	28.0580
 1.0660	28.0650
 1.0670	28.0690
 1.0680	28.0710
 1.0690	28.0720
 1.0700	28.0740
 1.0710	28.0760
 1.0720	28.0770
 1.0730	28.0790
 1.0740	28.0790
 1.0750	28.0780
 1.0760	28.0770
 1.0770	28.0750
 1.0780	28.0740
 1.0790	28.0740
 1.0800	28.0730
 1.0810	28.0730
 1.0820	28.0720
 1.0830	28.0710
 1.0840	28.0690
 1.0850	28.0660
 1.0860	28.0640
 1.0870	28.0610
 1.0880	28.0570
 1.0890	28.0530
 1.0900	28.0490
 1.0910	28.0450
 1.0920	28.0400
 1.0930	28.0340
 1.0940	28.0290
 1.0950	28.0240
 1.0960	28.0170
 1.0970	28.0110
 1.0980	28.0050
 1.0990	28.0000
 1.1000	27.9930
 1.1010	27.9870
 1.1020	27.9810
 1.1030	27.9760
 1.1040	27.9710
 1.1050	27.9650
 1.1060	27.9570
 1.1070	27.9460
 1.1080	27.9380
 1.1090	27.9300
 1.1100	27.9210
 1.1110	27.9140
 1.1120	27.9060
 1.1130	27.8960
 1.1140	27.8860
 1.1150	27.8770
 1.1160	27.8650
 1.1170	27.8520
 1.1180	27.8380
 1.1190	27.8230
 1.1200	27.8060
 1.1210	27.7880
 1.1220	27.7690
 1.1230	27.7450
 1.1240	27.7190
 1.1250	27.6890
 1.1260	27.6560
 1.1270	27.6200
 1.1280	27.5820
 1.1290	27.5390
 1.1300	27.4920
 1.1310	27.4390
 1.1320	27.3810
 1.1330	27.3180
 1.1340	27.2500
 1.1350	27.1770
 1.1360	27.0980
 1.1370	27.0170
 1.1380	26.9320
 1.1390	26.8430
 1.1400	26.7500
 1.1410	26.6530
 1.1420	26.5550
 1.1430	26.4550
 1.1440	26.3570
 1.1450	26.2600
 1.1460	26.1650
 1.1470	26.0690
 1.1480	25.9790
 1.1490	25.8910
 1.1500	25.8090
 1.1510	25.7310
 1.1520	25.6580
 1.1530	25.5890
 1.1540	25.5260
 1.1550	25.4680
 1.1560	25.4150
 1.1570	25.3680
 1.1580	25.3250
 1.1590	25.2850
 1.1600	25.2500
 1.1610	25.2170
 1.1620	25.1870
 1.1630	25.1630
 1.1640	25.1400
 1.1650	25.1180
 1.1660	25.0980
 1.1670	25.0810
 1.1680	25.0660
 1.1690	25.0510
 1.1700	25.0390
 1.1710	25.0260
 1.1720	25.0120
 1.1730	25.0000
 1.1740	24.9870
 1.1750	24.9750
 1.1760	24.9620
 1.1770	24.9490
 1.1780	24.9360
 1.1790	24.9220
 1.1800	24.9090
 1.1810	24.8960
 1.1820	24.8810
 1.1830	24.8660
 1.1840	24.8530
 1.1850	24.8400
 1.1860	24.8280
 1.1870	24.8170
 1.1880	24.8060
 1.1890	24.7950
 1.1900	24.7860
 1.1910	24.7760
 1.1920	24.7680
 1.1930	24.7620
 1.1940	24.7570
 1.1950	24.7520
 1.1960	24.7500
 1.1970	24.7490
 1.1980	24.7480
 1.1990	24.7490
 1.2000	24.7510
 1.2010	24.7530
 1.2020	24.7590
 1.2030	24.7650
 1.2040	24.7720
 1.2050	24.7820
 1.2060	24.7920
 1.2070	24.8040
 1.2080	24.8170
 1.2090	24.8300
 1.2100	24.8440
 1.2110	24.8580
 1.2120	24.8740
 1.2130	24.8910
 1.2140	24.9110
 1.2150	24.9300
 1.2160	24.9500
 1.2170	24.9690
 1.2180	24.9890
 1.2190	25.0090
 1.2200	25.0280
 1.2210	25.0490
 1.2220	25.0700
 1.2230	25.0900
 1.2240	25.1090
 1.2250	25.1290
 1.2260	25.1490
 1.2270	25.1690
 1.2280	25.1890
 1.2290	25.2090
 1.2300	25.2280
 1.2310	25.2460
 1.2320	25.2640
 1.2330	25.2810
 1.2340	25.2980
 1.2350	25.3150
 1.2360	25.3310
 1.2370	25.3460
 1.2380	25.3610
 1.2390	25.3750
 1.2400	25.3890
 1.2410	25.4030
 1.2420	25.4170
 1.2430	25.4300
 1.2440	25.4440
 1.2450	25.4560
 1.2460	25.4690
 1.2470	25.4790
 1.2480	25.4890
 1.2490	25.4980
 1.2500	25.5070
 1.2510	25.5160
 1.2520	25.5260
 1.2530	25.5360
 1.2540	25.5440
 1.2550	25.5520
 1.2560	25.5590
 1.2570	25.5640
 1.2580	25.5700
 1.2590	25.5750
 1.2600	25.5800
 1.2610	25.5830
 1.2620	25.5860
 1.2630	25.5880
 1.2640	25.5900
 1.2650	25.5910
 1.2660	25.5920
 1.2670	25.5920
 1.2680	25.5910
 1.2690	25.5900
 1.2700	25.5880
 1.2710	25.5850
 1.2720	25.5830
 1.2730	25.5790
 1.2740	25.5750
 1.2750	25.5690
 1.2760	25.5620
 1.2770	25.5550
 1.2780	25.5480
 1.2790	25.5400
 1.2800	25.5310
 1.2810	25.5210
 1.2820	25.5090
 1.2830	25.4970
 1.2840	25.4820
 1.2850	25.4650
 1.2860	25.4470
 1.2870	25.4270
 1.2880	25.4050
 1.2890	25.3840
 1.2900	25.3600
 1.2910	25.3340
 1.2920	25.3050
 1.2930	25.2730
 1.2940	25.2410
 1.2950	25.2090
 1.2960	25.1740
 1.2970	25.1380
 1.2980	25.1000
 1.2990	25.0600
 1.3000	25.0190
 1.3010	24.9770
 1.3020	24.9320
 1.3030	24.8850
 1.3040	24.8370
 1.3050	24.7870
 1.3060	24.7360
 1.3070	24.6840
 1.3080	24.6290
 1.3090	24.5720
 1.3100	24.5140
 1.3110	24.4540
 1.3120	24.3910
 1.3130	24.3270
 1.3140	24.2610
 1.3150	24.1940
 1.3160	24.1250
 1.3170	24.0540
 1.3180	23.9820
 1.3190	23.9070
 1.3200	23.8310
 1.3210	23.7540
 1.3220	23.6750
 1.3230	23.5940
 1.3240	23.5110
 1.3250	23.4280
 1.3260	23.3440
 1.3270	23.2570
 1.3280	23.1690
 1.3290	23.0790
 1.3300	22.9880
 1.3310	22.8960
 1.3320	22.8030
 1.3330	22.7110
 1.3340	22.6190
 1.3350	22.5260
 1.3360	22.4340
 1.3370	22.3410
 1.3380	22.2480
 1.3390	22.1560
 1.3400	22.0650
 1.3410	21.9740
 1.3420	21.8860
 1.3430	21.7970
 1.3440	21.7080
 1.3450	21.6220
 1.3460	21.5370
 1.3470	21.4530
 1.3480	21.3700
 1.3490	21.2870
 1.3500	21.2060
 1.3510	21.1240
 1.3520	21.0440
 1.3530	20.9640
 1.3540	20.8830
 1.3550	20.8030
 1.3560	20.7220
 1.3570	20.6400
 1.3580	20.5580
 1.3590	20.4750
 1.3600	20.3890
 1.3610	20.3000
 1.3620	20.2090
 1.3630	20.1150
 1.3640	20.0170
 1.3650	19.9150
 1.3660	19.8080
 1.3670	19.6960
 1.3680	19.5760
 1.3690	19.4500
 1.3700	19.3160
 1.3710	19.1730
 1.3720	19.0220
 1.3730	18.8590
 1.3740	18.6870
 1.3750	18.5040
 1.3760	18.3070
 1.3770	18.0980
 1.3780	17.8730
 1.3790	17.6350
 1.3800	17.3850
 1.3810	17.1180
 1.3820	16.8430
 1.3830	16.5550
 1.3840	16.2590
 1.3850	15.9510
 1.3860	15.6380
 1.3870	15.3130
 1.3880	14.9890
 1.3890	14.6600
 1.3900	14.3280
 1.3910	14.0000
 1.3920	13.6700
 1.3930	13.3410
 1.3940	13.0170
 1.3950	12.6950
 1.3960	12.3800
 1.3970	12.0750
 1.3980	11.7770
 1.3990	11.4940
 1.4000	11.2210
 1.4010	10.9560
 1.4020	10.7060
 1.4030	10.4660
 1.4040	10.2370
 1.4050	10.0220
 1.4060	 9.8190
 1.4070	 9.6290
 1.4080	 9.4510
 1.4090	 9.2840
 1.4100	 9.1280
 1.4110	 8.9820
 1.4120	 8.8460
 1.4130	 8.7190
 1.4140	 8.6010
 1.4150	 8.4930
 1.4160	 8.3930
 1.4170	 8.3000
 1.4180	 8.2140
 1.4190	 8.1330
 1.4200	 8.0590
 1.4210	 7.9910
 1.4220	 7.9280
 1.4230	 7.8710
 1.4240	 7.8170
 1.4250	 7.7680
 1.4260	 7.7220
 1.4270	 7.6800
 1.4280	 7.6420
 1.4290	 7.6070
 1.4300	 7.5750
 1.4310	 7.5450
 1.4320	 7.5190
 1.4330	 7.4950
 1.4340	 7.4750
 1.4350	 7.4560
 1.4360	 7.4390
 1.4370	 7.4240
 1.4380	 7.4120
 1.4390	 7.4010
 1.4400	 7.3930
 1.4410	 7.3850
 1.4420	 7.3800
 1.4430	 7.3760
 1.4440	 7.3730
 1.4450	 7.3720
 1.4460	 7.3700
 1.4470	 7.3700
 1.4480	 7.3710
 1.4490	 7.3740
 1.4500	 7.3770
 1.4510	 7.3810
 1.4520	 7.3870
 1.4530	 7.3940
 1.4540	 7.4010
 1.4550	 7.4100
 1.4560	 7.4190
 1.4570	 7.4290
 1.4580	 7.4420
 1.4590	 7.4550
 1.4600	 7.4710
 1.4610	 7.4880
 1.4620	 7.5060
 1.4630	 7.5280
 1.4640	 7.5510
 1.4650	 7.5760
 1.4660	 7.6040
 1.4670	 7.6350
 1.4680	 7.6670
 1.4690	 7.7020
 1.4700	 7.7380
 1.4710	 7.7760
 1.4720	 7.8160
 1.4730	 7.8580
 1.4740	 7.9020
 1.4750	 7.9480
 1.4760	 7.9950
 1.4770	 8.0430
