Name: Arctostaphylos glandulosa 3
Type: vegetation
Class: Shrub
Genus: Arctostaphylos
Species: glandulosa
Sample No.: VH251
Owner: UCSB
Wavelength Range: VSWIR
Origin: 37.0443; -119.3026; WGS84
Collection Date: 11/2/2013
Description: Samples were collected as part of the HyspIRI Airborne Campaign. 48 individual plants were sampled in three times in 2013 - spring  summer  and fall. The name of the sample includes a 1  2  or 3 which references a different individual of the species. Samples were taken to JPL and processed within 48 hours of collection. The same leaves were processed in the Nicolet and then measured using the ASD.
Measurement: Bidirectional reflectance
First Column: X
Second Column: Y
X Units: Wavelength (micrometers)
Y Units: Reflectance (percentage)
First X Value: 0.35
Last X Value: 2.5
Number of X Values: 2151
Additional Information: vegetation.shrub.arctostaphylos.glandulosa.vswir.vh251.ucsb.asd.ancillary.txt

 0.3500	 3.8760
 0.3510	 4.1120
 0.3520	 3.9200
 0.3530	 3.7240
 0.3540	 3.8710
 0.3550	 3.8390
 0.3560	 3.7840
 0.3570	 3.7260
 0.3580	 3.6330
 0.3590	 3.6520
 0.3600	 3.7050
 0.3610	 3.7190
 0.3620	 3.6600
 0.3630	 3.5940
 0.3640	 3.5610
 0.3650	 3.5790
 0.3660	 3.6500
 0.3670	 3.6470
 0.3680	 3.5840
 0.3690	 3.5720
 0.3700	 3.6280
 0.3710	 3.6220
 0.3720	 3.5290
 0.3730	 3.5520
 0.3740	 3.5600
 0.3750	 3.5550
 0.3760	 3.5760
 0.3770	 3.6470
 0.3780	 3.6900
 0.3790	 3.6800
 0.3800	 3.6350
 0.3810	 3.6000
 0.3820	 3.5910
 0.3830	 3.6050
 0.3840	 3.6090
 0.3850	 3.5890
 0.3860	 3.5630
 0.3870	 3.5620
 0.3880	 3.5790
 0.3890	 3.5810
 0.3900	 3.5710
 0.3910	 3.5890
 0.3920	 3.6100
 0.3930	 3.6200
 0.3940	 3.6170
 0.3950	 3.6400
 0.3960	 3.6480
 0.3970	 3.6540
 0.3980	 3.6810
 0.3990	 3.6890
 0.4000	 3.6960
 0.4010	 3.7050
 0.4020	 3.6950
 0.4030	 3.7270
 0.4040	 3.7720
 0.4050	 3.7950
 0.4060	 3.8290
 0.4070	 3.8650
 0.4080	 3.8900
 0.4090	 3.8980
 0.4100	 3.9520
 0.4110	 4.0190
 0.4120	 4.0680
 0.4130	 4.1000
 0.4140	 4.1420
 0.4150	 4.1950
 0.4160	 4.2470
 0.4170	 4.2880
 0.4180	 4.3280
 0.4190	 4.3720
 0.4200	 4.4220
 0.4210	 4.4610
 0.4220	 4.5060
 0.4230	 4.5610
 0.4240	 4.5780
 0.4250	 4.6260
 0.4260	 4.6900
 0.4270	 4.7200
 0.4280	 4.7560
 0.4290	 4.7890
 0.4300	 4.8170
 0.4310	 4.8520
 0.4320	 4.8820
 0.4330	 4.9060
 0.4340	 4.9290
 0.4350	 4.9620
 0.4360	 4.9940
 0.4370	 5.0220
 0.4380	 5.0460
 0.4390	 5.0770
 0.4400	 5.1040
 0.4410	 5.1250
 0.4420	 5.1520
 0.4430	 5.1820
 0.4440	 5.2130
 0.4450	 5.2390
 0.4460	 5.2580
 0.4470	 5.2820
 0.4480	 5.3140
 0.4490	 5.3450
 0.4500	 5.3800
 0.4510	 5.4050
 0.4520	 5.4150
 0.4530	 5.4470
 0.4540	 5.4700
 0.4550	 5.4840
 0.4560	 5.5020
 0.4570	 5.5210
 0.4580	 5.5370
 0.4590	 5.5470
 0.4600	 5.5570
 0.4610	 5.5670
 0.4620	 5.5800
 0.4630	 5.5980
 0.4640	 5.6070
 0.4650	 5.6100
 0.4660	 5.6140
 0.4670	 5.6290
 0.4680	 5.6420
 0.4690	 5.6510
 0.4700	 5.6570
 0.4710	 5.6640
 0.4720	 5.6810
 0.4730	 5.6980
 0.4740	 5.6970
 0.4750	 5.6960
 0.4760	 5.7000
 0.4770	 5.7100
 0.4780	 5.7260
 0.4790	 5.7370
 0.4800	 5.7430
 0.4810	 5.7500
 0.4820	 5.7570
 0.4830	 5.7690
 0.4840	 5.7830
 0.4850	 5.7940
 0.4860	 5.7990
 0.4870	 5.8080
 0.4880	 5.8240
 0.4890	 5.8420
 0.4900	 5.8650
 0.4910	 5.8900
 0.4920	 5.9090
 0.4930	 5.9360
 0.4940	 5.9740
 0.4950	 6.0180
 0.4960	 6.0590
 0.4970	 6.1010
 0.4980	 6.1490
 0.4990	 6.2050
 0.5000	 6.2600
 0.5010	 6.3280
 0.5020	 6.4050
 0.5030	 6.4790
 0.5040	 6.5640
 0.5050	 6.6620
 0.5060	 6.7670
 0.5070	 6.8720
 0.5080	 6.9940
 0.5090	 7.1290
 0.5100	 7.2620
 0.5110	 7.4120
 0.5120	 7.5760
 0.5130	 7.7500
 0.5140	 7.9250
 0.5150	 8.1180
 0.5160	 8.3200
 0.5170	 8.5220
 0.5180	 8.7260
 0.5190	 8.9420
 0.5200	 9.1620
 0.5210	 9.3710
 0.5220	 9.5870
 0.5230	 9.7980
 0.5240	 9.9970
 0.5250	10.1870
 0.5260	10.3730
 0.5270	10.5490
 0.5280	10.7090
 0.5290	10.8570
 0.5300	10.9940
 0.5310	11.1180
 0.5320	11.2280
 0.5330	11.3280
 0.5340	11.4200
 0.5350	11.5000
 0.5360	11.5670
 0.5370	11.6300
 0.5380	11.6890
 0.5390	11.7360
 0.5400	11.7790
 0.5410	11.8180
 0.5420	11.8520
 0.5430	11.8840
 0.5440	11.9220
 0.5450	11.9630
 0.5460	12.0010
 0.5470	12.0410
 0.5480	12.0780
 0.5490	12.1100
 0.5500	12.1420
 0.5510	12.1600
 0.5520	12.1690
 0.5530	12.1720
 0.5540	12.1640
 0.5550	12.1440
 0.5560	12.1140
 0.5570	12.0730
 0.5580	12.0180
 0.5590	11.9540
 0.5600	11.8850
 0.5610	11.8050
 0.5620	11.7190
 0.5630	11.6240
 0.5640	11.5180
 0.5650	11.4100
 0.5660	11.2930
 0.5670	11.1700
 0.5680	11.0470
 0.5690	10.9260
 0.5700	10.8000
 0.5710	10.6680
 0.5720	10.5430
 0.5730	10.4240
 0.5740	10.3110
 0.5750	10.2050
 0.5760	10.1090
 0.5770	10.0180
 0.5780	 9.9290
 0.5790	 9.8460
 0.5800	 9.7720
 0.5810	 9.7030
 0.5820	 9.6290
 0.5830	 9.5540
 0.5840	 9.4830
 0.5850	 9.4180
 0.5860	 9.3590
 0.5870	 9.3030
 0.5880	 9.2530
 0.5890	 9.2070
 0.5900	 9.1680
 0.5910	 9.1290
 0.5920	 9.0940
 0.5930	 9.0710
 0.5940	 9.0490
 0.5950	 9.0220
 0.5960	 8.9890
 0.5970	 8.9600
 0.5980	 8.9320
 0.5990	 8.9070
 0.6000	 8.8820
 0.6010	 8.8510
 0.6020	 8.8170
 0.6030	 8.7800
 0.6040	 8.7430
 0.6050	 8.6990
 0.6060	 8.6500
 0.6070	 8.6010
 0.6080	 8.5500
 0.6090	 8.4910
 0.6100	 8.4270
 0.6110	 8.3650
 0.6120	 8.3090
 0.6130	 8.2560
 0.6140	 8.2030
 0.6150	 8.1480
 0.6160	 8.0910
 0.6170	 8.0400
 0.6180	 8.0000
 0.6190	 7.9560
 0.6200	 7.9170
 0.6210	 7.8840
 0.6220	 7.8570
 0.6230	 7.8350
 0.6240	 7.8160
 0.6250	 7.7990
 0.6260	 7.7870
 0.6270	 7.7780
 0.6280	 7.7720
 0.6290	 7.7690
 0.6300	 7.7650
 0.6310	 7.7590
 0.6320	 7.7490
 0.6330	 7.7370
 0.6340	 7.7170
 0.6350	 7.6880
 0.6360	 7.6520
 0.6370	 7.6050
 0.6380	 7.5500
 0.6390	 7.4880
 0.6400	 7.4180
 0.6410	 7.3460
 0.6420	 7.2720
 0.6430	 7.1950
 0.6440	 7.1170
 0.6450	 7.0400
 0.6460	 6.9660
 0.6470	 6.8970
 0.6480	 6.8340
 0.6490	 6.7790
 0.6500	 6.7320
 0.6510	 6.6940
 0.6520	 6.6620
 0.6530	 6.6350
 0.6540	 6.6080
 0.6550	 6.5790
 0.6560	 6.5460
 0.6570	 6.5100
 0.6580	 6.4710
 0.6590	 6.4260
 0.6600	 6.3810
 0.6610	 6.3360
 0.6620	 6.2860
 0.6630	 6.2400
 0.6640	 6.1980
 0.6650	 6.1600
 0.6660	 6.1240
 0.6670	 6.0950
 0.6680	 6.0740
 0.6690	 6.0620
 0.6700	 6.0530
 0.6710	 6.0470
 0.6720	 6.0470
 0.6730	 6.0590
 0.6740	 6.0730
 0.6750	 6.0900
 0.6760	 6.1130
 0.6770	 6.1440
 0.6780	 6.1790
 0.6790	 6.2190
 0.6800	 6.2680
 0.6810	 6.3220
 0.6820	 6.3860
 0.6830	 6.4610
 0.6840	 6.5430
 0.6850	 6.6430
 0.6860	 6.7640
 0.6870	 6.9070
 0.6880	 7.0770
 0.6890	 7.2860
 0.6900	 7.5430
 0.6910	 7.8480
 0.6920	 8.2080
 0.6930	 8.6290
 0.6940	 9.1150
 0.6950	 9.6600
 0.6960	10.2680
 0.6970	10.9340
 0.6980	11.6540
 0.6990	12.4250
 0.7000	13.2400
 0.7010	14.0940
 0.7020	14.9810
 0.7030	15.8950
 0.7040	16.8280
 0.7050	17.7770
 0.7060	18.7460
 0.7070	19.7280
 0.7080	20.7180
 0.7090	21.7170
 0.7100	22.7280
 0.7110	23.7460
 0.7120	24.7690
 0.7130	25.7930
 0.7140	26.8340
 0.7150	27.8790
 0.7160	28.9170
 0.7170	29.9550
 0.7180	30.9990
 0.7190	32.0390
 0.7200	33.0620
 0.7210	34.0920
 0.7220	35.1040
 0.7230	36.0930
 0.7240	37.0780
 0.7250	38.0370
 0.7260	38.9780
 0.7270	39.9020
 0.7280	40.7870
 0.7290	41.6420
 0.7300	42.4670
 0.7310	43.2590
 0.7320	44.0250
 0.7330	44.7590
 0.7340	45.4590
 0.7350	46.1250
 0.7360	46.7590
 0.7370	47.3610
 0.7380	47.9310
 0.7390	48.4730
 0.7400	48.9930
 0.7410	49.4770
 0.7420	49.9130
 0.7430	50.3300
 0.7440	50.7230
 0.7450	51.0890
 0.7460	51.4280
 0.7470	51.7310
 0.7480	52.0130
 0.7490	52.2820
 0.7500	52.5290
 0.7510	52.7500
 0.7520	52.9440
 0.7530	53.1200
 0.7540	53.2920
 0.7550	53.4460
 0.7560	53.5790
 0.7570	53.7010
 0.7580	53.8070
 0.7590	53.9050
 0.7600	54.0010
 0.7610	54.0920
 0.7620	54.1670
 0.7630	54.2310
 0.7640	54.2920
 0.7650	54.3410
 0.7660	54.3860
 0.7670	54.4270
 0.7680	54.4630
 0.7690	54.4990
 0.7700	54.5300
 0.7710	54.5580
 0.7720	54.5920
 0.7730	54.6200
 0.7740	54.6370
 0.7750	54.6460
 0.7760	54.6660
 0.7770	54.6900
 0.7780	54.7130
 0.7790	54.7340
 0.7800	54.7600
 0.7810	54.7810
 0.7820	54.7980
 0.7830	54.8220
 0.7840	54.8400
 0.7850	54.8510
 0.7860	54.8590
 0.7870	54.8770
 0.7880	54.9050
 0.7890	54.9350
 0.7900	54.9560
 0.7910	54.9700
 0.7920	54.9850
 0.7930	55.0040
 0.7940	55.0290
 0.7950	55.0480
 0.7960	55.0650
 0.7970	55.0840
 0.7980	55.1090
 0.7990	55.1310
 0.8000	55.1510
 0.8010	55.1680
 0.8020	55.1910
 0.8030	55.2180
 0.8040	55.2460
 0.8050	55.2710
 0.8060	55.2840
 0.8070	55.3040
 0.8080	55.3320
 0.8090	55.3590
 0.8100	55.3800
 0.8110	55.3960
 0.8120	55.4130
 0.8130	55.4440
 0.8140	55.4750
 0.8150	55.5020
 0.8160	55.5270
 0.8170	55.5540
 0.8180	55.5780
 0.8190	55.5960
 0.8200	55.6120
 0.8210	55.6600
 0.8220	55.6910
 0.8230	55.7050
 0.8240	55.7430
 0.8250	55.7620
 0.8260	55.7800
 0.8270	55.8070
 0.8280	55.8250
 0.8290	55.8570
 0.8300	55.8820
 0.8310	55.8850
 0.8320	55.9040
 0.8330	55.9200
 0.8340	55.9410
 0.8350	55.9780
 0.8360	56.0100
 0.8370	56.0410
 0.8380	56.0710
 0.8390	56.1000
 0.8400	56.1270
 0.8410	56.1490
 0.8420	56.1710
 0.8430	56.2130
 0.8440	56.2460
 0.8450	56.2720
 0.8460	56.2980
 0.8470	56.3290
 0.8480	56.3600
 0.8490	56.3850
 0.8500	56.4030
 0.8510	56.4250
 0.8520	56.4520
 0.8530	56.4810
 0.8540	56.5050
 0.8550	56.5280
 0.8560	56.5580
 0.8570	56.5900
 0.8580	56.6040
 0.8590	56.6230
 0.8600	56.6460
 0.8610	56.6660
 0.8620	56.6860
 0.8630	56.7030
 0.8640	56.7130
 0.8650	56.7180
 0.8660	56.7450
 0.8670	56.7610
 0.8680	56.7730
 0.8690	56.7960
 0.8700	56.8090
 0.8710	56.8190
 0.8720	56.8290
 0.8730	56.8420
 0.8740	56.8560
 0.8750	56.8780
 0.8760	56.8980
 0.8770	56.8900
 0.8780	56.8930
 0.8790	56.8980
 0.8800	56.8960
 0.8810	56.8970
 0.8820	56.9030
 0.8830	56.9050
 0.8840	56.9010
 0.8850	56.9180
 0.8860	56.9210
 0.8870	56.9200
 0.8880	56.9270
 0.8890	56.9190
 0.8900	56.9140
 0.8910	56.9140
 0.8920	56.9100
 0.8930	56.9120
 0.8940	56.9130
 0.8950	56.9070
 0.8960	56.8850
 0.8970	56.8850
 0.8980	56.8860
 0.8990	56.8820
 0.9000	56.8790
 0.9010	56.8790
 0.9020	56.8730
 0.9030	56.8610
 0.9040	56.8580
 0.9050	56.8540
 0.9060	56.8430
 0.9070	56.8290
 0.9080	56.8350
 0.9090	56.8260
 0.9100	56.8030
 0.9110	56.7790
 0.9120	56.7800
 0.9130	56.7690
 0.9140	56.7580
 0.9150	56.7610
 0.9160	56.7390
 0.9170	56.7200
 0.9180	56.7120
 0.9190	56.7100
 0.9200	56.6890
 0.9210	56.6660
 0.9220	56.6500
 0.9230	56.6360
 0.9240	56.6320
 0.9250	56.6100
 0.9260	56.5750
 0.9270	56.5520
 0.9280	56.5260
 0.9290	56.4940
 0.9300	56.4540
 0.9310	56.4090
 0.9320	56.3760
 0.9330	56.3510
 0.9340	56.3220
 0.9350	56.2680
 0.9360	56.2340
 0.9370	56.2010
 0.9380	56.1570
 0.9390	56.1130
 0.9400	56.0660
 0.9410	56.0100
 0.9420	55.9420
 0.9430	55.8740
 0.9440	55.8080
 0.9450	55.7480
 0.9460	55.6890
 0.9470	55.5970
 0.9480	55.5010
 0.9490	55.4060
 0.9500	55.3110
 0.9510	55.2140
 0.9520	55.1010
 0.9530	54.9750
 0.9540	54.8480
 0.9550	54.7300
 0.9560	54.6060
 0.9570	54.4840
 0.9580	54.3760
 0.9590	54.2790
 0.9600	54.1860
 0.9610	54.1020
 0.9620	54.0330
 0.9630	53.9640
 0.9640	53.9080
 0.9650	53.8620
 0.9660	53.8160
 0.9670	53.7780
 0.9680	53.7620
 0.9690	53.7490
 0.9700	53.7160
 0.9710	53.6980
 0.9720	53.6840
 0.9730	53.6770
 0.9740	53.6880
 0.9750	53.7130
 0.9760	53.7110
 0.9770	53.7030
 0.9780	53.7230
 0.9790	53.7250
 0.9800	53.7370
 0.9810	53.7590
 0.9820	53.7790
 0.9830	53.8180
 0.9840	53.8690
 0.9850	53.9140
 0.9860	53.9430
 0.9870	53.9790
 0.9880	54.0170
 0.9890	54.0630
 0.9900	54.1250
 0.9910	54.1810
 0.9920	54.2210
 0.9930	54.2630
 0.9940	54.3310
 0.9950	54.4140
 0.9960	54.4690
 0.9970	54.5180
 0.9980	54.6000
 0.9990	54.6670
 1.0000	54.7580
 1.0010	54.8260
 1.0020	54.9270
 1.0030	54.9940
 1.0040	55.0600
 1.0050	55.1290
 1.0060	55.1960
 1.0070	55.2630
 1.0080	55.3310
 1.0090	55.4010
 1.0100	55.4670
 1.0110	55.5310
 1.0120	55.5990
 1.0130	55.6650
 1.0140	55.7330
 1.0150	55.8050
 1.0160	55.8770
 1.0170	55.9480
 1.0180	56.0140
 1.0190	56.0760
 1.0200	56.1410
 1.0210	56.2040
 1.0220	56.2690
 1.0230	56.3350
 1.0240	56.4060
 1.0250	56.4700
 1.0260	56.5350
 1.0270	56.5960
 1.0280	56.6530
 1.0290	56.7100
 1.0300	56.7630
 1.0310	56.8180
 1.0320	56.8740
 1.0330	56.9290
 1.0340	56.9860
 1.0350	57.0420
 1.0360	57.0940
 1.0370	57.1450
 1.0380	57.1970
 1.0390	57.2460
 1.0400	57.2950
 1.0410	57.3440
 1.0420	57.3910
 1.0430	57.4360
 1.0440	57.4790
 1.0450	57.5220
 1.0460	57.5640
 1.0470	57.6040
 1.0480	57.6440
 1.0490	57.6850
 1.0500	57.7240
 1.0510	57.7610
 1.0520	57.7960
 1.0530	57.8320
 1.0540	57.8680
 1.0550	57.9010
 1.0560	57.9330
 1.0570	57.9660
 1.0580	57.9960
 1.0590	58.0250
 1.0600	58.0570
 1.0610	58.0830
 1.0620	58.1000
 1.0630	58.1240
 1.0640	58.1490
 1.0650	58.1700
 1.0660	58.1960
 1.0670	58.2160
 1.0680	58.2330
 1.0690	58.2450
 1.0700	58.2580
 1.0710	58.2680
 1.0720	58.2800
 1.0730	58.2940
 1.0740	58.3050
 1.0750	58.3170
 1.0760	58.3250
 1.0770	58.3280
 1.0780	58.3320
 1.0790	58.3330
 1.0800	58.3350
 1.0810	58.3390
 1.0820	58.3390
 1.0830	58.3380
 1.0840	58.3360
 1.0850	58.3330
 1.0860	58.3270
 1.0870	58.3200
 1.0880	58.3130
 1.0890	58.3020
 1.0900	58.2850
 1.0910	58.2720
 1.0920	58.2600
 1.0930	58.2460
 1.0940	58.2330
 1.0950	58.2170
 1.0960	58.1990
 1.0970	58.1780
 1.0980	58.1540
 1.0990	58.1310
 1.1000	58.1060
 1.1010	58.0810
 1.1020	58.0570
 1.1030	58.0330
 1.1040	58.0090
 1.1050	57.9840
 1.1060	57.9550
 1.1070	57.9260
 1.1080	57.8950
 1.1090	57.8600
 1.1100	57.8250
 1.1110	57.7890
 1.1120	57.7490
 1.1130	57.7070
 1.1140	57.6610
 1.1150	57.6120
 1.1160	57.5600
 1.1170	57.5090
 1.1180	57.4480
 1.1190	57.3820
 1.1200	57.3130
 1.1210	57.2360
 1.1220	57.1540
 1.1230	57.0670
 1.1240	56.9680
 1.1250	56.8580
 1.1260	56.7380
 1.1270	56.6030
 1.1280	56.4590
 1.1290	56.2980
 1.1300	56.1250
 1.1310	55.9330
 1.1320	55.7250
 1.1330	55.5050
 1.1340	55.2680
 1.1350	55.0190
 1.1360	54.7580
 1.1370	54.4800
 1.1380	54.1910
 1.1390	53.8920
 1.1400	53.5830
 1.1410	53.2730
 1.1420	52.9610
 1.1430	52.6440
 1.1440	52.3310
 1.1450	52.0160
 1.1460	51.7140
 1.1470	51.4090
 1.1480	51.1250
 1.1490	50.8490
 1.1500	50.5900
 1.1510	50.3430
 1.1520	50.1130
 1.1530	49.8960
 1.1540	49.6980
 1.1550	49.5170
 1.1560	49.3510
 1.1570	49.2010
 1.1580	49.0650
 1.1590	48.9410
 1.1600	48.8310
 1.1610	48.7310
 1.1620	48.6420
 1.1630	48.5660
 1.1640	48.4960
 1.1650	48.4330
 1.1660	48.3840
 1.1670	48.3330
 1.1680	48.2870
 1.1690	48.2440
 1.1700	48.2050
 1.1710	48.1670
 1.1720	48.1320
 1.1730	48.0950
 1.1740	48.0590
 1.1750	48.0220
 1.1760	47.9820
 1.1770	47.9420
 1.1780	47.9020
 1.1790	47.8580
 1.1800	47.8130
 1.1810	47.7690
 1.1820	47.7220
 1.1830	47.6750
 1.1840	47.6290
 1.1850	47.5850
 1.1860	47.5400
 1.1870	47.4950
 1.1880	47.4530
 1.1890	47.4120
 1.1900	47.3720
 1.1910	47.3340
 1.1920	47.2980
 1.1930	47.2620
 1.1940	47.2320
 1.1950	47.2030
 1.1960	47.1800
 1.1970	47.1630
 1.1980	47.1470
 1.1990	47.1390
 1.2000	47.1390
 1.2010	47.1420
 1.2020	47.1510
 1.2030	47.1650
 1.2040	47.1870
 1.2050	47.2180
 1.2060	47.2540
 1.2070	47.2970
 1.2080	47.3450
 1.2090	47.4000
 1.2100	47.4610
 1.2110	47.5250
 1.2120	47.5940
 1.2130	47.6670
 1.2140	47.7440
 1.2150	47.8270
 1.2160	47.9150
 1.2170	48.0060
 1.2180	48.1000
 1.2190	48.1980
 1.2200	48.2990
 1.2210	48.4020
 1.2220	48.5060
 1.2230	48.6090
 1.2240	48.7120
 1.2250	48.8110
 1.2260	48.9100
 1.2270	49.0090
 1.2280	49.1050
 1.2290	49.2020
 1.2300	49.2960
 1.2310	49.3850
 1.2320	49.4700
 1.2330	49.5530
 1.2340	49.6340
 1.2350	49.7120
 1.2360	49.7870
 1.2370	49.8620
 1.2380	49.9330
 1.2390	49.9990
 1.2400	50.0670
 1.2410	50.1330
 1.2420	50.1960
 1.2430	50.2600
 1.2440	50.3210
 1.2450	50.3790
 1.2460	50.4390
 1.2470	50.4940
 1.2480	50.5450
 1.2490	50.5930
 1.2500	50.6370
 1.2510	50.6810
 1.2520	50.7240
 1.2530	50.7670
 1.2540	50.8100
 1.2550	50.8470
 1.2560	50.8830
 1.2570	50.9190
 1.2580	50.9500
 1.2590	50.9790
 1.2600	51.0060
 1.2610	51.0300
 1.2620	51.0490
 1.2630	51.0700
 1.2640	51.0890
 1.2650	51.1050
 1.2660	51.1220
 1.2670	51.1320
 1.2680	51.1380
 1.2690	51.1460
 1.2700	51.1480
 1.2710	51.1500
 1.2720	51.1510
 1.2730	51.1470
 1.2740	51.1440
 1.2750	51.1360
 1.2760	51.1260
 1.2770	51.1160
 1.2780	51.1030
 1.2790	51.0860
 1.2800	51.0670
 1.2810	51.0450
 1.2820	51.0190
 1.2830	50.9900
 1.2840	50.9580
 1.2850	50.9240
 1.2860	50.8850
 1.2870	50.8420
 1.2880	50.7970
 1.2890	50.7480
 1.2900	50.6960
 1.2910	50.6410
 1.2920	50.5830
 1.2930	50.5210
 1.2940	50.4540
 1.2950	50.3830
 1.2960	50.3080
 1.2970	50.2300
 1.2980	50.1470
 1.2990	50.0560
 1.3000	49.9610
 1.3010	49.8590
 1.3020	49.7520
 1.3030	49.6420
 1.3040	49.5270
 1.3050	49.4080
 1.3060	49.2830
 1.3070	49.1530
 1.3080	49.0200
 1.3090	48.8790
 1.3100	48.7290
 1.3110	48.5750
 1.3120	48.4140
 1.3130	48.2480
 1.3140	48.0780
 1.3150	47.9030
 1.3160	47.7210
 1.3170	47.5340
 1.3180	47.3420
 1.3190	47.1420
 1.3200	46.9380
 1.3210	46.7300
 1.3220	46.5160
 1.3230	46.3010
 1.3240	46.0830
 1.3250	45.8600
 1.3260	45.6340
 1.3270	45.4030
 1.3280	45.1700
 1.3290	44.9330
 1.3300	44.6940
 1.3310	44.4550
 1.3320	44.2120
 1.3330	43.9720
 1.3340	43.7300
 1.3350	43.4870
 1.3360	43.2440
 1.3370	43.0010
 1.3380	42.7600
 1.3390	42.5210
 1.3400	42.2840
 1.3410	42.0550
 1.3420	41.8260
 1.3430	41.5990
 1.3440	41.3750
 1.3450	41.1540
 1.3460	40.9330
 1.3470	40.7190
 1.3480	40.5090
 1.3490	40.3020
 1.3500	40.0990
 1.3510	39.9000
 1.3520	39.7020
 1.3530	39.5060
 1.3540	39.3120
 1.3550	39.1170
 1.3560	38.9240
 1.3570	38.7290
 1.3580	38.5370
 1.3590	38.3400
 1.3600	38.1380
 1.3610	37.9330
 1.3620	37.7200
 1.3630	37.5000
 1.3640	37.2770
 1.3650	37.0430
 1.3660	36.8010
 1.3670	36.5490
 1.3680	36.2840
 1.3690	36.0080
 1.3700	35.7150
 1.3710	35.4090
 1.3720	35.0890
 1.3730	34.7480
 1.3740	34.3950
 1.3750	34.0240
 1.3760	33.6300
 1.3770	33.2160
 1.3780	32.7760
 1.3790	32.3150
 1.3800	31.8340
 1.3810	31.3270
 1.3820	30.8060
 1.3830	30.2680
 1.3840	29.7160
 1.3850	29.1470
 1.3860	28.5710
 1.3870	27.9770
 1.3880	27.3870
 1.3890	26.7890
 1.3900	26.1900
 1.3910	25.5990
 1.3920	25.0090
 1.3930	24.4230
 1.3940	23.8450
 1.3950	23.2720
 1.3960	22.7120
 1.3970	22.1670
 1.3980	21.6360
 1.3990	21.1280
 1.4000	20.6360
 1.4010	20.1600
 1.4020	19.7090
 1.4030	19.2740
 1.4040	18.8610
 1.4050	18.4710
 1.4060	18.1000
 1.4070	17.7530
 1.4080	17.4260
 1.4090	17.1180
 1.4100	16.8330
 1.4110	16.5640
 1.4120	16.3120
 1.4130	16.0800
 1.4140	15.8640
 1.4150	15.6660
 1.4160	15.4830
 1.4170	15.3130
 1.4180	15.1570
 1.4190	15.0130
 1.4200	14.8800
 1.4210	14.7580
 1.4220	14.6460
 1.4230	14.5430
 1.4240	14.4500
 1.4250	14.3640
 1.4260	14.2880
 1.4270	14.2170
 1.4280	14.1540
 1.4290	14.0970
 1.4300	14.0480
 1.4310	14.0040
 1.4320	13.9660
 1.4330	13.9320
 1.4340	13.9030
 1.4350	13.8790
 1.4360	13.8590
 1.4370	13.8430
 1.4380	13.8320
 1.4390	13.8230
 1.4400	13.8180
 1.4410	13.8160
 1.4420	13.8170
 1.4430	13.8200
 1.4440	13.8250
 1.4450	13.8330
 1.4460	13.8420
 1.4470	13.8530
 1.4480	13.8660
 1.4490	13.8810
 1.4500	13.8960
 1.4510	13.9130
 1.4520	13.9310
 1.4530	13.9500
 1.4540	13.9720
 1.4550	13.9950
 1.4560	14.0200
 1.4570	14.0460
 1.4580	14.0750
 1.4590	14.1060
 1.4600	14.1400
 1.4610	14.1780
 1.4620	14.2200
 1.4630	14.2660
 1.4640	14.3150
 1.4650	14.3670
 1.4660	14.4240
 1.4670	14.4850
 1.4680	14.5500
