Name: Quercus agrifolia 2
Type: vegetation
Class: Tree
Genus: Quercus
Species: agrifolia
Sample No.: VH079
Owner: UCSB
Wavelength Range: VSWIR
Origin: 34.7156; -120.0603; WGS84
Collection Date: 4/21/2013
Description: Samples were collected as part of the HyspIRI Airborne Campaign. 48 individual plants were sampled in three times in 2013 - spring  summer  and fall. The name of the sample includes a 1  2  or 3 which references a different individual of the species. Samples were taken to JPL and processed within 48 hours of collection. The same leaves were processed in the Nicolet and then measured using the ASD.
Measurement: Bidirectional reflectance
First Column: X
Second Column: Y
X Units: Wavelength (micrometers)
Y Units: Reflectance (percentage)
First X Value: 0.35
Last X Value: 2.5
Number of X Values: 2151
Additional Information: vegetation.tree.quercus.agrifolia.vswir.vh079.ucsb.asd.ancillary.txt

 0.3500	 6.5050
 0.3510	 6.6470
 0.3520	 6.5290
 0.3530	 6.3750
 0.3540	 6.3620
 0.3550	 6.2120
 0.3560	 6.2730
 0.3570	 6.3300
 0.3580	 5.9900
 0.3590	 5.9900
 0.3600	 6.1640
 0.3610	 6.2820
 0.3620	 6.1630
 0.3630	 6.1760
 0.3640	 6.1880
 0.3650	 6.0580
 0.3660	 6.1080
 0.3670	 6.2300
 0.3680	 6.2450
 0.3690	 5.9920
 0.3700	 6.0070
 0.3710	 6.0730
 0.3720	 6.0500
 0.3730	 6.1410
 0.3740	 6.1740
 0.3750	 6.0970
 0.3760	 5.9540
 0.3770	 5.9890
 0.3780	 6.0510
 0.3790	 6.0700
 0.3800	 6.0720
 0.3810	 6.0590
 0.3820	 6.0480
 0.3830	 6.0380
 0.3840	 5.9790
 0.3850	 5.9890
 0.3860	 6.0360
 0.3870	 6.0370
 0.3880	 5.9860
 0.3890	 5.9690
 0.3900	 5.9950
 0.3910	 5.9920
 0.3920	 6.0140
 0.3930	 6.0080
 0.3940	 5.9550
 0.3950	 5.9690
 0.3960	 5.9650
 0.3970	 5.9720
 0.3980	 6.0470
 0.3990	 6.0260
 0.4000	 5.9940
 0.4010	 5.9970
 0.4020	 5.9990
 0.4030	 6.0170
 0.4040	 6.0190
 0.4050	 5.9920
 0.4060	 6.0170
 0.4070	 6.0560
 0.4080	 6.0660
 0.4090	 6.0210
 0.4100	 6.0760
 0.4110	 6.1070
 0.4120	 6.0730
 0.4130	 6.1370
 0.4140	 6.1550
 0.4150	 6.1440
 0.4160	 6.1620
 0.4170	 6.1890
 0.4180	 6.1900
 0.4190	 6.1830
 0.4200	 6.2320
 0.4210	 6.2390
 0.4220	 6.2390
 0.4230	 6.2630
 0.4240	 6.2630
 0.4250	 6.2710
 0.4260	 6.2910
 0.4270	 6.3140
 0.4280	 6.3280
 0.4290	 6.3280
 0.4300	 6.3270
 0.4310	 6.3610
 0.4320	 6.3570
 0.4330	 6.3450
 0.4340	 6.3620
 0.4350	 6.3730
 0.4360	 6.3720
 0.4370	 6.3690
 0.4380	 6.3830
 0.4390	 6.4040
 0.4400	 6.4140
 0.4410	 6.4120
 0.4420	 6.4250
 0.4430	 6.4410
 0.4440	 6.4520
 0.4450	 6.4550
 0.4460	 6.4800
 0.4470	 6.5010
 0.4480	 6.5100
 0.4490	 6.5180
 0.4500	 6.5180
 0.4510	 6.5180
 0.4520	 6.5260
 0.4530	 6.5310
 0.4540	 6.5350
 0.4550	 6.5430
 0.4560	 6.5610
 0.4570	 6.5680
 0.4580	 6.5810
 0.4590	 6.6030
 0.4600	 6.5880
 0.4610	 6.5780
 0.4620	 6.5830
 0.4630	 6.5970
 0.4640	 6.5930
 0.4650	 6.5920
 0.4660	 6.5990
 0.4670	 6.5980
 0.4680	 6.5940
 0.4690	 6.5850
 0.4700	 6.5750
 0.4710	 6.5900
 0.4720	 6.6050
 0.4730	 6.6050
 0.4740	 6.5870
 0.4750	 6.5920
 0.4760	 6.6000
 0.4770	 6.5960
 0.4780	 6.5990
 0.4790	 6.6050
 0.4800	 6.6130
 0.4810	 6.6190
 0.4820	 6.6120
 0.4830	 6.6130
 0.4840	 6.6230
 0.4850	 6.6230
 0.4860	 6.6300
 0.4870	 6.6320
 0.4880	 6.6280
 0.4890	 6.6470
 0.4900	 6.6650
 0.4910	 6.6770
 0.4920	 6.6880
 0.4930	 6.7060
 0.4940	 6.7200
 0.4950	 6.7310
 0.4960	 6.7620
 0.4970	 6.7770
 0.4980	 6.7890
 0.4990	 6.8160
 0.5000	 6.8490
 0.5010	 6.8850
 0.5020	 6.9230
 0.5030	 6.9670
 0.5040	 7.0060
 0.5050	 7.0520
 0.5060	 7.1120
 0.5070	 7.1780
 0.5080	 7.2460
 0.5090	 7.3180
 0.5100	 7.3990
 0.5110	 7.4940
 0.5120	 7.5930
 0.5130	 7.6980
 0.5140	 7.8190
 0.5150	 7.9430
 0.5160	 8.0740
 0.5170	 8.2150
 0.5180	 8.3690
 0.5190	 8.5300
 0.5200	 8.6970
 0.5210	 8.8740
 0.5220	 9.0530
 0.5230	 9.2300
 0.5240	 9.4040
 0.5250	 9.5740
 0.5260	 9.7420
 0.5270	 9.9040
 0.5280	10.0520
 0.5290	10.1960
 0.5300	10.3270
 0.5310	10.4450
 0.5320	10.5550
 0.5330	10.6610
 0.5340	10.7560
 0.5350	10.8360
 0.5360	10.9090
 0.5370	10.9750
 0.5380	11.0340
 0.5390	11.0870
 0.5400	11.1310
 0.5410	11.1710
 0.5420	11.2100
 0.5430	11.2370
 0.5440	11.2710
 0.5450	11.3090
 0.5460	11.3440
 0.5470	11.3820
 0.5480	11.4230
 0.5490	11.4640
 0.5500	11.4970
 0.5510	11.5190
 0.5520	11.5320
 0.5530	11.5380
 0.5540	11.5320
 0.5550	11.5150
 0.5560	11.4880
 0.5570	11.4500
 0.5580	11.3990
 0.5590	11.3340
 0.5600	11.2580
 0.5610	11.1860
 0.5620	11.1030
 0.5630	11.0080
 0.5640	10.9080
 0.5650	10.8040
 0.5660	10.6950
 0.5670	10.5790
 0.5680	10.4520
 0.5690	10.3210
 0.5700	10.1950
 0.5710	10.0790
 0.5720	 9.9560
 0.5730	 9.8300
 0.5740	 9.7110
 0.5750	 9.6090
 0.5760	 9.5180
 0.5770	 9.4320
 0.5780	 9.3500
 0.5790	 9.2690
 0.5800	 9.1940
 0.5810	 9.1260
 0.5820	 9.0640
 0.5830	 9.0050
 0.5840	 8.9510
 0.5850	 8.9010
 0.5860	 8.8510
 0.5870	 8.8110
 0.5880	 8.7750
 0.5890	 8.7350
 0.5900	 8.7030
 0.5910	 8.6820
 0.5920	 8.6640
 0.5930	 8.6340
 0.5940	 8.6080
 0.5950	 8.5850
 0.5960	 8.5630
 0.5970	 8.5430
 0.5980	 8.5280
 0.5990	 8.5140
 0.6000	 8.4970
 0.6010	 8.4820
 0.6020	 8.4660
 0.6030	 8.4440
 0.6040	 8.4060
 0.6050	 8.3680
 0.6060	 8.3310
 0.6070	 8.2900
 0.6080	 8.2420
 0.6090	 8.1930
 0.6100	 8.1400
 0.6110	 8.0820
 0.6120	 8.0340
 0.6130	 7.9930
 0.6140	 7.9540
 0.6150	 7.9100
 0.6160	 7.8670
 0.6170	 7.8270
 0.6180	 7.7920
 0.6190	 7.7600
 0.6200	 7.7290
 0.6210	 7.7020
 0.6220	 7.6810
 0.6230	 7.6590
 0.6240	 7.6420
 0.6250	 7.6300
 0.6260	 7.6220
 0.6270	 7.6110
 0.6280	 7.6000
 0.6290	 7.5940
 0.6300	 7.5890
 0.6310	 7.5830
 0.6320	 7.5770
 0.6330	 7.5710
 0.6340	 7.5610
 0.6350	 7.5450
 0.6360	 7.5210
 0.6370	 7.4960
 0.6380	 7.4620
 0.6390	 7.4240
 0.6400	 7.3890
 0.6410	 7.3480
 0.6420	 7.3030
 0.6430	 7.2550
 0.6440	 7.2140
 0.6450	 7.1790
 0.6460	 7.1420
 0.6470	 7.0970
 0.6480	 7.0620
 0.6490	 7.0360
 0.6500	 7.0140
 0.6510	 6.9860
 0.6520	 6.9640
 0.6530	 6.9470
 0.6540	 6.9310
 0.6550	 6.9120
 0.6560	 6.8910
 0.6570	 6.8690
 0.6580	 6.8450
 0.6590	 6.8180
 0.6600	 6.7880
 0.6610	 6.7580
 0.6620	 6.7350
 0.6630	 6.7160
 0.6640	 6.6960
 0.6650	 6.6720
 0.6660	 6.6560
 0.6670	 6.6440
 0.6680	 6.6350
 0.6690	 6.6320
 0.6700	 6.6320
 0.6710	 6.6350
 0.6720	 6.6390
 0.6730	 6.6460
 0.6740	 6.6580
 0.6750	 6.6730
 0.6760	 6.6910
 0.6770	 6.7100
 0.6780	 6.7320
 0.6790	 6.7580
 0.6800	 6.7880
 0.6810	 6.8180
 0.6820	 6.8530
 0.6830	 6.8940
 0.6840	 6.9430
 0.6850	 6.9960
 0.6860	 7.0540
 0.6870	 7.1220
 0.6880	 7.2050
 0.6890	 7.3060
 0.6900	 7.4330
 0.6910	 7.6010
 0.6920	 7.8030
 0.6930	 8.0480
 0.6940	 8.3520
 0.6950	 8.7280
 0.6960	 9.1630
 0.6970	 9.6620
 0.6980	10.2330
 0.6990	10.8680
 0.7000	11.5680
 0.7010	12.3260
 0.7020	13.1270
 0.7030	13.9660
 0.7040	14.8380
 0.7050	15.7360
 0.7060	16.6480
 0.7070	17.5700
 0.7080	18.4990
 0.7090	19.4350
 0.7100	20.3780
 0.7110	21.3190
 0.7120	22.2590
 0.7130	23.2040
 0.7140	24.1360
 0.7150	25.0570
 0.7160	25.9720
 0.7170	26.8810
 0.7180	27.7770
 0.7190	28.6570
 0.7200	29.5220
 0.7210	30.3720
 0.7220	31.2010
 0.7230	32.0090
 0.7240	32.8040
 0.7250	33.5680
 0.7260	34.3020
 0.7270	35.0090
 0.7280	35.6900
 0.7290	36.3390
 0.7300	36.9590
 0.7310	37.5580
 0.7320	38.1280
 0.7330	38.6620
 0.7340	39.1630
 0.7350	39.6470
 0.7360	40.1030
 0.7370	40.5310
 0.7380	40.9350
 0.7390	41.3140
 0.7400	41.6650
 0.7410	41.9930
 0.7420	42.3040
 0.7430	42.5950
 0.7440	42.8620
 0.7450	43.1070
 0.7460	43.3330
 0.7470	43.5420
 0.7480	43.7340
 0.7490	43.9080
 0.7500	44.0730
 0.7510	44.2200
 0.7520	44.3530
 0.7530	44.4790
 0.7540	44.5810
 0.7550	44.6750
 0.7560	44.7650
 0.7570	44.8480
 0.7580	44.9110
 0.7590	44.9760
 0.7600	45.0490
 0.7610	45.1060
 0.7620	45.1550
 0.7630	45.1930
 0.7640	45.2200
 0.7650	45.2600
 0.7660	45.2880
 0.7670	45.3090
 0.7680	45.3390
 0.7690	45.3630
 0.7700	45.3810
 0.7710	45.3960
 0.7720	45.4120
 0.7730	45.4320
 0.7740	45.4480
 0.7750	45.4580
 0.7760	45.4800
 0.7770	45.4900
 0.7780	45.4940
 0.7790	45.5070
 0.7800	45.5210
 0.7810	45.5300
 0.7820	45.5360
 0.7830	45.5520
 0.7840	45.5650
 0.7850	45.5720
 0.7860	45.5770
 0.7870	45.5880
 0.7880	45.6030
 0.7890	45.6160
 0.7900	45.6200
 0.7910	45.6240
 0.7920	45.6410
 0.7930	45.6630
 0.7940	45.6640
 0.7950	45.6650
 0.7960	45.6760
 0.7970	45.6910
 0.7980	45.6880
 0.7990	45.6940
 0.8000	45.7030
 0.8010	45.7090
 0.8020	45.7230
 0.8030	45.7300
 0.8040	45.7330
 0.8050	45.7400
 0.8060	45.7420
 0.8070	45.7500
 0.8080	45.7640
 0.8090	45.7750
 0.8100	45.7720
 0.8110	45.7730
 0.8120	45.7830
 0.8130	45.7820
 0.8140	45.7940
 0.8150	45.8070
 0.8160	45.8050
 0.8170	45.8040
 0.8180	45.8120
 0.8190	45.8180
 0.8200	45.8100
 0.8210	45.8220
 0.8220	45.8320
 0.8230	45.8340
 0.8240	45.8320
 0.8250	45.8340
 0.8260	45.8410
 0.8270	45.8480
 0.8280	45.8420
 0.8290	45.8360
 0.8300	45.8390
 0.8310	45.8520
 0.8320	45.8620
 0.8330	45.8590
 0.8340	45.8530
 0.8350	45.8580
 0.8360	45.8670
 0.8370	45.8800
 0.8380	45.8880
 0.8390	45.8750
 0.8400	45.8730
 0.8410	45.8760
 0.8420	45.8790
 0.8430	45.8870
 0.8440	45.8940
 0.8450	45.8980
 0.8460	45.8980
 0.8470	45.9010
 0.8480	45.9140
 0.8490	45.9280
 0.8500	45.9300
 0.8510	45.9290
 0.8520	45.9300
 0.8530	45.9320
 0.8540	45.9380
 0.8550	45.9470
 0.8560	45.9510
 0.8570	45.9520
 0.8580	45.9680
 0.8590	45.9770
 0.8600	45.9750
 0.8610	45.9680
 0.8620	45.9730
 0.8630	45.9790
 0.8640	45.9860
 0.8650	45.9960
 0.8660	46.0010
 0.8670	46.0050
 0.8680	46.0080
 0.8690	46.0080
 0.8700	46.0190
 0.8710	46.0160
 0.8720	46.0120
 0.8730	46.0310
 0.8740	46.0310
 0.8750	46.0300
 0.8760	46.0330
 0.8770	46.0330
 0.8780	46.0470
 0.8790	46.0530
 0.8800	46.0450
 0.8810	46.0410
 0.8820	46.0550
 0.8830	46.0760
 0.8840	46.0890
 0.8850	46.0730
 0.8860	46.0620
 0.8870	46.0630
 0.8880	46.0700
 0.8890	46.0690
 0.8900	46.0740
 0.8910	46.0800
 0.8920	46.0750
 0.8930	46.0830
 0.8940	46.0870
 0.8950	46.0840
 0.8960	46.0810
 0.8970	46.0860
 0.8980	46.0940
 0.8990	46.0980
 0.9000	46.0930
 0.9010	46.0950
 0.9020	46.1020
 0.9030	46.1080
 0.9040	46.1090
 0.9050	46.1130
 0.9060	46.1200
 0.9070	46.1230
 0.9080	46.1150
 0.9090	46.1130
 0.9100	46.1150
 0.9110	46.1180
 0.9120	46.1310
 0.9130	46.1310
 0.9140	46.1160
 0.9150	46.0990
 0.9160	46.1130
 0.9170	46.1300
 0.9180	46.1330
 0.9190	46.1220
 0.9200	46.1310
 0.9210	46.1310
 0.9220	46.1200
 0.9230	46.1140
 0.9240	46.0990
 0.9250	46.0960
 0.9260	46.1020
 0.9270	46.1000
 0.9280	46.1060
 0.9290	46.0990
 0.9300	46.0800
 0.9310	46.0700
 0.9320	46.0610
 0.9330	46.0580
 0.9340	46.0540
 0.9350	46.0280
 0.9360	46.0210
 0.9370	46.0190
 0.9380	46.0050
 0.9390	45.9780
 0.9400	45.9690
 0.9410	45.9770
 0.9420	45.9830
 0.9430	45.9640
 0.9440	45.9190
 0.9450	45.8880
 0.9460	45.8860
 0.9470	45.8630
 0.9480	45.8270
 0.9490	45.7930
 0.9500	45.7710
 0.9510	45.7520
 0.9520	45.7020
 0.9530	45.6450
 0.9540	45.6110
 0.9550	45.5830
 0.9560	45.5400
 0.9570	45.5020
 0.9580	45.4870
 0.9590	45.4410
 0.9600	45.4210
 0.9610	45.4120
 0.9620	45.3840
 0.9630	45.3420
 0.9640	45.3330
 0.9650	45.3330
 0.9660	45.3070
 0.9670	45.3020
 0.9680	45.2940
 0.9690	45.2720
 0.9700	45.2420
 0.9710	45.2520
 0.9720	45.2470
 0.9730	45.2380
 0.9740	45.2520
 0.9750	45.2360
 0.9760	45.2440
 0.9770	45.2530
 0.9780	45.2270
 0.9790	45.2320
 0.9800	45.2500
 0.9810	45.2530
 0.9820	45.2320
 0.9830	45.2760
 0.9840	45.2900
 0.9850	45.2760
 0.9860	45.2790
 0.9870	45.2780
 0.9880	45.2970
 0.9890	45.3200
 0.9900	45.3240
 0.9910	45.3560
 0.9920	45.3630
 0.9930	45.3700
 0.9940	45.3760
 0.9950	45.3830
 0.9960	45.3900
 0.9970	45.3970
 0.9980	45.4030
 0.9990	45.4100
 1.0000	45.4170
 1.0010	45.4240
 1.0020	45.4300
 1.0030	45.4370
 1.0040	45.4440
 1.0050	45.4510
 1.0060	45.4570
 1.0070	45.4640
 1.0080	45.4710
 1.0090	45.4780
 1.0100	45.4780
 1.0110	45.4920
 1.0120	45.5070
 1.0130	45.5240
 1.0140	45.5420
 1.0150	45.5640
 1.0160	45.5790
 1.0170	45.5930
 1.0180	45.6070
 1.0190	45.6230
 1.0200	45.6390
 1.0210	45.6570
 1.0220	45.6750
 1.0230	45.6930
 1.0240	45.7120
 1.0250	45.7280
 1.0260	45.7450
 1.0270	45.7620
 1.0280	45.7770
 1.0290	45.7890
 1.0300	45.7970
 1.0310	45.8100
 1.0320	45.8200
 1.0330	45.8320
 1.0340	45.8470
 1.0350	45.8630
 1.0360	45.8750
 1.0370	45.8830
 1.0380	45.8930
 1.0390	45.9040
 1.0400	45.9140
 1.0410	45.9250
 1.0420	45.9360
 1.0430	45.9490
 1.0440	45.9600
 1.0450	45.9720
 1.0460	45.9840
 1.0470	45.9970
 1.0480	46.0080
 1.0490	46.0200
 1.0500	46.0300
 1.0510	46.0370
 1.0520	46.0450
 1.0530	46.0510
 1.0540	46.0560
 1.0550	46.0640
 1.0560	46.0750
 1.0570	46.0820
 1.0580	46.0910
 1.0590	46.0980
 1.0600	46.1010
 1.0610	46.1070
 1.0620	46.1160
 1.0630	46.1220
 1.0640	46.1260
 1.0650	46.1310
 1.0660	46.1370
 1.0670	46.1420
 1.0680	46.1460
 1.0690	46.1500
 1.0700	46.1560
 1.0710	46.1630
 1.0720	46.1660
 1.0730	46.1700
 1.0740	46.1720
 1.0750	46.1700
 1.0760	46.1690
 1.0770	46.1670
 1.0780	46.1680
 1.0790	46.1680
 1.0800	46.1680
 1.0810	46.1690
 1.0820	46.1710
 1.0830	46.1710
 1.0840	46.1710
 1.0850	46.1720
 1.0860	46.1740
 1.0870	46.1710
 1.0880	46.1650
 1.0890	46.1600
 1.0900	46.1500
 1.0910	46.1450
 1.0920	46.1450
 1.0930	46.1400
 1.0940	46.1360
 1.0950	46.1310
 1.0960	46.1200
 1.0970	46.1150
 1.0980	46.1140
 1.0990	46.1100
 1.1000	46.1050
 1.1010	46.0970
 1.1020	46.0840
 1.1030	46.0740
 1.1040	46.0630
 1.1050	46.0500
 1.1060	46.0390
 1.1070	46.0310
 1.1080	46.0200
 1.1090	46.0100
 1.1100	45.9980
 1.1110	45.9840
 1.1120	45.9700
 1.1130	45.9560
 1.1140	45.9410
 1.1150	45.9250
 1.1160	45.9080
 1.1170	45.8890
 1.1180	45.8690
 1.1190	45.8480
 1.1200	45.8230
 1.1210	45.7960
 1.1220	45.7670
 1.1230	45.7370
 1.1240	45.7060
 1.1250	45.6710
 1.1260	45.6360
 1.1270	45.5950
 1.1280	45.5510
 1.1290	45.5010
 1.1300	45.4480
 1.1310	45.3920
 1.1320	45.3320
 1.1330	45.2660
 1.1340	45.1980
 1.1350	45.1220
 1.1360	45.0380
 1.1370	44.9510
 1.1380	44.8610
 1.1390	44.7650
 1.1400	44.6670
 1.1410	44.5680
 1.1420	44.4630
 1.1430	44.3570
 1.1440	44.2500
 1.1450	44.1380
 1.1460	44.0320
 1.1470	43.9250
 1.1480	43.8210
 1.1490	43.7190
 1.1500	43.6240
 1.1510	43.5290
 1.1520	43.4420
 1.1530	43.3590
 1.1540	43.2840
 1.1550	43.2150
 1.1560	43.1530
 1.1570	43.0980
 1.1580	43.0470
 1.1590	42.9980
 1.1600	42.9540
 1.1610	42.9150
 1.1620	42.8810
 1.1630	42.8490
 1.1640	42.8230
 1.1650	42.7980
 1.1660	42.7760
 1.1670	42.7560
 1.1680	42.7400
 1.1690	42.7240
 1.1700	42.7100
 1.1710	42.6970
 1.1720	42.6870
 1.1730	42.6760
 1.1740	42.6650
 1.1750	42.6540
 1.1760	42.6460
 1.1770	42.6360
 1.1780	42.6250
 1.1790	42.6130
 1.1800	42.5980
 1.1810	42.5820
 1.1820	42.5680
 1.1830	42.5540
 1.1840	42.5410
 1.1850	42.5300
 1.1860	42.5160
 1.1870	42.5020
 1.1880	42.4910
 1.1890	42.4810
 1.1900	42.4690
 1.1910	42.4600
 1.1920	42.4510
 1.1930	42.4410
 1.1940	42.4340
 1.1950	42.4310
 1.1960	42.4290
 1.1970	42.4270
 1.1980	42.4250
 1.1990	42.4250
 1.2000	42.4270
 1.2010	42.4310
 1.2020	42.4380
 1.2030	42.4430
 1.2040	42.4480
 1.2050	42.4550
 1.2060	42.4630
 1.2070	42.4740
 1.2080	42.4860
 1.2090	42.4970
 1.2100	42.5100
 1.2110	42.5260
 1.2120	42.5430
 1.2130	42.5620
 1.2140	42.5830
 1.2150	42.6050
 1.2160	42.6290
 1.2170	42.6550
 1.2180	42.6830
 1.2190	42.7120
 1.2200	42.7420
 1.2210	42.7720
 1.2220	42.8040
 1.2230	42.8370
 1.2240	42.8710
 1.2250	42.9020
 1.2260	42.9300
 1.2270	42.9600
 1.2280	42.9910
 1.2290	43.0210
 1.2300	43.0490
 1.2310	43.0740
 1.2320	43.1000
 1.2330	43.1220
 1.2340	43.1440
 1.2350	43.1640
 1.2360	43.1870
 1.2370	43.2090
 1.2380	43.2320
 1.2390	43.2570
 1.2400	43.2790
 1.2410	43.2980
 1.2420	43.3170
 1.2430	43.3350
 1.2440	43.3490
 1.2450	43.3640
 1.2460	43.3800
 1.2470	43.3950
 1.2480	43.4110
 1.2490	43.4270
 1.2500	43.4400
 1.2510	43.4510
 1.2520	43.4620
 1.2530	43.4730
 1.2540	43.4820
 1.2550	43.4910
 1.2560	43.5010
 1.2570	43.5100
 1.2580	43.5200
 1.2590	43.5280
 1.2600	43.5380
 1.2610	43.5450
 1.2620	43.5510
 1.2630	43.5560
 1.2640	43.5600
 1.2650	43.5620
 1.2660	43.5640
 1.2670	43.5640
 1.2680	43.5620
 1.2690	43.5610
 1.2700	43.5610
 1.2710	43.5570
 1.2720	43.5530
 1.2730	43.5490
 1.2740	43.5410
 1.2750	43.5330
 1.2760	43.5290
 1.2770	43.5230
 1.2780	43.5190
 1.2790	43.5140
 1.2800	43.5030
 1.2810	43.4910
 1.2820	43.4790
 1.2830	43.4660
 1.2840	43.4550
 1.2850	43.4430
 1.2860	43.4290
 1.2870	43.4140
 1.2880	43.3980
 1.2890	43.3790
 1.2900	43.3590
 1.2910	43.3390
 1.2920	43.3170
 1.2930	43.2960
 1.2940	43.2720
 1.2950	43.2450
 1.2960	43.2190
 1.2970	43.1890
 1.2980	43.1570
 1.2990	43.1260
 1.3000	43.0910
 1.3010	43.0530
 1.3020	43.0150
 1.3030	42.9730
 1.3040	42.9300
 1.3050	42.8860
 1.3060	42.8370
 1.3070	42.7860
 1.3080	42.7300
 1.3090	42.6720
 1.3100	42.6120
 1.3110	42.5500
 1.3120	42.4870
 1.3130	42.4200
 1.3140	42.3510
 1.3150	42.2790
 1.3160	42.2020
 1.3170	42.1220
 1.3180	42.0400
 1.3190	41.9540
 1.3200	41.8650
 1.3210	41.7740
 1.3220	41.6790
 1.3230	41.5820
 1.3240	41.4830
 1.3250	41.3820
 1.3260	41.2780
 1.3270	41.1720
 1.3280	41.0650
 1.3290	40.9530
 1.3300	40.8390
 1.3310	40.7230
 1.3320	40.6040
 1.3330	40.4860
 1.3340	40.3660
 1.3350	40.2450
 1.3360	40.1240
 1.3370	39.9980
 1.3380	39.8730
 1.3390	39.7490
 1.3400	39.6220
 1.3410	39.4980
 1.3420	39.3760
 1.3430	39.2520
 1.3440	39.1300
 1.3450	39.0080
 1.3460	38.8850
 1.3470	38.7650
 1.3480	38.6440
 1.3490	38.5270
 1.3500	38.4110
 1.3510	38.2980
 1.3520	38.1860
 1.3530	38.0730
 1.3540	37.9600
 1.3550	37.8430
 1.3560	37.7260
 1.3570	37.6100
 1.3580	37.4940
 1.3590	37.3770
 1.3600	37.2560
 1.3610	37.1320
 1.3620	37.0010
 1.3630	36.8670
 1.3640	36.7280
 1.3650	36.5820
 1.3660	36.4340
 1.3670	36.2760
 1.3680	36.1090
 1.3690	35.9350
 1.3700	35.7460
 1.3710	35.5460
 1.3720	35.3370
 1.3730	35.1110
 1.3740	34.8740
 1.3750	34.6200
 1.3760	34.3470
 1.3770	34.0550
 1.3780	33.7400
 1.3790	33.4050
 1.3800	33.0500
 1.3810	32.6690
 1.3820	32.2710
 1.3830	31.8540
 1.3840	31.4150
 1.3850	30.9540
 1.3860	30.4790
 1.3870	29.9800
 1.3880	29.4740
 1.3890	28.9550
 1.3900	28.4240
 1.3910	27.8910
 1.3920	27.3500
 1.3930	26.8050
 1.3940	26.2620
 1.3950	25.7140
 1.3960	25.1710
 1.3970	24.6360
 1.3980	24.1090
 1.3990	23.5990
 1.4000	23.1000
 1.4010	22.6130
 1.4020	22.1440
 1.4030	21.6880
 1.4040	21.2500
 1.4050	20.8340
 1.4060	20.4340
 1.4070	20.0590
 1.4080	19.7040
 1.4090	19.3690
 1.4100	19.0560
 1.4110	18.7600
 1.4120	18.4840
 1.4130	18.2270
 1.4140	17.9880
 1.4150	17.7700
 1.4160	17.5700
 1.4170	17.3840
 1.4180	17.2140
 1.4190	17.0560
 1.4200	16.9120
 1.4210	16.7800
 1.4220	16.6600
 1.4230	16.5510
 1.4240	16.4530
 1.4250	16.3640
 1.4260	16.2850
 1.4270	16.2130
 1.4280	16.1500
 1.4290	16.0920
 1.4300	16.0410
 1.4310	15.9970
 1.4320	15.9600
 1.4330	15.9270
 1.4340	15.9020
 1.4350	15.8790
 1.4360	15.8610
 1.4370	15.8470
 1.4380	15.8360
 1.4390	15.8300
 1.4400	15.8270
 1.4410	15.8280
 1.4420	15.8320
 1.4430	15.8380
 1.4440	15.8450
 1.4450	15.8540
 1.4460	15.8650
 1.4470	15.8760
 1.4480	15.8910
 1.4490	15.9060
 1.4500	15.9230
 1.4510	15.9420
 1.4520	15.9620
 1.4530	15.9830
 1.4540	16.0050
 1.4550	16.0290
 1.4560	16.0550
 1.4570	16.0840
 1.4580	16.1170
 1.4590	16.1510
 1.4600	16.1890
 1.4610	16.2290
 1.4620	16.2720
 1.4630	16.3210
 1.4640	16.3740
 1.4650	16.4320
 1.4660	16.4960
 1.4670	16.5630
 1.4680	16.6360
 1.4690	16.7130
 1.4700	16.7940
