Name: Adenostoma fasciculatum 1
Type: vegetation
Class: Shrub
Genus: Adenostoma
Species: fasciculatum
Sample No.: VH033
Owner: UCSB
Wavelength Range: VSWIR
Origin: 34.5084; -119.7687; WGS84
Collection Date: 4/1/2013
Description: Samples were collected as part of the HyspIRI Airborne Campaign. 48 individual plants were sampled in three times in 2013 - spring  summer  and fall. The name of the sample includes a 1  2  or 3 which references a different individual of the species. Samples were taken to JPL and processed within 48 hours of collection. The same leaves were processed in the Nicolet and then measured using the ASD.
Measurement: Bidirectional reflectance
First Column: X
Second Column: Y
X Units: Wavelength (micrometers)
Y Units: Reflectance (percentage)
First X Value: 0.35
Last X Value: 2.5
Number of X Values: 2151
Additional Information: vegetation.shrub.adenostoma.fasciculatum.vswir.vh033.ucsb.asd.ancillary.txt

 0.3500	 1.9720
 0.3510	 1.9850
 0.3520	 1.7570
 0.3530	 1.6300
 0.3540	 1.8050
 0.3550	 1.7510
 0.3560	 1.6710
 0.3570	 1.6250
 0.3580	 1.5970
 0.3590	 1.6460
 0.3600	 1.6340
 0.3610	 1.5600
 0.3620	 1.6420
 0.3630	 1.7360
 0.3640	 1.6940
 0.3650	 1.4920
 0.3660	 1.5260
 0.3670	 1.5400
 0.3680	 1.5390
 0.3690	 1.6830
 0.3700	 1.6740
 0.3710	 1.6430
 0.3720	 1.6880
 0.3730	 1.7510
 0.3740	 1.6880
 0.3750	 1.6080
 0.3760	 1.6430
 0.3770	 1.6020
 0.3780	 1.5740
 0.3790	 1.5880
 0.3800	 1.6170
 0.3810	 1.6710
 0.3820	 1.6940
 0.3830	 1.6590
 0.3840	 1.5980
 0.3850	 1.7100
 0.3860	 1.8120
 0.3870	 1.6760
 0.3880	 1.6770
 0.3890	 1.6860
 0.3900	 1.6630
 0.3910	 1.6840
 0.3920	 1.7310
 0.3930	 1.7600
 0.3940	 1.7510
 0.3950	 1.7650
 0.3960	 1.8180
 0.3970	 1.8460
 0.3980	 1.7800
 0.3990	 1.8110
 0.4000	 1.8550
 0.4010	 1.8600
 0.4020	 1.8450
 0.4030	 1.8580
 0.4040	 1.8800
 0.4050	 1.8910
 0.4060	 1.9360
 0.4070	 1.9860
 0.4080	 1.9990
 0.4090	 1.9470
 0.4100	 1.9870
 0.4110	 2.0540
 0.4120	 2.0890
 0.4130	 2.1100
 0.4140	 2.1270
 0.4150	 2.1380
 0.4160	 2.1450
 0.4170	 2.1820
 0.4180	 2.2310
 0.4190	 2.2660
 0.4200	 2.2540
 0.4210	 2.2620
 0.4220	 2.2890
 0.4230	 2.3190
 0.4240	 2.3360
 0.4250	 2.3620
 0.4260	 2.3880
 0.4270	 2.3960
 0.4280	 2.4220
 0.4290	 2.4510
 0.4300	 2.4710
 0.4310	 2.4860
 0.4320	 2.5090
 0.4330	 2.5250
 0.4340	 2.5250
 0.4350	 2.5450
 0.4360	 2.5700
 0.4370	 2.5860
 0.4380	 2.5770
 0.4390	 2.5860
 0.4400	 2.6030
 0.4410	 2.6160
 0.4420	 2.6280
 0.4430	 2.6410
 0.4440	 2.6480
 0.4450	 2.6460
 0.4460	 2.6750
 0.4470	 2.7010
 0.4480	 2.7100
 0.4490	 2.7200
 0.4500	 2.7310
 0.4510	 2.7400
 0.4520	 2.7470
 0.4530	 2.7740
 0.4540	 2.7850
 0.4550	 2.7830
 0.4560	 2.7920
 0.4570	 2.7940
 0.4580	 2.8010
 0.4590	 2.8160
 0.4600	 2.8340
 0.4610	 2.8470
 0.4620	 2.8520
 0.4630	 2.8530
 0.4640	 2.8710
 0.4650	 2.8820
 0.4660	 2.8810
 0.4670	 2.8840
 0.4680	 2.8880
 0.4690	 2.8940
 0.4700	 2.9020
 0.4710	 2.8970
 0.4720	 2.9010
 0.4730	 2.9140
 0.4740	 2.9250
 0.4750	 2.9280
 0.4760	 2.9350
 0.4770	 2.9470
 0.4780	 2.9460
 0.4790	 2.9470
 0.4800	 2.9540
 0.4810	 2.9660
 0.4820	 2.9690
 0.4830	 2.9800
 0.4840	 2.9930
 0.4850	 2.9830
 0.4860	 2.9960
 0.4870	 3.0120
 0.4880	 3.0140
 0.4890	 3.0250
 0.4900	 3.0390
 0.4910	 3.0540
 0.4920	 3.0710
 0.4930	 3.0840
 0.4940	 3.0980
 0.4950	 3.1150
 0.4960	 3.1350
 0.4970	 3.1560
 0.4980	 3.1770
 0.4990	 3.2000
 0.5000	 3.2260
 0.5010	 3.2560
 0.5020	 3.2880
 0.5030	 3.3160
 0.5040	 3.3520
 0.5050	 3.3950
 0.5060	 3.4410
 0.5070	 3.4880
 0.5080	 3.5440
 0.5090	 3.6030
 0.5100	 3.6550
 0.5110	 3.7200
 0.5120	 3.7950
 0.5130	 3.8770
 0.5140	 3.9620
 0.5150	 4.0490
 0.5160	 4.1460
 0.5170	 4.2580
 0.5180	 4.3690
 0.5190	 4.4800
 0.5200	 4.5940
 0.5210	 4.7160
 0.5220	 4.8360
 0.5230	 4.9570
 0.5240	 5.0820
 0.5250	 5.1990
 0.5260	 5.3160
 0.5270	 5.4320
 0.5280	 5.5430
 0.5290	 5.6420
 0.5300	 5.7350
 0.5310	 5.8240
 0.5320	 5.9130
 0.5330	 5.9970
 0.5340	 6.0750
 0.5350	 6.1460
 0.5360	 6.2080
 0.5370	 6.2710
 0.5380	 6.3330
 0.5390	 6.3890
 0.5400	 6.4420
 0.5410	 6.4970
 0.5420	 6.5550
 0.5430	 6.6090
 0.5440	 6.6590
 0.5450	 6.7040
 0.5460	 6.7420
 0.5470	 6.7710
 0.5480	 6.7940
 0.5490	 6.8150
 0.5500	 6.8390
 0.5510	 6.8620
 0.5520	 6.8790
 0.5530	 6.8850
 0.5540	 6.8860
 0.5550	 6.8790
 0.5560	 6.8640
 0.5570	 6.8420
 0.5580	 6.8170
 0.5590	 6.7840
 0.5600	 6.7420
 0.5610	 6.7000
 0.5620	 6.6540
 0.5630	 6.6010
 0.5640	 6.5420
 0.5650	 6.4830
 0.5660	 6.4180
 0.5670	 6.3490
 0.5680	 6.2810
 0.5690	 6.2120
 0.5700	 6.1370
 0.5710	 6.0560
 0.5720	 5.9820
 0.5730	 5.9120
 0.5740	 5.8460
 0.5750	 5.7870
 0.5760	 5.7380
 0.5770	 5.6940
 0.5780	 5.6520
 0.5790	 5.6080
 0.5800	 5.5630
 0.5810	 5.5200
 0.5820	 5.4800
 0.5830	 5.4430
 0.5840	 5.4120
 0.5850	 5.3840
 0.5860	 5.3540
 0.5870	 5.3220
 0.5880	 5.2940
 0.5890	 5.2720
 0.5900	 5.2450
 0.5910	 5.2240
 0.5920	 5.2150
 0.5930	 5.2130
 0.5940	 5.2050
 0.5950	 5.1940
 0.5960	 5.1830
 0.5970	 5.1740
 0.5980	 5.1680
 0.5990	 5.1630
 0.6000	 5.1560
 0.6010	 5.1430
 0.6020	 5.1290
 0.6030	 5.1130
 0.6040	 5.0930
 0.6050	 5.0710
 0.6060	 5.0460
 0.6070	 5.0160
 0.6080	 4.9840
 0.6090	 4.9540
 0.6100	 4.9290
 0.6110	 4.9070
 0.6120	 4.8720
 0.6130	 4.8280
 0.6140	 4.7850
 0.6150	 4.7530
 0.6160	 4.7200
 0.6170	 4.6860
 0.6180	 4.6570
 0.6190	 4.6350
 0.6200	 4.6170
 0.6210	 4.6020
 0.6220	 4.5910
 0.6230	 4.5760
 0.6240	 4.5650
 0.6250	 4.5620
 0.6260	 4.5550
 0.6270	 4.5550
 0.6280	 4.5550
 0.6290	 4.5510
 0.6300	 4.5550
 0.6310	 4.5610
 0.6320	 4.5630
 0.6330	 4.5620
 0.6340	 4.5530
 0.6350	 4.5400
 0.6360	 4.5300
 0.6370	 4.5140
 0.6380	 4.4950
 0.6390	 4.4740
 0.6400	 4.4490
 0.6410	 4.4210
 0.6420	 4.3900
 0.6430	 4.3580
 0.6440	 4.3240
 0.6450	 4.2910
 0.6460	 4.2560
 0.6470	 4.2210
 0.6480	 4.1920
 0.6490	 4.1620
 0.6500	 4.1320
 0.6510	 4.1130
 0.6520	 4.0940
 0.6530	 4.0750
 0.6540	 4.0560
 0.6550	 4.0380
 0.6560	 4.0160
 0.6570	 3.9900
 0.6580	 3.9620
 0.6590	 3.9310
 0.6600	 3.9000
 0.6610	 3.8680
 0.6620	 3.8370
 0.6630	 3.8070
 0.6640	 3.7800
 0.6650	 3.7560
 0.6660	 3.7350
 0.6670	 3.7160
 0.6680	 3.6990
 0.6690	 3.6880
 0.6700	 3.6840
 0.6710	 3.6810
 0.6720	 3.6780
 0.6730	 3.6780
 0.6740	 3.6830
 0.6750	 3.6880
 0.6760	 3.6920
 0.6770	 3.7070
 0.6780	 3.7210
 0.6790	 3.7340
 0.6800	 3.7520
 0.6810	 3.7780
 0.6820	 3.8110
 0.6830	 3.8470
 0.6840	 3.8950
 0.6850	 3.9560
 0.6860	 4.0270
 0.6870	 4.1070
 0.6880	 4.2060
 0.6890	 4.3250
 0.6900	 4.4680
 0.6910	 4.6390
 0.6920	 4.8400
 0.6930	 5.0680
 0.6940	 5.3270
 0.6950	 5.6260
 0.6960	 5.9590
 0.6970	 6.3290
 0.6980	 6.7380
 0.6990	 7.1820
 0.7000	 7.6580
 0.7010	 8.1620
 0.7020	 8.6910
 0.7030	 9.2470
 0.7040	 9.8240
 0.7050	10.4130
 0.7060	11.0180
 0.7070	11.6360
 0.7080	12.2640
 0.7090	12.9010
 0.7100	13.5490
 0.7110	14.2090
 0.7120	14.8800
 0.7130	15.5600
 0.7140	16.2440
 0.7150	16.9350
 0.7160	17.6350
 0.7170	18.3390
 0.7180	19.0460
 0.7190	19.7550
 0.7200	20.4650
 0.7210	21.1760
 0.7220	21.8850
 0.7230	22.5900
 0.7240	23.2850
 0.7250	23.9720
 0.7260	24.6470
 0.7270	25.3060
 0.7280	25.9510
 0.7290	26.5810
 0.7300	27.1920
 0.7310	27.7770
 0.7320	28.3450
 0.7330	28.8950
 0.7340	29.4250
 0.7350	29.9360
 0.7360	30.4260
 0.7370	30.8910
 0.7380	31.3320
 0.7390	31.7560
 0.7400	32.1620
 0.7410	32.5470
 0.7420	32.9110
 0.7430	33.2590
 0.7440	33.5860
 0.7450	33.8940
 0.7460	34.1850
 0.7470	34.4610
 0.7480	34.7220
 0.7490	34.9680
 0.7500	35.1890
 0.7510	35.4000
 0.7520	35.6000
 0.7530	35.7880
 0.7540	35.9590
 0.7550	36.1180
 0.7560	36.2690
 0.7570	36.4150
 0.7580	36.5440
 0.7590	36.6620
 0.7600	36.7760
 0.7610	36.8820
 0.7620	36.9850
 0.7630	37.0810
 0.7640	37.1660
 0.7650	37.2480
 0.7660	37.3300
 0.7670	37.4090
 0.7680	37.4760
 0.7690	37.5430
 0.7700	37.6070
 0.7710	37.6690
 0.7720	37.7350
 0.7730	37.7920
 0.7740	37.8430
 0.7750	37.8980
 0.7760	37.9480
 0.7770	38.0010
 0.7780	38.0520
 0.7790	38.0940
 0.7800	38.1400
 0.7810	38.1880
 0.7820	38.2370
 0.7830	38.2870
 0.7840	38.3270
 0.7850	38.3630
 0.7860	38.4000
 0.7870	38.4430
 0.7880	38.4800
 0.7890	38.5150
 0.7900	38.5560
 0.7910	38.5920
 0.7920	38.6300
 0.7930	38.6690
 0.7940	38.7020
 0.7950	38.7330
 0.7960	38.7670
 0.7970	38.8030
 0.7980	38.8280
 0.7990	38.8580
 0.8000	38.8900
 0.8010	38.9180
 0.8020	38.9470
 0.8030	38.9770
 0.8040	39.0040
 0.8050	39.0230
 0.8060	39.0530
 0.8070	39.0810
 0.8080	39.1050
 0.8090	39.1310
 0.8100	39.1530
 0.8110	39.1770
 0.8120	39.2000
 0.8130	39.2130
 0.8140	39.2300
 0.8150	39.2500
 0.8160	39.2690
 0.8170	39.2890
 0.8180	39.3040
 0.8190	39.3210
 0.8200	39.3480
 0.8210	39.3640
 0.8220	39.3760
 0.8230	39.3910
 0.8240	39.4100
 0.8250	39.4200
 0.8260	39.4300
 0.8270	39.4470
 0.8280	39.4610
 0.8290	39.4670
 0.8300	39.4730
 0.8310	39.4820
 0.8320	39.4920
 0.8330	39.5010
 0.8340	39.5120
 0.8350	39.5240
 0.8360	39.5340
 0.8370	39.5440
 0.8380	39.5590
 0.8390	39.5800
 0.8400	39.5980
 0.8410	39.6160
 0.8420	39.6360
 0.8430	39.6530
 0.8440	39.6720
 0.8450	39.6890
 0.8460	39.7020
 0.8470	39.7220
 0.8480	39.7390
 0.8490	39.7550
 0.8500	39.7740
 0.8510	39.7920
 0.8520	39.8140
 0.8530	39.8390
 0.8540	39.8580
 0.8550	39.8670
 0.8560	39.8810
 0.8570	39.9030
 0.8580	39.9230
 0.8590	39.9440
 0.8600	39.9600
 0.8610	39.9740
 0.8620	39.9960
 0.8630	40.0180
 0.8640	40.0350
 0.8650	40.0470
 0.8660	40.0700
 0.8670	40.0880
 0.8680	40.1040
 0.8690	40.1230
 0.8700	40.1370
 0.8710	40.1550
 0.8720	40.1790
 0.8730	40.2050
 0.8740	40.2250
 0.8750	40.2400
 0.8760	40.2570
 0.8770	40.2770
 0.8780	40.2940
 0.8790	40.3060
 0.8800	40.3170
 0.8810	40.3390
 0.8820	40.3590
 0.8830	40.3750
 0.8840	40.3860
 0.8850	40.4020
 0.8860	40.4130
 0.8870	40.4240
 0.8880	40.4400
 0.8890	40.4550
 0.8900	40.4670
 0.8910	40.4790
 0.8920	40.4900
 0.8930	40.4970
 0.8940	40.5060
 0.8950	40.5170
 0.8960	40.5270
 0.8970	40.5460
 0.8980	40.5610
 0.8990	40.5720
 0.9000	40.5870
 0.9010	40.5880
 0.9020	40.5880
 0.9030	40.5950
 0.9040	40.6070
 0.9050	40.6270
 0.9060	40.6420
 0.9070	40.6470
 0.9080	40.6550
 0.9090	40.6600
 0.9100	40.6620
 0.9110	40.6650
 0.9120	40.6840
 0.9130	40.6920
 0.9140	40.6960
 0.9150	40.7100
 0.9160	40.7220
 0.9170	40.7250
 0.9180	40.7230
 0.9190	40.7220
 0.9200	40.7260
 0.9210	40.7160
 0.9220	40.7030
 0.9230	40.7120
 0.9240	40.7020
 0.9250	40.6980
 0.9260	40.6980
 0.9270	40.6780
 0.9280	40.6710
 0.9290	40.6540
 0.9300	40.6260
 0.9310	40.6030
 0.9320	40.5740
 0.9330	40.5460
 0.9340	40.5220
 0.9350	40.5030
 0.9360	40.4660
 0.9370	40.4290
 0.9380	40.3970
 0.9390	40.3510
 0.9400	40.3170
 0.9410	40.2800
 0.9420	40.2330
 0.9430	40.1910
 0.9440	40.1340
 0.9450	40.0770
 0.9460	40.0220
 0.9470	39.9370
 0.9480	39.8680
 0.9490	39.7930
 0.9500	39.6940
 0.9510	39.6060
 0.9520	39.5000
 0.9530	39.3830
 0.9540	39.2690
 0.9550	39.1670
 0.9560	39.0630
 0.9570	38.9580
 0.9580	38.8600
 0.9590	38.7820
 0.9600	38.6970
 0.9610	38.6270
 0.9620	38.5910
 0.9630	38.5300
 0.9640	38.4660
 0.9650	38.4180
 0.9660	38.3950
 0.9670	38.3550
 0.9680	38.3230
 0.9690	38.3050
 0.9700	38.2970
 0.9710	38.2780
 0.9720	38.2670
 0.9730	38.2570
 0.9740	38.2380
 0.9750	38.2400
 0.9760	38.2540
 0.9770	38.2650
 0.9780	38.2640
 0.9790	38.2730
 0.9800	38.2850
 0.9810	38.3060
 0.9820	38.3430
 0.9830	38.3700
 0.9840	38.3940
 0.9850	38.4150
 0.9860	38.4340
 0.9870	38.4680
 0.9880	38.5080
 0.9890	38.5540
 0.9900	38.6080
 0.9910	38.6490
 0.9920	38.8320
 0.9930	39.0150
 0.9940	39.1980
 0.9950	39.3810
 0.9960	39.5640
 0.9970	39.7470
 0.9980	39.9300
 0.9990	40.1130
 1.0000	40.2960
 1.0010	40.4790
 1.0020	40.6620
 1.0030	40.8450
 1.0040	41.0280
 1.0050	41.2110
 1.0060	41.3930
 1.0070	41.5760
 1.0080	41.7590
 1.0090	41.9420
 1.0100	41.9420
 1.0110	41.9970
 1.0120	42.0530
 1.0130	42.1080
 1.0140	42.1640
 1.0150	42.2200
 1.0160	42.2770
 1.0170	42.3340
 1.0180	42.3910
 1.0190	42.4460
 1.0200	42.5000
 1.0210	42.5540
 1.0220	42.6060
 1.0230	42.6610
 1.0240	42.7180
 1.0250	42.7730
 1.0260	42.8290
 1.0270	42.8820
 1.0280	42.9350
 1.0290	42.9860
 1.0300	43.0340
 1.0310	43.0830
 1.0320	43.1310
 1.0330	43.1790
 1.0340	43.2270
 1.0350	43.2760
 1.0360	43.3220
 1.0370	43.3680
 1.0380	43.4150
 1.0390	43.4640
 1.0400	43.5080
 1.0410	43.5520
 1.0420	43.5910
 1.0430	43.6220
 1.0440	43.6570
 1.0450	43.6930
 1.0460	43.7290
 1.0470	43.7680
 1.0480	43.8030
 1.0490	43.8390
 1.0500	43.8700
 1.0510	43.8980
 1.0520	43.9210
 1.0530	43.9490
 1.0540	43.9760
 1.0550	44.0040
 1.0560	44.0360
 1.0570	44.0630
 1.0580	44.0870
 1.0590	44.1110
 1.0600	44.1350
 1.0610	44.1550
 1.0620	44.1700
 1.0630	44.1870
 1.0640	44.2010
 1.0650	44.2150
 1.0660	44.2320
 1.0670	44.2450
 1.0680	44.2560
 1.0690	44.2630
 1.0700	44.2700
 1.0710	44.2750
 1.0720	44.2810
 1.0730	44.2870
 1.0740	44.2920
 1.0750	44.2980
 1.0760	44.3020
 1.0770	44.3050
 1.0780	44.3070
 1.0790	44.3050
 1.0800	44.3060
 1.0810	44.3110
 1.0820	44.3090
 1.0830	44.3040
 1.0840	44.3000
 1.0850	44.2930
 1.0860	44.2850
 1.0870	44.2780
 1.0880	44.2740
 1.0890	44.2650
 1.0900	44.2550
 1.0910	44.2440
 1.0920	44.2320
 1.0930	44.2180
 1.0940	44.2030
 1.0950	44.1870
 1.0960	44.1690
 1.0970	44.1500
 1.0980	44.1310
 1.0990	44.1120
 1.1000	44.0940
 1.1010	44.0740
 1.1020	44.0540
 1.1030	44.0320
 1.1040	44.0060
 1.1050	43.9820
 1.1060	43.9570
 1.1070	43.9310
 1.1080	43.9030
 1.1090	43.8750
 1.1100	43.8430
 1.1110	43.8080
 1.1120	43.7710
 1.1130	43.7310
 1.1140	43.6910
 1.1150	43.6550
 1.1160	43.6100
 1.1170	43.5630
 1.1180	43.5080
 1.1190	43.4450
 1.1200	43.3780
 1.1210	43.3090
 1.1220	43.2320
 1.1230	43.1480
 1.1240	43.0540
 1.1250	42.9510
 1.1260	42.8390
 1.1270	42.7160
 1.1280	42.5880
 1.1290	42.4450
 1.1300	42.2910
 1.1310	42.1240
 1.1320	41.9430
 1.1330	41.7520
 1.1340	41.5490
 1.1350	41.3350
 1.1360	41.1110
 1.1370	40.8780
 1.1380	40.6350
 1.1390	40.3860
 1.1400	40.1270
 1.1410	39.8650
 1.1420	39.6020
 1.1430	39.3380
 1.1440	39.0760
 1.1450	38.8110
 1.1460	38.5580
 1.1470	38.3040
 1.1480	38.0660
 1.1490	37.8360
 1.1500	37.6210
 1.1510	37.4150
 1.1520	37.2240
 1.1530	37.0420
 1.1540	36.8790
 1.1550	36.7300
 1.1560	36.5960
 1.1570	36.4790
 1.1580	36.3740
 1.1590	36.2780
 1.1600	36.1920
 1.1610	36.1170
 1.1620	36.0510
 1.1630	35.9950
 1.1640	35.9470
 1.1650	35.9030
 1.1660	35.8660
 1.1670	35.8320
 1.1680	35.8040
 1.1690	35.7770
 1.1700	35.7560
 1.1710	35.7320
 1.1720	35.7090
 1.1730	35.6860
 1.1740	35.6620
 1.1750	35.6390
 1.1760	35.6160
 1.1770	35.5920
 1.1780	35.5660
 1.1790	35.5390
 1.1800	35.5110
 1.1810	35.4810
 1.1820	35.4510
 1.1830	35.4230
 1.1840	35.3960
 1.1850	35.3700
 1.1860	35.3440
 1.1870	35.3190
 1.1880	35.2960
 1.1890	35.2730
 1.1900	35.2540
 1.1910	35.2380
 1.1920	35.2240
 1.1930	35.2140
 1.1940	35.2050
 1.1950	35.2000
 1.1960	35.1970
 1.1970	35.1980
 1.1980	35.2030
 1.1990	35.2110
 1.2000	35.2240
 1.2010	35.2390
 1.2020	35.2570
 1.2030	35.2790
 1.2040	35.3040
 1.2050	35.3330
 1.2060	35.3670
 1.2070	35.4060
 1.2080	35.4480
 1.2090	35.4930
 1.2100	35.5410
 1.2110	35.5930
 1.2120	35.6470
 1.2130	35.7050
 1.2140	35.7670
 1.2150	35.8300
 1.2160	35.8960
 1.2170	35.9610
 1.2180	36.0260
 1.2190	36.0940
 1.2200	36.1620
 1.2210	36.2320
 1.2220	36.3050
 1.2230	36.3760
 1.2240	36.4450
 1.2250	36.5120
 1.2260	36.5770
 1.2270	36.6410
 1.2280	36.7060
 1.2290	36.7710
 1.2300	36.8340
 1.2310	36.8930
 1.2320	36.9480
 1.2330	37.0000
 1.2340	37.0530
 1.2350	37.1040
 1.2360	37.1550
 1.2370	37.2070
 1.2380	37.2570
 1.2390	37.3050
 1.2400	37.3500
 1.2410	37.3940
 1.2420	37.4370
 1.2430	37.4800
 1.2440	37.5220
 1.2450	37.5640
 1.2460	37.6030
 1.2470	37.6410
 1.2480	37.6760
 1.2490	37.7100
 1.2500	37.7430
 1.2510	37.7750
 1.2520	37.8080
 1.2530	37.8380
 1.2540	37.8660
 1.2550	37.8910
 1.2560	37.9140
 1.2570	37.9350
 1.2580	37.9560
 1.2590	37.9750
 1.2600	37.9930
 1.2610	38.0080
 1.2620	38.0210
 1.2630	38.0320
 1.2640	38.0420
 1.2650	38.0520
 1.2660	38.0620
 1.2670	38.0690
 1.2680	38.0760
 1.2690	38.0800
 1.2700	38.0810
 1.2710	38.0830
 1.2720	38.0820
 1.2730	38.0770
 1.2740	38.0700
 1.2750	38.0620
 1.2760	38.0500
 1.2770	38.0360
 1.2780	38.0210
 1.2790	38.0010
 1.2800	37.9780
 1.2810	37.9550
 1.2820	37.9280
 1.2830	37.8980
 1.2840	37.8670
 1.2850	37.8320
 1.2860	37.7930
 1.2870	37.7510
 1.2880	37.7060
 1.2890	37.6550
 1.2900	37.6020
 1.2910	37.5450
 1.2920	37.4860
 1.2930	37.4210
 1.2940	37.3540
 1.2950	37.2820
 1.2960	37.2050
 1.2970	37.1270
 1.2980	37.0430
 1.2990	36.9540
 1.3000	36.8630
 1.3010	36.7650
 1.3020	36.6660
 1.3030	36.5660
 1.3040	36.4580
 1.3050	36.3460
 1.3060	36.2320
 1.3070	36.1100
 1.3080	35.9870
 1.3090	35.8630
 1.3100	35.7320
 1.3110	35.5960
 1.3120	35.4560
 1.3130	35.3120
 1.3140	35.1650
 1.3150	35.0160
 1.3160	34.8620
 1.3170	34.7060
 1.3180	34.5430
 1.3190	34.3770
 1.3200	34.2090
 1.3210	34.0330
 1.3220	33.8550
 1.3230	33.6750
 1.3240	33.4920
 1.3250	33.3100
 1.3260	33.1250
 1.3270	32.9350
 1.3280	32.7440
 1.3290	32.5480
 1.3300	32.3510
 1.3310	32.1540
 1.3320	31.9540
 1.3330	31.7550
 1.3340	31.5580
 1.3350	31.3610
 1.3360	31.1630
 1.3370	30.9640
 1.3380	30.7660
 1.3390	30.5700
 1.3400	30.3770
 1.3410	30.1880
 1.3420	30.0020
 1.3430	29.8180
 1.3440	29.6360
 1.3450	29.4570
 1.3460	29.2800
 1.3470	29.1060
 1.3480	28.9340
 1.3490	28.7650
 1.3500	28.6010
 1.3510	28.4360
 1.3520	28.2730
 1.3530	28.1110
 1.3540	27.9490
 1.3550	27.7900
 1.3560	27.6320
 1.3570	27.4740
 1.3580	27.3170
 1.3590	27.1580
 1.3600	26.9960
 1.3610	26.8320
 1.3620	26.6630
 1.3630	26.4910
 1.3640	26.3140
 1.3650	26.1330
 1.3660	25.9480
 1.3670	25.7540
 1.3680	25.5490
 1.3690	25.3340
 1.3700	25.1060
 1.3710	24.8670
 1.3720	24.6150
 1.3730	24.3480
 1.3740	24.0680
 1.3750	23.7720
 1.3760	23.4590
 1.3770	23.1320
 1.3780	22.7820
 1.3790	22.4180
 1.3800	22.0400
 1.3810	21.6430
 1.3820	21.2390
 1.3830	20.8250
 1.3840	20.4000
 1.3850	19.9650
 1.3860	19.5260
 1.3870	19.0740
 1.3880	18.6280
 1.3890	18.1780
 1.3900	17.7280
 1.3910	17.2860
 1.3920	16.8460
 1.3930	16.4080
 1.3940	15.9800
 1.3950	15.5570
 1.3960	15.1470
 1.3970	14.7500
 1.3980	14.3660
 1.3990	14.0000
 1.4000	13.6470
 1.4010	13.3090
 1.4020	12.9880
 1.4030	12.6820
 1.4040	12.3910
 1.4050	12.1170
 1.4060	11.8590
 1.4070	11.6190
 1.4080	11.3940
 1.4090	11.1830
 1.4100	10.9880
 1.4110	10.8050
 1.4120	10.6360
 1.4130	10.4790
 1.4140	10.3340
 1.4150	10.2020
 1.4160	10.0810
 1.4170	 9.9680
 1.4180	 9.8660
 1.4190	 9.7710
 1.4200	 9.6830
 1.4210	 9.6040
 1.4220	 9.5310
 1.4230	 9.4660
 1.4240	 9.4080
 1.4250	 9.3540
 1.4260	 9.3070
 1.4270	 9.2640
 1.4280	 9.2270
 1.4290	 9.1920
 1.4300	 9.1610
 1.4310	 9.1340
 1.4320	 9.1120
 1.4330	 9.0920
 1.4340	 9.0760
 1.4350	 9.0620
 1.4360	 9.0510
 1.4370	 9.0430
 1.4380	 9.0370
 1.4390	 9.0340
 1.4400	 9.0330
 1.4410	 9.0330
 1.4420	 9.0360
 1.4430	 9.0390
 1.4440	 9.0450
 1.4450	 9.0510
 1.4460	 9.0590
 1.4470	 9.0680
 1.4480	 9.0800
 1.4490	 9.0910
 1.4500	 9.1040
 1.4510	 9.1170
 1.4520	 9.1310
 1.4530	 9.1460
 1.4540	 9.1610
 1.4550	 9.1790
 1.4560	 9.1970
 1.4570	 9.2160
 1.4580	 9.2360
 1.4590	 9.2580
 1.4600	 9.2830
 1.4610	 9.3090
 1.4620	 9.3380
 1.4630	 9.3700
 1.4640	 9.4040
 1.4650	 9.4410
 1.4660	 9.4810
 1.4670	 9.5240
 1.4680	 9.5700
 1.4690	 9.6180
