Name: Arctostaphylos glandulosa 3
Type: vegetation
Class: Shrub
Genus: Arctostaphylos
Species: glandulosa
Sample No.: VH226
Owner: UCSB
Wavelength Range: VSWIR
Origin: 34.5085; -119.7682; WGS84
Collection Date: 10/13/2013
Description: Samples were collected as part of the HyspIRI Airborne Campaign. 48 individual plants were sampled in three times in 2013 - spring  summer  and fall. The name of the sample includes a 1  2  or 3 which references a different individual of the species. Samples were taken to JPL and processed within 48 hours of collection. The same leaves were processed in the Nicolet and then measured using the ASD.
Measurement: Bidirectional reflectance
First Column: X
Second Column: Y
X Units: Wavelength (micrometers)
Y Units: Reflectance (percentage)
First X Value: 0.35
Last X Value: 2.5
Number of X Values: 2151
Additional Information: vegetation.shrub.arctostaphylos.glandulosa.vswir.vh226.ucsb.asd.ancillary.txt

 0.3500	 9.0960
 0.3510	 8.8460
 0.3520	 8.8230
 0.3530	 8.8040
 0.3540	 8.6170
 0.3550	 8.7000
 0.3560	 8.6800
 0.3570	 8.6390
 0.3580	 8.8320
 0.3590	 8.9250
 0.3600	 8.8160
 0.3610	 8.6180
 0.3620	 8.7120
 0.3630	 8.7570
 0.3640	 8.7490
 0.3650	 8.7490
 0.3660	 8.7390
 0.3670	 8.7070
 0.3680	 8.6690
 0.3690	 8.6530
 0.3700	 8.6510
 0.3710	 8.5600
 0.3720	 8.4260
 0.3730	 8.6040
 0.3740	 8.6770
 0.3750	 8.6630
 0.3760	 8.6740
 0.3770	 8.5490
 0.3780	 8.4620
 0.3790	 8.4640
 0.3800	 8.4820
 0.3810	 8.3790
 0.3820	 8.3440
 0.3830	 8.4770
 0.3840	 8.5820
 0.3850	 8.5140
 0.3860	 8.3970
 0.3870	 8.4240
 0.3880	 8.5110
 0.3890	 8.5210
 0.3900	 8.4560
 0.3910	 8.4570
 0.3920	 8.5040
 0.3930	 8.5210
 0.3940	 8.4660
 0.3950	 8.4070
 0.3960	 8.3850
 0.3970	 8.4070
 0.3980	 8.4560
 0.3990	 8.4840
 0.4000	 8.4480
 0.4010	 8.3930
 0.4020	 8.4660
 0.4030	 8.4550
 0.4040	 8.4120
 0.4050	 8.4240
 0.4060	 8.4510
 0.4070	 8.4320
 0.4080	 8.4000
 0.4090	 8.4430
 0.4100	 8.4800
 0.4110	 8.4980
 0.4120	 8.4890
 0.4130	 8.4410
 0.4140	 8.4740
 0.4150	 8.5390
 0.4160	 8.5510
 0.4170	 8.5430
 0.4180	 8.5480
 0.4190	 8.5770
 0.4200	 8.6150
 0.4210	 8.6630
 0.4220	 8.6960
 0.4230	 8.7050
 0.4240	 8.7470
 0.4250	 8.7800
 0.4260	 8.8120
 0.4270	 8.8670
 0.4280	 8.9140
 0.4290	 8.9580
 0.4300	 8.9950
 0.4310	 9.0120
 0.4320	 9.0380
 0.4330	 9.0740
 0.4340	 9.1120
 0.4350	 9.1360
 0.4360	 9.1870
 0.4370	 9.2500
 0.4380	 9.2740
 0.4390	 9.3120
 0.4400	 9.3670
 0.4410	 9.4260
 0.4420	 9.4690
 0.4430	 9.5100
 0.4440	 9.5500
 0.4450	 9.5860
 0.4460	 9.6280
 0.4470	 9.6560
 0.4480	 9.6780
 0.4490	 9.7390
 0.4500	 9.7580
 0.4510	 9.7660
 0.4520	 9.8040
 0.4530	 9.8540
 0.4540	 9.8760
 0.4550	 9.8790
 0.4560	 9.9030
 0.4570	 9.9300
 0.4580	 9.9450
 0.4590	 9.9470
 0.4600	 9.9530
 0.4610	 9.9780
 0.4620	10.0030
 0.4630	10.0060
 0.4640	10.0140
 0.4650	10.0180
 0.4660	10.0210
 0.4670	10.0360
 0.4680	10.0420
 0.4690	10.0490
 0.4700	10.0620
 0.4710	10.0450
 0.4720	10.0570
 0.4730	10.0860
 0.4740	10.0860
 0.4750	10.0900
 0.4760	10.1050
 0.4770	10.1250
 0.4780	10.1290
 0.4790	10.1310
 0.4800	10.1410
 0.4810	10.1630
 0.4820	10.1810
 0.4830	10.1850
 0.4840	10.1860
 0.4850	10.2150
 0.4860	10.2420
 0.4870	10.2560
 0.4880	10.2630
 0.4890	10.3090
 0.4900	10.3440
 0.4910	10.3670
 0.4920	10.4030
 0.4930	10.4520
 0.4940	10.5020
 0.4950	10.5520
 0.4960	10.6090
 0.4970	10.6740
 0.4980	10.7460
 0.4990	10.8230
 0.5000	10.8960
 0.5010	10.9900
 0.5020	11.0930
 0.5030	11.1730
 0.5040	11.2870
 0.5050	11.4190
 0.5060	11.5500
 0.5070	11.6900
 0.5080	11.8380
 0.5090	11.9970
 0.5100	12.1730
 0.5110	12.3630
 0.5120	12.5650
 0.5130	12.7750
 0.5140	12.9940
 0.5150	13.2340
 0.5160	13.4830
 0.5170	13.7340
 0.5180	14.0050
 0.5190	14.2730
 0.5200	14.5400
 0.5210	14.8170
 0.5220	15.0970
 0.5230	15.3750
 0.5240	15.6480
 0.5250	15.9020
 0.5260	16.1580
 0.5270	16.4080
 0.5280	16.6340
 0.5290	16.8540
 0.5300	17.0630
 0.5310	17.2560
 0.5320	17.4350
 0.5330	17.5970
 0.5340	17.7480
 0.5350	17.8910
 0.5360	18.0180
 0.5370	18.1320
 0.5380	18.2360
 0.5390	18.3350
 0.5400	18.4230
 0.5410	18.5010
 0.5420	18.5750
 0.5430	18.6470
 0.5440	18.7210
 0.5450	18.7920
 0.5460	18.8560
 0.5470	18.9280
 0.5480	19.0010
 0.5490	19.0640
 0.5500	19.1060
 0.5510	19.1420
 0.5520	19.1710
 0.5530	19.1880
 0.5540	19.1910
 0.5550	19.1800
 0.5560	19.1550
 0.5570	19.1180
 0.5580	19.0720
 0.5590	19.0140
 0.5600	18.9430
 0.5610	18.8550
 0.5620	18.7620
 0.5630	18.6610
 0.5640	18.5430
 0.5650	18.4160
 0.5660	18.2800
 0.5670	18.1350
 0.5680	17.9880
 0.5690	17.8270
 0.5700	17.6600
 0.5710	17.4980
 0.5720	17.3390
 0.5730	17.1970
 0.5740	17.0670
 0.5750	16.9340
 0.5760	16.8100
 0.5770	16.7000
 0.5780	16.6020
 0.5790	16.5020
 0.5800	16.4110
 0.5810	16.3220
 0.5820	16.2260
 0.5830	16.1410
 0.5840	16.0660
 0.5850	15.9940
 0.5860	15.9180
 0.5870	15.8390
 0.5880	15.7620
 0.5890	15.6890
 0.5900	15.6230
 0.5910	15.5650
 0.5920	15.5170
 0.5930	15.4750
 0.5940	15.4300
 0.5950	15.3930
 0.5960	15.3640
 0.5970	15.3220
 0.5980	15.2840
 0.5990	15.2490
 0.6000	15.2130
 0.6010	15.1750
 0.6020	15.1310
 0.6030	15.0780
 0.6040	15.0170
 0.6050	14.9540
 0.6060	14.8870
 0.6070	14.8140
 0.6080	14.7330
 0.6090	14.6450
 0.6100	14.5520
 0.6110	14.4560
 0.6120	14.3740
 0.6130	14.3020
 0.6140	14.2350
 0.6150	14.1660
 0.6160	14.0970
 0.6170	14.0300
 0.6180	13.9700
 0.6190	13.9120
 0.6200	13.8520
 0.6210	13.7970
 0.6220	13.7590
 0.6230	13.7280
 0.6240	13.7000
 0.6250	13.6720
 0.6260	13.6560
 0.6270	13.6420
 0.6280	13.6300
 0.6290	13.6220
 0.6300	13.6070
 0.6310	13.5920
 0.6320	13.5770
 0.6330	13.5560
 0.6340	13.5170
 0.6350	13.4610
 0.6360	13.3950
 0.6370	13.3180
 0.6380	13.2210
 0.6390	13.1080
 0.6400	12.9890
 0.6410	12.8640
 0.6420	12.7330
 0.6430	12.5970
 0.6440	12.4660
 0.6450	12.3330
 0.6460	12.2050
 0.6470	12.0910
 0.6480	11.9890
 0.6490	11.8970
 0.6500	11.8160
 0.6510	11.7500
 0.6520	11.6940
 0.6530	11.6460
 0.6540	11.6010
 0.6550	11.5500
 0.6560	11.4970
 0.6570	11.4400
 0.6580	11.3750
 0.6590	11.3070
 0.6600	11.2300
 0.6610	11.1460
 0.6620	11.0670
 0.6630	10.9990
 0.6640	10.9360
 0.6650	10.8710
 0.6660	10.8110
 0.6670	10.7620
 0.6680	10.7230
 0.6690	10.6880
 0.6700	10.6770
 0.6710	10.6680
 0.6720	10.6560
 0.6730	10.6670
 0.6740	10.6800
 0.6750	10.6980
 0.6760	10.7250
 0.6770	10.7610
 0.6780	10.8020
 0.6790	10.8510
 0.6800	10.9160
 0.6810	10.9910
 0.6820	11.0840
 0.6830	11.2010
 0.6840	11.3400
 0.6850	11.5070
 0.6860	11.7100
 0.6870	11.9600
 0.6880	12.2590
 0.6890	12.6120
 0.6900	13.0280
 0.6910	13.5200
 0.6920	14.0870
 0.6930	14.7270
 0.6940	15.4400
 0.6950	16.2340
 0.6960	17.0970
 0.6970	18.0260
 0.6980	19.0160
 0.6990	20.0590
 0.7000	21.1480
 0.7010	22.2760
 0.7020	23.4270
 0.7030	24.5900
 0.7040	25.7520
 0.7050	26.9060
 0.7060	28.0620
 0.7070	29.2000
 0.7080	30.3090
 0.7090	31.3850
 0.7100	32.4460
 0.7110	33.4810
 0.7120	34.4810
 0.7130	35.4470
 0.7140	36.3880
 0.7150	37.2990
 0.7160	38.1720
 0.7170	39.0000
 0.7180	39.8120
 0.7190	40.5950
 0.7200	41.3230
 0.7210	42.0330
 0.7220	42.7090
 0.7230	43.3460
 0.7240	43.9570
 0.7250	44.5240
 0.7260	45.0570
 0.7270	45.5660
 0.7280	46.0390
 0.7290	46.4980
 0.7300	46.9310
 0.7310	47.3190
 0.7320	47.6890
 0.7330	48.0420
 0.7340	48.3770
 0.7350	48.6910
 0.7360	48.9670
 0.7370	49.2280
 0.7380	49.4890
 0.7390	49.7240
 0.7400	49.9280
 0.7410	50.1230
 0.7420	50.3290
 0.7430	50.5000
 0.7440	50.6560
 0.7450	50.8080
 0.7460	50.9520
 0.7470	51.0680
 0.7480	51.1760
 0.7490	51.2860
 0.7500	51.3750
 0.7510	51.4750
 0.7520	51.5620
 0.7530	51.6090
 0.7540	51.6630
 0.7550	51.7230
 0.7560	51.7830
 0.7570	51.8360
 0.7580	51.8820
 0.7590	51.9150
 0.7600	51.9400
 0.7610	51.9960
 0.7620	52.0280
 0.7630	52.0400
 0.7640	52.0540
 0.7650	52.0750
 0.7660	52.0920
 0.7670	52.1090
 0.7680	52.1380
 0.7690	52.1520
 0.7700	52.1600
 0.7710	52.1680
 0.7720	52.1810
 0.7730	52.1960
 0.7740	52.1950
 0.7750	52.1760
 0.7760	52.2010
 0.7770	52.2210
 0.7780	52.2390
 0.7790	52.2710
 0.7800	52.2530
 0.7810	52.2400
 0.7820	52.2500
 0.7830	52.2650
 0.7840	52.2560
 0.7850	52.2610
 0.7860	52.2980
 0.7870	52.3270
 0.7880	52.3150
 0.7890	52.3040
 0.7900	52.3370
 0.7910	52.3390
 0.7920	52.3430
 0.7930	52.3510
 0.7940	52.3480
 0.7950	52.3630
 0.7960	52.3760
 0.7970	52.3780
 0.7980	52.3850
 0.7990	52.3930
 0.8000	52.4020
 0.8010	52.4140
 0.8020	52.4190
 0.8030	52.4270
 0.8040	52.4390
 0.8050	52.4510
 0.8060	52.4460
 0.8070	52.4490
 0.8080	52.4670
 0.8090	52.4870
 0.8100	52.4750
 0.8110	52.4610
 0.8120	52.4680
 0.8130	52.4900
 0.8140	52.4970
 0.8150	52.5040
 0.8160	52.5270
 0.8170	52.5250
 0.8180	52.5310
 0.8190	52.5410
 0.8200	52.5400
 0.8210	52.5580
 0.8220	52.5720
 0.8230	52.5840
 0.8240	52.6140
 0.8250	52.6130
 0.8260	52.5980
 0.8270	52.5860
 0.8280	52.5760
 0.8290	52.5950
 0.8300	52.6230
 0.8310	52.6310
 0.8320	52.6150
 0.8330	52.6150
 0.8340	52.6220
 0.8350	52.6130
 0.8360	52.6330
 0.8370	52.6540
 0.8380	52.6630
 0.8390	52.6580
 0.8400	52.6540
 0.8410	52.6730
 0.8420	52.7060
 0.8430	52.7060
 0.8440	52.7190
 0.8450	52.7400
 0.8460	52.7530
 0.8470	52.7510
 0.8480	52.7650
 0.8490	52.7870
 0.8500	52.7980
 0.8510	52.7850
 0.8520	52.7880
 0.8530	52.8030
 0.8540	52.8000
 0.8550	52.8180
 0.8560	52.8360
 0.8570	52.8390
 0.8580	52.8210
 0.8590	52.8300
 0.8600	52.8500
 0.8610	52.8620
 0.8620	52.8650
 0.8630	52.8780
 0.8640	52.8880
 0.8650	52.8860
 0.8660	52.8870
 0.8670	52.8980
 0.8680	52.9110
 0.8690	52.9170
 0.8700	52.9300
 0.8710	52.9360
 0.8720	52.9350
 0.8730	52.9380
 0.8740	52.9430
 0.8750	52.9460
 0.8760	52.9520
 0.8770	52.9680
 0.8780	52.9600
 0.8790	52.9460
 0.8800	52.9490
 0.8810	52.9800
 0.8820	52.9830
 0.8830	52.9850
 0.8840	53.0040
 0.8850	52.9930
 0.8860	52.9600
 0.8870	52.9370
 0.8880	52.9430
 0.8890	52.9510
 0.8900	52.9470
 0.8910	52.9380
 0.8920	52.9330
 0.8930	52.9220
 0.8940	52.9310
 0.8950	52.9520
 0.8960	52.9540
 0.8970	52.9300
 0.8980	52.9100
 0.8990	52.9080
 0.9000	52.9190
 0.9010	52.9190
 0.9020	52.9050
 0.9030	52.8870
 0.9040	52.8830
 0.9050	52.8980
 0.9060	52.9010
 0.9070	52.8750
 0.9080	52.8470
 0.9090	52.8300
 0.9100	52.8310
 0.9110	52.8380
 0.9120	52.8070
 0.9130	52.8030
 0.9140	52.8100
 0.9150	52.8010
 0.9160	52.8150
 0.9170	52.8230
 0.9180	52.7980
 0.9190	52.7360
 0.9200	52.7410
 0.9210	52.7440
 0.9220	52.7310
 0.9230	52.7210
 0.9240	52.6940
 0.9250	52.6810
 0.9260	52.6760
 0.9270	52.6510
 0.9280	52.6400
 0.9290	52.6290
 0.9300	52.6050
 0.9310	52.5610
 0.9320	52.5160
 0.9330	52.4880
 0.9340	52.4690
 0.9350	52.4270
 0.9360	52.3940
 0.9370	52.3670
 0.9380	52.3380
 0.9390	52.3010
 0.9400	52.2800
 0.9410	52.2450
 0.9420	52.1850
 0.9430	52.1470
 0.9440	52.1290
 0.9450	52.0920
 0.9460	52.0140
 0.9470	51.9250
 0.9480	51.8730
 0.9490	51.8270
 0.9500	51.7540
 0.9510	51.6800
 0.9520	51.6030
 0.9530	51.5160
 0.9540	51.4200
 0.9550	51.3370
 0.9560	51.2320
 0.9570	51.1210
 0.9580	51.0250
 0.9590	50.9320
 0.9600	50.8740
 0.9610	50.8160
 0.9620	50.7300
 0.9630	50.6960
 0.9640	50.6510
 0.9650	50.5940
 0.9660	50.5470
 0.9670	50.5180
 0.9680	50.4720
 0.9690	50.4370
 0.9700	50.4460
 0.9710	50.4350
 0.9720	50.4380
 0.9730	50.4310
 0.9740	50.3890
 0.9750	50.3810
 0.9760	50.3870
 0.9770	50.4130
 0.9780	50.4600
 0.9790	50.4450
 0.9800	50.4030
 0.9810	50.3760
 0.9820	50.3940
 0.9830	50.4680
 0.9840	50.5040
 0.9850	50.4980
 0.9860	50.4980
 0.9870	50.5170
 0.9880	50.5450
 0.9890	50.5850
 0.9900	50.6360
 0.9910	50.6750
 0.9920	50.7890
 0.9930	50.9030
 0.9940	51.0180
 0.9950	51.1320
 0.9960	51.2470
 0.9970	51.3610
 0.9980	51.4760
 0.9990	51.5900
 1.0000	51.7050
 1.0010	51.8190
 1.0020	51.9330
 1.0030	52.0480
 1.0040	52.1620
 1.0050	52.2770
 1.0060	52.3910
 1.0070	52.5060
 1.0080	52.6200
 1.0090	52.7350
 1.0100	52.7350
 1.0110	52.7720
 1.0120	52.8080
 1.0130	52.8300
 1.0140	52.8660
 1.0150	52.9050
 1.0160	52.9580
 1.0170	53.0140
 1.0180	53.0620
 1.0190	53.1120
 1.0200	53.1530
 1.0210	53.1730
 1.0220	53.1980
 1.0230	53.2260
 1.0240	53.2520
 1.0250	53.2770
 1.0260	53.3070
 1.0270	53.3340
 1.0280	53.3520
 1.0290	53.3800
 1.0300	53.4180
 1.0310	53.4520
 1.0320	53.4810
 1.0330	53.5250
 1.0340	53.5640
 1.0350	53.5930
 1.0360	53.6230
 1.0370	53.6360
 1.0380	53.6590
 1.0390	53.6760
 1.0400	53.6990
 1.0410	53.7330
 1.0420	53.7530
 1.0430	53.7610
 1.0440	53.7780
 1.0450	53.7960
 1.0460	53.8100
 1.0470	53.8310
 1.0480	53.8440
 1.0490	53.8410
 1.0500	53.8460
 1.0510	53.8510
 1.0520	53.8580
 1.0530	53.8680
 1.0540	53.8820
 1.0550	53.8950
 1.0560	53.9110
 1.0570	53.9260
 1.0580	53.9480
 1.0590	53.9610
 1.0600	53.9710
 1.0610	53.9790
 1.0620	53.9770
 1.0630	53.9840
 1.0640	53.9980
 1.0650	54.0090
 1.0660	54.0240
 1.0670	54.0350
 1.0680	54.0450
 1.0690	54.0480
 1.0700	54.0570
 1.0710	54.0740
 1.0720	54.0720
 1.0730	54.0600
 1.0740	54.0580
 1.0750	54.0500
 1.0760	54.0470
 1.0770	54.0600
 1.0780	54.0570
 1.0790	54.0430
 1.0800	54.0340
 1.0810	54.0160
 1.0820	54.0090
 1.0830	54.0120
 1.0840	54.0090
 1.0850	54.0110
 1.0860	54.0110
 1.0870	54.0010
 1.0880	53.9800
 1.0890	53.9690
 1.0900	53.9550
 1.0910	53.9450
 1.0920	53.9400
 1.0930	53.9320
 1.0940	53.9250
 1.0950	53.9140
 1.0960	53.8990
 1.0970	53.8860
 1.0980	53.8760
 1.0990	53.8570
 1.1000	53.8300
 1.1010	53.8070
 1.1020	53.7850
 1.1030	53.7510
 1.1040	53.7160
 1.1050	53.6960
 1.1060	53.6710
 1.1070	53.6460
 1.1080	53.6200
 1.1090	53.6010
 1.1100	53.5720
 1.1110	53.5390
 1.1120	53.4990
 1.1130	53.4520
 1.1140	53.4070
 1.1150	53.3600
 1.1160	53.3110
 1.1170	53.2650
 1.1180	53.2110
 1.1190	53.1510
 1.1200	53.0910
 1.1210	53.0240
 1.1220	52.9570
 1.1230	52.8870
 1.1240	52.8100
 1.1250	52.7250
 1.1260	52.6380
 1.1270	52.5380
 1.1280	52.4220
 1.1290	52.3140
 1.1300	52.2070
 1.1310	52.0900
 1.1320	51.9760
 1.1330	51.8500
 1.1340	51.7170
 1.1350	51.5710
 1.1360	51.4150
 1.1370	51.2530
 1.1380	51.0810
 1.1390	50.8950
 1.1400	50.7070
 1.1410	50.5160
 1.1420	50.3140
 1.1430	50.1110
 1.1440	49.9070
 1.1450	49.6940
 1.1460	49.4890
 1.1470	49.2850
 1.1480	49.0830
 1.1490	48.8760
 1.1500	48.6850
 1.1510	48.4920
 1.1520	48.3180
 1.1530	48.1610
 1.1540	48.0140
 1.1550	47.8780
 1.1560	47.7580
 1.1570	47.6580
 1.1580	47.5660
 1.1590	47.4870
 1.1600	47.4150
 1.1610	47.3440
 1.1620	47.2840
 1.1630	47.2340
 1.1640	47.1930
 1.1650	47.1550
 1.1660	47.1250
 1.1670	47.0980
 1.1680	47.0730
 1.1690	47.0530
 1.1700	47.0420
 1.1710	47.0250
 1.1720	47.0100
 1.1730	46.9940
 1.1740	46.9770
 1.1750	46.9580
 1.1760	46.9450
 1.1770	46.9240
 1.1780	46.9010
 1.1790	46.8750
 1.1800	46.8450
 1.1810	46.8220
 1.1820	46.7990
 1.1830	46.7760
 1.1840	46.7510
 1.1850	46.7230
 1.1860	46.6940
 1.1870	46.6660
 1.1880	46.6430
 1.1890	46.6220
 1.1900	46.5990
 1.1910	46.5760
 1.1920	46.5580
 1.1930	46.5380
 1.1940	46.5240
 1.1950	46.5190
 1.1960	46.5110
 1.1970	46.5080
 1.1980	46.5060
 1.1990	46.5070
 1.2000	46.5120
 1.2010	46.5120
 1.2020	46.5180
 1.2030	46.5310
 1.2040	46.5460
 1.2050	46.5650
 1.2060	46.5880
 1.2070	46.6130
 1.2080	46.6420
 1.2090	46.6770
 1.2100	46.7150
 1.2110	46.7550
 1.2120	46.7950
 1.2130	46.8390
 1.2140	46.8890
 1.2150	46.9410
 1.2160	46.9950
 1.2170	47.0550
 1.2180	47.1160
 1.2190	47.1850
 1.2200	47.2530
 1.2210	47.3190
 1.2220	47.3860
 1.2230	47.4490
 1.2240	47.5120
 1.2250	47.5740
 1.2260	47.6340
 1.2270	47.6960
 1.2280	47.7600
 1.2290	47.8190
 1.2300	47.8730
 1.2310	47.9230
 1.2320	47.9660
 1.2330	48.0140
 1.2340	48.0620
 1.2350	48.1120
 1.2360	48.1590
 1.2370	48.2080
 1.2380	48.2460
 1.2390	48.2840
 1.2400	48.3220
 1.2410	48.3610
 1.2420	48.4000
 1.2430	48.4400
 1.2440	48.4770
 1.2450	48.5110
 1.2460	48.5490
 1.2470	48.5850
 1.2480	48.6110
 1.2490	48.6340
 1.2500	48.6530
 1.2510	48.6720
 1.2520	48.6910
 1.2530	48.7080
 1.2540	48.7290
 1.2550	48.7480
 1.2560	48.7650
 1.2570	48.7840
 1.2580	48.8000
 1.2590	48.8160
 1.2600	48.8310
 1.2610	48.8440
 1.2620	48.8540
 1.2630	48.8670
 1.2640	48.8740
 1.2650	48.8780
 1.2660	48.8840
 1.2670	48.8850
 1.2680	48.8810
 1.2690	48.8780
 1.2700	48.8770
 1.2710	48.8710
 1.2720	48.8640
 1.2730	48.8580
 1.2740	48.8460
 1.2750	48.8310
 1.2760	48.8190
 1.2770	48.8040
 1.2780	48.7950
 1.2790	48.7840
 1.2800	48.7590
 1.2810	48.7340
 1.2820	48.7090
 1.2830	48.6820
 1.2840	48.6630
 1.2850	48.6450
 1.2860	48.6210
 1.2870	48.5910
 1.2880	48.5560
 1.2890	48.5140
 1.2900	48.4650
 1.2910	48.4140
 1.2920	48.3640
 1.2930	48.3160
 1.2940	48.2660
 1.2950	48.2140
 1.2960	48.1530
 1.2970	48.0890
 1.2980	48.0260
 1.2990	47.9580
 1.3000	47.8930
 1.3010	47.8230
 1.3020	47.7480
 1.3030	47.6740
 1.3040	47.5910
 1.3050	47.5040
 1.3060	47.4180
 1.3070	47.3250
 1.3080	47.2250
 1.3090	47.1220
 1.3100	47.0160
 1.3110	46.9000
 1.3120	46.7820
 1.3130	46.6660
 1.3140	46.5390
 1.3150	46.4050
 1.3160	46.2710
 1.3170	46.1340
 1.3180	45.9890
 1.3190	45.8450
 1.3200	45.6920
 1.3210	45.5340
 1.3220	45.3740
 1.3230	45.2090
 1.3240	45.0420
 1.3250	44.8670
 1.3260	44.6880
 1.3270	44.5040
 1.3280	44.3150
 1.3290	44.1220
 1.3300	43.9250
 1.3310	43.7270
 1.3320	43.5250
 1.3330	43.3290
 1.3340	43.1320
 1.3350	42.9300
 1.3360	42.7240
 1.3370	42.5120
 1.3380	42.3080
 1.3390	42.1060
 1.3400	41.9030
 1.3410	41.7070
 1.3420	41.5070
 1.3430	41.3070
 1.3440	41.1080
 1.3450	40.9120
 1.3460	40.7180
 1.3470	40.5270
 1.3480	40.3380
 1.3490	40.1510
 1.3500	39.9690
 1.3510	39.7830
 1.3520	39.6000
 1.3530	39.4220
 1.3540	39.2440
 1.3550	39.0670
 1.3560	38.8930
 1.3570	38.7130
 1.3580	38.5340
 1.3590	38.3520
 1.3600	38.1650
 1.3610	37.9750
 1.3620	37.7810
 1.3630	37.5820
 1.3640	37.3770
 1.3650	37.1640
 1.3660	36.9470
 1.3670	36.7220
 1.3680	36.4880
 1.3690	36.2430
 1.3700	35.9790
 1.3710	35.7030
 1.3720	35.4130
 1.3730	35.1060
 1.3740	34.7870
 1.3750	34.4540
 1.3760	34.1000
 1.3770	33.7270
 1.3780	33.3320
 1.3790	32.9130
 1.3800	32.4700
 1.3810	32.0030
 1.3820	31.5210
 1.3830	31.0220
 1.3840	30.5060
 1.3850	29.9710
 1.3860	29.4280
 1.3870	28.8640
 1.3880	28.3020
 1.3890	27.7320
 1.3900	27.1600
 1.3910	26.5930
 1.3920	26.0230
 1.3930	25.4560
 1.3940	24.8980
 1.3950	24.3410
 1.3960	23.7940
 1.3970	23.2610
 1.3980	22.7410
 1.3990	22.2450
 1.4000	21.7650
 1.4010	21.3010
 1.4020	20.8580
 1.4030	20.4320
 1.4040	20.0260
 1.4050	19.6420
 1.4060	19.2790
 1.4070	18.9410
 1.4080	18.6240
 1.4090	18.3300
 1.4100	18.0590
 1.4110	17.8100
 1.4120	17.5790
 1.4130	17.3690
 1.4140	17.1750
 1.4150	17.0000
 1.4160	16.8440
 1.4170	16.6990
 1.4180	16.5700
 1.4190	16.4530
 1.4200	16.3460
 1.4210	16.2540
 1.4220	16.1730
 1.4230	16.1020
 1.4240	16.0410
 1.4250	15.9850
 1.4260	15.9370
 1.4270	15.8940
 1.4280	15.8570
 1.4290	15.8260
 1.4300	15.8030
 1.4310	15.7840
 1.4320	15.7720
 1.4330	15.7640
 1.4340	15.7620
 1.4350	15.7600
 1.4360	15.7620
 1.4370	15.7670
 1.4380	15.7730
 1.4390	15.7830
 1.4400	15.7980
 1.4410	15.8140
 1.4420	15.8290
 1.4430	15.8470
 1.4440	15.8690
 1.4450	15.8890
 1.4460	15.9110
 1.4470	15.9370
 1.4480	15.9590
 1.4490	15.9810
 1.4500	16.0070
 1.4510	16.0300
 1.4520	16.0530
 1.4530	16.0790
 1.4540	16.1030
 1.4550	16.1300
 1.4560	16.1600
 1.4570	16.1890
 1.4580	16.2220
 1.4590	16.2550
 1.4600	16.2900
 1.4610	16.3300
 1.4620	16.3720
 1.4630	16.4180
 1.4640	16.4660
 1.4650	16.5160
 1.4660	16.5720
 1.4670	16.6300
 1.4680	16.6920
