Name: Arctostaphylos glandulosa 2
Type: vegetation
Class: Shrub
Genus: Arctostaphylos
Species: glandulosa
Sample No.: VH120
Owner: UCSB
Wavelength Range: VSWIR
Origin: 34.5084; -119.7682; WGS84
Collection Date: 6/3/2013
Description: Samples were collected as part of the HyspIRI Airborne Campaign. 48 individual plants were sampled in three times in 2013 - spring  summer  and fall. The name of the sample includes a 1  2  or 3 which references a different individual of the species. Samples were taken to JPL and processed within 48 hours of collection. The same leaves were processed in the Nicolet and then measured using the ASD.
Measurement: Bidirectional reflectance
First Column: X
Second Column: Y
X Units: Wavelength (micrometers)
Y Units: Reflectance (percentage)
First X Value: 0.35
Last X Value: 2.5
Number of X Values: 2151
Additional Information: vegetation.shrub.arctostaphylos.glandulosa.vswir.vh120.ucsb.asd.ancillary.txt

 0.3500	 6.3550
 0.3510	 6.2920
 0.3520	 6.3350
 0.3530	 6.4100
 0.3540	 6.4110
 0.3550	 6.3030
 0.3560	 6.3440
 0.3570	 6.4390
 0.3580	 6.3520
 0.3590	 6.2740
 0.3600	 6.2690
 0.3610	 6.3130
 0.3620	 6.2920
 0.3630	 6.3040
 0.3640	 6.3210
 0.3650	 6.3150
 0.3660	 6.3900
 0.3670	 6.3970
 0.3680	 6.3610
 0.3690	 6.4190
 0.3700	 6.4180
 0.3710	 6.4280
 0.3720	 6.4780
 0.3730	 6.4890
 0.3740	 6.4790
 0.3750	 6.4600
 0.3760	 6.4460
 0.3770	 6.4300
 0.3780	 6.4750
 0.3790	 6.5260
 0.3800	 6.4500
 0.3810	 6.4590
 0.3820	 6.5730
 0.3830	 6.7080
 0.3840	 6.6310
 0.3850	 6.6500
 0.3860	 6.7100
 0.3870	 6.6630
 0.3880	 6.6900
 0.3890	 6.7450
 0.3900	 6.7670
 0.3910	 6.7110
 0.3920	 6.7480
 0.3930	 6.8110
 0.3940	 6.8240
 0.3950	 6.8330
 0.3960	 6.9100
 0.3970	 6.9920
 0.3980	 6.9720
 0.3990	 6.9410
 0.4000	 6.9340
 0.4010	 6.9650
 0.4020	 7.0310
 0.4030	 7.0780
 0.4040	 7.0940
 0.4050	 7.0900
 0.4060	 7.0930
 0.4070	 7.1290
 0.4080	 7.1820
 0.4090	 7.2110
 0.4100	 7.2210
 0.4110	 7.2390
 0.4120	 7.2760
 0.4130	 7.3160
 0.4140	 7.3380
 0.4150	 7.3620
 0.4160	 7.4070
 0.4170	 7.4330
 0.4180	 7.4680
 0.4190	 7.5220
 0.4200	 7.5800
 0.4210	 7.5950
 0.4220	 7.6200
 0.4230	 7.6930
 0.4240	 7.7590
 0.4250	 7.7860
 0.4260	 7.8000
 0.4270	 7.8480
 0.4280	 7.9020
 0.4290	 7.9520
 0.4300	 7.9930
 0.4310	 8.0220
 0.4320	 8.0730
 0.4330	 8.1250
 0.4340	 8.1570
 0.4350	 8.1920
 0.4360	 8.2260
 0.4370	 8.2580
 0.4380	 8.2890
 0.4390	 8.3130
 0.4400	 8.3440
 0.4410	 8.3900
 0.4420	 8.4330
 0.4430	 8.4680
 0.4440	 8.4970
 0.4450	 8.5270
 0.4460	 8.5590
 0.4470	 8.5980
 0.4480	 8.6360
 0.4490	 8.6610
 0.4500	 8.7020
 0.4510	 8.7410
 0.4520	 8.7590
 0.4530	 8.7780
 0.4540	 8.8090
 0.4550	 8.8430
 0.4560	 8.8600
 0.4570	 8.8700
 0.4580	 8.8920
 0.4590	 8.9250
 0.4600	 8.9220
 0.4610	 8.9310
 0.4620	 8.9510
 0.4630	 8.9660
 0.4640	 8.9740
 0.4650	 8.9860
 0.4660	 9.0010
 0.4670	 9.0110
 0.4680	 9.0130
 0.4690	 9.0130
 0.4700	 9.0190
 0.4710	 9.0410
 0.4720	 9.0470
 0.4730	 9.0450
 0.4740	 9.0600
 0.4750	 9.0790
 0.4760	 9.0910
 0.4770	 9.0920
 0.4780	 9.0990
 0.4790	 9.1090
 0.4800	 9.1200
 0.4810	 9.1300
 0.4820	 9.1440
 0.4830	 9.1620
 0.4840	 9.1810
 0.4850	 9.2020
 0.4860	 9.2210
 0.4870	 9.2390
 0.4880	 9.2570
 0.4890	 9.2900
 0.4900	 9.3130
 0.4910	 9.3340
 0.4920	 9.3700
 0.4930	 9.4020
 0.4940	 9.4360
 0.4950	 9.4800
 0.4960	 9.5380
 0.4970	 9.5970
 0.4980	 9.6550
 0.4990	 9.7120
 0.5000	 9.7720
 0.5010	 9.8410
 0.5020	 9.9230
 0.5030	10.0160
 0.5040	10.1030
 0.5050	10.1930
 0.5060	10.2980
 0.5070	10.4070
 0.5080	10.5270
 0.5090	10.6580
 0.5100	10.7970
 0.5110	10.9410
 0.5120	11.0930
 0.5130	11.2540
 0.5140	11.4180
 0.5150	11.5940
 0.5160	11.7790
 0.5170	11.9690
 0.5180	12.1590
 0.5190	12.3510
 0.5200	12.5460
 0.5210	12.7410
 0.5220	12.9380
 0.5230	13.1300
 0.5240	13.3100
 0.5250	13.4870
 0.5260	13.6530
 0.5270	13.8090
 0.5280	13.9560
 0.5290	14.0920
 0.5300	14.2150
 0.5310	14.3260
 0.5320	14.4300
 0.5330	14.5250
 0.5340	14.6070
 0.5350	14.6780
 0.5360	14.7450
 0.5370	14.8110
 0.5380	14.8760
 0.5390	14.9360
 0.5400	15.0080
 0.5410	15.0870
 0.5420	15.1660
 0.5430	15.2470
 0.5440	15.3310
 0.5450	15.4150
 0.5460	15.5000
 0.5470	15.5760
 0.5480	15.6540
 0.5490	15.7390
 0.5500	15.8240
 0.5510	15.9030
 0.5520	15.9760
 0.5530	16.0420
 0.5540	16.1060
 0.5550	16.1600
 0.5560	16.2060
 0.5570	16.2480
 0.5580	16.2770
 0.5590	16.3030
 0.5600	16.3280
 0.5610	16.3530
 0.5620	16.3740
 0.5630	16.3910
 0.5640	16.4030
 0.5650	16.4020
 0.5660	16.3840
 0.5670	16.3480
 0.5680	16.3030
 0.5690	16.2550
 0.5700	16.2080
 0.5710	16.1620
 0.5720	16.1180
 0.5730	16.0780
 0.5740	16.0460
 0.5750	16.0290
 0.5760	16.0120
 0.5770	15.9980
 0.5780	15.9910
 0.5790	15.9860
 0.5800	15.9670
 0.5810	15.9440
 0.5820	15.9370
 0.5830	15.9260
 0.5840	15.9060
 0.5850	15.8740
 0.5860	15.8380
 0.5870	15.8010
 0.5880	15.7660
 0.5890	15.7400
 0.5900	15.7440
 0.5910	15.7580
 0.5920	15.7730
 0.5930	15.7770
 0.5940	15.7660
 0.5950	15.7470
 0.5960	15.7270
 0.5970	15.7060
 0.5980	15.6820
 0.5990	15.6580
 0.6000	15.6300
 0.6010	15.5940
 0.6020	15.5510
 0.6030	15.4970
 0.6040	15.4260
 0.6050	15.3520
 0.6060	15.2700
 0.6070	15.1770
 0.6080	15.0830
 0.6090	14.9870
 0.6100	14.8940
 0.6110	14.8090
 0.6120	14.6990
 0.6130	14.5860
 0.6140	14.4860
 0.6150	14.3920
 0.6160	14.3020
 0.6170	14.2180
 0.6180	14.1400
 0.6190	14.0720
 0.6200	14.0120
 0.6210	13.9580
 0.6220	13.9120
 0.6230	13.8770
 0.6240	13.8470
 0.6250	13.8210
 0.6260	13.8080
 0.6270	13.7920
 0.6280	13.7760
 0.6290	13.7710
 0.6300	13.7690
 0.6310	13.7610
 0.6320	13.7450
 0.6330	13.7180
 0.6340	13.6830
 0.6350	13.6390
 0.6360	13.5790
 0.6370	13.4960
 0.6380	13.4000
 0.6390	13.2940
 0.6400	13.1740
 0.6410	13.0410
 0.6420	12.8980
 0.6430	12.7480
 0.6440	12.5930
 0.6450	12.4380
 0.6460	12.2860
 0.6470	12.1430
 0.6480	12.0080
 0.6490	11.8850
 0.6500	11.7740
 0.6510	11.6680
 0.6520	11.5710
 0.6530	11.4780
 0.6540	11.3850
 0.6550	11.2860
 0.6560	11.1830
 0.6570	11.0710
 0.6580	10.9490
 0.6590	10.8220
 0.6600	10.6950
 0.6610	10.5670
 0.6620	10.4380
 0.6630	10.3150
 0.6640	10.2030
 0.6650	10.1030
 0.6660	10.0130
 0.6670	 9.9360
 0.6680	 9.8720
 0.6690	 9.8210
 0.6700	 9.7870
 0.6710	 9.7620
 0.6720	 9.7440
 0.6730	 9.7450
 0.6740	 9.7540
 0.6750	 9.7690
 0.6760	 9.7910
 0.6770	 9.8270
 0.6780	 9.8740
 0.6790	 9.9330
 0.6800	10.0090
 0.6810	10.1030
 0.6820	10.2250
 0.6830	10.3810
 0.6840	10.5690
 0.6850	10.7990
 0.6860	11.0820
 0.6870	11.4260
 0.6880	11.8360
 0.6890	12.3190
 0.6900	12.8800
 0.6910	13.5140
 0.6920	14.2300
 0.6930	15.0190
 0.6940	15.8740
 0.6950	16.7920
 0.6960	17.7610
 0.6970	18.7730
 0.6980	19.8180
 0.6990	20.8860
 0.7000	21.9640
 0.7010	23.0420
 0.7020	24.1120
 0.7030	25.1580
 0.7040	26.1740
 0.7050	27.1600
 0.7060	28.1150
 0.7070	29.0280
 0.7080	29.8980
 0.7090	30.7280
 0.7100	31.5180
 0.7110	32.2700
 0.7120	32.9830
 0.7130	33.6550
 0.7140	34.2960
 0.7150	34.9060
 0.7160	35.4830
 0.7170	36.0270
 0.7180	36.5370
 0.7190	37.0170
 0.7200	37.4730
 0.7210	37.9000
 0.7220	38.3010
 0.7230	38.6790
 0.7240	39.0340
 0.7250	39.3630
 0.7260	39.6700
 0.7270	39.9590
 0.7280	40.2350
 0.7290	40.4830
 0.7300	40.7100
 0.7310	40.9300
 0.7320	41.1290
 0.7330	41.3120
 0.7340	41.4850
 0.7350	41.6540
 0.7360	41.7980
 0.7370	41.9320
 0.7380	42.0650
 0.7390	42.1820
 0.7400	42.2980
 0.7410	42.4090
 0.7420	42.5050
 0.7430	42.5910
 0.7440	42.6730
 0.7450	42.7520
 0.7460	42.8270
 0.7470	42.8900
 0.7480	42.9460
 0.7490	43.0030
 0.7500	43.0540
 0.7510	43.1070
 0.7520	43.1550
 0.7530	43.1920
 0.7540	43.2280
 0.7550	43.2590
 0.7560	43.2870
 0.7570	43.3170
 0.7580	43.3440
 0.7590	43.3690
 0.7600	43.3940
 0.7610	43.4240
 0.7620	43.4440
 0.7630	43.4630
 0.7640	43.4920
 0.7650	43.5050
 0.7660	43.5160
 0.7670	43.5340
 0.7680	43.5580
 0.7690	43.5780
 0.7700	43.5910
 0.7710	43.6000
 0.7720	43.6140
 0.7730	43.6210
 0.7740	43.6350
 0.7750	43.6620
 0.7760	43.6740
 0.7770	43.6820
 0.7780	43.6950
 0.7790	43.7140
 0.7800	43.7270
 0.7810	43.7410
 0.7820	43.7540
 0.7830	43.7610
 0.7840	43.7740
 0.7850	43.7850
 0.7860	43.7930
 0.7870	43.8140
 0.7880	43.8300
 0.7890	43.8400
 0.7900	43.8510
 0.7910	43.8590
 0.7920	43.8630
 0.7930	43.8690
 0.7940	43.8800
 0.7950	43.8970
 0.7960	43.9030
 0.7970	43.8990
 0.7980	43.9040
 0.7990	43.9060
 0.8000	43.9070
 0.8010	43.9130
 0.8020	43.9200
 0.8030	43.9180
 0.8040	43.9150
 0.8050	43.9180
 0.8060	43.9210
 0.8070	43.9220
 0.8080	43.9160
 0.8090	43.9040
 0.8100	43.9040
 0.8110	43.9040
 0.8120	43.8990
 0.8130	43.8900
 0.8140	43.8810
 0.8150	43.8730
 0.8160	43.8650
 0.8170	43.8550
 0.8180	43.8450
 0.8190	43.8360
 0.8200	43.8330
 0.8210	43.8270
 0.8220	43.8220
 0.8230	43.8160
 0.8240	43.8000
 0.8250	43.7810
 0.8260	43.7650
 0.8270	43.7520
 0.8280	43.7330
 0.8290	43.7230
 0.8300	43.7120
 0.8310	43.6910
 0.8320	43.6810
 0.8330	43.6680
 0.8340	43.6550
 0.8350	43.6460
 0.8360	43.6300
 0.8370	43.6140
 0.8380	43.6020
 0.8390	43.5970
 0.8400	43.5980
 0.8410	43.5960
 0.8420	43.5860
 0.8430	43.5760
 0.8440	43.5680
 0.8450	43.5670
 0.8460	43.5680
 0.8470	43.5600
 0.8480	43.5540
 0.8490	43.5490
 0.8500	43.5410
 0.8510	43.5420
 0.8520	43.5450
 0.8530	43.5450
 0.8540	43.5360
 0.8550	43.5350
 0.8560	43.5360
 0.8570	43.5320
 0.8580	43.5200
 0.8590	43.5260
 0.8600	43.5320
 0.8610	43.5290
 0.8620	43.5370
 0.8630	43.5380
 0.8640	43.5340
 0.8650	43.5340
 0.8660	43.5410
 0.8670	43.5420
 0.8680	43.5410
 0.8690	43.5480
 0.8700	43.5450
 0.8710	43.5440
 0.8720	43.5490
 0.8730	43.5530
 0.8740	43.5520
 0.8750	43.5630
 0.8760	43.5770
 0.8770	43.5690
 0.8780	43.5690
 0.8790	43.5750
 0.8800	43.5820
 0.8810	43.5820
 0.8820	43.5930
 0.8830	43.6010
 0.8840	43.6010
 0.8850	43.6130
 0.8860	43.6170
 0.8870	43.6160
 0.8880	43.6170
 0.8890	43.6190
 0.8900	43.6300
 0.8910	43.6420
 0.8920	43.6430
 0.8930	43.6400
 0.8940	43.6450
 0.8950	43.6540
 0.8960	43.6560
 0.8970	43.6490
 0.8980	43.6510
 0.8990	43.6610
 0.9000	43.6600
 0.9010	43.6700
 0.9020	43.6830
 0.9030	43.6880
 0.9040	43.6830
 0.9050	43.6880
 0.9060	43.7010
 0.9070	43.7100
 0.9080	43.7020
 0.9090	43.6950
 0.9100	43.6940
 0.9110	43.6980
 0.9120	43.6970
 0.9130	43.7000
 0.9140	43.7040
 0.9150	43.7030
 0.9160	43.6960
 0.9170	43.6960
 0.9180	43.6960
 0.9190	43.6900
 0.9200	43.6810
 0.9210	43.6750
 0.9220	43.6740
 0.9230	43.6750
 0.9240	43.6650
 0.9250	43.6440
 0.9260	43.6250
 0.9270	43.6180
 0.9280	43.6020
 0.9290	43.5780
 0.9300	43.5560
 0.9310	43.5430
 0.9320	43.5200
 0.9330	43.4950
 0.9340	43.4680
 0.9350	43.4400
 0.9360	43.4100
 0.9370	43.3820
 0.9380	43.3550
 0.9390	43.3210
 0.9400	43.2960
 0.9410	43.2680
 0.9420	43.2290
 0.9430	43.1880
 0.9440	43.1310
 0.9450	43.0780
 0.9460	43.0410
 0.9470	42.9980
 0.9480	42.9330
 0.9490	42.8630
 0.9500	42.7990
 0.9510	42.7150
 0.9520	42.6380
 0.9530	42.5650
 0.9540	42.4880
 0.9550	42.4060
 0.9560	42.3310
 0.9570	42.2640
 0.9580	42.1980
 0.9590	42.1330
 0.9600	42.0730
 0.9610	42.0170
 0.9620	41.9630
 0.9630	41.9250
 0.9640	41.8800
 0.9650	41.8450
 0.9660	41.8350
 0.9670	41.8200
 0.9680	41.8110
 0.9690	41.8040
 0.9700	41.7910
 0.9710	41.7740
 0.9720	41.7620
 0.9730	41.7540
 0.9740	41.7440
 0.9750	41.7510
 0.9760	41.7460
 0.9770	41.7340
 0.9780	41.7390
 0.9790	41.7480
 0.9800	41.7550
 0.9810	41.7620
 0.9820	41.7760
 0.9830	41.7990
 0.9840	41.8160
 0.9850	41.8230
 0.9860	41.8320
 0.9870	41.8760
 0.9880	41.8920
 0.9890	41.8960
 0.9900	41.9310
 0.9910	41.9650
 0.9920	41.9970
 0.9930	42.0300
 0.9940	42.0630
 0.9950	42.0960
 0.9960	42.1290
 0.9970	42.1620
 0.9980	42.1940
 0.9990	42.2270
 1.0000	42.2600
 1.0010	42.2930
 1.0020	42.3260
 1.0030	42.3590
 1.0040	42.3920
 1.0050	42.4240
 1.0060	42.4570
 1.0070	42.4900
 1.0080	42.5230
 1.0090	42.5560
 1.0100	42.5560
 1.0110	42.5870
 1.0120	42.6120
 1.0130	42.6380
 1.0140	42.6610
 1.0150	42.6770
 1.0160	42.6940
 1.0170	42.7180
 1.0180	42.7420
 1.0190	42.7680
 1.0200	42.7930
 1.0210	42.8140
 1.0220	42.8340
 1.0230	42.8580
 1.0240	42.8850
 1.0250	42.9080
 1.0260	42.9350
 1.0270	42.9570
 1.0280	42.9740
 1.0290	42.9920
 1.0300	43.0110
 1.0310	43.0280
 1.0320	43.0420
 1.0330	43.0610
 1.0340	43.0750
 1.0350	43.0890
 1.0360	43.1050
 1.0370	43.1160
 1.0380	43.1300
 1.0390	43.1440
 1.0400	43.1570
 1.0410	43.1700
 1.0420	43.1840
 1.0430	43.1980
 1.0440	43.2120
 1.0450	43.2260
 1.0460	43.2390
 1.0470	43.2510
 1.0480	43.2630
 1.0490	43.2780
 1.0500	43.2870
 1.0510	43.2930
 1.0520	43.2970
 1.0530	43.3050
 1.0540	43.3090
 1.0550	43.3180
 1.0560	43.3320
 1.0570	43.3420
 1.0580	43.3510
 1.0590	43.3580
 1.0600	43.3630
 1.0610	43.3670
 1.0620	43.3680
 1.0630	43.3710
 1.0640	43.3750
 1.0650	43.3780
 1.0660	43.3810
 1.0670	43.3850
 1.0680	43.3890
 1.0690	43.3940
 1.0700	43.3940
 1.0710	43.3930
 1.0720	43.3920
 1.0730	43.3880
 1.0740	43.3870
 1.0750	43.3890
 1.0760	43.3860
 1.0770	43.3780
 1.0780	43.3740
 1.0790	43.3700
 1.0800	43.3650
 1.0810	43.3620
 1.0820	43.3570
 1.0830	43.3520
 1.0840	43.3450
 1.0850	43.3370
 1.0860	43.3270
 1.0870	43.3150
 1.0880	43.3000
 1.0890	43.2880
 1.0900	43.2750
 1.0910	43.2640
 1.0920	43.2550
 1.0930	43.2440
 1.0940	43.2340
 1.0950	43.2220
 1.0960	43.2060
 1.0970	43.1920
 1.0980	43.1790
 1.0990	43.1640
 1.1000	43.1480
 1.1010	43.1310
 1.1020	43.1130
 1.1030	43.0960
 1.1040	43.0780
 1.1050	43.0600
 1.1060	43.0420
 1.1070	43.0260
 1.1080	43.0070
 1.1090	42.9880
 1.1100	42.9670
 1.1110	42.9420
 1.1120	42.9180
 1.1130	42.8960
 1.1140	42.8700
 1.1150	42.8410
 1.1160	42.8120
 1.1170	42.7830
 1.1180	42.7480
 1.1190	42.7100
 1.1200	42.6700
 1.1210	42.6250
 1.1220	42.5760
 1.1230	42.5290
 1.1240	42.4780
 1.1250	42.4210
 1.1260	42.3610
 1.1270	42.2930
 1.1280	42.2200
 1.1290	42.1390
 1.1300	42.0510
 1.1310	41.9550
 1.1320	41.8530
 1.1330	41.7440
 1.1340	41.6280
 1.1350	41.5030
 1.1360	41.3700
 1.1370	41.2300
 1.1380	41.0810
 1.1390	40.9270
 1.1400	40.7710
 1.1410	40.6110
 1.1420	40.4490
 1.1430	40.2850
 1.1440	40.1190
 1.1450	39.9470
 1.1460	39.7860
 1.1470	39.6220
 1.1480	39.4700
 1.1490	39.3250
 1.1500	39.1890
 1.1510	39.0590
 1.1520	38.9400
 1.1530	38.8260
 1.1540	38.7260
 1.1550	38.6370
 1.1560	38.5580
 1.1570	38.4920
 1.1580	38.4360
 1.1590	38.3870
 1.1600	38.3460
 1.1610	38.3130
 1.1620	38.2840
 1.1630	38.2620
 1.1640	38.2460
 1.1650	38.2320
 1.1660	38.2220
 1.1670	38.2150
 1.1680	38.2110
 1.1690	38.2080
 1.1700	38.2080
 1.1710	38.2080
 1.1720	38.2100
 1.1730	38.2090
 1.1740	38.2100
 1.1750	38.2080
 1.1760	38.2040
 1.1770	38.2000
 1.1780	38.1950
 1.1790	38.1890
 1.1800	38.1810
 1.1810	38.1730
 1.1820	38.1640
 1.1830	38.1530
 1.1840	38.1440
 1.1850	38.1360
 1.1860	38.1270
 1.1870	38.1200
 1.1880	38.1120
 1.1890	38.1030
 1.1900	38.0970
 1.1910	38.0920
 1.1920	38.0880
 1.1930	38.0870
 1.1940	38.0850
 1.1950	38.0820
 1.1960	38.0810
 1.1970	38.0820
 1.1980	38.0840
 1.1990	38.0910
 1.2000	38.0980
 1.2010	38.1050
 1.2020	38.1160
 1.2030	38.1260
 1.2040	38.1380
 1.2050	38.1540
 1.2060	38.1710
 1.2070	38.1870
 1.2080	38.2060
 1.2090	38.2250
 1.2100	38.2460
 1.2110	38.2670
 1.2120	38.2910
 1.2130	38.3150
 1.2140	38.3390
 1.2150	38.3670
 1.2160	38.3980
 1.2170	38.4290
 1.2180	38.4610
 1.2190	38.4920
 1.2200	38.5210
 1.2210	38.5510
 1.2220	38.5830
 1.2230	38.6140
 1.2240	38.6460
 1.2250	38.6760
 1.2260	38.7050
 1.2270	38.7320
 1.2280	38.7580
 1.2290	38.7860
 1.2300	38.8110
 1.2310	38.8340
 1.2320	38.8570
 1.2330	38.8770
 1.2340	38.8980
 1.2350	38.9190
 1.2360	38.9400
 1.2370	38.9610
 1.2380	38.9790
 1.2390	38.9970
 1.2400	39.0150
 1.2410	39.0300
 1.2420	39.0470
 1.2430	39.0640
 1.2440	39.0760
 1.2450	39.0900
 1.2460	39.1050
 1.2470	39.1170
 1.2480	39.1290
 1.2490	39.1420
 1.2500	39.1530
 1.2510	39.1630
 1.2520	39.1730
 1.2530	39.1800
 1.2540	39.1860
 1.2550	39.1900
 1.2560	39.1960
 1.2570	39.2030
 1.2580	39.2060
 1.2590	39.2090
 1.2600	39.2100
 1.2610	39.2100
 1.2620	39.2080
 1.2630	39.2060
 1.2640	39.2020
 1.2650	39.1990
 1.2660	39.1940
 1.2670	39.1880
 1.2680	39.1830
 1.2690	39.1790
 1.2700	39.1700
 1.2710	39.1590
 1.2720	39.1480
 1.2730	39.1320
 1.2740	39.1160
 1.2750	39.0990
 1.2760	39.0780
 1.2770	39.0580
 1.2780	39.0380
 1.2790	39.0180
 1.2800	38.9960
 1.2810	38.9700
 1.2820	38.9440
 1.2830	38.9170
 1.2840	38.8870
 1.2850	38.8580
 1.2860	38.8270
 1.2870	38.7940
 1.2880	38.7590
 1.2890	38.7250
 1.2900	38.6870
 1.2910	38.6480
 1.2920	38.6060
 1.2930	38.5590
 1.2940	38.5140
 1.2950	38.4640
 1.2960	38.4090
 1.2970	38.3530
 1.2980	38.2940
 1.2990	38.2320
 1.3000	38.1710
 1.3010	38.1080
 1.3020	38.0400
 1.3030	37.9710
 1.3040	37.8980
 1.3050	37.8200
 1.3060	37.7400
 1.3070	37.6580
 1.3080	37.5720
 1.3090	37.4840
 1.3100	37.3950
 1.3110	37.3010
 1.3120	37.2010
 1.3130	37.1000
 1.3140	36.9940
 1.3150	36.8840
 1.3160	36.7720
 1.3170	36.6580
 1.3180	36.5400
 1.3190	36.4180
 1.3200	36.2920
 1.3210	36.1620
 1.3220	36.0290
 1.3230	35.8940
 1.3240	35.7570
 1.3250	35.6190
 1.3260	35.4760
 1.3270	35.3290
 1.3280	35.1790
 1.3290	35.0260
 1.3300	34.8710
 1.3310	34.7160
 1.3320	34.5580
 1.3330	34.4010
 1.3340	34.2430
 1.3350	34.0840
 1.3360	33.9260
 1.3370	33.7660
 1.3380	33.6080
 1.3390	33.4510
 1.3400	33.2940
 1.3410	33.1400
 1.3420	32.9870
 1.3430	32.8350
 1.3440	32.6870
 1.3450	32.5370
 1.3460	32.3870
 1.3470	32.2410
 1.3480	32.0930
 1.3490	31.9480
 1.3500	31.8080
 1.3510	31.6660
 1.3520	31.5250
 1.3530	31.3850
 1.3540	31.2430
 1.3550	31.1020
 1.3560	30.9600
 1.3570	30.8170
 1.3580	30.6740
 1.3590	30.5290
 1.3600	30.3790
 1.3610	30.2250
 1.3620	30.0650
 1.3630	29.8990
 1.3640	29.7270
 1.3650	29.5490
 1.3660	29.3630
 1.3670	29.1690
 1.3680	28.9640
 1.3690	28.7460
 1.3700	28.5150
 1.3710	28.2720
 1.3720	28.0160
 1.3730	27.7450
 1.3740	27.4600
 1.3750	27.1560
 1.3760	26.8330
 1.3770	26.4920
 1.3780	26.1290
 1.3790	25.7480
 1.3800	25.3510
 1.3810	24.9330
 1.3820	24.5030
 1.3830	24.0590
 1.3840	23.6040
 1.3850	23.1330
 1.3860	22.6590
 1.3870	22.1700
 1.3880	21.6860
 1.3890	21.1990
 1.3900	20.7090
 1.3910	20.2280
 1.3920	19.7480
 1.3930	19.2730
 1.3940	18.8080
 1.3950	18.3490
 1.3960	17.9030
 1.3970	17.4720
 1.3980	17.0570
 1.3990	16.6650
 1.4000	16.2900
 1.4010	15.9330
 1.4020	15.5960
 1.4030	15.2760
 1.4040	14.9770
 1.4050	14.6980
 1.4060	14.4370
 1.4070	14.1980
 1.4080	13.9770
 1.4090	13.7710
 1.4100	13.5840
 1.4110	13.4130
 1.4120	13.2550
 1.4130	13.1130
 1.4140	12.9840
 1.4150	12.8680
 1.4160	12.7630
 1.4170	12.6680
 1.4180	12.5840
 1.4190	12.5090
 1.4200	12.4410
 1.4210	12.3820
 1.4220	12.3300
 1.4230	12.2840
 1.4240	12.2440
 1.4250	12.2100
 1.4260	12.1820
 1.4270	12.1560
 1.4280	12.1350
 1.4290	12.1170
 1.4300	12.1030
 1.4310	12.0920
 1.4320	12.0860
 1.4330	12.0810
 1.4340	12.0790
 1.4350	12.0800
 1.4360	12.0840
 1.4370	12.0890
 1.4380	12.0950
 1.4390	12.1040
 1.4400	12.1130
 1.4410	12.1250
 1.4420	12.1370
 1.4430	12.1500
 1.4440	12.1640
 1.4450	12.1790
 1.4460	12.1930
 1.4470	12.2090
 1.4480	12.2250
 1.4490	12.2420
 1.4500	12.2590
 1.4510	12.2760
 1.4520	12.2950
 1.4530	12.3130
 1.4540	12.3330
 1.4550	12.3550
 1.4560	12.3760
 1.4570	12.4000
 1.4580	12.4250
 1.4590	12.4500
 1.4600	12.4800
 1.4610	12.5110
 1.4620	12.5460
 1.4630	12.5840
 1.4640	12.6250
 1.4650	12.6690
 1.4660	12.7160
 1.4670	12.7670
 1.4680	12.8210
