Name: Pinus lambertiana 1
Type: vegetation
Class: Tree
Genus: Pinus
Species: lambertiana
Sample No.: VH148
Owner: UCSB
Wavelength Range: TIR
Origin: 37.043; -119.3043; WGS84
Collection Date: 6/8/2013
Description: Samples were collected as part of the HyspIRI Airborne Campaign. 48 individual plants were sampled in three times in 2013 - spring  summer  and fall. The name of the sample includes a 1  2  or 3 which references a different individual of the species. Samples were taken to JPL and processed within 48 hours of collection. The same leaves were processed in the Nicolet and then measured using the ASD.
Measurement: Hemispherical reflectance
First Column: X
Second Column: Y
X Units: Wavelength (micrometers)
Y Units: Reflectance (percentage)
First X Value: 2.501
Last X Value: 15.387
Number of X Values: 1737
Additional Information: vegetation.tree.pinus.lambertiana.tir.vh148.ucsb.nicolet.ancillary.txt

 2.5010	 4.4050
 2.5030	 4.3850
 2.5040	 4.5160
 2.5050	 4.5000
 2.5060	 4.5270
 2.5070	 4.4710
 2.5090	 4.4380
 2.5100	 4.4410
 2.5110	 4.4900
 2.5120	 4.3750
 2.5140	 4.4860
 2.5150	 4.5180
 2.5160	 4.5530
 2.5170	 4.5660
 2.5180	 4.6410
 2.5200	 4.6330
 2.5210	 4.5470
 2.5220	 4.2750
 2.5230	 4.3370
 2.5250	 4.4830
 2.5260	 4.6380
 2.5270	 4.5880
 2.5280	 4.5750
 2.5290	 4.4840
 2.5310	 4.4630
 2.5320	 4.4380
 2.5330	 4.5310
 2.5340	 4.5230
 2.5360	 4.4870
 2.5370	 4.4250
 2.5380	 4.4450
 2.5390	 4.4450
 2.5410	 4.6260
 2.5420	 4.5770
 2.5430	 4.5410
 2.5440	 4.6200
 2.5460	 4.6440
 2.5470	 4.5990
 2.5480	 4.5690
 2.5490	 4.5140
 2.5510	 4.5120
 2.5520	 4.3880
 2.5530	 4.4600
 2.5540	 4.4930
 2.5560	 4.6010
 2.5570	 4.5480
 2.5580	 4.5380
 2.5590	 4.5320
 2.5610	 4.7290
 2.5620	 4.6360
 2.5630	 4.6210
 2.5640	 4.6600
 2.5660	 4.7840
 2.5670	 4.6700
 2.5680	 4.5720
 2.5700	 4.4680
 2.5710	 4.5170
 2.5720	 4.5870
 2.5730	 4.6300
 2.5750	 4.6340
 2.5760	 4.7570
 2.5770	 4.7310
 2.5790	 4.7790
 2.5800	 4.6800
 2.5810	 4.7090
 2.5820	 4.6650
 2.5840	 4.6810
 2.5850	 4.6960
 2.5860	 4.6840
 2.5880	 4.5350
 2.5890	 4.5160
 2.5900	 4.4080
 2.5910	 4.3440
 2.5930	 4.3840
 2.5940	 4.4540
 2.5950	 4.4670
 2.5970	 4.5340
 2.5980	 4.5490
 2.5990	 4.6140
 2.6000	 4.6570
 2.6020	 4.6740
 2.6030	 4.5610
 2.6040	 4.6070
 2.6060	 4.6370
 2.6070	 4.5970
 2.6080	 4.4570
 2.6100	 4.3920
 2.6110	 4.3740
 2.6120	 4.4450
 2.6140	 4.4190
 2.6150	 4.4510
 2.6160	 4.3780
 2.6180	 4.4060
 2.6190	 4.3570
 2.6200	 4.3430
 2.6220	 4.2530
 2.6230	 4.1420
 2.6240	 4.1190
 2.6260	 4.2510
 2.6270	 4.2320
 2.6280	 4.1900
 2.6300	 3.9980
 2.6310	 4.0440
 2.6320	 4.0880
 2.6340	 4.1620
 2.6350	 4.1810
 2.6360	 4.2800
 2.6380	 4.1500
 2.6390	 4.1820
 2.6400	 4.1930
 2.6420	 4.1690
 2.6430	 4.0740
 2.6440	 4.0320
 2.6460	 3.9830
 2.6470	 3.9940
 2.6480	 4.0340
 2.6500	 4.0090
 2.6510	 3.7550
 2.6520	 3.8030
 2.6540	 3.9060
 2.6550	 3.7920
 2.6560	 3.6940
 2.6580	 3.8160
 2.6590	 3.7490
 2.6610	 3.6490
 2.6620	 3.6130
 2.6630	 3.6900
 2.6650	 3.7050
 2.6660	 3.9180
 2.6670	 3.8410
 2.6690	 3.6470
 2.6700	 3.7180
 2.6720	 3.8170
 2.6730	 3.7520
 2.6740	 3.7570
 2.6760	 3.6720
 2.6770	 3.6380
 2.6780	 3.6990
 2.6800	 3.8790
 2.6810	 3.7430
 2.6830	 3.6010
 2.6840	 3.6340
 2.6850	 3.8470
 2.6870	 3.7150
 2.6880	 3.5380
 2.6900	 3.4430
 2.6910	 3.4510
 2.6920	 3.5040
 2.6940	 3.5500
 2.6950	 3.4850
 2.6970	 3.5160
 2.6980	 3.5240
 2.6990	 3.6670
 2.7010	 3.6210
 2.7020	 3.5130
 2.7040	 3.3730
 2.7050	 3.4260
 2.7060	 3.3800
 2.7080	 3.3630
 2.7090	 3.2700
 2.7110	 3.2780
 2.7120	 3.1430
 2.7130	 3.1240
 2.7150	 3.0630
 2.7160	 2.9960
 2.7180	 3.0430
 2.7190	 3.1830
 2.7210	 3.0090
 2.7220	 2.9450
 2.7230	 3.1110
 2.7250	 3.3210
 2.7260	 3.2570
 2.7280	 3.2930
 2.7290	 3.3400
 2.7310	 3.2830
 2.7320	 3.1220
 2.7330	 3.1020
 2.7350	 2.9660
 2.7360	 3.0430
 2.7380	 3.0210
 2.7390	 3.1210
 2.7410	 3.1850
 2.7420	 3.2680
 2.7440	 3.1760
 2.7450	 3.1000
 2.7470	 2.8720
 2.7480	 2.9110
 2.7490	 2.8940
 2.7510	 2.8850
 2.7520	 2.7960
 2.7540	 2.9100
 2.7550	 3.1400
 2.7570	 3.5290
 2.7580	 3.4370
 2.7600	 3.3150
 2.7610	 3.1320
 2.7630	 3.0260
 2.7640	 3.2690
 2.7660	 3.1910
 2.7670	 2.9220
 2.7680	 3.0950
 2.7700	 3.0940
 2.7710	 3.1520
 2.7730	 3.2050
 2.7740	 3.3100
 2.7760	 3.2680
 2.7770	 3.1460
 2.7790	 3.0830
 2.7800	 3.1710
 2.7820	 3.0330
 2.7830	 2.9610
 2.7850	 2.9210
 2.7860	 3.0680
 2.7880	 3.0500
 2.7890	 3.1420
 2.7910	 3.1920
 2.7920	 3.2130
 2.7940	 3.0780
 2.7950	 3.1410
 2.7970	 3.1550
 2.7980	 3.2660
 2.8000	 3.1690
 2.8010	 3.1460
 2.8030	 3.0620
 2.8040	 3.0800
 2.8060	 3.1940
 2.8070	 3.3110
 2.8090	 3.0080
 2.8110	 2.9240
 2.8120	 2.9190
 2.8140	 3.0720
 2.8150	 3.2340
 2.8170	 3.3000
 2.8180	 3.1180
 2.8200	 2.9270
 2.8210	 2.6820
 2.8230	 2.9880
 2.8240	 3.3360
 2.8260	 3.2670
 2.8270	 3.0480
 2.8290	 3.1460
 2.8300	 3.0110
 2.8320	 3.0310
 2.8340	 3.0060
 2.8350	 2.9410
 2.8370	 2.8710
 2.8380	 2.9600
 2.8400	 2.9170
 2.8410	 3.1550
 2.8430	 3.2820
 2.8440	 3.3230
 2.8460	 3.1710
 2.8480	 3.0840
 2.8490	 3.0660
 2.8510	 3.1200
 2.8520	 3.1020
 2.8540	 3.1570
 2.8550	 3.0650
 2.8570	 3.0440
 2.8590	 3.1230
 2.8600	 3.2090
 2.8620	 3.1400
 2.8630	 3.0670
 2.8650	 3.0740
 2.8660	 3.1550
 2.8680	 3.0870
 2.8700	 3.1570
 2.8710	 3.1320
 2.8730	 3.1720
 2.8740	 3.1070
 2.8760	 3.1650
 2.8780	 3.1930
 2.8790	 3.0310
 2.8810	 3.0870
 2.8820	 3.3360
 2.8840	 3.4790
 2.8860	 3.4450
 2.8870	 3.2850
 2.8890	 3.2940
 2.8900	 3.0450
 2.8920	 3.1230
 2.8940	 3.0440
 2.8950	 3.1040
 2.8970	 3.0850
 2.8980	 3.0880
 2.9000	 3.1650
 2.9020	 3.1980
 2.9030	 2.9320
 2.9050	 2.9410
 2.9070	 3.0940
 2.9080	 3.1730
 2.9100	 2.9960
 2.9120	 3.0190
 2.9130	 3.0900
 2.9150	 3.2260
 2.9160	 3.0630
 2.9180	 3.1960
 2.9200	 3.2310
 2.9210	 3.1900
 2.9230	 3.2410
 2.9250	 3.4170
 2.9260	 3.3850
 2.9280	 3.2860
 2.9300	 3.1630
 2.9310	 3.1890
 2.9330	 3.0770
 2.9350	 3.1550
 2.9360	 3.1120
 2.9380	 3.1400
 2.9400	 3.2580
 2.9410	 3.4610
 2.9430	 3.2010
 2.9450	 3.1840
 2.9460	 3.0710
 2.9480	 2.9180
 2.9500	 3.0770
 2.9510	 3.4010
 2.9530	 3.0630
 2.9550	 2.9460
 2.9560	 3.1580
 2.9580	 3.1900
 2.9600	 2.7520
 2.9610	 2.5230
 2.9630	 2.5780
 2.9650	 3.3200
 2.9660	 3.3360
 2.9680	 3.3340
 2.9700	 2.7170
 2.9720	 1.7860
 2.9730	 2.3830
 2.9750	 3.7730
 2.9770	 3.1740
 2.9780	 2.3660
 2.9800	 2.6170
 2.9820	 2.8680
 2.9840	 2.6990
 2.9850	 2.8280
 2.9870	 2.3280
 2.9890	 1.4790
 2.9900	 2.6160
 2.9920	 2.3800
 2.9940	 1.9210
 2.9960	 2.7800
 2.9970	 3.3350
 2.9990	 4.0740
 3.0010	 4.0630
 3.0030	 3.5020
 3.0040	 3.6540
 3.0060	 3.5960
 3.0080	 3.6010
 3.0100	 3.6160
 3.0110	 3.2000
 3.0130	 2.7250
 3.0150	 2.2350
 3.0170	 1.8990
 3.0180	 2.4760
 3.0200	 3.4580
 3.0220	 3.4900
 3.0240	 3.2260
 3.0250	 3.0760
 3.0270	 3.0750
 3.0290	 3.0280
 3.0310	 2.8700
 3.0320	 2.5580
 3.0340	 2.9420
 3.0360	 3.1920
 3.0380	 2.4040
 3.0400	 2.3040
 3.0410	 3.3830
 3.0430	 3.0540
 3.0450	 2.7610
 3.0470	 2.5700
 3.0480	 2.4090
 3.0500	 3.9520
 3.0520	 3.8750
 3.0540	 2.3310
 3.0560	 2.0700
 3.0570	 2.6830
 3.0590	 2.6000
 3.0610	 3.2430
 3.0630	 3.8310
 3.0650	 2.3420
 3.0660	 2.6050
 3.0680	 3.3890
 3.0700	 3.2360
 3.0720	 3.6930
 3.0740	 3.6340
 3.0760	 3.3730
 3.0770	 3.2520
 3.0790	 3.2260
 3.0810	 3.1430
 3.0830	 3.0900
 3.0850	 2.8070
 3.0870	 2.7690
 3.0880	 3.0330
 3.0900	 3.1670
 3.0920	 3.1710
 3.0940	 3.1250
 3.0960	 3.1540
 3.0980	 3.0590
 3.0990	 3.0670
 3.1010	 3.0900
 3.1030	 3.0580
 3.1050	 2.9890
 3.1070	 3.3370
 3.1090	 3.8480
 3.1110	 3.6280
 3.1120	 3.0990
 3.1140	 3.0240
 3.1160	 3.0090
 3.1180	 3.0870
 3.1200	 3.1400
 3.1220	 3.0360
 3.1240	 2.7210
 3.1260	 2.6480
 3.1270	 3.1420
 3.1290	 3.7650
 3.1310	 3.8980
 3.1330	 4.1460
 3.1350	 3.6310
 3.1370	 2.4060
 3.1390	 2.6750
 3.1410	 2.9960
 3.1430	 2.0490
 3.1450	 1.6860
 3.1460	 2.5300
 3.1480	 3.3690
 3.1500	 3.5010
 3.1520	 3.3970
 3.1540	 3.7520
 3.1560	 3.1180
 3.1580	 2.3320
 3.1600	 2.3980
 3.1620	 1.5650
 3.1640	 1.2080
 3.1660	 2.4230
 3.1680	 2.0740
 3.1700	 2.2060
 3.1710	 3.4410
 3.1730	 4.0080
 3.1750	 3.1560
 3.1770	 2.2460
 3.1790	 3.4770
 3.1810	 3.5430
 3.1830	 2.8360
 3.1850	 2.7560
 3.1870	 2.8770
 3.1890	 3.0180
 3.1910	 3.1650
 3.1930	 3.0640
 3.1950	 3.1320
 3.1970	 3.1120
 3.1990	 3.0130
 3.2010	 2.8670
 3.2030	 2.7340
 3.2050	 2.8320
 3.2070	 2.8690
 3.2090	 2.7560
 3.2110	 2.7650
 3.2130	 2.6360
 3.2150	 2.6420
 3.2170	 2.6360
 3.2190	 2.9030
 3.2210	 3.1100
 3.2230	 3.1280
 3.2250	 3.3100
 3.2270	 3.2220
 3.2290	 2.7650
 3.2310	 2.8530
 3.2330	 3.1030
 3.2350	 3.2050
 3.2370	 3.0140
 3.2390	 2.9800
 3.2410	 2.9440
 3.2430	 2.8930
 3.2450	 2.6620
 3.2470	 2.6760
 3.2490	 2.9120
 3.2510	 3.1250
 3.2530	 3.1690
 3.2550	 3.0850
 3.2570	 2.7370
 3.2590	 2.5630
 3.2610	 2.7640
 3.2630	 3.0120
 3.2650	 3.0240
 3.2670	 3.0940
 3.2690	 3.0240
 3.2720	 3.1670
 3.2740	 3.3040
 3.2760	 3.1340
 3.2780	 2.9190
 3.2800	 2.9830
 3.2820	 2.9530
 3.2840	 2.9720
 3.2860	 2.9580
 3.2880	 2.9090
 3.2900	 2.7750
 3.2920	 2.8230
 3.2940	 2.8100
 3.2960	 2.8680
 3.2990	 3.1010
 3.3010	 3.1150
 3.3030	 2.9230
 3.3050	 3.0140
 3.3070	 2.8650
 3.3090	 2.8050
 3.3110	 2.7540
 3.3130	 2.7930
 3.3150	 2.7660
 3.3180	 2.8790
 3.3200	 2.9300
 3.3220	 2.8000
 3.3240	 2.7980
 3.3260	 2.9850
 3.3280	 2.8830
 3.3300	 2.8530
 3.3330	 2.6890
 3.3350	 2.6240
 3.3370	 2.8290
 3.3390	 2.8170
 3.3410	 2.6990
 3.3430	 2.8890
 3.3450	 2.8690
 3.3480	 2.7460
 3.3500	 2.5930
 3.3520	 2.6260
 3.3540	 2.6230
 3.3560	 2.7530
 3.3580	 2.6660
 3.3610	 2.4240
 3.3630	 2.5090
 3.3650	 2.6650
 3.3670	 2.7230
 3.3690	 2.7420
 3.3720	 2.5350
 3.3740	 2.5610
 3.3760	 2.6840
 3.3780	 2.7670
 3.3800	 2.6110
 3.3830	 2.5660
 3.3850	 2.6000
 3.3870	 2.6660
 3.3890	 2.5470
 3.3910	 2.5690
 3.3940	 2.6110
 3.3960	 2.5640
 3.3980	 2.5420
 3.4000	 2.6280
 3.4020	 2.5730
 3.4050	 2.5590
 3.4070	 2.5400
 3.4090	 2.5780
 3.4110	 2.6130
 3.4140	 2.8700
 3.4160	 3.1220
 3.4180	 3.4090
 3.4200	 3.7690
 3.4230	 4.3720
 3.4250	 5.0320
 3.4270	 5.7620
 3.4290	 5.9630
 3.4320	 5.7720
 3.4340	 5.3960
 3.4360	 5.1330
 3.4390	 4.8280
 3.4410	 4.5580
 3.4430	 4.2600
 3.4450	 3.9670
 3.4480	 3.8530
 3.4500	 3.9990
 3.4520	 4.0640
 3.4550	 3.9640
 3.4570	 4.0730
 3.4590	 4.1850
 3.4620	 4.1310
 3.4640	 4.0580
 3.4660	 3.8780
 3.4680	 3.7510
 3.4710	 3.6050
 3.4730	 3.5170
 3.4750	 3.4300
 3.4780	 3.4890
 3.4800	 3.4750
 3.4820	 3.4670
 3.4850	 3.3640
 3.4870	 3.3190
 3.4890	 3.1910
 3.4920	 3.1730
 3.4940	 3.1500
 3.4970	 3.1170
 3.4990	 3.0830
 3.5010	 3.2620
 3.5040	 3.6210
 3.5060	 4.2380
 3.5080	 5.0450
 3.5110	 5.7510
 3.5130	 5.7860
 3.5160	 5.4280
 3.5180	 4.9200
 3.5200	 4.6140
 3.5230	 4.4690
 3.5250	 4.3520
 3.5270	 4.2650
 3.5300	 4.2160
 3.5320	 4.0630
 3.5350	 3.9140
 3.5370	 3.8270
 3.5400	 3.9190
 3.5420	 3.8910
 3.5440	 3.8730
 3.5470	 3.7920
 3.5490	 3.7450
 3.5520	 3.7350
 3.5540	 3.7280
 3.5570	 3.6380
 3.5590	 3.6130
 3.5610	 3.5960
 3.5640	 3.5890
 3.5660	 3.6450
 3.5690	 3.7250
 3.5710	 3.6380
 3.5740	 3.5900
 3.5760	 3.5720
 3.5790	 3.6410
 3.5810	 3.6350
 3.5840	 3.6570
 3.5860	 3.5990
 3.5890	 3.4720
 3.5910	 3.5480
 3.5930	 3.6980
 3.5960	 3.7590
 3.5980	 3.6340
 3.6010	 3.4230
 3.6030	 3.3760
 3.6060	 3.2620
 3.6080	 3.3990
 3.6110	 3.5780
 3.6140	 3.5540
 3.6160	 3.5500
 3.6190	 3.5900
 3.6210	 3.5090
 3.6240	 3.5240
 3.6260	 3.5390
 3.6290	 3.5520
 3.6310	 3.5180
 3.6340	 3.5250
 3.6360	 3.4570
 3.6390	 3.3900
 3.6410	 3.4730
 3.6440	 3.5410
 3.6470	 3.3690
 3.6490	 3.3240
 3.6520	 3.3990
 3.6540	 3.4640
 3.6570	 3.4230
 3.6590	 3.4650
 3.6620	 3.4610
 3.6650	 3.4440
 3.6670	 3.4630
 3.6700	 3.4930
 3.6720	 3.4360
 3.6750	 3.3780
 3.6780	 3.3470
 3.6800	 3.4090
 3.6830	 3.4360
 3.6850	 3.3920
 3.6880	 3.3600
 3.6910	 3.3590
 3.6930	 3.2700
 3.6960	 3.3390
 3.6990	 3.3940
 3.7010	 3.3770
 3.7040	 3.3660
 3.7060	 3.3740
 3.7090	 3.3980
 3.7120	 3.4070
 3.7140	 3.3800
 3.7170	 3.3830
 3.7200	 3.3170
 3.7220	 3.2620
 3.7250	 3.2670
 3.7280	 3.4190
 3.7300	 3.4190
 3.7330	 3.4280
 3.7360	 3.4820
 3.7390	 3.4760
 3.7410	 3.3860
 3.7440	 3.3510
 3.7470	 3.3230
 3.7490	 3.2940
 3.7520	 3.2390
 3.7550	 3.2960
 3.7580	 3.3960
 3.7600	 3.4390
 3.7630	 3.4210
 3.7660	 3.4350
 3.7680	 3.4200
 3.7710	 3.4340
 3.7740	 3.3920
 3.7770	 3.3600
 3.7790	 3.3820
 3.7820	 3.4690
 3.7850	 3.4600
 3.7880	 3.4520
 3.7900	 3.4310
 3.7930	 3.4500
 3.7960	 3.4330
 3.7990	 3.3750
 3.8020	 3.4150
 3.8040	 3.4600
 3.8070	 3.3880
 3.8100	 3.4170
 3.8130	 3.3080
 3.8160	 3.2340
 3.8180	 3.3610
 3.8210	 3.4820
 3.8240	 3.4210
 3.8270	 3.4390
 3.8300	 3.4720
 3.8330	 3.4460
 3.8350	 3.4770
 3.8380	 3.5650
 3.8410	 3.4460
 3.8440	 3.3890
 3.8470	 3.4260
 3.8500	 3.4300
 3.8520	 3.4680
 3.8550	 3.4300
 3.8580	 3.3660
 3.8610	 3.4150
 3.8640	 3.4070
 3.8670	 3.4110
 3.8700	 3.3540
 3.8730	 3.3860
 3.8750	 3.3940
 3.8780	 3.4230
 3.8810	 3.4620
 3.8840	 3.4310
 3.8870	 3.3520
 3.8900	 3.3970
 3.8930	 3.4570
 3.8960	 3.4160
 3.8990	 3.2960
 3.9020	 3.3080
 3.9050	 3.3390
 3.9080	 3.4520
 3.9110	 3.4430
 3.9140	 3.3960
 3.9160	 3.3830
 3.9190	 3.3920
 3.9220	 3.3980
 3.9250	 3.4160
 3.9280	 3.4430
 3.9310	 3.4470
 3.9340	 3.4250
 3.9370	 3.4690
 3.9400	 3.4580
 3.9430	 3.4680
 3.9460	 3.4340
 3.9490	 3.4190
 3.9520	 3.4370
 3.9550	 3.4130
 3.9580	 3.3630
 3.9610	 3.4240
 3.9640	 3.4550
 3.9670	 3.4420
 3.9700	 3.4440
 3.9730	 3.4060
 3.9770	 3.3480
 3.9800	 3.3850
 3.9830	 3.3920
 3.9860	 3.3990
 3.9890	 3.4000
 3.9920	 3.4360
 3.9950	 3.3950
 3.9980	 3.4270
 4.0010	 3.4610
 4.0040	 3.4700
 4.0070	 3.4560
 4.0100	 3.4470
 4.0130	 3.4320
 4.0170	 3.4570
 4.0200	 3.4240
 4.0230	 3.3950
 4.0260	 3.3520
 4.0290	 3.3850
 4.0320	 3.4260
 4.0350	 3.4220
 4.0380	 3.3760
 4.0420	 3.3700
 4.0450	 3.3160
 4.0480	 3.4010
 4.0510	 3.4470
 4.0540	 3.4630
 4.0570	 3.4900
 4.0610	 3.5830
 4.0640	 3.5800
 4.0670	 3.5110
 4.0700	 3.5100
 4.0730	 3.5220
 4.0770	 3.4680
 4.0800	 3.3700
 4.0830	 3.3770
 4.0860	 3.4750
 4.0890	 3.5070
 4.0930	 3.4850
 4.0960	 3.4570
 4.0990	 3.5050
 4.1020	 3.4630
 4.1060	 3.4350
 4.1090	 3.3860
 4.1120	 3.3670
 4.1150	 3.3720
 4.1190	 3.4050
 4.1220	 3.4050
 4.1250	 3.4070
 4.1280	 3.4090
 4.1320	 3.4020
 4.1350	 3.3960
 4.1380	 3.4170
 4.1420	 3.3880
 4.1450	 3.4020
 4.1480	 3.3580
 4.1520	 3.3650
 4.1550	 3.4370
 4.1580	 3.4660
 4.1620	 3.3770
 4.1650	 3.3730
 4.1680	 3.4000
 4.1720	 3.3820
 4.1750	 3.3740
 4.1780	 3.3800
 4.1820	 3.3500
 4.1850	 3.4210
 4.1890	 3.4420
 4.1920	 3.4460
 4.1950	 3.4510
 4.1990	 3.4360
 4.2020	 3.3830
 4.2060	 3.4030
 4.2090	 3.4380
 4.2120	 3.5420
 4.2160	 3.5450
 4.2190	 3.6350
 4.2230	 3.8540
 4.2260	 3.9660
 4.2300	 3.7160
 4.2330	 3.5310
 4.2360	 3.7150
 4.2400	 3.8970
 4.2430	 3.6090
 4.2470	 3.4920
 4.2500	 3.5220
 4.2540	 3.5190
 4.2570	 3.5580
 4.2610	 3.7300
 4.2640	 3.7210
 4.2680	 3.5970
 4.2710	 3.5840
 4.2750	 3.6070
 4.2780	 3.5570
 4.2820	 3.4230
 4.2850	 3.4560
 4.2890	 3.6710
 4.2930	 3.6790
 4.2960	 3.6730
 4.3000	 3.6290
 4.3030	 3.5900
 4.3070	 3.5680
 4.3100	 3.5270
 4.3140	 3.4860
 4.3180	 3.4860
 4.3210	 3.4590
 4.3250	 3.4000
 4.3280	 3.3490
 4.3320	 3.3510
 4.3360	 3.3930
 4.3390	 3.4070
 4.3430	 3.3800
 4.3470	 3.3640
 4.3500	 3.3100
 4.3540	 3.2770
 4.3570	 3.3290
 4.3610	 3.3660
 4.3650	 3.3630
 4.3680	 3.2710
 4.3720	 3.2050
 4.3760	 3.2890
 4.3800	 3.3290
 4.3830	 3.3290
 4.3870	 3.2730
 4.3910	 3.2370
 4.3940	 3.2710
 4.3980	 3.2960
 4.4020	 3.2680
 4.4060	 3.2350
 4.4090	 3.2460
 4.4130	 3.3240
 4.4170	 3.2410
 4.4210	 3.1480
 4.4240	 3.1720
 4.4280	 3.2390
 4.4320	 3.2380
 4.4360	 3.2040
 4.4400	 3.2130
 4.4430	 3.2440
 4.4470	 3.2230
 4.4510	 3.2130
 4.4550	 3.2210
 4.4590	 3.2320
 4.4620	 3.2370
 4.4660	 3.2690
 4.4700	 3.2790
 4.4740	 3.2480
 4.4780	 3.2740
 4.4820	 3.2660
 4.4860	 3.2070
 4.4900	 3.2470
 4.4930	 3.2430
 4.4970	 3.1680
 4.5010	 3.1650
 4.5050	 3.1760
 4.5090	 3.1500
 4.5130	 3.1610
 4.5170	 3.2140
 4.5210	 3.2040
 4.5250	 3.1590
 4.5290	 3.1290
 4.5330	 3.1530
 4.5370	 3.1870
 4.5410	 3.1570
 4.5450	 3.1350
 4.5490	 3.0980
 4.5530	 3.0650
 4.5570	 3.1240
 4.5610	 3.1510
 4.5650	 3.2050
 4.5690	 3.2230
 4.5730	 3.2060
 4.5770	 3.2090
 4.5810	 3.2750
 4.5850	 3.2820
 4.5890	 3.1690
 4.5930	 3.0960
 4.5970	 3.0990
 4.6010	 3.1360
 4.6050	 3.2070
 4.6090	 3.2440
 4.6130	 3.1070
 4.6170	 3.0790
 4.6220	 3.1070
 4.6260	 3.0610
 4.6300	 3.0460
 4.6340	 2.9480
 4.6380	 3.0770
 4.6420	 3.2090
 4.6460	 3.1220
 4.6510	 3.0470
 4.6550	 3.0750
 4.6590	 3.0430
 4.6630	 3.0480
 4.6670	 3.1090
 4.6720	 3.0830
 4.6760	 3.0470
 4.6800	 3.1220
 4.6840	 3.1290
 4.6880	 3.0500
 4.6930	 3.0150
 4.6970	 3.0810
 4.7010	 3.0530
 4.7050	 3.0410
 4.7100	 3.0370
 4.7140	 3.1040
 4.7180	 3.1320
 4.7230	 3.1390
 4.7270	 3.1300
 4.7310	 3.0840
 4.7360	 3.1080
 4.7400	 3.1650
 4.7440	 3.1250
 4.7490	 3.1750
 4.7530	 3.1780
 4.7570	 3.1290
 4.7620	 3.1520
 4.7660	 3.1740
 4.7700	 3.0940
 4.7750	 3.0980
 4.7790	 3.0730
 4.7840	 3.0240
 4.7880	 2.9420
 4.7920	 2.9680
 4.7970	 3.1570
 4.8010	 3.2270
 4.8060	 3.0850
 4.8100	 2.9790
 4.8150	 2.9840
 4.8190	 3.0120
 4.8240	 2.9920
 4.8280	 2.9630
 4.8330	 3.0160
 4.8370	 3.0210
 4.8420	 3.0340
 4.8460	 3.0620
 4.8510	 3.0900
 4.8550	 3.1010
 4.8600	 3.1070
 4.8640	 3.1230
 4.8690	 3.0720
 4.8730	 3.1090
 4.8780	 3.1680
 4.8830	 3.1310
 4.8870	 3.0810
 4.8920	 3.1320
 4.8960	 3.1250
 4.9010	 3.0840
 4.9060	 3.0430
 4.9100	 3.0580
 4.9150	 3.0430
 4.9200	 3.0430
 4.9240	 3.0600
 4.9290	 3.0830
 4.9340	 3.0430
 4.9380	 3.0590
 4.9430	 3.0500
 4.9480	 3.0400
 4.9530	 3.0610
 4.9570	 3.0660
 4.9620	 3.1080
 4.9670	 3.1500
 4.9720	 3.1150
 4.9760	 3.1240
 4.9810	 3.1320
 4.9860	 3.1450
 4.9910	 3.1210
 4.9960	 3.0910
 5.0000	 3.0830
 5.0050	 3.1040
 5.0100	 3.1140
 5.0150	 3.1380
 5.0200	 3.1160
 5.0250	 3.1030
 5.0290	 3.1160
 5.0340	 3.1220
 5.0390	 3.1040
 5.0440	 3.1000
 5.0490	 3.0640
 5.0540	 3.0680
 5.0590	 3.0570
 5.0640	 3.0940
 5.0690	 3.1040
 5.0740	 3.1350
 5.0790	 3.1170
 5.0840	 3.1630
 5.0890	 3.1780
 5.0940	 3.1280
 5.0990	 3.0790
 5.1040	 3.1000
 5.1090	 3.0550
 5.1140	 3.0590
 5.1190	 3.0950
 5.1240	 3.0980
 5.1290	 3.0800
 5.1340	 3.1360
 5.1390	 3.1600
 5.1440	 3.1860
 5.1490	 3.2070
 5.1540	 3.2020
 5.1600	 3.1680
 5.1650	 3.1320
 5.1700	 3.1200
 5.1750	 3.1760
 5.1800	 3.1340
 5.1850	 3.0960
 5.1910	 3.1020
 5.1960	 3.1590
 5.2010	 3.1600
 5.2060	 3.1550
 5.2110	 3.1000
 5.2170	 3.0910
 5.2220	 3.0980
 5.2270	 3.0820
 5.2320	 3.0820
 5.2380	 3.1170
 5.2430	 3.1170
 5.2480	 3.1460
 5.2540	 3.1190
 5.2590	 3.1560
 5.2640	 3.1610
 5.2700	 3.1410
 5.2750	 3.1280
 5.2800	 3.0890
 5.2860	 3.0690
 5.2910	 3.1130
 5.2970	 3.0560
 5.3020	 3.0340
 5.3070	 3.1170
 5.3130	 3.1620
 5.3180	 3.0590
 5.3240	 3.0890
 5.3290	 3.0760
 5.3350	 3.0830
 5.3400	 3.1060
 5.3460	 3.1110
 5.3510	 3.0630
 5.3570	 3.0890
 5.3620	 3.0770
 5.3680	 3.0880
 5.3730	 3.0600
 5.3790	 3.0590
 5.3850	 3.0560
 5.3900	 3.0750
 5.3960	 3.1030
 5.4010	 3.1260
 5.4070	 3.0650
 5.4130	 3.0060
 5.4180	 2.9850
 5.4240	 3.0330
 5.4300	 3.0660
 5.4350	 3.0850
 5.4410	 3.0740
