Name: Baccharis pilularis 3
Type: vegetation
Class: Shrub
Genus: Baccharis
Species: pilularis
Sample No.: VH048
Owner: UCSB
Wavelength Range: VSWIR
Origin: 34.5088; -119.7683; WGS84
Collection Date: 4/1/2013
Description: Samples were collected as part of the HyspIRI Airborne Campaign. 48 individual plants were sampled in three times in 2013 - spring  summer  and fall. The name of the sample includes a 1  2  or 3 which references a different individual of the species. Samples were taken to JPL and processed within 48 hours of collection. The same leaves were processed in the Nicolet and then measured using the ASD.
Measurement: Bidirectional reflectance
First Column: X
Second Column: Y
X Units: Wavelength (micrometers)
Y Units: Reflectance (percentage)
First X Value: 0.35
Last X Value: 2.5
Number of X Values: 2151
Additional Information: vegetation.shrub.baccharis.pilularis.vswir.vh048.ucsb.asd.ancillary.txt

 0.3500	 3.8850
 0.3510	 3.6510
 0.3520	 3.6190
 0.3530	 3.7780
 0.3540	 3.9580
 0.3550	 3.7100
 0.3560	 3.6460
 0.3570	 3.8140
 0.3580	 3.9430
 0.3590	 3.7310
 0.3600	 3.6370
 0.3610	 3.8070
 0.3620	 3.8590
 0.3630	 3.7720
 0.3640	 3.6750
 0.3650	 3.6920
 0.3660	 3.7460
 0.3670	 3.7810
 0.3680	 3.7610
 0.3690	 3.6850
 0.3700	 3.6580
 0.3710	 3.6450
 0.3720	 3.6320
 0.3730	 3.6890
 0.3740	 3.7150
 0.3750	 3.7290
 0.3760	 3.7630
 0.3770	 3.7110
 0.3780	 3.7010
 0.3790	 3.7120
 0.3800	 3.6030
 0.3810	 3.6020
 0.3820	 3.6970
 0.3830	 3.8080
 0.3840	 3.8130
 0.3850	 3.8010
 0.3860	 3.7880
 0.3870	 3.7770
 0.3880	 3.8460
 0.3890	 3.8490
 0.3900	 3.7710
 0.3910	 3.7360
 0.3920	 3.7470
 0.3930	 3.7660
 0.3940	 3.7610
 0.3950	 3.7610
 0.3960	 3.7720
 0.3970	 3.7810
 0.3980	 3.7710
 0.3990	 3.7950
 0.4000	 3.8010
 0.4010	 3.7750
 0.4020	 3.7690
 0.4030	 3.7550
 0.4040	 3.7530
 0.4050	 3.7800
 0.4060	 3.8200
 0.4070	 3.8380
 0.4080	 3.8390
 0.4090	 3.8490
 0.4100	 3.8470
 0.4110	 3.8470
 0.4120	 3.8530
 0.4130	 3.8500
 0.4140	 3.8610
 0.4150	 3.8840
 0.4160	 3.9050
 0.4170	 3.9000
 0.4180	 3.8900
 0.4190	 3.8870
 0.4200	 3.8900
 0.4210	 3.9020
 0.4220	 3.9170
 0.4230	 3.9280
 0.4240	 3.9350
 0.4250	 3.9130
 0.4260	 3.9060
 0.4270	 3.9650
 0.4280	 3.9830
 0.4290	 3.9850
 0.4300	 3.9980
 0.4310	 4.0270
 0.4320	 4.0420
 0.4330	 4.0550
 0.4340	 4.0790
 0.4350	 4.0850
 0.4360	 4.1000
 0.4370	 4.1220
 0.4380	 4.1290
 0.4390	 4.1370
 0.4400	 4.1490
 0.4410	 4.1650
 0.4420	 4.1880
 0.4430	 4.1930
 0.4440	 4.2000
 0.4450	 4.2330
 0.4460	 4.2480
 0.4470	 4.2560
 0.4480	 4.2670
 0.4490	 4.2900
 0.4500	 4.2930
 0.4510	 4.2980
 0.4520	 4.3250
 0.4530	 4.3390
 0.4540	 4.3590
 0.4550	 4.3820
 0.4560	 4.3910
 0.4570	 4.3980
 0.4580	 4.4080
 0.4590	 4.4210
 0.4600	 4.4410
 0.4610	 4.4480
 0.4620	 4.4490
 0.4630	 4.4570
 0.4640	 4.4690
 0.4650	 4.4770
 0.4660	 4.4850
 0.4670	 4.5060
 0.4680	 4.5100
 0.4690	 4.5080
 0.4700	 4.5160
 0.4710	 4.5240
 0.4720	 4.5360
 0.4730	 4.5490
 0.4740	 4.5610
 0.4750	 4.5600
 0.4760	 4.5590
 0.4770	 4.5620
 0.4780	 4.5650
 0.4790	 4.5670
 0.4800	 4.5730
 0.4810	 4.5870
 0.4820	 4.5940
 0.4830	 4.6030
 0.4840	 4.6160
 0.4850	 4.6300
 0.4860	 4.6390
 0.4870	 4.6470
 0.4880	 4.6570
 0.4890	 4.6770
 0.4900	 4.6890
 0.4910	 4.6970
 0.4920	 4.7130
 0.4930	 4.7390
 0.4940	 4.7640
 0.4950	 4.7850
 0.4960	 4.8100
 0.4970	 4.8350
 0.4980	 4.8600
 0.4990	 4.8880
 0.5000	 4.9270
 0.5010	 4.9630
 0.5020	 4.9980
 0.5030	 5.0400
 0.5040	 5.0900
 0.5050	 5.1480
 0.5060	 5.2120
 0.5070	 5.2810
 0.5080	 5.3540
 0.5090	 5.4350
 0.5100	 5.5240
 0.5110	 5.6210
 0.5120	 5.7300
 0.5130	 5.8480
 0.5140	 5.9730
 0.5150	 6.1040
 0.5160	 6.2430
 0.5170	 6.3930
 0.5180	 6.5590
 0.5190	 6.7350
 0.5200	 6.9140
 0.5210	 7.0910
 0.5220	 7.2760
 0.5230	 7.4670
 0.5240	 7.6610
 0.5250	 7.8530
 0.5260	 8.0400
 0.5270	 8.2220
 0.5280	 8.3970
 0.5290	 8.5650
 0.5300	 8.7250
 0.5310	 8.8750
 0.5320	 9.0140
 0.5330	 9.1510
 0.5340	 9.2810
 0.5350	 9.3960
 0.5360	 9.5070
 0.5370	 9.6090
 0.5380	 9.7040
 0.5390	 9.7950
 0.5400	 9.8840
 0.5410	 9.9720
 0.5420	10.0590
 0.5430	10.1400
 0.5440	10.2160
 0.5450	10.2850
 0.5460	10.3460
 0.5470	10.3910
 0.5480	10.4360
 0.5490	10.4850
 0.5500	10.5180
 0.5510	10.5460
 0.5520	10.5660
 0.5530	10.5730
 0.5540	10.5620
 0.5550	10.5460
 0.5560	10.5240
 0.5570	10.4870
 0.5580	10.4390
 0.5590	10.3840
 0.5600	10.3240
 0.5610	10.2560
 0.5620	10.1790
 0.5630	10.0970
 0.5640	10.0120
 0.5650	 9.9150
 0.5660	 9.8130
 0.5670	 9.7110
 0.5680	 9.6040
 0.5690	 9.4870
 0.5700	 9.3650
 0.5710	 9.2460
 0.5720	 9.1300
 0.5730	 9.0190
 0.5740	 8.9130
 0.5750	 8.8050
 0.5760	 8.7170
 0.5770	 8.6410
 0.5780	 8.5690
 0.5790	 8.5040
 0.5800	 8.4370
 0.5810	 8.3710
 0.5820	 8.3120
 0.5830	 8.2510
 0.5840	 8.1950
 0.5850	 8.1460
 0.5860	 8.1030
 0.5870	 8.0680
 0.5880	 8.0340
 0.5890	 7.9970
 0.5900	 7.9700
 0.5910	 7.9500
 0.5920	 7.9310
 0.5930	 7.9060
 0.5940	 7.8870
 0.5950	 7.8710
 0.5960	 7.8560
 0.5970	 7.8450
 0.5980	 7.8350
 0.5990	 7.8210
 0.6000	 7.7990
 0.6010	 7.7730
 0.6020	 7.7420
 0.6030	 7.7080
 0.6040	 7.6710
 0.6050	 7.6290
 0.6060	 7.5800
 0.6070	 7.5260
 0.6080	 7.4710
 0.6090	 7.4180
 0.6100	 7.3660
 0.6110	 7.3160
 0.6120	 7.2560
 0.6130	 7.1890
 0.6140	 7.1220
 0.6150	 7.0630
 0.6160	 7.0070
 0.6170	 6.9560
 0.6180	 6.9090
 0.6190	 6.8720
 0.6200	 6.8410
 0.6210	 6.8120
 0.6220	 6.7810
 0.6230	 6.7590
 0.6240	 6.7400
 0.6250	 6.7220
 0.6260	 6.7090
 0.6270	 6.7010
 0.6280	 6.6970
 0.6290	 6.6950
 0.6300	 6.6930
 0.6310	 6.6890
 0.6320	 6.6820
 0.6330	 6.6760
 0.6340	 6.6650
 0.6350	 6.6510
 0.6360	 6.6350
 0.6370	 6.6070
 0.6380	 6.5720
 0.6390	 6.5340
 0.6400	 6.4940
 0.6410	 6.4510
 0.6420	 6.4050
 0.6430	 6.3550
 0.6440	 6.2990
 0.6450	 6.2460
 0.6460	 6.1920
 0.6470	 6.1370
 0.6480	 6.0900
 0.6490	 6.0450
 0.6500	 6.0030
 0.6510	 5.9680
 0.6520	 5.9330
 0.6530	 5.8960
 0.6540	 5.8580
 0.6550	 5.8230
 0.6560	 5.7850
 0.6570	 5.7430
 0.6580	 5.6980
 0.6590	 5.6510
 0.6600	 5.6070
 0.6610	 5.5640
 0.6620	 5.5190
 0.6630	 5.4780
 0.6640	 5.4410
 0.6650	 5.4080
 0.6660	 5.3820
 0.6670	 5.3600
 0.6680	 5.3410
 0.6690	 5.3240
 0.6700	 5.3160
 0.6710	 5.3100
 0.6720	 5.3050
 0.6730	 5.3050
 0.6740	 5.3070
 0.6750	 5.3100
 0.6760	 5.3180
 0.6770	 5.3330
 0.6780	 5.3450
 0.6790	 5.3560
 0.6800	 5.3760
 0.6810	 5.4040
 0.6820	 5.4350
 0.6830	 5.4700
 0.6840	 5.5160
 0.6850	 5.5760
 0.6860	 5.6520
 0.6870	 5.7480
 0.6880	 5.8710
 0.6890	 6.0240
 0.6900	 6.2140
 0.6910	 6.4470
 0.6920	 6.7310
 0.6930	 7.0650
 0.6940	 7.4510
 0.6950	 7.8960
 0.6960	 8.3930
 0.6970	 8.9430
 0.6980	 9.5440
 0.6990	10.1960
 0.7000	10.8930
 0.7010	11.6290
 0.7020	12.3980
 0.7030	13.1970
 0.7040	14.0190
 0.7050	14.8570
 0.7060	15.7130
 0.7070	16.5810
 0.7080	17.4610
 0.7090	18.3520
 0.7100	19.2440
 0.7110	20.1400
 0.7120	21.0420
 0.7130	21.9480
 0.7140	22.8520
 0.7150	23.7580
 0.7160	24.6650
 0.7170	25.5630
 0.7180	26.4520
 0.7190	27.3340
 0.7200	28.2070
 0.7210	29.0710
 0.7220	29.9190
 0.7230	30.7460
 0.7240	31.5500
 0.7250	32.3340
 0.7260	33.0930
 0.7270	33.8250
 0.7280	34.5280
 0.7290	35.2030
 0.7300	35.8510
 0.7310	36.4700
 0.7320	37.0530
 0.7330	37.6080
 0.7340	38.1380
 0.7350	38.6420
 0.7360	39.1170
 0.7370	39.5640
 0.7380	39.9860
 0.7390	40.3840
 0.7400	40.7670
 0.7410	41.1260
 0.7420	41.4510
 0.7430	41.7650
 0.7440	42.0590
 0.7450	42.3300
 0.7460	42.5800
 0.7470	42.8160
 0.7480	43.0380
 0.7490	43.2420
 0.7500	43.4290
 0.7510	43.6060
 0.7520	43.7670
 0.7530	43.9070
 0.7540	44.0390
 0.7550	44.1670
 0.7560	44.2870
 0.7570	44.3970
 0.7580	44.4930
 0.7590	44.5810
 0.7600	44.6680
 0.7610	44.7520
 0.7620	44.8220
 0.7630	44.8840
 0.7640	44.9480
 0.7650	44.9940
 0.7660	45.0470
 0.7670	45.1060
 0.7680	45.1550
 0.7690	45.1990
 0.7700	45.2460
 0.7710	45.2930
 0.7720	45.3200
 0.7730	45.3540
 0.7740	45.3890
 0.7750	45.4180
 0.7760	45.4610
 0.7770	45.4930
 0.7780	45.5140
 0.7790	45.5370
 0.7800	45.5700
 0.7810	45.5980
 0.7820	45.6190
 0.7830	45.6500
 0.7840	45.6800
 0.7850	45.7030
 0.7860	45.7230
 0.7870	45.7570
 0.7880	45.7770
 0.7890	45.7940
 0.7900	45.8240
 0.7910	45.8380
 0.7920	45.8460
 0.7930	45.8590
 0.7940	45.8830
 0.7950	45.9030
 0.7960	45.9190
 0.7970	45.9330
 0.7980	45.9550
 0.7990	45.9650
 0.8000	45.9690
 0.8010	45.9750
 0.8020	45.9850
 0.8030	46.0000
 0.8040	46.0150
 0.8050	46.0250
 0.8060	46.0280
 0.8070	46.0270
 0.8080	46.0290
 0.8090	46.0380
 0.8100	46.0450
 0.8110	46.0470
 0.8120	46.0480
 0.8130	46.0510
 0.8140	46.0450
 0.8150	46.0390
 0.8160	46.0440
 0.8170	46.0490
 0.8180	46.0420
 0.8190	46.0350
 0.8200	46.0400
 0.8210	46.0370
 0.8220	46.0250
 0.8230	46.0130
 0.8240	46.0220
 0.8250	46.0150
 0.8260	45.9980
 0.8270	45.9820
 0.8280	45.9710
 0.8290	45.9640
 0.8300	45.9530
 0.8310	45.9360
 0.8320	45.9160
 0.8330	45.9040
 0.8340	45.8930
 0.8350	45.8780
 0.8360	45.8780
 0.8370	45.8830
 0.8380	45.8840
 0.8390	45.8720
 0.8400	45.8690
 0.8410	45.8750
 0.8420	45.8800
 0.8430	45.8620
 0.8440	45.8630
 0.8450	45.8710
 0.8460	45.8730
 0.8470	45.8740
 0.8480	45.8770
 0.8490	45.8870
 0.8500	45.9020
 0.8510	45.8970
 0.8520	45.8940
 0.8530	45.8990
 0.8540	45.9090
 0.8550	45.9180
 0.8560	45.9220
 0.8570	45.9240
 0.8580	45.9320
 0.8590	45.9400
 0.8600	45.9470
 0.8610	45.9500
 0.8620	45.9410
 0.8630	45.9490
 0.8640	45.9620
 0.8650	45.9650
 0.8660	45.9620
 0.8670	45.9640
 0.8680	45.9740
 0.8690	45.9900
 0.8700	46.0030
 0.8710	46.0100
 0.8720	46.0150
 0.8730	46.0240
 0.8740	46.0300
 0.8750	46.0400
 0.8760	46.0510
 0.8770	46.0560
 0.8780	46.0630
 0.8790	46.0720
 0.8800	46.0780
 0.8810	46.0770
 0.8820	46.0810
 0.8830	46.0890
 0.8840	46.0950
 0.8850	46.1000
 0.8860	46.1030
 0.8870	46.1080
 0.8880	46.1180
 0.8890	46.1230
 0.8900	46.1270
 0.8910	46.1280
 0.8920	46.1270
 0.8930	46.1390
 0.8940	46.1420
 0.8950	46.1380
 0.8960	46.1410
 0.8970	46.1430
 0.8980	46.1440
 0.8990	46.1460
 0.9000	46.1470
 0.9010	46.1480
 0.9020	46.1480
 0.9030	46.1490
 0.9040	46.1570
 0.9050	46.1520
 0.9060	46.1460
 0.9070	46.1490
 0.9080	46.1610
 0.9090	46.1560
 0.9100	46.1440
 0.9110	46.1420
 0.9120	46.1420
 0.9130	46.1410
 0.9140	46.1380
 0.9150	46.1290
 0.9160	46.1140
 0.9170	46.1010
 0.9180	46.0890
 0.9190	46.0740
 0.9200	46.0710
 0.9210	46.0610
 0.9220	46.0430
 0.9230	46.0210
 0.9240	45.9710
 0.9250	45.9350
 0.9260	45.9140
 0.9270	45.8750
 0.9280	45.8230
 0.9290	45.7770
 0.9300	45.7360
 0.9310	45.6820
 0.9320	45.6260
 0.9330	45.5710
 0.9340	45.5100
 0.9350	45.4350
 0.9360	45.3790
 0.9370	45.3170
 0.9380	45.2350
 0.9390	45.1470
 0.9400	45.0760
 0.9410	45.0110
 0.9420	44.9370
 0.9430	44.8400
 0.9440	44.7300
 0.9450	44.6210
 0.9460	44.5170
 0.9470	44.4020
 0.9480	44.2800
 0.9490	44.1510
 0.9500	44.0140
 0.9510	43.8490
 0.9520	43.6800
 0.9530	43.5180
 0.9540	43.3600
 0.9550	43.1790
 0.9560	43.0030
 0.9570	42.8470
 0.9580	42.7110
 0.9590	42.5780
 0.9600	42.4650
 0.9610	42.3670
 0.9620	42.2740
 0.9630	42.1750
 0.9640	42.1040
 0.9650	42.0490
 0.9660	41.9910
 0.9670	41.9480
 0.9680	41.9280
 0.9690	41.9150
 0.9700	41.8890
 0.9710	41.8730
 0.9720	41.8510
 0.9730	41.8290
 0.9740	41.8160
 0.9750	41.8090
 0.9760	41.8150
 0.9770	41.8220
 0.9780	41.8170
 0.9790	41.8250
 0.9800	41.8410
 0.9810	41.8620
 0.9820	41.8850
 0.9830	41.9090
 0.9840	41.9400
 0.9850	41.9820
 0.9860	42.0300
 0.9870	42.0560
 0.9880	42.1020
 0.9890	42.1670
 0.9900	42.2250
 0.9910	42.2440
 0.9920	42.3760
 0.9930	42.5080
 0.9940	42.6400
 0.9950	42.7710
 0.9960	42.9030
 0.9970	43.0350
 0.9980	43.1670
 0.9990	43.2990
 1.0000	43.4310
 1.0010	43.5630
 1.0020	43.6950
 1.0030	43.8270
 1.0040	43.9590
 1.0050	44.0910
 1.0060	44.2220
 1.0070	44.3540
 1.0080	44.4860
 1.0090	44.6180
 1.0100	44.6180
 1.0110	44.6810
 1.0120	44.7460
 1.0130	44.8130
 1.0140	44.8800
 1.0150	44.9490
 1.0160	45.0120
 1.0170	45.0730
 1.0180	45.1360
 1.0190	45.1960
 1.0200	45.2520
 1.0210	45.3130
 1.0220	45.3770
 1.0230	45.4370
 1.0240	45.5000
 1.0250	45.5570
 1.0260	45.6080
 1.0270	45.6620
 1.0280	45.7170
 1.0290	45.7710
 1.0300	45.8270
 1.0310	45.8810
 1.0320	45.9340
 1.0330	45.9820
 1.0340	46.0310
 1.0350	46.0790
 1.0360	46.1240
 1.0370	46.1660
 1.0380	46.2090
 1.0390	46.2510
 1.0400	46.2940
 1.0410	46.3400
 1.0420	46.3810
 1.0430	46.4210
 1.0440	46.4580
 1.0450	46.4910
 1.0460	46.5250
 1.0470	46.5610
 1.0480	46.5930
 1.0490	46.6230
 1.0500	46.6510
 1.0510	46.6760
 1.0520	46.6970
 1.0530	46.7200
 1.0540	46.7450
 1.0550	46.7660
 1.0560	46.7830
 1.0570	46.8040
 1.0580	46.8260
 1.0590	46.8440
 1.0600	46.8680
 1.0610	46.8830
 1.0620	46.8900
 1.0630	46.9020
 1.0640	46.9130
 1.0650	46.9230
 1.0660	46.9370
 1.0670	46.9460
 1.0680	46.9530
 1.0690	46.9570
 1.0700	46.9620
 1.0710	46.9650
 1.0720	46.9660
 1.0730	46.9660
 1.0740	46.9650
 1.0750	46.9600
 1.0760	46.9550
 1.0770	46.9520
 1.0780	46.9460
 1.0790	46.9370
 1.0800	46.9280
 1.0810	46.9180
 1.0820	46.9070
 1.0830	46.8990
 1.0840	46.8860
 1.0850	46.8710
 1.0860	46.8540
 1.0870	46.8360
 1.0880	46.8150
 1.0890	46.7950
 1.0900	46.7760
 1.0910	46.7520
 1.0920	46.7230
 1.0930	46.6970
 1.0940	46.6690
 1.0950	46.6400
 1.0960	46.6140
 1.0970	46.5840
 1.0980	46.5510
 1.0990	46.5190
 1.1000	46.4880
 1.1010	46.4540
 1.1020	46.4190
 1.1030	46.3810
 1.1040	46.3380
 1.1050	46.2940
 1.1060	46.2520
 1.1070	46.2120
 1.1080	46.1670
 1.1090	46.1260
 1.1100	46.0780
 1.1110	46.0260
 1.1120	45.9740
 1.1130	45.9230
 1.1140	45.8660
 1.1150	45.8060
 1.1160	45.7410
 1.1170	45.6750
 1.1180	45.6010
 1.1190	45.5240
 1.1200	45.4400
 1.1210	45.3500
 1.1220	45.2520
 1.1230	45.1440
 1.1240	45.0260
 1.1250	44.8950
 1.1260	44.7540
 1.1270	44.5970
 1.1280	44.4310
 1.1290	44.2470
 1.1300	44.0500
 1.1310	43.8360
 1.1320	43.6080
 1.1330	43.3640
 1.1340	43.1040
 1.1350	42.8290
 1.1360	42.5380
 1.1370	42.2320
 1.1380	41.9160
 1.1390	41.5910
 1.1400	41.2560
 1.1410	40.9210
 1.1420	40.5830
 1.1430	40.2440
 1.1440	39.9130
 1.1450	39.5800
 1.1460	39.2620
 1.1470	38.9450
 1.1480	38.6500
 1.1490	38.3630
 1.1500	38.1020
 1.1510	37.8590
 1.1520	37.6340
 1.1530	37.4280
 1.1540	37.2420
 1.1550	37.0730
 1.1560	36.9220
 1.1570	36.7900
 1.1580	36.6770
 1.1590	36.5780
 1.1600	36.4940
 1.1610	36.4240
 1.1620	36.3630
 1.1630	36.3120
 1.1640	36.2710
 1.1650	36.2370
 1.1660	36.2130
 1.1670	36.1910
 1.1680	36.1770
 1.1690	36.1620
 1.1700	36.1510
 1.1710	36.1410
 1.1720	36.1330
 1.1730	36.1240
 1.1740	36.1160
 1.1750	36.1060
 1.1760	36.0980
 1.1770	36.0880
 1.1780	36.0800
 1.1790	36.0720
 1.1800	36.0600
 1.1810	36.0450
 1.1820	36.0290
 1.1830	36.0130
 1.1840	35.9990
 1.1850	35.9870
 1.1860	35.9730
 1.1870	35.9590
 1.1880	35.9460
 1.1890	35.9320
 1.1900	35.9230
 1.1910	35.9180
 1.1920	35.9140
 1.1930	35.9140
 1.1940	35.9160
 1.1950	35.9200
 1.1960	35.9270
 1.1970	35.9380
 1.1980	35.9500
 1.1990	35.9640
 1.2000	35.9800
 1.2010	35.9980
 1.2020	36.0210
 1.2030	36.0480
 1.2040	36.0760
 1.2050	36.1090
 1.2060	36.1410
 1.2070	36.1750
 1.2080	36.2110
 1.2090	36.2470
 1.2100	36.2870
 1.2110	36.3290
 1.2120	36.3740
 1.2130	36.4200
 1.2140	36.4690
 1.2150	36.5180
 1.2160	36.5670
 1.2170	36.6160
 1.2180	36.6660
 1.2190	36.7180
 1.2200	36.7700
 1.2210	36.8240
 1.2220	36.8780
 1.2230	36.9310
 1.2240	36.9820
 1.2250	37.0330
 1.2260	37.0830
 1.2270	37.1320
 1.2280	37.1810
 1.2290	37.2290
 1.2300	37.2760
 1.2310	37.3200
 1.2320	37.3640
 1.2330	37.4070
 1.2340	37.4490
 1.2350	37.4890
 1.2360	37.5290
 1.2370	37.5670
 1.2380	37.6060
 1.2390	37.6430
 1.2400	37.6790
 1.2410	37.7160
 1.2420	37.7500
 1.2430	37.7820
 1.2440	37.8160
 1.2450	37.8460
 1.2460	37.8750
 1.2470	37.9040
 1.2480	37.9320
 1.2490	37.9600
 1.2500	37.9870
 1.2510	38.0100
 1.2520	38.0320
 1.2530	38.0510
 1.2540	38.0700
 1.2550	38.0890
 1.2560	38.1080
 1.2570	38.1220
 1.2580	38.1320
 1.2590	38.1400
 1.2600	38.1430
 1.2610	38.1460
 1.2620	38.1480
 1.2630	38.1500
 1.2640	38.1490
 1.2650	38.1480
 1.2660	38.1430
 1.2670	38.1340
 1.2680	38.1250
 1.2690	38.1130
 1.2700	38.0980
 1.2710	38.0840
 1.2720	38.0680
 1.2730	38.0460
 1.2740	38.0210
 1.2750	37.9950
 1.2760	37.9660
 1.2770	37.9340
 1.2780	37.9000
 1.2790	37.8630
 1.2800	37.8220
 1.2810	37.7790
 1.2820	37.7350
 1.2830	37.6870
 1.2840	37.6330
 1.2850	37.5760
 1.2860	37.5180
 1.2870	37.4550
 1.2880	37.3870
 1.2890	37.3180
 1.2900	37.2450
 1.2910	37.1650
 1.2920	37.0830
 1.2930	36.9980
 1.2940	36.9090
 1.2950	36.8170
 1.2960	36.7190
 1.2970	36.6150
 1.2980	36.5050
 1.2990	36.3900
 1.3000	36.2720
 1.3010	36.1510
 1.3020	36.0250
 1.3030	35.8940
 1.3040	35.7570
 1.3050	35.6140
 1.3060	35.4670
 1.3070	35.3150
 1.3080	35.1610
 1.3090	35.0010
 1.3100	34.8350
 1.3110	34.6660
 1.3120	34.4900
 1.3130	34.3110
 1.3140	34.1270
 1.3150	33.9390
 1.3160	33.7460
 1.3170	33.5500
 1.3180	33.3480
 1.3190	33.1410
 1.3200	32.9310
 1.3210	32.7140
 1.3220	32.4930
 1.3230	32.2690
 1.3240	32.0410
 1.3250	31.8140
 1.3260	31.5820
 1.3270	31.3480
 1.3280	31.1130
 1.3290	30.8750
 1.3300	30.6360
 1.3310	30.3970
 1.3320	30.1570
 1.3330	29.9180
 1.3340	29.6780
 1.3350	29.4400
 1.3360	29.2030
 1.3370	28.9660
 1.3380	28.7330
 1.3390	28.5010
 1.3400	28.2720
 1.3410	28.0490
 1.3420	27.8280
 1.3430	27.6110
 1.3440	27.3980
 1.3450	27.1880
 1.3460	26.9790
 1.3470	26.7760
 1.3480	26.5750
 1.3490	26.3780
 1.3500	26.1860
 1.3510	25.9950
 1.3520	25.8060
 1.3530	25.6220
 1.3540	25.4370
 1.3550	25.2530
 1.3560	25.0700
 1.3570	24.8860
 1.3580	24.7020
 1.3590	24.5160
 1.3600	24.3250
 1.3610	24.1300
 1.3620	23.9290
 1.3630	23.7240
 1.3640	23.5120
 1.3650	23.2920
 1.3660	23.0660
 1.3670	22.8290
 1.3680	22.5820
 1.3690	22.3220
 1.3700	22.0480
 1.3710	21.7610
 1.3720	21.4600
 1.3730	21.1440
 1.3740	20.8150
 1.3750	20.4680
 1.3760	20.1040
 1.3770	19.7230
 1.3780	19.3220
 1.3790	18.9060
 1.3800	18.4770
 1.3810	18.0320
 1.3820	17.5810
 1.3830	17.1200
 1.3840	16.6550
 1.3850	16.1810
 1.3860	15.7110
 1.3870	15.2330
 1.3880	14.7670
 1.3890	14.3030
 1.3900	13.8470
 1.3910	13.4050
 1.3920	12.9730
 1.3930	12.5520
 1.3940	12.1480
 1.3950	11.7540
 1.3960	11.3780
 1.3970	11.0210
 1.3980	10.6810
 1.3990	10.3650
 1.4000	10.0680
 1.4010	 9.7880
 1.4020	 9.5280
 1.4030	 9.2840
 1.4040	 9.0570
 1.4050	 8.8490
 1.4060	 8.6560
 1.4070	 8.4800
 1.4080	 8.3180
 1.4090	 8.1680
 1.4100	 8.0330
 1.4110	 7.9080
 1.4120	 7.7940
 1.4130	 7.6910
 1.4140	 7.5960
 1.4150	 7.5110
 1.4160	 7.4330
 1.4170	 7.3620
 1.4180	 7.2990
 1.4190	 7.2400
 1.4200	 7.1880
 1.4210	 7.1400
 1.4220	 7.0980
 1.4230	 7.0600
 1.4240	 7.0250
 1.4250	 6.9940
 1.4260	 6.9670
 1.4270	 6.9430
 1.4280	 6.9220
 1.4290	 6.9030
 1.4300	 6.8870
 1.4310	 6.8730
 1.4320	 6.8610
 1.4330	 6.8510
 1.4340	 6.8420
 1.4350	 6.8350
 1.4360	 6.8310
 1.4370	 6.8280
 1.4380	 6.8260
 1.4390	 6.8260
 1.4400	 6.8270
 1.4410	 6.8280
 1.4420	 6.8300
 1.4430	 6.8320
 1.4440	 6.8360
 1.4450	 6.8410
 1.4460	 6.8460
 1.4470	 6.8540
 1.4480	 6.8600
 1.4490	 6.8680
 1.4500	 6.8760
 1.4510	 6.8830
 1.4520	 6.8930
 1.4530	 6.9020
 1.4540	 6.9120
 1.4550	 6.9240
 1.4560	 6.9360
 1.4570	 6.9490
 1.4580	 6.9640
 1.4590	 6.9780
 1.4600	 6.9950
 1.4610	 7.0120
 1.4620	 7.0310
 1.4630	 7.0520
 1.4640	 7.0760
 1.4650	 7.1010
 1.4660	 7.1290
 1.4670	 7.1580
 1.4680	 7.1900
 1.4690	 7.2240
 1.4700	 7.2600
