Name: Quercus virginana
Type: vegetation
Class: Tree
Genus: Quercus
Species: virginana
Sample No.: JPL174
Owner: JPL
Wavelength Range: VSWIR
Origin: 34.12893; -118.11242; WGS84
Collection Date: 10/3/2016
Description: Samples were collected at the Huntington Garden in San Marino California as part of a JPL Subcontract studying HyTES imagery. Samples were taken to JPL and processed within 48 hours of collection. The same leaves were processed in the Nicolet and then measured using the ASD.
Measurement: Bidirectional reflectance
First Column: X
Second Column: Y
X Units: Wavelength (micrometer)
Y Units: Reflectance (percentage)
First X Value: 0.35
Last X Value: 2.5
Number of X Values: 2151
Additional Information: vegetation.tree.quercus.virginana.vswir.jpl174.jpl.asd.ancillary.txt

 0.3500	 8.6690
 0.3510	 8.7200
 0.3520	 8.8480
 0.3530	 8.8060
 0.3540	 8.5690
 0.3550	 8.7550
 0.3560	 8.7930
 0.3570	 8.6490
 0.3580	 8.5760
 0.3590	 8.6050
 0.3600	 8.6260
 0.3610	 8.5960
 0.3620	 8.5800
 0.3630	 8.5600
 0.3640	 8.5500
 0.3650	 8.5640
 0.3660	 8.5770
 0.3670	 8.5400
 0.3680	 8.4910
 0.3690	 8.5180
 0.3700	 8.4880
 0.3710	 8.4880
 0.3720	 8.5420
 0.3730	 8.5150
 0.3740	 8.4860
 0.3750	 8.4510
 0.3760	 8.4010
 0.3770	 8.4210
 0.3780	 8.4260
 0.3790	 8.3980
 0.3800	 8.3860
 0.3810	 8.4270
 0.3820	 8.4440
 0.3830	 8.4050
 0.3840	 8.4300
 0.3850	 8.4060
 0.3860	 8.3710
 0.3870	 8.3990
 0.3880	 8.4230
 0.3890	 8.4050
 0.3900	 8.3590
 0.3910	 8.3430
 0.3920	 8.3740
 0.3930	 8.4130
 0.3940	 8.4200
 0.3950	 8.3900
 0.3960	 8.3630
 0.3970	 8.3520
 0.3980	 8.3550
 0.3990	 8.3500
 0.4000	 8.3510
 0.4010	 8.3600
 0.4020	 8.3620
 0.4030	 8.3480
 0.4040	 8.3430
 0.4050	 8.3610
 0.4060	 8.3630
 0.4070	 8.3710
 0.4080	 8.3860
 0.4090	 8.3960
 0.4100	 8.4100
 0.4110	 8.4210
 0.4120	 8.4270
 0.4130	 8.4340
 0.4140	 8.4550
 0.4150	 8.4720
 0.4160	 8.4640
 0.4170	 8.4850
 0.4180	 8.4970
 0.4190	 8.4970
 0.4200	 8.5130
 0.4210	 8.5300
 0.4220	 8.5390
 0.4230	 8.5350
 0.4240	 8.5430
 0.4250	 8.5540
 0.4260	 8.5640
 0.4270	 8.5700
 0.4280	 8.5840
 0.4290	 8.5840
 0.4300	 8.5680
 0.4310	 8.5590
 0.4320	 8.5460
 0.4330	 8.5270
 0.4340	 8.5020
 0.4350	 8.4900
 0.4360	 8.4970
 0.4370	 8.5170
 0.4380	 8.5380
 0.4390	 8.5650
 0.4400	 8.5950
 0.4410	 8.6210
 0.4420	 8.6410
 0.4430	 8.6580
 0.4440	 8.6660
 0.4450	 8.6560
 0.4460	 8.6610
 0.4470	 8.6770
 0.4480	 8.6930
 0.4490	 8.6930
 0.4500	 8.7000
 0.4510	 8.7120
 0.4520	 8.7230
 0.4530	 8.7260
 0.4540	 8.7320
 0.4550	 8.7410
 0.4560	 8.7500
 0.4570	 8.7550
 0.4580	 8.7560
 0.4590	 8.7550
 0.4600	 8.7610
 0.4610	 8.7650
 0.4620	 8.7690
 0.4630	 8.7750
 0.4640	 8.7810
 0.4650	 8.7860
 0.4660	 8.7890
 0.4670	 8.7870
 0.4680	 8.7920
 0.4690	 8.7960
 0.4700	 8.7930
 0.4710	 8.7990
 0.4720	 8.7990
 0.4730	 8.7960
 0.4740	 8.8030
 0.4750	 8.8020
 0.4760	 8.8000
 0.4770	 8.8000
 0.4780	 8.8000
 0.4790	 8.8000
 0.4800	 8.8000
 0.4810	 8.7980
 0.4820	 8.7980
 0.4830	 8.7880
 0.4840	 8.7720
 0.4850	 8.7640
 0.4860	 8.7660
 0.4870	 8.7680
 0.4880	 8.7670
 0.4890	 8.7690
 0.4900	 8.7870
 0.4910	 8.8100
 0.4920	 8.8230
 0.4930	 8.8420
 0.4940	 8.8620
 0.4950	 8.8820
 0.4960	 8.9080
 0.4970	 8.9400
 0.4980	 8.9700
 0.4990	 8.9940
 0.5000	 9.0290
 0.5010	 9.0650
 0.5020	 9.0990
 0.5030	 9.1360
 0.5040	 9.1770
 0.5050	 9.2260
 0.5060	 9.2810
 0.5070	 9.3350
 0.5080	 9.3950
 0.5090	 9.4630
 0.5100	 9.5330
 0.5110	 9.6090
 0.5120	 9.6990
 0.5130	 9.8020
 0.5140	 9.9030
 0.5150	10.0150
 0.5160	10.1390
 0.5170	10.2700
 0.5180	10.4080
 0.5190	10.5460
 0.5200	10.6890
 0.5210	10.8510
 0.5220	11.0070
 0.5230	11.1610
 0.5240	11.3210
 0.5250	11.4790
 0.5260	11.6320
 0.5270	11.7760
 0.5280	11.9080
 0.5290	12.0400
 0.5300	12.1630
 0.5310	12.2730
 0.5320	12.3740
 0.5330	12.4670
 0.5340	12.5510
 0.5350	12.6270
 0.5360	12.6970
 0.5370	12.7550
 0.5380	12.7970
 0.5390	12.8220
 0.5400	12.8300
 0.5410	12.8230
 0.5420	12.8090
 0.5430	12.8050
 0.5440	12.8240
 0.5450	12.8670
 0.5460	12.9280
 0.5470	13.0040
 0.5480	13.0730
 0.5490	13.1200
 0.5500	13.1460
 0.5510	13.1690
 0.5520	13.1860
 0.5530	13.1920
 0.5540	13.1880
 0.5550	13.1710
 0.5560	13.1410
 0.5570	13.0960
 0.5580	13.0400
 0.5590	12.9750
 0.5600	12.9000
 0.5610	12.8180
 0.5620	12.7300
 0.5630	12.6370
 0.5640	12.5430
 0.5650	12.4500
 0.5660	12.3580
 0.5670	12.2640
 0.5680	12.1630
 0.5690	12.0600
 0.5700	11.9610
 0.5710	11.8670
 0.5720	11.7720
 0.5730	11.6810
 0.5740	11.5910
 0.5750	11.4930
 0.5760	11.3970
 0.5770	11.3140
 0.5780	11.2420
 0.5790	11.1690
 0.5800	11.1040
 0.5810	11.0480
 0.5820	10.9980
 0.5830	10.9450
 0.5840	10.9040
 0.5850	10.8760
 0.5860	10.8500
 0.5870	10.8200
 0.5880	10.7880
 0.5890	10.7570
 0.5900	10.7230
 0.5910	10.6820
 0.5920	10.6440
 0.5930	10.6230
 0.5940	10.6190
 0.5950	10.6200
 0.5960	10.6170
 0.5970	10.6110
 0.5980	10.6030
 0.5990	10.5920
 0.6000	10.5820
 0.6010	10.5720
 0.6020	10.5560
 0.6030	10.5320
 0.6040	10.5020
 0.6050	10.4690
 0.6060	10.4280
 0.6070	10.3780
 0.6080	10.3290
 0.6090	10.2590
 0.6100	10.1600
 0.6110	10.0440
 0.6120	 9.9960
 0.6130	 9.9900
 0.6140	 9.9910
 0.6150	 9.9650
 0.6160	 9.9360
 0.6170	 9.9070
 0.6180	 9.8740
 0.6190	 9.8410
 0.6200	 9.8080
 0.6210	 9.7800
 0.6220	 9.7630
 0.6230	 9.7500
 0.6240	 9.7380
 0.6250	 9.7260
 0.6260	 9.7200
 0.6270	 9.7140
 0.6280	 9.7090
 0.6290	 9.7050
 0.6300	 9.6970
 0.6310	 9.6900
 0.6320	 9.6870
 0.6330	 9.6890
 0.6340	 9.6890
 0.6350	 9.6800
 0.6360	 9.6630
 0.6370	 9.6450
 0.6380	 9.6220
 0.6390	 9.5950
 0.6400	 9.5680
 0.6410	 9.5350
 0.6420	 9.5020
 0.6430	 9.4710
 0.6440	 9.4400
 0.6450	 9.4070
 0.6460	 9.3740
 0.6470	 9.3420
 0.6480	 9.3170
 0.6490	 9.2920
 0.6500	 9.2670
 0.6510	 9.2480
 0.6520	 9.2330
 0.6530	 9.2190
 0.6540	 9.2030
 0.6550	 9.1860
 0.6560	 9.1680
 0.6570	 9.1480
 0.6580	 9.1260
 0.6590	 9.1010
 0.6600	 9.0760
 0.6610	 9.0520
 0.6620	 9.0270
 0.6630	 9.0060
 0.6640	 8.9900
 0.6650	 8.9780
 0.6660	 8.9670
 0.6670	 8.9560
 0.6680	 8.9500
 0.6690	 8.9530
 0.6700	 8.9560
 0.6710	 8.9620
 0.6720	 8.9720
 0.6730	 8.9870
 0.6740	 9.0030
 0.6750	 9.0200
 0.6760	 9.0400
 0.6770	 9.0640
 0.6780	 9.0930
 0.6790	 9.1240
 0.6800	 9.1580
 0.6810	 9.1930
 0.6820	 9.2340
 0.6830	 9.2810
 0.6840	 9.3320
 0.6850	 9.3860
 0.6860	 9.4470
 0.6870	 9.5170
 0.6880	 9.5990
 0.6890	 9.6960
 0.6900	 9.8140
 0.6910	 9.9590
 0.6920	10.1370
 0.6930	10.3530
 0.6940	10.6150
 0.6950	10.9260
 0.6960	11.2870
 0.6970	11.6980
 0.6980	12.1610
 0.6990	12.6750
 0.7000	13.2340
 0.7010	13.8340
 0.7020	14.4720
 0.7030	15.1410
 0.7040	15.8350
 0.7050	16.5480
 0.7060	17.2820
 0.7070	18.0330
 0.7080	18.7980
 0.7090	19.5810
 0.7100	20.3880
 0.7110	21.2110
 0.7120	22.0460
 0.7130	22.8930
 0.7140	23.7580
 0.7150	24.6380
 0.7160	25.5280
 0.7170	26.4300
 0.7180	27.3370
 0.7190	28.2500
 0.7200	29.1700
 0.7210	30.0890
 0.7220	31.0050
 0.7230	31.9140
 0.7240	32.8140
 0.7250	33.7040
 0.7260	34.5780
 0.7270	35.4340
 0.7280	36.2690
 0.7290	37.0790
 0.7300	37.8630
 0.7310	38.6230
 0.7320	39.3520
 0.7330	40.0540
 0.7340	40.7260
 0.7350	41.3650
 0.7360	41.9730
 0.7370	42.5530
 0.7380	43.1040
 0.7390	43.6180
 0.7400	44.1040
 0.7410	44.5620
 0.7420	44.9910
 0.7430	45.3930
 0.7440	45.7650
 0.7450	46.1070
 0.7460	46.4270
 0.7470	46.7240
 0.7480	46.9970
 0.7490	47.2450
 0.7500	47.4740
 0.7510	47.6880
 0.7520	47.8830
 0.7530	48.0560
 0.7540	48.2120
 0.7550	48.3580
 0.7560	48.4940
 0.7570	48.6170
 0.7580	48.7280
 0.7590	48.8290
 0.7600	48.9220
 0.7610	49.0090
 0.7620	49.0870
 0.7630	49.1560
 0.7640	49.2190
 0.7650	49.2790
 0.7660	49.3310
 0.7670	49.3750
 0.7680	49.4170
 0.7690	49.4590
 0.7700	49.4980
 0.7710	49.5330
 0.7720	49.5650
 0.7730	49.5930
 0.7740	49.6200
 0.7750	49.6480
 0.7760	49.6730
 0.7770	49.6960
 0.7780	49.7200
 0.7790	49.7430
 0.7800	49.7630
 0.7810	49.7830
 0.7820	49.8030
 0.7830	49.8200
 0.7840	49.8350
 0.7850	49.8500
 0.7860	49.8670
 0.7870	49.8820
 0.7880	49.8950
 0.7890	49.9080
 0.7900	49.9210
 0.7910	49.9300
 0.7920	49.9380
 0.7930	49.9470
 0.7940	49.9570
 0.7950	49.9650
 0.7960	49.9710
 0.7970	49.9740
 0.7980	49.9820
 0.7990	49.9850
 0.8000	49.9870
 0.8010	49.9910
 0.8020	49.9940
 0.8030	49.9970
 0.8040	49.9980
 0.8050	49.9960
 0.8060	49.9960
 0.8070	49.9950
 0.8080	49.9910
 0.8090	49.9890
 0.8100	49.9880
 0.8110	49.9850
 0.8120	49.9820
 0.8130	49.9820
 0.8140	49.9780
 0.8150	49.9700
 0.8160	49.9600
 0.8170	49.9580
 0.8180	49.9580
 0.8190	49.9560
 0.8200	49.9500
 0.8210	49.9460
 0.8220	49.9410
 0.8230	49.9350
 0.8240	49.9280
 0.8250	49.9250
 0.8260	49.9230
 0.8270	49.9200
 0.8280	49.9120
 0.8290	49.9060
 0.8300	49.9000
 0.8310	49.8910
 0.8320	49.8890
 0.8330	49.8880
 0.8340	49.8870
 0.8350	49.8840
 0.8360	49.8850
 0.8370	49.8860
 0.8380	49.8850
 0.8390	49.8860
 0.8400	49.8870
 0.8410	49.8880
 0.8420	49.8910
 0.8430	49.8930
 0.8440	49.8960
 0.8450	49.9000
 0.8460	49.9060
 0.8470	49.9140
 0.8480	49.9190
 0.8490	49.9240
 0.8500	49.9330
 0.8510	49.9350
 0.8520	49.9420
 0.8530	49.9510
 0.8540	49.9570
 0.8550	49.9690
 0.8560	49.9780
 0.8570	49.9840
 0.8580	49.9920
 0.8590	50.0030
 0.8600	50.0130
 0.8610	50.0220
 0.8620	50.0300
 0.8630	50.0440
 0.8640	50.0560
 0.8650	50.0620
 0.8660	50.0720
 0.8670	50.0870
 0.8680	50.1030
 0.8690	50.1150
 0.8700	50.1290
 0.8710	50.1390
 0.8720	50.1480
 0.8730	50.1630
 0.8740	50.1760
 0.8750	50.1880
 0.8760	50.2020
 0.8770	50.2200
 0.8780	50.2350
 0.8790	50.2470
 0.8800	50.2560
 0.8810	50.2680
 0.8820	50.2820
 0.8830	50.2960
 0.8840	50.3090
 0.8850	50.3250
 0.8860	50.3380
 0.8870	50.3470
 0.8880	50.3540
 0.8890	50.3640
 0.8900	50.3790
 0.8910	50.3930
 0.8920	50.3980
 0.8930	50.4140
 0.8940	50.4280
 0.8950	50.4370
 0.8960	50.4470
 0.8970	50.4570
 0.8980	50.4690
 0.8990	50.4800
 0.9000	50.4840
 0.9010	50.4950
 0.9020	50.5090
 0.9030	50.5210
 0.9040	50.5290
 0.9050	50.5360
 0.9060	50.5450
 0.9070	50.5550
 0.9080	50.5660
 0.9090	50.5760
 0.9100	50.5820
 0.9110	50.5840
 0.9120	50.5900
 0.9130	50.6000
 0.9140	50.6100
 0.9150	50.6160
 0.9160	50.6170
 0.9170	50.6200
 0.9180	50.6260
 0.9190	50.6300
 0.9200	50.6340
 0.9210	50.6360
 0.9220	50.6360
 0.9230	50.6350
 0.9240	50.6270
 0.9250	50.6270
 0.9260	50.6310
 0.9270	50.6190
 0.9280	50.6090
 0.9290	50.5980
 0.9300	50.5860
 0.9310	50.5750
 0.9320	50.5610
 0.9330	50.5500
 0.9340	50.5400
 0.9350	50.5240
 0.9360	50.5060
 0.9370	50.4820
 0.9380	50.4570
 0.9390	50.4470
 0.9400	50.4240
 0.9410	50.3940
 0.9420	50.3670
 0.9430	50.3400
 0.9440	50.3180
 0.9450	50.2910
 0.9460	50.2520
 0.9470	50.2080
 0.9480	50.1650
 0.9490	50.1220
 0.9500	50.0760
 0.9510	50.0260
 0.9520	49.9720
 0.9530	49.9140
 0.9540	49.8570
 0.9550	49.7980
 0.9560	49.7470
 0.9570	49.6940
 0.9580	49.6330
 0.9590	49.5880
 0.9600	49.5430
 0.9610	49.4990
 0.9620	49.4610
 0.9630	49.4290
 0.9640	49.4060
 0.9650	49.3820
 0.9660	49.3470
 0.9670	49.3170
 0.9680	49.3000
 0.9690	49.2820
 0.9700	49.2500
 0.9710	49.2300
 0.9720	49.2120
 0.9730	49.2000
 0.9740	49.2000
 0.9750	49.1810
 0.9760	49.1700
 0.9770	49.1650
 0.9780	49.1580
 0.9790	49.1540
 0.9800	49.1590
 0.9810	49.1670
 0.9820	49.1720
 0.9830	49.1740
 0.9840	49.1730
 0.9850	49.1740
 0.9860	49.1810
 0.9870	49.1920
 0.9880	49.2030
 0.9890	49.2110
 0.9900	49.2180
 0.9910	49.2220
 0.9920	49.2400
 0.9930	49.2690
 0.9940	49.2940
 0.9950	49.3000
 0.9960	49.3180
 0.9970	49.3410
 0.9980	49.3490
 0.9990	49.3750
 1.0000	49.3900
 1.0010	50.6800
 1.0020	50.7030
 1.0030	50.7210
 1.0040	50.7390
 1.0050	50.7590
 1.0060	50.7800
 1.0070	50.8060
 1.0080	50.8280
 1.0090	50.8460
 1.0100	50.8700
 1.0110	50.8980
 1.0120	50.9210
 1.0130	50.9450
 1.0140	50.9680
 1.0150	50.9860
 1.0160	51.0060
 1.0170	51.0330
 1.0180	51.0550
 1.0190	51.0780
 1.0200	51.1040
 1.0210	51.1240
 1.0220	51.1430
 1.0230	51.1630
 1.0240	51.1810
 1.0250	51.2030
 1.0260	51.2290
 1.0270	51.2530
 1.0280	51.2760
 1.0290	51.3000
 1.0300	51.3240
 1.0310	51.3450
 1.0320	51.3660
 1.0330	51.3860
 1.0340	51.4070
 1.0350	51.4310
 1.0360	51.4560
 1.0370	51.4800
 1.0380	51.5030
 1.0390	51.5240
 1.0400	51.5440
 1.0410	51.5630
 1.0420	51.5830
 1.0430	51.6030
 1.0440	51.6220
 1.0450	51.6420
 1.0460	51.6610
 1.0470	51.6780
 1.0480	51.6940
 1.0490	51.7130
 1.0500	51.7290
 1.0510	51.7440
 1.0520	51.7560
 1.0530	51.7680
 1.0540	51.7790
 1.0550	51.7890
 1.0560	51.7980
 1.0570	51.8060
 1.0580	51.8130
 1.0590	51.8200
 1.0600	51.8280
 1.0610	51.8340
 1.0620	51.8390
 1.0630	51.8450
 1.0640	51.8550
 1.0650	51.8600
 1.0660	51.8620
 1.0670	51.8650
 1.0680	51.8670
 1.0690	51.8670
 1.0700	51.8650
 1.0710	51.8620
 1.0720	51.8610
 1.0730	51.8560
 1.0740	51.8550
 1.0750	51.8620
 1.0760	51.8620
 1.0770	51.8580
 1.0780	51.8560
 1.0790	51.8520
 1.0800	51.8480
 1.0810	51.8460
 1.0820	51.8430
 1.0830	51.8400
 1.0840	51.8370
 1.0850	51.8350
 1.0860	51.8320
 1.0870	51.8290
 1.0880	51.8260
 1.0890	51.8210
 1.0900	51.8150
 1.0910	51.8090
 1.0920	51.8040
 1.0930	51.7960
 1.0940	51.7870
 1.0950	51.7800
 1.0960	51.7710
 1.0970	51.7630
 1.0980	51.7550
 1.0990	51.7480
 1.1000	51.7400
 1.1010	51.7340
 1.1020	51.7300
 1.1030	51.7280
 1.1040	51.7220
 1.1050	51.7160
 1.1060	51.7110
 1.1070	51.7070
 1.1080	51.7010
 1.1090	51.6950
 1.1100	51.6870
 1.1110	51.6760
 1.1120	51.6670
 1.1130	51.6590
 1.1140	51.6490
 1.1150	51.6400
 1.1160	51.6270
 1.1170	51.6110
 1.1180	51.5930
 1.1190	51.5740
 1.1200	51.5520
 1.1210	51.5290
 1.1220	51.5020
 1.1230	51.4710
 1.1240	51.4370
 1.1250	51.3980
 1.1260	51.3560
 1.1270	51.3070
 1.1280	51.2540
 1.1290	51.1970
 1.1300	51.1360
 1.1310	51.0660
 1.1320	50.9920
 1.1330	50.9100
 1.1340	50.8180
 1.1350	50.7220
 1.1360	50.6210
 1.1370	50.5120
 1.1380	50.3960
 1.1390	50.2750
 1.1400	50.1490
 1.1410	50.0210
 1.1420	49.8890
 1.1430	49.7550
 1.1440	49.6190
 1.1450	49.4790
 1.1460	49.3430
 1.1470	49.2050
 1.1480	49.0720
 1.1490	48.9380
 1.1500	48.8130
 1.1510	48.6910
 1.1520	48.5760
 1.1530	48.4670
 1.1540	48.3640
 1.1550	48.2660
 1.1560	48.1750
 1.1570	48.0920
 1.1580	48.0180
 1.1590	47.9510
 1.1600	47.8900
 1.1610	47.8350
 1.1620	47.7850
 1.1630	47.7400
 1.1640	47.6970
 1.1650	47.6590
 1.1660	47.6240
 1.1670	47.5940
 1.1680	47.5690
 1.1690	47.5440
 1.1700	47.5220
 1.1710	47.5000
 1.1720	47.4790
 1.1730	47.4570
 1.1740	47.4360
 1.1750	47.4180
 1.1760	47.3990
 1.1770	47.3780
 1.1780	47.3590
 1.1790	47.3400
 1.1800	47.3190
 1.1810	47.2980
 1.1820	47.2770
 1.1830	47.2550
 1.1840	47.2350
 1.1850	47.2150
 1.1860	47.1940
 1.1870	47.1740
 1.1880	47.1570
 1.1890	47.1410
 1.1900	47.1270
 1.1910	47.1160
 1.1920	47.1060
 1.1930	47.0960
 1.1940	47.0880
 1.1950	47.0820
 1.1960	47.0790
 1.1970	47.0780
 1.1980	47.0790
 1.1990	47.0830
 1.2000	47.0880
 1.2010	47.0920
 1.2020	47.0990
 1.2030	47.1070
 1.2040	47.1160
 1.2050	47.1290
 1.2060	47.1450
 1.2070	47.1630
 1.2080	47.1800
 1.2090	47.1980
 1.2100	47.2180
 1.2110	47.2410
 1.2120	47.2660
 1.2130	47.2920
 1.2140	47.3220
 1.2150	47.3500
 1.2160	47.3770
 1.2170	47.4060
 1.2180	47.4350
 1.2190	47.4660
 1.2200	47.4970
 1.2210	47.5270
 1.2220	47.5580
 1.2230	47.5900
 1.2240	47.6230
 1.2250	47.6540
 1.2260	47.6860
 1.2270	47.7170
 1.2280	47.7490
 1.2290	47.7800
 1.2300	47.8090
 1.2310	47.8390
 1.2320	47.8660
 1.2330	47.8930
 1.2340	47.9200
 1.2350	47.9490
 1.2360	47.9760
 1.2370	48.0020
 1.2380	48.0290
 1.2390	48.0540
 1.2400	48.0770
 1.2410	48.1010
 1.2420	48.1230
 1.2430	48.1420
 1.2440	48.1610
 1.2450	48.1810
 1.2460	48.2010
 1.2470	48.2210
 1.2480	48.2380
 1.2490	48.2550
 1.2500	48.2700
 1.2510	48.2860
 1.2520	48.3050
 1.2530	48.3200
 1.2540	48.3340
 1.2550	48.3470
 1.2560	48.3570
 1.2570	48.3690
 1.2580	48.3800
 1.2590	48.3890
 1.2600	48.4000
 1.2610	48.4080
 1.2620	48.4130
 1.2630	48.4160
 1.2640	48.4190
 1.2650	48.4200
 1.2660	48.4210
 1.2670	48.4250
 1.2680	48.4280
 1.2690	48.4300
 1.2700	48.4300
 1.2710	48.4300
 1.2720	48.4270
 1.2730	48.4230
 1.2740	48.4220
 1.2750	48.4170
 1.2760	48.4130
 1.2770	48.4090
 1.2780	48.4030
 1.2790	48.3960
 1.2800	48.3860
 1.2810	48.3750
 1.2820	48.3620
 1.2830	48.3470
 1.2840	48.3310
 1.2850	48.3100
 1.2860	48.2870
 1.2870	48.2620
 1.2880	48.2320
 1.2890	48.2010
 1.2900	48.1680
 1.2910	48.1320
 1.2920	48.0930
 1.2930	48.0510
 1.2940	48.0060
 1.2950	47.9580
 1.2960	47.9040
 1.2970	47.8500
 1.2980	47.7930
 1.2990	47.7310
 1.3000	47.6690
 1.3010	47.6020
 1.3020	47.5320
 1.3030	47.4600
 1.3040	47.3860
 1.3050	47.3090
 1.3060	47.2290
 1.3070	47.1480
 1.3080	47.0650
 1.3090	46.9800
 1.3100	46.8920
 1.3110	46.8040
 1.3120	46.7120
 1.3130	46.6160
 1.3140	46.5170
 1.3150	46.4170
 1.3160	46.3140
 1.3170	46.2070
 1.3180	46.1020
 1.3190	45.9930
 1.3200	45.8810
 1.3210	45.7670
 1.3220	45.6470
 1.3230	45.5260
 1.3240	45.4040
 1.3250	45.2810
 1.3260	45.1570
 1.3270	45.0280
 1.3280	44.8980
 1.3290	44.7650
 1.3300	44.6290
 1.3310	44.4950
 1.3320	44.3560
 1.3330	44.2150
 1.3340	44.0740
 1.3350	43.9310
 1.3360	43.7870
 1.3370	43.6430
 1.3380	43.4990
 1.3390	43.3540
 1.3400	43.2110
 1.3410	43.0690
 1.3420	42.9270
 1.3430	42.7870
 1.3440	42.6480
 1.3450	42.5110
 1.3460	42.3740
 1.3470	42.2400
 1.3480	42.1050
 1.3490	41.9730
 1.3500	41.8440
 1.3510	41.7170
 1.3520	41.5900
 1.3530	41.4640
 1.3540	41.3370
 1.3550	41.2100
 1.3560	41.0840
 1.3570	40.9570
 1.3580	40.8290
 1.3590	40.6970
 1.3600	40.5600
 1.3610	40.4210
 1.3620	40.2780
 1.3630	40.1310
 1.3640	39.9800
 1.3650	39.8200
 1.3660	39.6540
 1.3670	39.4780
 1.3680	39.2920
 1.3690	39.0960
 1.3700	38.8840
 1.3710	38.6620
 1.3720	38.4270
 1.3730	38.1720
 1.3740	37.9040
 1.3750	37.6160
 1.3760	37.3060
 1.3770	36.9740
 1.3780	36.6150
 1.3790	36.2330
 1.3800	35.8270
 1.3810	35.3930
 1.3820	34.9390
 1.3830	34.4640
 1.3840	33.9660
 1.3850	33.4470
 1.3860	32.9110
 1.3870	32.3500
 1.3880	31.7850
 1.3890	31.2050
 1.3900	30.6140
 1.3910	30.0220
 1.3920	29.4250
 1.3930	28.8230
 1.3940	28.2250
 1.3950	27.6240
 1.3960	27.0320
 1.3970	26.4490
 1.3980	25.8770
 1.3990	25.3270
 1.4000	24.7910
 1.4010	24.2690
 1.4020	23.7710
 1.4030	23.2870
 1.4040	22.8250
 1.4050	22.3870
 1.4060	21.9680
 1.4070	21.5760
 1.4080	21.2060
 1.4090	20.8550
 1.4100	20.5280
 1.4110	20.2190
 1.4120	19.9290
 1.4130	19.6600
 1.4140	19.4090
 1.4150	19.1780
 1.4160	18.9630
 1.4170	18.7620
 1.4180	18.5780
 1.4190	18.4060
 1.4200	18.2460
 1.4210	18.1000
 1.4220	17.9640
 1.4230	17.8390
 1.4240	17.7260
 1.4250	17.6200
 1.4260	17.5240
 1.4270	17.4340
 1.4280	17.3540
 1.4290	17.2790
 1.4300	17.2110
 1.4310	17.1500
 1.4320	17.0970
 1.4330	17.0470
 1.4340	17.0030
 1.4350	16.9640
 1.4360	16.9290
 1.4370	16.8980
 1.4380	16.8730
 1.4390	16.8520
 1.4400	16.8330
 1.4410	16.8180
 1.4420	16.8040
 1.4430	16.7950
 1.4440	16.7880
 1.4450	16.7830
 1.4460	16.7810
 1.4470	16.7810
 1.4480	16.7830
 1.4490	16.7870
 1.4500	16.7930
 1.4510	16.8000
 1.4520	16.8080
 1.4530	16.8170
 1.4540	16.8270
 1.4550	16.8390
 1.4560	16.8540
 1.4570	16.8720
 1.4580	16.8930
 1.4590	16.9160
 1.4600	16.9430
 1.4610	16.9720
 1.4620	17.0050
 1.4630	17.0420
 1.4640	17.0810
 1.4650	17.1250
 1.4660	17.1730
 1.4670	17.2270
 1.4680	17.2850
 1.4690	17.3450
 1.4700	17.4100
 1.4710	17.4790
 1.4720	17.5510
 1.4730	17.6270
 1.4740	17.7070
 1.4750	17.7900
 1.4760	17.8760
 1.4770	17.9640
