Name: Quercus douglasii 2
Type: vegetation
Class: Tree
Genus: Quercus
Species: douglasii
Sample No.: VH273
Owner: UCSB
Wavelength Range: TIR
Origin: 34.7157; -120.0601; WGS84
Collection Date: 11/2/2013
Description: Samples were collected as part of the HyspIRI Airborne Campaign. 48 individual plants were sampled in three times in 2013 - spring  summer  and fall. The name of the sample includes a 1  2  or 3 which references a different individual of the species. Samples were taken to JPL and processed within 48 hours of collection. The same leaves were processed in the Nicolet and then measured using the ASD.
Measurement: Hemispherical reflectance
First Column: X
Second Column: Y
X Units: Wavelength (micrometers)
Y Units: Reflectance (percentage)
First X Value: 2.501
Last X Value: 15.387
Number of X Values: 1737
Additional Information: vegetation.tree.quercus.douglasii.tir.vh273.ucsb.nicolet.ancillary.txt

 2.5010	11.2960
 2.5030	11.3210
 2.5040	11.3870
 2.5050	11.2910
 2.5060	11.1460
 2.5070	11.2750
 2.5090	11.4620
 2.5100	11.3650
 2.5110	11.1690
 2.5120	11.0840
 2.5140	11.1040
 2.5150	11.1580
 2.5160	11.2430
 2.5170	11.0940
 2.5180	11.0370
 2.5200	11.0050
 2.5210	11.1050
 2.5220	11.2010
 2.5230	11.0890
 2.5250	10.9960
 2.5260	11.2660
 2.5270	11.3300
 2.5280	11.0960
 2.5290	10.8610
 2.5310	10.9410
 2.5320	11.1620
 2.5330	11.3300
 2.5340	11.3630
 2.5360	11.1560
 2.5370	10.9380
 2.5380	10.9710
 2.5390	11.1990
 2.5410	11.2050
 2.5420	11.1260
 2.5430	11.1760
 2.5440	11.1230
 2.5460	11.0820
 2.5470	11.1160
 2.5480	11.0460
 2.5490	11.1540
 2.5510	11.1800
 2.5520	11.0250
 2.5530	11.1230
 2.5540	11.1930
 2.5560	11.1070
 2.5570	11.1350
 2.5580	11.1290
 2.5590	11.0750
 2.5610	11.1870
 2.5620	11.1660
 2.5630	11.1100
 2.5640	11.1540
 2.5660	11.2530
 2.5670	11.2660
 2.5680	11.3000
 2.5700	11.3270
 2.5710	11.3460
 2.5720	11.2470
 2.5730	11.0920
 2.5750	11.1920
 2.5760	11.2690
 2.5770	11.2600
 2.5790	11.3010
 2.5800	11.4890
 2.5810	11.3580
 2.5820	11.0430
 2.5840	10.9940
 2.5850	11.1900
 2.5860	11.2550
 2.5880	11.1210
 2.5890	11.0710
 2.5900	11.0750
 2.5910	11.2400
 2.5930	11.2390
 2.5940	11.0780
 2.5950	11.0880
 2.5970	11.1010
 2.5980	11.0280
 2.5990	10.9550
 2.6000	10.9630
 2.6020	10.9320
 2.6030	10.8470
 2.6040	10.8040
 2.6060	10.8830
 2.6070	10.9600
 2.6080	10.8560
 2.6100	10.7740
 2.6110	10.7770
 2.6120	10.7520
 2.6140	10.7310
 2.6150	10.6950
 2.6160	10.7740
 2.6180	10.8770
 2.6190	10.7530
 2.6200	10.5950
 2.6220	10.6660
 2.6230	10.7250
 2.6240	10.6170
 2.6260	10.6050
 2.6270	10.5500
 2.6280	10.6250
 2.6300	10.5990
 2.6310	10.4870
 2.6320	10.3820
 2.6340	10.3310
 2.6350	10.2860
 2.6360	10.3160
 2.6380	10.3450
 2.6390	10.3160
 2.6400	10.2710
 2.6420	10.1800
 2.6430	10.2140
 2.6440	10.1710
 2.6460	10.1100
 2.6470	10.1660
 2.6480	10.1340
 2.6500	10.1550
 2.6510	10.0460
 2.6520	 9.8590
 2.6540	 9.8430
 2.6550	 9.8480
 2.6560	 9.7930
 2.6580	 9.8790
 2.6590	 9.8380
 2.6610	 9.6920
 2.6620	 9.8450
 2.6630	 9.9700
 2.6650	 9.8940
 2.6660	 9.7650
 2.6670	 9.7300
 2.6690	 9.6520
 2.6700	 9.4450
 2.6720	 9.4350
 2.6730	 9.4600
 2.6740	 9.4690
 2.6760	 9.3140
 2.6770	 9.1540
 2.6780	 9.0850
 2.6800	 9.1050
 2.6810	 9.0890
 2.6830	 9.1400
 2.6840	 9.1930
 2.6850	 9.1670
 2.6870	 9.0890
 2.6880	 9.1680
 2.6900	 9.1150
 2.6910	 8.8000
 2.6920	 8.6120
 2.6940	 8.4450
 2.6950	 8.2000
 2.6970	 8.0420
 2.6980	 8.0320
 2.6990	 7.9960
 2.7010	 7.6260
 2.7020	 7.3650
 2.7040	 7.2640
 2.7050	 7.3500
 2.7060	 7.3340
 2.7080	 7.3250
 2.7090	 7.3460
 2.7110	 7.3590
 2.7120	 7.3190
 2.7130	 7.1360
 2.7150	 7.1230
 2.7160	 7.1310
 2.7180	 7.2380
 2.7190	 7.3480
 2.7210	 7.2890
 2.7220	 7.2020
 2.7230	 7.1560
 2.7250	 6.9030
 2.7260	 6.7420
 2.7280	 6.9160
 2.7290	 6.8500
 2.7310	 6.6320
 2.7320	 6.3900
 2.7330	 6.5160
 2.7350	 6.6010
 2.7360	 6.6100
 2.7380	 6.6210
 2.7390	 6.5720
 2.7410	 6.4680
 2.7420	 6.4150
 2.7440	 6.3950
 2.7450	 6.4960
 2.7470	 6.3870
 2.7480	 6.3660
 2.7490	 6.1940
 2.7510	 6.2390
 2.7520	 6.2770
 2.7540	 6.3010
 2.7550	 6.1740
 2.7570	 5.8000
 2.7580	 5.7140
 2.7600	 5.7720
 2.7610	 5.9090
 2.7630	 6.1050
 2.7640	 5.9880
 2.7660	 5.7790
 2.7670	 5.7790
 2.7680	 6.1040
 2.7700	 6.2920
 2.7710	 6.1430
 2.7730	 5.8410
 2.7740	 5.8580
 2.7760	 5.9310
 2.7770	 6.0230
 2.7790	 6.0590
 2.7800	 6.0630
 2.7820	 5.9150
 2.7830	 5.9240
 2.7850	 6.0590
 2.7860	 5.9810
 2.7880	 5.7630
 2.7890	 5.8410
 2.7910	 5.8630
 2.7920	 5.8310
 2.7940	 5.7830
 2.7950	 5.7950
 2.7970	 5.9110
 2.7980	 5.8870
 2.8000	 5.8040
 2.8010	 5.7250
 2.8030	 5.7770
 2.8040	 5.9240
 2.8060	 5.9810
 2.8070	 5.8170
 2.8090	 5.7110
 2.8110	 5.8220
 2.8120	 5.7360
 2.8140	 5.7950
 2.8150	 5.7370
 2.8170	 5.6360
 2.8180	 5.6260
 2.8200	 5.6570
 2.8210	 5.7770
 2.8230	 5.8930
 2.8240	 5.9110
 2.8260	 5.8450
 2.8270	 5.7690
 2.8290	 5.7820
 2.8300	 5.8530
 2.8320	 5.8830
 2.8340	 5.7000
 2.8350	 5.4810
 2.8370	 5.4470
 2.8380	 5.5130
 2.8400	 5.6200
 2.8410	 5.6400
 2.8430	 5.6040
 2.8440	 5.6400
 2.8460	 5.7590
 2.8480	 5.8670
 2.8490	 5.8220
 2.8510	 5.5770
 2.8520	 5.4900
 2.8540	 5.6980
 2.8550	 5.8800
 2.8570	 5.9010
 2.8590	 5.8450
 2.8600	 5.9470
 2.8620	 5.8100
 2.8630	 5.7360
 2.8650	 5.7370
 2.8660	 5.8650
 2.8680	 5.8460
 2.8700	 5.7250
 2.8710	 5.7350
 2.8730	 5.7870
 2.8740	 5.7320
 2.8760	 5.8050
 2.8780	 5.8940
 2.8790	 5.8820
 2.8810	 5.8640
 2.8820	 5.7120
 2.8840	 5.7450
 2.8860	 5.9010
 2.8870	 6.0370
 2.8890	 5.8650
 2.8900	 5.7140
 2.8920	 5.8100
 2.8940	 5.7340
 2.8950	 5.4380
 2.8970	 5.2520
 2.8980	 5.4130
 2.9000	 5.5130
 2.9020	 5.6640
 2.9030	 5.9360
 2.9050	 5.9890
 2.9070	 5.6250
 2.9080	 5.2070
 2.9100	 5.1600
 2.9120	 5.5760
 2.9130	 5.6140
 2.9150	 5.4260
 2.9160	 5.3940
 2.9180	 5.5990
 2.9200	 5.6490
 2.9210	 5.6190
 2.9230	 5.4300
 2.9250	 5.3710
 2.9260	 5.4930
 2.9280	 5.4240
 2.9300	 5.3200
 2.9310	 5.5380
 2.9330	 5.7420
 2.9350	 5.6350
 2.9360	 5.2680
 2.9380	 5.3340
 2.9400	 5.6200
 2.9410	 5.6740
 2.9430	 5.4770
 2.9450	 5.5240
 2.9460	 5.7460
 2.9480	 5.6440
 2.9500	 5.4870
 2.9510	 5.6940
 2.9530	 5.7940
 2.9550	 5.4580
 2.9560	 5.5110
 2.9580	 6.3630
 2.9600	 6.5320
 2.9610	 5.6590
 2.9630	 4.6670
 2.9650	 4.7290
 2.9660	 4.6450
 2.9680	 4.7550
 2.9700	 5.6300
 2.9720	 6.0210
 2.9730	 5.8660
 2.9750	 5.4450
 2.9770	 4.5940
 2.9780	 4.2430
 2.9800	 4.9250
 2.9820	 5.5680
 2.9840	 5.8240
 2.9850	 6.2050
 2.9870	 5.5690
 2.9890	 4.2500
 2.9900	 4.5220
 2.9920	 6.2640
 2.9940	 7.1240
 2.9960	 6.3710
 2.9970	 6.3440
 2.9990	 6.1290
 3.0010	 6.1570
 3.0030	 6.2770
 3.0040	 5.4740
 3.0060	 5.5410
 3.0080	 5.6480
 3.0100	 5.7490
 3.0110	 5.4350
 3.0130	 5.5160
 3.0150	 6.0930
 3.0170	 5.7140
 3.0180	 5.0300
 3.0200	 5.2560
 3.0220	 5.7650
 3.0240	 5.7710
 3.0250	 6.0180
 3.0270	 6.3480
 3.0290	 6.6640
 3.0310	 6.4050
 3.0320	 5.9090
 3.0340	 5.6480
 3.0360	 5.4130
 3.0380	 5.2800
 3.0400	 5.8190
 3.0410	 5.6440
 3.0430	 5.5180
 3.0450	 5.7550
 3.0470	 6.1520
 3.0480	 7.0140
 3.0500	 6.6600
 3.0520	 4.9480
 3.0540	 4.6250
 3.0560	 4.5010
 3.0570	 4.3630
 3.0590	 4.8210
 3.0610	 4.8620
 3.0630	 5.3930
 3.0650	 5.9660
 3.0660	 5.7900
 3.0680	 5.5110
 3.0700	 5.7540
 3.0720	 5.5990
 3.0740	 5.9390
 3.0760	 6.0360
 3.0770	 5.9690
 3.0790	 6.0280
 3.0810	 5.9910
 3.0830	 5.8950
 3.0850	 5.9010
 3.0870	 5.7870
 3.0880	 5.8520
 3.0900	 5.8110
 3.0920	 5.7560
 3.0940	 5.9070
 3.0960	 6.1330
 3.0980	 6.0140
 3.0990	 6.0060
 3.1010	 6.1340
 3.1030	 6.3620
 3.1050	 6.2400
 3.1070	 6.2200
 3.1090	 6.2320
 3.1110	 6.2900
 3.1120	 6.3260
 3.1140	 6.2140
 3.1160	 6.1800
 3.1180	 6.1990
 3.1200	 6.0940
 3.1220	 6.0770
 3.1240	 5.9300
 3.1260	 5.8840
 3.1270	 5.8360
 3.1290	 6.0090
 3.1310	 5.9890
 3.1330	 5.7350
 3.1350	 5.7930
 3.1370	 6.0260
 3.1390	 6.2120
 3.1410	 5.7180
 3.1430	 5.8250
 3.1450	 7.9800
 3.1460	 8.5280
 3.1480	 7.4640
 3.1500	 6.4260
 3.1520	 6.5470
 3.1540	 6.2670
 3.1560	 6.1750
 3.1580	 6.0770
 3.1600	 5.8020
 3.1620	 5.2800
 3.1640	 4.9920
 3.1660	 4.9800
 3.1680	 5.1900
 3.1700	 5.4400
 3.1710	 5.7050
 3.1730	 4.6120
 3.1750	 5.9380
 3.1770	 8.1040
 3.1790	 6.9160
 3.1810	 5.6590
 3.1830	 6.0280
 3.1850	 6.0730
 3.1870	 6.5560
 3.1890	 6.6810
 3.1910	 6.4790
 3.1930	 6.5760
 3.1950	 6.4900
 3.1970	 6.3670
 3.1990	 6.5210
 3.2010	 6.4770
 3.2030	 6.4670
 3.2050	 6.4640
 3.2070	 6.4940
 3.2090	 6.5850
 3.2110	 6.5630
 3.2130	 6.4160
 3.2150	 6.6330
 3.2170	 6.7850
 3.2190	 6.5500
 3.2210	 6.4260
 3.2230	 6.5410
 3.2250	 6.7310
 3.2270	 6.6820
 3.2290	 6.4740
 3.2310	 6.5260
 3.2330	 6.6700
 3.2350	 6.8570
 3.2370	 6.9520
 3.2390	 6.9740
 3.2410	 7.0500
 3.2430	 6.9600
 3.2450	 6.6240
 3.2470	 6.2920
 3.2490	 6.3650
 3.2510	 6.6500
 3.2530	 6.8330
 3.2550	 6.9120
 3.2570	 6.7770
 3.2590	 6.7620
 3.2610	 6.7730
 3.2630	 6.6530
 3.2650	 6.6020
 3.2670	 6.7990
 3.2690	 6.8750
 3.2720	 6.8270
 3.2740	 6.8350
 3.2760	 6.7450
 3.2780	 6.4950
 3.2800	 6.5960
 3.2820	 6.7630
 3.2840	 6.8690
 3.2860	 6.9840
 3.2880	 6.9780
 3.2900	 6.8970
 3.2920	 6.9600
 3.2940	 6.9280
 3.2960	 7.0220
 3.2990	 6.9480
 3.3010	 6.8650
 3.3030	 7.0230
 3.3050	 7.1070
 3.3070	 6.9200
 3.3090	 6.8250
 3.3110	 7.0470
 3.3130	 7.2850
 3.3150	 7.1590
 3.3180	 6.9880
 3.3200	 6.8900
 3.3220	 6.9460
 3.3240	 6.9130
 3.3260	 6.8150
 3.3280	 6.6930
 3.3300	 6.7050
 3.3330	 6.7070
 3.3350	 6.6630
 3.3370	 6.6010
 3.3390	 6.5700
 3.3410	 6.6250
 3.3430	 6.7510
 3.3450	 6.7970
 3.3480	 6.8480
 3.3500	 6.7870
 3.3520	 6.7480
 3.3540	 6.5950
 3.3560	 6.5330
 3.3580	 6.5960
 3.3610	 6.5030
 3.3630	 6.4470
 3.3650	 6.5480
 3.3670	 6.5450
 3.3690	 6.3680
 3.3720	 6.3400
 3.3740	 6.4230
 3.3760	 6.4520
 3.3780	 6.4350
 3.3800	 6.3760
 3.3830	 6.3990
 3.3850	 6.4240
 3.3870	 6.3580
 3.3890	 6.2470
 3.3910	 6.3450
 3.3940	 6.3730
 3.3960	 6.3610
 3.3980	 6.2560
 3.4000	 6.2980
 3.4020	 6.4650
 3.4050	 6.4400
 3.4070	 6.3300
 3.4090	 6.3960
 3.4110	 6.5420
 3.4140	 6.7620
 3.4160	 6.8900
 3.4180	 7.1750
 3.4200	 7.5450
 3.4230	 7.8470
 3.4250	 8.1880
 3.4270	 8.4560
 3.4290	 8.5440
 3.4320	 8.4090
 3.4340	 8.1780
 3.4360	 7.9580
 3.4390	 7.7670
 3.4410	 7.5960
 3.4430	 7.5740
 3.4450	 7.6950
 3.4480	 7.7370
 3.4500	 7.6450
 3.4520	 7.3730
 3.4550	 7.3050
 3.4570	 7.3640
 3.4590	 7.2880
 3.4620	 7.2520
 3.4640	 7.3000
 3.4660	 7.2160
 3.4680	 7.1620
 3.4710	 7.1530
 3.4730	 7.1450
 3.4750	 7.1670
 3.4780	 7.2360
 3.4800	 7.1900
 3.4820	 7.0990
 3.4850	 7.0850
 3.4870	 7.2120
 3.4890	 7.0880
 3.4920	 7.0010
 3.4940	 7.0810
 3.4970	 7.0960
 3.4990	 7.0500
 3.5010	 7.1370
 3.5040	 7.3570
 3.5060	 7.7150
 3.5080	 8.3360
 3.5110	 8.6250
 3.5130	 8.5910
 3.5160	 8.3190
 3.5180	 8.0980
 3.5200	 8.0790
 3.5230	 7.9700
 3.5250	 7.9180
 3.5270	 7.9480
 3.5300	 8.0030
 3.5320	 7.9750
 3.5350	 8.0110
 3.5370	 8.0310
 3.5400	 7.9150
 3.5420	 7.8110
 3.5440	 7.7860
 3.5470	 7.8890
 3.5490	 7.9110
 3.5520	 7.9360
 3.5540	 7.9020
 3.5570	 7.8570
 3.5590	 7.8730
 3.5610	 7.7540
 3.5640	 7.8290
 3.5660	 7.8790
 3.5690	 7.9130
 3.5710	 8.0480
 3.5740	 8.0580
 3.5760	 8.0010
 3.5790	 8.0130
 3.5810	 7.9930
 3.5840	 7.9630
 3.5860	 7.9710
 3.5890	 7.8860
 3.5910	 7.8460
 3.5930	 7.8840
 3.5960	 7.9110
 3.5980	 7.9280
 3.6010	 7.9900
 3.6030	 8.0400
 3.6060	 8.0040
 3.6080	 8.0030
 3.6110	 8.0570
 3.6140	 8.0570
 3.6160	 7.9980
 3.6190	 7.8700
 3.6210	 7.7820
 3.6240	 7.7820
 3.6260	 7.8280
 3.6290	 7.8430
 3.6310	 7.8450
 3.6340	 7.8730
 3.6360	 7.8360
 3.6390	 7.9190
 3.6410	 7.9620
 3.6440	 7.8670
 3.6470	 7.8460
 3.6490	 7.9580
 3.6520	 8.0200
 3.6540	 7.9510
 3.6570	 7.8980
 3.6590	 7.8850
 3.6620	 7.8810
 3.6650	 7.8840
 3.6670	 7.9460
 3.6700	 8.0550
 3.6720	 7.9810
 3.6750	 7.9890
 3.6780	 8.0060
 3.6800	 7.9830
 3.6830	 7.9970
 3.6850	 7.9480
 3.6880	 7.9280
 3.6910	 7.9470
 3.6930	 8.0140
 3.6960	 8.0840
 3.6990	 8.0780
 3.7010	 8.0940
 3.7040	 8.0190
 3.7060	 8.0250
 3.7090	 8.0260
 3.7120	 7.9570
 3.7140	 7.9490
 3.7170	 7.9780
 3.7200	 7.9870
 3.7220	 7.9920
 3.7250	 8.0320
 3.7280	 8.0570
 3.7300	 7.9880
 3.7330	 7.9800
 3.7360	 8.0400
 3.7390	 8.0790
 3.7410	 8.0080
 3.7440	 7.8580
 3.7470	 7.9600
 3.7490	 8.1740
 3.7520	 8.2360
 3.7550	 8.1470
 3.7580	 8.0030
 3.7600	 7.9990
 3.7630	 8.1970
 3.7660	 8.3200
 3.7680	 8.1330
 3.7710	 8.0890
 3.7740	 8.0630
 3.7770	 8.0480
 3.7790	 8.1650
 3.7820	 8.2020
 3.7850	 8.2010
 3.7880	 8.1400
 3.7900	 8.1980
 3.7930	 8.2970
 3.7960	 8.2750
 3.7990	 8.2420
 3.8020	 8.1910
 3.8040	 8.1240
 3.8070	 7.9960
 3.8100	 7.9530
 3.8130	 8.0140
 3.8160	 8.0610
 3.8180	 8.0950
 3.8210	 8.2030
 3.8240	 8.1460
 3.8270	 8.0210
 3.8300	 8.0420
 3.8330	 8.1610
 3.8350	 8.1620
 3.8380	 8.2020
 3.8410	 8.2710
 3.8440	 8.2310
 3.8470	 8.1780
 3.8500	 8.2720
 3.8520	 8.3170
 3.8550	 8.2390
 3.8580	 8.1880
 3.8610	 8.2170
 3.8640	 8.1630
 3.8670	 8.1350
 3.8700	 8.2010
 3.8730	 8.2450
 3.8750	 8.2770
 3.8780	 8.2500
 3.8810	 8.1480
 3.8840	 8.1020
 3.8870	 8.1180
 3.8900	 8.1890
 3.8930	 8.2260
 3.8960	 8.1970
 3.8990	 8.3040
 3.9020	 8.2690
 3.9050	 8.2480
 3.9080	 8.3060
 3.9110	 8.3040
 3.9140	 8.2530
 3.9160	 8.1810
 3.9190	 8.1860
 3.9220	 8.2680
 3.9250	 8.3180
 3.9280	 8.3090
 3.9310	 8.2290
 3.9340	 8.1590
 3.9370	 8.1400
 3.9400	 8.1820
 3.9430	 8.1920
 3.9460	 8.2300
 3.9490	 8.2520
 3.9520	 8.2600
 3.9550	 8.2080
 3.9580	 8.1770
 3.9610	 8.1280
 3.9640	 8.1330
 3.9670	 8.2170
 3.9700	 8.2180
 3.9730	 8.2690
 3.9770	 8.3560
 3.9800	 8.3170
 3.9830	 8.2320
 3.9860	 8.2170
 3.9890	 8.2200
 3.9920	 8.1630
 3.9950	 8.1630
 3.9980	 8.2200
 4.0010	 8.2970
 4.0040	 8.3010
 4.0070	 8.2470
 4.0100	 8.2590
 4.0130	 8.3450
 4.0170	 8.3570
 4.0200	 8.3530
 4.0230	 8.3690
 4.0260	 8.3040
 4.0290	 8.1780
 4.0320	 8.1300
 4.0350	 8.1890
 4.0380	 8.2860
 4.0420	 8.2540
 4.0450	 8.1850
 4.0480	 8.1370
 4.0510	 8.1180
 4.0540	 8.2240
 4.0570	 8.2960
 4.0610	 8.3040
 4.0640	 8.2770
 4.0670	 8.1890
 4.0700	 8.2680
 4.0730	 8.3040
 4.0770	 8.3420
 4.0800	 8.3830
 4.0830	 8.2980
 4.0860	 8.1680
 4.0890	 8.2240
 4.0930	 8.2180
 4.0960	 8.2010
 4.0990	 8.0900
 4.1020	 8.0580
 4.1060	 8.1380
 4.1090	 8.1710
 4.1120	 8.1690
 4.1150	 8.2440
 4.1190	 8.2720
 4.1220	 8.2790
 4.1250	 8.2670
 4.1280	 8.2470
 4.1320	 8.2310
 4.1350	 8.2040
 4.1380	 8.1730
 4.1420	 8.3000
 4.1450	 8.3410
 4.1480	 8.3090
 4.1520	 8.2800
 4.1550	 8.2630
 4.1580	 8.1940
 4.1620	 8.2140
 4.1650	 8.1920
 4.1680	 8.0700
 4.1720	 8.0690
 4.1750	 8.1670
 4.1780	 8.2540
 4.1820	 8.2920
 4.1850	 8.2740
 4.1890	 8.2100
 4.1920	 8.1480
 4.1950	 8.2030
 4.1990	 8.4020
 4.2020	 8.6010
 4.2060	 8.6400
 4.2090	 8.7210
 4.2120	 8.8790
 4.2160	 9.0480
 4.2190	 8.9370
 4.2230	 9.1100
 4.2260	 9.3090
 4.2300	 9.2980
 4.2330	 9.1870
 4.2360	 9.2800
 4.2400	 9.3560
 4.2430	 9.3490
 4.2470	 9.3450
 4.2500	 9.0600
 4.2540	 8.7910
 4.2570	 8.5510
 4.2610	 8.5990
 4.2640	 8.8330
 4.2680	 9.0300
 4.2710	 9.1550
 4.2750	 9.1060
 4.2780	 9.0070
 4.2820	 8.8800
 4.2850	 8.8040
 4.2890	 8.8050
 4.2930	 8.9750
 4.2960	 8.8100
 4.3000	 8.5570
 4.3030	 8.3840
 4.3070	 8.5670
 4.3100	 8.7050
 4.3140	 8.5540
 4.3180	 8.4530
 4.3210	 8.4440
 4.3250	 8.4780
 4.3280	 8.4860
 4.3320	 8.2680
 4.3360	 8.1520
 4.3390	 8.2500
 4.3430	 8.3230
 4.3470	 8.1690
 4.3500	 8.0900
 4.3540	 8.1010
 4.3570	 8.1210
 4.3610	 8.1110
 4.3650	 8.1440
 4.3680	 8.1610
 4.3720	 8.1040
 4.3760	 8.0590
 4.3800	 8.0730
 4.3830	 8.0770
 4.3870	 8.1020
 4.3910	 8.0880
 4.3940	 8.0340
 4.3980	 7.9520
 4.4020	 7.9950
 4.4060	 8.0010
 4.4090	 7.9880
 4.4130	 8.0130
 4.4170	 7.9850
 4.4210	 7.9620
 4.4240	 7.9690
 4.4280	 7.9170
 4.4320	 7.9010
 4.4360	 7.8560
 4.4400	 7.8600
 4.4430	 7.8270
 4.4470	 7.8930
 4.4510	 7.9620
 4.4550	 8.0050
 4.4590	 7.9110
 4.4620	 7.8710
 4.4660	 7.8590
 4.4700	 7.8530
 4.4740	 7.8070
 4.4780	 7.8640
 4.4820	 7.8780
 4.4860	 7.8240
 4.4900	 7.7600
 4.4930	 7.7630
 4.4970	 7.7020
 4.5010	 7.6860
 4.5050	 7.7360
 4.5090	 7.7970
 4.5130	 7.8020
 4.5170	 7.7340
 4.5210	 7.6050
 4.5250	 7.7080
 4.5290	 7.8060
 4.5330	 7.8370
 4.5370	 7.7870
 4.5410	 7.7540
 4.5450	 7.7540
 4.5490	 7.8100
 4.5530	 7.8350
 4.5570	 7.8500
 4.5610	 7.7630
 4.5650	 7.6510
 4.5690	 7.5730
 4.5730	 7.6400
 4.5770	 7.6640
 4.5810	 7.7190
 4.5850	 7.7060
 4.5890	 7.6770
 4.5930	 7.6520
 4.5970	 7.6920
 4.6010	 7.6880
 4.6050	 7.5520
 4.6090	 7.3190
 4.6130	 7.3480
 4.6170	 7.5190
 4.6220	 7.6430
 4.6260	 7.6040
 4.6300	 7.6580
 4.6340	 7.6030
 4.6380	 7.5100
 4.6420	 7.4850
 4.6460	 7.5650
 4.6510	 7.5370
 4.6550	 7.5690
 4.6590	 7.5840
 4.6630	 7.5820
 4.6670	 7.5890
 4.6720	 7.5800
 4.6760	 7.5060
 4.6800	 7.5610
 4.6840	 7.5090
 4.6880	 7.4990
 4.6930	 7.5010
 4.6970	 7.4870
 4.7010	 7.4430
 4.7050	 7.4770
 4.7100	 7.4140
 4.7140	 7.4000
 4.7180	 7.5310
 4.7230	 7.6230
 4.7270	 7.5190
 4.7310	 7.5170
 4.7360	 7.5760
 4.7400	 7.5640
 4.7440	 7.4810
 4.7490	 7.4820
 4.7530	 7.5060
 4.7570	 7.5070
 4.7620	 7.4350
 4.7660	 7.4270
 4.7700	 7.4430
 4.7750	 7.5010
 4.7790	 7.4870
 4.7840	 7.4290
 4.7880	 7.3860
 4.7920	 7.2700
 4.7970	 7.2180
 4.8010	 7.2100
 4.8060	 7.2380
 4.8100	 7.4280
 4.8150	 7.5400
 4.8190	 7.5380
 4.8240	 7.4100
 4.8280	 7.3390
 4.8330	 7.3020
 4.8370	 7.4020
 4.8420	 7.4470
 4.8460	 7.4790
 4.8510	 7.5260
 4.8550	 7.5390
 4.8600	 7.4770
 4.8640	 7.4910
 4.8690	 7.5290
 4.8730	 7.5250
 4.8780	 7.3800
 4.8830	 7.2490
 4.8870	 7.1910
 4.8920	 7.2310
 4.8960	 7.2290
 4.9010	 7.2430
 4.9060	 7.2370
 4.9100	 7.2610
 4.9150	 7.3000
 4.9200	 7.3720
 4.9240	 7.3120
 4.9290	 7.2270
 4.9340	 7.1980
 4.9380	 7.3080
 4.9430	 7.2930
 4.9480	 7.2950
 4.9530	 7.2720
 4.9570	 7.2950
 4.9620	 7.3530
 4.9670	 7.3680
 4.9720	 7.3090
 4.9760	 7.3130
 4.9810	 7.2390
 4.9860	 7.2400
 4.9910	 7.1820
 4.9960	 7.1580
 5.0000	 7.1730
 5.0050	 7.3060
 5.0100	 7.2290
 5.0150	 7.1410
 5.0200	 7.1020
 5.0250	 7.1670
 5.0290	 7.1810
 5.0340	 7.1610
 5.0390	 7.1240
 5.0440	 7.1800
 5.0490	 7.2270
 5.0540	 7.1980
 5.0590	 7.1420
 5.0640	 7.1630
 5.0690	 7.0710
 5.0740	 7.1510
 5.0790	 7.2000
 5.0840	 7.1720
 5.0890	 7.1180
 5.0940	 7.1450
 5.0990	 7.1380
 5.1040	 7.1230
 5.1090	 7.1030
 5.1140	 7.1640
 5.1190	 7.0810
 5.1240	 7.1010
 5.1290	 7.1640
 5.1340	 7.1380
 5.1390	 7.0110
 5.1440	 7.1470
 5.1490	 7.2270
 5.1540	 7.2110
 5.1600	 7.1470
 5.1650	 7.1100
 5.1700	 7.0520
 5.1750	 7.1210
 5.1800	 7.1430
 5.1850	 7.1170
 5.1910	 7.0760
 5.1960	 7.1160
 5.2010	 7.0240
 5.2060	 6.9860
 5.2110	 6.9570
 5.2170	 6.9420
 5.2220	 6.9120
 5.2270	 6.9640
 5.2320	 6.9560
 5.2380	 7.0010
 5.2430	 6.9010
 5.2480	 6.8310
 5.2540	 6.7410
 5.2590	 6.7930
 5.2640	 6.8130
 5.2700	 6.8350
 5.2750	 6.7460
 5.2800	 6.6650
 5.2860	 6.6070
 5.2910	 6.6760
 5.2970	 6.6820
 5.3020	 6.7090
 5.3070	 6.6710
 5.3130	 6.7170
 5.3180	 6.6350
 5.3240	 6.6600
 5.3290	 6.6370
 5.3350	 6.6540
 5.3400	 6.6500
 5.3460	 6.6190
 5.3510	 6.4820
 5.3570	 6.4650
 5.3620	 6.4690
 5.3680	 6.6660
 5.3730	 6.6660
 5.3790	 6.6150
 5.3850	 6.5900
 5.3900	 6.7060
 5.3960	 6.7050
 5.4010	 6.6590
 5.4070	 6.5640
 5.4130	 6.4950
 5.4180	 6.4830
 5.4240	 6.5460
 5.4300	 6.6270
 5.4350	 6.7440
 5.4410	 6.6910
