Name: Acer pensylvanicum
Type: Vegetation
Class: Tree
Genus: Acer
Species: pensylvanicum
Sample No.: ACPE-1-67
Owner: UCSB
Wavelength Range: TIR
Origin: USA; Massachusetts; Harvard Forest
Collection Date: 7/8/2013
Description: Samples were collected as part of NSF Macrosystem Biology proposal titled: Collaborative Research: Thermal controls on ecosystem metabolism and function: scaling from leaves to canopies to regions. Samples were collected and overnighted to JPL facilities for processing. The same leaves were processed in the Nicolet and then measured using the ASD.
Measurement: Hemispherical reflectance
First Column: X
Second Column: Y
X Units: Wavelength (micrometers)
Y Units: Reflectance (percentage)
First X Value: 2.501
Last X Value: 15.387
Number of X Values: 1737
Additional Information: vegetation.tree.acer.pensylvanicum.tir.acpe-1-67.ucsb.nicolet.ancillary.txt

 2.5010	14.4770
 2.5030	14.3110
 2.5040	14.4960
 2.5050	14.1780
 2.5060	14.0260
 2.5070	14.1230
 2.5090	13.9780
 2.5100	14.0790
 2.5110	14.2800
 2.5120	14.0820
 2.5140	13.8690
 2.5150	13.6820
 2.5160	13.3840
 2.5170	13.4280
 2.5180	13.8540
 2.5200	13.8630
 2.5210	13.7950
 2.5220	13.8060
 2.5230	13.7410
 2.5250	13.6650
 2.5260	13.6850
 2.5270	13.6630
 2.5280	13.8110
 2.5290	13.7860
 2.5310	13.7720
 2.5320	13.6490
 2.5330	13.4410
 2.5340	13.3830
 2.5360	13.3180
 2.5370	13.2210
 2.5380	13.3230
 2.5390	13.5180
 2.5410	13.6590
 2.5420	13.6290
 2.5430	13.6200
 2.5440	13.5810
 2.5460	13.7270
 2.5470	13.8090
 2.5480	13.6180
 2.5490	13.3610
 2.5510	13.3390
 2.5520	13.1600
 2.5530	13.4160
 2.5540	13.6550
 2.5560	13.6550
 2.5570	13.8000
 2.5580	13.7690
 2.5590	13.5690
 2.5610	13.5020
 2.5620	13.3530
 2.5630	13.4420
 2.5640	13.4410
 2.5660	13.4680
 2.5670	13.3880
 2.5680	13.4560
 2.5700	13.5290
 2.5710	13.6310
 2.5720	13.4500
 2.5730	13.3910
 2.5750	13.4750
 2.5760	13.5910
 2.5770	13.3290
 2.5790	13.3690
 2.5800	13.3710
 2.5810	13.2850
 2.5820	13.3060
 2.5840	13.3730
 2.5850	13.4030
 2.5860	13.3310
 2.5880	13.0970
 2.5890	13.1090
 2.5900	13.1250
 2.5910	13.1750
 2.5930	13.0940
 2.5940	13.1660
 2.5950	12.9530
 2.5970	12.7570
 2.5980	12.5660
 2.5990	12.6420
 2.6000	12.6020
 2.6020	12.5730
 2.6030	12.5630
 2.6040	12.6070
 2.6060	12.4270
 2.6070	12.3410
 2.6080	12.2310
 2.6100	12.0280
 2.6110	11.8330
 2.6120	11.8660
 2.6140	11.9380
 2.6150	11.8600
 2.6160	11.6110
 2.6180	11.5020
 2.6190	11.5630
 2.6200	11.5980
 2.6220	11.3350
 2.6230	11.1500
 2.6240	10.9170
 2.6260	10.8240
 2.6270	10.7620
 2.6280	10.6610
 2.6300	10.5800
 2.6310	10.4240
 2.6320	10.2060
 2.6340	10.1810
 2.6350	10.2460
 2.6360	10.1850
 2.6380	 9.7340
 2.6390	 9.6690
 2.6400	 9.7760
 2.6420	 9.7170
 2.6430	 9.4590
 2.6440	 9.3290
 2.6460	 9.1260
 2.6470	 8.9990
 2.6480	 9.1090
 2.6500	 9.1880
 2.6510	 8.8660
 2.6520	 8.6820
 2.6540	 8.4840
 2.6550	 8.1740
 2.6560	 7.9390
 2.6580	 8.0530
 2.6590	 7.8840
 2.6610	 7.8090
 2.6620	 7.8090
 2.6630	 7.7890
 2.6650	 7.6480
 2.6660	 7.7720
 2.6670	 7.5760
 2.6690	 7.3130
 2.6700	 7.2580
 2.6720	 7.2480
 2.6730	 7.0660
 2.6740	 6.8950
 2.6760	 6.7920
 2.6770	 6.7600
 2.6780	 6.5210
 2.6800	 6.2690
 2.6810	 6.2310
 2.6830	 6.4900
 2.6840	 6.3150
 2.6850	 6.0810
 2.6870	 6.0320
 2.6880	 6.2020
 2.6900	 6.2260
 2.6910	 6.0770
 2.6920	 5.8090
 2.6940	 5.8400
 2.6950	 5.9800
 2.6970	 6.0020
 2.6980	 5.7790
 2.6990	 5.8460
 2.7010	 5.8100
 2.7020	 5.6690
 2.7040	 5.6700
 2.7050	 5.5720
 2.7060	 5.4620
 2.7080	 5.5830
 2.7090	 5.4020
 2.7110	 5.4020
 2.7120	 5.4200
 2.7130	 5.6010
 2.7150	 5.6770
 2.7160	 5.4500
 2.7180	 5.3120
 2.7190	 5.4710
 2.7210	 5.4590
 2.7220	 5.5950
 2.7230	 5.5980
 2.7250	 5.6160
 2.7260	 5.4050
 2.7280	 5.5420
 2.7290	 5.8390
 2.7310	 5.5270
 2.7320	 5.0230
 2.7330	 5.0270
 2.7350	 5.2750
 2.7360	 5.4890
 2.7380	 5.5390
 2.7390	 5.9590
 2.7410	 5.8940
 2.7420	 5.6810
 2.7440	 5.7560
 2.7450	 6.0570
 2.7470	 5.8610
 2.7480	 5.7600
 2.7490	 5.6870
 2.7510	 5.8830
 2.7520	 5.2930
 2.7540	 4.2580
 2.7550	 4.0560
 2.7570	 5.1330
 2.7580	 5.6430
 2.7600	 5.4510
 2.7610	 5.3580
 2.7630	 5.3730
 2.7640	 5.6880
 2.7660	 5.6570
 2.7670	 5.6470
 2.7680	 5.7600
 2.7700	 5.7530
 2.7710	 5.6750
 2.7730	 5.5590
 2.7740	 5.5000
 2.7760	 5.2600
 2.7770	 5.3100
 2.7790	 4.8610
 2.7800	 4.9670
 2.7820	 5.3780
 2.7830	 5.6480
 2.7850	 5.4470
 2.7860	 5.4620
 2.7880	 5.5410
 2.7890	 5.7500
 2.7910	 5.6360
 2.7920	 5.6160
 2.7940	 5.6390
 2.7950	 5.6580
 2.7970	 5.7110
 2.7980	 5.6740
 2.8000	 5.3480
 2.8010	 5.1060
 2.8030	 5.0130
 2.8040	 5.3810
 2.8060	 5.5570
 2.8070	 5.5130
 2.8090	 5.4040
 2.8110	 5.5280
 2.8120	 5.6480
 2.8140	 5.6240
 2.8150	 5.3170
 2.8170	 5.5130
 2.8180	 5.6930
 2.8200	 5.4670
 2.8210	 5.2970
 2.8230	 5.5190
 2.8240	 5.6140
 2.8260	 5.6840
 2.8270	 5.4550
 2.8290	 5.2290
 2.8300	 5.3220
 2.8320	 5.5730
 2.8340	 5.4080
 2.8350	 5.3040
 2.8370	 5.6130
 2.8380	 5.7570
 2.8400	 5.4990
 2.8410	 5.4330
 2.8430	 5.5430
 2.8440	 5.4960
 2.8460	 5.2220
 2.8480	 5.3080
 2.8490	 5.0810
 2.8510	 5.1570
 2.8520	 5.2680
 2.8540	 5.2670
 2.8550	 5.1290
 2.8570	 5.2830
 2.8590	 5.4380
 2.8600	 5.5390
 2.8620	 5.4940
 2.8630	 5.4020
 2.8650	 5.3610
 2.8660	 5.6700
 2.8680	 5.7280
 2.8700	 5.6620
 2.8710	 5.4670
 2.8730	 5.0070
 2.8740	 4.7860
 2.8760	 5.0760
 2.8780	 5.1150
 2.8790	 5.1360
 2.8810	 4.4770
 2.8820	 4.7820
 2.8840	 5.1360
 2.8860	 4.7050
 2.8870	 4.4860
 2.8890	 4.8870
 2.8900	 4.9630
 2.8920	 4.9420
 2.8940	 4.6430
 2.8950	 4.6500
 2.8970	 5.0290
 2.8980	 5.2200
 2.9000	 4.9830
 2.9020	 4.7180
 2.9030	 4.7740
 2.9050	 4.9310
 2.9070	 4.6640
 2.9080	 4.7700
 2.9100	 4.8530
 2.9120	 4.6950
 2.9130	 4.8230
 2.9150	 5.0590
 2.9160	 4.9370
 2.9180	 4.7990
 2.9200	 4.6910
 2.9210	 4.6670
 2.9230	 4.5370
 2.9250	 4.5400
 2.9260	 4.6540
 2.9280	 4.7390
 2.9300	 4.5910
 2.9310	 4.5300
 2.9330	 4.3840
 2.9350	 4.3420
 2.9360	 4.3930
 2.9380	 4.7320
 2.9400	 4.6590
 2.9410	 4.3670
 2.9430	 4.1980
 2.9450	 4.3150
 2.9460	 4.4920
 2.9480	 4.4770
 2.9500	 4.5640
 2.9510	 4.5210
 2.9530	 3.9260
 2.9550	 3.9880
 2.9560	 4.2720
 2.9580	 3.8290
 2.9600	 2.6680
 2.9610	 3.0540
 2.9630	 4.1070
 2.9650	 4.2520
 2.9660	 3.4060
 2.9680	 3.0900
 2.9700	 3.9750
 2.9720	 4.4330
 2.9730	 4.3640
 2.9750	 5.5660
 2.9770	 4.7090
 2.9780	 3.4870
 2.9800	 3.8870
 2.9820	 4.7850
 2.9840	 4.1600
 2.9850	 3.1260
 2.9870	 3.6100
 2.9890	 3.9640
 2.9900	 4.1990
 2.9920	 4.2130
 2.9940	 4.6660
 2.9960	 5.1740
 2.9970	 5.3110
 2.9990	 4.4350
 3.0010	 2.9090
 3.0030	 4.5390
 3.0040	 4.2950
 3.0060	 3.8770
 3.0080	 3.7010
 3.0100	 3.8280
 3.0110	 3.4320
 3.0130	 3.0460
 3.0150	 2.6170
 3.0170	 3.7350
 3.0180	 4.1650
 3.0200	 3.5450
 3.0220	 3.6330
 3.0240	 3.4230
 3.0250	 3.2840
 3.0270	 3.3250
 3.0290	 3.5380
 3.0310	 3.6710
 3.0320	 3.0120
 3.0340	 2.3950
 3.0360	 2.9270
 3.0380	 4.0820
 3.0400	 5.3040
 3.0410	 5.5210
 3.0430	 1.9960
 3.0450	 2.4330
 3.0470	 3.6070
 3.0480	 4.2780
 3.0500	 7.4020
 3.0520	 5.5400
 3.0540	 2.4650
 3.0560	 2.9260
 3.0570	 3.2270
 3.0590	 4.2210
 3.0610	 4.4670
 3.0630	 2.7640
 3.0650	 2.8540
 3.0660	 2.5380
 3.0680	 1.8150
 3.0700	 2.0770
 3.0720	 2.7270
 3.0740	 3.0800
 3.0760	 3.4370
 3.0770	 3.8920
 3.0790	 3.6800
 3.0810	 3.4120
 3.0830	 3.5870
 3.0850	 3.6520
 3.0870	 3.6160
 3.0880	 3.5160
 3.0900	 3.4480
 3.0920	 3.5500
 3.0940	 3.6470
 3.0960	 3.3380
 3.0980	 3.1480
 3.0990	 3.3290
 3.1010	 3.4640
 3.1030	 3.6060
 3.1050	 3.3180
 3.1070	 3.3280
 3.1090	 3.2890
 3.1110	 2.9110
 3.1120	 2.5430
 3.1140	 2.8110
 3.1160	 3.1910
 3.1180	 3.1470
 3.1200	 2.1900
 3.1220	 2.3910
 3.1240	 3.1780
 3.1260	 3.1370
 3.1270	 2.6340
 3.1290	 2.2780
 3.1310	 2.4960
 3.1330	 3.0440
 3.1350	 3.1980
 3.1370	 3.2120
 3.1390	 3.0610
 3.1410	 3.1630
 3.1430	 3.0920
 3.1450	 3.3950
 3.1460	 3.6800
 3.1480	 3.7600
 3.1500	 4.3830
 3.1520	 3.9660
 3.1540	 2.9860
 3.1560	 2.0720
 3.1580	 2.1560
 3.1600	 2.9150
 3.1620	 3.7750
 3.1640	 3.5680
 3.1660	 3.7730
 3.1680	 1.9250
 3.1700	 -0.359
 3.1710	 0.3880
 3.1730	 0.1720
 3.1750	 1.8830
 3.1770	 3.9320
 3.1790	 3.9740
 3.1810	 5.2250
 3.1830	 5.8740
 3.1850	 4.9090
 3.1870	 4.2510
 3.1890	 3.8750
 3.1910	 3.9730
 3.1930	 3.6000
 3.1950	 3.1230
 3.1970	 3.1670
 3.1990	 3.1170
 3.2010	 3.1790
 3.2030	 3.1020
 3.2050	 3.0390
 3.2070	 3.0170
 3.2090	 3.1800
 3.2110	 3.2330
 3.2130	 3.0900
 3.2150	 3.0010
 3.2170	 2.8810
 3.2190	 3.1020
 3.2210	 3.3850
 3.2230	 3.3480
 3.2250	 3.0800
 3.2270	 3.1500
 3.2290	 3.1900
 3.2310	 2.9770
 3.2330	 3.0250
 3.2350	 3.3260
 3.2370	 3.3630
 3.2390	 3.1600
 3.2410	 3.0700
 3.2430	 3.4410
 3.2450	 3.6980
 3.2470	 3.6580
 3.2490	 3.6060
 3.2510	 3.3710
 3.2530	 3.1170
 3.2550	 3.1950
 3.2570	 3.2790
 3.2590	 3.2180
 3.2610	 3.0880
 3.2630	 3.0410
 3.2650	 2.9280
 3.2670	 3.0860
 3.2690	 3.4140
 3.2720	 3.5860
 3.2740	 3.4910
 3.2760	 3.2670
 3.2780	 3.1220
 3.2800	 3.3330
 3.2820	 3.2430
 3.2840	 3.2640
 3.2860	 3.2430
 3.2880	 3.0520
 3.2900	 3.0080
 3.2920	 3.2490
 3.2940	 3.2250
 3.2960	 3.1600
 3.2990	 2.9790
 3.3010	 3.1900
 3.3030	 3.2830
 3.3050	 3.0060
 3.3070	 2.8860
 3.3090	 3.3310
 3.3110	 3.3560
 3.3130	 3.5110
 3.3150	 3.4380
 3.3180	 2.9340
 3.3200	 2.8810
 3.3220	 2.8590
 3.3240	 2.8610
 3.3260	 3.2650
 3.3280	 3.3180
 3.3300	 3.1120
 3.3330	 3.0170
 3.3350	 3.1100
 3.3370	 3.2840
 3.3390	 3.2160
 3.3410	 3.1910
 3.3430	 3.1480
 3.3450	 3.0410
 3.3480	 3.2330
 3.3500	 3.1830
 3.3520	 2.9930
 3.3540	 3.0050
 3.3560	 3.0770
 3.3580	 3.0940
 3.3610	 3.1060
 3.3630	 3.2140
 3.3650	 3.1910
 3.3670	 2.9480
 3.3690	 2.9320
 3.3720	 2.9270
 3.3740	 2.8370
 3.3760	 2.7540
 3.3780	 2.7000
 3.3800	 2.6710
 3.3830	 2.9300
 3.3850	 3.0890
 3.3870	 3.1430
 3.3890	 3.2430
 3.3910	 3.0240
 3.3940	 2.8310
 3.3960	 2.9090
 3.3980	 2.9840
 3.4000	 3.1640
 3.4020	 3.2290
 3.4050	 3.2670
 3.4070	 3.2550
 3.4090	 3.2800
 3.4110	 3.5470
 3.4140	 4.0820
 3.4160	 4.5530
 3.4180	 4.9620
 3.4200	 5.4050
 3.4230	 6.1790
 3.4250	 6.9510
 3.4270	 7.9010
 3.4290	 8.3260
 3.4320	 7.9800
 3.4340	 7.3300
 3.4360	 6.8280
 3.4390	 6.3200
 3.4410	 5.8630
 3.4430	 5.7380
 3.4450	 5.6910
 3.4480	 5.4540
 3.4500	 5.5880
 3.4520	 5.7840
 3.4550	 5.7510
 3.4570	 5.6430
 3.4590	 5.5770
 3.4620	 5.3620
 3.4640	 5.0460
 3.4660	 5.0050
 3.4680	 5.0230
 3.4710	 4.9010
 3.4730	 4.6810
 3.4750	 4.6740
 3.4780	 4.6470
 3.4800	 4.3490
 3.4820	 4.2350
 3.4850	 4.1850
 3.4870	 4.0690
 3.4890	 4.0070
 3.4920	 4.0460
 3.4940	 4.1060
 3.4970	 4.1200
 3.4990	 4.1980
 3.5010	 4.4000
 3.5040	 4.6250
 3.5060	 5.2850
 3.5080	 6.3340
 3.5110	 7.3830
 3.5130	 7.6420
 3.5160	 7.2980
 3.5180	 6.7280
 3.5200	 6.4480
 3.5230	 6.2230
 3.5250	 5.8460
 3.5270	 5.5900
 3.5300	 5.6330
 3.5320	 5.4860
 3.5350	 5.2650
 3.5370	 5.2400
 3.5400	 5.2070
 3.5420	 4.9780
 3.5440	 4.9520
 3.5470	 5.0100
 3.5490	 4.9440
 3.5520	 4.9760
 3.5540	 5.1790
 3.5570	 5.1130
 3.5590	 4.9800
 3.5610	 4.7700
 3.5640	 4.7430
 3.5660	 4.7270
 3.5690	 4.6810
 3.5710	 4.8550
 3.5740	 5.0010
 3.5760	 4.9970
 3.5790	 5.0630
 3.5810	 5.1120
 3.5840	 5.2020
 3.5860	 5.2290
 3.5890	 5.3510
 3.5910	 5.0750
 3.5930	 5.0130
 3.5960	 5.1630
 3.5980	 5.2160
 3.6010	 4.9380
 3.6030	 4.5720
 3.6060	 4.5630
 3.6080	 4.8190
 3.6110	 5.0540
 3.6140	 5.1560
 3.6160	 4.9310
 3.6190	 4.8000
 3.6210	 4.8420
 3.6240	 4.8100
 3.6260	 4.8140
 3.6290	 4.8860
 3.6310	 4.8090
 3.6340	 4.8040
 3.6360	 4.9640
 3.6390	 5.1740
 3.6410	 5.1080
 3.6440	 4.8960
 3.6470	 4.8340
 3.6490	 4.9420
 3.6520	 5.0470
 3.6540	 5.0850
 3.6570	 5.0730
 3.6590	 5.1710
 3.6620	 5.2190
 3.6650	 5.1550
 3.6670	 5.1550
 3.6700	 5.1640
 3.6720	 5.0950
 3.6750	 5.0520
 3.6780	 5.1220
 3.6800	 5.1770
 3.6830	 5.1130
 3.6850	 5.1600
 3.6880	 5.1870
 3.6910	 5.2110
 3.6930	 5.2860
 3.6960	 5.2830
 3.6990	 5.2700
 3.7010	 5.3890
 3.7040	 5.4350
 3.7060	 5.4450
 3.7090	 5.4360
 3.7120	 5.3360
 3.7140	 5.2490
 3.7170	 5.3990
 3.7200	 5.5870
 3.7220	 5.6810
 3.7250	 5.6790
 3.7280	 5.6100
 3.7300	 5.4160
 3.7330	 5.5150
 3.7360	 5.7330
 3.7390	 5.8850
 3.7410	 5.7380
 3.7440	 5.6920
 3.7470	 5.7020
 3.7490	 5.6330
 3.7520	 5.5520
 3.7550	 5.6860
 3.7580	 5.6860
 3.7600	 5.5550
 3.7630	 5.4280
 3.7660	 5.6080
 3.7680	 5.6910
 3.7710	 5.7040
 3.7740	 5.8610
 3.7770	 6.1340
 3.7790	 6.0220
 3.7820	 5.8310
 3.7850	 5.9500
 3.7880	 5.9720
 3.7900	 5.9290
 3.7930	 6.0570
 3.7960	 6.1530
 3.7990	 6.1340
 3.8020	 6.0750
 3.8040	 6.0290
 3.8070	 6.0380
 3.8100	 6.1370
 3.8130	 6.1730
 3.8160	 6.2540
 3.8180	 6.3400
 3.8210	 6.1900
 3.8240	 5.9250
 3.8270	 6.1510
 3.8300	 6.4470
 3.8330	 6.4890
 3.8350	 6.3280
 3.8380	 6.3340
 3.8410	 6.3330
 3.8440	 6.1970
 3.8470	 6.0620
 3.8500	 6.0140
 3.8520	 6.0430
 3.8550	 6.1600
 3.8580	 6.3190
 3.8610	 6.4910
 3.8640	 6.5080
 3.8670	 6.5020
 3.8700	 6.6030
 3.8730	 6.5290
 3.8750	 6.3920
 3.8780	 6.4140
 3.8810	 6.3630
 3.8840	 6.3300
 3.8870	 6.3960
 3.8900	 6.4540
 3.8930	 6.5970
 3.8960	 6.5930
 3.8990	 6.5850
 3.9020	 6.7430
 3.9050	 6.6730
 3.9080	 6.5780
 3.9110	 6.5640
 3.9140	 6.5110
 3.9160	 6.4910
 3.9190	 6.5470
 3.9220	 6.4730
 3.9250	 6.4940
 3.9280	 6.6310
 3.9310	 6.6380
 3.9340	 6.5670
 3.9370	 6.5990
 3.9400	 6.6720
 3.9430	 6.8060
 3.9460	 6.7470
 3.9490	 6.6030
 3.9520	 6.4810
 3.9550	 6.4980
 3.9580	 6.5940
 3.9610	 6.7580
 3.9640	 6.7100
 3.9670	 6.5770
 3.9700	 6.5290
 3.9730	 6.6090
 3.9770	 6.5550
 3.9800	 6.6090
 3.9830	 6.6100
 3.9860	 6.6580
 3.9890	 6.6680
 3.9920	 6.5740
 3.9950	 6.6120
 3.9980	 6.6600
 4.0010	 6.6530
 4.0040	 6.5710
 4.0070	 6.5500
 4.0100	 6.5830
 4.0130	 6.6610
 4.0170	 6.7160
 4.0200	 6.5990
 4.0230	 6.5040
 4.0260	 6.4520
 4.0290	 6.4830
 4.0320	 6.6120
 4.0350	 6.6020
 4.0380	 6.3790
 4.0420	 6.4390
 4.0450	 6.4630
 4.0480	 6.3450
 4.0510	 6.3290
 4.0540	 6.3950
 4.0570	 6.3610
 4.0610	 6.2720
 4.0640	 6.2900
 4.0670	 6.3150
 4.0700	 6.3700
 4.0730	 6.3900
 4.0770	 6.4100
 4.0800	 6.4390
 4.0830	 6.3300
 4.0860	 6.3040
 4.0890	 6.1820
 4.0930	 6.1830
 4.0960	 6.3490
 4.0990	 6.4250
 4.1020	 6.2510
 4.1060	 6.2330
 4.1090	 6.1740
 4.1120	 6.1790
 4.1150	 6.4100
 4.1190	 6.3300
 4.1220	 6.2060
 4.1250	 6.0800
 4.1280	 6.1330
 4.1320	 6.2040
 4.1350	 6.1910
 4.1380	 6.1960
 4.1420	 6.0720
 4.1450	 6.1090
 4.1480	 6.2670
 4.1520	 6.1490
 4.1550	 6.0320
 4.1580	 6.0800
 4.1620	 6.1800
 4.1650	 6.2220
 4.1680	 6.1460
 4.1720	 6.1120
 4.1750	 5.9860
 4.1780	 5.9660
 4.1820	 6.0020
 4.1850	 5.9660
 4.1890	 5.8510
 4.1920	 5.8330
 4.1950	 5.9540
 4.1990	 5.9450
 4.2020	 5.7560
 4.2060	 5.5760
 4.2090	 5.5320
 4.2120	 5.5100
 4.2160	 5.3160
 4.2190	 5.2160
 4.2230	 5.0440
 4.2260	 4.4520
 4.2300	 4.2280
 4.2330	 4.6270
 4.2360	 4.5620
 4.2400	 4.7800
 4.2430	 4.7840
 4.2470	 4.7300
 4.2500	 5.1700
 4.2540	 5.3440
 4.2570	 5.2630
 4.2610	 5.1760
 4.2640	 4.8360
 4.2680	 4.5640
 4.2710	 5.0930
 4.2750	 5.3130
 4.2780	 4.9340
 4.2820	 4.9430
 4.2850	 4.9860
 4.2890	 4.7540
 4.2930	 4.6650
 4.2960	 4.8890
 4.3000	 5.0300
 4.3030	 5.1280
 4.3070	 5.1820
 4.3100	 5.0880
 4.3140	 5.0830
 4.3180	 5.1610
 4.3210	 5.1750
 4.3250	 5.2470
 4.3280	 5.2360
 4.3320	 5.1480
 4.3360	 5.0440
 4.3390	 5.1150
 4.3430	 5.2130
 4.3470	 5.1810
 4.3500	 5.1700
 4.3540	 5.1730
 4.3570	 5.1530
 4.3610	 5.1550
 4.3650	 5.2180
 4.3680	 5.2330
 4.3720	 5.1070
 4.3760	 4.9720
 4.3800	 4.9890
 4.3830	 5.0820
 4.3870	 5.1160
 4.3910	 5.1100
 4.3940	 4.9560
 4.3980	 4.9090
 4.4020	 4.9060
 4.4060	 4.7960
 4.4090	 4.8690
 4.4130	 4.9690
 4.4170	 4.9480
 4.4210	 4.8980
 4.4240	 5.0070
 4.4280	 5.0330
 4.4320	 4.9220
 4.4360	 4.8740
 4.4400	 4.8550
 4.4430	 4.8280
 4.4470	 4.7500
 4.4510	 4.7120
 4.4550	 4.7330
 4.4590	 4.7730
 4.4620	 4.7630
 4.4660	 4.7950
 4.4700	 4.9050
 4.4740	 4.9240
 4.4780	 4.8570
 4.4820	 4.8430
 4.4860	 4.8840
 4.4900	 4.8420
 4.4930	 4.7260
 4.4970	 4.6110
 4.5010	 4.6210
 4.5050	 4.7460
 4.5090	 4.6850
 4.5130	 4.5340
 4.5170	 4.5360
 4.5210	 4.6310
 4.5250	 4.7640
 4.5290	 4.7090
 4.5330	 4.5890
 4.5370	 4.6280
 4.5410	 4.6330
 4.5450	 4.7300
 4.5490	 4.7600
 4.5530	 4.6630
 4.5570	 4.6600
 4.5610	 4.6870
 4.5650	 4.6180
 4.5690	 4.6220
 4.5730	 4.6610
 4.5770	 4.6190
 4.5810	 4.5410
 4.5850	 4.4560
 4.5890	 4.5060
 4.5930	 4.6030
 4.5970	 4.6450
 4.6010	 4.4760
 4.6050	 4.4520
 4.6090	 4.6630
 4.6130	 4.3890
 4.6170	 4.4760
 4.6220	 4.8570
 4.6260	 4.8430
 4.6300	 4.6840
 4.6340	 4.5540
 4.6380	 4.6250
 4.6420	 4.5600
 4.6460	 4.4480
 4.6510	 4.5010
 4.6550	 4.5500
 4.6590	 4.4460
 4.6630	 4.4220
 4.6670	 4.4290
 4.6720	 4.4670
 4.6760	 4.4370
 4.6800	 4.5640
 4.6840	 4.5260
 4.6880	 4.5140
 4.6930	 4.6600
 4.6970	 4.6030
 4.7010	 4.4910
 4.7050	 4.4920
 4.7100	 4.5440
 4.7140	 4.6140
 4.7180	 4.6700
 4.7230	 4.6150
 4.7270	 4.5460
 4.7310	 4.5100
 4.7360	 4.4990
 4.7400	 4.5500
 4.7440	 4.5380
 4.7490	 4.4950
 4.7530	 4.4490
 4.7570	 4.4820
 4.7620	 4.5340
 4.7660	 4.5640
 4.7700	 4.5440
 4.7750	 4.5300
 4.7790	 4.4840
 4.7840	 4.6370
 4.7880	 4.5460
 4.7920	 4.6420
 4.7970	 4.6040
 4.8010	 4.5690
 4.8060	 4.6060
 4.8100	 4.6810
 4.8150	 4.6660
 4.8190	 4.6610
 4.8240	 4.6510
 4.8280	 4.6110
 4.8330	 4.5890
 4.8370	 4.6390
 4.8420	 4.5820
 4.8460	 4.5390
 4.8510	 4.5920
 4.8550	 4.6480
 4.8600	 4.6490
 4.8640	 4.6740
 4.8690	 4.7320
 4.8730	 4.8270
 4.8780	 4.8050
 4.8830	 4.7910
 4.8870	 4.8240
 4.8920	 4.8350
 4.8960	 4.7790
 4.9010	 4.8870
 4.9060	 4.9370
 4.9100	 4.9070
 4.9150	 4.8960
 4.9200	 4.9360
 4.9240	 4.8810
 4.9290	 4.8210
 4.9340	 4.8220
 4.9380	 4.8560
 4.9430	 4.7830
 4.9480	 4.8030
 4.9530	 4.8320
 4.9570	 4.8390
 4.9620	 4.8830
 4.9670	 4.9640
 4.9720	 4.9620
 4.9760	 4.9510
 4.9810	 4.9250
 4.9860	 4.9050
 4.9910	 4.8840
 4.9960	 4.9820
 5.0000	 5.0590
 5.0050	 5.0920
 5.0100	 5.0090
 5.0150	 4.9740
 5.0200	 4.9720
 5.0250	 5.0540
 5.0290	 5.0820
 5.0340	 5.1180
 5.0390	 5.0980
 5.0440	 5.1630
 5.0490	 5.2250
 5.0540	 5.2040
 5.0590	 5.2250
 5.0640	 5.2430
 5.0690	 5.2050
 5.0740	 5.2090
 5.0790	 5.2330
 5.0840	 5.2780
 5.0890	 5.3270
 5.0940	 5.3640
 5.0990	 5.2910
 5.1040	 5.2720
 5.1090	 5.2830
 5.1140	 5.2940
 5.1190	 5.3190
 5.1240	 5.3730
 5.1290	 5.3540
 5.1340	 5.3840
 5.1390	 5.3110
 5.1440	 5.3040
 5.1490	 5.3670
 5.1540	 5.4440
 5.1600	 5.3960
 5.1650	 5.3930
 5.1700	 5.4170
 5.1750	 5.4790
 5.1800	 5.4580
 5.1850	 5.4800
 5.1910	 5.5030
 5.1960	 5.4950
 5.2010	 5.4920
 5.2060	 5.5490
 5.2110	 5.5760
 5.2170	 5.6030
 5.2220	 5.6190
 5.2270	 5.6440
 5.2320	 5.5520
 5.2380	 5.5590
 5.2430	 5.6760
 5.2480	 5.7990
 5.2540	 5.7410
 5.2590	 5.6710
 5.2640	 5.6750
 5.2700	 5.7060
 5.2750	 5.6940
 5.2800	 5.7240
 5.2860	 5.7930
 5.2910	 5.8170
 5.2970	 5.7830
 5.3020	 5.7490
 5.3070	 5.6830
 5.3130	 5.7220
 5.3180	 5.7390
 5.3240	 5.7360
 5.3290	 5.7360
 5.3350	 5.8200
 5.3400	 5.7810
 5.3460	 5.7670
 5.3510	 5.6780
 5.3570	 5.5830
 5.3620	 5.5310
 5.3680	 5.5730
 5.3730	 5.5930
 5.3790	 5.6000
 5.3850	 5.5090
 5.3900	 5.3690
 5.3960	 5.4060
 5.4010	 5.5510
 5.4070	 5.5180
 5.4130	 5.4530
 5.4180	 5.3900
 5.4240	 5.4480
 5.4300	 5.4310
 5.4350	 5.4430
 5.4410	 5.4220
 5.4470	 5.4640
 5.4530	 5.4590
