Name: Heteromeles arbutifolia 3
Type: vegetation
Class: Shrub
Genus: Heteromeles
Species: arbutifolia
Sample No.: VH209
Owner: UCSB
Wavelength Range: VSWIR
Origin: 34.4908; -119.7912; WGS84
Collection Date: 10/13/2013
Description: Samples were collected as part of the HyspIRI Airborne Campaign. 48 individual plants were sampled in three times in 2013 - spring  summer  and fall. The name of the sample includes a 1  2  or 3 which references a different individual of the species. Samples were taken to JPL and processed within 48 hours of collection. The same leaves were processed in the Nicolet and then measured using the ASD.
Measurement: Bidirectional reflectance
First Column: X
Second Column: Y
X Units: Wavelength (micrometers)
Y Units: Reflectance (percentage)
First X Value: 0.35
Last X Value: 2.5
Number of X Values: 2151
Additional Information: vegetation.shrub.heteromeles.arbutifolia.vswir.vh209.ucsb.asd.ancillary.txt

 0.3500	 8.1030
 0.3510	 7.6960
 0.3520	 7.8320
 0.3530	 7.9930
 0.3540	 7.7460
 0.3550	 7.8370
 0.3560	 7.7890
 0.3570	 7.6990
 0.3580	 7.8910
 0.3590	 7.8300
 0.3600	 7.7460
 0.3610	 7.7520
 0.3620	 7.6960
 0.3630	 7.6530
 0.3640	 7.6280
 0.3650	 7.6160
 0.3660	 7.6450
 0.3670	 7.6630
 0.3680	 7.6480
 0.3690	 7.6080
 0.3700	 7.6760
 0.3710	 7.5490
 0.3720	 7.2350
 0.3730	 7.4060
 0.3740	 7.5810
 0.3750	 7.6540
 0.3760	 7.6360
 0.3770	 7.5030
 0.3780	 7.4250
 0.3790	 7.4370
 0.3800	 7.4400
 0.3810	 7.3420
 0.3820	 7.2920
 0.3830	 7.3740
 0.3840	 7.4570
 0.3850	 7.4190
 0.3860	 7.3330
 0.3870	 7.3380
 0.3880	 7.4580
 0.3890	 7.4580
 0.3900	 7.3450
 0.3910	 7.3750
 0.3920	 7.4260
 0.3930	 7.4310
 0.3940	 7.3790
 0.3950	 7.3670
 0.3960	 7.3170
 0.3970	 7.2830
 0.3980	 7.3520
 0.3990	 7.3860
 0.4000	 7.3740
 0.4010	 7.3530
 0.4020	 7.4100
 0.4030	 7.4030
 0.4040	 7.3650
 0.4050	 7.3560
 0.4060	 7.3890
 0.4070	 7.3960
 0.4080	 7.3770
 0.4090	 7.3760
 0.4100	 7.4010
 0.4110	 7.4320
 0.4120	 7.4430
 0.4130	 7.4050
 0.4140	 7.4400
 0.4150	 7.5080
 0.4160	 7.5270
 0.4170	 7.5100
 0.4180	 7.5190
 0.4190	 7.5640
 0.4200	 7.6010
 0.4210	 7.6310
 0.4220	 7.6590
 0.4230	 7.6850
 0.4240	 7.6980
 0.4250	 7.7000
 0.4260	 7.7170
 0.4270	 7.7770
 0.4280	 7.8140
 0.4290	 7.8340
 0.4300	 7.8440
 0.4310	 7.8400
 0.4320	 7.8400
 0.4330	 7.8500
 0.4340	 7.8700
 0.4350	 7.8710
 0.4360	 7.8990
 0.4370	 7.9360
 0.4380	 7.9250
 0.4390	 7.9250
 0.4400	 7.9450
 0.4410	 7.9770
 0.4420	 7.9940
 0.4430	 7.9970
 0.4440	 8.0040
 0.4450	 8.0330
 0.4460	 8.0390
 0.4470	 8.0420
 0.4480	 8.0560
 0.4490	 8.0830
 0.4500	 8.0790
 0.4510	 8.0760
 0.4520	 8.1040
 0.4530	 8.1230
 0.4540	 8.1300
 0.4550	 8.1300
 0.4560	 8.1290
 0.4570	 8.1430
 0.4580	 8.1480
 0.4590	 8.1300
 0.4600	 8.1140
 0.4610	 8.1260
 0.4620	 8.1470
 0.4630	 8.1470
 0.4640	 8.1680
 0.4650	 8.1630
 0.4660	 8.1380
 0.4670	 8.1470
 0.4680	 8.1510
 0.4690	 8.1570
 0.4700	 8.1630
 0.4710	 8.1310
 0.4720	 8.1340
 0.4730	 8.1590
 0.4740	 8.1550
 0.4750	 8.1490
 0.4760	 8.1510
 0.4770	 8.1590
 0.4780	 8.1630
 0.4790	 8.1650
 0.4800	 8.1640
 0.4810	 8.1670
 0.4820	 8.1850
 0.4830	 8.1780
 0.4840	 8.1560
 0.4850	 8.1780
 0.4860	 8.1930
 0.4870	 8.1950
 0.4880	 8.1910
 0.4890	 8.2060
 0.4900	 8.2260
 0.4910	 8.2440
 0.4920	 8.2560
 0.4930	 8.2760
 0.4940	 8.2940
 0.4950	 8.3120
 0.4960	 8.3430
 0.4970	 8.3720
 0.4980	 8.4010
 0.4990	 8.4370
 0.5000	 8.4680
 0.5010	 8.5170
 0.5020	 8.5750
 0.5030	 8.6120
 0.5040	 8.6700
 0.5050	 8.7400
 0.5060	 8.8130
 0.5070	 8.8880
 0.5080	 8.9700
 0.5090	 9.0640
 0.5100	 9.1730
 0.5110	 9.2880
 0.5120	 9.4130
 0.5130	 9.5490
 0.5140	 9.6930
 0.5150	 9.8600
 0.5160	10.0400
 0.5170	10.2260
 0.5180	10.4350
 0.5190	10.6450
 0.5200	10.8570
 0.5210	11.0880
 0.5220	11.3210
 0.5230	11.5570
 0.5240	11.7960
 0.5250	12.0230
 0.5260	12.2490
 0.5270	12.4720
 0.5280	12.6820
 0.5290	12.8730
 0.5300	13.0550
 0.5310	13.2310
 0.5320	13.3920
 0.5330	13.5330
 0.5340	13.6580
 0.5350	13.7730
 0.5360	13.8760
 0.5370	13.9670
 0.5380	14.0480
 0.5390	14.1200
 0.5400	14.1820
 0.5410	14.2360
 0.5420	14.2850
 0.5430	14.3330
 0.5440	14.3890
 0.5450	14.4450
 0.5460	14.4960
 0.5470	14.5610
 0.5480	14.6210
 0.5490	14.6650
 0.5500	14.6950
 0.5510	14.7210
 0.5520	14.7360
 0.5530	14.7370
 0.5540	14.7260
 0.5550	14.6960
 0.5560	14.6480
 0.5570	14.5840
 0.5580	14.5010
 0.5590	14.4080
 0.5600	14.3100
 0.5610	14.1930
 0.5620	14.0700
 0.5630	13.9380
 0.5640	13.7870
 0.5650	13.6290
 0.5660	13.4680
 0.5670	13.3060
 0.5680	13.1450
 0.5690	12.9780
 0.5700	12.8090
 0.5710	12.6440
 0.5720	12.4810
 0.5730	12.3320
 0.5740	12.1950
 0.5750	12.0610
 0.5760	11.9310
 0.5770	11.8140
 0.5780	11.7110
 0.5790	11.6080
 0.5800	11.5180
 0.5810	11.4330
 0.5820	11.3420
 0.5830	11.2630
 0.5840	11.1950
 0.5850	11.1320
 0.5860	11.0730
 0.5870	11.0170
 0.5880	10.9640
 0.5890	10.9140
 0.5900	10.8640
 0.5910	10.8160
 0.5920	10.7740
 0.5930	10.7350
 0.5940	10.7030
 0.5950	10.6820
 0.5960	10.6660
 0.5970	10.6390
 0.5980	10.6150
 0.5990	10.5970
 0.6000	10.5790
 0.6010	10.5470
 0.6020	10.5120
 0.6030	10.4770
 0.6040	10.4330
 0.6050	10.3870
 0.6060	10.3370
 0.6070	10.2820
 0.6080	10.2210
 0.6090	10.1530
 0.6100	10.0760
 0.6110	 9.9960
 0.6120	 9.9350
 0.6130	 9.8890
 0.6140	 9.8460
 0.6150	 9.7940
 0.6160	 9.7420
 0.6170	 9.6980
 0.6180	 9.6650
 0.6190	 9.6220
 0.6200	 9.5800
 0.6210	 9.5450
 0.6220	 9.5200
 0.6230	 9.5020
 0.6240	 9.4840
 0.6250	 9.4660
 0.6260	 9.4560
 0.6270	 9.4480
 0.6280	 9.4410
 0.6290	 9.4370
 0.6300	 9.4260
 0.6310	 9.4150
 0.6320	 9.4100
 0.6330	 9.4080
 0.6340	 9.3920
 0.6350	 9.3630
 0.6360	 9.3290
 0.6370	 9.3010
 0.6380	 9.2610
 0.6390	 9.2120
 0.6400	 9.1650
 0.6410	 9.1170
 0.6420	 9.0660
 0.6430	 9.0110
 0.6440	 8.9580
 0.6450	 8.9070
 0.6460	 8.8580
 0.6470	 8.8110
 0.6480	 8.7690
 0.6490	 8.7300
 0.6500	 8.6950
 0.6510	 8.6660
 0.6520	 8.6430
 0.6530	 8.6230
 0.6540	 8.6040
 0.6550	 8.5760
 0.6560	 8.5510
 0.6570	 8.5270
 0.6580	 8.4960
 0.6590	 8.4650
 0.6600	 8.4280
 0.6610	 8.3880
 0.6620	 8.3570
 0.6630	 8.3320
 0.6640	 8.3100
 0.6650	 8.2880
 0.6660	 8.2690
 0.6670	 8.2510
 0.6680	 8.2350
 0.6690	 8.2240
 0.6700	 8.2290
 0.6710	 8.2320
 0.6720	 8.2310
 0.6730	 8.2470
 0.6740	 8.2590
 0.6750	 8.2710
 0.6760	 8.2910
 0.6770	 8.3160
 0.6780	 8.3410
 0.6790	 8.3710
 0.6800	 8.4130
 0.6810	 8.4530
 0.6820	 8.4970
 0.6830	 8.5490
 0.6840	 8.6070
 0.6850	 8.6710
 0.6860	 8.7470
 0.6870	 8.8400
 0.6880	 8.9510
 0.6890	 9.0850
 0.6900	 9.2480
 0.6910	 9.4470
 0.6920	 9.7020
 0.6930	10.0130
 0.6940	10.3820
 0.6950	10.8280
 0.6960	11.3570
 0.6970	11.9710
 0.6980	12.6650
 0.6990	13.4490
 0.7000	14.3120
 0.7010	15.2460
 0.7020	16.2460
 0.7030	17.3030
 0.7040	18.4050
 0.7050	19.5410
 0.7060	20.7140
 0.7070	21.9150
 0.7080	23.1390
 0.7090	24.3850
 0.7100	25.6460
 0.7110	26.9270
 0.7120	28.2210
 0.7130	29.5130
 0.7140	30.8160
 0.7150	32.1310
 0.7160	33.4460
 0.7170	34.7450
 0.7180	36.0460
 0.7190	37.3430
 0.7200	38.6160
 0.7210	39.8720
 0.7220	41.1050
 0.7230	42.3140
 0.7240	43.5000
 0.7250	44.6440
 0.7260	45.7490
 0.7270	46.8190
 0.7280	47.8430
 0.7290	48.8370
 0.7300	49.7880
 0.7310	50.6720
 0.7320	51.5200
 0.7330	52.3280
 0.7340	53.0960
 0.7350	53.8340
 0.7360	54.5070
 0.7370	55.1440
 0.7380	55.7630
 0.7390	56.3110
 0.7400	56.8280
 0.7410	57.3190
 0.7420	57.7780
 0.7430	58.2080
 0.7440	58.5990
 0.7450	58.9580
 0.7460	59.3010
 0.7470	59.6040
 0.7480	59.8750
 0.7490	60.1250
 0.7500	60.3550
 0.7510	60.5800
 0.7520	60.7780
 0.7530	60.9270
 0.7540	61.0810
 0.7550	61.2340
 0.7560	61.3720
 0.7570	61.4790
 0.7580	61.5850
 0.7590	61.6830
 0.7600	61.7680
 0.7610	61.8420
 0.7620	61.9110
 0.7630	61.9720
 0.7640	62.0190
 0.7650	62.0670
 0.7660	62.0950
 0.7670	62.1170
 0.7680	62.1640
 0.7690	62.2030
 0.7700	62.2310
 0.7710	62.2510
 0.7720	62.2650
 0.7730	62.2800
 0.7740	62.2920
 0.7750	62.2970
 0.7760	62.3140
 0.7770	62.3250
 0.7780	62.3440
 0.7790	62.3860
 0.7800	62.3810
 0.7810	62.3680
 0.7820	62.3730
 0.7830	62.3960
 0.7840	62.3880
 0.7850	62.3920
 0.7860	62.4330
 0.7870	62.4640
 0.7880	62.4430
 0.7890	62.4210
 0.7900	62.4500
 0.7910	62.4560
 0.7920	62.4740
 0.7930	62.4940
 0.7940	62.4800
 0.7950	62.4920
 0.7960	62.4980
 0.7970	62.4910
 0.7980	62.5150
 0.7990	62.5260
 0.8000	62.5310
 0.8010	62.5430
 0.8020	62.5480
 0.8030	62.5640
 0.8040	62.5820
 0.8050	62.5860
 0.8060	62.5880
 0.8070	62.5980
 0.8080	62.6200
 0.8090	62.6470
 0.8100	62.6330
 0.8110	62.6190
 0.8120	62.6330
 0.8130	62.6600
 0.8140	62.6780
 0.8150	62.6900
 0.8160	62.7040
 0.8170	62.7180
 0.8180	62.7310
 0.8190	62.7380
 0.8200	62.7380
 0.8210	62.7590
 0.8220	62.7850
 0.8230	62.8130
 0.8240	62.8480
 0.8250	62.8440
 0.8260	62.8350
 0.8270	62.8400
 0.8280	62.8200
 0.8290	62.8590
 0.8300	62.9180
 0.8310	62.9380
 0.8320	62.9120
 0.8330	62.9110
 0.8340	62.9300
 0.8350	62.9330
 0.8360	62.9670
 0.8370	63.0020
 0.8380	63.0210
 0.8390	63.0240
 0.8400	63.0290
 0.8410	63.0450
 0.8420	63.0710
 0.8430	63.0970
 0.8440	63.1110
 0.8450	63.1190
 0.8460	63.1300
 0.8470	63.1450
 0.8480	63.1820
 0.8490	63.2140
 0.8500	63.2130
 0.8510	63.2020
 0.8520	63.2020
 0.8530	63.2130
 0.8540	63.2260
 0.8550	63.2500
 0.8560	63.2820
 0.8570	63.3010
 0.8580	63.2790
 0.8590	63.3040
 0.8600	63.3210
 0.8610	63.3090
 0.8620	63.3310
 0.8630	63.3580
 0.8640	63.3630
 0.8650	63.3390
 0.8660	63.3450
 0.8670	63.3620
 0.8680	63.3780
 0.8690	63.3850
 0.8700	63.3780
 0.8710	63.3990
 0.8720	63.4290
 0.8730	63.4190
 0.8740	63.4140
 0.8750	63.4030
 0.8760	63.3940
 0.8770	63.4160
 0.8780	63.4300
 0.8790	63.4330
 0.8800	63.4340
 0.8810	63.4570
 0.8820	63.4440
 0.8830	63.4350
 0.8840	63.4560
 0.8850	63.4430
 0.8860	63.4180
 0.8870	63.4010
 0.8880	63.4050
 0.8890	63.4180
 0.8900	63.4260
 0.8910	63.4260
 0.8920	63.4180
 0.8930	63.3950
 0.8940	63.3970
 0.8950	63.4250
 0.8960	63.4460
 0.8970	63.4080
 0.8980	63.3710
 0.8990	63.3700
 0.9000	63.3990
 0.9010	63.3880
 0.9020	63.3740
 0.9030	63.3770
 0.9040	63.3770
 0.9050	63.3780
 0.9060	63.3700
 0.9070	63.3520
 0.9080	63.3340
 0.9090	63.3270
 0.9100	63.3350
 0.9110	63.3450
 0.9120	63.3070
 0.9130	63.3040
 0.9140	63.3140
 0.9150	63.3040
 0.9160	63.3260
 0.9170	63.3400
 0.9180	63.3170
 0.9190	63.2580
 0.9200	63.2570
 0.9210	63.2300
 0.9220	63.1950
 0.9230	63.2120
 0.9240	63.2140
 0.9250	63.2010
 0.9260	63.1800
 0.9270	63.1640
 0.9280	63.1660
 0.9290	63.1630
 0.9300	63.1420
 0.9310	63.1020
 0.9320	63.0580
 0.9330	63.0400
 0.9340	63.0370
 0.9350	63.0010
 0.9360	62.9690
 0.9370	62.9360
 0.9380	62.8960
 0.9390	62.8560
 0.9400	62.8440
 0.9410	62.8290
 0.9420	62.7900
 0.9430	62.7500
 0.9440	62.7200
 0.9450	62.6820
 0.9460	62.6190
 0.9470	62.5300
 0.9480	62.4670
 0.9490	62.4210
 0.9500	62.3730
 0.9510	62.3180
 0.9520	62.2430
 0.9530	62.1600
 0.9540	62.0830
 0.9550	62.0110
 0.9560	61.9330
 0.9570	61.8530
 0.9580	61.7780
 0.9590	61.6980
 0.9600	61.6450
 0.9610	61.5970
 0.9620	61.5340
 0.9630	61.5050
 0.9640	61.4770
 0.9650	61.4380
 0.9660	61.3910
 0.9670	61.3500
 0.9680	61.3210
 0.9690	61.3150
 0.9700	61.3320
 0.9710	61.2880
 0.9720	61.2770
 0.9730	61.2730
 0.9740	61.2220
 0.9750	61.2060
 0.9760	61.2190
 0.9770	61.2560
 0.9780	61.3000
 0.9790	61.2800
 0.9800	61.2410
 0.9810	61.2110
 0.9820	61.2100
 0.9830	61.2870
 0.9840	61.3090
 0.9850	61.2970
 0.9860	61.3270
 0.9870	61.3260
 0.9880	61.3240
 0.9890	61.3390
 0.9900	61.3760
 0.9910	61.4230
 0.9920	61.4720
 0.9930	61.5210
 0.9940	61.5690
 0.9950	61.6180
 0.9960	61.6670
 0.9970	61.7160
 0.9980	61.7640
 0.9990	61.8130
 1.0000	61.8620
 1.0010	61.9110
 1.0020	61.9590
 1.0030	62.0080
 1.0040	62.0570
 1.0050	62.1060
 1.0060	62.1540
 1.0070	62.2030
 1.0080	62.2520
 1.0090	62.3010
 1.0100	62.3010
 1.0110	62.3350
 1.0120	62.3690
 1.0130	62.3870
 1.0140	62.4150
 1.0150	62.4400
 1.0160	62.4920
 1.0170	62.5370
 1.0180	62.5750
 1.0190	62.6250
 1.0200	62.6560
 1.0210	62.6740
 1.0220	62.6990
 1.0230	62.7260
 1.0240	62.7540
 1.0250	62.7720
 1.0260	62.7900
 1.0270	62.8070
 1.0280	62.7990
 1.0290	62.8240
 1.0300	62.8760
 1.0310	62.9150
 1.0320	62.9560
 1.0330	63.0090
 1.0340	63.0480
 1.0350	63.0700
 1.0360	63.0930
 1.0370	63.1140
 1.0380	63.1330
 1.0390	63.1420
 1.0400	63.1570
 1.0410	63.1780
 1.0420	63.1940
 1.0430	63.2040
 1.0440	63.2210
 1.0450	63.2370
 1.0460	63.2540
 1.0470	63.2810
 1.0480	63.2960
 1.0490	63.2990
 1.0500	63.3080
 1.0510	63.3170
 1.0520	63.3190
 1.0530	63.3290
 1.0540	63.3500
 1.0550	63.3600
 1.0560	63.3590
 1.0570	63.3750
 1.0580	63.4030
 1.0590	63.4160
 1.0600	63.4410
 1.0610	63.4500
 1.0620	63.4330
 1.0630	63.4300
 1.0640	63.4260
 1.0650	63.4290
 1.0660	63.4440
 1.0670	63.4530
 1.0680	63.4610
 1.0690	63.4740
 1.0700	63.4820
 1.0710	63.4880
 1.0720	63.4870
 1.0730	63.4820
 1.0740	63.4780
 1.0750	63.4660
 1.0760	63.4610
 1.0770	63.4670
 1.0780	63.4610
 1.0790	63.4480
 1.0800	63.4360
 1.0810	63.4130
 1.0820	63.4020
 1.0830	63.4000
 1.0840	63.3950
 1.0850	63.3960
 1.0860	63.3940
 1.0870	63.3860
 1.0880	63.3710
 1.0890	63.3610
 1.0900	63.3480
 1.0910	63.3390
 1.0920	63.3350
 1.0930	63.3260
 1.0940	63.3180
 1.0950	63.3080
 1.0960	63.2970
 1.0970	63.2830
 1.0980	63.2710
 1.0990	63.2530
 1.1000	63.2260
 1.1010	63.2050
 1.1020	63.1890
 1.1030	63.1620
 1.1040	63.1280
 1.1050	63.1040
 1.1060	63.0800
 1.1070	63.0510
 1.1080	63.0300
 1.1090	63.0230
 1.1100	63.0030
 1.1110	62.9810
 1.1120	62.9520
 1.1130	62.9130
 1.1140	62.8810
 1.1150	62.8480
 1.1160	62.8140
 1.1170	62.7880
 1.1180	62.7510
 1.1190	62.7080
 1.1200	62.6650
 1.1210	62.6120
 1.1220	62.5580
 1.1230	62.5060
 1.1240	62.4430
 1.1250	62.3730
 1.1260	62.3010
 1.1270	62.2150
 1.1280	62.1120
 1.1290	62.0160
 1.1300	61.9190
 1.1310	61.8120
 1.1320	61.7050
 1.1330	61.5850
 1.1340	61.4560
 1.1350	61.3170
 1.1360	61.1670
 1.1370	61.0120
 1.1380	60.8530
 1.1390	60.6790
 1.1400	60.5060
 1.1410	60.3350
 1.1420	60.1490
 1.1430	59.9690
 1.1440	59.7860
 1.1450	59.5910
 1.1460	59.4110
 1.1470	59.2390
 1.1480	59.0640
 1.1490	58.8900
 1.1500	58.7270
 1.1510	58.5600
 1.1520	58.4080
 1.1530	58.2710
 1.1540	58.1420
 1.1550	58.0180
 1.1560	57.9110
 1.1570	57.8200
 1.1580	57.7330
 1.1590	57.6580
 1.1600	57.5840
 1.1610	57.5090
 1.1620	57.4430
 1.1630	57.3860
 1.1640	57.3360
 1.1650	57.2890
 1.1660	57.2460
 1.1670	57.2090
 1.1680	57.1750
 1.1690	57.1450
 1.1700	57.1250
 1.1710	57.1010
 1.1720	57.0760
 1.1730	57.0510
 1.1740	57.0250
 1.1750	56.9970
 1.1760	56.9730
 1.1770	56.9450
 1.1780	56.9130
 1.1790	56.8800
 1.1800	56.8460
 1.1810	56.8170
 1.1820	56.7950
 1.1830	56.7760
 1.1840	56.7510
 1.1850	56.7230
 1.1860	56.6940
 1.1870	56.6630
 1.1880	56.6380
 1.1890	56.6170
 1.1900	56.5940
 1.1910	56.5710
 1.1920	56.5550
 1.1930	56.5400
 1.1940	56.5310
 1.1950	56.5320
 1.1960	56.5290
 1.1970	56.5270
 1.1980	56.5300
 1.1990	56.5340
 1.2000	56.5430
 1.2010	56.5540
 1.2020	56.5670
 1.2030	56.5840
 1.2040	56.6030
 1.2050	56.6240
 1.2060	56.6470
 1.2070	56.6730
 1.2080	56.7010
 1.2090	56.7290
 1.2100	56.7570
 1.2110	56.7900
 1.2120	56.8220
 1.2130	56.8580
 1.2140	56.8980
 1.2150	56.9400
 1.2160	56.9820
 1.2170	57.0280
 1.2180	57.0730
 1.2190	57.1250
 1.2200	57.1780
 1.2210	57.2280
 1.2220	57.2730
 1.2230	57.3160
 1.2240	57.3600
 1.2250	57.4040
 1.2260	57.4500
 1.2270	57.5010
 1.2280	57.5530
 1.2290	57.5960
 1.2300	57.6360
 1.2310	57.6770
 1.2320	57.7100
 1.2330	57.7470
 1.2340	57.7860
 1.2350	57.8310
 1.2360	57.8700
 1.2370	57.9090
 1.2380	57.9420
 1.2390	57.9730
 1.2400	58.0050
 1.2410	58.0370
 1.2420	58.0700
 1.2430	58.1080
 1.2440	58.1430
 1.2450	58.1740
 1.2460	58.2050
 1.2470	58.2310
 1.2480	58.2480
 1.2490	58.2650
 1.2500	58.2750
 1.2510	58.2880
 1.2520	58.3030
 1.2530	58.3150
 1.2540	58.3320
 1.2550	58.3430
 1.2560	58.3510
 1.2570	58.3650
 1.2580	58.3800
 1.2590	58.3930
 1.2600	58.4080
 1.2610	58.4200
 1.2620	58.4310
 1.2630	58.4390
 1.2640	58.4450
 1.2650	58.4510
 1.2660	58.4560
 1.2670	58.4610
 1.2680	58.4610
 1.2690	58.4580
 1.2700	58.4530
 1.2710	58.4430
 1.2720	58.4340
 1.2730	58.4260
 1.2740	58.4150
 1.2750	58.4030
 1.2760	58.3910
 1.2770	58.3770
 1.2780	58.3710
 1.2790	58.3640
 1.2800	58.3430
 1.2810	58.3240
 1.2820	58.3060
 1.2830	58.2830
 1.2840	58.2660
 1.2850	58.2510
 1.2860	58.2330
 1.2870	58.2090
 1.2880	58.1820
 1.2890	58.1490
 1.2900	58.1070
 1.2910	58.0600
 1.2920	58.0130
 1.2930	57.9610
 1.2940	57.9100
 1.2950	57.8550
 1.2960	57.7920
 1.2970	57.7300
 1.2980	57.6670
 1.2990	57.6040
 1.3000	57.5420
 1.3010	57.4750
 1.3020	57.4050
 1.3030	57.3350
 1.3040	57.2540
 1.3050	57.1690
 1.3060	57.0890
 1.3070	56.9990
 1.3080	56.9020
 1.3090	56.8060
 1.3100	56.7020
 1.3110	56.5900
 1.3120	56.4780
 1.3130	56.3640
 1.3140	56.2410
 1.3150	56.1100
 1.3160	55.9800
 1.3170	55.8460
 1.3180	55.7050
 1.3190	55.5650
 1.3200	55.4210
 1.3210	55.2690
 1.3220	55.1150
 1.3230	54.9620
 1.3240	54.8030
 1.3250	54.6400
 1.3260	54.4730
 1.3270	54.2950
 1.3280	54.1150
 1.3290	53.9330
 1.3300	53.7460
 1.3310	53.5610
 1.3320	53.3740
 1.3330	53.1850
 1.3340	52.9990
 1.3350	52.8120
 1.3360	52.6160
 1.3370	52.4190
 1.3380	52.2260
 1.3390	52.0270
 1.3400	51.8340
 1.3410	51.6430
 1.3420	51.4470
 1.3430	51.2590
 1.3440	51.0710
 1.3450	50.8870
 1.3460	50.7080
 1.3470	50.5310
 1.3480	50.3550
 1.3490	50.1800
 1.3500	50.0090
 1.3510	49.8320
 1.3520	49.6530
 1.3530	49.4790
 1.3540	49.3060
 1.3550	49.1340
 1.3560	48.9630
 1.3570	48.7920
 1.3580	48.6160
 1.3590	48.4330
 1.3600	48.2460
 1.3610	48.0570
 1.3620	47.8620
 1.3630	47.6610
 1.3640	47.4550
 1.3650	47.2380
 1.3660	47.0150
 1.3670	46.7840
 1.3680	46.5370
 1.3690	46.2780
 1.3700	45.9990
 1.3710	45.7010
 1.3720	45.3890
 1.3730	45.0560
 1.3740	44.7070
 1.3750	44.3390
 1.3760	43.9450
 1.3770	43.5240
 1.3780	43.0740
 1.3790	42.5920
 1.3800	42.0820
 1.3810	41.5430
 1.3820	40.9790
 1.3830	40.3910
 1.3840	39.7760
 1.3850	39.1330
 1.3860	38.4740
 1.3870	37.7860
 1.3880	37.0950
 1.3890	36.3900
 1.3900	35.6720
 1.3910	34.9510
 1.3920	34.2220
 1.3930	33.4900
 1.3940	32.7620
 1.3950	32.0360
 1.3960	31.3220
 1.3970	30.6190
 1.3980	29.9320
 1.3990	29.2700
 1.4000	28.6240
 1.4010	27.9950
 1.4020	27.3930
 1.4030	26.8100
 1.4040	26.2520
 1.4050	25.7220
 1.4060	25.2160
 1.4070	24.7410
 1.4080	24.2930
 1.4090	23.8720
 1.4100	23.4790
 1.4110	23.1070
 1.4120	22.7610
 1.4130	22.4420
 1.4140	22.1420
 1.4150	21.8710
 1.4160	21.6210
 1.4170	21.3850
 1.4180	21.1690
 1.4190	20.9690
 1.4200	20.7860
 1.4210	20.6190
 1.4220	20.4650
 1.4230	20.3250
 1.4240	20.1960
 1.4250	20.0790
 1.4260	19.9760
 1.4270	19.8790
 1.4280	19.7920
 1.4290	19.7120
 1.4300	19.6430
 1.4310	19.5790
 1.4320	19.5250
 1.4330	19.4780
 1.4340	19.4380
 1.4350	19.4040
 1.4360	19.3790
 1.4370	19.3590
 1.4380	19.3440
 1.4390	19.3340
 1.4400	19.3300
 1.4410	19.3310
 1.4420	19.3350
 1.4430	19.3430
 1.4440	19.3530
 1.4450	19.3640
 1.4460	19.3770
 1.4470	19.3940
 1.4480	19.4120
 1.4490	19.4310
 1.4500	19.4530
 1.4510	19.4750
 1.4520	19.4970
 1.4530	19.5200
 1.4540	19.5410
 1.4550	19.5700
 1.4560	19.6010
 1.4570	19.6350
 1.4580	19.6760
 1.4590	19.7160
 1.4600	19.7610
 1.4610	19.8120
 1.4620	19.8640
 1.4630	19.9230
 1.4640	19.9860
 1.4650	20.0550
 1.4660	20.1320
 1.4670	20.2110
 1.4680	20.2940
 1.4690	20.3840
