Name: Bambusa beecheyana
Type: vegetation
Class: Tree
Genus: Bambusa
Species: beecheyana
Sample No.: JPL133
Owner: JPL
Wavelength Range: VSWIR
Origin: 34.12719; -118.11127;; WGS84
Collection Date: 9/7/2016
Description: Samples were collected at the Huntington Garden in San Marino California as part of a JPL Subcontract studying HyTES imagery. Samples were taken to JPL and processed within 48 hours of collection. The same leaves were processed in the Nicolet and then measured using the ASD.
Measurement: Bidirectional reflectance
First Column: X
Second Column: Y
X Units: Wavelength (micrometer)
Y Units: Reflectance (percentage)
First X Value: 0.35
Last X Value: 2.5
Number of X Values: 2151
Additional Information: vegetation.tree.bambusa.beecheyana.vswir.jpl133.jpl.asd.ancillary.txt

 0.3500	 5.1210
 0.3510	 5.1790
 0.3520	 5.2160
 0.3530	 5.1730
 0.3540	 5.0710
 0.3550	 5.1130
 0.3560	 5.0840
 0.3570	 5.0060
 0.3580	 5.0090
 0.3590	 5.0300
 0.3600	 4.9860
 0.3610	 4.8880
 0.3620	 4.8750
 0.3630	 4.8970
 0.3640	 4.9210
 0.3650	 4.9250
 0.3660	 4.9270
 0.3670	 4.8990
 0.3680	 4.8620
 0.3690	 4.8650
 0.3700	 4.9210
 0.3710	 4.9250
 0.3720	 4.8500
 0.3730	 4.8290
 0.3740	 4.8410
 0.3750	 4.8830
 0.3760	 4.9320
 0.3770	 4.8710
 0.3780	 4.8410
 0.3790	 4.8720
 0.3800	 4.8880
 0.3810	 4.8620
 0.3820	 4.8360
 0.3830	 4.8400
 0.3840	 4.8480
 0.3850	 4.8380
 0.3860	 4.8510
 0.3870	 4.9190
 0.3880	 4.8930
 0.3890	 4.8420
 0.3900	 4.8250
 0.3910	 4.8710
 0.3920	 4.8890
 0.3930	 4.8910
 0.3940	 4.8950
 0.3950	 4.8770
 0.3960	 4.8600
 0.3970	 4.8720
 0.3980	 4.9260
 0.3990	 4.9280
 0.4000	 4.9170
 0.4010	 4.9160
 0.4020	 4.9020
 0.4030	 4.9230
 0.4040	 4.9610
 0.4050	 4.9820
 0.4060	 4.9710
 0.4070	 4.9640
 0.4080	 4.9750
 0.4090	 4.9980
 0.4100	 5.0080
 0.4110	 5.0160
 0.4120	 5.0310
 0.4130	 5.0450
 0.4140	 5.0560
 0.4150	 5.0700
 0.4160	 5.0880
 0.4170	 5.0860
 0.4180	 5.0970
 0.4190	 5.1180
 0.4200	 5.1130
 0.4210	 5.1170
 0.4220	 5.1220
 0.4230	 5.1220
 0.4240	 5.1320
 0.4250	 5.1390
 0.4260	 5.1420
 0.4270	 5.1450
 0.4280	 5.1420
 0.4290	 5.1460
 0.4300	 5.1580
 0.4310	 5.1600
 0.4320	 5.1610
 0.4330	 5.1580
 0.4340	 5.1510
 0.4350	 5.1540
 0.4360	 5.1580
 0.4370	 5.1590
 0.4380	 5.1590
 0.4390	 5.1600
 0.4400	 5.1680
 0.4410	 5.1810
 0.4420	 5.1860
 0.4430	 5.1850
 0.4440	 5.1850
 0.4450	 5.1920
 0.4460	 5.1910
 0.4470	 5.1890
 0.4480	 5.1910
 0.4490	 5.2030
 0.4500	 5.2090
 0.4510	 5.2090
 0.4520	 5.2060
 0.4530	 5.2090
 0.4540	 5.2100
 0.4550	 5.2120
 0.4560	 5.2210
 0.4570	 5.2250
 0.4580	 5.2220
 0.4590	 5.2170
 0.4600	 5.2210
 0.4610	 5.2200
 0.4620	 5.2160
 0.4630	 5.2150
 0.4640	 5.2200
 0.4650	 5.2210
 0.4660	 5.2160
 0.4670	 5.2140
 0.4680	 5.2110
 0.4690	 5.2130
 0.4700	 5.2190
 0.4710	 5.2140
 0.4720	 5.2100
 0.4730	 5.2080
 0.4740	 5.2080
 0.4750	 5.2080
 0.4760	 5.2050
 0.4770	 5.2030
 0.4780	 5.2140
 0.4790	 5.2120
 0.4800	 5.2060
 0.4810	 5.2090
 0.4820	 5.2040
 0.4830	 5.2000
 0.4840	 5.2000
 0.4850	 5.2040
 0.4860	 5.2050
 0.4870	 5.2050
 0.4880	 5.2080
 0.4890	 5.2140
 0.4900	 5.2210
 0.4910	 5.2270
 0.4920	 5.2310
 0.4930	 5.2350
 0.4940	 5.2440
 0.4950	 5.2610
 0.4960	 5.2730
 0.4970	 5.2850
 0.4980	 5.3000
 0.4990	 5.3190
 0.5000	 5.3420
 0.5010	 5.3650
 0.5020	 5.3910
 0.5030	 5.4210
 0.5040	 5.4570
 0.5050	 5.4970
 0.5060	 5.5400
 0.5070	 5.5960
 0.5080	 5.6510
 0.5090	 5.7100
 0.5100	 5.7870
 0.5110	 5.8700
 0.5120	 5.9590
 0.5130	 6.0530
 0.5140	 6.1630
 0.5150	 6.2820
 0.5160	 6.4120
 0.5170	 6.5540
 0.5180	 6.7000
 0.5190	 6.8570
 0.5200	 7.0230
 0.5210	 7.1870
 0.5220	 7.3540
 0.5230	 7.5250
 0.5240	 7.6990
 0.5250	 7.8640
 0.5260	 8.0230
 0.5270	 8.1740
 0.5280	 8.3160
 0.5290	 8.4510
 0.5300	 8.5760
 0.5310	 8.6900
 0.5320	 8.7860
 0.5330	 8.8750
 0.5340	 8.9550
 0.5350	 9.0230
 0.5360	 9.0840
 0.5370	 9.1330
 0.5380	 9.1750
 0.5390	 9.2180
 0.5400	 9.2530
 0.5410	 9.2810
 0.5420	 9.3060
 0.5430	 9.3310
 0.5440	 9.3540
 0.5450	 9.3770
 0.5460	 9.4010
 0.5470	 9.4220
 0.5480	 9.4410
 0.5490	 9.4560
 0.5500	 9.4650
 0.5510	 9.4700
 0.5520	 9.4660
 0.5530	 9.4510
 0.5540	 9.4290
 0.5550	 9.3960
 0.5560	 9.3510
 0.5570	 9.2960
 0.5580	 9.2320
 0.5590	 9.1570
 0.5600	 9.0720
 0.5610	 8.9760
 0.5620	 8.8770
 0.5630	 8.7740
 0.5640	 8.6670
 0.5650	 8.5530
 0.5660	 8.4330
 0.5670	 8.3130
 0.5680	 8.1920
 0.5690	 8.0710
 0.5700	 7.9490
 0.5710	 7.8310
 0.5720	 7.7180
 0.5730	 7.6130
 0.5740	 7.5150
 0.5750	 7.4220
 0.5760	 7.3360
 0.5770	 7.2560
 0.5780	 7.1780
 0.5790	 7.1030
 0.5800	 7.0340
 0.5810	 6.9720
 0.5820	 6.9150
 0.5830	 6.8600
 0.5840	 6.8100
 0.5850	 6.7640
 0.5860	 6.7200
 0.5870	 6.6790
 0.5880	 6.6390
 0.5890	 6.5980
 0.5900	 6.5680
 0.5910	 6.5440
 0.5920	 6.5220
 0.5930	 6.5010
 0.5940	 6.4800
 0.5950	 6.4590
 0.5960	 6.4400
 0.5970	 6.4210
 0.5980	 6.4030
 0.5990	 6.3850
 0.6000	 6.3640
 0.6010	 6.3420
 0.6020	 6.3190
 0.6030	 6.2930
 0.6040	 6.2640
 0.6050	 6.2330
 0.6060	 6.1980
 0.6070	 6.1600
 0.6080	 6.1210
 0.6090	 6.0760
 0.6100	 6.0280
 0.6110	 5.9780
 0.6120	 5.9380
 0.6130	 5.9030
 0.6140	 5.8690
 0.6150	 5.8320
 0.6160	 5.7960
 0.6170	 5.7620
 0.6180	 5.7310
 0.6190	 5.6990
 0.6200	 5.6710
 0.6210	 5.6500
 0.6220	 5.6310
 0.6230	 5.6120
 0.6240	 5.5940
 0.6250	 5.5810
 0.6260	 5.5710
 0.6270	 5.5590
 0.6280	 5.5480
 0.6290	 5.5390
 0.6300	 5.5320
 0.6310	 5.5240
 0.6320	 5.5140
 0.6330	 5.5050
 0.6340	 5.4910
 0.6350	 5.4730
 0.6360	 5.4510
 0.6370	 5.4300
 0.6380	 5.4040
 0.6390	 5.3750
 0.6400	 5.3480
 0.6410	 5.3190
 0.6420	 5.2900
 0.6430	 5.2600
 0.6440	 5.2310
 0.6450	 5.2060
 0.6460	 5.1810
 0.6470	 5.1570
 0.6480	 5.1380
 0.6490	 5.1190
 0.6500	 5.1010
 0.6510	 5.0880
 0.6520	 5.0770
 0.6530	 5.0680
 0.6540	 5.0590
 0.6550	 5.0510
 0.6560	 5.0410
 0.6570	 5.0290
 0.6580	 5.0150
 0.6590	 5.0070
 0.6600	 4.9970
 0.6610	 4.9820
 0.6620	 4.9740
 0.6630	 4.9670
 0.6640	 4.9620
 0.6650	 4.9580
 0.6660	 4.9570
 0.6670	 4.9610
 0.6680	 4.9680
 0.6690	 4.9750
 0.6700	 4.9850
 0.6710	 5.0000
 0.6720	 5.0170
 0.6730	 5.0330
 0.6740	 5.0520
 0.6750	 5.0750
 0.6760	 5.1010
 0.6770	 5.1300
 0.6780	 5.1600
 0.6790	 5.1910
 0.6800	 5.2260
 0.6810	 5.2610
 0.6820	 5.2970
 0.6830	 5.3340
 0.6840	 5.3730
 0.6850	 5.4110
 0.6860	 5.4500
 0.6870	 5.4910
 0.6880	 5.5410
 0.6890	 5.6020
 0.6900	 5.6810
 0.6910	 5.7850
 0.6920	 5.9170
 0.6930	 6.0860
 0.6940	 6.3010
 0.6950	 6.5690
 0.6960	 6.8950
 0.6970	 7.2830
 0.6980	 7.7280
 0.6990	 8.2300
 0.7000	 8.7860
 0.7010	 9.3900
 0.7020	10.0330
 0.7030	10.7070
 0.7040	11.4070
 0.7050	12.1260
 0.7060	12.8580
 0.7070	13.6010
 0.7080	14.3520
 0.7090	15.1090
 0.7100	15.8710
 0.7110	16.6400
 0.7120	17.4140
 0.7130	18.1870
 0.7140	18.9670
 0.7150	19.7490
 0.7160	20.5280
 0.7170	21.3120
 0.7180	22.0940
 0.7190	22.8750
 0.7200	23.6530
 0.7210	24.4280
 0.7220	25.1970
 0.7230	25.9570
 0.7240	26.7070
 0.7250	27.4440
 0.7260	28.1670
 0.7270	28.8760
 0.7280	29.5670
 0.7290	30.2380
 0.7300	30.8890
 0.7310	31.5210
 0.7320	32.1300
 0.7330	32.7170
 0.7340	33.2800
 0.7350	33.8200
 0.7360	34.3370
 0.7370	34.8290
 0.7380	35.2940
 0.7390	35.7380
 0.7400	36.1570
 0.7410	36.5520
 0.7420	36.9210
 0.7430	37.2690
 0.7440	37.5920
 0.7450	37.8920
 0.7460	38.1710
 0.7470	38.4290
 0.7480	38.6680
 0.7490	38.8890
 0.7500	39.0880
 0.7510	39.2710
 0.7520	39.4410
 0.7530	39.5950
 0.7540	39.7360
 0.7550	39.8630
 0.7560	39.9790
 0.7570	40.0850
 0.7580	40.1790
 0.7590	40.2630
 0.7600	40.3430
 0.7610	40.4150
 0.7620	40.4770
 0.7630	40.5320
 0.7640	40.5810
 0.7650	40.6270
 0.7660	40.6670
 0.7670	40.7020
 0.7680	40.7330
 0.7690	40.7600
 0.7700	40.7840
 0.7710	40.8040
 0.7720	40.8210
 0.7730	40.8380
 0.7740	40.8540
 0.7750	40.8670
 0.7760	40.8800
 0.7770	40.8890
 0.7780	40.8960
 0.7790	40.9050
 0.7800	40.9130
 0.7810	40.9210
 0.7820	40.9280
 0.7830	40.9310
 0.7840	40.9320
 0.7850	40.9340
 0.7860	40.9370
 0.7870	40.9390
 0.7880	40.9400
 0.7890	40.9380
 0.7900	40.9340
 0.7910	40.9330
 0.7920	40.9300
 0.7930	40.9260
 0.7940	40.9200
 0.7950	40.9160
 0.7960	40.9100
 0.7970	40.9010
 0.7980	40.8920
 0.7990	40.8820
 0.8000	40.8720
 0.8010	40.8620
 0.8020	40.8490
 0.8030	40.8370
 0.8040	40.8270
 0.8050	40.8180
 0.8060	40.8030
 0.8070	40.7880
 0.8080	40.7730
 0.8090	40.7590
 0.8100	40.7440
 0.8110	40.7300
 0.8120	40.7170
 0.8130	40.7000
 0.8140	40.6810
 0.8150	40.6630
 0.8160	40.6470
 0.8170	40.6310
 0.8180	40.6140
 0.8190	40.5970
 0.8200	40.5810
 0.8210	40.5620
 0.8220	40.5440
 0.8230	40.5280
 0.8240	40.5120
 0.8250	40.4950
 0.8260	40.4780
 0.8270	40.4630
 0.8280	40.4490
 0.8290	40.4310
 0.8300	40.4120
 0.8310	40.3970
 0.8320	40.3820
 0.8330	40.3690
 0.8340	40.3550
 0.8350	40.3420
 0.8360	40.3300
 0.8370	40.3160
 0.8380	40.3010
 0.8390	40.2890
 0.8400	40.2790
 0.8410	40.2690
 0.8420	40.2590
 0.8430	40.2500
 0.8440	40.2410
 0.8450	40.2330
 0.8460	40.2250
 0.8470	40.2160
 0.8480	40.2090
 0.8490	40.2030
 0.8500	40.1940
 0.8510	40.1870
 0.8520	40.1820
 0.8530	40.1770
 0.8540	40.1700
 0.8550	40.1670
 0.8560	40.1650
 0.8570	40.1630
 0.8580	40.1610
 0.8590	40.1600
 0.8600	40.1600
 0.8610	40.1610
 0.8620	40.1580
 0.8630	40.1560
 0.8640	40.1550
 0.8650	40.1560
 0.8660	40.1590
 0.8670	40.1620
 0.8680	40.1660
 0.8690	40.1740
 0.8700	40.1750
 0.8710	40.1760
 0.8720	40.1790
 0.8730	40.1840
 0.8740	40.1910
 0.8750	40.1940
 0.8760	40.1960
 0.8770	40.2030
 0.8780	40.2110
 0.8790	40.2170
 0.8800	40.2230
 0.8810	40.2260
 0.8820	40.2330
 0.8830	40.2410
 0.8840	40.2480
 0.8850	40.2560
 0.8860	40.2640
 0.8870	40.2710
 0.8880	40.2780
 0.8890	40.2820
 0.8900	40.2930
 0.8910	40.3040
 0.8920	40.3080
 0.8930	40.3140
 0.8940	40.3230
 0.8950	40.3320
 0.8960	40.3390
 0.8970	40.3490
 0.8980	40.3550
 0.8990	40.3600
 0.9000	40.3710
 0.9010	40.3790
 0.9020	40.3870
 0.9030	40.3970
 0.9040	40.4000
 0.9050	40.4060
 0.9060	40.4130
 0.9070	40.4210
 0.9080	40.4260
 0.9090	40.4320
 0.9100	40.4340
 0.9110	40.4330
 0.9120	40.4410
 0.9130	40.4490
 0.9140	40.4540
 0.9150	40.4540
 0.9160	40.4540
 0.9170	40.4560
 0.9180	40.4560
 0.9190	40.4530
 0.9200	40.4530
 0.9210	40.4560
 0.9220	40.4590
 0.9230	40.4570
 0.9240	40.4580
 0.9250	40.4560
 0.9260	40.4510
 0.9270	40.4440
 0.9280	40.4350
 0.9290	40.4260
 0.9300	40.4190
 0.9310	40.4150
 0.9320	40.4080
 0.9330	40.3980
 0.9340	40.3870
 0.9350	40.3810
 0.9360	40.3670
 0.9370	40.3520
 0.9380	40.3430
 0.9390	40.3370
 0.9400	40.3210
 0.9410	40.3030
 0.9420	40.2890
 0.9430	40.2760
 0.9440	40.2720
 0.9450	40.2580
 0.9460	40.2280
 0.9470	40.2090
 0.9480	40.1940
 0.9490	40.1750
 0.9500	40.1490
 0.9510	40.1220
 0.9520	40.0970
 0.9530	40.0730
 0.9540	40.0490
 0.9550	40.0250
 0.9560	40.0070
 0.9570	39.9830
 0.9580	39.9460
 0.9590	39.9170
 0.9600	39.9080
 0.9610	39.8990
 0.9620	39.8720
 0.9630	39.8550
 0.9640	39.8390
 0.9650	39.8210
 0.9660	39.8020
 0.9670	39.7860
 0.9680	39.7760
 0.9690	39.7700
 0.9700	39.7610
 0.9710	39.7430
 0.9720	39.7280
 0.9730	39.7190
 0.9740	39.7160
 0.9750	39.7110
 0.9760	39.7100
 0.9770	39.7060
 0.9780	39.6910
 0.9790	39.6780
 0.9800	39.6640
 0.9810	39.6530
 0.9820	39.6520
 0.9830	39.6460
 0.9840	39.6380
 0.9850	39.6360
 0.9860	39.6420
 0.9870	39.6320
 0.9880	39.6250
 0.9890	39.6240
 0.9900	39.6230
 0.9910	39.6190
 0.9920	39.6180
 0.9930	39.6170
 0.9940	39.6100
 0.9950	39.5920
 0.9960	39.5910
 0.9970	39.5960
 0.9980	39.5850
 0.9990	39.5880
 1.0000	39.5890
 1.0010	40.0650
 1.0020	40.0670
 1.0030	40.0640
 1.0040	40.0650
 1.0050	40.0680
 1.0060	40.0680
 1.0070	40.0680
 1.0080	40.0660
 1.0090	40.0580
 1.0100	40.0570
 1.0110	40.0570
 1.0120	40.0570
 1.0130	40.0590
 1.0140	40.0590
 1.0150	40.0580
 1.0160	40.0570
 1.0170	40.0550
 1.0180	40.0500
 1.0190	40.0450
 1.0200	40.0430
 1.0210	40.0420
 1.0220	40.0440
 1.0230	40.0450
 1.0240	40.0480
 1.0250	40.0480
 1.0260	40.0480
 1.0270	40.0470
 1.0280	40.0430
 1.0290	40.0410
 1.0300	40.0390
 1.0310	40.0390
 1.0320	40.0410
 1.0330	40.0410
 1.0340	40.0400
 1.0350	40.0410
 1.0360	40.0410
 1.0370	40.0420
 1.0380	40.0420
 1.0390	40.0440
 1.0400	40.0440
 1.0410	40.0440
 1.0420	40.0430
 1.0430	40.0400
 1.0440	40.0400
 1.0450	40.0430
 1.0460	40.0440
 1.0470	40.0460
 1.0480	40.0460
 1.0490	40.0430
 1.0500	40.0410
 1.0510	40.0400
 1.0520	40.0390
 1.0530	40.0380
 1.0540	40.0370
 1.0550	40.0370
 1.0560	40.0400
 1.0570	40.0380
 1.0580	40.0340
 1.0590	40.0320
 1.0600	40.0260
 1.0610	40.0230
 1.0620	40.0230
 1.0630	40.0220
 1.0640	40.0220
 1.0650	40.0200
 1.0660	40.0180
 1.0670	40.0160
 1.0680	40.0130
 1.0690	40.0100
 1.0700	40.0060
 1.0710	40.0030
 1.0720	40.0000
 1.0730	39.9990
 1.0740	39.9960
 1.0750	39.9950
 1.0760	39.9930
 1.0770	39.9900
 1.0780	39.9890
 1.0790	39.9890
 1.0800	39.9870
 1.0810	39.9850
 1.0820	39.9820
 1.0830	39.9760
 1.0840	39.9720
 1.0850	39.9680
 1.0860	39.9640
 1.0870	39.9620
 1.0880	39.9600
 1.0890	39.9580
 1.0900	39.9570
 1.0910	39.9530
 1.0920	39.9480
 1.0930	39.9440
 1.0940	39.9380
 1.0950	39.9350
 1.0960	39.9350
 1.0970	39.9320
 1.0980	39.9280
 1.0990	39.9250
 1.1000	39.9220
 1.1010	39.9180
 1.1020	39.9140
 1.1030	39.9130
 1.1040	39.9080
 1.1050	39.9000
 1.1060	39.8950
 1.1070	39.8890
 1.1080	39.8840
 1.1090	39.8810
 1.1100	39.8770
 1.1110	39.8740
 1.1120	39.8690
 1.1130	39.8610
 1.1140	39.8550
 1.1150	39.8490
 1.1160	39.8420
 1.1170	39.8350
 1.1180	39.8280
 1.1190	39.8220
 1.1200	39.8120
 1.1210	39.8030
 1.1220	39.7930
 1.1230	39.7810
 1.1240	39.7670
 1.1250	39.7510
 1.1260	39.7350
 1.1270	39.7160
 1.1280	39.6970
 1.1290	39.6750
 1.1300	39.6510
 1.1310	39.6240
 1.1320	39.5940
 1.1330	39.5620
 1.1340	39.5300
 1.1350	39.4940
 1.1360	39.4570
 1.1370	39.4170
 1.1380	39.3750
 1.1390	39.3320
 1.1400	39.2870
 1.1410	39.2400
 1.1420	39.1910
 1.1430	39.1410
 1.1440	39.0920
 1.1450	39.0410
 1.1460	38.9930
 1.1470	38.9460
 1.1480	38.8990
 1.1490	38.8530
 1.1500	38.8110
 1.1510	38.7700
 1.1520	38.7320
 1.1530	38.6950
 1.1540	38.6620
 1.1550	38.6320
 1.1560	38.6040
 1.1570	38.5790
 1.1580	38.5580
 1.1590	38.5360
 1.1600	38.5160
 1.1610	38.4980
 1.1620	38.4810
 1.1630	38.4670
 1.1640	38.4540
 1.1650	38.4420
 1.1660	38.4330
 1.1670	38.4240
 1.1680	38.4160
 1.1690	38.4090
 1.1700	38.4010
 1.1710	38.3940
 1.1720	38.3860
 1.1730	38.3780
 1.1740	38.3700
 1.1750	38.3640
 1.1760	38.3570
 1.1770	38.3490
 1.1780	38.3420
 1.1790	38.3340
 1.1800	38.3250
 1.1810	38.3150
 1.1820	38.3060
 1.1830	38.2960
 1.1840	38.2860
 1.1850	38.2770
 1.1860	38.2690
 1.1870	38.2600
 1.1880	38.2510
 1.1890	38.2410
 1.1900	38.2330
 1.1910	38.2240
 1.1920	38.2170
 1.1930	38.2120
 1.1940	38.2060
 1.1950	38.2010
 1.1960	38.1950
 1.1970	38.1920
 1.1980	38.1880
 1.1990	38.1850
 1.2000	38.1830
 1.2010	38.1800
 1.2020	38.1790
 1.2030	38.1780
 1.2040	38.1770
 1.2050	38.1760
 1.2060	38.1750
 1.2070	38.1730
 1.2080	38.1740
 1.2090	38.1740
 1.2100	38.1760
 1.2110	38.1760
 1.2120	38.1770
 1.2130	38.1770
 1.2140	38.1770
 1.2150	38.1790
 1.2160	38.1820
 1.2170	38.1860
 1.2180	38.1910
 1.2190	38.1950
 1.2200	38.1980
 1.2210	38.2010
 1.2220	38.2030
 1.2230	38.2070
 1.2240	38.2090
 1.2250	38.2120
 1.2260	38.2150
 1.2270	38.2190
 1.2280	38.2230
 1.2290	38.2260
 1.2300	38.2290
 1.2310	38.2320
 1.2320	38.2360
 1.2330	38.2400
 1.2340	38.2420
 1.2350	38.2440
 1.2360	38.2470
 1.2370	38.2480
 1.2380	38.2500
 1.2390	38.2520
 1.2400	38.2530
 1.2410	38.2530
 1.2420	38.2520
 1.2430	38.2510
 1.2440	38.2520
 1.2450	38.2530
 1.2460	38.2540
 1.2470	38.2560
 1.2480	38.2560
 1.2490	38.2550
 1.2500	38.2540
 1.2510	38.2540
 1.2520	38.2530
 1.2530	38.2510
 1.2540	38.2490
 1.2550	38.2470
 1.2560	38.2440
 1.2570	38.2430
 1.2580	38.2420
 1.2590	38.2400
 1.2600	38.2370
 1.2610	38.2330
 1.2620	38.2290
 1.2630	38.2230
 1.2640	38.2170
 1.2650	38.2110
 1.2660	38.2060
 1.2670	38.2000
 1.2680	38.1940
 1.2690	38.1880
 1.2700	38.1820
 1.2710	38.1750
 1.2720	38.1680
 1.2730	38.1610
 1.2740	38.1530
 1.2750	38.1440
 1.2760	38.1360
 1.2770	38.1270
 1.2780	38.1170
 1.2790	38.1080
 1.2800	38.0970
 1.2810	38.0860
 1.2820	38.0760
 1.2830	38.0650
 1.2840	38.0540
 1.2850	38.0430
 1.2860	38.0310
 1.2870	38.0180
 1.2880	38.0040
 1.2890	37.9890
 1.2900	37.9720
 1.2910	37.9540
 1.2920	37.9360
 1.2930	37.9190
 1.2940	37.9000
 1.2950	37.8800
 1.2960	37.8570
 1.2970	37.8350
 1.2980	37.8120
 1.2990	37.7890
 1.3000	37.7650
 1.3010	37.7400
 1.3020	37.7130
 1.3030	37.6860
 1.3040	37.6570
 1.3050	37.6300
 1.3060	37.6030
 1.3070	37.5730
 1.3080	37.5430
 1.3090	37.5130
 1.3100	37.4820
 1.3110	37.4490
 1.3120	37.4160
 1.3130	37.3820
 1.3140	37.3470
 1.3150	37.3100
 1.3160	37.2720
 1.3170	37.2340
 1.3180	37.1940
 1.3190	37.1530
 1.3200	37.1120
 1.3210	37.0710
 1.3220	37.0290
 1.3230	36.9860
 1.3240	36.9430
 1.3250	36.8970
 1.3260	36.8500
 1.3270	36.8010
 1.3280	36.7510
 1.3290	36.6990
 1.3300	36.6480
 1.3310	36.5970
 1.3320	36.5450
 1.3330	36.4920
 1.3340	36.4390
 1.3350	36.3830
 1.3360	36.3280
 1.3370	36.2710
 1.3380	36.2140
 1.3390	36.1590
 1.3400	36.1040
 1.3410	36.0490
 1.3420	35.9950
 1.3430	35.9400
 1.3440	35.8840
 1.3450	35.8290
 1.3460	35.7730
 1.3470	35.7170
 1.3480	35.6610
 1.3490	35.6060
 1.3500	35.5510
 1.3510	35.4950
 1.3520	35.4400
 1.3530	35.3850
 1.3540	35.3290
 1.3550	35.2720
 1.3560	35.2140
 1.3570	35.1550
 1.3580	35.0970
 1.3590	35.0370
 1.3600	34.9770
 1.3610	34.9160
 1.3620	34.8510
 1.3630	34.7830
 1.3640	34.7130
 1.3650	34.6390
 1.3660	34.5630
 1.3670	34.4830
 1.3680	34.3980
 1.3690	34.3070
 1.3700	34.2090
 1.3710	34.1060
 1.3720	33.9940
 1.3730	33.8730
 1.3740	33.7430
 1.3750	33.6020
 1.3760	33.4490
 1.3770	33.2840
 1.3780	33.1030
 1.3790	32.9110
 1.3800	32.7030
 1.3810	32.4770
 1.3820	32.2380
 1.3830	31.9840
 1.3840	31.7150
 1.3850	31.4320
 1.3860	31.1350
 1.3870	30.8220
 1.3880	30.5000
 1.3890	30.1660
 1.3900	29.8190
 1.3910	29.4660
 1.3920	29.1020
 1.3930	28.7300
 1.3940	28.3530
 1.3950	27.9680
 1.3960	27.5830
 1.3970	27.2000
 1.3980	26.8170
 1.3990	26.4420
 1.4000	26.0720
 1.4010	25.7060
 1.4020	25.3520
 1.4030	25.0050
 1.4040	24.6700
 1.4050	24.3480
 1.4060	24.0390
 1.4070	23.7460
 1.4080	23.4660
 1.4090	23.2000
 1.4100	22.9480
 1.4110	22.7100
 1.4120	22.4870
 1.4130	22.2800
 1.4140	22.0860
 1.4150	21.9070
 1.4160	21.7420
 1.4170	21.5890
 1.4180	21.4470
 1.4190	21.3150
 1.4200	21.1930
 1.4210	21.0830
 1.4220	20.9810
 1.4230	20.8900
 1.4240	20.8070
 1.4250	20.7310
 1.4260	20.6640
 1.4270	20.6020
 1.4280	20.5480
 1.4290	20.4990
 1.4300	20.4570
 1.4310	20.4200
 1.4320	20.3890
 1.4330	20.3630
 1.4340	20.3430
 1.4350	20.3250
 1.4360	20.3120
 1.4370	20.3030
 1.4380	20.2970
 1.4390	20.2950
 1.4400	20.2960
 1.4410	20.3000
 1.4420	20.3070
 1.4430	20.3160
 1.4440	20.3260
 1.4450	20.3370
 1.4460	20.3500
 1.4470	20.3640
 1.4480	20.3800
 1.4490	20.3980
 1.4500	20.4160
 1.4510	20.4340
 1.4520	20.4550
 1.4530	20.4770
 1.4540	20.5000
 1.4550	20.5260
 1.4560	20.5530
 1.4570	20.5820
 1.4580	20.6140
 1.4590	20.6490
 1.4600	20.6880
 1.4610	20.7310
 1.4620	20.7770
 1.4630	20.8280
 1.4640	20.8820
 1.4650	20.9410
 1.4660	21.0040
 1.4670	21.0720
 1.4680	21.1440
 1.4690	21.2190
 1.4700	21.2990
 1.4710	21.3820
 1.4720	21.4670
 1.4730	21.5550
 1.4740	21.6460
 1.4750	21.7390
 1.4760	21.8360
 1.4770	21.9330
