Name: Baccharis pilularis 3
Type: vegetation
Class: Shrub
Genus: Baccharis
Species: pilularis
Sample No.: VH047
Owner: UCSB
Wavelength Range: VSWIR
Origin: 34.5088; -119.7683; WGS84
Collection Date: 4/1/2013
Description: Samples were collected as part of the HyspIRI Airborne Campaign. 48 individual plants were sampled in three times in 2013 - spring  summer  and fall. The name of the sample includes a 1  2  or 3 which references a different individual of the species. Samples were taken to JPL and processed within 48 hours of collection. The same leaves were processed in the Nicolet and then measured using the ASD.
Measurement: Bidirectional reflectance
First Column: X
Second Column: Y
X Units: Wavelength (micrometers)
Y Units: Reflectance (percentage)
First X Value: 0.35
Last X Value: 2.5
Number of X Values: 2151
Additional Information: vegetation.shrub.baccharis.pilularis.vswir.vh047.ucsb.asd.ancillary.txt

 0.3500	 7.2770
 0.3510	 7.6620
 0.3520	 7.7230
 0.3530	 7.5670
 0.3540	 7.4390
 0.3550	 7.3710
 0.3560	 7.4210
 0.3570	 7.4650
 0.3580	 7.3430
 0.3590	 7.3870
 0.3600	 7.4420
 0.3610	 7.4320
 0.3620	 7.4540
 0.3630	 7.4120
 0.3640	 7.4040
 0.3650	 7.4900
 0.3660	 7.4230
 0.3670	 7.4490
 0.3680	 7.5110
 0.3690	 7.3750
 0.3700	 7.3340
 0.3710	 7.4050
 0.3720	 7.4970
 0.3730	 7.3880
 0.3740	 7.3600
 0.3750	 7.3990
 0.3760	 7.4060
 0.3770	 7.3560
 0.3780	 7.3190
 0.3790	 7.3110
 0.3800	 7.2960
 0.3810	 7.2790
 0.3820	 7.2550
 0.3830	 7.2380
 0.3840	 7.2890
 0.3850	 7.3060
 0.3860	 7.2820
 0.3870	 7.2490
 0.3880	 7.2490
 0.3890	 7.2820
 0.3900	 7.3100
 0.3910	 7.2700
 0.3920	 7.2970
 0.3930	 7.3100
 0.3940	 7.2580
 0.3950	 7.2790
 0.3960	 7.3170
 0.3970	 7.3310
 0.3980	 7.2930
 0.3990	 7.2360
 0.4000	 7.2190
 0.4010	 7.2410
 0.4020	 7.2300
 0.4030	 7.1840
 0.4040	 7.1670
 0.4050	 7.2150
 0.4060	 7.2420
 0.4070	 7.2390
 0.4080	 7.2160
 0.4090	 7.1940
 0.4100	 7.2030
 0.4110	 7.2060
 0.4120	 7.1890
 0.4130	 7.1920
 0.4140	 7.2170
 0.4150	 7.2310
 0.4160	 7.2120
 0.4170	 7.2420
 0.4180	 7.2620
 0.4190	 7.2570
 0.4200	 7.2550
 0.4210	 7.2760
 0.4220	 7.3020
 0.4230	 7.3160
 0.4240	 7.3360
 0.4250	 7.3640
 0.4260	 7.3940
 0.4270	 7.4190
 0.4280	 7.4390
 0.4290	 7.4730
 0.4300	 7.5180
 0.4310	 7.5410
 0.4320	 7.5620
 0.4330	 7.5820
 0.4340	 7.6010
 0.4350	 7.6330
 0.4360	 7.6670
 0.4370	 7.7050
 0.4380	 7.7580
 0.4390	 7.8050
 0.4400	 7.8460
 0.4410	 7.8820
 0.4420	 7.9080
 0.4430	 7.9400
 0.4440	 7.9740
 0.4450	 8.0030
 0.4460	 8.0400
 0.4470	 8.0730
 0.4480	 8.0980
 0.4490	 8.1230
 0.4500	 8.1450
 0.4510	 8.1680
 0.4520	 8.1970
 0.4530	 8.2340
 0.4540	 8.2570
 0.4550	 8.2700
 0.4560	 8.2900
 0.4570	 8.3100
 0.4580	 8.3300
 0.4590	 8.3480
 0.4600	 8.3460
 0.4610	 8.3560
 0.4620	 8.3710
 0.4630	 8.3760
 0.4640	 8.3790
 0.4650	 8.3930
 0.4660	 8.4140
 0.4670	 8.4140
 0.4680	 8.4210
 0.4690	 8.4230
 0.4700	 8.4110
 0.4710	 8.4250
 0.4720	 8.4380
 0.4730	 8.4400
 0.4740	 8.4340
 0.4750	 8.4410
 0.4760	 8.4490
 0.4770	 8.4510
 0.4780	 8.4480
 0.4790	 8.4590
 0.4800	 8.4720
 0.4810	 8.4700
 0.4820	 8.4710
 0.4830	 8.4720
 0.4840	 8.4710
 0.4850	 8.4680
 0.4860	 8.4730
 0.4870	 8.4820
 0.4880	 8.4940
 0.4890	 8.5120
 0.4900	 8.5220
 0.4910	 8.5270
 0.4920	 8.5350
 0.4930	 8.5480
 0.4940	 8.5680
 0.4950	 8.5920
 0.4960	 8.6040
 0.4970	 8.6180
 0.4980	 8.6400
 0.4990	 8.6690
 0.5000	 8.6970
 0.5010	 8.7250
 0.5020	 8.7520
 0.5030	 8.7820
 0.5040	 8.8190
 0.5050	 8.8650
 0.5060	 8.9170
 0.5070	 8.9550
 0.5080	 9.0000
 0.5090	 9.0550
 0.5100	 9.1170
 0.5110	 9.1930
 0.5120	 9.2680
 0.5130	 9.3380
 0.5140	 9.4170
 0.5150	 9.5110
 0.5160	 9.6110
 0.5170	 9.7110
 0.5180	 9.8240
 0.5190	 9.9440
 0.5200	10.0680
 0.5210	10.1980
 0.5220	10.3340
 0.5230	10.4640
 0.5240	10.5850
 0.5250	10.7140
 0.5260	10.8400
 0.5270	10.9610
 0.5280	11.0790
 0.5290	11.1940
 0.5300	11.3000
 0.5310	11.3960
 0.5320	11.4810
 0.5330	11.5610
 0.5340	11.6370
 0.5350	11.7080
 0.5360	11.7670
 0.5370	11.8210
 0.5380	11.8700
 0.5390	11.9090
 0.5400	11.9460
 0.5410	11.9800
 0.5420	12.0090
 0.5430	12.0350
 0.5440	12.0650
 0.5450	12.0980
 0.5460	12.1350
 0.5470	12.1780
 0.5480	12.2210
 0.5490	12.2550
 0.5500	12.2770
 0.5510	12.2890
 0.5520	12.2950
 0.5530	12.2960
 0.5540	12.2870
 0.5550	12.2660
 0.5560	12.2340
 0.5570	12.1950
 0.5580	12.1450
 0.5590	12.0890
 0.5600	12.0280
 0.5610	11.9580
 0.5620	11.8880
 0.5630	11.8190
 0.5640	11.7490
 0.5650	11.6650
 0.5660	11.5720
 0.5670	11.4770
 0.5680	11.3880
 0.5690	11.2880
 0.5700	11.1870
 0.5710	11.0940
 0.5720	11.0030
 0.5730	10.9200
 0.5740	10.8440
 0.5750	10.7700
 0.5760	10.7040
 0.5770	10.6410
 0.5780	10.5800
 0.5790	10.5180
 0.5800	10.4620
 0.5810	10.4120
 0.5820	10.3650
 0.5830	10.3250
 0.5840	10.2850
 0.5850	10.2450
 0.5860	10.2080
 0.5870	10.1690
 0.5880	10.1330
 0.5890	10.1050
 0.5900	10.0920
 0.5910	10.0860
 0.5920	10.0810
 0.5930	10.0780
 0.5940	10.0700
 0.5950	10.0610
 0.5960	10.0510
 0.5970	10.0350
 0.5980	10.0200
 0.5990	10.0050
 0.6000	 9.9890
 0.6010	 9.9670
 0.6020	 9.9470
 0.6030	 9.9280
 0.6040	 9.9000
 0.6050	 9.8730
 0.6060	 9.8410
 0.6070	 9.8020
 0.6080	 9.7630
 0.6090	 9.7210
 0.6100	 9.6680
 0.6110	 9.6000
 0.6120	 9.5590
 0.6130	 9.5300
 0.6140	 9.5000
 0.6150	 9.4660
 0.6160	 9.4320
 0.6170	 9.4000
 0.6180	 9.3700
 0.6190	 9.3440
 0.6200	 9.3190
 0.6210	 9.2960
 0.6220	 9.2810
 0.6230	 9.2640
 0.6240	 9.2450
 0.6250	 9.2280
 0.6260	 9.2200
 0.6270	 9.2140
 0.6280	 9.2070
 0.6290	 9.1950
 0.6300	 9.1870
 0.6310	 9.1820
 0.6320	 9.1760
 0.6330	 9.1690
 0.6340	 9.1640
 0.6350	 9.1560
 0.6360	 9.1420
 0.6370	 9.1230
 0.6380	 9.1020
 0.6390	 9.0790
 0.6400	 9.0550
 0.6410	 9.0310
 0.6420	 9.0050
 0.6430	 8.9780
 0.6440	 8.9470
 0.6450	 8.9170
 0.6460	 8.8870
 0.6470	 8.8560
 0.6480	 8.8240
 0.6490	 8.7950
 0.6500	 8.7700
 0.6510	 8.7500
 0.6520	 8.7240
 0.6530	 8.6960
 0.6540	 8.6680
 0.6550	 8.6450
 0.6560	 8.6200
 0.6570	 8.5910
 0.6580	 8.5600
 0.6590	 8.5250
 0.6600	 8.4910
 0.6610	 8.4600
 0.6620	 8.4310
 0.6630	 8.4020
 0.6640	 8.3760
 0.6650	 8.3540
 0.6660	 8.3320
 0.6670	 8.3140
 0.6680	 8.3010
 0.6690	 8.2900
 0.6700	 8.2810
 0.6710	 8.2750
 0.6720	 8.2700
 0.6730	 8.2690
 0.6740	 8.2730
 0.6750	 8.2800
 0.6760	 8.2880
 0.6770	 8.2980
 0.6780	 8.3100
 0.6790	 8.3230
 0.6800	 8.3370
 0.6810	 8.3570
 0.6820	 8.3830
 0.6830	 8.4140
 0.6840	 8.4480
 0.6850	 8.4920
 0.6860	 8.5450
 0.6870	 8.6040
 0.6880	 8.6770
 0.6890	 8.7640
 0.6900	 8.8690
 0.6910	 8.9970
 0.6920	 9.1490
 0.6930	 9.3290
 0.6940	 9.5400
 0.6950	 9.7850
 0.6960	10.0690
 0.6970	10.3940
 0.6980	10.7580
 0.6990	11.1630
 0.7000	11.6100
 0.7010	12.0960
 0.7020	12.6190
 0.7030	13.1780
 0.7040	13.7710
 0.7050	14.3940
 0.7060	15.0380
 0.7070	15.7110
 0.7080	16.4120
 0.7090	17.1370
 0.7100	17.8910
 0.7110	18.6700
 0.7120	19.4730
 0.7130	20.3000
 0.7140	21.1490
 0.7150	22.0190
 0.7160	22.9110
 0.7170	23.8160
 0.7180	24.7380
 0.7190	25.6780
 0.7200	26.6310
 0.7210	27.5960
 0.7220	28.5670
 0.7230	29.5410
 0.7240	30.5140
 0.7250	31.4850
 0.7260	32.4490
 0.7270	33.4010
 0.7280	34.3370
 0.7290	35.2500
 0.7300	36.1410
 0.7310	37.0140
 0.7320	37.8610
 0.7330	38.6820
 0.7340	39.4740
 0.7350	40.2360
 0.7360	40.9740
 0.7370	41.6810
 0.7380	42.3530
 0.7390	42.9920
 0.7400	43.6060
 0.7410	44.1890
 0.7420	44.7310
 0.7430	45.2530
 0.7440	45.7410
 0.7450	46.1940
 0.7460	46.6270
 0.7470	47.0300
 0.7480	47.4040
 0.7490	47.7530
 0.7500	48.0760
 0.7510	48.3820
 0.7520	48.6660
 0.7530	48.9210
 0.7540	49.1610
 0.7550	49.3810
 0.7560	49.5770
 0.7570	49.7540
 0.7580	49.9220
 0.7590	50.0800
 0.7600	50.2250
 0.7610	50.3570
 0.7620	50.4800
 0.7630	50.5940
 0.7640	50.6980
 0.7650	50.7960
 0.7660	50.8890
 0.7670	50.9720
 0.7680	51.0400
 0.7690	51.1010
 0.7700	51.1650
 0.7710	51.2330
 0.7720	51.2920
 0.7730	51.3430
 0.7740	51.3900
 0.7750	51.4350
 0.7760	51.4820
 0.7770	51.5270
 0.7780	51.5700
 0.7790	51.6130
 0.7800	51.6460
 0.7810	51.6790
 0.7820	51.7180
 0.7830	51.7550
 0.7840	51.7850
 0.7850	51.8120
 0.7860	51.8360
 0.7870	51.8540
 0.7880	51.8750
 0.7890	51.9030
 0.7900	51.9350
 0.7910	51.9620
 0.7920	51.9860
 0.7930	52.0070
 0.7940	52.0250
 0.7950	52.0400
 0.7960	52.0560
 0.7970	52.0750
 0.7980	52.0880
 0.7990	52.1010
 0.8000	52.1130
 0.8010	52.1240
 0.8020	52.1400
 0.8030	52.1480
 0.8040	52.1490
 0.8050	52.1540
 0.8060	52.1570
 0.8070	52.1590
 0.8080	52.1640
 0.8090	52.1780
 0.8100	52.1830
 0.8110	52.1860
 0.8120	52.1870
 0.8130	52.1730
 0.8140	52.1730
 0.8150	52.1770
 0.8160	52.1690
 0.8170	52.1650
 0.8180	52.1640
 0.8190	52.1610
 0.8200	52.1560
 0.8210	52.1500
 0.8220	52.1490
 0.8230	52.1480
 0.8240	52.1330
 0.8250	52.1200
 0.8260	52.1090
 0.8270	52.0980
 0.8280	52.0840
 0.8290	52.0730
 0.8300	52.0580
 0.8310	52.0350
 0.8320	52.0200
 0.8330	52.0150
 0.8340	52.0110
 0.8350	51.9980
 0.8360	51.9880
 0.8370	51.9880
 0.8380	51.9890
 0.8390	51.9720
 0.8400	51.9690
 0.8410	51.9700
 0.8420	51.9690
 0.8430	51.9700
 0.8440	51.9770
 0.8450	51.9860
 0.8460	51.9900
 0.8470	51.9860
 0.8480	51.9890
 0.8490	51.9980
 0.8500	52.0100
 0.8510	52.0110
 0.8520	52.0160
 0.8530	52.0230
 0.8540	52.0250
 0.8550	52.0240
 0.8560	52.0270
 0.8570	52.0310
 0.8580	52.0290
 0.8590	52.0330
 0.8600	52.0410
 0.8610	52.0520
 0.8620	52.0640
 0.8630	52.0710
 0.8640	52.0770
 0.8650	52.0830
 0.8660	52.0850
 0.8670	52.0910
 0.8680	52.1000
 0.8690	52.1120
 0.8700	52.1190
 0.8710	52.1200
 0.8720	52.1200
 0.8730	52.1280
 0.8740	52.1340
 0.8750	52.1410
 0.8760	52.1530
 0.8770	52.1720
 0.8780	52.1840
 0.8790	52.1920
 0.8800	52.1990
 0.8810	52.2120
 0.8820	52.2170
 0.8830	52.2200
 0.8840	52.2270
 0.8850	52.2360
 0.8860	52.2460
 0.8870	52.2530
 0.8880	52.2560
 0.8890	52.2570
 0.8900	52.2520
 0.8910	52.2510
 0.8920	52.2640
 0.8930	52.2570
 0.8940	52.2600
 0.8950	52.2690
 0.8960	52.2650
 0.8970	52.2640
 0.8980	52.2660
 0.8990	52.2640
 0.9000	52.2520
 0.9010	52.2540
 0.9020	52.2580
 0.9030	52.2580
 0.9040	52.2530
 0.9050	52.2490
 0.9060	52.2510
 0.9070	52.2550
 0.9080	52.2430
 0.9090	52.2370
 0.9100	52.2360
 0.9110	52.2380
 0.9120	52.2450
 0.9130	52.2410
 0.9140	52.2300
 0.9150	52.2210
 0.9160	52.2210
 0.9170	52.2180
 0.9180	52.2050
 0.9190	52.1830
 0.9200	52.1650
 0.9210	52.1520
 0.9220	52.1440
 0.9230	52.1360
 0.9240	52.1050
 0.9250	52.0660
 0.9260	52.0300
 0.9270	52.0070
 0.9280	51.9760
 0.9290	51.9370
 0.9300	51.8950
 0.9310	51.8600
 0.9320	51.8180
 0.9330	51.7740
 0.9340	51.7240
 0.9350	51.6590
 0.9360	51.5890
 0.9370	51.5200
 0.9380	51.4540
 0.9390	51.3890
 0.9400	51.3400
 0.9410	51.2720
 0.9420	51.1750
 0.9430	51.1010
 0.9440	51.0100
 0.9450	50.9140
 0.9460	50.8210
 0.9470	50.7100
 0.9480	50.5780
 0.9490	50.4380
 0.9500	50.3060
 0.9510	50.1780
 0.9520	50.0330
 0.9530	49.8710
 0.9540	49.6970
 0.9550	49.5220
 0.9560	49.3580
 0.9570	49.2060
 0.9580	49.0600
 0.9590	48.9060
 0.9600	48.7630
 0.9610	48.6390
 0.9620	48.5300
 0.9630	48.4230
 0.9640	48.3430
 0.9650	48.2740
 0.9660	48.1970
 0.9670	48.1350
 0.9680	48.0750
 0.9690	48.0190
 0.9700	47.9730
 0.9710	47.9350
 0.9720	47.8970
 0.9730	47.8650
 0.9740	47.8430
 0.9750	47.8090
 0.9760	47.7780
 0.9770	47.7670
 0.9780	47.7800
 0.9790	47.7490
 0.9800	47.7540
 0.9810	47.7760
 0.9820	47.7690
 0.9830	47.7980
 0.9840	47.8210
 0.9850	47.8330
 0.9860	47.8500
 0.9870	47.8820
 0.9880	47.9320
 0.9890	47.9880
 0.9900	48.0340
 0.9910	48.0620
 0.9920	48.1520
 0.9930	48.2430
 0.9940	48.3340
 0.9950	48.4250
 0.9960	48.5160
 0.9970	48.6070
 0.9980	48.6980
 0.9990	48.7890
 1.0000	48.8800
 1.0010	48.9710
 1.0020	49.0620
 1.0030	49.1530
 1.0040	49.2440
 1.0050	49.3350
 1.0060	49.4260
 1.0070	49.5160
 1.0080	49.6070
 1.0090	49.6980
 1.0100	49.6980
 1.0110	49.7580
 1.0120	49.8200
 1.0130	49.8790
 1.0140	49.9420
 1.0150	50.0090
 1.0160	50.0800
 1.0170	50.1480
 1.0180	50.2090
 1.0190	50.2670
 1.0200	50.3230
 1.0210	50.3780
 1.0220	50.4340
 1.0230	50.4930
 1.0240	50.5570
 1.0250	50.6150
 1.0260	50.6730
 1.0270	50.7260
 1.0280	50.7710
 1.0290	50.8220
 1.0300	50.8750
 1.0310	50.9270
 1.0320	50.9820
 1.0330	51.0320
 1.0340	51.0800
 1.0350	51.1260
 1.0360	51.1720
 1.0370	51.2150
 1.0380	51.2580
 1.0390	51.3000
 1.0400	51.3450
 1.0410	51.3910
 1.0420	51.4340
 1.0430	51.4810
 1.0440	51.5220
 1.0450	51.5590
 1.0460	51.5950
 1.0470	51.6300
 1.0480	51.6630
 1.0490	51.6930
 1.0500	51.7220
 1.0510	51.7480
 1.0520	51.7770
 1.0530	51.8040
 1.0540	51.8310
 1.0550	51.8580
 1.0560	51.8850
 1.0570	51.9100
 1.0580	51.9350
 1.0590	51.9570
 1.0600	51.9780
 1.0610	51.9970
 1.0620	52.0170
 1.0630	52.0320
 1.0640	52.0430
 1.0650	52.0550
 1.0660	52.0620
 1.0670	52.0710
 1.0680	52.0810
 1.0690	52.0950
 1.0700	52.1020
 1.0710	52.1070
 1.0720	52.1120
 1.0730	52.1130
 1.0740	52.1160
 1.0750	52.1190
 1.0760	52.1200
 1.0770	52.1190
 1.0780	52.1150
 1.0790	52.1070
 1.0800	52.1010
 1.0810	52.0950
 1.0820	52.0850
 1.0830	52.0750
 1.0840	52.0640
 1.0850	52.0500
 1.0860	52.0370
 1.0870	52.0230
 1.0880	52.0110
 1.0890	51.9930
 1.0900	51.9720
 1.0910	51.9510
 1.0920	51.9290
 1.0930	51.9060
 1.0940	51.8840
 1.0950	51.8580
 1.0960	51.8280
 1.0970	51.7980
 1.0980	51.7670
 1.0990	51.7350
 1.1000	51.7040
 1.1010	51.6710
 1.1020	51.6390
 1.1030	51.6060
 1.1040	51.5710
 1.1050	51.5350
 1.1060	51.4950
 1.1070	51.4520
 1.1080	51.4090
 1.1090	51.3650
 1.1100	51.3180
 1.1110	51.2680
 1.1120	51.2150
 1.1130	51.1620
 1.1140	51.1040
 1.1150	51.0440
 1.1160	50.9760
 1.1170	50.9050
 1.1180	50.8260
 1.1190	50.7440
 1.1200	50.6520
 1.1210	50.5580
 1.1220	50.4530
 1.1230	50.3360
 1.1240	50.2120
 1.1250	50.0750
 1.1260	49.9260
 1.1270	49.7650
 1.1280	49.5960
 1.1290	49.4100
 1.1300	49.2150
 1.1310	49.0010
 1.1320	48.7710
 1.1330	48.5290
 1.1340	48.2700
 1.1350	47.9990
 1.1360	47.7170
 1.1370	47.4220
 1.1380	47.1160
 1.1390	46.8000
 1.1400	46.4720
 1.1410	46.1440
 1.1420	45.8110
 1.1430	45.4780
 1.1440	45.1490
 1.1450	44.8170
 1.1460	44.4970
 1.1470	44.1780
 1.1480	43.8760
 1.1490	43.5800
 1.1500	43.3040
 1.1510	43.0410
 1.1520	42.7960
 1.1530	42.5670
 1.1540	42.3560
 1.1550	42.1600
 1.1560	41.9830
 1.1570	41.8220
 1.1580	41.6780
 1.1590	41.5520
 1.1600	41.4380
 1.1610	41.3390
 1.1620	41.2530
 1.1630	41.1750
 1.1640	41.1070
 1.1650	41.0450
 1.1660	40.9930
 1.1670	40.9450
 1.1680	40.9050
 1.1690	40.8640
 1.1700	40.8300
 1.1710	40.7950
 1.1720	40.7610
 1.1730	40.7280
 1.1740	40.6990
 1.1750	40.6670
 1.1760	40.6340
 1.1770	40.5990
 1.1780	40.5610
 1.1790	40.5220
 1.1800	40.4830
 1.1810	40.4440
 1.1820	40.4060
 1.1830	40.3690
 1.1840	40.3340
 1.1850	40.2980
 1.1860	40.2650
 1.1870	40.2350
 1.1880	40.2070
 1.1890	40.1810
 1.1900	40.1590
 1.1910	40.1390
 1.1920	40.1220
 1.1930	40.1100
 1.1940	40.1000
 1.1950	40.0920
 1.1960	40.0880
 1.1970	40.0890
 1.1980	40.0930
 1.1990	40.1010
 1.2000	40.1140
 1.2010	40.1300
 1.2020	40.1480
 1.2030	40.1720
 1.2040	40.2000
 1.2050	40.2300
 1.2060	40.2650
 1.2070	40.3060
 1.2080	40.3490
 1.2090	40.3970
 1.2100	40.4490
 1.2110	40.5050
 1.2120	40.5640
 1.2130	40.6240
 1.2140	40.6880
 1.2150	40.7530
 1.2160	40.8200
 1.2170	40.8890
 1.2180	40.9630
 1.2190	41.0370
 1.2200	41.1110
 1.2210	41.1860
 1.2220	41.2590
 1.2230	41.3310
 1.2240	41.4030
 1.2250	41.4710
 1.2260	41.5380
 1.2270	41.6030
 1.2280	41.6660
 1.2290	41.7300
 1.2300	41.7920
 1.2310	41.8520
 1.2320	41.9100
 1.2330	41.9650
 1.2340	42.0200
 1.2350	42.0720
 1.2360	42.1230
 1.2370	42.1740
 1.2380	42.2240
 1.2390	42.2700
 1.2400	42.3170
 1.2410	42.3640
 1.2420	42.4080
 1.2430	42.4510
 1.2440	42.4950
 1.2450	42.5340
 1.2460	42.5730
 1.2470	42.6090
 1.2480	42.6420
 1.2490	42.6760
 1.2500	42.7060
 1.2510	42.7350
 1.2520	42.7630
 1.2530	42.7890
 1.2540	42.8170
 1.2550	42.8430
 1.2560	42.8670
 1.2570	42.8890
 1.2580	42.9060
 1.2590	42.9210
 1.2600	42.9330
 1.2610	42.9430
 1.2620	42.9510
 1.2630	42.9600
 1.2640	42.9660
 1.2650	42.9710
 1.2660	42.9730
 1.2670	42.9700
 1.2680	42.9660
 1.2690	42.9600
 1.2700	42.9540
 1.2710	42.9460
 1.2720	42.9350
 1.2730	42.9230
 1.2740	42.9070
 1.2750	42.8910
 1.2760	42.8720
 1.2770	42.8490
 1.2780	42.8240
 1.2790	42.7960
 1.2800	42.7650
 1.2810	42.7320
 1.2820	42.6980
 1.2830	42.6590
 1.2840	42.6170
 1.2850	42.5750
 1.2860	42.5300
 1.2870	42.4800
 1.2880	42.4260
 1.2890	42.3700
 1.2900	42.3060
 1.2910	42.2360
 1.2920	42.1650
 1.2930	42.0900
 1.2940	42.0100
 1.2950	41.9280
 1.2960	41.8390
 1.2970	41.7460
 1.2980	41.6490
 1.2990	41.5450
 1.3000	41.4360
 1.3010	41.3210
 1.3020	41.2010
 1.3030	41.0770
 1.3040	40.9450
 1.3050	40.8100
 1.3060	40.6730
 1.3070	40.5270
 1.3080	40.3760
 1.3090	40.2180
 1.3100	40.0560
 1.3110	39.8850
 1.3120	39.7110
 1.3130	39.5330
 1.3140	39.3490
 1.3150	39.1570
 1.3160	38.9620
 1.3170	38.7650
 1.3180	38.5580
 1.3190	38.3460
 1.3200	38.1290
 1.3210	37.9020
 1.3220	37.6740
 1.3230	37.4410
 1.3240	37.2020
 1.3250	36.9630
 1.3260	36.7190
 1.3270	36.4740
 1.3280	36.2260
 1.3290	35.9740
 1.3300	35.7220
 1.3310	35.4660
 1.3320	35.2070
 1.3330	34.9510
 1.3340	34.6920
 1.3350	34.4320
 1.3360	34.1760
 1.3370	33.9180
 1.3380	33.6610
 1.3390	33.4070
 1.3400	33.1530
 1.3410	32.9040
 1.3420	32.6620
 1.3430	32.4230
 1.3440	32.1870
 1.3450	31.9540
 1.3460	31.7220
 1.3470	31.4950
 1.3480	31.2690
 1.3490	31.0490
 1.3500	30.8340
 1.3510	30.6230
 1.3520	30.4150
 1.3530	30.2100
 1.3540	30.0060
 1.3550	29.8030
 1.3560	29.6000
 1.3570	29.3980
 1.3580	29.1970
 1.3590	28.9940
 1.3600	28.7890
 1.3610	28.5820
 1.3620	28.3680
 1.3630	28.1500
 1.3640	27.9250
 1.3650	27.6910
 1.3660	27.4510
 1.3670	27.2020
 1.3680	26.9410
 1.3690	26.6700
 1.3700	26.3850
 1.3710	26.0870
 1.3720	25.7760
 1.3730	25.4480
 1.3740	25.1050
 1.3750	24.7450
 1.3760	24.3660
 1.3770	23.9690
 1.3780	23.5490
 1.3790	23.1140
 1.3800	22.6620
 1.3810	22.1900
 1.3820	21.7110
 1.3830	21.2180
 1.3840	20.7200
 1.3850	20.2090
 1.3860	19.7000
 1.3870	19.1820
 1.3880	18.6730
 1.3890	18.1640
 1.3900	17.6590
 1.3910	17.1670
 1.3920	16.6820
 1.3930	16.2080
 1.3940	15.7490
 1.3950	15.3000
 1.3960	14.8680
 1.3970	14.4550
 1.3980	14.0610
 1.3990	13.6920
 1.4000	13.3420
 1.4010	13.0110
 1.4020	12.7020
 1.4030	12.4110
 1.4040	12.1390
 1.4050	11.8880
 1.4060	11.6540
 1.4070	11.4400
 1.4080	11.2430
 1.4090	11.0610
 1.4100	10.8960
 1.4110	10.7430
 1.4120	10.6030
 1.4130	10.4750
 1.4140	10.3590
 1.4150	10.2530
 1.4160	10.1570
 1.4170	10.0700
 1.4180	 9.9920
 1.4190	 9.9200
 1.4200	 9.8550
 1.4210	 9.7960
 1.4220	 9.7430
 1.4230	 9.6950
 1.4240	 9.6520
 1.4250	 9.6130
 1.4260	 9.5780
 1.4270	 9.5470
 1.4280	 9.5200
 1.4290	 9.4950
 1.4300	 9.4750
 1.4310	 9.4570
 1.4320	 9.4410
 1.4330	 9.4280
 1.4340	 9.4180
 1.4350	 9.4090
 1.4360	 9.4030
 1.4370	 9.3980
 1.4380	 9.3940
 1.4390	 9.3920
 1.4400	 9.3920
 1.4410	 9.3940
 1.4420	 9.3970
 1.4430	 9.4000
 1.4440	 9.4040
 1.4450	 9.4090
 1.4460	 9.4150
 1.4470	 9.4230
 1.4480	 9.4310
 1.4490	 9.4400
 1.4500	 9.4490
 1.4510	 9.4580
 1.4520	 9.4670
 1.4530	 9.4770
 1.4540	 9.4880
 1.4550	 9.5000
 1.4560	 9.5130
 1.4570	 9.5270
 1.4580	 9.5420
 1.4590	 9.5570
 1.4600	 9.5730
 1.4610	 9.5910
 1.4620	 9.6100
 1.4630	 9.6330
 1.4640	 9.6570
 1.4650	 9.6840
 1.4660	 9.7120
 1.4670	 9.7410
 1.4680	 9.7730
 1.4690	 9.8070
 1.4700	 9.8420
