Name: Ceanothus spinosus 2
Type: vegetation
Class: Shrub
Genus: Ceanothus
Species: spinosus
Sample No.: VH129
Owner: UCSB
Wavelength Range: VSWIR
Origin: 34.4906; -119.7908; WGS84
Collection Date: 6/3/2013
Description: Samples were collected as part of the HyspIRI Airborne Campaign. 48 individual plants were sampled in three times in 2013 - spring  summer  and fall. The name of the sample includes a 1  2  or 3 which references a different individual of the species. Samples were taken to JPL and processed within 48 hours of collection. The same leaves were processed in the Nicolet and then measured using the ASD.
Measurement: Bidirectional reflectance
First Column: X
Second Column: Y
X Units: Wavelength (micrometers)
Y Units: Reflectance (percentage)
First X Value: 0.35
Last X Value: 2.5
Number of X Values: 2151
Additional Information: vegetation.shrub.ceanothus.spinosus.vswir.vh129.ucsb.asd.ancillary.txt

 0.3500	 6.1680
 0.3510	 6.2140
 0.3520	 6.1440
 0.3530	 5.9680
 0.3540	 5.8130
 0.3550	 5.9180
 0.3560	 6.0120
 0.3570	 5.9910
 0.3580	 5.8750
 0.3590	 5.9260
 0.3600	 5.9230
 0.3610	 5.8000
 0.3620	 5.7660
 0.3630	 5.8790
 0.3640	 5.9500
 0.3650	 5.8210
 0.3660	 5.6840
 0.3670	 5.7060
 0.3680	 5.8200
 0.3690	 5.8100
 0.3700	 5.8060
 0.3710	 5.8110
 0.3720	 5.8180
 0.3730	 5.8260
 0.3740	 5.8200
 0.3750	 5.7840
 0.3760	 5.7350
 0.3770	 5.8060
 0.3780	 5.8740
 0.3790	 5.8740
 0.3800	 5.8120
 0.3810	 5.7850
 0.3820	 5.7750
 0.3830	 5.7620
 0.3840	 5.7910
 0.3850	 5.7800
 0.3860	 5.7480
 0.3870	 5.7440
 0.3880	 5.7590
 0.3890	 5.7320
 0.3900	 5.6700
 0.3910	 5.6500
 0.3920	 5.6440
 0.3930	 5.6620
 0.3940	 5.6960
 0.3950	 5.6610
 0.3960	 5.6710
 0.3970	 5.6930
 0.3980	 5.6410
 0.3990	 5.6200
 0.4000	 5.6500
 0.4010	 5.6990
 0.4020	 5.6810
 0.4030	 5.6640
 0.4040	 5.6590
 0.4050	 5.6630
 0.4060	 5.6820
 0.4070	 5.6850
 0.4080	 5.6770
 0.4090	 5.6860
 0.4100	 5.6830
 0.4110	 5.6840
 0.4120	 5.6980
 0.4130	 5.7030
 0.4140	 5.7300
 0.4150	 5.7580
 0.4160	 5.7640
 0.4170	 5.7830
 0.4180	 5.7970
 0.4190	 5.8090
 0.4200	 5.8400
 0.4210	 5.8480
 0.4220	 5.8580
 0.4230	 5.8920
 0.4240	 5.9180
 0.4250	 5.9440
 0.4260	 5.9660
 0.4270	 5.9770
 0.4280	 5.9960
 0.4290	 6.0110
 0.4300	 6.0240
 0.4310	 6.0590
 0.4320	 6.0660
 0.4330	 6.0690
 0.4340	 6.0990
 0.4350	 6.1230
 0.4360	 6.1270
 0.4370	 6.1250
 0.4380	 6.1510
 0.4390	 6.1630
 0.4400	 6.1720
 0.4410	 6.1830
 0.4420	 6.1840
 0.4430	 6.1970
 0.4440	 6.2130
 0.4450	 6.2180
 0.4460	 6.2240
 0.4470	 6.2360
 0.4480	 6.2520
 0.4490	 6.2740
 0.4500	 6.2880
 0.4510	 6.2990
 0.4520	 6.3110
 0.4530	 6.3120
 0.4540	 6.3290
 0.4550	 6.3520
 0.4560	 6.3510
 0.4570	 6.3580
 0.4580	 6.3680
 0.4590	 6.3770
 0.4600	 6.3860
 0.4610	 6.3840
 0.4620	 6.3800
 0.4630	 6.3860
 0.4640	 6.3960
 0.4650	 6.4040
 0.4660	 6.4070
 0.4670	 6.4130
 0.4680	 6.3990
 0.4690	 6.3860
 0.4700	 6.3920
 0.4710	 6.4060
 0.4720	 6.4080
 0.4730	 6.4040
 0.4740	 6.4110
 0.4750	 6.4180
 0.4760	 6.4170
 0.4770	 6.4130
 0.4780	 6.4170
 0.4790	 6.4180
 0.4800	 6.4180
 0.4810	 6.4260
 0.4820	 6.4410
 0.4830	 6.4470
 0.4840	 6.4440
 0.4850	 6.4460
 0.4860	 6.4630
 0.4870	 6.4790
 0.4880	 6.4840
 0.4890	 6.5030
 0.4900	 6.5280
 0.4910	 6.5510
 0.4920	 6.5680
 0.4930	 6.5910
 0.4940	 6.6180
 0.4950	 6.6490
 0.4960	 6.6820
 0.4970	 6.7100
 0.4980	 6.7450
 0.4990	 6.7940
 0.5000	 6.8340
 0.5010	 6.8820
 0.5020	 6.9420
 0.5030	 7.0050
 0.5040	 7.0670
 0.5050	 7.1360
 0.5060	 7.2170
 0.5070	 7.2960
 0.5080	 7.3870
 0.5090	 7.4880
 0.5100	 7.5900
 0.5110	 7.7060
 0.5120	 7.8360
 0.5130	 7.9770
 0.5140	 8.1250
 0.5150	 8.2790
 0.5160	 8.4420
 0.5170	 8.6180
 0.5180	 8.8060
 0.5190	 8.9980
 0.5200	 9.1920
 0.5210	 9.3920
 0.5220	 9.5940
 0.5230	 9.8000
 0.5240	10.0080
 0.5250	10.2080
 0.5260	10.3970
 0.5270	10.5780
 0.5280	10.7560
 0.5290	10.9200
 0.5300	11.0730
 0.5310	11.2190
 0.5320	11.3560
 0.5330	11.4780
 0.5340	11.5900
 0.5350	11.6940
 0.5360	11.7830
 0.5370	11.8660
 0.5380	11.9440
 0.5390	12.0120
 0.5400	12.0790
 0.5410	12.1440
 0.5420	12.2040
 0.5430	12.2570
 0.5440	12.3090
 0.5450	12.3600
 0.5460	12.4080
 0.5470	12.4470
 0.5480	12.4830
 0.5490	12.5190
 0.5500	12.5500
 0.5510	12.5740
 0.5520	12.5890
 0.5530	12.5930
 0.5540	12.5880
 0.5550	12.5660
 0.5560	12.5300
 0.5570	12.4890
 0.5580	12.4350
 0.5590	12.3650
 0.5600	12.2840
 0.5610	12.2040
 0.5620	12.1150
 0.5630	12.0150
 0.5640	11.9100
 0.5650	11.7990
 0.5660	11.6800
 0.5670	11.5550
 0.5680	11.4270
 0.5690	11.2940
 0.5700	11.1610
 0.5710	11.0340
 0.5720	10.9080
 0.5730	10.7880
 0.5740	10.6750
 0.5750	10.5700
 0.5760	10.4780
 0.5770	10.3890
 0.5780	10.3010
 0.5790	10.2220
 0.5800	10.1440
 0.5810	10.0690
 0.5820	10.0010
 0.5830	 9.9380
 0.5840	 9.8790
 0.5850	 9.8240
 0.5860	 9.7740
 0.5870	 9.7240
 0.5880	 9.6750
 0.5890	 9.6320
 0.5900	 9.6050
 0.5910	 9.5850
 0.5920	 9.5690
 0.5930	 9.5550
 0.5940	 9.5350
 0.5950	 9.5090
 0.5960	 9.4820
 0.5970	 9.4580
 0.5980	 9.4370
 0.5990	 9.4180
 0.6000	 9.4000
 0.6010	 9.3790
 0.6020	 9.3500
 0.6030	 9.3140
 0.6040	 9.2760
 0.6050	 9.2320
 0.6060	 9.1800
 0.6070	 9.1220
 0.6080	 9.0650
 0.6090	 9.0080
 0.6100	 8.9490
 0.6110	 8.8910
 0.6120	 8.8260
 0.6130	 8.7600
 0.6140	 8.6960
 0.6150	 8.6410
 0.6160	 8.5860
 0.6170	 8.5330
 0.6180	 8.4860
 0.6190	 8.4430
 0.6200	 8.4030
 0.6210	 8.3680
 0.6220	 8.3400
 0.6230	 8.3160
 0.6240	 8.2940
 0.6250	 8.2760
 0.6260	 8.2630
 0.6270	 8.2530
 0.6280	 8.2460
 0.6290	 8.2400
 0.6300	 8.2350
 0.6310	 8.2280
 0.6320	 8.2200
 0.6330	 8.2080
 0.6340	 8.1910
 0.6350	 8.1690
 0.6360	 8.1450
 0.6370	 8.1130
 0.6380	 8.0720
 0.6390	 8.0220
 0.6400	 7.9690
 0.6410	 7.9130
 0.6420	 7.8540
 0.6430	 7.7950
 0.6440	 7.7330
 0.6450	 7.6720
 0.6460	 7.6120
 0.6470	 7.5520
 0.6480	 7.4990
 0.6490	 7.4500
 0.6500	 7.4050
 0.6510	 7.3690
 0.6520	 7.3320
 0.6530	 7.2970
 0.6540	 7.2620
 0.6550	 7.2240
 0.6560	 7.1830
 0.6570	 7.1410
 0.6580	 7.0990
 0.6590	 7.0500
 0.6600	 6.9980
 0.6610	 6.9470
 0.6620	 6.8980
 0.6630	 6.8540
 0.6640	 6.8120
 0.6650	 6.7710
 0.6660	 6.7430
 0.6670	 6.7180
 0.6680	 6.6980
 0.6690	 6.6860
 0.6700	 6.6800
 0.6710	 6.6820
 0.6720	 6.6890
 0.6730	 6.6960
 0.6740	 6.7100
 0.6750	 6.7280
 0.6760	 6.7500
 0.6770	 6.7770
 0.6780	 6.8110
 0.6790	 6.8480
 0.6800	 6.8850
 0.6810	 6.9320
 0.6820	 6.9890
 0.6830	 7.0520
 0.6840	 7.1260
 0.6850	 7.2150
 0.6860	 7.3220
 0.6870	 7.4460
 0.6880	 7.5960
 0.6890	 7.7770
 0.6900	 7.9960
 0.6910	 8.2620
 0.6920	 8.5780
 0.6930	 8.9540
 0.6940	 9.3950
 0.6950	 9.8970
 0.6960	10.4620
 0.6970	11.0910
 0.6980	11.7850
 0.6990	12.5340
 0.7000	13.3320
 0.7010	14.1740
 0.7020	15.0520
 0.7030	15.9610
 0.7040	16.8910
 0.7050	17.8330
 0.7060	18.7870
 0.7070	19.7490
 0.7080	20.7140
 0.7090	21.6860
 0.7100	22.6590
 0.7110	23.6360
 0.7120	24.6160
 0.7130	25.5920
 0.7140	26.5670
 0.7150	27.5400
 0.7160	28.5070
 0.7170	29.4690
 0.7180	30.4240
 0.7190	31.3670
 0.7200	32.2960
 0.7210	33.2170
 0.7220	34.1230
 0.7230	35.0100
 0.7240	35.8720
 0.7250	36.7090
 0.7260	37.5230
 0.7270	38.3130
 0.7280	39.0730
 0.7290	39.8030
 0.7300	40.5040
 0.7310	41.1780
 0.7320	41.8130
 0.7330	42.4250
 0.7340	43.0130
 0.7350	43.5570
 0.7360	44.0740
 0.7370	44.5700
 0.7380	45.0430
 0.7390	45.4820
 0.7400	45.8960
 0.7410	46.2850
 0.7420	46.6440
 0.7430	46.9890
 0.7440	47.3080
 0.7450	47.5980
 0.7460	47.8650
 0.7470	48.1170
 0.7480	48.3520
 0.7490	48.5670
 0.7500	48.7690
 0.7510	48.9540
 0.7520	49.1210
 0.7530	49.2700
 0.7540	49.4120
 0.7550	49.5450
 0.7560	49.6660
 0.7570	49.7750
 0.7580	49.8770
 0.7590	49.9740
 0.7600	50.0640
 0.7610	50.1410
 0.7620	50.2100
 0.7630	50.2770
 0.7640	50.3460
 0.7650	50.4050
 0.7660	50.4600
 0.7670	50.5100
 0.7680	50.5570
 0.7690	50.6040
 0.7700	50.6470
 0.7710	50.6840
 0.7720	50.7210
 0.7730	50.7600
 0.7740	50.7980
 0.7750	50.8290
 0.7760	50.8630
 0.7770	50.9000
 0.7780	50.9340
 0.7790	50.9620
 0.7800	50.9930
 0.7810	51.0270
 0.7820	51.0600
 0.7830	51.0900
 0.7840	51.1220
 0.7850	51.1470
 0.7860	51.1660
 0.7870	51.2010
 0.7880	51.2310
 0.7890	51.2560
 0.7900	51.2790
 0.7910	51.3020
 0.7920	51.3290
 0.7930	51.3550
 0.7940	51.3740
 0.7950	51.3950
 0.7960	51.4150
 0.7970	51.4340
 0.7980	51.4600
 0.7990	51.4770
 0.8000	51.4920
 0.8010	51.5130
 0.8020	51.5220
 0.8030	51.5320
 0.8040	51.5470
 0.8050	51.5620
 0.8060	51.5720
 0.8070	51.5860
 0.8080	51.6000
 0.8090	51.5990
 0.8100	51.6110
 0.8110	51.6250
 0.8120	51.6320
 0.8130	51.6400
 0.8140	51.6440
 0.8150	51.6500
 0.8160	51.6600
 0.8170	51.6620
 0.8180	51.6620
 0.8190	51.6660
 0.8200	51.6780
 0.8210	51.6800
 0.8220	51.6810
 0.8230	51.6840
 0.8240	51.6870
 0.8250	51.6880
 0.8260	51.6860
 0.8270	51.6820
 0.8280	51.6790
 0.8290	51.6780
 0.8300	51.6790
 0.8310	51.6760
 0.8320	51.6780
 0.8330	51.6810
 0.8340	51.6800
 0.8350	51.6720
 0.8360	51.6750
 0.8370	51.6840
 0.8380	51.6910
 0.8390	51.6850
 0.8400	51.6920
 0.8410	51.6970
 0.8420	51.6970
 0.8430	51.7050
 0.8440	51.7110
 0.8450	51.7170
 0.8460	51.7260
 0.8470	51.7320
 0.8480	51.7400
 0.8490	51.7490
 0.8500	51.7550
 0.8510	51.7580
 0.8520	51.7710
 0.8530	51.7870
 0.8540	51.7900
 0.8550	51.7910
 0.8560	51.7970
 0.8570	51.8070
 0.8580	51.8160
 0.8590	51.8260
 0.8600	51.8320
 0.8610	51.8380
 0.8620	51.8510
 0.8630	51.8660
 0.8640	51.8760
 0.8650	51.8770
 0.8660	51.8850
 0.8670	51.8970
 0.8680	51.9120
 0.8690	51.9300
 0.8700	51.9360
 0.8710	51.9350
 0.8720	51.9400
 0.8730	51.9620
 0.8740	51.9760
 0.8750	51.9840
 0.8760	51.9930
 0.8770	52.0090
 0.8780	52.0120
 0.8790	52.0200
 0.8800	52.0400
 0.8810	52.0560
 0.8820	52.0570
 0.8830	52.0640
 0.8840	52.0850
 0.8850	52.0920
 0.8860	52.0940
 0.8870	52.1000
 0.8880	52.1150
 0.8890	52.1260
 0.8900	52.1280
 0.8910	52.1300
 0.8920	52.1390
 0.8930	52.1410
 0.8940	52.1510
 0.8950	52.1670
 0.8960	52.1780
 0.8970	52.1830
 0.8980	52.1870
 0.8990	52.1930
 0.9000	52.1990
 0.9010	52.2080
 0.9020	52.2150
 0.9030	52.2180
 0.9040	52.2250
 0.9050	52.2330
 0.9060	52.2440
 0.9070	52.2550
 0.9080	52.2560
 0.9090	52.2660
 0.9100	52.2760
 0.9110	52.2780
 0.9120	52.2830
 0.9130	52.2870
 0.9140	52.2890
 0.9150	52.2930
 0.9160	52.3020
 0.9170	52.3070
 0.9180	52.3110
 0.9190	52.3190
 0.9200	52.3120
 0.9210	52.3030
 0.9220	52.3010
 0.9230	52.3050
 0.9240	52.2890
 0.9250	52.2720
 0.9260	52.2630
 0.9270	52.2600
 0.9280	52.2510
 0.9290	52.2280
 0.9300	52.2000
 0.9310	52.1830
 0.9320	52.1690
 0.9330	52.1460
 0.9340	52.1120
 0.9350	52.0840
 0.9360	52.0550
 0.9370	52.0280
 0.9380	52.0030
 0.9390	51.9660
 0.9400	51.9200
 0.9410	51.8770
 0.9420	51.8400
 0.9430	51.7910
 0.9440	51.7390
 0.9450	51.6930
 0.9460	51.6490
 0.9470	51.5800
 0.9480	51.5110
 0.9490	51.4450
 0.9500	51.3750
 0.9510	51.2960
 0.9520	51.2150
 0.9530	51.1280
 0.9540	51.0310
 0.9550	50.9260
 0.9560	50.8360
 0.9570	50.7500
 0.9580	50.6600
 0.9590	50.6000
 0.9600	50.5270
 0.9610	50.4530
 0.9620	50.4000
 0.9630	50.3450
 0.9640	50.3100
 0.9650	50.2730
 0.9660	50.2130
 0.9670	50.1700
 0.9680	50.1390
 0.9690	50.1170
 0.9700	50.1030
 0.9710	50.0840
 0.9720	50.0580
 0.9730	50.0340
 0.9740	50.0190
 0.9750	49.9970
 0.9760	49.9840
 0.9770	49.9850
 0.9780	49.9970
 0.9790	50.0010
 0.9800	49.9960
 0.9810	49.9870
 0.9820	49.9850
 0.9830	50.0010
 0.9840	50.0240
 0.9850	50.0400
 0.9860	50.0440
 0.9870	50.0500
 0.9880	50.0820
 0.9890	50.1190
 0.9900	50.1280
 0.9910	50.1560
 0.9920	50.1860
 0.9930	50.2170
 0.9940	50.2480
 0.9950	50.2790
 0.9960	50.3100
 0.9970	50.3410
 0.9980	50.3720
 0.9990	50.4020
 1.0000	50.4330
 1.0010	50.4640
 1.0020	50.4950
 1.0030	50.5260
 1.0040	50.5570
 1.0050	50.5880
 1.0060	50.6180
 1.0070	50.6490
 1.0080	50.6800
 1.0090	50.7110
 1.0100	50.7110
 1.0110	50.7410
 1.0120	50.7750
 1.0130	50.8120
 1.0140	50.8470
 1.0150	50.8850
 1.0160	50.9220
 1.0170	50.9540
 1.0180	50.9840
 1.0190	51.0180
 1.0200	51.0500
 1.0210	51.0780
 1.0220	51.1090
 1.0230	51.1400
 1.0240	51.1710
 1.0250	51.2000
 1.0260	51.2300
 1.0270	51.2600
 1.0280	51.2880
 1.0290	51.3170
 1.0300	51.3530
 1.0310	51.3810
 1.0320	51.4000
 1.0330	51.4240
 1.0340	51.4460
 1.0350	51.4700
 1.0360	51.5000
 1.0370	51.5250
 1.0380	51.5490
 1.0390	51.5710
 1.0400	51.5930
 1.0410	51.6170
 1.0420	51.6380
 1.0430	51.6580
 1.0440	51.6770
 1.0450	51.6960
 1.0460	51.7130
 1.0470	51.7270
 1.0480	51.7440
 1.0490	51.7620
 1.0500	51.7780
 1.0510	51.7930
 1.0520	51.8120
 1.0530	51.8240
 1.0540	51.8310
 1.0550	51.8420
 1.0560	51.8540
 1.0570	51.8660
 1.0580	51.8810
 1.0590	51.8910
 1.0600	51.8970
 1.0610	51.9060
 1.0620	51.9150
 1.0630	51.9240
 1.0640	51.9330
 1.0650	51.9420
 1.0660	51.9500
 1.0670	51.9560
 1.0680	51.9630
 1.0690	51.9710
 1.0700	51.9750
 1.0710	51.9760
 1.0720	51.9810
 1.0730	51.9880
 1.0740	51.9910
 1.0750	51.9950
 1.0760	51.9960
 1.0770	51.9920
 1.0780	51.9890
 1.0790	51.9880
 1.0800	51.9840
 1.0810	51.9760
 1.0820	51.9710
 1.0830	51.9670
 1.0840	51.9630
 1.0850	51.9630
 1.0860	51.9600
 1.0870	51.9540
 1.0880	51.9450
 1.0890	51.9370
 1.0900	51.9250
 1.0910	51.9160
 1.0920	51.9100
 1.0930	51.8990
 1.0940	51.8860
 1.0950	51.8730
 1.0960	51.8550
 1.0970	51.8390
 1.0980	51.8250
 1.0990	51.8110
 1.1000	51.7980
 1.1010	51.7820
 1.1020	51.7650
 1.1030	51.7460
 1.1040	51.7270
 1.1050	51.7080
 1.1060	51.6890
 1.1070	51.6730
 1.1080	51.6540
 1.1090	51.6340
 1.1100	51.6130
 1.1110	51.5920
 1.1120	51.5690
 1.1130	51.5470
 1.1140	51.5190
 1.1150	51.4860
 1.1160	51.4530
 1.1170	51.4170
 1.1180	51.3790
 1.1190	51.3400
 1.1200	51.3020
 1.1210	51.2560
 1.1220	51.2020
 1.1230	51.1430
 1.1240	51.0810
 1.1250	51.0130
 1.1260	50.9430
 1.1270	50.8610
 1.1280	50.7730
 1.1290	50.6760
 1.1300	50.5700
 1.1310	50.4560
 1.1320	50.3350
 1.1330	50.2040
 1.1340	50.0640
 1.1350	49.9160
 1.1360	49.7580
 1.1370	49.5920
 1.1380	49.4180
 1.1390	49.2380
 1.1400	49.0510
 1.1410	48.8610
 1.1420	48.6630
 1.1430	48.4630
 1.1440	48.2640
 1.1450	48.0600
 1.1460	47.8650
 1.1470	47.6710
 1.1480	47.4850
 1.1490	47.3000
 1.1500	47.1280
 1.1510	46.9630
 1.1520	46.8080
 1.1530	46.6620
 1.1540	46.5270
 1.1550	46.4020
 1.1560	46.2870
 1.1570	46.1850
 1.1580	46.0930
 1.1590	46.0110
 1.1600	45.9360
 1.1610	45.8700
 1.1620	45.8150
 1.1630	45.7660
 1.1640	45.7220
 1.1650	45.6830
 1.1660	45.6520
 1.1670	45.6230
 1.1680	45.6000
 1.1690	45.5770
 1.1700	45.5590
 1.1710	45.5400
 1.1720	45.5210
 1.1730	45.5030
 1.1740	45.4850
 1.1750	45.4690
 1.1760	45.4540
 1.1770	45.4370
 1.1780	45.4220
 1.1790	45.4050
 1.1800	45.3870
 1.1810	45.3680
 1.1820	45.3500
 1.1830	45.3330
 1.1840	45.3170
 1.1850	45.3030
 1.1860	45.2870
 1.1870	45.2720
 1.1880	45.2590
 1.1890	45.2450
 1.1900	45.2350
 1.1910	45.2270
 1.1920	45.2210
 1.1930	45.2190
 1.1940	45.2190
 1.1950	45.2220
 1.1960	45.2240
 1.1970	45.2300
 1.1980	45.2370
 1.1990	45.2450
 1.2000	45.2570
 1.2010	45.2700
 1.2020	45.2820
 1.2030	45.3000
 1.2040	45.3190
 1.2050	45.3400
 1.2060	45.3610
 1.2070	45.3810
 1.2080	45.4040
 1.2090	45.4310
 1.2100	45.4580
 1.2110	45.4860
 1.2120	45.5180
 1.2130	45.5490
 1.2140	45.5780
 1.2150	45.6100
 1.2160	45.6430
 1.2170	45.6760
 1.2180	45.7100
 1.2190	45.7430
 1.2200	45.7770
 1.2210	45.8110
 1.2220	45.8450
 1.2230	45.8790
 1.2240	45.9120
 1.2250	45.9440
 1.2260	45.9760
 1.2270	46.0080
 1.2280	46.0390
 1.2290	46.0700
 1.2300	46.1000
 1.2310	46.1280
 1.2320	46.1560
 1.2330	46.1820
 1.2340	46.2080
 1.2350	46.2330
 1.2360	46.2580
 1.2370	46.2830
 1.2380	46.3080
 1.2390	46.3320
 1.2400	46.3560
 1.2410	46.3810
 1.2420	46.4020
 1.2430	46.4230
 1.2440	46.4440
 1.2450	46.4620
 1.2460	46.4800
 1.2470	46.4980
 1.2480	46.5140
 1.2490	46.5310
 1.2500	46.5470
 1.2510	46.5610
 1.2520	46.5740
 1.2530	46.5830
 1.2540	46.5920
 1.2550	46.6000
 1.2560	46.6080
 1.2570	46.6170
 1.2580	46.6250
 1.2590	46.6310
 1.2600	46.6350
 1.2610	46.6390
 1.2620	46.6420
 1.2630	46.6440
 1.2640	46.6430
 1.2650	46.6410
 1.2660	46.6380
 1.2670	46.6330
 1.2680	46.6270
 1.2690	46.6210
 1.2700	46.6130
 1.2710	46.6010
 1.2720	46.5910
 1.2730	46.5790
 1.2740	46.5640
 1.2750	46.5490
 1.2760	46.5330
 1.2770	46.5150
 1.2780	46.4950
 1.2790	46.4740
 1.2800	46.4530
 1.2810	46.4280
 1.2820	46.4000
 1.2830	46.3720
 1.2840	46.3400
 1.2850	46.3040
 1.2860	46.2690
 1.2870	46.2310
 1.2880	46.1900
 1.2890	46.1470
 1.2900	46.1040
 1.2910	46.0550
 1.2920	46.0070
 1.2930	45.9550
 1.2940	45.9000
 1.2950	45.8430
 1.2960	45.7820
 1.2970	45.7190
 1.2980	45.6550
 1.2990	45.5870
 1.3000	45.5180
 1.3010	45.4420
 1.3020	45.3620
 1.3030	45.2800
 1.3040	45.1920
 1.3050	45.1020
 1.3060	45.0110
 1.3070	44.9160
 1.3080	44.8170
 1.3090	44.7140
 1.3100	44.6060
 1.3110	44.4950
 1.3120	44.3800
 1.3130	44.2610
 1.3140	44.1390
 1.3150	44.0120
 1.3160	43.8810
 1.3170	43.7470
 1.3180	43.6070
 1.3190	43.4610
 1.3200	43.3140
 1.3210	43.1610
 1.3220	43.0080
 1.3230	42.8490
 1.3240	42.6850
 1.3250	42.5210
 1.3260	42.3530
 1.3270	42.1820
 1.3280	42.0090
 1.3290	41.8300
 1.3300	41.6490
 1.3310	41.4670
 1.3320	41.2830
 1.3330	41.1000
 1.3340	40.9150
 1.3350	40.7300
 1.3360	40.5440
 1.3370	40.3550
 1.3380	40.1670
 1.3390	39.9820
 1.3400	39.7950
 1.3410	39.6110
 1.3420	39.4290
 1.3430	39.2470
 1.3440	39.0680
 1.3450	38.8910
 1.3460	38.7140
 1.3470	38.5410
 1.3480	38.3690
 1.3490	38.2000
 1.3500	38.0340
 1.3510	37.8700
 1.3520	37.7050
 1.3530	37.5420
 1.3540	37.3790
 1.3550	37.2150
 1.3560	37.0520
 1.3570	36.8880
 1.3580	36.7250
 1.3590	36.5610
 1.3600	36.3910
 1.3610	36.2180
 1.3620	36.0410
 1.3630	35.8580
 1.3640	35.6690
 1.3650	35.4750
 1.3660	35.2720
 1.3670	35.0590
 1.3680	34.8380
 1.3690	34.6040
 1.3700	34.3540
 1.3710	34.0920
 1.3720	33.8140
 1.3730	33.5170
 1.3740	33.2060
 1.3750	32.8740
 1.3760	32.5190
 1.3770	32.1430
 1.3780	31.7430
 1.3790	31.3200
 1.3800	30.8750
 1.3810	30.4050
 1.3820	29.9180
 1.3830	29.4110
 1.3840	28.8870
 1.3850	28.3440
 1.3860	27.7910
 1.3870	27.2160
 1.3880	26.6420
 1.3890	26.0570
 1.3900	25.4650
 1.3910	24.8760
 1.3920	24.2850
 1.3930	23.6920
 1.3940	23.1050
 1.3950	22.5190
 1.3960	21.9440
 1.3970	21.3840
 1.3980	20.8370
 1.3990	20.3130
 1.4000	19.8050
 1.4010	19.3130
 1.4020	18.8450
 1.4030	18.3930
 1.4040	17.9630
 1.4050	17.5570
 1.4060	17.1690
 1.4070	16.8080
 1.4080	16.4680
 1.4090	16.1470
 1.4100	15.8490
 1.4110	15.5670
 1.4120	15.3050
 1.4130	15.0630
 1.4140	14.8380
 1.4150	14.6320
 1.4160	14.4420
 1.4170	14.2660
 1.4180	14.1040
 1.4190	13.9540
 1.4200	13.8170
 1.4210	13.6920
 1.4220	13.5770
 1.4230	13.4730
 1.4240	13.3790
 1.4250	13.2920
 1.4260	13.2140
 1.4270	13.1440
 1.4280	13.0810
 1.4290	13.0240
 1.4300	12.9740
 1.4310	12.9300
 1.4320	12.8920
 1.4330	12.8590
 1.4340	12.8320
 1.4350	12.8090
 1.4360	12.7890
 1.4370	12.7730
 1.4380	12.7620
 1.4390	12.7530
 1.4400	12.7480
 1.4410	12.7460
 1.4420	12.7460
 1.4430	12.7480
 1.4440	12.7540
 1.4450	12.7610
 1.4460	12.7700
 1.4470	12.7800
 1.4480	12.7920
 1.4490	12.8050
 1.4500	12.8190
 1.4510	12.8350
 1.4520	12.8510
 1.4530	12.8690
 1.4540	12.8880
 1.4550	12.9100
 1.4560	12.9330
 1.4570	12.9580
 1.4580	12.9850
 1.4590	13.0140
 1.4600	13.0470
 1.4610	13.0830
 1.4620	13.1220
 1.4630	13.1650
 1.4640	13.2120
 1.4650	13.2620
 1.4660	13.3170
 1.4670	13.3750
 1.4680	13.4370
 1.4690	13.5030
 1.4700	13.5720
