Name: Ceanothus megacarpus 1
Type: vegetation
Class: Shrub
Genus: Ceanothus
Species: megacarpus
Sample No.: VH212
Owner: UCSB
Wavelength Range: TIR
Origin: 34.4908; -119.7914; WGS84
Collection Date: 10/13/2013
Description: Samples were collected as part of the HyspIRI Airborne Campaign. 48 individual plants were sampled in three times in 2013 - spring  summer  and fall. The name of the sample includes a 1  2  or 3 which references a different individual of the species. Samples were taken to JPL and processed within 48 hours of collection. The same leaves were processed in the Nicolet and then measured using the ASD.
Measurement: Hemispherical reflectance
First Column: X
Second Column: Y
X Units: Wavelength (micrometers)
Y Units: Reflectance (percentage)
First X Value: 2.501
Last X Value: 15.387
Number of X Values: 1737
Additional Information: vegetation.shrub.ceanothus.megacarpus.tir.vh212.ucsb.nicolet.ancillary.txt

 2.5010	 5.9490
 2.5030	 5.8870
 2.5040	 5.7210
 2.5050	 5.4130
 2.5060	 5.4210
 2.5070	 5.5670
 2.5090	 5.4590
 2.5100	 5.5720
 2.5110	 5.7950
 2.5120	 5.6700
 2.5140	 5.5500
 2.5150	 5.5260
 2.5160	 5.3890
 2.5170	 5.3820
 2.5180	 5.4110
 2.5200	 5.5160
 2.5210	 5.6220
 2.5220	 5.5620
 2.5230	 5.5460
 2.5250	 5.5420
 2.5260	 5.5310
 2.5270	 5.4920
 2.5280	 5.6570
 2.5290	 5.7590
 2.5310	 5.7640
 2.5320	 5.6410
 2.5330	 5.5180
 2.5340	 5.4680
 2.5360	 5.5840
 2.5370	 5.6120
 2.5380	 5.6700
 2.5390	 5.6040
 2.5410	 5.7360
 2.5420	 5.6590
 2.5430	 5.6150
 2.5440	 5.7000
 2.5460	 5.7180
 2.5470	 5.5460
 2.5480	 5.5970
 2.5490	 5.6220
 2.5510	 5.4510
 2.5520	 5.3670
 2.5530	 5.5520
 2.5540	 5.6880
 2.5560	 5.7050
 2.5570	 5.4230
 2.5580	 5.3360
 2.5590	 5.5950
 2.5610	 5.8540
 2.5620	 5.7620
 2.5630	 5.7210
 2.5640	 5.6230
 2.5660	 5.5840
 2.5670	 5.7270
 2.5680	 5.8440
 2.5700	 5.8310
 2.5710	 5.6560
 2.5720	 5.5990
 2.5730	 5.6890
 2.5750	 5.5900
 2.5760	 5.7330
 2.5770	 5.8660
 2.5790	 5.7870
 2.5800	 5.6570
 2.5810	 5.5970
 2.5820	 5.5730
 2.5840	 5.6950
 2.5850	 5.6260
 2.5860	 5.5160
 2.5880	 5.3000
 2.5890	 5.5270
 2.5900	 5.6530
 2.5910	 5.8100
 2.5930	 5.8420
 2.5940	 5.7240
 2.5950	 5.6360
 2.5970	 5.5630
 2.5980	 5.4860
 2.5990	 5.5020
 2.6000	 5.4240
 2.6020	 5.4070
 2.6030	 5.3800
 2.6040	 5.3890
 2.6060	 5.3670
 2.6070	 5.4860
 2.6080	 5.6520
 2.6100	 5.5440
 2.6110	 5.4520
 2.6120	 5.4540
 2.6140	 5.3790
 2.6150	 5.3970
 2.6160	 5.4530
 2.6180	 5.7330
 2.6190	 5.6730
 2.6200	 5.4750
 2.6220	 5.2720
 2.6230	 5.3670
 2.6240	 5.4060
 2.6260	 5.2730
 2.6270	 5.2020
 2.6280	 5.1590
 2.6300	 5.1810
 2.6310	 5.5030
 2.6320	 5.4860
 2.6340	 5.2960
 2.6350	 5.1880
 2.6360	 5.2050
 2.6380	 5.2210
 2.6390	 5.2720
 2.6400	 5.3030
 2.6420	 5.3260
 2.6430	 5.3990
 2.6440	 5.4440
 2.6460	 5.2030
 2.6470	 5.1370
 2.6480	 5.2420
 2.6500	 5.1590
 2.6510	 5.1330
 2.6520	 5.2230
 2.6540	 5.0900
 2.6550	 4.9980
 2.6560	 5.0220
 2.6580	 5.0550
 2.6590	 5.0140
 2.6610	 5.1110
 2.6620	 5.2270
 2.6630	 5.2220
 2.6650	 5.0380
 2.6660	 4.8390
 2.6670	 4.8450
 2.6690	 5.0600
 2.6700	 5.1170
 2.6720	 5.1110
 2.6730	 5.0580
 2.6740	 5.1520
 2.6760	 5.2570
 2.6770	 5.2170
 2.6780	 4.9180
 2.6800	 4.8670
 2.6810	 5.0000
 2.6830	 4.9780
 2.6840	 4.8840
 2.6850	 4.9510
 2.6870	 5.0140
 2.6880	 5.0160
 2.6900	 4.8750
 2.6910	 4.8260
 2.6920	 4.7900
 2.6940	 4.8040
 2.6950	 4.8480
 2.6970	 4.7190
 2.6980	 4.5820
 2.6990	 4.6270
 2.7010	 4.7240
 2.7020	 4.8660
 2.7040	 4.8620
 2.7050	 4.8240
 2.7060	 4.8120
 2.7080	 4.7830
 2.7090	 4.6130
 2.7110	 4.6040
 2.7120	 4.4390
 2.7130	 4.5160
 2.7150	 4.5900
 2.7160	 4.6470
 2.7180	 4.6020
 2.7190	 4.5130
 2.7210	 4.5380
 2.7220	 4.5840
 2.7230	 4.4260
 2.7250	 4.6750
 2.7260	 4.5350
 2.7280	 4.4070
 2.7290	 4.5380
 2.7310	 4.5920
 2.7320	 4.5070
 2.7330	 4.5910
 2.7350	 4.3300
 2.7360	 4.2290
 2.7380	 4.2300
 2.7390	 4.3120
 2.7410	 4.1750
 2.7420	 4.1670
 2.7440	 4.3770
 2.7450	 4.5250
 2.7470	 4.3110
 2.7480	 3.7920
 2.7490	 3.6730
 2.7510	 4.5070
 2.7520	 5.0350
 2.7540	 5.1370
 2.7550	 4.6240
 2.7570	 3.8450
 2.7580	 4.0370
 2.7600	 4.4000
 2.7610	 4.6010
 2.7630	 4.8660
 2.7640	 4.5600
 2.7660	 4.0890
 2.7670	 3.9130
 2.7680	 4.1990
 2.7700	 4.5130
 2.7710	 4.4720
 2.7730	 4.5890
 2.7740	 4.4430
 2.7760	 4.4110
 2.7770	 4.5510
 2.7790	 4.4940
 2.7800	 4.6390
 2.7820	 4.4910
 2.7830	 4.2480
 2.7850	 4.4090
 2.7860	 4.6050
 2.7880	 4.2680
 2.7890	 3.9620
 2.7910	 4.0520
 2.7920	 4.5180
 2.7940	 4.5230
 2.7950	 4.4980
 2.7970	 4.4510
 2.7980	 4.2750
 2.8000	 4.0250
 2.8010	 4.0910
 2.8030	 4.2380
 2.8040	 4.2130
 2.8060	 4.0790
 2.8070	 4.1650
 2.8090	 4.3390
 2.8110	 4.3730
 2.8120	 4.2230
 2.8140	 4.0100
 2.8150	 4.0410
 2.8170	 4.3330
 2.8180	 4.4590
 2.8200	 4.5160
 2.8210	 4.2990
 2.8230	 3.8500
 2.8240	 4.2200
 2.8260	 4.4840
 2.8270	 4.1660
 2.8290	 3.9250
 2.8300	 4.1050
 2.8320	 4.3330
 2.8340	 4.1410
 2.8350	 4.4160
 2.8370	 4.7650
 2.8380	 4.6130
 2.8400	 4.2890
 2.8410	 3.9920
 2.8430	 4.0140
 2.8440	 4.2140
 2.8460	 4.3520
 2.8480	 4.2710
 2.8490	 4.1320
 2.8510	 4.2990
 2.8520	 4.3000
 2.8540	 4.2240
 2.8550	 4.2020
 2.8570	 4.2680
 2.8590	 4.1840
 2.8600	 4.2480
 2.8620	 4.2770
 2.8630	 4.2780
 2.8650	 4.4220
 2.8660	 4.6020
 2.8680	 4.3830
 2.8700	 4.3510
 2.8710	 4.4470
 2.8730	 4.6840
 2.8740	 4.7430
 2.8760	 4.5090
 2.8780	 4.5270
 2.8790	 4.3440
 2.8810	 3.7950
 2.8820	 4.3120
 2.8840	 4.7190
 2.8860	 4.3300
 2.8870	 3.9230
 2.8890	 3.7070
 2.8900	 3.8090
 2.8920	 4.0450
 2.8940	 4.2470
 2.8950	 4.3250
 2.8970	 4.5380
 2.8980	 4.5930
 2.9000	 4.2320
 2.9020	 4.0650
 2.9030	 4.3180
 2.9050	 4.7610
 2.9070	 4.4540
 2.9080	 4.1190
 2.9100	 4.2180
 2.9120	 4.3300
 2.9130	 4.4650
 2.9150	 4.5670
 2.9160	 4.6260
 2.9180	 4.5680
 2.9200	 4.2980
 2.9210	 4.2760
 2.9230	 4.4160
 2.9250	 4.4590
 2.9260	 4.3730
 2.9280	 4.2920
 2.9300	 4.1450
 2.9310	 4.1640
 2.9330	 4.2210
 2.9350	 4.2730
 2.9360	 4.3360
 2.9380	 4.4990
 2.9400	 4.7790
 2.9410	 4.5210
 2.9430	 4.0880
 2.9450	 3.8410
 2.9460	 4.1790
 2.9480	 4.6900
 2.9500	 4.8550
 2.9510	 4.3170
 2.9530	 4.3100
 2.9550	 4.6830
 2.9560	 4.4890
 2.9580	 3.8490
 2.9600	 3.6660
 2.9610	 3.5600
 2.9630	 3.1530
 2.9650	 2.8530
 2.9660	 2.7220
 2.9680	 5.0630
 2.9700	 7.0440
 2.9720	 6.4010
 2.9730	 6.3100
 2.9750	 7.6330
 2.9770	 5.7770
 2.9780	 3.6460
 2.9800	 3.2500
 2.9820	 3.8780
 2.9840	 3.6850
 2.9850	 4.4730
 2.9870	 4.7890
 2.9890	 5.0330
 2.9900	 4.3180
 2.9920	 2.4830
 2.9940	 2.7390
 2.9960	 0.9150
 2.9970	 1.7680
 2.9990	 4.1530
 3.0010	 3.3810
 3.0030	 1.6640
 3.0040	 1.7390
 3.0060	 4.3710
 3.0080	 5.0210
 3.0100	 4.1350
 3.0110	 3.9640
 3.0130	 2.7240
 3.0150	 2.3650
 3.0170	 4.1390
 3.0180	 4.8710
 3.0200	 4.7270
 3.0220	 3.9620
 3.0240	 3.3530
 3.0250	 4.4230
 3.0270	 5.4350
 3.0290	 5.2220
 3.0310	 4.6620
 3.0320	 3.6060
 3.0340	 2.8500
 3.0360	 3.6580
 3.0380	 3.9990
 3.0400	 4.5900
 3.0410	 5.7590
 3.0430	 8.9290
 3.0450	 9.7970
 3.0470	 5.6130
 3.0480	 2.8200
 3.0500	 1.5280
 3.0520	 3.9340
 3.0540	 6.5010
 3.0560	 5.6290
 3.0570	 3.8680
 3.0590	 4.3240
 3.0610	 4.7190
 3.0630	 4.0440
 3.0650	 3.0780
 3.0660	 3.4510
 3.0680	 3.0660
 3.0700	 3.6760
 3.0720	 4.3510
 3.0740	 3.9410
 3.0760	 3.8820
 3.0770	 4.1610
 3.0790	 4.1180
 3.0810	 4.3700
 3.0830	 4.6560
 3.0850	 4.6580
 3.0870	 4.3480
 3.0880	 4.2980
 3.0900	 4.2750
 3.0920	 4.6700
 3.0940	 4.3380
 3.0960	 4.0840
 3.0980	 4.4770
 3.0990	 4.7720
 3.1010	 4.2920
 3.1030	 4.2550
 3.1050	 4.3890
 3.1070	 4.5800
 3.1090	 4.4670
 3.1110	 4.5990
 3.1120	 4.6060
 3.1140	 4.6700
 3.1160	 4.2910
 3.1180	 4.0670
 3.1200	 4.1410
 3.1220	 4.3620
 3.1240	 4.4900
 3.1260	 4.8010
 3.1270	 4.6910
 3.1290	 4.9620
 3.1310	 4.6970
 3.1330	 4.4800
 3.1350	 4.2730
 3.1370	 4.3420
 3.1390	 4.2260
 3.1410	 4.0140
 3.1430	 2.9440
 3.1450	 3.2920
 3.1460	 3.3090
 3.1480	 4.1580
 3.1500	 5.3880
 3.1520	 4.1730
 3.1540	 4.0000
 3.1560	 5.8070
 3.1580	 7.5740
 3.1600	 7.4140
 3.1620	 5.5630
 3.1640	 3.0520
 3.1660	 4.1540
 3.1680	 8.9060
 3.1700	10.1760
 3.1710	 7.3300
 3.1730	 6.2650
 3.1750	 5.6950
 3.1770	 4.0690
 3.1790	 3.5520
 3.1810	 4.2280
 3.1830	 4.7840
 3.1850	 4.5780
 3.1870	 4.1020
 3.1890	 4.0510
 3.1910	 4.1330
 3.1930	 4.1850
 3.1950	 4.2070
 3.1970	 4.1430
 3.1990	 4.1950
 3.2010	 4.1600
 3.2030	 4.2840
 3.2050	 4.2220
 3.2070	 4.1820
 3.2090	 4.4940
 3.2110	 4.5260
 3.2130	 4.5540
 3.2150	 4.5670
 3.2170	 4.3100
 3.2190	 4.4260
 3.2210	 4.5380
 3.2230	 4.2940
 3.2250	 3.9920
 3.2270	 3.9350
 3.2290	 3.9620
 3.2310	 4.0640
 3.2330	 4.2400
 3.2350	 4.1850
 3.2370	 4.0140
 3.2390	 4.2880
 3.2410	 4.3660
 3.2430	 4.2550
 3.2450	 4.1070
 3.2470	 4.2580
 3.2490	 4.7720
 3.2510	 4.9790
 3.2530	 4.6340
 3.2550	 4.2220
 3.2570	 4.2200
 3.2590	 4.4300
 3.2610	 4.4840
 3.2630	 4.5590
 3.2650	 4.5420
 3.2670	 4.3660
 3.2690	 4.0900
 3.2720	 4.3060
 3.2740	 4.4620
 3.2760	 4.3400
 3.2780	 4.1860
 3.2800	 4.0730
 3.2820	 4.2440
 3.2840	 4.2010
 3.2860	 3.9430
 3.2880	 4.1720
 3.2900	 4.3550
 3.2920	 4.4180
 3.2940	 4.4450
 3.2960	 4.3980
 3.2990	 4.0070
 3.3010	 4.1370
 3.3030	 4.2310
 3.3050	 4.3270
 3.3070	 4.5010
 3.3090	 4.5030
 3.3110	 4.3730
 3.3130	 4.6930
 3.3150	 4.7850
 3.3180	 4.5120
 3.3200	 4.2640
 3.3220	 4.0020
 3.3240	 3.7630
 3.3260	 3.8500
 3.3280	 4.2940
 3.3300	 4.4720
 3.3330	 4.1620
 3.3350	 4.0240
 3.3370	 4.0360
 3.3390	 3.9840
 3.3410	 4.1510
 3.3430	 4.2190
 3.3450	 3.9680
 3.3480	 3.9810
 3.3500	 4.1850
 3.3520	 4.2590
 3.3540	 4.0240
 3.3560	 3.7500
 3.3580	 3.7670
 3.3610	 4.0880
 3.3630	 4.0780
 3.3650	 3.9570
 3.3670	 3.8680
 3.3690	 3.9420
 3.3720	 3.9180
 3.3740	 3.9750
 3.3760	 4.0700
 3.3780	 4.0980
 3.3800	 3.9850
 3.3830	 4.0670
 3.3850	 4.1560
 3.3870	 4.3690
 3.3890	 4.2500
 3.3910	 3.9480
 3.3940	 3.9250
 3.3960	 3.9740
 3.3980	 3.9750
 3.4000	 4.1220
 3.4020	 4.0920
 3.4050	 4.1120
 3.4070	 4.3550
 3.4090	 4.6160
 3.4110	 4.7600
 3.4140	 4.9490
 3.4160	 5.2300
 3.4180	 5.6190
 3.4200	 6.0160
 3.4230	 6.6010
 3.4250	 7.5780
 3.4270	 8.5350
 3.4290	 8.7940
 3.4320	 8.4540
 3.4340	 7.5540
 3.4360	 6.7920
 3.4390	 6.4160
 3.4410	 5.9860
 3.4430	 5.8060
 3.4450	 5.6950
 3.4480	 5.4110
 3.4500	 5.6140
 3.4520	 5.6650
 3.4550	 5.5890
 3.4570	 5.5260
 3.4590	 5.3010
 3.4620	 5.1970
 3.4640	 5.2730
 3.4660	 5.1250
 3.4680	 4.9940
 3.4710	 4.9080
 3.4730	 4.8390
 3.4750	 4.8480
 3.4780	 4.8700
 3.4800	 4.7540
 3.4820	 4.8180
 3.4850	 4.8060
 3.4870	 4.7080
 3.4890	 4.6200
 3.4920	 4.6200
 3.4940	 4.6070
 3.4970	 4.7540
 3.4990	 4.9410
 3.5010	 5.1910
 3.5040	 5.6170
 3.5060	 6.3700
 3.5080	 7.2820
 3.5110	 7.9480
 3.5130	 7.7400
 3.5160	 6.9120
 3.5180	 6.0640
 3.5200	 5.7190
 3.5230	 5.5460
 3.5250	 5.6390
 3.5270	 5.5980
 3.5300	 5.4160
 3.5320	 5.2870
 3.5350	 5.2080
 3.5370	 5.2120
 3.5400	 5.2740
 3.5420	 5.1860
 3.5440	 5.2370
 3.5470	 5.1950
 3.5490	 5.1380
 3.5520	 5.2570
 3.5540	 5.2770
 3.5570	 5.1410
 3.5590	 5.0420
 3.5610	 4.9540
 3.5640	 5.0700
 3.5660	 5.1590
 3.5690	 5.1680
 3.5710	 4.9380
 3.5740	 4.8850
 3.5760	 4.8510
 3.5790	 4.8220
 3.5810	 4.8280
 3.5840	 4.8350
 3.5860	 4.7260
 3.5890	 4.7760
 3.5910	 5.0440
 3.5930	 5.0930
 3.5960	 4.8170
 3.5980	 5.0120
 3.6010	 4.9530
 3.6030	 4.8890
 3.6060	 4.8340
 3.6080	 4.6210
 3.6110	 4.7020
 3.6140	 4.8980
 3.6160	 4.8510
 3.6190	 4.8960
 3.6210	 4.9590
 3.6240	 4.9120
 3.6260	 4.8090
 3.6290	 4.8760
 3.6310	 4.8470
 3.6340	 4.7960
 3.6360	 4.8030
 3.6390	 4.8540
 3.6410	 4.7860
 3.6440	 4.8040
 3.6470	 4.8060
 3.6490	 4.8280
 3.6520	 4.7970
 3.6540	 4.7600
 3.6570	 4.7300
 3.6590	 4.7980
 3.6620	 4.7350
 3.6650	 4.7370
 3.6670	 4.8030
 3.6700	 4.7930
 3.6720	 4.7380
 3.6750	 4.8120
 3.6780	 4.7790
 3.6800	 4.8530
 3.6830	 4.9270
 3.6850	 4.9480
 3.6880	 4.8610
 3.6910	 4.8200
 3.6930	 4.7860
 3.6960	 4.7850
 3.6990	 4.7250
 3.7010	 4.7770
 3.7040	 4.7860
 3.7060	 4.7830
 3.7090	 4.7990
 3.7120	 4.7780
 3.7140	 4.7210
 3.7170	 4.8210
 3.7200	 4.8100
 3.7220	 4.7950
 3.7250	 4.8520
 3.7280	 4.9690
 3.7300	 4.9020
 3.7330	 4.7990
 3.7360	 4.8320
 3.7390	 4.8980
 3.7410	 4.7340
 3.7440	 4.7580
 3.7470	 4.7880
 3.7490	 4.7160
 3.7520	 4.5830
 3.7550	 4.6630
 3.7580	 4.9450
 3.7600	 5.0610
 3.7630	 4.9710
 3.7660	 5.0010
 3.7680	 4.8710
 3.7710	 4.7560
 3.7740	 4.7440
 3.7770	 4.7630
 3.7790	 4.7360
 3.7820	 4.8110
 3.7850	 4.8890
 3.7880	 4.8740
 3.7900	 4.7240
 3.7930	 4.6610
 3.7960	 4.7140
 3.7990	 4.8670
 3.8020	 4.8690
 3.8040	 4.8780
 3.8070	 4.8630
 3.8100	 4.8740
 3.8130	 4.7960
 3.8160	 4.8380
 3.8180	 4.8750
 3.8210	 4.6850
 3.8240	 4.6730
 3.8270	 4.7620
 3.8300	 4.6610
 3.8330	 4.6310
 3.8350	 4.9330
 3.8380	 4.9690
 3.8410	 4.8350
 3.8440	 4.8570
 3.8470	 4.8700
 3.8500	 4.8340
 3.8520	 4.8440
 3.8550	 4.7960
 3.8580	 4.7800
 3.8610	 4.8100
 3.8640	 4.8130
 3.8670	 4.8130
 3.8700	 4.8580
 3.8730	 4.9320
 3.8750	 4.8270
 3.8780	 4.6970
 3.8810	 4.6810
 3.8840	 4.6340
 3.8870	 4.6250
 3.8900	 4.7720
 3.8930	 4.7600
 3.8960	 4.7400
 3.8990	 4.6630
 3.9020	 4.6990
 3.9050	 4.8410
 3.9080	 4.9870
 3.9110	 4.8800
 3.9140	 4.7820
 3.9160	 4.7770
 3.9190	 4.6720
 3.9220	 4.6450
 3.9250	 4.7190
 3.9280	 4.7340
 3.9310	 4.6830
 3.9340	 4.6720
 3.9370	 4.7410
 3.9400	 4.7250
 3.9430	 4.7490
 3.9460	 4.8310
 3.9490	 4.7710
 3.9520	 4.7070
 3.9550	 4.7870
 3.9580	 4.7710
 3.9610	 4.7350
 3.9640	 4.7470
 3.9670	 4.6890
 3.9700	 4.8070
 3.9730	 4.8800
 3.9770	 4.7900
 3.9800	 4.7170
 3.9830	 4.7590
 3.9860	 4.7540
 3.9890	 4.7300
 3.9920	 4.7340
 3.9950	 4.7660
 3.9980	 4.8140
 4.0010	 4.7320
 4.0040	 4.7440
 4.0070	 4.8280
 4.0100	 4.8190
 4.0130	 4.7620
 4.0170	 4.8030
 4.0200	 4.7650
 4.0230	 4.7360
 4.0260	 4.7390
 4.0290	 4.6400
 4.0320	 4.6730
 4.0350	 4.8520
 4.0380	 4.8990
 4.0420	 4.8530
 4.0450	 4.7930
 4.0480	 4.7140
 4.0510	 4.7740
 4.0540	 4.8920
 4.0570	 4.8950
 4.0610	 4.9540
 4.0640	 4.9340
 4.0670	 4.9290
 4.0700	 4.8710
 4.0730	 4.8920
 4.0770	 4.8110
 4.0800	 4.6500
 4.0830	 4.6560
 4.0860	 4.8160
 4.0890	 4.8880
 4.0930	 4.8080
 4.0960	 4.7220
 4.0990	 4.7450
 4.1020	 4.6160
 4.1060	 4.4500
 4.1090	 4.4550
 4.1120	 4.7270
 4.1150	 4.9500
 4.1190	 5.1170
 4.1220	 5.0930
 4.1250	 4.8000
 4.1280	 4.7370
 4.1320	 4.8260
 4.1350	 4.7930
 4.1380	 4.8250
 4.1420	 4.8230
 4.1450	 4.7580
 4.1480	 4.7850
 4.1520	 4.7860
 4.1550	 4.7840
 4.1580	 4.7620
 4.1620	 4.6660
 4.1650	 4.7090
 4.1680	 4.7070
 4.1720	 4.7600
 4.1750	 4.7600
 4.1780	 4.7300
 4.1820	 4.7790
 4.1850	 4.7430
 4.1890	 4.6360
 4.1920	 4.5550
 4.1950	 4.6060
 4.1990	 4.7910
 4.2020	 4.8090
 4.2060	 4.7540
 4.2090	 4.9690
 4.2120	 5.1130
 4.2160	 5.2020
 4.2190	 5.5580
 4.2230	 5.5260
 4.2260	 5.4200
 4.2300	 5.1570
 4.2330	 5.2460
 4.2360	 5.4560
 4.2400	 5.3240
 4.2430	 5.2770
 4.2470	 5.0270
 4.2500	 5.0240
 4.2540	 5.0140
 4.2570	 5.0120
 4.2610	 5.2030
 4.2640	 5.1550
 4.2680	 4.7460
 4.2710	 4.7670
 4.2750	 5.0630
 4.2780	 5.1350
 4.2820	 4.9160
 4.2850	 4.9570
 4.2890	 5.1430
 4.2930	 5.3080
 4.2960	 5.1760
 4.3000	 4.7900
 4.3030	 4.6360
 4.3070	 4.6570
 4.3100	 4.8770
 4.3140	 5.1270
 4.3180	 4.9850
 4.3210	 4.9810
 4.3250	 4.9700
 4.3280	 5.0110
 4.3320	 4.9950
 4.3360	 4.8900
 4.3390	 4.8070
 4.3430	 4.8380
 4.3470	 4.8660
 4.3500	 4.8110
 4.3540	 4.6760
 4.3570	 4.6910
 4.3610	 4.7670
 4.3650	 4.8280
 4.3680	 4.7960
 4.3720	 4.7140
 4.3760	 4.6790
 4.3800	 4.7450
 4.3830	 4.7650
 4.3870	 4.6930
 4.3910	 4.5940
 4.3940	 4.6570
 4.3980	 4.7570
 4.4020	 4.6760
 4.4060	 4.6310
 4.4090	 4.5990
 4.4130	 4.5630
 4.4170	 4.5340
 4.4210	 4.5680
 4.4240	 4.6080
 4.4280	 4.5700
 4.4320	 4.6010
 4.4360	 4.7010
 4.4400	 4.7130
 4.4430	 4.6850
 4.4470	 4.6320
 4.4510	 4.5990
 4.4550	 4.5520
 4.4590	 4.5400
 4.4620	 4.6530
 4.4660	 4.6140
 4.4700	 4.5770
 4.4740	 4.6410
 4.4780	 4.6470
 4.4820	 4.5880
 4.4860	 4.4290
 4.4900	 4.3960
 4.4930	 4.6420
 4.4970	 4.7670
 4.5010	 4.5440
 4.5050	 4.4330
 4.5090	 4.4610
 4.5130	 4.4890
 4.5170	 4.6170
 4.5210	 4.6400
 4.5250	 4.6320
 4.5290	 4.5510
 4.5330	 4.4730
 4.5370	 4.4900
 4.5410	 4.5640
 4.5450	 4.6380
 4.5490	 4.6290
 4.5530	 4.5500
 4.5570	 4.6830
 4.5610	 4.6940
 4.5650	 4.6280
 4.5690	 4.5970
 4.5730	 4.5890
 4.5770	 4.5520
 4.5810	 4.6240
 4.5850	 4.6100
 4.5890	 4.5320
 4.5930	 4.6270
 4.5970	 4.7560
 4.6010	 4.5720
 4.6050	 4.5650
 4.6090	 4.7820
 4.6130	 4.7820
 4.6170	 4.6100
 4.6220	 4.5860
 4.6260	 4.6060
 4.6300	 4.5530
 4.6340	 4.5280
 4.6380	 4.5210
 4.6420	 4.4890
 4.6460	 4.4910
 4.6510	 4.5410
 4.6550	 4.5180
 4.6590	 4.4500
 4.6630	 4.5180
 4.6670	 4.5140
 4.6720	 4.5270
 4.6760	 4.5830
 4.6800	 4.5160
 4.6840	 4.4580
 4.6880	 4.4940
 4.6930	 4.4820
 4.6970	 4.4450
 4.7010	 4.4900
 4.7050	 4.5940
 4.7100	 4.6300
 4.7140	 4.6100
 4.7180	 4.5250
 4.7230	 4.5870
 4.7270	 4.5550
 4.7310	 4.5070
 4.7360	 4.5030
 4.7400	 4.4820
 4.7440	 4.4760
 4.7490	 4.4880
 4.7530	 4.5190
 4.7570	 4.5610
 4.7620	 4.5080
 4.7660	 4.5070
 4.7700	 4.4700
 4.7750	 4.5240
 4.7790	 4.5580
 4.7840	 4.6490
 4.7880	 4.7970
 4.7920	 4.7590
 4.7970	 4.6170
 4.8010	 4.6680
 4.8060	 4.6030
 4.8100	 4.5270
 4.8150	 4.4000
 4.8190	 4.3970
 4.8240	 4.4520
 4.8280	 4.4400
 4.8330	 4.4000
 4.8370	 4.4790
 4.8420	 4.5830
 4.8460	 4.5350
 4.8510	 4.4300
 4.8550	 4.4060
 4.8600	 4.4120
 4.8640	 4.4490
 4.8690	 4.4850
 4.8730	 4.5540
 4.8780	 4.5430
 4.8830	 4.4750
 4.8870	 4.3420
 4.8920	 4.3460
 4.8960	 4.4140
 4.9010	 4.4740
 4.9060	 4.5220
 4.9100	 4.5700
 4.9150	 4.5050
 4.9200	 4.4650
 4.9240	 4.4570
 4.9290	 4.4310
 4.9340	 4.4050
 4.9380	 4.4520
 4.9430	 4.4000
 4.9480	 4.4100
 4.9530	 4.4360
 4.9570	 4.4210
 4.9620	 4.3530
 4.9670	 4.4180
 4.9720	 4.4240
 4.9760	 4.3530
 4.9810	 4.3740
 4.9860	 4.4120
 4.9910	 4.4350
 4.9960	 4.5080
 5.0000	 4.4960
 5.0050	 4.4510
 5.0100	 4.4610
 5.0150	 4.4660
 5.0200	 4.4100
 5.0250	 4.4570
 5.0290	 4.4370
 5.0340	 4.3420
 5.0390	 4.3370
 5.0440	 4.3840
 5.0490	 4.3860
 5.0540	 4.4030
 5.0590	 4.4870
 5.0640	 4.4730
 5.0690	 4.3520
 5.0740	 4.3950
 5.0790	 4.4500
 5.0840	 4.5350
 5.0890	 4.5610
 5.0940	 4.5520
 5.0990	 4.4750
 5.1040	 4.4110
 5.1090	 4.3490
 5.1140	 4.3540
 5.1190	 4.3320
 5.1240	 4.4030
 5.1290	 4.4240
 5.1340	 4.3970
 5.1390	 4.3750
 5.1440	 4.4420
 5.1490	 4.3310
 5.1540	 4.3160
 5.1600	 4.3690
 5.1650	 4.4500
 5.1700	 4.4930
 5.1750	 4.4270
 5.1800	 4.4520
 5.1850	 4.4760
 5.1910	 4.4080
 5.1960	 4.4520
 5.2010	 4.4480
 5.2060	 4.4110
 5.2110	 4.3840
 5.2170	 4.4730
 5.2220	 4.4510
 5.2270	 4.4470
 5.2320	 4.4630
 5.2380	 4.5020
 5.2430	 4.3250
 5.2480	 4.3270
 5.2540	 4.4340
 5.2590	 4.4170
 5.2640	 4.3200
 5.2700	 4.2820
 5.2750	 4.2670
 5.2800	 4.3290
 5.2860	 4.3580
 5.2910	 4.4220
 5.2970	 4.3880
 5.3020	 4.3370
 5.3070	 4.3200
 5.3130	 4.4050
 5.3180	 4.4470
 5.3240	 4.4680
 5.3290	 4.4240
 5.3350	 4.4570
 5.3400	 4.3420
 5.3460	 4.3030
 5.3510	 4.3290
 5.3570	 4.3460
 5.3620	 4.3160
 5.3680	 4.2660
 5.3730	 4.2270
 5.3790	 4.3460
 5.3850	 4.3740
 5.3900	 4.3510
 5.3960	 4.2780
 5.4010	 4.2270
 5.4070	 4.2330
 5.4130	 4.2600
 5.4180	 4.2000
 5.4240	 4.2350
 5.4300	 4.2040
 5.4350	 4.2640
