Name: Cedrus deodara
Type: vegetation
Class: Tree
Genus: Cedrus
Species: deodara
Sample No.: JPL103
Owner: JPL
Wavelength Range: VSWIR
Origin: 34.12803; - 118.11578; WGS84
Collection Date: 2/2/2016
Description: Samples were collected at the Huntington Garden in San Marino California as part of a JPL Subcontract studying HyTES imagery. Samples were taken to JPL and processed within 48 hours of collection. The same leaves were processed in the Nicolet and then measured using the ASD.
Measurement: Bidirectional reflectance
First Column: X
Second Column: Y
X Units: Wavelength (micrometer)
Y Units: Reflectance (percentage)
First X Value: 0.35
Last X Value: 2.5
Number of X Values: 2151
Additional Information: 

 0.3500	 4.9610
 0.3510	 4.3630
 0.3520	 3.8640
 0.3530	 3.7780
 0.3540	 3.7600
 0.3550	 4.3120
 0.3560	 4.9360
 0.3570	 4.8760
 0.3580	 3.5370
 0.3590	 3.3140
 0.3600	 3.6050
 0.3610	 3.8800
 0.3620	 4.2360
 0.3630	 4.0310
 0.3640	 3.7910
 0.3650	 4.1320
 0.3660	 4.9140
 0.3670	 4.6040
 0.3680	 3.8240
 0.3690	 4.4860
 0.3700	 4.5260
 0.3710	 3.9360
 0.3720	 3.3630
 0.3730	 4.0930
 0.3740	 4.0990
 0.3750	 3.5590
 0.3760	 3.3230
 0.3770	 3.6040
 0.3780	 3.9920
 0.3790	 4.2260
 0.3800	 4.2590
 0.3810	 4.3650
 0.3820	 4.3720
 0.3830	 4.1450
 0.3840	 3.6830
 0.3850	 3.9300
 0.3860	 4.4250
 0.3870	 4.3180
 0.3880	 4.1920
 0.3890	 4.0500
 0.3900	 3.9550
 0.3910	 4.0520
 0.3920	 4.1940
 0.3930	 4.1640
 0.3940	 3.9630
 0.3950	 4.1930
 0.3960	 4.4840
 0.3970	 4.3280
 0.3980	 3.4660
 0.3990	 4.0020
 0.4000	 4.2150
 0.4010	 3.7210
 0.4020	 4.2420
 0.4030	 4.2860
 0.4040	 4.1260
 0.4050	 4.2310
 0.4060	 4.2790
 0.4070	 3.9500
 0.4080	 3.7490
 0.4090	 4.5060
 0.4100	 4.4670
 0.4110	 4.2560
 0.4120	 4.3340
 0.4130	 4.2990
 0.4140	 4.2090
 0.4150	 4.1850
 0.4160	 4.3140
 0.4170	 4.4400
 0.4180	 4.4650
 0.4190	 4.3730
 0.4200	 4.2330
 0.4210	 4.4020
 0.4220	 4.6110
 0.4230	 4.6240
 0.4240	 4.5930
 0.4250	 4.5830
 0.4260	 4.5730
 0.4270	 4.5130
 0.4280	 4.5180
 0.4290	 4.6110
 0.4300	 4.7440
 0.4310	 4.7860
 0.4320	 4.7790
 0.4330	 4.7490
 0.4340	 4.7250
 0.4350	 4.7540
 0.4360	 4.7330
 0.4370	 4.6700
 0.4380	 4.6610
 0.4390	 4.7480
 0.4400	 4.8000
 0.4410	 4.7490
 0.4420	 4.7200
 0.4430	 4.7460
 0.4440	 4.7830
 0.4450	 4.7730
 0.4460	 4.8220
 0.4470	 4.8020
 0.4480	 4.7280
 0.4490	 4.7910
 0.4500	 4.8350
 0.4510	 4.8240
 0.4520	 4.7800
 0.4530	 4.7990
 0.4540	 4.8770
 0.4550	 4.9450
 0.4560	 4.9030
 0.4570	 4.7950
 0.4580	 4.7870
 0.4590	 4.8990
 0.4600	 4.8640
 0.4610	 4.8060
 0.4620	 4.7960
 0.4630	 4.8580
 0.4640	 4.8440
 0.4650	 4.8210
 0.4660	 4.8130
 0.4670	 4.7870
 0.4680	 4.8210
 0.4690	 4.8620
 0.4700	 4.8490
 0.4710	 4.7640
 0.4720	 4.7300
 0.4730	 4.7430
 0.4740	 4.7370
 0.4750	 4.7910
 0.4760	 4.8000
 0.4770	 4.7470
 0.4780	 4.7850
 0.4790	 4.7950
 0.4800	 4.7900
 0.4810	 4.8040
 0.4820	 4.7630
 0.4830	 4.7760
 0.4840	 4.8320
 0.4850	 4.8190
 0.4860	 4.8080
 0.4870	 4.8010
 0.4880	 4.7970
 0.4890	 4.8290
 0.4900	 4.7830
 0.4910	 4.7080
 0.4920	 4.7220
 0.4930	 4.7690
 0.4940	 4.8280
 0.4950	 4.8710
 0.4960	 4.8500
 0.4970	 4.8340
 0.4980	 4.8320
 0.4990	 4.8330
 0.5000	 4.8120
 0.5010	 4.8420
 0.5020	 4.9160
 0.5030	 4.9620
 0.5040	 4.9730
 0.5050	 4.9660
 0.5060	 4.9680
 0.5070	 5.0160
 0.5080	 5.0580
 0.5090	 5.1010
 0.5100	 5.1660
 0.5110	 5.1820
 0.5120	 5.2090
 0.5130	 5.2760
 0.5140	 5.3630
 0.5150	 5.4230
 0.5160	 5.4800
 0.5170	 5.5620
 0.5180	 5.6240
 0.5190	 5.7050
 0.5200	 5.8040
 0.5210	 5.8940
 0.5220	 6.0030
 0.5230	 6.1010
 0.5240	 6.1700
 0.5250	 6.2420
 0.5260	 6.3200
 0.5270	 6.4050
 0.5280	 6.4900
 0.5290	 6.5820
 0.5300	 6.6490
 0.5310	 6.6910
 0.5320	 6.7480
 0.5330	 6.7980
 0.5340	 6.8310
 0.5350	 6.8460
 0.5360	 6.8790
 0.5370	 6.9100
 0.5380	 6.9510
 0.5390	 7.0260
 0.5400	 7.0520
 0.5410	 7.0750
 0.5420	 7.1280
 0.5430	 7.1900
 0.5440	 7.2340
 0.5450	 7.2430
 0.5460	 7.2190
 0.5470	 7.2110
 0.5480	 7.2070
 0.5490	 7.1990
 0.5500	 7.1940
 0.5510	 7.1950
 0.5520	 7.1870
 0.5530	 7.1640
 0.5540	 7.1760
 0.5550	 7.1690
 0.5560	 7.1370
 0.5570	 7.1070
 0.5580	 7.0660
 0.5590	 7.0130
 0.5600	 6.9540
 0.5610	 6.9060
 0.5620	 6.8690
 0.5630	 6.8250
 0.5640	 6.7590
 0.5650	 6.7080
 0.5660	 6.6490
 0.5670	 6.5800
 0.5680	 6.5340
 0.5690	 6.4630
 0.5700	 6.3950
 0.5710	 6.3530
 0.5720	 6.2820
 0.5730	 6.2340
 0.5740	 6.2000
 0.5750	 6.1290
 0.5760	 6.0700
 0.5770	 6.0130
 0.5780	 5.9610
 0.5790	 5.9570
 0.5800	 5.9240
 0.5810	 5.8750
 0.5820	 5.8490
 0.5830	 5.8290
 0.5840	 5.8060
 0.5850	 5.7850
 0.5860	 5.7790
 0.5870	 5.7540
 0.5880	 5.7180
 0.5890	 5.6870
 0.5900	 5.6610
 0.5910	 5.6550
 0.5920	 5.6560
 0.5930	 5.6370
 0.5940	 5.6020
 0.5950	 5.5970
 0.5960	 5.6210
 0.5970	 5.5930
 0.5980	 5.5470
 0.5990	 5.5240
 0.6000	 5.5460
 0.6010	 5.5350
 0.6020	 5.4970
 0.6030	 5.4610
 0.6040	 5.4740
 0.6050	 5.4630
 0.6060	 5.4290
 0.6070	 5.3870
 0.6080	 5.3350
 0.6090	 5.3300
 0.6100	 5.3600
 0.6110	 5.3770
 0.6120	 5.3390
 0.6130	 5.2790
 0.6140	 5.2250
 0.6150	 5.1960
 0.6160	 5.1730
 0.6170	 5.1380
 0.6180	 5.0880
 0.6190	 5.0860
 0.6200	 5.0790
 0.6210	 5.0520
 0.6220	 5.0270
 0.6230	 5.0180
 0.6240	 5.0180
 0.6250	 5.0150
 0.6260	 5.0020
 0.6270	 4.9870
 0.6280	 4.9700
 0.6290	 4.9540
 0.6300	 4.9510
 0.6310	 4.9610
 0.6320	 4.9680
 0.6330	 4.9460
 0.6340	 4.9400
 0.6350	 4.9400
 0.6360	 4.9290
 0.6370	 4.9190
 0.6380	 4.8980
 0.6390	 4.8680
 0.6400	 4.8430
 0.6410	 4.8130
 0.6420	 4.7990
 0.6430	 4.7980
 0.6440	 4.7570
 0.6450	 4.7480
 0.6460	 4.7420
 0.6470	 4.6970
 0.6480	 4.6730
 0.6490	 4.6550
 0.6500	 4.6420
 0.6510	 4.6440
 0.6520	 4.6310
 0.6530	 4.6130
 0.6540	 4.6030
 0.6550	 4.6110
 0.6560	 4.6010
 0.6570	 4.5790
 0.6580	 4.5620
 0.6590	 4.5280
 0.6600	 4.4960
 0.6610	 4.4870
 0.6620	 4.5120
 0.6630	 4.4890
 0.6640	 4.4540
 0.6650	 4.4460
 0.6660	 4.4350
 0.6670	 4.4090
 0.6680	 4.3920
 0.6690	 4.4160
 0.6700	 4.4330
 0.6710	 4.4220
 0.6720	 4.3980
 0.6730	 4.4300
 0.6740	 4.4540
 0.6750	 4.4650
 0.6760	 4.4700
 0.6770	 4.4540
 0.6780	 4.4470
 0.6790	 4.4610
 0.6800	 4.4870
 0.6810	 4.5150
 0.6820	 4.5390
 0.6830	 4.5550
 0.6840	 4.5680
 0.6850	 4.5710
 0.6860	 4.6010
 0.6870	 4.6820
 0.6880	 4.7440
 0.6890	 4.7870
 0.6900	 4.8390
 0.6910	 4.9370
 0.6920	 5.0700
 0.6930	 5.1950
 0.6940	 5.3170
 0.6950	 5.5480
 0.6960	 5.7960
 0.6970	 6.0460
 0.6980	 6.3190
 0.6990	 6.6580
 0.7000	 7.0190
 0.7010	 7.3910
 0.7020	 7.8040
 0.7030	 8.2190
 0.7040	 8.6440
 0.7050	 9.0920
 0.7060	 9.5750
 0.7070	10.0850
 0.7080	10.6010
 0.7090	11.1120
 0.7100	11.6630
 0.7110	12.2450
 0.7120	12.8400
 0.7130	13.4350
 0.7140	14.0500
 0.7150	14.6910
 0.7160	15.3580
 0.7170	16.0460
 0.7180	16.7570
 0.7190	17.4760
 0.7200	18.1900
 0.7210	18.9400
 0.7220	19.6970
 0.7230	20.4480
 0.7240	21.1960
 0.7250	21.9730
 0.7260	22.7560
 0.7270	23.5220
 0.7280	24.2800
 0.7290	25.0330
 0.7300	25.7680
 0.7310	26.4730
 0.7320	27.1900
 0.7330	27.8830
 0.7340	28.5390
 0.7350	29.1740
 0.7360	29.8200
 0.7370	30.4310
 0.7380	30.9800
 0.7390	31.5300
 0.7400	32.0570
 0.7410	32.5560
 0.7420	33.0290
 0.7430	33.4740
 0.7440	33.8840
 0.7450	34.2700
 0.7460	34.6600
 0.7470	35.0140
 0.7480	35.3370
 0.7490	35.6380
 0.7500	35.9110
 0.7510	36.1730
 0.7520	36.4190
 0.7530	36.6400
 0.7540	36.8370
 0.7550	37.0090
 0.7560	37.1660
 0.7570	37.3280
 0.7580	37.4870
 0.7590	37.6260
 0.7600	37.7390
 0.7610	37.8450
 0.7620	37.9480
 0.7630	38.0400
 0.7640	38.1150
 0.7650	38.1970
 0.7660	38.2800
 0.7670	38.3440
 0.7680	38.3710
 0.7690	38.4300
 0.7700	38.4960
 0.7710	38.5430
 0.7720	38.5690
 0.7730	38.5960
 0.7740	38.6300
 0.7750	38.6700
 0.7760	38.7320
 0.7770	38.7690
 0.7780	38.7870
 0.7790	38.8150
 0.7800	38.8420
 0.7810	38.8740
 0.7820	38.9050
 0.7830	38.9130
 0.7840	38.9270
 0.7850	38.9460
 0.7860	38.9660
 0.7870	38.9990
 0.7880	39.0110
 0.7890	39.0140
 0.7900	39.0300
 0.7910	39.0530
 0.7920	39.0770
 0.7930	39.0930
 0.7940	39.0930
 0.7950	39.1050
 0.7960	39.1190
 0.7970	39.1260
 0.7980	39.1290
 0.7990	39.1320
 0.8000	39.1460
 0.8010	39.1710
 0.8020	39.1760
 0.8030	39.1890
 0.8040	39.2030
 0.8050	39.2010
 0.8060	39.1910
 0.8070	39.2090
 0.8080	39.2360
 0.8090	39.2190
 0.8100	39.2240
 0.8110	39.2320
 0.8120	39.2340
 0.8130	39.2720
 0.8140	39.2690
 0.8150	39.2480
 0.8160	39.2470
 0.8170	39.2630
 0.8180	39.2840
 0.8190	39.2980
 0.8200	39.3000
 0.8210	39.3110
 0.8220	39.3130
 0.8230	39.3020
 0.8240	39.2900
 0.8250	39.3220
 0.8260	39.3530
 0.8270	39.3540
 0.8280	39.3530
 0.8290	39.3540
 0.8300	39.3580
 0.8310	39.3680
 0.8320	39.4010
 0.8330	39.4140
 0.8340	39.4060
 0.8350	39.3970
 0.8360	39.4340
 0.8370	39.4750
 0.8380	39.5000
 0.8390	39.5110
 0.8400	39.4940
 0.8410	39.4810
 0.8420	39.4970
 0.8430	39.5360
 0.8440	39.5700
 0.8450	39.5880
 0.8460	39.5950
 0.8470	39.6080
 0.8480	39.6200
 0.8490	39.6390
 0.8500	39.6750
 0.8510	39.6960
 0.8520	39.7180
 0.8530	39.7390
 0.8540	39.7520
 0.8550	39.7780
 0.8560	39.7950
 0.8570	39.8110
 0.8580	39.8550
 0.8590	39.8660
 0.8600	39.8680
 0.8610	39.8840
 0.8620	39.9130
 0.8630	39.9160
 0.8640	39.9250
 0.8650	39.9620
 0.8660	39.9780
 0.8670	39.9760
 0.8680	39.9790
 0.8690	40.0060
 0.8700	40.0400
 0.8710	40.0520
 0.8720	40.0550
 0.8730	40.0840
 0.8740	40.1100
 0.8750	40.1250
 0.8760	40.1400
 0.8770	40.1720
 0.8780	40.1350
 0.8790	40.1060
 0.8800	40.1440
 0.8810	40.2460
 0.8820	40.2350
 0.8830	40.1940
 0.8840	40.2160
 0.8850	40.2860
 0.8860	40.3180
 0.8870	40.3070
 0.8880	40.2790
 0.8890	40.2670
 0.8900	40.2820
 0.8910	40.3100
 0.8920	40.3250
 0.8930	40.3230
 0.8940	40.3330
 0.8950	40.3430
 0.8960	40.3270
 0.8970	40.3510
 0.8980	40.3600
 0.8990	40.3510
 0.9000	40.3720
 0.9010	40.3880
 0.9020	40.3870
 0.9030	40.3800
 0.9040	40.4020
 0.9050	40.3950
 0.9060	40.3810
 0.9070	40.3820
 0.9080	40.3860
 0.9090	40.3920
 0.9100	40.3850
 0.9110	40.3650
 0.9120	40.3770
 0.9130	40.4290
 0.9140	40.4530
 0.9150	40.3950
 0.9160	40.3400
 0.9170	40.3540
 0.9180	40.3810
 0.9190	40.3440
 0.9200	40.3290
 0.9210	40.3770
 0.9220	40.4050
 0.9230	40.3100
 0.9240	40.3020
 0.9250	40.3200
 0.9260	40.3080
 0.9270	40.2460
 0.9280	40.2540
 0.9290	40.2660
 0.9300	40.2350
 0.9310	40.1630
 0.9320	40.1610
 0.9330	40.1620
 0.9340	40.1300
 0.9350	40.0930
 0.9360	40.0620
 0.9370	40.0120
 0.9380	39.9550
 0.9390	39.9570
 0.9400	39.9160
 0.9410	39.8240
 0.9420	39.7320
 0.9430	39.7410
 0.9440	39.6880
 0.9450	39.6110
 0.9460	39.5580
 0.9470	39.4910
 0.9480	39.4370
 0.9490	39.3790
 0.9500	39.2970
 0.9510	39.1930
 0.9520	39.1130
 0.9530	38.9990
 0.9540	38.8300
 0.9550	38.7930
 0.9560	38.7140
 0.9570	38.5800
 0.9580	38.4360
 0.9590	38.3260
 0.9600	38.2820
 0.9610	38.2870
 0.9620	38.2850
 0.9630	38.1570
 0.9640	38.0560
 0.9650	38.0070
 0.9660	37.9750
 0.9670	37.9400
 0.9680	37.9150
 0.9690	37.8670
 0.9700	37.7840
 0.9710	37.8530
 0.9720	37.8900
 0.9730	37.8820
 0.9740	37.8880
 0.9750	37.8610
 0.9760	37.7610
 0.9770	37.6820
 0.9780	37.7190
 0.9790	37.6620
 0.9800	37.6370
 0.9810	37.6620
 0.9820	37.6990
 0.9830	37.7290
 0.9840	37.7720
 0.9850	37.7790
 0.9860	37.7090
 0.9870	37.7240
 0.9880	37.8050
 0.9890	37.8670
 0.9900	37.8520
 0.9910	37.9480
 0.9920	37.9560
 0.9930	37.9220
 0.9940	37.9720
 0.9950	37.9460
 0.9960	37.9770
 0.9970	38.0870
 0.9980	38.1970
 0.9990	38.1190
 1.0000	38.0400
 1.0010	38.8710
 1.0020	38.9050
 1.0030	38.9110
 1.0040	38.9540
 1.0050	39.0170
 1.0060	39.0560
 1.0070	39.1200
 1.0080	39.1700
 1.0090	39.2110
 1.0100	39.2520
 1.0110	39.2830
 1.0120	39.3340
 1.0130	39.4130
 1.0140	39.4520
 1.0150	39.4840
 1.0160	39.5130
 1.0170	39.5030
 1.0180	39.5130
 1.0190	39.5700
 1.0200	39.6130
 1.0210	39.6590
 1.0220	39.7340
 1.0230	39.7880
 1.0240	39.8330
 1.0250	39.8870
 1.0260	39.9410
 1.0270	39.9960
 1.0280	40.0730
 1.0290	40.1180
 1.0300	40.1400
 1.0310	40.1690
 1.0320	40.1960
 1.0330	40.1960
 1.0340	40.2070
 1.0350	40.2700
 1.0360	40.2960
 1.0370	40.3390
 1.0380	40.3860
 1.0390	40.4320
 1.0400	40.4880
 1.0410	40.5670
 1.0420	40.6260
 1.0430	40.7050
 1.0440	40.7430
 1.0450	40.7390
 1.0460	40.7560
 1.0470	40.7410
 1.0480	40.7580
 1.0490	40.8270
 1.0500	40.8600
 1.0510	40.8790
 1.0520	40.9060
 1.0530	40.9200
 1.0540	40.9080
 1.0550	40.9160
 1.0560	40.9260
 1.0570	40.9480
 1.0580	40.9780
 1.0590	41.0030
 1.0600	41.0450
 1.0610	41.0700
 1.0620	41.0720
 1.0630	41.0930
 1.0640	41.1120
 1.0650	41.1420
 1.0660	41.2060
 1.0670	41.2360
 1.0680	41.2560
 1.0690	41.2660
 1.0700	41.2760
 1.0710	41.2630
 1.0720	41.2680
 1.0730	41.2910
 1.0740	41.2930
 1.0750	41.2860
 1.0760	41.2790
 1.0770	41.2650
 1.0780	41.2510
 1.0790	41.2370
 1.0800	41.2200
 1.0810	41.1830
 1.0820	41.1740
 1.0830	41.1790
 1.0840	41.1880
 1.0850	41.2210
 1.0860	41.2530
 1.0870	41.2630
 1.0880	41.2650
 1.0890	41.2560
 1.0900	41.2210
 1.0910	41.2060
 1.0920	41.1840
 1.0930	41.1780
 1.0940	41.1970
 1.0950	41.1870
 1.0960	41.1630
 1.0970	41.1470
 1.0980	41.1220
 1.0990	41.0940
 1.1000	41.0670
 1.1010	41.0500
 1.1020	41.0300
 1.1030	41.0090
 1.1040	41.0130
 1.1050	41.0090
 1.1060	41.0030
 1.1070	40.9990
 1.1080	40.9790
 1.1090	40.9530
 1.1100	40.9180
 1.1110	40.8700
 1.1120	40.8280
 1.1130	40.7750
 1.1140	40.7410
 1.1150	40.7150
 1.1160	40.6810
 1.1170	40.6600
 1.1180	40.6270
 1.1190	40.5760
 1.1200	40.5340
 1.1210	40.4970
 1.1220	40.4370
 1.1230	40.3680
 1.1240	40.3030
 1.1250	40.2240
 1.1260	40.1320
 1.1270	40.0370
 1.1280	39.9400
 1.1290	39.8280
 1.1300	39.7080
 1.1310	39.5770
 1.1320	39.4430
 1.1330	39.2830
 1.1340	39.0990
 1.1350	38.9160
 1.1360	38.7200
 1.1370	38.5120
 1.1380	38.3140
 1.1390	38.1220
 1.1400	37.9090
 1.1410	37.6920
 1.1420	37.4680
 1.1430	37.2380
 1.1440	37.0120
 1.1450	36.7840
 1.1460	36.5610
 1.1470	36.3330
 1.1480	36.1240
 1.1490	35.9200
 1.1500	35.7290
 1.1510	35.5570
 1.1520	35.3830
 1.1530	35.2070
 1.1540	35.0510
 1.1550	34.9030
 1.1560	34.7580
 1.1570	34.6460
 1.1580	34.5290
 1.1590	34.4050
 1.1600	34.3100
 1.1610	34.2100
 1.1620	34.1190
 1.1630	34.0570
 1.1640	33.9910
 1.1650	33.9310
 1.1660	33.8790
 1.1670	33.8270
 1.1680	33.7750
 1.1690	33.7280
 1.1700	33.6880
 1.1710	33.6490
 1.1720	33.6180
 1.1730	33.5790
 1.1740	33.5390
 1.1750	33.4980
 1.1760	33.4580
 1.1770	33.4120
 1.1780	33.3720
 1.1790	33.3410
 1.1800	33.2960
 1.1810	33.2660
 1.1820	33.2380
 1.1830	33.2000
 1.1840	33.1660
 1.1850	33.1190
 1.1860	33.0780
 1.1870	33.0420
 1.1880	33.0070
 1.1890	32.9790
 1.1900	32.9510
 1.1910	32.9180
 1.1920	32.8970
 1.1930	32.8860
 1.1940	32.8710
 1.1950	32.8570
 1.1960	32.8540
 1.1970	32.8450
 1.1980	32.8370
 1.1990	32.8400
 1.2000	32.8360
 1.2010	32.8330
 1.2020	32.8360
 1.2030	32.8390
 1.2040	32.8490
 1.2050	32.8650
 1.2060	32.8790
 1.2070	32.9000
 1.2080	32.9190
 1.2090	32.9330
 1.2100	32.9650
 1.2110	32.9990
 1.2120	33.0380
 1.2130	33.0770
 1.2140	33.1220
 1.2150	33.1640
 1.2160	33.2060
 1.2170	33.2530
 1.2180	33.2960
 1.2190	33.3480
 1.2200	33.4000
 1.2210	33.4530
 1.2220	33.5110
 1.2230	33.5740
 1.2240	33.6280
 1.2250	33.6780
 1.2260	33.7390
 1.2270	33.7920
 1.2280	33.8480
 1.2290	33.9150
 1.2300	33.9590
 1.2310	33.9990
 1.2320	34.0450
 1.2330	34.0720
 1.2340	34.1110
 1.2350	34.1690
 1.2360	34.2090
 1.2370	34.2400
 1.2380	34.2710
 1.2390	34.2990
 1.2400	34.3080
 1.2410	34.3360
 1.2420	34.3830
 1.2430	34.4270
 1.2440	34.4710
 1.2450	34.5110
 1.2460	34.5480
 1.2470	34.5770
 1.2480	34.6070
 1.2490	34.6330
 1.2500	34.6490
 1.2510	34.6740
 1.2520	34.7010
 1.2530	34.7250
 1.2540	34.7530
 1.2550	34.7800
 1.2560	34.7940
 1.2570	34.8150
 1.2580	34.8380
 1.2590	34.8510
 1.2600	34.8550
 1.2610	34.8660
 1.2620	34.8720
 1.2630	34.8740
 1.2640	34.8850
 1.2650	34.8960
 1.2660	34.9030
 1.2670	34.9030
 1.2680	34.9020
 1.2690	34.9000
 1.2700	34.8950
 1.2710	34.8910
 1.2720	34.8910
 1.2730	34.8900
 1.2740	34.8890
 1.2750	34.8850
 1.2760	34.8650
 1.2770	34.8470
 1.2780	34.8260
 1.2790	34.7970
 1.2800	34.7810
 1.2810	34.7690
 1.2820	34.7520
 1.2830	34.7350
 1.2840	34.7120
 1.2850	34.6800
 1.2860	34.6410
 1.2870	34.6070
 1.2880	34.5730
 1.2890	34.5370
 1.2900	34.5080
 1.2910	34.4700
 1.2920	34.4230
 1.2930	34.3800
 1.2940	34.3180
 1.2950	34.2560
 1.2960	34.1920
 1.2970	34.1140
 1.2980	34.0400
 1.2990	33.9610
 1.3000	33.8760
 1.3010	33.7970
 1.3020	33.7030
 1.3030	33.6040
 1.3040	33.5200
 1.3050	33.4300
 1.3060	33.3380
 1.3070	33.2460
 1.3080	33.1400
 1.3090	33.0330
 1.3100	32.9310
 1.3110	32.8280
 1.3120	32.7150
 1.3130	32.5880
 1.3140	32.4580
 1.3150	32.3160
 1.3160	32.1830
 1.3170	32.0520
 1.3180	31.9250
 1.3190	31.7920
 1.3200	31.6410
 1.3210	31.4900
 1.3220	31.3410
 1.3230	31.1850
 1.3240	31.0340
 1.3250	30.8750
 1.3260	30.7040
 1.3270	30.5320
 1.3280	30.3620
 1.3290	30.1910
 1.3300	30.0170
 1.3310	29.8450
 1.3320	29.6760
 1.3330	29.5080
 1.3340	29.3420
 1.3350	29.1780
 1.3360	29.0120
 1.3370	28.8390
 1.3380	28.6700
 1.3390	28.5000
 1.3400	28.3210
 1.3410	28.1510
 1.3420	27.9830
 1.3430	27.8150
 1.3440	27.6590
 1.3450	27.5040
 1.3460	27.3510
 1.3470	27.2040
 1.3480	27.0590
 1.3490	26.9190
 1.3500	26.7850
 1.3510	26.6450
 1.3520	26.5060
 1.3530	26.3690
 1.3540	26.2280
 1.3550	26.0960
 1.3560	25.9640
 1.3570	25.8320
 1.3580	25.6980
 1.3590	25.5620
 1.3600	25.4250
 1.3610	25.2790
 1.3620	25.1310
 1.3630	24.9780
 1.3640	24.8230
 1.3650	24.6710
 1.3660	24.5110
 1.3670	24.3440
 1.3680	24.1680
 1.3690	23.9750
 1.3700	23.7700
 1.3710	23.5550
 1.3720	23.3260
 1.3730	23.0900
 1.3740	22.8460
 1.3750	22.5890
 1.3760	22.3170
 1.3770	22.0250
 1.3780	21.7100
 1.3790	21.3820
 1.3800	21.0360
 1.3810	20.6710
 1.3820	20.2990
 1.3830	19.9180
 1.3840	19.5230
 1.3850	19.1170
 1.3860	18.7050
 1.3870	18.2780
 1.3880	17.8530
 1.3890	17.4250
 1.3900	16.9930
 1.3910	16.5680
 1.3920	16.1440
 1.3930	15.7200
 1.3940	15.3070
 1.3950	14.8960
 1.3960	14.4930
 1.3970	14.1050
 1.3980	13.7270
 1.3990	13.3690
 1.4000	13.0250
 1.4010	12.6950
 1.4020	12.3830
 1.4030	12.0800
 1.4040	11.7900
 1.4050	11.5180
 1.4060	11.2590
 1.4070	11.0170
 1.4080	10.7920
 1.4090	10.5750
 1.4100	10.3690
 1.4110	10.1760
 1.4120	 9.9960
 1.4130	 9.8310
 1.4140	 9.6750
 1.4150	 9.5320
 1.4160	 9.3990
 1.4170	 9.2730
 1.4180	 9.1570
 1.4190	 9.0480
 1.4200	 8.9450
 1.4210	 8.8510
 1.4220	 8.7650
 1.4230	 8.6870
 1.4240	 8.6190
 1.4250	 8.5520
 1.4260	 8.4900
 1.4270	 8.4290
 1.4280	 8.3670
 1.4290	 8.3130
 1.4300	 8.2660
 1.4310	 8.2230
 1.4320	 8.1870
 1.4330	 8.1520
 1.4340	 8.1150
 1.4350	 8.0840
 1.4360	 8.0580
 1.4370	 8.0340
 1.4380	 8.0120
 1.4390	 7.9950
 1.4400	 7.9760
 1.4410	 7.9600
 1.4420	 7.9500
 1.4430	 7.9380
 1.4440	 7.9280
 1.4450	 7.9180
 1.4460	 7.9080
 1.4470	 7.9020
 1.4480	 7.9010
 1.4490	 7.9000
 1.4500	 7.9000
 1.4510	 7.9030
 1.4520	 7.9020
 1.4530	 7.8980
 1.4540	 7.8970
 1.4550	 7.8960
 1.4560	 7.8990
 1.4570	 7.9110
 1.4580	 7.9240
 1.4590	 7.9380
 1.4600	 7.9530
 1.4610	 7.9650
 1.4620	 7.9780
 1.4630	 7.9970
 1.4640	 8.0180
 1.4650	 8.0420
 1.4660	 8.0620
 1.4670	 8.0870
 1.4680	 8.1150
 1.4690	 8.1430
 1.4700	 8.1780
 1.4710	 8.2160
 1.4720	 8.2530
 1.4730	 8.2980
 1.4740	 8.3440
 1.4750	 8.3870
 1.4760	 8.4330
 1.4770	 8.4770
 1.4780	 8.5220
 1.4790	 8.5740
 1.4800	 8.6270
 1.4810	 8.6800
 1.4820	 8.7330
