Name: Quercus douglasii 1
Type: vegetation
Class: Tree
Genus: Quercus
Species: douglasii
Sample No.: VH269
Owner: UCSB
Wavelength Range: VSWIR
Origin: 34.7153; -120.0598; WGS84
Collection Date: 11/2/2013
Description: Samples were collected as part of the HyspIRI Airborne Campaign. 48 individual plants were sampled in three times in 2013 - spring  summer  and fall. The name of the sample includes a 1  2  or 3 which references a different individual of the species. Samples were taken to JPL and processed within 48 hours of collection. The same leaves were processed in the Nicolet and then measured using the ASD.
Measurement: Bidirectional reflectance
First Column: X
Second Column: Y
X Units: Wavelength (micrometers)
Y Units: Reflectance (percentage)
First X Value: 0.35
Last X Value: 2.5
Number of X Values: 2151
Additional Information: vegetation.tree.quercus.douglasii.vswir.vh269.ucsb.asd.ancillary.txt

 0.3500	 4.8050
 0.3510	 4.8610
 0.3520	 4.7970
 0.3530	 4.7400
 0.3540	 4.7730
 0.3550	 4.7340
 0.3560	 4.6240
 0.3570	 4.5030
 0.3580	 4.4610
 0.3590	 4.5500
 0.3600	 4.6470
 0.3610	 4.6720
 0.3620	 4.6200
 0.3630	 4.6220
 0.3640	 4.6500
 0.3650	 4.6390
 0.3660	 4.5450
 0.3670	 4.5600
 0.3680	 4.6540
 0.3690	 4.6540
 0.3700	 4.7000
 0.3710	 4.6940
 0.3720	 4.6180
 0.3730	 4.6490
 0.3740	 4.7750
 0.3750	 4.8200
 0.3760	 4.6640
 0.3770	 4.7060
 0.3780	 4.7020
 0.3790	 4.6640
 0.3800	 4.8140
 0.3810	 4.7690
 0.3820	 4.7400
 0.3830	 4.8450
 0.3840	 4.7680
 0.3850	 4.7620
 0.3860	 4.8150
 0.3870	 4.8290
 0.3880	 4.8070
 0.3890	 4.8280
 0.3900	 4.8890
 0.3910	 4.8900
 0.3920	 4.8870
 0.3930	 4.8970
 0.3940	 4.9180
 0.3950	 4.9090
 0.3960	 4.9120
 0.3970	 4.9410
 0.3980	 4.9880
 0.3990	 5.0100
 0.4000	 5.0450
 0.4010	 5.1010
 0.4020	 5.1390
 0.4030	 5.1170
 0.4040	 5.1030
 0.4050	 5.1560
 0.4060	 5.2230
 0.4070	 5.2440
 0.4080	 5.2490
 0.4090	 5.3090
 0.4100	 5.3280
 0.4110	 5.3490
 0.4120	 5.3950
 0.4130	 5.4140
 0.4140	 5.4510
 0.4150	 5.5060
 0.4160	 5.5680
 0.4170	 5.6200
 0.4180	 5.6720
 0.4190	 5.7170
 0.4200	 5.7320
 0.4210	 5.7690
 0.4220	 5.8170
 0.4230	 5.8630
 0.4240	 5.9230
 0.4250	 5.9730
 0.4260	 6.0070
 0.4270	 6.0340
 0.4280	 6.0800
 0.4290	 6.1290
 0.4300	 6.1730
 0.4310	 6.2280
 0.4320	 6.2620
 0.4330	 6.2950
 0.4340	 6.3480
 0.4350	 6.3860
 0.4360	 6.4200
 0.4370	 6.4500
 0.4380	 6.4690
 0.4390	 6.4740
 0.4400	 6.4960
 0.4410	 6.5420
 0.4420	 6.5510
 0.4430	 6.5600
 0.4440	 6.5800
 0.4450	 6.6130
 0.4460	 6.6500
 0.4470	 6.6690
 0.4480	 6.6740
 0.4490	 6.6980
 0.4500	 6.7200
 0.4510	 6.7380
 0.4520	 6.7520
 0.4530	 6.7710
 0.4540	 6.7860
 0.4550	 6.7970
 0.4560	 6.8080
 0.4570	 6.8280
 0.4580	 6.8470
 0.4590	 6.8580
 0.4600	 6.8630
 0.4610	 6.8720
 0.4620	 6.8810
 0.4630	 6.8840
 0.4640	 6.8850
 0.4650	 6.8980
 0.4660	 6.9160
 0.4670	 6.9190
 0.4680	 6.9260
 0.4690	 6.9360
 0.4700	 6.9440
 0.4710	 6.9440
 0.4720	 6.9400
 0.4730	 6.9430
 0.4740	 6.9630
 0.4750	 6.9590
 0.4760	 6.9620
 0.4770	 6.9810
 0.4780	 6.9750
 0.4790	 6.9880
 0.4800	 7.0070
 0.4810	 7.0060
 0.4820	 7.0150
 0.4830	 7.0270
 0.4840	 7.0360
 0.4850	 7.0430
 0.4860	 7.0540
 0.4870	 7.0680
 0.4880	 7.0850
 0.4890	 7.0930
 0.4900	 7.1060
 0.4910	 7.1250
 0.4920	 7.1400
 0.4930	 7.1510
 0.4940	 7.1730
 0.4950	 7.2070
 0.4960	 7.2300
 0.4970	 7.2540
 0.4980	 7.2830
 0.4990	 7.3170
 0.5000	 7.3490
 0.5010	 7.3910
 0.5020	 7.4460
 0.5030	 7.5020
 0.5040	 7.5620
 0.5050	 7.6290
 0.5060	 7.7040
 0.5070	 7.7930
 0.5080	 7.8890
 0.5090	 7.9950
 0.5100	 8.1170
 0.5110	 8.2440
 0.5120	 8.3800
 0.5130	 8.5280
 0.5140	 8.6980
 0.5150	 8.8720
 0.5160	 9.0600
 0.5170	 9.2690
 0.5180	 9.4910
 0.5190	 9.7090
 0.5200	 9.9260
 0.5210	10.1570
 0.5220	10.3880
 0.5230	10.6190
 0.5240	10.8500
 0.5250	11.0780
 0.5260	11.2890
 0.5270	11.4850
 0.5280	11.6710
 0.5290	11.8500
 0.5300	12.0140
 0.5310	12.1630
 0.5320	12.3010
 0.5330	12.4320
 0.5340	12.5480
 0.5350	12.6430
 0.5360	12.7270
 0.5370	12.8100
 0.5380	12.8910
 0.5390	12.9600
 0.5400	13.0270
 0.5410	13.0950
 0.5420	13.1650
 0.5430	13.2250
 0.5440	13.2880
 0.5450	13.3530
 0.5460	13.4100
 0.5470	13.4300
 0.5480	13.4510
 0.5490	13.4880
 0.5500	13.5190
 0.5510	13.5360
 0.5520	13.5450
 0.5530	13.5480
 0.5540	13.5270
 0.5550	13.4950
 0.5560	13.4540
 0.5570	13.4020
 0.5580	13.3360
 0.5590	13.2590
 0.5600	13.1740
 0.5610	13.0830
 0.5620	12.9840
 0.5630	12.8780
 0.5640	12.7630
 0.5650	12.6390
 0.5660	12.5110
 0.5670	12.3820
 0.5680	12.2490
 0.5690	12.1130
 0.5700	11.9700
 0.5710	11.8220
 0.5720	11.6830
 0.5730	11.5460
 0.5740	11.4130
 0.5750	11.2900
 0.5760	11.1760
 0.5770	11.0650
 0.5780	10.9570
 0.5790	10.8590
 0.5800	10.7670
 0.5810	10.6800
 0.5820	10.5970
 0.5830	10.5270
 0.5840	10.4650
 0.5850	10.4070
 0.5860	10.3490
 0.5870	10.3010
 0.5880	10.2590
 0.5890	10.2190
 0.5900	10.1860
 0.5910	10.1540
 0.5920	10.1200
 0.5930	10.0870
 0.5940	10.0580
 0.5950	10.0330
 0.5960	10.0120
 0.5970	 9.9930
 0.5980	 9.9720
 0.5990	 9.9470
 0.6000	 9.9150
 0.6010	 9.8820
 0.6020	 9.8410
 0.6030	 9.7960
 0.6040	 9.7520
 0.6050	 9.7010
 0.6060	 9.6450
 0.6070	 9.5860
 0.6080	 9.5220
 0.6090	 9.4570
 0.6100	 9.3970
 0.6110	 9.3470
 0.6120	 9.2810
 0.6130	 9.2050
 0.6140	 9.1260
 0.6150	 9.0550
 0.6160	 9.0000
 0.6170	 8.9500
 0.6180	 8.8980
 0.6190	 8.8580
 0.6200	 8.8220
 0.6210	 8.7890
 0.6220	 8.7660
 0.6230	 8.7430
 0.6240	 8.7230
 0.6250	 8.7100
 0.6260	 8.6980
 0.6270	 8.6910
 0.6280	 8.6870
 0.6290	 8.6800
 0.6300	 8.6830
 0.6310	 8.6880
 0.6320	 8.6880
 0.6330	 8.6830
 0.6340	 8.6730
 0.6350	 8.6620
 0.6360	 8.6470
 0.6370	 8.6240
 0.6380	 8.5940
 0.6390	 8.5570
 0.6400	 8.5170
 0.6410	 8.4740
 0.6420	 8.4240
 0.6430	 8.3690
 0.6440	 8.3170
 0.6450	 8.2650
 0.6460	 8.2130
 0.6470	 8.1640
 0.6480	 8.1170
 0.6490	 8.0760
 0.6500	 8.0410
 0.6510	 8.0080
 0.6520	 7.9720
 0.6530	 7.9350
 0.6540	 7.9020
 0.6550	 7.8790
 0.6560	 7.8450
 0.6570	 7.8060
 0.6580	 7.7750
 0.6590	 7.7420
 0.6600	 7.7070
 0.6610	 7.6720
 0.6620	 7.6410
 0.6630	 7.6170
 0.6640	 7.5990
 0.6650	 7.5870
 0.6660	 7.5720
 0.6670	 7.5610
 0.6680	 7.5550
 0.6690	 7.5540
 0.6700	 7.5580
 0.6710	 7.5660
 0.6720	 7.5780
 0.6730	 7.5900
 0.6740	 7.6060
 0.6750	 7.6250
 0.6760	 7.6420
 0.6770	 7.6680
 0.6780	 7.6950
 0.6790	 7.7230
 0.6800	 7.7550
 0.6810	 7.7900
 0.6820	 7.8290
 0.6830	 7.8730
 0.6840	 7.9190
 0.6850	 7.9730
 0.6860	 8.0370
 0.6870	 8.1140
 0.6880	 8.2090
 0.6890	 8.3350
 0.6900	 8.4980
 0.6910	 8.6970
 0.6920	 8.9590
 0.6930	 9.2830
 0.6940	 9.6720
 0.6950	10.1270
 0.6960	10.6660
 0.6970	11.2820
 0.6980	11.9610
 0.6990	12.7030
 0.7000	13.5080
 0.7010	14.3660
 0.7020	15.2570
 0.7030	16.1790
 0.7040	17.1180
 0.7050	18.0680
 0.7060	19.0400
 0.7070	20.0040
 0.7080	20.9560
 0.7090	21.9050
 0.7100	22.8530
 0.7110	23.7920
 0.7120	24.7170
 0.7130	25.6300
 0.7140	26.5180
 0.7150	27.3920
 0.7160	28.2550
 0.7170	29.0920
 0.7180	29.9250
 0.7190	30.7360
 0.7200	31.4980
 0.7210	32.2600
 0.7220	33.0000
 0.7230	33.7080
 0.7240	34.3900
 0.7250	35.0550
 0.7260	35.6820
 0.7270	36.2640
 0.7280	36.8490
 0.7290	37.4000
 0.7300	37.9130
 0.7310	38.3980
 0.7320	38.8650
 0.7330	39.3070
 0.7340	39.7220
 0.7350	40.1200
 0.7360	40.4980
 0.7370	40.8540
 0.7380	41.1840
 0.7390	41.4810
 0.7400	41.7640
 0.7410	42.0400
 0.7420	42.3050
 0.7430	42.5200
 0.7440	42.7290
 0.7450	42.9400
 0.7460	43.1200
 0.7470	43.2810
 0.7480	43.4350
 0.7490	43.5830
 0.7500	43.7090
 0.7510	43.8330
 0.7520	43.9520
 0.7530	44.0520
 0.7540	44.1340
 0.7550	44.2070
 0.7560	44.2790
 0.7570	44.3530
 0.7580	44.4250
 0.7590	44.4790
 0.7600	44.5120
 0.7610	44.5420
 0.7620	44.5920
 0.7630	44.6400
 0.7640	44.6630
 0.7650	44.6980
 0.7660	44.7130
 0.7670	44.7250
 0.7680	44.7710
 0.7690	44.7840
 0.7700	44.7880
 0.7710	44.8030
 0.7720	44.8340
 0.7730	44.8420
 0.7740	44.8400
 0.7750	44.8490
 0.7760	44.8630
 0.7770	44.8780
 0.7780	44.8840
 0.7790	44.8730
 0.7800	44.8780
 0.7810	44.8950
 0.7820	44.9110
 0.7830	44.9160
 0.7840	44.9260
 0.7850	44.9360
 0.7860	44.9430
 0.7870	44.9460
 0.7880	44.9520
 0.7890	44.9590
 0.7900	44.9690
 0.7910	44.9880
 0.7920	44.9880
 0.7930	44.9830
 0.7940	45.0060
 0.7950	45.0100
 0.7960	45.0200
 0.7970	45.0440
 0.7980	45.0540
 0.7990	45.0520
 0.8000	45.0540
 0.8010	45.0710
 0.8020	45.0750
 0.8030	45.0730
 0.8040	45.0770
 0.8050	45.0980
 0.8060	45.1170
 0.8070	45.1210
 0.8080	45.1200
 0.8090	45.1390
 0.8100	45.1580
 0.8110	45.1740
 0.8120	45.1860
 0.8130	45.1970
 0.8140	45.2100
 0.8150	45.2200
 0.8160	45.2290
 0.8170	45.2490
 0.8180	45.2610
 0.8190	45.2700
 0.8200	45.2850
 0.8210	45.2890
 0.8220	45.3010
 0.8230	45.3190
 0.8240	45.3200
 0.8250	45.3340
 0.8260	45.3560
 0.8270	45.3780
 0.8280	45.4050
 0.8290	45.4140
 0.8300	45.4210
 0.8310	45.4370
 0.8320	45.4240
 0.8330	45.4310
 0.8340	45.4520
 0.8350	45.4630
 0.8360	45.4870
 0.8370	45.4970
 0.8380	45.4970
 0.8390	45.5110
 0.8400	45.5500
 0.8410	45.5820
 0.8420	45.5930
 0.8430	45.6040
 0.8440	45.6120
 0.8450	45.6140
 0.8460	45.6150
 0.8470	45.6350
 0.8480	45.6490
 0.8490	45.6590
 0.8500	45.6760
 0.8510	45.6990
 0.8520	45.7140
 0.8530	45.7190
 0.8540	45.7160
 0.8550	45.7380
 0.8560	45.7560
 0.8570	45.7610
 0.8580	45.7700
 0.8590	45.7910
 0.8600	45.8070
 0.8610	45.8110
 0.8620	45.8150
 0.8630	45.8100
 0.8640	45.8100
 0.8650	45.8290
 0.8660	45.8530
 0.8670	45.8490
 0.8680	45.8360
 0.8690	45.8420
 0.8700	45.8490
 0.8710	45.8700
 0.8720	45.8900
 0.8730	45.8810
 0.8740	45.8810
 0.8750	45.8830
 0.8760	45.8850
 0.8770	45.8920
 0.8780	45.8830
 0.8790	45.8840
 0.8800	45.9010
 0.8810	45.9050
 0.8820	45.9020
 0.8830	45.9100
 0.8840	45.9300
 0.8850	45.9200
 0.8860	45.9080
 0.8870	45.9010
 0.8880	45.8960
 0.8890	45.8890
 0.8900	45.8880
 0.8910	45.9020
 0.8920	45.9260
 0.8930	45.9010
 0.8940	45.8740
 0.8950	45.8700
 0.8960	45.8880
 0.8970	45.8760
 0.8980	45.8620
 0.8990	45.8590
 0.9000	45.8640
 0.9010	45.8630
 0.9020	45.8710
 0.9030	45.8790
 0.9040	45.8530
 0.9050	45.8560
 0.9060	45.8650
 0.9070	45.8600
 0.9080	45.8580
 0.9090	45.8610
 0.9100	45.8580
 0.9110	45.8470
 0.9120	45.8550
 0.9130	45.8350
 0.9140	45.8170
 0.9150	45.8280
 0.9160	45.8030
 0.9170	45.7850
 0.9180	45.7840
 0.9190	45.7930
 0.9200	45.7930
 0.9210	45.7910
 0.9220	45.7900
 0.9230	45.7850
 0.9240	45.7600
 0.9250	45.7310
 0.9260	45.7150
 0.9270	45.7210
 0.9280	45.7340
 0.9290	45.7360
 0.9300	45.7220
 0.9310	45.7010
 0.9320	45.7020
 0.9330	45.6910
 0.9340	45.6660
 0.9350	45.6680
 0.9360	45.6590
 0.9370	45.6400
 0.9380	45.6170
 0.9390	45.5980
 0.9400	45.5780
 0.9410	45.5710
 0.9420	45.5680
 0.9430	45.5190
 0.9440	45.4810
 0.9450	45.4580
 0.9460	45.4400
 0.9470	45.4270
 0.9480	45.4040
 0.9490	45.3690
 0.9500	45.3310
 0.9510	45.3070
 0.9520	45.2750
 0.9530	45.2380
 0.9540	45.2000
 0.9550	45.1580
 0.9560	45.1260
 0.9570	45.0920
 0.9580	45.0490
 0.9590	45.0190
 0.9600	45.0040
 0.9610	44.9920
 0.9620	44.9660
 0.9630	44.9240
 0.9640	44.8960
 0.9650	44.8870
 0.9660	44.8820
 0.9670	44.8510
 0.9680	44.8510
 0.9690	44.8570
 0.9700	44.8230
 0.9710	44.8090
 0.9720	44.8060
 0.9730	44.8050
 0.9740	44.8050
 0.9750	44.8180
 0.9760	44.8110
 0.9770	44.8030
 0.9780	44.8240
 0.9790	44.8180
 0.9800	44.8200
 0.9810	44.8370
 0.9820	44.8560
 0.9830	44.8480
 0.9840	44.8400
 0.9850	44.8460
 0.9860	44.8610
 0.9870	44.8580
 0.9880	44.8990
 0.9890	44.9470
 0.9900	44.9380
 0.9910	44.9320
 0.9920	44.9540
 0.9930	44.9900
 0.9940	45.0040
 0.9950	44.9990
 0.9960	44.9910
 0.9970	45.0020
 0.9980	45.0340
 0.9990	45.0330
 1.0000	44.9810
 1.0010	44.8840
 1.0020	44.8510
 1.0030	44.8720
 1.0040	44.8920
 1.0050	44.9110
 1.0060	44.9320
 1.0070	44.9520
 1.0080	44.9700
 1.0090	44.9890
 1.0100	45.0070
 1.0110	45.0200
 1.0120	45.0350
 1.0130	45.0520
 1.0140	45.0690
 1.0150	45.0850
 1.0160	45.1090
 1.0170	45.1210
 1.0180	45.1250
 1.0190	45.1320
 1.0200	45.1380
 1.0210	45.1520
 1.0220	45.1700
 1.0230	45.1860
 1.0240	45.2050
 1.0250	45.2200
 1.0260	45.2330
 1.0270	45.2460
 1.0280	45.2550
 1.0290	45.2660
 1.0300	45.2800
 1.0310	45.2910
 1.0320	45.3030
 1.0330	45.3120
 1.0340	45.3200
 1.0350	45.3310
 1.0360	45.3460
 1.0370	45.3580
 1.0380	45.3660
 1.0390	45.3700
 1.0400	45.3760
 1.0410	45.3780
 1.0420	45.3840
 1.0430	45.3950
 1.0440	45.4050
 1.0450	45.4150
 1.0460	45.4250
 1.0470	45.4360
 1.0480	45.4430
 1.0490	45.4470
 1.0500	45.4520
 1.0510	45.4560
 1.0520	45.4620
 1.0530	45.4680
 1.0540	45.4760
 1.0550	45.4820
 1.0560	45.4860
 1.0570	45.4920
 1.0580	45.4980
 1.0590	45.5050
 1.0600	45.5170
 1.0610	45.5230
 1.0620	45.5260
 1.0630	45.5290
 1.0640	45.5280
 1.0650	45.5300
 1.0660	45.5340
 1.0670	45.5370
 1.0680	45.5400
 1.0690	45.5440
 1.0700	45.5430
 1.0710	45.5410
 1.0720	45.5380
 1.0730	45.5290
 1.0740	45.5310
 1.0750	45.5420
 1.0760	45.5440
 1.0770	45.5470
 1.0780	45.5460
 1.0790	45.5330
 1.0800	45.5300
 1.0810	45.5360
 1.0820	45.5350
 1.0830	45.5330
 1.0840	45.5300
 1.0850	45.5270
 1.0860	45.5160
 1.0870	45.5090
 1.0880	45.5010
 1.0890	45.4960
 1.0900	45.4910
 1.0910	45.4860
 1.0920	45.4870
 1.0930	45.4810
 1.0940	45.4700
 1.0950	45.4620
 1.0960	45.4550
 1.0970	45.4450
 1.0980	45.4340
 1.0990	45.4240
 1.1000	45.4120
 1.1010	45.4010
 1.1020	45.3920
 1.1030	45.3850
 1.1040	45.3750
 1.1050	45.3610
 1.1060	45.3480
 1.1070	45.3320
 1.1080	45.3210
 1.1090	45.3140
 1.1100	45.3010
 1.1110	45.2900
 1.1120	45.2750
 1.1130	45.2530
 1.1140	45.2360
 1.1150	45.2210
 1.1160	45.2030
 1.1170	45.1870
 1.1180	45.1660
 1.1190	45.1390
 1.1200	45.1110
 1.1210	45.0850
 1.1220	45.0550
 1.1230	45.0310
 1.1240	45.0060
 1.1250	44.9730
 1.1260	44.9390
 1.1270	44.8980
 1.1280	44.8500
 1.1290	44.8010
 1.1300	44.7510
 1.1310	44.6960
 1.1320	44.6380
 1.1330	44.5750
 1.1340	44.5100
 1.1350	44.4370
 1.1360	44.3580
 1.1370	44.2740
 1.1380	44.1860
 1.1390	44.0980
 1.1400	44.0060
 1.1410	43.9120
 1.1420	43.8170
 1.1430	43.7180
 1.1440	43.6190
 1.1450	43.5170
 1.1460	43.4200
 1.1470	43.3220
 1.1480	43.2300
 1.1490	43.1450
 1.1500	43.0610
 1.1510	42.9750
 1.1520	42.8960
 1.1530	42.8210
 1.1540	42.7500
 1.1550	42.6810
 1.1560	42.6210
 1.1570	42.5670
 1.1580	42.5150
 1.1590	42.4720
 1.1600	42.4360
 1.1610	42.4020
 1.1620	42.3730
 1.1630	42.3500
 1.1640	42.3300
 1.1650	42.3120
 1.1660	42.3010
 1.1670	42.2880
 1.1680	42.2760
 1.1690	42.2660
 1.1700	42.2570
 1.1710	42.2500
 1.1720	42.2480
 1.1730	42.2430
 1.1740	42.2380
 1.1750	42.2310
 1.1760	42.2230
 1.1770	42.2150
 1.1780	42.2050
 1.1790	42.1990
 1.1800	42.1930
 1.1810	42.1860
 1.1820	42.1770
 1.1830	42.1670
 1.1840	42.1550
 1.1850	42.1440
 1.1860	42.1360
 1.1870	42.1270
 1.1880	42.1200
 1.1890	42.1130
 1.1900	42.1060
 1.1910	42.1000
 1.1920	42.0960
 1.1930	42.0950
 1.1940	42.0940
 1.1950	42.0930
 1.1960	42.0940
 1.1970	42.0960
 1.1980	42.0950
 1.1990	42.0980
 1.2000	42.1000
 1.2010	42.1030
 1.2020	42.1110
 1.2030	42.1200
 1.2040	42.1270
 1.2050	42.1340
 1.2060	42.1420
 1.2070	42.1520
 1.2080	42.1640
 1.2090	42.1800
 1.2100	42.1980
 1.2110	42.2150
 1.2120	42.2320
 1.2130	42.2500
 1.2140	42.2670
 1.2150	42.2850
 1.2160	42.3040
 1.2170	42.3240
 1.2180	42.3450
 1.2190	42.3660
 1.2200	42.3850
 1.2210	42.4040
 1.2220	42.4200
 1.2230	42.4360
 1.2240	42.4580
 1.2250	42.4800
 1.2260	42.5000
 1.2270	42.5230
 1.2280	42.5420
 1.2290	42.5580
 1.2300	42.5740
 1.2310	42.5930
 1.2320	42.6110
 1.2330	42.6300
 1.2340	42.6480
 1.2350	42.6660
 1.2360	42.6820
 1.2370	42.6950
 1.2380	42.7080
 1.2390	42.7230
 1.2400	42.7360
 1.2410	42.7510
 1.2420	42.7670
 1.2430	42.7820
 1.2440	42.7980
 1.2450	42.8110
 1.2460	42.8230
 1.2470	42.8320
 1.2480	42.8400
 1.2490	42.8490
 1.2500	42.8570
 1.2510	42.8650
 1.2520	42.8730
 1.2530	42.8810
 1.2540	42.8880
 1.2550	42.8930
 1.2560	42.8980
 1.2570	42.9040
 1.2580	42.9080
 1.2590	42.9100
 1.2600	42.9120
 1.2610	42.9140
 1.2620	42.9160
 1.2630	42.9160
 1.2640	42.9200
 1.2650	42.9230
 1.2660	42.9220
 1.2670	42.9230
 1.2680	42.9220
 1.2690	42.9170
 1.2700	42.9130
 1.2710	42.9100
 1.2720	42.9020
 1.2730	42.8960
 1.2740	42.8880
 1.2750	42.8770
 1.2760	42.8700
 1.2770	42.8600
 1.2780	42.8490
 1.2790	42.8390
 1.2800	42.8260
 1.2810	42.8140
 1.2820	42.8020
 1.2830	42.7900
 1.2840	42.7760
 1.2850	42.7620
 1.2860	42.7490
 1.2870	42.7350
 1.2880	42.7210
 1.2890	42.7050
 1.2900	42.6880
 1.2910	42.6710
 1.2920	42.6510
 1.2930	42.6310
 1.2940	42.6090
 1.2950	42.5830
 1.2960	42.5560
 1.2970	42.5300
 1.2980	42.5030
 1.2990	42.4770
 1.3000	42.4500
 1.3010	42.4210
 1.3020	42.3920
 1.3030	42.3610
 1.3040	42.3250
 1.3050	42.2850
 1.3060	42.2410
 1.3070	42.1950
 1.3080	42.1450
 1.3090	42.0980
 1.3100	42.0500
 1.3110	41.9970
 1.3120	41.9430
 1.3130	41.8850
 1.3140	41.8220
 1.3150	41.7540
 1.3160	41.6850
 1.3170	41.6130
 1.3180	41.5400
 1.3190	41.4650
 1.3200	41.3870
 1.3210	41.3080
 1.3220	41.2250
 1.3230	41.1400
 1.3240	41.0520
 1.3250	40.9610
 1.3260	40.8670
 1.3270	40.7690
 1.3280	40.6700
 1.3290	40.5700
 1.3300	40.4680
 1.3310	40.3650
 1.3320	40.2590
 1.3330	40.1510
 1.3340	40.0420
 1.3350	39.9300
 1.3360	39.8160
 1.3370	39.7010
 1.3380	39.5870
 1.3390	39.4720
 1.3400	39.3580
 1.3410	39.2440
 1.3420	39.1300
 1.3430	39.0170
 1.3440	38.9030
 1.3450	38.7900
 1.3460	38.6770
 1.3470	38.5660
 1.3480	38.4550
 1.3490	38.3480
 1.3500	38.2440
 1.3510	38.1380
 1.3520	38.0340
 1.3530	37.9290
 1.3540	37.8200
 1.3550	37.7150
 1.3560	37.6100
 1.3570	37.5020
 1.3580	37.3950
 1.3590	37.2840
 1.3600	37.1670
 1.3610	37.0480
 1.3620	36.9270
 1.3630	36.8020
 1.3640	36.6700
 1.3650	36.5360
 1.3660	36.3970
 1.3670	36.2480
 1.3680	36.0960
 1.3690	35.9320
 1.3700	35.7540
 1.3710	35.5680
 1.3720	35.3710
 1.3730	35.1610
 1.3740	34.9430
 1.3750	34.7100
 1.3760	34.4590
 1.3770	34.1910
 1.3780	33.8990
 1.3790	33.5900
 1.3800	33.2630
 1.3810	32.9090
 1.3820	32.5370
 1.3830	32.1450
 1.3840	31.7360
 1.3850	31.3080
 1.3860	30.8640
 1.3870	30.4000
 1.3880	29.9290
 1.3890	29.4420
 1.3900	28.9460
 1.3910	28.4480
 1.3920	27.9410
 1.3930	27.4250
 1.3940	26.9080
 1.3950	26.3820
 1.3960	25.8610
 1.3970	25.3450
 1.3980	24.8350
 1.3990	24.3400
 1.4000	23.8550
 1.4010	23.3770
 1.4020	22.9180
 1.4030	22.4710
 1.4040	22.0420
 1.4050	21.6340
 1.4060	21.2430
 1.4070	20.8730
 1.4080	20.5240
 1.4090	20.1930
 1.4100	19.8830
 1.4110	19.5900
 1.4120	19.3190
 1.4130	19.0670
 1.4140	18.8350
 1.4150	18.6230
 1.4160	18.4280
 1.4170	18.2470
 1.4180	18.0830
 1.4190	17.9330
 1.4200	17.7960
 1.4210	17.6710
 1.4220	17.5590
 1.4230	17.4590
 1.4240	17.3680
 1.4250	17.2870
 1.4260	17.2150
 1.4270	17.1520
 1.4280	17.0990
 1.4290	17.0520
 1.4300	17.0140
 1.4310	16.9800
 1.4320	16.9520
 1.4330	16.9290
 1.4340	16.9110
 1.4350	16.8980
 1.4360	16.8900
 1.4370	16.8870
 1.4380	16.8860
 1.4390	16.8890
 1.4400	16.8940
 1.4410	16.9010
 1.4420	16.9120
 1.4430	16.9240
 1.4440	16.9380
 1.4450	16.9530
 1.4460	16.9700
 1.4470	16.9880
 1.4480	17.0070
 1.4490	17.0270
 1.4500	17.0490
 1.4510	17.0720
 1.4520	17.0940
 1.4530	17.1180
 1.4540	17.1440
 1.4550	17.1700
 1.4560	17.1990
 1.4570	17.2310
 1.4580	17.2650
 1.4590	17.3020
 1.4600	17.3430
 1.4610	17.3890
 1.4620	17.4380
 1.4630	17.4900
 1.4640	17.5470
 1.4650	17.6080
 1.4660	17.6730
 1.4670	17.7440
 1.4680	17.8190
 1.4690	17.8990
 1.4700	17.9850
