Name: Ceanothus megacarpus 1
Type: vegetation
Class: Shrub
Genus: Ceanothus
Species: megacarpus
Sample No.: VH212
Owner: UCSB
Wavelength Range: VSWIR
Origin: 34.4908; -119.7914; WGS84
Collection Date: 10/13/2013
Description: Samples were collected as part of the HyspIRI Airborne Campaign. 48 individual plants were sampled in three times in 2013 - spring  summer  and fall. The name of the sample includes a 1  2  or 3 which references a different individual of the species. Samples were taken to JPL and processed within 48 hours of collection. The same leaves were processed in the Nicolet and then measured using the ASD.
Measurement: Bidirectional reflectance
First Column: X
Second Column: Y
X Units: Wavelength (micrometers)
Y Units: Reflectance (percentage)
First X Value: 0.35
Last X Value: 2.5
Number of X Values: 2151
Additional Information: vegetation.shrub.ceanothus.megacarpus.vswir.vh212.ucsb.asd.ancillary.txt

 0.3500	 6.1610
 0.3510	 6.2420
 0.3520	 6.0350
 0.3530	 5.7770
 0.3540	 5.7180
 0.3550	 5.7380
 0.3560	 5.7010
 0.3570	 5.6900
 0.3580	 5.8470
 0.3590	 5.8230
 0.3600	 5.7530
 0.3610	 5.7090
 0.3620	 5.6020
 0.3630	 5.5530
 0.3640	 5.5890
 0.3650	 5.6700
 0.3660	 5.6250
 0.3670	 5.5530
 0.3680	 5.4810
 0.3690	 5.4030
 0.3700	 5.4920
 0.3710	 5.5720
 0.3720	 5.5430
 0.3730	 5.5230
 0.3740	 5.5810
 0.3750	 5.5950
 0.3760	 5.4600
 0.3770	 5.4420
 0.3780	 5.5090
 0.3790	 5.5960
 0.3800	 5.6260
 0.3810	 5.5590
 0.3820	 5.5370
 0.3830	 5.5970
 0.3840	 5.4720
 0.3850	 5.3640
 0.3860	 5.3560
 0.3870	 5.4550
 0.3880	 5.5380
 0.3890	 5.5410
 0.3900	 5.4770
 0.3910	 5.4370
 0.3920	 5.3840
 0.3930	 5.3820
 0.3940	 5.4500
 0.3950	 5.4400
 0.3960	 5.4520
 0.3970	 5.4390
 0.3980	 5.3300
 0.3990	 5.3620
 0.4000	 5.4270
 0.4010	 5.4390
 0.4020	 5.3780
 0.4030	 5.3680
 0.4040	 5.3880
 0.4050	 5.3960
 0.4060	 5.4380
 0.4070	 5.4060
 0.4080	 5.3550
 0.4090	 5.4280
 0.4100	 5.4350
 0.4110	 5.4170
 0.4120	 5.4090
 0.4130	 5.3820
 0.4140	 5.3450
 0.4150	 5.3580
 0.4160	 5.4510
 0.4170	 5.4410
 0.4180	 5.4190
 0.4190	 5.4270
 0.4200	 5.4500
 0.4210	 5.4700
 0.4220	 5.4790
 0.4230	 5.4810
 0.4240	 5.5010
 0.4250	 5.5230
 0.4260	 5.5470
 0.4270	 5.5790
 0.4280	 5.5970
 0.4290	 5.6120
 0.4300	 5.6320
 0.4310	 5.6610
 0.4320	 5.6860
 0.4330	 5.7200
 0.4340	 5.7660
 0.4350	 5.7640
 0.4360	 5.7760
 0.4370	 5.8050
 0.4380	 5.8100
 0.4390	 5.8060
 0.4400	 5.8180
 0.4410	 5.8510
 0.4420	 5.8770
 0.4430	 5.8900
 0.4440	 5.8960
 0.4450	 5.9100
 0.4460	 5.9340
 0.4470	 5.9540
 0.4480	 5.9600
 0.4490	 5.9410
 0.4500	 5.9470
 0.4510	 5.9680
 0.4520	 5.9840
 0.4530	 6.0040
 0.4540	 6.0190
 0.4550	 6.0300
 0.4560	 6.0470
 0.4570	 6.0630
 0.4580	 6.0580
 0.4590	 6.0370
 0.4600	 6.0410
 0.4610	 6.0680
 0.4620	 6.0860
 0.4630	 6.0750
 0.4640	 6.0930
 0.4650	 6.1060
 0.4660	 6.1000
 0.4670	 6.0910
 0.4680	 6.1050
 0.4690	 6.1190
 0.4700	 6.1160
 0.4710	 6.1350
 0.4720	 6.1460
 0.4730	 6.1470
 0.4740	 6.1470
 0.4750	 6.1360
 0.4760	 6.1320
 0.4770	 6.1430
 0.4780	 6.1590
 0.4790	 6.1650
 0.4800	 6.1590
 0.4810	 6.1490
 0.4820	 6.1570
 0.4830	 6.1690
 0.4840	 6.1750
 0.4850	 6.1700
 0.4860	 6.1740
 0.4870	 6.1810
 0.4880	 6.1830
 0.4890	 6.1820
 0.4900	 6.2030
 0.4910	 6.2300
 0.4920	 6.2320
 0.4930	 6.2580
 0.4940	 6.2870
 0.4950	 6.3080
 0.4960	 6.3320
 0.4970	 6.3600
 0.4980	 6.3910
 0.4990	 6.4240
 0.5000	 6.4520
 0.5010	 6.4810
 0.5020	 6.5170
 0.5030	 6.5680
 0.5040	 6.6200
 0.5050	 6.6790
 0.5060	 6.7460
 0.5070	 6.8130
 0.5080	 6.8840
 0.5090	 6.9660
 0.5100	 7.0630
 0.5110	 7.1590
 0.5120	 7.2690
 0.5130	 7.3920
 0.5140	 7.5080
 0.5150	 7.6500
 0.5160	 7.8040
 0.5170	 7.9560
 0.5180	 8.1200
 0.5190	 8.2950
 0.5200	 8.4810
 0.5210	 8.6720
 0.5220	 8.8630
 0.5230	 9.0660
 0.5240	 9.2830
 0.5250	 9.4800
 0.5260	 9.6770
 0.5270	 9.8780
 0.5280	10.0770
 0.5290	10.2700
 0.5300	10.4600
 0.5310	10.6450
 0.5320	10.8130
 0.5330	10.9760
 0.5340	11.1350
 0.5350	11.2870
 0.5360	11.4320
 0.5370	11.5690
 0.5380	11.6960
 0.5390	11.8130
 0.5400	11.9240
 0.5410	12.0350
 0.5420	12.1460
 0.5430	12.2360
 0.5440	12.3310
 0.5450	12.4300
 0.5460	12.5180
 0.5470	12.6010
 0.5480	12.6760
 0.5490	12.7440
 0.5500	12.8130
 0.5510	12.8670
 0.5520	12.9160
 0.5530	12.9670
 0.5540	12.9990
 0.5550	13.0170
 0.5560	13.0250
 0.5570	13.0270
 0.5580	13.0150
 0.5590	12.9860
 0.5600	12.9420
 0.5610	12.8860
 0.5620	12.8120
 0.5630	12.7230
 0.5640	12.6290
 0.5650	12.5330
 0.5660	12.4330
 0.5670	12.3300
 0.5680	12.2240
 0.5690	12.1270
 0.5700	12.0310
 0.5710	11.9250
 0.5720	11.8130
 0.5730	11.7050
 0.5740	11.6060
 0.5750	11.5140
 0.5760	11.4180
 0.5770	11.3280
 0.5780	11.2470
 0.5790	11.1510
 0.5800	11.0660
 0.5810	10.9920
 0.5820	10.9190
 0.5830	10.8670
 0.5840	10.8300
 0.5850	10.7960
 0.5860	10.7580
 0.5870	10.7160
 0.5880	10.6700
 0.5890	10.6210
 0.5900	10.5770
 0.5910	10.5390
 0.5920	10.5040
 0.5930	10.4660
 0.5940	10.4320
 0.5950	10.4040
 0.5960	10.3830
 0.5970	10.3620
 0.5980	10.3480
 0.5990	10.3290
 0.6000	10.2970
 0.6010	10.2670
 0.6020	10.2360
 0.6030	10.2000
 0.6040	10.1570
 0.6050	10.1100
 0.6060	10.0620
 0.6070	10.0120
 0.6080	 9.9550
 0.6090	 9.8910
 0.6100	 9.8270
 0.6110	 9.7690
 0.6120	 9.7100
 0.6130	 9.6530
 0.6140	 9.5980
 0.6150	 9.5380
 0.6160	 9.4800
 0.6170	 9.4280
 0.6180	 9.3820
 0.6190	 9.3400
 0.6200	 9.2990
 0.6210	 9.2610
 0.6220	 9.2390
 0.6230	 9.2180
 0.6240	 9.1990
 0.6250	 9.1850
 0.6260	 9.1720
 0.6270	 9.1630
 0.6280	 9.1590
 0.6290	 9.1590
 0.6300	 9.1550
 0.6310	 9.1500
 0.6320	 9.1430
 0.6330	 9.1260
 0.6340	 9.1020
 0.6350	 9.0670
 0.6360	 9.0160
 0.6370	 8.9560
 0.6380	 8.8850
 0.6390	 8.8000
 0.6400	 8.7000
 0.6410	 8.5950
 0.6420	 8.4920
 0.6430	 8.3870
 0.6440	 8.2750
 0.6450	 8.1700
 0.6460	 8.0750
 0.6470	 7.9850
 0.6480	 7.9050
 0.6490	 7.8360
 0.6500	 7.7750
 0.6510	 7.7180
 0.6520	 7.6830
 0.6530	 7.6510
 0.6540	 7.6100
 0.6550	 7.5760
 0.6560	 7.5370
 0.6570	 7.4920
 0.6580	 7.4450
 0.6590	 7.3890
 0.6600	 7.3310
 0.6610	 7.2730
 0.6620	 7.2100
 0.6630	 7.1460
 0.6640	 7.0890
 0.6650	 7.0420
 0.6660	 6.9930
 0.6670	 6.9510
 0.6680	 6.9210
 0.6690	 6.8970
 0.6700	 6.8750
 0.6710	 6.8630
 0.6720	 6.8610
 0.6730	 6.8580
 0.6740	 6.8620
 0.6750	 6.8730
 0.6760	 6.8890
 0.6770	 6.9060
 0.6780	 6.9330
 0.6790	 6.9720
 0.6800	 7.0160
 0.6810	 7.0700
 0.6820	 7.1350
 0.6830	 7.2170
 0.6840	 7.3210
 0.6850	 7.4570
 0.6860	 7.6230
 0.6870	 7.8160
 0.6880	 8.0650
 0.6890	 8.3720
 0.6900	 8.7420
 0.6910	 9.1790
 0.6920	 9.6950
 0.6930	10.2950
 0.6940	10.9800
 0.6950	11.7520
 0.6960	12.6110
 0.6970	13.5480
 0.6980	14.5540
 0.6990	15.6370
 0.7000	16.7710
 0.7010	17.9440
 0.7020	19.1550
 0.7030	20.4020
 0.7040	21.6600
 0.7050	22.9060
 0.7060	24.1510
 0.7070	25.3860
 0.7080	26.6040
 0.7090	27.8000
 0.7100	28.9800
 0.7110	30.1270
 0.7120	31.2370
 0.7130	32.3180
 0.7140	33.3780
 0.7150	34.4040
 0.7160	35.3860
 0.7170	36.3290
 0.7180	37.2390
 0.7190	38.1180
 0.7200	38.9640
 0.7210	39.7740
 0.7220	40.5460
 0.7230	41.2840
 0.7240	41.9970
 0.7250	42.6640
 0.7260	43.2900
 0.7270	43.8840
 0.7280	44.4550
 0.7290	44.9870
 0.7300	45.4820
 0.7310	45.9550
 0.7320	46.4020
 0.7330	46.8180
 0.7340	47.2060
 0.7350	47.5840
 0.7360	47.9230
 0.7370	48.2380
 0.7380	48.5380
 0.7390	48.8120
 0.7400	49.0810
 0.7410	49.3390
 0.7420	49.5720
 0.7430	49.7730
 0.7440	49.9640
 0.7450	50.1510
 0.7460	50.3230
 0.7470	50.4730
 0.7480	50.6170
 0.7490	50.7580
 0.7500	50.8690
 0.7510	50.9720
 0.7520	51.0750
 0.7530	51.1760
 0.7540	51.2710
 0.7550	51.3350
 0.7560	51.3820
 0.7570	51.4550
 0.7580	51.5040
 0.7590	51.5550
 0.7600	51.6180
 0.7610	51.6520
 0.7620	51.6800
 0.7630	51.7150
 0.7640	51.7610
 0.7650	51.7860
 0.7660	51.8060
 0.7670	51.8300
 0.7680	51.8570
 0.7690	51.8670
 0.7700	51.8780
 0.7710	51.9010
 0.7720	51.9300
 0.7730	51.9450
 0.7740	51.9550
 0.7750	51.9680
 0.7760	51.9770
 0.7770	51.9830
 0.7780	51.9980
 0.7790	52.0310
 0.7800	52.0430
 0.7810	52.0560
 0.7820	52.0720
 0.7830	52.0740
 0.7840	52.0840
 0.7850	52.1020
 0.7860	52.1260
 0.7870	52.1420
 0.7880	52.1560
 0.7890	52.1640
 0.7900	52.1670
 0.7910	52.1820
 0.7920	52.2130
 0.7930	52.2430
 0.7940	52.2440
 0.7950	52.2370
 0.7960	52.2490
 0.7970	52.2760
 0.7980	52.2770
 0.7990	52.3010
 0.8000	52.3340
 0.8010	52.3570
 0.8020	52.3630
 0.8030	52.3720
 0.8040	52.3810
 0.8050	52.3890
 0.8060	52.4270
 0.8070	52.4450
 0.8080	52.4390
 0.8090	52.4520
 0.8100	52.4700
 0.8110	52.4900
 0.8120	52.5050
 0.8130	52.5010
 0.8140	52.5210
 0.8150	52.5430
 0.8160	52.5450
 0.8170	52.5550
 0.8180	52.5900
 0.8190	52.6300
 0.8200	52.6410
 0.8210	52.6380
 0.8220	52.6450
 0.8230	52.6630
 0.8240	52.6730
 0.8250	52.6930
 0.8260	52.7100
 0.8270	52.7200
 0.8280	52.7430
 0.8290	52.7560
 0.8300	52.7610
 0.8310	52.7650
 0.8320	52.7590
 0.8330	52.7660
 0.8340	52.7840
 0.8350	52.8010
 0.8360	52.8160
 0.8370	52.8290
 0.8380	52.8400
 0.8390	52.8560
 0.8400	52.8770
 0.8410	52.8920
 0.8420	52.8940
 0.8430	52.8790
 0.8440	52.8820
 0.8450	52.9100
 0.8460	52.9490
 0.8470	52.9630
 0.8480	52.9740
 0.8490	52.9800
 0.8500	52.9790
 0.8510	53.0010
 0.8520	53.0180
 0.8530	53.0250
 0.8540	53.0320
 0.8550	53.0480
 0.8560	53.0630
 0.8570	53.0710
 0.8580	53.0710
 0.8590	53.0580
 0.8600	53.0690
 0.8610	53.1050
 0.8620	53.1030
 0.8630	53.1000
 0.8640	53.1030
 0.8650	53.1120
 0.8660	53.1300
 0.8670	53.1340
 0.8680	53.1380
 0.8690	53.1550
 0.8700	53.1430
 0.8710	53.1450
 0.8720	53.1610
 0.8730	53.1640
 0.8740	53.1660
 0.8750	53.1740
 0.8760	53.1820
 0.8770	53.1750
 0.8780	53.2070
 0.8790	53.2240
 0.8800	53.2020
 0.8810	53.1910
 0.8820	53.1890
 0.8830	53.1940
 0.8840	53.1990
 0.8850	53.1990
 0.8860	53.1970
 0.8870	53.1930
 0.8880	53.1900
 0.8890	53.1930
 0.8900	53.2090
 0.8910	53.2180
 0.8920	53.2000
 0.8930	53.1880
 0.8940	53.1790
 0.8950	53.1680
 0.8960	53.1560
 0.8970	53.1710
 0.8980	53.1820
 0.8990	53.1770
 0.9000	53.1670
 0.9010	53.1460
 0.9020	53.1300
 0.9030	53.1300
 0.9040	53.1400
 0.9050	53.1310
 0.9060	53.1230
 0.9070	53.1250
 0.9080	53.1040
 0.9090	53.1040
 0.9100	53.1180
 0.9110	53.1200
 0.9120	53.0910
 0.9130	53.0830
 0.9140	53.0830
 0.9150	53.0660
 0.9160	53.0700
 0.9170	53.0630
 0.9180	53.0550
 0.9190	53.0630
 0.9200	53.0690
 0.9210	53.0620
 0.9220	53.0400
 0.9230	53.0110
 0.9240	53.0070
 0.9250	53.0050
 0.9260	53.0000
 0.9270	53.0020
 0.9280	52.9600
 0.9290	52.9250
 0.9300	52.9090
 0.9310	52.8820
 0.9320	52.8460
 0.9330	52.8310
 0.9340	52.8380
 0.9350	52.8290
 0.9360	52.7920
 0.9370	52.7540
 0.9380	52.7310
 0.9390	52.7100
 0.9400	52.6650
 0.9410	52.6310
 0.9420	52.6150
 0.9430	52.5680
 0.9440	52.5310
 0.9450	52.4910
 0.9460	52.4420
 0.9470	52.4220
 0.9480	52.3810
 0.9490	52.3190
 0.9500	52.2490
 0.9510	52.1880
 0.9520	52.1050
 0.9530	52.0170
 0.9540	51.9430
 0.9550	51.8620
 0.9560	51.8080
 0.9570	51.7470
 0.9580	51.6510
 0.9590	51.6050
 0.9600	51.5380
 0.9610	51.4550
 0.9620	51.3860
 0.9630	51.3410
 0.9640	51.2720
 0.9650	51.2090
 0.9660	51.1860
 0.9670	51.1420
 0.9680	51.1100
 0.9690	51.0900
 0.9700	51.0680
 0.9710	51.0470
 0.9720	51.0280
 0.9730	51.0030
 0.9740	50.9680
 0.9750	50.9700
 0.9760	50.9570
 0.9770	50.9360
 0.9780	50.9410
 0.9790	50.9690
 0.9800	50.9690
 0.9810	50.9440
 0.9820	50.9300
 0.9830	50.9630
 0.9840	50.9680
 0.9850	50.9660
 0.9860	51.0090
 0.9870	51.0520
 0.9880	51.0720
 0.9890	51.0780
 0.9900	51.1030
 0.9910	51.1650
 0.9920	51.2240
 0.9930	51.2840
 0.9940	51.3440
 0.9950	51.4030
 0.9960	51.4630
 0.9970	51.5230
 0.9980	51.5830
 0.9990	51.6420
 1.0000	51.7020
 1.0010	51.7620
 1.0020	51.8210
 1.0030	51.8810
 1.0040	51.9410
 1.0050	52.0010
 1.0060	52.0600
 1.0070	52.1200
 1.0080	52.1800
 1.0090	52.2390
 1.0100	52.2390
 1.0110	52.2600
 1.0120	52.2890
 1.0130	52.3280
 1.0140	52.3590
 1.0150	52.3880
 1.0160	52.4200
 1.0170	52.4450
 1.0180	52.4810
 1.0190	52.5380
 1.0200	52.5860
 1.0210	52.6300
 1.0220	52.6730
 1.0230	52.7080
 1.0240	52.7260
 1.0250	52.7570
 1.0260	52.7910
 1.0270	52.8200
 1.0280	52.8560
 1.0290	52.8810
 1.0300	52.8920
 1.0310	52.9160
 1.0320	52.9420
 1.0330	52.9660
 1.0340	52.9950
 1.0350	53.0380
 1.0360	53.0690
 1.0370	53.0910
 1.0380	53.1150
 1.0390	53.1360
 1.0400	53.1540
 1.0410	53.1660
 1.0420	53.1870
 1.0430	53.2110
 1.0440	53.2320
 1.0450	53.2630
 1.0460	53.2820
 1.0470	53.2880
 1.0480	53.2980
 1.0490	53.3000
 1.0500	53.3090
 1.0510	53.3180
 1.0520	53.3380
 1.0530	53.3530
 1.0540	53.3720
 1.0550	53.3890
 1.0560	53.4060
 1.0570	53.4200
 1.0580	53.4390
 1.0590	53.4450
 1.0600	53.4370
 1.0610	53.4380
 1.0620	53.4320
 1.0630	53.4340
 1.0640	53.4420
 1.0650	53.4510
 1.0660	53.4660
 1.0670	53.4730
 1.0680	53.4770
 1.0690	53.4820
 1.0700	53.4810
 1.0710	53.4730
 1.0720	53.4710
 1.0730	53.4740
 1.0740	53.4680
 1.0750	53.4580
 1.0760	53.4510
 1.0770	53.4370
 1.0780	53.4320
 1.0790	53.4380
 1.0800	53.4370
 1.0810	53.4370
 1.0820	53.4340
 1.0830	53.4250
 1.0840	53.4180
 1.0850	53.4100
 1.0860	53.4010
 1.0870	53.3940
 1.0880	53.3900
 1.0890	53.3800
 1.0900	53.3650
 1.0910	53.3580
 1.0920	53.3550
 1.0930	53.3420
 1.0940	53.3290
 1.0950	53.3160
 1.0960	53.2920
 1.0970	53.2750
 1.0980	53.2720
 1.0990	53.2570
 1.1000	53.2370
 1.1010	53.2160
 1.1020	53.1850
 1.1030	53.1580
 1.1040	53.1430
 1.1050	53.1260
 1.1060	53.1110
 1.1070	53.1100
 1.1080	53.0910
 1.1090	53.0630
 1.1100	53.0390
 1.1110	53.0090
 1.1120	52.9820
 1.1130	52.9610
 1.1140	52.9330
 1.1150	52.9080
 1.1160	52.8710
 1.1170	52.8300
 1.1180	52.7840
 1.1190	52.7270
 1.1200	52.6700
 1.1210	52.6100
 1.1220	52.5460
 1.1230	52.4850
 1.1240	52.4190
 1.1250	52.3470
 1.1260	52.2740
 1.1270	52.1960
 1.1280	52.1140
 1.1290	52.0250
 1.1300	51.9340
 1.1310	51.8370
 1.1320	51.7320
 1.1330	51.6240
 1.1340	51.5160
 1.1350	51.3990
 1.1360	51.2750
 1.1370	51.1440
 1.1380	51.0050
 1.1390	50.8600
 1.1400	50.7100
 1.1410	50.5570
 1.1420	50.3990
 1.1430	50.2360
 1.1440	50.0700
 1.1450	49.8980
 1.1460	49.7260
 1.1470	49.5480
 1.1480	49.3770
 1.1490	49.2000
 1.1500	49.0350
 1.1510	48.8740
 1.1520	48.7210
 1.1530	48.5680
 1.1540	48.4310
 1.1550	48.3050
 1.1560	48.1870
 1.1570	48.0760
 1.1580	47.9810
 1.1590	47.8920
 1.1600	47.8060
 1.1610	47.7400
 1.1620	47.6790
 1.1630	47.6200
 1.1640	47.5730
 1.1650	47.5300
 1.1660	47.4930
 1.1670	47.4610
 1.1680	47.4390
 1.1690	47.4160
 1.1700	47.3990
 1.1710	47.3780
 1.1720	47.3540
 1.1730	47.3380
 1.1740	47.3240
 1.1750	47.3100
 1.1760	47.3040
 1.1770	47.2970
 1.1780	47.2790
 1.1790	47.2590
 1.1800	47.2360
 1.1810	47.2070
 1.1820	47.1830
 1.1830	47.1590
 1.1840	47.1310
 1.1850	47.1050
 1.1860	47.0830
 1.1870	47.0650
 1.1880	47.0510
 1.1890	47.0470
 1.1900	47.0370
 1.1910	47.0270
 1.1920	47.0180
 1.1930	47.0070
 1.1940	47.0000
 1.1950	46.9930
 1.1960	46.9870
 1.1970	46.9840
 1.1980	46.9810
 1.1990	46.9830
 1.2000	46.9900
 1.2010	46.9980
 1.2020	47.0060
 1.2030	47.0190
 1.2040	47.0360
 1.2050	47.0550
 1.2060	47.0800
 1.2070	47.1000
 1.2080	47.1200
 1.2090	47.1470
 1.2100	47.1750
 1.2110	47.2060
 1.2120	47.2450
 1.2130	47.2810
 1.2140	47.3200
 1.2150	47.3600
 1.2160	47.4000
 1.2170	47.4440
 1.2180	47.4910
 1.2190	47.5300
 1.2200	47.5690
 1.2210	47.6130
 1.2220	47.6580
 1.2230	47.7030
 1.2240	47.7470
 1.2250	47.7920
 1.2260	47.8300
 1.2270	47.8720
 1.2280	47.9170
 1.2290	47.9570
 1.2300	48.0020
 1.2310	48.0440
 1.2320	48.0770
 1.2330	48.1100
 1.2340	48.1460
 1.2350	48.1820
 1.2360	48.2170
 1.2370	48.2540
 1.2380	48.2910
 1.2390	48.3240
 1.2400	48.3490
 1.2410	48.3800
 1.2420	48.4120
 1.2430	48.4360
 1.2440	48.4620
 1.2450	48.4880
 1.2460	48.5090
 1.2470	48.5290
 1.2480	48.5490
 1.2490	48.5710
 1.2500	48.5940
 1.2510	48.6200
 1.2520	48.6480
 1.2530	48.6670
 1.2540	48.6820
 1.2550	48.6980
 1.2560	48.7060
 1.2570	48.7150
 1.2580	48.7290
 1.2590	48.7410
 1.2600	48.7540
 1.2610	48.7640
 1.2620	48.7770
 1.2630	48.7840
 1.2640	48.7800
 1.2650	48.7850
 1.2660	48.7890
 1.2670	48.7830
 1.2680	48.7830
 1.2690	48.7790
 1.2700	48.7740
 1.2710	48.7740
 1.2720	48.7760
 1.2730	48.7750
 1.2740	48.7690
 1.2750	48.7610
 1.2760	48.7560
 1.2770	48.7510
 1.2780	48.7450
 1.2790	48.7330
 1.2800	48.7180
 1.2810	48.7080
 1.2820	48.6940
 1.2830	48.6780
 1.2840	48.6600
 1.2850	48.6320
 1.2860	48.6070
 1.2870	48.5780
 1.2880	48.5470
 1.2890	48.5150
 1.2900	48.4810
 1.2910	48.4350
 1.2920	48.3930
 1.2930	48.3470
 1.2940	48.2960
 1.2950	48.2530
 1.2960	48.2050
 1.2970	48.1560
 1.2980	48.1060
 1.2990	48.0430
 1.3000	47.9730
 1.3010	47.8970
 1.3020	47.8200
 1.3030	47.7430
 1.3040	47.6670
 1.3050	47.5880
 1.3060	47.5050
 1.3070	47.4200
 1.3080	47.3260
 1.3090	47.2310
 1.3100	47.1350
 1.3110	47.0300
 1.3120	46.9250
 1.3130	46.8180
 1.3140	46.7070
 1.3150	46.5930
 1.3160	46.4710
 1.3170	46.3450
 1.3180	46.2150
 1.3190	46.0810
 1.3200	45.9410
 1.3210	45.7930
 1.3220	45.6430
 1.3230	45.4880
 1.3240	45.3320
 1.3250	45.1830
 1.3260	45.0300
 1.3270	44.8680
 1.3280	44.7010
 1.3290	44.5250
 1.3300	44.3470
 1.3310	44.1730
 1.3320	43.9940
 1.3330	43.8140
 1.3340	43.6290
 1.3350	43.4380
 1.3360	43.2470
 1.3370	43.0530
 1.3380	42.8590
 1.3390	42.6670
 1.3400	42.4720
 1.3410	42.2820
 1.3420	42.0940
 1.3430	41.9040
 1.3440	41.7150
 1.3450	41.5290
 1.3460	41.3440
 1.3470	41.1620
 1.3480	40.9800
 1.3490	40.8000
 1.3500	40.6210
 1.3510	40.4410
 1.3520	40.2610
 1.3530	40.0850
 1.3540	39.9120
 1.3550	39.7360
 1.3560	39.5620
 1.3570	39.3920
 1.3580	39.2220
 1.3590	39.0470
 1.3600	38.8710
 1.3610	38.6880
 1.3620	38.5000
 1.3630	38.3150
 1.3640	38.1250
 1.3650	37.9270
 1.3660	37.7240
 1.3670	37.5040
 1.3680	37.2700
 1.3690	37.0290
 1.3700	36.7740
 1.3710	36.5080
 1.3720	36.2360
 1.3730	35.9440
 1.3740	35.6340
 1.3750	35.3090
 1.3760	34.9590
 1.3770	34.5860
 1.3780	34.1900
 1.3790	33.7750
 1.3800	33.3380
 1.3810	32.8770
 1.3820	32.3940
 1.3830	31.8890
 1.3840	31.3620
 1.3850	30.8100
 1.3860	30.2450
 1.3870	29.6580
 1.3880	29.0630
 1.3890	28.4530
 1.3900	27.8320
 1.3910	27.2110
 1.3920	26.5830
 1.3930	25.9500
 1.3940	25.3180
 1.3950	24.6790
 1.3960	24.0500
 1.3970	23.4330
 1.3980	22.8250
 1.3990	22.2390
 1.4000	21.6660
 1.4010	21.1060
 1.4020	20.5700
 1.4030	20.0480
 1.4040	19.5500
 1.4050	19.0790
 1.4060	18.6260
 1.4070	18.2020
 1.4080	17.8000
 1.4090	17.4160
 1.4100	17.0580
 1.4110	16.7190
 1.4120	16.4030
 1.4130	16.1130
 1.4140	15.8430
 1.4150	15.5970
 1.4160	15.3710
 1.4170	15.1610
 1.4180	14.9710
 1.4190	14.7980
 1.4200	14.6380
 1.4210	14.4950
 1.4220	14.3670
 1.4230	14.2490
 1.4240	14.1420
 1.4250	14.0440
 1.4260	13.9560
 1.4270	13.8770
 1.4280	13.8060
 1.4290	13.7450
 1.4300	13.6940
 1.4310	13.6470
 1.4320	13.6080
 1.4330	13.5740
 1.4340	13.5470
 1.4350	13.5240
 1.4360	13.5070
 1.4370	13.4950
 1.4380	13.4860
 1.4390	13.4800
 1.4400	13.4770
 1.4410	13.4800
 1.4420	13.4860
 1.4430	13.4950
 1.4440	13.5100
 1.4450	13.5250
 1.4460	13.5390
 1.4470	13.5580
 1.4480	13.5770
 1.4490	13.5960
 1.4500	13.6190
 1.4510	13.6430
 1.4520	13.6650
 1.4530	13.6910
 1.4540	13.7150
 1.4550	13.7380
 1.4560	13.7620
 1.4570	13.7890
 1.4580	13.8210
 1.4590	13.8550
 1.4600	13.8920
 1.4610	13.9310
 1.4620	13.9690
 1.4630	14.0110
 1.4640	14.0570
 1.4650	14.1060
 1.4660	14.1590
 1.4670	14.2190
 1.4680	14.2830
 1.4690	14.3490
