Name: Macadamia integrifolia
Type: vegetation
Class: Tree
Genus: Macadamia
Species: integrifolia
Sample No.: JPL205
Owner: JPL
Wavelength Range: VSWIR
Origin: 34.12492; -118.11224; WGS84
Collection Date: 10/3/2016
Description: Samples were collected at the Huntington Garden in San Marino California as part of a JPL Subcontract studying HyTES imagery. Samples were taken to JPL and processed within 48 hours of collection. The same leaves were processed in the Nicolet and then measured using the ASD.
Measurement: Bidirectional reflectance
First Column: X
Second Column: Y
X Units: Wavelength (micrometer)
Y Units: Reflectance (percentage)
First X Value: 0.35
Last X Value: 2.5
Number of X Values: 2151
Additional Information: vegetation.tree.macadamia.integrifolia.vswir.jpl205.jpl.asd.ancillary.txt

 0.3500	 6.1910
 0.3510	 6.1550
 0.3520	 6.1090
 0.3530	 6.0060
 0.3540	 5.8780
 0.3550	 5.9470
 0.3560	 6.0540
 0.3570	 6.0290
 0.3580	 5.7750
 0.3590	 5.7810
 0.3600	 5.9040
 0.3610	 5.9590
 0.3620	 5.7970
 0.3630	 5.8050
 0.3640	 5.8570
 0.3650	 5.7800
 0.3660	 5.7180
 0.3670	 5.7040
 0.3680	 5.7360
 0.3690	 5.7850
 0.3700	 5.8050
 0.3710	 5.7800
 0.3720	 5.7190
 0.3730	 5.6580
 0.3740	 5.7290
 0.3750	 5.7930
 0.3760	 5.6990
 0.3770	 5.6880
 0.3780	 5.6380
 0.3790	 5.5960
 0.3800	 5.7420
 0.3810	 5.7430
 0.3820	 5.6730
 0.3830	 5.6340
 0.3840	 5.6350
 0.3850	 5.6240
 0.3860	 5.6270
 0.3870	 5.6760
 0.3880	 5.6740
 0.3890	 5.6580
 0.3900	 5.6520
 0.3910	 5.6530
 0.3920	 5.6300
 0.3930	 5.5980
 0.3940	 5.5790
 0.3950	 5.5830
 0.3960	 5.5970
 0.3970	 5.5980
 0.3980	 5.5690
 0.3990	 5.5550
 0.4000	 5.5660
 0.4010	 5.5800
 0.4020	 5.5440
 0.4030	 5.5450
 0.4040	 5.5560
 0.4050	 5.5380
 0.4060	 5.5190
 0.4070	 5.5210
 0.4080	 5.5310
 0.4090	 5.5200
 0.4100	 5.5240
 0.4110	 5.5160
 0.4120	 5.4930
 0.4130	 5.5000
 0.4140	 5.5150
 0.4150	 5.5260
 0.4160	 5.5270
 0.4170	 5.5200
 0.4180	 5.5250
 0.4190	 5.5400
 0.4200	 5.5470
 0.4210	 5.5450
 0.4220	 5.5300
 0.4230	 5.5070
 0.4240	 5.5190
 0.4250	 5.5290
 0.4260	 5.5310
 0.4270	 5.5300
 0.4280	 5.5330
 0.4290	 5.5320
 0.4300	 5.5260
 0.4310	 5.5290
 0.4320	 5.5330
 0.4330	 5.5330
 0.4340	 5.5270
 0.4350	 5.5150
 0.4360	 5.5010
 0.4370	 5.4990
 0.4380	 5.5280
 0.4390	 5.5420
 0.4400	 5.5480
 0.4410	 5.5540
 0.4420	 5.5540
 0.4430	 5.5530
 0.4440	 5.5570
 0.4450	 5.5670
 0.4460	 5.5710
 0.4470	 5.5730
 0.4480	 5.5780
 0.4490	 5.5850
 0.4500	 5.5940
 0.4510	 5.6000
 0.4520	 5.6020
 0.4530	 5.6070
 0.4540	 5.6130
 0.4550	 5.6170
 0.4560	 5.6170
 0.4570	 5.6190
 0.4580	 5.6240
 0.4590	 5.6330
 0.4600	 5.6390
 0.4610	 5.6420
 0.4620	 5.6420
 0.4630	 5.6370
 0.4640	 5.6350
 0.4650	 5.6410
 0.4660	 5.6480
 0.4670	 5.6450
 0.4680	 5.6490
 0.4690	 5.6510
 0.4700	 5.6450
 0.4710	 5.6450
 0.4720	 5.6440
 0.4730	 5.6430
 0.4740	 5.6480
 0.4750	 5.6540
 0.4760	 5.6570
 0.4770	 5.6540
 0.4780	 5.6500
 0.4790	 5.6520
 0.4800	 5.6590
 0.4810	 5.6660
 0.4820	 5.6640
 0.4830	 5.6660
 0.4840	 5.6720
 0.4850	 5.6700
 0.4860	 5.6660
 0.4870	 5.6720
 0.4880	 5.6880
 0.4890	 5.6990
 0.4900	 5.7130
 0.4910	 5.7320
 0.4920	 5.7540
 0.4930	 5.7710
 0.4940	 5.7950
 0.4950	 5.8310
 0.4960	 5.8680
 0.4970	 5.9050
 0.4980	 5.9480
 0.4990	 6.0010
 0.5000	 6.0570
 0.5010	 6.1190
 0.5020	 6.1900
 0.5030	 6.2720
 0.5040	 6.3580
 0.5050	 6.4570
 0.5060	 6.5740
 0.5070	 6.7060
 0.5080	 6.8460
 0.5090	 6.9970
 0.5100	 7.1670
 0.5110	 7.3520
 0.5120	 7.5500
 0.5130	 7.7630
 0.5140	 7.9900
 0.5150	 8.2310
 0.5160	 8.4860
 0.5170	 8.7520
 0.5180	 9.0300
 0.5190	 9.3180
 0.5200	 9.6120
 0.5210	 9.9090
 0.5220	10.2010
 0.5230	10.4870
 0.5240	10.7670
 0.5250	11.0370
 0.5260	11.2970
 0.5270	11.5460
 0.5280	11.7790
 0.5290	11.9990
 0.5300	12.2050
 0.5310	12.3930
 0.5320	12.5620
 0.5330	12.7120
 0.5340	12.8500
 0.5350	12.9780
 0.5360	13.0850
 0.5370	13.1830
 0.5380	13.2740
 0.5390	13.3530
 0.5400	13.4220
 0.5410	13.4840
 0.5420	13.5430
 0.5430	13.6020
 0.5440	13.6560
 0.5450	13.7060
 0.5460	13.7510
 0.5470	13.7970
 0.5480	13.8410
 0.5490	13.8790
 0.5500	13.9110
 0.5510	13.9360
 0.5520	13.9510
 0.5530	13.9520
 0.5540	13.9370
 0.5550	13.9080
 0.5560	13.8640
 0.5570	13.8030
 0.5580	13.7260
 0.5590	13.6340
 0.5600	13.5290
 0.5610	13.4180
 0.5620	13.2950
 0.5630	13.1620
 0.5640	13.0210
 0.5650	12.8780
 0.5660	12.7340
 0.5670	12.5870
 0.5680	12.4330
 0.5690	12.2710
 0.5700	12.1050
 0.5710	11.9380
 0.5720	11.7700
 0.5730	11.6050
 0.5740	11.4430
 0.5750	11.2880
 0.5760	11.1460
 0.5770	11.0150
 0.5780	10.8920
 0.5790	10.7740
 0.5800	10.6610
 0.5810	10.5540
 0.5820	10.4560
 0.5830	10.3690
 0.5840	10.2890
 0.5850	10.2110
 0.5860	10.1310
 0.5870	10.0540
 0.5880	 9.9800
 0.5890	 9.9100
 0.5900	 9.8470
 0.5910	 9.7850
 0.5920	 9.7230
 0.5930	 9.6660
 0.5940	 9.6120
 0.5950	 9.5630
 0.5960	 9.5240
 0.5970	 9.4930
 0.5980	 9.4610
 0.5990	 9.4270
 0.6000	 9.3920
 0.6010	 9.3540
 0.6020	 9.3110
 0.6030	 9.2670
 0.6040	 9.2210
 0.6050	 9.1690
 0.6060	 9.1120
 0.6070	 9.0510
 0.6080	 8.9870
 0.6090	 8.9170
 0.6100	 8.8400
 0.6110	 8.7580
 0.6120	 8.6890
 0.6130	 8.6250
 0.6140	 8.5580
 0.6150	 8.4890
 0.6160	 8.4190
 0.6170	 8.3520
 0.6180	 8.2920
 0.6190	 8.2310
 0.6200	 8.1760
 0.6210	 8.1280
 0.6220	 8.0870
 0.6230	 8.0500
 0.6240	 8.0180
 0.6250	 7.9930
 0.6260	 7.9760
 0.6270	 7.9630
 0.6280	 7.9510
 0.6290	 7.9380
 0.6300	 7.9260
 0.6310	 7.9120
 0.6320	 7.8920
 0.6330	 7.8610
 0.6340	 7.8180
 0.6350	 7.7610
 0.6360	 7.6910
 0.6370	 7.6090
 0.6380	 7.5190
 0.6390	 7.4210
 0.6400	 7.3150
 0.6410	 7.2090
 0.6420	 7.1030
 0.6430	 6.9980
 0.6440	 6.8940
 0.6450	 6.7920
 0.6460	 6.6950
 0.6470	 6.6060
 0.6480	 6.5260
 0.6490	 6.4600
 0.6500	 6.4090
 0.6510	 6.3680
 0.6520	 6.3380
 0.6530	 6.3140
 0.6540	 6.2920
 0.6550	 6.2700
 0.6560	 6.2490
 0.6570	 6.2260
 0.6580	 6.2000
 0.6590	 6.1760
 0.6600	 6.1520
 0.6610	 6.1260
 0.6620	 6.1000
 0.6630	 6.0760
 0.6640	 6.0580
 0.6650	 6.0450
 0.6660	 6.0290
 0.6670	 6.0200
 0.6680	 6.0190
 0.6690	 6.0210
 0.6700	 6.0280
 0.6710	 6.0420
 0.6720	 6.0640
 0.6730	 6.0930
 0.6740	 6.1250
 0.6750	 6.1630
 0.6760	 6.2090
 0.6770	 6.2590
 0.6780	 6.3160
 0.6790	 6.3810
 0.6800	 6.4550
 0.6810	 6.5350
 0.6820	 6.6210
 0.6830	 6.7160
 0.6840	 6.8220
 0.6850	 6.9440
 0.6860	 7.0900
 0.6870	 7.2700
 0.6880	 7.4960
 0.6890	 7.7840
 0.6900	 8.1480
 0.6910	 8.6040
 0.6920	 9.1590
 0.6930	 9.8160
 0.6940	10.5720
 0.6950	11.4280
 0.6960	12.3720
 0.6970	13.3900
 0.6980	14.4700
 0.6990	15.6010
 0.7000	16.7650
 0.7010	17.9470
 0.7020	19.1360
 0.7030	20.3230
 0.7040	21.4950
 0.7050	22.6460
 0.7060	23.7810
 0.7070	24.8910
 0.7080	25.9760
 0.7090	27.0370
 0.7100	28.0830
 0.7110	29.1110
 0.7120	30.1200
 0.7130	31.1090
 0.7140	32.0790
 0.7150	33.0310
 0.7160	33.9670
 0.7170	34.8900
 0.7180	35.7900
 0.7190	36.6680
 0.7200	37.5240
 0.7210	38.3570
 0.7220	39.1670
 0.7230	39.9530
 0.7240	40.7070
 0.7250	41.4340
 0.7260	42.1330
 0.7270	42.8030
 0.7280	43.4410
 0.7290	44.0510
 0.7300	44.6330
 0.7310	45.1810
 0.7320	45.7000
 0.7330	46.1910
 0.7340	46.6550
 0.7350	47.0890
 0.7360	47.4930
 0.7370	47.8720
 0.7380	48.2280
 0.7390	48.5590
 0.7400	48.8640
 0.7410	49.1450
 0.7420	49.4050
 0.7430	49.6380
 0.7440	49.8480
 0.7450	50.0380
 0.7460	50.2090
 0.7470	50.3600
 0.7480	50.4950
 0.7490	50.6150
 0.7500	50.7200
 0.7510	50.8110
 0.7520	50.8930
 0.7530	50.9650
 0.7540	51.0280
 0.7550	51.0810
 0.7560	51.1290
 0.7570	51.1740
 0.7580	51.2110
 0.7590	51.2420
 0.7600	51.2690
 0.7610	51.2920
 0.7620	51.3090
 0.7630	51.3210
 0.7640	51.3300
 0.7650	51.3380
 0.7660	51.3430
 0.7670	51.3440
 0.7680	51.3430
 0.7690	51.3420
 0.7700	51.3400
 0.7710	51.3380
 0.7720	51.3340
 0.7730	51.3320
 0.7740	51.3310
 0.7750	51.3270
 0.7760	51.3230
 0.7770	51.3190
 0.7780	51.3160
 0.7790	51.3140
 0.7800	51.3160
 0.7810	51.3150
 0.7820	51.3120
 0.7830	51.3130
 0.7840	51.3130
 0.7850	51.3110
 0.7860	51.3090
 0.7870	51.3100
 0.7880	51.3090
 0.7890	51.3070
 0.7900	51.3050
 0.7910	51.3020
 0.7920	51.3000
 0.7930	51.2980
 0.7940	51.2950
 0.7950	51.2920
 0.7960	51.2890
 0.7970	51.2870
 0.7980	51.2840
 0.7990	51.2760
 0.8000	51.2680
 0.8010	51.2630
 0.8020	51.2600
 0.8030	51.2530
 0.8040	51.2460
 0.8050	51.2390
 0.8060	51.2280
 0.8070	51.2160
 0.8080	51.2070
 0.8090	51.2030
 0.8100	51.1960
 0.8110	51.1860
 0.8120	51.1760
 0.8130	51.1650
 0.8140	51.1520
 0.8150	51.1400
 0.8160	51.1290
 0.8170	51.1190
 0.8180	51.1100
 0.8190	51.1000
 0.8200	51.0890
 0.8210	51.0770
 0.8220	51.0650
 0.8230	51.0540
 0.8240	51.0450
 0.8250	51.0380
 0.8260	51.0300
 0.8270	51.0180
 0.8280	51.0010
 0.8290	50.9880
 0.8300	50.9760
 0.8310	50.9630
 0.8320	50.9490
 0.8330	50.9380
 0.8340	50.9290
 0.8350	50.9200
 0.8360	50.9130
 0.8370	50.9050
 0.8380	50.8960
 0.8390	50.8900
 0.8400	50.8860
 0.8410	50.8810
 0.8420	50.8750
 0.8430	50.8750
 0.8440	50.8690
 0.8450	50.8640
 0.8460	50.8650
 0.8470	50.8570
 0.8480	50.8530
 0.8490	50.8520
 0.8500	50.8500
 0.8510	50.8480
 0.8520	50.8440
 0.8530	50.8400
 0.8540	50.8400
 0.8550	50.8430
 0.8560	50.8460
 0.8570	50.8460
 0.8580	50.8460
 0.8590	50.8450
 0.8600	50.8430
 0.8610	50.8420
 0.8620	50.8450
 0.8630	50.8480
 0.8640	50.8490
 0.8650	50.8470
 0.8660	50.8490
 0.8670	50.8510
 0.8680	50.8510
 0.8690	50.8530
 0.8700	50.8600
 0.8710	50.8640
 0.8720	50.8660
 0.8730	50.8720
 0.8740	50.8750
 0.8750	50.8760
 0.8760	50.8780
 0.8770	50.8830
 0.8780	50.8850
 0.8790	50.8870
 0.8800	50.8890
 0.8810	50.8910
 0.8820	50.8950
 0.8830	50.8980
 0.8840	50.8990
 0.8850	50.9020
 0.8860	50.9070
 0.8870	50.9080
 0.8880	50.9040
 0.8890	50.9050
 0.8900	50.9090
 0.8910	50.9120
 0.8920	50.9110
 0.8930	50.9080
 0.8940	50.9090
 0.8950	50.9130
 0.8960	50.9190
 0.8970	50.9160
 0.8980	50.9140
 0.8990	50.9140
 0.9000	50.9110
 0.9010	50.9150
 0.9020	50.9170
 0.9030	50.9140
 0.9040	50.9170
 0.9050	50.9150
 0.9060	50.9100
 0.9070	50.9070
 0.9080	50.9130
 0.9090	50.9120
 0.9100	50.9040
 0.9110	50.8960
 0.9120	50.8950
 0.9130	50.8850
 0.9140	50.8750
 0.9150	50.8790
 0.9160	50.8840
 0.9170	50.8780
 0.9180	50.8660
 0.9190	50.8560
 0.9200	50.8500
 0.9210	50.8400
 0.9220	50.8300
 0.9230	50.8230
 0.9240	50.8090
 0.9250	50.7940
 0.9260	50.7800
 0.9270	50.7690
 0.9280	50.7530
 0.9290	50.7320
 0.9300	50.7080
 0.9310	50.6840
 0.9320	50.6620
 0.9330	50.6430
 0.9340	50.6260
 0.9350	50.5970
 0.9360	50.5680
 0.9370	50.5390
 0.9380	50.5100
 0.9390	50.4860
 0.9400	50.4570
 0.9410	50.4230
 0.9420	50.3860
 0.9430	50.3490
 0.9440	50.3100
 0.9450	50.2700
 0.9460	50.2300
 0.9470	50.1750
 0.9480	50.1180
 0.9490	50.0630
 0.9500	50.0060
 0.9510	49.9390
 0.9520	49.8770
 0.9530	49.8140
 0.9540	49.7430
 0.9550	49.6740
 0.9560	49.6020
 0.9570	49.5330
 0.9580	49.4720
 0.9590	49.4130
 0.9600	49.3530
 0.9610	49.2980
 0.9620	49.2540
 0.9630	49.2180
 0.9640	49.1800
 0.9650	49.1380
 0.9660	49.0970
 0.9670	49.0640
 0.9680	49.0300
 0.9690	49.0040
 0.9700	48.9910
 0.9710	48.9730
 0.9720	48.9470
 0.9730	48.9190
 0.9740	48.9040
 0.9750	48.8920
 0.9760	48.8790
 0.9770	48.8710
 0.9780	48.8760
 0.9790	48.8650
 0.9800	48.8460
 0.9810	48.8380
 0.9820	48.8480
 0.9830	48.8400
 0.9840	48.8410
 0.9850	48.8490
 0.9860	48.8540
 0.9870	48.8620
 0.9880	48.8790
 0.9890	48.8950
 0.9900	48.8940
 0.9910	48.8990
 0.9920	48.9110
 0.9930	48.9340
 0.9940	48.9650
 0.9950	48.9580
 0.9960	48.9700
 0.9970	48.9910
 0.9980	48.9960
 0.9990	49.0270
 1.0000	49.0420
 1.0010	50.5540
 1.0020	50.5720
 1.0030	50.5920
 1.0040	50.6180
 1.0050	50.6450
 1.0060	50.6710
 1.0070	50.6950
 1.0080	50.7190
 1.0090	50.7430
 1.0100	50.7660
 1.0110	50.7870
 1.0120	50.8100
 1.0130	50.8300
 1.0140	50.8530
 1.0150	50.8780
 1.0160	50.9040
 1.0170	50.9300
 1.0180	50.9580
 1.0190	50.9810
 1.0200	51.0010
 1.0210	51.0210
 1.0220	51.0400
 1.0230	51.0630
 1.0240	51.0940
 1.0250	51.1180
 1.0260	51.1390
 1.0270	51.1620
 1.0280	51.1820
 1.0290	51.2050
 1.0300	51.2340
 1.0310	51.2570
 1.0320	51.2780
 1.0330	51.2990
 1.0340	51.3220
 1.0350	51.3420
 1.0360	51.3640
 1.0370	51.3890
 1.0380	51.4090
 1.0390	51.4270
 1.0400	51.4460
 1.0410	51.4650
 1.0420	51.4820
 1.0430	51.5010
 1.0440	51.5170
 1.0450	51.5300
 1.0460	51.5470
 1.0470	51.5690
 1.0480	51.5850
 1.0490	51.6000
 1.0500	51.6150
 1.0510	51.6260
 1.0520	51.6340
 1.0530	51.6430
 1.0540	51.6520
 1.0550	51.6600
 1.0560	51.6670
 1.0570	51.6730
 1.0580	51.6780
 1.0590	51.6830
 1.0600	51.6870
 1.0610	51.6920
 1.0620	51.6990
 1.0630	51.7030
 1.0640	51.7080
 1.0650	51.7080
 1.0660	51.7010
 1.0670	51.6970
 1.0680	51.6940
 1.0690	51.6890
 1.0700	51.6870
 1.0710	51.6890
 1.0720	51.6860
 1.0730	51.6790
 1.0740	51.6760
 1.0750	51.6750
 1.0760	51.6710
 1.0770	51.6690
 1.0780	51.6630
 1.0790	51.6500
 1.0800	51.6410
 1.0810	51.6300
 1.0820	51.6210
 1.0830	51.6130
 1.0840	51.6040
 1.0850	51.5940
 1.0860	51.5870
 1.0870	51.5780
 1.0880	51.5680
 1.0890	51.5580
 1.0900	51.5450
 1.0910	51.5340
 1.0920	51.5210
 1.0930	51.5090
 1.0940	51.4990
 1.0950	51.4870
 1.0960	51.4740
 1.0970	51.4610
 1.0980	51.4480
 1.0990	51.4330
 1.1000	51.4170
 1.1010	51.4020
 1.1020	51.3870
 1.1030	51.3710
 1.1040	51.3580
 1.1050	51.3450
 1.1060	51.3300
 1.1070	51.3140
 1.1080	51.2980
 1.1090	51.2810
 1.1100	51.2650
 1.1110	51.2500
 1.1120	51.2330
 1.1130	51.2180
 1.1140	51.1980
 1.1150	51.1750
 1.1160	51.1530
 1.1170	51.1290
 1.1180	51.1020
 1.1190	51.0740
 1.1200	51.0440
 1.1210	51.0070
 1.1220	50.9660
 1.1230	50.9220
 1.1240	50.8760
 1.1250	50.8250
 1.1260	50.7740
 1.1270	50.7140
 1.1280	50.6500
 1.1290	50.5780
 1.1300	50.4980
 1.1310	50.4120
 1.1320	50.3160
 1.1330	50.2180
 1.1340	50.1150
 1.1350	50.0040
 1.1360	49.8850
 1.1370	49.7610
 1.1380	49.6280
 1.1390	49.4880
 1.1400	49.3440
 1.1410	49.1960
 1.1420	49.0440
 1.1430	48.8900
 1.1440	48.7350
 1.1450	48.5780
 1.1460	48.4240
 1.1470	48.2680
 1.1480	48.1180
 1.1490	47.9680
 1.1500	47.8260
 1.1510	47.6850
 1.1520	47.5550
 1.1530	47.4310
 1.1540	47.3150
 1.1550	47.2080
 1.1560	47.1090
 1.1570	47.0140
 1.1580	46.9300
 1.1590	46.8530
 1.1600	46.7810
 1.1610	46.7160
 1.1620	46.6570
 1.1630	46.6020
 1.1640	46.5520
 1.1650	46.5060
 1.1660	46.4670
 1.1670	46.4290
 1.1680	46.3950
 1.1690	46.3630
 1.1700	46.3330
 1.1710	46.3040
 1.1720	46.2780
 1.1730	46.2500
 1.1740	46.2240
 1.1750	46.1960
 1.1760	46.1680
 1.1770	46.1410
 1.1780	46.1140
 1.1790	46.0870
 1.1800	46.0580
 1.1810	46.0300
 1.1820	46.0010
 1.1830	45.9710
 1.1840	45.9410
 1.1850	45.9100
 1.1860	45.8800
 1.1870	45.8510
 1.1880	45.8240
 1.1890	45.8010
 1.1900	45.7790
 1.1910	45.7620
 1.1920	45.7420
 1.1930	45.7200
 1.1940	45.7020
 1.1950	45.6820
 1.1960	45.6660
 1.1970	45.6560
 1.1980	45.6460
 1.1990	45.6370
 1.2000	45.6280
 1.2010	45.6240
 1.2020	45.6240
 1.2030	45.6270
 1.2040	45.6330
 1.2050	45.6380
 1.2060	45.6450
 1.2070	45.6550
 1.2080	45.6680
 1.2090	45.6820
 1.2100	45.6980
 1.2110	45.7180
 1.2120	45.7390
 1.2130	45.7630
 1.2140	45.7890
 1.2150	45.8180
 1.2160	45.8510
 1.2170	45.8840
 1.2180	45.9200
 1.2190	45.9570
 1.2200	45.9920
 1.2210	46.0310
 1.2220	46.0710
 1.2230	46.1120
 1.2240	46.1530
 1.2250	46.1910
 1.2260	46.2310
 1.2270	46.2710
 1.2280	46.3080
 1.2290	46.3470
 1.2300	46.3830
 1.2310	46.4150
 1.2320	46.4470
 1.2330	46.4790
 1.2340	46.5090
 1.2350	46.5380
 1.2360	46.5670
 1.2370	46.5930
 1.2380	46.6200
 1.2390	46.6470
 1.2400	46.6720
 1.2410	46.6970
 1.2420	46.7220
 1.2430	46.7450
 1.2440	46.7670
 1.2450	46.7870
 1.2460	46.8040
 1.2470	46.8220
 1.2480	46.8400
 1.2490	46.8580
 1.2500	46.8770
 1.2510	46.8940
 1.2520	46.9070
 1.2530	46.9200
 1.2540	46.9330
 1.2550	46.9440
 1.2560	46.9560
 1.2570	46.9650
 1.2580	46.9740
 1.2590	46.9820
 1.2600	46.9900
 1.2610	46.9960
 1.2620	47.0020
 1.2630	47.0060
 1.2640	47.0070
 1.2650	47.0080
 1.2660	47.0100
 1.2670	47.0120
 1.2680	47.0140
 1.2690	47.0140
 1.2700	47.0130
 1.2710	47.0090
 1.2720	47.0050
 1.2730	47.0020
 1.2740	46.9990
 1.2750	46.9940
 1.2760	46.9870
 1.2770	46.9790
 1.2780	46.9680
 1.2790	46.9560
 1.2800	46.9440
 1.2810	46.9290
 1.2820	46.9100
 1.2830	46.8920
 1.2840	46.8710
 1.2850	46.8460
 1.2860	46.8180
 1.2870	46.7870
 1.2880	46.7520
 1.2890	46.7140
 1.2900	46.6760
 1.2910	46.6350
 1.2920	46.5910
 1.2930	46.5420
 1.2940	46.4880
 1.2950	46.4310
 1.2960	46.3730
 1.2970	46.3130
 1.2980	46.2490
 1.2990	46.1830
 1.3000	46.1130
 1.3010	46.0400
 1.3020	45.9650
 1.3030	45.8860
 1.3040	45.8070
 1.3050	45.7250
 1.3060	45.6410
 1.3070	45.5560
 1.3080	45.4680
 1.3090	45.3750
 1.3100	45.2800
 1.3110	45.1820
 1.3120	45.0810
 1.3130	44.9770
 1.3140	44.8690
 1.3150	44.7580
 1.3160	44.6460
 1.3170	44.5330
 1.3180	44.4170
 1.3190	44.2970
 1.3200	44.1720
 1.3210	44.0450
 1.3220	43.9150
 1.3230	43.7840
 1.3240	43.6520
 1.3250	43.5160
 1.3260	43.3750
 1.3270	43.2310
 1.3280	43.0850
 1.3290	42.9360
 1.3300	42.7860
 1.3310	42.6350
 1.3320	42.4840
 1.3330	42.3310
 1.3340	42.1750
 1.3350	42.0190
 1.3360	41.8610
 1.3370	41.7020
 1.3380	41.5460
 1.3390	41.3890
 1.3400	41.2330
 1.3410	41.0790
 1.3420	40.9250
 1.3430	40.7730
 1.3440	40.6230
 1.3450	40.4750
 1.3460	40.3270
 1.3470	40.1840
 1.3480	40.0410
 1.3490	39.9010
 1.3500	39.7630
 1.3510	39.6250
 1.3520	39.4880
 1.3530	39.3530
 1.3540	39.2170
 1.3550	39.0810
 1.3560	38.9450
 1.3570	38.8060
 1.3580	38.6680
 1.3590	38.5280
 1.3600	38.3840
 1.3610	38.2380
 1.3620	38.0860
 1.3630	37.9300
 1.3640	37.7670
 1.3650	37.5960
 1.3660	37.4180
 1.3670	37.2290
 1.3680	37.0300
 1.3690	36.8190
 1.3700	36.5920
 1.3710	36.3510
 1.3720	36.0930
 1.3730	35.8170
 1.3740	35.5270
 1.3750	35.2160
 1.3760	34.8820
 1.3770	34.5250
 1.3780	34.1390
 1.3790	33.7280
 1.3800	33.2930
 1.3810	32.8270
 1.3820	32.3420
 1.3830	31.8350
 1.3840	31.3050
 1.3850	30.7530
 1.3860	30.1840
 1.3870	29.5900
 1.3880	28.9910
 1.3890	28.3770
 1.3900	27.7530
 1.3910	27.1310
 1.3920	26.5010
 1.3930	25.8690
 1.3940	25.2430
 1.3950	24.6160
 1.3960	23.9990
 1.3970	23.3950
 1.3980	22.8030
 1.3990	22.2330
 1.4000	21.6800
 1.4010	21.1430
 1.4020	20.6280
 1.4030	20.1310
 1.4040	19.6560
 1.4050	19.2050
 1.4060	18.7770
 1.4070	18.3750
 1.4080	17.9960
 1.4090	17.6370
 1.4100	17.3010
 1.4110	16.9830
 1.4120	16.6860
 1.4130	16.4090
 1.4140	16.1500
 1.4150	15.9100
 1.4160	15.6860
 1.4170	15.4780
 1.4180	15.2870
 1.4190	15.1070
 1.4200	14.9400
 1.4210	14.7850
 1.4220	14.6410
 1.4230	14.5080
 1.4240	14.3870
 1.4250	14.2720
 1.4260	14.1680
 1.4270	14.0700
 1.4280	13.9820
 1.4290	13.9000
 1.4300	13.8260
 1.4310	13.7570
 1.4320	13.6950
 1.4330	13.6390
 1.4340	13.5890
 1.4350	13.5430
 1.4360	13.5020
 1.4370	13.4660
 1.4380	13.4340
 1.4390	13.4060
 1.4400	13.3830
 1.4410	13.3630
 1.4420	13.3460
 1.4430	13.3320
 1.4440	13.3210
 1.4450	13.3120
 1.4460	13.3050
 1.4470	13.3010
 1.4480	13.2990
 1.4490	13.3000
 1.4500	13.3020
 1.4510	13.3080
 1.4520	13.3140
 1.4530	13.3220
 1.4540	13.3330
 1.4550	13.3450
 1.4560	13.3590
 1.4570	13.3750
 1.4580	13.3940
 1.4590	13.4170
 1.4600	13.4410
 1.4610	13.4700
 1.4620	13.5010
 1.4630	13.5350
 1.4640	13.5750
 1.4650	13.6190
 1.4660	13.6670
 1.4670	13.7190
 1.4680	13.7740
 1.4690	13.8340
 1.4700	13.8970
 1.4710	13.9660
 1.4720	14.0380
 1.4730	14.1130
 1.4740	14.1930
 1.4750	14.2740
 1.4760	14.3600
