Name: Quercus lobata 2
Type: vegetation
Class: Tree
Genus: Quercus
Species: lobata
Sample No.: VH284
Owner: UCSB
Wavelength Range: VSWIR
Origin: 34.7146; -120.0588; WGS84
Collection Date: 11/2/2013
Description: Samples were collected as part of the HyspIRI Airborne Campaign. 48 individual plants were sampled in three times in 2013 - spring  summer  and fall. The name of the sample includes a 1  2  or 3 which references a different individual of the species. Samples were taken to JPL and processed within 48 hours of collection. The same leaves were processed in the Nicolet and then measured using the ASD.
Measurement: Bidirectional reflectance
First Column: X
Second Column: Y
X Units: Wavelength (micrometers)
Y Units: Reflectance (percentage)
First X Value: 0.35
Last X Value: 2.5
Number of X Values: 2151
Additional Information: vegetation.tree.quercus.lobata.vswir.vh284.ucsb.asd.ancillary.txt

 0.3500	 8.5100
 0.3510	 8.4230
 0.3520	 8.4950
 0.3530	 8.6270
 0.3540	 8.6730
 0.3550	 8.6050
 0.3560	 8.4680
 0.3570	 8.4120
 0.3580	 8.5560
 0.3590	 8.3560
 0.3600	 8.2640
 0.3610	 8.4100
 0.3620	 8.3590
 0.3630	 8.3440
 0.3640	 8.3990
 0.3650	 8.4830
 0.3660	 8.4620
 0.3670	 8.4630
 0.3680	 8.4670
 0.3690	 8.3760
 0.3700	 8.4470
 0.3710	 8.5180
 0.3720	 8.4930
 0.3730	 8.4840
 0.3740	 8.5800
 0.3750	 8.6450
 0.3760	 8.5460
 0.3770	 8.5270
 0.3780	 8.5580
 0.3790	 8.6010
 0.3800	 8.6210
 0.3810	 8.6560
 0.3820	 8.7050
 0.3830	 8.7520
 0.3840	 8.7650
 0.3850	 8.7420
 0.3860	 8.7590
 0.3870	 8.8770
 0.3880	 8.8910
 0.3890	 8.8820
 0.3900	 8.8980
 0.3910	 8.9420
 0.3920	 9.0090
 0.3930	 9.0730
 0.3940	 9.1110
 0.3950	 9.1200
 0.3960	 9.1250
 0.3970	 9.1400
 0.3980	 9.1750
 0.3990	 9.2530
 0.4000	 9.3040
 0.4010	 9.3190
 0.4020	 9.3770
 0.4030	 9.4390
 0.4040	 9.4790
 0.4050	 9.4940
 0.4060	 9.5500
 0.4070	 9.6220
 0.4080	 9.6910
 0.4090	 9.7430
 0.4100	 9.7890
 0.4110	 9.8460
 0.4120	 9.9140
 0.4130	 9.9580
 0.4140	10.0170
 0.4150	10.0740
 0.4160	10.1060
 0.4170	10.1580
 0.4180	10.2070
 0.4190	10.2540
 0.4200	10.3250
 0.4210	10.3770
 0.4220	10.4180
 0.4230	10.4610
 0.4240	10.5090
 0.4250	10.5490
 0.4260	10.5860
 0.4270	10.6370
 0.4280	10.6970
 0.4290	10.7340
 0.4300	10.7470
 0.4310	10.7800
 0.4320	10.7960
 0.4330	10.8080
 0.4340	10.8300
 0.4350	10.8340
 0.4360	10.8600
 0.4370	10.9090
 0.4380	10.9580
 0.4390	10.9980
 0.4400	11.0340
 0.4410	11.0720
 0.4420	11.1080
 0.4430	11.1360
 0.4440	11.1570
 0.4450	11.1790
 0.4460	11.2090
 0.4470	11.2390
 0.4480	11.2640
 0.4490	11.2890
 0.4500	11.2970
 0.4510	11.3080
 0.4520	11.3370
 0.4530	11.3560
 0.4540	11.3710
 0.4550	11.3910
 0.4560	11.4270
 0.4570	11.4460
 0.4580	11.4600
 0.4590	11.4790
 0.4600	11.4950
 0.4610	11.5120
 0.4620	11.5380
 0.4630	11.5760
 0.4640	11.5960
 0.4650	11.6120
 0.4660	11.6320
 0.4670	11.6500
 0.4680	11.6840
 0.4690	11.7060
 0.4700	11.7030
 0.4710	11.7350
 0.4720	11.7670
 0.4730	11.7860
 0.4740	11.7910
 0.4750	11.8020
 0.4760	11.8120
 0.4770	11.8210
 0.4780	11.8490
 0.4790	11.8600
 0.4800	11.8650
 0.4810	11.8810
 0.4820	11.8940
 0.4830	11.9050
 0.4840	11.9170
 0.4850	11.9370
 0.4860	11.9640
 0.4870	11.9920
 0.4880	12.0200
 0.4890	12.0680
 0.4900	12.1140
 0.4910	12.1590
 0.4920	12.2080
 0.4930	12.2600
 0.4940	12.3200
 0.4950	12.3940
 0.4960	12.4800
 0.4970	12.5750
 0.4980	12.6770
 0.4990	12.7880
 0.5000	12.9110
 0.5010	13.0560
 0.5020	13.2190
 0.5030	13.3840
 0.5040	13.5710
 0.5050	13.7820
 0.5060	14.0170
 0.5070	14.2640
 0.5080	14.5400
 0.5090	14.8490
 0.5100	15.1880
 0.5110	15.5430
 0.5120	15.9220
 0.5130	16.3300
 0.5140	16.7620
 0.5150	17.2280
 0.5160	17.7150
 0.5170	18.2100
 0.5180	18.7310
 0.5190	19.2690
 0.5200	19.8160
 0.5210	20.3690
 0.5220	20.9150
 0.5230	21.4510
 0.5240	21.9780
 0.5250	22.5020
 0.5260	23.0180
 0.5270	23.5150
 0.5280	23.9830
 0.5290	24.4380
 0.5300	24.8710
 0.5310	25.2770
 0.5320	25.6660
 0.5330	26.0290
 0.5340	26.3660
 0.5350	26.6810
 0.5360	26.9870
 0.5370	27.2710
 0.5380	27.5320
 0.5390	27.7760
 0.5400	27.9980
 0.5410	28.2030
 0.5420	28.3990
 0.5430	28.5860
 0.5440	28.7640
 0.5450	28.9430
 0.5460	29.1360
 0.5470	29.3560
 0.5480	29.5690
 0.5490	29.7520
 0.5500	29.9070
 0.5510	30.0530
 0.5520	30.1790
 0.5530	30.2740
 0.5540	30.3630
 0.5550	30.4450
 0.5560	30.5100
 0.5570	30.5430
 0.5580	30.5760
 0.5590	30.6060
 0.5600	30.6240
 0.5610	30.6150
 0.5620	30.5960
 0.5630	30.5730
 0.5640	30.5480
 0.5650	30.5240
 0.5660	30.4990
 0.5670	30.4640
 0.5680	30.3940
 0.5690	30.3320
 0.5700	30.2700
 0.5710	30.1870
 0.5720	30.0900
 0.5730	29.9840
 0.5740	29.8850
 0.5750	29.8140
 0.5760	29.7340
 0.5770	29.6460
 0.5780	29.5540
 0.5790	29.4660
 0.5800	29.3770
 0.5810	29.2940
 0.5820	29.2220
 0.5830	29.1600
 0.5840	29.1030
 0.5850	29.0460
 0.5860	28.9800
 0.5870	28.9110
 0.5880	28.8440
 0.5890	28.7860
 0.5900	28.7530
 0.5910	28.7410
 0.5920	28.7430
 0.5930	28.7470
 0.5940	28.7520
 0.5950	28.7460
 0.5960	28.7240
 0.5970	28.6930
 0.5980	28.6690
 0.5990	28.6440
 0.6000	28.6110
 0.6010	28.5880
 0.6020	28.5490
 0.6030	28.4890
 0.6040	28.4270
 0.6050	28.3400
 0.6060	28.2400
 0.6070	28.1380
 0.6080	28.0190
 0.6090	27.8740
 0.6100	27.7000
 0.6110	27.5070
 0.6120	27.3720
 0.6130	27.2640
 0.6140	27.1530
 0.6150	27.0230
 0.6160	26.9040
 0.6170	26.7940
 0.6180	26.6840
 0.6190	26.5750
 0.6200	26.4780
 0.6210	26.4010
 0.6220	26.3410
 0.6230	26.2920
 0.6240	26.2490
 0.6250	26.2130
 0.6260	26.1930
 0.6270	26.1880
 0.6280	26.1920
 0.6290	26.1950
 0.6300	26.2000
 0.6310	26.2050
 0.6320	26.2110
 0.6330	26.2130
 0.6340	26.1910
 0.6350	26.1440
 0.6360	26.0740
 0.6370	25.9700
 0.6380	25.8480
 0.6390	25.7040
 0.6400	25.5210
 0.6410	25.3270
 0.6420	25.1030
 0.6430	24.8510
 0.6440	24.6020
 0.6450	24.3370
 0.6460	24.0650
 0.6470	23.7990
 0.6480	23.5290
 0.6490	23.2850
 0.6500	23.0670
 0.6510	22.8530
 0.6520	22.6480
 0.6530	22.4500
 0.6540	22.2510
 0.6550	22.0240
 0.6560	21.7790
 0.6570	21.5100
 0.6580	21.2060
 0.6590	20.8760
 0.6600	20.5360
 0.6610	20.1870
 0.6620	19.8140
 0.6630	19.4450
 0.6640	19.0940
 0.6650	18.7680
 0.6660	18.4740
 0.6670	18.2080
 0.6680	17.9740
 0.6690	17.7760
 0.6700	17.6100
 0.6710	17.4790
 0.6720	17.3840
 0.6730	17.3160
 0.6740	17.2760
 0.6750	17.2610
 0.6760	17.2680
 0.6770	17.3000
 0.6780	17.3620
 0.6790	17.4600
 0.6800	17.6030
 0.6810	17.7970
 0.6820	18.0450
 0.6830	18.3680
 0.6840	18.8020
 0.6850	19.3210
 0.6860	19.9450
 0.6870	20.6960
 0.6880	21.5580
 0.6890	22.5280
 0.6900	23.6050
 0.6910	24.7930
 0.6920	26.0360
 0.6930	27.3330
 0.6940	28.6810
 0.6950	30.0520
 0.6960	31.4160
 0.6970	32.7680
 0.6980	34.1060
 0.6990	35.3940
 0.7000	36.6280
 0.7010	37.7990
 0.7020	38.8920
 0.7030	39.9080
 0.7040	40.8560
 0.7050	41.7410
 0.7060	42.5540
 0.7070	43.2860
 0.7080	43.9530
 0.7090	44.5800
 0.7100	45.1650
 0.7110	45.7050
 0.7120	46.2020
 0.7130	46.6610
 0.7140	47.0810
 0.7150	47.4800
 0.7160	47.8640
 0.7170	48.2100
 0.7180	48.5190
 0.7190	48.8050
 0.7200	49.0850
 0.7210	49.3380
 0.7220	49.5790
 0.7230	49.8160
 0.7240	50.0420
 0.7250	50.2290
 0.7260	50.4000
 0.7270	50.5750
 0.7280	50.7530
 0.7290	50.9020
 0.7300	51.0370
 0.7310	51.1860
 0.7320	51.2910
 0.7330	51.4040
 0.7340	51.5320
 0.7350	51.6290
 0.7360	51.7180
 0.7370	51.7970
 0.7380	51.8660
 0.7390	51.9570
 0.7400	52.0450
 0.7410	52.1200
 0.7420	52.1840
 0.7430	52.2460
 0.7440	52.3030
 0.7450	52.3500
 0.7460	52.3830
 0.7470	52.4350
 0.7480	52.4880
 0.7490	52.5270
 0.7500	52.5550
 0.7510	52.5970
 0.7520	52.6330
 0.7530	52.6420
 0.7540	52.6810
 0.7550	52.7100
 0.7560	52.7200
 0.7570	52.7340
 0.7580	52.7540
 0.7590	52.7840
 0.7600	52.8160
 0.7610	52.8360
 0.7620	52.8530
 0.7630	52.8660
 0.7640	52.8760
 0.7650	52.8840
 0.7660	52.8850
 0.7670	52.8920
 0.7680	52.9270
 0.7690	52.9310
 0.7700	52.9200
 0.7710	52.9220
 0.7720	52.9640
 0.7730	52.9780
 0.7740	52.9750
 0.7750	52.9780
 0.7760	52.9920
 0.7770	52.9900
 0.7780	52.9900
 0.7790	53.0220
 0.7800	53.0360
 0.7810	53.0340
 0.7820	53.0370
 0.7830	53.0740
 0.7840	53.0730
 0.7850	53.0670
 0.7860	53.0850
 0.7870	53.0930
 0.7880	53.0970
 0.7890	53.1040
 0.7900	53.1170
 0.7910	53.1260
 0.7920	53.1370
 0.7930	53.1480
 0.7940	53.1570
 0.7950	53.1820
 0.7960	53.2040
 0.7970	53.2130
 0.7980	53.2180
 0.7990	53.2280
 0.8000	53.2480
 0.8010	53.2760
 0.8020	53.2870
 0.8030	53.3020
 0.8040	53.3130
 0.8050	53.3080
 0.8060	53.2970
 0.8070	53.3070
 0.8080	53.3340
 0.8090	53.3510
 0.8100	53.3720
 0.8110	53.3830
 0.8120	53.3880
 0.8130	53.4200
 0.8140	53.4330
 0.8150	53.4330
 0.8160	53.4400
 0.8170	53.4800
 0.8180	53.5210
 0.8190	53.5360
 0.8200	53.5150
 0.8210	53.5260
 0.8220	53.5440
 0.8230	53.5600
 0.8240	53.5790
 0.8250	53.6040
 0.8260	53.6250
 0.8270	53.6340
 0.8280	53.6380
 0.8290	53.6410
 0.8300	53.6400
 0.8310	53.6400
 0.8320	53.6800
 0.8330	53.7120
 0.8340	53.7140
 0.8350	53.6920
 0.8360	53.7100
 0.8370	53.7400
 0.8380	53.7690
 0.8390	53.8010
 0.8400	53.7800
 0.8410	53.7780
 0.8420	53.8140
 0.8430	53.8160
 0.8440	53.8360
 0.8450	53.8570
 0.8460	53.8660
 0.8470	53.8880
 0.8480	53.8950
 0.8490	53.8880
 0.8500	53.8830
 0.8510	53.8970
 0.8520	53.9270
 0.8530	53.9570
 0.8540	53.9660
 0.8550	53.9400
 0.8560	53.9470
 0.8570	53.9890
 0.8580	53.9990
 0.8590	53.9980
 0.8600	54.0070
 0.8610	54.0210
 0.8620	54.0070
 0.8630	54.0160
 0.8640	54.0290
 0.8650	54.0230
 0.8660	54.0130
 0.8670	54.0230
 0.8680	54.0380
 0.8690	54.0390
 0.8700	54.0590
 0.8710	54.0620
 0.8720	54.0540
 0.8730	54.0650
 0.8740	54.0610
 0.8750	54.0620
 0.8760	54.0700
 0.8770	54.0670
 0.8780	54.0820
 0.8790	54.0770
 0.8800	54.0540
 0.8810	54.0820
 0.8820	54.0810
 0.8830	54.0760
 0.8840	54.0860
 0.8850	54.0730
 0.8860	54.0660
 0.8870	54.0670
 0.8880	54.0620
 0.8890	54.0440
 0.8900	54.0510
 0.8910	54.0660
 0.8920	54.0600
 0.8930	54.0690
 0.8940	54.0660
 0.8950	54.0430
 0.8960	54.0160
 0.8970	54.0100
 0.8980	54.0170
 0.8990	54.0270
 0.9000	54.0330
 0.9010	54.0150
 0.9020	53.9840
 0.9030	53.9650
 0.9040	53.9890
 0.9050	53.9800
 0.9060	53.9690
 0.9070	53.9840
 0.9080	54.0040
 0.9090	54.0040
 0.9100	53.9830
 0.9110	53.9540
 0.9120	53.9520
 0.9130	53.9600
 0.9140	53.9670
 0.9150	53.9660
 0.9160	53.9430
 0.9170	53.9090
 0.9180	53.8830
 0.9190	53.8840
 0.9200	53.8990
 0.9210	53.9080
 0.9220	53.8960
 0.9230	53.8640
 0.9240	53.8680
 0.9250	53.8710
 0.9260	53.8610
 0.9270	53.8530
 0.9280	53.8140
 0.9290	53.7810
 0.9300	53.7680
 0.9310	53.7530
 0.9320	53.7540
 0.9330	53.7640
 0.9340	53.7620
 0.9350	53.7140
 0.9360	53.6860
 0.9370	53.6730
 0.9380	53.6610
 0.9390	53.6410
 0.9400	53.6150
 0.9410	53.5970
 0.9420	53.5870
 0.9430	53.5590
 0.9440	53.5580
 0.9450	53.5500
 0.9460	53.5110
 0.9470	53.4740
 0.9480	53.4350
 0.9490	53.4100
 0.9500	53.3990
 0.9510	53.3540
 0.9520	53.2920
 0.9530	53.2330
 0.9540	53.1940
 0.9550	53.1610
 0.9560	53.1340
 0.9570	53.1140
 0.9580	53.0880
 0.9590	52.9980
 0.9600	52.9390
 0.9610	52.9110
 0.9620	52.8800
 0.9630	52.8460
 0.9640	52.8280
 0.9650	52.8130
 0.9660	52.7860
 0.9670	52.7790
 0.9680	52.7890
 0.9690	52.7950
 0.9700	52.7820
 0.9710	52.7910
 0.9720	52.7960
 0.9730	52.7940
 0.9740	52.7950
 0.9750	52.7960
 0.9760	52.8020
 0.9770	52.8130
 0.9780	52.8220
 0.9790	52.8100
 0.9800	52.8030
 0.9810	52.8200
 0.9820	52.8620
 0.9830	52.8540
 0.9840	52.8660
 0.9850	52.8710
 0.9860	52.8240
 0.9870	52.8390
 0.9880	52.8620
 0.9890	52.8970
 0.9900	52.9590
 0.9910	52.9710
 0.9920	52.9700
 0.9930	52.9790
 0.9940	53.0040
 0.9950	53.0430
 0.9960	53.0460
 0.9970	53.0370
 0.9980	53.0560
 0.9990	53.0680
 1.0000	53.0990
 1.0010	53.1260
 1.0020	53.1580
 1.0030	53.1770
 1.0040	53.2050
 1.0050	53.2380
 1.0060	53.2620
 1.0070	53.2810
 1.0080	53.2990
 1.0090	53.3060
 1.0100	53.3240
 1.0110	53.3450
 1.0120	53.3680
 1.0130	53.3960
 1.0140	53.4180
 1.0150	53.4350
 1.0160	53.4570
 1.0170	53.4750
 1.0180	53.4910
 1.0190	53.5070
 1.0200	53.5240
 1.0210	53.5420
 1.0220	53.5560
 1.0230	53.5760
 1.0240	53.6020
 1.0250	53.6190
 1.0260	53.6360
 1.0270	53.6520
 1.0280	53.6620
 1.0290	53.6750
 1.0300	53.6900
 1.0310	53.7020
 1.0320	53.7110
 1.0330	53.7240
 1.0340	53.7370
 1.0350	53.7490
 1.0360	53.7600
 1.0370	53.7750
 1.0380	53.7890
 1.0390	53.8050
 1.0400	53.8190
 1.0410	53.8330
 1.0420	53.8450
 1.0430	53.8510
 1.0440	53.8610
 1.0450	53.8730
 1.0460	53.8840
 1.0470	53.8960
 1.0480	53.9040
 1.0490	53.9080
 1.0500	53.9140
 1.0510	53.9200
 1.0520	53.9250
 1.0530	53.9300
 1.0540	53.9350
 1.0550	53.9400
 1.0560	53.9460
 1.0570	53.9500
 1.0580	53.9530
 1.0590	53.9580
 1.0600	53.9590
 1.0610	53.9640
 1.0620	53.9710
 1.0630	53.9770
 1.0640	53.9870
 1.0650	53.9910
 1.0660	53.9930
 1.0670	53.9940
 1.0680	53.9920
 1.0690	53.9840
 1.0700	53.9830
 1.0710	53.9810
 1.0720	53.9820
 1.0730	53.9870
 1.0740	53.9860
 1.0750	53.9830
 1.0760	53.9780
 1.0770	53.9660
 1.0780	53.9600
 1.0790	53.9540
 1.0800	53.9480
 1.0810	53.9440
 1.0820	53.9410
 1.0830	53.9400
 1.0840	53.9360
 1.0850	53.9280
 1.0860	53.9210
 1.0870	53.9150
 1.0880	53.9050
 1.0890	53.8970
 1.0900	53.8910
 1.0910	53.8810
 1.0920	53.8680
 1.0930	53.8560
 1.0940	53.8440
 1.0950	53.8320
 1.0960	53.8210
 1.0970	53.8080
 1.0980	53.7920
 1.0990	53.7770
 1.1000	53.7570
 1.1010	53.7430
 1.1020	53.7350
 1.1030	53.7260
 1.1040	53.7190
 1.1050	53.7090
 1.1060	53.6960
 1.1070	53.6780
 1.1080	53.6630
 1.1090	53.6490
 1.1100	53.6340
 1.1110	53.6210
 1.1120	53.6070
 1.1130	53.5950
 1.1140	53.5790
 1.1150	53.5610
 1.1160	53.5410
 1.1170	53.5180
 1.1180	53.4950
 1.1190	53.4730
 1.1200	53.4490
 1.1210	53.4240
 1.1220	53.3990
 1.1230	53.3710
 1.1240	53.3410
 1.1250	53.3090
 1.1260	53.2760
 1.1270	53.2370
 1.1280	53.1980
 1.1290	53.1510
 1.1300	53.1010
 1.1310	53.0420
 1.1320	52.9760
 1.1330	52.9070
 1.1340	52.8300
 1.1350	52.7520
 1.1360	52.6710
 1.1370	52.5870
 1.1380	52.4990
 1.1390	52.4090
 1.1400	52.3120
 1.1410	52.2100
 1.1420	52.1050
 1.1430	51.9950
 1.1440	51.8870
 1.1450	51.7760
 1.1460	51.6690
 1.1470	51.5610
 1.1480	51.4580
 1.1490	51.3560
 1.1500	51.2620
 1.1510	51.1720
 1.1520	51.0870
 1.1530	51.0080
 1.1540	50.9350
 1.1550	50.8660
 1.1560	50.8070
 1.1570	50.7550
 1.1580	50.7070
 1.1590	50.6670
 1.1600	50.6340
 1.1610	50.6030
 1.1620	50.5810
 1.1630	50.5630
 1.1640	50.5420
 1.1650	50.5280
 1.1660	50.5210
 1.1670	50.5100
 1.1680	50.5010
 1.1690	50.4950
 1.1700	50.4870
 1.1710	50.4810
 1.1720	50.4800
 1.1730	50.4780
 1.1740	50.4770
 1.1750	50.4750
 1.1760	50.4720
 1.1770	50.4690
 1.1780	50.4640
 1.1790	50.4600
 1.1800	50.4580
 1.1810	50.4560
 1.1820	50.4510
 1.1830	50.4470
 1.1840	50.4430
 1.1850	50.4360
 1.1860	50.4300
 1.1870	50.4230
 1.1880	50.4180
 1.1890	50.4110
 1.1900	50.4070
 1.1910	50.4060
 1.1920	50.4060
 1.1930	50.4090
 1.1940	50.4120
 1.1950	50.4150
 1.1960	50.4170
 1.1970	50.4200
 1.1980	50.4240
 1.1990	50.4300
 1.2000	50.4370
 1.2010	50.4450
 1.2020	50.4520
 1.2030	50.4610
 1.2040	50.4680
 1.2050	50.4800
 1.2060	50.4910
 1.2070	50.5020
 1.2080	50.5150
 1.2090	50.5260
 1.2100	50.5410
 1.2110	50.5560
 1.2120	50.5730
 1.2130	50.5900
 1.2140	50.6080
 1.2150	50.6240
 1.2160	50.6390
 1.2170	50.6580
 1.2180	50.6770
 1.2190	50.6960
 1.2200	50.7180
 1.2210	50.7390
 1.2220	50.7580
 1.2230	50.7810
 1.2240	50.8060
 1.2250	50.8290
 1.2260	50.8490
 1.2270	50.8680
 1.2280	50.8880
 1.2290	50.9050
 1.2300	50.9220
 1.2310	50.9360
 1.2320	50.9470
 1.2330	50.9600
 1.2340	50.9760
 1.2350	50.9960
 1.2360	51.0150
 1.2370	51.0360
 1.2380	51.0530
 1.2390	51.0690
 1.2400	51.0840
 1.2410	51.0980
 1.2420	51.1110
 1.2430	51.1230
 1.2440	51.1360
 1.2450	51.1500
 1.2460	51.1630
 1.2470	51.1770
 1.2480	51.1890
 1.2490	51.2030
 1.2500	51.2170
 1.2510	51.2260
 1.2520	51.2330
 1.2530	51.2390
 1.2540	51.2460
 1.2550	51.2540
 1.2560	51.2630
 1.2570	51.2710
 1.2580	51.2750
 1.2590	51.2790
 1.2600	51.2830
 1.2610	51.2860
 1.2620	51.2900
 1.2630	51.2950
 1.2640	51.3010
 1.2650	51.3060
 1.2660	51.3080
 1.2670	51.3100
 1.2680	51.3050
 1.2690	51.2980
 1.2700	51.2950
 1.2710	51.2880
 1.2720	51.2820
 1.2730	51.2800
 1.2740	51.2730
 1.2750	51.2670
 1.2760	51.2620
 1.2770	51.2560
 1.2780	51.2470
 1.2790	51.2380
 1.2800	51.2300
 1.2810	51.2160
 1.2820	51.2060
 1.2830	51.1970
 1.2840	51.1800
 1.2850	51.1670
 1.2860	51.1560
 1.2870	51.1390
 1.2880	51.1160
 1.2890	51.1010
 1.2900	51.0820
 1.2910	51.0570
 1.2920	51.0360
 1.2930	51.0120
 1.2940	50.9860
 1.2950	50.9570
 1.2960	50.9270
 1.2970	50.8960
 1.2980	50.8610
 1.2990	50.8260
 1.3000	50.7900
 1.3010	50.7460
 1.3020	50.7030
 1.3030	50.6620
 1.3040	50.6150
 1.3050	50.5700
 1.3060	50.5200
 1.3070	50.4620
 1.3080	50.4070
 1.3090	50.3450
 1.3100	50.2820
 1.3110	50.2190
 1.3120	50.1490
 1.3130	50.0810
 1.3140	50.0080
 1.3150	49.9300
 1.3160	49.8530
 1.3170	49.7760
 1.3180	49.6940
 1.3190	49.6110
 1.3200	49.5290
 1.3210	49.4400
 1.3220	49.3470
 1.3230	49.2500
 1.3240	49.1480
 1.3250	49.0480
 1.3260	48.9450
 1.3270	48.8420
 1.3280	48.7350
 1.3290	48.6240
 1.3300	48.5140
 1.3310	48.3990
 1.3320	48.2810
 1.3330	48.1660
 1.3340	48.0460
 1.3350	47.9210
 1.3360	47.8000
 1.3370	47.6760
 1.3380	47.5520
 1.3390	47.4310
 1.3400	47.3090
 1.3410	47.1890
 1.3420	47.0720
 1.3430	46.9550
 1.3440	46.8380
 1.3450	46.7240
 1.3460	46.6090
 1.3470	46.4950
 1.3480	46.3830
 1.3490	46.2720
 1.3500	46.1600
 1.3510	46.0500
 1.3520	45.9390
 1.3530	45.8280
 1.3540	45.7160
 1.3550	45.6050
 1.3560	45.4960
 1.3570	45.3860
 1.3580	45.2760
 1.3590	45.1630
 1.3600	45.0450
 1.3610	44.9230
 1.3620	44.7930
 1.3630	44.6600
 1.3640	44.5220
 1.3650	44.3730
 1.3660	44.2200
 1.3670	44.0570
 1.3680	43.8840
 1.3690	43.7030
 1.3700	43.5060
 1.3710	43.3010
 1.3720	43.0830
 1.3730	42.8500
 1.3740	42.6100
 1.3750	42.3530
 1.3760	42.0740
 1.3770	41.7770
 1.3780	41.4520
 1.3790	41.1040
 1.3800	40.7380
 1.3810	40.3470
 1.3820	39.9350
 1.3830	39.5050
 1.3840	39.0520
 1.3850	38.5770
 1.3860	38.0850
 1.3870	37.5690
 1.3880	37.0460
 1.3890	36.5080
 1.3900	35.9580
 1.3910	35.4050
 1.3920	34.8430
 1.3930	34.2750
 1.3940	33.7050
 1.3950	33.1300
 1.3960	32.5580
 1.3970	31.9920
 1.3980	31.4330
 1.3990	30.8910
 1.4000	30.3580
 1.4010	29.8390
 1.4020	29.3370
 1.4030	28.8500
 1.4040	28.3870
 1.4050	27.9470
 1.4060	27.5240
 1.4070	27.1260
 1.4080	26.7500
 1.4090	26.3940
 1.4100	26.0650
 1.4110	25.7570
 1.4120	25.4720
 1.4130	25.2080
 1.4140	24.9630
 1.4150	24.7430
 1.4160	24.5400
 1.4170	24.3550
 1.4180	24.1890
 1.4190	24.0350
 1.4200	23.8960
 1.4210	23.7710
 1.4220	23.6570
 1.4230	23.5570
 1.4240	23.4690
 1.4250	23.3890
 1.4260	23.3200
 1.4270	23.2600
 1.4280	23.2110
 1.4290	23.1670
 1.4300	23.1340
 1.4310	23.1040
 1.4320	23.0800
 1.4330	23.0620
 1.4340	23.0500
 1.4350	23.0440
 1.4360	23.0440
 1.4370	23.0470
 1.4380	23.0510
 1.4390	23.0570
 1.4400	23.0670
 1.4410	23.0800
 1.4420	23.0960
 1.4430	23.1150
 1.4440	23.1330
 1.4450	23.1520
 1.4460	23.1730
 1.4470	23.1960
 1.4480	23.2190
 1.4490	23.2420
 1.4500	23.2660
 1.4510	23.2900
 1.4520	23.3160
 1.4530	23.3440
 1.4540	23.3730
 1.4550	23.4040
 1.4560	23.4380
 1.4570	23.4730
 1.4580	23.5110
 1.4590	23.5530
 1.4600	23.5970
 1.4610	23.6460
 1.4620	23.6980
 1.4630	23.7560
 1.4640	23.8160
 1.4650	23.8830
 1.4660	23.9550
 1.4670	24.0320
 1.4680	24.1160
 1.4690	24.2040
 1.4700	24.2960
