Name: Umbellularia californica 1
Type: vegetation
Class: Shrub
Genus: Umbellularia
Species: californica
Sample No.: VH235
Owner: UCSB
Wavelength Range: TIR
Origin: 34.5074; -119.7634; WGS84
Collection Date: 10/13/2013
Description: Samples were collected as part of the HyspIRI Airborne Campaign. 48 individual plants were sampled in three times in 2013 - spring  summer  and fall. The name of the sample includes a 1  2  or 3 which references a different individual of the species. Samples were taken to JPL and processed within 48 hours of collection. The same leaves were processed in the Nicolet and then measured using the ASD.
Measurement: Hemispherical reflectance
First Column: X
Second Column: Y
X Units: Wavelength (micrometers)
Y Units: Reflectance (percentage)
First X Value: 2.501
Last X Value: 15.387
Number of X Values: 1737
Additional Information: vegetation.shrub.umbellularia.californica.tir.vh235.ucsb.nicolet.ancillary.txt

 2.5010	 7.4800
 2.5030	 7.5820
 2.5040	 7.6370
 2.5050	 7.3190
 2.5060	 7.1920
 2.5070	 7.3140
 2.5090	 7.2590
 2.5100	 7.1710
 2.5110	 7.1950
 2.5120	 7.2580
 2.5140	 7.1780
 2.5150	 6.8880
 2.5160	 6.8850
 2.5170	 6.9370
 2.5180	 6.8620
 2.5200	 7.0410
 2.5210	 7.1570
 2.5220	 7.0270
 2.5230	 6.9550
 2.5250	 7.0920
 2.5260	 7.2020
 2.5270	 7.0430
 2.5280	 7.1680
 2.5290	 7.2650
 2.5310	 7.2360
 2.5320	 7.2050
 2.5330	 7.3910
 2.5340	 7.3620
 2.5360	 7.0700
 2.5370	 7.3020
 2.5380	 7.5270
 2.5390	 7.1940
 2.5410	 7.1640
 2.5420	 7.3320
 2.5430	 7.2240
 2.5440	 7.1480
 2.5460	 7.1890
 2.5470	 6.9450
 2.5480	 6.8640
 2.5490	 7.0660
 2.5510	 7.1610
 2.5520	 7.1310
 2.5530	 7.1070
 2.5540	 7.0830
 2.5560	 7.0790
 2.5570	 7.0240
 2.5580	 7.1530
 2.5590	 7.3110
 2.5610	 7.3370
 2.5620	 7.1750
 2.5630	 7.1340
 2.5640	 7.1460
 2.5660	 7.2470
 2.5670	 7.3370
 2.5680	 7.4040
 2.5700	 7.3100
 2.5710	 7.1920
 2.5720	 7.1560
 2.5730	 7.3510
 2.5750	 7.3900
 2.5760	 7.2990
 2.5770	 7.2010
 2.5790	 7.2410
 2.5800	 7.2680
 2.5810	 7.0790
 2.5820	 7.1330
 2.5840	 7.3860
 2.5850	 7.2530
 2.5860	 7.2240
 2.5880	 7.3030
 2.5890	 7.0550
 2.5900	 6.8980
 2.5910	 6.9080
 2.5930	 6.9200
 2.5940	 7.1300
 2.5950	 7.1980
 2.5970	 7.2210
 2.5980	 7.0500
 2.5990	 7.1190
 2.6000	 7.2390
 2.6020	 7.2380
 2.6030	 7.1130
 2.6040	 6.9670
 2.6060	 6.8390
 2.6070	 6.7480
 2.6080	 6.8380
 2.6100	 6.9340
 2.6110	 6.7410
 2.6120	 6.6340
 2.6140	 6.6170
 2.6150	 6.6980
 2.6160	 6.7490
 2.6180	 6.9610
 2.6190	 6.8720
 2.6200	 6.7060
 2.6220	 6.5750
 2.6230	 6.5640
 2.6240	 6.5430
 2.6260	 6.5270
 2.6270	 6.4670
 2.6280	 6.4650
 2.6300	 6.4240
 2.6310	 6.3640
 2.6320	 6.2760
 2.6340	 6.2700
 2.6350	 6.1810
 2.6360	 6.1190
 2.6380	 6.0220
 2.6390	 6.0320
 2.6400	 5.9960
 2.6420	 5.9800
 2.6430	 5.8980
 2.6440	 5.8810
 2.6460	 5.7920
 2.6470	 5.7670
 2.6480	 5.6350
 2.6500	 5.9960
 2.6510	 6.2370
 2.6520	 5.9870
 2.6540	 5.5860
 2.6550	 5.3770
 2.6560	 5.4700
 2.6580	 5.6200
 2.6590	 5.6110
 2.6610	 5.5410
 2.6620	 5.4330
 2.6630	 5.4760
 2.6650	 5.3860
 2.6660	 5.4130
 2.6670	 5.3840
 2.6690	 5.3160
 2.6700	 5.2830
 2.6720	 5.1780
 2.6730	 5.0330
 2.6740	 5.0380
 2.6760	 5.0170
 2.6770	 5.1340
 2.6780	 5.1730
 2.6800	 5.2190
 2.6810	 5.0400
 2.6830	 4.9960
 2.6840	 5.0080
 2.6850	 4.9000
 2.6870	 4.6580
 2.6880	 4.6180
 2.6900	 4.5590
 2.6910	 4.7260
 2.6920	 4.7650
 2.6940	 4.6440
 2.6950	 4.6290
 2.6970	 4.6980
 2.6980	 4.5530
 2.6990	 4.5340
 2.7010	 4.5610
 2.7020	 4.4600
 2.7040	 4.3150
 2.7050	 4.2660
 2.7060	 4.1570
 2.7080	 4.1740
 2.7090	 4.2830
 2.7110	 4.4060
 2.7120	 4.1960
 2.7130	 4.1330
 2.7150	 4.1140
 2.7160	 4.1360
 2.7180	 4.1820
 2.7190	 4.1460
 2.7210	 3.7780
 2.7220	 3.9790
 2.7230	 4.1720
 2.7250	 4.1800
 2.7260	 4.1610
 2.7280	 4.2630
 2.7290	 4.2410
 2.7310	 4.0790
 2.7320	 3.9140
 2.7330	 3.9330
 2.7350	 4.0120
 2.7360	 4.0030
 2.7380	 4.1080
 2.7390	 4.0340
 2.7410	 4.2350
 2.7420	 4.3160
 2.7440	 3.8050
 2.7450	 4.0820
 2.7470	 3.8100
 2.7480	 3.8340
 2.7490	 3.6830
 2.7510	 3.2640
 2.7520	 3.7570
 2.7540	 3.9280
 2.7550	 3.8310
 2.7570	 3.9760
 2.7580	 4.1690
 2.7600	 4.1380
 2.7610	 3.8630
 2.7630	 3.8520
 2.7640	 3.7240
 2.7660	 3.4080
 2.7670	 3.5600
 2.7680	 4.2640
 2.7700	 4.1640
 2.7710	 3.7430
 2.7730	 3.8810
 2.7740	 3.9930
 2.7760	 4.0360
 2.7770	 4.1280
 2.7790	 4.1610
 2.7800	 3.9460
 2.7820	 3.7860
 2.7830	 3.8110
 2.7850	 3.5740
 2.7860	 3.9230
 2.7880	 4.0070
 2.7890	 3.6710
 2.7910	 3.5410
 2.7920	 3.6710
 2.7940	 3.9530
 2.7950	 4.1540
 2.7970	 3.9020
 2.7980	 3.7280
 2.8000	 3.6400
 2.8010	 3.7480
 2.8030	 3.8540
 2.8040	 4.0500
 2.8060	 3.9770
 2.8070	 3.8160
 2.8090	 3.6700
 2.8110	 3.7290
 2.8120	 3.5990
 2.8140	 3.7420
 2.8150	 3.7260
 2.8170	 3.7300
 2.8180	 3.9960
 2.8200	 4.0070
 2.8210	 3.9560
 2.8230	 3.7840
 2.8240	 3.5210
 2.8260	 3.3070
 2.8270	 3.1630
 2.8290	 3.4030
 2.8300	 3.7920
 2.8320	 4.0230
 2.8340	 4.0510
 2.8350	 3.9870
 2.8370	 3.6890
 2.8380	 3.7530
 2.8400	 3.9060
 2.8410	 3.8930
 2.8430	 3.6730
 2.8440	 3.6990
 2.8460	 3.6950
 2.8480	 3.9630
 2.8490	 4.0700
 2.8510	 3.8520
 2.8520	 3.7560
 2.8540	 3.7950
 2.8550	 3.8580
 2.8570	 3.9050
 2.8590	 3.8800
 2.8600	 3.9000
 2.8620	 3.9280
 2.8630	 3.8090
 2.8650	 3.7620
 2.8660	 3.8380
 2.8680	 3.8450
 2.8700	 3.7360
 2.8710	 3.6720
 2.8730	 3.7640
 2.8740	 3.4420
 2.8760	 3.6730
 2.8780	 3.7660
 2.8790	 3.5760
 2.8810	 3.5550
 2.8820	 3.7540
 2.8840	 3.3800
 2.8860	 3.1070
 2.8870	 3.2080
 2.8890	 3.5570
 2.8900	 3.6480
 2.8920	 3.9240
 2.8940	 3.9200
 2.8950	 3.4720
 2.8970	 3.5380
 2.8980	 3.9510
 2.9000	 3.8550
 2.9020	 3.8410
 2.9030	 4.2300
 2.9050	 4.3260
 2.9070	 3.6930
 2.9080	 3.1870
 2.9100	 3.5850
 2.9120	 4.2560
 2.9130	 4.0750
 2.9150	 3.9110
 2.9160	 3.8300
 2.9180	 3.7920
 2.9200	 3.6600
 2.9210	 3.5790
 2.9230	 3.7470
 2.9250	 3.7790
 2.9260	 3.6410
 2.9280	 3.7620
 2.9300	 3.7790
 2.9310	 3.8810
 2.9330	 3.7930
 2.9350	 3.7150
 2.9360	 3.7360
 2.9380	 3.4960
 2.9400	 3.2990
 2.9410	 3.7520
 2.9430	 3.9720
 2.9450	 4.2860
 2.9460	 4.4560
 2.9480	 4.2590
 2.9500	 3.4380
 2.9510	 2.6410
 2.9530	 2.8190
 2.9550	 3.4670
 2.9560	 3.5940
 2.9580	 3.8900
 2.9600	 3.8810
 2.9610	 3.3710
 2.9630	 3.7990
 2.9650	 4.6840
 2.9660	 5.2090
 2.9680	 5.0900
 2.9700	 4.3460
 2.9720	 2.6110
 2.9730	 2.3920
 2.9750	 3.7060
 2.9770	 2.6750
 2.9780	 1.9930
 2.9800	 2.8120
 2.9820	 4.0370
 2.9840	 4.2410
 2.9850	 3.8580
 2.9870	 4.6200
 2.9890	 4.4160
 2.9900	 3.7190
 2.9920	 4.8330
 2.9940	 5.1650
 2.9960	 3.3660
 2.9970	 2.4670
 2.9990	 2.7850
 3.0010	 4.0340
 3.0030	 5.8200
 3.0040	 6.6490
 3.0060	 5.3800
 3.0080	 2.8620
 3.0100	 3.3030
 3.0110	 3.8730
 3.0130	 4.0240
 3.0150	 4.2050
 3.0170	 3.2680
 3.0180	 2.7650
 3.0200	 3.4230
 3.0220	 3.1960
 3.0240	 3.2490
 3.0250	 4.2040
 3.0270	 5.2760
 3.0290	 4.7010
 3.0310	 3.9640
 3.0320	 3.2660
 3.0340	 3.3560
 3.0360	 4.3320
 3.0380	 4.2720
 3.0400	 2.9930
 3.0410	 2.6040
 3.0430	 2.7990
 3.0450	 3.4990
 3.0470	 4.5570
 3.0480	 3.6680
 3.0500	 3.4000
 3.0520	 4.3900
 3.0540	 4.1460
 3.0560	 3.9810
 3.0570	 4.2830
 3.0590	 5.3610
 3.0610	 5.7530
 3.0630	 4.0810
 3.0650	 3.7420
 3.0660	 2.3070
 3.0680	 1.6850
 3.0700	 3.1070
 3.0720	 4.2750
 3.0740	 4.6210
 3.0760	 4.0020
 3.0770	 3.7140
 3.0790	 3.4600
 3.0810	 3.5410
 3.0830	 3.9160
 3.0850	 3.9890
 3.0870	 3.9340
 3.0880	 3.7100
 3.0900	 3.8800
 3.0920	 4.1240
 3.0940	 4.0180
 3.0960	 3.8050
 3.0980	 3.7540
 3.0990	 3.9780
 3.1010	 3.9400
 3.1030	 3.7650
 3.1050	 4.0290
 3.1070	 4.0100
 3.1090	 3.9640
 3.1110	 4.1980
 3.1120	 4.1080
 3.1140	 3.5840
 3.1160	 3.2690
 3.1180	 3.5130
 3.1200	 3.9260
 3.1220	 3.9410
 3.1240	 4.0920
 3.1260	 4.3570
 3.1270	 4.2180
 3.1290	 4.0230
 3.1310	 4.0290
 3.1330	 3.5740
 3.1350	 3.4400
 3.1370	 3.8730
 3.1390	 4.2100
 3.1410	 5.3870
 3.1430	 6.1870
 3.1450	 4.1720
 3.1460	 2.2810
 3.1480	 2.8100
 3.1500	 3.0510
 3.1520	 3.1220
 3.1540	 3.6320
 3.1560	 4.6320
 3.1580	 4.0540
 3.1600	 5.3250
 3.1620	 5.2660
 3.1640	 3.3020
 3.1660	 2.4000
 3.1680	 3.0470
 3.1700	 3.0560
 3.1710	 2.6850
 3.1730	 4.3030
 3.1750	 6.6720
 3.1770	 6.2350
 3.1790	 5.1340
 3.1810	 4.3020
 3.1830	 4.0610
 3.1850	 3.1870
 3.1870	 2.5880
 3.1890	 3.3430
 3.1910	 3.6060
 3.1930	 3.5400
 3.1950	 3.5420
 3.1970	 3.5410
 3.1990	 3.6890
 3.2010	 3.7720
 3.2030	 3.7970
 3.2050	 3.7360
 3.2070	 3.7620
 3.2090	 3.9380
 3.2110	 4.2510
 3.2130	 3.9850
 3.2150	 3.7040
 3.2170	 3.7360
 3.2190	 3.8320
 3.2210	 3.8590
 3.2230	 3.8510
 3.2250	 3.7780
 3.2270	 3.7530
 3.2290	 3.7940
 3.2310	 3.7120
 3.2330	 3.7540
 3.2350	 4.1430
 3.2370	 4.1680
 3.2390	 4.0790
 3.2410	 3.9460
 3.2430	 3.6540
 3.2450	 3.2660
 3.2470	 3.2480
 3.2490	 3.6600
 3.2510	 3.8340
 3.2530	 3.9350
 3.2550	 3.9900
 3.2570	 3.7490
 3.2590	 4.0510
 3.2610	 4.0300
 3.2630	 3.8400
 3.2650	 3.7120
 3.2670	 3.9670
 3.2690	 3.9810
 3.2720	 3.7540
 3.2740	 3.5070
 3.2760	 3.6110
 3.2780	 3.7260
 3.2800	 3.6860
 3.2820	 3.5350
 3.2840	 3.6980
 3.2860	 3.7110
 3.2880	 3.7510
 3.2900	 3.4470
 3.2920	 3.2240
 3.2940	 3.0230
 3.2960	 3.3420
 3.2990	 3.4620
 3.3010	 3.5510
 3.3030	 3.7760
 3.3050	 3.7250
 3.3070	 3.2280
 3.3090	 3.3970
 3.3110	 3.9720
 3.3130	 4.0330
 3.3150	 3.7060
 3.3180	 3.3900
 3.3200	 3.3470
 3.3220	 3.6320
 3.3240	 3.4990
 3.3260	 3.4220
 3.3280	 3.7460
 3.3300	 3.7640
 3.3330	 3.5380
 3.3350	 3.6470
 3.3370	 3.6500
 3.3390	 3.4080
 3.3410	 3.4440
 3.3430	 3.5030
 3.3450	 3.3230
 3.3480	 3.4060
 3.3500	 3.4130
 3.3520	 3.3400
 3.3540	 3.1580
 3.3560	 3.2450
 3.3580	 3.3830
 3.3610	 3.4610
 3.3630	 3.4720
 3.3650	 3.3570
 3.3670	 3.1920
 3.3690	 3.2380
 3.3720	 3.1590
 3.3740	 3.2220
 3.3760	 3.3770
 3.3780	 3.4480
 3.3800	 3.3570
 3.3830	 3.3720
 3.3850	 3.4680
 3.3870	 3.4970
 3.3890	 3.4760
 3.3910	 3.4720
 3.3940	 3.2980
 3.3960	 3.2880
 3.3980	 3.2710
 3.4000	 3.1560
 3.4020	 3.1030
 3.4050	 3.1140
 3.4070	 3.3470
 3.4090	 3.5890
 3.4110	 3.7390
 3.4140	 3.9720
 3.4160	 4.2540
 3.4180	 4.6400
 3.4200	 5.3710
 3.4230	 6.2710
 3.4250	 7.3560
 3.4270	 8.3970
 3.4290	 9.0550
 3.4320	 9.0740
 3.4340	 8.2770
 3.4360	 7.4300
 3.4390	 6.7350
 3.4410	 6.0770
 3.4430	 5.6730
 3.4450	 5.4860
 3.4480	 5.5920
 3.4500	 5.8650
 3.4520	 5.8310
 3.4550	 5.7580
 3.4570	 5.6080
 3.4590	 5.3170
 3.4620	 5.1080
 3.4640	 5.1630
 3.4660	 4.9540
 3.4680	 4.8300
 3.4710	 4.8380
 3.4730	 4.8470
 3.4750	 4.6810
 3.4780	 4.5790
 3.4800	 4.4840
 3.4820	 4.4370
 3.4850	 4.3890
 3.4870	 4.3680
 3.4890	 4.2960
 3.4920	 4.2570
 3.4940	 4.1660
 3.4970	 4.0850
 3.4990	 4.1070
 3.5010	 4.4040
 3.5040	 4.7620
 3.5060	 5.5230
 3.5080	 6.8160
 3.5110	 8.1250
 3.5130	 8.4610
 3.5160	 7.8390
 3.5180	 7.0150
 3.5200	 6.3740
 3.5230	 5.9410
 3.5250	 5.8330
 3.5270	 5.6630
 3.5300	 5.4740
 3.5320	 5.3480
 3.5350	 5.3190
 3.5370	 5.2250
 3.5400	 5.1340
 3.5420	 5.0860
 3.5440	 5.0540
 3.5470	 5.1370
 3.5490	 5.3440
 3.5520	 5.3430
 3.5540	 5.0690
 3.5570	 4.8720
 3.5590	 4.7760
 3.5610	 4.7640
 3.5640	 4.8810
 3.5660	 4.7760
 3.5690	 4.7630
 3.5710	 4.9170
 3.5740	 5.0010
 3.5760	 4.8270
 3.5790	 4.6260
 3.5810	 4.5690
 3.5840	 4.6910
 3.5860	 4.7410
 3.5890	 4.6360
 3.5910	 4.5230
 3.5930	 4.6990
 3.5960	 4.7670
 3.5980	 4.7540
 3.6010	 4.7760
 3.6030	 4.6200
 3.6060	 4.4710
 3.6080	 4.6850
 3.6110	 4.6920
 3.6140	 4.6410
 3.6160	 4.7410
 3.6190	 4.6220
 3.6210	 4.5890
 3.6240	 4.6570
 3.6260	 4.6350
 3.6290	 4.5700
 3.6310	 4.4000
 3.6340	 4.5260
 3.6360	 4.6560
 3.6390	 4.5500
 3.6410	 4.6240
 3.6440	 4.6760
 3.6470	 4.6270
 3.6490	 4.5450
 3.6520	 4.4940
 3.6540	 4.5280
 3.6570	 4.3890
 3.6590	 4.4130
 3.6620	 4.6420
 3.6650	 4.5970
 3.6670	 4.6580
 3.6700	 4.7180
 3.6720	 4.5880
 3.6750	 4.5150
 3.6780	 4.5350
 3.6800	 4.6420
 3.6830	 4.5160
 3.6850	 4.4430
 3.6880	 4.4910
 3.6910	 4.5430
 3.6930	 4.5830
 3.6960	 4.6370
 3.6990	 4.5540
 3.7010	 4.5430
 3.7040	 4.5280
 3.7060	 4.4660
 3.7090	 4.4350
 3.7120	 4.5310
 3.7140	 4.5590
 3.7170	 4.5680
 3.7200	 4.5820
 3.7220	 4.5720
 3.7250	 4.6540
 3.7280	 4.7050
 3.7300	 4.4810
 3.7330	 4.3110
 3.7360	 4.4160
 3.7390	 4.6840
 3.7410	 4.6540
 3.7440	 4.6030
 3.7470	 4.6320
 3.7490	 4.7310
 3.7520	 4.8070
 3.7550	 4.7420
 3.7580	 4.5390
 3.7600	 4.4340
 3.7630	 4.4520
 3.7660	 4.4830
 3.7680	 4.4740
 3.7710	 4.5110
 3.7740	 4.5810
 3.7770	 4.6900
 3.7790	 4.6690
 3.7820	 4.6080
 3.7850	 4.6280
 3.7880	 4.6770
 3.7900	 4.6070
 3.7930	 4.7070
 3.7960	 4.7810
 3.7990	 4.7080
 3.8020	 4.6460
 3.8040	 4.6650
 3.8070	 4.6610
 3.8100	 4.7230
 3.8130	 4.6600
 3.8160	 4.5980
 3.8180	 4.5600
 3.8210	 4.8160
 3.8240	 4.8630
 3.8270	 4.6150
 3.8300	 4.6230
 3.8330	 4.7030
 3.8350	 4.5210
 3.8380	 4.4730
 3.8410	 4.6480
 3.8440	 4.5530
 3.8470	 4.3610
 3.8500	 4.4950
 3.8520	 4.6760
 3.8550	 4.6380
 3.8580	 4.5920
 3.8610	 4.6230
 3.8640	 4.7760
 3.8670	 4.7970
 3.8700	 4.6980
 3.8730	 4.7110
 3.8750	 4.7380
 3.8780	 4.7400
 3.8810	 4.7490
 3.8840	 4.8210
 3.8870	 4.8560
 3.8900	 4.7440
 3.8930	 4.7560
 3.8960	 4.8560
 3.8990	 4.8620
 3.9020	 4.8120
 3.9050	 4.6920
 3.9080	 4.7370
 3.9110	 4.7420
 3.9140	 4.7390
 3.9160	 4.7330
 3.9190	 4.7950
 3.9220	 4.8580
 3.9250	 4.8180
 3.9280	 4.8040
 3.9310	 4.8000
 3.9340	 4.8020
 3.9370	 4.8210
 3.9400	 4.7540
 3.9430	 4.7650
 3.9460	 4.8330
 3.9490	 4.8210
 3.9520	 4.7380
 3.9550	 4.6710
 3.9580	 4.7220
 3.9610	 4.8760
 3.9640	 4.9120
 3.9670	 4.9310
 3.9700	 4.9060
 3.9730	 4.8120
 3.9770	 4.6990
 3.9800	 4.6970
 3.9830	 4.7870
 3.9860	 4.7650
 3.9890	 4.7580
 3.9920	 4.7930
 3.9950	 4.7820
 3.9980	 4.8570
 4.0010	 4.8910
 4.0040	 4.7910
 4.0070	 4.7340
 4.0100	 4.8110
 4.0130	 4.8440
 4.0170	 4.8120
 4.0200	 4.7250
 4.0230	 4.7190
 4.0260	 4.7560
 4.0290	 4.8070
 4.0320	 4.7590
 4.0350	 4.7510
 4.0380	 4.7370
 4.0420	 4.7020
 4.0450	 4.7270
 4.0480	 4.7750
 4.0510	 4.6340
 4.0540	 4.6120
 4.0570	 4.8520
 4.0610	 4.9310
 4.0640	 4.8950
 4.0670	 4.8930
 4.0700	 4.8020
 4.0730	 4.6760
 4.0770	 4.6810
 4.0800	 4.7600
 4.0830	 4.8090
 4.0860	 4.8560
 4.0890	 4.7690
 4.0930	 4.7620
 4.0960	 4.9210
 4.0990	 4.8520
 4.1020	 4.6250
 4.1060	 4.6240
 4.1090	 4.7560
 4.1120	 4.7980
 4.1150	 4.6800
 4.1190	 4.5490
 4.1220	 4.6140
 4.1250	 4.6880
 4.1280	 4.7700
 4.1320	 4.8060
 4.1350	 4.8480
 4.1380	 4.7910
 4.1420	 4.7270
 4.1450	 4.6680
 4.1480	 4.7010
 4.1520	 4.7230
 4.1550	 4.7280
 4.1580	 4.7970
 4.1620	 4.7060
 4.1650	 4.5630
 4.1680	 4.5920
 4.1720	 4.6850
 4.1750	 4.6750
 4.1780	 4.7180
 4.1820	 4.7730
 4.1850	 4.7850
 4.1890	 4.7720
 4.1920	 4.6900
 4.1950	 4.5230
 4.1990	 4.5730
 4.2020	 4.7620
 4.2060	 4.9330
 4.2090	 5.0920
 4.2120	 5.0210
 4.2160	 4.8820
 4.2190	 5.0920
 4.2230	 5.3520
 4.2260	 5.2770
 4.2300	 4.9170
 4.2330	 5.0300
 4.2360	 5.5180
 4.2400	 5.5360
 4.2430	 5.5070
 4.2470	 5.5520
 4.2500	 5.4330
 4.2540	 5.2060
 4.2570	 5.0050
 4.2610	 4.7600
 4.2640	 4.7730
 4.2680	 5.1070
 4.2710	 5.1880
 4.2750	 5.1000
 4.2780	 4.8680
 4.2820	 4.8140
 4.2850	 4.9280
 4.2890	 4.8580
 4.2930	 5.0640
 4.2960	 5.1460
 4.3000	 5.1560
 4.3030	 5.1060
 4.3070	 5.0020
 4.3100	 4.8870
 4.3140	 4.8390
 4.3180	 4.7910
 4.3210	 4.7480
 4.3250	 4.7390
 4.3280	 4.7540
 4.3320	 4.7610
 4.3360	 4.7970
 4.3390	 4.7160
 4.3430	 4.6130
 4.3470	 4.6470
 4.3500	 4.7040
 4.3540	 4.5980
 4.3570	 4.5540
 4.3610	 4.5930
 4.3650	 4.4490
 4.3680	 4.4420
 4.3720	 4.5270
 4.3760	 4.4910
 4.3800	 4.4050
 4.3830	 4.4580
 4.3870	 4.4710
 4.3910	 4.4270
 4.3940	 4.3950
 4.3980	 4.4120
 4.4020	 4.4590
 4.4060	 4.4490
 4.4090	 4.4230
 4.4130	 4.3760
 4.4170	 4.3670
 4.4210	 4.3610
 4.4240	 4.4080
 4.4280	 4.5170
 4.4320	 4.5100
 4.4360	 4.4710
 4.4400	 4.4760
 4.4430	 4.3370
 4.4470	 4.2650
 4.4510	 4.3310
 4.4550	 4.4090
 4.4590	 4.3550
 4.4620	 4.3180
 4.4660	 4.3180
 4.4700	 4.3260
 4.4740	 4.2840
 4.4780	 4.3190
 4.4820	 4.3760
 4.4860	 4.4270
 4.4900	 4.3270
 4.4930	 4.2580
 4.4970	 4.2570
 4.5010	 4.2210
 4.5050	 4.2500
 4.5090	 4.2840
 4.5130	 4.3040
 4.5170	 4.3200
 4.5210	 4.3010
 4.5250	 4.2950
 4.5290	 4.3520
 4.5330	 4.3820
 4.5370	 4.3470
 4.5410	 4.2820
 4.5450	 4.1990
 4.5490	 4.2260
 4.5530	 4.2690
 4.5570	 4.2630
 4.5610	 4.1670
 4.5650	 4.2220
 4.5690	 4.1940
 4.5730	 4.2510
 4.5770	 4.3660
 4.5810	 4.2960
 4.5850	 4.2880
 4.5890	 4.3440
 4.5930	 4.3430
 4.5970	 4.3250
 4.6010	 4.2380
 4.6050	 4.2750
 4.6090	 4.4650
 4.6130	 4.2850
 4.6170	 4.0750
 4.6220	 4.1250
 4.6260	 4.2470
 4.6300	 4.2210
 4.6340	 4.1820
 4.6380	 4.1890
 4.6420	 4.1270
 4.6460	 4.1770
 4.6510	 4.2710
 4.6550	 4.1970
 4.6590	 4.1860
 4.6630	 4.2090
 4.6670	 4.1160
 4.6720	 4.1150
 4.6760	 4.1540
 4.6800	 4.2350
 4.6840	 4.2110
 4.6880	 4.2010
 4.6930	 4.2280
 4.6970	 4.1670
 4.7010	 4.0850
 4.7050	 4.1750
 4.7100	 4.1910
 4.7140	 4.1650
 4.7180	 4.1360
 4.7230	 4.1400
 4.7270	 4.1860
 4.7310	 4.1750
 4.7360	 4.1870
 4.7400	 4.1740
 4.7440	 4.0930
 4.7490	 4.1530
 4.7530	 4.2970
 4.7570	 4.3080
 4.7620	 4.3070
 4.7660	 4.3000
 4.7700	 4.2070
 4.7750	 4.3310
 4.7790	 4.5550
 4.7840	 4.4320
 4.7880	 4.2630
 4.7920	 4.3650
 4.7970	 4.3840
 4.8010	 4.3210
 4.8060	 4.1620
 4.8100	 4.1650
 4.8150	 4.1440
 4.8190	 4.2080
 4.8240	 4.1340
 4.8280	 4.0860
 4.8330	 4.0970
 4.8370	 4.1120
 4.8420	 4.1250
 4.8460	 4.0890
 4.8510	 4.1190
 4.8550	 4.1580
 4.8600	 4.1360
 4.8640	 4.1370
 4.8690	 4.1010
 4.8730	 4.0890
 4.8780	 4.1280
 4.8830	 4.2310
 4.8870	 4.2370
 4.8920	 4.1840
 4.8960	 4.1550
 4.9010	 4.1820
 4.9060	 4.2420
 4.9100	 4.2610
 4.9150	 4.2210
 4.9200	 4.2330
 4.9240	 4.2480
 4.9290	 4.2400
 4.9340	 4.1820
 4.9380	 4.1830
 4.9430	 4.2120
 4.9480	 4.2440
 4.9530	 4.2230
 4.9570	 4.2410
 4.9620	 4.3120
 4.9670	 4.3020
 4.9720	 4.1950
 4.9760	 4.2280
 4.9810	 4.3370
 4.9860	 4.3620
 4.9910	 4.2780
 4.9960	 4.2220
 5.0000	 4.1540
 5.0050	 4.1010
 5.0100	 4.0800
 5.0150	 4.1460
 5.0200	 4.2020
 5.0250	 4.2100
 5.0290	 4.1690
 5.0340	 4.1730
 5.0390	 4.1900
 5.0440	 4.2280
 5.0490	 4.3140
 5.0540	 4.3290
 5.0590	 4.3120
 5.0640	 4.3560
 5.0690	 4.2750
 5.0740	 4.2420
 5.0790	 4.2010
 5.0840	 4.1770
 5.0890	 4.1500
 5.0940	 4.2600
 5.0990	 4.2920
 5.1040	 4.2050
 5.1090	 4.1930
 5.1140	 4.2670
 5.1190	 4.2340
 5.1240	 4.2950
 5.1290	 4.3100
 5.1340	 4.3130
 5.1390	 4.3410
 5.1440	 4.3510
 5.1490	 4.3140
 5.1540	 4.3010
 5.1600	 4.2960
 5.1650	 4.2880
 5.1700	 4.2540
 5.1750	 4.3260
 5.1800	 4.3280
 5.1850	 4.3340
 5.1910	 4.3080
 5.1960	 4.2620
 5.2010	 4.2000
 5.2060	 4.2690
 5.2110	 4.2890
 5.2170	 4.2060
 5.2220	 4.1860
 5.2270	 4.2690
 5.2320	 4.2070
 5.2380	 4.2160
 5.2430	 4.2550
 5.2480	 4.2850
 5.2540	 4.2660
 5.2590	 4.2380
 5.2640	 4.1640
 5.2700	 4.2590
 5.2750	 4.3110
 5.2800	 4.3510
 5.2860	 4.3870
 5.2910	 4.4340
 5.2970	 4.3530
 5.3020	 4.2420
 5.3070	 4.1060
 5.3130	 4.1610
 5.3180	 4.2070
 5.3240	 4.1170
 5.3290	 4.0170
 5.3350	 4.1260
 5.3400	 4.1150
 5.3460	 4.0840
 5.3510	 4.1210
 5.3570	 4.1600
 5.3620	 4.1710
 5.3680	 4.2320
 5.3730	 4.1600
 5.3790	 4.2080
 5.3850	 4.2560
 5.3900	 4.2730
 5.3960	 4.1600
 5.4010	 4.1110
 5.4070	 4.1410
 5.4130	 4.2350
 5.4180	 4.2420
 5.4240	 4.1930
 5.4300	 4.1270
