Name: Ceanothus megacarpus 2
Type: vegetation
Class: Shrub
Genus: Ceanothus
Species: megacarpus
Sample No.: VH022
Owner: UCSB
Wavelength Range: TIR
Origin: 34.4909; -119.7914; WGS84
Collection Date: 4/1/2013
Description: Samples were collected as part of the HyspIRI Airborne Campaign. 48 individual plants were sampled in three times in 2013 - spring  summer  and fall. The name of the sample includes a 1  2  or 3 which references a different individual of the species. Samples were taken to JPL and processed within 48 hours of collection. The same leaves were processed in the Nicolet and then measured using the ASD.
Measurement: Hemispherical reflectance
First Column: X
Second Column: Y
X Units: Wavelength (micrometers)
Y Units: Reflectance (percentage)
First X Value: 2.501
Last X Value: 15.387
Number of X Values: 1737
Additional Information: vegetation.shrub.ceanothus.megacarpus.tir.vh022.ucsb.nicolet.ancillary.txt

 2.5010	 6.5160
 2.5030	 6.4880
 2.5040	 6.4310
 2.5050	 6.3920
 2.5060	 6.5570
 2.5070	 6.6370
 2.5090	 6.6080
 2.5100	 6.4110
 2.5110	 6.3970
 2.5120	 6.4370
 2.5140	 6.5160
 2.5150	 6.5050
 2.5160	 6.5470
 2.5170	 6.4890
 2.5180	 6.4110
 2.5200	 6.4330
 2.5210	 6.5480
 2.5220	 6.5200
 2.5230	 6.4740
 2.5250	 6.4160
 2.5260	 6.4010
 2.5270	 6.4050
 2.5280	 6.4130
 2.5290	 6.3970
 2.5310	 6.5560
 2.5320	 6.5680
 2.5330	 6.3920
 2.5340	 6.3270
 2.5360	 6.4690
 2.5370	 6.4940
 2.5380	 6.5050
 2.5390	 6.5460
 2.5410	 6.6170
 2.5420	 6.5710
 2.5430	 6.4880
 2.5440	 6.3880
 2.5460	 6.4250
 2.5470	 6.4280
 2.5480	 6.3990
 2.5490	 6.3780
 2.5510	 6.3800
 2.5520	 6.3430
 2.5530	 6.3440
 2.5540	 6.4620
 2.5560	 6.5230
 2.5570	 6.4260
 2.5580	 6.4610
 2.5590	 6.4520
 2.5610	 6.5330
 2.5620	 6.4940
 2.5630	 6.4690
 2.5640	 6.4690
 2.5660	 6.5130
 2.5670	 6.4270
 2.5680	 6.4880
 2.5700	 6.5800
 2.5710	 6.5510
 2.5720	 6.4550
 2.5730	 6.4720
 2.5750	 6.4200
 2.5760	 6.4240
 2.5770	 6.5750
 2.5790	 6.7200
 2.5800	 6.5450
 2.5810	 6.4790
 2.5820	 6.4460
 2.5840	 6.4900
 2.5850	 6.4820
 2.5860	 6.5760
 2.5880	 6.5540
 2.5890	 6.5770
 2.5900	 6.4630
 2.5910	 6.4070
 2.5930	 6.4530
 2.5940	 6.5400
 2.5950	 6.4750
 2.5970	 6.4170
 2.5980	 6.3760
 2.5990	 6.4190
 2.6000	 6.3870
 2.6020	 6.4650
 2.6030	 6.4810
 2.6040	 6.4840
 2.6060	 6.4110
 2.6070	 6.4440
 2.6080	 6.4030
 2.6100	 6.4790
 2.6110	 6.4590
 2.6120	 6.3820
 2.6140	 6.3500
 2.6150	 6.3970
 2.6160	 6.3570
 2.6180	 6.4160
 2.6190	 6.4720
 2.6200	 6.4790
 2.6220	 6.3840
 2.6230	 6.4230
 2.6240	 6.3590
 2.6260	 6.3450
 2.6270	 6.3370
 2.6280	 6.2610
 2.6300	 6.2740
 2.6310	 6.4000
 2.6320	 6.4420
 2.6340	 6.3840
 2.6350	 6.2910
 2.6360	 6.3640
 2.6380	 6.3800
 2.6390	 6.3750
 2.6400	 6.3880
 2.6420	 6.4000
 2.6430	 6.3210
 2.6440	 6.3150
 2.6460	 6.3580
 2.6470	 6.3640
 2.6480	 6.3140
 2.6500	 6.3760
 2.6510	 6.3420
 2.6520	 6.2860
 2.6540	 6.2460
 2.6550	 6.3010
 2.6560	 6.2440
 2.6580	 6.2680
 2.6590	 6.2860
 2.6610	 6.2850
 2.6620	 6.2080
 2.6630	 6.3190
 2.6650	 6.3180
 2.6660	 6.2280
 2.6670	 6.1520
 2.6690	 6.1070
 2.6700	 6.1400
 2.6720	 6.1990
 2.6730	 6.2220
 2.6740	 6.2830
 2.6760	 6.3220
 2.6770	 6.3610
 2.6780	 6.2620
 2.6800	 6.2850
 2.6810	 6.2930
 2.6830	 6.2740
 2.6840	 6.2170
 2.6850	 6.2400
 2.6870	 6.2120
 2.6880	 6.2460
 2.6900	 6.1670
 2.6910	 6.1640
 2.6920	 6.2450
 2.6940	 6.3230
 2.6950	 6.2380
 2.6970	 6.1940
 2.6980	 6.1540
 2.6990	 6.1670
 2.7010	 6.0950
 2.7020	 6.1220
 2.7040	 6.1470
 2.7050	 6.2650
 2.7060	 6.2470
 2.7080	 6.2790
 2.7090	 6.2970
 2.7110	 6.2740
 2.7120	 6.1970
 2.7130	 6.1660
 2.7150	 6.1150
 2.7160	 6.1560
 2.7180	 6.0990
 2.7190	 6.1250
 2.7210	 6.1420
 2.7220	 6.1100
 2.7230	 6.1550
 2.7250	 6.2580
 2.7260	 6.2550
 2.7280	 6.2580
 2.7290	 6.2590
 2.7310	 6.2430
 2.7320	 6.1050
 2.7330	 6.1730
 2.7350	 6.2290
 2.7360	 6.2390
 2.7380	 6.2310
 2.7390	 6.3010
 2.7410	 6.2180
 2.7420	 6.1050
 2.7440	 6.0720
 2.7450	 6.1540
 2.7470	 6.1440
 2.7480	 6.2430
 2.7490	 6.2160
 2.7510	 6.1120
 2.7520	 6.0200
 2.7540	 6.0860
 2.7550	 6.2080
 2.7570	 6.1720
 2.7580	 6.0260
 2.7600	 6.1800
 2.7610	 6.1410
 2.7630	 6.0780
 2.7640	 6.0730
 2.7660	 6.1780
 2.7670	 6.1750
 2.7680	 6.1170
 2.7700	 6.0760
 2.7710	 6.1630
 2.7730	 6.0620
 2.7740	 6.0910
 2.7760	 6.1530
 2.7770	 6.1750
 2.7790	 6.0150
 2.7800	 5.9790
 2.7820	 5.9180
 2.7830	 5.8870
 2.7850	 6.0580
 2.7860	 6.2500
 2.7880	 6.0870
 2.7890	 5.9970
 2.7910	 5.8490
 2.7920	 5.9130
 2.7940	 5.9890
 2.7950	 6.0500
 2.7970	 5.9990
 2.7980	 6.0280
 2.8000	 6.0580
 2.8010	 6.0800
 2.8030	 6.0270
 2.8040	 6.0660
 2.8060	 6.0260
 2.8070	 6.1040
 2.8090	 6.0350
 2.8110	 6.0040
 2.8120	 5.9260
 2.8140	 6.0180
 2.8150	 6.0910
 2.8170	 6.0780
 2.8180	 5.9620
 2.8200	 6.0180
 2.8210	 6.0730
 2.8230	 6.0640
 2.8240	 5.9130
 2.8260	 5.9040
 2.8270	 5.9570
 2.8290	 6.0650
 2.8300	 6.1240
 2.8320	 6.1750
 2.8340	 6.0270
 2.8350	 6.0190
 2.8370	 6.0890
 2.8380	 6.1540
 2.8400	 6.0020
 2.8410	 5.9680
 2.8430	 6.0090
 2.8440	 6.1770
 2.8460	 6.2240
 2.8480	 6.2370
 2.8490	 6.1760
 2.8510	 6.1770
 2.8520	 6.1310
 2.8540	 6.1530
 2.8550	 6.1390
 2.8570	 6.1930
 2.8590	 6.0440
 2.8600	 5.9960
 2.8620	 6.0850
 2.8630	 6.1880
 2.8650	 6.1310
 2.8660	 6.0900
 2.8680	 6.0610
 2.8700	 6.1110
 2.8710	 6.0900
 2.8730	 6.0250
 2.8740	 5.8710
 2.8760	 5.9280
 2.8780	 6.0960
 2.8790	 6.1910
 2.8810	 6.0130
 2.8820	 6.0050
 2.8840	 6.0400
 2.8860	 5.9510
 2.8870	 5.8320
 2.8890	 5.9600
 2.8900	 6.1070
 2.8920	 6.1630
 2.8940	 6.1190
 2.8950	 6.0950
 2.8970	 6.1400
 2.8980	 6.2480
 2.9000	 6.1770
 2.9020	 6.0100
 2.9030	 5.9760
 2.9050	 5.9490
 2.9070	 5.8120
 2.9080	 5.7080
 2.9100	 5.8510
 2.9120	 6.1380
 2.9130	 6.0860
 2.9150	 5.9740
 2.9160	 6.0560
 2.9180	 6.2210
 2.9200	 6.1910
 2.9210	 6.2040
 2.9230	 6.1060
 2.9250	 6.1490
 2.9260	 6.0600
 2.9280	 6.1400
 2.9300	 6.1740
 2.9310	 6.1270
 2.9330	 6.0590
 2.9350	 6.0420
 2.9360	 5.9130
 2.9380	 5.9500
 2.9400	 5.9830
 2.9410	 6.0390
 2.9430	 5.9300
 2.9450	 5.9780
 2.9460	 5.9490
 2.9480	 5.9510
 2.9500	 5.8620
 2.9510	 5.8810
 2.9530	 5.8230
 2.9550	 5.9110
 2.9560	 6.0620
 2.9580	 6.2250
 2.9600	 6.0490
 2.9610	 5.8900
 2.9630	 5.8830
 2.9650	 6.3110
 2.9660	 6.7070
 2.9680	 6.2250
 2.9700	 5.8090
 2.9720	 6.1600
 2.9730	 6.0570
 2.9750	 6.0440
 2.9770	 6.1760
 2.9780	 6.4320
 2.9800	 6.3280
 2.9820	 6.2170
 2.9840	 6.0520
 2.9850	 5.9230
 2.9870	 5.9960
 2.9890	 6.5000
 2.9900	 6.7240
 2.9920	 6.6320
 2.9940	 6.9770
 2.9960	 6.7160
 2.9970	 5.2000
 2.9990	 5.5470
 3.0010	 5.9740
 3.0030	 6.1360
 3.0040	 6.4390
 3.0060	 6.2580
 3.0080	 5.9440
 3.0100	 5.9120
 3.0110	 5.8630
 3.0130	 5.6010
 3.0150	 5.8260
 3.0170	 6.5270
 3.0180	 6.2920
 3.0200	 6.1000
 3.0220	 6.1130
 3.0240	 6.0780
 3.0250	 5.9780
 3.0270	 5.8530
 3.0290	 5.9460
 3.0310	 6.2650
 3.0320	 6.7210
 3.0340	 6.7980
 3.0360	 6.5230
 3.0380	 7.2380
 3.0400	 7.0770
 3.0410	 6.4750
 3.0430	 6.1710
 3.0450	 5.8930
 3.0470	 5.9340
 3.0480	 5.9360
 3.0500	 5.8760
 3.0520	 6.2810
 3.0540	 6.3730
 3.0560	 6.0050
 3.0570	 5.5160
 3.0590	 5.3400
 3.0610	 5.9080
 3.0630	 5.9110
 3.0650	 5.8070
 3.0660	 5.9560
 3.0680	 5.7800
 3.0700	 5.8030
 3.0720	 6.0350
 3.0740	 6.0860
 3.0760	 5.8370
 3.0770	 5.9670
 3.0790	 5.9910
 3.0810	 5.8840
 3.0830	 5.8120
 3.0850	 5.7690
 3.0870	 5.9030
 3.0880	 5.9810
 3.0900	 5.9430
 3.0920	 6.0150
 3.0940	 5.9930
 3.0960	 5.9640
 3.0980	 5.9140
 3.0990	 5.8770
 3.1010	 5.7410
 3.1030	 5.9710
 3.1050	 6.1190
 3.1070	 6.0560
 3.1090	 6.0060
 3.1110	 5.7730
 3.1120	 5.7480
 3.1140	 5.9460
 3.1160	 6.1640
 3.1180	 6.1450
 3.1200	 5.9420
 3.1220	 5.9740
 3.1240	 5.8960
 3.1260	 5.9020
 3.1270	 5.9160
 3.1290	 6.0060
 3.1310	 6.1510
 3.1330	 6.1310
 3.1350	 5.9600
 3.1370	 5.9980
 3.1390	 5.9600
 3.1410	 6.1590
 3.1430	 6.5540
 3.1450	 6.7670
 3.1460	 6.8420
 3.1480	 6.4420
 3.1500	 5.9110
 3.1520	 5.8000
 3.1540	 5.6270
 3.1560	 5.3520
 3.1580	 5.5910
 3.1600	 6.2640
 3.1620	 6.9760
 3.1640	 6.7270
 3.1660	 6.0890
 3.1680	 5.7310
 3.1700	 5.9810
 3.1710	 6.1830
 3.1730	 5.6290
 3.1750	 5.4350
 3.1770	 5.8220
 3.1790	 5.6920
 3.1810	 6.0160
 3.1830	 6.1170
 3.1850	 6.2440
 3.1870	 6.4550
 3.1890	 6.2300
 3.1910	 6.2520
 3.1930	 6.1760
 3.1950	 6.3180
 3.1970	 6.2470
 3.1990	 6.1310
 3.2010	 6.1170
 3.2030	 6.0220
 3.2050	 5.9980
 3.2070	 6.1230
 3.2090	 6.0980
 3.2110	 6.0190
 3.2130	 5.8860
 3.2150	 5.9740
 3.2170	 5.9840
 3.2190	 5.9750
 3.2210	 5.9790
 3.2230	 5.9710
 3.2250	 5.9820
 3.2270	 6.0090
 3.2290	 5.9190
 3.2310	 5.9330
 3.2330	 5.9130
 3.2350	 5.8800
 3.2370	 5.8650
 3.2390	 5.9290
 3.2410	 5.8550
 3.2430	 5.8020
 3.2450	 5.7980
 3.2470	 5.8220
 3.2490	 5.8250
 3.2510	 5.8390
 3.2530	 5.7960
 3.2550	 5.8860
 3.2570	 5.8470
 3.2590	 5.8970
 3.2610	 5.8820
 3.2630	 5.9220
 3.2650	 5.8980
 3.2670	 5.9680
 3.2690	 5.9490
 3.2720	 5.8900
 3.2740	 5.8470
 3.2760	 5.8650
 3.2780	 5.8370
 3.2800	 5.8160
 3.2820	 5.8110
 3.2840	 5.8790
 3.2860	 5.8120
 3.2880	 5.7970
 3.2900	 5.7850
 3.2920	 5.7900
 3.2940	 5.8540
 3.2960	 5.9180
 3.2990	 5.7660
 3.3010	 5.7520
 3.3030	 5.7780
 3.3050	 5.8510
 3.3070	 5.8420
 3.3090	 5.8260
 3.3110	 5.7890
 3.3130	 5.8030
 3.3150	 5.7560
 3.3180	 5.7810
 3.3200	 5.8810
 3.3220	 5.8290
 3.3240	 5.7070
 3.3260	 5.6230
 3.3280	 5.5780
 3.3300	 5.6510
 3.3330	 5.6590
 3.3350	 5.7440
 3.3370	 5.6960
 3.3390	 5.7010
 3.3410	 5.6990
 3.3430	 5.7050
 3.3450	 5.6890
 3.3480	 5.7090
 3.3500	 5.7120
 3.3520	 5.7150
 3.3540	 5.5950
 3.3560	 5.5860
 3.3580	 5.5900
 3.3610	 5.5190
 3.3630	 5.4700
 3.3650	 5.4950
 3.3670	 5.5480
 3.3690	 5.6750
 3.3720	 5.6020
 3.3740	 5.5680
 3.3760	 5.5710
 3.3780	 5.5990
 3.3800	 5.6340
 3.3830	 5.6890
 3.3850	 5.5760
 3.3870	 5.6330
 3.3890	 5.6310
 3.3910	 5.4760
 3.3940	 5.3540
 3.3960	 5.3960
 3.3980	 5.4970
 3.4000	 5.6350
 3.4020	 5.6840
 3.4050	 5.7160
 3.4070	 5.7950
 3.4090	 5.9640
 3.4110	 6.0920
 3.4140	 6.2760
 3.4160	 6.4620
 3.4180	 6.8310
 3.4200	 7.4190
 3.4230	 8.1410
 3.4250	 8.8300
 3.4270	 9.5450
 3.4290	 9.8320
 3.4320	 9.4750
 3.4340	 8.7100
 3.4360	 8.0550
 3.4390	 7.6040
 3.4410	 7.3790
 3.4430	 7.1420
 3.4450	 6.9840
 3.4480	 6.9800
 3.4500	 6.9800
 3.4520	 6.7780
 3.4550	 6.6750
 3.4570	 6.7350
 3.4590	 6.6940
 3.4620	 6.6820
 3.4640	 6.7410
 3.4660	 6.6260
 3.4680	 6.5320
 3.4710	 6.4330
 3.4730	 6.4570
 3.4750	 6.4580
 3.4780	 6.3650
 3.4800	 6.2560
 3.4820	 6.2950
 3.4850	 6.2440
 3.4870	 6.1340
 3.4890	 6.0780
 3.4920	 6.1180
 3.4940	 6.1480
 3.4970	 6.1890
 3.4990	 6.2110
 3.5010	 6.4400
 3.5040	 6.7630
 3.5060	 7.3310
 3.5080	 8.2260
 3.5110	 9.0290
 3.5130	 8.9730
 3.5160	 8.3460
 3.5180	 7.7250
 3.5200	 7.4070
 3.5230	 7.1940
 3.5250	 7.0470
 3.5270	 6.9380
 3.5300	 6.8260
 3.5320	 6.6750
 3.5350	 6.6630
 3.5370	 6.6590
 3.5400	 6.6550
 3.5420	 6.6220
 3.5440	 6.6320
 3.5470	 6.6060
 3.5490	 6.6000
 3.5520	 6.5690
 3.5540	 6.6100
 3.5570	 6.5530
 3.5590	 6.5560
 3.5610	 6.5340
 3.5640	 6.5870
 3.5660	 6.5440
 3.5690	 6.5100
 3.5710	 6.5630
 3.5740	 6.4230
 3.5760	 6.2680
 3.5790	 6.4290
 3.5810	 6.5200
 3.5840	 6.4190
 3.5860	 6.4030
 3.5890	 6.5040
 3.5910	 6.5040
 3.5930	 6.4960
 3.5960	 6.4230
 3.5980	 6.3180
 3.6010	 6.2830
 3.6030	 6.3250
 3.6060	 6.3270
 3.6080	 6.3990
 3.6110	 6.4090
 3.6140	 6.3800
 3.6160	 6.3590
 3.6190	 6.4170
 3.6210	 6.3900
 3.6240	 6.3610
 3.6260	 6.3230
 3.6290	 6.3110
 3.6310	 6.3780
 3.6340	 6.4640
 3.6360	 6.3540
 3.6390	 6.3110
 3.6410	 6.3270
 3.6440	 6.3790
 3.6470	 6.3830
 3.6490	 6.3770
 3.6520	 6.3060
 3.6540	 6.2780
 3.6570	 6.2890
 3.6590	 6.3440
 3.6620	 6.3070
 3.6650	 6.3080
 3.6670	 6.3000
 3.6700	 6.3770
 3.6720	 6.3610
 3.6750	 6.2710
 3.6780	 6.2530
 3.6800	 6.3550
 3.6830	 6.3180
 3.6850	 6.3150
 3.6880	 6.2820
 3.6910	 6.2940
 3.6930	 6.2790
 3.6960	 6.2800
 3.6990	 6.2510
 3.7010	 6.2970
 3.7040	 6.3110
 3.7060	 6.2910
 3.7090	 6.2600
 3.7120	 6.2930
 3.7140	 6.2860
 3.7170	 6.2570
 3.7200	 6.2250
 3.7220	 6.2380
 3.7250	 6.2480
 3.7280	 6.2390
 3.7300	 6.2140
 3.7330	 6.3060
 3.7360	 6.3400
 3.7390	 6.3120
 3.7410	 6.2950
 3.7440	 6.3010
 3.7470	 6.2680
 3.7490	 6.2590
 3.7520	 6.2440
 3.7550	 6.2610
 3.7580	 6.2330
 3.7600	 6.2790
 3.7630	 6.3210
 3.7660	 6.3160
 3.7680	 6.2890
 3.7710	 6.2970
 3.7740	 6.2530
 3.7770	 6.2840
 3.7790	 6.2620
 3.7820	 6.2690
 3.7850	 6.2770
 3.7880	 6.2910
 3.7900	 6.2550
 3.7930	 6.2580
 3.7960	 6.2430
 3.7990	 6.2640
 3.8020	 6.2920
 3.8040	 6.3100
 3.8070	 6.2760
 3.8100	 6.3150
 3.8130	 6.3120
 3.8160	 6.3010
 3.8180	 6.3640
 3.8210	 6.3700
 3.8240	 6.2870
 3.8270	 6.2790
 3.8300	 6.2740
 3.8330	 6.3440
 3.8350	 6.3570
 3.8380	 6.3560
 3.8410	 6.3630
 3.8440	 6.3340
 3.8470	 6.2310
 3.8500	 6.2810
 3.8520	 6.2770
 3.8550	 6.2380
 3.8580	 6.2540
 3.8610	 6.3070
 3.8640	 6.3300
 3.8670	 6.3090
 3.8700	 6.2690
 3.8730	 6.3270
 3.8750	 6.3250
 3.8780	 6.3050
 3.8810	 6.2710
 3.8840	 6.2610
 3.8870	 6.2530
 3.8900	 6.3070
 3.8930	 6.2710
 3.8960	 6.2520
 3.8990	 6.2950
 3.9020	 6.2790
 3.9050	 6.2320
 3.9080	 6.2670
 3.9110	 6.2520
 3.9140	 6.2050
 3.9160	 6.2210
 3.9190	 6.2720
 3.9220	 6.3270
 3.9250	 6.3750
 3.9280	 6.3540
 3.9310	 6.3580
 3.9340	 6.3310
 3.9370	 6.2890
 3.9400	 6.2520
 3.9430	 6.2620
 3.9460	 6.3140
 3.9490	 6.3250
 3.9520	 6.3010
 3.9550	 6.2900
 3.9580	 6.2840
 3.9610	 6.2890
 3.9640	 6.3000
 3.9670	 6.3410
 3.9700	 6.3230
 3.9730	 6.3610
 3.9770	 6.3750
 3.9800	 6.3490
 3.9830	 6.3220
 3.9860	 6.3460
 3.9890	 6.3110
 3.9920	 6.3390
 3.9950	 6.3530
 3.9980	 6.3370
 4.0010	 6.3370
 4.0040	 6.3800
 4.0070	 6.3830
 4.0100	 6.4030
 4.0130	 6.3220
 4.0170	 6.2640
 4.0200	 6.2760
 4.0230	 6.2850
 4.0260	 6.2670
 4.0290	 6.2860
 4.0320	 6.2930
 4.0350	 6.2790
 4.0380	 6.2620
 4.0420	 6.3110
 4.0450	 6.3520
 4.0480	 6.3530
 4.0510	 6.3000
 4.0540	 6.3490
 4.0570	 6.3700
 4.0610	 6.3850
 4.0640	 6.4450
 4.0670	 6.3880
 4.0700	 6.2950
 4.0730	 6.3170
 4.0770	 6.3340
 4.0800	 6.3440
 4.0830	 6.3770
 4.0860	 6.3940
 4.0890	 6.3010
 4.0930	 6.2920
 4.0960	 6.3350
 4.0990	 6.3570
 4.1020	 6.3580
 4.1060	 6.4320
 4.1090	 6.4440
 4.1120	 6.3500
 4.1150	 6.2750
 4.1190	 6.2850
 4.1220	 6.2700
 4.1250	 6.2790
 4.1280	 6.2930
 4.1320	 6.3160
 4.1350	 6.3470
 4.1380	 6.3550
 4.1420	 6.3020
 4.1450	 6.2880
 4.1480	 6.2670
 4.1520	 6.2890
 4.1550	 6.3080
 4.1580	 6.3830
 4.1620	 6.3690
 4.1650	 6.3220
 4.1680	 6.3350
 4.1720	 6.3660
 4.1750	 6.3290
 4.1780	 6.3120
 4.1820	 6.3250
 4.1850	 6.3420
 4.1890	 6.3780
 4.1920	 6.3760
 4.1950	 6.3770
 4.1990	 6.3920
 4.2020	 6.2910
 4.2060	 6.2180
 4.2090	 6.1640
 4.2120	 6.1170
 4.2160	 6.0670
 4.2190	 6.0610
 4.2230	 5.9150
 4.2260	 5.7780
 4.2300	 5.7630
 4.2330	 5.8600
 4.2360	 5.8700
 4.2400	 5.8170
 4.2430	 5.9440
 4.2470	 6.1240
 4.2500	 6.0150
 4.2540	 5.9740
 4.2570	 6.0680
 4.2610	 6.0750
 4.2640	 5.9940
 4.2680	 6.0220
 4.2710	 5.9480
 4.2750	 5.8520
 4.2780	 5.8930
 4.2820	 5.9510
 4.2850	 5.8140
 4.2890	 5.8220
 4.2930	 5.8990
 4.2960	 5.9870
 4.3000	 6.0520
 4.3030	 6.0730
 4.3070	 6.0130
 4.3100	 6.0080
 4.3140	 6.1300
 4.3180	 6.0800
 4.3210	 6.0080
 4.3250	 6.0690
 4.3280	 6.1030
 4.3320	 6.1830
 4.3360	 6.2600
 4.3390	 6.2400
 4.3430	 6.2090
 4.3470	 6.2840
 4.3500	 6.2790
 4.3540	 6.2860
 4.3570	 6.3700
 4.3610	 6.3560
 4.3650	 6.3050
 4.3680	 6.2780
 4.3720	 6.2850
 4.3760	 6.3050
 4.3800	 6.3360
 4.3830	 6.3420
 4.3870	 6.3200
 4.3910	 6.3390
 4.3940	 6.3220
 4.3980	 6.3020
 4.4020	 6.2800
 4.4060	 6.2860
 4.4090	 6.3180
 4.4130	 6.2920
 4.4170	 6.2930
 4.4210	 6.3260
 4.4240	 6.3460
 4.4280	 6.3330
 4.4320	 6.2850
 4.4360	 6.3150
 4.4400	 6.3760
 4.4430	 6.3650
 4.4470	 6.3070
 4.4510	 6.2990
 4.4550	 6.3330
 4.4590	 6.3650
 4.4620	 6.3770
 4.4660	 6.3450
 4.4700	 6.3440
 4.4740	 6.3700
 4.4780	 6.3940
 4.4820	 6.4050
 4.4860	 6.3360
 4.4900	 6.2520
 4.4930	 6.2430
 4.4970	 6.2720
 4.5010	 6.2770
 4.5050	 6.3150
 4.5090	 6.3760
 4.5130	 6.4160
 4.5170	 6.3710
 4.5210	 6.3330
 4.5250	 6.3020
 4.5290	 6.3090
 4.5330	 6.3300
 4.5370	 6.3750
 4.5410	 6.3660
 4.5450	 6.2960
 4.5490	 6.2520
 4.5530	 6.3180
 4.5570	 6.4030
 4.5610	 6.4010
 4.5650	 6.3610
 4.5690	 6.2520
 4.5730	 6.2510
 4.5770	 6.2750
 4.5810	 6.2500
 4.5850	 6.2230
 4.5890	 6.2620
 4.5930	 6.3830
 4.5970	 6.4470
 4.6010	 6.3620
 4.6050	 6.3320
 4.6090	 6.2820
 4.6130	 6.2050
 4.6170	 6.2940
 4.6220	 6.3200
 4.6260	 6.2220
 4.6300	 6.1980
 4.6340	 6.2470
 4.6380	 6.2450
 4.6420	 6.2430
 4.6460	 6.2610
 4.6510	 6.2510
 4.6550	 6.2530
 4.6590	 6.2320
 4.6630	 6.2450
 4.6670	 6.3180
 4.6720	 6.3660
 4.6760	 6.3250
 4.6800	 6.2890
 4.6840	 6.2370
 4.6880	 6.2570
 4.6930	 6.2820
 4.6970	 6.2690
 4.7010	 6.3200
 4.7050	 6.3280
 4.7100	 6.2500
 4.7140	 6.2110
 4.7180	 6.2590
 4.7230	 6.3600
 4.7270	 6.3630
 4.7310	 6.3100
 4.7360	 6.2800
 4.7400	 6.3050
 4.7440	 6.3230
 4.7490	 6.3020
 4.7530	 6.3120
 4.7570	 6.3230
 4.7620	 6.2870
 4.7660	 6.2680
 4.7700	 6.2550
 4.7750	 6.2190
 4.7790	 6.1970
 4.7840	 6.2230
 4.7880	 6.3060
 4.7920	 6.3500
 4.7970	 6.3130
 4.8010	 6.2870
 4.8060	 6.2540
 4.8100	 6.3230
 4.8150	 6.3710
 4.8190	 6.3970
 4.8240	 6.3730
 4.8280	 6.3520
 4.8330	 6.3380
 4.8370	 6.3330
 4.8420	 6.3510
 4.8460	 6.3310
 4.8510	 6.3110
 4.8550	 6.2900
 4.8600	 6.2450
 4.8640	 6.3130
 4.8690	 6.3340
 4.8730	 6.3530
 4.8780	 6.3520
 4.8830	 6.3410
 4.8870	 6.3170
 4.8920	 6.3190
 4.8960	 6.3460
 4.9010	 6.3640
 4.9060	 6.3680
 4.9100	 6.3430
 4.9150	 6.3210
 4.9200	 6.3210
 4.9240	 6.3220
 4.9290	 6.3210
 4.9340	 6.3410
 4.9380	 6.3590
 4.9430	 6.3350
 4.9480	 6.3890
 4.9530	 6.3800
 4.9570	 6.3310
 4.9620	 6.3370
 4.9670	 6.3650
 4.9720	 6.3350
 4.9760	 6.3590
 4.9810	 6.3670
 4.9860	 6.3560
 4.9910	 6.3460
 4.9960	 6.3680
 5.0000	 6.3420
 5.0050	 6.3030
 5.0100	 6.3350
 5.0150	 6.3960
 5.0200	 6.3980
 5.0250	 6.3560
 5.0290	 6.2550
 5.0340	 6.2680
 5.0390	 6.3550
 5.0440	 6.4150
 5.0490	 6.3970
 5.0540	 6.3700
 5.0590	 6.3550
 5.0640	 6.4150
 5.0690	 6.3830
 5.0740	 6.3610
 5.0790	 6.3720
 5.0840	 6.3950
 5.0890	 6.4100
 5.0940	 6.3610
 5.0990	 6.3310
 5.1040	 6.4020
 5.1090	 6.3950
 5.1140	 6.3510
 5.1190	 6.3280
 5.1240	 6.3600
 5.1290	 6.3240
 5.1340	 6.3520
 5.1390	 6.3860
 5.1440	 6.3840
 5.1490	 6.3410
 5.1540	 6.3940
 5.1600	 6.4500
 5.1650	 6.4440
 5.1700	 6.3920
 5.1750	 6.3940
 5.1800	 6.3630
 5.1850	 6.3430
 5.1910	 6.3540
 5.1960	 6.3950
 5.2010	 6.3470
 5.2060	 6.3220
 5.2110	 6.3390
 5.2170	 6.3980
 5.2220	 6.4070
 5.2270	 6.3670
 5.2320	 6.3520
 5.2380	 6.4040
 5.2430	 6.3950
 5.2480	 6.3540
 5.2540	 6.3220
 5.2590	 6.3370
 5.2640	 6.2980
 5.2700	 6.2990
 5.2750	 6.3040
 5.2800	 6.3470
 5.2860	 6.2970
 5.2910	 6.2750
 5.2970	 6.2370
 5.3020	 6.3010
 5.3070	 6.3450
 5.3130	 6.3380
 5.3180	 6.2920
 5.3240	 6.2940
 5.3290	 6.2850
 5.3350	 6.3430
 5.3400	 6.3400
 5.3460	 6.3260
 5.3510	 6.2890
 5.3570	 6.3070
 5.3620	 6.2590
 5.3680	 6.2730
 5.3730	 6.3330
 5.3790	 6.3380
 5.3850	 6.3180
 5.3900	 6.3010
 5.3960	 6.2720
 5.4010	 6.3260
 5.4070	 6.3230
 5.4130	 6.3310
 5.4180	 6.3110
 5.4240	 6.2970
 5.4300	 6.2630
 5.4350	 6.2940
