Name: Pyllostachys vivax
Type: vegetation
Class: Tree
Genus: Pyllostachys
Species: vivax
Sample No.: JPL190
Owner: JPL
Wavelength Range: VSWIR
Origin: 34.12505; -118.11546; WGS84
Collection Date: 10/3/2016
Description: Samples were collected at the Huntington Garden in San Marino California as part of a JPL Subcontract studying HyTES imagery. Samples were taken to JPL and processed within 48 hours of collection. The same leaves were processed in the Nicolet and then measured using the ASD.
Measurement: Bidirectional reflectance
First Column: X
Second Column: Y
X Units: Wavelength (micrometer)
Y Units: Reflectance (percentage)
First X Value: 0.35
Last X Value: 2.5
Number of X Values: 2151
Additional Information: vegetation.tree.pyllostachys.vivax.vswir.jpl190.jpl.asd.ancillary.txt

 0.3500	 9.4140
 0.3510	 9.4280
 0.3520	 9.3750
 0.3530	 9.3060
 0.3540	 9.2690
 0.3550	 9.2730
 0.3560	 9.2630
 0.3570	 9.2090
 0.3580	 9.1120
 0.3590	 9.0370
 0.3600	 9.0450
 0.3610	 9.1100
 0.3620	 9.1010
 0.3630	 9.0900
 0.3640	 9.0990
 0.3650	 9.1200
 0.3660	 9.0780
 0.3670	 9.0360
 0.3680	 9.0010
 0.3690	 8.9470
 0.3700	 8.9420
 0.3710	 8.9600
 0.3720	 8.9840
 0.3730	 9.0540
 0.3740	 9.0030
 0.3750	 8.9320
 0.3760	 8.9750
 0.3770	 8.9670
 0.3780	 8.9510
 0.3790	 8.9460
 0.3800	 8.9420
 0.3810	 8.9230
 0.3820	 8.8900
 0.3830	 8.8640
 0.3840	 8.9080
 0.3850	 8.9190
 0.3860	 8.9000
 0.3870	 8.8900
 0.3880	 8.8810
 0.3890	 8.8700
 0.3900	 8.8650
 0.3910	 8.8880
 0.3920	 8.8640
 0.3930	 8.8400
 0.3940	 8.8530
 0.3950	 8.8300
 0.3960	 8.8190
 0.3970	 8.8140
 0.3980	 8.7890
 0.3990	 8.7790
 0.4000	 8.7650
 0.4010	 8.7540
 0.4020	 8.7840
 0.4030	 8.7900
 0.4040	 8.7790
 0.4050	 8.7750
 0.4060	 8.7960
 0.4070	 8.7980
 0.4080	 8.7880
 0.4090	 8.7960
 0.4100	 8.8120
 0.4110	 8.8270
 0.4120	 8.8400
 0.4130	 8.8640
 0.4140	 8.8650
 0.4150	 8.8570
 0.4160	 8.8670
 0.4170	 8.8780
 0.4180	 8.8810
 0.4190	 8.8810
 0.4200	 8.8920
 0.4210	 8.9000
 0.4220	 8.9100
 0.4230	 8.9230
 0.4240	 8.9310
 0.4250	 8.9340
 0.4260	 8.9350
 0.4270	 8.9360
 0.4280	 8.9320
 0.4290	 8.9230
 0.4300	 8.9140
 0.4310	 8.9090
 0.4320	 8.8890
 0.4330	 8.8650
 0.4340	 8.8500
 0.4350	 8.8500
 0.4360	 8.8460
 0.4370	 8.8430
 0.4380	 8.8670
 0.4390	 8.9010
 0.4400	 8.9320
 0.4410	 8.9560
 0.4420	 8.9890
 0.4430	 9.0060
 0.4440	 9.0080
 0.4450	 9.0100
 0.4460	 9.0140
 0.4470	 9.0230
 0.4480	 9.0360
 0.4490	 9.0480
 0.4500	 9.0530
 0.4510	 9.0540
 0.4520	 9.0570
 0.4530	 9.0700
 0.4540	 9.0800
 0.4550	 9.0840
 0.4560	 9.0880
 0.4570	 9.0910
 0.4580	 9.0970
 0.4590	 9.1040
 0.4600	 9.1020
 0.4610	 9.1090
 0.4620	 9.1170
 0.4630	 9.1140
 0.4640	 9.1190
 0.4650	 9.1200
 0.4660	 9.1190
 0.4670	 9.1260
 0.4680	 9.1280
 0.4690	 9.1270
 0.4700	 9.1300
 0.4710	 9.1350
 0.4720	 9.1390
 0.4730	 9.1400
 0.4740	 9.1380
 0.4750	 9.1350
 0.4760	 9.1310
 0.4770	 9.1280
 0.4780	 9.1390
 0.4790	 9.1420
 0.4800	 9.1390
 0.4810	 9.1410
 0.4820	 9.1390
 0.4830	 9.1310
 0.4840	 9.1170
 0.4850	 9.1030
 0.4860	 9.0990
 0.4870	 9.0990
 0.4880	 9.0960
 0.4890	 9.1010
 0.4900	 9.1170
 0.4910	 9.1370
 0.4920	 9.1520
 0.4930	 9.1650
 0.4940	 9.1840
 0.4950	 9.2080
 0.4960	 9.2290
 0.4970	 9.2570
 0.4980	 9.2860
 0.4990	 9.3100
 0.5000	 9.3360
 0.5010	 9.3690
 0.5020	 9.4100
 0.5030	 9.4570
 0.5040	 9.4990
 0.5050	 9.5460
 0.5060	 9.6030
 0.5070	 9.6610
 0.5080	 9.7300
 0.5090	 9.8070
 0.5100	 9.8880
 0.5110	 9.9780
 0.5120	10.0820
 0.5130	10.2010
 0.5140	10.3200
 0.5150	10.4560
 0.5160	10.6060
 0.5170	10.7640
 0.5180	10.9340
 0.5190	11.1150
 0.5200	11.3030
 0.5210	11.4930
 0.5220	11.6900
 0.5230	11.8890
 0.5240	12.0860
 0.5250	12.2830
 0.5260	12.4720
 0.5270	12.6500
 0.5280	12.8190
 0.5290	12.9830
 0.5300	13.1340
 0.5310	13.2710
 0.5320	13.3960
 0.5330	13.5120
 0.5340	13.6140
 0.5350	13.7010
 0.5360	13.7810
 0.5370	13.8510
 0.5380	13.9060
 0.5390	13.9390
 0.5400	13.9530
 0.5410	13.9470
 0.5420	13.9300
 0.5430	13.9270
 0.5440	13.9520
 0.5450	14.0050
 0.5460	14.0780
 0.5470	14.1580
 0.5480	14.2300
 0.5490	14.2840
 0.5500	14.3160
 0.5510	14.3380
 0.5520	14.3520
 0.5530	14.3550
 0.5540	14.3520
 0.5550	14.3340
 0.5560	14.2990
 0.5570	14.2480
 0.5580	14.1830
 0.5590	14.1020
 0.5600	14.0080
 0.5610	13.9030
 0.5620	13.7920
 0.5630	13.6750
 0.5640	13.5510
 0.5650	13.4250
 0.5660	13.2950
 0.5670	13.1620
 0.5680	13.0250
 0.5690	12.8890
 0.5700	12.7550
 0.5710	12.6210
 0.5720	12.4930
 0.5730	12.3710
 0.5740	12.2570
 0.5750	12.1510
 0.5760	12.0480
 0.5770	11.9520
 0.5780	11.8670
 0.5790	11.7850
 0.5800	11.7050
 0.5810	11.6300
 0.5820	11.5660
 0.5830	11.5040
 0.5840	11.4470
 0.5850	11.3980
 0.5860	11.3550
 0.5870	11.3080
 0.5880	11.2620
 0.5890	11.2250
 0.5900	11.1890
 0.5910	11.1540
 0.5920	11.1210
 0.5930	11.0940
 0.5940	11.0760
 0.5950	11.0650
 0.5960	11.0560
 0.5970	11.0430
 0.5980	11.0240
 0.5990	11.0030
 0.6000	10.9830
 0.6010	10.9640
 0.6020	10.9430
 0.6030	10.9170
 0.6040	10.8810
 0.6050	10.8410
 0.6060	10.7970
 0.6070	10.7490
 0.6080	10.6970
 0.6090	10.6180
 0.6100	10.5060
 0.6110	10.3760
 0.6120	10.3250
 0.6130	10.3220
 0.6140	10.3250
 0.6150	10.2990
 0.6160	10.2660
 0.6170	10.2330
 0.6180	10.1980
 0.6190	10.1600
 0.6200	10.1230
 0.6210	10.0930
 0.6220	10.0700
 0.6230	10.0530
 0.6240	10.0390
 0.6250	10.0270
 0.6260	10.0170
 0.6270	10.0070
 0.6280	 9.9980
 0.6290	 9.9880
 0.6300	 9.9730
 0.6310	 9.9620
 0.6320	 9.9600
 0.6330	 9.9610
 0.6340	 9.9520
 0.6350	 9.9330
 0.6360	 9.9100
 0.6370	 9.8810
 0.6380	 9.8490
 0.6390	 9.8150
 0.6400	 9.7780
 0.6410	 9.7390
 0.6420	 9.7000
 0.6430	 9.6610
 0.6440	 9.6190
 0.6450	 9.5820
 0.6460	 9.5470
 0.6470	 9.5130
 0.6480	 9.4820
 0.6490	 9.4550
 0.6500	 9.4320
 0.6510	 9.4150
 0.6520	 9.4030
 0.6530	 9.3930
 0.6540	 9.3850
 0.6550	 9.3750
 0.6560	 9.3610
 0.6570	 9.3430
 0.6580	 9.3260
 0.6590	 9.3100
 0.6600	 9.2950
 0.6610	 9.2800
 0.6620	 9.2630
 0.6630	 9.2470
 0.6640	 9.2340
 0.6650	 9.2270
 0.6660	 9.2210
 0.6670	 9.2170
 0.6680	 9.2170
 0.6690	 9.2220
 0.6700	 9.2270
 0.6710	 9.2360
 0.6720	 9.2500
 0.6730	 9.2620
 0.6740	 9.2790
 0.6750	 9.2980
 0.6760	 9.3180
 0.6770	 9.3390
 0.6780	 9.3620
 0.6790	 9.3880
 0.6800	 9.4170
 0.6810	 9.4500
 0.6820	 9.4830
 0.6830	 9.5160
 0.6840	 9.5560
 0.6850	 9.5990
 0.6860	 9.6450
 0.6870	 9.7000
 0.6880	 9.7670
 0.6890	 9.8510
 0.6900	 9.9580
 0.6910	10.0900
 0.6920	10.2610
 0.6930	10.4730
 0.6940	10.7300
 0.6950	11.0450
 0.6960	11.4170
 0.6970	11.8460
 0.6980	12.3310
 0.6990	12.8730
 0.7000	13.4630
 0.7010	14.0920
 0.7020	14.7550
 0.7030	15.4420
 0.7040	16.1480
 0.7050	16.8670
 0.7060	17.5940
 0.7070	18.3260
 0.7080	19.0640
 0.7090	19.8140
 0.7100	20.5710
 0.7110	21.3320
 0.7120	22.0950
 0.7130	22.8610
 0.7140	23.6390
 0.7150	24.4230
 0.7160	25.2060
 0.7170	25.9950
 0.7180	26.7870
 0.7190	27.5790
 0.7200	28.3690
 0.7210	29.1600
 0.7220	29.9490
 0.7230	30.7330
 0.7240	31.5080
 0.7250	32.2730
 0.7260	33.0260
 0.7270	33.7660
 0.7280	34.4860
 0.7290	35.1910
 0.7300	35.8770
 0.7310	36.5370
 0.7320	37.1800
 0.7330	37.8020
 0.7340	38.4010
 0.7350	38.9710
 0.7360	39.5180
 0.7370	40.0390
 0.7380	40.5340
 0.7390	41.0070
 0.7400	41.4540
 0.7410	41.8740
 0.7420	42.2700
 0.7430	42.6420
 0.7440	42.9870
 0.7450	43.3090
 0.7460	43.6100
 0.7470	43.8860
 0.7480	44.1430
 0.7490	44.3820
 0.7500	44.6000
 0.7510	44.8020
 0.7520	44.9870
 0.7530	45.1540
 0.7540	45.3090
 0.7550	45.4520
 0.7560	45.5810
 0.7570	45.6970
 0.7580	45.8010
 0.7590	45.8950
 0.7600	45.9830
 0.7610	46.0630
 0.7620	46.1340
 0.7630	46.1980
 0.7640	46.2550
 0.7650	46.3100
 0.7660	46.3570
 0.7670	46.3970
 0.7680	46.4360
 0.7690	46.4710
 0.7700	46.5010
 0.7710	46.5270
 0.7720	46.5530
 0.7730	46.5760
 0.7740	46.5970
 0.7750	46.6180
 0.7760	46.6340
 0.7770	46.6480
 0.7780	46.6610
 0.7790	46.6750
 0.7800	46.6870
 0.7810	46.6980
 0.7820	46.7060
 0.7830	46.7140
 0.7840	46.7200
 0.7850	46.7250
 0.7860	46.7290
 0.7870	46.7310
 0.7880	46.7350
 0.7890	46.7370
 0.7900	46.7350
 0.7910	46.7320
 0.7920	46.7310
 0.7930	46.7310
 0.7940	46.7280
 0.7950	46.7220
 0.7960	46.7150
 0.7970	46.7070
 0.7980	46.7000
 0.7990	46.6920
 0.8000	46.6820
 0.8010	46.6720
 0.8020	46.6620
 0.8030	46.6530
 0.8040	46.6430
 0.8050	46.6310
 0.8060	46.6170
 0.8070	46.6000
 0.8080	46.5830
 0.8090	46.5670
 0.8100	46.5500
 0.8110	46.5340
 0.8120	46.5170
 0.8130	46.5020
 0.8140	46.4850
 0.8150	46.4650
 0.8160	46.4440
 0.8170	46.4270
 0.8180	46.4110
 0.8190	46.3940
 0.8200	46.3750
 0.8210	46.3550
 0.8220	46.3360
 0.8230	46.3180
 0.8240	46.2990
 0.8250	46.2810
 0.8260	46.2660
 0.8270	46.2520
 0.8280	46.2350
 0.8290	46.2180
 0.8300	46.2000
 0.8310	46.1820
 0.8320	46.1670
 0.8330	46.1540
 0.8340	46.1420
 0.8350	46.1300
 0.8360	46.1150
 0.8370	46.1020
 0.8380	46.0910
 0.8390	46.0770
 0.8400	46.0690
 0.8410	46.0630
 0.8420	46.0560
 0.8430	46.0460
 0.8440	46.0390
 0.8450	46.0320
 0.8460	46.0230
 0.8470	46.0170
 0.8480	46.0140
 0.8490	46.0100
 0.8500	46.0030
 0.8510	46.0010
 0.8520	45.9990
 0.8530	45.9960
 0.8540	45.9930
 0.8550	45.9910
 0.8560	45.9910
 0.8570	45.9920
 0.8580	45.9930
 0.8590	45.9960
 0.8600	46.0000
 0.8610	46.0030
 0.8620	46.0070
 0.8630	46.0080
 0.8640	46.0110
 0.8650	46.0160
 0.8660	46.0210
 0.8670	46.0280
 0.8680	46.0350
 0.8690	46.0420
 0.8700	46.0470
 0.8710	46.0510
 0.8720	46.0560
 0.8730	46.0630
 0.8740	46.0720
 0.8750	46.0810
 0.8760	46.0910
 0.8770	46.0990
 0.8780	46.1050
 0.8790	46.1120
 0.8800	46.1220
 0.8810	46.1300
 0.8820	46.1400
 0.8830	46.1500
 0.8840	46.1610
 0.8850	46.1740
 0.8860	46.1860
 0.8870	46.1960
 0.8880	46.2030
 0.8890	46.2090
 0.8900	46.2170
 0.8910	46.2270
 0.8920	46.2380
 0.8930	46.2480
 0.8940	46.2580
 0.8950	46.2690
 0.8960	46.2790
 0.8970	46.2870
 0.8980	46.2930
 0.8990	46.3000
 0.9000	46.3150
 0.9010	46.3240
 0.9020	46.3310
 0.9030	46.3390
 0.9040	46.3470
 0.9050	46.3560
 0.9060	46.3640
 0.9070	46.3710
 0.9080	46.3810
 0.9090	46.3860
 0.9100	46.3890
 0.9110	46.3930
 0.9120	46.3960
 0.9130	46.3990
 0.9140	46.4070
 0.9150	46.4180
 0.9160	46.4180
 0.9170	46.4230
 0.9180	46.4310
 0.9190	46.4370
 0.9200	46.4370
 0.9210	46.4410
 0.9220	46.4470
 0.9230	46.4470
 0.9240	46.4400
 0.9250	46.4350
 0.9260	46.4350
 0.9270	46.4330
 0.9280	46.4280
 0.9290	46.4220
 0.9300	46.4170
 0.9310	46.4170
 0.9320	46.4070
 0.9330	46.3950
 0.9340	46.3880
 0.9350	46.3830
 0.9360	46.3730
 0.9370	46.3600
 0.9380	46.3480
 0.9390	46.3370
 0.9400	46.3270
 0.9410	46.3160
 0.9420	46.3000
 0.9430	46.2830
 0.9440	46.2720
 0.9450	46.2580
 0.9460	46.2380
 0.9470	46.2270
 0.9480	46.2020
 0.9490	46.1760
 0.9500	46.1580
 0.9510	46.1420
 0.9520	46.1170
 0.9530	46.0870
 0.9540	46.0570
 0.9550	46.0400
 0.9560	46.0140
 0.9570	45.9880
 0.9580	45.9730
 0.9590	45.9470
 0.9600	45.9280
 0.9610	45.9110
 0.9620	45.8900
 0.9630	45.8700
 0.9640	45.8520
 0.9650	45.8340
 0.9660	45.8160
 0.9670	45.7990
 0.9680	45.7860
 0.9690	45.7740
 0.9700	45.7610
 0.9710	45.7500
 0.9720	45.7380
 0.9730	45.7290
 0.9740	45.7280
 0.9750	45.7160
 0.9760	45.7080
 0.9770	45.7000
 0.9780	45.6820
 0.9790	45.6700
 0.9800	45.6710
 0.9810	45.6730
 0.9820	45.6600
 0.9830	45.6590
 0.9840	45.6520
 0.9850	45.6400
 0.9860	45.6330
 0.9870	45.6280
 0.9880	45.6190
 0.9890	45.6160
 0.9900	45.6260
 0.9910	45.6060
 0.9920	45.6000
 0.9930	45.6040
 0.9940	45.5970
 0.9950	45.6050
 0.9960	45.6180
 0.9970	45.6190
 0.9980	45.6010
 0.9990	45.5960
 1.0000	45.5940
 1.0010	45.8160
 1.0020	45.8150
 1.0030	45.8100
 1.0040	45.8060
 1.0050	45.8060
 1.0060	45.8050
 1.0070	45.8060
 1.0080	45.8060
 1.0090	45.8050
 1.0100	45.8040
 1.0110	45.8040
 1.0120	45.8040
 1.0130	45.8020
 1.0140	45.8020
 1.0150	45.8040
 1.0160	45.8060
 1.0170	45.8070
 1.0180	45.8060
 1.0190	45.8050
 1.0200	45.8060
 1.0210	45.8030
 1.0220	45.8020
 1.0230	45.8020
 1.0240	45.8000
 1.0250	45.8010
 1.0260	45.8100
 1.0270	45.8120
 1.0280	45.8110
 1.0290	45.8120
 1.0300	45.8140
 1.0310	45.8140
 1.0320	45.8130
 1.0330	45.8170
 1.0340	45.8160
 1.0350	45.8130
 1.0360	45.8110
 1.0370	45.8100
 1.0380	45.8090
 1.0390	45.8070
 1.0400	45.8090
 1.0410	45.8130
 1.0420	45.8140
 1.0430	45.8150
 1.0440	45.8160
 1.0450	45.8160
 1.0460	45.8170
 1.0470	45.8220
 1.0480	45.8220
 1.0490	45.8190
 1.0500	45.8180
 1.0510	45.8140
 1.0520	45.8140
 1.0530	45.8130
 1.0540	45.8150
 1.0550	45.8150
 1.0560	45.8160
 1.0570	45.8170
 1.0580	45.8180
 1.0590	45.8170
 1.0600	45.8140
 1.0610	45.8120
 1.0620	45.8100
 1.0630	45.8080
 1.0640	45.8050
 1.0650	45.8050
 1.0660	45.8060
 1.0670	45.8070
 1.0680	45.8090
 1.0690	45.8130
 1.0700	45.8130
 1.0710	45.8110
 1.0720	45.8100
 1.0730	45.8080
 1.0740	45.8070
 1.0750	45.8080
 1.0760	45.8080
 1.0770	45.8090
 1.0780	45.8080
 1.0790	45.8060
 1.0800	45.8070
 1.0810	45.8080
 1.0820	45.8100
 1.0830	45.8150
 1.0840	45.8170
 1.0850	45.8170
 1.0860	45.8150
 1.0870	45.8150
 1.0880	45.8150
 1.0890	45.8130
 1.0900	45.8120
 1.0910	45.8120
 1.0920	45.8090
 1.0930	45.8100
 1.0940	45.8160
 1.0950	45.8190
 1.0960	45.8220
 1.0970	45.8240
 1.0980	45.8240
 1.0990	45.8240
 1.1000	45.8210
 1.1010	45.8210
 1.1020	45.8220
 1.1030	45.8230
 1.1040	45.8220
 1.1050	45.8230
 1.1060	45.8230
 1.1070	45.8200
 1.1080	45.8180
 1.1090	45.8170
 1.1100	45.8130
 1.1110	45.8080
 1.1120	45.8040
 1.1130	45.8010
 1.1140	45.7970
 1.1150	45.7950
 1.1160	45.7910
 1.1170	45.7850
 1.1180	45.7790
 1.1190	45.7720
 1.1200	45.7650
 1.1210	45.7590
 1.1220	45.7520
 1.1230	45.7430
 1.1240	45.7320
 1.1250	45.7190
 1.1260	45.7050
 1.1270	45.6900
 1.1280	45.6760
 1.1290	45.6570
 1.1300	45.6360
 1.1310	45.6120
 1.1320	45.5860
 1.1330	45.5560
 1.1340	45.5230
 1.1350	45.4890
 1.1360	45.4530
 1.1370	45.4150
 1.1380	45.3770
 1.1390	45.3370
 1.1400	45.2940
 1.1410	45.2500
 1.1420	45.2040
 1.1430	45.1540
 1.1440	45.1060
 1.1450	45.0570
 1.1460	45.0090
 1.1470	44.9610
 1.1480	44.9160
 1.1490	44.8710
 1.1500	44.8290
 1.1510	44.7900
 1.1520	44.7530
 1.1530	44.7210
 1.1540	44.6880
 1.1550	44.6550
 1.1560	44.6270
 1.1570	44.5990
 1.1580	44.5720
 1.1590	44.5500
 1.1600	44.5300
 1.1610	44.5120
 1.1620	44.4970
 1.1630	44.4800
 1.1640	44.4660
 1.1650	44.4550
 1.1660	44.4450
 1.1670	44.4350
 1.1680	44.4280
 1.1690	44.4200
 1.1700	44.4120
 1.1710	44.4040
 1.1720	44.3980
 1.1730	44.3900
 1.1740	44.3830
 1.1750	44.3740
 1.1760	44.3650
 1.1770	44.3570
 1.1780	44.3490
 1.1790	44.3390
 1.1800	44.3290
 1.1810	44.3190
 1.1820	44.3090
 1.1830	44.2980
 1.1840	44.2890
 1.1850	44.2800
 1.1860	44.2720
 1.1870	44.2630
 1.1880	44.2530
 1.1890	44.2410
 1.1900	44.2320
 1.1910	44.2260
 1.1920	44.2200
 1.1930	44.2170
 1.1940	44.2140
 1.1950	44.2100
 1.1960	44.2070
 1.1970	44.2020
 1.1980	44.1960
 1.1990	44.1910
 1.2000	44.1870
 1.2010	44.1870
 1.2020	44.1870
 1.2030	44.1840
 1.2040	44.1840
 1.2050	44.1840
 1.2060	44.1820
 1.2070	44.1830
 1.2080	44.1840
 1.2090	44.1850
 1.2100	44.1900
 1.2110	44.1930
 1.2120	44.1980
 1.2130	44.2020
 1.2140	44.2070
 1.2150	44.2110
 1.2160	44.2140
 1.2170	44.2190
 1.2180	44.2220
 1.2190	44.2250
 1.2200	44.2300
 1.2210	44.2370
 1.2220	44.2440
 1.2230	44.2500
 1.2240	44.2560
 1.2250	44.2610
 1.2260	44.2650
 1.2270	44.2710
 1.2280	44.2770
 1.2290	44.2810
 1.2300	44.2860
 1.2310	44.2910
 1.2320	44.2980
 1.2330	44.3040
 1.2340	44.3090
 1.2350	44.3150
 1.2360	44.3190
 1.2370	44.3200
 1.2380	44.3230
 1.2390	44.3250
 1.2400	44.3270
 1.2410	44.3300
 1.2420	44.3310
 1.2430	44.3330
 1.2440	44.3360
 1.2450	44.3380
 1.2460	44.3400
 1.2470	44.3420
 1.2480	44.3430
 1.2490	44.3460
 1.2500	44.3480
 1.2510	44.3480
 1.2520	44.3480
 1.2530	44.3470
 1.2540	44.3480
 1.2550	44.3490
 1.2560	44.3470
 1.2570	44.3440
 1.2580	44.3410
 1.2590	44.3380
 1.2600	44.3340
 1.2610	44.3300
 1.2620	44.3280
 1.2630	44.3240
 1.2640	44.3200
 1.2650	44.3160
 1.2660	44.3120
 1.2670	44.3070
 1.2680	44.3000
 1.2690	44.2930
 1.2700	44.2860
 1.2710	44.2770
 1.2720	44.2690
 1.2730	44.2620
 1.2740	44.2530
 1.2750	44.2430
 1.2760	44.2320
 1.2770	44.2210
 1.2780	44.2120
 1.2790	44.2040
 1.2800	44.1950
 1.2810	44.1840
 1.2820	44.1730
 1.2830	44.1600
 1.2840	44.1480
 1.2850	44.1360
 1.2860	44.1220
 1.2870	44.1090
 1.2880	44.0960
 1.2890	44.0810
 1.2900	44.0630
 1.2910	44.0450
 1.2920	44.0260
 1.2930	44.0070
 1.2940	43.9890
 1.2950	43.9690
 1.2960	43.9480
 1.2970	43.9250
 1.2980	43.9020
 1.2990	43.8820
 1.3000	43.8610
 1.3010	43.8390
 1.3020	43.8160
 1.3030	43.7910
 1.3040	43.7670
 1.3050	43.7410
 1.3060	43.7150
 1.3070	43.6870
 1.3080	43.6590
 1.3090	43.6310
 1.3100	43.6020
 1.3110	43.5730
 1.3120	43.5430
 1.3130	43.5100
 1.3140	43.4770
 1.3150	43.4440
 1.3160	43.4100
 1.3170	43.3750
 1.3180	43.3400
 1.3190	43.3040
 1.3200	43.2660
 1.3210	43.2280
 1.3220	43.1900
 1.3230	43.1510
 1.3240	43.1120
 1.3250	43.0690
 1.3260	43.0240
 1.3270	42.9780
 1.3280	42.9310
 1.3290	42.8840
 1.3300	42.8360
 1.3310	42.7870
 1.3320	42.7340
 1.3330	42.6820
 1.3340	42.6280
 1.3350	42.5760
 1.3360	42.5250
 1.3370	42.4730
 1.3380	42.4200
 1.3390	42.3680
 1.3400	42.3140
 1.3410	42.2610
 1.3420	42.2080
 1.3430	42.1540
 1.3440	42.1000
 1.3450	42.0450
 1.3460	41.9890
 1.3470	41.9350
 1.3480	41.8810
 1.3490	41.8280
 1.3500	41.7740
 1.3510	41.7210
 1.3520	41.6670
 1.3530	41.6130
 1.3540	41.5590
 1.3550	41.5050
 1.3560	41.4510
 1.3570	41.3950
 1.3580	41.3370
 1.3590	41.2800
 1.3600	41.2220
 1.3610	41.1620
 1.3620	41.1030
 1.3630	41.0390
 1.3640	40.9700
 1.3650	40.8990
 1.3660	40.8260
 1.3670	40.7470
 1.3680	40.6640
 1.3690	40.5760
 1.3700	40.4820
 1.3710	40.3820
 1.3720	40.2730
 1.3730	40.1540
 1.3740	40.0270
 1.3750	39.8870
 1.3760	39.7350
 1.3770	39.5710
 1.3780	39.3910
 1.3790	39.1990
 1.3800	38.9940
 1.3810	38.7720
 1.3820	38.5350
 1.3830	38.2860
 1.3840	38.0190
 1.3850	37.7380
 1.3860	37.4420
 1.3870	37.1300
 1.3880	36.8080
 1.3890	36.4720
 1.3900	36.1240
 1.3910	35.7690
 1.3920	35.4030
 1.3930	35.0270
 1.3940	34.6470
 1.3950	34.2580
 1.3960	33.8670
 1.3970	33.4760
 1.3980	33.0850
 1.3990	32.7030
 1.4000	32.3250
 1.4010	31.9510
 1.4020	31.5870
 1.4030	31.2290
 1.4040	30.8820
 1.4050	30.5500
 1.4060	30.2290
 1.4070	29.9230
 1.4080	29.6320
 1.4090	29.3520
 1.4100	29.0890
 1.4110	28.8390
 1.4120	28.6030
 1.4130	28.3840
 1.4140	28.1780
 1.4150	27.9870
 1.4160	27.8100
 1.4170	27.6430
 1.4180	27.4890
 1.4190	27.3460
 1.4200	27.2130
 1.4210	27.0910
 1.4220	26.9790
 1.4230	26.8770
 1.4240	26.7840
 1.4250	26.6980
 1.4260	26.6210
 1.4270	26.5500
 1.4280	26.4870
 1.4290	26.4300
 1.4300	26.3800
 1.4310	26.3350
 1.4320	26.2980
 1.4330	26.2660
 1.4340	26.2410
 1.4350	26.2190
 1.4360	26.2020
 1.4370	26.1890
 1.4380	26.1790
 1.4390	26.1720
 1.4400	26.1670
 1.4410	26.1650
 1.4420	26.1670
 1.4430	26.1720
 1.4440	26.1800
 1.4450	26.1900
 1.4460	26.2020
 1.4470	26.2140
 1.4480	26.2280
 1.4490	26.2430
 1.4500	26.2590
 1.4510	26.2770
 1.4520	26.2960
 1.4530	26.3160
 1.4540	26.3380
 1.4550	26.3620
 1.4560	26.3870
 1.4570	26.4150
 1.4580	26.4460
 1.4590	26.4800
 1.4600	26.5170
 1.4610	26.5590
 1.4620	26.6030
 1.4630	26.6530
 1.4640	26.7070
 1.4650	26.7650
 1.4660	26.8280
 1.4670	26.8960
 1.4680	26.9670
 1.4690	27.0430
 1.4700	27.1220
 1.4710	27.2050
 1.4720	27.2890
 1.4730	27.3770
 1.4740	27.4690
 1.4750	27.5630
 1.4760	27.6590
 1.4770	27.7580
