Name: Abies concolor 3
Type: vegetation
Class: Tree
Genus: Abies
Species: concolor
Sample No.: VH265
Owner: UCSB
Wavelength Range: VSWIR
Origin: 37.0439; -119.3058; WGS84
Collection Date: 11/2/2013
Description: Samples were collected as part of the HyspIRI Airborne Campaign. 48 individual plants were sampled in three times in 2013 - spring  summer  and fall. The name of the sample includes a 1  2  or 3 which references a different individual of the species. Samples were taken to JPL and processed within 48 hours of collection. The same leaves were processed in the Nicolet and then measured using the ASD.
Measurement: Bidirectional reflectance
First Column: X
Second Column: Y
X Units: Wavelength (micrometers)
Y Units: Reflectance (percentage)
First X Value: 0.35
Last X Value: 2.5
Number of X Values: 2151
Additional Information: vegetation.tree.abies.concolor.vswir.vh265.ucsb.asd.ancillary.txt

 0.3500	 6.0730
 0.3510	 6.0570
 0.3520	 6.0590
 0.3530	 6.0330
 0.3540	 5.9620
 0.3550	 5.9850
 0.3560	 5.9980
 0.3570	 5.9780
 0.3580	 5.9530
 0.3590	 5.9530
 0.3600	 5.9060
 0.3610	 5.8160
 0.3620	 5.8090
 0.3630	 5.7450
 0.3640	 5.7170
 0.3650	 5.7930
 0.3660	 5.7180
 0.3670	 5.7000
 0.3680	 5.7430
 0.3690	 5.7230
 0.3700	 5.6760
 0.3710	 5.6550
 0.3720	 5.6800
 0.3730	 5.7070
 0.3740	 5.7550
 0.3750	 5.7520
 0.3760	 5.6500
 0.3770	 5.6430
 0.3780	 5.6800
 0.3790	 5.7150
 0.3800	 5.7250
 0.3810	 5.7110
 0.3820	 5.6690
 0.3830	 5.6140
 0.3840	 5.6100
 0.3850	 5.6140
 0.3860	 5.6250
 0.3870	 5.6410
 0.3880	 5.5850
 0.3890	 5.5850
 0.3900	 5.6430
 0.3910	 5.6250
 0.3920	 5.5900
 0.3930	 5.5730
 0.3940	 5.5870
 0.3950	 5.5950
 0.3960	 5.6150
 0.3970	 5.6350
 0.3980	 5.6280
 0.3990	 5.6390
 0.4000	 5.6380
 0.4010	 5.6290
 0.4020	 5.6650
 0.4030	 5.6940
 0.4040	 5.7100
 0.4050	 5.7200
 0.4060	 5.7300
 0.4070	 5.7600
 0.4080	 5.8010
 0.4090	 5.8300
 0.4100	 5.8640
 0.4110	 5.8940
 0.4120	 5.9180
 0.4130	 5.9570
 0.4140	 6.0020
 0.4150	 6.0590
 0.4160	 6.1270
 0.4170	 6.1510
 0.4180	 6.2060
 0.4190	 6.2970
 0.4200	 6.3600
 0.4210	 6.4010
 0.4220	 6.4530
 0.4230	 6.5250
 0.4240	 6.5470
 0.4250	 6.5950
 0.4260	 6.6630
 0.4270	 6.7130
 0.4280	 6.7710
 0.4290	 6.8300
 0.4300	 6.8820
 0.4310	 6.9170
 0.4320	 6.9760
 0.4330	 7.0380
 0.4340	 7.0740
 0.4350	 7.0960
 0.4360	 7.1350
 0.4370	 7.1870
 0.4380	 7.2240
 0.4390	 7.2490
 0.4400	 7.2760
 0.4410	 7.3130
 0.4420	 7.3470
 0.4430	 7.3650
 0.4440	 7.3880
 0.4450	 7.4370
 0.4460	 7.4750
 0.4470	 7.5050
 0.4480	 7.5310
 0.4490	 7.5520
 0.4500	 7.5880
 0.4510	 7.6190
 0.4520	 7.6300
 0.4530	 7.6530
 0.4540	 7.6750
 0.4550	 7.6920
 0.4560	 7.7040
 0.4570	 7.7170
 0.4580	 7.7310
 0.4590	 7.7410
 0.4600	 7.7330
 0.4610	 7.7380
 0.4620	 7.7550
 0.4630	 7.7690
 0.4640	 7.7760
 0.4650	 7.7710
 0.4660	 7.7630
 0.4670	 7.7680
 0.4680	 7.7740
 0.4690	 7.7790
 0.4700	 7.7790
 0.4710	 7.7790
 0.4720	 7.7880
 0.4730	 7.7940
 0.4740	 7.7820
 0.4750	 7.7820
 0.4760	 7.7810
 0.4770	 7.7760
 0.4780	 7.7960
 0.4790	 7.8040
 0.4800	 7.8040
 0.4810	 7.8080
 0.4820	 7.8090
 0.4830	 7.8100
 0.4840	 7.8130
 0.4850	 7.8170
 0.4860	 7.8120
 0.4870	 7.8150
 0.4880	 7.8340
 0.4890	 7.8420
 0.4900	 7.8550
 0.4910	 7.8750
 0.4920	 7.8920
 0.4930	 7.9040
 0.4940	 7.9300
 0.4950	 7.9700
 0.4960	 7.9890
 0.4970	 8.0160
 0.4980	 8.0530
 0.4990	 8.0960
 0.5000	 8.1520
 0.5010	 8.2080
 0.5020	 8.2650
 0.5030	 8.3370
 0.5040	 8.4040
 0.5050	 8.4700
 0.5060	 8.5460
 0.5070	 8.6510
 0.5080	 8.7560
 0.5090	 8.8620
 0.5100	 8.9810
 0.5110	 9.1120
 0.5120	 9.2540
 0.5130	 9.4080
 0.5140	 9.5730
 0.5150	 9.7490
 0.5160	 9.9330
 0.5170	10.1260
 0.5180	10.3260
 0.5190	10.5330
 0.5200	10.7450
 0.5210	10.9590
 0.5220	11.1770
 0.5230	11.3940
 0.5240	11.6050
 0.5250	11.8020
 0.5260	11.9920
 0.5270	12.1730
 0.5280	12.3430
 0.5290	12.4980
 0.5300	12.6440
 0.5310	12.7790
 0.5320	12.8930
 0.5330	13.0020
 0.5340	13.1030
 0.5350	13.1890
 0.5360	13.2670
 0.5370	13.3330
 0.5380	13.3910
 0.5390	13.4470
 0.5400	13.4980
 0.5410	13.5400
 0.5420	13.5770
 0.5430	13.6230
 0.5440	13.6680
 0.5450	13.7130
 0.5460	13.7590
 0.5470	13.8020
 0.5480	13.8390
 0.5490	13.8680
 0.5500	13.8920
 0.5510	13.9090
 0.5520	13.9160
 0.5530	13.9090
 0.5540	13.8890
 0.5550	13.8620
 0.5560	13.8220
 0.5570	13.7610
 0.5580	13.6890
 0.5590	13.6070
 0.5600	13.5170
 0.5610	13.4190
 0.5620	13.3110
 0.5630	13.1960
 0.5640	13.0770
 0.5650	12.9520
 0.5660	12.8220
 0.5670	12.6880
 0.5680	12.5480
 0.5690	12.4110
 0.5700	12.2710
 0.5710	12.1240
 0.5720	11.9840
 0.5730	11.8490
 0.5740	11.7200
 0.5750	11.5940
 0.5760	11.4780
 0.5770	11.3660
 0.5780	11.2580
 0.5790	11.1640
 0.5800	11.0740
 0.5810	10.9880
 0.5820	10.9110
 0.5830	10.8430
 0.5840	10.7820
 0.5850	10.7230
 0.5860	10.6600
 0.5870	10.5980
 0.5880	10.5440
 0.5890	10.4990
 0.5900	10.4610
 0.5910	10.4250
 0.5920	10.3880
 0.5930	10.3450
 0.5940	10.3120
 0.5950	10.2870
 0.5960	10.2650
 0.5970	10.2390
 0.5980	10.2120
 0.5990	10.1830
 0.6000	10.1520
 0.6010	10.1150
 0.6020	10.0740
 0.6030	10.0310
 0.6040	 9.9840
 0.6050	 9.9330
 0.6060	 9.8740
 0.6070	 9.8100
 0.6080	 9.7440
 0.6090	 9.6740
 0.6100	 9.6010
 0.6110	 9.5260
 0.6120	 9.4570
 0.6130	 9.3950
 0.6140	 9.3330
 0.6150	 9.2690
 0.6160	 9.2100
 0.6170	 9.1560
 0.6180	 9.1040
 0.6190	 9.0590
 0.6200	 9.0190
 0.6210	 8.9800
 0.6220	 8.9460
 0.6230	 8.9190
 0.6240	 8.8960
 0.6250	 8.8750
 0.6260	 8.8600
 0.6270	 8.8450
 0.6280	 8.8330
 0.6290	 8.8290
 0.6300	 8.8210
 0.6310	 8.8120
 0.6320	 8.8040
 0.6330	 8.7970
 0.6340	 8.7780
 0.6350	 8.7540
 0.6360	 8.7280
 0.6370	 8.6920
 0.6380	 8.6510
 0.6390	 8.6050
 0.6400	 8.5550
 0.6410	 8.4970
 0.6420	 8.4350
 0.6430	 8.3720
 0.6440	 8.3110
 0.6450	 8.2470
 0.6460	 8.1810
 0.6470	 8.1170
 0.6480	 8.0600
 0.6490	 8.0090
 0.6500	 7.9620
 0.6510	 7.9180
 0.6520	 7.8800
 0.6530	 7.8400
 0.6540	 7.7960
 0.6550	 7.7580
 0.6560	 7.7180
 0.6570	 7.6710
 0.6580	 7.6180
 0.6590	 7.5660
 0.6600	 7.5150
 0.6610	 7.4640
 0.6620	 7.4140
 0.6630	 7.3630
 0.6640	 7.3130
 0.6650	 7.2670
 0.6660	 7.2330
 0.6670	 7.2030
 0.6680	 7.1770
 0.6690	 7.1600
 0.6700	 7.1460
 0.6710	 7.1370
 0.6720	 7.1340
 0.6730	 7.1360
 0.6740	 7.1360
 0.6750	 7.1420
 0.6760	 7.1590
 0.6770	 7.1750
 0.6780	 7.1920
 0.6790	 7.2150
 0.6800	 7.2450
 0.6810	 7.2800
 0.6820	 7.3220
 0.6830	 7.3730
 0.6840	 7.4320
 0.6850	 7.5060
 0.6860	 7.5970
 0.6870	 7.7050
 0.6880	 7.8360
 0.6890	 7.9930
 0.6900	 8.1840
 0.6910	 8.4200
 0.6920	 8.7010
 0.6930	 9.0350
 0.6940	 9.4310
 0.6950	 9.8860
 0.6960	10.4050
 0.6970	10.9930
 0.6980	11.6520
 0.6990	12.3700
 0.7000	13.1450
 0.7010	13.9740
 0.7020	14.8530
 0.7030	15.7770
 0.7040	16.7380
 0.7050	17.7280
 0.7060	18.7450
 0.7070	19.7760
 0.7080	20.8280
 0.7090	21.9110
 0.7100	22.9990
 0.7110	24.0970
 0.7120	25.2100
 0.7130	26.3330
 0.7140	27.4500
 0.7150	28.5730
 0.7160	29.7040
 0.7170	30.8210
 0.7180	31.9390
 0.7190	33.0540
 0.7200	34.1580
 0.7210	35.2480
 0.7220	36.3230
 0.7230	37.3820
 0.7240	38.4190
 0.7250	39.4290
 0.7260	40.4140
 0.7270	41.3740
 0.7280	42.2890
 0.7290	43.1770
 0.7300	44.0310
 0.7310	44.8410
 0.7320	45.6280
 0.7330	46.3730
 0.7340	47.0760
 0.7350	47.7620
 0.7360	48.4200
 0.7370	49.0330
 0.7380	49.6010
 0.7390	50.1580
 0.7400	50.6710
 0.7410	51.1570
 0.7420	51.6370
 0.7430	52.0500
 0.7440	52.4440
 0.7450	52.8330
 0.7460	53.1900
 0.7470	53.5240
 0.7480	53.8250
 0.7490	54.0910
 0.7500	54.3520
 0.7510	54.5830
 0.7520	54.7960
 0.7530	55.0090
 0.7540	55.1990
 0.7550	55.3640
 0.7560	55.5080
 0.7570	55.6420
 0.7580	55.7680
 0.7590	55.8830
 0.7600	55.9820
 0.7610	56.0700
 0.7620	56.1550
 0.7630	56.2330
 0.7640	56.2980
 0.7650	56.3630
 0.7660	56.4090
 0.7670	56.4420
 0.7680	56.4800
 0.7690	56.5280
 0.7700	56.5720
 0.7710	56.6070
 0.7720	56.6440
 0.7730	56.6640
 0.7740	56.6780
 0.7750	56.6970
 0.7760	56.7190
 0.7770	56.7480
 0.7780	56.7670
 0.7790	56.7610
 0.7800	56.7700
 0.7810	56.7960
 0.7820	56.8200
 0.7830	56.8080
 0.7840	56.8250
 0.7850	56.8510
 0.7860	56.8630
 0.7870	56.8760
 0.7880	56.8860
 0.7890	56.8900
 0.7900	56.8930
 0.7910	56.9050
 0.7920	56.9140
 0.7930	56.9230
 0.7940	56.9420
 0.7950	56.9490
 0.7960	56.9580
 0.7970	56.9740
 0.7980	56.9810
 0.7990	56.9940
 0.8000	56.9960
 0.8010	56.9840
 0.8020	56.9980
 0.8030	57.0080
 0.8040	57.0200
 0.8050	57.0470
 0.8060	57.0480
 0.8070	57.0380
 0.8080	57.0320
 0.8090	57.0400
 0.8100	57.0590
 0.8110	57.0790
 0.8120	57.0930
 0.8130	57.0940
 0.8140	57.0920
 0.8150	57.0920
 0.8160	57.1000
 0.8170	57.1280
 0.8180	57.1460
 0.8190	57.1480
 0.8200	57.1450
 0.8210	57.1580
 0.8220	57.1830
 0.8230	57.2040
 0.8240	57.2010
 0.8250	57.1880
 0.8260	57.1940
 0.8270	57.2190
 0.8280	57.2100
 0.8290	57.2110
 0.8300	57.2090
 0.8310	57.1940
 0.8320	57.2160
 0.8330	57.2220
 0.8340	57.2210
 0.8350	57.2460
 0.8360	57.2680
 0.8370	57.2770
 0.8380	57.2770
 0.8390	57.2820
 0.8400	57.2960
 0.8410	57.3190
 0.8420	57.3470
 0.8430	57.3780
 0.8440	57.4020
 0.8450	57.4080
 0.8460	57.3990
 0.8470	57.4140
 0.8480	57.4500
 0.8490	57.4810
 0.8500	57.4880
 0.8510	57.4910
 0.8520	57.5040
 0.8530	57.5220
 0.8540	57.5340
 0.8550	57.5640
 0.8560	57.5880
 0.8570	57.5990
 0.8580	57.6100
 0.8590	57.6110
 0.8600	57.6170
 0.8610	57.6360
 0.8620	57.6500
 0.8630	57.6610
 0.8640	57.6680
 0.8650	57.6740
 0.8660	57.6880
 0.8670	57.7080
 0.8680	57.7080
 0.8690	57.6780
 0.8700	57.6950
 0.8710	57.7150
 0.8720	57.7290
 0.8730	57.7480
 0.8740	57.7490
 0.8750	57.7430
 0.8760	57.7390
 0.8770	57.7450
 0.8780	57.7580
 0.8790	57.7550
 0.8800	57.7390
 0.8810	57.7440
 0.8820	57.7450
 0.8830	57.7470
 0.8840	57.7500
 0.8850	57.7460
 0.8860	57.7530
 0.8870	57.7540
 0.8880	57.7350
 0.8890	57.7330
 0.8900	57.7340
 0.8910	57.7310
 0.8920	57.7180
 0.8930	57.6940
 0.8940	57.6660
 0.8950	57.6520
 0.8960	57.6680
 0.8970	57.6670
 0.8980	57.6560
 0.8990	57.6420
 0.9000	57.6330
 0.9010	57.6280
 0.9020	57.6160
 0.9030	57.6020
 0.9040	57.6050
 0.9050	57.5830
 0.9060	57.5550
 0.9070	57.5420
 0.9080	57.5430
 0.9090	57.5280
 0.9100	57.5180
 0.9110	57.5240
 0.9120	57.5060
 0.9130	57.4620
 0.9140	57.4280
 0.9150	57.4300
 0.9160	57.4190
 0.9170	57.4030
 0.9180	57.3850
 0.9190	57.3660
 0.9200	57.3360
 0.9210	57.3070
 0.9220	57.2750
 0.9230	57.2350
 0.9240	57.2040
 0.9250	57.1600
 0.9260	57.1090
 0.9270	57.0690
 0.9280	57.0160
 0.9290	56.9660
 0.9300	56.9210
 0.9310	56.8690
 0.9320	56.8110
 0.9330	56.7290
 0.9340	56.6370
 0.9350	56.5820
 0.9360	56.5530
 0.9370	56.4980
 0.9380	56.4070
 0.9390	56.3380
 0.9400	56.2580
 0.9410	56.1640
 0.9420	56.0620
 0.9430	55.9780
 0.9440	55.9050
 0.9450	55.8290
 0.9460	55.7300
 0.9470	55.5730
 0.9480	55.4320
 0.9490	55.2880
 0.9500	55.1230
 0.9510	54.9840
 0.9520	54.8270
 0.9530	54.6580
 0.9540	54.4930
 0.9550	54.3260
 0.9560	54.1700
 0.9570	54.0170
 0.9580	53.8610
 0.9590	53.7150
 0.9600	53.5930
 0.9610	53.4850
 0.9620	53.3800
 0.9630	53.3120
 0.9640	53.2460
 0.9650	53.1840
 0.9660	53.1420
 0.9670	53.1250
 0.9680	53.0900
 0.9690	53.0480
 0.9700	53.0280
 0.9710	53.0220
 0.9720	53.0130
 0.9730	52.9980
 0.9740	52.9860
 0.9750	52.9770
 0.9760	52.9670
 0.9770	52.9610
 0.9780	52.9690
 0.9790	53.0000
 0.9800	53.0510
 0.9810	53.0880
 0.9820	53.0820
 0.9830	53.1220
 0.9840	53.1620
 0.9850	53.2010
 0.9860	53.2520
 0.9870	53.2860
 0.9880	53.3350
 0.9890	53.3830
 0.9900	53.4090
 0.9910	53.4700
 0.9920	53.5530
 0.9930	53.6340
 0.9940	53.6960
 0.9950	53.7560
 0.9960	53.8270
 0.9970	53.9040
 0.9980	53.9760
 0.9990	54.0430
 1.0000	54.1720
 1.0010	54.2790
 1.0020	54.3980
 1.0030	54.4680
 1.0040	54.5380
 1.0050	54.6040
 1.0060	54.6700
 1.0070	54.7320
 1.0080	54.8010
 1.0090	54.8750
 1.0100	54.9460
 1.0110	55.0210
 1.0120	55.0910
 1.0130	55.1550
 1.0140	55.2220
 1.0150	55.2880
 1.0160	55.3600
 1.0170	55.4290
 1.0180	55.4940
 1.0190	55.5580
 1.0200	55.6240
 1.0210	55.6910
 1.0220	55.7540
 1.0230	55.8150
 1.0240	55.8710
 1.0250	55.9270
 1.0260	55.9800
 1.0270	56.0360
 1.0280	56.0930
 1.0290	56.1480
 1.0300	56.2030
 1.0310	56.2560
 1.0320	56.3090
 1.0330	56.3600
 1.0340	56.4130
 1.0350	56.4660
 1.0360	56.5150
 1.0370	56.5580
 1.0380	56.6020
 1.0390	56.6430
 1.0400	56.6840
 1.0410	56.7280
 1.0420	56.7680
 1.0430	56.8030
 1.0440	56.8400
 1.0450	56.8800
 1.0460	56.9130
 1.0470	56.9400
 1.0480	56.9700
 1.0490	56.9990
 1.0500	57.0230
 1.0510	57.0470
 1.0520	57.0730
 1.0530	57.0960
 1.0540	57.1110
 1.0550	57.1300
 1.0560	57.1510
 1.0570	57.1710
 1.0580	57.1900
 1.0590	57.2080
 1.0600	57.2270
 1.0610	57.2420
 1.0620	57.2510
 1.0630	57.2630
 1.0640	57.2760
 1.0650	57.2860
 1.0660	57.2980
 1.0670	57.3070
 1.0680	57.3130
 1.0690	57.3150
 1.0700	57.3160
 1.0710	57.3160
 1.0720	57.3150
 1.0730	57.3110
 1.0740	57.3100
 1.0750	57.3120
 1.0760	57.3070
 1.0770	57.2990
 1.0780	57.2920
 1.0790	57.2830
 1.0800	57.2730
 1.0810	57.2680
 1.0820	57.2560
 1.0830	57.2350
 1.0840	57.2170
 1.0850	57.1970
 1.0860	57.1760
 1.0870	57.1530
 1.0880	57.1280
 1.0890	57.1060
 1.0900	57.0820
 1.0910	57.0600
 1.0920	57.0440
 1.0930	57.0190
 1.0940	56.9890
 1.0950	56.9580
 1.0960	56.9200
 1.0970	56.8860
 1.0980	56.8550
 1.0990	56.8190
 1.1000	56.7820
 1.1010	56.7460
 1.1020	56.7090
 1.1030	56.6700
 1.1040	56.6320
 1.1050	56.5910
 1.1060	56.5470
 1.1070	56.4980
 1.1080	56.4520
 1.1090	56.4040
 1.1100	56.3560
 1.1110	56.3130
 1.1120	56.2600
 1.1130	56.2050
 1.1140	56.1460
 1.1150	56.0800
 1.1160	56.0130
 1.1170	55.9480
 1.1180	55.8740
 1.1190	55.7980
 1.1200	55.7130
 1.1210	55.6200
 1.1220	55.5180
 1.1230	55.4060
 1.1240	55.2840
 1.1250	55.1500
 1.1260	55.0100
 1.1270	54.8490
 1.1280	54.6750
 1.1290	54.4830
 1.1300	54.2760
 1.1310	54.0510
 1.1320	53.8100
 1.1330	53.5540
 1.1340	53.2810
 1.1350	52.9920
 1.1360	52.6870
 1.1370	52.3640
 1.1380	52.0300
 1.1390	51.6880
 1.1400	51.3380
 1.1410	50.9860
 1.1420	50.6260
 1.1430	50.2640
 1.1440	49.9110
 1.1450	49.5530
 1.1460	49.2170
 1.1470	48.8870
 1.1480	48.5760
 1.1490	48.2760
 1.1500	47.9980
 1.1510	47.7340
 1.1520	47.4950
 1.1530	47.2760
 1.1540	47.0780
 1.1550	46.9000
 1.1560	46.7410
 1.1570	46.6010
 1.1580	46.4800
 1.1590	46.3750
 1.1600	46.2850
 1.1610	46.2070
 1.1620	46.1410
 1.1630	46.0840
 1.1640	46.0350
 1.1650	45.9940
 1.1660	45.9650
 1.1670	45.9350
 1.1680	45.9120
 1.1690	45.8900
 1.1700	45.8730
 1.1710	45.8550
 1.1720	45.8420
 1.1730	45.8240
 1.1740	45.8040
 1.1750	45.7850
 1.1760	45.7620
 1.1770	45.7380
 1.1780	45.7150
 1.1790	45.6880
 1.1800	45.6600
 1.1810	45.6340
 1.1820	45.6040
 1.1830	45.5720
 1.1840	45.5420
 1.1850	45.5110
 1.1860	45.4810
 1.1870	45.4540
 1.1880	45.4290
 1.1890	45.4050
 1.1900	45.3830
 1.1910	45.3650
 1.1920	45.3490
 1.1930	45.3350
 1.1940	45.3250
 1.1950	45.3190
 1.1960	45.3140
 1.1970	45.3150
 1.1980	45.3200
 1.1990	45.3290
 1.2000	45.3430
 1.2010	45.3620
 1.2020	45.3860
 1.2030	45.4120
 1.2040	45.4450
 1.2050	45.4800
 1.2060	45.5160
 1.2070	45.5550
 1.2080	45.5960
 1.2090	45.6380
 1.2100	45.6840
 1.2110	45.7340
 1.2120	45.7870
 1.2130	45.8460
 1.2140	45.9110
 1.2150	45.9750
 1.2160	46.0440
 1.2170	46.1130
 1.2180	46.1800
 1.2190	46.2490
 1.2200	46.3190
 1.2210	46.3890
 1.2220	46.4620
 1.2230	46.5330
 1.2240	46.6050
 1.2250	46.6760
 1.2260	46.7440
 1.2270	46.8140
 1.2280	46.8840
 1.2290	46.9510
 1.2300	47.0180
 1.2310	47.0830
 1.2320	47.1450
 1.2330	47.2060
 1.2340	47.2650
 1.2350	47.3220
 1.2360	47.3780
 1.2370	47.4330
 1.2380	47.4860
 1.2390	47.5370
 1.2400	47.5860
 1.2410	47.6340
 1.2420	47.6790
 1.2430	47.7250
 1.2440	47.7690
 1.2450	47.8070
 1.2460	47.8460
 1.2470	47.8830
 1.2480	47.9170
 1.2490	47.9530
 1.2500	47.9870
 1.2510	48.0190
 1.2520	48.0500
 1.2530	48.0800
 1.2540	48.1070
 1.2550	48.1290
 1.2560	48.1500
 1.2570	48.1710
 1.2580	48.1880
 1.2590	48.2040
 1.2600	48.2210
 1.2610	48.2330
 1.2620	48.2400
 1.2630	48.2450
 1.2640	48.2480
 1.2650	48.2480
 1.2660	48.2470
 1.2670	48.2440
 1.2680	48.2390
 1.2690	48.2330
 1.2700	48.2230
 1.2710	48.2090
 1.2720	48.1930
 1.2730	48.1740
 1.2740	48.1520
 1.2750	48.1310
 1.2760	48.1070
 1.2770	48.0780
 1.2780	48.0500
 1.2790	48.0180
 1.2800	47.9850
 1.2810	47.9470
 1.2820	47.9050
 1.2830	47.8590
 1.2840	47.8090
 1.2850	47.7570
 1.2860	47.7000
 1.2870	47.6390
 1.2880	47.5750
 1.2890	47.5070
 1.2900	47.4340
 1.2910	47.3560
 1.2920	47.2730
 1.2930	47.1850
 1.2940	47.0930
 1.2950	46.9990
 1.2960	46.9040
 1.2970	46.8020
 1.2980	46.6950
 1.2990	46.5830
 1.3000	46.4640
 1.3010	46.3420
 1.3020	46.2140
 1.3030	46.0810
 1.3040	45.9400
 1.3050	45.7950
 1.3060	45.6470
 1.3070	45.4930
 1.3080	45.3390
 1.3090	45.1790
 1.3100	45.0080
 1.3110	44.8320
 1.3120	44.6490
 1.3130	44.4620
 1.3140	44.2680
 1.3150	44.0680
 1.3160	43.8630
 1.3170	43.6540
 1.3180	43.4360
 1.3190	43.2140
 1.3200	42.9840
 1.3210	42.7470
 1.3220	42.5060
 1.3230	42.2620
 1.3240	42.0180
 1.3250	41.7730
 1.3260	41.5230
 1.3270	41.2710
 1.3280	41.0140
 1.3290	40.7490
 1.3300	40.4860
 1.3310	40.2220
 1.3320	39.9540
 1.3330	39.6900
 1.3340	39.4230
 1.3350	39.1540
 1.3360	38.8870
 1.3370	38.6200
 1.3380	38.3560
 1.3390	38.0930
 1.3400	37.8300
 1.3410	37.5720
 1.3420	37.3170
 1.3430	37.0660
 1.3440	36.8220
 1.3450	36.5810
 1.3460	36.3420
 1.3470	36.1110
 1.3480	35.8830
 1.3490	35.6600
 1.3500	35.4420
 1.3510	35.2260
 1.3520	35.0110
 1.3530	34.7980
 1.3540	34.5860
 1.3550	34.3740
 1.3560	34.1620
 1.3570	33.9470
 1.3580	33.7320
 1.3590	33.5120
 1.3600	33.2870
 1.3610	33.0590
 1.3620	32.8210
 1.3630	32.5760
 1.3640	32.3260
 1.3650	32.0630
 1.3660	31.7940
 1.3670	31.5120
 1.3680	31.2150
 1.3690	30.9040
 1.3700	30.5750
 1.3710	30.2310
 1.3720	29.8710
 1.3730	29.4940
 1.3740	29.1020
 1.3750	28.6910
 1.3760	28.2570
 1.3770	27.8010
 1.3780	27.3190
 1.3790	26.8150
 1.3800	26.2940
 1.3810	25.7480
 1.3820	25.1890
 1.3830	24.6130
 1.3840	24.0280
 1.3850	23.4260
 1.3860	22.8250
 1.3870	22.2120
 1.3880	21.6080
 1.3890	21.0010
 1.3900	20.3970
 1.3910	19.8060
 1.3920	19.2200
 1.3930	18.6430
 1.3940	18.0810
 1.3950	17.5290
 1.3960	16.9950
 1.3970	16.4820
 1.3980	15.9900
 1.3990	15.5250
 1.4000	15.0820
 1.4010	14.6610
 1.4020	14.2650
 1.4030	13.8900
 1.4040	13.5380
 1.4050	13.2120
 1.4060	12.9070
 1.4070	12.6260
 1.4080	12.3660
 1.4090	12.1210
 1.4100	11.8970
 1.4110	11.6910
 1.4120	11.5010
 1.4130	11.3280
 1.4140	11.1700
 1.4150	11.0250
 1.4160	10.8930
 1.4170	10.7740
 1.4180	10.6670
 1.4190	10.5690
 1.4200	10.4790
 1.4210	10.3980
 1.4220	10.3250
 1.4230	10.2600
 1.4240	10.2030
 1.4250	10.1500
 1.4260	10.1050
 1.4270	10.0640
 1.4280	10.0290
 1.4290	 9.9980
 1.4300	 9.9720
 1.4310	 9.9500
 1.4320	 9.9330
 1.4330	 9.9180
 1.4340	 9.9070
 1.4350	 9.8990
 1.4360	 9.8930
 1.4370	 9.8900
 1.4380	 9.8900
 1.4390	 9.8930
 1.4400	 9.8980
 1.4410	 9.9050
 1.4420	 9.9130
 1.4430	 9.9210
 1.4440	 9.9310
 1.4450	 9.9430
 1.4460	 9.9550
 1.4470	 9.9700
 1.4480	 9.9850
 1.4490	10.0020
 1.4500	10.0200
 1.4510	10.0380
 1.4520	10.0550
 1.4530	10.0750
 1.4540	10.0940
 1.4550	10.1150
 1.4560	10.1370
 1.4570	10.1620
 1.4580	10.1880
 1.4590	10.2160
 1.4600	10.2480
 1.4610	10.2810
 1.4620	10.3160
 1.4630	10.3550
 1.4640	10.3970
 1.4650	10.4420
 1.4660	10.4920
 1.4670	10.5450
 1.4680	10.6020
 1.4690	10.6630
 1.4700	10.7260
