Name: Metrosideros excelsa
Type: vegetation
Class: Tree
Genus: Metrosideros
Species: excelsa
Sample No.: JPL209
Owner: JPL
Wavelength Range: VSWIR
Origin: 34.12617; -118.11143; WGS84
Collection Date: 10/3/2016
Description: Samples were collected at the Huntington Garden in San Marino California as part of a JPL Subcontract studying HyTES imagery. Samples were taken to JPL and processed within 48 hours of collection. The same leaves were processed in the Nicolet and then measured using the ASD.
Measurement: Bidirectional reflectance
First Column: X
Second Column: Y
X Units: Wavelength (micrometer)
Y Units: Reflectance (percentage)
First X Value: 0.35
Last X Value: 2.5
Number of X Values: 2151
Additional Information: vegetation.tree.metrosideros.excelsa.vswir.jpl209.jpl.asd.ancillary.txt

 0.3500	 7.6930
 0.3510	 7.5490
 0.3520	 7.4940
 0.3530	 7.5140
 0.3540	 7.5350
 0.3550	 7.4650
 0.3560	 7.4110
 0.3570	 7.3680
 0.3580	 7.2930
 0.3590	 7.3290
 0.3600	 7.3510
 0.3610	 7.3290
 0.3620	 7.4070
 0.3630	 7.3390
 0.3640	 7.2090
 0.3650	 7.1570
 0.3660	 7.1870
 0.3670	 7.2360
 0.3680	 7.2550
 0.3690	 7.2260
 0.3700	 7.2630
 0.3710	 7.2830
 0.3720	 7.2370
 0.3730	 7.1920
 0.3740	 7.2280
 0.3750	 7.2760
 0.3760	 7.2500
 0.3770	 7.2360
 0.3780	 7.2200
 0.3790	 7.2060
 0.3800	 7.2150
 0.3810	 7.2330
 0.3820	 7.2230
 0.3830	 7.1870
 0.3840	 7.2110
 0.3850	 7.2390
 0.3860	 7.2570
 0.3870	 7.2650
 0.3880	 7.2290
 0.3890	 7.2050
 0.3900	 7.2060
 0.3910	 7.1990
 0.3920	 7.2290
 0.3930	 7.2370
 0.3940	 7.1980
 0.3950	 7.2310
 0.3960	 7.2460
 0.3970	 7.2320
 0.3980	 7.2180
 0.3990	 7.2390
 0.4000	 7.2460
 0.4010	 7.2330
 0.4020	 7.2570
 0.4030	 7.2520
 0.4040	 7.2420
 0.4050	 7.2530
 0.4060	 7.2520
 0.4070	 7.2600
 0.4080	 7.2740
 0.4090	 7.2810
 0.4100	 7.2870
 0.4110	 7.3000
 0.4120	 7.3200
 0.4130	 7.3320
 0.4140	 7.3620
 0.4150	 7.3900
 0.4160	 7.3880
 0.4170	 7.3820
 0.4180	 7.3950
 0.4190	 7.4190
 0.4200	 7.4190
 0.4210	 7.4380
 0.4220	 7.4550
 0.4230	 7.4560
 0.4240	 7.4690
 0.4250	 7.4920
 0.4260	 7.5080
 0.4270	 7.5030
 0.4280	 7.5070
 0.4290	 7.5160
 0.4300	 7.5270
 0.4310	 7.5300
 0.4320	 7.5280
 0.4330	 7.5260
 0.4340	 7.5250
 0.4350	 7.5300
 0.4360	 7.5340
 0.4370	 7.5400
 0.4380	 7.5590
 0.4390	 7.5670
 0.4400	 7.5790
 0.4410	 7.6000
 0.4420	 7.6090
 0.4430	 7.6130
 0.4440	 7.6200
 0.4450	 7.6310
 0.4460	 7.6420
 0.4470	 7.6460
 0.4480	 7.6480
 0.4490	 7.6600
 0.4500	 7.6720
 0.4510	 7.6770
 0.4520	 7.6720
 0.4530	 7.6800
 0.4540	 7.6880
 0.4550	 7.6930
 0.4560	 7.6980
 0.4570	 7.7050
 0.4580	 7.7120
 0.4590	 7.7180
 0.4600	 7.7110
 0.4610	 7.7130
 0.4620	 7.7190
 0.4630	 7.7180
 0.4640	 7.7170
 0.4650	 7.7230
 0.4660	 7.7320
 0.4670	 7.7310
 0.4680	 7.7270
 0.4690	 7.7260
 0.4700	 7.7300
 0.4710	 7.7310
 0.4720	 7.7310
 0.4730	 7.7330
 0.4740	 7.7410
 0.4750	 7.7380
 0.4760	 7.7340
 0.4770	 7.7350
 0.4780	 7.7360
 0.4790	 7.7380
 0.4800	 7.7410
 0.4810	 7.7440
 0.4820	 7.7410
 0.4830	 7.7420
 0.4840	 7.7450
 0.4850	 7.7330
 0.4860	 7.7300
 0.4870	 7.7340
 0.4880	 7.7350
 0.4890	 7.7360
 0.4900	 7.7460
 0.4910	 7.7600
 0.4920	 7.7650
 0.4930	 7.7700
 0.4940	 7.7790
 0.4950	 7.7910
 0.4960	 7.7980
 0.4970	 7.8050
 0.4980	 7.8170
 0.4990	 7.8320
 0.5000	 7.8470
 0.5010	 7.8620
 0.5020	 7.8780
 0.5030	 7.9000
 0.5040	 7.9200
 0.5050	 7.9380
 0.5060	 7.9560
 0.5070	 7.9860
 0.5080	 8.0140
 0.5090	 8.0410
 0.5100	 8.0740
 0.5110	 8.1070
 0.5120	 8.1490
 0.5130	 8.2020
 0.5140	 8.2580
 0.5150	 8.3200
 0.5160	 8.3830
 0.5170	 8.4480
 0.5180	 8.5190
 0.5190	 8.5990
 0.5200	 8.6850
 0.5210	 8.7760
 0.5220	 8.8700
 0.5230	 8.9690
 0.5240	 9.0720
 0.5250	 9.1730
 0.5260	 9.2710
 0.5270	 9.3660
 0.5280	 9.4600
 0.5290	 9.5490
 0.5300	 9.6320
 0.5310	 9.7100
 0.5320	 9.7840
 0.5330	 9.8510
 0.5340	 9.9120
 0.5350	 9.9680
 0.5360	10.0170
 0.5370	10.0570
 0.5380	10.0900
 0.5390	10.1160
 0.5400	10.1380
 0.5410	10.1510
 0.5420	10.1570
 0.5430	10.1670
 0.5440	10.1830
 0.5450	10.2080
 0.5460	10.2400
 0.5470	10.2690
 0.5480	10.2970
 0.5490	10.3240
 0.5500	10.3400
 0.5510	10.3500
 0.5520	10.3550
 0.5530	10.3540
 0.5540	10.3460
 0.5550	10.3280
 0.5560	10.2990
 0.5570	10.2620
 0.5580	10.2130
 0.5590	10.1560
 0.5600	10.0970
 0.5610	10.0350
 0.5620	 9.9710
 0.5630	 9.9050
 0.5640	 9.8370
 0.5650	 9.7710
 0.5660	 9.7050
 0.5670	 9.6400
 0.5680	 9.5750
 0.5690	 9.5080
 0.5700	 9.4410
 0.5710	 9.3750
 0.5720	 9.3080
 0.5730	 9.2440
 0.5740	 9.1840
 0.5750	 9.1240
 0.5760	 9.0680
 0.5770	 9.0150
 0.5780	 8.9650
 0.5790	 8.9160
 0.5800	 8.8710
 0.5810	 8.8330
 0.5820	 8.8020
 0.5830	 8.7760
 0.5840	 8.7530
 0.5850	 8.7290
 0.5860	 8.6970
 0.5870	 8.6700
 0.5880	 8.6520
 0.5890	 8.6470
 0.5900	 8.6390
 0.5910	 8.6260
 0.5920	 8.6110
 0.5930	 8.6000
 0.5940	 8.5920
 0.5950	 8.5840
 0.5960	 8.5720
 0.5970	 8.5580
 0.5980	 8.5430
 0.5990	 8.5290
 0.6000	 8.5130
 0.6010	 8.4980
 0.6020	 8.4840
 0.6030	 8.4700
 0.6040	 8.4570
 0.6050	 8.4400
 0.6060	 8.4240
 0.6070	 8.4100
 0.6080	 8.3900
 0.6090	 8.3610
 0.6100	 8.3230
 0.6110	 8.2800
 0.6120	 8.2600
 0.6130	 8.2530
 0.6140	 8.2490
 0.6150	 8.2340
 0.6160	 8.2190
 0.6170	 8.2040
 0.6180	 8.1850
 0.6190	 8.1680
 0.6200	 8.1550
 0.6210	 8.1440
 0.6220	 8.1320
 0.6230	 8.1240
 0.6240	 8.1190
 0.6250	 8.1150
 0.6260	 8.1090
 0.6270	 8.1040
 0.6280	 8.1000
 0.6290	 8.0970
 0.6300	 8.0910
 0.6310	 8.0860
 0.6320	 8.0840
 0.6330	 8.0810
 0.6340	 8.0770
 0.6350	 8.0680
 0.6360	 8.0550
 0.6370	 8.0390
 0.6380	 8.0220
 0.6390	 8.0050
 0.6400	 7.9900
 0.6410	 7.9720
 0.6420	 7.9530
 0.6430	 7.9350
 0.6440	 7.9150
 0.6450	 7.8990
 0.6460	 7.8880
 0.6470	 7.8770
 0.6480	 7.8650
 0.6490	 7.8580
 0.6500	 7.8550
 0.6510	 7.8520
 0.6520	 7.8510
 0.6530	 7.8530
 0.6540	 7.8540
 0.6550	 7.8520
 0.6560	 7.8520
 0.6570	 7.8530
 0.6580	 7.8530
 0.6590	 7.8510
 0.6600	 7.8490
 0.6610	 7.8460
 0.6620	 7.8470
 0.6630	 7.8510
 0.6640	 7.8560
 0.6650	 7.8610
 0.6660	 7.8690
 0.6670	 7.8780
 0.6680	 7.8890
 0.6690	 7.9020
 0.6700	 7.9200
 0.6710	 7.9410
 0.6720	 7.9640
 0.6730	 7.9880
 0.6740	 8.0170
 0.6750	 8.0480
 0.6760	 8.0790
 0.6770	 8.1130
 0.6780	 8.1540
 0.6790	 8.1980
 0.6800	 8.2400
 0.6810	 8.2890
 0.6820	 8.3370
 0.6830	 8.3800
 0.6840	 8.4210
 0.6850	 8.4630
 0.6860	 8.5040
 0.6870	 8.5410
 0.6880	 8.5850
 0.6890	 8.6360
 0.6900	 8.6980
 0.6910	 8.7770
 0.6920	 8.8860
 0.6930	 9.0280
 0.6940	 9.2090
 0.6950	 9.4420
 0.6960	 9.7290
 0.6970	10.0720
 0.6980	10.4740
 0.6990	10.9410
 0.7000	11.4680
 0.7010	12.0480
 0.7020	12.6800
 0.7030	13.3600
 0.7040	14.0840
 0.7050	14.8450
 0.7060	15.6400
 0.7070	16.4690
 0.7080	17.3260
 0.7090	18.2140
 0.7100	19.1340
 0.7110	20.0850
 0.7120	21.0610
 0.7130	22.0590
 0.7140	23.0820
 0.7150	24.1280
 0.7160	25.1910
 0.7170	26.2700
 0.7180	27.3660
 0.7190	28.4740
 0.7200	29.5880
 0.7210	30.7040
 0.7220	31.8180
 0.7230	32.9250
 0.7240	34.0220
 0.7250	35.1020
 0.7260	36.1610
 0.7270	37.1990
 0.7280	38.2080
 0.7290	39.1850
 0.7300	40.1280
 0.7310	41.0360
 0.7320	41.9060
 0.7330	42.7390
 0.7340	43.5340
 0.7350	44.2920
 0.7360	45.0100
 0.7370	45.6870
 0.7380	46.3240
 0.7390	46.9230
 0.7400	47.4830
 0.7410	48.0060
 0.7420	48.4920
 0.7430	48.9470
 0.7440	49.3650
 0.7450	49.7460
 0.7460	50.0970
 0.7470	50.4160
 0.7480	50.7080
 0.7490	50.9750
 0.7500	51.2170
 0.7510	51.4380
 0.7520	51.6370
 0.7530	51.8170
 0.7540	51.9810
 0.7550	52.1280
 0.7560	52.2610
 0.7570	52.3860
 0.7580	52.4950
 0.7590	52.5920
 0.7600	52.6790
 0.7610	52.7590
 0.7620	52.8320
 0.7630	52.8990
 0.7640	52.9580
 0.7650	53.0100
 0.7660	53.0560
 0.7670	53.0970
 0.7680	53.1360
 0.7690	53.1720
 0.7700	53.2060
 0.7710	53.2370
 0.7720	53.2640
 0.7730	53.2880
 0.7740	53.3130
 0.7750	53.3390
 0.7760	53.3590
 0.7770	53.3820
 0.7780	53.4070
 0.7790	53.4270
 0.7800	53.4480
 0.7810	53.4700
 0.7820	53.4900
 0.7830	53.5100
 0.7840	53.5330
 0.7850	53.5540
 0.7860	53.5680
 0.7870	53.5860
 0.7880	53.6010
 0.7890	53.6160
 0.7900	53.6340
 0.7910	53.6480
 0.7920	53.6580
 0.7930	53.6690
 0.7940	53.6830
 0.7950	53.6920
 0.7960	53.7010
 0.7970	53.7120
 0.7980	53.7230
 0.7990	53.7280
 0.8000	53.7310
 0.8010	53.7370
 0.8020	53.7420
 0.8030	53.7440
 0.8040	53.7430
 0.8050	53.7430
 0.8060	53.7440
 0.8070	53.7460
 0.8080	53.7480
 0.8090	53.7520
 0.8100	53.7490
 0.8110	53.7430
 0.8120	53.7370
 0.8130	53.7340
 0.8140	53.7300
 0.8150	53.7280
 0.8160	53.7280
 0.8170	53.7210
 0.8180	53.7180
 0.8190	53.7160
 0.8200	53.7060
 0.8210	53.6980
 0.8220	53.6950
 0.8230	53.6950
 0.8240	53.6930
 0.8250	53.6840
 0.8260	53.6780
 0.8270	53.6750
 0.8280	53.6660
 0.8290	53.6590
 0.8300	53.6520
 0.8310	53.6430
 0.8320	53.6350
 0.8330	53.6300
 0.8340	53.6290
 0.8350	53.6290
 0.8360	53.6270
 0.8370	53.6260
 0.8380	53.6280
 0.8390	53.6310
 0.8400	53.6350
 0.8410	53.6400
 0.8420	53.6430
 0.8430	53.6440
 0.8440	53.6510
 0.8450	53.6570
 0.8460	53.6610
 0.8470	53.6700
 0.8480	53.6790
 0.8490	53.6860
 0.8500	53.6960
 0.8510	53.7060
 0.8520	53.7170
 0.8530	53.7270
 0.8540	53.7340
 0.8550	53.7430
 0.8560	53.7560
 0.8570	53.7690
 0.8580	53.7730
 0.8590	53.7870
 0.8600	53.8010
 0.8610	53.8090
 0.8620	53.8260
 0.8630	53.8460
 0.8640	53.8610
 0.8650	53.8700
 0.8660	53.8830
 0.8670	53.8990
 0.8680	53.9150
 0.8690	53.9280
 0.8700	53.9380
 0.8710	53.9540
 0.8720	53.9730
 0.8730	53.9890
 0.8740	53.9990
 0.8750	54.0120
 0.8760	54.0270
 0.8770	54.0450
 0.8780	54.0610
 0.8790	54.0780
 0.8800	54.0950
 0.8810	54.1100
 0.8820	54.1200
 0.8830	54.1300
 0.8840	54.1430
 0.8850	54.1580
 0.8860	54.1720
 0.8870	54.1840
 0.8880	54.1990
 0.8890	54.2170
 0.8900	54.2300
 0.8910	54.2400
 0.8920	54.2500
 0.8930	54.2590
 0.8940	54.2710
 0.8950	54.2850
 0.8960	54.3000
 0.8970	54.3130
 0.8980	54.3260
 0.8990	54.3380
 0.9000	54.3430
 0.9010	54.3510
 0.9020	54.3600
 0.9030	54.3680
 0.9040	54.3800
 0.9050	54.3880
 0.9060	54.3960
 0.9070	54.4060
 0.9080	54.4150
 0.9090	54.4210
 0.9100	54.4260
 0.9110	54.4300
 0.9120	54.4320
 0.9130	54.4360
 0.9140	54.4400
 0.9150	54.4400
 0.9160	54.4480
 0.9170	54.4470
 0.9180	54.4410
 0.9190	54.4400
 0.9200	54.4350
 0.9210	54.4320
 0.9220	54.4300
 0.9230	54.4270
 0.9240	54.4130
 0.9250	54.3980
 0.9260	54.3850
 0.9270	54.3680
 0.9280	54.3530
 0.9290	54.3320
 0.9300	54.3080
 0.9310	54.2940
 0.9320	54.2640
 0.9330	54.2340
 0.9340	54.2080
 0.9350	54.1740
 0.9360	54.1480
 0.9370	54.1200
 0.9380	54.0840
 0.9390	54.0420
 0.9400	54.0050
 0.9410	53.9630
 0.9420	53.9160
 0.9430	53.8770
 0.9440	53.8320
 0.9450	53.7730
 0.9460	53.7040
 0.9470	53.6460
 0.9480	53.5750
 0.9490	53.4950
 0.9500	53.4120
 0.9510	53.3250
 0.9520	53.2390
 0.9530	53.1470
 0.9540	53.0440
 0.9550	52.9570
 0.9560	52.8670
 0.9570	52.7790
 0.9580	52.6970
 0.9590	52.6080
 0.9600	52.5360
 0.9610	52.4780
 0.9620	52.4230
 0.9630	52.3700
 0.9640	52.3110
 0.9650	52.2610
 0.9660	52.2330
 0.9670	52.2050
 0.9680	52.1720
 0.9690	52.1430
 0.9700	52.1290
 0.9710	52.1100
 0.9720	52.0890
 0.9730	52.0720
 0.9740	52.0590
 0.9750	52.0500
 0.9760	52.0360
 0.9770	52.0220
 0.9780	52.0150
 0.9790	52.0170
 0.9800	52.0220
 0.9810	52.0290
 0.9820	52.0390
 0.9830	52.0470
 0.9840	52.0540
 0.9850	52.0630
 0.9860	52.0750
 0.9870	52.0870
 0.9880	52.1140
 0.9890	52.1380
 0.9900	52.1410
 0.9910	52.1730
 0.9920	52.2000
 0.9930	52.2190
 0.9940	52.2390
 0.9950	52.2690
 0.9960	52.2930
 0.9970	52.3190
 0.9980	52.3620
 0.9990	52.3940
 1.0000	52.4190
 1.0010	51.4450
 1.0020	51.4780
 1.0030	51.5150
 1.0040	51.5520
 1.0050	51.5880
 1.0060	51.6290
 1.0070	51.6710
 1.0080	51.7130
 1.0090	51.7550
 1.0100	51.7950
 1.0110	51.8350
 1.0120	51.8750
 1.0130	51.9160
 1.0140	51.9570
 1.0150	52.0000
 1.0160	52.0420
 1.0170	52.0770
 1.0180	52.1080
 1.0190	52.1470
 1.0200	52.1820
 1.0210	52.2200
 1.0220	52.2670
 1.0230	52.3090
 1.0240	52.3460
 1.0250	52.3840
 1.0260	52.4240
 1.0270	52.4610
 1.0280	52.4960
 1.0290	52.5310
 1.0300	52.5670
 1.0310	52.6020
 1.0320	52.6340
 1.0330	52.6670
 1.0340	52.7020
 1.0350	52.7380
 1.0360	52.7730
 1.0370	52.8060
 1.0380	52.8360
 1.0390	52.8600
 1.0400	52.8870
 1.0410	52.9140
 1.0420	52.9420
 1.0430	52.9720
 1.0440	53.0000
 1.0450	53.0280
 1.0460	53.0530
 1.0470	53.0770
 1.0480	53.1000
 1.0490	53.1190
 1.0500	53.1400
 1.0510	53.1610
 1.0520	53.1800
 1.0530	53.2010
 1.0540	53.2220
 1.0550	53.2440
 1.0560	53.2670
 1.0570	53.2880
 1.0580	53.3100
 1.0590	53.3310
 1.0600	53.3530
 1.0610	53.3710
 1.0620	53.3890
 1.0630	53.4060
 1.0640	53.4180
 1.0650	53.4340
 1.0660	53.4560
 1.0670	53.4730
 1.0680	53.4890
 1.0690	53.5070
 1.0700	53.5210
 1.0710	53.5290
 1.0720	53.5430
 1.0730	53.5610
 1.0740	53.5740
 1.0750	53.5860
 1.0760	53.5970
 1.0770	53.6040
 1.0780	53.6120
 1.0790	53.6210
 1.0800	53.6290
 1.0810	53.6390
 1.0820	53.6450
 1.0830	53.6480
 1.0840	53.6520
 1.0850	53.6540
 1.0860	53.6550
 1.0870	53.6570
 1.0880	53.6620
 1.0890	53.6610
 1.0900	53.6590
 1.0910	53.6560
 1.0920	53.6490
 1.0930	53.6450
 1.0940	53.6420
 1.0950	53.6370
 1.0960	53.6310
 1.0970	53.6240
 1.0980	53.6160
 1.0990	53.6060
 1.1000	53.5940
 1.1010	53.5820
 1.1020	53.5710
 1.1030	53.5570
 1.1040	53.5430
 1.1050	53.5300
 1.1060	53.5140
 1.1070	53.4980
 1.1080	53.4790
 1.1090	53.4600
 1.1100	53.4390
 1.1110	53.4160
 1.1120	53.3930
 1.1130	53.3690
 1.1140	53.3450
 1.1150	53.3230
 1.1160	53.2930
 1.1170	53.2620
 1.1180	53.2250
 1.1190	53.1820
 1.1200	53.1340
 1.1210	53.0860
 1.1220	53.0330
 1.1230	52.9750
 1.1240	52.9140
 1.1250	52.8460
 1.1260	52.7750
 1.1270	52.6900
 1.1280	52.5970
 1.1290	52.4940
 1.1300	52.3820
 1.1310	52.2570
 1.1320	52.1230
 1.1330	51.9780
 1.1340	51.8220
 1.1350	51.6540
 1.1360	51.4760
 1.1370	51.2870
 1.1380	51.0870
 1.1390	50.8790
 1.1400	50.6620
 1.1410	50.4430
 1.1420	50.2190
 1.1430	49.9910
 1.1440	49.7650
 1.1450	49.5350
 1.1460	49.3110
 1.1470	49.0830
 1.1480	48.8690
 1.1490	48.6580
 1.1500	48.4590
 1.1510	48.2670
 1.1520	48.0890
 1.1530	47.9190
 1.1540	47.7630
 1.1550	47.6170
 1.1560	47.4850
 1.1570	47.3630
 1.1580	47.2520
 1.1590	47.1500
 1.1600	47.0570
 1.1610	46.9700
 1.1620	46.8920
 1.1630	46.8230
 1.1640	46.7600
 1.1650	46.7020
 1.1660	46.6510
 1.1670	46.6040
 1.1680	46.5610
 1.1690	46.5210
 1.1700	46.4860
 1.1710	46.4500
 1.1720	46.4150
 1.1730	46.3800
 1.1740	46.3460
 1.1750	46.3110
 1.1760	46.2760
 1.1770	46.2400
 1.1780	46.2060
 1.1790	46.1710
 1.1800	46.1340
 1.1810	46.0980
 1.1820	46.0590
 1.1830	46.0200
 1.1840	45.9820
 1.1850	45.9460
 1.1860	45.9110
 1.1870	45.8790
 1.1880	45.8470
 1.1890	45.8170
 1.1900	45.7890
 1.1910	45.7600
 1.1920	45.7350
 1.1930	45.7130
 1.1940	45.6940
 1.1950	45.6770
 1.1960	45.6630
 1.1970	45.6510
 1.1980	45.6430
 1.1990	45.6380
 1.2000	45.6370
 1.2010	45.6390
 1.2020	45.6430
 1.2030	45.6470
 1.2040	45.6550
 1.2050	45.6670
 1.2060	45.6800
 1.2070	45.6980
 1.2080	45.7200
 1.2090	45.7460
 1.2100	45.7760
 1.2110	45.8100
 1.2120	45.8490
 1.2130	45.8900
 1.2140	45.9350
 1.2150	45.9820
 1.2160	46.0320
 1.2170	46.0840
 1.2180	46.1390
 1.2190	46.1970
 1.2200	46.2570
 1.2210	46.3210
 1.2220	46.3860
 1.2230	46.4490
 1.2240	46.5140
 1.2250	46.5800
 1.2260	46.6430
 1.2270	46.7060
 1.2280	46.7650
 1.2290	46.8220
 1.2300	46.8800
 1.2310	46.9370
 1.2320	46.9910
 1.2330	47.0420
 1.2340	47.0910
 1.2350	47.1360
 1.2360	47.1810
 1.2370	47.2240
 1.2380	47.2670
 1.2390	47.3090
 1.2400	47.3500
 1.2410	47.3900
 1.2420	47.4290
 1.2430	47.4660
 1.2440	47.5030
 1.2450	47.5390
 1.2460	47.5730
 1.2470	47.6080
 1.2480	47.6400
 1.2490	47.6700
 1.2500	47.6990
 1.2510	47.7260
 1.2520	47.7530
 1.2530	47.7780
 1.2540	47.8040
 1.2550	47.8280
 1.2560	47.8490
 1.2570	47.8690
 1.2580	47.8870
 1.2590	47.9040
 1.2600	47.9210
 1.2610	47.9370
 1.2620	47.9510
 1.2630	47.9620
 1.2640	47.9700
 1.2650	47.9760
 1.2660	47.9810
 1.2670	47.9820
 1.2680	47.9840
 1.2690	47.9830
 1.2700	47.9770
 1.2710	47.9720
 1.2720	47.9640
 1.2730	47.9520
 1.2740	47.9410
 1.2750	47.9280
 1.2760	47.9110
 1.2770	47.8930
 1.2780	47.8760
 1.2790	47.8550
 1.2800	47.8310
 1.2810	47.8060
 1.2820	47.7780
 1.2830	47.7480
 1.2840	47.7170
 1.2850	47.6870
 1.2860	47.6530
 1.2870	47.6170
 1.2880	47.5780
 1.2890	47.5380
 1.2900	47.4940
 1.2910	47.4480
 1.2920	47.4010
 1.2930	47.3510
 1.2940	47.2990
 1.2950	47.2460
 1.2960	47.1900
 1.2970	47.1310
 1.2980	47.0710
 1.2990	47.0080
 1.3000	46.9410
 1.3010	46.8670
 1.3020	46.7900
 1.3030	46.7100
 1.3040	46.6260
 1.3050	46.5410
 1.3060	46.4530
 1.3070	46.3560
 1.3080	46.2560
 1.3090	46.1530
 1.3100	46.0410
 1.3110	45.9250
 1.3120	45.8050
 1.3130	45.6810
 1.3140	45.5520
 1.3150	45.4190
 1.3160	45.2800
 1.3170	45.1360
 1.3180	44.9850
 1.3190	44.8300
 1.3200	44.6690
 1.3210	44.5030
 1.3220	44.3330
 1.3230	44.1610
 1.3240	43.9840
 1.3250	43.8040
 1.3260	43.6200
 1.3270	43.4300
 1.3280	43.2390
 1.3290	43.0430
 1.3300	42.8450
 1.3310	42.6450
 1.3320	42.4420
 1.3330	42.2390
 1.3340	42.0330
 1.3350	41.8250
 1.3360	41.6170
 1.3370	41.4090
 1.3380	41.2020
 1.3390	40.9970
 1.3400	40.7910
 1.3410	40.5860
 1.3420	40.3840
 1.3430	40.1860
 1.3440	39.9890
 1.3450	39.7950
 1.3460	39.6020
 1.3470	39.4130
 1.3480	39.2250
 1.3490	39.0420
 1.3500	38.8620
 1.3510	38.6830
 1.3520	38.5050
 1.3530	38.3290
 1.3540	38.1510
 1.3550	37.9750
 1.3560	37.7990
 1.3570	37.6230
 1.3580	37.4450
 1.3590	37.2610
 1.3600	37.0750
 1.3610	36.8860
 1.3620	36.6900
 1.3630	36.4910
 1.3640	36.2830
 1.3650	36.0650
 1.3660	35.8400
 1.3670	35.6030
 1.3680	35.3530
 1.3690	35.0900
 1.3700	34.8090
 1.3710	34.5130
 1.3720	34.2000
 1.3730	33.8650
 1.3740	33.5140
 1.3750	33.1390
 1.3760	32.7380
 1.3770	32.3160
 1.3780	31.8620
 1.3790	31.3830
 1.3800	30.8780
 1.3810	30.3430
 1.3820	29.7910
 1.3830	29.2170
 1.3840	28.6250
 1.3850	28.0120
 1.3860	27.3900
 1.3870	26.7460
 1.3880	26.1050
 1.3890	25.4540
 1.3900	24.7990
 1.3910	24.1520
 1.3920	23.5050
 1.3930	22.8600
 1.3940	22.2290
 1.3950	21.6030
 1.3960	20.9940
 1.3970	20.4060
 1.3980	19.8360
 1.3990	19.2940
 1.4000	18.7720
 1.4010	18.2690
 1.4020	17.7940
 1.4030	17.3390
 1.4040	16.9100
 1.4050	16.5080
 1.4060	16.1280
 1.4070	15.7750
 1.4080	15.4460
 1.4090	15.1370
 1.4100	14.8510
 1.4110	14.5820
 1.4120	14.3330
 1.4130	14.1030
 1.4140	13.8890
 1.4150	13.6940
 1.4160	13.5140
 1.4170	13.3470
 1.4180	13.1930
 1.4190	13.0490
 1.4200	12.9160
 1.4210	12.7940
 1.4220	12.6800
 1.4230	12.5780
 1.4240	12.4830
 1.4250	12.3940
 1.4260	12.3130
 1.4270	12.2370
 1.4280	12.1660
 1.4290	12.1020
 1.4300	12.0440
 1.4310	11.9910
 1.4320	11.9430
 1.4330	11.9000
 1.4340	11.8610
 1.4350	11.8250
 1.4360	11.7930
 1.4370	11.7640
 1.4380	11.7390
 1.4390	11.7150
 1.4400	11.6950
 1.4410	11.6780
 1.4420	11.6640
 1.4430	11.6530
 1.4440	11.6430
 1.4450	11.6350
 1.4460	11.6270
 1.4470	11.6220
 1.4480	11.6200
 1.4490	11.6170
 1.4500	11.6180
 1.4510	11.6200
 1.4520	11.6230
 1.4530	11.6280
 1.4540	11.6350
 1.4550	11.6440
 1.4560	11.6550
 1.4570	11.6670
 1.4580	11.6830
 1.4590	11.7000
 1.4600	11.7210
 1.4610	11.7450
 1.4620	11.7720
 1.4630	11.8020
 1.4640	11.8360
 1.4650	11.8740
 1.4660	11.9160
 1.4670	11.9600
 1.4680	12.0090
 1.4690	12.0600
 1.4700	12.1150
 1.4710	12.1740
 1.4720	12.2360
 1.4730	12.3000
 1.4740	12.3680
 1.4750	12.4390
 1.4760	12.5140
 1.4770	12.5910
