Name: Eucalyptus rudius
Type: vegetation
Class: Tree
Genus: Eucalyptus
Species: rudius
Sample No.: JPL218
Owner: JPL
Wavelength Range: VSWIR
Origin: 34.12445; -118.11324; WGS84
Collection Date: 10/3/2016
Description: Samples were collected at the Huntington Garden in San Marino California as part of a JPL Subcontract studying HyTES imagery. Samples were taken to JPL and processed within 48 hours of collection. The same leaves were processed in the Nicolet and then measured using the ASD.
Measurement: Bidirectional reflectance
First Column: X
Second Column: Y
X Units: Wavelength (micrometer)
Y Units: Reflectance (percentage)
First X Value: 0.35
Last X Value: 2.5
Number of X Values: 2151
Additional Information: vegetation.tree.eucalyptus.rudius.vswir.jpl218.jpl.asd.ancillary.txt

 0.3500	 6.7840
 0.3510	 6.8070
 0.3520	 6.8200
 0.3530	 6.8020
 0.3540	 6.7520
 0.3550	 6.6320
 0.3560	 6.6460
 0.3570	 6.7230
 0.3580	 6.6760
 0.3590	 6.6790
 0.3600	 6.6480
 0.3610	 6.5790
 0.3620	 6.6070
 0.3630	 6.5770
 0.3640	 6.5710
 0.3650	 6.6540
 0.3660	 6.5900
 0.3670	 6.5670
 0.3680	 6.6030
 0.3690	 6.5970
 0.3700	 6.5760
 0.3710	 6.5590
 0.3720	 6.5610
 0.3730	 6.5870
 0.3740	 6.5950
 0.3750	 6.6090
 0.3760	 6.6500
 0.3770	 6.6210
 0.3780	 6.5520
 0.3790	 6.5070
 0.3800	 6.5530
 0.3810	 6.5450
 0.3820	 6.5220
 0.3830	 6.5310
 0.3840	 6.5640
 0.3850	 6.5880
 0.3860	 6.5830
 0.3870	 6.5490
 0.3880	 6.5590
 0.3890	 6.5950
 0.3900	 6.6220
 0.3910	 6.6030
 0.3920	 6.5890
 0.3930	 6.5810
 0.3940	 6.5820
 0.3950	 6.6200
 0.3960	 6.6600
 0.3970	 6.6790
 0.3980	 6.6690
 0.3990	 6.6570
 0.4000	 6.6480
 0.4010	 6.6610
 0.4020	 6.7320
 0.4030	 6.7370
 0.4040	 6.7280
 0.4050	 6.7670
 0.4060	 6.7740
 0.4070	 6.7940
 0.4080	 6.8260
 0.4090	 6.8440
 0.4100	 6.8790
 0.4110	 6.9250
 0.4120	 6.9650
 0.4130	 6.9840
 0.4140	 7.0170
 0.4150	 7.0630
 0.4160	 7.1090
 0.4170	 7.1650
 0.4180	 7.1990
 0.4190	 7.2130
 0.4200	 7.2440
 0.4210	 7.2850
 0.4220	 7.3280
 0.4230	 7.3650
 0.4240	 7.3970
 0.4250	 7.4250
 0.4260	 7.4560
 0.4270	 7.4980
 0.4280	 7.5350
 0.4290	 7.5580
 0.4300	 7.5700
 0.4310	 7.5800
 0.4320	 7.5940
 0.4330	 7.6140
 0.4340	 7.6380
 0.4350	 7.6500
 0.4360	 7.6690
 0.4370	 7.6910
 0.4380	 7.7020
 0.4390	 7.7110
 0.4400	 7.7310
 0.4410	 7.7610
 0.4420	 7.7710
 0.4430	 7.7840
 0.4440	 7.8030
 0.4450	 7.8260
 0.4460	 7.8520
 0.4470	 7.8710
 0.4480	 7.8820
 0.4490	 7.8970
 0.4500	 7.9070
 0.4510	 7.9190
 0.4520	 7.9420
 0.4530	 7.9540
 0.4540	 7.9670
 0.4550	 7.9780
 0.4560	 7.9810
 0.4570	 7.9860
 0.4580	 7.9920
 0.4590	 7.9970
 0.4600	 8.0000
 0.4610	 8.0030
 0.4620	 8.0030
 0.4630	 7.9960
 0.4640	 7.9890
 0.4650	 7.9810
 0.4660	 7.9760
 0.4670	 7.9770
 0.4680	 7.9780
 0.4690	 7.9760
 0.4700	 7.9720
 0.4710	 7.9790
 0.4720	 7.9760
 0.4730	 7.9670
 0.4740	 7.9690
 0.4750	 7.9640
 0.4760	 7.9600
 0.4770	 7.9590
 0.4780	 7.9580
 0.4790	 7.9570
 0.4800	 7.9590
 0.4810	 7.9640
 0.4820	 7.9560
 0.4830	 7.9560
 0.4840	 7.9650
 0.4850	 7.9600
 0.4860	 7.9540
 0.4870	 7.9570
 0.4880	 7.9720
 0.4890	 7.9800
 0.4900	 7.9920
 0.4910	 8.0070
 0.4920	 8.0180
 0.4930	 8.0340
 0.4940	 8.0520
 0.4950	 8.0700
 0.4960	 8.0960
 0.4970	 8.1300
 0.4980	 8.1630
 0.4990	 8.1910
 0.5000	 8.2280
 0.5010	 8.2680
 0.5020	 8.3110
 0.5030	 8.3640
 0.5040	 8.4260
 0.5050	 8.4910
 0.5060	 8.5560
 0.5070	 8.6360
 0.5080	 8.7250
 0.5090	 8.8180
 0.5100	 8.9150
 0.5110	 9.0230
 0.5120	 9.1430
 0.5130	 9.2740
 0.5140	 9.4160
 0.5150	 9.5640
 0.5160	 9.7170
 0.5170	 9.8780
 0.5180	10.0600
 0.5190	10.2500
 0.5200	10.4430
 0.5210	10.6420
 0.5220	10.8390
 0.5230	11.0390
 0.5240	11.2420
 0.5250	11.4380
 0.5260	11.6270
 0.5270	11.8080
 0.5280	11.9800
 0.5290	12.1430
 0.5300	12.2940
 0.5310	12.4310
 0.5320	12.5560
 0.5330	12.6700
 0.5340	12.7730
 0.5350	12.8630
 0.5360	12.9400
 0.5370	13.0070
 0.5380	13.0680
 0.5390	13.1230
 0.5400	13.1720
 0.5410	13.2170
 0.5420	13.2580
 0.5430	13.2950
 0.5440	13.3290
 0.5450	13.3600
 0.5460	13.3900
 0.5470	13.4170
 0.5480	13.4400
 0.5490	13.4580
 0.5500	13.4740
 0.5510	13.4800
 0.5520	13.4770
 0.5530	13.4660
 0.5540	13.4440
 0.5550	13.4080
 0.5560	13.3580
 0.5570	13.2950
 0.5580	13.2190
 0.5590	13.1370
 0.5600	13.0510
 0.5610	12.9580
 0.5620	12.8570
 0.5630	12.7490
 0.5640	12.6360
 0.5650	12.5190
 0.5660	12.3960
 0.5670	12.2660
 0.5680	12.1310
 0.5690	11.9940
 0.5700	11.8570
 0.5710	11.7210
 0.5720	11.5880
 0.5730	11.4610
 0.5740	11.3410
 0.5750	11.2300
 0.5760	11.1260
 0.5770	11.0260
 0.5780	10.9330
 0.5790	10.8480
 0.5800	10.7680
 0.5810	10.6910
 0.5820	10.6180
 0.5830	10.5490
 0.5840	10.4840
 0.5850	10.4240
 0.5860	10.3650
 0.5870	10.3070
 0.5880	10.2550
 0.5890	10.2100
 0.5900	10.1720
 0.5910	10.1370
 0.5920	10.1020
 0.5930	10.0680
 0.5940	10.0390
 0.5950	10.0120
 0.5960	 9.9870
 0.5970	 9.9610
 0.5980	 9.9350
 0.5990	 9.9090
 0.6000	 9.8830
 0.6010	 9.8520
 0.6020	 9.8200
 0.6030	 9.7850
 0.6040	 9.7380
 0.6050	 9.6950
 0.6060	 9.6490
 0.6070	 9.5960
 0.6080	 9.5420
 0.6090	 9.4850
 0.6100	 9.4250
 0.6110	 9.3640
 0.6120	 9.3070
 0.6130	 9.2490
 0.6140	 9.1880
 0.6150	 9.1290
 0.6160	 9.0740
 0.6170	 9.0220
 0.6180	 8.9690
 0.6190	 8.9260
 0.6200	 8.8870
 0.6210	 8.8500
 0.6220	 8.8140
 0.6230	 8.7860
 0.6240	 8.7640
 0.6250	 8.7450
 0.6260	 8.7260
 0.6270	 8.7110
 0.6280	 8.7000
 0.6290	 8.6900
 0.6300	 8.6810
 0.6310	 8.6690
 0.6320	 8.6530
 0.6330	 8.6380
 0.6340	 8.6150
 0.6350	 8.5850
 0.6360	 8.5510
 0.6370	 8.5090
 0.6380	 8.4610
 0.6390	 8.4100
 0.6400	 8.3550
 0.6410	 8.2990
 0.6420	 8.2410
 0.6430	 8.1800
 0.6440	 8.1180
 0.6450	 8.0600
 0.6460	 8.0050
 0.6470	 7.9530
 0.6480	 7.9030
 0.6490	 7.8610
 0.6500	 7.8270
 0.6510	 7.8000
 0.6520	 7.7770
 0.6530	 7.7560
 0.6540	 7.7340
 0.6550	 7.7130
 0.6560	 7.6890
 0.6570	 7.6620
 0.6580	 7.6320
 0.6590	 7.6000
 0.6600	 7.5650
 0.6610	 7.5290
 0.6620	 7.4960
 0.6630	 7.4640
 0.6640	 7.4340
 0.6650	 7.4120
 0.6660	 7.3960
 0.6670	 7.3860
 0.6680	 7.3810
 0.6690	 7.3820
 0.6700	 7.3890
 0.6710	 7.4050
 0.6720	 7.4300
 0.6730	 7.4610
 0.6740	 7.4950
 0.6750	 7.5340
 0.6760	 7.5800
 0.6770	 7.6330
 0.6780	 7.6950
 0.6790	 7.7630
 0.6800	 7.8350
 0.6810	 7.9160
 0.6820	 8.0040
 0.6830	 8.0960
 0.6840	 8.1900
 0.6850	 8.2890
 0.6860	 8.3950
 0.6870	 8.5130
 0.6880	 8.6460
 0.6890	 8.8020
 0.6900	 8.9900
 0.6910	 9.2210
 0.6920	 9.5050
 0.6930	 9.8470
 0.6940	10.2480
 0.6950	10.7160
 0.6960	11.2520
 0.6970	11.8530
 0.6980	12.5170
 0.6990	13.2410
 0.7000	14.0130
 0.7010	14.8270
 0.7020	15.6770
 0.7030	16.5500
 0.7040	17.4430
 0.7050	18.3510
 0.7060	19.2670
 0.7070	20.1930
 0.7080	21.1270
 0.7090	22.0640
 0.7100	23.0040
 0.7110	23.9470
 0.7120	24.8940
 0.7130	25.8420
 0.7140	26.7890
 0.7150	27.7340
 0.7160	28.6690
 0.7170	29.5940
 0.7180	30.5090
 0.7190	31.4110
 0.7200	32.2970
 0.7210	33.1610
 0.7220	34.0000
 0.7230	34.8150
 0.7240	35.6040
 0.7250	36.3640
 0.7260	37.0900
 0.7270	37.7830
 0.7280	38.4490
 0.7290	39.0780
 0.7300	39.6730
 0.7310	40.2360
 0.7320	40.7690
 0.7330	41.2670
 0.7340	41.7330
 0.7350	42.1680
 0.7360	42.5720
 0.7370	42.9470
 0.7380	43.2950
 0.7390	43.6180
 0.7400	43.9130
 0.7410	44.1810
 0.7420	44.4260
 0.7430	44.6500
 0.7440	44.8510
 0.7450	45.0290
 0.7460	45.1850
 0.7470	45.3250
 0.7480	45.4470
 0.7490	45.5510
 0.7500	45.6440
 0.7510	45.7270
 0.7520	45.7990
 0.7530	45.8600
 0.7540	45.9110
 0.7550	45.9570
 0.7560	45.9970
 0.7570	46.0310
 0.7580	46.0600
 0.7590	46.0840
 0.7600	46.1040
 0.7610	46.1210
 0.7620	46.1340
 0.7630	46.1430
 0.7640	46.1510
 0.7650	46.1530
 0.7660	46.1530
 0.7670	46.1520
 0.7680	46.1470
 0.7690	46.1440
 0.7700	46.1430
 0.7710	46.1400
 0.7720	46.1330
 0.7730	46.1270
 0.7740	46.1210
 0.7750	46.1150
 0.7760	46.1130
 0.7770	46.1110
 0.7780	46.1090
 0.7790	46.1080
 0.7800	46.1060
 0.7810	46.1050
 0.7820	46.1050
 0.7830	46.1060
 0.7840	46.1060
 0.7850	46.1050
 0.7860	46.1040
 0.7870	46.1060
 0.7880	46.1040
 0.7890	46.1020
 0.7900	46.1020
 0.7910	46.1020
 0.7920	46.1000
 0.7930	46.0970
 0.7940	46.0970
 0.7950	46.0930
 0.7960	46.0870
 0.7970	46.0820
 0.7980	46.0760
 0.7990	46.0720
 0.8000	46.0670
 0.8010	46.0580
 0.8020	46.0480
 0.8030	46.0410
 0.8040	46.0350
 0.8050	46.0260
 0.8060	46.0170
 0.8070	46.0060
 0.8080	45.9920
 0.8090	45.9830
 0.8100	45.9740
 0.8110	45.9660
 0.8120	45.9560
 0.8130	45.9420
 0.8140	45.9280
 0.8150	45.9140
 0.8160	45.9020
 0.8170	45.8910
 0.8180	45.8800
 0.8190	45.8660
 0.8200	45.8530
 0.8210	45.8410
 0.8220	45.8290
 0.8230	45.8160
 0.8240	45.8060
 0.8250	45.7960
 0.8260	45.7830
 0.8270	45.7690
 0.8280	45.7580
 0.8290	45.7440
 0.8300	45.7300
 0.8310	45.7160
 0.8320	45.7020
 0.8330	45.6910
 0.8340	45.6820
 0.8350	45.6740
 0.8360	45.6640
 0.8370	45.6540
 0.8380	45.6460
 0.8390	45.6370
 0.8400	45.6310
 0.8410	45.6270
 0.8420	45.6240
 0.8430	45.6200
 0.8440	45.6120
 0.8450	45.6040
 0.8460	45.6000
 0.8470	45.5980
 0.8480	45.5950
 0.8490	45.5920
 0.8500	45.5910
 0.8510	45.5880
 0.8520	45.5870
 0.8530	45.5880
 0.8540	45.5880
 0.8550	45.5880
 0.8560	45.5870
 0.8570	45.5850
 0.8580	45.5860
 0.8590	45.5860
 0.8600	45.5860
 0.8610	45.5840
 0.8620	45.5850
 0.8630	45.5860
 0.8640	45.5870
 0.8650	45.5880
 0.8660	45.5900
 0.8670	45.5930
 0.8680	45.5960
 0.8690	45.6000
 0.8700	45.6050
 0.8710	45.6080
 0.8720	45.6110
 0.8730	45.6180
 0.8740	45.6200
 0.8750	45.6200
 0.8760	45.6210
 0.8770	45.6270
 0.8780	45.6330
 0.8790	45.6370
 0.8800	45.6420
 0.8810	45.6480
 0.8820	45.6470
 0.8830	45.6480
 0.8840	45.6560
 0.8850	45.6620
 0.8860	45.6640
 0.8870	45.6650
 0.8880	45.6700
 0.8890	45.6720
 0.8900	45.6730
 0.8910	45.6750
 0.8920	45.6820
 0.8930	45.6890
 0.8940	45.6890
 0.8950	45.6870
 0.8960	45.6910
 0.8970	45.6920
 0.8980	45.6940
 0.8990	45.6980
 0.9000	45.7010
 0.9010	45.7050
 0.9020	45.7020
 0.9030	45.6980
 0.9040	45.7080
 0.9050	45.7080
 0.9060	45.7050
 0.9070	45.7060
 0.9080	45.7070
 0.9090	45.7090
 0.9100	45.7080
 0.9110	45.7040
 0.9120	45.7000
 0.9130	45.7030
 0.9140	45.7060
 0.9150	45.7020
 0.9160	45.7010
 0.9170	45.7070
 0.9180	45.7100
 0.9190	45.7010
 0.9200	45.6940
 0.9210	45.6890
 0.9220	45.6850
 0.9230	45.6820
 0.9240	45.6720
 0.9250	45.6650
 0.9260	45.6620
 0.9270	45.6520
 0.9280	45.6360
 0.9290	45.6220
 0.9300	45.6100
 0.9310	45.5920
 0.9320	45.5750
 0.9330	45.5600
 0.9340	45.5460
 0.9350	45.5300
 0.9360	45.5080
 0.9370	45.4860
 0.9380	45.4660
 0.9390	45.4440
 0.9400	45.4190
 0.9410	45.3960
 0.9420	45.3720
 0.9430	45.3380
 0.9440	45.3060
 0.9450	45.2750
 0.9460	45.2450
 0.9470	45.2070
 0.9480	45.1690
 0.9490	45.1270
 0.9500	45.0800
 0.9510	45.0410
 0.9520	44.9970
 0.9530	44.9500
 0.9540	44.9010
 0.9550	44.8430
 0.9560	44.7910
 0.9570	44.7460
 0.9580	44.7060
 0.9590	44.6620
 0.9600	44.6190
 0.9610	44.5820
 0.9620	44.5520
 0.9630	44.5240
 0.9640	44.4950
 0.9650	44.4670
 0.9660	44.4410
 0.9670	44.4150
 0.9680	44.3990
 0.9690	44.3850
 0.9700	44.3630
 0.9710	44.3430
 0.9720	44.3200
 0.9730	44.3020
 0.9740	44.2970
 0.9750	44.2810
 0.9760	44.2710
 0.9770	44.2670
 0.9780	44.2600
 0.9790	44.2470
 0.9800	44.2390
 0.9810	44.2380
 0.9820	44.2400
 0.9830	44.2420
 0.9840	44.2270
 0.9850	44.2110
 0.9860	44.2170
 0.9870	44.2210
 0.9880	44.2160
 0.9890	44.2140
 0.9900	44.2280
 0.9910	44.2210
 0.9920	44.2300
 0.9930	44.2430
 0.9940	44.2340
 0.9950	44.2320
 0.9960	44.2390
 0.9970	44.2530
 0.9980	44.2670
 0.9990	44.2620
 1.0000	44.2680
 1.0010	44.1410
 1.0020	44.1510
 1.0030	44.1590
 1.0040	44.1640
 1.0050	44.1750
 1.0060	44.1880
 1.0070	44.1980
 1.0080	44.2100
 1.0090	44.2240
 1.0100	44.2350
 1.0110	44.2450
 1.0120	44.2560
 1.0130	44.2610
 1.0140	44.2720
 1.0150	44.2870
 1.0160	44.3010
 1.0170	44.3140
 1.0180	44.3280
 1.0190	44.3380
 1.0200	44.3460
 1.0210	44.3580
 1.0220	44.3730
 1.0230	44.3860
 1.0240	44.3970
 1.0250	44.4100
 1.0260	44.4230
 1.0270	44.4350
 1.0280	44.4460
 1.0290	44.4570
 1.0300	44.4630
 1.0310	44.4730
 1.0320	44.4840
 1.0330	44.4950
 1.0340	44.5040
 1.0350	44.5140
 1.0360	44.5250
 1.0370	44.5370
 1.0380	44.5470
 1.0390	44.5570
 1.0400	44.5670
 1.0410	44.5740
 1.0420	44.5820
 1.0430	44.5910
 1.0440	44.5980
 1.0450	44.6010
 1.0460	44.6060
 1.0470	44.6120
 1.0480	44.6190
 1.0490	44.6300
 1.0500	44.6380
 1.0510	44.6440
 1.0520	44.6520
 1.0530	44.6570
 1.0540	44.6600
 1.0550	44.6650
 1.0560	44.6710
 1.0570	44.6750
 1.0580	44.6760
 1.0590	44.6800
 1.0600	44.6830
 1.0610	44.6860
 1.0620	44.6870
 1.0630	44.6900
 1.0640	44.6930
 1.0650	44.6950
 1.0660	44.7000
 1.0670	44.7020
 1.0680	44.7040
 1.0690	44.7040
 1.0700	44.7040
 1.0710	44.7020
 1.0720	44.7010
 1.0730	44.6980
 1.0740	44.6980
 1.0750	44.6990
 1.0760	44.6980
 1.0770	44.7000
 1.0780	44.6980
 1.0790	44.6900
 1.0800	44.6860
 1.0810	44.6820
 1.0820	44.6780
 1.0830	44.6770
 1.0840	44.6750
 1.0850	44.6730
 1.0860	44.6710
 1.0870	44.6670
 1.0880	44.6630
 1.0890	44.6580
 1.0900	44.6520
 1.0910	44.6460
 1.0920	44.6420
 1.0930	44.6350
 1.0940	44.6260
 1.0950	44.6190
 1.0960	44.6140
 1.0970	44.6070
 1.0980	44.6020
 1.0990	44.5950
 1.1000	44.5870
 1.1010	44.5780
 1.1020	44.5680
 1.1030	44.5580
 1.1040	44.5490
 1.1050	44.5420
 1.1060	44.5320
 1.1070	44.5230
 1.1080	44.5130
 1.1090	44.5010
 1.1100	44.4910
 1.1110	44.4820
 1.1120	44.4710
 1.1130	44.4610
 1.1140	44.4490
 1.1150	44.4370
 1.1160	44.4230
 1.1170	44.4080
 1.1180	44.3900
 1.1190	44.3710
 1.1200	44.3500
 1.1210	44.3280
 1.1220	44.3040
 1.1230	44.2790
 1.1240	44.2510
 1.1250	44.2180
 1.1260	44.1820
 1.1270	44.1420
 1.1280	44.0990
 1.1290	44.0500
 1.1300	43.9980
 1.1310	43.9380
 1.1320	43.8730
 1.1330	43.8040
 1.1340	43.7290
 1.1350	43.6490
 1.1360	43.5670
 1.1370	43.4770
 1.1380	43.3840
 1.1390	43.2870
 1.1400	43.1830
 1.1410	43.0780
 1.1420	42.9690
 1.1430	42.8580
 1.1440	42.7490
 1.1450	42.6390
 1.1460	42.5310
 1.1470	42.4230
 1.1480	42.3200
 1.1490	42.2160
 1.1500	42.1200
 1.1510	42.0290
 1.1520	41.9430
 1.1530	41.8620
 1.1540	41.7870
 1.1550	41.7160
 1.1560	41.6500
 1.1570	41.5900
 1.1580	41.5340
 1.1590	41.4840
 1.1600	41.4370
 1.1610	41.3930
 1.1620	41.3530
 1.1630	41.3170
 1.1640	41.2810
 1.1650	41.2470
 1.1660	41.2150
 1.1670	41.1840
 1.1680	41.1540
 1.1690	41.1250
 1.1700	41.0990
 1.1710	41.0740
 1.1720	41.0500
 1.1730	41.0250
 1.1740	41.0010
 1.1750	40.9760
 1.1760	40.9520
 1.1770	40.9260
 1.1780	40.9000
 1.1790	40.8740
 1.1800	40.8470
 1.1810	40.8200
 1.1820	40.7940
 1.1830	40.7670
 1.1840	40.7390
 1.1850	40.7140
 1.1860	40.6900
 1.1870	40.6690
 1.1880	40.6500
 1.1890	40.6340
 1.1900	40.6200
 1.1910	40.6080
 1.1920	40.5990
 1.1930	40.5930
 1.1940	40.5870
 1.1950	40.5830
 1.1960	40.5810
 1.1970	40.5790
 1.1980	40.5810
 1.1990	40.5870
 1.2000	40.5940
 1.2010	40.6030
 1.2020	40.6120
 1.2030	40.6230
 1.2040	40.6340
 1.2050	40.6460
 1.2060	40.6590
 1.2070	40.6730
 1.2080	40.6880
 1.2090	40.7060
 1.2100	40.7240
 1.2110	40.7420
 1.2120	40.7620
 1.2130	40.7820
 1.2140	40.8020
 1.2150	40.8230
 1.2160	40.8440
 1.2170	40.8660
 1.2180	40.8870
 1.2190	40.9080
 1.2200	40.9290
 1.2210	40.9520
 1.2220	40.9760
 1.2230	40.9990
 1.2240	41.0220
 1.2250	41.0450
 1.2260	41.0660
 1.2270	41.0890
 1.2280	41.1120
 1.2290	41.1330
 1.2300	41.1530
 1.2310	41.1710
 1.2320	41.1890
 1.2330	41.2080
 1.2340	41.2260
 1.2350	41.2430
 1.2360	41.2600
 1.2370	41.2760
 1.2380	41.2920
 1.2390	41.3070
 1.2400	41.3220
 1.2410	41.3350
 1.2420	41.3470
 1.2430	41.3590
 1.2440	41.3730
 1.2450	41.3860
 1.2460	41.3980
 1.2470	41.4080
 1.2480	41.4160
 1.2490	41.4250
 1.2500	41.4350
 1.2510	41.4430
 1.2520	41.4540
 1.2530	41.4640
 1.2540	41.4710
 1.2550	41.4780
 1.2560	41.4840
 1.2570	41.4890
 1.2580	41.4950
 1.2590	41.4990
 1.2600	41.5020
 1.2610	41.5050
 1.2620	41.5060
 1.2630	41.5070
 1.2640	41.5080
 1.2650	41.5070
 1.2660	41.5070
 1.2670	41.5050
 1.2680	41.5010
 1.2690	41.4960
 1.2700	41.4900
 1.2710	41.4830
 1.2720	41.4760
 1.2730	41.4690
 1.2740	41.4620
 1.2750	41.4530
 1.2760	41.4430
 1.2770	41.4330
 1.2780	41.4210
 1.2790	41.4090
 1.2800	41.3970
 1.2810	41.3810
 1.2820	41.3660
 1.2830	41.3490
 1.2840	41.3280
 1.2850	41.3090
 1.2860	41.2900
 1.2870	41.2680
 1.2880	41.2430
 1.2890	41.2190
 1.2900	41.1940
 1.2910	41.1640
 1.2920	41.1340
 1.2930	41.1050
 1.2940	41.0720
 1.2950	41.0380
 1.2960	41.0020
 1.2970	40.9640
 1.2980	40.9240
 1.2990	40.8830
 1.3000	40.8420
 1.3010	40.7970
 1.3020	40.7500
 1.3030	40.7010
 1.3040	40.6470
 1.3050	40.5940
 1.3060	40.5420
 1.3070	40.4870
 1.3080	40.4310
 1.3090	40.3740
 1.3100	40.3110
 1.3110	40.2460
 1.3120	40.1770
 1.3130	40.1060
 1.3140	40.0330
 1.3150	39.9560
 1.3160	39.8780
 1.3170	39.7990
 1.3180	39.7170
 1.3190	39.6320
 1.3200	39.5480
 1.3210	39.4610
 1.3220	39.3700
 1.3230	39.2780
 1.3240	39.1840
 1.3250	39.0870
 1.3260	38.9880
 1.3270	38.8870
 1.3280	38.7840
 1.3290	38.6790
 1.3300	38.5720
 1.3310	38.4630
 1.3320	38.3530
 1.3330	38.2400
 1.3340	38.1260
 1.3350	38.0120
 1.3360	37.8970
 1.3370	37.7810
 1.3380	37.6680
 1.3390	37.5530
 1.3400	37.4390
 1.3410	37.3260
 1.3420	37.2120
 1.3430	37.1000
 1.3440	36.9900
 1.3450	36.8790
 1.3460	36.7670
 1.3470	36.6580
 1.3480	36.5490
 1.3490	36.4410
 1.3500	36.3360
 1.3510	36.2290
 1.3520	36.1210
 1.3530	36.0150
 1.3540	35.9070
 1.3550	35.8010
 1.3560	35.6930
 1.3570	35.5840
 1.3580	35.4750
 1.3590	35.3630
 1.3600	35.2490
 1.3610	35.1330
 1.3620	35.0120
 1.3630	34.8870
 1.3640	34.7570
 1.3650	34.6200
 1.3660	34.4760
 1.3670	34.3240
 1.3680	34.1620
 1.3690	33.9930
 1.3700	33.8110
 1.3710	33.6180
 1.3720	33.4140
 1.3730	33.1940
 1.3740	32.9600
 1.3750	32.7090
 1.3760	32.4370
 1.3770	32.1460
 1.3780	31.8310
 1.3790	31.4970
 1.3800	31.1410
 1.3810	30.7610
 1.3820	30.3630
 1.3830	29.9450
 1.3840	29.5060
 1.3850	29.0470
 1.3860	28.5730
 1.3870	28.0760
 1.3880	27.5740
 1.3890	27.0580
 1.3900	26.5300
 1.3910	26.0020
 1.3920	25.4660
 1.3930	24.9240
 1.3940	24.3860
 1.3950	23.8440
 1.3960	23.3110
 1.3970	22.7880
 1.3980	22.2720
 1.3990	21.7760
 1.4000	21.2930
 1.4010	20.8220
 1.4020	20.3710
 1.4030	19.9340
 1.4040	19.5150
 1.4050	19.1170
 1.4060	18.7370
 1.4070	18.3810
 1.4080	18.0460
 1.4090	17.7270
 1.4100	17.4280
 1.4110	17.1460
 1.4120	16.8810
 1.4130	16.6350
 1.4140	16.4040
 1.4150	16.1910
 1.4160	15.9920
 1.4170	15.8070
 1.4180	15.6360
 1.4190	15.4740
 1.4200	15.3240
 1.4210	15.1860
 1.4220	15.0560
 1.4230	14.9390
 1.4240	14.8310
 1.4250	14.7290
 1.4260	14.6360
 1.4270	14.5480
 1.4280	14.4660
 1.4290	14.3910
 1.4300	14.3230
 1.4310	14.2590
 1.4320	14.2030
 1.4330	14.1500
 1.4340	14.1030
 1.4350	14.0600
 1.4360	14.0230
 1.4370	13.9890
 1.4380	13.9580
 1.4390	13.9310
 1.4400	13.9080
 1.4410	13.8880
 1.4420	13.8720
 1.4430	13.8590
 1.4440	13.8470
 1.4450	13.8380
 1.4460	13.8320
 1.4470	13.8280
 1.4480	13.8250
 1.4490	13.8250
 1.4500	13.8250
 1.4510	13.8280
 1.4520	13.8340
 1.4530	13.8400
 1.4540	13.8490
 1.4550	13.8600
 1.4560	13.8730
 1.4570	13.8900
 1.4580	13.9090
 1.4590	13.9320
 1.4600	13.9580
 1.4610	13.9870
 1.4620	14.0210
 1.4630	14.0580
 1.4640	14.1000
 1.4650	14.1450
 1.4660	14.1940
 1.4670	14.2480
 1.4680	14.3070
 1.4690	14.3700
 1.4700	14.4370
 1.4710	14.5080
 1.4720	14.5820
 1.4730	14.6590
 1.4740	14.7400
 1.4750	14.8250
 1.4760	14.9120
 1.4770	15.0010
