Name: Baccharis pilularis 3
Type: vegetation
Class: Shrub
Genus: Baccharis
Species: pilularis
Sample No.: VH006
Owner: UCSB
Wavelength Range: VSWIR
Origin: 34.418; -119.8456; WGS84
Collection Date: 4/1/2013
Description: Samples were collected as part of the HyspIRI Airborne Campaign. 48 individual plants were sampled in three times in 2013 - spring  summer  and fall. The name of the sample includes a 1  2  or 3 which references a different individual of the species. Samples were taken to JPL and processed within 48 hours of collection. The same leaves were processed in the Nicolet and then measured using the ASD.
Measurement: Bidirectional reflectance
First Column: X
Second Column: Y
X Units: Wavelength (micrometers)
Y Units: Reflectance (percentage)
First X Value: 0.35
Last X Value: 2.5
Number of X Values: 2151
Additional Information: vegetation.shrub.baccharis.pilularis.vswir.vh006.ucsb.asd.ancillary.txt

 0.3500	 3.8040
 0.3510	 3.7450
 0.3520	 3.5470
 0.3530	 3.3350
 0.3540	 3.2230
 0.3550	 3.2170
 0.3560	 3.2740
 0.3570	 3.3350
 0.3580	 3.3560
 0.3590	 3.4000
 0.3600	 3.3950
 0.3610	 3.3560
 0.3620	 3.4350
 0.3630	 3.4270
 0.3640	 3.4090
 0.3650	 3.4620
 0.3660	 3.4080
 0.3670	 3.4080
 0.3680	 3.4360
 0.3690	 3.3520
 0.3700	 3.3450
 0.3710	 3.3560
 0.3720	 3.3530
 0.3730	 3.4020
 0.3740	 3.4160
 0.3750	 3.3950
 0.3760	 3.3720
 0.3770	 3.3890
 0.3780	 3.4620
 0.3790	 3.5180
 0.3800	 3.4360
 0.3810	 3.5320
 0.3820	 3.5940
 0.3830	 3.4940
 0.3840	 3.4780
 0.3850	 3.5010
 0.3860	 3.5270
 0.3870	 3.5220
 0.3880	 3.4890
 0.3890	 3.4640
 0.3900	 3.4690
 0.3910	 3.5100
 0.3920	 3.5300
 0.3930	 3.5430
 0.3940	 3.5570
 0.3950	 3.5200
 0.3960	 3.5490
 0.3970	 3.5990
 0.3980	 3.5690
 0.3990	 3.5470
 0.4000	 3.5700
 0.4010	 3.6080
 0.4020	 3.5640
 0.4030	 3.5810
 0.4040	 3.6270
 0.4050	 3.6470
 0.4060	 3.6560
 0.4070	 3.6850
 0.4080	 3.7330
 0.4090	 3.7750
 0.4100	 3.7940
 0.4110	 3.8160
 0.4120	 3.8510
 0.4130	 3.8800
 0.4140	 3.9060
 0.4150	 3.9300
 0.4160	 3.9550
 0.4170	 3.9870
 0.4180	 4.0170
 0.4190	 4.0510
 0.4200	 4.1130
 0.4210	 4.1410
 0.4220	 4.1560
 0.4230	 4.1840
 0.4240	 4.2360
 0.4250	 4.2670
 0.4260	 4.2880
 0.4270	 4.3370
 0.4280	 4.3880
 0.4290	 4.4260
 0.4300	 4.4510
 0.4310	 4.4810
 0.4320	 4.5100
 0.4330	 4.5370
 0.4340	 4.5680
 0.4350	 4.6180
 0.4360	 4.6590
 0.4370	 4.6820
 0.4380	 4.6960
 0.4390	 4.7110
 0.4400	 4.7270
 0.4410	 4.7430
 0.4420	 4.7690
 0.4430	 4.8000
 0.4440	 4.8290
 0.4450	 4.8520
 0.4460	 4.9060
 0.4470	 4.9440
 0.4480	 4.9560
 0.4490	 4.9820
 0.4500	 5.0080
 0.4510	 5.0330
 0.4520	 5.0590
 0.4530	 5.0860
 0.4540	 5.1200
 0.4550	 5.1510
 0.4560	 5.1680
 0.4570	 5.1860
 0.4580	 5.2040
 0.4590	 5.2210
 0.4600	 5.2320
 0.4610	 5.2530
 0.4620	 5.2780
 0.4630	 5.2950
 0.4640	 5.3030
 0.4650	 5.3140
 0.4660	 5.3280
 0.4670	 5.3330
 0.4680	 5.3430
 0.4690	 5.3540
 0.4700	 5.3630
 0.4710	 5.3820
 0.4720	 5.3810
 0.4730	 5.3770
 0.4740	 5.4040
 0.4750	 5.4140
 0.4760	 5.4140
 0.4770	 5.4170
 0.4780	 5.4330
 0.4790	 5.4480
 0.4800	 5.4580
 0.4810	 5.4650
 0.4820	 5.4740
 0.4830	 5.4910
 0.4840	 5.5110
 0.4850	 5.5250
 0.4860	 5.5400
 0.4870	 5.5600
 0.4880	 5.5870
 0.4890	 5.6200
 0.4900	 5.6590
 0.4910	 5.7020
 0.4920	 5.7490
 0.4930	 5.7900
 0.4940	 5.8340
 0.4950	 5.8870
 0.4960	 5.9630
 0.4970	 6.0320
 0.4980	 6.1010
 0.4990	 6.1880
 0.5000	 6.2870
 0.5010	 6.3810
 0.5020	 6.4770
 0.5030	 6.6030
 0.5040	 6.7330
 0.5050	 6.8700
 0.5060	 7.0200
 0.5070	 7.1880
 0.5080	 7.3750
 0.5090	 7.5760
 0.5100	 7.7820
 0.5110	 8.0090
 0.5120	 8.2570
 0.5130	 8.5220
 0.5140	 8.7950
 0.5150	 9.0830
 0.5160	 9.3870
 0.5170	 9.7070
 0.5180	10.0360
 0.5190	10.3770
 0.5200	10.7240
 0.5210	11.0650
 0.5220	11.4100
 0.5230	11.7530
 0.5240	12.0900
 0.5250	12.4270
 0.5260	12.7550
 0.5270	13.0610
 0.5280	13.3410
 0.5290	13.6080
 0.5300	13.8610
 0.5310	14.1000
 0.5320	14.3200
 0.5330	14.5260
 0.5340	14.7140
 0.5350	14.8800
 0.5360	15.0390
 0.5370	15.1820
 0.5380	15.3100
 0.5390	15.4270
 0.5400	15.5500
 0.5410	15.6710
 0.5420	15.7820
 0.5430	15.8830
 0.5440	15.9800
 0.5450	16.0680
 0.5460	16.1390
 0.5470	16.1910
 0.5480	16.2360
 0.5490	16.2830
 0.5500	16.3290
 0.5510	16.3640
 0.5520	16.3830
 0.5530	16.3830
 0.5540	16.3680
 0.5550	16.3420
 0.5560	16.3030
 0.5570	16.2450
 0.5580	16.1710
 0.5590	16.0870
 0.5600	15.9930
 0.5610	15.8820
 0.5620	15.7610
 0.5630	15.6310
 0.5640	15.4940
 0.5650	15.3430
 0.5660	15.1790
 0.5670	15.0060
 0.5680	14.8330
 0.5690	14.6560
 0.5700	14.4750
 0.5710	14.2900
 0.5720	14.1030
 0.5730	13.9170
 0.5740	13.7420
 0.5750	13.5940
 0.5760	13.4560
 0.5770	13.3220
 0.5780	13.1890
 0.5790	13.0650
 0.5800	12.9430
 0.5810	12.8230
 0.5820	12.7110
 0.5830	12.6060
 0.5840	12.5100
 0.5850	12.4210
 0.5860	12.3390
 0.5870	12.2560
 0.5880	12.1720
 0.5890	12.0920
 0.5900	12.0260
 0.5910	11.9830
 0.5920	11.9540
 0.5930	11.9220
 0.5940	11.8860
 0.5950	11.8450
 0.5960	11.8020
 0.5970	11.7680
 0.5980	11.7330
 0.5990	11.6970
 0.6000	11.6580
 0.6010	11.6100
 0.6020	11.5560
 0.6030	11.4930
 0.6040	11.4150
 0.6050	11.3280
 0.6060	11.2330
 0.6070	11.1310
 0.6080	11.0220
 0.6090	10.9080
 0.6100	10.7960
 0.6110	10.6910
 0.6120	10.5690
 0.6130	10.4370
 0.6140	10.3090
 0.6150	10.1910
 0.6160	10.0790
 0.6170	 9.9720
 0.6180	 9.8750
 0.6190	 9.7940
 0.6200	 9.7210
 0.6210	 9.6530
 0.6220	 9.5920
 0.6230	 9.5360
 0.6240	 9.4890
 0.6250	 9.4550
 0.6260	 9.4250
 0.6270	 9.4010
 0.6280	 9.3820
 0.6290	 9.3690
 0.6300	 9.3630
 0.6310	 9.3530
 0.6320	 9.3360
 0.6330	 9.3150
 0.6340	 9.2870
 0.6350	 9.2500
 0.6360	 9.2030
 0.6370	 9.1460
 0.6380	 9.0770
 0.6390	 8.9940
 0.6400	 8.8990
 0.6410	 8.7930
 0.6420	 8.6810
 0.6430	 8.5630
 0.6440	 8.4420
 0.6450	 8.3130
 0.6460	 8.1840
 0.6470	 8.0600
 0.6480	 7.9390
 0.6490	 7.8220
 0.6500	 7.7130
 0.6510	 7.6110
 0.6520	 7.5190
 0.6530	 7.4290
 0.6540	 7.3350
 0.6550	 7.2360
 0.6560	 7.1280
 0.6570	 7.0140
 0.6580	 6.8980
 0.6590	 6.7670
 0.6600	 6.6340
 0.6610	 6.5060
 0.6620	 6.3810
 0.6630	 6.2630
 0.6640	 6.1550
 0.6650	 6.0600
 0.6660	 5.9720
 0.6670	 5.8990
 0.6680	 5.8410
 0.6690	 5.7940
 0.6700	 5.7540
 0.6710	 5.7250
 0.6720	 5.7060
 0.6730	 5.6930
 0.6740	 5.6920
 0.6750	 5.6980
 0.6760	 5.7110
 0.6770	 5.7340
 0.6780	 5.7630
 0.6790	 5.8000
 0.6800	 5.8480
 0.6810	 5.9100
 0.6820	 5.9890
 0.6830	 6.0900
 0.6840	 6.2180
 0.6850	 6.3800
 0.6860	 6.5820
 0.6870	 6.8280
 0.6880	 7.1320
 0.6890	 7.4980
 0.6900	 7.9340
 0.6910	 8.4440
 0.6920	 9.0270
 0.6930	 9.6860
 0.6940	10.4160
 0.6950	11.2070
 0.6960	12.0600
 0.6970	12.9660
 0.6980	13.9120
 0.6990	14.8940
 0.7000	15.9010
 0.7010	16.9220
 0.7020	17.9440
 0.7030	18.9620
 0.7040	19.9670
 0.7050	20.9500
 0.7060	21.9140
 0.7070	22.8520
 0.7080	23.7620
 0.7090	24.6470
 0.7100	25.4990
 0.7110	26.3250
 0.7120	27.1280
 0.7130	27.9010
 0.7140	28.6410
 0.7150	29.3530
 0.7160	30.0400
 0.7170	30.6960
 0.7180	31.3260
 0.7190	31.9280
 0.7200	32.4970
 0.7210	33.0450
 0.7220	33.5660
 0.7230	34.0600
 0.7240	34.5280
 0.7250	34.9630
 0.7260	35.3720
 0.7270	35.7630
 0.7280	36.1310
 0.7290	36.4700
 0.7300	36.7860
 0.7310	37.0880
 0.7320	37.3740
 0.7330	37.6350
 0.7340	37.8710
 0.7350	38.0930
 0.7360	38.3020
 0.7370	38.4940
 0.7380	38.6680
 0.7390	38.8420
 0.7400	39.0070
 0.7410	39.1570
 0.7420	39.2860
 0.7430	39.4040
 0.7440	39.5260
 0.7450	39.6450
 0.7460	39.7410
 0.7470	39.8240
 0.7480	39.9040
 0.7490	39.9840
 0.7500	40.0470
 0.7510	40.1070
 0.7520	40.1660
 0.7530	40.2220
 0.7540	40.2670
 0.7550	40.3070
 0.7560	40.3450
 0.7570	40.3780
 0.7580	40.4120
 0.7590	40.4470
 0.7600	40.4790
 0.7610	40.5090
 0.7620	40.5310
 0.7630	40.5530
 0.7640	40.5830
 0.7650	40.6080
 0.7660	40.6160
 0.7670	40.6220
 0.7680	40.6530
 0.7690	40.6740
 0.7700	40.6860
 0.7710	40.6950
 0.7720	40.7070
 0.7730	40.7270
 0.7740	40.7460
 0.7750	40.7590
 0.7760	40.7710
 0.7770	40.7880
 0.7780	40.8050
 0.7790	40.8120
 0.7800	40.8250
 0.7810	40.8400
 0.7820	40.8560
 0.7830	40.8770
 0.7840	40.8890
 0.7850	40.8980
 0.7860	40.9120
 0.7870	40.9400
 0.7880	40.9510
 0.7890	40.9530
 0.7900	40.9620
 0.7910	40.9740
 0.7920	40.9870
 0.7930	41.0020
 0.7940	41.0190
 0.7950	41.0300
 0.7960	41.0330
 0.7970	41.0330
 0.7980	41.0470
 0.7990	41.0600
 0.8000	41.0650
 0.8010	41.0640
 0.8020	41.0730
 0.8030	41.0770
 0.8040	41.0800
 0.8050	41.0900
 0.8060	41.0880
 0.8070	41.0920
 0.8080	41.1000
 0.8090	41.0930
 0.8100	41.0890
 0.8110	41.0880
 0.8120	41.0860
 0.8130	41.0870
 0.8140	41.0820
 0.8150	41.0770
 0.8160	41.0750
 0.8170	41.0680
 0.8180	41.0580
 0.8190	41.0510
 0.8200	41.0500
 0.8210	41.0420
 0.8220	41.0320
 0.8230	41.0270
 0.8240	41.0310
 0.8250	41.0150
 0.8260	40.9910
 0.8270	40.9750
 0.8280	40.9730
 0.8290	40.9660
 0.8300	40.9560
 0.8310	40.9480
 0.8320	40.9330
 0.8330	40.9190
 0.8340	40.9080
 0.8350	40.9010
 0.8360	40.8940
 0.8370	40.8870
 0.8380	40.8810
 0.8390	40.8790
 0.8400	40.8680
 0.8410	40.8590
 0.8420	40.8610
 0.8430	40.8730
 0.8440	40.8600
 0.8450	40.8490
 0.8460	40.8630
 0.8470	40.8600
 0.8480	40.8550
 0.8490	40.8540
 0.8500	40.8580
 0.8510	40.8630
 0.8520	40.8630
 0.8530	40.8620
 0.8540	40.8670
 0.8550	40.8720
 0.8560	40.8770
 0.8570	40.8830
 0.8580	40.8840
 0.8590	40.8940
 0.8600	40.8980
 0.8610	40.8920
 0.8620	40.9020
 0.8630	40.9090
 0.8640	40.9130
 0.8650	40.9180
 0.8660	40.9350
 0.8670	40.9520
 0.8680	40.9580
 0.8690	40.9500
 0.8700	40.9680
 0.8710	40.9850
 0.8720	40.9950
 0.8730	41.0080
 0.8740	41.0340
 0.8750	41.0510
 0.8760	41.0590
 0.8770	41.0720
 0.8780	41.0880
 0.8790	41.1020
 0.8800	41.1150
 0.8810	41.1300
 0.8820	41.1420
 0.8830	41.1630
 0.8840	41.1930
 0.8850	41.2010
 0.8860	41.2120
 0.8870	41.2330
 0.8880	41.2600
 0.8890	41.2660
 0.8900	41.2880
 0.8910	41.3150
 0.8920	41.3260
 0.8930	41.3480
 0.8940	41.3750
 0.8950	41.3960
 0.8960	41.4000
 0.8970	41.4210
 0.8980	41.4460
 0.8990	41.4650
 0.9000	41.4840
 0.9010	41.5020
 0.9020	41.5140
 0.9030	41.5260
 0.9040	41.5570
 0.9050	41.5760
 0.9060	41.5900
 0.9070	41.6080
 0.9080	41.6210
 0.9090	41.6450
 0.9100	41.6680
 0.9110	41.6790
 0.9120	41.6820
 0.9130	41.6830
 0.9140	41.6960
 0.9150	41.7290
 0.9160	41.7360
 0.9170	41.7480
 0.9180	41.7650
 0.9190	41.7770
 0.9200	41.7890
 0.9210	41.7960
 0.9220	41.7960
 0.9230	41.7920
 0.9240	41.7860
 0.9250	41.7900
 0.9260	41.7950
 0.9270	41.7800
 0.9280	41.7650
 0.9290	41.7520
 0.9300	41.7440
 0.9310	41.7430
 0.9320	41.7290
 0.9330	41.7100
 0.9340	41.6880
 0.9350	41.6530
 0.9360	41.6350
 0.9370	41.6190
 0.9380	41.5890
 0.9390	41.5520
 0.9400	41.5270
 0.9410	41.5060
 0.9420	41.4780
 0.9430	41.4390
 0.9440	41.4020
 0.9450	41.3590
 0.9460	41.3050
 0.9470	41.2480
 0.9480	41.1910
 0.9490	41.1340
 0.9500	41.0720
 0.9510	40.9850
 0.9520	40.9000
 0.9530	40.8180
 0.9540	40.7390
 0.9550	40.6750
 0.9560	40.6040
 0.9570	40.5350
 0.9580	40.4790
 0.9590	40.4010
 0.9600	40.3650
 0.9610	40.3370
 0.9620	40.2730
 0.9630	40.2260
 0.9640	40.2100
 0.9650	40.2040
 0.9660	40.1820
 0.9670	40.1730
 0.9680	40.1680
 0.9690	40.1620
 0.9700	40.1530
 0.9710	40.1410
 0.9720	40.1430
 0.9730	40.1510
 0.9740	40.1530
 0.9750	40.1610
 0.9760	40.1750
 0.9770	40.1820
 0.9780	40.1760
 0.9790	40.1870
 0.9800	40.2050
 0.9810	40.2210
 0.9820	40.2310
 0.9830	40.2530
 0.9840	40.2690
 0.9850	40.2930
 0.9860	40.3380
 0.9870	40.3550
 0.9880	40.3730
 0.9890	40.3990
 0.9900	40.4300
 0.9910	40.4600
 0.9920	40.5420
 0.9930	40.6230
 0.9940	40.7050
 0.9950	40.7860
 0.9960	40.8680
 0.9970	40.9490
 0.9980	41.0310
 0.9990	41.1120
 1.0000	41.1940
 1.0010	41.2750
 1.0020	41.3570
 1.0030	41.4380
 1.0040	41.5200
 1.0050	41.6010
 1.0060	41.6830
 1.0070	41.7640
 1.0080	41.8460
 1.0090	41.9270
 1.0100	41.9270
 1.0110	41.9510
 1.0120	41.9750
 1.0130	41.9980
 1.0140	42.0210
 1.0150	42.0430
 1.0160	42.0690
 1.0170	42.0960
 1.0180	42.1210
 1.0190	42.1530
 1.0200	42.1820
 1.0210	42.2060
 1.0220	42.2300
 1.0230	42.2540
 1.0240	42.2760
 1.0250	42.2980
 1.0260	42.3210
 1.0270	42.3420
 1.0280	42.3580
 1.0290	42.3790
 1.0300	42.4020
 1.0310	42.4250
 1.0320	42.4510
 1.0330	42.4740
 1.0340	42.4900
 1.0350	42.5080
 1.0360	42.5260
 1.0370	42.5440
 1.0380	42.5670
 1.0390	42.5970
 1.0400	42.6170
 1.0410	42.6340
 1.0420	42.6530
 1.0430	42.6700
 1.0440	42.6860
 1.0450	42.7050
 1.0460	42.7190
 1.0470	42.7230
 1.0480	42.7350
 1.0490	42.7530
 1.0500	42.7660
 1.0510	42.7810
 1.0520	42.7960
 1.0530	42.8080
 1.0540	42.8170
 1.0550	42.8260
 1.0560	42.8380
 1.0570	42.8440
 1.0580	42.8460
 1.0590	42.8480
 1.0600	42.8450
 1.0610	42.8450
 1.0620	42.8460
 1.0630	42.8470
 1.0640	42.8520
 1.0650	42.8520
 1.0660	42.8460
 1.0670	42.8450
 1.0680	42.8440
 1.0690	42.8430
 1.0700	42.8400
 1.0710	42.8400
 1.0720	42.8330
 1.0730	42.8200
 1.0740	42.8110
 1.0750	42.8020
 1.0760	42.7940
 1.0770	42.7860
 1.0780	42.7780
 1.0790	42.7700
 1.0800	42.7620
 1.0810	42.7530
 1.0820	42.7430
 1.0830	42.7310
 1.0840	42.7200
 1.0850	42.7100
 1.0860	42.6960
 1.0870	42.6820
 1.0880	42.6670
 1.0890	42.6520
 1.0900	42.6330
 1.0910	42.6170
 1.0920	42.6030
 1.0930	42.5860
 1.0940	42.5680
 1.0950	42.5490
 1.0960	42.5260
 1.0970	42.5070
 1.0980	42.4900
 1.0990	42.4720
 1.1000	42.4540
 1.1010	42.4370
 1.1020	42.4170
 1.1030	42.4000
 1.1040	42.3850
 1.1050	42.3690
 1.1060	42.3520
 1.1070	42.3330
 1.1080	42.3160
 1.1090	42.2990
 1.1100	42.2820
 1.1110	42.2690
 1.1120	42.2490
 1.1130	42.2270
 1.1140	42.2050
 1.1150	42.1800
 1.1160	42.1540
 1.1170	42.1300
 1.1180	42.1000
 1.1190	42.0680
 1.1200	42.0320
 1.1210	41.9910
 1.1220	41.9470
 1.1230	41.8950
 1.1240	41.8400
 1.1250	41.7780
 1.1260	41.7110
 1.1270	41.6360
 1.1280	41.5560
 1.1290	41.4670
 1.1300	41.3720
 1.1310	41.2640
 1.1320	41.1480
 1.1330	41.0220
 1.1340	40.8850
 1.1350	40.7410
 1.1360	40.5910
 1.1370	40.4310
 1.1380	40.2630
 1.1390	40.0900
 1.1400	39.9080
 1.1410	39.7240
 1.1420	39.5390
 1.1430	39.3540
 1.1440	39.1720
 1.1450	38.9880
 1.1460	38.8140
 1.1470	38.6420
 1.1480	38.4830
 1.1490	38.3320
 1.1500	38.1920
 1.1510	38.0590
 1.1520	37.9410
 1.1530	37.8360
 1.1540	37.7410
 1.1550	37.6590
 1.1560	37.5870
 1.1570	37.5230
 1.1580	37.4700
 1.1590	37.4240
 1.1600	37.3860
 1.1610	37.3530
 1.1620	37.3240
 1.1630	37.3030
 1.1640	37.2870
 1.1650	37.2720
 1.1660	37.2640
 1.1670	37.2560
 1.1680	37.2500
 1.1690	37.2430
 1.1700	37.2390
 1.1710	37.2340
 1.1720	37.2290
 1.1730	37.2240
 1.1740	37.2200
 1.1750	37.2150
 1.1760	37.2100
 1.1770	37.2030
 1.1780	37.1940
 1.1790	37.1840
 1.1800	37.1750
 1.1810	37.1650
 1.1820	37.1570
 1.1830	37.1490
 1.1840	37.1380
 1.1850	37.1270
 1.1860	37.1170
 1.1870	37.1060
 1.1880	37.0970
 1.1890	37.0900
 1.1900	37.0850
 1.1910	37.0810
 1.1920	37.0800
 1.1930	37.0800
 1.1940	37.0830
 1.1950	37.0880
 1.1960	37.0960
 1.1970	37.1050
 1.1980	37.1170
 1.1990	37.1300
 1.2000	37.1420
 1.2010	37.1580
 1.2020	37.1740
 1.2030	37.1920
 1.2040	37.2120
 1.2050	37.2330
 1.2060	37.2530
 1.2070	37.2730
 1.2080	37.2960
 1.2090	37.3220
 1.2100	37.3480
 1.2110	37.3750
 1.2120	37.4050
 1.2130	37.4340
 1.2140	37.4630
 1.2150	37.4930
 1.2160	37.5240
 1.2170	37.5540
 1.2180	37.5830
 1.2190	37.6130
 1.2200	37.6440
 1.2210	37.6740
 1.2220	37.7040
 1.2230	37.7330
 1.2240	37.7630
 1.2250	37.7920
 1.2260	37.8190
 1.2270	37.8460
 1.2280	37.8710
 1.2290	37.8970
 1.2300	37.9240
 1.2310	37.9510
 1.2320	37.9760
 1.2330	37.9970
 1.2340	38.0190
 1.2350	38.0400
 1.2360	38.0610
 1.2370	38.0810
 1.2380	38.1040
 1.2390	38.1250
 1.2400	38.1450
 1.2410	38.1650
 1.2420	38.1830
 1.2430	38.2000
 1.2440	38.2150
 1.2450	38.2290
 1.2460	38.2440
 1.2470	38.2590
 1.2480	38.2720
 1.2490	38.2840
 1.2500	38.2970
 1.2510	38.3080
 1.2520	38.3190
 1.2530	38.3300
 1.2540	38.3370
 1.2550	38.3440
 1.2560	38.3500
 1.2570	38.3530
 1.2580	38.3570
 1.2590	38.3580
 1.2600	38.3560
 1.2610	38.3550
 1.2620	38.3550
 1.2630	38.3530
 1.2640	38.3490
 1.2650	38.3440
 1.2660	38.3390
 1.2670	38.3310
 1.2680	38.3230
 1.2690	38.3160
 1.2700	38.3050
 1.2710	38.2940
 1.2720	38.2810
 1.2730	38.2670
 1.2740	38.2530
 1.2750	38.2390
 1.2760	38.2220
 1.2770	38.2020
 1.2780	38.1810
 1.2790	38.1570
 1.2800	38.1330
 1.2810	38.1090
 1.2820	38.0820
 1.2830	38.0530
 1.2840	38.0210
 1.2850	37.9870
 1.2860	37.9490
 1.2870	37.9080
 1.2880	37.8640
 1.2890	37.8190
 1.2900	37.7690
 1.2910	37.7180
 1.2920	37.6660
 1.2930	37.6100
 1.2940	37.5510
 1.2950	37.4900
 1.2960	37.4230
 1.2970	37.3510
 1.2980	37.2760
 1.2990	37.2000
 1.3000	37.1240
 1.3010	37.0460
 1.3020	36.9630
 1.3030	36.8760
 1.3040	36.7840
 1.3050	36.6910
 1.3060	36.5950
 1.3070	36.4980
 1.3080	36.3980
 1.3090	36.2940
 1.3100	36.1870
 1.3110	36.0760
 1.3120	35.9620
 1.3130	35.8450
 1.3140	35.7250
 1.3150	35.6020
 1.3160	35.4760
 1.3170	35.3470
 1.3180	35.2150
 1.3190	35.0820
 1.3200	34.9460
 1.3210	34.8060
 1.3220	34.6640
 1.3230	34.5200
 1.3240	34.3720
 1.3250	34.2260
 1.3260	34.0770
 1.3270	33.9250
 1.3280	33.7710
 1.3290	33.6120
 1.3300	33.4540
 1.3310	33.2970
 1.3320	33.1390
 1.3330	32.9810
 1.3340	32.8240
 1.3350	32.6650
 1.3360	32.5070
 1.3370	32.3470
 1.3380	32.1890
 1.3390	32.0310
 1.3400	31.8730
 1.3410	31.7170
 1.3420	31.5630
 1.3430	31.4120
 1.3440	31.2610
 1.3450	31.1130
 1.3460	30.9660
 1.3470	30.8210
 1.3480	30.6750
 1.3490	30.5320
 1.3500	30.3910
 1.3510	30.2500
 1.3520	30.1090
 1.3530	29.9690
 1.3540	29.8270
 1.3550	29.6830
 1.3560	29.5390
 1.3570	29.3930
 1.3580	29.2450
 1.3590	29.0930
 1.3600	28.9370
 1.3610	28.7750
 1.3620	28.6050
 1.3630	28.4300
 1.3640	28.2490
 1.3650	28.0590
 1.3660	27.8610
 1.3670	27.6520
 1.3680	27.4290
 1.3690	27.1950
 1.3700	26.9450
 1.3710	26.6820
 1.3720	26.4050
 1.3730	26.1090
 1.3740	25.7980
 1.3750	25.4680
 1.3760	25.1160
 1.3770	24.7450
 1.3780	24.3500
 1.3790	23.9370
 1.3800	23.5060
 1.3810	23.0540
 1.3820	22.5910
 1.3830	22.1110
 1.3840	21.6220
 1.3850	21.1180
 1.3860	20.6100
 1.3870	20.0870
 1.3880	19.5710
 1.3890	19.0500
 1.3900	18.5290
 1.3910	18.0180
 1.3920	17.5120
 1.3930	17.0110
 1.3940	16.5220
 1.3950	16.0420
 1.3960	15.5780
 1.3970	15.1330
 1.3980	14.7050
 1.3990	14.3010
 1.4000	13.9170
 1.4010	13.5500
 1.4020	13.2070
 1.4030	12.8820
 1.4040	12.5790
 1.4050	12.2970
 1.4060	12.0350
 1.4070	11.7950
 1.4080	11.5730
 1.4090	11.3690
 1.4100	11.1820
 1.4110	11.0100
 1.4120	10.8520
 1.4130	10.7100
 1.4140	10.5800
 1.4150	10.4650
 1.4160	10.3610
 1.4170	10.2670
 1.4180	10.1830
 1.4190	10.1050
 1.4200	10.0350
 1.4210	 9.9730
 1.4220	 9.9190
 1.4230	 9.8720
 1.4240	 9.8300
 1.4250	 9.7920
 1.4260	 9.7600
 1.4270	 9.7310
 1.4280	 9.7080
 1.4290	 9.6880
 1.4300	 9.6710
 1.4310	 9.6580
 1.4320	 9.6480
 1.4330	 9.6410
 1.4340	 9.6370
 1.4350	 9.6350
 1.4360	 9.6360
 1.4370	 9.6390
 1.4380	 9.6430
 1.4390	 9.6500
 1.4400	 9.6580
 1.4410	 9.6680
 1.4420	 9.6800
 1.4430	 9.6920
 1.4440	 9.7040
 1.4450	 9.7180
 1.4460	 9.7330
 1.4470	 9.7490
 1.4480	 9.7660
 1.4490	 9.7830
 1.4500	 9.8010
 1.4510	 9.8190
 1.4520	 9.8400
 1.4530	 9.8610
 1.4540	 9.8830
 1.4550	 9.9080
 1.4560	 9.9330
 1.4570	 9.9590
 1.4580	 9.9900
 1.4590	10.0220
 1.4600	10.0570
 1.4610	10.0960
 1.4620	10.1380
 1.4630	10.1840
 1.4640	10.2330
 1.4650	10.2860
 1.4660	10.3420
 1.4670	10.4010
 1.4680	10.4650
 1.4690	10.5320
 1.4700	10.6020
