Name: Quercus douglasii 1
Type: vegetation
Class: Tree
Genus: Quercus
Species: douglasii
Sample No.: VH073
Owner: UCSB
Wavelength Range: VSWIR
Origin: 34.7153; -120.0598; WGS84
Collection Date: 4/21/2013
Description: Samples were collected as part of the HyspIRI Airborne Campaign. 48 individual plants were sampled in three times in 2013 - spring  summer  and fall. The name of the sample includes a 1  2  or 3 which references a different individual of the species. Samples were taken to JPL and processed within 48 hours of collection. The same leaves were processed in the Nicolet and then measured using the ASD.
Measurement: Bidirectional reflectance
First Column: X
Second Column: Y
X Units: Wavelength (micrometers)
Y Units: Reflectance (percentage)
First X Value: 0.35
Last X Value: 2.5
Number of X Values: 2151
Additional Information: vegetation.tree.quercus.douglasii.vswir.vh073.ucsb.asd.ancillary.txt

 0.3500	 3.9400
 0.3510	 4.0450
 0.3520	 4.0300
 0.3530	 3.9340
 0.3540	 3.8710
 0.3550	 3.9640
 0.3560	 3.9380
 0.3570	 3.8770
 0.3580	 3.9980
 0.3590	 3.9980
 0.3600	 3.9090
 0.3610	 3.7910
 0.3620	 3.6780
 0.3630	 3.7890
 0.3640	 3.9480
 0.3650	 3.9600
 0.3660	 3.9730
 0.3670	 3.9540
 0.3680	 3.8840
 0.3690	 3.7690
 0.3700	 3.8320
 0.3710	 3.9130
 0.3720	 3.8990
 0.3730	 3.8410
 0.3740	 3.7710
 0.3750	 3.7440
 0.3760	 3.7870
 0.3770	 3.7750
 0.3780	 3.8120
 0.3790	 3.9000
 0.3800	 3.9440
 0.3810	 3.8380
 0.3820	 3.7480
 0.3830	 3.7930
 0.3840	 3.8960
 0.3850	 3.9460
 0.3860	 3.9260
 0.3870	 3.8870
 0.3880	 3.9800
 0.3890	 4.0280
 0.3900	 3.9980
 0.3910	 4.0180
 0.3920	 4.0210
 0.3930	 4.0400
 0.3940	 4.0930
 0.3950	 4.0970
 0.3960	 4.0980
 0.3970	 4.1170
 0.3980	 4.1610
 0.3990	 4.2280
 0.4000	 4.2850
 0.4010	 4.3200
 0.4020	 4.3460
 0.4030	 4.4400
 0.4040	 4.5200
 0.4050	 4.5230
 0.4060	 4.5840
 0.4070	 4.6490
 0.4080	 4.7010
 0.4090	 4.7530
 0.4100	 4.8070
 0.4110	 4.8740
 0.4120	 4.9460
 0.4130	 4.9730
 0.4140	 5.0140
 0.4150	 5.0740
 0.4160	 5.1420
 0.4170	 5.2310
 0.4180	 5.2850
 0.4190	 5.3070
 0.4200	 5.3540
 0.4210	 5.4090
 0.4220	 5.4780
 0.4230	 5.5550
 0.4240	 5.5960
 0.4250	 5.6420
 0.4260	 5.6950
 0.4270	 5.7410
 0.4280	 5.7730
 0.4290	 5.8080
 0.4300	 5.8540
 0.4310	 5.9030
 0.4320	 5.9470
 0.4330	 5.9750
 0.4340	 5.9890
 0.4350	 6.0530
 0.4360	 6.0960
 0.4370	 6.1050
 0.4380	 6.1110
 0.4390	 6.1270
 0.4400	 6.1430
 0.4410	 6.1540
 0.4420	 6.1800
 0.4430	 6.2040
 0.4440	 6.2190
 0.4450	 6.2240
 0.4460	 6.2420
 0.4470	 6.2610
 0.4480	 6.2740
 0.4490	 6.2890
 0.4500	 6.3030
 0.4510	 6.3090
 0.4520	 6.3090
 0.4530	 6.3110
 0.4540	 6.3300
 0.4550	 6.3520
 0.4560	 6.3500
 0.4570	 6.3500
 0.4580	 6.3520
 0.4590	 6.3550
 0.4600	 6.3560
 0.4610	 6.3600
 0.4620	 6.3680
 0.4630	 6.3770
 0.4640	 6.3800
 0.4650	 6.3760
 0.4660	 6.3730
 0.4670	 6.3790
 0.4680	 6.3850
 0.4690	 6.3850
 0.4700	 6.3800
 0.4710	 6.3670
 0.4720	 6.3690
 0.4730	 6.3790
 0.4740	 6.3770
 0.4750	 6.3740
 0.4760	 6.3720
 0.4770	 6.3710
 0.4780	 6.3730
 0.4790	 6.3650
 0.4800	 6.3630
 0.4810	 6.3810
 0.4820	 6.3850
 0.4830	 6.3820
 0.4840	 6.3790
 0.4850	 6.3810
 0.4860	 6.3870
 0.4870	 6.3920
 0.4880	 6.3960
 0.4890	 6.4030
 0.4900	 6.4070
 0.4910	 6.4090
 0.4920	 6.4130
 0.4930	 6.4330
 0.4940	 6.4510
 0.4950	 6.4610
 0.4960	 6.4700
 0.4970	 6.4870
 0.4980	 6.5070
 0.4990	 6.5260
 0.5000	 6.5470
 0.5010	 6.5730
 0.5020	 6.6030
 0.5030	 6.6330
 0.5040	 6.6720
 0.5050	 6.7160
 0.5060	 6.7650
 0.5070	 6.8320
 0.5080	 6.9070
 0.5090	 6.9880
 0.5100	 7.0710
 0.5110	 7.1680
 0.5120	 7.2800
 0.5130	 7.4050
 0.5140	 7.5390
 0.5150	 7.6840
 0.5160	 7.8410
 0.5170	 8.0120
 0.5180	 8.1910
 0.5190	 8.3760
 0.5200	 8.5700
 0.5210	 8.7780
 0.5220	 8.9860
 0.5230	 9.1930
 0.5240	 9.3980
 0.5250	 9.6030
 0.5260	 9.8010
 0.5270	 9.9900
 0.5280	10.1650
 0.5290	10.3270
 0.5300	10.4810
 0.5310	10.6280
 0.5320	10.7600
 0.5330	10.8820
 0.5340	10.9940
 0.5350	11.0950
 0.5360	11.1860
 0.5370	11.2680
 0.5380	11.3440
 0.5390	11.4200
 0.5400	11.4920
 0.5410	11.5650
 0.5420	11.6410
 0.5430	11.7080
 0.5440	11.7680
 0.5450	11.8240
 0.5460	11.8730
 0.5470	11.9000
 0.5480	11.9240
 0.5490	11.9520
 0.5500	11.9790
 0.5510	11.9990
 0.5520	12.0100
 0.5530	12.0110
 0.5540	11.9980
 0.5550	11.9700
 0.5560	11.9240
 0.5570	11.8610
 0.5580	11.7850
 0.5590	11.7000
 0.5600	11.6070
 0.5610	11.5040
 0.5620	11.3980
 0.5630	11.2860
 0.5640	11.1630
 0.5650	11.0320
 0.5660	10.8940
 0.5670	10.7530
 0.5680	10.6060
 0.5690	10.4540
 0.5700	10.3040
 0.5710	10.1640
 0.5720	10.0250
 0.5730	 9.8960
 0.5740	 9.7790
 0.5750	 9.6710
 0.5760	 9.5720
 0.5770	 9.4790
 0.5780	 9.3850
 0.5790	 9.2900
 0.5800	 9.2040
 0.5810	 9.1260
 0.5820	 9.0540
 0.5830	 8.9900
 0.5840	 8.9220
 0.5850	 8.8510
 0.5860	 8.7880
 0.5870	 8.7210
 0.5880	 8.6580
 0.5890	 8.6040
 0.5900	 8.5580
 0.5910	 8.5230
 0.5920	 8.4990
 0.5930	 8.4790
 0.5940	 8.4620
 0.5950	 8.4420
 0.5960	 8.4160
 0.5970	 8.3900
 0.5980	 8.3640
 0.5990	 8.3340
 0.6000	 8.2990
 0.6010	 8.2640
 0.6020	 8.2290
 0.6030	 8.1910
 0.6040	 8.1460
 0.6050	 8.0960
 0.6060	 8.0430
 0.6070	 7.9890
 0.6080	 7.9320
 0.6090	 7.8760
 0.6100	 7.8250
 0.6110	 7.7770
 0.6120	 7.7140
 0.6130	 7.6380
 0.6140	 7.5590
 0.6150	 7.4970
 0.6160	 7.4360
 0.6170	 7.3800
 0.6180	 7.3350
 0.6190	 7.2920
 0.6200	 7.2550
 0.6210	 7.2230
 0.6220	 7.1890
 0.6230	 7.1630
 0.6240	 7.1390
 0.6250	 7.1150
 0.6260	 7.0970
 0.6270	 7.0840
 0.6280	 7.0750
 0.6290	 7.0660
 0.6300	 7.0620
 0.6310	 7.0530
 0.6320	 7.0390
 0.6330	 7.0260
 0.6340	 7.0100
 0.6350	 6.9890
 0.6360	 6.9620
 0.6370	 6.9300
 0.6380	 6.8920
 0.6390	 6.8500
 0.6400	 6.8080
 0.6410	 6.7630
 0.6420	 6.7120
 0.6430	 6.6590
 0.6440	 6.6060
 0.6450	 6.5580
 0.6460	 6.5130
 0.6470	 6.4680
 0.6480	 6.4290
 0.6490	 6.3930
 0.6500	 6.3600
 0.6510	 6.3320
 0.6520	 6.3080
 0.6530	 6.2830
 0.6540	 6.2560
 0.6550	 6.2260
 0.6560	 6.1940
 0.6570	 6.1640
 0.6580	 6.1340
 0.6590	 6.1030
 0.6600	 6.0730
 0.6610	 6.0420
 0.6620	 6.0060
 0.6630	 5.9780
 0.6640	 5.9570
 0.6650	 5.9370
 0.6660	 5.9160
 0.6670	 5.9030
 0.6680	 5.8930
 0.6690	 5.8830
 0.6700	 5.8740
 0.6710	 5.8690
 0.6720	 5.8670
 0.6730	 5.8700
 0.6740	 5.8720
 0.6750	 5.8730
 0.6760	 5.8780
 0.6770	 5.8870
 0.6780	 5.8980
 0.6790	 5.9090
 0.6800	 5.9210
 0.6810	 5.9390
 0.6820	 5.9590
 0.6830	 5.9800
 0.6840	 6.0080
 0.6850	 6.0440
 0.6860	 6.0880
 0.6870	 6.1420
 0.6880	 6.2160
 0.6890	 6.3140
 0.6900	 6.4440
 0.6910	 6.6100
 0.6920	 6.8320
 0.6930	 7.1110
 0.6940	 7.4480
 0.6950	 7.8540
 0.6960	 8.3270
 0.6970	 8.8650
 0.6980	 9.4690
 0.6990	10.1360
 0.7000	10.8550
 0.7010	11.6210
 0.7020	12.4250
 0.7030	13.2570
 0.7040	14.1090
 0.7050	14.9740
 0.7060	15.8520
 0.7070	16.7370
 0.7080	17.6220
 0.7090	18.5030
 0.7100	19.3850
 0.7110	20.2720
 0.7120	21.1610
 0.7130	22.0410
 0.7140	22.9120
 0.7150	23.7790
 0.7160	24.6410
 0.7170	25.4960
 0.7180	26.3400
 0.7190	27.1720
 0.7200	27.9890
 0.7210	28.7920
 0.7220	29.5760
 0.7230	30.3420
 0.7240	31.0950
 0.7250	31.8150
 0.7260	32.5110
 0.7270	33.1870
 0.7280	33.8370
 0.7290	34.4580
 0.7300	35.0530
 0.7310	35.6240
 0.7320	36.1590
 0.7330	36.6700
 0.7340	37.1600
 0.7350	37.6270
 0.7360	38.0570
 0.7370	38.4570
 0.7380	38.8380
 0.7390	39.2090
 0.7400	39.5560
 0.7410	39.8750
 0.7420	40.1720
 0.7430	40.4510
 0.7440	40.7160
 0.7450	40.9630
 0.7460	41.1800
 0.7470	41.3870
 0.7480	41.5810
 0.7490	41.7590
 0.7500	41.9280
 0.7510	42.0780
 0.7520	42.2110
 0.7530	42.3340
 0.7540	42.4480
 0.7550	42.5540
 0.7560	42.6510
 0.7570	42.7350
 0.7580	42.8160
 0.7590	42.8910
 0.7600	42.9590
 0.7610	43.0270
 0.7620	43.0790
 0.7630	43.1220
 0.7640	43.1670
 0.7650	43.2170
 0.7660	43.2590
 0.7670	43.2890
 0.7680	43.3130
 0.7690	43.3370
 0.7700	43.3650
 0.7710	43.3940
 0.7720	43.4120
 0.7730	43.4340
 0.7740	43.4540
 0.7750	43.4640
 0.7760	43.4820
 0.7770	43.5010
 0.7780	43.5140
 0.7790	43.5190
 0.7800	43.5300
 0.7810	43.5490
 0.7820	43.5690
 0.7830	43.5780
 0.7840	43.5790
 0.7850	43.5830
 0.7860	43.5930
 0.7870	43.6020
 0.7880	43.6100
 0.7890	43.6200
 0.7900	43.6310
 0.7910	43.6320
 0.7920	43.6340
 0.7930	43.6420
 0.7940	43.6530
 0.7950	43.6530
 0.7960	43.6480
 0.7970	43.6500
 0.7980	43.6720
 0.7990	43.6770
 0.8000	43.6710
 0.8010	43.6690
 0.8020	43.6720
 0.8030	43.6720
 0.8040	43.6680
 0.8050	43.6670
 0.8060	43.6760
 0.8070	43.6760
 0.8080	43.6690
 0.8090	43.6690
 0.8100	43.6710
 0.8110	43.6750
 0.8120	43.6790
 0.8130	43.6730
 0.8140	43.6700
 0.8150	43.6720
 0.8160	43.6780
 0.8170	43.6700
 0.8180	43.6680
 0.8190	43.6730
 0.8200	43.6740
 0.8210	43.6700
 0.8220	43.6750
 0.8230	43.6820
 0.8240	43.6690
 0.8250	43.6650
 0.8260	43.6600
 0.8270	43.6520
 0.8280	43.6570
 0.8290	43.6590
 0.8300	43.6600
 0.8310	43.6640
 0.8320	43.6620
 0.8330	43.6580
 0.8340	43.6550
 0.8350	43.6560
 0.8360	43.6700
 0.8370	43.6760
 0.8380	43.6720
 0.8390	43.6670
 0.8400	43.6730
 0.8410	43.6840
 0.8420	43.6930
 0.8430	43.6950
 0.8440	43.6950
 0.8450	43.6970
 0.8460	43.7020
 0.8470	43.7010
 0.8480	43.7100
 0.8490	43.7260
 0.8500	43.7380
 0.8510	43.7370
 0.8520	43.7380
 0.8530	43.7460
 0.8540	43.7560
 0.8550	43.7590
 0.8560	43.7610
 0.8570	43.7660
 0.8580	43.7750
 0.8590	43.7790
 0.8600	43.7810
 0.8610	43.7860
 0.8620	43.7960
 0.8630	43.8000
 0.8640	43.8060
 0.8650	43.8210
 0.8660	43.8190
 0.8670	43.8270
 0.8680	43.8370
 0.8690	43.8360
 0.8700	43.8420
 0.8710	43.8520
 0.8720	43.8570
 0.8730	43.8490
 0.8740	43.8540
 0.8750	43.8650
 0.8760	43.8770
 0.8770	43.8890
 0.8780	43.8840
 0.8790	43.8820
 0.8800	43.8940
 0.8810	43.9070
 0.8820	43.9030
 0.8830	43.8950
 0.8840	43.8980
 0.8850	43.9080
 0.8860	43.9130
 0.8870	43.9170
 0.8880	43.9270
 0.8890	43.9360
 0.8900	43.9330
 0.8910	43.9310
 0.8920	43.9450
 0.8930	43.9330
 0.8940	43.9220
 0.8950	43.9250
 0.8960	43.9370
 0.8970	43.9310
 0.8980	43.9330
 0.8990	43.9430
 0.9000	43.9390
 0.9010	43.9420
 0.9020	43.9470
 0.9030	43.9500
 0.9040	43.9530
 0.9050	43.9650
 0.9060	43.9680
 0.9070	43.9540
 0.9080	43.9370
 0.9090	43.9380
 0.9100	43.9520
 0.9110	43.9710
 0.9120	43.9900
 0.9130	43.9780
 0.9140	43.9560
 0.9150	43.9490
 0.9160	43.9530
 0.9170	43.9540
 0.9180	43.9490
 0.9190	43.9430
 0.9200	43.9470
 0.9210	43.9510
 0.9220	43.9450
 0.9230	43.9260
 0.9240	43.9200
 0.9250	43.9110
 0.9260	43.8940
 0.9270	43.8780
 0.9280	43.8760
 0.9290	43.8660
 0.9300	43.8450
 0.9310	43.8320
 0.9320	43.8220
 0.9330	43.8010
 0.9340	43.7700
 0.9350	43.7530
 0.9360	43.7360
 0.9370	43.7160
 0.9380	43.6950
 0.9390	43.6760
 0.9400	43.6580
 0.9410	43.6320
 0.9420	43.5970
 0.9430	43.5680
 0.9440	43.5480
 0.9450	43.5250
 0.9460	43.4890
 0.9470	43.4470
 0.9480	43.3980
 0.9490	43.3540
 0.9500	43.3210
 0.9510	43.2840
 0.9520	43.2400
 0.9530	43.1890
 0.9540	43.1350
 0.9550	43.0850
 0.9560	43.0180
 0.9570	42.9580
 0.9580	42.9250
 0.9590	42.8950
 0.9600	42.8460
 0.9610	42.7930
 0.9620	42.7560
 0.9630	42.7260
 0.9640	42.7000
 0.9650	42.6790
 0.9660	42.6600
 0.9670	42.6480
 0.9680	42.6430
 0.9690	42.6370
 0.9700	42.6190
 0.9710	42.5830
 0.9720	42.5840
 0.9730	42.6050
 0.9740	42.6010
 0.9750	42.5800
 0.9760	42.5730
 0.9770	42.5780
 0.9780	42.5800
 0.9790	42.5880
 0.9800	42.5910
 0.9810	42.5910
 0.9820	42.5930
 0.9830	42.5710
 0.9840	42.5750
 0.9850	42.6080
 0.9860	42.6360
 0.9870	42.6270
 0.9880	42.6420
 0.9890	42.6660
 0.9900	42.6680
 0.9910	42.7220
 0.9920	42.7660
 0.9930	42.8100
 0.9940	42.8550
 0.9950	42.8990
 0.9960	42.9440
 0.9970	42.9880
 0.9980	43.0330
 0.9990	43.0770
 1.0000	43.1220
 1.0010	43.1660
 1.0020	43.2110
 1.0030	43.2550
 1.0040	43.3000
 1.0050	43.3440
 1.0060	43.3890
 1.0070	43.4330
 1.0080	43.4780
 1.0090	43.5220
 1.0100	43.5220
 1.0110	43.5370
 1.0120	43.5550
 1.0130	43.5740
 1.0140	43.5940
 1.0150	43.6150
 1.0160	43.6350
 1.0170	43.6510
 1.0180	43.6670
 1.0190	43.6790
 1.0200	43.6900
 1.0210	43.7060
 1.0220	43.7200
 1.0230	43.7350
 1.0240	43.7510
 1.0250	43.7670
 1.0260	43.7820
 1.0270	43.7960
 1.0280	43.8120
 1.0290	43.8260
 1.0300	43.8370
 1.0310	43.8480
 1.0320	43.8610
 1.0330	43.8710
 1.0340	43.8850
 1.0350	43.9000
 1.0360	43.9130
 1.0370	43.9260
 1.0380	43.9400
 1.0390	43.9520
 1.0400	43.9630
 1.0410	43.9740
 1.0420	43.9830
 1.0430	43.9880
 1.0440	43.9960
 1.0450	44.0060
 1.0460	44.0140
 1.0470	44.0160
 1.0480	44.0250
 1.0490	44.0420
 1.0500	44.0510
 1.0510	44.0610
 1.0520	44.0710
 1.0530	44.0750
 1.0540	44.0690
 1.0550	44.0720
 1.0560	44.0790
 1.0570	44.0840
 1.0580	44.0910
 1.0590	44.0950
 1.0600	44.0980
 1.0610	44.1000
 1.0620	44.0990
 1.0630	44.1010
 1.0640	44.1050
 1.0650	44.1080
 1.0660	44.1160
 1.0670	44.1180
 1.0680	44.1180
 1.0690	44.1160
 1.0700	44.1130
 1.0710	44.1090
 1.0720	44.1030
 1.0730	44.0960
 1.0740	44.0910
 1.0750	44.0830
 1.0760	44.0780
 1.0770	44.0780
 1.0780	44.0760
 1.0790	44.0740
 1.0800	44.0720
 1.0810	44.0690
 1.0820	44.0660
 1.0830	44.0620
 1.0840	44.0570
 1.0850	44.0510
 1.0860	44.0450
 1.0870	44.0370
 1.0880	44.0270
 1.0890	44.0200
 1.0900	44.0150
 1.0910	44.0070
 1.0920	44.0010
 1.0930	43.9940
 1.0940	43.9830
 1.0950	43.9750
 1.0960	43.9690
 1.0970	43.9610
 1.0980	43.9510
 1.0990	43.9420
 1.1000	43.9320
 1.1010	43.9200
 1.1020	43.9070
 1.1030	43.8930
 1.1040	43.8810
 1.1050	43.8680
 1.1060	43.8570
 1.1070	43.8500
 1.1080	43.8370
 1.1090	43.8220
 1.1100	43.8080
 1.1110	43.7950
 1.1120	43.7800
 1.1130	43.7640
 1.1140	43.7480
 1.1150	43.7320
 1.1160	43.7140
 1.1170	43.7020
 1.1180	43.6820
 1.1190	43.6570
 1.1200	43.6310
 1.1210	43.6040
 1.1220	43.5730
 1.1230	43.5430
 1.1240	43.5110
 1.1250	43.4740
 1.1260	43.4340
 1.1270	43.3880
 1.1280	43.3400
 1.1290	43.2840
 1.1300	43.2210
 1.1310	43.1530
 1.1320	43.0790
 1.1330	43.0010
 1.1340	42.9190
 1.1350	42.8300
 1.1360	42.7350
 1.1370	42.6350
 1.1380	42.5280
 1.1390	42.4150
 1.1400	42.2950
 1.1410	42.1760
 1.1420	42.0560
 1.1430	41.9320
 1.1440	41.8090
 1.1450	41.6810
 1.1460	41.5610
 1.1470	41.4390
 1.1480	41.3240
 1.1490	41.2120
 1.1500	41.1080
 1.1510	41.0070
 1.1520	40.9130
 1.1530	40.8260
 1.1540	40.7480
 1.1550	40.6760
 1.1560	40.6120
 1.1570	40.5560
 1.1580	40.5050
 1.1590	40.4600
 1.1600	40.4200
 1.1610	40.3860
 1.1620	40.3580
 1.1630	40.3320
 1.1640	40.3100
 1.1650	40.2920
 1.1660	40.2770
 1.1670	40.2630
 1.1680	40.2510
 1.1690	40.2420
 1.1700	40.2360
 1.1710	40.2300
 1.1720	40.2270
 1.1730	40.2220
 1.1740	40.2160
 1.1750	40.2080
 1.1760	40.2030
 1.1770	40.1960
 1.1780	40.1870
 1.1790	40.1780
 1.1800	40.1650
 1.1810	40.1540
 1.1820	40.1440
 1.1830	40.1320
 1.1840	40.1220
 1.1850	40.1120
 1.1860	40.1040
 1.1870	40.0980
 1.1880	40.0900
 1.1890	40.0800
 1.1900	40.0730
 1.1910	40.0640
 1.1920	40.0600
 1.1930	40.0600
 1.1940	40.0590
 1.1950	40.0590
 1.1960	40.0590
 1.1970	40.0580
 1.1980	40.0580
 1.1990	40.0600
 1.2000	40.0660
 1.2010	40.0740
 1.2020	40.0820
 1.2030	40.0910
 1.2040	40.0980
 1.2050	40.1040
 1.2060	40.1130
 1.2070	40.1230
 1.2080	40.1340
 1.2090	40.1500
 1.2100	40.1660
 1.2110	40.1810
 1.2120	40.1980
 1.2130	40.2140
 1.2140	40.2280
 1.2150	40.2450
 1.2160	40.2630
 1.2170	40.2820
 1.2180	40.3010
 1.2190	40.3190
 1.2200	40.3370
 1.2210	40.3570
 1.2220	40.3770
 1.2230	40.3980
 1.2240	40.4210
 1.2250	40.4430
 1.2260	40.4630
 1.2270	40.4850
 1.2280	40.5050
 1.2290	40.5240
 1.2300	40.5450
 1.2310	40.5610
 1.2320	40.5770
 1.2330	40.5930
 1.2340	40.6090
 1.2350	40.6230
 1.2360	40.6380
 1.2370	40.6530
 1.2380	40.6670
 1.2390	40.6820
 1.2400	40.6970
 1.2410	40.7130
 1.2420	40.7270
 1.2430	40.7390
 1.2440	40.7530
 1.2450	40.7650
 1.2460	40.7750
 1.2470	40.7860
 1.2480	40.7960
 1.2490	40.8040
 1.2500	40.8130
 1.2510	40.8210
 1.2520	40.8280
 1.2530	40.8340
 1.2540	40.8420
 1.2550	40.8510
 1.2560	40.8570
 1.2570	40.8620
 1.2580	40.8660
 1.2590	40.8680
 1.2600	40.8680
 1.2610	40.8670
 1.2620	40.8660
 1.2630	40.8650
 1.2640	40.8650
 1.2650	40.8630
 1.2660	40.8610
 1.2670	40.8560
 1.2680	40.8490
 1.2690	40.8430
 1.2700	40.8360
 1.2710	40.8290
 1.2720	40.8240
 1.2730	40.8170
 1.2740	40.8090
 1.2750	40.7980
 1.2760	40.7850
 1.2770	40.7720
 1.2780	40.7570
 1.2790	40.7420
 1.2800	40.7260
 1.2810	40.7100
 1.2820	40.6920
 1.2830	40.6720
 1.2840	40.6530
 1.2850	40.6330
 1.2860	40.6100
 1.2870	40.5840
 1.2880	40.5590
 1.2890	40.5290
 1.2900	40.4990
 1.2910	40.4700
 1.2920	40.4390
 1.2930	40.4090
 1.2940	40.3760
 1.2950	40.3410
 1.2960	40.3060
 1.2970	40.2680
 1.2980	40.2260
 1.2990	40.1820
 1.3000	40.1370
 1.3010	40.0900
 1.3020	40.0420
 1.3030	39.9910
 1.3040	39.9340
 1.3050	39.8760
 1.3060	39.8170
 1.3070	39.7550
 1.3080	39.6930
 1.3090	39.6270
 1.3100	39.5570
 1.3110	39.4850
 1.3120	39.4090
 1.3130	39.3320
 1.3140	39.2530
 1.3150	39.1710
 1.3160	39.0870
 1.3170	39.0010
 1.3180	38.9120
 1.3190	38.8190
 1.3200	38.7250
 1.3210	38.6250
 1.3220	38.5240
 1.3230	38.4210
 1.3240	38.3140
 1.3250	38.2060
 1.3260	38.0960
 1.3270	37.9830
 1.3280	37.8690
 1.3290	37.7520
 1.3300	37.6340
 1.3310	37.5140
 1.3320	37.3930
 1.3330	37.2710
 1.3340	37.1460
 1.3350	37.0200
 1.3360	36.8920
 1.3370	36.7630
 1.3380	36.6390
 1.3390	36.5130
 1.3400	36.3870
 1.3410	36.2640
 1.3420	36.1400
 1.3430	36.0170
 1.3440	35.8960
 1.3450	35.7760
 1.3460	35.6550
 1.3470	35.5380
 1.3480	35.4200
 1.3490	35.3050
 1.3500	35.1920
 1.3510	35.0790
 1.3520	34.9660
 1.3530	34.8530
 1.3540	34.7380
 1.3550	34.6230
 1.3560	34.5080
 1.3570	34.3920
 1.3580	34.2760
 1.3590	34.1570
 1.3600	34.0330
 1.3610	33.9050
 1.3620	33.7700
 1.3630	33.6290
 1.3640	33.4840
 1.3650	33.3290
 1.3660	33.1720
 1.3670	33.0060
 1.3680	32.8270
 1.3690	32.6420
 1.3700	32.4420
 1.3710	32.2290
 1.3720	32.0030
 1.3730	31.7600
 1.3740	31.5040
 1.3750	31.2310
 1.3760	30.9390
 1.3770	30.6280
 1.3780	30.2920
 1.3790	29.9350
 1.3800	29.5560
 1.3810	29.1520
 1.3820	28.7320
 1.3830	28.2930
 1.3840	27.8360
 1.3850	27.3600
 1.3860	26.8720
 1.3870	26.3620
 1.3880	25.8500
 1.3890	25.3260
 1.3900	24.7920
 1.3910	24.2600
 1.3920	23.7230
 1.3930	23.1820
 1.3940	22.6460
 1.3950	22.1090
 1.3960	21.5790
 1.3970	21.0620
 1.3980	20.5550
 1.3990	20.0670
 1.4000	19.5940
 1.4010	19.1340
 1.4020	18.6960
 1.4030	18.2720
 1.4040	17.8670
 1.4050	17.4840
 1.4060	17.1210
 1.4070	16.7830
 1.4080	16.4650
 1.4090	16.1670
 1.4100	15.8900
 1.4110	15.6300
 1.4120	15.3900
 1.4130	15.1670
 1.4140	14.9610
 1.4150	14.7730
 1.4160	14.6010
 1.4170	14.4420
 1.4180	14.2980
 1.4190	14.1660
 1.4200	14.0460
 1.4210	13.9390
 1.4220	13.8400
 1.4230	13.7520
 1.4240	13.6730
 1.4250	13.6010
 1.4260	13.5380
 1.4270	13.4800
 1.4280	13.4290
 1.4290	13.3840
 1.4300	13.3460
 1.4310	13.3120
 1.4320	13.2850
 1.4330	13.2620
 1.4340	13.2450
 1.4350	13.2300
 1.4360	13.2190
 1.4370	13.2110
 1.4380	13.2070
 1.4390	13.2050
 1.4400	13.2060
 1.4410	13.2090
 1.4420	13.2140
 1.4430	13.2210
 1.4440	13.2310
 1.4450	13.2410
 1.4460	13.2520
 1.4470	13.2650
 1.4480	13.2790
 1.4490	13.2940
 1.4500	13.3110
 1.4510	13.3280
 1.4520	13.3480
 1.4530	13.3660
 1.4540	13.3870
 1.4550	13.4110
 1.4560	13.4360
 1.4570	13.4640
 1.4580	13.4950
 1.4590	13.5290
 1.4600	13.5660
 1.4610	13.6060
 1.4620	13.6500
 1.4630	13.7000
 1.4640	13.7530
 1.4650	13.8100
 1.4660	13.8720
 1.4670	13.9380
 1.4680	14.0090
 1.4690	14.0840
 1.4700	14.1640
