Name: Quercus agrifolia
Type: vegetation
Class: Tree
Genus: Quercus
Species: agrifolia
Sample No.: JPL108
Owner: JPL
Wavelength Range: VSWIR
Origin: 34.12778; -118.11361;; WGS84
Collection Date: 9/7/2016
Description: Samples were collected at the Huntington Garden in San Marino California as part of a JPL Subcontract studying HyTES imagery. Samples were taken to JPL and processed within 48 hours of collection. The same leaves were processed in the Nicolet and then measured using the ASD.
Measurement: Bidirectional reflectance
First Column: X
Second Column: Y
X Units: Wavelength (micrometer)
Y Units: Reflectance (percentage)
First X Value: 0.35
Last X Value: 2.5
Number of X Values: 2151
Additional Information: vegetation.tree.quercus.agrifolia.vswir.jpl108.jpl.asd.ancillary.txt

 0.3500	 6.0110
 0.3510	 6.0070
 0.3520	 6.0160
 0.3530	 5.9320
 0.3540	 5.7530
 0.3550	 5.8310
 0.3560	 5.8800
 0.3570	 5.8410
 0.3580	 5.7870
 0.3590	 5.8110
 0.3600	 5.8120
 0.3610	 5.7490
 0.3620	 5.6900
 0.3630	 5.6980
 0.3640	 5.7300
 0.3650	 5.7280
 0.3660	 5.6810
 0.3670	 5.6650
 0.3680	 5.6950
 0.3690	 5.7350
 0.3700	 5.6680
 0.3710	 5.6280
 0.3720	 5.6670
 0.3730	 5.6340
 0.3740	 5.6040
 0.3750	 5.6050
 0.3760	 5.6330
 0.3770	 5.6150
 0.3780	 5.6110
 0.3790	 5.6230
 0.3800	 5.5980
 0.3810	 5.5780
 0.3820	 5.5760
 0.3830	 5.5960
 0.3840	 5.6330
 0.3850	 5.6190
 0.3860	 5.5820
 0.3870	 5.5780
 0.3880	 5.6010
 0.3890	 5.5880
 0.3900	 5.5640
 0.3910	 5.6310
 0.3920	 5.6120
 0.3930	 5.5840
 0.3940	 5.6170
 0.3950	 5.6170
 0.3960	 5.6260
 0.3970	 5.6350
 0.3980	 5.6210
 0.3990	 5.5930
 0.4000	 5.6040
 0.4010	 5.6480
 0.4020	 5.6410
 0.4030	 5.6210
 0.4040	 5.6180
 0.4050	 5.6440
 0.4060	 5.6650
 0.4070	 5.6830
 0.4080	 5.6910
 0.4090	 5.6790
 0.4100	 5.6820
 0.4110	 5.7030
 0.4120	 5.7300
 0.4130	 5.7150
 0.4140	 5.7030
 0.4150	 5.7080
 0.4160	 5.7260
 0.4170	 5.7250
 0.4180	 5.7250
 0.4190	 5.7320
 0.4200	 5.7270
 0.4210	 5.7420
 0.4220	 5.7640
 0.4230	 5.7750
 0.4240	 5.7660
 0.4250	 5.7560
 0.4260	 5.7540
 0.4270	 5.7590
 0.4280	 5.7650
 0.4290	 5.7650
 0.4300	 5.7590
 0.4310	 5.7520
 0.4320	 5.7530
 0.4330	 5.7550
 0.4340	 5.7490
 0.4350	 5.7400
 0.4360	 5.7340
 0.4370	 5.7350
 0.4380	 5.7410
 0.4390	 5.7520
 0.4400	 5.7580
 0.4410	 5.7580
 0.4420	 5.7620
 0.4430	 5.7740
 0.4440	 5.7840
 0.4450	 5.7790
 0.4460	 5.7810
 0.4470	 5.7890
 0.4480	 5.7980
 0.4490	 5.7970
 0.4500	 5.8040
 0.4510	 5.8140
 0.4520	 5.8180
 0.4530	 5.8190
 0.4540	 5.8220
 0.4550	 5.8250
 0.4560	 5.8220
 0.4570	 5.8280
 0.4580	 5.8340
 0.4590	 5.8350
 0.4600	 5.8360
 0.4610	 5.8390
 0.4620	 5.8410
 0.4630	 5.8430
 0.4640	 5.8460
 0.4650	 5.8480
 0.4660	 5.8480
 0.4670	 5.8460
 0.4680	 5.8410
 0.4690	 5.8370
 0.4700	 5.8370
 0.4710	 5.8350
 0.4720	 5.8330
 0.4730	 5.8340
 0.4740	 5.8440
 0.4750	 5.8470
 0.4760	 5.8470
 0.4770	 5.8500
 0.4780	 5.8560
 0.4790	 5.8550
 0.4800	 5.8530
 0.4810	 5.8560
 0.4820	 5.8620
 0.4830	 5.8640
 0.4840	 5.8610
 0.4850	 5.8590
 0.4860	 5.8600
 0.4870	 5.8630
 0.4880	 5.8670
 0.4890	 5.8710
 0.4900	 5.8810
 0.4910	 5.8950
 0.4920	 5.9040
 0.4930	 5.9140
 0.4940	 5.9270
 0.4950	 5.9420
 0.4960	 5.9570
 0.4970	 5.9770
 0.4980	 6.0010
 0.4990	 6.0270
 0.5000	 6.0520
 0.5010	 6.0830
 0.5020	 6.1190
 0.5030	 6.1590
 0.5040	 6.2050
 0.5050	 6.2550
 0.5060	 6.3090
 0.5070	 6.3710
 0.5080	 6.4370
 0.5090	 6.5110
 0.5100	 6.6000
 0.5110	 6.7000
 0.5120	 6.8070
 0.5130	 6.9230
 0.5140	 7.0500
 0.5150	 7.1880
 0.5160	 7.3360
 0.5170	 7.4930
 0.5180	 7.6610
 0.5190	 7.8380
 0.5200	 8.0230
 0.5210	 8.2090
 0.5220	 8.3980
 0.5230	 8.5880
 0.5240	 8.7790
 0.5250	 8.9600
 0.5260	 9.1360
 0.5270	 9.3060
 0.5280	 9.4670
 0.5290	 9.6120
 0.5300	 9.7440
 0.5310	 9.8690
 0.5320	 9.9870
 0.5330	10.0920
 0.5340	10.1850
 0.5350	10.2690
 0.5360	10.3390
 0.5370	10.4030
 0.5380	10.4610
 0.5390	10.5100
 0.5400	10.5550
 0.5410	10.5940
 0.5420	10.6270
 0.5430	10.6580
 0.5440	10.6910
 0.5450	10.7270
 0.5460	10.7610
 0.5470	10.7990
 0.5480	10.8360
 0.5490	10.8660
 0.5500	10.8860
 0.5510	10.9000
 0.5520	10.9080
 0.5530	10.9080
 0.5540	10.8980
 0.5550	10.8740
 0.5560	10.8360
 0.5570	10.7880
 0.5580	10.7270
 0.5590	10.6540
 0.5600	10.5710
 0.5610	10.4820
 0.5620	10.3850
 0.5630	10.2800
 0.5640	10.1670
 0.5650	10.0480
 0.5660	 9.9270
 0.5670	 9.8040
 0.5680	 9.6770
 0.5690	 9.5440
 0.5700	 9.4110
 0.5710	 9.2860
 0.5720	 9.1640
 0.5730	 9.0450
 0.5740	 8.9330
 0.5750	 8.8320
 0.5760	 8.7410
 0.5770	 8.6540
 0.5780	 8.5650
 0.5790	 8.4760
 0.5800	 8.3930
 0.5810	 8.3160
 0.5820	 8.2460
 0.5830	 8.1850
 0.5840	 8.1340
 0.5850	 8.0890
 0.5860	 8.0470
 0.5870	 8.0070
 0.5880	 7.9660
 0.5890	 7.9260
 0.5900	 7.8910
 0.5910	 7.8620
 0.5920	 7.8370
 0.5930	 7.8130
 0.5940	 7.7900
 0.5950	 7.7700
 0.5960	 7.7540
 0.5970	 7.7330
 0.5980	 7.7130
 0.5990	 7.6930
 0.6000	 7.6720
 0.6010	 7.6500
 0.6020	 7.6230
 0.6030	 7.5910
 0.6040	 7.5550
 0.6050	 7.5190
 0.6060	 7.4800
 0.6070	 7.4340
 0.6080	 7.3850
 0.6090	 7.3300
 0.6100	 7.2690
 0.6110	 7.2060
 0.6120	 7.1550
 0.6130	 7.1110
 0.6140	 7.0680
 0.6150	 7.0200
 0.6160	 6.9760
 0.6170	 6.9370
 0.6180	 6.8990
 0.6190	 6.8630
 0.6200	 6.8320
 0.6210	 6.8050
 0.6220	 6.7790
 0.6230	 6.7580
 0.6240	 6.7400
 0.6250	 6.7250
 0.6260	 6.7150
 0.6270	 6.7070
 0.6280	 6.6990
 0.6290	 6.6940
 0.6300	 6.6860
 0.6310	 6.6790
 0.6320	 6.6730
 0.6330	 6.6660
 0.6340	 6.6540
 0.6350	 6.6380
 0.6360	 6.6160
 0.6370	 6.5910
 0.6380	 6.5610
 0.6390	 6.5260
 0.6400	 6.4890
 0.6410	 6.4490
 0.6420	 6.4090
 0.6430	 6.3700
 0.6440	 6.3290
 0.6450	 6.2910
 0.6460	 6.2530
 0.6470	 6.2180
 0.6480	 6.1890
 0.6490	 6.1630
 0.6500	 6.1410
 0.6510	 6.1220
 0.6520	 6.1030
 0.6530	 6.0850
 0.6540	 6.0670
 0.6550	 6.0540
 0.6560	 6.0370
 0.6570	 6.0180
 0.6580	 5.9980
 0.6590	 5.9740
 0.6600	 5.9520
 0.6610	 5.9320
 0.6620	 5.9100
 0.6630	 5.8930
 0.6640	 5.8790
 0.6650	 5.8660
 0.6660	 5.8560
 0.6670	 5.8520
 0.6680	 5.8510
 0.6690	 5.8520
 0.6700	 5.8550
 0.6710	 5.8630
 0.6720	 5.8740
 0.6730	 5.8820
 0.6740	 5.8960
 0.6750	 5.9140
 0.6760	 5.9340
 0.6770	 5.9540
 0.6780	 5.9770
 0.6790	 6.0040
 0.6800	 6.0320
 0.6810	 6.0640
 0.6820	 6.0980
 0.6830	 6.1340
 0.6840	 6.1740
 0.6850	 6.2200
 0.6860	 6.2730
 0.6870	 6.3330
 0.6880	 6.4040
 0.6890	 6.4960
 0.6900	 6.6140
 0.6910	 6.7640
 0.6920	 6.9550
 0.6930	 7.1920
 0.6940	 7.4810
 0.6950	 7.8320
 0.6960	 8.2400
 0.6970	 8.7050
 0.6980	 9.2310
 0.6990	 9.8100
 0.7000	10.4340
 0.7010	11.0980
 0.7020	11.7930
 0.7030	12.5130
 0.7040	13.2480
 0.7050	13.9950
 0.7060	14.7510
 0.7070	15.5120
 0.7080	16.2760
 0.7090	17.0440
 0.7100	17.8120
 0.7110	18.5820
 0.7120	19.3530
 0.7130	20.1200
 0.7140	20.8880
 0.7150	21.6520
 0.7160	22.4100
 0.7170	23.1690
 0.7180	23.9200
 0.7190	24.6610
 0.7200	25.3950
 0.7210	26.1170
 0.7220	26.8240
 0.7230	27.5170
 0.7240	28.1970
 0.7250	28.8540
 0.7260	29.4910
 0.7270	30.1080
 0.7280	30.7040
 0.7290	31.2740
 0.7300	31.8200
 0.7310	32.3410
 0.7320	32.8400
 0.7330	33.3150
 0.7340	33.7640
 0.7350	34.1900
 0.7360	34.5950
 0.7370	34.9760
 0.7380	35.3340
 0.7390	35.6690
 0.7400	35.9870
 0.7410	36.2830
 0.7420	36.5540
 0.7430	36.8090
 0.7440	37.0450
 0.7450	37.2630
 0.7460	37.4640
 0.7470	37.6480
 0.7480	37.8170
 0.7490	37.9720
 0.7500	38.1120
 0.7510	38.2400
 0.7520	38.3600
 0.7530	38.4710
 0.7540	38.5680
 0.7550	38.6530
 0.7560	38.7320
 0.7570	38.8070
 0.7580	38.8710
 0.7590	38.9290
 0.7600	38.9850
 0.7610	39.0340
 0.7620	39.0770
 0.7630	39.1170
 0.7640	39.1540
 0.7650	39.1860
 0.7660	39.2140
 0.7670	39.2410
 0.7680	39.2630
 0.7690	39.2850
 0.7700	39.3040
 0.7710	39.3190
 0.7720	39.3300
 0.7730	39.3430
 0.7740	39.3570
 0.7750	39.3690
 0.7760	39.3820
 0.7770	39.3920
 0.7780	39.4020
 0.7790	39.4140
 0.7800	39.4240
 0.7810	39.4300
 0.7820	39.4350
 0.7830	39.4420
 0.7840	39.4480
 0.7850	39.4540
 0.7860	39.4600
 0.7870	39.4620
 0.7880	39.4660
 0.7890	39.4710
 0.7900	39.4730
 0.7910	39.4750
 0.7920	39.4780
 0.7930	39.4810
 0.7940	39.4810
 0.7950	39.4810
 0.7960	39.4820
 0.7970	39.4840
 0.7980	39.4790
 0.7990	39.4740
 0.8000	39.4720
 0.8010	39.4720
 0.8020	39.4700
 0.8030	39.4660
 0.8040	39.4620
 0.8050	39.4610
 0.8060	39.4560
 0.8070	39.4500
 0.8080	39.4450
 0.8090	39.4420
 0.8100	39.4340
 0.8110	39.4260
 0.8120	39.4200
 0.8130	39.4130
 0.8140	39.4070
 0.8150	39.4010
 0.8160	39.3930
 0.8170	39.3860
 0.8180	39.3800
 0.8190	39.3740
 0.8200	39.3700
 0.8210	39.3660
 0.8220	39.3580
 0.8230	39.3460
 0.8240	39.3390
 0.8250	39.3330
 0.8260	39.3260
 0.8270	39.3170
 0.8280	39.3110
 0.8290	39.3030
 0.8300	39.2950
 0.8310	39.2880
 0.8320	39.2860
 0.8330	39.2820
 0.8340	39.2750
 0.8350	39.2690
 0.8360	39.2640
 0.8370	39.2590
 0.8380	39.2540
 0.8390	39.2510
 0.8400	39.2470
 0.8410	39.2420
 0.8420	39.2400
 0.8430	39.2410
 0.8440	39.2390
 0.8450	39.2370
 0.8460	39.2370
 0.8470	39.2350
 0.8480	39.2350
 0.8490	39.2350
 0.8500	39.2340
 0.8510	39.2310
 0.8520	39.2320
 0.8530	39.2340
 0.8540	39.2300
 0.8550	39.2320
 0.8560	39.2340
 0.8570	39.2350
 0.8580	39.2380
 0.8590	39.2440
 0.8600	39.2480
 0.8610	39.2490
 0.8620	39.2560
 0.8630	39.2580
 0.8640	39.2590
 0.8650	39.2600
 0.8660	39.2660
 0.8670	39.2710
 0.8680	39.2740
 0.8690	39.2780
 0.8700	39.2780
 0.8710	39.2820
 0.8720	39.2900
 0.8730	39.2970
 0.8740	39.3000
 0.8750	39.3030
 0.8760	39.3080
 0.8770	39.3110
 0.8780	39.3190
 0.8790	39.3260
 0.8800	39.3290
 0.8810	39.3370
 0.8820	39.3410
 0.8830	39.3470
 0.8840	39.3570
 0.8850	39.3580
 0.8860	39.3610
 0.8870	39.3680
 0.8880	39.3730
 0.8890	39.3770
 0.8900	39.3840
 0.8910	39.3910
 0.8920	39.3940
 0.8930	39.3990
 0.8940	39.4060
 0.8950	39.4130
 0.8960	39.4200
 0.8970	39.4270
 0.8980	39.4310
 0.8990	39.4340
 0.9000	39.4400
 0.9010	39.4460
 0.9020	39.4480
 0.9030	39.4500
 0.9040	39.4610
 0.9050	39.4660
 0.9060	39.4670
 0.9070	39.4720
 0.9080	39.4790
 0.9090	39.4800
 0.9100	39.4790
 0.9110	39.4820
 0.9120	39.4830
 0.9130	39.4890
 0.9140	39.4940
 0.9150	39.4940
 0.9160	39.4930
 0.9170	39.4940
 0.9180	39.4940
 0.9190	39.4890
 0.9200	39.4950
 0.9210	39.4940
 0.9220	39.4890
 0.9230	39.4980
 0.9240	39.4980
 0.9250	39.4880
 0.9260	39.4740
 0.9270	39.4650
 0.9280	39.4590
 0.9290	39.4560
 0.9300	39.4510
 0.9310	39.4430
 0.9320	39.4340
 0.9330	39.4250
 0.9340	39.4150
 0.9350	39.3990
 0.9360	39.3890
 0.9370	39.3780
 0.9380	39.3630
 0.9390	39.3500
 0.9400	39.3350
 0.9410	39.3180
 0.9420	39.3020
 0.9430	39.2860
 0.9440	39.2680
 0.9450	39.2490
 0.9460	39.2290
 0.9470	39.2080
 0.9480	39.1820
 0.9490	39.1550
 0.9500	39.1290
 0.9510	39.0940
 0.9520	39.0580
 0.9530	39.0250
 0.9540	38.9960
 0.9550	38.9650
 0.9560	38.9280
 0.9570	38.8940
 0.9580	38.8660
 0.9590	38.8300
 0.9600	38.8030
 0.9610	38.7820
 0.9620	38.7570
 0.9630	38.7350
 0.9640	38.7160
 0.9650	38.6950
 0.9660	38.6710
 0.9670	38.6540
 0.9680	38.6450
 0.9690	38.6380
 0.9700	38.6250
 0.9710	38.6140
 0.9720	38.6110
 0.9730	38.6050
 0.9740	38.5860
 0.9750	38.5810
 0.9760	38.5780
 0.9770	38.5750
 0.9780	38.5730
 0.9790	38.5710
 0.9800	38.5690
 0.9810	38.5690
 0.9820	38.5720
 0.9830	38.5670
 0.9840	38.5640
 0.9850	38.5630
 0.9860	38.5590
 0.9870	38.5700
 0.9880	38.5790
 0.9890	38.5760
 0.9900	38.5610
 0.9910	38.5720
 0.9920	38.5800
 0.9930	38.5840
 0.9940	38.5950
 0.9950	38.6110
 0.9960	38.6200
 0.9970	38.6210
 0.9980	38.6230
 0.9990	38.6370
 1.0000	38.6550
 1.0010	38.9660
 1.0020	38.9740
 1.0030	38.9790
 1.0040	38.9840
 1.0050	38.9880
 1.0060	38.9960
 1.0070	39.0060
 1.0080	39.0160
 1.0090	39.0300
 1.0100	39.0400
 1.0110	39.0490
 1.0120	39.0580
 1.0130	39.0630
 1.0140	39.0730
 1.0150	39.0850
 1.0160	39.0960
 1.0170	39.1080
 1.0180	39.1230
 1.0190	39.1300
 1.0200	39.1360
 1.0210	39.1420
 1.0220	39.1490
 1.0230	39.1570
 1.0240	39.1680
 1.0250	39.1770
 1.0260	39.1830
 1.0270	39.1920
 1.0280	39.2020
 1.0290	39.2110
 1.0300	39.2210
 1.0310	39.2310
 1.0320	39.2380
 1.0330	39.2460
 1.0340	39.2570
 1.0350	39.2680
 1.0360	39.2780
 1.0370	39.2870
 1.0380	39.2940
 1.0390	39.2990
 1.0400	39.3060
 1.0410	39.3100
 1.0420	39.3180
 1.0430	39.3270
 1.0440	39.3350
 1.0450	39.3430
 1.0460	39.3500
 1.0470	39.3540
 1.0480	39.3590
 1.0490	39.3660
 1.0500	39.3720
 1.0510	39.3770
 1.0520	39.3810
 1.0530	39.3870
 1.0540	39.3930
 1.0550	39.3970
 1.0560	39.4020
 1.0570	39.4060
 1.0580	39.4080
 1.0590	39.4110
 1.0600	39.4150
 1.0610	39.4170
 1.0620	39.4160
 1.0630	39.4170
 1.0640	39.4190
 1.0650	39.4210
 1.0660	39.4270
 1.0670	39.4280
 1.0680	39.4280
 1.0690	39.4250
 1.0700	39.4240
 1.0710	39.4190
 1.0720	39.4190
 1.0730	39.4210
 1.0740	39.4200
 1.0750	39.4210
 1.0760	39.4190
 1.0770	39.4130
 1.0780	39.4100
 1.0790	39.4080
 1.0800	39.4070
 1.0810	39.4070
 1.0820	39.4070
 1.0830	39.4090
 1.0840	39.4070
 1.0850	39.4040
 1.0860	39.4000
 1.0870	39.3960
 1.0880	39.3880
 1.0890	39.3850
 1.0900	39.3840
 1.0910	39.3820
 1.0920	39.3820
 1.0930	39.3790
 1.0940	39.3750
 1.0950	39.3710
 1.0960	39.3670
 1.0970	39.3630
 1.0980	39.3560
 1.0990	39.3520
 1.1000	39.3530
 1.1010	39.3500
 1.1020	39.3460
 1.1030	39.3420
 1.1040	39.3370
 1.1050	39.3280
 1.1060	39.3210
 1.1070	39.3140
 1.1080	39.3090
 1.1090	39.3030
 1.1100	39.2970
 1.1110	39.2940
 1.1120	39.2880
 1.1130	39.2830
 1.1140	39.2740
 1.1150	39.2640
 1.1160	39.2540
 1.1170	39.2410
 1.1180	39.2280
 1.1190	39.2160
 1.1200	39.2020
 1.1210	39.1870
 1.1220	39.1700
 1.1230	39.1500
 1.1240	39.1310
 1.1250	39.1090
 1.1260	39.0860
 1.1270	39.0590
 1.1280	39.0300
 1.1290	38.9960
 1.1300	38.9580
 1.1310	38.9170
 1.1320	38.8710
 1.1330	38.8220
 1.1340	38.7700
 1.1350	38.7140
 1.1360	38.6540
 1.1370	38.5890
 1.1380	38.5200
 1.1390	38.4490
 1.1400	38.3750
 1.1410	38.2970
 1.1420	38.2190
 1.1430	38.1390
 1.1440	38.0600
 1.1450	37.9790
 1.1460	37.8990
 1.1470	37.8190
 1.1480	37.7410
 1.1490	37.6620
 1.1500	37.5880
 1.1510	37.5140
 1.1520	37.4460
 1.1530	37.3800
 1.1540	37.3200
 1.1550	37.2640
 1.1560	37.2140
 1.1570	37.1690
 1.1580	37.1270
 1.1590	37.0880
 1.1600	37.0520
 1.1610	37.0200
 1.1620	36.9900
 1.1630	36.9640
 1.1640	36.9410
 1.1650	36.9200
 1.1660	36.9010
 1.1670	36.8840
 1.1680	36.8700
 1.1690	36.8560
 1.1700	36.8450
 1.1710	36.8320
 1.1720	36.8210
 1.1730	36.8090
 1.1740	36.7970
 1.1750	36.7860
 1.1760	36.7740
 1.1770	36.7610
 1.1780	36.7450
 1.1790	36.7300
 1.1800	36.7160
 1.1810	36.7020
 1.1820	36.6900
 1.1830	36.6760
 1.1840	36.6630
 1.1850	36.6490
 1.1860	36.6350
 1.1870	36.6220
 1.1880	36.6100
 1.1890	36.5980
 1.1900	36.5860
 1.1910	36.5750
 1.1920	36.5650
 1.1930	36.5550
 1.1940	36.5470
 1.1950	36.5400
 1.1960	36.5330
 1.1970	36.5260
 1.1980	36.5190
 1.1990	36.5140
 1.2000	36.5100
 1.2010	36.5070
 1.2020	36.5050
 1.2030	36.5040
 1.2040	36.5030
 1.2050	36.5020
 1.2060	36.5020
 1.2070	36.5050
 1.2080	36.5080
 1.2090	36.5130
 1.2100	36.5200
 1.2110	36.5280
 1.2120	36.5350
 1.2130	36.5460
 1.2140	36.5580
 1.2150	36.5720
 1.2160	36.5880
 1.2170	36.6050
 1.2180	36.6210
 1.2190	36.6390
 1.2200	36.6580
 1.2210	36.6790
 1.2220	36.7030
 1.2230	36.7270
 1.2240	36.7500
 1.2250	36.7730
 1.2260	36.7950
 1.2270	36.8180
 1.2280	36.8400
 1.2290	36.8610
 1.2300	36.8820
 1.2310	36.9000
 1.2320	36.9170
 1.2330	36.9340
 1.2340	36.9510
 1.2350	36.9670
 1.2360	36.9820
 1.2370	36.9970
 1.2380	37.0110
 1.2390	37.0250
 1.2400	37.0380
 1.2410	37.0520
 1.2420	37.0640
 1.2430	37.0750
 1.2440	37.0860
 1.2450	37.0950
 1.2460	37.1060
 1.2470	37.1160
 1.2480	37.1260
 1.2490	37.1340
 1.2500	37.1400
 1.2510	37.1470
 1.2520	37.1520
 1.2530	37.1590
 1.2540	37.1650
 1.2550	37.1710
 1.2560	37.1770
 1.2570	37.1810
 1.2580	37.1850
 1.2590	37.1880
 1.2600	37.1900
 1.2610	37.1920
 1.2620	37.1920
 1.2630	37.1910
 1.2640	37.1900
 1.2650	37.1880
 1.2660	37.1860
 1.2670	37.1850
 1.2680	37.1840
 1.2690	37.1820
 1.2700	37.1800
 1.2710	37.1770
 1.2720	37.1740
 1.2730	37.1700
 1.2740	37.1650
 1.2750	37.1600
 1.2760	37.1550
 1.2770	37.1480
 1.2780	37.1420
 1.2790	37.1340
 1.2800	37.1250
 1.2810	37.1170
 1.2820	37.1090
 1.2830	37.0980
 1.2840	37.0860
 1.2850	37.0720
 1.2860	37.0570
 1.2870	37.0410
 1.2880	37.0240
 1.2890	37.0060
 1.2900	36.9860
 1.2910	36.9640
 1.2920	36.9400
 1.2930	36.9170
 1.2940	36.8940
 1.2950	36.8690
 1.2960	36.8420
 1.2970	36.8130
 1.2980	36.7820
 1.2990	36.7490
 1.3000	36.7160
 1.3010	36.6820
 1.3020	36.6450
 1.3030	36.6050
 1.3040	36.5630
 1.3050	36.5200
 1.3060	36.4750
 1.3070	36.4310
 1.3080	36.3880
 1.3090	36.3410
 1.3100	36.2930
 1.3110	36.2420
 1.3120	36.1900
 1.3130	36.1370
 1.3140	36.0810
 1.3150	36.0240
 1.3160	35.9640
 1.3170	35.9030
 1.3180	35.8390
 1.3190	35.7750
 1.3200	35.7090
 1.3210	35.6410
 1.3220	35.5720
 1.3230	35.5010
 1.3240	35.4280
 1.3250	35.3540
 1.3260	35.2780
 1.3270	35.1980
 1.3280	35.1190
 1.3290	35.0370
 1.3300	34.9520
 1.3310	34.8680
 1.3320	34.7800
 1.3330	34.6920
 1.3340	34.6030
 1.3350	34.5120
 1.3360	34.4210
 1.3370	34.3300
 1.3380	34.2400
 1.3390	34.1490
 1.3400	34.0580
 1.3410	33.9680
 1.3420	33.8770
 1.3430	33.7860
 1.3440	33.6970
 1.3450	33.6090
 1.3460	33.5210
 1.3470	33.4340
 1.3480	33.3460
 1.3490	33.2600
 1.3500	33.1750
 1.3510	33.0900
 1.3520	33.0060
 1.3530	32.9210
 1.3540	32.8340
 1.3550	32.7500
 1.3560	32.6640
 1.3570	32.5770
 1.3580	32.4900
 1.3590	32.3990
 1.3600	32.3060
 1.3610	32.2110
 1.3620	32.1130
 1.3630	32.0120
 1.3640	31.9070
 1.3650	31.7980
 1.3660	31.6850
 1.3670	31.5660
 1.3680	31.4400
 1.3690	31.3070
 1.3700	31.1640
 1.3710	31.0130
 1.3720	30.8540
 1.3730	30.6820
 1.3740	30.4990
 1.3750	30.3030
 1.3760	30.0900
 1.3770	29.8630
 1.3780	29.6180
 1.3790	29.3550
 1.3800	29.0740
 1.3810	28.7730
 1.3820	28.4570
 1.3830	28.1250
 1.3840	27.7760
 1.3850	27.4090
 1.3860	27.0270
 1.3870	26.6270
 1.3880	26.2190
 1.3890	25.8000
 1.3900	25.3690
 1.3910	24.9340
 1.3920	24.4920
 1.3930	24.0440
 1.3940	23.5950
 1.3950	23.1400
 1.3960	22.6890
 1.3970	22.2430
 1.3980	21.8020
 1.3990	21.3740
 1.4000	20.9550
 1.4010	20.5430
 1.4020	20.1470
 1.4030	19.7620
 1.4040	19.3920
 1.4050	19.0400
 1.4060	18.7010
 1.4070	18.3820
 1.4080	18.0790
 1.4090	17.7900
 1.4100	17.5210
 1.4110	17.2660
 1.4120	17.0270
 1.4130	16.8050
 1.4140	16.5970
 1.4150	16.4060
 1.4160	16.2290
 1.4170	16.0640
 1.4180	15.9130
 1.4190	15.7720
 1.4200	15.6420
 1.4210	15.5210
 1.4220	15.4110
 1.4230	15.3110
 1.4240	15.2200
 1.4250	15.1360
 1.4260	15.0610
 1.4270	14.9910
 1.4280	14.9290
 1.4290	14.8720
 1.4300	14.8220
 1.4310	14.7770
 1.4320	14.7380
 1.4330	14.7030
 1.4340	14.6740
 1.4350	14.6480
 1.4360	14.6260
 1.4370	14.6070
 1.4380	14.5920
 1.4390	14.5800
 1.4400	14.5710
 1.4410	14.5660
 1.4420	14.5630
 1.4430	14.5620
 1.4440	14.5640
 1.4450	14.5680
 1.4460	14.5720
 1.4470	14.5800
 1.4480	14.5890
 1.4490	14.5980
 1.4500	14.6090
 1.4510	14.6210
 1.4520	14.6340
 1.4530	14.6490
 1.4540	14.6640
 1.4550	14.6820
 1.4560	14.7020
 1.4570	14.7240
 1.4580	14.7480
 1.4590	14.7740
 1.4600	14.8030
 1.4610	14.8340
 1.4620	14.8700
 1.4630	14.9090
 1.4640	14.9520
 1.4650	14.9990
 1.4660	15.0490
 1.4670	15.1030
 1.4680	15.1630
 1.4690	15.2250
 1.4700	15.2900
 1.4710	15.3600
 1.4720	15.4330
 1.4730	15.5080
 1.4740	15.5870
 1.4750	15.6680
 1.4760	15.7530
 1.4770	15.8390
