Name: Ceanothus megacarpus 3
Type: vegetation
Class: Shrub
Genus: Ceanothus
Species: megacarpus
Sample No.: VH023
Owner: UCSB
Wavelength Range: TIR
Origin: 34.4909; -119.7914; WGS84
Collection Date: 4/1/2013
Description: Samples were collected as part of the HyspIRI Airborne Campaign. 48 individual plants were sampled in three times in 2013 - spring  summer  and fall. The name of the sample includes a 1  2  or 3 which references a different individual of the species. Samples were taken to JPL and processed within 48 hours of collection. The same leaves were processed in the Nicolet and then measured using the ASD.
Measurement: Hemispherical reflectance
First Column: X
Second Column: Y
X Units: Wavelength (micrometers)
Y Units: Reflectance (percentage)
First X Value: 2.501
Last X Value: 15.387
Number of X Values: 1737
Additional Information: vegetation.shrub.ceanothus.megacarpus.tir.vh023.ucsb.nicolet.ancillary.txt

 2.5010	10.5700
 2.5030	10.5160
 2.5040	10.6010
 2.5050	10.6850
 2.5060	10.7040
 2.5070	10.5770
 2.5090	10.4940
 2.5100	10.3450
 2.5110	10.4110
 2.5120	10.5450
 2.5140	10.7410
 2.5150	10.6710
 2.5160	10.6090
 2.5170	10.4970
 2.5180	10.6190
 2.5200	10.7510
 2.5210	10.7350
 2.5220	10.6280
 2.5230	10.6670
 2.5250	10.4560
 2.5260	10.3160
 2.5270	10.3210
 2.5280	10.5660
 2.5290	10.6980
 2.5310	10.6420
 2.5320	10.5840
 2.5330	10.7570
 2.5340	10.7560
 2.5360	10.6070
 2.5370	10.4940
 2.5380	10.5880
 2.5390	10.5300
 2.5410	10.4620
 2.5420	10.4610
 2.5430	10.5130
 2.5440	10.5170
 2.5460	10.6100
 2.5470	10.6760
 2.5480	10.7400
 2.5490	10.5240
 2.5510	10.4090
 2.5520	10.3300
 2.5530	10.4590
 2.5540	10.6060
 2.5560	10.6600
 2.5570	10.6300
 2.5580	10.7140
 2.5590	10.5180
 2.5610	10.5700
 2.5620	10.5090
 2.5630	10.5080
 2.5640	10.3800
 2.5660	10.4180
 2.5670	10.5500
 2.5680	10.6460
 2.5700	10.7140
 2.5710	10.6700
 2.5720	10.5450
 2.5730	10.6110
 2.5750	10.5530
 2.5760	10.5300
 2.5770	10.6050
 2.5790	10.6250
 2.5800	10.4160
 2.5810	10.2840
 2.5820	10.4160
 2.5840	10.5210
 2.5850	10.4230
 2.5860	10.5750
 2.5880	10.6520
 2.5890	10.6960
 2.5900	10.5570
 2.5910	10.5550
 2.5930	10.4780
 2.5940	10.4700
 2.5950	10.4330
 2.5970	10.3580
 2.5980	10.3410
 2.5990	10.4070
 2.6000	10.4210
 2.6020	10.4610
 2.6030	10.4630
 2.6040	10.5410
 2.6060	10.5530
 2.6070	10.4850
 2.6080	10.4000
 2.6100	10.4000
 2.6110	10.3650
 2.6120	10.4550
 2.6140	10.5500
 2.6150	10.5970
 2.6160	10.3740
 2.6180	10.2000
 2.6190	10.3490
 2.6200	10.6010
 2.6220	10.5220
 2.6230	10.5000
 2.6240	10.4950
 2.6260	10.4000
 2.6270	10.2990
 2.6280	10.3360
 2.6300	10.2200
 2.6310	10.1740
 2.6320	10.2860
 2.6340	10.4060
 2.6350	10.3460
 2.6360	10.2850
 2.6380	10.2540
 2.6390	10.3380
 2.6400	10.3300
 2.6420	10.2690
 2.6430	10.1740
 2.6440	10.2530
 2.6460	10.3430
 2.6470	10.2910
 2.6480	10.1260
 2.6500	10.2800
 2.6510	10.3660
 2.6520	10.3700
 2.6540	10.2410
 2.6550	10.1840
 2.6560	10.1570
 2.6580	10.2900
 2.6590	10.3960
 2.6610	10.3120
 2.6620	10.3100
 2.6630	10.4410
 2.6650	10.3000
 2.6660	10.2080
 2.6670	10.0570
 2.6690	10.1630
 2.6700	10.1180
 2.6720	10.2470
 2.6730	10.0930
 2.6740	10.0430
 2.6760	10.1490
 2.6770	10.2410
 2.6780	10.2540
 2.6800	10.1090
 2.6810	 9.9880
 2.6830	10.0610
 2.6840	 9.9920
 2.6850	10.1250
 2.6870	10.2260
 2.6880	10.3250
 2.6900	10.1650
 2.6910	10.1550
 2.6920	10.0230
 2.6940	 9.9780
 2.6950	10.0040
 2.6970	10.0400
 2.6980	10.0860
 2.6990	10.1210
 2.7010	10.0510
 2.7020	10.1000
 2.7040	10.0410
 2.7050	 9.9640
 2.7060	 9.9250
 2.7080	10.0590
 2.7090	10.1720
 2.7110	10.2870
 2.7120	10.3600
 2.7130	10.2830
 2.7150	10.1130
 2.7160	10.0890
 2.7180	10.0560
 2.7190	10.1890
 2.7210	10.0830
 2.7220	10.0350
 2.7230	10.0470
 2.7250	10.1730
 2.7260	10.0580
 2.7280	10.0990
 2.7290	10.0670
 2.7310	10.2010
 2.7320	10.0600
 2.7330	 9.9090
 2.7350	 9.9340
 2.7360	 9.9880
 2.7380	 9.8990
 2.7390	10.0370
 2.7410	10.1500
 2.7420	10.2130
 2.7440	10.2110
 2.7450	10.3150
 2.7470	10.4390
 2.7480	10.3670
 2.7490	10.1810
 2.7510	10.2820
 2.7520	10.1510
 2.7540	 9.9660
 2.7550	 9.8770
 2.7570	10.0980
 2.7580	10.0810
 2.7600	10.1750
 2.7610	10.2120
 2.7630	10.2050
 2.7640	10.1720
 2.7660	10.1770
 2.7670	10.1220
 2.7680	10.1460
 2.7700	10.0710
 2.7710	10.0530
 2.7730	10.0360
 2.7740	10.1880
 2.7760	10.1810
 2.7770	 9.9420
 2.7790	 9.9130
 2.7800	10.1490
 2.7820	10.1260
 2.7830	10.0500
 2.7850	 9.8580
 2.7860	 9.8150
 2.7880	 9.8630
 2.7890	 9.9200
 2.7910	10.0220
 2.7920	10.0910
 2.7940	10.0880
 2.7950	10.2410
 2.7970	10.1280
 2.7980	 9.9440
 2.8000	 9.6130
 2.8010	 9.6010
 2.8030	 9.7930
 2.8040	 9.9390
 2.8060	 9.8700
 2.8070	 9.8890
 2.8090	 9.8840
 2.8110	 9.8940
 2.8120	 9.8340
 2.8140	 9.8610
 2.8150	 9.9240
 2.8170	10.1310
 2.8180	 9.9850
 2.8200	 9.8620
 2.8210	 9.8830
 2.8230	 9.9340
 2.8240	 9.9200
 2.8260	 9.8470
 2.8270	 9.7410
 2.8290	 9.8520
 2.8300	 9.6700
 2.8320	 9.6430
 2.8340	 9.8370
 2.8350	10.0010
 2.8370	 9.9950
 2.8380	10.0380
 2.8400	10.0150
 2.8410	 9.9160
 2.8430	 9.8440
 2.8440	 9.7810
 2.8460	 9.6880
 2.8480	 9.7160
 2.8490	 9.6750
 2.8510	 9.6850
 2.8520	 9.6560
 2.8540	 9.9370
 2.8550	10.0470
 2.8570	 9.9990
 2.8590	 9.8780
 2.8600	 9.8890
 2.8620	 9.8230
 2.8630	 9.9340
 2.8650	10.0330
 2.8660	10.0570
 2.8680	 9.9730
 2.8700	 9.9190
 2.8710	 9.8860
 2.8730	 9.9240
 2.8740	 9.9300
 2.8760	10.0150
 2.8780	 9.8390
 2.8790	 9.7620
 2.8810	 9.9000
 2.8820	 9.9660
 2.8840	 9.9330
 2.8860	 9.9520
 2.8870	 9.8360
 2.8890	 9.8270
 2.8900	 9.6820
 2.8920	 9.8250
 2.8940	10.0200
 2.8950	10.0060
 2.8970	 9.9050
 2.8980	 9.9420
 2.9000	 9.9570
 2.9020	10.0400
 2.9030	 9.9740
 2.9050	 9.9420
 2.9070	 9.9050
 2.9080	10.0010
 2.9100	10.1270
 2.9120	10.2810
 2.9130	 9.9360
 2.9150	 9.7650
 2.9160	 9.7970
 2.9180	 9.8740
 2.9200	10.0190
 2.9210	10.0850
 2.9230	 9.9530
 2.9250	10.0240
 2.9260	10.0080
 2.9280	10.0480
 2.9300	10.2270
 2.9310	10.4340
 2.9330	10.2660
 2.9350	10.2240
 2.9360	10.1520
 2.9380	10.1560
 2.9400	10.1200
 2.9410	10.1170
 2.9430	10.0630
 2.9450	10.2190
 2.9460	10.3550
 2.9480	10.6700
 2.9500	10.4990
 2.9510	10.4650
 2.9530	10.5360
 2.9550	10.6320
 2.9560	10.4310
 2.9580	10.3790
 2.9600	10.2540
 2.9610	 9.9360
 2.9630	10.1530
 2.9650	10.0480
 2.9660	 9.7880
 2.9680	10.4020
 2.9700	10.7330
 2.9720	10.4750
 2.9730	10.1180
 2.9750	 9.5930
 2.9770	 8.7440
 2.9780	10.0570
 2.9800	10.7290
 2.9820	10.4900
 2.9840	10.2440
 2.9850	10.0630
 2.9870	10.2340
 2.9890	 9.6630
 2.9900	 9.4700
 2.9920	 9.9890
 2.9940	10.1880
 2.9960	10.0510
 2.9970	10.0110
 2.9990	11.0430
 3.0010	10.2460
 3.0030	 9.6260
 3.0040	10.0520
 3.0060	10.1940
 3.0080	10.3060
 3.0100	10.2790
 3.0110	10.1350
 3.0130	 9.9560
 3.0150	 9.6210
 3.0170	 9.7430
 3.0180	 9.9980
 3.0200	10.5310
 3.0220	10.8180
 3.0240	10.4010
 3.0250	 9.9600
 3.0270	10.1990
 3.0290	 9.8620
 3.0310	 9.9850
 3.0320	11.1710
 3.0340	11.0590
 3.0360	11.0290
 3.0380	11.3360
 3.0400	11.3410
 3.0410	10.8900
 3.0430	10.6100
 3.0450	10.3460
 3.0470	10.3920
 3.0480	11.0340
 3.0500	10.9960
 3.0520	10.0840
 3.0540	 9.8610
 3.0560	10.2020
 3.0570	10.1680
 3.0590	10.1870
 3.0610	10.3320
 3.0630	10.4830
 3.0650	 9.8070
 3.0660	 9.2100
 3.0680	 9.3480
 3.0700	10.2510
 3.0720	10.5180
 3.0740	10.2440
 3.0760	10.2560
 3.0770	10.8250
 3.0790	10.8000
 3.0810	10.4930
 3.0830	10.4670
 3.0850	10.3900
 3.0870	 9.9660
 3.0880	 9.8360
 3.0900	 9.8860
 3.0920	10.1190
 3.0940	10.3210
 3.0960	10.2430
 3.0980	 9.9550
 3.0990	10.2410
 3.1010	10.4440
 3.1030	10.5000
 3.1050	10.4070
 3.1070	10.2320
 3.1090	10.2690
 3.1110	10.5020
 3.1120	10.5000
 3.1140	10.4710
 3.1160	10.5300
 3.1180	10.3890
 3.1200	10.1820
 3.1220	10.1650
 3.1240	10.1570
 3.1260	10.2050
 3.1270	10.1580
 3.1290	10.2900
 3.1310	10.4060
 3.1330	10.5940
 3.1350	10.3560
 3.1370	10.2710
 3.1390	10.1670
 3.1410	10.1950
 3.1430	10.2150
 3.1450	10.1870
 3.1460	10.3640
 3.1480	10.2300
 3.1500	 9.9760
 3.1520	10.1120
 3.1540	10.4150
 3.1560	10.4730
 3.1580	10.4650
 3.1600	10.3170
 3.1620	 9.3140
 3.1640	 8.8420
 3.1660	 9.5700
 3.1680	10.0240
 3.1700	 9.2430
 3.1710	 8.5880
 3.1730	 8.0390
 3.1750	 7.5560
 3.1770	 7.8950
 3.1790	 9.1810
 3.1810	 9.1290
 3.1830	 9.1310
 3.1850	10.0500
 3.1870	10.3190
 3.1890	10.1770
 3.1910	10.2540
 3.1930	10.2180
 3.1950	10.2470
 3.1970	10.1070
 3.1990	 9.9020
 3.2010	10.0990
 3.2030	10.3830
 3.2050	10.2590
 3.2070	10.1770
 3.2090	10.0720
 3.2110	10.2100
 3.2130	10.1150
 3.2150	10.1150
 3.2170	10.1330
 3.2190	10.0800
 3.2210	10.0470
 3.2230	10.1400
 3.2250	10.1660
 3.2270	10.1870
 3.2290	10.0960
 3.2310	10.0620
 3.2330	 9.9910
 3.2350	10.0020
 3.2370	 9.9970
 3.2390	10.1200
 3.2410	10.1420
 3.2430	 9.9390
 3.2450	 9.7930
 3.2470	 9.9810
 3.2490	10.2390
 3.2510	10.1660
 3.2530	10.0240
 3.2550	10.0230
 3.2570	 9.9120
 3.2590	10.0780
 3.2610	10.2240
 3.2630	10.1570
 3.2650	10.1290
 3.2670	10.1170
 3.2690	10.0480
 3.2720	10.0670
 3.2740	 9.9910
 3.2760	10.0830
 3.2780	10.1660
 3.2800	10.1180
 3.2820	 9.9650
 3.2840	 9.9630
 3.2860	10.0150
 3.2880	10.1390
 3.2900	 9.9690
 3.2920	 9.9380
 3.2940	10.0200
 3.2960	10.0170
 3.2990	10.0640
 3.3010	10.1950
 3.3030	10.0880
 3.3050	10.0610
 3.3070	 9.9120
 3.3090	 9.9400
 3.3110	10.0140
 3.3130	10.0810
 3.3150	10.0420
 3.3180	 9.9920
 3.3200	 9.8160
 3.3220	 9.7910
 3.3240	 9.8210
 3.3260	 9.8500
 3.3280	 9.8320
 3.3300	 9.8460
 3.3330	 9.7760
 3.3350	 9.8320
 3.3370	 9.9130
 3.3390	 9.8200
 3.3410	 9.7110
 3.3430	 9.8060
 3.3450	 9.8710
 3.3480	 9.8410
 3.3500	 9.7240
 3.3520	 9.7610
 3.3540	 9.6860
 3.3560	 9.5560
 3.3580	 9.6450
 3.3610	 9.8090
 3.3630	 9.6690
 3.3650	 9.6480
 3.3670	 9.6400
 3.3690	 9.6310
 3.3720	 9.6690
 3.3740	 9.9020
 3.3760	 9.8970
 3.3780	 9.7890
 3.3800	 9.8940
 3.3830	 9.9920
 3.3850	 9.8850
 3.3870	 9.8370
 3.3890	 9.9080
 3.3910	 9.8930
 3.3940	 9.6140
 3.3960	 9.6050
 3.3980	 9.7150
 3.4000	 9.8860
 3.4020	 9.9830
 3.4050	10.0690
 3.4070	10.1270
 3.4090	10.2500
 3.4110	10.5240
 3.4140	10.8490
 3.4160	11.1750
 3.4180	11.6540
 3.4200	12.1540
 3.4230	12.8150
 3.4250	13.5650
 3.4270	14.4890
 3.4290	14.8640
 3.4320	14.2340
 3.4340	13.2720
 3.4360	12.6130
 3.4390	12.0660
 3.4410	11.8160
 3.4430	11.7010
 3.4450	11.5450
 3.4480	11.3680
 3.4500	11.2120
 3.4520	11.1680
 3.4550	11.3140
 3.4570	11.2870
 3.4590	11.1440
 3.4620	10.9800
 3.4640	11.0820
 3.4660	10.9810
 3.4680	10.7870
 3.4710	10.7150
 3.4730	10.8260
 3.4750	10.7870
 3.4780	10.7060
 3.4800	10.5670
 3.4820	10.6000
 3.4850	10.5750
 3.4870	10.5050
 3.4890	10.3970
 3.4920	10.4720
 3.4940	10.4960
 3.4970	10.5640
 3.4990	10.7740
 3.5010	10.9150
 3.5040	11.0840
 3.5060	11.6360
 3.5080	12.7220
 3.5110	13.7740
 3.5130	13.7230
 3.5160	12.9190
 3.5180	12.1980
 3.5200	11.8400
 3.5230	11.4910
 3.5250	11.4160
 3.5270	11.3340
 3.5300	11.1230
 3.5320	10.9770
 3.5350	10.8720
 3.5370	10.8020
 3.5400	10.8650
 3.5420	10.8900
 3.5440	10.8130
 3.5470	10.7470
 3.5490	10.7720
 3.5520	10.8150
 3.5540	10.7980
 3.5570	10.5940
 3.5590	10.5140
 3.5610	10.5940
 3.5640	10.7050
 3.5660	10.6890
 3.5690	10.7740
 3.5710	10.8870
 3.5740	10.7450
 3.5760	10.5960
 3.5790	10.7250
 3.5810	10.7230
 3.5840	10.5230
 3.5860	10.4030
 3.5890	10.4120
 3.5910	10.3820
 3.5930	10.4370
 3.5960	10.4920
 3.5980	10.5780
 3.6010	10.4200
 3.6030	10.2890
 3.6060	10.3340
 3.6080	10.4640
 3.6110	10.4160
 3.6140	10.3980
 3.6160	10.3440
 3.6190	10.3500
 3.6210	10.4200
 3.6240	10.5240
 3.6260	10.5530
 3.6290	10.5140
 3.6310	10.3490
 3.6340	10.3690
 3.6360	10.3670
 3.6390	10.3530
 3.6410	10.3340
 3.6440	10.3650
 3.6470	10.3520
 3.6490	10.3440
 3.6520	10.3130
 3.6540	10.4180
 3.6570	10.4550
 3.6590	10.3760
 3.6620	10.2550
 3.6650	10.1970
 3.6670	10.2220
 3.6700	10.3500
 3.6720	10.3510
 3.6750	10.3070
 3.6780	10.3050
 3.6800	10.3520
 3.6830	10.3570
 3.6850	10.3980
 3.6880	10.3360
 3.6910	10.2430
 3.6930	10.2200
 3.6960	10.2750
 3.6990	10.2850
 3.7010	10.2700
 3.7040	10.2240
 3.7060	10.1800
 3.7090	10.2050
 3.7120	10.2570
 3.7140	10.2640
 3.7170	10.4250
 3.7200	10.3480
 3.7220	10.1640
 3.7250	10.2200
 3.7280	10.3380
 3.7300	10.2580
 3.7330	10.2560
 3.7360	10.2550
 3.7390	10.1970
 3.7410	10.2280
 3.7440	10.1160
 3.7470	10.0820
 3.7490	10.2170
 3.7520	10.2340
 3.7550	10.3160
 3.7580	10.2140
 3.7600	10.0790
 3.7630	10.0670
 3.7660	10.1420
 3.7680	10.2100
 3.7710	10.2430
 3.7740	10.2480
 3.7770	10.3090
 3.7790	10.3130
 3.7820	10.2770
 3.7850	10.2750
 3.7880	10.2820
 3.7900	10.2040
 3.7930	10.2320
 3.7960	10.3060
 3.7990	10.2420
 3.8020	10.1870
 3.8040	10.2680
 3.8070	10.2060
 3.8100	10.0500
 3.8130	 9.9730
 3.8160	10.0990
 3.8180	10.1440
 3.8210	10.1420
 3.8240	10.0250
 3.8270	10.0390
 3.8300	10.1800
 3.8330	10.2020
 3.8350	10.1600
 3.8380	10.2610
 3.8410	10.3010
 3.8440	10.1930
 3.8470	10.0320
 3.8500	10.0730
 3.8520	10.1910
 3.8550	10.1920
 3.8580	10.1140
 3.8610	10.1280
 3.8640	10.1530
 3.8670	10.1130
 3.8700	10.0900
 3.8730	10.1830
 3.8750	10.1800
 3.8780	10.2430
 3.8810	10.2390
 3.8840	10.1720
 3.8870	10.1330
 3.8900	10.1160
 3.8930	10.0370
 3.8960	10.1030
 3.8990	10.1470
 3.9020	10.1580
 3.9050	10.1780
 3.9080	10.2260
 3.9110	10.2160
 3.9140	10.1950
 3.9160	10.1780
 3.9190	10.2000
 3.9220	10.1820
 3.9250	10.1580
 3.9280	10.1650
 3.9310	10.1330
 3.9340	10.0960
 3.9370	10.1390
 3.9400	10.0910
 3.9430	10.0450
 3.9460	10.0550
 3.9490	10.1490
 3.9520	10.0390
 3.9550	 9.9680
 3.9580	 9.9780
 3.9610	10.0540
 3.9640	10.0540
 3.9670	10.0840
 3.9700	10.1350
 3.9730	10.1150
 3.9770	10.1010
 3.9800	10.1300
 3.9830	10.0700
 3.9860	10.0680
 3.9890	10.0380
 3.9920	10.0560
 3.9950	10.0300
 3.9980	10.0130
 4.0010	10.0590
 4.0040	10.1050
 4.0070	10.0810
 4.0100	10.0510
 4.0130	10.0460
 4.0170	10.0630
 4.0200	10.0730
 4.0230	10.0880
 4.0260	10.0790
 4.0290	10.1610
 4.0320	10.1760
 4.0350	10.1510
 4.0380	10.0890
 4.0420	10.0540
 4.0450	10.0920
 4.0480	10.1140
 4.0510	10.1500
 4.0540	10.1460
 4.0570	10.0350
 4.0610	10.0400
 4.0640	10.0710
 4.0670	10.1110
 4.0700	10.0500
 4.0730	10.0140
 4.0770	10.1000
 4.0800	10.1110
 4.0830	10.0530
 4.0860	10.0170
 4.0890	10.0150
 4.0930	 9.9810
 4.0960	 9.9470
 4.0990	10.1420
 4.1020	10.1480
 4.1060	10.0170
 4.1090	10.0420
 4.1120	10.1150
 4.1150	 9.9420
 4.1190	 9.8820
 4.1220	 9.9720
 4.1250	10.0380
 4.1280	 9.9820
 4.1320	 9.9350
 4.1350	 9.9770
 4.1380	 9.9820
 4.1420	 9.8910
 4.1450	 9.9160
 4.1480	 9.9750
 4.1520	 9.9520
 4.1550	 9.9400
 4.1580	 9.9180
 4.1620	 9.9210
 4.1650	 9.9850
 4.1680	10.0300
 4.1720	10.0200
 4.1750	 9.9590
 4.1780	 9.9170
 4.1820	 9.8940
 4.1850	 9.8270
 4.1890	 9.8510
 4.1920	 9.8630
 4.1950	 9.7520
 4.1990	 9.6880
 4.2020	 9.6390
 4.2060	 9.6880
 4.2090	 9.6280
 4.2120	 9.5290
 4.2160	 9.4250
 4.2190	 9.2780
 4.2230	 9.0110
 4.2260	 8.9910
 4.2300	 8.8390
 4.2330	 8.5160
 4.2360	 8.6600
 4.2400	 9.1730
 4.2430	 9.0770
 4.2470	 9.1130
 4.2500	 9.1640
 4.2540	 9.2900
 4.2570	 9.4920
 4.2610	 9.4420
 4.2640	 9.0040
 4.2680	 9.0330
 4.2710	 9.0540
 4.2750	 8.8410
 4.2780	 9.0640
 4.2820	 9.2210
 4.2850	 9.2070
 4.2890	 9.1530
 4.2930	 9.1460
 4.2960	 9.2020
 4.3000	 9.1580
 4.3030	 9.1510
 4.3070	 9.1790
 4.3100	 9.2300
 4.3140	 9.2130
 4.3180	 9.2370
 4.3210	 9.2440
 4.3250	 9.3690
 4.3280	 9.4430
 4.3320	 9.4360
 4.3360	 9.5050
 4.3390	 9.6000
 4.3430	 9.6340
 4.3470	 9.5170
 4.3500	 9.5160
 4.3540	 9.6070
 4.3570	 9.5900
 4.3610	 9.5870
 4.3650	 9.5980
 4.3680	 9.6190
 4.3720	 9.6610
 4.3760	 9.7090
 4.3800	 9.6870
 4.3830	 9.6290
 4.3870	 9.6310
 4.3910	 9.6100
 4.3940	 9.5740
 4.3980	 9.5520
 4.4020	 9.5590
 4.4060	 9.6230
 4.4090	 9.5860
 4.4130	 9.5960
 4.4170	 9.5730
 4.4210	 9.5240
 4.4240	 9.5220
 4.4280	 9.5100
 4.4320	 9.5050
 4.4360	 9.4850
 4.4400	 9.5380
 4.4430	 9.6070
 4.4470	 9.5040
 4.4510	 9.4470
 4.4550	 9.5010
 4.4590	 9.4800
 4.4620	 9.5180
 4.4660	 9.5500
 4.4700	 9.4210
 4.4740	 9.3840
 4.4780	 9.4420
 4.4820	 9.4650
 4.4860	 9.4790
 4.4900	 9.4900
 4.4930	 9.4200
 4.4970	 9.4420
 4.5010	 9.5350
 4.5050	 9.4980
 4.5090	 9.4320
 4.5130	 9.4050
 4.5170	 9.3730
 4.5210	 9.4350
 4.5250	 9.5110
 4.5290	 9.4880
 4.5330	 9.5070
 4.5370	 9.5860
 4.5410	 9.5060
 4.5450	 9.4510
 4.5490	 9.4900
 4.5530	 9.4600
 4.5570	 9.4420
 4.5610	 9.5640
 4.5650	 9.5870
 4.5690	 9.4710
 4.5730	 9.4400
 4.5770	 9.4390
 4.5810	 9.4330
 4.5850	 9.4150
 4.5890	 9.4740
 4.5930	 9.5420
 4.5970	 9.5760
 4.6010	 9.6550
 4.6050	 9.6560
 4.6090	 9.4980
 4.6130	 9.3430
 4.6170	 9.3920
 4.6220	 9.4600
 4.6260	 9.4610
 4.6300	 9.4370
 4.6340	 9.4150
 4.6380	 9.3820
 4.6420	 9.3950
 4.6460	 9.4410
 4.6510	 9.3970
 4.6550	 9.4740
 4.6590	 9.5150
 4.6630	 9.4730
 4.6670	 9.4320
 4.6720	 9.2800
 4.6760	 9.2690
 4.6800	 9.3660
 4.6840	 9.3790
 4.6880	 9.3550
 4.6930	 9.3100
 4.6970	 9.3140
 4.7010	 9.4100
 4.7050	 9.4240
 4.7100	 9.3280
 4.7140	 9.3310
 4.7180	 9.3780
 4.7230	 9.3440
 4.7270	 9.2650
 4.7310	 9.3040
 4.7360	 9.3170
 4.7400	 9.3260
 4.7440	 9.3520
 4.7490	 9.3310
 4.7530	 9.2710
 4.7570	 9.2820
 4.7620	 9.3460
 4.7660	 9.3650
 4.7700	 9.3240
 4.7750	 9.2170
 4.7790	 9.1910
 4.7840	 9.2650
 4.7880	 9.2480
 4.7920	 9.2780
 4.7970	 9.3870
 4.8010	 9.3210
 4.8060	 9.1940
 4.8100	 9.1930
 4.8150	 9.1900
 4.8190	 9.2380
 4.8240	 9.2730
 4.8280	 9.3130
 4.8330	 9.3330
 4.8370	 9.3030
 4.8420	 9.2610
 4.8460	 9.2710
 4.8510	 9.2430
 4.8550	 9.2430
 4.8600	 9.2780
 4.8640	 9.2210
 4.8690	 9.1090
 4.8730	 9.1190
 4.8780	 9.1570
 4.8830	 9.1390
 4.8870	 9.1120
 4.8920	 9.1740
 4.8960	 9.2400
 4.9010	 9.1960
 4.9060	 9.1670
 4.9100	 9.1560
 4.9150	 9.1420
 4.9200	 9.1490
 4.9240	 9.2030
 4.9290	 9.2160
 4.9340	 9.1300
 4.9380	 9.1110
 4.9430	 9.1050
 4.9480	 9.0910
 4.9530	 9.0560
 4.9570	 9.0540
 4.9620	 9.0350
 4.9670	 9.0610
 4.9720	 9.0410
 4.9760	 9.0790
 4.9810	 9.0770
 4.9860	 9.0760
 4.9910	 9.0730
 4.9960	 8.9970
 5.0000	 8.9830
 5.0050	 9.0130
 5.0100	 8.9710
 5.0150	 8.9610
 5.0200	 8.9770
 5.0250	 8.9790
 5.0290	 8.9110
 5.0340	 8.9600
 5.0390	 9.0440
 5.0440	 8.9650
 5.0490	 8.8720
 5.0540	 8.9100
 5.0590	 9.0230
 5.0640	 9.0430
 5.0690	 9.0530
 5.0740	 9.0920
 5.0790	 9.0400
 5.0840	 9.0070
 5.0890	 9.0020
 5.0940	 9.0250
 5.0990	 9.0400
 5.1040	 9.0920
 5.1090	 9.0450
 5.1140	 8.9460
 5.1190	 8.9790
 5.1240	 9.0540
 5.1290	 9.0330
 5.1340	 9.0070
 5.1390	 8.9720
 5.1440	 9.0370
 5.1490	 9.0130
 5.1540	 8.9070
 5.1600	 8.9560
 5.1650	 9.0700
 5.1700	 8.9370
 5.1750	 8.9300
 5.1800	 9.0190
 5.1850	 9.0850
 5.1910	 9.0480
 5.1960	 8.9840
 5.2010	 8.9440
 5.2060	 8.9470
 5.2110	 8.9750
 5.2170	 9.0530
 5.2220	 9.0170
 5.2270	 9.0210
 5.2320	 8.9200
 5.2380	 8.8940
 5.2430	 8.9420
 5.2480	 8.9680
 5.2540	 8.9230
 5.2590	 8.8860
 5.2640	 8.9310
 5.2700	 9.0180
 5.2750	 8.9400
 5.2800	 8.9020
 5.2860	 8.8870
 5.2910	 8.9220
 5.2970	 8.9340
 5.3020	 8.8910
 5.3070	 8.8460
 5.3130	 8.8720
 5.3180	 8.8680
 5.3240	 8.9820
 5.3290	 9.0110
 5.3350	 8.9970
 5.3400	 8.9690
 5.3460	 8.9200
 5.3510	 8.9100
 5.3570	 8.9170
 5.3620	 8.8550
 5.3680	 8.8700
 5.3730	 8.8280
 5.3790	 8.7620
 5.3850	 8.8030
 5.3900	 8.9100
 5.3960	 8.8820
 5.4010	 8.9760
 5.4070	 8.9670
 5.4130	 8.8770
 5.4180	 8.8530
 5.4240	 8.8560
 5.4300	 8.8590
 5.4350	 8.8140
