Name: Baccharis pilularis 2
Type: vegetation
Class: Shrub
Genus: Baccharis
Species: pilularis
Sample No.: VH003
Owner: UCSB
Wavelength Range: VSWIR
Origin: 34.418; -119.8455; WGS84
Collection Date: 4/1/2013
Description: Samples were collected as part of the HyspIRI Airborne Campaign. 48 individual plants were sampled in three times in 2013 - spring  summer  and fall. The name of the sample includes a 1  2  or 3 which references a different individual of the species. Samples were taken to JPL and processed within 48 hours of collection. The same leaves were processed in the Nicolet and then measured using the ASD.
Measurement: Bidirectional reflectance
First Column: X
Second Column: Y
X Units: Wavelength (micrometers)
Y Units: Reflectance (percentage)
First X Value: 0.35
Last X Value: 2.5
Number of X Values: 2151
Additional Information: vegetation.shrub.baccharis.pilularis.vswir.vh003.ucsb.asd.ancillary.txt

 0.3500	 3.6330
 0.3510	 3.6930
 0.3520	 3.8210
 0.3530	 3.9030
 0.3540	 3.8770
 0.3550	 3.7860
 0.3560	 3.7820
 0.3570	 3.7950
 0.3580	 3.6780
 0.3590	 3.7130
 0.3600	 3.7530
 0.3610	 3.7070
 0.3620	 3.6030
 0.3630	 3.6480
 0.3640	 3.7560
 0.3650	 3.7880
 0.3660	 3.7190
 0.3670	 3.6810
 0.3680	 3.7060
 0.3690	 3.7440
 0.3700	 3.7470
 0.3710	 3.7360
 0.3720	 3.7300
 0.3730	 3.7070
 0.3740	 3.7430
 0.3750	 3.7680
 0.3760	 3.7060
 0.3770	 3.7120
 0.3780	 3.7570
 0.3790	 3.7960
 0.3800	 3.7770
 0.3810	 3.7290
 0.3820	 3.6990
 0.3830	 3.7130
 0.3840	 3.7500
 0.3850	 3.7830
 0.3860	 3.7880
 0.3870	 3.7700
 0.3880	 3.8470
 0.3890	 3.8610
 0.3900	 3.8090
 0.3910	 3.8650
 0.3920	 3.8670
 0.3930	 3.8520
 0.3940	 3.8600
 0.3950	 3.8270
 0.3960	 3.8580
 0.3970	 3.9220
 0.3980	 3.9370
 0.3990	 3.9320
 0.4000	 3.9400
 0.4010	 3.9810
 0.4020	 4.0590
 0.4030	 4.1000
 0.4040	 4.1040
 0.4050	 4.1000
 0.4060	 4.1500
 0.4070	 4.1820
 0.4080	 4.1910
 0.4090	 4.2170
 0.4100	 4.2350
 0.4110	 4.2640
 0.4120	 4.3120
 0.4130	 4.3510
 0.4140	 4.3810
 0.4150	 4.4050
 0.4160	 4.4340
 0.4170	 4.4950
 0.4180	 4.5360
 0.4190	 4.5580
 0.4200	 4.6140
 0.4210	 4.6600
 0.4220	 4.6840
 0.4230	 4.6950
 0.4240	 4.7390
 0.4250	 4.7870
 0.4260	 4.8210
 0.4270	 4.8330
 0.4280	 4.8700
 0.4290	 4.9030
 0.4300	 4.9220
 0.4310	 4.9510
 0.4320	 4.9790
 0.4330	 5.0090
 0.4340	 5.0400
 0.4350	 5.0510
 0.4360	 5.0660
 0.4370	 5.0880
 0.4380	 5.1030
 0.4390	 5.1210
 0.4400	 5.1450
 0.4410	 5.1670
 0.4420	 5.1710
 0.4430	 5.1810
 0.4440	 5.2000
 0.4450	 5.2220
 0.4460	 5.2470
 0.4470	 5.2690
 0.4480	 5.2870
 0.4490	 5.3110
 0.4500	 5.3290
 0.4510	 5.3410
 0.4520	 5.3510
 0.4530	 5.3730
 0.4540	 5.3950
 0.4550	 5.4140
 0.4560	 5.4300
 0.4570	 5.4410
 0.4580	 5.4470
 0.4590	 5.4500
 0.4600	 5.4630
 0.4610	 5.4700
 0.4620	 5.4720
 0.4630	 5.4770
 0.4640	 5.4930
 0.4650	 5.5040
 0.4660	 5.5020
 0.4670	 5.4930
 0.4680	 5.4980
 0.4690	 5.5000
 0.4700	 5.4890
 0.4710	 5.4960
 0.4720	 5.5160
 0.4730	 5.5310
 0.4740	 5.5190
 0.4750	 5.5190
 0.4760	 5.5290
 0.4770	 5.5380
 0.4780	 5.5310
 0.4790	 5.5350
 0.4800	 5.5470
 0.4810	 5.5550
 0.4820	 5.5600
 0.4830	 5.5670
 0.4840	 5.5770
 0.4850	 5.5840
 0.4860	 5.5950
 0.4870	 5.6030
 0.4880	 5.6090
 0.4890	 5.6270
 0.4900	 5.6480
 0.4910	 5.6690
 0.4920	 5.6870
 0.4930	 5.7100
 0.4940	 5.7390
 0.4950	 5.7690
 0.4960	 5.7920
 0.4970	 5.8210
 0.4980	 5.8550
 0.4990	 5.8880
 0.5000	 5.9260
 0.5010	 5.9740
 0.5020	 6.0280
 0.5030	 6.0750
 0.5040	 6.1370
 0.5050	 6.2090
 0.5060	 6.2840
 0.5070	 6.3650
 0.5080	 6.4450
 0.5090	 6.5330
 0.5100	 6.6410
 0.5110	 6.7540
 0.5120	 6.8710
 0.5130	 6.9960
 0.5140	 7.1290
 0.5150	 7.2810
 0.5160	 7.4430
 0.5170	 7.6040
 0.5180	 7.7800
 0.5190	 7.9610
 0.5200	 8.1460
 0.5210	 8.3380
 0.5220	 8.5300
 0.5230	 8.7220
 0.5240	 8.9130
 0.5250	 9.1070
 0.5260	 9.2920
 0.5270	 9.4660
 0.5280	 9.6330
 0.5290	 9.7850
 0.5300	 9.9300
 0.5310	10.0680
 0.5320	10.1940
 0.5330	10.3110
 0.5340	10.4180
 0.5350	10.5120
 0.5360	10.5970
 0.5370	10.6780
 0.5380	10.7540
 0.5390	10.8170
 0.5400	10.8840
 0.5410	10.9520
 0.5420	11.0190
 0.5430	11.0760
 0.5440	11.1280
 0.5450	11.1760
 0.5460	11.2170
 0.5470	11.2430
 0.5480	11.2630
 0.5490	11.2830
 0.5500	11.3030
 0.5510	11.3220
 0.5520	11.3310
 0.5530	11.3250
 0.5540	11.3070
 0.5550	11.2770
 0.5560	11.2370
 0.5570	11.1860
 0.5580	11.1240
 0.5590	11.0550
 0.5600	10.9810
 0.5610	10.8950
 0.5620	10.8040
 0.5630	10.7070
 0.5640	10.6030
 0.5650	10.4910
 0.5660	10.3790
 0.5670	10.2700
 0.5680	10.1510
 0.5690	10.0310
 0.5700	 9.9110
 0.5710	 9.7940
 0.5720	 9.6780
 0.5730	 9.5630
 0.5740	 9.4530
 0.5750	 9.3470
 0.5760	 9.2530
 0.5770	 9.1620
 0.5780	 9.0710
 0.5790	 8.9890
 0.5800	 8.9110
 0.5810	 8.8370
 0.5820	 8.7710
 0.5830	 8.7130
 0.5840	 8.6580
 0.5850	 8.6050
 0.5860	 8.5580
 0.5870	 8.5100
 0.5880	 8.4640
 0.5890	 8.4230
 0.5900	 8.3870
 0.5910	 8.3580
 0.5920	 8.3330
 0.5930	 8.3050
 0.5940	 8.2890
 0.5950	 8.2760
 0.5960	 8.2600
 0.5970	 8.2450
 0.5980	 8.2300
 0.5990	 8.2110
 0.6000	 8.1850
 0.6010	 8.1560
 0.6020	 8.1240
 0.6030	 8.0900
 0.6040	 8.0560
 0.6050	 8.0120
 0.6060	 7.9610
 0.6070	 7.9080
 0.6080	 7.8540
 0.6090	 7.8000
 0.6100	 7.7480
 0.6110	 7.6990
 0.6120	 7.6390
 0.6130	 7.5710
 0.6140	 7.5000
 0.6150	 7.4400
 0.6160	 7.3820
 0.6170	 7.3280
 0.6180	 7.2830
 0.6190	 7.2400
 0.6200	 7.2030
 0.6210	 7.1710
 0.6220	 7.1430
 0.6230	 7.1180
 0.6240	 7.0970
 0.6250	 7.0780
 0.6260	 7.0590
 0.6270	 7.0460
 0.6280	 7.0380
 0.6290	 7.0310
 0.6300	 7.0260
 0.6310	 7.0190
 0.6320	 7.0090
 0.6330	 6.9980
 0.6340	 6.9810
 0.6350	 6.9600
 0.6360	 6.9370
 0.6370	 6.9030
 0.6380	 6.8700
 0.6390	 6.8340
 0.6400	 6.7920
 0.6410	 6.7450
 0.6420	 6.6980
 0.6430	 6.6520
 0.6440	 6.6030
 0.6450	 6.5500
 0.6460	 6.4980
 0.6470	 6.4540
 0.6480	 6.4110
 0.6490	 6.3700
 0.6500	 6.3310
 0.6510	 6.2980
 0.6520	 6.2630
 0.6530	 6.2260
 0.6540	 6.1910
 0.6550	 6.1560
 0.6560	 6.1170
 0.6570	 6.0750
 0.6580	 6.0340
 0.6590	 5.9890
 0.6600	 5.9430
 0.6610	 5.8970
 0.6620	 5.8500
 0.6630	 5.8080
 0.6640	 5.7690
 0.6650	 5.7350
 0.6660	 5.7090
 0.6670	 5.6860
 0.6680	 5.6670
 0.6690	 5.6560
 0.6700	 5.6470
 0.6710	 5.6420
 0.6720	 5.6430
 0.6730	 5.6490
 0.6740	 5.6590
 0.6750	 5.6720
 0.6760	 5.6880
 0.6770	 5.7060
 0.6780	 5.7280
 0.6790	 5.7560
 0.6800	 5.7910
 0.6810	 5.8320
 0.6820	 5.8760
 0.6830	 5.9240
 0.6840	 5.9910
 0.6850	 6.0680
 0.6860	 6.1530
 0.6870	 6.2530
 0.6880	 6.3810
 0.6890	 6.5330
 0.6900	 6.7100
 0.6910	 6.9250
 0.6920	 7.1830
 0.6930	 7.4840
 0.6940	 7.8310
 0.6950	 8.2310
 0.6960	 8.6760
 0.6970	 9.1690
 0.6980	 9.7110
 0.6990	10.3000
 0.7000	10.9300
 0.7010	11.5970
 0.7020	12.2940
 0.7030	13.0210
 0.7040	13.7730
 0.7050	14.5420
 0.7060	15.3230
 0.7070	16.1160
 0.7080	16.9220
 0.7090	17.7440
 0.7100	18.5640
 0.7110	19.3920
 0.7120	20.2290
 0.7130	21.0690
 0.7140	21.9050
 0.7150	22.7430
 0.7160	23.5840
 0.7170	24.4140
 0.7180	25.2360
 0.7190	26.0520
 0.7200	26.8650
 0.7210	27.6600
 0.7220	28.4420
 0.7230	29.2090
 0.7240	29.9570
 0.7250	30.6760
 0.7260	31.3740
 0.7270	32.0550
 0.7280	32.7130
 0.7290	33.3350
 0.7300	33.9200
 0.7310	34.4770
 0.7320	35.0110
 0.7330	35.5250
 0.7340	36.0170
 0.7350	36.4760
 0.7360	36.9060
 0.7370	37.3110
 0.7380	37.6930
 0.7390	38.0500
 0.7400	38.3830
 0.7410	38.6910
 0.7420	38.9790
 0.7430	39.2540
 0.7440	39.5050
 0.7450	39.7300
 0.7460	39.9400
 0.7470	40.1390
 0.7480	40.3240
 0.7490	40.4900
 0.7500	40.6380
 0.7510	40.7810
 0.7520	40.9120
 0.7530	41.0230
 0.7540	41.1250
 0.7550	41.2230
 0.7560	41.3140
 0.7570	41.3880
 0.7580	41.4630
 0.7590	41.5310
 0.7600	41.5890
 0.7610	41.6480
 0.7620	41.7020
 0.7630	41.7520
 0.7640	41.8000
 0.7650	41.8430
 0.7660	41.8860
 0.7670	41.9210
 0.7680	41.9410
 0.7690	41.9670
 0.7700	41.9940
 0.7710	42.0190
 0.7720	42.0530
 0.7730	42.0770
 0.7740	42.0970
 0.7750	42.1200
 0.7760	42.1400
 0.7770	42.1620
 0.7780	42.1890
 0.7790	42.2170
 0.7800	42.2280
 0.7810	42.2440
 0.7820	42.2690
 0.7830	42.2890
 0.7840	42.3110
 0.7850	42.3290
 0.7860	42.3410
 0.7870	42.3550
 0.7880	42.3720
 0.7890	42.3910
 0.7900	42.4100
 0.7910	42.4330
 0.7920	42.4540
 0.7930	42.4680
 0.7940	42.4710
 0.7950	42.4830
 0.7960	42.4950
 0.7970	42.5060
 0.7980	42.5250
 0.7990	42.5380
 0.8000	42.5440
 0.8010	42.5460
 0.8020	42.5580
 0.8030	42.5690
 0.8040	42.5730
 0.8050	42.5720
 0.8060	42.5840
 0.8070	42.5880
 0.8080	42.5850
 0.8090	42.6010
 0.8100	42.5970
 0.8110	42.5980
 0.8120	42.6080
 0.8130	42.5960
 0.8140	42.5970
 0.8150	42.6000
 0.8160	42.5920
 0.8170	42.5900
 0.8180	42.5920
 0.8190	42.5940
 0.8200	42.5890
 0.8210	42.5800
 0.8220	42.5780
 0.8230	42.5820
 0.8240	42.5730
 0.8250	42.5500
 0.8260	42.5350
 0.8270	42.5350
 0.8280	42.5290
 0.8290	42.5260
 0.8300	42.5190
 0.8310	42.5030
 0.8320	42.4800
 0.8330	42.4730
 0.8340	42.4780
 0.8350	42.4830
 0.8360	42.4680
 0.8370	42.4590
 0.8380	42.4570
 0.8390	42.4450
 0.8400	42.4490
 0.8410	42.4550
 0.8420	42.4550
 0.8430	42.4480
 0.8440	42.4460
 0.8450	42.4500
 0.8460	42.4540
 0.8470	42.4510
 0.8480	42.4440
 0.8490	42.4410
 0.8500	42.4480
 0.8510	42.4600
 0.8520	42.4610
 0.8530	42.4530
 0.8540	42.4490
 0.8550	42.4550
 0.8560	42.4610
 0.8570	42.4600
 0.8580	42.4530
 0.8590	42.4640
 0.8600	42.4740
 0.8610	42.4760
 0.8620	42.4910
 0.8630	42.5000
 0.8640	42.5090
 0.8650	42.5190
 0.8660	42.5180
 0.8670	42.5220
 0.8680	42.5310
 0.8690	42.5430
 0.8700	42.5540
 0.8710	42.5570
 0.8720	42.5570
 0.8730	42.5640
 0.8740	42.5710
 0.8750	42.5790
 0.8760	42.5930
 0.8770	42.6100
 0.8780	42.6290
 0.8790	42.6410
 0.8800	42.6470
 0.8810	42.6590
 0.8820	42.6790
 0.8830	42.6910
 0.8840	42.6880
 0.8850	42.6980
 0.8860	42.7220
 0.8870	42.7390
 0.8880	42.7400
 0.8890	42.7590
 0.8900	42.7790
 0.8910	42.7940
 0.8920	42.8040
 0.8930	42.8090
 0.8940	42.8300
 0.8950	42.8570
 0.8960	42.8620
 0.8970	42.8750
 0.8980	42.8870
 0.8990	42.8950
 0.9000	42.9050
 0.9010	42.9230
 0.9020	42.9380
 0.9030	42.9460
 0.9040	42.9600
 0.9050	42.9700
 0.9060	42.9840
 0.9070	43.0030
 0.9080	43.0120
 0.9090	43.0290
 0.9100	43.0470
 0.9110	43.0580
 0.9120	43.0720
 0.9130	43.0900
 0.9140	43.1030
 0.9150	43.1060
 0.9160	43.1190
 0.9170	43.1250
 0.9180	43.1230
 0.9190	43.1190
 0.9200	43.1280
 0.9210	43.1290
 0.9220	43.1260
 0.9230	43.1330
 0.9240	43.1400
 0.9250	43.1360
 0.9260	43.1220
 0.9270	43.1040
 0.9280	43.1030
 0.9290	43.1030
 0.9300	43.0920
 0.9310	43.0750
 0.9320	43.0720
 0.9330	43.0560
 0.9340	43.0260
 0.9350	43.0100
 0.9360	42.9870
 0.9370	42.9640
 0.9380	42.9460
 0.9390	42.9220
 0.9400	42.9020
 0.9410	42.8670
 0.9420	42.8140
 0.9430	42.7830
 0.9440	42.7370
 0.9450	42.6960
 0.9460	42.6670
 0.9470	42.6130
 0.9480	42.5590
 0.9490	42.5000
 0.9500	42.4310
 0.9510	42.3630
 0.9520	42.3050
 0.9530	42.2410
 0.9540	42.1600
 0.9550	42.0910
 0.9560	42.0150
 0.9570	41.9380
 0.9580	41.8720
 0.9590	41.8340
 0.9600	41.7730
 0.9610	41.7120
 0.9620	41.6850
 0.9630	41.6590
 0.9640	41.6460
 0.9650	41.6370
 0.9660	41.6180
 0.9670	41.5940
 0.9680	41.5840
 0.9690	41.5720
 0.9700	41.5450
 0.9710	41.5470
 0.9720	41.5330
 0.9730	41.5150
 0.9740	41.5240
 0.9750	41.5280
 0.9760	41.5420
 0.9770	41.5530
 0.9780	41.5490
 0.9790	41.5450
 0.9800	41.5670
 0.9810	41.5950
 0.9820	41.5990
 0.9830	41.6160
 0.9840	41.6420
 0.9850	41.6530
 0.9860	41.6370
 0.9870	41.6510
 0.9880	41.6930
 0.9890	41.7340
 0.9900	41.7460
 0.9910	41.7690
 0.9920	41.8500
 0.9930	41.9310
 0.9940	42.0130
 0.9950	42.0940
 0.9960	42.1750
 0.9970	42.2560
 0.9980	42.3370
 0.9990	42.4180
 1.0000	42.5000
 1.0010	42.5810
 1.0020	42.6620
 1.0030	42.7430
 1.0040	42.8240
 1.0050	42.9050
 1.0060	42.9870
 1.0070	43.0680
 1.0080	43.1490
 1.0090	43.2300
 1.0100	43.2300
 1.0110	43.2570
 1.0120	43.2840
 1.0130	43.3110
 1.0140	43.3370
 1.0150	43.3620
 1.0160	43.3860
 1.0170	43.4150
 1.0180	43.4370
 1.0190	43.4580
 1.0200	43.4870
 1.0210	43.5120
 1.0220	43.5340
 1.0230	43.5580
 1.0240	43.5820
 1.0250	43.6060
 1.0260	43.6320
 1.0270	43.6590
 1.0280	43.6870
 1.0290	43.7130
 1.0300	43.7400
 1.0310	43.7640
 1.0320	43.7860
 1.0330	43.8080
 1.0340	43.8310
 1.0350	43.8490
 1.0360	43.8710
 1.0370	43.8950
 1.0380	43.9160
 1.0390	43.9400
 1.0400	43.9580
 1.0410	43.9750
 1.0420	43.9910
 1.0430	44.0020
 1.0440	44.0190
 1.0450	44.0410
 1.0460	44.0570
 1.0470	44.0720
 1.0480	44.0870
 1.0490	44.0950
 1.0500	44.1060
 1.0510	44.1200
 1.0520	44.1320
 1.0530	44.1420
 1.0540	44.1500
 1.0550	44.1600
 1.0560	44.1670
 1.0570	44.1760
 1.0580	44.1870
 1.0590	44.1950
 1.0600	44.2020
 1.0610	44.2070
 1.0620	44.2080
 1.0630	44.2120
 1.0640	44.2170
 1.0650	44.2190
 1.0660	44.2230
 1.0670	44.2250
 1.0680	44.2240
 1.0690	44.2190
 1.0700	44.2180
 1.0710	44.2180
 1.0720	44.2170
 1.0730	44.2170
 1.0740	44.2140
 1.0750	44.2060
 1.0760	44.2020
 1.0770	44.2010
 1.0780	44.1940
 1.0790	44.1860
 1.0800	44.1790
 1.0810	44.1680
 1.0820	44.1600
 1.0830	44.1570
 1.0840	44.1500
 1.0850	44.1420
 1.0860	44.1310
 1.0870	44.1210
 1.0880	44.1100
 1.0890	44.0980
 1.0900	44.0860
 1.0910	44.0760
 1.0920	44.0670
 1.0930	44.0560
 1.0940	44.0480
 1.0950	44.0330
 1.0960	44.0100
 1.0970	43.9920
 1.0980	43.9700
 1.0990	43.9520
 1.1000	43.9410
 1.1010	43.9250
 1.1020	43.9040
 1.1030	43.8870
 1.1040	43.8730
 1.1050	43.8540
 1.1060	43.8380
 1.1070	43.8280
 1.1080	43.8100
 1.1090	43.7880
 1.1100	43.7680
 1.1110	43.7450
 1.1120	43.7250
 1.1130	43.7070
 1.1140	43.6860
 1.1150	43.6660
 1.1160	43.6420
 1.1170	43.6170
 1.1180	43.5870
 1.1190	43.5550
 1.1200	43.5200
 1.1210	43.4840
 1.1220	43.4420
 1.1230	43.3960
 1.1240	43.3460
 1.1250	43.2870
 1.1260	43.2210
 1.1270	43.1490
 1.1280	43.0750
 1.1290	42.9880
 1.1300	42.8970
 1.1310	42.7930
 1.1320	42.6760
 1.1330	42.5510
 1.1340	42.4170
 1.1350	42.2750
 1.1360	42.1230
 1.1370	41.9630
 1.1380	41.7970
 1.1390	41.6250
 1.1400	41.4480
 1.1410	41.2690
 1.1420	41.0910
 1.1430	40.9120
 1.1440	40.7370
 1.1450	40.5610
 1.1460	40.3930
 1.1470	40.2240
 1.1480	40.0670
 1.1490	39.9140
 1.1500	39.7740
 1.1510	39.6420
 1.1520	39.5220
 1.1530	39.4160
 1.1540	39.3170
 1.1550	39.2280
 1.1560	39.1500
 1.1570	39.0810
 1.1580	39.0210
 1.1590	38.9690
 1.1600	38.9230
 1.1610	38.8820
 1.1620	38.8470
 1.1630	38.8160
 1.1640	38.7920
 1.1650	38.7690
 1.1660	38.7520
 1.1670	38.7350
 1.1680	38.7200
 1.1690	38.7050
 1.1700	38.6930
 1.1710	38.6810
 1.1720	38.6710
 1.1730	38.6600
 1.1740	38.6510
 1.1750	38.6380
 1.1760	38.6230
 1.1770	38.6090
 1.1780	38.5940
 1.1790	38.5780
 1.1800	38.5660
 1.1810	38.5540
 1.1820	38.5390
 1.1830	38.5240
 1.1840	38.5070
 1.1850	38.4900
 1.1860	38.4770
 1.1870	38.4660
 1.1880	38.4550
 1.1890	38.4460
 1.1900	38.4380
 1.1910	38.4300
 1.1920	38.4250
 1.1930	38.4230
 1.1940	38.4230
 1.1950	38.4260
 1.1960	38.4310
 1.1970	38.4370
 1.1980	38.4440
 1.1990	38.4530
 1.2000	38.4650
 1.2010	38.4820
 1.2020	38.4990
 1.2030	38.5160
 1.2040	38.5340
 1.2050	38.5510
 1.2060	38.5700
 1.2070	38.5910
 1.2080	38.6130
 1.2090	38.6380
 1.2100	38.6640
 1.2110	38.6890
 1.2120	38.7160
 1.2130	38.7420
 1.2140	38.7670
 1.2150	38.7960
 1.2160	38.8250
 1.2170	38.8560
 1.2180	38.8900
 1.2190	38.9240
 1.2200	38.9550
 1.2210	38.9880
 1.2220	39.0210
 1.2230	39.0520
 1.2240	39.0820
 1.2250	39.1130
 1.2260	39.1410
 1.2270	39.1700
 1.2280	39.2000
 1.2290	39.2290
 1.2300	39.2540
 1.2310	39.2780
 1.2320	39.3020
 1.2330	39.3260
 1.2340	39.3490
 1.2350	39.3740
 1.2360	39.3970
 1.2370	39.4200
 1.2380	39.4420
 1.2390	39.4640
 1.2400	39.4840
 1.2410	39.5030
 1.2420	39.5220
 1.2430	39.5410
 1.2440	39.5590
 1.2450	39.5760
 1.2460	39.5940
 1.2470	39.6110
 1.2480	39.6270
 1.2490	39.6440
 1.2500	39.6570
 1.2510	39.6680
 1.2520	39.6800
 1.2530	39.6880
 1.2540	39.6970
 1.2550	39.7060
 1.2560	39.7150
 1.2570	39.7250
 1.2580	39.7330
 1.2590	39.7380
 1.2600	39.7400
 1.2610	39.7420
 1.2620	39.7410
 1.2630	39.7410
 1.2640	39.7410
 1.2650	39.7400
 1.2660	39.7360
 1.2670	39.7290
 1.2680	39.7230
 1.2690	39.7170
 1.2700	39.7080
 1.2710	39.7000
 1.2720	39.6920
 1.2730	39.6780
 1.2740	39.6630
 1.2750	39.6490
 1.2760	39.6300
 1.2770	39.6130
 1.2780	39.5970
 1.2790	39.5750
 1.2800	39.5530
 1.2810	39.5300
 1.2820	39.5010
 1.2830	39.4740
 1.2840	39.4450
 1.2850	39.4100
 1.2860	39.3750
 1.2870	39.3370
 1.2880	39.2980
 1.2890	39.2520
 1.2900	39.2070
 1.2910	39.1580
 1.2920	39.1050
 1.2930	39.0520
 1.2940	38.9950
 1.2950	38.9340
 1.2960	38.8710
 1.2970	38.8070
 1.2980	38.7380
 1.2990	38.6640
 1.3000	38.5870
 1.3010	38.5070
 1.3020	38.4250
 1.3030	38.3440
 1.3040	38.2600
 1.3050	38.1740
 1.3060	38.0840
 1.3070	37.9900
 1.3080	37.8930
 1.3090	37.7910
 1.3100	37.6860
 1.3110	37.5770
 1.3120	37.4650
 1.3130	37.3530
 1.3140	37.2370
 1.3150	37.1190
 1.3160	36.9970
 1.3170	36.8750
 1.3180	36.7460
 1.3190	36.6130
 1.3200	36.4800
 1.3210	36.3420
 1.3220	36.2030
 1.3230	36.0640
 1.3240	35.9180
 1.3250	35.7720
 1.3260	35.6240
 1.3270	35.4720
 1.3280	35.3210
 1.3290	35.1670
 1.3300	35.0100
 1.3310	34.8550
 1.3320	34.6970
 1.3330	34.5400
 1.3340	34.3820
 1.3350	34.2230
 1.3360	34.0650
 1.3370	33.9060
 1.3380	33.7490
 1.3390	33.5920
 1.3400	33.4350
 1.3410	33.2820
 1.3420	33.1290
 1.3430	32.9760
 1.3440	32.8270
 1.3450	32.6790
 1.3460	32.5320
 1.3470	32.3860
 1.3480	32.2420
 1.3490	32.0990
 1.3500	31.9580
 1.3510	31.8190
 1.3520	31.6800
 1.3530	31.5400
 1.3540	31.4010
 1.3550	31.2590
 1.3560	31.1160
 1.3570	30.9740
 1.3580	30.8300
 1.3590	30.6830
 1.3600	30.5330
 1.3610	30.3780
 1.3620	30.2150
 1.3630	30.0470
 1.3640	29.8730
 1.3650	29.6900
 1.3660	29.4990
 1.3670	29.2960
 1.3680	29.0810
 1.3690	28.8540
 1.3700	28.6120
 1.3710	28.3550
 1.3720	28.0830
 1.3730	27.7930
 1.3740	27.4860
 1.3750	27.1610
 1.3760	26.8130
 1.3770	26.4450
 1.3780	26.0520
 1.3790	25.6390
 1.3800	25.2070
 1.3810	24.7540
 1.3820	24.2890
 1.3830	23.8070
 1.3840	23.3130
 1.3850	22.8030
 1.3860	22.2870
 1.3870	21.7550
 1.3880	21.2290
 1.3890	20.6960
 1.3900	20.1620
 1.3910	19.6390
 1.3920	19.1170
 1.3930	18.6000
 1.3940	18.0960
 1.3950	17.5980
 1.3960	17.1160
 1.3970	16.6530
 1.3980	16.2060
 1.3990	15.7840
 1.4000	15.3800
 1.4010	14.9960
 1.4020	14.6340
 1.4030	14.2910
 1.4040	13.9690
 1.4050	13.6680
 1.4060	13.3860
 1.4070	13.1270
 1.4080	12.8850
 1.4090	12.6620
 1.4100	12.4560
 1.4110	12.2660
 1.4120	12.0920
 1.4130	11.9320
 1.4140	11.7850
 1.4150	11.6520
 1.4160	11.5300
 1.4170	11.4180
 1.4180	11.3170
 1.4190	11.2250
 1.4200	11.1400
 1.4210	11.0630
 1.4220	10.9930
 1.4230	10.9300
 1.4240	10.8740
 1.4250	10.8220
 1.4260	10.7770
 1.4270	10.7350
 1.4280	10.7000
 1.4290	10.6670
 1.4300	10.6380
 1.4310	10.6130
 1.4320	10.5920
 1.4330	10.5740
 1.4340	10.5600
 1.4350	10.5470
 1.4360	10.5360
 1.4370	10.5280
 1.4380	10.5230
 1.4390	10.5190
 1.4400	10.5180
 1.4410	10.5200
 1.4420	10.5220
 1.4430	10.5260
 1.4440	10.5320
 1.4450	10.5390
 1.4460	10.5470
 1.4470	10.5560
 1.4480	10.5660
 1.4490	10.5770
 1.4500	10.5900
 1.4510	10.6030
 1.4520	10.6190
 1.4530	10.6350
 1.4540	10.6530
 1.4550	10.6730
 1.4560	10.6940
 1.4570	10.7180
 1.4580	10.7430
 1.4590	10.7720
 1.4600	10.8040
 1.4610	10.8380
 1.4620	10.8760
 1.4630	10.9180
 1.4640	10.9620
 1.4650	11.0120
 1.4660	11.0650
 1.4670	11.1200
 1.4680	11.1800
 1.4690	11.2430
 1.4700	11.3090
