Name: Quercus agrifolia 1
Type: vegetation
Class: Tree
Genus: Quercus
Species: agrifolia
Sample No.: VH171
Owner: UCSB
Wavelength Range: VSWIR
Origin: 34.7153; -120.0601; WGS84
Collection Date: 6/9/2013
Description: Samples were collected as part of the HyspIRI Airborne Campaign. 48 individual plants were sampled in three times in 2013 - spring  summer  and fall. The name of the sample includes a 1  2  or 3 which references a different individual of the species. Samples were taken to JPL and processed within 48 hours of collection. The same leaves were processed in the Nicolet and then measured using the ASD.
Measurement: Bidirectional reflectance
First Column: X
Second Column: Y
X Units: Wavelength (micrometers)
Y Units: Reflectance (percentage)
First X Value: 0.35
Last X Value: 2.5
Number of X Values: 2151
Additional Information: vegetation.tree.quercus.agrifolia.vswir.vh171.ucsb.asd.ancillary.txt

 0.3500	 3.3870
 0.3510	 3.0820
 0.3520	 2.9500
 0.3530	 2.9690
 0.3540	 2.9960
 0.3550	 3.0150
 0.3560	 2.9370
 0.3570	 2.8670
 0.3580	 2.9700
 0.3590	 2.9850
 0.3600	 2.9960
 0.3610	 3.0560
 0.3620	 3.1660
 0.3630	 3.0600
 0.3640	 2.9450
 0.3650	 3.0260
 0.3660	 3.0550
 0.3670	 3.0180
 0.3680	 2.9750
 0.3690	 3.0200
 0.3700	 3.0140
 0.3710	 3.0030
 0.3720	 3.0210
 0.3730	 2.9980
 0.3740	 2.9580
 0.3750	 2.9310
 0.3760	 2.9370
 0.3770	 2.9500
 0.3780	 2.9350
 0.3790	 2.8910
 0.3800	 2.8660
 0.3810	 2.9370
 0.3820	 3.0180
 0.3830	 3.0360
 0.3840	 2.9960
 0.3850	 2.9830
 0.3860	 2.9480
 0.3870	 2.8290
 0.3880	 2.9210
 0.3890	 2.9990
 0.3900	 2.9770
 0.3910	 2.9500
 0.3920	 2.9860
 0.3930	 3.0250
 0.3940	 3.0070
 0.3950	 2.9480
 0.3960	 2.9290
 0.3970	 2.9540
 0.3980	 2.9830
 0.3990	 2.9810
 0.4000	 2.9760
 0.4010	 2.9810
 0.4020	 2.9900
 0.4030	 2.9820
 0.4040	 2.9730
 0.4050	 2.9730
 0.4060	 2.9460
 0.4070	 2.9750
 0.4080	 3.0370
 0.4090	 3.0580
 0.4100	 3.0380
 0.4110	 3.0170
 0.4120	 3.0180
 0.4130	 3.0180
 0.4140	 3.0200
 0.4150	 3.0160
 0.4160	 3.0100
 0.4170	 3.0390
 0.4180	 3.0560
 0.4190	 3.0530
 0.4200	 3.0630
 0.4210	 3.0840
 0.4220	 3.0920
 0.4230	 3.0850
 0.4240	 3.1060
 0.4250	 3.1190
 0.4260	 3.1160
 0.4270	 3.1000
 0.4280	 3.1370
 0.4290	 3.1690
 0.4300	 3.1660
 0.4310	 3.1550
 0.4320	 3.1650
 0.4330	 3.1790
 0.4340	 3.1780
 0.4350	 3.1920
 0.4360	 3.2080
 0.4370	 3.2140
 0.4380	 3.2120
 0.4390	 3.2170
 0.4400	 3.2150
 0.4410	 3.2010
 0.4420	 3.2050
 0.4430	 3.2230
 0.4440	 3.2310
 0.4450	 3.2120
 0.4460	 3.2250
 0.4470	 3.2440
 0.4480	 3.2540
 0.4490	 3.2610
 0.4500	 3.2610
 0.4510	 3.2570
 0.4520	 3.2570
 0.4530	 3.2760
 0.4540	 3.2890
 0.4550	 3.2860
 0.4560	 3.2790
 0.4570	 3.2880
 0.4580	 3.2960
 0.4590	 3.2950
 0.4600	 3.2920
 0.4610	 3.2960
 0.4620	 3.3000
 0.4630	 3.2970
 0.4640	 3.3050
 0.4650	 3.3070
 0.4660	 3.3000
 0.4670	 3.2830
 0.4680	 3.2970
 0.4690	 3.3120
 0.4700	 3.3040
 0.4710	 3.3070
 0.4720	 3.3080
 0.4730	 3.3060
 0.4740	 3.3160
 0.4750	 3.3110
 0.4760	 3.3090
 0.4770	 3.3150
 0.4780	 3.3180
 0.4790	 3.3170
 0.4800	 3.3150
 0.4810	 3.3170
 0.4820	 3.3180
 0.4830	 3.3110
 0.4840	 3.3080
 0.4850	 3.3270
 0.4860	 3.3430
 0.4870	 3.3510
 0.4880	 3.3560
 0.4890	 3.3540
 0.4900	 3.3600
 0.4910	 3.3690
 0.4920	 3.3780
 0.4930	 3.3930
 0.4940	 3.4120
 0.4950	 3.4270
 0.4960	 3.4310
 0.4970	 3.4440
 0.4980	 3.4640
 0.4990	 3.4810
 0.5000	 3.4960
 0.5010	 3.5190
 0.5020	 3.5490
 0.5030	 3.5900
 0.5040	 3.6260
 0.5050	 3.6580
 0.5060	 3.6910
 0.5070	 3.7390
 0.5080	 3.8020
 0.5090	 3.8670
 0.5100	 3.9240
 0.5110	 3.9850
 0.5120	 4.0540
 0.5130	 4.1370
 0.5140	 4.2360
 0.5150	 4.3400
 0.5160	 4.4450
 0.5170	 4.5590
 0.5180	 4.6870
 0.5190	 4.8180
 0.5200	 4.9490
 0.5210	 5.0870
 0.5220	 5.2270
 0.5230	 5.3730
 0.5240	 5.5150
 0.5250	 5.6600
 0.5260	 5.8060
 0.5270	 5.9440
 0.5280	 6.0650
 0.5290	 6.1810
 0.5300	 6.2890
 0.5310	 6.3910
 0.5320	 6.4860
 0.5330	 6.5790
 0.5340	 6.6600
 0.5350	 6.7330
 0.5360	 6.7870
 0.5370	 6.8420
 0.5380	 6.9000
 0.5390	 6.9510
 0.5400	 7.0020
 0.5410	 7.0520
 0.5420	 7.1010
 0.5430	 7.1490
 0.5440	 7.1890
 0.5450	 7.2240
 0.5460	 7.2520
 0.5470	 7.2690
 0.5480	 7.2840
 0.5490	 7.3030
 0.5500	 7.3210
 0.5510	 7.3270
 0.5520	 7.3260
 0.5530	 7.3210
 0.5540	 7.3070
 0.5550	 7.2820
 0.5560	 7.2460
 0.5570	 7.1940
 0.5580	 7.1380
 0.5590	 7.0790
 0.5600	 7.0170
 0.5610	 6.9500
 0.5620	 6.8840
 0.5630	 6.8100
 0.5640	 6.7300
 0.5650	 6.6380
 0.5660	 6.5440
 0.5670	 6.4440
 0.5680	 6.3440
 0.5690	 6.2420
 0.5700	 6.1350
 0.5710	 6.0300
 0.5720	 5.9370
 0.5730	 5.8500
 0.5740	 5.7790
 0.5750	 5.7220
 0.5760	 5.6650
 0.5770	 5.6110
 0.5780	 5.5510
 0.5790	 5.4960
 0.5800	 5.4390
 0.5810	 5.3830
 0.5820	 5.3300
 0.5830	 5.2760
 0.5840	 5.2240
 0.5850	 5.1680
 0.5860	 5.1200
 0.5870	 5.0750
 0.5880	 5.0410
 0.5890	 5.0210
 0.5900	 5.0050
 0.5910	 4.9940
 0.5920	 4.9850
 0.5930	 4.9750
 0.5940	 4.9620
 0.5950	 4.9510
 0.5960	 4.9410
 0.5970	 4.9180
 0.5980	 4.8940
 0.5990	 4.8690
 0.6000	 4.8450
 0.6010	 4.8170
 0.6020	 4.7890
 0.6030	 4.7620
 0.6040	 4.7390
 0.6050	 4.7100
 0.6060	 4.6790
 0.6070	 4.6450
 0.6080	 4.6090
 0.6090	 4.5750
 0.6100	 4.5420
 0.6110	 4.5180
 0.6120	 4.4760
 0.6130	 4.4240
 0.6140	 4.3760
 0.6150	 4.3400
 0.6160	 4.3020
 0.6170	 4.2660
 0.6180	 4.2350
 0.6190	 4.2100
 0.6200	 4.1870
 0.6210	 4.1650
 0.6220	 4.1450
 0.6230	 4.1310
 0.6240	 4.1180
 0.6250	 4.1110
 0.6260	 4.0970
 0.6270	 4.0880
 0.6280	 4.0830
 0.6290	 4.0800
 0.6300	 4.0780
 0.6310	 4.0750
 0.6320	 4.0740
 0.6330	 4.0640
 0.6340	 4.0540
 0.6350	 4.0390
 0.6360	 4.0260
 0.6370	 4.0060
 0.6380	 3.9860
 0.6390	 3.9610
 0.6400	 3.9330
 0.6410	 3.9040
 0.6420	 3.8710
 0.6430	 3.8380
 0.6440	 3.8080
 0.6450	 3.7780
 0.6460	 3.7460
 0.6470	 3.7160
 0.6480	 3.6860
 0.6490	 3.6650
 0.6500	 3.6400
 0.6510	 3.6190
 0.6520	 3.5980
 0.6530	 3.5790
 0.6540	 3.5640
 0.6550	 3.5410
 0.6560	 3.5220
 0.6570	 3.5000
 0.6580	 3.4760
 0.6590	 3.4490
 0.6600	 3.4270
 0.6610	 3.4060
 0.6620	 3.3840
 0.6630	 3.3670
 0.6640	 3.3510
 0.6650	 3.3330
 0.6660	 3.3170
 0.6670	 3.3090
 0.6680	 3.3020
 0.6690	 3.3000
 0.6700	 3.2990
 0.6710	 3.3030
 0.6720	 3.3060
 0.6730	 3.3130
 0.6740	 3.3230
 0.6750	 3.3330
 0.6760	 3.3460
 0.6770	 3.3620
 0.6780	 3.3780
 0.6790	 3.3980
 0.6800	 3.4210
 0.6810	 3.4460
 0.6820	 3.4740
 0.6830	 3.5070
 0.6840	 3.5460
 0.6850	 3.5860
 0.6860	 3.6330
 0.6870	 3.6900
 0.6880	 3.7620
 0.6890	 3.8430
 0.6900	 3.9460
 0.6910	 4.0790
 0.6920	 4.2430
 0.6930	 4.4410
 0.6940	 4.6760
 0.6950	 4.9570
 0.6960	 5.2910
 0.6970	 5.6750
 0.6980	 6.1060
 0.6990	 6.5850
 0.7000	 7.1120
 0.7010	 7.6810
 0.7020	 8.2820
 0.7030	 8.9080
 0.7040	 9.5580
 0.7050	10.2230
 0.7060	10.9010
 0.7070	11.5880
 0.7080	12.2780
 0.7090	12.9670
 0.7100	13.6580
 0.7110	14.3540
 0.7120	15.0500
 0.7130	15.7370
 0.7140	16.4230
 0.7150	17.1030
 0.7160	17.7740
 0.7170	18.4410
 0.7180	19.0990
 0.7190	19.7460
 0.7200	20.3780
 0.7210	21.0000
 0.7220	21.6110
 0.7230	22.2100
 0.7240	22.7930
 0.7250	23.3500
 0.7260	23.8870
 0.7270	24.4080
 0.7280	24.9150
 0.7290	25.3990
 0.7300	25.8580
 0.7310	26.2920
 0.7320	26.7110
 0.7330	27.1120
 0.7340	27.4920
 0.7350	27.8470
 0.7360	28.1850
 0.7370	28.5060
 0.7380	28.8070
 0.7390	29.0870
 0.7400	29.3510
 0.7410	29.6000
 0.7420	29.8310
 0.7430	30.0480
 0.7440	30.2510
 0.7450	30.4390
 0.7460	30.6100
 0.7470	30.7700
 0.7480	30.9140
 0.7490	31.0410
 0.7500	31.1630
 0.7510	31.2710
 0.7520	31.3720
 0.7530	31.4740
 0.7540	31.5510
 0.7550	31.6230
 0.7560	31.6920
 0.7570	31.7460
 0.7580	31.8070
 0.7590	31.8630
 0.7600	31.9080
 0.7610	31.9490
 0.7620	31.9840
 0.7630	32.0160
 0.7640	32.0490
 0.7650	32.0800
 0.7660	32.1020
 0.7670	32.1210
 0.7680	32.1450
 0.7690	32.1620
 0.7700	32.1750
 0.7710	32.1860
 0.7720	32.2030
 0.7730	32.2120
 0.7740	32.2190
 0.7750	32.2300
 0.7760	32.2360
 0.7770	32.2440
 0.7780	32.2540
 0.7790	32.2630
 0.7800	32.2700
 0.7810	32.2810
 0.7820	32.2930
 0.7830	32.2940
 0.7840	32.2960
 0.7850	32.3040
 0.7860	32.3150
 0.7870	32.3190
 0.7880	32.3170
 0.7890	32.3190
 0.7900	32.3320
 0.7910	32.3320
 0.7920	32.3320
 0.7930	32.3370
 0.7940	32.3460
 0.7950	32.3540
 0.7960	32.3590
 0.7970	32.3600
 0.7980	32.3620
 0.7990	32.3640
 0.8000	32.3630
 0.8010	32.3580
 0.8020	32.3600
 0.8030	32.3620
 0.8040	32.3600
 0.8050	32.3580
 0.8060	32.3560
 0.8070	32.3550
 0.8080	32.3540
 0.8090	32.3530
 0.8100	32.3520
 0.8110	32.3540
 0.8120	32.3600
 0.8130	32.3580
 0.8140	32.3560
 0.8150	32.3550
 0.8160	32.3570
 0.8170	32.3570
 0.8180	32.3520
 0.8190	32.3450
 0.8200	32.3440
 0.8210	32.3440
 0.8220	32.3460
 0.8230	32.3460
 0.8240	32.3430
 0.8250	32.3380
 0.8260	32.3380
 0.8270	32.3400
 0.8280	32.3330
 0.8290	32.3280
 0.8300	32.3290
 0.8310	32.3360
 0.8320	32.3340
 0.8330	32.3350
 0.8340	32.3360
 0.8350	32.3350
 0.8360	32.3340
 0.8370	32.3330
 0.8380	32.3300
 0.8390	32.3270
 0.8400	32.3330
 0.8410	32.3380
 0.8420	32.3400
 0.8430	32.3450
 0.8440	32.3430
 0.8450	32.3430
 0.8460	32.3540
 0.8470	32.3610
 0.8480	32.3690
 0.8490	32.3730
 0.8500	32.3700
 0.8510	32.3740
 0.8520	32.3780
 0.8530	32.3800
 0.8540	32.3830
 0.8550	32.3890
 0.8560	32.3930
 0.8570	32.3960
 0.8580	32.4080
 0.8590	32.4100
 0.8600	32.4070
 0.8610	32.4100
 0.8620	32.4260
 0.8630	32.4260
 0.8640	32.4200
 0.8650	32.4230
 0.8660	32.4390
 0.8670	32.4490
 0.8680	32.4510
 0.8690	32.4500
 0.8700	32.4520
 0.8710	32.4590
 0.8720	32.4640
 0.8730	32.4610
 0.8740	32.4660
 0.8750	32.4720
 0.8760	32.4790
 0.8770	32.4970
 0.8780	32.4960
 0.8790	32.4950
 0.8800	32.5020
 0.8810	32.5080
 0.8820	32.5060
 0.8830	32.5040
 0.8840	32.5080
 0.8850	32.5060
 0.8860	32.5080
 0.8870	32.5160
 0.8880	32.5240
 0.8890	32.5220
 0.8900	32.5250
 0.8910	32.5350
 0.8920	32.5420
 0.8930	32.5380
 0.8940	32.5360
 0.8950	32.5390
 0.8960	32.5400
 0.8970	32.5470
 0.8980	32.5500
 0.8990	32.5490
 0.9000	32.5520
 0.9010	32.5450
 0.9020	32.5430
 0.9030	32.5510
 0.9040	32.5540
 0.9050	32.5610
 0.9060	32.5670
 0.9070	32.5680
 0.9080	32.5620
 0.9090	32.5570
 0.9100	32.5590
 0.9110	32.5680
 0.9120	32.5660
 0.9130	32.5600
 0.9140	32.5550
 0.9150	32.5560
 0.9160	32.5600
 0.9170	32.5600
 0.9180	32.5580
 0.9190	32.5620
 0.9200	32.5670
 0.9210	32.5650
 0.9220	32.5600
 0.9230	32.5580
 0.9240	32.5480
 0.9250	32.5330
 0.9260	32.5210
 0.9270	32.5200
 0.9280	32.5120
 0.9290	32.5040
 0.9300	32.5010
 0.9310	32.4990
 0.9320	32.4890
 0.9330	32.4780
 0.9340	32.4680
 0.9350	32.4520
 0.9360	32.4380
 0.9370	32.4210
 0.9380	32.4010
 0.9390	32.3870
 0.9400	32.3740
 0.9410	32.3600
 0.9420	32.3440
 0.9430	32.3300
 0.9440	32.3090
 0.9450	32.2900
 0.9460	32.2750
 0.9470	32.2370
 0.9480	32.2100
 0.9490	32.1890
 0.9500	32.1620
 0.9510	32.1280
 0.9520	32.0900
 0.9530	32.0490
 0.9540	32.0070
 0.9550	31.9660
 0.9560	31.9300
 0.9570	31.9030
 0.9580	31.8790
 0.9590	31.8280
 0.9600	31.7880
 0.9610	31.7620
 0.9620	31.7400
 0.9630	31.7120
 0.9640	31.6920
 0.9650	31.6800
 0.9660	31.6690
 0.9670	31.6470
 0.9680	31.6480
 0.9690	31.6520
 0.9700	31.6310
 0.9710	31.6010
 0.9720	31.5910
 0.9730	31.5970
 0.9740	31.5970
 0.9750	31.5690
 0.9760	31.5630
 0.9770	31.5790
 0.9780	31.5910
 0.9790	31.5870
 0.9800	31.5820
 0.9810	31.5790
 0.9820	31.5780
 0.9830	31.5820
 0.9840	31.5850
 0.9850	31.5900
 0.9860	31.5980
 0.9870	31.5900
 0.9880	31.6180
 0.9890	31.6490
 0.9900	31.6320
 0.9910	31.6550
 0.9920	31.6710
 0.9930	31.6720
 0.9940	31.6750
 0.9950	31.6900
 0.9960	31.7090
 0.9970	31.7200
 0.9980	31.7210
 0.9990	31.7490
 1.0000	31.7110
 1.0010	31.6100
 1.0020	31.5750
 1.0030	31.5910
 1.0040	31.6070
 1.0050	31.6240
 1.0060	31.6410
 1.0070	31.6600
 1.0080	31.6750
 1.0090	31.6860
 1.0100	31.7000
 1.0110	31.7120
 1.0120	31.7250
 1.0130	31.7400
 1.0140	31.7540
 1.0150	31.7650
 1.0160	31.7790
 1.0170	31.7940
 1.0180	31.8080
 1.0190	31.8220
 1.0200	31.8300
 1.0210	31.8430
 1.0220	31.8570
 1.0230	31.8690
 1.0240	31.8840
 1.0250	31.8970
 1.0260	31.9050
 1.0270	31.9160
 1.0280	31.9290
 1.0290	31.9400
 1.0300	31.9490
 1.0310	31.9590
 1.0320	31.9710
 1.0330	31.9800
 1.0340	31.9890
 1.0350	32.0010
 1.0360	32.0100
 1.0370	32.0200
 1.0380	32.0300
 1.0390	32.0420
 1.0400	32.0540
 1.0410	32.0660
 1.0420	32.0770
 1.0430	32.0890
 1.0440	32.0990
 1.0450	32.1060
 1.0460	32.1150
 1.0470	32.1260
 1.0480	32.1350
 1.0490	32.1430
 1.0500	32.1520
 1.0510	32.1610
 1.0520	32.1670
 1.0530	32.1740
 1.0540	32.1820
 1.0550	32.1890
 1.0560	32.1950
 1.0570	32.2000
 1.0580	32.2070
 1.0590	32.2110
 1.0600	32.2110
 1.0610	32.2150
 1.0620	32.2210
 1.0630	32.2240
 1.0640	32.2290
 1.0650	32.2310
 1.0660	32.2290
 1.0670	32.2300
 1.0680	32.2310
 1.0690	32.2340
 1.0700	32.2360
 1.0710	32.2380
 1.0720	32.2400
 1.0730	32.2420
 1.0740	32.2420
 1.0750	32.2440
 1.0760	32.2430
 1.0770	32.2390
 1.0780	32.2370
 1.0790	32.2310
 1.0800	32.2280
 1.0810	32.2280
 1.0820	32.2260
 1.0830	32.2250
 1.0840	32.2230
 1.0850	32.2190
 1.0860	32.2140
 1.0870	32.2120
 1.0880	32.2110
 1.0890	32.2070
 1.0900	32.2030
 1.0910	32.2000
 1.0920	32.1930
 1.0930	32.1880
 1.0940	32.1870
 1.0950	32.1820
 1.0960	32.1710
 1.0970	32.1650
 1.0980	32.1590
 1.0990	32.1550
 1.1000	32.1550
 1.1010	32.1520
 1.1020	32.1490
 1.1030	32.1440
 1.1040	32.1380
 1.1050	32.1320
 1.1060	32.1260
 1.1070	32.1200
 1.1080	32.1130
 1.1090	32.1050
 1.1100	32.0970
 1.1110	32.0870
 1.1120	32.0780
 1.1130	32.0690
 1.1140	32.0590
 1.1150	32.0490
 1.1160	32.0370
 1.1170	32.0260
 1.1180	32.0130
 1.1190	31.9990
 1.1200	31.9830
 1.1210	31.9630
 1.1220	31.9420
 1.1230	31.9190
 1.1240	31.8950
 1.1250	31.8690
 1.1260	31.8450
 1.1270	31.8130
 1.1280	31.7800
 1.1290	31.7390
 1.1300	31.6920
 1.1310	31.6420
 1.1320	31.5870
 1.1330	31.5300
 1.1340	31.4720
 1.1350	31.4060
 1.1360	31.3360
 1.1370	31.2610
 1.1380	31.1770
 1.1390	31.0930
 1.1400	31.0060
 1.1410	30.9160
 1.1420	30.8260
 1.1430	30.7330
 1.1440	30.6390
 1.1450	30.5420
 1.1460	30.4510
 1.1470	30.3590
 1.1480	30.2700
 1.1490	30.1830
 1.1500	30.1010
 1.1510	30.0200
 1.1520	29.9440
 1.1530	29.8720
 1.1540	29.8060
 1.1550	29.7470
 1.1560	29.6910
 1.1570	29.6410
 1.1580	29.5990
 1.1590	29.5590
 1.1600	29.5240
 1.1610	29.4930
 1.1620	29.4650
 1.1630	29.4410
 1.1640	29.4180
 1.1650	29.3970
 1.1660	29.3800
 1.1670	29.3650
 1.1680	29.3530
 1.1690	29.3400
 1.1700	29.3300
 1.1710	29.3190
 1.1720	29.3090
 1.1730	29.2990
 1.1740	29.2920
 1.1750	29.2830
 1.1760	29.2740
 1.1770	29.2630
 1.1780	29.2500
 1.1790	29.2390
 1.1800	29.2270
 1.1810	29.2130
 1.1820	29.2010
 1.1830	29.1880
 1.1840	29.1770
 1.1850	29.1650
 1.1860	29.1530
 1.1870	29.1420
 1.1880	29.1320
 1.1890	29.1220
 1.1900	29.1140
 1.1910	29.1060
 1.1920	29.1000
 1.1930	29.0950
 1.1940	29.0910
 1.1950	29.0880
 1.1960	29.0870
 1.1970	29.0840
 1.1980	29.0820
 1.1990	29.0800
 1.2000	29.0790
 1.2010	29.0810
 1.2020	29.0830
 1.2030	29.0860
 1.2040	29.0900
 1.2050	29.0950
 1.2060	29.1040
 1.2070	29.1120
 1.2080	29.1220
 1.2090	29.1330
 1.2100	29.1450
 1.2110	29.1580
 1.2120	29.1750
 1.2130	29.1930
 1.2140	29.2100
 1.2150	29.2300
 1.2160	29.2520
 1.2170	29.2750
 1.2180	29.2970
 1.2190	29.3210
 1.2200	29.3450
 1.2210	29.3680
 1.2220	29.3930
 1.2230	29.4190
 1.2240	29.4460
 1.2250	29.4710
 1.2260	29.4960
 1.2270	29.5220
 1.2280	29.5460
 1.2290	29.5700
 1.2300	29.5950
 1.2310	29.6170
 1.2320	29.6390
 1.2330	29.6590
 1.2340	29.6790
 1.2350	29.6990
 1.2360	29.7190
 1.2370	29.7370
 1.2380	29.7560
 1.2390	29.7750
 1.2400	29.7920
 1.2410	29.8090
 1.2420	29.8250
 1.2430	29.8410
 1.2440	29.8570
 1.2450	29.8720
 1.2460	29.8860
 1.2470	29.9020
 1.2480	29.9150
 1.2490	29.9260
 1.2500	29.9390
 1.2510	29.9500
 1.2520	29.9600
 1.2530	29.9710
 1.2540	29.9820
 1.2550	29.9920
 1.2560	30.0020
 1.2570	30.0110
 1.2580	30.0180
 1.2590	30.0250
 1.2600	30.0290
 1.2610	30.0340
 1.2620	30.0380
 1.2630	30.0420
 1.2640	30.0440
 1.2650	30.0450
 1.2660	30.0440
 1.2670	30.0440
 1.2680	30.0440
 1.2690	30.0440
 1.2700	30.0450
 1.2710	30.0430
 1.2720	30.0410
 1.2730	30.0380
 1.2740	30.0340
 1.2750	30.0290
 1.2760	30.0250
 1.2770	30.0190
 1.2780	30.0150
 1.2790	30.0090
 1.2800	30.0020
 1.2810	29.9940
 1.2820	29.9860
 1.2830	29.9770
 1.2840	29.9680
 1.2850	29.9580
 1.2860	29.9450
 1.2870	29.9320
 1.2880	29.9170
 1.2890	29.9020
 1.2900	29.8850
 1.2910	29.8670
 1.2920	29.8470
 1.2930	29.8280
 1.2940	29.8080
 1.2950	29.7870
 1.2960	29.7650
 1.2970	29.7400
 1.2980	29.7130
 1.2990	29.6830
 1.3000	29.6500
 1.3010	29.6150
 1.3020	29.5800
 1.3030	29.5450
 1.3040	29.5090
 1.3050	29.4710
 1.3060	29.4300
 1.3070	29.3870
 1.3080	29.3420
 1.3090	29.2950
 1.3100	29.2470
 1.3110	29.1940
 1.3120	29.1410
 1.3130	29.0870
 1.3140	29.0290
 1.3150	28.9690
 1.3160	28.9070
 1.3170	28.8440
 1.3180	28.7780
 1.3190	28.7110
 1.3200	28.6390
 1.3210	28.5640
 1.3220	28.4880
 1.3230	28.4080
 1.3240	28.3280
 1.3250	28.2470
 1.3260	28.1630
 1.3270	28.0770
 1.3280	27.9890
 1.3290	27.8970
 1.3300	27.8060
 1.3310	27.7140
 1.3320	27.6190
 1.3330	27.5250
 1.3340	27.4280
 1.3350	27.3280
 1.3360	27.2290
 1.3370	27.1270
 1.3380	27.0260
 1.3390	26.9260
 1.3400	26.8240
 1.3410	26.7240
 1.3420	26.6240
 1.3430	26.5240
 1.3440	26.4250
 1.3450	26.3280
 1.3460	26.2300
 1.3470	26.1350
 1.3480	26.0400
 1.3490	25.9460
 1.3500	25.8540
 1.3510	25.7610
 1.3520	25.6680
 1.3530	25.5760
 1.3540	25.4840
 1.3550	25.3920
 1.3560	25.2990
 1.3570	25.2040
 1.3580	25.1080
 1.3590	25.0110
 1.3600	24.9110
 1.3610	24.8090
 1.3620	24.7030
 1.3630	24.5930
 1.3640	24.4790
 1.3650	24.3590
 1.3660	24.2350
 1.3670	24.1050
 1.3680	23.9670
 1.3690	23.8230
 1.3700	23.6690
 1.3710	23.5070
 1.3720	23.3350
 1.3730	23.1520
 1.3740	22.9580
 1.3750	22.7510
 1.3760	22.5280
 1.3770	22.2900
 1.3780	22.0330
 1.3790	21.7590
 1.3800	21.4670
 1.3810	21.1560
 1.3820	20.8320
 1.3830	20.4930
 1.3840	20.1390
 1.3850	19.7700
 1.3860	19.3910
 1.3870	18.9940
 1.3880	18.5950
 1.3890	18.1860
 1.3900	17.7690
 1.3910	17.3530
 1.3920	16.9320
 1.3930	16.5070
 1.3940	16.0850
 1.3950	15.6610
 1.3960	15.2420
 1.3970	14.8320
 1.3980	14.4290
 1.3990	14.0410
 1.4000	13.6640
 1.4010	13.2970
 1.4020	12.9470
 1.4030	12.6090
 1.4040	12.2850
 1.4050	11.9800
 1.4060	11.6880
 1.4070	11.4150
 1.4080	11.1600
 1.4090	10.9170
 1.4100	10.6920
 1.4110	10.4830
 1.4120	10.2860
 1.4130	10.1050
 1.4140	 9.9370
 1.4150	 9.7830
 1.4160	 9.6400
 1.4170	 9.5110
 1.4180	 9.3910
 1.4190	 9.2820
 1.4200	 9.1810
 1.4210	 9.0880
 1.4220	 9.0040
 1.4230	 8.9290
 1.4240	 8.8600
 1.4250	 8.7960
 1.4260	 8.7400
 1.4270	 8.6910
 1.4280	 8.6460
 1.4290	 8.6070
 1.4300	 8.5730
 1.4310	 8.5410
 1.4320	 8.5150
 1.4330	 8.4940
 1.4340	 8.4760
 1.4350	 8.4610
 1.4360	 8.4510
 1.4370	 8.4410
 1.4380	 8.4330
 1.4390	 8.4320
 1.4400	 8.4290
 1.4410	 8.4310
 1.4420	 8.4330
 1.4430	 8.4360
 1.4440	 8.4420
 1.4450	 8.4510
 1.4460	 8.4600
 1.4470	 8.4680
 1.4480	 8.4780
 1.4490	 8.4930
 1.4500	 8.5050
 1.4510	 8.5190
 1.4520	 8.5330
 1.4530	 8.5460
 1.4540	 8.5650
 1.4550	 8.5820
 1.4560	 8.6000
 1.4570	 8.6220
 1.4580	 8.6440
 1.4590	 8.6690
 1.4600	 8.6960
 1.4610	 8.7230
 1.4620	 8.7580
 1.4630	 8.7940
 1.4640	 8.8320
 1.4650	 8.8750
 1.4660	 8.9190
 1.4670	 8.9660
 1.4680	 9.0190
 1.4690	 9.0750
 1.4700	 9.1330
