Name: Baccharis pilularis 1
Type: vegetation
Class: Shrub
Genus: Baccharis
Species: pilularis
Sample No.: VH223
Owner: UCSB
Wavelength Range: TIR
Origin: 34.5084; -119.7687; WGS84
Collection Date: 10/13/2013
Description: Samples were collected as part of the HyspIRI Airborne Campaign. 48 individual plants were sampled in three times in 2013 - spring  summer  and fall. The name of the sample includes a 1  2  or 3 which references a different individual of the species. Samples were taken to JPL and processed within 48 hours of collection. The same leaves were processed in the Nicolet and then measured using the ASD.
Measurement: Hemispherical reflectance
First Column: X
Second Column: Y
X Units: Wavelength (micrometers)
Y Units: Reflectance (percentage)
First X Value: 2.501
Last X Value: 15.387
Number of X Values: 1737
Additional Information: vegetation.shrub.baccharis.pilularis.tir.vh223.ucsb.nicolet.ancillary.txt

 2.5010	 4.7330
 2.5030	 4.9200
 2.5040	 4.7700
 2.5050	 4.5750
 2.5060	 4.9760
 2.5070	 5.1070
 2.5090	 5.0620
 2.5100	 4.9620
 2.5110	 4.9330
 2.5120	 4.8280
 2.5140	 4.8370
 2.5150	 4.9740
 2.5160	 4.9600
 2.5170	 4.9340
 2.5180	 5.1360
 2.5200	 5.2060
 2.5210	 5.1210
 2.5220	 4.6670
 2.5230	 4.4790
 2.5250	 4.5720
 2.5260	 4.8650
 2.5270	 4.7460
 2.5280	 4.5310
 2.5290	 4.6260
 2.5310	 4.7730
 2.5320	 4.6640
 2.5330	 4.7260
 2.5340	 4.8720
 2.5360	 5.0510
 2.5370	 4.9190
 2.5380	 4.7910
 2.5390	 4.8260
 2.5410	 4.8540
 2.5420	 4.7980
 2.5430	 4.6610
 2.5440	 4.5610
 2.5460	 4.7820
 2.5470	 4.8270
 2.5480	 4.8600
 2.5490	 4.7440
 2.5510	 4.5530
 2.5520	 4.6810
 2.5530	 4.8680
 2.5540	 4.8780
 2.5560	 4.9760
 2.5570	 4.9600
 2.5580	 4.9720
 2.5590	 4.8230
 2.5610	 4.8960
 2.5620	 4.8630
 2.5630	 4.7050
 2.5640	 4.8560
 2.5660	 5.1790
 2.5670	 4.9820
 2.5680	 4.9240
 2.5700	 4.8230
 2.5710	 4.6550
 2.5720	 4.5230
 2.5730	 4.5980
 2.5750	 4.8110
 2.5760	 4.9380
 2.5770	 4.7770
 2.5790	 4.6450
 2.5800	 4.6900
 2.5810	 4.8130
 2.5820	 4.7310
 2.5840	 4.7200
 2.5850	 4.6820
 2.5860	 4.8370
 2.5880	 4.8760
 2.5890	 4.8210
 2.5900	 4.7210
 2.5910	 4.6370
 2.5930	 4.4770
 2.5940	 4.6460
 2.5950	 4.8030
 2.5970	 4.7980
 2.5980	 4.7810
 2.5990	 4.8040
 2.6000	 4.9320
 2.6020	 5.0220
 2.6030	 4.9990
 2.6040	 5.0950
 2.6060	 5.1060
 2.6070	 5.1090
 2.6080	 5.0510
 2.6100	 4.9100
 2.6110	 4.7260
 2.6120	 4.7690
 2.6140	 4.9090
 2.6150	 4.9950
 2.6160	 5.0490
 2.6180	 5.0860
 2.6190	 4.9490
 2.6200	 4.9880
 2.6220	 5.0080
 2.6230	 4.9710
 2.6240	 4.7360
 2.6260	 4.6930
 2.6270	 5.0230
 2.6280	 4.7960
 2.6300	 4.6070
 2.6310	 4.7270
 2.6320	 4.5780
 2.6340	 4.6860
 2.6350	 4.8120
 2.6360	 4.9170
 2.6380	 4.8480
 2.6390	 4.6360
 2.6400	 4.4760
 2.6420	 4.4260
 2.6430	 4.4550
 2.6440	 4.6850
 2.6460	 4.6580
 2.6470	 4.6030
 2.6480	 4.5170
 2.6500	 4.5150
 2.6510	 4.3450
 2.6520	 4.5560
 2.6540	 4.7510
 2.6550	 4.6640
 2.6560	 4.4810
 2.6580	 4.6720
 2.6590	 4.6990
 2.6610	 4.5430
 2.6620	 4.5060
 2.6630	 4.5830
 2.6650	 4.5720
 2.6660	 4.6630
 2.6670	 4.5230
 2.6690	 4.3860
 2.6700	 4.3830
 2.6720	 4.4210
 2.6730	 4.3260
 2.6740	 4.4500
 2.6760	 4.3900
 2.6770	 4.3980
 2.6780	 4.3570
 2.6800	 4.5670
 2.6810	 4.7090
 2.6830	 4.5800
 2.6840	 4.3530
 2.6850	 4.4260
 2.6870	 4.5320
 2.6880	 4.4380
 2.6900	 4.1480
 2.6910	 4.0330
 2.6920	 4.1060
 2.6940	 4.2040
 2.6950	 4.3200
 2.6970	 4.5200
 2.6980	 4.2340
 2.6990	 4.2410
 2.7010	 4.1970
 2.7020	 4.1370
 2.7040	 4.2850
 2.7050	 4.3280
 2.7060	 4.2080
 2.7080	 4.2020
 2.7090	 4.2590
 2.7110	 4.2140
 2.7120	 4.2180
 2.7130	 4.1880
 2.7150	 4.2080
 2.7160	 4.3910
 2.7180	 4.3430
 2.7190	 4.3210
 2.7210	 4.2640
 2.7220	 4.1260
 2.7230	 4.0170
 2.7250	 3.9700
 2.7260	 3.9630
 2.7280	 4.1730
 2.7290	 4.2680
 2.7310	 4.3950
 2.7320	 4.4260
 2.7330	 4.4290
 2.7350	 4.0840
 2.7360	 3.6130
 2.7380	 3.6180
 2.7390	 4.2260
 2.7410	 4.3360
 2.7420	 3.8150
 2.7440	 3.3310
 2.7450	 3.1470
 2.7470	 3.4420
 2.7480	 4.0890
 2.7490	 4.2700
 2.7510	 4.2710
 2.7520	 3.8820
 2.7540	 3.6840
 2.7550	 3.7740
 2.7570	 3.8110
 2.7580	 3.8280
 2.7600	 3.7170
 2.7610	 3.6130
 2.7630	 3.7960
 2.7640	 3.7720
 2.7660	 3.6860
 2.7670	 3.8460
 2.7680	 4.0300
 2.7700	 3.7070
 2.7710	 3.2350
 2.7730	 2.8770
 2.7740	 3.3260
 2.7760	 3.8670
 2.7770	 4.0360
 2.7790	 4.0400
 2.7800	 4.0360
 2.7820	 3.6300
 2.7830	 3.2870
 2.7850	 3.0450
 2.7860	 3.0810
 2.7880	 3.2790
 2.7890	 3.3510
 2.7910	 3.3820
 2.7920	 3.4000
 2.7940	 3.3320
 2.7950	 3.2370
 2.7970	 3.0780
 2.7980	 3.1300
 2.8000	 3.3050
 2.8010	 3.4140
 2.8030	 3.3340
 2.8040	 3.3970
 2.8060	 3.2830
 2.8070	 3.1980
 2.8090	 3.1680
 2.8110	 3.1990
 2.8120	 3.2010
 2.8140	 3.0250
 2.8150	 2.9700
 2.8170	 3.0300
 2.8180	 2.9970
 2.8200	 2.9210
 2.8210	 2.8000
 2.8230	 2.9780
 2.8240	 3.0780
 2.8260	 3.3300
 2.8270	 3.3220
 2.8290	 3.0340
 2.8300	 3.1850
 2.8320	 3.2950
 2.8340	 2.8210
 2.8350	 2.7650
 2.8370	 2.6440
 2.8380	 2.6340
 2.8400	 2.7540
 2.8410	 3.0100
 2.8430	 2.9450
 2.8440	 2.9950
 2.8460	 3.1680
 2.8480	 3.3190
 2.8490	 3.1600
 2.8510	 3.1450
 2.8520	 3.0100
 2.8540	 2.8650
 2.8550	 2.7870
 2.8570	 3.0240
 2.8590	 3.0700
 2.8600	 3.0730
 2.8620	 2.7990
 2.8630	 2.9360
 2.8650	 3.0340
 2.8660	 2.9650
 2.8680	 2.8240
 2.8700	 2.7800
 2.8710	 2.9400
 2.8730	 3.1210
 2.8740	 2.8740
 2.8760	 2.7700
 2.8780	 3.2210
 2.8790	 3.3190
 2.8810	 2.9540
 2.8820	 2.7670
 2.8840	 3.2530
 2.8860	 3.1150
 2.8870	 2.5180
 2.8890	 2.9220
 2.8900	 3.1680
 2.8920	 2.9270
 2.8940	 2.6850
 2.8950	 2.9450
 2.8970	 2.9570
 2.8980	 2.8000
 2.9000	 3.2520
 2.9020	 3.5020
 2.9030	 3.0750
 2.9050	 3.1550
 2.9070	 3.1140
 2.9080	 2.9030
 2.9100	 2.9310
 2.9120	 3.0370
 2.9130	 2.9220
 2.9150	 2.9540
 2.9160	 2.8010
 2.9180	 2.6810
 2.9200	 2.8450
 2.9210	 3.1810
 2.9230	 3.0440
 2.9250	 3.0600
 2.9260	 2.9960
 2.9280	 2.8520
 2.9300	 2.8360
 2.9310	 3.0620
 2.9330	 3.1600
 2.9350	 3.1490
 2.9360	 3.1430
 2.9380	 3.2450
 2.9400	 3.0500
 2.9410	 2.8400
 2.9430	 2.4840
 2.9450	 3.0480
 2.9460	 3.0940
 2.9480	 2.6310
 2.9500	 3.1710
 2.9510	 3.6270
 2.9530	 2.9640
 2.9550	 2.6880
 2.9560	 3.5940
 2.9580	 4.1000
 2.9600	 3.2350
 2.9610	 3.0710
 2.9630	 3.8580
 2.9650	 2.6900
 2.9660	 1.5180
 2.9680	 1.7190
 2.9700	 3.1030
 2.9720	 5.5290
 2.9730	 5.1160
 2.9750	 4.6900
 2.9770	 3.9450
 2.9780	 3.1520
 2.9800	 3.1170
 2.9820	 4.0740
 2.9840	 3.6920
 2.9850	 3.3860
 2.9870	 3.6760
 2.9890	 1.6850
 2.9900	 -1.013
 2.9920	 0.6100
 2.9940	 2.1020
 2.9960	 2.8170
 2.9970	 0.4420
 2.9990	 0.2090
 3.0010	 2.6980
 3.0030	 4.2320
 3.0040	 4.7570
 3.0060	 3.6210
 3.0080	 2.4910
 3.0100	 2.0840
 3.0110	 1.4940
 3.0130	 3.8640
 3.0150	 5.2440
 3.0170	 3.9070
 3.0180	 2.9420
 3.0200	 2.5030
 3.0220	 2.8350
 3.0240	 3.1380
 3.0250	 2.3860
 3.0270	 3.0680
 3.0290	 4.2770
 3.0310	 4.3600
 3.0320	 4.0240
 3.0340	 3.5190
 3.0360	 1.4020
 3.0380	 1.8390
 3.0400	 4.0540
 3.0410	 2.9090
 3.0430	 1.6040
 3.0450	 1.9610
 3.0470	 2.8520
 3.0480	 3.3570
 3.0500	 1.3530
 3.0520	 1.7550
 3.0540	 3.8980
 3.0560	 4.2020
 3.0570	 3.6530
 3.0590	 2.6980
 3.0610	 2.4080
 3.0630	 2.3370
 3.0650	 2.6800
 3.0660	 2.2240
 3.0680	 1.0190
 3.0700	 3.3390
 3.0720	 4.8330
 3.0740	 4.2140
 3.0760	 3.5680
 3.0770	 3.6620
 3.0790	 3.8170
 3.0810	 3.5610
 3.0830	 3.2000
 3.0850	 3.1140
 3.0870	 3.0860
 3.0880	 2.8620
 3.0900	 2.5950
 3.0920	 3.0470
 3.0940	 3.1600
 3.0960	 3.0650
 3.0980	 2.9410
 3.0990	 3.1270
 3.1010	 3.0770
 3.1030	 3.1770
 3.1050	 3.2650
 3.1070	 3.5320
 3.1090	 3.5690
 3.1110	 3.1570
 3.1120	 2.6470
 3.1140	 2.9730
 3.1160	 3.1840
 3.1180	 3.2200
 3.1200	 3.1030
 3.1220	 3.5090
 3.1240	 3.3490
 3.1260	 2.8490
 3.1270	 3.0680
 3.1290	 3.4340
 3.1310	 3.0540
 3.1330	 3.1490
 3.1350	 4.0370
 3.1370	 3.5520
 3.1390	 2.4230
 3.1410	 3.2290
 3.1430	 4.7520
 3.1450	 4.7370
 3.1460	 4.5740
 3.1480	 4.7000
 3.1500	 3.4850
 3.1520	 3.7810
 3.1540	 4.5170
 3.1560	 4.9440
 3.1580	 5.2720
 3.1600	 4.1000
 3.1620	 3.7560
 3.1640	 3.9600
 3.1660	 3.0870
 3.1680	 0.8530
 3.1700	 0.1600
 3.1710	 1.5340
 3.1730	 1.8400
 3.1750	 4.0110
 3.1770	 3.5690
 3.1790	 2.8830
 3.1810	 5.6720
 3.1830	 5.1070
 3.1850	 4.0250
 3.1870	 3.8790
 3.1890	 3.5380
 3.1910	 3.2280
 3.1930	 3.2990
 3.1950	 2.8170
 3.1970	 2.6050
 3.1990	 3.2540
 3.2010	 3.6300
 3.2030	 3.5410
 3.2050	 3.5340
 3.2070	 3.4410
 3.2090	 3.2920
 3.2110	 3.2320
 3.2130	 3.2160
 3.2150	 3.3440
 3.2170	 3.6490
 3.2190	 3.6090
 3.2210	 3.3630
 3.2230	 3.4150
 3.2250	 3.5610
 3.2270	 3.6470
 3.2290	 3.5900
 3.2310	 3.6070
 3.2330	 3.4950
 3.2350	 3.3200
 3.2370	 3.2290
 3.2390	 3.0830
 3.2410	 2.9690
 3.2430	 2.8750
 3.2450	 2.9050
 3.2470	 3.4990
 3.2490	 4.1440
 3.2510	 3.7880
 3.2530	 3.7290
 3.2550	 4.1520
 3.2570	 3.4610
 3.2590	 3.0170
 3.2610	 3.6430
 3.2630	 3.9130
 3.2650	 3.3070
 3.2670	 3.0460
 3.2690	 3.2280
 3.2720	 3.5730
 3.2740	 4.0090
 3.2760	 3.7510
 3.2780	 3.4910
 3.2800	 3.5330
 3.2820	 3.2910
 3.2840	 2.8670
 3.2860	 3.3020
 3.2880	 3.9620
 3.2900	 3.9780
 3.2920	 3.7040
 3.2940	 3.4530
 3.2960	 3.4170
 3.2990	 3.0750
 3.3010	 2.9660
 3.3030	 3.0380
 3.3050	 3.0450
 3.3070	 3.4140
 3.3090	 3.7820
 3.3110	 3.6880
 3.3130	 3.8140
 3.3150	 3.8650
 3.3180	 3.6480
 3.3200	 3.3120
 3.3220	 3.1540
 3.3240	 3.4640
 3.3260	 3.5990
 3.3280	 3.5450
 3.3300	 3.4560
 3.3330	 3.2400
 3.3350	 3.3070
 3.3370	 3.4970
 3.3390	 3.5560
 3.3410	 3.5830
 3.3430	 3.4800
 3.3450	 3.3140
 3.3480	 3.3340
 3.3500	 3.1620
 3.3520	 3.0330
 3.3540	 3.2420
 3.3560	 3.4170
 3.3580	 3.4330
 3.3610	 3.3390
 3.3630	 3.2410
 3.3650	 3.1520
 3.3670	 3.0800
 3.3690	 3.0510
 3.3720	 3.0750
 3.3740	 3.1830
 3.3760	 3.3150
 3.3780	 3.2390
 3.3800	 3.1770
 3.3830	 3.3510
 3.3850	 3.4520
 3.3870	 3.2960
 3.3890	 3.1090
 3.3910	 3.2410
 3.3940	 3.1410
 3.3960	 2.9380
 3.3980	 2.9110
 3.4000	 2.9740
 3.4020	 2.9020
 3.4050	 2.9640
 3.4070	 3.1720
 3.4090	 3.3810
 3.4110	 3.5660
 3.4140	 3.7240
 3.4160	 3.8870
 3.4180	 4.2170
 3.4200	 4.7330
 3.4230	 5.3540
 3.4250	 6.0030
 3.4270	 6.8780
 3.4290	 7.3990
 3.4320	 7.0340
 3.4340	 6.2480
 3.4360	 5.6430
 3.4390	 5.1150
 3.4410	 4.6600
 3.4430	 4.5660
 3.4450	 4.4770
 3.4480	 4.2240
 3.4500	 4.1580
 3.4520	 4.3060
 3.4550	 4.2880
 3.4570	 3.9290
 3.4590	 4.0180
 3.4620	 4.3840
 3.4640	 4.2470
 3.4660	 4.0240
 3.4680	 4.0250
 3.4710	 3.8900
 3.4730	 3.7750
 3.4750	 3.8890
 3.4780	 3.8640
 3.4800	 3.6460
 3.4820	 3.5820
 3.4850	 3.6300
 3.4870	 3.7040
 3.4890	 3.5440
 3.4920	 3.5320
 3.4940	 3.6150
 3.4970	 3.6260
 3.4990	 3.6580
 3.5010	 3.9100
 3.5040	 4.2220
 3.5060	 4.6540
 3.5080	 5.5960
 3.5110	 6.6270
 3.5130	 6.5400
 3.5160	 5.8650
 3.5180	 5.2230
 3.5200	 4.8470
 3.5230	 4.7100
 3.5250	 4.4760
 3.5270	 4.3290
 3.5300	 4.2320
 3.5320	 4.3060
 3.5350	 4.5820
 3.5370	 4.5160
 3.5400	 4.2630
 3.5420	 4.1910
 3.5440	 4.2700
 3.5470	 4.3890
 3.5490	 4.3660
 3.5520	 4.2150
 3.5540	 4.2410
 3.5570	 4.3340
 3.5590	 4.3050
 3.5610	 4.2120
 3.5640	 4.1960
 3.5660	 4.1360
 3.5690	 4.2230
 3.5710	 4.3150
 3.5740	 4.2590
 3.5760	 4.0370
 3.5790	 3.9670
 3.5810	 4.0990
 3.5840	 4.0820
 3.5860	 3.8590
 3.5890	 3.7480
 3.5910	 3.7770
 3.5930	 3.9780
 3.5960	 4.2110
 3.5980	 4.3260
 3.6010	 3.8930
 3.6030	 3.8530
 3.6060	 4.1440
 3.6080	 4.1360
 3.6110	 4.0580
 3.6140	 4.0450
 3.6160	 3.9970
 3.6190	 3.9990
 3.6210	 4.0020
 3.6240	 4.0260
 3.6260	 4.0740
 3.6290	 4.0860
 3.6310	 4.1570
 3.6340	 4.1470
 3.6360	 4.2010
 3.6390	 4.1270
 3.6410	 4.0590
 3.6440	 4.0460
 3.6470	 3.9140
 3.6490	 3.9380
 3.6520	 3.9950
 3.6540	 4.0600
 3.6570	 3.9640
 3.6590	 3.8920
 3.6620	 3.8950
 3.6650	 3.9380
 3.6670	 4.0040
 3.6700	 3.9500
 3.6720	 3.7200
 3.6750	 3.7490
 3.6780	 3.9450
 3.6800	 4.0230
 3.6830	 4.1100
 3.6850	 4.1720
 3.6880	 4.1260
 3.6910	 4.1140
 3.6930	 4.0080
 3.6960	 3.9710
 3.6990	 4.0520
 3.7010	 4.1590
 3.7040	 4.1370
 3.7060	 4.0840
 3.7090	 4.1220
 3.7120	 4.1210
 3.7140	 4.0210
 3.7170	 3.9790
 3.7200	 4.0050
 3.7220	 4.0570
 3.7250	 3.9340
 3.7280	 3.9920
 3.7300	 4.1600
 3.7330	 4.0910
 3.7360	 3.8530
 3.7390	 3.8860
 3.7410	 4.0720
 3.7440	 4.1620
 3.7470	 4.1250
 3.7490	 4.0480
 3.7520	 3.9840
 3.7550	 4.0940
 3.7580	 4.1670
 3.7600	 4.0410
 3.7630	 4.0230
 3.7660	 4.1060
 3.7680	 4.2650
 3.7710	 4.2460
 3.7740	 4.2800
 3.7770	 4.3440
 3.7790	 4.1530
 3.7820	 4.0190
 3.7850	 3.9640
 3.7880	 4.0290
 3.7900	 3.9700
 3.7930	 3.8860
 3.7960	 3.9720
 3.7990	 4.1010
 3.8020	 4.1720
 3.8040	 4.1660
 3.8070	 4.2230
 3.8100	 4.1630
 3.8130	 4.0880
 3.8160	 4.0870
 3.8180	 4.2450
 3.8210	 4.4270
 3.8240	 4.2840
 3.8270	 4.1940
 3.8300	 4.0610
 3.8330	 3.9050
 3.8350	 3.9410
 3.8380	 4.1710
 3.8410	 4.0670
 3.8440	 4.0540
 3.8470	 4.1940
 3.8500	 4.3330
 3.8520	 4.3060
 3.8550	 4.1590
 3.8580	 4.0690
 3.8610	 4.1250
 3.8640	 4.1330
 3.8670	 4.1420
 3.8700	 4.1760
 3.8730	 4.2690
 3.8750	 4.3160
 3.8780	 4.2410
 3.8810	 4.1300
 3.8840	 4.1360
 3.8870	 4.0770
 3.8900	 4.0880
 3.8930	 4.1000
 3.8960	 4.0190
 3.8990	 4.0220
 3.9020	 4.2320
 3.9050	 4.3060
 3.9080	 4.1590
 3.9110	 4.0940
 3.9140	 4.2120
 3.9160	 4.1960
 3.9190	 4.1200
 3.9220	 4.1230
 3.9250	 4.2670
 3.9280	 4.2100
 3.9310	 4.1890
 3.9340	 4.2140
 3.9370	 4.1140
 3.9400	 3.9750
 3.9430	 4.0790
 3.9460	 4.1930
 3.9490	 4.1880
 3.9520	 4.1740
 3.9550	 4.0690
 3.9580	 4.0300
 3.9610	 4.1180
 3.9640	 4.1530
 3.9670	 4.2080
 3.9700	 4.1840
 3.9730	 4.1320
 3.9770	 4.2260
 3.9800	 4.3180
 3.9830	 4.2970
 3.9860	 4.2540
 3.9890	 4.2270
 3.9920	 4.2750
 3.9950	 4.2810
 3.9980	 4.1690
 4.0010	 4.1250
 4.0040	 4.1530
 4.0070	 4.1700
 4.0100	 4.2220
 4.0130	 4.2780
 4.0170	 4.2300
 4.0200	 4.1900
 4.0230	 4.1570
 4.0260	 4.1440
 4.0290	 4.1810
 4.0320	 4.2220
 4.0350	 4.2260
 4.0380	 4.2210
 4.0420	 4.2270
 4.0450	 4.1360
 4.0480	 4.1640
 4.0510	 4.1980
 4.0540	 4.1600
 4.0570	 4.2000
 4.0610	 4.2170
 4.0640	 4.2050
 4.0670	 4.2300
 4.0700	 4.3240
 4.0730	 4.3040
 4.0770	 4.1510
 4.0800	 4.1130
 4.0830	 4.1390
 4.0860	 4.1800
 4.0890	 4.2060
 4.0930	 4.2040
 4.0960	 4.1900
 4.0990	 4.1700
 4.1020	 4.0960
 4.1060	 4.0980
 4.1090	 4.2000
 4.1120	 4.2590
 4.1150	 4.2400
 4.1190	 4.1500
 4.1220	 4.1390
 4.1250	 4.2580
 4.1280	 4.4290
 4.1320	 4.3870
 4.1350	 4.2490
 4.1380	 4.2590
 4.1420	 4.2400
 4.1450	 4.1550
 4.1480	 4.1980
 4.1520	 4.2970
 4.1550	 4.2260
 4.1580	 4.2590
 4.1620	 4.3120
 4.1650	 4.2460
 4.1680	 4.1720
 4.1720	 4.1390
 4.1750	 4.1810
 4.1780	 4.1930
 4.1820	 4.2080
 4.1850	 4.2890
 4.1890	 4.3120
 4.1920	 4.2940
 4.1950	 4.3420
 4.1990	 4.2910
 4.2020	 4.3760
 4.2060	 4.6580
 4.2090	 4.7330
 4.2120	 4.6250
 4.2160	 4.7370
 4.2190	 4.9230
 4.2230	 5.0020
 4.2260	 4.9030
 4.2300	 4.3210
 4.2330	 4.3830
 4.2360	 4.5720
 4.2400	 4.9770
 4.2430	 5.2870
 4.2470	 5.0630
 4.2500	 4.9000
 4.2540	 4.7310
 4.2570	 4.7370
 4.2610	 4.9840
 4.2640	 4.8510
 4.2680	 4.6970
 4.2710	 4.6900
 4.2750	 4.7030
 4.2780	 4.8140
 4.2820	 4.7610
 4.2850	 4.7210
 4.2890	 4.7470
 4.2930	 4.8480
 4.2960	 4.8550
 4.3000	 4.7720
 4.3030	 4.7640
 4.3070	 4.6420
 4.3100	 4.4890
 4.3140	 4.4330
 4.3180	 4.4430
 4.3210	 4.5080
 4.3250	 4.4790
 4.3280	 4.3530
 4.3320	 4.2020
 4.3360	 4.3230
 4.3390	 4.5330
 4.3430	 4.4620
 4.3470	 4.4010
 4.3500	 4.3730
 4.3540	 4.2890
 4.3570	 4.3320
 4.3610	 4.2870
 4.3650	 4.2380
 4.3680	 4.1880
 4.3720	 4.2070
 4.3760	 4.2670
 4.3800	 4.3030
 4.3830	 4.3030
 4.3870	 4.2280
 4.3910	 4.1610
 4.3940	 4.2560
 4.3980	 4.3040
 4.4020	 4.2780
 4.4060	 4.3150
 4.4090	 4.3640
 4.4130	 4.3650
 4.4170	 4.3060
 4.4210	 4.2610
 4.4240	 4.2800
 4.4280	 4.2470
 4.4320	 4.2580
 4.4360	 4.2800
 4.4400	 4.3120
 4.4430	 4.2660
 4.4470	 4.2780
 4.4510	 4.2380
 4.4550	 4.1890
 4.4590	 4.1650
 4.4620	 4.1920
 4.4660	 4.2390
 4.4700	 4.1960
 4.4740	 4.1050
 4.4780	 4.0830
 4.4820	 4.2170
 4.4860	 4.3620
 4.4900	 4.2870
 4.4930	 4.1390
 4.4970	 4.2140
 4.5010	 4.2530
 4.5050	 4.3620
 4.5090	 4.3630
 4.5130	 4.2220
 4.5170	 4.1110
 4.5210	 4.1540
 4.5250	 4.2160
 4.5290	 4.1080
 4.5330	 4.0410
 4.5370	 4.0970
 4.5410	 4.2070
 4.5450	 4.2510
 4.5490	 4.2090
 4.5530	 4.1470
 4.5570	 4.1570
 4.5610	 4.1190
 4.5650	 4.1380
 4.5690	 4.1250
 4.5730	 4.1810
 4.5770	 4.1690
 4.5810	 4.1020
 4.5850	 4.0860
 4.5890	 4.1300
 4.5930	 4.1250
 4.5970	 4.1490
 4.6010	 4.2640
 4.6050	 4.1300
 4.6090	 3.7520
 4.6130	 3.6850
 4.6170	 3.6800
 4.6220	 3.6920
 4.6260	 3.8730
 4.6300	 3.9200
 4.6340	 4.0600
 4.6380	 4.2100
 4.6420	 4.1170
 4.6460	 4.0410
 4.6510	 3.9760
 4.6550	 4.0530
 4.6590	 4.1260
 4.6630	 4.1580
 4.6670	 4.1060
 4.6720	 4.1840
 4.6760	 4.0440
 4.6800	 3.9720
 4.6840	 4.0220
 4.6880	 4.1290
 4.6930	 4.1910
 4.6970	 4.1030
 4.7010	 3.9890
 4.7050	 4.0640
 4.7100	 4.1600
 4.7140	 4.1060
 4.7180	 4.0500
 4.7230	 4.0160
 4.7270	 4.0770
 4.7310	 4.1550
 4.7360	 4.0750
 4.7400	 4.0290
 4.7440	 4.0960
 4.7490	 4.1980
 4.7530	 4.0930
 4.7570	 4.0540
 4.7620	 4.0770
 4.7660	 4.0320
 4.7700	 3.9760
 4.7750	 4.1980
 4.7790	 4.4860
 4.7840	 4.3520
 4.7880	 4.1860
 4.7920	 4.4670
 4.7970	 4.5440
 4.8010	 4.3140
 4.8060	 4.2050
 4.8100	 4.2360
 4.8150	 4.1890
 4.8190	 4.1390
 4.8240	 4.1320
 4.8280	 4.0810
 4.8330	 4.0600
 4.8370	 4.1200
 4.8420	 4.0780
 4.8460	 4.0470
 4.8510	 3.9900
 4.8550	 4.0490
 4.8600	 4.0700
 4.8640	 4.0540
 4.8690	 4.0810
 4.8730	 4.1890
 4.8780	 4.1650
 4.8830	 4.1440
 4.8870	 4.0650
 4.8920	 3.9870
 4.8960	 4.0340
 4.9010	 4.0070
 4.9060	 3.8950
 4.9100	 3.9640
 4.9150	 4.0750
 4.9200	 4.0750
 4.9240	 3.9970
 4.9290	 4.0090
 4.9340	 4.0720
 4.9380	 4.0680
 4.9430	 4.0280
 4.9480	 4.1250
 4.9530	 4.2250
 4.9570	 4.2760
 4.9620	 4.1650
 4.9670	 4.0840
 4.9720	 3.9910
 4.9760	 4.0160
 4.9810	 4.0310
 4.9860	 4.1500
 4.9910	 4.1970
 4.9960	 4.0680
 5.0000	 4.0020
 5.0050	 4.0680
 5.0100	 4.0410
 5.0150	 4.0940
 5.0200	 4.1550
 5.0250	 4.1520
 5.0290	 4.1130
 5.0340	 4.0830
 5.0390	 4.0490
 5.0440	 4.0540
 5.0490	 3.9740
 5.0540	 3.9160
 5.0590	 3.9730
 5.0640	 4.0300
 5.0690	 3.9880
 5.0740	 4.0570
 5.0790	 4.0550
 5.0840	 4.0620
 5.0890	 4.0320
 5.0940	 4.0350
 5.0990	 4.0130
 5.1040	 3.9920
 5.1090	 3.9620
 5.1140	 4.0230
 5.1190	 4.0940
 5.1240	 4.1430
 5.1290	 4.0920
 5.1340	 4.1620
 5.1390	 4.1570
 5.1440	 4.0760
 5.1490	 4.0130
 5.1540	 4.0260
 5.1600	 3.9430
 5.1650	 3.9870
 5.1700	 4.0610
 5.1750	 4.1080
 5.1800	 4.0830
 5.1850	 4.1100
 5.1910	 4.0850
 5.1960	 3.9990
 5.2010	 3.9730
 5.2060	 4.0540
 5.2110	 4.0440
 5.2170	 3.9900
 5.2220	 3.9470
 5.2270	 4.0460
 5.2320	 4.0490
 5.2380	 4.0780
 5.2430	 4.0450
 5.2480	 3.9800
 5.2540	 4.0430
 5.2590	 4.0650
 5.2640	 3.9910
 5.2700	 4.0090
 5.2750	 4.1010
 5.2800	 4.1900
 5.2860	 4.0260
 5.2910	 3.9250
 5.2970	 3.8800
 5.3020	 3.9610
 5.3070	 4.0550
 5.3130	 4.0660
 5.3180	 4.0240
 5.3240	 4.0310
 5.3290	 3.9600
 5.3350	 3.9380
 5.3400	 3.8860
 5.3460	 3.8700
 5.3510	 3.8880
 5.3570	 4.0110
 5.3620	 4.0490
 5.3680	 3.9610
 5.3730	 3.8520
 5.3790	 3.8660
 5.3850	 3.8550
 5.3900	 3.8330
 5.3960	 3.8030
 5.4010	 3.8680
 5.4070	 3.9390
 5.4130	 3.9930
 5.4180	 3.9040
 5.4240	 3.9650
 5.4300	 3.8930
 5.4350	 3.8350
