Name: Ceanothus megacarpus 2
Type: vegetation
Class: Shrub
Genus: Ceanothus
Species: megacarpus
Sample No.: VH141
Owner: UCSB
Wavelength Range: VSWIR
Origin: 34.4909; -119.7914; WGS84
Collection Date: 6/3/2013
Description: Samples were collected as part of the HyspIRI Airborne Campaign. 48 individual plants were sampled in three times in 2013 - spring  summer  and fall. The name of the sample includes a 1  2  or 3 which references a different individual of the species. Samples were taken to JPL and processed within 48 hours of collection. The same leaves were processed in the Nicolet and then measured using the ASD.
Measurement: Bidirectional reflectance
First Column: X
Second Column: Y
X Units: Wavelength (micrometers)
Y Units: Reflectance (percentage)
First X Value: 0.35
Last X Value: 2.5
Number of X Values: 2151
Additional Information: vegetation.shrub.ceanothus.megacarpus.vswir.vh141.ucsb.asd.ancillary.txt

 0.3500	 4.2330
 0.3510	 4.0430
 0.3520	 4.0720
 0.3530	 4.1670
 0.3540	 4.1420
 0.3550	 4.0540
 0.3560	 4.0270
 0.3570	 4.1390
 0.3580	 4.3700
 0.3590	 4.1450
 0.3600	 3.9160
 0.3610	 3.9430
 0.3620	 4.0870
 0.3630	 4.1340
 0.3640	 4.0610
 0.3650	 3.9550
 0.3660	 4.0710
 0.3670	 4.1610
 0.3680	 4.1400
 0.3690	 4.0530
 0.3700	 3.9770
 0.3710	 3.9900
 0.3720	 4.0760
 0.3730	 4.0650
 0.3740	 4.0730
 0.3750	 4.0480
 0.3760	 3.9330
 0.3770	 3.8960
 0.3780	 3.9800
 0.3790	 4.0900
 0.3800	 4.0330
 0.3810	 3.9680
 0.3820	 3.9380
 0.3830	 3.9500
 0.3840	 4.0010
 0.3850	 4.0120
 0.3860	 4.0000
 0.3870	 4.0030
 0.3880	 3.9610
 0.3890	 3.9540
 0.3900	 3.9880
 0.3910	 3.9800
 0.3920	 3.9440
 0.3930	 3.9250
 0.3940	 3.9480
 0.3950	 3.9690
 0.3960	 3.9800
 0.3970	 3.9810
 0.3980	 3.9830
 0.3990	 3.9960
 0.4000	 4.0000
 0.4010	 3.9860
 0.4020	 3.9540
 0.4030	 3.9370
 0.4040	 3.9490
 0.4050	 3.9810
 0.4060	 3.9670
 0.4070	 3.9700
 0.4080	 3.9910
 0.4090	 3.9900
 0.4100	 3.9680
 0.4110	 3.9870
 0.4120	 4.0480
 0.4130	 4.0380
 0.4140	 4.0500
 0.4150	 4.0710
 0.4160	 4.0660
 0.4170	 4.0680
 0.4180	 4.0800
 0.4190	 4.1010
 0.4200	 4.1260
 0.4210	 4.1440
 0.4220	 4.1620
 0.4230	 4.1880
 0.4240	 4.2110
 0.4250	 4.2440
 0.4260	 4.2800
 0.4270	 4.3100
 0.4280	 4.3350
 0.4290	 4.3540
 0.4300	 4.3700
 0.4310	 4.3910
 0.4320	 4.4330
 0.4330	 4.4780
 0.4340	 4.5000
 0.4350	 4.4950
 0.4360	 4.5160
 0.4370	 4.5540
 0.4380	 4.5530
 0.4390	 4.5630
 0.4400	 4.5790
 0.4410	 4.5930
 0.4420	 4.6080
 0.4430	 4.6310
 0.4440	 4.6510
 0.4450	 4.6510
 0.4460	 4.6700
 0.4470	 4.6930
 0.4480	 4.7090
 0.4490	 4.7110
 0.4500	 4.7220
 0.4510	 4.7430
 0.4520	 4.7660
 0.4530	 4.7660
 0.4540	 4.7800
 0.4550	 4.8010
 0.4560	 4.8030
 0.4570	 4.8180
 0.4580	 4.8390
 0.4590	 4.8530
 0.4600	 4.8450
 0.4610	 4.8440
 0.4620	 4.8570
 0.4630	 4.8780
 0.4640	 4.8820
 0.4650	 4.8820
 0.4660	 4.8860
 0.4670	 4.8940
 0.4680	 4.9100
 0.4690	 4.9160
 0.4700	 4.9050
 0.4710	 4.9180
 0.4720	 4.9220
 0.4730	 4.9190
 0.4740	 4.9220
 0.4750	 4.9170
 0.4760	 4.9160
 0.4770	 4.9240
 0.4780	 4.9350
 0.4790	 4.9380
 0.4800	 4.9340
 0.4810	 4.9300
 0.4820	 4.9430
 0.4830	 4.9520
 0.4840	 4.9550
 0.4850	 4.9730
 0.4860	 4.9860
 0.4870	 4.9960
 0.4880	 5.0080
 0.4890	 5.0280
 0.4900	 5.0450
 0.4910	 5.0590
 0.4920	 5.0760
 0.4930	 5.0920
 0.4940	 5.1130
 0.4950	 5.1430
 0.4960	 5.1790
 0.4970	 5.2070
 0.4980	 5.2340
 0.4990	 5.2690
 0.5000	 5.3120
 0.5010	 5.3540
 0.5020	 5.3970
 0.5030	 5.4450
 0.5040	 5.4980
 0.5050	 5.5590
 0.5060	 5.6260
 0.5070	 5.6940
 0.5080	 5.7670
 0.5090	 5.8470
 0.5100	 5.9350
 0.5110	 6.0340
 0.5120	 6.1400
 0.5130	 6.2520
 0.5140	 6.3750
 0.5150	 6.5030
 0.5160	 6.6370
 0.5170	 6.7780
 0.5180	 6.9290
 0.5190	 7.0830
 0.5200	 7.2380
 0.5210	 7.3960
 0.5220	 7.5660
 0.5230	 7.7340
 0.5240	 7.8940
 0.5250	 8.0550
 0.5260	 8.2130
 0.5270	 8.3630
 0.5280	 8.5040
 0.5290	 8.6350
 0.5300	 8.7640
 0.5310	 8.8880
 0.5320	 8.9980
 0.5330	 9.1050
 0.5340	 9.2010
 0.5350	 9.2820
 0.5360	 9.3630
 0.5370	 9.4360
 0.5380	 9.5020
 0.5390	 9.5680
 0.5400	 9.6290
 0.5410	 9.6920
 0.5420	 9.7580
 0.5430	 9.8150
 0.5440	 9.8700
 0.5450	 9.9190
 0.5460	 9.9530
 0.5470	 9.9700
 0.5480	 9.9850
 0.5490	10.0070
 0.5500	10.0300
 0.5510	10.0490
 0.5520	10.0610
 0.5530	10.0650
 0.5540	10.0550
 0.5550	10.0380
 0.5560	10.0140
 0.5570	 9.9760
 0.5580	 9.9280
 0.5590	 9.8730
 0.5600	 9.8120
 0.5610	 9.7400
 0.5620	 9.6600
 0.5630	 9.5760
 0.5640	 9.4920
 0.5650	 9.4050
 0.5660	 9.3220
 0.5670	 9.2400
 0.5680	 9.1490
 0.5690	 9.0520
 0.5700	 8.9520
 0.5710	 8.8550
 0.5720	 8.7670
 0.5730	 8.6820
 0.5740	 8.5950
 0.5750	 8.5030
 0.5760	 8.4180
 0.5770	 8.3400
 0.5780	 8.2680
 0.5790	 8.1900
 0.5800	 8.1160
 0.5810	 8.0520
 0.5820	 8.0000
 0.5830	 7.9600
 0.5840	 7.9260
 0.5850	 7.8930
 0.5860	 7.8550
 0.5870	 7.8190
 0.5880	 7.7820
 0.5890	 7.7450
 0.5900	 7.7090
 0.5910	 7.6820
 0.5920	 7.6660
 0.5930	 7.6570
 0.5940	 7.6380
 0.5950	 7.6180
 0.5960	 7.5990
 0.5970	 7.5760
 0.5980	 7.5610
 0.5990	 7.5490
 0.6000	 7.5320
 0.6010	 7.5140
 0.6020	 7.4910
 0.6030	 7.4600
 0.6040	 7.4210
 0.6050	 7.3810
 0.6060	 7.3400
 0.6070	 7.2940
 0.6080	 7.2450
 0.6090	 7.1980
 0.6100	 7.1590
 0.6110	 7.1280
 0.6120	 7.0780
 0.6130	 7.0150
 0.6140	 6.9490
 0.6150	 6.8920
 0.6160	 6.8390
 0.6170	 6.7950
 0.6180	 6.7600
 0.6190	 6.7250
 0.6200	 6.6930
 0.6210	 6.6650
 0.6220	 6.6380
 0.6230	 6.6160
 0.6240	 6.5960
 0.6250	 6.5770
 0.6260	 6.5700
 0.6270	 6.5630
 0.6280	 6.5540
 0.6290	 6.5480
 0.6300	 6.5430
 0.6310	 6.5410
 0.6320	 6.5370
 0.6330	 6.5240
 0.6340	 6.5090
 0.6350	 6.4890
 0.6360	 6.4620
 0.6370	 6.4340
 0.6380	 6.4000
 0.6390	 6.3600
 0.6400	 6.3140
 0.6410	 6.2660
 0.6420	 6.2140
 0.6430	 6.1580
 0.6440	 6.1050
 0.6450	 6.0490
 0.6460	 5.9940
 0.6470	 5.9440
 0.6480	 5.8970
 0.6490	 5.8520
 0.6500	 5.8120
 0.6510	 5.7780
 0.6520	 5.7480
 0.6530	 5.7190
 0.6540	 5.6870
 0.6550	 5.6520
 0.6560	 5.6180
 0.6570	 5.5810
 0.6580	 5.5390
 0.6590	 5.4960
 0.6600	 5.4530
 0.6610	 5.4080
 0.6620	 5.3650
 0.6630	 5.3260
 0.6640	 5.2910
 0.6650	 5.2560
 0.6660	 5.2280
 0.6670	 5.2040
 0.6680	 5.1850
 0.6690	 5.1700
 0.6700	 5.1580
 0.6710	 5.1510
 0.6720	 5.1500
 0.6730	 5.1530
 0.6740	 5.1570
 0.6750	 5.1640
 0.6760	 5.1760
 0.6770	 5.1900
 0.6780	 5.2070
 0.6790	 5.2280
 0.6800	 5.2550
 0.6810	 5.2870
 0.6820	 5.3250
 0.6830	 5.3710
 0.6840	 5.4260
 0.6850	 5.4930
 0.6860	 5.5750
 0.6870	 5.6740
 0.6880	 5.7990
 0.6890	 5.9510
 0.6900	 6.1340
 0.6910	 6.3550
 0.6920	 6.6210
 0.6930	 6.9350
 0.6940	 7.2980
 0.6950	 7.7100
 0.6960	 8.1730
 0.6970	 8.6860
 0.6980	 9.2460
 0.6990	 9.8510
 0.7000	10.4960
 0.7010	11.1760
 0.7020	11.8880
 0.7030	12.6290
 0.7040	13.3910
 0.7050	14.1690
 0.7060	14.9610
 0.7070	15.7630
 0.7080	16.5740
 0.7090	17.3940
 0.7100	18.2180
 0.7110	19.0450
 0.7120	19.8750
 0.7130	20.7080
 0.7140	21.5370
 0.7150	22.3670
 0.7160	23.1960
 0.7170	24.0170
 0.7180	24.8310
 0.7190	25.6360
 0.7200	26.4320
 0.7210	27.2130
 0.7220	27.9800
 0.7230	28.7350
 0.7240	29.4680
 0.7250	30.1760
 0.7260	30.8600
 0.7270	31.5210
 0.7280	32.1560
 0.7290	32.7680
 0.7300	33.3560
 0.7310	33.9140
 0.7320	34.4450
 0.7330	34.9510
 0.7340	35.4330
 0.7350	35.8880
 0.7360	36.3160
 0.7370	36.7210
 0.7380	37.1040
 0.7390	37.4670
 0.7400	37.8030
 0.7410	38.1170
 0.7420	38.4140
 0.7430	38.6900
 0.7440	38.9490
 0.7450	39.1890
 0.7460	39.4070
 0.7470	39.6090
 0.7480	39.7970
 0.7490	39.9720
 0.7500	40.1300
 0.7510	40.2760
 0.7520	40.4110
 0.7530	40.5350
 0.7540	40.6460
 0.7550	40.7470
 0.7560	40.8400
 0.7570	40.9300
 0.7580	41.0100
 0.7590	41.0830
 0.7600	41.1520
 0.7610	41.2130
 0.7620	41.2680
 0.7630	41.3210
 0.7640	41.3730
 0.7650	41.4130
 0.7660	41.4510
 0.7670	41.4890
 0.7680	41.5230
 0.7690	41.5540
 0.7700	41.5830
 0.7710	41.6130
 0.7720	41.6420
 0.7730	41.6690
 0.7740	41.6920
 0.7750	41.7130
 0.7760	41.7410
 0.7770	41.7630
 0.7780	41.7810
 0.7790	41.7990
 0.7800	41.8230
 0.7810	41.8460
 0.7820	41.8650
 0.7830	41.8800
 0.7840	41.9030
 0.7850	41.9260
 0.7860	41.9440
 0.7870	41.9620
 0.7880	41.9800
 0.7890	41.9960
 0.7900	42.0080
 0.7910	42.0250
 0.7920	42.0430
 0.7930	42.0600
 0.7940	42.0730
 0.7950	42.0820
 0.7960	42.0930
 0.7970	42.1050
 0.7980	42.1150
 0.7990	42.1220
 0.8000	42.1290
 0.8010	42.1390
 0.8020	42.1500
 0.8030	42.1580
 0.8040	42.1640
 0.8050	42.1720
 0.8060	42.1730
 0.8070	42.1740
 0.8080	42.1790
 0.8090	42.1850
 0.8100	42.1890
 0.8110	42.1880
 0.8120	42.1820
 0.8130	42.1820
 0.8140	42.1860
 0.8150	42.1860
 0.8160	42.1810
 0.8170	42.1820
 0.8180	42.1780
 0.8190	42.1720
 0.8200	42.1680
 0.8210	42.1630
 0.8220	42.1600
 0.8230	42.1550
 0.8240	42.1460
 0.8250	42.1430
 0.8260	42.1390
 0.8270	42.1260
 0.8280	42.1170
 0.8290	42.1100
 0.8300	42.1010
 0.8310	42.0880
 0.8320	42.0800
 0.8330	42.0720
 0.8340	42.0620
 0.8350	42.0550
 0.8360	42.0460
 0.8370	42.0420
 0.8380	42.0390
 0.8390	42.0280
 0.8400	42.0270
 0.8410	42.0280
 0.8420	42.0280
 0.8430	42.0260
 0.8440	42.0200
 0.8450	42.0170
 0.8460	42.0210
 0.8470	42.0240
 0.8480	42.0230
 0.8490	42.0190
 0.8500	42.0200
 0.8510	42.0200
 0.8520	42.0190
 0.8530	42.0190
 0.8540	42.0230
 0.8550	42.0250
 0.8560	42.0260
 0.8570	42.0270
 0.8580	42.0280
 0.8590	42.0300
 0.8600	42.0310
 0.8610	42.0320
 0.8620	42.0360
 0.8630	42.0370
 0.8640	42.0370
 0.8650	42.0400
 0.8660	42.0470
 0.8670	42.0500
 0.8680	42.0530
 0.8690	42.0620
 0.8700	42.0670
 0.8710	42.0700
 0.8720	42.0740
 0.8730	42.0860
 0.8740	42.0930
 0.8750	42.1000
 0.8760	42.1080
 0.8770	42.1120
 0.8780	42.1210
 0.8790	42.1290
 0.8800	42.1310
 0.8810	42.1350
 0.8820	42.1370
 0.8830	42.1420
 0.8840	42.1510
 0.8850	42.1560
 0.8860	42.1610
 0.8870	42.1660
 0.8880	42.1710
 0.8890	42.1690
 0.8900	42.1700
 0.8910	42.1730
 0.8920	42.1730
 0.8930	42.1730
 0.8940	42.1790
 0.8950	42.1880
 0.8960	42.1900
 0.8970	42.1940
 0.8980	42.1960
 0.8990	42.1960
 0.9000	42.1950
 0.9010	42.2040
 0.9020	42.2120
 0.9030	42.2110
 0.9040	42.2060
 0.9050	42.2020
 0.9060	42.2050
 0.9070	42.2140
 0.9080	42.2140
 0.9090	42.2110
 0.9100	42.2160
 0.9110	42.2270
 0.9120	42.2170
 0.9130	42.2110
 0.9140	42.2100
 0.9150	42.2100
 0.9160	42.2140
 0.9170	42.2090
 0.9180	42.2020
 0.9190	42.2080
 0.9200	42.2140
 0.9210	42.2070
 0.9220	42.1920
 0.9230	42.1840
 0.9240	42.1660
 0.9250	42.1480
 0.9260	42.1330
 0.9270	42.1220
 0.9280	42.1050
 0.9290	42.0840
 0.9300	42.0580
 0.9310	42.0240
 0.9320	42.0050
 0.9330	41.9890
 0.9340	41.9620
 0.9350	41.9240
 0.9360	41.8830
 0.9370	41.8500
 0.9380	41.8250
 0.9390	41.7900
 0.9400	41.7550
 0.9410	41.7160
 0.9420	41.6710
 0.9430	41.6250
 0.9440	41.5770
 0.9450	41.5260
 0.9460	41.4690
 0.9470	41.4110
 0.9480	41.3400
 0.9490	41.2630
 0.9500	41.1880
 0.9510	41.1100
 0.9520	41.0150
 0.9530	40.9200
 0.9540	40.8370
 0.9550	40.7410
 0.9560	40.6490
 0.9570	40.5530
 0.9580	40.4440
 0.9590	40.3460
 0.9600	40.2740
 0.9610	40.2190
 0.9620	40.1610
 0.9630	40.0990
 0.9640	40.0390
 0.9650	39.9770
 0.9660	39.9160
 0.9670	39.8970
 0.9680	39.8730
 0.9690	39.8400
 0.9700	39.8120
 0.9710	39.7730
 0.9720	39.7530
 0.9730	39.7440
 0.9740	39.7260
 0.9750	39.7020
 0.9760	39.6830
 0.9770	39.6750
 0.9780	39.6780
 0.9790	39.6800
 0.9800	39.6730
 0.9810	39.6730
 0.9820	39.6920
 0.9830	39.6960
 0.9840	39.7010
 0.9850	39.7200
 0.9860	39.7510
 0.9870	39.7630
 0.9880	39.7820
 0.9890	39.8130
 0.9900	39.8450
 0.9910	39.8750
 0.9920	39.9460
 0.9930	40.0170
 0.9940	40.0870
 0.9950	40.1580
 0.9960	40.2290
 0.9970	40.3000
 0.9980	40.3700
 0.9990	40.4410
 1.0000	40.5120
 1.0010	40.5830
 1.0020	40.6540
 1.0030	40.7240
 1.0040	40.7950
 1.0050	40.8660
 1.0060	40.9370
 1.0070	41.0080
 1.0080	41.0780
 1.0090	41.1490
 1.0100	41.1490
 1.0110	41.1820
 1.0120	41.2180
 1.0130	41.2550
 1.0140	41.2920
 1.0150	41.3320
 1.0160	41.3710
 1.0170	41.4060
 1.0180	41.4370
 1.0190	41.4670
 1.0200	41.4960
 1.0210	41.5260
 1.0220	41.5590
 1.0230	41.5930
 1.0240	41.6300
 1.0250	41.6640
 1.0260	41.7020
 1.0270	41.7350
 1.0280	41.7640
 1.0290	41.7950
 1.0300	41.8250
 1.0310	41.8550
 1.0320	41.8860
 1.0330	41.9120
 1.0340	41.9390
 1.0350	41.9660
 1.0360	41.9900
 1.0370	42.0200
 1.0380	42.0490
 1.0390	42.0820
 1.0400	42.1090
 1.0410	42.1390
 1.0420	42.1620
 1.0430	42.1760
 1.0440	42.1960
 1.0450	42.2160
 1.0460	42.2360
 1.0470	42.2560
 1.0480	42.2760
 1.0490	42.2950
 1.0500	42.3130
 1.0510	42.3320
 1.0520	42.3470
 1.0530	42.3630
 1.0540	42.3780
 1.0550	42.3930
 1.0560	42.4090
 1.0570	42.4220
 1.0580	42.4300
 1.0590	42.4410
 1.0600	42.4490
 1.0610	42.4600
 1.0620	42.4750
 1.0630	42.4850
 1.0640	42.4960
 1.0650	42.5030
 1.0660	42.5050
 1.0670	42.5090
 1.0680	42.5130
 1.0690	42.5180
 1.0700	42.5190
 1.0710	42.5200
 1.0720	42.5190
 1.0730	42.5130
 1.0740	42.5110
 1.0750	42.5120
 1.0760	42.5100
 1.0770	42.5070
 1.0780	42.5040
 1.0790	42.5000
 1.0800	42.4950
 1.0810	42.4910
 1.0820	42.4860
 1.0830	42.4790
 1.0840	42.4730
 1.0850	42.4670
 1.0860	42.4600
 1.0870	42.4520
 1.0880	42.4430
 1.0890	42.4340
 1.0900	42.4260
 1.0910	42.4150
 1.0920	42.4030
 1.0930	42.3910
 1.0940	42.3770
 1.0950	42.3650
 1.0960	42.3550
 1.0970	42.3420
 1.0980	42.3270
 1.0990	42.3110
 1.1000	42.2930
 1.1010	42.2760
 1.1020	42.2610
 1.1030	42.2430
 1.1040	42.2240
 1.1050	42.2060
 1.1060	42.1870
 1.1070	42.1670
 1.1080	42.1450
 1.1090	42.1240
 1.1100	42.0990
 1.1110	42.0700
 1.1120	42.0410
 1.1130	42.0100
 1.1140	41.9760
 1.1150	41.9410
 1.1160	41.9030
 1.1170	41.8650
 1.1180	41.8210
 1.1190	41.7730
 1.1200	41.7230
 1.1210	41.6700
 1.1220	41.6110
 1.1230	41.5490
 1.1240	41.4800
 1.1250	41.4050
 1.1260	41.3230
 1.1270	41.2360
 1.1280	41.1450
 1.1290	41.0460
 1.1300	40.9410
 1.1310	40.8260
 1.1320	40.7030
 1.1330	40.5740
 1.1340	40.4380
 1.1350	40.2950
 1.1360	40.1460
 1.1370	39.9880
 1.1380	39.8190
 1.1390	39.6430
 1.1400	39.4570
 1.1410	39.2690
 1.1420	39.0800
 1.1430	38.8850
 1.1440	38.6900
 1.1450	38.4920
 1.1460	38.2970
 1.1470	38.0980
 1.1480	37.9090
 1.1490	37.7200
 1.1500	37.5440
 1.1510	37.3710
 1.1520	37.2110
 1.1530	37.0580
 1.1540	36.9170
 1.1550	36.7850
 1.1560	36.6670
 1.1570	36.5610
 1.1580	36.4650
 1.1590	36.3820
 1.1600	36.3060
 1.1610	36.2380
 1.1620	36.1830
 1.1630	36.1330
 1.1640	36.0900
 1.1650	36.0540
 1.1660	36.0260
 1.1670	36.0000
 1.1680	35.9820
 1.1690	35.9620
 1.1700	35.9460
 1.1710	35.9310
 1.1720	35.9160
 1.1730	35.9020
 1.1740	35.8900
 1.1750	35.8790
 1.1760	35.8670
 1.1770	35.8520
 1.1780	35.8370
 1.1790	35.8200
 1.1800	35.8030
 1.1810	35.7850
 1.1820	35.7660
 1.1830	35.7450
 1.1840	35.7240
 1.1850	35.7060
 1.1860	35.6890
 1.1870	35.6720
 1.1880	35.6560
 1.1890	35.6410
 1.1900	35.6270
 1.1910	35.6130
 1.1920	35.6030
 1.1930	35.5980
 1.1940	35.5920
 1.1950	35.5880
 1.1960	35.5840
 1.1970	35.5810
 1.1980	35.5800
 1.1990	35.5850
 1.2000	35.5930
 1.2010	35.6030
 1.2020	35.6160
 1.2030	35.6310
 1.2040	35.6480
 1.2050	35.6670
 1.2060	35.6850
 1.2070	35.7060
 1.2080	35.7290
 1.2090	35.7570
 1.2100	35.7880
 1.2110	35.8200
 1.2120	35.8540
 1.2130	35.8900
 1.2140	35.9290
 1.2150	35.9680
 1.2160	36.0090
 1.2170	36.0500
 1.2180	36.0920
 1.2190	36.1340
 1.2200	36.1790
 1.2210	36.2240
 1.2220	36.2670
 1.2230	36.3110
 1.2240	36.3530
 1.2250	36.3940
 1.2260	36.4370
 1.2270	36.4790
 1.2280	36.5190
 1.2290	36.5620
 1.2300	36.6010
 1.2310	36.6380
 1.2320	36.6750
 1.2330	36.7100
 1.2340	36.7440
 1.2350	36.7780
 1.2360	36.8110
 1.2370	36.8420
 1.2380	36.8730
 1.2390	36.9030
 1.2400	36.9320
 1.2410	36.9600
 1.2420	36.9840
 1.2430	37.0100
 1.2440	37.0340
 1.2450	37.0590
 1.2460	37.0850
 1.2470	37.1080
 1.2480	37.1290
 1.2490	37.1490
 1.2500	37.1670
 1.2510	37.1860
 1.2520	37.2020
 1.2530	37.2140
 1.2540	37.2290
 1.2550	37.2430
 1.2560	37.2530
 1.2570	37.2650
 1.2580	37.2740
 1.2590	37.2820
 1.2600	37.2880
 1.2610	37.2940
 1.2620	37.2990
 1.2630	37.3030
 1.2640	37.3040
 1.2650	37.3020
 1.2660	37.3010
 1.2670	37.3000
 1.2680	37.3010
 1.2690	37.3040
 1.2700	37.3010
 1.2710	37.2970
 1.2720	37.2900
 1.2730	37.2800
 1.2740	37.2730
 1.2750	37.2640
 1.2760	37.2520
 1.2770	37.2400
 1.2780	37.2260
 1.2790	37.2110
 1.2800	37.1960
 1.2810	37.1770
 1.2820	37.1560
 1.2830	37.1310
 1.2840	37.1030
 1.2850	37.0750
 1.2860	37.0440
 1.2870	37.0090
 1.2880	36.9710
 1.2890	36.9290
 1.2900	36.8840
 1.2910	36.8350
 1.2920	36.7850
 1.2930	36.7320
 1.2940	36.6730
 1.2950	36.6120
 1.2960	36.5490
 1.2970	36.4800
 1.2980	36.4110
 1.2990	36.3400
 1.3000	36.2630
 1.3010	36.1820
 1.3020	36.0980
 1.3030	36.0090
 1.3040	35.9180
 1.3050	35.8240
 1.3060	35.7260
 1.3070	35.6240
 1.3080	35.5190
 1.3090	35.4120
 1.3100	35.3000
 1.3110	35.1850
 1.3120	35.0640
 1.3130	34.9390
 1.3140	34.8130
 1.3150	34.6840
 1.3160	34.5500
 1.3170	34.4140
 1.3180	34.2740
 1.3190	34.1290
 1.3200	33.9800
 1.3210	33.8290
 1.3220	33.6730
 1.3230	33.5130
 1.3240	33.3510
 1.3250	33.1850
 1.3260	33.0160
 1.3270	32.8460
 1.3280	32.6720
 1.3290	32.4930
 1.3300	32.3140
 1.3310	32.1330
 1.3320	31.9470
 1.3330	31.7650
 1.3340	31.5820
 1.3350	31.3970
 1.3360	31.2120
 1.3370	31.0250
 1.3380	30.8370
 1.3390	30.6510
 1.3400	30.4660
 1.3410	30.2850
 1.3420	30.1050
 1.3430	29.9250
 1.3440	29.7470
 1.3450	29.5710
 1.3460	29.3940
 1.3470	29.2220
 1.3480	29.0510
 1.3490	28.8840
 1.3500	28.7210
 1.3510	28.5580
 1.3520	28.3980
 1.3530	28.2370
 1.3540	28.0760
 1.3550	27.9160
 1.3560	27.7560
 1.3570	27.5970
 1.3580	27.4380
 1.3590	27.2780
 1.3600	27.1140
 1.3610	26.9480
 1.3620	26.7760
 1.3630	26.6010
 1.3640	26.4200
 1.3650	26.2310
 1.3660	26.0390
 1.3670	25.8370
 1.3680	25.6240
 1.3690	25.4020
 1.3700	25.1670
 1.3710	24.9190
 1.3720	24.6600
 1.3730	24.3850
 1.3740	24.0960
 1.3750	23.7910
 1.3760	23.4670
 1.3770	23.1250
 1.3780	22.7590
 1.3790	22.3760
 1.3800	21.9740
 1.3810	21.5510
 1.3820	21.1170
 1.3830	20.6690
 1.3840	20.2080
 1.3850	19.7330
 1.3860	19.2510
 1.3870	18.7520
 1.3880	18.2580
 1.3890	17.7580
 1.3900	17.2550
 1.3910	16.7610
 1.3920	16.2680
 1.3930	15.7770
 1.3940	15.2960
 1.3950	14.8190
 1.3960	14.3550
 1.3970	13.9060
 1.3980	13.4710
 1.3990	13.0580
 1.4000	12.6600
 1.4010	12.2780
 1.4020	11.9170
 1.4030	11.5720
 1.4040	11.2450
 1.4050	10.9400
 1.4060	10.6540
 1.4070	10.3880
 1.4080	10.1400
 1.4090	 9.9080
 1.4100	 9.6940
 1.4110	 9.4950
 1.4120	 9.3120
 1.4130	 9.1440
 1.4140	 8.9900
 1.4150	 8.8500
 1.4160	 8.7220
 1.4170	 8.6040
 1.4180	 8.4980
 1.4190	 8.4010
 1.4200	 8.3130
 1.4210	 8.2330
 1.4220	 8.1610
 1.4230	 8.0960
 1.4240	 8.0370
 1.4250	 7.9840
 1.4260	 7.9380
 1.4270	 7.8960
 1.4280	 7.8600
 1.4290	 7.8280
 1.4300	 7.8010
 1.4310	 7.7770
 1.4320	 7.7570
 1.4330	 7.7400
 1.4340	 7.7270
 1.4350	 7.7160
 1.4360	 7.7070
 1.4370	 7.7010
 1.4380	 7.6970
 1.4390	 7.6950
 1.4400	 7.6950
 1.4410	 7.6970
 1.4420	 7.7010
 1.4430	 7.7070
 1.4440	 7.7140
 1.4450	 7.7230
 1.4460	 7.7320
 1.4470	 7.7420
 1.4480	 7.7520
 1.4490	 7.7630
 1.4500	 7.7750
 1.4510	 7.7880
 1.4520	 7.8000
 1.4530	 7.8140
 1.4540	 7.8290
 1.4550	 7.8440
 1.4560	 7.8610
 1.4570	 7.8790
 1.4580	 7.8990
 1.4590	 7.9200
 1.4600	 7.9420
 1.4610	 7.9660
 1.4620	 7.9920
 1.4630	 8.0210
 1.4640	 8.0510
 1.4650	 8.0830
 1.4660	 8.1180
 1.4670	 8.1560
 1.4680	 8.1960
 1.4690	 8.2390
