Name: Pinus ponderosa 3
Type: vegetation
Class: Tree
Genus: Pinus
Species: ponderosa
Sample No.: VH164
Owner: UCSB
Wavelength Range: VSWIR
Origin: 37.043; -119.3048; WGS84
Collection Date: 6/8/2013
Description: Samples were collected as part of the HyspIRI Airborne Campaign. 48 individual plants were sampled in three times in 2013 - spring  summer  and fall. The name of the sample includes a 1  2  or 3 which references a different individual of the species. Samples were taken to JPL and processed within 48 hours of collection. The same leaves were processed in the Nicolet and then measured using the ASD.
Measurement: Bidirectional reflectance
First Column: X
Second Column: Y
X Units: Wavelength (micrometers)
Y Units: Reflectance (percentage)
First X Value: 0.35
Last X Value: 2.5
Number of X Values: 2151
Additional Information: vegetation.tree.pinus.ponderosa.vswir.vh164.ucsb.asd.ancillary.txt

 0.3500	 5.8670
 0.3510	 5.9020
 0.3520	 6.0180
 0.3530	 5.9950
 0.3540	 5.7540
 0.3550	 5.7170
 0.3560	 5.8440
 0.3570	 5.9390
 0.3580	 5.7820
 0.3590	 5.6600
 0.3600	 5.6680
 0.3610	 5.7740
 0.3620	 5.8440
 0.3630	 5.7690
 0.3640	 5.6680
 0.3650	 5.6580
 0.3660	 5.5900
 0.3670	 5.6350
 0.3680	 5.7390
 0.3690	 5.7170
 0.3700	 5.7720
 0.3710	 5.7700
 0.3720	 5.6590
 0.3730	 5.6580
 0.3740	 5.6480
 0.3750	 5.6600
 0.3760	 5.7360
 0.3770	 5.7480
 0.3780	 5.7580
 0.3790	 5.7640
 0.3800	 5.7110
 0.3810	 5.7130
 0.3820	 5.7510
 0.3830	 5.7800
 0.3840	 5.7260
 0.3850	 5.6640
 0.3860	 5.6750
 0.3870	 5.7900
 0.3880	 5.7860
 0.3890	 5.7700
 0.3900	 5.7750
 0.3910	 5.7460
 0.3920	 5.8070
 0.3930	 5.8560
 0.3940	 5.8370
 0.3950	 5.9360
 0.3960	 5.9590
 0.3970	 5.9010
 0.3980	 5.8550
 0.3990	 5.9180
 0.4000	 5.9770
 0.4010	 5.9930
 0.4020	 6.0390
 0.4030	 6.0690
 0.4040	 6.1000
 0.4050	 6.1420
 0.4060	 6.1790
 0.4070	 6.2070
 0.4080	 6.2450
 0.4090	 6.3190
 0.4100	 6.3540
 0.4110	 6.3810
 0.4120	 6.4290
 0.4130	 6.5020
 0.4140	 6.5650
 0.4150	 6.6190
 0.4160	 6.6690
 0.4170	 6.7190
 0.4180	 6.7700
 0.4190	 6.8270
 0.4200	 6.8850
 0.4210	 6.9610
 0.4220	 7.0340
 0.4230	 7.0890
 0.4240	 7.1260
 0.4250	 7.1520
 0.4260	 7.1830
 0.4270	 7.2250
 0.4280	 7.2720
 0.4290	 7.3170
 0.4300	 7.3520
 0.4310	 7.3650
 0.4320	 7.3920
 0.4330	 7.4210
 0.4340	 7.4370
 0.4350	 7.4620
 0.4360	 7.4930
 0.4370	 7.5230
 0.4380	 7.5410
 0.4390	 7.5590
 0.4400	 7.5890
 0.4410	 7.6320
 0.4420	 7.6620
 0.4430	 7.6860
 0.4440	 7.7090
 0.4450	 7.7480
 0.4460	 7.7950
 0.4470	 7.8330
 0.4480	 7.8660
 0.4490	 7.9100
 0.4500	 7.9540
 0.4510	 7.9900
 0.4520	 8.0170
 0.4530	 8.0480
 0.4540	 8.0790
 0.4550	 8.1060
 0.4560	 8.1340
 0.4570	 8.1470
 0.4580	 8.1650
 0.4590	 8.1870
 0.4600	 8.1910
 0.4610	 8.1980
 0.4620	 8.2060
 0.4630	 8.2070
 0.4640	 8.2180
 0.4650	 8.2240
 0.4660	 8.2250
 0.4670	 8.2280
 0.4680	 8.2350
 0.4690	 8.2400
 0.4700	 8.2410
 0.4710	 8.2400
 0.4720	 8.2390
 0.4730	 8.2370
 0.4740	 8.2420
 0.4750	 8.2470
 0.4760	 8.2570
 0.4770	 8.2660
 0.4780	 8.2760
 0.4790	 8.2810
 0.4800	 8.2890
 0.4810	 8.3040
 0.4820	 8.3190
 0.4830	 8.3270
 0.4840	 8.3310
 0.4850	 8.3480
 0.4860	 8.3710
 0.4870	 8.3960
 0.4880	 8.4200
 0.4890	 8.4650
 0.4900	 8.5110
 0.4910	 8.5630
 0.4920	 8.6290
 0.4930	 8.6990
 0.4940	 8.7740
 0.4950	 8.8590
 0.4960	 8.9620
 0.4970	 9.0670
 0.4980	 9.1810
 0.4990	 9.3140
 0.5000	 9.4590
 0.5010	 9.6120
 0.5020	 9.7760
 0.5030	 9.9620
 0.5040	10.1720
 0.5050	10.3990
 0.5060	10.6370
 0.5070	10.8860
 0.5080	11.1510
 0.5090	11.4370
 0.5100	11.7430
 0.5110	12.0620
 0.5120	12.3950
 0.5130	12.7420
 0.5140	13.1050
 0.5150	13.4860
 0.5160	13.8800
 0.5170	14.2810
 0.5180	14.6850
 0.5190	15.0910
 0.5200	15.4970
 0.5210	15.9050
 0.5220	16.3050
 0.5230	16.6880
 0.5240	17.0530
 0.5250	17.3990
 0.5260	17.7270
 0.5270	18.0340
 0.5280	18.3160
 0.5290	18.5800
 0.5300	18.8190
 0.5310	19.0330
 0.5320	19.2270
 0.5330	19.4040
 0.5340	19.5650
 0.5350	19.7090
 0.5360	19.8380
 0.5370	19.9490
 0.5380	20.0420
 0.5390	20.1270
 0.5400	20.2110
 0.5410	20.2860
 0.5420	20.3520
 0.5430	20.4220
 0.5440	20.4910
 0.5450	20.5580
 0.5460	20.6250
 0.5470	20.6840
 0.5480	20.7360
 0.5490	20.7800
 0.5500	20.8140
 0.5510	20.8420
 0.5520	20.8550
 0.5530	20.8460
 0.5540	20.8220
 0.5550	20.7740
 0.5560	20.7040
 0.5570	20.6140
 0.5580	20.5040
 0.5590	20.3790
 0.5600	20.2440
 0.5610	20.0980
 0.5620	19.9410
 0.5630	19.7730
 0.5640	19.5950
 0.5650	19.4090
 0.5660	19.2140
 0.5670	19.0060
 0.5680	18.7830
 0.5690	18.5510
 0.5700	18.3160
 0.5710	18.0860
 0.5720	17.8670
 0.5730	17.6520
 0.5740	17.4430
 0.5750	17.2490
 0.5760	17.0650
 0.5770	16.8990
 0.5780	16.7500
 0.5790	16.6090
 0.5800	16.4720
 0.5810	16.3350
 0.5820	16.2010
 0.5830	16.0800
 0.5840	15.9690
 0.5850	15.8620
 0.5860	15.7520
 0.5870	15.6430
 0.5880	15.5420
 0.5890	15.4510
 0.5900	15.3640
 0.5910	15.2890
 0.5920	15.2260
 0.5930	15.1730
 0.5940	15.1300
 0.5950	15.0880
 0.5960	15.0430
 0.5970	14.9990
 0.5980	14.9530
 0.5990	14.9080
 0.6000	14.8650
 0.6010	14.8130
 0.6020	14.7510
 0.6030	14.6800
 0.6040	14.6010
 0.6050	14.5190
 0.6060	14.4240
 0.6070	14.3120
 0.6080	14.1950
 0.6090	14.0760
 0.6100	13.9520
 0.6110	13.8200
 0.6120	13.6960
 0.6130	13.5740
 0.6140	13.4510
 0.6150	13.3290
 0.6160	13.2140
 0.6170	13.1060
 0.6180	13.0050
 0.6190	12.9140
 0.6200	12.8330
 0.6210	12.7590
 0.6220	12.6910
 0.6230	12.6350
 0.6240	12.5910
 0.6250	12.5560
 0.6260	12.5220
 0.6270	12.5010
 0.6280	12.4890
 0.6290	12.4790
 0.6300	12.4650
 0.6310	12.4480
 0.6320	12.4280
 0.6330	12.3990
 0.6340	12.3560
 0.6350	12.2930
 0.6360	12.2080
 0.6370	12.1060
 0.6380	11.9840
 0.6390	11.8460
 0.6400	11.6940
 0.6410	11.5310
 0.6420	11.3620
 0.6430	11.1890
 0.6440	11.0110
 0.6450	10.8340
 0.6460	10.6600
 0.6470	10.4980
 0.6480	10.3570
 0.6490	10.2330
 0.6500	10.1260
 0.6510	10.0380
 0.6520	 9.9570
 0.6530	 9.8820
 0.6540	 9.8100
 0.6550	 9.7360
 0.6560	 9.6530
 0.6570	 9.5590
 0.6580	 9.4540
 0.6590	 9.3360
 0.6600	 9.2070
 0.6610	 9.0720
 0.6620	 8.9400
 0.6630	 8.8060
 0.6640	 8.6770
 0.6650	 8.5620
 0.6660	 8.4570
 0.6670	 8.3660
 0.6680	 8.2890
 0.6690	 8.2250
 0.6700	 8.1740
 0.6710	 8.1330
 0.6720	 8.1070
 0.6730	 8.0920
 0.6740	 8.0890
 0.6750	 8.0900
 0.6760	 8.1000
 0.6770	 8.1250
 0.6780	 8.1570
 0.6790	 8.2030
 0.6800	 8.2650
 0.6810	 8.3510
 0.6820	 8.4640
 0.6830	 8.6090
 0.6840	 8.7960
 0.6850	 9.0330
 0.6860	 9.3300
 0.6870	 9.7030
 0.6880	10.1540
 0.6890	10.7000
 0.6900	11.3390
 0.6910	12.0690
 0.6920	12.8850
 0.6930	13.7810
 0.6940	14.7480
 0.6950	15.7790
 0.6960	16.8600
 0.6970	17.9830
 0.6980	19.1370
 0.6990	20.3130
 0.7000	21.5060
 0.7010	22.7090
 0.7020	23.9130
 0.7030	25.1080
 0.7040	26.2950
 0.7050	27.4780
 0.7060	28.6490
 0.7070	29.8090
 0.7080	30.9590
 0.7090	32.1040
 0.7100	33.2390
 0.7110	34.3700
 0.7120	35.4970
 0.7130	36.6120
 0.7140	37.7240
 0.7150	38.8320
 0.7160	39.9310
 0.7170	41.0300
 0.7180	42.1200
 0.7190	43.2000
 0.7200	44.2690
 0.7210	45.3210
 0.7220	46.3620
 0.7230	47.3900
 0.7240	48.3870
 0.7250	49.3650
 0.7260	50.3160
 0.7270	51.2350
 0.7280	52.1180
 0.7290	52.9730
 0.7300	53.7960
 0.7310	54.5810
 0.7320	55.3320
 0.7330	56.0470
 0.7340	56.7260
 0.7350	57.3740
 0.7360	57.9860
 0.7370	58.5600
 0.7380	59.1030
 0.7390	59.6250
 0.7400	60.1170
 0.7410	60.5730
 0.7420	60.9970
 0.7430	61.4020
 0.7440	61.7700
 0.7450	62.1040
 0.7460	62.4260
 0.7470	62.7160
 0.7480	62.9800
 0.7490	63.2270
 0.7500	63.4510
 0.7510	63.6520
 0.7520	63.8360
 0.7530	64.0090
 0.7540	64.1710
 0.7550	64.3100
 0.7560	64.4290
 0.7570	64.5370
 0.7580	64.6570
 0.7590	64.7680
 0.7600	64.8540
 0.7610	64.9200
 0.7620	64.9880
 0.7630	65.0560
 0.7640	65.1140
 0.7650	65.1720
 0.7660	65.2220
 0.7670	65.2670
 0.7680	65.3190
 0.7690	65.3570
 0.7700	65.3900
 0.7710	65.4250
 0.7720	65.4580
 0.7730	65.4860
 0.7740	65.5140
 0.7750	65.5450
 0.7760	65.5720
 0.7770	65.6000
 0.7780	65.6280
 0.7790	65.6530
 0.7800	65.6770
 0.7810	65.7040
 0.7820	65.7300
 0.7830	65.7510
 0.7840	65.7790
 0.7850	65.8090
 0.7860	65.8330
 0.7870	65.8500
 0.7880	65.8690
 0.7890	65.8910
 0.7900	65.9110
 0.7910	65.9240
 0.7920	65.9470
 0.7930	65.9760
 0.7940	65.9940
 0.7950	66.0090
 0.7960	66.0220
 0.7970	66.0360
 0.7980	66.0580
 0.7990	66.0770
 0.8000	66.0910
 0.8010	66.0990
 0.8020	66.1070
 0.8030	66.1100
 0.8040	66.1160
 0.8050	66.1320
 0.8060	66.1340
 0.8070	66.1380
 0.8080	66.1470
 0.8090	66.1540
 0.8100	66.1520
 0.8110	66.1520
 0.8120	66.1570
 0.8130	66.1530
 0.8140	66.1490
 0.8150	66.1470
 0.8160	66.1480
 0.8170	66.1480
 0.8180	66.1390
 0.8190	66.1310
 0.8200	66.1350
 0.8210	66.1300
 0.8220	66.1160
 0.8230	66.0980
 0.8240	66.0900
 0.8250	66.0760
 0.8260	66.0560
 0.8270	66.0320
 0.8280	65.9990
 0.8290	65.9660
 0.8300	65.9360
 0.8310	65.9070
 0.8320	65.8740
 0.8330	65.8550
 0.8340	65.8440
 0.8350	65.8260
 0.8360	65.8080
 0.8370	65.7930
 0.8380	65.7850
 0.8390	65.7920
 0.8400	65.7940
 0.8410	65.7960
 0.8420	65.8020
 0.8430	65.8020
 0.8440	65.8020
 0.8450	65.8020
 0.8460	65.8000
 0.8470	65.8140
 0.8480	65.8190
 0.8490	65.8170
 0.8500	65.8150
 0.8510	65.8250
 0.8520	65.8320
 0.8530	65.8360
 0.8540	65.8410
 0.8550	65.8330
 0.8560	65.8350
 0.8570	65.8460
 0.8580	65.8420
 0.8590	65.8480
 0.8600	65.8600
 0.8610	65.8680
 0.8620	65.8660
 0.8630	65.8610
 0.8640	65.8610
 0.8650	65.8670
 0.8660	65.8680
 0.8670	65.8650
 0.8680	65.8600
 0.8690	65.8560
 0.8700	65.8600
 0.8710	65.8640
 0.8720	65.8620
 0.8730	65.8540
 0.8740	65.8520
 0.8750	65.8490
 0.8760	65.8440
 0.8770	65.8430
 0.8780	65.8310
 0.8790	65.8160
 0.8800	65.8040
 0.8810	65.7920
 0.8820	65.7840
 0.8830	65.7790
 0.8840	65.7740
 0.8850	65.7570
 0.8860	65.7490
 0.8870	65.7430
 0.8880	65.7290
 0.8890	65.7100
 0.8900	65.6940
 0.8910	65.6800
 0.8920	65.6610
 0.8930	65.6460
 0.8940	65.6300
 0.8950	65.6120
 0.8960	65.5940
 0.8970	65.5770
 0.8980	65.5540
 0.8990	65.5320
 0.9000	65.5280
 0.9010	65.5110
 0.9020	65.4790
 0.9030	65.4430
 0.9040	65.4220
 0.9050	65.4060
 0.9060	65.3860
 0.9070	65.3600
 0.9080	65.3330
 0.9090	65.3070
 0.9100	65.2810
 0.9110	65.2540
 0.9120	65.2170
 0.9130	65.1790
 0.9140	65.1460
 0.9150	65.1160
 0.9160	65.0700
 0.9170	65.0240
 0.9180	64.9760
 0.9190	64.9160
 0.9200	64.8610
 0.9210	64.7950
 0.9220	64.7210
 0.9230	64.6480
 0.9240	64.5730
 0.9250	64.4700
 0.9260	64.3490
 0.9270	64.2440
 0.9280	64.1470
 0.9290	64.0290
 0.9300	63.8910
 0.9310	63.7630
 0.9320	63.6210
 0.9330	63.4710
 0.9340	63.3150
 0.9350	63.1450
 0.9360	62.9830
 0.9370	62.8190
 0.9380	62.6440
 0.9390	62.4570
 0.9400	62.2640
 0.9410	62.0710
 0.9420	61.8740
 0.9430	61.6640
 0.9440	61.4350
 0.9450	61.2010
 0.9460	60.9590
 0.9470	60.6730
 0.9480	60.3860
 0.9490	60.0890
 0.9500	59.7720
 0.9510	59.4560
 0.9520	59.1180
 0.9530	58.7700
 0.9540	58.4330
 0.9550	58.1050
 0.9560	57.7900
 0.9570	57.4980
 0.9580	57.2390
 0.9590	56.9930
 0.9600	56.7710
 0.9610	56.5850
 0.9620	56.4350
 0.9630	56.2860
 0.9640	56.1530
 0.9650	56.0360
 0.9660	55.9360
 0.9670	55.8690
 0.9680	55.8030
 0.9690	55.7410
 0.9700	55.6940
 0.9710	55.6390
 0.9720	55.5920
 0.9730	55.5620
 0.9740	55.5440
 0.9750	55.5010
 0.9760	55.4860
 0.9770	55.4920
 0.9780	55.4840
 0.9790	55.4850
 0.9800	55.4990
 0.9810	55.5310
 0.9820	55.5780
 0.9830	55.6110
 0.9840	55.6330
 0.9850	55.6730
 0.9860	55.7510
 0.9870	55.8080
 0.9880	55.8680
 0.9890	55.9330
 0.9900	55.9970
 0.9910	56.0800
 0.9920	56.1690
 0.9930	56.2520
 0.9940	56.3280
 0.9950	56.4330
 0.9960	56.5390
 0.9970	56.6270
 0.9980	56.7000
 0.9990	56.7980
 1.0000	57.1060
 1.0010	57.5100
 1.0020	57.8320
 1.0030	57.9540
 1.0040	58.0710
 1.0050	58.1840
 1.0060	58.2960
 1.0070	58.4140
 1.0080	58.5320
 1.0090	58.6520
 1.0100	58.7720
 1.0110	58.8900
 1.0120	59.0130
 1.0130	59.1400
 1.0140	59.2670
 1.0150	59.3980
 1.0160	59.5270
 1.0170	59.6480
 1.0180	59.7720
 1.0190	59.8990
 1.0200	60.0250
 1.0210	60.1560
 1.0220	60.2870
 1.0230	60.4120
 1.0240	60.5310
 1.0250	60.6530
 1.0260	60.7740
 1.0270	60.8940
 1.0280	61.0160
 1.0290	61.1320
 1.0300	61.2420
 1.0310	61.3540
 1.0320	61.4670
 1.0330	61.5750
 1.0340	61.6800
 1.0350	61.7870
 1.0360	61.8940
 1.0370	61.9990
 1.0380	62.1020
 1.0390	62.2100
 1.0400	62.3060
 1.0410	62.3920
 1.0420	62.4800
 1.0430	62.5680
 1.0440	62.6490
 1.0450	62.7260
 1.0460	62.8030
 1.0470	62.8730
 1.0480	62.9460
 1.0490	63.0270
 1.0500	63.0990
 1.0510	63.1680
 1.0520	63.2370
 1.0530	63.2950
 1.0540	63.3430
 1.0550	63.3950
 1.0560	63.4440
 1.0570	63.4900
 1.0580	63.5350
 1.0590	63.5780
 1.0600	63.6180
 1.0610	63.6550
 1.0620	63.6930
 1.0630	63.7240
 1.0640	63.7480
 1.0650	63.7710
 1.0660	63.7920
 1.0670	63.8090
 1.0680	63.8230
 1.0690	63.8340
 1.0700	63.8420
 1.0710	63.8470
 1.0720	63.8480
 1.0730	63.8460
 1.0740	63.8410
 1.0750	63.8330
 1.0760	63.8210
 1.0770	63.8050
 1.0780	63.7860
 1.0790	63.7640
 1.0800	63.7390
 1.0810	63.7110
 1.0820	63.6800
 1.0830	63.6480
 1.0840	63.6100
 1.0850	63.5710
 1.0860	63.5270
 1.0870	63.4810
 1.0880	63.4280
 1.0890	63.3770
 1.0900	63.3280
 1.0910	63.2730
 1.0920	63.2190
 1.0930	63.1590
 1.0940	63.0940
 1.0950	63.0310
 1.0960	62.9690
 1.0970	62.9010
 1.0980	62.8310
 1.0990	62.7580
 1.1000	62.6820
 1.1010	62.6040
 1.1020	62.5240
 1.1030	62.4410
 1.1040	62.3600
 1.1050	62.2760
 1.1060	62.1910
 1.1070	62.1090
 1.1080	62.0220
 1.1090	61.9310
 1.1100	61.8420
 1.1110	61.7550
 1.1120	61.6600
 1.1130	61.5640
 1.1140	61.4600
 1.1150	61.3490
 1.1160	61.2320
 1.1170	61.1140
 1.1180	60.9810
 1.1190	60.8390
 1.1200	60.6860
 1.1210	60.5190
 1.1220	60.3360
 1.1230	60.1350
 1.1240	59.9180
 1.1250	59.6780
 1.1260	59.4220
 1.1270	59.1370
 1.1280	58.8320
 1.1290	58.4960
 1.1300	58.1350
 1.1310	57.7440
 1.1320	57.3230
 1.1330	56.8830
 1.1340	56.4160
 1.1350	55.9310
 1.1360	55.4250
 1.1370	54.8980
 1.1380	54.3580
 1.1390	53.8080
 1.1400	53.2490
 1.1410	52.7010
 1.1420	52.1570
 1.1430	51.6140
 1.1440	51.0900
 1.1450	50.5710
 1.1460	50.0830
 1.1470	49.6030
 1.1480	49.1620
 1.1490	48.7460
 1.1500	48.3610
 1.1510	48.0040
 1.1520	47.6740
 1.1530	47.3720
 1.1540	47.0970
 1.1550	46.8500
 1.1560	46.6300
 1.1570	46.4350
 1.1580	46.2630
 1.1590	46.1100
 1.1600	45.9750
 1.1610	45.8550
 1.1620	45.7480
 1.1630	45.6520
 1.1640	45.5670
 1.1650	45.4910
 1.1660	45.4280
 1.1670	45.3680
 1.1680	45.3180
 1.1690	45.2700
 1.1700	45.2280
 1.1710	45.1850
 1.1720	45.1460
 1.1730	45.1070
 1.1740	45.0670
 1.1750	45.0290
 1.1760	44.9920
 1.1770	44.9530
 1.1780	44.9140
 1.1790	44.8740
 1.1800	44.8320
 1.1810	44.7900
 1.1820	44.7500
 1.1830	44.7090
 1.1840	44.6680
 1.1850	44.6300
 1.1860	44.5910
 1.1870	44.5520
 1.1880	44.5170
 1.1890	44.4830
 1.1900	44.4540
 1.1910	44.4280
 1.1920	44.4050
 1.1930	44.3870
 1.1940	44.3720
 1.1950	44.3590
 1.1960	44.3520
 1.1970	44.3510
 1.1980	44.3540
 1.1990	44.3620
 1.2000	44.3740
 1.2010	44.3890
 1.2020	44.4060
 1.2030	44.4280
 1.2040	44.4540
 1.2050	44.4830
 1.2060	44.5150
 1.2070	44.5470
 1.2080	44.5800
 1.2090	44.6160
 1.2100	44.6580
 1.2110	44.7010
 1.2120	44.7460
 1.2130	44.7950
 1.2140	44.8450
 1.2150	44.8970
 1.2160	44.9530
 1.2170	45.0120
 1.2180	45.0690
 1.2190	45.1290
 1.2200	45.1890
 1.2210	45.2500
 1.2220	45.3110
 1.2230	45.3710
 1.2240	45.4320
 1.2250	45.4920
 1.2260	45.5510
 1.2270	45.6140
 1.2280	45.6740
 1.2290	45.7340
 1.2300	45.7950
 1.2310	45.8520
 1.2320	45.9100
 1.2330	45.9680
 1.2340	46.0240
 1.2350	46.0810
 1.2360	46.1380
 1.2370	46.1950
 1.2380	46.2500
 1.2390	46.3020
 1.2400	46.3540
 1.2410	46.4050
 1.2420	46.4550
 1.2430	46.5060
 1.2440	46.5570
 1.2450	46.6040
 1.2460	46.6480
 1.2470	46.6930
 1.2480	46.7390
 1.2490	46.7830
 1.2500	46.8240
 1.2510	46.8620
 1.2520	46.8990
 1.2530	46.9330
 1.2540	46.9650
 1.2550	46.9950
 1.2560	47.0240
 1.2570	47.0500
 1.2580	47.0730
 1.2590	47.0940
 1.2600	47.1150
 1.2610	47.1300
 1.2620	47.1400
 1.2630	47.1500
 1.2640	47.1560
 1.2650	47.1590
 1.2660	47.1610
 1.2670	47.1580
 1.2680	47.1500
 1.2690	47.1390
 1.2700	47.1260
 1.2710	47.1100
 1.2720	47.0900
 1.2730	47.0680
 1.2740	47.0430
 1.2750	47.0140
 1.2760	46.9820
 1.2770	46.9460
 1.2780	46.9030
 1.2790	46.8540
 1.2800	46.8030
 1.2810	46.7480
 1.2820	46.6910
 1.2830	46.6310
 1.2840	46.5680
 1.2850	46.4980
 1.2860	46.4200
 1.2870	46.3370
 1.2880	46.2480
 1.2890	46.1530
 1.2900	46.0530
 1.2910	45.9490
 1.2920	45.8410
 1.2930	45.7240
 1.2940	45.6010
 1.2950	45.4730
 1.2960	45.3390
 1.2970	45.2020
 1.2980	45.0590
 1.2990	44.9100
 1.3000	44.7550
 1.3010	44.5910
 1.3020	44.4220
 1.3030	44.2460
 1.3040	44.0630
 1.3050	43.8770
 1.3060	43.6850
 1.3070	43.4840
 1.3080	43.2800
 1.3090	43.0710
 1.3100	42.8570
 1.3110	42.6370
 1.3120	42.4090
 1.3130	42.1780
 1.3140	41.9400
 1.3150	41.6950
 1.3160	41.4480
 1.3170	41.1980
 1.3180	40.9400
 1.3190	40.6780
 1.3200	40.4140
 1.3210	40.1420
 1.3220	39.8690
 1.3230	39.5950
 1.3240	39.3150
 1.3250	39.0380
 1.3260	38.7580
 1.3270	38.4760
 1.3280	38.1950
 1.3290	37.9120
 1.3300	37.6300
 1.3310	37.3490
 1.3320	37.0660
 1.3330	36.7880
 1.3340	36.5130
 1.3350	36.2380
 1.3360	35.9670
 1.3370	35.6970
 1.3380	35.4300
 1.3390	35.1690
 1.3400	34.9110
 1.3410	34.6620
 1.3420	34.4200
 1.3430	34.1810
 1.3440	33.9500
 1.3450	33.7220
 1.3460	33.4960
 1.3470	33.2780
 1.3480	33.0630
 1.3490	32.8550
 1.3500	32.6530
 1.3510	32.4550
 1.3520	32.2590
 1.3530	32.0670
 1.3540	31.8740
 1.3550	31.6840
 1.3560	31.4930
 1.3570	31.2990
 1.3580	31.1060
 1.3590	30.9100
 1.3600	30.7090
 1.3610	30.5050
 1.3620	30.2940
 1.3630	30.0770
 1.3640	29.8520
 1.3650	29.6170
 1.3660	29.3740
 1.3670	29.1170
 1.3680	28.8490
 1.3690	28.5700
 1.3700	28.2730
 1.3710	27.9620
 1.3720	27.6390
 1.3730	27.2970
 1.3740	26.9410
 1.3750	26.5670
 1.3760	26.1720
 1.3770	25.7570
 1.3780	25.3190
 1.3790	24.8630
 1.3800	24.3920
 1.3810	23.9010
 1.3820	23.4040
 1.3830	22.8950
 1.3840	22.3790
 1.3850	21.8520
 1.3860	21.3270
 1.3870	20.7920
 1.3880	20.2690
 1.3890	19.7460
 1.3900	19.2300
 1.3910	18.7280
 1.3920	18.2350
 1.3930	17.7520
 1.3940	17.2850
 1.3950	16.8290
 1.3960	16.3920
 1.3970	15.9760
 1.3980	15.5770
 1.3990	15.2020
 1.4000	14.8460
 1.4010	14.5070
 1.4020	14.1900
 1.4030	13.8910
 1.4040	13.6100
 1.4050	13.3480
 1.4060	13.1030
 1.4070	12.8770
 1.4080	12.6670
 1.4090	12.4710
 1.4100	12.2900
 1.4110	12.1210
 1.4120	11.9640
 1.4130	11.8200
 1.4140	11.6860
 1.4150	11.5630
 1.4160	11.4500
 1.4170	11.3450
 1.4180	11.2480
 1.4190	11.1570
 1.4200	11.0740
 1.4210	10.9970
 1.4220	10.9240
 1.4230	10.8600
 1.4240	10.7990
 1.4250	10.7430
 1.4260	10.6920
 1.4270	10.6450
 1.4280	10.6040
 1.4290	10.5640
 1.4300	10.5270
 1.4310	10.4940
 1.4320	10.4630
 1.4330	10.4360
 1.4340	10.4110
 1.4350	10.3900
 1.4360	10.3710
 1.4370	10.3540
 1.4380	10.3390
 1.4390	10.3260
 1.4400	10.3160
 1.4410	10.3060
 1.4420	10.3000
 1.4430	10.2940
 1.4440	10.2910
 1.4450	10.2870
 1.4460	10.2850
 1.4470	10.2850
 1.4480	10.2870
 1.4490	10.2900
 1.4500	10.2940
 1.4510	10.2980
 1.4520	10.3020
 1.4530	10.3080
 1.4540	10.3160
 1.4550	10.3240
 1.4560	10.3350
 1.4570	10.3470
 1.4580	10.3620
 1.4590	10.3770
 1.4600	10.3950
 1.4610	10.4130
 1.4620	10.4340
 1.4630	10.4610
 1.4640	10.4890
 1.4650	10.5190
 1.4660	10.5530
 1.4670	10.5880
 1.4680	10.6270
 1.4690	10.6680
 1.4700	10.7100
