Name: Tipuana tipu
Type: vegetation
Class: Tree
Genus: Tipuana
Species: tipu
Sample No.: JPL251
Owner: JPL
Wavelength Range: VSWIR
Origin: 34.12975; -118.11219; WGS84
Collection Date: 10/6/2016
Description: Samples were collected at the Huntington Garden in San Marino California as part of a JPL Subcontract studying HyTES imagery. Samples were taken to JPL and processed within 48 hours of collection. The same leaves were processed in the Nicolet and then measured using the ASD.
Measurement: Bidirectional reflectance
First Column: X
Second Column: Y
X Units: Wavelength (micrometer)
Y Units: Reflectance (percentage)
First X Value: 0.35
Last X Value: 2.5
Number of X Values: 2151
Additional Information: vegetation.tree.tipuana.tipu.vswir.jpl251.jpl.asd.ancillary.txt

 0.3500	 4.3480
 0.3510	 4.1370
 0.3520	 4.0080
 0.3530	 3.9910
 0.3540	 4.0380
 0.3550	 4.0250
 0.3560	 4.0290
 0.3570	 4.0210
 0.3580	 3.9410
 0.3590	 3.9660
 0.3600	 3.9680
 0.3610	 3.9060
 0.3620	 3.9070
 0.3630	 3.9050
 0.3640	 3.8920
 0.3650	 3.8770
 0.3660	 3.8820
 0.3670	 3.8520
 0.3680	 3.8150
 0.3690	 3.8460
 0.3700	 3.8430
 0.3710	 3.8420
 0.3720	 3.8530
 0.3730	 3.8130
 0.3740	 3.7510
 0.3750	 3.6950
 0.3760	 3.6790
 0.3770	 3.7470
 0.3780	 3.7630
 0.3790	 3.7370
 0.3800	 3.7960
 0.3810	 3.7990
 0.3820	 3.7580
 0.3830	 3.7160
 0.3840	 3.7320
 0.3850	 3.6820
 0.3860	 3.6290
 0.3870	 3.6740
 0.3880	 3.6820
 0.3890	 3.6640
 0.3900	 3.6390
 0.3910	 3.6260
 0.3920	 3.5880
 0.3930	 3.5620
 0.3940	 3.5740
 0.3950	 3.6000
 0.3960	 3.6100
 0.3970	 3.6010
 0.3980	 3.5860
 0.3990	 3.5920
 0.4000	 3.5950
 0.4010	 3.5830
 0.4020	 3.5660
 0.4030	 3.5670
 0.4040	 3.5760
 0.4050	 3.5740
 0.4060	 3.5680
 0.4070	 3.5680
 0.4080	 3.5700
 0.4090	 3.5660
 0.4100	 3.5620
 0.4110	 3.5640
 0.4120	 3.5730
 0.4130	 3.5880
 0.4140	 3.6050
 0.4150	 3.6200
 0.4160	 3.6310
 0.4170	 3.6520
 0.4180	 3.6830
 0.4190	 3.7150
 0.4200	 3.7330
 0.4210	 3.7510
 0.4220	 3.7800
 0.4230	 3.8200
 0.4240	 3.8490
 0.4250	 3.8820
 0.4260	 3.9190
 0.4270	 3.9560
 0.4280	 4.0020
 0.4290	 4.0480
 0.4300	 4.0910
 0.4310	 4.1360
 0.4320	 4.1760
 0.4330	 4.2210
 0.4340	 4.2740
 0.4350	 4.3030
 0.4360	 4.3320
 0.4370	 4.3660
 0.4380	 4.3960
 0.4390	 4.4280
 0.4400	 4.4580
 0.4410	 4.4840
 0.4420	 4.5120
 0.4430	 4.5350
 0.4440	 4.5580
 0.4450	 4.5900
 0.4460	 4.6260
 0.4470	 4.6590
 0.4480	 4.6860
 0.4490	 4.7080
 0.4500	 4.7350
 0.4510	 4.7610
 0.4520	 4.7800
 0.4530	 4.8030
 0.4540	 4.8220
 0.4550	 4.8410
 0.4560	 4.8660
 0.4570	 4.8790
 0.4580	 4.8890
 0.4590	 4.9000
 0.4600	 4.9070
 0.4610	 4.9130
 0.4620	 4.9190
 0.4630	 4.9250
 0.4640	 4.9330
 0.4650	 4.9360
 0.4660	 4.9330
 0.4670	 4.9290
 0.4680	 4.9290
 0.4690	 4.9330
 0.4700	 4.9390
 0.4710	 4.9380
 0.4720	 4.9370
 0.4730	 4.9360
 0.4740	 4.9310
 0.4750	 4.9290
 0.4760	 4.9300
 0.4770	 4.9320
 0.4780	 4.9240
 0.4790	 4.9220
 0.4800	 4.9240
 0.4810	 4.9200
 0.4820	 4.9230
 0.4830	 4.9340
 0.4840	 4.9480
 0.4850	 4.9570
 0.4860	 4.9650
 0.4870	 4.9730
 0.4880	 4.9830
 0.4890	 5.0020
 0.4900	 5.0170
 0.4910	 5.0310
 0.4920	 5.0520
 0.4930	 5.0740
 0.4940	 5.0980
 0.4950	 5.1250
 0.4960	 5.1570
 0.4970	 5.1880
 0.4980	 5.2220
 0.4990	 5.2600
 0.5000	 5.3040
 0.5010	 5.3560
 0.5020	 5.4140
 0.5030	 5.4710
 0.5040	 5.5310
 0.5050	 5.5980
 0.5060	 5.6740
 0.5070	 5.7530
 0.5080	 5.8400
 0.5090	 5.9320
 0.5100	 6.0260
 0.5110	 6.1280
 0.5120	 6.2380
 0.5130	 6.3530
 0.5140	 6.4730
 0.5150	 6.6010
 0.5160	 6.7350
 0.5170	 6.8750
 0.5180	 7.0190
 0.5190	 7.1690
 0.5200	 7.3220
 0.5210	 7.4770
 0.5220	 7.6300
 0.5230	 7.7850
 0.5240	 7.9420
 0.5250	 8.0900
 0.5260	 8.2320
 0.5270	 8.3670
 0.5280	 8.4930
 0.5290	 8.6110
 0.5300	 8.7210
 0.5310	 8.8210
 0.5320	 8.9120
 0.5330	 8.9980
 0.5340	 9.0760
 0.5350	 9.1440
 0.5360	 9.2000
 0.5370	 9.2510
 0.5380	 9.3010
 0.5390	 9.3470
 0.5400	 9.3970
 0.5410	 9.4540
 0.5420	 9.5130
 0.5430	 9.5610
 0.5440	 9.5920
 0.5450	 9.6040
 0.5460	 9.5990
 0.5470	 9.5840
 0.5480	 9.5740
 0.5490	 9.5730
 0.5500	 9.5760
 0.5510	 9.5740
 0.5520	 9.5630
 0.5530	 9.5440
 0.5540	 9.5140
 0.5550	 9.4730
 0.5560	 9.4220
 0.5570	 9.3650
 0.5580	 9.2980
 0.5590	 9.2250
 0.5600	 9.1510
 0.5610	 9.0700
 0.5620	 8.9850
 0.5630	 8.8990
 0.5640	 8.8100
 0.5650	 8.7200
 0.5660	 8.6280
 0.5670	 8.5330
 0.5680	 8.4340
 0.5690	 8.3310
 0.5700	 8.2260
 0.5710	 8.1220
 0.5720	 8.0200
 0.5730	 7.9230
 0.5740	 7.8300
 0.5750	 7.7410
 0.5760	 7.6590
 0.5770	 7.5820
 0.5780	 7.5110
 0.5790	 7.4460
 0.5800	 7.3860
 0.5810	 7.3290
 0.5820	 7.2710
 0.5830	 7.2230
 0.5840	 7.1780
 0.5850	 7.1310
 0.5860	 7.0860
 0.5870	 7.0440
 0.5880	 7.0060
 0.5890	 6.9710
 0.5900	 6.9360
 0.5910	 6.9040
 0.5920	 6.8760
 0.5930	 6.8500
 0.5940	 6.8290
 0.5950	 6.8090
 0.5960	 6.7910
 0.5970	 6.7760
 0.5980	 6.7590
 0.5990	 6.7410
 0.6000	 6.7200
 0.6010	 6.6950
 0.6020	 6.6640
 0.6030	 6.6290
 0.6040	 6.5910
 0.6050	 6.5510
 0.6060	 6.5060
 0.6070	 6.4560
 0.6080	 6.4050
 0.6090	 6.3610
 0.6100	 6.3270
 0.6110	 6.2980
 0.6120	 6.2440
 0.6130	 6.1710
 0.6140	 6.0930
 0.6150	 6.0330
 0.6160	 5.9760
 0.6170	 5.9220
 0.6180	 5.8770
 0.6190	 5.8390
 0.6200	 5.8050
 0.6210	 5.7730
 0.6220	 5.7410
 0.6230	 5.7140
 0.6240	 5.6890
 0.6250	 5.6650
 0.6260	 5.6480
 0.6270	 5.6320
 0.6280	 5.6190
 0.6290	 5.6100
 0.6300	 5.6010
 0.6310	 5.5910
 0.6320	 5.5800
 0.6330	 5.5690
 0.6340	 5.5560
 0.6350	 5.5400
 0.6360	 5.5220
 0.6370	 5.4980
 0.6380	 5.4710
 0.6390	 5.4430
 0.6400	 5.4130
 0.6410	 5.3800
 0.6420	 5.3450
 0.6430	 5.3070
 0.6440	 5.2690
 0.6450	 5.2310
 0.6460	 5.1910
 0.6470	 5.1510
 0.6480	 5.1100
 0.6490	 5.0720
 0.6500	 5.0370
 0.6510	 5.0020
 0.6520	 4.9660
 0.6530	 4.9310
 0.6540	 4.8990
 0.6550	 4.8640
 0.6560	 4.8240
 0.6570	 4.7820
 0.6580	 4.7370
 0.6590	 4.6910
 0.6600	 4.6410
 0.6610	 4.5910
 0.6620	 4.5460
 0.6630	 4.5030
 0.6640	 4.4650
 0.6650	 4.4310
 0.6660	 4.4030
 0.6670	 4.3820
 0.6680	 4.3670
 0.6690	 4.3580
 0.6700	 4.3540
 0.6710	 4.3580
 0.6720	 4.3690
 0.6730	 4.3850
 0.6740	 4.4060
 0.6750	 4.4310
 0.6760	 4.4610
 0.6770	 4.4950
 0.6780	 4.5380
 0.6790	 4.5860
 0.6800	 4.6360
 0.6810	 4.6930
 0.6820	 4.7560
 0.6830	 4.8240
 0.6840	 4.8960
 0.6850	 4.9740
 0.6860	 5.0600
 0.6870	 5.1550
 0.6880	 5.2590
 0.6890	 5.3780
 0.6900	 5.5140
 0.6910	 5.6720
 0.6920	 5.8530
 0.6930	 6.0590
 0.6940	 6.2930
 0.6950	 6.5570
 0.6960	 6.8490
 0.6970	 7.1730
 0.6980	 7.5300
 0.6990	 7.9210
 0.7000	 8.3450
 0.7010	 8.8030
 0.7020	 9.2900
 0.7030	 9.8100
 0.7040	10.3600
 0.7050	10.9390
 0.7060	11.5490
 0.7070	12.1870
 0.7080	12.8520
 0.7090	13.5410
 0.7100	14.2590
 0.7110	15.0070
 0.7120	15.7820
 0.7130	16.5840
 0.7140	17.4130
 0.7150	18.2680
 0.7160	19.1500
 0.7170	20.0580
 0.7180	20.9840
 0.7190	21.9260
 0.7200	22.8840
 0.7210	23.8540
 0.7220	24.8320
 0.7230	25.8140
 0.7240	26.7990
 0.7250	27.7820
 0.7260	28.7560
 0.7270	29.7160
 0.7280	30.6620
 0.7290	31.5900
 0.7300	32.4980
 0.7310	33.3800
 0.7320	34.2360
 0.7330	35.0640
 0.7340	35.8590
 0.7350	36.6210
 0.7360	37.3510
 0.7370	38.0470
 0.7380	38.7090
 0.7390	39.3350
 0.7400	39.9260
 0.7410	40.4820
 0.7420	41.0040
 0.7430	41.4900
 0.7440	41.9410
 0.7450	42.3580
 0.7460	42.7460
 0.7470	43.1020
 0.7480	43.4270
 0.7490	43.7250
 0.7500	43.9990
 0.7510	44.2470
 0.7520	44.4720
 0.7530	44.6750
 0.7540	44.8620
 0.7550	45.0300
 0.7560	45.1800
 0.7570	45.3160
 0.7580	45.4370
 0.7590	45.5470
 0.7600	45.6480
 0.7610	45.7370
 0.7620	45.8150
 0.7630	45.8850
 0.7640	45.9470
 0.7650	46.0020
 0.7660	46.0500
 0.7670	46.0910
 0.7680	46.1250
 0.7690	46.1540
 0.7700	46.1800
 0.7710	46.2040
 0.7720	46.2280
 0.7730	46.2460
 0.7740	46.2630
 0.7750	46.2800
 0.7760	46.2920
 0.7770	46.3030
 0.7780	46.3130
 0.7790	46.3220
 0.7800	46.3320
 0.7810	46.3420
 0.7820	46.3510
 0.7830	46.3580
 0.7840	46.3650
 0.7850	46.3710
 0.7860	46.3740
 0.7870	46.3760
 0.7880	46.3770
 0.7890	46.3780
 0.7900	46.3770
 0.7910	46.3760
 0.7920	46.3740
 0.7930	46.3720
 0.7940	46.3690
 0.7950	46.3660
 0.7960	46.3620
 0.7970	46.3580
 0.7980	46.3480
 0.7990	46.3390
 0.8000	46.3300
 0.8010	46.3220
 0.8020	46.3130
 0.8030	46.3020
 0.8040	46.2910
 0.8050	46.2810
 0.8060	46.2710
 0.8070	46.2580
 0.8080	46.2440
 0.8090	46.2320
 0.8100	46.2170
 0.8110	46.2020
 0.8120	46.1880
 0.8130	46.1700
 0.8140	46.1530
 0.8150	46.1370
 0.8160	46.1210
 0.8170	46.1040
 0.8180	46.0890
 0.8190	46.0740
 0.8200	46.0540
 0.8210	46.0360
 0.8220	46.0200
 0.8230	46.0050
 0.8240	45.9860
 0.8250	45.9700
 0.8260	45.9540
 0.8270	45.9380
 0.8280	45.9230
 0.8290	45.9040
 0.8300	45.8850
 0.8310	45.8700
 0.8320	45.8560
 0.8330	45.8440
 0.8340	45.8310
 0.8350	45.8170
 0.8360	45.8050
 0.8370	45.7940
 0.8380	45.7830
 0.8390	45.7730
 0.8400	45.7630
 0.8410	45.7550
 0.8420	45.7480
 0.8430	45.7410
 0.8440	45.7360
 0.8450	45.7290
 0.8460	45.7200
 0.8470	45.7170
 0.8480	45.7150
 0.8490	45.7130
 0.8500	45.7080
 0.8510	45.7040
 0.8520	45.7000
 0.8530	45.6980
 0.8540	45.7000
 0.8550	45.6960
 0.8560	45.6920
 0.8570	45.6910
 0.8580	45.6930
 0.8590	45.6970
 0.8600	45.7010
 0.8610	45.7050
 0.8620	45.7060
 0.8630	45.7070
 0.8640	45.7110
 0.8650	45.7160
 0.8660	45.7190
 0.8670	45.7240
 0.8680	45.7300
 0.8690	45.7340
 0.8700	45.7380
 0.8710	45.7440
 0.8720	45.7520
 0.8730	45.7590
 0.8740	45.7670
 0.8750	45.7750
 0.8760	45.7830
 0.8770	45.7840
 0.8780	45.7900
 0.8790	45.7960
 0.8800	45.8030
 0.8810	45.8130
 0.8820	45.8260
 0.8830	45.8350
 0.8840	45.8400
 0.8850	45.8400
 0.8860	45.8490
 0.8870	45.8590
 0.8880	45.8640
 0.8890	45.8720
 0.8900	45.8800
 0.8910	45.8860
 0.8920	45.8920
 0.8930	45.9010
 0.8940	45.9090
 0.8950	45.9140
 0.8960	45.9180
 0.8970	45.9270
 0.8980	45.9350
 0.8990	45.9430
 0.9000	45.9510
 0.9010	45.9570
 0.9020	45.9600
 0.9030	45.9630
 0.9040	45.9700
 0.9050	45.9770
 0.9060	45.9830
 0.9070	45.9850
 0.9080	45.9900
 0.9090	45.9930
 0.9100	45.9960
 0.9110	46.0000
 0.9120	46.0060
 0.9130	46.0070
 0.9140	46.0040
 0.9150	46.0000
 0.9160	46.0060
 0.9170	46.0080
 0.9180	46.0060
 0.9190	46.0060
 0.9200	46.0110
 0.9210	46.0070
 0.9220	45.9970
 0.9230	45.9950
 0.9240	45.9900
 0.9250	45.9790
 0.9260	45.9660
 0.9270	45.9590
 0.9280	45.9450
 0.9290	45.9300
 0.9300	45.9180
 0.9310	45.9070
 0.9320	45.8950
 0.9330	45.8780
 0.9340	45.8580
 0.9350	45.8340
 0.9360	45.8180
 0.9370	45.8010
 0.9380	45.7800
 0.9390	45.7550
 0.9400	45.7320
 0.9410	45.7090
 0.9420	45.6830
 0.9430	45.6530
 0.9440	45.6260
 0.9450	45.5940
 0.9460	45.5540
 0.9470	45.5190
 0.9480	45.4860
 0.9490	45.4550
 0.9500	45.4190
 0.9510	45.3740
 0.9520	45.3230
 0.9530	45.2700
 0.9540	45.2230
 0.9550	45.1740
 0.9560	45.1260
 0.9570	45.0800
 0.9580	45.0350
 0.9590	45.0000
 0.9600	44.9610
 0.9610	44.9190
 0.9620	44.8830
 0.9630	44.8510
 0.9640	44.8300
 0.9650	44.8100
 0.9660	44.7810
 0.9670	44.7520
 0.9680	44.7270
 0.9690	44.7100
 0.9700	44.6990
 0.9710	44.6790
 0.9720	44.6610
 0.9730	44.6470
 0.9740	44.6380
 0.9750	44.6340
 0.9760	44.6260
 0.9770	44.6160
 0.9780	44.6080
 0.9790	44.5990
 0.9800	44.5840
 0.9810	44.5710
 0.9820	44.5700
 0.9830	44.5730
 0.9840	44.5680
 0.9850	44.5570
 0.9860	44.5490
 0.9870	44.5530
 0.9880	44.5630
 0.9890	44.5730
 0.9900	44.5800
 0.9910	44.5740
 0.9920	44.5690
 0.9930	44.5750
 0.9940	44.5960
 0.9950	44.6100
 0.9960	44.6230
 0.9970	44.6320
 0.9980	44.6310
 0.9990	44.6270
 1.0000	44.6320
 1.0010	44.7710
 1.0020	44.7800
 1.0030	44.7890
 1.0040	44.7990
 1.0050	44.8080
 1.0060	44.8150
 1.0070	44.8270
 1.0080	44.8370
 1.0090	44.8480
 1.0100	44.8580
 1.0110	44.8660
 1.0120	44.8760
 1.0130	44.8860
 1.0140	44.8940
 1.0150	44.9040
 1.0160	44.9100
 1.0170	44.9180
 1.0180	44.9260
 1.0190	44.9360
 1.0200	44.9460
 1.0210	44.9520
 1.0220	44.9610
 1.0230	44.9700
 1.0240	44.9810
 1.0250	44.9900
 1.0260	45.0000
 1.0270	45.0110
 1.0280	45.0210
 1.0290	45.0290
 1.0300	45.0380
 1.0310	45.0470
 1.0320	45.0540
 1.0330	45.0610
 1.0340	45.0730
 1.0350	45.0830
 1.0360	45.0890
 1.0370	45.0960
 1.0380	45.1020
 1.0390	45.1060
 1.0400	45.1120
 1.0410	45.1200
 1.0420	45.1260
 1.0430	45.1310
 1.0440	45.1380
 1.0450	45.1450
 1.0460	45.1510
 1.0470	45.1540
 1.0480	45.1600
 1.0490	45.1680
 1.0500	45.1730
 1.0510	45.1780
 1.0520	45.1830
 1.0530	45.1880
 1.0540	45.1890
 1.0550	45.1910
 1.0560	45.1930
 1.0570	45.1970
 1.0580	45.2010
 1.0590	45.2060
 1.0600	45.2130
 1.0610	45.2190
 1.0620	45.2250
 1.0630	45.2280
 1.0640	45.2320
 1.0650	45.2340
 1.0660	45.2330
 1.0670	45.2340
 1.0680	45.2360
 1.0690	45.2390
 1.0700	45.2420
 1.0710	45.2450
 1.0720	45.2470
 1.0730	45.2520
 1.0740	45.2530
 1.0750	45.2500
 1.0760	45.2500
 1.0770	45.2480
 1.0780	45.2480
 1.0790	45.2520
 1.0800	45.2520
 1.0810	45.2510
 1.0820	45.2500
 1.0830	45.2470
 1.0840	45.2440
 1.0850	45.2390
 1.0860	45.2390
 1.0870	45.2350
 1.0880	45.2300
 1.0890	45.2260
 1.0900	45.2200
 1.0910	45.2160
 1.0920	45.2120
 1.0930	45.2060
 1.0940	45.2000
 1.0950	45.1930
 1.0960	45.1850
 1.0970	45.1770
 1.0980	45.1720
 1.0990	45.1630
 1.1000	45.1490
 1.1010	45.1390
 1.1020	45.1270
 1.1030	45.1160
 1.1040	45.1070
 1.1050	45.0990
 1.1060	45.0880
 1.1070	45.0750
 1.1080	45.0640
 1.1090	45.0520
 1.1100	45.0400
 1.1110	45.0270
 1.1120	45.0140
 1.1130	44.9980
 1.1140	44.9830
 1.1150	44.9680
 1.1160	44.9500
 1.1170	44.9300
 1.1180	44.9100
 1.1190	44.8880
 1.1200	44.8650
 1.1210	44.8420
 1.1220	44.8190
 1.1230	44.7910
 1.1240	44.7590
 1.1250	44.7240
 1.1260	44.6850
 1.1270	44.6430
 1.1280	44.5980
 1.1290	44.5480
 1.1300	44.4940
 1.1310	44.4350
 1.1320	44.3700
 1.1330	44.3000
 1.1340	44.2250
 1.1350	44.1460
 1.1360	44.0620
 1.1370	43.9750
 1.1380	43.8800
 1.1390	43.7820
 1.1400	43.6800
 1.1410	43.5750
 1.1420	43.4690
 1.1430	43.3620
 1.1440	43.2560
 1.1450	43.1480
 1.1460	43.0440
 1.1470	42.9390
 1.1480	42.8390
 1.1490	42.7410
 1.1500	42.6480
 1.1510	42.5570
 1.1520	42.4710
 1.1530	42.3870
 1.1540	42.3100
 1.1550	42.2410
 1.1560	42.1740
 1.1570	42.1140
 1.1580	42.0600
 1.1590	42.0080
 1.1600	41.9620
 1.1610	41.9200
 1.1620	41.8820
 1.1630	41.8480
 1.1640	41.8180
 1.1650	41.7880
 1.1660	41.7600
 1.1670	41.7360
 1.1680	41.7140
 1.1690	41.6930
 1.1700	41.6770
 1.1710	41.6590
 1.1720	41.6410
 1.1730	41.6230
 1.1740	41.6050
 1.1750	41.5870
 1.1760	41.5690
 1.1770	41.5510
 1.1780	41.5330
 1.1790	41.5160
 1.1800	41.4990
 1.1810	41.4820
 1.1820	41.4650
 1.1830	41.4480
 1.1840	41.4320
 1.1850	41.4150
 1.1860	41.4000
 1.1870	41.3850
 1.1880	41.3710
 1.1890	41.3590
 1.1900	41.3470
 1.1910	41.3370
 1.1920	41.3290
 1.1930	41.3230
 1.1940	41.3170
 1.1950	41.3130
 1.1960	41.3090
 1.1970	41.3030
 1.1980	41.3000
 1.1990	41.2990
 1.2000	41.3000
 1.2010	41.3030
 1.2020	41.3060
 1.2030	41.3090
 1.2040	41.3130
 1.2050	41.3190
 1.2060	41.3240
 1.2070	41.3290
 1.2080	41.3350
 1.2090	41.3420
 1.2100	41.3520
 1.2110	41.3620
 1.2120	41.3740
 1.2130	41.3860
 1.2140	41.4000
 1.2150	41.4140
 1.2160	41.4290
 1.2170	41.4440
 1.2180	41.4610
 1.2190	41.4760
 1.2200	41.4910
 1.2210	41.5070
 1.2220	41.5230
 1.2230	41.5400
 1.2240	41.5600
 1.2250	41.5790
 1.2260	41.5950
 1.2270	41.6120
 1.2280	41.6260
 1.2290	41.6410
 1.2300	41.6550
 1.2310	41.6690
 1.2320	41.6830
 1.2330	41.6970
 1.2340	41.7100
 1.2350	41.7250
 1.2360	41.7370
 1.2370	41.7490
 1.2380	41.7600
 1.2390	41.7680
 1.2400	41.7780
 1.2410	41.7870
 1.2420	41.7960
 1.2430	41.8050
 1.2440	41.8150
 1.2450	41.8230
 1.2460	41.8300
 1.2470	41.8340
 1.2480	41.8390
 1.2490	41.8450
 1.2500	41.8510
 1.2510	41.8570
 1.2520	41.8640
 1.2530	41.8670
 1.2540	41.8710
 1.2550	41.8750
 1.2560	41.8780
 1.2570	41.8820
 1.2580	41.8830
 1.2590	41.8840
 1.2600	41.8840
 1.2610	41.8820
 1.2620	41.8780
 1.2630	41.8760
 1.2640	41.8720
 1.2650	41.8650
 1.2660	41.8590
 1.2670	41.8530
 1.2680	41.8460
 1.2690	41.8400
 1.2700	41.8340
 1.2710	41.8270
 1.2720	41.8160
 1.2730	41.8050
 1.2740	41.7930
 1.2750	41.7790
 1.2760	41.7650
 1.2770	41.7520
 1.2780	41.7380
 1.2790	41.7230
 1.2800	41.7060
 1.2810	41.6890
 1.2820	41.6700
 1.2830	41.6520
 1.2840	41.6330
 1.2850	41.6120
 1.2860	41.5900
 1.2870	41.5660
 1.2880	41.5400
 1.2890	41.5150
 1.2900	41.4890
 1.2910	41.4610
 1.2920	41.4350
 1.2930	41.4070
 1.2940	41.3750
 1.2950	41.3430
 1.2960	41.3090
 1.2970	41.2740
 1.2980	41.2390
 1.2990	41.2000
 1.3000	41.1600
 1.3010	41.1180
 1.3020	41.0730
 1.3030	41.0290
 1.3040	40.9840
 1.3050	40.9350
 1.3060	40.8820
 1.3070	40.8280
 1.3080	40.7710
 1.3090	40.7130
 1.3100	40.6550
 1.3110	40.5940
 1.3120	40.5290
 1.3130	40.4630
 1.3140	40.3950
 1.3150	40.3230
 1.3160	40.2480
 1.3170	40.1720
 1.3180	40.0920
 1.3190	40.0080
 1.3200	39.9230
 1.3210	39.8340
 1.3220	39.7440
 1.3230	39.6530
 1.3240	39.5610
 1.3250	39.4670
 1.3260	39.3690
 1.3270	39.2680
 1.3280	39.1630
 1.3290	39.0570
 1.3300	38.9500
 1.3310	38.8410
 1.3320	38.7300
 1.3330	38.6190
 1.3340	38.5070
 1.3350	38.3960
 1.3360	38.2820
 1.3370	38.1650
 1.3380	38.0520
 1.3390	37.9370
 1.3400	37.8200
 1.3410	37.7060
 1.3420	37.5930
 1.3430	37.4800
 1.3440	37.3670
 1.3450	37.2560
 1.3460	37.1450
 1.3470	37.0350
 1.3480	36.9240
 1.3490	36.8160
 1.3500	36.7100
 1.3510	36.6030
 1.3520	36.4970
 1.3530	36.3930
 1.3540	36.2860
 1.3550	36.1800
 1.3560	36.0740
 1.3570	35.9680
 1.3580	35.8620
 1.3590	35.7550
 1.3600	35.6450
 1.3610	35.5320
 1.3620	35.4150
 1.3630	35.2940
 1.3640	35.1690
 1.3650	35.0370
 1.3660	34.9000
 1.3670	34.7550
 1.3680	34.6010
 1.3690	34.4390
 1.3700	34.2660
 1.3710	34.0820
 1.3720	33.8850
 1.3730	33.6730
 1.3740	33.4480
 1.3750	33.2070
 1.3760	32.9460
 1.3770	32.6670
 1.3780	32.3650
 1.3790	32.0430
 1.3800	31.7020
 1.3810	31.3370
 1.3820	30.9540
 1.3830	30.5520
 1.3840	30.1300
 1.3850	29.6880
 1.3860	29.2310
 1.3870	28.7530
 1.3880	28.2660
 1.3890	27.7660
 1.3900	27.2510
 1.3910	26.7330
 1.3920	26.2080
 1.3930	25.6760
 1.3940	25.1490
 1.3950	24.6170
 1.3960	24.0920
 1.3970	23.5750
 1.3980	23.0640
 1.3990	22.5710
 1.4000	22.0910
 1.4010	21.6200
 1.4020	21.1680
 1.4030	20.7290
 1.4040	20.3070
 1.4050	19.9060
 1.4060	19.5240
 1.4070	19.1630
 1.4080	18.8200
 1.4090	18.4950
 1.4100	18.1900
 1.4110	17.9020
 1.4120	17.6310
 1.4130	17.3790
 1.4140	17.1430
 1.4150	16.9250
 1.4160	16.7230
 1.4170	16.5330
 1.4180	16.3580
 1.4190	16.1920
 1.4200	16.0370
 1.4210	15.8940
 1.4220	15.7610
 1.4230	15.6400
 1.4240	15.5290
 1.4250	15.4250
 1.4260	15.3310
 1.4270	15.2420
 1.4280	15.1600
 1.4290	15.0850
 1.4300	15.0170
 1.4310	14.9540
 1.4320	14.8990
 1.4330	14.8480
 1.4340	14.8040
 1.4350	14.7630
 1.4360	14.7260
 1.4370	14.6940
 1.4380	14.6660
 1.4390	14.6420
 1.4400	14.6230
 1.4410	14.6080
 1.4420	14.5950
 1.4430	14.5830
 1.4440	14.5750
 1.4450	14.5690
 1.4460	14.5650
 1.4470	14.5640
 1.4480	14.5640
 1.4490	14.5670
 1.4500	14.5710
 1.4510	14.5770
 1.4520	14.5850
 1.4530	14.5940
 1.4540	14.6050
 1.4550	14.6190
 1.4560	14.6340
 1.4570	14.6520
 1.4580	14.6730
 1.4590	14.6980
 1.4600	14.7270
 1.4610	14.7590
 1.4620	14.7930
 1.4630	14.8330
 1.4640	14.8760
 1.4650	14.9240
 1.4660	14.9780
 1.4670	15.0350
 1.4680	15.0970
 1.4690	15.1620
 1.4700	15.2320
 1.4710	15.3060
 1.4720	15.3830
 1.4730	15.4630
 1.4740	15.5470
 1.4750	15.6330
 1.4760	15.7240
 1.4770	15.8170
 1.4780	15.9120
