Name: Calocedrus decrruens 3
Type: vegetation
Class: Tree
Genus: Calocedrus
Species: decurrens
Sample No.: VH060
Owner: UCSB
Wavelength Range: VSWIR
Origin: 37.0443; -119.3026; WGS84
Collection Date: 4/20/2013
Description: Samples were collected as part of the HyspIRI Airborne Campaign. 48 individual plants were sampled in three times in 2013 - spring  summer  and fall. The name of the sample includes a 1  2  or 3 which references a different individual of the species. Samples were taken to JPL and processed within 48 hours of collection. The same leaves were processed in the Nicolet and then measured using the ASD.
Measurement: Bidirectional reflectance
First Column: X
Second Column: Y
X Units: Wavelength (micrometers)
Y Units: Reflectance (percentage)
First X Value: 0.35
Last X Value: 2.5
Number of X Values: 2151
Additional Information: vegetation.tree.calocedrus.decurrens.vswir.vh060.ucsb.asd.ancillary.txt

 0.3500	 4.3550
 0.3510	 4.3100
 0.3520	 4.2790
 0.3530	 4.1860
 0.3540	 4.0220
 0.3550	 4.0560
 0.3560	 4.0100
 0.3570	 3.9440
 0.3580	 4.0390
 0.3590	 3.9660
 0.3600	 3.9620
 0.3610	 4.0750
 0.3620	 4.0160
 0.3630	 3.9830
 0.3640	 3.9720
 0.3650	 3.9420
 0.3660	 3.9060
 0.3670	 3.9010
 0.3680	 3.9350
 0.3690	 3.9850
 0.3700	 3.8970
 0.3710	 3.8700
 0.3720	 3.9730
 0.3730	 3.9610
 0.3740	 3.8640
 0.3750	 3.7930
 0.3760	 3.8270
 0.3770	 3.7730
 0.3780	 3.7830
 0.3790	 3.8530
 0.3800	 3.8490
 0.3810	 3.8540
 0.3820	 3.8140
 0.3830	 3.7330
 0.3840	 3.7940
 0.3850	 3.7560
 0.3860	 3.7050
 0.3870	 3.7900
 0.3880	 3.7760
 0.3890	 3.7770
 0.3900	 3.8210
 0.3910	 3.8330
 0.3920	 3.8180
 0.3930	 3.8130
 0.3940	 3.8320
 0.3950	 3.8150
 0.3960	 3.8020
 0.3970	 3.8030
 0.3980	 3.8080
 0.3990	 3.7900
 0.4000	 3.8050
 0.4010	 3.8540
 0.4020	 3.8590
 0.4030	 3.8890
 0.4040	 3.9250
 0.4050	 3.9390
 0.4060	 3.9420
 0.4070	 3.9550
 0.4080	 3.9780
 0.4090	 3.9950
 0.4100	 4.0050
 0.4110	 4.0400
 0.4120	 4.0970
 0.4130	 4.0980
 0.4140	 4.1090
 0.4150	 4.1330
 0.4160	 4.1590
 0.4170	 4.2080
 0.4180	 4.2430
 0.4190	 4.2620
 0.4200	 4.2950
 0.4210	 4.3130
 0.4220	 4.3240
 0.4230	 4.3450
 0.4240	 4.3900
 0.4250	 4.4190
 0.4260	 4.4330
 0.4270	 4.4530
 0.4280	 4.4800
 0.4290	 4.5080
 0.4300	 4.5300
 0.4310	 4.5370
 0.4320	 4.5580
 0.4330	 4.5880
 0.4340	 4.6120
 0.4350	 4.6370
 0.4360	 4.6610
 0.4370	 4.6830
 0.4380	 4.7020
 0.4390	 4.7210
 0.4400	 4.7440
 0.4410	 4.7730
 0.4420	 4.7940
 0.4430	 4.8140
 0.4440	 4.8350
 0.4450	 4.8570
 0.4460	 4.8770
 0.4470	 4.9070
 0.4480	 4.9400
 0.4490	 4.9390
 0.4500	 4.9590
 0.4510	 4.9890
 0.4520	 5.0120
 0.4530	 5.0440
 0.4540	 5.0650
 0.4550	 5.0800
 0.4560	 5.1070
 0.4570	 5.1230
 0.4580	 5.1360
 0.4590	 5.1500
 0.4600	 5.1620
 0.4610	 5.1850
 0.4620	 5.2020
 0.4630	 5.1950
 0.4640	 5.2130
 0.4650	 5.2290
 0.4660	 5.2370
 0.4670	 5.2560
 0.4680	 5.2670
 0.4690	 5.2720
 0.4700	 5.2740
 0.4710	 5.2720
 0.4720	 5.2730
 0.4730	 5.2800
 0.4740	 5.2940
 0.4750	 5.3040
 0.4760	 5.3050
 0.4770	 5.3030
 0.4780	 5.3120
 0.4790	 5.3160
 0.4800	 5.3150
 0.4810	 5.3170
 0.4820	 5.3170
 0.4830	 5.3180
 0.4840	 5.3250
 0.4850	 5.3450
 0.4860	 5.3650
 0.4870	 5.3830
 0.4880	 5.3980
 0.4890	 5.4050
 0.4900	 5.4210
 0.4910	 5.4470
 0.4920	 5.4770
 0.4930	 5.5100
 0.4940	 5.5420
 0.4950	 5.5720
 0.4960	 5.6110
 0.4970	 5.6640
 0.4980	 5.7180
 0.4990	 5.7670
 0.5000	 5.8250
 0.5010	 5.8860
 0.5020	 5.9530
 0.5030	 6.0310
 0.5040	 6.1210
 0.5050	 6.2140
 0.5060	 6.3090
 0.5070	 6.4290
 0.5080	 6.5520
 0.5090	 6.6820
 0.5100	 6.8340
 0.5110	 6.9910
 0.5120	 7.1570
 0.5130	 7.3370
 0.5140	 7.5270
 0.5150	 7.7260
 0.5160	 7.9370
 0.5170	 8.1610
 0.5180	 8.3930
 0.5190	 8.6280
 0.5200	 8.8710
 0.5210	 9.1340
 0.5220	 9.3880
 0.5230	 9.6350
 0.5240	 9.8820
 0.5250	10.1210
 0.5260	10.3610
 0.5270	10.5940
 0.5280	10.8100
 0.5290	11.0170
 0.5300	11.2100
 0.5310	11.3900
 0.5320	11.5610
 0.5330	11.7300
 0.5340	11.8860
 0.5350	12.0210
 0.5360	12.1460
 0.5370	12.2610
 0.5380	12.3670
 0.5390	12.4630
 0.5400	12.5600
 0.5410	12.6550
 0.5420	12.7420
 0.5430	12.8230
 0.5440	12.8970
 0.5450	12.9680
 0.5460	13.0380
 0.5470	13.0950
 0.5480	13.1480
 0.5490	13.1990
 0.5500	13.2450
 0.5510	13.2800
 0.5520	13.3020
 0.5530	13.3110
 0.5540	13.3030
 0.5550	13.2800
 0.5560	13.2430
 0.5570	13.1900
 0.5580	13.1260
 0.5590	13.0470
 0.5600	12.9550
 0.5610	12.8640
 0.5620	12.7570
 0.5630	12.6360
 0.5640	12.5110
 0.5650	12.3730
 0.5660	12.2320
 0.5670	12.0900
 0.5680	11.9370
 0.5690	11.7790
 0.5700	11.6210
 0.5710	11.4680
 0.5720	11.3090
 0.5730	11.1530
 0.5740	11.0040
 0.5750	10.8680
 0.5760	10.7470
 0.5770	10.6330
 0.5780	10.5210
 0.5790	10.4230
 0.5800	10.3270
 0.5810	10.2320
 0.5820	10.1420
 0.5830	10.0550
 0.5840	 9.9730
 0.5850	 9.9010
 0.5860	 9.8410
 0.5870	 9.7830
 0.5880	 9.7250
 0.5890	 9.6710
 0.5900	 9.6240
 0.5910	 9.5800
 0.5920	 9.5390
 0.5930	 9.5030
 0.5940	 9.4700
 0.5950	 9.4390
 0.5960	 9.4120
 0.5970	 9.3820
 0.5980	 9.3570
 0.5990	 9.3320
 0.6000	 9.3010
 0.6010	 9.2610
 0.6020	 9.2180
 0.6030	 9.1710
 0.6040	 9.1160
 0.6050	 9.0570
 0.6060	 8.9920
 0.6070	 8.9190
 0.6080	 8.8370
 0.6090	 8.7550
 0.6100	 8.6760
 0.6110	 8.6000
 0.6120	 8.5170
 0.6130	 8.4290
 0.6140	 8.3430
 0.6150	 8.2620
 0.6160	 8.1840
 0.6170	 8.1120
 0.6180	 8.0470
 0.6190	 7.9840
 0.6200	 7.9320
 0.6210	 7.8920
 0.6220	 7.8540
 0.6230	 7.8150
 0.6240	 7.7810
 0.6250	 7.7580
 0.6260	 7.7390
 0.6270	 7.7280
 0.6280	 7.7190
 0.6290	 7.7090
 0.6300	 7.7080
 0.6310	 7.7040
 0.6320	 7.6940
 0.6330	 7.6810
 0.6340	 7.6590
 0.6350	 7.6280
 0.6360	 7.5910
 0.6370	 7.5460
 0.6380	 7.4940
 0.6390	 7.4360
 0.6400	 7.3680
 0.6410	 7.2920
 0.6420	 7.2090
 0.6430	 7.1230
 0.6440	 7.0340
 0.6450	 6.9430
 0.6460	 6.8530
 0.6470	 6.7690
 0.6480	 6.6890
 0.6490	 6.6220
 0.6500	 6.5670
 0.6510	 6.5170
 0.6520	 6.4710
 0.6530	 6.4270
 0.6540	 6.3850
 0.6550	 6.3420
 0.6560	 6.2930
 0.6570	 6.2370
 0.6580	 6.1770
 0.6590	 6.1090
 0.6600	 6.0380
 0.6610	 5.9670
 0.6620	 5.8940
 0.6630	 5.8270
 0.6640	 5.7680
 0.6650	 5.7170
 0.6660	 5.6690
 0.6670	 5.6270
 0.6680	 5.5920
 0.6690	 5.5650
 0.6700	 5.5450
 0.6710	 5.5300
 0.6720	 5.5220
 0.6730	 5.5240
 0.6740	 5.5250
 0.6750	 5.5270
 0.6760	 5.5360
 0.6770	 5.5550
 0.6780	 5.5760
 0.6790	 5.6000
 0.6800	 5.6330
 0.6810	 5.6740
 0.6820	 5.7240
 0.6830	 5.7860
 0.6840	 5.8630
 0.6850	 5.9550
 0.6860	 6.0710
 0.6870	 6.2210
 0.6880	 6.4070
 0.6890	 6.6400
 0.6900	 6.9300
 0.6910	 7.2790
 0.6920	 7.6970
 0.6930	 8.1860
 0.6940	 8.7480
 0.6950	 9.3800
 0.6960	10.0760
 0.6970	10.8310
 0.6980	11.6390
 0.6990	12.4940
 0.7000	13.3930
 0.7010	14.3260
 0.7020	15.2850
 0.7030	16.2680
 0.7040	17.2690
 0.7050	18.2820
 0.7060	19.2970
 0.7070	20.3230
 0.7080	21.3590
 0.7090	22.4000
 0.7100	23.4440
 0.7110	24.4960
 0.7120	25.5570
 0.7130	26.6190
 0.7140	27.6880
 0.7150	28.7640
 0.7160	29.8390
 0.7170	30.9160
 0.7180	31.9870
 0.7190	33.0560
 0.7200	34.1290
 0.7210	35.1950
 0.7220	36.2510
 0.7230	37.2930
 0.7240	38.3140
 0.7250	39.3190
 0.7260	40.3030
 0.7270	41.2630
 0.7280	42.1950
 0.7290	43.0960
 0.7300	43.9660
 0.7310	44.8050
 0.7320	45.6070
 0.7330	46.3810
 0.7340	47.1260
 0.7350	47.8220
 0.7360	48.4890
 0.7370	49.1270
 0.7380	49.7310
 0.7390	50.3010
 0.7400	50.8380
 0.7410	51.3420
 0.7420	51.8110
 0.7430	52.2560
 0.7440	52.6800
 0.7450	53.0750
 0.7460	53.4230
 0.7470	53.7590
 0.7480	54.0710
 0.7490	54.3490
 0.7500	54.6110
 0.7510	54.8520
 0.7520	55.0720
 0.7530	55.2740
 0.7540	55.4570
 0.7550	55.6290
 0.7560	55.7850
 0.7570	55.9180
 0.7580	56.0500
 0.7590	56.1720
 0.7600	56.2770
 0.7610	56.3700
 0.7620	56.4660
 0.7630	56.5550
 0.7640	56.6270
 0.7650	56.6980
 0.7660	56.7620
 0.7670	56.8180
 0.7680	56.8670
 0.7690	56.9190
 0.7700	56.9680
 0.7710	57.0130
 0.7720	57.0600
 0.7730	57.0960
 0.7740	57.1280
 0.7750	57.1620
 0.7760	57.1880
 0.7770	57.2230
 0.7780	57.2610
 0.7790	57.2890
 0.7800	57.3180
 0.7810	57.3470
 0.7820	57.3730
 0.7830	57.3950
 0.7840	57.4220
 0.7850	57.4470
 0.7860	57.4670
 0.7870	57.4960
 0.7880	57.5200
 0.7890	57.5390
 0.7900	57.5580
 0.7910	57.5710
 0.7920	57.5960
 0.7930	57.6230
 0.7940	57.6300
 0.7950	57.6430
 0.7960	57.6610
 0.7970	57.6810
 0.7980	57.7030
 0.7990	57.7110
 0.8000	57.7200
 0.8010	57.7410
 0.8020	57.7560
 0.8030	57.7690
 0.8040	57.7770
 0.8050	57.7800
 0.8060	57.8000
 0.8070	57.8110
 0.8080	57.8120
 0.8090	57.8220
 0.8100	57.8320
 0.8110	57.8430
 0.8120	57.8520
 0.8130	57.8540
 0.8140	57.8590
 0.8150	57.8660
 0.8160	57.8730
 0.8170	57.8870
 0.8180	57.8900
 0.8190	57.8900
 0.8200	57.9060
 0.8210	57.9120
 0.8220	57.9150
 0.8230	57.9200
 0.8240	57.9270
 0.8250	57.9270
 0.8260	57.9220
 0.8270	57.9200
 0.8280	57.9340
 0.8290	57.9330
 0.8300	57.9250
 0.8310	57.9220
 0.8320	57.9270
 0.8330	57.9280
 0.8340	57.9260
 0.8350	57.9290
 0.8360	57.9330
 0.8370	57.9440
 0.8380	57.9590
 0.8390	57.9640
 0.8400	57.9740
 0.8410	57.9840
 0.8420	57.9910
 0.8430	57.9970
 0.8440	58.0120
 0.8450	58.0320
 0.8460	58.0470
 0.8470	58.0490
 0.8480	58.0560
 0.8490	58.0710
 0.8500	58.0900
 0.8510	58.1050
 0.8520	58.1160
 0.8530	58.1250
 0.8540	58.1390
 0.8550	58.1470
 0.8560	58.1550
 0.8570	58.1680
 0.8580	58.1880
 0.8590	58.2010
 0.8600	58.2120
 0.8610	58.2240
 0.8620	58.2350
 0.8630	58.2430
 0.8640	58.2520
 0.8650	58.2630
 0.8660	58.2680
 0.8670	58.2780
 0.8680	58.2910
 0.8690	58.3020
 0.8700	58.3130
 0.8710	58.3210
 0.8720	58.3290
 0.8730	58.3400
 0.8740	58.3510
 0.8750	58.3580
 0.8760	58.3610
 0.8770	58.3640
 0.8780	58.3680
 0.8790	58.3740
 0.8800	58.3820
 0.8810	58.3930
 0.8820	58.3950
 0.8830	58.3960
 0.8840	58.4000
 0.8850	58.3960
 0.8860	58.3980
 0.8870	58.4010
 0.8880	58.3980
 0.8890	58.4100
 0.8900	58.4080
 0.8910	58.3980
 0.8920	58.3950
 0.8930	58.3930
 0.8940	58.3920
 0.8950	58.3940
 0.8960	58.4000
 0.8970	58.4000
 0.8980	58.3930
 0.8990	58.3850
 0.9000	58.3890
 0.9010	58.3790
 0.9020	58.3670
 0.9030	58.3620
 0.9040	58.3630
 0.9050	58.3590
 0.9060	58.3540
 0.9070	58.3520
 0.9080	58.3500
 0.9090	58.3330
 0.9100	58.3190
 0.9110	58.3260
 0.9120	58.3300
 0.9130	58.3140
 0.9140	58.2920
 0.9150	58.2800
 0.9160	58.2780
 0.9170	58.2750
 0.9180	58.2660
 0.9190	58.2500
 0.9200	58.2370
 0.9210	58.2190
 0.9220	58.1990
 0.9230	58.1790
 0.9240	58.1600
 0.9250	58.1360
 0.9260	58.1160
 0.9270	58.1100
 0.9280	58.0830
 0.9290	58.0500
 0.9300	58.0200
 0.9310	57.9920
 0.9320	57.9510
 0.9330	57.9020
 0.9340	57.8570
 0.9350	57.8280
 0.9360	57.7930
 0.9370	57.7390
 0.9380	57.6730
 0.9390	57.6190
 0.9400	57.5670
 0.9410	57.5150
 0.9420	57.4600
 0.9430	57.4000
 0.9440	57.3180
 0.9450	57.2270
 0.9460	57.1390
 0.9470	57.0510
 0.9480	56.9600
 0.9490	56.8430
 0.9500	56.6970
 0.9510	56.5730
 0.9520	56.4600
 0.9530	56.3320
 0.9540	56.1770
 0.9550	56.0190
 0.9560	55.8730
 0.9570	55.7390
 0.9580	55.6150
 0.9590	55.5150
 0.9600	55.4090
 0.9610	55.3030
 0.9620	55.2150
 0.9630	55.1380
 0.9640	55.0630
 0.9650	54.9970
 0.9660	54.9470
 0.9670	54.8910
 0.9680	54.8390
 0.9690	54.8000
 0.9700	54.7730
 0.9710	54.7300
 0.9720	54.7050
 0.9730	54.6850
 0.9740	54.6500
 0.9750	54.6230
 0.9760	54.6100
 0.9770	54.6020
 0.9780	54.5870
 0.9790	54.5830
 0.9800	54.5820
 0.9810	54.5900
 0.9820	54.6100
 0.9830	54.6230
 0.9840	54.6400
 0.9850	54.6620
 0.9860	54.6840
 0.9870	54.7000
 0.9880	54.7280
 0.9890	54.7720
 0.9900	54.8200
 0.9910	54.8540
 0.9920	54.9700
 0.9930	55.0860
 0.9940	55.2020
 0.9950	55.3180
 0.9960	55.4340
 0.9970	55.5500
 0.9980	55.6660
 0.9990	55.7820
 1.0000	55.8980
 1.0010	56.0140
 1.0020	56.1300
 1.0030	56.2460
 1.0040	56.3620
 1.0050	56.4780
 1.0060	56.5940
 1.0070	56.7100
 1.0080	56.8260
 1.0090	56.9420
 1.0100	56.9420
 1.0110	57.0020
 1.0120	57.0660
 1.0130	57.1270
 1.0140	57.1900
 1.0150	57.2560
 1.0160	57.3230
 1.0170	57.3870
 1.0180	57.4440
 1.0190	57.5050
 1.0200	57.5720
 1.0210	57.6350
 1.0220	57.6990
 1.0230	57.7630
 1.0240	57.8240
 1.0250	57.8850
 1.0260	57.9480
 1.0270	58.0090
 1.0280	58.0670
 1.0290	58.1260
 1.0300	58.1880
 1.0310	58.2470
 1.0320	58.3020
 1.0330	58.3600
 1.0340	58.4190
 1.0350	58.4780
 1.0360	58.5400
 1.0370	58.5930
 1.0380	58.6480
 1.0390	58.7030
 1.0400	58.7550
 1.0410	58.8060
 1.0420	58.8560
 1.0430	58.9040
 1.0440	58.9510
 1.0450	58.9970
 1.0460	59.0440
 1.0470	59.0910
 1.0480	59.1340
 1.0490	59.1780
 1.0500	59.2190
 1.0510	59.2520
 1.0520	59.2890
 1.0530	59.3240
 1.0540	59.3590
 1.0550	59.3930
 1.0560	59.4250
 1.0570	59.4590
 1.0580	59.4940
 1.0590	59.5250
 1.0600	59.5540
 1.0610	59.5810
 1.0620	59.6040
 1.0630	59.6260
 1.0640	59.6450
 1.0650	59.6650
 1.0660	59.6840
 1.0670	59.7010
 1.0680	59.7180
 1.0690	59.7360
 1.0700	59.7510
 1.0710	59.7620
 1.0720	59.7750
 1.0730	59.7870
 1.0740	59.7970
 1.0750	59.8100
 1.0760	59.8150
 1.0770	59.8130
 1.0780	59.8130
 1.0790	59.8080
 1.0800	59.8070
 1.0810	59.8100
 1.0820	59.8090
 1.0830	59.8070
 1.0840	59.8030
 1.0850	59.7970
 1.0860	59.7900
 1.0870	59.7810
 1.0880	59.7700
 1.0890	59.7580
 1.0900	59.7430
 1.0910	59.7280
 1.0920	59.7150
 1.0930	59.6960
 1.0940	59.6730
 1.0950	59.6520
 1.0960	59.6300
 1.0970	59.6070
 1.0980	59.5870
 1.0990	59.5640
 1.1000	59.5350
 1.1010	59.5090
 1.1020	59.4860
 1.1030	59.4580
 1.1040	59.4280
 1.1050	59.3970
 1.1060	59.3670
 1.1070	59.3350
 1.1080	59.3030
 1.1090	59.2740
 1.1100	59.2400
 1.1110	59.2050
 1.1120	59.1670
 1.1130	59.1300
 1.1140	59.0860
 1.1150	59.0380
 1.1160	58.9870
 1.1170	58.9320
 1.1180	58.8730
 1.1190	58.8150
 1.1200	58.7460
 1.1210	58.6710
 1.1220	58.5890
 1.1230	58.4910
 1.1240	58.3860
 1.1250	58.2660
 1.1260	58.1340
 1.1270	57.9880
 1.1280	57.8310
 1.1290	57.6580
 1.1300	57.4730
 1.1310	57.2690
 1.1320	57.0490
 1.1330	56.8120
 1.1340	56.5580
 1.1350	56.2890
 1.1360	56.0040
 1.1370	55.7060
 1.1380	55.4000
 1.1390	55.0850
 1.1400	54.7600
 1.1410	54.4310
 1.1420	54.0980
 1.1430	53.7620
 1.1440	53.4310
 1.1450	53.0970
 1.1460	52.7760
 1.1470	52.4550
 1.1480	52.1520
 1.1490	51.8560
 1.1500	51.5790
 1.1510	51.3140
 1.1520	51.0650
 1.1530	50.8340
 1.1540	50.6180
 1.1550	50.4170
 1.1560	50.2310
 1.1570	50.0610
 1.1580	49.9040
 1.1590	49.7610
 1.1600	49.6310
 1.1610	49.5140
 1.1620	49.4050
 1.1630	49.3040
 1.1640	49.2130
 1.1650	49.1280
 1.1660	49.0510
 1.1670	48.9780
 1.1680	48.9140
 1.1690	48.8500
 1.1700	48.7890
 1.1710	48.7300
 1.1720	48.6760
 1.1730	48.6190
 1.1740	48.5610
 1.1750	48.5060
 1.1760	48.4490
 1.1770	48.3890
 1.1780	48.3260
 1.1790	48.2650
 1.1800	48.1990
 1.1810	48.1310
 1.1820	48.0650
 1.1830	47.9990
 1.1840	47.9340
 1.1850	47.8710
 1.1860	47.8100
 1.1870	47.7510
 1.1880	47.6930
 1.1890	47.6360
 1.1900	47.5820
 1.1910	47.5290
 1.1920	47.4810
 1.1930	47.4370
 1.1940	47.3960
 1.1950	47.3600
 1.1960	47.3270
 1.1970	47.3010
 1.1980	47.2790
 1.1990	47.2670
 1.2000	47.2610
 1.2010	47.2590
 1.2020	47.2650
 1.2030	47.2750
 1.2040	47.2920
 1.2050	47.3170
 1.2060	47.3480
 1.2070	47.3860
 1.2080	47.4330
 1.2090	47.4840
 1.2100	47.5430
 1.2110	47.6070
 1.2120	47.6790
 1.2130	47.7540
 1.2140	47.8340
 1.2150	47.9190
 1.2160	48.0090
 1.2170	48.1010
 1.2180	48.1980
 1.2190	48.3000
 1.2200	48.3990
 1.2210	48.5000
 1.2220	48.6050
 1.2230	48.7090
 1.2240	48.8160
 1.2250	48.9240
 1.2260	49.0290
 1.2270	49.1310
 1.2280	49.2290
 1.2290	49.3230
 1.2300	49.4150
 1.2310	49.5040
 1.2320	49.5890
 1.2330	49.6710
 1.2340	49.7520
 1.2350	49.8290
 1.2360	49.9050
 1.2370	49.9810
 1.2380	50.0540
 1.2390	50.1220
 1.2400	50.1870
 1.2410	50.2480
 1.2420	50.3080
 1.2430	50.3670
 1.2440	50.4260
 1.2450	50.4830
 1.2460	50.5390
 1.2470	50.5920
 1.2480	50.6430
 1.2490	50.6890
 1.2500	50.7340
 1.2510	50.7790
 1.2520	50.8220
 1.2530	50.8620
 1.2540	50.9020
 1.2550	50.9400
 1.2560	50.9770
 1.2570	51.0090
 1.2580	51.0400
 1.2590	51.0680
 1.2600	51.0930
 1.2610	51.1150
 1.2620	51.1350
 1.2630	51.1530
 1.2640	51.1680
 1.2650	51.1800
 1.2660	51.1940
 1.2670	51.2050
 1.2680	51.2160
 1.2690	51.2260
 1.2700	51.2310
 1.2710	51.2360
 1.2720	51.2360
 1.2730	51.2330
 1.2740	51.2300
 1.2750	51.2250
 1.2760	51.2200
 1.2770	51.2130
 1.2780	51.2030
 1.2790	51.1900
 1.2800	51.1690
 1.2810	51.1440
 1.2820	51.1200
 1.2830	51.0920
 1.2840	51.0610
 1.2850	51.0290
 1.2860	50.9920
 1.2870	50.9490
 1.2880	50.9010
 1.2890	50.8500
 1.2900	50.7950
 1.2910	50.7370
 1.2920	50.6750
 1.2930	50.6100
 1.2940	50.5400
 1.2950	50.4630
 1.2960	50.3800
 1.2970	50.2910
 1.2980	50.1970
 1.2990	50.0980
 1.3000	49.9950
 1.3010	49.8920
 1.3020	49.7810
 1.3030	49.6620
 1.3040	49.5410
 1.3050	49.4130
 1.3060	49.2790
 1.3070	49.1410
 1.3080	48.9970
 1.3090	48.8460
 1.3100	48.6910
 1.3110	48.5310
 1.3120	48.3640
 1.3130	48.1910
 1.3140	48.0140
 1.3150	47.8300
 1.3160	47.6430
 1.3170	47.4530
 1.3180	47.2580
 1.3190	47.0580
 1.3200	46.8510
 1.3210	46.6390
 1.3220	46.4240
 1.3230	46.2020
 1.3240	45.9770
 1.3250	45.7510
 1.3260	45.5220
 1.3270	45.2890
 1.3280	45.0550
 1.3290	44.8170
 1.3300	44.5750
 1.3310	44.3330
 1.3320	44.0910
 1.3330	43.8480
 1.3340	43.6040
 1.3350	43.3630
 1.3360	43.1230
 1.3370	42.8830
 1.3380	42.6460
 1.3390	42.4110
 1.3400	42.1760
 1.3410	41.9480
 1.3420	41.7220
 1.3430	41.4980
 1.3440	41.2770
 1.3450	41.0590
 1.3460	40.8430
 1.3470	40.6330
 1.3480	40.4260
 1.3490	40.2240
 1.3500	40.0280
 1.3510	39.8330
 1.3520	39.6400
 1.3530	39.4480
 1.3540	39.2560
 1.3550	39.0660
 1.3560	38.8760
 1.3570	38.6840
 1.3580	38.4910
 1.3590	38.2930
 1.3600	38.0920
 1.3610	37.8890
 1.3620	37.6790
 1.3630	37.4630
 1.3640	37.2400
 1.3650	37.0060
 1.3660	36.7680
 1.3670	36.5200
 1.3680	36.2590
 1.3690	35.9880
 1.3700	35.6980
 1.3710	35.3940
 1.3720	35.0770
 1.3730	34.7390
 1.3740	34.3870
 1.3750	34.0150
 1.3760	33.6190
 1.3770	33.2050
 1.3780	32.7640
 1.3790	32.3000
 1.3800	31.8140
 1.3810	31.3030
 1.3820	30.7780
 1.3830	30.2350
 1.3840	29.6780
 1.3850	29.1030
 1.3860	28.5200
 1.3870	27.9180
 1.3880	27.3200
 1.3890	26.7140
 1.3900	26.1050
 1.3910	25.5030
 1.3920	24.9030
 1.3930	24.3050
 1.3940	23.7180
 1.3950	23.1350
 1.3960	22.5670
 1.3970	22.0140
 1.3980	21.4770
 1.3990	20.9630
 1.4000	20.4670
 1.4010	19.9860
 1.4020	19.5270
 1.4030	19.0850
 1.4040	18.6640
 1.4050	18.2660
 1.4060	17.8860
 1.4070	17.5310
 1.4080	17.1960
 1.4090	16.8790
 1.4100	16.5830
 1.4110	16.3030
 1.4120	16.0420
 1.4130	15.7990
 1.4140	15.5710
 1.4150	15.3610
 1.4160	15.1650
 1.4170	14.9810
 1.4180	14.8120
 1.4190	14.6540
 1.4200	14.5060
 1.4210	14.3690
 1.4220	14.2420
 1.4230	14.1260
 1.4240	14.0180
 1.4250	13.9180
 1.4260	13.8270
 1.4270	13.7410
 1.4280	13.6600
 1.4290	13.5860
 1.4300	13.5200
 1.4310	13.4600
 1.4320	13.4070
 1.4330	13.3580
 1.4340	13.3140
 1.4350	13.2750
 1.4360	13.2410
 1.4370	13.2130
 1.4380	13.1880
 1.4390	13.1670
 1.4400	13.1490
 1.4410	13.1340
 1.4420	13.1220
 1.4430	13.1130
 1.4440	13.1080
 1.4450	13.1040
 1.4460	13.1040
 1.4470	13.1060
 1.4480	13.1080
 1.4490	13.1130
 1.4500	13.1190
 1.4510	13.1270
 1.4520	13.1380
 1.4530	13.1490
 1.4540	13.1610
 1.4550	13.1770
 1.4560	13.1930
 1.4570	13.2130
 1.4580	13.2370
 1.4590	13.2610
 1.4600	13.2890
 1.4610	13.3190
 1.4620	13.3530
 1.4630	13.3930
 1.4640	13.4360
 1.4650	13.4830
 1.4660	13.5340
 1.4670	13.5880
 1.4680	13.6460
 1.4690	13.7070
