Name: Peltophorum africanum
Type: vegetation
Class: Tree
Genus: Peltophorum
Species: africanum
Sample No.: JPL260
Owner: JPL
Wavelength Range: VSWIR
Origin: 34.13114; -118.11242; WGS84
Collection Date: 10/6/2016
Description: Samples were collected at the Huntington Garden in San Marino California as part of a JPL Subcontract studying HyTES imagery. Samples were taken to JPL and processed within 48 hours of collection. The same leaves were processed in the Nicolet and then measured using the ASD.
Measurement: Bidirectional reflectance
First Column: X
Second Column: Y
X Units: Wavelength (micrometer)
Y Units: Reflectance (percentage)
First X Value: 0.35
Last X Value: 2.5
Number of X Values: 2151
Additional Information: vegetation.tree.peltophorum.africanum.vswir.jpl260.jpl.asd.ancillary.txt

 0.3500	 2.7350
 0.3510	 2.6450
 0.3520	 2.5570
 0.3530	 2.4670
 0.3540	 2.3630
 0.3550	 2.4230
 0.3560	 2.4220
 0.3570	 2.3970
 0.3580	 2.4930
 0.3590	 2.5140
 0.3600	 2.4660
 0.3610	 2.3940
 0.3620	 2.3620
 0.3630	 2.4180
 0.3640	 2.4740
 0.3650	 2.4380
 0.3660	 2.3550
 0.3670	 2.3230
 0.3680	 2.3510
 0.3690	 2.3820
 0.3700	 2.3940
 0.3710	 2.3770
 0.3720	 2.3520
 0.3730	 2.3930
 0.3740	 2.4440
 0.3750	 2.4510
 0.3760	 2.3930
 0.3770	 2.3790
 0.3780	 2.3560
 0.3790	 2.3370
 0.3800	 2.3900
 0.3810	 2.4180
 0.3820	 2.4200
 0.3830	 2.4040
 0.3840	 2.3430
 0.3850	 2.3350
 0.3860	 2.3590
 0.3870	 2.3540
 0.3880	 2.3660
 0.3890	 2.3740
 0.3900	 2.3790
 0.3910	 2.4030
 0.3920	 2.4070
 0.3930	 2.3930
 0.3940	 2.3750
 0.3950	 2.3720
 0.3960	 2.3860
 0.3970	 2.3990
 0.3980	 2.3880
 0.3990	 2.3860
 0.4000	 2.3930
 0.4010	 2.4040
 0.4020	 2.4100
 0.4030	 2.4010
 0.4040	 2.3910
 0.4050	 2.3960
 0.4060	 2.4100
 0.4070	 2.4090
 0.4080	 2.4000
 0.4090	 2.4100
 0.4100	 2.4300
 0.4110	 2.4420
 0.4120	 2.4380
 0.4130	 2.4380
 0.4140	 2.4440
 0.4150	 2.4560
 0.4160	 2.4730
 0.4170	 2.4780
 0.4180	 2.4830
 0.4190	 2.4970
 0.4200	 2.5160
 0.4210	 2.5290
 0.4220	 2.5320
 0.4230	 2.5290
 0.4240	 2.5510
 0.4250	 2.5630
 0.4260	 2.5680
 0.4270	 2.5820
 0.4280	 2.5920
 0.4290	 2.5940
 0.4300	 2.5930
 0.4310	 2.6090
 0.4320	 2.6180
 0.4330	 2.6220
 0.4340	 2.6320
 0.4350	 2.6470
 0.4360	 2.6560
 0.4370	 2.6550
 0.4380	 2.6520
 0.4390	 2.6580
 0.4400	 2.6680
 0.4410	 2.6760
 0.4420	 2.6800
 0.4430	 2.6830
 0.4440	 2.6880
 0.4450	 2.6960
 0.4460	 2.7040
 0.4470	 2.7090
 0.4480	 2.7100
 0.4490	 2.7130
 0.4500	 2.7210
 0.4510	 2.7320
 0.4520	 2.7450
 0.4530	 2.7490
 0.4540	 2.7570
 0.4550	 2.7650
 0.4560	 2.7600
 0.4570	 2.7600
 0.4580	 2.7650
 0.4590	 2.7730
 0.4600	 2.7770
 0.4610	 2.7800
 0.4620	 2.7840
 0.4630	 2.7890
 0.4640	 2.7910
 0.4650	 2.7900
 0.4660	 2.7880
 0.4670	 2.7900
 0.4680	 2.7900
 0.4690	 2.7930
 0.4700	 2.7990
 0.4710	 2.8000
 0.4720	 2.7980
 0.4730	 2.7960
 0.4740	 2.8020
 0.4750	 2.8080
 0.4760	 2.8100
 0.4770	 2.8080
 0.4780	 2.8120
 0.4790	 2.8120
 0.4800	 2.8100
 0.4810	 2.8100
 0.4820	 2.8150
 0.4830	 2.8210
 0.4840	 2.8250
 0.4850	 2.8320
 0.4860	 2.8360
 0.4870	 2.8430
 0.4880	 2.8540
 0.4890	 2.8500
 0.4900	 2.8540
 0.4910	 2.8660
 0.4920	 2.8740
 0.4930	 2.8850
 0.4940	 2.8980
 0.4950	 2.9100
 0.4960	 2.9170
 0.4970	 2.9300
 0.4980	 2.9480
 0.4990	 2.9670
 0.5000	 2.9820
 0.5010	 3.0050
 0.5020	 3.0340
 0.5030	 3.0620
 0.5040	 3.0930
 0.5050	 3.1250
 0.5060	 3.1630
 0.5070	 3.2130
 0.5080	 3.2640
 0.5090	 3.3160
 0.5100	 3.3760
 0.5110	 3.4430
 0.5120	 3.5150
 0.5130	 3.5920
 0.5140	 3.6810
 0.5150	 3.7720
 0.5160	 3.8710
 0.5170	 3.9820
 0.5180	 4.0980
 0.5190	 4.2190
 0.5200	 4.3450
 0.5210	 4.4780
 0.5220	 4.6110
 0.5230	 4.7460
 0.5240	 4.8830
 0.5250	 5.0120
 0.5260	 5.1440
 0.5270	 5.2780
 0.5280	 5.4050
 0.5290	 5.5230
 0.5300	 5.6340
 0.5310	 5.7380
 0.5320	 5.8400
 0.5330	 5.9370
 0.5340	 6.0250
 0.5350	 6.1050
 0.5360	 6.1770
 0.5370	 6.2470
 0.5380	 6.3140
 0.5390	 6.3740
 0.5400	 6.4360
 0.5410	 6.5020
 0.5420	 6.5680
 0.5430	 6.6230
 0.5440	 6.6700
 0.5450	 6.7070
 0.5460	 6.7340
 0.5470	 6.7520
 0.5480	 6.7710
 0.5490	 6.7940
 0.5500	 6.8160
 0.5510	 6.8340
 0.5520	 6.8440
 0.5530	 6.8420
 0.5540	 6.8340
 0.5550	 6.8180
 0.5560	 6.7950
 0.5570	 6.7610
 0.5580	 6.7230
 0.5590	 6.6780
 0.5600	 6.6250
 0.5610	 6.5680
 0.5620	 6.5110
 0.5630	 6.4510
 0.5640	 6.3850
 0.5650	 6.3160
 0.5660	 6.2430
 0.5670	 6.1660
 0.5680	 6.0830
 0.5690	 5.9970
 0.5700	 5.9110
 0.5710	 5.8250
 0.5720	 5.7390
 0.5730	 5.6570
 0.5740	 5.5810
 0.5750	 5.5120
 0.5760	 5.4460
 0.5770	 5.3850
 0.5780	 5.3270
 0.5790	 5.2730
 0.5800	 5.2200
 0.5810	 5.1690
 0.5820	 5.1220
 0.5830	 5.0790
 0.5840	 5.0370
 0.5850	 4.9980
 0.5860	 4.9670
 0.5870	 4.9370
 0.5880	 4.9070
 0.5890	 4.8760
 0.5900	 4.8500
 0.5910	 4.8270
 0.5920	 4.8080
 0.5930	 4.7930
 0.5940	 4.7780
 0.5950	 4.7630
 0.5960	 4.7500
 0.5970	 4.7370
 0.5980	 4.7240
 0.5990	 4.7110
 0.6000	 4.6950
 0.6010	 4.6760
 0.6020	 4.6550
 0.6030	 4.6300
 0.6040	 4.6020
 0.6050	 4.5700
 0.6060	 4.5350
 0.6070	 4.5000
 0.6080	 4.4590
 0.6090	 4.4220
 0.6100	 4.3880
 0.6110	 4.3560
 0.6120	 4.3150
 0.6130	 4.2640
 0.6140	 4.2110
 0.6150	 4.1670
 0.6160	 4.1270
 0.6170	 4.0890
 0.6180	 4.0530
 0.6190	 4.0240
 0.6200	 3.9970
 0.6210	 3.9730
 0.6220	 3.9540
 0.6230	 3.9360
 0.6240	 3.9220
 0.6250	 3.9120
 0.6260	 3.9010
 0.6270	 3.8940
 0.6280	 3.8920
 0.6290	 3.8890
 0.6300	 3.8860
 0.6310	 3.8840
 0.6320	 3.8800
 0.6330	 3.8740
 0.6340	 3.8660
 0.6350	 3.8540
 0.6360	 3.8380
 0.6370	 3.8170
 0.6380	 3.7900
 0.6390	 3.7580
 0.6400	 3.7260
 0.6410	 3.6910
 0.6420	 3.6550
 0.6430	 3.6160
 0.6440	 3.5770
 0.6450	 3.5400
 0.6460	 3.5050
 0.6470	 3.4720
 0.6480	 3.4390
 0.6490	 3.4120
 0.6500	 3.3910
 0.6510	 3.3690
 0.6520	 3.3480
 0.6530	 3.3300
 0.6540	 3.3120
 0.6550	 3.2970
 0.6560	 3.2780
 0.6570	 3.2550
 0.6580	 3.2310
 0.6590	 3.2070
 0.6600	 3.1820
 0.6610	 3.1570
 0.6620	 3.1340
 0.6630	 3.1120
 0.6640	 3.0940
 0.6650	 3.0790
 0.6660	 3.0630
 0.6670	 3.0520
 0.6680	 3.0480
 0.6690	 3.0440
 0.6700	 3.0430
 0.6710	 3.0440
 0.6720	 3.0490
 0.6730	 3.0560
 0.6740	 3.0630
 0.6750	 3.0720
 0.6760	 3.0860
 0.6770	 3.1000
 0.6780	 3.1180
 0.6790	 3.1380
 0.6800	 3.1590
 0.6810	 3.1840
 0.6820	 3.2140
 0.6830	 3.2490
 0.6840	 3.2850
 0.6850	 3.3270
 0.6860	 3.3790
 0.6870	 3.4410
 0.6880	 3.5200
 0.6890	 3.6180
 0.6900	 3.7400
 0.6910	 3.8970
 0.6920	 4.0900
 0.6930	 4.3230
 0.6940	 4.6000
 0.6950	 4.9180
 0.6960	 5.2790
 0.6970	 5.6780
 0.6980	 6.1110
 0.6990	 6.5790
 0.7000	 7.0760
 0.7010	 7.5950
 0.7020	 8.1320
 0.7030	 8.6850
 0.7040	 9.2510
 0.7050	 9.8270
 0.7060	10.4110
 0.7070	11.0010
 0.7080	11.5960
 0.7090	12.1950
 0.7100	12.7940
 0.7110	13.4010
 0.7120	14.0140
 0.7130	14.6260
 0.7140	15.2390
 0.7150	15.8540
 0.7160	16.4700
 0.7170	17.0850
 0.7180	17.7000
 0.7190	18.3110
 0.7200	18.9130
 0.7210	19.5080
 0.7220	20.0960
 0.7230	20.6720
 0.7240	21.2340
 0.7250	21.7860
 0.7260	22.3220
 0.7270	22.8390
 0.7280	23.3340
 0.7290	23.8120
 0.7300	24.2710
 0.7310	24.7080
 0.7320	25.1250
 0.7330	25.5240
 0.7340	25.9010
 0.7350	26.2540
 0.7360	26.5890
 0.7370	26.9060
 0.7380	27.2030
 0.7390	27.4810
 0.7400	27.7400
 0.7410	27.9820
 0.7420	28.2090
 0.7430	28.4190
 0.7440	28.6090
 0.7450	28.7830
 0.7460	28.9470
 0.7470	29.0960
 0.7480	29.2310
 0.7490	29.3540
 0.7500	29.4670
 0.7510	29.5710
 0.7520	29.6660
 0.7530	29.7510
 0.7540	29.8270
 0.7550	29.8970
 0.7560	29.9620
 0.7570	30.0210
 0.7580	30.0760
 0.7590	30.1260
 0.7600	30.1690
 0.7610	30.2110
 0.7620	30.2480
 0.7630	30.2810
 0.7640	30.3120
 0.7650	30.3420
 0.7660	30.3680
 0.7670	30.3900
 0.7680	30.4100
 0.7690	30.4310
 0.7700	30.4520
 0.7710	30.4700
 0.7720	30.4850
 0.7730	30.5030
 0.7740	30.5190
 0.7750	30.5320
 0.7760	30.5490
 0.7770	30.5640
 0.7780	30.5770
 0.7790	30.5930
 0.7800	30.6070
 0.7810	30.6190
 0.7820	30.6310
 0.7830	30.6440
 0.7840	30.6570
 0.7850	30.6700
 0.7860	30.6830
 0.7870	30.6910
 0.7880	30.7010
 0.7890	30.7110
 0.7900	30.7220
 0.7910	30.7280
 0.7920	30.7370
 0.7930	30.7480
 0.7940	30.7560
 0.7950	30.7640
 0.7960	30.7730
 0.7970	30.7820
 0.7980	30.7870
 0.7990	30.7900
 0.8000	30.7930
 0.8010	30.7980
 0.8020	30.8030
 0.8030	30.8070
 0.8040	30.8100
 0.8050	30.8150
 0.8060	30.8200
 0.8070	30.8220
 0.8080	30.8230
 0.8090	30.8260
 0.8100	30.8250
 0.8110	30.8230
 0.8120	30.8230
 0.8130	30.8220
 0.8140	30.8200
 0.8150	30.8180
 0.8160	30.8160
 0.8170	30.8150
 0.8180	30.8170
 0.8190	30.8200
 0.8200	30.8190
 0.8210	30.8140
 0.8220	30.8080
 0.8230	30.8040
 0.8240	30.8030
 0.8250	30.7990
 0.8260	30.7950
 0.8270	30.7930
 0.8280	30.7930
 0.8290	30.7910
 0.8300	30.7870
 0.8310	30.7800
 0.8320	30.7740
 0.8330	30.7720
 0.8340	30.7710
 0.8350	30.7690
 0.8360	30.7660
 0.8370	30.7630
 0.8380	30.7620
 0.8390	30.7620
 0.8400	30.7610
 0.8410	30.7620
 0.8420	30.7640
 0.8430	30.7640
 0.8440	30.7620
 0.8450	30.7620
 0.8460	30.7650
 0.8470	30.7660
 0.8480	30.7690
 0.8490	30.7750
 0.8500	30.7800
 0.8510	30.7810
 0.8520	30.7790
 0.8530	30.7780
 0.8540	30.7810
 0.8550	30.7840
 0.8560	30.7900
 0.8570	30.7960
 0.8580	30.7990
 0.8590	30.8040
 0.8600	30.8090
 0.8610	30.8130
 0.8620	30.8220
 0.8630	30.8270
 0.8640	30.8310
 0.8650	30.8370
 0.8660	30.8430
 0.8670	30.8470
 0.8680	30.8510
 0.8690	30.8590
 0.8700	30.8690
 0.8710	30.8770
 0.8720	30.8830
 0.8730	30.8920
 0.8740	30.8980
 0.8750	30.9040
 0.8760	30.9110
 0.8770	30.9230
 0.8780	30.9290
 0.8790	30.9340
 0.8800	30.9410
 0.8810	30.9490
 0.8820	30.9560
 0.8830	30.9620
 0.8840	30.9680
 0.8850	30.9800
 0.8860	30.9860
 0.8870	30.9920
 0.8880	31.0000
 0.8890	31.0080
 0.8900	31.0160
 0.8910	31.0230
 0.8920	31.0290
 0.8930	31.0320
 0.8940	31.0410
 0.8950	31.0510
 0.8960	31.0510
 0.8970	31.0600
 0.8980	31.0690
 0.8990	31.0770
 0.9000	31.0850
 0.9010	31.0880
 0.9020	31.0920
 0.9030	31.1010
 0.9040	31.1110
 0.9050	31.1200
 0.9060	31.1240
 0.9070	31.1240
 0.9080	31.1330
 0.9090	31.1400
 0.9100	31.1400
 0.9110	31.1360
 0.9120	31.1340
 0.9130	31.1350
 0.9140	31.1400
 0.9150	31.1510
 0.9160	31.1540
 0.9170	31.1550
 0.9180	31.1570
 0.9190	31.1580
 0.9200	31.1600
 0.9210	31.1590
 0.9220	31.1580
 0.9230	31.1610
 0.9240	31.1610
 0.9250	31.1580
 0.9260	31.1540
 0.9270	31.1550
 0.9280	31.1440
 0.9290	31.1340
 0.9300	31.1250
 0.9310	31.1120
 0.9320	31.1030
 0.9330	31.0980
 0.9340	31.0950
 0.9350	31.0840
 0.9360	31.0700
 0.9370	31.0520
 0.9380	31.0320
 0.9390	31.0260
 0.9400	31.0170
 0.9410	31.0030
 0.9420	30.9860
 0.9430	30.9680
 0.9440	30.9480
 0.9450	30.9260
 0.9460	30.9020
 0.9470	30.8800
 0.9480	30.8520
 0.9490	30.8170
 0.9500	30.7790
 0.9510	30.7470
 0.9520	30.7110
 0.9530	30.6760
 0.9540	30.6460
 0.9550	30.6020
 0.9560	30.5600
 0.9570	30.5280
 0.9580	30.5050
 0.9590	30.4620
 0.9600	30.4200
 0.9610	30.3890
 0.9620	30.3690
 0.9630	30.3440
 0.9640	30.3260
 0.9650	30.3130
 0.9660	30.2930
 0.9670	30.2680
 0.9680	30.2590
 0.9690	30.2530
 0.9700	30.2340
 0.9710	30.2360
 0.9720	30.2260
 0.9730	30.2100
 0.9740	30.2070
 0.9750	30.2040
 0.9760	30.2020
 0.9770	30.2000
 0.9780	30.1990
 0.9790	30.2060
 0.9800	30.2000
 0.9810	30.1950
 0.9820	30.2080
 0.9830	30.2060
 0.9840	30.2010
 0.9850	30.1990
 0.9860	30.2040
 0.9870	30.2200
 0.9880	30.2330
 0.9890	30.2470
 0.9900	30.2670
 0.9910	30.2650
 0.9920	30.2710
 0.9930	30.2830
 0.9940	30.2890
 0.9950	30.3000
 0.9960	30.3120
 0.9970	30.3240
 0.9980	30.3360
 0.9990	30.3460
 1.0000	30.3640
 1.0010	31.2860
 1.0020	31.3030
 1.0030	31.3190
 1.0040	31.3360
 1.0050	31.3540
 1.0060	31.3710
 1.0070	31.3850
 1.0080	31.4010
 1.0090	31.4170
 1.0100	31.4320
 1.0110	31.4480
 1.0120	31.4630
 1.0130	31.4740
 1.0140	31.4880
 1.0150	31.5030
 1.0160	31.5190
 1.0170	31.5340
 1.0180	31.5510
 1.0190	31.5670
 1.0200	31.5820
 1.0210	31.6000
 1.0220	31.6190
 1.0230	31.6350
 1.0240	31.6510
 1.0250	31.6640
 1.0260	31.6720
 1.0270	31.6840
 1.0280	31.6960
 1.0290	31.7100
 1.0300	31.7270
 1.0310	31.7420
 1.0320	31.7550
 1.0330	31.7680
 1.0340	31.7780
 1.0350	31.7910
 1.0360	31.8030
 1.0370	31.8170
 1.0380	31.8310
 1.0390	31.8480
 1.0400	31.8590
 1.0410	31.8670
 1.0420	31.8760
 1.0430	31.8800
 1.0440	31.8880
 1.0450	31.9010
 1.0460	31.9110
 1.0470	31.9230
 1.0480	31.9320
 1.0490	31.9370
 1.0500	31.9450
 1.0510	31.9520
 1.0520	31.9600
 1.0530	31.9680
 1.0540	31.9790
 1.0550	31.9870
 1.0560	31.9940
 1.0570	32.0000
 1.0580	32.0060
 1.0590	32.0130
 1.0600	32.0220
 1.0610	32.0280
 1.0620	32.0330
 1.0630	32.0380
 1.0640	32.0410
 1.0650	32.0450
 1.0660	32.0500
 1.0670	32.0550
 1.0680	32.0590
 1.0690	32.0630
 1.0700	32.0660
 1.0710	32.0700
 1.0720	32.0730
 1.0730	32.0730
 1.0740	32.0760
 1.0750	32.0820
 1.0760	32.0830
 1.0770	32.0820
 1.0780	32.0820
 1.0790	32.0790
 1.0800	32.0780
 1.0810	32.0790
 1.0820	32.0810
 1.0830	32.0840
 1.0840	32.0860
 1.0850	32.0860
 1.0860	32.0890
 1.0870	32.0880
 1.0880	32.0860
 1.0890	32.0820
 1.0900	32.0770
 1.0910	32.0730
 1.0920	32.0680
 1.0930	32.0640
 1.0940	32.0640
 1.0950	32.0590
 1.0960	32.0530
 1.0970	32.0480
 1.0980	32.0400
 1.0990	32.0330
 1.1000	32.0280
 1.1010	32.0220
 1.1020	32.0160
 1.1030	32.0100
 1.1040	32.0020
 1.1050	31.9930
 1.1060	31.9830
 1.1070	31.9710
 1.1080	31.9610
 1.1090	31.9540
 1.1100	31.9440
 1.1110	31.9320
 1.1120	31.9200
 1.1130	31.9060
 1.1140	31.8920
 1.1150	31.8790
 1.1160	31.8620
 1.1170	31.8440
 1.1180	31.8240
 1.1190	31.7990
 1.1200	31.7750
 1.1210	31.7510
 1.1220	31.7240
 1.1230	31.6980
 1.1240	31.6700
 1.1250	31.6370
 1.1260	31.6010
 1.1270	31.5610
 1.1280	31.5180
 1.1290	31.4710
 1.1300	31.4190
 1.1310	31.3640
 1.1320	31.3070
 1.1330	31.2450
 1.1340	31.1820
 1.1350	31.1120
 1.1360	31.0380
 1.1370	30.9590
 1.1380	30.8740
 1.1390	30.7850
 1.1400	30.6940
 1.1410	30.6010
 1.1420	30.5080
 1.1430	30.4140
 1.1440	30.3190
 1.1450	30.2220
 1.1460	30.1280
 1.1470	30.0320
 1.1480	29.9400
 1.1490	29.8480
 1.1500	29.7620
 1.1510	29.6780
 1.1520	29.6000
 1.1530	29.5260
 1.1540	29.4580
 1.1550	29.3950
 1.1560	29.3370
 1.1570	29.2840
 1.1580	29.2360
 1.1590	29.1910
 1.1600	29.1510
 1.1610	29.1160
 1.1620	29.0860
 1.1630	29.0590
 1.1640	29.0350
 1.1650	29.0130
 1.1660	28.9940
 1.1670	28.9750
 1.1680	28.9580
 1.1690	28.9430
 1.1700	28.9280
 1.1710	28.9140
 1.1720	28.9030
 1.1730	28.8910
 1.1740	28.8800
 1.1750	28.8690
 1.1760	28.8570
 1.1770	28.8440
 1.1780	28.8300
 1.1790	28.8160
 1.1800	28.8020
 1.1810	28.7900
 1.1820	28.7780
 1.1830	28.7630
 1.1840	28.7490
 1.1850	28.7330
 1.1860	28.7180
 1.1870	28.7030
 1.1880	28.6890
 1.1890	28.6760
 1.1900	28.6650
 1.1910	28.6550
 1.1920	28.6460
 1.1930	28.6390
 1.1940	28.6310
 1.1950	28.6230
 1.1960	28.6180
 1.1970	28.6110
 1.1980	28.6050
 1.1990	28.6010
 1.2000	28.5970
 1.2010	28.5960
 1.2020	28.5970
 1.2030	28.5990
 1.2040	28.6030
 1.2050	28.6090
 1.2060	28.6150
 1.2070	28.6230
 1.2080	28.6330
 1.2090	28.6430
 1.2100	28.6560
 1.2110	28.6690
 1.2120	28.6840
 1.2130	28.7000
 1.2140	28.7170
 1.2150	28.7350
 1.2160	28.7560
 1.2170	28.7770
 1.2180	28.7990
 1.2190	28.8230
 1.2200	28.8470
 1.2210	28.8710
 1.2220	28.8980
 1.2230	28.9250
 1.2240	28.9490
 1.2250	28.9730
 1.2260	28.9960
 1.2270	29.0170
 1.2280	29.0400
 1.2290	29.0620
 1.2300	29.0820
 1.2310	29.1030
 1.2320	29.1230
 1.2330	29.1410
 1.2340	29.1590
 1.2350	29.1750
 1.2360	29.1910
 1.2370	29.2050
 1.2380	29.2170
 1.2390	29.2310
 1.2400	29.2460
 1.2410	29.2610
 1.2420	29.2770
 1.2430	29.2920
 1.2440	29.3050
 1.2450	29.3150
 1.2460	29.3260
 1.2470	29.3370
 1.2480	29.3470
 1.2490	29.3570
 1.2500	29.3670
 1.2510	29.3740
 1.2520	29.3820
 1.2530	29.3900
 1.2540	29.3970
 1.2550	29.4040
 1.2560	29.4100
 1.2570	29.4160
 1.2580	29.4220
 1.2590	29.4260
 1.2600	29.4300
 1.2610	29.4330
 1.2620	29.4350
 1.2630	29.4350
 1.2640	29.4360
 1.2650	29.4370
 1.2660	29.4360
 1.2670	29.4330
 1.2680	29.4300
 1.2690	29.4250
 1.2700	29.4210
 1.2710	29.4180
 1.2720	29.4130
 1.2730	29.4080
 1.2740	29.4010
 1.2750	29.3930
 1.2760	29.3840
 1.2770	29.3760
 1.2780	29.3660
 1.2790	29.3540
 1.2800	29.3410
 1.2810	29.3290
 1.2820	29.3140
 1.2830	29.2980
 1.2840	29.2810
 1.2850	29.2640
 1.2860	29.2460
 1.2870	29.2270
 1.2880	29.2090
 1.2890	29.1890
 1.2900	29.1660
 1.2910	29.1420
 1.2920	29.1170
 1.2930	29.0890
 1.2940	29.0600
 1.2950	29.0320
 1.2960	29.0020
 1.2970	28.9710
 1.2980	28.9400
 1.2990	28.9060
 1.3000	28.8710
 1.3010	28.8340
 1.3020	28.7940
 1.3030	28.7530
 1.3040	28.7120
 1.3050	28.6690
 1.3060	28.6250
 1.3070	28.5780
 1.3080	28.5290
 1.3090	28.4800
 1.3100	28.4270
 1.3110	28.3740
 1.3120	28.3170
 1.3130	28.2570
 1.3140	28.1950
 1.3150	28.1310
 1.3160	28.0640
 1.3170	27.9950
 1.3180	27.9240
 1.3190	27.8510
 1.3200	27.7760
 1.3210	27.6980
 1.3220	27.6190
 1.3230	27.5370
 1.3240	27.4540
 1.3250	27.3710
 1.3260	27.2850
 1.3270	27.1970
 1.3280	27.1080
 1.3290	27.0160
 1.3300	26.9220
 1.3310	26.8270
 1.3320	26.7310
 1.3330	26.6340
 1.3340	26.5350
 1.3350	26.4370
 1.3360	26.3370
 1.3370	26.2350
 1.3380	26.1340
 1.3390	26.0330
 1.3400	25.9310
 1.3410	25.8320
 1.3420	25.7340
 1.3430	25.6360
 1.3440	25.5380
 1.3450	25.4420
 1.3460	25.3460
 1.3470	25.2520
 1.3480	25.1590
 1.3490	25.0670
 1.3500	24.9770
 1.3510	24.8860
 1.3520	24.7970
 1.3530	24.7070
 1.3540	24.6170
 1.3550	24.5280
 1.3560	24.4370
 1.3570	24.3470
 1.3580	24.2560
 1.3590	24.1640
 1.3600	24.0710
 1.3610	23.9760
 1.3620	23.8780
 1.3630	23.7770
 1.3640	23.6720
 1.3650	23.5640
 1.3660	23.4510
 1.3670	23.3310
 1.3680	23.2050
 1.3690	23.0710
 1.3700	22.9260
 1.3710	22.7730
 1.3720	22.6110
 1.3730	22.4350
 1.3740	22.2510
 1.3750	22.0550
 1.3760	21.8420
 1.3770	21.6170
 1.3780	21.3730
 1.3790	21.1140
 1.3800	20.8420
 1.3810	20.5530
 1.3820	20.2520
 1.3830	19.9380
 1.3840	19.6100
 1.3850	19.2670
 1.3860	18.9150
 1.3870	18.5470
 1.3880	18.1760
 1.3890	17.7980
 1.3900	17.4120
 1.3910	17.0270
 1.3920	16.6380
 1.3930	16.2470
 1.3940	15.8590
 1.3950	15.4700
 1.3960	15.0870
 1.3970	14.7110
 1.3980	14.3420
 1.3990	13.9890
 1.4000	13.6440
 1.4010	13.3100
 1.4020	12.9910
 1.4030	12.6800
 1.4040	12.3840
 1.4050	12.1020
 1.4060	11.8330
 1.4070	11.5820
 1.4080	11.3440
 1.4090	11.1200
 1.4100	10.9090
 1.4110	10.7110
 1.4120	10.5260
 1.4130	10.3540
 1.4140	10.1940
 1.4150	10.0470
 1.4160	 9.9090
 1.4170	 9.7820
 1.4180	 9.6660
 1.4190	 9.5580
 1.4200	 9.4580
 1.4210	 9.3660
 1.4220	 9.2800
 1.4230	 9.2020
 1.4240	 9.1300
 1.4250	 9.0630
 1.4260	 9.0030
 1.4270	 8.9470
 1.4280	 8.8960
 1.4290	 8.8500
 1.4300	 8.8090
 1.4310	 8.7700
 1.4320	 8.7370
 1.4330	 8.7050
 1.4340	 8.6750
 1.4350	 8.6490
 1.4360	 8.6270
 1.4370	 8.6080
 1.4380	 8.5910
 1.4390	 8.5770
 1.4400	 8.5640
 1.4410	 8.5540
 1.4420	 8.5460
 1.4430	 8.5390
 1.4440	 8.5340
 1.4450	 8.5310
 1.4460	 8.5270
 1.4470	 8.5260
 1.4480	 8.5270
 1.4490	 8.5290
 1.4500	 8.5320
 1.4510	 8.5370
 1.4520	 8.5430
 1.4530	 8.5500
 1.4540	 8.5580
 1.4550	 8.5670
 1.4560	 8.5770
 1.4570	 8.5890
 1.4580	 8.6030
 1.4590	 8.6190
 1.4600	 8.6380
 1.4610	 8.6590
 1.4620	 8.6830
 1.4630	 8.7110
 1.4640	 8.7400
 1.4650	 8.7720
 1.4660	 8.8060
 1.4670	 8.8440
 1.4680	 8.8850
 1.4690	 8.9300
 1.4700	 8.9770
 1.4710	 9.0260
 1.4720	 9.0770
 1.4730	 9.1310
 1.4740	 9.1870
 1.4750	 9.2450
 1.4760	 9.3060
 1.4770	 9.3690
