Name: Salix babylonica
Type: vegetation
Class: Tree
Genus: Salix
Species: babylonica
Sample No.: JPL184
Owner: JPL
Wavelength Range: VSWIR
Origin: 34.12804; -118.11607; WGS84
Collection Date: 10/3/2016
Description: Samples were collected at the Huntington Garden in San Marino California as part of a JPL Subcontract studying HyTES imagery. Samples were taken to JPL and processed within 48 hours of collection. The same leaves were processed in the Nicolet and then measured using the ASD.
Measurement: Bidirectional reflectance
First Column: X
Second Column: Y
X Units: Wavelength (micrometer)
Y Units: Reflectance (percentage)
First X Value: 0.35
Last X Value: 2.5
Number of X Values: 2151
Additional Information: vegetation.tree.salix.babylonica.vswir.jpl184.jpl.asd.ancillary.txt

 0.3500	 6.0510
 0.3510	 6.1810
 0.3520	 6.1730
 0.3530	 6.0930
 0.3540	 6.0790
 0.3550	 6.1690
 0.3560	 6.2340
 0.3570	 6.1910
 0.3580	 6.0250
 0.3590	 6.0750
 0.3600	 6.0850
 0.3610	 6.0030
 0.3620	 6.1540
 0.3630	 6.1650
 0.3640	 6.0750
 0.3650	 6.0190
 0.3660	 6.0440
 0.3670	 6.1010
 0.3680	 6.1250
 0.3690	 6.0590
 0.3700	 6.0020
 0.3710	 5.9830
 0.3720	 6.0100
 0.3730	 6.0840
 0.3740	 6.0810
 0.3750	 6.0360
 0.3760	 6.0190
 0.3770	 5.9930
 0.3780	 6.0020
 0.3790	 6.0260
 0.3800	 6.0060
 0.3810	 5.9910
 0.3820	 5.9860
 0.3830	 5.9890
 0.3840	 6.0000
 0.3850	 5.9730
 0.3860	 5.9610
 0.3870	 6.0220
 0.3880	 5.9980
 0.3890	 5.9930
 0.3900	 6.0370
 0.3910	 6.0720
 0.3920	 6.0600
 0.3930	 6.0210
 0.3940	 5.9880
 0.3950	 5.9710
 0.3960	 5.9930
 0.3970	 6.0240
 0.3980	 6.0190
 0.3990	 6.0220
 0.4000	 6.0130
 0.4010	 5.9990
 0.4020	 6.0330
 0.4030	 6.0410
 0.4040	 6.0400
 0.4050	 6.0590
 0.4060	 6.0800
 0.4070	 6.0710
 0.4080	 6.0600
 0.4090	 6.1050
 0.4100	 6.1450
 0.4110	 6.1450
 0.4120	 6.1170
 0.4130	 6.1330
 0.4140	 6.1570
 0.4150	 6.1740
 0.4160	 6.1770
 0.4170	 6.1710
 0.4180	 6.1720
 0.4190	 6.1830
 0.4200	 6.1890
 0.4210	 6.1920
 0.4220	 6.1990
 0.4230	 6.2120
 0.4240	 6.2180
 0.4250	 6.2220
 0.4260	 6.2240
 0.4270	 6.2230
 0.4280	 6.2220
 0.4290	 6.2210
 0.4300	 6.2180
 0.4310	 6.2090
 0.4320	 6.2030
 0.4330	 6.1960
 0.4340	 6.1870
 0.4350	 6.1810
 0.4360	 6.1820
 0.4370	 6.1900
 0.4380	 6.1990
 0.4390	 6.2100
 0.4400	 6.2270
 0.4410	 6.2470
 0.4420	 6.2610
 0.4430	 6.2660
 0.4440	 6.2680
 0.4450	 6.2750
 0.4460	 6.2880
 0.4470	 6.2940
 0.4480	 6.2940
 0.4490	 6.3070
 0.4500	 6.3090
 0.4510	 6.3100
 0.4520	 6.3180
 0.4530	 6.3280
 0.4540	 6.3310
 0.4550	 6.3340
 0.4560	 6.3460
 0.4570	 6.3440
 0.4580	 6.3430
 0.4590	 6.3520
 0.4600	 6.3520
 0.4610	 6.3510
 0.4620	 6.3520
 0.4630	 6.3540
 0.4640	 6.3470
 0.4650	 6.3480
 0.4660	 6.3580
 0.4670	 6.3600
 0.4680	 6.3620
 0.4690	 6.3600
 0.4700	 6.3520
 0.4710	 6.3420
 0.4720	 6.3480
 0.4730	 6.3620
 0.4740	 6.3590
 0.4750	 6.3580
 0.4760	 6.3580
 0.4770	 6.3580
 0.4780	 6.3570
 0.4790	 6.3620
 0.4800	 6.3650
 0.4810	 6.3570
 0.4820	 6.3590
 0.4830	 6.3650
 0.4840	 6.3660
 0.4850	 6.3540
 0.4860	 6.3550
 0.4870	 6.3600
 0.4880	 6.3620
 0.4890	 6.3660
 0.4900	 6.3770
 0.4910	 6.3920
 0.4920	 6.4060
 0.4930	 6.4220
 0.4940	 6.4400
 0.4950	 6.4580
 0.4960	 6.4680
 0.4970	 6.4840
 0.4980	 6.5090
 0.4990	 6.5400
 0.5000	 6.5710
 0.5010	 6.6020
 0.5020	 6.6330
 0.5030	 6.6680
 0.5040	 6.7200
 0.5050	 6.7780
 0.5060	 6.8310
 0.5070	 6.8900
 0.5080	 6.9600
 0.5090	 7.0430
 0.5100	 7.1330
 0.5110	 7.2340
 0.5120	 7.3430
 0.5130	 7.4620
 0.5140	 7.5950
 0.5150	 7.7430
 0.5160	 7.9040
 0.5170	 8.0760
 0.5180	 8.2580
 0.5190	 8.4530
 0.5200	 8.6570
 0.5210	 8.8630
 0.5220	 9.0780
 0.5230	 9.2940
 0.5240	 9.5060
 0.5250	 9.7180
 0.5260	 9.9210
 0.5270	10.1120
 0.5280	10.2930
 0.5290	10.4620
 0.5300	10.6210
 0.5310	10.7680
 0.5320	10.8960
 0.5330	11.0110
 0.5340	11.1130
 0.5350	11.2000
 0.5360	11.2710
 0.5370	11.3310
 0.5380	11.3820
 0.5390	11.4180
 0.5400	11.4430
 0.5410	11.4580
 0.5420	11.4670
 0.5430	11.4780
 0.5440	11.4980
 0.5450	11.5270
 0.5460	11.5630
 0.5470	11.5990
 0.5480	11.6320
 0.5490	11.6600
 0.5500	11.6780
 0.5510	11.6870
 0.5520	11.6890
 0.5530	11.6820
 0.5540	11.6620
 0.5550	11.6290
 0.5560	11.5830
 0.5570	11.5220
 0.5580	11.4480
 0.5590	11.3610
 0.5600	11.2630
 0.5610	11.1520
 0.5620	11.0310
 0.5630	10.9040
 0.5640	10.7720
 0.5650	10.6350
 0.5660	10.5000
 0.5670	10.3650
 0.5680	10.2240
 0.5690	10.0850
 0.5700	 9.9480
 0.5710	 9.8130
 0.5720	 9.6850
 0.5730	 9.5630
 0.5740	 9.4450
 0.5750	 9.3340
 0.5760	 9.2280
 0.5770	 9.1290
 0.5780	 9.0380
 0.5790	 8.9570
 0.5800	 8.8800
 0.5810	 8.8050
 0.5820	 8.7350
 0.5830	 8.6740
 0.5840	 8.6180
 0.5850	 8.5660
 0.5860	 8.5230
 0.5870	 8.4770
 0.5880	 8.4320
 0.5890	 8.3940
 0.5900	 8.3530
 0.5910	 8.3120
 0.5920	 8.2730
 0.5930	 8.2390
 0.5940	 8.2130
 0.5950	 8.1980
 0.5960	 8.1890
 0.5970	 8.1760
 0.5980	 8.1610
 0.5990	 8.1440
 0.6000	 8.1290
 0.6010	 8.1110
 0.6020	 8.0860
 0.6030	 8.0540
 0.6040	 8.0220
 0.6050	 7.9820
 0.6060	 7.9360
 0.6070	 7.8880
 0.6080	 7.8360
 0.6090	 7.7710
 0.6100	 7.6930
 0.6110	 7.6100
 0.6120	 7.5580
 0.6130	 7.5270
 0.6140	 7.5020
 0.6150	 7.4640
 0.6160	 7.4260
 0.6170	 7.3890
 0.6180	 7.3530
 0.6190	 7.3180
 0.6200	 7.2850
 0.6210	 7.2580
 0.6220	 7.2360
 0.6230	 7.2140
 0.6240	 7.1960
 0.6250	 7.1840
 0.6260	 7.1740
 0.6270	 7.1650
 0.6280	 7.1550
 0.6290	 7.1450
 0.6300	 7.1340
 0.6310	 7.1260
 0.6320	 7.1190
 0.6330	 7.1120
 0.6340	 7.0990
 0.6350	 7.0810
 0.6360	 7.0550
 0.6370	 7.0230
 0.6380	 6.9890
 0.6390	 6.9520
 0.6400	 6.9120
 0.6410	 6.8720
 0.6420	 6.8330
 0.6430	 6.7950
 0.6440	 6.7570
 0.6450	 6.7220
 0.6460	 6.6910
 0.6470	 6.6600
 0.6480	 6.6350
 0.6490	 6.6160
 0.6500	 6.6000
 0.6510	 6.5860
 0.6520	 6.5740
 0.6530	 6.5670
 0.6540	 6.5640
 0.6550	 6.5580
 0.6560	 6.5500
 0.6570	 6.5400
 0.6580	 6.5270
 0.6590	 6.5140
 0.6600	 6.5020
 0.6610	 6.4920
 0.6620	 6.4840
 0.6630	 6.4760
 0.6640	 6.4710
 0.6650	 6.4720
 0.6660	 6.4750
 0.6670	 6.4820
 0.6680	 6.4930
 0.6690	 6.5060
 0.6700	 6.5230
 0.6710	 6.5450
 0.6720	 6.5720
 0.6730	 6.6020
 0.6740	 6.6350
 0.6750	 6.6710
 0.6760	 6.7100
 0.6770	 6.7520
 0.6780	 6.7980
 0.6790	 6.8490
 0.6800	 6.9000
 0.6810	 6.9570
 0.6820	 7.0150
 0.6830	 7.0700
 0.6840	 7.1260
 0.6850	 7.1810
 0.6860	 7.2390
 0.6870	 7.3060
 0.6880	 7.3780
 0.6890	 7.4650
 0.6900	 7.5770
 0.6910	 7.7210
 0.6920	 7.9090
 0.6930	 8.1480
 0.6940	 8.4440
 0.6950	 8.8020
 0.6960	 9.2220
 0.6970	 9.7040
 0.6980	10.2480
 0.6990	10.8500
 0.7000	11.5010
 0.7010	12.1970
 0.7020	12.9330
 0.7030	13.6990
 0.7040	14.4920
 0.7050	15.3080
 0.7060	16.1370
 0.7070	16.9820
 0.7080	17.8410
 0.7090	18.7120
 0.7100	19.5950
 0.7110	20.4870
 0.7120	21.3880
 0.7130	22.2930
 0.7140	23.2030
 0.7150	24.1180
 0.7160	25.0310
 0.7170	25.9430
 0.7180	26.8470
 0.7190	27.7440
 0.7200	28.6320
 0.7210	29.5060
 0.7220	30.3620
 0.7230	31.1970
 0.7240	32.0110
 0.7250	32.8020
 0.7260	33.5660
 0.7270	34.3020
 0.7280	35.0070
 0.7290	35.6790
 0.7300	36.3200
 0.7310	36.9310
 0.7320	37.5090
 0.7330	38.0560
 0.7340	38.5710
 0.7350	39.0540
 0.7360	39.5070
 0.7370	39.9300
 0.7380	40.3250
 0.7390	40.6900
 0.7400	41.0300
 0.7410	41.3450
 0.7420	41.6320
 0.7430	41.8960
 0.7440	42.1360
 0.7450	42.3520
 0.7460	42.5470
 0.7470	42.7220
 0.7480	42.8780
 0.7490	43.0180
 0.7500	43.1430
 0.7510	43.2550
 0.7520	43.3560
 0.7530	43.4430
 0.7540	43.5210
 0.7550	43.5900
 0.7560	43.6510
 0.7570	43.7050
 0.7580	43.7530
 0.7590	43.7950
 0.7600	43.8310
 0.7610	43.8630
 0.7620	43.8910
 0.7630	43.9130
 0.7640	43.9300
 0.7650	43.9440
 0.7660	43.9560
 0.7670	43.9660
 0.7680	43.9740
 0.7690	43.9780
 0.7700	43.9810
 0.7710	43.9830
 0.7720	43.9830
 0.7730	43.9840
 0.7740	43.9850
 0.7750	43.9850
 0.7760	43.9850
 0.7770	43.9840
 0.7780	43.9830
 0.7790	43.9840
 0.7800	43.9840
 0.7810	43.9830
 0.7820	43.9820
 0.7830	43.9820
 0.7840	43.9810
 0.7850	43.9800
 0.7860	43.9770
 0.7870	43.9720
 0.7880	43.9680
 0.7890	43.9640
 0.7900	43.9590
 0.7910	43.9530
 0.7920	43.9480
 0.7930	43.9420
 0.7940	43.9360
 0.7950	43.9310
 0.7960	43.9220
 0.7970	43.9090
 0.7980	43.9000
 0.7990	43.8890
 0.8000	43.8770
 0.8010	43.8630
 0.8020	43.8520
 0.8030	43.8390
 0.8040	43.8260
 0.8050	43.8140
 0.8060	43.8020
 0.8070	43.7870
 0.8080	43.7690
 0.8090	43.7520
 0.8100	43.7360
 0.8110	43.7200
 0.8120	43.7010
 0.8130	43.6830
 0.8140	43.6620
 0.8150	43.6430
 0.8160	43.6270
 0.8170	43.6110
 0.8180	43.5920
 0.8190	43.5720
 0.8200	43.5530
 0.8210	43.5340
 0.8220	43.5150
 0.8230	43.4960
 0.8240	43.4760
 0.8250	43.4580
 0.8260	43.4400
 0.8270	43.4200
 0.8280	43.4020
 0.8290	43.3820
 0.8300	43.3630
 0.8310	43.3470
 0.8320	43.3250
 0.8330	43.3070
 0.8340	43.2920
 0.8350	43.2750
 0.8360	43.2600
 0.8370	43.2470
 0.8380	43.2370
 0.8390	43.2230
 0.8400	43.2060
 0.8410	43.1920
 0.8420	43.1840
 0.8430	43.1710
 0.8440	43.1620
 0.8450	43.1560
 0.8460	43.1510
 0.8470	43.1410
 0.8480	43.1340
 0.8490	43.1310
 0.8500	43.1270
 0.8510	43.1200
 0.8520	43.1150
 0.8530	43.1120
 0.8540	43.1070
 0.8550	43.1000
 0.8560	43.0970
 0.8570	43.0980
 0.8580	43.0950
 0.8590	43.0980
 0.8600	43.1010
 0.8610	43.1030
 0.8620	43.1060
 0.8630	43.1080
 0.8640	43.1100
 0.8650	43.1120
 0.8660	43.1150
 0.8670	43.1200
 0.8680	43.1260
 0.8690	43.1320
 0.8700	43.1340
 0.8710	43.1390
 0.8720	43.1450
 0.8730	43.1480
 0.8740	43.1550
 0.8750	43.1640
 0.8760	43.1740
 0.8770	43.1830
 0.8780	43.1940
 0.8790	43.2040
 0.8800	43.2120
 0.8810	43.2150
 0.8820	43.2230
 0.8830	43.2340
 0.8840	43.2420
 0.8850	43.2490
 0.8860	43.2550
 0.8870	43.2610
 0.8880	43.2680
 0.8890	43.2760
 0.8900	43.2880
 0.8910	43.2990
 0.8920	43.3040
 0.8930	43.3180
 0.8940	43.3310
 0.8950	43.3410
 0.8960	43.3470
 0.8970	43.3560
 0.8980	43.3610
 0.8990	43.3620
 0.9000	43.3690
 0.9010	43.3830
 0.9020	43.3920
 0.9030	43.3930
 0.9040	43.4000
 0.9050	43.4050
 0.9060	43.4140
 0.9070	43.4240
 0.9080	43.4240
 0.9090	43.4210
 0.9100	43.4260
 0.9110	43.4400
 0.9120	43.4450
 0.9130	43.4430
 0.9140	43.4410
 0.9150	43.4430
 0.9160	43.4450
 0.9170	43.4440
 0.9180	43.4430
 0.9190	43.4470
 0.9200	43.4440
 0.9210	43.4380
 0.9220	43.4310
 0.9230	43.4230
 0.9240	43.4220
 0.9250	43.4130
 0.9260	43.3980
 0.9270	43.3910
 0.9280	43.3890
 0.9290	43.3750
 0.9300	43.3510
 0.9310	43.3360
 0.9320	43.3160
 0.9330	43.3010
 0.9340	43.2920
 0.9350	43.2700
 0.9360	43.2500
 0.9370	43.2330
 0.9380	43.2170
 0.9390	43.1950
 0.9400	43.1710
 0.9410	43.1480
 0.9420	43.1260
 0.9430	43.0960
 0.9440	43.0710
 0.9450	43.0460
 0.9460	43.0140
 0.9470	42.9750
 0.9480	42.9450
 0.9490	42.9140
 0.9500	42.8730
 0.9510	42.8310
 0.9520	42.7930
 0.9530	42.7520
 0.9540	42.7050
 0.9550	42.6700
 0.9560	42.6290
 0.9570	42.5830
 0.9580	42.5420
 0.9590	42.5030
 0.9600	42.4750
 0.9610	42.4490
 0.9620	42.4170
 0.9630	42.3990
 0.9640	42.3770
 0.9650	42.3480
 0.9660	42.3200
 0.9670	42.3100
 0.9680	42.2970
 0.9690	42.2820
 0.9700	42.2700
 0.9710	42.2520
 0.9720	42.2430
 0.9730	42.2420
 0.9740	42.2400
 0.9750	42.2260
 0.9760	42.2170
 0.9770	42.2140
 0.9780	42.2060
 0.9790	42.1970
 0.9800	42.1920
 0.9810	42.1940
 0.9820	42.2010
 0.9830	42.1830
 0.9840	42.1810
 0.9850	42.1910
 0.9860	42.1890
 0.9870	42.1840
 0.9880	42.1960
 0.9890	42.2070
 0.9900	42.1950
 0.9910	42.2030
 0.9920	42.2040
 0.9930	42.2010
 0.9940	42.2090
 0.9950	42.2300
 0.9960	42.2370
 0.9970	42.2290
 0.9980	42.2210
 0.9990	42.2290
 1.0000	42.2670
 1.0010	43.1340
 1.0020	43.1380
 1.0030	43.1460
 1.0040	43.1510
 1.0050	43.1550
 1.0060	43.1590
 1.0070	43.1600
 1.0080	43.1650
 1.0090	43.1710
 1.0100	43.1790
 1.0110	43.1920
 1.0120	43.2000
 1.0130	43.2070
 1.0140	43.2140
 1.0150	43.2190
 1.0160	43.2230
 1.0170	43.2320
 1.0180	43.2390
 1.0190	43.2450
 1.0200	43.2520
 1.0210	43.2570
 1.0220	43.2640
 1.0230	43.2700
 1.0240	43.2750
 1.0250	43.2810
 1.0260	43.2850
 1.0270	43.2920
 1.0280	43.3010
 1.0290	43.3090
 1.0300	43.3180
 1.0310	43.3270
 1.0320	43.3360
 1.0330	43.3390
 1.0340	43.3440
 1.0350	43.3470
 1.0360	43.3500
 1.0370	43.3570
 1.0380	43.3630
 1.0390	43.3740
 1.0400	43.3790
 1.0410	43.3820
 1.0420	43.3860
 1.0430	43.3850
 1.0440	43.3890
 1.0450	43.3970
 1.0460	43.4020
 1.0470	43.4080
 1.0480	43.4120
 1.0490	43.4090
 1.0500	43.4100
 1.0510	43.4110
 1.0520	43.4160
 1.0530	43.4180
 1.0540	43.4230
 1.0550	43.4240
 1.0560	43.4200
 1.0570	43.4200
 1.0580	43.4230
 1.0590	43.4230
 1.0600	43.4240
 1.0610	43.4230
 1.0620	43.4180
 1.0630	43.4140
 1.0640	43.4090
 1.0650	43.4060
 1.0660	43.4040
 1.0670	43.4010
 1.0680	43.3980
 1.0690	43.3960
 1.0700	43.3920
 1.0710	43.3880
 1.0720	43.3830
 1.0730	43.3780
 1.0740	43.3740
 1.0750	43.3710
 1.0760	43.3670
 1.0770	43.3630
 1.0780	43.3590
 1.0790	43.3570
 1.0800	43.3530
 1.0810	43.3510
 1.0820	43.3470
 1.0830	43.3410
 1.0840	43.3350
 1.0850	43.3280
 1.0860	43.3200
 1.0870	43.3150
 1.0880	43.3110
 1.0890	43.3050
 1.0900	43.3000
 1.0910	43.2940
 1.0920	43.2850
 1.0930	43.2790
 1.0940	43.2760
 1.0950	43.2720
 1.0960	43.2690
 1.0970	43.2640
 1.0980	43.2570
 1.0990	43.2510
 1.1000	43.2440
 1.1010	43.2370
 1.1020	43.2290
 1.1030	43.2230
 1.1040	43.2160
 1.1050	43.2070
 1.1060	43.2000
 1.1070	43.1940
 1.1080	43.1880
 1.1090	43.1850
 1.1100	43.1780
 1.1110	43.1700
 1.1120	43.1630
 1.1130	43.1550
 1.1140	43.1460
 1.1150	43.1420
 1.1160	43.1330
 1.1170	43.1200
 1.1180	43.1060
 1.1190	43.0900
 1.1200	43.0750
 1.1210	43.0590
 1.1220	43.0440
 1.1230	43.0250
 1.1240	43.0020
 1.1250	42.9780
 1.1260	42.9510
 1.1270	42.9190
 1.1280	42.8850
 1.1290	42.8470
 1.1300	42.8040
 1.1310	42.7580
 1.1320	42.7130
 1.1330	42.6600
 1.1340	42.6000
 1.1350	42.5360
 1.1360	42.4670
 1.1370	42.3950
 1.1380	42.3210
 1.1390	42.2450
 1.1400	42.1630
 1.1410	42.0790
 1.1420	41.9930
 1.1430	41.9050
 1.1440	41.8200
 1.1450	41.7350
 1.1460	41.6520
 1.1470	41.5700
 1.1480	41.4920
 1.1490	41.4160
 1.1500	41.3450
 1.1510	41.2760
 1.1520	41.2140
 1.1530	41.1560
 1.1540	41.1030
 1.1550	41.0540
 1.1560	41.0110
 1.1570	40.9700
 1.1580	40.9350
 1.1590	40.9050
 1.1600	40.8750
 1.1610	40.8500
 1.1620	40.8270
 1.1630	40.8070
 1.1640	40.7880
 1.1650	40.7730
 1.1660	40.7610
 1.1670	40.7480
 1.1680	40.7380
 1.1690	40.7280
 1.1700	40.7190
 1.1710	40.7110
 1.1720	40.7040
 1.1730	40.6960
 1.1740	40.6870
 1.1750	40.6780
 1.1760	40.6680
 1.1770	40.6590
 1.1780	40.6470
 1.1790	40.6350
 1.1800	40.6240
 1.1810	40.6120
 1.1820	40.6020
 1.1830	40.5940
 1.1840	40.5850
 1.1850	40.5740
 1.1860	40.5620
 1.1870	40.5500
 1.1880	40.5390
 1.1890	40.5290
 1.1900	40.5200
 1.1910	40.5120
 1.1920	40.5050
 1.1930	40.4970
 1.1940	40.4920
 1.1950	40.4880
 1.1960	40.4840
 1.1970	40.4810
 1.1980	40.4790
 1.1990	40.4780
 1.2000	40.4750
 1.2010	40.4730
 1.2020	40.4740
 1.2030	40.4750
 1.2040	40.4770
 1.2050	40.4800
 1.2060	40.4830
 1.2070	40.4870
 1.2080	40.4920
 1.2090	40.4980
 1.2100	40.5030
 1.2110	40.5090
 1.2120	40.5130
 1.2130	40.5180
 1.2140	40.5240
 1.2150	40.5310
 1.2160	40.5390
 1.2170	40.5470
 1.2180	40.5550
 1.2190	40.5630
 1.2200	40.5700
 1.2210	40.5770
 1.2220	40.5850
 1.2230	40.5950
 1.2240	40.6020
 1.2250	40.6100
 1.2260	40.6190
 1.2270	40.6250
 1.2280	40.6310
 1.2290	40.6380
 1.2300	40.6450
 1.2310	40.6520
 1.2320	40.6590
 1.2330	40.6640
 1.2340	40.6690
 1.2350	40.6730
 1.2360	40.6770
 1.2370	40.6810
 1.2380	40.6850
 1.2390	40.6920
 1.2400	40.6960
 1.2410	40.7000
 1.2420	40.7050
 1.2430	40.7040
 1.2440	40.7060
 1.2450	40.7090
 1.2460	40.7110
 1.2470	40.7120
 1.2480	40.7130
 1.2490	40.7140
 1.2500	40.7150
 1.2510	40.7170
 1.2520	40.7190
 1.2530	40.7200
 1.2540	40.7200
 1.2550	40.7200
 1.2560	40.7190
 1.2570	40.7170
 1.2580	40.7140
 1.2590	40.7100
 1.2600	40.7050
 1.2610	40.6990
 1.2620	40.6920
 1.2630	40.6850
 1.2640	40.6780
 1.2650	40.6720
 1.2660	40.6670
 1.2670	40.6600
 1.2680	40.6530
 1.2690	40.6440
 1.2700	40.6330
 1.2710	40.6210
 1.2720	40.6090
 1.2730	40.5980
 1.2740	40.5860
 1.2750	40.5770
 1.2760	40.5660
 1.2770	40.5520
 1.2780	40.5380
 1.2790	40.5190
 1.2800	40.4990
 1.2810	40.4790
 1.2820	40.4590
 1.2830	40.4390
 1.2840	40.4170
 1.2850	40.3950
 1.2860	40.3700
 1.2870	40.3430
 1.2880	40.3130
 1.2890	40.2840
 1.2900	40.2530
 1.2910	40.2210
 1.2920	40.1880
 1.2930	40.1530
 1.2940	40.1160
 1.2950	40.0780
 1.2960	40.0370
 1.2970	39.9930
 1.2980	39.9480
 1.2990	39.9040
 1.3000	39.8570
 1.3010	39.8100
 1.3020	39.7640
 1.3030	39.7160
 1.3040	39.6650
 1.3050	39.6140
 1.3060	39.5620
 1.3070	39.5060
 1.3080	39.4510
 1.3090	39.3970
 1.3100	39.3390
 1.3110	39.2800
 1.3120	39.2200
 1.3130	39.1570
 1.3140	39.0920
 1.3150	39.0260
 1.3160	38.9610
 1.3170	38.8950
 1.3180	38.8270
 1.3190	38.7580
 1.3200	38.6870
 1.3210	38.6130
 1.3220	38.5400
 1.3230	38.4660
 1.3240	38.3910
 1.3250	38.3160
 1.3260	38.2380
 1.3270	38.1580
 1.3280	38.0760
 1.3290	37.9900
 1.3300	37.9050
 1.3310	37.8210
 1.3320	37.7360
 1.3330	37.6510
 1.3340	37.5650
 1.3350	37.4760
 1.3360	37.3880
 1.3370	37.3000
 1.3380	37.2110
 1.3390	37.1240
 1.3400	37.0370
 1.3410	36.9510
 1.3420	36.8650
 1.3430	36.7800
 1.3440	36.6960
 1.3450	36.6120
 1.3460	36.5280
 1.3470	36.4450
 1.3480	36.3620
 1.3490	36.2800
 1.3500	36.1990
 1.3510	36.1180
 1.3520	36.0370
 1.3530	35.9560
 1.3540	35.8740
 1.3550	35.7920
 1.3560	35.7080
 1.3570	35.6230
 1.3580	35.5360
 1.3590	35.4450
 1.3600	35.3520
 1.3610	35.2570
 1.3620	35.1580
 1.3630	35.0560
 1.3640	34.9490
 1.3650	34.8360
 1.3660	34.7180
 1.3670	34.5920
 1.3680	34.4570
 1.3690	34.3110
 1.3700	34.1530
 1.3710	33.9850
 1.3720	33.8040
 1.3730	33.6090
 1.3740	33.4020
 1.3750	33.1790
 1.3760	32.9370
 1.3770	32.6760
 1.3780	32.3920
 1.3790	32.0880
 1.3800	31.7650
 1.3810	31.4200
 1.3820	31.0580
 1.3830	30.6790
 1.3840	30.2800
 1.3850	29.8610
 1.3860	29.4290
 1.3870	28.9770
 1.3880	28.5190
 1.3890	28.0490
 1.3900	27.5670
 1.3910	27.0820
 1.3920	26.5910
 1.3930	26.0940
 1.3940	25.5990
 1.3950	25.1010
 1.3960	24.6090
 1.3970	24.1260
 1.3980	23.6500
 1.3990	23.1920
 1.4000	22.7470
 1.4010	22.3140
 1.4020	21.9010
 1.4030	21.5000
 1.4040	21.1190
 1.4050	20.7580
 1.4060	20.4140
 1.4070	20.0940
 1.4080	19.7910
 1.4090	19.5050
 1.4100	19.2380
 1.4110	18.9870
 1.4120	18.7530
 1.4130	18.5360
 1.4140	18.3340
 1.4150	18.1490
 1.4160	17.9780
 1.4170	17.8200
 1.4180	17.6750
 1.4190	17.5400
 1.4200	17.4160
 1.4210	17.3010
 1.4220	17.1960
 1.4230	17.1000
 1.4240	17.0120
 1.4250	16.9310
 1.4260	16.8590
 1.4270	16.7920
 1.4280	16.7310
 1.4290	16.6760
 1.4300	16.6270
 1.4310	16.5820
 1.4320	16.5450
 1.4330	16.5110
 1.4340	16.4820
 1.4350	16.4560
 1.4360	16.4350
 1.4370	16.4160
 1.4380	16.4010
 1.4390	16.3910
 1.4400	16.3830
 1.4410	16.3780
 1.4420	16.3740
 1.4430	16.3730
 1.4440	16.3750
 1.4450	16.3790
 1.4460	16.3850
 1.4470	16.3920
 1.4480	16.4000
 1.4490	16.4090
 1.4500	16.4200
 1.4510	16.4330
 1.4520	16.4490
 1.4530	16.4650
 1.4540	16.4850
 1.4550	16.5070
 1.4560	16.5310
 1.4570	16.5580
 1.4580	16.5890
 1.4590	16.6220
 1.4600	16.6590
 1.4610	16.7010
 1.4620	16.7450
 1.4630	16.7950
 1.4640	16.8480
 1.4650	16.9060
 1.4660	16.9700
 1.4670	17.0380
 1.4680	17.1110
 1.4690	17.1890
 1.4700	17.2690
 1.4710	17.3550
 1.4720	17.4430
 1.4730	17.5350
 1.4740	17.6290
 1.4750	17.7270
 1.4760	17.8280
 1.4770	17.9310
 1.4780	18.0350
