Name: Eucalyptus maculata
Type: vegetation
Class: Tree
Genus: Eucalyptus
Species: maculata
Sample No.: JPL087
Owner: JPL
Wavelength Range: VSWIR
Origin: 34.12493; - 118.11447; WGS84
Collection Date: 2/2/2016
Description: Samples were collected at the Huntington Garden in San Marino California as part of a JPL Subcontract studying HyTES imagery. Samples were taken to JPL and processed within 48 hours of collection. The same leaves were processed in the Nicolet and then measured using the ASD.
Measurement: Bidirectional reflectance
First Column: X
Second Column: Y
X Units: Wavelength (micrometer)
Y Units: Reflectance (percentage)
First X Value: 0.35
Last X Value: 2.5
Number of X Values: 2151
Additional Information: 

 0.3500	 3.8970
 0.3510	 4.3580
 0.3520	 5.0430
 0.3530	 5.1530
 0.3540	 4.4210
 0.3550	 4.6720
 0.3560	 5.0350
 0.3570	 4.9600
 0.3580	 4.2780
 0.3590	 4.3800
 0.3600	 4.6400
 0.3610	 4.7380
 0.3620	 5.0500
 0.3630	 4.7910
 0.3640	 4.7460
 0.3650	 5.4970
 0.3660	 5.4790
 0.3670	 4.8430
 0.3680	 4.4900
 0.3690	 5.5300
 0.3700	 5.3480
 0.3710	 4.8820
 0.3720	 4.8330
 0.3730	 4.6340
 0.3740	 4.1700
 0.3750	 3.9990
 0.3760	 4.5580
 0.3770	 4.5980
 0.3780	 4.7750
 0.3790	 5.0410
 0.3800	 4.7740
 0.3810	 4.9890
 0.3820	 5.2400
 0.3830	 5.1300
 0.3840	 4.8480
 0.3850	 4.7990
 0.3860	 5.0370
 0.3870	 5.3410
 0.3880	 4.9720
 0.3890	 4.5070
 0.3900	 4.3150
 0.3910	 4.4360
 0.3920	 4.8720
 0.3930	 5.0840
 0.3940	 4.8460
 0.3950	 4.9670
 0.3960	 5.0090
 0.3970	 4.9850
 0.3980	 5.0810
 0.3990	 5.1590
 0.4000	 5.0360
 0.4010	 4.7550
 0.4020	 4.6410
 0.4030	 4.7960
 0.4040	 4.9010
 0.4050	 4.7490
 0.4060	 4.9020
 0.4070	 4.9750
 0.4080	 4.9620
 0.4090	 5.0910
 0.4100	 5.2560
 0.4110	 5.1450
 0.4120	 4.8150
 0.4130	 5.0200
 0.4140	 5.1580
 0.4150	 5.0780
 0.4160	 4.8860
 0.4170	 5.1830
 0.4180	 5.3720
 0.4190	 5.2960
 0.4200	 5.2420
 0.4210	 5.2540
 0.4220	 5.2130
 0.4230	 5.0860
 0.4240	 5.1510
 0.4250	 5.2150
 0.4260	 5.2590
 0.4270	 5.3250
 0.4280	 5.2870
 0.4290	 5.2350
 0.4300	 5.2230
 0.4310	 5.2290
 0.4320	 5.2200
 0.4330	 5.2340
 0.4340	 5.2900
 0.4350	 5.2700
 0.4360	 5.2610
 0.4370	 5.3010
 0.4380	 5.3790
 0.4390	 5.3510
 0.4400	 5.2590
 0.4410	 5.1820
 0.4420	 5.2160
 0.4430	 5.3160
 0.4440	 5.4010
 0.4450	 5.4030
 0.4460	 5.4250
 0.4470	 5.4050
 0.4480	 5.3560
 0.4490	 5.3930
 0.4500	 5.5150
 0.4510	 5.5990
 0.4520	 5.5500
 0.4530	 5.4570
 0.4540	 5.5080
 0.4550	 5.6020
 0.4560	 5.4840
 0.4570	 5.4140
 0.4580	 5.4590
 0.4590	 5.5640
 0.4600	 5.5080
 0.4610	 5.4500
 0.4620	 5.4610
 0.4630	 5.5440
 0.4640	 5.5230
 0.4650	 5.4760
 0.4660	 5.4710
 0.4670	 5.5450
 0.4680	 5.5650
 0.4690	 5.5040
 0.4700	 5.4100
 0.4710	 5.4910
 0.4720	 5.4530
 0.4730	 5.3760
 0.4740	 5.5020
 0.4750	 5.5610
 0.4760	 5.5940
 0.4770	 5.6050
 0.4780	 5.4840
 0.4790	 5.4340
 0.4800	 5.4970
 0.4810	 5.6130
 0.4820	 5.5500
 0.4830	 5.4940
 0.4840	 5.5140
 0.4850	 5.5530
 0.4860	 5.5280
 0.4870	 5.4880
 0.4880	 5.4840
 0.4890	 5.5100
 0.4900	 5.5520
 0.4910	 5.5950
 0.4920	 5.6210
 0.4930	 5.5600
 0.4940	 5.5270
 0.4950	 5.5700
 0.4960	 5.6100
 0.4970	 5.6220
 0.4980	 5.6440
 0.4990	 5.7070
 0.5000	 5.7280
 0.5010	 5.7000
 0.5020	 5.6790
 0.5030	 5.7610
 0.5040	 5.8620
 0.5050	 5.9320
 0.5060	 5.9510
 0.5070	 5.9550
 0.5080	 5.9690
 0.5090	 6.0170
 0.5100	 6.1100
 0.5110	 6.1760
 0.5120	 6.2510
 0.5130	 6.3460
 0.5140	 6.4330
 0.5150	 6.5610
 0.5160	 6.6690
 0.5170	 6.7190
 0.5180	 6.8770
 0.5190	 7.0450
 0.5200	 7.1740
 0.5210	 7.2630
 0.5220	 7.3860
 0.5230	 7.5330
 0.5240	 7.6760
 0.5250	 7.7910
 0.5260	 7.8930
 0.5270	 8.0260
 0.5280	 8.2250
 0.5290	 8.3570
 0.5300	 8.4380
 0.5310	 8.5010
 0.5320	 8.5770
 0.5330	 8.6660
 0.5340	 8.7410
 0.5350	 8.7920
 0.5360	 8.8670
 0.5370	 8.9380
 0.5380	 9.0010
 0.5390	 9.0650
 0.5400	 9.1110
 0.5410	 9.1530
 0.5420	 9.2020
 0.5430	 9.2440
 0.5440	 9.2880
 0.5450	 9.3230
 0.5460	 9.3370
 0.5470	 9.3280
 0.5480	 9.3040
 0.5490	 9.2870
 0.5500	 9.3150
 0.5510	 9.3370
 0.5520	 9.3340
 0.5530	 9.3090
 0.5540	 9.3150
 0.5550	 9.2950
 0.5560	 9.2480
 0.5570	 9.2170
 0.5580	 9.1640
 0.5590	 9.1190
 0.5600	 9.0860
 0.5610	 8.9960
 0.5620	 8.9050
 0.5630	 8.8370
 0.5640	 8.7910
 0.5650	 8.7170
 0.5660	 8.6250
 0.5670	 8.5290
 0.5680	 8.4440
 0.5690	 8.3420
 0.5700	 8.2400
 0.5710	 8.1560
 0.5720	 8.0730
 0.5730	 8.0020
 0.5740	 7.9270
 0.5750	 7.8200
 0.5760	 7.7560
 0.5770	 7.7190
 0.5780	 7.6800
 0.5790	 7.6180
 0.5800	 7.5570
 0.5810	 7.5090
 0.5820	 7.4750
 0.5830	 7.4370
 0.5840	 7.4090
 0.5850	 7.3880
 0.5860	 7.3460
 0.5870	 7.3110
 0.5880	 7.2740
 0.5890	 7.2330
 0.5900	 7.2190
 0.5910	 7.2080
 0.5920	 7.1870
 0.5930	 7.1560
 0.5940	 7.1480
 0.5950	 7.1440
 0.5960	 7.1300
 0.5970	 7.1080
 0.5980	 7.0740
 0.5990	 7.0490
 0.6000	 7.0500
 0.6010	 7.0500
 0.6020	 7.0330
 0.6030	 6.9960
 0.6040	 6.9500
 0.6050	 6.9330
 0.6060	 6.9200
 0.6070	 6.8890
 0.6080	 6.8520
 0.6090	 6.8380
 0.6100	 6.8450
 0.6110	 6.8460
 0.6120	 6.7970
 0.6130	 6.7430
 0.6140	 6.7020
 0.6150	 6.6370
 0.6160	 6.5900
 0.6170	 6.5670
 0.6180	 6.5610
 0.6190	 6.5460
 0.6200	 6.5230
 0.6210	 6.4960
 0.6220	 6.4700
 0.6230	 6.4550
 0.6240	 6.4430
 0.6250	 6.4300
 0.6260	 6.4270
 0.6270	 6.4220
 0.6280	 6.4110
 0.6290	 6.3990
 0.6300	 6.4040
 0.6310	 6.4070
 0.6320	 6.3920
 0.6330	 6.3500
 0.6340	 6.3650
 0.6350	 6.3890
 0.6360	 6.3670
 0.6370	 6.3210
 0.6380	 6.2930
 0.6390	 6.2790
 0.6400	 6.2540
 0.6410	 6.2300
 0.6420	 6.1980
 0.6430	 6.1550
 0.6440	 6.1090
 0.6450	 6.0750
 0.6460	 6.0550
 0.6470	 6.0430
 0.6480	 6.0040
 0.6490	 5.9950
 0.6500	 6.0090
 0.6510	 5.9820
 0.6520	 5.9510
 0.6530	 5.9350
 0.6540	 5.9370
 0.6550	 5.9360
 0.6560	 5.9260
 0.6570	 5.9130
 0.6580	 5.9010
 0.6590	 5.8530
 0.6600	 5.8360
 0.6610	 5.8530
 0.6620	 5.8400
 0.6630	 5.8080
 0.6640	 5.7800
 0.6650	 5.7740
 0.6660	 5.7760
 0.6670	 5.7700
 0.6680	 5.7660
 0.6690	 5.7780
 0.6700	 5.7650
 0.6710	 5.7660
 0.6720	 5.7940
 0.6730	 5.8150
 0.6740	 5.8440
 0.6750	 5.8690
 0.6760	 5.8800
 0.6770	 5.8970
 0.6780	 5.9090
 0.6790	 5.9280
 0.6800	 5.9800
 0.6810	 6.0360
 0.6820	 6.0820
 0.6830	 6.1130
 0.6840	 6.1360
 0.6850	 6.1780
 0.6860	 6.2500
 0.6870	 6.3440
 0.6880	 6.4140
 0.6890	 6.4860
 0.6900	 6.5860
 0.6910	 6.7350
 0.6920	 6.8870
 0.6930	 7.0760
 0.6940	 7.3270
 0.6950	 7.6200
 0.6960	 7.9560
 0.6970	 8.3420
 0.6980	 8.7830
 0.6990	 9.2540
 0.7000	 9.7780
 0.7010	10.3660
 0.7020	11.0150
 0.7030	11.6810
 0.7040	12.3670
 0.7050	13.0830
 0.7060	13.8380
 0.7070	14.6100
 0.7080	15.3950
 0.7090	16.1980
 0.7100	17.0260
 0.7110	17.8600
 0.7120	18.6940
 0.7130	19.5420
 0.7140	20.3950
 0.7150	21.2590
 0.7160	22.1320
 0.7170	22.9870
 0.7180	23.8550
 0.7190	24.7350
 0.7200	25.6100
 0.7210	26.4500
 0.7220	27.2790
 0.7230	28.1060
 0.7240	28.9200
 0.7250	29.6900
 0.7260	30.4410
 0.7270	31.1890
 0.7280	31.9130
 0.7290	32.5960
 0.7300	33.2390
 0.7310	33.8510
 0.7320	34.4470
 0.7330	35.0120
 0.7340	35.5380
 0.7350	36.0270
 0.7360	36.5110
 0.7370	36.9670
 0.7380	37.3810
 0.7390	37.7830
 0.7400	38.1470
 0.7410	38.4820
 0.7420	38.8090
 0.7430	39.1230
 0.7440	39.4010
 0.7450	39.6450
 0.7460	39.8820
 0.7470	40.0800
 0.7480	40.2660
 0.7490	40.4600
 0.7500	40.6400
 0.7510	40.7860
 0.7520	40.9050
 0.7530	41.0200
 0.7540	41.1580
 0.7550	41.2640
 0.7560	41.3420
 0.7570	41.4380
 0.7580	41.5180
 0.7590	41.5980
 0.7600	41.6780
 0.7610	41.7200
 0.7620	41.7490
 0.7630	41.7930
 0.7640	41.8560
 0.7650	41.8730
 0.7660	41.8950
 0.7670	41.9340
 0.7680	41.9720
 0.7690	41.9930
 0.7700	42.0080
 0.7710	42.0240
 0.7720	42.0430
 0.7730	42.0690
 0.7740	42.0890
 0.7750	42.0980
 0.7760	42.1150
 0.7770	42.1490
 0.7780	42.1660
 0.7790	42.1320
 0.7800	42.1470
 0.7810	42.1590
 0.7820	42.1550
 0.7830	42.1750
 0.7840	42.1790
 0.7850	42.1800
 0.7860	42.1900
 0.7870	42.1990
 0.7880	42.1890
 0.7890	42.1880
 0.7900	42.2170
 0.7910	42.2000
 0.7920	42.1850
 0.7930	42.1820
 0.7940	42.1690
 0.7950	42.1710
 0.7960	42.1830
 0.7970	42.1880
 0.7980	42.1570
 0.7990	42.1520
 0.8000	42.1610
 0.8010	42.1610
 0.8020	42.1360
 0.8030	42.1380
 0.8040	42.1500
 0.8050	42.1380
 0.8060	42.1410
 0.8070	42.1390
 0.8080	42.1260
 0.8090	42.1150
 0.8100	42.0920
 0.8110	42.0820
 0.8120	42.0890
 0.8130	42.0830
 0.8140	42.0670
 0.8150	42.0520
 0.8160	42.0440
 0.8170	42.0400
 0.8180	42.0350
 0.8190	42.0230
 0.8200	41.9990
 0.8210	41.9870
 0.8220	41.9890
 0.8230	41.9950
 0.8240	41.9860
 0.8250	41.9850
 0.8260	41.9690
 0.8270	41.9420
 0.8280	41.9670
 0.8290	41.9590
 0.8300	41.9430
 0.8310	41.9500
 0.8320	41.9460
 0.8330	41.9380
 0.8340	41.9330
 0.8350	41.9350
 0.8360	41.9310
 0.8370	41.9420
 0.8380	41.9620
 0.8390	41.9650
 0.8400	41.9410
 0.8410	41.9320
 0.8420	41.9550
 0.8430	41.9840
 0.8440	41.9830
 0.8450	41.9660
 0.8460	41.9590
 0.8470	41.9840
 0.8480	41.9950
 0.8490	41.9960
 0.8500	42.0030
 0.8510	42.0140
 0.8520	42.0310
 0.8530	42.0440
 0.8540	42.0370
 0.8550	42.0210
 0.8560	42.0450
 0.8570	42.0990
 0.8580	42.1150
 0.8590	42.1230
 0.8600	42.1300
 0.8610	42.1330
 0.8620	42.1240
 0.8630	42.1390
 0.8640	42.1600
 0.8650	42.1680
 0.8660	42.1720
 0.8670	42.1780
 0.8680	42.1910
 0.8690	42.2100
 0.8700	42.2120
 0.8710	42.2060
 0.8720	42.2180
 0.8730	42.2670
 0.8740	42.2990
 0.8750	42.2930
 0.8760	42.2780
 0.8770	42.3160
 0.8780	42.3210
 0.8790	42.3100
 0.8800	42.3120
 0.8810	42.3480
 0.8820	42.3700
 0.8830	42.3930
 0.8840	42.4250
 0.8850	42.4400
 0.8860	42.4230
 0.8870	42.4220
 0.8880	42.4640
 0.8890	42.4490
 0.8900	42.4560
 0.8910	42.4670
 0.8920	42.4490
 0.8930	42.4790
 0.8940	42.4870
 0.8950	42.4740
 0.8960	42.4770
 0.8970	42.4320
 0.8980	42.4440
 0.8990	42.5080
 0.9000	42.5170
 0.9010	42.4890
 0.9020	42.4940
 0.9030	42.5290
 0.9040	42.4960
 0.9050	42.5110
 0.9060	42.5360
 0.9070	42.5210
 0.9080	42.4590
 0.9090	42.4480
 0.9100	42.4800
 0.9110	42.5180
 0.9120	42.5340
 0.9130	42.5100
 0.9140	42.4930
 0.9150	42.5250
 0.9160	42.5700
 0.9170	42.5680
 0.9180	42.5410
 0.9190	42.5290
 0.9200	42.4750
 0.9210	42.4670
 0.9220	42.5000
 0.9230	42.5090
 0.9240	42.4700
 0.9250	42.4910
 0.9260	42.5340
 0.9270	42.4720
 0.9280	42.4310
 0.9290	42.3930
 0.9300	42.3560
 0.9310	42.3420
 0.9320	42.3400
 0.9330	42.3820
 0.9340	42.4120
 0.9350	42.2930
 0.9360	42.2750
 0.9370	42.2750
 0.9380	42.2370
 0.9390	42.2260
 0.9400	42.1740
 0.9410	42.1360
 0.9420	42.1250
 0.9430	42.0460
 0.9440	42.0600
 0.9450	42.0750
 0.9460	42.0190
 0.9470	41.9940
 0.9480	41.9320
 0.9490	41.8930
 0.9500	41.8990
 0.9510	41.7930
 0.9520	41.7110
 0.9530	41.6580
 0.9540	41.6070
 0.9550	41.5420
 0.9560	41.5130
 0.9570	41.4800
 0.9580	41.4060
 0.9590	41.3680
 0.9600	41.2970
 0.9610	41.2440
 0.9620	41.2590
 0.9630	41.2570
 0.9640	41.1990
 0.9650	41.1470
 0.9660	41.1690
 0.9670	41.1850
 0.9680	41.0840
 0.9690	40.9690
 0.9700	40.9830
 0.9710	40.9890
 0.9720	40.9590
 0.9730	40.9490
 0.9740	41.0110
 0.9750	40.9930
 0.9760	40.9040
 0.9770	40.8510
 0.9780	40.9300
 0.9790	40.9870
 0.9800	40.9610
 0.9810	40.8730
 0.9820	40.8060
 0.9830	40.8920
 0.9840	41.0000
 0.9850	41.0080
 0.9860	40.8840
 0.9870	40.9110
 0.9880	40.9910
 0.9890	41.0240
 0.9900	40.9570
 0.9910	40.8460
 0.9920	40.9200
 0.9930	41.0650
 0.9940	41.0470
 0.9950	40.9140
 0.9960	40.9190
 0.9970	41.0470
 0.9980	41.1410
 0.9990	41.1010
 1.0000	41.0410
 1.0010	41.5300
 1.0020	41.5320
 1.0030	41.5410
 1.0040	41.5700
 1.0050	41.6200
 1.0060	41.6500
 1.0070	41.7150
 1.0080	41.7350
 1.0090	41.7080
 1.0100	41.7180
 1.0110	41.7250
 1.0120	41.7410
 1.0130	41.7900
 1.0140	41.8360
 1.0150	41.8990
 1.0160	41.9150
 1.0170	41.9260
 1.0180	41.9050
 1.0190	41.8820
 1.0200	41.9090
 1.0210	41.9460
 1.0220	41.9840
 1.0230	42.0170
 1.0240	42.0330
 1.0250	42.0610
 1.0260	42.1110
 1.0270	42.1350
 1.0280	42.1460
 1.0290	42.1630
 1.0300	42.1690
 1.0310	42.1790
 1.0320	42.2110
 1.0330	42.2060
 1.0340	42.2020
 1.0350	42.2150
 1.0360	42.2490
 1.0370	42.2800
 1.0380	42.3000
 1.0390	42.3290
 1.0400	42.3360
 1.0410	42.3100
 1.0420	42.3210
 1.0430	42.3380
 1.0440	42.3560
 1.0450	42.4000
 1.0460	42.4240
 1.0470	42.4260
 1.0480	42.4480
 1.0490	42.4980
 1.0500	42.5100
 1.0510	42.5070
 1.0520	42.4950
 1.0530	42.5130
 1.0540	42.5240
 1.0550	42.5380
 1.0560	42.5890
 1.0570	42.6130
 1.0580	42.6080
 1.0590	42.6120
 1.0600	42.6290
 1.0610	42.6340
 1.0620	42.6160
 1.0630	42.6170
 1.0640	42.6180
 1.0650	42.6340
 1.0660	42.6860
 1.0670	42.7060
 1.0680	42.7180
 1.0690	42.7300
 1.0700	42.7350
 1.0710	42.7160
 1.0720	42.7130
 1.0730	42.7260
 1.0740	42.7220
 1.0750	42.7080
 1.0760	42.6980
 1.0770	42.6700
 1.0780	42.6710
 1.0790	42.6880
 1.0800	42.6980
 1.0810	42.7290
 1.0820	42.7420
 1.0830	42.7430
 1.0840	42.7410
 1.0850	42.7370
 1.0860	42.7280
 1.0870	42.7030
 1.0880	42.6530
 1.0890	42.6430
 1.0900	42.6330
 1.0910	42.6400
 1.0920	42.6880
 1.0930	42.7040
 1.0940	42.7200
 1.0950	42.7160
 1.0960	42.6900
 1.0970	42.6770
 1.0980	42.6490
 1.0990	42.6350
 1.1000	42.6440
 1.1010	42.6380
 1.1020	42.6280
 1.1030	42.6190
 1.1040	42.6050
 1.1050	42.5850
 1.1060	42.5700
 1.1070	42.5550
 1.1080	42.5460
 1.1090	42.5470
 1.1100	42.5340
 1.1110	42.5220
 1.1120	42.5010
 1.1130	42.4510
 1.1140	42.4280
 1.1150	42.4170
 1.1160	42.4040
 1.1170	42.4170
 1.1180	42.4050
 1.1190	42.3830
 1.1200	42.3470
 1.1210	42.2900
 1.1220	42.2320
 1.1230	42.1960
 1.1240	42.1510
 1.1250	42.1160
 1.1260	42.1090
 1.1270	42.0670
 1.1280	42.0170
 1.1290	41.9510
 1.1300	41.8650
 1.1310	41.7780
 1.1320	41.6670
 1.1330	41.5790
 1.1340	41.5060
 1.1350	41.4120
 1.1360	41.3220
 1.1370	41.2200
 1.1380	41.0880
 1.1390	40.9600
 1.1400	40.8330
 1.1410	40.7150
 1.1420	40.6080
 1.1430	40.4810
 1.1440	40.3520
 1.1450	40.2140
 1.1460	40.0840
 1.1470	39.9440
 1.1480	39.8250
 1.1490	39.7170
 1.1500	39.6100
 1.1510	39.5160
 1.1520	39.4110
 1.1530	39.2940
 1.1540	39.1970
 1.1550	39.0990
 1.1560	39.0170
 1.1570	38.9570
 1.1580	38.9030
 1.1590	38.8370
 1.1600	38.7750
 1.1610	38.7200
 1.1620	38.6600
 1.1630	38.6210
 1.1640	38.5770
 1.1650	38.5380
 1.1660	38.5040
 1.1670	38.4730
 1.1680	38.4480
 1.1690	38.4200
 1.1700	38.3910
 1.1710	38.3660
 1.1720	38.3480
 1.1730	38.3220
 1.1740	38.3010
 1.1750	38.2630
 1.1760	38.2250
 1.1770	38.1930
 1.1780	38.1620
 1.1790	38.1410
 1.1800	38.1080
 1.1810	38.0770
 1.1820	38.0520
 1.1830	38.0190
 1.1840	37.9970
 1.1850	37.9770
 1.1860	37.9470
 1.1870	37.9200
 1.1880	37.8960
 1.1890	37.8660
 1.1900	37.8500
 1.1910	37.8470
 1.1920	37.8370
 1.1930	37.8340
 1.1940	37.8340
 1.1950	37.8290
 1.1960	37.8310
 1.1970	37.8460
 1.1980	37.8470
 1.1990	37.8440
 1.2000	37.8550
 1.2010	37.8760
 1.2020	37.9000
 1.2030	37.9300
 1.2040	37.9610
 1.2050	37.9800
 1.2060	37.9910
 1.2070	38.0100
 1.2080	38.0280
 1.2090	38.0460
 1.2100	38.0700
 1.2110	38.1010
 1.2120	38.1390
 1.2130	38.1730
 1.2140	38.2160
 1.2150	38.2550
 1.2160	38.2870
 1.2170	38.3240
 1.2180	38.3640
 1.2190	38.3960
 1.2200	38.4330
 1.2210	38.4580
 1.2220	38.4750
 1.2230	38.5080
 1.2240	38.5440
 1.2250	38.5840
 1.2260	38.6390
 1.2270	38.6860
 1.2280	38.7210
 1.2290	38.7510
 1.2300	38.7780
 1.2310	38.8040
 1.2320	38.8330
 1.2330	38.8750
 1.2340	38.9080
 1.2350	38.9370
 1.2360	38.9690
 1.2370	39.0040
 1.2380	39.0260
 1.2390	39.0530
 1.2400	39.0890
 1.2410	39.1110
 1.2420	39.1260
 1.2430	39.1520
 1.2440	39.1790
 1.2450	39.1970
 1.2460	39.2310
 1.2470	39.2580
 1.2480	39.2660
 1.2490	39.2800
 1.2500	39.2890
 1.2510	39.3010
 1.2520	39.3180
 1.2530	39.3380
 1.2540	39.3640
 1.2550	39.3810
 1.2560	39.3920
 1.2570	39.4010
 1.2580	39.4140
 1.2590	39.4210
 1.2600	39.4180
 1.2610	39.4270
 1.2620	39.4420
 1.2630	39.4450
 1.2640	39.4500
 1.2650	39.4590
 1.2660	39.4590
 1.2670	39.4540
 1.2680	39.4390
 1.2690	39.4370
 1.2700	39.4340
 1.2710	39.4250
 1.2720	39.4330
 1.2730	39.4430
 1.2740	39.4430
 1.2750	39.4460
 1.2760	39.4560
 1.2770	39.4520
 1.2780	39.4380
 1.2790	39.4290
 1.2800	39.4210
 1.2810	39.4170
 1.2820	39.4090
 1.2830	39.3980
 1.2840	39.3830
 1.2850	39.3570
 1.2860	39.3330
 1.2870	39.3090
 1.2880	39.2850
 1.2890	39.2560
 1.2900	39.2330
 1.2910	39.2220
 1.2920	39.2070
 1.2930	39.1840
 1.2940	39.1510
 1.2950	39.0980
 1.2960	39.0560
 1.2970	39.0200
 1.2980	38.9860
 1.2990	38.9550
 1.3000	38.9100
 1.3010	38.8540
 1.3020	38.7870
 1.3030	38.7130
 1.3040	38.6580
 1.3050	38.6090
 1.3060	38.5670
 1.3070	38.5290
 1.3080	38.4690
 1.3090	38.3990
 1.3100	38.3260
 1.3110	38.2560
 1.3120	38.1970
 1.3130	38.1230
 1.3140	38.0430
 1.3150	37.9600
 1.3160	37.8630
 1.3170	37.7500
 1.3180	37.6400
 1.3190	37.5300
 1.3200	37.4190
 1.3210	37.3170
 1.3220	37.2170
 1.3230	37.1130
 1.3240	37.0060
 1.3250	36.8920
 1.3260	36.7820
 1.3270	36.6640
 1.3280	36.5380
 1.3290	36.4220
 1.3300	36.2930
 1.3310	36.1620
 1.3320	36.0350
 1.3330	35.8960
 1.3340	35.7560
 1.3350	35.6130
 1.3360	35.4690
 1.3370	35.3330
 1.3380	35.1990
 1.3390	35.0710
 1.3400	34.9450
 1.3410	34.8020
 1.3420	34.6710
 1.3430	34.5470
 1.3440	34.4090
 1.3450	34.2750
 1.3460	34.1460
 1.3470	34.0120
 1.3480	33.8700
 1.3490	33.7400
 1.3500	33.6150
 1.3510	33.4870
 1.3520	33.3630
 1.3530	33.2380
 1.3540	33.1130
 1.3550	32.9770
 1.3560	32.8420
 1.3570	32.7090
 1.3580	32.5720
 1.3590	32.4390
 1.3600	32.3010
 1.3610	32.1590
 1.3620	32.0190
 1.3630	31.8790
 1.3640	31.7360
 1.3650	31.5850
 1.3660	31.4300
 1.3670	31.2640
 1.3680	31.0850
 1.3690	30.9000
 1.3700	30.7050
 1.3710	30.4910
 1.3720	30.2730
 1.3730	30.0470
 1.3740	29.7950
 1.3750	29.5340
 1.3760	29.2560
 1.3770	28.9480
 1.3780	28.6230
 1.3790	28.2800
 1.3800	27.9100
 1.3810	27.5260
 1.3820	27.1270
 1.3830	26.7130
 1.3840	26.2800
 1.3850	25.8320
 1.3860	25.3680
 1.3870	24.8820
 1.3880	24.3930
 1.3890	23.8910
 1.3900	23.3870
 1.3910	22.8830
 1.3920	22.3780
 1.3930	21.8710
 1.3940	21.3610
 1.3950	20.8560
 1.3960	20.3600
 1.3970	19.8740
 1.3980	19.4050
 1.3990	18.9470
 1.4000	18.4980
 1.4010	18.0630
 1.4020	17.6420
 1.4030	17.2420
 1.4040	16.8630
 1.4050	16.5020
 1.4060	16.1570
 1.4070	15.8360
 1.4080	15.5320
 1.4090	15.2480
 1.4100	14.9840
 1.4110	14.7300
 1.4120	14.4870
 1.4130	14.2600
 1.4140	14.0490
 1.4150	13.8610
 1.4160	13.6910
 1.4170	13.5380
 1.4180	13.3990
 1.4190	13.2670
 1.4200	13.1460
 1.4210	13.0320
 1.4220	12.9300
 1.4230	12.8390
 1.4240	12.7550
 1.4250	12.6790
 1.4260	12.6120
 1.4270	12.5490
 1.4280	12.4950
 1.4290	12.4430
 1.4300	12.3950
 1.4310	12.3530
 1.4320	12.3160
 1.4330	12.2840
 1.4340	12.2600
 1.4350	12.2350
 1.4360	12.2120
 1.4370	12.1920
 1.4380	12.1750
 1.4390	12.1630
 1.4400	12.1560
 1.4410	12.1540
 1.4420	12.1570
 1.4430	12.1570
 1.4440	12.1620
 1.4450	12.1700
 1.4460	12.1740
 1.4470	12.1830
 1.4480	12.1920
 1.4490	12.2020
 1.4500	12.2130
 1.4510	12.2270
 1.4520	12.2420
 1.4530	12.2560
 1.4540	12.2700
 1.4550	12.2890
 1.4560	12.3040
 1.4570	12.3220
 1.4580	12.3470
 1.4590	12.3680
 1.4600	12.3940
 1.4610	12.4230
 1.4620	12.4520
 1.4630	12.4910
 1.4640	12.5340
 1.4650	12.5790
 1.4660	12.6300
 1.4670	12.6820
 1.4680	12.7400
 1.4690	12.8010
 1.4700	12.8630
 1.4710	12.9310
 1.4720	12.9960
 1.4730	13.0640
 1.4740	13.1420
 1.4750	13.2150
 1.4760	13.2930
 1.4770	13.3750
 1.4780	13.4550
 1.4790	13.5480
 1.4800	13.6380
 1.4810	13.7260
