Name: Umbellularia californica 3
Type: vegetation
Class: Shrub
Genus: Umbellularia
Species: californica
Sample No.: VH030
Owner: UCSB
Wavelength Range: TIR
Origin: 34.5075; -119.763; WGS84
Collection Date: 4/1/2013
Description: Samples were collected as part of the HyspIRI Airborne Campaign. 48 individual plants were sampled in three times in 2013 - spring  summer  and fall. The name of the sample includes a 1  2  or 3 which references a different individual of the species. Samples were taken to JPL and processed within 48 hours of collection. The same leaves were processed in the Nicolet and then measured using the ASD.
Measurement: Hemispherical reflectance
First Column: X
Second Column: Y
X Units: Wavelength (micrometers)
Y Units: Reflectance (percentage)
First X Value: 2.501
Last X Value: 15.387
Number of X Values: 1737
Additional Information: vegetation.shrub.umbellularia.californica.tir.vh030.ucsb.nicolet.ancillary.txt

 2.5010	10.0300
 2.5030	10.1900
 2.5040	10.2050
 2.5050	10.0470
 2.5060	10.0570
 2.5070	10.0650
 2.5090	10.1180
 2.5100	10.0060
 2.5110	10.0410
 2.5120	10.0320
 2.5140	10.0660
 2.5150	 9.9500
 2.5160	 9.9760
 2.5170	10.0040
 2.5180	 9.9600
 2.5200	 9.8690
 2.5210	10.0020
 2.5220	 9.9740
 2.5230	 9.8600
 2.5250	 9.9810
 2.5260	10.1170
 2.5270	 9.9900
 2.5280	10.0520
 2.5290	10.0050
 2.5310	10.0710
 2.5320	10.0960
 2.5330	10.1200
 2.5340	 9.9580
 2.5360	 9.9190
 2.5370	 9.8930
 2.5380	10.0040
 2.5390	 9.9130
 2.5410	 9.8680
 2.5420	10.0110
 2.5430	10.2200
 2.5440	10.1950
 2.5460	10.0700
 2.5470	 9.9850
 2.5480	10.0760
 2.5490	10.0370
 2.5510	10.0150
 2.5520	 9.9740
 2.5530	10.1350
 2.5540	10.1980
 2.5560	10.1870
 2.5570	10.1660
 2.5580	10.1060
 2.5590	10.0460
 2.5610	10.2100
 2.5620	10.2540
 2.5630	10.2610
 2.5640	10.2200
 2.5660	10.2130
 2.5670	10.1860
 2.5680	10.2190
 2.5700	10.1340
 2.5710	10.2200
 2.5720	10.2210
 2.5730	10.1550
 2.5750	10.0740
 2.5760	10.1030
 2.5770	10.2000
 2.5790	10.2570
 2.5800	10.1910
 2.5810	10.1760
 2.5820	10.1700
 2.5840	10.2010
 2.5850	10.0000
 2.5860	 9.9960
 2.5880	 9.9290
 2.5890	 9.8970
 2.5900	 9.9370
 2.5910	10.0390
 2.5930	 9.9900
 2.5940	10.2640
 2.5950	10.3580
 2.5970	10.1570
 2.5980	10.1130
 2.5990	10.1940
 2.6000	10.0590
 2.6020	 9.9470
 2.6030	 9.8760
 2.6040	10.0050
 2.6060	 9.9630
 2.6070	 9.8660
 2.6080	 9.7570
 2.6100	 9.7700
 2.6110	 9.9120
 2.6120	 9.9500
 2.6140	 9.8800
 2.6150	 9.8770
 2.6160	 9.9170
 2.6180	 9.8610
 2.6190	 9.7370
 2.6200	 9.8660
 2.6220	 9.7480
 2.6230	 9.6110
 2.6240	 9.5490
 2.6260	 9.5510
 2.6270	 9.4680
 2.6280	 9.3850
 2.6300	 9.3450
 2.6310	 9.4360
 2.6320	 9.3920
 2.6340	 9.4220
 2.6350	 9.3210
 2.6360	 9.3040
 2.6380	 9.2260
 2.6390	 9.2310
 2.6400	 9.3310
 2.6420	 9.2820
 2.6430	 9.1750
 2.6440	 9.2000
 2.6460	 9.1790
 2.6470	 9.1140
 2.6480	 8.9260
 2.6500	 9.0510
 2.6510	 9.2810
 2.6520	 9.1440
 2.6540	 8.8840
 2.6550	 8.8640
 2.6560	 8.8890
 2.6580	 8.9800
 2.6590	 9.0630
 2.6610	 8.9970
 2.6620	 8.8770
 2.6630	 8.8970
 2.6650	 8.8740
 2.6660	 8.8900
 2.6670	 8.8170
 2.6690	 8.7950
 2.6700	 8.8860
 2.6720	 8.7660
 2.6730	 8.6000
 2.6740	 8.6080
 2.6760	 8.6880
 2.6770	 8.8170
 2.6780	 8.6710
 2.6800	 8.6210
 2.6810	 8.5640
 2.6830	 8.6100
 2.6840	 8.5750
 2.6850	 8.5550
 2.6870	 8.4500
 2.6880	 8.3480
 2.6900	 8.3160
 2.6910	 8.4150
 2.6920	 8.3200
 2.6940	 8.3530
 2.6950	 8.2850
 2.6970	 8.1270
 2.6980	 8.0550
 2.6990	 8.1270
 2.7010	 8.0430
 2.7020	 8.0100
 2.7040	 8.0100
 2.7050	 8.1080
 2.7060	 8.0490
 2.7080	 7.9690
 2.7090	 8.0200
 2.7110	 8.3510
 2.7120	 8.3040
 2.7130	 8.0570
 2.7150	 7.9500
 2.7160	 7.8730
 2.7180	 7.9070
 2.7190	 8.0880
 2.7210	 7.9360
 2.7220	 7.8510
 2.7230	 8.0210
 2.7250	 8.0800
 2.7260	 7.9530
 2.7280	 7.9480
 2.7290	 7.8440
 2.7310	 7.7780
 2.7320	 7.8130
 2.7330	 7.9040
 2.7350	 7.8700
 2.7360	 7.9400
 2.7380	 7.9970
 2.7390	 8.0330
 2.7410	 8.1120
 2.7420	 8.2250
 2.7440	 8.0420
 2.7450	 7.8610
 2.7470	 7.9230
 2.7480	 8.0770
 2.7490	 7.9140
 2.7510	 7.8390
 2.7520	 7.9730
 2.7540	 8.2250
 2.7550	 8.1730
 2.7570	 7.8290
 2.7580	 7.5560
 2.7600	 7.7970
 2.7610	 7.9340
 2.7630	 7.9060
 2.7640	 7.6950
 2.7660	 7.8250
 2.7670	 7.8480
 2.7680	 7.8610
 2.7700	 7.8360
 2.7710	 7.8840
 2.7730	 8.0200
 2.7740	 8.0840
 2.7760	 7.9830
 2.7770	 7.8790
 2.7790	 7.7510
 2.7800	 7.8590
 2.7820	 8.0340
 2.7830	 8.0280
 2.7850	 7.9290
 2.7860	 8.1320
 2.7880	 8.0780
 2.7890	 8.1140
 2.7910	 8.0440
 2.7920	 7.9490
 2.7940	 7.7370
 2.7950	 7.7190
 2.7970	 7.9210
 2.7980	 8.0900
 2.8000	 8.0350
 2.8010	 8.0840
 2.8030	 7.9730
 2.8040	 7.8970
 2.8060	 7.8470
 2.8070	 7.9810
 2.8090	 7.9780
 2.8110	 7.9960
 2.8120	 7.9700
 2.8140	 7.9710
 2.8150	 7.9740
 2.8170	 8.0140
 2.8180	 7.9530
 2.8200	 7.8790
 2.8210	 7.9490
 2.8230	 8.1800
 2.8240	 8.1230
 2.8260	 7.9570
 2.8270	 7.8670
 2.8290	 8.0980
 2.8300	 8.1540
 2.8320	 8.0210
 2.8340	 7.8950
 2.8350	 7.9690
 2.8370	 7.9330
 2.8380	 7.9990
 2.8400	 8.0320
 2.8410	 8.0030
 2.8430	 7.9250
 2.8440	 8.0150
 2.8460	 8.0790
 2.8480	 8.1660
 2.8490	 8.1060
 2.8510	 8.0830
 2.8520	 8.0200
 2.8540	 8.1160
 2.8550	 8.1060
 2.8570	 7.9820
 2.8590	 7.8790
 2.8600	 7.9970
 2.8620	 7.9100
 2.8630	 7.8380
 2.8650	 7.8880
 2.8660	 8.1110
 2.8680	 7.9880
 2.8700	 7.8480
 2.8710	 7.8690
 2.8730	 8.1330
 2.8740	 8.2040
 2.8760	 8.2210
 2.8780	 8.0940
 2.8790	 7.8610
 2.8810	 7.7720
 2.8820	 8.0600
 2.8840	 8.0660
 2.8860	 8.0110
 2.8870	 7.8330
 2.8890	 7.7910
 2.8900	 7.8660
 2.8920	 8.1160
 2.8940	 8.2420
 2.8950	 8.1640
 2.8970	 8.0370
 2.8980	 8.0730
 2.9000	 8.0210
 2.9020	 7.9230
 2.9030	 7.9130
 2.9050	 8.1060
 2.9070	 8.0620
 2.9080	 8.0580
 2.9100	 8.0330
 2.9120	 7.9710
 2.9130	 7.9130
 2.9150	 8.0770
 2.9160	 7.9960
 2.9180	 8.0230
 2.9200	 7.9680
 2.9210	 8.0040
 2.9230	 7.9790
 2.9250	 7.8810
 2.9260	 7.9100
 2.9280	 8.1180
 2.9300	 8.0400
 2.9310	 8.0230
 2.9330	 7.9700
 2.9350	 7.9900
 2.9360	 7.9400
 2.9380	 7.9560
 2.9400	 7.9640
 2.9410	 8.0710
 2.9430	 8.0110
 2.9450	 7.8460
 2.9460	 7.8130
 2.9480	 7.9680
 2.9500	 7.7310
 2.9510	 7.8190
 2.9530	 8.0540
 2.9550	 8.0290
 2.9560	 7.7910
 2.9580	 7.8470
 2.9600	 8.1110
 2.9610	 8.0710
 2.9630	 8.0480
 2.9650	 8.4380
 2.9660	 8.5650
 2.9680	 8.4330
 2.9700	 8.0130
 2.9720	 7.6070
 2.9730	 7.8270
 2.9750	 8.0740
 2.9770	 8.0580
 2.9780	 8.0230
 2.9800	 7.8670
 2.9820	 7.8830
 2.9840	 8.1890
 2.9850	 7.6130
 2.9870	 7.0860
 2.9890	 7.2570
 2.9900	 7.3560
 2.9920	 8.2130
 2.9940	 8.6060
 2.9960	 8.2970
 2.9970	 7.9120
 2.9990	 7.9430
 3.0010	 8.2140
 3.0030	 8.0140
 3.0040	 7.6730
 3.0060	 8.1170
 3.0080	 8.4180
 3.0100	 8.1760
 3.0110	 7.5210
 3.0130	 7.4170
 3.0150	 7.9960
 3.0170	 8.5740
 3.0180	 8.1670
 3.0200	 8.1490
 3.0220	 8.0090
 3.0240	 7.9990
 3.0250	 8.3330
 3.0270	 8.2350
 3.0290	 7.9150
 3.0310	 7.5650
 3.0320	 7.1740
 3.0340	 7.4100
 3.0360	 7.8570
 3.0380	 8.2850
 3.0400	 8.0430
 3.0410	 8.1910
 3.0430	 8.3830
 3.0450	 8.2090
 3.0470	 7.9230
 3.0480	 8.1370
 3.0500	 7.8110
 3.0520	 8.0450
 3.0540	 7.9740
 3.0560	 7.6620
 3.0570	 7.5220
 3.0590	 8.1510
 3.0610	 8.2370
 3.0630	 8.1350
 3.0650	 8.2370
 3.0660	 8.1210
 3.0680	 7.9570
 3.0700	 7.7850
 3.0720	 7.8670
 3.0740	 7.7140
 3.0760	 7.8080
 3.0770	 7.8510
 3.0790	 7.8390
 3.0810	 8.0490
 3.0830	 7.9010
 3.0850	 7.9150
 3.0870	 8.1090
 3.0880	 8.0750
 3.0900	 7.8940
 3.0920	 7.8270
 3.0940	 8.0660
 3.0960	 8.2950
 3.0980	 8.2720
 3.0990	 8.3070
 3.1010	 8.1030
 3.1030	 7.8570
 3.1050	 7.7710
 3.1070	 7.9410
 3.1090	 7.9530
 3.1110	 7.9820
 3.1120	 7.9590
 3.1140	 8.0310
 3.1160	 8.0130
 3.1180	 8.0380
 3.1200	 8.0630
 3.1220	 8.0380
 3.1240	 7.9430
 3.1260	 7.9990
 3.1270	 7.9390
 3.1290	 7.8290
 3.1310	 7.6980
 3.1330	 7.5200
 3.1350	 7.6250
 3.1370	 8.0730
 3.1390	 8.1390
 3.1410	 8.1010
 3.1430	 7.8660
 3.1450	 7.6350
 3.1460	 7.6780
 3.1480	 7.9680
 3.1500	 7.9660
 3.1520	 8.1520
 3.1540	 7.8360
 3.1560	 7.6290
 3.1580	 7.7320
 3.1600	 7.8670
 3.1620	 7.9110
 3.1640	 7.9630
 3.1660	 8.2180
 3.1680	 8.3790
 3.1700	 8.3460
 3.1710	 8.0580
 3.1730	 8.0480
 3.1750	 8.0310
 3.1770	 7.9160
 3.1790	 7.9570
 3.1810	 8.0200
 3.1830	 7.9740
 3.1850	 8.1250
 3.1870	 8.3990
 3.1890	 8.1110
 3.1910	 7.7200
 3.1930	 7.5410
 3.1950	 7.7410
 3.1970	 7.7060
 3.1990	 7.8090
 3.2010	 7.8220
 3.2030	 8.0340
 3.2050	 8.2500
 3.2070	 8.1190
 3.2090	 7.8880
 3.2110	 7.8760
 3.2130	 7.8680
 3.2150	 7.8220
 3.2170	 7.7410
 3.2190	 7.6870
 3.2210	 7.6330
 3.2230	 7.7690
 3.2250	 7.8480
 3.2270	 7.8600
 3.2290	 7.7080
 3.2310	 7.6860
 3.2330	 7.7340
 3.2350	 7.6820
 3.2370	 7.6210
 3.2390	 7.5640
 3.2410	 7.5860
 3.2430	 7.6560
 3.2450	 7.6060
 3.2470	 7.7030
 3.2490	 7.7310
 3.2510	 7.6850
 3.2530	 7.5840
 3.2550	 7.5780
 3.2570	 7.6950
 3.2590	 7.7660
 3.2610	 7.6760
 3.2630	 7.7070
 3.2650	 7.7100
 3.2670	 7.7370
 3.2690	 7.6620
 3.2720	 7.6360
 3.2740	 7.5720
 3.2760	 7.6800
 3.2780	 7.7310
 3.2800	 7.6830
 3.2820	 7.6730
 3.2840	 7.6520
 3.2860	 7.5920
 3.2880	 7.5990
 3.2900	 7.5570
 3.2920	 7.4920
 3.2940	 7.5170
 3.2960	 7.6010
 3.2990	 7.5890
 3.3010	 7.6800
 3.3030	 7.7210
 3.3050	 7.6810
 3.3070	 7.7020
 3.3090	 7.6810
 3.3110	 7.6400
 3.3130	 7.6820
 3.3150	 7.5770
 3.3180	 7.4640
 3.3200	 7.4850
 3.3220	 7.5340
 3.3240	 7.5170
 3.3260	 7.6830
 3.3280	 7.7230
 3.3300	 7.6500
 3.3330	 7.5470
 3.3350	 7.5760
 3.3370	 7.6240
 3.3390	 7.6980
 3.3410	 7.7240
 3.3430	 7.6670
 3.3450	 7.3940
 3.3480	 7.3820
 3.3500	 7.4540
 3.3520	 7.5560
 3.3540	 7.4820
 3.3560	 7.4320
 3.3580	 7.4530
 3.3610	 7.5570
 3.3630	 7.5500
 3.3650	 7.4620
 3.3670	 7.3840
 3.3690	 7.5320
 3.3720	 7.6560
 3.3740	 7.6520
 3.3760	 7.5570
 3.3780	 7.6000
 3.3800	 7.4570
 3.3830	 7.4310
 3.3850	 7.4600
 3.3870	 7.4890
 3.3890	 7.4170
 3.3910	 7.3280
 3.3940	 7.2600
 3.3960	 7.3170
 3.3980	 7.2550
 3.4000	 7.3390
 3.4020	 7.5300
 3.4050	 7.6440
 3.4070	 7.6620
 3.4090	 7.7660
 3.4110	 7.9150
 3.4140	 8.1660
 3.4160	 8.2830
 3.4180	 8.5840
 3.4200	 9.0340
 3.4230	 9.5920
 3.4250	10.2640
 3.4270	11.1080
 3.4290	11.6690
 3.4320	11.5480
 3.4340	10.7670
 3.4360	10.0450
 3.4390	 9.5970
 3.4410	 9.4800
 3.4430	 9.3120
 3.4450	 9.2370
 3.4480	 9.1070
 3.4500	 9.0530
 3.4520	 8.9130
 3.4550	 8.9040
 3.4570	 8.8900
 3.4590	 8.7170
 3.4620	 8.5190
 3.4640	 8.5940
 3.4660	 8.5580
 3.4680	 8.4610
 3.4710	 8.3910
 3.4730	 8.4130
 3.4750	 8.3330
 3.4780	 8.2460
 3.4800	 8.1720
 3.4820	 8.1560
 3.4850	 8.1440
 3.4870	 8.1090
 3.4890	 8.0090
 3.4920	 7.9430
 3.4940	 7.8950
 3.4970	 8.0330
 3.4990	 8.1110
 3.5010	 8.2000
 3.5040	 8.3080
 3.5060	 8.7930
 3.5080	 9.7240
 3.5110	10.7380
 3.5130	10.8050
 3.5160	10.2240
 3.5180	 9.6820
 3.5200	 9.3910
 3.5230	 9.1980
 3.5250	 9.0380
 3.5270	 8.8730
 3.5300	 8.7150
 3.5320	 8.5720
 3.5350	 8.5090
 3.5370	 8.5170
 3.5400	 8.6120
 3.5420	 8.5150
 3.5440	 8.4520
 3.5470	 8.4580
 3.5490	 8.3920
 3.5520	 8.3720
 3.5540	 8.4430
 3.5570	 8.4140
 3.5590	 8.3820
 3.5610	 8.2490
 3.5640	 8.2240
 3.5660	 8.3280
 3.5690	 8.5010
 3.5710	 8.4270
 3.5740	 8.3390
 3.5760	 8.3270
 3.5790	 8.2630
 3.5810	 8.3230
 3.5840	 8.4340
 3.5860	 8.3600
 3.5890	 8.3930
 3.5910	 8.2520
 3.5930	 8.0760
 3.5960	 8.0430
 3.5980	 8.1730
 3.6010	 8.3430
 3.6030	 8.3010
 3.6060	 8.1910
 3.6080	 8.2680
 3.6110	 8.1690
 3.6140	 8.1120
 3.6160	 8.1430
 3.6190	 8.1400
 3.6210	 8.0980
 3.6240	 8.0990
 3.6260	 8.0570
 3.6290	 8.0600
 3.6310	 8.0640
 3.6340	 8.1210
 3.6360	 8.2540
 3.6390	 8.2870
 3.6410	 8.1550
 3.6440	 8.1720
 3.6470	 8.2230
 3.6490	 8.2100
 3.6520	 8.1430
 3.6540	 8.0600
 3.6570	 7.9870
 3.6590	 8.0370
 3.6620	 8.0430
 3.6650	 8.0780
 3.6670	 8.0480
 3.6700	 8.0510
 3.6720	 8.0920
 3.6750	 8.1420
 3.6780	 8.1490
 3.6800	 8.2450
 3.6830	 8.2390
 3.6850	 8.0780
 3.6880	 8.0080
 3.6910	 8.1580
 3.6930	 8.2040
 3.6960	 8.1270
 3.6990	 8.1050
 3.7010	 8.1790
 3.7040	 8.1690
 3.7060	 8.1330
 3.7090	 8.0960
 3.7120	 8.0750
 3.7140	 8.0530
 3.7170	 8.1460
 3.7200	 8.1590
 3.7220	 8.1660
 3.7250	 8.1240
 3.7280	 8.0850
 3.7300	 7.9880
 3.7330	 8.0810
 3.7360	 8.2240
 3.7390	 8.2850
 3.7410	 8.1820
 3.7440	 8.1230
 3.7470	 8.0720
 3.7490	 8.0670
 3.7520	 8.1180
 3.7550	 8.1940
 3.7580	 8.0960
 3.7600	 8.1000
 3.7630	 8.1980
 3.7660	 8.2160
 3.7680	 8.1540
 3.7710	 8.1540
 3.7740	 8.1330
 3.7770	 8.2090
 3.7790	 8.3080
 3.7820	 8.2700
 3.7850	 8.2210
 3.7880	 8.2780
 3.7900	 8.2630
 3.7930	 8.2770
 3.7960	 8.2400
 3.7990	 8.1740
 3.8020	 8.1280
 3.8040	 8.1490
 3.8070	 8.1110
 3.8100	 8.1120
 3.8130	 8.0660
 3.8160	 8.0850
 3.8180	 8.1710
 3.8210	 8.1900
 3.8240	 8.1720
 3.8270	 8.2520
 3.8300	 8.2620
 3.8330	 8.2010
 3.8350	 8.1860
 3.8380	 8.2010
 3.8410	 8.1330
 3.8440	 8.2290
 3.8470	 8.3730
 3.8500	 8.3580
 3.8520	 8.2510
 3.8550	 8.1930
 3.8580	 8.2110
 3.8610	 8.2580
 3.8640	 8.2060
 3.8670	 8.1880
 3.8700	 8.2510
 3.8730	 8.2290
 3.8750	 8.1740
 3.8780	 8.2720
 3.8810	 8.2980
 3.8840	 8.2970
 3.8870	 8.3210
 3.8900	 8.2890
 3.8930	 8.1700
 3.8960	 8.2160
 3.8990	 8.1890
 3.9020	 8.2100
 3.9050	 8.2440
 3.9080	 8.2750
 3.9110	 8.2440
 3.9140	 8.3070
 3.9160	 8.3910
 3.9190	 8.3800
 3.9220	 8.2630
 3.9250	 8.2310
 3.9280	 8.2640
 3.9310	 8.2680
 3.9340	 8.2610
 3.9370	 8.3360
 3.9400	 8.3300
 3.9430	 8.2870
 3.9460	 8.3530
 3.9490	 8.4140
 3.9520	 8.3660
 3.9550	 8.3690
 3.9580	 8.3420
 3.9610	 8.2780
 3.9640	 8.2110
 3.9670	 8.3040
 3.9700	 8.3600
 3.9730	 8.3290
 3.9770	 8.2380
 3.9800	 8.2520
 3.9830	 8.2920
 3.9860	 8.3260
 3.9890	 8.3690
 3.9920	 8.4150
 3.9950	 8.3740
 3.9980	 8.2490
 4.0010	 8.1890
 4.0040	 8.2830
 4.0070	 8.3470
 4.0100	 8.3800
 4.0130	 8.3580
 4.0170	 8.3690
 4.0200	 8.3230
 4.0230	 8.3100
 4.0260	 8.3300
 4.0290	 8.3280
 4.0320	 8.2860
 4.0350	 8.2690
 4.0380	 8.3290
 4.0420	 8.3610
 4.0450	 8.2560
 4.0480	 8.2310
 4.0510	 8.2760
 4.0540	 8.2760
 4.0570	 8.3580
 4.0610	 8.3920
 4.0640	 8.3140
 4.0670	 8.4400
 4.0700	 8.4730
 4.0730	 8.4320
 4.0770	 8.4090
 4.0800	 8.3510
 4.0830	 8.3380
 4.0860	 8.3540
 4.0890	 8.3740
 4.0930	 8.3110
 4.0960	 8.2390
 4.0990	 8.3210
 4.1020	 8.3230
 4.1060	 8.4040
 4.1090	 8.4410
 4.1120	 8.3610
 4.1150	 8.3160
 4.1190	 8.3460
 4.1220	 8.3440
 4.1250	 8.3340
 4.1280	 8.2990
 4.1320	 8.2940
 4.1350	 8.2670
 4.1380	 8.2950
 4.1420	 8.3670
 4.1450	 8.4440
 4.1480	 8.4460
 4.1520	 8.4340
 4.1550	 8.3900
 4.1580	 8.3660
 4.1620	 8.4290
 4.1650	 8.4510
 4.1680	 8.3730
 4.1720	 8.3120
 4.1750	 8.3140
 4.1780	 8.4020
 4.1820	 8.4000
 4.1850	 8.3580
 4.1890	 8.3150
 4.1920	 8.3110
 4.1950	 8.2930
 4.1990	 8.3460
 4.2020	 8.4020
 4.2060	 8.5110
 4.2090	 8.5760
 4.2120	 8.4610
 4.2160	 8.4060
 4.2190	 8.5820
 4.2230	 8.5920
 4.2260	 8.4800
 4.2300	 8.1920
 4.2330	 7.9130
 4.2360	 7.6980
 4.2400	 7.9470
 4.2430	 7.9610
 4.2470	 8.1120
 4.2500	 8.1320
 4.2540	 8.0610
 4.2570	 8.2130
 4.2610	 8.3890
 4.2640	 8.2710
 4.2680	 8.1740
 4.2710	 7.5790
 4.2750	 7.1990
 4.2780	 7.8390
 4.2820	 8.4200
 4.2850	 8.3290
 4.2890	 8.0720
 4.2930	 8.0040
 4.2960	 8.1580
 4.3000	 8.3220
 4.3030	 8.2270
 4.3070	 8.1810
 4.3100	 8.3090
 4.3140	 8.2850
 4.3180	 8.2060
 4.3210	 8.2160
 4.3250	 8.2090
 4.3280	 8.0870
 4.3320	 8.1700
 4.3360	 8.3230
 4.3390	 8.3030
 4.3430	 8.2370
 4.3470	 8.2050
 4.3500	 8.1690
 4.3540	 8.1890
 4.3570	 8.2320
 4.3610	 8.2540
 4.3650	 8.2170
 4.3680	 8.2410
 4.3720	 8.2570
 4.3760	 8.2390
 4.3800	 8.2290
 4.3830	 8.2790
 4.3870	 8.2700
 4.3910	 8.2650
 4.3940	 8.2720
 4.3980	 8.2860
 4.4020	 8.2670
 4.4060	 8.2480
 4.4090	 8.2390
 4.4130	 8.2130
 4.4170	 8.2190
 4.4210	 8.1810
 4.4240	 8.1240
 4.4280	 8.1590
 4.4320	 8.2800
 4.4360	 8.2950
 4.4400	 8.3020
 4.4430	 8.2740
 4.4470	 8.2430
 4.4510	 8.2770
 4.4550	 8.2230
 4.4590	 8.1820
 4.4620	 8.1630
 4.4660	 8.1920
 4.4700	 8.2090
 4.4740	 8.2250
 4.4780	 8.2520
 4.4820	 8.1680
 4.4860	 8.1550
 4.4900	 8.2300
 4.4930	 8.2370
 4.4970	 8.2210
 4.5010	 8.2090
 4.5050	 8.2150
 4.5090	 8.1610
 4.5130	 8.1510
 4.5170	 8.1490
 4.5210	 8.1080
 4.5250	 8.1110
 4.5290	 8.1350
 4.5330	 8.1900
 4.5370	 8.1830
 4.5410	 8.1670
 4.5450	 8.2040
 4.5490	 8.1800
 4.5530	 8.1330
 4.5570	 8.0910
 4.5610	 8.0810
 4.5650	 8.0880
 4.5690	 8.1210
 4.5730	 8.0780
 4.5770	 8.0150
 4.5810	 8.0420
 4.5850	 8.0530
 4.5890	 8.0100
 4.5930	 8.0670
 4.5970	 8.1540
 4.6010	 8.2120
 4.6050	 8.0880
 4.6090	 8.0360
 4.6130	 8.0960
 4.6170	 8.0930
 4.6220	 8.0560
 4.6260	 8.1340
 4.6300	 8.1660
 4.6340	 8.1940
 4.6380	 8.2510
 4.6420	 8.2010
 4.6460	 8.0890
 4.6510	 8.0140
 4.6550	 8.0690
 4.6590	 8.1440
 4.6630	 8.1710
 4.6670	 8.1250
 4.6720	 8.0790
 4.6760	 8.0980
 4.6800	 8.1150
 4.6840	 8.1150
 4.6880	 8.0830
 4.6930	 8.0070
 4.6970	 8.0160
 4.7010	 8.0910
 4.7050	 8.0930
 4.7100	 8.0410
 4.7140	 8.1000
 4.7180	 8.2180
 4.7230	 8.2340
 4.7270	 8.1360
 4.7310	 8.1280
 4.7360	 8.1410
 4.7400	 8.0800
 4.7440	 8.1590
 4.7490	 8.1980
 4.7530	 8.2040
 4.7570	 8.1700
 4.7620	 8.1060
 4.7660	 8.0490
 4.7700	 8.0730
 4.7750	 8.1240
 4.7790	 8.1080
 4.7840	 8.0910
 4.7880	 8.0560
 4.7920	 8.0730
 4.7970	 8.0150
 4.8010	 8.0280
 4.8060	 8.1670
 4.8100	 8.1990
 4.8150	 8.1270
 4.8190	 8.1460
 4.8240	 8.1350
 4.8280	 8.1790
 4.8330	 8.1710
 4.8370	 8.1290
 4.8420	 8.1740
 4.8460	 8.1230
 4.8510	 8.0610
 4.8550	 8.0760
 4.8600	 8.0690
 4.8640	 8.0810
 4.8690	 8.0990
 4.8730	 8.1330
 4.8780	 8.1750
 4.8830	 8.1560
 4.8870	 8.1630
 4.8920	 8.1420
 4.8960	 8.1470
 4.9010	 8.2400
 4.9060	 8.3050
 4.9100	 8.2110
 4.9150	 8.1370
 4.9200	 8.1850
 4.9240	 8.2420
 4.9290	 8.2190
 4.9340	 8.2640
 4.9380	 8.2930
 4.9430	 8.2870
 4.9480	 8.2930
 4.9530	 8.2150
 4.9570	 8.1660
 4.9620	 8.1900
 4.9670	 8.2750
 4.9720	 8.3080
 4.9760	 8.2960
 4.9810	 8.3570
 4.9860	 8.4230
 4.9910	 8.3580
 4.9960	 8.2920
 5.0000	 8.2290
 5.0050	 8.2550
 5.0100	 8.2390
 5.0150	 8.2870
 5.0200	 8.3460
 5.0250	 8.3880
 5.0290	 8.3310
 5.0340	 8.2880
 5.0390	 8.2170
 5.0440	 8.2250
 5.0490	 8.2400
 5.0540	 8.2920
 5.0590	 8.3100
 5.0640	 8.3720
 5.0690	 8.4200
 5.0740	 8.3570
 5.0790	 8.3180
 5.0840	 8.3270
 5.0890	 8.2960
 5.0940	 8.2980
 5.0990	 8.3430
 5.1040	 8.4080
 5.1090	 8.3800
 5.1140	 8.3970
 5.1190	 8.3940
 5.1240	 8.3530
 5.1290	 8.3310
 5.1340	 8.3610
 5.1390	 8.3800
 5.1440	 8.3930
 5.1490	 8.4310
 5.1540	 8.4780
 5.1600	 8.4150
 5.1650	 8.3530
 5.1700	 8.3590
 5.1750	 8.3540
 5.1800	 8.3420
 5.1850	 8.3440
 5.1910	 8.3070
 5.1960	 8.3600
 5.2010	 8.4280
 5.2060	 8.3870
 5.2110	 8.3700
 5.2170	 8.4540
 5.2220	 8.4860
 5.2270	 8.4350
 5.2320	 8.3830
 5.2380	 8.4360
 5.2430	 8.4100
 5.2480	 8.3970
 5.2540	 8.4030
 5.2590	 8.3620
 5.2640	 8.4050
 5.2700	 8.4350
 5.2750	 8.4490
 5.2800	 8.4280
 5.2860	 8.4060
 5.2910	 8.4610
 5.2970	 8.4360
 5.3020	 8.3720
 5.3070	 8.3850
 5.3130	 8.4130
 5.3180	 8.4050
 5.3240	 8.3800
 5.3290	 8.3570
 5.3350	 8.4770
 5.3400	 8.4690
 5.3460	 8.4260
 5.3510	 8.4630
 5.3570	 8.5300
 5.3620	 8.5010
 5.3680	 8.4390
 5.3730	 8.3280
 5.3790	 8.3280
 5.3850	 8.3920
 5.3900	 8.4320
 5.3960	 8.3980
 5.4010	 8.3750
 5.4070	 8.3290
 5.4130	 8.3270
 5.4180	 8.3690
 5.4240	 8.3280
 5.4300	 8.2600
